Photon Energy (eV)	#1	#2	#3	#4	#5	#6	#7	#8	#9	#10	#11	#12	#13	#14	#15	#16	#17	#18	#19	#20	#21	#22	#23	#24	#25	#26	#27	#28	#29	#30	#31	#32	#33	#34	#35	#36	#37	#38	#39	#40	#41	#42	#43	#44	#45	#46	#47	#48	#49	#50	#51	#52	#53	#54	#55	#56	#57	#58	#59	#60	#61	#62	#63	#64	#65	#66	#67	#68	#69	#70	#71	#72	#73	#74	#75	#76	#77	#78	#79	#80	#81	#82	#83	#84	#85	#86	#87	#88	#89	#90	#91	#92	#93	#94	#95	#96	#97	#98	#99	#100	#101	#102	#103	#104	#105	#106	#107	#108	#109	#110	#111	#112	#113	#114	#115	#116	#117	#118	#119	#120	#121	#122	#123	#124	#125	#126	#127	#128	#129	#130	#131	#132	#133	#134	#135	#136	#137	#138	#139	#140	#141	#142	#143	#144	#145	#146	#147	#148	#149	#150	#151	#152	#153	#154	#155	#156	#157	#158	#159	#160	#161	#162	#163	#164	#165	
5.300320E+2	-9.382909E-3	-7.669074E-3	-7.352699E-4	3.112395E-3	-1.113341E-2	-4.270057E-3	-9.612544E-3	-8.919340E-3	-3.598193E-4	-6.980407E-3	-3.115254E-3	-7.551996E-3	-1.175138E-2	-2.654942E-3	-7.950646E-3	-2.326827E-2	-3.254046E-3	-1.126894E-2	-1.099474E-3	-6.913938E-3	-1.140715E-2	-1.742961E-2	3.230197E-3	-5.607715E-3	-8.750158E-3	-6.862554E-4	-4.424607E-3	-1.176041E-2	4.834964E-4	-1.202700E-2	-8.572425E-3	-1.642108E-2	-6.791066E-3	-9.042735E-3	-3.901702E-3	-8.903420E-3	-9.418366E-3	-1.036776E-2	-1.092201E-2	-1.141914E-2	-9.257267E-3	-1.052185E-2	3.378998E-3	6.715838E-4	-5.601261E-3	-4.899157E-3	-1.254550E-2	-1.837709E-3	-1.267121E-2	-1.127543E-2	-3.319634E-3	-9.281525E-3	-1.021836E-2	-2.586404E-3	-7.014124E-4	2.905204E-3	-2.882484E-3	-5.187244E-3	-9.656829E-3	-3.861124E-4	-4.815094E-3	-8.147014E-3	-1.177109E-2	-6.670238E-3	-1.162754E-2	-8.816672E-3	-8.999053E-3	-3.180127E-3	-1.173644E-2	-2.483573E-3	-1.277645E-2	-3.068864E-3	-1.445716E-2	-1.214213E-2	-1.121823E-2	-1.073992E-2	-1.123115E-2	-2.502345E-3	-5.131531E-3	-5.766312E-3	-4.868830E-3	-2.075631E-3	-7.622814E-3	-4.290991E-3	-9.553843E-4	-3.651760E-3	-6.082064E-3	-5.282880E-3	-8.435171E-3	-4.727761E-3	-1.061121E-2	-5.363237E-3	-4.662221E-3	-9.871698E-3	-4.955933E-3	-1.310192E-2	-3.995433E-3	-9.073076E-3	-1.395378E-2	-6.667736E-3	-9.549353E-3	-9.026885E-3	-5.840841E-3	-2.937420E-3	-8.327525E-3	-1.452809E-2	-5.355493E-3	-9.204854E-3	-1.359549E-2	-6.949728E-3	-7.532490E-3	-7.714902E-3	-8.461480E-3	-1.589380E-3	-2.870830E-3	-5.476190E-3	-4.419603E-3	-6.892113E-3	-1.614203E-2	-1.159040E-2	-7.313616E-3	-4.555301E-3	-4.174713E-3	-8.374688E-3	-1.804557E-2	-5.183384E-3	-5.805393E-3	-8.381501E-3	9.526303E-4	-5.045188E-3	-4.667376E-3	-1.565805E-2	-1.227592E-2	-7.324361E-3	-9.449743E-3	-1.230938E-2	-1.447468E-2	-1.592880E-2	-4.022524E-3	-1.114790E-2	-5.320586E-3	-1.440856E-2	-3.751133E-3	-9.900426E-3	-4.865949E-3	-9.274798E-3	-1.837602E-2	-7.916807E-3	-8.487841E-3	-2.106555E-2	-3.894477E-3	-8.880672E-3	-6.533705E-3	-9.224808E-3	1.994058E-3	2.519271E-3	-6.268880E-3	-9.206057E-3	-6.276902E-5	-1.024802E-2	-8.198342E-3	-5.511582E-3	-8.766616E-3	-1.170835E-2	4.190509E-3
5.305030E+2	-9.173023E-3	-8.325155E-3	-2.121753E-2	-1.914169E-2	2.651915E-3	-2.571777E-3	-8.063979E-3	-6.408380E-3	-5.017970E-3	-1.684098E-2	-9.091413E-3	-1.012997E-2	3.621077E-3	-6.698857E-3	-4.840990E-3	2.335334E-3	-9.736609E-3	-4.640158E-3	-1.237990E-2	-3.822959E-3	-8.108460E-3	-7.677109E-3	-1.369709E-2	-6.519782E-3	-1.982381E-2	-3.393127E-3	-7.153825E-5	-1.570034E-2	-5.115763E-3	-4.106249E-3	3.310457E-3	-9.930938E-3	-3.322683E-3	-1.583650E-2	-4.243911E-3	-1.025995E-2	3.699794E-3	-4.984290E-3	-1.492066E-2	-4.007121E-4	-6.849809E-3	-8.917757E-3	-6.739434E-3	-8.454001E-3	-8.753405E-3	-1.019243E-2	-4.625478E-3	6.335513E-3	-4.940665E-3	-1.801228E-3	-8.221837E-3	-2.008125E-3	-1.060087E-3	-5.635403E-3	-1.423582E-2	-1.136580E-2	-4.848297E-3	-7.049791E-3	-1.010157E-2	-5.896180E-3	-9.363503E-3	-3.489564E-3	-7.668648E-3	-1.041066E-2	-9.391420E-3	-1.211192E-2	-8.858929E-3	-3.721799E-3	-9.215959E-3	-1.090263E-2	-7.582813E-3	-7.063328E-3	-6.238693E-3	-6.607413E-3	-6.100104E-3	2.790857E-3	-2.988494E-3	-6.768707E-3	1.202887E-3	-5.524744E-3	-1.084639E-2	-1.789003E-3	-1.186436E-2	-3.295989E-3	-1.072773E-2	-1.355390E-2	-1.024405E-2	-1.599603E-2	-1.039693E-2	-1.967384E-2	-4.196648E-3	3.687892E-5	-7.425674E-3	-6.718427E-3	-8.680079E-3	-1.298976E-2	-7.236803E-3	2.353541E-3	-1.762894E-3	-1.091793E-2	-5.316840E-3	-5.146086E-3	-5.496401E-3	-3.829512E-3	-1.397168E-2	-1.169222E-2	-5.049351E-3	-5.985049E-3	-1.395150E-2	-6.603682E-3	-3.223163E-3	-4.698415E-3	-4.166488E-3	-9.076005E-3	-1.389894E-2	-6.042101E-3	-1.517950E-2	-8.505219E-3	-6.493807E-3	-8.040308E-3	-1.109629E-2	-2.731883E-3	4.852764E-3	-8.965166E-3	-3.016000E-3	-6.946025E-4	-9.791402E-3	-5.536205E-3	-1.852629E-2	-6.155401E-3	-4.302784E-3	-1.114053E-2	-7.005420E-3	-1.398833E-2	-9.842318E-3	-8.493921E-3	-7.598775E-3	-1.591458E-2	-8.170020E-4	-6.717782E-3	-6.253951E-3	-5.140457E-3	-3.955516E-3	-5.448195E-3	-7.667357E-3	2.435426E-3	7.005823E-4	5.909775E-4	-4.179941E-3	-3.670756E-3	-7.179687E-3	-8.520475E-3	-1.835266E-3	1.668576E-3	-5.479626E-3	-7.690985E-3	-4.692362E-3	-6.382360E-3	-9.546312E-3	-3.479845E-4	-4.371831E-3	4.064422E-4	-4.770783E-3	-1.476099E-2	-4.879945E-4
5.310100E+2	-6.110034E-3	-1.431112E-3	-7.573014E-3	-6.619055E-3	-1.918531E-2	-1.198895E-2	-1.070285E-2	-2.104948E-3	8.320275E-4	-4.695703E-3	-3.271695E-3	-2.473856E-3	-5.079983E-3	-4.938949E-3	-8.068798E-3	-9.193096E-3	-4.832680E-3	-3.816037E-3	4.010278E-3	-7.497538E-4	1.420368E-4	-6.447986E-3	-8.795544E-3	-2.095493E-3	-8.471031E-3	-9.810745E-3	-1.493949E-2	1.228592E-4	-7.286639E-3	-2.893827E-3	-1.314885E-2	-5.911031E-3	-1.160872E-2	2.910370E-4	-1.100245E-2	-9.505504E-3	-8.468842E-3	-6.200489E-3	-3.837833E-3	1.490176E-3	-1.042293E-2	2.540645E-3	-1.136959E-2	-2.717158E-4	-3.968792E-3	-4.353396E-3	-1.107814E-2	-9.845982E-3	-4.858948E-3	-9.167231E-3	2.977036E-3	-1.927296E-3	-1.271129E-2	-3.840230E-3	-7.170599E-3	-8.079802E-3	-8.442329E-3	-6.282283E-3	-3.899344E-3	-2.837239E-3	-5.541331E-3	-2.853149E-3	-7.032279E-3	4.395901E-3	-1.405269E-2	-5.824861E-3	3.904668E-3	-1.238037E-2	-1.849662E-3	-1.425441E-3	-1.832240E-3	6.813644E-3	-6.167630E-3	-9.688233E-3	-1.845588E-3	-3.489004E-3	-3.583677E-3	-4.701997E-3	-8.351777E-3	-1.069770E-2	-3.794195E-3	-3.843390E-3	9.958027E-4	-7.892493E-3	-1.256494E-2	-6.635231E-3	1.902259E-3	-7.500169E-3	-1.104925E-2	-6.543354E-3	-4.114654E-3	-8.051697E-3	-6.714252E-3	-7.219748E-3	-7.427491E-3	3.502151E-3	-1.209959E-2	-8.114688E-3	-9.042565E-3	-3.316049E-3	-9.870507E-3	-8.703604E-3	-5.407023E-3	-4.360816E-3	-1.095194E-2	-8.848868E-3	-5.615586E-3	-1.124881E-2	-4.868848E-4	-5.275096E-4	-1.028968E-2	-1.482429E-2	-5.473562E-3	-1.161559E-2	-6.188588E-3	-5.145373E-3	-5.903784E-3	-9.053986E-3	-1.209779E-2	-5.272287E-3	-7.608928E-3	-1.426366E-2	-1.703590E-3	-2.102037E-4	-1.100858E-2	-4.717019E-3	-7.236230E-3	-7.409139E-3	-9.514770E-3	1.485990E-3	-1.155561E-2	-8.789462E-3	-6.907709E-3	7.346306E-3	-5.252736E-3	-5.354924E-3	-5.988667E-3	-3.459351E-3	-1.083822E-2	-9.392992E-3	-6.790571E-3	-5.638080E-3	-4.419008E-3	-6.614044E-3	-6.065104E-3	-3.591772E-3	-5.068115E-3	-9.743938E-3	-8.192799E-5	-8.971267E-4	-8.627193E-4	-7.099594E-3	-1.479486E-2	-9.781075E-3	-8.089142E-3	-6.751984E-3	-2.653229E-3	7.219137E-4	-4.587846E-3	-1.290126E-3	2.303212E-3	-3.288544E-3	2.288275E-3	-4.500367E-3	-6.167908E-3
5.315130E+2	-6.027046E-3	-1.831904E-2	1.091123E-3	-1.164880E-2	-2.409253E-3	-1.682100E-3	1.065313E-2	-2.679244E-3	-6.907951E-3	2.755934E-3	-8.256076E-3	-1.690871E-3	-7.495802E-3	-2.022800E-3	2.084130E-3	-4.834081E-3	-1.363653E-2	-1.761235E-3	-5.639613E-3	2.331494E-3	-9.102829E-3	4.428010E-4	-8.084678E-3	-1.206979E-2	-6.481390E-4	-1.296451E-2	-6.651103E-3	-4.218023E-4	-7.237254E-3	-3.344042E-3	-8.303818E-4	-4.519459E-3	-5.673195E-4	-3.236718E-4	-5.352095E-3	-4.308175E-3	-1.090392E-2	-4.845276E-3	-4.390341E-3	-9.263536E-3	-9.636769E-3	-3.797651E-3	7.305223E-3	-9.009077E-3	-1.332473E-2	-1.973603E-3	2.855480E-4	-6.532505E-3	-4.103723E-3	5.791925E-3	-6.688543E-3	-8.320570E-3	3.224106E-3	-7.781698E-3	-3.920817E-3	-1.574044E-3	2.585119E-3	-3.491300E-3	-7.244261E-3	-6.487090E-3	-1.091724E-3	-6.095771E-3	-2.746370E-4	-6.931720E-3	-6.537546E-3	3.278405E-3	-2.713514E-3	-5.965058E-3	-1.784111E-3	-3.867778E-3	-1.759994E-3	-4.398757E-3	-3.626948E-3	8.510931E-3	5.246674E-3	-6.260933E-3	-2.837882E-3	3.994873E-3	1.986491E-3	-1.202538E-4	-5.824188E-3	-4.490137E-3	-8.480374E-4	-1.174190E-2	-6.117502E-3	1.658986E-3	5.799852E-3	1.465227E-2	3.621085E-3	-1.229441E-2	-4.749005E-3	3.917419E-3	-7.271115E-3	-1.152353E-4	1.407950E-3	-1.901062E-3	-1.431273E-3	-2.097254E-3	-4.271680E-3	7.302333E-3	1.493191E-3	-7.416609E-3	5.919403E-3	-5.541138E-3	-1.162579E-2	1.614163E-3	-9.496842E-4	-1.348506E-2	-6.485288E-3	-3.428246E-3	-7.875571E-4	-1.134405E-2	-1.221927E-3	3.560122E-3	-2.921812E-3	-5.073184E-3	-2.533065E-3	-3.861300E-3	-2.497663E-3	-6.529532E-3	-3.579218E-5	5.533151E-4	-4.292616E-3	-8.819954E-3	-5.940504E-3	-1.674428E-3	-9.825429E-4	-7.336434E-3	-4.871315E-4	-8.738394E-3	9.961407E-3	6.446751E-3	-2.380496E-3	-2.864292E-3	5.126142E-3	-1.000823E-3	-3.630895E-3	1.056471E-2	3.421541E-3	-2.395771E-3	2.794141E-4	-1.122588E-4	-2.033777E-3	-1.100538E-2	-2.948772E-3	-2.156775E-3	2.544960E-4	-7.378256E-4	-2.656086E-3	-4.131130E-3	-2.026034E-3	-9.015313E-3	-9.363117E-3	1.854327E-3	-1.305060E-3	1.569777E-4	-2.570916E-3	-1.063896E-2	-1.663795E-3	-1.204389E-3	-4.148816E-3	-1.391132E-2	-1.029485E-2	-1.840796E-2	-1.773500E-2
5.320170E+2	6.586147E-4	1.472429E-2	3.922829E-3	-6.227392E-4	4.392479E-3	4.883218E-3	-7.170275E-3	-6.878042E-3	-1.333721E-2	8.102171E-3	-3.186606E-3	-2.389935E-3	1.963584E-3	-2.596247E-3	9.469209E-4	2.521495E-3	1.026972E-4	-4.375528E-3	-9.564014E-3	-1.431595E-3	-2.866046E-3	-7.238037E-4	1.582551E-3	-7.863455E-4	7.787893E-3	3.210968E-3	-5.289563E-3	4.369550E-3	-2.818753E-3	1.098087E-3	-2.698655E-3	7.851276E-3	9.761327E-3	-1.727460E-3	-3.914378E-4	-5.311543E-4	6.235599E-5	-9.838287E-4	7.928203E-3	-7.432515E-3	-1.634117E-3	-2.577446E-4	-8.020080E-3	-4.268289E-3	-1.549280E-3	2.056036E-3	-1.514088E-3	-4.586170E-3	-6.607464E-4	-1.219840E-2	-6.732131E-3	-1.175052E-3	4.570948E-3	-3.774028E-3	-3.295620E-3	-4.162358E-3	-3.471657E-4	-3.488119E-3	-4.396972E-4	-2.788419E-3	-1.713929E-3	-1.680690E-3	1.954136E-3	-2.250570E-3	9.717384E-3	-2.291164E-3	-2.726356E-3	1.626628E-2	3.688965E-3	-3.880212E-3	-4.297054E-3	-6.434708E-4	-1.136877E-3	-1.766787E-3	-3.945583E-3	9.960915E-5	1.003921E-2	5.969846E-3	1.981019E-3	-2.106857E-3	-9.332732E-3	4.872657E-4	2.344055E-3	-4.926012E-5	4.726837E-3	7.124810E-3	-1.138185E-2	2.947097E-3	-7.799121E-4	5.864375E-3	-2.660985E-3	-1.311244E-3	-4.770196E-3	-1.189956E-4	-3.270189E-3	6.990394E-3	2.086165E-3	-1.448858E-3	-1.596391E-3	-1.305574E-2	1.517234E-4	7.188924E-3	-2.373637E-3	3.847357E-3	1.046396E-2	-2.559437E-3	-1.615895E-3	1.558341E-2	-1.620267E-3	-5.828200E-3	1.429813E-3	2.296718E-3	1.550063E-3	-6.967152E-3	8.925406E-4	-1.076419E-3	1.258142E-2	-1.309653E-3	4.478357E-3	2.154193E-3	-1.414249E-3	5.959771E-3	-1.233153E-2	2.020874E-3	5.909125E-3	4.235383E-3	-2.839571E-3	1.170131E-2	1.859563E-4	1.786027E-4	-1.442781E-3	4.146337E-3	1.602717E-2	1.241358E-3	-6.468621E-3	1.435088E-3	6.988490E-3	-3.407613E-3	7.016998E-4	-4.486517E-3	4.082933E-3	4.842370E-4	6.564565E-3	4.941700E-3	4.647370E-3	-2.854159E-3	1.552057E-3	-1.505382E-3	3.989104E-3	5.104254E-4	-1.411756E-3	7.568863E-3	7.521296E-3	-4.830536E-4	6.923395E-4	-3.667121E-3	-8.369833E-3	4.616067E-3	-1.073082E-3	-8.162211E-3	-5.370448E-4	-1.286551E-3	1.081732E-2	1.550214E-2	-3.203692E-3
5.325120E+2	1.554792E-2	1.024489E-2	1.090453E-2	1.760038E-2	1.254976E-2	4.623954E-3	2.889733E-3	1.327214E-2	1.359850E-2	3.884655E-3	7.505310E-3	1.121280E-2	1.138843E-2	1.866757E-3	9.873835E-3	1.043982E-2	1.164289E-2	4.569949E-3	-6.428832E-4	2.794751E-3	1.392516E-2	2.074436E-3	3.887667E-3	8.628939E-3	1.118146E-2	1.622153E-2	9.617608E-3	7.691146E-3	5.530102E-3	1.157144E-2	7.714384E-3	1.030492E-2	3.794112E-3	4.322292E-3	1.257072E-2	1.427356E-2	1.050934E-2	2.033403E-2	4.815217E-3	1.000388E-2	1.281430E-2	3.799630E-3	-1.526234E-3	-3.873449E-3	7.249563E-3	-2.675975E-3	1.699680E-2	1.774585E-3	1.097022E-2	7.576099E-3	5.859988E-3	9.067903E-3	1.596856E-3	7.026276E-3	9.987317E-3	1.125265E-2	5.982368E-3	4.760232E-3	8.272619E-3	5.961192E-3	6.986928E-3	5.409537E-3	1.846863E-3	1.172307E-2	1.096533E-2	5.253635E-3	9.819415E-3	6.450465E-3	2.282693E-3	1.298689E-2	1.521215E-2	5.513071E-3	1.265810E-2	9.003021E-3	2.290182E-3	5.664977E-3	-4.482631E-3	-5.564611E-3	-6.038203E-4	1.024765E-2	1.572023E-2	6.691687E-3	7.967948E-3	5.131963E-3	9.735543E-3	7.656251E-3	4.361975E-3	3.416688E-3	4.841939E-3	1.225236E-2	1.048041E-2	5.131470E-3	8.932455E-3	8.603380E-3	9.524215E-3	1.978594E-3	8.266833E-3	3.656008E-3	1.308484E-2	-5.852682E-3	8.004530E-3	5.237958E-3	4.030162E-3	-7.264090E-4	1.847223E-2	1.884795E-2	8.097263E-3	1.523894E-3	1.668118E-2	7.876469E-3	9.212331E-3	1.795053E-2	4.796422E-3	1.529048E-2	2.063760E-2	6.694850E-3	1.896793E-3	6.247366E-3	1.012436E-2	7.373406E-3	1.354135E-2	4.134298E-3	1.299418E-2	1.741583E-3	1.461837E-2	1.147968E-3	7.550114E-3	5.627870E-3	5.515125E-3	-2.148480E-3	8.489585E-3	2.332173E-3	1.022707E-2	5.147848E-3	8.866615E-3	1.729066E-2	9.813090E-3	1.655472E-2	-2.953980E-3	5.704888E-3	1.359653E-3	1.010650E-2	4.195566E-3	1.254855E-2	1.125611E-2	9.698579E-4	4.662693E-3	7.151410E-3	-1.991666E-4	1.176366E-2	2.775802E-3	8.766109E-3	7.992989E-3	3.066779E-3	1.151616E-3	5.928914E-3	4.969639E-3	1.217631E-2	4.558628E-3	9.713860E-3	9.430230E-3	1.488074E-2	-3.704421E-4	2.210457E-2	-5.737130E-3
5.330230E+2	1.448648E-2	1.077520E-2	1.360733E-2	1.731950E-2	1.313382E-2	1.100571E-2	2.200679E-2	1.371781E-2	1.119243E-2	1.377433E-2	1.941573E-2	1.302382E-2	7.354072E-3	1.704504E-2	7.955549E-3	2.199880E-2	1.971428E-2	2.129195E-2	2.531560E-2	7.792001E-3	1.741728E-2	2.976127E-2	2.187689E-2	1.845018E-2	1.872378E-2	7.422134E-3	2.175869E-2	1.569900E-2	1.644481E-2	9.701589E-3	1.422547E-2	1.862631E-2	8.734348E-3	2.231704E-2	1.232087E-2	1.923464E-2	1.451963E-2	7.047616E-3	2.132743E-2	1.702185E-2	2.498659E-2	1.715473E-2	1.697112E-2	2.520495E-2	2.594791E-2	2.203852E-2	1.248086E-2	1.469227E-2	1.626507E-2	2.107427E-2	1.612512E-2	1.364466E-2	1.459782E-2	1.659149E-2	1.933695E-2	1.102415E-2	7.952788E-3	2.073850E-2	2.306908E-2	1.243385E-2	1.553865E-2	1.685665E-2	2.294565E-2	1.014422E-2	2.092647E-2	2.051258E-2	9.573770E-3	2.530610E-3	1.861451E-2	9.572739E-3	1.303639E-2	2.847704E-3	1.896921E-2	1.269061E-2	1.557265E-2	1.193442E-2	1.508463E-2	9.572940E-3	8.916730E-3	1.396822E-2	1.894610E-2	5.019207E-3	9.027403E-3	2.213867E-2	1.590318E-2	7.400839E-3	1.564387E-2	7.763014E-3	2.219824E-2	2.512263E-2	1.585209E-2	5.640410E-3	2.191100E-2	1.544072E-2	1.340153E-2	1.552161E-2	1.441010E-2	1.472433E-2	1.754247E-2	3.250780E-2	1.508726E-2	1.786630E-2	9.168335E-3	1.354794E-2	1.594074E-2	1.716650E-2	1.048875E-2	2.281647E-2	1.945825E-2	1.546090E-2	1.119075E-2	1.833440E-2	1.297697E-2	1.039752E-2	4.350035E-3	1.611842E-2	1.355774E-2	2.337491E-2	2.262857E-2	2.190493E-2	1.392752E-2	1.090346E-2	4.655514E-3	2.260755E-2	1.748316E-2	6.886082E-3	1.910503E-2	1.133410E-2	2.187448E-2	2.042287E-2	3.517560E-3	2.266279E-2	2.315299E-3	1.044147E-2	1.702066E-2	8.433298E-3	1.489143E-2	1.159091E-2	1.450849E-2	2.843607E-2	1.264311E-2	1.470861E-2	3.399304E-3	1.547780E-2	5.643698E-3	1.447222E-2	1.627431E-2	1.216157E-2	1.161586E-2	1.749047E-2	1.259887E-2	1.718108E-2	1.701266E-2	1.289926E-2	1.103581E-2	9.504928E-3	1.958558E-2	8.713092E-3	1.237518E-2	1.153887E-2	5.522591E-3	8.710821E-3	1.109710E-2	1.177095E-2	2.914121E-2
5.331580E+2	1.120256E-2	1.123547E-2	2.266125E-2	2.151551E-3	2.269826E-2	1.220286E-2	9.920776E-3	1.759453E-2	2.735453E-2	8.728974E-3	1.589718E-2	1.549329E-2	1.787198E-2	2.372371E-2	1.106550E-2	1.491106E-2	1.803623E-2	2.564917E-2	6.012557E-3	2.334606E-2	1.653951E-2	1.310425E-2	8.263326E-3	1.825971E-2	9.768689E-3	9.725721E-3	1.864673E-2	1.681042E-2	2.524996E-2	8.890127E-3	2.881930E-2	2.094430E-2	2.204395E-2	2.759225E-2	2.266282E-2	3.533884E-2	1.971981E-2	1.581384E-2	1.968155E-2	3.134515E-2	3.124991E-2	1.247023E-2	1.858089E-2	3.035490E-2	3.167700E-2	2.940980E-2	1.940551E-2	1.435644E-2	1.032605E-2	1.196499E-2	8.876901E-3	2.443773E-2	2.390247E-2	1.634426E-2	6.187080E-3	1.849567E-2	1.412215E-2	1.330579E-2	1.314109E-2	1.804632E-2	5.768451E-3	1.774270E-2	1.542354E-2	1.791212E-2	2.129832E-2	2.148399E-2	1.391015E-2	1.163698E-2	2.508702E-2	1.811332E-2	1.782069E-2	1.139229E-2	2.265386E-2	2.335802E-2	9.442146E-3	2.230838E-2	2.500516E-2	1.323142E-2	1.958795E-2	2.560060E-2	2.495723E-2	1.969770E-2	1.513885E-2	3.065998E-2	2.204750E-2	1.462091E-2	1.918547E-2	1.797651E-2	1.961985E-2	3.944902E-2	1.618021E-2	2.173344E-2	1.849023E-2	1.518484E-2	1.196172E-2	2.001338E-2	2.401959E-2	1.572348E-2	1.925308E-2	8.642569E-3	2.348764E-2	2.620822E-2	1.187170E-2	1.326177E-2	2.075995E-2	2.240777E-2	2.406007E-2	6.212798E-3	8.151435E-3	1.642829E-2	2.275323E-2	3.594744E-2	2.524473E-2	2.199031E-2	2.008884E-2	1.973110E-2	1.524392E-2	1.536663E-2	2.367715E-2	2.703230E-2	2.736036E-2	1.907226E-2	1.374548E-2	9.827567E-3	2.920569E-2	1.257824E-2	2.010619E-2	1.299192E-2	2.574253E-2	1.385332E-2	1.871030E-2	1.156127E-2	2.890555E-2	2.392549E-2	2.258626E-2	1.737973E-2	2.368245E-2	2.912741E-2	1.757208E-2	1.975945E-2	2.068317E-2	1.018832E-2	1.007269E-2	2.680584E-2	3.591458E-2	3.201027E-2	2.457019E-2	9.449523E-3	2.070263E-2	7.803266E-3	2.048241E-2	2.894537E-2	3.285540E-2	2.334383E-2	1.001277E-2	2.515406E-2	2.125961E-2	1.482029E-2	1.849367E-2	2.307741E-2	8.017052E-3	2.769513E-2	6.087177E-3	2.820643E-2	3.542444E-2
5.333130E+2	1.957069E-2	1.881685E-2	3.202211E-2	2.288698E-2	5.366382E-3	2.323116E-2	1.183355E-2	2.672739E-2	1.857612E-2	1.878550E-2	2.162125E-2	3.379510E-2	1.588957E-2	2.259730E-2	2.470474E-2	2.999257E-2	1.533310E-2	2.106344E-2	1.915476E-2	2.339251E-2	3.324861E-2	1.823195E-2	2.048100E-2	1.868997E-2	2.028829E-2	1.024484E-2	1.990860E-2	2.343338E-2	3.155896E-2	2.346391E-2	1.699186E-2	3.777610E-2	2.202417E-2	1.830954E-2	1.693040E-2	3.109972E-2	2.593508E-2	1.834681E-2	1.339844E-2	3.443529E-2	2.977915E-2	2.605942E-2	2.659755E-2	3.302075E-2	1.495989E-2	2.188307E-2	2.120705E-2	1.090944E-2	2.981593E-2	2.320880E-2	2.831444E-2	6.402167E-3	1.606511E-2	2.853894E-2	1.962894E-2	2.694968E-2	4.359906E-2	3.372072E-2	9.531634E-3	1.790588E-2	1.644281E-2	3.459276E-2	2.390939E-2	1.575452E-2	1.639327E-2	3.552760E-2	1.985353E-2	2.920720E-2	2.132616E-2	1.419245E-2	2.866029E-2	3.176681E-2	2.074436E-2	2.878626E-2	2.211626E-2	2.210696E-2	3.321894E-2	2.254668E-2	3.184918E-2	2.889666E-2	1.563482E-2	2.244463E-2	1.567057E-2	1.302277E-2	2.591457E-2	1.448933E-2	3.271390E-2	1.921083E-2	2.617355E-2	2.467476E-2	1.530000E-2	2.005315E-2	2.291240E-2	2.407822E-2	2.318614E-2	2.968403E-2	3.616812E-2	1.560029E-2	4.037178E-2	1.461656E-2	2.819265E-2	2.746283E-2	3.048473E-2	2.021946E-2	2.287345E-2	2.512567E-2	2.267833E-2	2.854497E-2	2.418792E-2	1.029194E-2	2.454519E-2	1.585086E-2	2.018540E-2	2.527047E-2	1.615652E-2	1.052397E-2	2.989281E-2	3.092509E-2	2.368228E-2	4.064824E-2	1.484164E-2	2.125443E-2	2.111628E-2	2.431026E-2	4.006393E-2	1.612679E-2	2.447728E-2	2.623332E-2	2.359195E-2	1.788908E-2	1.932666E-2	2.982475E-2	2.182846E-2	3.990606E-2	2.780106E-2	3.411514E-2	3.206113E-2	2.034594E-2	2.225380E-2	2.458102E-2	3.163956E-2	2.489437E-2	3.571796E-2	1.318724E-2	3.661027E-2	2.224828E-2	1.453642E-2	3.797240E-2	2.132578E-2	2.935519E-2	3.121678E-2	2.624279E-2	3.430564E-2	3.416215E-2	1.872783E-2	3.582276E-2	2.455226E-2	3.092184E-2	4.817101E-2	3.004808E-2	2.485155E-2	4.419556E-2	3.451122E-2	2.072450E-2	6.535174E-3
5.334580E+2	1.953192E-2	2.195883E-2	3.121016E-2	2.888498E-2	2.588779E-2	3.215172E-2	3.536682E-2	2.157736E-2	1.839346E-2	3.167460E-2	2.660935E-2	2.929351E-2	3.370700E-2	3.454132E-2	2.568858E-2	3.109848E-2	2.297176E-2	3.081715E-2	4.547663E-2	2.296320E-2	3.503594E-2	3.529486E-2	2.893664E-2	1.903792E-2	2.587680E-2	3.840977E-2	3.992624E-2	3.519426E-2	4.223397E-2	1.826479E-2	3.614881E-2	3.047052E-2	1.869287E-2	2.811328E-2	3.137300E-2	2.938464E-2	2.024340E-2	2.739352E-2	2.887960E-2	2.793474E-2	1.782323E-2	3.240110E-2	2.776434E-2	3.062807E-2	2.266040E-2	2.818196E-2	2.709046E-2	4.004658E-2	2.982142E-2	3.193529E-2	3.262165E-2	2.682593E-2	2.247602E-2	2.665892E-2	2.731036E-2	3.439558E-2	3.455628E-2	3.345157E-2	1.769800E-2	1.459075E-2	4.102293E-2	2.208526E-2	2.887200E-2	2.854965E-2	2.656452E-2	2.530685E-2	4.755388E-2	3.611940E-2	2.861458E-2	3.319886E-2	1.951786E-2	2.008794E-2	4.324521E-2	3.421262E-2	2.756447E-2	2.467659E-2	3.788058E-2	2.305615E-2	3.905049E-2	2.940068E-2	2.897830E-2	3.533453E-2	4.285830E-2	4.532565E-2	3.745079E-2	2.409021E-2	3.706546E-2	3.426833E-2	2.897315E-2	2.967893E-2	3.648778E-2	3.123674E-2	2.913834E-2	2.632239E-2	2.601563E-2	1.977028E-2	2.737134E-2	2.487062E-2	3.882191E-2	2.212928E-2	2.127994E-2	2.979668E-2	3.153525E-2	4.494667E-2	2.271637E-2	2.285593E-2	5.252597E-2	3.692356E-2	2.465880E-2	2.600181E-2	2.383524E-2	1.224167E-2	3.916076E-2	1.710938E-2	3.416793E-2	2.589607E-2	1.636660E-2	3.142053E-2	3.322341E-2	3.366405E-2	2.996966E-2	1.636326E-2	1.417093E-2	2.930715E-2	3.545049E-2	2.262174E-2	2.811373E-2	3.409549E-2	2.834854E-2	3.240880E-2	2.123413E-2	3.428521E-2	3.718920E-2	3.554590E-2	2.765586E-2	3.147766E-2	3.575179E-2	2.647613E-2	3.655563E-2	3.428381E-2	2.502307E-2	2.799227E-2	4.371103E-2	2.798373E-2	4.030679E-2	2.977295E-2	3.305451E-2	3.325855E-2	4.148584E-2	3.798258E-2	2.853796E-2	2.406866E-2	4.584914E-2	3.790657E-2	3.836011E-2	3.564590E-2	3.752792E-2	3.529334E-2	3.407271E-2	3.059522E-2	2.990100E-2	2.819330E-2	2.147909E-2	3.273644E-2	1.826743E-2
5.336080E+2	1.992397E-2	3.806403E-2	4.706643E-2	3.598815E-2	3.247740E-2	2.052845E-2	3.038272E-2	4.213055E-2	3.784647E-2	3.620956E-2	3.046165E-2	2.839509E-2	5.632882E-2	4.557956E-2	3.545073E-2	3.239148E-2	3.765034E-2	2.541228E-2	4.285753E-2	4.566485E-2	3.951941E-2	4.185541E-2	5.991558E-2	3.691188E-2	3.668041E-2	3.568215E-2	4.132050E-2	2.962011E-2	3.540789E-2	3.695418E-2	4.629591E-2	4.190789E-2	3.332431E-2	3.942997E-2	4.345588E-2	2.265762E-2	4.165938E-2	3.661830E-2	3.843814E-2	3.685936E-2	2.811302E-2	3.816339E-2	4.214159E-2	2.475476E-2	3.359355E-2	3.772037E-2	2.955748E-2	3.995955E-2	4.361915E-2	4.534730E-2	4.565679E-2	3.095247E-2	4.895809E-2	4.606796E-2	4.169899E-2	3.689823E-2	2.705723E-2	5.215249E-2	3.643479E-2	4.438746E-2	3.045794E-2	4.641141E-2	3.808381E-2	3.562906E-2	3.252076E-2	2.666490E-2	4.086297E-2	2.620335E-2	3.834360E-2	3.645263E-2	4.599876E-2	4.248720E-2	3.581910E-2	3.811948E-2	3.700486E-2	2.453554E-2	5.454703E-2	4.129715E-2	4.099831E-2	4.212601E-2	3.533094E-2	4.694616E-2	3.178014E-2	3.565791E-2	3.487313E-2	2.749215E-2	5.076329E-2	2.958664E-2	4.231779E-2	4.965420E-2	3.859290E-2	4.860921E-2	3.235496E-2	4.133342E-2	3.858125E-2	3.293934E-2	3.666811E-2	3.966197E-2	3.471104E-2	3.196989E-2	4.431812E-2	4.538418E-2	4.914603E-2	5.081455E-2	4.517444E-2	3.689925E-2	3.987714E-2	3.682790E-2	3.402525E-2	2.966502E-2	4.603833E-2	3.020849E-2	4.481280E-2	3.442552E-2	3.025541E-2	4.129339E-2	4.317855E-2	3.401854E-2	4.429039E-2	3.979868E-2	2.992977E-2	3.990898E-2	3.384968E-2	3.433309E-2	3.995820E-2	3.287479E-2	2.997333E-2	6.230662E-2	4.163741E-2	3.583278E-2	2.180603E-2	4.344310E-2	4.372121E-2	4.531194E-2	3.089831E-2	4.397964E-2	2.473565E-2	5.795300E-2	4.825902E-2	4.768406E-2	3.469764E-2	3.356983E-2	4.092188E-2	4.298143E-2	4.017640E-2	4.710169E-2	3.168647E-2	4.832598E-2	3.061780E-2	2.370847E-2	3.742772E-2	3.823267E-2	4.888986E-2	5.037743E-2	2.942028E-2	3.859642E-2	2.500523E-2	3.790064E-2	3.530630E-2	2.339816E-2	3.421953E-2	3.376485E-2	5.012557E-2	2.722092E-2	4.260292E-2
5.337630E+2	4.155739E-2	4.487173E-2	5.709530E-2	3.964344E-2	4.204645E-2	3.986427E-2	5.057086E-2	4.990008E-2	4.792789E-2	4.434345E-2	5.502389E-2	5.480758E-2	6.068331E-2	4.717204E-2	4.913159E-2	5.024873E-2	5.371285E-2	4.127508E-2	6.008514E-2	6.016477E-2	4.902581E-2	3.943156E-2	4.979746E-2	6.091647E-2	5.324757E-2	4.824817E-2	4.614301E-2	4.382220E-2	6.159558E-2	5.497326E-2	5.185258E-2	5.497678E-2	5.784294E-2	7.004030E-2	5.357322E-2	4.926111E-2	5.043958E-2	4.911388E-2	4.287575E-2	5.219472E-2	4.299093E-2	5.555689E-2	6.058397E-2	5.148588E-2	6.314074E-2	4.357128E-2	4.355961E-2	4.933832E-2	4.502790E-2	4.973041E-2	5.569848E-2	5.059470E-2	5.740567E-2	5.657104E-2	4.685520E-2	5.386182E-2	3.453215E-2	5.216705E-2	4.611705E-2	4.199956E-2	5.032911E-2	4.410473E-2	5.174985E-2	4.459400E-2	4.387937E-2	4.733487E-2	4.701179E-2	5.030761E-2	5.858737E-2	4.476742E-2	4.985503E-2	4.152314E-2	4.184063E-2	5.337240E-2	5.664762E-2	4.552640E-2	5.331779E-2	5.347773E-2	4.036101E-2	5.211426E-2	3.592256E-2	5.281318E-2	4.233230E-2	5.920594E-2	6.227540E-2	5.062154E-2	4.297889E-2	5.370421E-2	3.807685E-2	5.554728E-2	5.863808E-2	4.983667E-2	6.118323E-2	4.667377E-2	3.793908E-2	4.969452E-2	4.744584E-2	4.299067E-2	6.489549E-2	4.036407E-2	2.792942E-2	5.528436E-2	5.150348E-2	4.367336E-2	4.058593E-2	4.675342E-2	5.525951E-2	4.535856E-2	4.209078E-2	4.064677E-2	4.824985E-2	4.479295E-2	4.546047E-2	3.704361E-2	4.583342E-2	5.187922E-2	4.311138E-2	4.181639E-2	3.900975E-2	3.972418E-2	5.013420E-2	4.855480E-2	4.061988E-2	5.498275E-2	6.226958E-2	4.735528E-2	5.393257E-2	5.348078E-2	3.592896E-2	3.997016E-2	5.122398E-2	5.497938E-2	4.040282E-2	5.366227E-2	4.268249E-2	5.391853E-2	5.963220E-2	5.072417E-2	4.817715E-2	4.830624E-2	3.853656E-2	4.838704E-2	4.615000E-2	3.833255E-2	4.477244E-2	7.075342E-2	6.245817E-2	5.205242E-2	3.396259E-2	4.746758E-2	4.822895E-2	4.699305E-2	5.508916E-2	4.949689E-2	4.513812E-2	5.716322E-2	4.733377E-2	5.084297E-2	4.754247E-2	3.255246E-2	4.157851E-2	4.858744E-2	5.006859E-2	3.938446E-2	5.146125E-2
5.339090E+2	5.714728E-2	6.607863E-2	5.149202E-2	6.016246E-2	5.507807E-2	5.515183E-2	7.745754E-2	6.731648E-2	6.346945E-2	5.415329E-2	6.632129E-2	5.362121E-2	4.672402E-2	6.546194E-2	7.402766E-2	6.039042E-2	9.632413E-2	6.611321E-2	6.099080E-2	8.067175E-2	8.645345E-2	7.288458E-2	7.611513E-2	5.001881E-2	6.934106E-2	6.905843E-2	5.755959E-2	4.751086E-2	6.233879E-2	8.594310E-2	6.598247E-2	7.263836E-2	6.002980E-2	5.669272E-2	7.229623E-2	7.065162E-2	6.259566E-2	6.653996E-2	8.154364E-2	6.606261E-2	5.665499E-2	5.795812E-2	5.121930E-2	6.175714E-2	6.763088E-2	6.687187E-2	6.998693E-2	5.846330E-2	7.300952E-2	6.714491E-2	5.272450E-2	5.740585E-2	9.250086E-2	7.209734E-2	5.948729E-2	6.079330E-2	6.767889E-2	7.104656E-2	5.051761E-2	6.903880E-2	5.696773E-2	6.925449E-2	6.687239E-2	6.671483E-2	5.599195E-2	7.042184E-2	7.741728E-2	6.382527E-2	7.958306E-2	6.751316E-2	6.173864E-2	7.007827E-2	7.095428E-2	7.377498E-2	7.136516E-2	6.325883E-2	5.778678E-2	7.343960E-2	6.911009E-2	6.963360E-2	3.844655E-2	6.915749E-2	7.414281E-2	6.469925E-2	6.863408E-2	6.632792E-2	7.717628E-2	7.101514E-2	6.238993E-2	6.248991E-2	6.032203E-2	7.803075E-2	5.779320E-2	7.942205E-2	5.258175E-2	6.704127E-2	5.563935E-2	5.617436E-2	5.013127E-2	4.260168E-2	4.163395E-2	6.746372E-2	5.367046E-2	5.963180E-2	5.252429E-2	5.552111E-2	5.421762E-2	9.025705E-2	7.486995E-2	6.176738E-2	5.820547E-2	6.802596E-2	6.576653E-2	7.902216E-2	6.962310E-2	6.534204E-2	5.421941E-2	6.897286E-2	6.791452E-2	7.659537E-2	7.004680E-2	5.195344E-2	6.348008E-2	8.780402E-2	7.346475E-2	5.611326E-2	7.004572E-2	7.259531E-2	6.087034E-2	5.285972E-2	5.766425E-2	7.928425E-2	5.498160E-2	7.924882E-2	6.337067E-2	7.987735E-2	7.704305E-2	7.000257E-2	6.920124E-2	7.553738E-2	5.442323E-2	6.293984E-2	5.700456E-2	5.361806E-2	7.387077E-2	7.871943E-2	5.265927E-2	5.991249E-2	7.242454E-2	6.069674E-2	7.856186E-2	6.630075E-2	7.028971E-2	6.078908E-2	7.494208E-2	7.687671E-2	7.464730E-2	7.002272E-2	5.836204E-2	7.895660E-2	6.341924E-2	7.571664E-2	5.249397E-2	8.863702E-2	7.261099E-2
5.340640E+2	7.763784E-2	9.758085E-2	8.475873E-2	1.016055E-1	8.220283E-2	7.333287E-2	9.716573E-2	1.046399E-1	9.557857E-2	1.043417E-1	9.625051E-2	9.417802E-2	8.426869E-2	9.513929E-2	9.757848E-2	9.765457E-2	1.508008E-1	1.047597E-1	1.157419E-1	1.017367E-1	1.127981E-1	9.806775E-2	9.609354E-2	1.181690E-1	1.076302E-1	1.037355E-1	1.087606E-1	1.212212E-1	8.985393E-2	8.882981E-2	9.874455E-2	1.098012E-1	9.247401E-2	9.598938E-2	1.112098E-1	1.115614E-1	1.009124E-1	8.706315E-2	1.122998E-1	1.040248E-1	8.582130E-2	1.141000E-1	1.166653E-1	1.154260E-1	1.142266E-1	1.000254E-1	1.078396E-1	9.626640E-2	1.064633E-1	9.518362E-2	9.239699E-2	1.113366E-1	1.088638E-1	1.085763E-1	8.890870E-2	8.455926E-2	1.223579E-1	1.161938E-1	1.070915E-1	9.441549E-2	1.025741E-1	9.762119E-2	9.494991E-2	1.122672E-1	9.801588E-2	1.004410E-1	8.839705E-2	8.841986E-2	1.041328E-1	8.748324E-2	1.116340E-1	8.486652E-2	1.117532E-1	1.181760E-1	1.016096E-1	9.973562E-2	1.142881E-1	1.115435E-1	9.952982E-2	1.157361E-1	1.222919E-1	1.101364E-1	1.195388E-1	1.143701E-1	1.036178E-1	1.014848E-1	1.065876E-1	1.106882E-1	9.319274E-2	1.086742E-1	1.084315E-1	9.867366E-2	1.023196E-1	1.149764E-1	8.441865E-2	1.034192E-1	1.170910E-1	9.216633E-2	1.101816E-1	1.016884E-1	9.454941E-2	9.501108E-2	9.264614E-2	1.234388E-1	1.079488E-1	1.052849E-1	1.034033E-1	1.069844E-1	9.825627E-2	9.749470E-2	1.044180E-1	1.010300E-1	1.135871E-1	1.028241E-1	8.686668E-2	9.350984E-2	1.189753E-1	1.170850E-1	9.552117E-2	9.298944E-2	1.008584E-1	1.044650E-1	1.130065E-1	8.339224E-2	1.172342E-1	9.324256E-2	1.215088E-1	1.045861E-1	9.793938E-2	1.093111E-1	1.079793E-1	8.495512E-2	8.522054E-2	1.265132E-1	1.043944E-1	1.139650E-1	7.718857E-2	8.988236E-2	1.046354E-1	1.046249E-1	1.047493E-1	9.783797E-2	8.948994E-2	1.047679E-1	1.059617E-1	1.018827E-1	1.078175E-1	1.233230E-1	9.982872E-2	9.078579E-2	1.125668E-1	9.359849E-2	8.846126E-2	9.638156E-2	9.770514E-2	1.182007E-1	1.137130E-1	1.092595E-1	1.036409E-1	1.088982E-1	9.032870E-2	9.369159E-2	1.089118E-1	1.091280E-1	9.356881E-2
5.342090E+2	1.431501E-1	1.583443E-1	1.267292E-1	1.139343E-1	1.401947E-1	1.283245E-1	1.569386E-1	1.599364E-1	1.460447E-1	1.511533E-1	1.132643E-1	1.236099E-1	1.095890E-1	1.353385E-1	1.453622E-1	1.238665E-1	1.848100E-1	1.654442E-1	1.666128E-1	1.544913E-1	1.648881E-1	1.319106E-1	1.439846E-1	1.393428E-1	1.510954E-1	1.636629E-1	1.460390E-1	1.295632E-1	1.461867E-1	1.509109E-1	1.516117E-1	1.492215E-1	1.455210E-1	1.382695E-1	1.355497E-1	1.325950E-1	1.480432E-1	1.275782E-1	1.723668E-1	1.682187E-1	1.587845E-1	1.506636E-1	1.418220E-1	1.484041E-1	1.428719E-1	1.563939E-1	1.592731E-1	1.631074E-1	1.556141E-1	1.194944E-1	1.261454E-1	1.384596E-1	1.488312E-1	1.646143E-1	1.439486E-1	1.419495E-1	1.306899E-1	1.656558E-1	1.392840E-1	1.358498E-1	1.551773E-1	1.312069E-1	1.288755E-1	1.239418E-1	1.520740E-1	1.448854E-1	1.667816E-1	1.630192E-1	1.243904E-1	1.384884E-1	1.208156E-1	1.588471E-1	1.586270E-1	1.392622E-1	1.450355E-1	1.302402E-1	1.597614E-1	1.477186E-1	1.505529E-1	1.490742E-1	1.339681E-1	1.402472E-1	1.203120E-1	1.370072E-1	1.585322E-1	1.557258E-1	1.700911E-1	1.352385E-1	1.406219E-1	1.177098E-1	1.387199E-1	1.525702E-1	1.572686E-1	1.524546E-1	1.343784E-1	1.305607E-1	1.588515E-1	1.479362E-1	1.579288E-1	1.338783E-1	1.351465E-1	1.432933E-1	1.347634E-1	1.325104E-1	1.459818E-1	1.580106E-1	1.432650E-1	1.387197E-1	1.359955E-1	1.271562E-1	1.359231E-1	1.192626E-1	1.605811E-1	1.366666E-1	1.269521E-1	1.596452E-1	1.436008E-1	1.527364E-1	1.341748E-1	1.579165E-1	1.445967E-1	1.729717E-1	1.406061E-1	1.473864E-1	1.281614E-1	1.469693E-1	1.376314E-1	1.400213E-1	1.384496E-1	1.434766E-1	1.421231E-1	1.440610E-1	1.379916E-1	1.697756E-1	1.483466E-1	1.297650E-1	1.488659E-1	1.495874E-1	1.402523E-1	1.502904E-1	1.258071E-1	1.259994E-1	1.439319E-1	1.564950E-1	1.428336E-1	1.538673E-1	1.530477E-1	1.530667E-1	1.451334E-1	1.360066E-1	1.486157E-1	1.355712E-1	1.209195E-1	1.573742E-1	1.377890E-1	1.385663E-1	1.403345E-1	1.263996E-1	1.324680E-1	1.638327E-1	1.494253E-1	1.526309E-1	1.339952E-1	1.974747E-1	1.116360E-1
5.343600E+2	2.060601E-1	2.117844E-1	2.176094E-1	2.373510E-1	2.319941E-1	2.150917E-1	2.386005E-1	2.151452E-1	2.299578E-1	2.296466E-1	2.306208E-1	2.637340E-1	2.353712E-1	2.495824E-1	2.301235E-1	2.193590E-1	3.389364E-1	3.172233E-1	3.040580E-1	2.992207E-1	2.944380E-1	2.594569E-1	2.884015E-1	2.469873E-1	2.896590E-1	2.728749E-1	2.692288E-1	2.762110E-1	2.451830E-1	2.777628E-1	2.636119E-1	2.605112E-1	2.639066E-1	2.673142E-1	2.501987E-1	2.788050E-1	2.671963E-1	2.312466E-1	2.547016E-1	2.405163E-1	3.034320E-1	2.500884E-1	2.667746E-1	2.406270E-1	2.939624E-1	2.100190E-1	2.513465E-1	2.538475E-1	2.704757E-1	2.627846E-1	2.390070E-1	2.388147E-1	2.609697E-1	2.706156E-1	2.523114E-1	2.472777E-1	2.599320E-1	2.602877E-1	2.282067E-1	2.375727E-1	2.492587E-1	2.469311E-1	2.273031E-1	2.258995E-1	2.413033E-1	2.848416E-1	2.467092E-1	2.645924E-1	2.539097E-1	2.464902E-1	2.397983E-1	2.521804E-1	2.710047E-1	2.710631E-1	2.748331E-1	2.522579E-1	2.781418E-1	2.645306E-1	2.403632E-1	2.729632E-1	2.426324E-1	2.642493E-1	2.781564E-1	2.473693E-1	2.420271E-1	2.297304E-1	2.607221E-1	2.345240E-1	2.762206E-1	2.633026E-1	2.452457E-1	2.402575E-1	2.259120E-1	2.662799E-1	2.447432E-1	2.746741E-1	2.577243E-1	2.466696E-1	2.472698E-1	2.330361E-1	2.362943E-1	2.425190E-1	2.349720E-1	2.459756E-1	2.637674E-1	2.806810E-1	2.574864E-1	2.510725E-1	2.385605E-1	2.556081E-1	2.608571E-1	2.698329E-1	2.429264E-1	2.326829E-1	2.557551E-1	2.421053E-1	2.411711E-1	2.477448E-1	2.501174E-1	2.400462E-1	2.432983E-1	2.398050E-1	2.500742E-1	2.749308E-1	2.255927E-1	2.453261E-1	2.606335E-1	2.562467E-1	2.313025E-1	2.715264E-1	2.402016E-1	2.446453E-1	2.698084E-1	2.581353E-1	2.199342E-1	2.629747E-1	2.285701E-1	2.264902E-1	2.718040E-1	2.547939E-1	2.592451E-1	2.271903E-1	2.453550E-1	2.489644E-1	2.615901E-1	2.643974E-1	2.254948E-1	2.291693E-1	2.476634E-1	2.361535E-1	2.441021E-1	2.244766E-1	2.225733E-1	2.547521E-1	2.261893E-1	2.284145E-1	2.405031E-1	2.272385E-1	2.535406E-1	2.531883E-1	2.666718E-1	2.490577E-1	2.572971E-1	2.301288E-1	2.390809E-1
5.345160E+2	3.944228E-1	4.322358E-1	3.978838E-1	4.071201E-1	4.016967E-1	4.119637E-1	3.835666E-1	4.211538E-1	4.104320E-1	3.722023E-1	4.198628E-1	4.067905E-1	3.755947E-1	4.198783E-1	3.893861E-1	3.970233E-1	5.742769E-1	4.927041E-1	4.832014E-1	5.032801E-1	4.706398E-1	4.474433E-1	4.705740E-1	4.500360E-1	4.659028E-1	4.516332E-1	4.151164E-1	4.524064E-1	4.430873E-1	4.486142E-1	4.428290E-1	4.333038E-1	4.262109E-1	4.623627E-1	4.606728E-1	4.421853E-1	4.457690E-1	4.408644E-1	4.260540E-1	4.641354E-1	4.472639E-1	4.696106E-1	4.371082E-1	4.087297E-1	4.458729E-1	4.047703E-1	4.099144E-1	4.535492E-1	4.927820E-1	4.201695E-1	4.474559E-1	4.272189E-1	4.429604E-1	4.371383E-1	4.422415E-1	4.213292E-1	4.176207E-1	4.660372E-1	4.249544E-1	4.057962E-1	4.355013E-1	4.125454E-1	4.083366E-1	4.239360E-1	4.423089E-1	4.323951E-1	4.034208E-1	4.563868E-1	4.457408E-1	4.237609E-1	4.686653E-1	4.067218E-1	4.405421E-1	4.181913E-1	3.981619E-1	4.140741E-1	4.439781E-1	4.186246E-1	4.212798E-1	4.391281E-1	4.228227E-1	4.527605E-1	4.300317E-1	4.383165E-1	4.663402E-1	4.270620E-1	4.372852E-1	4.705693E-1	4.461609E-1	4.498675E-1	4.446614E-1	4.502868E-1	4.306689E-1	4.066608E-1	4.253708E-1	4.445119E-1	4.347101E-1	4.291501E-1	4.327528E-1	4.355485E-1	4.686708E-1	4.254229E-1	4.468933E-1	4.115686E-1	4.128471E-1	4.761536E-1	4.209174E-1	4.165502E-1	4.091306E-1	4.169551E-1	4.118347E-1	4.432467E-1	4.613477E-1	4.118017E-1	4.420044E-1	4.135854E-1	4.543629E-1	4.339071E-1	4.151620E-1	4.335019E-1	4.178874E-1	4.482255E-1	4.054059E-1	4.561606E-1	4.311780E-1	4.023124E-1	4.071259E-1	4.389849E-1	4.458772E-1	4.089680E-1	4.316269E-1	4.421285E-1	4.352364E-1	4.596659E-1	3.828195E-1	4.527294E-1	4.032951E-1	4.520380E-1	4.422521E-1	4.427948E-1	4.450744E-1	4.008718E-1	4.646806E-1	4.287247E-1	4.327923E-1	4.378120E-1	4.056366E-1	4.318441E-1	4.568084E-1	4.121011E-1	4.549507E-1	3.859752E-1	4.503473E-1	4.402866E-1	4.243012E-1	4.304067E-1	4.109314E-1	4.470453E-1	4.328447E-1	4.578993E-1	4.530463E-1	3.736442E-1	3.587381E-1	4.668911E-1	4.118874E-1
5.346620E+2	6.649097E-1	6.575207E-1	6.656761E-1	6.402369E-1	6.847513E-1	6.477700E-1	6.868417E-1	6.696556E-1	6.833914E-1	6.250823E-1	6.835888E-1	6.552500E-1	6.375781E-1	6.771679E-1	6.828000E-1	6.622078E-1	8.457807E-1	7.877791E-1	7.103624E-1	7.535011E-1	7.756513E-1	7.169814E-1	6.928040E-1	7.487596E-1	7.742849E-1	7.222601E-1	6.758824E-1	7.706850E-1	6.983547E-1	7.079716E-1	7.084562E-1	7.183299E-1	7.010675E-1	7.132981E-1	7.007859E-1	7.134089E-1	7.008487E-1	7.211859E-1	7.102951E-1	6.759596E-1	7.523746E-1	7.105975E-1	7.008830E-1	6.772920E-1	7.360242E-1	7.059171E-1	6.894112E-1	7.403593E-1	7.198877E-1	6.692155E-1	7.378735E-1	6.848188E-1	7.600028E-1	6.852443E-1	6.860260E-1	7.024154E-1	6.793684E-1	6.833239E-1	6.987806E-1	7.508144E-1	6.857289E-1	6.587021E-1	6.777595E-1	6.828129E-1	6.887394E-1	7.185293E-1	6.753349E-1	6.727747E-1	7.372082E-1	6.691265E-1	6.975818E-1	7.024830E-1	7.745373E-1	7.060098E-1	6.831086E-1	6.815826E-1	7.238790E-1	7.122212E-1	6.770730E-1	7.038734E-1	6.976552E-1	7.301142E-1	7.369405E-1	6.965915E-1	7.047439E-1	7.189822E-1	6.939780E-1	6.933335E-1	6.781151E-1	6.881541E-1	6.988709E-1	6.766370E-1	7.119015E-1	6.826304E-1	6.978974E-1	6.848050E-1	7.438610E-1	6.985687E-1	7.261765E-1	6.971925E-1	7.035157E-1	6.634732E-1	7.009157E-1	6.880554E-1	6.989930E-1	7.136693E-1	6.829391E-1	7.308725E-1	6.565799E-1	6.918428E-1	6.664431E-1	7.006458E-1	6.842960E-1	6.442881E-1	7.220953E-1	7.167228E-1	6.925975E-1	7.203681E-1	6.630329E-1	7.200991E-1	6.750305E-1	6.437880E-1	6.904509E-1	6.711727E-1	6.669066E-1	6.368362E-1	6.539409E-1	6.877100E-1	7.645596E-1	6.727489E-1	6.876769E-1	6.749115E-1	6.968454E-1	6.824210E-1	7.105644E-1	6.973902E-1	6.974580E-1	6.793509E-1	7.083880E-1	6.931065E-1	6.956036E-1	6.783420E-1	6.779086E-1	6.902596E-1	7.080237E-1	6.904008E-1	7.269454E-1	6.669815E-1	6.767001E-1	6.700949E-1	6.915768E-1	6.578858E-1	7.386150E-1	6.873401E-1	6.939688E-1	7.372708E-1	6.778159E-1	7.089520E-1	6.607314E-1	7.228689E-1	6.983499E-1	6.890816E-1	6.953094E-1	7.147912E-1	7.087762E-1
5.348070E+2	9.996237E-1	1.078839E+0	9.991515E-1	1.024114E+0	1.024361E+0	9.874861E-1	9.658565E-1	1.000483E+0	1.038280E+0	1.018290E+0	1.044272E+0	1.028303E+0	9.869423E-1	1.007275E+0	9.990064E-1	1.034403E+0	1.234037E+0	1.136038E+0	1.149136E+0	1.059251E+0	1.133906E+0	1.107281E+0	1.088210E+0	1.058038E+0	1.098243E+0	1.079061E+0	1.117779E+0	1.066031E+0	1.029729E+0	1.058245E+0	1.121768E+0	1.101611E+0	1.086285E+0	1.034585E+0	1.058197E+0	1.076636E+0	1.083083E+0	1.082784E+0	1.075042E+0	1.060156E+0	1.069311E+0	1.091600E+0	1.085627E+0	1.083364E+0	1.039022E+0	1.107275E+0	9.928967E-1	1.060944E+0	1.076708E+0	9.962869E-1	1.093937E+0	1.013086E+0	1.053198E+0	1.051116E+0	1.113265E+0	1.073635E+0	1.010356E+0	1.076089E+0	1.049744E+0	1.012825E+0	1.050320E+0	1.003976E+0	9.846260E-1	1.064204E+0	1.119273E+0	1.070085E+0	1.014991E+0	1.060238E+0	1.051499E+0	1.021616E+0	1.057819E+0	1.029895E+0	1.059576E+0	1.097450E+0	9.976162E-1	1.060295E+0	1.118928E+0	1.031225E+0	1.018210E+0	1.022515E+0	1.084208E+0	1.027083E+0	1.064916E+0	1.060021E+0	1.119210E+0	1.016631E+0	1.099073E+0	1.027080E+0	1.036306E+0	1.026875E+0	1.033247E+0	1.063843E+0	1.076738E+0	1.030487E+0	9.678461E-1	1.010133E+0	1.052408E+0	9.543596E-1	1.042727E+0	1.076307E+0	9.992650E-1	1.072928E+0	1.072880E+0	1.007463E+0	1.081390E+0	1.034763E+0	1.026562E+0	1.052929E+0	1.075226E+0	1.014384E+0	1.044466E+0	1.036508E+0	1.077498E+0	1.033622E+0	1.081201E+0	1.006595E+0	1.025068E+0	1.040578E+0	1.022871E+0	1.017895E+0	9.789192E-1	1.034359E+0	1.034862E+0	1.047402E+0	1.041608E+0	1.006354E+0	1.062094E+0	1.008173E+0	1.018996E+0	9.965025E-1	1.022082E+0	1.048856E+0	1.002819E+0	1.021234E+0	1.022871E+0	1.018212E+0	1.014046E+0	1.033382E+0	1.029664E+0	1.062706E+0	1.000205E+0	1.045939E+0	1.057159E+0	1.026367E+0	1.079330E+0	1.040071E+0	1.057119E+0	9.483910E-1	1.045867E+0	1.013303E+0	1.028455E+0	1.015954E+0	1.043614E+0	1.067287E+0	9.740627E-1	1.031433E+0	1.007601E+0	1.049191E+0	1.015490E+0	1.076625E+0	1.025211E+0	1.047414E+0	9.811904E-1	1.005301E+0	9.839005E-1
5.349630E+2	1.410484E+0	1.506149E+0	1.390461E+0	1.368811E+0	1.372604E+0	1.364529E+0	1.382174E+0	1.446302E+0	1.412911E+0	1.356279E+0	1.458543E+0	1.419866E+0	1.441850E+0	1.453869E+0	1.446645E+0	1.394391E+0	1.574104E+0	1.466541E+0	1.497667E+0	1.438195E+0	1.536923E+0	1.447919E+0	1.474898E+0	1.467376E+0	1.448997E+0	1.448330E+0	1.470221E+0	1.488174E+0	1.412132E+0	1.423404E+0	1.438698E+0	1.462094E+0	1.476695E+0	1.412312E+0	1.432387E+0	1.447845E+0	1.467491E+0	1.452895E+0	1.376852E+0	1.446180E+0	1.426512E+0	1.494123E+0	1.444472E+0	1.483393E+0	1.383354E+0	1.426164E+0	1.428908E+0	1.427466E+0	1.494751E+0	1.456099E+0	1.459596E+0	1.427543E+0	1.490878E+0	1.435736E+0	1.446871E+0	1.438166E+0	1.508779E+0	1.431261E+0	1.432584E+0	1.458788E+0	1.458916E+0	1.439889E+0	1.388306E+0	1.420138E+0	1.499144E+0	1.394362E+0	1.385074E+0	1.393144E+0	1.445473E+0	1.404624E+0	1.482713E+0	1.451657E+0	1.518514E+0	1.481101E+0	1.366932E+0	1.464997E+0	1.496686E+0	1.385439E+0	1.376765E+0	1.456026E+0	1.468600E+0	1.469125E+0	1.405242E+0	1.397206E+0	1.414750E+0	1.480022E+0	1.511179E+0	1.426491E+0	1.495281E+0	1.457028E+0	1.462206E+0	1.415878E+0	1.419066E+0	1.355902E+0	1.422127E+0	1.395212E+0	1.454904E+0	1.363116E+0	1.432512E+0	1.388819E+0	1.486124E+0	1.368607E+0	1.381187E+0	1.405845E+0	1.499117E+0	1.433079E+0	1.364555E+0	1.507742E+0	1.454195E+0	1.442206E+0	1.484016E+0	1.349141E+0	1.382426E+0	1.402829E+0	1.421642E+0	1.442752E+0	1.451720E+0	1.441726E+0	1.407263E+0	1.412257E+0	1.392375E+0	1.484873E+0	1.394081E+0	1.408161E+0	1.448938E+0	1.395833E+0	1.453744E+0	1.397375E+0	1.383097E+0	1.330725E+0	1.410635E+0	1.416090E+0	1.448949E+0	1.375430E+0	1.409401E+0	1.419485E+0	1.482095E+0	1.476101E+0	1.386953E+0	1.449244E+0	1.415112E+0	1.401779E+0	1.379838E+0	1.403095E+0	1.402736E+0	1.352203E+0	1.352539E+0	1.391196E+0	1.406205E+0	1.415932E+0	1.427103E+0	1.383803E+0	1.466607E+0	1.413076E+0	1.350892E+0	1.430575E+0	1.375740E+0	1.369616E+0	1.381836E+0	1.366343E+0	1.405411E+0	1.454725E+0	1.343009E+0	1.489383E+0	1.325021E+0
5.351090E+2	1.686272E+0	1.719437E+0	1.629977E+0	1.619422E+0	1.687662E+0	1.687082E+0	1.681904E+0	1.639256E+0	1.684780E+0	1.619583E+0	1.650588E+0	1.703355E+0	1.741837E+0	1.656173E+0	1.644856E+0	1.631814E+0	1.821633E+0	1.624994E+0	1.697886E+0	1.689287E+0	1.735137E+0	1.699072E+0	1.662182E+0	1.655625E+0	1.752734E+0	1.715574E+0	1.737012E+0	1.723784E+0	1.685798E+0	1.655415E+0	1.661839E+0	1.718273E+0	1.723736E+0	1.742600E+0	1.675716E+0	1.720185E+0	1.722717E+0	1.683206E+0	1.807459E+0	1.741800E+0	1.774554E+0	1.720205E+0	1.718641E+0	1.645894E+0	1.677891E+0	1.707440E+0	1.666285E+0	1.660065E+0	1.689105E+0	1.690749E+0	1.692424E+0	1.693327E+0	1.714796E+0	1.651140E+0	1.728332E+0	1.704808E+0	1.683592E+0	1.731996E+0	1.672338E+0	1.676695E+0	1.720731E+0	1.635557E+0	1.650901E+0	1.653893E+0	1.690646E+0	1.656513E+0	1.670551E+0	1.649215E+0	1.731922E+0	1.627652E+0	1.649628E+0	1.639419E+0	1.695108E+0	1.695162E+0	1.642998E+0	1.692713E+0	1.777488E+0	1.634429E+0	1.673413E+0	1.647975E+0	1.660351E+0	1.701922E+0	1.664034E+0	1.708823E+0	1.709109E+0	1.693328E+0	1.665543E+0	1.600519E+0	1.684786E+0	1.714947E+0	1.735556E+0	1.554068E+0	1.680257E+0	1.585407E+0	1.657613E+0	1.678280E+0	1.738319E+0	1.612916E+0	1.686890E+0	1.626185E+0	1.702517E+0	1.666767E+0	1.609845E+0	1.707285E+0	1.637118E+0	1.662379E+0	1.610145E+0	1.742226E+0	1.699212E+0	1.659575E+0	1.661688E+0	1.684061E+0	1.675539E+0	1.499214E+0	1.720634E+0	1.743177E+0	1.616069E+0	1.649260E+0	1.714479E+0	1.701205E+0	1.626424E+0	1.693817E+0	1.614427E+0	1.679469E+0	1.662611E+0	1.594684E+0	1.668384E+0	1.660571E+0	1.695451E+0	1.610405E+0	1.621354E+0	1.606621E+0	1.678279E+0	1.623955E+0	1.616300E+0	1.659207E+0	1.681291E+0	1.734776E+0	1.725525E+0	1.684396E+0	1.656175E+0	1.589914E+0	1.532059E+0	1.641317E+0	1.725612E+0	1.605589E+0	1.656382E+0	1.595476E+0	1.663119E+0	1.639140E+0	1.583267E+0	1.624245E+0	1.711191E+0	1.618577E+0	1.621503E+0	1.660235E+0	1.565621E+0	1.630870E+0	1.622376E+0	1.665562E+0	1.621462E+0	1.605742E+0	1.532988E+0	1.741840E+0	1.576534E+0
5.352550E+2	1.946373E+0	2.041112E+0	1.906240E+0	1.937421E+0	1.955286E+0	1.983297E+0	1.856500E+0	1.965432E+0	1.901186E+0	1.933116E+0	1.957816E+0	1.910338E+0	1.934031E+0	1.976607E+0	1.926746E+0	1.837456E+0	1.957735E+0	1.905511E+0	1.848962E+0	1.906946E+0	1.906670E+0	1.907545E+0	1.927350E+0	1.897565E+0	1.936009E+0	1.944375E+0	1.929783E+0	1.873380E+0	1.858530E+0	1.853472E+0	1.859884E+0	1.960903E+0	1.939789E+0	1.919232E+0	1.898756E+0	1.875152E+0	1.969333E+0	1.924223E+0	2.025038E+0	1.899249E+0	1.933824E+0	1.950274E+0	1.973082E+0	1.853657E+0	1.911773E+0	1.956458E+0	1.890812E+0	1.899440E+0	1.999201E+0	1.917331E+0	1.989056E+0	1.961301E+0	1.928420E+0	1.891675E+0	1.906704E+0	1.931116E+0	1.860402E+0	1.982604E+0	1.868894E+0	1.920174E+0	1.865397E+0	1.886626E+0	1.845741E+0	1.949443E+0	1.946560E+0	1.931691E+0	1.824642E+0	1.925430E+0	1.834870E+0	1.912504E+0	1.938781E+0	1.840730E+0	1.971248E+0	1.849905E+0	1.826276E+0	1.852730E+0	1.946175E+0	1.818469E+0	1.858002E+0	1.908565E+0	1.966086E+0	1.926247E+0	1.807309E+0	1.861551E+0	1.964563E+0	1.889874E+0	1.958144E+0	1.877466E+0	1.963683E+0	1.999632E+0	1.848033E+0	1.779082E+0	1.914735E+0	1.869694E+0	1.901814E+0	1.838722E+0	1.953064E+0	1.849137E+0	1.920827E+0	1.871883E+0	1.914808E+0	1.894404E+0	1.850580E+0	1.915953E+0	1.885099E+0	1.823332E+0	1.830073E+0	1.900907E+0	1.897510E+0	1.830513E+0	1.851131E+0	1.798710E+0	1.902527E+0	1.756840E+0	1.875169E+0	1.871140E+0	1.833540E+0	1.926844E+0	1.887906E+0	1.873079E+0	1.905121E+0	1.945872E+0	1.839189E+0	1.864699E+0	1.860253E+0	1.861455E+0	1.899153E+0	1.851524E+0	1.882494E+0	1.819802E+0	1.851341E+0	1.810566E+0	1.878562E+0	1.966812E+0	1.881174E+0	1.864339E+0	1.898170E+0	1.878997E+0	1.835661E+0	1.898929E+0	1.930841E+0	1.873336E+0	1.859670E+0	1.877301E+0	1.911524E+0	1.832191E+0	1.863665E+0	1.825221E+0	1.906367E+0	1.890645E+0	1.877661E+0	1.755291E+0	1.872103E+0	1.924627E+0	1.747150E+0	1.875446E+0	1.817968E+0	1.821780E+0	1.809710E+0	1.905234E+0	1.836242E+0	1.781461E+0	1.786610E+0	1.827229E+0	1.724768E+0
5.354110E+2	2.112007E+0	2.189409E+0	2.051014E+0	2.036547E+0	2.077288E+0	2.061306E+0	2.060840E+0	1.971697E+0	1.991659E+0	2.047644E+0	2.027009E+0	2.047178E+0	2.091459E+0	2.052637E+0	2.040546E+0	2.067388E+0	2.106967E+0	2.008550E+0	1.972099E+0	2.019002E+0	2.103878E+0	2.032580E+0	1.958071E+0	2.033837E+0	2.092197E+0	2.079716E+0	2.091519E+0	1.982679E+0	2.011943E+0	1.985954E+0	1.955037E+0	2.098542E+0	2.055412E+0	2.016178E+0	2.000286E+0	2.000246E+0	2.014690E+0	2.040928E+0	2.013319E+0	2.007415E+0	1.988198E+0	2.064324E+0	2.043855E+0	1.982124E+0	2.056321E+0	2.019410E+0	1.999197E+0	1.975289E+0	2.030390E+0	1.994544E+0	1.994073E+0	2.001102E+0	2.058382E+0	1.966347E+0	2.001437E+0	2.065890E+0	2.030439E+0	2.137398E+0	1.995774E+0	2.056817E+0	2.010410E+0	1.937373E+0	1.830846E+0	1.989103E+0	2.033883E+0	2.039121E+0	2.043642E+0	1.996829E+0	2.044670E+0	1.946175E+0	1.967415E+0	2.080888E+0	2.063602E+0	2.030562E+0	2.035378E+0	1.929880E+0	2.135998E+0	1.975941E+0	1.970654E+0	1.933762E+0	2.093410E+0	1.967406E+0	2.020089E+0	1.999412E+0	1.947443E+0	2.075830E+0	2.045201E+0	2.016375E+0	2.041640E+0	2.024620E+0	1.988643E+0	2.002568E+0	1.955118E+0	1.955738E+0	1.938783E+0	2.024384E+0	2.031386E+0	1.938772E+0	1.990056E+0	1.952693E+0	2.034953E+0	1.922485E+0	1.885875E+0	2.041347E+0	2.030295E+0	1.958380E+0	1.997796E+0	2.074485E+0	1.976297E+0	1.956316E+0	1.900121E+0	2.028964E+0	1.965948E+0	1.894739E+0	1.934420E+0	1.924471E+0	1.978137E+0	1.929964E+0	1.946738E+0	2.017802E+0	1.952274E+0	2.018534E+0	2.007821E+0	1.913927E+0	1.956297E+0	1.940509E+0	1.999311E+0	1.921952E+0	2.007807E+0	1.888610E+0	2.027180E+0	1.967390E+0	1.932420E+0	1.962595E+0	1.958903E+0	2.010642E+0	1.983550E+0	1.949756E+0	1.989351E+0	2.005513E+0	1.920409E+0	1.892503E+0	1.933528E+0	1.951905E+0	1.958567E+0	1.964411E+0	2.012903E+0	1.923618E+0	2.052213E+0	1.945969E+0	1.928759E+0	1.919959E+0	1.997801E+0	2.026474E+0	1.910621E+0	1.971270E+0	1.870152E+0	1.921439E+0	1.932946E+0	2.025160E+0	1.917820E+0	1.860813E+0	1.880895E+0	1.992339E+0	1.813588E+0
5.355630E+2	1.748144E+0	1.837663E+0	1.737724E+0	1.778663E+0	1.748364E+0	1.790326E+0	1.730795E+0	1.767018E+0	1.738361E+0	1.744264E+0	1.758680E+0	1.724293E+0	1.788876E+0	1.772054E+0	1.761583E+0	1.704865E+0	1.747147E+0	1.678929E+0	1.664224E+0	1.749906E+0	1.729098E+0	1.742424E+0	1.711185E+0	1.723296E+0	1.710595E+0	1.710374E+0	1.716882E+0	1.823349E+0	1.698536E+0	1.652371E+0	1.707701E+0	1.722551E+0	1.673218E+0	1.789732E+0	1.723840E+0	1.687799E+0	1.775760E+0	1.841849E+0	1.715252E+0	1.765098E+0	1.775323E+0	1.745843E+0	1.665680E+0	1.684805E+0	1.798993E+0	1.727084E+0	1.683419E+0	1.692072E+0	1.771194E+0	1.729845E+0	1.791629E+0	1.760338E+0	1.724726E+0	1.762649E+0	1.705894E+0	1.769833E+0	1.713929E+0	1.773579E+0	1.685934E+0	1.696975E+0	1.744402E+0	1.670774E+0	1.650136E+0	1.775767E+0	1.708108E+0	1.726209E+0	1.708568E+0	1.752215E+0	1.700717E+0	1.666889E+0	1.716953E+0	1.752343E+0	1.783957E+0	1.848006E+0	1.651861E+0	1.729730E+0	1.795407E+0	1.716386E+0	1.668855E+0	1.746642E+0	1.754577E+0	1.716142E+0	1.717471E+0	1.704831E+0	1.776216E+0	1.748022E+0	1.758090E+0	1.677178E+0	1.804604E+0	1.739659E+0	1.709607E+0	1.796380E+0	1.740095E+0	1.702806E+0	1.697311E+0	1.714505E+0	1.731880E+0	1.699774E+0	1.680648E+0	1.659540E+0	1.776052E+0	1.749457E+0	1.630871E+0	1.685933E+0	1.814297E+0	1.750905E+0	1.654168E+0	1.748389E+0	1.688828E+0	1.738030E+0	1.729011E+0	1.761496E+0	1.677826E+0	1.543905E+0	1.736654E+0	1.705889E+0	1.725527E+0	1.740295E+0	1.732616E+0	1.722025E+0	1.708363E+0	1.721217E+0	1.663210E+0	1.722858E+0	1.633405E+0	1.621877E+0	1.684763E+0	1.684593E+0	1.745644E+0	1.666333E+0	1.657098E+0	1.723012E+0	1.751865E+0	1.720230E+0	1.658695E+0	1.657761E+0	1.713167E+0	1.639449E+0	1.728807E+0	1.684496E+0	1.715120E+0	1.694195E+0	1.701366E+0	1.647283E+0	1.773052E+0	1.664497E+0	1.735765E+0	1.643703E+0	1.753891E+0	1.709998E+0	1.735706E+0	1.629232E+0	1.772975E+0	1.700727E+0	1.675108E+0	1.743560E+0	1.738893E+0	1.627580E+0	1.686811E+0	1.730545E+0	1.701668E+0	1.741283E+0	1.590014E+0	1.697121E+0	1.719527E+0
5.357250E+2	1.522596E+0	1.682592E+0	1.604516E+0	1.552724E+0	1.565447E+0	1.617540E+0	1.627935E+0	1.559725E+0	1.591620E+0	1.572542E+0	1.605249E+0	1.572910E+0	1.588480E+0	1.607718E+0	1.577769E+0	1.623152E+0	1.566873E+0	1.540992E+0	1.589364E+0	1.592072E+0	1.569936E+0	1.564135E+0	1.626777E+0	1.555946E+0	1.574594E+0	1.605851E+0	1.614369E+0	1.553749E+0	1.529735E+0	1.587309E+0	1.562708E+0	1.610843E+0	1.567595E+0	1.624753E+0	1.564714E+0	1.550009E+0	1.653003E+0	1.644512E+0	1.602137E+0	1.572798E+0	1.506634E+0	1.682731E+0	1.645175E+0	1.649889E+0	1.576956E+0	1.599528E+0	1.563160E+0	1.582920E+0	1.614177E+0	1.551110E+0	1.599043E+0	1.522312E+0	1.576296E+0	1.520115E+0	1.570657E+0	1.625508E+0	1.548067E+0	1.615582E+0	1.583967E+0	1.580126E+0	1.512192E+0	1.522183E+0	1.504690E+0	1.565556E+0	1.639355E+0	1.558399E+0	1.532856E+0	1.572492E+0	1.563826E+0	1.564152E+0	1.585822E+0	1.605292E+0	1.594729E+0	1.655139E+0	1.553276E+0	1.561351E+0	1.604972E+0	1.551399E+0	1.611013E+0	1.609980E+0	1.603382E+0	1.585080E+0	1.565499E+0	1.489749E+0	1.627240E+0	1.560499E+0	1.583231E+0	1.556848E+0	1.589175E+0	1.530168E+0	1.583873E+0	1.590210E+0	1.566731E+0	1.520723E+0	1.508918E+0	1.536843E+0	1.570182E+0	1.540661E+0	1.638477E+0	1.535058E+0	1.542258E+0	1.587301E+0	1.536459E+0	1.534153E+0	1.608117E+0	1.597912E+0	1.571429E+0	1.597016E+0	1.559496E+0	1.582715E+0	1.595855E+0	1.592667E+0	1.565777E+0	1.438466E+0	1.554043E+0	1.557912E+0	1.567569E+0	1.531396E+0	1.635362E+0	1.531024E+0	1.532326E+0	1.560130E+0	1.521842E+0	1.573064E+0	1.506765E+0	1.564846E+0	1.598160E+0	1.551174E+0	1.631874E+0	1.528699E+0	1.587455E+0	1.551140E+0	1.580664E+0	1.607036E+0	1.522305E+0	1.578074E+0	1.574408E+0	1.558225E+0	1.639835E+0	1.557887E+0	1.603720E+0	1.627657E+0	1.558142E+0	1.558536E+0	1.547974E+0	1.535412E+0	1.530637E+0	1.506930E+0	1.553714E+0	1.523187E+0	1.522537E+0	1.521979E+0	1.568957E+0	1.560124E+0	1.509367E+0	1.607044E+0	1.535709E+0	1.501459E+0	1.502960E+0	1.552998E+0	1.515835E+0	1.514104E+0	1.433994E+0	1.559020E+0	1.513245E+0
5.358550E+2	1.445574E+0	1.567772E+0	1.466147E+0	1.438693E+0	1.513171E+0	1.525814E+0	1.488615E+0	1.471943E+0	1.497717E+0	1.533220E+0	1.475021E+0	1.543626E+0	1.489215E+0	1.527384E+0	1.489307E+0	1.511051E+0	1.504013E+0	1.452014E+0	1.433039E+0	1.477314E+0	1.489841E+0	1.532210E+0	1.503121E+0	1.498924E+0	1.494861E+0	1.549554E+0	1.459913E+0	1.511708E+0	1.453334E+0	1.434806E+0	1.468758E+0	1.486062E+0	1.477978E+0	1.577791E+0	1.514297E+0	1.489844E+0	1.455769E+0	1.531083E+0	1.520043E+0	1.513549E+0	1.495861E+0	1.468726E+0	1.532163E+0	1.509422E+0	1.431580E+0	1.487660E+0	1.505169E+0	1.526369E+0	1.525663E+0	1.536908E+0	1.527151E+0	1.491949E+0	1.487323E+0	1.472433E+0	1.506736E+0	1.554717E+0	1.479113E+0	1.550006E+0	1.508785E+0	1.466512E+0	1.517129E+0	1.463171E+0	1.483080E+0	1.457534E+0	1.500010E+0	1.516936E+0	1.496075E+0	1.447320E+0	1.452721E+0	1.492212E+0	1.514161E+0	1.511598E+0	1.427276E+0	1.560658E+0	1.415344E+0	1.413667E+0	1.521509E+0	1.502623E+0	1.473320E+0	1.524408E+0	1.517265E+0	1.504304E+0	1.475152E+0	1.509086E+0	1.495442E+0	1.562823E+0	1.563191E+0	1.423262E+0	1.539570E+0	1.516736E+0	1.449190E+0	1.477819E+0	1.462680E+0	1.473878E+0	1.482344E+0	1.435683E+0	1.473003E+0	1.485342E+0	1.514015E+0	1.496244E+0	1.527944E+0	1.508925E+0	1.461613E+0	1.491294E+0	1.499862E+0	1.481817E+0	1.445462E+0	1.558278E+0	1.530659E+0	1.539662E+0	1.480286E+0	1.529171E+0	1.510836E+0	1.434717E+0	1.484466E+0	1.463228E+0	1.466856E+0	1.471753E+0	1.488684E+0	1.455711E+0	1.496419E+0	1.507949E+0	1.490923E+0	1.441617E+0	1.473590E+0	1.436047E+0	1.507469E+0	1.504094E+0	1.563905E+0	1.443025E+0	1.439269E+0	1.475948E+0	1.551432E+0	1.483018E+0	1.560327E+0	1.518175E+0	1.457044E+0	1.490736E+0	1.507231E+0	1.497159E+0	1.528356E+0	1.465574E+0	1.477157E+0	1.476050E+0	1.493083E+0	1.492785E+0	1.470555E+0	1.417415E+0	1.469522E+0	1.497385E+0	1.495352E+0	1.468255E+0	1.526930E+0	1.490399E+0	1.379549E+0	1.554084E+0	1.406576E+0	1.474985E+0	1.478640E+0	1.433136E+0	1.384929E+0	1.437533E+0	1.356063E+0	1.511994E+0	1.438045E+0
5.360120E+2	1.209146E+0	1.254697E+0	1.202990E+0	1.173807E+0	1.218525E+0	1.243187E+0	1.178182E+0	1.186829E+0	1.184638E+0	1.181254E+0	1.241472E+0	1.244761E+0	1.289075E+0	1.241998E+0	1.203441E+0	1.217092E+0	1.211372E+0	1.138261E+0	1.219654E+0	1.255926E+0	1.250517E+0	1.201292E+0	1.194480E+0	1.228624E+0	1.252767E+0	1.235079E+0	1.175847E+0	1.207673E+0	1.201404E+0	1.178365E+0	1.213697E+0	1.203073E+0	1.226736E+0	1.198264E+0	1.185022E+0	1.219550E+0	1.262092E+0	1.225876E+0	1.220531E+0	1.248589E+0	1.145602E+0	1.242539E+0	1.212985E+0	1.187134E+0	1.242467E+0	1.237690E+0	1.160605E+0	1.171475E+0	1.182524E+0	1.256612E+0	1.206965E+0	1.138159E+0	1.182922E+0	1.219169E+0	1.253183E+0	1.222506E+0	1.169320E+0	1.217413E+0	1.219758E+0	1.216318E+0	1.193390E+0	1.188280E+0	1.174916E+0	1.140315E+0	1.245833E+0	1.216961E+0	1.176026E+0	1.226417E+0	1.157856E+0	1.194537E+0	1.193532E+0	1.265215E+0	1.210828E+0	1.219896E+0	1.169230E+0	1.187089E+0	1.275240E+0	1.207497E+0	1.194878E+0	1.176583E+0	1.207389E+0	1.218985E+0	1.249900E+0	1.237178E+0	1.193239E+0	1.227299E+0	1.252157E+0	1.255893E+0	1.242897E+0	1.215477E+0	1.201002E+0	1.215194E+0	1.177342E+0	1.231700E+0	1.176916E+0	1.229311E+0	1.202101E+0	1.232309E+0	1.203000E+0	1.198092E+0	1.215313E+0	1.185842E+0	1.207421E+0	1.164688E+0	1.236681E+0	1.166708E+0	1.198321E+0	1.251916E+0	1.196811E+0	1.166282E+0	1.165180E+0	1.151345E+0	1.317477E+0	1.135518E+0	1.225127E+0	1.222200E+0	1.191339E+0	1.265477E+0	1.243656E+0	1.197434E+0	1.178262E+0	1.247149E+0	1.210027E+0	1.203920E+0	1.202592E+0	1.204191E+0	1.212621E+0	1.207228E+0	1.225238E+0	1.163410E+0	1.142366E+0	1.133893E+0	1.145080E+0	1.206835E+0	1.200631E+0	1.167149E+0	1.228167E+0	1.191066E+0	1.204116E+0	1.202631E+0	1.206259E+0	1.176557E+0	1.218234E+0	1.246053E+0	1.332841E+0	1.205999E+0	1.183391E+0	1.163119E+0	1.208250E+0	1.188573E+0	1.192680E+0	1.144149E+0	1.216993E+0	1.161771E+0	1.181373E+0	1.186376E+0	1.157439E+0	1.138574E+0	1.226152E+0	1.245234E+0	1.134304E+0	1.172772E+0	1.184903E+0	1.230720E+0	1.171643E+0
5.362680E+2	8.785722E-1	9.897636E-1	9.123208E-1	9.065715E-1	9.067617E-1	9.130156E-1	8.761984E-1	9.044634E-1	8.950366E-1	8.778408E-1	9.008452E-1	9.743586E-1	9.439977E-1	9.006933E-1	9.117736E-1	9.279494E-1	9.434348E-1	8.843856E-1	8.921991E-1	9.026354E-1	9.185956E-1	8.176562E-1	8.865178E-1	8.754606E-1	9.238183E-1	9.224885E-1	9.283072E-1	9.154559E-1	8.349445E-1	9.194798E-1	9.350614E-1	9.479522E-1	9.410495E-1	9.580016E-1	9.012809E-1	9.493252E-1	9.147344E-1	8.944439E-1	8.930459E-1	9.182201E-1	9.440589E-1	9.623043E-1	9.419378E-1	9.222545E-1	8.858730E-1	8.745896E-1	9.148364E-1	9.474118E-1	9.572267E-1	9.101326E-1	9.019656E-1	9.127468E-1	9.125292E-1	9.185938E-1	9.421220E-1	8.710572E-1	8.909250E-1	9.764187E-1	9.584493E-1	9.246763E-1	9.546252E-1	8.864448E-1	9.002704E-1	9.212927E-1	9.397414E-1	9.036273E-1	8.850920E-1	8.969959E-1	9.291106E-1	9.314876E-1	9.416725E-1	9.360892E-1	9.054445E-1	9.387910E-1	8.768597E-1	9.531361E-1	9.074405E-1	9.047006E-1	8.746226E-1	8.822059E-1	9.099877E-1	8.939140E-1	9.280595E-1	8.644892E-1	9.093664E-1	9.440203E-1	8.960188E-1	8.976177E-1	8.641578E-1	8.829123E-1	8.744908E-1	9.332466E-1	9.335880E-1	8.882650E-1	8.988182E-1	9.224183E-1	9.551997E-1	9.385139E-1	9.391623E-1	9.094468E-1	9.096914E-1	9.207733E-1	8.803652E-1	9.154485E-1	9.311339E-1	8.930876E-1	8.742540E-1	9.452259E-1	8.810477E-1	8.964962E-1	8.954619E-1	9.069635E-1	8.896567E-1	8.745616E-1	9.515484E-1	8.701681E-1	9.075635E-1	8.785153E-1	9.278659E-1	9.266641E-1	8.966825E-1	9.277701E-1	9.274451E-1	9.156473E-1	9.357731E-1	8.699089E-1	9.294491E-1	9.169144E-1	9.110316E-1	8.574239E-1	9.244706E-1	9.342562E-1	9.382728E-1	9.418588E-1	9.470036E-1	9.108429E-1	9.596599E-1	9.027975E-1	9.062189E-1	9.074176E-1	9.230686E-1	8.761073E-1	9.109097E-1	9.736648E-1	9.663605E-1	9.444120E-1	9.605296E-1	8.887638E-1	9.862410E-1	9.217036E-1	9.084328E-1	8.943858E-1	9.294254E-1	9.371512E-1	8.830246E-1	9.055161E-1	8.908147E-1	9.186335E-1	9.006400E-1	9.195409E-1	8.995451E-1	9.169831E-1	8.997397E-1	1.041883E+0	9.961089E-1
5.365250E+2	7.123560E-1	7.484102E-1	7.245110E-1	7.445472E-1	6.811958E-1	7.065769E-1	7.005432E-1	6.789777E-1	7.512262E-1	7.425245E-1	7.028017E-1	7.370187E-1	7.237667E-1	7.204289E-1	7.105872E-1	7.174150E-1	7.043372E-1	7.244558E-1	7.266301E-1	6.982439E-1	6.779559E-1	7.181810E-1	7.288902E-1	7.101996E-1	7.260010E-1	7.010944E-1	7.855682E-1	7.584442E-1	7.437030E-1	7.072308E-1	7.215291E-1	7.110595E-1	7.131561E-1	7.047366E-1	7.077017E-1	7.223917E-1	6.708696E-1	7.269417E-1	6.873503E-1	7.299510E-1	7.082005E-1	7.496872E-1	7.383984E-1	7.034467E-1	7.456283E-1	7.158624E-1	6.910161E-1	7.445447E-1	7.786986E-1	7.174795E-1	7.673443E-1	7.210621E-1	7.185504E-1	7.220144E-1	7.341754E-1	7.330623E-1	7.477411E-1	7.674542E-1	7.378804E-1	7.189049E-1	6.922346E-1	7.001891E-1	7.291490E-1	7.352553E-1	7.103564E-1	6.855856E-1	6.960094E-1	7.410648E-1	7.399062E-1	7.094854E-1	7.261692E-1	7.093516E-1	7.229811E-1	7.473167E-1	7.269021E-1	7.206146E-1	7.467721E-1	6.989970E-1	6.787772E-1	7.307324E-1	7.075659E-1	7.564079E-1	7.174311E-1	7.459083E-1	7.180810E-1	7.108247E-1	7.526622E-1	7.353090E-1	7.551125E-1	7.302827E-1	7.009470E-1	7.532271E-1	6.977332E-1	7.383229E-1	6.742098E-1	7.492176E-1	7.351318E-1	7.189762E-1	7.538366E-1	7.193051E-1	7.349577E-1	7.270205E-1	7.366885E-1	6.809775E-1	7.343478E-1	7.537942E-1	7.147675E-1	7.538926E-1	7.339702E-1	6.973940E-1	7.143660E-1	7.443937E-1	7.407504E-1	7.133777E-1	7.537073E-1	7.341981E-1	7.763377E-1	7.732423E-1	7.481294E-1	7.174935E-1	7.072278E-1	7.407041E-1	7.464057E-1	7.170106E-1	7.348596E-1	7.322578E-1	7.402926E-1	7.587744E-1	7.785281E-1	7.154374E-1	7.037705E-1	7.302087E-1	7.576058E-1	7.663542E-1	7.776898E-1	7.025157E-1	7.346355E-1	7.181515E-1	7.331421E-1	7.484233E-1	6.931440E-1	6.821775E-1	7.602635E-1	6.774595E-1	7.647776E-1	7.109764E-1	7.436605E-1	7.551284E-1	7.260671E-1	7.376351E-1	7.692322E-1	7.226441E-1	7.006551E-1	7.489921E-1	6.684096E-1	7.227265E-1	7.174545E-1	7.201543E-1	7.214492E-1	6.994862E-1	7.112485E-1	7.373873E-1	6.288814E-1	7.561065E-1	7.425017E-1
5.367810E+2	5.412277E-1	5.660039E-1	5.910302E-1	5.563432E-1	6.104745E-1	5.734605E-1	6.015849E-1	5.998737E-1	5.596606E-1	5.725208E-1	5.530975E-1	5.765735E-1	5.500525E-1	5.613909E-1	5.924506E-1	5.703172E-1	6.084530E-1	5.655526E-1	5.747089E-1	6.037104E-1	5.644246E-1	5.766901E-1	5.861580E-1	5.599445E-1	6.293164E-1	6.127911E-1	5.735396E-1	5.766727E-1	5.594871E-1	5.486414E-1	5.772248E-1	5.668972E-1	5.773173E-1	5.949343E-1	5.785923E-1	5.381424E-1	6.254406E-1	5.883189E-1	5.728900E-1	5.805314E-1	5.557155E-1	5.797524E-1	6.071365E-1	6.160048E-1	5.559621E-1	5.990802E-1	5.587890E-1	5.494282E-1	6.095305E-1	5.637452E-1	5.643592E-1	6.357392E-1	5.745842E-1	5.715426E-1	5.828999E-1	5.965801E-1	5.783022E-1	6.216817E-1	5.509643E-1	5.673317E-1	5.769987E-1	5.593496E-1	5.695778E-1	5.100182E-1	5.937791E-1	5.660528E-1	5.674494E-1	5.631535E-1	5.916217E-1	5.724860E-1	5.868771E-1	5.694699E-1	5.953489E-1	5.749166E-1	5.247499E-1	5.812815E-1	5.817379E-1	5.996681E-1	5.676179E-1	5.821109E-1	5.857905E-1	5.468683E-1	5.711783E-1	5.658815E-1	5.751058E-1	5.904432E-1	6.379445E-1	5.876595E-1	5.947605E-1	6.082775E-1	5.529006E-1	5.833467E-1	5.851818E-1	5.625574E-1	5.649856E-1	5.843719E-1	5.683540E-1	5.857875E-1	5.547968E-1	5.676152E-1	5.545087E-1	6.038355E-1	5.806568E-1	5.411639E-1	5.570994E-1	5.700398E-1	5.670537E-1	5.691340E-1	5.758262E-1	6.158002E-1	6.020558E-1	5.762259E-1	5.866728E-1	5.654346E-1	5.911629E-1	5.913133E-1	5.485564E-1	5.571552E-1	6.184341E-1	5.677010E-1	5.605964E-1	5.837956E-1	5.646806E-1	5.776113E-1	5.830951E-1	5.791159E-1	5.630861E-1	6.045911E-1	6.217418E-1	5.824670E-1	5.958779E-1	5.748162E-1	5.780887E-1	6.168764E-1	5.676798E-1	5.950452E-1	6.007692E-1	5.645899E-1	5.836977E-1	5.677847E-1	6.302483E-1	5.838911E-1	5.681224E-1	5.810073E-1	6.048130E-1	5.865034E-1	6.009966E-1	5.518190E-1	5.540599E-1	5.767595E-1	5.938574E-1	5.912579E-1	5.768120E-1	5.981627E-1	5.797764E-1	6.319811E-1	5.877089E-1	6.134504E-1	5.793296E-1	5.514166E-1	5.676840E-1	5.791301E-1	5.751368E-1	6.227873E-1	6.299983E-1
5.370120E+2	5.104673E-1	5.273182E-1	5.667136E-1	5.060185E-1	5.221129E-1	5.371438E-1	5.419279E-1	5.358263E-1	5.159348E-1	5.046908E-1	5.173621E-1	5.416501E-1	5.474790E-1	5.194409E-1	5.110108E-1	4.932227E-1	5.631329E-1	5.413675E-1	5.513005E-1	5.404389E-1	5.258429E-1	5.428268E-1	5.358260E-1	5.530003E-1	5.255072E-1	5.368736E-1	5.188804E-1	5.499913E-1	5.285862E-1	5.042740E-1	4.930922E-1	5.813592E-1	5.380916E-1	5.674489E-1	5.452760E-1	5.217233E-1	5.700455E-1	5.449602E-1	5.371862E-1	5.455162E-1	5.173205E-1	5.521542E-1	5.428829E-1	5.648918E-1	5.202289E-1	5.655190E-1	5.044284E-1	5.097538E-1	5.140882E-1	5.368866E-1	5.455917E-1	5.337332E-1	5.184897E-1	5.210523E-1	5.274979E-1	5.224377E-1	5.109638E-1	5.463173E-1	5.377893E-1	5.234731E-1	5.230735E-1	5.300202E-1	5.244875E-1	5.147589E-1	5.383439E-1	5.152458E-1	5.725926E-1	4.997363E-1	5.336939E-1	4.876119E-1	5.799964E-1	5.351723E-1	5.448775E-1	5.883256E-1	5.311066E-1	5.500675E-1	5.482435E-1	5.560759E-1	5.540056E-1	5.233107E-1	5.335241E-1	5.847290E-1	5.393323E-1	5.213150E-1	5.237463E-1	5.522935E-1	5.945372E-1	5.311279E-1	5.536368E-1	5.357839E-1	5.729122E-1	5.154574E-1	5.231425E-1	5.424834E-1	5.569850E-1	5.552384E-1	5.473319E-1	5.463675E-1	5.354402E-1	5.468999E-1	5.343129E-1	5.539824E-1	5.344229E-1	5.418100E-1	5.687671E-1	5.252508E-1	5.013560E-1	5.625941E-1	5.616835E-1	5.331761E-1	5.223440E-1	5.046784E-1	5.267050E-1	5.035344E-1	5.637019E-1	5.215208E-1	5.741334E-1	5.456745E-1	5.852200E-1	5.499368E-1	4.823854E-1	5.717130E-1	5.512402E-1	5.455445E-1	5.713881E-1	5.296220E-1	5.582636E-1	5.284176E-1	5.574408E-1	5.456027E-1	5.215498E-1	5.164475E-1	5.362394E-1	5.631050E-1	5.369736E-1	5.120187E-1	5.456694E-1	5.839104E-1	5.434251E-1	5.367470E-1	5.441397E-1	5.188344E-1	5.264404E-1	5.429824E-1	5.301009E-1	5.463714E-1	5.215541E-1	5.251873E-1	5.564842E-1	5.262235E-1	4.988895E-1	5.202159E-1	5.607769E-1	5.434249E-1	5.391301E-1	5.346818E-1	5.407486E-1	5.486425E-1	5.220034E-1	5.457899E-1	5.540688E-1	5.270850E-1	5.355570E-1	5.552561E-1	5.584882E-1
5.372740E+2	4.968319E-1	5.029893E-1	4.822053E-1	4.744234E-1	4.776597E-1	5.098469E-1	5.029263E-1	4.800754E-1	4.820850E-1	4.881529E-1	4.811426E-1	4.706932E-1	4.815164E-1	5.013844E-1	4.814626E-1	4.903550E-1	5.474918E-1	5.216907E-1	5.134283E-1	5.208743E-1	5.114330E-1	5.383210E-1	4.994138E-1	4.687367E-1	5.249156E-1	5.384349E-1	5.374539E-1	4.910627E-1	4.846925E-1	4.696703E-1	5.323252E-1	5.325849E-1	5.117058E-1	5.053321E-1	5.144280E-1	4.857289E-1	4.962680E-1	5.384341E-1	5.244737E-1	5.150768E-1	5.100636E-1	5.111800E-1	5.310170E-1	5.233413E-1	5.413866E-1	4.886082E-1	5.124119E-1	4.975164E-1	4.986841E-1	5.233280E-1	5.098922E-1	5.164415E-1	5.440210E-1	5.240602E-1	4.876480E-1	5.331920E-1	4.867100E-1	4.949530E-1	5.141376E-1	5.094028E-1	4.700425E-1	5.139364E-1	5.346355E-1	5.346374E-1	5.235584E-1	4.774694E-1	5.057719E-1	4.890140E-1	5.174924E-1	4.845812E-1	5.074283E-1	5.190546E-1	5.212157E-1	5.246452E-1	4.895575E-1	5.186937E-1	5.242057E-1	4.991725E-1	5.188548E-1	5.133611E-1	5.291683E-1	5.223763E-1	4.841718E-1	4.982288E-1	5.086074E-1	4.758233E-1	4.940434E-1	5.067308E-1	5.149233E-1	5.235332E-1	5.440842E-1	4.925471E-1	4.530449E-1	4.591596E-1	5.124176E-1	4.999652E-1	4.933016E-1	4.884927E-1	5.373307E-1	5.330196E-1	4.889601E-1	5.261331E-1	5.266557E-1	4.931604E-1	4.938766E-1	4.687757E-1	4.806261E-1	5.370453E-1	4.892159E-1	4.859937E-1	5.331693E-1	5.242307E-1	5.009109E-1	5.095372E-1	5.437261E-1	5.304261E-1	5.123390E-1	5.108001E-1	5.175160E-1	5.070474E-1	4.816811E-1	5.511463E-1	5.266306E-1	5.410261E-1	5.303338E-1	5.071983E-1	5.270070E-1	5.326410E-1	4.953429E-1	5.126965E-1	5.205091E-1	4.887969E-1	5.267745E-1	5.033849E-1	5.201809E-1	5.015006E-1	5.220448E-1	5.242393E-1	5.221026E-1	5.436036E-1	4.630619E-1	4.885926E-1	5.148833E-1	5.061902E-1	5.075785E-1	5.042160E-1	5.198987E-1	5.221451E-1	5.120129E-1	5.230313E-1	5.394945E-1	4.967197E-1	5.405909E-1	4.875227E-1	4.626544E-1	5.364992E-1	5.078936E-1	5.217721E-1	4.813543E-1	4.886002E-1	5.217308E-1	5.217693E-1	4.856534E-1	5.034170E-1	4.932444E-1
5.375110E+2	4.947947E-1	5.320096E-1	5.443328E-1	5.638780E-1	5.756183E-1	5.626123E-1	5.741871E-1	5.873726E-1	5.438284E-1	5.322910E-1	5.553924E-1	5.654003E-1	5.408853E-1	5.685691E-1	5.499839E-1	5.254345E-1	6.245135E-1	5.372966E-1	5.416307E-1	5.250409E-1	5.407592E-1	5.495532E-1	5.432077E-1	5.773820E-1	5.592776E-1	6.066749E-1	5.915900E-1	6.239966E-1	5.643259E-1	5.434525E-1	5.710312E-1	5.945518E-1	5.299776E-1	5.840063E-1	5.727732E-1	5.372519E-1	5.759888E-1	5.602225E-1	5.496518E-1	5.715553E-1	5.400033E-1	5.701807E-1	6.203429E-1	6.118740E-1	5.834402E-1	5.699641E-1	5.378626E-1	5.418184E-1	5.880446E-1	5.124014E-1	6.002849E-1	5.525894E-1	5.883187E-1	5.780751E-1	5.748371E-1	5.571720E-1	5.658918E-1	5.889213E-1	6.274419E-1	5.686163E-1	5.461427E-1	5.302714E-1	5.479861E-1	5.732379E-1	5.973509E-1	5.844051E-1	5.908350E-1	5.722917E-1	5.513388E-1	5.497239E-1	5.696667E-1	5.448033E-1	5.558335E-1	6.002594E-1	5.591325E-1	5.751785E-1	6.020454E-1	5.374017E-1	5.615310E-1	5.904003E-1	5.479209E-1	5.611799E-1	5.768683E-1	5.688559E-1	5.416330E-1	5.707269E-1	6.179237E-1	5.487776E-1	5.481699E-1	5.491584E-1	5.906713E-1	5.639061E-1	5.433249E-1	5.492013E-1	5.237224E-1	5.250960E-1	5.508050E-1	5.408120E-1	5.349630E-1	5.530164E-1	5.981361E-1	5.420468E-1	5.090718E-1	5.465691E-1	5.464028E-1	5.684455E-1	5.260042E-1	5.745040E-1	5.668477E-1	5.619977E-1	6.100353E-1	5.745470E-1	6.032255E-1	5.052684E-1	5.643378E-1	5.448245E-1	5.999280E-1	5.381579E-1	5.660438E-1	5.694393E-1	5.302078E-1	5.952389E-1	5.948320E-1	6.045237E-1	5.912907E-1	5.695178E-1	5.634895E-1	5.593648E-1	5.554370E-1	5.692767E-1	5.461103E-1	5.642845E-1	5.830939E-1	5.749836E-1	5.679608E-1	5.499508E-1	5.423486E-1	6.081630E-1	5.759466E-1	5.844487E-1	5.804754E-1	5.647690E-1	5.771663E-1	5.683171E-1	5.442511E-1	5.719447E-1	5.764453E-1	5.471707E-1	5.670852E-1	5.534168E-1	5.869320E-1	5.942599E-1	5.720370E-1	5.643615E-1	5.307107E-1	6.239189E-1	5.387168E-1	5.526909E-1	5.372126E-1	5.936652E-1	5.326125E-1	5.494782E-1	5.603408E-1	5.049458E-1	5.630327E-1
5.377840E+2	6.481518E-1	6.898684E-1	6.985073E-1	6.381830E-1	6.467680E-1	6.281852E-1	6.447973E-1	6.488391E-1	6.426359E-1	6.468393E-1	6.636448E-1	6.501481E-1	6.432889E-1	6.494778E-1	6.130828E-1	6.520679E-1	6.745313E-1	6.428064E-1	6.768256E-1	6.569627E-1	6.630562E-1	6.511002E-1	6.454657E-1	6.413782E-1	6.626857E-1	6.423002E-1	6.679992E-1	6.294841E-1	6.585062E-1	6.434560E-1	6.790110E-1	6.514893E-1	6.594597E-1	6.790656E-1	6.201470E-1	6.250181E-1	6.076307E-1	6.322121E-1	6.642812E-1	6.755876E-1	6.261569E-1	6.827793E-1	6.828328E-1	6.336784E-1	6.496522E-1	6.504385E-1	6.529517E-1	6.430723E-1	6.504776E-1	6.337812E-1	7.085303E-1	6.766017E-1	6.736190E-1	6.425828E-1	6.752341E-1	6.765991E-1	6.519271E-1	6.946909E-1	6.666955E-1	6.624162E-1	7.011703E-1	6.554338E-1	6.663675E-1	6.788591E-1	6.604490E-1	6.124129E-1	6.708036E-1	6.381300E-1	6.966529E-1	6.485743E-1	6.915288E-1	6.967451E-1	6.521580E-1	6.763238E-1	6.655046E-1	6.625205E-1	7.042888E-1	6.331513E-1	7.013185E-1	6.714865E-1	6.459467E-1	6.683302E-1	6.146499E-1	6.621695E-1	6.780674E-1	6.744852E-1	6.530977E-1	6.524472E-1	6.602538E-1	6.489943E-1	6.322033E-1	6.762327E-1	6.759391E-1	6.503828E-1	6.537449E-1	6.269646E-1	6.480154E-1	6.568972E-1	6.410105E-1	6.644308E-1	6.676666E-1	6.553789E-1	6.681850E-1	6.422011E-1	6.554737E-1	6.313925E-1	6.625790E-1	6.946481E-1	6.583353E-1	6.377398E-1	6.505055E-1	6.211027E-1	6.379177E-1	6.218673E-1	6.232257E-1	6.452254E-1	6.349871E-1	6.251503E-1	6.575348E-1	6.750933E-1	6.491700E-1	6.627352E-1	6.041219E-1	6.533903E-1	6.412735E-1	6.502309E-1	6.930756E-1	6.419295E-1	6.415560E-1	6.198683E-1	6.305861E-1	6.718588E-1	6.577275E-1	7.192862E-1	6.612174E-1	6.888330E-1	6.338856E-1	6.656055E-1	6.444669E-1	6.163983E-1	6.876185E-1	6.452697E-1	6.570344E-1	6.154513E-1	6.857031E-1	6.521734E-1	6.487898E-1	6.419853E-1	6.639984E-1	6.669802E-1	6.789428E-1	6.365064E-1	6.617678E-1	6.391027E-1	6.514426E-1	6.441858E-1	6.329329E-1	6.523749E-1	6.820819E-1	6.630112E-1	6.627528E-1	6.838804E-1	6.182947E-1	7.282810E-1	6.191113E-1
5.380160E+2	7.203067E-1	7.181348E-1	6.912776E-1	7.187407E-1	6.900917E-1	7.114082E-1	7.627808E-1	7.134438E-1	7.150029E-1	7.327615E-1	7.369283E-1	7.279423E-1	6.868134E-1	7.422810E-1	7.331271E-1	6.716395E-1	7.555594E-1	7.351111E-1	7.563635E-1	7.001670E-1	7.239431E-1	7.111014E-1	7.177595E-1	6.956595E-1	7.074097E-1	7.406133E-1	6.965884E-1	7.983438E-1	7.391664E-1	7.343947E-1	7.417194E-1	7.085993E-1	7.321682E-1	7.307982E-1	7.134033E-1	7.508329E-1	7.342446E-1	7.173382E-1	7.215054E-1	7.715774E-1	7.357230E-1	7.373992E-1	6.971191E-1	7.198700E-1	7.157636E-1	7.098752E-1	7.485406E-1	7.205150E-1	7.763037E-1	7.898361E-1	7.406760E-1	7.467411E-1	7.058958E-1	7.544729E-1	7.421689E-1	7.510906E-1	6.966503E-1	7.597181E-1	6.728144E-1	7.170838E-1	7.440115E-1	6.775669E-1	7.249758E-1	7.180948E-1	7.222307E-1	7.261718E-1	7.282178E-1	7.160136E-1	7.043304E-1	7.390401E-1	7.194627E-1	7.505567E-1	7.163476E-1	7.825400E-1	7.188751E-1	7.029556E-1	7.483656E-1	7.150814E-1	7.389522E-1	7.069076E-1	7.654914E-1	7.394309E-1	6.965143E-1	6.880203E-1	6.933940E-1	7.153643E-1	7.079575E-1	7.374722E-1	7.165788E-1	7.445433E-1	7.103030E-1	6.997272E-1	6.990302E-1	6.802401E-1	7.203806E-1	7.068312E-1	7.193793E-1	7.097523E-1	7.384593E-1	7.234231E-1	7.309617E-1	7.576770E-1	6.926004E-1	7.649828E-1	7.456362E-1	7.436459E-1	7.281153E-1	7.546414E-1	7.383388E-1	7.250354E-1	7.325017E-1	7.319335E-1	6.949346E-1	7.062810E-1	7.330683E-1	7.419633E-1	6.920586E-1	7.279967E-1	7.226850E-1	7.602630E-1	6.648093E-1	7.191854E-1	7.141156E-1	7.462363E-1	7.281428E-1	7.193278E-1	7.298682E-1	7.722365E-1	7.299238E-1	7.126896E-1	7.381091E-1	7.509954E-1	6.887852E-1	7.567897E-1	6.858086E-1	7.616217E-1	7.362832E-1	7.186282E-1	7.245198E-1	7.726288E-1	7.040397E-1	7.368376E-1	7.773602E-1	7.164705E-1	7.737032E-1	7.178263E-1	7.545166E-1	7.263386E-1	7.576953E-1	7.188912E-1	6.907094E-1	7.186111E-1	7.582574E-1	6.966405E-1	7.185396E-1	7.715749E-1	7.141148E-1	7.026259E-1	6.977352E-1	7.303938E-1	6.890844E-1	7.384815E-1	6.902898E-1	7.635471E-1	6.228096E-1
5.382850E+2	8.503506E-1	8.348247E-1	8.008336E-1	8.381919E-1	8.656533E-1	8.809693E-1	8.292160E-1	8.872859E-1	8.731902E-1	8.597184E-1	8.648629E-1	8.121399E-1	8.369649E-1	8.439457E-1	8.644534E-1	8.505979E-1	9.213688E-1	8.851043E-1	8.571871E-1	8.524064E-1	8.736548E-1	8.801317E-1	8.693534E-1	9.101814E-1	8.561767E-1	8.714663E-1	8.694826E-1	8.549130E-1	8.483758E-1	8.378252E-1	8.432587E-1	8.778083E-1	8.445065E-1	8.658513E-1	8.769867E-1	8.417713E-1	8.909081E-1	8.521733E-1	8.895273E-1	8.414680E-1	8.793259E-1	9.311133E-1	8.775726E-1	8.487713E-1	8.660901E-1	8.607213E-1	8.162159E-1	8.611120E-1	9.070609E-1	8.440053E-1	8.719964E-1	9.104447E-1	8.292566E-1	8.877918E-1	8.690218E-1	8.443830E-1	8.845899E-1	9.083024E-1	9.007199E-1	8.611713E-1	9.009925E-1	8.616247E-1	8.470997E-1	8.635507E-1	8.382213E-1	8.463164E-1	8.744334E-1	8.107124E-1	7.937439E-1	8.434256E-1	8.832835E-1	8.767622E-1	8.968007E-1	9.018238E-1	8.561222E-1	8.253962E-1	9.041546E-1	8.280288E-1	8.709368E-1	8.940171E-1	8.924992E-1	9.111292E-1	8.755903E-1	8.606203E-1	8.456803E-1	8.993317E-1	8.909099E-1	8.186622E-1	8.664421E-1	8.740399E-1	8.702688E-1	7.994516E-1	8.672211E-1	8.510780E-1	8.907376E-1	8.040689E-1	8.411392E-1	8.716601E-1	8.110797E-1	8.276528E-1	8.349866E-1	8.949081E-1	8.537895E-1	8.644348E-1	8.296210E-1	8.315169E-1	8.512632E-1	8.964206E-1	8.473239E-1	8.365864E-1	8.435011E-1	8.269596E-1	8.340151E-1	7.901385E-1	8.634671E-1	8.618592E-1	8.548422E-1	8.660826E-1	9.150328E-1	9.165451E-1	7.982329E-1	8.717739E-1	8.696045E-1	8.423304E-1	8.700427E-1	8.500183E-1	8.850324E-1	8.192510E-1	8.564313E-1	8.995211E-1	8.488262E-1	8.554586E-1	8.439560E-1	8.596332E-1	8.517275E-1	8.672157E-1	8.620441E-1	8.581927E-1	8.561067E-1	8.681166E-1	8.427222E-1	8.659067E-1	8.600513E-1	8.380416E-1	9.107755E-1	8.332851E-1	8.354021E-1	8.338392E-1	9.067919E-1	8.994227E-1	8.651408E-1	8.198833E-1	8.629883E-1	8.645697E-1	7.841062E-1	8.474798E-1	8.494085E-1	8.366374E-1	8.213677E-1	8.661217E-1	7.921011E-1	8.784022E-1	7.695886E-1	8.877688E-1	8.173092E-1
5.385170E+2	9.791055E-1	1.027463E+0	1.044375E+0	1.044104E+0	1.019766E+0	1.052169E+0	1.095731E+0	1.009892E+0	9.726893E-1	9.788979E-1	1.055054E+0	1.093869E+0	1.020578E+0	1.014432E+0	1.037767E+0	1.016492E+0	1.098153E+0	1.058836E+0	1.059189E+0	1.074430E+0	1.056796E+0	1.040154E+0	1.033863E+0	1.031228E+0	1.069721E+0	1.082256E+0	1.068440E+0	1.070013E+0	1.054162E+0	1.005474E+0	9.945291E-1	1.055317E+0	1.039634E+0	1.086338E+0	1.098288E+0	1.059733E+0	1.076344E+0	1.050058E+0	1.004454E+0	1.046614E+0	1.013894E+0	1.056294E+0	1.073079E+0	1.020443E+0	1.018647E+0	1.020085E+0	9.966580E-1	1.029022E+0	1.025932E+0	1.045368E+0	1.053527E+0	1.004188E+0	1.000931E+0	1.055556E+0	1.015194E+0	1.002837E+0	1.014303E+0	1.087096E+0	9.983267E-1	1.083861E+0	1.036889E+0	9.891295E-1	9.921482E-1	1.019184E+0	1.055055E+0	1.042461E+0	1.055106E+0	1.065634E+0	9.969835E-1	1.008482E+0	1.071943E+0	1.051864E+0	1.016492E+0	1.013017E+0	1.015995E+0	1.024236E+0	1.053421E+0	9.789157E-1	1.015020E+0	1.056308E+0	1.042275E+0	1.067229E+0	1.011143E+0	1.017961E+0	1.007255E+0	1.027411E+0	1.080681E+0	1.031986E+0	1.095441E+0	1.069091E+0	1.037180E+0	1.042679E+0	1.024853E+0	1.014892E+0	1.039575E+0	1.026781E+0	1.075402E+0	9.728149E-1	1.054417E+0	1.011411E+0	1.014772E+0	9.977898E-1	1.026908E+0	9.795728E-1	9.942232E-1	9.962460E-1	9.883329E-1	1.007745E+0	1.012236E+0	1.016541E+0	1.028761E+0	1.011917E+0	1.036036E+0	9.867291E-1	1.066964E+0	1.044610E+0	1.033378E+0	1.063096E+0	1.063149E+0	1.029673E+0	1.056598E+0	1.003085E+0	1.017182E+0	1.042784E+0	1.039276E+0	1.011961E+0	1.017270E+0	1.050780E+0	1.040041E+0	9.767842E-1	1.053882E+0	1.108521E+0	1.049579E+0	1.032832E+0	1.040150E+0	9.870854E-1	1.016269E+0	1.080493E+0	9.989508E-1	1.046729E+0	1.022117E+0	1.014079E+0	1.038862E+0	1.011578E+0	1.021810E+0	1.071453E+0	1.048925E+0	9.975280E-1	1.018394E+0	1.017279E+0	1.046365E+0	1.006313E+0	1.036770E+0	1.055879E+0	1.037000E+0	1.064466E+0	1.016959E+0	1.061025E+0	9.895562E-1	1.009236E+0	9.996390E-1	1.016021E+0	9.572869E-1	1.008090E+0	1.067816E+0
5.387600E+2	1.209467E+0	1.297949E+0	1.254089E+0	1.189760E+0	1.213797E+0	1.257055E+0	1.259038E+0	1.236836E+0	1.186429E+0	1.174398E+0	1.241763E+0	1.227815E+0	1.239351E+0	1.218221E+0	1.251693E+0	1.195315E+0	1.299661E+0	1.269426E+0	1.239134E+0	1.261787E+0	1.225331E+0	1.309113E+0	1.268244E+0	1.232847E+0	1.324819E+0	1.273329E+0	1.276262E+0	1.260396E+0	1.242469E+0	1.227015E+0	1.236002E+0	1.284158E+0	1.233555E+0	1.217344E+0	1.216617E+0	1.323411E+0	1.267544E+0	1.272685E+0	1.296072E+0	1.260136E+0	1.224822E+0	1.248555E+0	1.224867E+0	1.219162E+0	1.198754E+0	1.222652E+0	1.236850E+0	1.223981E+0	1.270772E+0	1.229321E+0	1.304266E+0	1.200968E+0	1.225801E+0	1.230882E+0	1.231397E+0	1.221116E+0	1.179159E+0	1.289623E+0	1.279445E+0	1.228166E+0	1.266352E+0	1.232282E+0	1.211888E+0	1.208737E+0	1.269676E+0	1.255284E+0	1.210503E+0	1.262113E+0	1.242684E+0	1.171513E+0	1.285129E+0	1.268825E+0	1.246546E+0	1.258026E+0	1.284201E+0	1.233077E+0	1.249149E+0	1.228252E+0	1.250913E+0	1.264330E+0	1.239705E+0	1.231163E+0	1.214807E+0	1.239406E+0	1.252876E+0	1.262667E+0	1.293240E+0	1.265070E+0	1.254178E+0	1.291962E+0	1.258648E+0	1.264468E+0	1.242108E+0	1.262611E+0	1.212621E+0	1.229141E+0	1.232115E+0	1.200737E+0	1.278010E+0	1.203280E+0	1.253564E+0	1.160727E+0	1.241852E+0	1.220222E+0	1.213584E+0	1.223266E+0	1.184523E+0	1.237843E+0	1.216392E+0	1.207348E+0	1.256472E+0	1.230323E+0	1.227489E+0	1.196438E+0	1.282269E+0	1.263253E+0	1.225264E+0	1.258022E+0	1.279324E+0	1.248081E+0	1.195710E+0	1.261685E+0	1.207214E+0	1.214573E+0	1.255381E+0	1.280367E+0	1.271729E+0	1.185209E+0	1.236157E+0	1.196374E+0	1.214753E+0	1.246522E+0	1.249086E+0	1.248205E+0	1.258410E+0	1.262295E+0	1.229572E+0	1.209690E+0	1.245077E+0	1.227781E+0	1.177377E+0	1.257653E+0	1.178911E+0	1.244825E+0	1.205692E+0	1.180688E+0	1.218220E+0	1.169484E+0	1.241563E+0	1.199524E+0	1.198690E+0	1.251341E+0	1.244190E+0	1.299210E+0	1.191997E+0	1.326281E+0	1.273361E+0	1.232697E+0	1.228834E+0	1.225080E+0	1.154510E+0	1.176498E+0	1.247619E+0	1.210900E+0	1.169203E+0
5.390340E+2	1.466540E+0	1.457851E+0	1.369538E+0	1.368654E+0	1.407717E+0	1.380778E+0	1.434828E+0	1.401513E+0	1.452744E+0	1.361600E+0	1.422938E+0	1.417897E+0	1.432335E+0	1.419953E+0	1.424414E+0	1.351998E+0	1.475401E+0	1.373077E+0	1.399056E+0	1.390494E+0	1.463933E+0	1.410815E+0	1.392136E+0	1.433906E+0	1.391071E+0	1.393562E+0	1.419734E+0	1.418009E+0	1.363633E+0	1.421656E+0	1.450792E+0	1.471674E+0	1.458847E+0	1.371364E+0	1.382722E+0	1.392538E+0	1.380024E+0	1.403380E+0	1.427996E+0	1.446532E+0	1.368397E+0	1.444736E+0	1.486380E+0	1.427394E+0	1.419824E+0	1.397751E+0	1.380904E+0	1.426702E+0	1.477188E+0	1.401626E+0	1.418543E+0	1.361897E+0	1.384369E+0	1.386698E+0	1.460515E+0	1.419125E+0	1.398149E+0	1.439047E+0	1.374692E+0	1.382968E+0	1.417207E+0	1.424239E+0	1.358630E+0	1.419747E+0	1.395330E+0	1.417178E+0	1.368769E+0	1.396278E+0	1.359606E+0	1.381435E+0	1.460831E+0	1.452921E+0	1.446788E+0	1.457483E+0	1.415590E+0	1.359469E+0	1.398428E+0	1.362058E+0	1.361292E+0	1.432662E+0	1.423016E+0	1.347836E+0	1.390586E+0	1.412850E+0	1.453970E+0	1.479267E+0	1.435504E+0	1.424325E+0	1.394845E+0	1.475857E+0	1.425860E+0	1.444719E+0	1.439243E+0	1.379762E+0	1.426495E+0	1.385658E+0	1.414762E+0	1.391366E+0	1.402105E+0	1.385575E+0	1.408403E+0	1.384341E+0	1.361476E+0	1.353913E+0	1.378495E+0	1.399752E+0	1.403161E+0	1.496506E+0	1.385446E+0	1.400701E+0	1.393201E+0	1.427166E+0	1.404017E+0	1.343012E+0	1.420807E+0	1.440420E+0	1.370429E+0	1.442707E+0	1.366520E+0	1.357832E+0	1.360744E+0	1.401131E+0	1.443721E+0	1.413331E+0	1.416373E+0	1.338571E+0	1.431153E+0	1.375681E+0	1.367088E+0	1.352714E+0	1.415666E+0	1.417702E+0	1.398470E+0	1.452365E+0	1.395452E+0	1.341294E+0	1.460299E+0	1.403621E+0	1.379133E+0	1.410543E+0	1.371530E+0	1.389787E+0	1.428603E+0	1.369750E+0	1.371191E+0	1.413662E+0	1.348680E+0	1.320806E+0	1.384194E+0	1.333363E+0	1.375759E+0	1.421669E+0	1.400591E+0	1.446448E+0	1.358542E+0	1.442032E+0	1.355473E+0	1.400077E+0	1.341593E+0	1.424115E+0	1.327423E+0	1.365996E+0	1.328431E+0	1.426040E+0	1.359707E+0
5.392670E+2	1.566086E+0	1.682123E+0	1.624213E+0	1.570392E+0	1.555135E+0	1.582416E+0	1.602741E+0	1.604534E+0	1.548798E+0	1.590890E+0	1.577366E+0	1.638956E+0	1.587132E+0	1.612749E+0	1.610057E+0	1.583557E+0	1.699322E+0	1.577031E+0	1.592594E+0	1.621710E+0	1.622365E+0	1.565342E+0	1.642269E+0	1.573020E+0	1.602464E+0	1.568081E+0	1.607044E+0	1.665520E+0	1.576739E+0	1.548129E+0	1.594826E+0	1.656997E+0	1.623920E+0	1.570376E+0	1.634416E+0	1.620105E+0	1.572941E+0	1.621363E+0	1.642254E+0	1.622924E+0	1.567508E+0	1.661487E+0	1.594624E+0	1.589294E+0	1.583151E+0	1.628336E+0	1.532425E+0	1.604217E+0	1.704924E+0	1.569699E+0	1.630669E+0	1.560938E+0	1.595793E+0	1.609217E+0	1.665871E+0	1.640428E+0	1.530890E+0	1.614859E+0	1.540771E+0	1.629957E+0	1.616471E+0	1.602873E+0	1.559643E+0	1.637568E+0	1.555838E+0	1.551138E+0	1.629210E+0	1.614961E+0	1.558879E+0	1.534985E+0	1.685425E+0	1.675834E+0	1.611903E+0	1.567896E+0	1.607827E+0	1.621394E+0	1.645216E+0	1.533250E+0	1.543766E+0	1.592308E+0	1.589617E+0	1.615877E+0	1.568057E+0	1.640397E+0	1.662418E+0	1.657126E+0	1.644971E+0	1.524636E+0	1.523540E+0	1.594985E+0	1.597337E+0	1.560155E+0	1.587105E+0	1.579136E+0	1.624237E+0	1.538048E+0	1.612172E+0	1.610188E+0	1.621459E+0	1.626388E+0	1.579115E+0	1.574361E+0	1.536001E+0	1.605892E+0	1.537009E+0	1.587761E+0	1.641705E+0	1.656139E+0	1.581834E+0	1.495787E+0	1.607324E+0	1.596940E+0	1.646884E+0	1.462619E+0	1.645068E+0	1.564807E+0	1.536681E+0	1.574876E+0	1.596392E+0	1.505301E+0	1.582054E+0	1.606150E+0	1.552960E+0	1.598420E+0	1.611409E+0	1.521876E+0	1.559755E+0	1.513353E+0	1.586325E+0	1.545405E+0	1.575413E+0	1.573731E+0	1.559841E+0	1.603127E+0	1.575478E+0	1.578982E+0	1.567961E+0	1.576245E+0	1.516368E+0	1.505966E+0	1.564144E+0	1.563113E+0	1.593183E+0	1.572580E+0	1.642948E+0	1.577313E+0	1.604217E+0	1.500196E+0	1.605946E+0	1.555539E+0	1.584422E+0	1.528343E+0	1.521504E+0	1.589125E+0	1.551543E+0	1.587650E+0	1.534452E+0	1.490048E+0	1.484671E+0	1.520650E+0	1.507130E+0	1.556240E+0	1.594633E+0	1.630275E+0	1.521228E+0
5.395320E+2	1.803997E+0	1.827592E+0	1.772811E+0	1.747521E+0	1.771091E+0	1.694108E+0	1.814063E+0	1.748988E+0	1.747666E+0	1.769058E+0	1.812386E+0	1.849612E+0	1.817275E+0	1.761878E+0	1.792123E+0	1.694593E+0	1.803881E+0	1.741513E+0	1.807174E+0	1.784061E+0	1.723749E+0	1.747825E+0	1.756842E+0	1.759337E+0	1.860678E+0	1.725495E+0	1.722671E+0	1.885539E+0	1.695236E+0	1.717298E+0	1.833791E+0	1.807986E+0	1.776785E+0	1.697748E+0	1.776705E+0	1.739654E+0	1.799089E+0	1.730770E+0	1.799571E+0	1.843902E+0	1.764264E+0	1.787694E+0	1.780987E+0	1.798406E+0	1.731723E+0	1.724375E+0	1.780236E+0	1.765543E+0	1.785320E+0	1.773637E+0	1.833316E+0	1.769347E+0	1.734410E+0	1.796594E+0	1.766822E+0	1.867943E+0	1.765537E+0	1.792889E+0	1.723727E+0	1.747221E+0	1.747995E+0	1.783920E+0	1.744363E+0	1.706636E+0	1.770548E+0	1.736632E+0	1.737766E+0	1.742619E+0	1.730993E+0	1.698984E+0	1.771782E+0	1.790245E+0	1.696022E+0	1.811084E+0	1.745829E+0	1.758998E+0	1.841395E+0	1.654329E+0	1.854310E+0	1.759654E+0	1.852237E+0	1.747521E+0	1.754271E+0	1.788623E+0	1.690506E+0	1.706931E+0	1.812692E+0	1.763848E+0	1.811128E+0	1.728451E+0	1.749092E+0	1.748602E+0	1.691245E+0	1.725414E+0	1.740569E+0	1.787311E+0	1.788512E+0	1.681363E+0	1.781436E+0	1.753387E+0	1.789071E+0	1.731483E+0	1.643011E+0	1.725940E+0	1.720839E+0	1.731953E+0	1.747634E+0	1.791132E+0	1.788373E+0	1.723478E+0	1.803992E+0	1.749663E+0	1.730577E+0	1.633448E+0	1.760813E+0	1.719556E+0	1.724471E+0	1.741373E+0	1.734639E+0	1.747585E+0	1.694890E+0	1.837730E+0	1.746290E+0	1.738133E+0	1.736155E+0	1.692284E+0	1.771442E+0	1.807500E+0	1.770962E+0	1.691256E+0	1.715706E+0	1.796721E+0	1.752885E+0	1.744256E+0	1.732189E+0	1.727344E+0	1.680193E+0	1.750798E+0	1.716573E+0	1.777368E+0	1.679973E+0	1.660891E+0	1.787172E+0	1.709215E+0	1.832618E+0	1.697385E+0	1.697263E+0	1.650020E+0	1.768929E+0	1.745095E+0	1.718746E+0	1.715779E+0	1.801103E+0	1.770921E+0	1.708491E+0	1.742285E+0	1.641613E+0	1.788784E+0	1.690867E+0	1.683339E+0	1.618976E+0	1.778743E+0	1.661205E+0	1.770263E+0	1.619473E+0
5.397750E+2	1.920654E+0	2.069587E+0	1.961174E+0	1.906405E+0	1.897754E+0	1.905400E+0	1.972981E+0	1.940261E+0	1.931587E+0	1.843158E+0	1.993349E+0	1.940546E+0	1.933803E+0	1.947590E+0	1.934212E+0	1.976848E+0	1.966179E+0	1.879709E+0	1.983178E+0	1.957461E+0	1.930072E+0	1.904662E+0	1.902264E+0	1.939949E+0	2.022637E+0	1.885941E+0	1.864136E+0	1.936926E+0	1.851834E+0	1.894273E+0	1.928154E+0	1.892303E+0	1.908665E+0	1.923077E+0	1.942030E+0	1.868892E+0	1.907850E+0	1.959510E+0	1.990353E+0	1.894104E+0	1.826064E+0	1.932689E+0	1.912831E+0	1.865773E+0	1.890339E+0	1.967937E+0	1.905889E+0	1.920513E+0	1.983075E+0	1.987368E+0	2.038523E+0	1.925950E+0	1.892946E+0	1.926713E+0	2.017224E+0	1.957376E+0	1.893477E+0	1.951174E+0	1.959334E+0	2.013430E+0	1.982004E+0	1.859909E+0	1.844711E+0	1.884973E+0	1.880095E+0	1.966510E+0	1.896552E+0	1.967820E+0	1.871711E+0	1.829770E+0	1.919748E+0	1.929751E+0	1.980435E+0	1.874226E+0	1.964202E+0	1.950133E+0	1.949230E+0	1.824332E+0	1.948744E+0	1.918328E+0	1.857791E+0	1.992596E+0	1.857767E+0	1.944153E+0	1.954863E+0	1.892081E+0	1.990572E+0	1.866043E+0	1.979349E+0	1.914631E+0	1.921473E+0	1.915954E+0	1.907569E+0	1.877546E+0	1.909967E+0	1.834795E+0	1.950922E+0	1.799994E+0	1.967690E+0	1.834053E+0	1.940987E+0	1.846682E+0	1.862250E+0	1.886032E+0	1.948083E+0	1.835078E+0	1.895316E+0	2.010660E+0	1.839088E+0	1.899815E+0	1.940276E+0	1.920903E+0	1.914727E+0	1.796889E+0	1.872410E+0	1.895705E+0	1.894213E+0	1.853894E+0	1.913184E+0	1.912122E+0	1.867301E+0	1.850698E+0	1.906451E+0	1.909235E+0	1.884751E+0	1.885723E+0	1.882186E+0	1.870249E+0	1.935699E+0	1.828327E+0	1.858611E+0	1.800478E+0	1.911477E+0	1.951056E+0	1.840488E+0	1.869585E+0	1.835758E+0	1.856984E+0	1.835599E+0	1.902385E+0	1.794688E+0	1.794400E+0	1.913766E+0	1.811439E+0	1.962610E+0	1.770054E+0	1.889551E+0	1.794504E+0	1.928716E+0	1.838816E+0	1.970485E+0	1.779714E+0	1.916803E+0	1.913253E+0	1.804653E+0	1.844360E+0	1.833191E+0	1.854512E+0	1.796991E+0	1.906257E+0	1.789163E+0	1.790529E+0	1.754111E+0	1.855359E+0	1.766019E+0
5.400190E+2	2.034296E+0	2.057163E+0	2.009764E+0	1.941941E+0	2.006975E+0	1.937294E+0	2.018607E+0	2.010812E+0	2.068968E+0	2.062305E+0	2.097359E+0	2.064902E+0	2.074397E+0	2.030035E+0	1.960122E+0	1.973468E+0	1.989064E+0	1.958396E+0	2.071022E+0	1.938849E+0	2.044635E+0	1.974625E+0	2.035042E+0	2.052035E+0	1.965996E+0	2.047711E+0	2.065046E+0	2.087468E+0	2.018490E+0	1.994414E+0	2.001810E+0	2.092291E+0	2.044005E+0	2.040340E+0	2.009779E+0	2.015691E+0	2.018478E+0	2.080386E+0	2.095831E+0	2.026912E+0	2.005006E+0	2.064564E+0	2.063519E+0	2.076930E+0	2.044218E+0	1.985119E+0	1.972485E+0	2.003788E+0	2.029626E+0	1.947060E+0	2.093014E+0	2.095842E+0	2.055908E+0	2.013084E+0	2.116919E+0	2.047526E+0	1.936094E+0	2.077956E+0	1.957512E+0	1.997261E+0	2.038344E+0	1.897551E+0	1.934421E+0	1.966344E+0	2.089500E+0	2.031885E+0	2.070580E+0	2.059314E+0	1.943961E+0	1.942503E+0	2.000129E+0	2.079128E+0	1.958522E+0	1.998294E+0	1.987750E+0	1.998503E+0	2.049340E+0	1.986423E+0	1.968476E+0	2.013963E+0	1.966763E+0	1.997207E+0	2.004228E+0	2.021337E+0	2.072926E+0	1.926643E+0	1.976902E+0	2.020172E+0	2.033372E+0	1.997743E+0	2.042268E+0	2.010325E+0	2.020777E+0	1.931438E+0	2.025849E+0	1.991489E+0	1.981114E+0	1.957259E+0	2.066131E+0	1.952447E+0	1.966910E+0	1.981023E+0	2.054296E+0	2.006033E+0	2.065691E+0	1.989831E+0	1.989685E+0	2.039712E+0	1.977712E+0	1.906250E+0	1.962717E+0	1.972651E+0	1.966874E+0	1.831527E+0	2.003274E+0	1.968124E+0	2.090097E+0	1.952383E+0	2.042389E+0	1.960763E+0	1.928197E+0	1.933999E+0	1.948350E+0	1.978514E+0	1.983337E+0	1.877335E+0	1.973580E+0	1.928692E+0	1.982374E+0	1.950548E+0	1.951250E+0	1.987841E+0	1.941202E+0	1.905651E+0	2.054546E+0	2.010195E+0	1.916069E+0	2.013864E+0	2.015389E+0	1.912154E+0	1.890650E+0	1.932531E+0	2.002448E+0	1.946104E+0	1.963089E+0	1.978520E+0	1.982722E+0	1.949541E+0	1.988183E+0	1.974415E+0	1.965104E+0	1.937025E+0	1.991605E+0	2.074511E+0	1.852740E+0	1.944125E+0	1.921185E+0	1.912933E+0	1.936635E+0	1.967553E+0	1.894063E+0	1.914725E+0	2.014241E+0	2.093567E+0	1.908642E+0
5.402530E+2	2.026370E+0	2.037482E+0	2.000130E+0	2.028146E+0	2.008100E+0	2.011142E+0	2.055176E+0	1.978074E+0	1.947084E+0	1.960349E+0	1.993004E+0	2.089685E+0	2.020296E+0	2.004462E+0	2.027730E+0	1.991291E+0	1.978139E+0	1.927242E+0	2.025841E+0	1.924736E+0	1.971566E+0	1.990105E+0	1.998475E+0	1.946642E+0	1.955174E+0	1.985570E+0	2.050587E+0	2.046758E+0	1.906760E+0	1.938560E+0	2.024814E+0	1.964287E+0	1.959554E+0	1.941706E+0	1.973118E+0	1.947508E+0	1.985340E+0	2.007740E+0	2.014800E+0	2.050754E+0	1.930517E+0	1.997644E+0	2.070831E+0	1.995449E+0	2.006164E+0	1.982726E+0	1.950460E+0	2.007178E+0	2.002665E+0	1.899369E+0	2.024802E+0	2.001553E+0	2.003475E+0	1.959152E+0	1.987098E+0	1.994720E+0	1.951875E+0	1.982771E+0	2.069459E+0	2.043341E+0	1.964345E+0	1.926319E+0	1.905725E+0	1.959626E+0	1.998521E+0	1.961832E+0	1.920111E+0	1.956553E+0	1.896360E+0	1.894574E+0	2.030965E+0	1.960946E+0	1.958364E+0	1.990486E+0	1.960366E+0	1.938277E+0	2.004899E+0	1.886116E+0	1.865021E+0	2.011005E+0	1.959286E+0	1.953490E+0	1.993265E+0	1.965376E+0	1.985962E+0	1.998605E+0	2.076667E+0	1.951668E+0	1.960277E+0	1.995886E+0	1.997461E+0	1.906581E+0	1.949345E+0	1.949238E+0	1.979096E+0	1.995391E+0	1.976563E+0	1.844585E+0	1.991423E+0	1.938832E+0	1.918626E+0	1.946004E+0	1.941027E+0	1.920884E+0	1.936811E+0	1.910352E+0	1.969621E+0	1.995149E+0	1.942602E+0	1.929056E+0	1.936891E+0	1.953066E+0	1.931837E+0	1.854197E+0	2.010861E+0	1.934061E+0	1.873865E+0	1.929590E+0	2.007374E+0	1.978497E+0	1.955175E+0	1.917366E+0	1.999633E+0	1.885327E+0	1.955079E+0	1.886009E+0	1.906028E+0	1.902759E+0	1.931637E+0	1.934843E+0	1.922568E+0	1.993486E+0	1.939879E+0	1.842955E+0	1.979820E+0	1.960330E+0	1.852293E+0	1.912986E+0	1.970865E+0	2.023109E+0	1.929460E+0	1.862928E+0	1.922831E+0	1.907718E+0	2.105327E+0	1.875587E+0	1.908205E+0	1.838587E+0	1.957232E+0	1.904334E+0	1.972462E+0	1.916491E+0	1.986583E+0	1.999956E+0	1.862128E+0	1.973328E+0	1.877434E+0	1.892201E+0	1.928099E+0	1.909512E+0	1.903835E+0	1.920186E+0	1.880704E+0	1.993879E+0	1.750539E+0
5.405080E+2	1.929643E+0	2.032319E+0	1.926208E+0	1.950621E+0	2.001974E+0	1.997082E+0	1.950046E+0	1.960020E+0	1.937626E+0	1.958640E+0	2.020701E+0	1.917908E+0	1.977903E+0	1.917415E+0	1.965476E+0	1.891756E+0	1.950812E+0	1.932847E+0	1.930766E+0	1.955177E+0	1.967148E+0	1.830757E+0	1.953533E+0	1.894006E+0	1.911391E+0	1.905455E+0	1.937975E+0	1.934856E+0	1.924676E+0	1.899767E+0	1.897060E+0	1.930070E+0	2.012387E+0	1.987655E+0	1.915040E+0	1.981486E+0	1.951006E+0	1.962836E+0	1.927921E+0	1.912657E+0	1.895929E+0	1.941980E+0	1.965219E+0	1.893750E+0	1.951818E+0	1.908500E+0	1.941265E+0	1.939224E+0	1.928416E+0	1.954624E+0	2.020974E+0	1.896661E+0	1.923250E+0	1.916901E+0	1.931400E+0	1.979416E+0	1.855013E+0	1.918302E+0	2.009311E+0	1.937275E+0	1.954081E+0	1.933573E+0	1.888836E+0	1.884358E+0	2.048576E+0	1.949847E+0	1.886647E+0	1.895318E+0	1.876700E+0	1.895612E+0	1.949751E+0	1.975084E+0	1.972042E+0	1.951967E+0	1.931615E+0	1.945717E+0	2.020298E+0	1.902388E+0	1.945482E+0	1.875465E+0	1.951031E+0	1.852254E+0	1.895807E+0	1.966991E+0	1.921732E+0	1.876470E+0	1.954118E+0	1.934848E+0	1.866793E+0	1.921924E+0	1.897166E+0	1.906695E+0	1.882703E+0	1.867581E+0	1.938155E+0	1.908508E+0	1.975957E+0	1.820691E+0	1.882000E+0	1.940315E+0	1.910448E+0	1.866934E+0	1.837666E+0	1.927877E+0	1.910827E+0	1.825793E+0	1.883035E+0	1.912940E+0	1.899230E+0	1.892321E+0	1.956605E+0	1.902674E+0	1.851465E+0	1.831974E+0	1.937405E+0	1.903979E+0	1.898551E+0	1.884197E+0	1.938612E+0	1.981782E+0	1.852547E+0	1.876292E+0	1.855117E+0	1.908922E+0	1.902179E+0	1.842471E+0	1.950627E+0	1.889066E+0	1.957386E+0	1.858912E+0	1.890133E+0	1.859412E+0	1.849151E+0	1.829294E+0	1.841673E+0	1.815842E+0	1.849453E+0	1.914871E+0	1.885170E+0	1.909063E+0	1.897835E+0	1.822761E+0	1.946831E+0	1.892368E+0	1.955922E+0	1.807797E+0	1.878623E+0	1.747347E+0	1.915946E+0	1.861816E+0	1.880602E+0	1.830135E+0	1.829958E+0	1.816118E+0	1.793320E+0	1.902318E+0	1.872956E+0	1.857797E+0	1.878219E+0	1.873824E+0	1.831216E+0	1.808865E+0	1.882243E+0	2.006656E+0	1.718811E+0
5.407630E+2	1.749028E+0	1.826105E+0	1.769849E+0	1.756983E+0	1.788059E+0	1.733406E+0	1.759290E+0	1.820650E+0	1.698763E+0	1.729324E+0	1.749821E+0	1.724989E+0	1.787645E+0	1.782411E+0	1.734337E+0	1.675192E+0	1.765445E+0	1.722407E+0	1.811083E+0	1.747579E+0	1.741739E+0	1.705570E+0	1.771486E+0	1.769174E+0	1.786927E+0	1.743025E+0	1.806138E+0	1.819983E+0	1.731548E+0	1.710626E+0	1.685349E+0	1.729038E+0	1.739825E+0	1.760552E+0	1.754315E+0	1.786607E+0	1.782381E+0	1.746669E+0	1.824930E+0	1.807795E+0	1.686387E+0	1.732767E+0	1.792263E+0	1.724259E+0	1.759335E+0	1.717213E+0	1.685937E+0	1.751254E+0	1.763176E+0	1.735626E+0	1.861652E+0	1.758251E+0	1.709192E+0	1.728565E+0	1.756752E+0	1.773248E+0	1.724455E+0	1.773580E+0	1.770600E+0	1.687352E+0	1.752832E+0	1.707110E+0	1.670380E+0	1.684220E+0	1.768824E+0	1.732057E+0	1.757877E+0	1.779314E+0	1.737625E+0	1.671193E+0	1.775492E+0	1.784558E+0	1.797431E+0	1.673343E+0	1.708995E+0	1.753202E+0	1.763138E+0	1.698544E+0	1.816149E+0	1.763665E+0	1.733312E+0	1.735346E+0	1.710368E+0	1.771545E+0	1.660244E+0	1.708499E+0	1.791790E+0	1.717534E+0	1.773327E+0	1.711799E+0	1.741513E+0	1.690255E+0	1.786603E+0	1.677930E+0	1.678795E+0	1.747960E+0	1.794007E+0	1.711674E+0	1.826432E+0	1.732538E+0	1.772769E+0	1.757427E+0	1.682076E+0	1.732187E+0	1.698782E+0	1.689648E+0	1.699695E+0	1.814444E+0	1.691452E+0	1.670321E+0	1.776020E+0	1.719373E+0	1.737495E+0	1.619091E+0	1.782022E+0	1.717961E+0	1.663749E+0	1.720650E+0	1.737722E+0	1.645846E+0	1.687533E+0	1.681805E+0	1.708699E+0	1.715149E+0	1.691915E+0	1.668367E+0	1.714255E+0	1.750539E+0	1.705304E+0	1.657081E+0	1.743462E+0	1.734529E+0	1.738154E+0	1.710756E+0	1.710218E+0	1.745686E+0	1.711734E+0	1.660472E+0	1.691740E+0	1.738121E+0	1.729151E+0	1.601816E+0	1.751920E+0	1.741212E+0	1.751332E+0	1.692725E+0	1.752635E+0	1.599613E+0	1.717255E+0	1.739721E+0	1.736481E+0	1.635646E+0	1.727013E+0	1.726679E+0	1.656460E+0	1.771102E+0	1.675001E+0	1.677928E+0	1.679012E+0	1.735639E+0	1.679205E+0	1.665735E+0	1.668401E+0	1.699336E+0	1.672398E+0
5.410190E+2	1.639652E+0	1.735146E+0	1.705627E+0	1.683743E+0	1.807776E+0	1.651183E+0	1.687254E+0	1.714084E+0	1.689156E+0	1.667576E+0	1.715115E+0	1.674173E+0	1.685585E+0	1.714345E+0	1.710720E+0	1.685000E+0	1.714671E+0	1.646877E+0	1.646441E+0	1.626666E+0	1.636752E+0	1.650869E+0	1.704710E+0	1.620717E+0	1.728404E+0	1.679311E+0	1.653534E+0	1.767091E+0	1.683110E+0	1.675066E+0	1.641124E+0	1.692865E+0	1.687026E+0	1.666762E+0	1.678206E+0	1.696258E+0	1.660666E+0	1.688543E+0	1.718034E+0	1.699945E+0	1.675239E+0	1.717184E+0	1.638565E+0	1.659162E+0	1.673551E+0	1.688327E+0	1.627580E+0	1.677537E+0	1.694130E+0	1.636067E+0	1.728836E+0	1.696766E+0	1.668430E+0	1.661942E+0	1.699304E+0	1.727620E+0	1.616218E+0	1.741127E+0	1.624280E+0	1.631978E+0	1.698750E+0	1.648711E+0	1.623996E+0	1.673432E+0	1.666308E+0	1.634714E+0	1.662408E+0	1.713380E+0	1.626104E+0	1.626315E+0	1.744429E+0	1.641389E+0	1.639332E+0	1.606236E+0	1.690221E+0	1.603912E+0	1.722651E+0	1.586796E+0	1.669740E+0	1.690482E+0	1.717203E+0	1.649561E+0	1.700915E+0	1.688287E+0	1.603483E+0	1.654581E+0	1.763599E+0	1.662442E+0	1.689555E+0	1.711094E+0	1.709926E+0	1.702950E+0	1.725921E+0	1.625751E+0	1.640096E+0	1.660542E+0	1.685898E+0	1.596641E+0	1.640301E+0	1.640420E+0	1.642449E+0	1.657476E+0	1.594251E+0	1.646590E+0	1.696985E+0	1.581557E+0	1.599137E+0	1.683100E+0	1.631518E+0	1.640613E+0	1.674761E+0	1.640948E+0	1.703173E+0	1.579662E+0	1.604331E+0	1.664679E+0	1.612340E+0	1.647739E+0	1.684888E+0	1.669417E+0	1.578773E+0	1.618484E+0	1.691387E+0	1.690545E+0	1.594955E+0	1.596307E+0	1.634173E+0	1.655433E+0	1.689235E+0	1.620279E+0	1.679128E+0	1.656642E+0	1.641860E+0	1.609295E+0	1.638957E+0	1.670665E+0	1.616031E+0	1.538734E+0	1.649782E+0	1.660195E+0	1.633325E+0	1.613385E+0	1.755720E+0	1.620399E+0	1.708421E+0	1.576992E+0	1.667553E+0	1.615204E+0	1.635697E+0	1.575075E+0	1.618906E+0	1.620303E+0	1.659828E+0	1.637504E+0	1.616272E+0	1.720283E+0	1.637084E+0	1.607892E+0	1.584082E+0	1.645484E+0	1.634259E+0	1.583966E+0	1.571947E+0	1.730356E+0	1.567360E+0
5.412690E+2	1.705336E+0	1.818265E+0	1.704908E+0	1.660032E+0	1.718803E+0	1.790134E+0	1.741910E+0	1.707556E+0	1.697006E+0	1.698087E+0	1.731169E+0	1.718409E+0	1.783186E+0	1.725879E+0	1.763415E+0	1.695348E+0	1.742168E+0	1.689942E+0	1.723418E+0	1.711807E+0	1.716912E+0	1.683694E+0	1.667974E+0	1.699072E+0	1.743315E+0	1.685870E+0	1.745603E+0	1.741718E+0	1.671309E+0	1.706868E+0	1.763440E+0	1.752056E+0	1.627755E+0	1.728629E+0	1.669746E+0	1.758983E+0	1.709256E+0	1.741155E+0	1.750316E+0	1.740577E+0	1.697122E+0	1.670597E+0	1.713467E+0	1.675415E+0	1.698009E+0	1.684331E+0	1.704965E+0	1.729579E+0	1.719883E+0	1.685114E+0	1.771235E+0	1.695726E+0	1.765166E+0	1.681117E+0	1.760723E+0	1.749337E+0	1.674397E+0	1.691538E+0	1.651334E+0	1.702864E+0	1.705833E+0	1.692923E+0	1.646848E+0	1.673111E+0	1.693213E+0	1.756837E+0	1.665704E+0	1.765538E+0	1.623733E+0	1.651077E+0	1.718562E+0	1.761203E+0	1.725882E+0	1.687835E+0	1.695367E+0	1.662555E+0	1.729914E+0	1.635653E+0	1.652027E+0	1.670436E+0	1.674198E+0	1.643351E+0	1.670346E+0	1.670487E+0	1.723902E+0	1.633550E+0	1.711333E+0	1.675145E+0	1.736248E+0	1.642552E+0	1.728292E+0	1.721364E+0	1.714185E+0	1.636384E+0	1.689635E+0	1.632644E+0	1.687226E+0	1.625606E+0	1.752448E+0	1.619138E+0	1.693277E+0	1.688458E+0	1.700387E+0	1.698187E+0	1.655859E+0	1.675183E+0	1.697056E+0	1.734002E+0	1.659841E+0	1.735968E+0	1.700209E+0	1.676076E+0	1.695100E+0	1.617589E+0	1.648174E+0	1.713921E+0	1.650445E+0	1.662918E+0	1.734699E+0	1.715382E+0	1.634042E+0	1.680883E+0	1.639416E+0	1.694984E+0	1.667156E+0	1.611497E+0	1.702215E+0	1.677354E+0	1.696619E+0	1.582685E+0	1.651499E+0	1.668789E+0	1.660433E+0	1.707206E+0	1.678301E+0	1.664649E+0	1.616655E+0	1.667155E+0	1.653900E+0	1.649741E+0	1.677418E+0	1.598643E+0	1.678054E+0	1.632374E+0	1.727118E+0	1.637031E+0	1.702360E+0	1.644004E+0	1.671798E+0	1.634463E+0	1.737913E+0	1.621136E+0	1.686106E+0	1.668591E+0	1.633439E+0	1.739794E+0	1.682411E+0	1.604303E+0	1.627817E+0	1.666181E+0	1.605314E+0	1.566689E+0	1.571785E+0	1.820817E+0	1.642288E+0
5.415090E+2	1.691542E+0	1.666466E+0	1.633922E+0	1.595571E+0	1.664866E+0	1.661383E+0	1.639058E+0	1.663703E+0	1.693128E+0	1.592963E+0	1.687418E+0	1.683415E+0	1.657649E+0	1.573925E+0	1.669592E+0	1.645792E+0	1.687944E+0	1.637093E+0	1.588008E+0	1.580724E+0	1.677636E+0	1.616449E+0	1.692968E+0	1.644630E+0	1.635314E+0	1.649054E+0	1.635133E+0	1.705165E+0	1.605685E+0	1.653413E+0	1.728871E+0	1.653874E+0	1.671027E+0	1.682394E+0	1.646288E+0	1.602654E+0	1.635397E+0	1.580612E+0	1.699367E+0	1.622286E+0	1.660490E+0	1.644870E+0	1.659190E+0	1.587718E+0	1.644898E+0	1.649274E+0	1.670742E+0	1.654255E+0	1.649101E+0	1.673271E+0	1.698608E+0	1.705407E+0	1.665280E+0	1.637234E+0	1.692886E+0	1.674926E+0	1.567575E+0	1.712767E+0	1.626767E+0	1.654468E+0	1.721973E+0	1.628361E+0	1.551271E+0	1.594275E+0	1.682209E+0	1.671235E+0	1.679258E+0	1.624129E+0	1.560378E+0	1.602121E+0	1.682760E+0	1.689363E+0	1.615681E+0	1.658895E+0	1.591909E+0	1.699874E+0	1.679176E+0	1.601221E+0	1.667213E+0	1.623809E+0	1.608961E+0	1.626412E+0	1.602143E+0	1.638205E+0	1.570178E+0	1.634311E+0	1.711164E+0	1.627072E+0	1.594859E+0	1.596067E+0	1.633450E+0	1.671777E+0	1.621697E+0	1.606368E+0	1.677208E+0	1.655713E+0	1.621610E+0	1.588210E+0	1.643759E+0	1.630138E+0	1.602005E+0	1.578886E+0	1.656587E+0	1.642258E+0	1.663022E+0	1.613552E+0	1.612122E+0	1.684855E+0	1.621982E+0	1.598971E+0	1.585186E+0	1.644974E+0	1.664153E+0	1.532017E+0	1.587567E+0	1.613536E+0	1.652783E+0	1.564157E+0	1.645724E+0	1.672872E+0	1.547441E+0	1.613044E+0	1.673527E+0	1.684112E+0	1.627718E+0	1.640942E+0	1.659996E+0	1.596485E+0	1.626709E+0	1.539474E+0	1.632881E+0	1.536319E+0	1.579072E+0	1.577039E+0	1.591315E+0	1.582935E+0	1.652096E+0	1.658140E+0	1.625918E+0	1.613055E+0	1.587486E+0	1.595188E+0	1.616088E+0	1.572353E+0	1.664492E+0	1.645245E+0	1.631575E+0	1.595047E+0	1.616355E+0	1.544920E+0	1.600685E+0	1.547068E+0	1.600842E+0	1.600135E+0	1.712000E+0	1.635243E+0	1.638209E+0	1.602339E+0	1.596066E+0	1.597812E+0	1.578544E+0	1.568421E+0	1.517075E+0	1.680144E+0	1.666274E+0
5.417650E+2	1.438471E+0	1.479515E+0	1.498582E+0	1.499072E+0	1.491846E+0	1.524602E+0	1.545733E+0	1.497260E+0	1.504331E+0	1.432028E+0	1.500435E+0	1.446510E+0	1.495203E+0	1.478181E+0	1.489662E+0	1.467162E+0	1.475098E+0	1.468057E+0	1.418365E+0	1.466379E+0	1.447604E+0	1.464276E+0	1.452624E+0	1.492047E+0	1.495053E+0	1.421153E+0	1.506020E+0	1.519814E+0	1.423251E+0	1.402193E+0	1.425594E+0	1.497619E+0	1.437817E+0	1.448474E+0	1.448869E+0	1.516803E+0	1.449034E+0	1.470973E+0	1.491924E+0	1.465066E+0	1.423073E+0	1.420933E+0	1.475331E+0	1.478397E+0	1.507739E+0	1.466515E+0	1.485041E+0	1.482421E+0	1.488998E+0	1.465309E+0	1.549280E+0	1.471293E+0	1.431736E+0	1.447035E+0	1.453861E+0	1.460847E+0	1.451211E+0	1.506780E+0	1.488658E+0	1.446858E+0	1.517583E+0	1.449054E+0	1.461533E+0	1.425413E+0	1.517089E+0	1.477358E+0	1.443261E+0	1.496781E+0	1.532580E+0	1.374274E+0	1.526100E+0	1.496174E+0	1.456509E+0	1.417577E+0	1.493926E+0	1.460635E+0	1.510406E+0	1.454505E+0	1.524343E+0	1.457532E+0	1.494232E+0	1.492350E+0	1.464712E+0	1.440504E+0	1.511670E+0	1.459214E+0	1.521295E+0	1.465178E+0	1.471506E+0	1.463189E+0	1.526523E+0	1.497010E+0	1.504577E+0	1.445216E+0	1.430327E+0	1.524370E+0	1.446321E+0	1.439308E+0	1.497699E+0	1.415650E+0	1.423411E+0	1.428356E+0	1.466938E+0	1.493175E+0	1.462382E+0	1.454798E+0	1.462131E+0	1.491989E+0	1.435470E+0	1.448409E+0	1.452126E+0	1.503818E+0	1.502185E+0	1.390363E+0	1.488104E+0	1.502749E+0	1.457268E+0	1.463357E+0	1.499527E+0	1.470091E+0	1.416644E+0	1.459306E+0	1.441558E+0	1.482792E+0	1.461250E+0	1.401644E+0	1.464688E+0	1.437906E+0	1.462383E+0	1.376595E+0	1.448469E+0	1.452531E+0	1.475660E+0	1.475475E+0	1.452514E+0	1.440020E+0	1.442410E+0	1.455740E+0	1.466190E+0	1.521529E+0	1.439863E+0	1.386378E+0	1.495143E+0	1.478367E+0	1.511209E+0	1.446297E+0	1.498539E+0	1.349121E+0	1.419958E+0	1.440863E+0	1.545022E+0	1.388775E+0	1.458009E+0	1.491805E+0	1.447083E+0	1.440357E+0	1.407934E+0	1.477400E+0	1.398375E+0	1.486700E+0	1.431029E+0	1.437545E+0	1.383168E+0	1.584518E+0	1.420781E+0
5.420160E+2	1.242798E+0	1.295718E+0	1.239825E+0	1.275124E+0	1.254230E+0	1.322794E+0	1.185018E+0	1.255626E+0	1.226174E+0	1.247065E+0	1.282311E+0	1.244772E+0	1.247842E+0	1.272663E+0	1.242073E+0	1.198354E+0	1.306589E+0	1.235385E+0	1.251742E+0	1.251051E+0	1.280880E+0	1.267042E+0	1.252859E+0	1.252786E+0	1.251249E+0	1.217269E+0	1.279678E+0	1.341724E+0	1.230449E+0	1.254671E+0	1.223914E+0	1.254042E+0	1.228373E+0	1.273957E+0	1.245114E+0	1.254972E+0	1.234966E+0	1.207546E+0	1.248040E+0	1.296495E+0	1.230073E+0	1.252394E+0	1.271839E+0	1.264536E+0	1.270695E+0	1.239926E+0	1.266634E+0	1.252547E+0	1.321531E+0	1.263311E+0	1.257871E+0	1.248521E+0	1.274671E+0	1.210240E+0	1.247233E+0	1.288310E+0	1.220868E+0	1.288033E+0	1.282969E+0	1.240927E+0	1.253974E+0	1.210878E+0	1.195052E+0	1.256629E+0	1.308283E+0	1.276170E+0	1.236535E+0	1.241268E+0	1.225747E+0	1.157181E+0	1.283884E+0	1.288881E+0	1.280787E+0	1.255941E+0	1.287827E+0	1.165507E+0	1.314422E+0	1.248178E+0	1.279835E+0	1.265204E+0	1.259332E+0	1.217957E+0	1.218469E+0	1.290629E+0	1.249148E+0	1.268126E+0	1.269607E+0	1.287855E+0	1.247683E+0	1.265321E+0	1.265939E+0	1.297007E+0	1.224535E+0	1.193627E+0	1.272983E+0	1.268025E+0	1.275734E+0	1.199214E+0	1.277071E+0	1.315602E+0	1.252538E+0	1.233960E+0	1.288865E+0	1.258267E+0	1.265419E+0	1.251388E+0	1.288912E+0	1.325154E+0	1.296433E+0	1.206122E+0	1.306549E+0	1.197042E+0	1.230934E+0	1.148308E+0	1.255331E+0	1.243959E+0	1.257718E+0	1.225232E+0	1.308809E+0	1.218107E+0	1.192204E+0	1.244189E+0	1.286254E+0	1.279490E+0	1.229083E+0	1.189837E+0	1.284338E+0	1.260076E+0	1.269128E+0	1.219652E+0	1.251228E+0	1.255310E+0	1.250012E+0	1.302193E+0	1.233401E+0	1.243641E+0	1.257179E+0	1.165171E+0	1.251494E+0	1.331332E+0	1.261580E+0	1.254347E+0	1.349362E+0	1.262500E+0	1.303064E+0	1.246554E+0	1.302239E+0	1.193170E+0	1.242845E+0	1.253059E+0	1.247060E+0	1.172487E+0	1.301602E+0	1.194618E+0	1.216605E+0	1.258759E+0	1.233912E+0	1.207243E+0	1.177472E+0	1.256363E+0	1.200969E+0	1.153922E+0	1.241161E+0	1.354703E+0	1.170840E+0
5.422780E+2	1.097654E+0	1.124217E+0	1.116946E+0	1.187930E+0	1.119581E+0	1.126600E+0	1.102494E+0	1.113342E+0	1.098073E+0	1.146134E+0	1.128417E+0	1.143310E+0	1.132400E+0	1.120468E+0	1.139970E+0	1.084965E+0	1.146850E+0	1.174828E+0	1.109174E+0	1.071897E+0	1.162269E+0	1.123738E+0	1.139102E+0	1.100087E+0	1.106168E+0	1.121841E+0	1.114479E+0	1.130028E+0	1.109920E+0	1.143663E+0	1.136262E+0	1.130291E+0	1.141643E+0	1.134905E+0	1.136558E+0	1.117472E+0	1.104482E+0	1.116729E+0	1.154463E+0	1.096947E+0	1.182531E+0	1.118803E+0	1.163864E+0	1.150107E+0	1.157899E+0	1.100505E+0	1.153176E+0	1.139815E+0	1.159565E+0	1.124107E+0	1.076501E+0	1.141283E+0	1.189881E+0	1.129344E+0	1.126772E+0	1.102941E+0	1.148887E+0	1.143461E+0	1.135704E+0	1.090847E+0	1.121688E+0	1.071838E+0	1.092302E+0	1.093298E+0	1.139007E+0	1.141177E+0	1.119467E+0	1.172265E+0	1.105114E+0	1.115516E+0	1.163307E+0	1.174467E+0	1.158484E+0	1.086457E+0	1.140659E+0	1.100545E+0	1.125987E+0	1.091324E+0	1.120056E+0	1.125621E+0	1.204447E+0	1.159461E+0	1.146896E+0	1.136999E+0	1.160859E+0	1.025150E+0	1.223134E+0	1.186416E+0	1.163454E+0	1.125763E+0	1.117448E+0	1.155398E+0	1.105596E+0	1.132566E+0	1.159147E+0	1.071674E+0	1.108609E+0	1.079053E+0	1.133093E+0	1.092679E+0	1.167105E+0	1.112986E+0	1.125494E+0	1.142307E+0	1.058380E+0	1.097764E+0	1.125740E+0	1.228264E+0	1.100065E+0	1.142515E+0	1.124312E+0	1.130794E+0	1.117132E+0	1.080086E+0	1.154551E+0	1.147323E+0	1.168588E+0	1.120701E+0	1.094239E+0	1.160502E+0	1.117698E+0	1.109303E+0	1.087120E+0	1.174528E+0	1.127551E+0	1.091844E+0	1.141767E+0	1.150956E+0	1.130325E+0	1.100733E+0	1.119934E+0	1.143383E+0	1.153139E+0	1.131044E+0	1.178799E+0	1.186457E+0	1.101795E+0	1.205459E+0	1.117052E+0	1.153707E+0	1.121514E+0	1.109844E+0	1.102608E+0	1.128042E+0	1.142387E+0	1.128305E+0	1.127155E+0	1.154943E+0	1.072612E+0	1.139870E+0	1.207283E+0	1.110525E+0	1.114846E+0	1.084598E+0	1.071280E+0	1.150331E+0	1.099551E+0	1.072355E+0	1.137991E+0	1.100537E+0	1.076602E+0	1.062574E+0	1.119864E+0	1.212408E+0	1.157154E+0
5.425080E+2	9.257926E-1	1.036970E+0	9.762619E-1	9.681150E-1	1.014120E+0	9.937149E-1	9.392411E-1	9.768934E-1	9.546535E-1	9.760689E-1	9.982584E-1	1.047267E+0	1.032694E+0	9.722173E-1	1.028933E+0	9.869980E-1	1.049617E+0	9.939185E-1	1.028572E+0	9.399240E-1	9.749833E-1	9.577067E-1	1.000849E+0	1.032894E+0	1.007317E+0	1.026781E+0	9.682530E-1	1.056964E+0	9.821527E-1	9.832039E-1	9.863817E-1	1.026615E+0	9.925399E-1	9.688839E-1	1.000508E+0	1.042676E+0	1.002006E+0	9.780565E-1	1.004532E+0	1.020666E+0	9.766991E-1	9.940370E-1	1.035248E+0	1.009681E+0	9.682881E-1	9.607204E-1	1.005916E+0	1.020849E+0	1.000286E+0	9.719958E-1	9.294135E-1	1.018041E+0	9.514687E-1	1.014693E+0	1.030701E+0	1.015133E+0	9.809131E-1	1.009518E+0	9.755634E-1	9.469758E-1	1.043339E+0	9.636528E-1	9.548624E-1	9.609166E-1	1.037550E+0	1.019110E+0	9.853689E-1	9.530686E-1	9.660415E-1	9.889882E-1	1.008123E+0	1.048802E+0	9.956380E-1	9.712599E-1	1.024632E+0	1.016397E+0	1.048440E+0	9.136794E-1	9.611647E-1	9.865952E-1	9.938194E-1	9.575508E-1	1.000380E+0	1.001594E+0	9.753907E-1	1.016183E+0	9.972173E-1	9.890245E-1	1.012029E+0	1.044333E+0	1.007319E+0	9.743975E-1	1.006308E+0	9.952374E-1	9.836125E-1	9.586849E-1	1.011368E+0	9.708265E-1	9.982914E-1	9.751414E-1	9.804420E-1	1.003837E+0	1.013847E+0	9.664598E-1	1.030997E+0	1.027979E+0	9.532733E-1	9.730672E-1	9.867964E-1	9.898591E-1	1.001982E+0	1.044300E+0	9.419096E-1	9.323890E-1	9.906304E-1	9.860922E-1	9.408552E-1	9.714741E-1	1.056776E+0	1.015821E+0	9.968087E-1	1.017794E+0	1.004364E+0	1.001006E+0	9.824878E-1	9.768188E-1	1.030183E+0	1.043670E+0	9.919045E-1	9.507894E-1	9.455791E-1	9.735503E-1	9.807688E-1	1.015958E+0	9.412754E-1	1.026799E+0	1.019660E+0	1.014791E+0	1.024034E+0	1.038714E+0	9.907120E-1	9.173456E-1	9.698262E-1	9.889721E-1	1.045105E+0	9.821191E-1	1.001212E+0	9.882145E-1	9.787699E-1	9.802598E-1	1.031379E+0	9.771901E-1	9.743678E-1	1.000840E+0	9.369517E-1	9.854941E-1	9.656989E-1	9.209371E-1	9.970377E-1	9.726489E-1	9.535579E-1	9.597315E-1	9.278068E-1	1.038448E+0	1.036001E+0
5.427710E+2	9.051210E-1	9.924738E-1	9.737436E-1	9.354887E-1	9.989615E-1	9.056831E-1	9.479406E-1	9.368364E-1	9.956059E-1	9.388685E-1	9.218116E-1	9.288632E-1	9.604628E-1	9.898699E-1	9.989060E-1	9.786585E-1	1.027164E+0	9.570825E-1	9.526168E-1	1.021319E+0	1.001161E+0	9.433508E-1	9.654841E-1	9.852300E-1	9.934345E-1	9.555952E-1	9.191444E-1	1.009945E+0	9.916278E-1	9.967253E-1	9.663306E-1	1.031390E+0	9.049029E-1	9.257936E-1	9.741601E-1	9.424640E-1	9.735034E-1	9.767138E-1	9.626781E-1	1.008654E+0	9.637597E-1	9.399094E-1	9.649925E-1	9.804279E-1	9.743144E-1	9.754921E-1	9.275570E-1	9.972620E-1	9.800889E-1	9.483576E-1	9.450830E-1	1.042706E+0	9.719713E-1	9.715143E-1	1.009256E+0	9.580534E-1	9.415786E-1	9.882674E-1	9.412585E-1	9.949405E-1	1.032020E+0	9.903209E-1	9.375606E-1	1.025695E+0	9.646266E-1	9.788538E-1	9.748126E-1	9.945886E-1	9.467227E-1	9.338909E-1	9.771788E-1	1.003548E+0	1.005907E+0	9.838633E-1	1.025410E+0	9.364262E-1	1.013817E+0	9.193277E-1	9.709739E-1	9.306715E-1	9.714131E-1	9.748381E-1	9.626568E-1	9.762149E-1	9.711795E-1	9.528310E-1	1.009752E+0	1.014864E+0	9.948657E-1	9.632496E-1	9.408257E-1	1.020407E+0	9.988393E-1	9.752517E-1	9.315247E-1	9.802228E-1	1.064184E+0	9.088342E-1	1.023340E+0	9.648753E-1	9.909463E-1	9.581056E-1	9.353660E-1	9.657531E-1	9.581066E-1	9.456550E-1	9.557009E-1	9.488808E-1	1.042867E+0	9.705787E-1	9.512284E-1	9.900240E-1	9.632394E-1	9.233095E-1	9.788040E-1	9.189527E-1	9.548417E-1	9.629771E-1	1.004172E+0	9.373130E-1	9.470865E-1	9.877680E-1	9.731692E-1	1.022687E+0	1.060899E+0	9.578649E-1	9.502334E-1	9.710914E-1	9.991710E-1	9.438191E-1	9.914423E-1	1.005217E+0	9.628621E-1	9.637314E-1	1.010608E+0	9.778558E-1	9.631878E-1	9.283514E-1	9.612393E-1	1.033055E+0	9.549100E-1	9.393703E-1	9.638092E-1	9.554564E-1	9.652392E-1	9.509288E-1	1.008853E+0	9.567981E-1	1.007104E+0	9.428793E-1	9.662392E-1	9.720462E-1	9.547729E-1	9.755819E-1	9.341737E-1	9.491733E-1	9.256804E-1	9.531139E-1	1.008478E+0	9.884678E-1	9.385471E-1	9.288680E-1	9.767079E-1	1.061986E+0	9.326237E-1
5.430170E+2	9.653140E-1	9.741536E-1	9.594224E-1	9.785917E-1	9.379566E-1	9.634128E-1	9.791255E-1	1.009688E+0	9.767047E-1	9.877425E-1	9.805250E-1	9.791945E-1	1.011933E+0	9.820493E-1	9.782981E-1	9.717511E-1	1.018398E+0	9.584756E-1	1.008085E+0	9.750266E-1	1.003317E+0	9.637162E-1	9.670539E-1	9.847630E-1	9.630558E-1	9.831043E-1	1.011690E+0	9.997981E-1	9.868339E-1	9.004607E-1	9.462619E-1	1.002065E+0	1.024800E+0	1.010894E+0	9.871890E-1	9.683636E-1	9.948392E-1	9.631649E-1	9.794050E-1	9.990896E-1	9.985419E-1	1.018830E+0	9.432758E-1	9.263500E-1	1.021157E+0	9.919941E-1	9.463517E-1	9.921238E-1	1.044591E+0	1.022883E+0	9.847335E-1	9.884908E-1	1.015712E+0	9.669042E-1	9.994880E-1	9.986646E-1	9.429015E-1	1.021706E+0	9.803876E-1	9.868032E-1	1.009856E+0	9.515459E-1	9.036794E-1	9.883446E-1	1.016009E+0	9.945942E-1	9.784627E-1	9.973991E-1	9.401014E-1	9.458664E-1	9.656285E-1	1.034015E+0	1.018256E+0	9.252854E-1	9.346390E-1	1.016483E+0	9.943810E-1	9.482971E-1	9.998892E-1	9.654125E-1	1.001933E+0	9.897983E-1	9.681633E-1	9.955873E-1	1.015679E+0	9.723837E-1	1.043986E+0	1.015078E+0	1.005885E+0	1.025873E+0	1.030930E+0	9.840203E-1	9.706820E-1	9.676227E-1	9.452642E-1	9.762582E-1	1.017110E+0	9.832305E-1	9.655248E-1	9.960016E-1	9.926908E-1	9.602761E-1	9.851565E-1	9.201042E-1	9.680542E-1	9.633650E-1	1.015526E+0	9.306329E-1	9.648367E-1	9.901045E-1	9.491156E-1	9.318386E-1	9.783777E-1	9.409440E-1	9.526623E-1	9.809433E-1	9.797798E-1	9.925500E-1	9.715143E-1	9.665529E-1	9.534037E-1	9.878738E-1	1.035657E+0	9.745985E-1	1.003854E+0	9.588229E-1	1.038538E+0	9.857082E-1	9.738184E-1	9.870862E-1	9.752483E-1	1.013434E+0	1.019997E+0	9.906539E-1	9.737690E-1	9.737806E-1	9.628153E-1	9.921881E-1	9.972970E-1	1.000234E+0	9.814759E-1	9.714846E-1	1.004451E+0	9.641704E-1	1.037749E+0	9.974971E-1	9.900815E-1	9.750743E-1	1.008157E+0	9.526818E-1	9.941054E-1	9.348895E-1	9.657652E-1	1.021114E+0	9.029917E-1	9.926667E-1	9.196755E-1	9.628314E-1	9.856974E-1	9.707131E-1	9.388448E-1	8.573318E-1	9.319903E-1	1.065560E+0	9.081366E-1
5.432860E+2	1.083997E+0	1.165874E+0	1.028717E+0	1.088203E+0	1.110536E+0	1.118924E+0	1.071889E+0	1.144234E+0	1.098928E+0	1.107977E+0	1.124695E+0	1.063254E+0	1.144706E+0	1.113469E+0	1.131096E+0	1.127776E+0	1.179862E+0	1.164874E+0	1.111073E+0	1.083402E+0	1.108293E+0	1.086775E+0	1.128697E+0	1.105196E+0	1.131824E+0	1.109330E+0	1.076680E+0	1.214072E+0	1.112667E+0	1.071733E+0	1.136487E+0	1.120904E+0	1.117575E+0	1.103266E+0	1.096120E+0	1.134384E+0	1.107656E+0	1.135730E+0	1.097971E+0	1.164656E+0	1.125169E+0	1.165734E+0	1.117221E+0	1.128487E+0	1.126644E+0	1.121475E+0	1.100652E+0	1.133689E+0	1.149333E+0	1.115307E+0	1.107189E+0	1.149960E+0	1.076220E+0	1.111528E+0	1.086707E+0	1.156710E+0	1.112825E+0	1.127026E+0	1.129908E+0	1.137250E+0	1.092945E+0	1.103376E+0	1.045144E+0	1.141706E+0	1.139043E+0	1.101685E+0	1.100389E+0	1.160769E+0	1.105363E+0	1.060144E+0	1.067408E+0	1.136373E+0	1.144751E+0	1.112327E+0	1.151960E+0	1.107483E+0	1.138460E+0	1.110818E+0	1.103514E+0	1.111511E+0	1.128362E+0	1.117012E+0	1.095567E+0	1.152484E+0	1.124278E+0	1.164047E+0	1.148331E+0	1.156855E+0	1.146117E+0	1.127264E+0	1.106034E+0	1.147088E+0	1.134186E+0	1.164712E+0	1.100162E+0	1.127380E+0	1.093523E+0	1.093521E+0	1.110234E+0	1.128506E+0	1.095564E+0	1.091238E+0	1.131821E+0	1.122276E+0	1.109441E+0	1.087136E+0	1.024360E+0	1.180318E+0	1.154415E+0	1.112424E+0	1.138362E+0	1.106493E+0	1.136337E+0	1.076710E+0	1.093961E+0	1.120376E+0	1.085500E+0	1.021963E+0	1.140436E+0	1.147380E+0	1.064764E+0	1.087716E+0	1.104321E+0	1.122216E+0	1.104253E+0	1.082242E+0	1.090469E+0	1.135721E+0	1.104434E+0	1.080109E+0	1.143163E+0	1.118548E+0	1.100939E+0	1.122051E+0	1.138626E+0	1.147655E+0	1.106495E+0	1.106679E+0	1.155617E+0	1.074958E+0	1.131754E+0	1.089789E+0	1.083103E+0	1.075468E+0	1.089478E+0	1.096852E+0	1.063489E+0	1.090884E+0	1.115938E+0	1.098223E+0	1.153878E+0	1.075939E+0	1.092889E+0	1.093278E+0	1.135264E+0	1.122737E+0	1.104298E+0	1.037632E+0	1.096038E+0	1.104984E+0	1.078931E+0	1.080442E+0	1.075135E+0	1.098695E+0	1.019054E+0
5.435330E+2	1.235124E+0	1.278911E+0	1.252734E+0	1.247437E+0	1.231341E+0	1.271522E+0	1.245049E+0	1.298715E+0	1.287644E+0	1.213988E+0	1.228670E+0	1.311848E+0	1.322110E+0	1.248749E+0	1.296588E+0	1.275080E+0	1.347605E+0	1.250380E+0	1.251708E+0	1.257432E+0	1.316964E+0	1.238845E+0	1.256702E+0	1.256330E+0	1.258287E+0	1.271396E+0	1.284286E+0	1.312847E+0	1.241411E+0	1.259395E+0	1.218066E+0	1.251731E+0	1.252070E+0	1.262860E+0	1.229651E+0	1.277895E+0	1.332550E+0	1.280629E+0	1.272348E+0	1.231657E+0	1.286762E+0	1.287846E+0	1.239215E+0	1.247842E+0	1.274605E+0	1.238205E+0	1.277904E+0	1.324103E+0	1.290367E+0	1.252184E+0	1.195152E+0	1.256844E+0	1.259007E+0	1.264594E+0	1.271037E+0	1.275195E+0	1.228751E+0	1.252223E+0	1.270718E+0	1.306821E+0	1.305983E+0	1.183796E+0	1.274348E+0	1.284746E+0	1.236938E+0	1.254060E+0	1.258272E+0	1.228699E+0	1.280834E+0	1.199796E+0	1.257163E+0	1.311302E+0	1.253662E+0	1.243373E+0	1.261797E+0	1.219314E+0	1.286041E+0	1.260949E+0	1.257563E+0	1.303924E+0	1.245039E+0	1.223091E+0	1.246657E+0	1.273429E+0	1.271497E+0	1.271744E+0	1.246505E+0	1.281319E+0	1.238098E+0	1.225138E+0	1.253313E+0	1.296431E+0	1.298138E+0	1.252473E+0	1.228982E+0	1.193691E+0	1.287304E+0	1.277797E+0	1.195021E+0	1.265238E+0	1.249147E+0	1.282564E+0	1.269508E+0	1.255243E+0	1.203091E+0	1.247354E+0	1.228365E+0	1.345916E+0	1.182355E+0	1.273314E+0	1.204146E+0	1.289114E+0	1.329897E+0	1.175088E+0	1.221394E+0	1.273987E+0	1.276028E+0	1.226113E+0	1.246739E+0	1.296882E+0	1.218974E+0	1.214952E+0	1.195988E+0	1.290170E+0	1.250408E+0	1.151188E+0	1.242912E+0	1.294100E+0	1.268325E+0	1.213861E+0	1.274201E+0	1.192737E+0	1.244666E+0	1.195951E+0	1.268443E+0	1.250809E+0	1.296280E+0	1.259528E+0	1.254639E+0	1.259946E+0	1.218014E+0	1.197524E+0	1.185043E+0	1.250934E+0	1.309425E+0	1.230063E+0	1.244467E+0	1.201023E+0	1.294481E+0	1.259342E+0	1.297280E+0	1.236166E+0	1.269947E+0	1.268314E+0	1.251204E+0	1.252597E+0	1.240073E+0	1.255227E+0	1.276974E+0	1.282682E+0	1.235091E+0	1.301889E+0	1.274344E+0	1.270281E+0	1.289764E+0
5.437640E+2	1.405237E+0	1.501476E+0	1.432176E+0	1.418101E+0	1.396372E+0	1.401586E+0	1.347476E+0	1.436171E+0	1.434038E+0	1.422715E+0	1.430397E+0	1.398400E+0	1.385928E+0	1.416732E+0	1.449491E+0	1.354986E+0	1.497057E+0	1.450560E+0	1.405112E+0	1.483997E+0	1.473980E+0	1.371264E+0	1.417145E+0	1.375253E+0	1.484837E+0	1.412524E+0	1.437148E+0	1.403124E+0	1.430406E+0	1.387094E+0	1.386395E+0	1.458803E+0	1.432230E+0	1.462293E+0	1.386313E+0	1.422928E+0	1.416410E+0	1.391684E+0	1.444527E+0	1.475463E+0	1.369539E+0	1.424669E+0	1.386192E+0	1.359149E+0	1.404650E+0	1.397981E+0	1.322986E+0	1.474182E+0	1.486168E+0	1.445285E+0	1.390311E+0	1.428839E+0	1.371288E+0	1.423124E+0	1.419904E+0	1.452524E+0	1.419692E+0	1.413590E+0	1.374272E+0	1.457027E+0	1.428550E+0	1.319848E+0	1.305952E+0	1.368308E+0	1.475544E+0	1.360040E+0	1.402791E+0	1.422600E+0	1.408828E+0	1.362758E+0	1.373897E+0	1.397511E+0	1.428144E+0	1.386462E+0	1.446865E+0	1.385716E+0	1.415139E+0	1.373914E+0	1.378610E+0	1.462935E+0	1.378148E+0	1.437457E+0	1.450321E+0	1.431920E+0	1.436799E+0	1.371781E+0	1.474255E+0	1.434565E+0	1.428815E+0	1.426117E+0	1.397541E+0	1.420502E+0	1.397594E+0	1.337357E+0	1.384768E+0	1.362760E+0	1.390092E+0	1.371554E+0	1.420559E+0	1.415673E+0	1.418562E+0	1.367258E+0	1.372315E+0	1.462976E+0	1.392090E+0	1.394158E+0	1.395974E+0	1.464758E+0	1.445592E+0	1.412696E+0	1.447162E+0	1.392393E+0	1.403367E+0	1.343070E+0	1.466536E+0	1.407913E+0	1.414382E+0	1.401198E+0	1.438463E+0	1.437551E+0	1.330488E+0	1.439912E+0	1.400855E+0	1.468922E+0	1.376754E+0	1.411968E+0	1.426809E+0	1.377726E+0	1.428939E+0	1.377685E+0	1.396177E+0	1.373170E+0	1.408987E+0	1.390415E+0	1.390327E+0	1.403086E+0	1.485215E+0	1.359643E+0	1.374652E+0	1.396634E+0	1.409531E+0	1.364375E+0	1.356682E+0	1.376469E+0	1.413509E+0	1.389072E+0	1.370148E+0	1.357753E+0	1.440887E+0	1.416800E+0	1.421313E+0	1.411580E+0	1.424180E+0	1.436118E+0	1.374528E+0	1.434073E+0	1.325714E+0	1.356730E+0	1.359958E+0	1.418114E+0	1.430341E+0	1.360114E+0	1.345567E+0	1.420905E+0	1.291358E+0
5.440220E+2	1.448491E+0	1.637576E+0	1.531671E+0	1.559513E+0	1.502435E+0	1.456314E+0	1.478218E+0	1.588179E+0	1.498334E+0	1.501786E+0	1.538562E+0	1.516197E+0	1.535547E+0	1.535937E+0	1.497534E+0	1.451634E+0	1.570306E+0	1.532897E+0	1.530527E+0	1.520154E+0	1.499782E+0	1.505433E+0	1.482397E+0	1.526279E+0	1.527333E+0	1.528230E+0	1.563368E+0	1.528282E+0	1.520608E+0	1.495083E+0	1.570533E+0	1.574261E+0	1.478861E+0	1.506962E+0	1.542404E+0	1.556129E+0	1.551466E+0	1.525494E+0	1.511678E+0	1.529273E+0	1.525251E+0	1.524655E+0	1.472686E+0	1.601910E+0	1.519326E+0	1.529510E+0	1.487663E+0	1.548353E+0	1.628091E+0	1.546518E+0	1.514991E+0	1.598541E+0	1.488339E+0	1.511280E+0	1.462852E+0	1.587129E+0	1.470759E+0	1.536979E+0	1.446067E+0	1.503814E+0	1.553472E+0	1.494810E+0	1.413486E+0	1.526335E+0	1.498385E+0	1.516082E+0	1.495240E+0	1.504305E+0	1.461141E+0	1.488670E+0	1.452834E+0	1.601137E+0	1.540961E+0	1.504740E+0	1.536393E+0	1.560509E+0	1.611439E+0	1.486914E+0	1.494913E+0	1.514619E+0	1.470143E+0	1.475515E+0	1.497779E+0	1.538907E+0	1.456623E+0	1.470332E+0	1.583919E+0	1.573051E+0	1.527057E+0	1.481540E+0	1.509676E+0	1.538111E+0	1.532606E+0	1.469521E+0	1.450124E+0	1.497415E+0	1.500042E+0	1.417267E+0	1.570497E+0	1.441642E+0	1.506961E+0	1.519921E+0	1.507431E+0	1.456821E+0	1.567196E+0	1.463163E+0	1.466305E+0	1.597568E+0	1.513048E+0	1.453436E+0	1.500612E+0	1.506732E+0	1.514715E+0	1.370468E+0	1.511151E+0	1.519735E+0	1.488095E+0	1.453541E+0	1.511611E+0	1.544378E+0	1.530418E+0	1.482123E+0	1.500336E+0	1.514659E+0	1.505967E+0	1.467161E+0	1.491614E+0	1.504576E+0	1.562552E+0	1.532307E+0	1.463780E+0	1.535231E+0	1.522570E+0	1.473198E+0	1.527711E+0	1.513510E+0	1.472867E+0	1.464777E+0	1.455083E+0	1.512166E+0	1.526558E+0	1.425963E+0	1.525463E+0	1.506993E+0	1.506456E+0	1.471289E+0	1.498086E+0	1.472639E+0	1.470759E+0	1.443098E+0	1.498666E+0	1.517556E+0	1.522078E+0	1.460342E+0	1.454906E+0	1.575527E+0	1.537656E+0	1.468590E+0	1.483018E+0	1.473315E+0	1.440821E+0	1.420233E+0	1.511947E+0	1.688093E+0	1.480410E+0
5.442750E+2	1.562017E+0	1.584864E+0	1.533010E+0	1.539884E+0	1.568484E+0	1.531829E+0	1.453500E+0	1.541524E+0	1.532610E+0	1.521389E+0	1.559671E+0	1.607850E+0	1.552413E+0	1.498344E+0	1.529494E+0	1.563567E+0	1.579965E+0	1.487966E+0	1.525977E+0	1.535094E+0	1.541924E+0	1.503194E+0	1.480458E+0	1.475782E+0	1.534752E+0	1.498001E+0	1.524421E+0	1.543939E+0	1.512087E+0	1.515708E+0	1.498723E+0	1.568977E+0	1.538229E+0	1.550457E+0	1.522569E+0	1.469640E+0	1.515759E+0	1.573135E+0	1.508300E+0	1.573932E+0	1.545292E+0	1.515299E+0	1.559144E+0	1.581884E+0	1.505048E+0	1.513310E+0	1.553277E+0	1.551153E+0	1.565182E+0	1.576152E+0	1.513886E+0	1.515060E+0	1.537771E+0	1.574592E+0	1.549631E+0	1.576413E+0	1.482492E+0	1.547524E+0	1.453037E+0	1.543058E+0	1.563618E+0	1.571408E+0	1.444306E+0	1.532857E+0	1.559020E+0	1.494532E+0	1.511028E+0	1.555874E+0	1.488722E+0	1.518172E+0	1.484895E+0	1.560733E+0	1.550243E+0	1.524309E+0	1.518905E+0	1.560183E+0	1.510844E+0	1.516657E+0	1.493823E+0	1.536707E+0	1.586449E+0	1.495967E+0	1.469028E+0	1.462303E+0	1.567308E+0	1.527985E+0	1.519897E+0	1.558861E+0	1.534035E+0	1.563581E+0	1.477283E+0	1.548687E+0	1.532637E+0	1.571032E+0	1.490726E+0	1.478256E+0	1.569315E+0	1.431541E+0	1.577699E+0	1.494453E+0	1.578802E+0	1.537799E+0	1.466930E+0	1.575762E+0	1.448978E+0	1.451584E+0	1.541466E+0	1.529533E+0	1.549772E+0	1.467376E+0	1.533266E+0	1.522927E+0	1.433155E+0	1.403144E+0	1.465611E+0	1.571139E+0	1.512451E+0	1.478294E+0	1.571253E+0	1.560396E+0	1.518598E+0	1.525940E+0	1.548636E+0	1.523248E+0	1.551891E+0	1.467197E+0	1.534546E+0	1.555816E+0	1.535092E+0	1.421432E+0	1.495203E+0	1.514820E+0	1.522228E+0	1.506305E+0	1.491919E+0	1.542697E+0	1.493524E+0	1.524818E+0	1.490086E+0	1.511714E+0	1.562853E+0	1.490358E+0	1.506258E+0	1.528003E+0	1.547863E+0	1.521746E+0	1.495168E+0	1.468529E+0	1.507850E+0	1.412250E+0	1.521313E+0	1.498861E+0	1.513833E+0	1.458514E+0	1.451481E+0	1.575440E+0	1.432432E+0	1.485663E+0	1.488050E+0	1.426975E+0	1.458677E+0	1.474885E+0	1.480674E+0	1.546547E+0	1.463503E+0
5.445130E+2	1.469665E+0	1.540976E+0	1.524919E+0	1.459274E+0	1.482179E+0	1.484451E+0	1.503129E+0	1.645240E+0	1.498596E+0	1.509818E+0	1.500417E+0	1.573999E+0	1.501019E+0	1.507055E+0	1.478711E+0	1.535912E+0	1.602625E+0	1.480017E+0	1.457932E+0	1.467209E+0	1.475987E+0	1.458273E+0	1.486156E+0	1.522946E+0	1.542750E+0	1.534192E+0	1.528136E+0	1.484724E+0	1.498821E+0	1.471374E+0	1.406922E+0	1.544934E+0	1.516256E+0	1.500385E+0	1.475366E+0	1.527244E+0	1.508785E+0	1.490345E+0	1.494059E+0	1.547889E+0	1.529481E+0	1.515423E+0	1.514829E+0	1.459073E+0	1.463533E+0	1.481161E+0	1.436734E+0	1.575524E+0	1.547908E+0	1.465120E+0	1.553848E+0	1.519409E+0	1.514461E+0	1.501828E+0	1.512465E+0	1.509963E+0	1.513982E+0	1.467322E+0	1.451742E+0	1.502787E+0	1.532242E+0	1.488235E+0	1.447707E+0	1.531257E+0	1.545989E+0	1.483467E+0	1.434732E+0	1.558810E+0	1.508400E+0	1.450269E+0	1.474148E+0	1.555801E+0	1.470596E+0	1.524278E+0	1.451756E+0	1.533388E+0	1.555990E+0	1.442818E+0	1.504399E+0	1.501682E+0	1.495821E+0	1.482565E+0	1.500159E+0	1.575090E+0	1.498021E+0	1.443478E+0	1.514182E+0	1.502146E+0	1.541162E+0	1.453705E+0	1.528332E+0	1.482298E+0	1.504672E+0	1.457988E+0	1.478911E+0	1.496335E+0	1.500008E+0	1.419903E+0	1.499291E+0	1.478065E+0	1.531292E+0	1.503078E+0	1.456110E+0	1.454945E+0	1.533258E+0	1.449208E+0	1.473865E+0	1.540805E+0	1.449139E+0	1.394566E+0	1.501972E+0	1.507122E+0	1.563962E+0	1.372224E+0	1.433033E+0	1.492656E+0	1.531453E+0	1.494662E+0	1.497736E+0	1.546360E+0	1.437468E+0	1.492441E+0	1.493145E+0	1.493267E+0	1.559075E+0	1.445185E+0	1.551671E+0	1.479613E+0	1.455929E+0	1.419184E+0	1.480238E+0	1.458724E+0	1.550430E+0	1.457025E+0	1.515013E+0	1.494059E+0	1.450674E+0	1.453694E+0	1.485473E+0	1.527262E+0	1.481785E+0	1.446470E+0	1.452308E+0	1.505207E+0	1.510946E+0	1.470832E+0	1.473970E+0	1.398505E+0	1.489387E+0	1.457803E+0	1.453287E+0	1.494404E+0	1.547140E+0	1.457049E+0	1.419459E+0	1.464872E+0	1.464276E+0	1.450909E+0	1.458992E+0	1.434588E+0	1.443725E+0	1.445077E+0	1.384767E+0	1.504105E+0	1.444756E+0
5.447660E+2	1.517105E+0	1.624403E+0	1.505551E+0	1.537364E+0	1.482884E+0	1.512964E+0	1.497462E+0	1.542161E+0	1.461020E+0	1.500529E+0	1.500891E+0	1.624023E+0	1.468537E+0	1.541128E+0	1.512149E+0	1.469995E+0	1.538188E+0	1.411533E+0	1.492042E+0	1.462303E+0	1.516947E+0	1.481106E+0	1.548155E+0	1.524381E+0	1.522444E+0	1.515036E+0	1.478602E+0	1.494215E+0	1.550250E+0	1.435585E+0	1.526297E+0	1.524259E+0	1.469348E+0	1.506131E+0	1.455952E+0	1.541246E+0	1.484195E+0	1.491744E+0	1.516553E+0	1.566958E+0	1.568701E+0	1.456870E+0	1.459633E+0	1.456349E+0	1.536023E+0	1.427402E+0	1.500552E+0	1.532001E+0	1.498117E+0	1.470120E+0	1.574280E+0	1.484970E+0	1.518418E+0	1.513403E+0	1.481085E+0	1.561024E+0	1.458408E+0	1.598771E+0	1.438205E+0	1.497122E+0	1.461548E+0	1.499441E+0	1.426892E+0	1.494726E+0	1.507837E+0	1.459024E+0	1.453718E+0	1.585230E+0	1.438379E+0	1.447301E+0	1.537312E+0	1.531515E+0	1.497861E+0	1.503789E+0	1.496145E+0	1.478562E+0	1.511576E+0	1.481034E+0	1.474271E+0	1.478973E+0	1.509746E+0	1.486356E+0	1.401338E+0	1.473807E+0	1.538577E+0	1.479838E+0	1.502618E+0	1.542233E+0	1.510442E+0	1.500464E+0	1.513263E+0	1.534876E+0	1.490469E+0	1.496537E+0	1.428929E+0	1.459078E+0	1.524231E+0	1.447081E+0	1.491333E+0	1.494808E+0	1.526507E+0	1.475030E+0	1.450056E+0	1.459353E+0	1.455704E+0	1.495651E+0	1.479286E+0	1.523338E+0	1.471367E+0	1.489925E+0	1.481995E+0	1.520936E+0	1.476522E+0	1.368776E+0	1.485194E+0	1.419116E+0	1.408340E+0	1.556034E+0	1.490026E+0	1.498264E+0	1.411373E+0	1.475434E+0	1.453589E+0	1.521377E+0	1.472169E+0	1.412803E+0	1.473968E+0	1.488121E+0	1.509147E+0	1.444667E+0	1.455117E+0	1.484669E+0	1.460143E+0	1.475356E+0	1.454316E+0	1.530508E+0	1.483270E+0	1.524469E+0	1.509056E+0	1.461166E+0	1.443046E+0	1.454456E+0	1.473732E+0	1.477671E+0	1.592748E+0	1.426793E+0	1.436018E+0	1.494117E+0	1.506911E+0	1.434862E+0	1.503293E+0	1.486910E+0	1.467085E+0	1.431993E+0	1.419321E+0	1.541621E+0	1.497337E+0	1.461837E+0	1.455432E+0	1.467123E+0	1.445966E+0	1.426708E+0	1.395928E+0	1.561829E+0	1.341540E+0
5.450090E+2	1.440981E+0	1.630406E+0	1.549588E+0	1.521840E+0	1.504003E+0	1.531222E+0	1.486820E+0	1.482591E+0	1.487411E+0	1.537378E+0	1.469543E+0	1.568303E+0	1.562401E+0	1.461986E+0	1.528273E+0	1.528973E+0	1.550903E+0	1.441404E+0	1.470842E+0	1.511378E+0	1.505206E+0	1.407369E+0	1.491593E+0	1.473283E+0	1.473997E+0	1.470561E+0	1.490585E+0	1.536972E+0	1.508696E+0	1.434197E+0	1.447374E+0	1.519957E+0	1.511244E+0	1.507077E+0	1.452148E+0	1.536990E+0	1.504325E+0	1.510928E+0	1.526928E+0	1.502651E+0	1.482558E+0	1.500463E+0	1.510015E+0	1.554853E+0	1.491867E+0	1.475978E+0	1.441026E+0	1.469633E+0	1.511549E+0	1.505100E+0	1.479218E+0	1.555647E+0	1.524230E+0	1.497374E+0	1.474792E+0	1.571096E+0	1.442747E+0	1.525834E+0	1.461714E+0	1.558513E+0	1.468664E+0	1.449823E+0	1.440385E+0	1.497696E+0	1.583004E+0	1.443097E+0	1.479456E+0	1.539324E+0	1.463512E+0	1.483549E+0	1.482908E+0	1.466149E+0	1.538490E+0	1.454359E+0	1.475903E+0	1.492786E+0	1.578793E+0	1.468979E+0	1.503560E+0	1.496927E+0	1.484183E+0	1.493933E+0	1.537872E+0	1.485066E+0	1.497193E+0	1.530896E+0	1.509657E+0	1.478416E+0	1.472328E+0	1.512347E+0	1.461407E+0	1.509377E+0	1.507939E+0	1.366282E+0	1.508285E+0	1.485850E+0	1.466273E+0	1.508084E+0	1.515864E+0	1.526782E+0	1.472183E+0	1.524082E+0	1.474815E+0	1.480694E+0	1.514141E+0	1.485021E+0	1.423881E+0	1.542110E+0	1.498740E+0	1.485563E+0	1.523062E+0	1.421433E+0	1.529018E+0	1.384259E+0	1.441728E+0	1.535220E+0	1.486798E+0	1.477991E+0	1.468545E+0	1.509227E+0	1.410066E+0	1.456554E+0	1.468669E+0	1.520697E+0	1.552464E+0	1.465998E+0	1.497742E+0	1.478288E+0	1.476274E+0	1.421353E+0	1.470581E+0	1.552800E+0	1.488952E+0	1.445965E+0	1.443396E+0	1.586120E+0	1.424069E+0	1.528938E+0	1.515132E+0	1.551938E+0	1.472880E+0	1.479984E+0	1.413632E+0	1.493525E+0	1.489076E+0	1.432754E+0	1.498612E+0	1.421027E+0	1.549197E+0	1.450843E+0	1.411583E+0	1.488570E+0	1.495310E+0	1.408228E+0	1.391521E+0	1.528630E+0	1.472708E+0	1.396893E+0	1.428721E+0	1.518440E+0	1.434361E+0	1.455040E+0	1.448678E+0	1.600757E+0	1.456989E+0
5.452580E+2	1.344028E+0	1.391370E+0	1.386658E+0	1.396324E+0	1.366311E+0	1.322540E+0	1.360264E+0	1.337977E+0	1.352115E+0	1.315739E+0	1.347998E+0	1.409254E+0	1.366424E+0	1.351439E+0	1.377355E+0	1.355713E+0	1.368097E+0	1.341557E+0	1.365194E+0	1.359280E+0	1.384167E+0	1.359280E+0	1.377390E+0	1.451111E+0	1.352736E+0	1.367029E+0	1.364577E+0	1.406547E+0	1.331302E+0	1.407402E+0	1.359508E+0	1.393742E+0	1.378637E+0	1.365824E+0	1.353082E+0	1.403066E+0	1.436800E+0	1.412105E+0	1.371095E+0	1.365395E+0	1.368386E+0	1.361014E+0	1.369495E+0	1.396428E+0	1.363693E+0	1.330009E+0	1.358334E+0	1.361916E+0	1.374716E+0	1.274210E+0	1.385602E+0	1.371112E+0	1.332484E+0	1.346969E+0	1.308753E+0	1.408047E+0	1.341199E+0	1.405153E+0	1.365542E+0	1.431614E+0	1.382075E+0	1.367140E+0	1.281997E+0	1.331371E+0	1.394140E+0	1.382945E+0	1.381236E+0	1.312964E+0	1.317073E+0	1.367389E+0	1.373272E+0	1.429328E+0	1.386216E+0	1.321385E+0	1.363225E+0	1.327456E+0	1.410514E+0	1.394767E+0	1.367901E+0	1.338569E+0	1.383115E+0	1.322763E+0	1.316215E+0	1.372281E+0	1.403715E+0	1.335824E+0	1.371692E+0	1.367632E+0	1.401625E+0	1.357868E+0	1.301104E+0	1.368178E+0	1.335921E+0	1.319114E+0	1.333115E+0	1.372477E+0	1.375043E+0	1.309805E+0	1.357681E+0	1.320570E+0	1.329368E+0	1.342334E+0	1.297044E+0	1.344083E+0	1.418328E+0	1.314152E+0	1.381228E+0	1.502422E+0	1.332911E+0	1.359429E+0	1.304751E+0	1.411003E+0	1.351937E+0	1.275387E+0	1.335612E+0	1.379067E+0	1.403564E+0	1.350947E+0	1.360119E+0	1.383947E+0	1.315107E+0	1.382300E+0	1.360390E+0	1.414814E+0	1.382637E+0	1.320550E+0	1.321426E+0	1.362623E+0	1.386791E+0	1.316774E+0	1.393364E+0	1.369043E+0	1.382782E+0	1.379169E+0	1.395109E+0	1.349117E+0	1.324300E+0	1.338715E+0	1.369998E+0	1.326758E+0	1.457202E+0	1.295391E+0	1.349753E+0	1.370819E+0	1.410986E+0	1.314039E+0	1.357735E+0	1.350597E+0	1.377050E+0	1.295884E+0	1.297464E+0	1.360435E+0	1.399027E+0	1.289184E+0	1.247754E+0	1.364384E+0	1.358649E+0	1.320847E+0	1.312826E+0	1.342932E+0	1.348940E+0	1.287318E+0	1.333256E+0	1.439209E+0	1.365726E+0
5.455130E+2	1.357381E+0	1.447626E+0	1.369056E+0	1.391287E+0	1.445637E+0	1.380587E+0	1.358589E+0	1.380524E+0	1.364630E+0	1.354254E+0	1.348801E+0	1.364857E+0	1.449281E+0	1.424764E+0	1.393493E+0	1.363463E+0	1.418768E+0	1.367987E+0	1.356989E+0	1.363636E+0	1.388470E+0	1.379376E+0	1.339516E+0	1.385140E+0	1.384938E+0	1.316658E+0	1.379410E+0	1.389283E+0	1.394824E+0	1.368515E+0	1.374301E+0	1.356667E+0	1.376857E+0	1.360606E+0	1.389678E+0	1.439625E+0	1.409913E+0	1.364053E+0	1.362313E+0	1.443701E+0	1.353301E+0	1.425367E+0	1.360842E+0	1.409952E+0	1.357693E+0	1.407309E+0	1.399245E+0	1.418616E+0	1.439562E+0	1.389418E+0	1.387909E+0	1.381697E+0	1.376201E+0	1.405392E+0	1.375362E+0	1.465441E+0	1.395651E+0	1.369117E+0	1.303649E+0	1.376816E+0	1.430783E+0	1.383939E+0	1.369442E+0	1.380460E+0	1.415733E+0	1.372380E+0	1.318927E+0	1.346472E+0	1.329735E+0	1.333787E+0	1.361528E+0	1.432929E+0	1.372801E+0	1.336364E+0	1.371798E+0	1.370924E+0	1.487292E+0	1.321060E+0	1.426318E+0	1.399982E+0	1.367566E+0	1.328923E+0	1.398446E+0	1.370513E+0	1.419699E+0	1.363900E+0	1.424222E+0	1.373799E+0	1.402856E+0	1.373085E+0	1.421133E+0	1.361720E+0	1.348528E+0	1.361206E+0	1.391490E+0	1.392832E+0	1.446800E+0	1.307384E+0	1.445372E+0	1.320592E+0	1.337347E+0	1.379042E+0	1.364246E+0	1.353893E+0	1.404116E+0	1.345930E+0	1.351756E+0	1.426535E+0	1.396901E+0	1.333920E+0	1.393160E+0	1.347033E+0	1.360820E+0	1.298042E+0	1.381289E+0	1.402506E+0	1.341608E+0	1.393284E+0	1.350964E+0	1.438427E+0	1.328749E+0	1.387177E+0	1.349745E+0	1.405343E+0	1.395008E+0	1.325930E+0	1.410204E+0	1.374849E+0	1.356198E+0	1.338110E+0	1.363010E+0	1.364974E+0	1.391742E+0	1.376429E+0	1.363201E+0	1.386128E+0	1.368504E+0	1.276812E+0	1.356011E+0	1.370916E+0	1.330632E+0	1.318866E+0	1.394101E+0	1.359536E+0	1.436028E+0	1.352062E+0	1.384301E+0	1.355855E+0	1.423176E+0	1.365787E+0	1.365090E+0	1.390478E+0	1.329772E+0	1.384352E+0	1.255453E+0	1.400100E+0	1.401234E+0	1.382810E+0	1.364383E+0	1.424215E+0	1.329459E+0	1.347550E+0	1.352965E+0	1.497170E+0	1.370791E+0
5.457670E+2	1.301554E+0	1.363382E+0	1.347144E+0	1.335807E+0	1.348874E+0	1.246277E+0	1.274917E+0	1.317893E+0	1.262224E+0	1.326847E+0	1.303753E+0	1.350264E+0	1.303178E+0	1.318975E+0	1.342199E+0	1.304578E+0	1.373251E+0	1.293426E+0	1.296869E+0	1.293583E+0	1.289970E+0	1.288777E+0	1.300941E+0	1.255735E+0	1.367121E+0	1.316324E+0	1.314663E+0	1.323541E+0	1.301784E+0	1.265200E+0	1.348080E+0	1.312463E+0	1.292318E+0	1.287187E+0	1.298968E+0	1.284174E+0	1.329682E+0	1.336297E+0	1.333652E+0	1.248507E+0	1.335648E+0	1.279911E+0	1.333514E+0	1.294924E+0	1.311036E+0	1.295466E+0	1.251471E+0	1.328863E+0	1.354628E+0	1.302147E+0	1.241672E+0	1.341244E+0	1.340503E+0	1.299439E+0	1.292045E+0	1.263404E+0	1.294157E+0	1.338663E+0	1.268908E+0	1.322538E+0	1.295698E+0	1.272653E+0	1.248503E+0	1.302786E+0	1.311787E+0	1.247927E+0	1.334949E+0	1.358623E+0	1.299460E+0	1.240022E+0	1.255799E+0	1.285054E+0	1.361232E+0	1.285309E+0	1.296284E+0	1.307557E+0	1.408417E+0	1.284539E+0	1.237073E+0	1.310962E+0	1.330396E+0	1.331609E+0	1.277894E+0	1.333392E+0	1.323772E+0	1.254737E+0	1.311290E+0	1.295227E+0	1.336187E+0	1.271522E+0	1.294101E+0	1.359703E+0	1.281215E+0	1.324810E+0	1.268272E+0	1.265289E+0	1.275530E+0	1.295290E+0	1.337737E+0	1.268629E+0	1.331472E+0	1.274982E+0	1.265127E+0	1.299685E+0	1.286171E+0	1.347783E+0	1.260143E+0	1.345266E+0	1.242191E+0	1.297854E+0	1.309785E+0	1.321453E+0	1.354770E+0	1.262194E+0	1.319099E+0	1.336764E+0	1.309222E+0	1.258449E+0	1.330458E+0	1.351597E+0	1.254033E+0	1.294812E+0	1.256736E+0	1.227302E+0	1.281532E+0	1.361224E+0	1.289253E+0	1.348051E+0	1.333920E+0	1.286094E+0	1.319307E+0	1.322081E+0	1.254421E+0	1.344548E+0	1.310674E+0	1.334497E+0	1.263676E+0	1.291901E+0	1.276068E+0	1.313787E+0	1.244243E+0	1.259238E+0	1.254235E+0	1.348409E+0	1.339248E+0	1.266842E+0	1.376826E+0	1.293428E+0	1.362827E+0	1.288319E+0	1.359990E+0	1.264761E+0	1.340727E+0	1.233404E+0	1.275435E+0	1.312958E+0	1.238765E+0	1.203399E+0	1.262919E+0	1.293487E+0	1.286561E+0	1.257765E+0	1.290195E+0	1.333056E+0	1.268668E+0
5.460060E+2	1.238990E+0	1.315081E+0	1.199829E+0	1.292151E+0	1.229958E+0	1.288798E+0	1.201525E+0	1.255267E+0	1.250376E+0	1.244637E+0	1.246856E+0	1.248258E+0	1.232596E+0	1.251293E+0	1.258254E+0	1.241051E+0	1.297274E+0	1.236565E+0	1.273534E+0	1.206136E+0	1.215118E+0	1.222568E+0	1.238279E+0	1.219157E+0	1.278435E+0	1.215274E+0	1.188968E+0	1.260575E+0	1.287485E+0	1.225950E+0	1.241832E+0	1.230715E+0	1.221809E+0	1.241162E+0	1.233664E+0	1.310102E+0	1.285657E+0	1.235894E+0	1.278102E+0	1.211988E+0	1.269656E+0	1.250880E+0	1.284998E+0	1.295799E+0	1.209564E+0	1.224733E+0	1.246872E+0	1.280001E+0	1.188058E+0	1.241537E+0	1.206654E+0	1.214941E+0	1.295779E+0	1.242557E+0	1.227207E+0	1.266292E+0	1.238757E+0	1.306038E+0	1.216233E+0	1.190118E+0	1.250549E+0	1.208840E+0	1.186471E+0	1.203918E+0	1.342058E+0	1.267853E+0	1.257206E+0	1.239855E+0	1.259239E+0	1.198664E+0	1.246184E+0	1.252552E+0	1.276278E+0	1.216313E+0	1.168868E+0	1.243301E+0	1.316735E+0	1.195111E+0	1.189119E+0	1.288432E+0	1.222248E+0	1.216571E+0	1.245520E+0	1.289390E+0	1.206638E+0	1.223304E+0	1.255464E+0	1.258064E+0	1.226593E+0	1.236750E+0	1.243926E+0	1.241872E+0	1.265758E+0	1.162382E+0	1.193441E+0	1.195378E+0	1.264374E+0	1.162824E+0	1.210692E+0	1.229789E+0	1.225259E+0	1.243948E+0	1.232264E+0	1.252485E+0	1.281367E+0	1.241471E+0	1.206599E+0	1.262587E+0	1.245227E+0	1.227246E+0	1.251523E+0	1.215246E+0	1.268751E+0	1.242394E+0	1.197460E+0	1.255360E+0	1.233257E+0	1.238405E+0	1.222972E+0	1.316252E+0	1.192846E+0	1.244155E+0	1.202998E+0	1.280489E+0	1.235265E+0	1.229557E+0	1.319422E+0	1.266601E+0	1.249473E+0	1.178776E+0	1.250495E+0	1.229119E+0	1.226855E+0	1.229671E+0	1.246749E+0	1.271527E+0	1.211068E+0	1.202070E+0	1.235170E+0	1.299151E+0	1.248466E+0	1.185691E+0	1.219419E+0	1.284994E+0	1.297973E+0	1.218358E+0	1.252471E+0	1.249521E+0	1.263000E+0	1.179285E+0	1.279081E+0	1.217374E+0	1.259769E+0	1.236157E+0	1.175183E+0	1.241276E+0	1.213331E+0	1.242743E+0	1.238943E+0	1.272677E+0	1.144291E+0	1.144310E+0	1.142087E+0	1.270404E+0	1.135055E+0
5.467600E+2	1.204457E+0	1.225754E+0	1.244704E+0	1.233938E+0	1.198595E+0	1.255125E+0	1.215220E+0	1.222756E+0	1.214150E+0	1.211712E+0	1.242636E+0	1.216769E+0	1.245758E+0	1.278167E+0	1.210421E+0	1.233842E+0	1.276480E+0	1.247974E+0	1.201207E+0	1.178900E+0	1.236412E+0	1.231213E+0	1.229956E+0	1.208528E+0	1.215708E+0	1.202451E+0	1.171651E+0	1.209259E+0	1.179376E+0	1.182817E+0	1.219707E+0	1.278715E+0	1.239042E+0	1.229160E+0	1.228069E+0	1.249565E+0	1.225765E+0	1.198347E+0	1.171504E+0	1.176361E+0	1.194437E+0	1.224513E+0	1.245735E+0	1.166594E+0	1.195168E+0	1.195026E+0	1.190458E+0	1.251236E+0	1.296672E+0	1.243681E+0	1.255012E+0	1.187596E+0	1.176715E+0	1.195315E+0	1.222032E+0	1.183429E+0	1.181323E+0	1.239190E+0	1.171424E+0	1.156452E+0	1.177484E+0	1.195702E+0	1.145018E+0	1.224703E+0	1.254953E+0	1.205767E+0	1.179418E+0	1.201531E+0	1.216793E+0	1.148404E+0	1.205083E+0	1.216560E+0	1.276104E+0	1.217355E+0	1.204557E+0	1.191239E+0	1.208426E+0	1.185679E+0	1.186819E+0	1.248146E+0	1.213171E+0	1.157936E+0	1.220620E+0	1.194014E+0	1.238423E+0	1.227650E+0	1.236466E+0	1.203915E+0	1.217101E+0	1.212585E+0	1.170079E+0	1.256820E+0	1.178778E+0	1.207184E+0	1.192482E+0	1.279542E+0	1.237600E+0	1.213219E+0	1.201308E+0	1.295378E+0	1.194239E+0	1.196245E+0	1.227291E+0	1.229588E+0	1.213927E+0	1.143146E+0	1.155068E+0	1.316800E+0	1.240355E+0	1.216667E+0	1.230437E+0	1.242220E+0	1.205729E+0	1.159899E+0	1.217353E+0	1.203065E+0	1.223898E+0	1.250460E+0	1.211625E+0	1.190629E+0	1.190672E+0	1.210095E+0	1.144052E+0	1.214815E+0	1.227403E+0	1.160768E+0	1.206074E+0	1.262294E+0	1.252970E+0	1.147920E+0	1.194108E+0	1.221664E+0	1.213502E+0	1.189164E+0	1.201099E+0	1.218134E+0	1.233007E+0	1.182041E+0	1.191711E+0	1.212349E+0	1.213502E+0	1.179638E+0	1.166133E+0	1.193413E+0	1.264350E+0	1.242352E+0	1.172276E+0	1.219622E+0	1.171787E+0	1.170602E+0	1.220490E+0	1.257959E+0	1.283505E+0	1.139551E+0	1.183974E+0	1.271369E+0	1.148270E+0	1.178223E+0	1.214781E+0	1.218927E+0	1.189881E+0	1.225376E+0	1.239825E+0	1.289833E+0	1.178832E+0
5.475280E+2	1.249766E+0	1.291682E+0	1.286162E+0	1.258038E+0	1.258215E+0	1.239822E+0	1.275032E+0	1.239722E+0	1.275449E+0	1.338625E+0	1.315089E+0	1.271999E+0	1.298107E+0	1.236685E+0	1.305553E+0	1.272090E+0	1.282862E+0	1.325007E+0	1.238500E+0	1.330630E+0	1.274049E+0	1.263447E+0	1.251785E+0	1.228490E+0	1.275821E+0	1.261199E+0	1.229853E+0	1.296822E+0	1.290154E+0	1.279008E+0	1.240963E+0	1.317007E+0	1.292558E+0	1.303799E+0	1.308748E+0	1.261898E+0	1.317419E+0	1.277411E+0	1.236505E+0	1.261078E+0	1.257108E+0	1.299369E+0	1.316629E+0	1.238921E+0	1.304711E+0	1.270273E+0	1.237791E+0	1.305799E+0	1.252219E+0	1.252570E+0	1.273133E+0	1.283568E+0	1.220985E+0	1.274182E+0	1.276812E+0	1.264402E+0	1.266701E+0	1.249786E+0	1.183201E+0	1.274027E+0	1.296335E+0	1.252492E+0	1.260956E+0	1.258826E+0	1.253669E+0	1.296777E+0	1.164272E+0	1.257621E+0	1.200126E+0	1.214106E+0	1.295636E+0	1.293113E+0	1.282764E+0	1.236802E+0	1.328981E+0	1.249705E+0	1.307459E+0	1.257255E+0	1.269779E+0	1.262687E+0	1.318024E+0	1.291527E+0	1.273293E+0	1.255931E+0	1.260701E+0	1.273731E+0	1.326870E+0	1.253462E+0	1.290645E+0	1.234756E+0	1.230124E+0	1.294747E+0	1.249182E+0	1.269040E+0	1.272306E+0	1.244810E+0	1.290736E+0	1.223015E+0	1.312530E+0	1.247718E+0	1.257357E+0	1.274125E+0	1.221770E+0	1.281844E+0	1.248587E+0	1.229866E+0	1.248995E+0	1.334453E+0	1.311232E+0	1.260920E+0	1.355291E+0	1.342485E+0	1.285757E+0	1.177169E+0	1.282123E+0	1.247174E+0	1.220191E+0	1.228423E+0	1.262577E+0	1.278529E+0	1.248983E+0	1.243484E+0	1.254664E+0	1.282450E+0	1.204837E+0	1.221257E+0	1.183280E+0	1.230864E+0	1.291859E+0	1.218232E+0	1.304105E+0	1.282046E+0	1.304537E+0	1.320418E+0	1.299421E+0	1.269502E+0	1.260595E+0	1.298894E+0	1.249052E+0	1.263055E+0	1.319503E+0	1.250866E+0	1.261969E+0	1.235913E+0	1.321793E+0	1.289522E+0	1.234853E+0	1.228572E+0	1.248990E+0	1.169958E+0	1.295767E+0	1.225304E+0	1.308954E+0	1.217014E+0	1.228603E+0	1.280863E+0	1.241246E+0	1.193955E+0	1.205243E+0	1.262446E+0	1.205744E+0	1.231482E+0	1.265547E+0	1.343195E+0	1.180422E+0
5.482600E+2	1.364715E+0	1.422128E+0	1.344375E+0	1.336276E+0	1.405810E+0	1.324766E+0	1.367258E+0	1.395507E+0	1.405952E+0	1.335622E+0	1.399639E+0	1.379660E+0	1.315327E+0	1.426029E+0	1.361452E+0	1.337808E+0	1.394086E+0	1.338724E+0	1.339291E+0	1.409966E+0	1.392557E+0	1.337341E+0	1.316838E+0	1.332333E+0	1.450480E+0	1.403577E+0	1.332894E+0	1.379268E+0	1.336515E+0	1.294648E+0	1.339515E+0	1.318203E+0	1.388922E+0	1.386847E+0	1.371087E+0	1.362488E+0	1.373059E+0	1.415456E+0	1.366355E+0	1.450165E+0	1.368473E+0	1.364171E+0	1.384983E+0	1.344803E+0	1.405809E+0	1.337421E+0	1.352005E+0	1.394856E+0	1.443354E+0	1.432264E+0	1.315203E+0	1.371341E+0	1.367683E+0	1.376270E+0	1.420717E+0	1.389055E+0	1.395711E+0	1.362571E+0	1.312233E+0	1.361119E+0	1.380958E+0	1.320972E+0	1.329317E+0	1.338997E+0	1.417181E+0	1.336459E+0	1.390049E+0	1.373668E+0	1.368741E+0	1.342009E+0	1.358902E+0	1.352984E+0	1.313967E+0	1.351000E+0	1.380103E+0	1.353216E+0	1.438602E+0	1.331836E+0	1.346422E+0	1.338027E+0	1.325387E+0	1.333073E+0	1.363882E+0	1.330976E+0	1.417987E+0	1.377121E+0	1.382966E+0	1.385579E+0	1.374859E+0	1.401744E+0	1.344390E+0	1.293418E+0	1.381446E+0	1.344081E+0	1.314890E+0	1.294374E+0	1.377463E+0	1.266837E+0	1.338580E+0	1.410223E+0	1.356904E+0	1.340616E+0	1.335133E+0	1.356877E+0	1.329331E+0	1.336631E+0	1.358216E+0	1.407828E+0	1.402987E+0	1.359499E+0	1.349560E+0	1.418307E+0	1.330252E+0	1.324893E+0	1.402885E+0	1.396541E+0	1.355398E+0	1.373634E+0	1.361773E+0	1.394251E+0	1.335395E+0	1.350353E+0	1.379859E+0	1.355330E+0	1.415730E+0	1.263907E+0	1.371592E+0	1.422287E+0	1.419828E+0	1.319585E+0	1.323484E+0	1.311019E+0	1.325156E+0	1.356249E+0	1.368438E+0	1.338843E+0	1.373432E+0	1.346783E+0	1.332091E+0	1.377274E+0	1.406164E+0	1.315610E+0	1.309268E+0	1.320880E+0	1.337666E+0	1.330994E+0	1.317810E+0	1.358214E+0	1.347505E+0	1.372825E+0	1.353779E+0	1.349507E+0	1.299075E+0	1.331427E+0	1.327143E+0	1.353947E+0	1.296850E+0	1.334782E+0	1.304417E+0	1.288529E+0	1.313931E+0	1.265992E+0	1.351485E+0	1.398081E+0	1.307352E+0
5.490100E+2	1.281125E+0	1.402796E+0	1.276749E+0	1.320738E+0	1.317499E+0	1.318050E+0	1.284572E+0	1.285057E+0	1.346955E+0	1.337348E+0	1.371387E+0	1.307764E+0	1.306891E+0	1.338330E+0	1.247532E+0	1.336201E+0	1.390443E+0	1.320646E+0	1.271694E+0	1.312007E+0	1.300484E+0	1.290503E+0	1.316895E+0	1.265371E+0	1.343718E+0	1.291921E+0	1.345891E+0	1.343719E+0	1.296129E+0	1.324780E+0	1.337671E+0	1.356183E+0	1.385057E+0	1.357736E+0	1.298477E+0	1.347755E+0	1.340847E+0	1.314209E+0	1.320042E+0	1.311344E+0	1.285697E+0	1.295781E+0	1.308313E+0	1.333785E+0	1.332915E+0	1.282871E+0	1.292002E+0	1.315646E+0	1.338481E+0	1.310712E+0	1.311324E+0	1.353950E+0	1.360301E+0	1.368557E+0	1.294867E+0	1.335651E+0	1.258329E+0	1.322088E+0	1.323851E+0	1.267770E+0	1.346112E+0	1.285900E+0	1.288162E+0	1.304376E+0	1.327988E+0	1.307673E+0	1.376563E+0	1.301343E+0	1.289308E+0	1.283663E+0	1.327529E+0	1.332678E+0	1.345808E+0	1.296417E+0	1.254582E+0	1.255428E+0	1.322974E+0	1.278349E+0	1.299436E+0	1.345053E+0	1.344768E+0	1.318694E+0	1.280972E+0	1.270303E+0	1.312731E+0	1.314569E+0	1.335846E+0	1.296114E+0	1.371166E+0	1.300141E+0	1.257836E+0	1.344328E+0	1.396242E+0	1.275646E+0	1.286704E+0	1.313544E+0	1.288986E+0	1.301161E+0	1.332981E+0	1.339890E+0	1.365117E+0	1.278945E+0	1.322751E+0	1.274529E+0	1.320754E+0	1.254480E+0	1.322123E+0	1.348136E+0	1.307655E+0	1.325141E+0	1.339643E+0	1.284461E+0	1.342476E+0	1.177339E+0	1.302409E+0	1.308943E+0	1.308370E+0	1.319729E+0	1.337851E+0	1.298151E+0	1.241389E+0	1.345457E+0	1.234166E+0	1.297124E+0	1.354093E+0	1.256574E+0	1.267599E+0	1.296958E+0	1.306216E+0	1.284264E+0	1.359162E+0	1.267613E+0	1.303321E+0	1.313028E+0	1.315789E+0	1.299908E+0	1.245079E+0	1.274862E+0	1.279469E+0	1.380967E+0	1.326447E+0	1.262238E+0	1.305610E+0	1.357733E+0	1.306717E+0	1.278532E+0	1.286903E+0	1.215432E+0	1.309117E+0	1.266360E+0	1.273598E+0	1.259639E+0	1.310315E+0	1.287620E+0	1.242453E+0	1.316909E+0	1.313575E+0	1.267628E+0	1.294512E+0	1.350184E+0	1.251879E+0	1.253836E+0	1.316459E+0	1.371592E+0	1.197417E+0
5.497520E+2	1.259402E+0	1.306084E+0	1.271445E+0	1.189874E+0	1.199720E+0	1.241450E+0	1.228958E+0	1.266285E+0	1.251326E+0	1.250717E+0	1.265357E+0	1.264938E+0	1.248584E+0	1.283924E+0	1.270605E+0	1.247511E+0	1.262086E+0	1.240179E+0	1.286584E+0	1.246577E+0	1.297241E+0	1.224283E+0	1.225104E+0	1.221507E+0	1.280499E+0	1.199599E+0	1.243052E+0	1.262272E+0	1.180350E+0	1.243724E+0	1.246821E+0	1.234289E+0	1.269072E+0	1.243847E+0	1.228874E+0	1.218542E+0	1.264303E+0	1.272631E+0	1.248133E+0	1.281203E+0	1.242119E+0	1.245465E+0	1.250421E+0	1.273952E+0	1.255039E+0	1.259708E+0	1.247640E+0	1.204292E+0	1.282291E+0	1.214993E+0	1.229020E+0	1.258223E+0	1.216475E+0	1.187850E+0	1.271562E+0	1.251447E+0	1.219785E+0	1.277744E+0	1.241549E+0	1.252638E+0	1.272767E+0	1.220389E+0	1.189131E+0	1.243621E+0	1.292710E+0	1.267188E+0	1.189817E+0	1.213114E+0	1.208869E+0	1.242760E+0	1.240837E+0	1.234895E+0	1.252441E+0	1.229652E+0	1.181416E+0	1.288179E+0	1.304822E+0	1.175932E+0	1.246220E+0	1.208906E+0	1.326285E+0	1.251106E+0	1.238583E+0	1.276791E+0	1.297193E+0	1.264068E+0	1.262732E+0	1.287175E+0	1.274484E+0	1.298793E+0	1.252076E+0	1.218390E+0	1.252513E+0	1.241013E+0	1.256094E+0	1.269140E+0	1.254461E+0	1.295544E+0	1.305937E+0	1.217077E+0	1.264726E+0	1.244614E+0	1.241965E+0	1.260566E+0	1.255290E+0	1.230556E+0	1.216388E+0	1.255194E+0	1.289914E+0	1.218122E+0	1.223754E+0	1.244726E+0	1.312516E+0	1.172498E+0	1.276325E+0	1.227860E+0	1.256353E+0	1.248610E+0	1.243588E+0	1.246423E+0	1.198657E+0	1.276714E+0	1.253133E+0	1.220071E+0	1.276857E+0	1.177215E+0	1.214100E+0	1.217490E+0	1.232998E+0	1.196943E+0	1.205111E+0	1.208368E+0	1.217675E+0	1.251211E+0	1.233151E+0	1.251364E+0	1.328588E+0	1.296909E+0	1.152977E+0	1.220845E+0	1.222277E+0	1.216599E+0	1.277403E+0	1.209301E+0	1.313111E+0	1.197964E+0	1.224094E+0	1.178404E+0	1.268445E+0	1.199552E+0	1.192555E+0	1.222816E+0	1.242305E+0	1.225318E+0	1.212860E+0	1.224415E+0	1.260289E+0	1.172919E+0	1.204709E+0	1.245912E+0	1.272565E+0	1.163741E+0	1.200226E+0	1.381207E+0	1.202326E+0
5.505110E+2	1.302861E+0	1.355515E+0	1.261284E+0	1.225655E+0	1.278683E+0	1.240361E+0	1.250748E+0	1.241730E+0	1.279297E+0	1.245843E+0	1.238957E+0	1.244262E+0	1.278436E+0	1.245745E+0	1.308399E+0	1.273071E+0	1.336362E+0	1.268134E+0	1.233213E+0	1.280226E+0	1.257145E+0	1.230753E+0	1.253935E+0	1.248410E+0	1.271074E+0	1.237560E+0	1.238714E+0	1.293161E+0	1.250276E+0	1.261892E+0	1.247898E+0	1.294735E+0	1.210562E+0	1.278612E+0	1.215228E+0	1.275079E+0	1.266246E+0	1.330676E+0	1.226100E+0	1.282636E+0	1.243941E+0	1.219320E+0	1.288874E+0	1.277241E+0	1.312012E+0	1.196216E+0	1.287347E+0	1.193276E+0	1.307412E+0	1.261767E+0	1.207637E+0	1.283912E+0	1.269963E+0	1.217150E+0	1.235174E+0	1.309912E+0	1.216506E+0	1.282259E+0	1.241391E+0	1.248720E+0	1.310980E+0	1.177197E+0	1.210613E+0	1.264172E+0	1.279630E+0	1.229392E+0	1.276920E+0	1.238828E+0	1.286033E+0	1.219096E+0	1.298844E+0	1.240521E+0	1.299319E+0	1.279277E+0	1.236378E+0	1.278612E+0	1.306609E+0	1.208458E+0	1.241313E+0	1.221708E+0	1.278985E+0	1.284615E+0	1.169940E+0	1.318893E+0	1.227712E+0	1.292296E+0	1.300742E+0	1.249268E+0	1.336323E+0	1.270485E+0	1.292392E+0	1.267812E+0	1.285680E+0	1.231779E+0	1.218625E+0	1.211092E+0	1.242219E+0	1.246843E+0	1.267066E+0	1.238739E+0	1.256788E+0	1.288378E+0	1.220092E+0	1.208262E+0	1.265237E+0	1.202943E+0	1.263459E+0	1.288810E+0	1.248206E+0	1.253051E+0	1.272492E+0	1.250861E+0	1.328462E+0	1.180059E+0	1.268586E+0	1.266141E+0	1.273614E+0	1.228889E+0	1.272197E+0	1.250930E+0	1.244504E+0	1.227078E+0	1.219816E+0	1.290026E+0	1.316217E+0	1.242294E+0	1.283395E+0	1.322673E+0	1.309112E+0	1.257975E+0	1.296208E+0	1.308572E+0	1.232117E+0	1.279505E+0	1.265565E+0	1.258424E+0	1.351841E+0	1.225498E+0	1.277430E+0	1.310077E+0	1.237681E+0	1.196046E+0	1.234037E+0	1.220595E+0	1.292718E+0	1.225815E+0	1.314219E+0	1.247731E+0	1.276541E+0	1.223778E+0	1.255597E+0	1.246986E+0	1.295460E+0	1.305136E+0	1.280084E+0	1.273041E+0	1.228869E+0	1.274415E+0	1.226659E+0	1.231024E+0	1.186747E+0	1.216895E+0	1.156766E+0	1.295930E+0	1.191341E+0
5.512570E+2	1.282360E+0	1.264391E+0	1.262173E+0	1.290719E+0	1.250658E+0	1.308673E+0	1.235212E+0	1.257533E+0	1.235044E+0	1.279726E+0	1.295426E+0	1.307843E+0	1.318877E+0	1.293136E+0	1.271573E+0	1.281654E+0	1.297585E+0	1.278714E+0	1.241566E+0	1.279072E+0	1.265302E+0	1.261929E+0	1.231060E+0	1.278021E+0	1.273545E+0	1.289256E+0	1.287577E+0	1.283548E+0	1.237962E+0	1.205792E+0	1.291219E+0	1.319144E+0	1.288096E+0	1.311676E+0	1.291160E+0	1.242457E+0	1.255125E+0	1.224675E+0	1.274610E+0	1.313117E+0	1.296107E+0	1.278457E+0	1.260342E+0	1.246437E+0	1.275615E+0	1.304953E+0	1.260882E+0	1.232678E+0	1.321478E+0	1.321389E+0	1.284116E+0	1.271368E+0	1.237235E+0	1.294473E+0	1.244797E+0	1.293291E+0	1.250590E+0	1.325873E+0	1.259143E+0	1.220480E+0	1.341264E+0	1.282679E+0	1.227627E+0	1.278918E+0	1.241118E+0	1.277877E+0	1.267252E+0	1.272880E+0	1.302442E+0	1.215406E+0	1.252814E+0	1.321576E+0	1.291656E+0	1.239672E+0	1.312748E+0	1.274696E+0	1.337609E+0	1.231396E+0	1.256491E+0	1.280039E+0	1.335001E+0	1.294282E+0	1.200032E+0	1.259595E+0	1.271630E+0	1.297806E+0	1.379398E+0	1.245142E+0	1.304578E+0	1.279246E+0	1.275476E+0	1.213932E+0	1.256087E+0	1.263679E+0	1.239159E+0	1.249511E+0	1.338236E+0	1.211867E+0	1.288468E+0	1.314765E+0	1.305730E+0	1.286352E+0	1.303173E+0	1.257918E+0	1.284960E+0	1.236336E+0	1.309600E+0	1.314091E+0	1.318134E+0	1.268313E+0	1.269244E+0	1.263290E+0	1.357563E+0	1.229688E+0	1.299127E+0	1.268463E+0	1.287648E+0	1.236898E+0	1.290445E+0	1.283868E+0	1.231312E+0	1.244552E+0	1.250560E+0	1.278103E+0	1.301035E+0	1.248309E+0	1.251088E+0	1.292477E+0	1.280409E+0	1.254945E+0	1.293817E+0	1.269901E+0	1.321903E+0	1.249593E+0	1.242593E+0	1.266700E+0	1.271700E+0	1.184336E+0	1.241484E+0	1.234893E+0	1.265588E+0	1.232989E+0	1.296643E+0	1.256042E+0	1.251200E+0	1.238171E+0	1.327665E+0	1.207706E+0	1.296361E+0	1.235043E+0	1.221946E+0	1.187361E+0	1.306685E+0	1.302404E+0	1.242475E+0	1.285704E+0	1.245140E+0	1.295159E+0	1.253394E+0	1.266172E+0	1.207140E+0	1.200055E+0	1.196804E+0	1.376789E+0	1.256736E+0
5.520150E+2	1.225351E+0	1.282543E+0	1.222358E+0	1.174437E+0	1.170302E+0	1.180795E+0	1.152259E+0	1.239251E+0	1.223658E+0	1.213645E+0	1.184069E+0	1.242082E+0	1.220867E+0	1.205165E+0	1.206152E+0	1.220042E+0	1.270842E+0	1.185577E+0	1.214578E+0	1.238771E+0	1.259938E+0	1.254803E+0	1.230985E+0	1.207080E+0	1.169436E+0	1.232135E+0	1.230891E+0	1.270590E+0	1.242231E+0	1.172427E+0	1.191805E+0	1.183106E+0	1.198919E+0	1.238536E+0	1.171040E+0	1.264166E+0	1.241685E+0	1.189655E+0	1.239651E+0	1.204869E+0	1.230922E+0	1.212854E+0	1.193316E+0	1.215344E+0	1.195725E+0	1.191428E+0	1.231841E+0	1.246970E+0	1.286255E+0	1.236432E+0	1.174339E+0	1.232435E+0	1.204759E+0	1.195898E+0	1.199911E+0	1.239390E+0	1.202173E+0	1.242300E+0	1.209021E+0	1.224799E+0	1.286816E+0	1.226419E+0	1.226333E+0	1.193276E+0	1.223500E+0	1.217087E+0	1.180114E+0	1.214000E+0	1.218468E+0	1.143367E+0	1.226743E+0	1.229586E+0	1.240127E+0	1.200766E+0	1.229805E+0	1.236432E+0	1.219720E+0	1.190416E+0	1.150578E+0	1.247010E+0	1.224129E+0	1.260449E+0	1.188163E+0	1.178734E+0	1.245752E+0	1.200223E+0	1.235085E+0	1.220135E+0	1.229424E+0	1.238216E+0	1.215735E+0	1.169724E+0	1.227039E+0	1.227405E+0	1.271559E+0	1.203275E+0	1.291641E+0	1.208296E+0	1.248550E+0	1.168600E+0	1.254838E+0	1.136953E+0	1.241156E+0	1.167356E+0	1.238708E+0	1.194882E+0	1.216131E+0	1.219180E+0	1.274546E+0	1.172597E+0	1.221867E+0	1.221438E+0	1.207557E+0	1.190492E+0	1.232572E+0	1.178981E+0	1.211166E+0	1.193631E+0	1.225519E+0	1.245120E+0	1.247121E+0	1.227692E+0	1.189409E+0	1.199987E+0	1.184870E+0	1.181897E+0	1.180970E+0	1.226130E+0	1.204149E+0	1.190565E+0	1.222309E+0	1.252526E+0	1.214670E+0	1.175712E+0	1.228633E+0	1.227535E+0	1.236130E+0	1.232369E+0	1.233044E+0	1.234199E+0	1.234372E+0	1.160861E+0	1.217376E+0	1.173024E+0	1.260577E+0	1.174106E+0	1.204846E+0	1.215283E+0	1.248823E+0	1.237618E+0	1.199370E+0	1.174248E+0	1.219063E+0	1.206586E+0	1.174133E+0	1.260848E+0	1.208953E+0	1.115037E+0	1.166329E+0	1.238421E+0	1.158430E+0	1.156962E+0	1.198071E+0	1.236024E+0	1.107377E+0
5.527700E+2	1.258653E+0	1.268724E+0	1.280010E+0	1.263013E+0	1.309273E+0	1.251639E+0	1.226487E+0	1.277198E+0	1.247957E+0	1.296964E+0	1.297728E+0	1.280948E+0	1.289260E+0	1.242674E+0	1.249746E+0	1.288420E+0	1.310733E+0	1.203418E+0	1.334157E+0	1.303997E+0	1.316272E+0	1.236013E+0	1.237518E+0	1.292334E+0	1.309458E+0	1.317889E+0	1.336852E+0	1.274020E+0	1.321516E+0	1.210988E+0	1.228589E+0	1.284173E+0	1.296751E+0	1.319664E+0	1.282910E+0	1.289454E+0	1.257079E+0	1.300100E+0	1.309297E+0	1.300315E+0	1.265404E+0	1.294491E+0	1.324799E+0	1.267530E+0	1.317200E+0	1.309217E+0	1.283975E+0	1.234797E+0	1.255794E+0	1.299754E+0	1.308738E+0	1.278398E+0	1.265943E+0	1.322877E+0	1.264319E+0	1.282264E+0	1.260675E+0	1.327556E+0	1.280086E+0	1.243179E+0	1.346723E+0	1.289151E+0	1.281489E+0	1.227964E+0	1.317301E+0	1.272544E+0	1.321776E+0	1.303966E+0	1.249501E+0	1.295682E+0	1.262449E+0	1.272994E+0	1.290605E+0	1.253600E+0	1.301691E+0	1.257233E+0	1.340565E+0	1.249904E+0	1.244758E+0	1.289673E+0	1.301543E+0	1.307087E+0	1.305806E+0	1.267242E+0	1.269695E+0	1.342323E+0	1.305952E+0	1.298461E+0	1.294497E+0	1.262260E+0	1.280527E+0	1.288555E+0	1.298672E+0	1.220884E+0	1.270930E+0	1.256437E+0	1.272110E+0	1.300390E+0	1.290011E+0	1.234367E+0	1.287542E+0	1.289941E+0	1.227654E+0	1.234211E+0	1.250474E+0	1.235692E+0	1.237163E+0	1.308647E+0	1.261662E+0	1.283138E+0	1.267319E+0	1.263006E+0	1.321718E+0	1.192105E+0	1.309695E+0	1.274549E+0	1.277946E+0	1.317991E+0	1.240142E+0	1.355991E+0	1.298564E+0	1.282462E+0	1.292288E+0	1.263283E+0	1.311426E+0	1.329964E+0	1.234757E+0	1.258304E+0	1.313437E+0	1.261492E+0	1.254991E+0	1.268175E+0	1.272244E+0	1.309604E+0	1.232869E+0	1.247595E+0	1.286538E+0	1.276677E+0	1.322108E+0	1.282037E+0	1.291292E+0	1.246921E+0	1.267032E+0	1.259789E+0	1.308569E+0	1.277066E+0	1.323060E+0	1.283921E+0	1.271973E+0	1.198188E+0	1.267376E+0	1.150039E+0	1.269854E+0	1.286214E+0	1.188487E+0	1.276414E+0	1.303243E+0	1.278600E+0	1.278580E+0	1.242582E+0	1.250642E+0	1.241315E+0	1.210480E+0	1.348508E+0	1.202395E+0
5.535330E+2	1.194217E+0	1.259524E+0	1.290596E+0	1.268826E+0	1.268815E+0	1.202261E+0	1.201930E+0	1.234140E+0	1.189979E+0	1.210609E+0	1.304287E+0	1.225577E+0	1.254328E+0	1.265762E+0	1.197282E+0	1.195716E+0	1.266338E+0	1.200431E+0	1.233169E+0	1.203304E+0	1.243925E+0	1.182768E+0	1.256304E+0	1.204218E+0	1.206917E+0	1.205373E+0	1.194880E+0	1.218402E+0	1.216578E+0	1.186286E+0	1.272588E+0	1.214738E+0	1.247653E+0	1.243712E+0	1.233091E+0	1.194286E+0	1.191082E+0	1.171704E+0	1.193111E+0	1.274387E+0	1.157559E+0	1.244815E+0	1.202234E+0	1.212248E+0	1.238085E+0	1.255541E+0	1.139654E+0	1.209386E+0	1.281018E+0	1.222238E+0	1.196780E+0	1.211003E+0	1.238086E+0	1.246949E+0	1.255008E+0	1.205105E+0	1.211965E+0	1.277539E+0	1.177697E+0	1.202522E+0	1.184733E+0	1.251485E+0	1.265700E+0	1.170095E+0	1.249550E+0	1.207005E+0	1.189632E+0	1.254223E+0	1.195744E+0	1.202459E+0	1.232665E+0	1.212077E+0	1.220467E+0	1.187529E+0	1.215989E+0	1.185320E+0	1.263572E+0	1.187292E+0	1.184779E+0	1.210305E+0	1.257311E+0	1.177374E+0	1.210211E+0	1.243510E+0	1.236090E+0	1.248904E+0	1.275834E+0	1.223027E+0	1.198244E+0	1.228471E+0	1.199229E+0	1.191178E+0	1.251879E+0	1.213781E+0	1.190620E+0	1.199579E+0	1.234260E+0	1.223824E+0	1.251785E+0	1.224248E+0	1.181472E+0	1.185153E+0	1.225225E+0	1.176749E+0	1.235760E+0	1.212388E+0	1.226233E+0	1.261620E+0	1.269270E+0	1.234518E+0	1.184174E+0	1.242755E+0	1.179280E+0	1.157183E+0	1.212563E+0	1.261218E+0	1.234376E+0	1.174520E+0	1.187349E+0	1.195611E+0	1.237822E+0	1.246066E+0	1.182171E+0	1.275272E+0	1.190823E+0	1.135104E+0	1.204286E+0	1.208104E+0	1.225929E+0	1.226570E+0	1.203772E+0	1.209847E+0	1.241767E+0	1.172804E+0	1.198301E+0	1.218140E+0	1.290730E+0	1.175407E+0	1.228467E+0	1.219206E+0	1.230417E+0	1.173676E+0	1.210825E+0	1.223171E+0	1.227102E+0	1.207986E+0	1.196057E+0	1.150100E+0	1.277835E+0	1.189698E+0	1.246875E+0	1.158563E+0	1.202462E+0	1.227611E+0	1.199963E+0	1.162411E+0	1.237455E+0	1.185442E+0	1.202090E+0	1.221701E+0	1.184288E+0	1.221487E+0	1.248767E+0	1.264791E+0	1.183746E+0
5.542700E+2	1.160044E+0	1.270594E+0	1.195733E+0	1.165295E+0	1.178598E+0	1.113870E+0	1.156699E+0	1.150864E+0	1.191029E+0	1.127368E+0	1.172291E+0	1.153717E+0	1.224620E+0	1.142192E+0	1.190457E+0	1.101285E+0	1.227159E+0	1.131260E+0	1.211427E+0	1.193964E+0	1.172787E+0	1.170425E+0	1.170671E+0	1.162771E+0	1.201502E+0	1.165078E+0	1.114817E+0	1.171813E+0	1.173560E+0	1.123609E+0	1.201699E+0	1.185849E+0	1.166808E+0	1.174051E+0	1.203860E+0	1.206565E+0	1.231631E+0	1.175333E+0	1.169032E+0	1.200661E+0	1.183147E+0	1.174588E+0	1.155348E+0	1.180413E+0	1.189817E+0	1.165425E+0	1.200370E+0	1.192781E+0	1.222497E+0	1.180643E+0	1.211894E+0	1.174569E+0	1.124199E+0	1.154615E+0	1.162858E+0	1.154914E+0	1.175342E+0	1.203225E+0	1.127944E+0	1.111919E+0	1.245587E+0	1.168857E+0	1.178370E+0	1.140309E+0	1.173633E+0	1.167788E+0	1.109314E+0	1.201668E+0	1.136195E+0	1.158179E+0	1.180533E+0	1.188406E+0	1.218944E+0	1.138372E+0	1.171040E+0	1.186352E+0	1.216457E+0	1.115386E+0	1.112516E+0	1.172959E+0	1.175272E+0	1.169781E+0	1.136750E+0	1.173869E+0	1.200066E+0	1.210651E+0	1.154064E+0	1.166250E+0	1.207832E+0	1.151965E+0	1.146475E+0	1.115372E+0	1.139344E+0	1.127760E+0	1.167252E+0	1.214915E+0	1.174369E+0	1.171016E+0	1.208573E+0	1.151371E+0	1.203220E+0	1.184594E+0	1.151682E+0	1.161515E+0	1.180381E+0	1.125379E+0	1.128169E+0	1.214926E+0	1.147817E+0	1.153542E+0	1.148597E+0	1.126115E+0	1.181312E+0	1.099561E+0	1.137561E+0	1.134510E+0	1.198111E+0	1.165143E+0	1.209194E+0	1.227943E+0	1.168797E+0	1.143741E+0	1.191922E+0	1.171749E+0	1.193972E+0	1.095356E+0	1.167559E+0	1.155936E+0	1.149051E+0	1.148520E+0	1.206343E+0	1.184482E+0	1.201124E+0	1.186599E+0	1.172300E+0	1.174887E+0	1.170733E+0	1.203067E+0	1.179219E+0	1.153327E+0	1.200806E+0	1.160399E+0	1.220470E+0	1.188353E+0	1.259945E+0	1.154321E+0	1.151241E+0	1.129232E+0	1.202898E+0	1.107784E+0	1.118839E+0	1.110112E+0	1.138441E+0	1.101255E+0	1.137288E+0	1.182750E+0	1.158301E+0	1.090252E+0	1.119729E+0	1.212453E+0	1.093510E+0	1.163704E+0	1.135443E+0	1.202476E+0	1.102393E+0
5.550310E+2	1.016369E+0	1.128306E+0	1.121633E+0	1.089434E+0	1.046554E+0	1.071675E+0	1.052474E+0	1.052416E+0	9.857321E-1	1.071226E+0	1.082081E+0	1.053838E+0	1.058335E+0	1.090614E+0	1.078088E+0	1.068675E+0	1.058721E+0	9.837865E-1	1.065190E+0	1.004248E+0	1.051501E+0	1.060001E+0	1.032458E+0	1.028457E+0	1.057372E+0	1.078809E+0	1.017504E+0	1.037451E+0	1.026914E+0	1.024659E+0	1.039447E+0	1.058042E+0	1.037772E+0	1.050118E+0	1.028276E+0	1.106400E+0	1.051979E+0	1.045006E+0	1.060548E+0	1.069163E+0	1.090303E+0	1.033797E+0	1.026495E+0	1.037671E+0	1.042788E+0	1.012404E+0	1.062255E+0	1.080670E+0	1.050450E+0	1.058050E+0	1.112643E+0	1.075584E+0	1.076245E+0	1.102749E+0	1.049434E+0	1.098400E+0	1.072547E+0	1.104336E+0	1.090564E+0	1.023406E+0	1.089456E+0	1.047541E+0	1.044392E+0	9.970043E-1	1.098100E+0	1.110670E+0	1.044191E+0	1.004955E+0	1.036229E+0	1.007938E+0	1.026272E+0	1.069619E+0	1.048615E+0	1.014374E+0	1.079640E+0	1.063537E+0	1.060860E+0	1.084974E+0	1.099851E+0	1.061989E+0	1.048249E+0	1.067044E+0	1.072902E+0	1.070893E+0	1.076430E+0	1.073654E+0	1.087941E+0	1.039215E+0	1.078698E+0	1.123618E+0	1.083566E+0	1.051538E+0	1.105501E+0	1.053505E+0	1.042504E+0	1.090896E+0	1.046620E+0	1.022847E+0	1.081746E+0	1.016016E+0	1.104597E+0	1.076495E+0	1.007868E+0	1.035862E+0	1.072006E+0	1.014905E+0	1.026541E+0	1.050220E+0	1.047841E+0	1.095044E+0	1.040622E+0	1.029090E+0	1.093449E+0	9.689062E-1	1.059477E+0	1.090480E+0	1.081417E+0	1.071595E+0	1.061451E+0	1.076562E+0	1.054989E+0	1.023700E+0	1.022695E+0	1.047950E+0	1.090565E+0	1.015985E+0	1.097209E+0	1.100155E+0	1.079841E+0	1.013054E+0	1.061544E+0	1.052723E+0	1.050915E+0	1.062373E+0	1.066455E+0	1.086937E+0	1.087037E+0	1.071053E+0	1.094668E+0	1.068093E+0	1.081248E+0	1.040971E+0	1.054809E+0	1.033317E+0	1.073208E+0	1.018039E+0	1.096627E+0	1.024191E+0	1.049367E+0	1.066351E+0	1.081915E+0	9.619314E-1	1.090746E+0	1.114223E+0	1.060339E+0	1.085461E+0	1.057972E+0	1.078893E+0	1.039805E+0	1.100129E+0	1.060954E+0	1.011163E+0	1.008764E+0	1.041378E+0	1.029386E+0
5.557600E+2	9.477467E-1	1.030700E+0	1.037098E+0	9.810879E-1	9.920148E-1	9.756400E-1	9.802827E-1	9.669516E-1	9.676490E-1	9.890884E-1	9.698454E-1	1.000100E+0	1.023121E+0	1.003847E+0	9.942249E-1	9.588112E-1	1.029699E+0	1.012457E+0	1.003771E+0	1.007590E+0	1.023386E+0	9.821827E-1	1.006035E+0	9.631164E-1	1.069341E+0	1.038214E+0	9.808772E-1	1.001102E+0	9.349535E-1	9.813747E-1	1.004546E+0	9.794149E-1	9.961965E-1	1.046791E+0	1.006316E+0	1.020265E+0	9.818648E-1	1.007944E+0	1.060933E+0	9.642957E-1	1.031119E+0	1.023773E+0	9.904604E-1	9.545951E-1	1.005788E+0	9.706406E-1	9.367037E-1	1.020661E+0	1.004070E+0	1.008246E+0	1.020118E+0	1.043768E+0	9.786149E-1	1.022126E+0	1.009173E+0	9.980583E-1	9.923943E-1	1.021883E+0	1.003052E+0	1.004674E+0	1.002500E+0	9.842970E-1	9.614327E-1	1.015281E+0	1.015776E+0	9.935752E-1	1.037798E+0	1.010515E+0	9.691640E-1	9.639807E-1	9.713672E-1	1.018190E+0	1.039226E+0	9.879012E-1	1.005852E+0	1.028455E+0	9.603597E-1	9.463729E-1	1.013532E+0	1.010903E+0	1.063880E+0	9.709210E-1	9.806098E-1	1.006509E+0	1.015622E+0	1.033820E+0	1.043892E+0	1.023644E+0	1.035587E+0	1.015831E+0	1.005518E+0	1.001625E+0	1.063260E+0	9.554809E-1	9.726007E-1	1.003971E+0	1.016340E+0	9.630065E-1	1.029414E+0	9.720928E-1	1.036769E+0	1.024250E+0	1.000991E+0	9.870832E-1	9.968877E-1	1.021262E+0	9.780471E-1	1.000095E+0	9.708129E-1	9.964782E-1	1.044467E+0	9.916745E-1	9.815838E-1	9.585476E-1	1.028351E+0	1.008911E+0	9.772702E-1	9.976560E-1	9.384272E-1	1.003133E+0	9.721807E-1	1.003876E+0	1.009152E+0	9.752418E-1	9.810850E-1	9.529468E-1	1.034380E+0	9.944016E-1	1.012157E+0	9.201516E-1	1.020175E+0	1.017522E+0	1.012513E+0	9.674183E-1	1.013334E+0	9.951639E-1	1.042419E+0	1.003749E+0	1.063951E+0	1.003417E+0	1.016395E+0	9.831650E-1	1.018960E+0	1.025643E+0	9.888006E-1	9.590609E-1	1.008100E+0	1.011251E+0	9.920617E-1	9.807167E-1	9.925912E-1	9.536270E-1	1.010648E+0	1.042966E+0	9.801586E-1	1.010358E+0	9.407040E-1	9.924970E-1	1.009227E+0	9.889764E-1	1.008498E+0	9.470450E-1	1.024902E+0	1.022594E+0	8.790524E-1
5.560130E+2	9.155554E-1	9.448575E-1	9.542090E-1	9.403768E-1	9.295473E-1	9.605298E-1	9.486979E-1	9.771147E-1	8.999396E-1	9.264316E-1	9.572743E-1	9.301136E-1	9.666922E-1	9.880312E-1	9.510390E-1	9.721437E-1	9.160631E-1	9.236686E-1	9.526989E-1	9.672716E-1	9.915675E-1	9.385440E-1	9.665281E-1	9.390690E-1	9.619900E-1	9.633323E-1	8.973926E-1	9.912173E-1	9.536722E-1	9.602263E-1	9.776419E-1	9.527090E-1	9.603426E-1	9.789999E-1	9.283326E-1	9.805898E-1	9.595601E-1	1.006678E+0	9.245761E-1	9.246728E-1	9.138133E-1	9.104299E-1	9.207247E-1	9.392012E-1	9.177074E-1	9.869589E-1	9.246567E-1	9.693898E-1	9.657108E-1	9.776267E-1	9.131946E-1	9.641607E-1	9.716015E-1	9.713771E-1	9.843676E-1	9.782299E-1	9.073171E-1	9.417961E-1	9.559473E-1	9.203758E-1	9.476133E-1	9.486336E-1	9.744764E-1	9.452347E-1	9.597531E-1	9.552117E-1	9.006660E-1	9.479871E-1	9.796958E-1	9.158520E-1	9.239388E-1	9.155121E-1	9.470699E-1	9.338728E-1	9.670527E-1	9.020000E-1	9.845950E-1	9.607575E-1	9.572396E-1	9.369097E-1	9.541152E-1	9.439925E-1	9.762130E-1	9.214053E-1	9.348069E-1	9.602892E-1	9.775352E-1	9.600556E-1	9.737409E-1	9.929691E-1	9.812770E-1	9.620554E-1	9.310409E-1	9.965943E-1	9.369255E-1	9.538801E-1	9.551395E-1	9.575546E-1	1.042198E+0	9.415882E-1	9.560863E-1	9.496616E-1	9.617902E-1	9.437744E-1	9.544524E-1	9.408209E-1	9.475005E-1	9.617113E-1	9.788142E-1	9.534184E-1	9.622671E-1	9.743263E-1	9.540183E-1	9.367800E-1	9.906039E-1	9.615497E-1	9.484941E-1	9.445290E-1	9.729246E-1	9.716562E-1	9.384537E-1	9.121021E-1	9.585822E-1	9.143249E-1	9.367747E-1	9.231947E-1	9.316718E-1	9.635261E-1	9.315760E-1	8.935364E-1	9.529616E-1	9.778947E-1	9.197622E-1	9.271325E-1	9.592030E-1	9.719911E-1	9.264782E-1	9.720442E-1	9.512500E-1	9.719152E-1	9.671440E-1	9.215863E-1	9.787360E-1	9.209149E-1	9.590219E-1	9.089656E-1	9.402284E-1	9.193948E-1	9.572368E-1	8.715321E-1	1.006958E+0	9.154507E-1	9.918056E-1	9.628896E-1	9.082272E-1	9.482787E-1	9.587491E-1	9.469568E-1	9.849643E-1	9.530816E-1	9.765733E-1	9.317521E-1	8.977725E-1	9.436709E-1	9.103687E-1
5.565030E+2	8.972185E-1	9.440216E-1	8.839023E-1	8.664062E-1	9.063840E-1	9.349737E-1	8.797493E-1	9.362251E-1	9.543500E-1	8.530764E-1	9.306677E-1	9.335346E-1	9.553173E-1	9.721138E-1	9.354025E-1	9.246173E-1	9.553543E-1	9.491911E-1	9.014609E-1	9.226766E-1	9.061137E-1	9.059186E-1	9.228195E-1	9.083874E-1	9.358239E-1	8.720036E-1	9.232871E-1	9.429020E-1	9.161296E-1	8.679910E-1	1.014867E+0	9.691729E-1	8.682854E-1	9.901950E-1	9.504876E-1	9.154285E-1	9.497331E-1	8.714735E-1	9.140693E-1	8.974313E-1	9.281243E-1	9.439910E-1	9.102452E-1	9.408810E-1	9.008824E-1	9.395140E-1	9.238637E-1	9.452563E-1	9.122413E-1	9.254916E-1	8.889401E-1	9.456270E-1	9.952766E-1	9.370945E-1	9.039669E-1	9.300262E-1	9.055276E-1	9.868105E-1	8.631957E-1	9.786153E-1	9.096627E-1	9.218458E-1	9.167065E-1	9.059993E-1	8.978660E-1	9.629267E-1	9.804939E-1	9.534594E-1	8.814080E-1	8.761716E-1	8.922095E-1	9.303824E-1	8.921069E-1	9.340299E-1	9.225515E-1	9.282266E-1	9.630101E-1	9.364024E-1	9.410806E-1	9.340305E-1	9.393368E-1	9.213097E-1	9.262372E-1	8.952665E-1	9.437825E-1	9.236740E-1	9.319663E-1	8.866565E-1	9.468686E-1	9.510036E-1	8.754819E-1	9.003701E-1	9.591514E-1	9.621245E-1	9.344502E-1	9.358097E-1	9.338078E-1	9.172124E-1	9.080172E-1	8.664828E-1	9.267188E-1	9.044158E-1	9.336233E-1	9.153472E-1	9.544322E-1	8.832813E-1	8.562887E-1	9.519159E-1	9.387131E-1	9.542124E-1	9.103836E-1	9.356319E-1	9.576392E-1	8.767751E-1	9.582190E-1	9.150237E-1	9.248090E-1	9.100825E-1	8.889551E-1	9.239295E-1	8.847315E-1	8.971517E-1	9.132194E-1	8.965441E-1	9.327283E-1	8.864162E-1	9.292594E-1	9.464049E-1	9.703152E-1	9.121917E-1	9.234023E-1	9.529248E-1	9.154229E-1	9.085291E-1	9.924344E-1	9.187418E-1	9.353379E-1	9.153085E-1	9.074390E-1	9.219857E-1	9.412547E-1	8.750945E-1	9.836888E-1	9.642240E-1	9.572953E-1	9.374516E-1	8.906866E-1	8.566245E-1	8.991386E-1	9.135612E-1	9.497759E-1	9.363628E-1	9.850482E-1	9.330998E-1	9.096060E-1	9.068143E-1	9.752167E-1	9.665834E-1	9.170929E-1	9.447035E-1	8.976280E-1	9.179110E-1	8.960170E-1	9.761971E-1	9.452907E-1
5.570100E+2	9.368768E-1	9.389221E-1	9.506985E-1	1.010878E+0	9.503226E-1	9.307772E-1	9.195134E-1	9.526096E-1	8.896959E-1	9.254838E-1	9.391617E-1	9.493766E-1	9.647377E-1	9.727289E-1	9.564632E-1	9.381032E-1	9.550309E-1	9.140553E-1	9.705610E-1	9.225266E-1	9.759976E-1	9.170176E-1	9.066567E-1	9.236680E-1	9.737214E-1	1.001165E+0	9.650528E-1	9.752357E-1	9.276520E-1	9.434170E-1	9.531307E-1	9.735671E-1	9.433232E-1	9.899542E-1	9.529789E-1	9.187702E-1	9.624626E-1	9.622153E-1	9.465605E-1	9.690508E-1	9.958032E-1	9.987547E-1	9.626694E-1	9.231813E-1	9.081383E-1	9.522532E-1	8.969069E-1	9.609158E-1	9.259923E-1	8.847923E-1	9.363659E-1	9.293552E-1	9.940378E-1	9.752784E-1	9.794273E-1	9.399527E-1	9.453066E-1	1.000212E+0	9.418193E-1	8.982607E-1	9.984714E-1	9.332164E-1	9.305514E-1	9.312037E-1	9.743800E-1	9.617371E-1	9.109236E-1	9.481762E-1	9.163742E-1	8.958553E-1	9.799605E-1	9.726059E-1	9.639726E-1	9.225982E-1	9.187224E-1	9.297850E-1	9.833609E-1	9.001099E-1	9.420344E-1	9.544924E-1	9.121548E-1	9.958217E-1	9.564166E-1	9.843854E-1	9.414250E-1	9.102986E-1	9.427809E-1	9.782981E-1	9.833293E-1	9.730269E-1	9.633324E-1	9.763634E-1	9.654418E-1	9.620760E-1	9.556812E-1	9.551537E-1	9.285242E-1	9.699827E-1	9.772762E-1	9.637624E-1	9.968196E-1	9.258897E-1	9.063841E-1	9.636340E-1	9.240343E-1	9.625532E-1	8.993669E-1	1.046193E+0	9.451962E-1	9.551528E-1	9.733762E-1	9.347926E-1	9.700693E-1	8.604646E-1	9.375432E-1	9.123281E-1	9.695853E-1	9.385797E-1	9.603365E-1	9.318513E-1	9.355357E-1	9.234828E-1	9.811374E-1	9.656921E-1	9.620712E-1	8.838506E-1	9.692017E-1	9.973444E-1	9.641812E-1	9.380036E-1	9.679553E-1	9.514469E-1	9.361492E-1	9.712007E-1	9.586654E-1	9.844665E-1	9.777254E-1	9.527444E-1	9.514357E-1	9.311969E-1	9.463775E-1	9.361607E-1	9.998678E-1	9.256938E-1	9.898159E-1	9.888769E-1	9.676125E-1	8.920677E-1	9.100150E-1	9.167186E-1	9.689156E-1	9.436163E-1	9.222416E-1	1.006959E+0	9.361490E-1	9.692073E-1	9.588603E-1	9.187840E-1	9.101820E-1	9.409553E-1	9.432419E-1	9.664455E-1	9.444400E-1	9.853004E-1	1.047886E+0
5.575080E+2	9.939604E-1	9.669962E-1	9.960623E-1	9.733333E-1	1.012342E+0	9.771722E-1	9.786050E-1	9.904194E-1	1.022948E+0	9.382318E-1	9.564657E-1	1.054387E+0	9.760542E-1	9.920797E-1	9.874126E-1	9.695215E-1	1.002410E+0	9.701702E-1	9.971519E-1	9.964198E-1	9.914262E-1	9.928682E-1	9.940982E-1	9.582419E-1	9.945688E-1	1.001069E+0	8.991865E-1	9.913606E-1	9.941431E-1	9.877648E-1	1.001866E+0	1.017046E+0	9.804445E-1	9.773090E-1	9.612587E-1	9.950112E-1	9.932478E-1	9.732941E-1	9.836317E-1	9.897496E-1	1.026084E+0	9.970066E-1	9.989954E-1	1.013680E+0	1.001571E+0	9.763605E-1	9.838779E-1	9.792453E-1	9.667682E-1	9.961971E-1	9.651658E-1	9.686045E-1	9.876633E-1	9.711226E-1	1.022338E+0	9.954051E-1	1.033095E+0	9.792774E-1	9.945266E-1	1.020978E+0	9.625007E-1	1.007577E+0	9.964503E-1	1.018102E+0	9.968970E-1	9.943470E-1	9.519983E-1	9.615333E-1	9.895694E-1	9.597619E-1	9.639630E-1	9.919937E-1	1.022729E+0	9.798616E-1	9.580989E-1	1.045096E+0	9.759101E-1	9.877997E-1	9.810375E-1	9.686372E-1	9.583144E-1	9.598284E-1	9.871034E-1	9.956104E-1	1.005138E+0	1.016963E+0	1.000560E+0	1.003051E+0	9.985820E-1	9.769821E-1	9.834245E-1	1.003973E+0	1.007760E+0	9.796196E-1	1.023605E+0	1.003794E+0	9.610808E-1	9.776580E-1	9.965105E-1	9.385147E-1	9.525253E-1	9.863230E-1	1.048838E+0	9.618273E-1	9.562357E-1	9.536421E-1	1.016102E+0	9.716846E-1	9.908213E-1	9.570371E-1	9.756842E-1	9.463566E-1	9.988606E-1	9.891118E-1	1.018342E+0	9.331198E-1	9.725904E-1	9.991287E-1	9.504124E-1	9.842012E-1	9.734153E-1	1.005779E+0	9.473870E-1	9.828002E-1	9.902874E-1	9.914454E-1	9.708970E-1	9.778878E-1	9.693571E-1	9.524023E-1	1.000155E+0	9.973778E-1	9.654793E-1	9.907931E-1	9.573152E-1	9.930846E-1	1.053119E+0	9.771457E-1	9.891069E-1	9.688145E-1	9.621496E-1	9.478514E-1	9.489901E-1	9.666868E-1	1.015110E+0	9.832950E-1	1.015363E+0	9.730795E-1	9.765421E-1	9.876209E-1	1.034794E+0	9.969996E-1	9.678339E-1	9.706083E-1	9.250601E-1	9.832723E-1	1.015572E+0	9.771493E-1	9.845991E-1	9.556214E-1	1.012672E+0	9.719233E-1	9.949621E-1	9.751551E-1	9.520168E-1
5.580400E+2	1.039666E+0	9.762948E-1	1.039461E+0	1.005168E+0	9.766153E-1	9.967354E-1	1.037849E+0	9.998117E-1	9.944338E-1	1.027080E+0	9.771208E-1	1.020837E+0	9.935563E-1	1.031240E+0	1.045181E+0	9.997137E-1	1.004229E+0	1.009143E+0	1.029693E+0	1.016839E+0	9.918543E-1	1.073744E+0	1.001521E+0	9.957992E-1	1.006894E+0	9.813277E-1	9.984624E-1	9.958376E-1	1.003953E+0	1.021871E+0	1.021647E+0	9.825086E-1	1.041726E+0	9.875573E-1	1.030297E+0	1.000121E+0	1.000077E+0	1.002677E+0	1.020537E+0	1.025675E+0	9.917739E-1	9.864386E-1	1.012263E+0	1.010452E+0	9.909982E-1	1.036241E+0	9.931824E-1	9.998218E-1	9.862759E-1	1.001852E+0	1.009061E+0	9.755876E-1	9.823759E-1	1.032076E+0	1.001193E+0	1.023664E+0	9.571602E-1	9.862850E-1	1.000088E+0	9.977751E-1	1.008900E+0	9.435051E-1	9.640283E-1	9.971147E-1	9.891081E-1	1.052420E+0	1.042808E+0	9.999570E-1	1.009932E+0	1.023642E+0	1.011033E+0	1.026395E+0	1.001878E+0	1.002029E+0	1.008665E+0	9.789824E-1	1.051521E+0	9.963095E-1	1.067740E+0	1.016705E+0	1.005295E+0	1.044144E+0	9.932643E-1	1.049731E+0	1.005159E+0	9.705817E-1	9.801227E-1	1.004999E+0	1.044614E+0	1.033189E+0	9.707346E-1	9.567199E-1	9.504696E-1	1.025825E+0	9.951567E-1	1.009809E+0	9.631433E-1	1.001185E+0	1.018707E+0	1.016055E+0	9.993868E-1	9.851647E-1	9.854838E-1	9.876819E-1	1.002009E+0	1.022498E+0	1.022638E+0	1.033044E+0	9.941211E-1	1.062093E+0	9.921930E-1	1.042938E+0	9.858778E-1	9.939798E-1	9.842929E-1	1.021993E+0	1.025745E+0	1.023185E+0	9.945303E-1	1.017076E+0	9.992683E-1	9.918632E-1	1.000929E+0	9.564320E-1	9.934772E-1	1.003023E+0	1.034463E+0	1.002262E+0	1.054340E+0	1.024420E+0	9.930546E-1	9.576359E-1	1.026497E+0	1.050865E+0	1.018566E+0	9.777586E-1	1.033242E+0	1.053642E+0	1.011072E+0	1.009635E+0	9.882813E-1	1.034650E+0	1.013515E+0	1.022286E+0	1.038553E+0	1.096488E+0	9.915955E-1	1.010277E+0	9.789798E-1	1.032999E+0	9.756623E-1	9.889737E-1	1.014549E+0	9.865448E-1	1.026959E+0	1.050808E+0	1.043045E+0	1.038256E+0	1.027532E+0	9.912583E-1	9.530331E-1	1.003314E+0	1.054309E+0	1.003675E+0	1.023820E+0
5.585390E+2	1.035665E+0	1.043150E+0	9.926991E-1	1.001227E+0	1.045844E+0	1.041522E+0	1.039501E+0	1.020187E+0	1.067240E+0	1.023573E+0	1.030879E+0	1.014768E+0	1.068350E+0	1.007051E+0	1.058911E+0	1.051303E+0	1.059133E+0	1.059684E+0	1.021589E+0	1.024804E+0	1.073531E+0	9.969557E-1	1.036465E+0	1.043580E+0	1.043190E+0	1.039589E+0	1.044118E+0	1.015394E+0	1.059504E+0	1.026814E+0	1.062918E+0	1.044886E+0	1.055918E+0	1.066409E+0	1.045796E+0	1.042429E+0	1.043193E+0	1.033217E+0	1.032543E+0	1.071351E+0	1.044121E+0	1.013457E+0	1.077021E+0	1.052424E+0	1.016392E+0	1.043952E+0	1.011324E+0	1.028687E+0	1.041126E+0	1.031966E+0	1.012071E+0	1.009174E+0	1.000278E+0	1.017633E+0	1.002918E+0	9.934500E-1	1.060972E+0	1.071905E+0	1.094147E+0	1.045483E+0	1.006113E+0	1.040651E+0	9.803082E-1	9.943000E-1	1.021759E+0	1.041743E+0	1.016402E+0	1.052912E+0	1.013349E+0	1.048311E+0	9.796087E-1	9.808461E-1	1.069073E+0	1.016702E+0	1.059843E+0	1.032131E+0	1.034311E+0	1.065040E+0	1.027150E+0	1.062957E+0	1.020171E+0	1.009992E+0	1.000600E+0	9.838389E-1	1.052031E+0	9.763843E-1	1.032022E+0	1.025174E+0	9.983092E-1	1.011913E+0	1.025289E+0	1.013562E+0	1.048173E+0	9.930764E-1	1.012539E+0	9.887050E-1	9.790916E-1	1.029572E+0	1.020430E+0	1.042925E+0	1.015859E+0	1.022261E+0	1.002158E+0	9.778622E-1	9.661780E-1	1.043460E+0	1.007613E+0	1.046606E+0	9.898957E-1	1.016681E+0	1.016239E+0	1.038616E+0	1.032283E+0	1.091290E+0	1.017738E+0	1.044119E+0	1.053466E+0	1.014174E+0	1.022944E+0	1.025466E+0	1.030273E+0	9.950930E-1	1.036289E+0	1.051048E+0	1.023241E+0	1.040964E+0	1.042062E+0	1.035445E+0	1.042164E+0	1.053746E+0	1.023512E+0	1.041891E+0	1.005091E+0	1.052633E+0	1.040254E+0	1.064959E+0	1.047134E+0	1.043691E+0	1.004608E+0	1.032358E+0	1.062189E+0	1.043508E+0	1.063123E+0	1.024179E+0	1.007014E+0	1.001927E+0	1.050258E+0	1.032238E+0	1.018225E+0	1.046361E+0	1.035151E+0	1.054978E+0	1.012785E+0	1.032492E+0	9.815475E-1	1.065825E+0	1.018292E+0	1.068270E+0	1.008832E+0	1.026018E+0	9.716926E-1	1.043869E+0	1.036889E+0	9.702681E-1	9.679676E-1
5.590160E+2	1.032515E+0	9.952922E-1	9.760049E-1	1.013191E+0	1.033525E+0	1.041023E+0	1.025378E+0	1.002460E+0	9.788405E-1	9.837701E-1	1.067252E+0	9.727251E-1	9.915231E-1	9.812360E-1	9.866181E-1	1.011037E+0	1.050098E+0	9.934942E-1	1.022869E+0	9.963651E-1	1.014385E+0	1.012430E+0	9.968940E-1	1.019883E+0	9.753702E-1	1.051081E+0	1.060484E+0	1.012883E+0	1.030065E+0	9.790925E-1	9.733327E-1	1.014526E+0	1.023287E+0	1.025344E+0	1.015957E+0	9.620511E-1	1.026917E+0	1.003138E+0	1.006427E+0	1.003900E+0	9.803053E-1	1.045489E+0	9.790036E-1	1.014562E+0	1.008570E+0	1.050927E+0	1.020195E+0	9.926709E-1	1.016790E+0	9.829665E-1	1.043043E+0	1.045040E+0	1.034892E+0	1.010512E+0	1.009764E+0	1.037081E+0	9.936741E-1	1.011583E+0	9.584915E-1	1.004440E+0	1.027547E+0	1.013252E+0	1.024946E+0	1.000422E+0	1.018793E+0	1.038452E+0	9.970525E-1	1.018999E+0	1.009866E+0	9.703475E-1	1.029476E+0	1.003509E+0	9.499010E-1	1.007178E+0	1.014445E+0	1.008531E+0	1.000365E+0	9.860770E-1	9.862619E-1	1.032489E+0	1.058482E+0	1.032084E+0	1.021950E+0	1.046507E+0	1.024651E+0	9.987131E-1	1.004008E+0	1.032671E+0	1.006055E+0	9.744950E-1	1.042294E+0	1.004439E+0	9.852266E-1	9.876108E-1	1.019414E+0	1.033236E+0	1.030284E+0	1.027855E+0	1.028786E+0	9.883589E-1	1.092005E+0	1.012577E+0	1.019117E+0	1.007820E+0	1.031422E+0	1.046350E+0	1.011012E+0	9.616745E-1	1.037742E+0	9.900372E-1	1.052453E+0	9.854540E-1	1.013218E+0	1.017827E+0	1.036560E+0	1.019050E+0	1.000382E+0	1.003668E+0	1.057827E+0	9.879340E-1	1.043444E+0	9.434200E-1	1.041964E+0	9.846512E-1	1.027518E+0	1.025074E+0	9.664079E-1	1.021755E+0	9.570074E-1	9.299080E-1	9.827389E-1	1.013001E+0	1.023253E+0	1.026377E+0	1.022478E+0	1.026996E+0	9.789252E-1	9.852234E-1	9.911248E-1	1.011077E+0	1.019754E+0	1.007086E+0	9.796701E-1	9.916461E-1	1.035229E+0	9.998341E-1	9.940675E-1	1.018964E+0	1.020982E+0	1.001014E+0	1.022113E+0	1.008899E+0	9.981812E-1	9.859818E-1	1.025642E+0	9.615951E-1	1.006550E+0	9.921024E-1	1.003667E+0	1.015699E+0	1.053090E+0	1.042589E+0	1.007078E+0	1.044896E+0	9.694064E-1
5.595000E+2	1.005602E+0	1.057634E+0	1.041612E+0	9.891062E-1	1.001346E+0	1.042180E+0	9.831807E-1	1.045958E+0	1.012460E+0	1.030108E+0	1.016067E+0	1.037162E+0	1.024503E+0	1.042011E+0	1.015022E+0	1.029679E+0	9.972754E-1	1.049926E+0	1.048434E+0	1.012523E+0	1.012582E+0	1.004574E+0	1.065014E+0	1.082727E+0	1.059642E+0	1.050806E+0	1.060597E+0	1.040707E+0	1.044337E+0	1.053482E+0	1.081645E+0	1.024019E+0	1.066997E+0	1.013013E+0	1.020745E+0	1.043199E+0	1.026774E+0	1.038628E+0	1.027507E+0	1.018468E+0	1.010245E+0	1.008390E+0	1.010318E+0	1.011861E+0	1.058814E+0	9.751241E-1	1.073558E+0	1.069643E+0	1.017204E+0	1.051424E+0	1.036030E+0	1.080770E+0	1.023256E+0	1.048552E+0	1.043122E+0	1.023934E+0	1.047832E+0	1.034584E+0	1.020818E+0	1.020846E+0	1.010183E+0	1.059880E+0	1.023891E+0	1.033157E+0	1.035164E+0	1.014876E+0	1.015809E+0	1.015738E+0	1.021484E+0	1.012635E+0	1.038391E+0	1.006164E+0	9.928825E-1	1.021301E+0	1.080309E+0	1.073639E+0	1.060098E+0	1.041721E+0	1.051714E+0	1.068003E+0	9.932802E-1	1.065751E+0	1.075464E+0	1.077188E+0	1.010554E+0	1.066544E+0	1.009015E+0	9.996545E-1	1.003897E+0	1.083621E+0	1.057362E+0	1.069074E+0	1.068381E+0	1.069606E+0	9.962511E-1	1.039674E+0	1.093517E+0	1.035040E+0	9.824568E-1	1.047394E+0	1.043210E+0	1.048275E+0	1.048459E+0	1.082380E+0	1.088425E+0	1.076442E+0	1.052850E+0	1.057688E+0	1.072534E+0	1.010149E+0	1.090510E+0	1.034615E+0	1.003084E+0	9.999356E-1	1.048995E+0	9.897722E-1	1.040539E+0	1.012140E+0	1.019288E+0	1.032359E+0	1.015391E+0	1.062262E+0	1.018375E+0	1.067830E+0	1.026463E+0	9.986757E-1	1.033815E+0	1.021794E+0	1.012683E+0	1.037083E+0	9.988281E-1	1.032041E+0	1.035560E+0	1.002243E+0	1.063252E+0	1.021007E+0	1.007008E+0	1.047661E+0	1.046997E+0	1.009288E+0	1.045571E+0	1.058582E+0	1.046066E+0	1.037591E+0	1.005260E+0	1.016387E+0	1.070906E+0	1.068618E+0	1.019690E+0	9.900976E-1	1.016004E+0	1.025007E+0	1.117116E+0	1.048190E+0	1.061474E+0	9.930135E-1	1.000535E+0	1.034473E+0	1.042191E+0	1.064974E+0	1.073205E+0	1.032246E+0	1.028617E+0	1.039449E+0	1.066126E+0
5.600470E+2	9.368356E-1	1.012300E+0	9.553073E-1	9.556345E-1	9.608103E-1	9.289699E-1	9.380676E-1	9.683537E-1	9.490709E-1	9.789797E-1	9.948419E-1	9.578135E-1	9.929492E-1	9.586384E-1	9.221290E-1	9.919370E-1	9.571378E-1	8.990407E-1	9.725124E-1	9.585100E-1	9.571112E-1	9.417399E-1	9.674892E-1	9.696640E-1	9.453464E-1	9.608940E-1	9.633793E-1	9.653382E-1	9.427571E-1	9.364685E-1	9.074715E-1	9.930394E-1	9.285378E-1	9.538791E-1	9.093878E-1	9.868901E-1	9.424081E-1	9.711703E-1	9.721139E-1	9.616384E-1	9.554572E-1	9.430498E-1	9.376385E-1	9.527060E-1	9.711363E-1	9.854583E-1	9.193151E-1	9.562547E-1	9.901746E-1	9.670058E-1	9.892529E-1	9.502065E-1	9.952884E-1	9.657093E-1	9.614621E-1	9.407715E-1	9.279678E-1	9.726206E-1	9.668341E-1	9.447421E-1	9.947827E-1	9.457564E-1	9.950028E-1	9.808078E-1	9.520816E-1	9.705212E-1	9.423139E-1	9.483872E-1	9.700828E-1	9.585897E-1	9.459596E-1	9.953358E-1	9.233387E-1	9.499069E-1	9.582675E-1	9.397306E-1	9.722913E-1	9.524545E-1	9.565409E-1	9.448526E-1	9.967553E-1	9.606070E-1	9.290995E-1	9.504980E-1	9.608271E-1	9.487693E-1	9.610182E-1	9.458189E-1	9.307513E-1	9.648205E-1	9.373148E-1	9.639433E-1	9.914164E-1	1.017255E+0	9.030810E-1	9.150823E-1	9.760483E-1	9.602933E-1	9.261182E-1	9.610164E-1	9.398115E-1	9.726575E-1	9.715699E-1	9.888819E-1	9.641687E-1	9.293353E-1	9.700457E-1	9.638179E-1	9.433785E-1	9.303356E-1	9.419945E-1	9.602135E-1	9.457588E-1	9.685861E-1	9.380639E-1	9.752914E-1	9.532891E-1	9.631441E-1	9.335135E-1	1.003373E+0	9.562797E-1	9.815775E-1	9.711873E-1	9.995864E-1	9.520793E-1	9.917280E-1	1.016031E+0	9.183639E-1	9.870025E-1	1.020822E+0	9.448138E-1	9.666748E-1	9.706923E-1	9.580394E-1	9.360163E-1	9.401085E-1	9.119935E-1	9.467883E-1	9.987784E-1	9.599364E-1	9.601511E-1	9.443327E-1	9.462607E-1	9.792286E-1	1.008897E+0	9.308655E-1	9.476330E-1	9.268295E-1	1.011884E+0	9.763074E-1	9.615973E-1	9.246828E-1	9.257814E-1	9.685774E-1	9.858006E-1	9.850644E-1	9.491036E-1	9.771246E-1	9.258112E-1	9.633222E-1	9.366725E-1	9.740182E-1	9.241404E-1	9.975574E-1	9.580940E-1
5.605040E+2	9.822354E-1	9.969481E-1	1.015969E+0	1.074155E+0	1.009459E+0	1.001367E+0	9.875190E-1	1.009480E+0	1.036702E+0	1.025417E+0	9.881219E-1	1.007736E+0	1.013453E+0	1.012667E+0	1.002376E+0	1.000057E+0	9.909333E-1	1.030548E+0	9.628899E-1	1.018833E+0	9.822687E-1	1.046379E+0	9.793067E-1	9.695988E-1	1.013843E+0	9.958850E-1	1.019141E+0	1.020209E+0	9.765878E-1	9.709278E-1	1.000039E+0	1.016072E+0	9.959143E-1	9.999089E-1	1.051516E+0	9.932112E-1	9.617189E-1	1.013474E+0	9.973289E-1	9.580985E-1	1.036723E+0	1.016898E+0	1.001252E+0	9.888694E-1	9.870024E-1	9.901750E-1	1.032913E+0	1.011037E+0	1.026084E+0	9.959864E-1	9.936507E-1	1.000063E+0	1.008826E+0	1.017536E+0	1.012608E+0	9.960771E-1	9.771239E-1	9.646300E-1	9.866208E-1	1.008948E+0	1.052485E+0	1.004537E+0	1.027830E+0	1.011865E+0	1.016097E+0	9.449088E-1	1.005344E+0	1.027759E+0	1.004943E+0	1.039090E+0	1.039143E+0	1.008582E+0	9.984183E-1	1.014949E+0	9.746721E-1	9.915891E-1	9.218799E-1	9.982739E-1	9.726920E-1	9.755196E-1	1.000189E+0	9.546294E-1	1.020409E+0	9.625177E-1	9.817186E-1	9.840349E-1	9.991851E-1	1.023779E+0	1.039117E+0	1.012529E+0	1.011120E+0	1.036643E+0	9.711356E-1	9.821924E-1	1.009222E+0	9.989173E-1	9.853228E-1	9.769018E-1	1.040937E+0	9.942565E-1	9.637937E-1	9.890418E-1	9.656955E-1	9.861979E-1	1.023805E+0	1.007491E+0	9.645850E-1	1.015802E+0	1.020029E+0	1.053486E+0	9.902649E-1	9.904439E-1	1.044758E+0	1.004475E+0	1.009173E+0	1.027766E+0	9.880245E-1	1.030095E+0	1.028213E+0	9.906518E-1	1.029264E+0	1.010619E+0	1.016650E+0	9.967211E-1	9.980574E-1	1.010197E+0	9.297830E-1	1.001795E+0	1.003338E+0	9.974071E-1	1.074520E+0	9.914705E-1	9.702470E-1	1.013944E+0	9.867127E-1	1.012261E+0	9.947226E-1	9.883711E-1	1.020021E+0	1.009073E+0	9.743421E-1	1.030759E+0	9.883632E-1	9.944549E-1	9.742791E-1	1.019802E+0	9.541503E-1	1.021389E+0	9.867097E-1	1.016964E+0	9.834091E-1	1.041599E+0	9.637554E-1	1.025811E+0	1.019327E+0	9.826427E-1	9.965703E-1	9.762428E-1	1.031377E+0	9.905649E-1	1.020686E+0	9.673547E-1	9.823900E-1	1.027636E+0	1.007771E+0
5.610180E+2	9.735213E-1	9.513842E-1	9.828834E-1	9.881854E-1	9.600581E-1	9.710303E-1	1.009900E+0	9.633302E-1	9.383046E-1	9.928411E-1	9.692515E-1	9.345714E-1	9.396113E-1	9.750764E-1	9.823507E-1	9.467520E-1	9.387841E-1	9.879941E-1	9.448602E-1	9.757063E-1	9.768418E-1	9.313095E-1	9.592122E-1	9.605060E-1	9.611454E-1	9.193486E-1	9.546324E-1	9.582702E-1	9.486542E-1	1.023579E+0	9.510810E-1	9.079029E-1	9.071758E-1	9.765795E-1	9.650422E-1	9.770882E-1	1.005664E+0	9.644006E-1	9.599105E-1	9.711186E-1	9.552901E-1	9.892703E-1	9.835071E-1	9.554460E-1	9.655154E-1	9.417616E-1	9.656341E-1	9.626404E-1	9.555769E-1	9.726028E-1	9.517257E-1	9.705550E-1	9.674201E-1	9.368596E-1	9.465957E-1	9.896175E-1	1.002174E+0	9.791158E-1	9.784741E-1	9.567886E-1	9.374898E-1	9.848427E-1	9.875440E-1	9.642309E-1	9.701003E-1	9.427322E-1	1.028272E+0	9.747151E-1	9.807734E-1	9.876217E-1	9.924252E-1	9.871748E-1	1.041778E+0	1.008073E+0	9.456998E-1	9.303001E-1	9.836249E-1	9.723240E-1	9.568633E-1	9.308366E-1	9.675135E-1	9.729645E-1	9.721095E-1	9.341079E-1	9.599225E-1	1.038009E+0	1.014068E+0	9.648519E-1	9.786754E-1	9.424495E-1	9.724615E-1	9.516460E-1	9.774380E-1	9.448150E-1	1.040730E+0	1.010782E+0	1.011512E+0	9.914945E-1	9.860536E-1	1.011479E+0	9.934087E-1	9.836998E-1	9.586785E-1	1.007348E+0	9.677558E-1	9.207815E-1	9.551548E-1	9.496831E-1	9.514791E-1	9.801811E-1	9.406600E-1	1.001363E+0	9.761608E-1	9.347954E-1	9.468344E-1	9.888887E-1	9.659642E-1	9.544652E-1	9.932722E-1	9.589387E-1	9.526642E-1	1.009387E+0	9.672185E-1	9.609315E-1	9.888768E-1	9.388924E-1	1.006541E+0	1.020697E+0	9.741076E-1	9.842114E-1	9.823781E-1	9.999085E-1	1.003180E+0	9.051051E-1	9.754057E-1	9.638255E-1	9.738552E-1	9.574774E-1	9.382916E-1	9.998169E-1	9.875628E-1	9.332310E-1	1.014012E+0	9.839275E-1	9.156584E-1	9.514025E-1	9.760268E-1	9.486060E-1	9.869868E-1	9.486356E-1	9.712689E-1	9.588592E-1	9.999989E-1	9.817938E-1	9.741896E-1	9.777789E-1	9.703317E-1	9.363821E-1	9.759921E-1	9.925418E-1	9.789490E-1	9.646854E-1	9.716149E-1	9.413632E-1	1.054799E+0
