Photon Energy (eV)	#1	#2	#3	#4	#5	#6	#7	#8	#9	#10	#11	#12	#13	#14	#15	#16	#17	#18	#19	#20	#21	#22	#23	#24	#25	#26	#27	#28	#29	#30	#31	#32	#33	#34	#35	#36	#37	#38	#39	#40	#41	#42	#43	#44	#45	#46	#47	#48	#49	#50	#51	#52	#53	#54	#55	#56	#57	#58	#59	#60	#61	#62	#63	#64	#65	#66	#67	#68	#69	#70	#71	#72	#73	#74	#75	#76	#77	#78	#79	#80	#81	#82	#83	#84	#85	#86	#87	#88	#89	#90	#91	#92	#93	#94	#95	#96	#97	#98	#99	#100	#101	#102	#103	#104	#105	#106	#107	#108	#109	#110	#111	#112	#113	#114	#115	#116	#117	#118	#119	#120	#121	#122	#123	#124	#125	#126	#127	#128	#129	#130	#131	#132	#133	#134	#135	#136	#137	#138	#139	#140	#141	#142	#143	#144	#145	#146	#147	#148	#149	#150	#151	#152	#153	#154	#155	#156	#157	#158	#159	#160	#161	#162	#163	#164	#165	#166	#167	#168	#169	#170	#171	
2.790030E+2	2.611847E-3	-3.896550E-3	-7.588791E-3	6.702005E-5	1.314392E-3	-8.725758E-3	-2.926136E-3	-4.584942E-3	-1.442461E-3	-2.148287E-3	-2.999575E-3	-5.736114E-3	-7.126032E-3	-5.638457E-3	-5.694988E-3	-1.245921E-3	-6.127993E-4	5.196086E-4	-6.544781E-4	-7.712810E-3	-8.153346E-3	-1.337284E-3	-1.043137E-3	1.998452E-4	-9.792232E-3	-3.078221E-3	-4.997892E-3	-6.766962E-3	-5.897529E-3	-3.149246E-3	1.232573E-3	4.299807E-3	2.357576E-4	5.966358E-4	-1.024848E-2	-5.743277E-3	-8.325847E-3	-7.007820E-3	-4.261834E-3	3.762988E-3	1.090876E-2	-5.385817E-3	-2.884611E-3	-1.576508E-3	-4.062636E-3	-2.322863E-3	1.566229E-3	-4.190655E-3	-5.271857E-3	-2.685153E-3	-1.375955E-3	1.198205E-3	-1.352069E-2	-5.431240E-3	-2.342827E-4	-2.825144E-3	-3.744336E-3	-8.095250E-3	5.557269E-4	-6.373466E-3	1.911646E-4	-1.270904E-3	3.517147E-4	-6.040765E-4	-4.823155E-3	1.061174E-3	7.733204E-4	-9.770294E-4	-6.038291E-3	-3.762025E-3	-4.728046E-3	-6.063765E-3	-6.861667E-3	-1.694385E-3	-1.094028E-2	1.850615E-3	3.847314E-4	8.686129E-4	-2.111863E-3	-3.022164E-3	-2.851748E-3	-5.346300E-3	-2.601401E-3	4.881400E-3	-5.232061E-3	-4.187443E-3	9.180645E-4	-2.786583E-3	-1.019370E-2	2.563712E-3	-1.923280E-3	-3.620502E-5	-1.618963E-3	-3.023001E-3	-1.779699E-3	3.199864E-4	4.371901E-3	-4.595955E-3	-1.206169E-3	-5.760776E-3	8.405712E-4	5.544955E-3	-3.659387E-4	-7.096689E-4	1.736605E-3	3.340179E-3	-2.043784E-3	2.062346E-3	2.440852E-3	-9.330684E-4	2.932421E-3	-5.782731E-3	-2.122295E-3	-1.808097E-3	-1.041212E-4	-1.457978E-2	-5.690351E-3	-1.397642E-2	2.936868E-3	4.562265E-3	1.002077E-3	-9.461043E-4	-3.657364E-3	2.518998E-3	-4.947500E-3	-1.196459E-3	-4.673195E-3	-3.999028E-3	-9.082580E-3	2.417911E-3	-3.422792E-3	-5.040522E-3	2.909743E-4	-7.436491E-3	-5.566728E-4	-7.888113E-3	3.459428E-3	-1.138897E-2	-5.208854E-3	-1.110082E-2	6.934215E-4	-7.293803E-3	6.817047E-3	-9.222759E-3	-7.478197E-3	-3.013117E-3	6.111667E-4	3.648741E-3	4.125118E-3	4.591059E-4	-6.554421E-3	-3.704771E-3	-2.078743E-3	-1.058461E-3	1.119826E-3	-9.668116E-3	2.217304E-3	-8.497517E-4	-6.281586E-3	1.245779E-3	-3.826985E-3	-3.765055E-3	3.830156E-3	-4.534098E-3	-9.109396E-3	-1.091095E-3	-1.200857E-2	-4.885598E-3	-6.421061E-3	1.494423E-3	4.356903E-4
2.795020E+2	-5.394492E-3	-6.021961E-3	2.316176E-3	-6.467011E-3	1.968750E-5	-8.312281E-3	-4.624339E-3	2.177742E-3	3.111710E-4	-1.848884E-3	-8.490336E-4	-3.844185E-3	-6.228983E-3	-2.985060E-3	-4.427754E-3	-6.012982E-3	-8.254937E-3	-4.752059E-3	2.145681E-3	-5.563684E-3	2.566890E-3	-4.417977E-3	3.140056E-4	-2.986252E-3	-4.456656E-3	-4.972461E-3	-1.155966E-4	-1.361551E-3	2.232525E-3	-3.491503E-3	2.240821E-4	-2.342915E-3	-1.366724E-4	-5.104496E-3	9.827082E-4	-1.920185E-3	5.265332E-3	-4.226956E-3	1.007657E-3	-5.631612E-3	-7.628648E-3	-7.789186E-3	-3.967287E-3	-3.487418E-3	7.655300E-4	2.135034E-3	-4.644967E-3	-7.397449E-3	9.256360E-3	-1.628658E-3	-2.451495E-3	3.083832E-3	-6.775013E-3	-5.791797E-3	-2.760369E-3	-1.266469E-3	1.890084E-3	-4.352018E-3	-5.826975E-3	-3.682023E-3	-9.210073E-4	-9.600945E-4	1.186552E-3	-3.268974E-4	-4.406973E-3	-7.821081E-3	-4.391678E-3	-3.155317E-3	3.902098E-3	-1.446922E-3	-8.294780E-3	-3.225845E-3	2.953672E-3	-9.760664E-3	-3.991799E-3	-2.536497E-3	-3.352571E-3	1.680845E-3	1.296657E-3	-4.959406E-3	3.336941E-3	-1.037746E-2	3.034046E-3	-5.495833E-3	-9.810527E-3	-8.477216E-3	-1.390254E-3	6.278966E-3	-1.295385E-4	-5.761262E-3	-5.248775E-5	-1.936849E-3	-3.387720E-3	-2.079379E-4	-5.406784E-3	-1.591103E-3	-7.428626E-3	-4.888949E-3	-6.106598E-3	-5.357022E-3	3.120250E-3	-4.509289E-3	-4.848090E-5	3.605211E-3	-6.155860E-3	-9.864994E-3	-2.325478E-4	3.953478E-3	-2.937464E-3	1.850365E-3	-2.598667E-3	-6.185636E-3	1.986381E-3	-2.883168E-3	-1.769892E-3	4.469199E-3	-6.114343E-3	-1.362902E-3	-2.124599E-3	-1.429952E-3	-7.329004E-3	-4.238507E-3	1.411416E-3	3.704393E-3	1.582930E-3	-1.570808E-3	-6.340730E-3	1.992103E-3	-2.518720E-3	2.753654E-3	-6.821725E-3	4.769111E-4	-6.918271E-3	-2.654504E-3	1.726501E-3	-3.862603E-5	-2.653825E-3	1.139442E-3	8.587164E-4	-9.598723E-3	-5.975701E-3	3.741878E-4	-4.287019E-3	-3.651639E-3	4.905602E-5	-1.141977E-3	9.662760E-4	7.602954E-3	-7.326695E-3	-1.267761E-2	-2.767595E-3	-6.207937E-3	-6.784033E-3	2.843218E-3	-1.939195E-3	3.772124E-3	-5.820588E-3	1.939445E-3	1.153284E-4	-2.841095E-3	-5.653869E-3	-6.368027E-3	-1.681887E-3	-5.773594E-3	-4.788045E-4	-4.149545E-3	-1.264310E-4	-9.715658E-3	-9.489489E-3	1.393866E-2	-1.713302E-2
2.800030E+2	1.300657E-3	-4.250800E-3	-3.172098E-3	4.871769E-4	-7.966627E-3	-4.228830E-5	-1.960475E-3	-2.796531E-3	3.990113E-3	-1.848928E-3	-9.153054E-3	3.575217E-3	-5.610323E-3	1.732079E-3	2.484729E-3	7.710327E-3	4.001300E-3	-5.718371E-4	8.964804E-4	-5.563689E-3	-6.593860E-3	-3.850841E-4	-3.728588E-3	-4.366517E-3	-6.576722E-3	-4.972466E-3	-4.632240E-3	-9.510436E-3	-1.659512E-3	-7.982814E-3	-4.818194E-3	-8.303386E-4	-5.182371E-3	-5.104520E-3	9.827205E-4	-2.519848E-4	-2.696924E-3	-4.847185E-3	1.705630E-3	-7.003089E-3	-8.374113E-3	5.703431E-4	4.791476E-3	-2.723047E-3	-1.826792E-3	-3.875590E-3	1.157925E-3	4.496799E-3	-2.491558E-3	-9.243791E-4	-5.197588E-3	-8.446424E-4	-2.868270E-3	-9.172222E-3	-2.760374E-3	1.331416E-3	1.652975E-4	-8.410919E-3	-1.029730E-2	1.551296E-3	-3.701348E-3	-2.958062E-3	-6.852591E-3	-3.219450E-3	-5.120435E-3	-4.547522E-3	-3.710545E-3	3.678563E-3	-9.138261E-3	-4.754213E-3	-1.246774E-3	1.548328E-3	-4.316947E-3	1.780915E-3	3.928789E-3	-1.507503E-4	-4.671595E-3	-9.148686E-3	-5.668077E-3	-8.733188E-3	-1.789771E-3	3.741140E-3	-2.939646E-4	-4.676552E-3	4.831220E-3	3.683386E-5	-1.390231E-3	-3.169003E-3	-3.829556E-3	-6.473808E-3	-4.634076E-3	-1.181622E-3	-5.441725E-3	4.318834E-4	-2.097769E-4	-8.699127E-4	-1.030774E-3	-2.691666E-3	-8.379975E-3	-5.356996E-3	-9.251959E-3	2.838535E-4	2.773195E-3	-3.889077E-3	3.574586E-3	-9.038969E-4	5.017724E-4	-8.567201E-3	-7.119241E-3	-6.800553E-4	-3.234417E-3	4.074911E-4	-3.451592E-3	7.818671E-4	-5.057625E-3	1.414024E-2	2.629856E-3	-1.362897E-3	-6.103027E-3	1.264834E-4	-1.041392E-3	-3.509536E-3	-6.366762E-3	-2.152925E-3	-6.594324E-3	3.542722E-4	2.696306E-3	-3.691193E-3	-4.808432E-3	-6.543504E-3	-7.113101E-4	4.732005E-3	-8.164044E-4	-4.822652E-3	1.048382E-3	1.444731E-3	5.287831E-4	-4.833253E-3	-1.546968E-3	7.698254E-3	2.571174E-4	1.042000E-3	6.324902E-4	-3.651634E-3	-7.085827E-3	7.663581E-3	-8.867026E-3	-4.837210E-3	-4.424409E-3	-4.908608E-3	-3.835624E-5	-4.031298E-3	1.836314E-3	-9.477793E-3	-5.872215E-3	-1.553249E-3	-4.444618E-3	-3.787408E-3	2.548367E-3	2.688013E-5	9.671205E-4	-3.393218E-3	-6.014527E-3	1.581770E-3	9.057359E-4	-4.819282E-3	-5.435462E-3	9.519202E-4	-6.840489E-3	2.931414E-3	-1.713299E-2
2.805050E+2	-2.883827E-3	-3.365214E-3	-8.199773E-4	-3.859183E-3	1.471732E-3	-3.049610E-3	2.701359E-3	3.598973E-3	3.254328E-3	-9.034909E-3	-2.102868E-4	-2.360328E-3	1.194754E-3	-2.985078E-3	-1.769096E-3	-9.570224E-4	-3.244428E-4	-6.145427E-3	-3.525873E-4	-4.736618E-4	-3.322134E-3	-4.418002E-3	-2.634841E-4	-3.676374E-3	-1.629815E-3	-1.183911E-3	4.401019E-3	1.004691E-2	-4.902893E-3	-2.849858E-3	2.241026E-4	3.707396E-3	1.304993E-3	-4.640191E-4	-1.712766E-3	-8.593194E-3	6.207089E-4	-1.125565E-3	-1.784130E-3	-1.457395E-4	8.771705E-3	-2.216143E-3	-1.047680E-3	-5.780515E-3	1.174338E-4	3.318124E-4	4.381701E-3	-8.097153E-3	-4.841142E-3	-7.967384E-3	-7.257242E-3	-3.987361E-3	-5.241602E-4	-8.496162E-3	-4.157301E-3	-3.214883E-3	5.339837E-3	5.118696E-3	8.785337E-4	8.036714E-4	-7.176724E-3	-3.624003E-3	-5.021531E-5	-2.496289E-3	3.440879E-3	-4.547522E-3	6.505933E-3	2.824311E-3	9.392739E-3	-7.854981E-4	3.238387E-3	1.548255E-3	-2.862824E-3	-2.066276E-3	3.285242E-4	-8.103194E-3	3.242645E-3	2.282450E-3	-1.869123E-3	7.871490E-3	-1.789771E-3	3.795727E-4	-4.953186E-3	-4.676572E-3	-4.929936E-3	-6.180546E-4	-3.278846E-3	-3.168975E-3	2.830552E-3	6.516644E-4	3.765477E-3	-7.223475E-3	3.459043E-3	-2.127312E-3	4.398489E-4	-3.033444E-3	1.101872E-3	-2.691675E-3	2.986957E-3	-1.658251E-4	3.708847E-4	1.653353E-3	-1.459345E-3	-4.825779E-4	-9.399346E-3	-9.038741E-4	1.970373E-3	-3.871975E-3	-1.495393E-4	-6.800707E-4	5.030469E-3	4.074733E-4	3.799024E-3	-1.094633E-2	-1.112345E-3	-5.201860E-3	5.014669E-3	7.749939E-4	5.276751E-4	-9.990300E-3	9.175957E-3	3.050920E-3	-4.811121E-3	2.867615E-3	-1.824261E-3	-2.874276E-4	-4.404199E-3	-2.270329E-3	6.640209E-3	2.753654E-3	-3.002703E-3	-6.331216E-3	-1.494378E-3	3.127299E-3	-7.767918E-3	-3.860793E-5	2.120048E-3	-8.246202E-3	-2.348821E-3	1.325756E-3	3.996779E-3	-9.612937E-4	-9.206528E-3	-3.651639E-3	-4.945357E-3	3.260800E-3	2.605141E-3	-3.943322E-4	1.380069E-3	2.154137E-3	-3.449932E-3	4.675207E-3	-2.473868E-3	2.118445E-3	2.729031E-5	4.532961E-3	2.435160E-3	-3.151079E-3	7.235425E-4	-1.407125E-3	1.702725E-3	-5.624361E-3	-4.570318E-3	-7.408113E-3	-1.363241E-2	4.556952E-3	3.665803E-3	7.174715E-3	-1.542497E-3	-7.376414E-4	8.473148E-3
2.810050E+2	-2.046925E-3	9.032943E-3	1.532144E-3	1.356416E-3	7.456545E-4	4.468646E-3	-6.285232E-4	2.177699E-3	-4.103538E-3	3.899931E-3	4.899921E-3	-8.764350E-4	1.813399E-3	5.527969E-4	8.895788E-4	-3.123855E-3	-1.045369E-3	1.248148E-4	-3.526254E-4	2.071378E-3	2.566950E-3	-5.090143E-3	-4.306120E-3	4.644173E-4	5.437179E-3	1.846929E-3	5.296534E-4	-5.466495E-4	6.773218E-3	-2.833591E-4	-8.964090E-4	-1.586622E-3	-1.578307E-3	6.165194E-3	-1.038861E-3	-2.520001E-4	3.274762E-3	-1.125516E-3	-1.086152E-3	-4.945862E-3	1.316966E-3	6.143429E-3	1.871851E-3	1.098744E-3	-2.474884E-3	-4.476677E-3	1.157881E-3	-7.397492E-3	1.424453E-3	6.822866E-3	-3.918778E-4	1.512456E-3	6.508055E-3	4.349464E-3	-2.760399E-3	-1.266485E-3	-5.009232E-3	-1.646080E-3	4.603850E-3	3.046558E-3	4.691991E-4	-4.955969E-3	-2.523852E-3	-3.942567E-3	-8.397865E-4	3.309031E-3	-3.710533E-3	-1.446869E-3	-1.588526E-3	-7.854860E-4	5.160524E-3	-4.313402E-5	-6.816135E-4	7.167033E-3	3.208722E-3	-3.331743E-3	5.221213E-3	-7.257106E-4	-6.028157E-4	-1.940348E-3	-3.254568E-3	-2.982007E-3	-4.953223E-3	6.792950E-3	2.739486E-3	-1.927947E-3	4.275610E-3	2.229810E-3	1.350541E-3	-1.485973E-3	3.765472E-3	4.105026E-3	7.203591E-4	1.711417E-3	-4.107544E-3	5.724500E-4	-5.296027E-3	-1.959259E-3	-3.833216E-3	5.025351E-3	-2.378519E-3	-4.509273E-3	-4.986412E-3	-3.889077E-3	2.763717E-3	3.576672E-3	-1.701130E-3	7.083617E-3	-3.634401E-3	5.851454E-4	-3.234444E-3	-2.522766E-3	-7.326219E-4	5.912959E-3	4.805566E-3	-6.081053E-3	8.989291E-3	3.625495E-3	3.843053E-3	9.046701E-4	5.304939E-4	-5.937691E-4	-3.255499E-3	-1.052045E-2	2.200536E-4	-6.704332E-3	6.569359E-3	-2.980759E-3	4.350488E-3	1.204108E-3	1.580135E-3	4.732057E-3	4.607460E-3	-3.377214E-3	6.473725E-3	-7.803272E-4	5.287977E-4	1.137832E-2	1.048117E-2	2.236095E-3	8.359732E-3	-1.629045E-3	-1.131491E-2	5.903577E-4	3.616443E-3	-2.609574E-3	1.468134E-4	-7.502963E-3	-7.104534E-5	4.272941E-3	-2.767654E-3	-3.305761E-3	3.995848E-4	-3.679705E-3	2.649335E-3	-5.357092E-3	-2.380671E-3	-3.151072E-3	1.940149E-3	7.439068E-4	6.116744E-3	1.812822E-3	1.928592E-3	1.384062E-2	-1.863433E-3	-4.819278E-3	6.320277E-4	-6.159799E-3	-2.179926E-4	2.931414E-3	-4.329923E-3
2.815000E+2	-3.731465E-4	-7.084679E-4	-8.199725E-4	3.094968E-3	1.970965E-5	-7.940808E-4	-3.958385E-3	2.177759E-3	-4.103533E-3	-2.567482E-3	-2.102868E-4	4.317150E-3	5.761206E-4	5.527861E-4	1.421237E-3	-5.290671E-3	3.965012E-4	5.698413E-3	-2.226345E-3	8.009710E-3	-3.322115E-3	-1.729359E-3	-4.883648E-3	5.295314E-3	4.730476E-3	-5.730148E-3	3.110574E-3	-3.806219E-3	4.827211E-3	-2.834374E-4	-1.456694E-3	-6.880742E-3	4.188244E-3	-2.452853E-3	-2.386654E-3	4.752753E-3	-4.285901E-5	1.150178E-4	1.007610E-3	4.654424E-3	-3.155850E-3	-8.228764E-4	1.142001E-3	4.156226E-3	4.005972E-3	3.337179E-3	-1.316645E-4	4.496752E-3	-5.624337E-3	-5.854454E-3	5.786902E-3	-9.487279E-3	4.163993E-3	6.377745E-3	6.319654E-3	6.527148E-3	-5.871651E-3	3.089269E-3	1.335060E-4	6.037054E-3	4.691695E-4	1.037828E-3	-1.287051E-3	-3.269327E-4	5.581195E-3	-6.192396E-4	3.759904E-4	-2.301116E-3	-5.706597E-3	-2.769874E-3	3.879092E-3	-1.634480E-3	7.316080E-3	-5.913468E-3	-3.991782E-3	-1.507697E-4	-2.033547E-3	-2.530648E-3	7.628261E-3	1.078673E-3	1.139789E-3	3.795809E-4	3.699666E-3	2.696704E-3	1.345066E-3	5.276229E-3	-7.056099E-3	1.554954E-3	2.830539E-3	4.214424E-3	-5.251569E-5	4.104971E-3	3.566734E-5	-1.487522E-3	-1.509048E-3	7.062994E-3	1.101855E-3	2.435321E-3	6.775978E-3	-7.087377E-3	4.494975E-3	-4.509260E-3	2.773165E-3	1.987452E-4	-4.534133E-3	-9.038741E-4	-1.701099E-3	4.075386E-5	-1.495223E-4	-1.312654E-3	-1.962917E-3	7.733178E-3	-1.638927E-3	3.713972E-3	-5.057633E-3	-5.201844E-3	2.629890E-3	2.200227E-3	-4.113793E-3	-1.429990E-3	-4.185174E-3	-4.238498E-3	4.522722E-3	-4.663166E-3	-1.142831E-3	1.637668E-3	4.632864E-3	4.123363E-3	-9.922027E-4	-3.454145E-4	8.162855E-4	4.769163E-4	1.895518E-3	-2.654518E-3	1.726538E-3	-3.005385E-3	-2.653820E-3	-4.833269E-3	-2.348816E-3	6.787954E-3	-1.612733E-3	5.716244E-3	3.443665E-3	3.983920E-3	2.189496E-3	-1.141991E-3	-1.492037E-3	2.271437E-3	-2.973309E-3	2.860416E-3	-3.449936E-3	1.047543E-3	5.428114E-3	8.641284E-3	2.733030E-5	3.772161E-3	-8.572476E-3	-4.423710E-3	1.940104E-3	-2.124099E-3	1.702743E-3	1.073740E-2	-3.848227E-3	-2.504565E-3	7.828703E-3	5.385864E-4	8.974810E-3	1.161954E-2	-2.866993E-3	-8.075786E-3	-4.329923E-3
2.820040E+2	-2.046915E-3	1.062693E-3	7.020366E-3	3.964229E-3	4.375791E-3	1.123498E-2	2.035365E-3	-7.060273E-3	-2.631959E-3	-1.130325E-3	7.455033E-3	3.575272E-3	6.762579E-3	6.449207E-3	8.865372E-3	4.098920E-3	6.885169E-3	2.911605E-3	2.145640E-3	4.616386E-3	9.764632E-3	1.036930E-2	8.399309E-3	2.534800E-3	-3.043225E-3	3.362326E-3	5.296258E-4	4.342712E-3	2.864830E-4	8.699318E-3	3.025390E-3	-8.303201E-4	-1.578263E-3	4.176393E-3	7.047602E-3	4.752783E-3	-1.369946E-3	6.317763E-3	2.403565E-3	-1.517166E-3	-1.664893E-3	8.233263E-3	2.601769E-3	3.391860E-3	5.950241E-3	3.318234E-4	6.315947E-3	8.694763E-3	6.123625E-3	4.005691E-3	7.846502E-3	4.655246E-3	3.382612E-3	9.082106E-3	-6.650192E-4	-1.266445E-3	-2.421988E-3	5.795174E-3	6.838978E-3	6.784687E-3	1.164243E-3	5.033662E-3	-5.025303E-5	7.627484E-3	5.581195E-3	3.544351E-5	3.760070E-4	-8.280733E-3	5.961046E-3	5.374299E-4	7.082731E-3	-8.388021E-4	4.407843E-3	1.780967E-3	-1.831620E-3	4.620681E-3	-5.497140E-5	-4.937189E-3	-2.502320E-3	-4.204610E-3	2.604569E-3	4.413482E-3	6.362048E-3	-3.857297E-3	1.389505E-2	-1.927947E-3	3.646113E-3	4.929231E-3	5.050626E-3	-5.048698E-3	1.474671E-3	4.860235E-3	-6.490202E-4	1.071681E-3	2.388715E-3	7.063030E-3	3.909600E-4	9.027161E-3	-4.419536E-5	1.194689E-2	-3.753177E-3	1.653362E-3	-3.575600E-3	5.649068E-3	1.168333E-2	2.829894E-3	-3.169721E-3	-3.871951E-3	1.941356E-3	5.013427E-3	-5.564766E-5	4.802921E-3	9.236913E-3	5.912950E-3	4.805566E-3	7.323685E-5	-2.934594E-3	7.749895E-4	1.853830E-3	4.795713E-3	-2.554276E-4	8.882499E-3	5.300481E-3	-1.316152E-3	1.044157E-2	6.129465E-3	1.405290E-3	3.412937E-3	1.297509E-3	-6.543509E-3	1.303721E-2	-2.076116E-3	-8.163961E-4	7.463581E-3	-1.664352E-3	3.669807E-3	-2.653845E-3	6.258868E-3	7.273683E-3	3.146494E-3	-3.482598E-3	-2.296767E-3	6.957636E-3	7.377513E-3	8.610917E-3	-4.077140E-3	7.521732E-3	-6.614374E-3	6.545139E-4	2.860386E-3	6.784696E-3	6.851824E-3	2.554682E-3	-2.230173E-3	2.649335E-3	1.489826E-3	8.626931E-3	5.757318E-3	7.235648E-4	3.611869E-3	-7.860876E-3	3.253715E-4	1.420440E-2	1.581755E-3	2.290318E-3	1.208311E-3	2.907353E-3	1.840910E-3	1.037801E-2	-4.406708E-3	2.554390E-2
2.825030E+2	8.832800E-3	8.147357E-3	1.532153E-3	1.356384E-3	1.966093E-5	5.220388E-3	9.361135E-3	4.309574E-3	4.725880E-3	1.467888E-2	1.067281E-3	1.349423E-3	8.618484E-3	2.321725E-3	-1.769079E-3	4.821205E-3	-1.045422E-3	2.214881E-3	-1.601766E-3	4.616371E-3	6.492982E-3	7.008549E-3	5.511663E-3	2.534767E-3	1.533099E-2	1.472795E-2	1.174856E-3	7.602191E-3	-1.659504E-3	9.340900E-3	2.465150E-3	4.463735E-3	2.746618E-3	2.187665E-3	6.373726E-3	7.255104E-3	3.274774E-3	1.190026E-2	1.007653E-3	1.082606E-2	-1.739274E-4	1.266987E-3	-2.507519E-3	4.920657E-3	-2.474864E-3	4.539281E-3	-9.803052E-3	9.394436E-3	1.424457E-3	8.231470E-3	3.040754E-3	3.869544E-3	9.633474E-3	9.082106E-3	7.018090E-3	1.980861E-3	9.651989E-3	8.501128E-3	3.113681E-3	-8.167777E-3	9.505304E-3	7.697542E-3	9.225695E-3	3.288728E-3	5.870803E-4	1.312972E-2	3.781505E-3	9.658191E-3	3.215792E-3	1.376659E-2	-5.091133E-3	8.709443E-3	4.545686E-5	8.705879E-3	1.328945E-2	7.801659E-3	1.264097E-3	1.251033E-2	3.829280E-3	1.390955E-2	2.604560E-3	9.791989E-3	-2.939849E-4	4.335200E-3	-2.838296E-3	1.182555E-2	4.275641E-3	-5.868400E-3	2.090535E-3	1.133994E-2	-2.343261E-3	-2.692081E-3	6.882359E-3	3.630791E-3	1.018429E-2	-9.524001E-3	6.788838E-3	5.365020E-3	9.807218E-3	6.755753E-3	6.556972E-3	4.392299E-3	4.889416E-3	-4.826236E-4	3.311006E-4	2.829894E-3	6.376137E-3	3.170932E-3	9.607960E-3	-3.843090E-3	3.123203E-3	1.140069E-3	-7.076883E-3	-6.841541E-4	3.490484E-3	1.238185E-2	-4.524418E-3	9.326515E-3	3.179993E-3	2.461110E-3	2.102471E-3	1.592996E-3	6.856127E-3	9.561685E-3	2.264364E-3	1.637621E-3	1.143048E-4	3.412907E-3	5.113729E-3	4.303101E-3	-1.475103E-3	3.029965E-3	3.251497E-3	1.035450E-2	-9.862037E-4	6.636522E-3	1.324433E-3	1.052506E-2	-7.160112E-3	-4.950097E-4	-2.236020E-3	5.048477E-3	6.957619E-3	8.225880E-3	5.043469E-3	1.059418E-3	-1.492067E-3	5.825747E-3	8.635758E-3	4.979229E-3	1.224320E-2	4.675194E-3	1.117949E-3	2.843187E-3	1.338293E-3	3.011384E-3	7.938957E-3	7.666259E-3	-1.709470E-3	7.438849E-4	6.852398E-3	6.275068E-3	-3.848192E-3	3.216229E-3	1.405929E-2	8.575350E-3	1.390468E-3	-8.260258E-4	1.700051E-2	-8.075775E-3	8.473122E-3
2.830040E+2	2.137585E-3	5.490600E-3	7.020418E-3	2.225719E-3	-3.610475E-3	1.048314E-2	1.002708E-2	4.309583E-3	-4.245734E-4	1.180449E-2	4.899925E-3	3.575204E-3	1.813407E-3	4.090679E-3	5.143335E-3	4.098898E-3	2.058325E-2	1.196863E-2	9.015931E-3	-4.736152E-4	6.492979E-3	5.664291E-3	8.976802E-3	1.081635E-2	3.317097E-3	4.877745E-3	7.627253E-3	7.602246E-3	8.719268E-3	9.340896E-3	1.344641E-3	9.757823E-3	2.292953E-2	8.153963E-3	-4.408281E-3	9.757516E-3	8.582977E-3	7.558311E-3	3.799435E-3	6.025897E-3	1.324453E-2	-1.262666E-4	4.061550E-3	1.638613E-2	5.950217E-3	9.347810E-3	5.671204E-3	3.797121E-3	2.207633E-3	6.822844E-3	3.040758E-3	2.298172E-3	1.275884E-2	1.043426E-2	-6.650022E-4	3.279810E-3	1.890132E-3	1.053064E-2	1.577972E-2	1.351323E-2	1.859334E-3	9.695481E-3	4.278542E-3	8.350606E-3	6.294639E-3	5.927923E-3	6.505954E-3	1.115811E-3	9.392743E-3	1.112081E-2	3.468945E-5	4.731010E-3	-5.771017E-3	9.475336E-3	9.689173E-3	1.257310E-2	3.902128E-3	8.298803E-3	3.196173E-3	1.089053E-2	1.285802E-2	1.584282E-2	-9.595805E-4	9.250706E-3	1.110616E-2	2.656524E-3	2.387022E-3	1.554963E-3	9.490674E-3	9.914805E-3	5.292673E-3	8.636365E-3	1.405042E-3	8.109350E-3	4.337664E-3	4.178308E-3	4.656205E-3	1.049198E-2	1.283838E-2	6.755727E-3	2.432911E-3	7.815984E-3	-7.539064E-4	1.450592E-2	6.007203E-3	1.851183E-2	8.578995E-3	7.083632E-3	-1.495563E-4	6.911207E-3	7.573523E-3	9.930848E-3	1.195587E-2	9.577985E-3	8.093300E-3	3.590038E-3	1.834998E-3	1.075182E-2	1.113690E-2	4.795751E-3	1.546366E-2	8.882463E-3	1.074523E-2	7.051448E-3	1.112304E-2	8.054569E-3	8.505866E-3	5.712390E-4	1.656239E-2	1.050118E-2	6.926752E-3	1.494429E-2	1.274327E-2	3.127281E-3	4.439214E-3	1.331167E-2	2.915727E-3	-1.420310E-3	1.128312E-2	4.056816E-3	5.243327E-3	1.709755E-3	9.768759E-3	9.922630E-3	4.329958E-3	4.728383E-3	-6.726393E-4	9.380090E-3	8.635749E-3	7.415773E-4	1.326218E-3	3.224150E-3	1.189340E-2	1.393686E-3	8.548880E-3	9.858307E-3	9.314897E-3	1.848361E-2	1.167231E-2	1.460877E-3	1.053074E-2	-7.111761E-3	1.276021E-2	1.384058E-2	5.059471E-3	7.235904E-3	8.216425E-3	1.073055E-2	1.170248E-2	3.228395E-2	-8.597631E-3
2.835020E+2	2.054936E-2	1.788872E-2	3.210950E-2	1.091838E-2	1.526627E-2	2.476769E-2	1.735279E-2	1.710068E-2	2.312057E-2	8.211443E-3	1.001009E-2	1.025268E-2	1.171172E-2	2.060069E-2	8.865378E-3	5.543486E-3	1.337369E-2	2.911605E-3	1.713530E-2	3.746692E-4	1.892545E-2	1.709084E-2	1.706212E-2	1.564718E-2	1.674438E-2	1.775875E-2	1.278913E-2	1.167665E-2	2.299002E-2	1.447384E-2	9.748452E-3	2.194861E-3	1.283812E-2	1.279448E-2	3.678232E-3	2.060110E-2	1.588173E-2	1.748275E-2	1.496653E-2	6.711635E-3	1.249909E-2	2.355914E-2	1.865939E-2	1.485741E-2	9.190639E-3	5.741441E-3	1.856649E-2	6.595793E-3	1.003962E-2	1.316153E-2	5.786889E-3	1.094080E-2	-5.242078E-4	1.178644E-2	1.539966E-2	1.107348E-2	2.258830E-2	1.797194E-2	1.950501E-2	9.775138E-3	1.576103E-2	1.635523E-2	6.752126E-3	1.268936E-2	4.154289E-3	6.582582E-3	7.187016E-3	1.734628E-2	6.647389E-3	2.302701E-2	1.349001E-2	1.825762E-2	1.167845E-2	2.024744E-2	6.808974E-3	9.392156E-3	1.775215E-2	1.612017E-2	6.361938E-3	1.994765E-2	1.725243E-2	7.775066E-3	1.568052E-2	1.662398E-2	6.225580E-3	4.621321E-3	1.434829E-2	2.045084E-2	1.763083E-2	1.704027E-2	1.751012E-2	1.543339E-2	1.030573E-2	1.450732E-2	1.148356E-2	1.066884E-2	1.105410E-2	1.195689E-2	2.268980E-2	1.367729E-2	1.617981E-2	2.493440E-2	2.323034E-2	6.330349E-3	1.898112E-2	2.224558E-2	2.546776E-2	1.960436E-2	1.100192E-2	1.197211E-2	1.393118E-2	1.212862E-2	1.195592E-2	1.764120E-2	2.058663E-2	2.205287E-2	1.455387E-2	1.859072E-2	9.810728E-3	1.335612E-2	1.703552E-2	1.325615E-2	1.230087E-2	1.625571E-2	2.270743E-2	1.896328E-2	1.431538E-2	1.477950E-2	1.121963E-2	1.205073E-2	1.685613E-2	1.579524E-2	1.477720E-2	1.902712E-2	7.830092E-3	3.185385E-2	1.166784E-2	2.844321E-2	1.208498E-2	-5.046897E-3	8.359740E-3	8.387219E-3	2.312179E-2	2.689062E-2	1.217830E-2	2.674225E-2	2.718833E-2	2.270879E-2	1.153797E-2	1.062937E-2	2.690825E-3	1.338172E-2	9.738344E-3	1.588901E-2	7.237866E-3	1.366217E-2	1.757062E-2	2.293781E-2	1.410541E-2	1.651784E-2	1.273773E-2	1.073733E-2	8.427545E-3	1.220607E-2	1.959766E-2	1.996082E-2	1.200865E-2	1.161946E-2	1.170259E-2	1.760767E-2	8.473148E-3
2.840020E+2	2.054934E-2	4.711298E-2	2.583727E-2	3.178075E-2	2.252645E-2	3.078227E-2	1.801881E-2	3.770853E-2	2.974266E-2	2.976952E-2	2.086918E-2	1.470433E-2	2.841520E-2	2.354895E-2	2.481716E-2	3.515686E-2	2.202515E-2	1.614882E-2	2.463020E-2	2.158316E-2	2.416016E-2	2.112375E-2	2.861248E-2	2.944979E-2	2.027787E-2	2.685118E-2	2.311295E-2	2.308508E-2	2.234134E-2	2.602300E-2	2.319457E-2	2.715260E-2	2.869610E-2	2.605292E-2	3.198088E-2	2.560577E-2	3.645101E-2	3.174910E-2	2.403989E-2	2.591225E-2	2.889946E-2	4.306468E-2	1.282022E-2	2.326546E-2	2.150417E-2	2.677860E-2	1.792168E-2	2.058908E-2	2.648672E-2	2.302171E-2	2.226370E-2	2.979756E-2	3.854359E-2	1.922345E-2	2.098734E-2	1.821767E-2	2.776280E-2	2.744268E-2	3.366107E-2	2.323235E-2	2.827255E-2	2.434686E-2	2.715926E-2	2.715194E-2	3.055166E-2	1.836746E-2	2.285226E-2	3.186830E-2	2.655108E-2	2.964159E-2	1.541224E-2	2.541882E-2	2.040326E-2	2.409467E-2	1.472957E-2	3.006847E-2	2.434738E-2	2.694966E-2	1.395985E-2	2.975944E-2	1.651997E-2	2.256601E-2	1.900860E-2	2.563581E-2	1.598672E-2	3.212821E-2	1.497783E-2	1.910114E-2	2.873102E-2	2.915362E-2	2.438245E-2	2.298570E-2	2.262984E-2	3.370105E-2	2.837384E-2	1.788064E-2	2.100634E-2	3.978908E-2	2.799440E-2	1.627290E-2	2.855205E-2	3.246650E-2	2.675737E-2	2.540663E-2	1.817033E-2	2.000532E-2	2.693637E-2	2.038689E-2	2.424431E-2	1.450253E-2	1.520270E-2	3.410573E-2	3.823928E-2	2.717032E-2	2.518949E-2	3.436147E-2	3.522194E-2	2.928017E-2	1.843069E-2	2.814209E-2	2.253719E-2	3.075074E-2	2.319033E-2	3.633785E-2	3.020324E-2	2.088829E-2	2.464348E-2	3.396062E-2	3.182720E-2	2.599644E-2	3.213226E-2	1.749733E-2	3.511670E-2	3.059061E-2	2.139362E-2	4.001243E-2	2.837655E-2	2.758990E-2	2.732067E-2	2.226414E-2	2.955130E-2	1.773583E-2	2.523017E-2	4.216168E-2	2.858848E-2	3.408022E-2	1.981339E-2	3.603755E-2	2.967718E-2	3.464267E-2	2.111317E-2	2.716707E-2	1.979534E-2	3.400817E-2	3.214710E-2	2.963832E-2	2.101049E-2	3.439148E-2	3.539462E-2	2.297082E-2	2.671534E-2	2.189303E-2	3.514554E-2	3.754114E-2	2.998204E-2	1.929104E-2	2.035138E-2	2.139809E-2	1.832505E-2	2.861494E-2	8.473122E-3
2.841010E+2	3.477666E-2	3.648597E-2	1.407666E-2	2.134963E-2	2.615658E-2	2.551952E-2	2.134865E-2	2.562802E-2	2.753532E-2	1.755332E-2	1.064884E-2	2.583332E-2	2.841523E-2	2.177995E-2	2.694406E-2	3.371232E-2	2.923467E-2	2.311577E-2	2.650391E-2	2.327986E-2	2.743184E-2	3.187817E-2	1.879468E-2	1.840776E-2	3.723869E-2	1.927419E-2	2.569386E-2	2.308513E-2	6.124542E-3	2.730621E-2	1.983302E-2	2.563997E-2	3.878762E-2	3.069339E-2	2.456829E-2	1.559631E-2	3.246985E-2	2.492605E-2	1.706037E-2	1.494048E-2	2.442666E-2	4.236812E-2	1.792953E-2	2.938041E-2	2.928117E-2	2.076796E-2	2.694832E-2	1.079374E-2	1.708835E-2	2.583888E-2	2.981555E-2	3.372593E-2	3.776215E-2	2.936471E-2	2.727354E-2	2.081553E-2	2.086340E-2	3.217806E-2	3.217099E-2	3.594199E-2	2.757745E-2	2.567886E-2	2.468561E-2	2.642881E-2	1.985000E-2	1.574858E-2	1.467909E-2	2.588865E-2	2.517844E-2	3.427178E-2	2.566390E-2	2.860154E-2	2.185734E-2	3.332795E-2	2.121003E-2	1.734457E-2	2.896397E-2	2.815289E-2	2.029143E-2	1.919284E-2	1.944956E-2	1.920438E-2	1.701175E-2	3.956303E-2	2.574785E-2	1.837476E-2	1.938460E-2	2.854909E-2	2.207095E-2	2.416576E-2	1.292862E-2	1.618857E-2	1.920648E-2	2.538377E-2	2.122793E-2	2.509243E-2	2.527163E-2	2.953508E-2	2.723661E-2	1.886850E-2	2.786471E-2	2.630391E-2	2.534660E-2	2.608796E-2	2.790074E-2	1.851184E-2	2.179632E-2	2.273452E-2	3.191096E-2	2.335902E-2	7.573535E-3	2.165202E-2	2.555081E-2	2.423828E-2	2.518947E-2	3.260315E-2	3.124739E-2	2.785488E-2	2.174608E-2	2.580745E-2	2.646699E-2	2.054552E-2	3.330193E-2	1.960272E-2	2.134455E-2	3.564717E-2	2.077049E-2	2.756681E-2	2.037853E-2	2.522173E-2	2.373049E-2	3.366672E-2	3.308276E-2	3.564970E-2	1.325546E-2	2.962880E-2	3.792443E-2	2.844316E-2	2.892445E-2	3.500933E-2	2.456505E-2	1.640029E-2	1.890509E-2	2.943573E-2	2.216710E-2	2.160571E-2	2.227166E-2	2.626314E-2	2.604930E-2	3.464273E-2	2.452478E-2	2.208828E-2	2.195044E-2	3.255856E-2	2.624748E-2	9.097544E-3	1.757063E-2	3.630043E-2	2.870375E-2	2.081982E-2	2.083005E-2	1.891815E-2	6.983380E-3	2.855132E-2	2.375138E-2	4.407107E-2	3.021111E-2	2.584296E-2	2.892103E-2	4.329111E-2	4.261471E-2
2.842040E+2	3.142905E-2	2.408787E-2	1.799685E-2	3.091153E-2	3.704697E-2	3.003042E-2	2.334660E-2	2.278556E-2	1.649851E-2	2.186486E-2	2.278555E-2	2.360759E-2	1.913549E-2	2.001106E-2	1.365087E-2	2.360044E-2	2.851377E-2	3.147616E-2	2.088275E-2	2.836984E-2	2.808621E-2	3.255035E-2	1.244194E-2	3.013995E-2	1.815776E-2	2.230504E-2	2.762954E-2	3.449351E-2	2.428741E-2	2.730624E-2	1.983308E-2	1.807702E-2	2.581282E-2	2.207541E-2	1.850349E-2	1.976696E-2	3.446047E-2	2.616659E-2	1.706038E-2	2.316930E-2	3.188136E-2	3.122198E-2	9.900707E-3	2.632295E-2	2.992926E-2	2.437434E-2	2.565884E-2	2.058907E-2	2.413719E-2	1.879595E-2	1.539843E-2	2.429758E-2	3.073003E-2	3.004081E-2	2.657506E-2	2.276391E-2	3.897427E-2	2.879570E-2	3.068086E-2	2.397996E-2	2.618725E-2	3.233859E-2	1.788329E-2	3.149072E-2	3.055168E-2	2.229573E-2	1.399800E-2	2.845134E-2	3.272807E-2	1.971970E-2	1.284931E-2	3.098858E-2	2.694680E-2	3.563625E-2	2.625037E-2	3.643042E-2	2.896400E-2	2.273815E-2	1.965827E-2	3.202377E-2	2.237915E-2	2.189369E-2	1.501497E-2	2.563575E-2	3.272009E-2	2.688879E-2	2.442091E-2	1.775144E-2	2.651098E-2	2.487830E-2	2.438250E-2	2.374093E-2	2.057583E-2	2.602356E-2	2.122800E-2	2.941945E-2	2.242813E-2	2.953510E-2	2.117417E-2	2.319448E-2	3.061406E-2	2.767340E-2	2.323032E-2	1.995627E-2	1.979200E-2	2.448585E-2	2.253062E-2	7.866168E-3	3.191094E-2	2.778731E-2	2.346761E-2	3.044288E-2	4.277091E-2	3.376742E-2	1.269612E-2	2.381129E-2	3.124734E-2	2.642969E-2	1.378919E-2	2.191649E-2	2.568097E-2	2.054554E-2	1.618997E-2	1.207191E-2	2.611466E-2	2.730522E-2	2.077047E-2	2.401484E-2	2.801097E-2	2.522170E-2	2.067525E-2	2.260342E-2	3.308274E-2	2.047260E-2	1.732458E-2	2.888713E-2	3.235489E-2	2.417691E-2	2.090566E-2	3.956122E-2	1.521583E-2	2.508107E-2	2.101339E-2	1.586145E-2	2.787504E-2	2.894365E-2	2.964660E-2	1.293445E-2	2.314707E-2	3.605527E-2	2.793634E-2	1.555837E-2	2.195047E-2	3.400811E-2	2.231449E-2	2.355219E-2	1.413072E-2	2.484680E-2	3.235330E-2	2.942374E-2	2.009444E-2	3.156134E-2	2.214760E-2	3.345486E-2	3.621270E-2	4.273160E-2	1.428393E-2	1.339744E-2	1.964947E-2	2.494579E-2	3.407929E-2
2.843030E+2	3.645039E-2	5.685440E-2	3.994983E-2	4.742757E-2	2.906073E-2	4.882586E-2	3.267027E-2	2.918111E-2	3.783636E-2	3.479970E-2	3.108955E-2	3.176890E-2	4.326274E-2	2.944536E-2	3.704684E-2	4.165738E-2	2.995568E-2	2.590262E-2	3.774610E-2	3.430815E-2	3.659265E-2	3.658323E-2	2.745743E-2	3.842148E-2	4.359900E-2	3.670150E-2	3.279144E-2	4.590199E-2	4.439625E-2	3.628890E-2	3.888176E-2	4.152216E-2	4.311249E-2	3.798559E-2	2.928541E-2	3.811765E-2	4.640388E-2	4.477485E-2	4.428025E-2	2.659799E-2	4.231791E-2	5.351416E-2	5.077464E-2	4.390341E-2	3.705816E-2	3.579459E-2	3.790927E-2	5.557215E-2	5.624814E-2	3.992485E-2	4.629230E-2	4.786844E-2	4.557577E-2	5.437985E-2	4.892585E-2	3.380490E-2	3.638697E-2	3.691349E-2	3.142588E-2	2.996092E-2	3.661353E-2	3.833238E-2	4.694791E-2	4.739952E-2	3.126511E-2	3.604473E-2	4.464730E-2	2.503438E-2	4.165041E-2	4.750095E-2	4.104139E-2	4.371955E-2	4.294218E-2	4.256121E-2	3.417095E-2	3.802090E-2	4.809008E-2	4.921027E-2	2.978880E-2	5.391166E-2	4.654806E-2	2.794453E-2	3.165506E-2	4.693636E-2	3.899502E-2	4.326197E-2	2.819819E-2	3.259820E-2	4.427135E-2	4.482968E-2	3.736354E-2	3.129323E-2	3.700797E-2	4.009897E-2	4.526414E-2	4.312170E-2	3.166948E-2	3.978907E-2	3.860361E-2	3.444198E-2	3.473818E-2	4.547654E-2	2.957908E-2	3.766995E-2	4.168552E-2	4.016777E-2	3.501360E-2	3.055995E-2	3.748672E-2	5.688726E-2	3.427559E-2	4.069890E-2	5.455315E-2	4.549563E-2	3.373756E-2	3.348227E-2	3.840165E-2	4.068225E-2	3.699666E-2	3.825892E-2	4.532982E-2	3.366648E-2	2.241253E-2	3.633787E-2	5.473489E-2	4.527251E-2	3.303496E-2	4.745836E-2	2.953749E-2	3.451880E-2	4.129793E-2	3.536875E-2	3.037081E-2	4.359965E-2	2.546265E-2	4.223739E-2	4.588094E-2	4.380141E-2	3.854700E-2	4.411299E-2	3.578413E-2	4.177487E-2	4.069152E-2	5.403925E-2	4.571219E-2	4.655478E-2	4.111881E-2	3.781476E-2	5.289523E-2	5.865601E-2	4.704100E-2	3.079480E-2	5.140334E-2	5.575105E-2	3.214703E-2	4.104986E-2	3.683391E-2	4.839038E-2	3.174504E-2	2.727276E-2	3.407202E-2	4.941040E-2	2.648024E-2	4.489649E-2	5.075086E-2	4.942893E-2	4.158768E-2	3.739953E-2	2.759651E-2	4.879479E-2	3.407929E-2
2.844010E+2	6.072050E-2	7.722282E-2	6.817504E-2	7.002859E-2	7.770443E-2	9.318304E-2	5.597942E-2	6.755435E-2	6.726777E-2	7.216696E-2	5.025274E-2	6.589805E-2	6.615266E-2	6.659298E-2	5.565714E-2	6.404797E-2	7.105013E-2	6.840105E-2	6.272892E-2	8.690523E-2	7.650741E-2	6.884649E-2	5.171327E-2	5.981541E-2	6.621342E-2	8.216389E-2	5.150326E-2	6.953371E-2	6.774848E-2	5.617900E-2	5.176761E-2	7.101767E-2	6.689947E-2	7.113182E-2	5.893588E-2	7.732133E-2	7.294489E-2	7.082649E-2	5.823913E-2	6.225624E-2	6.840943E-2	7.789610E-2	8.143011E-2	5.766200E-2	6.427763E-2	5.803390E-2	6.885773E-2	8.215934E-2	6.173060E-2	6.950542E-2	6.757475E-2	8.243902E-2	6.901641E-2	8.480383E-2	5.591051E-2	6.173215E-2	7.433361E-2	8.291430E-2	7.538424E-2	5.164197E-2	7.067260E-2	6.830126E-2	6.735495E-2	8.355592E-2	5.409526E-2	5.437662E-2	5.826931E-2	7.372574E-2	6.224040E-2	7.131340E-2	5.962256E-2	5.804190E-2	5.966463E-2	7.641651E-2	5.793259E-2	6.028772E-2	6.853532E-2	7.026767E-2	5.321575E-2	5.693074E-2	6.485781E-2	7.635122E-2	5.628244E-2	6.168284E-2	5.712283E-2	7.535335E-2	3.764127E-2	6.904026E-2	7.461196E-2	6.834369E-2	7.019808E-2	5.697096E-2	6.781823E-2	6.952939E-2	5.825669E-2	5.033346E-2	5.655013E-2	7.714282E-2	7.573583E-2	5.174591E-2	7.048007E-2	7.697437E-2	6.273375E-2	6.015273E-2	7.979650E-2	7.078484E-2	6.732267E-2	6.890453E-2	5.421400E-2	6.258070E-2	5.970615E-2	6.194340E-2	7.449230E-2	7.115101E-2	6.661474E-2	7.744156E-2	6.065964E-2	6.847480E-2	5.291051E-2	4.292812E-2	6.890837E-2	6.573987E-2	5.585869E-2	7.231824E-2	6.223070E-2	6.323984E-2	6.660117E-2	7.161229E-2	5.014499E-2	5.543739E-2	5.199114E-2	7.536669E-2	6.427002E-2	9.635827E-2	4.377337E-2	7.338820E-2	7.452433E-2	7.025191E-2	8.024472E-2	5.867896E-2	5.759900E-2	5.980418E-2	6.599200E-2	6.931041E-2	6.069536E-2	6.343206E-2	7.471581E-2	7.069217E-2	7.901559E-2	7.843160E-2	5.249940E-2	4.603125E-2	7.941942E-2	6.952164E-2	6.164480E-2	5.854754E-2	6.572896E-2	7.447936E-2	6.641605E-2	7.459465E-2	5.540635E-2	6.725952E-2	5.680869E-2	7.268331E-2	6.598128E-2	7.688787E-2	6.434079E-2	8.006969E-2	5.143752E-2	7.998187E-2	5.968546E-2
2.845010E+2	9.001200E-2	1.135316E-1	1.285457E-1	1.021915E-1	1.096497E-1	1.345330E-1	1.139193E-1	9.740019E-2	9.596345E-2	1.016296E-1	9.113411E-2	1.067048E-1	9.461046E-2	7.838589E-2	8.383854E-2	1.131629E-1	1.006092E-1	8.512173E-2	9.832938E-2	1.021753E-1	1.033353E-1	1.098479E-1	8.520934E-2	9.639221E-2	1.128556E-1	1.177761E-1	9.086262E-2	9.316548E-2	1.073174E-1	1.094334E-1	8.986499E-2	1.118576E-1	1.108695E-1	9.168252E-2	9.397729E-2	9.400382E-2	9.948588E-2	1.055620E-1	8.545904E-2	8.899996E-2	1.198469E-1	1.057613E-1	9.310847E-2	7.906433E-2	1.083472E-1	8.688492E-2	1.023853E-1	9.405359E-2	9.305842E-2	9.415581E-2	9.915526E-2	1.209380E-1	1.151163E-1	1.179321E-1	9.362752E-2	9.030888E-2	9.761899E-2	1.045617E-1	9.699086E-2	9.649921E-2	8.735464E-2	8.628252E-2	9.765639E-2	1.066960E-1	7.121781E-2	7.467271E-2	8.415102E-2	1.104578E-1	1.082247E-1	1.162926E-1	8.268882E-2	9.464335E-2	1.156485E-1	1.233523E-1	7.881414E-2	8.812114E-2	8.634235E-2	1.039594E-1	8.297417E-2	9.542334E-2	8.975913E-2	9.383141E-2	7.425383E-2	1.370541E-1	1.073228E-1	1.094095E-1	8.233874E-2	9.468467E-2	7.757205E-2	1.139468E-1	8.394277E-2	8.415918E-2	8.835840E-2	1.008792E-1	9.918321E-2	9.937332E-2	8.711774E-2	9.691837E-2	9.619641E-2	1.183659E-1	9.384982E-2	1.057334E-1	8.742345E-2	1.030744E-1	1.097987E-1	1.133499E-1	9.596013E-2	1.095968E-1	8.906222E-2	1.011698E-1	9.213004E-2	1.066302E-1	9.443142E-2	1.019376E-1	8.173837E-2	9.590440E-2	9.881615E-2	1.247725E-1	9.468410E-2	7.872593E-2	1.192093E-1	8.542128E-2	8.930486E-2	1.032782E-1	9.425816E-2	7.414855E-2	9.435791E-2	1.078432E-1	8.754389E-2	1.042473E-1	1.016385E-1	1.264279E-1	1.144408E-1	1.324943E-1	9.734915E-2	1.193727E-1	9.600696E-2	1.129139E-1	8.345222E-2	9.873510E-2	9.499580E-2	8.985305E-2	9.972589E-2	1.108817E-1	9.351575E-2	9.205007E-2	1.066740E-1	1.044583E-1	9.425247E-2	1.123327E-1	8.661490E-2	9.246601E-2	1.117457E-1	1.217048E-1	8.983148E-2	8.137065E-2	8.499227E-2	9.547785E-2	1.004788E-1	9.610460E-2	8.556857E-2	9.477696E-2	8.785928E-2	1.004701E-1	1.082111E-1	1.251085E-1	7.116672E-2	1.031828E-1	1.083909E-1	9.832709E-2	9.809462E-2
2.846030E+2	1.293462E-1	1.480694E-1	1.606909E-1	1.343544E-1	1.227182E-1	1.510730E-1	1.532118E-1	1.059276E-1	1.276023E-1	1.066597E-1	1.275441E-1	1.170919E-1	1.168817E-1	1.119956E-1	1.157419E-1	1.254416E-1	1.229588E-1	1.150797E-1	1.358033E-1	1.191421E-1	1.295091E-1	1.320287E-1	1.608643E-1	1.481517E-1	1.559644E-1	1.586921E-1	1.624840E-1	1.086483E-1	1.352104E-1	1.241907E-1	1.251611E-1	1.390843E-1	1.123111E-1	1.374243E-1	1.175628E-1	1.615677E-1	1.472598E-1	1.458795E-1	1.378050E-1	1.082005E-1	1.504111E-1	1.496488E-1	1.259536E-1	1.348631E-1	1.478801E-1	1.481933E-1	1.307549E-1	1.304362E-1	1.337846E-1	1.237362E-1	1.273030E-1	1.476518E-1	1.487146E-1	1.490320E-1	1.110891E-1	1.390191E-1	1.303910E-1	1.465036E-1	1.275381E-1	1.219184E-1	1.401811E-1	1.075938E-1	1.162083E-1	1.399597E-1	1.254394E-1	9.235001E-2	1.175246E-1	1.429187E-1	1.432275E-1	1.434123E-1	1.095995E-1	1.352232E-1	1.120132E-1	1.695187E-1	1.076161E-1	1.406072E-1	1.292111E-1	1.298297E-1	1.203304E-1	1.271232E-1	1.358999E-1	1.166901E-1	1.062029E-1	1.509814E-1	1.240563E-1	1.434655E-1	1.081500E-1	1.311268E-1	1.389932E-1	1.338980E-1	1.228860E-1	1.204102E-1	1.349162E-1	1.296697E-1	1.316647E-1	1.080275E-1	1.006244E-1	1.291451E-1	1.174149E-1	1.451871E-1	1.199689E-1	1.440786E-1	1.509110E-1	1.221506E-1	1.430444E-1	1.342592E-1	1.216605E-1	1.283778E-1	1.232138E-1	1.245764E-1	1.175604E-1	1.432587E-1	1.352158E-1	1.143987E-1	1.165882E-1	1.398637E-1	1.560511E-1	1.582658E-1	1.152392E-1	1.059633E-1	1.451459E-1	1.218683E-1	1.235288E-1	1.492997E-1	1.133384E-1	1.184252E-1	1.227601E-1	1.334179E-1	1.165470E-1	1.313639E-1	1.039299E-1	1.460013E-1	1.246104E-1	1.491170E-1	1.075218E-1	1.445899E-1	1.405635E-1	1.564293E-1	9.548035E-2	1.315084E-1	1.286530E-1	1.279151E-1	1.236208E-1	1.320916E-1	1.277631E-1	1.250709E-1	1.255211E-1	1.506644E-1	1.348841E-1	1.448212E-1	1.064019E-1	1.258410E-1	1.354517E-1	1.180809E-1	1.147407E-1	1.049544E-1	1.255828E-1	1.495646E-1	1.315004E-1	1.240675E-1	1.275015E-1	1.222943E-1	1.304636E-1	1.593126E-1	1.635944E-1	1.438610E-1	1.037795E-1	1.422973E-1	1.428279E-1	1.460250E-1	1.194333E-1
2.847020E+2	2.255895E-1	2.764789E-1	2.681039E-1	2.612673E-1	2.628414E-1	2.706118E-1	2.730872E-1	2.118091E-1	2.644587E-1	2.625964E-1	2.584923E-1	1.860921E-1	2.232890E-1	2.305142E-1	2.199601E-1	2.236712E-1	2.282178E-1	2.042569E-1	2.376086E-1	2.523313E-1	2.649579E-1	2.153749E-1	2.919610E-1	2.544310E-1	2.937708E-1	3.140223E-1	3.070169E-1	2.577726E-1	2.545664E-1	2.345488E-1	2.573812E-1	2.744609E-1	2.917951E-1	2.746496E-1	2.321215E-1	2.733398E-1	2.965530E-1	2.655932E-1	3.171774E-1	2.494621E-1	3.099418E-1	2.910640E-1	2.821506E-1	2.648057E-1	2.755523E-1	2.413584E-1	2.616414E-1	2.969556E-1	2.348166E-1	2.540312E-1	2.460732E-1	3.032193E-1	3.143615E-1	2.761361E-1	2.905941E-1	2.409859E-1	2.821772E-1	2.703001E-1	2.549427E-1	2.774239E-1	2.652959E-1	2.640982E-1	2.380325E-1	2.947095E-1	2.167599E-1	1.918664E-1	2.401220E-1	2.736162E-1	2.935343E-1	2.876104E-1	2.659373E-1	2.633287E-1	2.901439E-1	2.957067E-1	2.437061E-1	2.400126E-1	2.373725E-1	2.513607E-1	2.229020E-1	2.788299E-1	2.552795E-1	2.451022E-1	1.953937E-1	2.763266E-1	2.955729E-1	2.705213E-1	2.353173E-1	2.640726E-1	2.455550E-1	2.821082E-1	2.274984E-1	2.117928E-1	2.061217E-1	2.531496E-1	2.148170E-1	2.522626E-1	1.816642E-1	2.529251E-1	2.432099E-1	2.818878E-1	2.787456E-1	2.358335E-1	2.320339E-1	2.338827E-1	2.703510E-1	2.791304E-1	2.193217E-1	2.473244E-1	2.556379E-1	2.321196E-1	2.269118E-1	2.487489E-1	3.083232E-1	2.646660E-1	2.237682E-1	2.550370E-1	2.848289E-1	2.836888E-1	2.180155E-1	2.343682E-1	2.622526E-1	2.173593E-1	2.230892E-1	2.237711E-1	2.366784E-1	2.300791E-1	2.479878E-1	2.449522E-1	2.157683E-1	2.398303E-1	2.551630E-1	2.608889E-1	2.724113E-1	2.640294E-1	2.160297E-1	2.632597E-1	2.646851E-1	2.690570E-1	2.093470E-1	2.798983E-1	2.352344E-1	2.447717E-1	2.177945E-1	2.746219E-1	2.226567E-1	2.681610E-1	2.476175E-1	2.341916E-1	2.451699E-1	2.966698E-1	2.435455E-1	1.962186E-1	2.511078E-1	2.731804E-1	2.209324E-1	2.259168E-1	2.384107E-1	2.367400E-1	2.269979E-1	2.459573E-1	2.312303E-1	2.412888E-1	2.106173E-1	2.868055E-1	2.764386E-1	2.590545E-1	2.327139E-1	2.436392E-1	2.236224E-1	2.267443E-1	2.346610E-1
2.848000E+2	5.938253E-1	6.501955E-1	7.212757E-1	6.819932E-1	6.142382E-1	6.968924E-1	6.600193E-1	5.472194E-1	6.279375E-1	6.183037E-1	6.283414E-1	5.592878E-1	6.124178E-1	5.153122E-1	5.602641E-1	6.382592E-1	5.749969E-1	5.616619E-1	5.655077E-1	6.731072E-1	6.830806E-1	5.816979E-1	6.592632E-1	6.222698E-1	7.382860E-1	6.474132E-1	6.993204E-1	6.570681E-1	6.197692E-1	5.803813E-1	6.344334E-1	6.851287E-1	6.493208E-1	6.273257E-1	6.297064E-1	6.995773E-1	7.291709E-1	7.010270E-1	6.438151E-1	5.799869E-1	7.065329E-1	6.769969E-1	6.361487E-1	6.064781E-1	6.605130E-1	5.773523E-1	6.252863E-1	6.866678E-1	6.428622E-1	6.202657E-1	5.673705E-1	6.874239E-1	7.394185E-1	7.155927E-1	6.852262E-1	6.475544E-1	7.064884E-1	6.775426E-1	6.528041E-1	6.355342E-1	6.107523E-1	5.831000E-1	5.589800E-1	7.083387E-1	5.656326E-1	4.832137E-1	6.365205E-1	6.853575E-1	6.957260E-1	6.772089E-1	7.311074E-1	6.174079E-1	6.900278E-1	7.112038E-1	6.886981E-1	6.169580E-1	6.238525E-1	5.762464E-1	5.711403E-1	7.097960E-1	6.273349E-1	6.128585E-1	5.614767E-1	6.990612E-1	6.839260E-1	6.713359E-1	6.054875E-1	6.271439E-1	6.806840E-1	6.825601E-1	7.039800E-1	5.856310E-1	5.436660E-1	6.165512E-1	5.948489E-1	6.575626E-1	5.207516E-1	5.766579E-1	6.183211E-1	6.937209E-1	6.890908E-1	6.350347E-1	6.228359E-1	6.051892E-1	7.171411E-1	6.898470E-1	6.444785E-1	6.229448E-1	6.034242E-1	6.547015E-1	5.441579E-1	6.978146E-1	6.518204E-1	6.165129E-1	5.472798E-1	6.770457E-1	6.775238E-1	7.126921E-1	5.382804E-1	5.791169E-1	6.905967E-1	5.789149E-1	5.909968E-1	5.969639E-1	5.787598E-1	6.157350E-1	5.888141E-1	6.989040E-1	5.767827E-1	5.869236E-1	5.729053E-1	7.042702E-1	6.432675E-1	6.962168E-1	5.374850E-1	6.793447E-1	6.855847E-1	7.033565E-1	5.477401E-1	6.795503E-1	5.873877E-1	6.220522E-1	6.134654E-1	6.826996E-1	5.872484E-1	6.159804E-1	6.335747E-1	6.562671E-1	6.884909E-1	6.957143E-1	5.724193E-1	5.626186E-1	6.354317E-1	6.370134E-1	5.690051E-1	5.583727E-1	6.326212E-1	5.994397E-1	5.341712E-1	6.876276E-1	6.226038E-1	6.666927E-1	5.731144E-1	6.537547E-1	6.668914E-1	6.789753E-1	5.982806E-1	6.250058E-1	6.951442E-1	6.450181E-1	6.016829E-1
2.849040E+2	9.863305E-1	1.117781E+0	1.121917E+0	1.057517E+0	1.066552E+0	1.114902E+0	1.076920E+0	8.868940E-1	1.015696E+0	1.035092E+0	9.745556E-1	8.820317E-1	9.588601E-1	9.186295E-1	9.776676E-1	9.856757E-1	1.003965E+0	8.828392E-1	9.083968E-1	1.029410E+0	1.097279E+0	9.896933E-1	1.045046E+0	9.845867E-1	9.997644E-1	9.732281E-1	1.120014E+0	9.545023E-1	9.304835E-1	8.755257E-1	9.179225E-1	1.082184E+0	9.513444E-1	8.812262E-1	8.904953E-1	1.019046E+0	1.035056E+0	1.001861E+0	9.376504E-1	8.844529E-1	1.060631E+0	9.904795E-1	9.390541E-1	9.244552E-1	9.560388E-1	9.548198E-1	8.709406E-1	1.024605E+0	9.882523E-1	9.526945E-1	9.120092E-1	1.046487E+0	1.108218E+0	1.017804E+0	1.011408E+0	9.229294E-1	1.002300E+0	1.000226E+0	1.061840E+0	9.368259E-1	9.402225E-1	9.340686E-1	9.207422E-1	1.011329E+0	7.711047E-1	7.791436E-1	9.702587E-1	1.015091E+0	1.051246E+0	9.973539E-1	1.075178E+0	9.722834E-1	1.012117E+0	1.005130E+0	9.896790E-1	9.151739E-1	9.265730E-1	9.378306E-1	8.440315E-1	1.013963E+0	1.008179E+0	9.604457E-1	8.816333E-1	1.050521E+0	1.009528E+0	1.056433E+0	9.800644E-1	9.578215E-1	9.618886E-1	1.030996E+0	1.110211E+0	8.907435E-1	8.873713E-1	8.916620E-1	9.404506E-1	9.467534E-1	7.965710E-1	9.260248E-1	9.797916E-1	9.887530E-1	1.062319E+0	1.043823E+0	1.092645E+0	8.756640E-1	1.158255E+0	1.099070E+0	1.008689E+0	9.500475E-1	9.595754E-1	8.761141E-1	8.525031E-1	1.016483E+0	1.059666E+0	9.177806E-1	8.997244E-1	1.077074E+0	1.080553E+0	1.053329E+0	9.275041E-1	9.300902E-1	9.979041E-1	8.909022E-1	9.627944E-1	9.391961E-1	9.106181E-1	8.666360E-1	9.509415E-1	1.084658E+0	8.683412E-1	9.161965E-1	8.662066E-1	1.081273E+0	1.005311E+0	1.057577E+0	8.535139E-1	9.864025E-1	1.015781E+0	1.122298E+0	8.813216E-1	9.490196E-1	8.778371E-1	9.799676E-1	9.325322E-1	1.116230E+0	9.268674E-1	9.637997E-1	9.564326E-1	1.009034E+0	1.057078E+0	1.100408E+0	8.978809E-1	9.050746E-1	1.026220E+0	1.003745E+0	9.052794E-1	8.322505E-1	9.676651E-1	9.430497E-1	8.644587E-1	9.780117E-1	9.176050E-1	9.388914E-1	8.164646E-1	1.059932E+0	1.039345E+0	1.074117E+0	8.872453E-1	9.174742E-1	1.085871E+0	1.033938E+0	8.918855E-1
2.850010E+2	9.528553E-1	1.132838E+0	1.094476E+0	1.062732E+0	1.089785E+0	1.147983E+0	1.089574E+0	9.117655E-1	1.090747E+0	1.018564E+0	1.077398E+0	8.857415E-1	1.005877E+0	9.251149E-1	9.558666E-1	1.080294E+0	1.024152E+0	9.608689E-1	9.870925E-1	1.078613E+0	1.111020E+0	1.051532E+0	1.004621E+0	9.763051E-1	9.665498E-1	9.853515E-1	1.025164E+0	9.805786E-1	9.162129E-1	8.671853E-1	8.652590E-1	1.024705E+0	9.189071E-1	8.911696E-1	8.871263E-1	9.865150E-1	1.032402E+0	9.906960E-1	9.781305E-1	8.741672E-1	1.124742E+0	1.023917E+0	9.273756E-1	8.915875E-1	9.437248E-1	8.742777E-1	9.012445E-1	1.042096E+0	9.859026E-1	9.139576E-1	9.305455E-1	1.040201E+0	1.109780E+0	1.040115E+0	1.003026E+0	8.787656E-1	1.091129E+0	1.038109E+0	1.055134E+0	9.420590E-1	9.242357E-1	9.420602E-1	9.077561E-1	1.056164E+0	8.181913E-1	8.099154E-1	9.505072E-1	1.029613E+0	1.062228E+0	9.993382E-1	1.141174E+0	9.460257E-1	1.050652E+0	1.016671E+0	1.038642E+0	9.008599E-1	9.575707E-1	8.614225E-1	9.073475E-1	1.052456E+0	1.012573E+0	9.409489E-1	9.075922E-1	9.956301E-1	1.065307E+0	1.042679E+0	1.047425E+0	9.247542E-1	1.011470E+0	1.088000E+0	1.084249E+0	9.088691E-1	9.168129E-1	9.716360E-1	9.391519E-1	9.806486E-1	8.100772E-1	9.296877E-1	1.012377E+0	1.057968E+0	1.036887E+0	1.017804E+0	1.087707E+0	9.097288E-1	1.133118E+0	1.085628E+0	1.066699E+0	9.007473E-1	1.013939E+0	9.419054E-1	9.014570E-1	1.018680E+0	1.023412E+0	9.485674E-1	8.865738E-1	9.838803E-1	1.070219E+0	1.078983E+0	1.055478E+0	9.402073E-1	1.027771E+0	9.331799E-1	1.096579E+0	9.291549E-1	9.310607E-1	9.115535E-1	9.522329E-1	1.020720E+0	8.561285E-1	9.130974E-1	9.402961E-1	1.032764E+0	9.842933E-1	1.036618E+0	1.020345E+0	1.033129E+0	1.088184E+0	1.058305E+0	1.147546E+0	1.049160E+0	9.090006E-1	1.010016E+0	1.056926E+0	1.133198E+0	8.790642E-1	9.711376E-1	9.744605E-1	9.903738E-1	1.025879E+0	1.095464E+0	9.722526E-1	9.079773E-1	1.017600E+0	1.041432E+0	8.915141E-1	8.436614E-1	9.201951E-1	9.405047E-1	9.149443E-1	1.018881E+0	9.359972E-1	9.723586E-1	8.619576E-1	1.106516E+0	1.059422E+0	1.080145E+0	9.380610E-1	9.637007E-1	1.059382E+0	1.024766E+0	1.092468E+0
2.851030E+2	8.231356E-1	9.326957E-1	9.392374E-1	8.671473E-1	8.494711E-1	9.464956E-1	9.304055E-1	7.532978E-1	8.950276E-1	8.238224E-1	8.787402E-1	7.967081E-1	8.332748E-1	7.606044E-1	7.761441E-1	8.166622E-1	8.035396E-1	7.434996E-1	7.990964E-1	8.588932E-1	9.212609E-1	7.981312E-1	8.007558E-1	7.782387E-1	8.464106E-1	8.163826E-1	8.548219E-1	7.295936E-1	7.190165E-1	7.273121E-1	7.442430E-1	8.250437E-1	8.042975E-1	7.618997E-1	7.038325E-1	8.497190E-1	8.904077E-1	8.505136E-1	8.099260E-1	7.596499E-1	9.018460E-1	8.323446E-1	7.959952E-1	7.585870E-1	7.590215E-1	7.462509E-1	7.593968E-1	8.790750E-1	7.924531E-1	7.942275E-1	7.534207E-1	8.602771E-1	8.449014E-1	8.744729E-1	7.990757E-1	7.482221E-1	8.280905E-1	8.554582E-1	8.509881E-1	7.364631E-1	7.191858E-1	7.482612E-1	7.358413E-1	8.623648E-1	6.640881E-1	6.252864E-1	8.020278E-1	8.476622E-1	8.446599E-1	8.094997E-1	8.855227E-1	7.805240E-1	8.259898E-1	8.481642E-1	8.571895E-1	7.402201E-1	7.986256E-1	7.338749E-1	7.294305E-1	8.501809E-1	8.082352E-1	8.333778E-1	7.531713E-1	8.579960E-1	8.665978E-1	8.448916E-1	8.063109E-1	7.648135E-1	7.724452E-1	8.870608E-1	8.941154E-1	7.291245E-1	7.791934E-1	7.828968E-1	7.734969E-1	8.169414E-1	7.027357E-1	7.451156E-1	8.517230E-1	8.364781E-1	8.403068E-1	8.000564E-1	8.443377E-1	7.775575E-1	8.428264E-1	8.451722E-1	8.353951E-1	7.450217E-1	7.379398E-1	7.888144E-1	7.596820E-1	8.033045E-1	8.203973E-1	8.173581E-1	7.563799E-1	8.607950E-1	8.547932E-1	8.737461E-1	8.167705E-1	7.666654E-1	7.911988E-1	8.070733E-1	8.002306E-1	7.643143E-1	6.857444E-1	7.299559E-1	7.708460E-1	8.281992E-1	7.508011E-1	7.697664E-1	8.135041E-1	8.838354E-1	8.059837E-1	8.342563E-1	8.650432E-1	8.202648E-1	8.280069E-1	8.885098E-1	8.997650E-1	8.652647E-1	7.581666E-1	7.636150E-1	8.257081E-1	9.287348E-1	7.998675E-1	7.986947E-1	9.015308E-1	8.428686E-1	8.314270E-1	8.913517E-1	8.733182E-1	7.200619E-1	8.035282E-1	8.319750E-1	8.731598E-1	6.869437E-1	7.612727E-1	7.680627E-1	7.440225E-1	8.353294E-1	7.447249E-1	7.975860E-1	7.391986E-1	8.278312E-1	8.344272E-1	8.899414E-1	8.538747E-1	7.876856E-1	8.421634E-1	8.394780E-1	8.065313E-1
2.852020E+2	7.570204E-1	9.282679E-1	8.451538E-1	8.549777E-1	8.538266E-1	8.698106E-1	8.611440E-1	7.625367E-1	7.956966E-1	8.216673E-1	8.071975E-1	6.943213E-1	7.522320E-1	7.128434E-1	7.809294E-1	7.892153E-1	7.552358E-1	7.448933E-1	7.547522E-1	8.724672E-1	8.348881E-1	8.061967E-1	7.753449E-1	7.416618E-1	7.891678E-1	8.141086E-1	8.541769E-1	7.410014E-1	7.060430E-1	6.849652E-1	7.448035E-1	8.439510E-1	7.502362E-1	6.830114E-1	7.139406E-1	8.146860E-1	8.273732E-1	8.238417E-1	7.994571E-1	6.787331E-1	8.839555E-1	8.072662E-1	7.113268E-1	7.364206E-1	7.499490E-1	7.101873E-1	7.110393E-1	8.175043E-1	7.720897E-1	7.188680E-1	7.211538E-1	8.209917E-1	8.636534E-1	8.271472E-1	7.823120E-1	7.345835E-1	8.315401E-1	8.412520E-1	7.995792E-1	7.058104E-1	7.358679E-1	7.043076E-1	7.061584E-1	8.233163E-1	6.398315E-1	5.997522E-1	7.741028E-1	8.211803E-1	7.945574E-1	7.837030E-1	8.675824E-1	7.518796E-1	8.208997E-1	8.258507E-1	8.298276E-1	7.791875E-1	7.755424E-1	7.783965E-1	6.946060E-1	7.792337E-1	8.126302E-1	7.748869E-1	7.172290E-1	8.874890E-1	8.240672E-1	8.141101E-1	7.704275E-1	7.924822E-1	7.946461E-1	8.542839E-1	8.490629E-1	6.981602E-1	6.559516E-1	7.221175E-1	7.695986E-1	7.895378E-1	6.508412E-1	7.114243E-1	8.100438E-1	7.992751E-1	7.970044E-1	8.055347E-1	8.556248E-1	6.930765E-1	8.785047E-1	8.937118E-1	8.104293E-1	7.285881E-1	7.720910E-1	7.438991E-1	6.941980E-1	8.282125E-1	8.276474E-1	7.601826E-1	7.057485E-1	8.361779E-1	8.746664E-1	8.566429E-1	7.650512E-1	7.230856E-1	7.841250E-1	7.728136E-1	7.893412E-1	7.291710E-1	7.191345E-1	7.325224E-1	7.979575E-1	8.594570E-1	7.424060E-1	7.426508E-1	7.630929E-1	8.753252E-1	7.768306E-1	8.949649E-1	8.589393E-1	7.742804E-1	8.359630E-1	8.603529E-1	9.150012E-1	8.197469E-1	7.369754E-1	8.043483E-1	8.432782E-1	8.608623E-1	7.691874E-1	8.052995E-1	8.023782E-1	8.099918E-1	8.423109E-1	8.355558E-1	8.487547E-1	7.323955E-1	7.963445E-1	8.211037E-1	8.646388E-1	7.417190E-1	7.241221E-1	7.636090E-1	7.233408E-1	8.023476E-1	7.932775E-1	7.507323E-1	7.319778E-1	8.498974E-1	8.413494E-1	8.504273E-1	8.023003E-1	7.414591E-1	7.613684E-1	7.642631E-1	9.132232E-1
2.853000E+2	6.616134E-1	7.449524E-1	7.973273E-1	7.610960E-1	7.253199E-1	8.013949E-1	7.818932E-1	6.509697E-1	7.118170E-1	7.023793E-1	7.273507E-1	6.230945E-1	6.711890E-1	6.291137E-1	6.432128E-1	6.852074E-1	6.615119E-1	6.473559E-1	6.410803E-1	7.401258E-1	7.688001E-1	6.852092E-1	7.262560E-1	7.216478E-1	6.909367E-1	7.049993E-1	7.380344E-1	6.953679E-1	6.398785E-1	6.304277E-1	6.215475E-1	7.501700E-1	6.536465E-1	6.465506E-1	5.946652E-1	7.229324E-1	7.019666E-1	6.873809E-1	6.926714E-1	6.005594E-1	7.505157E-1	6.595809E-1	6.120621E-1	6.110645E-1	6.501436E-1	6.248365E-1	5.943380E-1	6.915654E-1	6.710574E-1	6.505510E-1	5.975779E-1	6.803528E-1	7.198844E-1	7.338469E-1	6.768440E-1	6.046890E-1	6.901029E-1	7.018971E-1	6.997421E-1	6.579624E-1	6.378608E-1	6.470335E-1	6.461743E-1	6.873676E-1	5.784749E-1	5.362453E-1	6.399265E-1	6.921916E-1	6.785678E-1	6.977140E-1	7.458436E-1	6.603754E-1	6.936639E-1	7.335179E-1	7.340608E-1	6.185479E-1	6.660619E-1	6.376129E-1	6.217926E-1	7.211171E-1	6.903206E-1	6.484911E-1	6.559926E-1	7.523121E-1	6.915957E-1	7.119413E-1	6.552212E-1	6.730331E-1	6.673635E-1	7.417013E-1	7.711757E-1	6.022458E-1	6.141869E-1	6.875682E-1	6.799505E-1	6.633316E-1	5.804653E-1	6.425760E-1	7.372959E-1	6.867997E-1	6.842797E-1	6.781732E-1	7.441680E-1	6.215403E-1	7.374128E-1	7.749768E-1	6.819280E-1	6.112066E-1	6.800910E-1	6.654558E-1	6.140923E-1	6.985478E-1	6.935115E-1	6.736875E-1	6.399943E-1	6.858378E-1	7.649660E-1	7.162546E-1	6.636005E-1	6.382609E-1	6.756639E-1	6.321279E-1	7.092258E-1	6.295966E-1	6.789302E-1	6.433271E-1	6.740205E-1	6.811437E-1	6.485266E-1	6.736971E-1	6.744919E-1	7.825649E-1	7.015742E-1	7.460842E-1	7.022815E-1	7.201373E-1	6.696717E-1	7.784414E-1	7.650500E-1	7.378142E-1	5.998535E-1	7.048531E-1	7.329398E-1	7.802653E-1	6.129338E-1	6.886262E-1	7.581293E-1	6.793706E-1	6.783330E-1	7.409158E-1	7.914407E-1	6.228384E-1	6.699125E-1	7.363063E-1	6.942069E-1	5.933683E-1	6.395006E-1	6.605258E-1	6.746801E-1	7.084206E-1	6.248110E-1	6.696677E-1	6.460472E-1	7.575463E-1	6.994298E-1	7.419307E-1	7.158381E-1	6.516734E-1	7.256074E-1	7.550903E-1	7.851936E-1
2.854020E+2	4.892124E-1	5.270993E-1	6.099422E-1	5.368248E-1	5.307446E-1	5.781052E-1	5.900923E-1	4.747365E-1	5.249263E-1	5.248852E-1	5.433847E-1	4.672869E-1	5.387987E-1	4.687307E-1	4.858223E-1	5.443631E-1	5.122741E-1	4.439204E-1	4.836890E-1	5.500980E-1	5.509040E-1	5.023840E-1	5.460700E-1	5.332432E-1	5.185014E-1	4.958720E-1	5.012328E-1	4.639394E-1	4.738177E-1	4.539825E-1	4.529107E-1	5.784920E-1	5.065992E-1	4.509875E-1	4.282180E-1	5.194064E-1	5.546640E-1	5.738702E-1	5.119036E-1	4.538116E-1	5.417836E-1	5.153787E-1	4.631639E-1	4.750065E-1	4.751619E-1	4.679589E-1	4.698989E-1	5.278446E-1	5.245998E-1	4.596866E-1	4.691969E-1	5.617134E-1	5.378293E-1	5.600930E-1	5.078163E-1	4.747949E-1	5.340048E-1	5.287163E-1	5.186930E-1	4.239575E-1	4.898082E-1	4.632247E-1	4.773517E-1	5.709442E-1	3.986875E-1	4.046473E-1	5.030259E-1	5.435543E-1	5.509097E-1	4.986156E-1	5.632355E-1	5.195389E-1	5.526135E-1	5.634718E-1	5.511676E-1	5.159618E-1	4.965648E-1	4.998376E-1	4.521058E-1	4.946896E-1	4.500960E-1	4.824297E-1	4.702890E-1	5.638846E-1	5.395999E-1	5.894707E-1	5.337196E-1	4.813759E-1	5.097408E-1	5.421880E-1	5.756967E-1	5.040664E-1	4.430195E-1	5.103460E-1	5.032514E-1	5.075580E-1	4.432660E-1	4.785126E-1	5.031356E-1	4.964566E-1	5.275653E-1	5.241080E-1	5.515887E-1	4.948195E-1	5.492903E-1	5.412425E-1	5.666436E-1	4.953903E-1	5.030617E-1	4.826326E-1	4.837606E-1	5.813359E-1	5.639069E-1	4.750412E-1	5.130877E-1	5.249464E-1	5.344368E-1	5.523503E-1	5.170614E-1	4.966257E-1	5.051116E-1	4.856101E-1	5.404396E-1	4.463474E-1	4.649595E-1	4.829049E-1	4.945704E-1	5.255646E-1	4.829030E-1	4.761318E-1	5.148566E-1	6.047017E-1	5.110615E-1	5.820271E-1	5.924170E-1	5.028237E-1	5.431635E-1	5.932880E-1	5.661835E-1	5.238770E-1	4.814304E-1	5.332406E-1	5.319417E-1	5.885280E-1	4.324217E-1	5.426002E-1	5.729355E-1	5.291998E-1	5.368472E-1	5.947175E-1	6.126752E-1	4.610421E-1	5.089994E-1	5.725096E-1	5.329528E-1	4.655588E-1	4.922742E-1	4.919022E-1	4.836851E-1	4.954719E-1	5.240245E-1	5.015879E-1	4.633544E-1	5.654905E-1	5.381251E-1	5.423505E-1	5.709773E-1	5.192187E-1	5.189849E-1	5.587941E-1	6.102177E-1
2.855000E+2	3.134642E-1	3.535242E-1	3.731646E-1	3.499328E-1	3.797312E-1	3.691000E-1	3.689879E-1	3.233756E-1	3.549606E-1	3.646374E-1	3.587797E-1	3.099961E-1	3.408316E-1	3.313436E-1	2.928067E-1	3.233459E-1	3.327570E-1	3.164249E-1	3.088094E-1	3.795818E-1	3.761958E-1	3.639210E-1	3.433608E-1	3.262047E-1	3.715079E-1	3.405422E-1	3.573450E-1	3.164451E-1	3.246232E-1	2.987110E-1	2.988401E-1	3.682415E-1	3.191864E-1	3.024920E-1	2.927693E-1	3.592550E-1	3.828111E-1	3.418869E-1	3.416051E-1	3.070641E-1	3.844889E-1	3.133562E-1	3.215646E-1	3.137248E-1	3.358237E-1	2.888425E-1	3.183800E-1	3.305395E-1	3.217518E-1	3.181225E-1	3.106067E-1	3.637176E-1	3.581174E-1	3.518580E-1	3.373909E-1	3.039842E-1	3.459970E-1	3.386247E-1	3.763876E-1	3.133097E-1	3.160371E-1	3.220378E-1	3.239898E-1	3.908855E-1	2.581397E-1	2.887634E-1	3.211725E-1	3.231617E-1	3.786398E-1	3.537558E-1	3.485915E-1	3.604019E-1	3.795724E-1	3.788058E-1	3.603543E-1	3.068132E-1	3.237702E-1	3.193462E-1	3.039471E-1	3.558146E-1	3.600114E-1	3.224184E-1	3.118749E-1	3.533363E-1	3.576258E-1	3.759642E-1	3.417094E-1	3.383065E-1	3.513774E-1	4.096543E-1	3.886164E-1	3.122387E-1	2.841745E-1	3.158491E-1	2.999181E-1	3.142836E-1	2.641254E-1	3.041945E-1	3.773404E-1	3.580248E-1	3.392320E-1	3.426522E-1	4.090943E-1	3.142762E-1	3.700888E-1	3.523119E-1	3.801324E-1	3.013200E-1	3.246377E-1	3.390306E-1	2.745940E-1	3.388552E-1	3.799233E-1	3.365019E-1	3.309478E-1	3.763648E-1	3.643219E-1	3.542388E-1	3.771529E-1	3.402052E-1	3.337743E-1	3.441959E-1	3.724307E-1	2.798337E-1	3.000515E-1	3.154239E-1	3.306121E-1	3.564871E-1	2.898032E-1	3.436482E-1	3.132123E-1	3.979033E-1	3.313950E-1	3.558147E-1	3.319974E-1	3.292693E-1	3.681194E-1	3.970432E-1	4.082133E-1	3.281481E-1	3.106511E-1	3.122143E-1	3.140768E-1	3.933972E-1	3.325335E-1	3.334688E-1	3.426725E-1	3.186068E-1	3.474747E-1	3.609405E-1	3.690913E-1	2.898138E-1	3.387487E-1	3.579788E-1	3.651433E-1	2.784098E-1	3.023928E-1	3.277325E-1	3.145876E-1	3.219592E-1	3.474654E-1	3.550767E-1	2.972697E-1	3.652622E-1	3.498214E-1	3.575052E-1	3.624069E-1	3.183122E-1	3.931587E-1	2.927876E-1	4.139039E-1
2.856010E+2	2.674342E-1	2.844491E-1	3.120093E-1	3.099462E-1	2.875260E-1	3.164724E-1	3.063864E-1	3.034790E-1	2.548932E-1	2.496615E-1	2.712674E-1	3.055445E-1	2.746366E-1	2.482033E-1	2.327215E-1	3.074556E-1	2.505673E-1	2.425750E-1	2.538473E-1	2.616627E-1	3.035634E-1	2.664594E-1	3.035121E-1	2.640931E-1	2.782235E-1	2.488596E-1	2.947578E-1	2.398454E-1	2.260247E-1	2.326241E-1	2.517788E-1	3.001747E-1	2.744948E-1	2.660317E-1	2.408816E-1	2.658333E-1	2.992073E-1	3.021894E-1	2.948428E-1	2.165466E-1	2.905600E-1	2.757391E-1	2.361676E-1	2.456959E-1	2.412040E-1	2.419593E-1	2.377846E-1	2.892592E-1	2.583128E-1	2.420582E-1	2.515657E-1	2.662917E-1	2.698243E-1	2.774882E-1	2.563690E-1	2.591709E-1	2.959757E-1	2.648885E-1	2.862354E-1	2.632186E-1	2.486143E-1	2.507785E-1	2.429798E-1	2.520449E-1	2.196134E-1	2.010324E-1	2.435279E-1	2.531151E-1	2.880437E-1	2.657820E-1	2.909257E-1	2.521890E-1	2.639693E-1	2.895510E-1	2.703481E-1	2.853415E-1	2.512227E-1	2.567754E-1	2.488618E-1	3.195863E-1	2.574767E-1	2.592209E-1	2.526361E-1	2.730504E-1	2.969678E-1	2.901691E-1	2.529444E-1	2.809441E-1	2.625758E-1	2.486185E-1	3.000396E-1	2.246318E-1	2.417252E-1	2.755422E-1	2.648384E-1	2.500988E-1	2.271600E-1	2.653767E-1	2.894359E-1	2.533365E-1	2.835573E-1	2.741786E-1	3.159794E-1	2.577283E-1	2.946769E-1	2.649417E-1	2.846740E-1	2.606277E-1	2.751530E-1	2.390783E-1	2.472565E-1	2.780520E-1	2.829464E-1	2.734621E-1	2.461248E-1	2.647082E-1	2.888043E-1	2.758498E-1	2.883013E-1	2.475980E-1	2.874027E-1	2.647406E-1	3.172053E-1	2.522203E-1	2.400854E-1	2.352129E-1	2.647711E-1	2.769209E-1	2.646161E-1	2.421544E-1	2.658570E-1	3.093970E-1	2.683430E-1	2.820976E-1	2.770654E-1	2.758679E-1	3.004896E-1	2.869751E-1	3.031670E-1	2.835399E-1	2.614118E-1	2.694787E-1	2.683958E-1	3.043155E-1	2.747415E-1	2.784340E-1	2.681031E-1	2.786201E-1	2.872535E-1	3.037324E-1	2.783441E-1	2.375751E-1	2.561363E-1	2.847771E-1	2.779618E-1	2.175482E-1	2.452903E-1	2.628286E-1	2.683598E-1	2.739203E-1	2.738987E-1	2.680622E-1	2.589986E-1	3.047846E-1	2.619004E-1	2.804858E-1	3.047656E-1	2.765312E-1	2.713044E-1	2.872839E-1	3.498886E-1
2.858030E+2	2.615761E-1	2.773640E-1	3.222019E-1	2.847376E-1	2.853478E-1	3.209837E-1	2.784151E-1	2.700801E-1	2.637230E-1	2.762492E-1	2.770170E-1	2.810605E-1	2.690688E-1	2.635341E-1	2.449510E-1	2.865097E-1	2.577772E-1	2.404852E-1	2.538472E-1	2.862647E-1	2.845877E-1	2.550327E-1	2.832982E-1	3.137827E-1	2.690363E-1	2.564365E-1	3.025001E-1	3.058517E-1	2.707834E-1	2.383990E-1	2.254467E-1	3.016878E-1	2.716118E-1	2.521101E-1	2.206653E-1	2.825155E-1	3.217665E-1	2.686947E-1	2.997286E-1	3.159783E-1	2.995058E-1	2.903677E-1	2.690123E-1	3.282480E-1	2.476849E-1	2.353472E-1	2.700230E-1	3.032523E-1	2.637953E-1	2.617787E-1	2.508787E-1	3.189331E-1	3.026413E-1	3.018279E-1	2.738310E-1	2.539753E-1	3.097752E-1	2.797708E-1	2.802751E-1	2.535000E-1	2.319320E-1	2.481142E-1	2.207176E-1	2.889241E-1	2.210405E-1	2.252565E-1	2.625985E-1	2.983891E-1	2.866714E-1	2.770266E-1	2.774707E-1	2.418449E-1	2.516091E-1	3.041708E-1	2.926697E-1	2.845462E-1	2.604559E-1	2.627921E-1	2.475954E-1	2.773199E-1	2.684631E-1	2.572038E-1	2.506389E-1	2.828813E-1	2.934811E-1	2.508735E-1	2.611287E-1	2.667723E-1	2.847760E-1	2.500434E-1	2.862950E-1	2.548408E-1	2.410406E-1	2.582681E-1	2.804293E-1	2.638011E-1	2.115209E-1	2.551223E-1	2.416940E-1	2.585275E-1	2.835571E-1	2.776023E-1	2.976381E-1	2.393334E-1	2.825140E-1	2.843577E-1	2.920170E-1	2.308908E-1	2.751533E-1	2.536284E-1	2.281836E-1	2.919706E-1	2.847594E-1	2.412099E-1	2.612482E-1	2.858089E-1	3.102671E-1	2.965167E-1	2.597894E-1	2.522673E-1	2.661824E-1	2.436015E-1	2.829819E-1	2.287914E-1	2.652986E-1	2.403459E-1	2.512153E-1	2.783415E-1	2.699582E-1	2.491275E-1	2.192642E-1	2.796116E-1	2.724106E-1	2.654749E-1	2.913072E-1	2.951517E-1	2.981026E-1	3.074525E-1	3.159969E-1	2.753466E-1	2.794871E-1	2.614654E-1	2.901819E-1	2.856510E-1	2.362128E-1	2.747654E-1	3.164506E-1	3.061667E-1	2.821737E-1	2.761879E-1	3.070009E-1	2.441044E-1	2.748142E-1	2.623090E-1	3.041817E-1	2.396102E-1	2.473546E-1	2.513753E-1	2.610602E-1	2.818073E-1	2.474145E-1	2.628564E-1	2.387798E-1	3.203132E-1	2.951302E-1	2.905322E-1	2.607762E-1	2.480844E-1	2.726290E-1	3.001257E-1	2.303931E-1
2.860040E+2	4.063598E-1	4.659930E-1	4.719526E-1	4.159977E-1	4.334571E-1	4.593179E-1	4.442430E-1	4.356530E-1	4.160306E-1	4.249996E-1	4.284055E-1	4.569000E-1	3.897047E-1	3.785149E-1	3.683115E-1	4.605789E-1	3.889913E-1	3.491700E-1	4.074912E-1	4.304820E-1	4.383576E-1	4.170207E-1	4.461594E-1	4.683711E-1	4.513655E-1	4.246475E-1	4.625185E-1	4.647547E-1	3.933824E-1	3.872545E-1	3.879209E-1	4.627786E-1	3.999185E-1	3.873470E-1	3.749822E-1	4.560128E-1	4.418648E-1	4.274853E-1	4.120976E-1	4.634119E-1	4.284719E-1	4.115814E-1	4.208305E-1	4.658342E-1	4.129456E-1	3.880178E-1	3.770532E-1	4.746699E-1	3.985053E-1	3.927782E-1	3.813199E-1	4.972860E-1	4.792276E-1	4.532717E-1	3.981572E-1	4.845371E-1	4.348266E-1	4.198027E-1	4.024647E-1	4.620864E-1	3.897160E-1	3.686558E-1	3.833558E-1	5.029701E-1	3.544544E-1	3.228090E-1	3.879204E-1	4.299406E-1	4.301146E-1	4.066723E-1	4.139459E-1	4.606581E-1	4.522788E-1	4.280502E-1	4.417199E-1	4.205327E-1	4.035723E-1	3.530378E-1	3.685292E-1	4.509139E-1	4.142089E-1	4.232657E-1	3.817636E-1	4.237925E-1	4.461729E-1	4.224641E-1	3.694097E-1	4.064667E-1	4.142782E-1	4.281802E-1	4.497041E-1	4.081523E-1	3.457950E-1	4.354907E-1	3.811218E-1	4.332764E-1	3.202847E-1	3.906212E-1	4.243239E-1	4.514655E-1	4.443961E-1	4.015396E-1	4.845743E-1	3.585602E-1	4.438775E-1	4.628323E-1	3.999581E-1	3.631407E-1	3.957283E-1	3.839451E-1	3.852170E-1	4.699854E-1	4.134574E-1	4.010070E-1	3.756611E-1	4.273572E-1	4.008890E-1	4.447430E-1	4.461129E-1	3.868978E-1	4.233730E-1	4.156319E-1	4.369894E-1	3.861010E-1	3.879570E-1	3.930687E-1	4.003269E-1	3.856137E-1	3.500988E-1	4.149260E-1	4.147984E-1	4.778992E-1	4.188550E-1	4.049606E-1	4.154130E-1	4.182718E-1	4.309764E-1	4.269071E-1	4.651471E-1	4.009778E-1	3.630066E-1	3.930129E-1	4.300370E-1	4.824789E-1	3.796237E-1	4.149206E-1	4.024920E-1	4.039100E-1	4.105989E-1	4.562872E-1	4.448276E-1	3.790554E-1	4.378819E-1	3.942167E-1	4.313499E-1	3.575301E-1	3.877016E-1	4.187263E-1	4.228593E-1	4.180367E-1	3.982262E-1	3.967245E-1	3.832012E-1	4.445362E-1	4.045121E-1	3.863037E-1	3.942613E-1	3.929854E-1	4.222971E-1	4.670680E-1	5.205961E-1
2.862030E+2	5.260363E-1	6.377966E-1	6.483606E-1	6.602616E-1	5.670465E-1	6.254701E-1	6.047433E-1	6.218347E-1	5.962982E-1	6.161473E-1	5.734070E-1	6.342234E-1	5.765358E-1	5.123640E-1	5.389948E-1	6.014229E-1	5.649044E-1	5.038360E-1	5.473954E-1	5.730029E-1	6.012887E-1	5.937965E-1	5.795656E-1	6.388328E-1	5.531304E-1	5.784624E-1	6.070514E-1	5.935071E-1	5.133873E-1	5.104446E-1	5.531966E-1	6.563897E-1	5.779601E-1	5.318642E-1	5.319948E-1	5.869699E-1	5.924851E-1	5.682879E-1	5.586657E-1	6.444460E-1	6.275131E-1	5.913117E-1	5.514807E-1	7.134895E-1	5.645971E-1	5.358788E-1	5.530733E-1	6.572817E-1	5.849062E-1	5.744871E-1	5.296108E-1	6.394966E-1	6.565950E-1	6.040388E-1	5.699788E-1	6.339152E-1	6.728542E-1	5.970411E-1	5.842580E-1	6.235719E-1	5.537556E-1	5.178340E-1	4.934300E-1	6.367487E-1	4.793063E-1	4.498226E-1	5.779463E-1	6.298315E-1	5.996395E-1	5.991560E-1	5.933504E-1	6.396875E-1	6.035082E-1	6.042521E-1	6.346936E-1	6.368388E-1	5.407533E-1	5.401476E-1	5.230199E-1	6.562084E-1	5.753348E-1	5.577289E-1	5.435059E-1	6.589177E-1	6.162954E-1	5.920902E-1	5.784170E-1	6.419903E-1	6.237027E-1	5.942033E-1	6.474743E-1	6.528471E-1	5.258643E-1	5.538517E-1	5.324849E-1	6.871309E-1	4.482427E-1	5.532200E-1	5.690639E-1	6.141228E-1	5.571203E-1	5.686153E-1	6.122544E-1	5.697620E-1	6.182142E-1	6.442942E-1	5.717834E-1	5.572114E-1	5.532430E-1	5.509541E-1	5.149127E-1	6.106388E-1	5.992535E-1	5.652017E-1	5.341295E-1	6.392411E-1	6.218799E-1	5.943953E-1	5.727601E-1	5.402058E-1	5.868512E-1	5.701679E-1	5.668852E-1	5.542887E-1	5.331031E-1	5.605494E-1	5.384650E-1	5.980263E-1	5.584646E-1	4.877543E-1	5.400621E-1	6.115092E-1	5.714017E-1	5.914213E-1	5.951301E-1	5.888598E-1	6.378455E-1	6.589881E-1	6.503804E-1	6.085416E-1	5.406422E-1	5.713024E-1	6.085457E-1	6.334932E-1	5.351638E-1	5.924989E-1	6.499629E-1	5.993978E-1	6.072271E-1	6.469812E-1	5.983477E-1	5.103793E-1	5.873012E-1	5.841052E-1	5.939146E-1	5.074016E-1	5.163531E-1	5.485344E-1	5.250475E-1	6.123429E-1	5.232890E-1	5.625728E-1	5.557842E-1	6.398606E-1	6.295076E-1	6.079849E-1	6.119328E-1	5.449982E-1	5.825623E-1	5.551260E-1	6.785007E-1
2.864160E+2	7.729215E-1	9.211830E-1	9.353170E-1	9.271268E-1	9.024710E-1	8.825914E-1	8.471589E-1	8.840510E-1	8.619173E-1	8.338834E-1	8.327481E-1	9.183865E-1	8.382236E-1	7.317118E-1	7.548750E-1	9.040581E-1	8.157965E-1	7.191154E-1	7.959737E-1	8.614373E-1	9.075197E-1	8.182950E-1	8.313649E-1	8.700257E-1	7.764473E-1	7.800120E-1	8.503051E-1	8.485666E-1	7.203141E-1	7.382200E-1	7.184719E-1	8.946224E-1	7.826726E-1	7.201351E-1	6.701390E-1	8.588941E-1	8.665206E-1	8.263224E-1	7.575802E-1	8.899399E-1	8.466813E-1	8.260753E-1	7.755578E-1	9.007596E-1	7.505967E-1	7.318259E-1	7.593963E-1	9.371469E-1	7.791380E-1	7.392925E-1	7.499871E-1	8.744199E-1	8.699048E-1	8.562193E-1	8.060604E-1	8.995486E-1	8.858734E-1	7.736039E-1	7.831884E-1	8.381392E-1	7.518550E-1	7.602493E-1	6.851328E-1	9.614339E-1	6.854910E-1	6.252862E-1	7.597996E-1	9.048950E-1	8.803495E-1	8.088390E-1	8.829601E-1	9.428436E-1	8.187189E-1	7.873780E-1	8.125466E-1	8.539403E-1	7.531188E-1	7.368833E-1	7.547567E-1	9.030131E-1	7.811370E-1	7.533726E-1	7.312064E-1	9.276329E-1	8.491673E-1	8.697786E-1	8.100882E-1	8.822382E-1	7.665262E-1	9.112884E-1	9.391670E-1	8.930093E-1	7.360588E-1	7.457893E-1	7.468622E-1	8.861748E-1	6.344914E-1	7.070298E-1	8.706689E-1	9.247276E-1	8.430565E-1	8.459343E-1	8.690273E-1	8.811142E-1	9.393197E-1	8.720557E-1	8.052893E-1	9.077909E-1	7.950914E-1	7.793256E-1	7.215355E-1	8.875509E-1	8.702441E-1	7.997654E-1	8.096407E-1	9.135471E-1	8.619472E-1	8.602059E-1	8.227386E-1	8.670550E-1	8.414999E-1	7.975974E-1	8.647892E-1	9.199507E-1	7.450292E-1	7.812909E-1	7.876293E-1	9.205529E-1	7.515642E-1	7.511730E-1	7.348329E-1	8.719211E-1	8.256456E-1	8.154652E-1	8.609744E-1	9.292931E-1	8.359630E-1	8.748577E-1	9.286328E-1	9.071424E-1	7.506874E-1	7.395764E-1	8.657669E-1	9.244928E-1	7.463550E-1	7.818184E-1	8.646559E-1	8.970727E-1	8.626259E-1	8.920581E-1	9.108443E-1	7.570638E-1	8.200508E-1	8.486446E-1	8.449731E-1	7.683457E-1	7.626481E-1	8.202409E-1	8.030239E-1	8.948401E-1	7.785650E-1	8.399777E-1	7.774710E-1	9.038361E-1	8.801178E-1	8.571243E-1	8.349131E-1	7.716839E-1	8.752756E-1	8.559886E-1	9.516334E-1
2.866160E+2	7.997026E-1	9.636912E-1	9.643267E-1	9.705903E-1	8.973886E-1	9.036423E-1	9.277418E-1	9.892223E-1	8.825193E-1	8.432252E-1	8.487174E-1	9.384186E-1	8.481216E-1	7.706283E-1	7.761443E-1	9.640068E-1	7.970510E-1	7.609171E-1	8.190835E-1	8.987656E-1	8.891979E-1	8.357715E-1	8.590855E-1	8.838285E-1	8.775059E-1	8.315361E-1	8.528859E-1	9.162021E-1	7.812888E-1	7.581098E-1	7.857024E-1	9.021856E-1	7.624892E-1	7.638884E-1	7.570690E-1	9.231216E-1	9.063325E-1	8.455511E-1	8.448240E-1	9.379402E-1	9.070648E-1	8.699627E-1	7.981845E-1	9.221620E-1	7.726312E-1	7.787086E-1	7.903451E-1	9.875229E-1	8.292630E-1	7.857752E-1	7.767628E-1	9.600603E-1	8.714670E-1	9.055731E-1	8.661278E-1	9.346199E-1	8.505137E-1	8.405754E-1	8.882415E-1	8.934641E-1	8.262293E-1	8.081989E-1	7.754192E-1	9.281694E-1	6.869182E-1	6.704612E-1	7.802323E-1	9.655460E-1	8.570139E-1	8.352968E-1	9.380626E-1	8.990807E-1	8.441660E-1	8.512419E-1	8.787909E-1	9.056315E-1	8.283044E-1	8.048685E-1	7.458917E-1	9.188635E-1	8.558414E-1	7.553894E-1	7.718083E-1	9.751496E-1	8.944868E-1	8.507860E-1	7.993858E-1	9.402757E-1	8.442274E-1	8.628346E-1	9.445124E-1	9.602244E-1	7.367432E-1	7.573054E-1	7.968836E-1	9.229546E-1	6.607938E-1	7.802723E-1	8.903717E-1	9.273240E-1	8.822350E-1	8.479881E-1	9.184070E-1	9.322114E-1	8.574213E-1	8.698147E-1	8.537524E-1	9.477002E-1	8.076370E-1	8.027320E-1	7.488737E-1	9.439585E-1	8.394302E-1	8.679355E-1	7.675576E-1	9.390430E-1	9.255419E-1	8.587806E-1	8.744584E-1	9.339817E-1	7.801961E-1	8.340443E-1	8.819016E-1	9.266447E-1	7.756943E-1	7.581900E-1	8.302329E-1	9.518105E-1	7.843840E-1	7.984333E-1	7.898261E-1	9.885112E-1	8.263236E-1	8.624418E-1	8.962387E-1	9.493182E-1	9.250758E-1	8.594997E-1	9.574998E-1	8.934874E-1	7.793583E-1	8.557651E-1	8.446828E-1	9.524897E-1	8.098558E-1	8.163070E-1	8.703919E-1	8.872984E-1	8.684310E-1	8.715756E-1	9.210796E-1	9.290181E-1	8.315443E-1	8.754615E-1	8.357961E-1	8.459442E-1	7.853515E-1	7.833344E-1	7.823429E-1	9.622381E-1	8.124054E-1	8.139480E-1	7.911908E-1	9.381609E-1	8.662724E-1	8.691792E-1	8.743516E-1	8.027972E-1	7.997809E-1	8.504848E-1	8.876184E-1
2.868020E+2	9.737775E-1	1.132837E+0	1.080364E+0	1.061864E+0	1.060744E+0	1.060772E+0	1.102227E+0	1.107895E+0	1.039243E+0	1.014252E+0	1.056957E+0	1.094968E+0	9.743258E-1	8.885574E-1	9.345976E-1	1.101962E+0	1.057316E+0	8.577584E-1	9.290067E-1	1.125272E+0	1.060635E+0	9.775955E-1	1.023679E+0	1.047389E+0	1.044993E+0	9.755009E-1	1.014195E+0	1.077551E+0	9.719986E-1	8.934915E-1	9.347304E-1	1.092016E+0	9.758519E-1	8.858665E-1	8.615191E-1	1.104126E+0	1.068233E+0	1.002481E+0	1.008841E+0	1.075088E+0	1.082996E+0	9.856030E-1	9.244561E-1	1.112489E+0	9.197461E-1	9.379908E-1	8.896385E-1	1.073581E+0	9.459592E-1	9.322703E-1	8.522805E-1	1.122700E+0	1.127752E+0	1.032677E+0	9.904543E-1	1.128812E+0	1.019548E+0	9.873722E-1	1.031292E+0	1.057941E+0	9.332716E-1	9.746925E-1	8.755993E-1	1.137153E+0	8.688461E-1	7.752157E-1	9.069171E-1	1.075742E+0	1.039578E+0	1.001984E+0	1.033532E+0	1.183936E+0	1.090641E+0	1.001283E+0	1.039362E+0	1.100466E+0	9.351467E-1	9.372288E-1	9.282419E-1	1.075098E+0	9.583758E-1	9.584287E-1	9.022668E-1	1.118519E+0	1.031839E+0	9.837361E-1	9.712508E-1	1.110338E+0	9.685496E-1	1.082299E+0	1.126247E+0	1.081061E+0	9.421454E-1	8.699088E-1	9.807275E-1	1.126326E+0	8.491760E-1	9.230956E-1	9.638785E-1	1.084790E+0	1.061632E+0	1.015749E+0	1.084885E+0	1.161126E+0	1.127442E+0	1.078908E+0	9.866602E-1	1.144902E+0	1.009757E+0	8.792775E-1	9.268874E-1	1.127101E+0	1.042446E+0	9.353730E-1	8.997249E-1	1.056854E+0	1.055910E+0	1.047627E+0	9.878437E-1	1.137095E+0	1.009693E+0	9.637956E-1	1.031242E+0	1.114078E+0	9.194764E-1	9.231040E-1	9.632063E-1	1.150015E+0	8.729206E-1	9.216203E-1	9.685563E-1	1.080422E+0	1.018193E+0	1.060468E+0	1.028483E+0	1.145864E+0	1.051584E+0	1.058305E+0	1.165989E+0	1.182985E+0	9.202202E-1	9.378994E-1	9.915668E-1	1.181556E+0	9.168786E-1	9.322462E-1	1.130154E+0	1.046354E+0	1.042567E+0	1.031194E+0	1.011827E+0	1.108952E+0	9.996407E-1	9.849003E-1	1.018683E+0	1.096998E+0	9.422097E-1	9.691386E-1	9.301509E-1	1.105638E+0	9.654230E-1	8.838567E-1	9.522207E-1	1.149831E+0	1.032422E+0	9.957586E-1	1.008596E+0	1.138827E+0	9.772626E-1	1.061457E+0	1.075395E+0
2.870150E+2	8.649801E-1	9.450940E-1	9.784393E-1	9.792834E-1	9.678123E-1	1.033707E+0	9.637043E-1	9.920644E-1	9.612487E-1	9.474223E-1	9.285638E-1	1.008161E+0	9.025631E-1	8.095444E-1	8.574978E-1	1.010955E+0	8.987070E-1	8.062027E-1	8.578059E-1	9.895367E-1	9.762253E-1	9.090354E-1	9.000893E-1	9.466301E-1	8.767991E-1	9.110959E-1	9.406379E-1	9.545020E-1	8.364255E-1	7.741504E-1	8.232397E-1	9.868904E-1	8.482669E-1	8.010115E-1	7.907626E-1	1.017377E+0	9.076594E-1	8.976544E-1	9.376500E-1	9.420553E-1	1.015903E+0	8.699634E-1	8.397883E-1	9.596160E-1	8.374393E-1	7.913310E-1	8.129122E-1	1.013411E+0	8.527589E-1	8.393032E-1	8.021646E-1	9.757743E-1	1.024613E+0	9.299124E-1	8.975588E-1	1.010608E+0	9.557291E-1	8.845465E-1	9.493364E-1	9.600023E-1	8.470816E-1	8.541510E-1	7.741820E-1	1.017837E+0	7.083217E-1	6.901025E-1	8.313146E-1	1.009966E+0	9.283928E-1	9.034271E-1	1.011106E+0	1.049465E+0	8.979688E-1	8.912529E-1	9.421558E-1	1.003446E+0	9.015112E-1	8.548049E-1	8.199718E-1	9.716966E-1	9.115030E-1	8.522025E-1	8.263882E-1	1.044785E+0	9.635121E-1	9.581936E-1	8.503791E-1	9.733430E-1	8.479276E-1	9.219760E-1	1.006363E+0	1.004783E+0	8.462908E-1	8.833445E-1	8.735392E-1	1.041949E+0	8.527301E-1	8.608388E-1	9.146214E-1	9.783703E-1	9.647160E-1	8.863343E-1	9.769568E-1	9.683196E-1	9.920258E-1	8.802699E-1	9.014817E-1	1.027519E+0	8.975454E-1	8.451162E-1	8.442378E-1	1.006227E+0	9.699400E-1	9.353725E-1	8.319972E-1	9.522305E-1	9.748272E-1	9.435832E-1	9.036336E-1	1.044488E+0	8.737241E-1	8.850699E-1	9.410152E-1	1.013667E+0	8.090848E-1	7.947660E-1	8.554072E-1	9.844891E-1	7.675922E-1	8.441441E-1	8.616235E-1	9.970215E-1	9.036140E-1	9.318238E-1	9.267575E-1	1.007169E+0	9.298504E-1	1.011376E+0	9.943871E-1	1.050071E+0	8.211183E-1	8.384038E-1	9.325317E-1	1.030543E+0	8.248393E-1	8.794128E-1	9.343084E-1	9.459442E-1	9.562245E-1	9.549170E-1	9.592887E-1	9.906889E-1	9.184658E-1	9.276448E-1	9.583757E-1	9.950551E-1	8.218140E-1	8.476025E-1	8.535099E-1	9.708421E-1	8.543383E-1	8.600580E-1	8.316289E-1	1.018252E+0	9.306552E-1	9.669602E-1	9.403363E-1	1.017038E+0	8.686534E-1	9.605581E-1	1.019916E+0
2.872120E+2	6.858843E-1	8.211121E-1	8.106559E-1	8.219449E-1	7.521830E-1	7.645555E-1	7.832250E-1	7.611151E-1	7.309475E-1	7.282489E-1	7.407654E-1	7.648054E-1	7.243928E-1	6.692092E-1	6.703306E-1	8.108838E-1	7.018853E-1	6.334218E-1	6.766811E-1	7.392775E-1	7.334649E-1	7.026851E-1	7.118175E-1	7.637458E-1	7.305117E-1	7.284886E-1	7.341626E-1	7.833755E-1	6.139306E-1	6.406940E-1	6.271503E-1	7.826910E-1	6.118385E-1	6.392585E-1	6.431843E-1	7.963354E-1	7.351434E-1	7.072298E-1	7.150059E-1	7.761072E-1	7.236788E-1	6.874464E-1	6.543958E-1	7.784606E-1	6.365346E-1	6.530870E-1	6.472087E-1	7.895179E-1	6.796728E-1	6.456207E-1	6.346504E-1	8.037069E-1	7.691098E-1	7.020708E-1	6.998940E-1	7.962825E-1	7.358112E-1	6.694249E-1	7.437003E-1	7.977687E-1	6.566284E-1	6.523612E-1	6.375163E-1	7.849902E-1	5.834692E-1	5.388642E-1	6.610406E-1	7.605295E-1	7.224925E-1	7.003591E-1	7.490473E-1	7.486958E-1	7.278358E-1	7.335171E-1	7.448614E-1	7.632832E-1	6.383616E-1	6.598738E-1	5.762051E-1	7.822524E-1	6.742084E-1	6.713503E-1	6.713023E-1	8.366959E-1	7.515560E-1	7.067023E-1	6.659239E-1	7.837091E-1	7.361846E-1	7.481145E-1	8.001925E-1	8.054028E-1	5.936466E-1	6.792511E-1	6.728045E-1	8.191052E-1	6.856743E-1	6.088841E-1	6.751559E-1	8.027357E-1	7.310187E-1	7.322680E-1	7.977802E-1	7.979957E-1	7.552514E-1	7.264376E-1	7.230483E-1	8.123208E-1	7.037885E-1	6.350906E-1	6.268072E-1	8.370029E-1	7.080120E-1	6.861484E-1	6.715566E-1	7.667231E-1	7.538373E-1	7.276565E-1	7.033852E-1	7.915693E-1	6.843093E-1	6.642005E-1	6.952251E-1	8.505002E-1	6.700719E-1	6.227934E-1	6.875759E-1	8.239369E-1	6.233398E-1	6.922905E-1	6.523418E-1	8.055415E-1	7.463207E-1	7.439167E-1	7.273732E-1	8.054312E-1	7.508280E-1	7.528443E-1	7.746723E-1	7.560218E-1	6.746469E-1	6.794782E-1	7.308318E-1	8.082626E-1	6.493212E-1	6.812882E-1	7.843503E-1	7.220218E-1	7.683030E-1	7.712852E-1	7.716536E-1	7.519853E-1	6.979288E-1	6.826732E-1	7.256717E-1	7.957334E-1	6.656440E-1	6.827970E-1	7.014438E-1	8.073670E-1	6.969066E-1	6.912349E-1	6.785419E-1	7.853332E-1	7.686587E-1	7.245175E-1	7.332826E-1	8.001312E-1	6.646811E-1	7.000540E-1	7.681225E-1
2.874030E+2	6.105632E-1	7.387538E-1	7.102997E-1	6.950315E-1	6.824848E-1	7.465127E-1	6.966478E-1	7.433493E-1	6.514824E-1	6.721983E-1	6.762489E-1	7.366119E-1	6.365448E-1	5.695597E-1	6.102457E-1	7.184316E-1	6.478140E-1	6.229713E-1	6.323364E-1	6.714098E-1	7.203784E-1	6.233714E-1	6.644610E-1	7.195777E-1	6.888166E-1	6.504439E-1	6.502820E-1	7.434461E-1	5.853899E-1	5.585665E-1	6.086618E-1	6.994991E-1	6.075137E-1	5.935161E-1	5.865793E-1	7.504580E-1	6.442404E-1	6.247334E-1	6.249702E-1	7.013619E-1	7.065327E-1	6.345018E-1	6.500165E-1	6.775644E-1	5.944087E-1	5.947836E-1	5.807978E-1	7.356443E-1	6.428625E-1	6.054764E-1	5.955182E-1	7.007811E-1	6.823796E-1	6.216170E-1	6.558902E-1	6.982128E-1	6.728544E-1	6.504831E-1	6.863307E-1	6.744105E-1	5.530614E-1	5.950875E-1	6.078334E-1	7.408792E-1	5.263937E-1	4.989266E-1	5.833955E-1	7.161096E-1	6.566042E-1	6.659640E-1	7.150894E-1	7.264171E-1	6.151412E-1	6.327209E-1	6.670965E-1	7.624874E-1	6.113216E-1	5.822623E-1	5.540448E-1	7.490429E-1	5.987719E-1	5.920169E-1	5.867699E-1	6.966031E-1	6.776509E-1	6.850895E-1	6.237438E-1	7.256717E-1	6.651435E-1	6.740091E-1	6.932902E-1	6.996709E-1	5.765299E-1	6.095138E-1	5.948489E-1	7.433820E-1	6.124547E-1	5.847147E-1	6.546959E-1	7.594752E-1	6.526615E-1	6.542077E-1	7.053705E-1	7.448553E-1	7.001127E-1	6.196512E-1	6.532900E-1	7.223277E-1	6.800917E-1	6.129495E-1	5.543297E-1	6.978146E-1	6.309750E-1	6.172448E-1	6.018569E-1	6.524293E-1	7.403239E-1	6.628075E-1	6.781885E-1	7.402059E-1	6.481556E-1	6.386876E-1	6.407776E-1	7.341911E-1	5.842102E-1	6.285686E-1	6.243166E-1	7.230583E-1	5.645702E-1	5.931217E-1	5.988752E-1	7.059728E-1	6.541154E-1	6.405667E-1	6.860050E-1	7.512882E-1	7.046805E-1	7.007965E-1	7.297666E-1	7.378142E-1	5.836480E-1	6.293974E-1	6.493078E-1	7.412396E-1	6.000911E-1	6.519361E-1	7.106013E-1	6.838131E-1	6.667239E-1	6.639316E-1	6.972817E-1	7.186102E-1	6.598558E-1	6.870220E-1	6.633980E-1	6.975938E-1	6.078538E-1	6.465270E-1	5.682338E-1	7.055525E-1	5.637509E-1	6.309946E-1	6.041654E-1	6.995213E-1	6.558150E-1	6.528563E-1	6.536470E-1	7.565716E-1	6.103765E-1	6.963847E-1	6.955713E-1
2.876170E+2	4.758229E-1	5.846617E-1	5.746615E-1	6.002816E-1	5.365534E-1	5.224708E-1	5.108413E-1	5.806187E-1	5.499434E-1	4.954226E-1	4.833399E-1	5.496431E-1	4.924000E-1	4.575270E-1	4.528552E-1	5.378628E-1	4.719007E-1	4.306835E-1	4.749450E-1	5.696094E-1	5.522126E-1	5.030566E-1	5.397173E-1	6.112274E-1	4.647924E-1	4.867794E-1	5.276872E-1	5.617263E-1	4.439792E-1	4.167683E-1	4.405850E-1	5.157195E-1	5.022741E-1	4.470102E-1	4.167624E-1	6.386862E-1	5.115346E-1	5.186660E-1	4.937566E-1	5.422715E-1	5.358198E-1	4.889066E-1	4.865206E-1	5.514432E-1	4.395175E-1	4.613472E-1	4.711888E-1	5.719233E-1	4.940552E-1	4.744767E-1	4.506600E-1	5.774270E-1	5.276715E-1	5.688824E-1	4.491453E-1	5.202583E-1	5.590149E-1	5.178929E-1	5.142230E-1	5.675009E-1	4.529690E-1	4.645561E-1	4.717863E-1	5.441882E-1	4.379273E-1	3.771495E-1	4.669273E-1	5.051137E-1	4.898257E-1	5.211048E-1	5.279961E-1	5.338613E-1	4.937217E-1	5.342331E-1	5.086848E-1	5.859435E-1	4.682051E-1	4.878048E-1	4.856637E-1	5.694114E-1	4.962367E-1	4.783957E-1	4.742825E-1	5.614270E-1	5.535450E-1	5.043301E-1	5.192402E-1	5.684311E-1	4.971605E-1	5.136865E-1	5.680607E-1	5.418281E-1	4.272715E-1	4.745177E-1	4.733687E-1	5.674152E-1	4.453991E-1	4.514126E-1	5.054083E-1	5.102998E-1	5.598698E-1	5.124668E-1	5.360702E-1	5.554547E-1	5.460476E-1	5.098780E-1	5.225857E-1	5.814708E-1	5.023645E-1	4.377170E-1	4.341704E-1	5.703475E-1	4.750879E-1	4.999633E-1	4.440458E-1	5.337388E-1	5.376167E-1	5.209939E-1	5.084420E-1	5.573263E-1	5.090417E-1	4.717606E-1	5.233271E-1	5.375535E-1	4.731365E-1	4.604455E-1	4.945702E-1	5.696093E-1	4.355824E-1	4.342953E-1	4.713196E-1	5.715118E-1	4.920776E-1	5.379406E-1	5.415536E-1	5.807009E-1	5.153158E-1	5.233230E-1	5.453345E-1	5.348016E-1	4.602384E-1	4.858302E-1	5.361588E-1	5.545931E-1	4.673823E-1	4.956375E-1	5.303244E-1	5.576347E-1	5.317684E-1	5.325645E-1	5.662783E-1	5.720508E-1	5.118734E-1	5.014824E-1	5.421298E-1	5.074015E-1	4.936502E-1	5.122646E-1	4.897677E-1	5.657383E-1	4.659075E-1	4.971258E-1	4.619106E-1	5.851048E-1	4.592039E-1	5.376626E-1	5.315383E-1	5.512214E-1	5.203105E-1	5.257733E-1	4.949903E-1
2.878020E+2	3.477770E-1	4.651082E-1	4.123664E-1	3.855730E-1	3.877180E-1	4.345084E-1	4.142741E-1	3.901742E-1	3.682047E-1	3.689493E-1	3.658061E-1	3.916095E-1	3.699081E-1	3.230880E-1	3.640576E-1	3.876286E-1	3.551063E-1	3.261783E-1	3.462835E-1	4.177571E-1	4.036778E-1	3.592155E-1	3.860971E-1	4.076400E-1	3.573741E-1	3.897931E-1	3.908975E-1	4.370481E-1	3.570566E-1	3.481152E-1	3.531852E-1	3.773170E-1	3.472980E-1	3.256949E-1	3.170291E-1	3.934541E-1	3.927642E-1	3.766228E-1	3.681269E-1	3.968956E-1	3.621250E-1	3.642102E-1	3.441914E-1	4.077425E-1	3.585069E-1	3.140870E-1	3.480394E-1	4.109999E-1	3.468140E-1	3.582673E-1	3.373822E-1	4.187165E-1	3.846838E-1	4.018888E-1	3.604401E-1	4.098482E-1	3.856678E-1	3.947730E-1	3.823475E-1	4.314339E-1	3.292438E-1	3.280312E-1	3.487256E-1	4.219797E-1	3.623018E-1	2.841804E-1	3.606766E-1	4.120024E-1	4.287422E-1	3.941046E-1	3.857540E-1	4.391748E-1	3.672125E-1	3.865009E-1	3.797959E-1	3.815662E-1	3.330035E-1	3.452160E-1	3.425698E-1	3.882690E-1	3.504909E-1	3.318309E-1	3.118749E-1	4.229735E-1	3.604146E-1	3.569715E-1	3.492642E-1	4.213134E-1	3.321372E-1	3.818645E-1	4.458855E-1	4.232574E-1	3.232011E-1	3.312044E-1	3.544865E-1	4.037085E-1	3.437436E-1	3.217735E-1	3.735511E-1	4.237804E-1	3.976562E-1	4.015398E-1	4.006293E-1	3.939879E-1	3.798184E-1	3.933835E-1	3.654461E-1	4.030498E-1	3.462436E-1	3.124606E-1	3.133758E-1	4.040541E-1	3.762982E-1	3.709530E-1	3.388385E-1	3.842772E-1	3.857850E-1	3.756178E-1	3.970452E-1	4.055754E-1	3.691420E-1	3.646060E-1	4.050987E-1	3.894482E-1	3.068659E-1	3.404495E-1	3.693426E-1	4.310797E-1	3.157532E-1	3.281533E-1	3.361265E-1	4.191787E-1	3.741088E-1	4.302550E-1	3.760791E-1	3.937966E-1	3.935805E-1	4.055754E-1	4.258544E-1	4.346611E-1	3.081579E-1	3.275731E-1	3.703000E-1	4.018814E-1	3.175506E-1	3.855684E-1	3.762695E-1	3.879159E-1	3.634372E-1	3.877794E-1	4.257226E-1	4.124308E-1	3.653272E-1	3.905924E-1	3.920191E-1	4.328460E-1	3.581192E-1	3.080070E-1	3.510836E-1	4.029799E-1	3.504080E-1	3.461520E-1	3.333753E-1	3.995870E-1	3.996664E-1	3.749180E-1	3.760589E-1	4.000970E-1	3.600458E-1	4.157011E-1	3.925652E-1
2.880040E+2	3.343858E-1	4.155158E-1	3.614041E-1	3.864427E-1	4.029640E-1	3.863923E-1	4.062824E-1	4.228619E-1	3.858634E-1	3.933809E-1	4.060488E-1	3.582226E-1	3.859927E-1	3.313433E-1	3.342808E-1	4.006295E-1	4.005262E-1	3.310562E-1	3.131814E-1	3.872175E-1	3.703065E-1	3.686258E-1	3.762788E-1	4.179924E-1	4.167370E-1	3.534231E-1	3.857350E-1	3.971188E-1	3.907877E-1	3.288670E-1	3.346966E-1	4.000060E-1	3.963135E-1	3.177395E-1	3.230943E-1	3.867813E-1	3.761762E-1	3.313423E-1	3.646367E-1	3.845521E-1	4.210173E-1	3.495812E-1	3.580592E-1	4.153860E-1	3.837822E-1	3.387305E-1	3.054846E-1	4.005056E-1	3.765758E-1	3.258695E-1	3.497396E-1	4.485732E-1	4.042171E-1	3.464494E-1	3.548526E-1	4.345284E-1	3.839432E-1	3.839497E-1	3.585056E-1	3.970434E-1	3.459255E-1	3.533384E-1	3.122401E-1	3.988397E-1	3.637293E-1	2.776340E-1	3.382003E-1	4.256702E-1	3.923671E-1	3.306049E-1	3.761429E-1	3.985946E-1	3.541259E-1	3.818846E-1	3.481131E-1	4.650662E-1	3.574059E-1	3.560462E-1	3.197756E-1	3.995906E-1	3.578148E-1	3.795652E-1	3.365026E-1	4.360815E-1	3.785425E-1	3.510774E-1	3.580778E-1	3.922950E-1	3.232567E-1	3.440999E-1	3.825078E-1	3.892720E-1	3.170394E-1	3.401614E-1	3.323996E-1	4.325556E-1	3.828417E-1	3.269001E-1	3.591534E-1	3.839811E-1	3.825347E-1	3.200559E-1	4.147377E-1	3.796806E-1	3.992801E-1	4.098129E-1	3.559005E-1	3.952253E-1	3.427587E-1	3.415606E-1	3.254554E-1	4.062517E-1	3.826421E-1	3.387007E-1	3.217425E-1	3.790016E-1	3.945293E-1	3.763308E-1	3.612392E-1	3.977930E-1	3.361325E-1	3.463824E-1	3.833200E-1	4.070200E-1	3.334422E-1	3.276156E-1	3.544957E-1	4.047944E-1	3.409407E-1	3.335764E-1	3.323080E-1	3.979038E-1	3.571588E-1	3.717149E-1	3.971029E-1	3.826708E-1	3.808504E-1	3.910702E-1	3.777420E-1	4.164541E-1	3.380757E-1	3.469382E-1	3.956002E-1	3.976394E-1	3.282525E-1	3.767631E-1	4.041305E-1	3.665899E-1	3.648883E-1	4.110858E-1	4.141233E-1	4.022729E-1	3.588622E-1	3.594281E-1	3.487559E-1	4.237173E-1	3.409198E-1	3.410957E-1	3.255367E-1	4.209050E-1	3.482008E-1	3.439212E-1	3.391523E-1	4.069416E-1	3.491289E-1	3.454499E-1	3.639236E-1	4.045415E-1	3.468006E-1	3.735069E-1	4.352424E-1
2.882060E+2	4.381618E-1	5.244418E-1	5.291867E-1	4.838005E-1	4.704852E-1	5.277335E-1	4.948571E-1	4.953446E-1	5.190405E-1	4.810506E-1	5.210272E-1	5.310948E-1	5.208578E-1	4.209690E-1	4.257376E-1	5.530302E-1	5.339030E-1	4.285931E-1	4.455903E-1	5.237995E-1	4.959398E-1	4.351689E-1	5.160387E-1	5.028777E-1	4.937666E-1	4.784445E-1	4.954258E-1	4.826816E-1	5.516593E-1	4.186933E-1	4.321810E-1	5.149624E-1	5.347114E-1	4.509876E-1	4.302403E-1	4.852077E-1	5.208241E-1	5.037791E-1	4.686308E-1	5.374716E-1	5.365657E-1	4.547721E-1	4.967392E-1	5.713176E-1	5.542275E-1	4.282889E-1	4.376609E-1	5.551313E-1	4.713422E-1	4.413744E-1	4.348699E-1	5.373565E-1	5.378286E-1	4.897801E-1	4.861637E-1	5.274025E-1	5.348674E-1	4.475389E-1	4.814402E-1	5.473146E-1	4.932836E-1	4.292596E-1	4.458139E-1	5.102011E-1	5.677731E-1	3.529252E-1	4.512625E-1	5.068221E-1	5.392414E-1	4.847244E-1	5.446547E-1	5.259047E-1	5.569760E-1	4.372830E-1	4.503606E-1	5.334573E-1	4.939270E-1	4.192181E-1	4.394429E-1	5.112944E-1	4.962366E-1	4.488139E-1	4.310184E-1	5.196447E-1	5.089232E-1	4.597949E-1	4.543974E-1	5.427868E-1	4.875398E-1	4.716459E-1	5.245358E-1	5.365414E-1	4.149469E-1	4.457273E-1	4.759670E-1	5.508288E-1	4.397122E-1	4.433563E-1	4.644879E-1	5.224125E-1	4.966344E-1	4.974034E-1	5.508836E-1	5.377413E-1	5.192883E-1	5.068913E-1	4.704506E-1	5.407784E-1	4.500923E-1	4.623891E-1	4.259061E-1	5.534982E-1	4.460848E-1	4.787058E-1	4.256343E-1	5.223090E-1	5.026396E-1	5.067419E-1	4.799296E-1	5.028513E-1	4.280879E-1	4.571810E-1	5.054377E-1	5.409013E-1	4.186215E-1	4.091105E-1	4.422845E-1	5.468767E-1	4.523739E-1	4.443668E-1	4.606263E-1	4.736440E-1	4.663144E-1	5.054182E-1	5.090015E-1	5.399077E-1	5.033804E-1	5.241758E-1	5.204761E-1	5.366228E-1	4.353072E-1	4.511070E-1	4.813407E-1	5.070821E-1	4.024553E-1	4.574803E-1	5.180327E-1	5.043193E-1	4.853322E-1	5.127894E-1	5.089648E-1	5.241643E-1	4.975060E-1	4.688670E-1	5.027998E-1	5.309854E-1	4.537471E-1	4.473597E-1	4.654372E-1	5.370584E-1	4.460444E-1	4.770454E-1	4.373589E-1	4.903028E-1	4.626647E-1	4.653320E-1	5.247121E-1	5.761126E-1	4.315685E-1	5.221036E-1	4.480454E-1
2.884200E+2	5.411000E-1	6.900458E-1	7.063790E-1	7.341489E-1	6.331143E-1	6.705783E-1	6.247227E-1	6.630504E-1	6.882724E-1	6.218966E-1	6.238694E-1	6.950632E-1	7.015026E-1	5.648427E-1	5.623903E-1	6.989304E-1	6.470929E-1	5.463345E-1	6.061043E-1	6.688654E-1	7.144894E-1	6.563062E-1	6.737011E-1	7.368307E-1	7.227378E-1	6.474129E-1	6.831890E-1	6.864038E-1	7.313414E-1	5.842312E-1	5.862518E-1	6.889107E-1	6.889662E-1	5.842355E-1	5.899480E-1	6.853960E-1	7.304978E-1	6.185301E-1	6.473043E-1	6.684465E-1	7.050422E-1	6.198726E-1	6.237408E-1	6.859723E-1	7.123595E-1	5.797567E-1	5.782190E-1	7.097561E-1	6.640085E-1	6.153361E-1	5.337300E-1	6.583535E-1	7.034761E-1	6.317583E-1	6.300474E-1	7.092537E-1	6.728550E-1	6.092178E-1	6.595094E-1	7.095488E-1	6.865162E-1	5.691143E-1	5.676380E-1	6.714588E-1	6.419714E-1	5.061281E-1	5.949740E-1	7.007330E-1	6.847443E-1	6.130470E-1	6.984296E-1	6.953852E-1	6.594920E-1	6.188715E-1	6.663762E-1	6.678537E-1	6.904647E-1	5.672210E-1	5.819034E-1	7.226268E-1	7.225456E-1	6.074800E-1	5.421746E-1	6.851332E-1	6.922930E-1	5.992946E-1	6.262622E-1	7.115002E-1	6.732837E-1	6.547711E-1	6.619831E-1	7.004257E-1	7.175721E-1	5.564114E-1	5.773092E-1	7.174201E-1	6.963372E-1	5.737283E-1	6.160472E-1	7.257327E-1	7.083365E-1	6.377740E-1	6.870295E-1	6.978458E-1	7.098437E-1	6.629632E-1	6.224496E-1	6.933742E-1	5.964554E-1	5.844822E-1	5.447937E-1	6.795006E-1	6.726662E-1	6.201769E-1	6.123771E-1	6.462745E-1	6.735493E-1	6.777726E-1	6.311106E-1	6.927355E-1	5.852793E-1	5.840170E-1	6.695573E-1	7.551100E-1	5.515024E-1	5.778749E-1	6.133427E-1	7.052986E-1	6.134177E-1	5.667795E-1	6.095680E-1	6.957604E-1	6.114025E-1	6.860980E-1	6.209002E-1	7.453546E-1	6.513720E-1	6.658138E-1	6.744367E-1	7.041301E-1	5.711828E-1	6.040229E-1	6.338463E-1	7.132421E-1	6.193552E-1	6.211167E-1	6.655327E-1	6.829244E-1	6.347986E-1	7.020705E-1	6.706715E-1	6.874119E-1	6.203455E-1	6.515088E-1	6.686424E-1	6.587944E-1	6.009740E-1	6.064386E-1	5.803993E-1	7.112890E-1	5.519801E-1	6.317383E-1	5.752814E-1	7.264901E-1	6.537379E-1	6.066449E-1	6.195171E-1	7.476814E-1	5.587208E-1	5.789749E-1	7.809256E-1
2.886030E+2	6.365068E-1	7.130707E-1	7.557740E-1	7.497956E-1	7.768679E-1	7.893662E-1	8.071998E-1	7.419283E-1	7.581714E-1	6.851334E-1	7.177689E-1	7.447724E-1	7.516134E-1	6.161417E-1	6.283241E-1	7.812697E-1	7.509103E-1	6.480522E-1	6.304629E-1	7.825430E-1	7.825407E-1	6.979798E-1	6.719692E-1	7.899702E-1	7.488864E-1	7.118185E-1	7.464223E-1	7.801159E-1	7.702615E-1	6.406933E-1	6.114629E-1	7.804220E-1	7.538398E-1	6.903033E-1	6.229683E-1	7.571312E-1	7.935332E-1	7.214961E-1	6.654513E-1	7.473058E-1	7.676613E-1	6.867494E-1	6.894309E-1	7.608803E-1	7.823527E-1	6.212299E-1	6.323787E-1	7.342447E-1	7.673908E-1	6.371692E-1	6.511270E-1	8.131358E-1	7.448879E-1	6.966620E-1	6.803366E-1	8.014780E-1	7.711709E-1	6.734844E-1	7.377394E-1	7.312303E-1	7.692318E-1	6.323814E-1	6.214385E-1	7.748663E-1	7.725312E-1	5.362456E-1	6.555917E-1	7.477170E-1	7.973033E-1	6.871305E-1	7.311068E-1	7.860934E-1	7.707323E-1	7.389037E-1	6.930179E-1	7.783919E-1	7.887327E-1	6.526541E-1	6.395213E-1	7.490430E-1	8.463203E-1	6.209263E-1	6.193842E-1	8.162141E-1	7.899035E-1	7.401041E-1	7.112504E-1	7.405186E-1	7.302654E-1	7.381382E-1	7.444506E-1	7.872772E-1	7.463288E-1	6.702937E-1	6.533155E-1	7.816043E-1	7.446772E-1	6.184061E-1	7.062261E-1	7.464980E-1	7.956295E-1	6.959768E-1	7.420519E-1	7.605245E-1	7.471436E-1	7.189700E-1	6.980817E-1	7.771056E-1	7.978794E-1	6.869649E-1	6.248994E-1	7.805951E-1	8.231152E-1	6.575611E-1	6.406517E-1	7.649637E-1	7.538371E-1	6.970135E-1	7.007333E-1	7.822307E-1	7.330383E-1	6.430613E-1	6.726685E-1	7.576200E-1	7.702426E-1	6.208684E-1	6.927405E-1	7.869954E-1	7.859107E-1	6.512284E-1	7.165008E-1	7.817138E-1	7.497115E-1	7.417478E-1	6.995685E-1	7.905973E-1	7.229812E-1	7.630831E-1	7.802850E-1	7.423656E-1	6.896065E-1	6.634526E-1	6.781222E-1	7.599044E-1	6.700125E-1	7.099060E-1	7.056848E-1	7.309083E-1	7.088066E-1	7.126650E-1	7.395846E-1	8.042250E-1	7.137335E-1	7.116640E-1	7.178051E-1	7.759536E-1	5.947825E-1	6.592529E-1	6.491329E-1	7.923099E-1	7.079411E-1	6.748729E-1	6.092198E-1	7.845157E-1	7.506595E-1	6.983979E-1	7.454177E-1	8.410238E-1	7.189856E-1	7.422479E-1	8.790826E-1
2.888200E+2	7.227078E-1	8.219978E-1	8.239839E-1	8.714940E-1	7.775936E-1	8.404897E-1	8.438288E-1	7.902500E-1	8.648605E-1	7.900494E-1	7.797306E-1	8.738699E-1	8.629699E-1	6.756953E-1	7.059565E-1	8.441085E-1	8.727512E-1	6.654695E-1	6.997902E-1	8.275041E-1	9.081738E-1	7.604900E-1	6.985349E-1	8.520826E-1	7.573659E-1	7.595543E-1	7.741676E-1	8.355283E-1	8.163181E-1	6.265782E-1	6.938207E-1	8.280687E-1	8.785418E-1	6.624606E-1	6.620527E-1	7.821549E-1	7.610211E-1	7.059895E-1	7.450175E-1	7.891363E-1	7.959900E-1	7.125245E-1	6.295791E-1	8.021562E-1	8.186451E-1	6.627033E-1	6.304438E-1	8.056100E-1	8.856537E-1	6.892870E-1	6.634847E-1	8.414208E-1	7.667653E-1	7.690041E-1	7.404038E-1	8.203135E-1	7.841078E-1	7.817215E-1	7.340145E-1	8.082356E-1	8.303998E-1	7.009770E-1	6.876068E-1	8.551326E-1	7.825198E-1	5.768374E-1	7.359610E-1	8.126382E-1	8.419146E-1	7.413702E-1	7.637837E-1	7.654050E-1	8.194456E-1	7.642951E-1	7.088595E-1	8.555313E-1	8.263259E-1	6.749144E-1	6.496523E-1	8.101787E-1	8.155591E-1	7.163946E-1	6.626493E-1	8.301412E-1	8.484707E-1	7.545116E-1	7.439868E-1	8.869621E-1	8.042666E-1	7.459769E-1	7.688856E-1	8.023822E-1	7.476985E-1	6.920465E-1	7.364680E-1	8.335285E-1	8.420669E-1	6.989730E-1	7.660912E-1	8.105223E-1	8.080021E-1	7.404847E-1	8.140046E-1	8.409177E-1	8.063373E-1	8.220224E-1	7.436085E-1	7.990167E-1	8.529394E-1	6.565989E-1	6.465148E-1	8.670380E-1	8.158653E-1	7.162021E-1	6.833921E-1	8.106819E-1	8.222003E-1	8.138849E-1	7.073635E-1	8.452648E-1	8.139910E-1	6.889849E-1	7.963415E-1	8.915008E-1	8.227136E-1	6.689950E-1	7.327614E-1	8.573261E-1	8.179672E-1	6.860927E-1	7.432337E-1	8.140527E-1	8.412388E-1	7.735473E-1	7.782368E-1	8.210063E-1	8.248245E-1	7.895337E-1	7.658512E-1	8.761900E-1	8.510362E-1	6.968406E-1	7.800267E-1	8.184429E-1	8.590866E-1	7.458628E-1	7.171567E-1	8.117688E-1	8.263487E-1	7.811729E-1	7.655129E-1	7.810066E-1	7.956263E-1	7.609477E-1	7.820449E-1	8.459440E-1	8.018630E-1	7.279752E-1	7.215165E-1	8.453678E-1	7.712080E-1	7.053656E-1	6.886518E-1	8.686932E-1	8.475799E-1	8.115824E-1	7.825813E-1	8.543582E-1	7.507736E-1	8.046223E-1	7.638548E-1
2.890190E+2	7.235444E-1	8.795604E-1	8.843545E-1	8.488927E-1	8.400323E-1	9.051457E-1	8.891150E-1	8.414153E-1	8.582384E-1	8.116064E-1	8.314708E-1	8.887091E-1	8.796734E-1	7.045879E-1	7.187181E-1	8.881671E-1	8.554482E-1	6.689533E-1	7.709909E-1	8.639828E-1	8.846178E-1	7.786377E-1	7.909383E-1	8.603639E-1	8.541842E-1	7.792553E-1	8.303029E-1	8.738283E-1	8.759955E-1	6.676418E-1	6.518015E-1	8.053803E-1	8.727752E-1	6.757187E-1	7.186581E-1	8.338703E-1	8.293636E-1	7.487883E-1	7.499024E-1	8.501665E-1	8.929004E-1	7.605920E-1	7.500119E-1	8.296732E-1	8.892861E-1	6.554910E-1	7.368297E-1	8.405935E-1	8.253473E-1	7.146419E-1	7.081091E-1	8.437774E-1	8.699055E-1	8.298516E-1	8.025679E-1	8.248601E-1	8.168791E-1	7.391029E-1	7.682875E-1	8.583253E-1	7.796584E-1	7.589175E-1	7.104875E-1	8.616418E-1	8.338876E-1	6.187386E-1	7.311932E-1	8.604753E-1	8.199518E-1	7.294634E-1	7.919767E-1	7.988245E-1	8.972422E-1	8.327750E-1	7.830247E-1	8.483735E-1	8.322616E-1	7.194362E-1	7.300630E-1	8.765970E-1	8.756153E-1	7.352203E-1	7.158976E-1	8.924054E-1	8.031507E-1	7.702299E-1	7.779817E-1	8.619927E-1	8.553273E-1	8.179437E-1	8.147007E-1	8.695975E-1	8.360208E-1	7.528276E-1	7.371177E-1	8.616551E-1	8.633931E-1	6.997057E-1	7.895833E-1	8.857950E-1	8.939195E-1	7.534943E-1	8.358726E-1	8.933776E-1	8.395834E-1	7.734836E-1	7.942741E-1	8.897915E-1	8.759397E-1	7.053096E-1	6.420658E-1	8.413980E-1	9.137482E-1	7.374594E-1	7.208724E-1	8.616747E-1	8.961295E-1	8.124594E-1	7.710186E-1	8.693895E-1	8.509306E-1	7.064798E-1	8.500102E-1	8.822970E-1	9.092555E-1	6.876041E-1	7.224331E-1	8.885836E-1	8.286522E-1	7.263801E-1	7.340694E-1	8.404339E-1	8.141191E-1	8.046248E-1	7.802716E-1	8.447400E-1	8.701764E-1	8.552337E-1	8.636807E-1	8.379542E-1	8.448032E-1	7.155373E-1	7.891625E-1	8.769820E-1	8.719294E-1	7.598040E-1	8.130312E-1	8.117686E-1	8.161905E-1	8.574504E-1	8.419313E-1	8.804068E-1	8.538135E-1	7.747190E-1	7.866331E-1	8.421403E-1	8.713490E-1	7.197027E-1	7.081343E-1	8.819337E-1	8.536028E-1	7.328828E-1	6.980395E-1	8.989328E-1	8.309653E-1	7.673806E-1	8.083678E-1	8.836935E-1	8.011042E-1	7.899465E-1	7.553195E-1
2.892020E+2	5.779243E-1	6.679066E-1	6.852106E-1	6.967707E-1	6.672377E-1	6.705788E-1	6.979793E-1	6.779733E-1	7.088739E-1	6.283638E-1	6.449492E-1	6.772561E-1	7.386216E-1	5.795838E-1	5.650494E-1	7.148206E-1	7.040483E-1	5.721120E-1	5.723781E-1	7.146760E-1	7.301931E-1	6.650446E-1	6.344299E-1	6.830011E-1	6.725625E-1	6.125588E-1	6.238270E-1	7.124802E-1	7.053944E-1	5.547167E-1	5.599191E-1	6.881542E-1	6.695043E-1	5.563926E-1	5.232347E-1	6.937376E-1	6.787437E-1	6.389997E-1	6.305539E-1	6.759894E-1	6.931144E-1	6.317156E-1	5.945444E-1	6.775647E-1	7.039347E-1	5.755496E-1	6.072330E-1	6.565823E-1	6.757569E-1	5.484282E-1	5.399092E-1	6.944961E-1	6.847241E-1	6.533929E-1	6.544937E-1	6.819762E-1	6.599184E-1	6.579249E-1	6.162958E-1	6.953440E-1	6.684439E-1	5.264924E-1	5.521778E-1	6.989377E-1	6.976195E-1	5.382092E-1	6.242609E-1	6.375195E-1	6.950395E-1	6.090789E-1	6.497344E-1	6.540094E-1	6.929370E-1	6.581128E-1	6.462143E-1	6.567195E-1	7.010162E-1	5.858721E-1	5.844362E-1	7.264012E-1	6.786017E-1	5.785710E-1	5.488299E-1	6.671109E-1	6.748620E-1	6.392447E-1	6.136719E-1	6.845057E-1	6.473832E-1	6.298315E-1	7.093254E-1	6.739932E-1	6.915548E-1	6.031159E-1	5.890025E-1	6.719857E-1	6.920723E-1	5.458956E-1	6.380242E-1	6.617090E-1	7.179598E-1	6.432519E-1	6.482316E-1	7.107903E-1	7.033568E-1	6.405608E-1	6.503534E-1	6.792878E-1	6.675462E-1	5.737280E-1	5.727671E-1	6.714420E-1	7.370154E-1	5.769296E-1	5.564857E-1	6.515494E-1	6.679850E-1	6.499802E-1	6.072397E-1	6.748365E-1	7.361819E-1	5.548596E-1	6.485559E-1	7.392118E-1	7.027802E-1	5.669666E-1	5.952688E-1	6.626730E-1	6.698977E-1	5.915719E-1	6.217894E-1	6.710804E-1	6.724214E-1	6.832074E-1	6.317508E-1	7.260715E-1	6.935414E-1	6.905574E-1	6.912765E-1	7.086820E-1	6.578183E-1	6.220518E-1	6.148707E-1	6.869423E-1	6.685855E-1	6.035060E-1	6.368514E-1	7.086932E-1	6.652726E-1	6.787640E-1	6.795422E-1	6.932163E-1	6.943370E-1	6.457105E-1	6.286566E-1	6.762928E-1	6.718356E-1	5.968941E-1	5.913480E-1	6.675517E-1	6.292247E-1	5.573670E-1	5.998332E-1	6.799074E-1	6.675839E-1	6.568746E-1	6.445452E-1	6.774542E-1	6.766012E-1	6.358456E-1	6.785013E-1
2.894040E+2	4.708011E-1	5.102725E-1	4.797935E-1	4.977085E-1	4.487037E-1	5.074344E-1	5.035150E-1	4.981871E-1	4.778371E-1	4.408091E-1	4.456530E-1	5.162555E-1	4.985869E-1	4.192001E-1	4.252059E-1	5.133048E-1	5.007386E-1	3.944552E-1	4.018706E-1	5.110738E-1	4.874330E-1	4.304641E-1	4.421169E-1	4.759624E-1	4.845799E-1	4.557134E-1	4.973613E-1	5.071289E-1	5.114401E-1	3.846879E-1	3.991261E-1	4.794167E-1	5.145280E-1	4.145269E-1	4.026112E-1	4.960509E-1	4.630974E-1	4.535366E-1	4.211707E-1	4.750691E-1	5.291107E-1	4.401432E-1	4.003927E-1	4.826503E-1	4.965482E-1	3.994377E-1	3.809216E-1	5.026570E-1	5.089359E-1	4.406704E-1	3.936775E-1	4.910007E-1	4.901665E-1	4.749057E-1	4.337795E-1	5.183098E-1	4.874333E-1	4.603912E-1	4.486580E-1	5.248866E-1	5.273430E-1	4.139421E-1	4.012894E-1	4.892307E-1	5.135513E-1	3.398311E-1	4.308293E-1	4.572769E-1	5.049248E-1	4.278392E-1	4.876300E-1	5.211305E-1	4.849966E-1	4.672923E-1	4.863632E-1	5.398190E-1	4.833741E-1	4.180150E-1	4.033534E-1	5.301633E-1	5.013631E-1	3.936841E-1	3.897510E-1	5.163676E-1	4.643010E-1	4.951613E-1	4.619522E-1	5.171424E-1	5.423012E-1	4.794841E-1	4.970465E-1	5.033116E-1	4.861528E-1	4.380493E-1	4.149023E-1	4.678931E-1	5.193298E-1	4.067349E-1	4.394806E-1	5.042437E-1	5.413115E-1	4.481016E-1	4.718767E-1	4.948197E-1	4.876645E-1	5.016634E-1	4.770591E-1	5.016503E-1	4.870314E-1	4.263300E-1	4.176407E-1	5.022179E-1	4.886827E-1	4.508516E-1	3.888117E-1	4.906587E-1	5.161536E-1	4.696857E-1	4.779402E-1	5.168593E-1	4.870348E-1	4.338553E-1	4.891040E-1	4.798177E-1	4.806320E-1	4.257949E-1	4.506761E-1	5.099354E-1	4.951153E-1	4.095031E-1	4.759025E-1	4.898137E-1	5.185194E-1	4.996362E-1	4.730583E-1	5.213658E-1	5.216809E-1	4.798081E-1	4.964196E-1	5.056706E-1	5.107242E-1	4.430948E-1	4.230098E-1	4.952054E-1	4.952082E-1	4.222579E-1	4.860745E-1	5.274231E-1	4.969416E-1	4.845386E-1	4.912246E-1	5.060266E-1	4.874487E-1	4.572709E-1	4.647803E-1	4.746888E-1	4.964018E-1	4.117264E-1	4.508390E-1	5.205675E-1	4.747351E-1	4.011866E-1	4.243607E-1	5.450591E-1	5.270482E-1	4.593041E-1	4.958917E-1	4.898826E-1	4.726281E-1	5.294417E-1	4.651161E-1
2.896060E+2	4.339776E-1	5.040734E-1	4.899854E-1	4.594612E-1	4.399912E-1	4.908943E-1	4.555647E-1	4.591036E-1	4.822511E-1	4.264366E-1	4.514013E-1	4.724810E-1	4.633244E-1	3.720285E-1	3.406615E-1	4.786353E-1	4.408995E-1	4.062991E-1	3.787612E-1	4.652638E-1	4.409747E-1	4.002168E-1	4.346085E-1	4.725115E-1	4.782194E-1	4.299517E-1	4.534854E-1	4.631244E-1	4.426817E-1	4.257513E-1	3.722336E-1	4.839547E-1	4.727212E-1	3.793918E-1	3.662220E-1	5.027242E-1	4.723866E-1	4.293459E-1	4.093056E-1	4.730120E-1	5.082378E-1	4.067049E-1	4.332387E-1	4.459606E-1	4.816429E-1	3.820069E-1	4.002652E-1	4.809664E-1	4.870064E-1	3.744665E-1	3.833800E-1	4.705721E-1	4.917293E-1	4.586798E-1	4.540339E-1	4.468677E-1	4.779467E-1	4.340085E-1	4.419516E-1	4.411529E-1	5.162215E-1	3.633284E-1	3.635667E-1	4.769370E-1	4.828736E-1	3.483427E-1	3.865583E-1	4.743614E-1	4.829622E-1	4.549586E-1	4.363711E-1	5.060124E-1	4.740908E-1	4.634450E-1	4.359593E-1	4.595002E-1	4.992029E-1	4.156081E-1	3.767602E-1	4.697835E-1	4.566876E-1	4.030966E-1	3.771043E-1	4.770438E-1	4.789421E-1	4.204992E-1	3.996268E-1	4.597802E-1	4.771798E-1	4.452818E-1	4.474131E-1	4.595079E-1	4.450733E-1	4.329315E-1	4.103549E-1	4.866443E-1	4.901837E-1	3.906217E-1	4.622144E-1	4.929952E-1	4.767011E-1	4.261900E-1	4.725820E-1	4.750617E-1	4.714471E-1	4.501371E-1	4.425474E-1	4.680016E-1	5.211826E-1	3.567431E-1	3.934820E-1	4.802415E-1	4.959327E-1	4.010071E-1	3.914421E-1	4.651618E-1	4.811771E-1	4.490187E-1	4.752880E-1	4.756149E-1	4.728874E-1	4.054268E-1	4.509905E-1	4.747973E-1	4.969869E-1	3.982017E-1	4.196917E-1	4.424461E-1	4.493212E-1	4.226742E-1	4.079239E-1	4.966215E-1	4.595348E-1	4.201372E-1	4.710232E-1	4.805737E-1	4.484810E-1	4.567700E-1	4.900048E-1	4.901939E-1	4.583687E-1	3.950157E-1	4.194952E-1	4.969017E-1	4.887875E-1	4.317970E-1	4.278947E-1	4.527816E-1	4.954898E-1	4.675875E-1	4.775782E-1	4.726512E-1	4.924779E-1	4.232077E-1	4.536364E-1	5.157699E-1	4.922739E-1	4.059998E-1	4.161680E-1	4.854344E-1	4.813567E-1	4.257292E-1	4.099186E-1	4.886678E-1	4.384347E-1	4.345241E-1	4.473517E-1	4.756590E-1	4.832235E-1	4.432190E-1	4.907226E-1
2.898030E+2	4.766595E-1	5.235560E-1	5.197793E-1	5.629036E-1	5.263888E-1	5.645726E-1	5.308201E-1	5.507724E-1	5.595090E-1	5.277600E-1	5.504111E-1	5.548361E-1	5.864343E-1	4.368899E-1	4.544506E-1	5.335292E-1	5.454383E-1	4.676082E-1	4.630780E-1	5.407664E-1	5.515587E-1	4.963348E-1	5.177714E-1	5.442853E-1	5.601967E-1	5.307266E-1	5.418824E-1	5.413539E-1	5.672268E-1	4.347345E-1	4.271389E-1	5.368951E-1	5.584981E-1	4.708754E-1	4.147407E-1	5.210743E-1	5.367487E-1	5.037788E-1	4.672351E-1	5.381573E-1	5.164374E-1	4.826373E-1	4.463767E-1	5.743749E-1	5.548759E-1	4.505281E-1	4.441087E-1	5.299433E-1	5.316482E-1	4.730685E-1	4.458542E-1	5.601414E-1	5.815855E-1	5.154714E-1	4.917517E-1	5.735141E-1	5.072693E-1	5.165403E-1	4.859111E-1	5.570344E-1	5.475000E-1	4.472410E-1	4.575635E-1	5.210486E-1	5.677731E-1	4.458946E-1	4.928090E-1	5.520963E-1	5.543413E-1	5.211043E-1	5.587506E-1	5.569358E-1	5.249854E-1	5.042248E-1	5.022042E-1	5.350477E-1	5.288817E-1	4.486986E-1	4.476742E-1	5.754494E-1	5.540957E-1	4.703278E-1	4.416680E-1	5.286576E-1	5.291430E-1	5.095693E-1	5.060202E-1	5.616833E-1	5.238006E-1	5.143985E-1	5.634786E-1	5.199264E-1	5.210715E-1	4.585226E-1	4.694704E-1	5.609246E-1	5.399450E-1	4.711884E-1	5.031352E-1	4.947259E-1	5.419991E-1	5.015118E-1	5.092635E-1	5.629495E-1	5.841580E-1	5.397484E-1	5.291947E-1	6.049462E-1	5.797281E-1	4.649192E-1	4.507005E-1	5.622892E-1	5.756892E-1	5.087594E-1	4.677176E-1	5.293428E-1	5.519255E-1	5.024663E-1	4.945171E-1	4.981828E-1	5.349780E-1	5.031050E-1	4.937695E-1	5.275131E-1	5.535463E-1	4.174525E-1	4.584222E-1	5.866597E-1	5.882308E-1	4.877538E-1	4.881238E-1	5.442782E-1	5.158066E-1	5.191498E-1	5.225652E-1	5.317496E-1	5.558941E-1	5.514799E-1	5.621734E-1	5.812301E-1	5.867644E-1	4.664654E-1	5.129669E-1	5.469564E-1	5.786861E-1	4.736236E-1	5.245886E-1	5.274225E-1	5.295916E-1	5.163212E-1	5.383041E-1	5.974451E-1	5.679053E-1	5.123539E-1	4.910006E-1	5.636986E-1	5.514402E-1	4.791759E-1	4.690865E-1	5.729082E-1	5.563945E-1	4.867141E-1	4.431354E-1	5.548667E-1	5.208178E-1	4.941303E-1	4.837570E-1	5.823351E-1	4.805749E-1	5.404495E-1	4.352425E-1
2.900050E+2	5.385898E-1	5.651789E-1	6.115113E-1	6.420066E-1	5.619645E-1	6.397536E-1	5.914239E-1	6.140176E-1	5.970342E-1	5.917150E-1	5.453010E-1	5.904493E-1	6.266467E-1	5.990422E-1	5.023061E-1	5.898669E-1	5.894162E-1	5.853496E-1	5.380263E-1	6.264485E-1	5.783865E-1	5.944692E-1	5.454926E-1	6.291711E-1	5.976520E-1	5.489118E-1	5.844681E-1	5.690604E-1	6.152287E-1	5.065955E-1	5.044539E-1	6.321888E-1	6.212096E-1	5.312019E-1	4.342832E-1	6.211690E-1	6.150443E-1	5.856556E-1	5.139969E-1	6.259314E-1	5.976941E-1	5.098058E-1	5.186358E-1	5.774317E-1	6.125549E-1	4.733687E-1	4.550692E-1	6.083057E-1	6.178001E-1	5.103958E-1	4.856732E-1	6.057121E-1	5.940872E-1	5.702345E-1	4.945449E-1	5.839066E-1	5.848873E-1	5.145108E-1	5.477500E-1	5.996485E-1	5.746087E-1	4.765437E-1	4.717863E-1	6.034844E-1	6.041590E-1	5.100571E-1	5.248206E-1	5.828500E-1	6.119927E-1	5.687296E-1	5.670803E-1	6.006985E-1	6.224118E-1	5.434665E-1	5.662889E-1	5.764007E-1	6.363836E-1	4.727633E-1	4.850303E-1	5.648824E-1	6.229401E-1	5.187345E-1	4.776108E-1	6.417136E-1	6.107172E-1	5.475553E-1	5.374971E-1	6.102726E-1	5.541415E-1	5.535888E-1	5.871507E-1	5.863865E-1	5.826920E-1	4.937109E-1	5.383312E-1	5.890504E-1	6.238283E-1	4.902318E-1	5.501192E-1	6.002807E-1	5.564333E-1	5.514973E-1	5.833327E-1	6.011011E-1	5.882125E-1	5.950085E-1	5.695801E-1	6.307701E-1	6.194548E-1	5.199559E-1	4.735884E-1	6.040454E-1	5.874709E-1	5.175558E-1	4.913890E-1	5.952813E-1	5.821330E-1	5.559133E-1	5.515417E-1	6.094670E-1	5.994265E-1	5.060207E-1	5.451060E-1	6.061673E-1	5.951137E-1	4.873968E-1	5.546024E-1	6.520172E-1	5.775457E-1	5.319147E-1	5.255498E-1	6.029993E-1	5.978429E-1	5.401087E-1	5.673242E-1	5.962764E-1	6.338682E-1	6.154735E-1	5.429287E-1	6.012589E-1	6.067096E-1	5.278986E-1	5.396722E-1	6.402806E-1	6.379057E-1	5.242556E-1	5.885045E-1	5.896238E-1	6.021483E-1	5.608158E-1	5.615022E-1	5.952683E-1	6.059785E-1	5.449677E-1	5.447519E-1	5.971722E-1	6.360608E-1	5.078103E-1	5.207891E-1	6.080413E-1	6.115691E-1	5.365429E-1	5.023485E-1	6.521200E-1	6.149698E-1	5.209189E-1	5.451900E-1	6.090038E-1	5.746147E-1	5.276071E-1	5.803441E-1
2.905280E+2	4.959082E-1	5.696063E-1	5.676049E-1	5.576877E-1	5.285666E-1	5.149530E-1	5.394782E-1	5.713809E-1	5.455289E-1	5.680010E-1	5.076134E-1	5.785781E-1	5.567391E-1	5.695599E-1	4.948615E-1	5.645873E-1	5.915797E-1	5.428511E-1	4.649519E-1	5.780932E-1	5.882019E-1	5.467462E-1	5.247015E-1	5.477361E-1	5.552500E-1	5.837662E-1	5.496254E-1	4.949049E-1	5.633345E-1	5.502255E-1	4.736399E-1	5.467273E-1	5.354315E-1	5.875501E-1	4.288922E-1	5.961455E-1	5.924849E-1	5.676673E-1	4.825897E-1	5.786154E-1	5.984399E-1	5.474239E-1	4.806810E-1	5.537365E-1	5.911684E-1	4.775760E-1	4.428194E-1	5.712235E-1	5.606270E-1	5.329333E-1	4.616445E-1	6.096404E-1	5.354847E-1	5.249368E-1	5.008317E-1	5.897515E-1	5.736759E-1	5.212749E-1	5.209284E-1	5.346058E-1	5.614017E-1	4.645564E-1	4.482871E-1	5.745589E-1	5.813287E-1	5.061283E-1	5.105180E-1	5.683269E-1	5.968938E-1	5.025840E-1	5.510622E-1	5.776239E-1	5.569760E-1	5.642415E-1	4.964442E-1	5.724249E-1	5.842812E-1	4.956261E-1	4.413424E-1	5.460136E-1	5.599548E-1	4.703274E-1	4.563114E-1	5.425839E-1	5.723704E-1	5.174288E-1	5.142037E-1	5.832782E-1	5.682015E-1	5.265118E-1	5.466802E-1	5.667508E-1	5.731060E-1	5.013889E-1	4.857115E-1	5.356836E-1	5.854413E-1	4.807101E-1	5.311739E-1	5.873020E-1	5.550586E-1	5.076736E-1	5.593485E-1	5.418288E-1	5.752388E-1	5.860472E-1	4.990885E-1	5.587763E-1	5.574248E-1	4.927539E-1	4.500648E-1	5.989176E-1	6.046917E-1	4.867691E-1	4.611415E-1	5.759394E-1	5.908770E-1	5.430859E-1	4.885498E-1	5.915678E-1	5.286898E-1	4.834236E-1	5.054367E-1	5.902693E-1	5.440062E-1	4.803380E-1	4.752048E-1	5.902117E-1	5.775456E-1	4.707093E-1	5.079825E-1	6.038499E-1	5.503836E-1	5.552861E-1	5.320595E-1	5.807009E-1	5.877198E-1	5.813431E-1	5.661834E-1	5.675740E-1	5.774155E-1	4.945115E-1	5.270221E-1	6.216154E-1	5.444386E-1	5.095795E-1	5.622823E-1	5.460829E-1	5.477314E-1	5.417468E-1	5.471741E-1	5.865608E-1	5.722156E-1	5.435186E-1	5.499962E-1	5.431574E-1	6.009738E-1	4.938113E-1	4.909844E-1	5.485304E-1	5.858210E-1	4.636587E-1	4.597446E-1	5.908256E-1	5.796628E-1	5.122128E-1	5.467071E-1	6.036697E-1	5.547465E-1	5.441181E-1	4.992579E-1
2.910030E+2	4.741490E-1	5.970599E-1	5.448680E-1	5.950662E-1	5.496215E-1	5.525428E-1	5.554611E-1	5.443770E-1	6.191079E-1	5.838104E-1	5.376353E-1	5.882236E-1	5.963333E-1	5.713286E-1	4.704023E-1	5.913110E-1	5.865325E-1	6.278485E-1	4.993034E-1	5.755481E-1	6.189552E-1	5.951408E-1	5.622401E-1	5.746508E-1	5.842241E-1	6.292288E-1	5.612395E-1	6.089897E-1	6.288506E-1	6.092539E-1	4.809232E-1	5.905924E-1	5.815641E-1	5.968306E-1	5.003226E-1	5.744588E-1	5.977931E-1	6.011622E-1	4.902675E-1	5.978159E-1	6.118579E-1	6.038506E-1	5.419924E-1	5.659666E-1	6.119071E-1	5.665332E-1	4.918209E-1	6.299948E-1	5.598439E-1	5.808254E-1	4.781211E-1	6.159258E-1	6.440935E-1	5.715865E-1	5.615975E-1	5.988439E-1	5.633274E-1	5.747175E-1	5.648867E-1	5.974050E-1	6.038020E-1	5.438067E-1	4.538527E-1	5.767290E-1	5.420895E-1	5.238054E-1	4.955340E-1	6.016425E-1	5.811082E-1	5.700528E-1	5.670801E-1	5.617103E-1	5.824235E-1	5.065332E-1	5.245265E-1	6.249095E-1	6.344049E-1	4.727641E-1	4.559050E-1	5.935631E-1	6.456449E-1	5.335252E-1	4.769450E-1	5.835467E-1	6.093227E-1	5.331469E-1	5.500880E-1	6.203953E-1	6.126026E-1	5.635643E-1	5.779871E-1	5.780791E-1	5.731068E-1	4.789959E-1	5.084485E-1	5.984258E-1	5.662481E-1	4.990204E-1	4.697922E-1	5.639410E-1	5.976741E-1	5.042500E-1	5.882709E-1	5.976948E-1	6.060512E-1	6.338397E-1	4.880743E-1	5.853834E-1	5.727585E-1	5.073036E-1	4.837603E-1	6.106384E-1	6.237247E-1	4.765067E-1	4.571964E-1	5.803349E-1	6.067757E-1	5.202819E-1	5.468998E-1	6.538250E-1	5.750610E-1	4.870676E-1	5.878862E-1	6.178823E-1	5.671746E-1	4.630126E-1	4.894061E-1	5.994471E-1	6.111280E-1	4.931774E-1	5.011083E-1	5.638523E-1	5.910631E-1	5.581767E-1	5.368062E-1	5.821844E-1	5.829456E-1	5.531860E-1	5.974565E-1	5.948859E-1	5.780389E-1	5.018565E-1	5.403749E-1	6.487642E-1	6.022316E-1	5.411334E-1	5.475324E-1	5.931781E-1	5.869116E-1	5.827104E-1	5.519497E-1	6.090527E-1	6.038233E-1	5.471425E-1	5.440963E-1	5.758710E-1	6.023503E-1	4.626318E-1	4.855102E-1	5.901162E-1	5.887634E-1	4.896885E-1	4.749081E-1	6.071709E-1	5.907394E-1	5.470386E-1	5.618759E-1	6.054477E-1	6.090522E-1	5.349464E-1	5.931470E-1
2.915150E+2	6.925791E-1	7.484947E-1	7.824304E-1	7.367566E-1	7.398412E-1	7.795919E-1	7.592498E-1	7.469027E-1	7.861318E-1	7.476513E-1	7.049939E-1	7.440314E-1	7.837827E-1	7.747559E-1	6.299192E-1	7.841590E-1	7.227932E-1	7.692774E-1	6.623159E-1	7.613341E-1	7.570215E-1	7.853601E-1	6.892947E-1	7.637459E-1	7.199107E-1	7.497041E-1	7.670700E-1	7.931540E-1	7.676668E-1	7.722255E-1	6.366741E-1	7.289943E-1	7.545607E-1	7.685284E-1	6.371190E-1	7.487907E-1	7.444322E-1	7.382435E-1	7.010467E-1	7.562212E-1	7.482790E-1	7.703451E-1	6.784818E-1	7.050820E-1	7.687430E-1	7.618794E-1	6.504314E-1	7.405414E-1	7.697409E-1	7.399966E-1	6.243524E-1	7.989935E-1	7.941132E-1	7.825255E-1	6.873212E-1	7.319855E-1	7.573713E-1	7.316618E-1	7.280541E-1	7.962735E-1	7.539396E-1	7.862225E-1	6.424639E-1	7.813742E-1	7.932208E-1	7.922382E-1	6.617218E-1	7.528423E-1	8.069117E-1	7.929636E-1	7.304663E-1	7.693836E-1	7.772762E-1	7.719896E-1	7.419812E-1	8.086113E-1	7.709260E-1	7.519242E-1	6.236922E-1	7.943288E-1	7.840663E-1	7.742147E-1	6.420150E-1	7.883595E-1	7.369148E-1	7.951174E-1	6.866983E-1	7.405185E-1	7.717060E-1	7.238875E-1	7.475052E-1	7.646207E-1	8.113728E-1	7.080416E-1	6.728048E-1	7.844890E-1	7.979931E-1	7.070291E-1	7.153194E-1	7.897582E-1	7.853193E-1	7.226812E-1	7.293545E-1	7.537121E-1	7.430892E-1	7.182235E-1	6.855994E-1	7.755414E-1	8.180909E-1	6.711492E-1	6.204495E-1	7.849905E-1	7.551413E-1	7.000756E-1	6.380214E-1	7.957357E-1	7.419132E-1	7.169672E-1	7.040485E-1	8.250325E-1	7.306803E-1	6.583697E-1	7.551174E-1	8.036419E-1	7.443485E-1	6.414025E-1	6.811207E-1	7.756292E-1	7.813314E-1	6.256616E-1	6.828934E-1	7.851175E-1	7.795421E-1	7.287386E-1	7.178791E-1	8.336154E-1	8.025452E-1	7.955065E-1	7.650495E-1	7.760494E-1	7.668927E-1	6.474269E-1	6.956921E-1	7.845077E-1	8.305471E-1	6.952298E-1	7.581285E-1	7.611201E-1	7.494382E-1	7.691663E-1	7.682419E-1	7.461808E-1	7.367205E-1	7.065913E-1	7.682788E-1	7.805177E-1	7.764081E-1	6.446174E-1	6.539992E-1	8.073667E-1	7.609093E-1	6.473558E-1	6.424366E-1	7.550949E-1	7.368133E-1	7.144719E-1	6.847428E-1	7.627953E-1	7.613700E-1	7.367451E-1	8.406734E-1
2.920000E+2	5.703923E-1	6.307120E-1	6.703139E-1	6.515685E-1	6.149635E-1	6.352438E-1	6.433699E-1	6.502590E-1	6.647267E-1	6.829774E-1	5.855437E-1	6.564815E-1	6.600532E-1	6.008110E-1	5.257015E-1	6.404256E-1	6.290690E-1	6.675598E-1	5.324057E-1	6.315383E-1	6.529815E-1	6.704220E-1	5.743684E-1	6.346923E-1	6.018921E-1	6.815098E-1	6.296344E-1	6.114349E-1	6.113364E-1	6.625085E-1	5.352680E-1	6.079875E-1	6.586921E-1	6.538427E-1	5.353645E-1	6.511977E-1	6.667995E-1	6.210110E-1	5.663437E-1	6.780468E-1	6.864051E-1	6.630639E-1	5.252045E-1	6.378174E-1	6.961577E-1	6.717193E-1	5.240587E-1	6.139026E-1	6.154508E-1	6.371695E-1	5.048961E-1	6.332114E-1	6.659716E-1	6.608298E-1	5.874416E-1	6.644403E-1	5.969614E-1	6.484547E-1	6.073546E-1	6.243200E-1	6.684444E-1	6.450347E-1	5.342440E-1	6.034847E-1	6.719360E-1	6.416536E-1	5.752224E-1	6.768152E-1	6.634682E-1	6.520732E-1	5.830986E-1	6.325262E-1	6.696712E-1	6.750399E-1	5.482878E-1	6.559244E-1	6.924428E-1	6.327999E-1	5.185880E-1	6.554531E-1	6.661514E-1	6.175645E-1	5.155500E-1	6.589175E-1	6.330283E-1	6.896741E-1	5.803057E-1	6.453644E-1	6.547832E-1	6.846972E-1	6.551109E-1	6.551126E-1	6.046013E-1	6.485410E-1	5.721122E-1	6.287155E-1	6.430226E-1	6.425759E-1	6.099846E-1	6.565174E-1	6.299790E-1	6.117543E-1	6.447043E-1	6.487927E-1	6.336216E-1	6.510156E-1	5.974838E-1	7.152854E-1	6.515156E-1	6.565995E-1	5.231778E-1	6.751048E-1	7.025741E-1	6.370367E-1	5.512256E-1	6.823208E-1	6.330085E-1	6.057969E-1	5.734233E-1	6.686111E-1	6.371514E-1	5.373648E-1	6.298888E-1	6.789655E-1	6.448588E-1	5.605494E-1	5.771946E-1	6.598322E-1	6.439481E-1	5.613561E-1	5.851268E-1	6.395928E-1	6.175048E-1	6.253900E-1	5.564738E-1	6.741528E-1	6.497804E-1	6.069400E-1	6.575974E-1	6.604322E-1	6.353806E-1	5.753092E-1	5.874621E-1	6.419770E-1	6.835688E-1	6.042392E-1	6.327541E-1	6.180584E-1	6.471337E-1	6.307371E-1	6.317804E-1	6.417025E-1	6.857165E-1	6.109216E-1	6.378343E-1	6.222780E-1	6.635799E-1	5.307175E-1	5.439037E-1	6.510607E-1	6.056839E-1	5.677785E-1	5.326763E-1	6.496682E-1	6.405843E-1	5.945899E-1	6.187584E-1	6.827878E-1	6.474627E-1	5.954845E-1	6.144856E-1
2.925020E+2	5.268729E-1	6.147714E-1	6.177838E-1	5.811585E-1	5.989913E-1	6.254696E-1	6.160652E-1	6.175706E-1	5.896764E-1	6.499221E-1	5.682965E-1	6.661272E-1	5.833411E-1	6.249860E-1	5.363362E-1	5.804771E-1	6.651169E-1	6.306345E-1	4.874366E-1	6.128751E-1	6.124120E-1	6.253876E-1	5.639732E-1	5.691296E-1	5.644366E-1	6.224092E-1	5.960825E-1	6.383258E-1	6.158771E-1	6.086129E-1	4.848453E-1	5.777352E-1	5.851683E-1	6.492020E-1	5.272778E-1	6.169983E-1	6.236703E-1	5.937193E-1	5.160911E-1	5.902728E-1	6.304949E-1	6.247495E-1	5.244749E-1	5.843115E-1	6.157953E-1	6.170226E-1	5.130980E-1	6.097047E-1	6.084021E-1	6.315342E-1	5.035228E-1	6.206401E-1	6.370604E-1	6.067431E-1	5.671856E-1	6.235240E-1	6.366328E-1	5.835118E-1	5.552009E-1	5.966582E-1	6.072769E-1	6.290514E-1	4.952850E-1	6.157780E-1	6.105797E-1	6.213578E-1	5.459350E-1	5.922456E-1	6.284655E-1	5.865890E-1	5.696430E-1	5.887634E-1	5.882398E-1	6.388762E-1	5.835704E-1	6.105956E-1	6.086831E-1	6.201654E-1	5.008590E-1	5.724296E-1	6.119541E-1	6.081526E-1	5.222062E-1	6.605569E-1	5.967730E-1	5.757170E-1	5.513471E-1	6.021743E-1	6.244427E-1	6.312562E-1	6.497649E-1	5.946943E-1	6.388354E-1	5.992770E-1	5.558712E-1	6.243884E-1	5.776220E-1	6.125469E-1	5.781578E-1	6.072014E-1	6.121079E-1	6.007982E-1	6.115498E-1	6.562861E-1	5.679406E-1	6.091971E-1	6.143724E-1	5.775571E-1	6.257276E-1	6.078885E-1	5.085551E-1	5.989177E-1	6.545401E-1	6.604932E-1	4.913889E-1	5.592347E-1	5.924665E-1	6.086477E-1	5.316495E-1	6.592723E-1	6.072859E-1	5.869329E-1	5.567734E-1	5.651666E-1	5.937504E-1	5.919920E-1	5.242630E-1	6.385193E-1	5.958633E-1	5.907971E-1	5.316604E-1	6.106585E-1	6.093688E-1	6.398444E-1	5.836003E-1	6.541275E-1	5.893112E-1	6.257117E-1	6.054755E-1	6.276588E-1	6.048398E-1	5.639575E-1	6.001118E-1	6.385838E-1	6.165015E-1	5.609457E-1	5.893242E-1	6.304982E-1	6.130320E-1	6.455682E-1	6.174518E-1	6.322703E-1	6.095708E-1	5.804812E-1	5.670394E-1	5.789136E-1	6.505085E-1	5.205368E-1	5.195728E-1	6.374380E-1	5.681650E-1	5.685224E-1	4.900727E-1	6.619268E-1	6.364310E-1	5.577549E-1	5.884211E-1	6.347835E-1	5.600454E-1	5.441189E-1	7.382490E-1
2.930040E+2	5.210151E-1	5.899752E-1	5.942624E-1	5.802883E-1	5.416350E-1	5.818641E-1	5.847643E-1	6.857900E-1	6.360303E-1	5.852478E-1	5.574374E-1	6.067717E-1	6.365447E-1	6.090659E-1	5.257020E-1	6.014223E-1	5.627413E-1	6.194880E-1	5.067981E-1	5.746997E-1	6.294252E-1	5.796811E-1	5.426050E-1	5.898336E-1	5.891717E-1	5.898279E-1	5.709184E-1	5.812834E-1	6.320942E-1	5.816647E-1	4.876464E-1	6.125249E-1	5.974226E-1	6.412472E-1	4.868454E-1	5.661167E-1	6.455672E-1	6.073654E-1	5.419154E-1	6.019299E-1	5.917306E-1	6.129067E-1	5.368833E-1	5.942485E-1	5.982974E-1	5.713419E-1	4.860182E-1	5.810188E-1	6.420791E-1	5.878685E-1	5.296112E-1	6.041406E-1	6.112763E-1	6.128282E-1	5.266747E-1	6.072869E-1	5.935122E-1	5.896008E-1	5.477504E-1	5.704915E-1	5.648776E-1	5.491345E-1	4.402483E-1	5.904684E-1	6.170010E-1	6.331426E-1	5.091559E-1	5.982251E-1	5.749314E-1	5.839436E-1	5.561877E-1	6.595798E-1	5.984188E-1	6.127151E-1	5.756496E-1	5.978719E-1	6.060454E-1	5.948967E-1	4.970606E-1	5.897894E-1	5.863209E-1	6.101693E-1	4.742825E-1	6.179550E-1	5.918922E-1	5.940550E-1	5.337198E-1	5.954253E-1	5.970621E-1	6.276935E-1	6.337299E-1	5.690166E-1	5.731073E-1	6.223096E-1	5.136454E-1	5.991475E-1	6.025023E-1	6.455054E-1	5.804311E-1	5.483683E-1	6.093590E-1	5.864188E-1	5.515887E-1	5.711241E-1	5.874016E-1	6.405607E-1	5.490199E-1	6.002515E-1	6.292126E-1	6.173776E-1	4.704090E-1	5.461726E-1	5.729705E-1	6.084495E-1	5.051977E-1	5.627522E-1	6.155194E-1	5.815676E-1	5.256819E-1	5.993495E-1	5.876367E-1	5.883913E-1	5.458843E-1	5.986376E-1	5.678560E-1	5.637584E-1	5.203905E-1	6.150760E-1	5.981535E-1	5.652300E-1	5.140931E-1	5.868301E-1	6.141140E-1	6.015400E-1	5.544391E-1	6.185269E-1	6.171584E-1	6.427763E-1	6.134946E-1	5.721262E-1	5.880114E-1	6.260589E-1	5.467003E-1	6.216156E-1	6.086529E-1	6.086427E-1	5.639219E-1	6.251666E-1	6.224635E-1	6.279118E-1	5.635492E-1	5.691480E-1	6.232194E-1	6.051234E-1	5.539295E-1	5.522866E-1	6.106053E-1	6.140746E-1	5.134904E-1	6.230980E-1	5.836141E-1	6.354567E-1	4.814077E-1	6.308719E-1	6.052779E-1	5.771766E-1	6.081404E-1	6.036704E-1	5.997800E-1	5.899810E-1	5.888794E-1
2.935110E+2	7.076433E-1	7.892307E-1	7.424446E-1	7.454498E-1	7.238682E-1	7.495200E-1	7.778971E-1	7.383751E-1	7.574361E-1	7.591489E-1	6.883856E-1	7.388370E-1	7.565625E-1	7.665009E-1	6.299198E-1	7.863264E-1	7.941675E-1	7.825149E-1	6.379576E-1	7.494571E-1	7.537494E-1	7.403253E-1	7.043102E-1	7.320003E-1	7.481796E-1	7.277306E-1	7.283554E-1	7.328521E-1	7.890730E-1	7.683757E-1	6.120229E-1	7.993291E-1	7.214037E-1	7.804611E-1	5.993819E-1	7.304392E-1	7.789358E-1	7.388640E-1	6.633579E-1	7.219341E-1	7.475343E-1	7.278503E-1	6.346888E-1	8.090357E-1	7.467082E-1	7.420436E-1	6.291551E-1	7.356444E-1	7.470272E-1	7.329542E-1	5.756087E-1	7.675649E-1	7.831741E-1	7.980752E-1	6.314441E-1	7.729021E-1	7.340858E-1	7.600738E-1	6.997416E-1	7.252492E-1	7.504650E-1	7.482619E-1	6.523586E-1	8.168075E-1	7.332919E-1	7.490269E-1	5.956549E-1	7.374652E-1	7.773999E-1	7.969320E-1	7.048367E-1	7.598361E-1	7.634619E-1	7.112038E-1	6.807770E-1	7.338582E-1	7.471832E-1	7.597452E-1	5.787382E-1	7.754601E-1	7.738131E-1	7.116894E-1	6.559932E-1	7.498549E-1	7.536481E-1	7.951174E-1	6.508145E-1	7.850592E-1	7.480251E-1	7.702031E-1	7.803396E-1	7.215730E-1	7.100414E-1	7.675420E-1	6.987897E-1	7.513147E-1	7.581839E-1	7.363273E-1	6.668205E-1	7.508236E-1	7.784462E-1	7.534946E-1	7.272380E-1	7.605247E-1	7.171412E-1	8.093278E-1	7.010193E-1	7.857139E-1	8.160007E-1	7.445315E-1	6.414295E-1	7.659437E-1	7.741735E-1	7.777748E-1	6.090896E-1	7.236418E-1	7.315791E-1	7.697019E-1	6.708943E-1	7.651093E-1	7.911988E-1	7.640660E-1	7.061138E-1	7.919269E-1	7.361706E-1	7.613982E-1	6.456181E-1	7.678138E-1	7.317202E-1	7.480736E-1	6.783108E-1	7.612886E-1	7.124220E-1	7.677652E-1	7.253388E-1	7.994982E-1	7.874282E-1	7.741754E-1	7.458045E-1	7.532903E-1	7.388455E-1	7.656190E-1	6.900695E-1	7.616012E-1	7.356529E-1	7.304528E-1	7.130593E-1	7.166906E-1	7.704797E-1	7.557474E-1	7.545953E-1	7.519850E-1	8.013730E-1	7.413788E-1	7.020735E-1	7.500867E-1	7.399456E-1	7.617000E-1	6.102039E-1	7.457049E-1	7.704729E-1	8.176663E-1	6.402707E-1	7.575466E-1	7.596592E-1	7.774259E-1	7.082541E-1	7.903518E-1	7.494482E-1	7.679317E-1	7.894607E-1
2.940070E+2	7.854748E-1	8.618491E-1	8.835708E-1	8.549777E-1	8.378540E-1	8.773288E-1	8.404983E-1	8.321763E-1	8.199778E-1	8.590346E-1	8.033641E-1	9.139353E-1	8.351305E-1	8.384377E-1	7.144640E-1	9.163366E-1	8.590533E-1	8.689053E-1	7.491312E-1	8.682251E-1	8.878894E-1	8.633299E-1	8.088410E-1	8.355197E-1	8.888124E-1	8.603290E-1	7.786843E-1	8.860516E-1	8.948071E-1	8.453700E-1	6.870974E-1	8.394133E-1	8.425013E-1	8.354838E-1	7.200055E-1	8.822498E-1	8.678481E-1	8.077148E-1	7.792172E-1	8.131370E-1	8.623358E-1	8.302549E-1	7.376034E-1	8.870006E-1	8.666030E-1	8.923100E-1	7.297377E-1	8.727780E-1	9.154148E-1	8.886033E-1	6.847671E-1	8.869909E-1	9.191302E-1	8.562188E-1	7.913924E-1	8.371995E-1	8.246411E-1	8.703403E-1	8.219312E-1	8.508495E-1	8.366551E-1	8.068669E-1	6.770940E-1	8.529638E-1	8.659922E-1	8.236642E-1	7.414100E-1	8.587667E-1	9.002532E-1	8.405886E-1	8.355457E-1	8.982853E-1	8.819731E-1	8.958693E-1	7.686229E-1	8.221303E-1	8.718327E-1	8.572114E-1	6.920731E-1	8.962215E-1	8.617000E-1	8.461520E-1	7.012539E-1	8.932238E-1	8.568366E-1	8.756729E-1	7.666497E-1	8.572686E-1	8.568071E-1	8.343321E-1	8.788431E-1	8.401435E-1	8.866866E-1	8.846240E-1	7.475117E-1	9.128580E-1	8.918283E-1	8.549796E-1	7.554831E-1	8.693556E-1	8.265603E-1	7.959480E-1	7.977804E-1	8.463681E-1	8.436375E-1	8.787759E-1	7.700433E-1	8.428397E-1	8.536363E-1	8.565033E-1	7.081845E-1	8.289448E-1	8.774952E-1	8.987225E-1	7.110088E-1	8.493662E-1	9.247466E-1	8.708957E-1	7.816278E-1	8.616075E-1	8.532888E-1	8.238391E-1	8.725677E-1	9.391962E-1	8.383859E-1	8.582934E-1	7.211421E-1	8.878734E-1	7.836210E-1	8.642871E-1	7.776051E-1	9.119191E-1	8.371713E-1	8.422060E-1	8.114675E-1	8.870162E-1	8.884755E-1	8.850966E-1	8.781146E-1	8.124644E-1	8.691110E-1	8.911566E-1	7.631598E-1	9.049800E-1	8.469574E-1	8.427235E-1	8.318781E-1	8.277637E-1	8.307016E-1	8.313186E-1	8.282858E-1	8.717001E-1	8.588419E-1	8.211039E-1	8.108866E-1	8.748535E-1	8.899238E-1	8.552384E-1	7.501046E-1	8.654436E-1	8.506603E-1	8.511340E-1	7.298115E-1	8.719626E-1	8.143504E-1	8.932898E-1	8.159527E-1	9.059182E-1	7.679920E-1	8.413120E-1	8.406734E-1
2.945030E+2	7.436297E-1	8.388243E-1	8.286890E-1	8.228143E-1	7.819496E-1	8.532707E-1	8.671373E-1	8.463890E-1	8.611815E-1	8.037022E-1	8.103912E-1	8.568058E-1	8.376049E-1	8.012898E-1	6.713945E-1	8.888895E-1	8.280524E-1	8.514872E-1	7.160287E-1	8.054476E-1	8.577899E-1	8.451815E-1	6.939143E-1	8.334491E-1	8.640779E-1	8.330518E-1	8.167529E-1	8.110818E-1	8.662658E-1	8.954162E-1	7.207121E-1	7.894974E-1	8.518714E-1	8.414502E-1	6.728343E-1	8.213588E-1	8.618762E-1	7.624343E-1	7.275688E-1	8.275378E-1	8.190988E-1	8.727489E-1	7.149769E-1	8.426671E-1	8.030905E-1	8.628578E-1	6.684856E-1	8.874707E-1	8.927023E-1	8.308512E-1	6.806482E-1	8.099920E-1	8.339629E-1	8.562188E-1	7.278320E-1	8.443439E-1	7.866935E-1	8.439583E-1	8.077751E-1	8.501020E-1	8.199729E-1	8.361697E-1	6.597786E-1	8.536869E-1	8.196185E-1	8.112246E-1	7.134849E-1	8.314314E-1	8.419147E-1	8.009015E-1	8.137608E-1	8.179208E-1	8.485287E-1	8.389308E-1	7.477418E-1	8.682548E-1	8.461114E-1	8.307387E-1	6.876410E-1	8.275379E-1	8.382636E-1	8.273276E-1	6.892735E-1	7.523128E-1	7.919951E-1	8.651941E-1	7.553179E-1	7.877586E-1	8.316472E-1	8.435960E-1	7.963748E-1	8.628007E-1	8.291746E-1	8.155267E-1	7.026878E-1	8.277597E-1	8.157646E-1	8.447260E-1	7.516940E-1	8.459954E-1	8.403073E-1	7.788300E-1	7.935474E-1	8.586311E-1	8.485021E-1	8.914717E-1	7.399371E-1	8.264064E-1	8.264549E-1	8.425863E-1	6.789397E-1	8.443288E-1	8.339913E-1	8.261538E-1	7.031189E-1	8.054068E-1	8.190215E-1	8.338383E-1	7.239405E-1	8.865105E-1	8.556470E-1	8.041572E-1	7.807847E-1	8.714187E-1	8.179432E-1	8.467429E-1	7.159781E-1	8.942677E-1	8.019384E-1	8.116034E-1	7.042804E-1	7.919257E-1	8.161536E-1	8.682244E-1	7.375464E-1	8.269403E-1	7.882241E-1	8.236634E-1	8.604734E-1	8.716384E-1	8.211179E-1	8.083555E-1	7.469961E-1	8.065656E-1	8.640811E-1	8.170413E-1	8.064754E-1	8.339839E-1	8.546456E-1	8.701638E-1	8.112272E-1	8.085774E-1	8.387280E-1	8.160297E-1	7.617246E-1	8.482259E-1	8.046145E-1	8.024241E-1	7.160417E-1	8.245743E-1	8.124053E-1	8.436964E-1	6.785422E-1	8.523484E-1	8.489650E-1	8.028761E-1	7.749968E-1	8.419125E-1	7.666677E-1	7.826077E-1	8.065321E-1
2.950050E+2	6.624509E-1	7.591219E-1	7.910549E-1	7.054629E-1	7.245938E-1	8.239500E-1	7.812278E-1	7.405066E-1	7.890749E-1	7.117210E-1	7.069102E-1	7.351273E-1	7.144944E-1	7.323017E-1	6.347052E-1	7.162653E-1	7.386545E-1	7.567375E-1	6.760560E-1	7.893287E-1	7.511318E-1	7.678839E-1	6.881394E-1	7.727174E-1	7.220319E-1	7.534923E-1	7.328724E-1	7.670780E-1	7.663699E-1	7.465612E-1	6.624464E-1	7.637836E-1	7.769059E-1	7.406860E-1	6.020776E-1	8.155196E-1	7.391233E-1	7.487883E-1	6.738268E-1	7.370202E-1	7.490242E-1	7.403900E-1	6.616946E-1	7.494148E-1	7.603176E-1	7.101875E-1	6.239970E-1	7.671292E-1	7.869712E-1	7.407012E-1	6.037566E-1	7.730649E-1	7.237915E-1	7.379035E-1	7.152598E-1	7.612112E-1	7.383987E-1	7.614268E-1	6.826058E-1	7.230062E-1	7.518547E-1	7.895518E-1	6.121631E-1	7.987298E-1	7.118889E-1	7.470629E-1	6.378830E-1	7.417369E-1	7.211205E-1	7.638600E-1	7.106035E-1	7.192554E-1	7.154753E-1	7.088953E-1	6.685361E-1	7.473776E-1	7.702664E-1	7.338752E-1	6.091293E-1	7.347025E-1	7.664891E-1	7.580790E-1	5.940915E-1	7.859020E-1	7.550424E-1	7.617157E-1	6.451483E-1	7.324209E-1	7.465452E-1	7.659280E-1	7.459783E-1	8.137106E-1	6.922397E-1	7.841768E-1	6.195347E-1	7.404977E-1	7.617386E-1	7.392567E-1	6.819760E-1	7.629368E-1	7.509522E-1	7.336370E-1	7.293543E-1	7.509859E-1	7.966072E-1	7.473473E-1	6.709139E-1	7.520648E-1	7.637278E-1	7.831205E-1	6.020122E-1	7.190589E-1	7.832375E-1	7.623816E-1	6.353909E-1	7.623265E-1	7.625820E-1	7.547369E-1	6.549808E-1	7.160823E-1	7.684061E-1	7.451136E-1	7.193370E-1	7.910907E-1	7.654724E-1	7.209716E-1	7.101687E-1	7.734975E-1	7.080603E-1	7.775147E-1	6.691449E-1	7.008661E-1	7.286933E-1	7.424705E-1	7.009244E-1	7.498054E-1	7.190023E-1	7.682032E-1	7.730683E-1	7.633041E-1	7.326125E-1	7.742997E-1	7.406700E-1	7.862042E-1	7.727549E-1	7.554016E-1	7.138789E-1	7.353505E-1	7.857166E-1	7.126645E-1	6.972823E-1	7.411018E-1	7.618633E-1	7.392050E-1	7.394367E-1	7.820399E-1	7.571441E-1	7.534277E-1	6.266276E-1	8.037811E-1	7.314823E-1	7.299088E-1	6.106640E-1	7.771609E-1	7.831964E-1	6.997369E-1	7.128052E-1	7.823522E-1	6.911703E-1	7.605943E-1	7.467843E-1
2.955070E+2	7.143385E-1	8.910732E-1	8.318250E-1	8.532387E-1	8.088130E-1	8.916135E-1	8.451602E-1	8.513637E-1	8.641253E-1	8.259791E-1	8.244441E-1	8.315797E-1	8.512147E-1	8.113139E-1	8.660053E-1	8.874449E-1	8.633793E-1	8.396442E-1	8.478136E-1	8.631345E-1	9.035938E-1	8.330830E-1	8.325191E-1	8.617435E-1	8.775056E-1	8.686641E-1	8.554671E-1	8.094522E-1	8.993475E-1	8.530698E-1	7.223935E-1	8.734464E-1	9.066533E-1	8.573608E-1	7.604380E-1	8.280316E-1	9.050051E-1	8.126771E-1	7.924779E-1	8.501671E-1	8.243174E-1	8.678728E-1	7.113275E-1	8.495463E-1	8.730845E-1	8.622566E-1	6.781568E-1	8.797748E-1	8.222149E-1	9.005767E-1	6.621117E-1	8.422059E-1	8.886577E-1	8.352603E-1	7.690418E-1	8.294057E-1	8.953594E-1	8.730465E-1	7.705225E-1	8.471114E-1	8.262288E-1	8.708006E-1	7.073949E-1	9.194922E-1	8.552905E-1	8.773504E-1	7.325556E-1	8.741432E-1	7.966163E-1	8.597712E-1	8.361866E-1	9.221547E-1	8.478012E-1	9.074113E-1	8.111059E-1	8.070210E-1	8.731516E-1	8.409664E-1	6.996712E-1	8.411237E-1	8.463201E-1	8.434627E-1	7.025858E-1	8.612730E-1	8.275540E-1	8.435816E-1	7.326546E-1	8.849375E-1	8.523678E-1	8.799355E-1	8.864789E-1	8.612901E-1	8.524535E-1	8.641509E-1	7.657008E-1	8.313655E-1	8.541518E-1	8.417965E-1	7.410849E-1	8.408035E-1	8.210609E-1	8.260766E-1	7.928417E-1	8.647631E-1	7.990389E-1	8.952050E-1	7.994149E-1	8.780537E-1	8.975454E-1	8.602993E-1	7.444234E-1	8.018401E-1	8.367109E-1	8.737995E-1	6.649807E-1	8.748623E-1	8.222010E-1	8.252872E-1	8.101397E-1	8.452653E-1	8.745090E-1	8.500808E-1	7.636731E-1	8.873173E-1	8.233944E-1	8.724105E-1	7.172690E-1	8.566149E-1	8.889485E-1	8.658373E-1	7.478168E-1	8.651136E-1	8.439510E-1	8.899051E-1	7.775583E-1	8.736665E-1	8.852929E-1	8.057458E-1	8.468404E-1	8.816527E-1	8.285972E-1	8.557656E-1	8.032182E-1	8.752857E-1	8.669349E-1	8.089689E-1	8.130313E-1	7.939975E-1	8.292507E-1	8.341433E-1	8.269205E-1	8.702484E-1	8.480665E-1	8.435716E-1	7.925329E-1	8.071453E-1	8.809800E-1	8.278764E-1	7.780846E-1	8.589906E-1	8.094636E-1	8.295658E-1	7.124814E-1	8.270142E-1	8.794256E-1	7.948387E-1	8.205030E-1	8.285777E-1	8.143493E-1	9.128595E-1	7.979963E-1
2.960050E+2	8.114189E-1	9.929153E-1	9.894155E-1	1.014923E+0	9.126352E-1	9.449921E-1	9.597084E-1	9.636408E-1	9.833214E-1	1.002755E+0	9.643352E-1	9.799676E-1	1.004640E+0	9.687489E-1	9.792631E-1	1.010954E+0	9.852204E-1	1.017301E+0	1.020194E+0	1.005656E+0	9.860407E-1	1.001120E+0	9.601514E-1	1.017713E+0	9.305078E-1	9.944438E-1	9.638664E-1	9.960619E-1	9.415113E-1	1.007700E+0	9.689057E-1	1.004285E+0	9.787359E-1	1.014474E+0	1.023923E+0	9.865152E-1	1.023112E+0	9.243260E-1	9.641724E-1	9.838854E-1	9.421018E-1	1.001626E+0	9.047486E-1	9.412714E-1	9.845544E-1	9.530172E-1	8.993100E-1	9.644332E-1	9.678890E-1	1.023829E+0	9.175018E-1	9.907026E-1	1.041022E+0	9.934645E-1	8.898755E-1	9.813823E-1	9.678035E-1	9.623423E-1	9.299646E-1	9.263587E-1	9.443933E-1	9.746925E-1	7.995361E-1	9.881888E-1	1.026517E+0	9.958532E-1	8.095196E-1	9.775054E-1	9.881034E-1	9.245939E-1	9.829138E-1	1.019229E+0	9.684939E-1	9.982055E-1	8.363080E-1	9.167643E-1	9.602085E-1	9.564814E-1	7.927455E-1	9.279204E-1	9.576434E-1	1.016248E+0	8.064200E-1	9.915338E-1	9.405039E-1	1.003384E+0	8.547853E-1	9.679444E-1	9.493094E-1	9.789798E-1	9.674206E-1	1.008560E+0	9.756939E-1	1.013222E+0	8.800356E-1	9.575706E-1	9.977491E-1	9.099120E-1	8.865819E-1	9.437623E-1	1.018329E+0	9.568614E-1	9.741350E-1	9.785398E-1	9.425631E-1	1.031861E+0	8.816560E-1	9.829150E-1	1.018121E+0	9.697404E-1	8.200789E-1	9.703307E-1	9.690338E-1	1.007208E+0	7.715031E-1	1.002344E+0	9.843666E-1	9.692387E-1	8.930240E-1	9.425419E-1	9.837564E-1	9.280777E-1	9.519044E-1	1.032912E+0	9.978422E-1	9.628889E-1	8.812270E-1	1.044164E+0	9.606932E-1	9.262686E-1	8.219056E-1	9.893618E-1	9.551402E-1	9.722955E-1	9.104808E-1	9.893692E-1	9.863415E-1	9.610356E-1	9.887741E-1	1.034594E+0	9.476445E-1	9.979974E-1	9.065289E-1	9.389155E-1	1.003211E+0	9.593967E-1	8.998916E-1	9.566077E-1	1.025878E+0	9.775168E-1	9.831697E-1	1.011005E+0	9.946129E-1	9.312684E-1	8.639830E-1	9.828827E-1	9.559693E-1	1.041678E+0	8.376944E-1	9.435961E-1	9.654239E-1	1.019956E+0	8.049104E-1	9.667652E-1	9.625009E-1	9.716484E-1	9.433699E-1	9.734794E-1	9.520979E-1	9.348734E-1	1.007113E+0
2.964990E+2	7.771063E-1	9.211829E-1	8.827866E-1	8.288993E-1	8.276899E-1	8.683066E-1	8.458269E-1	8.364400E-1	8.736902E-1	8.547226E-1	8.717130E-1	9.309997E-1	8.406982E-1	8.667400E-1	8.750448E-1	8.701098E-1	8.777987E-1	8.535775E-1	8.653011E-1	9.606940E-1	8.597528E-1	9.016419E-1	8.613957E-1	8.824476E-1	8.280370E-1	9.012456E-1	8.761149E-1	9.251664E-1	8.721030E-1	9.197976E-1	8.215588E-1	8.530269E-1	8.432219E-1	9.011132E-1	8.797137E-1	8.755760E-1	8.685116E-1	8.765645E-1	8.894916E-1	8.583954E-1	8.653182E-1	8.525474E-1	8.543861E-1	8.633054E-1	8.860455E-1	8.448257E-1	8.464396E-1	8.741772E-1	8.676401E-1	8.646575E-1	8.323715E-1	8.579197E-1	8.456828E-1	9.076016E-1	8.800972E-1	8.800646E-1	8.548254E-1	8.568108E-1	9.083581E-1	8.957065E-1	8.665434E-1	8.494896E-1	8.286009E-1	9.476936E-1	8.866818E-1	8.806239E-1	8.422126E-1	8.647464E-1	9.078029E-1	8.260368E-1	8.733487E-1	8.760057E-1	8.448928E-1	8.812501E-1	7.981452E-1	8.952932E-1	8.804067E-1	9.239931E-1	7.376610E-1	8.796160E-1	8.682917E-1	8.609427E-1	7.491778E-1	8.883086E-1	8.742671E-1	9.143137E-1	7.641320E-1	8.619925E-1	8.627276E-1	8.621220E-1	8.467724E-1	8.590243E-1	8.654617E-1	8.654306E-1	7.410155E-1	8.746358E-1	8.449106E-1	8.417962E-1	8.252001E-1	8.693553E-1	9.159143E-1	8.288159E-1	8.309351E-1	8.995092E-1	8.874240E-1	8.675754E-1	7.810571E-1	8.764890E-1	8.850003E-1	8.729511E-1	6.986481E-1	8.692364E-1	8.493993E-1	8.657363E-1	6.939128E-1	8.616747E-1	8.198162E-1	8.801601E-1	8.134555E-1	8.974059E-1	8.760808E-1	8.551835E-1	8.181202E-1	8.689089E-1	8.854051E-1	8.653522E-1	8.095760E-1	8.665610E-1	8.255989E-1	8.542160E-1	7.279580E-1	8.412854E-1	8.419169E-1	8.414830E-1	8.189271E-1	8.966586E-1	8.908633E-1	8.688850E-1	8.660863E-1	8.761892E-1	8.585157E-1	8.838107E-1	8.327356E-1	8.947989E-1	8.683618E-1	8.419891E-1	8.564619E-1	8.375383E-1	8.510173E-1	8.412061E-1	8.351082E-1	8.405014E-1	8.387282E-1	8.124064E-1	7.820446E-1	8.778967E-1	8.541493E-1	8.781454E-1	7.385477E-1	8.668768E-1	8.778797E-1	8.637766E-1	7.197021E-1	8.866739E-1	8.600415E-1	8.470781E-1	7.992667E-1	8.712476E-1	8.487866E-1	7.991186E-1	8.790826E-1
2.970020E+2	7.126651E-1	8.051716E-1	7.675340E-1	7.437111E-1	7.195121E-1	7.427536E-1	7.845565E-1	7.334006E-1	7.633225E-1	7.210629E-1	7.299061E-1	7.670308E-1	7.905881E-1	7.859592E-1	7.554067E-1	7.697135E-1	7.314445E-1	7.894816E-1	7.828578E-1	7.715138E-1	7.602930E-1	7.598180E-1	7.568640E-1	7.602962E-1	7.743274E-1	7.519776E-1	7.444868E-1	7.589291E-1	7.812887E-1	7.837749E-1	7.532074E-1	7.494141E-1	7.675352E-1	7.241123E-1	7.173097E-1	8.380408E-1	7.086018E-1	7.872454E-1	7.673518E-1	7.150766E-1	7.728798E-1	7.585027E-1	7.339543E-1	7.685238E-1	7.784645E-1	7.612776E-1	7.361854E-1	7.804225E-1	7.431117E-1	7.942278E-1	7.747027E-1	7.919214E-1	7.902067E-1	7.122125E-1	7.774230E-1	7.326346E-1	7.573717E-1	7.593975E-1	7.422102E-1	7.155289E-1	7.601959E-1	7.895515E-1	7.488285E-1	8.131918E-1	7.632562E-1	7.614665E-1	7.529883E-1	7.400274E-1	7.321009E-1	7.545992E-1	7.086817E-1	7.662018E-1	7.685515E-1	7.681418E-1	7.499016E-1	7.545347E-1	8.098371E-1	7.591436E-1	7.598213E-1	7.528165E-1	7.840665E-1	7.842995E-1	7.618238E-1	7.465775E-1	7.766561E-1	8.023216E-1	7.635023E-1	7.499667E-1	7.583858E-1	7.531018E-1	7.696494E-1	7.668860E-1	7.579680E-1	8.091290E-1	6.883954E-1	7.996335E-1	7.724010E-1	7.590319E-1	7.365378E-1	7.456333E-1	7.557630E-1	7.528103E-1	7.307653E-1	7.421298E-1	7.560627E-1	8.160490E-1	7.289230E-1	7.974522E-1	7.672124E-1	7.679386E-1	6.217208E-1	7.930487E-1	8.013633E-1	7.763096E-1	6.511723E-1	7.210053E-1	7.188604E-1	7.483229E-1	6.934391E-1	7.456544E-1	7.519004E-1	7.465711E-1	6.578899E-1	7.459058E-1	7.695610E-1	7.402223E-1	6.546551E-1	7.898372E-1	7.668294E-1	7.434250E-1	6.890042E-1	7.732030E-1	7.198797E-1	7.554790E-1	7.016027E-1	8.121064E-1	8.208458E-1	7.673496E-1	7.482098E-1	7.878847E-1	7.301188E-1	7.549346E-1	6.956919E-1	7.590549E-1	8.012940E-1	7.715448E-1	7.204348E-1	7.424597E-1	7.675771E-1	7.938858E-1	7.395850E-1	7.556131E-1	8.006550E-1	7.652964E-1	7.564799E-1	7.767140E-1	7.516406E-1	7.610637E-1	6.625143E-1	7.779694E-1	7.314824E-1	7.410646E-1	6.705990E-1	7.297601E-1	7.887352E-1	7.988573E-1	7.461761E-1	8.356887E-1	7.666666E-1	7.826075E-1	7.254459E-1
2.975020E+2	8.089084E-1	7.936595E-1	7.926228E-1	7.854363E-1	7.979230E-1	8.164311E-1	7.912168E-1	7.731952E-1	8.310147E-1	8.374772E-1	8.257219E-1	7.870633E-1	8.165709E-1	8.042379E-1	8.064523E-1	7.986045E-1	8.157958E-1	8.082923E-1	7.609978E-1	8.283531E-1	8.263816E-1	8.283773E-1	8.030659E-1	8.023935E-1	8.025950E-1	7.981968E-1	7.709412E-1	7.605581E-1	8.396697E-1	7.978903E-1	8.036305E-1	8.114305E-1	8.749383E-1	8.334953E-1	7.813283E-1	7.963353E-1	8.101212E-1	8.095755E-1	8.162083E-1	8.323372E-1	8.459364E-1	7.891533E-1	7.872368E-1	7.998631E-1	7.771680E-1	7.955381E-1	7.793846E-1	8.196040E-1	8.182984E-1	8.287384E-1	8.049105E-1	8.422063E-1	8.175535E-1	7.845538E-1	7.452938E-1	8.060250E-1	7.884192E-1	7.736036E-1	8.539688E-1	8.097301E-1	7.831338E-1	8.101971E-1	7.890240E-1	7.763123E-1	8.110565E-1	8.216999E-1	7.965792E-1	8.023867E-1	7.856354E-1	7.704744E-1	7.765987E-1	8.131466E-1	8.478019E-1	7.673722E-1	7.952659E-1	8.340594E-1	8.283047E-1	7.976492E-1	8.332682E-1	7.996122E-1	8.053058E-1	8.481690E-1	7.871173E-1	8.031067E-1	7.961782E-1	8.062513E-1	8.126066E-1	8.302744E-1	8.323868E-1	8.015554E-1	8.360818E-1	8.303253E-1	8.243814E-1	8.321616E-1	8.306636E-1	8.090094E-1	8.193186E-1	8.190906E-1	8.418722E-1	8.485908E-1	8.327455E-1	8.384017E-1	8.048338E-1	8.116216E-1	8.314739E-1	8.018602E-1	7.773856E-1	8.154503E-1	7.874244E-1	8.039968E-1	8.003701E-1	7.959790E-1	8.222091E-1	8.114939E-1	8.181888E-1	7.781522E-1	7.713256E-1	7.782539E-1	8.054988E-1	7.814517E-1	8.194927E-1	7.910367E-1	7.566726E-1	8.002946E-1	7.845524E-1	8.332676E-1	7.062955E-1	8.488010E-1	7.836207E-1	8.154782E-1	7.012251E-1	8.166057E-1	8.046276E-1	8.161882E-1	7.734896E-1	8.158150E-1	8.391459E-1	7.912405E-1	8.195769E-1	8.151951E-1	7.806048E-1	7.823127E-1	7.041251E-1	7.819619E-1	8.091421E-1	8.214428E-1	7.925448E-1	7.495683E-1	8.481153E-1	7.988302E-1	7.934875E-1	7.947921E-1	7.841324E-1	8.363235E-1	7.571356E-1	8.117092E-1	8.238783E-1	7.909705E-1	6.874536E-1	8.080836E-1	8.212334E-1	7.960983E-1	6.850416E-1	8.024960E-1	8.005039E-1	7.874727E-1	7.734796E-1	8.223553E-1	8.474618E-1	8.303055E-1	8.107994E-1
2.980040E+2	9.997215E-1	9.690040E-1	9.870634E-1	9.784130E-1	9.409495E-1	9.998742E-1	9.683662E-1	1.015516E+0	9.068002E-1	9.740104E-1	9.483661E-1	9.903548E-1	9.935040E-1	9.793625E-1	1.000532E+0	9.567836E-1	9.744058E-1	9.977938E-1	9.658567E-1	9.920818E-1	1.002399E+0	1.013891E+0	9.797871E-1	9.956296E-1	9.792703E-1	9.830777E-1	9.328953E-1	1.005840E+0	9.914585E-1	9.505952E-1	9.571406E-1	9.437824E-1	9.700863E-1	9.614400E-1	9.882073E-1	9.489798E-1	1.001880E+0	1.011165E+0	9.648698E-1	9.900569E-1	9.458286E-1	9.674910E-1	9.419735E-1	9.985985E-1	9.612229E-1	9.788623E-1	9.979585E-1	9.364474E-1	9.694552E-1	9.865009E-1	9.683052E-1	9.270612E-1	9.503840E-1	9.981972E-1	9.548329E-1	9.528051E-1	9.833259E-1	9.576071E-1	9.798838E-1	9.846739E-1	9.631608E-1	9.786889E-1	1.020922E+0	9.701104E-1	9.944116E-1	9.821042E-1	9.879675E-1	9.134375E-1	1.015557E+0	1.009260E+0	1.016232E+0	9.730794E-1	9.408655E-1	9.497304E-1	9.601573E-1	9.302840E-1	9.826324E-1	9.799454E-1	9.687644E-1	9.543370E-1	1.000123E+0	9.402759E-1	9.635027E-1	9.735111E-1	9.558426E-1	1.015827E+0	9.523650E-1	9.672695E-1	9.781696E-1	9.832547E-1	9.933817E-1	9.345467E-1	9.866491E-1	9.441249E-1	9.436989E-1	9.431475E-1	1.010545E+0	9.890134E-1	9.532684E-1	9.515495E-1	1.005957E+0	9.801427E-1	9.727240E-1	9.635506E-1	9.660782E-1	9.654004E-1	9.829886E-1	9.970002E-1	1.001394E+0	9.817596E-1	9.707549E-1	9.688659E-1	9.490948E-1	1.008674E+0	9.970411E-1	9.882775E-1	1.016959E+0	1.031238E+0	1.008399E+0	9.822310E-1	9.947604E-1	9.623379E-1	9.923517E-1	9.442160E-1	9.262917E-1	9.840641E-1	9.825714E-1	9.617564E-1	9.927495E-1	9.712044E-1	9.761947E-1	9.612780E-1	9.707335E-1	9.607322E-1	9.830451E-1	1.000495E+0	9.441719E-1	9.951651E-1	9.214163E-1	9.526607E-1	1.010595E+0	1.005342E+0	9.655632E-1	9.652157E-1	9.967892E-1	9.256419E-1	9.367664E-1	8.864097E-1	9.663826E-1	9.478532E-1	9.381372E-1	9.914145E-1	9.831189E-1	9.537355E-1	8.895470E-1	9.828828E-1	9.711051E-1	1.004136E+0	8.376954E-1	9.830313E-1	1.001472E+0	9.983884E-1	8.706229E-1	9.479680E-1	9.832701E-1	1.025896E+0	9.175830E-1	1.000148E+0	9.812363E-1	9.403770E-1	9.046876E-1
2.985020E+2	1.070857E+0	1.120439E+0	1.059979E+0	1.063602E+0	1.106483E+0	1.063028E+0	1.075588E+0	1.098657E+0	1.042185E+0	1.058805E+0	1.101032E+0	1.080872E+0	1.111047E+0	1.087267E+0	1.124424E+0	1.108462E+0	1.093364E+0	1.047259E+0	1.077655E+0	1.038741E+0	1.054746E+0	1.136223E+0	1.084895E+0	1.108121E+0	1.073968E+0	1.074003E+0	1.098076E+0	1.089773E+0	1.065408E+0	1.114850E+0	1.083758E+0	1.090503E+0	1.069558E+0	1.075463E+0	1.108156E+0	1.141662E+0	1.101409E+0	1.084977E+0	1.098178E+0	1.082631E+0	1.086724E+0	1.117962E+0	1.112768E+0	1.060513E+0	1.072694E+0	1.113501E+0	1.105633E+0	1.112062E+0	1.077537E+0	1.078060E+0	1.080896E+0	1.093629E+0	1.071494E+0	1.070538E+0	1.089636E+0	1.086596E+0	1.111828E+0	1.080727E+0	1.069290E+0	1.091584E+0	1.078544E+0	1.101228E+0	1.085236E+0	1.054717E+0	1.093580E+0	1.079002E+0	1.095581E+0	1.090264E+0	1.084190E+0	1.109802E+0	1.093761E+0	1.066174E+0	1.113907E+0	1.072071E+0	1.105607E+0	1.061499E+0	1.096730E+0	1.115915E+0	1.097929E+0	1.118874E+0	1.106319E+0	1.117767E+0	1.109271E+0	1.061171E+0	1.093893E+0	1.065602E+0	1.132414E+0	1.017884E+0	1.099532E+0	1.089425E+0	1.076614E+0	1.073509E+0	1.098935E+0	1.124546E+0	1.087916E+0	1.052765E+0	1.115043E+0	1.088624E+0	1.103314E+0	1.096036E+0	1.089126E+0	1.074636E+0	1.055258E+0	1.087546E+0	1.109603E+0	1.114005E+0	1.095337E+0	1.101078E+0	1.082939E+0	1.087405E+0	1.060398E+0	1.075089E+0	1.096826E+0	1.042393E+0	1.090413E+0	1.103451E+0	1.049551E+0	1.079695E+0	1.082000E+0	1.077951E+0	1.128372E+0	1.076782E+0	1.116024E+0	1.120771E+0	1.067349E+0	1.098285E+0	1.099408E+0	1.061924E+0	1.104183E+0	1.064176E+0	1.151870E+0	1.111058E+0	1.086669E+0	1.088654E+0	1.048150E+0	1.092464E+0	1.074658E+0	1.106086E+0	1.082594E+0	1.074650E+0	1.115307E+0	1.099495E+0	1.103310E+0	1.121320E+0	1.068138E+0	1.092947E+0	1.104752E+0	1.098780E+0	1.063608E+0	1.115946E+0	1.101892E+0	1.069773E+0	1.088718E+0	1.086368E+0	1.116352E+0	1.090912E+0	1.105260E+0	1.081767E+0	1.150343E+0	1.069788E+0	1.072831E+0	1.138950E+0	1.145023E+0	1.121227E+0	1.097498E+0	1.082154E+0	1.120086E+0	1.092600E+0	1.043487E+0	1.087140E+0	1.049790E+0
2.990010E+2	1.052446E+0	1.090329E+0	1.102317E+0	1.061863E+0	1.065827E+0	1.054005E+0	1.046285E+0	1.031149E+0	1.086332E+0	1.028625E+0	1.074204E+0	1.065290E+0	1.099911E+0	1.052478E+0	1.068592E+0	1.047791E+0	1.037129E+0	1.080701E+0	1.053297E+0	1.098124E+0	1.068488E+0	1.028679E+0	1.092403E+0	1.030825E+0	1.107183E+0	1.123254E+0	1.116787E+0	1.101997E+0	1.061516E+0	1.024381E+0	1.089921E+0	1.085209E+0	1.068838E+0	1.095351E+0	1.070420E+0	1.050742E+0	1.084157E+0	1.080636E+0	1.053509E+0	1.045601E+0	1.071068E+0	1.074075E+0	1.094521E+0	1.032231E+0	1.138797E+0	1.075033E+0	1.067592E+0	1.085476E+0	1.068138E+0	1.015377E+0	1.093254E+0	1.077129E+0	1.058211E+0	1.098258E+0	1.126655E+0	1.094390E+0	1.045421E+0	1.061786E+0	1.049173E+0	1.056445E+0	1.116079E+0	1.036628E+0	1.046895E+0	1.121245E+0	1.063615E+0	1.088168E+0	1.081278E+0	1.086847E+0	1.015557E+0	1.039688E+0	1.039298E+0	1.082088E+0	1.050652E+0	1.070531E+0	1.099847E+0	1.071837E+0	1.069030E+0	1.068988E+0	1.080200E+0	1.066796E+0	1.048460E+0	1.069360E+0	1.087305E+0	1.112784E+0	1.044390E+0	1.066256E+0	1.029169E+0	1.106964E+0	1.079551E+0	1.040972E+0	1.091886E+0	1.075020E+0	1.048269E+0	1.058008E+0	1.080770E+0	1.090988E+0	1.066704E+0	1.093018E+0	1.055572E+0	1.047585E+0	1.047198E+0	1.045193E+0	1.090529E+0	1.052120E+0	1.082034E+0	1.037089E+0	1.090930E+0	1.047865E+0	1.033455E+0	1.061469E+0	1.055312E+0	1.064832E+0	1.105889E+0	1.084174E+0	1.037151E+0	1.091142E+0	1.114735E+0	1.073994E+0	1.078684E+0	1.104410E+0	1.092218E+0	1.089174E+0	1.111358E+0	1.093996E+0	1.091880E+0	1.063635E+0	1.090371E+0	1.044874E+0	1.102656E+0	1.078121E+0	1.072434E+0	1.075315E+0	1.052092E+0	1.079982E+0	1.125462E+0	1.002719E+0	1.057154E+0	1.082196E+0	1.077782E+0	1.106513E+0	1.069184E+0	1.094153E+0	1.142667E+0	1.123866E+0	1.070279E+0	1.103221E+0	1.053946E+0	1.112109E+0	1.057078E+0	1.079926E+0	1.070505E+0	1.038574E+0	1.077224E+0	1.051579E+0	1.115041E+0	1.081022E+0	1.062606E+0	1.090676E+0	1.136352E+0	1.048995E+0	1.047819E+0	1.056398E+0	1.148633E+0	1.056663E+0	1.048345E+0	1.041300E+0	1.090507E+0	1.009038E+0	1.089845E+0	1.079803E+0	1.028452E+0
2.995040E+2	1.054119E+0	9.371238E-1	9.964718E-1	9.905826E-1	1.004114E+0	1.010400E+0	9.796876E-1	9.742990E-1	9.973019E-1	1.000599E+0	9.886085E-1	9.859035E-1	9.409199E-1	9.787728E-1	9.755404E-1	9.618400E-1	9.917094E-1	1.011728E+0	9.877173E-1	9.666323E-1	9.539779E-1	9.554135E-1	9.815195E-1	9.735448E-1	9.813901E-1	9.792897E-1	9.367669E-1	9.528727E-1	9.570797E-1	1.035931E+0	9.851531E-1	9.815967E-1	9.347657E-1	9.601143E-1	9.794468E-1	9.998613E-1	9.660496E-1	9.354911E-1	9.669639E-1	9.674280E-1	9.346465E-1	9.556480E-1	9.762790E-1	1.052104E+0	9.929793E-1	9.590274E-1	9.766810E-1	9.910211E-1	9.569242E-1	9.752324E-1	9.628127E-1	9.600604E-1	1.020706E+0	1.002254E+0	9.876609E-1	9.950205E-1	9.772897E-1	1.025255E+0	9.940403E-1	1.030278E+0	9.652458E-1	9.853483E-1	9.844371E-1	9.990363E-1	9.808559E-1	9.860329E-1	9.716204E-1	9.971527E-1	1.002517E+0	1.005953E+0	9.970102E-1	9.993374E-1	9.612231E-1	1.024366E+0	9.875187E-1	1.031280E+0	9.641661E-1	9.576846E-1	9.776285E-1	1.007171E+0	9.737553E-1	9.490161E-1	9.501906E-1	1.006280E+0	9.781535E-1	9.752218E-1	9.762868E-1	1.025307E+0	9.685496E-1	9.910934E-1	9.536752E-1	9.964754E-1	1.002396E+0	9.767547E-1	9.761806E-1	1.029688E+0	9.458551E-1	9.699703E-1	9.365976E-1	9.489535E-1	9.392849E-1	9.842509E-1	9.896539E-1	1.026911E+0	9.831068E-1	1.025141E+0	1.007221E+0	9.563083E-1	1.003485E+0	9.691079E-1	1.011444E+0	9.805873E-1	9.545329E-1	9.837516E-1	9.878353E-1	9.812442E-1	1.001854E+0	9.998813E-1	9.288301E-1	9.635536E-1	9.145929E-1	9.791034E-1	1.015685E+0	9.793602E-1	1.022374E+0	9.917651E-1	9.825716E-1	9.667285E-1	9.370321E-1	9.897994E-1	9.861239E-1	9.765971E-1	9.781914E-1	1.004818E+0	9.762639E-1	1.031645E+0	1.024532E+0	9.610353E-1	1.008820E+0	9.754200E-1	9.526304E-1	9.679477E-1	9.922694E-1	9.329774E-1	9.925084E-1	9.931512E-1	1.011336E+0	1.024140E+0	9.852467E-1	9.655105E-1	1.000228E+0	9.957677E-1	9.658776E-1	9.834518E-1	9.963947E-1	9.889690E-1	1.007568E+0	9.640477E-1	1.058495E+0	1.019598E+0	9.624810E-1	1.002851E+0	1.028764E+0	9.888305E-1	1.008884E+0	1.004464E+0	1.012387E+0	9.939252E-1	9.428260E-1	1.004586E+0	1.028451E+0
3.000040E+2	1.013949E+0	1.089444E+0	1.061546E+0	1.120104E+0	1.084703E+0	1.056261E+0	1.138856E+0	1.107185E+0	1.136366E+0	1.100484E+0	1.062067E+0	1.090517E+0	1.038047E+0	1.097881E+0	1.024460E+0	1.126519E+0	1.087596E+0	1.054226E+0	1.154477E+0	1.076067E+0	1.094007E+0	1.037417E+0	1.058329E+0	1.089486E+0	1.055594E+0	1.042179E+0	1.144533E+0	1.088958E+0	1.084869E+0	1.076352E+0	1.080397E+0	1.087478E+0	1.081813E+0	1.074137E+0	1.072442E+0	1.062420E+0	1.036384E+0	1.078155E+0	1.100271E+0	1.081946E+0	1.115797E+0	1.095671E+0	1.087221E+0	1.056690E+0	1.057139E+0	1.078038E+0	1.072750E+0	1.055390E+0	1.109647E+0	1.116091E+0	1.089821E+0	1.099914E+0	1.081651E+0	1.046199E+0	1.095922E+0	1.065164E+0	1.093716E+0	1.101021E+0	1.053644E+0	1.027288E+0	1.093836E+0	1.087909E+0	1.073486E+0	1.078580E+0	1.056481E+0	1.042993E+0	1.066975E+0	1.109911E+0	1.096544E+0	1.064823E+0	1.077101E+0	1.066174E+0	1.085551E+0	1.115930E+0	1.051604E+0	1.071042E+0	1.059137E+0	1.079817E+0	1.042210E+0	1.053210E+0	1.066037E+0	1.075412E+0	1.102614E+0	1.043147E+0	1.131543E+0	1.070841E+0	1.097159E+0	1.052301E+0	1.041811E+0	1.093700E+0	1.048361E+0	1.090124E+0	1.039369E+0	1.064405E+0	1.080770E+0	1.074401E+0	1.042534E+0	1.040284E+0	1.109376E+0	1.107284E+0	1.085689E+0	1.077375E+0	1.087002E+0	1.058251E+0	1.027705E+0	1.056504E+0	1.046138E+0	1.082297E+0	1.091303E+0	1.096262E+0	1.101722E+0	1.114647E+0	1.071449E+0	1.069514E+0	1.069371E+0	1.057734E+0	1.045575E+0	1.036938E+0	1.096587E+0	1.090403E+0	1.050564E+0	1.101566E+0	1.007908E+0	1.061362E+0	1.107553E+0	1.028983E+0	1.138783E+0	1.115916E+0	1.079759E+0	1.081221E+0	1.112152E+0	1.059146E+0	1.107687E+0	1.049627E+0	1.093589E+0	1.056862E+0	1.060337E+0	1.064277E+0	1.089810E+0	1.075561E+0	1.071678E+0	1.050749E+0	1.092066E+0	1.074659E+0	1.063144E+0	1.063596E+0	1.100654E+0	1.128992E+0	1.079570E+0	1.091933E+0	1.095750E+0	1.109678E+0	1.100930E+0	1.088542E+0	1.125529E+0	1.044505E+0	1.029583E+0	1.068404E+0	1.129661E+0	1.070505E+0	1.094165E+0	1.007313E+0	1.121915E+0	1.082816E+0	1.061499E+0	1.058713E+0	1.085957E+0	1.081933E+0	1.095143E+0	1.057789E+0	1.177820E+0
