Photon Energy (eV)	#1	#2	#3	#4	#5	#6	#7	#8	#9	#10	#11	#12	#13	#14	#15	#16	#17	#18	#19	#20	#21	#22	#23	#24	#25	#26	#27	#28	#29	#30	#31	#32	#33	#34	#35	#36	#37	#38	#39	#40	#41	#42	#43	#44	#45	#46	#47	#48	#49	#50	#51	#52	#53	#54	#55	#56	#57	#58	#59	#60	#61	#62	#63	#64	#65	#66	#67	#68	#69	#70	#71	#72	#73	#74	#75	#76	#77	#78	#79	#80	#81	#82	#83	#84	#85	#86	#87	#88	#89	#90	#91	#92	#93	#94	#95	#96	#97	#98	#99	#100	#101	#102	#103	#104	#105	#106	#107	#108	#109	#110	#111	#112	#113	#114	#115	#116	#117	#118	#119	#120	#121	#122	#123	#124	#125	#126	#127	#128	#129	#130	#131	#132	#133	#134	#135	#136	#137	#138	#139	#140	#141	#142	#143	#144	#145	#146	#147	#148	#149	#150	#151	#152	#153	#154	#155	#156	#157	#158	#159	#160	#161	#162	#163	#164	#165	#166	#167	#168	#169	#170	#171	#172	
2.790030E+2	-5.642949E-3	9.937160E-4	-3.786690E-3	-5.426399E-4	-2.659610E-3	-4.192312E-3	-5.589098E-3	-2.513425E-3	-4.022103E-3	-4.257908E-3	-2.560986E-3	2.737684E-3	-5.738754E-3	-1.609830E-3	7.571873E-4	-3.867432E-3	3.115237E-4	-4.668455E-4	8.816734E-4	-6.370904E-3	-3.198617E-3	1.500601E-3	2.347902E-4	-4.862466E-3	-5.423779E-3	5.086120E-3	-1.846624E-3	-7.200489E-3	-4.002634E-4	5.278445E-3	2.770438E-5	2.775281E-3	-6.512384E-3	3.740570E-3	-6.792459E-4	-2.585414E-4	-1.078863E-3	4.530667E-3	-3.927682E-3	-2.808770E-3	-9.587420E-4	-1.779021E-3	-9.621888E-4	-3.339221E-3	2.812759E-3	-1.574389E-3	-1.859855E-3	-3.473621E-3	-9.572526E-4	-4.083892E-3	-8.478167E-4	-7.760918E-3	1.893696E-3	-6.446063E-3	-1.104738E-3	-2.475910E-3	-1.565468E-3	-4.270318E-3	-3.628486E-7	-4.396156E-3	3.230156E-3	3.567290E-4	-8.071376E-3	-8.506072E-3	-3.434729E-3	7.550638E-3	-3.748881E-3	1.007937E-3	-1.033554E-3	-9.379367E-3	-6.329636E-3	-4.189922E-3	4.820740E-3	-9.269468E-4	-6.905446E-3	3.006475E-3	3.156685E-3	-5.785291E-3	-8.482908E-5	-6.780912E-3	-2.254106E-3	-3.750283E-3	-6.474021E-3	-3.545817E-3	1.649979E-4	2.706505E-5	5.897388E-3	-1.620347E-3	-4.103120E-3	5.461176E-3	4.294486E-3	1.799183E-3	-1.105008E-3	-7.482256E-3	-1.057332E-2	7.166748E-4	-1.563686E-3	2.523875E-4	1.414721E-3	2.382207E-3	1.814829E-3	-4.090894E-3	-4.019316E-3	4.590007E-3	6.356898E-4	1.462374E-3	-3.333653E-4	-1.136054E-3	2.821894E-4	-1.551950E-3	-5.246186E-3	-1.666831E-3	-4.427682E-3	-1.341260E-4	-4.225892E-3	-1.157052E-3	-3.629886E-3	-9.029037E-3	-2.235804E-3	-7.143465E-4	2.375134E-3	-4.130142E-3	3.053304E-3	-3.583250E-3	-2.363369E-4	-5.570640E-3	2.035654E-4	-3.268864E-3	-5.406187E-3	-5.375996E-3	-5.305257E-3	-5.953614E-3	2.179614E-5	-6.981885E-3	5.786984E-3	1.799756E-3	-2.070982E-3	-4.824027E-3	4.253369E-3	-6.956754E-3	3.366728E-3	-4.290239E-3	2.243656E-3	-7.891940E-3	-1.550222E-3	-1.199940E-3	5.881301E-3	3.104353E-3	-4.851869E-5	-5.070685E-3	-1.697151E-3	6.803901E-3	-3.877104E-4	-8.842820E-3	-3.793192E-3	-4.715877E-3	1.450984E-4	2.637257E-3	-5.749989E-3	-7.023961E-3	-3.594073E-3	3.540160E-3	-7.696009E-3	-4.540024E-3	3.538506E-3	-2.185209E-3	-3.140373E-3	-2.883308E-4	-1.020119E-2	-5.598656E-3	-2.664140E-4	2.110772E-3
2.795020E+2	-9.477404E-4	-9.794190E-3	2.275312E-4	-9.476202E-3	-4.917113E-3	9.633555E-4	-5.137032E-3	1.163279E-4	-4.339885E-3	-4.574992E-3	1.188685E-3	7.817682E-3	-3.097371E-3	-6.359514E-4	-6.064822E-3	-2.181912E-3	-4.907028E-3	7.188649E-3	-3.664124E-3	1.692682E-3	-1.843711E-3	-5.515775E-3	6.492769E-3	-3.894479E-3	-2.413966E-3	-1.208946E-3	-7.726605E-3	-7.461672E-3	-8.280964E-5	5.588542E-5	-7.062523E-3	4.204461E-4	-3.233866E-4	-7.419741E-3	-4.000949E-3	2.428882E-3	-8.928323E-3	-3.640276E-3	6.144978E-3	-6.749018E-3	-6.319791E-4	-2.036296E-3	-4.279608E-3	-2.844932E-3	-8.173614E-4	-7.218296E-3	-7.585374E-3	-5.603370E-3	-2.056481E-3	-3.497748E-3	-1.207084E-3	-6.587743E-3	2.177288E-3	-2.886177E-3	-2.249335E-3	-2.148358E-3	2.578628E-3	2.899252E-3	-3.568858E-4	-1.318578E-2	-3.552538E-3	-3.705576E-3	2.501213E-4	-2.967502E-3	1.233255E-3	-8.320517E-3	-3.770416E-4	-3.174435E-3	2.823379E-3	-5.814613E-3	2.334471E-4	-6.733945E-3	3.569865E-4	-7.223914E-3	-2.434286E-3	-6.383739E-3	3.402029E-3	-7.867997E-4	-6.685395E-3	2.359529E-3	9.070551E-4	4.565531E-3	-2.227537E-3	-1.721651E-3	-1.298725E-2	4.081254E-3	-5.859166E-3	2.647189E-3	-5.088569E-3	-4.051295E-3	-5.384911E-3	-7.576943E-3	-7.497561E-4	-9.221916E-4	4.421028E-3	-7.002547E-3	-4.438790E-3	-5.683537E-3	7.124653E-3	-2.010370E-3	-1.130742E-3	-2.913329E-3	-5.056181E-3	-5.348683E-3	-3.803991E-4	-3.416558E-3	-1.494288E-3	-7.015368E-4	-3.374603E-3	1.463447E-3	-3.455299E-3	1.238916E-3	4.319326E-3	2.677122E-3	1.010827E-2	6.115202E-5	-4.632243E-3	3.947822E-3	-4.183214E-3	2.758272E-3	4.829509E-4	-5.303718E-3	-1.440007E-3	1.168686E-3	8.380913E-4	-3.014104E-3	-7.980374E-4	-2.950966E-3	-4.925795E-3	-6.448348E-3	6.622710E-3	2.529986E-3	8.946192E-4	-6.491207E-3	-9.001197E-3	-3.441314E-3	-3.822871E-3	1.881970E-3	-8.660272E-3	-4.738294E-3	4.190458E-4	3.648981E-3	-4.747314E-3	2.893779E-3	-1.895173E-3	-4.624693E-3	-4.825622E-3	-1.303589E-3	-6.215642E-3	1.380598E-3	-6.363820E-3	-5.844769E-3	-2.758659E-3	1.060949E-3	3.461000E-3	-7.439439E-3	-1.595874E-3	2.703049E-4	1.906982E-4	-2.708892E-3	-1.281775E-2	-5.776653E-3	-2.377973E-3	1.542512E-3	1.315653E-3	1.177991E-3	-3.505867E-3	-3.347213E-3	2.686098E-3	-9.684684E-4	1.182931E-3	-7.584233E-3
2.800030E+2	-4.248718E-3	2.407491E-3	-3.208000E-3	3.038904E-3	9.500609E-4	-5.256129E-3	1.811030E-4	-6.583414E-3	2.219263E-3	-3.727410E-3	-6.994612E-3	-4.662253E-3	-7.715710E-3	-1.884354E-3	4.578205E-4	-1.466297E-3	1.416473E-3	8.415499E-4	-1.506397E-3	-1.271455E-3	-1.774448E-3	-4.719953E-3	-4.702182E-3	-5.145459E-3	-4.315855E-3	-2.655431E-3	-3.502383E-3	-5.834206E-3	-2.652071E-3	2.900225E-3	-3.328165E-3	-4.166068E-3	1.175367E-3	6.446954E-3	-1.705964E-3	-2.831951E-3	9.632723E-4	6.699096E-4	-4.917748E-3	8.554109E-3	-4.408297E-3	4.295238E-3	-2.753951E-3	-7.509632E-3	2.506041E-3	-7.164069E-3	4.552558E-3	-1.210640E-5	-4.287517E-3	1.340437E-3	-4.893279E-3	5.054646E-3	-1.076265E-3	-4.352517E-3	-5.196107E-3	6.889277E-3	-3.346069E-3	2.316264E-3	1.118211E-3	5.763767E-6	1.482461E-3	-5.111659E-3	6.917347E-3	3.204167E-4	2.139159E-3	-1.549634E-2	-1.789836E-3	2.238573E-3	-1.276922E-3	7.261549E-3	-2.429361E-3	-5.194613E-3	-1.605692E-3	-6.199732E-3	-2.370564E-6	-4.699818E-3	-6.951728E-3	-5.326143E-3	-3.156495E-3	5.830339E-3	-3.233394E-3	-4.675675E-3	9.235624E-3	-9.502973E-4	-6.234972E-3	-1.768544E-3	-2.968980E-3	1.404827E-3	1.229840E-3	3.606153E-3	-4.560725E-3	6.368107E-4	1.740290E-5	-2.209337E-3	-5.213810E-3	5.128142E-3	-3.540122E-3	-1.647069E-3	-9.605184E-3	-3.546102E-3	-1.054786E-3	-6.569159E-3	1.130087E-5	-3.248985E-3	1.049598E-3	-1.103144E-3	-2.965128E-3	-5.332372E-3	-3.316054E-3	6.247138E-3	-2.673946E-3	1.316177E-3	-6.356963E-3	-3.659696E-3	-1.773855E-3	-6.087215E-3	1.607144E-4	-3.794718E-3	6.943707E-3	3.602467E-3	-1.056206E-2	-4.370819E-3	-5.618080E-4	-2.159879E-3	-1.927533E-3	1.368382E-3	-2.018791E-3	-2.243272E-3	-4.868828E-3	2.485544E-3	9.886106E-4	-2.514179E-3	-1.011137E-2	2.981687E-3	1.188872E-4	-6.139881E-4	-4.454396E-3	1.067743E-3	-4.449835E-3	-7.165212E-3	-1.176305E-2	5.813941E-3	-1.765089E-3	2.019674E-4	-3.310806E-3	-7.617401E-3	-8.715698E-3	-2.847592E-3	1.598301E-3	-2.311073E-3	3.748088E-3	-1.220742E-3	-6.733350E-3	-5.135096E-3	-4.737779E-3	-3.371619E-3	4.624412E-3	-3.642403E-3	-4.098995E-3	-7.906298E-3	-2.400088E-3	-7.143607E-5	-5.540688E-3	-1.963426E-3	1.412819E-3	2.711822E-3	-4.195039E-3	-5.870540E-4	-5.989249E-3	-9.312651E-4	-6.778238E-4	-4.474427E-3
2.805050E+2	1.180130E-2	-4.529995E-3	3.980641E-4	-1.307356E-5	3.745098E-4	8.394314E-3	6.357474E-3	-1.990545E-3	1.041666E-3	-3.975690E-3	-4.139469E-3	-5.399458E-3	7.599593E-3	-1.616902E-3	-6.383477E-4	-7.381753E-4	4.285288E-3	-7.168415E-3	-4.964799E-3	-1.980493E-3	-1.122993E-3	-9.399789E-4	-1.990685E-3	3.561347E-3	-1.628525E-3	-4.072927E-3	2.169033E-3	2.229081E-3	-4.540638E-3	-1.882253E-3	-1.426142E-3	5.917669E-4	-3.743386E-3	-7.314327E-3	-3.893740E-3	1.862834E-3	4.899654E-4	-1.391910E-3	-4.835905E-3	-2.264607E-3	-1.794618E-3	8.373370E-3	-4.110461E-3	5.127646E-3	-6.539858E-4	5.082616E-3	-2.711593E-3	-1.797538E-3	-1.126042E-3	7.794340E-3	-2.553151E-3	3.780249E-3	-5.686344E-3	-4.406386E-4	-4.386634E-3	-6.522347E-3	-3.298898E-3	9.215782E-4	-2.358940E-3	-4.550951E-3	-9.800329E-3	-1.276418E-3	-1.597849E-3	2.971103E-3	5.298728E-4	8.742258E-5	-4.648511E-3	1.550331E-6	2.377026E-3	1.976660E-3	-4.432825E-3	6.811365E-3	-6.299181E-3	-9.499017E-4	3.287080E-3	4.479999E-3	-2.976459E-3	-5.933984E-3	-2.401023E-3	-7.654269E-3	3.163132E-3	6.165404E-3	-2.102448E-3	-8.918882E-4	2.379504E-3	-6.905387E-3	-7.791433E-4	4.797368E-3	2.685479E-3	-1.604485E-3	-2.962847E-3	-4.212652E-3	1.479054E-3	6.228721E-3	-3.770747E-3	-3.548420E-3	2.446897E-3	-3.977330E-3	7.278028E-3	-2.699207E-3	2.979577E-4	-5.039339E-3	2.225696E-3	-9.331692E-3	-2.315749E-3	-2.557292E-3	1.743820E-4	-5.882759E-4	2.731065E-3	4.299274E-3	9.535762E-4	-4.500757E-3	3.125652E-4	-2.006413E-3	1.966955E-3	-6.050168E-3	-1.129364E-3	-2.169282E-3	5.429938E-3	5.797329E-4	6.574892E-3	9.370894E-4	-7.074201E-3	-3.816284E-3	-4.001634E-3	-1.350627E-5	1.915396E-3	3.783055E-4	2.398787E-3	-3.133490E-3	1.856045E-3	6.327132E-3	-6.367529E-3	2.254486E-3	1.686035E-3	-3.317529E-3	-3.704863E-3	5.532964E-3	-8.584674E-3	-2.177428E-3	1.836353E-3	1.720822E-3	-3.161027E-3	1.641956E-3	-5.486386E-3	-6.050314E-3	-3.915832E-3	2.007539E-3	1.016813E-3	-1.512937E-3	3.109544E-3	-7.283889E-3	4.101711E-3	2.740500E-3	3.604578E-3	7.949653E-3	-3.534543E-3	-6.920998E-3	4.102704E-3	-1.274278E-3	7.304840E-3	-9.729389E-3	2.568736E-3	3.122659E-3	-4.588241E-3	4.237539E-3	-3.406908E-3	3.521962E-3	6.385116E-3	-8.286524E-3	-1.015810E-2	-1.065074E-2
2.810050E+2	-8.369819E-3	2.435999E-3	2.383443E-3	-3.822594E-3	-4.689226E-3	9.009832E-4	7.439653E-3	1.109430E-3	-6.052926E-3	-2.446164E-3	2.995929E-3	-2.186737E-3	6.431825E-4	-2.545099E-4	-3.491871E-3	-4.645042E-3	4.374577E-3	7.677720E-4	5.715594E-3	7.223710E-3	-6.064780E-3	-7.900140E-4	-3.850236E-3	2.947789E-3	8.266145E-3	-3.403454E-3	8.168412E-4	1.103432E-2	1.474390E-3	-1.518096E-3	1.116712E-3	-8.728011E-3	4.218164E-3	-8.580122E-4	-8.174979E-4	4.192217E-3	-6.233006E-4	-3.027435E-3	-5.527323E-3	-4.156778E-5	-1.092891E-3	-7.359067E-3	1.850374E-3	5.201122E-3	-3.222835E-3	-6.298361E-4	-1.308534E-3	-2.973866E-3	4.413005E-4	4.651613E-3	6.555228E-3	-9.705186E-4	-2.866116E-4	-5.795995E-3	9.762081E-4	-2.610780E-3	-2.429960E-4	-7.317449E-3	-6.592346E-3	1.728663E-3	2.382362E-3	2.690792E-4	-2.079770E-4	-1.482931E-3	-6.961746E-3	-5.383824E-3	-8.653275E-4	-7.086910E-4	-2.950974E-3	4.347177E-3	-3.693157E-3	1.424832E-4	1.916675E-3	8.360120E-4	-3.040380E-3	-3.732263E-3	-5.535032E-3	2.828138E-3	3.954539E-3	-2.834835E-3	5.361705E-3	-5.304391E-3	7.122705E-3	5.952369E-4	-2.437573E-3	-2.374872E-3	-4.273951E-3	-1.043739E-2	2.765217E-3	-7.791295E-4	-2.906318E-3	-5.101726E-5	-1.965290E-3	-6.883614E-3	1.180998E-3	5.582788E-4	4.217250E-3	3.283232E-3	2.757057E-3	8.593001E-3	2.960448E-3	2.391845E-4	2.307648E-3	2.950111E-4	4.940622E-4	-2.494492E-3	2.510508E-4	1.048403E-3	-5.296327E-4	1.003864E-3	1.754230E-3	6.699877E-3	-2.938943E-3	-2.747070E-3	-3.505442E-3	1.018343E-3	4.380616E-3	1.842243E-3	-7.976949E-3	-3.980605E-3	-1.514041E-3	3.565416E-3	2.021379E-3	1.357247E-3	-3.829385E-4	-2.105338E-3	-4.483803E-3	8.180592E-3	7.312671E-3	9.820520E-4	-2.986610E-3	2.007781E-3	4.223002E-3	-3.972611E-3	1.764295E-3	-6.014356E-3	-1.532104E-3	-7.663658E-3	-2.676688E-3	2.026460E-3	8.398299E-3	-5.153494E-3	-1.089994E-4	2.415004E-3	5.139371E-4	7.038695E-3	4.957173E-3	-3.555429E-3	-8.477713E-4	8.193284E-4	-2.536280E-3	-7.235866E-3	-5.447965E-4	2.815477E-3	-3.225402E-3	3.190083E-3	-7.202580E-4	3.794354E-3	5.487456E-3	8.060171E-3	3.682033E-3	-4.816238E-3	1.892034E-3	-3.274772E-3	2.833776E-3	-7.503892E-3	-1.080538E-3	-8.604405E-3	-5.869473E-3	-9.478423E-3	1.353543E-3	-1.682073E-2
2.815000E+2	-1.554468E-3	2.360837E-4	-2.063427E-4	2.496330E-3	-7.518666E-4	4.816833E-3	-8.883846E-4	-3.258308E-4	6.512328E-3	5.780854E-3	-2.501468E-3	1.825430E-3	-1.052889E-3	-1.402161E-3	-1.050330E-3	7.292229E-3	2.292285E-4	-1.670677E-3	5.847013E-3	1.199319E-3	3.437913E-3	6.524051E-3	9.789765E-4	1.047824E-3	4.411814E-3	1.042088E-3	9.066095E-4	-9.927689E-5	8.886874E-4	-6.453347E-3	5.871604E-4	4.066415E-3	-3.643767E-3	4.758822E-3	8.554213E-4	-1.877029E-3	6.476421E-3	-3.183003E-3	2.267777E-3	-1.020538E-2	-2.935565E-3	-6.106960E-4	1.352708E-3	6.091432E-3	-3.804001E-3	7.935142E-3	-1.191269E-3	1.937424E-4	-1.801187E-3	-5.362590E-3	-3.164740E-3	-1.591354E-3	4.691884E-4	3.749601E-3	4.499799E-4	3.281149E-3	-3.926532E-3	-4.237510E-5	6.433822E-3	4.118017E-3	4.613068E-3	-1.599651E-3	-4.757752E-3	1.837412E-3	-4.374887E-3	6.497553E-3	-8.215875E-4	-6.037713E-3	-8.305139E-3	-5.589506E-3	7.399092E-3	4.715708E-3	-2.103326E-3	6.038793E-3	-6.032578E-4	-2.873033E-3	-2.187405E-3	4.256351E-3	1.942672E-3	-2.075389E-3	-9.200047E-4	2.702861E-3	-4.316977E-4	6.385928E-3	-2.974849E-3	-2.306346E-3	4.364376E-3	-3.704432E-3	-3.470512E-3	-1.480584E-3	4.182657E-3	-3.267110E-3	-1.900530E-3	1.558443E-3	5.467048E-3	1.985672E-3	-6.799968E-3	4.965249E-3	-7.940473E-3	1.443699E-3	-7.298987E-3	4.050560E-3	9.504902E-4	-2.369048E-3	-2.191531E-3	-2.430473E-3	-5.870405E-3	3.483218E-3	-3.140071E-3	-9.762287E-3	3.997307E-3	4.167652E-3	-3.783509E-4	2.969657E-3	2.687665E-4	1.124987E-2	-1.654281E-3	4.296743E-3	-2.344688E-3	-4.695222E-3	3.802111E-3	3.631448E-3	3.748390E-3	8.270360E-3	1.116345E-3	9.571080E-3	5.984760E-3	-1.397519E-3	2.564155E-3	3.488848E-3	-5.393862E-3	-3.813493E-3	1.833828E-3	8.746200E-3	-5.015836E-3	9.345239E-3	3.466433E-3	1.267964E-3	7.464813E-4	-3.956320E-4	-4.505346E-3	-2.987548E-3	1.449282E-3	-9.894816E-4	-1.642683E-3	-5.484130E-4	-4.524169E-3	2.149003E-3	-6.631552E-3	1.653870E-3	-1.735856E-3	1.263177E-3	2.149426E-4	-3.408754E-3	-2.458674E-3	-4.832523E-3	-6.844715E-3	-4.809473E-3	-4.484820E-3	-4.435494E-3	3.028233E-3	1.639037E-2	2.825553E-3	-3.922148E-3	-3.833136E-3	-2.268146E-3	3.516040E-3	-1.066428E-3	-4.033439E-3	7.909796E-3	-4.265899E-3	-7.439040E-3
2.820040E+2	1.900160E-3	7.131975E-3	5.179074E-3	-8.466911E-3	5.151533E-3	-2.199140E-3	-5.936965E-5	1.261631E-3	-4.641907E-3	1.793643E-3	3.163769E-3	-4.909255E-4	1.974680E-3	4.294553E-3	7.359332E-3	-3.861764E-3	-4.645199E-3	-2.339991E-3	-1.181921E-3	2.025649E-3	5.800489E-3	-7.280644E-3	2.398235E-3	2.465171E-3	2.506111E-3	2.574959E-3	3.142510E-3	2.429935E-3	4.287984E-3	1.805120E-3	8.107572E-3	2.152005E-3	2.204805E-3	-3.577107E-3	1.673952E-3	5.268760E-4	1.356389E-4	8.504161E-3	9.917305E-3	6.719154E-3	2.305129E-3	-1.144211E-3	6.817060E-4	1.395217E-3	-1.091423E-3	-2.657044E-3	5.691236E-3	7.104062E-3	1.453616E-2	-8.142358E-4	4.540491E-3	6.074559E-3	3.917830E-3	8.037934E-3	-1.612999E-3	-5.136387E-4	4.486757E-3	1.453661E-3	-2.043393E-3	9.652047E-3	4.306436E-4	6.862460E-3	5.372385E-3	-3.778511E-5	5.819535E-3	9.338835E-3	6.815020E-3	2.036885E-4	8.138782E-4	-1.140701E-3	7.689925E-3	4.070401E-3	-6.420249E-4	5.792494E-3	5.995646E-3	7.989435E-3	5.408225E-4	2.316094E-3	1.395504E-3	6.215861E-3	5.864136E-4	-1.621390E-3	-6.499205E-3	-2.128796E-3	1.190281E-2	-4.491962E-3	-4.868539E-3	5.744069E-3	-5.991337E-4	-3.730034E-3	-4.391207E-4	4.212502E-3	2.835430E-4	7.936806E-3	8.368662E-3	7.029355E-4	6.931682E-3	4.235678E-3	-7.117673E-3	-2.516294E-3	4.435412E-3	1.162667E-2	1.027348E-3	1.626818E-2	-1.446498E-3	2.949316E-3	-1.926372E-3	1.975283E-3	2.962664E-3	-2.242886E-3	1.930564E-3	-1.020335E-3	5.529436E-3	8.705938E-3	-8.953849E-3	-2.773489E-3	1.828928E-3	6.751000E-3	1.710512E-3	2.339880E-3	-6.148372E-4	8.070428E-3	6.300119E-3	1.495800E-3	-4.546419E-3	4.577177E-3	-5.011855E-3	1.906622E-3	1.018577E-3	4.369694E-3	-4.044832E-4	6.722401E-4	1.125811E-2	2.487599E-3	3.438885E-3	3.838146E-4	6.366715E-3	-4.474281E-4	1.427376E-2	2.990446E-3	4.026798E-3	2.682479E-3	8.182501E-3	-2.324087E-3	5.143006E-3	6.454392E-3	2.725352E-3	1.404124E-3	5.843471E-3	3.244054E-3	2.696895E-3	9.025885E-3	3.692647E-3	1.388134E-3	5.975577E-3	-7.189310E-4	5.646502E-3	3.956144E-3	1.911455E-3	8.257565E-3	3.106533E-3	-1.439183E-3	2.897954E-3	6.285429E-3	1.781274E-3	-2.211033E-3	3.593343E-3	6.507172E-3	7.566873E-3	4.259310E-3	5.381728E-3	1.966190E-3
2.825030E+2	7.062234E-3	1.118920E-3	-9.870801E-4	1.678619E-2	6.541711E-3	-3.427904E-3	-2.304346E-3	8.925826E-3	9.283564E-3	1.140767E-2	8.848151E-3	3.585776E-4	7.387269E-3	3.109155E-3	2.671031E-3	9.468395E-3	-1.064864E-3	2.847957E-3	-1.127039E-3	-2.518508E-3	4.766147E-3	1.122171E-2	4.383318E-4	3.880274E-3	-1.401944E-3	2.637591E-3	6.040619E-3	4.902312E-3	1.024721E-3	-1.859796E-4	1.977681E-3	2.888166E-3	6.624588E-3	4.222841E-3	8.568024E-3	-4.043287E-3	2.565189E-3	-2.462112E-3	8.785984E-4	6.796077E-3	9.516962E-3	2.606839E-4	8.221420E-3	-4.121635E-3	4.270806E-3	6.225875E-3	4.412831E-3	6.562697E-3	-4.748985E-3	-2.792492E-5	1.570352E-3	2.001081E-3	-1.408781E-3	8.133855E-3	1.312363E-2	4.100608E-3	5.314577E-3	4.039387E-3	3.799894E-3	6.628399E-3	1.214176E-3	4.205036E-3	2.095101E-3	7.865358E-3	5.049540E-3	5.726229E-3	5.436164E-3	6.469091E-3	7.552305E-3	8.338801E-3	1.562515E-3	3.785236E-4	3.555822E-3	2.633195E-3	3.703014E-3	2.212944E-3	1.055109E-2	8.431635E-3	5.035027E-3	4.939676E-3	-3.610802E-3	1.917944E-3	1.376580E-3	2.257285E-3	1.018733E-2	1.373879E-2	8.488015E-3	1.168719E-3	6.580799E-3	2.578198E-3	7.776779E-3	8.459227E-3	3.940584E-3	1.773429E-3	1.201410E-4	1.459263E-3	2.746737E-3	-1.428610E-3	6.088872E-3	-1.646935E-3	-2.413145E-5	2.696305E-3	2.553015E-3	-8.547921E-4	4.154827E-3	7.590269E-3	1.216413E-2	1.251334E-3	4.384443E-3	5.434008E-4	2.739754E-3	-6.234700E-3	3.940611E-3	-5.805412E-3	6.115043E-3	3.738559E-3	4.675515E-3	-1.844771E-3	2.656498E-3	1.098212E-4	-5.441475E-4	-2.399703E-3	-6.047176E-3	-2.732680E-3	9.140425E-3	-4.813051E-3	4.208766E-3	-6.048981E-4	1.906620E-3	3.631696E-3	4.622846E-3	7.441475E-4	-1.752455E-3	9.757296E-4	1.221946E-3	1.858378E-3	5.752067E-3	3.184472E-3	5.097861E-3	1.641641E-2	-1.778825E-3	-1.434942E-3	-2.093010E-3	4.052802E-3	8.228326E-3	6.547675E-3	8.417495E-3	-9.584085E-4	5.284900E-3	1.796845E-3	2.778580E-3	4.492304E-3	2.415215E-3	9.381611E-3	1.173893E-3	9.938653E-3	2.279378E-3	4.714814E-3	2.641490E-3	7.031188E-3	1.690272E-3	1.902374E-3	5.430394E-3	2.749771E-3	-2.460652E-3	6.040927E-3	8.219343E-3	3.864296E-3	9.455259E-3	1.309423E-2	7.450039E-3	4.289220E-2
2.830040E+2	-2.223333E-3	4.995562E-3	-4.064727E-5	-4.870557E-4	2.683692E-3	1.842706E-3	6.195956E-5	-3.927050E-3	4.728235E-3	4.667755E-3	4.718790E-3	2.010583E-3	2.713822E-3	9.465936E-3	9.337758E-3	-1.094130E-3	3.952507E-3	1.615270E-2	8.212590E-3	5.996960E-3	1.383825E-2	4.952997E-3	1.406330E-2	-4.745280E-3	7.949086E-3	4.849072E-3	8.257769E-3	-1.469719E-3	6.442122E-3	6.739977E-3	7.665856E-3	7.015365E-3	5.966134E-3	-6.312420E-4	1.625665E-2	6.857736E-3	2.654295E-3	8.123233E-3	1.465270E-2	7.613528E-3	8.954138E-3	-2.964433E-3	1.505210E-2	7.893413E-3	-2.938691E-4	9.473235E-3	3.816113E-3	-8.556075E-4	-2.949417E-5	8.573992E-3	3.937990E-3	5.526574E-3	7.453626E-3	6.987057E-3	-1.480092E-3	1.571078E-3	3.867119E-3	6.643293E-3	6.772018E-3	8.262466E-3	1.287124E-2	7.033957E-3	-1.870751E-3	9.919428E-3	-8.122292E-4	5.012955E-3	5.510117E-3	1.431354E-2	8.857602E-3	2.717270E-3	-4.727244E-4	8.012940E-3	1.052468E-2	3.421677E-3	2.157569E-3	3.102354E-3	9.323308E-3	2.347805E-3	1.362914E-2	7.780483E-3	1.991609E-5	9.984837E-3	1.448469E-3	8.858133E-4	9.053886E-3	8.435481E-3	3.480865E-3	5.291691E-3	1.162279E-2	2.022163E-3	1.261900E-2	6.887554E-3	1.042415E-2	-7.296710E-4	7.981954E-3	4.258460E-3	1.399616E-2	7.708653E-3	1.481548E-2	4.912507E-3	6.185780E-5	4.964099E-3	1.164074E-2	6.852960E-3	8.435202E-3	2.038500E-2	6.215442E-3	6.096118E-3	9.895638E-3	9.300439E-3	7.136004E-4	6.413865E-3	-1.844290E-3	7.721619E-3	4.287874E-3	7.144107E-3	1.361860E-3	1.254482E-2	-2.251298E-5	1.194804E-2	1.058304E-3	1.336420E-2	-8.287924E-5	7.778778E-4	-2.271233E-3	6.349895E-3	6.972008E-3	1.314282E-2	1.013528E-2	1.595629E-2	9.677028E-3	6.019182E-3	1.085716E-2	5.830691E-3	7.438440E-3	-1.561148E-3	1.595519E-3	3.252770E-3	1.109825E-2	3.130706E-3	9.433951E-3	-2.058888E-3	3.190774E-3	-2.889197E-3	6.072085E-3	8.964501E-3	1.173866E-2	-8.069119E-5	8.008704E-3	2.633619E-3	4.326869E-3	-8.573156E-3	6.600491E-3	1.344374E-2	-8.542178E-4	5.951866E-3	5.142675E-3	1.154348E-2	1.464921E-3	1.783602E-2	6.290043E-3	-4.755878E-4	-2.678981E-3	9.396367E-3	5.040367E-3	1.060196E-2	-2.786907E-5	3.264299E-3	1.134978E-2	5.713801E-3	-7.886259E-3	-4.103214E-3
2.835020E+2	1.319617E-2	2.645287E-2	1.512656E-2	1.302379E-2	1.718610E-2	1.238775E-2	2.018159E-2	1.139317E-2	8.093046E-3	1.502391E-2	1.675639E-2	6.062299E-3	1.469209E-2	1.837164E-2	1.303982E-2	1.560939E-2	1.391000E-2	1.551830E-2	8.295316E-3	1.686608E-2	1.957601E-2	1.337375E-2	1.960462E-2	9.467339E-3	2.536202E-2	1.633047E-2	1.048606E-2	2.125847E-2	1.322729E-2	1.929485E-2	2.027088E-2	1.455443E-2	1.407247E-2	1.924024E-2	2.626973E-2	1.319651E-2	2.773547E-3	1.115472E-2	1.780292E-2	1.583179E-2	1.557213E-2	1.376311E-2	2.867422E-2	1.196684E-2	1.775295E-2	1.783231E-2	6.000084E-3	6.105023E-3	2.108037E-2	1.084758E-2	1.555652E-2	1.951299E-2	2.314608E-2	9.584822E-3	3.242688E-3	2.059529E-2	2.454243E-2	1.747055E-2	1.848584E-2	1.550153E-2	1.515635E-2	1.814826E-2	8.307222E-3	1.395315E-2	8.599235E-3	1.038193E-3	2.072266E-2	1.207175E-2	1.626324E-2	8.538930E-3	1.575170E-2	1.416390E-2	1.822068E-2	5.645587E-3	1.113639E-2	1.409796E-2	2.339572E-2	1.173833E-2	-4.961234E-4	9.944150E-3	1.297752E-2	1.541935E-2	2.248931E-2	1.467884E-2	7.291117E-3	1.821681E-2	2.398034E-2	1.687238E-2	2.023889E-2	1.799563E-2	1.429797E-2	1.527943E-2	1.337025E-2	1.301934E-2	8.780498E-3	1.117283E-2	1.322381E-2	1.601650E-2	1.023679E-2	1.311468E-2	1.257646E-2	7.397150E-3	8.808934E-3	1.526792E-2	2.036388E-2	2.502084E-2	1.733043E-2	1.571964E-2	2.218636E-2	1.259829E-2	1.169016E-2	2.044783E-2	1.579070E-3	7.853424E-3	1.409832E-2	1.841599E-2	2.353011E-2	1.441828E-2	1.499303E-2	9.709259E-3	1.153144E-3	8.987158E-3	7.660635E-3	8.625137E-3	1.441327E-2	5.592344E-3	1.437863E-2	8.685621E-3	2.411171E-2	1.050640E-2	3.137177E-3	1.578319E-2	5.936306E-3	9.587729E-3	1.240172E-2	9.783907E-3	8.814094E-3	1.648552E-2	8.019086E-3	1.495855E-2	1.416204E-2	2.360174E-2	1.380448E-2	1.197568E-2	1.068550E-2	1.604461E-2	1.267526E-2	1.138600E-2	1.009292E-2	7.995660E-3	1.182853E-2	1.087059E-2	8.075171E-3	1.966757E-2	9.825118E-3	6.035030E-3	1.359558E-2	1.773525E-2	1.307458E-2	8.568988E-3	7.138503E-3	6.956281E-3	1.383226E-2	1.388338E-2	1.508993E-2	2.267066E-2	9.174608E-3	2.123460E-2	3.394101E-3	1.832151E-2	1.732933E-2	1.486594E-2
2.840020E+2	2.001044E-2	3.254366E-2	1.873170E-2	2.653498E-2	3.962655E-2	3.215187E-2	2.633484E-2	3.509969E-2	1.547426E-2	3.218686E-2	3.086447E-2	3.406984E-2	2.623048E-2	1.723926E-2	2.519163E-2	2.640177E-2	2.886466E-2	3.765445E-2	1.834657E-2	4.480550E-2	2.695791E-2	2.313617E-2	1.837252E-2	2.654947E-2	2.426441E-2	2.718846E-2	3.058775E-2	3.192313E-2	2.341585E-2	3.261226E-2	1.737489E-2	2.962071E-2	3.184216E-2	2.788364E-2	4.398775E-2	3.359059E-2	1.535917E-2	2.832280E-2	3.093285E-2	3.235654E-2	3.009944E-2	1.256875E-2	1.904156E-2	2.889194E-2	2.920817E-2	3.715261E-2	2.338611E-2	2.002962E-2	2.199000E-2	2.600428E-2	2.267098E-2	2.458393E-2	1.988437E-2	1.471506E-2	1.888698E-2	3.842495E-2	2.621157E-2	2.337574E-2	3.109061E-2	3.459556E-2	2.983612E-2	2.110786E-2	3.545824E-2	4.237309E-2	2.232579E-2	3.235721E-2	1.940058E-2	3.246849E-2	2.860791E-2	2.847180E-2	1.938726E-2	2.795977E-2	2.873825E-2	2.217518E-2	2.350896E-2	2.267986E-2	3.087900E-2	2.803348E-2	2.667076E-2	3.010729E-2	2.385528E-2	1.954731E-2	3.351951E-2	3.072149E-2	2.986678E-2	2.745680E-2	2.337973E-2	2.241818E-2	3.032846E-2	3.214859E-2	2.635915E-2	1.538293E-2	2.921310E-2	1.966730E-2	2.453042E-2	3.252204E-2	2.713931E-2	2.825488E-2	3.378108E-2	3.032475E-2	2.319447E-2	2.866730E-2	1.994301E-2	2.233203E-2	2.955892E-2	3.059709E-2	1.585331E-2	3.336505E-2	2.162513E-2	1.597939E-2	2.125818E-2	2.123106E-2	2.862122E-2	2.176111E-2	1.866121E-2	2.331340E-2	1.535508E-2	1.718226E-2	3.538289E-2	2.236688E-2	1.867117E-2	3.248439E-2	3.803114E-2	1.648259E-2	2.247024E-2	3.069666E-2	2.837022E-2	2.840457E-2	1.441121E-2	2.247197E-2	3.485797E-2	3.006015E-2	3.564333E-2	2.662230E-2	4.059765E-2	1.552325E-2	1.675208E-2	1.856405E-2	2.957070E-2	2.682044E-2	3.209071E-2	1.164138E-2	3.341668E-2	2.478197E-2	2.512018E-2	3.202401E-2	3.474614E-2	2.535727E-2	4.261237E-2	2.374204E-2	2.629897E-2	2.655934E-2	4.127922E-2	2.312632E-2	2.005520E-2	1.679838E-2	4.240009E-2	2.200193E-2	2.932328E-2	3.556385E-2	1.859202E-2	3.009240E-2	3.054950E-2	1.326842E-2	2.645804E-2	2.179358E-2	2.633662E-2	2.139131E-2	2.236226E-2	1.630961E-2	3.718239E-2	1.492411E-2
2.841010E+2	1.581629E-2	2.042455E-2	2.964085E-2	2.110908E-2	3.386580E-2	2.114419E-2	2.104100E-2	1.995923E-2	2.757868E-2	2.132498E-2	2.397645E-2	2.462943E-2	2.518110E-2	3.253704E-2	2.413596E-2	3.055603E-2	2.828836E-2	1.117122E-2	2.775314E-2	3.025014E-2	3.049244E-2	1.619214E-2	2.600888E-2	3.009438E-2	3.244188E-2	2.661472E-2	2.858199E-2	1.660931E-2	2.287314E-2	3.136559E-2	1.813211E-2	3.111806E-2	3.716663E-2	2.660599E-2	2.346422E-2	1.418663E-2	1.786377E-2	2.200610E-2	2.032763E-2	2.508102E-2	2.696447E-2	2.474350E-2	2.068467E-2	3.463836E-2	2.534255E-2	2.582409E-2	3.389581E-2	1.763226E-2	1.426971E-2	2.469858E-2	2.975138E-2	3.099958E-2	3.161233E-2	1.987017E-2	2.681026E-2	2.348193E-2	3.171493E-2	2.483179E-2	2.029511E-2	1.571259E-2	2.705009E-2	1.920930E-2	2.884303E-2	1.615880E-2	2.672265E-2	1.769933E-2	2.029583E-2	2.165933E-2	3.244142E-2	3.120134E-2	1.455772E-2	2.504335E-2	2.680507E-2	2.445133E-2	3.676431E-2	2.616083E-2	2.435145E-2	3.007238E-2	1.465649E-2	2.125425E-2	1.895351E-2	2.571592E-2	2.665448E-2	2.941585E-2	2.377561E-2	3.005628E-2	2.717656E-2	2.187476E-2	2.690587E-2	2.655718E-2	2.328766E-2	2.801486E-2	2.720905E-2	2.112153E-2	2.252932E-2	2.099042E-2	2.467005E-2	2.459763E-2	9.633313E-3	2.801836E-2	2.728833E-2	3.397231E-2	3.040219E-2	2.735114E-2	2.620068E-2	3.620623E-2	1.205395E-2	1.991221E-2	2.720235E-2	2.531655E-2	2.797934E-2	2.670305E-2	2.706787E-2	2.699718E-2	1.506978E-2	2.985118E-2	2.726207E-2	1.864702E-2	2.224252E-2	1.855010E-2	1.649999E-2	3.631269E-2	2.131295E-2	3.827118E-2	1.823941E-2	2.679183E-2	2.719339E-2	1.937068E-2	2.025296E-2	1.855291E-2	2.999184E-2	2.496499E-2	1.938607E-2	2.080509E-2	2.125336E-2	1.988229E-2	1.830205E-2	2.320895E-2	3.399445E-2	2.441456E-2	2.099396E-2	2.174130E-2	1.704487E-2	1.853575E-2	3.357789E-2	1.544349E-2	2.758603E-2	3.693403E-2	3.617335E-2	1.752567E-2	2.866732E-2	1.810908E-2	3.247891E-2	3.547470E-2	1.447632E-2	1.443049E-2	2.365082E-2	2.911781E-2	1.402658E-2	1.482444E-2	1.643332E-2	3.903207E-2	2.083376E-2	2.293502E-2	1.785951E-2	2.674449E-2	3.747900E-2	2.846310E-2	2.342694E-2	2.461926E-2	1.795896E-2	1.817023E-2
2.842040E+2	1.168921E-2	1.825402E-2	2.888101E-2	1.168464E-2	2.874178E-2	1.797553E-2	4.131939E-2	3.161719E-2	1.570198E-2	3.043232E-2	2.290999E-2	2.958587E-2	2.531898E-2	2.825795E-2	2.797480E-2	3.270457E-2	4.841246E-2	2.165572E-2	2.718061E-2	2.883007E-2	3.121966E-2	1.694111E-2	3.235203E-2	2.547702E-2	3.190565E-2	2.097657E-2	2.461860E-2	1.916013E-2	3.042690E-2	2.175320E-2	2.274752E-2	3.125486E-2	2.920017E-2	2.032510E-2	3.206510E-2	2.133694E-2	2.275633E-2	3.042623E-2	3.428789E-2	2.513436E-2	2.973355E-2	1.749413E-2	2.080000E-2	2.269144E-2	2.614588E-2	1.250226E-2	2.364216E-2	2.912434E-2	3.713514E-2	2.698115E-2	1.129100E-2	3.188252E-2	1.944823E-2	2.505179E-2	3.320191E-2	2.624734E-2	3.029422E-2	2.300512E-2	1.227854E-2	3.096271E-3	3.377026E-2	2.416970E-2	2.898440E-2	2.090371E-2	2.514063E-2	2.605624E-2	2.655490E-2	1.707009E-2	2.768432E-2	1.979027E-2	4.157283E-2	3.127950E-2	2.903395E-2	1.886223E-2	3.358703E-2	3.304082E-2	1.844158E-2	3.148887E-2	3.411783E-2	2.556340E-2	2.196498E-2	1.776438E-2	2.679303E-2	2.154651E-2	2.894904E-2	2.168420E-2	2.952007E-2	2.200457E-2	2.059991E-2	2.028897E-2	3.542704E-2	2.982577E-2	2.231372E-2	1.602086E-2	2.552640E-2	1.835688E-2	2.045017E-2	2.167932E-2	2.700771E-2	1.750766E-2	2.480058E-2	2.252311E-2	1.426213E-2	2.819401E-2	2.281916E-2	2.884760E-2	2.886495E-2	2.883950E-2	3.075778E-2	3.074487E-2	1.861675E-2	2.149140E-2	2.550854E-2	2.568065E-2	3.012204E-2	1.952696E-2	2.393415E-2	1.878849E-2	1.688030E-2	2.893630E-2	1.050183E-2	2.545408E-2	2.396637E-2	2.190704E-2	3.000066E-2	2.898485E-2	2.068962E-2	2.476314E-2	3.516221E-2	2.755021E-2	3.347340E-2	2.434464E-2	2.902391E-2	2.360579E-2	3.154633E-2	3.347771E-2	1.198003E-2	3.014484E-2	2.381687E-2	2.706774E-2	3.041179E-2	1.921295E-2	2.393937E-2	2.362237E-2	2.766132E-2	3.452539E-2	2.283339E-2	1.657775E-2	2.171786E-2	2.339892E-2	1.986578E-2	1.822183E-2	2.294058E-2	2.679817E-2	3.528830E-2	2.524817E-2	2.940849E-2	2.099249E-2	2.964050E-2	2.981181E-2	1.806781E-2	3.009572E-2	3.508067E-2	2.454405E-2	2.865785E-2	3.807503E-2	2.990566E-2	2.999803E-2	1.814143E-2	2.369167E-2	1.996818E-2	2.144733E-2
2.843030E+2	3.250984E-2	3.927975E-2	4.440106E-2	4.213052E-2	3.354003E-2	3.789581E-2	3.774253E-2	2.950542E-2	4.060604E-2	4.104947E-2	4.443992E-2	3.535407E-2	3.749220E-2	3.605432E-2	4.756216E-2	3.215576E-2	3.579252E-2	3.599568E-2	5.560820E-2	4.452701E-2	3.202667E-2	3.904334E-2	4.762861E-2	2.821836E-2	5.019617E-2	3.836463E-2	3.634604E-2	3.873260E-2	3.191731E-2	4.835724E-2	3.876364E-2	3.892541E-2	5.060466E-2	3.330233E-2	4.222737E-2	3.559093E-2	4.384850E-2	4.362049E-2	3.985215E-2	3.642639E-2	5.627536E-2	4.049169E-2	2.866295E-2	4.944222E-2	4.778058E-2	4.919073E-2	5.092108E-2	3.433283E-2	3.412036E-2	3.577904E-2	2.070640E-2	4.176825E-2	3.739482E-2	4.037193E-2	2.869112E-2	4.554253E-2	5.199222E-2	3.969329E-2	4.641374E-2	3.096462E-2	2.657189E-2	3.817555E-2	3.741560E-2	3.959508E-2	3.383807E-2	3.446471E-2	3.516968E-2	3.839737E-2	4.138505E-2	4.120518E-2	4.031761E-2	3.371242E-2	3.336460E-2	4.472603E-2	3.857793E-2	5.605761E-2	3.268514E-2	3.730287E-2	4.218765E-2	3.755392E-2	3.873312E-2	4.287316E-2	3.791027E-2	3.480100E-2	3.918014E-2	3.223612E-2	3.260814E-2	2.965223E-2	5.301305E-2	3.777766E-2	4.199816E-2	5.680690E-2	4.840152E-2	2.009864E-2	3.642623E-2	3.506033E-2	3.709432E-2	4.166827E-2	4.918775E-2	3.485119E-2	2.958063E-2	3.754627E-2	3.589092E-2	3.955739E-2	2.575907E-2	4.751327E-2	4.493801E-2	4.183075E-2	4.049837E-2	4.150189E-2	4.225285E-2	3.169823E-2	2.564269E-2	3.609361E-2	4.450632E-2	4.141528E-2	3.733274E-2	3.427506E-2	3.037278E-2	5.839632E-2	3.581208E-2	3.665618E-2	5.037841E-2	4.294392E-2	4.474480E-2	3.323998E-2	5.484512E-2	4.470893E-2	3.779672E-2	5.686327E-2	3.865668E-2	3.802384E-2	5.271803E-2	3.577356E-2	4.817401E-2	4.928824E-2	3.795978E-2	4.545947E-2	4.895976E-2	4.244611E-2	3.922585E-2	4.679789E-2	2.861039E-2	5.366302E-2	6.053100E-2	4.128139E-2	4.337158E-2	4.793218E-2	3.519968E-2	3.891099E-2	4.466944E-2	3.166784E-2	4.601286E-2	3.991196E-2	4.261632E-2	4.439340E-2	4.930191E-2	3.581940E-2	3.952048E-2	4.828065E-2	4.184247E-2	3.938411E-2	3.190772E-2	2.764462E-2	4.519363E-2	2.953955E-2	3.703363E-2	3.851094E-2	4.182186E-2	4.094932E-2	3.195632E-2	4.066546E-2
2.844010E+2	7.575158E-2	6.262741E-2	5.252398E-2	6.912373E-2	5.703556E-2	6.851429E-2	7.608700E-2	7.131903E-2	6.238137E-2	7.106372E-2	7.032023E-2	6.937553E-2	7.642801E-2	6.116262E-2	6.657928E-2	5.997852E-2	5.974554E-2	6.004058E-2	6.958644E-2	5.093243E-2	6.298936E-2	7.614012E-2	5.882774E-2	7.393452E-2	5.295064E-2	9.469208E-2	6.687920E-2	7.555973E-2	7.755421E-2	5.754106E-2	6.627739E-2	7.328691E-2	6.179611E-2	5.780917E-2	5.862501E-2	6.785305E-2	5.120164E-2	7.353755E-2	7.014995E-2	7.101775E-2	7.897550E-2	6.830842E-2	7.823812E-2	5.850357E-2	8.162527E-2	8.019556E-2	7.272454E-2	6.880555E-2	7.525182E-2	6.853360E-2	6.744974E-2	7.713995E-2	6.162364E-2	5.450798E-2	5.479437E-2	7.553545E-2	5.990261E-2	6.353691E-2	7.625450E-2	7.962887E-2	8.252836E-2	6.343815E-2	7.866367E-2	5.972446E-2	7.184070E-2	5.449676E-2	6.529907E-2	6.851257E-2	7.185719E-2	6.468214E-2	7.255831E-2	5.537263E-2	6.713571E-2	6.998942E-2	5.628112E-2	7.552725E-2	6.994431E-2	4.440611E-2	6.913619E-2	6.777444E-2	7.372712E-2	6.947147E-2	6.642849E-2	7.374343E-2	6.651869E-2	6.248808E-2	6.605102E-2	6.133748E-2	6.905066E-2	5.988095E-2	6.402294E-2	7.634927E-2	6.955851E-2	6.643018E-2	6.327508E-2	7.263571E-2	6.865225E-2	6.711449E-2	6.598138E-2	6.379716E-2	7.422968E-2	8.771228E-2	6.805070E-2	5.660991E-2	7.603528E-2	6.490701E-2	6.747954E-2	6.213010E-2	8.531834E-2	8.087666E-2	5.570147E-2	6.216187E-2	6.920016E-2	4.435781E-2	6.798042E-2	8.039248E-2	5.639916E-2	6.189227E-2	5.734445E-2	6.100155E-2	7.579544E-2	6.788687E-2	6.331234E-2	7.107402E-2	6.834825E-2	6.350541E-2	5.909191E-2	6.410771E-2	5.861731E-2	6.113459E-2	7.667698E-2	6.385004E-2	6.507115E-2	5.604343E-2	5.701987E-2	6.018855E-2	6.408142E-2	6.616295E-2	5.865658E-2	7.318304E-2	6.411581E-2	6.714845E-2	8.175621E-2	7.469847E-2	5.921960E-2	7.594020E-2	7.628284E-2	6.627254E-2	6.481266E-2	6.478551E-2	6.584990E-2	7.897516E-2	8.453049E-2	5.378406E-2	6.218444E-2	6.610987E-2	6.929757E-2	6.610255E-2	6.504453E-2	6.752863E-2	6.726958E-2	5.558172E-2	6.463843E-2	5.075150E-2	7.760407E-2	7.086917E-2	6.673565E-2	6.730877E-2	7.924868E-2	7.439028E-2	4.987526E-2	6.315374E-2
2.845010E+2	9.755325E-2	7.367125E-2	9.515667E-2	1.004949E-1	1.015990E-1	9.352854E-2	1.026830E-1	1.055500E-1	9.900879E-2	9.699144E-2	8.871747E-2	9.517195E-2	8.828995E-2	1.024331E-1	1.080735E-1	9.587711E-2	8.385156E-2	9.026491E-2	1.071721E-1	7.849894E-2	9.736313E-2	9.568651E-2	9.492707E-2	9.392647E-2	1.003705E-1	7.816405E-2	9.593593E-2	9.438719E-2	1.163587E-1	1.114982E-1	1.077518E-1	1.009079E-1	1.063128E-1	8.387958E-2	8.825388E-2	9.939738E-2	1.011955E-1	1.024112E-1	9.126906E-2	9.226997E-2	9.779901E-2	1.020996E-1	1.043474E-1	9.926386E-2	1.006321E-1	9.837370E-2	8.884793E-2	8.754259E-2	9.191445E-2	9.466978E-2	1.087539E-1	1.055883E-1	8.458798E-2	9.098180E-2	1.007114E-1	8.243539E-2	1.003645E-1	9.458898E-2	9.206198E-2	1.189022E-1	1.002395E-1	7.974219E-2	8.717171E-2	1.039801E-1	9.449596E-2	9.677250E-2	1.023078E-1	9.165666E-2	8.081214E-2	7.986337E-2	9.209222E-2	9.332214E-2	1.158271E-1	9.457606E-2	8.785242E-2	9.182283E-2	8.307000E-2	9.511416E-2	9.182661E-2	8.626120E-2	9.435979E-2	8.468226E-2	9.269633E-2	8.942519E-2	8.895788E-2	8.616611E-2	7.523655E-2	8.634120E-2	9.818178E-2	9.959123E-2	1.088499E-1	9.601679E-2	1.104091E-1	8.723355E-2	9.967299E-2	8.401929E-2	8.462415E-2	9.040220E-2	9.791813E-2	8.795277E-2	8.917931E-2	9.783178E-2	9.965374E-2	8.647389E-2	8.057215E-2	9.898053E-2	7.094375E-2	1.043570E-1	9.390961E-2	9.451937E-2	1.017318E-1	9.146580E-2	1.070172E-1	9.472272E-2	7.955827E-2	1.033847E-1	1.071643E-1	9.371652E-2	9.714691E-2	8.753592E-2	8.301209E-2	9.558700E-2	9.765060E-2	8.625297E-2	1.008992E-1	1.056317E-1	1.116988E-1	1.075557E-1	9.944307E-2	9.722714E-2	1.149206E-1	9.817690E-2	8.583564E-2	8.988601E-2	9.196737E-2	8.904613E-2	9.760621E-2	8.548395E-2	1.100574E-1	8.621917E-2	9.589313E-2	9.370642E-2	9.648478E-2	9.897897E-2	1.053536E-1	8.654032E-2	1.011607E-1	1.125002E-1	1.013012E-1	8.438884E-2	9.166536E-2	9.218194E-2	9.042786E-2	1.054884E-1	8.978618E-2	7.985077E-2	9.720154E-2	9.080611E-2	1.109344E-1	9.851246E-2	8.596123E-2	1.009609E-1	1.009069E-1	8.216953E-2	8.679621E-2	9.361243E-2	1.176438E-1	9.980208E-2	1.078162E-1	1.059127E-1	9.374390E-2	6.670982E-2
2.846030E+2	1.194855E-1	1.274908E-1	1.305403E-1	1.292287E-1	1.306373E-1	1.284023E-1	1.216046E-1	1.295718E-1	1.358640E-1	1.258775E-1	1.192279E-1	1.203025E-1	1.403684E-1	1.233571E-1	1.258467E-1	1.345540E-1	1.355172E-1	1.048457E-1	1.274856E-1	1.195187E-1	1.189566E-1	1.168665E-1	1.129354E-1	1.080698E-1	1.252734E-1	1.300544E-1	1.222147E-1	1.270888E-1	1.324081E-1	1.499542E-1	1.234509E-1	1.217308E-1	1.287453E-1	1.397423E-1	1.222000E-1	1.368572E-1	1.207684E-1	1.237081E-1	1.452680E-1	1.182235E-1	1.134239E-1	1.145604E-1	1.320320E-1	1.293955E-1	1.116904E-1	1.154830E-1	1.280500E-1	1.031929E-1	1.425699E-1	1.210369E-1	1.089712E-1	1.278156E-1	1.208256E-1	1.557372E-1	1.136473E-1	1.226920E-1	1.278338E-1	1.212889E-1	1.257240E-1	1.328983E-1	1.248509E-1	1.382388E-1	1.322109E-1	1.304425E-1	1.285156E-1	1.285375E-1	1.341755E-1	9.434840E-2	1.109464E-1	1.139824E-1	1.374926E-1	1.198712E-1	1.408362E-1	1.121235E-1	1.187702E-1	1.279129E-1	1.315358E-1	1.277417E-1	1.276899E-1	1.104663E-1	1.435411E-1	1.149401E-1	1.182981E-1	1.287261E-1	1.286469E-1	1.260199E-1	1.193562E-1	1.142358E-1	1.274456E-1	1.083849E-1	1.311032E-1	1.174726E-1	1.456739E-1	1.247542E-1	1.376769E-1	1.365822E-1	1.401208E-1	1.230433E-1	1.442902E-1	1.246159E-1	1.362587E-1	1.216932E-1	1.284313E-1	1.384067E-1	1.376779E-1	1.173349E-1	1.266148E-1	1.273777E-1	1.246360E-1	1.282611E-1	1.279875E-1	1.141339E-1	1.329913E-1	1.105746E-1	1.371986E-1	1.362145E-1	1.370669E-1	1.257119E-1	1.545518E-1	1.285565E-1	1.126090E-1	1.249173E-1	1.466578E-1	1.251903E-1	1.174260E-1	1.087602E-1	1.208203E-1	1.292502E-1	1.412650E-1	1.375564E-1	1.135698E-1	1.227926E-1	1.195229E-1	1.144712E-1	1.223261E-1	1.201879E-1	1.298337E-1	1.423158E-1	1.043165E-1	1.223631E-1	1.083228E-1	1.136315E-1	1.287880E-1	1.087333E-1	1.371503E-1	1.170899E-1	1.236957E-1	1.330027E-1	1.178039E-1	1.228324E-1	1.552892E-1	1.504673E-1	1.327769E-1	1.292603E-1	1.348467E-1	1.327663E-1	1.295168E-1	1.240021E-1	1.087018E-1	1.216427E-1	1.431889E-1	1.350355E-1	1.389721E-1	1.157899E-1	1.185067E-1	1.089211E-1	1.461173E-1	1.300700E-1	1.216836E-1	1.008688E-1	1.079334E-1	9.912726E-2
2.847020E+2	2.491185E-1	2.273292E-1	2.155751E-1	2.251382E-1	2.402613E-1	2.438335E-1	2.448723E-1	2.572321E-1	2.515204E-1	2.443334E-1	2.322353E-1	2.484181E-1	2.346626E-1	2.281815E-1	2.302833E-1	2.455109E-1	2.206315E-1	2.210251E-1	2.370030E-1	2.242303E-1	2.189658E-1	2.357391E-1	2.392537E-1	2.582553E-1	2.276772E-1	2.185081E-1	2.293314E-1	2.309457E-1	2.396657E-1	2.498596E-1	2.198940E-1	2.247332E-1	2.357295E-1	2.116903E-1	2.338615E-1	2.349661E-1	2.342257E-1	2.411127E-1	2.505835E-1	2.079945E-1	2.446939E-1	2.266536E-1	2.240062E-1	2.159144E-1	2.342496E-1	2.273599E-1	2.392113E-1	2.323800E-1	2.481864E-1	2.383681E-1	2.580829E-1	2.208495E-1	2.501875E-1	2.247982E-1	2.213159E-1	2.225683E-1	2.225497E-1	2.271410E-1	2.249312E-1	2.172603E-1	2.355767E-1	2.126718E-1	2.233792E-1	2.142402E-1	2.346341E-1	2.258047E-1	2.277150E-1	2.343345E-1	2.236475E-1	2.214649E-1	2.293232E-1	2.328488E-1	2.297510E-1	2.298291E-1	2.325929E-1	1.966330E-1	2.402000E-1	2.470647E-1	2.378949E-1	2.274000E-1	2.361375E-1	2.342346E-1	2.298183E-1	2.309931E-1	2.220675E-1	2.348937E-1	2.263238E-1	2.431844E-1	2.533361E-1	2.108712E-1	2.640313E-1	2.279860E-1	2.313697E-1	2.190134E-1	2.455032E-1	2.271674E-1	2.415594E-1	2.160725E-1	1.988304E-1	2.303393E-1	2.244677E-1	2.157371E-1	2.323073E-1	2.140048E-1	2.107146E-1	2.307492E-1	2.179173E-1	2.227251E-1	2.095288E-1	2.324335E-1	2.219119E-1	2.367126E-1	2.422658E-1	2.317427E-1	2.692401E-1	1.985133E-1	2.136221E-1	2.408408E-1	2.376339E-1	2.609972E-1	2.288486E-1	2.244279E-1	2.532414E-1	2.399941E-1	2.380131E-1	2.339469E-1	2.365630E-1	2.371450E-1	2.381539E-1	2.361599E-1	2.113334E-1	2.531941E-1	2.446876E-1	2.140961E-1	2.542227E-1	2.218678E-1	2.362760E-1	2.223810E-1	2.361623E-1	2.390919E-1	2.669550E-1	2.081299E-1	2.703455E-1	2.406029E-1	2.228632E-1	2.520106E-1	2.394437E-1	2.360057E-1	2.247203E-1	2.203878E-1	2.373268E-1	2.279580E-1	2.343275E-1	2.476622E-1	2.336610E-1	2.243674E-1	2.367636E-1	2.271383E-1	2.315006E-1	2.284624E-1	2.399288E-1	2.453522E-1	2.318817E-1	2.082944E-1	2.341922E-1	2.367564E-1	2.522112E-1	2.391831E-1	2.265189E-1	2.202085E-1	2.333922E-1	2.183997E-1
2.848000E+2	6.784929E-1	5.931255E-1	5.855303E-1	6.277581E-1	6.325264E-1	6.092875E-1	6.304589E-1	5.803894E-1	5.702923E-1	5.820900E-1	6.145796E-1	6.370882E-1	6.429067E-1	5.970904E-1	5.877982E-1	6.026106E-1	6.524847E-1	6.422750E-1	6.291110E-1	5.804844E-1	5.963516E-1	5.957853E-1	5.857087E-1	6.335670E-1	6.086481E-1	5.716703E-1	5.927335E-1	6.080455E-1	5.905480E-1	5.974581E-1	5.919420E-1	5.922280E-1	5.892127E-1	6.213552E-1	5.974854E-1	5.904005E-1	6.300200E-1	5.923710E-1	5.696961E-1	5.710890E-1	5.992917E-1	6.021553E-1	5.690318E-1	6.062563E-1	5.619326E-1	6.144734E-1	6.029187E-1	5.966797E-1	5.913072E-1	5.874516E-1	6.478939E-1	6.207898E-1	6.094293E-1	5.995108E-1	5.958326E-1	5.975977E-1	5.852206E-1	5.873044E-1	6.069817E-1	5.913539E-1	5.969898E-1	6.141198E-1	6.378827E-1	5.857190E-1	5.983214E-1	6.212730E-1	5.969466E-1	6.304502E-1	5.996619E-1	6.489576E-1	6.005467E-1	5.995352E-1	5.735795E-1	6.182896E-1	5.688669E-1	6.045126E-1	5.937259E-1	5.990796E-1	6.202766E-1	6.034073E-1	6.201952E-1	6.083435E-1	6.305103E-1	6.314632E-1	5.793699E-1	6.006987E-1	6.000183E-1	6.038950E-1	6.306818E-1	5.814545E-1	6.083754E-1	6.066198E-1	6.196682E-1	6.034045E-1	5.893531E-1	6.548709E-1	5.939221E-1	6.049358E-1	6.045110E-1	6.139482E-1	6.141278E-1	5.724752E-1	6.424121E-1	6.172355E-1	5.820203E-1	5.898157E-1	6.640253E-1	6.018173E-1	5.720653E-1	6.294429E-1	6.201737E-1	6.272849E-1	6.117984E-1	6.279690E-1	5.974716E-1	5.896927E-1	6.053444E-1	6.199442E-1	6.263772E-1	6.189603E-1	6.093330E-1	5.657351E-1	6.359187E-1	6.193597E-1	6.350402E-1	5.928824E-1	6.080750E-1	5.921888E-1	6.275997E-1	6.184711E-1	6.002233E-1	5.926972E-1	6.067474E-1	6.183796E-1	5.743917E-1	6.145376E-1	5.866578E-1	6.361071E-1	6.708983E-1	5.589684E-1	6.089053E-1	5.544165E-1	6.514688E-1	6.131711E-1	6.298426E-1	6.368710E-1	5.773629E-1	6.250210E-1	6.102903E-1	6.200324E-1	6.160554E-1	6.095819E-1	6.034558E-1	6.014088E-1	6.654276E-1	6.068485E-1	5.740077E-1	6.284487E-1	6.171600E-1	5.845978E-1	6.464712E-1	5.937825E-1	5.809505E-1	5.793069E-1	6.078658E-1	5.925069E-1	6.441890E-1	6.229420E-1	5.631355E-1	5.964756E-1	6.373603E-1	6.331490E-1
2.849040E+2	9.771566E-1	9.471028E-1	9.300948E-1	9.710097E-1	1.015722E+0	9.613386E-1	9.824921E-1	9.777300E-1	9.635771E-1	9.165938E-1	1.023944E+0	9.972992E-1	9.509379E-1	9.816234E-1	9.767549E-1	9.919218E-1	9.826937E-1	9.687780E-1	9.863501E-1	9.677973E-1	9.681110E-1	9.706372E-1	9.793393E-1	9.926958E-1	9.601286E-1	1.008329E+0	9.787377E-1	9.968136E-1	9.847371E-1	9.627807E-1	9.642440E-1	9.582052E-1	9.751722E-1	9.539585E-1	1.014830E+0	9.606271E-1	9.558037E-1	9.703446E-1	9.624340E-1	9.504324E-1	9.148669E-1	9.532745E-1	9.557239E-1	1.018021E+0	9.875125E-1	1.024600E+0	1.051791E+0	9.745630E-1	9.648082E-1	9.858106E-1	9.067629E-1	9.503399E-1	9.829966E-1	9.596054E-1	1.000116E+0	9.569417E-1	9.323404E-1	9.545956E-1	9.544608E-1	9.532571E-1	9.665311E-1	9.820082E-1	9.606251E-1	9.490580E-1	1.056872E+0	9.767291E-1	9.564579E-1	9.646515E-1	9.676592E-1	9.867947E-1	9.673295E-1	9.443825E-1	9.453103E-1	9.238693E-1	9.275269E-1	9.954751E-1	9.353986E-1	9.784559E-1	9.394663E-1	9.605308E-1	9.672440E-1	9.830010E-1	9.793527E-1	9.657424E-1	9.449664E-1	9.497370E-1	9.726995E-1	9.900703E-1	9.543046E-1	9.866990E-1	9.552623E-1	9.930363E-1	9.585205E-1	9.690229E-1	9.662924E-1	9.687367E-1	1.007870E+0	9.824474E-1	9.666576E-1	9.393563E-1	9.746910E-1	9.757988E-1	9.897337E-1	9.308907E-1	9.552771E-1	9.979712E-1	9.315728E-1	9.311118E-1	9.522671E-1	9.889184E-1	1.040638E+0	1.002696E+0	9.486631E-1	9.706882E-1	9.183929E-1	9.235811E-1	9.434899E-1	1.006446E+0	9.452305E-1	9.862765E-1	1.010917E+0	9.561399E-1	9.559841E-1	9.304024E-1	9.763260E-1	9.730667E-1	9.845449E-1	9.402409E-1	9.630415E-1	9.494895E-1	1.043120E+0	1.000645E+0	9.347234E-1	9.599088E-1	1.020427E+0	9.732268E-1	9.776026E-1	9.680461E-1	9.963462E-1	9.629786E-1	9.506767E-1	9.862548E-1	1.039032E+0	9.842237E-1	1.008854E+0	9.658252E-1	9.873745E-1	1.013690E+0	9.397195E-1	9.998192E-1	1.032459E+0	9.316722E-1	9.335836E-1	9.236685E-1	1.004051E+0	9.743900E-1	1.011152E+0	9.831887E-1	9.654735E-1	9.641474E-1	9.807350E-1	1.023621E+0	9.824903E-1	9.644360E-1	9.478710E-1	9.066919E-1	9.766618E-1	9.477690E-1	9.862734E-1	9.704440E-1	9.971153E-1	9.108402E-1
2.850010E+2	1.030758E+0	1.056541E+0	1.050468E+0	1.006175E+0	1.037837E+0	1.012937E+0	9.958541E-1	1.048548E+0	1.014795E+0	1.007142E+0	9.894903E-1	1.000412E+0	9.719832E-1	1.057020E+0	9.867874E-1	9.368468E-1	1.055248E+0	1.014299E+0	9.876665E-1	9.701072E-1	9.753661E-1	9.719079E-1	9.990160E-1	9.783500E-1	9.988898E-1	9.829727E-1	1.020380E+0	9.773635E-1	1.035415E+0	1.015727E+0	9.606955E-1	9.739630E-1	1.005956E+0	1.009550E+0	1.043022E+0	9.933626E-1	9.881392E-1	9.665436E-1	1.001726E+0	1.094038E+0	9.522498E-1	1.050919E+0	9.461858E-1	9.875125E-1	1.008412E+0	9.538949E-1	1.010202E+0	9.552167E-1	9.973869E-1	1.003052E+0	1.012590E+0	9.399536E-1	9.891062E-1	1.001082E+0	1.009817E+0	9.689692E-1	9.800666E-1	1.001531E+0	9.745281E-1	1.015587E+0	9.600735E-1	1.014833E+0	1.025167E+0	9.434668E-1	1.046297E+0	9.893579E-1	9.703082E-1	1.011255E+0	9.389646E-1	1.050175E+0	9.709113E-1	9.710753E-1	1.032615E+0	9.946502E-1	1.039748E+0	9.796264E-1	9.708574E-1	1.013308E+0	1.024210E+0	9.346286E-1	1.041204E+0	1.009101E+0	1.016496E+0	1.015278E+0	9.682414E-1	1.008866E+0	1.005098E+0	9.898669E-1	1.019024E+0	9.717777E-1	1.027494E+0	1.064440E+0	9.941362E-1	9.691135E-1	9.983281E-1	1.027936E+0	1.070482E+0	9.608445E-1	9.517992E-1	1.017211E+0	1.052477E+0	9.964294E-1	9.534018E-1	9.665359E-1	9.513859E-1	9.867995E-1	1.017506E+0	1.024062E+0	9.975378E-1	1.032415E+0	9.865423E-1	1.021332E+0	9.087258E-1	1.039149E+0	9.830615E-1	9.902657E-1	9.705572E-1	1.069685E+0	9.579503E-1	9.784382E-1	9.642631E-1	9.812838E-1	1.054505E+0	9.562730E-1	1.026835E+0	1.051446E+0	9.774971E-1	1.053800E+0	1.020219E+0	1.035587E+0	1.030711E+0	1.004227E+0	9.516291E-1	9.640981E-1	9.750551E-1	1.059345E+0	9.785327E-1	1.032691E+0	1.005141E+0	1.005501E+0	9.999708E-1	9.921846E-1	1.006945E+0	1.015752E+0	1.027077E+0	9.927538E-1	9.933586E-1	1.026252E+0	9.946371E-1	1.013990E+0	9.997849E-1	1.011076E+0	9.972405E-1	9.807284E-1	1.040404E+0	9.678029E-1	9.778246E-1	9.846871E-1	9.912160E-1	9.846827E-1	9.900747E-1	9.929731E-1	1.073181E+0	9.716058E-1	9.419979E-1	9.494545E-1	1.035685E+0	9.605471E-1	1.025740E+0	1.016037E+0	1.065890E+0	1.041378E+0
2.851030E+2	8.150380E-1	8.666934E-1	7.802903E-1	7.918183E-1	8.149031E-1	8.212635E-1	8.479765E-1	8.587502E-1	8.493525E-1	8.356550E-1	7.916059E-1	8.282559E-1	8.245004E-1	8.345891E-1	7.810672E-1	8.022442E-1	8.258649E-1	8.125442E-1	8.674608E-1	8.104125E-1	8.067122E-1	8.469563E-1	8.203768E-1	7.988045E-1	8.303789E-1	7.820305E-1	8.126067E-1	7.708338E-1	7.978777E-1	8.301055E-1	8.255621E-1	7.984972E-1	7.733924E-1	8.589325E-1	8.086987E-1	8.052902E-1	7.917388E-1	8.074609E-1	7.739663E-1	7.637201E-1	8.158813E-1	8.045973E-1	8.319176E-1	8.398345E-1	8.237466E-1	8.099914E-1	7.989376E-1	7.480227E-1	7.980275E-1	7.704763E-1	8.292384E-1	8.151808E-1	8.201903E-1	8.092205E-1	8.136635E-1	7.951935E-1	7.521636E-1	8.117033E-1	7.791631E-1	8.303101E-1	8.234477E-1	7.933669E-1	8.629103E-1	8.409462E-1	8.537759E-1	7.958923E-1	8.072073E-1	8.784800E-1	7.959968E-1	8.439854E-1	7.835080E-1	8.176043E-1	8.368175E-1	8.023605E-1	7.860713E-1	8.734563E-1	7.898898E-1	8.433997E-1	8.692417E-1	7.988431E-1	7.691787E-1	7.978606E-1	8.383952E-1	8.330120E-1	8.621741E-1	8.187986E-1	8.049098E-1	7.834889E-1	8.449159E-1	7.868598E-1	8.042523E-1	8.503482E-1	8.177368E-1	8.567414E-1	7.950914E-1	7.932043E-1	9.204350E-1	7.978626E-1	7.874926E-1	8.220291E-1	8.325958E-1	8.058364E-1	7.935528E-1	8.304597E-1	7.731536E-1	8.119719E-1	7.942624E-1	7.515891E-1	8.056076E-1	7.995856E-1	8.522815E-1	8.294612E-1	8.269798E-1	8.088657E-1	8.099095E-1	8.283195E-1	8.006631E-1	8.194558E-1	8.643272E-1	8.298826E-1	8.564526E-1	7.947411E-1	8.625593E-1	8.368500E-1	8.357602E-1	8.011391E-1	8.639470E-1	7.766901E-1	7.537993E-1	7.974931E-1	8.314599E-1	8.450075E-1	7.930168E-1	8.056514E-1	7.731482E-1	7.860264E-1	7.870348E-1	8.361557E-1	8.409926E-1	8.515517E-1	8.501683E-1	8.483284E-1	8.653112E-1	8.077007E-1	8.308199E-1	8.525980E-1	8.328933E-1	8.209505E-1	8.108790E-1	8.784622E-1	8.290033E-1	7.595870E-1	8.525158E-1	8.312085E-1	8.254564E-1	8.016818E-1	8.514073E-1	7.987999E-1	8.157508E-1	8.237528E-1	8.378459E-1	8.710167E-1	8.618161E-1	8.155079E-1	8.225500E-1	7.633013E-1	8.254748E-1	7.816808E-1	8.057972E-1	8.676651E-1	8.513135E-1	8.439637E-1
2.852020E+2	8.188315E-1	7.877784E-1	8.312215E-1	7.735863E-1	7.640859E-1	7.943751E-1	7.957325E-1	7.999581E-1	7.749334E-1	7.819022E-1	7.990001E-1	7.804638E-1	7.672316E-1	7.857507E-1	8.147823E-1	7.793550E-1	7.492465E-1	7.644434E-1	8.366238E-1	7.789203E-1	7.473221E-1	7.924505E-1	7.742590E-1	7.907890E-1	7.797397E-1	7.691183E-1	7.827445E-1	7.664775E-1	7.721363E-1	8.212411E-1	7.260675E-1	7.423473E-1	7.663689E-1	8.253839E-1	8.745607E-1	8.007439E-1	7.766843E-1	8.117983E-1	7.957120E-1	8.018812E-1	7.763187E-1	7.963912E-1	8.118786E-1	7.931640E-1	7.698684E-1	7.891623E-1	8.160036E-1	7.547571E-1	8.313607E-1	8.109741E-1	8.117058E-1	7.374978E-1	7.796950E-1	8.402636E-1	7.770443E-1	7.961615E-1	7.778043E-1	7.362133E-1	7.408329E-1	7.877418E-1	7.544488E-1	7.879879E-1	8.209090E-1	7.569560E-1	8.393201E-1	7.813095E-1	7.544975E-1	7.912054E-1	7.509276E-1	7.704288E-1	7.993695E-1	7.229505E-1	8.277646E-1	7.595308E-1	8.137477E-1	7.599324E-1	7.900705E-1	7.492336E-1	8.164031E-1	7.503206E-1	7.846604E-1	8.043225E-1	8.118867E-1	7.301953E-1	7.807561E-1	7.980983E-1	7.777254E-1	7.898894E-1	7.949606E-1	7.680082E-1	7.723344E-1	8.576901E-1	7.903917E-1	7.680843E-1	7.673516E-1	7.818773E-1	7.543130E-1	7.858366E-1	7.998434E-1	7.844765E-1	7.964575E-1	7.802153E-1	8.494941E-1	7.696121E-1	7.463333E-1	7.966173E-1	7.894786E-1	7.658437E-1	7.958943E-1	8.066383E-1	8.086152E-1	7.924161E-1	7.612764E-1	7.772084E-1	7.861266E-1	7.822941E-1	7.613813E-1	8.177229E-1	7.883721E-1	8.295060E-1	7.973352E-1	7.681991E-1	8.174948E-1	7.705641E-1	7.624449E-1	7.893406E-1	7.724462E-1	7.584718E-1	7.800305E-1	8.284946E-1	8.391391E-1	8.247440E-1	7.521900E-1	7.558153E-1	7.710695E-1	8.160602E-1	7.573726E-1	7.986369E-1	7.921918E-1	8.184196E-1	8.128435E-1	7.715629E-1	7.990176E-1	7.707108E-1	8.094564E-1	8.112389E-1	8.072461E-1	7.787017E-1	7.884626E-1	7.723875E-1	8.196688E-1	7.605890E-1	7.577419E-1	8.194138E-1	8.070951E-1	8.136985E-1	8.072805E-1	7.655556E-1	7.578755E-1	7.553018E-1	8.015445E-1	8.005949E-1	7.955756E-1	7.795092E-1	7.824701E-1	7.974709E-1	7.836628E-1	8.382322E-1	7.316485E-1	7.851604E-1	8.536950E-1	7.192512E-1
2.853000E+2	7.047249E-1	6.935498E-1	6.808264E-1	6.738137E-1	6.749236E-1	7.092649E-1	6.866395E-1	6.388986E-1	6.984323E-1	6.944301E-1	6.633701E-1	7.051689E-1	6.264796E-1	6.799381E-1	6.622801E-1	6.908861E-1	7.350875E-1	7.321127E-1	7.227623E-1	6.799358E-1	6.929925E-1	6.868630E-1	6.596351E-1	7.023333E-1	6.728031E-1	6.704341E-1	7.048632E-1	6.547621E-1	6.639964E-1	6.853224E-1	6.511681E-1	6.959728E-1	6.473168E-1	6.962894E-1	7.116591E-1	6.981041E-1	6.720955E-1	7.160537E-1	6.929054E-1	6.689930E-1	6.971780E-1	6.596779E-1	6.474366E-1	6.658423E-1	6.769462E-1	6.947124E-1	6.731999E-1	6.575827E-1	7.042451E-1	6.797304E-1	7.086604E-1	6.630442E-1	7.128203E-1	7.171299E-1	6.708644E-1	6.523877E-1	6.644691E-1	6.976252E-1	6.883510E-1	6.712594E-1	7.088614E-1	6.463529E-1	7.038605E-1	6.739014E-1	7.033847E-1	7.071656E-1	6.672678E-1	6.435184E-1	6.783138E-1	6.678507E-1	6.606416E-1	6.707385E-1	7.209046E-1	6.991980E-1	6.595986E-1	6.972294E-1	6.837271E-1	6.900836E-1	6.571932E-1	6.484252E-1	6.939872E-1	6.802482E-1	6.844479E-1	6.561912E-1	6.735707E-1	6.699867E-1	6.585770E-1	6.802285E-1	6.960946E-1	6.748576E-1	6.604839E-1	7.287525E-1	6.769673E-1	7.452655E-1	6.857389E-1	6.828351E-1	7.135083E-1	6.600974E-1	6.702597E-1	6.994177E-1	7.040593E-1	6.745588E-1	7.114042E-1	7.165340E-1	7.259135E-1	7.035259E-1	6.573884E-1	7.229272E-1	6.748571E-1	6.665565E-1	6.730601E-1	6.963986E-1	6.491669E-1	6.821969E-1	6.949633E-1	7.327638E-1	6.760465E-1	7.088254E-1	6.949471E-1	6.814012E-1	6.813822E-1	7.187987E-1	6.456549E-1	6.923312E-1	6.828417E-1	6.764957E-1	6.529804E-1	6.572192E-1	6.578957E-1	6.485124E-1	6.870583E-1	6.579126E-1	6.744960E-1	7.160687E-1	7.072668E-1	7.281749E-1	6.677602E-1	6.736688E-1	6.620796E-1	7.159383E-1	6.903887E-1	6.862008E-1	6.830092E-1	6.715728E-1	7.021901E-1	7.291930E-1	7.228900E-1	6.708270E-1	6.630331E-1	6.988207E-1	6.964038E-1	7.028827E-1	6.904559E-1	6.782857E-1	6.848850E-1	7.152974E-1	6.942455E-1	6.703289E-1	7.179223E-1	6.880172E-1	6.931522E-1	7.229427E-1	7.293898E-1	6.599489E-1	6.664860E-1	7.363404E-1	6.746607E-1	6.738557E-1	6.898996E-1	7.229416E-1	6.368323E-1	6.845750E-1
2.854020E+2	5.220350E-1	5.142103E-1	5.098434E-1	5.439447E-1	5.147978E-1	5.153300E-1	5.731844E-1	5.175153E-1	5.055077E-1	5.436380E-1	5.037959E-1	5.213117E-1	5.032849E-1	4.854707E-1	5.031581E-1	4.875086E-1	5.390822E-1	5.121763E-1	5.203000E-1	4.695493E-1	5.413626E-1	4.837090E-1	5.218315E-1	5.551390E-1	5.153585E-1	4.615359E-1	4.919178E-1	5.330854E-1	5.202667E-1	5.318788E-1	5.065594E-1	5.221026E-1	5.219852E-1	5.188552E-1	5.365880E-1	4.878600E-1	5.344947E-1	5.175993E-1	5.488845E-1	4.842785E-1	4.972028E-1	4.952607E-1	4.944389E-1	4.983771E-1	5.291828E-1	5.378283E-1	5.050731E-1	4.765271E-1	5.310104E-1	4.824545E-1	5.544948E-1	5.221552E-1	4.959973E-1	5.208770E-1	5.310421E-1	4.793534E-1	5.047894E-1	4.991277E-1	4.735974E-1	5.057178E-1	5.093816E-1	5.332454E-1	5.524072E-1	5.215140E-1	4.776554E-1	4.823004E-1	4.918402E-1	5.189790E-1	5.033506E-1	5.000077E-1	5.180482E-1	5.041999E-1	5.140620E-1	5.163062E-1	4.935028E-1	4.920376E-1	4.845006E-1	5.047780E-1	5.124809E-1	4.763250E-1	5.371884E-1	5.037514E-1	5.191057E-1	5.175564E-1	4.987073E-1	5.409741E-1	4.852709E-1	4.953186E-1	4.819772E-1	4.900921E-1	5.086326E-1	5.513044E-1	5.398474E-1	5.292217E-1	5.080150E-1	4.815916E-1	5.174082E-1	4.902593E-1	4.847102E-1	5.307676E-1	5.186870E-1	5.373281E-1	4.966592E-1	5.348326E-1	5.215702E-1	4.936864E-1	5.061430E-1	5.265914E-1	5.522461E-1	4.940209E-1	5.251496E-1	5.080798E-1	5.058294E-1	4.776281E-1	4.908682E-1	5.229524E-1	5.331935E-1	5.501910E-1	4.958898E-1	5.166789E-1	5.323778E-1	5.274691E-1	5.059099E-1	4.908124E-1	4.741230E-1	5.578419E-1	4.879726E-1	4.992293E-1	4.993001E-1	5.374149E-1	5.115939E-1	4.892180E-1	5.304927E-1	5.297160E-1	5.232320E-1	5.491867E-1	4.928609E-1	4.821565E-1	4.824144E-1	5.509648E-1	5.374238E-1	5.392427E-1	5.242611E-1	5.080715E-1	5.086899E-1	5.408986E-1	5.201915E-1	4.786460E-1	4.871079E-1	5.312266E-1	5.131054E-1	4.907294E-1	4.862458E-1	4.986884E-1	5.199511E-1	5.275342E-1	5.120193E-1	5.392869E-1	5.054622E-1	4.866958E-1	5.030126E-1	5.285983E-1	5.304681E-1	5.448564E-1	5.224428E-1	5.011757E-1	5.253227E-1	5.346818E-1	5.227633E-1	4.850586E-1	4.926211E-1	4.212628E-1
2.855000E+2	3.360146E-1	3.719260E-1	3.302816E-1	3.463792E-1	3.093617E-1	3.644536E-1	3.345597E-1	3.361517E-1	3.408762E-1	3.527744E-1	3.443662E-1	3.391884E-1	3.613146E-1	3.572161E-1	3.486867E-1	3.139678E-1	3.600020E-1	3.292784E-1	3.697220E-1	3.184668E-1	3.218269E-1	3.092558E-1	3.434949E-1	3.227675E-1	3.931798E-1	3.359237E-1	3.528634E-1	3.357382E-1	3.647294E-1	3.474223E-1	3.144480E-1	3.345402E-1	3.403711E-1	3.691564E-1	3.804531E-1	3.358872E-1	3.348510E-1	3.289431E-1	3.182503E-1	3.229014E-1	3.397161E-1	3.340158E-1	3.187373E-1	3.003355E-1	3.524229E-1	3.529188E-1	3.257290E-1	3.155455E-1	3.776256E-1	3.273352E-1	3.383182E-1	3.262842E-1	3.140011E-1	3.457291E-1	3.180401E-1	3.359234E-1	3.488539E-1	3.006518E-1	3.396222E-1	3.402414E-1	3.507057E-1	3.271767E-1	3.454136E-1	3.037887E-1	3.481933E-1	3.225592E-1	3.105699E-1	3.134978E-1	3.243340E-1	3.239073E-1	3.495641E-1	3.233519E-1	3.400966E-1	3.103088E-1	3.382371E-1	3.583787E-1	3.466745E-1	3.328054E-1	3.460075E-1	3.381540E-1	3.343346E-1	3.473656E-1	3.253261E-1	3.132058E-1	3.294850E-1	3.211598E-1	3.249749E-1	3.540222E-1	3.187467E-1	3.263265E-1	3.539020E-1	3.634688E-1	3.440291E-1	3.331491E-1	3.731306E-1	3.294201E-1	3.213269E-1	3.424951E-1	3.062987E-1	3.574984E-1	3.213787E-1	3.525584E-1	3.399347E-1	3.363079E-1	3.373665E-1	3.388773E-1	3.352159E-1	3.611163E-1	3.349743E-1	3.411860E-1	3.537073E-1	3.251092E-1	3.549136E-1	3.130087E-1	3.056582E-1	3.564858E-1	3.623320E-1	3.376478E-1	3.197809E-1	3.373158E-1	3.078231E-1	3.352548E-1	3.322626E-1	3.509325E-1	3.517937E-1	3.068261E-1	3.175569E-1	3.357673E-1	3.366767E-1	3.524295E-1	3.506315E-1	3.564350E-1	3.680646E-1	3.204600E-1	3.312939E-1	3.316740E-1	3.662943E-1	3.783831E-1	3.027089E-1	3.502089E-1	3.321275E-1	3.417762E-1	3.319632E-1	3.187021E-1	3.772495E-1	3.117606E-1	3.461677E-1	3.506831E-1	3.448816E-1	3.436566E-1	3.339345E-1	3.630844E-1	3.423063E-1	3.452436E-1	3.276653E-1	3.409076E-1	3.465275E-1	3.382446E-1	3.370077E-1	3.922156E-1	2.917893E-1	3.696551E-1	3.378195E-1	3.525355E-1	3.370122E-1	3.572974E-1	3.481660E-1	3.187401E-1	3.293707E-1	3.068176E-1	3.405658E-1	3.427986E-1
2.856010E+2	2.891194E-1	2.670254E-1	2.522057E-1	2.311851E-1	2.882048E-1	2.785668E-1	2.606489E-1	2.571424E-1	2.633386E-1	2.874461E-1	2.617238E-1	2.445546E-1	2.907634E-1	2.746912E-1	2.548110E-1	2.628388E-1	2.633153E-1	2.773216E-1	2.765224E-1	2.665651E-1	2.551253E-1	2.584063E-1	2.606068E-1	2.699657E-1	2.881716E-1	2.579147E-1	2.700993E-1	2.728644E-1	2.729943E-1	2.647635E-1	2.657087E-1	2.855976E-1	2.878706E-1	2.808064E-1	2.795540E-1	2.780475E-1	2.524202E-1	2.524243E-1	2.684047E-1	2.717034E-1	2.668692E-1	2.400793E-1	2.378844E-1	2.760368E-1	2.444719E-1	2.532837E-1	2.550300E-1	2.724196E-1	2.657527E-1	2.565850E-1	2.607083E-1	2.750837E-1	2.645661E-1	2.719888E-1	2.442193E-1	2.790642E-1	2.606694E-1	2.659189E-1	2.518283E-1	2.559186E-1	2.780356E-1	2.903305E-1	2.933301E-1	2.805586E-1	2.499798E-1	2.943796E-1	2.611029E-1	2.996649E-1	2.741814E-1	2.566313E-1	2.630586E-1	2.689064E-1	2.780990E-1	2.545306E-1	2.665987E-1	2.349124E-1	2.744798E-1	2.824628E-1	2.558678E-1	2.509134E-1	2.952427E-1	2.664906E-1	2.635393E-1	2.647798E-1	2.697620E-1	2.522088E-1	2.692225E-1	2.887236E-1	2.550364E-1	2.485580E-1	2.615274E-1	2.594812E-1	2.794073E-1	2.761605E-1	2.701918E-1	2.829968E-1	2.709743E-1	2.786421E-1	2.710526E-1	2.656433E-1	2.488769E-1	2.542300E-1	2.798277E-1	2.700093E-1	2.749556E-1	2.908674E-1	2.552208E-1	2.602068E-1	3.126298E-1	2.797592E-1	2.588780E-1	2.626440E-1	2.753185E-1	2.600430E-1	2.595375E-1	2.604762E-1	2.398720E-1	2.757515E-1	2.788531E-1	2.829448E-1	2.732356E-1	2.552296E-1	2.824521E-1	2.622352E-1	2.909997E-1	2.774086E-1	2.908849E-1	2.648714E-1	2.713821E-1	2.914875E-1	2.389602E-1	2.622284E-1	2.650537E-1	2.758087E-1	2.688595E-1	2.888499E-1	2.415557E-1	2.876882E-1	2.384467E-1	2.504624E-1	2.765500E-1	2.692699E-1	3.008254E-1	2.691084E-1	2.841658E-1	2.764409E-1	2.608933E-1	2.462913E-1	2.805209E-1	2.569554E-1	2.555425E-1	2.687061E-1	2.766712E-1	2.845667E-1	2.691088E-1	2.555111E-1	2.685505E-1	2.736209E-1	2.797176E-1	2.615323E-1	2.912118E-1	2.786882E-1	2.904633E-1	2.719890E-1	2.755475E-1	2.795469E-1	2.698526E-1	2.650910E-1	2.601753E-1	2.944870E-1	2.726593E-1	2.446893E-1
2.858030E+2	2.508563E-1	2.491797E-1	2.651338E-1	2.975673E-1	2.892503E-1	2.672754E-1	2.690910E-1	2.842995E-1	2.409530E-1	2.597237E-1	2.753902E-1	2.586599E-1	2.611828E-1	2.438642E-1	2.757490E-1	2.573125E-1	2.617254E-1	2.751780E-1	2.681135E-1	2.611105E-1	2.600428E-1	2.668528E-1	2.623422E-1	2.527388E-1	2.422769E-1	2.538122E-1	2.693871E-1	2.343880E-1	2.724096E-1	2.548064E-1	2.487989E-1	2.546380E-1	2.459662E-1	2.573962E-1	2.498612E-1	2.718107E-1	2.592281E-1	2.763762E-1	2.645988E-1	2.539264E-1	2.624565E-1	2.205855E-1	2.506469E-1	2.607581E-1	2.902046E-1	2.739563E-1	2.822118E-1	2.824173E-1	2.558749E-1	2.485876E-1	2.400721E-1	2.576720E-1	2.587199E-1	2.717804E-1	2.636573E-1	2.515653E-1	2.827954E-1	2.471459E-1	2.816931E-1	2.770548E-1	2.787019E-1	2.734996E-1	2.737443E-1	2.630783E-1	2.478274E-1	2.609481E-1	2.694119E-1	2.780999E-1	2.413051E-1	3.060225E-1	2.612583E-1	2.601719E-1	2.646651E-1	2.797540E-1	2.613461E-1	2.742423E-1	2.797840E-1	2.436632E-1	2.589381E-1	2.413364E-1	2.881291E-1	2.871910E-1	2.586648E-1	2.710971E-1	2.617383E-1	2.622073E-1	2.568876E-1	2.625713E-1	2.911039E-1	2.702922E-1	2.889567E-1	2.665255E-1	2.587533E-1	2.443906E-1	2.535894E-1	2.414518E-1	2.990056E-1	2.669775E-1	2.394914E-1	2.751635E-1	2.637188E-1	2.370265E-1	2.634911E-1	2.644062E-1	2.701327E-1	2.819607E-1	2.576509E-1	2.846301E-1	2.590063E-1	2.650023E-1	2.714201E-1	2.825589E-1	2.481814E-1	2.838684E-1	2.670056E-1	2.739683E-1	2.465928E-1	2.844860E-1	2.599270E-1	2.930462E-1	2.528689E-1	2.768408E-1	2.972833E-1	2.504347E-1	2.565033E-1	2.550956E-1	2.702269E-1	2.989598E-1	2.595680E-1	2.420609E-1	2.689028E-1	2.819898E-1	2.396077E-1	2.692461E-1	2.648920E-1	2.608183E-1	2.582019E-1	2.879799E-1	2.696792E-1	2.664288E-1	2.880973E-1	2.661779E-1	2.851669E-1	2.663724E-1	2.876268E-1	2.835531E-1	2.540728E-1	2.540182E-1	2.795849E-1	2.773756E-1	2.674528E-1	2.762855E-1	2.545717E-1	2.558435E-1	2.753868E-1	2.572966E-1	2.776780E-1	2.654265E-1	2.859828E-1	2.582957E-1	2.703132E-1	2.749948E-1	2.586433E-1	2.652468E-1	2.719439E-1	2.910625E-1	2.738090E-1	2.661126E-1	2.795280E-1	2.632848E-1	2.493774E-1	2.124148E-1
2.860040E+2	4.058060E-1	4.237740E-1	4.174661E-1	3.962970E-1	4.067269E-1	4.207781E-1	4.177911E-1	4.026933E-1	3.923503E-1	3.818601E-1	3.874509E-1	3.720060E-1	4.401487E-1	3.965590E-1	3.994547E-1	3.678541E-1	4.217871E-1	4.182335E-1	4.151478E-1	4.027842E-1	4.098210E-1	3.816523E-1	3.923645E-1	3.907918E-1	4.014372E-1	3.868983E-1	4.244272E-1	3.758161E-1	4.089685E-1	3.999691E-1	3.933116E-1	3.982523E-1	4.093463E-1	4.350640E-1	4.086370E-1	3.993398E-1	3.982663E-1	4.209526E-1	4.031090E-1	3.812645E-1	4.312663E-1	3.987161E-1	3.833301E-1	3.958090E-1	3.998472E-1	4.132713E-1	3.970132E-1	4.122181E-1	4.062709E-1	3.837062E-1	4.421721E-1	3.761423E-1	3.987738E-1	3.724577E-1	3.887430E-1	3.828060E-1	4.143114E-1	4.088923E-1	3.894781E-1	3.622718E-1	3.831809E-1	4.347690E-1	4.211044E-1	4.069835E-1	4.282428E-1	4.052851E-1	3.941815E-1	3.934952E-1	3.894838E-1	3.817672E-1	4.117125E-1	4.163917E-1	4.201974E-1	4.056774E-1	3.968289E-1	3.926573E-1	4.213625E-1	4.125030E-1	4.024044E-1	4.000415E-1	4.056869E-1	4.063729E-1	4.065397E-1	4.291244E-1	3.950241E-1	4.161510E-1	3.573770E-1	4.174949E-1	3.662561E-1	4.029552E-1	3.952758E-1	4.487921E-1	4.283910E-1	4.061080E-1	3.967633E-1	3.776988E-1	4.065744E-1	4.299090E-1	3.932855E-1	3.799438E-1	4.250594E-1	4.323964E-1	4.051754E-1	4.189635E-1	4.126290E-1	4.095256E-1	4.052883E-1	3.895616E-1	3.997615E-1	3.950088E-1	4.169386E-1	4.263848E-1	4.250508E-1	3.945919E-1	4.092321E-1	4.100117E-1	3.912589E-1	4.114390E-1	4.063368E-1	4.126281E-1	3.954566E-1	4.074421E-1	4.073254E-1	4.121937E-1	3.810129E-1	4.166488E-1	3.991509E-1	3.894697E-1	4.330448E-1	4.177429E-1	4.128756E-1	4.162113E-1	4.011003E-1	3.870514E-1	4.321912E-1	4.358621E-1	3.720558E-1	3.953185E-1	3.772481E-1	3.817251E-1	4.536885E-1	3.997847E-1	3.974998E-1	4.039504E-1	4.135977E-1	4.321990E-1	4.002170E-1	4.009939E-1	4.290689E-1	4.120007E-1	4.239480E-1	3.860159E-1	4.094951E-1	4.396155E-1	3.842482E-1	4.141117E-1	4.042335E-1	4.110101E-1	3.904390E-1	4.399510E-1	4.091628E-1	4.007707E-1	4.077140E-1	3.758895E-1	4.164143E-1	4.110234E-1	4.267435E-1	4.023362E-1	3.908618E-1	4.148387E-1	3.699597E-1	3.490937E-1
2.862030E+2	6.196377E-1	5.833061E-1	5.771077E-1	5.873077E-1	5.846400E-1	5.712186E-1	5.965851E-1	5.536590E-1	5.794913E-1	5.525409E-1	6.097418E-1	5.968375E-1	5.426559E-1	5.895903E-1	5.557010E-1	5.802916E-1	6.112758E-1	5.707375E-1	5.899277E-1	5.946802E-1	5.840788E-1	5.727452E-1	5.729188E-1	5.636856E-1	5.888955E-1	5.205139E-1	5.888989E-1	5.535419E-1	6.233021E-1	5.212140E-1	5.945289E-1	5.607236E-1	5.619922E-1	5.799092E-1	6.005225E-1	5.544023E-1	5.631120E-1	5.916809E-1	5.649969E-1	5.713957E-1	5.792663E-1	6.132829E-1	5.918983E-1	5.546716E-1	5.790995E-1	5.960283E-1	5.926475E-1	5.754461E-1	5.780824E-1	5.833511E-1	6.148813E-1	5.907099E-1	5.755473E-1	5.888323E-1	5.647998E-1	5.709600E-1	5.717332E-1	5.075954E-1	5.534418E-1	5.779178E-1	5.547031E-1	5.501713E-1	5.976987E-1	5.925395E-1	6.362837E-1	5.745286E-1	5.712841E-1	5.684101E-1	5.725815E-1	5.800144E-1	5.918014E-1	5.590934E-1	5.871750E-1	5.798057E-1	5.643620E-1	5.724148E-1	6.066331E-1	6.137230E-1	6.023030E-1	5.767331E-1	6.106833E-1	5.980921E-1	5.778309E-1	5.635083E-1	5.869190E-1	5.837142E-1	5.756916E-1	6.046396E-1	5.757846E-1	5.857214E-1	6.109346E-1	5.501297E-1	5.946476E-1	5.765106E-1	5.526971E-1	5.972993E-1	6.041942E-1	5.681364E-1	5.875790E-1	5.997927E-1	5.749260E-1	5.901425E-1	6.017507E-1	5.931652E-1	5.371204E-1	6.027133E-1	5.669829E-1	5.616813E-1	5.742960E-1	5.707914E-1	6.097700E-1	5.604215E-1	5.703070E-1	5.785343E-1	5.724033E-1	6.187579E-1	6.189558E-1	6.284762E-1	5.878605E-1	5.984357E-1	5.568772E-1	6.093716E-1	5.890350E-1	6.511274E-1	5.509504E-1	5.988521E-1	5.891499E-1	6.164765E-1	6.304555E-1	5.577856E-1	5.841657E-1	6.091638E-1	5.900981E-1	5.809010E-1	5.656264E-1	5.494076E-1	5.788477E-1	6.241808E-1	6.219275E-1	5.658887E-1	5.859172E-1	5.724748E-1	5.972192E-1	5.742898E-1	5.798181E-1	6.051523E-1	6.010320E-1	5.347590E-1	5.680746E-1	5.801190E-1	5.990440E-1	6.078948E-1	6.008128E-1	5.598624E-1	5.493458E-1	5.653502E-1	5.969059E-1	5.652621E-1	5.934238E-1	6.238061E-1	5.900147E-1	6.087932E-1	5.810078E-1	6.259153E-1	5.595543E-1	5.523844E-1	5.780961E-1	5.875323E-1	5.888310E-1	5.815537E-1	5.604849E-1	5.660915E-1
2.864160E+2	8.474181E-1	8.018260E-1	8.018462E-1	8.507604E-1	8.510058E-1	8.422996E-1	8.593330E-1	7.875190E-1	8.678777E-1	8.446149E-1	7.869956E-1	8.137170E-1	8.628452E-1	8.531220E-1	7.870097E-1	8.459727E-1	7.866204E-1	8.084545E-1	8.850716E-1	8.753206E-1	7.683372E-1	8.277121E-1	8.575402E-1	7.918162E-1	8.012168E-1	7.918916E-1	8.305679E-1	8.450672E-1	8.691211E-1	8.720035E-1	7.878528E-1	8.233053E-1	8.370893E-1	9.024691E-1	8.458633E-1	8.390395E-1	7.889249E-1	8.382123E-1	8.175260E-1	7.832451E-1	7.774827E-1	8.391818E-1	7.858296E-1	8.384237E-1	8.768342E-1	8.252866E-1	8.906590E-1	7.931865E-1	8.488907E-1	8.140606E-1	8.257438E-1	7.557300E-1	7.927247E-1	8.383305E-1	8.609395E-1	8.117761E-1	8.101809E-1	8.218557E-1	8.497661E-1	7.889180E-1	7.770095E-1	8.126530E-1	8.858923E-1	8.308012E-1	8.360447E-1	8.330202E-1	8.099211E-1	8.237519E-1	8.428429E-1	8.152504E-1	8.471408E-1	8.115767E-1	8.684495E-1	8.096290E-1	8.679137E-1	8.157973E-1	8.562817E-1	7.876847E-1	8.382658E-1	8.199430E-1	8.072711E-1	8.290038E-1	8.667777E-1	7.982917E-1	8.436381E-1	8.135134E-1	7.959037E-1	8.419281E-1	8.515206E-1	8.260241E-1	7.985752E-1	8.516686E-1	8.324065E-1	8.201746E-1	8.200925E-1	8.220417E-1	8.962465E-1	8.210191E-1	8.138348E-1	8.100389E-1	8.405572E-1	8.101439E-1	7.964162E-1	8.202369E-1	8.373012E-1	8.584503E-1	8.034793E-1	8.167306E-1	8.236971E-1	8.229264E-1	8.489739E-1	8.289401E-1	8.715304E-1	7.988291E-1	8.710608E-1	7.549132E-1	8.249629E-1	8.758101E-1	8.635130E-1	8.586084E-1	8.270439E-1	8.425447E-1	7.806925E-1	7.925985E-1	8.362613E-1	8.366196E-1	8.324443E-1	7.969192E-1	8.532810E-1	8.546795E-1	8.036122E-1	8.180305E-1	8.146241E-1	8.460502E-1	8.845547E-1	8.979057E-1	8.375907E-1	8.692210E-1	8.447589E-1	8.395404E-1	8.636399E-1	8.350156E-1	8.432788E-1	8.018500E-1	8.643451E-1	8.458203E-1	8.376411E-1	8.071638E-1	8.189541E-1	8.015328E-1	8.339213E-1	8.653348E-1	8.452932E-1	8.174827E-1	8.407455E-1	8.062633E-1	8.527274E-1	8.128144E-1	8.083374E-1	8.307756E-1	8.417708E-1	8.627426E-1	8.432075E-1	7.973964E-1	8.387161E-1	8.214350E-1	8.289821E-1	8.197589E-1	8.251206E-1	8.075746E-1	8.406624E-1	7.989090E-1
2.866160E+2	8.432248E-1	8.021875E-1	8.303685E-1	8.825088E-1	8.540361E-1	8.965586E-1	9.025186E-1	8.965320E-1	8.652787E-1	8.615740E-1	8.282518E-1	8.337977E-1	8.480816E-1	8.474017E-1	8.618661E-1	8.327313E-1	8.375450E-1	8.759018E-1	8.246104E-1	8.399549E-1	8.277301E-1	8.612348E-1	8.387958E-1	7.866951E-1	8.721807E-1	8.696913E-1	8.604254E-1	8.540445E-1	8.444607E-1	8.631941E-1	8.428436E-1	8.342665E-1	8.425975E-1	8.635461E-1	8.976663E-1	8.449587E-1	8.431745E-1	8.318999E-1	8.604957E-1	8.287714E-1	8.656756E-1	8.210205E-1	8.282466E-1	8.255652E-1	9.092361E-1	8.776947E-1	8.754185E-1	8.559470E-1	9.098774E-1	8.168132E-1	9.001094E-1	8.782867E-1	8.568480E-1	9.013701E-1	8.489465E-1	8.443850E-1	8.170074E-1	8.440786E-1	8.752377E-1	8.458661E-1	8.624595E-1	8.382205E-1	8.409186E-1	8.632948E-1	9.191207E-1	8.475767E-1	8.325683E-1	8.881721E-1	8.015708E-1	8.508191E-1	8.503121E-1	8.045746E-1	8.456166E-1	8.497023E-1	8.189375E-1	7.963100E-1	8.607236E-1	8.515143E-1	8.577870E-1	7.957694E-1	8.619253E-1	8.447111E-1	8.386653E-1	8.187073E-1	8.007727E-1	8.248888E-1	8.513717E-1	8.346003E-1	8.263304E-1	8.534405E-1	8.810093E-1	8.164062E-1	8.559505E-1	8.599373E-1	8.986961E-1	7.931419E-1	9.111487E-1	8.414959E-1	7.987073E-1	9.161987E-1	9.045020E-1	8.403625E-1	7.895365E-1	8.100424E-1	7.982939E-1	8.310659E-1	8.300398E-1	7.773612E-1	8.294849E-1	8.998112E-1	8.577912E-1	7.940367E-1	8.467386E-1	8.502289E-1	8.872323E-1	8.588103E-1	8.550588E-1	8.403041E-1	8.402375E-1	8.638231E-1	8.208926E-1	8.447749E-1	8.815325E-1	8.235664E-1	8.321606E-1	8.208362E-1	8.320895E-1	8.336487E-1	8.708685E-1	8.813051E-1	8.554188E-1	8.370056E-1	8.256918E-1	8.758371E-1	8.160624E-1	8.177694E-1	8.259046E-1	8.551159E-1	8.759489E-1	8.305129E-1	8.672925E-1	8.478637E-1	8.508189E-1	8.339724E-1	8.483225E-1	8.618091E-1	8.784119E-1	8.362484E-1	8.652330E-1	8.351732E-1	8.830138E-1	8.750232E-1	8.647694E-1	8.898447E-1	8.522210E-1	8.002587E-1	8.077857E-1	8.562446E-1	8.531447E-1	8.708393E-1	8.826840E-1	8.573797E-1	8.445723E-1	8.916478E-1	8.482388E-1	8.391683E-1	8.671721E-1	8.289529E-1	8.529660E-1	8.308698E-1	8.484539E-1	8.063458E-1
2.868020E+2	1.039813E+0	1.008804E+0	9.496672E-1	9.908771E-1	1.050967E+0	1.052838E+0	1.039090E+0	1.051194E+0	9.865953E-1	9.386529E-1	1.045169E+0	9.877699E-1	1.011509E+0	1.016801E+0	9.858887E-1	9.874921E-1	1.034041E+0	1.020460E+0	1.066522E+0	1.000828E+0	1.039755E+0	1.040029E+0	9.710600E-1	1.010000E+0	9.799774E-1	1.002821E+0	1.020148E+0	1.050493E+0	1.073855E+0	9.829772E-1	9.941357E-1	1.013102E+0	1.012185E+0	1.012385E+0	9.888452E-1	1.039028E+0	9.635282E-1	1.040159E+0	1.015423E+0	9.832826E-1	1.008647E+0	9.573335E-1	1.005877E+0	1.074813E+0	1.041790E+0	1.001494E+0	1.021100E+0	9.537866E-1	1.011228E+0	9.859693E-1	1.031762E+0	9.646906E-1	1.033692E+0	1.014473E+0	1.039475E+0	9.826370E-1	9.645891E-1	9.988238E-1	1.014957E+0	1.016948E+0	9.663203E-1	9.826954E-1	1.026618E+0	1.000678E+0	1.029015E+0	1.059337E+0	1.030094E+0	9.953474E-1	9.783586E-1	1.012865E+0	1.038460E+0	9.672707E-1	9.939445E-1	1.025903E+0	9.863521E-1	9.522539E-1	1.009097E+0	1.006114E+0	1.023313E+0	9.888799E-1	1.065228E+0	9.810857E-1	9.763822E-1	1.008194E+0	9.998708E-1	1.001865E+0	9.991211E-1	1.013757E+0	1.055762E+0	9.927402E-1	1.001547E+0	1.005221E+0	1.063032E+0	1.051138E+0	1.042723E+0	1.002680E+0	1.057671E+0	9.861411E-1	1.005853E+0	1.026843E+0	1.086484E+0	9.603353E-1	1.004213E+0	9.863847E-1	9.924238E-1	1.037202E+0	9.453738E-1	9.500408E-1	9.950919E-1	1.010917E+0	1.039094E+0	9.931752E-1	1.017939E+0	1.013228E+0	1.042457E+0	9.434032E-1	9.916350E-1	1.073381E+0	1.029027E+0	1.016445E+0	1.011792E+0	1.019052E+0	1.039533E+0	9.846202E-1	9.940319E-1	1.041539E+0	9.873622E-1	1.013741E+0	1.002771E+0	1.005266E+0	1.035374E+0	1.009268E+0	9.760729E-1	9.890882E-1	1.049420E+0	1.027248E+0	1.008878E+0	1.020449E+0	9.932714E-1	1.026897E+0	1.041985E+0	1.017298E+0	1.011195E+0	9.790081E-1	1.104721E+0	1.049939E+0	9.985753E-1	9.504422E-1	1.027820E+0	1.000976E+0	1.007542E+0	1.019576E+0	1.034575E+0	1.013644E+0	9.935313E-1	9.757254E-1	9.994362E-1	9.615048E-1	9.834071E-1	9.645450E-1	1.052139E+0	1.064657E+0	1.007402E+0	1.025354E+0	9.776352E-1	9.836662E-1	1.026020E+0	9.856479E-1	1.054764E+0	9.991490E-1	1.002914E+0	9.997998E-1
2.870150E+2	1.016952E+0	9.251424E-1	9.161646E-1	9.129617E-1	9.511572E-1	9.473918E-1	9.411982E-1	9.420173E-1	9.774661E-1	9.305547E-1	9.328216E-1	9.165648E-1	9.282032E-1	9.540531E-1	9.357330E-1	9.053403E-1	9.320979E-1	8.810238E-1	9.796711E-1	9.247553E-1	8.780811E-1	9.049189E-1	9.106930E-1	8.699649E-1	9.835774E-1	9.350561E-1	9.412887E-1	9.313198E-1	9.207148E-1	9.384265E-1	9.034389E-1	9.264777E-1	9.022605E-1	9.178114E-1	9.186781E-1	9.295077E-1	9.429762E-1	9.764440E-1	9.300807E-1	8.954726E-1	9.197822E-1	9.457863E-1	9.313316E-1	8.619738E-1	9.344508E-1	9.762241E-1	9.549245E-1	9.183004E-1	9.624023E-1	9.382333E-1	9.677088E-1	9.049390E-1	9.043930E-1	9.563663E-1	9.415986E-1	8.900691E-1	9.259606E-1	9.365374E-1	8.530761E-1	9.184648E-1	9.781413E-1	9.173365E-1	9.400784E-1	9.552813E-1	9.635394E-1	9.706451E-1	8.991708E-1	9.681611E-1	9.608631E-1	9.597290E-1	8.737061E-1	9.186663E-1	8.919012E-1	9.409547E-1	9.264928E-1	8.928432E-1	8.598028E-1	8.997837E-1	9.494264E-1	8.400434E-1	9.217629E-1	9.151844E-1	8.672249E-1	9.587163E-1	9.051162E-1	9.209876E-1	1.000103E+0	9.308602E-1	9.446762E-1	9.265709E-1	8.994842E-1	9.645566E-1	9.258701E-1	9.200806E-1	8.797114E-1	8.706529E-1	9.122736E-1	9.274361E-1	8.916046E-1	9.186557E-1	9.361232E-1	8.657030E-1	9.299270E-1	9.377587E-1	9.070277E-1	9.170747E-1	8.938724E-1	8.738529E-1	9.277418E-1	9.295859E-1	9.586874E-1	9.113881E-1	9.048080E-1	8.974975E-1	9.265796E-1	9.418621E-1	9.211255E-1	9.285452E-1	9.345421E-1	9.075137E-1	8.697955E-1	9.213019E-1	9.617175E-1	9.183979E-1	9.515678E-1	9.102423E-1	9.288924E-1	9.193509E-1	9.276500E-1	9.906541E-1	9.099314E-1	9.526423E-1	9.794287E-1	9.169600E-1	9.178860E-1	9.314952E-1	9.344015E-1	9.269961E-1	9.147784E-1	9.047186E-1	9.388534E-1	9.620425E-1	9.445627E-1	9.186722E-1	9.315367E-1	9.545491E-1	9.289597E-1	9.095907E-1	8.858063E-1	9.161429E-1	9.719396E-1	8.928623E-1	9.523456E-1	9.028301E-1	9.412456E-1	8.680448E-1	9.394498E-1	8.971034E-1	9.043808E-1	8.882653E-1	9.551653E-1	9.012133E-1	9.318728E-1	9.410417E-1	9.260369E-1	9.019458E-1	9.443081E-1	8.696581E-1	9.385542E-1	9.666822E-1	9.500467E-1	7.764169E-1
2.872120E+2	7.914261E-1	7.423900E-1	7.176560E-1	6.872231E-1	7.075637E-1	7.631573E-1	7.369979E-1	7.589734E-1	7.069065E-1	7.559870E-1	7.227838E-1	6.940775E-1	7.550524E-1	7.491885E-1	7.034326E-1	7.239434E-1	7.129063E-1	6.737725E-1	7.179754E-1	7.376452E-1	6.984541E-1	7.135867E-1	6.810505E-1	6.784377E-1	7.451271E-1	6.850568E-1	6.790361E-1	7.118784E-1	7.633068E-1	7.202177E-1	7.293804E-1	7.184061E-1	7.361142E-1	7.464369E-1	7.556479E-1	7.350204E-1	7.242365E-1	7.030116E-1	7.150910E-1	7.180090E-1	7.465783E-1	6.766192E-1	7.158869E-1	6.858278E-1	7.581442E-1	7.090325E-1	7.391064E-1	6.861680E-1	7.372679E-1	7.666475E-1	6.879642E-1	7.083437E-1	7.422624E-1	7.604625E-1	7.282355E-1	6.897585E-1	6.924967E-1	7.213127E-1	7.055507E-1	7.105146E-1	7.553445E-1	7.082830E-1	6.989941E-1	7.384852E-1	7.552360E-1	6.799906E-1	7.518626E-1	7.286197E-1	7.100248E-1	7.553478E-1	6.903273E-1	7.120579E-1	7.802556E-1	7.058417E-1	7.238090E-1	6.979954E-1	7.103496E-1	7.252509E-1	7.394805E-1	7.293703E-1	7.022188E-1	6.998713E-1	7.267338E-1	7.162553E-1	6.897115E-1	6.921036E-1	7.378698E-1	7.051522E-1	6.972676E-1	6.869121E-1	7.421149E-1	7.291645E-1	7.401630E-1	7.441118E-1	7.317041E-1	6.751530E-1	7.371424E-1	7.863914E-1	7.592987E-1	7.355430E-1	7.591751E-1	7.392698E-1	7.170724E-1	6.888665E-1	7.073993E-1	7.510896E-1	6.859017E-1	7.357163E-1	7.310602E-1	6.979228E-1	7.500254E-1	6.727389E-1	7.337018E-1	7.089705E-1	7.208838E-1	7.002493E-1	6.903054E-1	7.169980E-1	6.775015E-1	6.943593E-1	7.466724E-1	7.393022E-1	7.783287E-1	6.892120E-1	7.251321E-1	7.084435E-1	7.163469E-1	7.183830E-1	7.376356E-1	7.332144E-1	7.205081E-1	7.723275E-1	7.096697E-1	7.486625E-1	7.106129E-1	7.287886E-1	7.076990E-1	7.350099E-1	7.056846E-1	6.735034E-1	7.633931E-1	7.555477E-1	7.747477E-1	7.520501E-1	7.478779E-1	6.983454E-1	7.358865E-1	6.916477E-1	7.493944E-1	7.341149E-1	7.552705E-1	7.495635E-1	7.514663E-1	7.050487E-1	7.158205E-1	7.218828E-1	7.114363E-1	7.160152E-1	7.107277E-1	7.341215E-1	7.449842E-1	6.943002E-1	7.697175E-1	7.822416E-1	7.093106E-1	7.652318E-1	7.663045E-1	7.424603E-1	7.767852E-1	7.542057E-1	6.943658E-1	7.066840E-1
2.874030E+2	6.246091E-1	6.826634E-1	6.468984E-1	6.698626E-1	6.951265E-1	6.383203E-1	7.035126E-1	6.926741E-1	6.557826E-1	6.653450E-1	6.420062E-1	6.122324E-1	6.710693E-1	6.002553E-1	6.851760E-1	6.471842E-1	6.819244E-1	6.654394E-1	6.944072E-1	6.842774E-1	6.432590E-1	6.551844E-1	6.795219E-1	6.461989E-1	6.789000E-1	6.783070E-1	6.425695E-1	6.217989E-1	6.670286E-1	6.657945E-1	6.313058E-1	6.850594E-1	6.697150E-1	6.771973E-1	6.673576E-1	6.727762E-1	7.092837E-1	6.513035E-1	6.714086E-1	6.434147E-1	6.546423E-1	6.645458E-1	6.387469E-1	6.224546E-1	6.471910E-1	6.323411E-1	6.629482E-1	6.377702E-1	6.232615E-1	6.631372E-1	6.917835E-1	6.411753E-1	6.593251E-1	6.809835E-1	6.440875E-1	6.595268E-1	6.443154E-1	6.791375E-1	6.743436E-1	6.796918E-1	6.227265E-1	6.619092E-1	6.722226E-1	6.156092E-1	7.023584E-1	6.316949E-1	6.350317E-1	6.610929E-1	6.967078E-1	6.515385E-1	6.369940E-1	5.937610E-1	6.911903E-1	6.831454E-1	6.556522E-1	6.663082E-1	6.877078E-1	6.502850E-1	6.789266E-1	6.455512E-1	6.755449E-1	6.593506E-1	6.873941E-1	6.427013E-1	6.606580E-1	6.914124E-1	6.795495E-1	6.300369E-1	6.568212E-1	6.530689E-1	6.828572E-1	6.683631E-1	6.222918E-1	6.752536E-1	6.593352E-1	6.654341E-1	6.759370E-1	6.674688E-1	6.664862E-1	6.608164E-1	6.451938E-1	6.887651E-1	6.183522E-1	6.174058E-1	6.872799E-1	6.522112E-1	6.493064E-1	6.451729E-1	6.866938E-1	6.681181E-1	6.615754E-1	6.402537E-1	6.534825E-1	6.438653E-1	6.539931E-1	6.335973E-1	6.624488E-1	6.862983E-1	6.671433E-1	6.531772E-1	6.615008E-1	6.064661E-1	6.914753E-1	6.776130E-1	6.934310E-1	6.558522E-1	6.491335E-1	6.692070E-1	6.587800E-1	6.647030E-1	6.653697E-1	6.077766E-1	6.675688E-1	6.561488E-1	6.551437E-1	6.503368E-1	6.465127E-1	7.110924E-1	6.633553E-1	6.642825E-1	6.637139E-1	6.812056E-1	6.731690E-1	6.733476E-1	7.190130E-1	6.736994E-1	6.285866E-1	7.317472E-1	6.064417E-1	6.630381E-1	6.677987E-1	6.536923E-1	7.196755E-1	6.465279E-1	6.243420E-1	6.472434E-1	6.328792E-1	6.314015E-1	6.604240E-1	6.792583E-1	6.711198E-1	6.943650E-1	6.979760E-1	6.573493E-1	6.768956E-1	6.648823E-1	6.798479E-1	6.236524E-1	6.910900E-1	6.899742E-1	6.727860E-1	6.947319E-1
2.876170E+2	5.120214E-1	5.357098E-1	5.408982E-1	5.252867E-1	5.393785E-1	5.055171E-1	5.093917E-1	5.241364E-1	5.001686E-1	5.142331E-1	5.048864E-1	4.789994E-1	4.835375E-1	5.414409E-1	5.040957E-1	4.797739E-1	5.081597E-1	4.936343E-1	5.172925E-1	5.414184E-1	4.774278E-1	4.922814E-1	5.002681E-1	5.294508E-1	5.053561E-1	4.873947E-1	5.065050E-1	4.682361E-1	5.187844E-1	4.688458E-1	5.106350E-1	5.043413E-1	5.481562E-1	5.234939E-1	5.252252E-1	5.224934E-1	5.099672E-1	5.030997E-1	5.261536E-1	5.051482E-1	4.911632E-1	4.594116E-1	4.922852E-1	4.755468E-1	5.450247E-1	5.040607E-1	5.282362E-1	4.941604E-1	5.215472E-1	4.940154E-1	5.356222E-1	5.257953E-1	4.825987E-1	4.978687E-1	5.002331E-1	4.788053E-1	5.100440E-1	4.888575E-1	4.933615E-1	4.872468E-1	5.241560E-1	4.993085E-1	4.879973E-1	5.177970E-1	5.136789E-1	5.085005E-1	4.768436E-1	4.792594E-1	5.148319E-1	5.212685E-1	5.172167E-1	4.728205E-1	5.095979E-1	4.755002E-1	5.366389E-1	5.166447E-1	5.071236E-1	5.393623E-1	5.379993E-1	4.993768E-1	5.532636E-1	4.970650E-1	4.849702E-1	5.058178E-1	4.930595E-1	5.164428E-1	5.039273E-1	5.658335E-1	5.301225E-1	5.036624E-1	4.720843E-1	5.286740E-1	5.119417E-1	5.386319E-1	5.350698E-1	4.624742E-1	5.239600E-1	5.128510E-1	4.896262E-1	4.858409E-1	5.238856E-1	5.016324E-1	4.692748E-1	4.663170E-1	5.300441E-1	5.470403E-1	5.406376E-1	5.056906E-1	5.074856E-1	5.418988E-1	5.129189E-1	4.829562E-1	5.259627E-1	5.230007E-1	5.176288E-1	5.286520E-1	5.115151E-1	5.298885E-1	5.294564E-1	5.060521E-1	5.176187E-1	5.184365E-1	5.227881E-1	5.161159E-1	5.464749E-1	5.316024E-1	5.019081E-1	4.928515E-1	4.977982E-1	5.125156E-1	5.015988E-1	5.162186E-1	5.020990E-1	5.267367E-1	4.930229E-1	5.201753E-1	5.217698E-1	5.488950E-1	4.575094E-1	5.342617E-1	5.434750E-1	5.192936E-1	5.240236E-1	5.021314E-1	5.855590E-1	4.862000E-1	5.191195E-1	4.843487E-1	5.042039E-1	5.387270E-1	5.308964E-1	4.987322E-1	4.989382E-1	5.161149E-1	5.185189E-1	4.973912E-1	4.847721E-1	5.093071E-1	5.120784E-1	5.202398E-1	5.071095E-1	5.213256E-1	4.893361E-1	5.123413E-1	5.284565E-1	5.112534E-1	5.040966E-1	5.127057E-1	5.795560E-1	5.246106E-1	5.379357E-1	5.184901E-1
2.878020E+2	3.664606E-1	3.621946E-1	4.006367E-1	3.914910E-1	3.705820E-1	3.761357E-1	3.821248E-1	3.687050E-1	3.963788E-1	3.847153E-1	3.720051E-1	3.675648E-1	3.668114E-1	3.966166E-1	3.749100E-1	3.868586E-1	3.605879E-1	4.274050E-1	3.886773E-1	4.060980E-1	3.740713E-1	3.645258E-1	3.831846E-1	3.843469E-1	3.773018E-1	3.567234E-1	3.701753E-1	3.575749E-1	3.678129E-1	3.912459E-1	3.263103E-1	3.818915E-1	4.171514E-1	3.848820E-1	3.948282E-1	3.406314E-1	3.979915E-1	3.665886E-1	3.792283E-1	3.646730E-1	3.949480E-1	3.655463E-1	3.893195E-1	3.890872E-1	3.843112E-1	3.708655E-1	3.786428E-1	3.448625E-1	4.107145E-1	4.007664E-1	3.711216E-1	3.862957E-1	3.480527E-1	3.996619E-1	3.590983E-1	3.664708E-1	3.681685E-1	3.476616E-1	4.064696E-1	3.718100E-1	3.968444E-1	3.800661E-1	3.425246E-1	3.551521E-1	3.877822E-1	3.775443E-1	3.830938E-1	3.882464E-1	3.630432E-1	3.587254E-1	3.916929E-1	3.584787E-1	3.847743E-1	3.925520E-1	3.800048E-1	3.916831E-1	4.161559E-1	3.665539E-1	3.860842E-1	3.572964E-1	3.781592E-1	3.649737E-1	4.094944E-1	4.016668E-1	3.747649E-1	3.890955E-1	3.582675E-1	3.559454E-1	4.051082E-1	3.699809E-1	3.789276E-1	3.889476E-1	4.051191E-1	4.005633E-1	3.681623E-1	3.604307E-1	3.783126E-1	3.943412E-1	3.598366E-1	3.483560E-1	3.874370E-1	3.426644E-1	3.553012E-1	3.648288E-1	3.689715E-1	3.773846E-1	3.549079E-1	3.506461E-1	3.819696E-1	3.888405E-1	3.612962E-1	3.454596E-1	3.590348E-1	3.531124E-1	3.599366E-1	3.738655E-1	4.001564E-1	4.076942E-1	3.752441E-1	3.652932E-1	3.740286E-1	3.891946E-1	3.658413E-1	3.854198E-1	3.776725E-1	3.812396E-1	3.689547E-1	3.670956E-1	4.100948E-1	3.639757E-1	3.553144E-1	3.804921E-1	3.576197E-1	3.682012E-1	3.695185E-1	3.678557E-1	3.849362E-1	3.707171E-1	3.861758E-1	4.104042E-1	3.791069E-1	3.687872E-1	4.074729E-1	3.801342E-1	3.647280E-1	4.148869E-1	4.116680E-1	3.566240E-1	3.635097E-1	3.927635E-1	3.901006E-1	3.856631E-1	3.668690E-1	3.892908E-1	3.727156E-1	3.711381E-1	3.626852E-1	4.095619E-1	3.426515E-1	3.812595E-1	4.209134E-1	3.582707E-1	3.707014E-1	3.697943E-1	3.543615E-1	3.983972E-1	3.791508E-1	3.857706E-1	3.610550E-1	3.379320E-1	4.143790E-1	2.997749E-1
2.880040E+2	3.583823E-1	3.862163E-1	3.559320E-1	3.552974E-1	4.121380E-1	3.787239E-1	3.797248E-1	3.539091E-1	3.626807E-1	3.602213E-1	3.551848E-1	3.662756E-1	3.357307E-1	3.606221E-1	3.701074E-1	3.645018E-1	3.889128E-1	3.693782E-1	3.603149E-1	3.544218E-1	3.600964E-1	3.884522E-1	3.923623E-1	3.629799E-1	3.482916E-1	3.782019E-1	3.614441E-1	3.575859E-1	3.673898E-1	3.664252E-1	3.436001E-1	3.248581E-1	3.662357E-1	3.566282E-1	3.774924E-1	3.659961E-1	3.688849E-1	3.433475E-1	3.623964E-1	3.617739E-1	3.626705E-1	3.800257E-1	3.570908E-1	3.577985E-1	3.595836E-1	3.688553E-1	3.913477E-1	3.512546E-1	3.455377E-1	3.406407E-1	3.575240E-1	3.339180E-1	3.768617E-1	3.620684E-1	3.625815E-1	3.680034E-1	3.554904E-1	3.461943E-1	3.824682E-1	3.707643E-1	3.838975E-1	3.699284E-1	3.681821E-1	3.871526E-1	3.782939E-1	3.664051E-1	3.837787E-1	3.354650E-1	3.609885E-1	3.733773E-1	3.932976E-1	3.547514E-1	3.597702E-1	3.828874E-1	3.518547E-1	3.813043E-1	3.824041E-1	3.504419E-1	3.625559E-1	4.008420E-1	3.989053E-1	3.880937E-1	3.837422E-1	3.344577E-1	3.334709E-1	3.643109E-1	3.603692E-1	4.026776E-1	4.065815E-1	3.326689E-1	3.645462E-1	3.876057E-1	3.838990E-1	3.646346E-1	3.765955E-1	3.501574E-1	3.543659E-1	3.859033E-1	3.657735E-1	3.480462E-1	4.063905E-1	3.969950E-1	3.640709E-1	3.614597E-1	3.657384E-1	3.729341E-1	3.620612E-1	3.958857E-1	3.782053E-1	3.433884E-1	3.671362E-1	3.569354E-1	3.793217E-1	3.733222E-1	3.303251E-1	3.955450E-1	3.664721E-1	3.476401E-1	3.891905E-1	3.838308E-1	3.622549E-1	3.534749E-1	3.986047E-1	3.778658E-1	3.877279E-1	3.651808E-1	3.697701E-1	3.642448E-1	3.612359E-1	3.601582E-1	3.549655E-1	3.803367E-1	3.576607E-1	4.127212E-1	3.637739E-1	3.876871E-1	3.809305E-1	3.891333E-1	3.765344E-1	3.739969E-1	3.734388E-1	3.515933E-1	3.902251E-1	3.694814E-1	3.799476E-1	3.609342E-1	4.075847E-1	3.282431E-1	3.735858E-1	3.926398E-1	3.884785E-1	3.839390E-1	3.614433E-1	4.018690E-1	3.926947E-1	3.817119E-1	3.770538E-1	3.524503E-1	3.631830E-1	3.600438E-1	4.126452E-1	3.873916E-1	3.971179E-1	3.906842E-1	3.727720E-1	3.496023E-1	3.778524E-1	3.787447E-1	3.829528E-1	3.901376E-1	4.022913E-1	3.429073E-1
2.882060E+2	4.921621E-1	4.590333E-1	4.950845E-1	4.749652E-1	4.983743E-1	4.454449E-1	4.967658E-1	4.628232E-1	4.801352E-1	4.532690E-1	4.850498E-1	4.609357E-1	4.806014E-1	4.718813E-1	4.985899E-1	4.947789E-1	5.230765E-1	4.769397E-1	4.803777E-1	4.795668E-1	4.923640E-1	4.848935E-1	4.632289E-1	4.742034E-1	4.667971E-1	4.683496E-1	4.835669E-1	4.771173E-1	5.107989E-1	4.795873E-1	4.707676E-1	4.849347E-1	4.944578E-1	4.848026E-1	4.736823E-1	4.975362E-1	4.895511E-1	4.982165E-1	4.649970E-1	4.967858E-1	4.579557E-1	4.898786E-1	5.004059E-1	4.871553E-1	4.717492E-1	4.976451E-1	5.153258E-1	4.713443E-1	4.861437E-1	4.873463E-1	5.180688E-1	4.796721E-1	4.919609E-1	4.863066E-1	5.055198E-1	4.641861E-1	4.862783E-1	4.676508E-1	4.966895E-1	4.586971E-1	4.835139E-1	4.905813E-1	5.005392E-1	4.950608E-1	5.086136E-1	4.941902E-1	4.480609E-1	5.009942E-1	4.889208E-1	4.860369E-1	4.967861E-1	4.643993E-1	5.158294E-1	4.586248E-1	5.013889E-1	4.962887E-1	5.203623E-1	5.104055E-1	4.756385E-1	4.774348E-1	5.286800E-1	4.887817E-1	4.605863E-1	4.731900E-1	4.701828E-1	5.269713E-1	4.876963E-1	4.570501E-1	5.111504E-1	4.670661E-1	5.017518E-1	5.088936E-1	4.999422E-1	4.914225E-1	5.063770E-1	4.748195E-1	5.141063E-1	4.694136E-1	4.970796E-1	4.795782E-1	5.105801E-1	4.806969E-1	4.598326E-1	4.904851E-1	4.935873E-1	4.710194E-1	4.738040E-1	4.800169E-1	4.972626E-1	5.143012E-1	4.692806E-1	4.810395E-1	4.620639E-1	4.507377E-1	4.795452E-1	4.885087E-1	4.794502E-1	4.797340E-1	4.854438E-1	4.944294E-1	5.008922E-1	4.754990E-1	4.580073E-1	5.111397E-1	4.613416E-1	4.734789E-1	5.102091E-1	4.941251E-1	4.835160E-1	5.179608E-1	4.885709E-1	5.065355E-1	4.815825E-1	4.592870E-1	4.973098E-1	4.764936E-1	4.767917E-1	4.968002E-1	4.893363E-1	4.780645E-1	4.867710E-1	4.839247E-1	5.166746E-1	4.635125E-1	5.133308E-1	5.159697E-1	5.086215E-1	5.118090E-1	4.924130E-1	4.977004E-1	4.817298E-1	4.783209E-1	4.837245E-1	4.775511E-1	4.845545E-1	4.631862E-1	5.152359E-1	5.379746E-1	4.463876E-1	4.653856E-1	5.067758E-1	5.003435E-1	4.937613E-1	4.804143E-1	4.823759E-1	4.915631E-1	4.819687E-1	4.818831E-1	5.394198E-1	5.129354E-1	5.599023E-1	4.842224E-1
2.884200E+2	6.501043E-1	6.704539E-1	6.054677E-1	6.424208E-1	6.561177E-1	6.658250E-1	7.266936E-1	6.488997E-1	6.352955E-1	6.535938E-1	6.066032E-1	6.330419E-1	6.307865E-1	6.542132E-1	6.712692E-1	6.378767E-1	6.401772E-1	6.364377E-1	6.624277E-1	6.195795E-1	6.531502E-1	6.202831E-1	6.244761E-1	6.554771E-1	6.243304E-1	6.228775E-1	6.385015E-1	6.134814E-1	6.391067E-1	6.262363E-1	6.366207E-1	6.506095E-1	6.169158E-1	6.869721E-1	6.203494E-1	6.383033E-1	6.324519E-1	6.345610E-1	5.952056E-1	6.183066E-1	6.357981E-1	5.973216E-1	7.131788E-1	6.015627E-1	6.440331E-1	6.692283E-1	6.646649E-1	6.187498E-1	6.404384E-1	6.940851E-1	6.640018E-1	6.480176E-1	6.037824E-1	6.464825E-1	6.578928E-1	6.400113E-1	6.236901E-1	6.662138E-1	6.518584E-1	6.290157E-1	6.605413E-1	6.407069E-1	6.670852E-1	6.778419E-1	6.347796E-1	6.555106E-1	6.261304E-1	6.845647E-1	6.318803E-1	6.543697E-1	6.520187E-1	6.446983E-1	6.246745E-1	6.309021E-1	6.196661E-1	6.601780E-1	6.337772E-1	6.393140E-1	6.439256E-1	6.032799E-1	6.297335E-1	6.628217E-1	6.327583E-1	6.389102E-1	6.584517E-1	6.328020E-1	6.716064E-1	6.292019E-1	6.404753E-1	6.157727E-1	6.240828E-1	6.097571E-1	6.625664E-1	6.609465E-1	6.622305E-1	6.207781E-1	6.619194E-1	6.242557E-1	6.193291E-1	6.432006E-1	6.653156E-1	6.247542E-1	6.798714E-1	5.993454E-1	6.290276E-1	6.540496E-1	6.463429E-1	6.172744E-1	6.243839E-1	6.513730E-1	6.555405E-1	6.098744E-1	6.541316E-1	6.674963E-1	6.569035E-1	6.593187E-1	6.494076E-1	6.767769E-1	6.175715E-1	6.406927E-1	6.578218E-1	6.332694E-1	6.623189E-1	6.503143E-1	6.451418E-1	6.147249E-1	6.519730E-1	6.547413E-1	6.168063E-1	6.851035E-1	6.394216E-1	6.548312E-1	6.349145E-1	6.539218E-1	6.760061E-1	6.419846E-1	6.407723E-1	6.180716E-1	6.676343E-1	6.502043E-1	6.532648E-1	6.739801E-1	6.684416E-1	6.646653E-1	6.578158E-1	6.764034E-1	6.455539E-1	6.397914E-1	6.364138E-1	6.608723E-1	6.341423E-1	6.645443E-1	6.620074E-1	6.526302E-1	6.563494E-1	6.471298E-1	6.600347E-1	6.634438E-1	6.094654E-1	6.289765E-1	6.943469E-1	6.342190E-1	6.175316E-1	6.345310E-1	6.438259E-1	6.098196E-1	6.805310E-1	5.942936E-1	6.689283E-1	6.408229E-1	6.309695E-1	6.430489E-1
2.886030E+2	6.884631E-1	6.867183E-1	6.983088E-1	6.927852E-1	7.035830E-1	7.322432E-1	7.343370E-1	6.949819E-1	7.251136E-1	7.228466E-1	6.876091E-1	7.637255E-1	7.199767E-1	7.214036E-1	7.189586E-1	7.485499E-1	6.789058E-1	7.288071E-1	7.474816E-1	7.365254E-1	7.531109E-1	6.940710E-1	7.182855E-1	6.952606E-1	7.775533E-1	6.920851E-1	7.248281E-1	7.076880E-1	6.970997E-1	7.004617E-1	7.251878E-1	7.046264E-1	6.680863E-1	7.325634E-1	6.789236E-1	7.556825E-1	6.848458E-1	7.129940E-1	7.030825E-1	7.118260E-1	6.994858E-1	6.930053E-1	6.594587E-1	7.171017E-1	7.318490E-1	7.613069E-1	7.273746E-1	7.097782E-1	7.136188E-1	7.310648E-1	7.458958E-1	7.249192E-1	7.169127E-1	7.299166E-1	7.160612E-1	7.112256E-1	6.864672E-1	7.117317E-1	7.046737E-1	7.293524E-1	7.060881E-1	7.149233E-1	7.173048E-1	6.918869E-1	7.493359E-1	7.518269E-1	7.387603E-1	6.967120E-1	7.033749E-1	7.190331E-1	7.267733E-1	6.992283E-1	6.991378E-1	7.039918E-1	7.300512E-1	7.169563E-1	7.116780E-1	7.583879E-1	7.223555E-1	7.061179E-1	7.099354E-1	7.149652E-1	6.622168E-1	7.279037E-1	6.698367E-1	7.257766E-1	7.080216E-1	7.038348E-1	7.173113E-1	7.366266E-1	7.414809E-1	7.191698E-1	7.352585E-1	7.392677E-1	7.465983E-1	7.120394E-1	6.980328E-1	6.849856E-1	7.161847E-1	7.159070E-1	7.415734E-1	7.531342E-1	7.085025E-1	7.065291E-1	7.027959E-1	7.267287E-1	7.111760E-1	6.893744E-1	7.132323E-1	7.312634E-1	7.331954E-1	6.928452E-1	7.129896E-1	6.987629E-1	7.387467E-1	7.393322E-1	7.216959E-1	6.823550E-1	7.431471E-1	7.471092E-1	7.063159E-1	7.167475E-1	7.196203E-1	6.934317E-1	7.351182E-1	7.347830E-1	7.379744E-1	7.040280E-1	7.546555E-1	7.677697E-1	7.141444E-1	7.143919E-1	7.108398E-1	7.262310E-1	6.791636E-1	7.582400E-1	6.523675E-1	7.084690E-1	7.193943E-1	6.855246E-1	6.916404E-1	7.111175E-1	7.194161E-1	6.879153E-1	7.068275E-1	7.188348E-1	7.124920E-1	6.479031E-1	6.876705E-1	7.474713E-1	7.304755E-1	7.539878E-1	7.135998E-1	7.433417E-1	7.386154E-1	7.090244E-1	6.936714E-1	6.803705E-1	6.927181E-1	6.916657E-1	7.401905E-1	7.634339E-1	7.252149E-1	7.420980E-1	7.392706E-1	7.314346E-1	7.305912E-1	6.839218E-1	7.520614E-1	7.106557E-1	6.891678E-1	6.056307E-1
2.888200E+2	8.269011E-1	8.082637E-1	7.878598E-1	7.893541E-1	8.168214E-1	7.840025E-1	7.852125E-1	8.096399E-1	7.291106E-1	7.927610E-1	7.885337E-1	7.465798E-1	7.866375E-1	7.692521E-1	7.803883E-1	7.922825E-1	7.901785E-1	7.834773E-1	7.979767E-1	7.840354E-1	7.318125E-1	7.634003E-1	7.636705E-1	7.604815E-1	8.115124E-1	7.564037E-1	8.017545E-1	7.804703E-1	8.060083E-1	7.707230E-1	7.955322E-1	7.543426E-1	7.718607E-1	7.655504E-1	7.998297E-1	7.671371E-1	8.004902E-1	7.920896E-1	7.944307E-1	7.748573E-1	7.574096E-1	8.039905E-1	7.679476E-1	7.735858E-1	7.885969E-1	8.242049E-1	7.736395E-1	7.713563E-1	7.905326E-1	8.035003E-1	7.800219E-1	7.664266E-1	7.627074E-1	7.616691E-1	8.368134E-1	7.518122E-1	7.751842E-1	7.423995E-1	7.434607E-1	7.687133E-1	7.708387E-1	8.210076E-1	8.065236E-1	7.670305E-1	7.790742E-1	7.600090E-1	7.808808E-1	7.801945E-1	7.275781E-1	8.054877E-1	7.726310E-1	7.456455E-1	7.729876E-1	7.825878E-1	7.634411E-1	7.390686E-1	7.480882E-1	8.177546E-1	8.475791E-1	8.120140E-1	7.717138E-1	7.485910E-1	8.083731E-1	8.021092E-1	7.346619E-1	8.048976E-1	7.456048E-1	7.664065E-1	7.910661E-1	7.463945E-1	7.391896E-1	7.869107E-1	7.612209E-1	7.811394E-1	8.076413E-1	7.716569E-1	7.933761E-1	8.040300E-1	7.312110E-1	8.048677E-1	7.791906E-1	7.595010E-1	7.707897E-1	7.745015E-1	7.496867E-1	7.973820E-1	7.301546E-1	7.535523E-1	7.576724E-1	7.935016E-1	7.787400E-1	7.455057E-1	7.576348E-1	7.841724E-1	7.751547E-1	7.633751E-1	7.977621E-1	8.259195E-1	7.697640E-1	7.470514E-1	7.756049E-1	8.185334E-1	7.867319E-1	7.281064E-1	7.336245E-1	8.011271E-1	7.663809E-1	7.889598E-1	7.496097E-1	7.255496E-1	7.159374E-1	8.222498E-1	7.658701E-1	8.068737E-1	7.606722E-1	8.194111E-1	7.715534E-1	7.879403E-1	7.667343E-1	8.076947E-1	7.688363E-1	7.997142E-1	8.016672E-1	7.801124E-1	7.384113E-1	8.072656E-1	7.653335E-1	7.523382E-1	7.565115E-1	8.079124E-1	7.838368E-1	7.923784E-1	7.969983E-1	7.785210E-1	7.585660E-1	7.638066E-1	7.783290E-1	7.828455E-1	7.100346E-1	7.877715E-1	7.546643E-1	7.981976E-1	7.887608E-1	7.871517E-1	7.691681E-1	8.187693E-1	7.888160E-1	7.709722E-1	8.332781E-1	8.250719E-1	7.943457E-1	7.235539E-1
2.890190E+2	8.298673E-1	7.721833E-1	7.666751E-1	8.192776E-1	8.011543E-1	8.460255E-1	8.384254E-1	7.858323E-1	8.067498E-1	8.153129E-1	8.252267E-1	7.678894E-1	8.358902E-1	8.383955E-1	8.462638E-1	8.197524E-1	7.843403E-1	7.734034E-1	8.007854E-1	8.221439E-1	8.128265E-1	8.018329E-1	8.021168E-1	8.143469E-1	7.777622E-1	8.199044E-1	7.719740E-1	8.500950E-1	7.880183E-1	8.471420E-1	7.958109E-1	8.005404E-1	8.061396E-1	8.031805E-1	7.888400E-1	8.025245E-1	8.225133E-1	8.649571E-1	7.934649E-1	8.091105E-1	8.505428E-1	7.899095E-1	8.110933E-1	7.911887E-1	8.024222E-1	7.886171E-1	8.260874E-1	7.644491E-1	7.903533E-1	7.857532E-1	8.149708E-1	8.130222E-1	7.650972E-1	8.334816E-1	7.953454E-1	8.063135E-1	8.187684E-1	8.178977E-1	7.727156E-1	8.039929E-1	8.251437E-1	7.994256E-1	8.241757E-1	8.047794E-1	8.094530E-1	8.140503E-1	7.919829E-1	8.125139E-1	7.909642E-1	8.253026E-1	8.075431E-1	7.797567E-1	8.080054E-1	8.274656E-1	8.034862E-1	8.192840E-1	8.305235E-1	7.972629E-1	8.699018E-1	7.663596E-1	8.151382E-1	8.029709E-1	8.135819E-1	8.498364E-1	7.510857E-1	8.534869E-1	7.288714E-1	8.624429E-1	8.256865E-1	8.020330E-1	8.103876E-1	8.115016E-1	7.969515E-1	8.738149E-1	8.148919E-1	8.209626E-1	8.218377E-1	8.514383E-1	7.819454E-1	8.232716E-1	8.222651E-1	8.105352E-1	7.892931E-1	7.894174E-1	8.367617E-1	7.882986E-1	7.832916E-1	8.066428E-1	8.030639E-1	8.452593E-1	8.193500E-1	7.762227E-1	7.706564E-1	8.350306E-1	8.178584E-1	8.353097E-1	8.104271E-1	8.101265E-1	8.148141E-1	8.237653E-1	7.882072E-1	8.398755E-1	8.335824E-1	7.531184E-1	8.142777E-1	7.921684E-1	8.402648E-1	8.082900E-1	8.281317E-1	8.159085E-1	8.426656E-1	8.464578E-1	8.265030E-1	8.157928E-1	8.233549E-1	7.978526E-1	8.328659E-1	8.174004E-1	8.315263E-1	8.125135E-1	8.436093E-1	7.998075E-1	8.630187E-1	8.277655E-1	8.300630E-1	8.551816E-1	8.383632E-1	8.313798E-1	8.263840E-1	8.405867E-1	8.462557E-1	8.023151E-1	8.195389E-1	8.230683E-1	8.087832E-1	7.833713E-1	7.583607E-1	8.332508E-1	8.036826E-1	8.186461E-1	8.262031E-1	8.472105E-1	8.264381E-1	8.347194E-1	7.817587E-1	8.435200E-1	8.316186E-1	7.952764E-1	8.455183E-1	8.383750E-1	8.429498E-1	7.319724E-1
2.892020E+2	6.542241E-1	6.347857E-1	6.328010E-1	6.413806E-1	6.405570E-1	6.456395E-1	6.441510E-1	6.009911E-1	6.298930E-1	6.655139E-1	6.500150E-1	6.289598E-1	6.715521E-1	6.907735E-1	6.428377E-1	5.916005E-1	6.891632E-1	7.098117E-1	6.532445E-1	6.366778E-1	6.591434E-1	6.684960E-1	6.694011E-1	6.333996E-1	6.977417E-1	6.524239E-1	7.060937E-1	6.312399E-1	6.364458E-1	6.459749E-1	6.510878E-1	6.438207E-1	6.223457E-1	6.364301E-1	6.507900E-1	6.521028E-1	6.281597E-1	6.788161E-1	6.331598E-1	6.411411E-1	6.600343E-1	6.438260E-1	6.632615E-1	6.681493E-1	6.335623E-1	6.820007E-1	6.581233E-1	6.405643E-1	6.116246E-1	6.534861E-1	7.036496E-1	6.148662E-1	6.262629E-1	6.452397E-1	6.526964E-1	6.562715E-1	6.692419E-1	6.213619E-1	6.009286E-1	6.149207E-1	6.740183E-1	6.739633E-1	6.474221E-1	6.298943E-1	6.379150E-1	6.565759E-1	6.681975E-1	6.418823E-1	6.425563E-1	6.415037E-1	6.338545E-1	6.115891E-1	6.626103E-1	6.578812E-1	6.883964E-1	6.454895E-1	6.264460E-1	6.615662E-1	6.706970E-1	6.286684E-1	6.671329E-1	6.464919E-1	6.459026E-1	6.897449E-1	6.379565E-1	6.634329E-1	6.467163E-1	6.513401E-1	6.448604E-1	6.592521E-1	6.568889E-1	6.824073E-1	6.692895E-1	6.756252E-1	6.506129E-1	6.304199E-1	6.661962E-1	6.755651E-1	6.143138E-1	6.647967E-1	6.310987E-1	6.220764E-1	6.354375E-1	6.700089E-1	6.432777E-1	6.574446E-1	6.501834E-1	6.244883E-1	6.672744E-1	6.336696E-1	6.688893E-1	6.416974E-1	6.524875E-1	7.049200E-1	6.320194E-1	6.524460E-1	6.403476E-1	6.288737E-1	6.981398E-1	6.698795E-1	6.508166E-1	6.685993E-1	6.852328E-1	6.728733E-1	6.609648E-1	6.586133E-1	6.611995E-1	6.426289E-1	6.471976E-1	6.773825E-1	6.584481E-1	6.513421E-1	6.385195E-1	6.471708E-1	6.824821E-1	6.095387E-1	6.566295E-1	6.394298E-1	6.770287E-1	6.659465E-1	6.546956E-1	6.612426E-1	6.957847E-1	6.370437E-1	6.914895E-1	6.342037E-1	6.498070E-1	6.401675E-1	6.589555E-1	6.524893E-1	6.796277E-1	6.805234E-1	6.528618E-1	6.662259E-1	6.939990E-1	6.378154E-1	6.203266E-1	6.535626E-1	6.324256E-1	6.557368E-1	6.478788E-1	6.830576E-1	6.927287E-1	6.568023E-1	6.440172E-1	6.452711E-1	6.346184E-1	6.520269E-1	6.270391E-1	7.091018E-1	6.878695E-1	5.834291E-1
2.894040E+2	4.697855E-1	4.713889E-1	5.105349E-1	4.813395E-1	4.780438E-1	4.831350E-1	4.931912E-1	4.911063E-1	4.753623E-1	5.057329E-1	4.609601E-1	4.701510E-1	4.895546E-1	4.725192E-1	4.826238E-1	4.756181E-1	4.861851E-1	4.749490E-1	5.240237E-1	4.727465E-1	4.440800E-1	4.478246E-1	4.716967E-1	4.708620E-1	4.834068E-1	4.936649E-1	4.691168E-1	4.555939E-1	4.571871E-1	4.635636E-1	5.000490E-1	4.603445E-1	4.562741E-1	4.863628E-1	4.848018E-1	4.486380E-1	4.809584E-1	5.023880E-1	4.752940E-1	4.950946E-1	4.795891E-1	4.983778E-1	4.724156E-1	4.915764E-1	4.613898E-1	5.081789E-1	4.779406E-1	4.462846E-1	4.597762E-1	4.417916E-1	5.105453E-1	4.526493E-1	4.748446E-1	4.678017E-1	5.070948E-1	5.020185E-1	4.609674E-1	4.671871E-1	4.788534E-1	4.602952E-1	4.598195E-1	4.693557E-1	4.640615E-1	4.684202E-1	4.999143E-1	4.387354E-1	4.750657E-1	4.834703E-1	4.539855E-1	4.971445E-1	4.644842E-1	4.594595E-1	4.872127E-1	4.632927E-1	4.877492E-1	4.627132E-1	4.903636E-1	4.832840E-1	4.905270E-1	4.810426E-1	4.628435E-1	4.535906E-1	4.927848E-1	4.916371E-1	4.796750E-1	4.511955E-1	4.639416E-1	4.650261E-1	4.508714E-1	4.737189E-1	4.636159E-1	4.927963E-1	4.792188E-1	4.908424E-1	5.056057E-1	4.627168E-1	4.651647E-1	4.694643E-1	4.373996E-1	5.025926E-1	4.769691E-1	4.726362E-1	4.915186E-1	4.632486E-1	4.731367E-1	4.800304E-1	4.587970E-1	4.890692E-1	4.535228E-1	4.561996E-1	4.920208E-1	4.689947E-1	4.375805E-1	4.258290E-1	4.686945E-1	4.821367E-1	4.694530E-1	4.914030E-1	5.010312E-1	4.599608E-1	4.894478E-1	4.751686E-1	4.841807E-1	4.647547E-1	4.470831E-1	4.800035E-1	4.805614E-1	4.524181E-1	4.667477E-1	5.092717E-1	4.896644E-1	4.686060E-1	4.512863E-1	4.675417E-1	4.457501E-1	4.770707E-1	4.826231E-1	4.593163E-1	4.673879E-1	4.719153E-1	4.751646E-1	4.628804E-1	4.862358E-1	4.812396E-1	5.104387E-1	5.229018E-1	4.917928E-1	4.642912E-1	5.167359E-1	4.726938E-1	4.867034E-1	4.373136E-1	4.778365E-1	4.438810E-1	4.566795E-1	4.632434E-1	4.694144E-1	4.624626E-1	4.690725E-1	4.706573E-1	4.985242E-1	4.565959E-1	4.887841E-1	4.950698E-1	4.847943E-1	4.860299E-1	4.947022E-1	4.467850E-1	4.678222E-1	5.206799E-1	4.716526E-1	4.708420E-1
2.896060E+2	4.642939E-1	4.316423E-1	4.371281E-1	4.442989E-1	4.778704E-1	4.654846E-1	4.844247E-1	4.727383E-1	4.355714E-1	4.548149E-1	4.668798E-1	4.429727E-1	4.442292E-1	4.814304E-1	4.263497E-1	4.407745E-1	4.420672E-1	4.605555E-1	4.543156E-1	4.460130E-1	4.622490E-1	4.658166E-1	4.422113E-1	4.610637E-1	4.846998E-1	4.309407E-1	4.618475E-1	4.349519E-1	4.682285E-1	4.262533E-1	4.623012E-1	4.258220E-1	4.344363E-1	4.545544E-1	4.375169E-1	4.562369E-1	4.379998E-1	4.454324E-1	4.819195E-1	4.369666E-1	4.554155E-1	4.300559E-1	4.651623E-1	4.328441E-1	4.529077E-1	4.809480E-1	4.344134E-1	4.442818E-1	4.601495E-1	4.516696E-1	4.314164E-1	4.472433E-1	4.215489E-1	4.244986E-1	4.151135E-1	4.549186E-1	4.236075E-1	4.562679E-1	4.457462E-1	4.394156E-1	4.485098E-1	4.680310E-1	4.527180E-1	4.408699E-1	4.297859E-1	5.038721E-1	4.670921E-1	4.504111E-1	4.661146E-1	4.431496E-1	4.577423E-1	4.635695E-1	4.671131E-1	4.685435E-1	4.200963E-1	4.250956E-1	4.541709E-1	4.671604E-1	4.535582E-1	4.497061E-1	4.412609E-1	4.607648E-1	4.453894E-1	4.475402E-1	4.410501E-1	4.551521E-1	4.733362E-1	4.663655E-1	4.293142E-1	4.578843E-1	4.303054E-1	4.824569E-1	4.287380E-1	4.293161E-1	4.171682E-1	4.439428E-1	4.483032E-1	4.672129E-1	4.689504E-1	4.328526E-1	4.796323E-1	4.238240E-1	4.784455E-1	4.595017E-1	4.363537E-1	4.495574E-1	4.390507E-1	4.809556E-1	4.669700E-1	4.449353E-1	4.394134E-1	4.319890E-1	4.157264E-1	4.614796E-1	4.374117E-1	4.310719E-1	4.249790E-1	4.794776E-1	4.528285E-1	4.451083E-1	4.376623E-1	4.539181E-1	4.620924E-1	4.489861E-1	4.490139E-1	4.850024E-1	4.411459E-1	4.674414E-1	4.099538E-1	4.551611E-1	4.517129E-1	4.623546E-1	4.609510E-1	4.746448E-1	4.578046E-1	4.533804E-1	4.412461E-1	4.271183E-1	4.503378E-1	4.669819E-1	4.604583E-1	4.818635E-1	4.584655E-1	4.419503E-1	4.325019E-1	5.014860E-1	4.502549E-1	4.662023E-1	4.266068E-1	4.718076E-1	4.658585E-1	4.412290E-1	4.852999E-1	4.494955E-1	4.917059E-1	3.895671E-1	4.174976E-1	4.550578E-1	4.459563E-1	4.551648E-1	4.563742E-1	4.861319E-1	4.684627E-1	4.480298E-1	4.685224E-1	4.459033E-1	4.502493E-1	4.422688E-1	4.587054E-1	4.295263E-1	4.825317E-1	4.577016E-1
2.898030E+2	5.098617E-1	5.363247E-1	5.466865E-1	5.268970E-1	5.357198E-1	5.181548E-1	5.194681E-1	5.061889E-1	5.004920E-1	5.101570E-1	4.981436E-1	5.038940E-1	5.119923E-1	5.221316E-1	5.367586E-1	5.334115E-1	5.571569E-1	5.295165E-1	5.498970E-1	5.600761E-1	5.359372E-1	5.193569E-1	5.089490E-1	5.352141E-1	5.124373E-1	5.397799E-1	5.276418E-1	5.022478E-1	5.311587E-1	5.167399E-1	5.039157E-1	4.876811E-1	5.382112E-1	5.259113E-1	5.219426E-1	5.340691E-1	4.912202E-1	5.492831E-1	5.156132E-1	5.236451E-1	5.212311E-1	5.047926E-1	5.068869E-1	5.379974E-1	5.448802E-1	5.242581E-1	5.231459E-1	5.285830E-1	5.373331E-1	4.934021E-1	5.627872E-1	5.372624E-1	5.177699E-1	5.232192E-1	5.426019E-1	5.482377E-1	4.907544E-1	5.306773E-1	5.217740E-1	5.256137E-1	5.432676E-1	5.207746E-1	5.443209E-1	4.945750E-1	5.333525E-1	5.196949E-1	4.975285E-1	4.961941E-1	5.455161E-1	5.294533E-1	5.245082E-1	4.736186E-1	5.059845E-1	5.032849E-1	5.354816E-1	5.354383E-1	5.471704E-1	5.336744E-1	5.278206E-1	5.427842E-1	5.525265E-1	5.351410E-1	5.023214E-1	5.087088E-1	5.343246E-1	5.224820E-1	5.127060E-1	4.858190E-1	5.167567E-1	5.076077E-1	5.634316E-1	5.204015E-1	5.172499E-1	5.536801E-1	5.221830E-1	5.176983E-1	5.340718E-1	5.390756E-1	5.194515E-1	5.376091E-1	5.294985E-1	4.921894E-1	5.107181E-1	5.123014E-1	5.173497E-1	5.138388E-1	5.031716E-1	5.040689E-1	5.310897E-1	5.491699E-1	4.946801E-1	5.126962E-1	5.120128E-1	5.311694E-1	5.272021E-1	5.475292E-1	5.297052E-1	5.065572E-1	5.207944E-1	5.334622E-1	5.312896E-1	5.286798E-1	5.487882E-1	5.336702E-1	5.141528E-1	5.538092E-1	5.105604E-1	5.338074E-1	5.376065E-1	5.999523E-1	5.336910E-1	5.118626E-1	5.127791E-1	5.002431E-1	5.106807E-1	5.249368E-1	5.411561E-1	5.008249E-1	5.361045E-1	5.233578E-1	5.194117E-1	5.062124E-1	5.521460E-1	4.912915E-1	5.045823E-1	5.416041E-1	5.287063E-1	5.171970E-1	5.285221E-1	5.363689E-1	5.453937E-1	4.609965E-1	5.197713E-1	5.037079E-1	5.182912E-1	5.220540E-1	4.900655E-1	5.253774E-1	5.481996E-1	5.490262E-1	5.196832E-1	5.460519E-1	5.242746E-1	5.136609E-1	4.927423E-1	4.954995E-1	5.248383E-1	5.185428E-1	5.168867E-1	5.933277E-1	5.112200E-1	4.818188E-1
2.900050E+2	5.463768E-1	5.332527E-1	5.150650E-1	5.520936E-1	5.566207E-1	5.928293E-1	5.796319E-1	5.980077E-1	5.450343E-1	5.919464E-1	5.530368E-1	5.778384E-1	5.648112E-1	5.525912E-1	5.802624E-1	5.462982E-1	5.717488E-1	5.762548E-1	5.755513E-1	5.584299E-1	5.505254E-1	5.723150E-1	5.464590E-1	5.248520E-1	5.317758E-1	5.379665E-1	5.945194E-1	5.680838E-1	5.693119E-1	5.624309E-1	5.411486E-1	5.496390E-1	5.613757E-1	5.654901E-1	5.824386E-1	6.198029E-1	5.436393E-1	5.888528E-1	5.693872E-1	5.676836E-1	5.668616E-1	5.481070E-1	5.553066E-1	5.761786E-1	6.180249E-1	5.549364E-1	5.887832E-1	5.318383E-1	5.402285E-1	5.823826E-1	5.707543E-1	5.467301E-1	5.508991E-1	6.030251E-1	5.613303E-1	5.877191E-1	5.804426E-1	5.521057E-1	5.706056E-1	5.722335E-1	5.822527E-1	5.451300E-1	5.881363E-1	5.628761E-1	5.808454E-1	5.901055E-1	5.627468E-1	5.704540E-1	5.594500E-1	5.829902E-1	5.733761E-1	5.519113E-1	5.595778E-1	5.412700E-1	5.537383E-1	5.865420E-1	5.326707E-1	5.702702E-1	6.040339E-1	5.442797E-1	5.604690E-1	5.815506E-1	5.526961E-1	5.545911E-1	5.728066E-1	5.710149E-1	5.694225E-1	5.682777E-1	5.590017E-1	5.555497E-1	5.642828E-1	5.644540E-1	5.560601E-1	5.751334E-1	5.584021E-1	5.495338E-1	5.770748E-1	5.782518E-1	5.672436E-1	5.810512E-1	5.764912E-1	5.454875E-1	6.005668E-1	5.559724E-1	5.614719E-1	5.935587E-1	5.301481E-1	5.404337E-1	5.764506E-1	5.913238E-1	5.724569E-1	5.705641E-1	5.509853E-1	5.851491E-1	5.811924E-1	5.515055E-1	5.590754E-1	5.301885E-1	6.106316E-1	5.746340E-1	5.755753E-1	5.735332E-1	5.446670E-1	6.390084E-1	6.147352E-1	5.561800E-1	5.867951E-1	5.571994E-1	5.625624E-1	5.764803E-1	5.805247E-1	5.568059E-1	5.825267E-1	5.764596E-1	5.423042E-1	5.614244E-1	5.515935E-1	6.293602E-1	5.912487E-1	5.844506E-1	5.782818E-1	6.152876E-1	5.956758E-1	5.653216E-1	5.677611E-1	6.073490E-1	6.167920E-1	5.856072E-1	5.723061E-1	5.621827E-1	5.553865E-1	5.691607E-1	5.296446E-1	5.711459E-1	5.613106E-1	5.176508E-1	5.380028E-1	5.539534E-1	5.651885E-1	5.437686E-1	5.154802E-1	5.936996E-1	5.649363E-1	5.950529E-1	5.748351E-1	6.065015E-1	5.746807E-1	5.427432E-1	5.764376E-1	5.771057E-1	5.962766E-1	5.349702E-1
2.905280E+2	5.621370E-1	5.740334E-1	5.718906E-1	5.392665E-1	5.432056E-1	5.456166E-1	5.867694E-1	5.392316E-1	5.384196E-1	5.655496E-1	5.415546E-1	5.242962E-1	5.443513E-1	5.376759E-1	5.520723E-1	5.350676E-1	5.474454E-1	5.713701E-1	5.692024E-1	5.400853E-1	5.564504E-1	5.318908E-1	5.265824E-1	5.413984E-1	5.393122E-1	5.180392E-1	5.629221E-1	5.083301E-1	5.305354E-1	5.201314E-1	5.266771E-1	5.251986E-1	5.506635E-1	5.370560E-1	5.309149E-1	5.243617E-1	5.480778E-1	5.499744E-1	5.352526E-1	5.323394E-1	5.772237E-1	5.276399E-1	5.370724E-1	5.007205E-1	5.516107E-1	5.755307E-1	5.226211E-1	5.282957E-1	5.593357E-1	5.488905E-1	5.312783E-1	5.571448E-1	5.264780E-1	5.364796E-1	5.931851E-1	5.208196E-1	5.304057E-1	5.454896E-1	5.293765E-1	5.386578E-1	5.529191E-1	5.587530E-1	5.125511E-1	5.359007E-1	5.285386E-1	5.370477E-1	5.618421E-1	5.652832E-1	5.248565E-1	5.305140E-1	5.185374E-1	5.206601E-1	5.339099E-1	5.608907E-1	5.055985E-1	5.690368E-1	5.448253E-1	5.500072E-1	5.254725E-1	5.206784E-1	5.395535E-1	5.319246E-1	5.455767E-1	5.214457E-1	5.598238E-1	5.624036E-1	5.704194E-1	5.121446E-1	5.153789E-1	5.470236E-1	5.517968E-1	5.402465E-1	4.968465E-1	5.693257E-1	5.389843E-1	5.139631E-1	5.665343E-1	5.472319E-1	5.380877E-1	5.905906E-1	5.307819E-1	5.131498E-1	5.366835E-1	5.282428E-1	5.377641E-1	5.670624E-1	5.112595E-1	5.630574E-1	5.286132E-1	5.641559E-1	5.480555E-1	5.053815E-1	5.174704E-1	5.689617E-1	5.493815E-1	5.480005E-1	5.644874E-1	5.547324E-1	5.703548E-1	5.196281E-1	5.361165E-1	5.355725E-1	5.477675E-1	4.915474E-1	5.777430E-1	5.394980E-1	5.093573E-1	5.761272E-1	5.072883E-1	5.627766E-1	5.718908E-1	5.558900E-1	5.264702E-1	5.647698E-1	5.098778E-1	5.645275E-1	5.450925E-1	5.656079E-1	5.148038E-1	5.305218E-1	5.000347E-1	5.429415E-1	5.494802E-1	5.379799E-1	5.221060E-1	5.292671E-1	5.201758E-1	5.294316E-1	5.622957E-1	5.753197E-1	5.898302E-1	4.997978E-1	5.472731E-1	5.575970E-1	4.899222E-1	5.106382E-1	5.171792E-1	5.291884E-1	5.280288E-1	5.056978E-1	5.558938E-1	5.549389E-1	5.124219E-1	5.428121E-1	5.182114E-1	5.638460E-1	5.405079E-1	5.394181E-1	5.434078E-1	4.832528E-1	5.185829E-1	4.354777E-1
2.910030E+2	5.545570E-1	5.567942E-1	5.555148E-1	5.437331E-1	5.575862E-1	5.862580E-1	5.394981E-1	5.422525E-1	5.283626E-1	5.340531E-1	5.521091E-1	5.076449E-1	5.399809E-1	5.596340E-1	5.516838E-1	5.686816E-1	5.727032E-1	5.755149E-1	5.531839E-1	5.627095E-1	5.418785E-1	5.320139E-1	5.496340E-1	5.640650E-1	5.589447E-1	5.404519E-1	5.597340E-1	5.136477E-1	5.800896E-1	5.571338E-1	5.333766E-1	6.094309E-1	5.279777E-1	5.773074E-1	5.751799E-1	5.746023E-1	5.399270E-1	5.668225E-1	5.624344E-1	5.292792E-1	5.366868E-1	5.565852E-1	5.437786E-1	5.391994E-1	5.713756E-1	5.688994E-1	5.384622E-1	5.241526E-1	5.436890E-1	5.116969E-1	5.577223E-1	5.391198E-1	5.152657E-1	5.701580E-1	5.523303E-1	5.409343E-1	5.312828E-1	5.288349E-1	5.485245E-1	5.275858E-1	5.561943E-1	5.460207E-1	5.792745E-1	5.418510E-1	5.602725E-1	5.843854E-1	6.162512E-1	5.373987E-1	5.442431E-1	5.336042E-1	5.357367E-1	5.512638E-1	5.546612E-1	5.511398E-1	5.011332E-1	5.197965E-1	5.297586E-1	5.683527E-1	5.543881E-1	5.480007E-1	5.362132E-1	5.555431E-1	5.643668E-1	5.876094E-1	5.330016E-1	5.345830E-1	5.558178E-1	5.593887E-1	5.643824E-1	5.513560E-1	5.482940E-1	5.905630E-1	5.488600E-1	6.064087E-1	6.015655E-1	5.810886E-1	5.613115E-1	5.520250E-1	5.719501E-1	5.664424E-1	5.357150E-1	5.406632E-1	5.369642E-1	5.414302E-1	5.606368E-1	5.579537E-1	5.437239E-1	5.221613E-1	5.457186E-1	5.878420E-1	5.311822E-1	5.447994E-1	5.581509E-1	5.761298E-1	5.777005E-1	5.360579E-1	5.629646E-1	5.599976E-1	5.691592E-1	5.460898E-1	5.782472E-1	5.675768E-1	5.776243E-1	5.068352E-1	5.326375E-1	5.761234E-1	5.668019E-1	5.460084E-1	5.637810E-1	5.525033E-1	5.897488E-1	5.771549E-1	5.352394E-1	5.492088E-1	5.503093E-1	5.345026E-1	5.784694E-1	5.737739E-1	5.169190E-1	5.395966E-1	5.597122E-1	5.527242E-1	5.781132E-1	5.425564E-1	5.571198E-1	5.078150E-1	5.456244E-1	5.529130E-1	5.903739E-1	5.425058E-1	5.479917E-1	5.607559E-1	5.398019E-1	5.552197E-1	5.846775E-1	5.696698E-1	5.466493E-1	5.630045E-1	5.357376E-1	5.592897E-1	5.474283E-1	5.682398E-1	5.655636E-1	5.156420E-1	5.540026E-1	5.444945E-1	5.494014E-1	5.481393E-1	6.117893E-1	5.264891E-1	5.459433E-1	5.263525E-1
2.915150E+2	7.800996E-1	7.131039E-1	7.423732E-1	7.522591E-1	7.583846E-1	7.754667E-1	7.502471E-1	7.243704E-1	7.225238E-1	7.238743E-1	7.364867E-1	7.062708E-1	7.480280E-1	7.407155E-1	7.276888E-1	6.821083E-1	7.307459E-1	7.349969E-1	7.605909E-1	7.246477E-1	7.560368E-1	7.553699E-1	7.519358E-1	7.571924E-1	7.522874E-1	7.413780E-1	7.465560E-1	7.449974E-1	7.678500E-1	6.912745E-1	7.549233E-1	7.682539E-1	7.579028E-1	7.445592E-1	7.535041E-1	7.792423E-1	7.754311E-1	7.327681E-1	7.403772E-1	7.190600E-1	7.432466E-1	7.748794E-1	7.711528E-1	7.478369E-1	7.675777E-1	7.583889E-1	7.440684E-1	7.388259E-1	7.175881E-1	7.342188E-1	7.540421E-1	7.142793E-1	6.978429E-1	7.550174E-1	7.273573E-1	6.994898E-1	7.248586E-1	6.969963E-1	7.312279E-1	7.327431E-1	7.385907E-1	7.393116E-1	7.783912E-1	7.254565E-1	7.460398E-1	7.048816E-1	7.229908E-1	7.232640E-1	7.423406E-1	7.103641E-1	7.525137E-1	7.140187E-1	7.443060E-1	6.611000E-1	7.462188E-1	7.210594E-1	7.480025E-1	7.529466E-1	7.637364E-1	6.978300E-1	7.451668E-1	7.707039E-1	7.477010E-1	7.395816E-1	7.500523E-1	7.170992E-1	7.470615E-1	7.226437E-1	7.547310E-1	7.130673E-1	8.004065E-1	7.454407E-1	7.612165E-1	7.801119E-1	7.676045E-1	7.023542E-1	7.451269E-1	7.791374E-1	7.107035E-1	7.404300E-1	7.418949E-1	7.400618E-1	7.293482E-1	7.245171E-1	7.006462E-1	7.661248E-1	7.438533E-1	7.502089E-1	7.526598E-1	7.209492E-1	7.503588E-1	7.209132E-1	7.303627E-1	7.811204E-1	7.431983E-1	7.194529E-1	7.350794E-1	7.684667E-1	7.847746E-1	7.303024E-1	7.325094E-1	7.284679E-1	7.641912E-1	7.620101E-1	7.324340E-1	7.708401E-1	7.518217E-1	7.336030E-1	7.196515E-1	7.666024E-1	6.996861E-1	7.061637E-1	7.559819E-1	7.611315E-1	7.330339E-1	7.294814E-1	7.013239E-1	7.268111E-1	7.293640E-1	7.708765E-1	7.209335E-1	7.575460E-1	7.455944E-1	7.486210E-1	7.778814E-1	7.909303E-1	7.325549E-1	7.395133E-1	7.741574E-1	7.422986E-1	7.141442E-1	7.435253E-1	7.302955E-1	7.428902E-1	7.329240E-1	7.040622E-1	7.278723E-1	7.656089E-1	7.276830E-1	7.170286E-1	7.381481E-1	7.554949E-1	7.872767E-1	7.303766E-1	7.010817E-1	7.236051E-1	7.290122E-1	7.410997E-1	7.268195E-1	7.668132E-1	6.773704E-1	6.756800E-1
2.920000E+2	6.550779E-1	6.282696E-1	5.941043E-1	5.962727E-1	6.380013E-1	6.008047E-1	6.328636E-1	6.499962E-1	6.097588E-1	6.031380E-1	5.850242E-1	6.358529E-1	5.958168E-1	5.844058E-1	5.901215E-1	6.135180E-1	6.139352E-1	6.106811E-1	6.128139E-1	6.382436E-1	6.319623E-1	6.073008E-1	6.373491E-1	5.945815E-1	6.170477E-1	5.905141E-1	6.804650E-1	6.605193E-1	6.259777E-1	6.194789E-1	5.996151E-1	6.241663E-1	6.387693E-1	6.415868E-1	6.287195E-1	6.307953E-1	6.190472E-1	6.289301E-1	6.356872E-1	5.796042E-1	6.057632E-1	6.158616E-1	6.261488E-1	6.475685E-1	6.357805E-1	6.250133E-1	6.373785E-1	6.206674E-1	6.179373E-1	5.744457E-1	6.574651E-1	6.522000E-1	6.162138E-1	6.227196E-1	6.018411E-1	5.913418E-1	6.152104E-1	6.133427E-1	6.427757E-1	5.908378E-1	6.344543E-1	6.295615E-1	6.544233E-1	6.323584E-1	6.389953E-1	5.940397E-1	6.122894E-1	6.061694E-1	6.111451E-1	6.255476E-1	6.342670E-1	6.247796E-1	6.407346E-1	6.030146E-1	6.119395E-1	5.990540E-1	6.129093E-1	6.451102E-1	6.158583E-1	6.487746E-1	6.302743E-1	5.886718E-1	6.430246E-1	6.497119E-1	6.043641E-1	6.659473E-1	6.296538E-1	6.063517E-1	6.551183E-1	5.919179E-1	5.972785E-1	6.471719E-1	6.228078E-1	6.296228E-1	6.362211E-1	6.520929E-1	6.296281E-1	6.268718E-1	6.195874E-1	6.143030E-1	6.344020E-1	6.163282E-1	6.425410E-1	6.212788E-1	6.089774E-1	6.090823E-1	6.249818E-1	6.138325E-1	6.276494E-1	6.464481E-1	6.354339E-1	6.162063E-1	5.940558E-1	6.122916E-1	6.043941E-1	6.241994E-1	6.473875E-1	6.607505E-1	6.301061E-1	6.555079E-1	6.074680E-1	6.143082E-1	6.056726E-1	6.392466E-1	6.397220E-1	6.621345E-1	6.409442E-1	6.322745E-1	6.359792E-1	6.768649E-1	6.304894E-1	6.202873E-1	5.984317E-1	6.424610E-1	6.093434E-1	6.500865E-1	6.275045E-1	6.565943E-1	6.167203E-1	6.184656E-1	6.627838E-1	6.307604E-1	6.255044E-1	6.032177E-1	6.181642E-1	6.814997E-1	5.729780E-1	5.892679E-1	6.177783E-1	6.402129E-1	6.228759E-1	6.360029E-1	6.739897E-1	6.583673E-1	6.105582E-1	6.172227E-1	6.253020E-1	6.104174E-1	6.280888E-1	6.301446E-1	6.891177E-1	6.351855E-1	6.242242E-1	6.042970E-1	6.232303E-1	5.920384E-1	6.303251E-1	6.213384E-1	6.561268E-1	5.861520E-1	6.713578E-1	5.265041E-1
2.925020E+2	5.833309E-1	6.374861E-1	5.706955E-1	5.975914E-1	6.145148E-1	5.868382E-1	6.138979E-1	6.249426E-1	5.796772E-1	5.894858E-1	5.971284E-1	5.455896E-1	5.675913E-1	5.391466E-1	5.638974E-1	5.466335E-1	5.827886E-1	5.672446E-1	6.230051E-1	6.344269E-1	5.501401E-1	5.906851E-1	5.739440E-1	5.927890E-1	5.796100E-1	5.690778E-1	6.136637E-1	6.091176E-1	5.813848E-1	5.903092E-1	5.760165E-1	6.006211E-1	5.781598E-1	5.691775E-1	5.928029E-1	6.355839E-1	6.054463E-1	5.648857E-1	5.936898E-1	5.727626E-1	5.679149E-1	5.874726E-1	5.946982E-1	6.120752E-1	5.880580E-1	6.357318E-1	5.918574E-1	6.247908E-1	5.729094E-1	6.078476E-1	5.848805E-1	5.850003E-1	5.630396E-1	6.227089E-1	5.729021E-1	5.620760E-1	5.547369E-1	5.949155E-1	5.793993E-1	5.887426E-1	6.032223E-1	5.868456E-1	6.250804E-1	6.058760E-1	5.727111E-1	6.042881E-1	5.925064E-1	6.022004E-1	5.689035E-1	6.077616E-1	6.162947E-1	5.445596E-1	6.082765E-1	5.630584E-1	6.236154E-1	5.560479E-1	6.033523E-1	5.892849E-1	6.120117E-1	5.983679E-1	5.916017E-1	5.510744E-1	5.827923E-1	6.036405E-1	5.545511E-1	6.047096E-1	5.883084E-1	6.107129E-1	6.089986E-1	5.855973E-1	5.807892E-1	6.213697E-1	5.941228E-1	5.820660E-1	6.319769E-1	5.486972E-1	5.956025E-1	5.657583E-1	5.826186E-1	5.794241E-1	6.368839E-1	5.819553E-1	5.888122E-1	5.673884E-1	5.803974E-1	6.194038E-1	6.087098E-1	5.904461E-1	6.034280E-1	5.919687E-1	6.109225E-1	6.159187E-1	6.035406E-1	5.754439E-1	5.834491E-1	5.768974E-1	6.301452E-1	6.213477E-1	5.517429E-1	5.999894E-1	6.060357E-1	6.056355E-1	5.534881E-1	5.439527E-1	5.823447E-1	6.079372E-1	6.053157E-1	5.804763E-1	5.705896E-1	5.695072E-1	6.112232E-1	5.839189E-1	5.967544E-1	5.951878E-1	5.764921E-1	6.166832E-1	5.748965E-1	6.267650E-1	5.353252E-1	5.983184E-1	5.984614E-1	6.142384E-1	5.991581E-1	5.950882E-1	5.813495E-1	5.848642E-1	5.832743E-1	5.591880E-1	5.595007E-1	5.996441E-1	5.842852E-1	5.674083E-1	6.031658E-1	5.870767E-1	5.737875E-1	5.667851E-1	6.122848E-1	6.136699E-1	5.777011E-1	5.829145E-1	6.011005E-1	6.226813E-1	5.942476E-1	5.787138E-1	5.811777E-1	6.344710E-1	6.353329E-1	5.743210E-1	5.753966E-1	5.829445E-1	5.787734E-1	5.834672E-1
2.930040E+2	5.978446E-1	5.710790E-1	5.645463E-1	5.943647E-1	5.671576E-1	5.917468E-1	6.026103E-1	6.157090E-1	5.810524E-1	5.707074E-1	5.920921E-1	5.870916E-1	6.078519E-1	5.711433E-1	5.530760E-1	5.889520E-1	5.565942E-1	5.784218E-1	5.965481E-1	6.185441E-1	5.993050E-1	5.855054E-1	5.771987E-1	5.834217E-1	6.065953E-1	5.723051E-1	5.927060E-1	5.654546E-1	5.872468E-1	5.917140E-1	6.153994E-1	5.900073E-1	5.960074E-1	5.724422E-1	6.314526E-1	5.825516E-1	5.949689E-1	5.898877E-1	5.828825E-1	5.837926E-1	5.824700E-1	5.842628E-1	6.183655E-1	5.002591E-1	5.823532E-1	5.735019E-1	6.077956E-1	5.605569E-1	5.719191E-1	5.782567E-1	5.834823E-1	6.078601E-1	5.621483E-1	6.180618E-1	5.551185E-1	5.413495E-1	5.814588E-1	5.669233E-1	5.637774E-1	5.617697E-1	5.906862E-1	6.110209E-1	6.299877E-1	5.924095E-1	5.870351E-1	5.656623E-1	5.658726E-1	5.868954E-1	5.686284E-1	5.820233E-1	5.829079E-1	5.465039E-1	5.816836E-1	5.529240E-1	5.391129E-1	5.394743E-1	6.001740E-1	5.866045E-1	6.219854E-1	5.715412E-1	5.768000E-1	5.845568E-1	5.753018E-1	5.685396E-1	5.399387E-1	5.971538E-1	5.689216E-1	5.708652E-1	5.813724E-1	5.484281E-1	6.100602E-1	5.795772E-1	5.831921E-1	5.732099E-1	6.068917E-1	5.816630E-1	5.855335E-1	5.780076E-1	5.435922E-1	5.754305E-1	5.836628E-1	5.916055E-1	5.881865E-1	5.936743E-1	5.730917E-1	5.782493E-1	5.978373E-1	5.801064E-1	5.397278E-1	5.624621E-1	6.099771E-1	5.706068E-1	5.674213E-1	5.413159E-1	5.777840E-1	5.161835E-1	6.186472E-1	5.967030E-1	6.090052E-1	5.917432E-1	5.825208E-1	5.720305E-1	5.876619E-1	6.050446E-1	6.077703E-1	6.186406E-1	5.857977E-1	5.800243E-1	5.734272E-1	5.769118E-1	5.799361E-1	6.034843E-1	5.832164E-1	5.693988E-1	5.765993E-1	6.019636E-1	5.634927E-1	6.031323E-1	5.407340E-1	6.029996E-1	5.912385E-1	5.726591E-1	6.514228E-1	5.649045E-1	5.957820E-1	6.062289E-1	5.785155E-1	5.456792E-1	5.505763E-1	5.836588E-1	6.037301E-1	5.815334E-1	6.302303E-1	5.878941E-1	5.925411E-1	5.575025E-1	5.454345E-1	5.999193E-1	5.723721E-1	5.755327E-1	5.752322E-1	5.861991E-1	5.853528E-1	5.663967E-1	5.406923E-1	5.677132E-1	5.883562E-1	5.813952E-1	5.788932E-1	5.700372E-1	6.143822E-1	5.683052E-1
2.935110E+2	7.588724E-1	7.036500E-1	7.148623E-1	7.442933E-1	7.590474E-1	7.319977E-1	7.625811E-1	7.870026E-1	7.519480E-1	7.494244E-1	7.418424E-1	6.910090E-1	7.532984E-1	7.001998E-1	7.444954E-1	7.280023E-1	7.397150E-1	6.887538E-1	7.848045E-1	7.776338E-1	7.180183E-1	7.026125E-1	7.315249E-1	7.411195E-1	7.562795E-1	7.267931E-1	7.112992E-1	7.362077E-1	7.361654E-1	7.227969E-1	7.403732E-1	6.839230E-1	7.347454E-1	7.257942E-1	7.842987E-1	7.679929E-1	7.033172E-1	7.207208E-1	7.384000E-1	7.315827E-1	7.871724E-1	7.193256E-1	7.481472E-1	7.046300E-1	7.381416E-1	7.098428E-1	8.011380E-1	7.318376E-1	7.252976E-1	7.566340E-1	7.480018E-1	7.249294E-1	6.979714E-1	7.341705E-1	7.897658E-1	7.276059E-1	7.312839E-1	7.224980E-1	6.812740E-1	7.254117E-1	7.325885E-1	7.424384E-1	7.793092E-1	7.210892E-1	7.635752E-1	7.559882E-1	7.170587E-1	7.381154E-1	7.126372E-1	7.514198E-1	7.559753E-1	7.496062E-1	7.023288E-1	7.476233E-1	7.413676E-1	7.063162E-1	7.622393E-1	7.068516E-1	8.047947E-1	7.210137E-1	7.745982E-1	7.377963E-1	7.252440E-1	7.199559E-1	7.178866E-1	7.124770E-1	7.494400E-1	6.883915E-1	7.253507E-1	6.827444E-1	7.516993E-1	7.655226E-1	7.289535E-1	7.687013E-1	7.081040E-1	7.441644E-1	7.376596E-1	7.579202E-1	7.184737E-1	6.979502E-1	7.605754E-1	7.218093E-1	7.226549E-1	7.361359E-1	7.146731E-1	7.400546E-1	7.578449E-1	7.133057E-1	7.440677E-1	7.281644E-1	7.734998E-1	7.406268E-1	7.296750E-1	7.036837E-1	7.390634E-1	7.592219E-1	7.278349E-1	7.589112E-1	7.540852E-1	7.257394E-1	7.743315E-1	7.502316E-1	7.084632E-1	7.362547E-1	7.569393E-1	7.397199E-1	7.464613E-1	7.082447E-1	7.315077E-1	7.448166E-1	7.304986E-1	7.474280E-1	7.513504E-1	7.397958E-1	7.773555E-1	7.495824E-1	6.930365E-1	7.304912E-1	7.661573E-1	7.523075E-1	7.221851E-1	7.383791E-1	7.546530E-1	7.249070E-1	7.310364E-1	7.222944E-1	7.592665E-1	7.834310E-1	7.471704E-1	7.304060E-1	7.460063E-1	7.320817E-1	7.575926E-1	7.258394E-1	7.857109E-1	6.773300E-1	6.946242E-1	7.277342E-1	7.289692E-1	7.242254E-1	7.062094E-1	7.746005E-1	7.728354E-1	7.688686E-1	7.384461E-1	7.421478E-1	7.444571E-1	7.393952E-1	7.877832E-1	7.899892E-1	7.539933E-1	7.370141E-1
2.940070E+2	9.040329E-1	8.597120E-1	8.299919E-1	7.673407E-1	8.730542E-1	8.488575E-1	8.795153E-1	8.052910E-1	7.997092E-1	8.578188E-1	8.832079E-1	7.956867E-1	8.459785E-1	8.772961E-1	8.653177E-1	8.306286E-1	8.740165E-1	8.238723E-1	8.278391E-1	8.197620E-1	8.125896E-1	8.083356E-1	8.242078E-1	8.009040E-1	8.431064E-1	8.812442E-1	8.450175E-1	8.403690E-1	8.210251E-1	8.230542E-1	8.602180E-1	7.718397E-1	8.085893E-1	8.944934E-1	8.688974E-1	8.311025E-1	8.584429E-1	8.674202E-1	8.381841E-1	8.569900E-1	8.622304E-1	7.770504E-1	8.642903E-1	8.615137E-1	8.409034E-1	8.298183E-1	8.555355E-1	8.665845E-1	7.664317E-1	8.234977E-1	8.570256E-1	8.059536E-1	8.417293E-1	8.688466E-1	8.558168E-1	8.258363E-1	8.207457E-1	7.982356E-1	8.389401E-1	8.371153E-1	8.286496E-1	8.461730E-1	8.311930E-1	7.974671E-1	8.693736E-1	8.435355E-1	8.447017E-1	8.443472E-1	8.436964E-1	8.412953E-1	8.584420E-1	8.384667E-1	8.459146E-1	8.745925E-1	7.923766E-1	8.600125E-1	8.186822E-1	8.313052E-1	8.551412E-1	8.244469E-1	8.753654E-1	8.476437E-1	8.733960E-1	8.535231E-1	8.116580E-1	8.695305E-1	8.390532E-1	8.502300E-1	7.968271E-1	7.929096E-1	8.287352E-1	8.314061E-1	8.053093E-1	8.254970E-1	9.245583E-1	7.889964E-1	8.531198E-1	8.226629E-1	8.472592E-1	8.670560E-1	8.816496E-1	8.581411E-1	8.386880E-1	8.193367E-1	7.999421E-1	8.647744E-1	8.308434E-1	8.054508E-1	8.332088E-1	8.392024E-1	8.615075E-1	8.511471E-1	7.943180E-1	8.548496E-1	8.645988E-1	8.155876E-1	8.276811E-1	8.656376E-1	8.146526E-1	8.253874E-1	8.081848E-1	8.558836E-1	8.833289E-1	8.444963E-1	7.977285E-1	8.792765E-1	8.455244E-1	8.163731E-1	8.763827E-1	8.307429E-1	8.475927E-1	8.518982E-1	8.680627E-1	8.597888E-1	8.417831E-1	8.067713E-1	8.310176E-1	8.119591E-1	8.090002E-1	8.337095E-1	8.398998E-1	8.354483E-1	8.269461E-1	8.483428E-1	8.498616E-1	8.678207E-1	8.155294E-1	8.174371E-1	8.329800E-1	8.441825E-1	8.475808E-1	8.061176E-1	8.511462E-1	8.619201E-1	8.440709E-1	8.177505E-1	8.224542E-1	8.846315E-1	8.577895E-1	8.705369E-1	8.572281E-1	8.390933E-1	8.878626E-1	8.308244E-1	7.998154E-1	8.496236E-1	8.432288E-1	8.491003E-1	8.379531E-1	8.412746E-1	8.596687E-1	8.244310E-1
2.945030E+2	7.989923E-1	8.243171E-1	8.242149E-1	7.829669E-1	7.964910E-1	8.386335E-1	8.224096E-1	8.401620E-1	8.022428E-1	7.808324E-1	8.269179E-1	8.252885E-1	8.003989E-1	8.495790E-1	8.268341E-1	7.967536E-1	8.101245E-1	8.120251E-1	8.501077E-1	8.368992E-1	7.994311E-1	7.976906E-1	7.722227E-1	7.698144E-1	8.320019E-1	7.660579E-1	7.970542E-1	7.750158E-1	8.181693E-1	7.797953E-1	8.035251E-1	8.220232E-1	8.696066E-1	8.456453E-1	8.189125E-1	7.692593E-1	8.027675E-1	8.162190E-1	8.260987E-1	7.975843E-1	8.231415E-1	7.973005E-1	7.902618E-1	7.945663E-1	8.528940E-1	8.301286E-1	8.794704E-1	7.919118E-1	7.829117E-1	8.325243E-1	8.318870E-1	7.886857E-1	8.301748E-1	8.144374E-1	8.070939E-1	8.156438E-1	7.886004E-1	8.335836E-1	7.936184E-1	8.305947E-1	8.328454E-1	8.112185E-1	8.683338E-1	7.920371E-1	8.252213E-1	8.097942E-1	8.185057E-1	7.971415E-1	7.926680E-1	8.298748E-1	8.225571E-1	7.640244E-1	8.096587E-1	8.161884E-1	8.367628E-1	7.651991E-1	7.801219E-1	8.244647E-1	8.564657E-1	7.718554E-1	7.846159E-1	7.897445E-1	8.048239E-1	8.135546E-1	8.322445E-1	8.143926E-1	8.127777E-1	8.093860E-1	8.077441E-1	8.079333E-1	8.329422E-1	8.336564E-1	7.660949E-1	8.103052E-1	8.196242E-1	7.725903E-1	8.166038E-1	8.322861E-1	7.529494E-1	8.547184E-1	7.957499E-1	8.065396E-1	8.090933E-1	7.942228E-1	7.653185E-1	7.960211E-1	7.743533E-1	7.732939E-1	8.007216E-1	8.151898E-1	8.251889E-1	7.879610E-1	8.558420E-1	8.883049E-1	8.176528E-1	7.648192E-1	8.593037E-1	8.251501E-1	8.023605E-1	8.337913E-1	8.156693E-1	7.968011E-1	8.265989E-1	7.832853E-1	8.081694E-1	7.931314E-1	8.070480E-1	7.754128E-1	8.182007E-1	7.749809E-1	8.444760E-1	7.851297E-1	7.845994E-1	8.036375E-1	7.847433E-1	8.127179E-1	7.568769E-1	7.830411E-1	7.932321E-1	8.615785E-1	7.893435E-1	8.464662E-1	8.345981E-1	8.225455E-1	7.778328E-1	8.245753E-1	8.287292E-1	8.273208E-1	8.446456E-1	8.181825E-1	8.312698E-1	8.042397E-1	8.436810E-1	8.492973E-1	8.029721E-1	7.450773E-1	8.275932E-1	8.329451E-1	8.206655E-1	8.287754E-1	8.081686E-1	8.226789E-1	8.326410E-1	8.062236E-1	8.129304E-1	8.488356E-1	8.132934E-1	7.849045E-1	8.344816E-1	8.483452E-1	8.414435E-1	8.031010E-1
2.950050E+2	7.290826E-1	7.293098E-1	7.106249E-1	7.591888E-1	7.534457E-1	7.641372E-1	7.659995E-1	7.137880E-1	7.023111E-1	7.401672E-1	6.851741E-1	7.127480E-1	7.335225E-1	7.569901E-1	7.436681E-1	7.176852E-1	7.329258E-1	6.853733E-1	7.632473E-1	7.126491E-1	7.375223E-1	7.270043E-1	7.537587E-1	7.618330E-1	7.249553E-1	7.214313E-1	7.441430E-1	7.068055E-1	7.587750E-1	7.553841E-1	7.345338E-1	7.508088E-1	7.304995E-1	7.574909E-1	7.534515E-1	7.402704E-1	7.622956E-1	7.356083E-1	7.337794E-1	7.314107E-1	7.231773E-1	7.648523E-1	8.077214E-1	7.560296E-1	7.817853E-1	7.256289E-1	7.808012E-1	7.087487E-1	7.666117E-1	7.326487E-1	7.439133E-1	7.576099E-1	7.547014E-1	7.241854E-1	7.781605E-1	7.375288E-1	7.002539E-1	7.081082E-1	6.817337E-1	7.614154E-1	7.051744E-1	7.385500E-1	7.450160E-1	7.261844E-1	7.228487E-1	7.231007E-1	7.202288E-1	6.953058E-1	7.347478E-1	7.467453E-1	7.214114E-1	7.128584E-1	7.290062E-1	7.652842E-1	7.093288E-1	7.099450E-1	7.103623E-1	7.800601E-1	7.493903E-1	6.903169E-1	7.788635E-1	6.966335E-1	7.852266E-1	7.503725E-1	7.388999E-1	7.499706E-1	7.231559E-1	7.329511E-1	7.334045E-1	7.081572E-1	6.941444E-1	7.574255E-1	7.379778E-1	7.471472E-1	7.572543E-1	7.026697E-1	7.223802E-1	7.938378E-1	7.221874E-1	7.151685E-1	7.580588E-1	7.605069E-1	7.111105E-1	7.148137E-1	7.788515E-1	7.332136E-1	7.598440E-1	7.039388E-1	7.456608E-1	7.663158E-1	7.281373E-1	6.866288E-1	7.438875E-1	7.421298E-1	7.128128E-1	7.425777E-1	6.817357E-1	7.517551E-1	7.515254E-1	7.226775E-1	7.266827E-1	7.412253E-1	7.157294E-1	7.293229E-1	7.716941E-1	7.124661E-1	7.724260E-1	7.319137E-1	7.811417E-1	7.638518E-1	7.331275E-1	7.556246E-1	7.143978E-1	7.730354E-1	7.277658E-1	7.386143E-1	7.259849E-1	7.411436E-1	7.298102E-1	7.605410E-1	7.344495E-1	7.070958E-1	7.659741E-1	7.769593E-1	7.567889E-1	7.230415E-1	7.597347E-1	7.290909E-1	7.027950E-1	7.533063E-1	8.095521E-1	7.332449E-1	6.926801E-1	7.347291E-1	7.943083E-1	7.071461E-1	6.800355E-1	7.571437E-1	7.355413E-1	7.358634E-1	7.355206E-1	8.129780E-1	7.637844E-1	7.147103E-1	7.311911E-1	7.471478E-1	7.367984E-1	6.940780E-1	7.534202E-1	7.328535E-1	7.225843E-1	6.629136E-1
2.955070E+2	7.846249E-1	8.407924E-1	8.066152E-1	8.296936E-1	8.082170E-1	8.388909E-1	8.165684E-1	8.265989E-1	8.244047E-1	8.822423E-1	8.761836E-1	8.382202E-1	8.478990E-1	8.337389E-1	8.059454E-1	8.050901E-1	8.736473E-1	8.355048E-1	7.991336E-1	8.680740E-1	8.000854E-1	8.083723E-1	8.323709E-1	8.501911E-1	8.380204E-1	7.954017E-1	8.454089E-1	8.360893E-1	8.203510E-1	8.797276E-1	8.094679E-1	8.247738E-1	8.290863E-1	8.222528E-1	8.971851E-1	8.544790E-1	8.316090E-1	8.294828E-1	8.300783E-1	8.331829E-1	8.320099E-1	8.472098E-1	8.144640E-1	8.211272E-1	8.498253E-1	8.607993E-1	8.791871E-1	8.265350E-1	8.709556E-1	8.493127E-1	8.367139E-1	8.747999E-1	8.494040E-1	8.515775E-1	8.438820E-1	7.895574E-1	8.379648E-1	8.596549E-1	8.466517E-1	8.493780E-1	8.131493E-1	8.593912E-1	8.945077E-1	8.348186E-1	8.696140E-1	8.502633E-1	8.494381E-1	8.163124E-1	8.425751E-1	8.033585E-1	8.163415E-1	8.116049E-1	8.624867E-1	8.320654E-1	8.758774E-1	8.278611E-1	8.413917E-1	8.260113E-1	8.794542E-1	8.101009E-1	8.379140E-1	8.357406E-1	8.179996E-1	8.334886E-1	8.383866E-1	8.217948E-1	8.732214E-1	8.409098E-1	8.055672E-1	8.105735E-1	8.421965E-1	8.337795E-1	8.526764E-1	8.331530E-1	8.346544E-1	8.874951E-1	8.667970E-1	8.681136E-1	8.412272E-1	8.104098E-1	8.912626E-1	8.254356E-1	8.135244E-1	8.204187E-1	8.547001E-1	8.481060E-1	8.289188E-1	8.379610E-1	8.365373E-1	8.419546E-1	8.181538E-1	8.134453E-1	7.747072E-1	8.397690E-1	8.187628E-1	8.061806E-1	8.520538E-1	8.369683E-1	8.794333E-1	8.298302E-1	8.362903E-1	8.582225E-1	8.607369E-1	8.263004E-1	8.502111E-1	8.239526E-1	8.193718E-1	8.253390E-1	8.873386E-1	8.581507E-1	9.476612E-1	8.296592E-1	8.392833E-1	8.279123E-1	8.185868E-1	8.567554E-1	8.193278E-1	8.347548E-1	8.855236E-1	8.639890E-1	8.519657E-1	8.450144E-1	8.614067E-1	8.619879E-1	8.493993E-1	8.200627E-1	8.523478E-1	8.494172E-1	8.599563E-1	8.694329E-1	8.622986E-1	8.521834E-1	8.681890E-1	8.327819E-1	8.275663E-1	7.983969E-1	8.199100E-1	8.457528E-1	8.793590E-1	8.327780E-1	9.176215E-1	8.706777E-1	8.190276E-1	8.480747E-1	8.590766E-1	8.366687E-1	8.383492E-1	8.107267E-1	8.250274E-1	8.242961E-1	7.836389E-1	8.290067E-1
2.960050E+2	9.555836E-1	9.525472E-1	9.342165E-1	9.732403E-1	9.769449E-1	1.002494E+0	1.033283E+0	9.708451E-1	9.403303E-1	9.329620E-1	9.235036E-1	9.774031E-1	9.614600E-1	9.729829E-1	9.430888E-1	9.622303E-1	9.887789E-1	9.604142E-1	9.885761E-1	9.482775E-1	9.505654E-1	9.631605E-1	9.804512E-1	9.454626E-1	9.864456E-1	9.394047E-1	9.280337E-1	9.720415E-1	9.717529E-1	9.899863E-1	9.042727E-1	9.554918E-1	9.325726E-1	9.623281E-1	9.801217E-1	9.735890E-1	9.693770E-1	9.799250E-1	1.014806E+0	9.699757E-1	9.563946E-1	9.358522E-1	9.897662E-1	1.015467E+0	1.019700E+0	9.737955E-1	1.009391E+0	9.334674E-1	9.507492E-1	9.744745E-1	9.576805E-1	9.502865E-1	9.783025E-1	9.575712E-1	9.948760E-1	1.001478E+0	9.756721E-1	9.660624E-1	9.344480E-1	9.762721E-1	9.786096E-1	9.101598E-1	9.794488E-1	9.540750E-1	9.878594E-1	9.497309E-1	9.409990E-1	9.725312E-1	9.696990E-1	1.036359E+0	9.696160E-1	9.324764E-1	9.852115E-1	9.314835E-1	9.683986E-1	9.568027E-1	9.632390E-1	9.930422E-1	9.700631E-1	9.461144E-1	1.015258E+0	9.892251E-1	8.962861E-1	9.957432E-1	9.248707E-1	1.001400E+0	9.523760E-1	9.663967E-1	9.055623E-1	9.339089E-1	9.903290E-1	9.532211E-1	9.457436E-1	1.007951E+0	9.770720E-1	1.004415E+0	9.557185E-1	9.616161E-1	9.679522E-1	9.517478E-1	9.948592E-1	9.467045E-1	9.615891E-1	9.479464E-1	9.208180E-1	1.005675E+0	9.341521E-1	9.774054E-1	9.542943E-1	9.871523E-1	9.524580E-1	9.188864E-1	9.545261E-1	9.618737E-1	9.419077E-1	9.423721E-1	9.711968E-1	9.531311E-1	9.793932E-1	1.055948E+0	9.662910E-1	9.335214E-1	9.663013E-1	9.726481E-1	9.620425E-1	9.501443E-1	9.328697E-1	9.199527E-1	9.820062E-1	9.561885E-1	9.644435E-1	9.660155E-1	9.730025E-1	9.394734E-1	9.395997E-1	9.574404E-1	9.558921E-1	9.537199E-1	9.258837E-1	9.340694E-1	9.801302E-1	9.591483E-1	9.519334E-1	9.249633E-1	1.006403E+0	9.489453E-1	9.900241E-1	9.242232E-1	9.104572E-1	9.623990E-1	1.008132E+0	9.746705E-1	1.042481E+0	9.597451E-1	9.809698E-1	9.509825E-1	9.776012E-1	9.832862E-1	1.039162E+0	9.751821E-1	9.892687E-1	9.420267E-1	9.975919E-1	9.978630E-1	9.167220E-1	9.890607E-1	9.882643E-1	9.452633E-1	9.794158E-1	9.953982E-1	9.805609E-1	9.409844E-1
2.964990E+2	8.721266E-1	9.073410E-1	8.419803E-1	8.813771E-1	8.886386E-1	8.790712E-1	8.618588E-1	8.328522E-1	8.586507E-1	8.846163E-1	8.791684E-1	8.451294E-1	8.398748E-1	8.322083E-1	8.592767E-1	8.343195E-1	8.880996E-1	8.862783E-1	8.815803E-1	9.194715E-1	8.962133E-1	8.500819E-1	8.812820E-1	8.857949E-1	8.440665E-1	8.609019E-1	8.477359E-1	8.805794E-1	8.722606E-1	8.828485E-1	8.203795E-1	8.432399E-1	8.508247E-1	8.507681E-1	8.503555E-1	8.316465E-1	8.453984E-1	8.639510E-1	8.582950E-1	8.534153E-1	8.660700E-1	8.496486E-1	8.491742E-1	8.692553E-1	9.012532E-1	8.898415E-1	8.453068E-1	8.406886E-1	8.600662E-1	8.550255E-1	8.426287E-1	8.579202E-1	8.486511E-1	8.383079E-1	8.539341E-1	8.958448E-1	8.498378E-1	8.886848E-1	8.240781E-1	8.658499E-1	8.737581E-1	8.722538E-1	9.109796E-1	8.881325E-1	8.552861E-1	8.853479E-1	8.097942E-1	8.872649E-1	8.388179E-1	8.148843E-1	8.936919E-1	8.218517E-1	8.256497E-1	8.491262E-1	8.279370E-1	8.741187E-1	8.853940E-1	8.603052E-1	8.641347E-1	9.140315E-1	8.711894E-1	9.092655E-1	8.581959E-1	8.807516E-1	8.447937E-1	8.641019E-1	8.838014E-1	8.125226E-1	8.606779E-1	8.550780E-1	8.270743E-1	8.670705E-1	8.476044E-1	9.007248E-1	8.339762E-1	8.172600E-1	8.584692E-1	8.853885E-1	9.013796E-1	8.910855E-1	8.564020E-1	8.645608E-1	8.593072E-1	8.574829E-1	8.689514E-1	8.341496E-1	8.264806E-1	8.149327E-1	8.824059E-1	8.800273E-1	8.839900E-1	8.916820E-1	8.510158E-1	9.318741E-1	8.185806E-1	8.544681E-1	8.801812E-1	8.978573E-1	8.624053E-1	8.742936E-1	8.642075E-1	8.623649E-1	8.780460E-1	8.220088E-1	8.680663E-1	8.835803E-1	8.668196E-1	8.282360E-1	8.908750E-1	8.640091E-1	8.948207E-1	8.819357E-1	8.632740E-1	8.887044E-1	8.808877E-1	8.459393E-1	8.460724E-1	9.023619E-1	8.689756E-1	8.917619E-1	8.798824E-1	8.232162E-1	9.343573E-1	8.490227E-1	8.384292E-1	8.780632E-1	8.837351E-1	8.803769E-1	8.794446E-1	8.501967E-1	8.203158E-1	8.717651E-1	8.675302E-1	9.060030E-1	8.580972E-1	8.403928E-1	8.692862E-1	8.594552E-1	8.403876E-1	8.330277E-1	8.688653E-1	8.364906E-1	8.401207E-1	8.762412E-1	8.664399E-1	8.425587E-1	8.780815E-1	8.392449E-1	8.297202E-1	8.930623E-1	8.638814E-1	8.061440E-1
2.970020E+2	7.559805E-1	7.473350E-1	7.498389E-1	7.280313E-1	7.558255E-1	7.675751E-1	7.427685E-1	7.414406E-1	7.394246E-1	7.702225E-1	7.624396E-1	7.127905E-1	7.160010E-1	7.256915E-1	7.467813E-1	7.287137E-1	7.526426E-1	7.147442E-1	7.651809E-1	8.024982E-1	7.708991E-1	7.548075E-1	7.716951E-1	7.623162E-1	7.772137E-1	7.461068E-1	7.338983E-1	7.371742E-1	7.736826E-1	7.473198E-1	7.685235E-1	7.519600E-1	7.642272E-1	7.393557E-1	7.770000E-1	7.680413E-1	7.716225E-1	7.515832E-1	7.682015E-1	7.608249E-1	7.295543E-1	7.921959E-1	7.681799E-1	7.219797E-1	7.585010E-1	7.663226E-1	7.475939E-1	7.632145E-1	7.650969E-1	7.354282E-1	7.548281E-1	7.838206E-1	6.978806E-1	7.908644E-1	7.861150E-1	7.636185E-1	7.758586E-1	7.350254E-1	7.583885E-1	7.198704E-1	7.371859E-1	7.418653E-1	7.531563E-1	7.454339E-1	7.447793E-1	7.249116E-1	7.524115E-1	7.684447E-1	7.279627E-1	7.366775E-1	7.022449E-1	7.571994E-1	7.448189E-1	7.276992E-1	7.699491E-1	7.693800E-1	7.526422E-1	7.621629E-1	7.534998E-1	7.787449E-1	7.959103E-1	7.844581E-1	7.264363E-1	7.575718E-1	7.205696E-1	7.935378E-1	7.545670E-1	7.639791E-1	7.866462E-1	7.526918E-1	7.294617E-1	7.281855E-1	7.301835E-1	7.823899E-1	7.432287E-1	7.623210E-1	7.437410E-1	7.415902E-1	7.252160E-1	7.679114E-1	7.746726E-1	7.737735E-1	7.504355E-1	7.605185E-1	7.650030E-1	7.591258E-1	7.595648E-1	7.050788E-1	7.427839E-1	7.960328E-1	7.485512E-1	7.760772E-1	7.681793E-1	7.557200E-1	8.157232E-1	7.201912E-1	7.298017E-1	7.639917E-1	7.636492E-1	7.415742E-1	7.406532E-1	7.599520E-1	7.729848E-1	7.373100E-1	7.692573E-1	7.816518E-1	7.927662E-1	7.268002E-1	7.480810E-1	7.445411E-1	7.728220E-1	7.493238E-1	7.011456E-1	7.711464E-1	7.574523E-1	7.617718E-1	7.729577E-1	7.547337E-1	7.607015E-1	7.263792E-1	7.579734E-1	7.670372E-1	8.096799E-1	7.943398E-1	7.671689E-1	7.764531E-1	8.049201E-1	7.385797E-1	7.751027E-1	7.495760E-1	8.162023E-1	7.793609E-1	7.877491E-1	7.540564E-1	7.890918E-1	7.408687E-1	7.290026E-1	7.282154E-1	7.503759E-1	7.521976E-1	7.481525E-1	7.630295E-1	7.804957E-1	7.495457E-1	7.390049E-1	7.756296E-1	7.745992E-1	7.415811E-1	7.519290E-1	7.553051E-1	8.204871E-1	6.460719E-1
2.975020E+2	7.955415E-1	7.578861E-1	8.308507E-1	8.403102E-1	8.539578E-1	8.049064E-1	7.597967E-1	8.054416E-1	8.010160E-1	8.196208E-1	7.827742E-1	8.179646E-1	7.631291E-1	8.272376E-1	8.004361E-1	8.416888E-1	8.350858E-1	8.389121E-1	7.909899E-1	8.297964E-1	7.844596E-1	7.901797E-1	8.091322E-1	7.744140E-1	8.174806E-1	8.409926E-1	8.192458E-1	8.136345E-1	7.809706E-1	7.831726E-1	7.718176E-1	8.056932E-1	7.887997E-1	7.943862E-1	7.985646E-1	7.659270E-1	8.030270E-1	8.088592E-1	7.715401E-1	7.819444E-1	7.991433E-1	7.583144E-1	7.735261E-1	7.974109E-1	7.975131E-1	7.858559E-1	7.861176E-1	7.902842E-1	7.552761E-1	8.095739E-1	8.077186E-1	8.436017E-1	8.450770E-1	7.719614E-1	8.185909E-1	7.937144E-1	8.010809E-1	7.477674E-1	7.833487E-1	7.979407E-1	7.955731E-1	8.153203E-1	7.677241E-1	7.982773E-1	8.020816E-1	8.213724E-1	8.111956E-1	8.215333E-1	8.049362E-1	8.214350E-1	7.763321E-1	8.200574E-1	7.696746E-1	7.714565E-1	7.734000E-1	7.851971E-1	8.144823E-1	7.800386E-1	7.915556E-1	7.776589E-1	8.175990E-1	8.166761E-1	7.704190E-1	7.939948E-1	7.837873E-1	8.124968E-1	7.814643E-1	8.251750E-1	8.221326E-1	7.855206E-1	7.641565E-1	8.037100E-1	7.771394E-1	8.434458E-1	7.683660E-1	7.819806E-1	7.838274E-1	8.309568E-1	7.736022E-1	8.020747E-1	7.727427E-1	8.182218E-1	7.874946E-1	8.099863E-1	7.748475E-1	7.575276E-1	8.060996E-1	8.144286E-1	8.151458E-1	7.766851E-1	7.960058E-1	7.926173E-1	7.855492E-1	8.206008E-1	8.111667E-1	7.821977E-1	8.264598E-1	7.824155E-1	8.115735E-1	7.870336E-1	8.137212E-1	7.762443E-1	7.933122E-1	8.388430E-1	7.952590E-1	8.337363E-1	8.232684E-1	8.235745E-1	8.234253E-1	8.142068E-1	8.189016E-1	7.977400E-1	7.866537E-1	8.409480E-1	8.068411E-1	7.874540E-1	7.636290E-1	7.634978E-1	8.152849E-1	7.707416E-1	7.943739E-1	8.220351E-1	7.810940E-1	7.949532E-1	7.687045E-1	8.147828E-1	8.275591E-1	8.003191E-1	8.242681E-1	7.905430E-1	7.774997E-1	7.940178E-1	8.037699E-1	8.146706E-1	8.157215E-1	7.993391E-1	7.858638E-1	7.673354E-1	8.120569E-1	7.868881E-1	7.898772E-1	8.286559E-1	8.400247E-1	8.119293E-1	7.974135E-1	8.454679E-1	8.272486E-1	8.025053E-1	7.774954E-1	8.372101E-1	8.537645E-1	7.803305E-1
2.980040E+2	9.652112E-1	9.910630E-1	1.009981E+0	9.472356E-1	9.475753E-1	9.406129E-1	9.695676E-1	9.176959E-1	9.922296E-1	9.598561E-1	9.720183E-1	9.787749E-1	9.905751E-1	9.881476E-1	9.438479E-1	9.430555E-1	9.927674E-1	9.528673E-1	9.536945E-1	9.824388E-1	1.001964E+0	9.865239E-1	9.913830E-1	9.971189E-1	9.739240E-1	9.925508E-1	9.838963E-1	9.576262E-1	1.009792E+0	9.564768E-1	9.910508E-1	9.629791E-1	9.390067E-1	9.725947E-1	9.566092E-1	9.333528E-1	9.788158E-1	9.938356E-1	9.556575E-1	9.625951E-1	9.999333E-1	9.546196E-1	9.865082E-1	9.651597E-1	9.960642E-1	9.931231E-1	9.680337E-1	9.632328E-1	9.194009E-1	9.470604E-1	9.431499E-1	9.752464E-1	9.045708E-1	9.521954E-1	1.004893E+0	9.805025E-1	1.023436E+0	1.004944E+0	9.737694E-1	9.746966E-1	9.856273E-1	9.477590E-1	9.661986E-1	9.600995E-1	9.811766E-1	9.855530E-1	9.591509E-1	9.692517E-1	9.509594E-1	9.558434E-1	9.588531E-1	1.008790E+0	9.708170E-1	9.729390E-1	9.735818E-1	9.630957E-1	9.705688E-1	9.426803E-1	9.665751E-1	9.597510E-1	9.600771E-1	9.705474E-1	9.973482E-1	9.889640E-1	9.915630E-1	9.507489E-1	9.920294E-1	9.978127E-1	9.445413E-1	1.008286E+0	1.021461E+0	1.012201E+0	9.446237E-1	9.896141E-1	9.879233E-1	1.000337E+0	9.615603E-1	9.731778E-1	9.511902E-1	9.814749E-1	9.900353E-1	9.308289E-1	9.829236E-1	9.680730E-1	9.787792E-1	9.690623E-1	9.420309E-1	9.949759E-1	9.738450E-1	9.991280E-1	9.558055E-1	9.275660E-1	9.790663E-1	9.918385E-1	9.639812E-1	9.634493E-1	9.467799E-1	9.743845E-1	9.943373E-1	1.010156E+0	9.956199E-1	1.002525E+0	9.646073E-1	9.445171E-1	9.343213E-1	9.638352E-1	1.002150E+0	9.621749E-1	9.581289E-1	9.737097E-1	9.232398E-1	9.422801E-1	1.000302E+0	9.777348E-1	1.000860E+0	9.808129E-1	9.711498E-1	9.943449E-1	9.875283E-1	9.570240E-1	9.238715E-1	9.672096E-1	9.765110E-1	9.465690E-1	9.936297E-1	9.741452E-1	9.824475E-1	9.778506E-1	9.215381E-1	9.283660E-1	9.481892E-1	1.015989E+0	9.479668E-1	9.671014E-1	9.864775E-1	9.763808E-1	9.974977E-1	9.920687E-1	9.500271E-1	9.954183E-1	9.489967E-1	9.799897E-1	9.630766E-1	9.068895E-1	9.881368E-1	9.646003E-1	9.440250E-1	9.448712E-1	9.737161E-1	9.723072E-1	9.840928E-1	9.518227E-1
2.985020E+2	1.017311E+0	1.052999E+0	1.098253E+0	1.071646E+0	1.050263E+0	1.078148E+0	1.090798E+0	1.168802E+0	1.083128E+0	1.092192E+0	1.116349E+0	1.093092E+0	1.034519E+0	1.089900E+0	1.123310E+0	1.127006E+0	1.077873E+0	1.092553E+0	1.110595E+0	1.069272E+0	1.074928E+0	1.092078E+0	1.077296E+0	1.102596E+0	1.091394E+0	1.081146E+0	1.121069E+0	1.066530E+0	1.113493E+0	1.121644E+0	1.113194E+0	1.046662E+0	1.104604E+0	1.067573E+0	1.121220E+0	1.135496E+0	1.094484E+0	1.082906E+0	1.114888E+0	1.112061E+0	1.073107E+0	1.112687E+0	1.053411E+0	1.183127E+0	1.086417E+0	1.096736E+0	1.146617E+0	1.084663E+0	1.117184E+0	1.113645E+0	1.078933E+0	1.056014E+0	1.070466E+0	1.063396E+0	1.100541E+0	1.081267E+0	1.069690E+0	1.105251E+0	1.110078E+0	1.132209E+0	1.073553E+0	1.079929E+0	1.132958E+0	1.088847E+0	1.081543E+0	1.095040E+0	1.089822E+0	1.110210E+0	1.101490E+0	1.096029E+0	1.106384E+0	1.061166E+0	1.077494E+0	1.083782E+0	1.052294E+0	1.107425E+0	1.103584E+0	1.101024E+0	1.065353E+0	1.062015E+0	1.093911E+0	1.060972E+0	1.070871E+0	1.108898E+0	1.035878E+0	1.053627E+0	1.104321E+0	1.082013E+0	1.108252E+0	1.071044E+0	1.098263E+0	1.108089E+0	1.080190E+0	1.060757E+0	1.125395E+0	1.086187E+0	1.044741E+0	1.096996E+0	1.114258E+0	1.117583E+0	1.084608E+0	1.066956E+0	1.059292E+0	1.057947E+0	1.147878E+0	1.140636E+0	1.098766E+0	1.103968E+0	1.065764E+0	1.088819E+0	1.110520E+0	1.082207E+0	1.101758E+0	1.060699E+0	1.094346E+0	1.060518E+0	1.097458E+0	1.090000E+0	1.065935E+0	1.116937E+0	1.099211E+0	1.092735E+0	1.070725E+0	1.098384E+0	1.113811E+0	1.087558E+0	1.061904E+0	1.049104E+0	1.102258E+0	1.030850E+0	1.130109E+0	1.050896E+0	1.089564E+0	1.096702E+0	1.074017E+0	1.086042E+0	1.091885E+0	1.110765E+0	1.081207E+0	1.051794E+0	1.056462E+0	1.073363E+0	1.089875E+0	1.076024E+0	1.116555E+0	1.100412E+0	1.065511E+0	1.085896E+0	1.113490E+0	1.095263E+0	1.085620E+0	1.062203E+0	1.141232E+0	1.122221E+0	1.107950E+0	1.063402E+0	1.085742E+0	1.074954E+0	1.117971E+0	1.047317E+0	1.103088E+0	1.085346E+0	1.095892E+0	1.132634E+0	1.066066E+0	1.132985E+0	1.105558E+0	1.117090E+0	1.063025E+0	1.084702E+0	1.086740E+0	1.180121E+0
2.990010E+2	1.099543E+0	1.099220E+0	9.816217E-1	1.102864E+0	1.085920E+0	1.088089E+0	1.086301E+0	1.047620E+0	1.089379E+0	1.064265E+0	1.058212E+0	1.097920E+0	1.103861E+0	1.085642E+0	1.050804E+0	1.051737E+0	1.071138E+0	1.050769E+0	1.079355E+0	1.015126E+0	1.096705E+0	1.046767E+0	1.055765E+0	1.062848E+0	1.040420E+0	1.039662E+0	1.069728E+0	1.095449E+0	1.037109E+0	1.066045E+0	1.080845E+0	1.098039E+0	1.111167E+0	1.071711E+0	1.040681E+0	1.078383E+0	1.077218E+0	1.062967E+0	1.117851E+0	1.074338E+0	1.075164E+0	1.102463E+0	1.078834E+0	9.886194E-1	1.034392E+0	1.071712E+0	1.005288E+0	1.078088E+0	1.054121E+0	1.064625E+0	1.090532E+0	1.040078E+0	1.066919E+0	1.115982E+0	1.029507E+0	1.011726E+0	1.061027E+0	1.094357E+0	1.068692E+0	1.064431E+0	1.111422E+0	1.041641E+0	1.027817E+0	1.113515E+0	1.064884E+0	1.041009E+0	1.063870E+0	1.065757E+0	1.030150E+0	1.062028E+0	1.093829E+0	1.064882E+0	1.075259E+0	1.100336E+0	1.132705E+0	1.083076E+0	1.044302E+0	1.097264E+0	1.100588E+0	1.095325E+0	1.073518E+0	1.053623E+0	1.047736E+0	1.059081E+0	1.104845E+0	1.112869E+0	1.082708E+0	1.074905E+0	1.057171E+0	1.067932E+0	1.035370E+0	1.104971E+0	1.063393E+0	1.040521E+0	1.056335E+0	1.065011E+0	1.119946E+0	1.086013E+0	1.082509E+0	1.101272E+0	1.072302E+0	1.110206E+0	1.072852E+0	1.097916E+0	1.083563E+0	1.059033E+0	1.035011E+0	1.053852E+0	1.066683E+0	1.056225E+0	1.075051E+0	1.110559E+0	1.051596E+0	1.040673E+0	1.074476E+0	1.042704E+0	1.045665E+0	1.086281E+0	1.074297E+0	1.047657E+0	1.042728E+0	1.069413E+0	1.084280E+0	1.025853E+0	1.060131E+0	1.065323E+0	1.096875E+0	1.091663E+0	1.068873E+0	1.084339E+0	1.097019E+0	1.101886E+0	1.067110E+0	1.063244E+0	1.055355E+0	1.058544E+0	1.092100E+0	1.032575E+0	1.052319E+0	1.031412E+0	1.150883E+0	1.069021E+0	1.070338E+0	1.080080E+0	1.066582E+0	1.106913E+0	1.020239E+0	1.043916E+0	1.051807E+0	1.089539E+0	1.084207E+0	1.074565E+0	1.051818E+0	1.024177E+0	1.036150E+0	1.103042E+0	1.022456E+0	1.065196E+0	1.112358E+0	1.120188E+0	1.046799E+0	1.073090E+0	1.055584E+0	1.036912E+0	1.099746E+0	9.981151E-1	1.075113E+0	1.051695E+0	1.079140E+0	1.102823E+0	1.015219E+0	9.423955E-1
2.995040E+2	1.026636E+0	1.003605E+0	9.939618E-1	9.613085E-1	9.770833E-1	9.910306E-1	1.000363E+0	9.976481E-1	9.755814E-1	9.589580E-1	9.970686E-1	9.446489E-1	9.978627E-1	9.741011E-1	9.696243E-1	9.611354E-1	9.813113E-1	1.000040E+0	9.771533E-1	9.709108E-1	9.852759E-1	1.021002E+0	1.015531E+0	9.943162E-1	1.015328E+0	9.933857E-1	9.597137E-1	9.756714E-1	9.530026E-1	9.838778E-1	9.700391E-1	9.674165E-1	9.812876E-1	1.040813E+0	9.743081E-1	1.003168E+0	9.767529E-1	9.678372E-1	1.014862E+0	9.416884E-1	9.885960E-1	9.442800E-1	9.839548E-1	1.007918E+0	1.008702E+0	9.507948E-1	1.023562E+0	1.005330E+0	1.021788E+0	9.635141E-1	9.445611E-1	9.863434E-1	1.003566E+0	9.811360E-1	9.607826E-1	1.010942E+0	9.844402E-1	9.559316E-1	9.897582E-1	9.780635E-1	9.558834E-1	9.976270E-1	9.736381E-1	9.482844E-1	9.786722E-1	9.580921E-1	9.680982E-1	9.543373E-1	1.021087E+0	1.016220E+0	9.926545E-1	9.856664E-1	9.849472E-1	9.983627E-1	9.784331E-1	9.604411E-1	9.768704E-1	9.853140E-1	9.890884E-1	9.995118E-1	9.910034E-1	9.879062E-1	9.971569E-1	9.682035E-1	9.784912E-1	9.816368E-1	9.979613E-1	9.659583E-1	9.945152E-1	9.919446E-1	9.836139E-1	9.571132E-1	1.038242E+0	1.007101E+0	9.841850E-1	9.849971E-1	1.014800E+0	9.597102E-1	1.010305E+0	9.757259E-1	1.005549E+0	9.358423E-1	9.981526E-1	9.795841E-1	1.007022E+0	1.010322E+0	1.002221E+0	9.903960E-1	1.009257E+0	9.734375E-1	1.020722E+0	9.845962E-1	1.003854E+0	1.015382E+0	9.513379E-1	1.013311E+0	9.936366E-1	9.896025E-1	9.713178E-1	9.936843E-1	9.906655E-1	9.822988E-1	9.900186E-1	9.784975E-1	9.474919E-1	9.995287E-1	9.652397E-1	9.661689E-1	9.606888E-1	1.015659E+0	9.633464E-1	1.029682E+0	9.753013E-1	9.634620E-1	9.955766E-1	9.764545E-1	1.006990E+0	9.996178E-1	9.949474E-1	1.042809E+0	9.821247E-1	9.926126E-1	1.002394E+0	1.017203E+0	9.384020E-1	9.276766E-1	1.003299E+0	1.021486E+0	1.019677E+0	1.001335E+0	1.004003E+0	9.693731E-1	9.941039E-1	1.000986E+0	9.524742E-1	9.868554E-1	9.971424E-1	9.867501E-1	9.616584E-1	9.516796E-1	1.013828E+0	9.534924E-1	9.861319E-1	1.020488E+0	9.654233E-1	9.918419E-1	9.693036E-1	9.580729E-1	1.029347E+0	9.586974E-1	9.930545E-1	9.598482E-1
3.000040E+2	1.095758E+0	1.095227E+0	1.085332E+0	1.076636E+0	1.085201E+0	1.097213E+0	1.093173E+0	1.062793E+0	1.058666E+0	1.105109E+0	1.073578E+0	1.067600E+0	1.110053E+0	1.034973E+0	1.111978E+0	1.075378E+0	1.041824E+0	1.064860E+0	1.088212E+0	1.132456E+0	1.056668E+0	1.063449E+0	1.050893E+0	1.068708E+0	1.061453E+0	1.052263E+0	1.046348E+0	1.091089E+0	1.105633E+0	1.088784E+0	1.073053E+0	1.119211E+0	1.075135E+0	1.052921E+0	1.108618E+0	1.083673E+0	1.069702E+0	1.083595E+0	1.025201E+0	1.127373E+0	1.064057E+0	1.127637E+0	1.123766E+0	1.057766E+0	1.076912E+0	1.101779E+0	1.070381E+0	1.078402E+0	1.132230E+0	1.101581E+0	1.135105E+0	1.098717E+0	1.109401E+0	1.115329E+0	1.085685E+0	1.121848E+0	1.060326E+0	1.091749E+0	1.074353E+0	1.052659E+0	1.077941E+0	1.117724E+0	1.131663E+0	1.090977E+0	1.091643E+0	1.098933E+0	1.107863E+0	1.078910E+0	1.091378E+0	1.048445E+0	1.071947E+0	1.059438E+0	1.121808E+0	1.073125E+0	1.089587E+0	1.100765E+0	1.090193E+0	1.093679E+0	1.086839E+0	1.105738E+0	1.063891E+0	1.110275E+0	1.116468E+0	1.080858E+0	1.105435E+0	1.088622E+0	1.041516E+0	1.054136E+0	1.073388E+0	1.075274E+0	1.097135E+0	1.013916E+0	1.096411E+0	1.058561E+0	1.077797E+0	1.081488E+0	1.075126E+0	1.053145E+0	1.068135E+0	1.021870E+0	1.074763E+0	1.137945E+0	1.099285E+0	1.086494E+0	1.007911E+0	1.063418E+0	1.115871E+0	1.042379E+0	1.069305E+0	1.105705E+0	1.041896E+0	1.102454E+0	1.078176E+0	1.070807E+0	1.104692E+0	1.137819E+0	1.090001E+0	1.077317E+0	1.082539E+0	1.044532E+0	1.058054E+0	1.076784E+0	1.097057E+0	1.113905E+0	1.148986E+0	1.050019E+0	1.050563E+0	1.107315E+0	1.086626E+0	1.081236E+0	1.067384E+0	1.077516E+0	1.081069E+0	1.057910E+0	1.067349E+0	1.110693E+0	1.074247E+0	1.099200E+0	1.068714E+0	1.146219E+0	1.092284E+0	1.075758E+0	1.079787E+0	1.085171E+0	1.116126E+0	1.076070E+0	1.100945E+0	1.070533E+0	1.069221E+0	1.094953E+0	1.100480E+0	1.083853E+0	1.061109E+0	1.070844E+0	1.101226E+0	1.070980E+0	1.111298E+0	1.113696E+0	1.045928E+0	1.098509E+0	1.097410E+0	1.079426E+0	1.059291E+0	1.091148E+0	1.083214E+0	1.066990E+0	1.078752E+0	1.125765E+0	1.077277E+0	1.044260E+0	1.067130E+0	1.185483E+0
