Photon Energy (eV)	#1	#2	#3	#4	#5	#6	#7	#8	#9	#10	#11	#12	#13	#14	#15	#16	#17	#18	#19	#20	#21	#22	#23	#24	#25	#26	#27	#28	#29	#30	#31	#32	#33	#34	#35	#36	#37	#38	#39	#40	#41	#42	#43	#44	#45	#46	#47	#48	#49	#50	#51	#52	#53	#54	#55	#56	#57	#58	#59	#60	#61	#62	#63	#64	#65	#66	#67	#68	#69	#70	#71	#72	#73	#74	#75	#76	#77	#78	#79	#80	#81	#82	#83	#84	#85	#86	#87	#88	#89	#90	#91	#92	#93	#94	#95	#96	#97	#98	#99	#100	#101	#102	#103	#104	#105	#106	#107	#108	#109	#110	#111	#112	#113	#114	#115	#116	#117	#118	#119	#120	#121	#122	#123	#124	#125	#126	#127	#128	#129	#130	#131	#132	#133	#134	#135	#136	#137	#138	#139	#140	#141	#142	#143	#144	#145	#146	#147	#148	#149	#150	#151	#152	#153	#154	#155	#156	#157	#158	#159	#160	#161	#162	#163	#164	#165	#166	#167	#168	#169	#170	#171	#172	
2.790030E+2	-5.587997E-3	-1.134868E-3	-3.069603E-3	-3.163535E-4	-2.769818E-3	-7.171909E-3	-4.796106E-3	-2.161022E-3	-4.118807E-3	-6.194555E-3	-2.034910E-3	2.754466E-3	-5.722879E-3	-2.106396E-3	9.545558E-4	-3.932647E-3	5.677707E-4	-1.293133E-3	1.038159E-3	-7.011040E-3	-3.406434E-3	-5.418418E-4	4.779948E-4	-4.813202E-3	-5.691813E-3	4.651464E-3	-1.457264E-3	-7.172111E-3	-1.350439E-4	4.839756E-3	2.770058E-4	3.478141E-3	-6.287290E-3	2.420602E-3	-3.524894E-4	-1.604876E-5	-9.009853E-4	2.067895E-3	-3.362570E-3	-2.461382E-3	-8.351813E-4	-3.340374E-3	-6.179889E-4	-3.022787E-3	3.054309E-3	-1.984243E-3	-1.511743E-3	-3.624363E-3	-7.170736E-4	-4.118858E-3	-5.231343E-4	-8.543230E-3	2.460512E-3	-7.799588E-3	-6.850515E-4	-2.249261E-3	-1.526778E-3	-5.163450E-3	2.913138E-4	-4.021739E-3	3.508732E-3	-2.405085E-4	-7.459321E-3	-9.200353E-3	-2.814359E-3	5.095600E-3	-3.177446E-3	1.400826E-3	-8.965573E-4	-9.414254E-3	-5.444879E-3	-4.139523E-3	5.510324E-3	-1.834611E-3	-5.960821E-3	3.142578E-3	3.462660E-3	-5.626469E-3	1.837064E-4	-7.326371E-3	-2.106276E-3	-3.526875E-3	-5.406343E-3	-3.816189E-3	5.540208E-4	-8.668383E-4	5.607932E-3	-1.409557E-3	-4.184639E-3	4.539443E-3	4.527167E-3	1.943190E-3	-8.505871E-4	-7.067995E-3	-9.774608E-3	1.019291E-3	-1.132354E-3	4.478851E-4	1.591768E-3	2.853995E-3	2.298515E-3	-3.600111E-3	-3.714905E-3	4.817775E-3	1.010522E-3	1.662266E-3	-7.249510E-5	-8.990256E-4	5.348312E-4	-1.260158E-3	-4.521459E-3	-1.607065E-3	-4.559263E-3	8.885428E-5	-3.340391E-3	-1.048124E-3	-3.960193E-3	-8.243176E-3	-1.764863E-3	-4.979830E-4	2.855583E-3	-3.354936E-3	3.137830E-3	-3.242753E-3	-2.822070E-6	-4.794488E-3	4.525140E-4	-3.307266E-3	-4.955668E-3	-5.015184E-3	-4.887109E-3	-6.848020E-3	3.340498E-4	-6.231440E-3	5.396545E-3	2.220663E-3	-2.008696E-3	-4.398416E-3	4.269717E-3	-7.430014E-3	3.561055E-3	-3.851938E-3	2.444844E-3	-9.207648E-3	-1.260543E-3	-9.364489E-4	6.465859E-3	3.593956E-3	2.541624E-4	-4.596947E-3	-1.395979E-3	6.650586E-3	-1.426415E-4	-8.109695E-3	-3.420708E-3	-4.241451E-3	3.864786E-4	2.730811E-3	-5.384097E-3	-7.395893E-3	-3.403700E-3	3.481874E-3	-6.800819E-3	-4.901068E-3	4.390187E-3	-1.814795E-3	-2.768804E-3	-4.824443E-5	-1.117686E-2	-5.277901E-3	-3.263741E-5	2.295575E-3
2.795020E+2	-8.065516E-4	-1.207901E-2	4.385052E-4	-1.036797E-2	-5.446750E-3	-2.232325E-3	-4.428942E-3	3.087237E-4	-4.537404E-3	-6.526192E-3	1.382233E-3	7.424229E-3	-3.017810E-3	-1.306810E-3	-5.299804E-3	-2.165160E-3	-4.999989E-3	5.121759E-3	-3.114429E-3	2.107632E-3	-1.897832E-3	-7.026825E-3	5.936213E-3	-3.866115E-3	-2.446992E-3	-1.841876E-3	-6.995437E-3	-7.499010E-3	1.109725E-4	-5.565639E-5	-6.187549E-3	6.956477E-4	-1.236614E-4	-7.429271E-3	-3.444368E-3	2.942929E-3	-1.001054E-2	-5.359669E-3	6.053258E-3	-6.288614E-3	-5.230113E-4	-3.764590E-3	-4.032908E-3	-2.594095E-3	-6.199608E-4	-7.207762E-3	-7.135257E-3	-6.084681E-3	-1.895432E-3	-3.719141E-3	-9.161852E-4	-7.280874E-3	2.702184E-3	-4.701216E-3	-1.838228E-3	-1.980714E-3	3.153500E-3	1.216513E-3	-1.456799E-4	-1.265505E-2	-3.323544E-3	-3.923746E-3	4.380233E-4	-3.081736E-3	1.239288E-3	-6.763809E-3	-1.289015E-4	-3.410247E-3	3.425069E-3	-6.290709E-3	4.265124E-4	-6.866749E-3	5.742318E-4	-7.573322E-3	-1.986930E-3	-6.015099E-3	3.626570E-3	-1.104062E-3	-5.916319E-3	2.891646E-3	1.141213E-3	4.078338E-3	-1.765557E-3	-1.780901E-3	-1.459827E-2	2.627603E-3	-5.089041E-3	2.943352E-3	-5.313056E-3	-4.194687E-3	-5.129917E-3	-6.983863E-3	-5.646872E-4	-9.393292E-4	4.398251E-3	-7.277642E-3	-3.598686E-3	-5.130018E-3	7.070297E-3	-2.026145E-3	-1.032007E-3	-2.550471E-3	-4.793115E-3	-5.103365E-3	-2.588820E-4	-3.178981E-3	-1.232824E-3	-5.286007E-4	-3.269644E-3	1.547295E-3	-2.950630E-3	1.588814E-3	4.872642E-3	2.613566E-3	6.850275E-3	2.757939E-4	-5.216924E-3	3.903705E-3	-3.467193E-3	2.944561E-3	7.351582E-4	-4.408705E-3	-1.230687E-3	1.277745E-3	9.730492E-4	-2.544533E-3	-6.122247E-4	-3.027276E-3	-4.546955E-3	-6.096714E-3	6.483707E-3	3.215523E-3	1.224922E-3	-5.821836E-3	-7.913209E-3	-3.472084E-3	-4.041589E-3	1.945943E-3	-8.044971E-3	-5.027029E-3	5.789741E-4	3.654418E-3	-4.355213E-3	3.680985E-3	-1.652475E-3	-4.399076E-3	-4.800592E-3	-1.255715E-3	-6.819171E-3	1.469095E-3	-6.061120E-3	-5.358725E-3	-2.788918E-3	1.158514E-3	3.520190E-3	-6.851566E-3	-1.414133E-3	4.174073E-4	4.165459E-4	-2.734230E-3	-1.285687E-2	-5.160251E-3	-1.966052E-3	1.985997E-3	1.747179E-3	1.229241E-3	-3.146643E-3	-3.200519E-3	3.287305E-3	-7.860735E-4	1.404185E-3	-7.266133E-3
2.800030E+2	-4.263014E-3	1.621491E-4	-2.656879E-3	3.516241E-3	1.245498E-3	-8.311823E-3	3.900929E-4	-6.196863E-3	2.638734E-3	-5.815528E-3	-6.258615E-3	-4.250246E-3	-7.899165E-3	-2.491424E-3	5.470368E-4	-1.458163E-3	1.593396E-3	-2.992921E-4	-1.226898E-3	-1.333414E-3	-1.897824E-3	-6.354844E-3	-3.987894E-3	-5.252054E-3	-4.586445E-3	-3.340318E-3	-3.116590E-3	-5.864349E-3	-2.456149E-3	2.487417E-3	-2.877112E-3	-4.616465E-3	1.306917E-3	4.631727E-3	-1.405810E-3	-3.060866E-3	1.265837E-3	-1.561448E-3	-4.395886E-3	8.280246E-3	-5.019125E-3	1.891115E-3	-2.553551E-3	-7.133033E-3	2.593654E-3	-7.207770E-3	4.589471E-3	1.236123E-4	-4.226366E-3	3.926377E-4	-4.384358E-3	5.857557E-3	-1.114947E-3	-6.058177E-3	-4.691479E-3	7.043263E-3	-3.695726E-3	5.461029E-4	1.311038E-3	1.443271E-4	1.615445E-3	-5.243088E-3	6.714065E-3	4.965045E-4	1.971869E-3	-1.212906E-2	-1.488867E-3	2.639642E-3	-1.326440E-3	5.211051E-3	-2.032694E-3	-5.308375E-3	-1.624983E-3	-6.811517E-3	1.419234E-4	-4.424770E-3	-6.863862E-3	-5.353308E-3	-2.744734E-3	6.690155E-3	-3.270394E-3	-4.481643E-3	8.104034E-3	-9.667630E-4	-6.940938E-3	-2.565357E-3	-2.534536E-3	1.572330E-3	1.457580E-3	2.700665E-3	-4.364489E-3	7.118435E-4	1.215495E-4	-2.238681E-3	-4.794971E-3	5.559987E-3	-2.887230E-3	-1.436028E-3	-9.217342E-3	-3.768994E-3	-1.032007E-3	-6.010761E-3	1.288963E-4	-3.087756E-3	1.344506E-3	-9.728599E-4	-2.683168E-3	-5.127508E-3	-3.269619E-3	6.013682E-3	-2.305122E-3	1.588760E-3	-6.767985E-3	-3.269253E-3	-1.678397E-3	-6.785207E-3	3.389746E-4	-3.435827E-3	5.878761E-3	3.718165E-3	-1.126724E-2	-3.664885E-3	-4.482784E-4	-1.980273E-3	-1.750346E-3	1.330838E-3	-1.889867E-3	-2.327312E-3	-4.546932E-3	2.503529E-3	1.031948E-3	-2.874766E-3	-1.110986E-2	2.852190E-3	1.942130E-4	-5.275724E-4	-4.818566E-3	1.107469E-3	-4.102124E-3	-7.747401E-3	-1.147627E-2	5.629753E-3	-1.551047E-3	3.691649E-4	-3.077842E-3	-7.420926E-3	-8.912417E-3	-2.987748E-3	1.946369E-3	-2.085204E-3	3.834602E-3	-1.052593E-3	-7.158854E-3	-4.710549E-3	-4.437519E-3	-3.068761E-3	4.701041E-3	-3.351029E-3	-3.903094E-3	-8.471670E-3	-2.311483E-3	3.246289E-5	-4.903657E-3	-2.105351E-3	1.747133E-3	2.587152E-3	-3.855074E-3	-4.790805E-4	-6.574632E-3	-7.860808E-4	-5.551586E-4	-4.230663E-3
2.805050E+2	1.215542E-2	-5.958414E-3	4.385335E-4	4.515177E-5	5.018862E-4	6.886914E-3	5.897596E-3	-1.859824E-3	1.203487E-3	-5.104883E-3	-3.711638E-3	-4.979905E-3	7.965225E-3	-1.899100E-3	-5.160556E-4	-7.511828E-4	4.523777E-3	-7.075630E-3	-4.372757E-3	-2.193648E-3	-1.255850E-3	-2.994687E-3	-1.652779E-3	3.756411E-3	-1.733838E-3	-4.838741E-3	2.055262E-3	2.308943E-3	-4.381468E-3	-1.962914E-3	-1.221874E-3	6.956292E-4	-3.700263E-3	-7.429234E-3	-3.444405E-3	2.085248E-3	6.025180E-4	-3.460595E-3	-4.395878E-3	-2.126081E-3	-2.021722E-3	5.425942E-3	-4.032953E-3	4.970722E-3	-6.199294E-4	3.767741E-3	-2.575655E-3	-1.945848E-3	-1.118512E-3	5.874915E-3	-2.303449E-3	4.311861E-3	-6.458921E-3	-2.665789E-3	-3.978188E-3	-6.492673E-3	-3.695746E-3	-7.947008E-4	-2.330684E-3	-4.373137E-3	-9.673673E-3	-1.944646E-3	-1.444773E-3	3.359002E-3	5.067070E-4	-7.279493E-4	-4.208786E-3	4.683126E-5	2.746266E-3	4.750353E-4	-3.877128E-3	7.158981E-3	-6.756491E-3	-2.240869E-3	2.980402E-3	4.322060E-3	-2.929968E-3	-5.960295E-3	-2.110414E-3	-8.503949E-3	3.347001E-3	5.395244E-3	-1.765536E-3	-9.667829E-4	2.804788E-3	-7.109200E-3	-6.186783E-4	4.999860E-3	2.962124E-3	-2.126092E-3	-2.833667E-3	-3.905572E-3	1.493856E-3	5.557452E-3	-3.481640E-3	-3.711637E-3	2.092777E-3	-3.652410E-3	7.070311E-3	-2.897596E-3	3.753070E-4	-4.626639E-3	2.238376E-3	-9.134472E-3	-2.664016E-3	-2.443604E-3	2.175605E-4	-5.285586E-4	2.826544E-3	4.099477E-3	9.226069E-4	-4.998175E-3	3.954923E-4	-1.798570E-3	9.457873E-4	-6.785186E-3	-1.248430E-3	-1.967903E-3	4.543615E-3	6.237061E-4	7.136398E-3	7.980763E-4	-6.707585E-3	-3.609270E-3	-3.792876E-3	3.901379E-5	1.943098E-3	4.724903E-4	2.350104E-3	-2.969360E-3	1.810730E-3	7.565786E-3	-6.998303E-3	2.129376E-3	1.545500E-3	-3.472120E-3	-4.041599E-3	5.299813E-3	-8.044971E-3	-2.306652E-3	1.847943E-3	1.679051E-3	-2.953134E-3	2.025027E-3	-5.215822E-3	-5.910001E-3	-3.978238E-3	2.208324E-3	1.215919E-3	-1.374339E-3	3.127743E-3	-6.794102E-3	4.494419E-3	2.625839E-3	3.520194E-3	7.523010E-3	-3.452539E-3	-6.491441E-3	4.119066E-3	-1.299873E-3	7.480600E-3	-8.869320E-3	2.440344E-3	3.622593E-3	-5.177969E-3	3.945101E-3	-3.146647E-3	3.603109E-3	7.232073E-3	-7.973064E-3	-1.035170E-2	-1.030158E-2
2.810050E+2	-8.583689E-3	4.533937E-3	1.986204E-3	-4.293642E-3	-5.446746E-3	3.847232E-3	6.586077E-3	1.031564E-3	-6.690256E-3	-8.409430E-4	2.655744E-3	-2.061256E-3	6.432229E-4	4.701494E-4	-3.173678E-3	-4.993149E-3	4.523791E-3	1.055966E-3	5.064877E-3	8.129391E-3	-7.033578E-3	-3.065888E-4	-3.404129E-3	3.063471E-3	8.963389E-3	-3.340295E-3	7.623472E-4	1.129962E-2	1.394520E-3	-1.327145E-3	9.851124E-4	-9.928555E-3	4.168171E-3	-1.398725E-3	-7.262579E-4	4.658271E-3	-7.241123E-4	-4.093587E-3	-5.092508E-3	-4.481892E-5	-1.272358E-3	-8.006344E-3	1.884711E-3	4.970750E-3	-3.190896E-3	-1.110254E-3	-1.272891E-3	-3.325481E-3	4.354500E-4	3.133776E-3	6.020157E-3	-1.098087E-3	-3.515018E-4	-7.415135E-3	1.014971E-3	-2.625276E-3	-2.711308E-4	-8.169104E-3	-6.700803E-3	1.650098E-3	2.321020E-3	-6.253204E-4	-1.895894E-4	-1.650469E-3	-6.086586E-3	-4.751885E-3	-8.088865E-4	-8.174619E-4	-3.362846E-3	2.504739E-3	-3.262270E-3	1.461113E-4	2.040392E-3	-7.173383E-4	-2.696594E-3	-3.629603E-3	-5.552552E-3	1.931134E-3	3.598392E-3	-3.186031E-3	5.552815E-3	-5.140110E-3	6.130120E-3	6.614632E-4	-2.764202E-3	-3.214531E-3	-3.811787E-3	-1.076660E-2	2.962166E-3	-1.436533E-3	-2.833672E-3	-5.773975E-5	-1.937044E-3	-6.786457E-3	1.114925E-3	5.675887E-4	3.515671E-3	2.996741E-3	2.628249E-3	9.302741E-3	3.189801E-3	2.176858E-4	2.238324E-3	2.715458E-4	5.428047E-4	-2.443622E-3	2.175428E-4	1.004414E-3	-5.602306E-4	9.092432E-4	1.568112E-3	7.443836E-3	-3.186219E-3	-2.533896E-3	-2.990493E-3	1.158453E-3	5.101159E-3	1.701856E-3	-6.805036E-3	-4.017947E-3	-1.665327E-3	3.029539E-3	1.899005E-3	1.277775E-3	-3.886545E-4	-1.898713E-3	-4.445151E-3	8.871846E-3	6.948170E-3	9.398355E-4	-2.862167E-3	2.345536E-3	4.651230E-3	-3.653285E-3	1.545484E-3	-6.416640E-3	-1.710788E-3	-7.277177E-3	-2.525052E-3	2.227276E-3	8.192824E-3	-4.905451E-3	-1.489213E-4	2.853021E-3	4.855268E-4	6.933043E-3	5.067831E-3	-3.853765E-3	-9.754596E-4	7.582731E-4	-2.526922E-3	-6.794111E-3	-6.039342E-4	2.625776E-3	-3.111253E-3	2.983691E-3	-7.346682E-4	3.557808E-3	5.353236E-3	8.740620E-3	3.714409E-3	-4.418410E-3	1.705919E-3	-3.741917E-3	3.132174E-3	-6.918473E-3	-1.021320E-3	-8.643492E-3	-6.574620E-3	-9.170882E-3	1.404149E-3	-1.637251E-2
2.815000E+2	-1.670653E-3	1.910845E-3	-3.353467E-4	2.648499E-3	-9.852332E-4	8.406787E-3	-9.867473E-4	-4.141168E-4	6.944427E-3	7.686928E-3	-2.438162E-3	1.587016E-3	-1.187275E-3	-7.144827E-4	-1.047555E-3	7.732772E-3	1.281891E-4	-2.992549E-4	5.064828E-3	1.247356E-3	3.879907E-3	9.101692E-3	6.822893E-4	9.845794E-4	4.684478E-3	1.904287E-3	7.623117E-4	-1.430138E-4	7.527754E-4	-5.777496E-3	4.333785E-4	4.489961E-3	-3.700228E-3	5.971893E-3	6.327888E-4	-2.203174E-3	7.235682E-3	-2.954461E-4	1.873577E-3	-9.757340E-3	-3.520424E-3	2.598124E-3	1.145016E-3	5.727223E-3	-3.833595E-3	8.645768E-3	-1.272911E-3	1.235913E-4	-1.895470E-3	-4.404416E-3	-2.997057E-3	-1.870921E-3	4.119524E-4	4.118871E-3	3.016669E-4	3.175815E-3	-4.551881E-3	5.460865E-4	6.409466E-3	3.908839E-3	4.437787E-3	-1.285011E-3	-4.582813E-3	1.927732E-3	-3.888811E-3	3.966634E-3	-8.088657E-4	-6.867308E-3	-9.471942E-3	-6.290717E-3	6.574580E-3	4.821325E-3	-2.358083E-3	3.853310E-3	-5.677016E-4	-2.834432E-3	-2.274297E-3	3.145200E-3	1.695494E-3	-2.426299E-3	-1.064602E-3	2.102946E-3	-4.496318E-4	7.174477E-3	-3.460301E-3	-3.214511E-3	3.851708E-3	-3.911625E-3	-3.808521E-3	-2.126046E-3	4.055141E-3	-3.136002E-3	-1.937027E-3	1.009748E-3	5.054879E-3	1.994013E-3	-5.732992E-3	4.474308E-3	-7.736637E-3	1.459670E-3	-8.068300E-3	3.677955E-3	8.320603E-4	-2.415889E-3	-2.664006E-3	-2.443622E-3	-5.583888E-3	3.303933E-3	-3.269623E-3	-9.299682E-3	3.504732E-3	4.516349E-3	-4.999574E-4	2.613570E-3	-3.662727E-4	1.263264E-2	-2.042120E-3	3.903705E-3	-2.132047E-3	-4.791575E-3	3.935771E-3	3.029516E-3	3.463822E-3	7.793801E-3	9.730243E-4	8.435737E-3	5.776059E-3	-1.627390E-3	2.350132E-3	3.285381E-3	-5.198648E-3	-4.614856E-3	1.910173E-3	7.911994E-3	-4.535107E-3	9.778301E-3	3.727629E-3	1.107464E-3	6.292067E-4	-4.930686E-4	-4.496904E-3	-2.930096E-3	1.253114E-3	-1.286839E-3	-1.652496E-3	-6.217015E-4	-4.800582E-3	2.208308E-3	-7.549648E-3	1.469117E-3	-1.820085E-3	1.100443E-3	1.244382E-4	-3.243265E-3	-2.448082E-3	-4.581904E-3	-6.849821E-3	-4.607200E-3	-4.520186E-3	-4.885781E-3	2.961194E-3	1.486873E-2	2.440344E-3	-4.560133E-3	-4.485452E-3	-2.165650E-3	3.229286E-3	-1.159483E-3	-4.602244E-3	7.598757E-3	-4.473775E-3	-7.266151E-3
2.820040E+2	1.785847E-3	9.780146E-3	4.307775E-3	-9.500215E-3	5.706988E-3	4.746591E-5	-2.983167E-4	1.031538E-3	-5.255036E-3	3.423010E-3	2.655740E-3	-6.019741E-4	1.863563E-3	4.616318E-3	6.393872E-3	-4.286165E-3	-4.999962E-3	-9.769028E-4	-1.226894E-3	2.107627E-3	6.447780E-3	-5.682794E-3	1.849827E-3	2.370497E-3	2.545047E-3	3.402770E-3	2.701709E-3	2.308958E-3	3.961637E-3	1.851648E-3	7.054215E-3	2.213378E-3	2.022239E-3	-2.068804E-3	1.312366E-3	3.698435E-4	-6.082955E-5	1.236522E-2	8.839667E-3	6.198988E-3	2.474419E-3	1.891102E-3	4.052722E-4	1.188295E-3	-1.262691E-3	-1.720022E-3	5.240897E-3	7.711496E-3	1.442074E-2	1.077887E-3	3.939268E-3	6.630362E-3	4.229060E-3	1.226053E-2	-1.838259E-3	-6.915387E-4	4.865790E-3	4.568497E-3	-2.330706E-3	9.179140E-3	2.043255E-4	7.950532E-3	4.831193E-3	-2.191592E-4	4.902225E-3	8.661218E-3	5.990855E-3	4.676799E-5	7.098882E-4	1.151566E-3	6.574569E-3	4.042142E-3	-8.919189E-4	8.423944E-3	5.109307E-3	7.502717E-3	3.483073E-4	3.145189E-3	1.061135E-3	6.690145E-3	4.059086E-4	-1.847784E-3	-5.713387E-3	-2.595049E-3	1.324662E-2	-5.161853E-3	-4.450434E-3	5.685369E-3	-7.992861E-4	-4.194662E-3	-5.373994E-4	3.790130E-3	1.215328E-4	6.856831E-3	7.681529E-3	5.676279E-4	5.650007E-3	3.735556E-3	-6.996305E-3	-2.897564E-3	4.597085E-3	1.059848E-2	8.320518E-4	1.572432E-2	-1.862285E-3	2.704032E-3	-1.958016E-3	1.770914E-3	2.826528E-3	-2.281045E-3	1.568120E-3	-1.338758E-3	5.768097E-3	7.761049E-3	-6.926789E-3	-3.254712E-3	1.926384E-3	6.105562E-3	1.205821E-3	2.170943E-3	-8.652043E-4	6.748638E-3	5.811047E-3	1.277740E-3	-4.473720E-3	3.914416E-3	-5.084001E-3	1.872347E-3	8.173763E-4	4.067189E-3	-5.257139E-4	6.053772E-4	1.218919E-2	2.129350E-3	2.896713E-3	2.086083E-4	6.835255E-3	-5.694731E-4	1.324618E-2	3.134126E-3	3.751380E-3	2.337480E-3	7.562453E-3	-2.942711E-3	4.761473E-3	6.177573E-3	2.600769E-3	1.342324E-3	6.329131E-3	2.890851E-3	2.420889E-3	8.277316E-3	3.766087E-3	1.158523E-3	5.509579E-3	-7.991316E-4	5.380489E-3	3.557777E-3	1.650731E-3	8.740559E-3	2.961153E-3	-1.451178E-3	2.440362E-3	6.895650E-3	1.747158E-3	-2.165630E-3	3.229277E-3	6.324581E-3	8.218270E-3	4.005236E-3	5.322790E-3	1.840240E-3
2.825030E+2	6.970633E-3	2.785214E-3	-1.109189E-3	1.826829E-2	7.194175E-3	-1.472342E-3	-2.363655E-3	8.260001E-3	9.814855E-3	1.337216E-2	7.749608E-3	1.276714E-4	7.355117E-3	3.431744E-3	2.141628E-3	9.853695E-3	-1.336973E-3	3.766488E-3	-1.226886E-3	-3.053903E-3	5.163832E-3	1.380589E-2	9.847767E-5	3.756411E-3	-1.733825E-3	3.402710E-3	5.287661E-3	4.760965E-3	7.527558E-4	-5.560985E-5	1.536823E-3	2.972264E-3	6.314115E-3	5.301814E-3	7.428176E-3	-4.776202E-3	2.592435E-3	3.376262E-4	4.803392E-4	6.199001E-3	1.071740E-2	3.305026E-3	7.802402E-3	-4.107074E-3	3.879109E-3	6.816541E-3	3.938089E-3	7.021673E-3	-5.003333E-3	1.763199E-3	1.164758E-3	1.993332E-3	-1.878340E-3	1.226050E-2	1.171457E-2	3.820385E-3	5.721971E-3	7.250056E-3	3.496056E-3	6.167525E-3	9.099088E-4	5.311788E-3	1.693214E-3	8.368479E-3	4.169666E-3	6.649252E-3	4.630898E-3	6.960950E-3	8.176562E-3	1.265329E-2	1.041310E-3	1.460875E-4	3.506529E-3	6.900404E-3	2.980415E-3	1.936550E-3	1.018314E-2	9.822611E-3	4.232739E-3	5.170704E-3	-4.005667E-3	3.419884E-3	8.663010E-4	2.289744E-3	1.115828E-2	1.950469E-2	7.044836E-3	8.868678E-4	6.723631E-3	6.837913E-3	7.116836E-3	7.638013E-3	3.552407E-3	3.608431E-3	-1.983658E-4	1.280770E-3	2.092807E-3	-1.436033E-3	5.589660E-3	-2.026108E-3	-3.283949E-4	2.293866E-3	2.238311E-3	-1.072159E-3	4.551356E-3	7.116391E-3	1.109529E-2	1.004432E-3	4.181214E-3	2.711878E-4	2.213640E-3	-7.193762E-3	3.977193E-3	-5.475321E-3	7.506279E-3	3.806343E-3	5.101149E-3	-1.967921E-3	2.540943E-3	-1.498698E-4	-8.651408E-4	-2.177243E-3	-5.925153E-3	-2.794764E-3	8.462345E-3	-4.482271E-3	3.859571E-3	-9.274386E-4	1.583773E-3	3.285323E-3	4.147254E-3	6.054197E-4	-2.201404E-3	6.836524E-4	8.698607E-4	1.680844E-3	6.058354E-3	2.784376E-3	4.572016E-3	1.764276E-2	-1.959006E-3	-1.613214E-3	-2.252097E-3	4.508999E-3	7.612178E-3	6.177537E-3	8.357372E-3	-1.255684E-3	5.598698E-3	1.469156E-3	2.420872E-3	3.971184E-3	2.309404E-3	8.494857E-3	8.676011E-4	9.036111E-3	1.983153E-3	4.185867E-3	2.267797E-3	7.306268E-3	1.454695E-3	1.516095E-3	4.643560E-3	2.804228E-3	-3.100411E-3	5.303054E-3	7.479926E-3	3.603130E-3	1.019071E-2	1.239001E-2	7.282145E-3	4.130122E-2
2.830040E+2	-2.534801E-3	7.157049E-3	-3.353562E-4	-8.225795E-4	2.732686E-3	4.607123E-3	-2.983251E-4	-4.028373E-3	4.791548E-3	6.265597E-3	3.929213E-3	1.587043E-3	2.473747E-3	9.354833E-3	7.988431E-3	-1.458180E-3	3.791201E-3	1.596396E-2	6.952401E-3	6.408881E-3	1.543533E-2	7.085632E-3	1.177393E-2	-5.252105E-3	8.250192E-3	5.650409E-3	7.227047E-3	-1.777710E-3	5.886944E-3	6.301987E-3	6.502464E-3	7.525449E-3	5.598758E-3	6.114500E-4	1.422352E-2	7.231372E-3	2.592463E-3	1.173217E-2	1.301934E-2	6.892702E-3	9.968065E-3	-2.297497E-4	1.445977E-2	7.240230E-3	-6.199804E-4	9.865268E-3	3.286747E-3	-1.256025E-3	-3.415502E-4	9.986644E-3	3.245651E-3	5.857500E-3	8.046275E-3	1.090361E-2	-1.838245E-3	1.242144E-3	4.009624E-3	9.931683E-3	6.409470E-3	7.673346E-3	1.219903E-2	7.950511E-3	-2.072393E-3	1.051533E-2	-9.584865E-4	5.978608E-3	4.630910E-3	1.560356E-2	9.534181E-3	6.564129E-3	-8.030644E-4	7.938240E-3	1.083731E-2	7.662195E-3	1.561152E-3	2.731687E-3	8.871794E-3	3.752212E-3	1.184448E-2	8.209550E-3	-3.293465E-4	1.132137E-2	8.663331E-4	6.614433E-4	9.765998E-3	1.366264E-2	2.574489E-3	4.999844E-3	1.198963E-2	6.148345E-3	1.170937E-2	6.098861E-3	9.728006E-3	1.009740E-3	7.024869E-3	4.133559E-3	1.134143E-2	8.907130E-3	1.373344E-2	4.945533E-3	-3.283734E-4	9.214383E-3	1.067608E-2	6.318275E-3	9.361584E-3	2.476537E-2	5.293852E-3	5.603377E-3	9.600069E-3	9.842042E-3	2.770510E-4	6.711950E-3	-2.290846E-3	8.496357E-3	8.818363E-3	7.336865E-3	1.132674E-3	1.491300E-2	5.382252E-4	1.145426E-2	7.351777E-4	1.418686E-2	-4.482450E-4	4.632739E-4	-2.431177E-3	6.498010E-3	6.414859E-3	1.377150E-2	9.247168E-3	1.501298E-2	8.820136E-3	6.695741E-3	1.150391E-2	5.020674E-3	6.274816E-3	-1.999839E-3	1.396814E-3	2.784422E-3	1.009194E-2	3.134098E-3	8.827285E-3	-2.271663E-3	2.655210E-3	-3.770690E-3	5.474159E-3	8.444000E-3	1.164683E-2	-3.896777E-4	8.520513E-3	2.180008E-3	3.834585E-3	-8.229440E-3	6.679407E-3	1.216302E-2	-1.121828E-3	5.253344E-3	4.700999E-3	1.046663E-2	1.033646E-3	1.878107E-2	5.974110E-3	-7.093508E-4	-2.700441E-3	1.016864E-2	5.209720E-3	9.376917E-3	-3.128552E-4	2.922686E-3	1.216307E-2	5.203099E-3	-8.392391E-3	-4.230663E-3
2.835020E+2	1.301958E-2	3.163924E-2	1.282021E-2	1.392947E-2	1.909150E-2	1.676620E-2	1.760103E-2	1.042852E-2	8.379595E-3	1.692551E-2	1.475375E-2	5.235288E-3	1.467709E-2	1.764727E-2	1.117765E-2	1.621668E-2	1.404753E-2	1.528626E-2	6.952397E-3	1.845243E-2	2.185497E-2	1.582196E-2	1.644406E-2	9.300071E-3	2.679210E-2	1.763804E-2	9.166503E-3	2.110763E-2	1.230475E-2	1.774573E-2	1.753723E-2	1.587299E-2	1.346724E-2	1.937303E-2	2.305742E-2	1.409280E-2	2.592439E-3	1.489734E-2	1.580579E-2	1.452400E-2	1.746175E-2	1.744423E-2	2.777461E-2	1.102262E-2	1.673370E-2	1.779205E-2	5.240861E-3	6.331813E-3	2.063646E-2	1.204253E-2	1.365018E-2	2.131453E-2	2.560514E-2	1.361743E-2	2.441566E-3	1.993458E-2	2.712581E-2	2.132848E-2	1.806310E-2	1.444946E-2	1.431574E-2	1.850544E-2	7.341621E-3	1.480919E-2	7.100000E-3	2.625350E-3	1.823035E-2	1.301082E-2	1.767960E-2	1.265330E-2	1.333748E-2	1.417182E-2	1.890107E-2	9.947461E-3	9.367018E-3	1.306887E-2	2.264054E-2	1.285777E-2	-8.418091E-4	1.048863E-2	1.290545E-2	1.658911E-2	1.863167E-2	1.612982E-2	7.677645E-3	2.404850E-2	2.045600E-2	1.665331E-2	2.101719E-2	2.338673E-2	1.324025E-2	1.379459E-2	1.247279E-2	1.465296E-2	7.681457E-3	1.126560E-2	1.063002E-2	1.703382E-2	9.291353E-3	1.366003E-2	1.304061E-2	1.198261E-2	7.863525E-3	1.438060E-2	2.299051E-2	2.991305E-2	1.544634E-2	1.480127E-2	2.179237E-2	1.303230E-2	9.960150E-3	2.208152E-2	1.290882E-3	1.070245E-2	1.734704E-2	1.969366E-2	2.653095E-2	2.151860E-2	1.322203E-2	9.133442E-3	7.351289E-4	1.344304E-2	6.593465E-3	7.793801E-3	1.322830E-2	7.143924E-3	1.344187E-2	8.871871E-3	2.227501E-2	1.032188E-2	2.589554E-3	1.800634E-2	6.021788E-3	1.369466E-2	1.032854E-2	9.778279E-3	9.166056E-3	2.123068E-2	6.937691E-3	1.582920E-2	1.326867E-2	2.406637E-2	1.246970E-2	1.361664E-2	9.750119E-3	1.599867E-2	1.246920E-2	1.173449E-2	1.071188E-2	8.577771E-3	1.090291E-2	9.712667E-3	8.135992E-3	1.949937E-2	8.825278E-3	5.253344E-3	1.285460E-2	1.674739E-2	1.214126E-2	8.740577E-3	6.727353E-3	5.966936E-3	1.198751E-2	1.507828E-2	1.628988E-2	2.024049E-2	8.188379E-3	2.061230E-2	3.287305E-3	1.718137E-2	1.707867E-2	1.398208E-2
2.840020E+2	1.993258E-2	3.863417E-2	1.591559E-2	2.868139E-2	4.437326E-2	3.956431E-2	2.310854E-2	3.283663E-2	1.627329E-2	3.469187E-2	2.748851E-2	3.077323E-2	2.627032E-2	1.646262E-2	2.180818E-2	2.752861E-2	2.943203E-2	3.561529E-2	1.576085E-2	4.942149E-2	3.020061E-2	2.590228E-2	1.527653E-2	2.662406E-2	2.536580E-2	2.887649E-2	2.726781E-2	3.173292E-2	2.193138E-2	2.982525E-2	1.477851E-2	3.256810E-2	3.063469E-2	2.741367E-2	3.868666E-2	3.639257E-2	1.652215E-2	3.325528E-2	2.764817E-2	2.978658E-2	3.394767E-2	1.603036E-2	1.815837E-2	2.690880E-2	2.766002E-2	3.608459E-2	2.152521E-2	2.150761E-2	2.141344E-2	2.643355E-2	1.989293E-2	2.672447E-2	2.178803E-2	1.904526E-2	1.670772E-2	3.733789E-2	2.883803E-2	2.736205E-2	3.044499E-2	3.251915E-2	2.842724E-2	2.114417E-2	3.244580E-2	4.558148E-2	1.882137E-2	2.811020E-2	1.687042E-2	3.548163E-2	3.125544E-2	3.362713E-2	1.641150E-2	2.819761E-2	2.989727E-2	2.746831E-2	2.001137E-2	2.102048E-2	2.985273E-2	2.864072E-2	2.326219E-2	3.251993E-2	2.393444E-2	2.053984E-2	2.784327E-2	3.404060E-2	3.273806E-2	3.378534E-2	1.981738E-2	2.213730E-2	3.154930E-2	3.855656E-2	2.472163E-2	1.379459E-2	2.756871E-2	2.114977E-2	2.212795E-2	3.337484E-2	2.201301E-2	2.885454E-2	3.150178E-2	3.196061E-2	2.429872E-2	3.482018E-2	1.841069E-2	2.109920E-2	3.341265E-2	3.579608E-2	1.399597E-2	3.166414E-2	2.111501E-2	1.622260E-2	1.835215E-2	2.281342E-2	2.994483E-2	2.467425E-2	2.128336E-2	2.498943E-2	1.700664E-2	2.445438E-2	3.057880E-2	2.151124E-2	1.913878E-2	3.724536E-2	3.476039E-2	1.512448E-2	2.071755E-2	3.104222E-2	2.685726E-2	2.987038E-2	1.307896E-2	2.204953E-2	3.218476E-2	3.453724E-2	3.822930E-2	3.393398E-2	3.465086E-2	1.566735E-2	1.771218E-2	2.542302E-2	2.665183E-2	2.852427E-2	3.039980E-2	1.287272E-2	3.069677E-2	2.852000E-2	2.329084E-2	3.488544E-2	3.467328E-2	2.645668E-2	4.650454E-2	3.132556E-2	2.433277E-2	2.406640E-2	4.309586E-2	2.903656E-2	1.810931E-2	1.508861E-2	4.071256E-2	2.302811E-2	2.756849E-2	3.742776E-2	1.802596E-2	2.970512E-2	2.667552E-2	1.426001E-2	2.875501E-2	2.499332E-2	2.377393E-2	2.061230E-2	2.399733E-2	1.957695E-2	3.667177E-2	1.398208E-2
2.841010E+2	1.561196E-2	2.464439E-2	2.520182E-2	2.260703E-2	3.768103E-2	2.664538E-2	1.828945E-2	1.837976E-2	2.919039E-2	2.332136E-2	2.112112E-2	2.201736E-2	2.504999E-2	3.067813E-2	2.074516E-2	3.177058E-2	2.869945E-2	1.122052E-2	2.394013E-2	3.307670E-2	3.405237E-2	1.851004E-2	2.169800E-2	3.008884E-2	3.392347E-2	2.812725E-2	2.532840E-2	1.620361E-2	2.128958E-2	2.855374E-2	1.533028E-2	3.408588E-2	3.564183E-2	2.607356E-2	2.033928E-2	1.495046E-2	1.917539E-2	2.629188E-2	1.789567E-2	2.284907E-2	3.020086E-2	2.875558E-2	1.963777E-2	3.220422E-2	2.380369E-2	2.510903E-2	3.129586E-2	1.874841E-2	1.364379E-2	2.506300E-2	2.613560E-2	3.368010E-2	3.476639E-2	2.447294E-2	2.384079E-2	2.251282E-2	3.483116E-2	2.870286E-2	1.951981E-2	1.444948E-2	2.560489E-2	1.916509E-2	2.616973E-2	1.695606E-2	2.248433E-2	1.603837E-2	1.755045E-2	2.338195E-2	3.532814E-2	3.633337E-2	1.210791E-2	2.508069E-2	2.769801E-2	2.975366E-2	3.136532E-2	2.420120E-2	2.329617E-2	3.046182E-2	1.247880E-2	2.264388E-2	1.878761E-2	2.646599E-2	2.192153E-2	3.241236E-2	2.577684E-2	3.638181E-2	2.301047E-2	2.145176E-2	2.778781E-2	3.235076E-2	2.165989E-2	2.533816E-2	2.551014E-2	2.244911E-2	2.015801E-2	2.125044E-2	1.987867E-2	2.516059E-2	8.550975E-3	2.934621E-2	2.852052E-2	4.035661E-2	2.825467E-2	2.580222E-2	2.940410E-2	4.167911E-2	1.037007E-2	1.863381E-2	2.653384E-2	2.515541E-2	2.416196E-2	2.866848E-2	2.815397E-2	2.982166E-2	1.800311E-2	3.205045E-2	3.049945E-2	2.592232E-2	1.923013E-2	1.764314E-2	1.673834E-2	4.096449E-2	1.911217E-2	3.548714E-2	1.663252E-2	2.716688E-2	2.557960E-2	2.007103E-2	1.844332E-2	1.814034E-2	2.751187E-2	2.844694E-2	2.041237E-2	2.742848E-2	1.776042E-2	2.008412E-2	1.926600E-2	3.045378E-2	3.059462E-2	2.580384E-2	1.961355E-2	2.274947E-2	1.527385E-2	2.106827E-2	3.113016E-2	1.750961E-2	2.727190E-2	3.858089E-2	3.919984E-2	2.421685E-2	2.645330E-2	1.617187E-2	3.362759E-2	4.224196E-2	1.280417E-2	1.281892E-2	2.236702E-2	2.993696E-2	1.275835E-2	1.519521E-2	1.576630E-2	4.009048E-2	1.786276E-2	2.489745E-2	1.905991E-2	3.381998E-2	3.369208E-2	2.741595E-2	2.498357E-2	3.155530E-2	1.707867E-2	1.701757E-2
2.842040E+2	1.129132E-2	2.202134E-2	2.442798E-2	1.219388E-2	3.173237E-2	2.284568E-2	3.618881E-2	2.922243E-2	1.627332E-2	3.255991E-2	1.984763E-2	2.639529E-2	2.504999E-2	2.653198E-2	2.393434E-2	3.389163E-2	4.921212E-2	2.070736E-2	2.331091E-2	3.135619E-2	3.469435E-2	1.918204E-2	2.695194E-2	2.523812E-2	3.321034E-2	2.213339E-2	2.144956E-2	1.865565E-2	2.834919E-2	1.965301E-2	1.919246E-2	3.408585E-2	2.777341E-2	2.004303E-2	2.781414E-2	2.266964E-2	2.448192E-2	3.515436E-2	3.043460E-2	2.284905E-2	3.319828E-2	2.097902E-2	1.963782E-2	2.085690E-2	2.444642E-2	1.230427E-2	2.152528E-2	3.116497E-2	3.617579E-2	2.711886E-2	9.488360E-3	3.445295E-2	2.102467E-2	2.990075E-2	2.954722E-2	2.509118E-2	3.311881E-2	2.669172E-2	1.150793E-2	2.403009E-3	3.195505E-2	2.378290E-2	2.616973E-2	2.196553E-2	2.101915E-2	2.274497E-2	2.299024E-2	1.819637E-2	2.989784E-2	2.415511E-2	3.547051E-2	3.131450E-2	2.989725E-2	2.365947E-2	2.852679E-2	3.056249E-2	1.739528E-2	3.167590E-2	2.960527E-2	2.720207E-2	2.172860E-2	1.856448E-2	2.192147E-2	2.345699E-2	3.134579E-2	2.729412E-2	2.492632E-2	2.145178E-2	2.101716E-2	2.545536E-2	3.314126E-2	2.687727E-2	2.070692E-2	1.725168E-2	2.278461E-2	1.839765E-2	1.632152E-2	2.220542E-2	2.483869E-2	1.801729E-2	2.570595E-2	2.789971E-2	1.278550E-2	2.647411E-2	2.539566E-2	3.358987E-2	2.559886E-2	2.706523E-2	2.992058E-2	3.025986E-2	1.576995E-2	2.281344E-2	2.636318E-2	2.835102E-2	3.112410E-2	2.057628E-2	2.653097E-2	2.592227E-2	1.455712E-2	2.770005E-2	1.033708E-2	2.980715E-2	2.145938E-2	2.001142E-2	2.752604E-2	2.910453E-2	1.919131E-2	2.567061E-2	3.223744E-2	2.674053E-2	3.062709E-2	2.757681E-2	3.069136E-2	3.031979E-2	2.654347E-2	3.407071E-2	1.227369E-2	3.799993E-2	2.113182E-2	2.852421E-2	2.849637E-2	2.011570E-2	2.158326E-2	2.686413E-2	2.542881E-2	3.715183E-2	2.233763E-2	1.693059E-2	2.312977E-2	3.061471E-2	1.797128E-2	1.617187E-2	2.343100E-2	3.270475E-2	3.203517E-2	2.265415E-2	2.780275E-2	2.177197E-2	2.756856E-2	3.097312E-2	1.727272E-2	3.118873E-2	3.034756E-2	2.653401E-2	3.083257E-2	4.604155E-2	2.660771E-2	2.877667E-2	1.906640E-2	3.035742E-2	1.903798E-2	2.005299E-2
2.843030E+2	3.203040E-2	4.562916E-2	3.758353E-2	4.516903E-2	3.693739E-2	4.564387E-2	3.274665E-2	2.705382E-2	4.282502E-2	4.321972E-2	3.894981E-2	3.150290E-2	3.725340E-2	3.363969E-2	4.094332E-2	3.318457E-2	3.602547E-2	3.358240E-2	4.784875E-2	4.856122E-2	3.533631E-2	4.203085E-2	3.979493E-2	2.801000E-2	5.246533E-2	4.011490E-2	3.179317E-2	3.827157E-2	2.963275E-2	4.381201E-2	3.298594E-2	4.243345E-2	4.851744E-2	3.210404E-2	3.664807E-2	3.810792E-2	4.769803E-2	4.908102E-2	3.531090E-2	3.325533E-2	6.317275E-2	4.501562E-2	2.703485E-2	4.582090E-2	4.501372E-2	4.706010E-2	4.692889E-2	3.668340E-2	3.306790E-2	3.534237E-2	1.781198E-2	4.527285E-2	4.087384E-2	4.618406E-2	2.526737E-2	4.378358E-2	5.709103E-2	4.412207E-2	4.501197E-2	2.875466E-2	2.489935E-2	3.697649E-2	3.370095E-2	4.200332E-2	2.834504E-2	2.945153E-2	3.046991E-2	4.153142E-2	4.483116E-2	4.648200E-2	3.424092E-2	3.365205E-2	3.429571E-2	5.108327E-2	3.278456E-2	5.203187E-2	3.116396E-2	3.713926E-2	3.658272E-2	4.011705E-2	3.863972E-2	4.292753E-2	3.113315E-2	3.811121E-2	4.248383E-2	3.832919E-2	2.748081E-2	2.899229E-2	5.487035E-2	4.407287E-2	3.926473E-2	5.150348E-2	4.540936E-2	2.114977E-2	3.263448E-2	3.551444E-2	2.983880E-2	4.141403E-2	4.556837E-2	3.631782E-2	3.063138E-2	4.381690E-2	3.317674E-2	3.722387E-2	2.860245E-2	5.344512E-2	4.010244E-2	3.932911E-2	3.940348E-2	4.046875E-2	3.642719E-2	3.379172E-2	2.636312E-2	3.864597E-2	4.358905E-2	4.440730E-2	4.161126E-2	4.280321E-2	2.590581E-2	5.632371E-2	3.674232E-2	4.096448E-2	4.571427E-2	3.955962E-2	4.114292E-2	3.297994E-2	5.177139E-2	4.666910E-2	3.453647E-2	5.488678E-2	3.530002E-2	4.323769E-2	5.604617E-2	4.333080E-2	4.073145E-2	5.026565E-2	4.024292E-2	5.476932E-2	4.400008E-2	4.484648E-2	3.674470E-2	4.711219E-2	2.578946E-2	6.163862E-2	5.607341E-2	4.395109E-2	4.289694E-2	4.983905E-2	3.773899E-2	4.767550E-2	4.129681E-2	2.837253E-2	4.746581E-2	4.664379E-2	3.866665E-2	4.005504E-2	4.682769E-2	3.621772E-2	3.682486E-2	5.033692E-2	4.062318E-2	4.009044E-2	2.740996E-2	2.980708E-2	4.883783E-2	3.653585E-2	3.298358E-2	3.694108E-2	4.470745E-2	4.952280E-2	3.079390E-2	3.826575E-2
2.844010E+2	7.523689E-2	7.186015E-2	5.073900E-2	7.380522E-2	6.296276E-2	8.060098E-2	6.785691E-2	6.608739E-2	6.578856E-2	7.377796E-2	6.187240E-2	6.214846E-2	7.630427E-2	5.673997E-2	5.742067E-2	6.217134E-2	6.020107E-2	5.526656E-2	5.980307E-2	5.544325E-2	7.000257E-2	8.033622E-2	4.913530E-2	7.443822E-2	5.531797E-2	9.855462E-2	5.894517E-2	7.505160E-2	7.263179E-2	5.207695E-2	5.671061E-2	8.037691E-2	5.924706E-2	5.488594E-2	5.091832E-2	7.327299E-2	5.565781E-2	8.073263E-2	6.247872E-2	6.516797E-2	8.865104E-2	7.400099E-2	7.511599E-2	5.414225E-2	7.715003E-2	7.632817E-2	6.712153E-2	7.393307E-2	7.347009E-2	6.618032E-2	5.943011E-2	8.391535E-2	6.759405E-2	6.111033E-2	4.880646E-2	7.278920E-2	6.565258E-2	6.892682E-2	7.414604E-2	7.468172E-2	7.852289E-2	6.072497E-2	7.135713E-2	6.347228E-2	6.057886E-2	4.554723E-2	5.698891E-2	7.437355E-2	7.809184E-2	7.083872E-2	6.190719E-2	5.546989E-2	6.948331E-2	7.774540E-2	4.768661E-2	7.032063E-2	6.722486E-2	4.381665E-2	6.005234E-2	7.278418E-2	7.393250E-2	6.860746E-2	5.482020E-2	8.125985E-2	7.241703E-2	7.013603E-2	5.621893E-2	6.052514E-2	7.142075E-2	6.751705E-2	5.993119E-2	6.920374E-2	6.530862E-2	6.662734E-2	5.693074E-2	7.402729E-2	5.545047E-2	6.579428E-2	6.111571E-2	6.681868E-2	7.777463E-2	9.710483E-2	6.341190E-2	5.334851E-2	8.552338E-2	7.182963E-2	6.040755E-2	5.849142E-2	8.343128E-2	7.811418E-2	4.804683E-2	6.672644E-2	7.203028E-2	4.673485E-2	6.392653E-2	8.677345E-2	6.304098E-2	7.289525E-2	4.860317E-2	5.864450E-2	7.835050E-2	7.220499E-2	5.745046E-2	6.562386E-2	6.292997E-2	6.139949E-2	5.560437E-2	6.696761E-2	5.369505E-2	5.879593E-2	7.034699E-2	7.281933E-2	6.906624E-2	6.501580E-2	4.816333E-2	6.130757E-2	6.821204E-2	7.740783E-2	5.267429E-2	7.749092E-2	6.022056E-2	6.686568E-2	7.486223E-2	8.564959E-2	5.464814E-2	7.945823E-2	7.579181E-2	6.889140E-2	6.987923E-2	7.611015E-2	6.108820E-2	7.143368E-2	8.752397E-2	6.131647E-2	5.657137E-2	5.972549E-2	6.585261E-2	6.573728E-2	6.089138E-2	7.041789E-2	6.548017E-2	5.566869E-2	5.605154E-2	5.517338E-2	8.415577E-2	8.134820E-2	5.990418E-2	6.483607E-2	8.514131E-2	8.665538E-2	4.842771E-2	5.951406E-2
2.845010E+2	9.684014E-2	8.410131E-2	1.126474E-1	1.059126E-1	1.120392E-1	1.087187E-1	1.167359E-1	9.716963E-2	1.045396E-1	1.000722E-1	9.434597E-2	8.476779E-2	8.789752E-2	9.464800E-2	1.036637E-1	9.893511E-2	8.437670E-2	8.237198E-2	9.252013E-2	8.555210E-2	1.085207E-1	1.004968E-1	7.949127E-2	9.453398E-2	1.052382E-1	8.132234E-2	8.480428E-2	9.385027E-2	1.092131E-1	1.010307E-1	9.257371E-2	1.107317E-1	1.021658E-1	7.900795E-2	7.674054E-2	1.075803E-1	1.107131E-1	1.111181E-1	8.128717E-2	8.459301E-2	1.096332E-1	1.093490E-1	1.002661E-1	9.196646E-2	9.514645E-2	9.340118E-2	8.210317E-2	9.393744E-2	8.978637E-2	9.085072E-2	9.619279E-2	1.148293E-1	9.278730E-2	9.978316E-2	9.017823E-2	7.923489E-2	1.101725E-1	1.011061E-1	8.944136E-2	1.115740E-1	9.545659E-2	7.589760E-2	7.888834E-2	1.107042E-1	7.962618E-2	7.975055E-2	8.962771E-2	9.943716E-2	8.759489E-2	8.639984E-2	7.850705E-2	9.365110E-2	1.200654E-1	1.036457E-1	7.465225E-2	8.542878E-2	7.968228E-2	9.237954E-2	7.971610E-2	9.253638E-2	9.451999E-2	8.309359E-2	7.653329E-2	9.835654E-2	9.678131E-2	9.480256E-2	6.388245E-2	8.520311E-2	1.015125E-1	1.095787E-1	1.020295E-1	8.690379E-2	1.037346E-1	8.676740E-2	8.976371E-2	8.543855E-2	6.825628E-2	8.795807E-2	9.072964E-2	9.209078E-2	9.325453E-2	1.074856E-1	9.294401E-2	8.156665E-2	9.033363E-2	1.078632E-1	6.330830E-2	9.834895E-2	9.155944E-2	9.087514E-2	8.807023E-2	9.819743E-2	1.114294E-1	9.673902E-2	7.376735E-2	1.114871E-1	1.201872E-1	1.073910E-1	8.198160E-2	8.417368E-2	8.555193E-2	9.972649E-2	8.874708E-2	7.947043E-2	9.288714E-2	1.007994E-1	1.054327E-1	1.124643E-1	9.124585E-2	9.319685E-2	1.053939E-1	1.119715E-1	9.099469E-2	1.011575E-1	7.789058E-2	9.075292E-2	1.039504E-1	9.836953E-2	9.919944E-2	9.109285E-2	9.004151E-2	9.254521E-2	8.818191E-2	1.129725E-1	9.740809E-2	9.003480E-2	1.004630E-1	1.165221E-1	1.093242E-1	9.743617E-2	8.512059E-2	8.291673E-2	9.335063E-2	1.163389E-1	8.177076E-2	7.183045E-2	9.235172E-2	8.960410E-2	1.040877E-1	1.026909E-1	8.355787E-2	9.943574E-2	8.763070E-2	8.954068E-2	9.385095E-2	1.057912E-1	1.059526E-1	9.613297E-2	1.157133E-1	1.213924E-1	9.153253E-2	6.254951E-2
2.846030E+2	1.184434E-1	1.444326E-1	1.536618E-1	1.362844E-1	1.440133E-1	1.482355E-1	1.449619E-1	1.188548E-1	1.432905E-1	1.292092E-1	1.319136E-1	1.066575E-1	1.397619E-1	1.136019E-1	1.238618E-1	1.385268E-1	1.363911E-1	9.524702E-2	1.239789E-1	1.294249E-1	1.322733E-1	1.220016E-1	1.238579E-1	1.070072E-1	1.309117E-1	1.345175E-1	1.358760E-1	1.249089E-1	1.239740E-1	1.353619E-1	1.174017E-1	1.327389E-1	1.236251E-1	1.306021E-1	1.073195E-1	1.478915E-1	1.319394E-1	1.332742E-1	1.321398E-1	1.081806E-1	1.268685E-1	1.220742E-1	1.276355E-1	1.199562E-1	1.054301E-1	1.092547E-1	1.185803E-1	1.104928E-1	1.395120E-1	1.155211E-1	9.619279E-2	1.387876E-1	1.324858E-1	1.683089E-1	1.015911E-1	1.179089E-1	1.401378E-1	1.285924E-1	1.222171E-1	1.243734E-1	1.187404E-1	1.306511E-1	1.196824E-1	1.386141E-1	1.081970E-1	1.052354E-1	1.175067E-1	1.020299E-1	1.201767E-1	1.215817E-1	1.172399E-1	1.201441E-1	1.457229E-1	1.219283E-1	1.009083E-1	1.188257E-1	1.262336E-1	1.233384E-1	1.107974E-1	1.183663E-1	1.437829E-1	1.120659E-1	9.758851E-2	1.415052E-1	1.399409E-1	1.363461E-1	1.015612E-1	1.126230E-1	1.316041E-1	1.185428E-1	1.226960E-1	1.061431E-1	1.366711E-1	1.231491E-1	1.239098E-1	1.389287E-1	1.130768E-1	1.189875E-1	1.336698E-1	1.304348E-1	1.425088E-1	1.323992E-1	1.196635E-1	1.306125E-1	1.544699E-1	1.269830E-1	1.133457E-1	1.198108E-1	1.213630E-1	1.227782E-1	1.106640E-1	1.223497E-1	1.382925E-1	1.121814E-1	1.236271E-1	1.467922E-1	1.535225E-1	1.418869E-1	1.300464E-1	1.236279E-1	1.159580E-1	1.287356E-1	1.333448E-1	1.153089E-1	1.078657E-1	1.033829E-1	1.137373E-1	1.348628E-1	1.295631E-1	1.315070E-1	1.038363E-1	1.398130E-1	1.266284E-1	1.271794E-1	1.035642E-1	1.224067E-1	1.381348E-1	1.604160E-1	9.367955E-2	1.291781E-1	1.014622E-1	1.116403E-1	1.176256E-1	1.237360E-1	1.266275E-1	1.210092E-1	1.226670E-1	1.373064E-1	1.268553E-1	1.393771E-1	1.444947E-1	1.353077E-1	1.370504E-1	1.412822E-1	1.228854E-1	1.194935E-1	1.229275E-1	1.216361E-1	1.016194E-1	1.263578E-1	1.392977E-1	1.320754E-1	1.206787E-1	1.255444E-1	1.284764E-1	1.220867E-1	1.314564E-1	1.247084E-1	1.305062E-1	1.154033E-1	1.052477E-1	9.290392E-2
2.847020E+2	2.471987E-1	2.563511E-1	2.488460E-1	2.378129E-1	2.652172E-1	2.789448E-1	2.847145E-1	2.359551E-1	2.652846E-1	2.485996E-1	2.522574E-1	2.204839E-1	2.337282E-1	2.095570E-1	2.243213E-1	2.530597E-1	2.221045E-1	1.996022E-1	2.284223E-1	2.429781E-1	2.433342E-1	2.436378E-1	2.575414E-1	2.566862E-1	2.378833E-1	2.251736E-1	2.515950E-1	2.270753E-1	2.240912E-1	2.250046E-1	2.078868E-1	2.450518E-1	2.259141E-1	1.969382E-1	2.119676E-1	2.533868E-1	2.559792E-1	2.567155E-1	2.554397E-1	1.893498E-1	2.737437E-1	2.380156E-1	2.252771E-1	1.993872E-1	2.211210E-1	2.141322E-1	2.221491E-1	2.491440E-1	2.420709E-1	2.251671E-1	2.383880E-1	2.392575E-1	2.744840E-1	2.409051E-1	2.299861E-1	2.126606E-1	2.437322E-1	2.378673E-1	2.387529E-1	2.026754E-1	2.238710E-1	1.999175E-1	2.069194E-1	2.273527E-1	1.975727E-1	1.830311E-1	2.120229E-1	2.532756E-1	2.423586E-1	2.325399E-1	2.285203E-1	2.315706E-1	2.373578E-1	2.453357E-1	2.272210E-1	1.816436E-1	2.304826E-1	2.368542E-1	2.135567E-1	2.437166E-1	2.364259E-1	2.266380E-1	1.903628E-1	2.538546E-1	2.415750E-1	2.499424E-1	1.928844E-1	2.401261E-1	2.617506E-1	2.268002E-1	2.474602E-1	2.061871E-1	2.169539E-1	2.147544E-1	2.210951E-1	2.309312E-1	1.948920E-1	2.076427E-1	1.840131E-1	2.411094E-1	2.346845E-1	2.313627E-1	2.166970E-1	2.018297E-1	2.362438E-1	2.468496E-1	1.952913E-1	2.094899E-1	2.039997E-1	2.216769E-1	1.920016E-1	2.540885E-1	2.520130E-1	2.320444E-1	2.377796E-1	2.138719E-1	2.392419E-1	2.666593E-1	1.994737E-1	2.512739E-1	2.359818E-1	2.276639E-1	2.303640E-1	2.211950E-1	2.188438E-1	2.202908E-1	2.229762E-1	2.475544E-1	2.184586E-1	2.253275E-1	1.934008E-1	2.885914E-1	2.595704E-1	2.334360E-1	2.157168E-1	2.262018E-1	2.515656E-1	2.476167E-1	2.127525E-1	2.525015E-1	2.505665E-1	2.031650E-1	2.473181E-1	2.744258E-1	2.057334E-1	2.585048E-1	2.377990E-1	2.438258E-1	2.422680E-1	2.460073E-1	2.208326E-1	2.049235E-1	2.419296E-1	2.667338E-1	2.130726E-1	2.019586E-1	2.248467E-1	2.214998E-1	2.170149E-1	2.375204E-1	2.334527E-1	2.381554E-1	2.014626E-1	2.261912E-1	2.538204E-1	2.592391E-1	2.270954E-1	2.294844E-1	2.429321E-1	2.471644E-1	2.286844E-1	2.052161E-1
2.848000E+2	6.732144E-1	6.655552E-1	6.620838E-1	6.638855E-1	6.979820E-1	6.923512E-1	7.204947E-1	5.323212E-1	6.004097E-1	5.897143E-1	6.584959E-1	5.656111E-1	6.401009E-1	5.465840E-1	5.682209E-1	6.206970E-1	6.565344E-1	5.777223E-1	6.021516E-1	6.292313E-1	6.625386E-1	6.119065E-1	6.218137E-1	6.301907E-1	6.358199E-1	5.878003E-1	6.420672E-1	5.981444E-1	5.513975E-1	5.371641E-1	5.560340E-1	6.457346E-1	5.642561E-1	5.755197E-1	5.401825E-1	6.367716E-1	6.884621E-1	6.257727E-1	5.765766E-1	5.202702E-1	6.701558E-1	6.268435E-1	5.707213E-1	5.594741E-1	5.302729E-1	5.769338E-1	5.595615E-1	6.395757E-1	5.761658E-1	5.513645E-1	5.983850E-1	6.720544E-1	6.684154E-1	6.364531E-1	6.187380E-1	5.710397E-1	6.409863E-1	6.099390E-1	6.444443E-1	5.512698E-1	5.667790E-1	5.746158E-1	5.910126E-1	6.216676E-1	5.037942E-1	4.995801E-1	5.758094E-1	6.802224E-1	6.496317E-1	6.736657E-1	6.521217E-1	5.931233E-1	5.921659E-1	6.521235E-1	6.004825E-1	5.569610E-1	5.694554E-1	5.713312E-1	5.681377E-1	6.463590E-1	6.209708E-1	5.854991E-1	5.739617E-1	6.910398E-1	6.300106E-1	6.309753E-1	6.035210E-1	5.917864E-1	6.506859E-1	6.170774E-1	6.745666E-1	5.440291E-1	5.806296E-1	5.876701E-1	5.789736E-1	6.631317E-1	4.787554E-1	5.777790E-1	5.719558E-1	6.419778E-1	6.420865E-1	6.064545E-1	6.210056E-1	5.814310E-1	6.523274E-1	6.255699E-1	6.144456E-1	5.651435E-1	5.568990E-1	5.981308E-1	5.431745E-1	6.727258E-1	6.361547E-1	6.232526E-1	5.211933E-1	6.357689E-1	6.781559E-1	6.769383E-1	5.245800E-1	5.955299E-1	6.280597E-1	5.668467E-1	5.785388E-1	5.706184E-1	5.837764E-1	5.548671E-1	5.730524E-1	6.178274E-1	5.755734E-1	5.888830E-1	5.493223E-1	6.748921E-1	6.433193E-1	6.642443E-1	4.873168E-1	6.266581E-1	6.244878E-1	6.987109E-1	6.046679E-1	5.898283E-1	5.709820E-1	5.383162E-1	5.957343E-1	6.991728E-1	5.813083E-1	6.498389E-1	5.733261E-1	6.456564E-1	6.579002E-1	6.824796E-1	5.735434E-1	5.479777E-1	6.228461E-1	6.408869E-1	6.069786E-1	5.461920E-1	5.448738E-1	6.096505E-1	5.786303E-1	6.075845E-1	6.289040E-1	5.727139E-1	5.047699E-1	6.295970E-1	6.589390E-1	6.408228E-1	5.798968E-1	5.975630E-1	6.038788E-1	6.616141E-1	6.244648E-1	5.937548E-1
2.849040E+2	9.678827E-1	1.059894E+0	1.045141E+0	1.025744E+0	1.118849E+0	1.088280E+0	1.116346E+0	8.944643E-1	1.013037E+0	9.258545E-1	1.091478E+0	8.837416E-1	9.445763E-1	8.972334E-1	9.402916E-1	1.020149E+0	9.869352E-1	8.691043E-1	9.406480E-1	1.047313E+0	1.072114E+0	9.929442E-1	1.033372E+0	9.856789E-1	1.000951E+0	1.032841E+0	1.053227E+0	9.790218E-1	9.172103E-1	8.626753E-1	9.019737E-1	1.042623E+0	9.319262E-1	8.810654E-1	9.152848E-1	1.033879E+0	1.040683E+0	1.020785E+0	9.701616E-1	8.643716E-1	1.020857E+0	9.873922E-1	9.561108E-1	9.377163E-1	9.287640E-1	9.580284E-1	9.738366E-1	1.042423E+0	9.382313E-1	9.221055E-1	8.342209E-1	1.026019E+0	1.076089E+0	1.014361E+0	1.033882E+0	9.126610E-1	1.019405E+0	9.873740E-1	1.008619E+0	8.863113E-1	9.153316E-1	9.156709E-1	8.878685E-1	1.005248E+0	8.884026E-1	7.819256E-1	9.191960E-1	1.038892E+0	1.046045E+0	1.020072E+0	1.044368E+0	9.328581E-1	9.740983E-1	9.697827E-1	9.737445E-1	9.155801E-1	8.953140E-1	9.300898E-1	8.580194E-1	1.026970E+0	9.665457E-1	9.430432E-1	9.003172E-1	1.054139E+0	1.025409E+0	9.925351E-1	9.962749E-1	9.674393E-1	9.824474E-1	1.041832E+0	1.079477E+0	8.880278E-1	8.962724E-1	9.404457E-1	9.578645E-1	9.783661E-1	8.109954E-1	9.353551E-1	9.887714E-1	9.766154E-1	1.016417E+0	1.027913E+0	1.104769E+0	8.689875E-1	1.067611E+0	1.052825E+0	9.792118E-1	8.671413E-1	9.247010E-1	9.363009E-1	9.563185E-1	1.070871E+0	9.844794E-1	9.593101E-1	8.387212E-1	9.914678E-1	1.054368E+0	1.092356E+0	8.964155E-1	9.413348E-1	1.038542E+0	9.521474E-1	9.494039E-1	8.516243E-1	8.956040E-1	9.068827E-1	9.531525E-1	9.776010E-1	8.813451E-1	9.016183E-1	9.543094E-1	1.136887E+0	9.886927E-1	1.025660E+0	8.643131E-1	9.903074E-1	1.038587E+0	1.058413E+0	8.964353E-1	1.014206E+0	8.894938E-1	9.544566E-1	9.483570E-1	1.119779E+0	9.290898E-1	9.822463E-1	9.787552E-1	1.044888E+0	1.010714E+0	1.094781E+0	9.594750E-1	8.357694E-1	9.615195E-1	9.798252E-1	9.140121E-1	8.752941E-1	9.579863E-1	9.506960E-1	9.032195E-1	9.998805E-1	9.520442E-1	9.836795E-1	8.521409E-1	1.046095E+0	1.025276E+0	9.762360E-1	8.774404E-1	9.071302E-1	1.055555E+0	1.071271E+0	9.751830E-1	8.517697E-1
2.850010E+2	1.018867E+0	1.179682E+0	1.176696E+0	1.060454E+0	1.140413E+0	1.143755E+0	1.128048E+0	9.573520E-1	1.063987E+0	1.014687E+0	1.052000E+0	8.844718E-1	9.628814E-1	9.635725E-1	9.472015E-1	9.607614E-1	1.057264E+0	9.077290E-1	9.393892E-1	1.047314E+0	1.077251E+0	9.916000E-1	1.050885E+0	9.690479E-1	1.038748E+0	1.005120E+0	1.095247E+0	9.577710E-1	9.621348E-1	9.078143E-1	8.964570E-1	1.057042E+0	9.591082E-1	9.299795E-1	9.383890E-1	1.066470E+0	1.073185E+0	1.013821E+0	1.007083E+0	9.927161E-1	1.059824E+0	1.085660E+0	9.442751E-1	9.074572E-1	9.461182E-1	8.897359E-1	9.327998E-1	1.018970E+0	9.677565E-1	9.358116E-1	9.299430E-1	1.012107E+0	1.079907E+0	1.055069E+0	1.041015E+0	9.216849E-1	1.069063E+0	1.032961E+0	1.027556E+0	9.420266E-1	9.068647E-1	9.440370E-1	9.449801E-1	9.966607E-1	8.774145E-1	7.906438E-1	9.300759E-1	1.086426E+0	1.012105E+0	1.082316E+0	1.044983E+0	9.570137E-1	1.061333E+0	1.041390E+0	1.087993E+0	8.988817E-1	9.267856E-1	9.604417E-1	9.328682E-1	9.965814E-1	1.037866E+0	9.654309E-1	9.318998E-1	1.105429E+0	1.047684E+0	1.050955E+0	1.026290E+0	9.646975E-1	1.046391E+0	1.023214E+0	1.157550E+0	9.495932E-1	9.271501E-1	9.378474E-1	9.867570E-1	1.035422E+0	8.593731E-1	9.124523E-1	9.710040E-1	1.055047E+0	1.094521E+0	1.046598E+0	1.061174E+0	8.998931E-1	1.060394E+0	1.038117E+0	1.066233E+0	9.514553E-1	9.660193E-1	9.745844E-1	9.040304E-1	1.087704E+0	9.406031E-1	1.024021E+0	9.246631E-1	1.058548E+0	1.081354E+0	1.156944E+0	9.805295E-1	9.274091E-1	9.873313E-1	9.737182E-1	1.105887E+0	8.703582E-1	9.391779E-1	9.766396E-1	9.620968E-1	1.091692E+0	9.311573E-1	9.805847E-1	1.012721E+0	1.134277E+0	1.003084E+0	1.026383E+0	1.058892E+0	1.062448E+0	1.034702E+0	1.122974E+0	1.127485E+0	1.044130E+0	9.320046E-1	9.557741E-1	1.024770E+0	1.146274E+0	9.426300E-1	1.005666E+0	1.005893E+0	1.053549E+0	1.066228E+0	1.106156E+0	9.792661E-1	9.017956E-1	1.023428E+0	1.036315E+0	9.843056E-1	8.647027E-1	9.233342E-1	9.488117E-1	9.377766E-1	1.017093E+0	9.580700E-1	9.510397E-1	9.270494E-1	1.050186E+0	1.016275E+0	1.019690E+0	9.256138E-1	9.159747E-1	1.094018E+0	1.115590E+0	1.039840E+0	9.701516E-1
2.851030E+2	8.036982E-1	9.654625E-1	8.733463E-1	8.322324E-1	8.928007E-1	9.248928E-1	9.580054E-1	7.824240E-1	8.874547E-1	8.398654E-1	8.393290E-1	7.305140E-1	8.139999E-1	7.580394E-1	7.478780E-1	8.200700E-1	8.250321E-1	7.254459E-1	8.229926E-1	8.726832E-1	8.885119E-1	8.618990E-1	8.611598E-1	7.888787E-1	8.611744E-1	7.983328E-1	8.709203E-1	7.534377E-1	7.394383E-1	7.399728E-1	7.684536E-1	8.642890E-1	7.352159E-1	7.892675E-1	7.256949E-1	8.623422E-1	8.576079E-1	8.448016E-1	7.765046E-1	6.909335E-1	9.054556E-1	8.297405E-1	8.281404E-1	7.697766E-1	7.706535E-1	7.537616E-1	7.354330E-1	7.954721E-1	7.719613E-1	7.172040E-1	7.600025E-1	8.753131E-1	8.928648E-1	8.508502E-1	8.370091E-1	7.540975E-1	8.182102E-1	8.351939E-1	8.199770E-1	7.681061E-1	7.756282E-1	7.362377E-1	7.931006E-1	8.857367E-1	7.140473E-1	6.343812E-1	7.716414E-1	9.412302E-1	8.553046E-1	8.678424E-1	8.414825E-1	8.035096E-1	8.575386E-1	8.387574E-1	8.211752E-1	7.994860E-1	7.517262E-1	7.971485E-1	7.895140E-1	8.492000E-1	7.643470E-1	7.613078E-1	7.667479E-1	9.043404E-1	9.300398E-1	8.510270E-1	8.200143E-1	7.611039E-1	8.650897E-1	8.266960E-1	9.041947E-1	7.564309E-1	7.604091E-1	8.267523E-1	7.838500E-1	7.964996E-1	7.370060E-1	7.558277E-1	8.014633E-1	8.502557E-1	8.630263E-1	8.445199E-1	8.811689E-1	7.708953E-1	8.591672E-1	8.520661E-1	8.305495E-1	6.962132E-1	7.777163E-1	7.525408E-1	7.787961E-1	8.805809E-1	8.537458E-1	7.953255E-1	7.606515E-1	8.829045E-1	8.892801E-1	8.846469E-1	8.823964E-1	7.842914E-1	8.745085E-1	7.870193E-1	9.024592E-1	7.595844E-1	7.621579E-1	7.421784E-1	8.477470E-1	8.019143E-1	6.859271E-1	7.530690E-1	8.148997E-1	9.515664E-1	8.331376E-1	8.557946E-1	8.379633E-1	7.856626E-1	8.295948E-1	9.074884E-1	9.413832E-1	8.818153E-1	7.898793E-1	8.148654E-1	8.782529E-1	9.086475E-1	7.601874E-1	8.613707E-1	8.924070E-1	8.379108E-1	8.660824E-1	9.554531E-1	9.460451E-1	6.692664E-1	8.712071E-1	8.749153E-1	8.768767E-1	7.088514E-1	8.010309E-1	7.666694E-1	8.032508E-1	8.464045E-1	8.081745E-1	8.316076E-1	7.926548E-1	8.758960E-1	8.840048E-1	8.166774E-1	8.221824E-1	7.383994E-1	8.563447E-1	9.490926E-1	8.772169E-1	7.819524E-1
2.852020E+2	8.054265E-1	8.754026E-1	9.275156E-1	8.105383E-1	8.348011E-1	8.922145E-1	8.974231E-1	7.260422E-1	8.077996E-1	7.837240E-1	8.450603E-1	6.852753E-1	7.554233E-1	7.124315E-1	7.776435E-1	7.946179E-1	7.466437E-1	6.807224E-1	7.915337E-1	8.365521E-1	8.198207E-1	8.041055E-1	8.103716E-1	7.784838E-1	8.062621E-1	7.818500E-1	8.353639E-1	7.460814E-1	7.137673E-1	7.298003E-1	6.735546E-1	8.005435E-1	7.266321E-1	7.564351E-1	7.827754E-1	8.546221E-1	8.377087E-1	8.467006E-1	7.960090E-1	7.235396E-1	8.589955E-1	8.184296E-1	8.059490E-1	7.251438E-1	7.179500E-1	7.312009E-1	7.491116E-1	8.003007E-1	8.022627E-1	7.528391E-1	7.405805E-1	7.895272E-1	8.462951E-1	8.807025E-1	7.970650E-1	7.528090E-1	8.438948E-1	7.554156E-1	7.762755E-1	7.266962E-1	7.085990E-1	7.283210E-1	7.523062E-1	7.948517E-1	7.001276E-1	6.209686E-1	7.192836E-1	8.452965E-1	8.043956E-1	7.900363E-1	8.556229E-1	7.084465E-1	8.458096E-1	7.907664E-1	8.474314E-1	6.937290E-1	7.497591E-1	7.060934E-1	7.394027E-1	7.952608E-1	7.775819E-1	7.652585E-1	7.404295E-1	7.903625E-1	8.395437E-1	8.270104E-1	7.899992E-1	7.652168E-1	8.116770E-1	8.046315E-1	8.659233E-1	7.610480E-1	7.329615E-1	7.390455E-1	7.543010E-1	7.829492E-1	6.018326E-1	7.425299E-1	8.118283E-1	8.092970E-1	8.229195E-1	8.154529E-1	9.402333E-1	7.124438E-1	8.270988E-1	8.336819E-1	8.232979E-1	7.077114E-1	7.662011E-1	7.570073E-1	7.368361E-1	8.388639E-1	7.839020E-1	7.622349E-1	7.363775E-1	8.317118E-1	8.432450E-1	8.802442E-1	8.029554E-1	7.819709E-1	8.120963E-1	7.587533E-1	8.531666E-1	6.976823E-1	6.933925E-1	7.292601E-1	7.557564E-1	7.809157E-1	7.081513E-1	7.804331E-1	8.203514E-1	9.263358E-1	7.879103E-1	8.008593E-1	8.332344E-1	8.136359E-1	7.961871E-1	8.647273E-1	8.846070E-1	8.455429E-1	7.530788E-1	7.391434E-1	8.088499E-1	8.647656E-1	7.388077E-1	8.175541E-1	8.628009E-1	7.928784E-1	8.397856E-1	8.381600E-1	9.326153E-1	6.685484E-1	7.721538E-1	8.602433E-1	8.549929E-1	7.179302E-1	7.575453E-1	7.327535E-1	7.440109E-1	7.739698E-1	7.712663E-1	7.626190E-1	7.566695E-1	8.341646E-1	8.382988E-1	8.513047E-1	8.250158E-1	7.887461E-1	7.764626E-1	8.568587E-1	9.046465E-1	6.635711E-1
2.853000E+2	6.913612E-1	7.687298E-1	7.588157E-1	7.038034E-1	7.351609E-1	7.949436E-1	7.735047E-1	5.778602E-1	7.267096E-1	6.941810E-1	7.005207E-1	6.166873E-1	6.150844E-1	6.146997E-1	6.304100E-1	7.027090E-1	7.305268E-1	6.502284E-1	6.820570E-1	7.281600E-1	7.581923E-1	6.952375E-1	6.889476E-1	6.884000E-1	6.935846E-1	6.799553E-1	7.506754E-1	6.324728E-1	6.130080E-1	6.077341E-1	6.023802E-1	7.459049E-1	6.121822E-1	6.364946E-1	6.353172E-1	7.414087E-1	7.229545E-1	7.447826E-1	6.915179E-1	6.014392E-1	7.690716E-1	6.763308E-1	6.409943E-1	6.063762E-1	6.298958E-1	6.421777E-1	6.162309E-1	6.947604E-1	6.779480E-1	6.294876E-1	6.448586E-1	7.076054E-1	7.714785E-1	7.497574E-1	6.865017E-1	6.148709E-1	7.188973E-1	7.138513E-1	7.194645E-1	6.175252E-1	6.641474E-1	5.957257E-1	6.431035E-1	7.053967E-1	5.851116E-1	5.606093E-1	6.342868E-1	6.854083E-1	7.242985E-1	6.831378E-1	7.056102E-1	6.554608E-1	7.343822E-1	7.260155E-1	6.856374E-1	6.348870E-1	6.468220E-1	6.484252E-1	5.935104E-1	6.851040E-1	6.856739E-1	6.454190E-1	6.226521E-1	7.081362E-1	7.218991E-1	6.926420E-1	6.673833E-1	6.569081E-1	7.086126E-1	7.053382E-1	7.388631E-1	6.448429E-1	6.259176E-1	7.150070E-1	6.722190E-1	6.816740E-1	5.676843E-1	6.221069E-1	6.785660E-1	7.195368E-1	7.251147E-1	7.033415E-1	7.855413E-1	6.613825E-1	8.022459E-1	7.344062E-1	6.840629E-1	6.663200E-1	6.476646E-1	6.236531E-1	6.116013E-1	7.349360E-1	6.665996E-1	6.673742E-1	6.497788E-1	7.769886E-1	7.464140E-1	7.613431E-1	7.061584E-1	6.404003E-1	6.920724E-1	7.081735E-1	6.724290E-1	6.251909E-1	6.191803E-1	6.233332E-1	6.369344E-1	6.745239E-1	5.954994E-1	6.092110E-1	6.700390E-1	7.366651E-1	7.043077E-1	7.567671E-1	7.622946E-1	7.238280E-1	6.998490E-1	7.280569E-1	7.379351E-1	7.376348E-1	6.376031E-1	6.555204E-1	6.896735E-1	7.513342E-1	6.390346E-1	7.329410E-1	7.706958E-1	6.811633E-1	7.039201E-1	7.564091E-1	7.905407E-1	6.161569E-1	7.015060E-1	7.105819E-1	7.236909E-1	6.294130E-1	6.495108E-1	6.397988E-1	7.026655E-1	7.029690E-1	6.650591E-1	6.869538E-1	6.920414E-1	7.040593E-1	7.115694E-1	7.834075E-1	7.088325E-1	6.322620E-1	7.301112E-1	7.873851E-1	6.734482E-1	6.301805E-1
2.854020E+2	5.107577E-1	5.693752E-1	5.684474E-1	5.666959E-1	5.589321E-1	5.760812E-1	6.447669E-1	4.665419E-1	5.243427E-1	5.421008E-1	5.317852E-1	4.539742E-1	4.930505E-1	4.375978E-1	4.778605E-1	4.941451E-1	5.349233E-1	4.537153E-1	4.901589E-1	5.010541E-1	5.899964E-1	4.882546E-1	5.441729E-1	5.421853E-1	5.295605E-1	4.664251E-1	5.231156E-1	5.131418E-1	4.782348E-1	4.697733E-1	4.666523E-1	5.577058E-1	4.920102E-1	4.730013E-1	4.776653E-1	5.158377E-1	5.723822E-1	5.371480E-1	5.466227E-1	4.335507E-1	5.465110E-1	5.066599E-1	4.878743E-1	4.520534E-1	4.904237E-1	4.952273E-1	4.605527E-1	5.009241E-1	5.093470E-1	4.458303E-1	5.026631E-1	5.553535E-1	5.348146E-1	5.435029E-1	5.424142E-1	4.498613E-1	5.442423E-1	5.093792E-1	4.936751E-1	4.609216E-1	4.757595E-1	4.895170E-1	5.031483E-1	5.429478E-1	3.961037E-1	3.815449E-1	4.663332E-1	5.505826E-1	5.355953E-1	5.106113E-1	5.525230E-1	4.910466E-1	5.217904E-1	5.348100E-1	5.124895E-1	4.456382E-1	4.566823E-1	4.729909E-1	4.615729E-1	5.012564E-1	5.290621E-1	4.768528E-1	4.713174E-1	5.567090E-1	5.325536E-1	5.582740E-1	4.911226E-1	4.766218E-1	4.889433E-1	5.115789E-1	5.681734E-1	4.863109E-1	4.976018E-1	5.064604E-1	4.968911E-1	4.791256E-1	4.104568E-1	4.610492E-1	4.897766E-1	5.443748E-1	5.323198E-1	5.593946E-1	5.478787E-1	4.920736E-1	5.745625E-1	5.145276E-1	5.259735E-1	4.838951E-1	5.284510E-1	4.609484E-1	4.760385E-1	5.343999E-1	5.179571E-1	4.666224E-1	4.595244E-1	5.528014E-1	5.868813E-1	5.903319E-1	5.038854E-1	4.841308E-1	5.392423E-1	5.192428E-1	5.261173E-1	4.419266E-1	4.285437E-1	5.128835E-1	4.746732E-1	5.107356E-1	4.506604E-1	5.036627E-1	4.979201E-1	5.461253E-1	5.521784E-1	5.594336E-1	5.636619E-1	5.442113E-1	5.149418E-1	5.209566E-1	5.376402E-1	5.662519E-1	4.948433E-1	5.139540E-1	5.284342E-1	5.666977E-1	4.615803E-1	5.425620E-1	5.535894E-1	4.845780E-1	5.154603E-1	5.744285E-1	5.820254E-1	4.288413E-1	4.924756E-1	5.220381E-1	5.486216E-1	4.629713E-1	4.776071E-1	5.135553E-1	4.934713E-1	4.957046E-1	4.812687E-1	5.014997E-1	5.025664E-1	5.796826E-1	5.550622E-1	5.321871E-1	5.508511E-1	5.002707E-1	5.506250E-1	5.286541E-1	5.206214E-1	3.873437E-1
2.855000E+2	3.275628E-1	4.111143E-1	3.695675E-1	3.593002E-1	3.343703E-1	4.066147E-1	3.776538E-1	3.017338E-1	3.521157E-1	3.509338E-1	3.636861E-1	2.941791E-1	3.527113E-1	3.209118E-1	3.306272E-1	3.166890E-1	3.561698E-1	2.910827E-1	3.479650E-1	3.384662E-1	3.492586E-1	3.115120E-1	3.585336E-1	3.135083E-1	4.026203E-1	3.383073E-1	3.750722E-1	3.218859E-1	3.338353E-1	3.057465E-1	2.889927E-1	3.558461E-1	3.196202E-1	3.356391E-1	3.376816E-1	3.537352E-1	3.568034E-1	3.409084E-1	3.167418E-1	2.878627E-1	3.719097E-1	3.412320E-1	3.133023E-1	2.712534E-1	3.252430E-1	3.238869E-1	2.957545E-1	3.298519E-1	3.609469E-1	3.019199E-1	3.056707E-1	3.451390E-1	3.370863E-1	3.603155E-1	3.248559E-1	3.138578E-1	3.747241E-1	3.062481E-1	3.531039E-1	3.088350E-1	3.261785E-1	2.995293E-1	3.129845E-1	3.146604E-1	2.876812E-1	2.547915E-1	2.936197E-1	3.310597E-1	3.434988E-1	3.306431E-1	3.729992E-1	3.133878E-1	3.436533E-1	3.215135E-1	3.514051E-1	3.374956E-1	3.248966E-1	3.109127E-1	3.106062E-1	3.591915E-1	3.275993E-1	3.280408E-1	2.949808E-1	3.352674E-1	3.501702E-1	3.317312E-1	3.289115E-1	3.388371E-1	3.219343E-1	3.405735E-1	3.951873E-1	3.185453E-1	3.157644E-1	3.180528E-1	3.642466E-1	3.257874E-1	2.539409E-1	3.214171E-1	3.091319E-1	3.648564E-1	3.282671E-1	3.670046E-1	3.749052E-1	3.079841E-1	3.701281E-1	3.527439E-1	3.483044E-1	3.305963E-1	3.191494E-1	3.173855E-1	3.198181E-1	3.404512E-1	3.621513E-1	3.055800E-1	2.876394E-1	3.753929E-1	3.971875E-1	3.628071E-1	3.256442E-1	3.147103E-1	3.103961E-1	3.303117E-1	3.453797E-1	3.148627E-1	3.168856E-1	2.816517E-1	3.079402E-1	3.420478E-1	3.027565E-1	3.293122E-1	3.405979E-1	3.964769E-1	3.815479E-1	3.389698E-1	3.575975E-1	3.270512E-1	3.813112E-1	4.086020E-1	3.381338E-1	3.585968E-1	3.044976E-1	3.249782E-1	3.342465E-1	3.539111E-1	3.411400E-1	3.121437E-1	3.677332E-1	3.538096E-1	3.635244E-1	3.718307E-1	3.791642E-1	3.161650E-1	3.453531E-1	3.613721E-1	3.457012E-1	2.980414E-1	3.220099E-1	3.213637E-1	3.280913E-1	3.981678E-1	2.778938E-1	3.501695E-1	3.197014E-1	3.734795E-1	3.563118E-1	3.794174E-1	3.645325E-1	2.968410E-1	3.454963E-1	3.346063E-1	3.599584E-1	3.144926E-1
2.856010E+2	2.808996E-1	2.939491E-1	2.828954E-1	2.525648E-1	3.098323E-1	3.101028E-1	2.943526E-1	2.887229E-1	2.688730E-1	2.848431E-1	2.758159E-1	2.759379E-1	2.794907E-1	2.456881E-1	2.407987E-1	2.961868E-1	2.572692E-1	2.443259E-1	2.592516E-1	2.868510E-1	2.754321E-1	2.597665E-1	2.721357E-1	2.712389E-1	2.935089E-1	2.596389E-1	2.871514E-1	2.712114E-1	2.491208E-1	2.326340E-1	2.437497E-1	3.072794E-1	2.695486E-1	2.545629E-1	2.473033E-1	2.919823E-1	2.679191E-1	2.611466E-1	2.665859E-1	2.413815E-1	2.909783E-1	2.450851E-1	2.334141E-1	2.485588E-1	2.249773E-1	2.318148E-1	2.306164E-1	2.843246E-1	2.529489E-1	2.361321E-1	2.349198E-1	2.902663E-1	2.828825E-1	2.829700E-1	2.492457E-1	2.597134E-1	2.788343E-1	2.707172E-1	2.613323E-1	2.312856E-1	2.577383E-1	2.652259E-1	2.652863E-1	2.896132E-1	2.056310E-1	2.319889E-1	2.467016E-1	3.155033E-1	2.891953E-1	2.616329E-1	2.807787E-1	2.596225E-1	2.798760E-1	2.636183E-1	2.768946E-1	2.381001E-1	2.553970E-1	2.629569E-1	2.287800E-1	2.718258E-1	2.878946E-1	2.510011E-1	2.383948E-1	2.823490E-1	2.854304E-1	2.603281E-1	2.720738E-1	2.750859E-1	2.564850E-1	2.592081E-1	2.918546E-1	2.261960E-1	2.553805E-1	2.628305E-1	2.631211E-1	2.787160E-1	2.133890E-1	2.608357E-1	2.728550E-1	2.698669E-1	2.529786E-1	2.645813E-1	3.081055E-1	2.461726E-1	3.003798E-1	3.020034E-1	2.649085E-1	2.370838E-1	2.967968E-1	2.593225E-1	2.333163E-1	2.738495E-1	2.797712E-1	2.533695E-1	2.443406E-1	2.730081E-1	2.614654E-1	2.960173E-1	2.835875E-1	2.628779E-1	2.743891E-1	2.514659E-1	2.929577E-1	2.342271E-1	2.610561E-1	2.538778E-1	2.811097E-1	2.685536E-1	2.429815E-1	2.714561E-1	2.315629E-1	2.903313E-1	2.732756E-1	2.912625E-1	2.900357E-1	2.836199E-1	2.500115E-1	3.105015E-1	2.663744E-1	2.552221E-1	2.524701E-1	2.551828E-1	3.019985E-1	2.976087E-1	2.556199E-1	2.758806E-1	2.764504E-1	2.472906E-1	2.934000E-1	2.779965E-1	2.901027E-1	2.329128E-1	2.768899E-1	2.975462E-1	2.833656E-1	2.223851E-1	2.479484E-1	2.591846E-1	2.713189E-1	2.640563E-1	2.763873E-1	2.633772E-1	2.741680E-1	2.867432E-1	2.898309E-1	2.965826E-1	2.823533E-1	2.458137E-1	2.715319E-1	3.202325E-1	2.874638E-1	2.234288E-1
2.858030E+2	2.428781E-1	2.738383E-1	2.960506E-1	3.245893E-1	3.098319E-1	2.964235E-1	3.026134E-1	3.190822E-1	2.451918E-1	2.564166E-1	2.891882E-1	2.919903E-1	2.502026E-1	2.172569E-1	2.594022E-1	2.898237E-1	2.550717E-1	2.416158E-1	2.504434E-1	2.902920E-1	2.792843E-1	2.671585E-1	2.727192E-1	2.850976E-1	2.443019E-1	2.543935E-1	2.852119E-1	2.630385E-1	2.465531E-1	2.230974E-1	2.271980E-1	2.860305E-1	2.287760E-1	2.324508E-1	2.201221E-1	3.048470E-1	2.738892E-1	2.845690E-1	2.617093E-1	2.892500E-1	2.819866E-1	2.245835E-1	2.445095E-1	2.954608E-1	2.648265E-1	2.501074E-1	2.540663E-1	3.201949E-1	2.420711E-1	2.279084E-1	2.154978E-1	2.786735E-1	2.752477E-1	2.816131E-1	2.677914E-1	2.532681E-1	3.002381E-1	2.506051E-1	2.911947E-1	2.742008E-1	2.570329E-1	2.493934E-1	2.464587E-1	2.810256E-1	2.027008E-1	2.051626E-1	2.535017E-1	2.921675E-1	2.532194E-1	3.103460E-1	2.777046E-1	2.502724E-1	2.652147E-1	2.887569E-1	2.705080E-1	2.770629E-1	2.593312E-1	2.259275E-1	2.306826E-1	2.604303E-1	2.798069E-1	2.694382E-1	2.331312E-1	2.880476E-1	2.756852E-1	2.694153E-1	2.586632E-1	2.490369E-1	2.918423E-1	2.805835E-1	3.209412E-1	2.315831E-1	2.354810E-1	2.316459E-1	2.460485E-1	2.366374E-1	2.347322E-1	2.490155E-1	2.402795E-1	2.785818E-1	2.670515E-1	2.458953E-1	2.891211E-1	2.401260E-1	2.939661E-1	2.917082E-1	2.663591E-1	2.585459E-1	2.446410E-1	2.446473E-1	2.436451E-1	2.936104E-1	2.511174E-1	2.754304E-1	2.502445E-1	2.862476E-1	2.678148E-1	3.040905E-1	2.635606E-1	2.713876E-1	2.527854E-1	2.715499E-1	3.070405E-1	2.228237E-1	2.290565E-1	2.325633E-1	2.600282E-1	3.021506E-1	2.314867E-1	2.245457E-1	2.596006E-1	3.112122E-1	2.458648E-1	2.833111E-1	2.846308E-1	2.549107E-1	2.663274E-1	3.096629E-1	2.994945E-1	2.706370E-1	2.619871E-1	2.512320E-1	2.851740E-1	2.934689E-1	2.577577E-1	2.819244E-1	2.682264E-1	2.542186E-1	2.912087E-1	2.986116E-1	3.021186E-1	2.386543E-1	2.535833E-1	2.667338E-1	2.886709E-1	2.231413E-1	2.554228E-1	2.503917E-1	2.762557E-1	2.597532E-1	2.552968E-1	2.589259E-1	2.433233E-1	2.785603E-1	2.842912E-1	3.074468E-1	2.851875E-1	2.458138E-1	2.902698E-1	2.854953E-1	2.619928E-1	1.930742E-1
2.860040E+2	3.941004E-1	4.653250E-1	4.616555E-1	4.321922E-1	4.354975E-1	4.651300E-1	4.657730E-1	4.499172E-1	3.994783E-1	3.765180E-1	4.044375E-1	4.167613E-1	4.222706E-1	3.528968E-1	3.747441E-1	4.128407E-1	4.118476E-1	3.669778E-1	3.869739E-1	4.468581E-1	4.404182E-1	3.807303E-1	4.046513E-1	4.382417E-1	4.047602E-1	3.862580E-1	4.455384E-1	4.183318E-1	3.697746E-1	3.489782E-1	3.574079E-1	4.461519E-1	3.804217E-1	3.919245E-1	3.594262E-1	4.455073E-1	4.198185E-1	4.314318E-1	3.968515E-1	4.307757E-1	4.633321E-1	4.027367E-1	3.732192E-1	4.444885E-1	3.638066E-1	3.757159E-1	3.569837E-1	4.657436E-1	3.834785E-1	3.505753E-1	3.958437E-1	4.216510E-1	4.233537E-1	3.840622E-1	3.926200E-1	4.331028E-1	4.363664E-1	4.121715E-1	4.004465E-1	4.082180E-1	3.508737E-1	3.951831E-1	3.782550E-1	4.599345E-1	3.492185E-1	3.171618E-1	3.690971E-1	4.321787E-1	4.079831E-1	3.854457E-1	4.338655E-1	4.458532E-1	4.191596E-1	4.159734E-1	4.074654E-1	4.281444E-1	3.891501E-1	3.813291E-1	3.575458E-1	4.457979E-1	3.930380E-1	3.800595E-1	3.647266E-1	4.638982E-1	4.156056E-1	4.245550E-1	3.576495E-1	4.197263E-1	3.655671E-1	4.157333E-1	4.365200E-1	4.255149E-1	3.884996E-1	3.836703E-1	3.832892E-1	3.878358E-1	3.179701E-1	3.997297E-1	3.927919E-1	3.848992E-1	4.302938E-1	4.452064E-1	4.417034E-1	3.805450E-1	4.486950E-1	4.218698E-1	4.164711E-1	3.535911E-1	3.774016E-1	3.639642E-1	3.733981E-1	4.429144E-1	4.302038E-1	3.813213E-1	3.794863E-1	4.283508E-1	4.249666E-1	4.369354E-1	4.084230E-1	3.820136E-1	3.952134E-1	3.972555E-1	4.189267E-1	3.669921E-1	3.400339E-1	3.785359E-1	3.833217E-1	3.931437E-1	3.862873E-1	3.871688E-1	3.974519E-1	4.591203E-1	4.116996E-1	4.047472E-1	4.602917E-1	4.264298E-1	3.836421E-1	4.228559E-1	4.162011E-1	3.876136E-1	4.123604E-1	3.763375E-1	3.959381E-1	4.449867E-1	3.703589E-1	4.284860E-1	4.211875E-1	4.014409E-1	4.467978E-1	4.407848E-1	4.752928E-1	3.333887E-1	4.079891E-1	4.552778E-1	4.007414E-1	3.593220E-1	3.716106E-1	3.866838E-1	3.762246E-1	4.426338E-1	3.863603E-1	3.761331E-1	3.821250E-1	3.947546E-1	4.352583E-1	4.316990E-1	4.417521E-1	3.716813E-1	4.056544E-1	4.472017E-1	3.873888E-1	3.175280E-1
2.862030E+2	6.014919E-1	6.393238E-1	6.349983E-1	6.404561E-1	6.258548E-1	6.285163E-1	6.612888E-1	6.140010E-1	5.882101E-1	5.442323E-1	6.330267E-1	6.641146E-1	5.198975E-1	5.228911E-1	5.187885E-1	6.475630E-1	5.964614E-1	5.004714E-1	5.486718E-1	6.584798E-1	6.265885E-1	5.682251E-1	5.873716E-1	6.294979E-1	5.930307E-1	5.181217E-1	6.149153E-1	6.128565E-1	5.616663E-1	4.538794E-1	5.383782E-1	6.267626E-1	5.206229E-1	5.212449E-1	5.272711E-1	6.170445E-1	5.922811E-1	6.042493E-1	5.542860E-1	6.416767E-1	6.214471E-1	6.169460E-1	5.736807E-1	6.192362E-1	5.257739E-1	5.403491E-1	5.309015E-1	6.478538E-1	5.443109E-1	5.314909E-1	5.484432E-1	6.589154E-1	6.103948E-1	6.045646E-1	5.680937E-1	6.425867E-1	6.016042E-1	5.087086E-1	5.672383E-1	6.468883E-1	5.075104E-1	4.974334E-1	5.345282E-1	6.674682E-1	5.184458E-1	4.472688E-1	5.322911E-1	6.335520E-1	5.987225E-1	5.830052E-1	6.201515E-1	6.211752E-1	5.841016E-1	5.911814E-1	5.763556E-1	6.404525E-1	5.589645E-1	5.658681E-1	5.338847E-1	6.493983E-1	5.908245E-1	5.578435E-1	5.167182E-1	6.299799E-1	6.160885E-1	5.926777E-1	5.728667E-1	6.809001E-1	5.709427E-1	6.012179E-1	6.707400E-1	6.148301E-1	5.346555E-1	5.428424E-1	5.316946E-1	6.724029E-1	4.695059E-1	5.268017E-1	5.845415E-1	6.376209E-1	5.801669E-1	6.050701E-1	6.526463E-1	6.009145E-1	5.801741E-1	6.182155E-1	5.796367E-1	5.674431E-1	5.392885E-1	5.247541E-1	5.444656E-1	6.061249E-1	5.752649E-1	5.570711E-1	5.270977E-1	6.472427E-1	6.718064E-1	6.637273E-1	5.873311E-1	5.537553E-1	5.552453E-1	5.913930E-1	6.035758E-1	5.795784E-1	4.911820E-1	5.425952E-1	5.647472E-1	6.220272E-1	5.617795E-1	5.161722E-1	5.610046E-1	6.714123E-1	6.049441E-1	6.042489E-1	5.994697E-1	5.368495E-1	5.965188E-1	6.643335E-1	6.819465E-1	5.744126E-1	5.316435E-1	5.376578E-1	5.929295E-1	6.321070E-1	5.185941E-1	5.984666E-1	6.308921E-1	5.348060E-1	5.906980E-1	6.177909E-1	6.682594E-1	5.250114E-1	5.980830E-1	5.777939E-1	5.705057E-1	4.902069E-1	5.482712E-1	5.305137E-1	5.706079E-1	6.269479E-1	5.565920E-1	5.697471E-1	5.429584E-1	6.574184E-1	5.841477E-1	5.776781E-1	5.961911E-1	5.424533E-1	6.107825E-1	6.244800E-1	5.852795E-1	5.148329E-1
2.864160E+2	8.209812E-1	8.762772E-1	8.772150E-1	9.250828E-1	9.091595E-1	9.233731E-1	9.469907E-1	8.684426E-1	8.788428E-1	8.292059E-1	8.132231E-1	9.005235E-1	8.249832E-1	7.544861E-1	7.314000E-1	9.402593E-1	7.656917E-1	7.064724E-1	8.198465E-1	9.664498E-1	8.211053E-1	8.182184E-1	8.740027E-1	8.803493E-1	8.048358E-1	7.863451E-1	8.625162E-1	9.316161E-1	7.811532E-1	7.577742E-1	7.105205E-1	9.174103E-1	7.731278E-1	8.086991E-1	7.406442E-1	9.309564E-1	8.277586E-1	8.523982E-1	7.987958E-1	8.747780E-1	8.320188E-1	8.410522E-1	7.593480E-1	9.309085E-1	7.944340E-1	7.458346E-1	7.960114E-1	8.885965E-1	7.968235E-1	7.391338E-1	7.336436E-1	8.397627E-1	8.386614E-1	8.569558E-1	8.619758E-1	9.087936E-1	8.507440E-1	8.204443E-1	8.673194E-1	8.780297E-1	7.093045E-1	7.322799E-1	7.899622E-1	9.322529E-1	6.796152E-1	6.457825E-1	7.519228E-1	9.153020E-1	8.790625E-1	8.157459E-1	8.826749E-1	8.977936E-1	8.619374E-1	8.219989E-1	8.807838E-1	9.076286E-1	7.871314E-1	7.236972E-1	7.406713E-1	9.198519E-1	7.790527E-1	7.705261E-1	7.720120E-1	8.896861E-1	8.833996E-1	8.218164E-1	7.880828E-1	9.434463E-1	8.425208E-1	8.439351E-1	8.728117E-1	9.457456E-1	7.466858E-1	7.695802E-1	7.858200E-1	9.213100E-1	6.950313E-1	7.587836E-1	8.066458E-1	8.981850E-1	8.447321E-1	8.265261E-1	8.593713E-1	9.166895E-1	8.976492E-1	8.763339E-1	8.167715E-1	9.085327E-1	7.682332E-1	7.538163E-1	7.549104E-1	9.310808E-1	8.752354E-1	7.659114E-1	7.960776E-1	8.378906E-1	8.908673E-1	9.198771E-1	8.570293E-1	9.552596E-1	8.144971E-1	8.130520E-1	7.952681E-1	8.801320E-1	7.369670E-1	7.544503E-1	7.940851E-1	8.957075E-1	7.533656E-1	7.882520E-1	7.681709E-1	9.045846E-1	8.324529E-1	8.753115E-1	9.311994E-1	9.350975E-1	8.583417E-1	9.200659E-1	9.208809E-1	8.845357E-1	7.803623E-1	7.812850E-1	8.333862E-1	8.854641E-1	7.708776E-1	8.334186E-1	8.759591E-1	8.179931E-1	8.485509E-1	8.488223E-1	9.248401E-1	7.884020E-1	8.369754E-1	8.389675E-1	8.682554E-1	7.391141E-1	7.792880E-1	7.597611E-1	7.742473E-1	8.535767E-1	7.908500E-1	8.041608E-1	7.845759E-1	8.358006E-1	8.729248E-1	8.540206E-1	8.505197E-1	7.547276E-1	8.533857E-1	8.628481E-1	8.732986E-1	7.242793E-1
2.866160E+2	8.149320E-1	8.745285E-1	9.066216E-1	9.580576E-1	9.106468E-1	9.811280E-1	9.917387E-1	9.855429E-1	8.738197E-1	8.441291E-1	8.533382E-1	9.202247E-1	8.085085E-1	7.473779E-1	7.989044E-1	9.232910E-1	8.133102E-1	7.640713E-1	7.619620E-1	9.251580E-1	8.820918E-1	8.491315E-1	8.524036E-1	8.720336E-1	8.740107E-1	8.612680E-1	8.903144E-1	9.389719E-1	7.567661E-1	7.482379E-1	7.574182E-1	9.272752E-1	7.759892E-1	7.718457E-1	7.841352E-1	9.352444E-1	8.821507E-1	8.435355E-1	8.385026E-1	9.226464E-1	9.241892E-1	8.205499E-1	7.985519E-1	9.142647E-1	8.214283E-1	7.909566E-1	7.803785E-1	9.555078E-1	8.512112E-1	7.398192E-1	7.974577E-1	9.734654E-1	9.043167E-1	9.186969E-1	8.477091E-1	9.423112E-1	8.558808E-1	8.398866E-1	8.898980E-1	9.375089E-1	7.855062E-1	7.533896E-1	7.479127E-1	9.658884E-1	7.455481E-1	6.551720E-1	7.709616E-1	9.844433E-1	8.335833E-1	8.488985E-1	8.832893E-1	8.876641E-1	8.370124E-1	8.600875E-1	8.282723E-1	8.837734E-1	7.890986E-1	7.801514E-1	7.558945E-1	8.902232E-1	8.297855E-1	7.830373E-1	7.450355E-1	9.100395E-1	8.360635E-1	8.309040E-1	8.404501E-1	9.324780E-1	8.154381E-1	8.694480E-1	9.600704E-1	9.041882E-1	7.658987E-1	8.046627E-1	8.587093E-1	8.863632E-1	7.049910E-1	7.757756E-1	7.896179E-1	1.013217E+0	9.066514E-1	8.549003E-1	8.495265E-1	9.025803E-1	8.535557E-1	8.461836E-1	8.414264E-1	8.625425E-1	7.716204E-1	8.220889E-1	7.607202E-1	8.893639E-1	8.483734E-1	8.129749E-1	8.085429E-1	9.508670E-1	9.210273E-1	8.802430E-1	8.316614E-1	9.583542E-1	8.064950E-1	8.130526E-1	8.954170E-1	9.118976E-1	7.315196E-1	7.383027E-1	7.915301E-1	9.342047E-1	7.671601E-1	8.109252E-1	8.156792E-1	9.254658E-1	8.413608E-1	9.035015E-1	8.568811E-1	9.085963E-1	8.412496E-1	9.024584E-1	9.516347E-1	9.099250E-1	7.803624E-1	7.911614E-1	8.382938E-1	9.243792E-1	7.544865E-1	8.470176E-1	9.162556E-1	8.942026E-1	8.923785E-1	8.815220E-1	9.757319E-1	9.635176E-1	8.464434E-1	9.093964E-1	8.762134E-1	8.919388E-1	7.296875E-1	7.974453E-1	8.137413E-1	9.776481E-1	8.232396E-1	7.967424E-1	7.831071E-1	9.609958E-1	8.791571E-1	8.696374E-1	8.866499E-1	8.350116E-1	8.760679E-1	8.844099E-1	8.772170E-1	8.032005E-1
2.868020E+2	1.000719E+0	1.097492E+0	1.033533E+0	1.072603E+0	1.118106E+0	1.149835E+0	1.137687E+0	1.151797E+0	9.943788E-1	9.173269E-1	1.072376E+0	1.085857E+0	9.622711E-1	8.948642E-1	9.110574E-1	1.091556E+0	1.002320E+0	8.880781E-1	9.828026E-1	1.099789E+0	1.106139E+0	1.022513E+0	9.831683E-1	1.116648E+0	9.795561E-1	9.908840E-1	1.051934E+0	1.151479E+0	9.608511E-1	8.499600E-1	8.914914E-1	1.123063E+0	9.304956E-1	9.025069E-1	8.616016E-1	1.147092E+0	1.004864E+0	1.051170E+0	9.861840E-1	1.090535E+0	1.074062E+0	9.534590E-1	9.672064E-1	1.185844E+0	9.390479E-1	9.001020E-1	9.080477E-1	1.061738E+0	9.444472E-1	8.905822E-1	9.119080E-1	1.066207E+0	1.088304E+0	1.030645E+0	1.034595E+0	1.092496E+0	1.008276E+0	9.907265E-1	1.029741E+0	1.123476E+0	8.772303E-1	8.807075E-1	9.104618E-1	1.116171E+0	8.327261E-1	8.167992E-1	9.511548E-1	1.100254E+0	1.014820E+0	1.007217E+0	1.074494E+0	1.063765E+0	9.814289E-1	1.035295E+0	9.943231E-1	1.052348E+0	9.228514E-1	9.191631E-1	8.992496E-1	1.102941E+0	1.023162E+0	9.068284E-1	8.647862E-1	1.117641E+0	1.041420E+0	1.005518E+0	9.828638E-1	1.128531E+0	1.039620E+0	1.008045E+0	1.087896E+0	1.108894E+0	9.491085E-1	9.807261E-1	9.933238E-1	1.116727E+0	8.871189E-1	9.035875E-1	9.909929E-1	1.131734E+0	1.099447E+0	9.732408E-1	1.076643E+0	1.094732E+0	1.058792E+0	1.052825E+0	9.552803E-1	1.050333E+0	9.233464E-1	9.209872E-1	9.188777E-1	1.108928E+0	1.017611E+0	9.659281E-1	9.463137E-1	1.041777E+0	1.065480E+0	1.120246E+0	1.014575E+0	1.123907E+0	9.921322E-1	9.774368E-1	1.052683E+0	1.086203E+0	8.717744E-1	9.340102E-1	9.365436E-1	1.132291E+0	8.813451E-1	9.227290E-1	9.846837E-1	1.113396E+0	9.921198E-1	1.016987E+0	1.097402E+0	1.137534E+0	1.025380E+0	1.073505E+0	1.075439E+0	1.122115E+0	9.351765E-1	9.465557E-1	9.932231E-1	1.082520E+0	9.804012E-1	1.029086E+0	1.038788E+0	1.013712E+0	1.057463E+0	1.052841E+0	1.109324E+0	1.118537E+0	1.010318E+0	1.032647E+0	1.018126E+0	1.083348E+0	9.009113E-1	8.929127E-1	9.353087E-1	1.079487E+0	9.791596E-1	9.866470E-1	9.314559E-1	1.138560E+0	1.009349E+0	1.015617E+0	1.045340E+0	1.098993E+0	1.075279E+0	1.059292E+0	1.033961E+0	1.106746E+0
2.870150E+2	9.765245E-1	1.003935E+0	9.948411E-1	9.858267E-1	1.008799E+0	1.032044E+0	1.028226E+0	1.029636E+0	9.821797E-1	9.066669E-1	9.552161E-1	1.004865E+0	8.768477E-1	8.385950E-1	8.621567E-1	9.982320E-1	8.997565E-1	7.647483E-1	9.003804E-1	1.013764E+0	9.302395E-1	8.874366E-1	9.195369E-1	9.593467E-1	9.802698E-1	9.212061E-1	9.678915E-1	1.018253E+0	8.215857E-1	8.092711E-1	8.076270E-1	1.024410E+0	8.267753E-1	8.160696E-1	7.984047E-1	1.023586E+0	9.796581E-1	9.840684E-1	9.011976E-1	9.906342E-1	9.766447E-1	9.386125E-1	8.932354E-1	9.490631E-1	8.394248E-1	8.744926E-1	8.468178E-1	1.019659E+0	8.962755E-1	8.453532E-1	8.529496E-1	9.974241E-1	9.493588E-1	9.689038E-1	9.347329E-1	9.867860E-1	9.654684E-1	9.263678E-1	8.629491E-1	1.012047E+0	8.864029E-1	8.200175E-1	8.313840E-1	1.062499E+0	7.777815E-1	7.463807E-1	8.280797E-1	1.067413E+0	9.937777E-1	9.517371E-1	9.017328E-1	1.007662E+0	8.780653E-1	9.469300E-1	9.311667E-1	9.839645E-1	7.838536E-1	8.196090E-1	8.320125E-1	9.342860E-1	8.827249E-1	8.436159E-1	7.660902E-1	1.059839E+0	9.397860E-1	9.217810E-1	9.809478E-1	1.033247E+0	9.275293E-1	9.384013E-1	9.746135E-1	1.061181E+0	8.242232E-1	8.559871E-1	8.357259E-1	9.669551E-1	8.600847E-1	8.430057E-1	8.754984E-1	1.008860E+0	9.622382E-1	8.742772E-1	9.943746E-1	1.037624E+0	9.649925E-1	9.285457E-1	9.008920E-1	9.637193E-1	8.583205E-1	8.444209E-1	8.452863E-1	1.014515E+0	9.020991E-1	8.534190E-1	8.393772E-1	1.037365E+0	9.869047E-1	9.668499E-1	9.191127E-1	1.000903E+0	8.505042E-1	8.814843E-1	9.713113E-1	1.010454E+0	8.322849E-1	8.138730E-1	8.784106E-1	1.023798E+0	8.131402E-1	9.070920E-1	8.631867E-1	1.048143E+0	9.928046E-1	9.403667E-1	9.575489E-1	1.028587E+0	9.469110E-1	9.728886E-1	9.879087E-1	9.860956E-1	8.400033E-1	8.925631E-1	9.252228E-1	1.012972E+0	8.243276E-1	9.331411E-1	9.639527E-1	9.678129E-1	9.084487E-1	9.611397E-1	1.066913E+0	9.771540E-1	9.272885E-1	9.174666E-1	9.617588E-1	9.615421E-1	8.445164E-1	8.307338E-1	8.575551E-1	9.912743E-1	8.865117E-1	8.330911E-1	8.594842E-1	1.042004E+0	9.532552E-1	9.287081E-1	9.596189E-1	9.670020E-1	9.539778E-1	1.022160E+0	9.771418E-1	8.578389E-1
2.872120E+2	7.578995E-1	8.037045E-1	7.773878E-1	7.393812E-1	7.470581E-1	8.283801E-1	8.037960E-1	8.279634E-1	7.073341E-1	7.339781E-1	7.387252E-1	7.604297E-1	7.102708E-1	6.567542E-1	6.463561E-1	7.960322E-1	6.858384E-1	5.831427E-1	6.581483E-1	8.064437E-1	7.370079E-1	6.979251E-1	6.866127E-1	7.459151E-1	7.392267E-1	6.732114E-1	6.976641E-1	7.771402E-1	6.771857E-1	6.191778E-1	6.503815E-1	7.921964E-1	6.715531E-1	6.619567E-1	6.550239E-1	8.074509E-1	7.488243E-1	7.068007E-1	6.915180E-1	7.929149E-1	7.900532E-1	6.706746E-1	6.846370E-1	7.538903E-1	6.774577E-1	6.336406E-1	6.533602E-1	7.596018E-1	6.833875E-1	6.891077E-1	6.046276E-1	7.787072E-1	7.760601E-1	7.687547E-1	7.214540E-1	7.631218E-1	7.197526E-1	7.118402E-1	7.121805E-1	7.816571E-1	6.824924E-1	6.313487E-1	6.161165E-1	8.191826E-1	6.078220E-1	5.217124E-1	6.907248E-1	8.012188E-1	7.317653E-1	7.474126E-1	7.111434E-1	7.793543E-1	7.659044E-1	7.092560E-1	7.260856E-1	7.684743E-1	6.455104E-1	6.587449E-1	6.461592E-1	8.089350E-1	6.702336E-1	6.434436E-1	6.404173E-1	7.895484E-1	7.135460E-1	6.913432E-1	7.223046E-1	7.809836E-1	6.822824E-1	6.943049E-1	8.023934E-1	8.010658E-1	6.567955E-1	6.903198E-1	6.932316E-1	7.480022E-1	6.936085E-1	7.129786E-1	7.437164E-1	8.058111E-1	7.778873E-1	7.448645E-1	7.651503E-1	7.608177E-1	7.501355E-1	7.586734E-1	6.898643E-1	8.096543E-1	6.740808E-1	6.319476E-1	6.593717E-1	7.466462E-1	7.292806E-1	6.725214E-1	6.524033E-1	7.690459E-1	7.368896E-1	7.451964E-1	6.654366E-1	7.641777E-1	7.280798E-1	7.059416E-1	7.843147E-1	7.571413E-1	6.321169E-1	6.317297E-1	6.752637E-1	7.977147E-1	6.445453E-1	6.694125E-1	6.817218E-1	8.471611E-1	7.166424E-1	7.661641E-1	7.399991E-1	8.025939E-1	7.146110E-1	7.699803E-1	7.608031E-1	7.321942E-1	6.807480E-1	6.989785E-1	7.569734E-1	8.266789E-1	6.597012E-1	6.808130E-1	7.616493E-1	7.339896E-1	7.660085E-1	7.684947E-1	8.272966E-1	8.185452E-1	7.291826E-1	7.149831E-1	7.296598E-1	7.981255E-1	6.372803E-1	6.611531E-1	6.718108E-1	8.170005E-1	6.891630E-1	6.402195E-1	7.081986E-1	8.636220E-1	7.274974E-1	7.861233E-1	7.768427E-1	8.234448E-1	7.863247E-1	7.957699E-1	7.126353E-1	7.789170E-1
2.874030E+2	5.963067E-1	7.372527E-1	6.992286E-1	7.185546E-1	7.314428E-1	6.915922E-1	7.652434E-1	7.542337E-1	6.542305E-1	6.437247E-1	6.546751E-1	6.692226E-1	6.297285E-1	5.246676E-1	6.277522E-1	7.104852E-1	6.543364E-1	5.743337E-1	6.348688E-1	7.462256E-1	6.766619E-1	6.394600E-1	6.831101E-1	7.084960E-1	6.714768E-1	6.649701E-1	6.588754E-1	6.774252E-1	5.899041E-1	5.708601E-1	5.615516E-1	7.534939E-1	6.093208E-1	5.989720E-1	5.768774E-1	7.371197E-1	7.315773E-1	6.529930E-1	6.476313E-1	7.089707E-1	6.903885E-1	6.572423E-1	6.091862E-1	6.827805E-1	5.752639E-1	5.635190E-1	5.843142E-1	7.044178E-1	5.753890E-1	5.945379E-1	6.067087E-1	7.029684E-1	6.867383E-1	6.866598E-1	6.365707E-1	7.276698E-1	6.675274E-1	6.689345E-1	6.794050E-1	7.462714E-1	5.583116E-1	5.891291E-1	5.910117E-1	6.810654E-1	5.609364E-1	4.848257E-1	5.819296E-1	7.251640E-1	7.154743E-1	6.432205E-1	6.545811E-1	6.484473E-1	6.764693E-1	6.848798E-1	6.565430E-1	7.318972E-1	6.232183E-1	5.889355E-1	5.916074E-1	7.139724E-1	6.430281E-1	6.045942E-1	6.042290E-1	7.065080E-1	6.815237E-1	6.887473E-1	6.635516E-1	6.959821E-1	6.409061E-1	6.584495E-1	7.365664E-1	7.325743E-1	5.504377E-1	6.247017E-1	6.229695E-1	7.351650E-1	6.345597E-1	6.036368E-1	6.511731E-1	7.221518E-1	6.589734E-1	6.922684E-1	6.582724E-1	6.801948E-1	7.268862E-1	6.571905E-1	6.514298E-1	7.084769E-1	6.314081E-1	6.032349E-1	5.799703E-1	7.085882E-1	6.477956E-1	6.092815E-1	5.907343E-1	6.940225E-1	7.051417E-1	7.114342E-1	6.534206E-1	7.169870E-1	6.432629E-1	5.780044E-1	6.951191E-1	7.424802E-1	6.028403E-1	5.832868E-1	6.101047E-1	7.410191E-1	5.740415E-1	6.053021E-1	6.279829E-1	6.644512E-1	6.720999E-1	6.700267E-1	6.805444E-1	7.142579E-1	6.509030E-1	7.431497E-1	7.134887E-1	7.204065E-1	5.900166E-1	6.285238E-1	6.560243E-1	7.380869E-1	6.326203E-1	6.551273E-1	6.489841E-1	7.746924E-1	6.177253E-1	6.924321E-1	7.297536E-1	7.123278E-1	6.964080E-1	6.540920E-1	6.348299E-1	7.141471E-1	5.652575E-1	5.813871E-1	6.224430E-1	7.538884E-1	6.191120E-1	6.387355E-1	6.406337E-1	7.236979E-1	6.921796E-1	6.815618E-1	6.875797E-1	6.900934E-1	6.975678E-1	7.262970E-1	6.891244E-1	7.637398E-1
2.876170E+2	4.874265E-1	5.772437E-1	5.846982E-1	5.623567E-1	5.663676E-1	5.464433E-1	5.538932E-1	5.699081E-1	4.970732E-1	4.966184E-1	5.139567E-1	5.232911E-1	4.515587E-1	4.719521E-1	4.608516E-1	5.252531E-1	4.858389E-1	4.252542E-1	4.719130E-1	5.887996E-1	5.001208E-1	4.788466E-1	5.021408E-1	5.796051E-1	4.974697E-1	4.761649E-1	5.179435E-1	5.090556E-1	4.576981E-1	4.004752E-1	4.528593E-1	5.531527E-1	4.970172E-1	4.616092E-1	4.525224E-1	5.707298E-1	5.232962E-1	5.029647E-1	5.062195E-1	5.556511E-1	5.157877E-1	4.529312E-1	4.679018E-1	5.208933E-1	4.827112E-1	4.476668E-1	4.638091E-1	5.436923E-1	4.798223E-1	4.417186E-1	4.679819E-1	5.746755E-1	5.004602E-1	5.007592E-1	4.931963E-1	5.272093E-1	5.262628E-1	4.798817E-1	4.951321E-1	5.339528E-1	4.665877E-1	4.426802E-1	4.272077E-1	5.708577E-1	4.078257E-1	3.889223E-1	4.357343E-1	5.237899E-1	5.260924E-1	5.133178E-1	5.303905E-1	5.152029E-1	4.961333E-1	4.753918E-1	5.359073E-1	5.657073E-1	4.560265E-1	4.869526E-1	4.672816E-1	5.506365E-1	5.239153E-1	4.544653E-1	4.252595E-1	5.542665E-1	5.061018E-1	5.134849E-1	4.911225E-1	6.233186E-1	5.152734E-1	5.067516E-1	5.084700E-1	5.786600E-1	4.509415E-1	4.967152E-1	5.041149E-1	5.097929E-1	4.908494E-1	4.625269E-1	4.771911E-1	5.295608E-1	5.330240E-1	5.033384E-1	4.986582E-1	5.129011E-1	5.585286E-1	5.498258E-1	5.412023E-1	5.544124E-1	4.647799E-1	4.877469E-1	4.482804E-1	5.329364E-1	5.197483E-1	4.938307E-1	4.673969E-1	5.775150E-1	5.424344E-1	5.484965E-1	5.179045E-1	5.545287E-1	5.016346E-1	4.924648E-1	5.245525E-1	5.649171E-1	4.734793E-1	4.715460E-1	4.702014E-1	5.443328E-1	4.322678E-1	4.653523E-1	4.722184E-1	5.626562E-1	5.035248E-1	5.370259E-1	5.116390E-1	5.699756E-1	5.234887E-1	5.729411E-1	4.919031E-1	5.780402E-1	4.815191E-1	4.777390E-1	5.095067E-1	5.484826E-1	5.136054E-1	4.715479E-1	5.346745E-1	5.114238E-1	5.118081E-1	5.616324E-1	5.791979E-1	5.429529E-1	4.808222E-1	5.213042E-1	5.260754E-1	5.484614E-1	4.314032E-1	4.677056E-1	4.811301E-1	5.760278E-1	4.662043E-1	4.785037E-1	4.482212E-1	5.624993E-1	5.384420E-1	5.233605E-1	5.090528E-1	5.662661E-1	5.831687E-1	5.514128E-1	5.500115E-1	5.694712E-1
2.878020E+2	3.474377E-1	3.892550E-1	4.330231E-1	4.183077E-1	3.871646E-1	4.050947E-1	4.155173E-1	4.007639E-1	4.059367E-1	3.701216E-1	3.783314E-1	4.014386E-1	3.649151E-1	3.434194E-1	3.417890E-1	4.220318E-1	3.620308E-1	3.663001E-1	3.536277E-1	4.399762E-1	3.961225E-1	3.531779E-1	3.842196E-1	4.195317E-1	3.698159E-1	3.472981E-1	3.783048E-1	3.880898E-1	3.229248E-1	3.330844E-1	2.884414E-1	4.173143E-1	3.768456E-1	3.383197E-1	3.390403E-1	3.708894E-1	4.065522E-1	3.655968E-1	3.641107E-1	4.009444E-1	4.131250E-1	3.596123E-1	3.687811E-1	4.255765E-1	3.387400E-1	3.281552E-1	3.309285E-1	3.781382E-1	3.764866E-1	3.574277E-1	3.230119E-1	4.208776E-1	3.592256E-1	4.010236E-1	3.533880E-1	4.028082E-1	3.781480E-1	3.404387E-1	4.062736E-1	4.067121E-1	3.515791E-1	3.358121E-1	2.985493E-1	3.905176E-1	3.668004E-1	2.869827E-1	3.486981E-1	4.226717E-1	3.781167E-1	3.522933E-1	4.012802E-1	3.897500E-1	3.729761E-1	3.915965E-1	3.790803E-1	4.281447E-1	3.721039E-1	3.297308E-1	3.340760E-1	3.926193E-1	3.562745E-1	3.326505E-1	3.581466E-1	4.386606E-1	3.828875E-1	3.862572E-1	3.487089E-1	3.916208E-1	3.918976E-1	3.716023E-1	4.074345E-1	4.255153E-1	3.548761E-1	3.680783E-1	3.458598E-1	3.963941E-1	3.535420E-1	3.546626E-1	3.498517E-1	3.787989E-1	3.922979E-1	3.434747E-1	3.770149E-1	4.007000E-1	3.869639E-1	3.784825E-1	3.548312E-1	3.842511E-1	3.482756E-1	3.486502E-1	3.146539E-1	3.799723E-1	3.531975E-1	3.327883E-1	3.256904E-1	4.071679E-1	4.225858E-1	4.215226E-1	3.670338E-1	3.998066E-1	3.608068E-1	3.689904E-1	3.665043E-1	4.215639E-1	3.257362E-1	3.371993E-1	3.443530E-1	4.043426E-1	3.548674E-1	3.293121E-1	3.335882E-1	4.130079E-1	3.568779E-1	3.751111E-1	3.832711E-1	4.021375E-1	3.844191E-1	3.868019E-1	4.146245E-1	4.429269E-1	3.343184E-1	3.381472E-1	3.952370E-1	4.135239E-1	3.183347E-1	4.012891E-1	4.228328E-1	3.754604E-1	3.671771E-1	4.087960E-1	4.251074E-1	4.195109E-1	3.519078E-1	3.921847E-1	3.775314E-1	4.092549E-1	3.213307E-1	3.747506E-1	3.206861E-1	4.211178E-1	3.856073E-1	3.279151E-1	3.387951E-1	4.045739E-1	3.590820E-1	4.072558E-1	3.822429E-1	4.254305E-1	3.612753E-1	3.549680E-1	4.226566E-1	3.296698E-1
2.880040E+2	3.387968E-1	4.137373E-1	3.842701E-1	3.783913E-1	4.295488E-1	4.066147E-1	4.113868E-1	3.834150E-1	3.887140E-1	3.445380E-1	3.598657E-1	3.985200E-1	3.655254E-1	3.096582E-1	3.359424E-1	3.958727E-1	4.191735E-1	3.141224E-1	3.265732E-1	3.823387E-1	3.884185E-1	3.746822E-1	3.918083E-1	3.945850E-1	3.769471E-1	3.660286E-1	3.679609E-1	3.864547E-1	4.005800E-1	3.082895E-1	3.022343E-1	3.528109E-1	3.983044E-1	3.095073E-1	3.227317E-1	3.966202E-1	4.005825E-1	3.402755E-1	3.466955E-1	3.960879E-1	3.853982E-1	3.723378E-1	3.369736E-1	3.900213E-1	3.593077E-1	3.238874E-1	3.406997E-1	3.836569E-1	3.485153E-1	3.019193E-1	3.105259E-1	3.621414E-1	3.981604E-1	3.616725E-1	3.555277E-1	4.028077E-1	3.644503E-1	3.377571E-1	3.815101E-1	4.044535E-1	3.395846E-1	3.259161E-1	3.198880E-1	4.241523E-1	3.624052E-1	2.775937E-1	3.480181E-1	3.639016E-1	3.754017E-1	3.651478E-1	4.012804E-1	3.842960E-1	3.473184E-1	3.809320E-1	3.499858E-1	4.162166E-1	3.412874E-1	3.139480E-1	3.125089E-1	4.389604E-1	3.746561E-1	3.524040E-1	3.344592E-1	3.637612E-1	3.390321E-1	3.602926E-1	3.493483E-1	4.409762E-1	3.918970E-1	3.329880E-1	3.905948E-1	4.224367E-1	3.349776E-1	3.336453E-1	3.524264E-1	3.835566E-1	3.300639E-1	3.457976E-1	3.542939E-1	3.770562E-1	4.098881E-1	3.960707E-1	3.847486E-1	3.953253E-1	3.821535E-1	3.725998E-1	3.606325E-1	4.317733E-1	3.435339E-1	3.065385E-1	3.185271E-1	3.909509E-1	3.720012E-1	3.504364E-1	2.981364E-1	4.292333E-1	3.852821E-1	3.584035E-1	3.790496E-1	4.183737E-1	3.480040E-1	3.347748E-1	3.978010E-1	4.117899E-1	3.332256E-1	3.216973E-1	3.437142E-1	3.994436E-1	3.111866E-1	3.246214E-1	3.320307E-1	4.112676E-1	3.555075E-1	4.184810E-1	3.758392E-1	4.220131E-1	3.789807E-1	4.044095E-1	4.027960E-1	4.021218E-1	3.279737E-1	3.210278E-1	3.770100E-1	4.002768E-1	3.304500E-1	3.476508E-1	4.170758E-1	3.442836E-1	3.759428E-1	4.066632E-1	4.215743E-1	4.159230E-1	3.453524E-1	4.024555E-1	3.960997E-1	4.190900E-1	3.328817E-1	3.207362E-1	3.385819E-1	3.960170E-1	3.765683E-1	3.531370E-1	3.615616E-1	4.258488E-1	3.763945E-1	3.556539E-1	3.794089E-1	4.159057E-1	3.819855E-1	4.064759E-1	4.089413E-1	3.752016E-1
2.882060E+2	4.649595E-1	4.906812E-1	5.313020E-1	5.050853E-1	5.187786E-1	4.772891E-1	5.353053E-1	4.990700E-1	5.135784E-1	4.326594E-1	4.891237E-1	4.992123E-1	5.211180E-1	4.044281E-1	4.512846E-1	5.358573E-1	5.620299E-1	4.049254E-1	4.341623E-1	5.165380E-1	5.302931E-1	4.667498E-1	4.606935E-1	5.137737E-1	5.038875E-1	4.521902E-1	4.901453E-1	5.139589E-1	5.546062E-1	4.030185E-1	4.131340E-1	5.258329E-1	5.356442E-1	4.200668E-1	4.042756E-1	5.381373E-1	5.305921E-1	4.922032E-1	4.435242E-1	5.410824E-1	4.925568E-1	4.783821E-1	4.716005E-1	5.284579E-1	5.148476E-1	4.348621E-1	4.481766E-1	5.133405E-1	5.256632E-1	4.300684E-1	4.499471E-1	5.190293E-1	5.294710E-1	4.837975E-1	4.939091E-1	5.059387E-1	5.219819E-1	4.550766E-1	4.944042E-1	4.985662E-1	5.265614E-1	4.281672E-1	4.341113E-1	5.400857E-1	5.536105E-1	3.708149E-1	4.051356E-1	5.419401E-1	5.301653E-1	4.727233E-1	5.045682E-1	5.011771E-1	5.305874E-1	4.540621E-1	4.968772E-1	5.394675E-1	5.189695E-1	4.541729E-1	4.089248E-1	5.210084E-1	5.371501E-1	4.412960E-1	4.002568E-1	5.135606E-1	4.942671E-1	5.180281E-1	4.706863E-1	4.985584E-1	4.927048E-1	4.653791E-1	5.352598E-1	5.517248E-1	4.358463E-1	4.486389E-1	4.725949E-1	5.183511E-1	4.766206E-1	4.196767E-1	4.801526E-1	5.182315E-1	5.140257E-1	4.777323E-1	4.838927E-1	5.337284E-1	5.152367E-1	4.689337E-1	4.701348E-1	5.214529E-1	4.512331E-1	4.583961E-1	4.063206E-1	5.256173E-1	4.525903E-1	4.217654E-1	4.293466E-1	5.289704E-1	5.035429E-1	4.919825E-1	4.705069E-1	5.367364E-1	4.808306E-1	4.485797E-1	4.557002E-1	5.543287E-1	3.958635E-1	4.159989E-1	4.733956E-1	5.401331E-1	4.161753E-1	4.661337E-1	4.558636E-1	5.469952E-1	4.781700E-1	4.640198E-1	5.109638E-1	5.169741E-1	4.737651E-1	5.142482E-1	5.210803E-1	5.127505E-1	4.269533E-1	4.408658E-1	4.975886E-1	5.012885E-1	4.459018E-1	4.957226E-1	5.190496E-1	5.356721E-1	4.950079E-1	5.132932E-1	5.205305E-1	5.156816E-1	4.618853E-1	4.765530E-1	4.869498E-1	5.060942E-1	4.545055E-1	4.884327E-1	4.151013E-1	5.100479E-1	4.616845E-1	4.547659E-1	4.482207E-1	5.224038E-1	4.865039E-1	4.975594E-1	4.821324E-1	5.268047E-1	5.378038E-1	5.322479E-1	5.676451E-1	5.269748E-1
2.884200E+2	6.127256E-1	7.153935E-1	6.473804E-1	6.821093E-1	6.823663E-1	7.121093E-1	7.790116E-1	6.964059E-1	6.779122E-1	6.224047E-1	6.088306E-1	6.816269E-1	6.809823E-1	5.602065E-1	6.059595E-1	6.892760E-1	6.858382E-1	5.390964E-1	5.971185E-1	6.662228E-1	7.023413E-1	5.957779E-1	6.183114E-1	7.078022E-1	6.714772E-1	6.005365E-1	6.440068E-1	6.578101E-1	6.906629E-1	5.257208E-1	5.571379E-1	7.041675E-1	6.651151E-1	5.942815E-1	5.286304E-1	6.890901E-1	6.831557E-1	6.251394E-1	5.654313E-1	6.708144E-1	6.828945E-1	5.808908E-1	6.713221E-1	6.502526E-1	6.999536E-1	5.836416E-1	5.771489E-1	6.719966E-1	6.896027E-1	6.102993E-1	5.748012E-1	6.998767E-1	6.485671E-1	6.412023E-1	6.408504E-1	6.947969E-1	6.683837E-1	6.454703E-1	6.466287E-1	6.800164E-1	7.156543E-1	5.581242E-1	5.778324E-1	7.368855E-1	6.876735E-1	4.908612E-1	5.649298E-1	7.381278E-1	6.835712E-1	6.344248E-1	6.594997E-1	6.936418E-1	6.742701E-1	6.208904E-1	6.111269E-1	7.136085E-1	6.881280E-1	5.652612E-1	5.522799E-1	6.562355E-1	6.805271E-1	5.953764E-1	5.483012E-1	6.918539E-1	7.107616E-1	6.192914E-1	6.456698E-1	6.836425E-1	6.845393E-1	6.088032E-1	6.630857E-1	6.579256E-1	7.075733E-1	5.967660E-1	6.157460E-1	6.745424E-1	7.106826E-1	5.526600E-1	5.963873E-1	6.925218E-1	7.159677E-1	6.168350E-1	7.124142E-1	6.492890E-1	6.587415E-1	6.491014E-1	6.391015E-1	6.678530E-1	5.758655E-1	5.789889E-1	5.664138E-1	6.646752E-1	6.460040E-1	6.225179E-1	5.848298E-1	7.125570E-1	6.829189E-1	6.908835E-1	5.960091E-1	6.930056E-1	6.304601E-1	5.951125E-1	6.567800E-1	7.025695E-1	5.531385E-1	5.387193E-1	6.037157E-1	7.137206E-1	5.303595E-1	6.154656E-1	5.952726E-1	7.062138E-1	6.296139E-1	6.577389E-1	6.913536E-1	6.943823E-1	6.361414E-1	6.375031E-1	7.079684E-1	6.959224E-1	5.722507E-1	6.127210E-1	6.420028E-1	7.182158E-1	5.706187E-1	6.483283E-1	6.572076E-1	6.681722E-1	6.389088E-1	6.789253E-1	6.823965E-1	7.130448E-1	6.315863E-1	6.489563E-1	6.573768E-1	7.035554E-1	5.815649E-1	6.008575E-1	5.656716E-1	6.871911E-1	6.319165E-1	5.749396E-1	5.591155E-1	6.885121E-1	6.485517E-1	6.150216E-1	6.783697E-1	6.472301E-1	6.660087E-1	6.628105E-1	6.381814E-1	6.969612E-1
2.886030E+2	6.464266E-1	7.311323E-1	7.448858E-1	7.341752E-1	7.307000E-1	7.812639E-1	7.858956E-1	7.419449E-1	7.719194E-1	6.870742E-1	6.871490E-1	8.180723E-1	7.743389E-1	6.164766E-1	6.463557E-1	8.066368E-1	7.261315E-1	6.163468E-1	6.719902E-1	7.909584E-1	8.076241E-1	6.649960E-1	7.082123E-1	7.479939E-1	8.319356E-1	6.642212E-1	7.274020E-1	7.550726E-1	7.503479E-1	5.854820E-1	6.327258E-1	7.610823E-1	7.166174E-1	6.318043E-1	5.768770E-1	8.134536E-1	7.362211E-1	6.998374E-1	6.643501E-1	7.686337E-1	7.488392E-1	6.706747E-1	6.173232E-1	7.720465E-1	7.912202E-1	6.604697E-1	6.292587E-1	7.671898E-1	7.649678E-1	6.397667E-1	6.427779E-1	7.802535E-1	7.676622E-1	7.212621E-1	6.950614E-1	7.689224E-1	7.325952E-1	6.863645E-1	6.961567E-1	7.846701E-1	7.608115E-1	6.207939E-1	6.186267E-1	7.483353E-1	8.078178E-1	5.612801E-1	6.642061E-1	7.476345E-1	7.582381E-1	6.946394E-1	7.320467E-1	7.497449E-1	7.519767E-1	6.894501E-1	7.161508E-1	7.708598E-1	7.694293E-1	6.684566E-1	6.176140E-1	7.656323E-1	7.643478E-1	6.401514E-1	5.719883E-1	7.854777E-1	7.205070E-1	7.075717E-1	6.782396E-1	7.617892E-1	7.695477E-1	7.253342E-1	7.847881E-1	7.725918E-1	7.926592E-1	6.649821E-1	6.919179E-1	7.708251E-1	7.540806E-1	6.043755E-1	6.874502E-1	7.683388E-1	7.989960E-1	7.407118E-1	7.398367E-1	7.621611E-1	7.501353E-1	7.182275E-1	7.007419E-1	7.429692E-1	7.702655E-1	6.434322E-1	6.309674E-1	7.517691E-1	7.624115E-1	6.475199E-1	6.550275E-1	7.964069E-1	7.726065E-1	6.938196E-1	7.141694E-1	8.051787E-1	7.568849E-1	6.680073E-1	7.107676E-1	7.457381E-1	7.941575E-1	6.349589E-1	6.803749E-1	7.634173E-1	8.123740E-1	6.803580E-1	6.622513E-1	7.671168E-1	7.659815E-1	7.249628E-1	6.920301E-1	8.165800E-1	6.625568E-1	7.272195E-1	7.600134E-1	7.312868E-1	6.458513E-1	6.423515E-1	6.882716E-1	7.405714E-1	6.554255E-1	6.845909E-1	7.229975E-1	6.742346E-1	7.031894E-1	7.642297E-1	7.827660E-1	8.056265E-1	6.796559E-1	7.362588E-1	7.369541E-1	7.678629E-1	6.094227E-1	6.140473E-1	6.409564E-1	7.531717E-1	6.718380E-1	6.899207E-1	6.545869E-1	8.030702E-1	7.427322E-1	7.345217E-1	7.258355E-1	7.418010E-1	7.468766E-1	7.322853E-1	6.950015E-1	6.544645E-1
2.888200E+2	7.751818E-1	8.587902E-1	8.377487E-1	8.348356E-1	8.466987E-1	8.344603E-1	8.382174E-1	8.612140E-1	7.747894E-1	7.517441E-1	7.858431E-1	7.976421E-1	8.438978E-1	6.561615E-1	6.995085E-1	8.518847E-1	8.433457E-1	6.610707E-1	7.154032E-1	8.408524E-1	7.825869E-1	7.301831E-1	7.508277E-1	8.159041E-1	8.661662E-1	7.241591E-1	8.023936E-1	8.310843E-1	8.645852E-1	6.420649E-1	6.923135E-1	8.134441E-1	8.253449E-1	6.586065E-1	6.781279E-1	8.237462E-1	8.582715E-1	7.751682E-1	7.486392E-1	8.338468E-1	8.087878E-1	7.760116E-1	7.164445E-1	8.302956E-1	8.490663E-1	7.129088E-1	6.676901E-1	8.313421E-1	8.449958E-1	7.014429E-1	6.705234E-1	8.227594E-1	8.142315E-1	7.504361E-1	8.099042E-1	8.101747E-1	8.250598E-1	7.138512E-1	7.325745E-1	8.245729E-1	8.278408E-1	7.111693E-1	6.933117E-1	8.270544E-1	8.371214E-1	5.659745E-1	7.002446E-1	8.349253E-1	7.819956E-1	7.758286E-1	7.756977E-1	7.972765E-1	8.289487E-1	7.641039E-1	7.466651E-1	7.923294E-1	8.061457E-1	7.188414E-1	7.229106E-1	8.780682E-1	8.283155E-1	6.684651E-1	6.963450E-1	8.628195E-1	7.880306E-1	7.822204E-1	7.120867E-1	8.269116E-1	8.462815E-1	7.329195E-1	7.801956E-1	8.426228E-1	8.180479E-1	7.007142E-1	7.464213E-1	8.328734E-1	8.536812E-1	7.078067E-1	7.000358E-1	8.615846E-1	8.369923E-1	7.448643E-1	8.024170E-1	8.327066E-1	7.982375E-1	7.858826E-1	7.174213E-1	8.096541E-1	8.156477E-1	6.963912E-1	6.684083E-1	8.066609E-1	8.080784E-1	7.247325E-1	6.852058E-1	8.202379E-1	8.519761E-1	8.369402E-1	7.375342E-1	8.028577E-1	8.288990E-1	7.602407E-1	7.749252E-1	7.807617E-1	7.900726E-1	6.905061E-1	7.046503E-1	8.530111E-1	8.047110E-1	6.412664E-1	6.622511E-1	8.810935E-1	8.228591E-1	8.030286E-1	7.724284E-1	8.798877E-1	8.241568E-1	8.043577E-1	8.073286E-1	8.591449E-1	8.298518E-1	7.147817E-1	7.639840E-1	8.366150E-1	7.951083E-1	7.608939E-1	7.739847E-1	7.798878E-1	8.112977E-1	8.218097E-1	8.371925E-1	8.436638E-1	8.158535E-1	7.663375E-1	7.541954E-1	8.238489E-1	7.745312E-1	7.007220E-1	6.545319E-1	8.542935E-1	7.584611E-1	7.158844E-1	7.096676E-1	8.488933E-1	8.036732E-1	8.180346E-1	7.810932E-1	8.329701E-1	8.267588E-1	8.472766E-1	7.988444E-1	7.789180E-1
2.890190E+2	7.760466E-1	8.176949E-1	8.129855E-1	8.643394E-1	8.281084E-1	8.975353E-1	8.912269E-1	8.344695E-1	8.537269E-1	7.709317E-1	8.195903E-1	8.180724E-1	8.933220E-1	7.124317E-1	7.563822E-1	8.780432E-1	8.338229E-1	6.509059E-1	7.160327E-1	8.778442E-1	8.666847E-1	7.637836E-1	7.858535E-1	8.706477E-1	8.276561E-1	7.833484E-1	7.700696E-1	9.021919E-1	8.427646E-1	7.050057E-1	6.901064E-1	8.597356E-1	8.596797E-1	6.894292E-1	6.672548E-1	8.597688E-1	8.794976E-1	8.441688E-1	7.458529E-1	8.685337E-1	9.062043E-1	7.604585E-1	7.556492E-1	8.469373E-1	8.619207E-1	6.812016E-1	7.113321E-1	8.216847E-1	8.426649E-1	6.843107E-1	6.989621E-1	8.706763E-1	8.149945E-1	8.189622E-1	7.678192E-1	8.662516E-1	8.704357E-1	7.842433E-1	7.595229E-1	8.599604E-1	8.835806E-1	6.907200E-1	7.071186E-1	8.656994E-1	8.671578E-1	6.048726E-1	7.084043E-1	8.677675E-1	8.478382E-1	7.927428E-1	8.082833E-1	8.315611E-1	8.641369E-1	8.060016E-1	7.835653E-1	8.758218E-1	8.920358E-1	6.988086E-1	7.400367E-1	8.264083E-1	8.724317E-1	7.152154E-1	6.989772E-1	9.124819E-1	8.033462E-1	8.270097E-1	6.942053E-1	9.276795E-1	8.808876E-1	7.853242E-1	8.529114E-1	8.664794E-1	8.537293E-1	7.819244E-1	7.510173E-1	8.835108E-1	8.814282E-1	7.477012E-1	7.466776E-1	8.790132E-1	8.806176E-1	7.926160E-1	8.192916E-1	8.461433E-1	8.888305E-1	7.748516E-1	7.674583E-1	8.640752E-1	8.617079E-1	7.397788E-1	7.013310E-1	8.373997E-1	8.197191E-1	7.695882E-1	7.206327E-1	8.952609E-1	8.630877E-1	8.185912E-1	7.782558E-1	8.825404E-1	8.401016E-1	7.780929E-1	8.187408E-1	8.051965E-1	8.738164E-1	6.808182E-1	7.704486E-1	8.712091E-1	8.859430E-1	7.194500E-1	7.775172E-1	9.045851E-1	8.852173E-1	8.095330E-1	8.332342E-1	8.541229E-1	8.870873E-1	8.320280E-1	8.727783E-1	8.618653E-1	9.072595E-1	7.128060E-1	8.200668E-1	8.854648E-1	8.906055E-1	8.039552E-1	8.455313E-1	8.595621E-1	8.836131E-1	8.523767E-1	9.008083E-1	8.515585E-1	8.755776E-1	8.059544E-1	8.012784E-1	8.420060E-1	8.132611E-1	7.409184E-1	7.384561E-1	8.844153E-1	8.834985E-1	7.552006E-1	7.412466E-1	8.971713E-1	8.369135E-1	8.390838E-1	8.207653E-1	8.561026E-1	8.987506E-1	8.556622E-1	8.439088E-1	7.849882E-1
2.892020E+2	6.101331E-1	6.690521E-1	6.698221E-1	6.742988E-1	6.593152E-1	6.817125E-1	6.833188E-1	6.371331E-1	6.642770E-1	6.266681E-1	6.444876E-1	6.684921E-1	7.157620E-1	5.850841E-1	5.724731E-1	6.320092E-1	7.305270E-1	5.946627E-1	5.820184E-1	6.782662E-1	6.997729E-1	6.347552E-1	6.539214E-1	6.752338E-1	7.399391E-1	6.207660E-1	7.021900E-1	6.684352E-1	6.784694E-1	5.352575E-1	5.626554E-1	6.897486E-1	6.615384E-1	5.440269E-1	5.483370E-1	6.959511E-1	6.685633E-1	6.599562E-1	5.932960E-1	6.860770E-1	7.001305E-1	6.176525E-1	6.151045E-1	7.130395E-1	6.781003E-1	5.860801E-1	5.641210E-1	6.857922E-1	6.499780E-1	5.671264E-1	6.011598E-1	6.558243E-1	6.638350E-1	6.317035E-1	6.280108E-1	7.025322E-1	7.077665E-1	5.938501E-1	5.883608E-1	6.559232E-1	7.191821E-1	5.798933E-1	5.527286E-1	6.746244E-1	6.818131E-1	4.861675E-1	5.955283E-1	6.828155E-1	6.856079E-1	6.141272E-1	6.324479E-1	6.500056E-1	7.057929E-1	6.384113E-1	6.693160E-1	6.881628E-1	6.704257E-1	5.774012E-1	5.681375E-1	6.752271E-1	7.114084E-1	5.736470E-1	5.529063E-1	7.366306E-1	6.794360E-1	6.407122E-1	6.137386E-1	6.980379E-1	6.852915E-1	6.432798E-1	6.891104E-1	7.264172E-1	7.144348E-1	6.019629E-1	5.973602E-1	6.759693E-1	7.128167E-1	5.910772E-1	5.845414E-1	7.064652E-1	6.730456E-1	6.064541E-1	6.561623E-1	7.158037E-1	6.803870E-1	6.439546E-1	6.347506E-1	6.670863E-1	7.133673E-1	5.521905E-1	5.702868E-1	6.895588E-1	6.916721E-1	6.475197E-1	5.559640E-1	6.966695E-1	6.789499E-1	6.336349E-1	6.647687E-1	7.154397E-1	6.912724E-1	6.166833E-1	6.708647E-1	7.172302E-1	7.070098E-1	5.639096E-1	6.037159E-1	6.899226E-1	6.905258E-1	5.951372E-1	6.053974E-1	6.931628E-1	6.810086E-1	6.403907E-1	6.886516E-1	6.502144E-1	6.967420E-1	6.492409E-1	7.087578E-1	7.040834E-1	7.016861E-1	5.870418E-1	6.588278E-1	6.784733E-1	7.395200E-1	5.939346E-1	6.530964E-1	6.595127E-1	7.017284E-1	6.597319E-1	7.212720E-1	7.202220E-1	6.949511E-1	6.504240E-1	6.852289E-1	6.838854E-1	6.631000E-1	5.788751E-1	5.786296E-1	7.058377E-1	6.906694E-1	6.068377E-1	6.193360E-1	7.032414E-1	6.866392E-1	6.401441E-1	6.245285E-1	6.996183E-1	6.650224E-1	7.215048E-1	6.871639E-1	6.241095E-1
2.894040E+2	4.373076E-1	4.950539E-1	5.398144E-1	5.042167E-1	4.897788E-1	5.084461E-1	5.222254E-1	5.200321E-1	4.992260E-1	4.745883E-1	4.566496E-1	4.992122E-1	5.205082E-1	3.979129E-1	4.284285E-1	5.061642E-1	5.136782E-1	3.961157E-1	4.656206E-1	5.010543E-1	4.693070E-1	4.230683E-1	4.601094E-1	5.006079E-1	5.110187E-1	4.679235E-1	4.655790E-1	4.812659E-1	4.865782E-1	3.814026E-1	4.307892E-1	4.909254E-1	4.841415E-1	4.133657E-1	4.069940E-1	4.772418E-1	5.100294E-1	4.858724E-1	4.456145E-1	5.292887E-1	5.067953E-1	4.762606E-1	4.375740E-1	5.239194E-1	4.929953E-1	4.348621E-1	4.077905E-1	4.760912E-1	4.875923E-1	3.820984E-1	4.346871E-1	4.811602E-1	5.019877E-1	4.566589E-1	4.867761E-1	5.362338E-1	4.860227E-1	4.450208E-1	4.674550E-1	4.902847E-1	4.898719E-1	4.024394E-1	3.945724E-1	5.000098E-1	5.338302E-1	3.238686E-1	4.221353E-1	5.125554E-1	4.826504E-1	4.747533E-1	4.627612E-1	4.871518E-1	5.173920E-1	4.487297E-1	4.734602E-1	4.925524E-1	5.235590E-1	4.201789E-1	4.139996E-1	5.149305E-1	4.922983E-1	4.011298E-1	4.206536E-1	5.233298E-1	5.088853E-1	4.349416E-1	4.393940E-1	4.971868E-1	4.776585E-1	4.612423E-1	4.855073E-1	5.240206E-1	5.106391E-1	4.356452E-1	4.627448E-1	4.948156E-1	4.979636E-1	4.093336E-1	4.150019E-1	5.330462E-1	5.069895E-1	4.597391E-1	5.063930E-1	4.940887E-1	4.984001E-1	4.689340E-1	4.469289E-1	5.214532E-1	4.837453E-1	3.958666E-1	4.179404E-1	5.021967E-1	4.624404E-1	3.901454E-1	4.122891E-1	5.130828E-1	4.956061E-1	4.941836E-1	4.765144E-1	4.903191E-1	5.184380E-1	4.374218E-1	4.729130E-1	4.948690E-1	4.775647E-1	4.095397E-1	4.369824E-1	4.841369E-1	4.974076E-1	4.458069E-1	4.488537E-1	4.965324E-1	4.795406E-1	4.618508E-1	4.494820E-1	5.074045E-1	5.102808E-1	4.656176E-1	4.887495E-1	4.973354E-1	5.081681E-1	4.092602E-1	4.590317E-1	5.103958E-1	5.449620E-1	4.881683E-1	4.927339E-1	4.767836E-1	5.483314E-1	4.770389E-1	5.155829E-1	4.625722E-1	5.070422E-1	4.325349E-1	4.498139E-1	4.962587E-1	5.007084E-1	4.080387E-1	4.274433E-1	5.050284E-1	5.302291E-1	4.043221E-1	4.357363E-1	5.281319E-1	5.148965E-1	4.812637E-1	4.856752E-1	4.784988E-1	4.944115E-1	5.286541E-1	4.696795E-1	5.026912E-1
2.896060E+2	4.312581E-1	4.522093E-1	4.616562E-1	4.642999E-1	4.882917E-1	4.886884E-1	5.118984E-1	4.990701E-1	4.561699E-1	4.255527E-1	4.611071E-1	4.692971E-1	4.710844E-1	4.044282E-1	3.774018E-1	4.679866E-1	4.660587E-1	3.832407E-1	4.027034E-1	4.718049E-1	4.872817E-1	4.391966E-1	4.303376E-1	4.888274E-1	5.110189E-1	4.064869E-1	4.571752E-1	4.583807E-1	4.968460E-1	3.496141E-1	3.971335E-1	4.529819E-1	4.598213E-1	3.852235E-1	3.662216E-1	4.841033E-1	4.629345E-1	4.295327E-1	4.504902E-1	4.661575E-1	4.798178E-1	4.098070E-1	4.294372E-1	4.603746E-1	4.820682E-1	4.098623E-1	3.693596E-1	4.726419E-1	4.868152E-1	3.889514E-1	3.660170E-1	4.742044E-1	4.439669E-1	4.125581E-1	3.976134E-1	4.846684E-1	4.449282E-1	4.322831E-1	4.339511E-1	4.669443E-1	4.764660E-1	3.998008E-1	3.832756E-1	4.692376E-1	4.583737E-1	3.701439E-1	4.139753E-1	4.762561E-1	4.941888E-1	4.219806E-1	4.547686E-1	4.902684E-1	4.946663E-1	4.517767E-1	4.067556E-1	4.512044E-1	4.835647E-1	4.050037E-1	3.816494E-1	4.799845E-1	4.680352E-1	4.063976E-1	3.792014E-1	4.744826E-1	4.664226E-1	4.375374E-1	4.470577E-1	4.971871E-1	4.535855E-1	4.446937E-1	4.495321E-1	5.117068E-1	4.557444E-1	3.797726E-1	3.806629E-1	4.734199E-1	4.787545E-1	4.063786E-1	4.438754E-1	4.572296E-1	5.083968E-1	4.112957E-1	4.916269E-1	4.887140E-1	4.583154E-1	4.380481E-1	4.266240E-1	5.114887E-1	4.966153E-1	3.850193E-1	3.721071E-1	4.612118E-1	4.382630E-1	4.217661E-1	3.840787E-1	4.574777E-1	4.471907E-1	4.809735E-1	4.297847E-1	4.733001E-1	4.624271E-1	4.165951E-1	4.502232E-1	4.769505E-1	4.782455E-1	4.127693E-1	3.999310E-1	4.988361E-1	4.360998E-1	3.973319E-1	4.130279E-1	4.887016E-1	4.884492E-1	4.676336E-1	4.602920E-1	4.809036E-1	4.652191E-1	4.320789E-1	4.698235E-1	4.909878E-1	4.910362E-1	4.250631E-1	4.316914E-1	4.673418E-1	4.608675E-1	4.670148E-1	4.499703E-1	4.776500E-1	4.511800E-1	4.749069E-1	4.922568E-1	4.654439E-1	5.135969E-1	4.369369E-1	4.829706E-1	4.168208E-1	4.443129E-1	4.005019E-1	4.052277E-1	4.870983E-1	4.842811E-1	4.295440E-1	4.166415E-1	4.765814E-1	4.961990E-1	4.405252E-1	4.410436E-1	4.723760E-1	4.835634E-1	4.352239E-1	4.794766E-1	4.875138E-1
2.898030E+2	4.727367E-1	5.606309E-1	5.746378E-1	5.493404E-1	5.462910E-1	5.426438E-1	5.470086E-1	5.330432E-1	5.229078E-1	4.802735E-1	4.903969E-1	5.320471E-1	5.412536E-1	4.452981E-1	4.736086E-1	5.648442E-1	5.854718E-1	4.476161E-1	4.857546E-1	5.913801E-1	5.636757E-1	4.922868E-1	4.933846E-1	5.657452E-1	5.388312E-1	5.091311E-1	5.205297E-1	5.278541E-1	5.616661E-1	4.233627E-1	4.318930E-1	5.174854E-1	5.678330E-1	4.448583E-1	4.362140E-1	5.655837E-1	5.179899E-1	5.282861E-1	4.804454E-1	5.563451E-1	5.480097E-1	4.797956E-1	4.671619E-1	5.700645E-1	5.784774E-1	4.458376E-1	4.442685E-1	5.609375E-1	5.668421E-1	4.239007E-1	4.769989E-1	5.684925E-1	5.439754E-1	5.068650E-1	5.181621E-1	5.819978E-1	5.142763E-1	5.013348E-1	5.067857E-1	5.565402E-1	5.752461E-1	4.433397E-1	4.604708E-1	5.250569E-1	5.660643E-1	4.465989E-1	4.377745E-1	5.229266E-1	5.763228E-1	5.153476E-1	5.187087E-1	4.996183E-1	5.342535E-1	4.845334E-1	5.167477E-1	5.665028E-1	5.806011E-1	4.614577E-1	4.431780E-1	5.779856E-1	5.842074E-1	4.702684E-1	4.265753E-1	5.387979E-1	5.638796E-1	5.005026E-1	4.828202E-1	5.163812E-1	5.446123E-1	4.915824E-1	5.865428E-1	5.501856E-1	5.476930E-1	4.889188E-1	4.752216E-1	5.504451E-1	5.676842E-1	4.669595E-1	4.905173E-1	5.661611E-1	5.597616E-1	4.756563E-1	5.232685E-1	5.431349E-1	5.424943E-1	4.990842E-1	4.875392E-1	5.344832E-1	5.629962E-1	4.743475E-1	4.179399E-1	5.461106E-1	5.385521E-1	4.842703E-1	4.608364E-1	5.801621E-1	5.567214E-1	5.066616E-1	4.925361E-1	5.653592E-1	5.600466E-1	4.835393E-1	5.331590E-1	5.649173E-1	5.456496E-1	4.702543E-1	4.618970E-1	5.681307E-1	5.694435E-1	5.232083E-1	4.870171E-1	5.400350E-1	5.418995E-1	4.914872E-1	5.116389E-1	5.552529E-1	5.693266E-1	5.050252E-1	5.573536E-1	5.490225E-1	5.519476E-1	4.454748E-1	5.186198E-1	5.186761E-1	5.356973E-1	5.032773E-1	5.272736E-1	5.287445E-1	5.578271E-1	5.381740E-1	5.742501E-1	4.848206E-1	5.485565E-1	4.882911E-1	5.075073E-1	5.560272E-1	5.197331E-1	4.614250E-1	4.971742E-1	5.860689E-1	5.498129E-1	4.814705E-1	4.651123E-1	5.453156E-1	5.204373E-1	4.880537E-1	5.125953E-1	5.519785E-1	5.437207E-1	5.993263E-1	5.069066E-1	5.117975E-1
2.900050E+2	5.055733E-1	5.562596E-1	5.405886E-1	5.745057E-1	5.663674E-1	6.193974E-1	6.082793E-1	6.277360E-1	5.681169E-1	6.195619E-1	5.406998E-1	6.079316E-1	5.949490E-1	5.844915E-1	5.070949E-1	5.761570E-1	5.979266E-1	6.061818E-1	5.021131E-1	5.870793E-1	5.765155E-1	6.011541E-1	5.260755E-1	5.532726E-1	5.580861E-1	5.211185E-1	5.845305E-1	5.965101E-1	5.995307E-1	4.901179E-1	4.616872E-1	5.812306E-1	5.907228E-1	5.038231E-1	4.844603E-1	6.547822E-1	5.717182E-1	5.776625E-1	5.292075E-1	6.014392E-1	5.944700E-1	5.200929E-1	5.108048E-1	6.086453E-1	6.543195E-1	4.708376E-1	4.989836E-1	5.630068E-1	5.683966E-1	4.992828E-1	4.832411E-1	5.769934E-1	5.783308E-1	5.828543E-1	5.345680E-1	6.219614E-1	6.084526E-1	5.207760E-1	5.526716E-1	6.039727E-1	6.147580E-1	4.637896E-1	4.968722E-1	5.966203E-1	6.144153E-1	5.431730E-1	4.928527E-1	6.007103E-1	5.892196E-1	5.728565E-1	5.648196E-1	5.806565E-1	5.892334E-1	5.203366E-1	5.330687E-1	6.189837E-1	5.635540E-1	4.918100E-1	5.059748E-1	5.779859E-1	5.908240E-1	5.097756E-1	4.680281E-1	5.868321E-1	6.028614E-1	5.452914E-1	5.345490E-1	6.020684E-1	5.874933E-1	5.364018E-1	5.857777E-1	5.948209E-1	5.868051E-1	5.064596E-1	5.067411E-1	5.825398E-1	6.110812E-1	4.994664E-1	5.341979E-1	6.114777E-1	6.076088E-1	5.254846E-1	6.132710E-1	5.874775E-1	5.873900E-1	5.748289E-1	5.121951E-1	5.712750E-1	6.090556E-1	5.094401E-1	4.824936E-1	6.061249E-1	5.779516E-1	5.320690E-1	5.061043E-1	5.828108E-1	5.860874E-1	5.286799E-1	5.753151E-1	6.071348E-1	6.048553E-1	5.237051E-1	5.276825E-1	6.740618E-1	6.498192E-1	4.709002E-1	5.296126E-1	5.912292E-1	5.939665E-1	5.013174E-1	5.282941E-1	5.861476E-1	6.138527E-1	5.644936E-1	5.413666E-1	5.920593E-1	5.786489E-1	6.324719E-1	6.125532E-1	6.115908E-1	6.122235E-1	5.402918E-1	5.578781E-1	5.956767E-1	6.005500E-1	5.629598E-1	6.136224E-1	5.971593E-1	6.023855E-1	5.623431E-1	5.820249E-1	5.960623E-1	5.572974E-1	5.521170E-1	5.459699E-1	5.499741E-1	5.686549E-1	4.852915E-1	5.095162E-1	5.788973E-1	5.437874E-1	5.222703E-1	4.988944E-1	6.304154E-1	6.056158E-1	5.953319E-1	5.593525E-1	5.757920E-1	6.048654E-1	5.813590E-1	5.891984E-1	5.664356E-1
2.905280E+2	5.193996E-1	5.973540E-1	5.978540E-1	5.597539E-1	5.507528E-1	5.684818E-1	6.137865E-1	5.648491E-1	5.595053E-1	5.904251E-1	5.279644E-1	5.502881E-1	5.717620E-1	5.667226E-1	4.810500E-1	5.627235E-1	5.708204E-1	5.994064E-1	4.951918E-1	5.664330E-1	5.810085E-1	5.568013E-1	5.056433E-1	5.692102E-1	5.652183E-1	5.420975E-1	5.515608E-1	5.327579E-1	5.565318E-1	5.492440E-1	4.451344E-1	5.531526E-1	5.778474E-1	5.654689E-1	4.362134E-1	5.518599E-1	5.743715E-1	5.795618E-1	4.943768E-1	5.625891E-1	6.034627E-1	5.250408E-1	4.923122E-1	5.277019E-1	5.823339E-1	5.409589E-1	4.403596E-1	5.581783E-1	5.862667E-1	5.184706E-1	4.478663E-1	5.862679E-1	5.508474E-1	5.387535E-1	5.623873E-1	5.497696E-1	5.545157E-1	5.147424E-1	5.111561E-1	5.670801E-1	5.830072E-1	4.743445E-1	4.316014E-1	5.672793E-1	5.580058E-1	4.935443E-1	4.914924E-1	5.946603E-1	5.512078E-1	5.200839E-1	5.094866E-1	5.463713E-1	5.606440E-1	5.378566E-1	4.855236E-1	5.991051E-1	5.747001E-1	4.729914E-1	4.387380E-1	5.513963E-1	5.672963E-1	4.650006E-1	4.607901E-1	5.501959E-1	5.875473E-1	5.355545E-1	5.339103E-1	5.410585E-1	5.400993E-1	5.267482E-1	5.712349E-1	5.678860E-1	5.229906E-1	4.999637E-1	4.876977E-1	5.433134E-1	5.982757E-1	4.713926E-1	5.053238E-1	6.201919E-1	5.576506E-1	4.929583E-1	5.464719E-1	5.565722E-1	5.609339E-1	5.476194E-1	4.926151E-1	5.935035E-1	5.568993E-1	4.845560E-1	4.605455E-1	5.351324E-1	5.412386E-1	5.158909E-1	4.772377E-1	5.775154E-1	5.900558E-1	5.514325E-1	5.359279E-1	5.475664E-1	5.616460E-1	4.887453E-1	5.292468E-1	5.176758E-1	6.089675E-1	4.553990E-1	4.580640E-1	6.094285E-1	5.341918E-1	4.880256E-1	5.189481E-1	5.835365E-1	5.528636E-1	5.514823E-1	5.075857E-1	5.935319E-1	5.701036E-1	5.670723E-1	5.321196E-1	5.535561E-1	5.278367E-1	4.751050E-1	5.130122E-1	5.650413E-1	5.506638E-1	4.889232E-1	5.157602E-1	5.382705E-1	5.899680E-1	5.737171E-1	6.159533E-1	5.221402E-1	5.740484E-1	5.374440E-1	4.750132E-1	5.408961E-1	5.448736E-1	4.620531E-1	4.743418E-1	5.365834E-1	5.844622E-1	4.866633E-1	4.511582E-1	5.731370E-1	5.439824E-1	5.518774E-1	5.239307E-1	5.703485E-1	5.683759E-1	4.855326E-1	5.088665E-1	4.601946E-1
2.910030E+2	5.107584E-1	5.781181E-1	5.800555E-1	5.632251E-1	5.648804E-1	6.095183E-1	5.635314E-1	5.662946E-1	5.480241E-1	5.563133E-1	5.368785E-1	5.313175E-1	5.656606E-1	5.886380E-1	4.794554E-1	5.966594E-1	5.957290E-1	6.021160E-1	4.800919E-1	5.887994E-1	5.643181E-1	5.561286E-1	5.260757E-1	5.913857E-1	5.830467E-1	5.638250E-1	5.463887E-1	5.360279E-1	6.072324E-1	5.861181E-1	4.495485E-1	6.404226E-1	5.513806E-1	6.056718E-1	4.715491E-1	6.033210E-1	5.637586E-1	5.953870E-1	5.180617E-1	5.577326E-1	5.592503E-1	5.830115E-1	4.952712E-1	5.662821E-1	6.009729E-1	5.994947E-1	4.501305E-1	5.512797E-1	5.676199E-1	5.390294E-1	4.672879E-1	5.654006E-1	5.371053E-1	5.991374E-1	5.210148E-1	5.691066E-1	5.536592E-1	5.388763E-1	5.271796E-1	5.535282E-1	5.837131E-1	5.409722E-1	4.843196E-1	5.715733E-1	5.887749E-1	5.928013E-1	5.356903E-1	5.635472E-1	5.695347E-1	5.491766E-1	5.236271E-1	5.767593E-1	5.804366E-1	5.294779E-1	4.798468E-1	5.458286E-1	5.569977E-1	4.899882E-1	4.615733E-1	5.787459E-1	5.621487E-1	4.867299E-1	4.752658E-1	6.185824E-1	5.576148E-1	5.089412E-1	5.185835E-1	5.890438E-1	5.897504E-1	5.295062E-1	5.658768E-1	6.186778E-1	5.758264E-1	5.311481E-1	5.428568E-1	6.124942E-1	5.911613E-1	4.743477E-1	5.356784E-1	5.931764E-1	5.611690E-1	5.178718E-1	5.450656E-1	5.686658E-1	5.833811E-1	5.373241E-1	5.223478E-1	5.490465E-1	5.731560E-1	5.036981E-1	4.450529E-1	5.753854E-1	5.824281E-1	5.210391E-1	5.001996E-1	5.633924E-1	5.868809E-1	5.551025E-1	5.332579E-1	5.738695E-1	6.040551E-1	5.162673E-1	5.566319E-1	5.323363E-1	5.599471E-1	4.851097E-1	5.085311E-1	5.758303E-1	5.916674E-1	4.778617E-1	5.337458E-1	6.044185E-1	5.604019E-1	5.348571E-1	5.460958E-1	5.604059E-1	6.035106E-1	5.737795E-1	5.329090E-1	5.617173E-1	5.887472E-1	4.823479E-1	5.382492E-1	5.683540E-1	5.855842E-1	4.677705E-1	5.396092E-1	5.607868E-1	6.177256E-1	5.395952E-1	5.707162E-1	5.838618E-1	5.645797E-1	5.337764E-1	5.652005E-1	6.014206E-1	5.740903E-1	4.903163E-1	4.798956E-1	5.918066E-1	5.739173E-1	4.970492E-1	4.966915E-1	5.428603E-1	5.799925E-1	5.315083E-1	5.310150E-1	5.778326E-1	6.383955E-1	5.274563E-1	5.343374E-1	5.542939E-1
2.915150E+2	7.172850E-1	7.398763E-1	7.719710E-1	7.784307E-1	7.678788E-1	8.048227E-1	7.810774E-1	7.535106E-1	7.489555E-1	7.517441E-1	7.145290E-1	7.363511E-1	7.810505E-1	7.752171E-1	6.309415E-1	7.147278E-1	7.590982E-1	7.661038E-1	6.587778E-1	7.582694E-1	7.864389E-1	7.873043E-1	7.169685E-1	7.916504E-1	7.827279E-1	7.713607E-1	7.261089E-1	7.746884E-1	8.010488E-1	7.234430E-1	6.349326E-1	8.058560E-1	7.888641E-1	7.778767E-1	6.169696E-1	8.168849E-1	8.085224E-1	7.669387E-1	6.803724E-1	7.547586E-1	7.735677E-1	8.085324E-1	7.016499E-1	7.826369E-1	8.040752E-1	7.958345E-1	6.214417E-1	7.754675E-1	7.470983E-1	7.692863E-1	6.309858E-1	7.477935E-1	7.264368E-1	7.904660E-1	6.843621E-1	7.334713E-1	7.539988E-1	7.299410E-1	7.005268E-1	7.658472E-1	7.721002E-1	7.738398E-1	6.487518E-1	7.633634E-1	7.799797E-1	7.403450E-1	6.261277E-1	7.571416E-1	7.752079E-1	7.433528E-1	7.320471E-1	7.450693E-1	7.769004E-1	6.909737E-1	7.097646E-1	7.541614E-1	7.831975E-1	7.904715E-1	6.283978E-1	7.344847E-1	7.775819E-1	8.074002E-1	6.226516E-1	7.765229E-1	7.824621E-1	7.517112E-1	6.916510E-1	7.583618E-1	7.860985E-1	7.039588E-1	8.222947E-1	7.779784E-1	7.954036E-1	7.241027E-1	6.892920E-1	7.380174E-1	7.804035E-1	7.137170E-1	6.622781E-1	7.735678E-1	7.750726E-1	7.275630E-1	7.370238E-1	7.581302E-1	7.276872E-1	7.366114E-1	7.123446E-1	7.858932E-1	7.878767E-1	6.166344E-1	6.277399E-1	7.598202E-1	7.606202E-1	7.048768E-1	6.405943E-1	7.549235E-1	7.654631E-1	7.591414E-1	7.321938E-1	7.649515E-1	7.632864E-1	6.613122E-1	7.342399E-1	7.970523E-1	7.669238E-1	6.478771E-1	6.733479E-1	7.718165E-1	7.525991E-1	6.623755E-1	6.318775E-1	7.384057E-1	7.899663E-1	7.386959E-1	7.244593E-1	7.628424E-1	7.301495E-1	7.247035E-1	7.489741E-1	8.011104E-1	7.556171E-1	6.601301E-1	6.924775E-1	7.836250E-1	8.143500E-1	7.276525E-1	7.229984E-1	7.487124E-1	8.083756E-1	7.357941E-1	7.410632E-1	7.711778E-1	7.619570E-1	7.120488E-1	7.064495E-1	7.406268E-1	7.616221E-1	6.655494E-1	6.508299E-1	7.567574E-1	7.712663E-1	6.595060E-1	6.898391E-1	7.678848E-1	7.323448E-1	7.039674E-1	7.024569E-1	7.785409E-1	7.567393E-1	7.658242E-1	6.616910E-1	7.091022E-1
2.920000E+2	5.997638E-1	6.498161E-1	6.172001E-1	6.152913E-1	6.437007E-1	6.216772E-1	6.578471E-1	6.732747E-1	6.305490E-1	6.245366E-1	5.648949E-1	6.611964E-1	6.199660E-1	6.099613E-1	5.086896E-1	6.397864E-1	6.360218E-1	6.353202E-1	5.291672E-1	6.653618E-1	6.548354E-1	6.313951E-1	6.060521E-1	6.191032E-1	6.393855E-1	6.110263E-1	6.588755E-1	6.847819E-1	6.515150E-1	6.458800E-1	5.019634E-1	6.525641E-1	6.629696E-1	6.686580E-1	5.130012E-1	6.590700E-1	6.426930E-1	6.561585E-1	5.814532E-1	6.056014E-1	6.266927E-1	6.409825E-1	5.670230E-1	6.759721E-1	6.626753E-1	6.537625E-1	5.295986E-1	6.485428E-1	6.414307E-1	5.993345E-1	5.463622E-1	6.805549E-1	6.371149E-1	6.500224E-1	5.645264E-1	6.180932E-1	6.358498E-1	6.394366E-1	6.123966E-1	6.160193E-1	6.606200E-1	6.570761E-1	5.426865E-1	6.610279E-1	6.664288E-1	6.229798E-1	5.282110E-1	6.309593E-1	6.346988E-1	6.526920E-1	6.152338E-1	6.500061E-1	6.654736E-1	6.277466E-1	5.799033E-1	6.229597E-1	6.396100E-1	6.751342E-1	5.047065E-1	6.805454E-1	6.555281E-1	6.151301E-1	5.338254E-1	6.796421E-1	6.279230E-1	6.958877E-1	5.811689E-1	6.342872E-1	6.800250E-1	6.170771E-1	6.102716E-1	6.733171E-1	6.485611E-1	6.578355E-1	5.658400E-1	6.823879E-1	6.573251E-1	6.531357E-1	5.719555E-1	6.393633E-1	6.596773E-1	6.424408E-1	6.456152E-1	6.479450E-1	6.298799E-1	6.248343E-1	5.948656E-1	6.410256E-1	6.544380E-1	6.536416E-1	5.250990E-1	6.463782E-1	6.155597E-1	6.232529E-1	5.172568E-1	6.525386E-1	6.710127E-1	6.820761E-1	5.853284E-1	6.844957E-1	6.296601E-1	5.750290E-1	5.793218E-1	6.667305E-1	6.675210E-1	5.852248E-1	5.704972E-1	6.626241E-1	6.629376E-1	6.099924E-1	5.664565E-1	6.461806E-1	6.227612E-1	6.324396E-1	6.001452E-1	6.774512E-1	6.509036E-1	6.534342E-1	6.314788E-1	6.406080E-1	6.921684E-1	5.475346E-1	5.789096E-1	6.287950E-1	6.454483E-1	6.249086E-1	5.634580E-1	5.945618E-1	6.425608E-1	6.327190E-1	6.442266E-1	6.577833E-1	7.007769E-1	6.291487E-1	5.864205E-1	6.475708E-1	6.522291E-1	5.286288E-1	5.595002E-1	6.628075E-1	7.177861E-1	5.526848E-1	5.451619E-1	6.328703E-1	6.485517E-1	5.742828E-1	6.054006E-1	6.506322E-1	6.808021E-1	5.837552E-1	6.538553E-1	5.512584E-1
2.925020E+2	5.323620E-1	6.585600E-1	5.916630E-1	6.152901E-1	6.184188E-1	6.057181E-1	6.365056E-1	6.458070E-1	5.975392E-1	6.089026E-1	5.750829E-1	5.663409E-1	5.888472E-1	5.613913E-1	4.847707E-1	5.683797E-1	6.023223E-1	5.892408E-1	5.367183E-1	6.602005E-1	5.681698E-1	6.125780E-1	5.447563E-1	6.156387E-1	5.987361E-1	5.878000E-1	5.929354E-1	6.300204E-1	6.033811E-1	6.140913E-1	4.809980E-1	6.267626E-1	5.985911E-1	5.922707E-1	4.824219E-1	6.625014E-1	6.267733E-1	5.877910E-1	5.410499E-1	5.965832E-1	5.854782E-1	6.098766E-1	5.366951E-1	6.373919E-1	6.112567E-1	6.622988E-1	4.898645E-1	6.506126E-1	5.932591E-1	6.322290E-1	4.846292E-1	6.086807E-1	5.806211E-1	6.479875E-1	5.359948E-1	5.858652E-1	5.716378E-1	6.186542E-1	5.504869E-1	6.122548E-1	6.260466E-1	6.108982E-1	5.163275E-1	6.316867E-1	5.961010E-1	6.316991E-1	5.091722E-1	6.249092E-1	5.885410E-1	6.323949E-1	5.961743E-1	5.650720E-1	6.295527E-1	5.843257E-1	5.891286E-1	5.768400E-1	6.278082E-1	6.150376E-1	5.002661E-1	6.258471E-1	6.136179E-1	5.743052E-1	4.825035E-1	6.291664E-1	5.743211E-1	6.303263E-1	5.415731E-1	6.370292E-1	6.303743E-1	6.088026E-1	5.919012E-1	6.448436E-1	6.169969E-1	6.065106E-1	5.605871E-1	5.725547E-1	6.203302E-1	5.881219E-1	5.364188E-1	6.010194E-1	6.603812E-1	6.050698E-1	5.900673E-1	5.901647E-1	5.986131E-1	6.424830E-1	5.774618E-1	6.149652E-1	6.273439E-1	6.172724E-1	5.025053E-1	6.441826E-1	6.236194E-1	5.989863E-1	4.975753E-1	6.013457E-1	6.511703E-1	6.461129E-1	5.112282E-1	6.249278E-1	6.264592E-1	6.308157E-1	5.253351E-1	5.657316E-1	6.055634E-1	6.343124E-1	5.328064E-1	6.059287E-1	5.924335E-1	5.912285E-1	5.438703E-1	6.061584E-1	6.186499E-1	6.187060E-1	5.650132E-1	6.406449E-1	5.941885E-1	6.375031E-1	5.463138E-1	6.179390E-1	6.230097E-1	5.909929E-1	5.501670E-1	6.180317E-1	6.048260E-1	5.742916E-1	5.700365E-1	5.625186E-1	5.797413E-1	6.085496E-1	6.018163E-1	5.852969E-1	6.250317E-1	5.623879E-1	5.492849E-1	5.930982E-1	6.366006E-1	5.349105E-1	5.126011E-1	6.111705E-1	6.243843E-1	5.452671E-1	5.172546E-1	6.042308E-1	6.028459E-1	6.157009E-1	6.082345E-1	5.996046E-1	5.950030E-1	5.789631E-1	5.617682E-1	6.089322E-1
2.930040E+2	5.444590E-1	5.877364E-1	5.831501E-1	6.100835E-1	5.685986E-1	6.087584E-1	6.227366E-1	6.342413E-1	5.975386E-1	5.875829E-1	5.687157E-1	6.072014E-1	6.285077E-1	5.921917E-1	4.736086E-1	6.107988E-1	5.737511E-1	5.987278E-1	5.121799E-1	6.421348E-1	6.169591E-1	6.051865E-1	5.459238E-1	6.038589E-1	6.244095E-1	5.892981E-1	5.709551E-1	5.834327E-1	6.072320E-1	6.134555E-1	5.124466E-1	6.138618E-1	6.150441E-1	5.936113E-1	5.123211E-1	6.050367E-1	6.135068E-1	6.112129E-1	5.292074E-1	6.056015E-1	5.982176E-1	6.042205E-1	5.559275E-1	5.193803E-1	6.029009E-1	5.952267E-1	5.009377E-1	5.809418E-1	5.901515E-1	5.993349E-1	4.818543E-1	6.303201E-1	5.775670E-1	6.405243E-1	5.174488E-1	5.620165E-1	5.973231E-1	5.864748E-1	5.337348E-1	5.821385E-1	6.105242E-1	6.333273E-1	5.182105E-1	6.152270E-1	6.085544E-1	5.894477E-1	4.840128E-1	6.067596E-1	5.858257E-1	6.033020E-1	5.617454E-1	5.650718E-1	5.994965E-1	5.713754E-1	5.075223E-1	5.577562E-1	6.219074E-1	6.095749E-1	5.066094E-1	5.954592E-1	5.959713E-1	6.065701E-1	4.746074E-1	5.900885E-1	5.569188E-1	6.199404E-1	5.217767E-1	5.931568E-1	5.995301E-1	5.681203E-1	6.194566E-1	5.994378E-1	6.032734E-1	5.948166E-1	5.362906E-1	6.046489E-1	6.075243E-1	5.984646E-1	4.986612E-1	5.949195E-1	6.026834E-1	6.126824E-1	5.872547E-1	6.150236E-1	5.889929E-1	5.976255E-1	5.651336E-1	6.019343E-1	5.589316E-1	5.840928E-1	4.999236E-1	5.944142E-1	5.842188E-1	5.614833E-1	4.910148E-1	5.360316E-1	6.368840E-1	6.182221E-1	5.619637E-1	6.140976E-1	6.000541E-1	5.936246E-1	5.558484E-1	6.268194E-1	6.293931E-1	6.427097E-1	5.136416E-1	6.031286E-1	5.932007E-1	5.967016E-1	5.142759E-1	6.244288E-1	6.022033E-1	5.897928E-1	5.629862E-1	6.229771E-1	5.802032E-1	6.224099E-1	5.494684E-1	6.206585E-1	6.128577E-1	5.949430E-1	5.936310E-1	5.840849E-1	6.169412E-1	6.271750E-1	5.618127E-1	5.469312E-1	5.680538E-1	6.042841E-1	6.187806E-1	5.974983E-1	6.505233E-1	6.078733E-1	5.632108E-1	5.809933E-1	5.645780E-1	6.228399E-1	5.014938E-1	6.004129E-1	5.942552E-1	6.075796E-1	5.033010E-1	5.886846E-1	5.578328E-1	5.885420E-1	5.593518E-1	6.043670E-1	5.959895E-1	5.837537E-1	5.931171E-1	5.907193E-1
2.935110E+2	6.904977E-1	7.232624E-1	7.348260E-1	7.628107E-1	7.604430E-1	7.516273E-1	7.845194E-1	8.084466E-1	7.719190E-1	7.695101E-1	7.100719E-1	7.122721E-1	7.767793E-1	7.230936E-1	6.357254E-1	7.536121E-1	7.612955E-1	7.112154E-1	6.719901E-1	8.064436E-1	7.382911E-1	7.241342E-1	6.889481E-1	7.646250E-1	7.763101E-1	7.473853E-1	6.834414E-1	7.583416E-1	7.586922E-1	7.469659E-1	6.150701E-1	7.109972E-1	7.566753E-1	7.504038E-1	6.353171E-1	7.963003E-1	7.236182E-1	7.441500E-1	6.685293E-1	7.561456E-1	8.072888E-1	7.413707E-1	6.705825E-1	7.289268E-1	7.616550E-1	7.330303E-1	6.592221E-1	7.561531E-1	7.463210E-1	7.809362E-1	6.164195E-1	7.501117E-1	7.157488E-1	7.572205E-1	7.342936E-1	7.528084E-1	7.497182E-1	7.446901E-1	6.437158E-1	7.492828E-1	7.537559E-1	7.665829E-1	6.399653E-1	7.469031E-1	7.880386E-1	7.825958E-1	6.118478E-1	7.614628E-1	7.324444E-1	7.758281E-1	7.258985E-1	7.731215E-1	7.219203E-1	7.686745E-1	6.941529E-1	7.279220E-1	7.871316E-1	7.315886E-1	6.544045E-1	7.496788E-1	7.981692E-1	7.626251E-1	5.969908E-1	7.447713E-1	7.393023E-1	7.367818E-1	6.852648E-1	7.131190E-1	7.462268E-1	7.046481E-1	7.610599E-1	7.887529E-1	7.514890E-1	7.942680E-1	6.242823E-1	7.715382E-1	7.619061E-1	7.816862E-1	6.578361E-1	7.186655E-1	7.835166E-1	7.448636E-1	7.194460E-1	7.601454E-1	7.332996E-1	7.623504E-1	7.145209E-1	7.368375E-1	7.682331E-1	7.531787E-1	6.329046E-1	7.700662E-1	7.498745E-1	7.269383E-1	6.255053E-1	7.875811E-1	7.480022E-1	7.833617E-1	6.934745E-1	7.510264E-1	7.960930E-1	7.736300E-1	6.685166E-1	7.603989E-1	7.812217E-1	7.654308E-1	6.535443E-1	7.347190E-1	7.541316E-1	7.679240E-1	6.466746E-1	7.723369E-1	7.742051E-1	7.632726E-1	7.562136E-1	7.738847E-1	7.122798E-1	7.515342E-1	7.757852E-1	7.729990E-1	7.460997E-1	7.641649E-1	6.861681E-1	7.488506E-1	7.544858E-1	7.450288E-1	7.361555E-1	7.842183E-1	7.696614E-1	7.535662E-1	7.622682E-1	7.496471E-1	7.801662E-1	7.479966E-1	7.449116E-1	7.035554E-1	7.167775E-1	7.528521E-1	6.378704E-1	7.538886E-1	7.275776E-1	7.997094E-1	6.633994E-1	7.981602E-1	7.607378E-1	7.664331E-1	7.059983E-1	7.662938E-1	8.099936E-1	8.137379E-1	7.263493E-1	7.637413E-1
2.940070E+2	8.209807E-1	8.806497E-1	8.501304E-1	7.845049E-1	8.727237E-1	8.694167E-1	9.015527E-1	8.243490E-1	8.178460E-1	8.775310E-1	8.418762E-1	8.173424E-1	8.689152E-1	9.025637E-1	7.367161E-1	8.582476E-1	8.960934E-1	8.460644E-1	7.059658E-1	8.468750E-1	8.326607E-1	8.303142E-1	7.730106E-1	8.249125E-1	8.640268E-1	9.024759E-1	8.082120E-1	8.621433E-1	8.434064E-1	8.467814E-1	7.127282E-1	7.990258E-1	8.296367E-1	9.199285E-1	7.012318E-1	8.597688E-1	8.814867E-1	8.929120E-1	7.556058E-1	8.844902E-1	8.829747E-1	7.986344E-1	7.726625E-1	8.885444E-1	8.651340E-1	8.549809E-1	7.022128E-1	8.948043E-1	7.867233E-1	8.474099E-1	7.031237E-1	8.320332E-1	8.615639E-1	8.942716E-1	7.927845E-1	8.520715E-1	8.404699E-1	8.211151E-1	7.908426E-1	8.622189E-1	8.511244E-1	8.708126E-1	6.813868E-1	8.241927E-1	8.942633E-1	8.697813E-1	7.199642E-1	8.694965E-1	8.654868E-1	8.658128E-1	8.218086E-1	8.627298E-1	8.678021E-1	8.974143E-1	7.409879E-1	8.837731E-1	8.428622E-1	8.572459E-1	6.937318E-1	8.552774E-1	8.996363E-1	8.732466E-1	7.174001E-1	8.823590E-1	8.339748E-1	8.958162E-1	7.650924E-1	8.783243E-1	8.176949E-1	8.156641E-1	8.368372E-1	8.541667E-1	8.276540E-1	8.501411E-1	8.134003E-1	8.157563E-1	8.778698E-1	8.459610E-1	7.740711E-1	8.920850E-1	9.059480E-1	8.825825E-1	8.326518E-1	8.434566E-1	8.190822E-1	8.880998E-1	7.812370E-1	8.295826E-1	8.576430E-1	8.648384E-1	7.032681E-1	8.827768E-1	8.143460E-1	8.798921E-1	7.291609E-1	8.440691E-1	8.488014E-1	8.905194E-1	7.468806E-1	8.515960E-1	8.288998E-1	8.799964E-1	8.312592E-1	8.695426E-1	8.207107E-1	9.062367E-1	7.385078E-1	8.446112E-1	9.005031E-1	8.539263E-1	7.487006E-1	8.784828E-1	8.920705E-1	8.839853E-1	8.163437E-1	8.305667E-1	8.521257E-1	8.328653E-1	8.167909E-1	8.546104E-1	8.647489E-1	8.616157E-1	7.499623E-1	8.747011E-1	8.742145E-1	8.923449E-1	7.887873E-1	8.162612E-1	8.558556E-1	8.680161E-1	8.633453E-1	8.228514E-1	8.741203E-1	8.851865E-1	7.979624E-1	8.465444E-1	8.458751E-1	9.117552E-1	7.489471E-1	9.037786E-1	8.804861E-1	8.635063E-1	7.603406E-1	8.603492E-1	8.216788E-1	8.743895E-1	7.973876E-1	8.771935E-1	8.593029E-1	8.640466E-1	8.262758E-1	8.517697E-1
2.945030E+2	7.241989E-1	8.421763E-1	8.416179E-1	7.983898E-1	7.924172E-1	8.564984E-1	8.395948E-1	8.576004E-1	8.171289E-1	7.965153E-1	7.852067E-1	8.450698E-1	8.188815E-1	8.705792E-1	7.021664E-1	8.207775E-1	8.272289E-1	8.311566E-1	7.229532E-1	8.614992E-1	8.166113E-1	8.162022E-1	7.216387E-1	7.902652E-1	8.504766E-1	7.825994E-1	7.597258E-1	7.926698E-1	8.376302E-1	7.997345E-1	6.630717E-1	8.483533E-1	8.897226E-1	8.669936E-1	6.591008E-1	7.937270E-1	8.217890E-1	8.378386E-1	7.430666E-1	8.220525E-1	8.417595E-1	8.170152E-1	7.046091E-1	8.174351E-1	8.747752E-1	8.537614E-1	7.197998E-1	8.161665E-1	8.014853E-1	8.542624E-1	6.788469E-1	8.119399E-1	8.478219E-1	8.366026E-1	7.449932E-1	8.391803E-1	8.053680E-1	8.559758E-1	7.456846E-1	8.531838E-1	8.539472E-1	8.325507E-1	7.096290E-1	8.163204E-1	8.466450E-1	8.328950E-1	6.941249E-1	8.210975E-1	8.111837E-1	8.516044E-1	7.849205E-1	7.840294E-1	8.289490E-1	8.364724E-1	7.807262E-1	7.843776E-1	8.009005E-1	8.475328E-1	6.924632E-1	7.982989E-1	8.040512E-1	8.113511E-1	6.581828E-1	8.400245E-1	8.527702E-1	8.367459E-1	7.382703E-1	8.337665E-1	8.267225E-1	8.287651E-1	8.383682E-1	8.541664E-1	7.851111E-1	8.319498E-1	7.188413E-1	7.965002E-1	8.380295E-1	8.533490E-1	6.859693E-1	8.781419E-1	8.151795E-1	8.272182E-1	8.010106E-1	8.152387E-1	7.814024E-1	8.152972E-1	7.261232E-1	7.943243E-1	8.217435E-1	8.374019E-1	6.716365E-1	8.147112E-1	8.752357E-1	9.115122E-1	6.878297E-1	7.893460E-1	8.789614E-1	8.464811E-1	7.335288E-1	8.577850E-1	8.345012E-1	8.175150E-1	7.757083E-1	8.043825E-1	8.288811E-1	8.151650E-1	7.027339E-1	7.998146E-1	8.384294E-1	7.945073E-1	7.440272E-1	8.071382E-1	8.036717E-1	8.239904E-1	7.589159E-1	8.342472E-1	7.736568E-1	8.010042E-1	7.986537E-1	8.809079E-1	8.101829E-1	8.701755E-1	7.548703E-1	8.457221E-1	7.979588E-1	8.455061E-1	7.994784E-1	8.240552E-1	8.653520E-1	8.388702E-1	8.442604E-1	8.185445E-1	8.639232E-1	8.697803E-1	7.568484E-1	7.693763E-1	8.485927E-1	8.558566E-1	7.143901E-1	8.578790E-1	8.277591E-1	8.442189E-1	7.111359E-1	8.325279E-1	8.327586E-1	8.709952E-1	7.669242E-1	8.084769E-1	8.533858E-1	8.688365E-1	8.066828E-1	8.274840E-1
2.950050E+2	6.593879E-1	7.433732E-1	7.239918E-1	7.723560E-1	7.478022E-1	7.782250E-1	7.803885E-1	7.274879E-1	7.137925E-1	7.531654E-1	6.527653E-1	7.283250E-1	7.487116E-1	7.740322E-1	6.383832E-1	7.373510E-1	7.466431E-1	7.003735E-1	6.562609E-1	7.316010E-1	7.511304E-1	7.422788E-1	7.070442E-1	7.798699E-1	7.385128E-1	7.353981E-1	7.080074E-1	7.215619E-1	7.747359E-1	7.730320E-1	6.045871E-1	7.732240E-1	7.459450E-1	7.751961E-1	6.047380E-1	7.619926E-1	7.780099E-1	7.530122E-1	6.580802E-1	7.512898E-1	7.368488E-1	7.816675E-1	7.186637E-1	7.758289E-1	7.995755E-1	7.440057E-1	6.370752E-1	7.278709E-1	7.828387E-1	7.500983E-1	6.053213E-1	7.779347E-1	7.684251E-1	7.416164E-1	7.157479E-1	7.566758E-1	7.129034E-1	7.245774E-1	6.386170E-1	7.801517E-1	7.205938E-1	7.560288E-1	6.067025E-1	7.461878E-1	7.396870E-1	7.423567E-1	6.084481E-1	7.130651E-1	7.494135E-1	7.643270E-1	6.865509E-1	7.294854E-1	7.439127E-1	7.816250E-1	6.593812E-1	7.263309E-1	7.268113E-1	7.995769E-1	6.036595E-1	7.116932E-1	7.959636E-1	7.138992E-1	6.397597E-1	7.724519E-1	7.546171E-1	7.685891E-1	6.546098E-1	7.528780E-1	7.484837E-1	7.246452E-1	6.967641E-1	7.741310E-1	7.542331E-1	7.650326E-1	6.617121E-1	7.223270E-1	7.398514E-1	8.119768E-1	6.548742E-1	7.326093E-1	7.743693E-1	7.780823E-1	7.011639E-1	7.319275E-1	7.934284E-1	7.491128E-1	7.101688E-1	7.215076E-1	7.628143E-1	7.850818E-1	5.909442E-1	7.078569E-1	7.588298E-1	7.600291E-1	5.986069E-1	7.646319E-1	6.948244E-1	7.694169E-1	6.854634E-1	7.417433E-1	7.416824E-1	7.580101E-1	6.700814E-1	7.473667E-1	7.893917E-1	7.305522E-1	6.707928E-1	7.529180E-1	7.985801E-1	7.812154E-1	6.443388E-1	7.749480E-1	7.296626E-1	7.907398E-1	7.021639E-1	7.562173E-1	7.402495E-1	7.565655E-1	7.332035E-1	7.757200E-1	7.518107E-1	7.253167E-1	6.910747E-1	7.968720E-1	7.744408E-1	7.397406E-1	7.312221E-1	7.244632E-1	7.177987E-1	7.706265E-1	8.202284E-1	7.446234E-1	7.073323E-1	7.509317E-1	7.469012E-1	7.285214E-1	6.957143E-1	7.760905E-1	6.384878E-1	7.596264E-1	7.516813E-1	8.323501E-1	6.509150E-1	7.359718E-1	7.468877E-1	7.650750E-1	6.932468E-1	7.132255E-1	7.685740E-1	7.490548E-1	6.910826E-1	6.817833E-1
2.955070E+2	7.077800E-1	8.552926E-1	8.199497E-1	8.426453E-1	8.013398E-1	8.526982E-1	8.306445E-1	8.395283E-1	8.357861E-1	8.952963E-1	8.915416E-1	8.509071E-1	8.622037E-1	8.498486E-1	8.222922E-1	8.186558E-1	8.858375E-1	8.487750E-1	8.129261E-1	8.795647E-1	8.121174E-1	8.215779E-1	8.477333E-1	8.657975E-1	8.519034E-1	8.073238E-1	8.237276E-1	8.498828E-1	8.350628E-1	8.963702E-1	7.232108E-1	8.430401E-1	8.432283E-1	8.375114E-1	7.895716E-1	8.743491E-1	8.463312E-1	8.460676E-1	7.806832E-1	8.525774E-1	8.470054E-1	8.629681E-1	7.238416E-1	8.401303E-1	8.664195E-1	8.799803E-1	7.158917E-1	8.472077E-1	8.869512E-1	8.665968E-1	6.795406E-1	8.961807E-1	8.630913E-1	8.698468E-1	7.749522E-1	8.075962E-1	8.516008E-1	8.774287E-1	7.915707E-1	8.674883E-1	8.292516E-1	8.767498E-1	7.272022E-1	8.556806E-1	8.869375E-1	8.691107E-1	7.165642E-1	8.366540E-1	8.573415E-1	8.198057E-1	7.744684E-1	8.284444E-1	8.780649E-1	8.471371E-1	8.119499E-1	8.440151E-1	8.585981E-1	8.438906E-1	7.070526E-1	8.332455E-1	8.540492E-1	8.534923E-1	6.647623E-1	8.563069E-1	8.541625E-1	8.393430E-1	7.880829E-1	8.611866E-1	8.199513E-1	8.266963E-1	8.429604E-1	8.495485E-1	8.688255E-1	8.501405E-1	7.273786E-1	9.098993E-1	8.842731E-1	8.851172E-1	7.607444E-1	8.284690E-1	9.080591E-1	8.417513E-1	7.996035E-1	8.374097E-1	8.687882E-1	8.638325E-1	7.725344E-1	8.564105E-1	8.529022E-1	8.597336E-1	6.625990E-1	8.366681E-1	7.883793E-1	8.570959E-1	6.852055E-1	8.281815E-1	8.670564E-1	8.538212E-1	7.996176E-1	8.492747E-1	8.513039E-1	8.740457E-1	8.038746E-1	8.442934E-1	8.670085E-1	8.416468E-1	7.097612E-1	8.467107E-1	9.043357E-1	8.750360E-1	8.312556E-1	8.489021E-1	8.550664E-1	8.442293E-1	7.872920E-1	8.747351E-1	8.334802E-1	8.496346E-1	8.869728E-1	8.790940E-1	8.691905E-1	8.635915E-1	7.752003E-1	8.821526E-1	8.663748E-1	8.364403E-1	8.183932E-1	8.422411E-1	8.763082E-1	8.864984E-1	8.711204E-1	8.616060E-1	8.843171E-1	8.485054E-1	7.760788E-1	8.170391E-1	8.363627E-1	8.640207E-1	7.619060E-1	8.550109E-1	9.354725E-1	8.887273E-1	6.964488E-1	8.701681E-1	8.756950E-1	8.540202E-1	7.867605E-1	8.302484E-1	8.395789E-1	8.400888E-1	7.479032E-1	8.487343E-1
2.960050E+2	8.607310E-1	9.672115E-1	9.468624E-1	9.866938E-1	9.671584E-1	1.016846E+0	1.047503E+0	9.833745E-1	9.527573E-1	9.443323E-1	9.373867E-1	9.895415E-1	9.763049E-1	9.884500E-1	9.588952E-1	9.763158E-1	1.000855E+0	9.727821E-1	1.002307E+0	9.587084E-1	9.629797E-1	9.768152E-1	9.954270E-1	9.593462E-1	1.000238E+0	9.511749E-1	9.407394E-1	9.839258E-1	9.858810E-1	1.005087E+0	9.201812E-1	9.667365E-1	9.448018E-1	9.755424E-1	9.947907E-1	9.884215E-1	9.836377E-1	9.954635E-1	1.031464E+0	9.864722E-1	9.713993E-1	9.499240E-1	9.546310E-1	1.032277E+0	1.036100E+0	9.915649E-1	9.425705E-1	9.506789E-1	9.646478E-1	9.899491E-1	8.931799E-1	9.672820E-1	9.928747E-1	9.743317E-1	9.696843E-1	1.019015E+0	9.894409E-1	9.826812E-1	8.731457E-1	9.939766E-1	9.950608E-1	9.255656E-1	7.949828E-1	9.759070E-1	1.004151E+0	9.670261E-1	7.920412E-1	9.948143E-1	9.849534E-1	1.053900E+0	9.171035E-1	9.492213E-1	1.000488E+0	9.469297E-1	8.963956E-1	9.736273E-1	9.798934E-1	1.010825E+0	7.780956E-1	9.707523E-1	1.031984E+0	1.006914E+0	7.266121E-1	1.020760E+0	9.397854E-1	1.019149E+0	8.570550E-1	9.866329E-1	9.192537E-1	9.494339E-1	9.883911E-1	9.680627E-1	9.607733E-1	1.024904E+0	8.495164E-1	1.026864E+0	9.717793E-1	9.774669E-1	8.732773E-1	9.705157E-1	1.010789E+0	9.621682E-1	9.423420E-1	9.643915E-1	9.337253E-1	1.021203E+0	8.682586E-1	9.959123E-1	9.700840E-1	1.004573E+0	7.697582E-1	9.427911E-1	9.692561E-1	9.784297E-1	7.855814E-1	9.658721E-1	9.861108E-1	9.690516E-1	8.877374E-1	1.077490E+0	9.809295E-1	9.484283E-1	9.001115E-1	9.909048E-1	9.779862E-1	9.669518E-1	8.062230E-1	9.412036E-1	9.978295E-1	9.719842E-1	8.437164E-1	9.863692E-1	9.886929E-1	9.548225E-1	9.007968E-1	9.748491E-1	9.702175E-1	9.678591E-1	9.248235E-1	9.480108E-1	9.967222E-1	9.768444E-1	8.544180E-1	9.442500E-1	1.023162E+0	9.648709E-1	9.483279E-1	9.141209E-1	9.252495E-1	9.782005E-1	1.015315E+0	9.821769E-1	1.059116E+0	9.746901E-1	9.173283E-1	9.698643E-1	9.939984E-1	1.000941E+0	8.982828E-1	9.984460E-1	1.005524E+0	9.584584E-1	8.462662E-1	1.021547E+0	9.317877E-1	1.006111E+0	9.249061E-1	9.642812E-1	9.944111E-1	1.011378E+0	9.340383E-1	9.580105E-1
2.964990E+2	7.838237E-1	9.191208E-1	8.516776E-1	8.912406E-1	8.771851E-1	8.891757E-1	8.719509E-1	8.416966E-1	8.673610E-1	8.931640E-1	8.902683E-1	8.538254E-1	8.499999E-1	8.433331E-1	8.711924E-1	8.441080E-1	8.968258E-1	8.955322E-1	8.915726E-1	9.277386E-1	9.052027E-1	8.598829E-1	8.926832E-1	8.969802E-1	8.533294E-1	8.695093E-1	8.573447E-1	8.891153E-1	8.825550E-1	8.938281E-1	8.324555E-1	8.506299E-1	8.596799E-1	8.602937E-1	8.609223E-1	8.417567E-1	8.549550E-1	8.751870E-1	8.705465E-1	8.657586E-1	8.769794E-1	8.601394E-1	8.606875E-1	8.794665E-1	9.126961E-1	9.031513E-1	8.578917E-1	8.513467E-1	8.698585E-1	8.659118E-1	8.550302E-1	8.683576E-1	8.592740E-1	8.501718E-1	8.648285E-1	9.075042E-1	8.593061E-1	9.015632E-1	8.236182E-1	8.765237E-1	8.856978E-1	8.840059E-1	8.947718E-1	9.000495E-1	8.664248E-1	8.979489E-1	7.988409E-1	8.980166E-1	8.498753E-1	8.258946E-1	8.962001E-1	8.315612E-1	8.370126E-1	8.608493E-1	7.778879E-1	8.877499E-1	8.979368E-1	8.730284E-1	7.197386E-1	9.335264E-1	8.827247E-1	9.226306E-1	7.213482E-1	8.986414E-1	8.555550E-1	8.769921E-1	8.091576E-1	8.262268E-1	8.711071E-1	8.666893E-1	8.238251E-1	8.780231E-1	8.585326E-1	9.131596E-1	7.227807E-1	8.328726E-1	8.707558E-1	8.976770E-1	8.110887E-1	9.060282E-1	8.672485E-1	8.763540E-1	8.396826E-1	8.696586E-1	8.784083E-1	8.447128E-1	7.660079E-1	8.280499E-1	8.942204E-1	8.929127E-1	7.123051E-1	9.120521E-1	8.618044E-1	9.453384E-1	6.812697E-1	8.731959E-1	8.908667E-1	9.103356E-1	7.795913E-1	8.895023E-1	8.745090E-1	8.755332E-1	8.156113E-1	8.353334E-1	8.799443E-1	8.965478E-1	7.468121E-1	8.446109E-1	9.028030E-1	8.758177E-1	7.806314E-1	8.976239E-1	8.742543E-1	9.006102E-1	8.420177E-1	8.585396E-1	8.560105E-1	9.133582E-1	8.656818E-1	9.026711E-1	8.920316E-1	8.359364E-1	8.361907E-1	8.639380E-1	8.499832E-1	8.900795E-1	8.438867E-1	8.682214E-1	8.909180E-1	8.616180E-1	8.237628E-1	8.759595E-1	8.784900E-1	9.174654E-1	7.999523E-1	8.548668E-1	8.812077E-1	8.721873E-1	7.236462E-1	8.499902E-1	8.804865E-1	8.486701E-1	7.104018E-1	8.938982E-1	8.777721E-1	8.546998E-1	8.193486E-1	8.533814E-1	8.395793E-1	9.047718E-1	8.203968E-1	8.183791E-1
2.970020E+2	6.887690E-1	7.547404E-1	7.572681E-1	7.341750E-1	7.463147E-1	7.744250E-1	7.500975E-1	7.477283E-1	7.453675E-1	7.759065E-1	7.705615E-1	7.188389E-1	7.230844E-1	7.337555E-1	7.553190E-1	7.352306E-1	7.590981E-1	7.213803E-1	7.726585E-1	8.090236E-1	7.761674E-1	7.617678E-1	7.805995E-1	7.694759E-1	7.841543E-1	7.518812E-1	7.416247E-1	7.419948E-1	7.811540E-1	7.552311E-1	7.778334E-1	7.565295E-1	7.702662E-1	7.463842E-1	7.848148E-1	7.739995E-1	7.780104E-1	7.593426E-1	7.765044E-1	7.700212E-1	7.360996E-1	8.000485E-1	7.763614E-1	7.289261E-1	7.661541E-1	7.757134E-1	7.556254E-1	7.706388E-1	7.719601E-1	7.432451E-1	7.641639E-1	7.910727E-1	7.042968E-1	7.999644E-1	7.942116E-1	7.715003E-1	7.822525E-1	7.433488E-1	7.653502E-1	7.266963E-1	7.452885E-1	7.500908E-1	7.617199E-1	7.519135E-1	7.528743E-1	7.343098E-1	7.607624E-1	7.744266E-1	7.351593E-1	7.447058E-1	7.105288E-1	7.637701E-1	7.527095E-1	7.359181E-1	7.785973E-1	7.772220E-1	7.609048E-1	7.710459E-1	7.622381E-1	7.853847E-1	8.033162E-1	7.929138E-1	7.351656E-1	7.634971E-1	7.267718E-1	8.023433E-1	7.631766E-1	7.713864E-1	7.936212E-1	7.605011E-1	7.304435E-1	7.356525E-1	7.377651E-1	7.910197E-1	6.794414E-1	7.729644E-1	7.526572E-1	7.499180E-1	6.785657E-1	7.770537E-1	7.821084E-1	7.822342E-1	7.405394E-1	7.688803E-1	7.709794E-1	7.667622E-1	7.029181E-1	7.146094E-1	7.506217E-1	8.054993E-1	6.012728E-1	7.912913E-1	7.758428E-1	7.651768E-1	6.773334E-1	7.337395E-1	7.360959E-1	7.730858E-1	6.888020E-1	7.525738E-1	7.472834E-1	7.699105E-1	7.162448E-1	7.473672E-1	7.778176E-1	7.912667E-1	6.810136E-1	7.389189E-1	7.564312E-1	7.530691E-1	6.723761E-1	7.601560E-1	7.077342E-1	7.798968E-1	7.224327E-1	7.709397E-1	7.798719E-1	7.624345E-1	7.560715E-1	7.331015E-1	7.664034E-1	7.766759E-1	7.226219E-1	8.059793E-1	7.758659E-1	7.850687E-1	7.665834E-1	7.261951E-1	7.828096E-1	7.578317E-1	8.174008E-1	7.812252E-1	7.954605E-1	7.619364E-1	7.336382E-1	7.519753E-1	7.371613E-1	7.371500E-1	6.440418E-1	7.653631E-1	7.562014E-1	7.722620E-1	6.582597E-1	7.621562E-1	7.461947E-1	7.847652E-1	7.208755E-1	7.520068E-1	7.587111E-1	7.634282E-1	7.772915E-1	6.544632E-1
2.975020E+2	7.985138E-1	7.599861E-1	8.362007E-1	8.452482E-1	8.585952E-1	8.093819E-1	7.652432E-1	8.098920E-1	8.049291E-1	8.235203E-1	7.883909E-1	8.224508E-1	7.682373E-1	8.338559E-1	8.068772E-1	8.469359E-1	8.389510E-1	8.433541E-1	7.959381E-1	8.331109E-1	7.877225E-1	7.953686E-1	8.156263E-1	7.798699E-1	8.226640E-1	8.447847E-1	8.243740E-1	8.171896E-1	7.862887E-1	7.889268E-1	7.789368E-1	8.088916E-1	7.931566E-1	7.993185E-1	8.045211E-1	7.714274E-1	8.078592E-1	8.150494E-1	7.785939E-1	7.894456E-1	8.050411E-1	7.639931E-1	7.800594E-1	8.030616E-1	8.034323E-1	7.933960E-1	7.934057E-1	7.961618E-1	7.603065E-1	8.158860E-1	8.154927E-1	8.498094E-1	8.516396E-1	7.789316E-1	8.248832E-1	7.998615E-1	8.062238E-1	7.547454E-1	7.886571E-1	8.034925E-1	8.024400E-1	8.219965E-1	7.742727E-1	8.034387E-1	8.085507E-1	8.288718E-1	8.178802E-1	8.262826E-1	8.111834E-1	8.279247E-1	7.830758E-1	8.253276E-1	7.761677E-1	7.785775E-1	7.800163E-1	7.915348E-1	8.212258E-1	7.868286E-1	7.983935E-1	7.823456E-1	8.231684E-1	8.232032E-1	7.772755E-1	7.985047E-1	7.887262E-1	8.192198E-1	7.880827E-1	8.310247E-1	8.274745E-1	7.915302E-1	7.694799E-1	8.095311E-1	7.830530E-1	8.501406E-1	7.746575E-1	7.872281E-1	7.903634E-1	8.370958E-1	7.792531E-1	8.066826E-1	7.778871E-1	8.244504E-1	7.932759E-1	8.159101E-1	7.789970E-1	7.630850E-1	8.029930E-1	8.203859E-1	8.210665E-1	7.831673E-1	7.800867E-1	7.986106E-1	7.901692E-1	8.269467E-1	7.987025E-1	7.875809E-1	8.313392E-1	7.884996E-1	8.062939E-1	7.928013E-1	8.184976E-1	7.840434E-1	7.389338E-1	8.475521E-1	8.016470E-1	8.410006E-1	7.116768E-1	8.348120E-1	8.299996E-1	8.210887E-1	7.167685E-1	8.071400E-1	7.920220E-1	8.478434E-1	7.697261E-1	7.944963E-1	7.682183E-1	7.691421E-1	8.081158E-1	7.757197E-1	8.006657E-1	8.286931E-1	6.952822E-1	8.043236E-1	7.751537E-1	8.213314E-1	7.863204E-1	7.850836E-1	8.302894E-1	7.969292E-1	7.764046E-1	7.934262E-1	8.092992E-1	8.206269E-1	7.561852E-1	8.087176E-1	7.921976E-1	7.742064E-1	6.952605E-1	7.983538E-1	7.961230E-1	8.360588E-1	7.067296E-1	8.235268E-1	8.029809E-1	8.526626E-1	7.676328E-1	8.111984E-1	7.823795E-1	8.436833E-1	8.066807E-1	7.880242E-1
2.980040E+2	9.670190E-1	9.925683E-1	1.013413E+0	9.511165E-1	9.507999E-1	9.438909E-1	9.731506E-1	9.204872E-1	9.950957E-1	9.620980E-1	9.762287E-1	9.815157E-1	9.946100E-1	9.925957E-1	9.482646E-1	9.473290E-1	9.949937E-1	9.551632E-1	9.563772E-1	9.845157E-1	1.004708E+0	9.895839E-1	9.948437E-1	1.002310E+0	9.781299E-1	9.953800E-1	9.866394E-1	9.602232E-1	1.013477E+0	9.605825E-1	9.957701E-1	9.652192E-1	9.419403E-1	9.755426E-1	9.608140E-1	9.395337E-1	9.829747E-1	9.986288E-1	9.618028E-1	9.691282E-1	1.005870E+0	9.591140E-1	9.923565E-1	9.694886E-1	1.000750E+0	9.994919E-1	9.744877E-1	9.686139E-1	9.234691E-1	9.515729E-1	9.493651E-1	9.804216E-1	9.096602E-1	9.580477E-1	1.009630E+0	9.854974E-1	1.028824E+0	1.011508E+0	9.780279E-1	9.789183E-1	9.915329E-1	9.526124E-1	9.713392E-1	9.644575E-1	9.858361E-1	9.904993E-1	9.640742E-1	9.732085E-1	9.564447E-1	9.605330E-1	9.638286E-1	1.013117E+0	9.770302E-1	9.789246E-1	9.794211E-1	9.680614E-1	9.759596E-1	9.476936E-1	9.715618E-1	9.639141E-1	9.643400E-1	9.753082E-1	1.002303E+0	9.930803E-1	9.961710E-1	9.555356E-1	9.969133E-1	1.002399E+0	9.485932E-1	1.012871E+0	1.025897E+0	1.016546E+0	9.491089E-1	9.943694E-1	9.926672E-1	1.004755E+0	9.660883E-1	9.774670E-1	9.554561E-1	9.853310E-1	9.946060E-1	9.351776E-1	9.873430E-1	9.724541E-1	9.826297E-1	9.734040E-1	9.480288E-1	9.989782E-1	9.782120E-1	1.003934E+0	9.647105E-1	9.310808E-1	9.826881E-1	9.960783E-1	9.725557E-1	9.667550E-1	9.503946E-1	9.785930E-1	1.001224E+0	1.014054E+0	9.993332E-1	1.008678E+0	9.799181E-1	9.477352E-1	9.384967E-1	9.682431E-1	1.029812E+0	9.650026E-1	9.618106E-1	9.774573E-1	9.465209E-1	9.446070E-1	1.004454E+0	9.815678E-1	1.013625E+0	9.844186E-1	9.748797E-1	9.980439E-1	9.863316E-1	9.607061E-1	9.281969E-1	9.715768E-1	9.322327E-1	9.525301E-1	9.982180E-1	9.784688E-1	9.631305E-1	9.556887E-1	9.259800E-1	9.327049E-1	9.488721E-1	1.011603E+0	9.520515E-1	9.710220E-1	9.292649E-1	9.834816E-1	1.002152E+0	9.971734E-1	8.421278E-1	1.005618E+0	9.535500E-1	9.851634E-1	8.425930E-1	9.159915E-1	9.927289E-1	9.694464E-1	8.894838E-1	9.513535E-1	9.776463E-1	9.766421E-1	9.281589E-1	9.580098E-1
2.985020E+2	1.018002E+0	1.053773E+0	1.099311E+0	1.074338E+0	1.051927E+0	1.079920E+0	1.092250E+0	1.169868E+0	1.084798E+0	1.092860E+0	1.118221E+0	1.093152E+0	1.036712E+0	1.092105E+0	1.124733E+0	1.129734E+0	1.079243E+0	1.093400E+0	1.111783E+0	1.071401E+0	1.075966E+0	1.093747E+0	1.078906E+0	1.105561E+0	1.092947E+0	1.082290E+0	1.122399E+0	1.067293E+0	1.114878E+0	1.123974E+0	1.115498E+0	1.047935E+0	1.105031E+0	1.068681E+0	1.122542E+0	1.138516E+0	1.096402E+0	1.084721E+0	1.117147E+0	1.116204E+0	1.075561E+0	1.114645E+0	1.056711E+0	1.185086E+0	1.088161E+0	1.099491E+0	1.149056E+0	1.087951E+0	1.119264E+0	1.115357E+0	1.081849E+0	1.059252E+0	1.073799E+0	1.066603E+0	1.102360E+0	1.083472E+0	1.072487E+0	1.107376E+0	1.112045E+0	1.134017E+0	1.076907E+0	1.081911E+0	1.135144E+0	1.091124E+0	1.083271E+0	1.096462E+0	1.091910E+0	1.112354E+0	1.105099E+0	1.097878E+0	1.108308E+0	1.062986E+0	1.080394E+0	1.086335E+0	1.054641E+0	1.110395E+0	1.106434E+0	1.103095E+0	1.067343E+0	1.064195E+0	1.095952E+0	1.062883E+0	1.072706E+0	1.111128E+0	1.037939E+0	1.055500E+0	1.106118E+0	1.083974E+0	1.110336E+0	1.072861E+0	1.100143E+0	1.109664E+0	1.082227E+0	1.062586E+0	1.127282E+0	1.088199E+0	1.046480E+0	1.098628E+0	1.116111E+0	1.119534E+0	1.086781E+0	1.068744E+0	1.061174E+0	1.059795E+0	1.150186E+0	1.142541E+0	1.102493E+0	1.105520E+0	1.067622E+0	1.090710E+0	1.117058E+0	1.084044E+0	1.103572E+0	1.062260E+0	1.099829E+0	1.062077E+0	1.099610E+0	1.091621E+0	1.069983E+0	1.118491E+0	1.100953E+0	1.094961E+0	1.084762E+0	1.099234E+0	1.115517E+0	1.089027E+0	1.087945E+0	1.049696E+0	1.103584E+0	1.032186E+0	1.155245E+0	1.051622E+0	1.091483E+0	1.097944E+0	1.084565E+0	1.087477E+0	1.093748E+0	1.112075E+0	1.087267E+0	1.053198E+0	1.058267E+0	1.074954E+0	1.127822E+0	1.075897E+0	1.117947E+0	1.101611E+0	1.084841E+0	1.057013E+0	1.116630E+0	1.096914E+0	1.090239E+0	1.054664E+0	1.143603E+0	1.123616E+0	1.143459E+0	1.062921E+0	1.087084E+0	1.076311E+0	1.182144E+0	1.045780E+0	1.104198E+0	1.086051E+0	1.166464E+0	1.131195E+0	1.067519E+0	1.133758E+0	1.139562E+0	1.117364E+0	1.064432E+0	1.085644E+0	1.063351E+0	1.182633E+0
2.990010E+2	1.100095E+0	1.100115E+0	9.809122E-1	1.102107E+0	1.085388E+0	1.087520E+0	1.085366E+0	1.047708E+0	1.089104E+0	1.064433E+0	1.057093E+0	1.097531E+0	1.103220E+0	1.084405E+0	1.050318E+0	1.051257E+0	1.071184E+0	1.050709E+0	1.079066E+0	1.016345E+0	1.097151E+0	1.046034E+0	1.054971E+0	1.062597E+0	1.039461E+0	1.039584E+0	1.069389E+0	1.095901E+0	1.035939E+0	1.065483E+0	1.079634E+0	1.098779E+0	1.110754E+0	1.071361E+0	1.038960E+0	1.076763E+0	1.075839E+0	1.061298E+0	1.115057E+0	1.074578E+0	1.072563E+0	1.101213E+0	1.077423E+0	9.876444E-1	1.032887E+0	1.069003E+0	1.003148E+0	1.077604E+0	1.053222E+0	1.063275E+0	1.088092E+0	1.039931E+0	1.064638E+0	1.114775E+0	1.028176E+0	1.010635E+0	1.060502E+0	1.091957E+0	1.067615E+0	1.063244E+0	1.109364E+0	1.040351E+0	1.026568E+0	1.112593E+0	1.063491E+0	1.039457E+0	1.062671E+0	1.064820E+0	1.029074E+0	1.060666E+0	1.092324E+0	1.063765E+0	1.073063E+0	1.097761E+0	1.131280E+0	1.082564E+0	1.043492E+0	1.095811E+0	1.099059E+0	1.094582E+0	1.072423E+0	1.052347E+0	1.046387E+0	1.058210E+0	1.104071E+0	1.111324E+0	1.081212E+0	1.073691E+0	1.056171E+0	1.066656E+0	1.034316E+0	1.103507E+0	1.062328E+0	1.039198E+0	1.055049E+0	1.063951E+0	1.118335E+0	1.084592E+0	1.081314E+0	1.100362E+0	1.071301E+0	1.108883E+0	1.071720E+0	1.096748E+0	1.082843E+0	1.057973E+0	1.035776E+0	1.052632E+0	1.065590E+0	1.054979E+0	1.078325E+0	1.109660E+0	1.050741E+0	1.039464E+0	1.076867E+0	1.041777E+0	1.044844E+0	1.085016E+0	1.075324E+0	1.046546E+0	1.041742E+0	1.066696E+0	1.095715E+0	1.024299E+0	1.059006E+0	1.063837E+0	1.120525E+0	1.089593E+0	1.067566E+0	1.083005E+0	1.118641E+0	1.100346E+0	1.066128E+0	1.061802E+0	1.062945E+0	1.057295E+0	1.091418E+0	1.031582E+0	1.055725E+0	1.030529E+0	1.149633E+0	1.067711E+0	1.104689E+0	1.077553E+0	1.065209E+0	1.105389E+0	1.036322E+0	1.024104E+0	1.051619E+0	1.088385E+0	1.085998E+0	1.067582E+0	1.051104E+0	1.023110E+0	1.066535E+0	1.099992E+0	1.021176E+0	1.063750E+0	1.172888E+0	1.116064E+0	1.045445E+0	1.071214E+0	1.120931E+0	1.033003E+0	1.098683E+0	9.966046E-1	1.105557E+0	1.049327E+0	1.078238E+0	1.101216E+0	1.059432E+0	9.397966E-1
2.995040E+2	1.024916E+0	1.002185E+0	9.909719E-1	9.571902E-1	9.738504E-1	9.879677E-1	9.972467E-1	9.949402E-1	9.728505E-1	9.571235E-1	9.934203E-1	9.428431E-1	9.940002E-1	9.694959E-1	9.658050E-1	9.572263E-1	9.788767E-1	9.978541E-1	9.746230E-1	9.681706E-1	9.828810E-1	1.017808E+0	1.011772E+0	9.891436E-1	1.011648E+0	9.908844E-1	9.569018E-1	9.733006E-1	9.499412E-1	9.796554E-1	9.654240E-1	9.652181E-1	9.791365E-1	1.037859E+0	9.710063E-1	9.987132E-1	9.730251E-1	9.638117E-1	1.009868E+0	9.372159E-1	9.833895E-1	9.407334E-1	9.783020E-1	1.004287E+0	1.004606E+0	9.458337E-1	1.018130E+0	1.000345E+0	1.018259E+0	9.597960E-1	9.396536E-1	9.811939E-1	9.982190E-1	9.756880E-1	9.568448E-1	1.006768E+0	9.791668E-1	9.511725E-1	9.860401E-1	9.744013E-1	9.506101E-1	9.935131E-1	9.694564E-1	9.444192E-1	9.748479E-1	9.542834E-1	9.640750E-1	9.507367E-1	1.015499E+0	1.011953E+0	9.884215E-1	9.819481E-1	9.799627E-1	9.933983E-1	9.737441E-1	9.553381E-1	9.720256E-1	9.810810E-1	9.848824E-1	9.958218E-1	9.871331E-1	9.838674E-1	9.930911E-1	9.645851E-1	9.745920E-1	9.776052E-1	9.937202E-1	9.619545E-1	9.907216E-1	9.880479E-1	9.799708E-1	9.534412E-1	1.034194E+0	1.002815E+0	9.801909E-1	9.812189E-1	1.010909E+0	9.560421E-1	1.006539E+0	9.722584E-1	1.001642E+0	9.324093E-1	9.943752E-1	9.758130E-1	1.003474E+0	1.006496E+0	1.000241E+0	9.867142E-1	1.005306E+0	9.694797E-1	1.020873E+0	9.808495E-1	1.000597E+0	1.011521E+0	9.515615E-1	1.010004E+0	9.900782E-1	9.859319E-1	9.698481E-1	9.900716E-1	9.873305E-1	9.774375E-1	9.979143E-1	9.746143E-1	9.439438E-1	9.953710E-1	9.831781E-1	9.615030E-1	9.572128E-1	1.011858E+0	9.800103E-1	1.025522E+0	9.715618E-1	9.598830E-1	1.000112E+0	9.726403E-1	1.003626E+0	9.963666E-1	9.957947E-1	1.039597E+0	9.783220E-1	9.886967E-1	1.031780E+0	1.012144E+0	9.347914E-1	9.240752E-1	1.016585E+0	1.064807E+0	1.014366E+0	9.973931E-1	1.002592E+0	9.800246E-1	9.899252E-1	9.974319E-1	9.776748E-1	9.819681E-1	9.933188E-1	9.827279E-1	1.011210E+0	9.453747E-1	1.010043E+0	9.495566E-1	1.044554E+0	1.014183E+0	9.615662E-1	9.877789E-1	9.943327E-1	9.533945E-1	1.025970E+0	9.550817E-1	1.033962E+0	9.549742E-1
3.000040E+2	1.091453E+0	1.091372E+0	1.079191E+0	1.070000E+0	1.079440E+0	1.091319E+0	1.086743E+0	1.057104E+0	1.053223E+0	1.099966E+0	1.066645E+0	1.062507E+0	1.103221E+0	1.027543E+0	1.104003E+0	1.067518E+0	1.036752E+0	1.059519E+0	1.082212E+0	1.126457E+0	1.051571E+0	1.057458E+0	1.043880E+0	1.060518E+0	1.055150E+0	1.047077E+0	1.040297E+0	1.086092E+0	1.099475E+0	1.081378E+0	1.064737E+0	1.113956E+0	1.069981E+0	1.047239E+0	1.102156E+0	1.075047E+0	1.063900E+0	1.076491E+0	1.017531E+0	1.113428E+0	1.057576E+0	1.120301E+0	1.115148E+0	1.050432E+0	1.070164E+0	1.092784E+0	1.061772E+0	1.069326E+0	1.125479E+0	1.094113E+0	1.125548E+0	1.089393E+0	1.102045E+0	1.105955E+0	1.078107E+0	1.113766E+0	1.052796E+0	1.083242E+0	1.067615E+0	1.045927E+0	1.069146E+0	1.109617E+0	1.123220E+0	1.083967E+0	1.084003E+0	1.090426E+0	1.099390E+0	1.072599E+0	1.082700E+0	1.041045E+0	1.064042E+0	1.052856E+0	1.113382E+0	1.065004E+0	1.080898E+0	1.092107E+0	1.080863E+0	1.085491E+0	1.078761E+0	1.099141E+0	1.056983E+0	1.102391E+0	1.108237E+0	1.074492E+0	1.098501E+0	1.080816E+0	1.033954E+0	1.046957E+0	1.066703E+0	1.068034E+0	1.090193E+0	1.007311E+0	1.089089E+0	1.050891E+0	1.070153E+0	1.074648E+0	1.067824E+0	1.046174E+0	1.061326E+0	1.015831E+0	1.067783E+0	1.130336E+0	1.092112E+0	1.079280E+0	1.001871E+0	1.056501E+0	1.110469E+0	1.035770E+0	1.062203E+0	1.097729E+0	1.038947E+0	1.095754E+0	1.072232E+0	1.063730E+0	1.100485E+0	1.131806E+0	1.083735E+0	1.070338E+0	1.077327E+0	1.038036E+0	1.052144E+0	1.068184E+0	1.102757E+0	1.106565E+0	1.141389E+0	1.042522E+0	1.066864E+0	1.099393E+0	1.079827E+0	1.074405E+0	1.082815E+0	1.070763E+0	1.074351E+0	1.050959E+0	1.069026E+0	1.103673E+0	1.068110E+0	1.092790E+0	1.066765E+0	1.140250E+0	1.084915E+0	1.068369E+0	1.108193E+0	1.077553E+0	1.108682E+0	1.069125E+0	1.112802E+0	1.113304E+0	1.061115E+0	1.087674E+0	1.095894E+0	1.092701E+0	1.054017E+0	1.064193E+0	1.126881E+0	1.062920E+0	1.104071E+0	1.105831E+0	1.096369E+0	1.088810E+0	1.090640E+0	1.071956E+0	1.118728E+0	1.082100E+0	1.076522E+0	1.059750E+0	1.103432E+0	1.117363E+0	1.071335E+0	1.037733E+0	1.108415E+0	1.176562E+0
