Photon Energy (eV)	#1	#2	#3	#4	#5	#6	#7	#8	#9	#10	#11	#12	#13	#14	#15	#16	#17	#18	#19	#20	#21	#22	#23	#24	#25	#26	#27	#28	#29	#30	#31	#32	#33	#34	#35	#36	#37	#38	#39	#40	#41	#42	#43	#44	#45	#46	#47	#48	#49	#50	#51	#52	#53	#54	#55	#56	#57	#58	#59	#60	#61	#62	#63	#64	#65	#66	#67	#68	#69	#70	#71	#72	#73	#74	#75	#76	#77	#78	#79	#80	#81	#82	#83	#84	#85	#86	#87	#88	#89	#90	#91	#92	#93	#94	#95	#96	#97	#98	#99	#100	#101	#102	#103	#104	#105	#106	#107	#108	#109	#110	#111	#112	#113	#114	#115	#116	#117	#118	#119	#120	#121	#122	#123	#124	#125	#126	#127	#128	#129	#130	#131	#132	#133	#134	#135	#136	#137	#138	#139	#140	#141	#142	#143	#144	#145	#146	#147	#148	#149	#150	#151	#152	#153	#154	#155	#156	#157	#158	#159	#160	#161	#162	#163	#164	#165	#166	
5.300520E+2	-3.998042E-3	-8.567162E-3	-2.116185E-3	-6.357521E-3	-1.210122E-2	-5.208024E-3	2.342842E-3	-2.453673E-3	-8.660833E-3	-5.115781E-3	-2.313265E-3	-1.131173E-2	-7.362104E-3	-9.430294E-3	-1.099175E-2	-8.806724E-3	-3.783431E-3	-6.060428E-3	-5.305221E-3	-5.441803E-3	-7.455869E-3	4.411836E-4	-2.369695E-3	-1.488161E-2	-1.447125E-2	-6.718742E-3	-8.934793E-3	-1.879408E-2	-6.155437E-3	-3.843655E-3	-8.707845E-3	-2.169630E-3	2.509952E-3	-1.080568E-2	-7.927026E-3	-7.531226E-3	-2.426661E-3	-1.893551E-3	-1.031229E-2	-4.826040E-3	-1.004830E-2	-1.218278E-2	-9.744618E-3	-1.223903E-2	-6.902823E-3	-7.736589E-3	-6.348618E-3	-9.934190E-3	-5.755054E-3	-6.533099E-4	-2.411802E-3	-4.951601E-3	-1.095487E-2	-5.073383E-3	-1.463554E-2	-1.133916E-2	2.635492E-3	1.601485E-4	-3.037294E-3	-1.378325E-2	-3.084765E-3	-1.034210E-2	-4.751938E-3	8.951182E-4	3.568108E-3	-4.891852E-4	-1.503916E-2	-1.636781E-3	6.787918E-4	3.538978E-4	1.945693E-3	-6.719987E-3	-7.816208E-3	-1.112663E-2	-2.283869E-3	-1.052514E-3	-7.510886E-3	8.204469E-4	-5.503263E-3	1.778464E-3	-7.628685E-4	-7.516873E-3	-4.305659E-3	-9.071784E-3	-2.234718E-3	-1.016467E-3	-7.459616E-3	-6.085869E-3	-1.858544E-3	-1.325537E-2	-2.772042E-3	-2.302599E-4	-2.230777E-3	-9.666402E-3	-1.228472E-2	-9.063703E-3	-7.142894E-3	-1.323174E-2	-1.259654E-2	-3.963916E-3	7.499271E-4	-8.171668E-3	3.490124E-3	-3.044062E-3	-7.410366E-3	-1.194754E-2	-5.483829E-3	-3.560144E-3	-9.427257E-3	-7.331674E-3	-1.018902E-2	-1.410365E-3	-4.832821E-4	-1.312348E-2	-5.108818E-3	-1.226258E-2	-3.552986E-3	-1.732968E-3	-8.704888E-3	-9.065901E-3	-1.778497E-2	-1.755008E-2	1.263758E-3	-1.390411E-2	-8.763811E-3	-4.193694E-3	4.509617E-3	1.987634E-3	-9.033554E-4	-9.159866E-3	-1.147139E-2	-4.137536E-3	-1.102387E-2	-5.080341E-3	-9.549792E-3	8.205980E-4	-8.305408E-4	-4.409996E-3	-8.571860E-3	-5.085983E-3	-9.577064E-3	7.577729E-4	-6.158512E-3	-1.095974E-2	-7.965158E-3	-3.459462E-3	-1.592663E-3	-7.345755E-3	-1.422731E-2	1.412183E-3	-3.665746E-4	-1.117703E-2	2.100994E-3	-1.080323E-2	-8.161811E-3	-6.560869E-3	-1.483843E-2	6.594229E-4	-5.637799E-3	-8.361968E-3	-8.585022E-4	-3.380831E-3	5.497071E-4	-1.066575E-2	-1.449017E-2	-2.006552E-2
5.305180E+2	-1.429786E-2	-4.431949E-3	-6.864637E-3	-2.586753E-3	1.580439E-3	-3.006442E-3	-1.164635E-2	-6.896516E-3	-6.638219E-3	-7.674785E-3	-9.831597E-3	8.855589E-4	-8.930070E-3	-6.768344E-3	-8.839265E-3	-9.961755E-3	-3.092720E-3	-8.866361E-3	-9.876420E-3	-5.855045E-3	-3.927738E-3	1.085261E-3	-6.338919E-3	-2.529812E-3	-6.028495E-3	-5.421598E-3	-6.711860E-3	-2.754112E-3	-6.692799E-3	-8.652476E-3	-2.898891E-3	-7.745042E-3	-1.269448E-2	-8.296787E-3	-1.908891E-3	-4.613542E-3	-4.724039E-3	-1.127826E-2	-1.453021E-3	-9.930485E-3	-1.684253E-2	-6.650928E-3	1.546334E-3	6.039311E-4	-9.040199E-3	-1.206888E-2	-7.191745E-4	-1.405818E-2	-8.197476E-3	-9.656783E-3	-5.692136E-3	-5.642338E-5	-6.560397E-3	-3.805244E-4	3.626559E-3	-9.523120E-3	-1.397188E-2	-1.054430E-2	-5.917441E-3	-9.034674E-3	-3.547462E-3	-5.905030E-3	-7.275794E-3	-9.589972E-3	-8.616614E-3	-1.511895E-2	-3.835504E-3	-1.428037E-2	-4.791891E-4	-1.034233E-2	-1.055427E-2	2.523008E-4	-5.062220E-3	-4.396539E-3	-1.261488E-2	-6.719329E-3	-3.273182E-3	-6.971702E-3	-6.550188E-3	-1.838701E-3	4.518529E-3	-3.017400E-3	-6.390386E-4	-4.071523E-3	-5.786543E-3	-4.650293E-3	-6.797953E-3	-9.072835E-3	-6.244062E-3	-9.492798E-4	-1.188369E-2	-1.294460E-2	-1.655812E-2	-6.967582E-3	-1.164782E-2	5.310969E-5	-9.644196E-3	-1.895187E-3	1.309907E-3	-1.230114E-2	-6.788481E-3	2.928798E-3	-9.172176E-3	-9.890005E-3	-9.872316E-3	4.168214E-4	-4.740136E-3	-4.769249E-3	6.027927E-3	-1.111196E-2	-1.168749E-2	-5.623668E-3	-2.395571E-3	-1.358862E-3	-1.023491E-2	-3.036770E-3	-7.374849E-3	1.143794E-4	2.418587E-3	-1.370364E-2	-3.354946E-3	-8.909084E-3	-8.476832E-3	-8.055355E-3	-1.196051E-2	-5.797375E-3	-3.412981E-3	-7.592355E-3	-8.044924E-3	-1.249678E-3	-3.835233E-3	6.802016E-4	5.558659E-4	-1.495872E-2	8.333866E-3	-1.556330E-2	2.471552E-3	-5.669769E-3	-6.559630E-3	-7.644036E-3	-1.845848E-3	-1.341958E-2	-1.397694E-2	-8.400794E-3	-9.313405E-3	-1.641345E-2	-1.156103E-2	6.068485E-3	-5.062905E-3	3.977487E-3	-7.901991E-3	-2.426313E-3	-3.700186E-3	-6.467902E-3	-9.491890E-3	-5.098329E-3	-6.455705E-3	-1.465907E-2	-2.685211E-3	-5.041249E-3	5.010362E-3	-1.289302E-2	-9.698516E-3	4.307927E-3	-1.888853E-2	-1.488413E-2
5.310250E+2	7.277452E-4	4.445105E-3	1.490723E-3	-3.240405E-3	-1.069363E-3	-6.479534E-3	-1.734892E-2	-1.928695E-4	-1.102794E-2	1.020517E-3	-8.672391E-3	-5.081588E-3	1.140487E-3	4.677760E-3	-2.566150E-3	-5.347937E-3	-6.557121E-3	-6.875045E-4	-6.870841E-3	-5.745196E-3	-3.846366E-3	-4.774334E-3	-7.419804E-3	-7.926084E-3	-8.043089E-3	-1.697548E-3	-3.074214E-3	3.451014E-3	-1.689993E-3	-2.554895E-3	-3.392947E-3	-1.810815E-3	6.066459E-4	-5.171203E-3	-6.577000E-3	-8.529219E-3	-3.443583E-3	-1.724591E-3	3.874021E-4	-8.059022E-3	-3.007272E-3	-1.873759E-3	-1.394831E-2	7.986436E-4	4.421723E-3	-7.571246E-3	-1.279469E-2	6.465181E-3	-4.866493E-4	1.964694E-3	-4.478937E-3	-4.786740E-3	-4.622681E-3	2.920097E-4	-1.213390E-2	-4.230277E-3	-1.675086E-3	3.412655E-4	-1.659931E-3	-8.293990E-3	-7.999408E-3	-8.558365E-3	-1.927858E-3	4.846869E-3	-7.891923E-3	-6.079255E-3	1.543520E-3	-3.597760E-3	-1.425815E-2	-7.256138E-3	-5.872311E-3	-1.376442E-3	-1.637270E-3	5.403712E-4	-9.270731E-3	-8.615500E-4	-7.334291E-3	-6.325010E-3	-1.621847E-2	-5.473635E-3	-5.767592E-3	-3.547464E-3	-8.310442E-3	-6.808168E-3	-8.742869E-3	-3.316028E-3	3.667243E-3	2.138704E-3	-7.440138E-3	-4.725822E-3	-1.119506E-2	-4.765089E-3	-1.450846E-3	-1.630280E-2	-1.241697E-3	5.322383E-3	-8.917407E-3	3.539787E-3	-7.409517E-3	-3.775287E-3	-1.612443E-2	7.136552E-4	1.280506E-3	5.258835E-3	-4.047694E-3	-1.243651E-2	-1.654904E-2	1.836198E-3	-8.678661E-3	1.745367E-3	1.681048E-3	-1.047733E-2	-1.634357E-3	-1.259833E-3	-5.508216E-3	-7.535487E-3	-2.723688E-3	-1.031653E-2	5.435049E-3	3.926840E-3	-9.897603E-4	-5.141450E-3	-5.311944E-3	2.162667E-3	7.862917E-3	-1.737590E-3	-1.136729E-2	-7.500328E-3	-8.608200E-3	-1.029569E-2	-1.319221E-2	-4.646714E-3	-2.375048E-3	8.226360E-4	-7.473129E-3	-1.246659E-3	-1.092707E-2	4.739774E-4	8.334348E-5	-1.601535E-2	-1.109711E-2	-1.389110E-2	-8.723503E-4	-1.917152E-4	-1.199715E-2	1.081378E-3	-2.615129E-3	-4.224848E-3	-1.200256E-2	-1.045539E-2	-7.820554E-3	-2.330660E-3	-7.556862E-3	9.242933E-3	1.921639E-3	3.248331E-3	-1.328286E-2	-7.447291E-3	-7.164746E-3	-8.186225E-3	-1.673475E-2	1.359101E-3	-7.130502E-3	-8.157528E-3	-9.910399E-3	-1.985514E-3
5.315130E+2	-4.402351E-3	5.211607E-3	1.565516E-3	-2.434753E-3	-9.193265E-3	-2.154824E-3	5.213136E-3	-1.335549E-3	-1.917792E-3	-2.866260E-3	1.769987E-3	-8.039172E-3	-9.895122E-4	2.190824E-3	6.823498E-3	-5.268319E-3	6.325663E-4	1.130506E-3	7.244570E-3	-3.198427E-4	-8.391682E-3	-6.294188E-3	-2.106056E-3	-7.843153E-3	1.832356E-3	-1.193047E-2	1.286560E-3	-6.899467E-5	-1.609942E-3	-5.746840E-3	1.282456E-3	-4.222840E-3	-2.106884E-3	1.019798E-2	3.623968E-3	3.024787E-3	5.042062E-3	1.429213E-4	4.748424E-4	-1.587841E-3	-9.193560E-3	1.633781E-3	-5.127287E-3	-1.637048E-2	4.526639E-3	-5.275200E-3	-6.058581E-3	-3.645011E-3	7.892593E-3	-1.255390E-2	-9.481246E-3	8.918529E-4	2.878523E-3	-1.288336E-2	2.653334E-3	-6.091498E-4	-7.403246E-3	-2.128610E-3	-1.053212E-2	-5.518605E-3	-1.652246E-3	-6.846781E-3	1.856653E-3	-3.797679E-3	-3.275490E-3	-9.215920E-3	-4.232166E-3	-2.105602E-3	-2.821172E-3	-1.149716E-3	-3.481625E-3	-5.318079E-3	-4.913970E-3	6.580755E-4	-2.647035E-3	-5.270055E-3	2.855722E-3	-5.897053E-4	3.990022E-3	-2.884052E-3	-6.337589E-3	-9.275468E-4	-5.841284E-3	3.212585E-4	-7.279158E-4	-4.480542E-3	-4.893163E-3	-6.420915E-3	3.395165E-4	3.109213E-3	-3.732135E-3	-1.973739E-3	7.337834E-3	1.080197E-3	1.591062E-3	2.438144E-4	1.127347E-2	6.570819E-4	2.132667E-3	-8.657849E-4	1.067984E-3	1.395945E-3	-6.555667E-3	9.426474E-3	-1.034996E-2	-6.792227E-4	-1.921381E-3	-5.248326E-3	-4.594644E-3	-7.032106E-3	7.211028E-4	-4.683543E-4	-5.574410E-3	6.854632E-3	3.296313E-3	-1.339797E-3	-5.255673E-3	-4.375221E-3	-9.580993E-3	-3.351030E-5	-8.478518E-3	-3.214651E-3	-1.016915E-2	4.426511E-3	-1.113472E-2	-7.324743E-3	-6.687858E-3	-2.239387E-3	-3.891648E-3	-2.365451E-3	7.771755E-4	-5.005248E-4	-7.732640E-3	-2.138130E-3	-6.156064E-3	-5.835606E-3	4.753958E-3	-7.924123E-4	-1.141393E-3	3.606846E-3	-6.897132E-3	1.621414E-3	-7.580191E-3	-2.511336E-3	4.054190E-3	-7.559235E-3	1.142550E-2	-1.600965E-2	-9.155095E-3	4.810955E-3	-3.917819E-3	-9.981927E-4	-9.262175E-4	-8.454706E-3	-2.249316E-3	-9.786989E-3	2.733968E-3	-1.385501E-3	-4.716025E-3	-9.614799E-4	-4.899735E-3	8.082070E-4	-1.179859E-2	-1.608823E-2	-9.109100E-4	-1.822790E-3
5.320120E+2	6.133160E-3	-4.194545E-3	-1.812131E-3	6.491613E-3	7.974463E-3	4.335706E-3	5.322265E-3	-3.268040E-3	-2.478000E-3	-7.391006E-3	5.704512E-3	3.020756E-3	7.928147E-4	-4.956687E-3	1.058330E-2	7.813630E-3	-4.532956E-4	-4.565363E-3	3.645081E-4	-2.325422E-4	5.011137E-3	4.193430E-3	-2.571658E-4	8.850359E-3	-1.138986E-2	-2.056353E-3	-3.597569E-3	-1.228896E-2	-5.181543E-3	-2.347736E-3	-3.797736E-3	1.596543E-3	5.667745E-3	1.338255E-2	2.598991E-3	1.039374E-3	-6.866917E-3	-5.714322E-3	-1.774611E-3	6.078124E-3	3.209909E-4	3.081504E-3	2.529084E-3	1.668141E-3	-9.533867E-4	-1.765054E-4	1.274631E-3	9.766858E-3	3.726703E-4	-3.323880E-3	-7.127638E-3	-1.056011E-3	3.617817E-3	-8.178178E-3	1.590406E-3	1.057566E-2	-4.733170E-3	-1.352355E-3	5.767723E-3	6.744657E-3	7.594017E-3	2.014628E-3	-1.401615E-4	-5.026572E-4	-7.725608E-3	-7.681292E-4	5.880984E-3	5.904263E-3	-2.724371E-3	-2.854894E-3	-4.531534E-3	-3.445372E-3	2.557690E-3	-1.017106E-3	3.345524E-3	6.460654E-4	-7.754188E-3	-4.911471E-4	-3.961308E-3	4.114415E-3	2.230700E-3	1.077045E-3	-2.154849E-3	-5.925948E-3	-5.517525E-3	-4.389928E-3	1.566508E-3	4.854602E-3	-1.242177E-2	-5.205366E-3	-2.406752E-3	4.908468E-3	-4.154947E-3	2.764486E-3	-3.196122E-3	-5.489079E-3	-8.763032E-3	4.332343E-3	-5.981995E-3	3.474527E-3	-1.777922E-3	-1.306989E-2	-2.790561E-3	-5.575956E-3	2.533763E-3	3.324520E-3	4.139997E-3	1.380497E-3	-3.924425E-3	4.248549E-3	-6.636531E-3	-9.855523E-4	5.557539E-4	-4.540384E-4	2.816468E-3	1.041728E-3	7.210259E-4	-2.522132E-3	-7.392225E-4	4.128762E-3	8.318147E-3	2.426945E-3	-2.671436E-3	8.948701E-4	6.113596E-3	7.243903E-4	-1.408893E-3	6.289998E-3	1.144029E-2	6.903369E-3	6.571406E-3	-5.853821E-3	2.461936E-4	-8.324969E-3	7.127451E-4	-2.170886E-3	-2.931566E-3	-2.485925E-5	2.206107E-3	-2.389413E-4	4.369196E-3	1.724221E-3	-5.789254E-3	2.001394E-3	4.107923E-3	4.920642E-3	-1.814919E-3	-9.314740E-3	1.406518E-3	-8.475532E-3	3.135444E-3	-2.181973E-3	7.647757E-3	-4.146289E-3	-2.920846E-3	3.415051E-3	7.693346E-3	-1.279838E-3	6.218492E-4	1.284785E-2	1.023829E-3	-4.892781E-3	9.772964E-3	2.087576E-2	1.558911E-2	8.519778E-3
5.325070E+2	5.580625E-3	-3.429080E-3	3.128906E-3	2.171106E-3	5.336716E-4	-2.705250E-3	8.650474E-3	1.423587E-3	7.909136E-3	3.984124E-3	1.018576E-2	2.516049E-3	8.151484E-3	-7.135869E-4	-3.273506E-3	1.374796E-2	-9.539251E-4	8.289418E-3	6.277436E-3	1.329256E-2	-6.990488E-4	9.952996E-4	1.444100E-2	1.205195E-2	1.117264E-2	1.263001E-2	-2.083345E-3	2.109611E-2	2.906333E-3	-4.711673E-5	1.480492E-3	5.525423E-3	1.610445E-4	-6.233183E-4	-9.378539E-4	-1.780521E-3	5.859424E-3	5.703028E-3	-2.271205E-3	7.357162E-3	1.175644E-2	2.513805E-3	6.972558E-5	1.335107E-2	2.515752E-3	1.774200E-2	8.635275E-3	-1.016664E-3	1.113335E-3	4.714346E-3	3.742517E-3	6.666910E-3	7.452417E-3	1.565920E-2	7.025180E-3	-2.134907E-3	5.063418E-3	-1.298023E-3	1.123796E-2	1.285843E-2	6.003646E-3	1.585763E-2	1.028627E-3	-4.786944E-3	8.000855E-3	1.545110E-2	1.282744E-3	3.107433E-4	7.522708E-3	6.323212E-3	5.396474E-3	1.303908E-4	8.043809E-3	1.538207E-3	8.057580E-3	1.398602E-3	1.383362E-2	-2.660002E-3	1.231870E-2	-2.616164E-3	-3.532207E-3	-1.969878E-3	3.425463E-4	5.611738E-3	5.610760E-3	-3.670868E-3	-6.500190E-4	4.426588E-3	9.556815E-3	4.611911E-3	1.314406E-2	-1.058249E-2	1.184137E-3	1.342066E-2	1.331651E-2	-3.422903E-3	1.751325E-3	8.541834E-4	7.408304E-3	-6.169143E-4	1.077720E-2	2.779686E-3	6.506271E-3	-5.464580E-3	1.290480E-2	9.295326E-3	1.953590E-2	-1.776153E-3	1.166768E-2	1.026161E-3	1.110976E-2	-2.463090E-4	-2.704994E-3	1.511141E-3	4.679484E-3	1.189323E-2	-1.801095E-3	5.229648E-3	4.058676E-3	-1.272372E-2	7.658638E-3	8.715232E-3	7.346509E-3	9.728866E-3	1.086579E-2	1.109857E-2	-3.039815E-3	-3.343010E-3	6.268236E-3	-1.990476E-4	3.528973E-3	7.173758E-3	4.009153E-3	3.735239E-3	8.244761E-4	1.401556E-2	-2.185902E-3	-3.296934E-3	-3.065888E-4	9.022357E-3	1.510924E-2	5.159869E-3	1.483133E-2	7.148204E-3	4.917518E-3	8.141216E-3	3.336787E-3	7.133204E-3	5.710914E-3	3.031045E-3	-2.522190E-3	6.677913E-3	-4.109185E-3	1.668595E-3	3.341638E-5	-2.022735E-3	1.126785E-2	5.997446E-3	3.629603E-3	-9.580747E-5	7.025410E-3	2.323510E-3	7.497267E-3	8.285152E-3	1.571900E-2	8.643681E-3
5.330280E+2	1.025672E-2	1.096602E-2	4.607808E-3	5.956712E-3	1.227527E-2	1.521837E-2	7.466551E-3	1.272306E-2	2.281365E-2	1.804319E-2	3.156999E-3	1.801013E-2	7.196900E-3	1.500033E-2	8.263874E-3	7.823144E-3	1.420793E-2	1.075973E-2	8.165968E-3	4.301867E-3	1.930957E-2	4.353348E-3	4.050635E-3	1.227835E-2	2.692770E-2	1.519470E-2	2.311522E-2	9.359024E-3	1.842338E-2	2.319272E-2	1.603447E-2	8.826361E-3	5.855979E-3	1.316451E-3	1.112781E-2	1.839035E-2	6.559714E-3	1.476477E-2	1.494888E-2	1.096810E-2	2.701423E-2	1.347838E-2	2.467508E-2	1.218773E-2	5.432294E-3	1.508642E-2	1.601116E-2	1.242200E-2	5.060581E-3	1.950883E-2	2.544924E-2	3.292012E-3	8.189187E-3	1.056423E-2	1.187396E-2	1.726096E-2	2.008447E-2	1.482187E-2	4.141102E-3	1.702743E-2	2.686218E-3	1.378002E-2	1.121047E-2	1.293527E-2	1.594067E-2	1.622034E-2	1.439959E-2	1.540551E-2	1.208138E-2	1.492597E-2	1.709757E-2	1.647719E-2	8.828169E-3	1.380362E-2	1.541341E-2	1.185878E-2	9.183208E-3	1.621712E-2	1.592450E-2	6.919673E-3	9.651028E-3	1.590212E-2	2.090873E-2	1.994443E-2	1.739881E-2	2.152413E-2	1.456700E-2	1.015973E-2	1.806819E-2	1.641471E-2	1.884562E-2	2.558772E-2	1.587272E-2	1.567144E-2	1.346278E-2	1.235638E-2	2.144273E-2	5.743529E-3	1.513718E-2	1.804852E-2	1.209572E-2	1.342347E-2	7.241502E-3	9.289293E-3	1.624178E-2	1.202661E-2	5.018483E-3	1.213718E-2	8.929377E-3	1.845567E-2	1.500113E-2	1.921158E-2	1.223686E-2	7.830441E-3	1.005968E-2	1.123968E-2	1.998726E-2	1.360283E-2	7.112792E-3	2.747117E-2	1.463141E-2	2.367308E-2	1.801909E-2	4.746546E-3	7.016744E-3	7.230444E-3	2.140722E-2	1.239745E-2	3.739602E-3	1.636636E-2	1.762128E-2	7.284636E-3	1.632035E-2	2.594429E-2	1.330790E-2	9.980293E-3	9.649574E-3	1.371999E-2	1.429002E-2	1.635511E-2	9.938716E-3	1.804740E-2	1.954592E-2	1.291399E-2	1.619608E-2	1.328891E-2	2.821454E-3	2.369330E-2	3.333044E-2	5.699248E-3	1.939368E-2	1.243625E-2	6.543700E-3	1.896060E-2	2.086881E-2	1.680554E-2	1.288183E-2	1.811483E-2	1.595233E-2	9.798877E-3	9.433383E-3	1.667582E-2	1.080767E-2	1.442675E-3	1.289190E-2	2.159449E-2
5.331680E+2	9.053898E-3	3.155097E-2	1.584253E-2	3.342833E-2	2.544029E-2	2.175813E-2	5.640490E-3	2.016838E-2	2.293466E-2	1.150953E-2	2.799918E-2	7.954858E-3	2.085629E-2	1.148885E-2	5.285763E-3	1.560929E-2	1.696756E-2	1.792204E-2	1.836729E-2	1.742659E-2	2.899040E-2	2.803604E-2	2.180668E-2	1.628435E-2	1.594416E-2	4.312893E-3	1.682106E-2	1.648868E-2	2.296572E-2	5.134223E-3	2.081386E-2	1.844737E-2	2.376654E-2	2.242823E-2	2.571510E-2	-2.930897E-3	1.900756E-2	2.987131E-2	1.807585E-2	1.104468E-2	8.313637E-3	1.554718E-2	1.349786E-2	1.800739E-2	2.133302E-2	2.025462E-2	3.865216E-3	1.558573E-2	1.223700E-2	2.332687E-2	1.705598E-2	1.868801E-2	-4.042010E-4	1.824326E-2	1.615092E-2	2.324627E-2	2.802304E-2	3.165174E-2	2.291996E-2	1.038527E-2	1.257769E-2	6.733281E-3	5.501775E-3	1.685649E-2	2.196394E-2	2.670029E-2	1.393538E-2	1.766712E-2	2.175834E-2	8.383551E-3	2.130724E-2	1.429243E-2	1.976650E-2	1.264481E-2	1.884679E-2	2.689819E-2	1.650907E-2	1.692357E-2	1.026655E-2	1.145451E-2	1.633335E-2	2.303621E-2	1.682897E-2	1.865683E-2	2.616602E-2	2.608095E-2	1.121352E-2	2.279621E-2	2.015710E-2	2.762171E-2	2.084835E-2	1.482487E-2	2.595644E-2	2.216157E-2	2.514158E-2	1.183825E-2	2.094038E-2	2.385503E-2	1.401209E-2	1.322087E-2	2.057928E-2	1.884825E-2	7.994406E-3	1.059212E-2	2.024841E-2	2.262572E-2	1.380240E-2	8.318031E-3	1.310908E-2	2.418276E-2	1.461474E-2	3.500172E-2	2.386492E-2	1.916122E-2	2.602953E-2	2.601639E-2	2.935427E-2	2.024533E-2	7.252478E-3	9.239537E-3	1.859372E-2	2.691887E-2	1.442882E-2	3.041151E-2	5.145079E-3	1.594642E-2	2.272717E-2	1.449782E-2	4.539427E-3	1.453684E-2	2.350527E-2	2.107329E-2	1.402533E-2	2.421253E-2	2.212722E-2	3.523042E-2	1.369910E-2	1.927998E-2	1.245713E-2	8.625019E-3	1.482559E-2	2.432359E-2	1.227023E-2	1.621870E-2	1.144331E-2	1.344995E-2	1.954026E-2	1.339550E-2	2.007818E-2	2.238997E-2	2.346713E-2	1.759869E-2	1.862349E-2	6.932583E-3	3.891928E-2	1.901465E-2	1.664254E-2	1.284454E-2	2.540602E-2	1.843602E-2	2.073970E-2	3.367680E-2	2.123972E-3	8.494305E-3	4.008580E-2	1.139469E-2
5.333080E+2	1.639468E-2	3.101272E-2	3.340899E-2	1.208774E-2	3.039967E-2	7.556661E-3	2.392006E-2	2.162489E-2	2.366069E-2	1.163701E-2	2.154923E-2	5.755737E-3	2.719854E-2	2.677845E-2	2.159522E-2	1.036492E-2	2.671075E-2	2.620858E-2	2.796147E-2	1.979462E-2	3.207711E-2	2.711389E-2	3.254469E-2	1.192894E-2	1.537131E-2	1.608120E-2	2.701737E-2	4.769496E-3	1.693776E-2	2.131802E-2	2.852177E-2	2.482852E-2	2.126817E-2	1.705147E-2	2.291922E-2	1.887354E-2	2.910844E-2	2.284782E-2	3.903369E-2	2.259302E-2	1.868546E-2	1.831909E-2	2.563544E-2	1.855929E-2	2.052459E-2	2.827521E-2	2.758331E-2	2.423669E-2	1.930383E-2	2.908353E-2	1.156053E-2	2.622431E-2	9.422969E-3	3.124619E-2	2.291068E-2	2.831835E-2	2.448277E-2	2.474879E-2	1.827892E-2	2.731303E-2	3.114484E-2	2.178789E-2	1.735834E-2	1.575005E-2	2.342359E-2	3.335304E-2	2.299927E-2	2.998278E-2	2.192154E-2	1.581818E-2	6.935952E-3	3.248906E-2	2.805170E-2	2.013633E-2	3.024289E-2	3.161032E-2	3.650937E-2	2.736948E-2	2.611026E-2	2.296259E-2	2.174828E-2	1.620427E-2	2.664171E-2	1.880155E-2	1.463078E-2	1.742963E-2	2.127852E-2	2.673078E-2	3.070590E-2	3.431933E-2	2.971860E-2	1.838852E-2	1.735990E-2	2.445624E-2	3.028204E-2	1.329068E-2	2.241440E-2	1.379723E-2	2.627321E-2	1.694491E-2	1.419629E-2	1.960997E-2	2.479623E-2	4.129365E-2	1.977517E-2	1.298056E-2	3.065465E-2	2.031811E-2	2.661491E-2	2.206363E-2	2.122529E-2	1.139654E-2	2.335596E-2	2.181800E-2	1.680439E-2	4.318106E-2	2.756368E-2	1.922699E-2	1.505416E-2	1.620922E-2	3.255559E-2	1.840199E-2	2.268489E-2	1.450207E-2	2.054674E-2	2.930991E-2	2.173853E-2	1.269429E-2	1.470648E-2	1.007107E-2	2.178226E-2	2.945943E-2	3.133687E-2	1.677064E-2	1.360315E-2	2.105555E-2	2.431981E-2	1.332471E-2	1.856246E-2	3.115105E-2	2.746502E-2	2.395138E-2	3.079878E-2	2.330051E-2	3.683312E-2	6.751694E-3	1.911858E-2	3.154690E-2	1.960147E-2	3.153516E-2	1.981127E-2	3.034736E-2	3.080929E-2	1.495346E-2	3.049245E-2	3.239698E-2	2.100277E-2	3.890397E-2	1.098601E-2	1.925794E-2	2.538926E-2	1.891572E-2	1.913298E-2	2.496735E-2	2.375915E-2	2.188817E-2
5.334580E+2	2.703362E-2	3.114835E-2	3.773425E-2	1.887148E-2	2.983373E-2	2.271407E-2	3.314745E-2	2.111490E-2	2.258065E-2	3.250408E-2	3.769323E-2	2.337066E-2	3.411648E-2	2.536056E-2	2.802444E-2	1.753563E-2	2.506939E-2	1.934162E-2	3.343704E-2	2.938903E-2	2.341023E-2	1.571012E-2	2.798219E-2	3.126493E-2	1.833041E-2	1.743377E-2	2.212059E-2	2.751200E-2	3.199767E-2	2.700742E-2	3.972545E-2	3.405881E-2	2.989375E-2	2.521601E-2	3.149875E-2	1.901151E-2	3.108823E-2	3.621260E-2	3.087013E-2	2.769384E-2	2.771991E-2	1.845799E-2	4.095259E-2	1.121433E-2	3.264176E-2	3.349624E-2	1.989320E-2	2.771660E-2	1.832085E-2	4.713651E-2	3.863610E-2	2.293523E-2	2.604275E-2	3.492500E-2	2.904492E-2	2.916741E-2	2.076071E-2	1.134647E-2	3.052840E-2	2.609751E-2	3.606802E-2	2.138686E-2	1.432176E-2	2.842667E-2	2.405557E-2	3.423105E-2	2.680753E-2	3.560942E-2	1.991172E-2	2.697066E-2	3.918999E-2	1.724311E-2	3.789915E-2	2.948832E-2	4.036798E-2	4.179893E-2	3.913193E-2	2.981303E-2	3.095291E-2	1.757178E-2	3.518177E-2	1.700279E-2	4.135205E-2	1.719188E-2	2.846425E-2	2.893787E-2	3.898696E-2	2.912713E-2	2.508160E-2	2.337467E-2	2.303431E-2	1.575565E-2	4.041151E-2	3.046808E-2	1.833703E-2	1.407289E-2	3.110421E-2	4.102940E-2	4.301867E-2	1.922155E-2	2.031853E-2	3.507648E-2	1.629484E-2	3.323811E-2	3.350663E-2	2.690646E-2	3.349324E-2	2.244355E-2	2.563791E-2	2.897089E-2	2.461958E-2	4.292065E-2	2.486056E-2	4.508604E-2	2.695174E-2	3.638233E-2	3.036742E-2	3.659412E-2	3.643011E-2	2.797632E-2	2.505281E-2	2.724383E-2	3.157559E-2	2.415940E-2	3.936395E-2	3.522911E-2	2.247088E-2	2.528438E-2	1.685902E-2	3.999665E-2	3.089091E-2	2.755069E-2	1.678333E-2	2.887019E-2	2.432664E-2	1.997745E-2	1.915450E-2	2.502358E-2	2.204620E-2	3.924453E-2	3.953671E-2	3.249580E-2	3.328017E-2	1.958062E-2	2.367884E-2	3.276064E-2	3.648708E-2	2.572224E-2	3.541598E-2	2.601166E-2	2.383778E-2	2.736030E-2	3.301060E-2	2.444600E-2	2.059865E-2	2.557559E-2	3.100428E-2	3.486193E-2	2.922248E-2	2.265709E-2	2.629552E-2	1.579806E-2	3.056434E-2	1.113817E-2	2.240208E-2	2.457888E-2
5.336080E+2	3.505333E-2	2.372768E-2	3.156369E-2	5.317113E-2	4.377085E-2	2.856997E-2	3.589220E-2	3.190469E-2	3.961051E-2	3.063761E-2	3.342387E-2	2.759728E-2	3.539797E-2	4.124943E-2	3.237417E-2	4.369257E-2	3.548130E-2	4.353420E-2	2.649251E-2	3.290127E-2	4.119456E-2	4.394035E-2	3.874460E-2	4.444306E-2	4.621434E-2	3.356404E-2	2.225346E-2	4.499854E-2	4.336382E-2	3.549497E-2	4.163968E-2	3.593107E-2	2.789464E-2	2.908280E-2	4.796473E-2	3.132203E-2	2.939607E-2	4.961859E-2	4.114967E-2	2.674202E-2	3.105167E-2	4.873837E-2	3.544840E-2	3.161203E-2	4.076143E-2	4.322104E-2	3.073596E-2	3.350564E-2	4.252173E-2	5.163643E-2	4.224435E-2	2.249126E-2	3.879821E-2	4.795763E-2	3.337973E-2	4.466237E-2	2.875797E-2	3.665554E-2	4.644402E-2	4.196911E-2	3.509887E-2	5.150923E-2	3.103791E-2	2.780541E-2	4.346665E-2	3.829149E-2	3.174569E-2	4.360816E-2	4.844951E-2	3.812315E-2	3.353330E-2	4.253068E-2	3.330748E-2	2.717456E-2	4.452311E-2	4.186123E-2	4.005537E-2	3.458289E-2	3.231075E-2	2.651040E-2	4.058033E-2	2.041289E-2	3.677490E-2	4.549640E-2	3.533414E-2	4.306496E-2	2.575623E-2	3.478988E-2	3.138664E-2	4.057344E-2	4.008881E-2	3.812423E-2	3.420594E-2	4.342657E-2	2.348147E-2	3.236113E-2	4.599857E-2	4.003530E-2	4.389261E-2	4.839461E-2	3.558471E-2	3.289683E-2	2.450625E-2	3.318175E-2	3.569225E-2	4.022403E-2	4.641853E-2	4.171702E-2	3.741782E-2	4.097509E-2	3.613768E-2	2.927350E-2	3.726240E-2	2.962416E-2	4.185404E-2	3.265137E-2	3.516025E-2	3.973973E-2	2.951508E-2	3.360672E-2	3.445013E-2	3.674421E-2	3.987733E-2	5.293389E-2	4.824560E-2	3.137130E-2	3.255383E-2	2.872244E-2	3.376989E-2	2.690426E-2	4.001141E-2	3.250470E-2	3.660160E-2	2.901669E-2	4.068909E-2	2.367248E-2	4.363060E-2	2.996286E-2	3.485940E-2	3.022231E-2	3.499095E-2	4.610660E-2	4.671586E-2	3.987529E-2	3.651330E-2	2.984108E-2	3.797053E-2	3.938778E-2	6.417673E-2	3.008128E-2	4.605302E-2	3.196464E-2	4.726482E-2	4.188213E-2	3.873267E-2	5.299705E-2	3.820397E-2	2.476848E-2	3.525958E-2	3.401729E-2	4.351986E-2	4.076510E-2	2.910112E-2	1.716887E-2	4.370017E-2	2.996099E-2
5.337580E+2	5.897721E-2	6.578359E-2	6.607131E-2	4.219101E-2	3.977807E-2	3.590720E-2	6.409505E-2	4.095827E-2	4.304437E-2	3.218845E-2	4.579130E-2	4.416080E-2	5.029473E-2	4.722995E-2	2.837523E-2	2.544539E-2	5.141860E-2	5.784874E-2	4.930332E-2	4.432382E-2	4.903989E-2	3.368600E-2	4.779267E-2	4.238059E-2	5.209643E-2	4.176778E-2	4.986315E-2	4.895991E-2	5.414020E-2	3.456230E-2	5.701332E-2	3.825139E-2	6.930124E-2	5.285562E-2	4.270743E-2	4.246393E-2	4.670850E-2	4.738986E-2	3.535552E-2	5.395538E-2	3.695803E-2	4.223124E-2	4.790571E-2	3.494966E-2	6.545526E-2	3.946387E-2	5.856536E-2	4.701259E-2	4.010156E-2	5.492025E-2	4.415780E-2	4.254444E-2	3.960684E-2	4.639314E-2	6.048597E-2	4.705648E-2	3.941267E-2	5.430172E-2	4.730793E-2	4.602888E-2	4.223222E-2	5.003374E-2	4.835704E-2	3.952624E-2	3.965065E-2	5.868745E-2	4.745812E-2	5.493304E-2	5.315099E-2	5.910979E-2	3.956395E-2	3.269709E-2	4.915294E-2	4.893310E-2	4.337362E-2	3.645678E-2	4.628469E-2	3.473890E-2	4.066730E-2	5.954486E-2	6.205837E-2	3.209422E-2	4.850261E-2	4.508581E-2	3.362356E-2	5.592080E-2	4.059365E-2	3.153563E-2	5.248774E-2	4.992335E-2	5.277498E-2	4.729081E-2	4.393669E-2	4.096023E-2	4.637068E-2	4.909413E-2	6.051514E-2	4.508685E-2	6.146649E-2	2.989295E-2	4.259778E-2	3.838826E-2	3.647733E-2	6.077778E-2	5.740179E-2	4.369532E-2	4.997227E-2	4.135765E-2	4.540685E-2	5.137257E-2	4.827888E-2	4.626628E-2	3.810130E-2	4.680380E-2	5.871469E-2	4.258684E-2	5.328166E-2	4.354392E-2	5.642888E-2	4.295562E-2	4.736167E-2	4.378607E-2	4.448771E-2	3.817528E-2	3.171218E-2	5.058977E-2	5.030165E-2	3.874107E-2	3.191942E-2	5.031689E-2	4.467811E-2	4.502584E-2	3.985470E-2	4.835396E-2	5.398085E-2	5.583669E-2	6.098620E-2	3.965784E-2	4.893659E-2	4.157537E-2	5.546474E-2	5.696180E-2	4.286855E-2	3.756984E-2	4.088769E-2	3.179081E-2	4.713047E-2	5.539452E-2	3.997473E-2	5.455960E-2	3.905519E-2	5.363209E-2	4.536704E-2	4.280128E-2	2.951975E-2	4.828751E-2	4.827711E-2	4.914412E-2	4.246018E-2	5.000187E-2	4.447125E-2	4.289224E-2	3.089132E-2	4.533170E-2	4.843084E-2	5.865487E-2
5.339140E+2	4.989326E-2	6.664919E-2	6.132903E-2	5.351571E-2	5.655126E-2	7.425155E-2	6.428512E-2	5.386121E-2	7.705687E-2	5.939868E-2	6.705957E-2	6.311035E-2	7.372639E-2	6.375358E-2	5.903874E-2	4.247553E-2	4.740292E-2	7.279197E-2	4.777834E-2	6.029290E-2	6.575496E-2	5.771797E-2	6.101197E-2	7.040597E-2	7.656124E-2	6.676103E-2	6.963370E-2	6.590827E-2	7.311523E-2	5.871753E-2	6.833551E-2	7.487398E-2	6.949701E-2	7.359563E-2	5.137620E-2	4.875978E-2	6.653276E-2	6.389934E-2	7.439865E-2	7.187002E-2	4.415835E-2	5.268163E-2	6.143512E-2	5.430381E-2	5.082988E-2	7.013854E-2	6.104774E-2	5.749120E-2	8.140592E-2	7.000066E-2	6.393157E-2	5.270267E-2	6.699283E-2	5.069227E-2	4.930704E-2	4.835547E-2	6.852824E-2	6.550919E-2	7.135236E-2	7.410640E-2	4.938787E-2	5.913739E-2	5.071017E-2	5.789867E-2	6.375331E-2	6.345607E-2	5.484195E-2	7.994838E-2	6.368709E-2	6.422717E-2	7.787867E-2	5.461912E-2	8.284491E-2	4.300463E-2	6.419168E-2	6.893889E-2	4.586385E-2	7.524321E-2	7.603295E-2	5.439338E-2	5.224642E-2	6.503116E-2	6.149482E-2	6.570804E-2	8.260566E-2	5.992928E-2	6.256471E-2	6.614001E-2	8.875488E-2	5.668076E-2	5.485434E-2	6.042674E-2	6.246538E-2	5.987512E-2	4.934755E-2	5.101599E-2	7.002498E-2	6.405655E-2	5.074195E-2	6.827616E-2	6.511637E-2	7.115898E-2	6.277514E-2	6.838873E-2	7.127743E-2	4.915770E-2	7.912416E-2	6.050601E-2	8.308160E-2	5.668680E-2	6.098697E-2	7.079201E-2	8.730553E-2	4.826389E-2	6.132229E-2	6.719814E-2	6.636364E-2	5.987075E-2	6.973910E-2	6.948824E-2	7.163844E-2	6.454130E-2	6.237382E-2	6.535852E-2	7.617478E-2	5.495677E-2	6.227924E-2	7.710158E-2	6.039601E-2	7.792534E-2	5.077501E-2	7.927856E-2	6.087447E-2	8.610595E-2	6.743768E-2	5.201767E-2	7.578218E-2	6.656469E-2	6.717702E-2	6.241364E-2	6.648318E-2	4.932856E-2	6.508420E-2	5.848401E-2	6.514743E-2	4.855456E-2	5.444942E-2	4.985559E-2	6.101890E-2	6.908083E-2	8.546971E-2	7.174617E-2	5.169740E-2	5.598964E-2	7.662941E-2	6.948105E-2	5.766367E-2	5.970722E-2	7.144415E-2	7.146708E-2	8.131826E-2	7.461737E-2	8.047118E-2	7.246121E-2	7.143770E-2	4.591529E-2
5.340640E+2	7.985457E-2	8.822174E-2	8.472246E-2	8.872776E-2	1.039279E-1	9.105528E-2	1.011280E-1	7.353209E-2	8.643736E-2	8.648968E-2	9.734036E-2	6.568294E-2	1.001140E-1	9.460935E-2	8.456843E-2	8.247777E-2	9.794258E-2	8.659285E-2	9.987021E-2	9.756920E-2	8.614040E-2	1.067975E-1	9.149436E-2	8.374789E-2	8.322934E-2	8.935008E-2	1.170178E-1	8.121042E-2	9.775439E-2	6.956366E-2	9.561550E-2	7.619795E-2	9.186136E-2	9.379013E-2	8.202466E-2	8.144315E-2	9.688941E-2	9.683284E-2	8.302847E-2	9.595187E-2	9.112202E-2	9.141527E-2	1.101948E-1	7.252557E-2	1.019519E-1	8.170162E-2	9.017581E-2	7.779904E-2	1.032458E-1	8.824070E-2	9.303247E-2	9.639533E-2	9.322820E-2	1.073984E-1	8.135104E-2	8.713542E-2	9.379468E-2	9.246071E-2	1.009308E-1	9.775980E-2	8.161488E-2	9.287579E-2	7.029905E-2	8.795816E-2	8.926825E-2	9.970162E-2	8.807388E-2	7.895732E-2	8.139427E-2	9.026184E-2	7.637218E-2	8.668851E-2	8.581300E-2	7.725523E-2	8.709486E-2	8.784839E-2	9.042524E-2	9.223400E-2	9.038543E-2	8.925613E-2	9.322909E-2	8.392738E-2	8.065267E-2	9.184327E-2	9.289401E-2	9.641923E-2	8.873879E-2	9.685771E-2	7.258157E-2	8.718137E-2	1.040760E-1	1.014822E-1	8.700362E-2	1.003144E-1	8.515911E-2	8.946642E-2	8.157387E-2	8.492279E-2	9.280479E-2	7.760011E-2	9.257004E-2	8.921526E-2	9.104247E-2	9.311147E-2	1.204482E-1	1.042545E-1	8.543718E-2	7.608889E-2	9.740750E-2	9.890926E-2	9.169394E-2	8.549231E-2	9.237994E-2	6.735969E-2	9.006494E-2	8.792407E-2	8.537825E-2	8.762793E-2	9.854104E-2	9.439402E-2	1.007704E-1	8.584319E-2	9.038034E-2	8.399612E-2	1.029594E-1	9.235682E-2	8.309501E-2	7.759329E-2	7.761150E-2	8.883816E-2	1.044958E-1	8.185843E-2	7.915465E-2	8.309997E-2	9.027896E-2	9.091120E-2	9.451475E-2	7.775361E-2	8.942237E-2	9.686504E-2	8.744811E-2	7.605638E-2	9.496993E-2	9.080738E-2	8.211741E-2	8.510260E-2	9.346368E-2	1.081115E-1	9.333022E-2	9.135361E-2	9.443501E-2	9.320733E-2	1.027608E-1	1.004634E-1	9.360498E-2	9.632860E-2	8.556416E-2	9.461580E-2	9.058119E-2	8.916715E-2	9.220644E-2	8.201760E-2	9.536789E-2	8.496270E-2	5.356495E-2	8.263458E-2
5.342090E+2	1.477095E-1	1.430251E-1	1.187825E-1	1.279239E-1	1.090545E-1	1.195081E-1	1.459565E-1	1.303103E-1	1.533301E-1	1.425033E-1	1.449944E-1	1.177316E-1	1.556229E-1	1.361589E-1	1.313095E-1	1.395588E-1	1.184334E-1	1.187681E-1	1.278477E-1	1.294652E-1	1.450499E-1	1.521979E-1	1.185398E-1	1.325096E-1	1.307778E-1	1.379454E-1	1.297366E-1	1.392804E-1	1.426433E-1	1.274676E-1	1.528295E-1	1.286213E-1	1.492751E-1	1.177934E-1	1.376245E-1	1.386911E-1	1.409086E-1	1.383869E-1	1.427432E-1	1.318057E-1	1.202768E-1	1.399173E-1	1.226734E-1	1.431949E-1	1.429530E-1	1.460466E-1	1.449614E-1	1.239558E-1	1.421977E-1	1.326845E-1	1.696715E-1	1.337908E-1	1.379762E-1	1.413248E-1	1.321878E-1	1.404337E-1	1.574666E-1	1.323488E-1	1.294357E-1	1.338334E-1	1.303043E-1	1.502611E-1	1.304326E-1	1.435912E-1	1.429070E-1	1.380245E-1	1.400843E-1	1.427272E-1	1.413477E-1	1.274754E-1	1.302200E-1	1.384867E-1	1.485082E-1	1.277967E-1	1.454911E-1	1.392744E-1	1.272436E-1	1.538420E-1	1.360061E-1	1.351174E-1	1.551305E-1	1.274085E-1	1.408978E-1	1.355784E-1	1.427964E-1	1.336785E-1	1.244781E-1	1.294100E-1	1.478621E-1	1.296709E-1	1.478077E-1	1.413958E-1	1.354005E-1	1.269534E-1	1.194585E-1	1.578313E-1	1.245395E-1	1.381276E-1	1.350406E-1	1.318245E-1	1.413319E-1	1.329209E-1	1.219017E-1	1.538800E-1	1.253331E-1	1.310508E-1	1.492351E-1	1.508365E-1	1.276384E-1	1.486753E-1	1.389032E-1	1.463254E-1	1.216693E-1	1.465274E-1	1.338261E-1	1.254353E-1	1.361006E-1	1.568831E-1	1.244915E-1	1.396897E-1	1.345146E-1	1.291019E-1	1.367693E-1	1.225655E-1	1.282571E-1	1.397535E-1	1.535152E-1	1.448050E-1	1.369788E-1	1.191925E-1	1.222555E-1	1.326805E-1	1.310725E-1	1.207523E-1	1.421406E-1	1.416625E-1	1.294703E-1	1.391575E-1	1.277891E-1	1.278502E-1	1.262844E-1	1.508489E-1	1.516500E-1	1.309640E-1	1.599042E-1	1.386508E-1	1.350428E-1	1.387267E-1	1.630084E-1	1.212444E-1	1.568265E-1	1.359118E-1	1.238863E-1	1.269319E-1	1.425241E-1	1.228245E-1	1.556870E-1	1.468186E-1	1.594737E-1	1.547111E-1	1.411849E-1	1.312493E-1	1.372823E-1	1.284618E-1	1.002247E-1	1.221468E-1
5.343550E+2	2.085079E-1	2.305438E-1	2.037647E-1	2.001302E-1	2.300521E-1	2.205086E-1	2.250663E-1	2.020985E-1	2.155286E-1	2.256747E-1	2.051061E-1	2.088977E-1	2.142493E-1	2.335380E-1	2.195048E-1	2.089141E-1	2.025965E-1	2.198261E-1	2.125043E-1	1.990595E-1	2.207442E-1	2.097143E-1	2.028611E-1	2.088540E-1	2.483301E-1	2.164853E-1	2.225502E-1	2.253688E-1	2.382655E-1	2.304772E-1	1.961462E-1	2.217791E-1	2.334161E-1	2.020263E-1	2.117471E-1	2.041295E-1	2.036068E-1	2.330176E-1	2.291444E-1	2.240019E-1	2.164378E-1	2.266552E-1	2.127627E-1	2.267757E-1	2.076626E-1	1.998433E-1	2.005326E-1	2.204707E-1	1.990067E-1	2.290502E-1	1.950373E-1	2.285742E-1	2.197934E-1	2.214742E-1	2.157933E-1	2.099919E-1	2.160622E-1	2.128404E-1	2.120303E-1	2.385681E-1	2.230294E-1	2.078740E-1	2.237730E-1	2.388152E-1	2.014047E-1	2.192501E-1	1.850661E-1	2.317033E-1	1.826742E-1	2.258969E-1	2.303215E-1	2.359699E-1	2.134831E-1	2.071730E-1	2.241878E-1	2.390154E-1	2.337661E-1	2.336630E-1	2.195390E-1	2.197458E-1	2.682310E-1	2.111116E-1	2.369504E-1	2.260536E-1	1.991983E-1	2.241215E-1	2.243401E-1	2.071338E-1	2.280427E-1	2.291682E-1	2.276803E-1	2.328560E-1	2.250576E-1	1.957093E-1	2.203564E-1	2.436516E-1	2.124389E-1	2.378704E-1	2.239912E-1	2.116593E-1	2.340208E-1	2.000444E-1	2.229656E-1	2.337740E-1	2.389680E-1	2.044326E-1	2.369711E-1	1.999722E-1	2.215405E-1	2.271592E-1	2.092622E-1	1.961566E-1	2.230728E-1	2.057473E-1	2.087826E-1	2.190450E-1	2.550852E-1	2.137936E-1	2.258126E-1	2.086679E-1	2.323099E-1	2.225426E-1	2.301990E-1	1.954756E-1	2.472530E-1	2.252402E-1	2.360568E-1	2.251411E-1	2.135849E-1	2.206770E-1	2.067462E-1	2.193398E-1	2.068890E-1	2.044366E-1	1.847296E-1	2.273691E-1	2.315339E-1	2.200596E-1	2.246308E-1	2.436964E-1	2.232408E-1	2.163437E-1	2.394618E-1	2.039786E-1	2.182939E-1	2.238405E-1	2.184476E-1	2.133902E-1	2.205941E-1	2.091481E-1	2.167478E-1	2.224570E-1	2.302350E-1	2.116441E-1	2.336842E-1	2.395467E-1	2.059173E-1	2.002939E-1	1.895166E-1	2.306404E-1	2.320546E-1	2.172136E-1	2.215617E-1	2.200727E-1	2.493210E-1	2.223299E-1
5.345050E+2	3.954520E-1	3.913270E-1	3.352232E-1	3.898914E-1	3.618881E-1	3.326038E-1	4.038501E-1	3.579825E-1	3.837454E-1	3.713240E-1	3.547343E-1	3.745148E-1	3.779469E-1	3.804192E-1	3.809397E-1	3.781290E-1	3.680284E-1	3.750334E-1	4.110507E-1	4.000240E-1	3.895513E-1	3.659232E-1	3.976614E-1	3.819349E-1	3.819559E-1	3.926447E-1	3.984304E-1	3.717746E-1	3.995007E-1	3.622963E-1	3.662762E-1	3.955304E-1	4.024623E-1	3.892616E-1	3.744557E-1	3.457706E-1	3.875026E-1	3.495821E-1	3.818044E-1	3.602935E-1	3.900159E-1	4.035953E-1	3.642689E-1	3.683347E-1	4.292418E-1	4.084754E-1	3.956750E-1	3.513427E-1	3.411676E-1	3.941808E-1	3.926912E-1	4.044046E-1	3.845973E-1	3.714582E-1	3.755227E-1	3.971682E-1	3.726688E-1	3.970996E-1	3.917121E-1	3.825655E-1	4.096087E-1	3.722182E-1	3.925443E-1	4.119804E-1	3.815837E-1	4.097042E-1	3.995793E-1	3.744384E-1	3.827037E-1	3.824989E-1	3.742887E-1	4.055999E-1	3.795777E-1	3.687617E-1	3.987631E-1	3.507117E-1	3.739798E-1	3.809009E-1	3.663343E-1	3.872785E-1	3.813580E-1	3.970323E-1	3.877634E-1	3.559356E-1	3.873172E-1	3.977758E-1	3.866297E-1	3.919265E-1	3.801409E-1	4.028646E-1	4.016806E-1	3.947186E-1	4.054239E-1	3.993693E-1	3.969966E-1	3.818062E-1	3.712591E-1	4.165229E-1	3.926211E-1	3.717192E-1	3.784596E-1	3.919729E-1	3.754736E-1	3.893249E-1	3.769042E-1	4.073952E-1	3.965612E-1	3.886465E-1	3.838722E-1	3.773296E-1	3.771804E-1	4.116798E-1	3.785291E-1	3.872182E-1	3.590660E-1	3.712920E-1	3.774916E-1	3.880482E-1	3.984468E-1	3.869889E-1	3.856100E-1	3.959563E-1	4.022669E-1	3.849695E-1	4.013763E-1	3.867052E-1	4.216689E-1	4.154587E-1	4.039903E-1	3.758472E-1	3.891249E-1	3.642525E-1	3.932089E-1	3.670153E-1	3.521391E-1	3.825889E-1	3.887911E-1	3.987561E-1	4.120637E-1	3.929882E-1	4.013394E-1	3.714803E-1	4.219124E-1	3.937611E-1	3.940935E-1	3.706170E-1	3.966548E-1	3.844356E-1	4.108514E-1	4.156813E-1	3.997642E-1	4.013865E-1	3.878733E-1	3.849719E-1	3.872615E-1	3.520876E-1	4.170601E-1	3.736977E-1	3.764409E-1	3.857138E-1	3.814204E-1	3.791071E-1	3.743696E-1	4.204686E-1	4.655138E-1	4.297982E-1
5.346870E+2	7.156359E-1	6.448173E-1	6.504048E-1	6.792566E-1	6.967129E-1	6.565394E-1	7.122873E-1	6.892210E-1	6.904146E-1	6.853240E-1	6.829371E-1	7.210091E-1	6.793550E-1	6.851178E-1	7.073962E-1	6.662893E-1	6.743036E-1	6.648230E-1	6.886514E-1	6.719741E-1	6.856096E-1	6.684763E-1	6.331882E-1	6.710625E-1	6.989745E-1	6.810367E-1	6.619603E-1	6.573534E-1	7.052431E-1	6.913382E-1	6.574665E-1	6.729775E-1	7.100972E-1	7.122101E-1	7.082035E-1	6.464959E-1	6.479757E-1	6.649413E-1	6.722127E-1	6.816466E-1	6.898351E-1	6.710910E-1	6.616206E-1	6.811016E-1	6.953697E-1	6.510378E-1	7.019273E-1	6.614176E-1	6.971531E-1	6.682719E-1	6.563002E-1	6.886586E-1	7.223000E-1	7.332670E-1	6.423576E-1	6.733330E-1	6.810078E-1	6.931297E-1	6.920193E-1	7.083692E-1	7.040482E-1	6.892669E-1	6.743586E-1	7.099937E-1	7.209144E-1	6.787208E-1	6.801735E-1	7.017780E-1	6.682358E-1	7.179723E-1	6.650188E-1	6.929993E-1	6.592157E-1	6.966315E-1	6.684135E-1	7.086658E-1	6.507548E-1	6.338067E-1	6.633426E-1	6.651045E-1	7.108718E-1	7.352536E-1	6.985036E-1	6.196770E-1	6.953913E-1	6.763616E-1	6.736461E-1	6.665355E-1	7.013415E-1	6.544886E-1	6.793059E-1	6.567560E-1	6.902710E-1	6.923756E-1	6.711909E-1	6.658545E-1	6.847051E-1	6.922766E-1	6.797507E-1	7.146401E-1	6.762281E-1	6.621459E-1	6.884428E-1	6.865311E-1	7.115629E-1	6.573316E-1	7.052708E-1	6.749921E-1	6.900849E-1	6.799869E-1	6.536325E-1	7.200703E-1	6.660020E-1	6.501507E-1	6.695849E-1	7.373887E-1	7.089504E-1	6.621448E-1	7.051105E-1	6.713764E-1	7.092595E-1	7.267909E-1	7.022753E-1	7.196074E-1	7.183480E-1	6.537097E-1	7.202862E-1	6.757913E-1	6.907859E-1	6.654988E-1	6.833830E-1	7.289591E-1	6.829921E-1	7.022382E-1	6.367090E-1	6.840845E-1	6.807909E-1	7.294947E-1	6.540556E-1	6.941832E-1	6.796262E-1	6.825422E-1	6.806244E-1	6.894673E-1	6.993297E-1	6.792993E-1	6.407835E-1	7.040799E-1	6.799574E-1	6.940102E-1	6.711089E-1	6.838328E-1	6.792666E-1	6.295831E-1	6.527046E-1	7.325080E-1	6.706898E-1	6.789589E-1	6.406933E-1	6.531948E-1	7.016576E-1	6.860650E-1	6.993281E-1	6.461253E-1	6.975184E-1	7.179350E-1
5.348070E+2	9.759276E-1	9.806872E-1	9.767175E-1	9.862909E-1	9.884460E-1	1.006417E+0	9.973092E-1	9.471273E-1	1.035934E+0	9.751672E-1	9.710819E-1	9.664088E-1	9.892523E-1	9.898308E-1	1.020703E+0	9.753258E-1	9.817900E-1	1.008320E+0	9.687336E-1	9.786826E-1	1.016144E+0	1.017478E+0	1.025117E+0	9.906454E-1	1.017894E+0	9.538232E-1	9.994412E-1	9.695816E-1	1.015518E+0	9.974855E-1	1.001067E+0	9.830090E-1	1.022965E+0	1.003093E+0	1.019647E+0	9.860333E-1	1.016114E+0	9.682538E-1	1.019031E+0	9.876787E-1	9.448343E-1	1.012777E+0	1.000131E+0	9.995098E-1	1.050856E+0	9.748677E-1	9.941450E-1	9.757497E-1	1.039355E+0	9.969731E-1	1.019915E+0	1.008919E+0	1.010487E+0	9.938154E-1	9.913791E-1	9.817092E-1	1.004149E+0	9.289341E-1	9.968400E-1	1.014809E+0	9.762608E-1	1.002415E+0	9.370537E-1	1.007497E+0	1.022559E+0	1.031914E+0	1.014014E+0	9.937599E-1	1.027790E+0	1.003069E+0	9.984692E-1	1.008719E+0	9.710072E-1	9.591761E-1	9.854620E-1	9.469716E-1	9.993406E-1	9.777789E-1	1.011583E+0	9.863576E-1	1.026274E+0	9.922395E-1	9.813889E-1	1.000782E+0	1.000124E+0	1.006824E+0	1.015538E+0	9.962246E-1	9.948372E-1	1.026700E+0	9.934258E-1	9.879078E-1	9.713890E-1	9.835814E-1	9.736859E-1	9.997205E-1	1.042406E+0	9.723296E-1	1.003823E+0	9.774359E-1	1.001836E+0	1.005618E+0	1.012767E+0	1.000015E+0	9.936292E-1	9.469741E-1	9.803799E-1	9.955066E-1	1.007014E+0	9.378810E-1	1.009294E+0	1.000003E+0	9.987914E-1	1.015786E+0	9.864872E-1	9.933249E-1	1.016190E+0	9.704124E-1	9.930048E-1	1.048833E+0	9.703869E-1	1.004974E+0	1.007057E+0	1.009615E+0	1.032394E+0	1.009161E+0	9.789145E-1	9.829689E-1	1.044286E+0	9.606391E-1	1.023602E+0	9.596447E-1	1.014646E+0	1.052913E+0	9.660185E-1	9.797523E-1	9.683822E-1	9.684761E-1	1.022287E+0	9.984134E-1	9.596575E-1	9.605567E-1	9.825637E-1	9.384726E-1	9.775590E-1	1.013462E+0	9.697281E-1	1.005675E+0	1.032755E+0	9.300860E-1	1.033617E+0	9.914321E-1	9.756542E-1	1.003176E+0	9.895974E-1	1.007440E+0	1.004597E+0	9.971044E-1	9.986956E-1	9.644388E-1	1.031932E+0	9.427452E-1	9.820990E-1	9.777411E-1	9.963336E-1	9.410091E-1
5.349630E+2	1.527158E+0	1.437074E+0	1.437190E+0	1.416979E+0	1.465191E+0	1.421050E+0	1.450972E+0	1.450908E+0	1.433007E+0	1.420419E+0	1.460531E+0	1.465870E+0	1.414876E+0	1.425376E+0	1.446101E+0	1.427251E+0	1.426157E+0	1.439622E+0	1.427031E+0	1.411893E+0	1.441383E+0	1.415034E+0	1.400595E+0	1.490134E+0	1.476383E+0	1.454417E+0	1.529654E+0	1.384600E+0	1.458294E+0	1.416629E+0	1.436791E+0	1.453394E+0	1.549830E+0	1.452411E+0	1.449345E+0	1.382081E+0	1.459488E+0	1.440251E+0	1.375367E+0	1.381248E+0	1.390114E+0	1.434194E+0	1.419388E+0	1.393798E+0	1.433725E+0	1.397065E+0	1.407633E+0	1.402184E+0	1.440976E+0	1.470590E+0	1.470350E+0	1.424333E+0	1.441225E+0	1.405044E+0	1.493316E+0	1.462276E+0	1.442707E+0	1.367311E+0	1.326306E+0	1.429399E+0	1.459268E+0	1.371756E+0	1.421537E+0	1.394664E+0	1.402155E+0	1.443261E+0	1.427945E+0	1.444214E+0	1.400372E+0	1.400609E+0	1.449586E+0	1.450040E+0	1.420909E+0	1.333860E+0	1.390657E+0	1.427867E+0	1.388548E+0	1.376228E+0	1.411704E+0	1.421560E+0	1.468887E+0	1.363898E+0	1.430065E+0	1.443316E+0	1.476664E+0	1.348672E+0	1.430673E+0	1.441420E+0	1.465711E+0	1.369674E+0	1.388339E+0	1.465418E+0	1.432509E+0	1.384857E+0	1.424757E+0	1.400926E+0	1.392108E+0	1.390124E+0	1.466892E+0	1.429355E+0	1.398661E+0	1.395726E+0	1.505162E+0	1.380697E+0	1.443156E+0	1.413128E+0	1.381983E+0	1.421259E+0	1.408486E+0	1.342573E+0	1.390133E+0	1.417394E+0	1.364623E+0	1.425589E+0	1.353364E+0	1.478723E+0	1.424381E+0	1.427304E+0	1.403722E+0	1.461508E+0	1.392173E+0	1.393978E+0	1.440669E+0	1.421978E+0	1.447826E+0	1.393922E+0	1.344090E+0	1.389296E+0	1.458100E+0	1.390753E+0	1.446051E+0	1.349512E+0	1.390813E+0	1.468652E+0	1.393769E+0	1.420570E+0	1.392223E+0	1.378629E+0	1.405226E+0	1.439928E+0	1.460770E+0	1.400669E+0	1.465412E+0	1.363900E+0	1.482086E+0	1.390943E+0	1.354777E+0	1.404910E+0	1.396351E+0	1.425079E+0	1.419499E+0	1.409445E+0	1.457132E+0	1.426634E+0	1.442615E+0	1.427001E+0	1.416583E+0	1.418739E+0	1.362646E+0	1.376584E+0	1.440979E+0	1.417815E+0	1.388748E+0	1.381718E+0	1.454883E+0	1.408603E+0
5.351090E+2	1.858554E+0	1.781820E+0	1.831971E+0	1.759035E+0	1.760440E+0	1.867753E+0	1.727202E+0	1.815615E+0	1.716414E+0	1.856887E+0	1.737302E+0	1.790252E+0	1.829417E+0	1.863125E+0	1.782930E+0	1.740208E+0	1.842654E+0	1.819234E+0	1.834662E+0	1.675907E+0	1.765187E+0	1.852246E+0	1.837098E+0	1.794323E+0	1.822870E+0	1.766783E+0	1.849636E+0	1.699644E+0	1.822784E+0	1.791508E+0	1.837514E+0	1.750448E+0	1.821804E+0	1.822931E+0	1.829032E+0	1.712758E+0	1.792325E+0	1.810575E+0	1.789941E+0	1.745055E+0	1.750653E+0	1.814362E+0	1.775368E+0	1.768218E+0	1.738966E+0	1.804054E+0	1.757804E+0	1.691714E+0	1.735761E+0	1.778859E+0	1.720459E+0	1.762444E+0	1.790324E+0	1.812124E+0	1.770162E+0	1.753533E+0	1.808177E+0	1.830117E+0	1.746501E+0	1.751504E+0	1.827456E+0	1.703281E+0	1.744339E+0	1.839446E+0	1.780869E+0	1.791004E+0	1.809884E+0	1.793876E+0	1.784542E+0	1.719312E+0	1.796810E+0	1.798814E+0	1.787676E+0	1.676327E+0	1.701103E+0	1.785142E+0	1.694284E+0	1.732223E+0	1.845661E+0	1.753218E+0	1.813479E+0	1.789222E+0	1.760773E+0	1.687458E+0	1.782734E+0	1.718085E+0	1.760548E+0	1.759928E+0	1.784093E+0	1.802060E+0	1.778178E+0	1.749539E+0	1.739570E+0	1.719800E+0	1.782606E+0	1.658738E+0	1.801734E+0	1.759081E+0	1.749861E+0	1.774459E+0	1.765328E+0	1.795473E+0	1.806605E+0	1.763329E+0	1.751197E+0	1.660469E+0	1.720265E+0	1.732012E+0	1.824486E+0	1.741259E+0	1.769149E+0	1.776996E+0	1.823492E+0	1.717001E+0	1.759041E+0	1.759686E+0	1.761624E+0	1.741494E+0	1.766988E+0	1.791443E+0	1.793448E+0	1.780682E+0	1.772487E+0	1.758088E+0	1.804598E+0	1.705914E+0	1.745022E+0	1.778178E+0	1.811094E+0	1.728064E+0	1.722490E+0	1.768067E+0	1.768334E+0	1.734212E+0	1.694771E+0	1.690293E+0	1.752892E+0	1.766060E+0	1.705045E+0	1.754486E+0	1.779653E+0	1.770940E+0	1.733876E+0	1.716482E+0	1.746110E+0	1.764020E+0	1.766990E+0	1.728645E+0	1.756811E+0	1.811334E+0	1.759764E+0	1.736823E+0	1.805260E+0	1.770968E+0	1.721320E+0	1.798532E+0	1.751453E+0	1.711582E+0	1.735850E+0	1.692550E+0	1.863587E+0	1.682691E+0	1.768095E+0	1.740660E+0	1.819472E+0	1.735831E+0
5.352650E+2	2.005570E+0	2.036829E+0	2.046353E+0	2.054618E+0	1.964297E+0	2.028594E+0	2.100950E+0	1.998081E+0	1.981417E+0	2.069671E+0	1.946205E+0	2.021549E+0	2.004638E+0	1.965996E+0	2.031906E+0	1.962584E+0	1.999798E+0	2.002829E+0	2.026746E+0	1.971724E+0	1.943632E+0	1.980110E+0	1.998031E+0	1.970084E+0	1.990324E+0	2.039411E+0	2.031477E+0	2.021936E+0	2.022373E+0	1.970062E+0	2.039204E+0	1.997087E+0	2.061368E+0	2.021755E+0	2.082398E+0	1.976118E+0	2.024216E+0	2.024611E+0	1.988790E+0	2.028150E+0	1.981889E+0	2.080566E+0	2.033873E+0	2.022984E+0	1.926720E+0	1.948111E+0	2.051814E+0	1.938643E+0	2.041863E+0	2.007990E+0	2.046353E+0	2.003221E+0	2.087128E+0	1.986338E+0	2.058116E+0	1.974000E+0	1.955218E+0	1.933575E+0	1.927785E+0	2.104612E+0	2.001707E+0	1.944722E+0	2.031933E+0	2.042559E+0	2.012292E+0	2.025718E+0	2.003161E+0	1.957792E+0	1.959213E+0	1.949017E+0	2.010278E+0	1.982068E+0	1.985127E+0	1.922323E+0	2.030055E+0	1.942683E+0	1.968232E+0	1.893258E+0	1.980501E+0	1.976828E+0	1.970896E+0	1.972727E+0	1.956425E+0	1.951794E+0	1.950075E+0	1.981156E+0	2.000900E+0	1.973968E+0	1.986507E+0	1.989778E+0	1.918831E+0	1.985500E+0	1.955696E+0	1.931711E+0	1.950918E+0	1.930555E+0	2.066481E+0	1.949627E+0	1.987339E+0	1.971424E+0	1.966554E+0	1.972972E+0	2.009537E+0	1.992781E+0	1.951247E+0	2.013548E+0	1.984736E+0	1.944131E+0	1.964983E+0	2.020604E+0	1.918370E+0	1.887821E+0	2.021558E+0	1.956997E+0	1.949348E+0	1.942686E+0	2.019867E+0	1.960210E+0	1.949512E+0	1.991690E+0	2.000724E+0	2.046539E+0	1.925106E+0	1.913242E+0	2.031734E+0	1.950807E+0	1.975011E+0	2.071017E+0	1.984997E+0	1.957750E+0	1.968753E+0	1.899147E+0	1.935089E+0	1.988021E+0	1.944931E+0	1.940187E+0	2.006235E+0	2.048186E+0	1.993800E+0	1.971550E+0	1.980767E+0	1.875271E+0	1.934090E+0	1.922935E+0	2.002117E+0	1.970483E+0	1.904951E+0	1.942916E+0	1.932297E+0	2.025349E+0	2.000989E+0	1.966324E+0	1.968795E+0	1.956562E+0	1.969013E+0	1.966329E+0	1.984476E+0	1.870632E+0	1.890268E+0	1.868248E+0	1.988651E+0	1.935963E+0	1.934080E+0	1.879088E+0	1.860078E+0	1.876591E+0
5.354170E+2	2.042547E+0	1.973289E+0	2.044857E+0	2.060644E+0	2.010021E+0	1.994692E+0	2.050774E+0	2.067375E+0	1.983565E+0	2.013408E+0	1.974482E+0	2.034149E+0	2.048981E+0	1.985205E+0	2.082724E+0	1.989563E+0	2.003367E+0	1.998847E+0	2.027613E+0	1.925094E+0	1.983495E+0	2.009476E+0	2.031653E+0	2.035839E+0	2.058782E+0	2.049109E+0	2.088483E+0	1.955433E+0	2.099851E+0	2.001535E+0	2.023773E+0	1.964812E+0	2.100769E+0	2.038917E+0	2.029986E+0	1.967151E+0	2.019616E+0	2.036005E+0	2.031929E+0	1.980412E+0	1.987907E+0	2.010292E+0	1.962210E+0	1.999280E+0	1.989519E+0	2.016754E+0	2.067485E+0	1.960173E+0	1.995077E+0	1.985665E+0	2.041842E+0	1.994158E+0	2.026185E+0	2.071008E+0	2.051802E+0	1.948007E+0	2.024644E+0	1.957661E+0	1.962107E+0	2.038975E+0	1.993676E+0	1.949287E+0	1.934991E+0	2.011438E+0	1.994202E+0	2.032113E+0	2.034071E+0	1.921608E+0	1.999322E+0	2.019900E+0	2.009108E+0	1.977091E+0	1.857320E+0	1.975065E+0	2.113423E+0	1.944399E+0	2.003256E+0	1.983271E+0	2.016336E+0	2.007613E+0	2.057598E+0	2.066345E+0	1.982066E+0	1.904512E+0	2.039086E+0	2.048612E+0	2.036349E+0	2.037067E+0	1.960540E+0	1.899620E+0	1.984631E+0	1.947683E+0	2.012627E+0	1.909232E+0	1.961701E+0	1.908870E+0	2.068230E+0	1.919855E+0	2.049614E+0	2.029023E+0	1.937310E+0	1.967514E+0	2.010377E+0	1.959277E+0	1.903961E+0	2.069299E+0	1.973496E+0	1.934187E+0	1.998673E+0	1.974187E+0	1.910715E+0	1.936408E+0	1.971786E+0	1.966051E+0	1.941880E+0	2.023088E+0	1.985199E+0	1.979178E+0	1.976969E+0	1.986581E+0	1.910518E+0	2.026633E+0	1.941595E+0	1.982564E+0	1.957390E+0	1.950989E+0	1.940286E+0	2.064255E+0	1.998369E+0	1.970278E+0	2.002446E+0	1.926597E+0	1.989585E+0	1.955558E+0	1.912288E+0	2.005262E+0	1.951861E+0	2.025071E+0	1.935725E+0	1.973108E+0	2.009572E+0	1.931508E+0	1.950610E+0	1.913433E+0	2.037210E+0	1.936706E+0	1.927965E+0	1.979858E+0	1.953341E+0	2.002061E+0	1.991804E+0	1.967463E+0	1.985134E+0	1.973006E+0	1.944679E+0	1.951353E+0	1.963628E+0	1.925876E+0	1.939047E+0	1.945521E+0	2.015574E+0	1.916946E+0	1.943879E+0	1.882913E+0	2.004691E+0	1.830583E+0
5.355630E+2	1.939201E+0	1.984124E+0	1.958093E+0	1.903633E+0	1.893344E+0	1.929715E+0	1.906854E+0	1.921169E+0	1.876356E+0	1.854199E+0	1.847209E+0	1.897171E+0	1.946498E+0	1.890716E+0	1.917090E+0	1.830394E+0	1.946562E+0	1.874701E+0	1.923955E+0	1.868639E+0	1.894911E+0	1.917631E+0	1.883702E+0	1.920599E+0	1.943985E+0	1.883497E+0	1.878474E+0	1.857357E+0	1.973369E+0	1.866356E+0	1.859095E+0	1.871772E+0	1.963532E+0	1.975345E+0	1.906153E+0	1.825704E+0	1.895939E+0	1.926460E+0	1.891961E+0	1.897702E+0	1.855852E+0	2.008186E+0	1.888401E+0	1.883035E+0	1.901894E+0	1.868915E+0	1.857995E+0	1.862636E+0	1.851164E+0	1.966297E+0	1.866173E+0	1.836400E+0	1.849126E+0	1.917865E+0	1.962970E+0	1.826401E+0	1.865739E+0	1.872893E+0	1.838370E+0	1.934535E+0	1.875352E+0	1.845288E+0	1.910657E+0	1.889160E+0	1.855837E+0	1.877579E+0	1.877186E+0	1.802721E+0	1.867318E+0	1.910748E+0	1.902060E+0	1.913925E+0	1.844305E+0	1.845055E+0	1.872692E+0	1.782363E+0	1.896852E+0	1.822626E+0	1.875685E+0	1.896323E+0	1.955613E+0	1.911510E+0	1.878580E+0	1.899448E+0	1.880466E+0	1.879276E+0	1.878443E+0	1.820955E+0	1.859079E+0	1.824703E+0	1.798111E+0	1.834021E+0	1.938351E+0	1.848323E+0	1.898970E+0	1.792878E+0	1.861235E+0	1.820081E+0	1.910478E+0	1.920628E+0	1.849579E+0	1.877568E+0	1.882887E+0	1.884649E+0	1.782332E+0	1.933586E+0	1.834224E+0	1.843415E+0	1.847615E+0	1.841233E+0	1.796269E+0	1.845659E+0	1.872970E+0	1.879684E+0	1.925039E+0	1.801299E+0	1.825360E+0	1.889262E+0	1.816152E+0	1.876512E+0	1.872611E+0	1.903023E+0	1.875403E+0	1.895928E+0	1.822838E+0	1.810316E+0	1.831466E+0	1.917921E+0	1.907857E+0	1.899242E+0	1.860495E+0	1.840927E+0	1.807726E+0	1.916030E+0	1.852261E+0	1.847017E+0	1.869970E+0	1.852282E+0	1.788378E+0	1.794603E+0	1.817502E+0	1.867354E+0	1.826681E+0	1.783187E+0	1.925332E+0	1.816673E+0	1.807673E+0	1.844049E+0	1.807982E+0	1.811902E+0	1.859818E+0	1.874480E+0	1.891025E+0	1.839795E+0	1.858165E+0	1.853146E+0	1.850523E+0	1.710862E+0	1.802368E+0	1.725594E+0	1.884694E+0	1.785881E+0	1.904164E+0	1.822467E+0	1.885719E+0	1.854737E+0
5.357090E+2	1.682929E+0	1.692057E+0	1.791924E+0	1.718836E+0	1.691511E+0	1.709782E+0	1.749411E+0	1.627529E+0	1.737174E+0	1.712551E+0	1.690941E+0	1.709859E+0	1.747215E+0	1.746826E+0	1.800509E+0	1.718598E+0	1.777091E+0	1.685621E+0	1.666100E+0	1.688085E+0	1.715591E+0	1.663644E+0	1.797019E+0	1.663396E+0	1.715620E+0	1.687110E+0	1.731101E+0	1.690386E+0	1.752554E+0	1.706578E+0	1.719517E+0	1.686657E+0	1.723253E+0	1.706253E+0	1.710340E+0	1.712918E+0	1.681346E+0	1.696539E+0	1.728138E+0	1.671406E+0	1.679584E+0	1.731888E+0	1.681894E+0	1.724543E+0	1.706137E+0	1.732996E+0	1.660375E+0	1.618426E+0	1.707284E+0	1.722405E+0	1.715046E+0	1.667335E+0	1.647583E+0	1.769000E+0	1.739763E+0	1.695980E+0	1.688876E+0	1.718032E+0	1.688342E+0	1.683052E+0	1.710683E+0	1.683472E+0	1.638475E+0	1.689942E+0	1.711640E+0	1.713907E+0	1.671356E+0	1.678000E+0	1.721388E+0	1.670205E+0	1.721619E+0	1.693779E+0	1.652552E+0	1.662333E+0	1.704918E+0	1.655850E+0	1.622963E+0	1.586737E+0	1.723287E+0	1.694572E+0	1.730681E+0	1.680407E+0	1.635678E+0	1.639574E+0	1.677152E+0	1.764736E+0	1.690119E+0	1.662744E+0	1.664141E+0	1.641024E+0	1.657062E+0	1.653169E+0	1.641042E+0	1.616703E+0	1.647574E+0	1.615428E+0	1.695328E+0	1.637640E+0	1.685173E+0	1.698992E+0	1.627291E+0	1.701309E+0	1.691882E+0	1.680094E+0	1.633347E+0	1.704010E+0	1.705314E+0	1.756335E+0	1.682377E+0	1.657020E+0	1.667857E+0	1.679606E+0	1.663020E+0	1.657563E+0	1.624944E+0	1.695810E+0	1.685050E+0	1.709814E+0	1.666593E+0	1.647701E+0	1.674228E+0	1.713942E+0	1.589614E+0	1.733274E+0	1.670826E+0	1.723355E+0	1.719517E+0	1.657417E+0	1.757581E+0	1.701116E+0	1.682465E+0	1.593462E+0	1.646293E+0	1.739584E+0	1.715956E+0	1.689227E+0	1.613973E+0	1.692444E+0	1.694285E+0	1.687673E+0	1.738947E+0	1.661751E+0	1.663890E+0	1.604793E+0	1.669368E+0	1.648034E+0	1.655120E+0	1.680281E+0	1.607902E+0	1.627079E+0	1.751664E+0	1.632848E+0	1.657467E+0	1.697733E+0	1.720836E+0	1.706274E+0	1.657559E+0	1.647477E+0	1.655582E+0	1.556556E+0	1.717259E+0	1.655551E+0	1.702321E+0	1.700948E+0	1.700130E+0	1.758726E+0
5.358550E+2	1.529465E+0	1.498873E+0	1.453168E+0	1.475504E+0	1.448706E+0	1.475714E+0	1.539563E+0	1.431597E+0	1.494917E+0	1.436783E+0	1.501016E+0	1.507082E+0	1.534653E+0	1.457914E+0	1.499092E+0	1.435398E+0	1.507199E+0	1.484981E+0	1.469805E+0	1.427799E+0	1.436016E+0	1.461790E+0	1.546760E+0	1.445379E+0	1.529641E+0	1.489086E+0	1.501196E+0	1.463159E+0	1.506078E+0	1.484250E+0	1.490861E+0	1.481906E+0	1.566521E+0	1.470588E+0	1.554609E+0	1.430112E+0	1.479979E+0	1.523649E+0	1.516631E+0	1.464434E+0	1.476958E+0	1.485754E+0	1.475307E+0	1.490793E+0	1.506106E+0	1.494877E+0	1.498642E+0	1.478115E+0	1.535389E+0	1.503573E+0	1.468530E+0	1.522257E+0	1.482368E+0	1.517221E+0	1.512178E+0	1.433147E+0	1.532870E+0	1.467703E+0	1.465032E+0	1.489623E+0	1.472497E+0	1.464248E+0	1.493798E+0	1.531193E+0	1.528995E+0	1.492862E+0	1.494725E+0	1.453216E+0	1.505221E+0	1.460919E+0	1.508040E+0	1.505228E+0	1.496582E+0	1.430662E+0	1.495743E+0	1.420245E+0	1.531195E+0	1.440763E+0	1.542161E+0	1.468149E+0	1.503125E+0	1.517769E+0	1.464408E+0	1.430437E+0	1.492069E+0	1.477810E+0	1.501293E+0	1.497816E+0	1.442689E+0	1.468609E+0	1.445988E+0	1.505996E+0	1.433787E+0	1.430274E+0	1.500157E+0	1.489320E+0	1.462424E+0	1.467307E+0	1.509068E+0	1.494854E+0	1.418308E+0	1.507282E+0	1.500409E+0	1.463129E+0	1.474879E+0	1.497119E+0	1.524937E+0	1.449228E+0	1.467068E+0	1.499097E+0	1.474856E+0	1.467448E+0	1.482870E+0	1.505115E+0	1.466416E+0	1.538037E+0	1.486003E+0	1.447604E+0	1.480916E+0	1.549098E+0	1.432528E+0	1.516524E+0	1.517971E+0	1.483604E+0	1.476123E+0	1.459222E+0	1.449917E+0	1.503768E+0	1.495898E+0	1.499714E+0	1.481037E+0	1.396100E+0	1.489289E+0	1.501123E+0	1.461594E+0	1.504370E+0	1.441074E+0	1.467314E+0	1.495921E+0	1.498221E+0	1.454915E+0	1.465757E+0	1.475137E+0	1.478573E+0	1.531634E+0	1.458452E+0	1.506500E+0	1.472307E+0	1.446471E+0	1.482968E+0	1.591997E+0	1.487173E+0	1.511707E+0	1.436944E+0	1.550626E+0	1.462528E+0	1.506257E+0	1.421833E+0	1.486697E+0	1.448399E+0	1.490119E+0	1.465889E+0	1.458283E+0	1.405389E+0	1.384654E+0	1.350735E+0
5.360170E+2	1.224465E+0	1.246387E+0	1.221873E+0	1.268474E+0	1.200512E+0	1.300739E+0	1.252202E+0	1.238949E+0	1.188123E+0	1.195628E+0	1.212298E+0	1.213050E+0	1.245601E+0	1.264643E+0	1.222342E+0	1.229711E+0	1.238657E+0	1.249247E+0	1.168384E+0	1.231818E+0	1.236023E+0	1.266666E+0	1.213294E+0	1.249247E+0	1.322946E+0	1.234146E+0	1.251894E+0	1.218565E+0	1.276161E+0	1.226658E+0	1.174525E+0	1.224602E+0	1.306313E+0	1.275441E+0	1.243716E+0	1.196153E+0	1.219024E+0	1.223962E+0	1.271879E+0	1.215093E+0	1.202805E+0	1.235756E+0	1.257194E+0	1.198391E+0	1.222127E+0	1.190975E+0	1.239800E+0	1.192833E+0	1.270042E+0	1.247837E+0	1.205159E+0	1.301054E+0	1.249457E+0	1.225142E+0	1.215810E+0	1.208884E+0	1.206646E+0	1.184608E+0	1.201414E+0	1.235769E+0	1.200161E+0	1.169765E+0	1.226157E+0	1.249168E+0	1.239620E+0	1.279043E+0	1.195631E+0	1.239000E+0	1.238909E+0	1.279959E+0	1.276305E+0	1.234628E+0	1.210641E+0	1.155753E+0	1.275597E+0	1.194635E+0	1.175694E+0	1.187906E+0	1.187062E+0	1.253914E+0	1.306579E+0	1.224915E+0	1.270378E+0	1.180020E+0	1.245800E+0	1.239138E+0	1.290830E+0	1.280131E+0	1.240182E+0	1.241922E+0	1.256214E+0	1.163820E+0	1.241764E+0	1.232224E+0	1.215582E+0	1.242136E+0	1.323815E+0	1.218182E+0	1.236467E+0	1.238938E+0	1.262675E+0	1.311214E+0	1.236720E+0	1.239183E+0	1.251964E+0	1.329476E+0	1.278631E+0	1.241864E+0	1.264985E+0	1.214688E+0	1.194640E+0	1.211424E+0	1.231672E+0	1.271844E+0	1.237901E+0	1.291017E+0	1.244244E+0	1.195059E+0	1.277988E+0	1.222699E+0	1.212033E+0	1.240279E+0	1.238996E+0	1.227491E+0	1.253637E+0	1.239810E+0	1.241251E+0	1.286898E+0	1.295103E+0	1.194019E+0	1.189832E+0	1.258050E+0	1.248691E+0	1.258774E+0	1.223908E+0	1.260771E+0	1.164996E+0	1.236770E+0	1.217849E+0	1.242194E+0	1.242733E+0	1.223802E+0	1.232229E+0	1.166256E+0	1.235464E+0	1.174928E+0	1.255142E+0	1.269049E+0	1.221068E+0	1.247329E+0	1.221469E+0	1.277496E+0	1.230826E+0	1.235066E+0	1.281466E+0	1.212391E+0	1.202608E+0	1.206723E+0	1.144516E+0	1.236023E+0	1.301556E+0	1.272314E+0	1.262818E+0	1.195227E+0	1.199948E+0	1.161087E+0
5.362580E+2	9.359831E-1	9.707429E-1	9.370002E-1	9.151136E-1	9.309239E-1	9.816425E-1	9.740252E-1	9.808849E-1	9.052069E-1	9.258885E-1	9.218780E-1	9.401982E-1	8.884101E-1	9.119578E-1	9.270728E-1	9.530085E-1	9.498956E-1	9.699738E-1	9.736466E-1	9.225016E-1	9.176101E-1	9.219536E-1	9.235687E-1	9.640194E-1	9.532080E-1	9.659243E-1	9.359609E-1	8.769702E-1	9.815750E-1	9.187017E-1	9.109062E-1	8.859794E-1	9.852675E-1	9.236247E-1	9.099607E-1	9.272123E-1	9.196528E-1	9.144345E-1	8.967676E-1	9.436930E-1	8.981770E-1	9.489472E-1	9.220239E-1	9.210499E-1	9.736083E-1	9.142184E-1	9.392963E-1	9.070475E-1	9.501959E-1	9.485506E-1	9.480729E-1	9.250396E-1	9.176225E-1	9.207878E-1	9.091752E-1	9.300421E-1	9.476462E-1	8.986374E-1	9.461740E-1	9.207573E-1	9.189255E-1	8.857570E-1	9.211855E-1	9.492630E-1	9.199549E-1	1.000714E+0	9.594291E-1	9.281500E-1	9.267027E-1	9.584415E-1	9.067397E-1	9.328200E-1	9.381389E-1	9.019222E-1	9.237304E-1	9.005526E-1	9.485150E-1	8.823736E-1	9.271547E-1	9.561169E-1	9.779882E-1	9.781967E-1	8.966469E-1	8.960724E-1	9.707423E-1	9.473746E-1	9.676376E-1	9.429970E-1	9.623893E-1	9.481378E-1	9.129300E-1	9.287210E-1	9.529574E-1	9.063297E-1	9.586001E-1	8.925715E-1	9.521900E-1	9.011124E-1	9.961896E-1	9.216715E-1	9.306987E-1	9.344670E-1	9.906448E-1	9.580626E-1	9.126775E-1	9.433760E-1	9.086083E-1	9.482468E-1	9.420286E-1	9.216508E-1	9.367040E-1	9.440987E-1	8.989488E-1	9.098238E-1	9.572104E-1	9.591695E-1	9.578439E-1	9.312343E-1	9.407816E-1	9.883866E-1	9.457401E-1	9.036141E-1	9.390865E-1	9.161897E-1	9.220503E-1	9.075565E-1	9.346562E-1	9.620923E-1	9.502730E-1	9.347164E-1	9.405781E-1	9.204719E-1	9.192615E-1	8.900781E-1	9.395028E-1	9.378795E-1	9.378731E-1	9.486085E-1	8.921450E-1	9.271660E-1	9.826738E-1	9.799552E-1	9.200060E-1	9.714400E-1	9.357072E-1	9.360553E-1	9.084376E-1	9.223662E-1	9.330879E-1	9.854394E-1	9.717226E-1	9.361566E-1	8.799434E-1	9.467006E-1	9.151698E-1	9.476165E-1	9.674773E-1	8.854740E-1	9.484372E-1	9.220093E-1	9.486313E-1	9.308833E-1	9.912418E-1	8.952469E-1	9.367242E-1	9.491340E-1
5.365090E+2	6.903912E-1	7.264472E-1	7.240459E-1	7.235477E-1	6.949112E-1	7.237487E-1	7.423253E-1	7.037680E-1	6.902826E-1	7.189687E-1	7.014797E-1	7.365210E-1	6.862193E-1	7.107704E-1	7.028569E-1	6.954379E-1	7.207293E-1	6.989985E-1	7.292214E-1	6.615360E-1	6.944753E-1	7.759048E-1	7.139250E-1	7.021996E-1	7.142261E-1	7.740004E-1	7.149877E-1	6.810509E-1	7.777002E-1	7.363955E-1	7.100984E-1	7.019224E-1	7.610865E-1	7.595912E-1	7.404340E-1	7.061463E-1	7.569943E-1	6.811601E-1	7.627451E-1	7.029672E-1	6.929950E-1	6.878640E-1	7.076650E-1	7.292615E-1	7.161166E-1	7.179710E-1	6.789769E-1	6.966062E-1	7.526486E-1	6.841549E-1	7.614110E-1	7.464369E-1	7.394683E-1	7.749270E-1	7.260271E-1	7.144071E-1	7.354407E-1	7.232484E-1	7.247961E-1	7.314803E-1	7.493245E-1	6.794217E-1	7.285320E-1	7.142546E-1	6.842648E-1	7.046998E-1	7.348406E-1	7.084317E-1	7.263315E-1	7.260681E-1	7.682582E-1	7.193057E-1	7.005836E-1	7.332224E-1	6.955530E-1	7.203293E-1	6.994080E-1	6.891742E-1	7.711253E-1	7.105830E-1	7.354925E-1	7.119494E-1	7.096771E-1	7.129379E-1	7.242270E-1	7.491938E-1	7.246424E-1	7.101661E-1	7.497839E-1	7.298225E-1	7.265485E-1	6.929272E-1	7.411970E-1	7.397415E-1	7.525834E-1	6.739073E-1	7.187288E-1	6.878437E-1	7.416721E-1	7.283372E-1	7.325761E-1	7.027923E-1	7.235272E-1	7.237391E-1	6.914955E-1	7.601550E-1	7.453622E-1	7.223730E-1	7.551108E-1	7.629425E-1	7.004115E-1	7.591117E-1	7.317794E-1	6.697469E-1	7.246682E-1	7.502876E-1	6.922081E-1	7.276719E-1	7.170546E-1	7.203536E-1	7.233777E-1	7.526398E-1	6.890200E-1	7.390920E-1	7.181278E-1	7.319328E-1	7.470724E-1	7.555471E-1	7.760811E-1	7.605796E-1	7.357050E-1	7.230885E-1	7.041849E-1	7.716110E-1	7.477855E-1	7.608526E-1	7.109528E-1	7.201256E-1	7.491154E-1	7.659559E-1	7.208731E-1	6.945538E-1	7.445080E-1	7.128454E-1	7.735341E-1	7.544567E-1	7.740906E-1	7.219840E-1	7.350627E-1	7.381344E-1	7.551062E-1	7.217334E-1	7.496193E-1	7.732086E-1	7.459776E-1	7.434828E-1	7.418440E-1	7.037651E-1	7.091077E-1	7.320507E-1	7.744376E-1	7.198370E-1	7.422282E-1	7.280575E-1	6.922919E-1	6.601800E-1
5.367600E+2	6.102739E-1	5.588985E-1	5.936118E-1	5.699115E-1	5.467113E-1	5.585779E-1	6.110565E-1	5.865593E-1	5.950587E-1	6.166853E-1	6.014868E-1	5.964715E-1	5.837723E-1	5.768155E-1	5.782813E-1	5.687222E-1	5.576454E-1	5.792426E-1	5.765498E-1	5.904243E-1	5.657175E-1	6.081074E-1	6.080125E-1	5.722506E-1	6.054743E-1	6.012167E-1	6.133043E-1	5.975785E-1	6.043289E-1	6.088652E-1	5.833000E-1	5.837488E-1	6.224302E-1	5.834182E-1	5.936254E-1	5.523671E-1	6.050708E-1	5.979045E-1	5.812300E-1	5.810890E-1	6.183066E-1	5.895671E-1	5.709494E-1	5.606115E-1	5.795278E-1	5.821150E-1	6.274077E-1	6.129405E-1	5.786906E-1	6.291973E-1	5.613257E-1	5.970864E-1	5.830003E-1	5.922685E-1	6.239214E-1	6.200868E-1	6.365048E-1	5.898411E-1	5.709801E-1	5.738353E-1	5.755612E-1	5.900284E-1	5.973339E-1	5.870746E-1	6.309957E-1	6.001992E-1	5.686699E-1	5.904464E-1	5.950930E-1	6.040120E-1	6.152876E-1	6.091140E-1	5.921309E-1	6.029483E-1	5.993891E-1	5.820696E-1	5.905100E-1	5.631406E-1	6.267804E-1	5.949669E-1	6.142908E-1	5.853729E-1	6.147032E-1	5.943218E-1	6.090597E-1	5.955613E-1	6.066029E-1	6.172418E-1	5.577008E-1	5.868993E-1	6.315761E-1	6.082971E-1	5.840394E-1	6.045749E-1	5.656126E-1	5.834520E-1	5.936144E-1	6.222325E-1	6.000772E-1	6.045296E-1	6.020424E-1	5.631768E-1	5.858782E-1	5.878171E-1	5.653091E-1	6.297785E-1	5.811136E-1	5.751488E-1	5.677521E-1	6.061982E-1	5.853686E-1	5.680905E-1	6.535406E-1	6.030135E-1	5.676435E-1	6.189178E-1	6.381419E-1	6.322296E-1	6.389980E-1	5.852374E-1	5.902967E-1	6.093039E-1	6.062029E-1	6.044488E-1	6.085616E-1	5.876010E-1	6.289755E-1	6.479205E-1	6.017328E-1	6.496645E-1	5.707485E-1	5.934278E-1	5.772914E-1	6.424945E-1	6.353898E-1	5.830757E-1	5.732639E-1	6.008927E-1	5.687336E-1	5.949304E-1	6.188620E-1	5.938697E-1	6.111583E-1	5.990163E-1	5.835601E-1	5.495704E-1	6.203183E-1	5.714308E-1	5.957879E-1	5.853906E-1	6.175216E-1	5.882517E-1	6.146977E-1	6.540473E-1	6.095888E-1	6.418461E-1	5.713491E-1	5.836610E-1	6.130321E-1	6.025904E-1	6.297518E-1	6.015157E-1	6.009341E-1	5.383359E-1	5.762415E-1	6.424851E-1
5.370280E+2	5.204583E-1	5.090144E-1	5.065154E-1	5.035579E-1	5.358508E-1	5.139328E-1	5.163563E-1	5.060134E-1	4.931539E-1	5.318601E-1	5.244165E-1	4.956355E-1	5.217434E-1	5.188919E-1	5.136070E-1	5.028636E-1	5.145115E-1	5.058642E-1	5.237958E-1	4.956770E-1	4.712351E-1	4.879554E-1	4.857465E-1	4.957410E-1	5.189211E-1	5.247725E-1	5.405062E-1	5.277445E-1	5.399635E-1	4.997152E-1	4.784879E-1	5.562718E-1	5.218633E-1	5.189531E-1	5.291139E-1	5.126632E-1	5.144261E-1	5.377369E-1	5.106930E-1	5.302811E-1	4.942572E-1	5.569132E-1	5.066422E-1	5.286431E-1	5.254995E-1	5.242756E-1	4.983495E-1	4.939474E-1	5.042017E-1	5.098654E-1	5.107992E-1	5.138739E-1	5.234540E-1	5.102128E-1	5.263699E-1	5.512663E-1	5.390319E-1	5.068667E-1	5.305166E-1	5.141472E-1	5.571718E-1	5.416402E-1	5.324062E-1	5.261813E-1	5.227965E-1	5.373024E-1	5.186675E-1	4.888694E-1	5.168147E-1	5.508300E-1	5.308906E-1	5.363892E-1	5.104434E-1	5.245018E-1	5.271049E-1	5.165413E-1	5.083191E-1	5.545606E-1	5.142670E-1	5.076194E-1	5.451194E-1	5.077157E-1	5.327213E-1	5.203186E-1	5.188775E-1	5.246204E-1	5.421666E-1	5.340190E-1	5.117902E-1	5.139579E-1	5.289892E-1	4.881920E-1	5.117618E-1	4.988609E-1	5.105590E-1	5.400644E-1	5.201257E-1	5.197040E-1	5.395882E-1	5.469997E-1	5.201848E-1	5.089338E-1	5.553220E-1	5.219416E-1	5.261880E-1	5.382425E-1	5.366848E-1	5.264115E-1	5.623411E-1	5.254014E-1	5.207790E-1	5.621550E-1	5.156537E-1	5.371740E-1	4.983002E-1	5.014943E-1	5.096459E-1	5.274273E-1	4.946084E-1	5.008148E-1	5.180908E-1	5.392342E-1	5.398671E-1	5.326259E-1	5.421160E-1	5.329630E-1	5.303729E-1	5.717865E-1	5.317695E-1	5.303829E-1	5.437628E-1	5.090716E-1	4.853753E-1	5.368013E-1	5.138676E-1	5.278185E-1	5.534379E-1	5.024640E-1	5.081723E-1	5.082859E-1	5.429058E-1	5.202605E-1	5.108288E-1	5.109506E-1	5.520712E-1	5.201790E-1	5.349088E-1	5.232913E-1	5.074694E-1	5.471863E-1	5.089910E-1	5.099510E-1	4.946531E-1	5.934932E-1	5.147418E-1	5.719983E-1	5.073811E-1	5.072737E-1	5.362962E-1	5.028937E-1	5.719464E-1	5.484280E-1	5.229861E-1	5.055743E-1	5.093306E-1	5.722980E-1
5.372640E+2	5.354957E-1	5.177870E-1	5.315102E-1	5.121677E-1	4.718077E-1	5.119980E-1	5.205363E-1	5.053810E-1	4.954303E-1	5.481837E-1	5.052219E-1	5.427743E-1	5.239255E-1	5.007312E-1	5.191939E-1	4.932450E-1	5.202055E-1	4.832163E-1	5.217182E-1	5.148988E-1	4.993705E-1	5.147607E-1	4.744132E-1	5.264522E-1	4.941376E-1	5.060260E-1	5.254926E-1	5.042567E-1	5.153155E-1	5.265284E-1	5.290744E-1	5.341351E-1	5.288635E-1	5.531504E-1	4.954821E-1	5.195880E-1	5.079889E-1	5.153133E-1	4.942993E-1	5.065270E-1	4.763065E-1	5.435773E-1	5.178446E-1	5.015977E-1	5.129604E-1	4.875806E-1	4.936127E-1	4.999462E-1	5.435392E-1	5.362698E-1	5.245834E-1	5.198569E-1	5.093591E-1	5.162310E-1	4.999034E-1	5.282869E-1	5.137602E-1	5.301737E-1	4.977499E-1	5.183696E-1	5.103472E-1	4.843334E-1	4.942373E-1	5.007898E-1	4.890241E-1	5.274375E-1	5.329265E-1	5.280995E-1	5.161422E-1	4.836857E-1	5.173438E-1	5.591909E-1	5.058422E-1	4.802099E-1	5.247933E-1	5.494792E-1	5.106444E-1	5.055778E-1	5.196665E-1	5.319902E-1	5.195055E-1	5.288911E-1	4.931119E-1	5.258087E-1	5.224452E-1	5.398606E-1	5.045381E-1	5.087938E-1	5.593984E-1	5.160437E-1	5.058905E-1	4.959480E-1	5.086292E-1	5.007541E-1	5.017775E-1	5.095810E-1	5.703051E-1	5.011789E-1	5.064513E-1	5.170275E-1	5.086807E-1	5.050066E-1	5.305027E-1	5.141285E-1	5.325863E-1	5.226451E-1	5.237047E-1	5.108046E-1	5.169696E-1	4.877039E-1	5.310380E-1	5.303873E-1	5.114232E-1	5.046248E-1	5.129738E-1	5.339107E-1	5.113527E-1	5.202977E-1	5.385144E-1	5.368205E-1	5.191807E-1	5.290649E-1	5.251753E-1	5.270961E-1	5.370806E-1	5.431958E-1	5.524347E-1	5.310784E-1	5.246999E-1	5.425786E-1	5.059189E-1	5.393163E-1	4.853937E-1	5.461098E-1	5.541270E-1	5.276789E-1	5.141187E-1	5.019621E-1	5.077124E-1	4.982738E-1	5.213869E-1	5.077186E-1	5.264103E-1	5.184474E-1	5.391342E-1	4.998046E-1	5.306743E-1	5.155750E-1	5.151715E-1	5.215810E-1	5.369254E-1	5.207862E-1	5.178885E-1	5.298939E-1	5.436917E-1	5.523888E-1	5.500303E-1	5.420184E-1	5.104165E-1	4.866531E-1	5.450558E-1	5.093574E-1	5.052364E-1	5.084390E-1	5.922005E-1	5.597577E-1
5.375060E+2	5.281597E-1	5.078713E-1	5.437794E-1	5.430501E-1	5.032537E-1	5.094675E-1	5.797298E-1	5.464592E-1	5.267901E-1	5.050026E-1	5.610097E-1	5.150139E-1	4.980918E-1	5.258999E-1	5.292550E-1	5.107609E-1	5.313241E-1	5.007961E-1	5.644827E-1	5.364638E-1	5.347052E-1	5.229262E-1	5.583622E-1	5.172795E-1	5.690251E-1	5.045183E-1	5.506303E-1	5.098727E-1	5.478750E-1	5.392195E-1	5.590849E-1	5.554267E-1	5.597363E-1	5.243935E-1	5.141270E-1	5.054012E-1	5.101866E-1	5.511109E-1	5.508294E-1	5.457357E-1	5.176363E-1	5.610516E-1	5.394971E-1	5.540162E-1	5.516562E-1	5.672655E-1	5.343492E-1	5.080110E-1	5.452921E-1	5.339537E-1	5.414236E-1	5.503697E-1	5.539873E-1	5.469366E-1	5.429826E-1	5.692091E-1	5.387724E-1	5.531493E-1	5.122691E-1	5.421572E-1	5.293804E-1	5.099368E-1	5.240648E-1	5.429383E-1	4.939374E-1	5.311629E-1	5.214752E-1	5.556957E-1	5.279280E-1	5.252855E-1	5.608646E-1	5.474604E-1	5.461814E-1	5.066449E-1	5.689631E-1	5.584048E-1	5.371432E-1	5.332741E-1	5.299739E-1	5.421832E-1	5.732359E-1	5.513731E-1	5.336719E-1	5.375541E-1	5.331028E-1	5.375577E-1	5.346302E-1	4.978697E-1	5.288390E-1	5.287496E-1	5.731540E-1	5.503270E-1	5.653754E-1	5.198396E-1	5.226692E-1	4.945364E-1	5.576061E-1	5.321969E-1	5.707043E-1	5.445116E-1	5.504218E-1	5.636770E-1	5.361695E-1	5.546232E-1	5.152864E-1	6.216850E-1	5.556752E-1	5.330470E-1	5.378724E-1	5.305596E-1	5.453158E-1	5.467045E-1	5.434567E-1	5.419580E-1	5.587914E-1	5.571200E-1	5.411760E-1	5.667983E-1	5.346845E-1	5.266216E-1	5.375463E-1	5.472768E-1	5.407646E-1	5.919277E-1	5.642456E-1	5.260256E-1	5.191353E-1	5.651312E-1	5.454661E-1	5.604474E-1	5.359206E-1	5.729514E-1	5.039821E-1	5.290165E-1	5.441125E-1	5.379579E-1	5.315261E-1	5.432447E-1	5.491587E-1	5.405001E-1	5.392287E-1	5.532603E-1	5.897496E-1	5.535656E-1	5.450987E-1	5.621167E-1	5.408502E-1	5.252319E-1	5.780883E-1	5.219254E-1	5.334264E-1	5.455764E-1	5.542554E-1	5.425840E-1	5.660678E-1	5.373117E-1	5.667623E-1	5.278422E-1	5.439580E-1	5.359999E-1	6.134735E-1	5.170868E-1	5.424705E-1	5.773531E-1	5.591667E-1	5.696816E-1
5.377630E+2	5.895941E-1	6.354629E-1	6.438267E-1	6.037817E-1	6.046184E-1	6.162177E-1	5.914926E-1	6.239629E-1	5.910595E-1	5.648246E-1	6.223720E-1	6.056222E-1	6.272319E-1	6.248684E-1	5.839604E-1	5.609302E-1	6.180391E-1	6.131736E-1	5.530632E-1	6.025750E-1	6.284103E-1	6.134163E-1	6.506337E-1	6.053425E-1	6.123056E-1	6.190764E-1	6.498388E-1	5.992655E-1	6.427992E-1	6.301892E-1	5.890475E-1	6.226584E-1	6.680978E-1	6.172190E-1	6.234958E-1	6.061022E-1	5.915007E-1	5.718936E-1	6.608804E-1	6.143716E-1	6.109801E-1	6.040328E-1	6.682758E-1	6.115202E-1	6.453134E-1	5.550311E-1	6.304666E-1	6.119416E-1	6.015214E-1	6.279702E-1	6.278242E-1	6.296807E-1	6.204604E-1	6.113506E-1	5.773316E-1	6.339896E-1	6.048970E-1	6.078503E-1	5.977274E-1	6.297417E-1	6.293245E-1	6.124241E-1	6.043304E-1	6.118825E-1	6.298433E-1	6.335281E-1	6.150192E-1	6.068866E-1	5.828398E-1	6.148539E-1	6.193818E-1	6.184214E-1	5.923986E-1	6.342183E-1	6.447623E-1	5.856287E-1	6.093248E-1	5.975003E-1	6.333159E-1	5.934540E-1	6.271820E-1	5.942923E-1	6.128554E-1	5.960242E-1	6.435767E-1	6.101743E-1	5.982085E-1	5.870322E-1	5.836675E-1	6.611206E-1	6.131270E-1	6.137992E-1	6.114309E-1	6.050376E-1	5.862488E-1	5.841446E-1	6.320594E-1	5.913687E-1	6.095782E-1	6.338811E-1	6.371672E-1	6.469316E-1	6.045750E-1	6.311141E-1	6.355519E-1	6.089733E-1	6.470600E-1	6.564739E-1	6.023300E-1	6.148788E-1	6.036511E-1	6.052904E-1	6.178489E-1	6.382676E-1	6.072316E-1	6.212695E-1	6.086563E-1	6.570865E-1	5.925555E-1	6.344349E-1	6.143265E-1	6.400677E-1	6.243393E-1	6.075558E-1	6.200431E-1	6.108405E-1	6.282156E-1	6.358878E-1	6.005775E-1	5.783723E-1	6.206529E-1	6.034327E-1	5.925019E-1	6.281891E-1	6.504156E-1	6.211025E-1	6.260415E-1	5.694724E-1	5.990975E-1	6.608281E-1	6.475596E-1	5.905928E-1	6.038194E-1	6.091987E-1	6.295291E-1	6.039534E-1	6.273886E-1	6.017085E-1	6.320861E-1	6.656089E-1	6.465766E-1	6.441837E-1	6.335822E-1	6.042289E-1	6.057823E-1	6.474938E-1	6.536072E-1	6.080049E-1	6.074690E-1	6.153286E-1	6.168735E-1	6.093221E-1	6.431929E-1	6.057555E-1	6.584609E-1	6.309862E-1
5.380110E+2	6.961943E-1	7.260685E-1	7.340871E-1	7.088543E-1	7.143277E-1	6.965296E-1	7.325163E-1	6.905502E-1	7.044769E-1	6.750477E-1	6.794593E-1	7.126936E-1	7.289137E-1	6.903311E-1	6.839152E-1	7.366596E-1	6.571108E-1	6.813803E-1	6.950499E-1	6.686826E-1	6.794700E-1	7.315801E-1	7.189438E-1	7.368922E-1	7.403667E-1	6.754024E-1	6.865277E-1	6.505150E-1	7.205746E-1	6.961436E-1	7.148195E-1	6.609593E-1	7.303994E-1	7.090635E-1	6.990963E-1	6.967236E-1	7.338970E-1	6.801010E-1	7.245784E-1	6.722067E-1	7.158521E-1	7.199069E-1	7.128256E-1	7.179966E-1	6.925978E-1	7.013067E-1	6.867388E-1	7.130722E-1	7.062993E-1	7.325920E-1	6.916832E-1	7.276521E-1	6.842384E-1	6.975493E-1	6.890967E-1	6.725018E-1	6.584410E-1	7.436769E-1	7.180277E-1	7.496040E-1	7.029558E-1	6.562271E-1	7.095233E-1	7.010246E-1	6.885669E-1	7.106048E-1	7.303831E-1	6.857359E-1	7.171122E-1	7.148515E-1	6.837950E-1	7.421508E-1	6.951277E-1	6.993517E-1	7.037684E-1	7.030815E-1	6.727908E-1	6.751711E-1	7.311442E-1	7.195282E-1	6.801278E-1	7.284717E-1	6.758438E-1	6.681123E-1	6.977336E-1	7.251399E-1	7.440888E-1	7.497667E-1	6.887459E-1	7.565588E-1	6.869294E-1	7.316922E-1	7.147414E-1	6.986823E-1	7.057709E-1	6.729717E-1	7.296806E-1	7.020153E-1	7.230523E-1	7.216317E-1	7.226980E-1	6.840750E-1	7.340610E-1	7.084918E-1	7.084540E-1	7.329029E-1	6.977756E-1	7.416501E-1	7.082906E-1	7.210849E-1	7.223497E-1	7.249100E-1	7.361360E-1	6.977861E-1	7.269508E-1	6.963186E-1	7.127207E-1	7.152725E-1	7.262115E-1	7.584502E-1	6.903338E-1	7.171725E-1	7.261270E-1	7.163499E-1	7.150938E-1	7.155245E-1	7.128604E-1	7.319070E-1	7.416046E-1	7.471870E-1	6.670856E-1	6.986287E-1	7.135719E-1	6.983679E-1	6.819132E-1	7.063495E-1	7.256956E-1	7.156921E-1	7.015581E-1	7.126368E-1	6.986369E-1	6.969950E-1	7.209863E-1	7.018133E-1	7.645229E-1	6.812163E-1	7.256011E-1	6.916089E-1	7.002846E-1	7.365484E-1	7.477111E-1	7.356983E-1	7.173241E-1	7.225581E-1	7.415312E-1	7.484109E-1	7.362334E-1	6.809851E-1	7.282582E-1	7.154031E-1	7.363818E-1	7.275236E-1	7.448502E-1	6.978201E-1	7.255545E-1	6.633117E-1
5.382900E+2	8.459563E-1	8.241003E-1	8.657786E-1	8.704110E-1	8.471334E-1	8.332106E-1	9.128822E-1	8.253355E-1	8.111284E-1	8.836264E-1	8.353336E-1	8.840398E-1	8.640959E-1	8.292093E-1	8.340386E-1	8.036006E-1	8.745772E-1	8.791300E-1	8.445884E-1	8.217479E-1	8.526025E-1	8.157863E-1	8.424884E-1	8.663372E-1	8.706115E-1	8.541708E-1	8.695566E-1	8.354926E-1	8.636817E-1	8.225890E-1	8.739923E-1	8.392621E-1	9.088810E-1	8.740261E-1	8.835620E-1	8.675744E-1	8.497798E-1	8.242585E-1	9.062284E-1	8.361994E-1	8.717226E-1	8.549400E-1	8.827533E-1	8.587011E-1	8.262215E-1	7.912824E-1	8.595381E-1	8.366134E-1	8.681371E-1	8.826975E-1	8.922146E-1	8.928051E-1	8.644553E-1	8.865432E-1	8.899411E-1	9.056197E-1	8.714781E-1	8.515925E-1	8.390647E-1	8.731487E-1	8.707526E-1	8.261330E-1	8.506059E-1	8.222712E-1	8.460160E-1	8.457019E-1	8.750824E-1	8.971301E-1	8.270894E-1	9.127637E-1	8.630260E-1	8.475147E-1	8.506945E-1	8.181011E-1	8.477646E-1	8.894822E-1	8.852790E-1	8.092040E-1	8.830823E-1	8.647563E-1	8.715782E-1	8.497368E-1	8.841521E-1	8.083985E-1	9.012085E-1	8.334115E-1	8.783218E-1	8.760694E-1	8.198512E-1	9.008281E-1	8.682759E-1	8.665541E-1	8.347199E-1	8.208096E-1	8.492411E-1	8.791846E-1	8.957206E-1	8.704100E-1	8.669260E-1	8.364028E-1	8.324100E-1	8.515403E-1	9.217392E-1	8.434685E-1	8.712908E-1	8.766650E-1	8.984254E-1	8.266919E-1	9.017920E-1	7.832621E-1	8.549283E-1	9.055649E-1	8.379165E-1	8.659586E-1	8.396730E-1	8.793133E-1	8.807694E-1	9.409843E-1	8.921932E-1	8.402530E-1	8.540819E-1	8.902998E-1	8.361798E-1	8.692245E-1	8.485023E-1	8.315932E-1	8.283460E-1	8.552462E-1	8.710519E-1	9.059724E-1	8.315529E-1	8.595378E-1	8.843471E-1	9.031273E-1	8.823813E-1	9.140069E-1	8.729661E-1	8.506292E-1	9.429903E-1	8.927657E-1	8.705638E-1	8.758828E-1	8.655816E-1	8.305331E-1	8.584899E-1	8.571179E-1	8.880964E-1	8.321609E-1	8.561194E-1	8.973669E-1	9.040231E-1	8.625826E-1	8.432456E-1	8.707716E-1	8.721641E-1	8.883552E-1	8.750030E-1	8.363606E-1	8.294202E-1	8.270325E-1	8.627498E-1	8.835671E-1	8.699629E-1	8.745567E-1	8.459021E-1	8.871320E-1
5.385060E+2	1.042838E+0	9.821015E-1	1.075413E+0	9.929330E-1	9.947353E-1	1.044720E+0	1.056153E+0	1.015851E+0	1.029867E+0	1.003628E+0	1.057557E+0	1.016471E+0	1.050557E+0	1.027759E+0	9.918727E-1	1.040283E+0	9.875154E-1	1.026707E+0	1.056174E+0	1.007456E+0	1.018408E+0	1.051258E+0	1.018192E+0	1.034519E+0	1.056916E+0	1.014841E+0	1.062877E+0	1.007086E+0	1.027053E+0	1.002593E+0	1.034532E+0	1.025717E+0	1.100328E+0	1.058245E+0	1.057833E+0	1.007532E+0	1.050946E+0	1.040483E+0	1.058046E+0	1.031835E+0	1.070248E+0	1.054969E+0	1.066083E+0	1.050537E+0	1.005923E+0	1.004946E+0	1.088595E+0	1.040133E+0	1.056553E+0	1.060558E+0	1.014126E+0	1.048672E+0	1.025412E+0	1.030125E+0	1.082609E+0	1.043577E+0	1.000433E+0	9.702548E-1	1.042427E+0	1.081956E+0	1.049777E+0	1.024944E+0	1.015125E+0	9.923570E-1	1.010899E+0	1.042367E+0	1.046786E+0	9.935691E-1	1.021044E+0	1.019398E+0	1.020706E+0	1.068749E+0	1.017385E+0	1.010127E+0	1.081743E+0	1.002539E+0	1.017220E+0	9.887593E-1	1.061343E+0	1.011780E+0	1.073403E+0	1.025895E+0	9.929338E-1	9.984123E-1	1.034224E+0	1.003373E+0	1.038348E+0	1.045993E+0	9.825853E-1	1.035049E+0	9.986547E-1	1.022154E+0	1.053507E+0	1.031777E+0	1.032657E+0	1.048297E+0	1.003709E+0	9.909694E-1	1.025353E+0	1.036504E+0	9.701525E-1	1.017888E+0	1.068416E+0	1.035214E+0	1.011933E+0	1.014491E+0	1.055249E+0	1.038542E+0	1.036213E+0	1.022564E+0	1.030917E+0	1.022536E+0	1.012753E+0	1.051113E+0	1.037485E+0	9.832630E-1	1.013485E+0	1.054086E+0	1.064280E+0	1.029851E+0	9.957824E-1	1.020361E+0	1.063259E+0	1.021678E+0	1.016676E+0	1.049363E+0	9.850173E-1	1.094718E+0	1.088882E+0	1.011807E+0	1.039597E+0	1.022761E+0	1.025418E+0	1.004895E+0	9.979001E-1	1.040335E+0	1.012075E+0	1.081134E+0	1.027831E+0	1.077110E+0	1.063234E+0	1.035260E+0	9.816092E-1	1.016141E+0	1.023490E+0	1.038008E+0	1.057813E+0	1.010865E+0	9.591155E-1	1.060399E+0	1.103830E+0	1.051144E+0	1.037125E+0	9.940262E-1	1.091450E+0	1.027422E+0	1.078346E+0	1.005378E+0	1.013425E+0	9.877511E-1	1.037592E+0	1.013383E+0	1.065429E+0	1.025126E+0	1.024158E+0	1.008206E+0
5.387600E+2	1.236359E+0	1.286649E+0	1.216879E+0	1.225605E+0	1.214404E+0	1.231708E+0	1.273903E+0	1.222810E+0	1.194521E+0	1.179425E+0	1.249247E+0	1.218467E+0	1.194634E+0	1.190985E+0	1.207022E+0	1.208645E+0	1.198994E+0	1.204649E+0	1.236593E+0	1.206980E+0	1.251216E+0	1.206618E+0	1.244417E+0	1.206106E+0	1.191378E+0	1.223766E+0	1.260773E+0	1.249759E+0	1.271905E+0	1.295992E+0	1.233284E+0	1.226992E+0	1.237385E+0	1.195010E+0	1.234036E+0	1.245743E+0	1.225270E+0	1.224385E+0	1.209589E+0	1.235171E+0	1.200380E+0	1.252882E+0	1.221010E+0	1.289823E+0	1.254503E+0	1.216583E+0	1.248884E+0	1.231314E+0	1.231037E+0	1.234860E+0	1.241003E+0	1.224296E+0	1.213252E+0	1.209757E+0	1.226775E+0	1.203581E+0	1.202179E+0	1.196206E+0	1.179372E+0	1.279886E+0	1.228835E+0	1.204696E+0	1.194488E+0	1.296289E+0	1.205422E+0	1.191648E+0	1.240600E+0	1.238260E+0	1.217400E+0	1.226573E+0	1.267990E+0	1.275417E+0	1.166091E+0	1.201900E+0	1.253910E+0	1.247870E+0	1.180834E+0	1.189420E+0	1.263182E+0	1.213779E+0	1.291028E+0	1.196937E+0	1.240275E+0	1.176870E+0	1.227902E+0	1.204258E+0	1.211482E+0	1.231812E+0	1.258262E+0	1.189782E+0	1.241757E+0	1.291463E+0	1.236456E+0	1.177509E+0	1.257925E+0	1.219725E+0	1.282101E+0	1.232641E+0	1.219459E+0	1.241661E+0	1.218042E+0	1.208146E+0	1.285218E+0	1.204843E+0	1.241976E+0	1.283009E+0	1.258252E+0	1.223483E+0	1.205845E+0	1.211214E+0	1.183875E+0	1.218677E+0	1.243752E+0	1.207239E+0	1.181315E+0	1.178061E+0	1.264298E+0	1.203821E+0	1.276253E+0	1.258756E+0	1.204588E+0	1.209358E+0	1.215192E+0	1.259399E+0	1.231078E+0	1.183814E+0	1.212568E+0	1.253837E+0	1.227527E+0	1.242856E+0	1.225975E+0	1.215708E+0	1.217416E+0	1.220151E+0	1.248862E+0	1.267440E+0	1.217737E+0	1.186083E+0	1.194522E+0	1.215837E+0	1.212467E+0	1.207244E+0	1.247594E+0	1.137863E+0	1.270672E+0	1.238194E+0	1.274538E+0	1.201647E+0	1.175761E+0	1.213141E+0	1.295353E+0	1.211579E+0	1.286422E+0	1.230486E+0	1.229761E+0	1.263170E+0	1.228149E+0	1.266873E+0	1.230972E+0	1.228439E+0	1.298428E+0	1.212075E+0	1.245427E+0	1.255731E+0	1.269919E+0	1.183561E+0
5.390390E+2	1.487271E+0	1.469278E+0	1.482498E+0	1.432540E+0	1.401805E+0	1.431173E+0	1.519722E+0	1.480588E+0	1.434543E+0	1.449951E+0	1.457638E+0	1.471363E+0	1.441929E+0	1.433292E+0	1.418635E+0	1.471732E+0	1.501215E+0	1.428341E+0	1.494229E+0	1.440973E+0	1.409731E+0	1.431124E+0	1.434196E+0	1.462638E+0	1.458513E+0	1.445487E+0	1.435626E+0	1.445541E+0	1.506938E+0	1.495676E+0	1.437815E+0	1.423419E+0	1.511448E+0	1.417798E+0	1.495150E+0	1.448330E+0	1.448409E+0	1.441304E+0	1.498441E+0	1.409304E+0	1.504934E+0	1.410134E+0	1.424413E+0	1.410094E+0	1.463251E+0	1.458122E+0	1.442221E+0	1.426491E+0	1.471517E+0	1.430938E+0	1.523784E+0	1.468278E+0	1.460855E+0	1.465704E+0	1.464204E+0	1.488696E+0	1.550083E+0	1.349343E+0	1.445599E+0	1.410365E+0	1.447332E+0	1.464854E+0	1.441278E+0	1.504189E+0	1.419475E+0	1.446248E+0	1.426802E+0	1.390812E+0	1.428505E+0	1.470293E+0	1.489508E+0	1.436095E+0	1.436697E+0	1.411267E+0	1.457694E+0	1.415774E+0	1.384940E+0	1.428043E+0	1.487494E+0	1.472702E+0	1.472767E+0	1.468760E+0	1.454220E+0	1.401267E+0	1.448972E+0	1.448054E+0	1.513959E+0	1.425006E+0	1.425695E+0	1.417779E+0	1.460462E+0	1.445559E+0	1.437869E+0	1.412468E+0	1.404517E+0	1.409956E+0	1.440303E+0	1.375851E+0	1.444369E+0	1.381771E+0	1.452820E+0	1.441046E+0	1.511436E+0	1.408346E+0	1.424207E+0	1.413538E+0	1.418151E+0	1.387677E+0	1.454982E+0	1.420824E+0	1.434258E+0	1.420698E+0	1.437506E+0	1.438633E+0	1.389124E+0	1.489700E+0	1.419162E+0	1.378901E+0	1.388902E+0	1.472651E+0	1.435298E+0	1.471798E+0	1.428941E+0	1.435435E+0	1.484270E+0	1.443074E+0	1.447077E+0	1.494221E+0	1.488921E+0	1.403771E+0	1.463905E+0	1.383512E+0	1.447627E+0	1.432300E+0	1.462669E+0	1.430270E+0	1.469942E+0	1.416950E+0	1.503290E+0	1.441627E+0	1.419550E+0	1.381466E+0	1.472532E+0	1.440093E+0	1.465469E+0	1.399543E+0	1.511316E+0	1.389154E+0	1.394623E+0	1.441003E+0	1.484223E+0	1.436338E+0	1.463898E+0	1.422777E+0	1.485984E+0	1.407209E+0	1.486900E+0	1.396701E+0	1.416466E+0	1.402843E+0	1.465775E+0	1.374670E+0	1.401567E+0	1.404193E+0	1.420804E+0	1.340721E+0
5.392720E+2	1.703705E+0	1.661241E+0	1.692725E+0	1.715137E+0	1.597951E+0	1.700006E+0	1.682497E+0	1.673734E+0	1.601704E+0	1.605285E+0	1.668952E+0	1.691395E+0	1.663147E+0	1.586157E+0	1.709001E+0	1.640714E+0	1.660600E+0	1.659102E+0	1.662449E+0	1.675057E+0	1.708642E+0	1.681587E+0	1.660159E+0	1.721412E+0	1.671516E+0	1.651062E+0	1.747889E+0	1.605889E+0	1.710521E+0	1.699063E+0	1.650269E+0	1.649322E+0	1.760136E+0	1.613287E+0	1.675279E+0	1.678280E+0	1.675355E+0	1.648621E+0	1.644183E+0	1.636422E+0	1.649806E+0	1.730934E+0	1.692313E+0	1.642994E+0	1.705894E+0	1.660242E+0	1.707261E+0	1.646558E+0	1.670146E+0	1.629461E+0	1.682980E+0	1.709415E+0	1.632978E+0	1.690602E+0	1.649756E+0	1.721534E+0	1.621768E+0	1.631654E+0	1.620505E+0	1.681386E+0	1.683089E+0	1.610289E+0	1.621403E+0	1.710418E+0	1.631889E+0	1.714557E+0	1.670080E+0	1.711808E+0	1.687834E+0	1.597745E+0	1.703354E+0	1.640498E+0	1.590881E+0	1.567078E+0	1.689972E+0	1.657065E+0	1.666892E+0	1.584108E+0	1.617556E+0	1.579482E+0	1.725382E+0	1.647154E+0	1.610228E+0	1.622265E+0	1.620313E+0	1.611003E+0	1.736071E+0	1.658220E+0	1.635042E+0	1.641035E+0	1.657390E+0	1.666716E+0	1.636469E+0	1.584352E+0	1.618439E+0	1.670602E+0	1.704687E+0	1.661277E+0	1.695513E+0	1.630327E+0	1.674253E+0	1.680398E+0	1.707865E+0	1.628910E+0	1.561757E+0	1.673699E+0	1.727891E+0	1.620078E+0	1.620453E+0	1.615229E+0	1.625613E+0	1.667220E+0	1.617032E+0	1.650893E+0	1.593703E+0	1.647521E+0	1.628513E+0	1.721142E+0	1.675606E+0	1.675547E+0	1.644267E+0	1.633102E+0	1.661124E+0	1.632863E+0	1.688469E+0	1.623312E+0	1.612011E+0	1.667244E+0	1.633256E+0	1.621596E+0	1.611944E+0	1.599373E+0	1.643361E+0	1.640036E+0	1.686366E+0	1.728280E+0	1.593986E+0	1.615527E+0	1.610736E+0	1.685079E+0	1.663240E+0	1.609790E+0	1.559039E+0	1.586726E+0	1.638926E+0	1.605637E+0	1.701410E+0	1.681613E+0	1.637673E+0	1.614032E+0	1.655454E+0	1.645849E+0	1.668541E+0	1.630860E+0	1.614803E+0	1.640847E+0	1.640196E+0	1.618668E+0	1.630452E+0	1.597010E+0	1.652137E+0	1.532376E+0	1.735730E+0	1.610011E+0	1.598365E+0	1.605084E+0
5.395260E+2	1.841777E+0	1.927642E+0	1.946182E+0	1.931116E+0	1.927634E+0	1.861498E+0	1.973314E+0	1.890413E+0	1.890253E+0	1.823658E+0	1.799848E+0	1.901558E+0	1.952566E+0	1.946631E+0	1.900080E+0	1.882591E+0	1.893679E+0	1.848427E+0	1.816418E+0	1.863532E+0	1.828966E+0	1.856530E+0	1.899533E+0	1.880440E+0	1.933411E+0	1.807995E+0	1.927527E+0	1.869308E+0	1.935769E+0	1.844954E+0	1.855066E+0	1.928100E+0	1.953825E+0	1.864408E+0	1.980146E+0	1.802350E+0	1.876615E+0	1.812455E+0	1.856700E+0	1.807228E+0	1.835602E+0	1.874918E+0	1.864480E+0	1.878218E+0	1.920826E+0	1.884047E+0	1.837064E+0	1.818101E+0	1.941813E+0	1.866580E+0	1.830711E+0	1.852260E+0	1.908789E+0	1.876445E+0	1.867468E+0	1.869646E+0	1.808589E+0	1.834669E+0	1.799702E+0	1.884708E+0	1.945684E+0	1.827371E+0	1.838982E+0	1.879296E+0	1.878054E+0	1.833046E+0	1.833655E+0	1.882762E+0	1.809753E+0	1.830177E+0	1.927613E+0	1.859438E+0	1.792871E+0	1.757871E+0	1.866875E+0	1.836920E+0	1.871964E+0	1.775514E+0	1.892700E+0	1.858536E+0	1.893203E+0	1.767855E+0	1.819113E+0	1.823296E+0	1.890747E+0	1.891125E+0	1.864853E+0	1.838097E+0	1.839778E+0	1.759929E+0	1.825420E+0	1.860289E+0	1.875520E+0	1.802729E+0	1.902975E+0	1.807010E+0	1.892231E+0	1.858800E+0	1.822437E+0	1.878101E+0	1.871259E+0	1.866497E+0	1.909441E+0	1.847188E+0	1.795205E+0	1.822654E+0	1.843739E+0	1.874856E+0	1.859652E+0	1.815712E+0	1.788604E+0	1.838770E+0	1.858794E+0	1.796790E+0	1.800910E+0	1.864513E+0	1.756539E+0	1.841899E+0	1.879610E+0	1.860587E+0	1.811807E+0	1.855324E+0	1.793057E+0	1.878384E+0	1.882336E+0	1.762716E+0	1.829095E+0	1.849636E+0	1.834409E+0	1.832345E+0	1.796298E+0	1.754066E+0	1.764642E+0	1.859637E+0	1.818336E+0	1.899640E+0	1.780857E+0	1.813970E+0	1.800210E+0	1.861226E+0	1.821342E+0	1.809799E+0	1.786706E+0	1.815981E+0	1.809628E+0	1.858715E+0	1.865088E+0	1.838581E+0	1.801743E+0	1.812753E+0	1.857030E+0	1.825588E+0	1.842868E+0	1.804395E+0	1.926928E+0	1.825541E+0	1.792037E+0	1.771184E+0	1.838164E+0	1.775800E+0	1.908785E+0	1.740957E+0	1.843483E+0	1.778011E+0	1.722700E+0	1.896514E+0
5.397910E+2	2.039174E+0	2.090892E+0	2.086464E+0	1.985724E+0	1.992204E+0	2.032686E+0	2.071789E+0	2.022260E+0	2.029199E+0	1.978987E+0	2.105307E+0	2.060785E+0	2.074787E+0	2.050959E+0	2.054006E+0	2.068290E+0	2.044164E+0	2.063137E+0	2.092508E+0	1.975336E+0	2.077908E+0	2.100567E+0	2.054960E+0	2.090371E+0	2.095518E+0	2.052604E+0	2.055976E+0	1.999005E+0	2.024049E+0	2.049254E+0	2.019140E+0	2.029706E+0	2.077363E+0	2.000915E+0	1.984305E+0	2.053500E+0	2.002549E+0	1.970148E+0	2.063694E+0	2.013143E+0	2.006374E+0	2.016301E+0	2.048643E+0	2.043106E+0	2.088443E+0	2.026205E+0	2.005816E+0	2.006676E+0	2.048936E+0	2.054720E+0	2.031281E+0	2.024718E+0	1.994450E+0	1.981385E+0	2.040559E+0	2.049552E+0	2.013924E+0	1.990993E+0	2.027074E+0	2.095370E+0	2.050516E+0	1.940239E+0	2.102360E+0	2.074433E+0	1.968155E+0	2.032538E+0	1.961478E+0	2.027406E+0	1.920731E+0	1.988204E+0	2.087010E+0	2.085394E+0	1.982251E+0	1.935291E+0	2.123958E+0	2.040153E+0	1.996639E+0	1.869817E+0	1.987957E+0	1.992996E+0	2.151782E+0	2.031044E+0	2.010659E+0	1.959923E+0	2.013505E+0	1.975477E+0	1.940538E+0	2.025666E+0	1.975725E+0	2.079890E+0	1.981061E+0	1.970518E+0	1.993958E+0	1.926609E+0	1.990032E+0	1.955353E+0	1.996135E+0	1.979266E+0	2.018298E+0	1.959600E+0	1.970002E+0	1.983600E+0	2.040825E+0	1.991340E+0	1.918937E+0	1.976763E+0	2.064146E+0	1.972887E+0	2.019781E+0	1.918030E+0	2.049924E+0	1.977089E+0	1.992615E+0	2.012838E+0	1.999867E+0	2.043318E+0	1.949917E+0	1.910036E+0	2.019076E+0	2.065498E+0	2.023506E+0	2.004543E+0	1.951984E+0	2.058018E+0	2.001332E+0	1.923219E+0	1.940849E+0	2.105700E+0	1.990306E+0	1.967869E+0	2.002551E+0	1.843118E+0	1.961305E+0	1.940515E+0	1.981045E+0	1.963359E+0	1.971985E+0	1.941817E+0	2.020692E+0	1.984735E+0	1.946955E+0	1.926184E+0	2.022428E+0	1.968193E+0	1.997320E+0	2.000080E+0	2.051308E+0	1.978078E+0	1.994845E+0	1.919599E+0	2.075927E+0	1.976693E+0	1.977568E+0	2.000776E+0	2.083703E+0	1.950553E+0	2.005782E+0	1.932875E+0	1.967268E+0	1.868783E+0	2.034147E+0	1.931845E+0	2.010939E+0	1.934713E+0	1.957785E+0	2.005576E+0
5.400140E+2	2.109985E+0	2.102798E+0	2.024968E+0	2.167351E+0	2.005622E+0	2.066375E+0	2.174853E+0	2.063521E+0	2.045398E+0	2.074409E+0	2.135363E+0	2.073948E+0	2.032445E+0	2.030535E+0	2.132756E+0	2.077244E+0	2.084504E+0	2.075318E+0	2.060717E+0	2.060430E+0	2.080257E+0	2.049107E+0	2.052435E+0	2.113518E+0	2.098814E+0	2.049833E+0	2.147147E+0	2.050689E+0	2.067283E+0	2.065263E+0	2.058636E+0	2.095831E+0	2.164568E+0	2.010031E+0	2.061638E+0	1.995179E+0	2.069158E+0	2.043468E+0	2.121813E+0	2.019467E+0	2.027684E+0	2.033585E+0	2.116257E+0	2.027962E+0	2.065629E+0	2.085462E+0	2.065585E+0	2.011187E+0	2.130840E+0	2.067748E+0	2.138977E+0	2.061917E+0	2.104703E+0	2.055580E+0	2.022117E+0	2.073872E+0	2.045364E+0	2.006626E+0	2.057852E+0	2.123462E+0	2.021734E+0	2.026514E+0	2.030488E+0	2.053063E+0	1.995470E+0	2.016161E+0	2.085642E+0	2.082672E+0	2.116502E+0	2.010393E+0	2.106652E+0	2.007765E+0	1.996369E+0	1.944705E+0	2.023507E+0	2.063392E+0	2.038848E+0	2.009819E+0	2.088887E+0	2.058955E+0	2.076177E+0	2.057229E+0	2.027551E+0	1.973239E+0	2.106376E+0	1.973739E+0	2.080865E+0	1.972474E+0	1.981448E+0	2.040412E+0	2.028367E+0	1.938209E+0	2.043605E+0	1.961567E+0	2.035190E+0	1.951903E+0	2.013525E+0	2.014759E+0	2.028920E+0	2.035709E+0	2.022131E+0	2.059900E+0	2.067370E+0	2.020932E+0	2.021733E+0	1.961148E+0	2.038288E+0	2.037566E+0	2.039713E+0	1.994759E+0	1.958540E+0	2.028864E+0	1.971757E+0	1.971333E+0	1.988526E+0	2.112728E+0	1.985644E+0	1.988224E+0	2.062700E+0	2.000794E+0	2.021028E+0	2.003919E+0	2.077638E+0	2.050059E+0	2.001060E+0	2.007276E+0	1.989918E+0	2.070338E+0	2.041502E+0	2.025204E+0	1.996838E+0	2.023828E+0	1.940008E+0	1.991961E+0	2.043562E+0	2.046542E+0	1.974124E+0	2.023250E+0	1.993825E+0	2.060635E+0	2.004029E+0	1.970993E+0	2.029547E+0	1.933055E+0	2.002392E+0	1.991394E+0	2.017919E+0	1.993924E+0	2.002650E+0	2.066871E+0	2.050522E+0	1.949411E+0	2.052454E+0	1.988574E+0	2.134813E+0	2.013643E+0	2.009707E+0	2.010608E+0	2.016304E+0	1.955565E+0	2.037798E+0	1.943745E+0	1.926163E+0	1.987394E+0	2.072332E+0	1.946908E+0
5.402630E+2	2.056838E+0	2.080013E+0	2.061962E+0	2.082151E+0	2.076005E+0	2.075419E+0	2.119205E+0	2.092587E+0	2.034823E+0	2.084214E+0	2.032471E+0	2.080894E+0	2.114958E+0	2.073463E+0	2.172029E+0	1.992286E+0	2.066871E+0	2.040338E+0	2.043353E+0	2.043691E+0	2.057632E+0	2.068226E+0	1.995211E+0	2.073130E+0	2.067750E+0	1.977702E+0	2.080328E+0	2.013738E+0	2.057527E+0	2.128172E+0	2.007882E+0	2.009376E+0	2.097931E+0	2.010947E+0	2.066577E+0	2.053262E+0	2.126934E+0	2.020556E+0	2.082231E+0	2.038903E+0	1.981489E+0	2.065805E+0	1.991471E+0	1.987943E+0	2.104730E+0	1.968410E+0	2.107522E+0	2.057016E+0	2.047582E+0	2.066881E+0	2.045830E+0	2.022495E+0	2.043425E+0	1.985015E+0	2.043984E+0	2.071274E+0	2.055984E+0	2.038453E+0	2.026555E+0	2.030778E+0	2.009126E+0	1.954024E+0	2.051353E+0	2.083121E+0	1.943763E+0	1.979600E+0	2.029675E+0	2.070607E+0	2.030493E+0	2.020359E+0	2.107237E+0	2.098026E+0	1.970784E+0	1.974227E+0	2.072456E+0	1.961736E+0	1.989407E+0	1.942365E+0	2.034912E+0	2.087840E+0	1.997990E+0	2.005099E+0	2.077134E+0	1.982670E+0	1.989857E+0	2.003145E+0	2.041152E+0	2.031125E+0	2.059630E+0	2.008812E+0	2.003007E+0	2.043806E+0	1.997873E+0	1.918069E+0	2.064462E+0	1.930673E+0	1.982583E+0	2.052635E+0	2.004127E+0	2.039434E+0	2.003521E+0	1.915875E+0	2.009096E+0	2.009135E+0	1.923948E+0	1.940647E+0	2.060829E+0	2.017882E+0	2.002997E+0	1.960830E+0	1.975559E+0	2.018460E+0	1.960794E+0	1.997438E+0	1.971747E+0	1.966095E+0	1.980482E+0	1.925834E+0	2.070345E+0	2.029250E+0	1.969922E+0	1.983788E+0	1.963707E+0	1.960260E+0	2.009693E+0	1.977544E+0	1.977139E+0	2.054824E+0	2.034221E+0	1.946473E+0	1.943669E+0	1.986779E+0	1.994068E+0	1.982620E+0	1.987606E+0	2.012241E+0	1.981509E+0	1.929528E+0	2.045109E+0	1.963452E+0	1.977960E+0	1.987274E+0	1.985347E+0	1.961093E+0	2.000789E+0	1.947622E+0	1.927970E+0	1.973869E+0	1.899397E+0	1.939513E+0	2.061840E+0	1.948486E+0	2.000625E+0	1.976029E+0	2.005557E+0	2.039295E+0	2.011838E+0	1.952839E+0	2.004886E+0	1.954681E+0	1.964409E+0	1.924863E+0	2.011541E+0	2.066968E+0	2.003123E+0	1.925247E+0
5.405080E+2	1.983612E+0	1.966219E+0	1.910147E+0	1.959020E+0	1.908279E+0	1.961929E+0	1.964754E+0	1.968746E+0	1.913100E+0	1.942200E+0	1.920369E+0	1.999081E+0	1.981223E+0	1.911407E+0	2.011542E+0	1.973360E+0	2.012244E+0	1.968716E+0	1.964503E+0	1.930529E+0	1.953173E+0	2.002096E+0	2.068253E+0	1.941683E+0	2.014942E+0	1.920711E+0	2.020856E+0	1.913331E+0	2.037053E+0	2.020349E+0	1.838797E+0	1.984796E+0	2.051478E+0	1.967584E+0	2.009559E+0	1.921215E+0	1.949328E+0	1.930005E+0	1.993396E+0	1.918127E+0	1.934408E+0	1.969035E+0	1.956336E+0	1.963695E+0	1.929917E+0	1.963367E+0	2.003973E+0	1.910510E+0	1.975053E+0	1.975374E+0	1.950714E+0	1.923961E+0	1.952563E+0	1.913361E+0	1.966909E+0	1.973673E+0	1.959650E+0	1.951814E+0	1.958158E+0	1.973689E+0	1.949653E+0	1.904294E+0	1.926710E+0	1.980936E+0	1.972171E+0	1.943840E+0	1.967034E+0	1.924786E+0	1.913859E+0	1.941844E+0	1.954570E+0	1.977385E+0	1.837768E+0	1.932531E+0	1.999927E+0	1.975812E+0	1.914861E+0	1.889290E+0	1.939293E+0	1.940962E+0	2.048242E+0	1.913681E+0	1.913126E+0	1.910393E+0	1.973950E+0	1.911824E+0	1.940804E+0	1.948302E+0	1.971226E+0	1.922348E+0	1.946900E+0	1.851823E+0	1.966217E+0	1.897442E+0	1.908974E+0	1.955523E+0	1.979433E+0	1.930703E+0	1.990425E+0	1.890287E+0	1.910940E+0	1.978842E+0	1.973061E+0	1.950798E+0	1.814946E+0	1.927839E+0	1.981766E+0	1.936145E+0	1.913563E+0	1.884769E+0	1.944988E+0	1.945157E+0	1.996981E+0	1.902569E+0	1.917503E+0	1.858320E+0	1.885714E+0	1.940332E+0	1.958517E+0	1.973619E+0	1.892698E+0	1.965006E+0	1.972904E+0	1.909797E+0	1.906542E+0	1.957753E+0	1.972993E+0	1.905974E+0	1.918620E+0	1.882100E+0	1.899939E+0	1.944843E+0	1.870728E+0	1.924960E+0	1.883074E+0	1.939996E+0	1.885810E+0	1.882264E+0	1.853731E+0	1.878999E+0	1.920517E+0	1.867097E+0	1.910087E+0	1.858232E+0	1.998172E+0	1.894186E+0	1.960464E+0	1.914160E+0	1.950624E+0	1.911947E+0	1.921951E+0	1.983059E+0	1.929594E+0	1.858002E+0	1.911524E+0	1.882227E+0	1.936251E+0	1.824064E+0	1.845625E+0	1.828232E+0	1.863820E+0	1.845192E+0	1.898153E+0	1.888169E+0	1.887990E+0	1.877553E+0
5.407630E+2	1.926331E+0	1.892227E+0	1.916719E+0	1.875822E+0	1.814181E+0	1.859766E+0	1.873301E+0	1.869160E+0	1.901517E+0	1.801845E+0	1.876466E+0	1.917409E+0	1.910725E+0	1.870135E+0	1.927107E+0	1.851667E+0	1.835268E+0	1.818279E+0	1.875686E+0	1.869165E+0	1.841325E+0	1.886127E+0	1.856747E+0	1.855147E+0	1.927829E+0	1.907580E+0	1.894265E+0	1.823777E+0	1.900918E+0	1.888556E+0	1.853810E+0	1.879904E+0	1.902185E+0	1.836763E+0	1.874900E+0	1.915012E+0	1.860175E+0	1.828511E+0	1.901108E+0	1.868751E+0	1.815622E+0	1.869706E+0	1.830159E+0	1.834291E+0	1.905750E+0	1.836085E+0	1.817737E+0	1.814865E+0	1.895883E+0	1.879228E+0	1.829380E+0	1.853517E+0	1.898315E+0	1.834137E+0	1.873267E+0	1.896657E+0	1.915433E+0	1.845221E+0	1.853195E+0	1.804973E+0	1.927594E+0	1.831660E+0	1.794322E+0	1.907384E+0	1.838013E+0	1.907014E+0	1.880115E+0	1.907386E+0	1.868712E+0	1.861067E+0	1.910958E+0	1.827209E+0	1.825165E+0	1.762743E+0	1.896521E+0	1.830723E+0	1.850927E+0	1.786434E+0	1.854894E+0	1.824622E+0	1.954551E+0	1.839544E+0	1.786944E+0	1.857997E+0	1.845770E+0	1.854924E+0	1.872760E+0	1.881395E+0	1.811355E+0	1.815843E+0	1.839954E+0	1.892871E+0	1.861031E+0	1.774534E+0	1.826727E+0	1.802301E+0	1.831516E+0	1.832679E+0	1.825478E+0	1.867674E+0	1.818273E+0	1.817227E+0	1.843296E+0	1.811664E+0	1.807558E+0	1.844706E+0	1.940645E+0	1.849945E+0	1.911455E+0	1.755323E+0	1.810482E+0	1.902190E+0	1.886779E+0	1.838863E+0	1.826273E+0	1.852455E+0	1.861491E+0	1.844256E+0	1.856564E+0	1.871808E+0	1.845864E+0	1.838800E+0	1.890767E+0	1.917215E+0	1.801270E+0	1.862715E+0	1.840495E+0	1.830365E+0	1.874557E+0	1.863934E+0	1.894757E+0	1.776775E+0	1.800488E+0	1.805962E+0	1.800707E+0	1.846297E+0	1.814560E+0	1.837860E+0	1.843783E+0	1.830562E+0	1.824798E+0	1.780652E+0	1.907284E+0	1.783042E+0	1.821126E+0	1.743355E+0	1.897554E+0	1.821607E+0	1.808112E+0	1.786095E+0	1.897451E+0	1.912502E+0	1.847945E+0	1.799925E+0	1.873487E+0	1.853057E+0	1.833385E+0	1.788862E+0	1.796558E+0	1.751630E+0	1.852255E+0	1.775641E+0	1.860985E+0	1.820561E+0	1.818876E+0	1.738132E+0
5.410190E+2	1.867396E+0	1.820300E+0	1.816907E+0	1.763566E+0	1.713913E+0	1.846098E+0	1.798760E+0	1.845742E+0	1.814179E+0	1.790089E+0	1.807901E+0	1.859927E+0	1.846240E+0	1.789227E+0	1.786341E+0	1.743228E+0	1.764838E+0	1.766691E+0	1.726051E+0	1.745519E+0	1.707337E+0	1.798858E+0	1.772469E+0	1.747447E+0	1.817571E+0	1.764177E+0	1.774105E+0	1.774341E+0	1.848436E+0	1.790867E+0	1.802781E+0	1.754287E+0	1.878678E+0	1.759274E+0	1.852666E+0	1.769439E+0	1.768011E+0	1.707835E+0	1.818226E+0	1.760263E+0	1.735456E+0	1.806390E+0	1.804369E+0	1.820053E+0	1.842094E+0	1.771738E+0	1.805891E+0	1.795951E+0	1.775968E+0	1.825881E+0	1.816471E+0	1.806745E+0	1.842923E+0	1.765773E+0	1.808730E+0	1.835461E+0	1.772977E+0	1.774852E+0	1.811331E+0	1.847958E+0	1.803997E+0	1.692419E+0	1.840786E+0	1.835304E+0	1.792510E+0	1.802982E+0	1.777319E+0	1.818576E+0	1.743253E+0	1.784328E+0	1.791771E+0	1.870172E+0	1.770739E+0	1.716475E+0	1.781227E+0	1.760280E+0	1.795358E+0	1.734229E+0	1.856660E+0	1.744973E+0	1.794148E+0	1.747808E+0	1.739107E+0	1.723398E+0	1.786245E+0	1.757728E+0	1.781277E+0	1.804772E+0	1.792721E+0	1.714958E+0	1.807461E+0	1.696625E+0	1.746493E+0	1.664633E+0	1.809297E+0	1.772723E+0	1.788944E+0	1.771741E+0	1.804638E+0	1.826738E+0	1.814938E+0	1.795991E+0	1.825069E+0	1.762264E+0	1.757272E+0	1.789069E+0	1.799889E+0	1.761552E+0	1.798497E+0	1.672421E+0	1.736116E+0	1.772439E+0	1.798557E+0	1.762928E+0	1.707158E+0	1.735397E+0	1.772043E+0	1.704660E+0	1.815299E+0	1.862584E+0	1.786516E+0	1.746197E+0	1.817762E+0	1.744088E+0	1.718592E+0	1.795628E+0	1.708051E+0	1.804769E+0	1.808083E+0	1.734572E+0	1.744636E+0	1.754873E+0	1.761236E+0	1.689220E+0	1.724605E+0	1.772170E+0	1.734111E+0	1.753429E+0	1.813483E+0	1.795472E+0	1.819880E+0	1.733692E+0	1.768294E+0	1.738202E+0	1.763678E+0	1.732851E+0	1.722753E+0	1.763399E+0	1.735102E+0	1.654783E+0	1.815416E+0	1.747969E+0	1.795211E+0	1.726215E+0	1.803457E+0	1.845469E+0	1.776631E+0	1.682085E+0	1.715489E+0	1.687130E+0	1.762421E+0	1.698019E+0	1.772498E+0	1.722900E+0	1.727884E+0	1.680652E+0
5.412640E+2	1.760951E+0	1.715264E+0	1.749659E+0	1.666091E+0	1.654403E+0	1.717669E+0	1.746172E+0	1.772080E+0	1.670372E+0	1.662625E+0	1.699091E+0	1.731520E+0	1.775942E+0	1.643336E+0	1.751614E+0	1.714311E+0	1.758870E+0	1.664948E+0	1.733200E+0	1.701702E+0	1.709931E+0	1.719964E+0	1.719205E+0	1.741430E+0	1.718407E+0	1.686333E+0	1.743506E+0	1.683699E+0	1.714363E+0	1.718471E+0	1.696794E+0	1.667755E+0	1.856389E+0	1.753761E+0	1.723133E+0	1.699594E+0	1.731167E+0	1.669858E+0	1.720081E+0	1.715177E+0	1.682833E+0	1.794026E+0	1.777111E+0	1.777870E+0	1.731924E+0	1.690884E+0	1.683666E+0	1.676036E+0	1.737523E+0	1.724029E+0	1.749939E+0	1.716392E+0	1.730509E+0	1.709210E+0	1.688599E+0	1.798603E+0	1.685002E+0	1.620026E+0	1.683631E+0	1.763955E+0	1.776463E+0	1.704971E+0	1.723342E+0	1.743246E+0	1.710873E+0	1.774460E+0	1.613067E+0	1.771617E+0	1.712338E+0	1.649663E+0	1.719642E+0	1.734454E+0	1.745472E+0	1.633520E+0	1.724657E+0	1.655922E+0	1.634607E+0	1.688466E+0	1.730172E+0	1.776164E+0	1.784342E+0	1.701208E+0	1.655340E+0	1.653922E+0	1.718578E+0	1.703579E+0	1.758372E+0	1.760761E+0	1.726047E+0	1.668928E+0	1.718391E+0	1.614344E+0	1.705061E+0	1.663465E+0	1.678776E+0	1.675067E+0	1.715163E+0	1.645767E+0	1.714159E+0	1.724429E+0	1.719072E+0	1.657977E+0	1.707471E+0	1.673598E+0	1.666252E+0	1.726021E+0	1.765289E+0	1.685719E+0	1.716225E+0	1.644522E+0	1.685917E+0	1.759944E+0	1.680398E+0	1.654002E+0	1.640273E+0	1.703343E+0	1.705964E+0	1.687634E+0	1.682723E+0	1.741526E+0	1.627325E+0	1.671403E+0	1.700780E+0	1.711602E+0	1.732155E+0	1.722527E+0	1.728993E+0	1.692257E+0	1.765718E+0	1.660211E+0	1.704672E+0	1.721055E+0	1.640399E+0	1.663092E+0	1.686124E+0	1.725183E+0	1.707332E+0	1.683867E+0	1.724319E+0	1.699897E+0	1.698260E+0	1.675502E+0	1.667375E+0	1.680842E+0	1.738710E+0	1.649048E+0	1.701410E+0	1.761920E+0	1.633156E+0	1.663069E+0	1.632261E+0	1.762971E+0	1.642784E+0	1.682645E+0	1.622934E+0	1.674442E+0	1.621276E+0	1.717235E+0	1.681720E+0	1.654837E+0	1.736862E+0	1.702288E+0	1.715252E+0	1.653810E+0	1.673216E+0	1.587390E+0
5.415140E+2	1.680767E+0	1.691775E+0	1.661732E+0	1.712407E+0	1.669038E+0	1.644296E+0	1.727338E+0	1.596881E+0	1.658761E+0	1.674061E+0	1.623486E+0	1.623098E+0	1.632118E+0	1.618009E+0	1.652235E+0	1.674326E+0	1.619577E+0	1.610220E+0	1.651560E+0	1.672388E+0	1.682772E+0	1.705056E+0	1.603084E+0	1.698545E+0	1.655674E+0	1.629424E+0	1.597436E+0	1.633404E+0	1.692605E+0	1.632304E+0	1.599960E+0	1.663789E+0	1.703963E+0	1.676496E+0	1.643593E+0	1.658024E+0	1.628074E+0	1.582116E+0	1.633850E+0	1.648652E+0	1.628106E+0	1.623535E+0	1.601917E+0	1.661276E+0	1.650754E+0	1.607753E+0	1.637289E+0	1.610281E+0	1.638571E+0	1.666279E+0	1.654200E+0	1.642224E+0	1.619774E+0	1.612503E+0	1.627313E+0	1.675695E+0	1.562998E+0	1.606964E+0	1.627275E+0	1.650607E+0	1.650397E+0	1.571726E+0	1.662857E+0	1.666107E+0	1.730595E+0	1.659062E+0	1.652076E+0	1.687792E+0	1.658405E+0	1.636516E+0	1.596145E+0	1.677529E+0	1.607746E+0	1.554736E+0	1.673522E+0	1.623706E+0	1.626220E+0	1.517985E+0	1.601449E+0	1.649243E+0	1.707807E+0	1.597814E+0	1.563516E+0	1.603475E+0	1.621795E+0	1.626846E+0	1.587436E+0	1.649871E+0	1.640119E+0	1.596061E+0	1.611911E+0	1.569378E+0	1.621607E+0	1.582540E+0	1.609009E+0	1.541356E+0	1.625069E+0	1.601120E+0	1.597574E+0	1.580110E+0	1.613180E+0	1.641214E+0	1.617977E+0	1.650559E+0	1.589923E+0	1.603753E+0	1.672036E+0	1.599653E+0	1.603898E+0	1.610675E+0	1.624844E+0	1.604253E+0	1.697061E+0	1.627436E+0	1.597667E+0	1.621798E+0	1.570785E+0	1.574552E+0	1.632131E+0	1.630156E+0	1.628843E+0	1.600345E+0	1.607069E+0	1.643909E+0	1.617253E+0	1.611500E+0	1.582227E+0	1.644666E+0	1.584783E+0	1.533665E+0	1.644264E+0	1.587958E+0	1.629610E+0	1.582700E+0	1.600988E+0	1.668042E+0	1.590656E+0	1.588662E+0	1.663801E+0	1.629718E+0	1.651024E+0	1.542548E+0	1.654897E+0	1.593033E+0	1.581214E+0	1.576919E+0	1.619349E+0	1.587780E+0	1.636154E+0	1.588389E+0	1.650034E+0	1.610227E+0	1.655109E+0	1.574054E+0	1.632447E+0	1.646471E+0	1.618519E+0	1.577603E+0	1.611110E+0	1.551704E+0	1.613581E+0	1.536656E+0	1.641696E+0	1.681271E+0	1.536512E+0	1.538780E+0
5.417650E+2	1.564894E+0	1.522298E+0	1.553677E+0	1.493648E+0	1.482927E+0	1.540878E+0	1.488170E+0	1.498496E+0	1.519137E+0	1.473834E+0	1.481920E+0	1.538680E+0	1.501793E+0	1.430111E+0	1.471134E+0	1.551116E+0	1.519979E+0	1.519367E+0	1.568653E+0	1.532709E+0	1.473087E+0	1.462511E+0	1.499632E+0	1.522923E+0	1.498762E+0	1.493745E+0	1.563451E+0	1.481145E+0	1.560615E+0	1.510010E+0	1.500457E+0	1.507222E+0	1.625780E+0	1.476262E+0	1.505116E+0	1.536135E+0	1.492962E+0	1.488876E+0	1.498508E+0	1.487703E+0	1.471546E+0	1.565306E+0	1.516084E+0	1.480456E+0	1.510586E+0	1.521793E+0	1.528855E+0	1.523900E+0	1.506615E+0	1.535075E+0	1.519647E+0	1.448526E+0	1.577694E+0	1.504737E+0	1.461984E+0	1.586610E+0	1.510464E+0	1.492848E+0	1.517678E+0	1.580751E+0	1.529227E+0	1.478208E+0	1.491723E+0	1.543323E+0	1.514647E+0	1.512444E+0	1.500571E+0	1.527170E+0	1.470025E+0	1.503259E+0	1.486758E+0	1.614108E+0	1.499504E+0	1.431456E+0	1.469493E+0	1.548118E+0	1.466401E+0	1.453485E+0	1.474992E+0	1.564045E+0	1.608374E+0	1.418228E+0	1.512317E+0	1.480364E+0	1.511992E+0	1.508376E+0	1.487856E+0	1.510134E+0	1.523895E+0	1.518056E+0	1.441001E+0	1.406084E+0	1.524292E+0	1.443989E+0	1.507143E+0	1.502276E+0	1.541927E+0	1.493929E+0	1.518130E+0	1.523654E+0	1.470180E+0	1.495491E+0	1.490198E+0	1.440878E+0	1.434225E+0	1.503675E+0	1.519836E+0	1.465310E+0	1.503305E+0	1.438195E+0	1.435006E+0	1.518904E+0	1.498769E+0	1.465667E+0	1.461054E+0	1.509180E+0	1.554137E+0	1.466435E+0	1.500110E+0	1.510544E+0	1.473962E+0	1.517256E+0	1.518585E+0	1.548340E+0	1.486136E+0	1.531565E+0	1.544580E+0	1.445499E+0	1.510163E+0	1.470229E+0	1.497668E+0	1.440037E+0	1.475028E+0	1.508330E+0	1.502176E+0	1.426417E+0	1.514893E+0	1.470140E+0	1.472813E+0	1.527715E+0	1.494313E+0	1.506784E+0	1.519030E+0	1.433844E+0	1.517935E+0	1.451787E+0	1.516264E+0	1.525182E+0	1.456762E+0	1.516795E+0	1.583225E+0	1.575419E+0	1.467517E+0	1.507623E+0	1.516824E+0	1.466449E+0	1.521203E+0	1.434735E+0	1.448403E+0	1.478592E+0	1.513521E+0	1.457708E+0	1.514000E+0	1.454903E+0	1.519045E+0	1.468448E+0
5.420110E+2	1.390788E+0	1.344437E+0	1.383124E+0	1.359943E+0	1.351327E+0	1.318792E+0	1.364324E+0	1.379804E+0	1.344186E+0	1.347927E+0	1.329125E+0	1.365777E+0	1.375295E+0	1.377690E+0	1.365864E+0	1.357552E+0	1.381557E+0	1.331758E+0	1.311990E+0	1.341948E+0	1.308463E+0	1.361727E+0	1.380317E+0	1.341745E+0	1.356268E+0	1.347311E+0	1.347338E+0	1.402572E+0	1.376867E+0	1.398396E+0	1.331130E+0	1.310114E+0	1.453090E+0	1.330251E+0	1.378957E+0	1.332169E+0	1.383498E+0	1.378958E+0	1.361208E+0	1.363780E+0	1.344130E+0	1.349027E+0	1.337264E+0	1.373288E+0	1.357784E+0	1.265944E+0	1.340503E+0	1.304619E+0	1.395800E+0	1.393183E+0	1.357296E+0	1.332625E+0	1.350940E+0	1.335018E+0	1.315521E+0	1.399249E+0	1.346386E+0	1.283910E+0	1.350834E+0	1.375468E+0	1.317068E+0	1.265259E+0	1.313134E+0	1.376452E+0	1.391541E+0	1.310314E+0	1.304762E+0	1.393844E+0	1.375973E+0	1.316829E+0	1.338738E+0	1.419156E+0	1.344500E+0	1.296164E+0	1.305104E+0	1.376346E+0	1.318613E+0	1.309119E+0	1.361270E+0	1.373876E+0	1.378499E+0	1.357316E+0	1.288780E+0	1.282206E+0	1.393996E+0	1.305674E+0	1.327274E+0	1.367065E+0	1.314655E+0	1.349371E+0	1.327590E+0	1.337632E+0	1.405279E+0	1.305427E+0	1.344392E+0	1.338211E+0	1.382505E+0	1.313843E+0	1.351296E+0	1.407373E+0	1.389395E+0	1.355956E+0	1.377430E+0	1.326190E+0	1.278180E+0	1.308593E+0	1.353492E+0	1.313761E+0	1.351122E+0	1.308347E+0	1.363590E+0	1.392557E+0	1.333226E+0	1.332185E+0	1.330267E+0	1.354259E+0	1.358009E+0	1.349721E+0	1.386676E+0	1.407637E+0	1.288888E+0	1.357045E+0	1.368835E+0	1.393312E+0	1.337474E+0	1.352179E+0	1.338485E+0	1.349368E+0	1.287946E+0	1.321350E+0	1.384661E+0	1.308051E+0	1.306066E+0	1.323278E+0	1.361413E+0	1.416453E+0	1.294266E+0	1.306215E+0	1.412613E+0	1.332210E+0	1.335935E+0	1.335117E+0	1.421306E+0	1.282864E+0	1.393445E+0	1.300884E+0	1.312456E+0	1.336296E+0	1.368750E+0	1.345917E+0	1.405991E+0	1.349699E+0	1.423360E+0	1.344358E+0	1.429616E+0	1.401872E+0	1.348330E+0	1.306820E+0	1.321376E+0	1.368523E+0	1.379502E+0	1.339885E+0	1.359070E+0	1.348653E+0	1.367411E+0	1.251076E+0
5.422670E+2	1.207986E+0	1.137679E+0	1.183865E+0	1.168668E+0	1.154372E+0	1.181235E+0	1.239715E+0	1.144774E+0	1.136451E+0	1.138722E+0	1.145894E+0	1.181393E+0	1.159985E+0	1.138182E+0	1.163236E+0	1.220779E+0	1.162767E+0	1.121902E+0	1.167800E+0	1.152708E+0	1.178559E+0	1.169792E+0	1.187491E+0	1.175053E+0	1.199252E+0	1.173621E+0	1.245611E+0	1.180717E+0	1.182891E+0	1.191690E+0	1.210143E+0	1.211212E+0	1.209813E+0	1.141345E+0	1.203047E+0	1.146360E+0	1.131038E+0	1.176232E+0	1.146392E+0	1.190388E+0	1.183574E+0	1.208043E+0	1.167926E+0	1.135649E+0	1.178371E+0	1.183223E+0	1.189369E+0	1.194985E+0	1.218130E+0	1.155102E+0	1.197214E+0	1.194069E+0	1.209612E+0	1.186067E+0	1.096311E+0	1.178476E+0	1.212866E+0	1.109291E+0	1.135129E+0	1.179221E+0	1.189526E+0	1.198058E+0	1.156996E+0	1.203984E+0	1.164009E+0	1.147994E+0	1.161677E+0	1.111249E+0	1.173226E+0	1.189660E+0	1.150548E+0	1.235567E+0	1.157287E+0	1.162489E+0	1.168529E+0	1.129227E+0	1.180758E+0	1.143771E+0	1.164372E+0	1.198798E+0	1.250500E+0	1.208123E+0	1.191552E+0	1.144491E+0	1.189126E+0	1.189366E+0	1.210371E+0	1.263769E+0	1.169946E+0	1.183344E+0	1.102527E+0	1.165691E+0	1.207651E+0	1.148406E+0	1.166145E+0	1.134868E+0	1.207199E+0	1.171947E+0	1.190273E+0	1.279767E+0	1.207895E+0	1.160036E+0	1.163436E+0	1.181232E+0	1.151650E+0	1.193890E+0	1.164194E+0	1.183855E+0	1.216586E+0	1.149865E+0	1.141591E+0	1.248706E+0	1.136085E+0	1.207046E+0	1.175661E+0	1.205926E+0	1.161994E+0	1.140134E+0	1.200578E+0	1.206699E+0	1.127298E+0	1.165454E+0	1.150897E+0	1.220935E+0	1.232737E+0	1.160670E+0	1.186238E+0	1.217170E+0	1.240877E+0	1.199030E+0	1.160965E+0	1.154666E+0	1.130896E+0	1.156465E+0	1.269242E+0	1.238240E+0	1.155045E+0	1.149690E+0	1.196417E+0	1.227656E+0	1.192753E+0	1.145308E+0	1.174422E+0	1.185566E+0	1.215433E+0	1.166821E+0	1.162571E+0	1.207312E+0	1.155790E+0	1.087421E+0	1.177366E+0	1.184422E+0	1.139314E+0	1.167767E+0	1.208652E+0	1.202013E+0	1.262246E+0	1.148278E+0	1.177876E+0	1.174972E+0	1.189756E+0	1.191497E+0	1.211899E+0	1.149529E+0	1.158328E+0	1.167780E+0
5.425080E+2	1.048545E+0	1.004838E+0	1.063964E+0	1.056637E+0	1.005496E+0	1.032005E+0	1.071505E+0	1.037262E+0	9.992752E-1	1.030856E+0	1.030655E+0	1.050139E+0	1.102800E+0	1.036934E+0	1.019331E+0	1.051324E+0	1.069647E+0	1.018690E+0	1.044898E+0	1.023876E+0	1.049284E+0	1.072698E+0	1.020675E+0	1.061878E+0	1.078750E+0	1.047593E+0	1.047639E+0	1.077169E+0	1.069603E+0	1.023258E+0	1.022238E+0	1.043152E+0	1.088476E+0	1.027606E+0	1.030496E+0	1.053513E+0	1.024816E+0	1.026795E+0	1.021892E+0	1.019504E+0	1.035002E+0	1.030250E+0	1.084046E+0	1.090143E+0	1.047181E+0	9.928901E-1	1.040861E+0	1.035466E+0	1.018391E+0	1.079044E+0	1.026118E+0	1.072224E+0	1.078578E+0	1.047144E+0	1.058335E+0	1.077340E+0	1.015841E+0	1.023534E+0	9.860822E-1	1.068030E+0	1.055513E+0	1.017330E+0	1.019893E+0	1.077276E+0	1.030684E+0	1.067976E+0	9.961026E-1	1.016568E+0	1.043503E+0	1.075143E+0	1.019779E+0	1.061192E+0	1.054001E+0	1.032136E+0	1.050307E+0	1.030715E+0	1.026852E+0	1.056329E+0	1.067849E+0	1.073970E+0	1.089349E+0	1.041020E+0	1.026186E+0	1.023275E+0	1.030674E+0	9.902895E-1	1.016155E+0	1.031900E+0	1.069220E+0	1.015464E+0	1.026372E+0	1.091394E+0	1.104279E+0	1.074662E+0	1.037577E+0	1.001836E+0	1.039105E+0	1.027729E+0	1.134206E+0	1.063043E+0	1.019568E+0	1.038428E+0	1.037528E+0	1.084485E+0	1.067379E+0	1.068140E+0	1.078967E+0	1.088497E+0	1.087364E+0	1.025671E+0	1.007577E+0	1.051772E+0	1.032585E+0	1.009522E+0	1.026655E+0	1.064634E+0	1.084217E+0	1.037411E+0	1.016531E+0	1.058371E+0	1.030725E+0	1.057899E+0	1.039278E+0	1.077578E+0	1.057784E+0	1.035196E+0	1.076080E+0	1.092898E+0	1.065258E+0	1.067037E+0	1.014403E+0	1.068983E+0	9.855333E-1	1.040832E+0	1.040543E+0	1.105678E+0	1.050417E+0	1.055085E+0	1.007925E+0	1.028521E+0	1.014947E+0	1.046642E+0	1.054700E+0	1.006802E+0	1.063536E+0	1.051291E+0	1.030569E+0	1.094413E+0	1.048066E+0	1.054682E+0	1.108084E+0	1.109456E+0	1.060069E+0	1.032238E+0	1.041562E+0	1.068327E+0	1.111856E+0	1.001422E+0	1.027512E+0	1.032093E+0	1.077191E+0	1.011080E+0	1.057492E+0	9.975548E-1	1.042195E+0	9.727466E-1
5.427600E+2	9.674680E-1	9.582568E-1	1.019598E+0	9.686129E-1	9.441109E-1	9.689433E-1	9.584729E-1	9.815827E-1	9.636896E-1	9.476684E-1	9.527604E-1	9.888301E-1	9.804435E-1	9.723351E-1	9.783821E-1	9.708131E-1	9.415279E-1	9.938311E-1	9.479443E-1	9.884210E-1	9.304884E-1	1.007583E+0	9.653798E-1	9.369646E-1	9.966962E-1	9.604538E-1	9.795342E-1	1.021973E+0	9.733010E-1	9.538478E-1	9.455780E-1	9.726682E-1	9.794648E-1	9.799042E-1	9.479873E-1	9.326410E-1	9.736788E-1	9.844681E-1	9.837223E-1	9.656804E-1	9.686516E-1	9.723951E-1	9.517990E-1	9.413722E-1	9.832125E-1	9.705490E-1	9.523508E-1	9.599408E-1	9.903797E-1	9.716031E-1	9.501021E-1	9.756606E-1	9.651933E-1	9.588134E-1	9.954095E-1	9.982215E-1	9.877783E-1	9.982119E-1	9.245143E-1	9.728286E-1	1.000818E+0	9.145525E-1	9.609089E-1	1.008766E+0	9.769928E-1	9.751156E-1	9.398297E-1	9.622813E-1	1.033787E+0	9.726756E-1	9.573869E-1	1.005463E+0	9.879423E-1	9.249116E-1	9.450322E-1	9.999606E-1	9.769876E-1	9.010736E-1	9.845841E-1	9.984816E-1	1.044394E+0	9.271060E-1	9.779456E-1	9.792586E-1	9.948133E-1	9.266771E-1	9.601697E-1	9.852349E-1	9.519280E-1	9.392672E-1	9.920900E-1	9.963464E-1	1.006764E+0	9.769244E-1	9.348444E-1	9.719501E-1	9.813646E-1	9.684786E-1	9.651395E-1	1.023336E+0	9.409026E-1	9.176080E-1	9.715610E-1	9.478782E-1	9.810246E-1	9.260728E-1	9.435702E-1	1.007042E+0	9.688622E-1	9.799124E-1	9.212570E-1	9.980632E-1	9.603435E-1	9.655634E-1	1.002445E+0	1.029401E+0	9.855186E-1	9.975780E-1	9.693542E-1	1.017259E+0	9.819881E-1	9.976000E-1	9.713522E-1	9.626354E-1	9.835893E-1	9.479575E-1	9.510329E-1	9.784937E-1	1.015758E+0	9.886362E-1	9.446201E-1	1.019732E+0	9.538715E-1	9.641136E-1	9.820010E-1	1.011532E+0	1.032088E+0	9.473537E-1	9.463455E-1	9.611136E-1	9.613461E-1	9.959297E-1	9.747886E-1	9.896507E-1	1.003591E+0	9.787362E-1	9.284191E-1	9.913785E-1	9.707946E-1	9.637589E-1	9.774507E-1	9.813565E-1	9.322319E-1	9.540208E-1	9.734281E-1	1.017130E+0	1.008220E+0	9.477928E-1	9.795270E-1	9.698043E-1	9.747595E-1	1.012421E+0	9.857373E-1	9.120967E-1	9.756219E-1	9.966552E-1
5.430330E+2	1.026739E+0	9.785614E-1	1.038071E+0	1.025848E+0	9.774786E-1	9.807665E-1	1.020729E+0	9.864634E-1	9.967414E-1	1.032677E+0	1.029991E+0	1.007424E+0	1.011566E+0	1.003562E+0	1.010851E+0	1.028956E+0	1.027726E+0	1.037683E+0	1.039230E+0	1.004505E+0	1.006385E+0	9.966762E-1	1.027243E+0	1.027356E+0	1.038280E+0	9.954053E-1	1.029295E+0	1.005441E+0	1.034156E+0	1.058019E+0	1.045969E+0	1.040045E+0	1.047025E+0	9.783303E-1	1.024086E+0	9.906251E-1	1.030168E+0	9.431505E-1	9.690083E-1	1.027834E+0	1.046432E+0	1.017525E+0	9.996563E-1	1.012241E+0	1.011658E+0	1.009898E+0	1.054949E+0	1.035400E+0	1.006108E+0	1.031022E+0	1.024551E+0	1.040576E+0	1.041154E+0	1.008876E+0	9.733819E-1	1.050779E+0	9.973446E-1	1.014892E+0	1.006245E+0	1.062803E+0	1.015410E+0	9.632272E-1	9.904609E-1	1.031531E+0	1.019988E+0	1.015738E+0	1.015545E+0	1.059286E+0	1.001763E+0	1.050902E+0	1.016414E+0	1.007582E+0	1.022281E+0	1.000324E+0	1.029025E+0	1.009405E+0	9.454490E-1	9.512745E-1	1.046754E+0	1.063604E+0	1.053576E+0	1.009536E+0	9.910992E-1	1.010211E+0	1.059780E+0	9.890459E-1	1.018658E+0	9.847807E-1	1.022624E+0	9.793726E-1	1.004160E+0	1.039340E+0	1.028460E+0	1.016929E+0	1.030308E+0	1.005853E+0	1.031398E+0	9.979135E-1	1.054572E+0	1.020436E+0	1.039759E+0	1.007508E+0	1.008551E+0	1.030362E+0	1.047995E+0	1.046745E+0	1.056419E+0	1.046823E+0	1.073059E+0	9.890898E-1	1.002985E+0	1.009169E+0	1.041915E+0	1.047987E+0	1.008831E+0	1.058100E+0	1.019458E+0	1.028060E+0	1.030546E+0	1.076273E+0	9.732883E-1	1.077382E+0	9.958508E-1	1.044130E+0	1.023854E+0	1.029596E+0	9.974013E-1	1.072996E+0	1.012611E+0	1.026829E+0	1.010595E+0	1.025156E+0	1.009655E+0	9.796239E-1	1.062608E+0	1.039362E+0	1.041855E+0	1.022444E+0	1.039936E+0	1.081705E+0	1.092662E+0	9.917287E-1	1.021893E+0	1.006896E+0	1.028032E+0	9.908405E-1	9.960837E-1	1.036358E+0	1.011792E+0	1.056809E+0	1.017893E+0	1.040746E+0	1.010343E+0	9.802368E-1	1.016372E+0	9.899329E-1	1.009521E+0	1.019934E+0	9.741221E-1	1.015517E+0	1.061984E+0	1.035768E+0	9.925933E-1	9.940922E-1	9.945356E-1	9.086385E-1
5.432640E+2	1.082719E+0	1.041243E+0	1.073814E+0	1.029491E+0	1.042964E+0	1.071589E+0	1.076801E+0	1.095060E+0	1.072886E+0	1.036101E+0	1.067213E+0	1.067026E+0	1.099756E+0	1.062259E+0	1.065186E+0	1.067674E+0	1.091392E+0	1.048193E+0	1.076116E+0	1.078082E+0	1.123039E+0	1.096335E+0	1.081452E+0	1.124609E+0	1.102599E+0	1.005082E+0	1.114400E+0	1.070972E+0	1.130442E+0	1.088761E+0	1.115428E+0	1.077050E+0	1.074445E+0	1.080932E+0	1.112756E+0	1.103269E+0	1.097421E+0	1.101277E+0	1.089043E+0	1.085629E+0	1.092973E+0	1.085832E+0	1.092505E+0	1.130737E+0	1.101932E+0	1.060055E+0	1.095701E+0	1.100178E+0	1.129552E+0	1.114031E+0	1.082520E+0	1.068578E+0	1.074466E+0	1.097374E+0	1.075135E+0	1.077488E+0	1.046031E+0	1.017345E+0	1.052330E+0	1.106235E+0	1.083873E+0	1.060224E+0	1.049405E+0	1.120080E+0	1.126117E+0	1.087571E+0	1.079044E+0	1.051138E+0	1.090682E+0	1.083944E+0	1.084121E+0	1.101879E+0	1.105335E+0	1.097319E+0	1.065140E+0	1.095472E+0	1.152912E+0	1.036698E+0	1.055829E+0	1.084046E+0	1.112047E+0	1.067073E+0	1.091371E+0	1.038026E+0	1.112145E+0	1.088131E+0	1.085226E+0	1.150233E+0	1.031432E+0	1.059958E+0	1.104067E+0	1.092521E+0	1.133859E+0	1.051083E+0	1.090354E+0	1.102634E+0	1.036876E+0	1.079255E+0	1.092947E+0	1.101983E+0	1.050114E+0	1.080713E+0	1.085843E+0	1.122636E+0	1.093539E+0	1.079893E+0	1.048179E+0	1.119878E+0	1.097394E+0	1.031269E+0	1.068913E+0	1.119463E+0	1.077602E+0	1.063023E+0	1.063192E+0	1.121239E+0	1.045642E+0	1.088176E+0	1.050954E+0	1.095079E+0	1.092738E+0	1.115556E+0	1.059275E+0	1.080914E+0	1.128310E+0	1.054561E+0	1.096198E+0	1.116761E+0	1.084830E+0	1.088241E+0	1.074371E+0	1.082496E+0	1.087486E+0	1.033825E+0	1.080793E+0	1.099484E+0	1.091470E+0	1.046500E+0	1.084831E+0	1.125636E+0	1.089310E+0	1.057428E+0	1.106963E+0	1.107207E+0	1.050948E+0	1.113575E+0	1.115546E+0	1.091753E+0	1.129000E+0	1.040302E+0	1.090005E+0	1.117415E+0	1.074545E+0	1.076746E+0	1.100246E+0	1.090173E+0	1.094343E+0	1.106065E+0	1.100128E+0	1.072417E+0	1.109160E+0	1.038126E+0	1.074616E+0	1.128944E+0	1.105565E+0	1.105485E+0
5.435110E+2	1.323885E+0	1.297429E+0	1.291403E+0	1.265533E+0	1.233835E+0	1.297184E+0	1.327959E+0	1.317579E+0	1.263548E+0	1.239728E+0	1.307405E+0	1.252762E+0	1.339269E+0	1.271109E+0	1.302507E+0	1.296435E+0	1.260477E+0	1.278522E+0	1.267703E+0	1.290228E+0	1.214048E+0	1.234475E+0	1.284834E+0	1.278059E+0	1.306691E+0	1.298490E+0	1.263279E+0	1.264827E+0	1.330730E+0	1.286343E+0	1.291588E+0	1.282819E+0	1.334347E+0	1.298792E+0	1.240931E+0	1.235850E+0	1.315269E+0	1.258679E+0	1.232410E+0	1.224190E+0	1.300665E+0	1.296523E+0	1.286078E+0	1.301267E+0	1.330611E+0	1.267623E+0	1.246568E+0	1.301050E+0	1.335680E+0	1.234848E+0	1.288409E+0	1.297400E+0	1.276918E+0	1.287883E+0	1.290163E+0	1.311673E+0	1.278913E+0	1.243995E+0	1.309424E+0	1.343115E+0	1.287338E+0	1.231416E+0	1.265681E+0	1.248524E+0	1.314718E+0	1.297798E+0	1.271415E+0	1.287440E+0	1.276916E+0	1.297553E+0	1.285300E+0	1.309787E+0	1.255865E+0	1.259309E+0	1.267205E+0	1.290960E+0	1.265387E+0	1.224066E+0	1.271375E+0	1.294891E+0	1.284228E+0	1.230584E+0	1.267375E+0	1.232723E+0	1.281051E+0	1.270128E+0	1.257197E+0	1.312561E+0	1.258167E+0	1.252169E+0	1.211999E+0	1.257457E+0	1.274161E+0	1.249088E+0	1.234207E+0	1.268483E+0	1.321431E+0	1.243463E+0	1.304717E+0	1.281021E+0	1.248092E+0	1.308925E+0	1.246202E+0	1.255983E+0	1.291812E+0	1.228326E+0	1.290035E+0	1.246565E+0	1.269025E+0	1.174221E+0	1.255366E+0	1.247716E+0	1.337494E+0	1.211242E+0	1.201447E+0	1.301440E+0	1.277055E+0	1.244377E+0	1.250923E+0	1.229835E+0	1.253086E+0	1.263519E+0	1.247210E+0	1.276499E+0	1.294307E+0	1.266364E+0	1.296333E+0	1.367321E+0	1.231076E+0	1.278765E+0	1.243896E+0	1.282654E+0	1.300298E+0	1.290796E+0	1.224898E+0	1.352997E+0	1.259539E+0	1.244435E+0	1.270453E+0	1.302787E+0	1.239657E+0	1.289560E+0	1.267025E+0	1.284529E+0	1.272625E+0	1.297424E+0	1.308695E+0	1.281782E+0	1.253855E+0	1.204664E+0	1.241211E+0	1.287177E+0	1.272170E+0	1.282169E+0	1.271957E+0	1.305577E+0	1.320931E+0	1.229201E+0	1.249578E+0	1.270709E+0	1.305003E+0	1.230453E+0	1.315254E+0	1.244667E+0	1.259812E+0	1.261859E+0
5.437640E+2	1.421414E+0	1.387364E+0	1.433572E+0	1.496252E+0	1.412536E+0	1.428924E+0	1.438985E+0	1.467856E+0	1.408490E+0	1.430125E+0	1.390208E+0	1.467778E+0	1.471274E+0	1.432649E+0	1.403141E+0	1.388349E+0	1.401230E+0	1.454891E+0	1.425668E+0	1.429667E+0	1.463111E+0	1.451227E+0	1.460384E+0	1.408846E+0	1.432725E+0	1.390707E+0	1.494122E+0	1.524586E+0	1.482601E+0	1.470812E+0	1.421432E+0	1.462540E+0	1.484728E+0	1.424095E+0	1.468333E+0	1.470870E+0	1.434676E+0	1.434061E+0	1.453136E+0	1.487890E+0	1.469730E+0	1.437079E+0	1.461196E+0	1.533172E+0	1.477223E+0	1.414175E+0	1.452321E+0	1.396257E+0	1.421203E+0	1.454773E+0	1.464169E+0	1.461271E+0	1.468760E+0	1.412976E+0	1.465657E+0	1.457447E+0	1.438128E+0	1.445133E+0	1.424849E+0	1.523676E+0	1.489468E+0	1.411398E+0	1.442131E+0	1.424976E+0	1.426762E+0	1.440514E+0	1.396198E+0	1.433511E+0	1.437454E+0	1.437778E+0	1.448961E+0	1.440320E+0	1.440791E+0	1.434299E+0	1.419600E+0	1.436341E+0	1.410703E+0	1.398322E+0	1.459833E+0	1.483819E+0	1.468362E+0	1.444131E+0	1.387674E+0	1.452573E+0	1.440464E+0	1.413170E+0	1.447234E+0	1.472982E+0	1.384453E+0	1.461919E+0	1.421010E+0	1.429955E+0	1.465114E+0	1.402262E+0	1.408006E+0	1.373792E+0	1.433482E+0	1.428995E+0	1.407867E+0	1.430608E+0	1.428172E+0	1.383614E+0	1.440464E+0	1.432781E+0	1.396771E+0	1.440416E+0	1.462019E+0	1.451589E+0	1.448875E+0	1.398279E+0	1.428886E+0	1.431467E+0	1.438552E+0	1.421533E+0	1.375395E+0	1.365814E+0	1.472829E+0	1.454943E+0	1.470002E+0	1.496149E+0	1.386895E+0	1.490976E+0	1.429542E+0	1.449526E+0	1.440686E+0	1.424606E+0	1.436095E+0	1.528918E+0	1.434016E+0	1.412751E+0	1.452810E+0	1.412548E+0	1.400029E+0	1.427505E+0	1.423866E+0	1.444831E+0	1.447674E+0	1.399481E+0	1.394422E+0	1.452645E+0	1.429276E+0	1.382656E+0	1.456410E+0	1.421017E+0	1.480268E+0	1.453791E+0	1.441431E+0	1.448551E+0	1.418758E+0	1.400384E+0	1.399119E+0	1.491877E+0	1.463591E+0	1.449374E+0	1.406565E+0	1.515743E+0	1.465697E+0	1.380353E+0	1.397088E+0	1.413632E+0	1.494916E+0	1.397452E+0	1.424609E+0	1.424970E+0	1.434001E+0	1.464437E+0
5.440280E+2	1.609372E+0	1.544539E+0	1.543027E+0	1.571004E+0	1.553102E+0	1.555840E+0	1.599748E+0	1.520601E+0	1.516723E+0	1.540863E+0	1.605054E+0	1.557592E+0	1.559756E+0	1.576886E+0	1.550148E+0	1.610573E+0	1.635225E+0	1.573252E+0	1.523059E+0	1.598932E+0	1.513478E+0	1.580336E+0	1.536186E+0	1.597541E+0	1.577700E+0	1.533972E+0	1.556938E+0	1.543729E+0	1.577328E+0	1.600708E+0	1.555309E+0	1.608271E+0	1.595647E+0	1.553812E+0	1.526252E+0	1.535410E+0	1.590512E+0	1.540089E+0	1.546047E+0	1.564393E+0	1.569922E+0	1.635947E+0	1.498893E+0	1.546433E+0	1.612127E+0	1.540359E+0	1.554563E+0	1.544037E+0	1.599115E+0	1.549337E+0	1.596415E+0	1.551521E+0	1.587928E+0	1.557388E+0	1.557560E+0	1.594395E+0	1.551004E+0	1.543568E+0	1.495898E+0	1.547909E+0	1.530471E+0	1.504687E+0	1.562460E+0	1.567774E+0	1.625568E+0	1.573336E+0	1.495349E+0	1.540015E+0	1.536138E+0	1.573806E+0	1.562859E+0	1.581894E+0	1.505454E+0	1.566488E+0	1.523421E+0	1.569744E+0	1.577799E+0	1.461557E+0	1.559741E+0	1.574283E+0	1.581539E+0	1.456072E+0	1.538463E+0	1.512566E+0	1.524274E+0	1.558304E+0	1.556644E+0	1.581778E+0	1.545999E+0	1.566326E+0	1.517245E+0	1.556797E+0	1.573592E+0	1.513511E+0	1.560617E+0	1.518838E+0	1.568114E+0	1.512010E+0	1.545406E+0	1.586627E+0	1.515608E+0	1.535054E+0	1.520920E+0	1.537463E+0	1.531472E+0	1.503280E+0	1.550135E+0	1.580641E+0	1.516692E+0	1.512940E+0	1.492952E+0	1.569712E+0	1.521540E+0	1.464280E+0	1.463641E+0	1.532970E+0	1.551700E+0	1.547362E+0	1.534290E+0	1.580881E+0	1.509530E+0	1.576019E+0	1.541549E+0	1.607232E+0	1.577092E+0	1.569335E+0	1.556942E+0	1.612240E+0	1.529440E+0	1.517913E+0	1.533829E+0	1.499136E+0	1.476131E+0	1.510780E+0	1.467307E+0	1.576650E+0	1.502746E+0	1.480950E+0	1.592665E+0	1.535509E+0	1.535993E+0	1.499662E+0	1.531217E+0	1.547045E+0	1.585446E+0	1.530916E+0	1.533146E+0	1.487549E+0	1.468533E+0	1.514308E+0	1.515888E+0	1.586429E+0	1.512921E+0	1.499749E+0	1.498195E+0	1.497284E+0	1.563719E+0	1.518394E+0	1.551255E+0	1.477464E+0	1.657709E+0	1.456882E+0	1.545877E+0	1.612707E+0	1.604245E+0	1.465182E+0
5.442810E+2	1.652035E+0	1.667449E+0	1.654750E+0	1.643252E+0	1.549535E+0	1.645944E+0	1.626715E+0	1.563228E+0	1.601172E+0	1.563250E+0	1.576402E+0	1.597213E+0	1.624283E+0	1.562767E+0	1.586781E+0	1.633064E+0	1.623618E+0	1.607506E+0	1.622971E+0	1.580248E+0	1.593913E+0	1.596933E+0	1.595183E+0	1.574468E+0	1.693578E+0	1.593683E+0	1.630082E+0	1.626809E+0	1.720355E+0	1.637399E+0	1.619399E+0	1.630495E+0	1.677721E+0	1.585371E+0	1.620413E+0	1.573725E+0	1.564702E+0	1.591176E+0	1.588888E+0	1.652676E+0	1.547023E+0	1.635399E+0	1.582620E+0	1.616846E+0	1.647752E+0	1.583013E+0	1.588621E+0	1.600945E+0	1.632287E+0	1.633124E+0	1.670533E+0	1.654418E+0	1.663423E+0	1.652588E+0	1.567076E+0	1.613161E+0	1.600086E+0	1.605349E+0	1.551198E+0	1.699541E+0	1.588810E+0	1.576141E+0	1.608088E+0	1.637200E+0	1.571470E+0	1.592786E+0	1.616805E+0	1.629380E+0	1.627166E+0	1.664506E+0	1.568069E+0	1.621029E+0	1.545131E+0	1.579881E+0	1.612262E+0	1.648934E+0	1.568023E+0	1.548921E+0	1.630778E+0	1.593567E+0	1.641603E+0	1.608898E+0	1.540216E+0	1.588314E+0	1.621821E+0	1.605351E+0	1.588668E+0	1.674188E+0	1.574837E+0	1.604362E+0	1.549563E+0	1.607661E+0	1.586155E+0	1.559963E+0	1.593899E+0	1.557144E+0	1.637803E+0	1.562096E+0	1.605346E+0	1.599043E+0	1.586136E+0	1.560360E+0	1.603777E+0	1.694107E+0	1.560904E+0	1.584420E+0	1.613440E+0	1.583393E+0	1.612215E+0	1.559797E+0	1.558656E+0	1.627183E+0	1.612906E+0	1.593402E+0	1.568216E+0	1.637593E+0	1.577164E+0	1.567134E+0	1.587910E+0	1.564021E+0	1.570660E+0	1.623465E+0	1.576535E+0	1.612785E+0	1.567646E+0	1.568755E+0	1.547874E+0	1.574801E+0	1.627025E+0	1.594956E+0	1.546930E+0	1.573333E+0	1.569861E+0	1.641714E+0	1.519065E+0	1.640724E+0	1.575182E+0	1.596220E+0	1.535504E+0	1.606016E+0	1.570589E+0	1.569642E+0	1.589994E+0	1.560859E+0	1.569565E+0	1.531507E+0	1.564548E+0	1.610319E+0	1.555681E+0	1.592756E+0	1.632139E+0	1.664520E+0	1.586534E+0	1.559652E+0	1.559371E+0	1.626471E+0	1.590270E+0	1.580211E+0	1.562748E+0	1.616674E+0	1.657390E+0	1.516257E+0	1.550274E+0	1.553998E+0	1.564114E+0	1.462297E+0
5.445400E+2	1.676177E+0	1.577105E+0	1.675555E+0	1.638791E+0	1.658408E+0	1.602287E+0	1.610722E+0	1.610357E+0	1.563083E+0	1.631931E+0	1.604153E+0	1.594598E+0	1.689391E+0	1.621173E+0	1.643276E+0	1.596527E+0	1.619210E+0	1.631822E+0	1.650012E+0	1.605536E+0	1.612881E+0	1.616225E+0	1.656385E+0	1.564534E+0	1.624929E+0	1.597459E+0	1.632577E+0	1.646143E+0	1.696148E+0	1.677019E+0	1.626820E+0	1.635650E+0	1.658293E+0	1.624689E+0	1.656625E+0	1.613845E+0	1.640141E+0	1.558513E+0	1.607252E+0	1.653379E+0	1.602167E+0	1.646400E+0	1.582343E+0	1.641697E+0	1.623981E+0	1.595585E+0	1.599991E+0	1.629337E+0	1.656033E+0	1.592710E+0	1.623274E+0	1.635355E+0	1.653567E+0	1.623799E+0	1.653218E+0	1.572455E+0	1.629289E+0	1.584446E+0	1.603989E+0	1.635370E+0	1.600070E+0	1.561192E+0	1.580323E+0	1.627029E+0	1.631565E+0	1.681119E+0	1.591355E+0	1.620618E+0	1.641207E+0	1.581297E+0	1.563944E+0	1.684349E+0	1.597050E+0	1.582980E+0	1.542007E+0	1.633416E+0	1.648646E+0	1.578968E+0	1.669088E+0	1.635527E+0	1.667063E+0	1.629845E+0	1.600410E+0	1.588705E+0	1.613903E+0	1.586689E+0	1.603889E+0	1.645752E+0	1.596595E+0	1.593986E+0	1.550578E+0	1.665942E+0	1.655297E+0	1.557575E+0	1.633903E+0	1.610176E+0	1.587328E+0	1.574643E+0	1.614553E+0	1.626863E+0	1.580061E+0	1.605612E+0	1.591095E+0	1.620759E+0	1.535393E+0	1.574200E+0	1.603069E+0	1.613221E+0	1.634961E+0	1.571925E+0	1.591157E+0	1.562353E+0	1.632900E+0	1.556100E+0	1.547510E+0	1.591298E+0	1.550862E+0	1.587550E+0	1.578745E+0	1.597464E+0	1.646292E+0	1.612914E+0	1.603234E+0	1.653633E+0	1.645752E+0	1.569647E+0	1.621417E+0	1.639569E+0	1.625349E+0	1.570108E+0	1.536776E+0	1.590423E+0	1.573499E+0	1.620910E+0	1.580022E+0	1.685318E+0	1.638784E+0	1.623139E+0	1.554328E+0	1.617064E+0	1.610246E+0	1.585129E+0	1.567449E+0	1.506488E+0	1.676076E+0	1.568523E+0	1.636454E+0	1.609383E+0	1.619762E+0	1.621974E+0	1.655042E+0	1.626594E+0	1.580354E+0	1.545008E+0	1.577709E+0	1.686914E+0	1.603006E+0	1.554161E+0	1.551408E+0	1.594834E+0	1.652779E+0	1.598701E+0	1.607980E+0	1.591669E+0	1.594675E+0	1.619809E+0
5.447610E+2	1.537644E+0	1.581641E+0	1.595758E+0	1.678761E+0	1.612696E+0	1.604573E+0	1.643845E+0	1.562168E+0	1.569887E+0	1.580860E+0	1.540728E+0	1.524757E+0	1.661673E+0	1.603676E+0	1.654060E+0	1.615558E+0	1.626609E+0	1.554636E+0	1.628663E+0	1.605979E+0	1.565157E+0	1.597083E+0	1.545654E+0	1.557557E+0	1.673227E+0	1.611495E+0	1.594204E+0	1.562220E+0	1.640892E+0	1.566112E+0	1.571145E+0	1.596320E+0	1.635896E+0	1.602704E+0	1.611670E+0	1.571058E+0	1.601902E+0	1.582786E+0	1.563925E+0	1.603076E+0	1.586466E+0	1.573877E+0	1.610109E+0	1.533916E+0	1.573454E+0	1.622517E+0	1.608653E+0	1.624537E+0	1.622689E+0	1.584549E+0	1.647630E+0	1.621772E+0	1.614846E+0	1.589745E+0	1.588730E+0	1.593610E+0	1.589831E+0	1.564012E+0	1.495462E+0	1.598387E+0	1.660174E+0	1.620167E+0	1.578366E+0	1.562495E+0	1.652537E+0	1.629117E+0	1.537649E+0	1.630458E+0	1.590823E+0	1.604795E+0	1.634880E+0	1.655821E+0	1.534501E+0	1.541717E+0	1.666114E+0	1.627347E+0	1.607256E+0	1.594071E+0	1.595207E+0	1.652780E+0	1.691291E+0	1.658637E+0	1.544912E+0	1.540374E+0	1.608622E+0	1.560567E+0	1.613723E+0	1.584090E+0	1.573194E+0	1.544064E+0	1.545652E+0	1.639671E+0	1.580502E+0	1.566208E+0	1.566652E+0	1.559564E+0	1.613295E+0	1.478633E+0	1.538453E+0	1.607898E+0	1.528688E+0	1.642729E+0	1.559481E+0	1.628071E+0	1.612745E+0	1.596331E+0	1.566556E+0	1.628831E+0	1.591465E+0	1.560815E+0	1.606151E+0	1.635439E+0	1.615485E+0	1.597734E+0	1.567089E+0	1.604730E+0	1.596686E+0	1.654928E+0	1.580384E+0	1.605074E+0	1.574425E+0	1.608067E+0	1.589238E+0	1.558599E+0	1.604893E+0	1.547161E+0	1.574045E+0	1.608367E+0	1.690842E+0	1.572763E+0	1.555985E+0	1.558004E+0	1.565084E+0	1.651906E+0	1.574302E+0	1.661102E+0	1.550165E+0	1.619944E+0	1.538807E+0	1.713231E+0	1.565300E+0	1.518149E+0	1.601707E+0	1.593103E+0	1.643075E+0	1.639390E+0	1.621932E+0	1.565894E+0	1.592635E+0	1.589288E+0	1.526705E+0	1.588941E+0	1.564879E+0	1.585421E+0	1.558392E+0	1.622355E+0	1.615129E+0	1.557032E+0	1.511558E+0	1.530564E+0	1.682136E+0	1.543032E+0	1.634305E+0	1.528322E+0	1.474089E+0	1.520741E+0
5.450150E+2	1.553352E+0	1.567434E+0	1.559809E+0	1.564996E+0	1.532828E+0	1.538960E+0	1.542776E+0	1.544625E+0	1.504033E+0	1.494672E+0	1.501690E+0	1.571885E+0	1.533402E+0	1.542299E+0	1.537004E+0	1.513094E+0	1.571306E+0	1.476730E+0	1.480117E+0	1.479516E+0	1.521255E+0	1.496945E+0	1.495605E+0	1.448467E+0	1.567420E+0	1.464587E+0	1.540918E+0	1.514835E+0	1.627308E+0	1.499573E+0	1.560558E+0	1.531099E+0	1.503833E+0	1.575064E+0	1.557467E+0	1.567273E+0	1.499424E+0	1.494032E+0	1.484995E+0	1.506241E+0	1.538889E+0	1.512621E+0	1.515859E+0	1.473806E+0	1.519233E+0	1.530637E+0	1.512584E+0	1.533026E+0	1.539184E+0	1.519613E+0	1.497614E+0	1.516298E+0	1.542474E+0	1.502223E+0	1.533752E+0	1.579377E+0	1.518861E+0	1.477391E+0	1.543350E+0	1.546151E+0	1.530114E+0	1.469811E+0	1.521217E+0	1.568893E+0	1.583908E+0	1.492886E+0	1.481259E+0	1.484720E+0	1.518121E+0	1.516674E+0	1.503496E+0	1.600960E+0	1.524048E+0	1.513624E+0	1.586448E+0	1.555017E+0	1.527582E+0	1.458683E+0	1.480556E+0	1.525724E+0	1.595391E+0	1.476627E+0	1.533907E+0	1.493858E+0	1.570871E+0	1.534219E+0	1.546274E+0	1.501951E+0	1.480228E+0	1.497665E+0	1.571012E+0	1.480734E+0	1.480272E+0	1.485312E+0	1.514215E+0	1.503318E+0	1.535762E+0	1.453200E+0	1.496949E+0	1.526587E+0	1.522977E+0	1.537528E+0	1.515821E+0	1.522486E+0	1.527057E+0	1.453047E+0	1.461068E+0	1.489952E+0	1.564080E+0	1.501000E+0	1.466048E+0	1.557232E+0	1.534160E+0	1.504633E+0	1.436949E+0	1.567652E+0	1.570561E+0	1.506268E+0	1.508195E+0	1.513176E+0	1.495497E+0	1.514859E+0	1.487223E+0	1.504924E+0	1.537051E+0	1.488365E+0	1.542573E+0	1.603021E+0	1.539521E+0	1.536623E+0	1.446315E+0	1.508665E+0	1.489630E+0	1.556852E+0	1.446655E+0	1.582356E+0	1.527267E+0	1.438688E+0	1.525014E+0	1.522605E+0	1.580351E+0	1.492790E+0	1.539617E+0	1.521378E+0	1.436898E+0	1.501703E+0	1.488673E+0	1.512933E+0	1.419927E+0	1.470171E+0	1.527017E+0	1.540915E+0	1.536194E+0	1.489943E+0	1.507626E+0	1.546558E+0	1.540146E+0	1.512171E+0	1.472831E+0	1.516124E+0	1.562640E+0	1.474037E+0	1.517240E+0	1.440806E+0	1.540976E+0	1.472535E+0
5.452640E+2	1.490271E+0	1.467361E+0	1.514277E+0	1.416119E+0	1.438387E+0	1.457248E+0	1.429993E+0	1.392575E+0	1.465896E+0	1.393718E+0	1.468497E+0	1.464731E+0	1.461930E+0	1.436597E+0	1.488838E+0	1.435963E+0	1.491415E+0	1.484315E+0	1.429105E+0	1.454182E+0	1.441129E+0	1.475883E+0	1.444888E+0	1.408301E+0	1.468752E+0	1.411645E+0	1.437967E+0	1.429511E+0	1.492058E+0	1.385735E+0	1.388212E+0	1.393397E+0	1.451675E+0	1.463436E+0	1.488266E+0	1.453542E+0	1.417138E+0	1.405449E+0	1.420375E+0	1.397459E+0	1.468840E+0	1.490208E+0	1.420169E+0	1.441097E+0	1.450649E+0	1.418454E+0	1.487506E+0	1.434766E+0	1.499348E+0	1.432844E+0	1.474119E+0	1.427257E+0	1.468219E+0	1.431988E+0	1.436518E+0	1.440586E+0	1.439232E+0	1.435990E+0	1.437765E+0	1.497368E+0	1.534257E+0	1.489885E+0	1.443956E+0	1.478436E+0	1.418239E+0	1.438942E+0	1.464107E+0	1.429998E+0	1.408744E+0	1.475653E+0	1.435114E+0	1.443905E+0	1.449646E+0	1.383160E+0	1.411911E+0	1.426215E+0	1.411127E+0	1.385294E+0	1.475353E+0	1.438143E+0	1.470445E+0	1.422912E+0	1.410616E+0	1.467923E+0	1.444885E+0	1.453068E+0	1.419143E+0	1.475572E+0	1.450282E+0	1.430429E+0	1.447233E+0	1.397263E+0	1.441042E+0	1.416924E+0	1.412181E+0	1.442612E+0	1.431853E+0	1.423404E+0	1.428108E+0	1.441519E+0	1.412008E+0	1.442941E+0	1.458152E+0	1.486414E+0	1.414159E+0	1.466583E+0	1.444136E+0	1.482298E+0	1.459138E+0	1.441220E+0	1.460457E+0	1.468047E+0	1.426131E+0	1.436837E+0	1.379273E+0	1.510020E+0	1.442991E+0	1.436782E+0	1.413717E+0	1.452394E+0	1.450701E+0	1.514681E+0	1.471069E+0	1.399561E+0	1.464507E+0	1.430316E+0	1.406005E+0	1.454993E+0	1.445091E+0	1.432027E+0	1.443672E+0	1.384395E+0	1.429560E+0	1.440219E+0	1.346957E+0	1.490653E+0	1.415612E+0	1.395818E+0	1.429730E+0	1.461488E+0	1.440592E+0	1.426787E+0	1.428737E+0	1.462191E+0	1.435166E+0	1.376141E+0	1.397104E+0	1.541934E+0	1.370005E+0	1.445630E+0	1.459556E+0	1.485672E+0	1.383833E+0	1.397075E+0	1.371909E+0	1.502554E+0	1.462899E+0	1.425359E+0	1.389765E+0	1.412705E+0	1.414587E+0	1.395653E+0	1.363752E+0	1.387044E+0	1.388683E+0	1.456316E+0
5.455070E+2	1.431739E+0	1.440702E+0	1.385139E+0	1.438183E+0	1.408704E+0	1.417714E+0	1.429315E+0	1.444402E+0	1.376237E+0	1.391220E+0	1.410387E+0	1.412630E+0	1.475831E+0	1.354909E+0	1.370387E+0	1.341133E+0	1.355432E+0	1.395058E+0	1.377407E+0	1.377720E+0	1.387757E+0	1.427996E+0	1.381724E+0	1.417272E+0	1.441663E+0	1.400426E+0	1.410481E+0	1.361718E+0	1.377714E+0	1.410206E+0	1.408803E+0	1.428584E+0	1.455081E+0	1.375180E+0	1.425290E+0	1.338362E+0	1.364723E+0	1.336301E+0	1.390602E+0	1.416695E+0	1.381031E+0	1.409964E+0	1.389949E+0	1.415787E+0	1.420152E+0	1.378236E+0	1.356122E+0	1.427270E+0	1.381166E+0	1.403169E+0	1.406220E+0	1.391735E+0	1.404038E+0	1.362165E+0	1.381560E+0	1.358444E+0	1.418694E+0	1.341323E+0	1.357476E+0	1.395157E+0	1.391038E+0	1.373642E+0	1.396080E+0	1.413128E+0	1.381014E+0	1.437273E+0	1.320363E+0	1.382178E+0	1.417828E+0	1.377905E+0	1.413086E+0	1.394603E+0	1.365153E+0	1.367284E+0	1.363615E+0	1.347661E+0	1.403580E+0	1.362109E+0	1.372188E+0	1.406448E+0	1.443344E+0	1.384696E+0	1.402803E+0	1.315906E+0	1.370185E+0	1.409946E+0	1.344062E+0	1.414001E+0	1.360108E+0	1.395793E+0	1.358402E+0	1.340250E+0	1.395797E+0	1.379317E+0	1.393512E+0	1.366584E+0	1.438545E+0	1.450727E+0	1.390120E+0	1.403470E+0	1.439539E+0	1.331584E+0	1.362126E+0	1.400241E+0	1.400826E+0	1.391801E+0	1.355854E+0	1.365990E+0	1.386909E+0	1.370091E+0	1.371307E+0	1.360414E+0	1.392053E+0	1.407803E+0	1.345054E+0	1.411629E+0	1.368895E+0	1.399982E+0	1.316943E+0	1.451608E+0	1.344135E+0	1.401684E+0	1.390068E+0	1.335015E+0	1.467910E+0	1.383986E+0	1.358383E+0	1.364871E+0	1.318356E+0	1.391117E+0	1.382878E+0	1.336832E+0	1.360032E+0	1.391009E+0	1.357947E+0	1.407378E+0	1.337917E+0	1.368712E+0	1.379877E+0	1.373358E+0	1.417910E+0	1.354425E+0	1.388738E+0	1.379054E+0	1.432884E+0	1.418196E+0	1.390566E+0	1.366622E+0	1.427811E+0	1.410630E+0	1.365997E+0	1.403155E+0	1.409824E+0	1.364783E+0	1.419599E+0	1.385858E+0	1.401300E+0	1.402506E+0	1.393166E+0	1.375548E+0	1.404425E+0	1.331490E+0	1.334772E+0	1.442971E+0	1.401630E+0	1.414599E+0
5.457670E+2	1.306354E+0	1.325253E+0	1.351392E+0	1.364744E+0	1.304678E+0	1.320560E+0	1.336149E+0	1.327794E+0	1.315666E+0	1.278741E+0	1.256965E+0	1.337426E+0	1.340764E+0	1.323641E+0	1.353925E+0	1.297428E+0	1.332498E+0	1.304870E+0	1.325974E+0	1.321608E+0	1.322792E+0	1.319087E+0	1.319541E+0	1.348983E+0	1.359970E+0	1.258543E+0	1.357983E+0	1.291729E+0	1.398549E+0	1.344819E+0	1.341289E+0	1.315113E+0	1.371165E+0	1.316716E+0	1.315848E+0	1.282648E+0	1.283254E+0	1.348413E+0	1.309045E+0	1.331865E+0	1.298484E+0	1.310134E+0	1.319921E+0	1.335059E+0	1.350204E+0	1.335666E+0	1.329493E+0	1.302487E+0	1.365641E+0	1.306929E+0	1.306516E+0	1.291711E+0	1.252806E+0	1.327690E+0	1.320601E+0	1.303467E+0	1.324905E+0	1.233706E+0	1.278490E+0	1.347119E+0	1.349967E+0	1.280050E+0	1.302304E+0	1.310244E+0	1.313293E+0	1.358350E+0	1.253432E+0	1.290193E+0	1.343234E+0	1.298148E+0	1.287492E+0	1.333728E+0	1.318875E+0	1.308543E+0	1.301638E+0	1.327309E+0	1.245463E+0	1.242613E+0	1.353933E+0	1.289571E+0	1.342532E+0	1.339902E+0	1.263832E+0	1.252765E+0	1.308167E+0	1.289631E+0	1.261382E+0	1.329703E+0	1.297763E+0	1.320642E+0	1.264726E+0	1.333787E+0	1.371449E+0	1.262951E+0	1.272772E+0	1.269224E+0	1.354604E+0	1.304077E+0	1.285251E+0	1.313877E+0	1.302203E+0	1.322480E+0	1.290987E+0	1.268681E+0	1.257715E+0	1.271776E+0	1.302720E+0	1.267009E+0	1.296982E+0	1.279282E+0	1.281583E+0	1.358010E+0	1.329207E+0	1.272025E+0	1.294422E+0	1.320328E+0	1.332344E+0	1.252232E+0	1.264228E+0	1.317846E+0	1.303884E+0	1.339742E+0	1.249473E+0	1.291862E+0	1.329048E+0	1.247528E+0	1.308816E+0	1.266433E+0	1.339610E+0	1.354320E+0	1.309369E+0	1.253890E+0	1.325062E+0	1.308165E+0	1.254565E+0	1.379243E+0	1.316225E+0	1.322871E+0	1.291580E+0	1.357219E+0	1.308293E+0	1.297060E+0	1.373790E+0	1.369963E+0	1.369895E+0	1.319973E+0	1.301284E+0	1.291911E+0	1.305153E+0	1.308447E+0	1.350225E+0	1.349046E+0	1.345916E+0	1.257648E+0	1.271440E+0	1.316902E+0	1.283370E+0	1.259792E+0	1.286592E+0	1.296365E+0	1.344481E+0	1.298077E+0	1.298787E+0	1.335844E+0	1.318929E+0	1.371048E+0
5.460060E+2	1.311357E+0	1.253625E+0	1.253559E+0	1.299155E+0	1.248713E+0	1.272396E+0	1.302924E+0	1.276913E+0	1.237501E+0	1.169932E+0	1.247811E+0	1.256803E+0	1.248348E+0	1.296932E+0	1.220653E+0	1.258800E+0	1.220010E+0	1.237715E+0	1.288390E+0	1.241640E+0	1.245029E+0	1.214539E+0	1.272322E+0	1.278155E+0	1.328537E+0	1.269610E+0	1.309794E+0	1.258784E+0	1.264134E+0	1.291071E+0	1.246465E+0	1.268889E+0	1.275129E+0	1.237407E+0	1.229791E+0	1.244974E+0	1.254567E+0	1.210028E+0	1.288770E+0	1.208590E+0	1.222418E+0	1.283422E+0	1.231683E+0	1.255765E+0	1.291654E+0	1.254760E+0	1.241029E+0	1.196702E+0	1.289870E+0	1.271798E+0	1.276626E+0	1.275392E+0	1.286972E+0	1.213448E+0	1.293452E+0	1.206644E+0	1.267941E+0	1.220529E+0	1.222812E+0	1.310500E+0	1.272712E+0	1.255115E+0	1.242723E+0	1.241962E+0	1.239285E+0	1.277478E+0	1.246619E+0	1.302431E+0	1.231557E+0	1.254743E+0	1.249683E+0	1.278704E+0	1.273444E+0	1.214030E+0	1.256004E+0	1.275740E+0	1.289024E+0	1.243181E+0	1.270196E+0	1.275746E+0	1.327374E+0	1.281423E+0	1.280235E+0	1.229378E+0	1.292981E+0	1.228587E+0	1.238018E+0	1.287212E+0	1.228043E+0	1.321871E+0	1.205079E+0	1.260472E+0	1.219813E+0	1.235411E+0	1.253034E+0	1.207137E+0	1.243956E+0	1.246201E+0	1.221267E+0	1.307664E+0	1.272204E+0	1.279138E+0	1.252996E+0	1.198599E+0	1.257767E+0	1.297677E+0	1.264193E+0	1.285273E+0	1.263186E+0	1.199113E+0	1.314249E+0	1.276412E+0	1.285863E+0	1.195307E+0	1.207210E+0	1.288143E+0	1.232410E+0	1.242490E+0	1.217891E+0	1.342918E+0	1.281186E+0	1.295002E+0	1.270618E+0	1.284683E+0	1.266329E+0	1.224261E+0	1.252954E+0	1.261321E+0	1.266169E+0	1.319142E+0	1.218169E+0	1.244330E+0	1.244245E+0	1.260912E+0	1.212736E+0	1.280590E+0	1.240172E+0	1.268506E+0	1.319182E+0	1.284796E+0	1.327109E+0	1.193536E+0	1.231837E+0	1.210689E+0	1.281751E+0	1.258882E+0	1.241623E+0	1.226612E+0	1.253707E+0	1.232889E+0	1.277400E+0	1.284529E+0	1.296753E+0	1.235503E+0	1.195460E+0	1.296424E+0	1.299092E+0	1.219159E+0	1.254863E+0	1.208600E+0	1.326978E+0	1.232647E+0	1.262680E+0	1.236112E+0	1.194112E+0	1.283543E+0
5.467660E+2	1.216549E+0	1.125223E+0	1.208600E+0	1.211555E+0	1.216106E+0	1.213694E+0	1.262491E+0	1.226087E+0	1.202451E+0	1.202567E+0	1.200218E+0	1.259804E+0	1.186469E+0	1.212114E+0	1.196359E+0	1.234338E+0	1.156731E+0	1.181216E+0	1.255413E+0	1.201693E+0	1.192225E+0	1.198129E+0	1.252786E+0	1.246812E+0	1.241394E+0	1.218083E+0	1.217441E+0	1.241805E+0	1.298494E+0	1.174806E+0	1.224755E+0	1.214593E+0	1.214006E+0	1.167095E+0	1.233737E+0	1.171170E+0	1.209870E+0	1.214773E+0	1.257902E+0	1.234077E+0	1.164218E+0	1.169448E+0	1.202045E+0	1.196860E+0	1.217085E+0	1.224057E+0	1.219896E+0	1.144695E+0	1.246646E+0	1.237799E+0	1.242895E+0	1.167624E+0	1.174681E+0	1.213757E+0	1.235165E+0	1.202589E+0	1.191925E+0	1.179675E+0	1.176123E+0	1.201306E+0	1.217660E+0	1.171352E+0	1.199796E+0	1.212201E+0	1.223028E+0	1.214876E+0	1.223603E+0	1.196034E+0	1.169350E+0	1.245732E+0	1.228206E+0	1.205259E+0	1.216960E+0	1.173447E+0	1.201371E+0	1.184202E+0	1.213115E+0	1.154564E+0	1.161645E+0	1.182575E+0	1.156180E+0	1.230041E+0	1.180593E+0	1.236337E+0	1.243739E+0	1.151312E+0	1.183628E+0	1.250034E+0	1.229168E+0	1.287382E+0	1.172061E+0	1.161592E+0	1.193124E+0	1.195743E+0	1.184774E+0	1.180069E+0	1.286422E+0	1.220217E+0	1.215272E+0	1.254321E+0	1.185827E+0	1.190613E+0	1.199924E+0	1.231345E+0	1.193356E+0	1.236732E+0	1.142048E+0	1.236139E+0	1.199026E+0	1.156297E+0	1.170277E+0	1.226731E+0	1.198294E+0	1.231471E+0	1.205266E+0	1.244909E+0	1.203693E+0	1.225336E+0	1.188839E+0	1.207265E+0	1.215629E+0	1.185359E+0	1.202034E+0	1.191797E+0	1.279863E+0	1.201272E+0	1.193594E+0	1.255898E+0	1.226868E+0	1.172984E+0	1.176851E+0	1.210287E+0	1.193160E+0	1.197521E+0	1.233293E+0	1.176929E+0	1.171182E+0	1.143019E+0	1.188118E+0	1.263667E+0	1.187650E+0	1.211854E+0	1.212535E+0	1.195177E+0	1.208370E+0	1.230517E+0	1.193516E+0	1.170710E+0	1.194333E+0	1.188712E+0	1.255168E+0	1.181856E+0	1.178575E+0	1.201010E+0	1.218343E+0	1.197112E+0	1.258172E+0	1.171339E+0	1.148252E+0	1.180698E+0	1.198538E+0	1.182170E+0	1.190304E+0	1.199309E+0	1.225128E+0	1.267357E+0
5.475340E+2	1.344985E+0	1.324300E+0	1.305588E+0	1.350677E+0	1.303513E+0	1.308877E+0	1.344519E+0	1.341505E+0	1.363620E+0	1.280823E+0	1.261862E+0	1.316593E+0	1.331160E+0	1.293216E+0	1.366999E+0	1.377386E+0	1.305536E+0	1.307308E+0	1.273373E+0	1.342613E+0	1.320991E+0	1.336389E+0	1.346795E+0	1.300780E+0	1.350721E+0	1.290996E+0	1.297166E+0	1.312242E+0	1.371376E+0	1.341902E+0	1.337086E+0	1.322500E+0	1.307525E+0	1.371225E+0	1.237814E+0	1.316282E+0	1.356789E+0	1.331430E+0	1.351717E+0	1.283316E+0	1.362624E+0	1.370954E+0	1.286008E+0	1.327947E+0	1.384967E+0	1.290333E+0	1.371214E+0	1.319031E+0	1.380945E+0	1.355048E+0	1.363481E+0	1.320511E+0	1.328136E+0	1.295398E+0	1.286266E+0	1.299191E+0	1.341081E+0	1.324431E+0	1.278264E+0	1.306057E+0	1.351768E+0	1.312383E+0	1.309473E+0	1.340629E+0	1.284820E+0	1.394074E+0	1.290059E+0	1.365019E+0	1.360227E+0	1.318086E+0	1.352417E+0	1.341461E+0	1.318734E+0	1.299888E+0	1.306541E+0	1.287092E+0	1.329496E+0	1.336656E+0	1.292672E+0	1.343524E+0	1.303119E+0	1.258469E+0	1.287863E+0	1.273977E+0	1.375672E+0	1.326834E+0	1.372873E+0	1.344860E+0	1.319976E+0	1.280622E+0	1.308093E+0	1.331124E+0	1.342622E+0	1.315831E+0	1.343731E+0	1.335299E+0	1.338987E+0	1.304424E+0	1.359110E+0	1.325815E+0	1.328657E+0	1.297468E+0	1.332685E+0	1.324077E+0	1.276259E+0	1.319695E+0	1.310310E+0	1.241758E+0	1.324875E+0	1.278082E+0	1.304544E+0	1.370800E+0	1.323694E+0	1.295645E+0	1.287827E+0	1.380850E+0	1.264362E+0	1.318160E+0	1.322306E+0	1.345307E+0	1.324347E+0	1.346884E+0	1.321709E+0	1.301456E+0	1.339326E+0	1.319082E+0	1.324084E+0	1.284726E+0	1.403961E+0	1.319710E+0	1.245106E+0	1.313677E+0	1.269996E+0	1.318152E+0	1.315771E+0	1.340215E+0	1.301904E+0	1.286229E+0	1.347872E+0	1.338935E+0	1.316707E+0	1.295191E+0	1.320715E+0	1.327903E+0	1.353614E+0	1.276286E+0	1.330620E+0	1.318371E+0	1.295137E+0	1.318506E+0	1.269733E+0	1.352982E+0	1.351266E+0	1.344405E+0	1.286311E+0	1.274046E+0	1.344839E+0	1.328936E+0	1.237965E+0	1.275592E+0	1.331235E+0	1.302253E+0	1.356427E+0	1.220560E+0	1.340102E+0	1.272300E+0
5.482660E+2	1.432607E+0	1.384788E+0	1.426972E+0	1.412297E+0	1.402295E+0	1.439367E+0	1.436026E+0	1.437483E+0	1.372285E+0	1.391291E+0	1.404330E+0	1.393210E+0	1.437858E+0	1.397587E+0	1.417085E+0	1.445352E+0	1.419200E+0	1.400221E+0	1.364644E+0	1.396182E+0	1.377513E+0	1.412789E+0	1.457535E+0	1.402994E+0	1.461708E+0	1.413581E+0	1.392182E+0	1.421614E+0	1.413687E+0	1.406685E+0	1.409316E+0	1.360453E+0	1.428153E+0	1.407255E+0	1.420537E+0	1.391260E+0	1.354149E+0	1.339162E+0	1.399021E+0	1.438872E+0	1.404615E+0	1.415460E+0	1.391327E+0	1.474006E+0	1.402834E+0	1.377654E+0	1.426521E+0	1.391957E+0	1.463067E+0	1.406514E+0	1.411118E+0	1.354053E+0	1.429187E+0	1.430316E+0	1.415288E+0	1.388903E+0	1.410076E+0	1.377304E+0	1.366712E+0	1.435068E+0	1.462441E+0	1.400951E+0	1.372185E+0	1.456332E+0	1.435264E+0	1.392289E+0	1.353838E+0	1.412315E+0	1.398340E+0	1.389505E+0	1.395832E+0	1.398445E+0	1.402326E+0	1.363422E+0	1.400744E+0	1.401298E+0	1.370879E+0	1.394164E+0	1.388589E+0	1.444731E+0	1.488867E+0	1.380631E+0	1.376683E+0	1.370279E+0	1.386160E+0	1.392991E+0	1.416680E+0	1.404512E+0	1.367142E+0	1.355731E+0	1.390321E+0	1.392066E+0	1.385772E+0	1.324533E+0	1.375091E+0	1.388920E+0	1.423799E+0	1.345268E+0	1.400234E+0	1.420752E+0	1.423505E+0	1.384157E+0	1.391258E+0	1.394986E+0	1.463429E+0	1.325028E+0	1.370602E+0	1.389580E+0	1.459416E+0	1.351298E+0	1.370079E+0	1.417685E+0	1.398584E+0	1.357506E+0	1.382833E+0	1.448616E+0	1.384925E+0	1.313338E+0	1.424247E+0	1.415048E+0	1.376189E+0	1.428617E+0	1.400049E+0	1.361358E+0	1.472987E+0	1.395719E+0	1.360052E+0	1.417073E+0	1.389040E+0	1.403119E+0	1.398128E+0	1.394444E+0	1.376280E+0	1.408576E+0	1.398518E+0	1.366031E+0	1.402301E+0	1.419973E+0	1.405904E+0	1.404498E+0	1.432080E+0	1.324945E+0	1.463998E+0	1.350512E+0	1.428195E+0	1.358903E+0	1.401202E+0	1.326455E+0	1.364748E+0	1.387317E+0	1.355184E+0	1.399392E+0	1.402541E+0	1.377968E+0	1.424917E+0	1.438265E+0	1.429690E+0	1.348908E+0	1.367333E+0	1.322540E+0	1.433456E+0	1.407960E+0	1.418456E+0	1.420341E+0	1.433614E+0	1.327384E+0
5.490160E+2	1.391760E+0	1.437905E+0	1.451296E+0	1.455858E+0	1.365955E+0	1.389151E+0	1.484000E+0	1.372903E+0	1.404199E+0	1.371907E+0	1.367718E+0	1.393899E+0	1.420226E+0	1.405430E+0	1.444017E+0	1.382055E+0	1.419927E+0	1.438040E+0	1.393051E+0	1.363711E+0	1.389254E+0	1.401591E+0	1.398779E+0	1.392256E+0	1.463331E+0	1.428520E+0	1.403171E+0	1.399732E+0	1.475366E+0	1.444951E+0	1.387068E+0	1.405273E+0	1.457587E+0	1.424952E+0	1.458270E+0	1.404590E+0	1.458996E+0	1.388804E+0	1.393745E+0	1.350010E+0	1.380707E+0	1.390597E+0	1.353608E+0	1.373572E+0	1.432185E+0	1.387880E+0	1.427280E+0	1.393125E+0	1.437156E+0	1.432330E+0	1.374965E+0	1.399960E+0	1.399439E+0	1.406152E+0	1.378633E+0	1.400510E+0	1.487222E+0	1.416330E+0	1.375425E+0	1.448424E+0	1.455293E+0	1.361552E+0	1.432179E+0	1.467010E+0	1.427904E+0	1.397733E+0	1.418937E+0	1.377620E+0	1.426897E+0	1.519181E+0	1.426595E+0	1.445183E+0	1.408976E+0	1.390717E+0	1.421376E+0	1.395645E+0	1.399867E+0	1.397533E+0	1.385966E+0	1.409233E+0	1.505728E+0	1.326531E+0	1.398457E+0	1.393579E+0	1.428171E+0	1.392700E+0	1.364954E+0	1.450143E+0	1.418622E+0	1.371038E+0	1.365161E+0	1.324325E+0	1.465751E+0	1.375229E+0	1.378126E+0	1.351982E+0	1.442999E+0	1.355495E+0	1.386423E+0	1.414758E+0	1.396966E+0	1.436585E+0	1.384416E+0	1.446609E+0	1.369169E+0	1.370928E+0	1.420745E+0	1.362461E+0	1.431797E+0	1.374519E+0	1.357430E+0	1.442209E+0	1.364380E+0	1.459207E+0	1.419619E+0	1.405162E+0	1.353548E+0	1.376372E+0	1.359466E+0	1.419447E+0	1.438735E+0	1.389550E+0	1.418675E+0	1.417383E+0	1.437617E+0	1.456823E+0	1.362298E+0	1.408621E+0	1.404879E+0	1.369881E+0	1.383829E+0	1.304483E+0	1.407123E+0	1.343011E+0	1.375276E+0	1.376881E+0	1.370569E+0	1.405409E+0	1.398286E+0	1.427190E+0	1.410582E+0	1.336709E+0	1.434131E+0	1.319951E+0	1.395600E+0	1.393916E+0	1.365399E+0	1.401714E+0	1.444475E+0	1.371803E+0	1.438144E+0	1.388121E+0	1.418764E+0	1.315620E+0	1.358683E+0	1.436333E+0	1.414899E+0	1.331071E+0	1.408386E+0	1.358195E+0	1.419928E+0	1.411305E+0	1.453630E+0	1.393812E+0	1.444969E+0	1.344510E+0
5.497570E+2	1.388825E+0	1.374295E+0	1.373624E+0	1.388510E+0	1.334624E+0	1.330160E+0	1.358775E+0	1.330720E+0	1.356862E+0	1.281790E+0	1.412746E+0	1.397099E+0	1.351536E+0	1.301885E+0	1.365862E+0	1.358880E+0	1.350732E+0	1.398166E+0	1.365276E+0	1.359004E+0	1.372924E+0	1.269433E+0	1.340403E+0	1.369499E+0	1.445879E+0	1.358935E+0	1.448881E+0	1.355335E+0	1.442134E+0	1.398381E+0	1.356426E+0	1.388464E+0	1.410057E+0	1.346995E+0	1.390725E+0	1.305783E+0	1.364563E+0	1.350537E+0	1.345007E+0	1.352297E+0	1.331505E+0	1.414851E+0	1.373980E+0	1.393667E+0	1.382293E+0	1.391861E+0	1.408078E+0	1.350134E+0	1.464714E+0	1.353255E+0	1.358221E+0	1.348292E+0	1.385455E+0	1.352064E+0	1.323268E+0	1.341275E+0	1.366612E+0	1.317299E+0	1.291480E+0	1.373442E+0	1.415259E+0	1.315972E+0	1.380645E+0	1.427371E+0	1.342858E+0	1.366045E+0	1.298735E+0	1.386824E+0	1.354809E+0	1.352438E+0	1.339104E+0	1.407539E+0	1.393095E+0	1.321821E+0	1.326599E+0	1.386988E+0	1.350028E+0	1.298851E+0	1.411581E+0	1.444909E+0	1.372710E+0	1.331779E+0	1.350377E+0	1.344795E+0	1.382726E+0	1.372388E+0	1.388064E+0	1.366472E+0	1.330226E+0	1.352237E+0	1.393783E+0	1.342418E+0	1.353293E+0	1.322432E+0	1.368205E+0	1.393341E+0	1.389318E+0	1.321069E+0	1.353889E+0	1.405327E+0	1.334887E+0	1.329626E+0	1.338553E+0	1.349197E+0	1.337130E+0	1.318254E+0	1.365164E+0	1.357462E+0	1.405286E+0	1.337288E+0	1.345787E+0	1.313000E+0	1.296469E+0	1.341873E+0	1.320860E+0	1.328959E+0	1.361379E+0	1.379869E+0	1.380358E+0	1.407769E+0	1.381553E+0	1.393054E+0	1.345059E+0	1.324908E+0	1.309664E+0	1.362668E+0	1.361813E+0	1.404866E+0	1.398621E+0	1.276574E+0	1.372007E+0	1.296437E+0	1.386293E+0	1.390948E+0	1.339680E+0	1.371657E+0	1.351788E+0	1.348652E+0	1.372661E+0	1.420474E+0	1.386423E+0	1.350217E+0	1.358054E+0	1.355118E+0	1.346868E+0	1.390147E+0	1.355986E+0	1.333061E+0	1.356135E+0	1.349615E+0	1.361099E+0	1.347403E+0	1.443790E+0	1.341406E+0	1.306919E+0	1.320317E+0	1.430847E+0	1.350301E+0	1.322652E+0	1.288081E+0	1.404545E+0	1.366349E+0	1.389333E+0	1.281468E+0	1.317318E+0	1.374321E+0
5.505110E+2	1.390238E+0	1.378669E+0	1.394146E+0	1.414122E+0	1.306204E+0	1.358061E+0	1.357825E+0	1.353655E+0	1.375906E+0	1.300213E+0	1.365955E+0	1.322954E+0	1.384284E+0	1.319019E+0	1.398749E+0	1.404702E+0	1.358516E+0	1.350536E+0	1.335274E+0	1.289949E+0	1.353584E+0	1.335551E+0	1.377809E+0	1.393328E+0	1.409372E+0	1.295247E+0	1.333921E+0	1.362157E+0	1.397764E+0	1.328862E+0	1.379272E+0	1.340152E+0	1.423796E+0	1.384762E+0	1.359102E+0	1.316602E+0	1.394287E+0	1.350086E+0	1.347789E+0	1.301014E+0	1.345654E+0	1.347905E+0	1.364477E+0	1.332054E+0	1.405214E+0	1.334748E+0	1.339975E+0	1.365364E+0	1.375993E+0	1.392776E+0	1.394715E+0	1.352453E+0	1.429046E+0	1.397136E+0	1.312741E+0	1.352235E+0	1.325799E+0	1.282250E+0	1.338540E+0	1.343743E+0	1.396079E+0	1.308403E+0	1.339341E+0	1.373730E+0	1.359731E+0	1.315540E+0	1.349767E+0	1.344685E+0	1.304679E+0	1.389609E+0	1.372729E+0	1.351384E+0	1.321967E+0	1.351931E+0	1.266456E+0	1.340603E+0	1.299642E+0	1.347049E+0	1.349111E+0	1.286154E+0	1.340600E+0	1.339747E+0	1.295753E+0	1.286484E+0	1.322736E+0	1.301392E+0	1.315942E+0	1.309780E+0	1.410494E+0	1.331025E+0	1.325877E+0	1.397024E+0	1.355173E+0	1.309442E+0	1.358856E+0	1.324460E+0	1.373722E+0	1.352006E+0	1.335218E+0	1.388996E+0	1.338001E+0	1.341201E+0	1.307733E+0	1.332723E+0	1.336737E+0	1.379727E+0	1.306912E+0	1.315654E+0	1.342991E+0	1.358850E+0	1.309679E+0	1.386110E+0	1.342484E+0	1.333415E+0	1.318857E+0	1.343783E+0	1.303158E+0	1.384674E+0	1.369673E+0	1.320299E+0	1.337272E+0	1.332425E+0	1.331059E+0	1.344215E+0	1.431268E+0	1.335023E+0	1.306850E+0	1.384779E+0	1.343088E+0	1.318124E+0	1.317608E+0	1.335800E+0	1.330016E+0	1.354937E+0	1.291250E+0	1.349134E+0	1.315673E+0	1.337920E+0	1.349759E+0	1.330970E+0	1.369776E+0	1.285563E+0	1.367864E+0	1.306033E+0	1.353301E+0	1.294028E+0	1.384163E+0	1.387781E+0	1.319684E+0	1.349082E+0	1.384331E+0	1.364056E+0	1.381132E+0	1.299477E+0	1.311051E+0	1.384646E+0	1.382381E+0	1.303881E+0	1.325228E+0	1.290642E+0	1.383798E+0	1.324288E+0	1.313004E+0	1.294778E+0	1.405246E+0	1.247939E+0
5.512570E+2	1.326229E+0	1.368868E+0	1.286210E+0	1.320567E+0	1.314778E+0	1.380436E+0	1.361157E+0	1.363984E+0	1.324708E+0	1.311368E+0	1.354083E+0	1.337512E+0	1.336327E+0	1.328615E+0	1.391183E+0	1.324183E+0	1.341389E+0	1.324782E+0	1.272623E+0	1.347343E+0	1.339976E+0	1.379244E+0	1.346800E+0	1.288478E+0	1.367908E+0	1.307261E+0	1.307282E+0	1.336838E+0	1.401717E+0	1.382597E+0	1.350376E+0	1.317572E+0	1.372553E+0	1.364289E+0	1.349069E+0	1.351349E+0	1.368168E+0	1.273945E+0	1.287433E+0	1.411756E+0	1.304055E+0	1.371275E+0	1.361210E+0	1.308680E+0	1.323550E+0	1.355818E+0	1.324707E+0	1.354018E+0	1.368931E+0	1.350143E+0	1.312417E+0	1.348331E+0	1.322340E+0	1.319588E+0	1.336426E+0	1.341916E+0	1.310553E+0	1.311313E+0	1.303391E+0	1.345783E+0	1.360763E+0	1.277730E+0	1.329125E+0	1.329836E+0	1.358762E+0	1.352276E+0	1.381576E+0	1.344028E+0	1.286576E+0	1.394332E+0	1.364562E+0	1.341831E+0	1.399465E+0	1.324907E+0	1.311109E+0	1.295177E+0	1.362096E+0	1.302866E+0	1.384855E+0	1.346913E+0	1.387065E+0	1.331822E+0	1.282474E+0	1.284303E+0	1.336432E+0	1.306641E+0	1.351607E+0	1.304960E+0	1.337324E+0	1.310450E+0	1.353510E+0	1.317508E+0	1.374548E+0	1.310633E+0	1.300432E+0	1.351520E+0	1.366537E+0	1.325751E+0	1.354597E+0	1.302858E+0	1.325851E+0	1.289300E+0	1.326477E+0	1.344892E+0	1.284486E+0	1.324655E+0	1.350213E+0	1.332049E+0	1.355389E+0	1.288604E+0	1.308088E+0	1.333194E+0	1.312530E+0	1.303949E+0	1.245948E+0	1.354915E+0	1.348384E+0	1.300441E+0	1.255816E+0	1.371411E+0	1.311258E+0	1.352990E+0	1.295756E+0	1.309779E+0	1.340389E+0	1.353991E+0	1.346481E+0	1.416303E+0	1.397223E+0	1.315412E+0	1.318802E+0	1.332253E+0	1.339124E+0	1.361647E+0	1.313894E+0	1.335499E+0	1.279812E+0	1.312546E+0	1.356502E+0	1.317666E+0	1.364124E+0	1.332688E+0	1.376637E+0	1.343290E+0	1.322529E+0	1.300241E+0	1.350260E+0	1.333393E+0	1.297374E+0	1.315710E+0	1.351606E+0	1.345933E+0	1.363019E+0	1.334507E+0	1.318098E+0	1.372132E+0	1.343224E+0	1.304454E+0	1.292702E+0	1.296705E+0	1.322497E+0	1.316188E+0	1.371475E+0	1.311951E+0	1.313041E+0	1.317922E+0
5.520150E+2	1.410997E+0	1.322448E+0	1.354788E+0	1.345585E+0	1.365490E+0	1.409599E+0	1.389019E+0	1.354271E+0	1.322549E+0	1.334904E+0	1.330830E+0	1.328780E+0	1.300323E+0	1.317005E+0	1.304648E+0	1.340201E+0	1.321288E+0	1.337898E+0	1.402365E+0	1.350437E+0	1.317865E+0	1.377593E+0	1.331262E+0	1.367838E+0	1.308902E+0	1.340242E+0	1.354805E+0	1.269151E+0	1.389289E+0	1.450485E+0	1.318451E+0	1.363898E+0	1.361533E+0	1.337115E+0	1.374899E+0	1.317943E+0	1.329342E+0	1.285115E+0	1.321659E+0	1.340010E+0	1.310549E+0	1.369957E+0	1.415119E+0	1.324812E+0	1.344759E+0	1.315125E+0	1.443658E+0	1.348212E+0	1.376651E+0	1.393580E+0	1.344321E+0	1.352855E+0	1.332142E+0	1.370664E+0	1.342586E+0	1.328396E+0	1.285328E+0	1.306747E+0	1.305429E+0	1.331143E+0	1.390044E+0	1.292456E+0	1.344395E+0	1.397572E+0	1.340072E+0	1.397866E+0	1.358470E+0	1.305244E+0	1.345682E+0	1.324508E+0	1.345807E+0	1.392378E+0	1.354148E+0	1.290335E+0	1.332757E+0	1.266916E+0	1.326753E+0	1.357041E+0	1.385749E+0	1.308933E+0	1.360745E+0	1.307492E+0	1.252442E+0	1.292850E+0	1.376742E+0	1.301314E+0	1.321209E+0	1.348427E+0	1.365262E+0	1.361476E+0	1.307391E+0	1.291694E+0	1.368684E+0	1.322934E+0	1.341313E+0	1.302517E+0	1.370019E+0	1.302579E+0	1.292388E+0	1.417942E+0	1.279016E+0	1.394672E+0	1.363336E+0	1.360271E+0	1.333560E+0	1.345291E+0	1.288242E+0	1.331350E+0	1.395478E+0	1.304589E+0	1.327304E+0	1.352471E+0	1.365131E+0	1.326446E+0	1.286856E+0	1.334932E+0	1.375190E+0	1.351938E+0	1.271619E+0	1.314220E+0	1.372334E+0	1.375117E+0	1.334429E+0	1.320511E+0	1.355985E+0	1.351797E+0	1.334686E+0	1.381929E+0	1.351716E+0	1.340722E+0	1.304803E+0	1.374907E+0	1.331006E+0	1.350934E+0	1.246577E+0	1.369937E+0	1.344889E+0	1.383062E+0	1.368441E+0	1.388616E+0	1.346364E+0	1.350705E+0	1.349585E+0	1.323338E+0	1.414468E+0	1.350851E+0	1.348584E+0	1.363050E+0	1.312487E+0	1.350094E+0	1.369927E+0	1.381610E+0	1.372198E+0	1.313648E+0	1.345353E+0	1.322008E+0	1.304657E+0	1.351491E+0	1.273757E+0	1.345570E+0	1.437091E+0	1.287644E+0	1.283257E+0	1.312456E+0	1.304633E+0	1.405077E+0
5.527650E+2	1.287646E+0	1.341072E+0	1.326030E+0	1.303841E+0	1.283718E+0	1.284922E+0	1.372931E+0	1.272577E+0	1.321708E+0	1.269008E+0	1.300222E+0	1.326375E+0	1.268782E+0	1.284789E+0	1.285221E+0	1.319223E+0	1.304936E+0	1.320752E+0	1.340753E+0	1.280846E+0	1.272093E+0	1.232901E+0	1.316407E+0	1.302187E+0	1.308500E+0	1.281809E+0	1.321193E+0	1.279256E+0	1.371195E+0	1.298371E+0	1.270777E+0	1.341382E+0	1.297910E+0	1.309418E+0	1.342548E+0	1.285151E+0	1.340793E+0	1.334944E+0	1.324624E+0	1.303093E+0	1.261383E+0	1.279912E+0	1.266697E+0	1.327561E+0	1.314160E+0	1.295195E+0	1.320838E+0	1.336993E+0	1.301113E+0	1.378359E+0	1.307249E+0	1.232879E+0	1.311467E+0	1.248036E+0	1.330951E+0	1.322792E+0	1.375756E+0	1.282697E+0	1.278155E+0	1.257770E+0	1.254441E+0	1.279654E+0	1.291478E+0	1.335032E+0	1.336885E+0	1.295679E+0	1.360249E+0	1.289133E+0	1.319234E+0	1.309306E+0	1.327646E+0	1.339228E+0	1.330509E+0	1.253221E+0	1.270730E+0	1.250188E+0	1.271865E+0	1.283929E+0	1.330040E+0	1.334121E+0	1.339875E+0	1.313280E+0	1.364837E+0	1.234349E+0	1.266116E+0	1.317649E+0	1.218236E+0	1.282186E+0	1.368456E+0	1.248801E+0	1.273647E+0	1.255405E+0	1.316274E+0	1.239950E+0	1.281573E+0	1.334351E+0	1.280352E+0	1.275923E+0	1.301561E+0	1.283075E+0	1.340433E+0	1.295372E+0	1.270009E+0	1.258333E+0	1.286291E+0	1.333174E+0	1.302468E+0	1.299855E+0	1.329927E+0	1.275245E+0	1.271321E+0	1.326148E+0	1.298763E+0	1.315723E+0	1.248430E+0	1.354998E+0	1.324047E+0	1.319964E+0	1.364330E+0	1.298743E+0	1.280992E+0	1.311099E+0	1.277502E+0	1.335052E+0	1.322150E+0	1.240124E+0	1.282791E+0	1.327592E+0	1.330805E+0	1.317631E+0	1.223300E+0	1.256432E+0	1.288643E+0	1.302818E+0	1.258106E+0	1.343225E+0	1.286433E+0	1.300691E+0	1.346622E+0	1.344842E+0	1.313434E+0	1.236942E+0	1.300167E+0	1.262501E+0	1.304127E+0	1.269648E+0	1.299055E+0	1.290478E+0	1.326868E+0	1.323273E+0	1.266280E+0	1.269880E+0	1.316477E+0	1.297550E+0	1.348072E+0	1.364048E+0	1.377523E+0	1.340220E+0	1.262718E+0	1.222729E+0	1.335678E+0	1.237123E+0	1.312053E+0	1.280888E+0	1.259751E+0	1.201217E+0
5.535550E+2	1.290974E+0	1.225609E+0	1.254283E+0	1.298819E+0	1.234202E+0	1.253087E+0	1.272238E+0	1.298933E+0	1.250271E+0	1.210681E+0	1.270974E+0	1.225806E+0	1.219987E+0	1.248215E+0	1.247029E+0	1.234973E+0	1.238769E+0	1.208041E+0	1.211648E+0	1.239544E+0	1.245087E+0	1.212303E+0	1.230760E+0	1.214756E+0	1.276267E+0	1.261426E+0	1.265881E+0	1.247791E+0	1.258222E+0	1.251021E+0	1.220484E+0	1.235588E+0	1.239261E+0	1.229216E+0	1.221900E+0	1.200630E+0	1.217513E+0	1.241722E+0	1.289156E+0	1.213219E+0	1.206609E+0	1.277044E+0	1.262347E+0	1.220307E+0	1.202462E+0	1.288450E+0	1.238796E+0	1.243688E+0	1.241258E+0	1.268115E+0	1.265737E+0	1.253203E+0	1.265417E+0	1.205146E+0	1.219868E+0	1.267098E+0	1.258654E+0	1.266084E+0	1.225530E+0	1.203878E+0	1.259473E+0	1.219256E+0	1.221004E+0	1.274478E+0	1.233362E+0	1.312336E+0	1.239956E+0	1.262942E+0	1.232034E+0	1.205770E+0	1.259480E+0	1.252632E+0	1.203791E+0	1.190587E+0	1.247870E+0	1.236154E+0	1.295777E+0	1.229543E+0	1.263238E+0	1.191459E+0	1.229499E+0	1.219722E+0	1.216103E+0	1.293406E+0	1.194905E+0	1.253798E+0	1.219343E+0	1.340955E+0	1.323664E+0	1.169851E+0	1.243764E+0	1.230049E+0	1.234047E+0	1.236826E+0	1.287275E+0	1.225070E+0	1.275261E+0	1.210812E+0	1.244512E+0	1.264975E+0	1.197197E+0	1.262288E+0	1.277618E+0	1.210964E+0	1.229017E+0	1.151572E+0	1.183164E+0	1.240377E+0	1.284974E+0	1.247202E+0	1.255320E+0	1.197120E+0	1.275640E+0	1.209909E+0	1.204748E+0	1.244396E+0	1.232526E+0	1.210100E+0	1.226754E+0	1.241776E+0	1.284454E+0	1.248318E+0	1.259262E+0	1.208981E+0	1.309220E+0	1.252540E+0	1.257028E+0	1.263550E+0	1.272018E+0	1.216567E+0	1.245335E+0	1.219777E+0	1.228029E+0	1.204661E+0	1.234735E+0	1.255767E+0	1.214645E+0	1.198122E+0	1.235438E+0	1.275156E+0	1.281390E+0	1.208116E+0	1.249838E+0	1.204117E+0	1.270281E+0	1.238414E+0	1.289576E+0	1.271610E+0	1.242806E+0	1.288449E+0	1.256446E+0	1.275281E+0	1.302583E+0	1.272410E+0	1.256540E+0	1.225359E+0	1.205917E+0	1.258907E+0	1.223510E+0	1.235708E+0	1.287963E+0	1.234534E+0	1.276172E+0	1.221286E+0	1.253939E+0	1.147002E+0
5.542640E+2	1.263689E+0	1.173727E+0	1.193003E+0	1.203943E+0	1.117972E+0	1.170451E+0	1.198714E+0	1.227837E+0	1.150807E+0	1.138191E+0	1.161812E+0	1.223631E+0	1.113529E+0	1.148162E+0	1.164240E+0	1.178106E+0	1.220916E+0	1.110134E+0	1.143950E+0	1.194933E+0	1.143094E+0	1.185129E+0	1.195873E+0	1.156389E+0	1.185438E+0	1.186763E+0	1.160537E+0	1.187035E+0	1.146711E+0	1.174969E+0	1.190294E+0	1.151418E+0	1.172599E+0	1.167721E+0	1.161471E+0	1.200797E+0	1.155919E+0	1.136307E+0	1.172333E+0	1.184958E+0	1.145068E+0	1.170444E+0	1.170342E+0	1.152025E+0	1.177301E+0	1.126868E+0	1.134496E+0	1.124927E+0	1.136691E+0	1.194302E+0	1.152339E+0	1.145510E+0	1.179160E+0	1.157221E+0	1.180335E+0	1.282162E+0	1.145057E+0	1.149364E+0	1.143183E+0	1.147457E+0	1.138605E+0	1.221539E+0	1.160334E+0	1.189757E+0	1.179254E+0	1.258599E+0	1.138560E+0	1.165604E+0	1.133768E+0	1.216369E+0	1.182173E+0	1.245326E+0	1.179238E+0	1.128826E+0	1.193266E+0	1.207190E+0	1.156054E+0	1.161445E+0	1.175411E+0	1.165393E+0	1.207338E+0	1.158053E+0	1.152313E+0	1.146093E+0	1.171687E+0	1.167929E+0	1.149432E+0	1.210735E+0	1.163391E+0	1.183747E+0	1.192817E+0	1.146144E+0	1.184601E+0	1.163696E+0	1.111848E+0	1.172228E+0	1.225768E+0	1.118718E+0	1.148736E+0	1.177205E+0	1.148401E+0	1.186969E+0	1.141932E+0	1.137208E+0	1.132066E+0	1.130872E+0	1.123756E+0	1.165107E+0	1.261262E+0	1.121740E+0	1.171693E+0	1.215760E+0	1.156119E+0	1.127979E+0	1.127970E+0	1.204236E+0	1.184668E+0	1.173958E+0	1.156219E+0	1.220311E+0	1.190361E+0	1.188491E+0	1.170243E+0	1.136550E+0	1.225618E+0	1.185566E+0	1.123195E+0	1.177472E+0	1.238194E+0	1.137632E+0	1.148632E+0	1.108450E+0	1.184115E+0	1.125016E+0	1.100613E+0	1.157342E+0	1.167158E+0	1.148144E+0	1.169795E+0	1.132910E+0	1.190007E+0	1.139179E+0	1.132527E+0	1.188706E+0	1.183736E+0	1.224323E+0	1.128790E+0	1.166216E+0	1.154628E+0	1.165315E+0	1.157979E+0	1.209307E+0	1.179270E+0	1.177087E+0	1.151807E+0	1.178921E+0	1.242594E+0	1.165895E+0	1.136601E+0	1.124778E+0	1.190141E+0	1.144231E+0	1.140212E+0	1.171020E+0	1.084911E+0	1.124390E+0
5.550360E+2	1.044317E+0	1.109727E+0	1.103372E+0	1.083048E+0	1.096119E+0	1.089612E+0	1.106296E+0	1.087617E+0	1.058458E+0	1.069552E+0	1.074733E+0	1.093951E+0	1.058169E+0	1.081567E+0	1.070343E+0	1.069128E+0	1.020930E+0	1.082610E+0	1.106158E+0	1.046446E+0	1.059280E+0	1.060967E+0	1.038491E+0	1.113897E+0	1.088150E+0	1.084030E+0	1.070673E+0	1.022755E+0	1.130004E+0	1.103565E+0	1.099665E+0	1.054242E+0	1.099002E+0	1.077073E+0	1.078663E+0	1.030190E+0	1.051096E+0	1.054286E+0	1.067008E+0	1.068243E+0	1.095240E+0	1.042374E+0	1.088422E+0	1.056803E+0	1.071473E+0	1.137629E+0	1.016411E+0	1.064230E+0	1.052923E+0	1.089357E+0	1.032361E+0	1.086363E+0	1.090313E+0	1.075782E+0	1.059912E+0	1.096220E+0	1.060478E+0	1.069627E+0	1.064703E+0	1.071505E+0	1.090304E+0	1.068135E+0	1.019295E+0	1.086696E+0	1.111311E+0	1.097045E+0	1.067212E+0	1.073686E+0	1.077715E+0	1.138689E+0	1.107382E+0	1.107293E+0	1.076462E+0	1.031722E+0	1.059377E+0	1.038520E+0	1.051937E+0	1.041676E+0	1.090291E+0	1.085586E+0	1.113269E+0	1.104718E+0	1.050097E+0	1.051483E+0	1.080162E+0	1.157103E+0	1.069416E+0	1.114461E+0	1.096128E+0	1.094065E+0	1.066229E+0	1.091279E+0	1.102075E+0	1.009233E+0	1.038060E+0	1.028939E+0	1.093246E+0	1.026761E+0	1.089819E+0	1.058784E+0	1.070938E+0	1.091168E+0	1.070275E+0	1.074464E+0	1.027248E+0	1.065862E+0	9.900280E-1	1.107949E+0	1.057958E+0	1.057120E+0	1.084280E+0	1.099258E+0	1.095078E+0	1.116761E+0	1.078914E+0	1.077601E+0	1.049068E+0	1.074803E+0	1.092697E+0	1.104302E+0	1.097438E+0	1.151093E+0	1.098513E+0	1.050221E+0	1.108738E+0	1.049205E+0	1.068160E+0	1.103023E+0	1.036052E+0	1.032525E+0	1.079831E+0	9.987327E-1	1.018644E+0	1.095003E+0	1.096140E+0	1.130411E+0	1.034623E+0	1.076689E+0	1.028150E+0	1.126407E+0	1.134406E+0	1.029271E+0	1.057218E+0	1.037205E+0	1.080606E+0	1.072294E+0	1.092814E+0	1.066437E+0	1.116616E+0	1.028028E+0	1.115428E+0	1.052970E+0	1.070136E+0	1.094393E+0	1.059062E+0	1.046054E+0	1.083423E+0	1.058904E+0	1.054764E+0	1.060911E+0	1.147688E+0	1.075244E+0	1.147046E+0	1.053828E+0	1.090550E+0	1.027407E+0
5.557600E+2	1.009468E+0	9.846749E-1	9.368812E-1	9.679507E-1	9.927304E-1	9.967759E-1	9.858992E-1	9.823100E-1	9.906067E-1	9.845322E-1	9.542121E-1	9.659069E-1	1.013944E+0	9.928281E-1	1.011785E+0	9.817744E-1	9.697103E-1	1.035687E+0	9.882674E-1	9.975978E-1	9.729766E-1	9.787361E-1	1.006060E+0	9.985544E-1	9.700286E-1	1.003181E+0	1.000569E+0	9.386010E-1	1.062546E+0	9.763400E-1	9.593098E-1	9.519949E-1	1.001828E+0	1.018042E+0	9.955181E-1	9.462918E-1	1.034624E+0	1.012239E+0	9.677285E-1	9.723666E-1	1.005004E+0	9.935491E-1	9.740517E-1	9.642688E-1	9.599901E-1	1.021107E+0	1.006094E+0	1.005514E+0	1.003174E+0	9.946297E-1	9.490160E-1	9.666363E-1	1.034959E+0	9.929067E-1	1.004599E+0	1.001926E+0	9.879620E-1	9.736793E-1	9.890676E-1	1.015144E+0	9.698776E-1	9.778870E-1	9.994455E-1	1.002742E+0	1.002585E+0	1.019451E+0	1.056538E+0	1.042705E+0	9.933861E-1	9.943494E-1	1.007461E+0	1.048873E+0	1.002411E+0	9.923064E-1	1.002224E+0	9.646500E-1	9.715155E-1	9.561809E-1	1.017908E+0	1.001335E+0	1.043735E+0	1.001056E+0	1.001743E+0	9.747169E-1	1.013894E+0	9.767874E-1	9.798461E-1	9.850327E-1	9.653293E-1	1.007396E+0	9.616769E-1	9.812854E-1	1.036787E+0	9.871819E-1	9.453416E-1	9.492094E-1	9.983478E-1	9.791683E-1	9.892498E-1	9.873193E-1	9.943400E-1	1.032179E+0	1.007405E+0	9.573203E-1	9.676675E-1	9.902347E-1	9.932313E-1	1.002640E+0	1.010742E+0	1.020581E+0	1.008777E+0	9.852933E-1	9.846571E-1	9.963584E-1	1.020066E+0	9.815240E-1	9.587170E-1	9.813111E-1	1.009427E+0	1.051634E+0	1.020536E+0	1.004307E+0	1.047392E+0	1.007246E+0	9.876310E-1	9.985298E-1	1.012137E+0	1.012237E+0	9.809955E-1	9.711743E-1	9.877560E-1	9.960485E-1	1.002501E+0	1.000894E+0	9.889799E-1	1.076964E+0	1.036979E+0	9.999870E-1	9.805457E-1	1.041816E+0	1.028658E+0	1.016973E+0	1.008895E+0	9.848738E-1	1.034873E+0	1.015898E+0	1.009952E+0	9.952453E-1	9.994803E-1	1.008521E+0	1.036410E+0	1.020668E+0	1.043945E+0	1.009331E+0	1.004779E+0	1.023298E+0	1.044837E+0	1.029701E+0	1.003164E+0	9.489645E-1	9.690992E-1	9.968717E-1	9.543947E-1	1.014020E+0	9.585540E-1	9.440650E-1
5.560190E+2	1.019525E+0	9.871872E-1	1.022932E+0	9.934285E-1	9.932665E-1	9.809192E-1	9.706891E-1	9.738235E-1	9.998754E-1	1.036953E+0	9.187714E-1	9.534687E-1	9.628541E-1	1.037553E+0	9.877843E-1	9.691481E-1	1.035376E+0	1.018650E+0	9.698375E-1	9.963605E-1	1.032881E+0	9.742205E-1	1.035313E+0	9.770596E-1	9.700944E-1	9.990171E-1	9.914812E-1	9.922198E-1	9.755059E-1	1.021805E+0	1.004009E+0	9.825699E-1	9.923133E-1	1.020991E+0	9.966574E-1	1.001401E+0	9.812325E-1	9.422218E-1	1.015298E+0	1.027361E+0	9.441039E-1	1.007967E+0	9.898077E-1	9.885734E-1	9.579867E-1	1.008473E+0	9.527177E-1	9.848733E-1	9.935272E-1	1.047413E+0	9.825853E-1	1.029706E+0	1.012202E+0	9.544713E-1	9.719465E-1	9.498691E-1	1.000157E+0	1.030665E+0	1.017354E+0	9.935898E-1	1.041615E+0	1.000992E+0	9.796095E-1	1.011477E+0	9.888078E-1	1.009510E+0	1.014156E+0	1.038210E+0	9.405402E-1	9.608181E-1	9.944034E-1	1.015374E+0	1.001881E+0	9.699175E-1	1.002991E+0	9.862596E-1	9.715455E-1	9.989177E-1	1.023211E+0	9.840617E-1	1.037116E+0	9.528782E-1	1.023817E+0	9.365065E-1	9.633738E-1	1.021477E+0	1.005432E+0	9.768776E-1	1.002966E+0	9.970499E-1	1.027250E+0	9.503499E-1	1.035454E+0	1.021195E+0	9.865995E-1	9.969240E-1	1.006510E+0	9.630806E-1	9.567229E-1	1.023967E+0	9.971511E-1	9.601862E-1	9.853081E-1	9.429135E-1	9.303611E-1	1.019610E+0	9.972280E-1	1.003537E+0	9.755653E-1	9.834019E-1	1.009733E+0	1.008150E+0	9.685769E-1	9.684874E-1	9.901067E-1	9.760364E-1	9.795442E-1	9.833853E-1	1.008775E+0	9.923706E-1	9.521202E-1	1.059419E+0	9.560037E-1	9.742342E-1	1.036551E+0	9.855806E-1	1.014778E+0	9.859292E-1	9.793561E-1	9.998756E-1	9.875137E-1	9.462375E-1	9.807749E-1	1.007593E+0	9.836235E-1	1.008320E+0	9.872204E-1	9.561430E-1	1.008622E+0	1.018890E+0	9.819763E-1	9.695572E-1	9.455267E-1	9.973747E-1	1.028806E+0	9.770732E-1	1.014265E+0	9.923758E-1	9.977525E-1	1.009752E+0	1.011924E+0	1.033731E+0	1.011390E+0	9.684113E-1	1.004709E+0	9.688406E-1	1.020079E+0	9.398048E-1	1.027861E+0	9.560593E-1	9.791049E-1	1.028832E+0	1.010038E+0	9.911610E-1	9.396608E-1	9.285216E-1
5.565030E+2	9.743950E-1	9.667939E-1	1.037542E+0	1.018943E+0	9.521465E-1	9.421399E-1	1.035312E+0	9.705736E-1	1.008013E+0	9.649296E-1	9.543919E-1	1.016431E+0	9.862835E-1	9.604638E-1	9.795183E-1	9.625294E-1	9.515131E-1	9.892041E-1	9.753850E-1	9.711949E-1	9.624899E-1	9.983092E-1	1.024052E+0	9.882812E-1	9.306747E-1	1.000294E+0	9.751450E-1	9.653164E-1	1.012506E+0	1.001670E+0	9.859117E-1	9.476357E-1	9.927593E-1	1.031029E+0	1.012076E+0	9.834723E-1	1.011977E+0	9.737910E-1	1.009670E+0	9.889281E-1	9.636141E-1	9.890163E-1	9.786932E-1	9.632000E-1	9.908322E-1	9.920033E-1	9.825337E-1	9.971851E-1	9.849674E-1	1.017045E+0	9.864665E-1	9.674326E-1	1.012528E+0	1.012447E+0	9.785866E-1	9.854251E-1	9.885381E-1	9.748044E-1	9.890112E-1	1.009970E+0	9.896351E-1	1.002937E+0	1.021616E+0	9.450064E-1	9.489577E-1	1.006822E+0	9.819349E-1	1.001154E+0	9.669019E-1	9.937154E-1	9.931082E-1	1.023589E+0	9.784020E-1	9.545444E-1	9.849648E-1	9.788629E-1	9.758968E-1	9.882497E-1	1.008931E+0	9.746956E-1	1.060116E+0	1.011192E+0	9.862896E-1	9.866532E-1	9.794489E-1	9.717804E-1	1.006477E+0	1.002008E+0	9.835313E-1	1.023603E+0	9.620014E-1	9.597505E-1	9.572973E-1	9.509151E-1	9.684458E-1	9.836219E-1	9.814306E-1	9.746373E-1	1.011478E+0	1.023896E+0	9.893241E-1	9.929270E-1	9.731875E-1	1.031258E+0	9.906340E-1	9.825633E-1	9.946148E-1	9.574647E-1	9.913338E-1	9.572248E-1	1.001754E+0	9.778688E-1	9.669802E-1	9.731541E-1	9.674383E-1	9.942921E-1	9.622423E-1	9.921768E-1	9.950377E-1	9.904017E-1	1.027142E+0	1.017201E+0	1.019520E+0	1.007115E+0	9.916993E-1	1.033388E+0	9.334032E-1	1.061085E+0	1.027764E+0	9.856015E-1	9.837165E-1	9.347443E-1	1.010358E+0	1.001839E+0	1.006030E+0	1.021797E+0	9.402886E-1	1.018149E+0	1.028125E+0	9.817787E-1	1.007566E+0	9.728498E-1	9.872956E-1	9.869848E-1	1.011017E+0	9.486041E-1	9.846080E-1	9.924500E-1	9.657196E-1	1.041907E+0	1.005032E+0	9.917996E-1	1.038924E+0	9.479982E-1	9.793048E-1	1.023706E+0	1.038456E+0	9.874182E-1	9.948945E-1	9.890806E-1	1.007251E+0	9.711881E-1	1.020996E+0	9.764553E-1	9.704916E-1	9.663249E-1
5.570440E+2	1.061575E+0	9.610604E-1	9.618947E-1	9.773865E-1	9.785460E-1	9.991287E-1	1.015123E+0	9.835635E-1	1.010180E+0	9.907279E-1	9.667233E-1	1.018970E+0	1.013892E+0	9.825700E-1	9.962868E-1	1.013236E+0	9.979368E-1	1.021225E+0	9.957899E-1	1.053085E+0	9.614590E-1	1.007601E+0	1.008760E+0	9.949689E-1	9.928652E-1	1.004095E+0	9.789374E-1	9.792470E-1	1.008284E+0	1.016550E+0	1.021945E+0	1.002375E+0	1.032391E+0	9.931698E-1	1.025949E+0	1.009159E+0	9.776918E-1	1.021517E+0	9.719689E-1	9.859499E-1	9.326520E-1	1.013139E+0	9.939617E-1	1.006156E+0	9.792662E-1	9.877654E-1	9.633890E-1	1.007221E+0	9.531718E-1	1.062073E+0	1.005856E+0	1.030742E+0	9.931631E-1	9.862763E-1	9.789822E-1	1.013614E+0	9.721255E-1	9.447653E-1	9.442708E-1	9.989124E-1	9.955839E-1	1.003139E+0	9.912916E-1	1.024727E+0	9.893313E-1	1.005033E+0	9.631582E-1	1.006497E+0	9.695958E-1	9.824901E-1	1.004998E+0	1.002785E+0	1.021232E+0	9.169974E-1	9.824885E-1	9.311425E-1	9.826342E-1	9.849416E-1	1.011068E+0	1.018435E+0	1.041505E+0	9.897353E-1	9.843767E-1	1.011112E+0	9.766314E-1	9.795990E-1	1.011557E+0	1.044951E+0	9.705524E-1	1.009948E+0	9.947617E-1	1.010603E+0	1.031043E+0	1.005570E+0	9.652473E-1	1.030963E+0	9.694435E-1	9.481575E-1	1.005367E+0	1.008553E+0	9.871140E-1	1.003977E+0	1.026555E+0	1.006750E+0	9.643000E-1	1.032386E+0	9.529135E-1	1.009695E+0	1.024958E+0	9.653156E-1	9.610868E-1	9.925487E-1	9.557422E-1	9.656451E-1	9.267802E-1	1.046035E+0	9.942344E-1	1.016448E+0	1.012147E+0	1.009666E+0	9.676341E-1	1.056608E+0	9.877542E-1	9.891278E-1	9.786910E-1	9.582640E-1	9.624215E-1	1.072236E+0	1.016213E+0	1.015899E+0	1.010435E+0	9.197792E-1	9.458204E-1	1.016985E+0	9.875710E-1	1.011214E+0	9.661159E-1	1.011704E+0	1.025763E+0	9.826091E-1	9.847413E-1	1.012409E+0	9.777962E-1	1.008789E+0	1.050314E+0	9.877052E-1	9.664080E-1	9.988405E-1	9.444997E-1	1.012236E+0	1.022674E+0	1.045161E+0	1.008412E+0	9.502922E-1	1.045872E+0	9.795687E-1	1.015973E+0	1.028101E+0	9.756004E-1	9.532569E-1	9.960322E-1	1.009625E+0	1.044367E+0	1.027197E+0	9.396741E-1	1.021542E+0
5.575190E+2	1.002998E+0	1.005294E+0	1.053406E+0	9.810323E-1	9.958377E-1	9.818575E-1	1.034912E+0	1.023221E+0	1.002587E+0	9.664039E-1	1.033624E+0	1.034286E+0	1.024427E+0	9.929112E-1	9.983907E-1	9.673661E-1	9.684666E-1	9.996270E-1	9.398997E-1	9.584348E-1	9.958002E-1	1.018847E+0	1.040399E+0	9.923661E-1	9.709342E-1	9.913304E-1	9.898545E-1	9.993081E-1	9.503199E-1	1.020437E+0	9.977483E-1	9.744244E-1	9.560517E-1	9.790015E-1	9.701401E-1	9.926946E-1	9.550086E-1	9.756136E-1	9.817253E-1	9.649140E-1	9.744632E-1	9.977859E-1	9.949598E-1	1.006861E+0	9.952795E-1	1.029178E+0	9.986498E-1	1.008188E+0	9.778024E-1	1.010393E+0	9.623785E-1	9.897531E-1	9.665145E-1	1.009078E+0	9.874009E-1	9.757498E-1	9.926559E-1	9.732448E-1	1.004163E+0	9.996419E-1	1.014645E+0	9.676379E-1	1.000880E+0	1.020252E+0	9.697125E-1	9.701691E-1	1.006951E+0	9.777997E-1	1.013330E+0	9.652095E-1	1.013997E+0	9.672985E-1	9.740118E-1	1.036929E+0	9.643463E-1	9.985215E-1	9.697973E-1	1.023191E+0	9.929015E-1	9.894007E-1	1.022031E+0	1.000610E+0	9.953901E-1	9.570138E-1	9.823186E-1	9.770253E-1	1.028653E+0	9.727402E-1	9.946010E-1	9.822931E-1	9.678849E-1	1.024197E+0	9.492238E-1	9.875696E-1	9.989199E-1	1.007450E+0	1.004173E+0	9.939877E-1	9.725579E-1	9.378620E-1	1.002110E+0	9.757982E-1	1.005373E+0	9.870619E-1	9.697564E-1	9.911266E-1	1.027236E+0	9.472722E-1	1.029917E+0	9.909581E-1	9.719438E-1	9.922128E-1	1.035292E+0	9.714997E-1	9.564646E-1	9.975380E-1	9.986273E-1	1.022670E+0	9.999584E-1	9.812825E-1	9.845527E-1	9.482314E-1	9.812678E-1	9.815019E-1	9.846550E-1	9.737725E-1	1.016379E+0	9.795949E-1	9.936604E-1	9.755738E-1	9.881399E-1	1.049952E+0	9.859461E-1	1.000169E+0	9.701991E-1	1.009344E+0	9.872079E-1	9.991082E-1	9.919684E-1	9.384137E-1	1.012125E+0	9.388895E-1	9.839539E-1	9.803858E-1	9.974096E-1	9.928100E-1	1.003303E+0	1.040862E+0	1.008333E+0	1.045993E+0	1.017951E+0	9.876425E-1	9.678488E-1	1.030973E+0	1.032420E+0	1.006826E+0	9.839083E-1	1.004435E+0	1.006162E+0	9.661480E-1	9.935888E-1	1.002046E+0	1.027372E+0	9.601931E-1	9.913576E-1	9.144595E-1
5.580230E+2	9.965795E-1	1.010200E+0	9.734052E-1	1.045204E+0	9.820896E-1	1.021424E+0	9.295469E-1	1.006434E+0	1.027998E+0	1.013985E+0	1.023199E+0	1.011609E+0	1.021063E+0	1.010171E+0	1.038559E+0	1.050326E+0	1.027707E+0	1.030581E+0	1.059679E+0	1.004550E+0	1.018381E+0	1.023352E+0	9.848680E-1	1.003694E+0	1.018871E+0	1.026872E+0	1.021738E+0	1.035861E+0	1.035853E+0	1.040818E+0	1.004613E+0	1.003559E+0	1.028449E+0	1.052605E+0	1.022425E+0	1.047593E+0	1.037216E+0	1.008822E+0	9.509727E-1	1.025923E+0	9.650094E-1	1.024970E+0	1.035615E+0	1.006424E+0	1.021160E+0	1.043005E+0	1.013814E+0	9.988708E-1	9.805800E-1	1.039640E+0	1.059299E+0	1.000057E+0	1.040038E+0	1.030215E+0	9.964616E-1	1.004062E+0	1.032529E+0	1.076662E+0	1.042789E+0	1.019319E+0	1.029740E+0	1.035228E+0	1.021657E+0	1.017613E+0	1.037419E+0	1.001402E+0	1.025458E+0	1.020718E+0	9.807293E-1	1.013542E+0	1.048390E+0	9.970852E-1	1.006770E+0	9.903490E-1	1.028068E+0	1.066193E+0	1.011580E+0	9.694546E-1	1.014601E+0	1.021735E+0	1.018507E+0	1.077391E+0	1.021499E+0	9.917098E-1	1.031259E+0	1.037400E+0	1.056839E+0	9.784656E-1	1.009678E+0	1.075074E+0	1.010554E+0	9.965151E-1	1.041849E+0	1.032725E+0	1.014329E+0	9.819637E-1	1.004582E+0	9.952927E-1	1.033067E+0	1.068246E+0	1.029591E+0	9.748847E-1	1.011101E+0	1.044424E+0	1.028075E+0	1.004322E+0	9.986694E-1	1.039373E+0	1.056383E+0	9.869402E-1	1.012344E+0	1.051511E+0	1.025236E+0	1.021121E+0	1.008772E+0	1.015188E+0	1.003200E+0	9.867236E-1	9.867304E-1	1.036446E+0	1.016144E+0	1.044775E+0	1.041262E+0	1.032785E+0	9.991994E-1	9.901867E-1	9.997037E-1	1.023704E+0	9.577415E-1	1.056502E+0	1.020188E+0	9.734728E-1	1.022990E+0	1.009182E+0	1.044483E+0	9.791529E-1	1.004835E+0	1.051807E+0	9.931081E-1	1.020986E+0	1.010433E+0	1.046359E+0	9.521966E-1	1.022038E+0	1.008439E+0	1.019893E+0	9.865755E-1	1.058104E+0	1.067096E+0	1.040263E+0	9.589279E-1	1.024866E+0	1.014381E+0	9.894910E-1	1.015304E+0	9.991743E-1	9.996387E-1	9.775856E-1	1.014873E+0	9.732518E-1	1.051230E+0	1.035661E+0	1.041606E+0	1.066928E+0	9.830688E-1	1.024228E+0
5.585220E+2	1.031824E+0	9.940901E-1	9.859672E-1	1.022618E+0	1.039785E+0	1.027110E+0	1.045989E+0	1.046507E+0	1.024678E+0	1.039601E+0	1.001969E+0	1.030836E+0	1.017590E+0	9.810875E-1	9.574805E-1	1.023075E+0	1.059637E+0	1.027486E+0	1.031662E+0	1.028019E+0	9.731744E-1	9.959331E-1	9.671073E-1	1.040289E+0	1.041128E+0	1.022048E+0	1.031665E+0	1.001073E+0	1.056831E+0	9.845369E-1	1.010368E+0	1.024999E+0	1.018782E+0	1.023555E+0	1.071180E+0	1.014150E+0	1.000849E+0	1.072555E+0	1.023274E+0	9.956501E-1	1.033678E+0	9.891955E-1	9.975032E-1	1.056491E+0	1.031981E+0	1.016654E+0	1.005413E+0	1.017644E+0	9.736626E-1	9.640704E-1	1.043237E+0	1.027435E+0	1.018682E+0	1.071139E+0	1.016442E+0	9.811567E-1	1.049605E+0	1.021252E+0	1.011915E+0	1.013802E+0	1.017830E+0	1.009054E+0	1.020783E+0	9.613884E-1	9.768469E-1	1.063302E+0	1.009492E+0	1.024911E+0	1.004121E+0	1.078168E+0	1.000766E+0	1.016277E+0	1.030069E+0	1.023684E+0	1.047497E+0	9.848185E-1	1.036560E+0	9.973366E-1	9.982070E-1	9.891856E-1	9.907947E-1	9.732363E-1	9.843232E-1	1.027063E+0	1.012924E+0	1.037888E+0	9.982150E-1	9.864587E-1	1.013313E+0	1.029366E+0	9.921892E-1	1.003265E+0	1.017437E+0	9.945094E-1	1.061609E+0	1.005785E+0	1.009571E+0	9.913163E-1	9.931341E-1	1.018337E+0	1.027020E+0	1.004613E+0	1.000605E+0	1.049289E+0	9.667960E-1	1.029866E+0	1.038672E+0	1.025364E+0	1.032079E+0	9.977428E-1	1.029839E+0	9.992344E-1	1.017240E+0	1.019992E+0	1.015523E+0	1.014053E+0	1.008033E+0	9.941416E-1	9.791009E-1	1.015976E+0	1.062848E+0	1.016822E+0	1.031551E+0	1.023639E+0	1.013449E+0	1.006873E+0	1.020129E+0	1.009124E+0	1.003654E+0	1.017153E+0	1.018548E+0	1.008553E+0	1.013581E+0	1.020567E+0	1.022428E+0	9.877667E-1	1.021852E+0	9.685138E-1	9.820312E-1	1.008697E+0	1.039371E+0	1.036854E+0	1.012844E+0	1.028370E+0	1.020329E+0	1.041298E+0	1.019454E+0	1.014437E+0	9.788116E-1	9.838336E-1	1.009332E+0	1.021032E+0	1.015214E+0	9.872096E-1	1.010097E+0	9.759751E-1	1.015028E+0	1.043816E+0	1.023611E+0	1.001333E+0	9.914332E-1	9.861761E-1	1.050088E+0	1.048668E+0	9.855558E-1	9.801697E-1
5.590210E+2	9.888122E-1	1.007268E+0	9.896679E-1	9.779198E-1	9.456382E-1	1.000978E+0	9.647872E-1	9.662055E-1	9.899826E-1	9.707037E-1	9.560477E-1	9.405061E-1	1.038179E+0	1.013797E+0	9.789181E-1	1.007198E+0	9.962732E-1	9.949199E-1	1.026085E+0	1.025505E+0	9.773215E-1	9.700187E-1	9.977949E-1	9.928383E-1	9.498472E-1	9.965890E-1	9.867420E-1	9.218855E-1	1.003382E+0	9.859934E-1	9.611680E-1	9.941032E-1	9.701901E-1	1.012363E+0	9.646734E-1	9.553615E-1	9.663879E-1	9.671203E-1	9.823536E-1	9.962247E-1	9.969933E-1	9.530857E-1	1.003865E+0	9.791941E-1	9.877393E-1	9.936171E-1	9.903999E-1	1.008933E+0	1.023761E+0	1.000298E+0	9.702208E-1	9.952601E-1	9.877326E-1	9.439726E-1	9.816790E-1	1.006310E+0	9.526949E-1	9.663962E-1	1.013527E+0	9.667025E-1	9.990551E-1	9.889967E-1	9.722357E-1	9.935667E-1	9.999602E-1	9.874288E-1	1.020361E+0	1.021423E+0	9.707916E-1	9.669882E-1	9.861871E-1	9.914589E-1	9.953516E-1	9.817645E-1	9.967040E-1	9.815347E-1	1.006987E+0	1.003363E+0	9.584799E-1	1.009441E+0	9.532594E-1	9.309275E-1	9.600744E-1	1.016681E+0	9.796837E-1	9.396008E-1	1.011368E+0	9.823525E-1	9.989855E-1	9.706187E-1	1.037539E+0	1.005950E+0	9.808148E-1	9.624935E-1	9.405353E-1	9.923892E-1	1.001020E+0	9.652068E-1	1.021732E+0	1.011888E+0	9.661780E-1	1.006146E+0	9.787233E-1	9.823896E-1	9.912848E-1	9.990130E-1	9.665075E-1	9.968898E-1	9.341974E-1	9.740532E-1	9.905525E-1	1.013923E+0	9.965983E-1	9.788262E-1	9.658011E-1	9.715855E-1	9.807375E-1	9.659045E-1	1.003920E+0	1.018830E+0	9.434533E-1	1.008234E+0	9.935934E-1	9.477794E-1	1.027493E+0	9.916757E-1	1.015017E+0	9.986055E-1	9.681838E-1	9.772796E-1	1.004924E+0	9.783342E-1	1.010069E+0	1.019942E+0	9.535750E-1	1.008010E+0	9.442933E-1	9.976558E-1	9.758299E-1	9.867150E-1	1.015789E+0	9.425967E-1	1.049376E+0	9.563865E-1	1.022055E+0	9.330421E-1	9.399562E-1	9.804693E-1	9.491898E-1	9.792517E-1	9.900094E-1	9.336145E-1	1.002084E+0	1.024678E+0	9.501853E-1	9.893288E-1	1.011357E+0	9.988923E-1	9.847617E-1	9.922920E-1	9.975000E-1	1.042597E+0	9.679162E-1	9.754728E-1	1.038867E+0	1.041328E+0
5.595050E+2	9.557227E-1	9.975979E-1	1.007914E+0	9.636896E-1	9.946584E-1	1.016660E+0	1.014460E+0	1.039584E+0	9.744856E-1	9.825714E-1	9.725840E-1	1.022331E+0	9.531566E-1	9.929761E-1	1.032330E+0	1.000827E+0	1.007500E+0	9.846834E-1	9.649061E-1	9.944241E-1	1.020935E+0	1.003695E+0	9.875545E-1	9.879758E-1	1.021455E+0	9.678767E-1	9.643142E-1	1.003527E+0	9.920552E-1	9.898931E-1	9.889529E-1	1.004375E+0	9.683108E-1	9.609018E-1	1.007444E+0	9.827870E-1	1.021243E+0	1.003890E+0	1.007202E+0	9.933226E-1	9.664933E-1	1.047058E+0	9.995170E-1	1.006296E+0	9.857085E-1	9.688416E-1	1.004464E+0	9.873211E-1	9.796321E-1	1.021042E+0	9.552396E-1	9.922358E-1	1.028564E+0	9.668760E-1	1.039417E+0	9.965427E-1	9.625393E-1	9.797537E-1	9.689082E-1	9.914806E-1	9.764400E-1	1.030127E+0	9.718534E-1	9.691570E-1	1.016395E+0	9.703101E-1	9.642747E-1	9.819177E-1	9.765559E-1	1.045835E+0	9.624482E-1	9.882846E-1	9.792713E-1	9.615811E-1	9.765906E-1	9.812333E-1	9.788649E-1	9.826601E-1	1.016605E+0	9.911626E-1	1.014564E+0	1.008083E+0	1.018300E+0	1.009536E+0	9.982765E-1	1.004750E+0	9.670077E-1	1.032727E+0	9.850524E-1	9.944516E-1	1.003004E+0	9.530147E-1	9.653049E-1	9.651899E-1	9.497043E-1	9.980967E-1	9.635141E-1	1.004000E+0	9.530010E-1	9.890780E-1	1.005378E+0	9.923477E-1	1.011830E+0	9.825385E-1	9.673166E-1	9.904137E-1	9.997724E-1	9.912738E-1	1.023764E+0	9.897530E-1	1.009857E+0	9.781415E-1	9.590588E-1	9.893321E-1	1.033085E+0	1.002039E+0	1.003455E+0	9.899353E-1	9.700055E-1	9.497153E-1	9.805593E-1	9.591412E-1	9.726702E-1	9.751987E-1	9.882675E-1	1.019735E+0	9.219219E-1	9.890008E-1	9.989779E-1	9.706855E-1	9.841975E-1	9.895648E-1	9.878492E-1	9.764517E-1	9.723860E-1	9.928856E-1	1.012583E+0	1.023407E+0	9.904330E-1	9.975833E-1	9.974697E-1	9.817084E-1	1.013341E+0	1.020853E+0	9.604035E-1	9.720363E-1	9.846192E-1	1.005776E+0	9.663649E-1	9.922612E-1	1.001975E+0	1.002905E+0	9.839578E-1	1.001899E+0	9.365895E-1	1.011697E+0	1.009875E+0	9.627149E-1	1.016504E+0	9.853223E-1	9.972517E-1	9.981796E-1	9.823215E-1	9.991856E-1	9.899486E-1	9.699550E-1
5.600410E+2	9.616272E-1	9.719862E-1	9.658717E-1	9.458155E-1	9.886242E-1	9.952200E-1	9.865073E-1	9.679747E-1	9.666204E-1	1.022782E+0	1.026777E+0	9.559421E-1	9.699898E-1	9.923558E-1	9.998688E-1	9.752788E-1	9.688023E-1	9.913352E-1	1.002308E+0	1.028806E+0	1.002394E+0	9.713596E-1	1.000283E+0	9.999468E-1	9.815016E-1	9.786839E-1	9.703258E-1	1.003732E+0	9.918800E-1	9.924502E-1	1.003899E+0	1.003558E+0	1.036224E+0	9.858612E-1	9.790867E-1	9.907488E-1	1.001966E+0	9.955771E-1	1.030543E+0	1.002275E+0	1.029269E+0	9.744165E-1	1.006125E+0	9.693740E-1	9.733580E-1	9.975546E-1	9.686843E-1	9.481701E-1	9.948912E-1	9.250356E-1	9.923173E-1	9.928529E-1	9.792613E-1	9.772882E-1	9.893796E-1	1.039848E+0	9.784738E-1	9.473828E-1	9.855896E-1	1.014414E+0	9.372379E-1	9.728278E-1	9.744853E-1	1.009932E+0	9.772663E-1	1.010166E+0	9.950680E-1	9.832378E-1	1.026451E+0	9.418704E-1	9.662396E-1	1.008507E+0	9.825279E-1	9.777386E-1	1.009327E+0	9.767477E-1	9.714800E-1	9.933385E-1	9.492136E-1	9.817415E-1	9.878145E-1	9.926539E-1	9.599618E-1	9.915777E-1	9.948194E-1	9.705027E-1	9.424265E-1	1.014621E+0	1.014033E+0	9.970046E-1	1.028142E+0	9.923939E-1	1.023876E+0	1.040569E+0	9.935325E-1	9.885280E-1	1.017750E+0	9.978213E-1	1.019376E+0	9.937247E-1	9.622563E-1	1.032650E+0	9.458580E-1	9.776772E-1	1.011184E+0	1.006812E+0	1.006358E+0	9.970446E-1	9.741693E-1	1.048594E+0	1.010740E+0	9.802177E-1	9.949744E-1	1.004936E+0	9.650673E-1	9.681939E-1	9.962521E-1	1.015445E+0	1.006119E+0	1.001369E+0	1.009341E+0	9.778621E-1	9.979706E-1	1.012411E+0	1.000601E+0	1.022983E+0	1.036245E+0	9.979688E-1	1.008245E+0	9.797164E-1	9.782227E-1	9.988773E-1	9.801371E-1	9.999757E-1	9.725240E-1	9.692213E-1	9.844606E-1	9.863851E-1	1.040700E+0	9.796031E-1	9.631802E-1	1.008062E+0	9.490452E-1	9.989045E-1	1.004176E+0	1.039889E+0	1.014679E+0	9.500217E-1	1.001771E+0	9.631346E-1	1.036551E+0	1.016736E+0	9.931925E-1	1.011061E+0	1.006441E+0	1.017232E+0	9.684156E-1	1.012269E+0	9.920443E-1	9.919309E-1	1.016935E+0	9.309568E-1	9.431695E-1	9.632900E-1	1.007990E+0	1.064661E+0
5.604980E+2	1.003204E+0	1.039802E+0	1.039129E+0	1.067873E+0	1.046643E+0	1.010554E+0	1.040299E+0	1.005958E+0	1.057815E+0	1.005393E+0	1.006268E+0	1.012720E+0	9.997631E-1	9.996938E-1	1.035508E+0	9.807926E-1	9.949648E-1	9.701147E-1	9.957973E-1	9.913529E-1	1.006469E+0	9.900300E-1	1.011756E+0	9.674699E-1	1.009683E+0	1.036504E+0	1.005465E+0	1.011437E+0	9.997262E-1	9.833990E-1	1.011561E+0	1.011979E+0	1.024459E+0	9.843602E-1	9.661302E-1	1.005979E+0	1.040757E+0	9.874030E-1	1.026373E+0	1.021836E+0	9.865142E-1	1.049053E+0	9.664361E-1	9.846314E-1	1.009698E+0	9.633770E-1	9.989586E-1	1.029240E+0	1.061557E+0	1.019456E+0	1.001336E+0	1.009628E+0	1.007553E+0	1.010363E+0	1.022514E+0	9.906774E-1	1.019313E+0	1.031453E+0	9.774291E-1	9.848458E-1	1.037939E+0	1.023957E+0	9.943315E-1	1.008440E+0	1.010463E+0	1.018248E+0	9.934804E-1	1.029812E+0	1.037252E+0	9.808592E-1	1.032620E+0	1.016874E+0	1.031692E+0	9.980101E-1	9.774586E-1	1.013689E+0	1.008466E+0	1.016724E+0	1.034214E+0	9.920593E-1	1.007776E+0	1.019897E+0	1.034376E+0	9.873636E-1	9.812445E-1	1.004329E+0	1.012025E+0	1.044512E+0	1.003445E+0	9.739398E-1	1.002288E+0	1.015211E+0	1.014593E+0	9.801174E-1	1.029568E+0	1.006056E+0	1.036246E+0	1.027415E+0	9.952727E-1	9.816492E-1	1.035295E+0	1.036632E+0	1.017867E+0	9.942281E-1	1.019851E+0	9.763399E-1	1.019803E+0	9.859321E-1	9.612332E-1	1.008761E+0	9.403413E-1	9.775023E-1	9.853158E-1	9.992900E-1	1.038443E+0	1.071122E+0	1.043933E+0	1.011224E+0	1.064343E+0	1.016829E+0	1.037930E+0	1.030237E+0	9.855988E-1	9.591420E-1	9.715228E-1	1.006318E+0	1.009621E+0	1.008159E+0	1.046047E+0	9.939812E-1	1.005178E+0	1.000683E+0	1.007548E+0	1.012371E+0	1.058229E+0	1.036527E+0	1.034218E+0	9.943413E-1	9.914383E-1	1.039916E+0	9.907306E-1	9.956065E-1	1.013402E+0	1.017705E+0	1.024664E+0	1.014144E+0	1.011210E+0	1.008148E+0	1.047848E+0	9.821928E-1	9.712704E-1	9.832175E-1	1.012627E+0	9.706557E-1	1.005770E+0	9.789670E-1	1.015921E+0	1.006086E+0	9.664868E-1	1.020702E+0	9.942138E-1	9.980466E-1	1.005440E+0	1.009655E+0	1.000766E+0	9.639845E-1
5.610070E+2	1.059233E+0	9.737621E-1	9.846381E-1	9.958477E-1	1.006724E+0	9.461960E-1	9.834989E-1	9.441154E-1	9.558332E-1	9.985601E-1	9.795315E-1	9.917704E-1	9.758315E-1	1.017008E+0	9.589456E-1	9.951366E-1	9.766496E-1	1.001253E+0	9.796629E-1	9.689088E-1	1.005525E+0	1.026765E+0	1.010237E+0	1.015420E+0	1.006581E+0	9.800958E-1	1.029895E+0	1.023177E+0	9.699532E-1	1.002473E+0	1.021690E+0	9.830023E-1	9.975327E-1	1.001353E+0	1.018921E+0	1.010686E+0	9.765715E-1	9.890189E-1	9.975558E-1	9.998539E-1	1.047580E+0	9.644349E-1	9.959788E-1	9.907289E-1	9.950760E-1	9.877729E-1	1.019617E+0	1.001633E+0	1.008114E+0	1.020065E+0	1.015972E+0	9.927782E-1	9.716549E-1	9.910688E-1	9.667059E-1	1.005654E+0	1.012188E+0	1.003856E+0	9.956798E-1	1.009794E+0	9.871133E-1	9.721722E-1	1.043774E+0	1.019652E+0	1.011937E+0	9.789740E-1	9.849138E-1	9.601813E-1	9.907683E-1	1.007528E+0	9.893515E-1	1.014216E+0	1.000308E+0	1.029944E+0	1.000009E+0	9.972628E-1	1.016265E+0	1.013933E+0	1.035778E+0	1.025274E+0	1.005253E+0	9.972012E-1	1.026076E+0	1.019054E+0	1.019474E+0	1.028504E+0	9.834654E-1	9.881222E-1	9.808915E-1	9.772527E-1	9.583983E-1	1.009453E+0	1.006902E+0	1.036827E+0	1.011802E+0	1.019732E+0	9.631428E-1	1.024960E+0	1.011858E+0	9.992155E-1	9.721722E-1	9.769288E-1	1.028643E+0	9.823912E-1	1.045736E+0	1.002107E+0	9.429810E-1	1.016851E+0	9.882571E-1	1.003198E+0	1.034381E+0	1.007258E+0	9.862846E-1	1.015003E+0	1.016843E+0	9.602805E-1	9.657620E-1	1.013956E+0	9.898230E-1	9.795517E-1	9.651706E-1	1.014698E+0	9.960865E-1	1.067543E+0	1.014813E+0	9.884561E-1	9.809827E-1	9.938426E-1	1.023491E+0	1.029108E+0	1.000602E+0	1.000563E+0	9.918794E-1	9.613412E-1	1.006175E+0	1.017092E+0	1.010550E+0	9.787812E-1	1.034492E+0	1.028086E+0	9.709020E-1	1.049924E+0	1.025842E+0	9.753565E-1	9.625231E-1	9.868883E-1	1.040203E+0	9.421823E-1	9.805867E-1	1.013070E+0	1.013984E+0	1.029987E+0	1.010695E+0	9.840313E-1	1.043194E+0	1.020800E+0	9.958569E-1	9.942015E-1	9.955570E-1	1.069020E+0	9.578472E-1	1.006337E+0	9.820872E-1	9.766079E-1	1.002446E+0	1.041215E+0
