Photon Energy (eV)	#1	#2	#3	#4	#5	#6	#7	#8	#9	#10	#11	#12	#13	#14	#15	#16	#17	#18	#19	#20	#21	#22	#23	#24	#25	#26	#27	#28	#29	#30	#31	#32	#33	#34	#35	#36	#37	#38	#39	#40	#41	#42	#43	#44	#45	#46	#47	#48	#49	#50	#51	#52	#53	#54	#55	#56	#57	#58	#59	#60	#61	#62	#63	#64	#65	#66	#67	#68	#69	#70	#71	#72	#73	#74	#75	#76	#77	#78	#79	#80	#81	#82	#83	#84	#85	#86	#87	#88	#89	#90	#91	#92	#93	#94	#95	#96	#97	#98	#99	#100	#101	#102	#103	#104	#105	#106	#107	#108	#109	#110	#111	#112	#113	#114	#115	#116	#117	#118	#119	#120	#121	#122	#123	#124	#125	#126	#127	#128	#129	#130	#131	#132	#133	#134	#135	#136	#137	#138	#139	#140	#141	#142	#143	#144	#145	#146	#147	#148	#149	#150	#151	#152	#153	#154	#155	#156	#157	#158	#159	#160	#161	#162	#163	#164	#165	
5.300520E+2	-1.120850E-2	-9.577666E-3	-1.106427E-2	-5.083529E-3	-1.292205E-2	-8.336394E-3	-4.602001E-3	-9.903391E-5	-7.240383E-3	-9.901791E-3	-4.937505E-3	-6.871876E-3	-5.890685E-3	-7.432882E-3	-9.935353E-4	-7.088818E-3	4.254795E-3	-1.223789E-2	2.250122E-3	-1.178485E-3	-2.419490E-3	5.523050E-3	-3.782206E-3	-6.399070E-3	-7.075272E-3	-1.392043E-2	-5.147135E-3	-9.283421E-3	-8.560828E-3	-5.008596E-3	-4.399417E-3	4.212089E-4	-3.342168E-3	-5.572447E-3	-1.936863E-3	-7.466740E-3	-1.312766E-2	-5.517009E-3	-2.477798E-3	-6.673688E-3	-4.495671E-3	-2.350776E-2	-1.071916E-2	-5.578812E-3	-2.756293E-3	1.470472E-3	-7.791754E-3	-1.525391E-2	-8.675054E-3	-3.619429E-3	-1.148082E-2	-2.053944E-3	-8.898035E-3	-9.895263E-3	-9.749546E-3	-6.682592E-3	-1.812430E-3	-1.421254E-2	-1.275505E-2	-5.507974E-3	-1.181158E-2	-1.096488E-2	-1.418124E-2	-4.892762E-3	-7.494365E-3	-1.792752E-2	-1.195298E-2	-8.950607E-3	-8.214356E-3	-7.758215E-3	-4.785010E-3	-8.771581E-3	-6.717168E-3	-1.894415E-2	-2.758356E-3	-1.660315E-3	-8.375772E-3	-9.176524E-3	-2.283988E-3	-8.531816E-3	-8.070444E-3	-1.222698E-2	-9.625810E-3	-2.514321E-3	-5.306192E-3	-7.523462E-3	-3.635524E-3	-9.680850E-3	-8.136442E-3	-5.230673E-3	-4.793604E-3	-4.076440E-3	-5.906747E-3	-7.860281E-3	-1.986280E-3	-9.791908E-3	-1.050878E-2	-1.253262E-2	-8.350753E-3	-1.080653E-2	-7.136550E-3	-1.211295E-2	-4.856011E-3	-1.213347E-2	-1.001566E-2	-8.315152E-3	-7.263117E-3	-6.682720E-3	-1.004152E-2	-8.726730E-3	-5.251428E-3	-3.869829E-3	-1.151534E-2	4.189808E-3	-1.004362E-3	1.863291E-3	-4.159930E-3	-7.580455E-3	-1.199028E-2	-1.367488E-3	-1.546439E-3	-1.323407E-2	-3.235695E-3	-6.888232E-3	2.410216E-3	-9.538129E-4	-1.219155E-2	-1.378884E-2	-1.059754E-2	-1.961318E-3	-4.810616E-3	-7.112235E-3	-8.182218E-3	-1.296387E-2	-2.281437E-3	-5.374645E-3	-2.263355E-3	-1.221720E-2	-3.112194E-3	-1.250673E-2	-1.206281E-2	-9.218407E-3	-7.584850E-3	-7.619430E-3	-1.039782E-2	-1.044058E-2	-9.426200E-3	-1.237330E-2	-4.877367E-3	-5.126899E-3	-2.505902E-3	-2.699216E-3	-8.039092E-3	-1.047790E-2	-2.903004E-3	-3.663860E-3	-6.249534E-3	-8.871485E-3	-5.081775E-3	-3.614269E-3	-5.438018E-3	-9.561765E-3	-3.121967E-3	-8.074173E-3	3.908738E-4
5.305180E+2	-7.736875E-3	1.834021E-3	-7.478672E-3	-1.452462E-3	-6.221706E-3	-1.250466E-2	-1.389459E-2	-1.119393E-2	-3.486120E-3	-3.960720E-3	-8.337169E-3	-1.600306E-3	1.510428E-3	-9.745338E-3	-7.948400E-3	-1.453206E-2	-1.120974E-2	-1.031999E-2	9.900692E-4	7.252094E-4	4.032500E-4	-1.016558E-2	-3.782181E-3	-6.399078E-3	-9.582988E-3	-2.748600E-3	-8.100382E-3	-7.408904E-3	-4.038143E-3	-9.762508E-3	-1.634063E-2	-9.604036E-3	-5.570257E-3	-9.838806E-3	-2.614759E-3	-1.143640E-2	-6.013327E-3	-1.176423E-2	-3.075892E-3	-6.104005E-3	4.027418E-3	-2.360251E-3	-1.403923E-2	5.758750E-3	-1.347522E-2	-2.767931E-3	-1.275012E-2	-5.968907E-3	-4.548078E-3	-8.166927E-3	-3.946539E-3	-1.518129E-2	-9.502725E-3	-9.298154E-3	4.709538E-3	-5.594714E-3	-3.020688E-3	7.787601E-4	-1.399516E-2	-1.009814E-3	-7.677528E-3	-1.413652E-2	-1.004507E-2	-2.530723E-3	-1.002260E-2	-1.056222E-8	-6.374946E-3	-6.255796E-3	-8.214379E-3	-7.758182E-3	-8.110390E-4	-6.598110E-3	-4.068164E-3	-8.307081E-3	-7.907312E-3	-9.000740E-3	-2.233550E-3	-8.500388E-3	-2.283961E-3	-1.023816E-2	-3.627184E-3	-3.944162E-3	-1.496289E-2	-8.146466E-3	-1.223117E-2	-3.716404E-3	-1.404640E-2	-7.865687E-3	-1.012324E-2	-3.822409E-3	-7.279173E-3	-1.019111E-2	-1.086838E-2	-3.532713E-3	-2.590768E-3	-5.875133E-3	-1.347500E-2	6.741034E-3	-9.823742E-5	-6.642538E-3	-3.243997E-4	-6.056494E-3	-7.837789E-3	-1.626220E-2	-1.176839E-2	-5.638965E-3	1.936939E-4	-1.479104E-2	-6.940467E-3	-1.187557E-2	1.980066E-3	-4.446180E-3	-2.900817E-3	-7.405230E-3	-4.838945E-3	-9.806805E-3	-1.681678E-3	-5.112396E-3	2.581229E-3	6.410128E-3	-9.965977E-3	-4.631902E-3	-2.588560E-3	-1.308767E-2	-9.018830E-3	-1.697849E-2	-6.283319E-3	-5.796594E-3	-1.002249E-2	-5.574272E-3	-3.515496E-3	2.003463E-3	-5.289533E-3	-5.704116E-3	-7.195338E-3	-1.125318E-2	-6.065822E-3	-8.876589E-3	-1.131725E-3	-3.360031E-3	-7.498511E-3	-1.177395E-2	-3.107033E-3	-8.818019E-3	-8.357112E-3	-4.534786E-3	-1.865611E-3	-9.042008E-3	-9.473333E-3	-7.197376E-3	-1.901060E-3	-6.707153E-3	-7.446728E-3	-4.530959E-3	-1.007515E-2	2.300562E-3	-1.224224E-2	-4.684934E-3	-6.987451E-3	-2.981761E-3	-3.707747E-3	-6.772920E-3	-1.971753E-3	4.289451E-3	-7.816721E-3
5.310250E+2	-7.935173E-4	4.075653E-4	1.844027E-3	1.452457E-3	-8.231863E-3	1.190915E-3	2.832030E-3	-9.113665E-3	-6.614660E-3	4.620871E-3	-1.060355E-2	-1.600300E-3	-6.041679E-4	-1.651719E-3	1.324707E-3	-8.861090E-4	-9.000542E-4	-1.031998E-2	-4.680322E-3	-6.889493E-3	-9.758574E-3	-1.240682E-2	3.362083E-4	-5.817316E-3	-2.686829E-3	-8.955231E-3	-2.784520E-3	-4.284633E-3	-5.734119E-3	3.310775E-3	-5.656367E-3	-9.014298E-3	-1.114073E-3	-7.400857E-3	9.686372E-5	-7.466734E-3	-6.606172E-3	-1.541523E-3	-4.870165E-3	-9.766427E-4	-5.806935E-3	-1.038504E-3	-3.414977E-3	-9.357995E-3	-1.079549E-2	-9.428378E-3	-1.593778E-3	-4.227993E-3	5.474560E-3	-5.568389E-3	-4.574365E-3	2.321864E-3	-7.083841E-3	-1.049241E-2	8.179685E-3	-1.103404E-2	-1.027031E-2	-5.840395E-4	-1.213505E-2	-2.295006E-3	-9.597234E-4	4.530995E-4	5.908880E-3	-1.349746E-3	-1.173817E-3	-7.418264E-3	8.499907E-3	-9.624263E-3	1.785743E-3	-7.758212E-3	-1.046218E-2	-2.794488E-3	-5.392705E-3	8.003166E-3	-9.838172E-3	-4.369231E-4	-8.375813E-3	9.659604E-4	-1.635339E-2	-9.100614E-3	-4.534305E-4	4.338602E-3	8.386868E-3	-3.922352E-3	-5.935714E-3	-6.888988E-3	-6.527460E-3	-6.655568E-3	-2.838278E-3	-1.297608E-2	-5.415011E-3	-2.038201E-3	6.221765E-3	-2.914492E-3	-1.226306E-2	-1.958384E-3	3.728928E-3	-4.557337E-3	-6.287606E-3	1.685416E-3	8.109548E-4	-2.422565E-3	5.111761E-4	-2.696325E-3	-1.251931E-3	-2.293803E-3	-8.618927E-3	-6.058984E-3	-1.255177E-3	-8.726741E-3	-1.127767E-2	-2.717092E-3	5.713723E-3	-8.087303E-3	-8.034503E-3	-7.060881E-3	-6.638198E-3	-9.431451E-3	-6.161638E-3	-1.034164E-2	-9.450489E-4	6.617010E-3	-6.471434E-3	-1.239882E-2	-1.010726E-2	-3.624599E-3	2.813245E-4	3.512863E-4	-7.722255E-3	4.542000E-3	4.255551E-3	-1.131954E-2	-4.132437E-3	-3.284195E-3	-1.456618E-2	2.855287E-3	-5.432098E-3	-1.021284E-2	-6.412977E-3	-8.586693E-3	4.890605E-4	-6.023836E-3	1.370783E-3	-1.001656E-2	-1.651992E-2	-6.011240E-3	-1.080086E-2	-2.379485E-3	-2.907660E-3	-5.817030E-3	-1.901007E-3	-8.424879E-3	2.030929E-3	-1.708554E-2	-1.707634E-3	-7.838968E-3	-3.253179E-3	-1.305806E-2	-9.528325E-3	-6.144249E-3	-7.168311E-3	-7.702547E-3	-8.872970E-3	-8.074132E-3	-1.055255E-2
5.315130E+2	4.066823E-3	-7.437984E-3	-6.044367E-3	-3.631108E-3	-4.211650E-3	-2.977325E-3	-1.504487E-3	8.222076E-3	-4.111811E-3	5.280964E-3	2.428299E-3	-6.871897E-3	-4.833373E-3	-4.955123E-4	-8.527992E-3	-3.367195E-3	4.254771E-3	-2.648508E-3	-4.680299E-3	-6.254951E-3	-8.064904E-3	-4.562509E-3	-7.312199E-3	-2.908672E-3	1.701654E-3	2.216665E-3	-8.691099E-3	3.838344E-3	-1.776766E-3	2.122269E-3	-1.885460E-3	-6.655438E-3	-8.355395E-3	-6.791402E-3	7.747508E-4	4.442199E-3	1.177253E-2	-2.677360E-3	-1.281667E-3	-6.104031E-3	-1.873221E-3	1.217870E-2	1.233152E-3	1.349715E-3	-1.148470E-3	-5.795401E-3	-8.411546E-3	6.217602E-3	-5.727228E-3	1.577688E-3	9.866364E-3	-5.179509E-3	-6.479121E-3	3.241564E-3	-6.857756E-3	-1.243277E-3	-6.041384E-3	6.911559E-3	7.706211E-3	-3.580195E-3	3.691134E-3	-1.812742E-4	1.772634E-3	-2.530721E-3	-1.805856E-3	-6.182284E-4	-3.275983E-3	-1.924754E-4	5.357134E-4	-5.818654E-3	-8.110338E-4	-9.314943E-3	-2.743647E-3	-1.215661E-3	-7.263691E-3	-2.883744E-3	3.350310E-3	-5.119548E-3	9.135927E-4	1.023818E-2	1.813938E-4	-2.563752E-3	3.812178E-4	-6.034375E-3	2.248384E-3	-1.812925E-3	-1.321993E-3	-2.420183E-3	-3.500560E-3	-4.526559E-3	-3.550832E-3	-1.358806E-3	2.362703E-3	-6.623811E-3	-1.226303E-2	-5.222378E-3	-9.322344E-3	-3.892707E-3	5.895005E-4	7.931417E-3	-3.243814E-4	6.367955E-9	-1.141591E-2	4.381522E-3	-6.676961E-4	-9.653205E-3	4.938921E-3	-4.455210E-4	1.845851E-3	-5.398143E-4	7.748180E-4	-1.136246E-2	-5.362120E-3	-3.994960E-3	-6.117185E-3	-8.433864E-3	1.416158E-3	3.525817E-3	-9.159120E-4	-2.564052E-3	-6.958996E-3	-1.918943E-2	-7.765775E-3	9.643563E-3	-5.209158E-3	5.055392E-3	-4.970352E-3	2.810435E-3	1.478752E-3	-5.161397E-4	-7.400977E-3	-5.008642E-3	-2.975346E-3	-3.889166E-3	-2.895699E-3	-4.786804E-3	-5.432051E-3	-3.531540E-3	-1.131715E-3	-2.053338E-3	-4.075272E-3	3.559534E-3	-5.482974E-4	-4.280524E-4	4.858936E-4	-4.534789E-3	-7.364230E-3	-1.370581E-2	-2.907651E-3	-3.056391E-3	-3.715649E-3	4.171519E-3	8.462075E-4	-5.191731E-3	-2.903012E-3	-2.470963E-3	3.424521E-4	-4.684937E-3	-1.270462E-3	-2.981779E-3	-1.400705E-3	-2.656039E-4	-4.272170E-3	7.569362E-4	5.862554E-3
5.320120E+2	3.372472E-3	3.973706E-3	-1.321569E-2	-1.234564E-2	1.148638E-3	-8.931907E-3	-5.841040E-3	-4.953064E-3	6.525270E-3	-8.581582E-3	1.295095E-3	1.694445E-3	3.625066E-3	8.259115E-5	-1.573117E-3	9.658524E-3	-2.045593E-3	-6.484258E-3	-5.310339E-3	1.994326E-3	-2.419487E-3	1.040565E-3	-2.521691E-4	3.490427E-3	2.328589E-3	5.319925E-3	1.350055E-3	1.338935E-3	4.846006E-4	5.687735E-3	2.513945E-3	3.959585E-3	-2.785115E-3	4.788786E-3	-1.007169E-2	-8.506276E-4	1.693891E-3	1.298107E-3	-3.075895E-3	7.324859E-4	-7.773830E-3	2.926678E-3	-6.071017E-3	1.979585E-3	-6.125146E-4	6.314392E-3	1.505251E-3	-5.388581E-3	-2.779402E-3	5.475566E-3	-7.713707E-3	8.572935E-3	5.010531E-3	-2.729757E-3	-1.090626E-2	-2.875086E-3	-3.020680E-3	-1.265527E-3	3.985988E-3	-2.937605E-3	-1.476473E-3	2.990434E-3	-1.122682E-2	-4.302276E-3	-1.173806E-3	-2.472734E-3	1.062490E-3	7.891876E-3	-2.589343E-3	3.879105E-3	-2.514174E-3	4.812702E-3	3.878933E-3	-1.256187E-2	-2.114759E-3	7.864689E-4	1.675160E-3	3.670608E-3	1.114588E-2	-4.550293E-3	-1.088121E-3	3.648366E-3	-9.625810E-3	-5.330405E-3	-2.158440E-3	3.897738E-3	6.196916E-3	6.050520E-3	-6.149619E-3	-3.017525E-4	-6.657780E-3	6.794046E-4	-3.938045E-4	1.068644E-2	-2.590790E-3	-4.569575E-3	3.728942E-3	-7.215768E-3	-9.823426E-5	-4.560544E-3	-8.271897E-3	-6.662133E-3	5.281961E-3	4.381530E-3	3.422006E-3	-3.631881E-3	-1.471998E-2	1.327635E-2	6.497445E-3	-3.058846E-3	-3.443599E-3	5.351896E-3	-5.362083E-3	2.143616E-3	1.552143E-3	7.355113E-3	-7.877341E-3	1.463200E-2	-3.830208E-3	1.025603E-3	6.271667E-3	3.308538E-3	1.294298E-3	7.577066E-3	-3.032190E-3	-1.564305E-2	2.907208E-3	2.195705E-3	2.053785E-3	-1.238705E-3	-2.867864E-3	1.302274E-3	-3.553906E-3	7.605476E-3	1.754941E-4	5.038690E-4	4.707813E-3	-3.531562E-3	-4.715266E-4	1.101338E-2	4.482793E-3	2.920669E-3	-1.188003E-3	7.961879E-3	1.166126E-3	6.327564E-4	2.945690E-3	1.094555E-2	3.001435E-3	-4.436696E-3	-1.036929E-2	-1.014250E-2	-6.262042E-3	1.330973E-2	-5.293701E-3	-8.435407E-3	3.338784E-3	9.270200E-3	-1.016356E-2	-8.041745E-3	-4.861261E-3	4.382477E-3	-4.272222E-3	9.588029E-3	3.126651E-3
5.325070E+2	-2.182196E-3	-7.437997E-3	1.044961E-2	1.089325E-2	1.320923E-2	1.190922E-2	3.451515E-3	6.141825E-3	-4.111822E-3	-5.941101E-3	7.527748E-3	1.035462E-3	-4.833402E-3	3.551247E-3	1.001834E-2	-7.088852E-3	-1.472820E-3	2.228389E-2	-2.700270E-4	-5.438727E-4	4.355069E-3	-6.403829E-4	1.092633E-2	4.072120E-3	4.836250E-3	9.043820E-3	1.493515E-2	6.962575E-3	1.461800E-2	-1.154525E-2	-6.285095E-4	1.044648E-2	5.013245E-3	9.664662E-3	5.520054E-3	1.502801E-2	2.879611E-3	4.137772E-3	-2.477823E-3	9.278087E-3	-5.619837E-4	1.604968E-3	1.185749E-2	-3.059323E-3	4.746937E-3	-9.514786E-4	5.223993E-3	7.958581E-3	5.474571E-3	-3.712273E-4	4.843445E-3	-2.679017E-3	8.638842E-3	9.212843E-3	8.263757E-5	1.453075E-2	1.208273E-2	9.734462E-5	7.086134E-3	-8.078387E-3	5.905736E-4	2.356075E-3	1.063597E-2	7.507888E-3	8.939053E-3	1.483657E-2	-1.770798E-4	3.849716E-3	1.785740E-3	1.357688E-2	4.866153E-3	5.356112E-3	1.116382E-2	5.875712E-3	1.268849E-2	9.350275E-3	3.350318E-3	-8.500360E-3	2.192608E-3	5.119100E-3	2.085598E-3	1.972024E-4	1.238966E-2	1.508599E-2	6.025655E-3	3.263194E-3	4.131588E-4	1.331113E-2	2.459862E-3	5.331262E-3	1.420331E-3	4.076406E-3	4.016598E-3	-4.150954E-3	6.476941E-3	1.240309E-2	4.915416E-3	2.753392E-3	4.715690E-3	5.849388E-3	9.893874E-3	6.056490E-3	7.667394E-3	-2.106515E-3	1.393846E-2	3.823066E-4	1.578523E-2	1.781975E-4	3.396417E-3	8.906659E-3	1.041678E-2	4.199162E-3	5.713709E-3	6.236022E-3	3.469450E-3	1.176812E-3	8.850926E-3	-7.932980E-4	7.244115E-3	-5.555442E-3	-2.749192E-3	5.955341E-3	5.824292E-3	9.643528E-3	2.410214E-3	5.055361E-3	8.815421E-3	3.425277E-3	7.229329E-3	4.541996E-3	-3.515467E-3	-6.411069E-3	9.752556E-3	2.160631E-3	6.932104E-3	8.145979E-3	1.104521E-2	7.158502E-3	2.829284E-3	5.133340E-3	5.053338E-3	3.650859E-4	-5.483033E-4	7.961859E-3	1.681144E-2	6.327733E-4	8.444337E-3	5.615593E-3	6.940867E-3	1.143689E-2	2.937964E-3	5.889216E-3	7.954471E-3	9.345139E-3	7.855192E-3	9.457890E-3	9.331479E-3	1.903882E-2	8.257895E-3	1.662563E-2	6.097201E-3	-3.054419E-3	-8.215983E-4	-1.009273E-3	2.501346E-2
5.330280E+2	1.448179E-2	1.823836E-2	2.550935E-2	1.016704E-2	1.722939E-2	1.965015E-2	1.955857E-2	1.099579E-2	1.903953E-2	1.848336E-2	1.262708E-2	1.421447E-2	1.102613E-2	1.569161E-2	7.700003E-3	2.330451E-2	7.118637E-3	1.972673E-2	1.170080E-2	1.214727E-2	1.790414E-2	2.121167E-2	3.866221E-3	1.396159E-2	1.047860E-2	9.043852E-3	8.437931E-3	8.837103E-3	5.007258E-3	1.519557E-2	2.639644E-2	1.044649E-2	1.615376E-2	1.515006E-2	8.231648E-3	7.750294E-3	9.401123E-3	1.606425E-2	1.725924E-2	9.847794E-3	1.648422E-2	1.019617E-2	2.115376E-2	8.908080E-3	2.404105E-2	1.115833E-2	2.381795E-2	1.666321E-2	1.078063E-2	1.067272E-2	1.300562E-2	1.419896E-2	1.831435E-2	1.996118E-2	1.454171E-2	1.289895E-2	1.208276E-2	8.274440E-3	2.010693E-2	2.340898E-2	1.764360E-2	1.948307E-2	1.713566E-2	8.098341E-3	1.273139E-2	1.360019E-2	1.221859E-2	1.328155E-2	1.491088E-2	1.163728E-2	1.451728E-2	1.731031E-2	3.878933E-3	2.714989E-2	1.719380E-2	3.844978E-3	1.060935E-2	2.666025E-2	6.669257E-3	1.706361E-2	1.097219E-2	1.055072E-2	1.305676E-2	1.086192E-2	1.735748E-2	1.278085E-2	1.892131E-2	7.260634E-3	2.828827E-2	2.152622E-2	2.627607E-2	1.290874E-2	4.567867E-3	1.439581E-2	2.521698E-2	1.501429E-2	2.093284E-2	1.870400E-2	9.529641E-3	6.543396E-3	5.352399E-3	2.119764E-2	1.064918E-2	2.443546E-2	6.343217E-3	2.915070E-2	9.684182E-3	1.452372E-2	6.497454E-3	2.402104E-2	6.801036E-3	1.284451E-2	1.371293E-2	6.918048E-3	1.497340E-2	1.490633E-2	1.009006E-2	4.759782E-3	1.307269E-2	1.239289E-2	1.589399E-2	2.117451E-2	1.294287E-2	5.510566E-3	2.254701E-2	2.708920E-2	1.144126E-2	1.080273E-2	1.758042E-2	2.064393E-4	1.785487E-2	2.654575E-2	1.438088E-2	1.607524E-2	1.983105E-2	9.909499E-3	3.440303E-3	3.121124E-2	9.430853E-3	1.036007E-2	1.361140E-2	2.017090E-2	1.160570E-2	1.095832E-2	1.681139E-2	2.425586E-2	1.806687E-2	2.093945E-2	1.022371E-2	1.419750E-2	1.745494E-2	1.791301E-2	1.091626E-2	1.463126E-2	1.502731E-2	1.065075E-2	8.732240E-3	2.990395E-3	2.477368E-2	7.138174E-3	1.647884E-2	2.297478E-2	2.333268E-2	2.523161E-3	-1.602427E-2
5.331680E+2	4.066804E-3	1.110604E-2	2.048939E-2	7.988359E-3	9.189016E-3	7.145533E-3	8.407534E-3	1.515644E-2	1.966526E-2	1.980360E-2	1.376032E-2	2.014500E-2	1.419804E-2	1.973839E-2	3.667863E-2	2.206399E-2	2.143758E-2	1.589095E-2	1.170077E-2	1.785836E-2	1.338775E-2	2.121167E-2	1.033796E-2	2.734149E-2	1.674782E-2	3.014620E-2	1.198184E-2	7.587424E-3	2.535939E-2	2.232645E-2	1.696913E-2	1.516428E-2	2.729426E-2	2.063536E-2	1.026533E-2	1.635124E-2	1.592258E-2	1.095293E-2	1.905352E-2	1.725401E-2	2.959668E-2	2.143076E-2	1.384949E-2	2.780402E-2	1.064238E-2	9.341890E-3	2.319817E-2	2.536785E-2	2.846766E-2	2.886275E-2	2.807428E-2	1.982498E-2	1.770961E-2	1.040708E-2	1.454172E-2	8.003551E-3	1.268692E-2	3.007992E-2	1.266647E-2	7.344012E-3	1.040896E-2	1.187106E-2	1.713569E-2	2.286101E-2	1.525958E-2	1.669110E-2	2.523409E-2	1.462890E-2	3.660750E-3	2.133505E-2	1.167873E-2	1.676691E-2	1.892200E-3	-2.633941E-3	2.427359E-2	1.546731E-2	1.507643E-2	1.110843E-2	5.390189E-3	3.412721E-3	1.351121E-2	1.952374E-2	1.772673E-2	2.916627E-2	9.173398E-3	-1.812884E-3	1.660782E-2	1.210102E-2	2.166557E-2	2.223031E-2	1.322681E-2	1.290873E-2	5.670448E-3	1.563225E-2	1.796279E-2	9.139136E-3	1.144102E-2	1.538100E-2	2.465923E-2	2.805729E-2	3.260107E-2	2.422593E-2	1.303458E-2	1.027977E-2	1.510694E-2	1.242489E-2	2.053045E-2	2.824559E-2	1.373326E-2	3.157823E-2	7.748152E-4	1.342089E-2	2.601939E-2	3.624668E-2	2.519916E-2	1.971170E-2	1.814439E-2	4.759794E-3	2.706134E-2	1.957226E-2	1.228564E-2	1.521916E-2	1.812002E-2	-2.066485E-3	2.472398E-2	2.308307E-2	3.047886E-2	2.555772E-2	2.103076E-2	2.766490E-2	3.015901E-2	2.163729E-2	1.611650E-2	1.668018E-2	9.389069E-3	1.343663E-2	1.611520E-2	1.517609E-2	1.537229E-2	1.950677E-2	1.075871E-2	1.186526E-2	2.312004E-2	4.366224E-3	1.477067E-2	1.318254E-2	1.806689E-2	1.427689E-2	1.547623E-2	1.281717E-2	1.503549E-2	9.324594E-3	2.039390E-2	2.388200E-2	1.084353E-2	1.244010E-2	1.472489E-2	1.485233E-2	2.477368E-2	1.599313E-2	1.186479E-2	3.041171E-2	1.413101E-2	4.289435E-3	4.142845E-2
5.333080E+2	1.239877E-2	1.681185E-2	2.909501E-2	9.440803E-3	1.923953E-2	2.679569E-2	9.027064E-3	1.931698E-2	2.842523E-2	2.442446E-2	2.962519E-2	1.816813E-2	2.477108E-2	3.014445E-2	2.276888E-2	2.268426E-2	3.002904E-2	4.018402E-2	2.871191E-2	3.054957E-2	2.016232E-2	1.336735E-2	2.386979E-2	2.617804E-2	2.552475E-2	2.828421E-2	2.025101E-2	2.695764E-2	1.914066E-2	3.242853E-2	2.702487E-2	4.052246E-2	1.225464E-2	1.027416E-2	2.856870E-2	3.487629E-2	2.896555E-2	1.379257E-2	2.443633E-2	2.693907E-2	2.697417E-2	2.605680E-2	1.849766E-2	2.465469E-2	2.028940E-2	1.479125E-2	2.629713E-2	4.103629E-2	1.785544E-2	1.846847E-2	3.560855E-2	2.545096E-2	1.986944E-3	2.891814E-2	1.396333E-2	1.779436E-2	2.779033E-2	1.440721E-2	1.700673E-2	2.726459E-2	2.384464E-2	2.392334E-2	4.431642E-2	3.230924E-2	2.853274E-2	2.843677E-2	1.345818E-2	2.203961E-2	3.366108E-2	2.521418E-2	1.622046E-2	1.731028E-2	1.844866E-2	9.421386E-3	2.491723E-2	2.036092E-2	2.121867E-2	3.206953E-2	1.754106E-2	2.559540E-2	3.953619E-2	3.470888E-2	1.906099E-2	1.226994E-2	7.914275E-3	1.658787E-2	1.776458E-2	2.783239E-2	2.365242E-2	3.067989E-2	1.322677E-2	2.785564E-2	2.386316E-2	2.614206E-2	1.735829E-2	1.958381E-2	1.796668E-2	1.538098E-2	2.053293E-2	1.487136E-2	1.613835E-2	2.180331E-2	1.303458E-2	1.145942E-2	2.445487E-2	2.312943E-2	1.103997E-2	3.136416E-2	1.683429E-2	4.039509E-2	1.282726E-2	1.687906E-2	3.094202E-2	6.918035E-3	1.752984E-2	1.765228E-2	2.434004E-2	3.005729E-2	2.764422E-2	1.777738E-2	8.677270E-3	1.521918E-2	7.765711E-3	1.997583E-2	1.329499E-2	1.573848E-2	1.669300E-2	2.555766E-2	1.528017E-2	3.705849E-2	1.396939E-2	1.532643E-2	2.016630E-2	3.180468E-2	1.983108E-2	3.459930E-2	1.484765E-2	2.252551E-2	2.989574E-2	2.865343E-2	1.361138E-2	2.464321E-2	2.631851E-2	2.234469E-2	2.361372E-2	3.237627E-2	3.456282E-2	1.294438E-2	2.598135E-2	4.042346E-2	2.289886E-2	2.192094E-2	1.802447E-2	2.454279E-2	1.562498E-2	7.668572E-3	2.730956E-2	2.182988E-2	2.985547E-2	1.409559E-2	1.128803E-2	2.948205E-2	9.530221E-3	2.371798E-2	1.954177E-2
5.334580E+2	2.836844E-2	1.823832E-2	2.264080E-2	2.686996E-2	1.856947E-2	2.798664E-2	4.062172E-2	3.387902E-2	2.779950E-2	2.772504E-2	2.055953E-2	3.398287E-2	1.948455E-2	3.014445E-2	3.262160E-2	3.322884E-2	5.007565E-2	2.292314E-2	3.123210E-2	4.958641E-2	2.524322E-2	3.017661E-2	3.328326E-2	4.712044E-2	2.865940E-2	2.704291E-2	2.025102E-2	3.445582E-2	2.027136E-2	3.837094E-2	2.262550E-2	4.700926E-2	2.172404E-2	3.526300E-2	2.382336E-2	3.950755E-2	2.007263E-2	3.594174E-2	2.324016E-2	1.953285E-2	3.287478E-2	2.076993E-2	2.779395E-2	2.717417E-2	3.368808E-2	3.840538E-2	2.939613E-2	4.277720E-2	2.964679E-2	3.860742E-2	4.063141E-2	4.670478E-2	1.347656E-2	2.234967E-2	3.420605E-2	3.683200E-2	2.356141E-2	2.326570E-2	1.886687E-2	3.369061E-2	2.126089E-2	3.470699E-2	2.304452E-2	4.530024E-2	2.221219E-2	3.214584E-2	2.647363E-2	3.955578E-2	2.616101E-2	3.103278E-2	3.381962E-2	2.763443E-2	1.248832E-2	3.282302E-2	2.105551E-2	1.607900E-2	2.401061E-2	2.260317E-2	3.608711E-2	3.242088E-2	3.572765E-2	3.194796E-2	2.973517E-2	4.043045E-2	3.372569E-2	3.118161E-2	2.470511E-2	2.601724E-2	3.623548E-2	2.997575E-2	2.192629E-2	3.329086E-2	3.599168E-2	1.192290E-2	2.098539E-2	2.480618E-2	3.813681E-2	4.130080E-2	2.878545E-2	2.458734E-2	2.351820E-2	2.907111E-2	2.734704E-2	3.210312E-2	3.146583E-2	2.981972E-2	1.239573E-2	3.448276E-2	2.407013E-2	3.346754E-2	2.970077E-2	3.013525E-2	2.725005E-2	2.942611E-2	3.159027E-2	2.314404E-2	2.681831E-2	3.561039E-2	1.948415E-2	2.555501E-2	2.732046E-2	1.918940E-2	3.947582E-2	3.030822E-2	2.363551E-2	2.308307E-2	4.163881E-2	1.756543E-2	1.988067E-2	2.911007E-2	3.857762E-2	3.566151E-2	2.305898E-2	2.152001E-2	2.843039E-2	2.519366E-2	2.118510E-2	2.052113E-2	2.857543E-2	2.016004E-2	2.673376E-2	5.978258E-2	3.847253E-2	3.313184E-2	2.701486E-2	2.277941E-2	3.112609E-2	2.893449E-2	1.284996E-2	3.490217E-2	2.773791E-2	3.108197E-2	2.513273E-2	4.106193E-2	1.383198E-2	2.914049E-2	3.090521E-2	5.322902E-2	3.493733E-2	2.231807E-2	2.801411E-2	4.714475E-2	3.253436E-2	1.488674E-2	3.595682E-2
5.336080E+2	3.531172E-2	3.678232E-2	3.052923E-2	4.066811E-2	3.331019E-2	2.381837E-2	3.628518E-2	3.318554E-2	2.842523E-2	3.894713E-2	4.832305E-2	3.595970E-2	2.107053E-2	3.072257E-2	4.595182E-2	5.245724E-2	4.434800E-2	3.315180E-2	3.564236E-2	5.339374E-2	3.540509E-2	3.970187E-2	3.622501E-2	3.839444E-2	4.057097E-2	4.814526E-2	2.792952E-2	5.257639E-2	2.875143E-2	3.718249E-2	4.587947E-2	4.877845E-2	2.896533E-2	4.074835E-2	4.212665E-2	3.355308E-2	4.022999E-2	2.685491E-2	3.879057E-2	4.175145E-2	3.418602E-2	3.663055E-2	3.576212E-2	6.496599E-2	3.208022E-2	3.598343E-2	4.179210E-2	4.567881E-2	4.556501E-2	3.535919E-2	3.749216E-2	4.357918E-2	3.706073E-2	3.548656E-2	4.345981E-2	4.444709E-2	3.201929E-2	3.757558E-2	3.560789E-2	3.561837E-2	2.746200E-2	3.343833E-2	3.663487E-2	5.238637E-2	4.054175E-2	2.967312E-2	3.948911E-2	5.235614E-2	2.616100E-2	3.943754E-2	3.552275E-2	2.383080E-2	3.103162E-2	2.785903E-2	2.491721E-2	3.014812E-2	3.741188E-2	3.612648E-2	4.120319E-2	4.038408E-2	3.953619E-2	6.093775E-2	3.307082E-2	4.817459E-2	4.694611E-2	1.976046E-2	4.379169E-2	5.203454E-2	3.557325E-2	2.786337E-2	3.062585E-2	3.329090E-2	4.646619E-2	4.221596E-2	3.368021E-2	6.332103E-2	4.584890E-2	3.664847E-2	4.804125E-2	4.332521E-2	3.146572E-2	2.907110E-2	3.092523E-2	3.269298E-2	4.198226E-2	1.242492E-2	2.324204E-2	4.009625E-2	2.200277E-2	2.905920E-2	4.115051E-2	4.281508E-2	4.632509E-2	3.761087E-2	4.373334E-2	2.657645E-2	2.743789E-2	4.239755E-2	4.571271E-2	4.529817E-2	3.694277E-2	1.985109E-2	4.400580E-2	2.961941E-2	2.744520E-2	2.909225E-2	4.754705E-2	4.338659E-2	4.000778E-2	4.572963E-2	3.987280E-2	2.093611E-2	4.388653E-2	3.301464E-2	3.948668E-2	4.047786E-2	3.132499E-2	3.521997E-2	4.573966E-2	4.433351E-2	4.099721E-2	4.700457E-2	3.911220E-2	2.773825E-2	3.517764E-2	3.311452E-2	3.731207E-2	3.759580E-2	3.320357E-2	3.352187E-2	3.439151E-2	3.967039E-2	2.394805E-2	5.229510E-2	3.475065E-2	4.405158E-2	2.431320E-2	5.602011E-2	3.938380E-2	4.445555E-2	3.724224E-2	4.249668E-2	2.333277E-2	7.317238E-2	6.057936E-2
5.337580E+2	2.836846E-2	4.748074E-2	3.339778E-2	2.832245E-2	2.526977E-2	3.453665E-2	3.876318E-2	3.318560E-2	3.781094E-2	4.554828E-2	4.548997E-2	4.782088E-2	4.063058E-2	4.980025E-2	5.232696E-2	7.106547E-2	5.981265E-2	3.762683E-2	4.698312E-2	6.354676E-2	4.613138E-2	6.099358E-2	4.975684E-2	4.013969E-2	2.301707E-2	4.752460E-2	3.560805E-2	3.945461E-2	3.214348E-2	5.263281E-2	3.582372E-2	6.057303E-2	4.066291E-2	4.501478E-2	5.093936E-2	5.869442E-2	3.963706E-2	5.241182E-2	4.417345E-2	5.713345E-2	4.008661E-2	4.852605E-2	4.572231E-2	4.795970E-2	3.690374E-2	5.051533E-2	4.675040E-2	6.076688E-2	5.205028E-2	4.510387E-2	4.314289E-2	6.045726E-2	3.464176E-2	5.041491E-2	4.808682E-2	5.206215E-2	4.772705E-2	4.847831E-2	4.800879E-2	4.332958E-2	4.193128E-2	4.739361E-2	4.018020E-2	3.939523E-2	4.306999E-2	5.440074E-2	4.816610E-2	6.044055E-2	4.428622E-2	3.232583E-2	4.801259E-2	5.534629E-2	3.235611E-2	3.565960E-2	6.031617E-2	5.522783E-2	4.746284E-2	5.167833E-2	4.631939E-2	5.175971E-2	4.080567E-2	5.403543E-2	5.108349E-2	5.169466E-2	4.694614E-2	3.054719E-2	4.552686E-2	4.114355E-2	4.815626E-2	6.236553E-2	4.305376E-2	5.231421E-2	5.308196E-2	6.509007E-2	5.483832E-2	4.634839E-2	2.330582E-2	6.323292E-2	3.978878E-2	6.206318E-2	3.827788E-2	4.905759E-2	4.225595E-2	4.743855E-2	5.483575E-2	5.055971E-2	4.629037E-2	5.257075E-2	3.647426E-2	5.802845E-2	3.391907E-2	7.970196E-2	4.386382E-2	5.193419E-2	3.670320E-2	5.403551E-2	4.354656E-2	4.609963E-2	4.687870E-2	5.965675E-2	2.371213E-2	5.095121E-2	4.530015E-2	3.926297E-2	2.798941E-2	4.712010E-2	6.067659E-2	4.707535E-2	3.770754E-2	4.572966E-2	4.829142E-2	5.319175E-2	5.025049E-2	5.358395E-2	4.747182E-2	4.694424E-2	4.653480E-2	3.655627E-2	5.366149E-2	5.674689E-2	4.442042E-2	6.425488E-2	5.318536E-2	3.433035E-2	5.422411E-2	4.271137E-2	5.037129E-2	3.159948E-2	5.158747E-2	5.974783E-2	4.588416E-2	4.081548E-2	4.764225E-2	5.758114E-2	3.534836E-2	4.285872E-2	2.910737E-2	6.439317E-2	5.589959E-2	4.129301E-2	3.781902E-2	6.480744E-2	6.013926E-2	5.904242E-2	4.142847E-2
5.339140E+2	5.614173E-2	6.388508E-2	8.072838E-2	6.318081E-2	6.145175E-2	5.478234E-2	5.858740E-2	6.230965E-2	6.158815E-2	4.356794E-2	6.872081E-2	6.956619E-2	5.437560E-2	6.772176E-2	6.797566E-2	7.912900E-2	9.417835E-2	6.895237E-2	7.533514E-2	9.337117E-2	6.984218E-2	8.116462E-2	7.034873E-2	6.224553E-2	5.687103E-2	7.048901E-2	5.450902E-2	8.381895E-2	6.436764E-2	8.709872E-2	6.913347E-2	7.708515E-2	5.180349E-2	7.000359E-2	6.856497E-2	9.243666E-2	5.682994E-2	5.184375E-2	6.151801E-2	7.251559E-2	8.007951E-2	6.438666E-2	6.033086E-2	4.984929E-2	6.155721E-2	8.502835E-2	6.596417E-2	1.031296E-1	5.381910E-2	8.343279E-2	7.767527E-2	1.054652E-1	6.185400E-2	7.131421E-2	7.064290E-2	5.858912E-2	6.101796E-2	5.597412E-2	6.102947E-2	6.710577E-2	5.226639E-2	6.896081E-2	6.676991E-2	7.541584E-2	4.939054E-2	7.603750E-2	6.923877E-2	6.583029E-2	5.803641E-2	7.111685E-2	6.050230E-2	5.969333E-2	5.884649E-2	7.182556E-2	7.318881E-2	7.602572E-2	5.751379E-2	6.114465E-2	6.358637E-2	8.474936E-2	6.873503E-2	6.853027E-2	6.175763E-2	9.534321E-2	5.638933E-2	7.052140E-2	6.345665E-2	5.808514E-2	7.199791E-2	7.503993E-2	5.175346E-2	7.745230E-2	5.363317E-2	7.127271E-2	6.209266E-2	7.180742E-2	6.601910E-2	7.320215E-2	6.317078E-2	8.010716E-2	5.076689E-2	5.935349E-2	8.340432E-2	5.333682E-2	5.308290E-2	5.925723E-2	6.323783E-2	8.126181E-2	4.371020E-2	6.621541E-2	5.922922E-2	9.238168E-2	5.309364E-2	8.194491E-2	8.399723E-2	7.668933E-2	5.655747E-2	9.484347E-2	7.427294E-2	6.563955E-2	5.498458E-2	5.095119E-2	5.694872E-2	5.235063E-2	5.248027E-2	7.115687E-2	7.774466E-2	7.228185E-2	5.955991E-2	6.957514E-2	6.707133E-2	8.334390E-2	6.529263E-2	5.055906E-2	7.019853E-2	6.046494E-2	6.364597E-2	6.328148E-2	6.422409E-2	6.524016E-2	6.895357E-2	8.278281E-2	5.318532E-2	6.309603E-2	6.238695E-2	4.935538E-2	7.030391E-2	4.559078E-2	6.209257E-2	6.181833E-2	6.524007E-2	7.803187E-2	6.837469E-2	6.286721E-2	4.909491E-2	5.776975E-2	5.547530E-2	7.555739E-2	6.479281E-2	6.849038E-2	5.512186E-2	6.945553E-2	7.509196E-2	5.374376E-2	4.690024E-2
5.340640E+2	8.044346E-2	1.031125E-1	9.076832E-2	8.351475E-2	9.361307E-2	6.966877E-2	8.274788E-2	8.657954E-2	9.787940E-2	7.525366E-2	8.005267E-2	1.235997E-1	8.450852E-2	1.006741E-1	1.062273E-1	1.082817E-1	1.228162E-1	1.066703E-1	1.244784E-1	1.181190E-1	9.016598E-2	1.080594E-1	7.211378E-2	1.018033E-1	8.320193E-2	8.414345E-2	7.577271E-2	1.031891E-1	9.546114E-2	1.227530E-1	8.484566E-2	1.236730E-1	7.464159E-2	9.499260E-2	1.065270E-1	1.142695E-1	8.350916E-2	8.591967E-2	1.027865E-1	1.123952E-1	1.030264E-1	8.156926E-2	9.817974E-2	1.046476E-1	9.264238E-2	1.031929E-1	1.105897E-1	1.164767E-1	8.093917E-2	1.061702E-1	9.399952E-2	9.983930E-2	7.999555E-2	9.878235E-2	9.435589E-2	9.775230E-2	9.303740E-2	8.868228E-2	9.079121E-2	9.859296E-2	8.533902E-2	1.032146E-1	9.985950E-2	1.096654E-1	6.139955E-2	1.106563E-1	8.659272E-2	9.479945E-2	9.428656E-2	8.792619E-2	8.434610E-2	9.338263E-2	7.937630E-2	9.451830E-2	1.085878E-1	9.804702E-2	1.066517E-1	9.765771E-2	9.748088E-2	9.669377E-2	1.080896E-1	1.078738E-1	1.164628E-1	1.030877E-1	8.723707E-2	8.574951E-2	1.097270E-1	1.319015E-1	9.981320E-2	9.264309E-2	8.033737E-2	1.134609E-1	8.891607E-2	1.021836E-1	1.074313E-1	1.070582E-1	7.551084E-2	1.037743E-1	9.342997E-2	1.168890E-1	9.050460E-2	9.205859E-2	1.001022E-1	8.931608E-2	7.294734E-2	9.203987E-2	1.079786E-1	9.872577E-2	6.696811E-2	9.518443E-2	9.598926E-2	1.246580E-1	6.909223E-2	1.099095E-1	9.677942E-2	1.020890E-1	8.257910E-2	9.175862E-2	9.175889E-2	9.914314E-2	8.986552E-2	9.065352E-2	8.930616E-2	9.023602E-2	8.839989E-2	9.052001E-2	9.546914E-2	1.134726E-1	8.371260E-2	7.607830E-2	7.743268E-2	1.008742E-1	9.074845E-2	9.714265E-2	9.661062E-2	9.867551E-2	9.153055E-2	9.201111E-2	8.997037E-2	1.024804E-1	8.949292E-2	1.153670E-1	1.165143E-1	1.068436E-1	8.687533E-2	1.076750E-1	8.954903E-2	1.342025E-1	7.588054E-2	8.528363E-2	7.975717E-2	9.177353E-2	9.443820E-2	9.722713E-2	7.599058E-2	9.415280E-2	7.285425E-2	1.313780E-1	8.702565E-2	9.821776E-2	6.838720E-2	9.734396E-2	9.004456E-2	1.014319E-1	7.699439E-2
5.342090E+2	1.304354E-1	1.409136E-1	1.524413E-1	1.307191E-1	1.378351E-1	9.467809E-2	1.304498E-1	1.344263E-1	1.448074E-1	1.247629E-1	1.163152E-1	1.453452E-1	1.315587E-1	1.602196E-1	1.415815E-1	1.703091E-1	2.196129E-1	1.616495E-1	1.698410E-1	1.828444E-1	1.409748E-1	1.657712E-1	1.409497E-1	1.483418E-1	1.321020E-1	1.331752E-1	1.277504E-1	1.450533E-1	1.389920E-1	1.417689E-1	1.596353E-1	1.649539E-1	1.247738E-1	1.248570E-1	1.661824E-1	1.738144E-1	1.510954E-1	1.211311E-1	1.440548E-1	1.346138E-1	1.548207E-1	1.337770E-1	1.532932E-1	1.607052E-1	1.333742E-1	1.673748E-1	1.552153E-1	1.669640E-1	1.534558E-1	1.717847E-1	1.618082E-1	1.629756E-1	1.259544E-1	1.584950E-1	1.267442E-1	1.200537E-1	1.310980E-1	1.452405E-1	1.639558E-1	1.371491E-1	1.230620E-1	1.603047E-1	1.465393E-1	1.480480E-1	1.581038E-1	1.372383E-1	1.628261E-1	1.439792E-1	1.536624E-1	1.467593E-1	1.377114E-1	1.493498E-1	1.283837E-1	1.391942E-1	1.472051E-1	1.004937E-1	1.395967E-1	1.463415E-1	1.326541E-1	1.569850E-1	1.379233E-1	1.713752E-1	1.544896E-1	1.685610E-1	1.514507E-1	1.250893E-1	1.369109E-1	1.573134E-1	1.567681E-1	1.834756E-1	1.468264E-1	1.474309E-1	1.440454E-1	1.788435E-1	1.606286E-1	1.814770E-1	1.271226E-1	1.443152E-1	1.670147E-1	1.411788E-1	1.432986E-1	1.611023E-1	1.472139E-1	1.412202E-1	1.243609E-1	1.502453E-1	1.425514E-1	1.467522E-1	1.439779E-1	1.569014E-1	1.472124E-1	1.563575E-1	1.337008E-1	1.590176E-1	1.415168E-1	1.219967E-1	1.061225E-1	1.318645E-1	1.494619E-1	1.446125E-1	1.349702E-1	1.462364E-1	1.359001E-1	1.315654E-1	1.118021E-1	1.826614E-1	1.729325E-1	1.632706E-1	1.527197E-1	1.526728E-1	1.532002E-1	1.752021E-1	1.335607E-1	1.322315E-1	1.303936E-1	1.451157E-1	1.390611E-1	1.434569E-1	1.388220E-1	1.678140E-1	1.471174E-1	1.626453E-1	1.612922E-1	1.631761E-1	1.317707E-1	1.556593E-1	1.493466E-1	1.501926E-1	1.054260E-1	1.536092E-1	1.275423E-1	1.587634E-1	1.376800E-1	1.269617E-1	1.190231E-1	1.209929E-1	1.273877E-1	1.439377E-1	1.448308E-1	1.823397E-1	9.434162E-2	1.614874E-1	1.291516E-1	1.614837E-1	1.371830E-1
5.343550E+2	2.283365E-1	2.372001E-1	2.499712E-1	2.287585E-1	1.820576E-1	1.762561E-1	2.165607E-1	2.356671E-1	1.992446E-1	2.151989E-1	2.177365E-1	2.494584E-1	2.029266E-1	2.469363E-1	2.389492E-1	2.664511E-1	3.089634E-1	3.125220E-1	2.952192E-1	3.072182E-1	2.657389E-1	2.486966E-1	2.321424E-1	2.745783E-1	2.411864E-1	2.417904E-1	2.021730E-1	2.481534E-1	2.396220E-1	2.677479E-1	2.526513E-1	2.734626E-1	1.921740E-1	2.168893E-1	2.576991E-1	2.717326E-1	2.186814E-1	2.080241E-1	2.319745E-1	2.206398E-1	2.551309E-1	2.051500E-1	2.535602E-1	2.570746E-1	2.067990E-1	2.588042E-1	2.612010E-1	2.830260E-1	2.118229E-1	2.490921E-1	2.716833E-1	2.548669E-1	2.021487E-1	2.343309E-1	2.320060E-1	2.315598E-1	2.060112E-1	2.161087E-1	2.271999E-1	2.296835E-1	2.171119E-1	2.751182E-1	2.546716E-1	2.631967E-1	2.257335E-1	2.194575E-1	2.607520E-1	2.457080E-1	2.305382E-1	2.644253E-1	2.404682E-1	2.281387E-1	2.012321E-1	2.533652E-1	2.160721E-1	2.081533E-1	2.015775E-1	2.639944E-1	2.273027E-1	2.718805E-1	2.344057E-1	2.279744E-1	2.332114E-1	2.854272E-1	2.188122E-1	2.342250E-1	2.242464E-1	2.420210E-1	2.653800E-1	2.454389E-1	2.313359E-1	2.371122E-1	2.157139E-1	2.592124E-1	2.507015E-1	2.643821E-1	2.042439E-1	2.234037E-1	2.302837E-1	2.869180E-1	2.227741E-1	2.295405E-1	2.140057E-1	2.450289E-1	2.201770E-1	2.291911E-1	2.299990E-1	2.378152E-1	1.935948E-1	2.501069E-1	2.291690E-1	2.405054E-1	2.167695E-1	2.749683E-1	2.380224E-1	2.435028E-1	2.473836E-1	2.373733E-1	2.304796E-1	2.331572E-1	2.287873E-1	2.507854E-1	2.375021E-1	2.355777E-1	2.244597E-1	2.227228E-1	2.576168E-1	2.388897E-1	1.814727E-1	2.357712E-1	2.250825E-1	2.789815E-1	2.168707E-1	2.266082E-1	2.157729E-1	2.591587E-1	2.024351E-1	2.069295E-1	2.365261E-1	2.475209E-1	2.172932E-1	2.597576E-1	2.316574E-1	2.548664E-1	2.202003E-1	2.405547E-1	2.386990E-1	2.507972E-1	2.301739E-1	2.364282E-1	2.370250E-1	2.160194E-1	2.105399E-1	2.227729E-1	2.122607E-1	2.283523E-1	1.993001E-1	2.562767E-1	2.553597E-1	2.304094E-1	1.658600E-1	2.618859E-1	2.625756E-1	2.338991E-1	2.466169E-1
5.345050E+2	3.915048E-1	3.905444E-1	3.611265E-1	4.350043E-1	3.388451E-1	3.114252E-1	3.571880E-1	4.090244E-1	3.494156E-1	3.815498E-1	3.933834E-1	4.425305E-1	3.599357E-1	4.111206E-1	4.365835E-1	4.426082E-1	5.168760E-1	5.477812E-1	4.899020E-1	5.134507E-1	4.334088E-1	4.700183E-1	4.162929E-1	4.403727E-1	3.791101E-1	4.279870E-1	3.380233E-1	4.218610E-1	3.515585E-1	4.145249E-1	4.531385E-1	4.338669E-1	3.342153E-1	3.985158E-1	4.054814E-1	4.192718E-1	4.125475E-1	3.829461E-1	4.425031E-1	4.069341E-1	4.295266E-1	3.895298E-1	4.321811E-1	4.220995E-1	3.675829E-1	4.410566E-1	4.440412E-1	4.687253E-1	3.491921E-1	4.056562E-1	4.474841E-1	4.580281E-1	3.690513E-1	4.009300E-1	3.875858E-1	4.137769E-1	3.624830E-1	4.212167E-1	4.032902E-1	4.256762E-1	3.819578E-1	4.781044E-1	4.023930E-1	4.368055E-1	3.837474E-1	3.727688E-1	4.547448E-1	4.329970E-1	4.099155E-1	4.325201E-1	3.789905E-1	3.677856E-1	3.972611E-1	4.377416E-1	3.943544E-1	3.867699E-1	3.674182E-1	4.621106E-1	4.409017E-1	4.248843E-1	3.797651E-1	4.260710E-1	4.293494E-1	4.762148E-1	4.196375E-1	3.750860E-1	3.757822E-1	4.410832E-1	4.137277E-1	4.144292E-1	3.835777E-1	4.416136E-1	3.794485E-1	4.193329E-1	4.429378E-1	4.654424E-1	3.567063E-1	4.440541E-1	4.125264E-1	4.319630E-1	3.851306E-1	4.021504E-1	3.887374E-1	3.948436E-1	3.615649E-1	4.359224E-1	4.008280E-1	4.149516E-1	3.367604E-1	4.302196E-1	4.593711E-1	4.445357E-1	3.324508E-1	4.263865E-1	4.054691E-1	4.364029E-1	3.936011E-1	3.922430E-1	3.930971E-1	3.905043E-1	3.616953E-1	4.155501E-1	4.374695E-1	3.988285E-1	3.305864E-1	4.343811E-1	4.374887E-1	4.466888E-1	3.534163E-1	4.323150E-1	3.953971E-1	4.458689E-1	3.777055E-1	3.953978E-1	4.135568E-1	4.161158E-1	4.128380E-1	3.519138E-1	4.259914E-1	4.141213E-1	3.850314E-1	4.335376E-1	4.549077E-1	4.580232E-1	3.800548E-1	4.605447E-1	4.105309E-1	4.306858E-1	3.798712E-1	4.303620E-1	3.797754E-1	3.940861E-1	3.598129E-1	3.780529E-1	3.341871E-1	3.213977E-1	3.736877E-1	4.816528E-1	4.109896E-1	4.347063E-1	2.962077E-1	3.873840E-1	4.144019E-1	4.582102E-1	3.259563E-1
5.346870E+2	6.859016E-1	7.022265E-1	7.490940E-1	7.952069E-1	6.778816E-1	5.424637E-1	6.353449E-1	7.148272E-1	6.435006E-1	6.792642E-1	6.795167E-1	7.680503E-1	6.306052E-1	7.446912E-1	7.675192E-1	7.639095E-1	8.164298E-1	8.961950E-1	8.042936E-1	8.738809E-1	7.286659E-1	7.703436E-1	7.728272E-1	7.172778E-1	6.612262E-1	6.923871E-1	6.162217E-1	7.449063E-1	6.715389E-1	7.639384E-1	7.617251E-1	7.711881E-1	6.021449E-1	6.764402E-1	7.654465E-1	7.255969E-1	6.568069E-1	6.799724E-1	6.631992E-1	7.208430E-1	7.284904E-1	6.955082E-1	7.416136E-1	7.294733E-1	6.639612E-1	7.710486E-1	7.898883E-1	8.076267E-1	6.598928E-1	7.902456E-1	7.997127E-1	7.455795E-1	6.520601E-1	7.251710E-1	7.137826E-1	7.107643E-1	6.403862E-1	7.312638E-1	6.506856E-1	6.621532E-1	6.057140E-1	7.502319E-1	7.787874E-1	7.497735E-1	6.593225E-1	6.385907E-1	7.045180E-1	7.220145E-1	7.011684E-1	7.570715E-1	6.742020E-1	6.900062E-1	6.674630E-1	7.696187E-1	7.097277E-1	6.993492E-1	6.119915E-1	8.062785E-1	7.517071E-1	7.553504E-1	6.838123E-1	7.594536E-1	7.569122E-1	8.296290E-1	7.073402E-1	7.310467E-1	7.048811E-1	7.399792E-1	7.150593E-1	7.150920E-1	7.241014E-1	7.663696E-1	6.484806E-1	7.389551E-1	7.306879E-1	7.827007E-1	6.290027E-1	7.810115E-1	7.371240E-1	7.741034E-1	6.638619E-1	7.588769E-1	6.988414E-1	7.392990E-1	6.092857E-1	7.430085E-1	6.991004E-1	7.224452E-1	6.354958E-1	7.772211E-1	7.908142E-1	7.523106E-1	6.111926E-1	7.469552E-1	7.084065E-1	7.302150E-1	6.699270E-1	7.137066E-1	6.711215E-1	6.561396E-1	6.804343E-1	7.384618E-1	7.008576E-1	7.067331E-1	5.983519E-1	7.662246E-1	7.860735E-1	8.124893E-1	6.300206E-1	7.524225E-1	7.055910E-1	7.389747E-1	6.837541E-1	7.021226E-1	6.967204E-1	7.012240E-1	6.948532E-1	6.712793E-1	6.524261E-1	7.185761E-1	6.891281E-1	7.612917E-1	7.907429E-1	7.990152E-1	6.718738E-1	8.244881E-1	7.363240E-1	7.611475E-1	6.641656E-1	7.402422E-1	6.652771E-1	7.187291E-1	6.577673E-1	6.053568E-1	5.672810E-1	6.249868E-1	5.996127E-1	7.844799E-1	7.864058E-1	7.673991E-1	5.447918E-1	7.648077E-1	7.249572E-1	8.591426E-1	5.995403E-1
5.348070E+2	1.009460E+0	9.896583E-1	9.835951E-1	1.108933E+0	9.559449E-1	7.949384E-1	9.574863E-1	1.064315E+0	9.332054E-1	9.466128E-1	9.764159E-1	1.121246E+0	8.811858E-1	1.065543E+0	1.078749E+0	1.121806E+0	1.047825E+0	1.166616E+0	1.096003E+0	1.175931E+0	1.014891E+0	1.120537E+0	1.042874E+0	1.057011E+0	9.715532E-1	1.060436E+0	8.826076E-1	1.052956E+0	1.013568E+0	1.052739E+0	1.040773E+0	1.080202E+0	8.578200E-1	9.994662E-1	1.127446E+0	1.077573E+0	1.011339E+0	9.798381E-1	9.987291E-1	1.016522E+0	1.082526E+0	9.539054E-1	1.068311E+0	1.051334E+0	9.340781E-1	1.069556E+0	1.187801E+0	1.162776E+0	8.585775E-1	1.113120E+0	1.080994E+0	1.103769E+0	1.042708E+0	1.046426E+0	9.364517E-1	1.003399E+0	9.593712E-1	1.035178E+0	1.013408E+0	9.950200E-1	9.075023E-1	1.147321E+0	1.049411E+0	1.098762E+0	9.715578E-1	9.792134E-1	1.067091E+0	1.109392E+0	9.299216E-1	1.040246E+0	9.677111E-1	1.000271E+0	9.873346E-1	1.096532E+0	9.897021E-1	9.727794E-1	9.191041E-1	1.113935E+0	1.081058E+0	1.017562E+0	9.872258E-1	1.096287E+0	1.091147E+0	1.121794E+0	9.988201E-1	1.034977E+0	9.934934E-1	1.070336E+0	9.700325E-1	1.061523E+0	9.676880E-1	1.069385E+0	9.533470E-1	1.127199E+0	1.027507E+0	1.098654E+0	8.858754E-1	1.102017E+0	1.019772E+0	1.044069E+0	9.641663E-1	9.787270E-1	9.982119E-1	1.007076E+0	9.364637E-1	1.024671E+0	1.063807E+0	1.043037E+0	8.815132E-1	1.122332E+0	1.132502E+0	1.145385E+0	8.770123E-1	1.060704E+0	1.069503E+0	1.074826E+0	9.592641E-1	1.026532E+0	9.742080E-1	9.510904E-1	9.408378E-1	1.093796E+0	1.007604E+0	9.733081E-1	8.334630E-1	1.142136E+0	1.107087E+0	1.092219E+0	8.772965E-1	1.081201E+0	9.911766E-1	1.137262E+0	9.440977E-1	9.356448E-1	9.878689E-1	1.025718E+0	9.768687E-1	9.819601E-1	9.607205E-1	1.067458E+0	9.852372E-1	1.097991E+0	1.127217E+0	1.107047E+0	9.684540E-1	1.172929E+0	1.078614E+0	1.038976E+0	8.801767E-1	1.116378E+0	9.755781E-1	9.660752E-1	8.799001E-1	9.040233E-1	7.991800E-1	8.671428E-1	8.315302E-1	1.101960E+0	1.065270E+0	1.082384E+0	7.443503E-1	1.118061E+0	1.071169E+0	1.131143E+0	9.032202E-1
5.349630E+2	1.576036E+0	1.430434E+0	1.444713E+0	1.527959E+0	1.621288E+0	1.141495E+0	1.336621E+0	1.463732E+0	1.506358E+0	1.388891E+0	1.434231E+0	1.477737E+0	1.399792E+0	1.488721E+0	1.566750E+0	1.691835E+0	1.514052E+0	1.571284E+0	1.557822E+0	1.666447E+0	1.464832E+0	1.453917E+0	1.411179E+0	1.487493E+0	1.375919E+0	1.475036E+0	1.170258E+0	1.534088E+0	1.354466E+0	1.500201E+0	1.527222E+0	1.586185E+0	1.144688E+0	1.402335E+0	1.682645E+0	1.551286E+0	1.372986E+0	1.298446E+0	1.427561E+0	1.497353E+0	1.441153E+0	1.435673E+0	1.533123E+0	1.557112E+0	1.339256E+0	1.551526E+0	1.603682E+0	1.582920E+0	1.338484E+0	1.474971E+0	1.609024E+0	1.486339E+0	1.357767E+0	1.412468E+0	1.398566E+0	1.410260E+0	1.333935E+0	1.467200E+0	1.400932E+0	1.431343E+0	1.346226E+0	1.600236E+0	1.517394E+0	1.538099E+0	1.335622E+0	1.382890E+0	1.497222E+0	1.562119E+0	1.357424E+0	1.470826E+0	1.408260E+0	1.442577E+0	1.334358E+0	1.573783E+0	1.388103E+0	1.411982E+0	1.284288E+0	1.607531E+0	1.542790E+0	1.534022E+0	1.373157E+0	1.505594E+0	1.547468E+0	1.634318E+0	1.468460E+0	1.390305E+0	1.391421E+0	1.548933E+0	1.481966E+0	1.460061E+0	1.430005E+0	1.469553E+0	1.290740E+0	1.610034E+0	1.408957E+0	1.593471E+0	1.295802E+0	1.534676E+0	1.499104E+0	1.572200E+0	1.329751E+0	1.442652E+0	1.367354E+0	1.517862E+0	1.259552E+0	1.385949E+0	1.386485E+0	1.444088E+0	1.236070E+0	1.495153E+0	1.544096E+0	1.557481E+0	1.286204E+0	1.509502E+0	1.550114E+0	1.529957E+0	1.297546E+0	1.451652E+0	1.383960E+0	1.344760E+0	1.348580E+0	1.522581E+0	1.450899E+0	1.446529E+0	1.171980E+0	1.562112E+0	1.497684E+0	1.529950E+0	1.231534E+0	1.540767E+0	1.396565E+0	1.579025E+0	1.293539E+0	1.357921E+0	1.396337E+0	1.472488E+0	1.360284E+0	1.318697E+0	1.423493E+0	1.461419E+0	1.365785E+0	1.525411E+0	1.497597E+0	1.547520E+0	1.358227E+0	1.688207E+0	1.503383E+0	1.500686E+0	1.295785E+0	1.512530E+0	1.316726E+0	1.396070E+0	1.343120E+0	1.301808E+0	1.191256E+0	1.256021E+0	1.236638E+0	1.558992E+0	1.489597E+0	1.523865E+0	1.056957E+0	1.566136E+0	1.484092E+0	1.583297E+0	1.234257E+0
5.351090E+2	2.098867E+0	1.891181E+0	1.826226E+0	2.047930E+0	2.013926E+0	1.440418E+0	1.669298E+0	1.842343E+0	1.929962E+0	1.701791E+0	1.818386E+0	1.941636E+0	1.707467E+0	1.921150E+0	1.933616E+0	2.006315E+0	1.802151E+0	1.982350E+0	1.840712E+0	2.001493E+0	1.942439E+0	1.783941E+0	1.720058E+0	1.785920E+0	1.845485E+0	1.795293E+0	1.519335E+0	1.749035E+0	1.697627E+0	1.885268E+0	1.826380E+0	1.938838E+0	1.432671E+0	1.730239E+0	1.934146E+0	1.850994E+0	1.805180E+0	1.660787E+0	1.796583E+0	1.760562E+0	1.920413E+0	1.696714E+0	1.821308E+0	1.863859E+0	1.689230E+0	1.889391E+0	1.961306E+0	1.928787E+0	1.747056E+0	1.883596E+0	1.912910E+0	1.862030E+0	1.719993E+0	1.785074E+0	1.699890E+0	1.813313E+0	1.667420E+0	1.838575E+0	1.762416E+0	1.769350E+0	1.595819E+0	1.959903E+0	1.884334E+0	1.871733E+0	1.640902E+0	1.643150E+0	1.812075E+0	1.880779E+0	1.712431E+0	1.780508E+0	1.654648E+0	1.728393E+0	1.675423E+0	1.995722E+0	1.689317E+0	1.726395E+0	1.552313E+0	1.992947E+0	1.888132E+0	1.827517E+0	1.726715E+0	1.816891E+0	1.899716E+0	1.940562E+0	1.756164E+0	1.720248E+0	1.779512E+0	1.878084E+0	1.756144E+0	1.836767E+0	1.709013E+0	1.869045E+0	1.630337E+0	1.985913E+0	1.807935E+0	1.912688E+0	1.584713E+0	1.845719E+0	1.874593E+0	1.912952E+0	1.702718E+0	1.746084E+0	1.725764E+0	1.759690E+0	1.539989E+0	1.693707E+0	1.739664E+0	1.712288E+0	1.523948E+0	1.883089E+0	1.867098E+0	1.827219E+0	1.574789E+0	1.851895E+0	1.856884E+0	1.855348E+0	1.614144E+0	1.850863E+0	1.654986E+0	1.688765E+0	1.611392E+0	1.944085E+0	1.834010E+0	1.712416E+0	1.444644E+0	1.927343E+0	1.918481E+0	1.850256E+0	1.467884E+0	1.852926E+0	1.755976E+0	1.903684E+0	1.582808E+0	1.630766E+0	1.686872E+0	1.781695E+0	1.643565E+0	1.666128E+0	1.684915E+0	1.820100E+0	1.672165E+0	1.922173E+0	1.872450E+0	1.964023E+0	1.676574E+0	1.944371E+0	1.821612E+0	1.825153E+0	1.566290E+0	1.812056E+0	1.582268E+0	1.636546E+0	1.569400E+0	1.561486E+0	1.404028E+0	1.579892E+0	1.479940E+0	1.912758E+0	1.748768E+0	1.879329E+0	1.257091E+0	1.893358E+0	1.833755E+0	1.918880E+0	1.406614E+0
5.352650E+2	2.366881E+0	2.036681E+0	2.074350E+0	2.297022E+0	2.291320E+0	1.634537E+0	1.923911E+0	2.141214E+0	2.111421E+0	1.977059E+0	1.973634E+0	2.212461E+0	1.982363E+0	2.157016E+0	2.185153E+0	2.323270E+0	1.924724E+0	2.056509E+0	2.043586E+0	2.160134E+0	2.144544E+0	1.993495E+0	1.943036E+0	1.995346E+0	2.010368E+0	1.938666E+0	1.707161E+0	2.007721E+0	1.914713E+0	2.132476E+0	2.065203E+0	2.208928E+0	1.632643E+0	1.970376E+0	2.140907E+0	2.066020E+0	2.074933E+0	1.839117E+0	1.966440E+0	1.985024E+0	2.103986E+0	1.874485E+0	2.061017E+0	2.081793E+0	1.883776E+0	2.021388E+0	2.123692E+0	2.200375E+0	1.986420E+0	2.037563E+0	2.188537E+0	2.098322E+0	2.206793E+0	1.972574E+0	1.887281E+0	1.954737E+0	2.069175E+0	1.980995E+0	1.997407E+0	1.947996E+0	1.846966E+0	2.178108E+0	2.129551E+0	2.128016E+0	1.923430E+0	1.831698E+0	2.051928E+0	2.107819E+0	2.109934E+0	2.083078E+0	1.874354E+0	1.911511E+0	2.113174E+0	2.165914E+0	1.912009E+0	1.906232E+0	1.849934E+0	2.170781E+0	2.159925E+0	2.043084E+0	1.939357E+0	2.069517E+0	2.160564E+0	2.284118E+0	2.035682E+0	2.024812E+0	1.872635E+0	2.085008E+0	1.958797E+0	2.048709E+0	1.971236E+0	2.015797E+0	1.810611E+0	2.183127E+0	2.056999E+0	2.150959E+0	1.762682E+0	2.084973E+0	2.056830E+0	2.129480E+0	1.835558E+0	1.961086E+0	1.936275E+0	1.982052E+0	1.757913E+0	1.933214E+0	1.992518E+0	1.918738E+0	1.690374E+0	2.143183E+0	2.081633E+0	2.049692E+0	1.704622E+0	2.109031E+0	2.070990E+0	2.114151E+0	1.774611E+0	1.968091E+0	1.891047E+0	1.883808E+0	1.835112E+0	2.049959E+0	1.997089E+0	1.970724E+0	1.579614E+0	2.165707E+0	2.090473E+0	2.072810E+0	1.665706E+0	2.045859E+0	1.940536E+0	2.164535E+0	1.793975E+0	1.846139E+0	1.857015E+0	1.960405E+0	1.815310E+0	1.857211E+0	1.894187E+0	2.006952E+0	1.877557E+0	2.147699E+0	2.175022E+0	2.159387E+0	1.853434E+0	2.123018E+0	2.051868E+0	2.055013E+0	1.752756E+0	1.981145E+0	1.807889E+0	1.867287E+0	1.780872E+0	1.743858E+0	1.591699E+0	1.704547E+0	1.649536E+0	2.096266E+0	2.076543E+0	2.045675E+0	1.443961E+0	2.122975E+0	1.995933E+0	2.166152E+0	1.663785E+0
5.354170E+2	2.336333E+0	2.061645E+0	2.031324E+0	2.177193E+0	2.263180E+0	1.670860E+0	1.948690E+0	2.105154E+0	2.151468E+0	1.935471E+0	2.005928E+0	2.267156E+0	1.976023E+0	2.083020E+0	2.250060E+0	2.243256E+0	1.893218E+0	2.060343E+0	2.017124E+0	2.131580E+0	2.137205E+0	1.897126E+0	1.941274E+0	2.002909E+0	2.026042E+0	1.985835E+0	1.697712E+0	1.988974E+0	1.876834E+0	2.074829E+0	2.085942E+0	2.078600E+0	1.701715E+0	1.916131E+0	2.117858E+0	2.118946E+0	2.051219E+0	1.843088E+0	1.974216E+0	2.025474E+0	2.053503E+0	1.859946E+0	2.017196E+0	2.023843E+0	1.846261E+0	2.094046E+0	2.153443E+0	2.134220E+0	1.920387E+0	2.055749E+0	2.081171E+0	2.095196E+0	2.239446E+0	2.026317E+0	1.901740E+0	1.890011E+0	2.002717E+0	2.060717E+0	1.998648E+0	1.998120E+0	1.913111E+0	2.140052E+0	2.180958E+0	2.072507E+0	1.907630E+0	1.819951E+0	1.993050E+0	2.086258E+0	2.148059E+0	2.006788E+0	1.857320E+0	1.905532E+0	2.049598E+0	2.185768E+0	1.889485E+0	1.866476E+0	1.870593E+0	2.174160E+0	2.094056E+0	2.064698E+0	1.924759E+0	2.091604E+0	2.089180E+0	2.250324E+0	2.168516E+0	1.956286E+0	1.925843E+0	2.000906E+0	2.065422E+0	2.062088E+0	1.922147E+0	2.003565E+0	1.848651E+0	2.206621E+0	2.058209E+0	2.149002E+0	1.984553E+0	2.041776E+0	2.109102E+0	2.087842E+0	2.133019E+0	1.921720E+0	1.879026E+0	2.022162E+0	1.953051E+0	1.959309E+0	1.935575E+0	1.944936E+0	1.839742E+0	2.099730E+0	2.140088E+0	2.084849E+0	1.833838E+0	2.079022E+0	2.054371E+0	1.987842E+0	1.953665E+0	2.019920E+0	1.935345E+0	1.862267E+0	1.992675E+0	1.956658E+0	1.929785E+0	1.852935E+0	1.714042E+0	2.139665E+0	2.121327E+0	2.074037E+0	1.668583E+0	2.066092E+0	1.944423E+0	2.071974E+0	1.704881E+0	1.845535E+0	1.849646E+0	1.991556E+0	1.878046E+0	1.888614E+0	1.922572E+0	2.042889E+0	1.845036E+0	2.125977E+0	2.184617E+0	2.123433E+0	1.869080E+0	2.138522E+0	2.017501E+0	2.043687E+0	1.695632E+0	2.048780E+0	1.821195E+0	1.877595E+0	1.681947E+0	1.678443E+0	1.622778E+0	1.690232E+0	1.626163E+0	2.205815E+0	1.982534E+0	2.141181E+0	1.418583E+0	2.147143E+0	1.991330E+0	1.966569E+0	1.641897E+0
5.355630E+2	2.083591E+0	1.972491E+0	1.899372E+0	2.127089E+0	2.130512E+0	1.551173E+0	1.772132E+0	1.942892E+0	2.031955E+0	1.755262E+0	1.864281E+0	2.068809E+0	1.845977E+0	2.004975E+0	2.042574E+0	2.151454E+0	1.758049E+0	1.963811E+0	1.932069E+0	1.999592E+0	1.944694E+0	1.885916E+0	1.777125E+0	1.848749E+0	1.943286E+0	1.850535E+0	1.812299E+0	1.854011E+0	1.729849E+0	1.929242E+0	1.984757E+0	1.952989E+0	1.549089E+0	1.800329E+0	2.096164E+0	1.978024E+0	1.946281E+0	1.766421E+0	1.868953E+0	1.875071E+0	1.940083E+0	1.799146E+0	1.895012E+0	1.925586E+0	1.717100E+0	1.925722E+0	1.997255E+0	1.986819E+0	1.836079E+0	1.997935E+0	1.960624E+0	1.985803E+0	1.998163E+0	1.943315E+0	1.810357E+0	1.861725E+0	1.901225E+0	1.917620E+0	1.802098E+0	1.831042E+0	1.727597E+0	2.023334E+0	1.998376E+0	2.010501E+0	1.804604E+0	1.727841E+0	1.899461E+0	1.925240E+0	1.981809E+0	1.847745E+0	1.779546E+0	1.736542E+0	1.939000E+0	1.997849E+0	1.760115E+0	1.747193E+0	1.743285E+0	2.033517E+0	1.966151E+0	1.912834E+0	1.788925E+0	1.997731E+0	1.953751E+0	2.080662E+0	2.057087E+0	1.881415E+0	1.788768E+0	1.940402E+0	1.929659E+0	1.907882E+0	1.731377E+0	1.975034E+0	1.731225E+0	1.973549E+0	1.931257E+0	2.048473E+0	1.808361E+0	1.987278E+0	1.963996E+0	1.997620E+0	1.988829E+0	1.839353E+0	1.792552E+0	1.843443E+0	1.854900E+0	1.799410E+0	1.762036E+0	1.787133E+0	1.711562E+0	2.032972E+0	1.977982E+0	2.009345E+0	1.771078E+0	1.892138E+0	1.944445E+0	1.948025E+0	2.007567E+0	1.873688E+0	1.745917E+0	1.806627E+0	1.953584E+0	1.881223E+0	1.829477E+0	1.820561E+0	1.672135E+0	1.977415E+0	2.011698E+0	1.926488E+0	1.691581E+0	1.919408E+0	1.789652E+0	1.968196E+0	1.914890E+0	1.662225E+0	1.798047E+0	1.892216E+0	1.933187E+0	1.765008E+0	1.743007E+0	1.888047E+0	1.822788E+0	1.913862E+0	1.953690E+0	2.061106E+0	1.747997E+0	2.070606E+0	1.857357E+0	1.859135E+0	1.663463E+0	1.868650E+0	1.679655E+0	1.765372E+0	1.545115E+0	1.638796E+0	1.511612E+0	1.601961E+0	1.534473E+0	2.025792E+0	1.925997E+0	1.962184E+0	1.364947E+0	1.952858E+0	1.810750E+0	1.887087E+0	1.570765E+0
5.357090E+2	1.863489E+0	1.684344E+0	1.763831E+0	1.910674E+0	1.881262E+0	1.404092E+0	1.585042E+0	1.803511E+0	1.787930E+0	1.595511E+0	1.669939E+0	1.871789E+0	1.629226E+0	1.814777E+0	1.825817E+0	1.918852E+0	1.567321E+0	1.747729E+0	1.664298E+0	1.806050E+0	1.787186E+0	1.730712E+0	1.611212E+0	1.663176E+0	1.644872E+0	1.692884E+0	1.639827E+0	1.691548E+0	1.539332E+0	1.774741E+0	1.733363E+0	1.771945E+0	1.393680E+0	1.569945E+0	1.839240E+0	1.780204E+0	1.808145E+0	1.498927E+0	1.645863E+0	1.672825E+0	1.742741E+0	1.587672E+0	1.634054E+0	1.709540E+0	1.560602E+0	1.730751E+0	1.829291E+0	1.803439E+0	1.675719E+0	1.823831E+0	1.742130E+0	1.757010E+0	1.862101E+0	1.719991E+0	1.560504E+0	1.569087E+0	1.749585E+0	1.642323E+0	1.642746E+0	1.573360E+0	1.520892E+0	1.866019E+0	1.749611E+0	1.780205E+0	1.607402E+0	1.509622E+0	1.729021E+0	1.822169E+0	1.779309E+0	1.681594E+0	1.638182E+0	1.607763E+0	1.739660E+0	1.771633E+0	1.635895E+0	1.588764E+0	1.536119E+0	1.824584E+0	1.759587E+0	1.743904E+0	1.635944E+0	1.763053E+0	1.783632E+0	1.801873E+0	1.759942E+0	1.641571E+0	1.634915E+0	1.754652E+0	1.742901E+0	1.752272E+0	1.636927E+0	1.740637E+0	1.509050E+0	1.825792E+0	1.763202E+0	1.866342E+0	1.670731E+0	1.687537E+0	1.737050E+0	1.781094E+0	1.777083E+0	1.667348E+0	1.588602E+0	1.698940E+0	1.703579E+0	1.653560E+0	1.595954E+0	1.634325E+0	1.562196E+0	1.757134E+0	1.783939E+0	1.779379E+0	1.563712E+0	1.766638E+0	1.715003E+0	1.792879E+0	1.804971E+0	1.636758E+0	1.593791E+0	1.552358E+0	1.726860E+0	1.684036E+0	1.729818E+0	1.599448E+0	1.558934E+0	1.857235E+0	1.824606E+0	1.737133E+0	1.540341E+0	1.748874E+0	1.678909E+0	1.755728E+0	1.817117E+0	1.536389E+0	1.521025E+0	1.699396E+0	1.683490E+0	1.519807E+0	1.631442E+0	1.727978E+0	1.648772E+0	1.800776E+0	1.760508E+0	1.780044E+0	1.624196E+0	1.852829E+0	1.728137E+0	1.705895E+0	1.782299E+0	1.707154E+0	1.493353E+0	1.536919E+0	1.680170E+0	1.521840E+0	1.323341E+0	1.417065E+0	1.490729E+0	1.867400E+0	1.694777E+0	1.705390E+0	1.296309E+0	1.787384E+0	1.671576E+0	1.763453E+0	1.663784E+0
5.358550E+2	1.758643E+0	1.542412E+0	1.466224E+0	1.648510E+0	1.674890E+0	1.232007E+0	1.435123E+0	1.529608E+0	1.525753E+0	1.334103E+0	1.448962E+0	1.569328E+0	1.401906E+0	1.665624E+0	1.585873E+0	1.631668E+0	1.463651E+0	1.508637E+0	1.448196E+0	1.561110E+0	1.560802E+0	1.458404E+0	1.391759E+0	1.426409E+0	1.466197E+0	1.479999E+0	1.472080E+0	1.495347E+0	1.400823E+0	1.504362E+0	1.588184E+0	1.594441E+0	1.240497E+0	1.422448E+0	1.622990E+0	1.630015E+0	1.533057E+0	1.340474E+0	1.474811E+0	1.506469E+0	1.596535E+0	1.347114E+0	1.524488E+0	1.523101E+0	1.382667E+0	1.498848E+0	1.611742E+0	1.604973E+0	1.473495E+0	1.521097E+0	1.641672E+0	1.497589E+0	1.585746E+0	1.442322E+0	1.401453E+0	1.389049E+0	1.536322E+0	1.454934E+0	1.377991E+0	1.424919E+0	1.399454E+0	1.547587E+0	1.540437E+0	1.523926E+0	1.389976E+0	1.357544E+0	1.491022E+0	1.567507E+0	1.596805E+0	1.507678E+0	1.409962E+0	1.418125E+0	1.509857E+0	1.556054E+0	1.409344E+0	1.395463E+0	1.344592E+0	1.647428E+0	1.612497E+0	1.563027E+0	1.405531E+0	1.510427E+0	1.514112E+0	1.593484E+0	1.588704E+0	1.414413E+0	1.419181E+0	1.572529E+0	1.537596E+0	1.565678E+0	1.391478E+0	1.567388E+0	1.329330E+0	1.565523E+0	1.565524E+0	1.590208E+0	1.407928E+0	1.538002E+0	1.503231E+0	1.526395E+0	1.589749E+0	1.428723E+0	1.344095E+0	1.469498E+0	1.428981E+0	1.440809E+0	1.374957E+0	1.451574E+0	1.407142E+0	1.571985E+0	1.566994E+0	1.570162E+0	1.366196E+0	1.581117E+0	1.545641E+0	1.540944E+0	1.631492E+0	1.449802E+0	1.360644E+0	1.383045E+0	1.582526E+0	1.488171E+0	1.473547E+0	1.407267E+0	1.303143E+0	1.642902E+0	1.573181E+0	1.539170E+0	1.400026E+0	1.534986E+0	1.466505E+0	1.590943E+0	1.564876E+0	1.343405E+0	1.358252E+0	1.460140E+0	1.533928E+0	1.432948E+0	1.471023E+0	1.530017E+0	1.496438E+0	1.556079E+0	1.564763E+0	1.568496E+0	1.477946E+0	1.630623E+0	1.502004E+0	1.537332E+0	1.628006E+0	1.489061E+0	1.349394E+0	1.428135E+0	1.522604E+0	1.278019E+0	1.166155E+0	1.225604E+0	1.336713E+0	1.627372E+0	1.504211E+0	1.573829E+0	1.145777E+0	1.535458E+0	1.485243E+0	1.542674E+0	1.641899E+0
5.360170E+2	1.425365E+0	1.262112E+0	1.242479E+0	1.398693E+0	1.396158E+0	1.021214E+0	1.163781E+0	1.272344E+0	1.301750E+0	1.183596E+0	1.186058E+0	1.295210E+0	1.183575E+0	1.251693E+0	1.337240E+0	1.330218E+0	1.222516E+0	1.261868E+0	1.235242E+0	1.276826E+0	1.309018E+0	1.228115E+0	1.182312E+0	1.197206E+0	1.231098E+0	1.221808E+0	1.179708E+0	1.242284E+0	1.135680E+0	1.263100E+0	1.336792E+0	1.284246E+0	1.026598E+0	1.184140E+0	1.368100E+0	1.232390E+0	1.307771E+0	1.112735E+0	1.209855E+0	1.207375E+0	1.233974E+0	1.178598E+0	1.245605E+0	1.313356E+0	1.133450E+0	1.296615E+0	1.349566E+0	1.286962E+0	1.140390E+0	1.209917E+0	1.335904E+0	1.294428E+0	1.374699E+0	1.230343E+0	1.090297E+0	1.124153E+0	1.229422E+0	1.225977E+0	1.211199E+0	1.163380E+0	1.135392E+0	1.309077E+0	1.255633E+0	1.329651E+0	1.164967E+0	1.171469E+0	1.241251E+0	1.225270E+0	1.282427E+0	1.268466E+0	1.147108E+0	1.156218E+0	1.303232E+0	1.283746E+0	1.126792E+0	1.185650E+0	1.117330E+0	1.343831E+0	1.291459E+0	1.237680E+0	1.202407E+0	1.241926E+0	1.280613E+0	1.337927E+0	1.319261E+0	1.152995E+0	1.153704E+0	1.213128E+0	1.248183E+0	1.230513E+0	1.169640E+0	1.221570E+0	1.139687E+0	1.300304E+0	1.227599E+0	1.352590E+0	1.187240E+0	1.278803E+0	1.306545E+0	1.280721E+0	1.322941E+0	1.211296E+0	1.185465E+0	1.238879E+0	1.260135E+0	1.202632E+0	1.135663E+0	1.174642E+0	1.190587E+0	1.286071E+0	1.285568E+0	1.330975E+0	1.152678E+0	1.283739E+0	1.273379E+0	1.301364E+0	1.319853E+0	1.208550E+0	1.164804E+0	1.160490E+0	1.294456E+0	1.259225E+0	1.218572E+0	1.162733E+0	1.109391E+0	1.352458E+0	1.230503E+0	1.309855E+0	1.183804E+0	1.266907E+0	1.193222E+0	1.295033E+0	1.287753E+0	1.154647E+0	1.126072E+0	1.226175E+0	1.282331E+0	1.157678E+0	1.203658E+0	1.277179E+0	1.219729E+0	1.345881E+0	1.334475E+0	1.385716E+0	1.184087E+0	1.324262E+0	1.274503E+0	1.255509E+0	1.326643E+0	1.229564E+0	1.101997E+0	1.171625E+0	1.275001E+0	1.089699E+0	9.826671E-1	1.079477E+0	1.161727E+0	1.330825E+0	1.257106E+0	1.263908E+0	9.854365E-1	1.305843E+0	1.279356E+0	1.275974E+0	1.253407E+0
5.362580E+2	9.691894E-1	9.283204E-1	8.982573E-1	9.970951E-1	1.022949E+0	8.229254E-1	8.230543E-1	9.616877E-1	1.001408E+0	8.951237E-1	8.817936E-1	1.017133E+0	9.076185E-1	9.840293E-1	9.987679E-1	1.027524E+0	8.994801E-1	9.383882E-1	9.088802E-1	9.792179E-1	9.561773E-1	9.031361E-1	8.422505E-1	8.993604E-1	9.828379E-1	9.108580E-1	8.749292E-1	9.023677E-1	8.790173E-1	9.481524E-1	9.810663E-1	1.020641E+0	7.486426E-1	8.757416E-1	1.021692E+0	9.445905E-1	9.633171E-1	8.821552E-1	9.137990E-1	9.230896E-1	1.007785E+0	8.660104E-1	9.255467E-1	9.467771E-1	8.644063E-1	9.805487E-1	1.006198E+0	1.007254E+0	8.786222E-1	9.669491E-1	9.623280E-1	9.687445E-1	1.025172E+0	9.210295E-1	8.739885E-1	8.913489E-1	9.442681E-1	9.384164E-1	9.532644E-1	8.870629E-1	8.640926E-1	9.741509E-1	9.672796E-1	9.771183E-1	8.931825E-1	8.580482E-1	9.146249E-1	9.665676E-1	1.018672E+0	9.258123E-1	8.513291E-1	8.704057E-1	9.641549E-1	9.766871E-1	8.725631E-1	8.999871E-1	8.403716E-1	1.033470E+0	9.717013E-1	9.544253E-1	8.843954E-1	9.465066E-1	1.010424E+0	1.016193E+0	1.001968E+0	9.004608E-1	8.789737E-1	9.801852E-1	9.766551E-1	9.129519E-1	9.011981E-1	9.199156E-1	8.502547E-1	1.010356E+0	9.743080E-1	1.003346E+0	9.078253E-1	9.657727E-1	9.791966E-1	9.573194E-1	9.760873E-1	9.024155E-1	8.962347E-1	9.416084E-1	9.791145E-1	9.015688E-1	9.295841E-1	9.351331E-1	8.592900E-1	9.334019E-1	1.031261E+0	9.707511E-1	8.733200E-1	9.856769E-1	9.557418E-1	9.855838E-1	9.995349E-1	9.531073E-1	8.937735E-1	8.822889E-1	9.973688E-1	9.879241E-1	9.072967E-1	9.064922E-1	8.225782E-1	9.605225E-1	9.574117E-1	9.975409E-1	8.721212E-1	9.894315E-1	9.044002E-1	9.801908E-1	1.036087E+0	8.485281E-1	8.730064E-1	9.675212E-1	9.889098E-1	8.971081E-1	9.164901E-1	9.753369E-1	9.179135E-1	1.006629E+0	1.054933E+0	1.025543E+0	9.303610E-1	1.006828E+0	9.535196E-1	9.703516E-1	1.018713E+0	9.597121E-1	8.419005E-1	9.116823E-1	9.693460E-1	8.425725E-1	8.093403E-1	7.758865E-1	8.495081E-1	1.037766E+0	9.445772E-1	1.009646E+0	7.581930E-1	9.386452E-1	9.009384E-1	1.056961E+0	9.907658E-1
5.365090E+2	7.838023E-1	6.879616E-1	7.204093E-1	7.850401E-1	8.272988E-1	6.788240E-1	6.409203E-1	7.564328E-1	7.317258E-1	6.726625E-1	7.344766E-1	7.423514E-1	6.945719E-1	7.464257E-1	7.825877E-1	8.513674E-1	6.801127E-1	7.261434E-1	7.463295E-1	7.641019E-1	7.806040E-1	7.143129E-1	6.663372E-1	7.149509E-1	7.019754E-1	7.196961E-1	7.503008E-1	7.399072E-1	6.817150E-1	7.146163E-1	7.937779E-1	7.682395E-1	5.882189E-1	6.471847E-1	7.607015E-1	7.209661E-1	7.564073E-1	6.339705E-1	7.122428E-1	6.946364E-1	7.291460E-1	6.783260E-1	7.655186E-1	6.960906E-1	6.725366E-1	7.601500E-1	7.545601E-1	7.356685E-1	7.129545E-1	7.239823E-1	7.632973E-1	7.693341E-1	7.754222E-1	6.929259E-1	6.582593E-1	7.189230E-1	7.322152E-1	7.087772E-1	7.288107E-1	6.994237E-1	6.930459E-1	8.085902E-1	7.421520E-1	7.462310E-1	6.928214E-1	7.133918E-1	7.107156E-1	7.240356E-1	7.592942E-1	7.228059E-1	6.673894E-1	6.546866E-1	7.489209E-1	7.270699E-1	6.666056E-1	7.054666E-1	6.700635E-1	8.001934E-1	8.092637E-1	7.343049E-1	6.996817E-1	7.870627E-1	7.775937E-1	8.394847E-1	7.696650E-1	7.037628E-1	7.008325E-1	7.327181E-1	7.779749E-1	7.432572E-1	6.625835E-1	7.154141E-1	6.308389E-1	7.729576E-1	7.772356E-1	8.401467E-1	7.013783E-1	7.072395E-1	7.673831E-1	7.310758E-1	7.791012E-1	7.195095E-1	7.006306E-1	7.021403E-1	7.039333E-1	7.068801E-1	7.011347E-1	7.461466E-1	6.473834E-1	7.589574E-1	7.353728E-1	7.817047E-1	6.764164E-1	7.592321E-1	7.269412E-1	7.473768E-1	7.653401E-1	7.211107E-1	7.125040E-1	7.010103E-1	8.079295E-1	7.338299E-1	7.066818E-1	7.459963E-1	6.440676E-1	7.949350E-1	8.412167E-1	7.958898E-1	6.564733E-1	7.654290E-1	6.745071E-1	7.796445E-1	7.630141E-1	7.160372E-1	6.623231E-1	6.982850E-1	7.861121E-1	7.080268E-1	7.078793E-1	7.499360E-1	7.233604E-1	7.625697E-1	7.709126E-1	8.050080E-1	7.276524E-1	8.045558E-1	7.335748E-1	7.404939E-1	8.013881E-1	7.285097E-1	6.737454E-1	6.992617E-1	7.448435E-1	6.443419E-1	6.049350E-1	6.017259E-1	6.487528E-1	7.782002E-1	7.762429E-1	7.832117E-1	5.857416E-1	8.140774E-1	6.916016E-1	7.620011E-1	7.418052E-1
5.367600E+2	6.192454E-1	6.123595E-1	5.834369E-1	6.034859E-1	6.879320E-1	5.424636E-1	5.337462E-1	5.747543E-1	6.034548E-1	5.406384E-1	5.503317E-1	6.197875E-1	5.624095E-1	6.186631E-1	6.498655E-1	6.441960E-1	5.982078E-1	5.976460E-1	5.724377E-1	6.574957E-1	6.157564E-1	5.944068E-1	5.486693E-1	5.636996E-1	5.872487E-1	5.608076E-1	5.636538E-1	6.299345E-1	5.646903E-1	5.910143E-1	6.115164E-1	6.314240E-1	4.985379E-1	5.600285E-1	6.034283E-1	6.045225E-1	6.342781E-1	5.101621E-1	5.932225E-1	5.721494E-1	6.445705E-1	5.441714E-1	5.689690E-1	6.041304E-1	5.519484E-1	5.797142E-1	6.163447E-1	6.840208E-1	5.814811E-1	6.083453E-1	5.856130E-1	6.043043E-1	6.683875E-1	5.609606E-1	5.697700E-1	5.780448E-1	5.950759E-1	5.997495E-1	5.614004E-1	5.882542E-1	5.431860E-1	6.278064E-1	6.216115E-1	6.192715E-1	5.733636E-1	5.341164E-1	6.010141E-1	6.674445E-1	5.936673E-1	5.993217E-1	5.697427E-1	5.557928E-1	5.754096E-1	6.192803E-1	5.958072E-1	5.549874E-1	5.712294E-1	6.331806E-1	6.327572E-1	5.972271E-1	5.390882E-1	6.407336E-1	6.308241E-1	6.789704E-1	6.443855E-1	5.438664E-1	5.926753E-1	5.977917E-1	6.196930E-1	6.418630E-1	5.532178E-1	5.781742E-1	5.724021E-1	6.412754E-1	5.970897E-1	6.495307E-1	5.815437E-1	5.989084E-1	5.858283E-1	6.179546E-1	6.400194E-1	5.868729E-1	5.676436E-1	5.930234E-1	6.495985E-1	5.918066E-1	6.008064E-1	5.471802E-1	5.708903E-1	6.355233E-1	6.437740E-1	6.145613E-1	5.705809E-1	6.146353E-1	5.473510E-1	6.430322E-1	6.755029E-1	6.193038E-1	5.597952E-1	5.167411E-1	6.299171E-1	6.418530E-1	6.121988E-1	5.276392E-1	5.363089E-1	6.380275E-1	6.482150E-1	6.643245E-1	5.748148E-1	6.686025E-1	5.955017E-1	6.148608E-1	6.617695E-1	5.514826E-1	5.726450E-1	5.589636E-1	6.308457E-1	5.570297E-1	5.930117E-1	5.977089E-1	6.029768E-1	6.252069E-1	6.263435E-1	6.605812E-1	6.065715E-1	6.340265E-1	6.455970E-1	5.905867E-1	6.832062E-1	6.049715E-1	5.920873E-1	5.635648E-1	6.370349E-1	5.339940E-1	4.907788E-1	5.128557E-1	5.696488E-1	6.428350E-1	6.612673E-1	6.358403E-1	4.663524E-1	6.467462E-1	6.317902E-1	7.231444E-1	5.284084E-1
5.370280E+2	5.748084E-1	5.189260E-1	5.439949E-1	5.366739E-1	5.673264E-1	4.727949E-1	4.829469E-1	5.081847E-1	5.189833E-1	4.812276E-1	4.704412E-1	5.453258E-1	4.836399E-1	5.192278E-1	5.785783E-1	5.995371E-1	5.208849E-1	5.439454E-1	5.409357E-1	5.851560E-1	5.728513E-1	5.215670E-1	4.892470E-1	5.008729E-1	5.264369E-1	5.155000E-1	4.791899E-1	4.999666E-1	4.742368E-1	5.517942E-1	5.197579E-1	5.382478E-1	4.456206E-1	4.862809E-1	5.830912E-1	5.310839E-1	5.287483E-1	4.613200E-1	5.142740E-1	5.032145E-1	5.534389E-1	4.575988E-1	5.224879E-1	5.197283E-1	4.667333E-1	5.288527E-1	5.413493E-1	5.551915E-1	5.166293E-1	5.212935E-1	5.473137E-1	5.399181E-1	5.782837E-1	4.988587E-1	4.633509E-1	5.029819E-1	5.249960E-1	4.784562E-1	4.851356E-1	4.835104E-1	4.630885E-1	5.795969E-1	5.524778E-1	5.171143E-1	5.063660E-1	4.797157E-1	5.092858E-1	5.401152E-1	5.717921E-1	5.346692E-1	4.931012E-1	5.019987E-1	5.780575E-1	5.391486E-1	4.876794E-1	4.760783E-1	4.880298E-1	5.953150E-1	5.604915E-1	5.335227E-1	5.181416E-1	5.475521E-1	5.601077E-1	6.191290E-1	5.814309E-1	4.981813E-1	4.897238E-1	5.421271E-1	5.349227E-1	5.566638E-1	5.016424E-1	5.156688E-1	4.941180E-1	5.806893E-1	5.916490E-1	5.829456E-1	5.038294E-1	5.171610E-1	5.280608E-1	5.506369E-1	5.378366E-1	5.323644E-1	4.829612E-1	5.057297E-1	5.286599E-1	5.068400E-1	5.126798E-1	4.860559E-1	4.933642E-1	5.612111E-1	5.328910E-1	5.367531E-1	5.053568E-1	5.580237E-1	5.211479E-1	5.640874E-1	5.571659E-1	5.150284E-1	5.259892E-1	4.754596E-1	5.884211E-1	5.492140E-1	4.873000E-1	5.297055E-1	4.628364E-1	5.966306E-1	5.366157E-1	5.751803E-1	5.075324E-1	5.840594E-1	5.009541E-1	5.699833E-1	5.692026E-1	4.964295E-1	5.063065E-1	4.995906E-1	5.541621E-1	4.855397E-1	4.715428E-1	4.774949E-1	5.065560E-1	5.555671E-1	5.649336E-1	5.616996E-1	5.079380E-1	5.993302E-1	5.459342E-1	5.619377E-1	5.880036E-1	5.442375E-1	4.898633E-1	4.370284E-1	5.452200E-1	4.791503E-1	4.411711E-1	4.561938E-1	4.545890E-1	5.905029E-1	5.272354E-1	5.694277E-1	4.519334E-1	5.324035E-1	5.363235E-1	5.518199E-1	5.913328E-1
5.372640E+2	5.678650E-1	5.310511E-1	4.930788E-1	5.729848E-1	5.834070E-1	5.656862E-1	4.786109E-1	5.678199E-1	5.308723E-1	5.545012E-1	5.078365E-1	5.881575E-1	4.883978E-1	5.435082E-1	5.443833E-1	6.063598E-1	5.346318E-1	5.599280E-1	5.144743E-1	5.216996E-1	5.649479E-1	5.075591E-1	4.804218E-1	4.874931E-1	5.452449E-1	5.018452E-1	5.075414E-1	4.987167E-1	4.521887E-1	5.494172E-1	5.612381E-1	5.577085E-1	4.328090E-1	4.753106E-1	5.485184E-1	5.317453E-1	5.346775E-1	4.476900E-1	4.759964E-1	5.083421E-1	5.193468E-1	5.078242E-1	5.105351E-1	5.417735E-1	4.688767E-1	5.464118E-1	5.512664E-1	5.470674E-1	4.912774E-1	5.147964E-1	6.188893E-1	5.267910E-1	5.776793E-1	4.827368E-1	4.540973E-1	4.959109E-1	5.413075E-1	5.118457E-1	5.124171E-1	5.040734E-1	4.408680E-1	5.745225E-1	5.335694E-1	5.236099E-1	5.088941E-1	4.840428E-1	5.173428E-1	5.374203E-1	5.380417E-1	5.514792E-1	5.021843E-1	5.058025E-1	4.807061E-1	5.533309E-1	4.986210E-1	4.766902E-1	5.014311E-1	5.675926E-1	5.470616E-1	5.204407E-1	4.876733E-1	5.406501E-1	5.507675E-1	5.374638E-1	5.524717E-1	4.734354E-1	5.209560E-1	5.384968E-1	5.514797E-1	5.256821E-1	4.966714E-1	4.653930E-1	4.891562E-1	5.621429E-1	5.197116E-1	5.235415E-1	5.079821E-1	5.198194E-1	5.562569E-1	5.631286E-1	5.452164E-1	5.329703E-1	4.710346E-1	4.803673E-1	5.163905E-1	4.834235E-1	4.936992E-1	4.729573E-1	4.819935E-1	5.265738E-1	5.509697E-1	5.638420E-1	4.893578E-1	5.361978E-1	5.230651E-1	5.057370E-1	5.664595E-1	5.341560E-1	5.242403E-1	5.011859E-1	5.511345E-1	5.108352E-1	5.196569E-1	5.076630E-1	4.818847E-1	6.326862E-1	5.576229E-1	5.542771E-1	5.012073E-1	5.211937E-1	5.313908E-1	5.566605E-1	5.755668E-1	4.492413E-1	4.934079E-1	4.954757E-1	5.757102E-1	4.748496E-1	4.953083E-1	5.258418E-1	5.259543E-1	5.734563E-1	5.540595E-1	5.718875E-1	5.079376E-1	5.912096E-1	5.232527E-1	5.246278E-1	5.243163E-1	5.483790E-1	4.862338E-1	4.965751E-1	5.227105E-1	4.461118E-1	3.939547E-1	4.627539E-1	4.665745E-1	5.716634E-1	4.973797E-1	5.650007E-1	4.057920E-1	5.826035E-1	5.294231E-1	5.306245E-1	5.256723E-1
5.375060E+2	5.567555E-1	5.766978E-1	5.031183E-1	5.875091E-1	5.599561E-1	6.151097E-1	5.052494E-1	5.262141E-1	5.609063E-1	6.086310E-1	5.169022E-1	5.907933E-1	5.079582E-1	5.972728E-1	5.745215E-1	5.604600E-1	5.185941E-1	6.500677E-1	5.661375E-1	5.908670E-1	5.570444E-1	6.224225E-1	5.327842E-1	5.113437E-1	5.439911E-1	6.241144E-1	5.016351E-1	5.287096E-1	4.578413E-1	6.005220E-1	5.392409E-1	5.748104E-1	4.266818E-1	4.929855E-1	6.285107E-1	5.641645E-1	5.186699E-1	4.993717E-1	5.483654E-1	5.128997E-1	5.481940E-1	5.058415E-1	5.158471E-1	5.600399E-1	4.838832E-1	5.494394E-1	5.376306E-1	5.992955E-1	5.408009E-1	5.459798E-1	5.818459E-1	5.755495E-1	6.048919E-1	5.233416E-1	4.968962E-1	5.029820E-1	5.413079E-1	5.159347E-1	5.117973E-1	5.060013E-1	4.899600E-1	6.017987E-1	5.518873E-1	5.696694E-1	5.354404E-1	4.846611E-1	5.192019E-1	5.926636E-1	5.917921E-1	5.307905E-1	5.027524E-1	4.797206E-1	5.442830E-1	5.753149E-1	5.063447E-1	4.956528E-1	5.137155E-1	5.743541E-1	5.406665E-1	5.414861E-1	5.194108E-1	5.620469E-1	5.554374E-1	6.106812E-1	5.713581E-1	4.956432E-1	5.001343E-1	5.354714E-1	5.912155E-1	5.404683E-1	5.196628E-1	5.611890E-1	5.161695E-1	5.627609E-1	5.674686E-1	5.698900E-1	5.239995E-1	5.483979E-1	5.583197E-1	5.423092E-1	5.883605E-1	5.341815E-1	4.972741E-1	5.599934E-1	5.444340E-1	5.034944E-1	5.194589E-1	5.359532E-1	5.161048E-1	5.706572E-1	5.298780E-1	5.736400E-1	5.207395E-1	5.484753E-1	5.377645E-1	5.716385E-1	5.639814E-1	5.366244E-1	5.178290E-1	4.682802E-1	5.956380E-1	5.703889E-1	5.455428E-1	5.028411E-1	4.971235E-1	5.919567E-1	5.805993E-1	5.598103E-1	4.787795E-1	5.450394E-1	5.242671E-1	6.148608E-1	5.865589E-1	5.091340E-1	4.964793E-1	5.142869E-1	5.497264E-1	4.908848E-1	5.296361E-1	5.487084E-1	5.316593E-1	6.034844E-1	5.489415E-1	5.946602E-1	5.541938E-1	5.380578E-1	5.555573E-1	5.539428E-1	6.037609E-1	5.338856E-1	5.140580E-1	5.366539E-1	5.706913E-1	5.795867E-1	4.477456E-1	4.591756E-1	4.809568E-1	5.925962E-1	5.246942E-1	5.770179E-1	4.323232E-1	5.612216E-1	5.788816E-1	5.500541E-1	6.077478E-1
5.377630E+2	6.789582E-1	6.202051E-1	5.934769E-1	6.855484E-1	6.946327E-1	6.728692E-1	5.219758E-1	6.427102E-1	6.503830E-1	6.647415E-1	5.633639E-1	5.822274E-1	5.745680E-1	6.724271E-1	6.672530E-1	6.410952E-1	6.010718E-1	7.069650E-1	6.304018E-1	6.847816E-1	6.710821E-1	7.059079E-1	5.745565E-1	5.986038E-1	6.073102E-1	6.861802E-1	6.351231E-1	5.993175E-1	5.601678E-1	6.825274E-1	6.705944E-1	6.573716E-1	5.375300E-1	6.228056E-1	6.420687E-1	6.250324E-1	6.372420E-1	6.652064E-1	5.788682E-1	5.898104E-1	6.334252E-1	6.604830E-1	6.174422E-1	5.984615E-1	5.637396E-1	6.820415E-1	6.213036E-1	6.596478E-1	5.856080E-1	5.966522E-1	6.132391E-1	6.693160E-1	6.593164E-1	6.152995E-1	5.778669E-1	5.856599E-1	5.896389E-1	6.052007E-1	6.091427E-1	5.991788E-1	5.540382E-1	6.284403E-1	6.399288E-1	6.558835E-1	5.765240E-1	5.489532E-1	6.022533E-1	6.539709E-1	6.367929E-1	6.458701E-1	5.549820E-1	6.095864E-1	5.972632E-1	6.412647E-1	5.803602E-1	5.690565E-1	5.606199E-1	6.744265E-1	6.788020E-1	6.523995E-1	6.108157E-1	6.096729E-1	6.475023E-1	6.578500E-1	6.708262E-1	5.774953E-1	5.944102E-1	6.123129E-1	6.488325E-1	6.186268E-1	5.992012E-1	6.053507E-1	5.630297E-1	6.536399E-1	6.248973E-1	6.952265E-1	5.904426E-1	6.407786E-1	6.559746E-1	6.880483E-1	6.581849E-1	6.141267E-1	5.628728E-1	5.989216E-1	5.753990E-1	5.931447E-1	6.096185E-1	5.802370E-1	5.688233E-1	6.707900E-1	6.250929E-1	6.491429E-1	5.779647E-1	6.173636E-1	6.259616E-1	6.855935E-1	6.878943E-1	5.866019E-1	6.035095E-1	5.939186E-1	6.960704E-1	6.186929E-1	6.089628E-1	6.233856E-1	5.656972E-1	7.054647E-1	6.705345E-1	6.366592E-1	5.989670E-1	6.772732E-1	5.799592E-1	6.323910E-1	6.473056E-1	5.653971E-1	5.701877E-1	5.671937E-1	6.790098E-1	5.490120E-1	5.996131E-1	6.258020E-1	5.870019E-1	6.360680E-1	6.685630E-1	6.635773E-1	6.113331E-1	6.436236E-1	6.517826E-1	6.145720E-1	6.313366E-1	6.884807E-1	5.672871E-1	5.818868E-1	6.263727E-1	6.635043E-1	4.740432E-1	5.223985E-1	5.840316E-1	6.658605E-1	6.295060E-1	6.307801E-1	5.124929E-1	6.513942E-1	6.087870E-1	7.001829E-1	5.311449E-1
5.380110E+2	7.726933E-1	7.607108E-1	7.060663E-1	7.944807E-1	7.341645E-1	7.633792E-1	6.570276E-1	7.203746E-1	7.542516E-1	7.868638E-1	6.455211E-1	7.489408E-1	6.443500E-1	7.643472E-1	7.640414E-1	7.508835E-1	7.087506E-1	8.079726E-1	7.261683E-1	7.368162E-1	7.664905E-1	7.877130E-1	6.398619E-1	7.143690E-1	7.257990E-1	7.494880E-1	7.036392E-1	6.886702E-1	6.483604E-1	7.894907E-1	6.680805E-1	7.310869E-1	5.698375E-1	7.654247E-1	7.105367E-1	7.302281E-1	7.338789E-1	7.867434E-1	6.578163E-1	6.689996E-1	7.186560E-1	7.893508E-1	6.964606E-1	7.099472E-1	6.741444E-1	7.407745E-1	7.446435E-1	7.368292E-1	6.752218E-1	7.843987E-1	7.614132E-1	7.193252E-1	7.681656E-1	8.045892E-1	6.518973E-1	6.623541E-1	6.899260E-1	8.055390E-1	6.624668E-1	6.345216E-1	6.620404E-1	7.743365E-1	7.516061E-1	7.356014E-1	6.586906E-1	6.490999E-1	6.890228E-1	7.172983E-1	7.042940E-1	7.434945E-1	6.526293E-1	7.073936E-1	7.158075E-1	7.745823E-1	6.530897E-1	6.724340E-1	6.689471E-1	7.670610E-1	7.465911E-1	7.104159E-1	6.590568E-1	7.649754E-1	7.362311E-1	7.641557E-1	7.879217E-1	7.024940E-1	6.898434E-1	7.194073E-1	7.336033E-1	7.362163E-1	6.489127E-1	6.882381E-1	6.413136E-1	7.500830E-1	7.427784E-1	7.742145E-1	6.871405E-1	7.590792E-1	7.880144E-1	7.525901E-1	7.620709E-1	7.049742E-1	6.475549E-1	7.139369E-1	6.945852E-1	7.202611E-1	7.031679E-1	7.099709E-1	6.572034E-1	7.677738E-1	7.558619E-1	7.655672E-1	6.714939E-1	7.305860E-1	7.250233E-1	7.109933E-1	7.783512E-1	6.717499E-1	6.693723E-1	6.848570E-1	7.592164E-1	7.113319E-1	6.892088E-1	6.481829E-1	6.337275E-1	8.209745E-1	7.683491E-1	7.344107E-1	6.673993E-1	7.560357E-1	7.036479E-1	7.340664E-1	7.346660E-1	6.204505E-1	6.924209E-1	7.135687E-1	7.569601E-1	6.833064E-1	6.827939E-1	7.329490E-1	6.839933E-1	7.766255E-1	8.022569E-1	7.984162E-1	6.950017E-1	7.336866E-1	7.177663E-1	7.211727E-1	7.757822E-1	6.940022E-1	6.386626E-1	7.021249E-1	7.270730E-1	7.414748E-1	5.529369E-1	5.892001E-1	6.517487E-1	7.935503E-1	7.152615E-1	7.629717E-1	5.707457E-1	7.387783E-1	7.203566E-1	7.902608E-1	7.199189E-1
5.382900E+2	9.386385E-1	8.812470E-1	8.702891E-1	9.346408E-1	9.525953E-1	9.670262E-1	8.137619E-1	8.396444E-1	8.574943E-1	9.340706E-1	8.013361E-1	9.090654E-1	7.728124E-1	9.088752E-1	9.008206E-1	8.910645E-1	8.822972E-1	9.614026E-1	8.528067E-1	9.309915E-1	8.839154E-1	1.001190E+0	8.381326E-1	8.801634E-1	8.768880E-1	9.387879E-1	8.058222E-1	8.298853E-1	7.908247E-1	9.315139E-1	9.301598E-1	9.109524E-1	6.834709E-1	8.873213E-1	9.261093E-1	8.632118E-1	8.791300E-1	9.309958E-1	8.175072E-1	8.410513E-1	9.015745E-1	9.618356E-1	8.299285E-1	8.548165E-1	7.459614E-1	9.950818E-1	9.095096E-1	9.236890E-1	8.839289E-1	9.455110E-1	9.171226E-1	8.681019E-1	9.060418E-1	9.222242E-1	7.860776E-1	8.168310E-1	8.681465E-1	9.595408E-1	8.193361E-1	8.234458E-1	7.891626E-1	9.614642E-1	8.668289E-1	9.056672E-1	8.483069E-1	7.690286E-1	8.904529E-1	9.322086E-1	8.992960E-1	9.128819E-1	7.934224E-1	7.617312E-1	9.025649E-1	9.646317E-1	8.030524E-1	8.363702E-1	7.733655E-1	9.361022E-1	8.687388E-1	8.674011E-1	7.917209E-1	9.582404E-1	8.643211E-1	9.486072E-1	8.930555E-1	9.524910E-1	7.875896E-1	8.906368E-1	8.865863E-1	9.678732E-1	7.682202E-1	8.587686E-1	7.923686E-1	9.812991E-1	9.217152E-1	9.093431E-1	8.443487E-1	9.132689E-1	8.471569E-1	8.754276E-1	9.488367E-1	9.211903E-1	7.876983E-1	8.690596E-1	8.459055E-1	8.908645E-1	8.624725E-1	8.184976E-1	8.081218E-1	9.680394E-1	8.552948E-1	9.269470E-1	8.160951E-1	8.574494E-1	8.656272E-1	8.675100E-1	8.688077E-1	8.371086E-1	8.197501E-1	8.188708E-1	8.626566E-1	9.012408E-1	8.464650E-1	8.128118E-1	7.409424E-1	9.458332E-1	8.983295E-1	9.508166E-1	8.105895E-1	8.774307E-1	8.357563E-1	8.932411E-1	9.342632E-1	7.735109E-1	7.974557E-1	8.129159E-1	8.938485E-1	8.256174E-1	8.003019E-1	8.727631E-1	8.391794E-1	8.769326E-1	9.046068E-1	9.392474E-1	8.752625E-1	9.713938E-1	9.212154E-1	8.550896E-1	9.458330E-1	8.679213E-1	7.578231E-1	8.057585E-1	9.166264E-1	8.683421E-1	7.089306E-1	7.174355E-1	7.859854E-1	9.324051E-1	9.026524E-1	8.685987E-1	6.647578E-1	9.339974E-1	8.825353E-1	8.626760E-1	8.457660E-1
5.385060E+2	1.098335E+0	1.138723E+0	1.069652E+0	1.137981E+0	1.108713E+0	1.148047E+0	9.407594E-1	1.051834E+0	1.032694E+0	1.136067E+0	9.928478E-1	1.128495E+0	9.446238E-1	1.119308E+0	1.060783E+0	1.101337E+0	1.008305E+0	1.199857E+0	1.019768E+0	1.142300E+0	1.075296E+0	1.117175E+0	9.758055E-1	1.072716E+0	1.012305E+0	1.159121E+0	9.954230E-1	1.016714E+0	9.666441E-1	1.131178E+0	1.073454E+0	1.083150E+0	8.282976E-1	1.142086E+0	1.100330E+0	1.066326E+0	1.127540E+0	1.116710E+0	1.005906E+0	1.028486E+0	1.030732E+0	1.078808E+0	1.001245E+0	1.062043E+0	9.072804E-1	1.081060E+0	1.078715E+0	1.119256E+0	1.062569E+0	1.173537E+0	1.069064E+0	1.054385E+0	1.113461E+0	1.174812E+0	9.838787E-1	1.009383E+0	1.045160E+0	1.166693E+0	9.861266E-1	1.003373E+0	9.090494E-1	1.172695E+0	1.049411E+0	1.036759E+0	9.728217E-1	9.254307E-1	1.005113E+0	1.052128E+0	1.106174E+0	1.161145E+0	9.767941E-1	9.627789E-1	1.054222E+0	1.102913E+0	9.530159E-1	9.929655E-1	9.185466E-1	1.153151E+0	1.055478E+0	1.036899E+0	9.923036E-1	1.114233E+0	1.081807E+0	1.083074E+0	1.093252E+0	1.117465E+0	9.969637E-1	1.034638E+0	1.072022E+0	1.155172E+0	9.272969E-1	9.606795E-1	9.632698E-1	1.159968E+0	1.038992E+0	1.108446E+0	9.813874E-1	1.158509E+0	1.032838E+0	1.047539E+0	1.065213E+0	1.181618E+0	9.648153E-1	1.039519E+0	1.024684E+0	1.148443E+0	1.004152E+0	9.918919E-1	9.419850E-1	1.167046E+0	1.056572E+0	1.080834E+0	9.588503E-1	1.098899E+0	1.022209E+0	1.099539E+0	1.103002E+0	1.137592E+0	9.398185E-1	9.558771E-1	1.046082E+0	1.074608E+0	1.017958E+0	9.919063E-1	9.134667E-1	1.158160E+0	1.114963E+0	1.006762E+0	9.606801E-1	1.054465E+0	1.019670E+0	1.110616E+0	1.076007E+0	9.090262E-1	9.571567E-1	1.011611E+0	1.066861E+0	9.913140E-1	9.825059E-1	1.056351E+0	9.806726E-1	1.105020E+0	1.116983E+0	1.111840E+0	9.691343E-1	1.099844E+0	1.003007E+0	1.018321E+0	1.086996E+0	1.051503E+0	9.223491E-1	9.483252E-1	1.070046E+0	1.082431E+0	8.278682E-1	8.540207E-1	9.435934E-1	1.102658E+0	1.008734E+0	1.010910E+0	8.106781E-1	1.113413E+0	9.630496E-1	1.032235E+0	1.031804E+0
5.387600E+2	1.385787E+0	1.287075E+0	1.220250E+0	1.332608E+0	1.376054E+0	1.358242E+0	1.101830E+0	1.208550E+0	1.279225E+0	1.371071E+0	1.204191E+0	1.330791E+0	1.139695E+0	1.288115E+0	1.286236E+0	1.373636E+0	1.244283E+0	1.408904E+0	1.261074E+0	1.352340E+0	1.245226E+0	1.380521E+0	1.189372E+0	1.208261E+0	1.197873E+0	1.278285E+0	1.193292E+0	1.210416E+0	1.157729E+0	1.280333E+0	1.267026E+0	1.280119E+0	9.508433E-1	1.337123E+0	1.275906E+0	1.283334E+0	1.251446E+0	1.337636E+0	1.145263E+0	1.176608E+0	1.272004E+0	1.349099E+0	1.232322E+0	1.191794E+0	1.112013E+0	1.330526E+0	1.327874E+0	1.237638E+0	1.135085E+0	1.398312E+0	1.290070E+0	1.246293E+0	1.354744E+0	1.370071E+0	1.087406E+0	1.180721E+0	1.190152E+0	1.361580E+0	1.195698E+0	1.180732E+0	1.105418E+0	1.383927E+0	1.246177E+0	1.318429E+0	1.178871E+0	1.095432E+0	1.194146E+0	1.261648E+0	1.283051E+0	1.300146E+0	1.142567E+0	1.150242E+0	1.276739E+0	1.331965E+0	1.146746E+0	1.179534E+0	1.126266E+0	1.373582E+0	1.259484E+0	1.264416E+0	1.140837E+0	1.375832E+0	1.319974E+0	1.340039E+0	1.319256E+0	1.347791E+0	1.123628E+0	1.256090E+0	1.200500E+0	1.388236E+0	1.160319E+0	1.221571E+0	1.107711E+0	1.297214E+0	1.240899E+0	1.379356E+0	1.138001E+0	1.353241E+0	1.223331E+0	1.276558E+0	1.263902E+0	1.404497E+0	1.169362E+0	1.192284E+0	1.184767E+0	1.406689E+0	1.168881E+0	1.154057E+0	1.100653E+0	1.337711E+0	1.266887E+0	1.282558E+0	1.135448E+0	1.350579E+0	1.242701E+0	1.272532E+0	1.223199E+0	1.331338E+0	1.098356E+0	1.111430E+0	1.310694E+0	1.377669E+0	1.164861E+0	1.176511E+0	1.074562E+0	1.392520E+0	1.264639E+0	1.287106E+0	1.113072E+0	1.284250E+0	1.243736E+0	1.264180E+0	1.213122E+0	1.256888E+0	1.131601E+0	1.176207E+0	1.255083E+0	1.281952E+0	1.153488E+0	1.255617E+0	1.166098E+0	1.363134E+0	1.305690E+0	1.322187E+0	1.245987E+0	1.370770E+0	1.241510E+0	1.250178E+0	1.245884E+0	1.193675E+0	1.110467E+0	1.108072E+0	1.216949E+0	1.271410E+0	1.000597E+0	1.003728E+0	1.063446E+0	1.382457E+0	1.208828E+0	1.293005E+0	9.888986E-1	1.306773E+0	1.232197E+0	1.178831E+0	1.267088E+0
5.390390E+2	1.602420E+0	1.585203E+0	1.378734E+0	1.583878E+0	1.583095E+0	1.601786E+0	1.327330E+0	1.447089E+0	1.572683E+0	1.616639E+0	1.383237E+0	1.541654E+0	1.343756E+0	1.565610E+0	1.519225E+0	1.531804E+0	1.401220E+0	1.687638E+0	1.485999E+0	1.531921E+0	1.542738E+0	1.582229E+0	1.376462E+0	1.447355E+0	1.426698E+0	1.570619E+0	1.374033E+0	1.422867E+0	1.388953E+0	1.531101E+0	1.473799E+0	1.504802E+0	1.156386E+0	1.565067E+0	1.576892E+0	1.501004E+0	1.496894E+0	1.536977E+0	1.377323E+0	1.378856E+0	1.475244E+0	1.651773E+0	1.432193E+0	1.485941E+0	1.312993E+0	1.561820E+0	1.465470E+0	1.517347E+0	1.380932E+0	1.593207E+0	1.498521E+0	1.463832E+0	1.574859E+0	1.585638E+0	1.380634E+0	1.331934E+0	1.433622E+0	1.630745E+0	1.416434E+0	1.305395E+0	1.263031E+0	1.560272E+0	1.483123E+0	1.473733E+0	1.416523E+0	1.342092E+0	1.408591E+0	1.511591E+0	1.520554E+0	1.528367E+0	1.368517E+0	1.298040E+0	1.468137E+0	1.534776E+0	1.346910E+0	1.362433E+0	1.279265E+0	1.558172E+0	1.534475E+0	1.480554E+0	1.367445E+0	1.587733E+0	1.498768E+0	1.573066E+0	1.460278E+0	1.497536E+0	1.420340E+0	1.389199E+0	1.485939E+0	1.629753E+0	1.311942E+0	1.460720E+0	1.279713E+0	1.613125E+0	1.513537E+0	1.534070E+0	1.357502E+0	1.551293E+0	1.490163E+0	1.476429E+0	1.580666E+0	1.625561E+0	1.299967E+0	1.417006E+0	1.417886E+0	1.636168E+0	1.437325E+0	1.356769E+0	1.318765E+0	1.647555E+0	1.495886E+0	1.533852E+0	1.318200E+0	1.581116E+0	1.490674E+0	1.482593E+0	1.477218E+0	1.586777E+0	1.338495E+0	1.344758E+0	1.535016E+0	1.626466E+0	1.445719E+0	1.404514E+0	1.288448E+0	1.594830E+0	1.507532E+0	1.453099E+0	1.289041E+0	1.529930E+0	1.412755E+0	1.507499E+0	1.502389E+0	1.638029E+0	1.342286E+0	1.397239E+0	1.497172E+0	1.536511E+0	1.342293E+0	1.444432E+0	1.396597E+0	1.611665E+0	1.525740E+0	1.557706E+0	1.420807E+0	1.592239E+0	1.438084E+0	1.479371E+0	1.489474E+0	1.486300E+0	1.276202E+0	1.280985E+0	1.415983E+0	1.533072E+0	1.153601E+0	1.184448E+0	1.328924E+0	1.622487E+0	1.382879E+0	1.465674E+0	1.101366E+0	1.516866E+0	1.472591E+0	1.503816E+0	1.439445E+0
5.392720E+2	1.794753E+0	1.769934E+0	1.641924E+0	1.827161E+0	1.869867E+0	1.847117E+0	1.489638E+0	1.705742E+0	1.702831E+0	1.822593E+0	1.604209E+0	1.794032E+0	1.596450E+0	1.796279E+0	1.745837E+0	1.814031E+0	1.608559E+0	1.887735E+0	1.606966E+0	1.832067E+0	1.775335E+0	1.821481E+0	1.545317E+0	1.645143E+0	1.570268E+0	1.816398E+0	1.555362E+0	1.664680E+0	1.554595E+0	1.733143E+0	1.728963E+0	1.789637E+0	1.363044E+0	1.772901E+0	1.785005E+0	1.710073E+0	1.687202E+0	1.751086E+0	1.522060E+0	1.591355E+0	1.696191E+0	1.797826E+0	1.636045E+0	1.615693E+0	1.501647E+0	1.738018E+0	1.693555E+0	1.802860E+0	1.549551E+0	1.756918E+0	1.683736E+0	1.692625E+0	1.790746E+0	1.881214E+0	1.576122E+0	1.558212E+0	1.640839E+0	1.806548E+0	1.616086E+0	1.608059E+0	1.483170E+0	1.847624E+0	1.710023E+0	1.693989E+0	1.541671E+0	1.518896E+0	1.642251E+0	1.724481E+0	1.718055E+0	1.765638E+0	1.512715E+0	1.487678E+0	1.660189E+0	1.819144E+0	1.545145E+0	1.542275E+0	1.476376E+0	1.810384E+0	1.785168E+0	1.667116E+0	1.594050E+0	1.808608E+0	1.702242E+0	1.803280E+0	1.802121E+0	1.795122E+0	1.514613E+0	1.657845E+0	1.650183E+0	1.788888E+0	1.480337E+0	1.568070E+0	1.498026E+0	1.770772E+0	1.637464E+0	1.762545E+0	1.568693E+0	1.847710E+0	1.703350E+0	1.688793E+0	1.719181E+0	1.904157E+0	1.512864E+0	1.571535E+0	1.687220E+0	1.908464E+0	1.550533E+0	1.591909E+0	1.457793E+0	1.826411E+0	1.714035E+0	1.706181E+0	1.516334E+0	1.751633E+0	1.665152E+0	1.621946E+0	1.733100E+0	1.753373E+0	1.544829E+0	1.521846E+0	1.701603E+0	1.817702E+0	1.565440E+0	1.647665E+0	1.456616E+0	1.800479E+0	1.760930E+0	1.684876E+0	1.466159E+0	1.745984E+0	1.500178E+0	1.723470E+0	1.717031E+0	1.815288E+0	1.435033E+0	1.591232E+0	1.627722E+0	1.763674E+0	1.640024E+0	1.635861E+0	1.506138E+0	1.849975E+0	1.628732E+0	1.730303E+0	1.616034E+0	1.766459E+0	1.691024E+0	1.632609E+0	1.667402E+0	1.774098E+0	1.443150E+0	1.510013E+0	1.651145E+0	1.752450E+0	1.297644E+0	1.412888E+0	1.449976E+0	1.800418E+0	1.669365E+0	1.702230E+0	1.252476E+0	1.775299E+0	1.607164E+0	1.699868E+0	1.570765E+0
5.395260E+2	2.005829E+0	1.985327E+0	1.835548E+0	2.030498E+0	2.064179E+0	2.011464E+0	1.686022E+0	1.940811E+0	1.963754E+0	1.963198E+0	1.786655E+0	1.975242E+0	1.792579E+0	2.062209E+0	1.992735E+0	1.961034E+0	1.809024E+0	2.066098E+0	1.906236E+0	1.993244E+0	1.958243E+0	2.117887E+0	1.791247E+0	1.781268E+0	1.755839E+0	2.011904E+0	1.792216E+0	1.846514E+0	1.699321E+0	2.000552E+0	1.887345E+0	1.949454E+0	1.425427E+0	1.891144E+0	1.996511E+0	1.919803E+0	1.936202E+0	2.034482E+0	1.818717E+0	1.783349E+0	1.858783E+0	1.969649E+0	1.786780E+0	1.821029E+0	1.712808E+0	2.011700E+0	1.890031E+0	1.932849E+0	1.751181E+0	1.999234E+0	1.912277E+0	1.917664E+0	2.004212E+0	2.062142E+0	1.686587E+0	1.726285E+0	1.860142E+0	2.032102E+0	1.750631E+0	1.757788E+0	1.655763E+0	2.040460E+0	1.848882E+0	1.942006E+0	1.745826E+0	1.713623E+0	1.862276E+0	1.884821E+0	1.876808E+0	2.026830E+0	1.696658E+0	1.639824E+0	1.831052E+0	2.098547E+0	1.738232E+0	1.671343E+0	1.651707E+0	1.947644E+0	1.966788E+0	1.845715E+0	1.727989E+0	1.948726E+0	1.886376E+0	1.961680E+0	2.014907E+0	1.955016E+0	1.714158E+0	1.873241E+0	1.858133E+0	2.000828E+0	1.725789E+0	1.863608E+0	1.652940E+0	2.013732E+0	1.794635E+0	1.935535E+0	1.733019E+0	2.020508E+0	1.867713E+0	1.883113E+0	1.911056E+0	2.108262E+0	1.703100E+0	1.774436E+0	1.808742E+0	2.031566E+0	1.785763E+0	1.782145E+0	1.682621E+0	1.971885E+0	1.879151E+0	1.833556E+0	1.715082E+0	1.958979E+0	1.852411E+0	1.850544E+0	1.849576E+0	1.967474E+0	1.731926E+0	1.622358E+0	1.933741E+0	1.996361E+0	1.758291E+0	1.732391E+0	1.635673E+0	2.032170E+0	1.904036E+0	1.879765E+0	1.755987E+0	2.055255E+0	1.787061E+0	1.883350E+0	1.886544E+0	2.010695E+0	1.634047E+0	1.782285E+0	1.854601E+0	1.987493E+0	1.771396E+0	1.842966E+0	1.672734E+0	2.054421E+0	1.872451E+0	1.962225E+0	1.776570E+0	2.017453E+0	1.902032E+0	1.829821E+0	1.905079E+0	2.028075E+0	1.658484E+0	1.695519E+0	1.814636E+0	1.983716E+0	1.441087E+0	1.515477E+0	1.643540E+0	1.992301E+0	1.834524E+0	1.836952E+0	1.367829E+0	2.120187E+0	1.778545E+0	1.869425E+0	1.806048E+0
5.397910E+2	2.137751E+0	2.188601E+0	1.949569E+0	2.225855E+0	2.203546E+0	2.224041E+0	1.838419E+0	2.005993E+0	2.075130E+0	2.282698E+0	1.947572E+0	2.113619E+0	1.851790E+0	2.186502E+0	2.123138E+0	2.181848E+0	1.914985E+0	2.185008E+0	2.095880E+0	2.078912E+0	2.136639E+0	2.213137E+0	1.914208E+0	1.968004E+0	1.967738E+0	2.245889E+0	1.957600E+0	1.932739E+0	1.842353E+0	2.121182E+0	2.063322E+0	2.067989E+0	1.615376E+0	2.093491E+0	2.109043E+0	2.043526E+0	2.023947E+0	2.221329E+0	1.935940E+0	1.957680E+0	2.136768E+0	2.238617E+0	2.012548E+0	1.978493E+0	1.846258E+0	2.226041E+0	2.114397E+0	2.079669E+0	1.897984E+0	2.167492E+0	2.086820E+0	1.989555E+0	2.216468E+0	2.197692E+0	1.801103E+0	1.892728E+0	1.933849E+0	2.254924E+0	1.901301E+0	1.930643E+0	1.733795E+0	2.103262E+0	2.007240E+0	2.048888E+0	1.830518E+0	1.797696E+0	1.939746E+0	2.028991E+0	2.137434E+0	2.160017E+0	1.827801E+0	1.853913E+0	2.070129E+0	2.200659E+0	1.851509E+0	1.881766E+0	1.790747E+0	2.097077E+0	2.053767E+0	1.957768E+0	1.957763E+0	2.133710E+0	2.137881E+0	2.188372E+0	2.045753E+0	2.128873E+0	1.857017E+0	1.961580E+0	2.022377E+0	2.230376E+0	1.901024E+0	1.900976E+0	1.808405E+0	2.196729E+0	2.089037E+0	2.234519E+0	1.871839E+0	2.190647E+0	2.012823E+0	2.057301E+0	2.096121E+0	2.246350E+0	1.746038E+0	1.918941E+0	1.857237E+0	2.184104E+0	1.921338E+0	1.946184E+0	1.773587E+0	2.214347E+0	2.006304E+0	2.068132E+0	1.859069E+0	2.211342E+0	1.950832E+0	2.027657E+0	2.080676E+0	2.115561E+0	1.812360E+0	1.835343E+0	1.980045E+0	2.180311E+0	1.911665E+0	1.870154E+0	1.766833E+0	2.182397E+0	2.141025E+0	2.105395E+0	1.798543E+0	2.181710E+0	1.811666E+0	2.017981E+0	2.038701E+0	2.207920E+0	1.803574E+0	1.874577E+0	1.999096E+0	2.135154E+0	1.801103E+0	1.944234E+0	1.922631E+0	2.154091E+0	2.066277E+0	2.070092E+0	1.881324E+0	2.146644E+0	1.989323E+0	2.013705E+0	2.126342E+0	2.164035E+0	1.735304E+0	1.811751E+0	1.906449E+0	2.114548E+0	1.584527E+0	1.641323E+0	1.722044E+0	2.182090E+0	1.967924E+0	2.001402E+0	1.543740E+0	2.089509E+0	2.001686E+0	2.192646E+0	1.918218E+0
5.400140E+2	2.323830E+0	2.175758E+0	2.018412E+0	2.252002E+0	2.251785E+0	2.254411E+0	1.865056E+0	2.145371E+0	2.151470E+0	2.356632E+0	1.971370E+0	2.224324E+0	1.915224E+0	2.228704E+0	2.145742E+0	2.176887E+0	1.919567E+0	2.186924E+0	2.025944E+0	2.189960E+0	2.112364E+0	2.277012E+0	1.928917E+0	1.997673E+0	2.014128E+0	2.193756E+0	1.936338E+0	1.938361E+0	1.888144E+0	2.160999E+0	2.101030E+0	2.175908E+0	1.633758E+0	2.134324E+0	2.148361E+0	2.069328E+0	2.095683E+0	2.209971E+0	1.913809E+0	2.030602E+0	2.077757E+0	2.250513E+0	2.059690E+0	1.998021E+0	1.870913E+0	2.232099E+0	2.155926E+0	2.071544E+0	1.912721E+0	2.218165E+0	2.174094E+0	2.065817E+0	2.084035E+0	2.253822E+0	1.863566E+0	1.948209E+0	2.039571E+0	2.231074E+0	1.875881E+0	1.966631E+0	1.835599E+0	2.252964E+0	2.057464E+0	2.080772E+0	1.905102E+0	1.897226E+0	2.049453E+0	2.112533E+0	2.051809E+0	2.127686E+0	1.843127E+0	1.877275E+0	1.981385E+0	2.213421E+0	1.879185E+0	1.845064E+0	1.765057E+0	2.262064E+0	2.066554E+0	2.053890E+0	1.879695E+0	2.280728E+0	2.153893E+0	2.163029E+0	2.112487E+0	2.166306E+0	1.848340E+0	2.034186E+0	2.063439E+0	2.171231E+0	1.833290E+0	2.049087E+0	1.819430E+0	2.225786E+0	2.075135E+0	2.084371E+0	1.887263E+0	2.213909E+0	1.969499E+0	2.039259E+0	2.145511E+0	2.299040E+0	1.827739E+0	1.979692E+0	2.026082E+0	2.262382E+0	1.869143E+0	1.924351E+0	1.850078E+0	2.228200E+0	2.064758E+0	2.058913E+0	1.828303E+0	2.189518E+0	1.970008E+0	2.044815E+0	2.089352E+0	2.206258E+0	1.878806E+0	1.843121E+0	2.085895E+0	2.141937E+0	1.931727E+0	1.897712E+0	1.748329E+0	2.282554E+0	2.058306E+0	2.020551E+0	1.872727E+0	2.241682E+0	1.889377E+0	2.060051E+0	2.067048E+0	2.213366E+0	1.802346E+0	1.948646E+0	2.094154E+0	2.224683E+0	1.864479E+0	1.978206E+0	1.866149E+0	2.206475E+0	2.044527E+0	2.051519E+0	1.939821E+0	2.202748E+0	1.977637E+0	1.963736E+0	2.060028E+0	2.165415E+0	1.812727E+0	1.814043E+0	1.978719E+0	2.151550E+0	1.638316E+0	1.656832E+0	1.716056E+0	2.149991E+0	1.971734E+0	2.024170E+0	1.542010E+0	2.168523E+0	1.886664E+0	2.044283E+0	1.899066E+0
5.402630E+2	2.215513E+0	2.202151E+0	2.031323E+0	2.233118E+0	2.211585E+0	2.152588E+0	1.817977E+0	2.053144E+0	2.145836E+0	2.309759E+0	2.008198E+0	2.213123E+0	1.890907E+0	2.221190E+0	2.128353E+0	2.240774E+0	1.866301E+0	2.178613E+0	2.052405E+0	2.148711E+0	2.078492E+0	2.301106E+0	1.924798E+0	1.936591E+0	1.954571E+0	2.120519E+0	1.873728E+0	1.946485E+0	1.827090E+0	2.197838E+0	2.098514E+0	2.106909E+0	1.671636E+0	2.115431E+0	2.130738E+0	2.022353E+0	2.103984E+0	2.169648E+0	1.971827E+0	1.844306E+0	2.034493E+0	2.136187E+0	1.955440E+0	1.977868E+0	1.840903E+0	2.182448E+0	2.072870E+0	2.152208E+0	1.916260E+0	2.142806E+0	2.157774E+0	2.000804E+0	2.165066E+0	2.173808E+0	1.827131E+0	1.903065E+0	1.967077E+0	2.246748E+0	1.868440E+0	1.888232E+0	1.782889E+0	2.220611E+0	2.079918E+0	2.059517E+0	1.870971E+0	1.825519E+0	1.959582E+0	2.037754E+0	2.109935E+0	2.180055E+0	1.816443E+0	1.863688E+0	2.031057E+0	2.133294E+0	1.841209E+0	1.848734E+0	1.747752E+0	2.153876E+0	2.107487E+0	2.065266E+0	1.878421E+0	2.213776E+0	2.125208E+0	2.042639E+0	2.074712E+0	2.180902E+0	1.840822E+0	1.972469E+0	1.986614E+0	2.221926E+0	1.906613E+0	1.947177E+0	1.813920E+0	2.230730E+0	1.997755E+0	2.094168E+0	1.868874E+0	2.184669E+0	2.012137E+0	1.905317E+0	2.103501E+0	2.175487E+0	1.859349E+0	1.924839E+0	1.955388E+0	2.249667E+0	1.884736E+0	1.959904E+0	1.784439E+0	2.201748E+0	2.028600E+0	2.015686E+0	1.833224E+0	2.118581E+0	2.015385E+0	2.031085E+0	2.015003E+0	2.201939E+0	1.892212E+0	1.795860E+0	2.020939E+0	2.124068E+0	1.934961E+0	1.842604E+0	1.785339E+0	2.227137E+0	2.070123E+0	2.029773E+0	1.839372E+0	2.093551E+0	1.851818E+0	2.048835E+0	1.978532E+0	2.163753E+0	1.871142E+0	1.907497E+0	1.998463E+0	2.189269E+0	1.799123E+0	1.980817E+0	1.881550E+0	2.170061E+0	2.020859E+0	2.053315E+0	1.927578E+0	2.153287E+0	1.957018E+0	1.976396E+0	2.064627E+0	2.201992E+0	1.687514E+0	1.766518E+0	1.936069E+0	2.103315E+0	1.596480E+0	1.642518E+0	1.774182E+0	2.134641E+0	2.017470E+0	2.046942E+0	1.517209E+0	2.176894E+0	1.911968E+0	2.044283E+0	1.986613E+0
5.405080E+2	2.191909E+0	2.130112E+0	2.022000E+0	2.148876E+0	2.111082E+0	2.177596E+0	1.903466E+0	1.944971E+0	1.995666E+0	2.175095E+0	1.992333E+0	2.039820E+0	1.847031E+0	2.050646E+0	2.097055E+0	2.108037E+0	1.822770E+0	2.066738E+0	1.902455E+0	2.046548E+0	1.956550E+0	2.092670E+0	1.825958E+0	1.903434E+0	1.915074E+0	2.063419E+0	1.853054E+0	1.823391E+0	1.844046E+0	2.007685E+0	1.908712E+0	1.940606E+0	1.513440E+0	2.062407E+0	2.010751E+0	1.975376E+0	1.926720E+0	2.069126E+0	1.822300E+0	1.866524E+0	1.972205E+0	2.093229E+0	1.910952E+0	1.945743E+0	1.722458E+0	2.039552E+0	2.019566E+0	2.013513E+0	1.826646E+0	2.016774E+0	2.048521E+0	1.953296E+0	2.024773E+0	2.075282E+0	1.760043E+0	1.784488E+0	1.933847E+0	2.120688E+0	1.867822E+0	1.836183E+0	1.716743E+0	2.050611E+0	1.917424E+0	1.975667E+0	1.783117E+0	1.774207E+0	1.913718E+0	1.951519E+0	1.927433E+0	2.095364E+0	1.737531E+0	1.769145E+0	1.974105E+0	2.142511E+0	1.794225E+0	1.797353E+0	1.781812E+0	2.072058E+0	1.988534E+0	1.900888E+0	1.851764E+0	2.139229E+0	2.006460E+0	2.094034E+0	2.070307E+0	2.010221E+0	1.794550E+0	1.883528E+0	1.912439E+0	2.068425E+0	1.725787E+0	1.896219E+0	1.700905E+0	2.053299E+0	1.977202E+0	2.017787E+0	1.826159E+0	2.008548E+0	1.939236E+0	1.991374E+0	2.026864E+0	2.138541E+0	1.789572E+0	1.824573E+0	1.930266E+0	2.169387E+0	1.884055E+0	1.866968E+0	1.776168E+0	2.088392E+0	1.899041E+0	2.018566E+0	1.753232E+0	2.086525E+0	1.921434E+0	1.983035E+0	1.961721E+0	2.111857E+0	1.826347E+0	1.724064E+0	1.941557E+0	2.074440E+0	1.826888E+0	1.796453E+0	1.671592E+0	2.150354E+0	1.960493E+0	1.949853E+0	1.704235E+0	2.025623E+0	1.772814E+0	1.987129E+0	1.979109E+0	2.060909E+0	1.769176E+0	1.808149E+0	1.912906E+0	2.003532E+0	1.777999E+0	1.890004E+0	1.788553E+0	2.115115E+0	1.997828E+0	1.986794E+0	1.848674E+0	2.103826E+0	1.945335E+0	1.889781E+0	2.028514E+0	2.152305E+0	1.718970E+0	1.705826E+0	1.835369E+0	2.002220E+0	1.512805E+0	1.578102E+0	1.672904E+0	2.096965E+0	1.863745E+0	1.958390E+0	1.473952E+0	2.078354E+0	1.888965E+0	1.906516E+0	1.879915E+0
5.407630E+2	2.107893E+0	1.972490E+0	2.024153E+0	1.967320E+0	2.043412E+0	2.040642E+0	2.067018E+0	1.852745E+0	1.995041E+0	2.056274E+0	2.068256E+0	1.962721E+0	1.801568E+0	1.977228E+0	2.094159E+0	1.937465E+0	1.795851E+0	2.018150E+0	1.893005E+0	1.955807E+0	1.853238E+0	2.065777E+0	1.835958E+0	1.764401E+0	1.790319E+0	2.000110E+0	1.859550E+0	1.750909E+0	1.721933E+0	2.017192E+0	1.930080E+0	1.897559E+0	1.519565E+0	1.982563E+0	1.951091E+0	1.884738E+0	1.860909E+0	1.970306E+0	1.717038E+0	1.754293E+0	1.850916E+0	1.976918E+0	1.761547E+0	1.792054E+0	1.680651E+0	1.959023E+0	1.878255E+0	1.933431E+0	1.736441E+0	1.984294E+0	1.857025E+0	1.849526E+0	1.975788E+0	2.040648E+0	1.688324E+0	1.738798E+0	1.800332E+0	1.980994E+0	1.723353E+0	1.743646E+0	1.644398E+0	2.001134E+0	1.938104E+0	1.926062E+0	1.701580E+0	1.635115E+0	1.812072E+0	1.833620E+0	1.889308E+0	1.887829E+0	1.679060E+0	1.724045E+0	1.797276E+0	2.020538E+0	1.721500E+0	1.696420E+0	1.632163E+0	1.990920E+0	1.866385E+0	1.807039E+0	1.758453E+0	1.972880E+0	1.883037E+0	2.006739E+0	1.952581E+0	1.947404E+0	1.680031E+0	1.841174E+0	1.876013E+0	2.026179E+0	1.619528E+0	1.809935E+0	1.645775E+0	1.998895E+0	1.792824E+0	1.966218E+0	1.759717E+0	1.961361E+0	1.814764E+0	1.944873E+0	1.926384E+0	2.061020E+0	1.637502E+0	1.736095E+0	1.798808E+0	2.042268E+0	1.725428E+0	1.739732E+0	1.640758E+0	1.985109E+0	1.817686E+0	1.870446E+0	1.668934E+0	1.997174E+0	1.811509E+0	1.877319E+0	1.878078E+0	1.968090E+0	1.678304E+0	1.659449E+0	1.914493E+0	2.038048E+0	1.740818E+0	1.778545E+0	1.550770E+0	2.020151E+0	1.886970E+0	1.875462E+0	1.686407E+0	1.930968E+0	1.673734E+0	1.897373E+0	1.855883E+0	2.011299E+0	1.641415E+0	1.762886E+0	1.898330E+0	2.052972E+0	1.728487E+0	1.788739E+0	1.734353E+0	2.058253E+0	1.941537E+0	1.922672E+0	1.762282E+0	2.032958E+0	1.862165E+0	1.795175E+0	1.918206E+0	1.915580E+0	1.584081E+0	1.607917E+0	1.812858E+0	2.012131E+0	1.472162E+0	1.500565E+0	1.644141E+0	2.011138E+0	1.743052E+0	1.841381E+0	1.411084E+0	1.991902E+0	1.740588E+0	1.871192E+0	1.784160E+0
5.410190E+2	1.912789E+0	1.901166E+0	1.958176E+0	1.928829E+0	1.973053E+0	1.921550E+0	1.975331E+0	1.795190E+0	1.817964E+0	1.985644E+0	1.967970E+0	1.888263E+0	1.679446E+0	1.962196E+0	2.038522E+0	1.916996E+0	1.707645E+0	1.917784E+0	1.888596E+0	1.835241E+0	1.808074E+0	1.902728E+0	2.052467E+0	1.745781E+0	1.714461E+0	1.923772E+0	1.925707E+0	1.724044E+0	1.624132E+0	1.860907E+0	2.004870E+0	1.855098E+0	1.429884E+0	1.877124E+0	1.819581E+0	1.737198E+0	1.789176E+0	1.935095E+0	1.720026E+0	1.692766E+0	1.782075E+0	1.827563E+0	1.782796E+0	1.705137E+0	1.607228E+0	1.907554E+0	1.867720E+0	1.844643E+0	1.709322E+0	1.925824E+0	1.751545E+0	1.797019E+0	1.882664E+0	1.992875E+0	1.642054E+0	1.626203E+0	1.718170E+0	1.937383E+0	1.661347E+0	1.705093E+0	1.568432E+0	1.895201E+0	1.770292E+0	1.803826E+0	1.654809E+0	1.615331E+0	1.722205E+0	1.840356E+0	1.816805E+0	1.929852E+0	1.602415E+0	1.555600E+0	1.770789E+0	1.906368E+0	1.594060E+0	1.630970E+0	1.591403E+0	1.882059E+0	1.789648E+0	1.776893E+0	1.656258E+0	1.850712E+0	1.772960E+0	1.959570E+0	1.819749E+0	1.887125E+0	1.596167E+0	1.716533E+0	1.774026E+0	1.926195E+0	1.591566E+0	1.780721E+0	1.555363E+0	1.877727E+0	1.777711E+0	1.904203E+0	1.620303E+0	1.931449E+0	1.699912E+0	1.802608E+0	1.782193E+0	1.939892E+0	1.628559E+0	1.720761E+0	1.662681E+0	1.935892E+0	1.651541E+0	1.669249E+0	1.618017E+0	1.905759E+0	1.738743E+0	1.817417E+0	1.558176E+0	1.913963E+0	1.771247E+0	1.796311E+0	1.788243E+0	1.921819E+0	1.597869E+0	1.585265E+0	1.800831E+0	1.905706E+0	1.716875E+0	1.646978E+0	1.507232E+0	1.885945E+0	1.828543E+0	1.759882E+0	1.590370E+0	1.978660E+0	1.634876E+0	1.809020E+0	1.789927E+0	1.872760E+0	1.654930E+0	1.687640E+0	1.779184E+0	1.849192E+0	1.602395E+0	1.703808E+0	1.673878E+0	1.957948E+0	1.873731E+0	1.859747E+0	1.677256E+0	1.914103E+0	1.737075E+0	1.721220E+0	1.779019E+0	1.920411E+0	1.529644E+0	1.583868E+0	1.770209E+0	1.869404E+0	1.597080E+0	1.443305E+0	1.476944E+0	1.867402E+0	1.795778E+0	1.763581E+0	1.418008E+0	1.956576E+0	1.753240E+0	1.705167E+0	1.661047E+0
5.412640E+2	1.861407E+0	1.746396E+0	1.910131E+0	1.872910E+0	1.887290E+0	1.907257E+0	1.926390E+0	1.716832E+0	1.640261E+0	1.766482E+0	1.808189E+0	1.830276E+0	1.512924E+0	1.779511E+0	1.861752E+0	1.814030E+0	1.662396E+0	1.866640E+0	1.823700E+0	1.780032E+0	1.787187E+0	1.823162E+0	1.862436E+0	1.630017E+0	1.614148E+0	1.897083E+0	1.831198E+0	1.654059E+0	1.591340E+0	1.765826E+0	1.886715E+0	1.714153E+0	1.366944E+0	1.746697E+0	1.811448E+0	1.758372E+0	1.710325E+0	1.781185E+0	1.823498E+0	1.593066E+0	1.751916E+0	1.795182E+0	1.833259E+0	1.690015E+0	1.479138E+0	1.820967E+0	1.865239E+0	1.793576E+0	1.553088E+0	1.801092E+0	1.801148E+0	1.671994E+0	1.814329E+0	1.800005E+0	1.782599E+0	1.570175E+0	1.634798E+0	1.876054E+0	1.805196E+0	1.576575E+0	1.450614E+0	1.900910E+0	1.786838E+0	1.699305E+0	1.604241E+0	1.501584E+0	1.662086E+0	1.729866E+0	1.755558E+0	1.799255E+0	1.588223E+0	1.581679E+0	1.652905E+0	1.830492E+0	1.579257E+0	1.541663E+0	1.570181E+0	1.793479E+0	1.766622E+0	1.712052E+0	1.559774E+0	1.783070E+0	1.785632E+0	1.836367E+0	1.741682E+0	1.747534E+0	1.589803E+0	1.695359E+0	1.674687E+0	1.838882E+0	1.554283E+0	1.644839E+0	1.502437E+0	1.813429E+0	1.662852E+0	1.848716E+0	1.605474E+0	1.863660E+0	1.719169E+0	1.661725E+0	1.775947E+0	1.889620E+0	1.496166E+0	1.577436E+0	1.661513E+0	1.790044E+0	1.554601E+0	1.605009E+0	1.538940E+0	1.905759E+0	1.742356E+0	1.759205E+0	1.483719E+0	1.781642E+0	1.679854E+0	1.674805E+0	1.735581E+0	1.863816E+0	1.594370E+0	1.480565E+0	1.720843E+0	1.856080E+0	1.610742E+0	1.568449E+0	1.493627E+0	1.847888E+0	1.731388E+0	1.722377E+0	1.461559E+0	1.790784E+0	1.544213E+0	1.710149E+0	1.771413E+0	1.864290E+0	1.569552E+0	1.542441E+0	1.696166E+0	1.822468E+0	1.570709E+0	1.687475E+0	1.536377E+0	1.821221E+0	1.720206E+0	1.690749E+0	1.671130E+0	1.880146E+0	1.693086E+0	1.710559E+0	1.646393E+0	1.817577E+0	1.472786E+0	1.529475E+0	1.615013E+0	1.776896E+0	1.586320E+0	1.417659E+0	1.467954E+0	1.799722E+0	1.710655E+0	1.626964E+0	1.328611E+0	1.865473E+0	1.648572E+0	1.652179E+0	1.614538E+0
5.415140E+2	1.771838E+0	1.661523E+0	1.813313E+0	1.778505E+0	1.775395E+0	1.793524E+0	1.772133E+0	1.639169E+0	1.674049E+0	1.772425E+0	1.776456E+0	1.800620E+0	1.501820E+0	1.743088E+0	1.835089E+0	1.743319E+0	1.540401E+0	1.733029E+0	1.758806E+0	1.673427E+0	1.677664E+0	1.805794E+0	1.664162E+0	1.573009E+0	1.587818E+0	1.740057E+0	1.789854E+0	1.568454E+0	1.530852E+0	1.717694E+0	1.796213E+0	1.615670E+0	1.257208E+0	1.708297E+0	1.786364E+0	1.615462E+0	1.642736E+0	1.731207E+0	1.759502E+0	1.571416E+0	1.584733E+0	1.710587E+0	1.749594E+0	1.577273E+0	1.445373E+0	1.720457E+0	1.692316E+0	1.652562E+0	1.520662E+0	1.779003E+0	1.728316E+0	1.627611E+0	1.645010E+0	1.815529E+0	1.759459E+0	1.503818E+0	1.550220E+0	1.734319E+0	1.792176E+0	1.530946E+0	1.447511E+0	1.719488E+0	1.762021E+0	1.660334E+0	1.508172E+0	1.459549E+0	1.770547E+0	1.553360E+0	1.658056E+0	1.655728E+0	1.676219E+0	1.523541E+0	1.678072E+0	1.760287E+0	1.660998E+0	1.488443E+0	1.419417E+0	1.784013E+0	1.809468E+0	1.634126E+0	1.479796E+0	1.731994E+0	1.601505E+0	1.734989E+0	1.658586E+0	1.703119E+0	1.470079E+0	1.581004E+0	1.649519E+0	1.755091E+0	1.475990E+0	1.625820E+0	1.455025E+0	1.704622E+0	1.586080E+0	1.737088E+0	1.477928E+0	1.786563E+0	1.567876E+0	1.670054E+0	1.715777E+0	1.794535E+0	1.469333E+0	1.492501E+0	1.600751E+0	1.743881E+0	1.492235E+0	1.510203E+0	1.404041E+0	1.730058E+0	1.696558E+0	1.611085E+0	1.458495E+0	1.726394E+0	1.668988E+0	1.680296E+0	1.647602E+0	1.746584E+0	1.446324E+0	1.426123E+0	1.662510E+0	1.765425E+0	1.516260E+0	1.463751E+0	1.395116E+0	1.779781E+0	1.659832E+0	1.600034E+0	1.498936E+0	1.673726E+0	1.553279E+0	1.722072E+0	1.559088E+0	1.793506E+0	1.479872E+0	1.501290E+0	1.559912E+0	1.765006E+0	1.493469E+0	1.555498E+0	1.489023E+0	1.771388E+0	1.667754E+0	1.715321E+0	1.552773E+0	1.744310E+0	1.556993E+0	1.595297E+0	1.683817E+0	1.720265E+0	1.389914E+0	1.436149E+0	1.616792E+0	1.725357E+0	1.482325E+0	1.315667E+0	1.423609E+0	1.777389E+0	1.635065E+0	1.591543E+0	1.227677E+0	1.742761E+0	1.505947E+0	1.562102E+0	1.630954E+0
5.417650E+2	1.637831E+0	1.573080E+0	1.619689E+0	1.633262E+0	1.640718E+0	1.649422E+0	1.628409E+0	1.517816E+0	1.602091E+0	1.634458E+0	1.621776E+0	1.564716E+0	1.336883E+0	1.559831E+0	1.669332E+0	1.585148E+0	1.370863E+0	1.624989E+0	1.571684E+0	1.563013E+0	1.540483E+0	1.594556E+0	1.652395E+0	1.449099E+0	1.456167E+0	1.607233E+0	1.704800E+0	1.463480E+0	1.379907E+0	1.549525E+0	1.635951E+0	1.472955E+0	1.192590E+0	1.576039E+0	1.591806E+0	1.493066E+0	1.549655E+0	1.579572E+0	1.637494E+0	1.428987E+0	1.498847E+0	1.639879E+0	1.567653E+0	1.483422E+0	1.341934E+0	1.556370E+0	1.652650E+0	1.536498E+0	1.421612E+0	1.578914E+0	1.610280E+0	1.528843E+0	1.554906E+0	1.628627E+0	1.648415E+0	1.377078E+0	1.397976E+0	1.601442E+0	1.640268E+0	1.407568E+0	1.309537E+0	1.617363E+0	1.571755E+0	1.513887E+0	1.355213E+0	1.316745E+0	1.649688E+0	1.534494E+0	1.509928E+0	1.541294E+0	1.648399E+0	1.403999E+0	1.499922E+0	1.697171E+0	1.637184E+0	1.416261E+0	1.349063E+0	1.664329E+0	1.600988E+0	1.473728E+0	1.370618E+0	1.624315E+0	1.646872E+0	1.564617E+0	1.511901E+0	1.575580E+0	1.543535E+0	1.502342E+0	1.508455E+0	1.624119E+0	1.541857E+0	1.435584E+0	1.317204E+0	1.571706E+0	1.592122E+0	1.616317E+0	1.328430E+0	1.581200E+0	1.494290E+0	1.486841E+0	1.548876E+0	1.607387E+0	1.353639E+0	1.413465E+0	1.424891E+0	1.608734E+0	1.364114E+0	1.435980E+0	1.331168E+0	1.641889E+0	1.478407E+0	1.487741E+0	1.381576E+0	1.602946E+0	1.444020E+0	1.464058E+0	1.511915E+0	1.605907E+0	1.394448E+0	1.434501E+0	1.432176E+0	1.612573E+0	1.421129E+0	1.319785E+0	1.263956E+0	1.568788E+0	1.535101E+0	1.500440E+0	1.367824E+0	1.592073E+0	1.397861E+0	1.578323E+0	1.483878E+0	1.630163E+0	1.372996E+0	1.410177E+0	1.451543E+0	1.563233E+0	1.478946E+0	1.411112E+0	1.427974E+0	1.642972E+0	1.525102E+0	1.569694E+0	1.397002E+0	1.602571E+0	1.440836E+0	1.498025E+0	1.498006E+0	1.611219E+0	1.308259E+0	1.353129E+0	1.477585E+0	1.593204E+0	1.398055E+0	1.261986E+0	1.349297E+0	1.566666E+0	1.473079E+0	1.506154E+0	1.127896E+0	1.605179E+0	1.471440E+0	1.445531E+0	1.384728E+0
5.420110E+2	1.493409E+0	1.436853E+0	1.449730E+0	1.395788E+0	1.483260E+0	1.437441E+0	1.488401E+0	1.325739E+0	1.356187E+0	1.444343E+0	1.455196E+0	1.399322E+0	1.239612E+0	1.470798E+0	1.454894E+0	1.456130E+0	1.279223E+0	1.458132E+0	1.426774E+0	1.427853E+0	1.364905E+0	1.476333E+0	1.462361E+0	1.271670E+0	1.263073E+0	1.434072E+0	1.496299E+0	1.287273E+0	1.209172E+0	1.415225E+0	1.452432E+0	1.377423E+0	1.071718E+0	1.359670E+0	1.466395E+0	1.334278E+0	1.311326E+0	1.437588E+0	1.447298E+0	1.277447E+0	1.399848E+0	1.465411E+0	1.398992E+0	1.330992E+0	1.192404E+0	1.422558E+0	1.459889E+0	1.346156E+0	1.218212E+0	1.437293E+0	1.443896E+0	1.319431E+0	1.404332E+0	1.414856E+0	1.460449E+0	1.257416E+0	1.349043E+0	1.456979E+0	1.442474E+0	1.242420E+0	1.193784E+0	1.448631E+0	1.366718E+0	1.367442E+0	1.206050E+0	1.206090E+0	1.460034E+0	1.324303E+0	1.374927E+0	1.370618E+0	1.434939E+0	1.217077E+0	1.332373E+0	1.463154E+0	1.459543E+0	1.218683E+0	1.198295E+0	1.465539E+0	1.489070E+0	1.295697E+0	1.247475E+0	1.420007E+0	1.504768E+0	1.466056E+0	1.395434E+0	1.343350E+0	1.433062E+0	1.271213E+0	1.330967E+0	1.468510E+0	1.432490E+0	1.296303E+0	1.165043E+0	1.457331E+0	1.486938E+0	1.385232E+0	1.266140E+0	1.500785E+0	1.505983E+0	1.305706E+0	1.386518E+0	1.466878E+0	1.450248E+0	1.267778E+0	1.289933E+0	1.527114E+0	1.451560E+0	1.260094E+0	1.171463E+0	1.438473E+0	1.436826E+0	1.313105E+0	1.192672E+0	1.448799E+0	1.314282E+0	1.364517E+0	1.416502E+0	1.498547E+0	1.276128E+0	1.187409E+0	1.319114E+0	1.420679E+0	1.243165E+0	1.263991E+0	1.149121E+0	1.469971E+0	1.401183E+0	1.322764E+0	1.234408E+0	1.414314E+0	1.248269E+0	1.393204E+0	1.375687E+0	1.438381E+0	1.210223E+0	1.252040E+0	1.329231E+0	1.484395E+0	1.232044E+0	1.318991E+0	1.214592E+0	1.469189E+0	1.338955E+0	1.419873E+0	1.305847E+0	1.502177E+0	1.355609E+0	1.284159E+0	1.343713E+0	1.415216E+0	1.177003E+0	1.179068E+0	1.312319E+0	1.388365E+0	1.190657E+0	1.066355E+0	1.117382E+0	1.388739E+0	1.306020E+0	1.341707E+0	1.013121E+0	1.482470E+0	1.287407E+0	1.417272E+0	1.384729E+0
5.422670E+2	1.254560E+0	1.199348E+0	1.286225E+0	1.272332E+0	1.274212E+0	1.205806E+0	1.379369E+0	1.168330E+0	1.165971E+0	1.214622E+0	1.287478E+0	1.251718E+0	1.069914E+0	1.251118E+0	1.264791E+0	1.258267E+0	1.086200E+0	1.284884E+0	1.274305E+0	1.244463E+0	1.155462E+0	1.276304E+0	1.287038E+0	1.138452E+0	1.169660E+0	1.267736E+0	1.275393E+0	1.134187E+0	1.077450E+0	1.219127E+0	1.287768E+0	1.214661E+0	9.051668E-1	1.191454E+0	1.310480E+0	1.163583E+0	1.192754E+0	1.217235E+0	1.297775E+0	1.061529E+0	1.190704E+0	1.248648E+0	1.334582E+0	1.136995E+0	1.022511E+0	1.196707E+0	1.293163E+0	1.202821E+0	1.056081E+0	1.191726E+0	1.263702E+0	1.182531E+0	1.254360E+0	1.228551E+0	1.242405E+0	1.088795E+0	1.129135E+0	1.283897E+0	1.316607E+0	1.067634E+0	1.038240E+0	1.288780E+0	1.259178E+0	1.184976E+0	1.090383E+0	1.050305E+0	1.292694E+0	1.213142E+0	1.159299E+0	1.255536E+0	1.270870E+0	1.104057E+0	1.154886E+0	1.296510E+0	1.257445E+0	1.099402E+0	1.044740E+0	1.271479E+0	1.286984E+0	1.180235E+0	1.084343E+0	1.211555E+0	1.299960E+0	1.230917E+0	1.213497E+0	1.278629E+0	1.279216E+0	1.130842E+0	1.179971E+0	1.326977E+0	1.267820E+0	1.114904E+0	1.058091E+0	1.318232E+0	1.246340E+0	1.224643E+0	1.060287E+0	1.252219E+0	1.253591E+0	1.170376E+0	1.245167E+0	1.296692E+0	1.249871E+0	1.171638E+0	1.150881E+0	1.307002E+0	1.311236E+0	1.086698E+0	1.058273E+0	1.255214E+0	1.284364E+0	1.204174E+0	1.062840E+0	1.253725E+0	1.261235E+0	1.190840E+0	1.194079E+0	1.289996E+0	1.237077E+0	1.045021E+0	1.237925E+0	1.267827E+0	1.276170E+0	1.104873E+0	1.042995E+0	1.252304E+0	1.256762E+0	1.204724E+0	1.036588E+0	1.227887E+0	1.088962E+0	1.253661E+0	1.209649E+0	1.252656E+0	1.051134E+0	1.103902E+0	1.181567E+0	1.348095E+0	1.082190E+0	1.124951E+0	1.065681E+0	1.284547E+0	1.207816E+0	1.187352E+0	1.094977E+0	1.283661E+0	1.143910E+0	1.115595E+0	1.207146E+0	1.212308E+0	1.028203E+0	1.090894E+0	1.135797E+0	1.240353E+0	1.121327E+0	9.279798E-1	1.013709E+0	1.267329E+0	1.182149E+0	1.205087E+0	8.764287E-1	1.213812E+0	1.155134E+0	1.164701E+0	1.185011E+0
5.425080E+2	1.108750E+0	1.091650E+0	1.100488E+0	1.122730E+0	1.099333E+0	1.099218E+0	1.173694E+0	1.040046E+0	1.017676E+0	1.114944E+0	1.129965E+0	1.070507E+0	9.588957E-1	1.126824E+0	1.142502E+0	1.077148E+0	1.010596E+0	1.097571E+0	1.079622E+0	1.056000E+0	1.041989E+0	1.085236E+0	1.118771E+0	1.026179E+0	1.027977E+0	1.133052E+0	1.110602E+0	9.798484E-1	9.078498E-1	1.077698E+0	1.071569E+0	1.026537E+0	7.859634E-1	1.084185E+0	1.102362E+0	1.129179E+0	1.036240E+0	1.092289E+0	1.096817E+0	1.003417E+0	1.032043E+0	1.116476E+0	1.156627E+0	1.018580E+0	9.351501E-1	1.066529E+0	1.099166E+0	1.071668E+0	9.741328E-1	1.120915E+0	1.121806E+0	9.943740E-1	1.106204E+0	1.093005E+0	1.101286E+0	9.256173E-1	1.016161E+0	1.141481E+0	1.149818E+0	9.564637E-1	9.478087E-1	1.150495E+0	1.142182E+0	1.083410E+0	1.001264E+0	9.285218E-1	1.132170E+0	1.053475E+0	1.068674E+0	1.132698E+0	1.163572E+0	9.405005E-1	1.056209E+0	1.093695E+0	1.151250E+0	9.746146E-1	9.358568E-1	1.109201E+0	1.136057E+0	9.919667E-1	9.193070E-1	1.143223E+0	1.104490E+0	1.147843E+0	1.065552E+0	1.116829E+0	1.128257E+0	1.018304E+0	1.012417E+0	1.098138E+0	1.089481E+0	1.042208E+0	9.114482E-1	1.130291E+0	1.138736E+0	1.120849E+0	9.493525E-1	1.199714E+0	1.104359E+0	1.035047E+0	1.077133E+0	1.125294E+0	1.063811E+0	9.722786E-1	1.027605E+0	1.127031E+0	1.114648E+0	9.825362E-1	8.908161E-1	1.179010E+0	1.125269E+0	1.034725E+0	9.471590E-1	1.112540E+0	1.170484E+0	9.677355E-1	1.125306E+0	1.107977E+0	1.122253E+0	9.552791E-1	1.043075E+0	1.118280E+0	1.046433E+0	9.925948E-1	9.009484E-1	1.085381E+0	1.131375E+0	1.056561E+0	9.894324E-1	1.116608E+0	1.123931E+0	1.080464E+0	1.056334E+0	1.174612E+0	1.100890E+0	9.686970E-1	1.050382E+0	1.138304E+0	1.084170E+0	1.052430E+0	9.561398E-1	1.159325E+0	1.151524E+0	1.088468E+0	9.820586E-1	1.154473E+0	1.042185E+0	1.015657E+0	1.066642E+0	1.170901E+0	9.907003E-1	9.632130E-1	9.912629E-1	1.093663E+0	1.036458E+0	8.641605E-1	9.220196E-1	1.125683E+0	1.080515E+0	1.041270E+0	7.893380E-1	1.138512E+0	1.010208E+0	1.065792E+0	9.880299E-1
5.427600E+2	1.022653E+0	1.026746E+0	1.058177E+0	1.026870E+0	1.038359E+0	1.045626E+0	1.036164E+0	1.003987E+0	1.038325E+0	1.056853E+0	1.035343E+0	9.769370E-1	9.123749E-1	9.996395E-1	1.079909E+0	1.008915E+0	9.647750E-1	1.077114E+0	1.081512E+0	1.039501E+0	1.030697E+0	1.061145E+0	1.067586E+0	8.778364E-1	9.540002E-1	1.026301E+0	1.052127E+0	8.986185E-1	8.880626E-1	9.974745E-1	1.020661E+0	1.018281E+0	7.285898E-1	9.696024E-1	9.837299E-1	9.809781E-1	9.295232E-1	1.030954E+0	1.034614E+0	9.401805E-1	9.481241E-1	1.073521E+0	1.057023E+0	9.467768E-1	8.402877E-1	1.057446E+0	9.956614E-1	9.881040E-1	9.240189E-1	1.009177E+0	1.093551E+0	9.781214E-1	1.005214E+0	1.064938E+0	1.040557E+0	8.810147E-1	9.370180E-1	1.041993E+0	1.060531E+0	8.575034E-1	8.305036E-1	1.059785E+0	9.838241E-1	9.316495E-1	8.539956E-1	8.772118E-1	1.084446E+0	1.004969E+0	9.824215E-1	1.019557E+0	1.039244E+0	9.258296E-1	9.615060E-1	1.043346E+0	1.030894E+0	9.391360E-1	8.543316E-1	1.005072E+0	1.029898E+0	9.322430E-1	8.710654E-1	1.058325E+0	1.027102E+0	1.048577E+0	1.001968E+0	1.032439E+0	1.041498E+0	9.420667E-1	9.355943E-1	1.115739E+0	1.041012E+0	9.708708E-1	8.359210E-1	1.046832E+0	1.023274E+0	1.021624E+0	9.001134E-1	1.018276E+0	9.771337E-1	9.358054E-1	9.959552E-1	1.118026E+0	1.031607E+0	8.684700E-1	9.288682E-1	9.805142E-1	1.034658E+0	8.871068E-1	8.396489E-1	1.046130E+0	1.058982E+0	9.753609E-1	8.739356E-1	1.049108E+0	1.089315E+0	9.986268E-1	9.964377E-1	1.061085E+0	9.747909E-1	8.511779E-1	1.058710E+0	1.064020E+0	1.043843E+0	9.395560E-1	8.465249E-1	1.059341E+0	1.029623E+0	1.001230E+0	8.496938E-1	1.013277E+0	1.039098E+0	9.928126E-1	9.753394E-1	1.054826E+0	1.006295E+0	9.081481E-1	9.794036E-1	1.021380E+0	9.990095E-1	9.648832E-1	8.859634E-1	1.133769E+0	1.035102E+0	1.027943E+0	9.820587E-1	1.037834E+0	1.014005E+0	9.003945E-1	1.000984E+0	1.025277E+0	1.092924E+0	9.053841E-1	9.308428E-1	1.022301E+0	1.056778E+0	7.520289E-1	8.608941E-1	1.055908E+0	1.059551E+0	9.805510E-1	7.247407E-1	9.907041E-1	9.204924E-1	9.580528E-1	9.661429E-1
5.430330E+2	1.095557E+0	1.068114E+0	1.133476E+0	1.044299E+0	1.085262E+0	1.075400E+0	1.116079E+0	1.037965E+0	1.041452E+0	1.091839E+0	1.128265E+0	1.024381E+0	9.086761E-1	1.066701E+0	1.126274E+0	1.066602E+0	9.928400E-1	1.111636E+0	1.106083E+0	1.064250E+0	1.014325E+0	1.123899E+0	1.137597E+0	9.714954E-1	9.690457E-1	1.117536E+0	1.094653E+0	9.804737E-1	9.457271E-1	1.036694E+0	1.080996E+0	1.033023E+0	8.015599E-1	1.028112E+0	1.105075E+0	1.007444E+0	1.011338E+0	1.086608E+0	1.092631E+0	9.749328E-1	1.018931E+0	1.029243E+0	1.129400E+0	9.751202E-1	8.970988E-1	1.114361E+0	1.056401E+0	1.041492E+0	9.169442E-1	1.095578E+0	1.087900E+0	1.066887E+0	1.115881E+0	1.052398E+0	1.074102E+0	8.973315E-1	1.028846E+0	1.114905E+0	1.129355E+0	9.294746E-1	8.873474E-1	1.085157E+0	1.044687E+0	1.039713E+0	9.469074E-1	8.642303E-1	1.074528E+0	1.008337E+0	1.044921E+0	1.104250E+0	1.096015E+0	9.111577E-1	9.853474E-1	1.073839E+0	1.045053E+0	9.629920E-1	8.682912E-1	1.097706E+0	1.148207E+0	9.942398E-1	8.989949E-1	1.093527E+0	1.069132E+0	1.072513E+0	1.026520E+0	9.924650E-1	1.105700E+0	9.995466E-1	1.023014E+0	1.091800E+0	1.078297E+0	9.898942E-1	8.904991E-1	1.085780E+0	1.063172E+0	1.067319E+0	9.013001E-1	1.060811E+0	1.130492E+0	1.062112E+0	1.047616E+0	1.177380E+0	1.121060E+0	9.758177E-1	9.697663E-1	1.121680E+0	1.119394E+0	9.332624E-1	9.425007E-1	1.093363E+0	1.118642E+0	1.043370E+0	9.053169E-1	1.102992E+0	1.073338E+0	1.032265E+0	1.054057E+0	1.100573E+0	1.073294E+0	8.822888E-1	1.016614E+0	1.026964E+0	1.039314E+0	9.753745E-1	8.993159E-1	1.087386E+0	1.116934E+0	1.004303E+0	9.474536E-1	1.088427E+0	1.108390E+0	1.017355E+0	1.073112E+0	1.087496E+0	1.075706E+0	9.598792E-1	1.017428E+0	1.103560E+0	1.031357E+0	1.004083E+0	9.903727E-1	1.120351E+0	1.099711E+0	1.059103E+0	9.426052E-1	1.136017E+0	1.139785E+0	9.636889E-1	1.026591E+0	1.065307E+0	1.090506E+0	9.134001E-1	9.343970E-1	1.057982E+0	1.123120E+0	8.456709E-1	8.489089E-1	1.117310E+0	1.096395E+0	1.058980E+0	7.685746E-1	1.109694E+0	1.076920E+0	9.792466E-1	1.061898E+0
5.432640E+2	1.076116E+0	1.157980E+0	1.158576E+0	1.165578E+0	1.144225E+0	1.139709E+0	1.168737E+0	1.125338E+0	1.050841E+0	1.158511E+0	1.175291E+0	1.093571E+0	9.668264E-1	1.127402E+0	1.167421E+0	1.163984E+0	1.060998E+0	1.184515E+0	1.167828E+0	1.148647E+0	1.123282E+0	1.186092E+0	1.242911E+0	1.047701E+0	1.008542E+0	1.139880E+0	1.196836E+0	1.032961E+0	9.869959E-1	1.099686E+0	1.196637E+0	1.120893E+0	8.912412E-1	1.167684E+0	1.204726E+0	1.111977E+0	1.024975E+0	1.206442E+0	1.206267E+0	1.037600E+0	1.087116E+0	1.185868E+0	1.221036E+0	1.078419E+0	9.801699E-1	1.176726E+0	1.158047E+0	1.117513E+0	9.770799E-1	1.177435E+0	1.153196E+0	1.039382E+0	1.112251E+0	1.213028E+0	1.159700E+0	9.196339E-1	1.027035E+0	1.187137E+0	1.155397E+0	9.905216E-1	9.627928E-1	1.193629E+0	1.159908E+0	1.095811E+0	9.892553E-1	1.005178E+0	1.153861E+0	1.069644E+0	1.108048E+0	1.146274E+0	1.136323E+0	9.883186E-1	1.096607E+0	1.190138E+0	1.185363E+0	9.941893E-1	9.369726E-1	1.147064E+0	1.111756E+0	1.093209E+0	9.935731E-1	1.146675E+0	1.123837E+0	1.160516E+0	1.090733E+0	1.146017E+0	1.137511E+0	1.106641E+0	1.027650E+0	1.176998E+0	1.117445E+0	1.031337E+0	9.461812E-1	1.137092E+0	1.197977E+0	1.111709E+0	1.009269E+0	1.148541E+0	1.205451E+0	1.078074E+0	1.128792E+0	1.193128E+0	1.143124E+0	1.041286E+0	1.018259E+0	1.189922E+0	1.120071E+0	9.744281E-1	9.704105E-1	1.170195E+0	1.177698E+0	1.088903E+0	1.021613E+0	1.165741E+0	1.115520E+0	1.092674E+0	1.163719E+0	1.133893E+0	1.143238E+0	9.792097E-1	1.104416E+0	1.140116E+0	1.144799E+0	1.026347E+0	8.922417E-1	1.173518E+0	1.143192E+0	1.063939E+0	9.624055E-1	1.106492E+0	1.162137E+0	1.099396E+0	1.151215E+0	1.186711E+0	1.130987E+0	1.041591E+0	1.059256E+0	1.172377E+0	1.170651E+0	1.009964E+0	1.005776E+0	1.180410E+0	1.162399E+0	1.075884E+0	1.022873E+0	1.141923E+0	1.146659E+0	1.034312E+0	1.075834E+0	1.182631E+0	1.161276E+0	9.649295E-1	1.098479E+0	1.123398E+0	1.162566E+0	9.071043E-1	9.489869E-1	1.184994E+0	1.159917E+0	1.081750E+0	8.579731E-1	1.181275E+0	1.188490E+0	1.120544E+0	1.149447E+0
5.435110E+2	1.348295E+0	1.302767E+0	1.401682E+0	1.345678E+0	1.298333E+0	1.347525E+0	1.393617E+0	1.257783E+0	1.293616E+0	1.298456E+0	1.361707E+0	1.325518E+0	1.173000E+0	1.297365E+0	1.333181E+0	1.328977E+0	1.231107E+0	1.320043E+0	1.361883E+0	1.358051E+0	1.333857E+0	1.325609E+0	1.339987E+0	1.239673E+0	1.248028E+0	1.400556E+0	1.361630E+0	1.226037E+0	1.133982E+0	1.295781E+0	1.341816E+0	1.316681E+0	1.025484E+0	1.323712E+0	1.416911E+0	1.292596E+0	1.298876E+0	1.320029E+0	1.362370E+0	1.205093E+0	1.214306E+0	1.334560E+0	1.339895E+0	1.267376E+0	1.106118E+0	1.305093E+0	1.351427E+0	1.297409E+0	1.188736E+0	1.343743E+0	1.377343E+0	1.236292E+0	1.342650E+0	1.362309E+0	1.348824E+0	1.152439E+0	1.227005E+0	1.383385E+0	1.318465E+0	1.214146E+0	1.029970E+0	1.333184E+0	1.327720E+0	1.225130E+0	1.145373E+0	1.124488E+0	1.386900E+0	1.284555E+0	1.290552E+0	1.280103E+0	1.365112E+0	1.176324E+0	1.252900E+0	1.322748E+0	1.391963E+0	1.147726E+0	1.116772E+0	1.361409E+0	1.363087E+0	1.220049E+0	1.190981E+0	1.328208E+0	1.329313E+0	1.352712E+0	1.315481E+0	1.303375E+0	1.350353E+0	1.209500E+0	1.213085E+0	1.418514E+0	1.362275E+0	1.203228E+0	1.117630E+0	1.316374E+0	1.366637E+0	1.320604E+0	1.123765E+0	1.423022E+0	1.378756E+0	1.297380E+0	1.317262E+0	1.350594E+0	1.396576E+0	1.194052E+0	1.272406E+0	1.404013E+0	1.326150E+0	1.183375E+0	1.100139E+0	1.409505E+0	1.333176E+0	1.253164E+0	1.131142E+0	1.340350E+0	1.376275E+0	1.254683E+0	1.309317E+0	1.391800E+0	1.309932E+0	1.107840E+0	1.295662E+0	1.352522E+0	1.346708E+0	1.147580E+0	1.070207E+0	1.405206E+0	1.355887E+0	1.252063E+0	1.141824E+0	1.360122E+0	1.319502E+0	1.269088E+0	1.324202E+0	1.348847E+0	1.364396E+0	1.245575E+0	1.262053E+0	1.366136E+0	1.400387E+0	1.288284E+0	1.187207E+0	1.343965E+0	1.327440E+0	1.279043E+0	1.186129E+0	1.362653E+0	1.334986E+0	1.239517E+0	1.304321E+0	1.354481E+0	1.402621E+0	1.187084E+0	1.203917E+0	1.344093E+0	1.387294E+0	1.009693E+0	1.092812E+0	1.365712E+0	1.307924E+0	1.270865E+0	1.003893E+0	1.374635E+0	1.355270E+0	1.330726E+0	1.302653E+0
5.437640E+2	1.600337E+0	1.497478E+0	1.482001E+0	1.525054E+0	1.500013E+0	1.564868E+0	1.585661E+0	1.445701E+0	1.413126E+0	1.571087E+0	1.486358E+0	1.485644E+0	1.306223E+0	1.513004E+0	1.520959E+0	1.471639E+0	1.366279E+0	1.527816E+0	1.608855E+0	1.476715E+0	1.458056E+0	1.585033E+0	1.598269E+0	1.409538E+0	1.380307E+0	1.438418E+0	1.519334E+0	1.377252E+0	1.275885E+0	1.452069E+0	1.575615E+0	1.434034E+0	1.124636E+0	1.502289E+0	1.632478E+0	1.512914E+0	1.393142E+0	1.493246E+0	1.453878E+0	1.317896E+0	1.477865E+0	1.497132E+0	1.528476E+0	1.333515E+0	1.280834E+0	1.517013E+0	1.500176E+0	1.451772E+0	1.321977E+0	1.529541E+0	1.583281E+0	1.356938E+0	1.505318E+0	1.577277E+0	1.480690E+0	1.327040E+0	1.388309E+0	1.497863E+0	1.542301E+0	1.332386E+0	1.226341E+0	1.516503E+0	1.500257E+0	1.425904E+0	1.255350E+0	1.261107E+0	1.484207E+0	1.454999E+0	1.409302E+0	1.510911E+0	1.460487E+0	1.271415E+0	1.434360E+0	1.543289E+0	1.529052E+0	1.293312E+0	1.247995E+0	1.455398E+0	1.553025E+0	1.461216E+0	1.361730E+0	1.553911E+0	1.462076E+0	1.432970E+0	1.474127E+0	1.567333E+0	1.517505E+0	1.377099E+0	1.423023E+0	1.539626E+0	1.503950E+0	1.366285E+0	1.199226E+0	1.529663E+0	1.552830E+0	1.500120E+0	1.359279E+0	1.475526E+0	1.492228E+0	1.439649E+0	1.426824E+0	1.558330E+0	1.552821E+0	1.382793E+0	1.387502E+0	1.632819E+0	1.595277E+0	1.403548E+0	1.292403E+0	1.544274E+0	1.523002E+0	1.393219E+0	1.287434E+0	1.494497E+0	1.503458E+0	1.421498E+0	1.415882E+0	1.533713E+0	1.527342E+0	1.238861E+0	1.430975E+0	1.508022E+0	1.511732E+0	1.331497E+0	1.215520E+0	1.538075E+0	1.514753E+0	1.433426E+0	1.271214E+0	1.526316E+0	1.467800E+0	1.463325E+0	1.430074E+0	1.515822E+0	1.532081E+0	1.303773E+0	1.435697E+0	1.485064E+0	1.472343E+0	1.370604E+0	1.298463E+0	1.508164E+0	1.523184E+0	1.454032E+0	1.397001E+0	1.609955E+0	1.502696E+0	1.372103E+0	1.430379E+0	1.571884E+0	1.531460E+0	1.246632E+0	1.391102E+0	1.554877E+0	1.603652E+0	1.186241E+0	1.253414E+0	1.512240E+0	1.524535E+0	1.436581E+0	1.103097E+0	1.523373E+0	1.511697E+0	1.553270E+0	1.258878E+0
5.440280E+2	1.706569E+0	1.590202E+0	1.689252E+0	1.626726E+0	1.622629E+0	1.667287E+0	1.646994E+0	1.526832E+0	1.582068E+0	1.637099E+0	1.647839E+0	1.575920E+0	1.396093E+0	1.634984E+0	1.698309E+0	1.646557E+0	1.465368E+0	1.653114E+0	1.683831E+0	1.572533E+0	1.561933E+0	1.651711E+0	1.732409E+0	1.427574E+0	1.464944E+0	1.655645E+0	1.649279E+0	1.453484E+0	1.370296E+0	1.585772E+0	1.617094E+0	1.528390E+0	1.211531E+0	1.571165E+0	1.666374E+0	1.553270E+0	1.492742E+0	1.650563E+0	1.650651E+0	1.402214E+0	1.545396E+0	1.624019E+0	1.670574E+0	1.495391E+0	1.362298E+0	1.553340E+0	1.614840E+0	1.570156E+0	1.370910E+0	1.601653E+0	1.602743E+0	1.557599E+0	1.566395E+0	1.685954E+0	1.610821E+0	1.408087E+0	1.433017E+0	1.619157E+0	1.641507E+0	1.383791E+0	1.324006E+0	1.647175E+0	1.631436E+0	1.549909E+0	1.427900E+0	1.274091E+0	1.668902E+0	1.563470E+0	1.514929E+0	1.569746E+0	1.599578E+0	1.360528E+0	1.499924E+0	1.571655E+0	1.599855E+0	1.370997E+0	1.331194E+0	1.657567E+0	1.644474E+0	1.535728E+0	1.377602E+0	1.592565E+0	1.649539E+0	1.613900E+0	1.525119E+0	1.579385E+0	1.659786E+0	1.499323E+0	1.514416E+0	1.610741E+0	1.566712E+0	1.558557E+0	1.330984E+0	1.580356E+0	1.627788E+0	1.543205E+0	1.363434E+0	1.643676E+0	1.636647E+0	1.520150E+0	1.553420E+0	1.629194E+0	1.623787E+0	1.440008E+0	1.465791E+0	1.672295E+0	1.648829E+0	1.415397E+0	1.313076E+0	1.683454E+0	1.598935E+0	1.514256E+0	1.408036E+0	1.600897E+0	1.604437E+0	1.477100E+0	1.480935E+0	1.622564E+0	1.575718E+0	1.374072E+0	1.571699E+0	1.655585E+0	1.635980E+0	1.388667E+0	1.338517E+0	1.648245E+0	1.659175E+0	1.528105E+0	1.381626E+0	1.587015E+0	1.566234E+0	1.594450E+0	1.543468E+0	1.546070E+0	1.625447E+0	1.457201E+0	1.468651E+0	1.617353E+0	1.564109E+0	1.478404E+0	1.426834E+0	1.639777E+0	1.670311E+0	1.579282E+0	1.382715E+0	1.640960E+0	1.638786E+0	1.517345E+0	1.520988E+0	1.661599E+0	1.586503E+0	1.286139E+0	1.468110E+0	1.660602E+0	1.661630E+0	1.232165E+0	1.310347E+0	1.565969E+0	1.596948E+0	1.489077E+0	1.183841E+0	1.623772E+0	1.550804E+0	1.484388E+0	1.535200E+0
5.442810E+2	1.673937E+0	1.664375E+0	1.656980E+0	1.752358E+0	1.708393E+0	1.660738E+0	1.752312E+0	1.594095E+0	1.634005E+0	1.775723E+0	1.725466E+0	1.638522E+0	1.463761E+0	1.669670E+0	1.719757E+0	1.634770E+0	1.473959E+0	1.695309E+0	1.654218E+0	1.611876E+0	1.595807E+0	1.669076E+0	1.670636E+0	1.468877E+0	1.544561E+0	1.676750E+0	1.651641E+0	1.464730E+0	1.420045E+0	1.632121E+0	1.709481E+0	1.635722E+0	1.224899E+0	1.644302E+0	1.677901E+0	1.581719E+0	1.571002E+0	1.638635E+0	1.684741E+0	1.499062E+0	1.558509E+0	1.657059E+0	1.705102E+0	1.493500E+0	1.368195E+0	1.648404E+0	1.679298E+0	1.627606E+0	1.495898E+0	1.614647E+0	1.733965E+0	1.556977E+0	1.629891E+0	1.755818E+0	1.722448E+0	1.448880E+0	1.514574E+0	1.730232E+0	1.709710E+0	1.473115E+0	1.353464E+0	1.696019E+0	1.646209E+0	1.551680E+0	1.434222E+0	1.421221E+0	1.689976E+0	1.612649E+0	1.567426E+0	1.598192E+0	1.653511E+0	1.411061E+0	1.635686E+0	1.715611E+0	1.726646E+0	1.452967E+0	1.344039E+0	1.719101E+0	1.669415E+0	1.498186E+0	1.412514E+0	1.682293E+0	1.655543E+0	1.703309E+0	1.588073E+0	1.637761E+0	1.695650E+0	1.530783E+0	1.537598E+0	1.741008E+0	1.678562E+0	1.533418E+0	1.399897E+0	1.693493E+0	1.714235E+0	1.673113E+0	1.463691E+0	1.763306E+0	1.662778E+0	1.614535E+0	1.539793E+0	1.707320E+0	1.719800E+0	1.471266E+0	1.504937E+0	1.675640E+0	1.688823E+0	1.467165E+0	1.371998E+0	1.631813E+0	1.677274E+0	1.559211E+0	1.446187E+0	1.665011E+0	1.713086E+0	1.525843E+0	1.612286E+0	1.700308E+0	1.667812E+0	1.432107E+0	1.601771E+0	1.673448E+0	1.632747E+0	1.455486E+0	1.387499E+0	1.721692E+0	1.695938E+0	1.513965E+0	1.429931E+0	1.620978E+0	1.575301E+0	1.602165E+0	1.548673E+0	1.631978E+0	1.712055E+0	1.437217E+0	1.566249E+0	1.681490E+0	1.609656E+0	1.479058E+0	1.450795E+0	1.631471E+0	1.620413E+0	1.629020E+0	1.492232E+0	1.698541E+0	1.688960E+0	1.599962E+0	1.633916E+0	1.685068E+0	1.673606E+0	1.428132E+0	1.538598E+0	1.642100E+0	1.617999E+0	1.295984E+0	1.349299E+0	1.685286E+0	1.649675E+0	1.536517E+0	1.230562E+0	1.803188E+0	1.717584E+0	1.597426E+0	1.559823E+0
5.445400E+2	1.688518E+0	1.705740E+0	1.698574E+0	1.718955E+0	1.737205E+0	1.795310E+0	1.763460E+0	1.719607E+0	1.623991E+0	1.748658E+0	1.743592E+0	1.741975E+0	1.410894E+0	1.755233E+0	1.709325E+0	1.689354E+0	1.412101E+0	1.663986E+0	1.678161E+0	1.656296E+0	1.602016E+0	1.764330E+0	1.707699E+0	1.632928E+0	1.526383E+0	1.679852E+0	1.672315E+0	1.682803E+0	1.439832E+0	1.657082E+0	1.739021E+0	1.671696E+0	1.325722E+0	1.598589E+0	1.733490E+0	1.557243E+0	1.578116E+0	1.691454E+0	1.721226E+0	1.462035E+0	1.606369E+0	1.658384E+0	1.693154E+0	1.508615E+0	1.374626E+0	1.636901E+0	1.733223E+0	1.642115E+0	1.467598E+0	1.680908E+0	1.752804E+0	1.553849E+0	1.656498E+0	1.716406E+0	1.661139E+0	1.442352E+0	1.518802E+0	1.715235E+0	1.709090E+0	1.521953E+0	1.391184E+0	1.671915E+0	1.663932E+0	1.551680E+0	1.429165E+0	1.398963E+0	1.684396E+0	1.616017E+0	1.645554E+0	1.641507E+0	1.710849E+0	1.448012E+0	1.617144E+0	1.684407E+0	1.651986E+0	1.466425E+0	1.457390E+0	1.594010E+0	1.753190E+0	1.531176E+0	1.475988E+0	1.642262E+0	1.680229E+0	1.739215E+0	1.605698E+0	1.649821E+0	1.657473E+0	1.570111E+0	1.615083E+0	1.705096E+0	1.684156E+0	1.512358E+0	1.412577E+0	1.672476E+0	1.688846E+0	1.684865E+0	1.399621E+0	1.688201E+0	1.663463E+0	1.578446E+0	1.631758E+0	1.720039E+0	1.646446E+0	1.469497E+0	1.472217E+0	1.718458E+0	1.713903E+0	1.427246E+0	1.354423E+0	1.663929E+0	1.720057E+0	1.602439E+0	1.441881E+0	1.672514E+0	1.658762E+0	1.575267E+0	1.630250E+0	1.695990E+0	1.608942E+0	1.401592E+0	1.547643E+0	1.674112E+0	1.705225E+0	1.483038E+0	1.343958E+0	1.698323E+0	1.679526E+0	1.525033E+0	1.359774E+0	1.639763E+0	1.650419E+0	1.614783E+0	1.627932E+0	1.693686E+0	1.622989E+0	1.488361E+0	1.615049E+0	1.651428E+0	1.628804E+0	1.468603E+0	1.483888E+0	1.669166E+0	1.636406E+0	1.564301E+0	1.533726E+0	1.732500E+0	1.664904E+0	1.510682E+0	1.564318E+0	1.697488E+0	1.684494E+0	1.377173E+0	1.564071E+0	1.706197E+0	1.709444E+0	1.319843E+0	1.379863E+0	1.714591E+0	1.756391E+0	1.527026E+0	1.183265E+0	1.685127E+0	1.669275E+0	1.489687E+0	1.461331E+0
5.447610E+2	1.679494E+0	1.670082E+0	1.674910E+0	1.713145E+0	1.677572E+0	1.692297E+0	1.712661E+0	1.731395E+0	1.535767E+0	1.730838E+0	1.686365E+0	1.691238E+0	1.439443E+0	1.660420E+0	1.700049E+0	1.701757E+0	1.432719E+0	1.685080E+0	1.624606E+0	1.633450E+0	1.576046E+0	1.705499E+0	1.697699E+0	1.668413E+0	1.523248E+0	1.596062E+0	1.697119E+0	1.717168E+0	1.350508E+0	1.608354E+0	1.710110E+0	1.682311E+0	1.523464E+0	1.587008E+0	1.686036E+0	1.586350E+0	1.603610E+0	1.640340E+0	1.597419E+0	1.610156E+0	1.531630E+0	1.730417E+0	1.681202E+0	1.659153E+0	1.394457E+0	1.639321E+0	1.654507E+0	1.657783E+0	1.444017E+0	1.696498E+0	1.629115E+0	1.506340E+0	1.632913E+0	1.663860E+0	1.683119E+0	1.491851E+0	1.514575E+0	1.669586E+0	1.653287E+0	1.444842E+0	1.336409E+0	1.659229E+0	1.645614E+0	1.571166E+0	1.444967E+0	1.371147E+0	1.673861E+0	1.558075E+0	1.553677E+0	1.594956E+0	1.668839E+0	1.369766E+0	1.493961E+0	1.628386E+0	1.692533E+0	1.437061E+0	1.370282E+0	1.690705E+0	1.683487E+0	1.552789E+0	1.434729E+0	1.686437E+0	1.654879E+0	1.706829E+0	1.567301E+0	1.593346E+0	1.654583E+0	1.527152E+0	1.536935E+0	1.679747E+0	1.655570E+0	1.546328E+0	1.370678E+0	1.598907E+0	1.674940E+0	1.620238E+0	1.439371E+0	1.668264E+0	1.697162E+0	1.541666E+0	1.557961E+0	1.713984E+0	1.705488E+0	1.474804E+0	1.507269E+0	1.719125E+0	1.689501E+0	1.442841E+0	1.417480E+0	1.731945E+0	1.635693E+0	1.563822E+0	1.375424E+0	1.637730E+0	1.649174E+0	1.571835E+0	1.614145E+0	1.665141E+0	1.631092E+0	1.325015E+0	1.571699E+0	1.650290E+0	1.698108E+0	1.429998E+0	1.379335E+0	1.668278E+0	1.683462E+0	1.537942E+0	1.383926E+0	1.646266E+0	1.636172E+0	1.595852E+0	1.586278E+0	1.608386E+0	1.595965E+0	1.461905E+0	1.566883E+0	1.679489E+0	1.642004E+0	1.475138E+0	1.385755E+0	1.678107E+0	1.686944E+0	1.578086E+0	1.458900E+0	1.663843E+0	1.599606E+0	1.428070E+0	1.595832E+0	1.713365E+0	1.643361E+0	1.336523E+0	1.544522E+0	1.676460E+0	1.727374E+0	1.245286E+0	1.319335E+0	1.632256E+0	1.629983E+0	1.506157E+0	1.187879E+0	1.612617E+0	1.701481E+0	1.516180E+0	1.641896E+0
5.450150E+2	1.651023E+0	1.582352E+0	1.555864E+0	1.595496E+0	1.550932E+0	1.601784E+0	1.685401E+0	1.564278E+0	1.524503E+0	1.584948E+0	1.594578E+0	1.594373E+0	1.390806E+0	1.534391E+0	1.613114E+0	1.618023E+0	1.405802E+0	1.550828E+0	1.595626E+0	1.521766E+0	1.507173E+0	1.592315E+0	1.557086E+0	1.599186E+0	1.408519E+0	1.552616E+0	1.589032E+0	1.563454E+0	1.326198E+0	1.573294E+0	1.595725E+0	1.598570E+0	1.376968E+0	1.532764E+0	1.604690E+0	1.550628E+0	1.501633E+0	1.577300E+0	1.652445E+0	1.574267E+0	1.437873E+0	1.566524E+0	1.651319E+0	1.578533E+0	1.338719E+0	1.564847E+0	1.568976E+0	1.573639E+0	1.358528E+0	1.612047E+0	1.548121E+0	1.583228E+0	1.514992E+0	1.589218E+0	1.618918E+0	1.606075E+0	1.380456E+0	1.602122E+0	1.596246E+0	1.649828E+0	1.285768E+0	1.593259E+0	1.568800E+0	1.582978E+0	1.329301E+0	1.340854E+0	1.476149E+0	1.521025E+0	1.454304E+0	1.507031E+0	1.530317E+0	1.380091E+0	1.463499E+0	1.607821E+0	1.610150E+0	1.394240E+0	1.349064E+0	1.596037E+0	1.603545E+0	1.471455E+0	1.341419E+0	1.623625E+0	1.595502E+0	1.622347E+0	1.530786E+0	1.618095E+0	1.633183E+0	1.473907E+0	1.458121E+0	1.621305E+0	1.625125E+0	1.430827E+0	1.275856E+0	1.583451E+0	1.666478E+0	1.464873E+0	1.368771E+0	1.581866E+0	1.559622E+0	1.490310E+0	1.568744E+0	1.636462E+0	1.549839E+0	1.374536E+0	1.426646E+0	1.630812E+0	1.546467E+0	1.359885E+0	1.301707E+0	1.631181E+0	1.567595E+0	1.499847E+0	1.299739E+0	1.562019E+0	1.571202E+0	1.497007E+0	1.479081E+0	1.555311E+0	1.539000E+0	1.275956E+0	1.536219E+0	1.588088E+0	1.582915E+0	1.369382E+0	1.262868E+0	1.577472E+0	1.545608E+0	1.464164E+0	1.323546E+0	1.558833E+0	1.540978E+0	1.454207E+0	1.515699E+0	1.589024E+0	1.522256E+0	1.398416E+0	1.459780E+0	1.566576E+0	1.551564E+0	1.401964E+0	1.370920E+0	1.602082E+0	1.558366E+0	1.547517E+0	1.405160E+0	1.596667E+0	1.570053E+0	1.463379E+0	1.532148E+0	1.624332E+0	1.556258E+0	1.318201E+0	1.427828E+0	1.576684E+0	1.557035E+0	1.189820E+0	1.241431E+0	1.616207E+0	1.551212E+0	1.475163E+0	1.089830E+0	1.620053E+0	1.630168E+0	1.438466E+0	1.455860E+0
5.452640E+2	1.507296E+0	1.465380E+0	1.549412E+0	1.530139E+0	1.524131E+0	1.513062E+0	1.567079E+0	1.613513E+0	1.446290E+0	1.476027E+0	1.476156E+0	1.511343E+0	1.303050E+0	1.519363E+0	1.521541E+0	1.535528E+0	1.300986E+0	1.498410E+0	1.514349E+0	1.469099E+0	1.404425E+0	1.560940E+0	1.492954E+0	1.495635E+0	1.395355E+0	1.507310E+0	1.490392E+0	1.477851E+0	1.246486E+0	1.455635E+0	1.508996E+0	1.470009E+0	1.363601E+0	1.405993E+0	1.561978E+0	1.444105E+0	1.372985E+0	1.400106E+0	1.475408E+0	1.516154E+0	1.409684E+0	1.470039E+0	1.585580E+0	1.488462E+0	1.244391E+0	1.412871E+0	1.465471E+0	1.585243E+0	1.326693E+0	1.465875E+0	1.513586E+0	1.481960E+0	1.475082E+0	1.555183E+0	1.509033E+0	1.484781E+0	1.378038E+0	1.458339E+0	1.508818E+0	1.539945E+0	1.222205E+0	1.495572E+0	1.506758E+0	1.510343E+0	1.273049E+0	1.296345E+0	1.499081E+0	1.529782E+0	1.380554E+0	1.507678E+0	1.455379E+0	1.531148E+0	1.436347E+0	1.514213E+0	1.476921E+0	1.523313E+0	1.230686E+0	1.479062E+0	1.492268E+0	1.519799E+0	1.301431E+0	1.486959E+0	1.506104E+0	1.528712E+0	1.478533E+0	1.448044E+0	1.508832E+0	1.354107E+0	1.330308E+0	1.554411E+0	1.469153E+0	1.436263E+0	1.256559E+0	1.513590E+0	1.496612E+0	1.445942E+0	1.299954E+0	1.524710E+0	1.531424E+0	1.443118E+0	1.410361E+0	1.545008E+0	1.472910E+0	1.347405E+0	1.385749E+0	1.571270E+0	1.518671E+0	1.312484E+0	1.248472E+0	1.482558E+0	1.472985E+0	1.404746E+0	1.299740E+0	1.489038E+0	1.466392E+0	1.385800E+0	1.505103E+0	1.525079E+0	1.428256E+0	1.225101E+0	1.418346E+0	1.528536E+0	1.486493E+0	1.373516E+0	1.157285E+0	1.570124E+0	1.518036E+0	1.392851E+0	1.216006E+0	1.512588E+0	1.456146E+0	1.445094E+0	1.376847E+0	1.522475E+0	1.462060E+0	1.306712E+0	1.386898E+0	1.478382E+0	1.466404E+0	1.315070E+0	1.272219E+0	1.504329E+0	1.467532E+0	1.409085E+0	1.345302E+0	1.517677E+0	1.565929E+0	1.362773E+0	1.471086E+0	1.513910E+0	1.502426E+0	1.267815E+0	1.388142E+0	1.523159E+0	1.575564E+0	1.164171E+0	1.261207E+0	1.483635E+0	1.533428E+0	1.361315E+0	1.052917E+0	1.488978E+0	1.439235E+0	1.408440E+0	1.335482E+0
5.455070E+2	1.519795E+0	1.407612E+0	1.431803E+0	1.448075E+0	1.435690E+0	1.441011E+0	1.434503E+0	1.410338E+0	1.366823E+0	1.425862E+0	1.413832E+0	1.450061E+0	1.289831E+0	1.404318E+0	1.481551E+0	1.405269E+0	1.258601E+0	1.432562E+0	1.451977E+0	1.405643E+0	1.402733E+0	1.461202E+0	1.443536E+0	1.428157E+0	1.350841E+0	1.427865E+0	1.470309E+0	1.477226E+0	1.229526E+0	1.438995E+0	1.434835E+0	1.426368E+0	1.243838E+0	1.341386E+0	1.441312E+0	1.411686E+0	1.410336E+0	1.475642E+0	1.408425E+0	1.489378E+0	1.346741E+0	1.403291E+0	1.446801E+0	1.420435E+0	1.184366E+0	1.417108E+0	1.453071E+0	1.437845E+0	1.248283E+0	1.455483E+0	1.463989E+0	1.479459E+0	1.372883E+0	1.498454E+0	1.454667E+0	1.474444E+0	1.267481E+0	1.466517E+0	1.443715E+0	1.517453E+0	1.126608E+0	1.424524E+0	1.427577E+0	1.454246E+0	1.262300E+0	1.258636E+0	1.415410E+0	1.494074E+0	1.398675E+0	1.415873E+0	1.407689E+0	1.476266E+0	1.362173E+0	1.429827E+0	1.418352E+0	1.512915E+0	1.211700E+0	1.438495E+0	1.476920E+0	1.412300E+0	1.186538E+0	1.423457E+0	1.454734E+0	1.416777E+0	1.388509E+0	1.460101E+0	1.468344E+0	1.435789E+0	1.301166E+0	1.457243E+0	1.485307E+0	1.424035E+0	1.199224E+0	1.385617E+0	1.459734E+0	1.530803E+0	1.261396E+0	1.454260E+0	1.491538E+0	1.434789E+0	1.367788E+0	1.446285E+0	1.445477E+0	1.478345E+0	1.281753E+0	1.481621E+0	1.465120E+0	1.489620E+0	1.167327E+0	1.475629E+0	1.469967E+0	1.399560E+0	1.245592E+0	1.466531E+0	1.438271E+0	1.391290E+0	1.403493E+0	1.442399E+0	1.402607E+0	1.264589E+0	1.350387E+0	1.478910E+0	1.378417E+0	1.306698E+0	1.195381E+0	1.496009E+0	1.518691E+0	1.368873E+0	1.194731E+0	1.423709E+0	1.403043E+0	1.383388E+0	1.310892E+0	1.466817E+0	1.451618E+0	1.287312E+0	1.341271E+0	1.413574E+0	1.423493E+0	1.311805E+0	1.231710E+0	1.468549E+0	1.405479E+0	1.314998E+0	1.286802E+0	1.430568E+0	1.432586E+0	1.344786E+0	1.394269E+0	1.429020E+0	1.444358E+0	1.188803E+0	1.338385E+0	1.451800E+0	1.505636E+0	1.093195E+0	1.212666E+0	1.430602E+0	1.427980E+0	1.344869E+0	1.020619E+0	1.484329E+0	1.419681E+0	1.343090E+0	1.258879E+0
5.457670E+2	1.383705E+0	1.361251E+0	1.362240E+0	1.366015E+0	1.376725E+0	1.376703E+0	1.391137E+0	1.372199E+0	1.264209E+0	1.379652E+0	1.350372E+0	1.378235E+0	1.149740E+0	1.372524E+0	1.391719E+0	1.344485E+0	1.185289E+0	1.427447E+0	1.363139E+0	1.325688E+0	1.293774E+0	1.373236E+0	1.335282E+0	1.340314E+0	1.224829E+0	1.349662E+0	1.375805E+0	1.339762E+0	1.161686E+0	1.395616E+0	1.324221E+0	1.442293E+0	1.203733E+0	1.302381E+0	1.400638E+0	1.321048E+0	1.277533E+0	1.295039E+0	1.398252E+0	1.334419E+0	1.310682E+0	1.365621E+0	1.392352E+0	1.397129E+0	1.099150E+0	1.394099E+0	1.320436E+0	1.396064E+0	1.224110E+0	1.371679E+0	1.352858E+0	1.337559E+0	1.337810E+0	1.395149E+0	1.380636E+0	1.372729E+0	1.227610E+0	1.373845E+0	1.355672E+0	1.446767E+0	1.104385E+0	1.382025E+0	1.357263E+0	1.371576E+0	1.185193E+0	1.089252E+0	1.367685E+0	1.371463E+0	1.286175E+0	1.329237E+0	1.344103E+0	1.355093E+0	1.220449E+0	1.343312E+0	1.343691E+0	1.396687E+0	1.099463E+0	1.336392E+0	1.368842E+0	1.371348E+0	1.201137E+0	1.418625E+0	1.386021E+0	1.397767E+0	1.353885E+0	1.341447E+0	1.346883E+0	1.329299E+0	1.275999E+0	1.355848E+0	1.307590E+0	1.394819E+0	1.134723E+0	1.382527E+0	1.357572E+0	1.361732E+0	1.171225E+0	1.387136E+0	1.396635E+0	1.389680E+0	1.238922E+0	1.392991E+0	1.371528E+0	1.389874E+0	1.225081E+0	1.367886E+0	1.374282E+0	1.376103E+0	1.138901E+0	1.388093E+0	1.391027E+0	1.375351E+0	1.134833E+0	1.332163E+0	1.357741E+0	1.483279E+0	1.298785E+0	1.414017E+0	1.396197E+0	1.378860E+0	1.304681E+0	1.386933E+0	1.386832E+0	1.363870E+0	1.115923E+0	1.377830E+0	1.342757E+0	1.365798E+0	1.133199E+0	1.378185E+0	1.324683E+0	1.310460E+0	1.276758E+0	1.417817E+0	1.364396E+0	1.179735E+0	1.263954E+0	1.427605E+0	1.335030E+0	1.241245E+0	1.199759E+0	1.333743E+0	1.386291E+0	1.287433E+0	1.271157E+0	1.353792E+0	1.268314E+0	1.300146E+0	1.288561E+0	1.370357E+0	1.330641E+0	1.168189E+0	1.262562E+0	1.353348E+0	1.362193E+0	1.195783E+0	1.086220E+0	1.413857E+0	1.329521E+0	1.297432E+0	9.715947E-1	1.311421E+0	1.389775E+0	1.274207E+0	1.308125E+0
5.460060E+2	1.315661E+0	1.271384E+0	1.360091E+0	1.320261E+0	1.319102E+0	1.373725E+0	1.322373E+0	1.313951E+0	1.237927E+0	1.309021E+0	1.295412E+0	1.255012E+0	1.134938E+0	1.300258E+0	1.305942E+0	1.311610E+0	1.197315E+0	1.286161E+0	1.315887E+0	1.323152E+0	1.275144E+0	1.277424E+0	1.297038E+0	1.300176E+0	1.205396E+0	1.252219E+0	1.363992E+0	1.312892E+0	1.127199E+0	1.290436E+0	1.356903E+0	1.274811E+0	1.140791E+0	1.235944E+0	1.344372E+0	1.277381E+0	1.288206E+0	1.285386E+0	1.389882E+0	1.252380E+0	1.230698E+0	1.299535E+0	1.298727E+0	1.279975E+0	1.080391E+0	1.271186E+0	1.319817E+0	1.299730E+0	1.138033E+0	1.346991E+0	1.326486E+0	1.279427E+0	1.301529E+0	1.361115E+0	1.300819E+0	1.302018E+0	1.158739E+0	1.297527E+0	1.292426E+0	1.368369E+0	1.022735E+0	1.264040E+0	1.279268E+0	1.270012E+0	1.173183E+0	1.065141E+0	1.309427E+0	1.348555E+0	1.235551E+0	1.362212E+0	1.261789E+0	1.301301E+0	1.258198E+0	1.296509E+0	1.314087E+0	1.318392E+0	1.091088E+0	1.328280E+0	1.301052E+0	1.279772E+0	1.107193E+0	1.321994E+0	1.301964E+0	1.297797E+0	1.311074E+0	1.290051E+0	1.284997E+0	1.289367E+0	1.180634E+0	1.340357E+0	1.270305E+0	1.239236E+0	1.084004E+0	1.287320E+0	1.225183E+0	1.303632E+0	1.122579E+0	1.343271E+0	1.326488E+0	1.291132E+0	1.214514E+0	1.374822E+0	1.304140E+0	1.358021E+0	1.166074E+0	1.348482E+0	1.303100E+0	1.268824E+0	1.080498E+0	1.274734E+0	1.317506E+0	1.286015E+0	1.141600E+0	1.276236E+0	1.323230E+0	1.299991E+0	1.185406E+0	1.325164E+0	1.267387E+0	1.299887E+0	1.209061E+0	1.269811E+0	1.291055E+0	1.326674E+0	1.057690E+0	1.369150E+0	1.331599E+0	1.331988E+0	1.103870E+0	1.279190E+0	1.320151E+0	1.326587E+0	1.259404E+0	1.301659E+0	1.294375E+0	1.321995E+0	1.194242E+0	1.281952E+0	1.270997E+0	1.303967E+0	1.152405E+0	1.320967E+0	1.294814E+0	1.294621E+0	1.182728E+0	1.362651E+0	1.310932E+0	1.276164E+0	1.251794E+0	1.331709E+0	1.271967E+0	1.164183E+0	1.180816E+0	1.265463E+0	1.334699E+0	1.249463E+0	1.125772E+0	1.303615E+0	1.302840E+0	1.282885E+0	9.242998E-1	1.290040E+0	1.227597E+0	1.265376E+0	1.242464E+0
5.467660E+2	1.262197E+0	1.270671E+0	1.227420E+0	1.177197E+0	1.260811E+0	1.243915E+0	1.275293E+0	1.259168E+0	1.179738E+0	1.221885E+0	1.227988E+0	1.245130E+0	1.078902E+0	1.228572E+0	1.267691E+0	1.219808E+0	1.042670E+0	1.245246E+0	1.277457E+0	1.220351E+0	1.181430E+0	1.288069E+0	1.273505E+0	1.276908E+0	1.153989E+0	1.300629E+0	1.255903E+0	1.302895E+0	1.069535E+0	1.196545E+0	1.282112E+0	1.293092E+0	1.088426E+0	1.198769E+0	1.261669E+0	1.237684E+0	1.188604E+0	1.241654E+0	1.286411E+0	1.230731E+0	1.181525E+0	1.195119E+0	1.268845E+0	1.231475E+0	1.039124E+0	1.225772E+0	1.290065E+0	1.242861E+0	1.112092E+0	1.293072E+0	1.294465E+0	1.285052E+0	1.273712E+0	1.293042E+0	1.244718E+0	1.242730E+0	1.077178E+0	1.247101E+0	1.198801E+0	1.253988E+0	1.045475E+0	1.267213E+0	1.290494E+0	1.265877E+0	1.058149E+0	1.034232E+0	1.171217E+0	1.298701E+0	1.106174E+0	1.204461E+0	1.240782E+0	1.282280E+0	1.154224E+0	1.219211E+0	1.290273E+0	1.280467E+0	1.012914E+0	1.255929E+0	1.290181E+0	1.261002E+0	1.097674E+0	1.307497E+0	1.248590E+0	1.264710E+0	1.173835E+0	1.243096E+0	1.243356E+0	1.253667E+0	1.207786E+0	1.295294E+0	1.281490E+0	1.279322E+0	9.941422E-1	1.333068E+0	1.243920E+0	1.289922E+0	1.104780E+0	1.270829E+0	1.266659E+0	1.240471E+0	1.234948E+0	1.248845E+0	1.255836E+0	1.181667E+0	1.166658E+0	1.256157E+0	1.283441E+0	1.313108E+0	1.053105E+0	1.219316E+0	1.255437E+0	1.250861E+0	1.075145E+0	1.243496E+0	1.263792E+0	1.308915E+0	1.182308E+0	1.238166E+0	1.205602E+0	1.274758E+0	1.094192E+0	1.291644E+0	1.238635E+0	1.308075E+0	9.983664E-1	1.273671E+0	1.225250E+0	1.308623E+0	1.053267E+0	1.243783E+0	1.256687E+0	1.250156E+0	1.171467E+0	1.270201E+0	1.265504E+0	1.244987E+0	1.113124E+0	1.256561E+0	1.252511E+0	1.258231E+0	1.083368E+0	1.318409E+0	1.264111E+0	1.286832E+0	1.107221E+0	1.217223E+0	1.292372E+0	1.287488E+0	1.176944E+0	1.277873E+0	1.274990E+0	1.292437E+0	1.139945E+0	1.201369E+0	1.310790E+0	1.254830E+0	1.010712E+0	1.272911E+0	1.248212E+0	1.273397E+0	8.833503E-1	1.241700E+0	1.174687E+0	1.198259E+0	1.135767E+0
5.475340E+2	1.403841E+0	1.324164E+0	1.369411E+0	1.419028E+0	1.388786E+0	1.373724E+0	1.420874E+0	1.353475E+0	1.269212E+0	1.410679E+0	1.378704E+0	1.369667E+0	1.160314E+0	1.317022E+0	1.437504E+0	1.357509E+0	1.193879E+0	1.376940E+0	1.345498E+0	1.367571E+0	1.301678E+0	1.414697E+0	1.376462E+0	1.385691E+0	1.243639E+0	1.316145E+0	1.408881E+0	1.386623E+0	1.123809E+0	1.312422E+0	1.377014E+0	1.340859E+0	1.197608E+0	1.336511E+0	1.406739E+0	1.342217E+0	1.318443E+0	1.339338E+0	1.435339E+0	1.427280E+0	1.273311E+0	1.403290E+0	1.379737E+0	1.374455E+0	1.157032E+0	1.278449E+0	1.402250E+0	1.360081E+0	1.228237E+0	1.343091E+0	1.403715E+0	1.354440E+0	1.324509E+0	1.327081E+0	1.362126E+0	1.365657E+0	1.229423E+0	1.408596E+0	1.372411E+0	1.381864E+0	1.094566E+0	1.335086E+0	1.367309E+0	1.364489E+0	1.243972E+0	1.105943E+0	1.330501E+0	1.415925E+0	1.291800E+0	1.346049E+0	1.375900E+0	1.368677E+0	1.252901E+0	1.375222E+0	1.417064E+0	1.429109E+0	1.125706E+0	1.341124E+0	1.444302E+0	1.353148E+0	1.128776E+0	1.391706E+0	1.381350E+0	1.302727E+0	1.319259E+0	1.345888E+0	1.352092E+0	1.348661E+0	1.271365E+0	1.398802E+0	1.359786E+0	1.257579E+0	1.147951E+0	1.356559E+0	1.369662E+0	1.420480E+0	1.139782E+0	1.368524E+0	1.334742E+0	1.403559E+0	1.324643E+0	1.444470E+0	1.342902E+0	1.399898E+0	1.205802E+0	1.464894E+0	1.406142E+0	1.363629E+0	1.147688E+0	1.395651E+0	1.352460E+0	1.321753E+0	1.214209E+0	1.418105E+0	1.339209E+0	1.403650E+0	1.322330E+0	1.423270E+0	1.394448E+0	1.372279E+0	1.240333E+0	1.353185E+0	1.381653E+0	1.388670E+0	1.102316E+0	1.375826E+0	1.361795E+0	1.331372E+0	1.137800E+0	1.334109E+0	1.369369E+0	1.379178E+0	1.273287E+0	1.335536E+0	1.377908E+0	1.433099E+0	1.271557E+0	1.320033E+0	1.317867E+0	1.356883E+0	1.187207E+0	1.329272E+0	1.349826E+0	1.360543E+0	1.205174E+0	1.386277E+0	1.380350E+0	1.340122E+0	1.276087E+0	1.422120E+0	1.395967E+0	1.303313E+0	1.299881E+0	1.331540E+0	1.400442E+0	1.430186E+0	1.116782E+0	1.422231E+0	1.398760E+0	1.361946E+0	1.002739E+0	1.399734E+0	1.336866E+0	1.355453E+0	1.239729E+0
5.482660E+2	1.531601E+0	1.419024E+0	1.486306E+0	1.423381E+0	1.431668E+0	1.411834E+0	1.508224E+0	1.519204E+0	1.371830E+0	1.407378E+0	1.426296E+0	1.494210E+0	1.251767E+0	1.425130E+0	1.486767E+0	1.437523E+0	1.221945E+0	1.442148E+0	1.445675E+0	1.481789E+0	1.378457E+0	1.496503E+0	1.478246E+0	1.493310E+0	1.322631E+0	1.393110E+0	1.473264E+0	1.483476E+0	1.185431E+0	1.468114E+0	1.451803E+0	1.472369E+0	1.217102E+0	1.407211E+0	1.533506E+0	1.393160E+0	1.383656E+0	1.406351E+0	1.457468E+0	1.454626E+0	1.390015E+0	1.498455E+0	1.494611E+0	1.486570E+0	1.194549E+0	1.409236E+0	1.423321E+0	1.444807E+0	1.255943E+0	1.445736E+0	1.423804E+0	1.450079E+0	1.420052E+0	1.461432E+0	1.452933E+0	1.460305E+0	1.292856E+0	1.393607E+0	1.395971E+0	1.508458E+0	1.172080E+0	1.406130E+0	1.421670E+0	1.470782E+0	1.258512E+0	1.217834E+0	1.439581E+0	1.469151E+0	1.385553E+0	1.406174E+0	1.462188E+0	1.442576E+0	1.348928E+0	1.460323E+0	1.454392E+0	1.503737E+0	1.189363E+0	1.506788E+0	1.466690E+0	1.398648E+0	1.269057E+0	1.428292E+0	1.460741E+0	1.468872E+0	1.414320E+0	1.459464E+0	1.404143E+0	1.459991E+0	1.342888E+0	1.419220E+0	1.419442E+0	1.445775E+0	1.222378E+0	1.423328E+0	1.438574E+0	1.439413E+0	1.241820E+0	1.465558E+0	1.423456E+0	1.482676E+0	1.405253E+0	1.515937E+0	1.479469E+0	1.462422E+0	1.293437E+0	1.497675E+0	1.435969E+0	1.458431E+0	1.198338E+0	1.546793E+0	1.443453E+0	1.427800E+0	1.259743E+0	1.450845E+0	1.412706E+0	1.454447E+0	1.331006E+0	1.469545E+0	1.443993E+0	1.462020E+0	1.353393E+0	1.448472E+0	1.406893E+0	1.561564E+0	1.081092E+0	1.483995E+0	1.464864E+0	1.447567E+0	1.209107E+0	1.393361E+0	1.441899E+0	1.436677E+0	1.330562E+0	1.458954E+0	1.455918E+0	1.444268E+0	1.368520E+0	1.477712E+0	1.439997E+0	1.458151E+0	1.250536E+0	1.467273E+0	1.452815E+0	1.485196E+0	1.259592E+0	1.408422E+0	1.438087E+0	1.475374E+0	1.402149E+0	1.401412E+0	1.469157E+0	1.449891E+0	1.308763E+0	1.383079E+0	1.494277E+0	1.440324E+0	1.180904E+0	1.462002E+0	1.425443E+0	1.466307E+0	1.026388E+0	1.512218E+0	1.423132E+0	1.452596E+0	1.267087E+0
5.490160E+2	1.488551E+0	1.398340E+0	1.525748E+0	1.470590E+0	1.454448E+0	1.470191E+0	1.431405E+0	1.511575E+0	1.376835E+0	1.476688E+0	1.472759E+0	1.432926E+0	1.217936E+0	1.405473E+0	1.512270E+0	1.430083E+0	1.245428E+0	1.436396E+0	1.438116E+0	1.425315E+0	1.367729E+0	1.415256E+0	1.425295E+0	1.445607E+0	1.281251E+0	1.457036E+0	1.486848E+0	1.537836E+0	1.215957E+0	1.375413E+0	1.472544E+0	1.451727E+0	1.257209E+0	1.338340E+0	1.509104E+0	1.423595E+0	1.409742E+0	1.427936E+0	1.414999E+0	1.399934E+0	1.404438E+0	1.417168E+0	1.471372E+0	1.484681E+0	1.212771E+0	1.396521E+0	1.505134E+0	1.444230E+0	1.269506E+0	1.502904E+0	1.481566E+0	1.485711E+0	1.417031E+0	1.405899E+0	1.454664E+0	1.512517E+0	1.298898E+0	1.448123E+0	1.454255E+0	1.504602E+0	1.177765E+0	1.492399E+0	1.471305E+0	1.466058E+0	1.219955E+0	1.193727E+0	1.405495E+0	1.483296E+0	1.384300E+0	1.421691E+0	1.451972E+0	1.427906E+0	1.388664E+0	1.456776E+0	1.463406E+0	1.482938E+0	1.201647E+0	1.481768E+0	1.457733E+0	1.396943E+0	1.199869E+0	1.479365E+0	1.462741E+0	1.506186E+0	1.382845E+0	1.399820E+0	1.471238E+0	1.459989E+0	1.340903E+0	1.507942E+0	1.460454E+0	1.406367E+0	1.192608E+0	1.459188E+0	1.413794E+0	1.487065E+0	1.248936E+0	1.506767E+0	1.460591E+0	1.437566E+0	1.362110E+0	1.448105E+0	1.432357E+0	1.455933E+0	1.310965E+0	1.457535E+0	1.522061E+0	1.379221E+0	1.184384E+0	1.481927E+0	1.428389E+0	1.465840E+0	1.228361E+0	1.381272E+0	1.430603E+0	1.360400E+0	1.376852E+0	1.476950E+0	1.421260E+0	1.442277E+0	1.350387E+0	1.412076E+0	1.439249E+0	1.439643E+0	1.156740E+0	1.453280E+0	1.461580E+0	1.403303E+0	1.214282E+0	1.371683E+0	1.476867E+0	1.438783E+0	1.391312E+0	1.414185E+0	1.412306E+0	1.471310E+0	1.329229E+0	1.457667E+0	1.414252E+0	1.374526E+0	1.234564E+0	1.425746E+0	1.502070E+0	1.501376E+0	1.298367E+0	1.437211E+0	1.473827E+0	1.526673E+0	1.408058E+0	1.451102E+0	1.403226E+0	1.456763E+0	1.340159E+0	1.396295E+0	1.493682E+0	1.390820E+0	1.159332E+0	1.531084E+0	1.477528E+0	1.423298E+0	1.075412E+0	1.454582E+0	1.424282E+0	1.373116E+0	1.258880E+0
5.497570E+2	1.354544E+0	1.425440E+0	1.426782E+0	1.371823E+0	1.417596E+0	1.427914E+0	1.415922E+0	1.380521E+0	1.339291E+0	1.423882E+0	1.417233E+0	1.418431E+0	1.193618E+0	1.366740E+0	1.423598E+0	1.386662E+0	1.190445E+0	1.387171E+0	1.455128E+0	1.366936E+0	1.322003E+0	1.428145E+0	1.469423E+0	1.361257E+0	1.248653E+0	1.360837E+0	1.443732E+0	1.429739E+0	1.204085E+0	1.344513E+0	1.414724E+0	1.366216E+0	1.263891E+0	1.360892E+0	1.425044E+0	1.413672E+0	1.346307E+0	1.313780E+0	1.435337E+0	1.423860E+0	1.293639E+0	1.408578E+0	1.436841E+0	1.399019E+0	1.190797E+0	1.431642E+0	1.376217E+0	1.393160E+0	1.227057E+0	1.410655E+0	1.425059E+0	1.383820E+0	1.366839E+0	1.411271E+0	1.363861E+0	1.424949E+0	1.290440E+0	1.403147E+0	1.415813E+0	1.381224E+0	1.142625E+0	1.412472E+0	1.376764E+0	1.444206E+0	1.223116E+0	1.128815E+0	1.354673E+0	1.416601E+0	1.334300E+0	1.390658E+0	1.392360E+0	1.394217E+0	1.296608E+0	1.400751E+0	1.368151E+0	1.455411E+0	1.164794E+0	1.355999E+0	1.423202E+0	1.370778E+0	1.163054E+0	1.443475E+0	1.380017E+0	1.405510E+0	1.326812E+0	1.370636E+0	1.416868E+0	1.340797E+0	1.302490E+0	1.401616E+0	1.363517E+0	1.347938E+0	1.214107E+0	1.440638E+0	1.383564E+0	1.400896E+0	1.253685E+0	1.424355E+0	1.371193E+0	1.425765E+0	1.360406E+0	1.428723E+0	1.460387E+0	1.369228E+0	1.287594E+0	1.406018E+0	1.438004E+0	1.342422E+0	1.182316E+0	1.362903E+0	1.374153E+0	1.381117E+0	1.109602E+0	1.379909E+0	1.412066E+0	1.477101E+0	1.321087E+0	1.406612E+0	1.361811E+0	1.380654E+0	1.314303E+0	1.422003E+0	1.373243E+0	1.373513E+0	1.085989E+0	1.421898E+0	1.403154E+0	1.444494E+0	1.234409E+0	1.354340E+0	1.374547E+0	1.436679E+0	1.307423E+0	1.458350E+0	1.424592E+0	1.411351E+0	1.304511E+0	1.395534E+0	1.382563E+0	1.432669E+0	1.277924E+0	1.393801E+0	1.420192E+0	1.376124E+0	1.246669E+0	1.387750E+0	1.374164E+0	1.424737E+0	1.348308E+0	1.355171E+0	1.385683E+0	1.426415E+0	1.291585E+0	1.400919E+0	1.405225E+0	1.408714E+0	1.123974E+0	1.434092E+0	1.433062E+0	1.391676E+0	9.796688E-1	1.430411E+0	1.373672E+0	1.327194E+0	1.239727E+0
5.505110E+2	1.370513E+0	1.395486E+0	1.466942E+0	1.477851E+0	1.368683E+0	1.364793E+0	1.427072E+0	1.442233E+0	1.319269E+0	1.371072E+0	1.398533E+0	1.434248E+0	1.178816E+0	1.365585E+0	1.380705E+0	1.426361E+0	1.205907E+0	1.376941E+0	1.387083E+0	1.392316E+0	1.283049E+0	1.390605E+0	1.399409E+0	1.415939E+0	1.259311E+0	1.367660E+0	1.414197E+0	1.424115E+0	1.149247E+0	1.350453E+0	1.430435E+0	1.383318E+0	1.219884E+0	1.336513E+0	1.408774E+0	1.332955E+0	1.343342E+0	1.342175E+0	1.437132E+0	1.428420E+0	1.284460E+0	1.323327E+0	1.450786E+0	1.375713E+0	1.205804E+0	1.343237E+0	1.359484E+0	1.392001E+0	1.202296E+0	1.363883E+0	1.448920E+0	1.384444E+0	1.355955E+0	1.411271E+0	1.370225E+0	1.412435E+0	1.235462E+0	1.303658E+0	1.378612E+0	1.409497E+0	1.073379E+0	1.424523E+0	1.352536E+0	1.379843E+0	1.231331E+0	1.204233E+0	1.341037E+0	1.417273E+0	1.335551E+0	1.386779E+0	1.362273E+0	1.449098E+0	1.324422E+0	1.348986E+0	1.371367E+0	1.383231E+0	1.114538E+0	1.370876E+0	1.384190E+0	1.358266E+0	1.225260E+0	1.420006E+0	1.349995E+0	1.385094E+0	1.263228E+0	1.351600E+0	1.374066E+0	1.356526E+0	1.283947E+0	1.424148E+0	1.369108E+0	1.345902E+0	1.092823E+0	1.396128E+0	1.440391E+0	1.358464E+0	1.146902E+0	1.381819E+0	1.365688E+0	1.382044E+0	1.316696E+0	1.446893E+0	1.401942E+0	1.441774E+0	1.278248E+0	1.429434E+0	1.379704E+0	1.439097E+0	1.107891E+0	1.364163E+0	1.342214E+0	1.366129E+0	1.172369E+0	1.380589E+0	1.344320E+0	1.397468E+0	1.303122E+0	1.375144E+0	1.350151E+0	1.399202E+0	1.311898E+0	1.360464E+0	1.399774E+0	1.434819E+0	1.057688E+0	1.363141E+0	1.379522E+0	1.367643E+0	1.178627E+0	1.389746E+0	1.354472E+0	1.403723E+0	1.268661E+0	1.379699E+0	1.387123E+0	1.358444E+0	1.303248E+0	1.420254E+0	1.379261E+0	1.393469E+0	1.137572E+0	1.458970E+0	1.409319E+0	1.391707E+0	1.210616E+0	1.388491E+0	1.371416E+0	1.406080E+0	1.315479E+0	1.331707E+0	1.382657E+0	1.396642E+0	1.254860E+0	1.330878E+0	1.460211E+0	1.382470E+0	1.132962E+0	1.367805E+0	1.395587E+0	1.338544E+0	9.946655E-1	1.474103E+0	1.354119E+0	1.503816E+0	1.234258E+0
5.512570E+2	1.414951E+0	1.292783E+0	1.446144E+0	1.416123E+0	1.378066E+0	1.355860E+0	1.422115E+0	1.369424E+0	1.322400E+0	1.323545E+0	1.394000E+0	1.434907E+0	1.262343E+0	1.349974E+0	1.361000E+0	1.360609E+0	1.292965E+0	1.405071E+0	1.389602E+0	1.334574E+0	1.327648E+0	1.371554E+0	1.368817E+0	1.412449E+0	1.223577E+0	1.295046E+0	1.347453E+0	1.400371E+0	1.166208E+0	1.348074E+0	1.338674E+0	1.376833E+0	1.189249E+0	1.285314E+0	1.435212E+0	1.347510E+0	1.351047E+0	1.356943E+0	1.400647E+0	1.335558E+0	1.279868E+0	1.333238E+0	1.394343E+0	1.371935E+0	1.157032E+0	1.351714E+0	1.335931E+0	1.406509E+0	1.153950E+0	1.387917E+0	1.359135E+0	1.362563E+0	1.303343E+0	1.362904E+0	1.359813E+0	1.347166E+0	1.233651E+0	1.392925E+0	1.415192E+0	1.467974E+0	1.119370E+0	1.281803E+0	1.320627E+0	1.400511E+0	1.167496E+0	1.162815E+0	1.345375E+0	1.414577E+0	1.239300E+0	1.313722E+0	1.367950E+0	1.369767E+0	1.305219E+0	1.387987E+0	1.355922E+0	1.370997E+0	1.120123E+0	1.387779E+0	1.336227E+0	1.398648E+0	1.232876E+0	1.323376E+0	1.352662E+0	1.344967E+0	1.329330E+0	1.385863E+0	1.357295E+0	1.365604E+0	1.274674E+0	1.423444E+0	1.323746E+0	1.407727E+0	1.056991E+0	1.383761E+0	1.377521E+0	1.340840E+0	1.226396E+0	1.376502E+0	1.358125E+0	1.374409E+0	1.317262E+0	1.386934E+0	1.382859E+0	1.394001E+0	1.233260E+0	1.372569E+0	1.384451E+0	1.349283E+0	1.130116E+0	1.424620E+0	1.327753E+0	1.304462E+0	1.084991E+0	1.365585E+0	1.371163E+0	1.389232E+0	1.252319E+0	1.369592E+0	1.333832E+0	1.384841E+0	1.273407E+0	1.382961E+0	1.410772E+0	1.417597E+0	1.105581E+0	1.402534E+0	1.407750E+0	1.412527E+0	1.118247E+0	1.344945E+0	1.377786E+0	1.369362E+0	1.315522E+0	1.368206E+0	1.333683E+0	1.349624E+0	1.203115E+0	1.396868E+0	1.302683E+0	1.324216E+0	1.170661E+0	1.409133E+0	1.360703E+0	1.362940E+0	1.226942E+0	1.359699E+0	1.399596E+0	1.357443E+0	1.308915E+0	1.386918E+0	1.353624E+0	1.363435E+0	1.229982E+0	1.316341E+0	1.399845E+0	1.344297E+0	1.126370E+0	1.394321E+0	1.373988E+0	1.336016E+0	9.496779E-1	1.346747E+0	1.400128E+0	1.360752E+0	1.288973E+0
5.520150E+2	1.419118E+0	1.379081E+0	1.402399E+0	1.375453E+0	1.341214E+0	1.405285E+0	1.394235E+0	1.379826E+0	1.415003E+0	1.468769E+0	1.341306E+0	1.372965E+0	1.374944E+0	1.389863E+0	1.399831E+0	1.358128E+0	1.395491E+0	1.378860E+0	1.381411E+0	1.346628E+0	1.392568E+0	1.358665E+0	1.352929E+0	1.379292E+0	1.356486E+0	1.355251E+0	1.353949E+0	1.413494E+0	1.357860E+0	1.333816E+0	1.372613E+0	1.330244E+0	1.324050E+0	1.273125E+0	1.437246E+0	1.325678E+0	1.330298E+0	1.405216E+0	1.354595E+0	1.406772E+0	1.306749E+0	1.410562E+0	1.447467E+0	1.405318E+0	1.135593E+0	1.368063E+0	1.328492E+0	1.385617E+0	1.184019E+0	1.415853E+0	1.382992E+0	1.375693E+0	1.345067E+0	1.416647E+0	1.335524E+0	1.395576E+0	1.228214E+0	1.414048E+0	1.356289E+0	1.342665E+0	1.097668E+0	1.330010E+0	1.387399E+0	1.392245E+0	1.197832E+0	1.181979E+0	1.368927E+0	1.372810E+0	1.329926E+0	1.306611E+0	1.341835E+0	1.409975E+0	1.246278E+0	1.387279E+0	1.345625E+0	1.369776E+0	1.120681E+0	1.371551E+0	1.396342E+0	1.367934E+0	1.137028E+0	1.456590E+0	1.358002E+0	1.359753E+0	1.290928E+0	1.339541E+0	1.352092E+0	1.385573E+0	1.350175E+0	1.384015E+0	1.352952E+0	1.369002E+0	1.146300E+0	1.382526E+0	1.343666E+0	1.406121E+0	1.171816E+0	1.394446E+0	1.408326E+0	1.377187E+0	1.276390E+0	1.367553E+0	1.429375E+0	1.405207E+0	1.195284E+0	1.398660E+0	1.379027E+0	1.406665E+0	1.133217E+0	1.382425E+0	1.418146E+0	1.406476E+0	1.185289E+0	1.375815E+0	1.359019E+0	1.411198E+0	1.275862E+0	1.409080E+0	1.329169E+0	1.362107E+0	1.314303E+0	1.400164E+0	1.344121E+0	1.382470E+0	1.109937E+0	1.401868E+0	1.396587E+0	1.360883E+0	1.119971E+0	1.407814E+0	1.362243E+0	1.406525E+0	1.262295E+0	1.339169E+0	1.405550E+0	1.372553E+0	1.291838E+0	1.394865E+0	1.325787E+0	1.346432E+0	1.215162E+0	1.345882E+0	1.303772E+0	1.387510E+0	1.201773E+0	1.398085E+0	1.409905E+0	1.322133E+0	1.296442E+0	1.380708E+0	1.382056E+0	1.345113E+0	1.294548E+0	1.321629E+0	1.414187E+0	1.348473E+0	1.099404E+0	1.367109E+0	1.372082E+0	1.382819E+0	9.341051E-1	1.428552E+0	1.378274E+0	1.321895E+0	1.215105E+0
5.527650E+2	1.302468E+0	1.327731E+0	1.336423E+0	1.332608E+0	1.313074E+0	1.329066E+0	1.309984E+0	1.275811E+0	1.342419E+0	1.322881E+0	1.334508E+0	1.345948E+0	1.372303E+0	1.301992E+0	1.337238E+0	1.326496E+0	1.317594E+0	1.330912E+0	1.337939E+0	1.340285E+0	1.331033E+0	1.390603E+0	1.352933E+0	1.291449E+0	1.347707E+0	1.285114E+0	1.347451E+0	1.305395E+0	1.341462E+0	1.321336E+0	1.334905E+0	1.393344E+0	1.243838E+0	1.223149E+0	1.348440E+0	1.287303E+0	1.319628E+0	1.254147E+0	1.300168E+0	1.323024E+0	1.347398E+0	1.327952E+0	1.357159E+0	1.317138E+0	1.235818E+0	1.304486E+0	1.352664E+0	1.372852E+0	1.239438E+0	1.309310E+0	1.349716E+0	1.210664E+0	1.351720E+0	1.355142E+0	1.323375E+0	1.313442E+0	1.172631E+0	1.307065E+0	1.324048E+0	1.372869E+0	1.114203E+0	1.316055E+0	1.284584E+0	1.349729E+0	1.146636E+0	1.139944E+0	1.332361E+0	1.356641E+0	1.286799E+0	1.317601E+0	1.289605E+0	1.312712E+0	1.278065E+0	1.399334E+0	1.261951E+0	1.437062E+0	1.092203E+0	1.345859E+0	1.335588E+0	1.287166E+0	1.116081E+0	1.286101E+0	1.301963E+0	1.371719E+0	1.218531E+0	1.295127E+0	1.289624E+0	1.338374E+0	1.174010E+0	1.331909E+0	1.289571E+0	1.284758E+0	1.121491E+0	1.282372E+0	1.306791E+0	1.345411E+0	1.108934E+0	1.313362E+0	1.311360E+0	1.335547E+0	1.250276E+0	1.310622E+0	1.306528E+0	1.398720E+0	1.233262E+0	1.311016E+0	1.337675E+0	1.290652E+0	1.072746E+0	1.296148E+0	1.331367E+0	1.371318E+0	1.066532E+0	1.311704E+0	1.316200E+0	1.352164E+0	1.280817E+0	1.298015E+0	1.307021E+0	1.314247E+0	1.245745E+0	1.351863E+0	1.368711E+0	1.356981E+0	1.063677E+0	1.301044E+0	1.384118E+0	1.300633E+0	1.136651E+0	1.299422E+0	1.300076E+0	1.373567E+0	1.264609E+0	1.316179E+0	1.309115E+0	1.332578E+0	1.215155E+0	1.265247E+0	1.282220E+0	1.349696E+0	1.115890E+0	1.328634E+0	1.359424E+0	1.302414E+0	1.198372E+0	1.355270E+0	1.304742E+0	1.277495E+0	1.293158E+0	1.266832E+0	1.288904E+0	1.346258E+0	1.208658E+0	1.310394E+0	1.340079E+0	1.332963E+0	1.014906E+0	1.358036E+0	1.328249E+0	1.367640E+0	9.427564E-1	1.422974E+0	1.369073E+0	1.360752E+0	1.149445E+0
5.535550E+2	1.324687E+0	1.228590E+0	1.302002E+0	1.249092E+0	1.261481E+0	1.266544E+0	1.285205E+0	1.248076E+0	1.301124E+0	1.241685E+0	1.239885E+0	1.308389E+0	1.233267E+0	1.271351E+0	1.315214E+0	1.270050E+0	1.280938E+0	1.268263E+0	1.288795E+0	1.242561E+0	1.250869E+0	1.243244E+0	1.241736E+0	1.230950E+0	1.362754E+0	1.289461E+0	1.277756E+0	1.254781E+0	1.282104E+0	1.182880E+0	1.309135E+0	1.273042E+0	1.263335E+0	1.176828E+0	1.331495E+0	1.283997E+0	1.272197E+0	1.285383E+0	1.290599E+0	1.263774E+0	1.314618E+0	1.291606E+0	1.273493E+0	1.262336E+0	1.278157E+0	1.218505E+0	1.253497E+0	1.282323E+0	1.259482E+0	1.200821E+0	1.288815E+0	1.181284E+0	1.283387E+0	1.270947E+0	1.269588E+0	1.239467E+0	1.278355E+0	1.268907E+0	1.317227E+0	1.320819E+0	1.230992E+0	1.278630E+0	1.213088E+0	1.237532E+0	1.240812E+0	1.061433E+0	1.262944E+0	1.216509E+0	1.268672E+0	1.190238E+0	1.229995E+0	1.305104E+0	1.164158E+0	1.266016E+0	1.222694E+0	1.286582E+0	1.036365E+0	1.239699E+0	1.277392E+0	1.300816E+0	1.112907E+0	1.252279E+0	1.237249E+0	1.237957E+0	1.179498E+0	1.243096E+0	1.222534E+0	1.238540E+0	1.223680E+0	1.290366E+0	1.264714E+0	1.186921E+0	1.002411E+0	1.185931E+0	1.278985E+0	1.271645E+0	1.052576E+0	1.259529E+0	1.261157E+0	1.287660E+0	1.192942E+0	1.306990E+0	1.261798E+0	1.224133E+0	1.139197E+0	1.331086E+0	1.266496E+0	1.261339E+0	1.018994E+0	1.262771E+0	1.222292E+0	1.245673E+0	1.070841E+0	1.252362E+0	1.252929E+0	1.274592E+0	1.246123E+0	1.258528E+0	1.260975E+0	1.298691E+0	1.162150E+0	1.289663E+0	1.257401E+0	1.242641E+0	1.013607E+0	1.266327E+0	1.276455E+0	1.237925E+0	1.084318E+0	1.238002E+0	1.196462E+0	1.234728E+0	1.195764E+0	1.297422E+0	1.267960E+0	1.265563E+0	1.183468E+0	1.241863E+0	1.239308E+0	1.267377E+0	1.129583E+0	1.306909E+0	1.292896E+0	1.243082E+0	1.163000E+0	1.239368E+0	1.238760E+0	1.268168E+0	1.218964E+0	1.314453E+0	1.241117E+0	1.250641E+0	1.175483E+0	1.248943E+0	1.261783E+0	1.266163E+0	1.041874E+0	1.291054E+0	1.258377E+0	1.325894E+0	8.862336E-1	1.244489E+0	1.309261E+0	1.311297E+0	1.217842E+0
5.542640E+2	1.246922E+0	1.111620E+0	1.185109E+0	1.141612E+0	1.212568E+0	1.220097E+0	1.174312E+0	1.203695E+0	1.186620E+0	1.184255E+0	1.175860E+0	1.219429E+0	1.191505E+0	1.163244E+0	1.231758E+0	1.201822E+0	1.184143E+0	1.157026E+0	1.153335E+0	1.179104E+0	1.232805E+0	1.184412E+0	1.189373E+0	1.233856E+0	1.153990E+0	1.193258E+0	1.158443E+0	1.239783E+0	1.187128E+0	1.123454E+0	1.258230E+0	1.161582E+0	1.185908E+0	1.152447E+0	1.219641E+0	1.185417E+0	1.145326E+0	1.122387E+0	1.208659E+0	1.171483E+0	1.184149E+0	1.189832E+0	1.195801E+0	1.181086E+0	1.185438E+0	1.179756E+0	1.198956E+0	1.161037E+0	1.165153E+0	1.156646E+0	1.177684E+0	1.159404E+0	1.198123E+0	1.237509E+0	1.205967E+0	1.195953E+0	1.206464E+0	1.178277E+0	1.204379E+0	1.289331E+0	1.171565E+0	1.230420E+0	1.184136E+0	1.186157E+0	1.191513E+0	1.002087E+0	1.173694E+0	1.170025E+0	1.223673E+0	1.140456E+0	1.215233E+0	1.202952E+0	1.213167E+0	1.235525E+0	1.200811E+0	1.206451E+0	1.161443E+0	1.173435E+0	1.229428E+0	1.197298E+0	1.185270E+0	1.194989E+0	1.224574E+0	1.183748E+0	1.225456E+0	1.161246E+0	1.167584E+0	1.129633E+0	1.106459E+0	1.191083E+0	1.175234E+0	1.114225E+0	9.776044E-1	1.235387E+0	1.173195E+0	1.182212E+0	1.020540E+0	1.191075E+0	1.171756E+0	1.175928E+0	1.170802E+0	1.219774E+0	1.196796E+0	1.219411E+0	1.063245E+0	1.171189E+0	1.207519E+0	1.155306E+0	9.776452E-1	1.192865E+0	1.124065E+0	1.174778E+0	1.011768E+0	1.218941E+0	1.141083E+0	1.227912E+0	1.093091E+0	1.164742E+0	1.180541E+0	1.180830E+0	1.162752E+0	1.204963E+0	1.197863E+0	1.227483E+0	9.472080E-1	1.138797E+0	1.216717E+0	1.161075E+0	1.008986E+0	1.170080E+0	1.207469E+0	1.246650E+0	1.125183E+0	1.183688E+0	1.217595E+0	1.234994E+0	1.098546E+0	1.190417E+0	1.188477E+0	1.163500E+0	1.042861E+0	1.224493E+0	1.200143E+0	1.186751E+0	1.128988E+0	1.185478E+0	1.189273E+0	1.158902E+0	1.115228E+0	1.196435E+0	1.167324E+0	1.155596E+0	1.019696E+0	1.210620E+0	1.235484E+0	1.202343E+0	9.705604E-1	1.194762E+0	1.171986E+0	1.222799E+0	8.372092E-1	1.213812E+0	1.208043E+0	1.288338E+0	1.171331E+0
5.550360E+2	1.103195E+0	1.078099E+0	1.150687E+0	1.090051E+0	1.132834E+0	1.098623E+0	1.111123E+0	1.110082E+0	1.112783E+0	1.078637E+0	1.102769E+0	1.066554E+0	1.090003E+0	1.085199E+0	1.094979E+0	1.098237E+0	1.096511E+0	1.066886E+0	1.078361E+0	1.014119E+0	1.083765E+0	1.047696E+0	1.088765E+0	1.073298E+0	1.075622E+0	1.048644E+0	1.074570E+0	1.110441E+0	1.113633E+0	1.062841E+0	1.077227E+0	1.113225E+0	1.096783E+0	1.015923E+0	1.096261E+0	1.061033E+0	1.075368E+0	1.090017E+0	1.069902E+0	1.109383E+0	1.093672E+0	1.063608E+0	1.170570E+0	1.129438E+0	1.059490E+0	1.058656E+0	1.084913E+0	1.040332E+0	1.123293E+0	1.128060E+0	1.053368E+0	1.133774E+0	1.089875E+0	1.084643E+0	1.076993E+0	1.083902E+0	1.083825E+0	1.037222E+0	1.105793E+0	1.087555E+0	1.064596E+0	1.109264E+0	1.061231E+0	1.069238E+0	1.165599E+0	9.544855E-1	1.106757E+0	1.082444E+0	1.146799E+0	1.088735E+0	1.121561E+0	1.094819E+0	1.050249E+0	1.099368E+0	1.070154E+0	1.150786E+0	1.050883E+0	1.063897E+0	1.107917E+0	1.088090E+0	1.125602E+0	1.094217E+0	1.095816E+0	1.093635E+0	1.114027E+0	1.019115E+0	1.120160E+0	1.115716E+0	1.151494E+0	1.033358E+0	1.062760E+0	1.090445E+0	1.113222E+0	1.083306E+0	1.060151E+0	1.078416E+0	1.123170E+0	1.096700E+0	1.087855E+0	1.148863E+0	1.138444E+0	1.090168E+0	1.090051E+0	1.159844E+0	1.003067E+0	1.093581E+0	1.103125E+0	1.079213E+0	9.435350E-1	1.061876E+0	1.048134E+0	1.114263E+0	9.299297E-1	1.066160E+0	1.042661E+0	1.130431E+0	1.062112E+0	1.061701E+0	1.045898E+0	1.095873E+0	1.020222E+0	1.109676E+0	1.120206E+0	1.137937E+0	8.721033E-1	1.090723E+0	1.125466E+0	1.039961E+0	9.060495E-1	1.097820E+0	1.109685E+0	1.120432E+0	1.009473E+0	1.079630E+0	1.085532E+0	1.068632E+0	9.781359E-1	1.098215E+0	1.068326E+0	1.096204E+0	9.669802E-1	1.117796E+0	1.095873E+0	1.122629E+0	9.847795E-1	1.136017E+0	1.056619E+0	1.170894E+0	1.102753E+0	1.077039E+0	1.079012E+0	1.088032E+0	1.011403E+0	1.087056E+0	1.063952E+0	1.127787E+0	9.106336E-1	1.109635E+0	1.067810E+0	1.097560E+0	7.668444E-1	1.062284E+0	1.045865E+0	1.064026E+0	1.012653E+0
5.557600E+2	1.020570E+0	1.017474E+0	9.635158E-1	1.035585E+0	1.022949E+0	1.040864E+0	1.007666E+0	1.020629E+0	9.751279E-1	9.677366E-1	9.701833E-1	1.027676E+0	1.028680E+0	9.614832E-1	1.003404E+0	9.729402E-1	9.802407E-1	9.812209E-1	9.888955E-1	1.044578E+0	1.003034E+0	1.043776E+0	1.012870E+0	9.912742E-1	1.039888E+0	1.025058E+0	1.026138E+0	1.032336E+0	9.513794E-1	9.546895E-1	9.904940E-1	1.025948E+0	9.814779E-1	9.933715E-1	1.042708E+0	1.037215E+0	9.526439E-1	9.758633E-1	9.849731E-1	1.011963E+0	1.047123E+0	9.955392E-1	1.044406E+0	1.016062E+0	1.015006E+0	9.442192E-1	9.925629E-1	9.991287E-1	1.020118E+0	9.942341E-1	1.083504E+0	1.036255E+0	1.050570E+0	1.015376E+0	1.052703E+0	1.006662E+0	1.033680E+0	9.820277E-1	1.024569E+0	1.040002E+0	1.006717E+0	9.938142E-1	9.861878E-1	1.004282E+0	1.010113E+0	8.234292E-1	9.964369E-1	1.046738E+0	1.027422E+0	9.620174E-1	1.032432E+0	1.048633E+0	1.034355E+0	9.851968E-1	1.032824E+0	1.038232E+0	1.014030E+0	1.034146E+0	9.934445E-1	1.016423E+0	1.016424E+0	9.920622E-1	9.997492E-1	9.901439E-1	9.887471E-1	1.027363E+0	9.697806E-1	1.018908E+0	1.019041E+0	1.022796E+0	1.023613E+0	1.023864E+0	1.030527E+0	1.023339E+0	1.019647E+0	1.048388E+0	1.014015E+0	9.671016E-1	1.007393E+0	1.026025E+0	1.026609E+0	1.021122E+0	1.001194E+0	9.870244E-1	1.001899E+0	9.918877E-1	1.016354E+0	1.022454E+0	1.031915E+0	1.044241E+0	1.013182E+0	9.828533E-1	1.019152E+0	1.012959E+0	1.014540E+0	1.011670E+0	1.019361E+0	9.777867E-1	9.817849E-1	1.027672E+0	9.739145E-1	1.028949E+0	1.039314E+0	1.066299E+0	8.416264E-1	1.046655E+0	1.027654E+0	1.005533E+0	8.887979E-1	9.670322E-1	9.575018E-1	1.044702E+0	9.851746E-1	1.027602E+0	9.663704E-1	1.011610E+0	9.382102E-1	9.893099E-1	9.521384E-1	1.012576E+0	8.637125E-1	1.028990E+0	9.666566E-1	1.034535E+0	9.228786E-1	1.035619E+0	9.851366E-1	9.530287E-1	1.035783E+0	1.009404E+0	1.014290E+0	9.614963E-1	9.030023E-1	1.024944E+0	1.018528E+0	9.977623E-1	8.399197E-1	1.023113E+0	9.966653E-1	1.046963E+0	6.849443E-1	1.027889E+0	1.071170E+0	9.509885E-1	9.442565E-1
5.560190E+2	1.047649E+0	9.632684E-1	1.020169E+0	1.064633E+0	9.633152E-1	1.044436E+0	1.108027E+0	1.024790E+0	1.034570E+0	1.014606E+0	9.690504E-1	9.789137E-1	1.012819E+0	1.009466E+0	9.929723E-1	1.018220E+0	9.796653E-1	1.008071E+0	1.073322E+0	1.023638E+0	9.680320E-1	9.843823E-1	9.522709E-1	9.912742E-1	9.759415E-1	1.008301E+0	9.936494E-1	1.039209E+0	1.016396E+0	9.772704E-1	1.001178E+0	9.781804E-1	9.948487E-1	9.799634E-1	1.021015E+0	9.862713E-1	9.822881E-1	9.554181E-1	1.003514E+0	1.005128E+0	1.042534E+0	1.017348E+0	1.030462E+0	1.014173E+0	9.758820E-1	1.021118E+0	1.004339E+0	1.022924E+0	1.046649E+0	9.942341E-1	1.032649E+0	9.918750E-1	1.006426E+0	1.014182E+0	1.026098E+0	1.033859E+0	9.702456E-1	9.752134E-1	1.023949E+0	1.058636E+0	1.001551E+0	1.009673E+0	1.032866E+0	1.001329E+0	1.043612E+0	8.809209E-1	9.834207E-1	1.062907E+0	9.849222E-1	9.839986E-1	1.010856E+0	1.016029E+0	1.025083E+0	1.056110E+0	9.703933E-1	1.061476E+0	1.013471E+0	9.820819E-1	9.563531E-1	9.595444E-1	1.035467E+0	1.035547E+0	9.944126E-1	9.612789E-1	1.027149E+0	9.499529E-1	9.848167E-1	1.075177E+0	9.786420E-1	9.939267E-1	1.021127E+0	1.015712E+0	1.004065E+0	9.664618E-1	9.894200E-1	1.026846E+0	9.885056E-1	1.018943E+0	9.867611E-1	1.018391E+0	9.851696E-1	1.054432E+0	1.060830E+0	1.003539E+0	1.032863E+0	1.060798E+0	9.980514E-1	1.064244E+0	1.022094E+0	1.039203E+0	1.020413E+0	1.027808E+0	9.859246E-1	9.829483E-1	1.008788E+0	1.008238E+0	1.026797E+0	9.833405E-1	9.986896E-1	1.003140E+0	1.023831E+0	1.026303E+0	9.823656E-1	1.067677E+0	1.010885E+0	1.021951E+0	9.981129E-1	9.840153E-1	9.606812E-1	1.060246E+0	1.026146E+0	1.025769E+0	1.010631E+0	1.028811E+0	9.878684E-1	9.957376E-1	9.122268E-1	9.873055E-1	9.580798E-1	1.009964E+0	9.390234E-1	9.944896E-1	1.012074E+0	1.032137E+0	8.936290E-1	1.018640E+0	1.017441E+0	1.017655E+0	9.300755E-1	9.962907E-1	9.864657E-1	9.855432E-1	9.711228E-1	9.714219E-1	1.057376E+0	1.016253E+0	7.979708E-1	1.007762E+0	1.015722E+0	1.043168E+0	8.250975E-1	1.046481E+0	1.033212E+0	1.058727E+0	9.251051E-1
5.565030E+2	1.004600E+0	9.354521E-1	9.556276E-1	1.021786E+0	9.452248E-1	9.944176E-1	1.021295E+0	9.949725E-1	9.895193E-1	9.657567E-1	9.537519E-1	9.881387E-1	1.017579E+0	9.921222E-1	9.755856E-1	1.014499E+0	9.876850E-1	9.614028E-1	1.017877E+0	9.240112E-1	9.951296E-1	1.006233E+0	1.045230E+0	1.053520E+0	1.007288E+0	9.710620E-1	9.771122E-1	1.017339E+0	1.049183E+0	9.808358E-1	9.948930E-1	1.045999E+0	1.063920E+0	9.860578E-1	1.016948E+0	9.412821E-1	9.911808E-1	9.906289E-1	1.008897E+0	9.931624E-1	1.051057E+0	1.005452E+0	1.028470E+0	9.801590E-1	9.592665E-1	9.623843E-1	9.510359E-1	1.011895E+0	9.759013E-1	1.016322E+0	9.956048E-1	9.687445E-1	1.018519E+0	9.908939E-1	9.971807E-1	9.827313E-1	9.968278E-1	1.012010E+0	1.023329E+0	1.041287E+0	1.016536E+0	1.007770E+0	1.014549E+0	9.788902E-1	9.892549E-1	8.265205E-1	9.945770E-1	1.037980E+0	1.004922E+0	9.839988E-1	1.008588E+0	1.011683E+0	9.899834E-1	9.703048E-1	9.993564E-1	1.030280E+0	9.581903E-1	9.841102E-1	9.972819E-1	9.931043E-1	1.060222E+0	9.996548E-1	1.026435E+0	9.605755E-1	9.711197E-1	9.632779E-1	1.003904E+0	1.009833E+0	1.009106E+0	1.072789E+0	1.044741E+0	9.613592E-1	1.008476E+0	9.918090E-1	9.924435E-1	9.935536E-1	9.825733E-1	9.943507E-1	9.998281E-1	1.003817E+0	1.012986E+0	1.036870E+0	1.029221E+0	1.027132E+0	9.849556E-1	9.925575E-1	1.008220E+0	1.044907E+0	9.983204E-1	1.012123E+0	9.589462E-1	1.021470E+0	1.015460E+0	9.331584E-1	9.781104E-1	1.027459E+0	1.006970E+0	1.003085E+0	1.029579E+0	9.941678E-1	9.925583E-1	9.740281E-1	9.946610E-1	9.788190E-1	1.009796E+0	1.011268E+0	9.941743E-1	9.612678E-1	9.767816E-1	9.785932E-1	1.022261E+0	1.019458E+0	1.000794E+0	9.755740E-1	9.927827E-1	1.044528E+0	1.014259E+0	9.772832E-1	1.000330E+0	9.890570E-1	9.789606E-1	9.849060E-1	1.003758E+0	1.011761E+0	9.752562E-1	1.048169E+0	9.906352E-1	9.670202E-1	1.017399E+0	9.969809E-1	1.005822E+0	1.000429E+0	9.444671E-1	9.952094E-1	9.665295E-1	9.941850E-1	8.561002E-1	1.035673E+0	1.010005E+0	1.002055E+0	8.971923E-1	1.052059E+0	9.757021E-1	1.014572E+0	1.029069E+0
5.570440E+2	1.050426E+0	1.003209E+0	1.011564E+0	1.028322E+0	1.051090E+0	9.997773E-1	1.048553E+0	1.039352E+0	1.010168E+0	9.782987E-1	9.979466E-1	1.032288E+0	9.922030E-1	9.851858E-1	1.041076E+0	9.623964E-1	9.876843E-1	1.050264E+0	9.907857E-1	9.842947E-1	1.009246E+0	9.782167E-1	1.020518E+0	1.068064E+0	9.953765E-1	1.004577E+0	1.010781E+0	1.003593E+0	1.012436E+0	9.624143E-1	9.559271E-1	1.022408E+0	1.034397E+0	9.574122E-1	1.019659E+0	1.021337E+0	1.006596E+0	9.639381E-1	9.891591E-1	1.026207E+0	1.005163E+0	1.036512E+0	1.031126E+0	1.022360E+0	1.010182E+0	9.000185E-1	1.000000E+0	1.046134E+0	1.058441E+0	1.013723E+0	9.623278E-1	1.008751E+0	1.003402E+0	1.048816E+0	9.659481E-1	1.011557E+0	9.841408E-1	9.718062E-1	1.032629E+0	1.008515E+0	9.648601E-1	1.021726E+0	9.773246E-1	1.032628E+0	1.020858E+0	8.432113E-1	9.394164E-1	1.033264E+0	9.830466E-1	1.009214E+0	1.024483E+0	9.872304E-1	1.048263E+0	1.066748E+0	9.665315E-1	1.022326E+0	1.011237E+0	9.279886E-1	1.072105E+0	1.005048E+0	9.980165E-1	1.014150E+0	9.957470E-1	9.950721E-1	9.981902E-1	9.658159E-1	9.772998E-1	9.711082E-1	1.014404E+0	1.002377E+0	1.050334E+0	9.620384E-1	1.014540E+0	1.023338E+0	9.900256E-1	1.036639E+0	1.024694E+0	9.471638E-1	1.045904E+0	1.021861E+0	9.863044E-1	1.047769E+0	9.838983E-1	1.028312E+0	1.024100E+0	1.011959E+0	9.777142E-1	1.009980E+0	1.009174E+0	9.856727E-1	9.523171E-1	1.031844E+0	1.022229E+0	9.952256E-1	1.001758E+0	1.013729E+0	1.033612E+0	9.747027E-1	1.016174E+0	1.030661E+0	1.026837E+0	9.773364E-1	1.012781E+0	1.026348E+0	9.406768E-1	1.034637E+0	9.961431E-1	1.013524E+0	1.050966E+0	1.006774E+0	9.827584E-1	1.034184E+0	1.022201E+0	9.568195E-1	1.029636E+0	1.035124E+0	9.572228E-1	1.026057E+0	1.007592E+0	9.714164E-1	9.801018E-1	1.004073E+0	9.417084E-1	9.350526E-1	1.007227E+0	9.979696E-1	9.693281E-1	1.004330E+0	9.826009E-1	1.015615E+0	9.483586E-1	9.981382E-1	9.835624E-1	9.899233E-1	1.002390E+0	9.912026E-1	9.969285E-1	1.045441E+0	9.826902E-1	1.051390E+0	1.009660E+0	1.018593E+0	9.630490E-1	1.035766E+0	1.023597E+0
5.575190E+2	1.063618E+0	9.818127E-1	9.965039E-1	9.557011E-1	9.619756E-1	9.979909E-1	1.025632E+0	1.020630E+0	9.907706E-1	1.009325E+0	9.667833E-1	9.947286E-1	1.050883E+0	1.016403E+0	9.529835E-1	9.834850E-1	9.739386E-1	9.793028E-1	1.000237E+0	9.754107E-1	1.048762E+0	9.636494E-1	9.705107E-1	1.030249E+0	9.916146E-1	9.741652E-1	9.570298E-1	1.018589E+0	9.621219E-1	9.820241E-1	9.754102E-1	1.019461E+0	9.786938E-1	9.647259E-1	1.035251E+0	9.789941E-1	1.014304E+0	9.798385E-1	9.933459E-1	1.000569E+0	9.782824E-1	1.002809E+0	9.839807E-1	1.024879E+0	9.801697E-1	1.012035E+0	9.894641E-1	9.677920E-1	1.020119E+0	9.896872E-1	1.002511E+0	1.044383E+0	1.013078E+0	9.801457E-1	1.015688E+0	9.990470E-1	1.030057E+0	9.840716E-1	1.030150E+0	1.041930E+0	9.906978E-1	1.031875E+0	1.012779E+0	9.883381E-1	9.860946E-1	8.432116E-1	1.011311E+0	1.021811E+0	1.046173E+0	9.995151E-1	9.938263E-1	1.033417E+0	1.025083E+0	1.030582E+0	1.005793E+0	1.024161E+0	9.827602E-1	9.942522E-1	9.928056E-1	1.028937E+0	1.008807E+0	9.968939E-1	1.012425E+0	1.034497E+0	9.988197E-1	9.658158E-1	1.002747E+0	9.868392E-1	9.879132E-1	1.006601E+0	9.614724E-1	1.017749E+0	1.019503E+0	1.035084E+0	9.676582E-1	9.733168E-1	1.008675E+0	9.983384E-1	9.626919E-1	9.621772E-1	1.016959E+0	9.793325E-1	9.934400E-1	1.014746E+0	9.761920E-1	1.011290E+0	1.069230E+0	9.956342E-1	1.013309E+0	9.655206E-1	9.691906E-1	9.949559E-1	9.730027E-1	9.959077E-1	1.028600E+0	9.759735E-1	9.951986E-1	1.021595E+0	9.911115E-1	9.929699E-1	1.030445E+0	9.932174E-1	1.001132E+0	9.884623E-1	9.994562E-1	9.665322E-1	9.534728E-1	1.003075E+0	1.011285E+0	1.036400E+0	1.012547E+0	1.053116E+0	1.015259E+0	9.713387E-1	1.000767E+0	9.428309E-1	9.876417E-1	1.005345E+0	1.002971E+0	9.616163E-1	9.875190E-1	1.037296E+0	1.003119E+0	1.018952E+0	1.031716E+0	1.011996E+0	9.851363E-1	1.016323E+0	1.027904E+0	9.624730E-1	9.652953E-1	9.740927E-1	1.000740E+0	9.542419E-1	9.838623E-1	9.739072E-1	1.015506E+0	1.035673E+0	1.003653E+0	9.710635E-1	1.028694E+0	1.061355E+0	1.007908E+0	9.633506E-1	9.688801E-1
5.580230E+2	1.036540E+0	1.026033E+0	1.005109E+0	1.010167E+0	1.010218E+0	9.926311E-1	9.481936E-1	9.963593E-1	1.029564E+0	1.021206E+0	1.000779E+0	9.868207E-1	9.927305E-1	9.828733E-1	1.039338E+0	1.010158E+0	1.055844E+0	1.043872E+0	1.001497E+0	1.008408E+0	1.030698E+0	1.032568E+0	1.064644E+0	1.031414E+0	1.031111E+0	1.010784E+0	1.049762E+0	1.017964E+0	1.068971E+0	9.677626E-1	1.009977E+0	1.056023E+0	1.022701E+0	1.007999E+0	9.966106E-1	1.031923E+0	1.030902E+0	1.016753E+0	9.987284E-1	1.037601E+0	1.014998E+0	9.882700E-1	1.047726E+0	1.002834E+0	1.035908E+0	9.690442E-1	1.033469E+0	1.008414E+0	1.029553E+0	9.740956E-1	1.026371E+0	9.756207E-1	1.020334E+0	9.908937E-1	9.983377E-1	1.013191E+0	9.642047E-1	1.010647E+0	1.035729E+0	1.035503E+0	1.020671E+0	1.006503E+0	1.021641E+0	1.035577E+0	1.006953E+0	8.932853E-1	1.040441E+0	9.807158E-1	1.009922E+0	9.639567E-1	1.021076E+0	1.035590E+0	1.027070E+0	1.016399E+0	1.005792E+0	1.030891E+0	1.054791E+0	1.024680E+0	1.026061E+0	9.845720E-1	1.003729E+0	1.053493E+0	1.045116E+0	1.042241E+0	1.044146E+0	1.015308E+0	1.028197E+0	1.018303E+0	1.017054E+0	1.062931E+0	1.021749E+0	9.803824E-1	1.011783E+0	1.072796E+0	1.020856E+0	1.061444E+0	1.041899E+0	1.013625E+0	1.012207E+0	1.025331E+0	1.041369E+0	1.015066E+0	1.049499E+0	1.001770E+0	1.008325E+0	9.898811E-1	1.027201E+0	9.987525E-1	1.059824E+0	1.000157E+0	1.027645E+0	1.030115E+0	1.019767E+0	1.081165E+0	1.054165E+0	1.001373E+0	1.027414E+0	9.987663E-1	1.013259E+0	1.049806E+0	9.679007E-1	1.028288E+0	1.039961E+0	1.000861E+0	1.017416E+0	1.039310E+0	1.007303E+0	1.029510E+0	1.022788E+0	1.033510E+0	1.031327E+0	1.048909E+0	1.033773E+0	1.068741E+0	1.037008E+0	1.046295E+0	1.010456E+0	1.038084E+0	1.010232E+0	1.044590E+0	1.030310E+0	1.003434E+0	1.049176E+0	9.919837E-1	1.012669E+0	1.028237E+0	1.022939E+0	1.008995E+0	1.006894E+0	1.029418E+0	1.028202E+0	1.020469E+0	9.983710E-1	1.073180E+0	1.064549E+0	1.011482E+0	9.891378E-1	9.875271E-1	1.019533E+0	1.038109E+0	9.854367E-1	1.015804E+0	1.010208E+0	1.072856E+0	9.688796E-1
5.585220E+2	1.019875E+0	1.016048E+0	1.000807E+0	1.045025E+0	1.049750E+0	1.018236E+0	1.042978E+0	1.025484E+0	1.020805E+0	9.697170E-1	1.047241E+0	1.027676E+0	1.020750E+0	9.730452E-1	9.883359E-1	1.033107E+0	1.045535E+0	1.025332E+0	1.033628E+0	1.026810E+0	1.035214E+0	1.042653E+0	1.003456E+0	1.013962E+0	1.009796E+0	9.754065E-1	1.020230E+0	9.873470E-1	1.055969E+0	1.005794E+0	9.898656E-1	1.043641E+0	1.025483E+0	9.921527E-1	1.008135E+0	1.020014E+0	1.016080E+0	9.457633E-1	1.025643E+0	1.037601E+0	1.013686E+0	9.638181E-1	1.004565E+0	9.663022E-1	1.016078E+0	9.654101E-1	1.037188E+0	1.004933E+0	1.038986E+0	1.010475E+0	9.999998E-1	9.918735E-1	9.943304E-1	1.035679E+0	1.028989E+0	1.027332E+0	1.008911E+0	1.054258E+0	1.023950E+0	1.020081E+0	1.052193E+0	1.000158E+0	9.873710E-1	1.029083E+0	1.038555E+0	1.091725E+0	1.041061E+0	1.013053E+0	1.008047E+0	1.047357E+0	1.028456E+0	9.894047E-1	1.014487E+0	1.039800E+0	1.037330E+0	9.752264E-1	1.005096E+0	1.042261E+0	1.054199E+0	1.052827E+0	9.992859E-1	1.000345E+0	1.037109E+0	1.011264E+0	1.041629E+0	1.044495E+0	1.005060E+0	1.043110E+0	1.011756E+0	1.023500E+0	1.004972E+0	1.036773E+0	9.935911E-1	9.986090E-1	1.023879E+0	9.726643E-1	1.037152E+0	1.015618E+0	9.950143E-1	1.037129E+0	1.001064E+0	1.053220E+0	9.922464E-1	1.001770E+0	1.031110E+0	9.952329E-1	1.004152E+0	1.011226E+0	1.030365E+0	1.048019E+0	1.033069E+0	1.027809E+0	1.030229E+0	9.986363E-1	9.678850E-1	1.056978E+0	1.029274E+0	1.030850E+0	1.010346E+0	1.069550E+0	1.005187E+0	1.025641E+0	1.019252E+0	1.022215E+0	1.014695E+0	1.047323E+0	1.020433E+0	1.019059E+0	9.635556E-1	1.006774E+0	1.046222E+0	1.006837E+0	1.030301E+0	1.052406E+0	1.000768E+0	1.053346E+0	1.007922E+0	1.056791E+0	1.011553E+0	1.049817E+0	1.029169E+0	1.032185E+0	1.020390E+0	1.020151E+0	1.007908E+0	9.920645E-1	1.084799E+0	1.054299E+0	1.004924E+0	1.004572E+0	1.068124E+0	1.043371E+0	1.034504E+0	1.024283E+0	1.027493E+0	9.900082E-1	1.046070E+0	1.051023E+0	1.000476E+0	1.058347E+0	9.837060E-1	1.014874E+0	1.067718E+0	1.028700E+0	1.026332E+0
5.590210E+2	9.789095E-1	9.875181E-1	1.039532E+0	9.825708E-1	1.002177E+0	9.479715E-1	9.816472E-1	9.713963E-1	9.845136E-1	9.789584E-1	1.000212E+0	1.021086E+0	9.615398E-1	9.522334E-1	1.013257E+0	9.841054E-1	9.779482E-1	9.991211E-1	9.731444E-1	9.995237E-1	9.482732E-1	9.815796E-1	9.952198E-1	9.854569E-1	9.546263E-1	9.369255E-1	9.729777E-1	9.754744E-1	9.892586E-1	8.988305E-1	9.358160E-1	1.020051E+0	1.012116E+0	9.226718E-1	9.491578E-1	9.406202E-1	1.004818E+0	9.701840E-1	9.783938E-1	9.430293E-1	1.029421E+0	9.922345E-1	1.006557E+0	1.003464E+0	9.689138E-1	9.557236E-1	9.745881E-1	9.759180E-1	9.269673E-1	9.870880E-1	9.642118E-1	9.543669E-1	9.979592E-1	9.759658E-1	9.757806E-1	9.452002E-1	9.835371E-1	9.506823E-1	1.009688E+0	9.654603E-1	9.850143E-1	1.008405E+0	9.649160E-1	9.800708E-1	9.633410E-1	1.007650E+0	1.008832E+0	9.881260E-1	9.992972E-1	1.008567E+0	1.009722E+0	9.448489E-1	1.008527E+0	9.703047E-1	9.710370E-1	9.874602E-1	9.620996E-1	9.658542E-1	1.019025E+0	9.948096E-1	9.942082E-1	1.005177E+0	1.001751E+0	9.845118E-1	9.837106E-1	9.512224E-1	9.836612E-1	9.644539E-1	9.879140E-1	9.742111E-1	1.004971E+0	1.006879E+0	9.875269E-1	9.578059E-1	9.954661E-1	9.720114E-1	9.914727E-1	1.005650E+0	9.819478E-1	1.004511E+0	9.584897E-1	9.793314E-1	9.725677E-1	1.017105E+0	1.004236E+0	9.892120E-1	9.628007E-1	9.918919E-1	9.580066E-1	9.604820E-1	1.004745E+0	9.961097E-1	9.963849E-1	9.317937E-1	9.781108E-1	9.910755E-1	9.939597E-1	9.740861E-1	9.911118E-1	9.792099E-1	9.691033E-1	9.641023E-1	9.493612E-1	9.712415E-1	9.640813E-1	9.772149E-1	9.974565E-1	1.008607E+0	9.463039E-1	9.858194E-1	1.009957E+0	9.703740E-1	9.955881E-1	9.792038E-1	9.921684E-1	9.592909E-1	1.023132E+0	9.946548E-1	1.015514E+0	9.903632E-1	9.983594E-1	9.663782E-1	9.992804E-1	1.019552E+0	9.602916E-1	1.026760E+0	9.830745E-1	9.503639E-1	1.006894E+0	9.610920E-1	9.840462E-1	9.861159E-1	1.012588E+0	9.958699E-1	9.820706E-1	9.953765E-1	9.735565E-1	9.477555E-1	9.528345E-1	9.381731E-1	1.021197E+0	9.999996E-1	9.285435E-1	9.598192E-1	9.524651E-1
5.595050E+2	9.601629E-1	9.789595E-1	1.006544E+0	1.031953E+0	9.780565E-1	1.015854E+0	9.704959E-1	9.998264E-1	9.582342E-1	1.051572E+0	9.990790E-1	1.001318E+0	9.990750E-1	9.574356E-1	1.034123E+0	1.035588E+0	1.026634E+0	9.268813E-1	9.977158E-1	9.716034E-1	1.016019E+0	9.754162E-1	9.875712E-1	1.002326E+0	9.684190E-1	9.561662E-1	1.000147E+0	1.016090E+0	9.909539E-1	9.445872E-1	1.026319E+0	9.746417E-1	9.686668E-1	9.659447E-1	9.972879E-1	1.037877E+0	9.834741E-1	1.025273E+0	1.001122E+0	9.868968E-1	1.018931E+0	9.677829E-1	9.979249E-1	9.795293E-1	9.973188E-1	9.642005E-1	9.919427E-1	1.025823E+0	9.817970E-1	9.831904E-1	9.503994E-1	9.731205E-1	9.604665E-1	1.020749E+0	9.994944E-1	1.000681E+0	9.678296E-1	9.772576E-1	1.006587E+0	9.609619E-1	1.006200E+0	9.919121E-1	1.000959E+0	9.912901E-1	9.867269E-1	1.070087E+0	9.443744E-1	9.591568E-1	9.755471E-1	9.949899E-1	9.955297E-1	1.004074E+0	9.628305E-1	1.012853E+0	9.658884E-1	9.929657E-1	1.027432E+0	1.003719E+0	9.800153E-1	9.794521E-1	9.942078E-1	9.699750E-1	9.430431E-1	1.001408E+0	9.837105E-1	9.867546E-1	9.882881E-1	9.844203E-1	1.015729E+0	9.798444E-1	9.925433E-1	1.002123E+0	9.572046E-1	9.837718E-1	1.054104E+0	9.635252E-1	9.540979E-1	9.511509E-1	1.021147E+0	1.017696E+0	1.005038E+0	1.007798E+0	1.016102E+0	9.705090E-1	9.598331E-1	1.040058E+0	9.397520E-1	1.003119E+0	1.013310E+0	9.951194E-1	1.009567E+0	9.943809E-1	9.840781E-1	9.508914E-1	9.998402E-1	9.670496E-1	1.000775E+0	9.987662E-1	1.002770E+0	9.672448E-1	9.913550E-1	1.001820E+0	9.758938E-1	9.919065E-1	9.825840E-1	1.020615E+0	1.025684E+0	1.007992E+0	9.658561E-1	1.015445E+0	9.529690E-1	1.001227E+0	9.950097E-1	9.785988E-1	1.008139E+0	9.604660E-1	9.603915E-1	9.819604E-1	9.587400E-1	1.000817E+0	1.014334E+0	9.695724E-1	9.948024E-1	1.003372E+0	1.020152E+0	9.772999E-1	9.287757E-1	1.005663E+0	1.002955E+0	9.976712E-1	1.015500E+0	9.838249E-1	9.752692E-1	9.674568E-1	9.695181E-1	1.027585E+0	9.951307E-1	9.693861E-1	9.693505E-1	1.021031E+0	9.819764E-1	9.488712E-1	9.872038E-1	1.011040E+0	1.001709E+0
5.600410E+2	9.379439E-1	9.704010E-1	9.714046E-1	1.013798E+0	9.988275E-1	1.001563E+0	9.866032E-1	9.603011E-1	1.019553E+0	9.981022E-1	9.520512E-1	9.855031E-1	9.779282E-1	1.001952E+0	9.663109E-1	9.896879E-1	9.458744E-1	9.863350E-1	9.429024E-1	1.033790E+0	9.736769E-1	1.006234E+0	9.616829E-1	9.610244E-1	1.001018E+0	9.809923E-1	9.735695E-1	9.536053E-1	9.462926E-1	1.002229E+0	1.029460E+0	9.439767E-1	9.981888E-1	9.561932E-1	9.681388E-1	1.005458E+0	9.627246E-1	9.520102E-1	9.945435E-1	9.794906E-1	9.651698E-1	9.895917E-1	1.010541E+0	9.770104E-1	1.000001E+0	9.484575E-1	9.882229E-1	9.793991E-1	1.007147E+0	9.383651E-1	9.861868E-1	1.001250E+0	9.949355E-1	9.371527E-1	1.008748E+0	1.007751E+0	1.001661E+0	9.554517E-1	9.483042E-1	9.969473E-1	9.612434E-1	9.919122E-1	1.031685E+0	9.670798E-1	1.000632E+0	1.028669E+0	9.784622E-1	1.030569E+0	9.955458E-1	9.775338E-1	9.478418E-1	9.942941E-1	9.495859E-1	9.915794E-1	9.993564E-1	9.807314E-1	9.570738E-1	9.780244E-1	9.486782E-1	9.271239E-1	1.010077E+0	9.851598E-1	1.009090E+0	9.774715E-1	9.767857E-1	9.664500E-1	9.720932E-1	9.880502E-1	9.700324E-1	1.012938E+0	9.968933E-1	9.946497E-1	1.011232E+0	9.794443E-1	9.942575E-1	1.007915E+0	9.760478E-1	9.797295E-1	1.018396E+0	9.580132E-1	9.857363E-1	9.278524E-1	9.922471E-1	9.705089E-1	9.972247E-1	9.738239E-1	1.014998E+0	9.345095E-1	9.988361E-1	9.900811E-1	9.679859E-1	9.494240E-1	1.025920E+0	1.002728E+0	1.026044E+0	9.739136E-1	9.859053E-1	9.481711E-1	9.817853E-1	9.654496E-1	1.002782E+0	1.007775E+0	1.016017E+0	1.013949E+0	9.907471E-1	9.858954E-1	1.015181E+0	9.569641E-1	1.037739E+0	9.691998E-1	9.743396E-1	9.766848E-1	9.377340E-1	9.435099E-1	9.712843E-1	9.922115E-1	1.000950E+0	9.672610E-1	9.765640E-1	1.007350E+0	1.004066E+0	1.004073E+0	9.442674E-1	9.728073E-1	9.630123E-1	9.979701E-1	1.027063E+0	1.012992E+0	9.661869E-1	1.002502E+0	9.828366E-1	9.918407E-1	1.010220E+0	9.912447E-1	9.808741E-1	1.008499E+0	9.693619E-1	9.910165E-1	1.004923E+0	9.786535E-1	1.007929E+0	9.934925E-1	9.814533E-1	9.174289E-1	1.081050E+0
5.604980E+2	1.021264E+0	9.753936E-1	9.979379E-1	9.796659E-1	9.961470E-1	1.023595E+0	1.039262E+0	1.050447E+0	9.782569E-1	1.012624E+0	1.010978E+0	9.848442E-1	9.990744E-1	1.088669E+0	1.052669E+0	9.965108E-1	9.853954E-1	1.008071E+0	1.046859E+0	1.011581E+0	9.640798E-1	1.004553E+0	1.016401E+0	1.016289E+0	1.051800E+0	1.062299E+0	1.008418E+0	1.026087E+0	9.802138E-1	1.096117E+0	1.001178E+0	9.669756E-1	9.770232E-1	1.125631E+0	1.023726E+0	9.922261E-1	9.846594E-1	1.058780E+0	9.993268E-1	1.007976E+0	9.835275E-1	9.849655E-1	9.972613E-1	1.033698E+0	1.009113E+0	9.926597E-1	1.001240E+0	1.020021E+0	9.823876E-1	9.325182E-1	9.981163E-1	1.003750E+0	1.019124E+0	1.023139E+0	9.815649E-1	9.767463E-1	1.042743E+0	1.029727E+0	9.929472E-1	1.003374E+0	1.007236E+0	9.792256E-1	9.985969E-1	9.977848E-1	9.943110E-1	1.047831E+0	9.611085E-1	9.962105E-1	9.999216E-1	9.859374E-1	1.019941E+0	1.008967E+0	9.833604E-1	9.837783E-1	1.019952E+0	1.005811E+0	1.022963E+0	1.024004E+0	1.013270E+0	1.026093E+0	1.024675E+0	9.982747E-1	9.997495E-1	9.950719E-1	9.711199E-1	1.064799E+0	1.054801E+0	1.027378E+0	1.005795E+0	9.537921E-1	1.000621E+0	9.939703E-1	1.013991E+0	9.812984E-1	9.755170E-1	1.035985E+0	9.748610E-1	1.007643E+0	1.003267E+0	9.947953E-1	1.013554E+0	1.021122E+0	9.707784E-1	1.050724E+0	9.832034E-1	1.026678E+0	1.003474E+0	1.031810E+0	9.766129E-1	1.007085E+0	1.005348E+0	1.007637E+0	9.920778E-1	1.019098E+0	9.576585E-1	1.039816E+0	9.821880E-1	9.981494E-1	1.004517E+0	1.006132E+0	1.011802E+0	1.007114E+0	9.810713E-1	1.031858E+0	1.019592E+0	9.645285E-1	1.016493E+0	9.588086E-1	1.029687E+0	9.901548E-1	1.020318E+0	9.647644E-1	9.955896E-1	1.032442E+0	1.007526E+0	1.048645E+0	9.933459E-1	1.015367E+0	1.011553E+0	9.877504E-1	1.000642E+0	9.868225E-1	9.672961E-1	1.013559E+0	1.006547E+0	9.662263E-1	9.968210E-1	9.790133E-1	1.025278E+0	1.039080E+0	1.001587E+0	9.849703E-1	1.002517E+0	9.932274E-1	9.820699E-1	1.010289E+0	9.807484E-1	9.952027E-1	1.012546E+0	1.033048E+0	9.946652E-1	9.916334E-1	1.052765E+0	1.074623E+0	9.798239E-1
5.610070E+2	9.816871E-1	1.063834E+0	9.821613E-1	9.811184E-1	1.002848E+0	1.002158E+0	1.005188E+0	9.755564E-1	1.018302E+0	9.584951E-1	1.022876E+0	9.980232E-1	9.980186E-1	1.027388E+0	9.529820E-1	9.673580E-1	9.888311E-1	1.031085E+0	1.004017E+0	9.728725E-1	9.832765E-1	9.933477E-1	1.000515E+0	9.592776E-1	9.916150E-1	1.103261E+0	1.017866E+0	1.004842E+0	1.006219E+0	1.102655E+0	1.031974E+0	9.752306E-1	1.017128E+0	1.064682E+0	1.021693E+0	9.928874E-1	1.003038E+0	1.051398E+0	1.008897E+0	1.006837E+0	9.959842E-1	1.110529E+0	9.514435E-1	1.012282E+0	9.924969E-1	1.192470E+0	9.838854E-1	1.017700E+0	1.013044E+0	1.184580E+0	1.072204E+0	1.055635E+0	9.997730E-1	1.036276E+0	9.913968E-1	1.030051E+0	1.001057E+0	1.037904E+0	9.526442E-1	9.757421E-1	9.767446E-1	9.900092E-1	9.820521E-1	1.010776E+0	1.023386E+0	1.017541E+0	1.014411E+0	1.010358E+0	9.655462E-1	1.022144E+0	9.836072E-1	9.894037E-1	1.029057E+0	9.547039E-1	9.948513E-1	1.002753E+0	9.877846E-1	9.672064E-1	9.659455E-1	1.006185E+0	9.650094E-1	9.906818E-1	9.517161E-1	9.535353E-1	1.000079E+0	1.005155E+0	9.651526E-1	9.874452E-1	1.003808E+0	9.861812E-1	1.016778E+0	9.674735E-1	1.005168E+0	9.911902E-1	9.682631E-1	1.013138E+0	1.015796E+0	1.028246E+0	1.005329E+0	1.000347E+0	9.777904E-1	1.016277E+0	1.013120E+0	9.728690E-1	1.039875E+0	9.738243E-1	9.783922E-1	1.033057E+0	9.497372E-1	1.033535E+0	9.824488E-1	9.995687E-1	9.785402E-1	1.019779E+0	9.876970E-1	9.938218E-1	9.852857E-1	1.029616E+0	1.005100E+0	9.696375E-1	1.021425E+0	9.720431E-1	1.017311E+0	9.795070E-1	1.011429E+0	9.985809E-1	9.639758E-1	1.015984E+0	1.022786E+0	9.626962E-1	9.523212E-1	9.780870E-1	9.967452E-1	9.737590E-1	9.823404E-1	9.969142E-1	1.016160E+0	9.405361E-1	1.012873E+0	9.576964E-1	9.356004E-1	1.000240E+0	1.021669E+0	9.596234E-1	9.977041E-1	9.994465E-1	9.713902E-1	9.723501E-1	9.589646E-1	1.003192E+0	9.544076E-1	1.015315E+0	9.657912E-1	1.000496E+0	1.009562E+0	9.828527E-1	1.030489E+0	1.022416E+0	1.036684E+0	9.615758E-1	9.963954E-1	9.739707E-1	9.642000E-1	9.721814E-1	1.020860E+0
