Photon Energy (eV)	#1	#2	#3	#4	#5	#6	#7	#8	#9	#10	#11	#12	#13	#14	#15	#16	#17	#18	#19	#20	#21	#22	#23	#24	#25	#26	#27	#28	#29	#30	#31	#32	#33	#34	#35	#36	#37	#38	#39	#40	#41	#42	#43	#44	#45	#46	#47	#48	#49	#50	#51	#52	#53	#54	#55	#56	#57	#58	#59	#60	#61	#62	#63	#64	#65	#66	#67	#68	#69	#70	#71	#72	#73	#74	#75	#76	#77	#78	#79	#80	#81	#82	#83	#84	#85	#86	#87	#88	#89	#90	#91	#92	#93	#94	#95	#96	#97	#98	#99	#100	#101	#102	#103	#104	#105	#106	#107	#108	#109	#110	#111	#112	#113	#114	#115	#116	#117	#118	#119	#120	#121	#122	#123	#124	#125	#126	#127	#128	#129	#130	#131	#132	#133	#134	#135	#136	#137	#138	#139	#140	#141	#142	#143	#144	#145	#146	#147	#148	#149	#150	#151	#152	#153	#154	#155	#156	#157	#158	#159	#160	#161	#162	#163	
2.790040E+2	-6.461581E-3	-1.242188E-2	-6.933096E-3	8.192446E-3	-8.774694E-3	-8.998195E-3	-5.028539E-3	-2.611012E-3	-3.785922E-3	-4.519267E-3	-7.350937E-3	-9.720433E-3	-9.920511E-3	-6.812833E-3	-1.132720E-2	-1.213106E-2	-7.799002E-3	-8.122383E-3	-6.368199E-3	-3.134736E-3	1.229083E-3	-8.530784E-3	-9.975836E-4	-4.965462E-4	-1.155872E-2	-9.216234E-3	-4.184362E-3	-9.913267E-3	-2.765686E-3	-9.287537E-3	-3.070444E-5	-2.793467E-3	-3.847493E-3	-5.222589E-3	-8.917292E-3	2.716275E-3	2.657645E-3	-3.537866E-3	3.565167E-4	-4.315926E-3	-9.341238E-3	-1.102519E-2	7.780264E-4	-1.101826E-2	1.450159E-3	-4.760736E-3	-8.931478E-3	-6.072000E-3	-1.050377E-2	4.841606E-3	8.012614E-4	-1.072396E-2	-1.633213E-3	-7.536941E-3	9.047040E-3	-1.325846E-2	-6.079688E-3	-3.949143E-3	-1.393637E-2	4.505129E-3	6.733310E-3	-8.836911E-3	-8.652799E-3	-8.109663E-4	-1.056220E-2	8.376267E-3	4.663121E-3	-2.951356E-3	-4.426964E-3	-8.529292E-3	-1.132882E-2	-6.684735E-3	-4.698396E-3	-3.313385E-3	1.464589E-3	-5.973931E-3	-9.641744E-3	-1.187853E-2	-1.914857E-3	1.640957E-3	-4.592351E-3	-7.358902E-3	-1.063367E-2	-1.273610E-2	-1.199334E-2	-1.174385E-2	-1.916290E-2	-1.135456E-2	-7.729575E-3	-1.310752E-2	-4.476409E-3	-1.818143E-3	-8.926462E-3	-1.142502E-2	-2.674015E-3	-6.675209E-3	1.222213E-3	-3.405497E-4	-3.039743E-3	-8.823779E-4	-1.100982E-2	-3.831982E-3	-6.448395E-3	-4.686723E-3	-1.024124E-2	-1.032990E-2	-6.270720E-4	-8.005512E-3	-6.878213E-3	-9.762882E-3	-1.065114E-2	-3.560982E-3	-3.067125E-3	-5.879981E-3	-5.865877E-4	-6.662665E-3	-7.627996E-3	-5.962625E-3	1.115983E-2	-3.149854E-3	-6.811486E-3	-6.728450E-3	-6.593084E-3	-1.506041E-3	-2.141993E-2	-6.358204E-3	-9.965292E-3	-2.842963E-3	-1.495477E-3	-1.229082E-2	-3.931381E-3	-1.136897E-2	-1.482016E-3	-2.200510E-3	-5.259825E-3	3.514880E-3	2.336436E-3	-6.584770E-3	-3.395293E-3	-4.744315E-3	-1.119374E-2	-9.136721E-3	-9.867685E-3	-1.006140E-2	-2.910753E-3	-6.144654E-3	-9.639740E-3	-4.876191E-3	-3.662617E-3	-5.190885E-3	-5.043756E-4	-1.005861E-2	-9.032304E-3	-7.816965E-3	-7.612637E-3	-1.402567E-2	-1.260350E-2	-2.337632E-3	3.550323E-4	-5.500836E-3	-2.144417E-3	-4.623829E-3	-1.599692E-2
2.795040E+2	5.335863E-3	-1.783054E-2	4.905718E-3	-2.097380E-2	-9.550005E-3	-1.237584E-2	-5.789322E-3	-2.191241E-3	-2.039921E-2	3.202124E-4	-2.099720E-3	-1.101942E-2	-1.713417E-2	-8.831969E-3	-1.222977E-2	-5.967427E-4	-1.514004E-2	-5.564635E-3	-6.552690E-3	-2.963663E-3	5.865879E-3	-9.077609E-3	-5.717055E-3	-6.553576E-3	-4.221864E-3	-6.168081E-3	5.633543E-4	-1.835186E-3	-5.736608E-3	-2.928221E-3	-5.433322E-3	-2.620348E-3	-4.762165E-4	-1.377819E-2	-3.512696E-3	-2.755517E-3	-1.219282E-2	2.808861E-4	5.069768E-4	2.153766E-3	1.942775E-3	-6.822130E-3	9.560387E-4	1.230957E-4	-1.276455E-2	8.744719E-6	-8.016252E-3	-8.877272E-3	-7.840444E-3	1.573793E-3	1.081143E-2	3.152899E-4	-5.499617E-3	-8.314446E-4	-8.185911E-3	-2.131657E-3	-8.349192E-4	-1.283377E-3	6.991420E-3	1.558776E-4	-4.344217E-3	-4.723159E-3	-4.636413E-3	-1.207459E-2	-5.831594E-3	-3.448988E-3	-8.891615E-3	-1.229653E-3	3.641347E-4	-6.088126E-3	-2.105804E-3	1.492870E-3	7.073908E-3	-1.035315E-2	-1.405318E-2	-7.616061E-3	-5.689655E-3	-1.264251E-2	-4.567956E-3	-8.646281E-3	-6.901228E-3	1.999467E-3	-1.135651E-2	2.803517E-3	-5.820162E-3	-7.338516E-3	-4.288247E-3	-3.203167E-3	-6.767412E-3	2.933207E-3	-5.997706E-3	-3.367700E-3	3.172356E-4	-1.860725E-3	8.023662E-4	-1.772274E-2	3.978862E-3	-8.404960E-3	-1.626677E-2	-9.155707E-3	-1.497540E-2	-1.653046E-2	-1.804438E-2	-1.786929E-2	1.990196E-4	-2.333238E-3	-7.161109E-3	-6.985966E-3	-3.557914E-3	4.854957E-4	6.431164E-3	-4.956878E-3	-1.726031E-2	1.568843E-2	-2.249650E-3	4.584420E-3	-2.750748E-3	-3.535954E-3	-1.102726E-2	-5.413685E-3	5.411134E-3	-1.233786E-2	-1.018913E-2	-2.251138E-3	1.006784E-3	-7.031966E-3	-8.954845E-3	-2.714200E-3	-8.699451E-3	-7.899838E-3	-8.321969E-4	-5.305432E-3	-2.896580E-3	-7.854617E-3	-4.292589E-4	-1.147694E-3	-5.222904E-3	-2.757450E-3	4.378862E-3	-3.659365E-3	1.149738E-2	-1.127475E-2	5.890102E-3	5.147903E-3	-1.462167E-2	-1.349100E-2	-1.127972E-2	1.029265E-3	-8.306058E-3	-3.625912E-3	-9.552636E-3	-3.962336E-3	-2.636977E-3	-1.228341E-2	-1.014329E-2	1.641913E-3	4.095366E-3	-2.210900E-3	5.799308E-3	-2.897654E-3	-4.606228E-3	5.457599E-3	-8.371339E-3
2.800030E+2	-1.666752E-3	-7.758160E-3	-5.386859E-3	-5.910804E-3	-2.629827E-3	-2.711817E-3	1.101595E-3	-9.700542E-3	-2.639093E-4	-4.494920E-3	-5.489597E-3	2.718035E-3	-1.970509E-4	8.380726E-3	-2.566643E-3	1.404002E-3	2.921880E-3	-2.448783E-3	-2.295597E-3	-6.218743E-3	-1.002591E-3	-5.126798E-4	2.866371E-3	-9.661448E-3	-3.379214E-4	-4.558238E-4	3.957391E-4	4.929939E-4	-1.218809E-3	-1.664412E-3	-6.784021E-3	-6.326192E-3	-7.868253E-3	-1.230642E-2	2.197059E-3	-5.172523E-3	-2.819483E-3	-6.410303E-3	-7.862914E-3	-8.897972E-3	4.418828E-3	4.570633E-4	-1.136513E-2	3.318680E-4	-6.461639E-3	1.474596E-3	1.076229E-3	1.959956E-3	5.523540E-4	-3.655629E-3	5.784510E-3	-9.009495E-3	3.983957E-3	1.221438E-3	2.360150E-4	6.416075E-3	-1.116235E-2	1.118559E-3	-1.337945E-3	6.302202E-3	-9.286409E-3	-9.661477E-3	-2.027030E-3	6.274653E-4	-1.344161E-3	-6.183818E-3	-6.511793E-3	-5.539267E-3	-1.407278E-3	-2.324941E-3	2.219667E-4	-3.543857E-3	-1.055963E-2	1.114411E-3	-4.998642E-3	-9.490319E-3	-3.527300E-3	-6.203580E-3	-1.122541E-2	-8.764667E-3	1.945135E-4	1.779745E-3	-5.869079E-3	-8.699342E-3	-6.199119E-4	4.309876E-4	-1.113264E-4	-2.541963E-3	-7.812709E-3	-1.010605E-3	-2.766122E-3	5.624736E-3	6.798179E-3	-5.626426E-3	6.445553E-4	1.252964E-3	-4.098347E-3	7.663973E-3	-4.866596E-3	2.691342E-3	4.262664E-3	-1.023388E-2	-9.805349E-3	-5.534627E-3	-1.541205E-2	-2.489357E-3	-4.457462E-3	-4.371011E-3	-8.490718E-3	-7.263062E-3	-3.410799E-3	-6.619092E-3	-1.417804E-3	-3.339449E-3	-2.407686E-3	-1.607391E-2	1.849176E-3	-7.505303E-3	4.886688E-3	-1.575740E-3	8.412602E-5	-1.887735E-3	-1.795826E-4	-6.747652E-3	-4.105680E-3	-4.004480E-3	-9.441569E-4	-3.613739E-3	-3.143393E-3	1.167529E-2	5.913850E-3	-2.034733E-3	-6.953051E-3	4.310492E-3	1.068856E-2	-6.868292E-3	-1.952712E-3	-7.328478E-3	-1.106273E-2	-1.051772E-2	-8.705657E-3	-3.164813E-3	-7.287217E-3	8.313060E-3	-5.648862E-4	-1.277895E-2	4.978740E-3	-2.887591E-3	-6.056533E-3	5.534028E-3	-7.854422E-3	-4.099088E-3	-2.773425E-3	-7.059758E-3	-1.511717E-3	-6.271571E-3	-2.381101E-3	-4.623664E-3	-1.026809E-2	-5.603007E-4	-2.158760E-3	-5.750536E-3	1.550901E-2
2.805050E+2	-8.460528E-3	8.880116E-4	-6.749488E-4	-5.364461E-4	-1.717875E-3	-6.857108E-3	-4.468534E-3	1.581844E-4	-7.269580E-3	-5.234613E-3	3.695887E-3	7.662362E-3	-4.215359E-3	-6.025455E-3	-4.179373E-4	1.448218E-3	-1.166066E-3	4.901662E-3	-1.467474E-3	-1.390181E-3	-8.430006E-3	-5.125449E-3	1.125537E-2	-6.474695E-3	3.686589E-3	-2.583953E-3	-1.179141E-2	5.024717E-4	-1.172746E-3	1.161939E-3	-2.923689E-3	-6.274504E-3	-4.548803E-3	1.959456E-3	-1.048611E-2	-8.334157E-3	3.552818E-3	-4.964116E-3	-7.884074E-4	-1.696869E-3	-2.412645E-3	-2.751786E-3	6.590055E-3	-2.133831E-3	-2.800468E-5	-1.344488E-5	-1.655398E-2	2.026150E-3	-8.673091E-3	-2.167542E-4	-1.434130E-2	-2.180308E-3	-4.807987E-3	3.393761E-3	2.080657E-3	-2.056412E-3	6.746751E-3	1.042882E-2	-4.614539E-3	2.088961E-4	1.972756E-3	-1.121138E-2	-1.669912E-3	-1.295855E-2	1.103516E-2	-1.931321E-3	-9.670667E-3	1.205872E-3	-6.063050E-3	-3.836874E-3	4.691874E-3	-3.325692E-3	2.272007E-4	-7.723598E-3	-1.162247E-2	-1.433099E-3	4.886663E-3	-3.831755E-4	2.410091E-3	8.997991E-3	1.049347E-3	1.829038E-3	6.078650E-3	1.068102E-3	9.375993E-4	-5.958610E-3	1.468467E-2	7.935508E-3	3.559119E-3	-5.510344E-3	3.149390E-3	-5.960283E-3	-3.116017E-3	-1.955048E-3	-9.847148E-4	-1.877354E-3	-5.515685E-4	-1.392247E-2	4.007238E-3	1.792592E-3	2.683223E-3	1.778105E-4	-1.060955E-2	-4.661538E-3	3.507750E-3	4.535165E-3	6.943113E-3	5.724654E-3	5.134585E-3	1.194934E-3	-4.988464E-3	-1.230766E-3	5.337735E-3	-6.727096E-3	-5.895170E-4	1.899264E-3	1.904424E-3	1.770799E-3	4.744418E-4	-9.485080E-3	-6.784449E-3	-1.412713E-2	4.460748E-3	-6.095838E-4	2.547814E-3	3.137711E-3	-9.051222E-3	-1.245991E-3	-6.577826E-4	-1.986597E-3	-8.875477E-3	2.263410E-3	2.476673E-3	-6.471166E-3	-7.133158E-3	-1.480963E-2	1.508484E-3	-2.081951E-3	3.293296E-3	4.848704E-3	-3.652262E-3	2.123402E-3	-7.249185E-3	1.705232E-3	1.129058E-2	2.174026E-3	4.166715E-3	-9.686338E-4	2.703269E-3	4.180998E-3	9.561119E-3	-7.421106E-3	4.356274E-3	-1.327834E-4	-2.337428E-3	1.960897E-2	-4.681983E-3	7.628956E-4	3.735944E-4	1.955994E-3	1.085195E-2	-3.493496E-3	3.558245E-3
2.810040E+2	-5.654592E-3	1.637983E-2	7.564710E-4	-1.132096E-2	-9.592846E-4	-2.772961E-3	3.141429E-3	-4.045833E-3	3.148771E-3	7.840635E-3	7.486969E-3	-6.338693E-3	5.253721E-4	-1.081057E-3	1.062347E-2	-5.039601E-3	-1.297722E-3	-1.718861E-3	1.515208E-3	-5.497028E-3	-4.796436E-3	2.099933E-3	-3.424635E-3	2.062953E-3	2.765890E-3	-9.235254E-3	1.767829E-3	-5.882320E-3	-2.834923E-3	-1.720739E-3	-1.293376E-2	3.016599E-3	-7.320283E-4	1.795942E-3	-4.827486E-3	3.526250E-4	3.405812E-3	6.650726E-3	2.724142E-3	2.958661E-3	-4.214078E-3	-3.701833E-3	-9.181678E-3	-1.411997E-3	2.226196E-3	-1.093235E-2	-2.394914E-3	-3.841237E-3	-4.625444E-3	1.381816E-3	-2.208659E-3	1.073004E-3	7.107399E-3	-1.554764E-2	-5.900983E-3	2.590152E-4	-2.702534E-3	1.081055E-3	-8.660171E-4	-1.334861E-2	-1.330550E-3	-1.061210E-4	-8.529065E-3	-1.677411E-3	-8.324210E-3	-2.815226E-3	-2.983088E-3	-5.510897E-3	-1.436496E-3	3.096425E-3	-7.985607E-3	7.097568E-4	-6.480684E-3	2.398556E-4	2.956201E-3	3.812263E-3	2.090190E-4	3.552163E-4	-5.590395E-3	-5.477703E-3	-1.351028E-2	-4.991293E-3	3.959909E-3	1.752412E-4	8.440870E-3	4.036816E-3	1.974593E-3	-5.654329E-3	1.742872E-3	-2.532204E-3	2.760935E-3	-1.260238E-2	-1.065280E-2	2.329199E-3	-6.902232E-3	-1.930942E-3	-2.404921E-3	-1.399393E-3	1.943965E-3	-1.298134E-2	6.640079E-3	-2.287572E-3	1.822603E-4	-1.265161E-3	4.272463E-3	-6.890208E-3	-1.188625E-2	-8.884981E-3	2.640212E-3	-2.271024E-3	-1.311885E-3	1.758682E-3	-3.978790E-3	1.027673E-2	-1.276932E-3	3.560395E-3	-7.680361E-3	-2.157534E-3	-8.068211E-3	-5.492802E-3	-1.673950E-3	2.851864E-3	6.098321E-3	4.610954E-3	-2.505396E-3	5.403680E-3	5.510574E-3	1.025983E-3	-4.004501E-3	-8.067680E-3	-1.294905E-2	8.100648E-3	-1.167781E-2	-8.723883E-3	-4.424140E-3	4.243072E-3	-7.972661E-3	4.492199E-3	6.964543E-3	4.708921E-3	-9.585900E-3	-3.198949E-3	6.519484E-3	1.596873E-3	-2.971969E-3	-7.865951E-3	3.193089E-3	-1.045295E-2	2.174316E-4	-9.499755E-3	2.906635E-4	-1.625183E-3	-8.306687E-3	-9.991831E-4	4.545007E-3	-9.761321E-3	-4.788495E-3	-9.625246E-5	2.548677E-4	-8.761549E-3	-1.255838E-2	-1.572860E-2	-7.066650E-3
2.815060E+2	5.173656E-3	-6.358406E-4	-2.969386E-3	-4.082499E-3	-1.315404E-2	6.485055E-3	-5.823075E-3	-4.735897E-3	-1.970166E-3	-2.870460E-3	-4.739812E-3	-2.109409E-3	-1.228622E-4	3.436602E-3	1.041756E-3	5.765398E-3	5.239688E-4	-9.705650E-3	-4.540890E-3	2.466936E-4	5.070899E-3	-3.934667E-4	-3.926590E-3	6.170022E-3	-1.869551E-3	4.748708E-3	-2.171219E-4	-2.565667E-3	-5.007482E-3	-1.548509E-3	3.996192E-3	-7.678034E-3	-7.006124E-3	-1.969457E-3	2.762322E-3	1.344912E-3	4.256816E-4	2.418935E-4	-4.236439E-3	7.515559E-4	-8.378391E-3	2.194847E-3	-6.799245E-3	-3.805371E-3	3.942067E-6	1.572411E-3	1.352168E-2	-2.239901E-3	3.160432E-3	-6.127846E-3	-6.683605E-3	-4.637295E-3	-9.572651E-3	-2.286934E-3	-1.941768E-6	-1.154106E-3	-8.321242E-4	-4.443910E-4	8.155397E-4	-6.932760E-3	-6.781378E-3	6.494077E-3	5.241244E-3	1.581652E-3	-1.992917E-3	1.607201E-3	3.665071E-3	3.819092E-3	-2.041116E-3	-4.531786E-3	3.802708E-3	1.700519E-3	5.345139E-3	7.612953E-3	7.769148E-3	8.405655E-3	1.911847E-3	1.207338E-2	-4.580600E-3	-7.730911E-3	-1.176226E-2	-5.648071E-3	3.351592E-3	-2.895505E-3	-7.358668E-3	-1.232916E-2	-8.343314E-3	-1.450570E-3	-1.123288E-2	-1.596114E-3	-8.361053E-3	-5.814254E-3	-1.052066E-2	8.346185E-3	-2.667890E-4	1.428283E-3	-5.772226E-3	5.686421E-4	-9.470567E-3	-3.554025E-3	-2.046906E-3	5.074916E-3	4.242091E-3	6.499211E-3	-6.695607E-4	-5.847881E-4	-6.583973E-3	-4.106613E-3	-6.769600E-3	-3.761005E-3	-1.011606E-2	-3.370965E-3	1.213291E-3	-7.516200E-3	-7.586903E-3	-6.426505E-3	-5.128827E-3	-4.287420E-3	-9.082565E-3	1.013667E-2	-6.221628E-4	-1.798895E-3	-1.403780E-2	-2.879122E-3	-3.967054E-3	-6.870200E-4	1.055342E-2	-2.589792E-4	-1.034170E-2	-1.890481E-3	7.977176E-4	-4.415305E-3	-2.895086E-3	1.586231E-4	-3.175493E-3	-2.502254E-3	-4.359890E-3	-3.451285E-3	-8.643226E-3	-1.305514E-2	-5.232007E-3	-2.242408E-3	-3.587857E-4	-1.482832E-2	-2.797762E-3	1.454349E-3	2.130066E-3	-6.528767E-3	-3.732823E-4	-7.201033E-4	3.300875E-3	7.880604E-3	8.386084E-3	-7.679236E-3	1.519489E-3	4.233136E-3	7.256549E-3	3.142706E-3	-5.096069E-3	-4.484004E-3	-1.241146E-2	3.214193E-3	3.633126E-3
2.820030E+2	1.414357E-2	1.090380E-3	1.089729E-3	1.124756E-2	8.170661E-3	6.666234E-3	7.748462E-3	6.075118E-3	8.758586E-3	-1.174265E-3	1.958231E-3	2.960589E-3	7.363522E-3	-9.468983E-3	3.319233E-3	1.640575E-3	2.344299E-3	-7.966710E-3	-3.604283E-3	-5.202196E-3	-7.670486E-4	2.447251E-3	-1.639772E-3	6.333972E-3	3.100709E-3	5.444375E-4	8.622188E-3	5.567572E-3	3.668402E-3	6.978760E-4	3.340591E-4	6.304533E-3	8.481457E-3	-2.283482E-4	-4.144123E-4	5.571890E-3	-4.991664E-3	3.322367E-3	3.060121E-3	1.695323E-3	6.324990E-3	1.219900E-2	8.067816E-4	-1.139565E-3	-7.083567E-3	1.179495E-2	2.262690E-3	-2.089679E-3	4.191727E-3	-5.536045E-6	-1.039087E-2	1.320673E-2	6.703509E-3	-5.069857E-3	-5.675512E-4	2.148668E-3	4.452934E-3	-6.191993E-3	-5.974675E-3	-1.381067E-3	2.221389E-3	9.109152E-3	6.227673E-3	1.174124E-2	-4.153205E-3	9.733037E-4	4.676838E-3	4.848191E-3	5.689280E-4	9.756608E-3	1.946224E-3	1.057362E-3	5.793158E-4	-1.179150E-3	1.029944E-2	4.186454E-3	-7.164581E-3	4.863717E-3	1.244219E-2	8.547513E-3	6.178008E-3	8.127554E-3	1.147301E-3	7.872958E-3	5.002570E-3	6.580949E-3	-2.093941E-4	6.821489E-3	5.636707E-3	3.911657E-3	8.742495E-3	1.851538E-3	9.620125E-3	2.695529E-3	5.630981E-3	1.440922E-2	4.966423E-3	4.430999E-3	-5.965961E-3	-3.393701E-3	1.028330E-2	1.007285E-2	2.194878E-3	6.699037E-3	5.553401E-3	-5.685464E-3	5.677120E-3	1.357988E-2	-1.791060E-3	8.274410E-3	4.123273E-3	1.139366E-2	-2.003821E-3	-5.658626E-3	-5.792368E-3	-1.101812E-3	4.593619E-3	2.061773E-3	-2.892535E-3	6.783239E-4	3.004708E-3	8.271904E-3	-3.562188E-3	-3.602848E-3	4.502600E-3	1.069014E-3	1.413210E-2	-4.771231E-3	-1.209566E-3	7.755867E-3	2.016945E-3	4.327261E-3	-5.063706E-3	9.092919E-3	2.978197E-3	-2.240808E-3	6.969599E-3	5.691720E-3	1.797869E-3	1.433894E-2	-3.113532E-5	6.967877E-3	-4.428506E-3	-2.885198E-3	2.900996E-3	1.165254E-2	3.531432E-3	7.017122E-3	-5.751544E-3	-3.391052E-3	6.270362E-3	-1.799346E-3	-1.034749E-2	7.883299E-3	1.003860E-3	2.998683E-3	-6.767766E-3	5.662866E-3	3.847829E-4	-2.573478E-3	5.971730E-3	5.633810E-3	-8.324281E-4
2.825040E+2	-1.493460E-3	7.405632E-3	-1.236856E-3	1.438233E-3	1.349416E-2	-3.312565E-4	6.363264E-3	1.988584E-3	1.142872E-2	-4.284510E-3	2.641190E-3	7.132733E-3	8.200801E-3	6.536482E-3	7.562206E-3	5.976156E-3	5.674898E-3	6.727253E-3	1.520665E-2	8.460073E-3	7.475872E-4	6.497392E-3	4.675723E-4	1.602708E-3	7.944780E-3	1.080346E-2	5.027886E-3	-3.995620E-3	3.682214E-3	1.254560E-2	3.414109E-3	5.594933E-3	1.415134E-2	9.287868E-3	1.207344E-2	-2.552655E-3	-4.939161E-3	4.495897E-4	1.005598E-3	-6.754335E-4	7.247777E-3	9.766798E-3	1.439023E-2	6.600093E-3	1.299562E-2	-6.101487E-4	5.886207E-3	1.030437E-2	5.063491E-3	7.706645E-3	5.047798E-3	2.258861E-3	-7.781730E-3	1.185709E-2	-4.119272E-3	5.363905E-3	7.882932E-3	-1.948755E-3	1.768176E-3	7.651691E-3	6.170520E-4	1.314485E-2	5.527054E-3	8.716819E-3	9.822966E-3	2.691750E-3	3.876233E-3	3.180086E-3	1.403118E-2	-1.227277E-3	8.836057E-3	-3.019601E-3	4.778014E-3	1.321834E-2	1.039392E-3	7.725051E-3	6.051082E-3	4.856444E-3	4.870301E-3	-1.930270E-3	1.752037E-2	-3.446473E-4	1.393154E-2	2.987454E-3	5.778020E-3	5.874684E-3	1.256199E-2	6.018499E-3	1.532330E-2	1.155376E-2	3.121360E-3	3.532795E-3	1.796929E-2	4.909321E-3	7.345090E-4	4.018154E-3	-5.633018E-3	2.612620E-3	1.429368E-2	2.450201E-2	3.804852E-3	1.329940E-2	1.118709E-2	1.509416E-2	1.246005E-3	8.395585E-3	1.434183E-2	8.046707E-3	1.028709E-2	5.750032E-3	1.277301E-2	6.811654E-3	9.817539E-3	-3.924828E-3	8.208680E-3	3.220877E-3	-9.644956E-4	8.284908E-3	1.305168E-2	6.977334E-4	1.084041E-2	6.670071E-3	7.620554E-3	-9.485028E-4	1.199835E-2	-2.883634E-3	-3.485840E-3	1.629172E-2	1.189683E-2	1.122258E-2	1.231791E-2	5.200587E-3	1.698060E-2	5.487177E-3	-1.591223E-3	5.065682E-3	-7.431002E-4	1.020713E-2	9.091172E-3	3.675804E-3	5.862652E-3	1.377025E-2	6.832712E-3	1.338835E-3	2.124244E-3	1.167303E-2	-4.518819E-3	5.131295E-3	7.021929E-3	8.172208E-3	-2.240201E-3	1.017370E-2	1.498951E-2	1.866810E-2	-1.303939E-3	-7.439226E-3	8.327971E-3	-1.215122E-3	4.596651E-3	1.556992E-2	9.467349E-3	8.987975E-3	3.702885E-3
2.830070E+2	-9.161720E-4	1.288257E-2	1.044923E-2	2.194628E-2	1.512090E-2	2.089589E-2	2.754720E-3	1.506264E-2	1.035271E-2	1.441719E-2	3.897789E-3	8.714239E-3	1.550026E-2	1.386649E-2	3.994889E-3	1.533059E-3	1.393778E-2	2.389811E-2	8.107277E-3	1.569978E-2	2.082635E-3	1.259541E-2	1.116326E-3	7.016610E-3	4.900887E-4	1.156274E-2	-1.841080E-4	1.762902E-2	1.138564E-2	2.744008E-3	2.036113E-2	1.077648E-2	1.846117E-3	2.046174E-2	1.112518E-2	8.829150E-3	1.490117E-2	3.966822E-3	5.234406E-3	8.026894E-3	4.411983E-3	-3.167718E-4	3.824915E-3	1.245397E-2	9.661846E-3	1.465970E-3	1.314982E-2	8.829615E-3	1.867474E-2	-5.498095E-3	1.117943E-2	9.697175E-3	1.150033E-2	1.480053E-2	7.411947E-3	4.412972E-3	2.529003E-3	1.189221E-3	1.715441E-2	2.838639E-3	1.019805E-2	5.790962E-3	8.519247E-3	4.854347E-3	1.135016E-2	7.308321E-4	1.117590E-2	2.177933E-3	4.106665E-4	1.368526E-2	1.921407E-3	1.161338E-2	3.735135E-3	3.837244E-4	7.145528E-3	3.839865E-4	1.296467E-2	8.959043E-3	8.156635E-3	1.336337E-2	1.182388E-2	4.607110E-3	-6.097298E-4	9.423679E-3	5.633022E-3	2.044670E-2	2.893924E-3	3.429095E-3	7.280579E-3	5.358163E-3	3.827112E-3	1.855369E-2	-1.488883E-3	2.586986E-3	3.015339E-3	7.097625E-3	8.292582E-3	8.791140E-3	1.936476E-2	9.812087E-4	3.580136E-4	4.258926E-3	2.710136E-2	5.724934E-3	1.154421E-2	1.538220E-2	3.753800E-3	5.002843E-3	9.425618E-3	7.353101E-3	7.150907E-3	-2.253123E-4	1.135929E-2	7.081014E-3	1.228096E-2	1.699994E-2	1.580521E-2	1.133135E-2	1.497926E-3	1.360443E-2	-3.448332E-3	1.908623E-2	1.638216E-2	1.393393E-2	1.194252E-2	1.135490E-2	2.205266E-3	-1.870595E-3	1.765504E-2	1.481685E-3	5.541685E-3	3.232533E-3	1.151098E-2	6.200965E-3	8.346345E-3	1.474505E-2	9.436748E-3	1.812890E-3	-2.424492E-3	4.404171E-3	2.104067E-2	6.156107E-3	9.949082E-3	9.673020E-3	7.551215E-3	1.332660E-2	7.438239E-3	1.253645E-2	1.420740E-2	4.540472E-3	7.286156E-4	1.091136E-2	5.365018E-3	9.419937E-3	1.584065E-2	9.015091E-3	1.154296E-2	9.151038E-4	3.599919E-3	7.251908E-3	7.588221E-3	6.302882E-3	5.864078E-3
2.835050E+2	2.020769E-2	1.331538E-2	1.651960E-2	3.441577E-2	1.819138E-2	1.140421E-2	8.799866E-4	1.284685E-2	2.336928E-2	1.806008E-2	1.712567E-2	7.353150E-3	1.087525E-2	3.021023E-2	2.690055E-2	1.426436E-2	-3.659499E-3	1.433139E-2	1.338639E-2	5.420819E-3	1.470052E-2	1.797425E-2	1.305319E-2	1.874055E-2	8.954833E-3	1.585230E-2	1.500839E-2	2.970818E-2	1.256408E-2	2.683647E-2	2.334611E-2	1.353515E-2	1.292433E-2	1.126357E-2	1.138838E-3	1.341974E-2	7.998263E-3	1.792556E-2	6.363271E-3	9.198520E-3	2.320002E-2	2.443377E-2	1.195901E-2	8.366981E-3	8.277695E-3	2.964181E-2	1.741795E-2	1.613055E-2	7.775341E-3	1.745661E-2	1.401640E-2	1.432589E-2	6.019818E-3	1.828212E-2	2.122481E-2	-2.948355E-4	7.106457E-3	1.165030E-2	1.916134E-2	1.536268E-4	1.637109E-2	7.784523E-3	9.698841E-3	6.090218E-3	1.822360E-2	2.117418E-2	1.838355E-2	7.719911E-3	7.132101E-3	2.066640E-2	1.507900E-2	6.988896E-3	2.122875E-2	2.571139E-2	1.151494E-2	1.881236E-2	2.461567E-2	1.793810E-2	1.115360E-2	1.798782E-2	5.617919E-4	2.855571E-2	1.370627E-2	1.401205E-2	9.818672E-3	3.380378E-2	2.469316E-2	3.556404E-2	2.390551E-2	-4.589620E-3	1.411865E-2	1.902155E-2	1.325318E-2	1.116444E-2	1.425277E-2	2.479865E-2	1.672474E-2	1.542239E-3	7.653903E-3	1.171300E-2	2.150854E-2	1.358070E-2	7.009248E-3	1.295526E-2	1.465155E-2	1.402787E-2	1.380513E-2	1.372930E-2	7.330381E-3	7.732191E-3	1.554505E-2	8.790275E-3	2.037734E-2	1.979300E-2	1.102152E-2	6.814883E-3	2.460043E-2	2.455949E-2	1.736664E-2	8.266197E-3	1.626161E-2	7.018882E-3	1.684624E-2	-2.086728E-3	2.957061E-2	2.244768E-2	1.806530E-2	1.517428E-2	4.373002E-4	1.142326E-2	-3.930470E-3	2.465360E-2	1.776148E-2	1.492228E-2	7.973939E-3	1.014535E-2	1.420685E-2	1.905081E-2	1.528939E-2	1.966523E-2	8.636506E-3	1.739553E-2	1.195489E-2	1.006444E-2	1.932479E-2	1.209756E-2	3.442178E-2	1.872071E-2	8.124474E-3	3.442796E-3	1.464505E-2	9.482112E-3	1.220063E-2	8.260064E-3	7.565185E-3	7.612200E-3	7.176472E-3	2.571972E-2	9.067972E-3	1.871612E-2	1.598689E-2	1.659275E-2	-3.268131E-3
2.840030E+2	5.113323E-2	5.434602E-2	3.162591E-2	3.979102E-2	4.443150E-2	4.069220E-2	3.384999E-2	4.836915E-2	4.984058E-2	4.807364E-2	4.122154E-2	3.444082E-2	4.813732E-2	4.557947E-2	4.248043E-2	4.876896E-2	5.598100E-2	4.200361E-2	4.019860E-2	5.042215E-2	4.033506E-2	4.117867E-2	3.188394E-2	5.169169E-2	3.275856E-2	3.789950E-2	3.985129E-2	3.350985E-2	5.717352E-2	3.485726E-2	6.285164E-2	3.624505E-2	4.388059E-2	3.404130E-2	3.947210E-2	5.250047E-2	4.076461E-2	5.480301E-2	3.838830E-2	5.677175E-2	6.431449E-2	2.031964E-2	3.760564E-2	4.712621E-2	3.781857E-2	3.979991E-2	3.994638E-2	4.738957E-2	3.564208E-2	4.473870E-2	2.888314E-2	3.306718E-2	4.183611E-2	3.332097E-2	3.468628E-2	3.573584E-2	5.410262E-2	4.366082E-2	5.528711E-2	4.287400E-2	4.300318E-2	5.996002E-2	3.562973E-2	4.528606E-2	2.915830E-2	4.492303E-2	2.990689E-2	3.171541E-2	5.663539E-2	5.101775E-2	3.808540E-2	5.646347E-2	3.651519E-2	3.175153E-2	3.135637E-2	4.261972E-2	4.553665E-2	5.689982E-2	3.722792E-2	5.254073E-2	4.332151E-2	3.885213E-2	5.212526E-2	4.703717E-2	5.852934E-2	4.679920E-2	3.280340E-2	3.193744E-2	4.663099E-2	2.585297E-2	3.138386E-2	3.787114E-2	5.487498E-2	5.171226E-2	4.474063E-2	5.505110E-2	6.264542E-2	2.415725E-2	3.619605E-2	4.734993E-2	4.248350E-2	5.367951E-2	3.800602E-2	4.148771E-2	5.328843E-2	3.268001E-2	5.332498E-2	4.686408E-2	3.632048E-2	4.369570E-2	4.981186E-2	3.500712E-2	2.846215E-2	3.631718E-2	4.687483E-2	4.878157E-2	2.921369E-2	4.716106E-2	4.897096E-2	3.136307E-2	4.011614E-2	4.541587E-2	5.850497E-2	4.608342E-2	6.009999E-2	5.060220E-2	3.605483E-2	3.347106E-2	4.886149E-2	4.611494E-2	4.117132E-2	6.403851E-2	4.488168E-2	4.934536E-2	4.551062E-2	4.275729E-2	6.441277E-2	3.597417E-2	5.668782E-2	4.958653E-2	5.407365E-2	5.528258E-2	5.206198E-2	3.505875E-2	3.127982E-2	3.784322E-2	4.008877E-2	4.978539E-2	5.076933E-2	3.336734E-2	3.550387E-2	3.779846E-2	5.441328E-2	4.176722E-2	4.307601E-2	4.820862E-2	4.692075E-2	4.162390E-2	4.108724E-2	4.875392E-2	4.096268E-2	5.029709E-2	3.912742E-2
2.841030E+2	6.312279E-2	5.660578E-2	6.978100E-2	6.926863E-2	7.827384E-2	5.702976E-2	5.177972E-2	7.140161E-2	7.310644E-2	7.298770E-2	6.296235E-2	5.988364E-2	6.949966E-2	6.568323E-2	5.065930E-2	8.054949E-2	9.184893E-2	5.040136E-2	6.178775E-2	5.899176E-2	7.633548E-2	7.049332E-2	8.091730E-2	6.807282E-2	7.136673E-2	4.709836E-2	6.294514E-2	7.858253E-2	6.317825E-2	5.628789E-2	6.112751E-2	7.624084E-2	6.980089E-2	7.362330E-2	6.235767E-2	6.088493E-2	6.275114E-2	5.481566E-2	5.754749E-2	5.809202E-2	8.914594E-2	6.919660E-2	7.043637E-2	8.731500E-2	7.967534E-2	7.789494E-2	5.204318E-2	5.969373E-2	6.266163E-2	6.453760E-2	7.400646E-2	6.436502E-2	6.393757E-2	5.595220E-2	7.330626E-2	8.136114E-2	6.575521E-2	4.794078E-2	7.254012E-2	6.079325E-2	6.860133E-2	6.231353E-2	6.049906E-2	6.370128E-2	7.863717E-2	7.104513E-2	6.761751E-2	6.083241E-2	7.406876E-2	6.754944E-2	6.069123E-2	4.986027E-2	6.745169E-2	6.883729E-2	5.902257E-2	6.307893E-2	6.595851E-2	5.820791E-2	7.370019E-2	7.647089E-2	5.772946E-2	5.660973E-2	6.280151E-2	5.281975E-2	5.910133E-2	5.352383E-2	6.917721E-2	6.369329E-2	5.924012E-2	7.369083E-2	7.068599E-2	7.341468E-2	5.456748E-2	6.796349E-2	7.682750E-2	7.544731E-2	6.797452E-2	6.337199E-2	8.187441E-2	6.192476E-2	7.674759E-2	6.714198E-2	6.255538E-2	6.446684E-2	6.407931E-2	6.234544E-2	6.782066E-2	8.199574E-2	6.095442E-2	6.693253E-2	5.036545E-2	7.583629E-2	7.495739E-2	5.706240E-2	6.241370E-2	6.965998E-2	7.750878E-2	5.766868E-2	6.009757E-2	8.626444E-2	5.364304E-2	6.006238E-2	6.339675E-2	7.210271E-2	7.409834E-2	5.457716E-2	5.994383E-2	5.064379E-2	6.611286E-2	6.512722E-2	6.873153E-2	7.477176E-2	4.885662E-2	5.698497E-2	5.759568E-2	8.233206E-2	6.324490E-2	6.853360E-2	6.598330E-2	7.094113E-2	5.558708E-2	7.123302E-2	6.296574E-2	6.260598E-2	7.082094E-2	5.712864E-2	6.306285E-2	5.552079E-2	6.967727E-2	6.014054E-2	6.847694E-2	6.242416E-2	6.037793E-2	6.204058E-2	6.692926E-2	7.766430E-2	6.126839E-2	7.827250E-2	5.778834E-2	8.464012E-2	5.921323E-2	8.182715E-2	6.107469E-2
2.842030E+2	9.798891E-2	1.030031E-1	8.804249E-2	9.360125E-2	8.332064E-2	8.645037E-2	6.512020E-2	9.359217E-2	8.877192E-2	8.357187E-2	7.490871E-2	8.886342E-2	1.057074E-1	8.515252E-2	9.692438E-2	7.133735E-2	8.705912E-2	8.763348E-2	7.744975E-2	8.247779E-2	8.431423E-2	8.722434E-2	6.824743E-2	7.313379E-2	1.062774E-1	8.874784E-2	1.005257E-1	9.326997E-2	8.510150E-2	9.464033E-2	9.073220E-2	9.158845E-2	7.566678E-2	8.705858E-2	9.055117E-2	7.563334E-2	7.430636E-2	7.499325E-2	5.551578E-2	8.266166E-2	7.496538E-2	1.027355E-1	7.432923E-2	8.996549E-2	8.493144E-2	8.766574E-2	9.627205E-2	9.202508E-2	7.420668E-2	8.239734E-2	9.054535E-2	8.883927E-2	9.861992E-2	8.742657E-2	9.282707E-2	9.808204E-2	9.426829E-2	1.028904E-1	1.082815E-1	9.796171E-2	8.408690E-2	8.541481E-2	7.412958E-2	8.531901E-2	8.690824E-2	8.806574E-2	7.078785E-2	1.034832E-1	9.278191E-2	8.419896E-2	7.171801E-2	7.014917E-2	8.252675E-2	9.367254E-2	1.125750E-1	9.863403E-2	7.662544E-2	1.072157E-1	7.886205E-2	8.533786E-2	8.283255E-2	8.445856E-2	8.681923E-2	6.886387E-2	1.052408E-1	8.292877E-2	1.000919E-1	9.049561E-2	6.993034E-2	1.050168E-1	7.639215E-2	1.056972E-1	8.093511E-2	9.796447E-2	9.781141E-2	7.501894E-2	9.988649E-2	1.059512E-1	1.137110E-1	9.442362E-2	8.887420E-2	8.052418E-2	7.680084E-2	8.754839E-2	8.123552E-2	7.203169E-2	1.001093E-1	1.134800E-1	8.139050E-2	7.276646E-2	1.042826E-1	8.819055E-2	9.825431E-2	9.552165E-2	6.620815E-2	1.018797E-1	9.545318E-2	1.009580E-1	7.687590E-2	7.815618E-2	5.733137E-2	8.266422E-2	7.232013E-2	1.098024E-1	7.542779E-2	8.930656E-2	9.214322E-2	8.299767E-2	8.693181E-2	7.653503E-2	8.615213E-2	9.280720E-2	8.330636E-2	8.277766E-2	7.961550E-2	9.170449E-2	9.897265E-2	7.792916E-2	9.893937E-2	7.211533E-2	8.771668E-2	1.095379E-1	8.334579E-2	8.759367E-2	6.948502E-2	1.008968E-1	8.788595E-2	7.846213E-2	9.719988E-2	1.046349E-1	8.673896E-2	7.629174E-2	8.225161E-2	1.135045E-1	9.616037E-2	7.338137E-2	9.022485E-2	9.895039E-2	7.071452E-2	8.441024E-2	8.682693E-2	1.217032E-1	9.269472E-2
2.843040E+2	1.097241E-1	1.005617E-1	1.103541E-1	1.216709E-1	1.220577E-1	8.735259E-2	1.046195E-1	1.057124E-1	1.170768E-1	1.169710E-1	1.131107E-1	8.828250E-2	1.067072E-1	1.075181E-1	1.216846E-1	1.121206E-1	1.317621E-1	1.224632E-1	8.697627E-2	1.011175E-1	1.255101E-1	9.838843E-2	1.011888E-1	1.066527E-1	1.152720E-1	1.104783E-1	1.228647E-1	9.496629E-2	1.031673E-1	9.861984E-2	1.176971E-1	1.065213E-1	1.059865E-1	1.184349E-1	9.795314E-2	1.282832E-1	1.265271E-1	1.097072E-1	9.646368E-2	1.010382E-1	1.071295E-1	9.481250E-2	1.122403E-1	1.032372E-1	1.140326E-1	1.234505E-1	1.160808E-1	1.292414E-1	1.183734E-1	1.048807E-1	9.262007E-2	1.227628E-1	1.166621E-1	1.092332E-1	1.167526E-1	1.384513E-1	1.244419E-1	1.105174E-1	1.017487E-1	9.779888E-2	9.572218E-2	1.022131E-1	1.141202E-1	1.104611E-1	1.243141E-1	8.256602E-2	9.487552E-2	1.175282E-1	9.634225E-2	1.168575E-1	1.041207E-1	1.122112E-1	1.241295E-1	9.088942E-2	9.329284E-2	1.157364E-1	1.294673E-1	1.008583E-1	1.075571E-1	1.087235E-1	1.087964E-1	1.095596E-1	1.147506E-1	1.090536E-1	1.180700E-1	1.178376E-1	1.298894E-1	1.039715E-1	9.164293E-2	1.002743E-1	1.118743E-1	1.206867E-1	1.002665E-1	1.037816E-1	9.363497E-2	1.219056E-1	1.238570E-1	1.048305E-1	1.083080E-1	1.069397E-1	1.209767E-1	8.677594E-2	9.330006E-2	1.319762E-1	9.776995E-2	1.249848E-1	9.558906E-2	1.043918E-1	1.108946E-1	1.311683E-1	9.506277E-2	9.192551E-2	1.004170E-1	9.753659E-2	1.013760E-1	1.188009E-1	1.130602E-1	1.146773E-1	1.375053E-1	1.178987E-1	1.059487E-1	9.788389E-2	1.177407E-1	1.099215E-1	1.236719E-1	1.293025E-1	1.050934E-1	1.299650E-1	9.960836E-2	1.218507E-1	1.076936E-1	1.331830E-1	1.178772E-1	1.227925E-1	8.899185E-2	1.148562E-1	9.632828E-2	1.058657E-1	8.498402E-2	1.134735E-1	1.016220E-1	1.154835E-1	1.054190E-1	1.079675E-1	9.126422E-2	9.015121E-2	1.285622E-1	1.188618E-1	9.739017E-2	9.617207E-2	1.013467E-1	1.185230E-1	1.040961E-1	1.170640E-1	9.719648E-2	1.086529E-1	1.138435E-1	1.058445E-1	1.001599E-1	1.133693E-1	1.278340E-1	1.352560E-1	9.287284E-2
2.844010E+2	1.188076E-1	1.107213E-1	1.309318E-1	1.327404E-1	1.295664E-1	1.329109E-1	1.327148E-1	1.117820E-1	1.402944E-1	1.177405E-1	1.249032E-1	1.125010E-1	1.319014E-1	1.283848E-1	1.288792E-1	1.259815E-1	1.391055E-1	1.484230E-1	1.238090E-1	1.128412E-1	1.413498E-1	1.302643E-1	1.291038E-1	1.450053E-1	1.382399E-1	1.242303E-1	1.470052E-1	1.434662E-1	1.297049E-1	1.339560E-1	1.193892E-1	1.662811E-1	1.513827E-1	1.279552E-1	1.003828E-1	1.388881E-1	1.257037E-1	1.331565E-1	1.549704E-1	1.418160E-1	1.458059E-1	1.389196E-1	1.155763E-1	1.213168E-1	1.299073E-1	1.251897E-1	1.503937E-1	1.522043E-1	1.425241E-1	1.413297E-1	1.289056E-1	1.457965E-1	1.280797E-1	1.376330E-1	1.256877E-1	1.288828E-1	1.271700E-1	1.279308E-1	1.296241E-1	1.510539E-1	1.256969E-1	1.348692E-1	1.259473E-1	1.163682E-1	1.295363E-1	1.036596E-1	1.538874E-1	1.374757E-1	1.240607E-1	1.229184E-1	1.368834E-1	1.382451E-1	1.434441E-1	1.211458E-1	1.358249E-1	1.267389E-1	1.390417E-1	1.379941E-1	1.260316E-1	1.353787E-1	1.122352E-1	1.542763E-1	1.421370E-1	1.408349E-1	1.239897E-1	1.403289E-1	1.229993E-1	1.128412E-1	1.291629E-1	1.481945E-1	1.241956E-1	1.407913E-1	1.342278E-1	1.239440E-1	1.339617E-1	1.346981E-1	1.138619E-1	1.134716E-1	1.313965E-1	1.247600E-1	1.102884E-1	1.218522E-1	1.468689E-1	1.284024E-1	1.172011E-1	1.317485E-1	1.335132E-1	1.545126E-1	1.337321E-1	1.144618E-1	1.208873E-1	1.504796E-1	1.264687E-1	1.218457E-1	1.256980E-1	1.224763E-1	1.441884E-1	1.318120E-1	1.512544E-1	1.107755E-1	1.202606E-1	1.391533E-1	1.275950E-1	1.289013E-1	1.264813E-1	1.058482E-1	1.532460E-1	1.214520E-1	1.368486E-1	1.198359E-1	1.486102E-1	1.257390E-1	1.154875E-1	1.254678E-1	1.320199E-1	1.398498E-1	1.343636E-1	1.414254E-1	1.427081E-1	1.073916E-1	1.491495E-1	1.197495E-1	1.345836E-1	1.336800E-1	1.104204E-1	1.330695E-1	1.340153E-1	1.311269E-1	1.459016E-1	1.017369E-1	1.321581E-1	1.452604E-1	1.144985E-1	1.281862E-1	1.184733E-1	1.064969E-1	1.252982E-1	1.150993E-1	1.072847E-1	1.469424E-1	1.057598E-1	1.433173E-1	1.070197E-1
2.845030E+2	1.909723E-1	2.037550E-1	2.051310E-1	2.449870E-1	1.891494E-1	2.100313E-1	2.150064E-1	2.233413E-1	2.205339E-1	2.099556E-1	2.029497E-1	1.932743E-1	2.242718E-1	2.120936E-1	1.935160E-1	1.954845E-1	2.283126E-1	2.267020E-1	2.102958E-1	2.183829E-1	2.673227E-1	2.497120E-1	2.354416E-1	2.244353E-1	2.077201E-1	2.182481E-1	2.298393E-1	2.137072E-1	2.221727E-1	2.430652E-1	2.203873E-1	2.054726E-1	2.161082E-1	2.217914E-1	2.257262E-1	2.052451E-1	2.275682E-1	2.227446E-1	2.299471E-1	2.374916E-1	2.080684E-1	2.597962E-1	2.428146E-1	2.272723E-1	2.292767E-1	2.203932E-1	2.286014E-1	2.117241E-1	2.027756E-1	2.108785E-1	2.213196E-1	2.122874E-1	2.290493E-1	2.452266E-1	2.082561E-1	1.892904E-1	2.330851E-1	2.160458E-1	2.482589E-1	2.158132E-1	2.390299E-1	2.094207E-1	2.032776E-1	2.222451E-1	1.962517E-1	2.097627E-1	2.702162E-1	2.138158E-1	2.253369E-1	2.078075E-1	2.017740E-1	1.917522E-1	2.418466E-1	2.382307E-1	2.317432E-1	2.074294E-1	2.267698E-1	2.135789E-1	2.198421E-1	2.333174E-1	1.980273E-1	2.246023E-1	2.250791E-1	2.354234E-1	2.325043E-1	2.092444E-1	2.449111E-1	1.986594E-1	2.077240E-1	2.132547E-1	2.213483E-1	2.182916E-1	2.203180E-1	2.131041E-1	2.280224E-1	2.117907E-1	2.469162E-1	2.088097E-1	2.245435E-1	2.471440E-1	2.424748E-1	2.346165E-1	2.248868E-1	2.181321E-1	2.061699E-1	2.140051E-1	2.097333E-1	2.330976E-1	2.313124E-1	1.926990E-1	2.206996E-1	2.343410E-1	2.074557E-1	2.051194E-1	2.073511E-1	2.317789E-1	2.353822E-1	2.054517E-1	1.854937E-1	1.893634E-1	2.188386E-1	2.325470E-1	2.140576E-1	2.104443E-1	2.598942E-1	1.977680E-1	2.369139E-1	2.196856E-1	2.056209E-1	2.349992E-1	2.017242E-1	2.317780E-1	2.168419E-1	2.087894E-1	2.410378E-1	2.024230E-1	2.681779E-1	2.320879E-1	2.432544E-1	2.284104E-1	2.047900E-1	2.234644E-1	2.334457E-1	2.225958E-1	2.276159E-1	2.233753E-1	2.358995E-1	2.319123E-1	2.224514E-1	2.096865E-1	2.286925E-1	2.095676E-1	2.283320E-1	2.057217E-1	2.028404E-1	2.068896E-1	2.376657E-1	2.658624E-1	2.213980E-1	2.291736E-1	2.148079E-1	2.098308E-1	2.234737E-1
2.846060E+2	4.028546E-1	4.219107E-1	4.395288E-1	3.972998E-1	3.426463E-1	3.996554E-1	3.968525E-1	4.109453E-1	3.889148E-1	4.221042E-1	3.619087E-1	4.379461E-1	4.149179E-1	4.242225E-1	4.154099E-1	4.058079E-1	4.306781E-1	4.861592E-1	4.623079E-1	4.343921E-1	4.565554E-1	4.561700E-1	4.646311E-1	4.858966E-1	4.584529E-1	4.399527E-1	4.364420E-1	4.611668E-1	4.764371E-1	4.626878E-1	5.024569E-1	4.440276E-1	4.467768E-1	4.962559E-1	4.315735E-1	4.474259E-1	4.220640E-1	4.479375E-1	4.514212E-1	4.797961E-1	4.765777E-1	4.728586E-1	5.002638E-1	4.778221E-1	4.627247E-1	4.669410E-1	4.640881E-1	4.748893E-1	4.869727E-1	4.715771E-1	4.407020E-1	4.803844E-1	4.485718E-1	3.925095E-1	4.689876E-1	4.534460E-1	4.772606E-1	4.485044E-1	4.352558E-1	4.351225E-1	4.258548E-1	4.450352E-1	4.475246E-1	4.315986E-1	4.564439E-1	4.385501E-1	4.651837E-1	4.698375E-1	4.604986E-1	4.307485E-1	4.303308E-1	4.113355E-1	4.427865E-1	4.664681E-1	4.405160E-1	4.282763E-1	4.510003E-1	4.566751E-1	4.946019E-1	4.765516E-1	4.420125E-1	4.478105E-1	4.255467E-1	4.230904E-1	4.253707E-1	4.382603E-1	4.234711E-1	4.352794E-1	4.527288E-1	4.463886E-1	4.215536E-1	4.312469E-1	4.306234E-1	4.359100E-1	4.723604E-1	4.118738E-1	4.481578E-1	4.227269E-1	4.242837E-1	4.618386E-1	4.444101E-1	4.287223E-1	4.459405E-1	4.266721E-1	4.510827E-1	3.950782E-1	4.488884E-1	4.701928E-1	4.522246E-1	4.238905E-1	4.350207E-1	4.352727E-1	4.759531E-1	4.158482E-1	4.309818E-1	4.417312E-1	4.375069E-1	4.335505E-1	4.731642E-1	4.614124E-1	4.618885E-1	4.463217E-1	4.321183E-1	4.419432E-1	4.079133E-1	3.808572E-1	4.175858E-1	4.461280E-1	4.487082E-1	4.692399E-1	4.431435E-1	4.751454E-1	4.092508E-1	4.374150E-1	4.369904E-1	3.850386E-1	4.510814E-1	4.550385E-1	4.227039E-1	4.557186E-1	4.513506E-1	4.502698E-1	4.115496E-1	4.348739E-1	4.135441E-1	4.110333E-1	4.751352E-1	4.346072E-1	4.487927E-1	4.237584E-1	4.020132E-1	4.230306E-1	4.073455E-1	4.277990E-1	4.334407E-1	4.166526E-1	4.559557E-1	4.480027E-1	4.429585E-1	4.365756E-1	4.043388E-1	4.464023E-1	4.239806E-1
2.847030E+2	8.315570E-1	8.411586E-1	8.540532E-1	8.247190E-1	8.471740E-1	7.819175E-1	8.398494E-1	8.002475E-1	8.729967E-1	8.079690E-1	7.725967E-1	8.318329E-1	8.287149E-1	8.740753E-1	8.699837E-1	8.467996E-1	9.619512E-1	8.842504E-1	9.283119E-1	9.346775E-1	9.227159E-1	9.159278E-1	9.559366E-1	9.035686E-1	8.727368E-1	9.199809E-1	8.491782E-1	8.777223E-1	8.299731E-1	9.003898E-1	9.344098E-1	8.970904E-1	9.253655E-1	8.616949E-1	8.893251E-1	8.929386E-1	9.428319E-1	8.974949E-1	8.803592E-1	7.932399E-1	9.047216E-1	8.751207E-1	8.655578E-1	9.108087E-1	9.502863E-1	9.483123E-1	9.141331E-1	8.628348E-1	9.396970E-1	9.235043E-1	8.823545E-1	8.978212E-1	9.389082E-1	9.691975E-1	8.870078E-1	8.474699E-1	8.748203E-1	9.002175E-1	9.232068E-1	8.735771E-1	9.031983E-1	8.661534E-1	8.948550E-1	8.830431E-1	8.534050E-1	9.140890E-1	9.351161E-1	8.788441E-1	9.183064E-1	8.611784E-1	8.637919E-1	8.910021E-1	9.364677E-1	8.985706E-1	9.263217E-1	8.977901E-1	8.597224E-1	8.858240E-1	8.527587E-1	8.802158E-1	8.831249E-1	9.150846E-1	8.852182E-1	8.642111E-1	9.192607E-1	8.629922E-1	8.224275E-1	8.876410E-1	8.574026E-1	8.815684E-1	8.271428E-1	8.330297E-1	8.641757E-1	9.050823E-1	8.670975E-1	8.582798E-1	8.889447E-1	8.900552E-1	8.740223E-1	8.725185E-1	8.938920E-1	8.608725E-1	8.433525E-1	8.443246E-1	8.990687E-1	8.853255E-1	8.912816E-1	9.087779E-1	8.660792E-1	8.585721E-1	9.149151E-1	8.820237E-1	8.647097E-1	8.619764E-1	8.460418E-1	8.808663E-1	8.668142E-1	9.048638E-1	8.762602E-1	8.620741E-1	8.496295E-1	8.396503E-1	8.655841E-1	8.686589E-1	8.491488E-1	8.594780E-1	8.423301E-1	9.054130E-1	8.818587E-1	8.624133E-1	8.459313E-1	8.363194E-1	8.645966E-1	8.749462E-1	8.746043E-1	7.849647E-1	9.509483E-1	8.787375E-1	8.681814E-1	8.707899E-1	8.774655E-1	8.790999E-1	8.710072E-1	8.902767E-1	8.660666E-1	9.528615E-1	8.853322E-1	8.756189E-1	9.232011E-1	8.482953E-1	8.667832E-1	8.263808E-1	9.050589E-1	8.781784E-1	8.147419E-1	8.297755E-1	8.440590E-1	8.483975E-1	9.065771E-1	9.124965E-1	8.810211E-1	8.792563E-1	8.596092E-1
2.848030E+2	1.324871E+0	1.304518E+0	1.359532E+0	1.338735E+0	1.340137E+0	1.240355E+0	1.273195E+0	1.298117E+0	1.374850E+0	1.325954E+0	1.271417E+0	1.301653E+0	1.374146E+0	1.287755E+0	1.310786E+0	1.272716E+0	1.373867E+0	1.296988E+0	1.344215E+0	1.308389E+0	1.358300E+0	1.284751E+0	1.328873E+0	1.279604E+0	1.285226E+0	1.329191E+0	1.300419E+0	1.289114E+0	1.363269E+0	1.401237E+0	1.289783E+0	1.364579E+0	1.283717E+0	1.258744E+0	1.386309E+0	1.313256E+0	1.342096E+0	1.295328E+0	1.329237E+0	1.339690E+0	1.278828E+0	1.288467E+0	1.315614E+0	1.337655E+0	1.406378E+0	1.301133E+0	1.306469E+0	1.261457E+0	1.352281E+0	1.267285E+0	1.347632E+0	1.318677E+0	1.378618E+0	1.307616E+0	1.282844E+0	1.324923E+0	1.366425E+0	1.356556E+0	1.242550E+0	1.393665E+0	1.305022E+0	1.353475E+0	1.318934E+0	1.334790E+0	1.370977E+0	1.290294E+0	1.370858E+0	1.366191E+0	1.359786E+0	1.282914E+0	1.299968E+0	1.343371E+0	1.351258E+0	1.289795E+0	1.289248E+0	1.298855E+0	1.352378E+0	1.276162E+0	1.455822E+0	1.339561E+0	1.352835E+0	1.338205E+0	1.340787E+0	1.290813E+0	1.330236E+0	1.307920E+0	1.306819E+0	1.286725E+0	1.338647E+0	1.365572E+0	1.365132E+0	1.322681E+0	1.383981E+0	1.323423E+0	1.312786E+0	1.367157E+0	1.272500E+0	1.377303E+0	1.346658E+0	1.340976E+0	1.309194E+0	1.265086E+0	1.302197E+0	1.327707E+0	1.317026E+0	1.330672E+0	1.342518E+0	1.293203E+0	1.378338E+0	1.340000E+0	1.282017E+0	1.355349E+0	1.291406E+0	1.317118E+0	1.315507E+0	1.308178E+0	1.311344E+0	1.342852E+0	1.330704E+0	1.356641E+0	1.217156E+0	1.292633E+0	1.275873E+0	1.366769E+0	1.358849E+0	1.328440E+0	1.347365E+0	1.299324E+0	1.306781E+0	1.385933E+0	1.290486E+0	1.281487E+0	1.337642E+0	1.364319E+0	1.367851E+0	1.277233E+0	1.367768E+0	1.286296E+0	1.378045E+0	1.361688E+0	1.333066E+0	1.365799E+0	1.313398E+0	1.323579E+0	1.339950E+0	1.330579E+0	1.319805E+0	1.354111E+0	1.387425E+0	1.353287E+0	1.307232E+0	1.374316E+0	1.287526E+0	1.288844E+0	1.309135E+0	1.247135E+0	1.286667E+0	1.249582E+0	1.398404E+0	1.338139E+0	1.378770E+0	1.351870E+0	1.271585E+0
2.849040E+2	1.385485E+0	1.385155E+0	1.399613E+0	1.484560E+0	1.457655E+0	1.358476E+0	1.428185E+0	1.372470E+0	1.487479E+0	1.418127E+0	1.433117E+0	1.434044E+0	1.432743E+0	1.452641E+0	1.476121E+0	1.452588E+0	1.439792E+0	1.369374E+0	1.444356E+0	1.418883E+0	1.460160E+0	1.427364E+0	1.477920E+0	1.384561E+0	1.437203E+0	1.469072E+0	1.388166E+0	1.394455E+0	1.428135E+0	1.481018E+0	1.430007E+0	1.409220E+0	1.411669E+0	1.470072E+0	1.460619E+0	1.434570E+0	1.522989E+0	1.417749E+0	1.337084E+0	1.463937E+0	1.378320E+0	1.390024E+0	1.451365E+0	1.449003E+0	1.409973E+0	1.433687E+0	1.456795E+0	1.413190E+0	1.468202E+0	1.381871E+0	1.414999E+0	1.493614E+0	1.453255E+0	1.446451E+0	1.430313E+0	1.396103E+0	1.479835E+0	1.446074E+0	1.410709E+0	1.401764E+0	1.423293E+0	1.411770E+0	1.416757E+0	1.434226E+0	1.478530E+0	1.421665E+0	1.386340E+0	1.479927E+0	1.439206E+0	1.403191E+0	1.430259E+0	1.329236E+0	1.443075E+0	1.507556E+0	1.460237E+0	1.445802E+0	1.420191E+0	1.416699E+0	1.486900E+0	1.428356E+0	1.448370E+0	1.465000E+0	1.435818E+0	1.431302E+0	1.435310E+0	1.398282E+0	1.427292E+0	1.384558E+0	1.411134E+0	1.420343E+0	1.463949E+0	1.429736E+0	1.408819E+0	1.387446E+0	1.463474E+0	1.504469E+0	1.432170E+0	1.516168E+0	1.492496E+0	1.432530E+0	1.472034E+0	1.465186E+0	1.427085E+0	1.423913E+0	1.476339E+0	1.496536E+0	1.473087E+0	1.513749E+0	1.450719E+0	1.352477E+0	1.418975E+0	1.484683E+0	1.421467E+0	1.509604E+0	1.412192E+0	1.447562E+0	1.482492E+0	1.372211E+0	1.412061E+0	1.451637E+0	1.442084E+0	1.474825E+0	1.437480E+0	1.424827E+0	1.466537E+0	1.410803E+0	1.370365E+0	1.447656E+0	1.491019E+0	1.430866E+0	1.449489E+0	1.417574E+0	1.499951E+0	1.367705E+0	1.445214E+0	1.428113E+0	1.376531E+0	1.429675E+0	1.396549E+0	1.400661E+0	1.501691E+0	1.445319E+0	1.483416E+0	1.456879E+0	1.401660E+0	1.524382E+0	1.450581E+0	1.418533E+0	1.500176E+0	1.355913E+0	1.445969E+0	1.435998E+0	1.391278E+0	1.496715E+0	1.424101E+0	1.386278E+0	1.469061E+0	1.400973E+0	1.475654E+0	1.455215E+0	1.486891E+0	1.435270E+0	1.534870E+0
2.850030E+2	1.375876E+0	1.427657E+0	1.476570E+0	1.393040E+0	1.460133E+0	1.364175E+0	1.378863E+0	1.418351E+0	1.479540E+0	1.394843E+0	1.434315E+0	1.398026E+0	1.360908E+0	1.416230E+0	1.467305E+0	1.359334E+0	1.443290E+0	1.364511E+0	1.444327E+0	1.426316E+0	1.353708E+0	1.403990E+0	1.393430E+0	1.412085E+0	1.390608E+0	1.401630E+0	1.343246E+0	1.342826E+0	1.336462E+0	1.388424E+0	1.398891E+0	1.399146E+0	1.480241E+0	1.434385E+0	1.400168E+0	1.418874E+0	1.381515E+0	1.346573E+0	1.335796E+0	1.449859E+0	1.419495E+0	1.354034E+0	1.383412E+0	1.400169E+0	1.399576E+0	1.368555E+0	1.421788E+0	1.299938E+0	1.483888E+0	1.333812E+0	1.374204E+0	1.339777E+0	1.432096E+0	1.355596E+0	1.341121E+0	1.399233E+0	1.426460E+0	1.437163E+0	1.308719E+0	1.389121E+0	1.350180E+0	1.417274E+0	1.378037E+0	1.430222E+0	1.386662E+0	1.430564E+0	1.409579E+0	1.379912E+0	1.461024E+0	1.395368E+0	1.425260E+0	1.362422E+0	1.434899E+0	1.473010E+0	1.447727E+0	1.402338E+0	1.405915E+0	1.450534E+0	1.421230E+0	1.432974E+0	1.406195E+0	1.447445E+0	1.422228E+0	1.370516E+0	1.374410E+0	1.407559E+0	1.433549E+0	1.428594E+0	1.402228E+0	1.410686E+0	1.372349E+0	1.440842E+0	1.456153E+0	1.416485E+0	1.369969E+0	1.430234E+0	1.360201E+0	1.405781E+0	1.441818E+0	1.426243E+0	1.374885E+0	1.402759E+0	1.460921E+0	1.420683E+0	1.498088E+0	1.419930E+0	1.327949E+0	1.416093E+0	1.481407E+0	1.431117E+0	1.446908E+0	1.427842E+0	1.476783E+0	1.352610E+0	1.373721E+0	1.433928E+0	1.438008E+0	1.456490E+0	1.372403E+0	1.407240E+0	1.411526E+0	1.383184E+0	1.362936E+0	1.299406E+0	1.397847E+0	1.414293E+0	1.491545E+0	1.315207E+0	1.462121E+0	1.379439E+0	1.451624E+0	1.363735E+0	1.409066E+0	1.420564E+0	1.404134E+0	1.386043E+0	1.448909E+0	1.444139E+0	1.428421E+0	1.423282E+0	1.429510E+0	1.396452E+0	1.410992E+0	1.447566E+0	1.361604E+0	1.437830E+0	1.456840E+0	1.268863E+0	1.418368E+0	1.402283E+0	1.392184E+0	1.360483E+0	1.410740E+0	1.374745E+0	1.404994E+0	1.390876E+0	1.385017E+0	1.390445E+0	1.432642E+0	1.431875E+0	1.375505E+0	1.475601E+0	1.372336E+0
2.851030E+2	1.245316E+0	1.219265E+0	1.251987E+0	1.261798E+0	1.345794E+0	1.265336E+0	1.320960E+0	1.284905E+0	1.327246E+0	1.277771E+0	1.259797E+0	1.359905E+0	1.327595E+0	1.284527E+0	1.311784E+0	1.286555E+0	1.356875E+0	1.241464E+0	1.245613E+0	1.337602E+0	1.286802E+0	1.288712E+0	1.312729E+0	1.329837E+0	1.261089E+0	1.254614E+0	1.301608E+0	1.203073E+0	1.342040E+0	1.299872E+0	1.282406E+0	1.322201E+0	1.253865E+0	1.271700E+0	1.338791E+0	1.287557E+0	1.220561E+0	1.249858E+0	1.333540E+0	1.271482E+0	1.285726E+0	1.364564E+0	1.274634E+0	1.252932E+0	1.240487E+0	1.263739E+0	1.317900E+0	1.235347E+0	1.356879E+0	1.263243E+0	1.315972E+0	1.280828E+0	1.320102E+0	1.328180E+0	1.382755E+0	1.283041E+0	1.296636E+0	1.266053E+0	1.287604E+0	1.314680E+0	1.239706E+0	1.281184E+0	1.311928E+0	1.280559E+0	1.267711E+0	1.210436E+0	1.330207E+0	1.269134E+0	1.296362E+0	1.287196E+0	1.254867E+0	1.245269E+0	1.324789E+0	1.374747E+0	1.308496E+0	1.239882E+0	1.248487E+0	1.264099E+0	1.325944E+0	1.276328E+0	1.358823E+0	1.342068E+0	1.287057E+0	1.248581E+0	1.290493E+0	1.301785E+0	1.246470E+0	1.226692E+0	1.314256E+0	1.309334E+0	1.312137E+0	1.264067E+0	1.316142E+0	1.289794E+0	1.284227E+0	1.277823E+0	1.329999E+0	1.325837E+0	1.295193E+0	1.296735E+0	1.285845E+0	1.300189E+0	1.340082E+0	1.253515E+0	1.294821E+0	1.306153E+0	1.348618E+0	1.348391E+0	1.329934E+0	1.318776E+0	1.286668E+0	1.316759E+0	1.286679E+0	1.288295E+0	1.301479E+0	1.303867E+0	1.319907E+0	1.347658E+0	1.344107E+0	1.285136E+0	1.256666E+0	1.324429E+0	1.265017E+0	1.248167E+0	1.250164E+0	1.318389E+0	1.317943E+0	1.341788E+0	1.335363E+0	1.305719E+0	1.318634E+0	1.281309E+0	1.357507E+0	1.282283E+0	1.303035E+0	1.258998E+0	1.284587E+0	1.271550E+0	1.272229E+0	1.301016E+0	1.315671E+0	1.272452E+0	1.317467E+0	1.310734E+0	1.259261E+0	1.318300E+0	1.310465E+0	1.254768E+0	1.325073E+0	1.262206E+0	1.243207E+0	1.317514E+0	1.293559E+0	1.350416E+0	1.320094E+0	1.288958E+0	1.302942E+0	1.298776E+0	1.232955E+0	1.285020E+0	1.298831E+0	1.249631E+0	1.265959E+0
2.852040E+2	1.081783E+0	1.103043E+0	1.111166E+0	1.095154E+0	1.079944E+0	1.103497E+0	1.044004E+0	1.035766E+0	1.095441E+0	1.106813E+0	1.067397E+0	1.100417E+0	1.136794E+0	1.034177E+0	1.079179E+0	1.071665E+0	1.108387E+0	1.135329E+0	1.092293E+0	1.092316E+0	1.097057E+0	1.149846E+0	1.119900E+0	1.098630E+0	1.109054E+0	1.093616E+0	1.066602E+0	1.043391E+0	1.123652E+0	1.127550E+0	1.104278E+0	1.116869E+0	1.047523E+0	1.083282E+0	1.091275E+0	1.080785E+0	1.095881E+0	1.075050E+0	1.096757E+0	1.125503E+0	1.102091E+0	1.131682E+0	1.115027E+0	1.125779E+0	1.034475E+0	1.088229E+0	1.142624E+0	1.076083E+0	1.059408E+0	1.091967E+0	1.113774E+0	1.137920E+0	1.108589E+0	1.091478E+0	1.139598E+0	1.140808E+0	1.123735E+0	1.138750E+0	1.104128E+0	1.121595E+0	1.035792E+0	1.122661E+0	1.116019E+0	1.110275E+0	1.104525E+0	1.026408E+0	1.094511E+0	1.158483E+0	1.085827E+0	1.042973E+0	1.075577E+0	1.098773E+0	1.104698E+0	1.196980E+0	1.071423E+0	1.073576E+0	1.037410E+0	1.156950E+0	1.155024E+0	1.135399E+0	1.125252E+0	1.170869E+0	1.089078E+0	1.131082E+0	1.133646E+0	1.068118E+0	1.137514E+0	1.107406E+0	1.134493E+0	1.121264E+0	1.120393E+0	1.131309E+0	1.091352E+0	1.110931E+0	1.110978E+0	1.083836E+0	1.107514E+0	1.121459E+0	1.163791E+0	1.115987E+0	1.146041E+0	1.046689E+0	1.078381E+0	1.095405E+0	1.181645E+0	1.136482E+0	1.104284E+0	1.150169E+0	1.137795E+0	1.133498E+0	1.126314E+0	1.116945E+0	1.102082E+0	1.043417E+0	1.095649E+0	1.120694E+0	1.107630E+0	1.098803E+0	1.094017E+0	1.096841E+0	1.106668E+0	1.081107E+0	1.122522E+0	1.135754E+0	1.134991E+0	1.121361E+0	1.100228E+0	1.073407E+0	1.114316E+0	1.153233E+0	1.150527E+0	1.147600E+0	1.106633E+0	1.088518E+0	1.170827E+0	1.075250E+0	1.079414E+0	1.051840E+0	1.141439E+0	1.116528E+0	1.152596E+0	1.083296E+0	1.088279E+0	1.148287E+0	1.103198E+0	1.083706E+0	1.130151E+0	1.096217E+0	1.121371E+0	1.077605E+0	1.161941E+0	1.119357E+0	1.095488E+0	1.140434E+0	1.064047E+0	1.008044E+0	1.160140E+0	1.105168E+0	1.110043E+0	1.116375E+0	1.080338E+0	1.137372E+0	1.086802E+0
2.852990E+2	8.668481E-1	8.322012E-1	8.682986E-1	8.219514E-1	7.971891E-1	8.436462E-1	8.277383E-1	8.302053E-1	8.903483E-1	8.106850E-1	8.190355E-1	8.504723E-1	8.380201E-1	8.124903E-1	8.661072E-1	8.439564E-1	8.053640E-1	8.372284E-1	8.462198E-1	8.434497E-1	8.572363E-1	8.698609E-1	8.598694E-1	8.143589E-1	8.459360E-1	8.152414E-1	8.579311E-1	8.561703E-1	8.176722E-1	8.295527E-1	8.321386E-1	8.374185E-1	8.644365E-1	8.127026E-1	8.576004E-1	8.418053E-1	8.949477E-1	8.140163E-1	8.351623E-1	8.741465E-1	8.791352E-1	8.715289E-1	8.516323E-1	8.598822E-1	8.513708E-1	8.480803E-1	8.919567E-1	8.423864E-1	8.454955E-1	7.935324E-1	8.240811E-1	8.110035E-1	8.503912E-1	8.366099E-1	8.524008E-1	7.823803E-1	8.908708E-1	8.327976E-1	8.214197E-1	8.219646E-1	7.850182E-1	8.194824E-1	8.060309E-1	8.102540E-1	8.502445E-1	8.105087E-1	7.898393E-1	8.090160E-1	8.713371E-1	7.857519E-1	8.470436E-1	7.929829E-1	8.903041E-1	8.220891E-1	8.697171E-1	8.643605E-1	7.909559E-1	8.484738E-1	9.398258E-1	8.376778E-1	8.344110E-1	8.573367E-1	8.282191E-1	8.466991E-1	7.820117E-1	8.664040E-1	8.054573E-1	8.622760E-1	8.569760E-1	8.451594E-1	8.578850E-1	8.289808E-1	8.689760E-1	7.978792E-1	8.592806E-1	7.860262E-1	8.263417E-1	8.161656E-1	8.766729E-1	8.117593E-1	8.882476E-1	8.618755E-1	8.777966E-1	8.174141E-1	8.131476E-1	8.863168E-1	8.568165E-1	8.746869E-1	8.879215E-1	8.520701E-1	8.594583E-1	8.733217E-1	8.169318E-1	8.470010E-1	8.588552E-1	8.671314E-1	8.863398E-1	8.005365E-1	8.420459E-1	8.280891E-1	7.998164E-1	8.111613E-1	8.575351E-1	8.578180E-1	8.419161E-1	8.223127E-1	8.470102E-1	8.272642E-1	8.498735E-1	8.696946E-1	8.131127E-1	8.510532E-1	8.277425E-1	8.601653E-1	8.246105E-1	8.511740E-1	8.848586E-1	8.232887E-1	8.982912E-1	9.164841E-1	8.084733E-1	8.120832E-1	8.366388E-1	8.539411E-1	8.149897E-1	8.273126E-1	8.265656E-1	8.335438E-1	8.935466E-1	8.394096E-1	8.164700E-1	8.381697E-1	7.737422E-1	8.092249E-1	8.128028E-1	7.786346E-1	8.383930E-1	8.309066E-1	8.351476E-1	8.571573E-1	8.599563E-1	8.689403E-1	8.501226E-1
2.854020E+2	5.803569E-1	5.808270E-1	6.088020E-1	5.874114E-1	6.050506E-1	6.000402E-1	5.834340E-1	5.843621E-1	6.041662E-1	5.459300E-1	5.753561E-1	5.697186E-1	5.689495E-1	6.204187E-1	5.980944E-1	5.730751E-1	5.975538E-1	5.612014E-1	5.517179E-1	6.065573E-1	6.131228E-1	5.626040E-1	5.663768E-1	5.701679E-1	5.534457E-1	5.818560E-1	5.838549E-1	5.277883E-1	5.973600E-1	5.797543E-1	6.115742E-1	5.884688E-1	5.652754E-1	6.270326E-1	6.185388E-1	5.605718E-1	5.969803E-1	5.803890E-1	5.529990E-1	6.268933E-1	5.710424E-1	5.327972E-1	5.837960E-1	5.764231E-1	6.022051E-1	6.176695E-1	6.352494E-1	5.946100E-1	6.179244E-1	5.842033E-1	5.787078E-1	5.944249E-1	6.205230E-1	5.443090E-1	6.206110E-1	5.562009E-1	6.244209E-1	6.139953E-1	5.939764E-1	5.751074E-1	5.838186E-1	6.176105E-1	5.785762E-1	5.903058E-1	5.816196E-1	6.190081E-1	5.990437E-1	5.701024E-1	5.808267E-1	5.925188E-1	5.854656E-1	5.988909E-1	6.166489E-1	6.175604E-1	5.592840E-1	5.690465E-1	5.722727E-1	5.980144E-1	5.579947E-1	5.914947E-1	5.718095E-1	5.994338E-1	5.992301E-1	5.884735E-1	5.949734E-1	5.835705E-1	5.920902E-1	5.693526E-1	5.944709E-1	5.543856E-1	5.952826E-1	5.765652E-1	5.850332E-1	6.015929E-1	5.649525E-1	6.182304E-1	5.910704E-1	5.750787E-1	6.230713E-1	5.949915E-1	5.972913E-1	5.680649E-1	5.884873E-1	5.990905E-1	5.934963E-1	5.655374E-1	5.934092E-1	5.743320E-1	5.637247E-1	6.402991E-1	6.407540E-1	6.309988E-1	6.233369E-1	6.000635E-1	5.918171E-1	5.671171E-1	5.979394E-1	5.778203E-1	6.127500E-1	6.459605E-1	5.867372E-1	5.760708E-1	5.291234E-1	6.039942E-1	5.855518E-1	5.821806E-1	5.801617E-1	5.910550E-1	6.115642E-1	5.638340E-1	6.046915E-1	5.758283E-1	5.871586E-1	5.766460E-1	6.013169E-1	5.623480E-1	6.362813E-1	5.525886E-1	6.295849E-1	5.947866E-1	6.255674E-1	5.974243E-1	6.633071E-1	5.720715E-1	5.586830E-1	5.871218E-1	6.293796E-1	5.907448E-1	5.905364E-1	5.293795E-1	6.237617E-1	5.849878E-1	5.977540E-1	5.529174E-1	5.884819E-1	5.698328E-1	6.008207E-1	6.087788E-1	5.782125E-1	5.769045E-1	5.750674E-1	5.730396E-1	6.106956E-1
2.855070E+2	5.240760E-1	5.216081E-1	4.680212E-1	4.668758E-1	4.971877E-1	4.876709E-1	4.957801E-1	4.543289E-1	5.051780E-1	5.179346E-1	4.978683E-1	4.720126E-1	4.886775E-1	4.871741E-1	4.886426E-1	5.113824E-1	4.407501E-1	5.228782E-1	4.904794E-1	5.096863E-1	5.134021E-1	5.293038E-1	5.241447E-1	5.313279E-1	4.659621E-1	4.970153E-1	5.273106E-1	4.866738E-1	5.013761E-1	5.460365E-1	5.073190E-1	5.216414E-1	4.999279E-1	4.909964E-1	4.971594E-1	4.601623E-1	4.813115E-1	5.036794E-1	5.196113E-1	4.813572E-1	5.228848E-1	5.166666E-1	4.937166E-1	4.905036E-1	4.968262E-1	4.699602E-1	5.063544E-1	4.879457E-1	5.018633E-1	5.038582E-1	5.342836E-1	5.372467E-1	4.898209E-1	5.123316E-1	4.906934E-1	5.026298E-1	5.058476E-1	5.384552E-1	4.920360E-1	4.755467E-1	4.578527E-1	5.031521E-1	4.999205E-1	5.271580E-1	5.078839E-1	4.636519E-1	5.143106E-1	5.207250E-1	5.128505E-1	4.928200E-1	5.096864E-1	5.184201E-1	4.879313E-1	5.050056E-1	4.725066E-1	5.042876E-1	4.677577E-1	5.207685E-1	5.394044E-1	4.769536E-1	4.818132E-1	5.385322E-1	4.817462E-1	5.161650E-1	4.877967E-1	4.961617E-1	4.882496E-1	5.225263E-1	4.779055E-1	4.841274E-1	4.819595E-1	4.611210E-1	4.837715E-1	5.093445E-1	5.513366E-1	4.787643E-1	4.773424E-1	4.885038E-1	5.265364E-1	5.144300E-1	5.018107E-1	5.052115E-1	4.976147E-1	5.198309E-1	5.008511E-1	4.402888E-1	5.027970E-1	4.949470E-1	4.890425E-1	5.598457E-1	4.785903E-1	4.915430E-1	5.153750E-1	4.766308E-1	4.613458E-1	5.370958E-1	5.000597E-1	5.012200E-1	5.145395E-1	4.794471E-1	5.318396E-1	5.044423E-1	5.036663E-1	5.069718E-1	5.336242E-1	5.382297E-1	5.174004E-1	5.017509E-1	4.818404E-1	5.265024E-1	4.781498E-1	4.748636E-1	5.257666E-1	5.269460E-1	5.020812E-1	5.139813E-1	5.144792E-1	4.932955E-1	5.179973E-1	5.126415E-1	5.023179E-1	5.071423E-1	5.027838E-1	5.258092E-1	4.915734E-1	4.918593E-1	4.856235E-1	4.986453E-1	4.926221E-1	5.013278E-1	4.780744E-1	5.308109E-1	4.750537E-1	4.979966E-1	4.919293E-1	5.024687E-1	4.744647E-1	5.249966E-1	5.209346E-1	4.843322E-1	5.031963E-1	5.422556E-1	4.753322E-1
2.856010E+2	4.421729E-1	4.546241E-1	4.339645E-1	4.312959E-1	4.399877E-1	4.170582E-1	4.501396E-1	4.582851E-1	4.325421E-1	4.203228E-1	4.194700E-1	4.290748E-1	4.326723E-1	4.357981E-1	4.345632E-1	4.130719E-1	4.287011E-1	4.552471E-1	4.668421E-1	4.641692E-1	4.453389E-1	4.385790E-1	4.610065E-1	4.547808E-1	4.543402E-1	4.186310E-1	4.206887E-1	4.584773E-1	4.615305E-1	4.565004E-1	4.757010E-1	4.260186E-1	4.298677E-1	4.608763E-1	4.655748E-1	4.245389E-1	4.235550E-1	4.355577E-1	4.426318E-1	4.424999E-1	4.566956E-1	3.881410E-1	4.442519E-1	4.449354E-1	4.115370E-1	4.341070E-1	4.325331E-1	4.200444E-1	4.322894E-1	4.632893E-1	4.156082E-1	4.387599E-1	4.712114E-1	4.428920E-1	4.515633E-1	4.334776E-1	4.751888E-1	4.137196E-1	4.541919E-1	4.552949E-1	4.509636E-1	4.351456E-1	3.986004E-1	4.528710E-1	4.106517E-1	4.518135E-1	4.460634E-1	4.588343E-1	4.363158E-1	4.566406E-1	4.304397E-1	4.188394E-1	4.469457E-1	4.704834E-1	4.655815E-1	4.137449E-1	4.630105E-1	4.108686E-1	4.268309E-1	4.575993E-1	4.403328E-1	4.452205E-1	4.459429E-1	4.203698E-1	4.199875E-1	4.338331E-1	4.224824E-1	4.501407E-1	4.512557E-1	4.361975E-1	4.486042E-1	4.461099E-1	4.193055E-1	4.566659E-1	4.360762E-1	4.378507E-1	4.342742E-1	4.505672E-1	4.764135E-1	4.402966E-1	4.384121E-1	4.118331E-1	4.214665E-1	4.546044E-1	4.145716E-1	4.478078E-1	4.668420E-1	4.570494E-1	4.657746E-1	4.511086E-1	4.618714E-1	4.354270E-1	4.328827E-1	4.280095E-1	4.087517E-1	4.586837E-1	4.641299E-1	4.333993E-1	4.739502E-1	4.491842E-1	4.087751E-1	4.121592E-1	4.321960E-1	4.601415E-1	4.403148E-1	4.246304E-1	4.637801E-1	4.436202E-1	4.643811E-1	4.564879E-1	4.130229E-1	4.072484E-1	4.353757E-1	4.665503E-1	4.472030E-1	4.374039E-1	4.709556E-1	4.547118E-1	4.555675E-1	4.387088E-1	4.418040E-1	4.630234E-1	4.487985E-1	4.551328E-1	4.155670E-1	4.654674E-1	4.385735E-1	4.182742E-1	4.207100E-1	4.609904E-1	4.746367E-1	4.498903E-1	4.448009E-1	4.695386E-1	4.449699E-1	4.189436E-1	4.474812E-1	4.375410E-1	4.035413E-1	4.636853E-1	4.254814E-1	4.575456E-1	4.690626E-1
2.858030E+2	5.368616E-1	5.632485E-1	5.733591E-1	5.125220E-1	5.774689E-1	4.967284E-1	5.514900E-1	5.442569E-1	5.508427E-1	5.716501E-1	4.878392E-1	5.600296E-1	5.910472E-1	5.323341E-1	5.646701E-1	5.764639E-1	5.976296E-1	5.464726E-1	5.759439E-1	5.773992E-1	5.619636E-1	5.500807E-1	5.525830E-1	5.751238E-1	5.618374E-1	5.520050E-1	5.490746E-1	5.547195E-1	5.693536E-1	6.117337E-1	5.580849E-1	5.583108E-1	6.084566E-1	5.309598E-1	5.833902E-1	5.524460E-1	5.487414E-1	5.302623E-1	5.142375E-1	5.744205E-1	5.568551E-1	5.901534E-1	5.498824E-1	6.094387E-1	5.428143E-1	5.745407E-1	6.037981E-1	5.580061E-1	5.705306E-1	5.552613E-1	5.901630E-1	5.451784E-1	5.393309E-1	5.924745E-1	5.689896E-1	5.265760E-1	5.797966E-1	5.878305E-1	5.548799E-1	5.699414E-1	5.807917E-1	5.818256E-1	5.795537E-1	5.867895E-1	5.635348E-1	5.576428E-1	5.536264E-1	5.486387E-1	5.412736E-1	5.394072E-1	5.265928E-1	5.830154E-1	5.852197E-1	5.670370E-1	5.456063E-1	5.192753E-1	5.205607E-1	5.794379E-1	5.493631E-1	5.514164E-1	5.670483E-1	5.909428E-1	5.595381E-1	5.783729E-1	5.500027E-1	5.376178E-1	5.702049E-1	5.791589E-1	5.189141E-1	5.400251E-1	5.663417E-1	5.638063E-1	5.321492E-1	5.424110E-1	5.500212E-1	5.598798E-1	5.134100E-1	5.623428E-1	5.704978E-1	5.516888E-1	5.091590E-1	6.142909E-1	5.379725E-1	5.297503E-1	6.354717E-1	5.541463E-1	5.566212E-1	5.595905E-1	5.545027E-1	5.991788E-1	5.690946E-1	5.869618E-1	5.712861E-1	5.566031E-1	5.718450E-1	6.027784E-1	5.730814E-1	5.536268E-1	5.530239E-1	5.964054E-1	5.677632E-1	5.727847E-1	5.496773E-1	5.424683E-1	5.737129E-1	5.724540E-1	5.667884E-1	5.577569E-1	5.293699E-1	5.487756E-1	6.152238E-1	5.888862E-1	5.422285E-1	5.338675E-1	5.530619E-1	5.167144E-1	5.805463E-1	5.805345E-1	5.412907E-1	5.776779E-1	5.488579E-1	5.785860E-1	5.527303E-1	5.342912E-1	5.607789E-1	5.366912E-1	5.814491E-1	5.122250E-1	5.442000E-1	5.838025E-1	5.763525E-1	5.582902E-1	5.251084E-1	5.245176E-1	5.753773E-1	5.394920E-1	5.660883E-1	5.444879E-1	5.803560E-1	5.971262E-1	5.746233E-1	5.700002E-1	5.365710E-1
2.860040E+2	7.755718E-1	7.550388E-1	8.284982E-1	7.285897E-1	8.043304E-1	8.272124E-1	7.784969E-1	7.935246E-1	8.288822E-1	7.601653E-1	7.350971E-1	7.851323E-1	7.969608E-1	7.797011E-1	7.686149E-1	8.492423E-1	8.350947E-1	8.077072E-1	8.136258E-1	8.180022E-1	8.193963E-1	8.259441E-1	8.325101E-1	8.257761E-1	8.197610E-1	8.347401E-1	8.254418E-1	7.765602E-1	8.469417E-1	8.576444E-1	8.149488E-1	8.222174E-1	7.843613E-1	8.507294E-1	8.070072E-1	8.385613E-1	8.212092E-1	8.420564E-1	8.258066E-1	8.151946E-1	7.952584E-1	8.121019E-1	7.642858E-1	8.411536E-1	7.935916E-1	8.348467E-1	8.828767E-1	7.938421E-1	7.879966E-1	7.939403E-1	8.063588E-1	8.366135E-1	8.310336E-1	8.181581E-1	8.055954E-1	7.761322E-1	8.311418E-1	7.969073E-1	7.873714E-1	7.739867E-1	7.883843E-1	8.348009E-1	8.002501E-1	8.198970E-1	8.553022E-1	8.399673E-1	7.994094E-1	8.331318E-1	8.047807E-1	7.885361E-1	7.989314E-1	7.689740E-1	8.457078E-1	7.955283E-1	8.787931E-1	8.397050E-1	7.727196E-1	8.154631E-1	8.153507E-1	8.157292E-1	7.720240E-1	8.161203E-1	8.305000E-1	7.763593E-1	8.056924E-1	8.075670E-1	8.130274E-1	8.016839E-1	7.873131E-1	8.044262E-1	8.017402E-1	7.496537E-1	8.056436E-1	7.516992E-1	7.993414E-1	8.387919E-1	7.830602E-1	8.017354E-1	8.323893E-1	8.193930E-1	7.916333E-1	7.445549E-1	7.997320E-1	8.007613E-1	8.445851E-1	8.090918E-1	8.389717E-1	7.867856E-1	7.966416E-1	8.219810E-1	8.415168E-1	7.976585E-1	7.774488E-1	8.350532E-1	8.093362E-1	8.258030E-1	8.070703E-1	7.807747E-1	8.040498E-1	7.844553E-1	8.150958E-1	8.073255E-1	8.286188E-1	7.793652E-1	7.711782E-1	8.306004E-1	8.087037E-1	8.270521E-1	7.548395E-1	8.224872E-1	8.559945E-1	7.974100E-1	8.300160E-1	8.124157E-1	8.633450E-1	8.325034E-1	8.417632E-1	7.964455E-1	8.328748E-1	8.470503E-1	8.055819E-1	8.130303E-1	8.343266E-1	7.962194E-1	7.843308E-1	8.626305E-1	8.046939E-1	8.180749E-1	8.521371E-1	7.944239E-1	7.742641E-1	8.417565E-1	8.382880E-1	8.038375E-1	7.655332E-1	7.613966E-1	8.408995E-1	8.047125E-1	8.379234E-1	8.539882E-1	8.185656E-1	8.143799E-1	7.983448E-1
2.862030E+2	1.133320E+0	1.152866E+0	1.199527E+0	1.203752E+0	1.187495E+0	1.100298E+0	1.110613E+0	1.180546E+0	1.156707E+0	1.194048E+0	1.161238E+0	1.144357E+0	1.131961E+0	1.167453E+0	1.270818E+0	1.190906E+0	1.160672E+0	1.100923E+0	1.165589E+0	1.161184E+0	1.174328E+0	1.112962E+0	1.163996E+0	1.151923E+0	1.135939E+0	1.186787E+0	1.151179E+0	1.137331E+0	1.147079E+0	1.182946E+0	1.220832E+0	1.091847E+0	1.168367E+0	1.179044E+0	1.169129E+0	1.205700E+0	1.190632E+0	1.112093E+0	1.197212E+0	1.204847E+0	1.185213E+0	1.191890E+0	1.170177E+0	1.125204E+0	1.097648E+0	1.109435E+0	1.156698E+0	1.146403E+0	1.158629E+0	1.123848E+0	1.176314E+0	1.170862E+0	1.164968E+0	1.213443E+0	1.132132E+0	1.164175E+0	1.190195E+0	1.187896E+0	1.119695E+0	1.164856E+0	1.134412E+0	1.169670E+0	1.173192E+0	1.201398E+0	1.162604E+0	1.156917E+0	1.201706E+0	1.170804E+0	1.217746E+0	1.167242E+0	1.183069E+0	1.148231E+0	1.195955E+0	1.253263E+0	1.180258E+0	1.147477E+0	1.154477E+0	1.157299E+0	1.213690E+0	1.203095E+0	1.133773E+0	1.217441E+0	1.137775E+0	1.172196E+0	1.144165E+0	1.196984E+0	1.206457E+0	1.201960E+0	1.230617E+0	1.147542E+0	1.195911E+0	1.208458E+0	1.193333E+0	1.144118E+0	1.183463E+0	1.190611E+0	1.126289E+0	1.125732E+0	1.150470E+0	1.179070E+0	1.159211E+0	1.103408E+0	1.161585E+0	1.137363E+0	1.232421E+0	1.158783E+0	1.164561E+0	1.230025E+0	1.145398E+0	1.194512E+0	1.168460E+0	1.175701E+0	1.148084E+0	1.178376E+0	1.149820E+0	1.167852E+0	1.197652E+0	1.141216E+0	1.168770E+0	1.159214E+0	1.144223E+0	1.231171E+0	1.203550E+0	1.189128E+0	1.207801E+0	1.214889E+0	1.195080E+0	1.172389E+0	1.154924E+0	1.187853E+0	1.186657E+0	1.160662E+0	1.202260E+0	1.204591E+0	1.225029E+0	1.089578E+0	1.206867E+0	1.159147E+0	1.220883E+0	1.214792E+0	1.213025E+0	1.161995E+0	1.175518E+0	1.151880E+0	1.149152E+0	1.137784E+0	1.215651E+0	1.175371E+0	1.227658E+0	1.164742E+0	1.157164E+0	1.129638E+0	1.155358E+0	1.225318E+0	1.200796E+0	1.189945E+0	1.181259E+0	1.229582E+0	1.164937E+0	1.225375E+0	1.193734E+0	1.216498E+0	1.103960E+0
2.864180E+2	1.303004E+0	1.281718E+0	1.299365E+0	1.294129E+0	1.273751E+0	1.274601E+0	1.276580E+0	1.250764E+0	1.334791E+0	1.246248E+0	1.214255E+0	1.258207E+0	1.298656E+0	1.313363E+0	1.293541E+0	1.223204E+0	1.255262E+0	1.188945E+0	1.273137E+0	1.274999E+0	1.262497E+0	1.193558E+0	1.272074E+0	1.247430E+0	1.272739E+0	1.217124E+0	1.259471E+0	1.186385E+0	1.208729E+0	1.286574E+0	1.371857E+0	1.279742E+0	1.229360E+0	1.274951E+0	1.346191E+0	1.197200E+0	1.299678E+0	1.221340E+0	1.267044E+0	1.261267E+0	1.280721E+0	1.237979E+0	1.255133E+0	1.277467E+0	1.219838E+0	1.207245E+0	1.264275E+0	1.286939E+0	1.229898E+0	1.178170E+0	1.264341E+0	1.236475E+0	1.268559E+0	1.215659E+0	1.219375E+0	1.237729E+0	1.299739E+0	1.231590E+0	1.227294E+0	1.249497E+0	1.236950E+0	1.260450E+0	1.254255E+0	1.296411E+0	1.174946E+0	1.241085E+0	1.268765E+0	1.293481E+0	1.293160E+0	1.260300E+0	1.291854E+0	1.213977E+0	1.214741E+0	1.288560E+0	1.300621E+0	1.241157E+0	1.259748E+0	1.277835E+0	1.329358E+0	1.236237E+0	1.228958E+0	1.274893E+0	1.270112E+0	1.293500E+0	1.280106E+0	1.254718E+0	1.307398E+0	1.325740E+0	1.266025E+0	1.270385E+0	1.274231E+0	1.233749E+0	1.278441E+0	1.248198E+0	1.322750E+0	1.198443E+0	1.303170E+0	1.252081E+0	1.230583E+0	1.241927E+0	1.255400E+0	1.223250E+0	1.247468E+0	1.263819E+0	1.260355E+0	1.333108E+0	1.342454E+0	1.228292E+0	1.279948E+0	1.285422E+0	1.258280E+0	1.214762E+0	1.274553E+0	1.238027E+0	1.270550E+0	1.350171E+0	1.236837E+0	1.275483E+0	1.251758E+0	1.309365E+0	1.253480E+0	1.276890E+0	1.261276E+0	1.280034E+0	1.307846E+0	1.274550E+0	1.290462E+0	1.263161E+0	1.261204E+0	1.335845E+0	1.271228E+0	1.238165E+0	1.329466E+0	1.274601E+0	1.203986E+0	1.324742E+0	1.283663E+0	1.202478E+0	1.250922E+0	1.321209E+0	1.271652E+0	1.270007E+0	1.233091E+0	1.258565E+0	1.195239E+0	1.256524E+0	1.261377E+0	1.263880E+0	1.270553E+0	1.266297E+0	1.294613E+0	1.329233E+0	1.215129E+0	1.295828E+0	1.265938E+0	1.257032E+0	1.295168E+0	1.326223E+0	1.308716E+0	1.308300E+0	1.261018E+0	1.276415E+0	1.145202E+0
2.866150E+2	1.211376E+0	1.212163E+0	1.222585E+0	1.196457E+0	1.262837E+0	1.211903E+0	1.243554E+0	1.165742E+0	1.215081E+0	1.245225E+0	1.190840E+0	1.170336E+0	1.215868E+0	1.230146E+0	1.241522E+0	1.229507E+0	1.291054E+0	1.174327E+0	1.219826E+0	1.247479E+0	1.215358E+0	1.252743E+0	1.295158E+0	1.329283E+0	1.269906E+0	1.303150E+0	1.224576E+0	1.265385E+0	1.288815E+0	1.244445E+0	1.332014E+0	1.334068E+0	1.287000E+0	1.219139E+0	1.262519E+0	1.226467E+0	1.335336E+0	1.264537E+0	1.268336E+0	1.241100E+0	1.218193E+0	1.221605E+0	1.276717E+0	1.187830E+0	1.230347E+0	1.211802E+0	1.332753E+0	1.239020E+0	1.315795E+0	1.205781E+0	1.331638E+0	1.250325E+0	1.279555E+0	1.237846E+0	1.266989E+0	1.292747E+0	1.247222E+0	1.253094E+0	1.230468E+0	1.233560E+0	1.264714E+0	1.244346E+0	1.262271E+0	1.243773E+0	1.246014E+0	1.180998E+0	1.230109E+0	1.220142E+0	1.234335E+0	1.185493E+0	1.228899E+0	1.195817E+0	1.307724E+0	1.339371E+0	1.207185E+0	1.290198E+0	1.186609E+0	1.289380E+0	1.309770E+0	1.230690E+0	1.196784E+0	1.297348E+0	1.294733E+0	1.202713E+0	1.240254E+0	1.282854E+0	1.329616E+0	1.266173E+0	1.281097E+0	1.253046E+0	1.246609E+0	1.195294E+0	1.347362E+0	1.253681E+0	1.295279E+0	1.259955E+0	1.251701E+0	1.244508E+0	1.334621E+0	1.290421E+0	1.220134E+0	1.186652E+0	1.266007E+0	1.254362E+0	1.264505E+0	1.310614E+0	1.292873E+0	1.361891E+0	1.281431E+0	1.229401E+0	1.278233E+0	1.249559E+0	1.249460E+0	1.201492E+0	1.251970E+0	1.257474E+0	1.288603E+0	1.263975E+0	1.239133E+0	1.278011E+0	1.237956E+0	1.238845E+0	1.283720E+0	1.235148E+0	1.262589E+0	1.225981E+0	1.272584E+0	1.250648E+0	1.228434E+0	1.296867E+0	1.308443E+0	1.240675E+0	1.259897E+0	1.270817E+0	1.298115E+0	1.276118E+0	1.286616E+0	1.256587E+0	1.273751E+0	1.287617E+0	1.259618E+0	1.259216E+0	1.314026E+0	1.289779E+0	1.215155E+0	1.235498E+0	1.253500E+0	1.267205E+0	1.282542E+0	1.197554E+0	1.318526E+0	1.327614E+0	1.259542E+0	1.256950E+0	1.213355E+0	1.256115E+0	1.244093E+0	1.316462E+0	1.260099E+0	1.181729E+0	1.274302E+0	1.229327E+0	1.202453E+0
2.868020E+2	1.372108E+0	1.412237E+0	1.459220E+0	1.440927E+0	1.435082E+0	1.403880E+0	1.420627E+0	1.461943E+0	1.492730E+0	1.452115E+0	1.468328E+0	1.474416E+0	1.387592E+0	1.505325E+0	1.504994E+0	1.420195E+0	1.468051E+0	1.434978E+0	1.464371E+0	1.485046E+0	1.461177E+0	1.425679E+0	1.387235E+0	1.460932E+0	1.414229E+0	1.418504E+0	1.398916E+0	1.424292E+0	1.431975E+0	1.431723E+0	1.489680E+0	1.461748E+0	1.449139E+0	1.488583E+0	1.487442E+0	1.384556E+0	1.430270E+0	1.437422E+0	1.433809E+0	1.481341E+0	1.437026E+0	1.389279E+0	1.496848E+0	1.481981E+0	1.400359E+0	1.443440E+0	1.460123E+0	1.387481E+0	1.430865E+0	1.436939E+0	1.482162E+0	1.419942E+0	1.471920E+0	1.381641E+0	1.374339E+0	1.365505E+0	1.470593E+0	1.460486E+0	1.410159E+0	1.455375E+0	1.434397E+0	1.470959E+0	1.429630E+0	1.424381E+0	1.470098E+0	1.424768E+0	1.520078E+0	1.452534E+0	1.498621E+0	1.413116E+0	1.425650E+0	1.379069E+0	1.432106E+0	1.486180E+0	1.396777E+0	1.451692E+0	1.407790E+0	1.441730E+0	1.462727E+0	1.421318E+0	1.388178E+0	1.432760E+0	1.521671E+0	1.442633E+0	1.438832E+0	1.435850E+0	1.480985E+0	1.388378E+0	1.353778E+0	1.428213E+0	1.442105E+0	1.385331E+0	1.459170E+0	1.412520E+0	1.533866E+0	1.498555E+0	1.395106E+0	1.489045E+0	1.448419E+0	1.545771E+0	1.448752E+0	1.406195E+0	1.406565E+0	1.485648E+0	1.525678E+0	1.428840E+0	1.453227E+0	1.440423E+0	1.410859E+0	1.440194E+0	1.460406E+0	1.461562E+0	1.437272E+0	1.499371E+0	1.433981E+0	1.412096E+0	1.489657E+0	1.417092E+0	1.422237E+0	1.466681E+0	1.501503E+0	1.480758E+0	1.413525E+0	1.441358E+0	1.391960E+0	1.407252E+0	1.366429E+0	1.527765E+0	1.440438E+0	1.486701E+0	1.379437E+0	1.468349E+0	1.369817E+0	1.479139E+0	1.376961E+0	1.450916E+0	1.469769E+0	1.373403E+0	1.439574E+0	1.465411E+0	1.420138E+0	1.396441E+0	1.429400E+0	1.357103E+0	1.421781E+0	1.386696E+0	1.445456E+0	1.384844E+0	1.411372E+0	1.464841E+0	1.435762E+0	1.527211E+0	1.484562E+0	1.441287E+0	1.480251E+0	1.412387E+0	1.378628E+0	1.467732E+0	1.484173E+0	1.552522E+0	1.445557E+0	1.496786E+0	1.393169E+0
2.870160E+2	1.177268E+0	1.185061E+0	1.167155E+0	1.220848E+0	1.243783E+0	1.154006E+0	1.185052E+0	1.200608E+0	1.225836E+0	1.185940E+0	1.135612E+0	1.183221E+0	1.215500E+0	1.245514E+0	1.218644E+0	1.185035E+0	1.182976E+0	1.127266E+0	1.114223E+0	1.208262E+0	1.150917E+0	1.164290E+0	1.199644E+0	1.195883E+0	1.188769E+0	1.085508E+0	1.195313E+0	1.172680E+0	1.191137E+0	1.227132E+0	1.210316E+0	1.200067E+0	1.113551E+0	1.177171E+0	1.196855E+0	1.143646E+0	1.208092E+0	1.176032E+0	1.194905E+0	1.206752E+0	1.198663E+0	1.165713E+0	1.225045E+0	1.186438E+0	1.130471E+0	1.172303E+0	1.254379E+0	1.219321E+0	1.183849E+0	1.139259E+0	1.137449E+0	1.216932E+0	1.225730E+0	1.194888E+0	1.168176E+0	1.176033E+0	1.209441E+0	1.122446E+0	1.160999E+0	1.161796E+0	1.168491E+0	1.200609E+0	1.143482E+0	1.250850E+0	1.181527E+0	1.144219E+0	1.238727E+0	1.229659E+0	1.173134E+0	1.166258E+0	1.252598E+0	1.156308E+0	1.235208E+0	1.203339E+0	1.223214E+0	1.220736E+0	1.173410E+0	1.161222E+0	1.188217E+0	1.206287E+0	1.183530E+0	1.222995E+0	1.181576E+0	1.141067E+0	1.163773E+0	1.192967E+0	1.184486E+0	1.212928E+0	1.185558E+0	1.209563E+0	1.187988E+0	1.091411E+0	1.213247E+0	1.207354E+0	1.188044E+0	1.210772E+0	1.225498E+0	1.250430E+0	1.208747E+0	1.221510E+0	1.191235E+0	1.195589E+0	1.264779E+0	1.182483E+0	1.260320E+0	1.171240E+0	1.268251E+0	1.242639E+0	1.229142E+0	1.173277E+0	1.248869E+0	1.197023E+0	1.225302E+0	1.157797E+0	1.156087E+0	1.248447E+0	1.173417E+0	1.231876E+0	1.168953E+0	1.215267E+0	1.190762E+0	1.226961E+0	1.191416E+0	1.239977E+0	1.180987E+0	1.135445E+0	1.251994E+0	1.255173E+0	1.241661E+0	1.196653E+0	1.247158E+0	1.226652E+0	1.215152E+0	1.196083E+0	1.199453E+0	1.191453E+0	1.243978E+0	1.153261E+0	1.216484E+0	1.236284E+0	1.241190E+0	1.195485E+0	1.214458E+0	1.192174E+0	1.163518E+0	1.185612E+0	1.268595E+0	1.191237E+0	1.205771E+0	1.142001E+0	1.202652E+0	1.214704E+0	1.195570E+0	1.193477E+0	1.175832E+0	1.174774E+0	1.147079E+0	1.159668E+0	1.162330E+0	1.237034E+0	1.206605E+0	1.192839E+0	1.260960E+0
2.872070E+2	1.093237E+0	1.102174E+0	1.012443E+0	1.042527E+0	1.091706E+0	1.028067E+0	1.019723E+0	1.052383E+0	1.062603E+0	1.019591E+0	1.050778E+0	1.030520E+0	1.034347E+0	1.068071E+0	1.088498E+0	1.047669E+0	1.039634E+0	1.029420E+0	1.062052E+0	1.059177E+0	1.050517E+0	1.083846E+0	1.079901E+0	1.081833E+0	1.008807E+0	1.060320E+0	1.043994E+0	1.018647E+0	1.018769E+0	1.046822E+0	1.126870E+0	1.110323E+0	1.069041E+0	1.071327E+0	1.123943E+0	1.096416E+0	1.008961E+0	9.963565E-1	1.073689E+0	1.086951E+0	1.088726E+0	1.043099E+0	1.072737E+0	1.092732E+0	1.062710E+0	1.039674E+0	1.078240E+0	1.009336E+0	1.090099E+0	9.903311E-1	1.107974E+0	1.069175E+0	1.066172E+0	1.032448E+0	1.052502E+0	1.041504E+0	1.006203E+0	1.085506E+0	1.087395E+0	1.029258E+0	1.052209E+0	1.068497E+0	1.064180E+0	1.124115E+0	1.086053E+0	1.036881E+0	1.034378E+0	1.065606E+0	1.043287E+0	1.037828E+0	1.056718E+0	1.066809E+0	1.105150E+0	1.094873E+0	1.061675E+0	1.060953E+0	1.066751E+0	1.066038E+0	1.106807E+0	1.057201E+0	1.068064E+0	1.082653E+0	1.087064E+0	1.058525E+0	9.943454E-1	1.065358E+0	1.120612E+0	1.062723E+0	1.049706E+0	1.054825E+0	1.110355E+0	1.110356E+0	1.081854E+0	1.059597E+0	1.091086E+0	1.057639E+0	1.019058E+0	1.070848E+0	1.059396E+0	1.062859E+0	1.085975E+0	1.021354E+0	1.048237E+0	1.091714E+0	1.136045E+0	1.103554E+0	1.087050E+0	1.085511E+0	1.068264E+0	1.055276E+0	1.043147E+0	1.075651E+0	1.025072E+0	1.096174E+0	1.089865E+0	1.086644E+0	1.058487E+0	1.046699E+0	1.072304E+0	1.119398E+0	1.014513E+0	1.069476E+0	1.045914E+0	1.116650E+0	1.080324E+0	1.043772E+0	1.090292E+0	1.077975E+0	1.113856E+0	1.120511E+0	1.078492E+0	1.054266E+0	1.087525E+0	1.075909E+0	1.096574E+0	1.060601E+0	1.092001E+0	1.017340E+0	1.086580E+0	1.083756E+0	1.057513E+0	1.046020E+0	1.069246E+0	1.112703E+0	1.014731E+0	1.055735E+0	1.099120E+0	1.007455E+0	1.049003E+0	1.085886E+0	1.128523E+0	1.092995E+0	1.050359E+0	1.085252E+0	1.088822E+0	1.078134E+0	1.080023E+0	1.034682E+0	1.083888E+0	1.121201E+0	1.081478E+0	1.068947E+0	1.072275E+0
2.874000E+2	9.190567E-1	8.963290E-1	9.095795E-1	8.958008E-1	9.494375E-1	8.666864E-1	9.736620E-1	8.853934E-1	8.898588E-1	9.128001E-1	8.938176E-1	9.238978E-1	9.504256E-1	9.020418E-1	9.460002E-1	9.350576E-1	9.210458E-1	9.250061E-1	9.578862E-1	9.389303E-1	9.538020E-1	8.831962E-1	9.660054E-1	9.209362E-1	8.871740E-1	8.830145E-1	9.552915E-1	9.011331E-1	9.050901E-1	9.193399E-1	9.765197E-1	9.531892E-1	9.232968E-1	9.535649E-1	9.713142E-1	9.157349E-1	9.414351E-1	8.862318E-1	9.533058E-1	9.119102E-1	9.069225E-1	8.743791E-1	9.218173E-1	9.019249E-1	9.583892E-1	8.657387E-1	9.507967E-1	9.143620E-1	8.968882E-1	9.347384E-1	9.422741E-1	8.665073E-1	9.079278E-1	9.097018E-1	9.100347E-1	9.196255E-1	9.391003E-1	8.832098E-1	9.011638E-1	9.592533E-1	8.978902E-1	8.802124E-1	9.140896E-1	9.352791E-1	8.911041E-1	9.177822E-1	9.454682E-1	9.706922E-1	9.363289E-1	9.146374E-1	9.048368E-1	9.135448E-1	9.234187E-1	9.435163E-1	9.696874E-1	8.844830E-1	9.596967E-1	8.908027E-1	9.408680E-1	9.669913E-1	9.005361E-1	9.463848E-1	9.482684E-1	9.307760E-1	9.339528E-1	8.987422E-1	9.028355E-1	9.221931E-1	9.444126E-1	8.725565E-1	9.160294E-1	8.887979E-1	9.329045E-1	8.571573E-1	9.354468E-1	9.454608E-1	8.775365E-1	9.211386E-1	9.267467E-1	9.600499E-1	9.119801E-1	9.102212E-1	9.420317E-1	8.639268E-1	9.306776E-1	9.479231E-1	9.082526E-1	9.148621E-1	9.533453E-1	9.228305E-1	9.367527E-1	9.131263E-1	9.107653E-1	8.879279E-1	9.263992E-1	9.270275E-1	9.608853E-1	8.912955E-1	9.291486E-1	9.645121E-1	9.129700E-1	9.387294E-1	9.313082E-1	8.981041E-1	8.822684E-1	9.250196E-1	9.396284E-1	9.220712E-1	9.030352E-1	8.790334E-1	1.012074E+0	9.098949E-1	1.002648E+0	9.262516E-1	9.092021E-1	9.272939E-1	9.689415E-1	9.055289E-1	9.238140E-1	9.646020E-1	9.222830E-1	8.493568E-1	9.280075E-1	9.045964E-1	8.850590E-1	8.625535E-1	9.882204E-1	9.584494E-1	9.494928E-1	8.827389E-1	9.450557E-1	8.983190E-1	9.451510E-1	9.702395E-1	9.377415E-1	8.670861E-1	9.115718E-1	9.373957E-1	9.294319E-1	9.328641E-1	9.339785E-1	9.663501E-1	8.764690E-1
2.876030E+2	7.831426E-1	7.268506E-1	7.973432E-1	7.691035E-1	7.650938E-1	7.389930E-1	6.997844E-1	7.532408E-1	8.304947E-1	7.764100E-1	7.161309E-1	7.909907E-1	7.958025E-1	7.828072E-1	7.783014E-1	7.501707E-1	7.683296E-1	7.190655E-1	7.753283E-1	7.864910E-1	7.890019E-1	7.258647E-1	8.111508E-1	7.459241E-1	7.662187E-1	7.951152E-1	7.479896E-1	7.198852E-1	7.774801E-1	7.467115E-1	7.701834E-1	7.705514E-1	7.891390E-1	7.501576E-1	7.990119E-1	7.512824E-1	7.764557E-1	7.758531E-1	7.827253E-1	8.199918E-1	7.895635E-1	7.264039E-1	8.133623E-1	7.191532E-1	7.195829E-1	7.866250E-1	7.570857E-1	7.254689E-1	8.078429E-1	7.888822E-1	7.908301E-1	7.849374E-1	8.076795E-1	7.567067E-1	7.865058E-1	7.921914E-1	7.832125E-1	7.784735E-1	7.540419E-1	7.640623E-1	8.004400E-1	7.811583E-1	7.338391E-1	7.736243E-1	8.047657E-1	7.883065E-1	7.879108E-1	7.530717E-1	7.305782E-1	8.068349E-1	7.843769E-1	7.195132E-1	8.010832E-1	8.386513E-1	8.077760E-1	7.839225E-1	7.569895E-1	7.942404E-1	8.292623E-1	8.196379E-1	7.545966E-1	8.049436E-1	7.631231E-1	8.060412E-1	8.329217E-1	7.445507E-1	7.747747E-1	7.822121E-1	7.818444E-1	7.781253E-1	7.611463E-1	7.480878E-1	7.520375E-1	7.273570E-1	7.674153E-1	7.674943E-1	7.236793E-1	8.147349E-1	8.276961E-1	7.585540E-1	7.561833E-1	7.963721E-1	7.568756E-1	7.337027E-1	8.702062E-1	8.194438E-1	7.286066E-1	8.328232E-1	8.129800E-1	7.647104E-1	7.911626E-1	8.055352E-1	7.945901E-1	7.490351E-1	8.028947E-1	8.352974E-1	7.995266E-1	7.528830E-1	8.082526E-1	7.717697E-1	7.828770E-1	7.663827E-1	7.821350E-1	8.314903E-1	7.676968E-1	7.691438E-1	7.918204E-1	8.052758E-1	7.603549E-1	8.679112E-1	7.793500E-1	7.709093E-1	7.555907E-1	7.866006E-1	7.892416E-1	7.482973E-1	8.014569E-1	7.382558E-1	8.190999E-1	8.142806E-1	7.496449E-1	7.765144E-1	8.191822E-1	7.910683E-1	7.396906E-1	7.612685E-1	7.875569E-1	7.861973E-1	7.254398E-1	8.067625E-1	7.900167E-1	8.126895E-1	7.645049E-1	7.707341E-1	7.856940E-1	7.587461E-1	7.546056E-1	7.837336E-1	7.611198E-1	8.012490E-1	7.735975E-1	7.415325E-1	7.841955E-1
2.878050E+2	6.504022E-1	6.261394E-1	6.590255E-1	6.338013E-1	6.469496E-1	5.884540E-1	6.582716E-1	6.275483E-1	6.198319E-1	6.317850E-1	6.345410E-1	6.261115E-1	6.241140E-1	6.181135E-1	6.468791E-1	6.326441E-1	6.154917E-1	6.351347E-1	6.371390E-1	6.711031E-1	6.399925E-1	6.590092E-1	6.100994E-1	6.597758E-1	6.269013E-1	6.390781E-1	6.764123E-1	6.426456E-1	6.340674E-1	6.310910E-1	6.738278E-1	6.773675E-1	5.905142E-1	6.343458E-1	6.622891E-1	6.250982E-1	6.137043E-1	6.030891E-1	6.873283E-1	6.187502E-1	6.652740E-1	6.041569E-1	6.588956E-1	6.658541E-1	6.762755E-1	6.298178E-1	6.635986E-1	6.639906E-1	6.361815E-1	6.491956E-1	6.224410E-1	6.679384E-1	6.774056E-1	6.291430E-1	6.529480E-1	6.594562E-1	6.222142E-1	6.319541E-1	6.482340E-1	6.376596E-1	6.794254E-1	6.123018E-1	6.061635E-1	6.444913E-1	6.497434E-1	5.921550E-1	6.573278E-1	6.521303E-1	6.245492E-1	6.533479E-1	7.124331E-1	6.478268E-1	6.877371E-1	6.665180E-1	6.514891E-1	6.669254E-1	6.251837E-1	6.226430E-1	6.929372E-1	6.394050E-1	6.382123E-1	6.656330E-1	6.474420E-1	6.478808E-1	6.507535E-1	6.184861E-1	6.455723E-1	6.425277E-1	6.494555E-1	6.466531E-1	6.534821E-1	6.425461E-1	6.467158E-1	5.854828E-1	6.383889E-1	7.125029E-1	6.406548E-1	6.552876E-1	6.318072E-1	6.491357E-1	6.568418E-1	6.534056E-1	6.337080E-1	6.071201E-1	6.744054E-1	6.676076E-1	6.522102E-1	6.930846E-1	6.721727E-1	6.404310E-1	6.811850E-1	6.352825E-1	6.635629E-1	6.359599E-1	6.540423E-1	6.367544E-1	6.252232E-1	6.286310E-1	6.774405E-1	6.512162E-1	6.282383E-1	6.574589E-1	6.168282E-1	6.509877E-1	6.396288E-1	6.222236E-1	6.145394E-1	6.850771E-1	6.276528E-1	7.047386E-1	6.599896E-1	6.447192E-1	6.690995E-1	6.836915E-1	6.745835E-1	6.238837E-1	6.463450E-1	5.969448E-1	6.587385E-1	6.412323E-1	6.304114E-1	6.791434E-1	6.480577E-1	6.501370E-1	6.042379E-1	6.880632E-1	7.191437E-1	6.335909E-1	6.364276E-1	6.159319E-1	6.380884E-1	6.377286E-1	6.272393E-1	6.396286E-1	6.664240E-1	6.639508E-1	6.447771E-1	6.262154E-1	6.231040E-1	6.808399E-1	6.576623E-1	6.297910E-1	6.243169E-1
2.880020E+2	6.385785E-1	6.276216E-1	6.130035E-1	5.895694E-1	5.932473E-1	5.996256E-1	6.131546E-1	6.111684E-1	6.272153E-1	6.535917E-1	6.504031E-1	6.226797E-1	6.384147E-1	6.610993E-1	6.307979E-1	6.295665E-1	6.106115E-1	6.273819E-1	6.061723E-1	6.658194E-1	6.375678E-1	6.661397E-1	6.111401E-1	6.572898E-1	6.352325E-1	6.027008E-1	6.104049E-1	6.567993E-1	6.707332E-1	6.480575E-1	6.527837E-1	5.914875E-1	6.081533E-1	5.847397E-1	6.320438E-1	6.453656E-1	6.103660E-1	6.272194E-1	6.297187E-1	6.487966E-1	6.074530E-1	6.381799E-1	6.103796E-1	6.215068E-1	6.429538E-1	6.211007E-1	6.497213E-1	6.123354E-1	6.388851E-1	6.400692E-1	6.364629E-1	6.199451E-1	6.906546E-1	6.519102E-1	6.408503E-1	6.227650E-1	6.438976E-1	6.109374E-1	6.493316E-1	6.431573E-1	6.492220E-1	6.110135E-1	6.420371E-1	6.670173E-1	6.400573E-1	6.261221E-1	6.168877E-1	6.221961E-1	6.175774E-1	6.369484E-1	6.363326E-1	6.475768E-1	6.236680E-1	6.483840E-1	6.195345E-1	6.273188E-1	6.396718E-1	6.622628E-1	6.162435E-1	6.667510E-1	6.090010E-1	6.485616E-1	6.403452E-1	6.120041E-1	6.603413E-1	6.067446E-1	6.307432E-1	6.473813E-1	6.414515E-1	6.382929E-1	6.467213E-1	6.659657E-1	6.139055E-1	6.441141E-1	6.654275E-1	6.400893E-1	6.383663E-1	6.144829E-1	6.502703E-1	6.458686E-1	6.512816E-1	5.971674E-1	6.465403E-1	6.432172E-1	6.632122E-1	6.529102E-1	6.609295E-1	6.615283E-1	6.698230E-1	6.186758E-1	6.653699E-1	6.317670E-1	6.239321E-1	6.274900E-1	6.652479E-1	6.392240E-1	6.229314E-1	6.425941E-1	6.132252E-1	6.575157E-1	5.979787E-1	6.216439E-1	6.411577E-1	6.236048E-1	6.245671E-1	6.384174E-1	6.713858E-1	6.169619E-1	6.294791E-1	6.110192E-1	6.224148E-1	6.081295E-1	6.425863E-1	6.283833E-1	6.740121E-1	6.747393E-1	6.193645E-1	6.601744E-1	6.766505E-1	6.314732E-1	6.542070E-1	6.648051E-1	6.154702E-1	6.724696E-1	6.161745E-1	6.236597E-1	6.455792E-1	6.530010E-1	5.974015E-1	6.448966E-1	6.092681E-1	6.475022E-1	6.503711E-1	6.498509E-1	6.300948E-1	6.116776E-1	6.242576E-1	6.135956E-1	6.279858E-1	6.660591E-1	6.751445E-1	6.422709E-1	6.296244E-1
2.882230E+2	8.492112E-1	7.796208E-1	8.230590E-1	7.843204E-1	8.480387E-1	8.061334E-1	7.883847E-1	7.921421E-1	8.015733E-1	8.243353E-1	8.071641E-1	8.068254E-1	8.241240E-1	8.039645E-1	8.464153E-1	8.214881E-1	8.088837E-1	8.249513E-1	7.965354E-1	8.695057E-1	8.180721E-1	8.264585E-1	8.386310E-1	8.692789E-1	8.328453E-1	8.715456E-1	8.399783E-1	7.914837E-1	8.398397E-1	8.216262E-1	8.232442E-1	8.507745E-1	8.028806E-1	8.258057E-1	8.880545E-1	8.132461E-1	8.454350E-1	8.288308E-1	8.146493E-1	8.830005E-1	8.500547E-1	7.730358E-1	7.992999E-1	8.398257E-1	8.201693E-1	8.286924E-1	8.313897E-1	7.930651E-1	8.229028E-1	8.016591E-1	8.522246E-1	8.461727E-1	8.704817E-1	8.058613E-1	8.194822E-1	8.757888E-1	8.595112E-1	8.306124E-1	8.316258E-1	8.181598E-1	8.131333E-1	8.078230E-1	8.713132E-1	8.061694E-1	8.081057E-1	8.184000E-1	8.165812E-1	8.519513E-1	8.346681E-1	7.703040E-1	7.853721E-1	8.577515E-1	8.370621E-1	7.924035E-1	8.420641E-1	8.147036E-1	8.109150E-1	8.361339E-1	8.328120E-1	8.036183E-1	7.970345E-1	8.106102E-1	7.957136E-1	8.365034E-1	7.888826E-1	8.630483E-1	8.646733E-1	8.603273E-1	8.595638E-1	8.164336E-1	8.098110E-1	8.028177E-1	8.120228E-1	8.357914E-1	7.647801E-1	8.317647E-1	8.389470E-1	8.479216E-1	8.024151E-1	8.503275E-1	8.296842E-1	8.065236E-1	8.395448E-1	8.438178E-1	7.975142E-1	8.159438E-1	8.366624E-1	7.592046E-1	8.026006E-1	8.146527E-1	8.491112E-1	8.204563E-1	8.142855E-1	8.402331E-1	7.772056E-1	8.174124E-1	8.553180E-1	8.331002E-1	8.688013E-1	8.709333E-1	7.963176E-1	8.575087E-1	8.560890E-1	8.706312E-1	7.873808E-1	7.884755E-1	8.356590E-1	8.476610E-1	8.546027E-1	8.898914E-1	8.652826E-1	8.297986E-1	8.996851E-1	8.725827E-1	8.344639E-1	8.046108E-1	8.150504E-1	8.126625E-1	8.371166E-1	8.673998E-1	8.657440E-1	8.283136E-1	8.320971E-1	8.453780E-1	8.390415E-1	7.820401E-1	8.235775E-1	8.312909E-1	8.611754E-1	7.860700E-1	8.155629E-1	8.375058E-1	8.317558E-1	8.145924E-1	8.021440E-1	7.999547E-1	8.281678E-1	8.494940E-1	8.104312E-1	8.313940E-1	8.503538E-1	7.640696E-1	8.293224E-1
2.884070E+2	9.748047E-1	9.813342E-1	9.833425E-1	1.017521E+0	1.028979E+0	9.585882E-1	1.001180E+0	1.027579E+0	1.018262E+0	9.834839E-1	9.977209E-1	1.042559E+0	9.510336E-1	1.016631E+0	1.027291E+0	1.005607E+0	1.060644E+0	9.688661E-1	1.024697E+0	1.092361E+0	1.020952E+0	1.027738E+0	1.047122E+0	1.082145E+0	1.001817E+0	1.025746E+0	9.597049E-1	1.041260E+0	1.036636E+0	1.022707E+0	1.029727E+0	1.056894E+0	1.029140E+0	1.001762E+0	1.025351E+0	1.043169E+0	1.023521E+0	1.025684E+0	1.011831E+0	1.048415E+0	9.777043E-1	1.005174E+0	1.003091E+0	1.058753E+0	9.908384E-1	1.026723E+0	1.017839E+0	9.971045E-1	1.062616E+0	1.016285E+0	9.839448E-1	1.010678E+0	1.063895E+0	1.040179E+0	1.002250E+0	1.039738E+0	1.008785E+0	1.041644E+0	1.040287E+0	1.049993E+0	1.031753E+0	9.720962E-1	9.963146E-1	9.992748E-1	9.799521E-1	9.284840E-1	1.018344E+0	1.058856E+0	1.025933E+0	1.036437E+0	9.644728E-1	1.020869E+0	1.068461E+0	1.025785E+0	9.928266E-1	1.003269E+0	1.030614E+0	1.045251E+0	1.036374E+0	1.022886E+0	9.953884E-1	1.061476E+0	1.005585E+0	1.037317E+0	9.716280E-1	9.804447E-1	1.027738E+0	9.845629E-1	9.921663E-1	9.925906E-1	9.664547E-1	1.027936E+0	1.078626E+0	9.789883E-1	1.072964E+0	1.033572E+0	1.059937E+0	9.873300E-1	1.078468E+0	1.052578E+0	1.001891E+0	9.933058E-1	1.013059E+0	9.784214E-1	1.008397E+0	1.056126E+0	1.059539E+0	1.010385E+0	1.023483E+0	1.001481E+0	9.975789E-1	1.014843E+0	1.011995E+0	1.002725E+0	1.029649E+0	1.017649E+0	9.793902E-1	1.042220E+0	1.052622E+0	9.815126E-1	9.453089E-1	1.032534E+0	9.972040E-1	9.977042E-1	1.000449E+0	1.029721E+0	1.130764E+0	1.057766E+0	1.008447E+0	1.047259E+0	1.022336E+0	1.069405E+0	1.041032E+0	9.792739E-1	1.102473E+0	1.001598E+0	9.649419E-1	1.034867E+0	1.025883E+0	1.005793E+0	1.036764E+0	9.777043E-1	1.012644E+0	1.032752E+0	1.011425E+0	1.019551E+0	1.045902E+0	9.864844E-1	1.065877E+0	1.042554E+0	1.039778E+0	1.012690E+0	1.001822E+0	9.833786E-1	1.020527E+0	1.020142E+0	9.831845E-1	1.019970E+0	1.009039E+0	1.034744E+0	1.057258E+0	9.953493E-1	1.049378E+0
2.886030E+2	1.223424E+0	1.116672E+0	1.166971E+0	1.153416E+0	1.292861E+0	1.119761E+0	1.134838E+0	1.131633E+0	1.182244E+0	1.148342E+0	1.138089E+0	1.166618E+0	1.249114E+0	1.194509E+0	1.248572E+0	1.182773E+0	1.181020E+0	1.151050E+0	1.198857E+0	1.227741E+0	1.192337E+0	1.211343E+0	1.162511E+0	1.215499E+0	1.187071E+0	1.143922E+0	1.122248E+0	1.143690E+0	1.149123E+0	1.168127E+0	1.222536E+0	1.150131E+0	1.219399E+0	1.138213E+0	1.173517E+0	1.222281E+0	1.167984E+0	1.129287E+0	1.136788E+0	1.167535E+0	1.150007E+0	1.208813E+0	1.143605E+0	1.223172E+0	1.139927E+0	1.171723E+0	1.183233E+0	1.175746E+0	1.184830E+0	1.202458E+0	1.192101E+0	1.164082E+0	1.221031E+0	1.210406E+0	1.226115E+0	1.119559E+0	1.249540E+0	1.242562E+0	1.154936E+0	1.232243E+0	1.194119E+0	1.148925E+0	1.175282E+0	1.158225E+0	1.176869E+0	1.180079E+0	1.218750E+0	1.208297E+0	1.201465E+0	1.188545E+0	1.218976E+0	1.206236E+0	1.245240E+0	1.234887E+0	1.200813E+0	1.216854E+0	1.140398E+0	1.157370E+0	1.220505E+0	1.245894E+0	1.220718E+0	1.202257E+0	1.149344E+0	1.221444E+0	1.225312E+0	1.190158E+0	1.239899E+0	1.159268E+0	1.151173E+0	1.125459E+0	1.145333E+0	1.145638E+0	1.155370E+0	1.179132E+0	1.234350E+0	1.194392E+0	1.163912E+0	1.204360E+0	1.276109E+0	1.192016E+0	1.232701E+0	1.178584E+0	1.210195E+0	1.156569E+0	1.189099E+0	1.178186E+0	1.264559E+0	1.161050E+0	1.213430E+0	1.207863E+0	1.231937E+0	1.148650E+0	1.181591E+0	1.151353E+0	1.195395E+0	1.170420E+0	1.214569E+0	1.200741E+0	1.256593E+0	1.166448E+0	1.186739E+0	1.227880E+0	1.206482E+0	1.152054E+0	1.073406E+0	1.211604E+0	1.267426E+0	1.195889E+0	1.146510E+0	1.175690E+0	1.177515E+0	1.225641E+0	1.189006E+0	1.218419E+0	1.228922E+0	1.200218E+0	1.197048E+0	1.090203E+0	1.282376E+0	1.253574E+0	1.191841E+0	1.203596E+0	1.255655E+0	1.189405E+0	1.170502E+0	1.228628E+0	1.233895E+0	1.074773E+0	1.185376E+0	1.127342E+0	1.220629E+0	1.213507E+0	1.174076E+0	1.126109E+0	1.150916E+0	1.127034E+0	1.187219E+0	1.104599E+0	1.175269E+0	1.252942E+0	1.211964E+0	1.195222E+0	1.195880E+0
2.887980E+2	1.117672E+0	1.127865E+0	1.190376E+0	1.091046E+0	1.140715E+0	1.124023E+0	1.106246E+0	1.153933E+0	1.198976E+0	1.160989E+0	1.107712E+0	1.144577E+0	1.095931E+0	1.116081E+0	1.152073E+0	1.151374E+0	1.076207E+0	1.093699E+0	1.103634E+0	1.100778E+0	1.118681E+0	1.127579E+0	1.095031E+0	1.107749E+0	1.128087E+0	1.142495E+0	1.095181E+0	1.084226E+0	1.101204E+0	1.076706E+0	1.112801E+0	1.134825E+0	1.112813E+0	1.124518E+0	1.102673E+0	1.166726E+0	1.087687E+0	1.139539E+0	1.141092E+0	1.142521E+0	1.142478E+0	1.091572E+0	1.134129E+0	1.116407E+0	1.044573E+0	1.066068E+0	1.163139E+0	1.109146E+0	1.140907E+0	1.111043E+0	1.094183E+0	1.096132E+0	1.119605E+0	1.150432E+0	1.141033E+0	1.160864E+0	1.212531E+0	1.141699E+0	1.122468E+0	1.129578E+0	1.106397E+0	1.133221E+0	1.084057E+0	1.142657E+0	1.206284E+0	1.122109E+0	1.114343E+0	1.165737E+0	1.147165E+0	1.086939E+0	1.105815E+0	1.084467E+0	1.131325E+0	1.154642E+0	1.180278E+0	1.142432E+0	1.081652E+0	1.163212E+0	1.137070E+0	1.151043E+0	1.117500E+0	1.151404E+0	1.136784E+0	1.134631E+0	1.097155E+0	1.115344E+0	1.142900E+0	1.117246E+0	1.107764E+0	1.108167E+0	1.144270E+0	1.075282E+0	1.216405E+0	1.151119E+0	1.173655E+0	1.170277E+0	1.095177E+0	1.170529E+0	1.157988E+0	1.159591E+0	1.163030E+0	1.077931E+0	1.142113E+0	1.187071E+0	1.197172E+0	1.118944E+0	1.184241E+0	1.195506E+0	1.163628E+0	1.147086E+0	1.131481E+0	1.190007E+0	1.129907E+0	1.097095E+0	1.159494E+0	1.111829E+0	1.165214E+0	1.096847E+0	1.102107E+0	1.139733E+0	1.031562E+0	1.098874E+0	1.130895E+0	1.171925E+0	1.141162E+0	1.108725E+0	1.179557E+0	1.188746E+0	1.128116E+0	1.117561E+0	1.166558E+0	1.146463E+0	1.165641E+0	1.152280E+0	1.220866E+0	1.141204E+0	1.123695E+0	1.163460E+0	1.137973E+0	1.167176E+0	1.228155E+0	1.118107E+0	1.152780E+0	1.129081E+0	1.083536E+0	1.119305E+0	1.097075E+0	1.108151E+0	1.221177E+0	1.089154E+0	1.222416E+0	1.165062E+0	1.131961E+0	1.115431E+0	1.126197E+0	1.158297E+0	1.094999E+0	1.125346E+0	1.165253E+0	1.145651E+0	1.124549E+0	1.127629E+0	1.074729E+0
2.890060E+2	1.034767E+0	1.064011E+0	1.095645E+0	1.043172E+0	1.118318E+0	1.024512E+0	1.077692E+0	1.017154E+0	1.073619E+0	1.024723E+0	1.013173E+0	1.029155E+0	1.070751E+0	1.039616E+0	1.075640E+0	1.040199E+0	1.065541E+0	9.744746E-1	1.067635E+0	1.074772E+0	1.014978E+0	1.059971E+0	1.038607E+0	1.081048E+0	1.040667E+0	9.908915E-1	1.041606E+0	1.041766E+0	1.073517E+0	1.098408E+0	1.052863E+0	1.078933E+0	1.021461E+0	1.092164E+0	1.031985E+0	1.081237E+0	1.085990E+0	1.059577E+0	1.020333E+0	1.079229E+0	1.028940E+0	1.101547E+0	1.077791E+0	1.064619E+0	1.056016E+0	1.024871E+0	1.044179E+0	1.047846E+0	1.041549E+0	1.047680E+0	1.011318E+0	1.064672E+0	1.066959E+0	1.040320E+0	1.050631E+0	1.043681E+0	1.072126E+0	1.107676E+0	1.024305E+0	1.003097E+0	1.005001E+0	1.067748E+0	1.031127E+0	1.037201E+0	1.061526E+0	1.037139E+0	1.056851E+0	1.087131E+0	1.016183E+0	1.065065E+0	1.064920E+0	1.009294E+0	1.088672E+0	1.047277E+0	1.068911E+0	1.029742E+0	1.024440E+0	1.022787E+0	1.043305E+0	1.055851E+0	1.045687E+0	1.100828E+0	1.045238E+0	1.096710E+0	1.073018E+0	1.042843E+0	1.090846E+0	1.060934E+0	1.106988E+0	1.053506E+0	1.130265E+0	1.117580E+0	1.113429E+0	1.017796E+0	1.058847E+0	1.086448E+0	1.080486E+0	1.035192E+0	1.065955E+0	1.144528E+0	1.119444E+0	1.081870E+0	1.038274E+0	1.123380E+0	1.128079E+0	1.043424E+0	1.061701E+0	1.125892E+0	1.081004E+0	1.067999E+0	1.041577E+0	1.096995E+0	1.043943E+0	1.055772E+0	1.027881E+0	1.122848E+0	1.116965E+0	1.034747E+0	1.035035E+0	1.108141E+0	1.110476E+0	1.097039E+0	9.871140E-1	1.072187E+0	1.078308E+0	1.089275E+0	1.101675E+0	1.078587E+0	1.051698E+0	1.061864E+0	1.032050E+0	1.059574E+0	1.118529E+0	1.088529E+0	1.143224E+0	1.117342E+0	1.063720E+0	1.099225E+0	1.100176E+0	1.135235E+0	1.014782E+0	1.091501E+0	1.107977E+0	1.077655E+0	1.047808E+0	1.092091E+0	1.116511E+0	1.080453E+0	1.079935E+0	1.018939E+0	1.081690E+0	1.103591E+0	1.084595E+0	1.093569E+0	1.043070E+0	1.030325E+0	1.020215E+0	1.061179E+0	1.055843E+0	1.138035E+0	1.107163E+0	1.022666E+0	1.076118E+0
2.892040E+2	9.996503E-1	9.874007E-1	9.935432E-1	1.007592E+0	1.085134E+0	9.550006E-1	9.877619E-1	1.015068E+0	9.776243E-1	1.006710E+0	9.910278E-1	1.026364E+0	1.036147E+0	9.852639E-1	9.915328E-1	1.028714E+0	9.721971E-1	9.072659E-1	9.952127E-1	1.016925E+0	9.632279E-1	9.928095E-1	1.017310E+0	9.919635E-1	9.712885E-1	9.788239E-1	9.753872E-1	9.121038E-1	1.054311E+0	9.741868E-1	9.979795E-1	1.008384E+0	9.525817E-1	9.992755E-1	1.016678E+0	1.045782E+0	1.008713E+0	9.917864E-1	1.004688E+0	1.030480E+0	9.960802E-1	9.951595E-1	1.000102E+0	9.990104E-1	9.867761E-1	8.914040E-1	9.647643E-1	1.003936E+0	9.754062E-1	1.010112E+0	1.012938E+0	9.847095E-1	1.085172E+0	1.020911E+0	1.000283E+0	9.788886E-1	9.986424E-1	9.957631E-1	9.990811E-1	1.051686E+0	9.595311E-1	9.741381E-1	9.696527E-1	1.051695E+0	1.030811E+0	1.018384E+0	9.853016E-1	9.665119E-1	1.006439E+0	9.881771E-1	1.046716E+0	9.737469E-1	1.057688E+0	1.042466E+0	9.676714E-1	9.529109E-1	9.854309E-1	9.884782E-1	1.003895E+0	1.005714E+0	9.965370E-1	9.974024E-1	1.030778E+0	9.744304E-1	9.573829E-1	1.011118E+0	9.846479E-1	9.974496E-1	1.021182E+0	1.033243E+0	9.854120E-1	1.007933E+0	9.962401E-1	9.749813E-1	1.037669E+0	1.058062E+0	1.044004E+0	1.012150E+0	1.033209E+0	9.923484E-1	1.006099E+0	9.963501E-1	9.850931E-1	1.000903E+0	1.018244E+0	9.382324E-1	1.063803E+0	1.048288E+0	9.882129E-1	1.014878E+0	1.052329E+0	1.016253E+0	1.013241E+0	9.612881E-1	9.497519E-1	1.009896E+0	9.877033E-1	9.943858E-1	9.765388E-1	1.064034E+0	9.821084E-1	1.017066E+0	9.901407E-1	1.026639E+0	9.518210E-1	1.034086E+0	9.663121E-1	9.919922E-1	9.826406E-1	1.031216E+0	1.012395E+0	1.041557E+0	1.069126E+0	9.970883E-1	1.022864E+0	1.024469E+0	1.034850E+0	9.515702E-1	1.021198E+0	1.042140E+0	9.894012E-1	1.006406E+0	1.053314E+0	1.003379E+0	1.006258E+0	1.049349E+0	1.004474E+0	1.025499E+0	1.040410E+0	1.051142E+0	9.985305E-1	9.933371E-1	9.785573E-1	9.844942E-1	9.926091E-1	1.011198E+0	9.792014E-1	9.931083E-1	1.045030E+0	1.068584E+0	1.003383E+0	9.790379E-1	9.531303E-1
2.894020E+2	9.127447E-1	9.197216E-1	8.882727E-1	8.935909E-1	9.396556E-1	9.061510E-1	9.004516E-1	8.697028E-1	8.686191E-1	9.252943E-1	8.933783E-1	8.796334E-1	8.788482E-1	9.143075E-1	8.781478E-1	8.838627E-1	9.788537E-1	9.211053E-1	9.126748E-1	9.037240E-1	9.081476E-1	8.993175E-1	9.241757E-1	8.956212E-1	8.667494E-1	9.504675E-1	8.691912E-1	9.082045E-1	9.161155E-1	9.269623E-1	9.415426E-1	9.343567E-1	9.169140E-1	9.045818E-1	9.440923E-1	9.060756E-1	8.905516E-1	8.828114E-1	8.983260E-1	9.331940E-1	8.927731E-1	8.996304E-1	9.609659E-1	8.969157E-1	8.938008E-1	9.087143E-1	9.424591E-1	8.998380E-1	9.310127E-1	9.133545E-1	8.851728E-1	9.070482E-1	9.526286E-1	9.218613E-1	9.644153E-1	8.995436E-1	9.586687E-1	9.187495E-1	9.348378E-1	8.939939E-1	9.299275E-1	9.491292E-1	8.845868E-1	9.105338E-1	9.242569E-1	9.469327E-1	9.645258E-1	9.456984E-1	9.100070E-1	9.087763E-1	9.112617E-1	8.564601E-1	9.610860E-1	9.542384E-1	9.355512E-1	9.340752E-1	8.701439E-1	9.150584E-1	9.052660E-1	9.262383E-1	9.626218E-1	9.392041E-1	9.601600E-1	9.391746E-1	9.144575E-1	8.744371E-1	9.459459E-1	9.198371E-1	8.852087E-1	9.468492E-1	9.120760E-1	9.201859E-1	9.243796E-1	9.543425E-1	9.166658E-1	9.491277E-1	8.874366E-1	9.402082E-1	9.472563E-1	9.216261E-1	9.205255E-1	8.416823E-1	9.225530E-1	8.478348E-1	9.710182E-1	9.073909E-1	9.198402E-1	9.567141E-1	9.142236E-1	9.292174E-1	9.034723E-1	9.687436E-1	8.614960E-1	8.714213E-1	9.431653E-1	9.794436E-1	9.694675E-1	8.828849E-1	9.397149E-1	9.643132E-1	9.331841E-1	9.201614E-1	9.437512E-1	9.215147E-1	9.459281E-1	9.119024E-1	8.970295E-1	9.270820E-1	8.989534E-1	9.582808E-1	9.095267E-1	9.311713E-1	9.282509E-1	9.364478E-1	9.794355E-1	9.248030E-1	9.836877E-1	9.541647E-1	9.000732E-1	1.009956E+0	9.455089E-1	9.317044E-1	9.161990E-1	8.890741E-1	8.825016E-1	9.319261E-1	9.045593E-1	8.731027E-1	8.875277E-1	9.373564E-1	9.110852E-1	9.570255E-1	8.718647E-1	9.031782E-1	9.401459E-1	9.258068E-1	9.218055E-1	9.308520E-1	9.857082E-1	9.202479E-1	9.053962E-1	9.296624E-1	8.836893E-1
2.896060E+2	8.170356E-1	7.861948E-1	8.117533E-1	8.570557E-1	8.093386E-1	7.486554E-1	7.837231E-1	7.458994E-1	7.960435E-1	7.857251E-1	7.716399E-1	8.078020E-1	8.384823E-1	8.458250E-1	8.303522E-1	8.435555E-1	8.002909E-1	7.804591E-1	7.634349E-1	8.745980E-1	7.640843E-1	7.879118E-1	8.031401E-1	8.695491E-1	7.610032E-1	8.539932E-1	8.299704E-1	8.313639E-1	8.231030E-1	8.235378E-1	8.573547E-1	8.365577E-1	8.245829E-1	7.957243E-1	8.612750E-1	8.445566E-1	8.387967E-1	7.789828E-1	8.124064E-1	8.294318E-1	8.079608E-1	7.782388E-1	8.431532E-1	7.858682E-1	8.069806E-1	7.898009E-1	8.092939E-1	8.234946E-1	8.014083E-1	8.246029E-1	8.209901E-1	7.882177E-1	8.104105E-1	7.772702E-1	8.221580E-1	7.993668E-1	8.791366E-1	8.269790E-1	7.451612E-1	8.298960E-1	8.114285E-1	8.086067E-1	8.173713E-1	8.407215E-1	8.270417E-1	7.857517E-1	8.263735E-1	8.443165E-1	8.102899E-1	8.004535E-1	8.313608E-1	8.081392E-1	8.452299E-1	8.513408E-1	8.056398E-1	8.330110E-1	8.301992E-1	8.051065E-1	8.353141E-1	8.298328E-1	7.638460E-1	7.929687E-1	8.109866E-1	8.352817E-1	8.438411E-1	7.948555E-1	8.532703E-1	8.285216E-1	8.404377E-1	8.280817E-1	8.189924E-1	8.346894E-1	8.450495E-1	8.090089E-1	7.881199E-1	8.301439E-1	7.655644E-1	8.003870E-1	8.347684E-1	8.162893E-1	7.939106E-1	7.743803E-1	8.208582E-1	8.252340E-1	8.652772E-1	7.992042E-1	8.217467E-1	8.227370E-1	8.408460E-1	7.795201E-1	8.265994E-1	8.474795E-1	7.845753E-1	8.101412E-1	7.615687E-1	8.083571E-1	7.968224E-1	7.811649E-1	8.022573E-1	8.127041E-1	7.781448E-1	7.848802E-1	7.830886E-1	8.296715E-1	8.527302E-1	8.480453E-1	8.440521E-1	8.519898E-1	8.195713E-1	8.116375E-1	8.051058E-1	8.273653E-1	7.957897E-1	8.027024E-1	8.875654E-1	8.207049E-1	8.282157E-1	7.646537E-1	8.236020E-1	8.028313E-1	8.506499E-1	8.301602E-1	8.363921E-1	8.318990E-1	7.752360E-1	8.117818E-1	8.541717E-1	7.708286E-1	9.012745E-1	8.038391E-1	8.001459E-1	8.345192E-1	8.042238E-1	8.582115E-1	7.820859E-1	7.661225E-1	8.287142E-1	8.170601E-1	8.355691E-1	8.452747E-1	7.976106E-1	8.218308E-1	8.108086E-1
2.898020E+2	6.652909E-1	6.964724E-1	6.784932E-1	6.790139E-1	6.852716E-1	6.833443E-1	6.731287E-1	7.005044E-1	6.449145E-1	6.874223E-1	6.821893E-1	6.574929E-1	6.712768E-1	6.879983E-1	7.106688E-1	6.961310E-1	7.093173E-1	6.835590E-1	6.859010E-1	7.050742E-1	6.656536E-1	7.306753E-1	6.859180E-1	7.029447E-1	6.835402E-1	6.804698E-1	6.549043E-1	7.057126E-1	6.926150E-1	6.716688E-1	7.157714E-1	7.030374E-1	6.695778E-1	6.818804E-1	6.744647E-1	6.599518E-1	6.889665E-1	7.009520E-1	6.965282E-1	6.370990E-1	6.524138E-1	6.867563E-1	7.330739E-1	6.519810E-1	6.597169E-1	6.299605E-1	7.256641E-1	6.732080E-1	6.564892E-1	6.914708E-1	6.657943E-1	7.109531E-1	7.182324E-1	7.207940E-1	6.907527E-1	7.231003E-1	6.942951E-1	7.163687E-1	7.052374E-1	7.037139E-1	7.372864E-1	7.075420E-1	6.854444E-1	7.114259E-1	6.559094E-1	6.842296E-1	6.646089E-1	6.813170E-1	6.603558E-1	7.007414E-1	6.593975E-1	6.511836E-1	6.899991E-1	6.675811E-1	7.209065E-1	6.360276E-1	6.676871E-1	7.518928E-1	6.628484E-1	7.374700E-1	7.554862E-1	7.163301E-1	7.115644E-1	6.606005E-1	6.606360E-1	7.024212E-1	7.292251E-1	6.789027E-1	6.739612E-1	7.163745E-1	6.766466E-1	6.797913E-1	6.836198E-1	6.519033E-1	6.852655E-1	7.537940E-1	6.050559E-1	7.014501E-1	7.136392E-1	7.112536E-1	6.884282E-1	6.965546E-1	7.039841E-1	6.699138E-1	7.452694E-1	7.190158E-1	7.260298E-1	7.251882E-1	6.849390E-1	7.210186E-1	6.880594E-1	6.620075E-1	6.999064E-1	6.573178E-1	7.110854E-1	7.309221E-1	6.937070E-1	6.974417E-1	6.720579E-1	6.867951E-1	6.743793E-1	6.754505E-1	6.786971E-1	6.853598E-1	7.144606E-1	6.622968E-1	7.138376E-1	6.876435E-1	6.844069E-1	6.876752E-1	6.876504E-1	7.001239E-1	6.995520E-1	6.969853E-1	6.862014E-1	6.891952E-1	7.051147E-1	6.916158E-1	7.400443E-1	6.635393E-1	7.109142E-1	7.170994E-1	6.944114E-1	6.939365E-1	6.783609E-1	7.094324E-1	6.883981E-1	6.765671E-1	7.002353E-1	7.225933E-1	6.859140E-1	6.714717E-1	6.616939E-1	7.075150E-1	7.187073E-1	7.040800E-1	6.848662E-1	6.942931E-1	6.891573E-1	6.886271E-1	7.491929E-1	7.124862E-1	7.048058E-1
2.900020E+2	7.856646E-1	7.563020E-1	7.572394E-1	7.207921E-1	7.771903E-1	7.305162E-1	7.581797E-1	7.041894E-1	7.746555E-1	7.904112E-1	7.540306E-1	7.476796E-1	7.313483E-1	7.546840E-1	8.116883E-1	7.525903E-1	7.326265E-1	7.588686E-1	7.454097E-1	8.216043E-1	7.776323E-1	7.110797E-1	7.515921E-1	8.057630E-1	7.502707E-1	7.562184E-1	7.617494E-1	7.722796E-1	7.669640E-1	7.507618E-1	7.624406E-1	7.740863E-1	7.413379E-1	7.573317E-1	7.714589E-1	8.032559E-1	7.547981E-1	7.975354E-1	7.472577E-1	7.635118E-1	7.552036E-1	7.368777E-1	8.034523E-1	7.800220E-1	7.930704E-1	7.738774E-1	7.431090E-1	7.423418E-1	7.187767E-1	7.475171E-1	7.611302E-1	7.729236E-1	7.868823E-1	7.732082E-1	8.089961E-1	7.443418E-1	7.237074E-1	7.974061E-1	7.338352E-1	7.626073E-1	7.569590E-1	7.585170E-1	7.287533E-1	7.501469E-1	7.247616E-1	7.762899E-1	7.319365E-1	7.474458E-1	7.508297E-1	7.628958E-1	7.437503E-1	7.433124E-1	8.229035E-1	7.576633E-1	7.853419E-1	8.001877E-1	7.271470E-1	7.466671E-1	8.038213E-1	7.609242E-1	7.591197E-1	7.743313E-1	7.632329E-1	7.750066E-1	7.731703E-1	7.786832E-1	8.154965E-1	7.722353E-1	7.341433E-1	7.820569E-1	7.604558E-1	7.599844E-1	7.790741E-1	7.549638E-1	7.780978E-1	7.886513E-1	7.155874E-1	7.445749E-1	8.006251E-1	7.844480E-1	7.496317E-1	7.514005E-1	7.349657E-1	7.500959E-1	7.796312E-1	7.871303E-1	7.353237E-1	7.860225E-1	7.938963E-1	7.760823E-1	7.452534E-1	8.049780E-1	7.951037E-1	7.463792E-1	7.568731E-1	7.836222E-1	7.935308E-1	7.648536E-1	7.617354E-1	7.893422E-1	7.787515E-1	7.599419E-1	7.336018E-1	7.566862E-1	8.060200E-1	7.364842E-1	7.835177E-1	7.699065E-1	7.767385E-1	7.810294E-1	7.481789E-1	7.537855E-1	7.933184E-1	7.678963E-1	8.115163E-1	7.460723E-1	7.702456E-1	7.485520E-1	7.663902E-1	8.178581E-1	7.838501E-1	7.929448E-1	7.934652E-1	7.721396E-1	7.319423E-1	7.398838E-1	7.616759E-1	7.728608E-1	8.176534E-1	7.331482E-1	8.076742E-1	7.675927E-1	7.365261E-1	7.141374E-1	7.154275E-1	7.955748E-1	7.776653E-1	7.570058E-1	7.226841E-1	7.720504E-1	8.004670E-1	7.695575E-1	7.214971E-1
2.905120E+2	8.808060E-1	8.429019E-1	8.691559E-1	8.191339E-1	8.450333E-1	8.568553E-1	8.268131E-1	8.628907E-1	8.762887E-1	8.821268E-1	7.972114E-1	8.643642E-1	8.505650E-1	8.238269E-1	8.792536E-1	8.510512E-1	8.677930E-1	8.052067E-1	8.497749E-1	8.510153E-1	8.737751E-1	8.625361E-1	8.451892E-1	8.439425E-1	8.687559E-1	8.324226E-1	8.191968E-1	8.319856E-1	8.616257E-1	8.859280E-1	8.863966E-1	8.636905E-1	8.430166E-1	8.737742E-1	8.743367E-1	8.877596E-1	8.354666E-1	8.215061E-1	8.546206E-1	8.650005E-1	8.541758E-1	8.402949E-1	8.127079E-1	8.938485E-1	8.210884E-1	8.267523E-1	8.676490E-1	8.792055E-1	8.645977E-1	8.543724E-1	8.430877E-1	8.616191E-1	8.419904E-1	8.276590E-1	8.366488E-1	8.157895E-1	8.632579E-1	8.172456E-1	8.363571E-1	8.647382E-1	8.516374E-1	8.262777E-1	8.528050E-1	8.717284E-1	8.668235E-1	8.388190E-1	8.472078E-1	8.583917E-1	8.835185E-1	8.261082E-1	8.438108E-1	8.696968E-1	8.889771E-1	8.773281E-1	8.711989E-1	8.363411E-1	8.397024E-1	8.473695E-1	8.047918E-1	8.525937E-1	8.559449E-1	8.819799E-1	8.267105E-1	8.917482E-1	8.545231E-1	8.486823E-1	8.568840E-1	8.591810E-1	8.051606E-1	8.345920E-1	8.767975E-1	8.593008E-1	8.536937E-1	8.669165E-1	8.879842E-1	9.113846E-1	8.326381E-1	8.126474E-1	8.745887E-1	8.869379E-1	8.754546E-1	8.379799E-1	8.579271E-1	8.028966E-1	8.650384E-1	8.150220E-1	8.791387E-1	9.316762E-1	8.876363E-1	8.361081E-1	8.498551E-1	9.025918E-1	8.835170E-1	8.282574E-1	7.902445E-1	9.149492E-1	8.558603E-1	8.206501E-1	8.455565E-1	8.352524E-1	8.217665E-1	7.929480E-1	8.220328E-1	8.825528E-1	8.981499E-1	8.182052E-1	8.512230E-1	9.149335E-1	8.775574E-1	8.352278E-1	8.764173E-1	8.472411E-1	8.290015E-1	8.695666E-1	8.318394E-1	8.219489E-1	8.729596E-1	8.582404E-1	8.764637E-1	9.276651E-1	8.922002E-1	8.627709E-1	8.959109E-1	9.635829E-1	8.289507E-1	8.929075E-1	8.649393E-1	7.891696E-1	8.489373E-1	8.307216E-1	8.624325E-1	8.961293E-1	8.324038E-1	8.605447E-1	8.733476E-1	8.312017E-1	8.766043E-1	8.339159E-1	8.683589E-1	9.416083E-1	8.078483E-1	8.805681E-1	8.282534E-1
2.910060E+2	1.007918E+0	9.901879E-1	1.094235E+0	1.024054E+0	1.070035E+0	9.583886E-1	9.706654E-1	1.043916E+0	1.043503E+0	1.065755E+0	9.673823E-1	1.077405E+0	1.065341E+0	9.992626E-1	1.018414E+0	9.858480E-1	1.001182E+0	1.017510E+0	1.021111E+0	1.069794E+0	1.048685E+0	1.153188E+0	1.041149E+0	1.108097E+0	1.063622E+0	1.029014E+0	1.038791E+0	1.054805E+0	1.037642E+0	1.026337E+0	1.084344E+0	1.120311E+0	1.057887E+0	1.084239E+0	1.062053E+0	1.001806E+0	1.109433E+0	1.070774E+0	1.054989E+0	1.015013E+0	1.050537E+0	1.038385E+0	1.076950E+0	9.629551E-1	1.000655E+0	1.016405E+0	1.075928E+0	1.031624E+0	9.988681E-1	1.028346E+0	1.016612E+0	1.080414E+0	1.098593E+0	1.046086E+0	1.100395E+0	1.043316E+0	1.122600E+0	1.072769E+0	1.067751E+0	1.050917E+0	1.022803E+0	1.087089E+0	1.088369E+0	1.069738E+0	1.026784E+0	1.010040E+0	1.003627E+0	1.126610E+0	1.052536E+0	1.044513E+0	1.025221E+0	9.908704E-1	1.044088E+0	1.027982E+0	1.035335E+0	1.029141E+0	1.016338E+0	1.051391E+0	1.002702E+0	1.050525E+0	1.003629E+0	1.070960E+0	1.011199E+0	1.063582E+0	1.001922E+0	1.015499E+0	1.105545E+0	1.020417E+0	1.032995E+0	1.031979E+0	1.020713E+0	1.069570E+0	1.033499E+0	1.035932E+0	1.050315E+0	1.033060E+0	1.051623E+0	1.015457E+0	1.056120E+0	1.115303E+0	1.054339E+0	1.008405E+0	1.047731E+0	1.045629E+0	1.054914E+0	1.047495E+0	1.023709E+0	1.055600E+0	1.083269E+0	9.977260E-1	1.039513E+0	1.045104E+0	1.047199E+0	1.129706E+0	1.038493E+0	1.062276E+0	1.064515E+0	1.011510E+0	1.016450E+0	1.054360E+0	1.047363E+0	1.032296E+0	1.080080E+0	1.089939E+0	9.987750E-1	1.040881E+0	1.059259E+0	1.031710E+0	1.115584E+0	1.094751E+0	1.047095E+0	9.815994E-1	1.067325E+0	1.043478E+0	1.052033E+0	1.032368E+0	1.012138E+0	1.049136E+0	1.047884E+0	1.104167E+0	1.098876E+0	1.070160E+0	1.048223E+0	1.100634E+0	1.035167E+0	1.041625E+0	1.047543E+0	1.073723E+0	1.034038E+0	1.060197E+0	1.073093E+0	1.075951E+0	1.051560E+0	1.011861E+0	1.056343E+0	1.024777E+0	1.016296E+0	1.068073E+0	1.067896E+0	9.846546E-1	1.077557E+0	9.989395E-1	9.002133E-1
2.915040E+2	1.162362E+0	1.158772E+0	1.171800E+0	1.159185E+0	1.195212E+0	1.112300E+0	1.174668E+0	1.168288E+0	1.205853E+0	1.126819E+0	1.109841E+0	1.188402E+0	1.175422E+0	1.123763E+0	1.183719E+0	1.116346E+0	1.153436E+0	1.050115E+0	1.114404E+0	1.158785E+0	1.133525E+0	1.157769E+0	1.169909E+0	1.156786E+0	1.135951E+0	1.174021E+0	1.120463E+0	1.163294E+0	1.144871E+0	1.128349E+0	1.153948E+0	1.146940E+0	1.125098E+0	1.220890E+0	1.158770E+0	1.119866E+0	1.193979E+0	1.133711E+0	1.113845E+0	1.154781E+0	1.182928E+0	1.171538E+0	1.201384E+0	1.129016E+0	1.134066E+0	1.089743E+0	1.100505E+0	1.137642E+0	1.121154E+0	1.138796E+0	1.123613E+0	1.134244E+0	1.190622E+0	1.114481E+0	1.125578E+0	1.146688E+0	1.176621E+0	1.157459E+0	1.161934E+0	1.156952E+0	1.138127E+0	1.125297E+0	1.174217E+0	1.140458E+0	1.153004E+0	1.145890E+0	1.124764E+0	1.123717E+0	1.172228E+0	1.145900E+0	1.154894E+0	1.120497E+0	1.168003E+0	1.165440E+0	1.262689E+0	1.163347E+0	1.143846E+0	1.174075E+0	1.227917E+0	1.212715E+0	1.159232E+0	1.123976E+0	1.100892E+0	1.138915E+0	1.097469E+0	1.190748E+0	1.148115E+0	1.170905E+0	1.118692E+0	1.083643E+0	1.175791E+0	1.168660E+0	1.163464E+0	1.181162E+0	1.135865E+0	1.208948E+0	1.168293E+0	1.170116E+0	1.153124E+0	1.159972E+0	1.185659E+0	1.090005E+0	1.146392E+0	1.158880E+0	1.203472E+0	1.153219E+0	1.175423E+0	1.216726E+0	1.152584E+0	1.174225E+0	1.129086E+0	1.222571E+0	1.125369E+0	1.153138E+0	1.139950E+0	1.193038E+0	1.193973E+0	1.102098E+0	1.174655E+0	1.202941E+0	1.144261E+0	1.151972E+0	1.081528E+0	1.249446E+0	1.212393E+0	1.151251E+0	1.164240E+0	1.198007E+0	1.189245E+0	1.176768E+0	1.159456E+0	1.207654E+0	1.225840E+0	1.170691E+0	1.153759E+0	1.156788E+0	1.165885E+0	1.189314E+0	1.195088E+0	1.189881E+0	1.218151E+0	1.196768E+0	1.191717E+0	1.198257E+0	1.133752E+0	1.170351E+0	1.213293E+0	1.170176E+0	1.120145E+0	1.101328E+0	1.126622E+0	1.150929E+0	1.186505E+0	1.210132E+0	1.141168E+0	1.165094E+0	1.135185E+0	1.128348E+0	1.183197E+0	1.205030E+0	1.143285E+0	1.158466E+0	1.122833E+0
2.920010E+2	1.007539E+0	9.270745E-1	9.759333E-1	9.651435E-1	9.939587E-1	9.760847E-1	9.957514E-1	9.682098E-1	1.013738E+0	9.837531E-1	9.455220E-1	9.944869E-1	9.912845E-1	9.087453E-1	9.560366E-1	9.621247E-1	9.788651E-1	9.912338E-1	9.874585E-1	9.436477E-1	1.003414E+0	9.858697E-1	1.026799E+0	1.037580E+0	1.002638E+0	9.274816E-1	9.680099E-1	9.604019E-1	1.026315E+0	1.015834E+0	1.013365E+0	1.010506E+0	9.732565E-1	9.707769E-1	9.687151E-1	1.032961E+0	9.612256E-1	9.912533E-1	9.660843E-1	9.749982E-1	9.896735E-1	9.965141E-1	9.938139E-1	9.665748E-1	9.933295E-1	1.008724E+0	9.075753E-1	9.696953E-1	1.011146E+0	9.657632E-1	1.005426E+0	9.833285E-1	1.025271E+0	9.596964E-1	9.777151E-1	1.013441E+0	9.602338E-1	9.885702E-1	9.723496E-1	9.958888E-1	9.472795E-1	9.720854E-1	9.903773E-1	9.781600E-1	9.933939E-1	1.009098E+0	1.064778E+0	1.006133E+0	1.064001E+0	9.397970E-1	1.016792E+0	1.040688E+0	9.934253E-1	1.027481E+0	9.921469E-1	1.028039E+0	1.020695E+0	1.010305E+0	9.607810E-1	1.051314E+0	9.585088E-1	9.958242E-1	9.793454E-1	9.704216E-1	1.003102E+0	9.998253E-1	1.002207E+0	9.749310E-1	9.969338E-1	9.873429E-1	9.858716E-1	1.000615E+0	1.035693E+0	9.882901E-1	1.008762E+0	1.057393E+0	1.054527E+0	9.509056E-1	9.685660E-1	1.012385E+0	1.021865E+0	9.649122E-1	9.925986E-1	1.004376E+0	9.746781E-1	1.010731E+0	1.013848E+0	1.024315E+0	9.448685E-1	1.022551E+0	9.554095E-1	1.040061E+0	1.020945E+0	1.008819E+0	9.518860E-1	1.028798E+0	1.070742E+0	1.021667E+0	9.900191E-1	9.870135E-1	1.035609E+0	9.608282E-1	9.729718E-1	1.010007E+0	9.668239E-1	9.693264E-1	9.877915E-1	9.722339E-1	9.928798E-1	9.632657E-1	1.019016E+0	1.033465E+0	1.041492E+0	1.000534E+0	9.843368E-1	1.016658E+0	1.084761E+0	9.757116E-1	1.021311E+0	1.045398E+0	1.022283E+0	9.968009E-1	1.040966E+0	9.679294E-1	9.832490E-1	1.029414E+0	1.077105E+0	1.044152E+0	9.890064E-1	9.857843E-1	1.080372E+0	9.834821E-1	9.789228E-1	1.008089E+0	9.924262E-1	9.790552E-1	9.713811E-1	1.032163E+0	9.922898E-1	1.056440E+0	9.713225E-1	1.024373E+0	1.001225E+0
2.925000E+2	1.120228E+0	1.111078E+0	1.094899E+0	1.062401E+0	1.063323E+0	1.054919E+0	1.092856E+0	1.117885E+0	1.119160E+0	1.078286E+0	1.097084E+0	1.092298E+0	1.112026E+0	1.088593E+0	1.112109E+0	1.087304E+0	1.140347E+0	1.094937E+0	1.118767E+0	1.123761E+0	1.148713E+0	1.127671E+0	1.129416E+0	1.136561E+0	1.082812E+0	1.014987E+0	1.083287E+0	1.138793E+0	1.063033E+0	1.069149E+0	1.143603E+0	1.097626E+0	1.106740E+0	1.068383E+0	1.108013E+0	1.127694E+0	1.073728E+0	1.070208E+0	1.092609E+0	1.145271E+0	1.100124E+0	1.069898E+0	1.066049E+0	1.056612E+0	1.103849E+0	1.051893E+0	1.167924E+0	1.078990E+0	1.126219E+0	1.069619E+0	1.054625E+0	1.138308E+0	1.130068E+0	1.042734E+0	1.097799E+0	1.109724E+0	1.135337E+0	1.119678E+0	1.097502E+0	1.074821E+0	1.041504E+0	1.099812E+0	1.108549E+0	1.100178E+0	1.070295E+0	1.112540E+0	1.149009E+0	1.150247E+0	1.133643E+0	1.078839E+0	1.130826E+0	1.091736E+0	1.092963E+0	1.130017E+0	1.095410E+0	1.081716E+0	1.118573E+0	1.139047E+0	1.150040E+0	1.117351E+0	1.094049E+0	1.149829E+0	1.067448E+0	1.085822E+0	1.070698E+0	1.113337E+0	1.099989E+0	1.122141E+0	1.051940E+0	1.080303E+0	1.116081E+0	1.087965E+0	1.099081E+0	1.158005E+0	1.154509E+0	1.074798E+0	1.058498E+0	1.099977E+0	1.110893E+0	1.087762E+0	1.163784E+0	1.097325E+0	1.088776E+0	1.138136E+0	1.144597E+0	1.100835E+0	1.119048E+0	1.160097E+0	1.121554E+0	1.130679E+0	1.104069E+0	1.135279E+0	1.101445E+0	1.078437E+0	1.056003E+0	1.168750E+0	1.149943E+0	1.072197E+0	1.090858E+0	1.150717E+0	1.110972E+0	1.123647E+0	1.121239E+0	1.160943E+0	1.136651E+0	1.075360E+0	1.120632E+0	1.163988E+0	1.112181E+0	1.130630E+0	1.109240E+0	1.046037E+0	1.156775E+0	1.129443E+0	1.143759E+0	1.134715E+0	1.206410E+0	1.146621E+0	1.109662E+0	1.175958E+0	1.206603E+0	1.122105E+0	1.097261E+0	1.157088E+0	1.117789E+0	1.061811E+0	1.163073E+0	1.102259E+0	1.117664E+0	1.131852E+0	1.140910E+0	1.127622E+0	1.104159E+0	1.098529E+0	1.170869E+0	1.113459E+0	1.071024E+0	1.088326E+0	1.096536E+0	1.124190E+0	1.130966E+0	1.089200E+0	1.129006E+0
2.930070E+2	1.074757E+0	1.180325E+0	1.146220E+0	1.080163E+0	1.181101E+0	1.059718E+0	1.134530E+0	1.082980E+0	1.154267E+0	1.087479E+0	1.101925E+0	1.161543E+0	1.141899E+0	1.133006E+0	1.195808E+0	1.102851E+0	1.156040E+0	1.120028E+0	1.221164E+0	1.190270E+0	1.088386E+0	1.127218E+0	1.108752E+0	1.148985E+0	1.113611E+0	1.127545E+0	1.122152E+0	1.088917E+0	1.124270E+0	1.186774E+0	1.189271E+0	1.199926E+0	1.157731E+0	1.190193E+0	1.125607E+0	1.111077E+0	1.160910E+0	1.154052E+0	1.131176E+0	1.112516E+0	1.101856E+0	1.177636E+0	1.157555E+0	1.137847E+0	1.141503E+0	1.097517E+0	1.146363E+0	1.096667E+0	1.171560E+0	1.147811E+0	1.128027E+0	1.113785E+0	1.191614E+0	1.146253E+0	1.213259E+0	1.156273E+0	1.170548E+0	1.121605E+0	1.135962E+0	1.130960E+0	1.138015E+0	1.192587E+0	1.151953E+0	1.119599E+0	1.187967E+0	1.144345E+0	1.179169E+0	1.186870E+0	1.162302E+0	1.110179E+0	1.115265E+0	1.119672E+0	1.118709E+0	1.161673E+0	1.170903E+0	1.177980E+0	1.154451E+0	1.120717E+0	1.166146E+0	1.139093E+0	1.150297E+0	1.144098E+0	1.144090E+0	1.151278E+0	1.100660E+0	1.126096E+0	1.201946E+0	1.139797E+0	1.125905E+0	1.118744E+0	1.115850E+0	1.115157E+0	1.147737E+0	1.145718E+0	1.128261E+0	1.162187E+0	1.140894E+0	1.150773E+0	1.229952E+0	1.059273E+0	1.159636E+0	1.124608E+0	1.182161E+0	1.120117E+0	1.154310E+0	1.109133E+0	1.131983E+0	1.224687E+0	1.190143E+0	1.113841E+0	1.137870E+0	1.192083E+0	1.144094E+0	1.156486E+0	1.148098E+0	1.137319E+0	1.180259E+0	1.187984E+0	1.233208E+0	1.141789E+0	1.127549E+0	1.132459E+0	1.164994E+0	1.103259E+0	1.156112E+0	1.131476E+0	1.146336E+0	1.123322E+0	1.173120E+0	1.128244E+0	1.148902E+0	1.135388E+0	1.215237E+0	1.151232E+0	1.081395E+0	1.159074E+0	1.157654E+0	1.117295E+0	1.200521E+0	1.128481E+0	1.158041E+0	1.117176E+0	1.193748E+0	1.116371E+0	1.128694E+0	1.172548E+0	1.189181E+0	1.150001E+0	1.162750E+0	1.128623E+0	1.140051E+0	1.153301E+0	1.189647E+0	1.101055E+0	1.125196E+0	1.089304E+0	1.122075E+0	1.118123E+0	1.219787E+0	1.103637E+0	1.146408E+0	1.168900E+0	1.119608E+0
2.935070E+2	1.086927E+0	1.109928E+0	1.161561E+0	1.113111E+0	1.227966E+0	1.166739E+0	1.150855E+0	1.148236E+0	1.172364E+0	1.098829E+0	1.076311E+0	1.127881E+0	1.148204E+0	1.114312E+0	1.149150E+0	1.103563E+0	1.115182E+0	1.092670E+0	1.163059E+0	1.194798E+0	1.161264E+0	1.150858E+0	1.146384E+0	1.186585E+0	1.101194E+0	1.137389E+0	1.125135E+0	1.131549E+0	1.139790E+0	1.148546E+0	1.114747E+0	1.132818E+0	1.135852E+0	1.158944E+0	1.112455E+0	1.081090E+0	1.179226E+0	1.111782E+0	1.116156E+0	1.111344E+0	1.125353E+0	1.136302E+0	1.150925E+0	1.149054E+0	1.119194E+0	1.129832E+0	1.142614E+0	1.121068E+0	1.114714E+0	1.085733E+0	1.147050E+0	1.129596E+0	1.186965E+0	1.171952E+0	1.128879E+0	1.139414E+0	1.142674E+0	1.097525E+0	1.117057E+0	1.150640E+0	1.072406E+0	1.171749E+0	1.129414E+0	1.125926E+0	1.126060E+0	1.129245E+0	1.182105E+0	1.154492E+0	1.183185E+0	1.148489E+0	1.120711E+0	1.159163E+0	1.181898E+0	1.157781E+0	1.127896E+0	1.095272E+0	1.105746E+0	1.136812E+0	1.172608E+0	1.148751E+0	1.112856E+0	1.210812E+0	1.103245E+0	1.129693E+0	1.097328E+0	1.106401E+0	1.130943E+0	1.137808E+0	1.073326E+0	1.191075E+0	1.143413E+0	1.141373E+0	1.104164E+0	1.128551E+0	1.110635E+0	1.200742E+0	1.129143E+0	1.092905E+0	1.125978E+0	1.132542E+0	1.196149E+0	1.099803E+0	1.132013E+0	1.118890E+0	1.192916E+0	1.143320E+0	1.105692E+0	1.239953E+0	1.246536E+0	1.156544E+0	1.091143E+0	1.126894E+0	1.156169E+0	1.082707E+0	1.122405E+0	1.171963E+0	1.142143E+0	1.122106E+0	1.205531E+0	1.105272E+0	1.140214E+0	1.132571E+0	1.122608E+0	1.187462E+0	1.158178E+0	1.157657E+0	1.186837E+0	1.181292E+0	1.153156E+0	1.148837E+0	1.111817E+0	1.132342E+0	1.217867E+0	1.189283E+0	1.158569E+0	1.115372E+0	1.154333E+0	1.116468E+0	1.136440E+0	1.164101E+0	1.163198E+0	1.114224E+0	1.182223E+0	1.198909E+0	1.083938E+0	1.156306E+0	1.215279E+0	1.154438E+0	1.188583E+0	1.131717E+0	1.168976E+0	1.150961E+0	1.160710E+0	1.176898E+0	1.154332E+0	1.106948E+0	1.154503E+0	1.164480E+0	1.134743E+0	1.194584E+0	1.179546E+0	1.133159E+0	1.152235E+0
2.940070E+2	9.976411E-1	1.014685E+0	1.004819E+0	9.995023E-1	1.072168E+0	9.722596E-1	9.832957E-1	1.038480E+0	1.072859E+0	1.001286E+0	9.965364E-1	1.048672E+0	9.497885E-1	1.026090E+0	1.056005E+0	1.036968E+0	1.037430E+0	9.761811E-1	1.019463E+0	9.984572E-1	1.015493E+0	1.011164E+0	1.037793E+0	9.915581E-1	1.065692E+0	9.554277E-1	1.002513E+0	1.036015E+0	1.013836E+0	1.051212E+0	1.019794E+0	1.027532E+0	1.024431E+0	1.018418E+0	9.943548E-1	1.019685E+0	1.020060E+0	1.005284E+0	9.659133E-1	1.083247E+0	9.862577E-1	1.007566E+0	1.012481E+0	9.895654E-1	9.978898E-1	9.763438E-1	1.021760E+0	9.414763E-1	1.034740E+0	1.027890E+0	9.996367E-1	1.077023E+0	1.089840E+0	9.709873E-1	1.036013E+0	1.002514E+0	1.011253E+0	9.952274E-1	9.882992E-1	1.082116E+0	1.014346E+0	1.022235E+0	1.016375E+0	9.996238E-1	1.052487E+0	1.020954E+0	1.019049E+0	1.018524E+0	1.027293E+0	1.011839E+0	1.043601E+0	1.001886E+0	1.019074E+0	1.089364E+0	1.023511E+0	1.037328E+0	1.004296E+0	1.064889E+0	1.034376E+0	1.045202E+0	1.049084E+0	1.062729E+0	1.013502E+0	1.021989E+0	9.602996E-1	1.033297E+0	1.071399E+0	9.916297E-1	1.071712E+0	1.051332E+0	1.080892E+0	1.014585E+0	9.546035E-1	1.049161E+0	1.027445E+0	1.070416E+0	1.029280E+0	1.036846E+0	1.047440E+0	9.912564E-1	1.017385E+0	9.739263E-1	9.845480E-1	1.017292E+0	1.086020E+0	1.038272E+0	1.039528E+0	1.061123E+0	1.043283E+0	9.950174E-1	1.024278E+0	1.018027E+0	1.050599E+0	1.061815E+0	9.819750E-1	1.036048E+0	1.028711E+0	9.939264E-1	1.017164E+0	1.054128E+0	1.039336E+0	9.412675E-1	9.817920E-1	9.812709E-1	1.056747E+0	9.986927E-1	1.028342E+0	9.825625E-1	1.010195E+0	1.027396E+0	1.010595E+0	9.814362E-1	1.046582E+0	1.041544E+0	1.081383E+0	1.043490E+0	1.022586E+0	1.028092E+0	9.947844E-1	1.022300E+0	1.037773E+0	1.003458E+0	9.881705E-1	1.010935E+0	9.950048E-1	1.023396E+0	9.875356E-1	9.421316E-1	1.004575E+0	9.646697E-1	1.011836E+0	1.042547E+0	1.027792E+0	9.960228E-1	1.054849E+0	1.002721E+0	1.030130E+0	9.554413E-1	1.053481E+0	1.002369E+0	1.081571E+0	9.731809E-1	9.321302E-1
2.945030E+2	8.698504E-1	8.423552E-1	8.650345E-1	8.786175E-1	8.803780E-1	8.668309E-1	8.377546E-1	9.177191E-1	8.795853E-1	8.426649E-1	8.400992E-1	9.075451E-1	8.570656E-1	9.059128E-1	8.718734E-1	8.557941E-1	8.981258E-1	8.923075E-1	8.634178E-1	8.757268E-1	8.790145E-1	8.953709E-1	8.925265E-1	8.516264E-1	9.144394E-1	9.072145E-1	8.773543E-1	8.205503E-1	8.788462E-1	8.906243E-1	8.740531E-1	9.191740E-1	8.931812E-1	8.321422E-1	9.048250E-1	9.113688E-1	8.993234E-1	8.721952E-1	8.655283E-1	8.637278E-1	8.620830E-1	8.584732E-1	8.864827E-1	8.849577E-1	8.481126E-1	8.483386E-1	8.837171E-1	8.427169E-1	8.450471E-1	8.648651E-1	8.961386E-1	8.696889E-1	9.041080E-1	9.205646E-1	8.537876E-1	8.734550E-1	9.056778E-1	9.114485E-1	8.948499E-1	9.174147E-1	8.737783E-1	8.524157E-1	9.360483E-1	8.680183E-1	8.902640E-1	8.800883E-1	8.792427E-1	8.777774E-1	9.027347E-1	8.952274E-1	8.674089E-1	8.606751E-1	8.765510E-1	9.200826E-1	9.065112E-1	8.677060E-1	8.764350E-1	8.960482E-1	8.994409E-1	8.575973E-1	8.846426E-1	9.141828E-1	8.793751E-1	8.572940E-1	8.901026E-1	8.324502E-1	8.758642E-1	9.191413E-1	8.951989E-1	8.867490E-1	8.682322E-1	8.734647E-1	8.641525E-1	8.712341E-1	9.361651E-1	8.481344E-1	8.576911E-1	8.422702E-1	9.001170E-1	9.257266E-1	9.112126E-1	8.861593E-1	8.513302E-1	9.067369E-1	9.117933E-1	9.205561E-1	8.750003E-1	8.995261E-1	9.332671E-1	9.071333E-1	9.135972E-1	8.967405E-1	8.808322E-1	8.636033E-1	8.711341E-1	9.183210E-1	9.058247E-1	8.627002E-1	8.516290E-1	8.504085E-1	8.645286E-1	8.885175E-1	8.803765E-1	8.715289E-1	8.232106E-1	8.721923E-1	8.451817E-1	8.935962E-1	8.888662E-1	8.748041E-1	9.073820E-1	9.061229E-1	8.851476E-1	9.046080E-1	9.202651E-1	9.085818E-1	9.159312E-1	8.960699E-1	9.365511E-1	8.899174E-1	8.552832E-1	9.006692E-1	8.961026E-1	9.237119E-1	8.429448E-1	8.946361E-1	9.385102E-1	8.527128E-1	9.307880E-1	8.706357E-1	8.750265E-1	8.785366E-1	8.777580E-1	8.718976E-1	9.051672E-1	8.755455E-1	9.016442E-1	9.117161E-1	9.290881E-1	9.157418E-1	8.888141E-1	8.991346E-1	8.518373E-1
2.950130E+2	9.852375E-1	9.616109E-1	9.987583E-1	9.576982E-1	9.761090E-1	9.276072E-1	9.546956E-1	9.471867E-1	1.031428E+0	9.625182E-1	9.348850E-1	9.903797E-1	9.663520E-1	9.678407E-1	1.011244E+0	9.486710E-1	9.784791E-1	9.939246E-1	9.622602E-1	9.670962E-1	9.637334E-1	9.488442E-1	1.039164E+0	1.004805E+0	9.847022E-1	9.337696E-1	9.343940E-1	9.664010E-1	9.725708E-1	1.010677E+0	9.885864E-1	1.010743E+0	9.607731E-1	1.013692E+0	9.341713E-1	9.999572E-1	9.833419E-1	9.672470E-1	9.298741E-1	9.746506E-1	9.926877E-1	8.972763E-1	1.001295E+0	9.668241E-1	9.914054E-1	9.590844E-1	1.007814E+0	9.524224E-1	9.920532E-1	9.300050E-1	9.697355E-1	9.418690E-1	1.043857E+0	9.739166E-1	9.781448E-1	9.740311E-1	9.952909E-1	1.013354E+0	9.506432E-1	9.507262E-1	9.123581E-1	9.351945E-1	9.453420E-1	9.541531E-1	9.959608E-1	9.812461E-1	9.360701E-1	9.802136E-1	9.887880E-1	9.499645E-1	9.166551E-1	9.289007E-1	1.004657E+0	1.023006E+0	1.041907E+0	9.870589E-1	9.110408E-1	9.640572E-1	9.837084E-1	1.010039E+0	9.600162E-1	1.061537E+0	9.104192E-1	9.662309E-1	9.869791E-1	9.598610E-1	1.027717E+0	9.624573E-1	9.891586E-1	9.276088E-1	9.941081E-1	9.609589E-1	9.868095E-1	9.617592E-1	1.010966E+0	1.019198E+0	9.790643E-1	9.412817E-1	9.759360E-1	9.678667E-1	9.785989E-1	9.265458E-1	9.723528E-1	9.092080E-1	1.013673E+0	9.766755E-1	9.679404E-1	1.051546E+0	9.616532E-1	9.485537E-1	9.815880E-1	9.561420E-1	1.047767E+0	9.885919E-1	9.390455E-1	1.005776E+0	1.016532E+0	1.006721E+0	9.875089E-1	1.001609E+0	9.506950E-1	9.528493E-1	9.436127E-1	1.012489E+0	9.571390E-1	9.351089E-1	9.844317E-1	1.001555E+0	9.946721E-1	9.665789E-1	9.429300E-1	9.638400E-1	9.716292E-1	9.453781E-1	9.763750E-1	9.652438E-1	1.007332E+0	9.532229E-1	9.423681E-1	9.721088E-1	9.995223E-1	9.588323E-1	9.531876E-1	9.633060E-1	9.557260E-1	9.937933E-1	9.741094E-1	8.999837E-1	1.024017E+0	9.777099E-1	9.427012E-1	9.428518E-1	9.588934E-1	1.018258E+0	1.001507E+0	9.404215E-1	1.003552E+0	9.545321E-1	9.937844E-1	9.631274E-1	9.501718E-1	1.012976E+0	9.319361E-1
2.955070E+2	1.096996E+0	1.132944E+0	1.121249E+0	1.130970E+0	1.112045E+0	1.014373E+0	1.088125E+0	1.075471E+0	1.126689E+0	1.067452E+0	1.055995E+0	1.059376E+0	1.068614E+0	1.094692E+0	1.125084E+0	1.034061E+0	1.123931E+0	1.111383E+0	1.122539E+0	1.130909E+0	1.082695E+0	1.074388E+0	1.105760E+0	1.102723E+0	1.073731E+0	1.098023E+0	1.039501E+0	1.102473E+0	1.050964E+0	1.119063E+0	1.110275E+0	1.072728E+0	1.113058E+0	1.138473E+0	1.089126E+0	1.091625E+0	1.164032E+0	1.125541E+0	1.069542E+0	1.104437E+0	1.073236E+0	1.054085E+0	1.109508E+0	1.165787E+0	1.087282E+0	1.056066E+0	1.160650E+0	1.080209E+0	1.114344E+0	1.027010E+0	1.125199E+0	1.114837E+0	1.108470E+0	1.089323E+0	1.093858E+0	1.118892E+0	1.141213E+0	1.113461E+0	1.058158E+0	1.088108E+0	1.094126E+0	1.098438E+0	1.150980E+0	1.087591E+0	1.110453E+0	1.077961E+0	1.053820E+0	1.153925E+0	1.102311E+0	1.080494E+0	1.046394E+0	1.053292E+0	1.107533E+0	1.150431E+0	1.138615E+0	1.059013E+0	1.080399E+0	1.066537E+0	1.099882E+0	1.102555E+0	1.132731E+0	1.131428E+0	1.156510E+0	1.104950E+0	1.065228E+0	1.093119E+0	1.135305E+0	1.065147E+0	1.074995E+0	1.091407E+0	1.095491E+0	1.095932E+0	1.138025E+0	1.055120E+0	1.057707E+0	1.112970E+0	1.102188E+0	1.076035E+0	1.117910E+0	1.134822E+0	1.143159E+0	1.153693E+0	1.062970E+0	1.063125E+0	1.143465E+0	1.130072E+0	1.090773E+0	1.166662E+0	1.142339E+0	1.046815E+0	1.043392E+0	1.140328E+0	1.103095E+0	1.126729E+0	1.092021E+0	1.123983E+0	1.118335E+0	1.136203E+0	1.058343E+0	1.055825E+0	1.096324E+0	1.070573E+0	1.106549E+0	1.087966E+0	1.099048E+0	1.094183E+0	1.086818E+0	1.071957E+0	1.120898E+0	1.081359E+0	1.035980E+0	1.072216E+0	1.094712E+0	1.087359E+0	1.092019E+0	1.108774E+0	1.118071E+0	1.083279E+0	1.118920E+0	1.171004E+0	1.144072E+0	1.063637E+0	1.129058E+0	1.114557E+0	1.097284E+0	1.134276E+0	1.110032E+0	9.962321E-1	1.175068E+0	1.059518E+0	1.108097E+0	1.142184E+0	1.082924E+0	1.122360E+0	1.077074E+0	1.072308E+0	1.123863E+0	1.127706E+0	1.134797E+0	1.116975E+0	1.142462E+0	1.095140E+0	1.153207E+0
2.960050E+2	1.166112E+0	1.125427E+0	1.122974E+0	1.102071E+0	1.132739E+0	1.092085E+0	1.096648E+0	1.114162E+0	1.167541E+0	1.169676E+0	1.141080E+0	1.091726E+0	1.175755E+0	1.112689E+0	1.186733E+0	1.108223E+0	1.120283E+0	1.159199E+0	1.095361E+0	1.126883E+0	1.142286E+0	1.113665E+0	1.165603E+0	1.169312E+0	1.120323E+0	1.164294E+0	1.149571E+0	1.120998E+0	1.155774E+0	1.093252E+0	1.174403E+0	1.135826E+0	1.146171E+0	1.086547E+0	1.124205E+0	1.137908E+0	1.178983E+0	1.094068E+0	1.102886E+0	1.162467E+0	1.119327E+0	1.111346E+0	1.167034E+0	1.148112E+0	1.137206E+0	1.162866E+0	1.190709E+0	1.136024E+0	1.125937E+0	1.169884E+0	1.181533E+0	1.172762E+0	1.232050E+0	1.110267E+0	1.129613E+0	1.172279E+0	1.133603E+0	1.168089E+0	1.159630E+0	1.153606E+0	1.116267E+0	1.187375E+0	1.136132E+0	1.167171E+0	1.065002E+0	1.135597E+0	1.141547E+0	1.123287E+0	1.150472E+0	1.123994E+0	1.195434E+0	1.152769E+0	1.171040E+0	1.164756E+0	1.169409E+0	1.158676E+0	1.154515E+0	1.154693E+0	1.154701E+0	1.142787E+0	1.139027E+0	1.225480E+0	1.158482E+0	1.171412E+0	1.109220E+0	1.119484E+0	1.155642E+0	1.109838E+0	1.140123E+0	1.095661E+0	1.152541E+0	1.158137E+0	1.127069E+0	1.131254E+0	1.139531E+0	1.173845E+0	1.134798E+0	1.109633E+0	1.121835E+0	1.177984E+0	1.164838E+0	1.105623E+0	1.110998E+0	1.164010E+0	1.204491E+0	1.148691E+0	1.154492E+0	1.124390E+0	1.125238E+0	1.142226E+0	1.095665E+0	1.116733E+0	1.195395E+0	1.229667E+0	1.110342E+0	1.134830E+0	1.120712E+0	1.173755E+0	1.148409E+0	1.157991E+0	1.177511E+0	1.161967E+0	1.127539E+0	1.150800E+0	1.130008E+0	1.147497E+0	1.140143E+0	1.108292E+0	1.125141E+0	1.144256E+0	1.150580E+0	1.142586E+0	1.157853E+0	1.146546E+0	1.122679E+0	1.138953E+0	1.188262E+0	1.139423E+0	1.142248E+0	1.169552E+0	1.165123E+0	1.139311E+0	1.139757E+0	1.136872E+0	1.106952E+0	1.106570E+0	1.216515E+0	1.115815E+0	1.199805E+0	1.115309E+0	1.139907E+0	1.180686E+0	1.101783E+0	1.152547E+0	1.138689E+0	1.103367E+0	1.147568E+0	1.129474E+0	1.125291E+0	1.122608E+0	1.141104E+0	1.157134E+0	1.092083E+0
2.965040E+2	1.049673E+0	1.026248E+0	1.073249E+0	1.013804E+0	1.050028E+0	1.067025E+0	1.060691E+0	1.041607E+0	1.043915E+0	1.039758E+0	1.044491E+0	1.068966E+0	1.055257E+0	1.022036E+0	1.077122E+0	1.067327E+0	1.050959E+0	1.033076E+0	1.075929E+0	1.026305E+0	1.039585E+0	1.010083E+0	1.058502E+0	1.025029E+0	1.026271E+0	1.067819E+0	1.023215E+0	1.019656E+0	1.079394E+0	1.067040E+0	1.035052E+0	1.093953E+0	1.016677E+0	1.071821E+0	1.015818E+0	1.046999E+0	1.053964E+0	1.029779E+0	1.069723E+0	1.038959E+0	1.020937E+0	1.002069E+0	9.815826E-1	1.082696E+0	1.012641E+0	1.048851E+0	1.052194E+0	1.012510E+0	1.067720E+0	1.050799E+0	1.033773E+0	1.084614E+0	1.029317E+0	1.025806E+0	1.073621E+0	9.931199E-1	1.092350E+0	1.028345E+0	1.064014E+0	1.047491E+0	1.048098E+0	1.058330E+0	1.045688E+0	1.047146E+0	1.020488E+0	1.005304E+0	1.060404E+0	1.035592E+0	1.070971E+0	1.016618E+0	1.085443E+0	1.038462E+0	1.082196E+0	1.059477E+0	1.068353E+0	1.042885E+0	9.929776E-1	1.082577E+0	1.073256E+0	1.096462E+0	1.081103E+0	1.054202E+0	1.048699E+0	1.059635E+0	1.043146E+0	1.043341E+0	1.113553E+0	1.011393E+0	1.016485E+0	1.062772E+0	1.015625E+0	1.041209E+0	1.076854E+0	9.951196E-1	1.040188E+0	1.093237E+0	1.020301E+0	9.803735E-1	1.056475E+0	1.074635E+0	1.049939E+0	1.022563E+0	1.017736E+0	1.039074E+0	1.081835E+0	1.016704E+0	1.025220E+0	1.114872E+0	1.091195E+0	1.051511E+0	1.022874E+0	1.028143E+0	1.029629E+0	1.048943E+0	1.026576E+0	1.056917E+0	1.069912E+0	1.032643E+0	1.047481E+0	9.932727E-1	1.069605E+0	1.034895E+0	9.980492E-1	1.009738E+0	1.063698E+0	1.052623E+0	1.059427E+0	1.068466E+0	1.020623E+0	1.076453E+0	1.061161E+0	1.068394E+0	1.086073E+0	1.009697E+0	1.025001E+0	1.059458E+0	1.068030E+0	9.781822E-1	1.128229E+0	1.072282E+0	1.106439E+0	1.008133E+0	1.058639E+0	1.046757E+0	1.032386E+0	1.079752E+0	1.018766E+0	1.041700E+0	1.051679E+0	1.002972E+0	1.042451E+0	1.059737E+0	1.076224E+0	1.048686E+0	1.068617E+0	1.001161E+0	1.010364E+0	1.052733E+0	1.037930E+0	1.097962E+0	1.035378E+0	1.085822E+0	1.004785E+0
2.970020E+2	9.669425E-1	9.303950E-1	9.357945E-1	8.926226E-1	9.899559E-1	9.601686E-1	9.476582E-1	9.109614E-1	1.002947E+0	9.479366E-1	9.327607E-1	9.381418E-1	1.004791E+0	9.733454E-1	9.779406E-1	9.530463E-1	9.300472E-1	9.320772E-1	9.397807E-1	1.001517E+0	9.936407E-1	9.509455E-1	9.773119E-1	9.473744E-1	9.769088E-1	9.432145E-1	9.552391E-1	9.972005E-1	9.893214E-1	9.448928E-1	9.835580E-1	9.783431E-1	9.666759E-1	9.553337E-1	9.720406E-1	9.545222E-1	9.406272E-1	9.200721E-1	9.706634E-1	9.609606E-1	9.134835E-1	9.536030E-1	9.647957E-1	9.629181E-1	9.534719E-1	9.801331E-1	9.770970E-1	8.931844E-1	9.633711E-1	9.023857E-1	9.488811E-1	9.698012E-1	9.677645E-1	9.679826E-1	9.450267E-1	9.629421E-1	9.724389E-1	9.404151E-1	9.544452E-1	9.537801E-1	9.688997E-1	9.439532E-1	9.290260E-1	9.769011E-1	9.817898E-1	9.436879E-1	9.625869E-1	9.742659E-1	9.456982E-1	9.769393E-1	9.615089E-1	9.535065E-1	9.680818E-1	9.926463E-1	9.577149E-1	1.025680E+0	9.259914E-1	1.003797E+0	1.033663E+0	1.007731E+0	9.335305E-1	9.773201E-1	9.820071E-1	9.728975E-1	9.169251E-1	1.041263E+0	1.024384E+0	9.711186E-1	9.826095E-1	9.655437E-1	1.024596E+0	9.512638E-1	9.821040E-1	9.195499E-1	9.911117E-1	9.629566E-1	9.694506E-1	9.289454E-1	9.589219E-1	9.344557E-1	9.585220E-1	9.125481E-1	9.708352E-1	9.890506E-1	9.774115E-1	9.153532E-1	9.886530E-1	9.375653E-1	9.812317E-1	9.539453E-1	9.146612E-1	9.791874E-1	9.402188E-1	9.668155E-1	9.428400E-1	9.779194E-1	9.674476E-1	9.460995E-1	9.763515E-1	9.554538E-1	9.674391E-1	9.323889E-1	9.404584E-1	9.750092E-1	9.532300E-1	9.364496E-1	9.709381E-1	9.488168E-1	9.863666E-1	9.915214E-1	9.595826E-1	9.479236E-1	9.896395E-1	1.008273E+0	9.915018E-1	9.927031E-1	9.464685E-1	9.274258E-1	9.585588E-1	9.781820E-1	9.751188E-1	9.701124E-1	9.686174E-1	9.469715E-1	9.361568E-1	9.335418E-1	9.840237E-1	9.211593E-1	1.011329E+0	9.023014E-1	9.931375E-1	9.722021E-1	9.769257E-1	9.874180E-1	9.715984E-1	9.805450E-1	9.893887E-1	9.508749E-1	9.489950E-1	1.020457E+0	1.003206E+0	9.851411E-1	9.332172E-1
2.975020E+2	9.818987E-1	9.927083E-1	1.018763E+0	1.064105E+0	1.037175E+0	1.062785E+0	9.588928E-1	1.014933E+0	1.035190E+0	1.073230E+0	1.010610E+0	9.887244E-1	9.850898E-1	1.052004E+0	1.060832E+0	1.021001E+0	1.040176E+0	1.006331E+0	1.046058E+0	9.873356E-1	1.001842E+0	1.062105E+0	1.014758E+0	9.983918E-1	1.031106E+0	9.923094E-1	1.018012E+0	1.030519E+0	1.037247E+0	1.001697E+0	9.923596E-1	1.079453E+0	1.067871E+0	1.016985E+0	1.069194E+0	1.010042E+0	9.987463E-1	9.934460E-1	9.939708E-1	1.024787E+0	1.002652E+0	9.663062E-1	1.006279E+0	1.022175E+0	9.873202E-1	1.030653E+0	1.027022E+0	9.982201E-1	1.004511E+0	9.647707E-1	1.017973E+0	1.025616E+0	1.074223E+0	1.032084E+0	1.065216E+0	9.820490E-1	1.079171E+0	1.026255E+0	1.017242E+0	9.973962E-1	9.785202E-1	1.052060E+0	1.034636E+0	9.986135E-1	1.014748E+0	9.870666E-1	1.017216E+0	1.009918E+0	9.995299E-1	1.012255E+0	9.711988E-1	1.036566E+0	1.037205E+0	1.051141E+0	9.997388E-1	9.685636E-1	9.837757E-1	9.744051E-1	1.056536E+0	1.021330E+0	1.010366E+0	1.066445E+0	1.037400E+0	1.049069E+0	9.821679E-1	1.054315E+0	9.972677E-1	1.030013E+0	1.000932E+0	1.024693E+0	9.713677E-1	9.714878E-1	1.005768E+0	9.776234E-1	1.038444E+0	1.015472E+0	1.028232E+0	1.033767E+0	1.023384E+0	1.024640E+0	1.028576E+0	1.016288E+0	1.005854E+0	1.019160E+0	1.019981E+0	1.025244E+0	1.025359E+0	1.093036E+0	1.044276E+0	1.038133E+0	9.889949E-1	1.051915E+0	9.804272E-1	1.003994E+0	9.767744E-1	1.029276E+0	1.035301E+0	9.774423E-1	9.813470E-1	1.029192E+0	1.038638E+0	1.064869E+0	1.058561E+0	1.011616E+0	1.034301E+0	1.005084E+0	1.006126E+0	1.011921E+0	1.026123E+0	1.039864E+0	9.941701E-1	1.012782E+0	1.070470E+0	9.894652E-1	1.025902E+0	1.057186E+0	1.038722E+0	9.920339E-1	1.044265E+0	1.046649E+0	1.052359E+0	1.004075E+0	1.008164E+0	1.003302E+0	9.829662E-1	1.030909E+0	1.052374E+0	1.019892E+0	1.074243E+0	9.810052E-1	1.049080E+0	1.029103E+0	1.019093E+0	1.007552E+0	1.017059E+0	1.043580E+0	1.010477E+0	1.051988E+0	9.980322E-1	1.041985E+0	1.096389E+0	9.717524E-1	1.030430E+0
2.980050E+2	1.080157E+0	1.074228E+0	1.052930E+0	9.829871E-1	1.048482E+0	1.013651E+0	1.040836E+0	1.078385E+0	1.084488E+0	1.045507E+0	1.033030E+0	1.053257E+0	1.048764E+0	1.050823E+0	1.017475E+0	1.027751E+0	1.036830E+0	1.063788E+0	1.039372E+0	1.043388E+0	1.034217E+0	1.037757E+0	9.999941E-1	1.050687E+0	1.015249E+0	1.065123E+0	1.002556E+0	1.032793E+0	1.017548E+0	1.038442E+0	1.053208E+0	1.028665E+0	1.031961E+0	1.057417E+0	1.074838E+0	1.052997E+0	1.065909E+0	1.057075E+0	1.038517E+0	1.048196E+0	1.044098E+0	1.025458E+0	1.047490E+0	1.013865E+0	1.059536E+0	1.064209E+0	9.713089E-1	1.074242E+0	1.053951E+0	1.005345E+0	9.947992E-1	1.053828E+0	1.044177E+0	1.024146E+0	1.046867E+0	1.052405E+0	1.038072E+0	1.020942E+0	1.073381E+0	1.046638E+0	1.034640E+0	1.052207E+0	1.046037E+0	1.062411E+0	1.047443E+0	1.025696E+0	1.024879E+0	1.016491E+0	1.068015E+0	9.930171E-1	1.039916E+0	1.059786E+0	1.016738E+0	1.024659E+0	1.019590E+0	1.022325E+0	1.086428E+0	1.026773E+0	1.017593E+0	1.056516E+0	1.012053E+0	1.042779E+0	1.064657E+0	1.038806E+0	1.028439E+0	1.023135E+0	1.011510E+0	1.050829E+0	1.044533E+0	1.015624E+0	1.030178E+0	1.052419E+0	1.039951E+0	1.077554E+0	1.034280E+0	1.017158E+0	1.046096E+0	1.054587E+0	1.036163E+0	1.057698E+0	1.055871E+0	1.041721E+0	1.019392E+0	1.040142E+0	1.006486E+0	1.070098E+0	9.851249E-1	1.066645E+0	1.048316E+0	1.078585E+0	1.029033E+0	1.084147E+0	1.063236E+0	1.056577E+0	1.050178E+0	1.033161E+0	1.036850E+0	1.074690E+0	1.042489E+0	1.031838E+0	1.032387E+0	1.071013E+0	9.785598E-1	1.050665E+0	1.042817E+0	1.029693E+0	1.023619E+0	1.045470E+0	1.057602E+0	1.044696E+0	1.039736E+0	1.047112E+0	1.044450E+0	1.033671E+0	1.058124E+0	1.035429E+0	1.044329E+0	1.033069E+0	1.056643E+0	1.084120E+0	1.038707E+0	1.066778E+0	1.055384E+0	1.061806E+0	1.054364E+0	1.074817E+0	1.018696E+0	1.057947E+0	1.075937E+0	1.007879E+0	1.050689E+0	1.071784E+0	1.027154E+0	1.044113E+0	1.053252E+0	1.029814E+0	1.059295E+0	1.003934E+0	1.030196E+0	1.027815E+0	1.039930E+0	1.034700E+0	1.035533E+0
2.985020E+2	1.035363E+0	9.908808E-1	1.070846E+0	1.064110E+0	1.031657E+0	1.046667E+0	1.023963E+0	1.077850E+0	1.065965E+0	1.022804E+0	1.048700E+0	1.031267E+0	1.069986E+0	1.027176E+0	1.078545E+0	1.057942E+0	1.028107E+0	1.023356E+0	1.032678E+0	1.052589E+0	1.049467E+0	1.058022E+0	1.036825E+0	1.038804E+0	1.080932E+0	1.035478E+0	1.051482E+0	1.034760E+0	1.057929E+0	1.043718E+0	1.061469E+0	1.004399E+0	1.066477E+0	1.072293E+0	1.075090E+0	1.043786E+0	1.031573E+0	1.033284E+0	1.030406E+0	1.018793E+0	1.063589E+0	1.077094E+0	1.049819E+0	1.018660E+0	1.056034E+0	1.031461E+0	1.047555E+0	1.036789E+0	1.031759E+0	1.069659E+0	1.072864E+0	1.035490E+0	1.013029E+0	1.034953E+0	1.021124E+0	1.020259E+0	9.874088E-1	1.059737E+0	1.056676E+0	1.038006E+0	1.083160E+0	1.026991E+0	1.040543E+0	1.045287E+0	1.075429E+0	1.045670E+0	1.058494E+0	1.069083E+0	1.021846E+0	1.059523E+0	1.053112E+0	1.015855E+0	1.046369E+0	1.046996E+0	1.083909E+0	1.054376E+0	1.028726E+0	1.040164E+0	1.065703E+0	1.028008E+0	1.028779E+0	1.055393E+0	1.055874E+0	1.074883E+0	1.058631E+0	1.059474E+0	1.042142E+0	1.035096E+0	1.022482E+0	1.047498E+0	1.048187E+0	1.005544E+0	1.059410E+0	1.038997E+0	1.018592E+0	1.085612E+0	1.035258E+0	1.076215E+0	1.018260E+0	1.018951E+0	1.036101E+0	1.031572E+0	1.044850E+0	1.060580E+0	1.045974E+0	1.074706E+0	1.034733E+0	1.023592E+0	1.058472E+0	1.024252E+0	1.095975E+0	9.874876E-1	1.039594E+0	1.008208E+0	1.061542E+0	1.035472E+0	1.045400E+0	1.029061E+0	1.050812E+0	1.050567E+0	1.032537E+0	1.026204E+0	1.026655E+0	1.079424E+0	1.091706E+0	1.053490E+0	1.072400E+0	1.020534E+0	1.019576E+0	1.054024E+0	1.040589E+0	1.083465E+0	1.060055E+0	1.044038E+0	1.036341E+0	1.053946E+0	1.054444E+0	1.016913E+0	1.083972E+0	1.037157E+0	1.059734E+0	1.009381E+0	1.056393E+0	1.062756E+0	1.071444E+0	1.020589E+0	1.032036E+0	1.066974E+0	1.034217E+0	1.064337E+0	1.065067E+0	1.061457E+0	1.060468E+0	1.057568E+0	1.039259E+0	1.057314E+0	1.045362E+0	1.048043E+0	1.073495E+0	1.053352E+0	1.036610E+0	1.022629E+0	1.087682E+0
2.990040E+2	9.887404E-1	9.901592E-1	9.222555E-1	9.754504E-1	1.002290E+0	9.669041E-1	9.804426E-1	8.979687E-1	9.602276E-1	9.888549E-1	1.010725E+0	9.847372E-1	9.195200E-1	9.653721E-1	9.556634E-1	9.936937E-1	9.609207E-1	9.993966E-1	9.883991E-1	9.819519E-1	9.786953E-1	9.659643E-1	1.033075E+0	9.785300E-1	9.532261E-1	9.527435E-1	9.888963E-1	9.790111E-1	9.819659E-1	9.717679E-1	9.456365E-1	1.020837E+0	9.474874E-1	9.424082E-1	9.483591E-1	9.570200E-1	1.010771E+0	9.865686E-1	9.783934E-1	9.646407E-1	9.499865E-1	9.617152E-1	9.738908E-1	9.967977E-1	9.655402E-1	9.568945E-1	9.605156E-1	9.846791E-1	9.757788E-1	9.821236E-1	1.007487E+0	9.796184E-1	9.908177E-1	9.660595E-1	9.420695E-1	9.697045E-1	1.025391E+0	9.729322E-1	9.975325E-1	9.412463E-1	9.543952E-1	9.897202E-1	9.771130E-1	9.504176E-1	9.331269E-1	9.747086E-1	9.789231E-1	9.869673E-1	9.888946E-1	1.000239E+0	9.906064E-1	9.689027E-1	9.574895E-1	9.844267E-1	1.000743E+0	9.721012E-1	9.773514E-1	9.811965E-1	9.875420E-1	9.542612E-1	9.998213E-1	9.751184E-1	9.599733E-1	9.707770E-1	9.571705E-1	9.758079E-1	9.889168E-1	9.663032E-1	9.728263E-1	9.909183E-1	1.000731E+0	9.508253E-1	9.491246E-1	9.501178E-1	9.727979E-1	9.685778E-1	1.004346E+0	9.402394E-1	9.876104E-1	9.753319E-1	9.823781E-1	1.007798E+0	9.771740E-1	9.768989E-1	1.003169E+0	9.442840E-1	1.014895E+0	9.529981E-1	9.738755E-1	9.621848E-1	9.658654E-1	9.917424E-1	9.936654E-1	9.675718E-1	1.010292E+0	9.744444E-1	9.970360E-1	9.606804E-1	9.714553E-1	9.589757E-1	9.615087E-1	1.016563E+0	1.025011E+0	9.497616E-1	9.595220E-1	9.895710E-1	9.660518E-1	9.744761E-1	9.815018E-1	9.678473E-1	9.647667E-1	9.777248E-1	9.791829E-1	1.009486E+0	9.499725E-1	9.875811E-1	9.622868E-1	9.878436E-1	9.777000E-1	9.646758E-1	9.546867E-1	9.682815E-1	9.543311E-1	9.979287E-1	9.832206E-1	9.758463E-1	9.588946E-1	9.492757E-1	9.679868E-1	9.970182E-1	9.987402E-1	9.494712E-1	9.242383E-1	1.005525E+0	9.778277E-1	9.575863E-1	9.876717E-1	1.008307E+0	9.876321E-1	9.800791E-1	1.009638E+0	9.711076E-1	9.578199E-1
2.995020E+2	9.187526E-1	9.809039E-1	9.437201E-1	9.625266E-1	9.154876E-1	9.549650E-1	9.392667E-1	9.718419E-1	9.048894E-1	9.197212E-1	8.957013E-1	9.196341E-1	9.445929E-1	9.346840E-1	9.403317E-1	9.233213E-1	9.470026E-1	9.088320E-1	9.143622E-1	9.397107E-1	9.229145E-1	9.175389E-1	9.358309E-1	9.297855E-1	9.349727E-1	9.381777E-1	9.275999E-1	9.333156E-1	9.511093E-1	9.469449E-1	9.481934E-1	9.305051E-1	9.692981E-1	9.560341E-1	9.465049E-1	9.639361E-1	9.329194E-1	9.423454E-1	9.418960E-1	9.819301E-1	8.946882E-1	9.376197E-1	9.410166E-1	9.585002E-1	9.409657E-1	9.532264E-1	9.554901E-1	9.087673E-1	9.764961E-1	9.521622E-1	9.229916E-1	9.440850E-1	9.311109E-1	9.503054E-1	9.655308E-1	9.797019E-1	9.337618E-1	9.290813E-1	9.057340E-1	9.489540E-1	9.391723E-1	9.026962E-1	9.306044E-1	9.263380E-1	9.474947E-1	9.700556E-1	9.555652E-1	9.361557E-1	8.968400E-1	9.184301E-1	9.227005E-1	9.280741E-1	9.635196E-1	9.198173E-1	9.188557E-1	9.484593E-1	9.236408E-1	9.401178E-1	9.431974E-1	9.234809E-1	9.240586E-1	9.191322E-1	9.194870E-1	9.061172E-1	9.620290E-1	9.428984E-1	9.419934E-1	9.561774E-1	9.599330E-1	9.308961E-1	9.405827E-1	9.931893E-1	9.254490E-1	9.196397E-1	9.445974E-1	9.505705E-1	9.417422E-1	9.487282E-1	9.726236E-1	9.646757E-1	9.183174E-1	9.377724E-1	9.574357E-1	9.271710E-1	9.315097E-1	9.459838E-1	9.840828E-1	9.418384E-1	9.457941E-1	9.191602E-1	9.531684E-1	9.294741E-1	9.110054E-1	9.237425E-1	8.978995E-1	9.556306E-1	9.312309E-1	9.314495E-1	9.434384E-1	9.317028E-1	9.406976E-1	9.271574E-1	9.808518E-1	9.353935E-1	9.266984E-1	9.212967E-1	9.249686E-1	9.289971E-1	9.596873E-1	9.098613E-1	9.275371E-1	9.241210E-1	9.271449E-1	9.246357E-1	9.377353E-1	9.066424E-1	9.195678E-1	9.697537E-1	9.278350E-1	9.207732E-1	9.323533E-1	9.272530E-1	9.240322E-1	9.006353E-1	9.145125E-1	9.139057E-1	9.715575E-1	9.441467E-1	9.439630E-1	9.404910E-1	9.362532E-1	9.389248E-1	9.649470E-1	9.122626E-1	9.263899E-1	9.369254E-1	9.340106E-1	9.470929E-1	9.021041E-1	9.257095E-1	9.386606E-1	9.565772E-1	8.943514E-1
3.000040E+2	9.769871E-1	9.638286E-1	1.010249E+0	1.014926E+0	1.002083E+0	1.017813E+0	1.015492E+0	9.739544E-1	9.844297E-1	1.023113E+0	1.011843E+0	1.011105E+0	1.017137E+0	1.021945E+0	1.007984E+0	9.972929E-1	1.027139E+0	1.004627E+0	1.025189E+0	9.823596E-1	1.014706E+0	1.020718E+0	9.942749E-1	1.002194E+0	1.015621E+0	1.008478E+0	1.029466E+0	1.020121E+0	9.914479E-1	9.991267E-1	9.914933E-1	1.015594E+0	9.847766E-1	9.718474E-1	9.552084E-1	9.822601E-1	9.588278E-1	9.807268E-1	1.010787E+0	9.864404E-1	1.047638E+0	9.981139E-1	9.877828E-1	1.012176E+0	9.779238E-1	9.942092E-1	1.065130E+0	9.955222E-1	9.620153E-1	9.907100E-1	1.001858E+0	9.869780E-1	1.020866E+0	1.024537E+0	1.024408E+0	9.779298E-1	1.015367E+0	1.017308E+0	9.666760E-1	1.025156E+0	9.886325E-1	1.028386E+0	1.005702E+0	1.015546E+0	9.965063E-1	9.838699E-1	9.821384E-1	9.913030E-1	1.024404E+0	1.028791E+0	9.936649E-1	1.027382E+0	1.015885E+0	1.024102E+0	9.769018E-1	1.002739E+0	9.838539E-1	1.011748E+0	9.859648E-1	1.037734E+0	1.035288E+0	1.007577E+0	1.000009E+0	1.009417E+0	9.937310E-1	9.986840E-1	1.015437E+0	9.915947E-1	1.000225E+0	1.015063E+0	9.803212E-1	9.980214E-1	1.026065E+0	1.013692E+0	1.029732E+0	9.780821E-1	9.725578E-1	9.802308E-1	9.853431E-1	9.833436E-1	1.007332E+0	9.811373E-1	1.001148E+0	9.952088E-1	1.012862E+0	9.649285E-1	9.811641E-1	1.014926E+0	9.735425E-1	1.015818E+0	9.559574E-1	1.007149E+0	9.924991E-1	1.043901E+0	9.800891E-1	1.001292E+0	9.894828E-1	1.004119E+0	9.918059E-1	1.026917E+0	1.032870E+0	9.590634E-1	9.889230E-1	9.847556E-1	9.792575E-1	1.005949E+0	1.012961E+0	1.030522E+0	9.816325E-1	1.023572E+0	1.027371E+0	9.675775E-1	9.891676E-1	9.881687E-1	1.017827E+0	1.016402E+0	1.019372E+0	9.924205E-1	9.538505E-1	9.932734E-1	1.014519E+0	1.028306E+0	1.009860E+0	9.768745E-1	9.764592E-1	1.014842E+0	1.018816E+0	9.816563E-1	9.778962E-1	9.902747E-1	9.492512E-1	9.783632E-1	1.023192E+0	9.805313E-1	1.003271E+0	1.018360E+0	9.736606E-1	9.926240E-1	1.006573E+0	1.013045E+0	9.751616E-1	1.014986E+0	1.024613E+0
