Photon Energy (eV)	#1	#2	#3	#4	#5	#6	#7	#8	#9	#10	#11	#12	#13	#14	#15	#16	#17	#18	#19	#20	#21	#22	#23	#24	#25	#26	#27	#28	#29	#30	#31	#32	#33	#34	#35	#36	#37	#38	#39	#40	#41	#42	#43	#44	#45	#46	#47	#48	#49	#50	#51	#52	#53	#54	#55	#56	#57	#58	#59	#60	#61	#62	#63	#64	#65	#66	#67	#68	#69	#70	#71	#72	#73	#74	#75	#76	#77	#78	#79	#80	#81	#82	#83	#84	#85	#86	#87	#88	#89	#90	#91	#92	#93	#94	#95	#96	#97	#98	#99	#100	#101	#102	#103	#104	#105	#106	#107	#108	#109	#110	#111	#112	#113	#114	#115	#116	#117	#118	#119	#120	#121	#122	#123	#124	#125	#126	#127	#128	#129	#130	#131	#132	#133	#134	#135	#136	#137	#138	#139	#140	#141	#142	#143	#144	#145	#146	#147	#148	#149	#150	#151	#152	#153	#154	#155	#156	#157	#158	#159	#160	#161	#162	#163	#164	#165	
2.790040E+2	-6.321584E-3	1.185516E-3	-3.757052E-3	-5.872718E-3	-7.821598E-3	2.947905E-3	3.833687E-5	-3.920278E-3	2.554767E-3	-2.149258E-3	-4.819728E-3	-5.956927E-4	-3.381010E-3	3.880072E-3	-4.343968E-3	-9.608956E-3	-3.910847E-3	-1.353234E-2	-1.571659E-3	-6.392013E-3	-7.549329E-3	-1.005813E-3	-6.415709E-3	-3.611879E-3	-1.365372E-3	-8.282339E-3	-8.050342E-3	-4.068363E-3	-7.576556E-3	-5.391757E-3	-5.398232E-3	-6.854041E-3	-6.719737E-3	-7.459849E-3	-7.432061E-3	-1.107270E-2	-4.280023E-3	-1.977819E-3	2.570894E-3	-8.140040E-3	-4.770445E-3	-3.786343E-3	-7.223078E-3	2.089236E-3	-2.892050E-3	-6.932764E-3	-4.701780E-3	-5.261460E-3	-5.323198E-3	-3.848575E-3	-6.560673E-3	-1.778171E-3	-5.052511E-4	-1.562725E-3	-1.068228E-3	-6.198679E-3	-5.358079E-3	-2.835759E-3	-5.719973E-3	-7.314043E-3	2.118682E-3	-1.256618E-3	-5.645283E-3	-4.714945E-3	-7.489426E-3	-7.613022E-3	-4.370811E-3	-1.020218E-2	2.939587E-3	-3.632877E-3	-3.475340E-3	-7.734315E-3	-6.369241E-3	-7.345681E-3	-2.666215E-3	-6.985738E-3	-4.561457E-3	-3.907440E-3	-2.052249E-3	-7.456665E-3	-5.125047E-3	-8.719646E-3	-4.873563E-3	-8.269913E-3	-3.625291E-3	-9.058332E-3	-5.878112E-3	-1.097847E-2	3.064320E-3	-5.159859E-3	-3.378248E-3	-5.361524E-3	-5.212618E-3	6.286536E-4	-1.063972E-3	-4.319503E-3	-2.142988E-3	3.285988E-3	-4.202868E-3	-4.499404E-3	-2.740318E-3	-1.062558E-5	-5.412466E-3	-3.333844E-3	-8.657222E-3	-5.642186E-3	-1.142506E-3	1.036139E-3	-5.006161E-3	-5.502619E-3	-8.991312E-3	-5.347109E-3	-9.460168E-4	-9.032003E-3	-6.113649E-3	-1.156077E-2	-6.074376E-3	-3.304946E-3	-2.079116E-3	-1.626715E-3	-2.763078E-3	-6.009865E-3	-3.789199E-4	-1.213249E-3	-4.009447E-3	-1.384704E-3	-8.972714E-3	-2.522405E-3	-6.171922E-3	1.070930E-3	-6.031033E-3	-2.330555E-3	-2.739393E-3	-5.151963E-3	9.636068E-4	-3.794971E-4	3.864472E-3	-7.581562E-4	-1.330776E-2	-1.146220E-2	-2.940673E-3	-2.681817E-3	-6.607483E-3	-1.149418E-2	-9.275133E-3	-1.466111E-3	-3.024008E-3	-3.026548E-3	-3.301994E-3	-2.715738E-3	-5.258986E-3	-4.747104E-3	-1.080826E-2	-9.927819E-3	-2.410832E-3	-4.745415E-3	-6.548813E-3	-1.095695E-2	-7.686918E-3	-7.053135E-3	-7.513006E-3	-3.536016E-3	-8.376520E-3	1.361578E-3	-7.363983E-3
2.795040E+2	-8.213879E-3	-2.268341E-3	-5.373064E-3	2.776531E-4	-8.944548E-3	-4.060311E-3	-5.277859E-3	-9.121053E-3	-2.616663E-3	-8.147523E-3	-2.705747E-3	-2.439784E-3	-4.873621E-3	-4.291366E-3	-2.767236E-3	-2.407578E-3	-2.736094E-3	1.157502E-3	-1.141174E-3	-3.202313E-3	-5.993770E-3	-3.977599E-3	-7.478322E-4	-3.983303E-3	-4.440483E-3	-9.988113E-4	-6.231033E-3	-1.175684E-2	4.167590E-3	-6.675598E-3	-7.347580E-3	-4.032860E-3	-1.354207E-3	4.829321E-3	7.253171E-3	-1.849229E-3	-3.161159E-3	-1.236169E-2	-7.406977E-4	1.265372E-3	-4.108479E-3	-4.790116E-3	-6.029921E-3	-1.726600E-3	-2.803706E-3	-1.613859E-3	1.030187E-3	-5.694580E-3	1.280784E-3	-8.898145E-3	-2.138082E-3	5.738407E-4	-8.579627E-3	-1.964786E-3	-3.718296E-3	-4.590476E-3	-3.645786E-3	-4.359565E-3	-9.671170E-5	-3.079844E-3	-6.957373E-3	-3.851899E-3	-4.552134E-3	1.667095E-3	3.853545E-3	-7.588158E-3	6.207417E-4	-2.093202E-3	2.980480E-3	-4.633561E-3	-3.964056E-3	2.981779E-3	-3.036513E-3	-9.714240E-4	3.897930E-4	-1.242051E-3	5.189566E-3	-1.668840E-3	-2.589899E-3	-1.232477E-3	-7.790065E-3	-1.050272E-3	-2.171694E-3	-2.342035E-3	-4.590285E-4	-6.139853E-3	7.781897E-4	-8.422749E-4	-2.186034E-3	2.198643E-3	6.364230E-4	7.960345E-4	3.486177E-3	-4.578530E-3	-3.114061E-3	-3.743116E-3	-3.825388E-3	-2.529287E-4	-2.422309E-3	-6.306174E-3	-1.091393E-3	6.106279E-5	-3.152260E-3	3.327636E-3	-2.101402E-3	-3.268999E-3	1.652747E-4	-5.750881E-3	1.300937E-3	-1.534822E-3	-7.869793E-3	-4.790729E-3	-1.979592E-3	2.156781E-3	4.892392E-3	-9.704940E-4	-9.613650E-3	-7.054335E-4	-5.557500E-3	-4.156307E-3	-4.057408E-4	-1.672975E-3	-9.623357E-3	-4.539003E-3	-5.559501E-3	2.605727E-4	-1.841463E-3	-7.524173E-3	-2.913270E-3	-5.429148E-3	3.207353E-3	4.932872E-4	-4.688020E-3	-7.903220E-3	-1.236437E-2	-4.535276E-3	-9.853343E-3	-9.613083E-3	-1.675270E-3	-5.241936E-3	-4.503903E-3	-5.549224E-3	-5.977632E-3	5.001823E-3	9.245813E-4	-5.170029E-3	-5.210488E-3	-4.765305E-3	-3.765659E-3	-7.847993E-3	-7.005308E-3	-7.387413E-3	-2.813432E-4	-4.301311E-3	-6.981486E-3	-4.099213E-3	-6.483749E-3	-2.964273E-3	-5.282583E-3	-4.337311E-3	-3.403069E-5	-5.737292E-3	-1.121805E-3	-6.971568E-3	-7.302544E-3
2.800030E+2	2.253819E-4	-1.707195E-3	-4.806965E-3	-2.668191E-3	-1.701743E-5	-2.572700E-3	2.089621E-3	-3.569824E-3	3.919343E-4	-2.003480E-3	-2.641025E-3	-1.864418E-3	-1.142544E-3	-5.159556E-3	-4.062153E-3	-4.717793E-3	-2.119657E-3	-4.046057E-4	-4.845670E-3	3.675206E-3	-4.432582E-3	-1.717577E-3	2.584671E-4	-3.264739E-3	-3.835455E-3	-2.836277E-3	-5.724278E-3	4.475825E-3	-2.870148E-3	-1.623315E-3	-4.609765E-3	-7.619134E-3	-3.399719E-3	5.944115E-3	2.288348E-3	-3.313558E-3	5.528432E-4	-2.759240E-3	-1.994840E-3	-1.127670E-3	-1.721286E-3	6.977298E-4	-1.197263E-3	-5.971192E-3	-2.169263E-3	-2.033519E-3	-2.753396E-3	-5.555025E-3	-2.440338E-3	4.282676E-3	7.422440E-4	1.120334E-4	-4.431228E-3	5.345813E-4	-2.817407E-3	6.859362E-4	2.456442E-3	-2.128929E-3	-4.364443E-3	-6.032777E-4	-6.898678E-3	-5.857865E-4	-2.640824E-3	2.687520E-3	-1.206998E-3	1.421331E-3	-9.898799E-4	1.220139E-3	-1.197992E-2	-5.630821E-3	-2.810618E-3	-2.315530E-3	-9.009895E-3	6.584427E-3	-7.924373E-3	-5.950239E-4	6.503894E-4	-6.034138E-3	-1.341190E-4	2.451712E-3	5.325639E-3	1.173321E-3	-1.275840E-2	-2.802913E-3	-2.991873E-3	1.578369E-3	-2.584880E-4	8.269196E-4	-3.324233E-3	3.235951E-4	-2.652577E-3	-3.003166E-3	-2.386389E-3	1.266310E-3	1.755971E-3	-3.673459E-3	-2.027032E-3	-6.760608E-3	-6.981091E-4	-3.812237E-3	-4.223069E-3	1.718380E-3	1.331615E-3	-9.930881E-4	-4.109242E-4	2.591391E-3	3.980385E-3	1.756237E-3	-5.920413E-3	-3.714265E-3	-8.347751E-3	7.189032E-3	-1.367832E-3	-7.813575E-3	-9.479648E-3	-5.915173E-3	-1.817147E-3	-5.202660E-3	4.554709E-3	-2.526352E-3	-5.479073E-3	-3.221772E-3	-2.733471E-3	-5.059462E-4	-3.886191E-3	-3.870428E-3	-5.948416E-4	-3.364834E-4	3.569803E-3	-1.521511E-3	-6.655708E-4	-4.418951E-3	-1.585813E-3	-1.721196E-3	2.939323E-3	3.113021E-4	-5.369765E-3	3.879833E-3	-2.828579E-3	-8.433615E-4	-2.793092E-3	-5.966414E-3	9.835442E-4	-6.957760E-3	-3.809411E-3	-1.322079E-3	-4.590292E-3	-2.806761E-3	-1.096422E-3	4.547544E-3	-3.348522E-3	4.855586E-3	-1.253795E-3	-5.755486E-3	2.948893E-3	-6.147888E-4	-6.935829E-3	-2.398390E-3	4.188612E-3	-3.705720E-3	-1.542356E-3	2.479460E-6	1.120537E-3	6.681532E-4	2.690897E-3
2.805050E+2	-1.017800E-3	-2.654779E-3	-6.793065E-4	7.634903E-3	-1.137757E-3	-2.978194E-3	-5.618711E-3	-2.399154E-3	4.657347E-4	-1.433128E-3	-3.877742E-3	2.866523E-4	4.194348E-3	-6.027947E-3	-8.213320E-4	-1.796526E-3	-1.495497E-3	-5.236770E-3	-3.233605E-3	1.151611E-3	1.137832E-3	-2.080427E-3	4.398492E-3	-1.050501E-2	9.814887E-4	-3.453085E-4	3.536134E-3	3.488365E-3	-5.352419E-3	2.997555E-3	-4.038650E-3	-6.475904E-4	3.103901E-3	5.029637E-3	-6.166083E-4	1.128402E-3	-1.457012E-3	-1.773747E-3	-3.438629E-3	5.239028E-4	-5.106671E-3	4.025740E-3	2.633812E-3	-5.315932E-3	1.674572E-3	-6.177529E-3	3.041054E-3	3.237435E-3	-6.736170E-3	-6.498626E-3	-5.846847E-3	-2.004373E-3	-4.891540E-3	-8.189721E-3	-2.188999E-3	8.539115E-4	6.404596E-3	-2.575372E-3	-2.892767E-3	2.561623E-3	4.546781E-3	-1.570913E-3	-2.988245E-4	4.714188E-3	-5.777650E-3	-2.093775E-4	-1.410525E-3	5.140116E-3	-3.642050E-3	3.954098E-3	3.395224E-3	2.714952E-3	6.928477E-3	-1.004277E-2	-6.819393E-3	1.298489E-3	-3.426673E-3	-2.634497E-3	5.493256E-4	-2.047567E-3	-7.140640E-3	-3.900557E-4	4.288464E-3	1.021814E-3	-8.466513E-4	1.679810E-3	-6.285591E-3	-2.306553E-3	-8.017641E-3	2.352360E-3	-5.416290E-3	-2.377152E-3	-1.522072E-4	3.758067E-3	-3.150537E-4	2.063951E-3	-3.129808E-3	-4.911515E-3	1.616199E-3	-5.593926E-3	-2.561720E-3	-1.915344E-3	-8.024567E-3	1.872872E-4	-8.943657E-4	3.246341E-3	2.958159E-4	-3.339233E-3	7.216231E-3	-2.870611E-4	-2.270735E-4	-1.741995E-4	3.103989E-3	-2.723718E-3	-1.635641E-4	-3.067564E-3	-1.220335E-3	-2.594045E-3	-5.444092E-3	2.247351E-3	-6.562468E-3	1.635290E-3	1.068873E-3	2.411393E-3	-4.722753E-5	-1.224394E-2	-3.494013E-3	6.891965E-3	-6.344490E-4	-3.101922E-3	-4.555480E-3	3.964603E-3	2.041400E-3	-4.947065E-3	7.301069E-3	4.652893E-3	-1.416440E-3	-4.503469E-3	5.210038E-3	1.041039E-2	7.703821E-3	-6.385112E-3	3.946005E-3	1.362373E-3	3.238843E-3	-4.499636E-3	5.417719E-4	-7.173134E-3	-3.109978E-3	-3.439538E-3	3.335859E-3	-6.002412E-4	-1.700334E-3	1.965271E-3	3.619131E-3	6.028113E-4	7.391608E-3	2.670494E-3	7.550104E-4	-1.497604E-3	1.371327E-4	-4.467434E-3	-6.754506E-3	1.694133E-3	2.789682E-3
2.810040E+2	9.879870E-4	-4.119422E-3	-5.195907E-3	-7.989736E-3	1.890527E-3	9.490367E-3	4.017295E-4	-1.238390E-3	-3.022286E-3	1.489700E-4	-1.201514E-3	-6.462148E-3	-7.868697E-3	-4.235194E-4	1.514679E-3	-3.170585E-3	-4.216557E-3	-5.188853E-3	4.500982E-4	1.736862E-3	1.992573E-4	-2.020412E-3	4.129526E-4	-4.181180E-3	2.647059E-3	1.170751E-3	-7.582900E-4	9.896565E-4	-1.861360E-4	7.941774E-4	-3.481081E-3	3.348171E-4	-4.880414E-3	-1.590288E-3	-3.866870E-3	-1.600930E-3	-7.670572E-3	-7.165163E-4	-7.117551E-3	1.120072E-3	6.988727E-4	-2.949952E-3	6.018565E-3	1.584018E-3	-2.573807E-3	-2.957688E-3	-6.047841E-4	-4.925935E-3	-1.782471E-3	6.164382E-3	3.423000E-4	-2.235678E-4	3.196304E-4	-2.725246E-4	-3.531653E-3	-6.893532E-3	-1.767193E-3	-3.628152E-4	-2.297884E-3	-1.589303E-3	-3.512269E-3	1.722753E-3	-3.248436E-3	-4.977691E-3	3.603784E-3	1.034288E-3	2.560232E-3	-7.271359E-4	1.637006E-3	-4.439914E-3	-6.243511E-3	-4.166086E-3	-6.611397E-4	-1.231324E-4	-8.251674E-4	-2.590114E-3	-6.939731E-3	2.288996E-4	-7.264806E-3	-1.423439E-3	-5.136144E-4	-1.402049E-3	3.999234E-4	-1.571888E-3	-1.293385E-3	-8.314482E-3	-5.580475E-3	-5.896763E-3	3.344938E-3	-1.954416E-3	5.014742E-3	-5.578711E-3	4.746430E-4	-8.240941E-3	-2.423633E-3	1.147802E-3	-1.472178E-4	-2.440273E-3	-8.822222E-5	-1.181172E-3	-1.931580E-3	-6.082542E-3	-2.988585E-3	-1.183542E-2	2.788607E-4	-4.791034E-3	-8.721624E-3	-2.615061E-3	-9.457694E-3	-1.899788E-3	-2.507850E-3	-1.561927E-3	3.737869E-3	-4.046789E-4	-3.794586E-3	9.356963E-3	3.017236E-3	5.657572E-3	1.504815E-3	5.562650E-3	5.037341E-3	-6.894703E-3	-6.429605E-3	-3.718455E-3	-1.589412E-3	5.031455E-4	1.033782E-3	-2.189058E-3	-4.317812E-3	-5.235827E-3	7.649886E-4	1.264240E-3	-2.454115E-3	-1.092248E-3	-4.882037E-3	1.545363E-3	8.814119E-4	-4.936833E-3	-2.427156E-4	-1.310771E-3	1.067274E-4	-3.777369E-4	2.298578E-3	-1.955875E-4	2.790575E-3	-5.522248E-3	3.436879E-3	-6.482969E-3	9.380157E-5	-3.847401E-3	-2.017822E-3	2.257515E-3	-8.498954E-3	-1.018246E-3	-5.049903E-3	-3.333755E-3	2.737219E-3	2.464444E-4	-9.782352E-3	-5.141022E-3	6.623999E-3	-4.130597E-4	2.011874E-3	4.609151E-3	-5.854516E-3
2.815060E+2	5.589008E-3	-3.052605E-3	-7.178053E-3	2.336597E-3	3.148043E-3	-3.810429E-3	-4.501512E-4	1.594597E-3	-2.961813E-3	-4.401125E-3	1.054282E-3	-6.496101E-4	1.695937E-3	1.495709E-3	2.201937E-4	1.199795E-3	1.968122E-3	-3.492942E-3	-3.121747E-3	-7.093714E-3	8.814820E-3	-1.953842E-3	1.863919E-3	7.867481E-5	-4.704038E-4	-7.013459E-4	-2.043902E-4	-4.721516E-3	-6.316605E-4	-9.563824E-4	1.575722E-3	4.030473E-4	-2.150947E-3	-2.557137E-3	-8.219466E-3	-2.087105E-3	1.270719E-3	-3.065578E-3	-4.699792E-3	-5.129912E-3	-2.705340E-3	3.701249E-4	8.540065E-4	-6.310674E-4	2.888610E-3	-3.422328E-3	-1.925061E-3	-4.864702E-3	4.327485E-3	-1.219226E-3	-3.206964E-3	-5.842070E-3	1.407348E-3	-1.680532E-3	-3.479029E-3	1.033739E-3	-4.241075E-5	-1.935465E-3	-4.301145E-3	3.314468E-3	-2.356348E-3	-1.961427E-3	7.493011E-3	-2.440609E-3	-3.566797E-3	2.808917E-3	3.696388E-3	-6.532475E-4	-8.936276E-4	5.197131E-3	3.806841E-3	-1.935859E-3	7.157636E-3	-1.212689E-3	5.322547E-3	-9.449026E-3	3.116041E-4	5.877733E-3	-2.850831E-5	-3.079089E-4	6.538495E-4	-5.169414E-3	7.371231E-3	2.819335E-3	-4.369677E-3	-4.390972E-3	4.860599E-4	-3.143906E-3	3.424850E-3	3.037637E-3	2.358918E-3	3.458321E-3	-7.086279E-3	-4.297464E-3	-5.012988E-3	4.856850E-3	-1.249192E-3	-5.384716E-3	-2.593897E-3	8.147304E-3	-5.624849E-3	1.436683E-3	-1.665661E-3	-6.033275E-4	-4.586501E-3	5.348319E-4	1.655772E-3	9.543903E-4	-1.514952E-3	2.124224E-3	9.313794E-3	-7.988792E-3	-6.144738E-3	-4.266459E-3	-1.287547E-3	3.901923E-3	-2.085204E-3	-6.536755E-3	-2.034813E-3	-1.586849E-3	-9.874319E-3	-4.658298E-3	-4.120096E-3	-9.762817E-5	1.200714E-3	-1.525722E-3	-2.574446E-3	-3.605551E-3	-1.013895E-3	-7.332340E-4	-2.962734E-3	-4.199423E-3	-3.396887E-3	3.746169E-3	-5.144595E-4	7.651265E-4	-7.932632E-3	-3.189217E-4	-1.632786E-3	-2.939134E-3	-2.553975E-3	7.182730E-3	4.272029E-4	-5.564419E-3	3.424285E-3	3.811926E-3	-1.806095E-3	6.952373E-3	5.419210E-3	1.015053E-3	-4.182273E-3	-1.542477E-3	4.277089E-3	1.114646E-3	2.790720E-3	-3.814035E-4	7.131301E-4	1.327075E-3	2.504086E-3	6.691170E-3	-4.512629E-3	-4.335450E-3	2.091967E-3	9.140403E-4	4.226006E-3
2.820030E+2	5.019897E-3	4.115202E-3	8.722909E-3	-3.054718E-3	5.003412E-3	5.643208E-4	-1.308558E-3	1.107936E-3	6.002648E-3	3.855954E-3	5.514100E-3	9.840034E-4	6.529501E-3	-1.697979E-3	7.597620E-3	7.869254E-4	2.035883E-3	5.330703E-3	2.142477E-3	1.877317E-3	-2.185860E-3	-1.005179E-3	-4.404255E-3	1.171251E-2	4.388290E-3	6.185726E-3	1.322887E-3	7.538737E-5	-5.518714E-5	3.685269E-3	1.153019E-3	9.290178E-3	8.612279E-3	-5.592493E-3	2.321058E-3	1.785464E-3	3.412989E-3	3.600721E-4	1.528940E-3	-2.441385E-3	1.372002E-3	-1.187482E-4	4.269476E-4	-2.138469E-5	-8.455791E-4	2.469375E-3	9.085305E-6	-4.314786E-3	1.639109E-3	-1.733885E-3	-1.078320E-3	-1.225837E-3	6.669466E-3	2.313873E-3	8.985255E-3	4.238417E-3	2.238626E-3	8.256176E-4	-6.295447E-4	1.006061E-2	5.903264E-3	2.416498E-3	1.496399E-3	6.040949E-3	2.740959E-3	-2.197394E-3	-3.665370E-3	-3.312246E-3	-2.874608E-3	-3.250768E-3	1.173894E-3	-7.844263E-3	-4.561873E-4	4.679255E-3	5.427339E-3	2.175011E-3	-1.101194E-4	3.798560E-4	1.157664E-3	2.902531E-3	-6.422935E-3	2.671174E-3	4.270474E-3	5.608653E-3	9.351352E-3	4.880486E-3	3.108563E-3	5.016758E-3	-1.849723E-3	2.131775E-3	3.021710E-3	1.781601E-4	3.905545E-3	1.613376E-3	5.068388E-3	1.309674E-3	-1.184956E-3	-2.268922E-3	-3.627111E-4	-4.075719E-4	5.227016E-3	3.116369E-3	2.386538E-3	5.893347E-4	-2.335945E-3	9.391085E-3	-8.565691E-3	2.766341E-3	1.410936E-4	-1.202450E-3	3.657256E-3	3.118636E-3	-6.093052E-3	6.506515E-3	3.612145E-3	-2.227467E-3	4.250628E-3	5.852879E-3	1.574808E-3	-2.577955E-3	6.976768E-3	3.564885E-3	6.220224E-3	2.853009E-3	-8.985369E-4	7.056432E-3	5.759093E-3	5.888997E-4	2.836092E-3	4.483436E-4	4.164146E-3	-2.046251E-4	4.345216E-3	2.410388E-3	6.428981E-3	-2.855944E-3	1.645490E-3	4.809235E-3	-8.267379E-4	3.495831E-3	5.812003E-3	-2.163438E-3	-1.828369E-3	2.317684E-3	-4.060164E-3	7.541963E-5	7.164384E-3	7.606419E-4	2.887257E-3	-3.272399E-4	5.548233E-3	4.210005E-4	6.713559E-4	-1.340547E-3	-3.400211E-3	-1.316714E-3	3.477636E-3	6.967672E-3	-2.671979E-3	6.336219E-3	-1.454152E-4	8.933133E-3	7.428070E-3	-2.770949E-3	4.332234E-3
2.825040E+2	-4.050171E-3	6.361189E-4	1.498394E-2	3.712654E-3	9.017821E-4	1.686573E-4	1.543113E-3	8.995768E-3	3.128622E-3	8.051399E-3	2.530467E-3	1.089033E-3	3.444420E-3	4.899396E-3	-2.838625E-3	1.051741E-2	7.152491E-3	1.255759E-2	2.218679E-3	5.655833E-3	4.452391E-3	7.497594E-3	6.605367E-3	9.720661E-3	2.877817E-3	3.839411E-3	6.782132E-3	5.426648E-3	5.689374E-3	9.280894E-3	8.758107E-3	3.802634E-3	2.276771E-3	4.800406E-3	1.319198E-3	6.246386E-3	5.103064E-3	7.722129E-3	8.821589E-3	7.168833E-3	6.684841E-3	4.871282E-3	1.987514E-3	1.215250E-2	5.221574E-3	1.695620E-2	4.313782E-3	1.680114E-2	6.699941E-3	5.255908E-3	6.755776E-3	5.710308E-4	7.296015E-3	3.396534E-3	-4.478281E-4	9.089498E-3	1.765320E-3	6.360749E-3	1.036466E-2	-3.230431E-3	1.614272E-3	3.375090E-4	4.674527E-3	-1.283741E-3	1.784803E-3	6.411855E-3	-2.003899E-3	4.981566E-3	1.925853E-3	4.831740E-3	-1.477359E-3	8.544674E-3	1.843520E-3	5.925600E-3	3.493759E-3	5.731145E-3	-1.044605E-3	-1.237901E-3	1.237947E-3	4.035141E-3	6.312525E-3	5.394579E-4	1.686570E-3	-8.087732E-4	1.016703E-3	1.468418E-2	6.253383E-3	1.321714E-2	3.003572E-3	2.309550E-4	4.252464E-4	7.019745E-3	4.537221E-3	3.163879E-3	4.097910E-3	-1.212861E-3	1.121800E-2	3.845332E-3	4.595468E-3	8.942186E-3	4.501013E-4	-5.905557E-3	7.959507E-3	6.667198E-4	4.338684E-3	-4.831609E-4	1.810768E-3	1.097829E-3	4.450867E-3	7.954447E-3	2.177197E-3	1.887005E-4	7.306078E-3	2.646035E-3	5.850001E-3	1.798370E-3	-2.972675E-3	5.434728E-3	3.185186E-3	-4.098711E-3	9.977388E-3	3.665814E-3	5.772898E-3	-5.300392E-4	9.527647E-3	4.485765E-3	4.190373E-3	-8.800820E-4	4.005717E-3	1.110174E-2	-1.370267E-4	3.800696E-3	-1.201020E-3	1.158128E-2	2.026424E-3	-1.694923E-3	2.856052E-3	3.899552E-3	4.466469E-3	4.224033E-4	-3.509608E-3	2.913719E-3	7.356258E-3	5.757608E-3	-1.925281E-4	7.820085E-3	-6.840641E-4	2.762315E-3	-1.245520E-3	6.978938E-3	9.753710E-3	4.458109E-3	1.141500E-2	6.477216E-3	1.339856E-3	-6.473438E-3	5.713786E-3	4.537347E-3	6.399563E-3	-5.389437E-3	-2.211105E-3	4.124159E-4	-2.393857E-3	-2.662837E-3	-4.364610E-3
2.830070E+2	7.781160E-3	7.865505E-3	3.283496E-3	5.623557E-3	6.977156E-3	2.503842E-4	8.582478E-3	8.550398E-3	-3.942945E-3	6.078191E-3	6.146909E-3	9.651964E-3	1.401666E-3	7.325191E-3	5.500821E-3	9.197310E-3	3.322156E-3	8.809720E-3	9.102601E-3	2.591211E-3	5.557241E-3	6.263255E-3	-1.971401E-3	4.034263E-3	-7.829416E-4	1.968193E-3	9.327181E-3	6.090840E-3	6.815143E-3	-2.110842E-3	1.338846E-2	5.322950E-3	4.512073E-3	-3.403713E-3	6.953230E-3	1.076327E-2	6.229151E-3	1.457239E-2	5.070086E-3	6.760826E-3	9.656505E-3	1.680283E-3	2.529418E-3	-2.159581E-3	1.499648E-3	3.712116E-3	1.590913E-3	1.057791E-2	2.334858E-3	6.495491E-3	1.099057E-2	9.817113E-3	2.715187E-3	7.425300E-3	8.266185E-3	1.781185E-3	-2.051517E-3	7.011539E-3	9.937812E-3	-1.198019E-4	5.541667E-3	4.749884E-3	2.721565E-3	-1.692766E-3	6.057781E-3	5.931561E-3	5.563124E-3	5.646187E-3	9.907277E-3	7.604972E-3	9.594924E-3	9.754648E-3	3.603344E-3	2.506415E-3	3.601709E-3	1.165731E-2	9.931027E-3	8.996326E-3	9.124645E-3	3.078673E-3	1.470029E-2	1.234748E-2	1.786989E-3	6.345720E-3	3.217850E-3	5.080799E-3	7.376471E-3	4.107151E-3	2.539952E-3	-3.160689E-3	-9.924659E-6	4.868292E-3	2.433907E-3	6.686649E-3	1.007439E-3	3.570662E-3	2.488582E-3	1.488764E-2	4.156449E-3	4.710994E-3	1.249581E-2	7.581576E-3	9.565879E-3	1.199470E-2	1.436882E-2	-1.578268E-3	1.052181E-2	4.094238E-3	8.790091E-3	4.062333E-3	1.279553E-2	9.366389E-3	2.383295E-3	1.293110E-2	6.484456E-3	8.684207E-3	1.651552E-2	1.398661E-3	4.296003E-3	8.762888E-3	3.093182E-3	1.359162E-2	1.022345E-2	5.339919E-3	5.261954E-3	6.718879E-3	6.494230E-3	9.576889E-3	4.639736E-3	3.400633E-3	6.215358E-3	1.630728E-3	9.678632E-3	3.077859E-3	-1.898537E-3	2.190955E-3	1.532475E-2	7.541843E-3	1.083734E-2	7.468777E-3	2.678700E-3	1.302729E-2	-5.981045E-4	9.772455E-3	6.958952E-3	6.272672E-3	4.171911E-3	1.377939E-2	4.119305E-3	5.636375E-3	3.175109E-3	2.285025E-3	6.179237E-3	1.278628E-2	7.143833E-3	2.036192E-2	-6.498778E-5	5.705816E-4	1.157656E-2	1.409684E-2	9.197412E-3	9.141224E-3	5.994241E-3	3.158299E-3	1.084683E-2
2.835050E+2	2.611531E-3	1.409998E-2	1.986103E-2	5.096963E-3	1.548392E-2	1.096681E-2	8.679662E-3	-1.986363E-3	3.897766E-3	5.122846E-3	1.243662E-2	5.497991E-3	4.678345E-3	2.007386E-2	1.342121E-2	5.421459E-3	6.773783E-3	1.725289E-3	7.097610E-3	7.435746E-3	4.119749E-3	9.034093E-3	1.235220E-2	4.128045E-3	8.952503E-3	1.334858E-2	5.494532E-3	8.306864E-3	8.458668E-3	1.271803E-2	5.442230E-3	5.412430E-3	7.291580E-3	1.483545E-2	9.248028E-3	1.855764E-2	8.406853E-3	1.275153E-2	1.905047E-2	1.382427E-2	3.929780E-3	1.377802E-2	9.336448E-3	1.004258E-2	1.679452E-2	5.377346E-3	6.370846E-3	7.334488E-3	1.019026E-2	9.466825E-3	1.317466E-2	7.024781E-3	1.737564E-3	5.015084E-3	2.559443E-3	2.372269E-3	1.139346E-2	1.849858E-2	7.915712E-3	1.281663E-2	2.047150E-2	1.786892E-2	9.504367E-3	1.436936E-2	1.245153E-2	8.652340E-4	8.347007E-3	8.044211E-3	1.053048E-2	1.361618E-2	2.834095E-3	1.100010E-2	7.596954E-3	2.589434E-3	1.165283E-3	1.236979E-2	1.473480E-2	4.612394E-3	9.799158E-3	6.334252E-3	2.425222E-2	4.080973E-3	5.134291E-3	9.725518E-3	9.667385E-3	6.162128E-3	1.877454E-2	1.725585E-2	-4.001064E-4	1.233323E-2	6.010513E-3	1.007190E-3	4.172347E-3	5.318201E-3	6.937844E-3	1.047486E-2	1.496727E-2	1.443148E-2	5.898042E-3	1.353396E-2	8.264943E-3	4.450355E-3	8.166233E-3	1.830644E-2	1.336586E-2	4.393913E-3	8.319668E-3	1.002902E-2	1.208581E-2	9.853469E-3	4.999336E-3	8.968633E-3	8.609666E-3	7.363548E-3	4.413725E-3	1.844759E-2	4.552634E-3	7.180787E-3	2.353417E-3	4.055762E-3	3.171511E-3	1.701943E-2	7.054950E-3	3.686810E-3	9.732370E-3	1.271412E-2	1.436326E-2	6.563132E-3	9.086165E-3	7.961727E-3	1.259414E-2	1.074005E-2	7.208308E-3	5.091810E-3	2.712167E-3	5.001964E-3	6.986633E-3	8.662287E-3	6.755232E-3	1.517560E-2	1.836551E-2	6.119600E-3	6.481352E-3	3.159189E-3	3.240592E-3	8.593270E-4	1.330936E-2	1.259098E-2	1.746558E-2	1.299424E-2	1.616235E-2	1.486017E-2	1.645219E-2	1.549220E-2	1.141036E-2	8.809933E-3	3.776663E-3	1.361755E-4	7.174517E-3	-9.202085E-4	8.218311E-3	7.504371E-3	1.164144E-2	6.122744E-3	1.475231E-2
2.840030E+2	3.617061E-2	3.833388E-2	3.031672E-2	2.133864E-2	1.861876E-2	1.980118E-2	1.624165E-2	2.546593E-2	2.505896E-2	3.165006E-2	2.764992E-2	2.215803E-2	3.103618E-2	2.443503E-2	2.231733E-2	2.558376E-2	2.381109E-2	2.449877E-2	2.403151E-2	3.296622E-2	3.374191E-2	2.255177E-2	2.947263E-2	1.857289E-2	1.712331E-2	2.528311E-2	2.577902E-2	2.171071E-2	2.308688E-2	2.763034E-2	2.069289E-2	3.133679E-2	2.197691E-2	1.286873E-2	2.159848E-2	3.082880E-2	2.222455E-2	2.792326E-2	2.300786E-2	1.875807E-2	2.721827E-2	2.373617E-2	2.338629E-2	2.168538E-2	1.796427E-2	1.882933E-2	3.244472E-2	2.822917E-2	2.755092E-2	2.699701E-2	2.109861E-2	1.806244E-2	2.896035E-2	2.593644E-2	2.434707E-2	3.280284E-2	2.155901E-2	3.229422E-2	2.313572E-2	3.259368E-2	2.942674E-2	2.344143E-2	2.562156E-2	2.106760E-2	2.097340E-2	3.021167E-2	2.570147E-2	2.260850E-2	2.599883E-2	2.613056E-2	2.410733E-2	2.216180E-2	2.395609E-2	2.737686E-2	2.849045E-2	2.845626E-2	2.269050E-2	1.886879E-2	1.724008E-2	2.072934E-2	2.382600E-2	1.929057E-2	3.597029E-2	2.077785E-2	2.145224E-2	2.928676E-2	2.508480E-2	3.106011E-2	1.962917E-2	2.492176E-2	1.479401E-2	2.446813E-2	2.249369E-2	3.101323E-2	2.621890E-2	2.272932E-2	2.394833E-2	1.759849E-2	2.192435E-2	4.064263E-2	3.624535E-2	2.882867E-2	2.287051E-2	2.521745E-2	3.069140E-2	2.695361E-2	3.038666E-2	3.006833E-2	2.392792E-2	2.998398E-2	2.361603E-2	2.380329E-2	3.279625E-2	2.397707E-2	2.023430E-2	3.453375E-2	2.521939E-2	2.338459E-2	2.084264E-2	2.343230E-2	3.073687E-2	1.990403E-2	2.191710E-2	2.473027E-2	2.136489E-2	1.551285E-2	2.895834E-2	3.326391E-2	2.502225E-2	2.432250E-2	3.162463E-2	3.744437E-2	2.851186E-2	4.229167E-2	2.654372E-2	3.350590E-2	2.630823E-2	2.353574E-2	2.051378E-2	3.755637E-2	2.351957E-2	1.629432E-2	3.249584E-2	2.291562E-2	2.738241E-2	3.184413E-2	2.570081E-2	2.661871E-2	2.519723E-2	2.138107E-2	2.665787E-2	2.146317E-2	2.415411E-2	3.277084E-2	2.562807E-2	2.819697E-2	2.539490E-2	3.229859E-2	2.651939E-2	2.625680E-2	3.217788E-2	2.266559E-2	1.454227E-2	2.450943E-2	2.501901E-2
2.841030E+2	4.023494E-2	3.385113E-2	3.718665E-2	3.890561E-2	4.423162E-2	3.840465E-2	5.471738E-2	3.715633E-2	3.841045E-2	3.861343E-2	3.409823E-2	3.599255E-2	3.589506E-2	3.120508E-2	3.224084E-2	3.993758E-2	3.551782E-2	2.798108E-2	4.056377E-2	3.852884E-2	4.673284E-2	3.525489E-2	4.338005E-2	3.218710E-2	3.085864E-2	3.781472E-2	5.018025E-2	3.717368E-2	2.603530E-2	4.126915E-2	3.962179E-2	3.909809E-2	2.930054E-2	5.529532E-2	3.023147E-2	5.084919E-2	3.361892E-2	4.725760E-2	2.857105E-2	4.022475E-2	5.317349E-2	4.320904E-2	5.122077E-2	4.286491E-2	3.516682E-2	2.927695E-2	4.114324E-2	3.781851E-2	4.841565E-2	3.646717E-2	3.432424E-2	4.425817E-2	3.538090E-2	3.413387E-2	4.248309E-2	3.190492E-2	4.246859E-2	4.298570E-2	3.069724E-2	3.948617E-2	3.402857E-2	3.011131E-2	4.173530E-2	3.762985E-2	3.583700E-2	3.666708E-2	3.811347E-2	3.877958E-2	4.146174E-2	3.759428E-2	3.855015E-2	3.318865E-2	4.091110E-2	3.281009E-2	3.110903E-2	4.033802E-2	4.112657E-2	3.872143E-2	2.792647E-2	2.932381E-2	3.843229E-2	4.631441E-2	3.654894E-2	3.569535E-2	4.126273E-2	2.746461E-2	3.863119E-2	4.105847E-2	4.198989E-2	3.305161E-2	3.933667E-2	3.490177E-2	4.033897E-2	3.757792E-2	3.490309E-2	3.764918E-2	3.473536E-2	3.846344E-2	5.551858E-2	2.954008E-2	4.885839E-2	4.681295E-2	3.662720E-2	4.800418E-2	4.530837E-2	3.715923E-2	2.531518E-2	5.078020E-2	4.757321E-2	5.363887E-2	2.958450E-2	3.360617E-2	4.024060E-2	3.779568E-2	4.101436E-2	3.867989E-2	4.227979E-2	4.226055E-2	4.403573E-2	3.269323E-2	2.268747E-2	3.487866E-2	3.630017E-2	4.995257E-2	3.690302E-2	3.879874E-2	4.249935E-2	3.237988E-2	3.721133E-2	4.524846E-2	4.251159E-2	3.816506E-2	4.059793E-2	3.524007E-2	3.024198E-2	4.188605E-2	3.495589E-2	3.440019E-2	4.171224E-2	4.600340E-2	5.108770E-2	3.812758E-2	4.455996E-2	3.769583E-2	3.962565E-2	4.915246E-2	3.868109E-2	3.968903E-2	4.371673E-2	3.368230E-2	3.251201E-2	4.280641E-2	4.442675E-2	4.855238E-2	2.943735E-2	3.242448E-2	2.832086E-2	4.520294E-2	3.120399E-2	3.346752E-2	3.996965E-2	3.441446E-2	5.233153E-2	3.428668E-2	5.194665E-2
2.842030E+2	5.489211E-2	5.100024E-2	4.199927E-2	5.844078E-2	5.287358E-2	5.366692E-2	4.647672E-2	4.435839E-2	4.159569E-2	6.482149E-2	4.675685E-2	5.362575E-2	6.211297E-2	6.112783E-2	5.840583E-2	5.079950E-2	5.898047E-2	5.257605E-2	5.182864E-2	6.407123E-2	5.362882E-2	5.340449E-2	4.417878E-2	4.155767E-2	5.012952E-2	5.187096E-2	4.595190E-2	5.582595E-2	4.211949E-2	4.844479E-2	4.339058E-2	5.123794E-2	4.591147E-2	6.125806E-2	5.958563E-2	5.774839E-2	5.616095E-2	5.377960E-2	5.336185E-2	4.993178E-2	4.652791E-2	4.398074E-2	4.902672E-2	6.016373E-2	4.654616E-2	7.315005E-2	5.562718E-2	5.546707E-2	5.043737E-2	4.948471E-2	5.493321E-2	4.934585E-2	5.976963E-2	5.577426E-2	5.139114E-2	5.406309E-2	5.242545E-2	5.090312E-2	5.188932E-2	5.810213E-2	5.541423E-2	6.254568E-2	5.337233E-2	4.412708E-2	5.030528E-2	4.893477E-2	4.647987E-2	4.216997E-2	4.597689E-2	5.293996E-2	6.932764E-2	4.307147E-2	5.251110E-2	5.842961E-2	4.785090E-2	6.554270E-2	4.459345E-2	5.602257E-2	5.573157E-2	5.091287E-2	6.277076E-2	5.890660E-2	5.362427E-2	3.751173E-2	5.376565E-2	5.716581E-2	5.019848E-2	4.618056E-2	3.740914E-2	5.928848E-2	4.061643E-2	6.021449E-2	5.384184E-2	4.864636E-2	5.434564E-2	6.002996E-2	6.106940E-2	4.539679E-2	4.584656E-2	5.104429E-2	4.697617E-2	4.158078E-2	3.832585E-2	6.864439E-2	6.894230E-2	5.930475E-2	4.636564E-2	5.863055E-2	6.064845E-2	4.463423E-2	4.569565E-2	4.398348E-2	5.392429E-2	4.540196E-2	4.391153E-2	5.717447E-2	5.678711E-2	5.654237E-2	4.782955E-2	5.115131E-2	4.695950E-2	5.213209E-2	5.241328E-2	5.599924E-2	5.087482E-2	4.545769E-2	4.044135E-2	4.146076E-2	5.219820E-2	5.275330E-2	6.803023E-2	6.107243E-2	6.729482E-2	4.945990E-2	5.427150E-2	4.701075E-2	5.160474E-2	5.709681E-2	5.616738E-2	5.641416E-2	5.411325E-2	5.957882E-2	6.484418E-2	6.102419E-2	5.300825E-2	5.433908E-2	5.709591E-2	5.491563E-2	5.896500E-2	4.654475E-2	4.985693E-2	5.478889E-2	6.142402E-2	5.242064E-2	3.537470E-2	7.018539E-2	5.934010E-2	6.281010E-2	6.492454E-2	5.161143E-2	5.326987E-2	6.193845E-2	5.674298E-2	5.668924E-2	6.119767E-2
2.843040E+2	6.759550E-2	5.893894E-2	6.297213E-2	7.335361E-2	5.852850E-2	6.950368E-2	6.076416E-2	7.372316E-2	5.944135E-2	5.877499E-2	6.039289E-2	6.417965E-2	4.656691E-2	6.371389E-2	6.562229E-2	5.548217E-2	7.173567E-2	6.893182E-2	5.732321E-2	6.995639E-2	5.589863E-2	5.452739E-2	6.846251E-2	6.384155E-2	6.449936E-2	7.095731E-2	7.348398E-2	7.084254E-2	6.072995E-2	5.378766E-2	6.701998E-2	6.328814E-2	6.529204E-2	6.940973E-2	5.419086E-2	6.679363E-2	7.457498E-2	7.517067E-2	6.480107E-2	7.552237E-2	7.028211E-2	6.298306E-2	5.951096E-2	6.103322E-2	6.386326E-2	6.475744E-2	7.634664E-2	7.789875E-2	7.331041E-2	7.948620E-2	7.686661E-2	6.622995E-2	5.487691E-2	6.049399E-2	7.791159E-2	6.724449E-2	7.868662E-2	6.664801E-2	6.318588E-2	6.107729E-2	6.679781E-2	6.384965E-2	5.564043E-2	6.934549E-2	6.214102E-2	6.874407E-2	7.213539E-2	5.920996E-2	7.495271E-2	7.102912E-2	7.698351E-2	5.328697E-2	7.833010E-2	5.747519E-2	7.027213E-2	7.659952E-2	6.859702E-2	7.548038E-2	6.441213E-2	6.109265E-2	6.084568E-2	6.979393E-2	6.894128E-2	6.359947E-2	6.422446E-2	8.355186E-2	5.248314E-2	6.454911E-2	7.498179E-2	7.164111E-2	6.327045E-2	6.370198E-2	5.295327E-2	5.732018E-2	6.377507E-2	5.545597E-2	6.226247E-2	6.139565E-2	6.865130E-2	6.829141E-2	6.698151E-2	6.947543E-2	6.946520E-2	6.605015E-2	6.661237E-2	5.776420E-2	5.532054E-2	7.418245E-2	6.217410E-2	6.384558E-2	6.351596E-2	5.756039E-2	7.457456E-2	7.598615E-2	6.869838E-2	8.082241E-2	5.278131E-2	5.781665E-2	6.297684E-2	7.833287E-2	6.078855E-2	7.985608E-2	6.253395E-2	7.905504E-2	7.100927E-2	8.139215E-2	5.799324E-2	7.318191E-2	7.167883E-2	7.047381E-2	7.841927E-2	8.010527E-2	6.913866E-2	6.571280E-2	7.181231E-2	8.024314E-2	7.119298E-2	8.196310E-2	5.533232E-2	6.814920E-2	6.277845E-2	6.337607E-2	7.270916E-2	7.259208E-2	6.536539E-2	7.291127E-2	6.807527E-2	5.754969E-2	5.219803E-2	6.780778E-2	6.729688E-2	6.626905E-2	7.036801E-2	6.574567E-2	5.556464E-2	6.807788E-2	5.688553E-2	7.025104E-2	6.918092E-2	7.478240E-2	6.171317E-2	5.167821E-2	5.207369E-2	6.370786E-2	6.657857E-2
2.844010E+2	7.310413E-2	7.157496E-2	5.798364E-2	6.708802E-2	7.699380E-2	7.416206E-2	7.088216E-2	7.493966E-2	8.590604E-2	6.368838E-2	8.352625E-2	6.757527E-2	7.346979E-2	7.962773E-2	7.427511E-2	7.318181E-2	7.254381E-2	7.474601E-2	7.400853E-2	7.174336E-2	8.340485E-2	7.327689E-2	8.180794E-2	7.775272E-2	7.670119E-2	6.423700E-2	6.726770E-2	7.157224E-2	6.834101E-2	7.551812E-2	7.697535E-2	6.792816E-2	7.263179E-2	7.487328E-2	7.869716E-2	8.999469E-2	7.964968E-2	7.934354E-2	7.379044E-2	6.555206E-2	7.644660E-2	7.599768E-2	7.534909E-2	8.182485E-2	6.246519E-2	9.378241E-2	7.761672E-2	8.017243E-2	8.756900E-2	6.802139E-2	6.652582E-2	7.284205E-2	6.773011E-2	9.187914E-2	7.040597E-2	7.144211E-2	7.442617E-2	7.409521E-2	5.867777E-2	8.586881E-2	7.039731E-2	8.003556E-2	7.779347E-2	7.363156E-2	7.565902E-2	7.477322E-2	8.712477E-2	7.870460E-2	7.151511E-2	7.565572E-2	7.171500E-2	7.480009E-2	7.290168E-2	8.918179E-2	7.784106E-2	7.481232E-2	7.734374E-2	7.004149E-2	7.828244E-2	7.183479E-2	7.233627E-2	7.626605E-2	6.272697E-2	7.597610E-2	7.200133E-2	7.497023E-2	8.028022E-2	7.782845E-2	6.853801E-2	8.100277E-2	7.828168E-2	7.343512E-2	8.070917E-2	8.841598E-2	6.941325E-2	6.767878E-2	6.789301E-2	8.198693E-2	8.664739E-2	8.019396E-2	7.946144E-2	5.994635E-2	7.230516E-2	7.249345E-2	9.435254E-2	7.058723E-2	7.197567E-2	7.448165E-2	8.120530E-2	8.205216E-2	7.293189E-2	6.682564E-2	8.128648E-2	8.203285E-2	5.857308E-2	7.317417E-2	7.614454E-2	8.170770E-2	8.344402E-2	8.239707E-2	6.651243E-2	8.173460E-2	8.890265E-2	7.166457E-2	7.520683E-2	9.588573E-2	7.746521E-2	9.224077E-2	8.880167E-2	7.641990E-2	7.811069E-2	7.363365E-2	7.421013E-2	8.549558E-2	9.257053E-2	8.013220E-2	8.150353E-2	7.564112E-2	8.377839E-2	8.417898E-2	6.895410E-2	9.014794E-2	9.105747E-2	6.690160E-2	6.853640E-2	7.153771E-2	7.646961E-2	7.343601E-2	7.678267E-2	6.712373E-2	7.387240E-2	7.388248E-2	8.538529E-2	9.073467E-2	7.217253E-2	8.840965E-2	7.403001E-2	7.105388E-2	8.374823E-2	7.727728E-2	7.899396E-2	8.235384E-2	8.396231E-2	6.980225E-2	8.743263E-2
2.845030E+2	1.324099E-1	1.281259E-1	1.188572E-1	1.318528E-1	1.440481E-1	1.279904E-1	1.112988E-1	1.201666E-1	1.229179E-1	1.363888E-1	1.351676E-1	1.170671E-1	1.364365E-1	1.242128E-1	1.321692E-1	1.242340E-1	1.329478E-1	1.298869E-1	1.099708E-1	1.411331E-1	1.374021E-1	1.365659E-1	1.300902E-1	1.281151E-1	1.235341E-1	1.154221E-1	1.259679E-1	1.424170E-1	1.336846E-1	1.236467E-1	1.115813E-1	1.100570E-1	1.115104E-1	1.295541E-1	1.405924E-1	1.371072E-1	1.244987E-1	1.216435E-1	1.126101E-1	1.192380E-1	1.528218E-1	1.257215E-1	1.221512E-1	1.359408E-1	1.392393E-1	1.359261E-1	1.315305E-1	1.197259E-1	1.304629E-1	1.235064E-1	1.154801E-1	1.363836E-1	1.183550E-1	1.213855E-1	1.308690E-1	1.133346E-1	1.371788E-1	1.282426E-1	1.341116E-1	1.277649E-1	1.327725E-1	1.315513E-1	1.235283E-1	1.282228E-1	1.195582E-1	1.382840E-1	1.271910E-1	1.247531E-1	1.398512E-1	1.452188E-1	1.275472E-1	1.284130E-1	1.164236E-1	1.126912E-1	1.103011E-1	1.198723E-1	1.238117E-1	1.400299E-1	1.334539E-1	1.291941E-1	1.261875E-1	1.292739E-1	1.392541E-1	1.209316E-1	1.342244E-1	1.318319E-1	1.358607E-1	1.281218E-1	1.324505E-1	1.192252E-1	1.247199E-1	1.075518E-1	1.254796E-1	1.411189E-1	1.334111E-1	1.161652E-1	1.246631E-1	1.259365E-1	1.235337E-1	1.210876E-1	1.406099E-1	1.284934E-1	1.231138E-1	1.285281E-1	1.099469E-1	1.205417E-1	1.402098E-1	1.310893E-1	1.211569E-1	1.275524E-1	1.413408E-1	1.315566E-1	1.236806E-1	1.197979E-1	1.302549E-1	1.304000E-1	1.080509E-1	1.262329E-1	1.148604E-1	1.341061E-1	1.337892E-1	1.236290E-1	1.524731E-1	1.121707E-1	1.259228E-1	1.479899E-1	1.325343E-1	1.277364E-1	1.357355E-1	1.385931E-1	1.377887E-1	1.277266E-1	1.134849E-1	1.288593E-1	1.349613E-1	1.253621E-1	1.226619E-1	1.183563E-1	1.182968E-1	1.291703E-1	1.277160E-1	1.130753E-1	1.139160E-1	1.156156E-1	1.573969E-1	1.221646E-1	1.422801E-1	1.210126E-1	1.211322E-1	1.531093E-1	1.261675E-1	1.394757E-1	1.478094E-1	1.433989E-1	1.308575E-1	1.130749E-1	1.105296E-1	1.468038E-1	1.208988E-1	1.290286E-1	1.485356E-1	1.349407E-1	1.316117E-1	1.356163E-1	1.329700E-1
2.846060E+2	2.452975E-1	2.364491E-1	2.441159E-1	2.576492E-1	2.233478E-1	2.408320E-1	2.333795E-1	2.547880E-1	2.491541E-1	2.363060E-1	2.502925E-1	2.311186E-1	2.586545E-1	2.468913E-1	2.359340E-1	2.463036E-1	2.604380E-1	2.279644E-1	2.486971E-1	2.543036E-1	2.574890E-1	2.497042E-1	2.469701E-1	2.507067E-1	2.435105E-1	2.459798E-1	2.580834E-1	2.508992E-1	2.577421E-1	2.200107E-1	2.459649E-1	2.540125E-1	2.404641E-1	2.193567E-1	2.419683E-1	2.470681E-1	2.390218E-1	2.493849E-1	2.406600E-1	2.603063E-1	2.332984E-1	2.493819E-1	2.472980E-1	2.622990E-1	2.648335E-1	2.524770E-1	2.659921E-1	2.394041E-1	2.256407E-1	2.417219E-1	2.425188E-1	2.578720E-1	2.164904E-1	2.429364E-1	2.535405E-1	2.427811E-1	2.554904E-1	2.244719E-1	2.465642E-1	2.521570E-1	2.700876E-1	2.501752E-1	2.481269E-1	2.348444E-1	2.351956E-1	2.242367E-1	2.468824E-1	2.213809E-1	2.334241E-1	2.666144E-1	2.562513E-1	2.416523E-1	2.639648E-1	2.539379E-1	2.540086E-1	2.332422E-1	2.450353E-1	2.655183E-1	2.523750E-1	2.380960E-1	2.793272E-1	2.581115E-1	2.672554E-1	2.392031E-1	2.745994E-1	2.447570E-1	2.283530E-1	2.469892E-1	2.569828E-1	2.306926E-1	2.462353E-1	2.382061E-1	2.613956E-1	2.426594E-1	2.503040E-1	2.406447E-1	2.570800E-1	2.365228E-1	2.403866E-1	2.773772E-1	2.292672E-1	2.385146E-1	2.433067E-1	2.516453E-1	2.465461E-1	2.583967E-1	2.511052E-1	2.597586E-1	2.512165E-1	2.541060E-1	2.542184E-1	2.550200E-1	2.632945E-1	2.513939E-1	2.574171E-1	2.300618E-1	2.432160E-1	2.485972E-1	2.389541E-1	2.459801E-1	2.636497E-1	2.431273E-1	2.530891E-1	2.510448E-1	2.312876E-1	2.648462E-1	2.303743E-1	2.568272E-1	2.479454E-1	2.545967E-1	2.874142E-1	2.484135E-1	2.639850E-1	2.552643E-1	2.664544E-1	2.337809E-1	2.508572E-1	2.550025E-1	2.603915E-1	2.618034E-1	2.417340E-1	2.306383E-1	2.696148E-1	2.489279E-1	2.632391E-1	2.341961E-1	2.420361E-1	2.660151E-1	2.597997E-1	2.696812E-1	2.455775E-1	2.634992E-1	2.530888E-1	2.560330E-1	2.487464E-1	2.516212E-1	2.612519E-1	2.622758E-1	2.265853E-1	2.729801E-1	2.663073E-1	2.819376E-1	2.601087E-1	2.175184E-1	2.680066E-1
2.847030E+2	5.248917E-1	5.073198E-1	4.834485E-1	5.124588E-1	5.370541E-1	4.890086E-1	5.004734E-1	5.260994E-1	5.249805E-1	5.082700E-1	4.946021E-1	5.164579E-1	4.836729E-1	4.626187E-1	5.267220E-1	5.180610E-1	5.199614E-1	4.953168E-1	5.139630E-1	5.328937E-1	5.100614E-1	5.147855E-1	5.106923E-1	4.968761E-1	4.750958E-1	4.921882E-1	5.183696E-1	5.138977E-1	5.006026E-1	5.087780E-1	5.214718E-1	4.757467E-1	4.884374E-1	5.260700E-1	5.001295E-1	4.962822E-1	5.211047E-1	5.125877E-1	4.977468E-1	5.337907E-1	5.414435E-1	5.167605E-1	5.225985E-1	5.114686E-1	5.241050E-1	5.176789E-1	4.810866E-1	5.186788E-1	5.264309E-1	5.212289E-1	5.068253E-1	4.931814E-1	4.906284E-1	5.145705E-1	5.162344E-1	5.242294E-1	5.354718E-1	4.932053E-1	5.124306E-1	5.463027E-1	5.217668E-1	5.001374E-1	5.220636E-1	4.823286E-1	5.087780E-1	4.926084E-1	4.779366E-1	5.190187E-1	5.197309E-1	5.357843E-1	5.031191E-1	5.423191E-1	5.260253E-1	5.185625E-1	5.063783E-1	5.235838E-1	5.120128E-1	5.233859E-1	5.407926E-1	5.163344E-1	5.064723E-1	5.277677E-1	5.165021E-1	5.110884E-1	5.246393E-1	5.115537E-1	5.253961E-1	5.226947E-1	5.286028E-1	4.943202E-1	5.118285E-1	5.342654E-1	5.191646E-1	5.168583E-1	5.209800E-1	5.308984E-1	4.808714E-1	5.353736E-1	5.128531E-1	5.350604E-1	5.482025E-1	5.134249E-1	4.730107E-1	5.049650E-1	5.636896E-1	5.528456E-1	4.839016E-1	4.814901E-1	5.332293E-1	5.199771E-1	4.907106E-1	5.238883E-1	5.037287E-1	4.914859E-1	5.051621E-1	5.177316E-1	5.260873E-1	5.055504E-1	5.227242E-1	5.105059E-1	4.919794E-1	5.472247E-1	5.455031E-1	4.976558E-1	5.307518E-1	5.143328E-1	4.944887E-1	5.016362E-1	4.973326E-1	5.047035E-1	5.436498E-1	4.875707E-1	5.161676E-1	5.244464E-1	4.862470E-1	5.117521E-1	5.205639E-1	4.931056E-1	4.964718E-1	5.487051E-1	5.143124E-1	4.633268E-1	5.505323E-1	5.050878E-1	4.914203E-1	5.171088E-1	5.191372E-1	5.314552E-1	5.088499E-1	4.715480E-1	5.023242E-1	5.095352E-1	5.217592E-1	5.198605E-1	5.025639E-1	5.056576E-1	5.318319E-1	5.242799E-1	4.844356E-1	4.911055E-1	5.480951E-1	4.962435E-1	5.026801E-1	4.941315E-1	4.618871E-1
2.848030E+2	7.867689E-1	8.053118E-1	7.989778E-1	7.996113E-1	8.012620E-1	8.118891E-1	7.514990E-1	7.947735E-1	8.621381E-1	7.722491E-1	7.844272E-1	8.058394E-1	8.436365E-1	7.621029E-1	7.918016E-1	8.245441E-1	7.854283E-1	7.940037E-1	7.930881E-1	7.866160E-1	7.682834E-1	8.088636E-1	7.890345E-1	8.127095E-1	7.659233E-1	8.545945E-1	7.820681E-1	7.845640E-1	8.337380E-1	8.082405E-1	7.996523E-1	7.641706E-1	7.894661E-1	7.667694E-1	7.831221E-1	8.324497E-1	8.509279E-1	7.879612E-1	8.027490E-1	8.037671E-1	8.372550E-1	8.051345E-1	8.011970E-1	8.366384E-1	7.893512E-1	8.113382E-1	8.084822E-1	7.692822E-1	7.629530E-1	7.728767E-1	7.903458E-1	8.195437E-1	7.861084E-1	8.103762E-1	8.150652E-1	7.776590E-1	8.575366E-1	7.743948E-1	7.772946E-1	7.624600E-1	7.878466E-1	7.645493E-1	8.006745E-1	8.201447E-1	7.923576E-1	8.304390E-1	7.947419E-1	7.954968E-1	8.107536E-1	8.339044E-1	8.000145E-1	7.788408E-1	8.231932E-1	7.927874E-1	7.922930E-1	7.934715E-1	8.220033E-1	8.614434E-1	8.327450E-1	7.463191E-1	8.442926E-1	8.258075E-1	7.459748E-1	8.039293E-1	7.991111E-1	7.935545E-1	7.885376E-1	7.891914E-1	7.861973E-1	7.632249E-1	7.919457E-1	8.001482E-1	8.172316E-1	7.566233E-1	8.217044E-1	7.763885E-1	8.097785E-1	7.904272E-1	7.933637E-1	8.219383E-1	8.065316E-1	7.868296E-1	8.128800E-1	7.749920E-1	8.423430E-1	7.550866E-1	8.181521E-1	7.723355E-1	8.286351E-1	8.275175E-1	7.693979E-1	7.985089E-1	7.688015E-1	7.687245E-1	7.762665E-1	8.355353E-1	7.937021E-1	7.834309E-1	8.252084E-1	7.954789E-1	8.091399E-1	7.811454E-1	7.868407E-1	7.708103E-1	7.955722E-1	8.364842E-1	7.611131E-1	8.319723E-1	7.848662E-1	7.921230E-1	8.043803E-1	7.823495E-1	8.147292E-1	8.404934E-1	7.790622E-1	7.782456E-1	8.328994E-1	7.950463E-1	8.251931E-1	8.470851E-1	8.267240E-1	7.978125E-1	7.931056E-1	7.801225E-1	8.188343E-1	8.104667E-1	8.047581E-1	7.946449E-1	8.215517E-1	8.166020E-1	8.080839E-1	8.058048E-1	8.394323E-1	8.536996E-1	7.870623E-1	7.997670E-1	7.783511E-1	8.230787E-1	7.841046E-1	7.896093E-1	8.147100E-1	7.732585E-1	7.771256E-1	7.474564E-1	7.608355E-1
2.849040E+2	8.860221E-1	8.734427E-1	8.841794E-1	8.698272E-1	8.909674E-1	9.031671E-1	8.482572E-1	8.602826E-1	9.401807E-1	8.267243E-1	8.314893E-1	8.407227E-1	9.103899E-1	8.481317E-1	9.098207E-1	8.820938E-1	8.669806E-1	8.277528E-1	8.642828E-1	8.477936E-1	9.009319E-1	8.757679E-1	8.576160E-1	8.902031E-1	8.653573E-1	8.530366E-1	9.025955E-1	8.674906E-1	8.960461E-1	9.069829E-1	8.402332E-1	8.751917E-1	8.476637E-1	8.682830E-1	8.091475E-1	8.685727E-1	8.651587E-1	8.380862E-1	8.277392E-1	8.533179E-1	8.929454E-1	8.870591E-1	8.577383E-1	8.800011E-1	8.951308E-1	9.050969E-1	8.417675E-1	8.893174E-1	7.996510E-1	8.806420E-1	8.869907E-1	8.740892E-1	8.428116E-1	8.913249E-1	8.493235E-1	8.306677E-1	8.623855E-1	8.271233E-1	8.951994E-1	8.652229E-1	8.475178E-1	8.742982E-1	9.172431E-1	8.694011E-1	8.602486E-1	8.370546E-1	8.668224E-1	8.638458E-1	8.948151E-1	8.761418E-1	8.677785E-1	8.695135E-1	8.696183E-1	8.859288E-1	8.501721E-1	8.583429E-1	8.989701E-1	8.621988E-1	8.730823E-1	8.680710E-1	8.713625E-1	8.707823E-1	8.646045E-1	8.988012E-1	8.858373E-1	8.838659E-1	8.773628E-1	8.677788E-1	9.044318E-1	8.536163E-1	8.510841E-1	8.546704E-1	8.551852E-1	8.850286E-1	8.906137E-1	8.777265E-1	8.765749E-1	9.350610E-1	8.549943E-1	8.875511E-1	8.844219E-1	8.641350E-1	8.839595E-1	8.916526E-1	8.699421E-1	8.460997E-1	8.761069E-1	8.521813E-1	8.930698E-1	8.737706E-1	9.044727E-1	8.666918E-1	8.255266E-1	8.850158E-1	8.378653E-1	8.429388E-1	8.501711E-1	8.043415E-1	8.921818E-1	8.481180E-1	8.998407E-1	8.584116E-1	8.827738E-1	8.988374E-1	9.068322E-1	8.944982E-1	8.734347E-1	8.958364E-1	9.053104E-1	8.293406E-1	8.845631E-1	8.237123E-1	9.127237E-1	8.860554E-1	8.674430E-1	8.973427E-1	8.783541E-1	8.940420E-1	8.706855E-1	9.361668E-1	8.744816E-1	8.994388E-1	8.816434E-1	8.763642E-1	8.704893E-1	8.595819E-1	8.705197E-1	8.403399E-1	8.743681E-1	8.519835E-1	8.677154E-1	8.400393E-1	9.099952E-1	8.435416E-1	8.808627E-1	8.818543E-1	8.820275E-1	8.678510E-1	8.540364E-1	8.246228E-1	9.055495E-1	9.219322E-1	9.032920E-1	9.277565E-1	8.672084E-1
2.850030E+2	8.435522E-1	8.330336E-1	8.649417E-1	8.344677E-1	9.188342E-1	8.460741E-1	8.359482E-1	8.513450E-1	8.632798E-1	8.527896E-1	8.202367E-1	8.276708E-1	8.165214E-1	8.480195E-1	8.116148E-1	8.369518E-1	8.726451E-1	8.596726E-1	8.750327E-1	8.569990E-1	9.013428E-1	8.534997E-1	8.814574E-1	8.868721E-1	8.711421E-1	8.737825E-1	9.033408E-1	8.255146E-1	8.678535E-1	8.399299E-1	8.791138E-1	8.377833E-1	8.512716E-1	8.596459E-1	8.622611E-1	8.852468E-1	8.754423E-1	8.331809E-1	8.859416E-1	8.508580E-1	9.050866E-1	8.773178E-1	8.786077E-1	8.655287E-1	8.735151E-1	8.649359E-1	8.369416E-1	8.438184E-1	8.733393E-1	8.734626E-1	8.403124E-1	8.754426E-1	8.397869E-1	8.325071E-1	8.712750E-1	8.743827E-1	8.567426E-1	8.413312E-1	8.483927E-1	8.800175E-1	8.908005E-1	9.258614E-1	8.738123E-1	8.531640E-1	8.510364E-1	8.515104E-1	8.516133E-1	8.219565E-1	8.869163E-1	9.052316E-1	8.463120E-1	8.253743E-1	8.892983E-1	8.576565E-1	8.790573E-1	8.832746E-1	8.798206E-1	8.641236E-1	8.234349E-1	8.371036E-1	8.943493E-1	8.842231E-1	8.902364E-1	8.522996E-1	8.975052E-1	8.805343E-1	8.608449E-1	8.579534E-1	8.682586E-1	8.561377E-1	8.622623E-1	8.572664E-1	9.002246E-1	8.572376E-1	8.745082E-1	8.433477E-1	8.628211E-1	8.410771E-1	8.384443E-1	8.182246E-1	8.749719E-1	8.720074E-1	8.885978E-1	8.357741E-1	8.820276E-1	8.367442E-1	8.617700E-1	8.259295E-1	8.663716E-1	8.502253E-1	8.689092E-1	8.707598E-1	8.772759E-1	8.161037E-1	8.228629E-1	8.874561E-1	8.573515E-1	8.369922E-1	8.552085E-1	8.334840E-1	8.823433E-1	8.289749E-1	8.828807E-1	8.272141E-1	8.551871E-1	8.649246E-1	8.620236E-1	8.626325E-1	8.447963E-1	8.264375E-1	8.511740E-1	8.496312E-1	8.891784E-1	8.822205E-1	8.906349E-1	8.712914E-1	8.706185E-1	8.662048E-1	8.508741E-1	8.390806E-1	8.882945E-1	8.600357E-1	8.874268E-1	8.268848E-1	8.807549E-1	8.504568E-1	8.438935E-1	8.675886E-1	8.958575E-1	8.123555E-1	8.647302E-1	8.809010E-1	8.426813E-1	8.971551E-1	8.738972E-1	8.057295E-1	9.137158E-1	8.640598E-1	8.814959E-1	8.439822E-1	9.077363E-1	8.997805E-1	9.054398E-1	8.277101E-1	8.066780E-1
2.851030E+2	7.707650E-1	7.948148E-1	7.773809E-1	8.478698E-1	7.960146E-1	7.883961E-1	7.647662E-1	7.974584E-1	7.990526E-1	7.618398E-1	7.950508E-1	7.726031E-1	8.014652E-1	7.430713E-1	7.961969E-1	7.950253E-1	8.125286E-1	7.811365E-1	7.955134E-1	7.570025E-1	7.728828E-1	7.884280E-1	7.526551E-1	7.664397E-1	7.818607E-1	7.972284E-1	7.784938E-1	7.627546E-1	7.956103E-1	8.284071E-1	8.156962E-1	7.419320E-1	7.549470E-1	8.036023E-1	7.722205E-1	8.366715E-1	7.721476E-1	7.387509E-1	8.012638E-1	7.689281E-1	8.222367E-1	7.946491E-1	7.752089E-1	7.675961E-1	7.642883E-1	7.886727E-1	7.955317E-1	7.914276E-1	7.550348E-1	7.803440E-1	7.676827E-1	7.887437E-1	8.311143E-1	7.943642E-1	7.956104E-1	7.756118E-1	7.728012E-1	8.213220E-1	7.740701E-1	7.929017E-1	8.052286E-1	7.711389E-1	7.680536E-1	7.528614E-1	8.212695E-1	8.177412E-1	7.980268E-1	7.897539E-1	8.085034E-1	7.834874E-1	7.785767E-1	7.525432E-1	8.333224E-1	8.140481E-1	7.913595E-1	7.840286E-1	8.236277E-1	8.044600E-1	8.104914E-1	7.695801E-1	8.237922E-1	7.897223E-1	7.814016E-1	7.975957E-1	7.730245E-1	7.789696E-1	7.604129E-1	8.248538E-1	8.301688E-1	7.445118E-1	8.498318E-1	7.895260E-1	7.770461E-1	7.836177E-1	8.324007E-1	7.739018E-1	7.724763E-1	8.358750E-1	7.667073E-1	8.275113E-1	7.888039E-1	7.706812E-1	7.620074E-1	8.051219E-1	8.107678E-1	8.233713E-1	8.116900E-1	7.653449E-1	8.074898E-1	8.184299E-1	7.884265E-1	8.043111E-1	7.576761E-1	7.767898E-1	7.547721E-1	7.843150E-1	8.298782E-1	7.769008E-1	7.797233E-1	7.819064E-1	7.969106E-1	8.105893E-1	7.872158E-1	8.052139E-1	7.825032E-1	7.583294E-1	7.846350E-1	8.142442E-1	7.886276E-1	8.093126E-1	8.100656E-1	7.523506E-1	8.021237E-1	7.726105E-1	8.417228E-1	7.527769E-1	8.021832E-1	8.120632E-1	7.861215E-1	7.829331E-1	7.601182E-1	7.991981E-1	7.882250E-1	8.214135E-1	8.246949E-1	7.745963E-1	7.941677E-1	7.567627E-1	8.190819E-1	7.638249E-1	7.904664E-1	7.937258E-1	7.820380E-1	8.117194E-1	8.000710E-1	7.881813E-1	8.099836E-1	7.557029E-1	7.792515E-1	8.211741E-1	8.163370E-1	7.729315E-1	7.920586E-1	7.745836E-1	7.828850E-1
2.852040E+2	6.271116E-1	6.441000E-1	6.683007E-1	7.025908E-1	7.088287E-1	6.685933E-1	6.116241E-1	6.480144E-1	7.114046E-1	6.958674E-1	6.647138E-1	6.538010E-1	6.633620E-1	6.650729E-1	6.934451E-1	6.556864E-1	6.659605E-1	6.524703E-1	7.184765E-1	6.514378E-1	6.895512E-1	6.457291E-1	6.721195E-1	6.584569E-1	6.721720E-1	7.012519E-1	6.998547E-1	6.514621E-1	6.605787E-1	6.392800E-1	6.635119E-1	6.147644E-1	6.341647E-1	6.889686E-1	7.284358E-1	7.248886E-1	6.591953E-1	7.020866E-1	6.745560E-1	6.679976E-1	6.817609E-1	6.778782E-1	6.733115E-1	6.681246E-1	6.711186E-1	6.624009E-1	6.739057E-1	6.806279E-1	6.584176E-1	6.701558E-1	6.759947E-1	7.025106E-1	6.645722E-1	6.792880E-1	6.889387E-1	6.453507E-1	6.569959E-1	7.060092E-1	7.101988E-1	6.795459E-1	6.724213E-1	7.134206E-1	6.730928E-1	6.867686E-1	7.097838E-1	6.878133E-1	6.688112E-1	6.457664E-1	7.031159E-1	6.786239E-1	6.782207E-1	6.319794E-1	6.742568E-1	6.572571E-1	6.781921E-1	6.744906E-1	6.373634E-1	6.469179E-1	6.867105E-1	6.593179E-1	7.065380E-1	6.160613E-1	6.812220E-1	6.740704E-1	6.812173E-1	6.778637E-1	6.752834E-1	6.732959E-1	6.820172E-1	6.448032E-1	6.613079E-1	6.795608E-1	6.847015E-1	6.650058E-1	6.926418E-1	6.933869E-1	6.827359E-1	6.809867E-1	6.324388E-1	6.574478E-1	7.221642E-1	6.677474E-1	7.203759E-1	6.641844E-1	6.600556E-1	6.848498E-1	6.747259E-1	6.516075E-1	7.001312E-1	6.975459E-1	7.210962E-1	6.706193E-1	6.800490E-1	6.563776E-1	6.244905E-1	7.021079E-1	7.000209E-1	6.589557E-1	7.120339E-1	6.673726E-1	6.733563E-1	6.653640E-1	6.705157E-1	6.597720E-1	6.458925E-1	6.786600E-1	6.916033E-1	6.469686E-1	6.645491E-1	6.592152E-1	6.942334E-1	6.752173E-1	6.810301E-1	6.925018E-1	6.814641E-1	6.391240E-1	6.479031E-1	6.804545E-1	6.772579E-1	6.992011E-1	6.905605E-1	6.835227E-1	6.797585E-1	6.927302E-1	7.338694E-1	6.643362E-1	6.864497E-1	6.894435E-1	7.033835E-1	6.547720E-1	7.277514E-1	7.143038E-1	6.933213E-1	7.065433E-1	6.633183E-1	6.832770E-1	7.124799E-1	6.289350E-1	6.760336E-1	6.548877E-1	6.685060E-1	6.935243E-1	7.179480E-1	6.843168E-1	7.047622E-1
2.852990E+2	4.769796E-1	5.038695E-1	4.899795E-1	5.139517E-1	5.049363E-1	5.010897E-1	5.040230E-1	4.973881E-1	5.327275E-1	5.355655E-1	4.886633E-1	5.081209E-1	4.909828E-1	5.015311E-1	5.399018E-1	5.009998E-1	5.165925E-1	4.957260E-1	5.013619E-1	5.011282E-1	5.360435E-1	5.046076E-1	5.037461E-1	5.055465E-1	4.959839E-1	5.054004E-1	5.077186E-1	5.206160E-1	5.166630E-1	5.266947E-1	4.845650E-1	4.774679E-1	4.754713E-1	5.217834E-1	5.193463E-1	5.368618E-1	5.158908E-1	5.182052E-1	5.151245E-1	5.416473E-1	5.406373E-1	5.224954E-1	4.542739E-1	5.312666E-1	5.244531E-1	5.415912E-1	5.290431E-1	5.161774E-1	5.100460E-1	5.110835E-1	5.143959E-1	5.208636E-1	5.119081E-1	5.362544E-1	5.157015E-1	5.074713E-1	5.091808E-1	5.313030E-1	5.111731E-1	5.494313E-1	5.005205E-1	5.063189E-1	4.894740E-1	4.851029E-1	5.059452E-1	5.321606E-1	5.030184E-1	4.902096E-1	5.271434E-1	5.359952E-1	5.126770E-1	5.204949E-1	5.121900E-1	5.257207E-1	5.150448E-1	5.122013E-1	5.028295E-1	5.077412E-1	5.043285E-1	4.995672E-1	5.634628E-1	5.043128E-1	5.001922E-1	5.178952E-1	5.551392E-1	5.167648E-1	5.090979E-1	4.893602E-1	5.274005E-1	5.103623E-1	5.393909E-1	5.023419E-1	5.199201E-1	4.913832E-1	4.967436E-1	5.133444E-1	5.184066E-1	5.125734E-1	5.229400E-1	4.894241E-1	5.207267E-1	5.146525E-1	4.999038E-1	4.974327E-1	5.190751E-1	5.100370E-1	5.318148E-1	5.061464E-1	5.214406E-1	5.221142E-1	5.310844E-1	5.062377E-1	5.023511E-1	5.017613E-1	5.033714E-1	5.334797E-1	5.212924E-1	5.312093E-1	5.184246E-1	4.491816E-1	4.861528E-1	5.190007E-1	5.368916E-1	5.116658E-1	5.158224E-1	5.051451E-1	5.413711E-1	4.843312E-1	5.282333E-1	5.041551E-1	5.130122E-1	5.408263E-1	5.110022E-1	5.003079E-1	5.308578E-1	5.191534E-1	5.191307E-1	4.884965E-1	5.248539E-1	5.309315E-1	5.265587E-1	5.085482E-1	5.137130E-1	5.152886E-1	5.737675E-1	5.152325E-1	5.189241E-1	5.235184E-1	5.132611E-1	5.168824E-1	5.037991E-1	5.445047E-1	5.267206E-1	5.522893E-1	5.097034E-1	5.189045E-1	5.331885E-1	5.348425E-1	5.336442E-1	5.148312E-1	5.378266E-1	5.542202E-1	5.669987E-1	5.259934E-1	5.169099E-1
2.854020E+2	3.651021E-1	3.604778E-1	3.633729E-1	3.688019E-1	3.576657E-1	3.791445E-1	3.621635E-1	3.504883E-1	3.470867E-1	3.917880E-1	3.492056E-1	3.317325E-1	3.319505E-1	3.540316E-1	3.435426E-1	3.313937E-1	3.529295E-1	3.510959E-1	3.656857E-1	3.618070E-1	3.765307E-1	3.414922E-1	3.577284E-1	3.587287E-1	3.670454E-1	3.649726E-1	3.418329E-1	3.445444E-1	3.448268E-1	3.582145E-1	3.577831E-1	3.580556E-1	3.349354E-1	3.124664E-1	3.713114E-1	3.643516E-1	3.470007E-1	3.534852E-1	3.325965E-1	3.566494E-1	3.615629E-1	3.449143E-1	3.425994E-1	3.541170E-1	3.717942E-1	3.427098E-1	3.311325E-1	3.757314E-1	3.392654E-1	3.798565E-1	3.571799E-1	3.842681E-1	3.386660E-1	3.638659E-1	3.524769E-1	3.642706E-1	3.629994E-1	3.501768E-1	3.487206E-1	3.649277E-1	3.748766E-1	3.848377E-1	3.525798E-1	3.099399E-1	3.699861E-1	3.614792E-1	3.597000E-1	3.795573E-1	3.569496E-1	3.575975E-1	3.631851E-1	3.289043E-1	3.686335E-1	3.625591E-1	3.520565E-1	3.237501E-1	3.521754E-1	3.645477E-1	3.665763E-1	3.658510E-1	3.767002E-1	3.457598E-1	3.555467E-1	3.774233E-1	3.679435E-1	3.157204E-1	3.467854E-1	3.480653E-1	3.603898E-1	3.340454E-1	3.726197E-1	3.499049E-1	3.647158E-1	3.705979E-1	3.408534E-1	3.248585E-1	3.472448E-1	3.483235E-1	3.592570E-1	3.563651E-1	3.906412E-1	3.376392E-1	3.683747E-1	3.571417E-1	3.893106E-1	3.380534E-1	3.814242E-1	3.374018E-1	3.642694E-1	3.822218E-1	3.581768E-1	3.337896E-1	3.441844E-1	3.669642E-1	3.735194E-1	3.543830E-1	3.567275E-1	3.708706E-1	3.737436E-1	3.441334E-1	3.415275E-1	3.673166E-1	3.679572E-1	3.699965E-1	3.943839E-1	3.527585E-1	3.885378E-1	3.838887E-1	3.608730E-1	3.756578E-1	3.791836E-1	3.498288E-1	3.623094E-1	3.586572E-1	3.637386E-1	3.861913E-1	3.499531E-1	3.514162E-1	3.560268E-1	3.603496E-1	3.315578E-1	3.493837E-1	3.780532E-1	3.596237E-1	3.510290E-1	3.593499E-1	3.469690E-1	3.693508E-1	3.419181E-1	3.675488E-1	3.777580E-1	3.914613E-1	3.709186E-1	3.756334E-1	3.602429E-1	3.697695E-1	3.821637E-1	3.658919E-1	3.496628E-1	3.742417E-1	3.573564E-1	3.593661E-1	3.663314E-1	3.603824E-1	3.797429E-1
2.855070E+2	3.101264E-1	2.818670E-1	3.167144E-1	3.128284E-1	3.224900E-1	3.071926E-1	2.769775E-1	3.194997E-1	3.325623E-1	2.929894E-1	3.238862E-1	2.821826E-1	3.148398E-1	3.078292E-1	3.253098E-1	2.857649E-1	2.843088E-1	3.220023E-1	2.967714E-1	2.892892E-1	3.129621E-1	3.112144E-1	3.084645E-1	3.079053E-1	3.024879E-1	3.250122E-1	2.844475E-1	3.084139E-1	3.048073E-1	2.935521E-1	3.015778E-1	2.894123E-1	3.012293E-1	2.889545E-1	3.056797E-1	3.165761E-1	2.899165E-1	2.927569E-1	3.195594E-1	3.258725E-1	3.033575E-1	3.201893E-1	2.954199E-1	3.026853E-1	3.009435E-1	3.134006E-1	2.913128E-1	3.185686E-1	2.796359E-1	3.147987E-1	2.980491E-1	3.293381E-1	3.107221E-1	3.381857E-1	3.132341E-1	3.023170E-1	2.942530E-1	3.168380E-1	3.160194E-1	3.256487E-1	3.142673E-1	3.391979E-1	3.251486E-1	3.067284E-1	3.155754E-1	3.113531E-1	3.008435E-1	2.935774E-1	3.029240E-1	2.951064E-1	2.926217E-1	3.025267E-1	3.245986E-1	3.022736E-1	2.990576E-1	3.019543E-1	3.223719E-1	3.277362E-1	3.063194E-1	3.087660E-1	3.353752E-1	3.227794E-1	3.189322E-1	2.859504E-1	3.059429E-1	3.084976E-1	3.021467E-1	3.197595E-1	3.350478E-1	2.959649E-1	3.243214E-1	2.930397E-1	3.077323E-1	3.004574E-1	3.030169E-1	3.053207E-1	2.971249E-1	3.556033E-1	2.906995E-1	3.130200E-1	2.953955E-1	3.082538E-1	3.081306E-1	3.130876E-1	2.916180E-1	2.965137E-1	2.947420E-1	2.893977E-1	3.273353E-1	3.059716E-1	2.881550E-1	3.293943E-1	2.936011E-1	3.043183E-1	2.995761E-1	3.099145E-1	3.004869E-1	2.901497E-1	3.131096E-1	3.137587E-1	2.924677E-1	2.945910E-1	3.126866E-1	2.859730E-1	3.185002E-1	3.301099E-1	3.049774E-1	3.052406E-1	2.931432E-1	3.086137E-1	3.042538E-1	3.133429E-1	3.104454E-1	3.133801E-1	3.411370E-1	3.027449E-1	3.193436E-1	3.160701E-1	2.952952E-1	3.039280E-1	3.188360E-1	3.278862E-1	3.022354E-1	3.119917E-1	3.000141E-1	3.102685E-1	3.113628E-1	3.026690E-1	3.137798E-1	2.947847E-1	3.336458E-1	3.182704E-1	3.022943E-1	3.079342E-1	3.016173E-1	3.075662E-1	3.209314E-1	3.111663E-1	3.169536E-1	2.998516E-1	3.123413E-1	3.060700E-1	3.126737E-1	3.008987E-1	3.261134E-1
2.856010E+2	2.607442E-1	2.600345E-1	2.660981E-1	2.778070E-1	2.712008E-1	2.589957E-1	2.821033E-1	2.771324E-1	2.674380E-1	2.452577E-1	2.432550E-1	2.578943E-1	2.493548E-1	2.535006E-1	2.539576E-1	2.801396E-1	2.790156E-1	2.691403E-1	2.532345E-1	2.625120E-1	2.711425E-1	2.625568E-1	2.459276E-1	2.679763E-1	2.690807E-1	2.519823E-1	2.636859E-1	2.648840E-1	2.836529E-1	2.614647E-1	2.492721E-1	2.748474E-1	2.524834E-1	2.653448E-1	2.786281E-1	2.612305E-1	2.651411E-1	2.651048E-1	2.671584E-1	2.706619E-1	2.606615E-1	2.735911E-1	2.478491E-1	2.597100E-1	2.750551E-1	2.581005E-1	2.265444E-1	2.580056E-1	2.637157E-1	2.767227E-1	2.664074E-1	2.758922E-1	2.487193E-1	2.651118E-1	2.765780E-1	2.779930E-1	2.675541E-1	2.774107E-1	2.782476E-1	2.650843E-1	2.902029E-1	2.710331E-1	2.625710E-1	2.710062E-1	2.810963E-1	2.707830E-1	2.523036E-1	2.727275E-1	2.793184E-1	2.840645E-1	2.587940E-1	2.703475E-1	2.694725E-1	2.699267E-1	2.634705E-1	2.794127E-1	2.808591E-1	2.669961E-1	2.591897E-1	2.585775E-1	2.863953E-1	2.710728E-1	2.709579E-1	2.560142E-1	2.804659E-1	2.422791E-1	2.801168E-1	2.627903E-1	2.733804E-1	2.821996E-1	2.789095E-1	2.848490E-1	2.850894E-1	2.754421E-1	2.905313E-1	2.640407E-1	2.689449E-1	2.782123E-1	2.875242E-1	2.842849E-1	2.468266E-1	2.506726E-1	2.464518E-1	2.606536E-1	2.548891E-1	2.621665E-1	2.768780E-1	2.839713E-1	2.754968E-1	2.996018E-1	2.862216E-1	2.628955E-1	2.759174E-1	2.878578E-1	2.761198E-1	2.635129E-1	2.874082E-1	2.686937E-1	2.804073E-1	2.632576E-1	2.842278E-1	2.689972E-1	2.930281E-1	2.910776E-1	2.727036E-1	2.705600E-1	2.889772E-1	2.702808E-1	2.370844E-1	2.923975E-1	3.030933E-1	2.592232E-1	2.865825E-1	2.880418E-1	2.993868E-1	2.775285E-1	2.705257E-1	2.646938E-1	2.549830E-1	2.669175E-1	2.731533E-1	2.466001E-1	2.613805E-1	2.655679E-1	2.682167E-1	2.873820E-1	2.626498E-1	2.688788E-1	2.585281E-1	2.712148E-1	2.875730E-1	2.558610E-1	2.887817E-1	2.815309E-1	2.588459E-1	2.913547E-1	2.599495E-1	2.911133E-1	2.682552E-1	2.647265E-1	2.341484E-1	2.904426E-1	2.859495E-1	2.725900E-1	2.870706E-1
2.858030E+2	3.601706E-1	3.490267E-1	3.298070E-1	3.223517E-1	3.898718E-1	3.581980E-1	3.520690E-1	3.448355E-1	3.527751E-1	3.545089E-1	3.174738E-1	3.234900E-1	3.306439E-1	3.457495E-1	3.480809E-1	3.186324E-1	3.406581E-1	3.267415E-1	3.587865E-1	3.281293E-1	3.389459E-1	3.581255E-1	3.390085E-1	3.355855E-1	3.602588E-1	3.466531E-1	3.622519E-1	3.414026E-1	3.655679E-1	3.293675E-1	3.540582E-1	3.458051E-1	3.513711E-1	3.311576E-1	3.400455E-1	3.388518E-1	3.526049E-1	3.567300E-1	3.309472E-1	3.333624E-1	3.279699E-1	3.323266E-1	3.355063E-1	3.548051E-1	3.653537E-1	3.422449E-1	3.484787E-1	3.354686E-1	3.361661E-1	3.511342E-1	3.362157E-1	3.393267E-1	3.583823E-1	3.369334E-1	3.398217E-1	3.380154E-1	3.223628E-1	3.783118E-1	3.510468E-1	3.375480E-1	3.264870E-1	3.644520E-1	3.581750E-1	3.425117E-1	3.471746E-1	3.345345E-1	3.456978E-1	3.496439E-1	3.286395E-1	3.603199E-1	3.484921E-1	3.191728E-1	3.699511E-1	3.517989E-1	3.507593E-1	3.328344E-1	3.373340E-1	3.222999E-1	3.729532E-1	3.353731E-1	3.588727E-1	3.431770E-1	3.763437E-1	3.551897E-1	3.544316E-1	3.416277E-1	3.489622E-1	3.369328E-1	3.579274E-1	3.348090E-1	3.212525E-1	3.459923E-1	3.236277E-1	3.416014E-1	3.576032E-1	3.237249E-1	3.518541E-1	3.446081E-1	3.301045E-1	3.554386E-1	3.642836E-1	3.436259E-1	3.704822E-1	3.526792E-1	3.581709E-1	3.166819E-1	3.355675E-1	3.314357E-1	3.275039E-1	3.534278E-1	3.329895E-1	3.448581E-1	3.256608E-1	3.179570E-1	3.465910E-1	3.331129E-1	3.729727E-1	3.517397E-1	3.379767E-1	3.425210E-1	3.340766E-1	3.405000E-1	3.551080E-1	3.537968E-1	3.531292E-1	3.500993E-1	3.422400E-1	3.436530E-1	3.299406E-1	3.716637E-1	3.453796E-1	3.472012E-1	3.582423E-1	3.578815E-1	3.500361E-1	3.502060E-1	3.694907E-1	3.371750E-1	3.432413E-1	3.408832E-1	3.417940E-1	3.372811E-1	3.763441E-1	3.689883E-1	3.432774E-1	3.357923E-1	3.477678E-1	3.585451E-1	3.575688E-1	3.354336E-1	3.729832E-1	3.491395E-1	3.586071E-1	3.387425E-1	3.536722E-1	3.689293E-1	3.519723E-1	3.775643E-1	3.518894E-1	3.510601E-1	3.482826E-1	3.468341E-1	3.530109E-1	3.755836E-1	3.451680E-1
2.860040E+2	4.994225E-1	5.006187E-1	4.808185E-1	5.013959E-1	4.957195E-1	5.333443E-1	5.079917E-1	5.035647E-1	5.281166E-1	5.118625E-1	5.204989E-1	4.952808E-1	5.312298E-1	5.035221E-1	4.990983E-1	5.106153E-1	5.227379E-1	5.058594E-1	4.831197E-1	5.061604E-1	4.877568E-1	5.044622E-1	5.007317E-1	5.059909E-1	4.915917E-1	5.245311E-1	5.187886E-1	4.824362E-1	4.973642E-1	5.099181E-1	5.145233E-1	4.876228E-1	5.137523E-1	4.965961E-1	5.341944E-1	5.368432E-1	4.971375E-1	4.857418E-1	5.169918E-1	5.105054E-1	4.939557E-1	5.340324E-1	5.301013E-1	5.104080E-1	5.169919E-1	5.262759E-1	5.163871E-1	4.932972E-1	4.773376E-1	5.136237E-1	5.187617E-1	5.569957E-1	5.106222E-1	4.953593E-1	5.221441E-1	4.802616E-1	5.057854E-1	4.850160E-1	4.981965E-1	5.265050E-1	5.312732E-1	5.384639E-1	4.879778E-1	5.160353E-1	5.294738E-1	5.052220E-1	5.163251E-1	5.161148E-1	5.118040E-1	5.010431E-1	5.078171E-1	4.997261E-1	4.980818E-1	5.330283E-1	4.913473E-1	5.107309E-1	5.191395E-1	5.483585E-1	5.221409E-1	5.108403E-1	4.883778E-1	5.231105E-1	5.131453E-1	5.075954E-1	5.204233E-1	5.016952E-1	5.092461E-1	5.059855E-1	5.215453E-1	5.238185E-1	5.282345E-1	5.082351E-1	5.161933E-1	5.128256E-1	4.697683E-1	5.298869E-1	5.411207E-1	5.292635E-1	5.066253E-1	5.222854E-1	4.792554E-1	5.130700E-1	4.958210E-1	5.225214E-1	5.079617E-1	5.091305E-1	4.815982E-1	5.105789E-1	5.247940E-1	5.286731E-1	5.265126E-1	4.876229E-1	5.288313E-1	5.086593E-1	4.763572E-1	5.269432E-1	5.328833E-1	5.115695E-1	4.858998E-1	4.861897E-1	5.238465E-1	5.410126E-1	5.602719E-1	5.450407E-1	4.968982E-1	4.912235E-1	5.369685E-1	5.359334E-1	5.053557E-1	4.888469E-1	5.041831E-1	5.229092E-1	5.086403E-1	5.398179E-1	5.058556E-1	5.190168E-1	4.979038E-1	4.935238E-1	4.835842E-1	5.509322E-1	4.940870E-1	4.932928E-1	5.063540E-1	5.192616E-1	5.324280E-1	4.731334E-1	5.075476E-1	5.209797E-1	5.201987E-1	4.792100E-1	4.976911E-1	5.375313E-1	4.929226E-1	5.260250E-1	5.238378E-1	5.117306E-1	5.174265E-1	5.430009E-1	4.996097E-1	5.051273E-1	5.429864E-1	5.401897E-1	5.257001E-1	5.368183E-1	5.221928E-1
2.862030E+2	8.107987E-1	7.587457E-1	7.610501E-1	7.630196E-1	7.741783E-1	7.673258E-1	7.145102E-1	7.438624E-1	7.920675E-1	7.581412E-1	7.278972E-1	7.282643E-1	7.485914E-1	7.252274E-1	7.498165E-1	7.696735E-1	8.012048E-1	7.536649E-1	7.673001E-1	7.839963E-1	7.494190E-1	7.475911E-1	7.302214E-1	7.693455E-1	8.054120E-1	7.691821E-1	7.555385E-1	7.288363E-1	7.125890E-1	7.842358E-1	7.766720E-1	7.124207E-1	7.514032E-1	7.795556E-1	7.551640E-1	7.826657E-1	7.515179E-1	7.264052E-1	7.493893E-1	7.671295E-1	7.674039E-1	7.715879E-1	7.675837E-1	7.579519E-1	7.842372E-1	7.676732E-1	7.672660E-1	7.487016E-1	7.685457E-1	7.842937E-1	7.194059E-1	8.377583E-1	7.516451E-1	7.881479E-1	8.018946E-1	7.685829E-1	7.699921E-1	7.701473E-1	7.805718E-1	7.943546E-1	7.497547E-1	7.875250E-1	7.660575E-1	7.430038E-1	7.624577E-1	7.717062E-1	7.704470E-1	7.329514E-1	7.642772E-1	7.838803E-1	7.718659E-1	7.358682E-1	7.857663E-1	7.696207E-1	7.923823E-1	7.535390E-1	7.447419E-1	7.839982E-1	7.327747E-1	7.517184E-1	7.699951E-1	7.855555E-1	7.632758E-1	7.464935E-1	7.681669E-1	7.200905E-1	7.281318E-1	7.394289E-1	7.779223E-1	7.364950E-1	7.909514E-1	7.631199E-1	7.210120E-1	7.591747E-1	7.873124E-1	7.513911E-1	7.457854E-1	7.943614E-1	7.551165E-1	7.807726E-1	7.709445E-1	7.546499E-1	7.516463E-1	7.957466E-1	7.760114E-1	7.783246E-1	7.251797E-1	7.439621E-1	7.341931E-1	7.898297E-1	7.279111E-1	7.760542E-1	7.612570E-1	7.409131E-1	7.324136E-1	7.741532E-1	7.832001E-1	7.863679E-1	7.817456E-1	7.934898E-1	7.414840E-1	7.889501E-1	7.833491E-1	7.778731E-1	7.747148E-1	7.986472E-1	7.470479E-1	7.786730E-1	7.746534E-1	7.469406E-1	8.149851E-1	7.648262E-1	7.402968E-1	7.525083E-1	7.671422E-1	7.740942E-1	7.711664E-1	7.602196E-1	7.743834E-1	7.664353E-1	7.758130E-1	7.103523E-1	7.430887E-1	7.743634E-1	7.133794E-1	7.708724E-1	7.886847E-1	7.770570E-1	7.957772E-1	7.804276E-1	7.843599E-1	7.859807E-1	7.772239E-1	7.597338E-1	7.825409E-1	7.623104E-1	7.805757E-1	7.366285E-1	7.763240E-1	7.782678E-1	7.687508E-1	7.827788E-1	7.686584E-1	7.476068E-1	7.477273E-1
2.864180E+2	8.396088E-1	8.181189E-1	8.080744E-1	8.500523E-1	9.049260E-1	8.292975E-1	7.926310E-1	8.026013E-1	8.244030E-1	8.248668E-1	8.165552E-1	8.066202E-1	7.977453E-1	7.902515E-1	8.330061E-1	8.447992E-1	8.652170E-1	8.036644E-1	7.901157E-1	8.099071E-1	8.551933E-1	7.983477E-1	8.449963E-1	8.661637E-1	8.228798E-1	8.586391E-1	8.400729E-1	7.932761E-1	8.574889E-1	8.243768E-1	8.063941E-1	8.028708E-1	8.122741E-1	7.959810E-1	9.009404E-1	8.441097E-1	8.164789E-1	7.810506E-1	8.287470E-1	7.917904E-1	8.059716E-1	8.206580E-1	7.987854E-1	8.603481E-1	8.250580E-1	7.851045E-1	8.312112E-1	8.347979E-1	8.142780E-1	8.305499E-1	8.321732E-1	8.175187E-1	7.811974E-1	8.281119E-1	7.799319E-1	8.438544E-1	8.227247E-1	7.844815E-1	8.216400E-1	8.647962E-1	8.811909E-1	8.519970E-1	8.229264E-1	8.474197E-1	8.626982E-1	8.053881E-1	8.068387E-1	8.193931E-1	8.531991E-1	8.620906E-1	8.330553E-1	8.120146E-1	8.391557E-1	8.277228E-1	8.107069E-1	8.621887E-1	8.148416E-1	8.737854E-1	8.300152E-1	8.219587E-1	8.078699E-1	8.341274E-1	8.059934E-1	8.358008E-1	8.473992E-1	7.981874E-1	7.906341E-1	8.209781E-1	8.469364E-1	8.291748E-1	8.302895E-1	8.147420E-1	8.298573E-1	8.270686E-1	8.039737E-1	8.402957E-1	8.278856E-1	8.664234E-1	8.332395E-1	8.402209E-1	8.069067E-1	8.136842E-1	8.283175E-1	8.030725E-1	8.094098E-1	8.351025E-1	8.013383E-1	8.194405E-1	8.205616E-1	8.392300E-1	8.337926E-1	8.310591E-1	8.302390E-1	8.122038E-1	8.179297E-1	8.754018E-1	8.562877E-1	7.995547E-1	8.083147E-1	8.726103E-1	8.136963E-1	8.650167E-1	8.541550E-1	7.982244E-1	8.405692E-1	8.620386E-1	8.314763E-1	8.671969E-1	8.383518E-1	8.305501E-1	7.953051E-1	8.027075E-1	8.075334E-1	8.274382E-1	8.427065E-1	8.159519E-1	8.188357E-1	8.413004E-1	8.444071E-1	7.744435E-1	8.387351E-1	8.419332E-1	8.256744E-1	8.439072E-1	8.067476E-1	8.380921E-1	8.198211E-1	8.345070E-1	8.243825E-1	8.453015E-1	8.279153E-1	8.281220E-1	8.513915E-1	8.620053E-1	8.274887E-1	8.642076E-1	8.587811E-1	7.948763E-1	8.261137E-1	8.583954E-1	7.845831E-1	8.362350E-1	8.686888E-1	8.734835E-1	8.177246E-1
2.866150E+2	8.408304E-1	8.095942E-1	8.326716E-1	8.156667E-1	8.727415E-1	8.379286E-1	8.087779E-1	8.365963E-1	8.802869E-1	7.996654E-1	8.096298E-1	8.142137E-1	8.335880E-1	8.035517E-1	8.340216E-1	8.210548E-1	8.548714E-1	8.192733E-1	7.941701E-1	8.144621E-1	8.085100E-1	8.323860E-1	8.316661E-1	8.480637E-1	8.357273E-1	8.277568E-1	8.684755E-1	8.519551E-1	8.252468E-1	8.078819E-1	8.302669E-1	8.201070E-1	8.281577E-1	7.947427E-1	8.113441E-1	8.414004E-1	8.547252E-1	8.052454E-1	8.572994E-1	8.222083E-1	8.416586E-1	8.472907E-1	8.406463E-1	8.657194E-1	8.845948E-1	8.509819E-1	8.449673E-1	8.455770E-1	8.058148E-1	8.447437E-1	8.397746E-1	8.661744E-1	7.768760E-1	8.473853E-1	8.283329E-1	8.339643E-1	7.914175E-1	8.457731E-1	8.171387E-1	8.752937E-1	8.533816E-1	8.384759E-1	8.496517E-1	8.259048E-1	8.646091E-1	8.092210E-1	8.219369E-1	8.306105E-1	8.406830E-1	8.350613E-1	8.547290E-1	8.724717E-1	8.487036E-1	8.334102E-1	8.449071E-1	8.272237E-1	8.041031E-1	8.397472E-1	8.623309E-1	8.466656E-1	8.539957E-1	8.438772E-1	8.439444E-1	8.423535E-1	8.442148E-1	7.982495E-1	8.166912E-1	8.574409E-1	8.543606E-1	8.015080E-1	7.847385E-1	8.161712E-1	8.203654E-1	8.067290E-1	7.895428E-1	8.302085E-1	8.343842E-1	8.588992E-1	8.240482E-1	8.663049E-1	8.364842E-1	8.394913E-1	8.431155E-1	8.255170E-1	8.178476E-1	8.253363E-1	8.140386E-1	8.493817E-1	8.571583E-1	8.851649E-1	8.338900E-1	8.117780E-1	8.197508E-1	8.358926E-1	8.218666E-1	8.286146E-1	8.181268E-1	8.451538E-1	8.349915E-1	8.120620E-1	8.240450E-1	8.248220E-1	8.074575E-1	7.923875E-1	8.003167E-1	8.785696E-1	8.373114E-1	8.227062E-1	8.363401E-1	8.803529E-1	8.318333E-1	8.417524E-1	8.211088E-1	8.125303E-1	8.445982E-1	8.364402E-1	8.404120E-1	8.251931E-1	8.166215E-1	8.327211E-1	8.381175E-1	8.549323E-1	8.433805E-1	8.346410E-1	8.561073E-1	8.209671E-1	8.419943E-1	8.515262E-1	8.555669E-1	8.312045E-1	8.472770E-1	8.331019E-1	8.542730E-1	8.482898E-1	8.225137E-1	8.214915E-1	8.369501E-1	8.509591E-1	8.127358E-1	8.162056E-1	8.444529E-1	8.452609E-1	8.755307E-1	8.010365E-1	8.164794E-1
2.868020E+2	9.877744E-1	9.423572E-1	9.770263E-1	1.001106E+0	1.016061E+0	9.655604E-1	9.677975E-1	9.693694E-1	1.025874E+0	9.592532E-1	9.727128E-1	9.624707E-1	9.859802E-1	9.323235E-1	9.967397E-1	9.524535E-1	9.376088E-1	9.430998E-1	9.946483E-1	9.399727E-1	9.875602E-1	9.632080E-1	9.678016E-1	9.393819E-1	9.497063E-1	9.557843E-1	9.680114E-1	9.345290E-1	9.950039E-1	9.778139E-1	9.886949E-1	9.328693E-1	9.525271E-1	9.963397E-1	9.899348E-1	1.003928E+0	9.894661E-1	9.536372E-1	9.569243E-1	9.510656E-1	1.012405E+0	9.793837E-1	9.556190E-1	9.823207E-1	9.250900E-1	9.718194E-1	9.725162E-1	9.210791E-1	9.870584E-1	9.714053E-1	9.654938E-1	9.873455E-1	9.440125E-1	9.444440E-1	9.422076E-1	9.671891E-1	9.633166E-1	9.365887E-1	9.951780E-1	9.950718E-1	9.740074E-1	9.985381E-1	1.001649E+0	9.980863E-1	9.902543E-1	9.358519E-1	9.823231E-1	9.448751E-1	9.740342E-1	9.894164E-1	9.834971E-1	9.774070E-1	9.779183E-1	9.984138E-1	9.805301E-1	9.745089E-1	9.607349E-1	9.629436E-1	1.011419E+0	9.805599E-1	9.867618E-1	9.557704E-1	9.676100E-1	9.708663E-1	1.029826E+0	9.804229E-1	9.658753E-1	9.820627E-1	9.919962E-1	9.700587E-1	1.005080E+0	9.535627E-1	9.953871E-1	9.636211E-1	9.839123E-1	9.834745E-1	9.267829E-1	9.426406E-1	1.023828E+0	1.011062E+0	9.863850E-1	9.122512E-1	9.973940E-1	9.640543E-1	9.753237E-1	1.036738E+0	1.028069E+0	9.696289E-1	1.017998E+0	1.030524E+0	9.560392E-1	9.648002E-1	9.416593E-1	9.732410E-1	9.422828E-1	9.828692E-1	9.444050E-1	9.563435E-1	9.269136E-1	1.011428E+0	9.464586E-1	9.416993E-1	9.908364E-1	9.673213E-1	9.678397E-1	9.699160E-1	9.951381E-1	9.708079E-1	9.206746E-1	9.973181E-1	9.744061E-1	9.456199E-1	1.000404E+0	9.493138E-1	9.579154E-1	9.778190E-1	9.794182E-1	9.687279E-1	9.500480E-1	9.815512E-1	9.730489E-1	9.467979E-1	1.046397E+0	9.736540E-1	9.738829E-1	9.796562E-1	9.757804E-1	9.784108E-1	9.748194E-1	9.916936E-1	9.716498E-1	9.863853E-1	9.525171E-1	1.019177E+0	1.004795E+0	9.575888E-1	9.574541E-1	9.559318E-1	9.619202E-1	1.064134E+0	9.512400E-1	9.426322E-1	9.665195E-1	9.726442E-1	9.940307E-1
2.870160E+2	8.329542E-1	8.137194E-1	8.146717E-1	8.424393E-1	8.097094E-1	8.136711E-1	8.087637E-1	8.180360E-1	8.124419E-1	8.298947E-1	7.935735E-1	8.089569E-1	8.101855E-1	7.815237E-1	8.105989E-1	8.197697E-1	8.289870E-1	7.692328E-1	8.089279E-1	8.198378E-1	8.572305E-1	7.996575E-1	7.936223E-1	8.247378E-1	8.257228E-1	8.028532E-1	8.557756E-1	8.110088E-1	7.919907E-1	8.014357E-1	7.737452E-1	7.962068E-1	7.987748E-1	8.090336E-1	8.244070E-1	8.378919E-1	8.354455E-1	8.128796E-1	8.259397E-1	8.444357E-1	8.168957E-1	7.832090E-1	8.183695E-1	7.824474E-1	8.620928E-1	8.519402E-1	8.115250E-1	7.913174E-1	8.198499E-1	8.110719E-1	8.476343E-1	8.731001E-1	8.063150E-1	8.749009E-1	8.322732E-1	7.854619E-1	8.129840E-1	8.251818E-1	8.428334E-1	8.454188E-1	8.077323E-1	8.494057E-1	8.550915E-1	8.234674E-1	7.953351E-1	7.945878E-1	8.196270E-1	8.084215E-1	8.008769E-1	8.334716E-1	8.067922E-1	8.188261E-1	8.012590E-1	8.174493E-1	8.108762E-1	7.655699E-1	8.121319E-1	8.338975E-1	8.128369E-1	8.010984E-1	8.362354E-1	8.010928E-1	8.443045E-1	8.108311E-1	8.450233E-1	8.065999E-1	7.984064E-1	8.151171E-1	8.030717E-1	7.875413E-1	8.478586E-1	8.156783E-1	8.036181E-1	8.146667E-1	8.554515E-1	8.377192E-1	8.269358E-1	8.137524E-1	7.955227E-1	8.620081E-1	8.652819E-1	8.163162E-1	7.893800E-1	7.932175E-1	8.327152E-1	8.197846E-1	8.365319E-1	7.869718E-1	8.381239E-1	8.202562E-1	8.109354E-1	8.224967E-1	8.092671E-1	7.785373E-1	8.230076E-1	8.497088E-1	8.158775E-1	8.028501E-1	8.567864E-1	8.212944E-1	8.332537E-1	8.724364E-1	8.320699E-1	8.076757E-1	8.216811E-1	7.993762E-1	8.141269E-1	8.147629E-1	7.972111E-1	8.305660E-1	8.496803E-1	8.145877E-1	8.384068E-1	8.078556E-1	8.255271E-1	8.313815E-1	7.775953E-1	8.096197E-1	8.442352E-1	8.149674E-1	7.841863E-1	8.618507E-1	8.089016E-1	7.817650E-1	8.160971E-1	7.995397E-1	8.399207E-1	8.063517E-1	8.570969E-1	8.092492E-1	8.161223E-1	8.345553E-1	8.202881E-1	8.391738E-1	7.894596E-1	8.434621E-1	8.146605E-1	8.300642E-1	8.242994E-1	8.330705E-1	8.199382E-1	8.222677E-1	8.440077E-1	8.062027E-1	8.173961E-1
2.872070E+2	7.566905E-1	7.166104E-1	7.064809E-1	6.890977E-1	7.458360E-1	7.269131E-1	7.188152E-1	7.337161E-1	7.586665E-1	7.312225E-1	7.136055E-1	7.023903E-1	6.668874E-1	7.085972E-1	7.118486E-1	7.492401E-1	7.076419E-1	6.877358E-1	7.279763E-1	7.152293E-1	7.525895E-1	7.025355E-1	7.396345E-1	7.002670E-1	7.212349E-1	7.062508E-1	7.148592E-1	6.979260E-1	7.285216E-1	7.442816E-1	7.204805E-1	7.022812E-1	6.992451E-1	6.705230E-1	6.891982E-1	7.266589E-1	7.329999E-1	7.435743E-1	7.371802E-1	7.627009E-1	7.356417E-1	7.298532E-1	7.124597E-1	7.348431E-1	7.287733E-1	7.149690E-1	7.617922E-1	7.058509E-1	6.921478E-1	7.015526E-1	7.078246E-1	7.113143E-1	6.812029E-1	7.200769E-1	6.982229E-1	6.901551E-1	7.513249E-1	6.773019E-1	7.323551E-1	7.175792E-1	7.577857E-1	7.153988E-1	7.204077E-1	7.144795E-1	7.629652E-1	7.125131E-1	7.332449E-1	7.340396E-1	7.433551E-1	7.471150E-1	7.169402E-1	6.782029E-1	7.377292E-1	7.244835E-1	7.096932E-1	7.216440E-1	7.087946E-1	7.774918E-1	7.566342E-1	7.214752E-1	7.110689E-1	7.121861E-1	7.403588E-1	7.136763E-1	7.595264E-1	7.530268E-1	7.113248E-1	7.909259E-1	7.430580E-1	6.978192E-1	7.265214E-1	7.373608E-1	7.433600E-1	6.761072E-1	7.192169E-1	7.254087E-1	7.339467E-1	7.439587E-1	7.068707E-1	7.480571E-1	7.500880E-1	7.464739E-1	7.425088E-1	7.378092E-1	7.241435E-1	7.092015E-1	7.428890E-1	7.410686E-1	7.386194E-1	7.455009E-1	7.374549E-1	7.609158E-1	7.431215E-1	7.386905E-1	7.239682E-1	7.431463E-1	7.169054E-1	6.688584E-1	7.485218E-1	7.317424E-1	7.413901E-1	7.004068E-1	7.534596E-1	7.333760E-1	7.375594E-1	7.324602E-1	7.995836E-1	7.304338E-1	7.317862E-1	8.032879E-1	7.624519E-1	7.230400E-1	7.583470E-1	7.473612E-1	7.370519E-1	7.331620E-1	7.473359E-1	7.108138E-1	7.348080E-1	7.286873E-1	7.173801E-1	7.319562E-1	7.553577E-1	7.221611E-1	6.918317E-1	7.163618E-1	7.332588E-1	6.990436E-1	7.524563E-1	7.042921E-1	7.642615E-1	7.510723E-1	7.544204E-1	7.453557E-1	7.495188E-1	7.490404E-1	7.311161E-1	7.225704E-1	7.352026E-1	7.491211E-1	7.432917E-1	6.958806E-1	7.379050E-1	7.685161E-1	6.963886E-1
2.874000E+2	6.471015E-1	5.766953E-1	6.194611E-1	6.249216E-1	6.460525E-1	6.307890E-1	6.147990E-1	6.353431E-1	6.189671E-1	6.369450E-1	6.122921E-1	5.893069E-1	6.436366E-1	5.768791E-1	6.195304E-1	6.168221E-1	6.063822E-1	5.962213E-1	6.501250E-1	6.213740E-1	6.128721E-1	6.003035E-1	5.927499E-1	6.112333E-1	6.307464E-1	6.049999E-1	6.349861E-1	6.192626E-1	6.357821E-1	6.228535E-1	6.224022E-1	6.295252E-1	6.093924E-1	6.110253E-1	6.461286E-1	6.545186E-1	5.916975E-1	5.967080E-1	5.968908E-1	6.422811E-1	6.207089E-1	6.224845E-1	5.862402E-1	6.148299E-1	6.009808E-1	6.258032E-1	6.262062E-1	6.317357E-1	6.263065E-1	6.232474E-1	6.196059E-1	6.236700E-1	6.034836E-1	6.341472E-1	6.295673E-1	6.145891E-1	6.184303E-1	6.323956E-1	6.503322E-1	6.183163E-1	6.018270E-1	6.470792E-1	6.491948E-1	6.101021E-1	6.456982E-1	6.409845E-1	6.187934E-1	6.407353E-1	6.143875E-1	6.644245E-1	6.005639E-1	6.195188E-1	6.397979E-1	6.156378E-1	5.931535E-1	5.944221E-1	5.837072E-1	6.382242E-1	6.435955E-1	6.445588E-1	6.481668E-1	6.177609E-1	6.482291E-1	6.069747E-1	6.707054E-1	6.138408E-1	6.258623E-1	5.868061E-1	6.615102E-1	6.030539E-1	6.395539E-1	6.197234E-1	6.316195E-1	6.465718E-1	6.236597E-1	6.496215E-1	6.257775E-1	6.342389E-1	6.477962E-1	6.067492E-1	6.682815E-1	6.389844E-1	6.525956E-1	6.240229E-1	6.149796E-1	6.250354E-1	6.160272E-1	6.180806E-1	5.746039E-1	6.170387E-1	6.458323E-1	6.364552E-1	6.355639E-1	6.255576E-1	5.864555E-1	6.231903E-1	6.001690E-1	6.434307E-1	6.147720E-1	6.084657E-1	6.368892E-1	6.012826E-1	6.367270E-1	6.357518E-1	6.359372E-1	6.462128E-1	6.495676E-1	6.423071E-1	5.850854E-1	6.142432E-1	6.413613E-1	6.042460E-1	6.412342E-1	6.242163E-1	6.249264E-1	6.026040E-1	6.049551E-1	6.526643E-1	6.137928E-1	6.405608E-1	6.172017E-1	5.992826E-1	6.339690E-1	6.166763E-1	6.166032E-1	6.229182E-1	6.322674E-1	6.284846E-1	6.569538E-1	6.183255E-1	6.171856E-1	6.212303E-1	6.161628E-1	6.332792E-1	6.288613E-1	6.405554E-1	6.223043E-1	6.391765E-1	6.409719E-1	6.291246E-1	6.274531E-1	6.235520E-1	6.593248E-1	6.060250E-1	6.258500E-1
2.876030E+2	5.383202E-1	4.949856E-1	4.819949E-1	5.435906E-1	5.451561E-1	5.144285E-1	5.204918E-1	5.349938E-1	5.251667E-1	5.029342E-1	5.190132E-1	5.354538E-1	5.265054E-1	5.046415E-1	5.286040E-1	5.327202E-1	5.660348E-1	5.233718E-1	5.356616E-1	5.216894E-1	5.387658E-1	5.192741E-1	4.982192E-1	5.369205E-1	5.400818E-1	5.368388E-1	5.234316E-1	5.207116E-1	5.342344E-1	5.126204E-1	5.343630E-1	5.116199E-1	5.319661E-1	5.244916E-1	4.898467E-1	5.273957E-1	5.387657E-1	4.996432E-1	5.363186E-1	5.277331E-1	5.170528E-1	5.040956E-1	4.930865E-1	5.215147E-1	5.328668E-1	5.249246E-1	5.075189E-1	5.212803E-1	5.146281E-1	5.304539E-1	5.475917E-1	5.182331E-1	5.005402E-1	5.501523E-1	5.074038E-1	5.164190E-1	5.260226E-1	5.385892E-1	5.344183E-1	5.175015E-1	5.457414E-1	5.367701E-1	5.162255E-1	5.516630E-1	5.171843E-1	4.929757E-1	5.151233E-1	5.365601E-1	5.289790E-1	5.530171E-1	5.392267E-1	5.183965E-1	5.393766E-1	5.394298E-1	5.189517E-1	5.247982E-1	5.246495E-1	5.230938E-1	5.399655E-1	5.318342E-1	5.135712E-1	5.221839E-1	5.725220E-1	5.243492E-1	5.088120E-1	5.595052E-1	5.347579E-1	5.144448E-1	5.640740E-1	4.789452E-1	5.547305E-1	5.478506E-1	5.035500E-1	5.222277E-1	5.451965E-1	5.264717E-1	5.189262E-1	5.426524E-1	5.108147E-1	5.464844E-1	5.360848E-1	5.125066E-1	5.504837E-1	5.439262E-1	5.241008E-1	5.325754E-1	5.131661E-1	5.071458E-1	5.450332E-1	5.461594E-1	5.478655E-1	5.342396E-1	5.039338E-1	5.042070E-1	5.340711E-1	5.216506E-1	5.462284E-1	4.867184E-1	5.563295E-1	5.169682E-1	5.334773E-1	5.227516E-1	5.310626E-1	5.032911E-1	5.272232E-1	5.460278E-1	5.234452E-1	4.943484E-1	5.068703E-1	5.016347E-1	5.195658E-1	5.098078E-1	5.593407E-1	5.374111E-1	5.159252E-1	5.212311E-1	5.063577E-1	5.403505E-1	5.554469E-1	5.490639E-1	5.318336E-1	5.491294E-1	5.579731E-1	5.302426E-1	5.178347E-1	4.896248E-1	5.307000E-1	5.557063E-1	5.369670E-1	4.699459E-1	5.217291E-1	5.655505E-1	5.249873E-1	5.402692E-1	5.171307E-1	5.650763E-1	5.346896E-1	5.291936E-1	5.475681E-1	5.499919E-1	5.603585E-1	5.524434E-1	5.360238E-1	5.456160E-1	5.386660E-1
2.878050E+2	4.712340E-1	4.136016E-1	4.319165E-1	4.241387E-1	4.528143E-1	4.221117E-1	4.173019E-1	4.458231E-1	4.409987E-1	4.225362E-1	4.563949E-1	4.277813E-1	4.324822E-1	4.371251E-1	4.407757E-1	4.258561E-1	4.519907E-1	4.642507E-1	4.150223E-1	4.712328E-1	4.455395E-1	4.344247E-1	4.275030E-1	4.186105E-1	4.291173E-1	4.386670E-1	4.575147E-1	4.261047E-1	4.442920E-1	4.272059E-1	4.473916E-1	4.699738E-1	4.283482E-1	4.445824E-1	4.701860E-1	4.632866E-1	4.520438E-1	4.345393E-1	4.526789E-1	4.615841E-1	4.274211E-1	4.308061E-1	4.419780E-1	4.474958E-1	4.672991E-1	4.414453E-1	4.706090E-1	4.398832E-1	4.246043E-1	4.606113E-1	4.535652E-1	4.690615E-1	4.348096E-1	4.470043E-1	3.967493E-1	4.471365E-1	4.332217E-1	4.150026E-1	4.444138E-1	4.354129E-1	4.283486E-1	4.463668E-1	4.358147E-1	4.253725E-1	4.404148E-1	4.205088E-1	4.274974E-1	4.551069E-1	4.372789E-1	4.640238E-1	4.278948E-1	4.446022E-1	4.548507E-1	4.575130E-1	4.194786E-1	4.635918E-1	4.347695E-1	4.319937E-1	4.379436E-1	4.788466E-1	4.600165E-1	4.143425E-1	4.547944E-1	4.649558E-1	4.559687E-1	4.334034E-1	4.347886E-1	4.233173E-1	4.571554E-1	4.224848E-1	4.681931E-1	4.024808E-1	4.515444E-1	4.411449E-1	4.508362E-1	4.333577E-1	4.393647E-1	4.275438E-1	4.105976E-1	4.677180E-1	4.448655E-1	4.449000E-1	4.372386E-1	4.198378E-1	4.046494E-1	4.543615E-1	4.622412E-1	4.209629E-1	4.277132E-1	4.434620E-1	4.442304E-1	4.458305E-1	4.522110E-1	4.348970E-1	4.058134E-1	4.619434E-1	4.485982E-1	4.459981E-1	4.726801E-1	4.475613E-1	4.388854E-1	4.416088E-1	4.709721E-1	4.545581E-1	4.505544E-1	4.368888E-1	4.516680E-1	4.490173E-1	4.362314E-1	4.416412E-1	4.172764E-1	4.521722E-1	4.615382E-1	4.495857E-1	4.385036E-1	4.251129E-1	4.247356E-1	4.488349E-1	4.480519E-1	4.664705E-1	4.192922E-1	4.291980E-1	5.003218E-1	4.338053E-1	4.611668E-1	4.419155E-1	4.719370E-1	4.543764E-1	4.488653E-1	4.717211E-1	4.621243E-1	4.568729E-1	4.558612E-1	4.344824E-1	4.777696E-1	4.412403E-1	4.665271E-1	4.349304E-1	4.463748E-1	4.464115E-1	4.318646E-1	4.510928E-1	4.498367E-1	4.458532E-1	4.899321E-1
2.880020E+2	4.363825E-1	4.156086E-1	4.173720E-1	4.574059E-1	4.387034E-1	4.116353E-1	3.902039E-1	4.378113E-1	4.703254E-1	4.421537E-1	4.208362E-1	4.330951E-1	4.093767E-1	3.990504E-1	4.304832E-1	4.398176E-1	4.248438E-1	3.937082E-1	4.636154E-1	4.243054E-1	4.254366E-1	4.496156E-1	4.126758E-1	4.322206E-1	4.341694E-1	4.412705E-1	4.385941E-1	4.152905E-1	4.352469E-1	4.271076E-1	4.654062E-1	4.110289E-1	4.448017E-1	4.171970E-1	4.270626E-1	4.221646E-1	4.262136E-1	4.069445E-1	4.155762E-1	4.287665E-1	4.084520E-1	4.106805E-1	4.078602E-1	4.316251E-1	4.196652E-1	4.301401E-1	4.380818E-1	4.297708E-1	3.853970E-1	4.255899E-1	4.570127E-1	4.385822E-1	4.242089E-1	4.219335E-1	4.187122E-1	4.458503E-1	4.619027E-1	4.208189E-1	4.253139E-1	4.279728E-1	4.275737E-1	4.189967E-1	4.404532E-1	4.269337E-1	4.340314E-1	4.087387E-1	4.485206E-1	4.219859E-1	4.636927E-1	4.329913E-1	4.402548E-1	4.225029E-1	4.384951E-1	4.063729E-1	3.960502E-1	4.466710E-1	4.138199E-1	4.599679E-1	4.587860E-1	4.238847E-1	4.452018E-1	4.227399E-1	4.434024E-1	4.500594E-1	4.534648E-1	4.246683E-1	4.434189E-1	4.422211E-1	4.333079E-1	4.274807E-1	4.271236E-1	4.367781E-1	4.282393E-1	4.371746E-1	4.439540E-1	4.069504E-1	4.448110E-1	4.178598E-1	4.007397E-1	4.006070E-1	4.503713E-1	4.222242E-1	4.541567E-1	4.482493E-1	4.286107E-1	4.435736E-1	4.363308E-1	4.154448E-1	4.150820E-1	4.267262E-1	4.366217E-1	4.119738E-1	4.147674E-1	4.237492E-1	4.085032E-1	4.345060E-1	4.255454E-1	4.408905E-1	4.311525E-1	4.310374E-1	4.465701E-1	4.464381E-1	4.359183E-1	4.452746E-1	4.045838E-1	4.350659E-1	4.321109E-1	4.208889E-1	4.228015E-1	3.950788E-1	4.592839E-1	4.321534E-1	4.317373E-1	4.251075E-1	4.352521E-1	4.282438E-1	4.449591E-1	4.247394E-1	4.519203E-1	4.464878E-1	4.286046E-1	4.590831E-1	4.533865E-1	4.449580E-1	4.849892E-1	4.088341E-1	4.585322E-1	4.628689E-1	4.323369E-1	4.556671E-1	4.172781E-1	4.490596E-1	4.282569E-1	4.200074E-1	4.323701E-1	4.417237E-1	4.407139E-1	4.416858E-1	4.331253E-1	4.407019E-1	4.108208E-1	4.297304E-1	4.704319E-1	4.279974E-1	3.954899E-1
2.882230E+2	5.658499E-1	5.502775E-1	5.540680E-1	5.556278E-1	5.518004E-1	5.541770E-1	5.328085E-1	5.530518E-1	5.375657E-1	5.487015E-1	5.431225E-1	5.374401E-1	5.812442E-1	5.684043E-1	5.625730E-1	5.689001E-1	5.581572E-1	5.362439E-1	5.677583E-1	5.617642E-1	5.752316E-1	5.695415E-1	5.782537E-1	5.399495E-1	5.492924E-1	5.511282E-1	6.105349E-1	5.447292E-1	6.049765E-1	5.651669E-1	5.744862E-1	5.274247E-1	5.447378E-1	5.467681E-1	5.591390E-1	5.736053E-1	5.450668E-1	5.524150E-1	5.361354E-1	5.632630E-1	5.802386E-1	5.355507E-1	5.570321E-1	5.503109E-1	6.135693E-1	5.668329E-1	5.653195E-1	5.652337E-1	5.729513E-1	5.775312E-1	5.358654E-1	5.781177E-1	5.559192E-1	5.634167E-1	5.903106E-1	5.556506E-1	5.715150E-1	5.516323E-1	5.568137E-1	5.546514E-1	5.780177E-1	5.573290E-1	5.593837E-1	5.396440E-1	5.671895E-1	5.428812E-1	5.807404E-1	5.557415E-1	5.831278E-1	6.129586E-1	5.643960E-1	5.590576E-1	6.172421E-1	5.778868E-1	5.657279E-1	5.561670E-1	5.752423E-1	5.860011E-1	5.727471E-1	5.668458E-1	5.591908E-1	5.793426E-1	5.597872E-1	5.412820E-1	5.486717E-1	5.598065E-1	5.479469E-1	5.448706E-1	5.900006E-1	5.690017E-1	5.474771E-1	5.520233E-1	5.881318E-1	5.632642E-1	5.537663E-1	5.520490E-1	5.687373E-1	5.973857E-1	5.595235E-1	5.723005E-1	5.423121E-1	5.542724E-1	5.691746E-1	5.179622E-1	5.715826E-1	5.486052E-1	5.541665E-1	5.280665E-1	5.553246E-1	6.357621E-1	5.539976E-1	5.641843E-1	5.553113E-1	5.429189E-1	5.854066E-1	5.918535E-1	5.648403E-1	5.908105E-1	5.743323E-1	5.735649E-1	5.609401E-1	5.616093E-1	5.579031E-1	5.437496E-1	5.542955E-1	5.769406E-1	5.567356E-1	5.877484E-1	5.417008E-1	5.499851E-1	5.900029E-1	5.818937E-1	5.772203E-1	5.798052E-1	5.462036E-1	5.403345E-1	5.747193E-1	5.498371E-1	5.537836E-1	5.495746E-1	5.852861E-1	5.753385E-1	6.043380E-1	6.059798E-1	5.622704E-1	5.806969E-1	5.768105E-1	5.525367E-1	5.609723E-1	5.639971E-1	5.620890E-1	5.838608E-1	5.742877E-1	5.910925E-1	5.525993E-1	5.922170E-1	5.515622E-1	5.831732E-1	5.938785E-1	5.767720E-1	5.673649E-1	5.895053E-1	5.963587E-1	5.666531E-1	5.875328E-1
2.884070E+2	6.580064E-1	6.824678E-1	6.782234E-1	6.977909E-1	7.074501E-1	7.075481E-1	6.747001E-1	6.896074E-1	6.646177E-1	6.752166E-1	6.810280E-1	6.843516E-1	6.977766E-1	6.588341E-1	6.780671E-1	7.239816E-1	6.718449E-1	7.046788E-1	6.703144E-1	7.321831E-1	6.771724E-1	7.164645E-1	6.896055E-1	6.981770E-1	6.407193E-1	7.119082E-1	6.903726E-1	6.981946E-1	6.777598E-1	6.730455E-1	6.864450E-1	6.654732E-1	6.926785E-1	6.716474E-1	6.957566E-1	7.130831E-1	7.079541E-1	6.588098E-1	6.907819E-1	6.764793E-1	7.199389E-1	6.849309E-1	6.931664E-1	6.911968E-1	6.734737E-1	7.089323E-1	6.732584E-1	7.322421E-1	6.558903E-1	6.428288E-1	6.628954E-1	7.237787E-1	6.820945E-1	7.039425E-1	6.925913E-1	7.026334E-1	7.112272E-1	6.436253E-1	6.624411E-1	7.091274E-1	7.193493E-1	7.160004E-1	6.740560E-1	6.807401E-1	7.119458E-1	7.071079E-1	6.913169E-1	6.699811E-1	7.233371E-1	7.314088E-1	7.178772E-1	6.580052E-1	6.989334E-1	6.967685E-1	7.023488E-1	6.961596E-1	6.607072E-1	7.134463E-1	6.848674E-1	6.784326E-1	6.586473E-1	7.052199E-1	7.250860E-1	6.898362E-1	6.892523E-1	7.024913E-1	6.848413E-1	6.970428E-1	7.094952E-1	6.743383E-1	6.848550E-1	6.849035E-1	6.794136E-1	6.581971E-1	6.680375E-1	6.631452E-1	6.804684E-1	7.046980E-1	7.026647E-1	6.980898E-1	6.948443E-1	6.885108E-1	7.237287E-1	6.757862E-1	7.095530E-1	7.162524E-1	6.849533E-1	6.352545E-1	6.956444E-1	6.998206E-1	6.849350E-1	7.030835E-1	6.737965E-1	7.068185E-1	6.453648E-1	7.199852E-1	6.555373E-1	6.720219E-1	6.873614E-1	7.313416E-1	6.961058E-1	6.814105E-1	7.142199E-1	6.748879E-1	6.836295E-1	6.878547E-1	7.328256E-1	6.868190E-1	7.118814E-1	6.832108E-1	6.839528E-1	7.209570E-1	6.842250E-1	6.702220E-1	7.120236E-1	6.831014E-1	6.865893E-1	7.048736E-1	6.872518E-1	6.763308E-1	6.874491E-1	6.963307E-1	6.849484E-1	6.627169E-1	6.841798E-1	7.237131E-1	7.012247E-1	6.921679E-1	7.404798E-1	6.721178E-1	7.197560E-1	6.929782E-1	7.195777E-1	7.428645E-1	7.135443E-1	7.077458E-1	7.249570E-1	7.034326E-1	7.062112E-1	7.116076E-1	6.856031E-1	7.149326E-1	6.845952E-1	6.176608E-1	6.841251E-1
2.886030E+2	8.202397E-1	7.934730E-1	8.308294E-1	8.153735E-1	8.567332E-1	8.400676E-1	7.687480E-1	7.919062E-1	8.190290E-1	7.751396E-1	8.206063E-1	8.198412E-1	8.278676E-1	7.547994E-1	8.028658E-1	8.442864E-1	8.178885E-1	7.730060E-1	8.161722E-1	8.612220E-1	8.456180E-1	7.908686E-1	8.185658E-1	8.257537E-1	8.163215E-1	8.071205E-1	7.885196E-1	7.979410E-1	8.229302E-1	8.066699E-1	8.152683E-1	8.142041E-1	8.042460E-1	8.198306E-1	8.008404E-1	8.816878E-1	8.011193E-1	7.616477E-1	7.992415E-1	8.040726E-1	7.728850E-1	8.159299E-1	7.731996E-1	8.141052E-1	8.489686E-1	8.210343E-1	8.248888E-1	7.873269E-1	8.014537E-1	8.040312E-1	8.421557E-1	8.352994E-1	7.778403E-1	7.795609E-1	8.333457E-1	8.505358E-1	7.645167E-1	8.017475E-1	7.940145E-1	8.305787E-1	8.127723E-1	8.242559E-1	8.261245E-1	8.228256E-1	8.362152E-1	8.056913E-1	8.236847E-1	7.762088E-1	7.901727E-1	8.233544E-1	8.369704E-1	7.784665E-1	8.508098E-1	7.670864E-1	8.285578E-1	8.152779E-1	7.765160E-1	8.116420E-1	8.825807E-1	8.524837E-1	8.124294E-1	8.150744E-1	8.181242E-1	8.264446E-1	8.595424E-1	8.238772E-1	7.756255E-1	8.017748E-1	8.434519E-1	7.815181E-1	7.798004E-1	8.081009E-1	7.932294E-1	8.006772E-1	8.125907E-1	8.298227E-1	7.816274E-1	8.157370E-1	8.165093E-1	8.668298E-1	7.959642E-1	8.004365E-1	8.092905E-1	8.143004E-1	8.070451E-1	8.472683E-1	8.062601E-1	7.741491E-1	8.328547E-1	8.391696E-1	8.230078E-1	7.933762E-1	8.072010E-1	8.023322E-1	8.133060E-1	8.492695E-1	8.111179E-1	8.109171E-1	8.126005E-1	8.052431E-1	8.020431E-1	7.833085E-1	8.234885E-1	8.058165E-1	8.022575E-1	8.389106E-1	7.963410E-1	7.832186E-1	8.141773E-1	8.067224E-1	8.376817E-1	8.212890E-1	8.054030E-1	8.109352E-1	7.839628E-1	8.329668E-1	8.100362E-1	8.294075E-1	8.122646E-1	7.956450E-1	8.167377E-1	8.169710E-1	8.126126E-1	8.220251E-1	8.249532E-1	8.038181E-1	8.105070E-1	8.078811E-1	8.385875E-1	8.170485E-1	8.285793E-1	8.087481E-1	7.922223E-1	8.414976E-1	8.381787E-1	8.188789E-1	8.283009E-1	7.902898E-1	8.401236E-1	8.006397E-1	8.115773E-1	8.028144E-1	8.098375E-1	8.096267E-1	7.609538E-1
2.887980E+2	8.055110E-1	7.172224E-1	7.214554E-1	8.372237E-1	7.917642E-1	7.546268E-1	7.629739E-1	7.699906E-1	7.911032E-1	7.968664E-1	7.770534E-1	8.101427E-1	7.366122E-1	7.562363E-1	7.858272E-1	7.689377E-1	7.968626E-1	7.531944E-1	7.747147E-1	7.948808E-1	7.871724E-1	7.835711E-1	8.111669E-1	8.196279E-1	7.744244E-1	7.603390E-1	8.245166E-1	7.848007E-1	8.294966E-1	7.479863E-1	8.041508E-1	7.850515E-1	8.183085E-1	7.381865E-1	7.548504E-1	8.115760E-1	7.746995E-1	8.033471E-1	7.611577E-1	7.588189E-1	8.044905E-1	7.431643E-1	7.625902E-1	8.135722E-1	8.167968E-1	8.181450E-1	7.551025E-1	7.960762E-1	7.850589E-1	7.292795E-1	7.840419E-1	8.141495E-1	7.781288E-1	7.966301E-1	8.224232E-1	7.484352E-1	7.903830E-1	7.204544E-1	7.558609E-1	7.888913E-1	7.796018E-1	7.987667E-1	7.622048E-1	7.776823E-1	8.165598E-1	8.021252E-1	7.589961E-1	8.415453E-1	7.924239E-1	8.389610E-1	7.719118E-1	7.918883E-1	7.547366E-1	8.110187E-1	7.935304E-1	7.562206E-1	7.616217E-1	7.911040E-1	7.889340E-1	7.734101E-1	8.155247E-1	7.821981E-1	7.768606E-1	7.768970E-1	7.746145E-1	7.753985E-1	8.346836E-1	7.892291E-1	8.231694E-1	7.589945E-1	7.964405E-1	7.962271E-1	8.170506E-1	7.799638E-1	7.825240E-1	7.742854E-1	7.756841E-1	7.909499E-1	7.758802E-1	7.602564E-1	7.802707E-1	7.414051E-1	7.964129E-1	7.904925E-1	8.048082E-1	8.067808E-1	8.295106E-1	7.943412E-1	8.089738E-1	7.948300E-1	7.512054E-1	8.073241E-1	7.581454E-1	7.653906E-1	7.536212E-1	8.298015E-1	7.883316E-1	7.972732E-1	8.088774E-1	8.044016E-1	7.786642E-1	7.931347E-1	7.658283E-1	7.949032E-1	7.500097E-1	7.999769E-1	8.018877E-1	8.006938E-1	7.538829E-1	7.709974E-1	7.774164E-1	7.761958E-1	7.786115E-1	7.665574E-1	7.953620E-1	7.869120E-1	7.996911E-1	7.733887E-1	8.045576E-1	8.121654E-1	7.597341E-1	7.834812E-1	8.390268E-1	7.736729E-1	8.112202E-1	7.660400E-1	7.769231E-1	8.049631E-1	7.825802E-1	7.655851E-1	7.724397E-1	7.894936E-1	8.000178E-1	8.075860E-1	7.494524E-1	7.527992E-1	7.818002E-1	7.703851E-1	7.769585E-1	7.818197E-1	8.113800E-1	7.790949E-1	7.951284E-1	7.975631E-1	8.012997E-1
2.890060E+2	7.689756E-1	7.103233E-1	7.688637E-1	7.298183E-1	7.608822E-1	7.579191E-1	7.164596E-1	7.382048E-1	7.551062E-1	7.202250E-1	7.271174E-1	7.238328E-1	7.153619E-1	7.071584E-1	7.354459E-1	7.414291E-1	7.634738E-1	7.212213E-1	7.542160E-1	7.621141E-1	7.817818E-1	7.128504E-1	7.548886E-1	7.435001E-1	7.380615E-1	7.226172E-1	7.525180E-1	7.057300E-1	7.497791E-1	7.014096E-1	7.646587E-1	7.005130E-1	7.524956E-1	7.343175E-1	7.269776E-1	7.345369E-1	7.473516E-1	7.419982E-1	7.493885E-1	7.588687E-1	7.522868E-1	6.998654E-1	7.377517E-1	7.556482E-1	7.407293E-1	7.260718E-1	7.176568E-1	7.613679E-1	7.223341E-1	7.602764E-1	7.340953E-1	7.445567E-1	7.111432E-1	7.363487E-1	7.481695E-1	7.211681E-1	7.540987E-1	7.526379E-1	7.357807E-1	7.369093E-1	7.788620E-1	7.748134E-1	7.526296E-1	7.425761E-1	7.283235E-1	7.301815E-1	7.304864E-1	7.228521E-1	7.391365E-1	7.514559E-1	7.266154E-1	7.362384E-1	7.942235E-1	7.479832E-1	7.353735E-1	7.430761E-1	6.983352E-1	7.522472E-1	7.523084E-1	7.360360E-1	7.687630E-1	7.476066E-1	7.436387E-1	7.754729E-1	7.422006E-1	7.779261E-1	7.546652E-1	7.504872E-1	6.840345E-1	7.623755E-1	7.315148E-1	7.397941E-1	7.422360E-1	7.368230E-1	7.411595E-1	7.294947E-1	7.394062E-1	7.074219E-1	7.115966E-1	7.828996E-1	7.687467E-1	7.355681E-1	7.545046E-1	7.690858E-1	7.606958E-1	7.565721E-1	7.548054E-1	7.609337E-1	7.336948E-1	7.565305E-1	7.610654E-1	7.279998E-1	7.570594E-1	7.199112E-1	7.238036E-1	7.676878E-1	7.910220E-1	7.619728E-1	7.591844E-1	7.596692E-1	7.192193E-1	7.505426E-1	7.514755E-1	7.641719E-1	7.130625E-1	7.471899E-1	7.700733E-1	7.471053E-1	7.351989E-1	7.260503E-1	7.400072E-1	7.476981E-1	7.532871E-1	7.570639E-1	7.456207E-1	7.430924E-1	7.129819E-1	7.551320E-1	6.932311E-1	7.453389E-1	7.290451E-1	7.181839E-1	7.519343E-1	7.496340E-1	8.024002E-1	7.611094E-1	7.652567E-1	7.595267E-1	7.403303E-1	7.705012E-1	7.417784E-1	7.452717E-1	7.389852E-1	7.649302E-1	7.414082E-1	7.208139E-1	7.405456E-1	7.298859E-1	7.737158E-1	7.483019E-1	7.380073E-1	7.445029E-1	8.048727E-1	7.796031E-1	7.754970E-1
2.892040E+2	6.664407E-1	6.831644E-1	6.766936E-1	7.109667E-1	7.232711E-1	6.759189E-1	6.563716E-1	7.135110E-1	6.978891E-1	6.481455E-1	7.233469E-1	6.723461E-1	7.065527E-1	6.723747E-1	6.927822E-1	7.315043E-1	7.181281E-1	6.799198E-1	7.041520E-1	6.867668E-1	7.444437E-1	6.901422E-1	7.047418E-1	6.890735E-1	6.606377E-1	7.010946E-1	6.763575E-1	6.837695E-1	7.253510E-1	7.189964E-1	6.951346E-1	6.834937E-1	6.886999E-1	6.831339E-1	6.970323E-1	7.331843E-1	6.705510E-1	6.537143E-1	6.886595E-1	7.228677E-1	7.017718E-1	6.687810E-1	6.424753E-1	7.084721E-1	6.772362E-1	6.777586E-1	7.099219E-1	6.807802E-1	6.508211E-1	6.887980E-1	6.773062E-1	7.352793E-1	6.704737E-1	7.251082E-1	6.764232E-1	6.750947E-1	6.600356E-1	6.755017E-1	7.237853E-1	7.097001E-1	6.969010E-1	7.138073E-1	7.182573E-1	6.530520E-1	7.110131E-1	7.046611E-1	6.606853E-1	6.835235E-1	6.840459E-1	7.082172E-1	6.827264E-1	6.971202E-1	7.349257E-1	6.923612E-1	6.834463E-1	6.710096E-1	6.947597E-1	7.056054E-1	6.717463E-1	7.097145E-1	7.031995E-1	6.680306E-1	6.900059E-1	7.169226E-1	6.764996E-1	6.850483E-1	6.933613E-1	6.764500E-1	7.327121E-1	6.719126E-1	6.883671E-1	6.972855E-1	7.090003E-1	6.464699E-1	6.822548E-1	7.131457E-1	6.643033E-1	6.883579E-1	6.975128E-1	7.197059E-1	6.802859E-1	6.912150E-1	6.864340E-1	6.851469E-1	6.510371E-1	6.865795E-1	7.027747E-1	6.905387E-1	6.958024E-1	7.068792E-1	7.052549E-1	6.651425E-1	6.875570E-1	6.535580E-1	6.946466E-1	6.999554E-1	6.764022E-1	6.846325E-1	6.928663E-1	7.048273E-1	6.942777E-1	6.845825E-1	6.995047E-1	7.407430E-1	7.364234E-1	6.949815E-1	7.122162E-1	7.126869E-1	6.755737E-1	6.890215E-1	7.398925E-1	6.737427E-1	6.684058E-1	7.130849E-1	6.874743E-1	7.072237E-1	7.293900E-1	6.821942E-1	6.653935E-1	6.927211E-1	7.486642E-1	6.981700E-1	7.055907E-1	6.960229E-1	7.212010E-1	6.941120E-1	6.932729E-1	7.002582E-1	6.888565E-1	6.824318E-1	6.767395E-1	7.049786E-1	6.699832E-1	6.889971E-1	6.874819E-1	6.728651E-1	6.978622E-1	7.143048E-1	7.172094E-1	6.854502E-1	7.036761E-1	6.518424E-1	7.010604E-1	7.436375E-1	7.540900E-1
2.894020E+2	6.303291E-1	6.224928E-1	6.242741E-1	6.331130E-1	6.557947E-1	6.354064E-1	6.072924E-1	5.977882E-1	6.490305E-1	5.977818E-1	6.094309E-1	6.244803E-1	6.430980E-1	6.173557E-1	6.147888E-1	6.428719E-1	6.368935E-1	6.084670E-1	6.184525E-1	6.089789E-1	6.131204E-1	6.097337E-1	6.087404E-1	6.456186E-1	6.147846E-1	6.209975E-1	6.316855E-1	5.958387E-1	6.090646E-1	6.289149E-1	6.378410E-1	6.424219E-1	6.331798E-1	6.165461E-1	6.310489E-1	6.618506E-1	6.303036E-1	6.255404E-1	6.188395E-1	6.352670E-1	6.097245E-1	6.538447E-1	5.912580E-1	6.138345E-1	6.137091E-1	5.965144E-1	6.444162E-1	6.373800E-1	6.317244E-1	6.380873E-1	6.347205E-1	6.564659E-1	5.864922E-1	6.251673E-1	6.247991E-1	6.424573E-1	6.190660E-1	6.214784E-1	6.205809E-1	6.543913E-1	6.234549E-1	6.438602E-1	6.124525E-1	6.494171E-1	6.498969E-1	6.487797E-1	6.156294E-1	5.796654E-1	6.507440E-1	6.193123E-1	6.095926E-1	6.496232E-1	6.589150E-1	6.043466E-1	6.247877E-1	6.417950E-1	5.911225E-1	6.192315E-1	6.309255E-1	6.466896E-1	6.180245E-1	6.454741E-1	6.315998E-1	6.350165E-1	6.541607E-1	6.336000E-1	6.313409E-1	6.549238E-1	6.482614E-1	6.147139E-1	6.007144E-1	6.221292E-1	6.319661E-1	6.325649E-1	6.270266E-1	6.583883E-1	6.482125E-1	6.230943E-1	6.431600E-1	6.402008E-1	6.407338E-1	5.928391E-1	6.352918E-1	6.520434E-1	6.206897E-1	6.438494E-1	6.529679E-1	6.459300E-1	6.277583E-1	6.478301E-1	6.226927E-1	5.834241E-1	5.894683E-1	6.298175E-1	5.934982E-1	6.361086E-1	6.148246E-1	6.297381E-1	6.573887E-1	6.326919E-1	6.058389E-1	6.331754E-1	6.375998E-1	6.261533E-1	6.383659E-1	6.140578E-1	6.353216E-1	6.480520E-1	5.832492E-1	6.490870E-1	6.353571E-1	6.407252E-1	6.466263E-1	6.598006E-1	6.141924E-1	6.196259E-1	6.155120E-1	6.234807E-1	6.276255E-1	6.784571E-1	6.546314E-1	6.002360E-1	6.432912E-1	6.487570E-1	6.112211E-1	5.841998E-1	6.482217E-1	6.244104E-1	6.140452E-1	6.099769E-1	6.670942E-1	6.616577E-1	6.206221E-1	6.276787E-1	6.754174E-1	6.587799E-1	6.749746E-1	6.254709E-1	6.575057E-1	6.269964E-1	6.263011E-1	6.133192E-1	6.358521E-1	6.043140E-1	6.033870E-1
2.896060E+2	5.275495E-1	5.234230E-1	5.192703E-1	5.615122E-1	5.555225E-1	5.323367E-1	5.450003E-1	5.412648E-1	5.489614E-1	6.032862E-1	5.299217E-1	5.564331E-1	5.169046E-1	5.456863E-1	5.531507E-1	5.361535E-1	5.536857E-1	5.585055E-1	5.465899E-1	5.579386E-1	5.593622E-1	5.358275E-1	5.715305E-1	5.691970E-1	5.351467E-1	5.200463E-1	5.553707E-1	5.545821E-1	5.325791E-1	5.589773E-1	5.452604E-1	5.713255E-1	5.560962E-1	5.265651E-1	5.517889E-1	5.621692E-1	5.357705E-1	5.292506E-1	5.608764E-1	5.676762E-1	5.573591E-1	5.235431E-1	5.003118E-1	5.406108E-1	5.510871E-1	5.659186E-1	5.463035E-1	5.558937E-1	5.428889E-1	5.433926E-1	5.722781E-1	6.154004E-1	5.609545E-1	5.399553E-1	5.394712E-1	5.561016E-1	5.595447E-1	5.252762E-1	5.679919E-1	5.613367E-1	5.796096E-1	5.456660E-1	5.347259E-1	5.422394E-1	5.297107E-1	5.423488E-1	5.695485E-1	5.670410E-1	5.528434E-1	5.471727E-1	5.440013E-1	5.635764E-1	5.774733E-1	5.809886E-1	5.612519E-1	5.460406E-1	5.655396E-1	5.885574E-1	5.830178E-1	5.382153E-1	5.610313E-1	5.486887E-1	5.760556E-1	5.388855E-1	5.793777E-1	5.523613E-1	5.547991E-1	5.602958E-1	5.509946E-1	5.394874E-1	5.367220E-1	5.590819E-1	5.307038E-1	5.310787E-1	5.457511E-1	5.873153E-1	5.762149E-1	5.755331E-1	5.455522E-1	5.584912E-1	5.715644E-1	6.265383E-1	5.549823E-1	5.611810E-1	5.707750E-1	5.401908E-1	5.692919E-1	5.352165E-1	5.554904E-1	5.740486E-1	5.339161E-1	5.697726E-1	5.907381E-1	5.351431E-1	5.395187E-1	5.917638E-1	5.782099E-1	5.074736E-1	5.580519E-1	5.456830E-1	5.384793E-1	5.698812E-1	5.941567E-1	5.860395E-1	5.738624E-1	5.362732E-1	5.262407E-1	5.513081E-1	5.583276E-1	5.406459E-1	5.563155E-1	5.708906E-1	5.186452E-1	5.640584E-1	5.546938E-1	5.862197E-1	5.692261E-1	5.611909E-1	5.389414E-1	5.545719E-1	5.480000E-1	5.666823E-1	5.614390E-1	5.613523E-1	5.550952E-1	5.285106E-1	5.780307E-1	5.816781E-1	5.770559E-1	5.812120E-1	5.779827E-1	5.240815E-1	6.031796E-1	5.485162E-1	5.630316E-1	5.520590E-1	5.502523E-1	5.553364E-1	5.969497E-1	5.818096E-1	5.516073E-1	5.953691E-1	5.683056E-1	5.583555E-1	5.845118E-1
2.898020E+2	4.322706E-1	4.796570E-1	4.324669E-1	4.539125E-1	4.781285E-1	4.409477E-1	4.366939E-1	4.746531E-1	4.893930E-1	4.786883E-1	4.369118E-1	4.565880E-1	4.572739E-1	4.316655E-1	4.316093E-1	4.903334E-1	4.867337E-1	4.646856E-1	4.626073E-1	4.823266E-1	5.021983E-1	4.345449E-1	4.603091E-1	4.666203E-1	4.349123E-1	4.662228E-1	4.709289E-1	4.657893E-1	5.030480E-1	4.586481E-1	4.532036E-1	4.663805E-1	4.843059E-1	4.506029E-1	4.686162E-1	4.880142E-1	4.658216E-1	4.542926E-1	4.473677E-1	4.630290E-1	4.460321E-1	4.504097E-1	4.778897E-1	4.437074E-1	4.664284E-1	4.526775E-1	4.617822E-1	4.508263E-1	4.520973E-1	4.603905E-1	4.759085E-1	4.342531E-1	4.368267E-1	4.802224E-1	4.882310E-1	4.656142E-1	4.518732E-1	4.511400E-1	4.531806E-1	4.749902E-1	4.752535E-1	5.052167E-1	4.569771E-1	4.730204E-1	4.891227E-1	4.662842E-1	4.635974E-1	4.418361E-1	4.615159E-1	5.547057E-1	4.775855E-1	4.468618E-1	4.883811E-1	4.865449E-1	4.715112E-1	4.643723E-1	4.668097E-1	4.980728E-1	4.686543E-1	4.670678E-1	4.962605E-1	4.249143E-1	4.628394E-1	4.852185E-1	4.842662E-1	4.669712E-1	5.145668E-1	4.684256E-1	4.809408E-1	4.847837E-1	4.473058E-1	4.700728E-1	4.726345E-1	4.553509E-1	4.560315E-1	4.698813E-1	4.777265E-1	4.350638E-1	4.472079E-1	5.205142E-1	4.516513E-1	4.812619E-1	4.609830E-1	4.695516E-1	4.448517E-1	4.848089E-1	4.486829E-1	4.715363E-1	4.755064E-1	4.905464E-1	4.633303E-1	4.761037E-1	4.254185E-1	4.616440E-1	4.463838E-1	4.978117E-1	4.972580E-1	4.976633E-1	4.962684E-1	4.612291E-1	4.825143E-1	4.553265E-1	4.947280E-1	4.704063E-1	4.900032E-1	4.676078E-1	4.898397E-1	4.643403E-1	4.769493E-1	4.552467E-1	4.791751E-1	4.735071E-1	4.830936E-1	4.562586E-1	4.754809E-1	4.766843E-1	4.925499E-1	4.468996E-1	4.690771E-1	4.755968E-1	4.634455E-1	4.712036E-1	4.722066E-1	4.826775E-1	4.629596E-1	4.697002E-1	4.715571E-1	4.548583E-1	4.750537E-1	4.904110E-1	4.767322E-1	4.789355E-1	4.843747E-1	4.743859E-1	4.629196E-1	4.994258E-1	4.540162E-1	4.746642E-1	4.540088E-1	4.983799E-1	4.615459E-1	4.697822E-1	4.917540E-1	4.624797E-1	4.751902E-1
2.900020E+2	5.068069E-1	4.969359E-1	4.859362E-1	5.070219E-1	5.448091E-1	5.391513E-1	5.182115E-1	4.994582E-1	4.950606E-1	4.891001E-1	5.097283E-1	4.797505E-1	5.201303E-1	5.054724E-1	5.106608E-1	4.800055E-1	5.104033E-1	4.982834E-1	4.881637E-1	5.232873E-1	4.906609E-1	5.049306E-1	5.107288E-1	5.043167E-1	5.177348E-1	4.787282E-1	4.980861E-1	5.177561E-1	5.040378E-1	5.048615E-1	5.125551E-1	5.096997E-1	5.214291E-1	5.291703E-1	5.005628E-1	5.448133E-1	4.881944E-1	4.954763E-1	5.057181E-1	4.977089E-1	5.338601E-1	5.238540E-1	4.901380E-1	5.082420E-1	5.266974E-1	5.103646E-1	5.066753E-1	5.037114E-1	4.829467E-1	5.066397E-1	5.074860E-1	5.161902E-1	5.130987E-1	5.547071E-1	5.021135E-1	5.366782E-1	5.166203E-1	4.853419E-1	5.377123E-1	5.217261E-1	5.218196E-1	5.395871E-1	4.945460E-1	5.026877E-1	5.442643E-1	4.989172E-1	5.100222E-1	5.362258E-1	4.733300E-1	4.944787E-1	5.333332E-1	5.135546E-1	5.330537E-1	5.062578E-1	5.319253E-1	5.043724E-1	5.064061E-1	5.286661E-1	5.522359E-1	5.088005E-1	5.514813E-1	5.066338E-1	4.859490E-1	5.475487E-1	5.354112E-1	5.368934E-1	5.296503E-1	5.468079E-1	5.269245E-1	5.109412E-1	5.116647E-1	5.280074E-1	5.001888E-1	4.930222E-1	5.166818E-1	4.978180E-1	4.981807E-1	4.878686E-1	5.197400E-1	5.322405E-1	5.186530E-1	5.319033E-1	4.955832E-1	5.125058E-1	4.737325E-1	5.242255E-1	5.108016E-1	5.187504E-1	5.147450E-1	5.406088E-1	5.231286E-1	5.036557E-1	5.521514E-1	5.150657E-1	5.013378E-1	4.997477E-1	4.793513E-1	5.124791E-1	5.129775E-1	5.218741E-1	4.997732E-1	5.098978E-1	5.217782E-1	5.026950E-1	5.220842E-1	5.292750E-1	5.238530E-1	5.301607E-1	5.099110E-1	4.925245E-1	5.179530E-1	5.092611E-1	5.323103E-1	5.325317E-1	5.304744E-1	5.108579E-1	5.375178E-1	5.418247E-1	5.081547E-1	5.419508E-1	5.400942E-1	4.922083E-1	5.286057E-1	5.486864E-1	5.073444E-1	4.776241E-1	5.034296E-1	5.290865E-1	5.099344E-1	5.454878E-1	5.141245E-1	5.127547E-1	5.294029E-1	5.466902E-1	5.126381E-1	5.242129E-1	5.473823E-1	5.099449E-1	5.544447E-1	5.475145E-1	5.404085E-1	5.058312E-1	5.357795E-1	5.187043E-1	5.516162E-1
2.905120E+2	5.600181E-1	5.654744E-1	5.744783E-1	6.106263E-1	5.854984E-1	5.628980E-1	5.514076E-1	5.443591E-1	5.726863E-1	5.584773E-1	5.463495E-1	5.326034E-1	5.387528E-1	5.737020E-1	5.796582E-1	5.700160E-1	5.869773E-1	5.199515E-1	5.283938E-1	5.710161E-1	5.617697E-1	5.594120E-1	5.642939E-1	5.833355E-1	5.855125E-1	5.554082E-1	5.605129E-1	5.488610E-1	5.814358E-1	5.261412E-1	5.460554E-1	5.559115E-1	5.424034E-1	5.759609E-1	5.254504E-1	5.964419E-1	5.628139E-1	5.508290E-1	5.315327E-1	5.604665E-1	5.599322E-1	5.383193E-1	5.411843E-1	5.857378E-1	5.715329E-1	5.810987E-1	5.227670E-1	5.699603E-1	5.620554E-1	5.566012E-1	5.525050E-1	5.824924E-1	5.495623E-1	5.429841E-1	5.635769E-1	5.579592E-1	5.478288E-1	5.727497E-1	5.706297E-1	5.559498E-1	5.558903E-1	5.412440E-1	5.584593E-1	5.686435E-1	5.780067E-1	5.676204E-1	5.892119E-1	5.713691E-1	5.733738E-1	5.711713E-1	5.491150E-1	5.689426E-1	5.714414E-1	5.555890E-1	5.595164E-1	5.614643E-1	5.976524E-1	6.006871E-1	5.808084E-1	5.608657E-1	5.614161E-1	5.580427E-1	5.760672E-1	5.667110E-1	5.932937E-1	5.279423E-1	5.682182E-1	5.721850E-1	5.596922E-1	5.530518E-1	5.865166E-1	5.985361E-1	5.593590E-1	5.613862E-1	5.451909E-1	5.763568E-1	5.565010E-1	5.841890E-1	5.708115E-1	6.078958E-1	5.830415E-1	5.622218E-1	5.550746E-1	5.684600E-1	5.657783E-1	5.859265E-1	5.478410E-1	5.741204E-1	5.586498E-1	5.728087E-1	5.591941E-1	5.530507E-1	5.470963E-1	5.663812E-1	5.252076E-1	5.624920E-1	5.730102E-1	5.262078E-1	5.917918E-1	5.586299E-1	6.038538E-1	5.734104E-1	5.704322E-1	5.529582E-1	5.834949E-1	6.129831E-1	5.685675E-1	6.021992E-1	5.588828E-1	5.726850E-1	5.769403E-1	5.843535E-1	5.762908E-1	5.694608E-1	5.620422E-1	6.006476E-1	5.749791E-1	5.558662E-1	5.917085E-1	6.005593E-1	5.707751E-1	5.937096E-1	5.662333E-1	5.604917E-1	5.347311E-1	5.509485E-1	5.931385E-1	5.697715E-1	5.667914E-1	5.969946E-1	5.864901E-1	6.011259E-1	5.894054E-1	5.783906E-1	5.341623E-1	5.998227E-1	5.867747E-1	5.388728E-1	5.541872E-1	5.362251E-1	5.586993E-1	6.084115E-1	5.410963E-1	6.091553E-1	5.858683E-1
2.910060E+2	6.414215E-1	6.796281E-1	6.565276E-1	6.620597E-1	7.041897E-1	6.657443E-1	6.487483E-1	6.988530E-1	6.779606E-1	6.438876E-1	6.704532E-1	6.405360E-1	6.807492E-1	6.870216E-1	6.904668E-1	6.814585E-1	7.037324E-1	6.452955E-1	6.592685E-1	6.777232E-1	6.531567E-1	6.696694E-1	6.518020E-1	6.586724E-1	7.052634E-1	7.070322E-1	6.943225E-1	6.786580E-1	7.136912E-1	6.785053E-1	6.688054E-1	6.993218E-1	6.964953E-1	6.853892E-1	7.161190E-1	7.036954E-1	7.088872E-1	6.784941E-1	6.680805E-1	7.221540E-1	6.881348E-1	6.543644E-1	6.849798E-1	7.105948E-1	6.855678E-1	7.103670E-1	6.737933E-1	6.927926E-1	6.821020E-1	6.850587E-1	7.085568E-1	7.281235E-1	6.730959E-1	7.058349E-1	6.736556E-1	6.930494E-1	6.829328E-1	6.793501E-1	7.023440E-1	7.212666E-1	6.780451E-1	6.893249E-1	6.980231E-1	7.175479E-1	6.991560E-1	6.699655E-1	6.742812E-1	6.994196E-1	6.990602E-1	6.936909E-1	6.994958E-1	6.864665E-1	6.705831E-1	6.806816E-1	7.165997E-1	6.928283E-1	6.637117E-1	6.841224E-1	6.630857E-1	6.750671E-1	7.215513E-1	6.957866E-1	6.447130E-1	6.764350E-1	7.026680E-1	7.188048E-1	6.658679E-1	6.966407E-1	6.852321E-1	7.033661E-1	6.914529E-1	6.877212E-1	6.814449E-1	6.890582E-1	6.722487E-1	6.821502E-1	6.479244E-1	6.658614E-1	6.625170E-1	6.791587E-1	6.943972E-1	6.813383E-1	7.034294E-1	7.001804E-1	7.001767E-1	6.916636E-1	7.122879E-1	6.760551E-1	6.871186E-1	6.643941E-1	6.810536E-1	6.730649E-1	6.779690E-1	6.621507E-1	6.653663E-1	6.710335E-1	6.950061E-1	7.091179E-1	6.901687E-1	6.589177E-1	6.747268E-1	6.749958E-1	7.287773E-1	6.900326E-1	6.508141E-1	6.952342E-1	6.994742E-1	6.620137E-1	6.934777E-1	6.736278E-1	6.769665E-1	6.836891E-1	7.146001E-1	6.524253E-1	6.774809E-1	6.888645E-1	6.956508E-1	6.990025E-1	6.590673E-1	6.770854E-1	6.955443E-1	6.732110E-1	6.932152E-1	7.019703E-1	6.676145E-1	6.993582E-1	6.912167E-1	7.134201E-1	7.021333E-1	6.793313E-1	6.789306E-1	6.647115E-1	6.962122E-1	6.695673E-1	6.714377E-1	6.656361E-1	7.254302E-1	6.973452E-1	6.744242E-1	6.987296E-1	6.817055E-1	7.222607E-1	6.836743E-1	7.096893E-1	7.585022E-1
2.915040E+2	7.108239E-1	6.862941E-1	7.139770E-1	7.389887E-1	7.722167E-1	7.460408E-1	6.860853E-1	7.093146E-1	7.393109E-1	6.975649E-1	7.011350E-1	7.316822E-1	7.167890E-1	6.907578E-1	7.232672E-1	7.179818E-1	7.686643E-1	6.886606E-1	6.921095E-1	7.430725E-1	7.109362E-1	7.266649E-1	7.051712E-1	7.901035E-1	7.506414E-1	7.362075E-1	7.271134E-1	7.098511E-1	7.550266E-1	7.091634E-1	7.543171E-1	7.294924E-1	7.343321E-1	7.386672E-1	7.144372E-1	7.413140E-1	7.188450E-1	6.943464E-1	7.154217E-1	7.051790E-1	7.274759E-1	6.913924E-1	6.737128E-1	7.000067E-1	7.541789E-1	7.227444E-1	7.091708E-1	7.326122E-1	7.103466E-1	7.414869E-1	7.456355E-1	7.554092E-1	7.364408E-1	7.410644E-1	7.377588E-1	6.897908E-1	7.571495E-1	6.822131E-1	7.177367E-1	7.702923E-1	7.381792E-1	7.197872E-1	7.106258E-1	7.310538E-1	7.322043E-1	6.894648E-1	7.025394E-1	7.017253E-1	7.489609E-1	7.223553E-1	7.396792E-1	7.081141E-1	7.273856E-1	7.519550E-1	6.961773E-1	6.938737E-1	7.271339E-1	7.294132E-1	7.226882E-1	7.398729E-1	7.511110E-1	7.210531E-1	7.418469E-1	7.326809E-1	7.548080E-1	7.400230E-1	7.128504E-1	6.946595E-1	7.358767E-1	6.694970E-1	7.329917E-1	7.349773E-1	7.157447E-1	7.023207E-1	7.438076E-1	7.447476E-1	7.244437E-1	7.628207E-1	7.027055E-1	7.482926E-1	7.376561E-1	7.168505E-1	7.296397E-1	7.433108E-1	7.110357E-1	7.054913E-1	7.743953E-1	6.901755E-1	6.923306E-1	7.779243E-1	7.037206E-1	7.351143E-1	7.005210E-1	7.308776E-1	6.914238E-1	7.206466E-1	7.115274E-1	6.760734E-1	7.265518E-1	7.289708E-1	7.328342E-1	6.859173E-1	7.887376E-1	6.845883E-1	6.960695E-1	7.080817E-1	7.194913E-1	7.255104E-1	7.049567E-1	7.325520E-1	7.750809E-1	7.567681E-1	6.970100E-1	7.450110E-1	7.407625E-1	7.143924E-1	6.882946E-1	7.120719E-1	7.117470E-1	7.565667E-1	7.484001E-1	7.076511E-1	7.290850E-1	6.833574E-1	6.964107E-1	7.152207E-1	7.142266E-1	7.622214E-1	6.832292E-1	7.076231E-1	7.200711E-1	7.414758E-1	7.256808E-1	7.479835E-1	7.198762E-1	7.256441E-1	6.866187E-1	7.365360E-1	7.005182E-1	7.443370E-1	7.005868E-1	7.072637E-1	7.602742E-1	7.200874E-1	6.877103E-1
2.920010E+2	6.079481E-1	5.635733E-1	5.921226E-1	5.608297E-1	6.010321E-1	5.842072E-1	5.491548E-1	5.800843E-1	5.998702E-1	5.890265E-1	5.724826E-1	5.633444E-1	5.596309E-1	5.897391E-1	5.424334E-1	5.825330E-1	5.967717E-1	5.867324E-1	5.848194E-1	5.865519E-1	5.966790E-1	5.793945E-1	6.037604E-1	5.998210E-1	5.673804E-1	5.781246E-1	5.497872E-1	5.842859E-1	5.773737E-1	5.741940E-1	5.903502E-1	5.856336E-1	6.031751E-1	6.057212E-1	5.864171E-1	5.739521E-1	5.693620E-1	5.477951E-1	5.653842E-1	6.243953E-1	5.841006E-1	5.978955E-1	5.567826E-1	5.736747E-1	5.765414E-1	5.921158E-1	5.938115E-1	5.798447E-1	5.771448E-1	5.789002E-1	5.980183E-1	5.729792E-1	5.552098E-1	5.778337E-1	5.659343E-1	5.557560E-1	5.708194E-1	5.725686E-1	6.030621E-1	5.715624E-1	6.036730E-1	5.745218E-1	5.786440E-1	5.816742E-1	6.070592E-1	6.033127E-1	5.586659E-1	5.816190E-1	5.530622E-1	6.224415E-1	6.211840E-1	5.797753E-1	5.906484E-1	5.767419E-1	5.712977E-1	5.643624E-1	5.720615E-1	5.854980E-1	6.087373E-1	5.890370E-1	5.681203E-1	5.687143E-1	6.022209E-1	6.131701E-1	5.712112E-1	5.834131E-1	5.627289E-1	6.114600E-1	5.841247E-1	5.891745E-1	5.555882E-1	5.606321E-1	5.753240E-1	5.795917E-1	5.507340E-1	5.975421E-1	5.706190E-1	5.768449E-1	5.894717E-1	6.091539E-1	6.355162E-1	6.035670E-1	5.874840E-1	5.801557E-1	5.869324E-1	5.890233E-1	5.886108E-1	5.696049E-1	5.712074E-1	5.913930E-1	5.959987E-1	5.987668E-1	5.851808E-1	5.725140E-1	5.550070E-1	6.193774E-1	5.982480E-1	5.563800E-1	5.760368E-1	5.929034E-1	5.920534E-1	5.843691E-1	5.811666E-1	6.073164E-1	5.970196E-1	5.925428E-1	5.752432E-1	6.256146E-1	5.957494E-1	5.926014E-1	5.674934E-1	5.766934E-1	5.938400E-1	5.977825E-1	5.912735E-1	5.929274E-1	6.116312E-1	5.772110E-1	6.016966E-1	6.016998E-1	5.963589E-1	5.650854E-1	5.771656E-1	6.128717E-1	6.002781E-1	5.817474E-1	6.077082E-1	5.866953E-1	5.940957E-1	5.859696E-1	5.718991E-1	6.246507E-1	5.718295E-1	5.984079E-1	5.955281E-1	5.609690E-1	6.058733E-1	5.829101E-1	6.002103E-1	6.017113E-1	6.063604E-1	5.630985E-1	5.998647E-1	5.564846E-1	6.491955E-1
2.925000E+2	7.057701E-1	6.385042E-1	6.879696E-1	6.899804E-1	7.067855E-1	7.446025E-1	6.690424E-1	6.834792E-1	7.499803E-1	6.870417E-1	6.919074E-1	6.632776E-1	6.565864E-1	6.832127E-1	6.737114E-1	7.150527E-1	6.874652E-1	6.550637E-1	6.903617E-1	6.952561E-1	6.846584E-1	6.852321E-1	6.966562E-1	6.712751E-1	6.882264E-1	6.632651E-1	7.053086E-1	6.712015E-1	6.801089E-1	7.111388E-1	7.176201E-1	6.840690E-1	6.868992E-1	6.608658E-1	6.737723E-1	6.942412E-1	7.425773E-1	6.671419E-1	6.325974E-1	6.797737E-1	6.721051E-1	7.010178E-1	6.566178E-1	7.379317E-1	6.891427E-1	6.882512E-1	7.008407E-1	6.753532E-1	6.995025E-1	7.084362E-1	6.654488E-1	6.927976E-1	7.146007E-1	7.084253E-1	6.711332E-1	6.594554E-1	6.784495E-1	6.610614E-1	6.836746E-1	6.664809E-1	6.393218E-1	7.060641E-1	7.060249E-1	6.617126E-1	7.027530E-1	6.761901E-1	7.085640E-1	6.283138E-1	7.150013E-1	6.974957E-1	7.164584E-1	6.559330E-1	7.076973E-1	6.846717E-1	7.169646E-1	6.860760E-1	6.582310E-1	7.167206E-1	7.048477E-1	6.869806E-1	6.925342E-1	6.861799E-1	6.755209E-1	7.148416E-1	6.879683E-1	6.758142E-1	6.925668E-1	6.822000E-1	7.074278E-1	6.165224E-1	7.108045E-1	6.707636E-1	6.777117E-1	6.696581E-1	6.594277E-1	6.719872E-1	6.622385E-1	7.059342E-1	6.601196E-1	6.840000E-1	6.968980E-1	6.678314E-1	6.910770E-1	6.922141E-1	6.939810E-1	6.647801E-1	7.296048E-1	6.707765E-1	6.829629E-1	7.016030E-1	6.950941E-1	6.792039E-1	6.739232E-1	6.656131E-1	6.803039E-1	6.641265E-1	6.989385E-1	6.814227E-1	7.310387E-1	7.238300E-1	6.484386E-1	7.114216E-1	6.983944E-1	6.997460E-1	7.041519E-1	6.896892E-1	7.040386E-1	6.821711E-1	7.031441E-1	6.657723E-1	6.708289E-1	7.162876E-1	6.812350E-1	7.032302E-1	6.864112E-1	6.836555E-1	7.120594E-1	6.922280E-1	6.740894E-1	7.316375E-1	7.000085E-1	6.442773E-1	7.246403E-1	6.800027E-1	6.790990E-1	7.028534E-1	7.064450E-1	7.140951E-1	6.873881E-1	6.970405E-1	6.871749E-1	6.880177E-1	6.804445E-1	7.455907E-1	7.114235E-1	6.599025E-1	7.087534E-1	6.847190E-1	6.996997E-1	6.678858E-1	6.901866E-1	6.907580E-1	7.188691E-1	7.364191E-1	6.852800E-1
2.930070E+2	7.820729E-1	7.534260E-1	7.424563E-1	7.415717E-1	7.745518E-1	7.139397E-1	7.301855E-1	7.423413E-1	8.045151E-1	7.183718E-1	7.186305E-1	7.190388E-1	7.428406E-1	7.523642E-1	7.491181E-1	7.458859E-1	7.809460E-1	7.372719E-1	7.798318E-1	7.514597E-1	7.551446E-1	7.020807E-1	7.084322E-1	7.384776E-1	7.368442E-1	7.551297E-1	7.549644E-1	7.381060E-1	7.427746E-1	7.416747E-1	7.810598E-1	7.229168E-1	7.638165E-1	7.865548E-1	7.560587E-1	7.242277E-1	7.428593E-1	7.596136E-1	7.474425E-1	7.724534E-1	7.353098E-1	7.749142E-1	7.654263E-1	7.952621E-1	7.961507E-1	7.729003E-1	7.445332E-1	7.249603E-1	7.442504E-1	7.547830E-1	7.481749E-1	7.413088E-1	7.140556E-1	7.541317E-1	7.440173E-1	7.530814E-1	7.719179E-1	7.070054E-1	7.426757E-1	7.718921E-1	7.644104E-1	7.079194E-1	7.515620E-1	7.412854E-1	7.503441E-1	7.810871E-1	7.544099E-1	7.134435E-1	7.589125E-1	7.669735E-1	7.518856E-1	7.519694E-1	7.657652E-1	7.580173E-1	7.591682E-1	7.791745E-1	7.510875E-1	7.949107E-1	7.796666E-1	7.364755E-1	7.494891E-1	7.603295E-1	7.586253E-1	7.404440E-1	7.955865E-1	7.210098E-1	7.270033E-1	7.433046E-1	7.848453E-1	7.486670E-1	7.527398E-1	7.509121E-1	7.443761E-1	7.754069E-1	7.244837E-1	7.242673E-1	7.242605E-1	7.299327E-1	7.291530E-1	7.643414E-1	7.923239E-1	7.357137E-1	7.553786E-1	7.350396E-1	7.080328E-1	7.629790E-1	7.623334E-1	7.713195E-1	7.404185E-1	7.880798E-1	7.520276E-1	7.505292E-1	7.684802E-1	7.247753E-1	7.169918E-1	7.281638E-1	7.516147E-1	7.453196E-1	7.459031E-1	7.303417E-1	7.042633E-1	7.770220E-1	7.725621E-1	7.198968E-1	7.348332E-1	7.834883E-1	7.453494E-1	7.426355E-1	7.651937E-1	7.289161E-1	7.364321E-1	7.187844E-1	7.317327E-1	7.479130E-1	7.740761E-1	7.492942E-1	7.223248E-1	7.595357E-1	7.362189E-1	7.756744E-1	7.672424E-1	7.495581E-1	7.648850E-1	7.604778E-1	6.987323E-1	7.551438E-1	7.612823E-1	7.375334E-1	7.722687E-1	7.776637E-1	7.916581E-1	7.588750E-1	7.668862E-1	7.438295E-1	7.433775E-1	7.709461E-1	7.686683E-1	7.563609E-1	7.692990E-1	7.547498E-1	7.628848E-1	7.488168E-1	7.441896E-1	7.607153E-1	7.723666E-1
2.935070E+2	7.915199E-1	7.654185E-1	7.647657E-1	7.895611E-1	8.166010E-1	7.959977E-1	7.672817E-1	7.965008E-1	8.248955E-1	7.866457E-1	7.948587E-1	7.573594E-1	7.727410E-1	7.434535E-1	7.794078E-1	8.149341E-1	8.075740E-1	8.084680E-1	7.805202E-1	7.989143E-1	7.605267E-1	7.724468E-1	8.012480E-1	8.162279E-1	7.581874E-1	7.501637E-1	8.003877E-1	7.466827E-1	8.069593E-1	8.225606E-1	7.805104E-1	7.560247E-1	7.751489E-1	8.087070E-1	7.901109E-1	7.962494E-1	7.753978E-1	7.703873E-1	7.746347E-1	7.896025E-1	8.008367E-1	7.779521E-1	7.664916E-1	7.820710E-1	8.617577E-1	7.873958E-1	7.694448E-1	7.681538E-1	8.235306E-1	7.897785E-1	8.138373E-1	8.038996E-1	7.169359E-1	7.623316E-1	8.251657E-1	7.727337E-1	7.775261E-1	7.754921E-1	7.919773E-1	8.123324E-1	8.097161E-1	8.145568E-1	7.722966E-1	7.613908E-1	7.945953E-1	7.619630E-1	7.888494E-1	7.901300E-1	8.354704E-1	7.797999E-1	7.648866E-1	7.705476E-1	8.133048E-1	7.964058E-1	7.684308E-1	7.881007E-1	7.630069E-1	7.958944E-1	8.017588E-1	8.042750E-1	8.404103E-1	7.627229E-1	7.764241E-1	8.049613E-1	7.624142E-1	8.001586E-1	7.399352E-1	8.229743E-1	8.011584E-1	8.015540E-1	7.904234E-1	7.761064E-1	7.850090E-1	7.611028E-1	7.838905E-1	7.876678E-1	8.054060E-1	7.709751E-1	7.932531E-1	8.127262E-1	8.262595E-1	8.114584E-1	7.877457E-1	8.351434E-1	7.907484E-1	8.018377E-1	8.194396E-1	7.831802E-1	8.103062E-1	7.908974E-1	8.004578E-1	7.686904E-1	8.069832E-1	7.888903E-1	7.670068E-1	7.834378E-1	8.221989E-1	7.927198E-1	8.026948E-1	7.990514E-1	8.025950E-1	8.002202E-1	8.344127E-1	7.588790E-1	7.755430E-1	7.638506E-1	8.382618E-1	7.693581E-1	8.134417E-1	7.719019E-1	8.065026E-1	8.017393E-1	7.892755E-1	8.090681E-1	7.658058E-1	8.000218E-1	7.965735E-1	8.063949E-1	7.636140E-1	8.244242E-1	7.898994E-1	7.598517E-1	8.311020E-1	7.770019E-1	8.053565E-1	7.794955E-1	7.799824E-1	7.955549E-1	8.328812E-1	7.919667E-1	8.022176E-1	7.910241E-1	8.058866E-1	7.782616E-1	7.951622E-1	7.799625E-1	7.845176E-1	8.156964E-1	7.946132E-1	8.044971E-1	8.107988E-1	7.941896E-1	8.258518E-1	7.650746E-1	7.960194E-1
2.940070E+2	7.681558E-1	7.237982E-1	6.883712E-1	7.413339E-1	7.540428E-1	7.317603E-1	6.950495E-1	7.213328E-1	7.281386E-1	7.235701E-1	7.623373E-1	7.267159E-1	7.291047E-1	6.988744E-1	7.356998E-1	7.261735E-1	7.496952E-1	7.427883E-1	7.707388E-1	7.725866E-1	7.708325E-1	7.108615E-1	7.181391E-1	7.400613E-1	7.373831E-1	7.252682E-1	7.584046E-1	7.147549E-1	7.412459E-1	7.112092E-1	7.327696E-1	7.257736E-1	7.269307E-1	7.311867E-1	7.400374E-1	7.348227E-1	7.559311E-1	7.434131E-1	7.493086E-1	7.550901E-1	7.120895E-1	7.101486E-1	7.433109E-1	7.575556E-1	7.586899E-1	7.338989E-1	7.281613E-1	7.229276E-1	7.213688E-1	7.469380E-1	7.164994E-1	7.633878E-1	7.123671E-1	7.275940E-1	7.695284E-1	7.285746E-1	7.424278E-1	7.417816E-1	7.469985E-1	7.252982E-1	7.200014E-1	7.530948E-1	7.387658E-1	7.054610E-1	7.380526E-1	7.344105E-1	6.975885E-1	7.391140E-1	7.434444E-1	7.760859E-1	7.267601E-1	6.954523E-1	7.386188E-1	7.036409E-1	7.523963E-1	7.445589E-1	7.378465E-1	7.453104E-1	7.929312E-1	7.435945E-1	7.538341E-1	7.751915E-1	7.172764E-1	7.460268E-1	7.768810E-1	7.627639E-1	7.376697E-1	7.627667E-1	7.827381E-1	7.065842E-1	7.722928E-1	7.409702E-1	7.403703E-1	6.930051E-1	7.102795E-1	7.645066E-1	7.612407E-1	7.261481E-1	7.330583E-1	7.805102E-1	7.254236E-1	6.749876E-1	7.568388E-1	7.415384E-1	6.728914E-1	7.723519E-1	7.385549E-1	7.535490E-1	7.438307E-1	7.379940E-1	7.208413E-1	7.400709E-1	7.242428E-1	6.974929E-1	6.767969E-1	7.661850E-1	7.774427E-1	6.915108E-1	7.583123E-1	7.461889E-1	7.395603E-1	7.779701E-1	7.413897E-1	7.632979E-1	7.475357E-1	7.719153E-1	7.425569E-1	7.361051E-1	7.323019E-1	7.076913E-1	7.491717E-1	7.236587E-1	7.238286E-1	7.380148E-1	7.697654E-1	7.374182E-1	7.077163E-1	7.344760E-1	7.131256E-1	7.667751E-1	7.481772E-1	7.390605E-1	7.564210E-1	6.893189E-1	7.382883E-1	7.587256E-1	7.550010E-1	7.321859E-1	7.499948E-1	7.330371E-1	7.320160E-1	7.522279E-1	7.547247E-1	7.260540E-1	7.393481E-1	7.492858E-1	7.499461E-1	7.415976E-1	7.848547E-1	7.444473E-1	7.646500E-1	7.059779E-1	7.085645E-1	7.378455E-1	7.022327E-1
2.945030E+2	7.235770E-1	7.058980E-1	6.836801E-1	7.127866E-1	6.659340E-1	6.646818E-1	6.663173E-1	6.879997E-1	6.977237E-1	6.546543E-1	6.889985E-1	6.820715E-1	7.197005E-1	6.857320E-1	7.033412E-1	6.743687E-1	6.976666E-1	6.733681E-1	7.464680E-1	6.887904E-1	6.955994E-1	6.824067E-1	7.161633E-1	6.666738E-1	6.925657E-1	6.708107E-1	6.699805E-1	7.152103E-1	6.338676E-1	6.748896E-1	6.797107E-1	6.761087E-1	6.579578E-1	6.688932E-1	6.553928E-1	7.215366E-1	7.254940E-1	6.630682E-1	6.777099E-1	6.964215E-1	7.214427E-1	6.845214E-1	6.842670E-1	6.961674E-1	7.065382E-1	7.057296E-1	6.875928E-1	6.717521E-1	6.872739E-1	6.821214E-1	7.069223E-1	6.922281E-1	6.511010E-1	6.935733E-1	6.932517E-1	6.801725E-1	6.939936E-1	6.621637E-1	6.885002E-1	6.709073E-1	7.039011E-1	6.991901E-1	6.982390E-1	6.739397E-1	7.193570E-1	6.565351E-1	6.901127E-1	7.202806E-1	7.320355E-1	6.868201E-1	6.673235E-1	6.440604E-1	6.832526E-1	7.116017E-1	7.228415E-1	7.203334E-1	7.013078E-1	6.896373E-1	6.985453E-1	6.801264E-1	6.979879E-1	6.851470E-1	6.785725E-1	6.928940E-1	6.829753E-1	6.778166E-1	6.893204E-1	6.534536E-1	7.019644E-1	6.692168E-1	7.003969E-1	7.087894E-1	6.886015E-1	6.597601E-1	6.777404E-1	6.894575E-1	6.605654E-1	7.062104E-1	6.602195E-1	7.198033E-1	7.079469E-1	6.710771E-1	6.934328E-1	7.192765E-1	7.101575E-1	7.106069E-1	7.363125E-1	6.475607E-1	6.707126E-1	6.857518E-1	7.055066E-1	7.116431E-1	6.868300E-1	7.190009E-1	6.483038E-1	6.989283E-1	6.736048E-1	6.670064E-1	6.930356E-1	6.554212E-1	6.700047E-1	6.682829E-1	6.499897E-1	6.959653E-1	6.745577E-1	6.793901E-1	7.227677E-1	7.057545E-1	6.600816E-1	7.155539E-1	6.726724E-1	6.685774E-1	6.972583E-1	7.078474E-1	7.007370E-1	7.166752E-1	7.071218E-1	7.234379E-1	6.962548E-1	6.778473E-1	6.989370E-1	6.766939E-1	6.784212E-1	6.913911E-1	6.963824E-1	6.914006E-1	7.016338E-1	6.891206E-1	7.338079E-1	7.264548E-1	7.265650E-1	7.188232E-1	6.815034E-1	7.166377E-1	6.927836E-1	6.737232E-1	7.101071E-1	6.465148E-1	7.086350E-1	6.798856E-1	7.019316E-1	7.264580E-1	7.329616E-1	6.839826E-1	6.826194E-1
2.950130E+2	7.721500E-1	7.221042E-1	7.810096E-1	7.423885E-1	7.807038E-1	7.960889E-1	7.553437E-1	7.675330E-1	7.682460E-1	7.707157E-1	7.944771E-1	7.700067E-1	7.528794E-1	7.506722E-1	7.882538E-1	7.682549E-1	7.977509E-1	7.522611E-1	7.884129E-1	7.401207E-1	7.722200E-1	7.797110E-1	7.657631E-1	7.858719E-1	7.644880E-1	8.030281E-1	7.980450E-1	8.082384E-1	7.617881E-1	7.519726E-1	7.825877E-1	7.226487E-1	7.828678E-1	7.772713E-1	7.733709E-1	7.733512E-1	7.558118E-1	7.839020E-1	7.593339E-1	7.958892E-1	7.627150E-1	7.811563E-1	7.603770E-1	7.693722E-1	7.768330E-1	7.955162E-1	7.769541E-1	7.925465E-1	7.780086E-1	7.748712E-1	8.016811E-1	8.504530E-1	8.039276E-1	7.530125E-1	7.893423E-1	7.970092E-1	7.780599E-1	7.805005E-1	7.695121E-1	7.966622E-1	8.024840E-1	7.848954E-1	7.842091E-1	7.767716E-1	8.051268E-1	7.325552E-1	7.398245E-1	8.128118E-1	8.029656E-1	7.926998E-1	7.531628E-1	7.779778E-1	7.832240E-1	7.468111E-1	7.875966E-1	7.823788E-1	7.561534E-1	7.692742E-1	7.800484E-1	7.677638E-1	8.063766E-1	7.547022E-1	7.658772E-1	7.976691E-1	8.018754E-1	7.718396E-1	7.939005E-1	7.586181E-1	8.096634E-1	8.045128E-1	7.898963E-1	8.146268E-1	8.052243E-1	7.478121E-1	7.674772E-1	7.341628E-1	7.443095E-1	7.672473E-1	7.574974E-1	7.894358E-1	7.713815E-1	8.068581E-1	8.114433E-1	7.721923E-1	8.022879E-1	8.052852E-1	7.534056E-1	7.390595E-1	7.934104E-1	7.919791E-1	8.006347E-1	7.488846E-1	7.874499E-1	7.862701E-1	7.919433E-1	7.881992E-1	7.747104E-1	7.678039E-1	7.722508E-1	7.910316E-1	8.142951E-1	7.585925E-1	7.874119E-1	7.864451E-1	7.800970E-1	7.636965E-1	7.724326E-1	8.031400E-1	7.972646E-1	7.391988E-1	7.747066E-1	7.695899E-1	8.073209E-1	7.847570E-1	7.614663E-1	7.846895E-1	7.568055E-1	7.784874E-1	7.533344E-1	7.967090E-1	7.811823E-1	7.390239E-1	7.912208E-1	7.861355E-1	7.994452E-1	8.184739E-1	8.127325E-1	8.253585E-1	7.891060E-1	7.604519E-1	7.785792E-1	8.046514E-1	7.661552E-1	7.981226E-1	7.899060E-1	7.820751E-1	7.832553E-1	7.934774E-1	7.405616E-1	7.571029E-1	7.762359E-1	8.199567E-1	7.821527E-1	8.346883E-1	7.876537E-1
2.955070E+2	9.117078E-1	8.417038E-1	8.609834E-1	8.991410E-1	9.401025E-1	8.868340E-1	8.887997E-1	8.898970E-1	9.149752E-1	8.647997E-1	8.848378E-1	8.277023E-1	8.297210E-1	8.536262E-1	8.747076E-1	8.787353E-1	8.976590E-1	8.765524E-1	9.210471E-1	8.792608E-1	9.289026E-1	8.550207E-1	8.526961E-1	8.747240E-1	8.442840E-1	8.954275E-1	9.269506E-1	8.694099E-1	8.818427E-1	9.116047E-1	9.227775E-1	8.412257E-1	8.713212E-1	8.929651E-1	9.113231E-1	9.089885E-1	9.107723E-1	8.441463E-1	8.948730E-1	8.958217E-1	8.549757E-1	8.965778E-1	8.454708E-1	9.105147E-1	8.432888E-1	8.672074E-1	8.560768E-1	8.825680E-1	8.786896E-1	8.780174E-1	8.841083E-1	9.112605E-1	8.769574E-1	9.134863E-1	9.371345E-1	8.901596E-1	8.848630E-1	8.598965E-1	8.548414E-1	8.941802E-1	8.801962E-1	8.984614E-1	8.815661E-1	8.827138E-1	8.813821E-1	9.014640E-1	8.656590E-1	8.896218E-1	9.715978E-1	9.355449E-1	9.094845E-1	8.803029E-1	9.488353E-1	8.400305E-1	9.138442E-1	8.873329E-1	8.804412E-1	8.833843E-1	9.090460E-1	8.997969E-1	9.009332E-1	8.874481E-1	9.087748E-1	8.628362E-1	9.113580E-1	8.881679E-1	9.152967E-1	8.596213E-1	9.355874E-1	8.413777E-1	8.502944E-1	8.568401E-1	9.166602E-1	9.040317E-1	9.135105E-1	8.848168E-1	8.498673E-1	8.748889E-1	9.178842E-1	9.471849E-1	8.864581E-1	8.598741E-1	8.808785E-1	9.218525E-1	8.828842E-1	8.875927E-1	8.781687E-1	8.686784E-1	8.909201E-1	9.100603E-1	8.889683E-1	8.802389E-1	8.843642E-1	8.700525E-1	8.549603E-1	8.992019E-1	9.081924E-1	8.304916E-1	9.399326E-1	8.880406E-1	9.124377E-1	8.715334E-1	9.216592E-1	8.972122E-1	8.957881E-1	9.114634E-1	8.488935E-1	8.885857E-1	8.996401E-1	8.434278E-1	9.031975E-1	9.187145E-1	9.365689E-1	8.743427E-1	9.028863E-1	9.166498E-1	8.868971E-1	8.863015E-1	8.842755E-1	8.901426E-1	8.768716E-1	8.728874E-1	8.650133E-1	9.026204E-1	8.681006E-1	8.838715E-1	8.746601E-1	8.443586E-1	9.230026E-1	8.855179E-1	9.242029E-1	8.683853E-1	8.486722E-1	9.165075E-1	8.907664E-1	8.674160E-1	8.901587E-1	8.444679E-1	9.086632E-1	9.154026E-1	9.013513E-1	8.214314E-1	8.918004E-1	8.403067E-1	9.011404E-1
2.960050E+2	9.951471E-1	9.385797E-1	9.526288E-1	9.392402E-1	9.368376E-1	9.426722E-1	8.908960E-1	9.664139E-1	9.721284E-1	9.569142E-1	9.565158E-1	9.222470E-1	9.607616E-1	9.471146E-1	9.831932E-1	9.320795E-1	9.735617E-1	9.502440E-1	9.408961E-1	9.772437E-1	9.404943E-1	9.138578E-1	9.216620E-1	9.750745E-1	9.662512E-1	9.738552E-1	9.440301E-1	9.522569E-1	9.778463E-1	9.689757E-1	9.260387E-1	9.236375E-1	9.395131E-1	9.839038E-1	9.550864E-1	9.637495E-1	9.804978E-1	9.571261E-1	9.757299E-1	9.781895E-1	9.633006E-1	9.538033E-1	8.924609E-1	9.423246E-1	9.584860E-1	9.180833E-1	9.741229E-1	9.327823E-1	9.295568E-1	9.133852E-1	9.707703E-1	9.535290E-1	9.477814E-1	9.951544E-1	9.953359E-1	9.338289E-1	9.569632E-1	9.118549E-1	9.356637E-1	1.013031E+0	9.910276E-1	9.553648E-1	9.760338E-1	9.430287E-1	9.587666E-1	9.361186E-1	9.827204E-1	9.810646E-1	9.826479E-1	9.896364E-1	9.529968E-1	9.715121E-1	9.805605E-1	9.252116E-1	9.336503E-1	9.215858E-1	1.000947E+0	9.839607E-1	9.365594E-1	9.372314E-1	1.008168E+0	9.367067E-1	9.579943E-1	9.814430E-1	9.383991E-1	9.660330E-1	9.253377E-1	9.822258E-1	9.759598E-1	8.960727E-1	9.503756E-1	9.414316E-1	9.969206E-1	9.741760E-1	9.175830E-1	9.073828E-1	9.624992E-1	9.790382E-1	9.461076E-1	9.926919E-1	9.539685E-1	9.648364E-1	9.557995E-1	9.427194E-1	9.401762E-1	9.457095E-1	1.003964E+0	8.957975E-1	9.284789E-1	1.002696E+0	9.552507E-1	9.377923E-1	9.601952E-1	9.627920E-1	9.495847E-1	9.440637E-1	9.392407E-1	9.267332E-1	9.332025E-1	9.663381E-1	9.796398E-1	9.654941E-1	9.350885E-1	9.267387E-1	9.429604E-1	9.372464E-1	9.536212E-1	9.164673E-1	9.654550E-1	9.854102E-1	9.708750E-1	9.336300E-1	9.732159E-1	9.669910E-1	9.574633E-1	9.568075E-1	1.003223E+0	9.100611E-1	9.855009E-1	9.373652E-1	1.019155E+0	9.624690E-1	9.620530E-1	9.350566E-1	9.564551E-1	9.428993E-1	9.616076E-1	9.156575E-1	9.834181E-1	9.609761E-1	9.857474E-1	9.249938E-1	9.350886E-1	9.537358E-1	9.212808E-1	1.007267E+0	9.522042E-1	9.483007E-1	9.405524E-1	8.998777E-1	9.541754E-1	9.423902E-1	9.111053E-1	9.427112E-1	9.436865E-1
2.965040E+2	8.656235E-1	9.039695E-1	9.065020E-1	9.304583E-1	8.858194E-1	9.122092E-1	8.857114E-1	9.050977E-1	9.063609E-1	8.576015E-1	9.100117E-1	8.815112E-1	9.299959E-1	8.843370E-1	9.115631E-1	9.277192E-1	9.226931E-1	9.314882E-1	9.254351E-1	9.327884E-1	9.618395E-1	9.230299E-1	9.131583E-1	9.071711E-1	9.371900E-1	9.052933E-1	9.079049E-1	8.827941E-1	9.153756E-1	8.793207E-1	8.992489E-1	8.811409E-1	9.180385E-1	9.096885E-1	9.467127E-1	9.555099E-1	9.464715E-1	9.049289E-1	9.018908E-1	9.259502E-1	9.077116E-1	8.775331E-1	9.347677E-1	9.160918E-1	9.532892E-1	8.963715E-1	8.539039E-1	8.878192E-1	9.076640E-1	8.969743E-1	9.173253E-1	9.236232E-1	8.970955E-1	9.025624E-1	9.169654E-1	8.783353E-1	8.549402E-1	9.074345E-1	9.194984E-1	8.953396E-1	9.214313E-1	9.688513E-1	8.842018E-1	9.155168E-1	8.994817E-1	9.128881E-1	8.762362E-1	9.135805E-1	9.287387E-1	9.363764E-1	9.026679E-1	8.803972E-1	9.593105E-1	9.281505E-1	9.363186E-1	8.554682E-1	9.556192E-1	9.195888E-1	9.286468E-1	8.983146E-1	9.448710E-1	9.109544E-1	9.185910E-1	8.661445E-1	9.575692E-1	9.191190E-1	9.223288E-1	9.003307E-1	9.660810E-1	8.689372E-1	9.283403E-1	9.257425E-1	8.890231E-1	9.136703E-1	8.915557E-1	9.280215E-1	9.162168E-1	9.235713E-1	9.340406E-1	9.585792E-1	9.226488E-1	9.345285E-1	9.305723E-1	8.799880E-1	9.256617E-1	8.771449E-1	9.280676E-1	8.610246E-1	9.105916E-1	8.964152E-1	9.317252E-1	9.141656E-1	8.978892E-1	8.751620E-1	9.277582E-1	9.247969E-1	9.699016E-1	9.054239E-1	9.417426E-1	8.916755E-1	8.905453E-1	9.281761E-1	8.957288E-1	9.189616E-1	9.244491E-1	8.870513E-1	9.273574E-1	9.144805E-1	9.379453E-1	9.175106E-1	9.234448E-1	8.978536E-1	9.488471E-1	8.875672E-1	9.666257E-1	9.013295E-1	9.071769E-1	9.110438E-1	8.700050E-1	9.209628E-1	9.025684E-1	8.767533E-1	9.039836E-1	8.715009E-1	9.120970E-1	9.266508E-1	9.101356E-1	9.433672E-1	9.347546E-1	9.070304E-1	9.259889E-1	9.182127E-1	9.036612E-1	9.212510E-1	9.233678E-1	8.880530E-1	9.057967E-1	9.295073E-1	9.169508E-1	9.203934E-1	9.196975E-1	9.292597E-1	9.117220E-1	8.785800E-1	9.126712E-1
2.970020E+2	8.924269E-1	9.053903E-1	8.453389E-1	8.828645E-1	8.955158E-1	8.698109E-1	8.601701E-1	9.030920E-1	8.923293E-1	8.864748E-1	8.782760E-1	8.921126E-1	8.314153E-1	8.378578E-1	8.942235E-1	8.996546E-1	9.176894E-1	8.906482E-1	8.803592E-1	8.927465E-1	8.898471E-1	8.837028E-1	9.176501E-1	8.846389E-1	9.069907E-1	8.893648E-1	9.220642E-1	8.654601E-1	9.261837E-1	9.015004E-1	9.167669E-1	8.985715E-1	8.626728E-1	8.675601E-1	8.747007E-1	9.243751E-1	8.727193E-1	8.753260E-1	9.228365E-1	9.099107E-1	8.933159E-1	8.892566E-1	9.193251E-1	9.149106E-1	8.867436E-1	8.645849E-1	8.754407E-1	8.880816E-1	8.847110E-1	9.220030E-1	8.930211E-1	9.270231E-1	8.656453E-1	8.948570E-1	9.287543E-1	8.688644E-1	8.237243E-1	8.838607E-1	9.020400E-1	9.053761E-1	9.467476E-1	9.154908E-1	8.992055E-1	8.602863E-1	9.024393E-1	8.913121E-1	8.653881E-1	8.650676E-1	9.168145E-1	9.329849E-1	8.844234E-1	8.887743E-1	8.781836E-1	9.337332E-1	8.778163E-1	8.979581E-1	8.649567E-1	9.317734E-1	8.944573E-1	9.097118E-1	8.944766E-1	9.181004E-1	9.020508E-1	8.835790E-1	9.017212E-1	8.837426E-1	8.858160E-1	9.089250E-1	9.044986E-1	8.743993E-1	8.951772E-1	8.995544E-1	8.909458E-1	9.103536E-1	8.902571E-1	9.121838E-1	8.625210E-1	8.903778E-1	8.763271E-1	9.027264E-1	9.186986E-1	9.159866E-1	8.760353E-1	8.906798E-1	9.000786E-1	8.978468E-1	8.572112E-1	8.521600E-1	8.772049E-1	8.843488E-1	8.979935E-1	8.778493E-1	8.907041E-1	9.090091E-1	8.623881E-1	9.091152E-1	9.165241E-1	8.817668E-1	8.935098E-1	9.185786E-1	9.034371E-1	9.294864E-1	8.933594E-1	9.016784E-1	8.636942E-1	8.870215E-1	8.999667E-1	9.282849E-1	9.298005E-1	8.691508E-1	8.925863E-1	8.737737E-1	9.065002E-1	8.844903E-1	8.764754E-1	8.958608E-1	8.919711E-1	8.553427E-1	8.700693E-1	8.849681E-1	9.228248E-1	9.275414E-1	9.082372E-1	8.982447E-1	8.718660E-1	8.760719E-1	8.616983E-1	8.654937E-1	8.977384E-1	8.538438E-1	8.997491E-1	9.284544E-1	9.226048E-1	9.114261E-1	8.949860E-1	9.087841E-1	8.956369E-1	8.679673E-1	9.218408E-1	8.737294E-1	8.730723E-1	8.374475E-1	9.191642E-1	8.838284E-1	9.275132E-1
2.975020E+2	9.753735E-1	9.073240E-1	9.738439E-1	9.793960E-1	9.882345E-1	9.584547E-1	9.699169E-1	1.014701E+0	9.796685E-1	9.664830E-1	9.912757E-1	9.450916E-1	9.737137E-1	9.721046E-1	9.459888E-1	9.702623E-1	9.991586E-1	9.769398E-1	1.002626E+0	9.783468E-1	1.030194E+0	9.533491E-1	9.991342E-1	9.469257E-1	9.867138E-1	9.969617E-1	1.026600E+0	9.755644E-1	9.761326E-1	9.655432E-1	1.005449E+0	9.593729E-1	9.350441E-1	9.549791E-1	9.617427E-1	1.000832E+0	9.930304E-1	9.658918E-1	9.522522E-1	9.729731E-1	9.989103E-1	9.418566E-1	9.861973E-1	9.749423E-1	9.616310E-1	9.820181E-1	9.867277E-1	9.485899E-1	9.863248E-1	9.949341E-1	1.009959E+0	9.903381E-1	9.846579E-1	9.453440E-1	1.004279E+0	9.747896E-1	9.723851E-1	9.754004E-1	9.695177E-1	9.918097E-1	9.896507E-1	1.017510E+0	9.419229E-1	9.779626E-1	9.821953E-1	9.701502E-1	9.754161E-1	9.593188E-1	9.596196E-1	1.039151E+0	9.997922E-1	9.947714E-1	9.777569E-1	1.035417E+0	9.464510E-1	9.467755E-1	9.735442E-1	9.841688E-1	9.790149E-1	9.755099E-1	1.025363E+0	9.964402E-1	9.835565E-1	9.829056E-1	9.681419E-1	1.032743E+0	9.385580E-1	1.003046E+0	9.805792E-1	9.647292E-1	9.662677E-1	9.755344E-1	1.013896E+0	9.396444E-1	9.448431E-1	9.550000E-1	9.513915E-1	9.981353E-1	9.743030E-1	9.766925E-1	9.742602E-1	9.752565E-1	9.839685E-1	1.020694E+0	9.522354E-1	9.425536E-1	9.633062E-1	9.445930E-1	9.792867E-1	1.033456E+0	9.874174E-1	9.529274E-1	9.714749E-1	1.024619E+0	9.270525E-1	1.006217E+0	1.016476E+0	9.361241E-1	9.575572E-1	1.028600E+0	1.002949E+0	9.890576E-1	9.703754E-1	1.022037E+0	9.577592E-1	1.034315E+0	9.872551E-1	9.975579E-1	9.468992E-1	9.779326E-1	9.836089E-1	9.548671E-1	9.422522E-1	9.942313E-1	9.834115E-1	9.484057E-1	9.575081E-1	1.005370E+0	9.359183E-1	9.577880E-1	1.008297E+0	9.541281E-1	9.431559E-1	9.644066E-1	9.768099E-1	9.675683E-1	9.389539E-1	1.010298E+0	1.038177E+0	9.644275E-1	1.027285E+0	9.842044E-1	1.021917E+0	9.844007E-1	9.635300E-1	9.519527E-1	1.022470E+0	9.367250E-1	1.007329E+0	9.866589E-1	9.613685E-1	9.857137E-1	9.799463E-1	9.866087E-1	9.489961E-1
2.980050E+2	1.033453E+0	1.002486E+0	1.039124E+0	9.811061E-1	9.881894E-1	1.004132E+0	1.024739E+0	1.003112E+0	1.048085E+0	1.023036E+0	9.759063E-1	1.052094E+0	1.020453E+0	1.034123E+0	1.018230E+0	1.027699E+0	1.038176E+0	1.024380E+0	1.001036E+0	1.022407E+0	9.669035E-1	9.884197E-1	1.008140E+0	1.010783E+0	1.010244E+0	1.006513E+0	1.053725E+0	1.002063E+0	1.012309E+0	9.844425E-1	1.048015E+0	9.895646E-1	1.023266E+0	1.049369E+0	1.007897E+0	9.937303E-1	1.074475E+0	1.026062E+0	1.039355E+0	1.018366E+0	1.007857E+0	9.963802E-1	1.018837E+0	1.034869E+0	1.000597E+0	1.047609E+0	1.025937E+0	1.000772E+0	1.026141E+0	1.018123E+0	1.036401E+0	1.028212E+0	1.048303E+0	9.982752E-1	9.967043E-1	1.008449E+0	1.014883E+0	1.027276E+0	1.026915E+0	1.017602E+0	1.030637E+0	1.044691E+0	1.036108E+0	9.865692E-1	1.005900E+0	1.043874E+0	1.003069E+0	1.006416E+0	9.746212E-1	1.009989E+0	1.017418E+0	1.037463E+0	1.050728E+0	1.041506E+0	1.022948E+0	1.051880E+0	9.966052E-1	1.048682E+0	1.017360E+0	9.722556E-1	9.890372E-1	1.042306E+0	1.012500E+0	1.008228E+0	1.034324E+0	1.024602E+0	1.026378E+0	9.873698E-1	1.025877E+0	1.036574E+0	9.932088E-1	9.900655E-1	1.027344E+0	9.999948E-1	1.004258E+0	1.002453E+0	1.020552E+0	9.960716E-1	1.018595E+0	1.010264E+0	1.032636E+0	1.018752E+0	1.027755E+0	1.011510E+0	9.659907E-1	9.860712E-1	9.973785E-1	9.888050E-1	9.903382E-1	1.048123E+0	1.004463E+0	1.004300E+0	1.054494E+0	1.020589E+0	1.022010E+0	1.007095E+0	9.799418E-1	9.845454E-1	1.021933E+0	1.011407E+0	1.036508E+0	9.916895E-1	9.795912E-1	1.003774E+0	1.013470E+0	1.016364E+0	1.045311E+0	1.017051E+0	1.015401E+0	1.031073E+0	9.989489E-1	9.837837E-1	1.049754E+0	9.779834E-1	1.015003E+0	1.029429E+0	1.037458E+0	1.024087E+0	1.006745E+0	1.000192E+0	1.000319E+0	1.005943E+0	1.034799E+0	9.860380E-1	9.949171E-1	9.896744E-1	1.025486E+0	9.981298E-1	1.021296E+0	1.022016E+0	1.016437E+0	1.045116E+0	1.051667E+0	1.027425E+0	1.000472E+0	1.016993E+0	1.031796E+0	1.010996E+0	1.024602E+0	1.045916E+0	1.033892E+0	1.017288E+0	9.866484E-1	1.004167E+0	1.040152E+0
2.985020E+2	1.026741E+0	9.887986E-1	9.980722E-1	1.011963E+0	1.021303E+0	9.830886E-1	1.043350E+0	9.792471E-1	1.008880E+0	1.001918E+0	1.022142E+0	9.977562E-1	1.025578E+0	1.016443E+0	1.012605E+0	1.000958E+0	1.031250E+0	1.020845E+0	1.018707E+0	9.827796E-1	1.056009E+0	1.018851E+0	9.785801E-1	1.016469E+0	1.016639E+0	9.875085E-1	9.974919E-1	1.034521E+0	1.004182E+0	1.049041E+0	9.744104E-1	9.816944E-1	1.003682E+0	1.027871E+0	1.044307E+0	9.888765E-1	1.011562E+0	1.050950E+0	1.011204E+0	1.021933E+0	1.009666E+0	1.016638E+0	1.000865E+0	9.955760E-1	1.036099E+0	9.928939E-1	9.893638E-1	9.540616E-1	1.034693E+0	1.033532E+0	1.025796E+0	9.929099E-1	1.005312E+0	1.017979E+0	1.039460E+0	1.009658E+0	9.924111E-1	1.012320E+0	1.014829E+0	9.969921E-1	1.008839E+0	9.992925E-1	9.819186E-1	9.932930E-1	9.914313E-1	1.008013E+0	1.026504E+0	1.041535E+0	1.033149E+0	1.002304E+0	1.003345E+0	9.903519E-1	1.008662E+0	1.004095E+0	1.031821E+0	9.770606E-1	9.791866E-1	9.889055E-1	9.907285E-1	1.032131E+0	1.032214E+0	1.043624E+0	9.956539E-1	1.019633E+0	9.908233E-1	1.027141E+0	9.845134E-1	1.033226E+0	1.012093E+0	9.708618E-1	1.013412E+0	1.020545E+0	1.001711E+0	1.030422E+0	1.025419E+0	9.931493E-1	1.007613E+0	1.006797E+0	9.966794E-1	1.005516E+0	9.912736E-1	1.024995E+0	1.022034E+0	1.015485E+0	1.043624E+0	1.049641E+0	1.063553E+0	1.024198E+0	1.007916E+0	1.009443E+0	1.004259E+0	1.027803E+0	9.952363E-1	1.011192E+0	9.578913E-1	1.010964E+0	1.030186E+0	1.026563E+0	1.020254E+0	1.024782E+0	9.990064E-1	1.043374E+0	1.024343E+0	1.034454E+0	9.989962E-1	9.847669E-1	1.010280E+0	1.037416E+0	1.000738E+0	1.042607E+0	1.036038E+0	1.032672E+0	1.010423E+0	1.013108E+0	1.012757E+0	1.023421E+0	9.876604E-1	1.009680E+0	9.987248E-1	1.017553E+0	1.020492E+0	1.026016E+0	9.908686E-1	1.044405E+0	1.029439E+0	1.051587E+0	1.019105E+0	1.020348E+0	1.029350E+0	1.024009E+0	1.035997E+0	1.003815E+0	9.833446E-1	9.796708E-1	1.037708E+0	1.012663E+0	1.011258E+0	1.008633E+0	1.024314E+0	1.040419E+0	9.866424E-1	1.001780E+0	9.951112E-1	1.012578E+0	9.826086E-1
2.990040E+2	9.334319E-1	9.526652E-1	9.382613E-1	9.497769E-1	9.679148E-1	9.687975E-1	9.577918E-1	9.501886E-1	9.137614E-1	9.633481E-1	9.410375E-1	9.284839E-1	9.652307E-1	9.329775E-1	9.709195E-1	9.711454E-1	9.185417E-1	1.006899E+0	9.495309E-1	9.906268E-1	9.651073E-1	9.755618E-1	9.475541E-1	9.808590E-1	9.509191E-1	9.520779E-1	9.465865E-1	9.698827E-1	9.578921E-1	9.511830E-1	9.566410E-1	9.872661E-1	9.749397E-1	9.443371E-1	9.720955E-1	9.466189E-1	9.679019E-1	9.253475E-1	9.401762E-1	9.563478E-1	9.545427E-1	9.733864E-1	9.413785E-1	9.638701E-1	9.412591E-1	9.327805E-1	9.766107E-1	9.814676E-1	9.480109E-1	9.059263E-1	9.754040E-1	9.349693E-1	9.589418E-1	9.382068E-1	9.819088E-1	9.389858E-1	9.811984E-1	9.355818E-1	9.685511E-1	9.614367E-1	9.615523E-1	9.360123E-1	9.443630E-1	9.708671E-1	9.810587E-1	9.941476E-1	9.535865E-1	9.771778E-1	9.638756E-1	9.692351E-1	9.632536E-1	9.586355E-1	9.422682E-1	9.289599E-1	9.595769E-1	9.490254E-1	1.004658E+0	9.794435E-1	9.326725E-1	9.638288E-1	9.419233E-1	9.670260E-1	9.996606E-1	9.400632E-1	9.619243E-1	9.382532E-1	9.573756E-1	9.354691E-1	9.696339E-1	1.000217E+0	9.615336E-1	9.898236E-1	8.998963E-1	9.719921E-1	9.391881E-1	9.370427E-1	9.666583E-1	9.508072E-1	9.615372E-1	9.587436E-1	9.662628E-1	9.071913E-1	9.688952E-1	9.343722E-1	9.849942E-1	9.554044E-1	9.749374E-1	9.850496E-1	9.555966E-1	9.500623E-1	9.815957E-1	9.772288E-1	9.247716E-1	9.390580E-1	9.853107E-1	9.480238E-1	9.723703E-1	9.655564E-1	9.562766E-1	9.297932E-1	9.562572E-1	9.606841E-1	9.261808E-1	9.467449E-1	9.661656E-1	9.622484E-1	9.553296E-1	9.416565E-1	9.757454E-1	9.424811E-1	9.769431E-1	9.657674E-1	9.419004E-1	9.956903E-1	9.462140E-1	9.438050E-1	9.821212E-1	9.581321E-1	9.686606E-1	9.670298E-1	9.461446E-1	9.694069E-1	9.633738E-1	9.510054E-1	9.460733E-1	9.389133E-1	9.427588E-1	9.618247E-1	9.849814E-1	9.631300E-1	9.501236E-1	9.586440E-1	9.412528E-1	9.461944E-1	9.866528E-1	9.658927E-1	9.836805E-1	9.614956E-1	9.138710E-1	9.276897E-1	9.745858E-1	9.862316E-1	9.444974E-1	9.560470E-1	9.499850E-1
2.995020E+2	9.557982E-1	9.540289E-1	9.448940E-1	1.014265E+0	9.652593E-1	9.785092E-1	9.178204E-1	9.592075E-1	9.654000E-1	9.362390E-1	1.007310E+0	9.246381E-1	9.410384E-1	9.588994E-1	9.495799E-1	9.394766E-1	9.748146E-1	9.469491E-1	9.408387E-1	9.339213E-1	9.757795E-1	9.529772E-1	1.001772E+0	9.609166E-1	9.455275E-1	9.656231E-1	9.239233E-1	9.533319E-1	9.600034E-1	9.606914E-1	9.589981E-1	9.867631E-1	9.694031E-1	9.443875E-1	9.139695E-1	9.697645E-1	9.130883E-1	9.362156E-1	9.471680E-1	9.438960E-1	9.562178E-1	9.412629E-1	9.600978E-1	9.806610E-1	9.450306E-1	9.327919E-1	9.669108E-1	9.929115E-1	9.626023E-1	9.751417E-1	9.406436E-1	9.928354E-1	9.665872E-1	9.480410E-1	9.182540E-1	9.794229E-1	9.348947E-1	9.593828E-1	9.496777E-1	9.711821E-1	9.340075E-1	9.490765E-1	9.343045E-1	9.554949E-1	9.557919E-1	9.077990E-1	9.559797E-1	9.130575E-1	9.535646E-1	9.753417E-1	9.428529E-1	9.485951E-1	9.810558E-1	9.436093E-1	9.402173E-1	9.654471E-1	9.603462E-1	9.398892E-1	9.624261E-1	9.832606E-1	9.570458E-1	9.342028E-1	9.780221E-1	9.810319E-1	9.389570E-1	9.493156E-1	9.690959E-1	1.004958E+0	9.492136E-1	9.348353E-1	9.964252E-1	9.999250E-1	9.908853E-1	9.583197E-1	9.626082E-1	9.646086E-1	9.342776E-1	9.731218E-1	9.511800E-1	9.576842E-1	9.567822E-1	9.779089E-1	9.501974E-1	9.341136E-1	9.544452E-1	9.302310E-1	9.294974E-1	9.597342E-1	1.011805E+0	9.480896E-1	9.531579E-1	9.518503E-1	9.672978E-1	9.329376E-1	9.670482E-1	9.304788E-1	9.537114E-1	9.760762E-1	9.656095E-1	9.689755E-1	9.695244E-1	9.420651E-1	9.794751E-1	9.477847E-1	9.594755E-1	9.622660E-1	9.301770E-1	9.804899E-1	9.219153E-1	9.355959E-1	9.239185E-1	9.362092E-1	9.481910E-1	9.577066E-1	9.574761E-1	9.424785E-1	9.602426E-1	9.397519E-1	9.351458E-1	9.221365E-1	9.638910E-1	9.327593E-1	9.411705E-1	9.568970E-1	9.711738E-1	9.547866E-1	9.459072E-1	9.610573E-1	9.189861E-1	9.359839E-1	9.510431E-1	9.428293E-1	9.320820E-1	9.714395E-1	9.230440E-1	9.423654E-1	9.419455E-1	9.468942E-1	9.933109E-1	9.429341E-1	9.606301E-1	9.313254E-1	9.772485E-1	9.938150E-1	9.575486E-1
3.000040E+2	1.050575E+0	1.102021E+0	1.079648E+0	1.042890E+0	1.057334E+0	1.065473E+0	1.056299E+0	1.108244E+0	1.063874E+0	1.075459E+0	1.053605E+0	1.097028E+0	1.047700E+0	1.057557E+0	1.048666E+0	1.060720E+0	1.037218E+0	1.000927E+0	1.089888E+0	1.070266E+0	1.036201E+0	1.064191E+0	1.063954E+0	1.030973E+0	1.076671E+0	1.088277E+0	1.078273E+0	1.040202E+0	1.065614E+0	1.054642E+0	1.061936E+0	1.054712E+0	1.028709E+0	1.034036E+0	1.061730E+0	1.101010E+0	1.032972E+0	1.061426E+0	1.062098E+0	1.059457E+0	1.071716E+0	1.072332E+0	1.078822E+0	1.025024E+0	1.077015E+0	1.093925E+0	1.041178E+0	1.070787E+0	1.028553E+0	1.067276E+0	1.021755E+0	1.051073E+0	1.020856E+0	1.097498E+0	1.063673E+0	1.063485E+0	1.076613E+0	1.065439E+0	1.040027E+0	1.052787E+0	1.064964E+0	1.070927E+0	1.103306E+0	1.093776E+0	1.065819E+0	1.046166E+0	1.060861E+0	1.061814E+0	1.074789E+0	1.043130E+0	1.073130E+0	1.064955E+0	1.017285E+0	1.081830E+0	1.045437E+0	1.056586E+0	1.059204E+0	1.043080E+0	1.096813E+0	1.048524E+0	1.079780E+0	1.012842E+0	1.014163E+0	1.051044E+0	1.073971E+0	1.060688E+0	1.062637E+0	1.038977E+0	1.043183E+0	1.057511E+0	1.035420E+0	9.996410E-1	1.080163E+0	1.039271E+0	1.068527E+0	1.102746E+0	1.070900E+0	1.073202E+0	1.072008E+0	1.067792E+0	1.053046E+0	1.071152E+0	1.031119E+0	1.104519E+0	1.050946E+0	1.078652E+0	1.034634E+0	1.042213E+0	1.034345E+0	1.044282E+0	1.056524E+0	1.038817E+0	1.058201E+0	1.096224E+0	1.067740E+0	1.103439E+0	1.063790E+0	1.047259E+0	1.035927E+0	1.065042E+0	1.038704E+0	1.062187E+0	1.090410E+0	1.067242E+0	1.061893E+0	1.074355E+0	1.058903E+0	1.023386E+0	1.086200E+0	1.048243E+0	1.064151E+0	1.081568E+0	1.049732E+0	1.055512E+0	1.068549E+0	1.060866E+0	1.032518E+0	1.068349E+0	1.090724E+0	1.093088E+0	1.069154E+0	1.065875E+0	1.069788E+0	1.061655E+0	1.058397E+0	1.065039E+0	1.066743E+0	1.058640E+0	1.045386E+0	1.054860E+0	1.046399E+0	1.049596E+0	1.091653E+0	1.075271E+0	1.052123E+0	1.062086E+0	1.031320E+0	1.071981E+0	1.043902E+0	1.043041E+0	1.044250E+0	1.063376E+0	1.096495E+0	1.033394E+0	1.069706E+0
