Photon Energy (eV)	#1	#2	#3	#4	#5	#6	#7	#8	#9	#10	#11	#12	#13	#14	#15	#16	#17	#18	#19	#20	#21	#22	#23	#24	#25	#26	#27	#28	#29	#30	#31	#32	#33	#34	#35	#36	#37	#38	#39	#40	#41	#42	#43	#44	#45	#46	#47	#48	#49	#50	#51	#52	#53	#54	#55	#56	#57	#58	#59	#60	#61	#62	#63	#64	#65	#66	#67	#68	#69	#70	#71	#72	#73	#74	#75	#76	#77	#78	#79	#80	#81	#82	#83	#84	#85	#86	#87	#88	#89	#90	#91	#92	#93	#94	#95	#96	#97	#98	#99	#100	#101	#102	#103	#104	#105	#106	#107	#108	#109	#110	#111	#112	#113	#114	#115	#116	#117	#118	#119	#120	#121	#122	#123	#124	#125	#126	#127	#128	#129	#130	#131	#132	#133	#134	#135	#136	#137	#138	#139	#140	#141	#142	#143	#144	#145	#146	#147	#148	#149	#150	#151	#152	#153	#154	#155	#156	#157	#158	#159	#160	#161	#162	#163	#164	#165	#166	#167	#168	#169	#170	#171	
2.790030E+2	5.936827E-3	-7.822703E-3	-9.188580E-3	-9.745296E-4	-2.562030E-3	2.308764E-3	-8.077576E-3	4.648664E-3	4.596446E-3	-1.784236E-3	4.363918E-3	3.112714E-3	-4.383703E-3	-3.706841E-4	3.803880E-3	-7.536397E-3	5.634702E-3	-1.398035E-2	8.092789E-4	1.946872E-3	-7.141682E-4	1.279055E-2	-6.750039E-4	-4.803735E-3	3.560024E-3	5.494677E-4	-8.889586E-3	-4.580102E-3	-4.819725E-3	-1.094998E-2	3.587945E-4	-5.802693E-3	-3.554815E-3	-8.831300E-3	-8.082211E-3	8.870257E-3	8.636283E-4	-5.278705E-3	-5.895688E-3	-1.613014E-2	4.548479E-3	3.815147E-3	2.218742E-3	3.624404E-5	-1.379410E-2	-5.380365E-3	-1.295646E-2	-2.971161E-3	1.711200E-3	-2.186675E-3	-4.729455E-3	-3.400916E-3	-5.498253E-3	1.215506E-3	-2.987809E-3	-9.906602E-3	-5.808621E-4	1.418207E-3	5.850619E-3	-1.355370E-3	9.864122E-3	-1.813043E-3	-1.263456E-2	-1.099930E-3	2.162905E-3	-5.060719E-3	1.363143E-2	-8.608537E-3	3.907339E-3	-4.575979E-3	-6.913763E-3	-1.917495E-3	-1.257270E-2	2.702174E-3	-1.487471E-3	-7.342298E-3	4.124746E-3	-4.490417E-3	2.463316E-3	1.059263E-3	6.387329E-4	-9.682124E-4	-7.037252E-3	3.262098E-3	-6.067114E-5	2.110484E-4	-7.397932E-3	-1.095169E-2	4.366850E-3	-3.386363E-3	-4.344155E-3	-1.432659E-3	-7.887520E-3	7.756062E-3	-9.968632E-3	-3.118027E-3	-2.067745E-4	-2.988501E-3	-1.920026E-5	2.361620E-3	3.431571E-3	-3.347681E-3	-7.511520E-3	6.756517E-3	-8.026742E-3	-1.078942E-3	-1.232938E-2	-4.305412E-3	-8.570971E-3	-4.971914E-3	1.837499E-3	-1.439900E-3	2.832584E-5	2.249166E-3	-4.829974E-3	1.947687E-3	2.181230E-3	-1.040966E-2	-2.914102E-3	5.277517E-3	4.756130E-3	-7.261916E-4	-7.883286E-3	2.540286E-3	-7.399407E-3	5.699214E-3	-3.529724E-3	2.785626E-3	-2.584875E-3	6.658462E-3	-1.451358E-2	2.512967E-3	-9.077743E-3	-1.021369E-2	-4.825865E-3	4.487276E-3	2.169520E-3	-8.073216E-3	-2.305522E-3	-5.096414E-3	-7.164067E-3	-2.825385E-3	-5.550034E-3	2.773264E-3	7.829286E-4	-2.455312E-3	-6.049353E-3	-6.322916E-3	5.766863E-3	5.061042E-3	-6.157081E-3	-7.630910E-3	-3.341531E-3	-2.738340E-4	1.930906E-3	1.253085E-3	-7.073257E-3	-3.142442E-3	-1.316350E-3	-6.408654E-3	1.916996E-3	6.685769E-3	-8.992398E-3	1.426074E-3	4.823069E-3	-3.850628E-3	1.734114E-3	8.011760E-3	-6.140259E-3	-5.813397E-4	-1.052438E-2
2.795060E+2	-3.994924E-3	-3.577559E-3	-4.352941E-3	1.990853E-3	3.406415E-3	-5.436806E-3	-2.788354E-3	-5.351806E-3	-1.060542E-2	-4.129659E-4	2.099087E-3	-3.368527E-3	-1.649329E-3	-9.293750E-4	3.905111E-3	-2.592092E-3	-2.552641E-3	3.967361E-3	-7.116995E-3	-4.997022E-3	4.355282E-3	-1.969706E-3	-6.641879E-3	-1.847573E-3	-1.114108E-2	-4.788431E-3	2.083817E-3	7.930226E-4	3.297657E-3	4.388690E-3	2.909920E-3	-5.368804E-3	5.358787E-3	-2.200461E-3	-5.527729E-3	1.053241E-3	-4.393643E-3	-1.664406E-3	-6.344898E-3	5.834298E-3	-6.413240E-3	-6.456338E-3	-4.452096E-3	-8.761492E-3	9.163601E-3	6.021710E-3	6.512524E-4	-2.674214E-3	4.280054E-3	-2.838362E-3	-3.265050E-3	-1.160534E-2	-4.929121E-3	-6.007997E-3	-1.379899E-2	5.408194E-3	3.111937E-3	-1.850841E-3	8.530021E-4	-6.143185E-3	-5.790789E-4	-5.957024E-3	-7.126691E-3	2.927447E-4	-3.514186E-3	-4.579532E-3	3.857638E-5	-5.617499E-3	-1.402886E-2	-1.642823E-3	9.069436E-3	-7.776366E-3	6.966358E-5	2.829157E-4	4.920080E-3	-4.981529E-3	-5.443798E-3	-1.662616E-2	1.803271E-3	-8.017162E-3	-6.983639E-3	-5.997276E-3	-7.585758E-3	5.841572E-4	-4.028245E-3	-1.382493E-3	-4.292202E-3	3.282965E-3	-4.829833E-3	-2.967005E-3	-1.616052E-4	8.849802E-4	-3.634319E-3	3.783762E-4	-5.149848E-3	-3.604376E-3	-9.658011E-3	-5.708571E-3	-7.752759E-3	-7.829899E-3	-1.313436E-2	-2.005557E-3	-5.421000E-3	2.416548E-3	2.562444E-3	-2.640461E-3	6.929077E-3	-6.706957E-3	-4.972740E-3	1.119839E-2	-4.808198E-3	-5.327525E-3	3.873266E-3	5.764790E-3	-1.435007E-2	-1.153842E-2	3.499095E-3	6.101967E-4	-9.960690E-3	-1.511649E-2	-7.149206E-3	-2.234762E-3	-1.820968E-3	1.685742E-4	-5.958786E-3	-5.822891E-3	2.112381E-2	-5.591023E-3	-3.178805E-3	8.908171E-3	-7.410449E-4	3.008315E-3	-1.043111E-2	1.731819E-3	-4.441074E-3	-8.437269E-3	6.752703E-4	-7.469599E-3	-7.788948E-3	4.362531E-3	-3.117735E-3	-6.394252E-3	-2.562981E-3	-5.284612E-4	1.264717E-3	5.406570E-5	1.139324E-3	-4.657259E-3	-3.184680E-3	-1.064620E-2	5.866191E-3	-1.931588E-3	1.067103E-2	-2.871849E-3	-5.830519E-3	-5.663611E-3	-5.396165E-3	2.861055E-3	-3.526497E-3	-6.800712E-3	2.454100E-3	6.994951E-3	-4.278416E-3	-6.740993E-3	-3.415504E-3	-4.278336E-4	-6.098255E-3	-6.701590E-3	-6.675233E-3	-1.462449E-2	-2.172637E-2
2.800000E+2	2.961134E-3	-5.925110E-3	8.653599E-4	-9.792067E-3	1.555730E-3	1.712991E-3	-5.223281E-3	-7.226829E-3	-1.253984E-2	5.220485E-4	-2.043846E-3	-6.292389E-3	3.129370E-3	-9.293435E-4	3.905139E-3	8.034542E-3	-3.493726E-3	5.116619E-3	1.958880E-3	-7.347690E-4	-1.277407E-3	-6.956308E-3	-4.559075E-4	1.530856E-3	1.934008E-3	-5.965958E-3	-3.613150E-3	-2.120127E-3	-2.790386E-3	-6.485173E-3	-1.873524E-3	5.043454E-3	-5.016821E-3	1.838600E-3	2.434210E-3	-9.098636E-3	-5.180240E-3	-8.582097E-4	5.334149E-3	-2.402334E-3	-1.722009E-3	-6.456360E-3	-1.457681E-3	-2.357612E-3	-6.121550E-3	-1.022626E-2	-6.813580E-3	-8.871514E-3	-2.054256E-3	2.174196E-3	1.843254E-3	5.906018E-3	7.754471E-3	5.660708E-3	1.609593E-4	-5.946882E-3	-7.489471E-3	-6.288401E-3	-2.216466E-4	4.418122E-3	-5.421358E-3	-5.957029E-3	1.804915E-3	1.242369E-3	5.651419E-4	-3.548492E-3	-5.753794E-3	-4.414649E-5	-3.647806E-3	8.954686E-4	-9.675991E-4	-3.303964E-3	1.215443E-2	-5.336106E-3	-7.062827E-3	6.275284E-3	-6.338004E-3	9.482519E-3	-3.854044E-3	-2.855220E-3	5.234802E-5	-3.794749E-3	-8.720396E-3	7.935400E-3	2.822266E-3	-1.382493E-3	-1.125838E-2	-5.309344E-3	-8.108791E-5	-9.541164E-4	-4.724415E-3	-1.149681E-2	-8.395317E-3	-1.513389E-3	-7.754559E-3	-1.103040E-3	-4.744055E-3	7.337351E-4	4.417372E-4	-5.445918E-3	-6.053632E-3	-1.090435E-3	4.717870E-4	-4.867273E-3	2.562410E-3	-4.699593E-3	1.761363E-3	-9.045802E-4	5.115668E-3	-1.812176E-3	2.152385E-3	-4.466786E-3	2.742384E-3	-1.293882E-2	-1.435003E-2	-5.551994E-3	8.262517E-3	8.502410E-3	4.939589E-3	7.225248E-3	-7.149193E-3	-5.123513E-3	3.506374E-4	-3.551731E-3	-1.047696E-3	-1.031784E-2	-1.084342E-2	-9.542255E-3	1.140543E-3	-1.037566E-2	-1.168613E-2	-1.338902E-2	2.769987E-4	-3.040023E-3	-1.042670E-2	1.268799E-2	-1.213238E-2	-8.848192E-4	-5.794977E-3	-2.487061E-3	-4.001010E-4	4.510688E-3	-1.213327E-2	-5.156908E-3	-6.229816E-3	-1.032957E-2	-1.041381E-2	-1.501321E-3	-5.938982E-3	-1.440092E-2	-7.431398E-3	1.593729E-3	-5.875233E-3	-8.341370E-4	-1.309290E-3	2.563281E-3	-1.020865E-3	-1.308572E-2	-9.262876E-4	9.751834E-3	-1.126395E-3	3.861769E-5	-4.278453E-3	-6.752687E-5	4.218687E-3	-6.295465E-3	-1.224138E-2	4.103806E-3	-2.899042E-3	1.631242E-3	-1.630608E-2
2.805050E+2	-2.835558E-3	-3.577595E-3	-2.265612E-3	-9.792060E-3	-7.697695E-3	-2.755637E-3	1.269875E-3	5.898677E-3	-4.801921E-3	-1.347912E-3	-2.043846E-3	1.027613E-2	1.109366E-2	-5.227042E-3	-5.968447E-3	-2.592081E-3	-1.611580E-3	-6.376050E-3	-2.579091E-3	-7.128128E-3	-7.714770E-3	-5.958928E-3	-4.558933E-4	-1.583484E-4	2.939844E-3	1.169637E-2	-4.426999E-3	-1.149113E-3	-1.920613E-3	5.377172E-3	9.287942E-3	-1.030418E-3	1.585817E-3	-8.259096E-3	1.438939E-3	4.098821E-3	1.899370E-3	-5.206785E-5	8.422709E-4	8.922900E-4	-8.289682E-3	3.228172E-3	-4.595772E-4	6.790775E-3	4.667973E-3	5.166565E-3	4.383609E-3	1.436844E-2	3.224343E-3	7.186692E-3	-7.351646E-3	2.014609E-3	-9.807429E-3	-6.841478E-3	2.022252E-3	-7.060304E-4	-2.188754E-3	2.586686E-3	-8.819550E-3	-8.624927E-4	-3.484417E-3	2.923027E-3	-1.010394E-2	-5.404468E-3	2.604769E-3	-3.548505E-3	-1.270463E-2	2.185227E-3	1.019363E-2	-1.010385E-2	1.769821E-3	-2.409490E-3	-8.598628E-4	4.028930E-3	-6.064254E-3	-2.167328E-3	-3.655233E-3	-1.873712E-4	-3.854033E-3	4.027426E-3	5.234802E-5	8.319062E-3	1.170361E-2	2.684508E-3	-9.166090E-3	7.137255E-3	9.324569E-4	2.423765E-3	-4.829874E-3	-4.980053E-3	-1.074143E-3	3.742349E-3	1.126812E-3	-9.080324E-3	1.796158E-3	-2.770635E-3	-8.129099E-4	7.175962E-3	9.660537E-3	5.282008E-3	-1.628231E-3	3.484877E-3	-7.104673E-3	-4.867295E-3	3.663514E-3	4.482926E-4	-1.270837E-2	4.897731E-3	1.116865E-2	-1.812182E-3	-1.825092E-3	5.861873E-3	-4.042931E-3	-7.743359E-3	1.141001E-2	-2.558780E-3	-8.885729E-3	6.101539E-4	1.214529E-3	-3.945623E-3	6.231419E-3	6.540189E-4	9.036907E-3	1.685969E-4	-6.546446E-5	-3.125866E-3	-1.181213E-2	-3.220288E-3	-1.397729E-2	-5.300899E-3	-7.410850E-4	1.983535E-3	7.415730E-3	-8.766287E-3	-1.657183E-4	-3.155966E-3	2.645684E-3	3.504996E-3	-3.801018E-3	-2.487055E-3	1.411683E-3	-2.428798E-3	-2.562943E-3	5.025808E-3	5.547289E-3	6.284243E-3	4.027535E-3	6.027323E-4	-3.184680E-3	1.556633E-3	-7.826161E-4	-3.694275E-3	-7.044929E-4	3.241199E-3	-9.447559E-3	2.563292E-3	4.448139E-3	4.688439E-5	-2.659760E-3	-1.573619E-3	4.841087E-3	-2.280113E-3	3.919754E-3	2.792502E-3	2.310127E-3	-2.383759E-3	4.481817E-5	-1.298892E-3	2.765287E-3	1.631209E-3	-4.516105E-5
2.810050E+2	-1.676221E-3	-3.577595E-3	-3.309286E-3	1.023880E-2	8.033108E-3	-7.450159E-5	-4.411632E-3	-9.101920E-3	1.968723E-3	2.391969E-3	-2.872451E-3	1.504576E-3	-1.649290E-3	-1.788945E-3	-1.280406E-2	-1.706527E-3	2.152683E-3	5.196132E-4	-6.209362E-3	4.592946E-3	-4.496088E-3	-1.969676E-3	2.637088E-3	3.220065E-3	-9.129504E-3	2.276446E-3	5.339165E-3	-1.149071E-3	6.885488E-4	-6.485185E-3	-1.873509E-3	2.440372E-3	1.196139E-2	8.288656E-4	1.139143E-2	1.053259E-3	5.045911E-3	-4.889086E-3	8.927755E-3	3.363324E-3	6.722066E-3	5.869181E-4	4.531076E-3	7.705595E-3	3.768817E-3	-5.095285E-3	-2.148053E-3	-3.502069E-4	-2.054276E-3	2.174202E-3	8.994807E-3	2.987507E-3	-2.002127E-3	6.494154E-3	3.883550E-3	-1.579520E-3	-5.369150E-3	5.249269E-3	8.530611E-4	-4.030911E-3	-1.547541E-3	2.035012E-3	-8.119119E-3	-2.555815E-3	-8.613337E-3	1.191713E-2	-3.436840E-3	-4.407170E-5	1.542753E-3	5.972057E-3	5.419609E-3	-5.092912E-3	-6.437423E-3	-6.536023E-4	-7.062833E-3	-4.043483E-3	8.160112E-4	5.614639E-3	-4.796917E-3	5.860768E-4	3.067769E-3	1.711490E-3	1.491601E-3	2.684514E-3	6.247545E-3	5.243984E-3	6.157074E-3	1.564512E-3	8.466545E-3	-4.980083E-3	-1.074165E-3	3.742343E-3	4.935655E-3	-4.350994E-3	1.395176E-2	8.902486E-3	4.101184E-3	-3.399924E-4	-2.631211E-3	-6.637901E-3	-3.398338E-3	4.399998E-3	7.206361E-3	1.506108E-3	4.764692E-3	3.537034E-3	7.962651E-3	-6.706968E-3	2.089185E-3	-6.458788E-3	2.152397E-3	-4.466796E-3	-6.502595E-4	4.725704E-3	6.930079E-3	-9.542936E-3	-1.264269E-3	-2.667260E-4	-1.579241E-3	-3.086286E-3	1.240708E-2	3.542770E-3	4.693749E-3	-1.099233E-2	-2.029969E-3	1.369129E-3	-5.999934E-3	-5.923992E-5	-2.098947E-3	-2.262595E-4	3.534557E-4	1.983485E-3	2.769932E-4	5.549255E-3	3.254658E-3	3.885776E-3	1.660447E-3	2.126195E-4	-3.801018E-3	-1.508544E-3	-5.835397E-3	5.502050E-3	7.877410E-3	-1.454131E-3	-3.017882E-3	4.207600E-3	-3.674514E-3	-4.493007E-4	7.832612E-3	-5.952816E-3	4.849684E-5	-8.100904E-3	1.363767E-3	-1.102251E-2	-3.117774E-3	1.649194E-3	3.354336E-3	-2.767235E-3	8.071692E-4	6.267094E-3	-3.513272E-3	3.866013E-5	3.919761E-3	-6.741022E-3	4.015506E-4	3.483939E-3	1.068611E-3	-3.460003E-3	6.541513E-3	-3.787352E-3	3.789690E-2
2.815020E+2	-1.676221E-3	1.117528E-3	3.996402E-3	-3.657655E-4	-2.949664E-4	-9.681772E-4	1.269905E-3	1.211007E-3	4.870421E-3	-6.022721E-3	-4.529621E-3	1.027611E-2	-4.038607E-3	-2.648416E-3	8.670955E-4	7.148939E-3	-6.705070E-4	-1.097314E-2	9.219533E-3	-4.997015E-3	3.550610E-3	5.011522E-3	-1.229108E-3	-1.002976E-3	2.939813E-3	3.453966E-3	6.153038E-3	3.706190E-3	4.167457E-3	4.388702E-3	-6.657017E-3	-7.104274E-3	-4.073629E-3	9.916814E-3	-8.513482E-3	1.053247E-3	4.259236E-3	1.560275E-3	5.334225E-3	9.128992E-3	-3.598531E-3	-2.934695E-4	-5.450157E-3	-4.187329E-3	-9.718054E-3	3.456244E-3	4.383597E-3	-4.998225E-3	-3.109967E-3	8.189200E-3	-1.450325E-2	1.041746E-3	2.876145E-3	-1.007110E-3	-4.492346E-3	-7.060411E-4	5.232225E-3	3.474227E-3	-7.744797E-3	6.530442E-3	-8.326726E-3	1.147029E-3	9.744190E-3	-2.555873E-3	3.624697E-3	-2.517439E-3	2.355608E-3	-1.158799E-3	-5.378001E-3	8.954170E-4	4.507158E-3	2.739147E-4	3.788115E-3	4.965414E-3	6.917194E-3	-1.060993E-2	-9.725157E-4	-3.088350E-3	-8.568459E-3	-1.994884E-3	-2.963073E-3	-4.909091E-4	6.030305E-3	3.734673E-3	-9.166111E-3	-1.382511E-3	4.415579E-3	6.719969E-3	-1.030859E-3	1.011730E-2	4.401188E-3	-1.019917E-3	3.031190E-3	3.783704E-4	1.796216E-3	-9.440921E-3	-3.761227E-3	-3.400382E-4	-4.679817E-3	4.090011E-3	3.682330E-3	-5.665820E-3	5.522745E-3	-5.777784E-3	-1.065111E-2	-4.699618E-3	-2.372852E-3	9.733023E-3	-9.373890E-4	4.645719E-5	-8.785614E-3	5.861852E-3	-1.309006E-2	2.647499E-3	6.929997E-3	1.240728E-2	-3.169632E-3	-3.774385E-3	1.214518E-3	-2.227033E-3	-4.061340E-3	-4.160641E-3	-1.820908E-3	2.028766E-3	6.810077E-3	4.066089E-3	1.337417E-2	6.262727E-3	1.409878E-2	7.886807E-4	1.447943E-3	9.586171E-4	-4.184706E-3	9.366685E-3	8.385196E-3	-4.916382E-3	2.645708E-3	6.797446E-3	1.015678E-2	-5.300335E-4	-4.000955E-4	-6.394264E-3	4.397257E-3	-2.379830E-3	7.688553E-3	-7.214481E-3	3.064775E-3	4.810710E-3	-8.693351E-3	1.094344E-2	9.190583E-3	1.128839E-2	-7.943511E-3	1.846504E-4	4.992271E-4	4.391478E-3	-4.302355E-3	1.317949E-2	1.673879E-3	6.267115E-3	-3.513301E-3	-9.236368E-3	-1.204102E-3	7.559319E-3	-5.324040E-3	1.528014E-3	-4.050564E-3	3.023238E-3	8.771733E-4	9.759041E-3	2.163605E-2
2.820060E+2	-2.835572E-3	6.986423E-3	1.652028E-2	-3.900625E-3	1.555736E-3	-7.449069E-5	2.893198E-3	4.961120E-3	3.424679E-5	5.220428E-4	-3.866921E-4	-6.292401E-3	-8.528424E-4	-1.788929E-3	-3.689919E-3	-4.363137E-3	1.211616E-3	3.967326E-3	1.051341E-3	7.789658E-3	-9.324120E-3	-4.961657E-3	5.730088E-3	2.375463E-3	1.934026E-3	-1.255967E-3	2.083777E-3	-3.091219E-3	5.906882E-3	8.342741E-3	1.315431E-3	-1.626989E-4	-5.960065E-3	-5.229763E-3	4.424631E-3	-1.214423E-2	1.112744E-3	6.397278E-3	-3.649722E-3	-2.402409E-3	-3.598525E-3	2.347779E-3	1.536722E-3	-1.442737E-3	-2.525068E-3	6.021747E-3	4.383603E-3	3.523106E-3	2.168593E-3	-1.486840E-2	3.886571E-3	-6.741084E-3	9.248613E-4	-2.674088E-3	4.814225E-3	3.661278E-3	6.292366E-3	-3.625846E-3	8.531070E-4	2.305880E-3	1.588476E-2	6.475032E-3	1.172900E-2	2.927968E-4	4.644532E-3	-4.579551E-3	5.831046E-3	9.987891E-3	3.272928E-3	3.433771E-3	-6.442323E-3	8.324201E-3	-4.578252E-3	-4.399634E-3	1.924326E-3	7.213381E-3	4.393033E-3	9.482501E-3	6.517662E-3	-2.855172E-3	-8.993910E-3	5.015310E-3	3.760960E-3	-1.201793E-2	1.309801E-2	-7.062297E-3	7.027850E-3	-9.605575E-3	-1.030865E-3	5.246277E-5	4.401227E-3	2.789883E-3	-2.682078E-3	1.324227E-3	6.137464E-3	5.645288E-4	2.135521E-3	-1.413733E-3	4.417372E-4	5.282015E-3	6.337629E-3	-3.835666E-3	3.839061E-3	-3.148538E-4	5.865782E-3	9.714573E-3	3.828461E-3	-1.871659E-3	-3.963902E-3	9.339720E-3	-3.813851E-3	3.279745E-3	3.873300E-3	4.725697E-3	5.810009E-3	6.420850E-3	1.593768E-3	3.240959E-3	5.870873E-3	8.943875E-3	-3.032083E-3	-4.160641E-3	-7.249899E-3	4.818918E-3	5.827809E-3	-1.327858E-3	-7.937303E-3	7.310161E-4	9.779397E-3	-3.271086E-3	1.348750E-2	-2.115862E-3	6.523426E-3	-3.040081E-3	6.893810E-4	3.649536E-4	-8.191532E-3	2.407591E-3	3.177886E-3	4.484830E-4	-2.211890E-3	5.452400E-4	6.137310E-3	3.972824E-4	-7.300474E-3	8.361013E-3	2.101967E-3	-2.553296E-3	1.242312E-2	1.556656E-3	-2.444807E-3	-1.050260E-3	5.500349E-3	9.354166E-3	9.541785E-3	-6.577742E-3	7.295198E-5	2.861090E-3	2.540531E-3	-7.023718E-4	-3.513316E-3	1.198011E-3	1.870199E-3	-1.974217E-3	-7.232570E-3	2.505935E-3	1.028322E-2	1.942728E-3	4.653400E-3	9.759024E-3	-1.088576E-2
2.825030E+2	4.120535E-3	1.637661E-2	-2.265625E-3	1.259540E-2	-3.996297E-3	5.287857E-3	1.506787E-2	4.961086E-3	1.647734E-2	6.131776E-3	5.413451E-3	-9.216216E-3	-1.649256E-3	1.368273E-2	9.981203E-3	3.606753E-3	-6.705472E-4	1.775862E-2	2.866413E-3	3.527458E-3	1.562066E-2	4.014203E-3	1.090616E-3	6.862486E-4	6.962874E-3	-5.965893E-3	1.269939E-3	7.590419E-3	-4.529822E-3	1.423037E-3	-3.468038E-3	1.198506E-2	-3.006591E-4	1.193634E-2	2.434210E-3	5.114039E-3	-3.607006E-3	4.784921E-3	-4.548092E-3	1.715975E-3	1.235144E-2	3.228151E-3	3.532972E-3	2.216556E-3	1.455838E-2	3.564800E-5	8.116033E-3	1.973776E-3	-4.165691E-3	1.691493E-4	1.512477E-2	9.797457E-3	1.068145E-2	3.160305E-3	1.039816E-2	9.775604E-3	9.917075E-4	-9.633011E-4	8.376205E-3	-8.624863E-4	-6.389761E-3	1.146997E-3	1.470619E-2	9.788176E-3	-1.474522E-3	1.191711E-2	3.861172E-5	3.299934E-3	4.138020E-3	5.125943E-3	-6.442339E-3	1.190211E-2	8.436030E-3	-1.590092E-3	7.915785E-3	1.565591E-2	7.075760E-3	-1.873653E-4	1.028920E-2	1.004967E-2	1.512942E-2	-3.794716E-3	3.569285E-4	-8.867424E-3	2.532987E-4	-1.382493E-3	4.415558E-3	1.187539E-2	-1.030876E-3	7.097854E-3	2.576068E-3	2.789831E-3	1.350558E-2	5.107671E-3	-8.085582E-4	1.056998E-2	1.294627E-2	2.881138E-3	4.538976E-3	2.898064E-3	1.076303E-2	8.060284E-3	2.997238E-3	5.148032E-3	-7.409955E-4	-5.812857E-4	6.929051E-3	5.864822E-3	7.149785E-5	-5.529505E-3	1.309047E-2	6.975381E-4	7.265972E-3	5.693198E-4	2.449979E-3	8.416312E-3	-2.216980E-3	1.487050E-3	1.214524E-3	2.928789E-3	-2.002807E-3	1.220896E-2	4.693769E-3	4.818924E-3	3.863437E-3	9.460025E-3	5.624529E-3	8.633437E-3	-3.178799E-3	2.818592E-3	1.239294E-2	5.057958E-3	9.200414E-3	8.412320E-3	7.530117E-3	-4.916377E-3	1.052728E-2	3.504982E-3	1.015681E-2	7.298093E-3	1.771760E-2	7.484720E-3	4.397252E-3	1.322975E-3	1.264684E-3	1.092441E-3	9.804081E-3	1.007065E-2	-5.020900E-3	1.188216E-2	1.710632E-3	9.525819E-3	3.296274E-4	2.222312E-3	7.733224E-3	-1.789754E-4	9.917216E-3	4.687295E-5	3.407315E-3	-6.800685E-3	2.454100E-3	-3.439528E-3	9.043654E-3	3.745864E-3	4.218681E-3	5.439798E-3	9.259431E-3	-5.621048E-3	8.771618E-4	-3.787335E-3	-4.519412E-5
2.830040E+2	-5.168770E-4	1.755033E-2	1.909079E-3	1.990831E-3	1.080919E-2	1.065022E-2	-1.976725E-3	-3.476652E-3	-4.801939E-3	5.196881E-3	1.270518E-3	2.479203E-3	1.348295E-2	5.087338E-3	6.943150E-3	-7.019844E-3	4.034869E-3	1.890785E-2	1.103470E-2	1.205185E-2	-4.496069E-3	1.897392E-2	3.173307E-4	-4.381416E-3	1.098606E-2	1.993874E-2	7.780779E-3	-3.091171E-3	-1.050929E-3	6.365709E-3	1.327418E-2	2.440399E-3	1.007497E-2	1.395593E-2	5.419932E-3	-8.083436E-3	2.685987E-3	8.815758E-3	7.130966E-3	2.539634E-3	-7.837824E-4	2.347752E-3	5.529240E-3	7.705578E-3	1.186095E-2	6.021747E-3	6.249807E-3	1.204444E-2	-9.985391E-4	1.119669E-2	1.843291E-3	4.933173E-3	9.705761E-3	-5.174526E-3	1.091577E-3	9.775604E-3	3.111963E-3	4.361761E-3	6.226789E-3	-8.255453E-3	-5.421341E-3	-5.069004E-3	1.272139E-2	1.453585E-2	1.178327E-2	5.730915E-3	1.509880E-2	1.444660E-2	1.542753E-3	-2.488963E-3	2.001903E-2	2.062868E-3	1.928977E-3	5.901858E-3	2.922941E-3	1.002755E-2	1.959547E-2	7.795783E-4	2.746155E-3	5.860873E-4	7.088286E-3	6.116596E-3	3.760925E-3	1.633671E-2	5.391196E-3	-5.169037E-3	1.660638E-2	-1.872460E-3	1.036604E-2	7.097836E-3	1.535186E-2	1.040942E-2	3.983478E-3	1.172874E-2	1.134697E-2	4.733469E-3	2.135545E-3	1.039711E-2	2.490400E-3	-6.779211E-4	2.226930E-2	1.355072E-2	3.839072E-3	6.058460E-3	-6.246595E-3	4.482800E-4	4.861978E-3	2.963639E-3	2.731013E-2	6.551748E-3	4.141114E-3	9.304761E-3	1.611496E-3	4.725704E-3	2.597009E-2	1.440272E-2	1.302588E-2	1.902540E-2	1.704611E-2	2.928747E-3	3.143566E-3	-7.049369E-3	9.036900E-3	2.958845E-3	6.810065E-3	4.066067E-3	1.918644E-2	9.423703E-3	1.625841E-2	7.887055E-4	1.348746E-2	3.008309E-3	7.415730E-3	8.412378E-3	-1.020734E-3	1.268802E-2	9.542067E-3	6.797419E-3	5.171863E-3	1.316919E-2	1.228226E-2	1.640707E-2	2.657215E-3	-1.454137E-3	5.547296E-3	1.978301E-2	7.878618E-3	7.966713E-3	1.405859E-3	4.372697E-3	1.710677E-3	2.475121E-3	1.377351E-2	8.335317E-3	1.403499E-3	6.219697E-3	1.757398E-2	1.880773E-2	1.207458E-2	2.782316E-3	6.034486E-3	1.197997E-3	1.929135E-2	4.699215E-3	2.044124E-2	5.439816E-3	1.068629E-3	-1.298859E-3	1.975824E-2	7.049753E-3	5.375124E-3
2.835020E+2	8.757919E-3	1.872412E-2	1.652036E-2	1.259541E-2	8.033119E-3	7.075279E-3	6.139768E-3	9.648848E-3	2.935973E-3	9.871639E-3	2.364245E-2	6.377603E-3	1.029721E-2	1.368273E-2	1.605722E-2	-8.209612E-4	1.438659E-2	7.415206E-3	1.648020E-2	2.164194E-2	1.159729E-2	7.006118E-3	1.732882E-2	1.530830E-3	2.204951E-2	1.522878E-2	1.754694E-2	4.677157E-3	4.167447E-3	1.130833E-2	7.693428E-3	-1.626671E-4	2.139370E-2	4.868001E-3	1.636756E-2	1.222029E-2	3.261556E-4	1.607130E-2	1.431811E-2	1.077631E-2	1.516614E-2	1.203228E-2	-5.450242E-3	1.502434E-2	1.815483E-2	4.311436E-3	1.184843E-2	5.847122E-3	6.391501E-3	3.176679E-3	3.886565E-3	1.368884E-2	2.043802E-2	1.493297E-3	7.606186E-3	1.414298E-2	1.371344E-2	1.057428E-2	2.772145E-2	2.237243E-2	1.394784E-2	8.251067E-3	1.172897E-2	8.838644E-3	1.280316E-2	3.668796E-3	1.509888E-2	1.221720E-2	1.278886E-2	1.104865E-2	2.549371E-2	1.190211E-2	2.609830E-2	2.155843E-3	1.091150E-2	7.213313E-3	1.154708E-2	2.688832E-2	1.594643E-2	1.435138E-2	1.211406E-2	1.602784E-2	1.283828E-2	8.985547E-3	8.816496E-3	1.849689E-2	1.573563E-2	9.297737E-3	9.416322E-3	3.071893E-3	1.626439E-2	1.421921E-2	6.840051E-3	1.456627E-2	1.221525E-2	9.736207E-3	1.491185E-2	1.683933E-2	1.990365E-2	6.474013E-3	1.027063E-3	1.355072E-2	1.730829E-2	1.334237E-2	6.966960E-3	7.655385E-3	1.313043E-2	1.166716E-2	1.116869E-2	1.119831E-2	2.402845E-2	1.963349E-2	3.873314E-3	1.199937E-2	1.253001E-2	1.839366E-2	1.016786E-2	8.502388E-3	1.332107E-2	5.506669E-3	1.652423E-2	2.568979E-2	1.989480E-2	1.504981E-2	2.645452E-2	1.665192E-2	2.693603E-2	1.100417E-2	3.300325E-3	2.108758E-2	5.825932E-3	-1.091025E-3	4.738671E-3	9.366720E-3	9.240311E-3	5.646225E-3	2.432013E-2	2.407591E-3	1.314780E-2	1.904023E-2	1.862353E-2	3.028600E-2	1.570762E-2	1.428277E-2	1.946572E-2	1.666795E-2	2.039448E-2	7.966655E-3	7.832595E-3	1.000481E-2	2.082596E-2	1.040709E-2	2.101242E-2	1.241071E-2	8.637524E-3	1.810304E-2	1.866779E-2	2.349795E-2	1.900847E-2	1.585015E-2	1.438878E-2	1.511050E-2	2.851431E-2	2.792531E-3	9.944300E-3	2.304254E-2	1.130704E-2	1.598973E-2	6.541513E-3	7.049769E-3	5.375124E-3
2.840000E+2	2.498874E-2	3.398328E-2	1.443304E-2	2.673478E-2	1.636118E-2	1.065019E-2	1.993774E-2	1.808665E-2	2.935932E-3	3.231082E-2	1.618510E-2	1.807300E-2	3.339389E-2	2.657572E-2	4.264004E-2	1.246230E-2	2.567941E-2	2.925134E-2	2.737125E-2	3.869083E-2	2.608136E-2	2.495781E-2	3.975305E-2	2.180146E-2	2.909003E-2	3.524606E-2	2.975469E-2	2.604029E-2	1.808297E-2	2.910191E-2	3.400258E-2	3.020663E-2	1.856405E-2	4.021005E-2	4.025344E-2	2.135701E-2	1.999186E-2	3.461319E-2	2.869231E-2	1.489468E-2	2.642498E-2	4.196628E-2	1.950305E-2	3.149135E-2	2.085217E-2	1.970423E-2	3.424281E-2	2.288972E-2	1.061440E-2	4.929186E-2	2.431971E-2	3.606452E-2	3.019456E-2	2.566421E-2	1.505152E-2	2.287763E-2	3.703660E-2	2.033692E-2	2.019832E-2	1.497947E-2	3.815929E-2	2.334702E-2	2.760751E-2	2.877893E-2	2.402124E-2	1.810340E-2	1.857429E-2	3.562527E-2	2.576528E-2	2.543238E-2	2.823109E-2	2.263584E-2	2.423905E-2	1.807647E-2	1.890010E-2	-2.911893E-4	2.227818E-2	2.495425E-2	3.951845E-2	2.123390E-2	2.518088E-2	3.364807E-2	2.985835E-2	2.998903E-2	1.395435E-2	1.944348E-2	1.921872E-2	2.132699E-2	2.366245E-2	1.917574E-2	2.447739E-2	1.612412E-2	2.969324E-2	3.442951E-2	2.871212E-2	2.391066E-2	3.260213E-2	3.079763E-2	3.014682E-2	1.720199E-2	2.492455E-2	1.629598E-2	1.478280E-2	2.335761E-2	3.449509E-2	1.280326E-2	2.036531E-2	2.037067E-2	3.134547E-2	2.792618E-2	3.098908E-2	2.049424E-2	3.666915E-2	4.109379E-2	2.485013E-2	1.939144E-2	3.398476E-2	3.393292E-2	2.449620E-2	6.365922E-3	1.446561E-2	1.413480E-2	3.943895E-2	2.435055E-2	1.761449E-2	2.474292E-2	1.628025E-2	1.811644E-2	1.517864E-2	2.819217E-2	2.662159E-2	1.018213E-2	1.009282E-2	2.272787E-2	2.719716E-2	1.532866E-2	2.629056E-2	1.777204E-2	2.311764E-2	3.567494E-2	2.677649E-2	2.532928E-2	2.701803E-2	2.353976E-2	2.481896E-2	2.497486E-2	2.713370E-2	2.479862E-2	1.242315E-2	3.065573E-2	2.165710E-2	1.216977E-2	2.308072E-2	1.750484E-2	2.672256E-2	1.993121E-2	8.823413E-3	2.255993E-2	2.940920E-2	1.846367E-2	2.632352E-2	2.438548E-2	3.363813E-2	1.327942E-2	3.380109E-2	1.619705E-2	1.437861E-2	2.139246E-2	1.975826E-2	1.788689E-2	1.079541E-2
2.841010E+2	2.846681E-2	3.280949E-2	1.652033E-2	1.966516E-2	1.358518E-2	2.673714E-2	1.750283E-2	2.089922E-2	3.195318E-2	1.080657E-2	3.275700E-2	1.319997E-2	2.542948E-2	1.712088E-2	3.124737E-2	1.600455E-2	3.791337E-2	2.120644E-2	3.463189E-2	3.655972E-2	3.010476E-2	3.792291E-2	2.660786E-2	2.011224E-2	3.613040E-2	2.347123E-2	1.429154E-2	1.924285E-2	1.460411E-2	3.206741E-2	2.682735E-2	1.719124E-2	2.893963E-2	3.112209E-2	2.233906E-2	2.947853E-2	2.628490E-2	3.219465E-2	2.509870E-2	2.230769E-2	1.610441E-2	2.347760E-2	4.531100E-3	1.776881E-2	2.354964E-2	2.654550E-2	1.744706E-2	2.211511E-2	3.278445E-2	3.024430E-2	2.840623E-2	2.828166E-2	3.799995E-2	1.816288E-2	2.621940E-2	3.510628E-2	1.583370E-2	2.299943E-2	3.954364E-2	1.603570E-2	2.072702E-2	2.778708E-2	2.760745E-2	2.687988E-2	3.116013E-2	2.635174E-2	3.942705E-2	4.008392E-2	2.922566E-2	2.458628E-2	2.458126E-2	1.369108E-2	2.423906E-2	2.182247E-2	1.290865E-2	2.128429E-2	3.032652E-2	1.335048E-2	2.066091E-2	1.435133E-2	2.317058E-2	1.823041E-2	3.326231E-2	2.473822E-2	3.450591E-2	1.565698E-2	2.531410E-2	2.476400E-2	2.556201E-2	2.018220E-2	3.269043E-2	2.469613E-2	3.064546E-2	1.362039E-2	2.089782E-2	1.390513E-2	2.867098E-2	1.683941E-2	3.424402E-2	2.673791E-2	2.580961E-2	2.636179E-2	2.825203E-2	2.699956E-2	9.169235E-3	2.618775E-2	2.863379E-2	1.650245E-2	1.621291E-2	2.606754E-2	2.203969E-2	3.426580E-2	8.396922E-3	2.031215E-2	4.837010E-2	2.837101E-2	2.636340E-2	1.113319E-2	3.008378E-2	2.183335E-2	2.167053E-2	2.472691E-2	3.943901E-2	1.597986E-2	2.056119E-2	9.460047E-3	2.112382E-2	3.076039E-2	4.109502E-2	3.529680E-2	3.647201E-2	5.058020E-3	2.437037E-2	1.604726E-2	1.608092E-2	2.589119E-2	3.318706E-2	2.545423E-2	4.903939E-2	2.784685E-2	4.036478E-2	2.532920E-2	2.701804E-2	1.613414E-2	4.409062E-2	3.016668E-2	2.039442E-2	3.847466E-2	2.344044E-2	2.033022E-2	2.581256E-2	3.067781E-2	2.308072E-2	3.584381E-2	2.491408E-2	3.638504E-2	2.304298E-2	2.443603E-2	3.374284E-2	2.194844E-2	2.990403E-2	1.742930E-2	2.953911E-2	3.234656E-2	2.234982E-2	2.206464E-2	1.437860E-2	2.787560E-2	2.353437E-2	3.143328E-2	2.705630E-2
2.842040E+2	3.658224E-2	3.985206E-2	3.321890E-2	4.323090E-2	2.006254E-2	2.763088E-2	2.074938E-2	2.183679E-2	3.001877E-2	3.137584E-2	2.281391E-2	2.392076E-2	3.498668E-2	4.118785E-2	2.213335E-2	3.282999E-2	2.850264E-2	2.120634E-2	2.464851E-2	4.188744E-2	2.527667E-2	1.598200E-2	1.964863E-2	3.362600E-2	2.406109E-2	4.466595E-2	4.440402E-2	1.244560E-2	2.591050E-2	3.107888E-2	2.603011E-2	2.066198E-2	3.082607E-2	2.405367E-2	2.831054E-2	4.572158E-2	3.493777E-2	2.252067E-2	2.689553E-2	4.042832E-2	3.393082E-2	1.291274E-2	2.249746E-2	1.593912E-2	2.444874E-2	1.799395E-2	2.584491E-2	2.521377E-2	2.011590E-2	2.222429E-2	2.227634E-2	3.120018E-2	1.751109E-2	2.899810E-2	3.459536E-2	1.588991E-2	4.127709E-2	1.589936E-2	5.244047E-2	9.698802E-3	3.719076E-2	3.666705E-2	2.463025E-2	3.447616E-2	4.033856E-2	2.841382E-2	2.668368E-2	3.896933E-2	1.711430E-2	2.204802E-2	2.366880E-2	2.621380E-2	3.167581E-2	6.838433E-3	2.089732E-2	2.128438E-2	4.284613E-2	3.172321E-2	3.668985E-2	1.693228E-2	2.417575E-2	2.263534E-2	1.737701E-2	2.263788E-2	2.679907E-2	3.269639E-2	3.140955E-2	2.906023E-2	1.321524E-2	1.514979E-2	2.356482E-2	1.802900E-2	1.826669E-2	3.821289E-2	3.044862E-2	2.224313E-2	3.260219E-2	2.757645E-2	4.243856E-2	4.461781E-2	2.846490E-2	3.093705E-2	3.919575E-2	3.155199E-2	2.018042E-2	3.648365E-2	1.933176E-2	1.940360E-2	4.546923E-2	2.978485E-2	3.496653E-2	1.705135E-2	4.458530E-2	4.213294E-2	4.389014E-2	2.438006E-2	1.588392E-2	3.217909E-2	2.449623E-2	2.097401E-2	2.372915E-2	2.761563E-2	3.726747E-2	2.621070E-2	3.824112E-2	1.575296E-2	3.468573E-2	3.234091E-2	1.949804E-2	3.123697E-2	3.318859E-2	2.760428E-2	2.615500E-2	2.749966E-2	2.292163E-2	1.092758E-2	3.417225E-2	4.191616E-2	2.112366E-2	1.806171E-2	3.492945E-2	3.326008E-2	3.745834E-2	2.353978E-2	3.338420E-2	5.093401E-2	4.446330E-2	1.848665E-2	2.068612E-2	2.502365E-2	3.412349E-2	2.891514E-2	3.342212E-2	4.195681E-2	3.033956E-2	3.090045E-2	2.851214E-2	3.100235E-2	4.414358E-2	1.846370E-2	3.109748E-2	2.438552E-2	2.953913E-2	4.664681E-2	3.380108E-2	3.184405E-2	2.052174E-2	7.345414E-3	1.598198E-2	3.956113E-2	2.705630E-2
2.843040E+2	4.237903E-2	5.393734E-2	3.739365E-2	3.262623E-2	2.561468E-2	3.388696E-2	3.617067E-2	3.965001E-2	4.356008E-2	4.259541E-2	4.187150E-2	3.269231E-2	3.896887E-2	3.517108E-2	4.036149E-2	4.434213E-2	3.509013E-2	4.074392E-2	4.552297E-2	6.319857E-2	3.251868E-2	3.493094E-2	4.207283E-2	6.909956E-2	4.115933E-2	3.524606E-2	3.870706E-2	4.643219E-2	3.286827E-2	6.370033E-2	4.516407E-2	3.801586E-2	4.308819E-2	4.424918E-2	5.617735E-2	6.196455E-2	3.100462E-2	4.751185E-2	3.767625E-2	3.219164E-2	3.205435E-2	4.812910E-2	2.948437E-2	4.887328E-2	3.613734E-2	4.963476E-2	4.170752E-2	3.838305E-2	4.017464E-2	3.625930E-2	3.862274E-2	6.330439E-2	3.897550E-2	3.149850E-2	2.715012E-2	4.471442E-2	4.339747E-2	4.074965E-2	4.384253E-2	3.504594E-2	4.106469E-2	3.577903E-2	3.951635E-2	3.827443E-2	5.767566E-2	6.450033E-2	6.143803E-2	5.791861E-2	3.874158E-2	3.727776E-2	5.742980E-2	5.394250E-2	5.026758E-2	3.212398E-2	3.887154E-2	3.160307E-2	4.552884E-2	2.978928E-2	4.611865E-2	2.639589E-2	4.427853E-2	3.254672E-2	3.099298E-2	3.839040E-2	4.649428E-2	4.973581E-2	4.272960E-2	2.132708E-2	4.360714E-2	2.420816E-2	4.181597E-2	2.755341E-2	4.016764E-2	3.064600E-2	4.607730E-2	2.724581E-2	4.439565E-2	5.764039E-2	5.165741E-2	4.580982E-2	2.049911E-2	4.557832E-2	4.256308E-2	4.520915E-2	4.660752E-2	4.677942E-2	4.000271E-2	3.100828E-2	5.152230E-2	3.814882E-2	4.888767E-2	3.856940E-2	3.893089E-2	4.421115E-2	7.525027E-2	2.338231E-2	3.970085E-2	4.270206E-2	4.032787E-2	4.933075E-2	3.813900E-2	3.724484E-2	4.703948E-2	3.179116E-2	5.886778E-2	3.822779E-2	3.952922E-2	3.787267E-2	4.433452E-2	4.544624E-2	3.756660E-2	2.452987E-2	3.954010E-2	3.227156E-2	3.403775E-2	2.765174E-2	3.811303E-2	2.874668E-2	5.801234E-2	4.154614E-2	4.036483E-2	6.200942E-2	3.832841E-2	3.001971E-2	5.265584E-2	4.781889E-2	5.697915E-2	2.690262E-2	1.793182E-2	4.755200E-2	3.578582E-2	2.450844E-2	4.583183E-2	3.890031E-2	4.028628E-2	4.186967E-2	3.398113E-2	4.319688E-2	5.541099E-2	2.804674E-2	4.541917E-2	5.452935E-2	5.208407E-2	2.662632E-2	6.624620E-2	3.477786E-2	4.304625E-2	3.760045E-2	3.297501E-2	6.123546E-2	4.331725E-2
2.844010E+2	4.933505E-2	5.041608E-2	5.096131E-2	4.912230E-2	5.244948E-2	5.891120E-2	4.104059E-2	4.808775E-2	6.000317E-2	5.755493E-2	5.512899E-2	5.705774E-2	5.887977E-2	6.439534E-2	5.479220E-2	6.559537E-2	5.673474E-2	6.258006E-2	7.184294E-2	6.852631E-2	6.068220E-2	4.789610E-2	7.145635E-2	7.163349E-2	7.133267E-2	7.528065E-2	4.847326E-2	6.779527E-2	5.895987E-2	6.172319E-2	6.031176E-2	6.491444E-2	5.440699E-2	6.545437E-2	6.015834E-2	7.008615E-2	5.932331E-2	5.154271E-2	7.001819E-2	6.596197E-2	4.894267E-2	7.101980E-2	4.745066E-2	6.717009E-2	7.929544E-2	7.443428E-2	7.996458E-2	5.852435E-2	2.539446E-2	7.335202E-2	7.131573E-2	7.497859E-2	3.214594E-2	6.567112E-2	7.554434E-2	7.266542E-2	6.672051E-2	6.559991E-2	5.566465E-2	4.983203E-2	6.140234E-2	5.797909E-2	6.730377E-2	7.625594E-2	6.277484E-2	7.377971E-2	7.418134E-2	7.352407E-2	6.988482E-2	4.235443E-2	6.290453E-2	6.199282E-2	6.514107E-2	3.680653E-2	6.683169E-2	5.036435E-2	6.967379E-2	7.427071E-2	7.723369E-2	6.339002E-2	7.543796E-2	6.448308E-2	7.411040E-2	8.459812E-2	6.276424E-2	5.920222E-2	6.624048E-2	5.827439E-2	5.500409E-2	5.641574E-2	5.094154E-2	5.422195E-2	6.206855E-2	6.848063E-2	6.604709E-2	6.309872E-2	5.618917E-2	6.945113E-2	9.570277E-2	7.441758E-2	4.793690E-2	6.479487E-2	5.939962E-2	7.616546E-2	6.422563E-2	6.325273E-2	5.964032E-2	5.808589E-2	8.380520E-2	7.067507E-2	6.579187E-2	5.492328E-2	4.345454E-2	6.707118E-2	7.077027E-2	6.728277E-2	5.303828E-2	5.497887E-2	5.429684E-2	4.847152E-2	7.828097E-2	5.650309E-2	4.486793E-2	4.481217E-2	5.493888E-2	5.710660E-2	9.280786E-2	5.683862E-2	6.701133E-2	8.096917E-2	8.463011E-2	6.757276E-2	4.578655E-2	7.044624E-2	7.080641E-2	4.525614E-2	5.978754E-2	7.045014E-2	5.302730E-2	6.013787E-2	7.841196E-2	7.192309E-2	5.224888E-2	4.760802E-2	7.835137E-2	7.896985E-2	7.623427E-2	4.163060E-2	3.996634E-2	5.693889E-2	4.825235E-2	4.566056E-2	5.720743E-2	4.603213E-2	5.385015E-2	5.466701E-2	4.382537E-2	6.946202E-2	8.227955E-2	5.679588E-2	6.809524E-2	7.191994E-2	6.335671E-2	5.046021E-2	5.765780E-2	7.193940E-2	7.273773E-2	5.056693E-2	5.185607E-2	6.394448E-2	5.957814E-2
2.845010E+2	9.339025E-2	8.328172E-2	6.557256E-2	6.797489E-2	8.483654E-2	7.589185E-2	6.376661E-2	9.215205E-2	8.805317E-2	1.014983E-1	7.915815E-2	5.608315E-2	9.631221E-2	8.674322E-2	1.064387E-1	8.330639E-2	1.028472E-1	7.292350E-2	1.054236E-1	7.385407E-2	8.160360E-2	8.080756E-2	1.031595E-1	9.697178E-2	9.547123E-2	1.353324E-1	8.753805E-2	1.008108E-1	8.766081E-2	1.319087E-1	9.060704E-2	9.962214E-2	8.081751E-2	1.078649E-1	9.996806E-2	8.835960E-2	9.393493E-2	6.202287E-2	8.439236E-2	8.820099E-2	8.647205E-2	7.366112E-2	8.138720E-2	9.187072E-2	1.044709E-1	8.726170E-2	1.200878E-1	8.873618E-2	9.084909E-2	1.004196E-1	9.890042E-2	1.216755E-1	9.361243E-2	8.150728E-2	1.081175E-1	7.790623E-2	9.852493E-2	1.002127E-1	9.650458E-2	8.785270E-2	9.820368E-2	9.705113E-2	8.913665E-2	1.170861E-1	8.623097E-2	8.099697E-2	1.263129E-1	1.025053E-1	7.594033E-2	8.212120E-2	1.213019E-1	9.061605E-2	8.187380E-2	6.115556E-2	9.678900E-2	7.475402E-2	9.650159E-2	1.042473E-1	7.723370E-2	1.150096E-1	8.850478E-2	8.981196E-2	9.113043E-2	1.056016E-1	7.560895E-2	8.570797E-2	8.452670E-2	8.061456E-2	7.874765E-2	8.459756E-2	8.470608E-2	6.755620E-2	1.049181E-1	1.129363E-1	7.386141E-2	1.056220E-1	8.272475E-2	1.113259E-1	1.090188E-1	1.125615E-1	8.776603E-2	9.316207E-2	9.559808E-2	8.800169E-2	9.946159E-2	9.105139E-2	9.271394E-2	9.483402E-2	8.279631E-2	1.059894E-1	9.462853E-2	1.186169E-1	9.660641E-2	1.003219E-1	1.043703E-1	1.141764E-1	8.828739E-2	9.180923E-2	1.027228E-1	8.628057E-2	7.931023E-2	8.442763E-2	7.744159E-2	7.550467E-2	1.089612E-1	8.048039E-2	1.160569E-1	8.449727E-2	9.940669E-2	1.053277E-1	7.696862E-2	1.095909E-1	7.791096E-2	9.430541E-2	8.448782E-2	7.870435E-2	8.146192E-2	7.703495E-2	9.290689E-2	7.187992E-2	8.928262E-2	1.115773E-1	9.923035E-2	6.149354E-2	8.584599E-2	8.727680E-2	9.452674E-2	8.581451E-2	9.780705E-2	8.228316E-2	9.562498E-2	8.708322E-2	8.306097E-2	9.086082E-2	6.650967E-2	8.391822E-2	9.085934E-2	8.447072E-2	8.401301E-2	8.815857E-2	9.793202E-2	9.742623E-2	1.176697E-1	9.050101E-2	1.025085E-1	9.443186E-2	1.034530E-1	7.974152E-2	8.206579E-2	7.207241E-2	1.137811E-1
2.846030E+2	1.513577E-1	1.443180E-1	1.386291E-1	1.492767E-1	1.199995E-1	1.366649E-1	1.019140E-1	1.202781E-1	1.422187E-1	1.295473E-1	1.321880E-1	1.174840E-1	1.138337E-1	1.219842E-1	1.368189E-1	1.497228E-1	1.527238E-1	1.717606E-1	1.498954E-1	1.548364E-1	1.049389E-1	1.326679E-1	1.364093E-1	1.560944E-1	1.578294E-1	1.836093E-1	1.404383E-1	1.377105E-1	1.476717E-1	1.674957E-1	1.631567E-1	1.490807E-1	1.317522E-1	1.603733E-1	1.716256E-1	1.553621E-1	1.348396E-1	1.490890E-1	1.472796E-1	1.598602E-1	1.521485E-1	1.449744E-1	1.412750E-1	1.604838E-1	1.602166E-1	1.317298E-1	1.620773E-1	1.429627E-1	1.394122E-1	1.425247E-1	1.530482E-1	1.586440E-1	1.306876E-1	1.548533E-1	1.425519E-1	1.617595E-1	1.207878E-1	1.428133E-1	1.685120E-1	1.438277E-1	1.417843E-1	1.352352E-1	1.466962E-1	1.541182E-1	1.474209E-1	1.304870E-1	1.552750E-1	1.816469E-1	1.235203E-1	1.405022E-1	1.605377E-1	1.469680E-1	1.413675E-1	1.295203E-1	1.606978E-1	1.216574E-1	1.340603E-1	1.477617E-1	1.649216E-1	1.709311E-1	1.357464E-1	1.371661E-1	1.694225E-1	1.518093E-1	1.406888E-1	1.339863E-1	1.437393E-1	1.510721E-1	1.433304E-1	1.449870E-1	1.248586E-1	1.075588E-1	1.525289E-1	1.564461E-1	1.181424E-1	1.498129E-1	1.357956E-1	1.263579E-1	1.735506E-1	1.364013E-1	1.399864E-1	1.325103E-1	1.309548E-1	1.253314E-1	1.302931E-1	1.384122E-1	1.495593E-1	1.306152E-1	1.493798E-1	1.543145E-1	1.304258E-1	1.831712E-1	1.203550E-1	1.626673E-1	1.659706E-1	1.750383E-1	1.368739E-1	1.225013E-1	1.362484E-1	1.309641E-1	1.379790E-1	1.325733E-1	1.523610E-1	1.247988E-1	1.472678E-1	1.568948E-1	1.489928E-1	1.453464E-1	1.544790E-1	1.611496E-1	1.601510E-1	1.690313E-1	1.127124E-1	1.496587E-1	1.315175E-1	1.403197E-1	1.169293E-1	1.593446E-1	1.098556E-1	1.168915E-1	1.526946E-1	1.661022E-1	1.670926E-1	1.235155E-1	1.447315E-1	1.610008E-1	1.667335E-1	1.678702E-1	1.510573E-1	1.282786E-1	1.305312E-1	1.355568E-1	1.409729E-1	1.479156E-1	1.316159E-1	1.195681E-1	1.696140E-1	1.360631E-1	1.360167E-1	1.169077E-1	1.361232E-1	1.577135E-1	1.750571E-1	1.305419E-1	1.130055E-1	1.139905E-1	1.669316E-1	1.272853E-1	1.613661E-1	1.343858E-1	1.463029E-1
2.847020E+2	2.441051E-1	2.710853E-1	2.127293E-1	2.423614E-1	2.402937E-1	2.591043E-1	2.187906E-1	2.318447E-1	2.428114E-1	2.538979E-1	2.448761E-1	2.237172E-1	2.380772E-1	2.483356E-1	2.613786E-1	2.559892E-1	2.129525E-1	2.889858E-1	2.805873E-1	2.731130E-1	2.304677E-1	2.413753E-1	3.212157E-1	2.878533E-1	3.247883E-1	3.378602E-1	2.763516E-1	2.503522E-1	2.703023E-1	3.286255E-1	3.058642E-1	3.217520E-1	2.883292E-1	3.189078E-1	3.318600E-1	3.238834E-1	2.693525E-1	2.804950E-1	2.811398E-1	3.089437E-1	2.178247E-1	2.743948E-1	2.870027E-1	2.510522E-1	2.959850E-1	2.711208E-1	2.507213E-1	2.800786E-1	2.354829E-1	2.999180E-1	3.257078E-1	3.172188E-1	2.428886E-1	2.640391E-1	2.765669E-1	2.753104E-1	2.501251E-1	2.502020E-1	3.071528E-1	3.159774E-1	2.918954E-1	2.586672E-1	3.064737E-1	3.098426E-1	2.606222E-1	2.738022E-1	3.220959E-1	2.886553E-1	2.403073E-1	2.521874E-1	2.910193E-1	2.444658E-1	2.761583E-1	1.885201E-1	2.645496E-1	2.633054E-1	2.744589E-1	2.744372E-1	2.969245E-1	2.638466E-1	2.563631E-1	2.946450E-1	2.749464E-1	2.809807E-1	2.580038E-1	2.598888E-1	2.264623E-1	2.627735E-1	2.601488E-1	2.697915E-1	1.869125E-1	2.656646E-1	2.896479E-1	2.954880E-1	2.483799E-1	2.515350E-1	2.763348E-1	2.981518E-1	2.872494E-1	3.080487E-1	2.904516E-1	2.404885E-1	2.412339E-1	2.400519E-1	2.404056E-1	2.732869E-1	2.735852E-1	2.263540E-1	2.815376E-1	3.039357E-1	2.785870E-1	2.795731E-1	2.662400E-1	2.967093E-1	3.115711E-1	2.917734E-1	2.464315E-1	2.549153E-1	2.591760E-1	2.555625E-1	2.676685E-1	2.423456E-1	2.978569E-1	2.652401E-1	2.700453E-1	2.467937E-1	2.749248E-1	2.686255E-1	2.527450E-1	2.910625E-1	3.144763E-1	3.166070E-1	2.385329E-1	3.042661E-1	2.238668E-1	2.670711E-1	2.578134E-1	2.339720E-1	2.683765E-1	2.196354E-1	2.550595E-1	3.157978E-1	2.932471E-1	2.818102E-1	3.096114E-1	3.188322E-1	2.880409E-1	2.762256E-1	2.290965E-1	2.897317E-1	2.502097E-1	2.175209E-1	2.661036E-1	2.650810E-1	2.256579E-1	2.420575E-1	2.877457E-1	3.011585E-1	2.564923E-1	2.833043E-1	2.590513E-1	2.945202E-1	2.744599E-1	2.859382E-1	2.876371E-1	2.332981E-1	2.754593E-1	2.591109E-1	2.236738E-1	2.481754E-1	2.492885E-1
2.848000E+2	6.313272E-1	7.312056E-1	5.748808E-1	6.359094E-1	5.919245E-1	5.710128E-1	4.963740E-1	5.740450E-1	6.277732E-1	6.465823E-1	6.318287E-1	5.433917E-1	6.315165E-1	6.540374E-1	6.889816E-1	6.376622E-1	6.430211E-1	7.165140E-1	7.035229E-1	7.014664E-1	6.440679E-1	6.921629E-1	7.101605E-1	7.253608E-1	7.260933E-1	8.147430E-1	6.726962E-1	6.387711E-1	7.147311E-1	8.426597E-1	7.515250E-1	7.755561E-1	6.637372E-1	7.914823E-1	7.448855E-1	7.593995E-1	6.319894E-1	6.448834E-1	6.144421E-1	6.762990E-1	6.681783E-1	6.380043E-1	6.213756E-1	6.755375E-1	7.329592E-1	7.072509E-1	6.743478E-1	7.084680E-1	6.039287E-1	7.360069E-1	7.946474E-1	7.676505E-1	5.794913E-1	6.499386E-1	6.702363E-1	7.583391E-1	6.508593E-1	7.063826E-1	7.230760E-1	6.972417E-1	6.889635E-1	6.946758E-1	7.570262E-1	7.209939E-1	6.552973E-1	7.552988E-1	7.403073E-1	7.244904E-1	6.027795E-1	5.957049E-1	6.861141E-1	6.854429E-1	6.405587E-1	6.005813E-1	6.949352E-1	6.113285E-1	7.072794E-1	6.738028E-1	7.080210E-1	6.759435E-1	7.358159E-1	7.483631E-1	8.014328E-1	7.273057E-1	6.724595E-1	7.048076E-1	6.461752E-1	6.382606E-1	6.542931E-1	6.874849E-1	5.793118E-1	6.352133E-1	7.600426E-1	7.759875E-1	6.911907E-1	6.559223E-1	7.490596E-1	7.748785E-1	7.901866E-1	7.836541E-1	6.329826E-1	6.348857E-1	6.284740E-1	7.016653E-1	6.863619E-1	6.974746E-1	6.952745E-1	6.624969E-1	7.698165E-1	7.899731E-1	7.767644E-1	7.305927E-1	6.993708E-1	7.778077E-1	7.942926E-1	7.607092E-1	5.836797E-1	6.144505E-1	6.512401E-1	6.456831E-1	5.733636E-1	5.687745E-1	7.148006E-1	6.363406E-1	6.845433E-1	6.459472E-1	7.311840E-1	6.645398E-1	6.814449E-1	7.619968E-1	6.898907E-1	6.957954E-1	6.159952E-1	6.850586E-1	6.172068E-1	6.094756E-1	6.331754E-1	6.619816E-1	6.123376E-1	5.317809E-1	7.170617E-1	7.559611E-1	6.838893E-1	6.696791E-1	7.646361E-1	6.999122E-1	7.337974E-1	7.064927E-1	5.899121E-1	6.276564E-1	6.640972E-1	6.529008E-1	5.877218E-1	6.828035E-1	6.099655E-1	5.994705E-1	7.066761E-1	7.382861E-1	6.959226E-1	6.875350E-1	7.173459E-1	6.516076E-1	7.786486E-1	7.120865E-1	6.769793E-1	6.450099E-1	6.563291E-1	6.351381E-1	7.089163E-1	5.895449E-1	7.967384E-1
2.849020E+2	1.022028E+0	1.206585E+0	9.944338E-1	1.104867E+0	1.024984E+0	1.028599E+0	9.492728E-1	9.781242E-1	1.051425E+0	9.971950E-1	1.073469E+0	9.692988E-1	1.045662E+0	1.085524E+0	1.117344E+0	1.105232E+0	1.090970E+0	1.256669E+0	1.179097E+0	1.225720E+0	1.035137E+0	1.168880E+0	1.055803E+0	1.037866E+0	1.120358E+0	1.160924E+0	1.018583E+0	9.825214E-1	1.051313E+0	1.199519E+0	1.126231E+0	1.095736E+0	1.064611E+0	1.174187E+0	1.286298E+0	1.197962E+0	9.482132E-1	1.040711E+0	1.091486E+0	1.084014E+0	1.042533E+0	1.054440E+0	1.072531E+0	1.072577E+0	1.129474E+0	1.170746E+0	1.189419E+0	1.134534E+0	1.032552E+0	1.188137E+0	1.206375E+0	1.323149E+0	9.443872E-1	1.025838E+0	1.124399E+0	1.095499E+0	1.021910E+0	1.017011E+0	1.166942E+0	1.080618E+0	1.111211E+0	1.151109E+0	1.219487E+0	1.129296E+0	1.123400E+0	1.203803E+0	1.267416E+0	1.220519E+0	1.018023E+0	9.832196E-1	1.135044E+0	1.037866E+0	1.040282E+0	8.393898E-1	1.113338E+0	1.001564E+0	1.141889E+0	1.114749E+0	1.146461E+0	1.094063E+0	1.103697E+0	1.207587E+0	1.186085E+0	1.162077E+0	1.026974E+0	1.075889E+0	9.718454E-1	1.092798E+0	1.026592E+0	1.117255E+0	8.275275E-1	1.024763E+0	1.149498E+0	1.301889E+0	1.067144E+0	1.082823E+0	1.192300E+0	1.254827E+0	1.234738E+0	1.246147E+0	1.018882E+0	1.037518E+0	1.061172E+0	1.056753E+0	1.106994E+0	1.100041E+0	1.145903E+0	1.030946E+0	1.141070E+0	1.206310E+0	1.186444E+0	1.179031E+0	1.123456E+0	1.213186E+0	1.223255E+0	1.205700E+0	1.064782E+0	1.051153E+0	1.129913E+0	1.065880E+0	9.274353E-1	1.006901E+0	1.128485E+0	9.404754E-1	1.056805E+0	1.155675E+0	1.197131E+0	1.020942E+0	1.139300E+0	1.228869E+0	1.169284E+0	1.150821E+0	1.019334E+0	1.087802E+0	1.021662E+0	1.017899E+0	9.799677E-1	1.077920E+0	9.862078E-1	9.153589E-1	1.134675E+0	1.264527E+0	1.135434E+0	1.095501E+0	1.165059E+0	1.126681E+0	1.249836E+0	1.276675E+0	9.920431E-1	1.058511E+0	1.038923E+0	1.056552E+0	1.048949E+0	1.096449E+0	9.662412E-1	1.002589E+0	1.169359E+0	1.183856E+0	1.141422E+0	1.103091E+0	1.138641E+0	1.096807E+0	1.235698E+0	1.129655E+0	1.054870E+0	1.066500E+0	1.203063E+0	1.146233E+0	1.122412E+0	1.020321E+0	1.100276E+0
2.850030E+2	1.045215E+0	1.225364E+0	9.954777E-1	1.114294E+0	1.035163E+0	1.071498E+0	9.630704E-1	1.044689E+0	1.127837E+0	1.043008E+0	1.074297E+0	1.006335E+0	1.079112E+0	1.156865E+0	1.197092E+0	1.145968E+0	1.096616E+0	1.273909E+0	1.244443E+0	1.286456E+0	1.091464E+0	1.168878E+0	1.093692E+0	1.003238E+0	1.131421E+0	1.213910E+0	1.027536E+0	9.116347E-1	1.117412E+0	1.214346E+0	1.160512E+0	1.132179E+0	1.103285E+0	1.206499E+0	1.237531E+0	1.164460E+0	9.710254E-1	1.004434E+0	1.051059E+0	1.093074E+0	1.042534E+0	1.044755E+0	1.051571E+0	1.017687E+0	1.173532E+0	1.179298E+0	1.156760E+0	1.081856E+0	9.449268E-1	1.175104E+0	1.189007E+0	1.245321E+0	9.902426E-1	1.031672E+0	1.142081E+0	1.092006E+0	1.070676E+0	1.031211E+0	1.187363E+0	1.043654E+0	1.125738E+0	1.215932E+0	1.172844E+0	1.115053E+0	1.125440E+0	1.176995E+0	1.234979E+0	1.221633E+0	1.003316E+0	1.049216E+0	1.068434E+0	1.055756E+0	1.042141E+0	8.450090E-1	1.119330E+0	9.921825E-1	1.179448E+0	1.150528E+0	1.218119E+0	1.127616E+0	1.200191E+0	1.207586E+0	1.246223E+0	1.184131E+0	1.026974E+0	1.071155E+0	1.046731E+0	1.076473E+0	1.147210E+0	1.138393E+0	8.777176E-1	1.008572E+0	1.168541E+0	1.202572E+0	1.082773E+0	1.102834E+0	1.208025E+0	1.254827E+0	1.293124E+0	1.269987E+0	1.051631E+0	1.031113E+0	1.059489E+0	1.118666E+0	1.105892E+0	1.113425E+0	1.156239E+0	1.108311E+0	1.233883E+0	1.226755E+0	1.265992E+0	1.283178E+0	1.149466E+0	1.247477E+0	1.232214E+0	1.221664E+0	9.818991E-1	1.031862E+0	1.165301E+0	1.120015E+0	1.016983E+0	9.712731E-1	1.102426E+0	9.730279E-1	1.113774E+0	1.152979E+0	1.184538E+0	1.098386E+0	1.102586E+0	1.224810E+0	1.233859E+0	1.221535E+0	1.027365E+0	1.135521E+0	1.069547E+0	1.029340E+0	1.001642E+0	1.124014E+0	1.087901E+0	9.085080E-1	1.199899E+0	1.271468E+0	1.062352E+0	1.095500E+0	1.246428E+0	1.151602E+0	1.194958E+0	1.278780E+0	1.053556E+0	1.090426E+0	1.039754E+0	1.115602E+0	1.033437E+0	1.093393E+0	9.924642E-1	1.046466E+0	1.139827E+0	1.192298E+0	1.162223E+0	1.183239E+0	1.143416E+0	1.233614E+0	1.285911E+0	1.215457E+0	1.039602E+0	1.103661E+0	1.168252E+0	1.087884E+0	1.077098E+0	1.012191E+0	1.268305E+0
2.851000E+2	8.330533E-1	9.201836E-1	7.867446E-1	8.927760E-1	8.075277E-1	8.614735E-1	7.966827E-1	8.421823E-1	9.430938E-1	8.522761E-1	9.284644E-1	7.909445E-1	8.871719E-1	9.067397E-1	9.889872E-1	9.954252E-1	8.491152E-1	1.056697E+0	9.712599E-1	1.007281E+0	8.452355E-1	9.195494E-1	8.918745E-1	8.959724E-1	8.940574E-1	9.760569E-1	9.371981E-1	7.659773E-1	8.764986E-1	9.889618E-1	9.229330E-1	9.291386E-1	9.080342E-1	8.924596E-1	9.558770E-1	1.031471E+0	8.231399E-1	8.367510E-1	8.785682E-1	8.921004E-1	7.835804E-1	8.343362E-1	8.609277E-1	8.612498E-1	8.966007E-1	9.347228E-1	9.384159E-1	8.850917E-1	8.235189E-1	9.565579E-1	9.969354E-1	1.005999E+0	8.058435E-1	8.966485E-1	8.898721E-1	9.566168E-1	8.883310E-1	8.856591E-1	8.735402E-1	8.799531E-1	9.136452E-1	9.273320E-1	1.016044E+0	9.659746E-1	9.204527E-1	9.666630E-1	1.054254E+0	1.035483E+0	8.268382E-1	8.436119E-1	9.224409E-1	9.144283E-1	8.710967E-1	7.082798E-1	8.896577E-1	8.345879E-1	9.138529E-1	9.793712E-1	9.918278E-1	9.830806E-1	9.328221E-1	9.565007E-1	1.002269E+0	9.562430E-1	8.317340E-1	9.329472E-1	8.447119E-1	9.200906E-1	9.392163E-1	8.968345E-1	7.380962E-1	8.418943E-1	9.466758E-1	9.963742E-1	8.709191E-1	8.910513E-1	9.318594E-1	9.724424E-1	1.045241E+0	9.946353E-1	8.763822E-1	8.590786E-1	8.313543E-1	8.892243E-1	8.647443E-1	9.044214E-1	9.888036E-1	8.520395E-1	9.130723E-1	9.702615E-1	1.094962E+0	1.006024E+0	9.142403E-1	9.928997E-1	1.036214E+0	1.000167E+0	8.485248E-1	8.442019E-1	9.706648E-1	8.965977E-1	8.275957E-1	8.422422E-1	9.276155E-1	7.870127E-1	8.858983E-1	9.102506E-1	9.646414E-1	8.755362E-1	9.794835E-1	9.883283E-1	1.023714E+0	9.776243E-1	8.203415E-1	8.873844E-1	8.053250E-1	8.664998E-1	8.134688E-1	9.165928E-1	8.017659E-1	7.382472E-1	9.562157E-1	1.037506E+0	9.605588E-1	9.242467E-1	9.263044E-1	9.179696E-1	1.002407E+0	1.033663E+0	8.469824E-1	9.655817E-1	8.727028E-1	8.961482E-1	8.607358E-1	8.468355E-1	7.844865E-1	8.910689E-1	9.276266E-1	1.003752E+0	9.108719E-1	9.706703E-1	9.942306E-1	1.021448E+0	1.057387E+0	1.033367E+0	8.439768E-1	9.198091E-1	9.389112E-1	9.290448E-1	8.826235E-1	7.954501E-1	8.726228E-1
2.852010E+2	7.576963E-1	8.744064E-1	7.293435E-1	7.443114E-1	8.195585E-1	7.801449E-1	7.171418E-1	7.465529E-1	8.995677E-1	7.653238E-1	7.577750E-1	6.681430E-1	7.979716E-1	8.465736E-1	8.082242E-1	7.952897E-1	8.227654E-1	8.509786E-1	8.133402E-1	8.858070E-1	7.430428E-1	8.287941E-1	7.952181E-1	7.532332E-1	7.773883E-1	9.489754E-1	7.508262E-1	7.329624E-1	8.017030E-1	8.841781E-1	8.073319E-1	7.894393E-1	7.844705E-1	8.621661E-1	8.812331E-1	8.720863E-1	6.768268E-1	7.287242E-1	7.779489E-1	8.097331E-1	7.516806E-1	7.630235E-1	7.990435E-1	7.624471E-1	8.282669E-1	7.970427E-1	7.863198E-1	7.952309E-1	6.799400E-1	8.392653E-1	8.559475E-1	8.581254E-1	6.809588E-1	7.416219E-1	8.600906E-1	8.238500E-1	7.897385E-1	7.906956E-1	9.133044E-1	7.775076E-1	8.284219E-1	8.012359E-1	8.919938E-1	8.776672E-1	8.062320E-1	8.202542E-1	9.082860E-1	9.017230E-1	7.057257E-1	6.701616E-1	8.540063E-1	7.543174E-1	7.641939E-1	6.558353E-1	7.598428E-1	7.126384E-1	7.958110E-1	7.927417E-1	8.173949E-1	8.196174E-1	8.604531E-1	8.452734E-1	8.615701E-1	8.963831E-1	7.683676E-1	7.492996E-1	7.297700E-1	7.516801E-1	7.654130E-1	7.750491E-1	6.559667E-1	7.371255E-1	8.266972E-1	8.857072E-1	7.849625E-1	7.709859E-1	7.952506E-1	8.468181E-1	8.936420E-1	8.945089E-1	8.179665E-1	7.437794E-1	7.673744E-1	7.298900E-1	7.887676E-1	7.438060E-1	7.996637E-1	8.094894E-1	8.111793E-1	8.745407E-1	8.940994E-1	8.502335E-1	8.316853E-1	9.243195E-1	9.309334E-1	8.774452E-1	7.684994E-1	7.538791E-1	7.816179E-1	7.668439E-1	7.195216E-1	7.266919E-1	8.537810E-1	7.126063E-1	7.808013E-1	8.653006E-1	8.513038E-1	8.012526E-1	8.563803E-1	9.314917E-1	8.267036E-1	8.874395E-1	7.507388E-1	7.757234E-1	7.694118E-1	7.344680E-1	8.144528E-1	7.750213E-1	8.047565E-1	7.108492E-1	8.583804E-1	8.888025E-1	8.161338E-1	8.492652E-1	8.299461E-1	7.923269E-1	8.791737E-1	8.874354E-1	7.101841E-1	7.130768E-1	6.998348E-1	7.754066E-1	7.397411E-1	7.510644E-1	7.673056E-1	7.201323E-1	7.821489E-1	8.733640E-1	7.817291E-1	8.338941E-1	8.283382E-1	8.776855E-1	9.016220E-1	8.979914E-1	7.685893E-1	7.662733E-1	7.996677E-1	7.777693E-1	8.373079E-1	8.496348E-1	8.672026E-1
2.853000E+2	6.324868E-1	6.607787E-1	5.790555E-1	6.229479E-1	7.149944E-1	5.710130E-1	5.832200E-1	5.806090E-1	6.654954E-1	5.484120E-1	6.484013E-1	5.745794E-1	6.171806E-1	6.454413E-1	7.049311E-1	6.341195E-1	6.401978E-1	7.004251E-1	6.672191E-1	7.483509E-1	6.810823E-1	6.492781E-1	6.320628E-1	5.809325E-1	6.969254E-1	6.911066E-1	5.864285E-1	5.756523E-1	6.460228E-1	6.924035E-1	6.534630E-1	6.723007E-1	6.344962E-1	6.319378E-1	6.483471E-1	6.720940E-1	7.004261E-1	5.820017E-1	6.126458E-1	6.227602E-1	7.319777E-1	6.063091E-1	6.064034E-1	6.197328E-1	7.302621E-1	6.662036E-1	7.368659E-1	6.325502E-1	5.638115E-1	6.838767E-1	6.751136E-1	7.384646E-1	5.355857E-1	5.974303E-1	7.000176E-1	6.779805E-1	6.211755E-1	6.557935E-1	6.833109E-1	6.074699E-1	6.153613E-1	6.183079E-1	7.351930E-1	7.162456E-1	6.522370E-1	7.078711E-1	7.414651E-1	6.865916E-1	6.027795E-1	5.703216E-1	6.660402E-1	5.807884E-1	6.461351E-1	5.472007E-1	6.140505E-1	5.822478E-1	6.643552E-1	6.380243E-1	6.750201E-1	6.148605E-1	6.714869E-1	7.439583E-1	7.129292E-1	6.810979E-1	5.756964E-1	6.574755E-1	5.573568E-1	6.090464E-1	5.754635E-1	6.160241E-1	4.652420E-1	6.123550E-1	6.905302E-1	7.126149E-1	6.225984E-1	6.250726E-1	6.792813E-1	6.621394E-1	7.358988E-1	7.669662E-1	5.710260E-1	6.129243E-1	6.453110E-1	6.433945E-1	6.048790E-1	6.171676E-1	6.363625E-1	5.977033E-1	6.346318E-1	6.979691E-1	6.972149E-1	7.150999E-1	6.688376E-1	7.061109E-1	7.270937E-1	7.357657E-1	6.113079E-1	6.337428E-1	6.177145E-1	6.027180E-1	5.702760E-1	6.352147E-1	6.496524E-1	5.321721E-1	6.040006E-1	6.998862E-1	7.001857E-1	6.360907E-1	6.652474E-1	7.061738E-1	7.303874E-1	7.378133E-1	5.936863E-1	6.277971E-1	5.889881E-1	6.147571E-1	5.730786E-1	5.895494E-1	6.093471E-1	5.552659E-1	7.052851E-1	7.143236E-1	6.203772E-1	6.307996E-1	7.089624E-1	6.646083E-1	7.771212E-1	6.938682E-1	6.165374E-1	6.220238E-1	5.892981E-1	6.097152E-1	5.732440E-1	6.318614E-1	5.909758E-1	5.720480E-1	6.651116E-1	7.251536E-1	6.569204E-1	6.605283E-1	6.684127E-1	6.805930E-1	7.571286E-1	7.225741E-1	6.225857E-1	6.645674E-1	6.573531E-1	6.275747E-1	6.484978E-1	5.218128E-1	7.696375E-1
2.854010E+2	4.261230E-1	5.328373E-1	3.985008E-1	4.968707E-1	5.160460E-1	4.333802E-1	3.997882E-1	4.362280E-1	5.445906E-1	4.212569E-1	4.644533E-1	4.079200E-1	4.483365E-1	4.546247E-1	5.127757E-1	4.667505E-1	4.802160E-1	5.268843E-1	5.074839E-1	5.086011E-1	5.338284E-1	5.266072E-1	4.735466E-1	4.880255E-1	5.541057E-1	5.262570E-1	4.781863E-1	3.998928E-1	4.451167E-1	5.095257E-1	4.788666E-1	5.057036E-1	4.798054E-1	5.673119E-1	5.279235E-1	5.238760E-1	5.226471E-1	4.626883E-1	4.751918E-1	4.860323E-1	5.499599E-1	4.513574E-1	4.796410E-1	4.852515E-1	5.117745E-1	5.379301E-1	5.017248E-1	5.109283E-1	4.561282E-1	4.974109E-1	5.657963E-1	5.195723E-1	4.750951E-1	4.482372E-1	5.138853E-1	5.041597E-1	5.321243E-1	4.472296E-1	5.038305E-1	4.194791E-1	5.185138E-1	4.522514E-1	5.119020E-1	5.073471E-1	4.574500E-1	4.882592E-1	5.700104E-1	5.160479E-1	4.920482E-1	4.450983E-1	5.200469E-1	4.752407E-1	4.946121E-1	3.711377E-1	5.002134E-1	4.499805E-1	5.060715E-1	5.219860E-1	4.968153E-1	4.694650E-1	4.533707E-1	5.479349E-1	5.858460E-1	5.487749E-1	4.318356E-1	4.728818E-1	4.685379E-1	4.621163E-1	4.424999E-1	4.851801E-1	3.876747E-1	4.190079E-1	5.010396E-1	5.461424E-1	4.697856E-1	5.116772E-1	5.141716E-1	5.107469E-1	4.992822E-1	5.583670E-1	4.860570E-1	4.317387E-1	4.912562E-1	4.676718E-1	4.606306E-1	4.730257E-1	5.102689E-1	4.478098E-1	5.276949E-1	4.898006E-1	5.092802E-1	5.248798E-1	5.127733E-1	5.263482E-1	5.266121E-1	5.262418E-1	4.483996E-1	4.408213E-1	4.715055E-1	4.549187E-1	4.724938E-1	4.262630E-1	5.247865E-1	4.131225E-1	4.763119E-1	4.958148E-1	5.316312E-1	4.598652E-1	4.676347E-1	5.326190E-1	5.793453E-1	4.785310E-1	4.384181E-1	4.989570E-1	4.684217E-1	4.519173E-1	4.578096E-1	4.655354E-1	4.607954E-1	3.869617E-1	5.087073E-1	5.814819E-1	4.524626E-1	4.854649E-1	5.440828E-1	4.828937E-1	5.489485E-1	5.676287E-1	3.989467E-1	4.746518E-1	4.654643E-1	4.642948E-1	4.625909E-1	4.922805E-1	4.354446E-1	4.559569E-1	5.316660E-1	5.000238E-1	5.416453E-1	4.950025E-1	5.442910E-1	5.078445E-1	5.613962E-1	5.128364E-1	4.489092E-1	4.777828E-1	5.232299E-1	4.373996E-1	4.672393E-1	4.757551E-1	5.257236E-1
2.855000E+2	3.611992E-1	3.215578E-1	2.899603E-1	3.425159E-1	3.753935E-1	2.787662E-1	2.845345E-1	3.049730E-1	3.830614E-1	2.978406E-1	3.260783E-1	2.666001E-1	3.686930E-1	3.308512E-1	3.623929E-1	3.294897E-1	3.183521E-1	3.395534E-1	3.622699E-1	3.764719E-1	3.833547E-1	3.301368E-1	3.281757E-1	3.030560E-1	3.589854E-1	3.849593E-1	3.194856E-1	3.076436E-1	3.651025E-1	3.780521E-1	3.401450E-1	3.920354E-1	3.439799E-1	3.481913E-1	3.447977E-1	3.238838E-1	3.928542E-1	3.216092E-1	3.296527E-1	3.550691E-1	3.848309E-1	3.148941E-1	3.099590E-1	3.050282E-1	3.733091E-1	3.378229E-1	3.580282E-1	3.288827E-1	3.178289E-1	3.500427E-1	3.369465E-1	3.785090E-1	3.365522E-1	3.307173E-1	3.547425E-1	3.478087E-1	3.561401E-1	3.336277E-1	3.512167E-1	3.349881E-1	3.625928E-1	3.678912E-1	3.769339E-1	3.563709E-1	3.575068E-1	3.325715E-1	3.904464E-1	4.123839E-1	4.020788E-1	2.843395E-1	3.694908E-1	3.061849E-1	3.793426E-1	2.662502E-1	3.434373E-1	3.073944E-1	3.951833E-1	3.179515E-1	3.846124E-1	3.559014E-1	3.267233E-1	3.728355E-1	3.577773E-1	3.607939E-1	3.325034E-1	3.422459E-1	3.326973E-1	3.126093E-1	3.703189E-1	3.362198E-1	2.882062E-1	2.866183E-1	3.839171E-1	3.721029E-1	3.343379E-1	3.140691E-1	3.411999E-1	3.990797E-1	3.630479E-1	4.081757E-1	3.223155E-1	3.136947E-1	3.186822E-1	3.201740E-1	3.196867E-1	3.103524E-1	3.552362E-1	3.588408E-1	4.076433E-1	4.024444E-1	3.481921E-1	3.613417E-1	3.352243E-1	3.808762E-1	3.944515E-1	3.765811E-1	3.169296E-1	3.040224E-1	3.327464E-1	3.208685E-1	3.139857E-1	2.644924E-1	3.695186E-1	2.968627E-1	3.044229E-1	3.321982E-1	3.989188E-1	3.595036E-1	3.294146E-1	4.027061E-1	3.199485E-1	3.893704E-1	3.072432E-1	3.481673E-1	2.922736E-1	3.013995E-1	3.228373E-1	3.393288E-1	3.381662E-1	2.920456E-1	3.510843E-1	3.584252E-1	3.132575E-1	3.697517E-1	3.395888E-1	3.780196E-1	3.997204E-1	4.108812E-1	2.924457E-1	3.207080E-1	3.266707E-1	3.391455E-1	3.064354E-1	3.180603E-1	3.034237E-1	3.316394E-1	3.435308E-1	3.762021E-1	3.448980E-1	3.277350E-1	3.783983E-1	3.803143E-1	3.789868E-1	3.650666E-1	3.563439E-1	2.988198E-1	3.860346E-1	3.466344E-1	3.237436E-1	3.294541E-1	3.847963E-1
2.856010E+2	2.499019E-1	3.133415E-1	2.043799E-1	2.458962E-1	2.550994E-1	2.188871E-1	2.066162E-1	1.990313E-1	3.076167E-1	2.305235E-1	2.539909E-1	2.432092E-1	2.301128E-1	2.440379E-1	2.636570E-1	2.179100E-1	2.553005E-1	2.717467E-1	2.442844E-1	2.741789E-1	2.385138E-1	3.052038E-1	2.601293E-1	2.591364E-1	2.805339E-1	2.507258E-1	2.315897E-1	2.192787E-1	2.442113E-1	2.396583E-1	2.460703E-1	2.705580E-1	2.638051E-1	2.684188E-1	2.990164E-1	2.913972E-1	3.000316E-1	2.659830E-1	2.586798E-1	2.208115E-1	2.825630E-1	2.039621E-1	2.710317E-1	2.245223E-1	2.654144E-1	2.634238E-1	2.572529E-1	2.514152E-1	2.692654E-1	2.277374E-1	2.797334E-1	2.753863E-1	2.760604E-1	2.373676E-1	2.393400E-1	2.657025E-1	3.137343E-1	2.191388E-1	2.544908E-1	2.346553E-1	2.589678E-1	2.524516E-1	2.876178E-1	2.224851E-1	2.565427E-1	2.212190E-1	3.244127E-1	2.797375E-1	2.904826E-1	2.268044E-1	2.390089E-1	2.346264E-1	2.854544E-1	2.381544E-1	2.575592E-1	2.248444E-1	2.771410E-1	2.531633E-1	2.733532E-1	2.302937E-1	2.814918E-1	3.111642E-1	2.726770E-1	2.935828E-1	2.973949E-1	2.381157E-1	2.430073E-1	2.266850E-1	2.933898E-1	2.174541E-1	1.923879E-1	2.237575E-1	2.877429E-1	2.794085E-1	2.553267E-1	2.532028E-1	2.891113E-1	2.466136E-1	2.677870E-1	2.901684E-1	2.559332E-1	2.368289E-1	2.361829E-1	2.464251E-1	2.965633E-1	2.423998E-1	2.301760E-1	1.992762E-1	2.785110E-1	2.574696E-1	2.815699E-1	2.778511E-1	2.458836E-1	2.832015E-1	2.622911E-1	2.678280E-1	2.540535E-1	2.321157E-1	2.414816E-1	2.452506E-1	2.213502E-1	2.442713E-1	2.848271E-1	2.094356E-1	2.759390E-1	2.872486E-1	2.739558E-1	2.686251E-1	2.711027E-1	2.585838E-1	2.488055E-1	2.561420E-1	2.545952E-1	2.403235E-1	2.563597E-1	2.204194E-1	2.144643E-1	2.164126E-1	2.245092E-1	2.255065E-1	2.360359E-1	2.880392E-1	2.366950E-1	2.318222E-1	2.849862E-1	2.513389E-1	2.967061E-1	3.119939E-1	2.254242E-1	2.427975E-1	2.335874E-1	2.510111E-1	2.433530E-1	2.406291E-1	2.256580E-1	1.963526E-1	2.549308E-1	2.383097E-1	2.642923E-1	2.353889E-1	2.316012E-1	2.690139E-1	3.062281E-1	2.897521E-1	2.389692E-1	2.430777E-1	2.539582E-1	2.699161E-1	2.557715E-1	2.265013E-1	3.089117E-1
2.858040E+2	2.081657E-1	2.405676E-1	2.064673E-1	2.411831E-1	2.356674E-1	2.019065E-1	2.171676E-1	2.177820E-1	2.379757E-1	2.417426E-1	2.125612E-1	2.373618E-1	2.325023E-1	2.517738E-1	2.241623E-1	2.843266E-1	2.298915E-1	2.602542E-1	2.533602E-1	2.656541E-1	2.698963E-1	2.413750E-1	2.423445E-1	2.726505E-1	2.825458E-1	3.001804E-1	2.494940E-1	2.115103E-1	2.363831E-1	2.663486E-1	2.572315E-1	2.922506E-1	2.628618E-1	2.462038E-1	2.960314E-1	2.893673E-1	2.685665E-1	2.127762E-1	2.470005E-1	2.364604E-1	2.656750E-1	2.286136E-1	2.420859E-1	2.419043E-1	2.735064E-1	2.548725E-1	2.712501E-1	2.638102E-1	2.302040E-1	2.788647E-1	2.715599E-1	2.676034E-1	2.711826E-1	2.607048E-1	2.393401E-1	2.657027E-1	2.490653E-1	2.599644E-1	2.448185E-1	2.135328E-1	2.938322E-1	2.311387E-1	2.826554E-1	2.671136E-1	2.687811E-1	2.315293E-1	2.271007E-1	2.730494E-1	2.437675E-1	2.327272E-1	2.536082E-1	2.212096E-1	2.519889E-1	1.707264E-1	2.345920E-1	2.117118E-1	2.726704E-1	2.454272E-1	2.676955E-1	2.569636E-1	2.684253E-1	2.505950E-1	2.817543E-1	2.578772E-1	2.511531E-1	2.333827E-1	2.255919E-1	2.120784E-1	2.876913E-1	2.456356E-1	2.115515E-1	2.342340E-1	2.629858E-1	2.737330E-1	2.527217E-1	2.440308E-1	2.665072E-1	2.455397E-1	2.729089E-1	2.889762E-1	2.798306E-1	1.892447E-1	2.454431E-1	2.673664E-1	2.910577E-1	2.290154E-1	2.622166E-1	2.466626E-1	2.714490E-1	2.388831E-1	2.398062E-1	2.812939E-1	2.402292E-1	2.946311E-1	2.802107E-1	2.478730E-1	2.835867E-1	2.172080E-1	2.582447E-1	2.392353E-1	2.759019E-1	2.317536E-1	2.609400E-1	2.354776E-1	2.896897E-1	2.396018E-1	2.468316E-1	2.393858E-1	2.711025E-1	2.717778E-1	3.079088E-1	2.735639E-1	2.742269E-1	2.374604E-1	2.221566E-1	2.186591E-1	2.814583E-1	2.295823E-1	2.633916E-1	1.853875E-1	2.786129E-1	2.781250E-1	2.366947E-1	2.623704E-1	2.528668E-1	2.461464E-1	2.726373E-1	3.056819E-1	2.318505E-1	2.474909E-1	2.103165E-1	2.554182E-1	2.299093E-1	2.447048E-1	2.093815E-1	2.210332E-1	2.593060E-1	2.617611E-1	2.677589E-1	2.414873E-1	2.590513E-1	2.527821E-1	2.877823E-1	2.506643E-1	2.017526E-1	2.303648E-1	2.539583E-1	2.569498E-1	2.576598E-1	2.129550E-1	2.872305E-1
2.860080E+2	4.040953E-1	4.694537E-1	3.577986E-1	3.766858E-1	4.151833E-1	3.377521E-1	3.316097E-1	3.771630E-1	4.352933E-1	3.745079E-1	4.354525E-1	3.309254E-1	3.949755E-1	3.729688E-1	4.239132E-1	4.074182E-1	4.416322E-1	4.452865E-1	3.967588E-1	4.340126E-1	4.195649E-1	4.119162E-1	4.356566E-1	4.356597E-1	4.495045E-1	4.791581E-1	3.959875E-1	3.328910E-1	4.416380E-1	4.689966E-1	4.063171E-1	4.466998E-1	4.335877E-1	4.592666E-1	4.672136E-1	4.365695E-1	4.494912E-1	3.917462E-1	4.132031E-1	4.283756E-1	4.964803E-1	4.002939E-1	3.778320E-1	3.882780E-1	4.668187E-1	3.985389E-1	4.168127E-1	4.481804E-1	4.265682E-1	4.713461E-1	4.677175E-1	4.796852E-1	4.692415E-1	3.498876E-1	4.357104E-1	4.072049E-1	4.600337E-1	4.064041E-1	4.146263E-1	3.951877E-1	4.110153E-1	4.087393E-1	4.751830E-1	4.123934E-1	4.401128E-1	4.532038E-1	4.553217E-1	4.525112E-1	4.340878E-1	3.697956E-1	3.941276E-1	3.768479E-1	4.788092E-1	4.217093E-1	3.973594E-1	4.096431E-1	4.345313E-1	4.388248E-1	4.242141E-1	4.049405E-1	4.724684E-1	4.554293E-1	4.349360E-1	4.584607E-1	4.669444E-1	3.706457E-1	3.657871E-1	4.062660E-1	4.937864E-1	3.875510E-1	3.201461E-1	3.818629E-1	4.848515E-1	5.111458E-1	3.916427E-1	4.066198E-1	4.630665E-1	4.377346E-1	4.900630E-1	4.463188E-1	4.364919E-1	3.869010E-1	3.961300E-1	3.893709E-1	4.562271E-1	3.680086E-1	4.472221E-1	3.984902E-1	4.873411E-1	4.163830E-1	4.446457E-1	4.086811E-1	4.664085E-1	4.837458E-1	4.638919E-1	4.723641E-1	4.750742E-1	4.022369E-1	3.746534E-1	3.999246E-1	4.889630E-1	3.761912E-1	4.628965E-1	3.442968E-1	4.311305E-1	3.933296E-1	4.124803E-1	4.235133E-1	4.773536E-1	4.361990E-1	3.954694E-1	4.098676E-1	4.491260E-1	3.853876E-1	3.589705E-1	3.542131E-1	4.381055E-1	3.667649E-1	3.660814E-1	3.546703E-1	4.661307E-1	4.615264E-1	4.020004E-1	4.502882E-1	4.445129E-1	4.475900E-1	5.268046E-1	4.540130E-1	4.733130E-1	4.051895E-1	3.823546E-1	4.087710E-1	4.522495E-1	3.934550E-1	3.848070E-1	3.663760E-1	4.496294E-1	4.371746E-1	4.402384E-1	4.157244E-1	4.118163E-1	3.895880E-1	4.999107E-1	4.480087E-1	4.097838E-1	4.191066E-1	4.280120E-1	3.790505E-1	4.880086E-1	3.538373E-1	5.040430E-1
2.862000E+2	6.150967E-1	7.077304E-1	5.686185E-1	7.030715E-1	6.983378E-1	5.951443E-1	5.767272E-1	5.965467E-1	6.432497E-1	6.344284E-1	6.459148E-1	5.502133E-1	6.848779E-1	7.331135E-1	6.631586E-1	6.217223E-1	6.298469E-1	7.417976E-1	7.116901E-1	6.524507E-1	6.907388E-1	6.462864E-1	6.367023E-1	5.944463E-1	7.281054E-1	6.628467E-1	6.303765E-1	5.950731E-1	6.399346E-1	7.368873E-1	6.733946E-1	6.740361E-1	6.552475E-1	6.874761E-1	7.140332E-1	7.035644E-1	7.067186E-1	5.973189E-1	6.198318E-1	5.906380E-1	6.935097E-1	5.913426E-1	6.583073E-1	6.014358E-1	6.745164E-1	6.371276E-1	6.556867E-1	6.433960E-1	6.408795E-1	6.928997E-1	7.507156E-1	7.336000E-1	7.082779E-1	6.107655E-1	6.693048E-1	6.631319E-1	7.314297E-1	6.664445E-1	6.919084E-1	6.307055E-1	6.424779E-1	6.786918E-1	6.587774E-1	7.143466E-1	6.818128E-1	6.924054E-1	7.634771E-1	6.921654E-1	6.944787E-1	5.838585E-1	6.523530E-1	6.389299E-1	7.307286E-1	5.940256E-1	6.240369E-1	6.028848E-1	7.001253E-1	7.124815E-1	6.618197E-1	6.380891E-1	7.167185E-1	6.866927E-1	6.947749E-1	7.441077E-1	6.947240E-1	6.726224E-1	5.826094E-1	6.477118E-1	8.166993E-1	6.130053E-1	4.834936E-1	6.228312E-1	7.667078E-1	7.107235E-1	6.451732E-1	6.350776E-1	7.353006E-1	7.351518E-1	7.072172E-1	7.514694E-1	7.179515E-1	5.891324E-1	6.091120E-1	6.361113E-1	7.028790E-1	6.449663E-1	6.249926E-1	6.489583E-1	7.496399E-1	6.793826E-1	7.091471E-1	7.426429E-1	7.536536E-1	7.237755E-1	7.786129E-1	7.118204E-1	7.675464E-1	6.530343E-1	6.372713E-1	6.534167E-1	7.277560E-1	5.668482E-1	6.442225E-1	5.665844E-1	7.729434E-1	6.711188E-1	7.156855E-1	6.518956E-1	7.084411E-1	7.213983E-1	6.887963E-1	6.834968E-1	7.453850E-1	6.363852E-1	5.453794E-1	5.918725E-1	7.888383E-1	6.180838E-1	5.674725E-1	5.816850E-1	7.270265E-1	6.687212E-1	6.360377E-1	6.743073E-1	6.768426E-1	6.656460E-1	7.318721E-1	7.348974E-1	7.625168E-1	6.454913E-1	5.793251E-1	5.973767E-1	7.056146E-1	6.379751E-1	5.701789E-1	5.784469E-1	7.569906E-1	7.120215E-1	6.309182E-1	6.779518E-1	7.125715E-1	7.037795E-1	7.653265E-1	6.558389E-1	7.418695E-1	6.205606E-1	7.054740E-1	6.146087E-1	8.052113E-1	6.085096E-1	6.991733E-1
2.864000E+2	8.203008E-1	8.755795E-1	7.397795E-1	8.974892E-1	9.444795E-1	7.846129E-1	7.406791E-1	7.906172E-1	8.966662E-1	7.821534E-1	7.677179E-1	7.500106E-1	8.385891E-1	8.431348E-1	8.788591E-1	8.652483E-1	8.397044E-1	9.302775E-1	9.022836E-1	9.444129E-1	8.870779E-1	8.646976E-1	8.029506E-1	7.515440E-1	9.061278E-1	9.136505E-1	7.760558E-1	7.106282E-1	8.112699E-1	9.197645E-1	8.806793E-1	7.859687E-1	7.986190E-1	8.995282E-1	8.991476E-1	8.781769E-1	8.506712E-1	7.948302E-1	8.057990E-1	8.500924E-1	9.355748E-1	7.841534E-1	7.860681E-1	7.779994E-1	9.064912E-1	8.509179E-1	8.796301E-1	8.525558E-1	8.583587E-1	8.693404E-1	9.530033E-1	8.853647E-1	8.351136E-1	7.882971E-1	8.256559E-1	8.264707E-1	8.883317E-1	8.137706E-1	8.305502E-1	8.134163E-1	8.962139E-1	8.332040E-1	9.217657E-1	9.374886E-1	8.511048E-1	8.883036E-1	9.801125E-1	8.939212E-1	9.142120E-1	7.996149E-1	8.257205E-1	7.757843E-1	8.710969E-1	7.129617E-1	8.287440E-1	7.895608E-1	9.075932E-1	9.319880E-1	9.908852E-1	8.841427E-1	8.725147E-1	8.210459E-1	9.024187E-1	9.352395E-1	8.676997E-1	8.344966E-1	7.611176E-1	8.135454E-1	9.325683E-1	8.455037E-1	6.796927E-1	7.837944E-1	9.143005E-1	9.254341E-1	7.893032E-1	7.985012E-1	9.181001E-1	8.865450E-1	8.956909E-1	9.862923E-1	9.064754E-1	7.886177E-1	7.749521E-1	8.400584E-1	9.473297E-1	8.066101E-1	8.317038E-1	8.249621E-1	9.937788E-1	8.940572E-1	8.861446E-1	8.906877E-1	9.289416E-1	9.284755E-1	9.320532E-1	8.724572E-1	9.609406E-1	7.977257E-1	8.095554E-1	7.866077E-1	9.315529E-1	6.929898E-1	8.776682E-1	7.200471E-1	8.800052E-1	8.886744E-1	9.133006E-1	8.067842E-1	9.190116E-1	9.629549E-1	9.109793E-1	8.956378E-1	9.952417E-1	7.909940E-1	7.924990E-1	7.758374E-1	9.405590E-1	8.331859E-1	8.097411E-1	6.912783E-1	9.698039E-1	9.135864E-1	8.596352E-1	8.650012E-1	9.477166E-1	8.338616E-1	9.369393E-1	9.473996E-1	9.654173E-1	8.116388E-1	7.846075E-1	7.542538E-1	8.896913E-1	8.081198E-1	7.275179E-1	7.969172E-1	9.330953E-1	8.667976E-1	8.432676E-1	8.347654E-1	9.381382E-1	8.915980E-1	9.928264E-1	9.132455E-1	9.327234E-1	7.760527E-1	8.395977E-1	7.820925E-1	8.901742E-1	8.035767E-1	8.129998E-1
2.866200E+2	8.110258E-1	9.248783E-1	7.627391E-1	8.857064E-1	8.510203E-1	7.551202E-1	7.041553E-1	7.371773E-1	8.860272E-1	7.821541E-1	8.215769E-1	7.402647E-1	8.338104E-1	7.984389E-1	8.287310E-1	8.059164E-1	7.775940E-1	8.866062E-1	8.650727E-1	9.071184E-1	8.090249E-1	8.487414E-1	8.222813E-1	7.642132E-1	9.252369E-1	9.442651E-1	7.711722E-1	7.319918E-1	8.634537E-1	9.326158E-1	8.671260E-1	8.701349E-1	8.674755E-1	8.954875E-1	9.021338E-1	8.680247E-1	8.931493E-1	7.593588E-1	7.896271E-1	7.907888E-1	9.787336E-1	7.119593E-1	7.531287E-1	7.688507E-1	9.064910E-1	8.808478E-1	8.758982E-1	8.556541E-1	8.393544E-1	9.164591E-1	9.295062E-1	8.649354E-1	9.199955E-1	7.691265E-1	8.144888E-1	8.876138E-1	8.501658E-1	7.676213E-1	8.402222E-1	8.715042E-1	8.981506E-1	8.642835E-1	8.850457E-1	8.624749E-1	8.980169E-1	9.707867E-1	1.014867E+0	9.028384E-1	8.882598E-1	7.810005E-1	8.065582E-1	7.614726E-1	9.138584E-1	7.513583E-1	8.167618E-1	7.492226E-1	9.084877E-1	8.662333E-1	8.664248E-1	8.514505E-1	9.207621E-1	9.135514E-1	8.740527E-1	9.205377E-1	9.636072E-1	8.562688E-1	7.489269E-1	7.783162E-1	9.515629E-1	7.931661E-1	6.368025E-1	7.428402E-1	9.466759E-1	9.424597E-1	8.110097E-1	7.684846E-1	9.544631E-1	9.498935E-1	9.141279E-1	8.897407E-1	9.232921E-1	7.456098E-1	8.077831E-1	8.254916E-1	9.032847E-1	7.551318E-1	8.224020E-1	7.446970E-1	8.888593E-1	9.368064E-1	9.199535E-1	8.838024E-1	9.142415E-1	8.827566E-1	9.466136E-1	8.983975E-1	9.218810E-1	7.521250E-1	7.937247E-1	8.252757E-1	1.002573E+0	7.420996E-1	8.244645E-1	7.646907E-1	9.104545E-1	8.383316E-1	9.142700E-1	8.320715E-1	8.801369E-1	9.233718E-1	8.573497E-1	8.484958E-1	9.363457E-1	8.616168E-1	8.309775E-1	7.503110E-1	9.287365E-1	8.079451E-1	7.658735E-1	6.961720E-1	1.004228E+0	9.274657E-1	8.274443E-1	8.168655E-1	9.220218E-1	8.421679E-1	9.022803E-1	9.737003E-1	9.433837E-1	8.294732E-1	7.330793E-1	7.604231E-1	9.486379E-1	8.651742E-1	7.121458E-1	7.749781E-1	8.849674E-1	8.592940E-1	8.770684E-1	8.312800E-1	9.321713E-1	9.089888E-1	9.303152E-1	9.027578E-1	9.079127E-1	8.034349E-1	8.836238E-1	7.831720E-1	8.939507E-1	7.385549E-1	7.154341E-1
2.868000E+2	1.005797E+0	1.149070E+0	9.944336E-1	1.042419E+0	1.078654E+0	9.892752E-1	9.030088E-1	9.106209E-1	1.090116E+0	1.007479E+0	9.591230E-1	8.659903E-1	9.692046E-1	9.772219E-1	1.039115E+0	9.918832E-1	9.742774E-1	1.123355E+0	1.107398E+0	1.056297E+0	1.069739E+0	1.003324E+0	9.367229E-1	9.939471E-1	1.125387E+0	1.186827E+0	9.184792E-1	9.310558E-1	1.004348E+0	1.132298E+0	9.922933E-1	9.274025E-1	1.001415E+0	1.118649E+0	1.060378E+0	1.080200E+0	1.133859E+0	9.528393E-1	8.965358E-1	9.942347E-1	1.155122E+0	8.862810E-1	9.936791E-1	1.001220E+0	1.075526E+0	1.006556E+0	1.041989E+0	9.912210E-1	9.966573E-1	1.092899E+0	1.108295E+0	1.071180E+0	1.077077E+0	9.083173E-1	1.016443E+0	1.004659E+0	1.158668E+0	9.593233E-1	1.039050E+0	9.591625E-1	1.059883E+0	9.877159E-1	1.121239E+0	1.030543E+0	1.064250E+0	1.117195E+0	1.097119E+0	1.109052E+0	1.155572E+0	9.434525E-1	1.051098E+0	9.716746E-1	1.122086E+0	9.114998E-1	9.325960E-1	9.265176E-1	1.081079E+0	1.048027E+0	1.121946E+0	1.026957E+0	1.098672E+0	1.087550E+0	1.104389E+0	1.127422E+0	1.073215E+0	9.840650E-1	9.370140E-1	1.024918E+0	1.145310E+0	1.022646E+0	8.412150E-1	9.380906E-1	1.173304E+0	1.102311E+0	9.890025E-1	9.460812E-1	1.128419E+0	1.054044E+0	1.048313E+0	1.146020E+0	1.114472E+0	8.938519E-1	9.205875E-1	9.911988E-1	1.079464E+0	9.775203E-1	1.039447E+0	9.535805E-1	1.100716E+0	1.100366E+0	1.144680E+0	1.093819E+0	1.100838E+0	1.139411E+0	1.171734E+0	1.060030E+0	1.119086E+0	9.625853E-1	9.548342E-1	9.395623E-1	1.161082E+0	9.115717E-1	1.022078E+0	9.228039E-1	1.180566E+0	1.022626E+0	1.115760E+0	1.016990E+0	1.104745E+0	1.159853E+0	1.069684E+0	1.058587E+0	1.146048E+0	9.627801E-1	9.618056E-1	9.333959E-1	1.080458E+0	9.473217E-1	9.592897E-1	8.527334E-1	1.144640E+0	1.113841E+0	9.709992E-1	1.015891E+0	1.154351E+0	1.068533E+0	1.088092E+0	1.146228E+0	1.130678E+0	9.308506E-1	9.217383E-1	9.851640E-1	1.137885E+0	9.711328E-1	8.839542E-1	9.258052E-1	1.115762E+0	1.090052E+0	1.035680E+0	1.091765E+0	1.068227E+0	1.046956E+0	1.102478E+0	1.145863E+0	1.152206E+0	9.403460E-1	1.024914E+0	1.025213E+0	1.116749E+0	9.200768E-1	8.509422E-1
2.870120E+2	9.095701E-1	1.056340E+0	1.020525E+0	1.024745E+0	9.398532E-1	1.033068E+0	7.820730E-1	9.078096E-1	9.943573E-1	1.019634E+0	9.350937E-1	8.416248E-1	8.760219E-1	1.037389E+0	9.479740E-1	9.440619E-1	9.065206E-1	1.037160E+0	9.957648E-1	9.550690E-1	9.772010E-1	9.404932E-1	8.864614E-1	8.849918E-1	9.574225E-1	9.536849E-1	8.354663E-1	8.116165E-1	8.878057E-1	1.039377E+0	9.117712E-1	8.883561E-1	8.844535E-1	9.409290E-1	9.708054E-1	1.037562E+0	9.505733E-1	8.125658E-1	8.588037E-1	8.962183E-1	1.005942E+0	8.959650E-1	8.389681E-1	7.944664E-1	9.784202E-1	8.868338E-1	9.580107E-1	9.184020E-1	9.512613E-1	9.535509E-1	1.004087E+0	1.005999E+0	9.346308E-1	7.849623E-1	9.391969E-1	9.505031E-1	1.038873E+0	8.261967E-1	9.605934E-1	8.482687E-1	9.533521E-1	9.397649E-1	9.356582E-1	8.909613E-1	9.326908E-1	9.646007E-1	1.062365E+0	1.017649E+0	1.011967E+0	7.911537E-1	8.923304E-1	8.473427E-1	1.026338E+0	8.506273E-1	9.126245E-1	8.589772E-1	9.701914E-1	9.435924E-1	8.909397E-1	9.176956E-1	9.840857E-1	1.010462E+0	9.455358E-1	1.015053E+0	1.004710E+0	9.480925E-1	8.281666E-1	9.080611E-1	1.033241E+0	8.756988E-1	7.207580E-1	8.561808E-1	1.001905E+0	9.954286E-1	8.361894E-1	8.635368E-1	9.937757E-1	1.003579E+0	9.960735E-1	1.039932E+0	9.622357E-1	8.618235E-1	8.625015E-1	8.682841E-1	1.064049E+0	8.838288E-1	8.813143E-1	8.684794E-1	1.001849E+0	9.591091E-1	1.011435E+0	9.802035E-1	9.843563E-1	1.019916E+0	9.589333E-1	9.921854E-1	9.590346E-1	8.836628E-1	9.017509E-1	8.304325E-1	1.000515E+0	7.738752E-1	8.961268E-1	8.158452E-1	1.013588E+0	9.084521E-1	9.801417E-1	8.494577E-1	9.524870E-1	9.649840E-1	9.700836E-1	9.888980E-1	9.854249E-1	8.778410E-1	8.378182E-1	8.119269E-1	1.035139E+0	8.869609E-1	8.845151E-1	7.450961E-1	1.057675E+0	1.017679E+0	9.440279E-1	9.575720E-1	1.049428E+0	9.003170E-1	9.504183E-1	1.007364E+0	9.755171E-1	8.829780E-1	8.045527E-1	9.076062E-1	1.052052E+0	8.977772E-1	7.935282E-1	8.353094E-1	9.866921E-1	9.615404E-1	9.455408E-1	9.175281E-1	9.524596E-1	9.669575E-1	1.075834E+0	1.005720E+0	9.708944E-1	8.337516E-1	9.184338E-1	8.879839E-1	1.011014E+0	7.981588E-1	9.430866E-1
2.872120E+2	7.020480E-1	7.628975E-1	6.834218E-1	7.219239E-1	6.946367E-1	7.837192E-1	5.783501E-1	6.115473E-1	7.612532E-1	8.130072E-1	6.508859E-1	6.252602E-1	7.047884E-1	7.013106E-1	6.570821E-1	6.606858E-1	6.768992E-1	6.981253E-1	7.343795E-1	7.494173E-1	6.810822E-1	7.340493E-1	6.104115E-1	6.392112E-1	7.321279E-1	7.252528E-1	6.197957E-1	5.630292E-1	6.199313E-1	7.408414E-1	6.590439E-1	6.644909E-1	7.344798E-1	7.591693E-1	7.269716E-1	6.741245E-1	7.570628E-1	7.448478E-1	6.090517E-1	6.392337E-1	8.032838E-1	7.049162E-1	6.413379E-1	6.206470E-1	7.374556E-1	7.636912E-1	6.864786E-1	6.488181E-1	6.778295E-1	6.969100E-1	7.037203E-1	7.355468E-1	7.082777E-1	7.324539E-1	7.232841E-1	6.788540E-1	6.805436E-1	6.939568E-1	7.477957E-1	6.317607E-1	7.073641E-1	7.239798E-1	7.153448E-1	7.276405E-1	7.888954E-1	6.975615E-1	7.159797E-1	7.200324E-1	7.723379E-1	5.940124E-1	6.906767E-1	6.174626E-1	7.660530E-1	6.099468E-1	6.859476E-1	6.160184E-1	7.323189E-1	6.612319E-1	6.929347E-1	6.914294E-1	7.197328E-1	7.472619E-1	7.322182E-1	7.766636E-1	7.461026E-1	6.820883E-1	6.252764E-1	6.537273E-1	7.758595E-1	6.492380E-1	5.619726E-1	6.456906E-1	7.505203E-1	8.213892E-1	6.156526E-1	6.834372E-1	7.952515E-1	7.179715E-1	7.635540E-1	7.681579E-1	7.869886E-1	6.101789E-1	6.714072E-1	6.688882E-1	7.656439E-1	6.542326E-1	6.394629E-1	6.741018E-1	8.131973E-1	7.583756E-1	7.439498E-1	7.064931E-1	7.627010E-1	7.611830E-1	7.875736E-1	7.487360E-1	8.085124E-1	6.416349E-1	6.344777E-1	6.422461E-1	8.028928E-1	6.130682E-1	6.974276E-1	6.028577E-1	7.532986E-1	6.531386E-1	6.866246E-1	6.890370E-1	7.246386E-1	7.406815E-1	6.975532E-1	7.367888E-1	7.373541E-1	7.060543E-1	6.283225E-1	6.429249E-1	7.356370E-1	6.542996E-1	6.352687E-1	5.758137E-1	7.542029E-1	7.212630E-1	6.821496E-1	6.696795E-1	7.464360E-1	7.102963E-1	7.414992E-1	7.517278E-1	6.954944E-1	6.727140E-1	6.150621E-1	6.661213E-1	7.749022E-1	6.593701E-1	5.765084E-1	6.223237E-1	7.690236E-1	7.101446E-1	6.751211E-1	6.483308E-1	7.567303E-1	6.945047E-1	7.130623E-1	7.006470E-1	7.390075E-1	6.557673E-1	6.747590E-1	6.707955E-1	8.146506E-1	7.385555E-1	6.070282E-1
2.874030E+2	5.223491E-1	6.373035E-1	6.500245E-1	6.111656E-1	6.030283E-1	6.246371E-1	5.036787E-1	5.009178E-1	5.813454E-1	6.213380E-1	5.274264E-1	5.073304E-1	5.431119E-1	6.067627E-1	5.591058E-1	5.349375E-1	5.347981E-1	6.038853E-1	6.254701E-1	6.215500E-1	5.668195E-1	6.403020E-1	5.570574E-1	5.235001E-1	6.235040E-1	6.298772E-1	5.131816E-1	4.911713E-1	5.199125E-1	5.708144E-1	5.617800E-1	5.230571E-1	5.090463E-1	5.784194E-1	6.373994E-1	6.111824E-1	6.343485E-1	6.255349E-1	5.129235E-1	5.247444E-1	6.025003E-1	6.608956E-1	4.996043E-1	5.172704E-1	5.917975E-1	6.328526E-1	5.605100E-1	5.574084E-1	5.342514E-1	6.377617E-1	6.332260E-1	5.789163E-1	6.341271E-1	6.657755E-1	5.883378E-1	5.792786E-1	6.476793E-1	6.566816E-1	5.726133E-1	6.032456E-1	5.524111E-1	5.676918E-1	6.210667E-1	5.966042E-1	6.328608E-1	6.377607E-1	5.676934E-1	6.074500E-1	6.434388E-1	5.999352E-1	5.465074E-1	5.530596E-1	6.526426E-1	5.565664E-1	4.992149E-1	4.668655E-1	6.169594E-1	6.090142E-1	6.212751E-1	5.778659E-1	5.759984E-1	6.239210E-1	5.699607E-1	6.075847E-1	5.953918E-1	5.694387E-1	4.903073E-1	5.282776E-1	6.077549E-1	6.140107E-1	4.031882E-1	4.752029E-1	6.867218E-1	5.622218E-1	5.583472E-1	5.158462E-1	5.908289E-1	6.438866E-1	6.027373E-1	6.143904E-1	6.834327E-1	5.223314E-1	5.005164E-1	5.468842E-1	6.368117E-1	5.317123E-1	5.516109E-1	4.777887E-1	6.215172E-1	5.910971E-1	6.196542E-1	6.204206E-1	6.292560E-1	5.855767E-1	6.408532E-1	5.861057E-1	6.122600E-1	5.083435E-1	5.590445E-1	5.417081E-1	6.649699E-1	4.936671E-1	5.801619E-1	5.098500E-1	6.521290E-1	5.875122E-1	6.159089E-1	5.333581E-1	6.317717E-1	6.219339E-1	5.826300E-1	6.086850E-1	6.115324E-1	5.390404E-1	5.197262E-1	4.739233E-1	6.302196E-1	5.643070E-1	4.907051E-1	4.985126E-1	6.536498E-1	5.904029E-1	5.673059E-1	5.298983E-1	6.479353E-1	6.126900E-1	5.739798E-1	5.739403E-1	6.119463E-1	5.309724E-1	5.228101E-1	5.312768E-1	5.897903E-1	5.472983E-1	4.960291E-1	5.025758E-1	6.541732E-1	5.506770E-1	5.676471E-1	5.699243E-1	6.505112E-1	5.797268E-1	6.157093E-1	5.862443E-1	6.340375E-1	5.266790E-1	5.846602E-1	5.616617E-1	6.164001E-1	5.407777E-1	5.690860E-1
2.876180E+2	3.832271E-1	4.635851E-1	4.444230E-1	4.532745E-1	4.688536E-1	4.870032E-1	3.462189E-1	4.062264E-1	4.797859E-1	4.810942E-1	4.321385E-1	3.533417E-1	4.467434E-1	4.993200E-1	4.504957E-1	4.348702E-1	4.011664E-1	4.809135E-1	4.412298E-1	4.404051E-1	4.734779E-1	4.617823E-1	4.039539E-1	4.044094E-1	4.997932E-1	4.403007E-1	3.992430E-1	4.018351E-1	4.068494E-1	4.610878E-1	4.174783E-1	4.224051E-1	4.184958E-1	4.592657E-1	4.592505E-1	4.619501E-1	4.652233E-1	4.812309E-1	4.212883E-1	3.995474E-1	4.702096E-1	4.539987E-1	4.297349E-1	3.937672E-1	4.560288E-1	4.857656E-1	4.438733E-1	4.319122E-1	4.413484E-1	5.174611E-1	4.503499E-1	4.845497E-1	4.536304E-1	4.632400E-1	4.143047E-1	4.369021E-1	4.409510E-1	4.818425E-1	4.715872E-1	4.353209E-1	4.700914E-1	4.788913E-1	4.464025E-1	4.266361E-1	5.267984E-1	4.923830E-1	4.506875E-1	5.361118E-1	4.920483E-1	4.654050E-1	4.342751E-1	3.607481E-1	4.862461E-1	4.516774E-1	3.993572E-1	3.786870E-1	4.372135E-1	5.026457E-1	4.326999E-1	4.238672E-1	4.875456E-1	5.281118E-1	4.451475E-1	4.742134E-1	5.029097E-1	4.946543E-1	4.119374E-1	4.097027E-1	4.804894E-1	4.892062E-1	3.566480E-1	3.732914E-1	4.800910E-1	4.780405E-1	4.541571E-1	3.907777E-1	5.259653E-1	5.128929E-1	4.746980E-1	4.665838E-1	4.949079E-1	4.601066E-1	3.978134E-1	4.221486E-1	4.584290E-1	4.061038E-1	4.461889E-1	4.197655E-1	4.913764E-1	4.489101E-1	4.635386E-1	5.068043E-1	4.822404E-1	4.702375E-1	4.795714E-1	4.813440E-1	5.027020E-1	4.153904E-1	4.538107E-1	4.342956E-1	4.405869E-1	4.070040E-1	4.357520E-1	3.535973E-1	4.380055E-1	4.185018E-1	4.541342E-1	4.061286E-1	4.881521E-1	4.534531E-1	4.611394E-1	4.477865E-1	4.892819E-1	4.550562E-1	3.846231E-1	3.903013E-1	4.499274E-1	4.413915E-1	4.278945E-1	3.752188E-1	5.150494E-1	4.813539E-1	3.993904E-1	4.937960E-1	4.691380E-1	4.465516E-1	4.526726E-1	4.740022E-1	5.091182E-1	4.173926E-1	3.640702E-1	4.052455E-1	4.377713E-1	4.168876E-1	3.766681E-1	4.011111E-1	4.693192E-1	4.174760E-1	4.125033E-1	4.183383E-1	4.893922E-1	4.823384E-1	5.050341E-1	4.804225E-1	4.594055E-1	4.005253E-1	4.136785E-1	3.984999E-1	5.012260E-1	3.755116E-1	4.281588E-1
2.878020E+2	3.646775E-1	4.295457E-1	3.557107E-1	3.554773E-1	3.735435E-1	4.065684E-1	3.324218E-1	3.218484E-1	3.985374E-1	3.819876E-1	3.658507E-1	2.968136E-1	3.726749E-1	4.296975E-1	3.707477E-1	3.108934E-1	3.541129E-1	3.671360E-1	3.822372E-1	4.180286E-1	3.640429E-1	3.999483E-1	3.552383E-1	3.393747E-1	3.660252E-1	3.920246E-1	3.455284E-1	3.173545E-1	3.485776E-1	3.928798E-1	3.720354E-1	3.599303E-1	3.524691E-1	3.471817E-1	3.885887E-1	3.583999E-1	4.054403E-1	3.957769E-1	3.053961E-1	3.361244E-1	3.989041E-1	4.108588E-1	3.598655E-1	3.086869E-1	3.831996E-1	3.694634E-1	3.552292E-1	3.505727E-1	3.748377E-1	3.841282E-1	3.665738E-1	4.115857E-1	3.716749E-1	4.073972E-1	3.519505E-1	3.521760E-1	4.080874E-1	4.108411E-1	3.823848E-1	3.297073E-1	3.654987E-1	4.131791E-1	4.037293E-1	3.506728E-1	3.809624E-1	4.088689E-1	4.055060E-1	4.101540E-1	3.960233E-1	4.002551E-1	3.558038E-1	3.231794E-1	3.914273E-1	4.029791E-1	3.254622E-1	3.177131E-1	3.853466E-1	4.359246E-1	4.034703E-1	3.868732E-1	3.950723E-1	3.970618E-1	3.464310E-1	3.943998E-1	3.761758E-1	4.264966E-1	3.231189E-1	3.495565E-1	4.311035E-1	3.654079E-1	2.526163E-1	3.218592E-1	4.134361E-1	4.118294E-1	3.404156E-1	3.732681E-1	4.306345E-1	4.184067E-1	3.630484E-1	3.879117E-1	4.134791E-1	4.354002E-1	3.169981E-1	3.447575E-1	3.615296E-1	4.091920E-1	3.583363E-1	3.365986E-1	4.217668E-1	4.284652E-1	3.929388E-1	3.794166E-1	4.245646E-1	4.016578E-1	4.739714E-1	3.925451E-1	3.864755E-1	4.390671E-1	3.420585E-1	3.655517E-1	4.117671E-1	3.906347E-1	3.651757E-1	3.229051E-1	3.888942E-1	4.104103E-1	3.688891E-1	3.658255E-1	4.082431E-1	3.529738E-1	3.659172E-1	3.811719E-1	4.277097E-1	3.653462E-1	3.316076E-1	3.313268E-1	4.124899E-1	3.228663E-1	3.321839E-1	3.008521E-1	4.308016E-1	4.119586E-1	3.550182E-1	3.938206E-1	4.113229E-1	3.769805E-1	3.833538E-1	3.530221E-1	3.989464E-1	3.366653E-1	3.491101E-1	3.285693E-1	4.170893E-1	3.435314E-1	3.025192E-1	2.987315E-1	3.993152E-1	3.368040E-1	3.735006E-1	3.651957E-1	4.201703E-1	3.652421E-1	4.066558E-1	4.089203E-1	4.069205E-1	3.213127E-1	3.635101E-1	3.423123E-1	3.992677E-1	3.348727E-1	4.986224E-1
2.880040E+2	3.380123E-1	4.084177E-1	3.640600E-1	3.861128E-1	3.661410E-1	4.012067E-1	3.389147E-1	3.659131E-1	3.617819E-1	4.418257E-1	3.799366E-1	2.987627E-1	4.061250E-1	3.961765E-1	4.018879E-1	3.383453E-1	3.672875E-1	4.085100E-1	3.713468E-1	3.775376E-1	3.994481E-1	4.109189E-1	3.536928E-1	3.596451E-1	4.132971E-1	4.049767E-1	3.447152E-1	3.144409E-1	3.555350E-1	3.948568E-1	3.497124E-1	3.842260E-1	3.439802E-1	3.986802E-1	4.104835E-1	3.929166E-1	3.960003E-1	4.312479E-1	3.440270E-1	3.591877E-1	3.904604E-1	4.134996E-1	3.478876E-1	3.352176E-1	3.805022E-1	4.088011E-1	4.382746E-1	3.552211E-1	3.516117E-1	3.941533E-1	3.645306E-1	4.242333E-1	3.716754E-1	4.474041E-1	3.677717E-1	3.696458E-1	4.451923E-1	4.046289E-1	3.469181E-1	3.138651E-1	3.751827E-1	4.220596E-1	3.938057E-1	3.943516E-1	4.003393E-1	4.026824E-1	4.263588E-1	3.767137E-1	4.141906E-1	4.137936E-1	4.023397E-1	3.428586E-1	4.221033E-1	4.404394E-1	3.514256E-1	2.961374E-1	3.728273E-1	4.146504E-1	3.874416E-1	3.369738E-1	4.292475E-1	3.992645E-1	4.235886E-1	4.469087E-1	3.847384E-1	4.293366E-1	3.292140E-1	3.615855E-1	3.902642E-1	3.664147E-1	3.174084E-1	3.218593E-1	4.124833E-1	4.241260E-1	3.334702E-1	3.657643E-1	3.755980E-1	3.872693E-1	3.896805E-1	4.594313E-1	4.063991E-1	4.244185E-1	3.414113E-1	3.593246E-1	4.110802E-1	4.287540E-1	3.707392E-1	3.540051E-1	4.590937E-1	3.838573E-1	4.148143E-1	4.258961E-1	3.815907E-1	4.058144E-1	4.067706E-1	4.095062E-1	4.150560E-1	4.487138E-1	3.392653E-1	3.560999E-1	4.560266E-1	4.050787E-1	3.836337E-1	3.535976E-1	4.488098E-1	4.095121E-1	4.231364E-1	3.816304E-1	4.082436E-1	4.311247E-1	3.856189E-1	3.955194E-1	3.929087E-1	4.082921E-1	3.418689E-1	3.691765E-1	4.262827E-1	4.326126E-1	3.441478E-1	3.174866E-1	4.000011E-1	4.456653E-1	3.750293E-1	3.780835E-1	4.198878E-1	3.884034E-1	3.987584E-1	4.350782E-1	4.742307E-1	3.770285E-1	3.308264E-1	3.638223E-1	4.781034E-1	4.158690E-1	3.251260E-1	3.252413E-1	3.763447E-1	4.334231E-1	3.769669E-1	3.712937E-1	4.153956E-1	3.698791E-1	3.820608E-1	4.232212E-1	4.298229E-1	3.878127E-1	4.075350E-1	3.563593E-1	4.294777E-1	2.942333E-1	3.847962E-1
2.882060E+2	4.133701E-1	5.304896E-1	4.371170E-1	4.568092E-1	5.077181E-1	5.307966E-1	4.257607E-1	4.118517E-1	4.826871E-1	4.913785E-1	4.263382E-1	4.157166E-1	4.236472E-1	5.319826E-1	4.474574E-1	4.419548E-1	4.228113E-1	5.659592E-1	4.838866E-1	4.510609E-1	4.750872E-1	4.857183E-1	4.696794E-1	4.128559E-1	5.128684E-1	5.027079E-1	4.464460E-1	3.979509E-1	4.390288E-1	5.174334E-1	4.501655E-1	4.362877E-1	4.845216E-1	4.966278E-1	5.209559E-1	4.822534E-1	4.974756E-1	5.239570E-1	4.365608E-1	4.267284E-1	4.983569E-1	5.094649E-1	4.556863E-1	4.303614E-1	4.839021E-1	5.165508E-1	4.597354E-1	4.249405E-1	4.445155E-1	5.335010E-1	4.718039E-1	4.991426E-1	4.555819E-1	5.049145E-1	4.338486E-1	4.884374E-1	4.928990E-1	5.200051E-1	4.382711E-1	4.279272E-1	4.507224E-1	5.135232E-1	4.771678E-1	4.465766E-1	4.686678E-1	4.697000E-1	4.935511E-1	4.536257E-1	4.955092E-1	4.730197E-1	4.488740E-1	4.153105E-1	5.113450E-1	4.797728E-1	4.542786E-1	4.105820E-1	4.685134E-1	4.891084E-1	4.430717E-1	4.668837E-1	4.774947E-1	4.884663E-1	4.621669E-1	4.773631E-1	4.909211E-1	4.861343E-1	3.727528E-1	4.234506E-1	4.890375E-1	4.771287E-1	3.630358E-1	3.713863E-1	4.810433E-1	5.045244E-1	4.237681E-1	4.333016E-1	4.856706E-1	4.796081E-1	4.593329E-1	4.892317E-1	4.763211E-1	5.195866E-1	4.112830E-1	4.248791E-1	4.760466E-1	5.018544E-1	4.647928E-1	4.468423E-1	4.883501E-1	5.009521E-1	4.963528E-1	4.689325E-1	5.082504E-1	5.273870E-1	5.165318E-1	5.032940E-1	5.046080E-1	4.916822E-1	4.202851E-1	4.102358E-1	4.899917E-1	5.032966E-1	4.639823E-1	3.824296E-1	4.871166E-1	5.119973E-1	4.618844E-1	4.408993E-1	4.687147E-1	5.052152E-1	4.600448E-1	5.051763E-1	5.249754E-1	5.333138E-1	4.316524E-1	4.316719E-1	5.011596E-1	4.721210E-1	4.069585E-1	4.084883E-1	5.014609E-1	5.091117E-1	4.681229E-1	4.401049E-1	5.076809E-1	5.400040E-1	4.603741E-1	5.160820E-1	5.228912E-1	4.990575E-1	3.923276E-1	3.981949E-1	4.894785E-1	5.208088E-1	4.209769E-1	4.038535E-1	4.704128E-1	5.112798E-1	4.801080E-1	4.183378E-1	5.132612E-1	4.614695E-1	4.999102E-1	4.661227E-1	4.622683E-1	4.914730E-1	4.392744E-1	4.428023E-1	5.333229E-1	4.378254E-1	4.769411E-1
2.884150E+2	5.571297E-1	6.455205E-1	6.427194E-1	6.394443E-1	5.687906E-1	6.764729E-1	5.134184E-1	5.571698E-1	6.006914E-1	6.400389E-1	5.663701E-1	5.248743E-1	6.036408E-1	6.187958E-1	5.910050E-1	5.517630E-1	5.762055E-1	5.946912E-1	6.300084E-1	6.694995E-1	5.716476E-1	6.632398E-1	5.794809E-1	5.750208E-1	6.516657E-1	6.687336E-1	5.538742E-1	5.484638E-1	5.773144E-1	6.795534E-1	6.151956E-1	6.002818E-1	6.175178E-1	6.723289E-1	6.135142E-1	6.142274E-1	6.430018E-1	6.561696E-1	5.488591E-1	5.585154E-1	6.156365E-1	6.899493E-1	5.265537E-1	5.895421E-1	6.403493E-1	6.850164E-1	6.388901E-1	5.667044E-1	5.986505E-1	6.568088E-1	6.536596E-1	6.372873E-1	6.507147E-1	6.766107E-1	5.985752E-1	5.950009E-1	6.285968E-1	6.797562E-1	6.370976E-1	5.419901E-1	6.337617E-1	6.040993E-1	6.498455E-1	5.614704E-1	6.073650E-1	6.161078E-1	6.638476E-1	6.676425E-1	5.941291E-1	6.710078E-1	6.359291E-1	5.843671E-1	6.777415E-1	6.474064E-1	6.020684E-1	4.940689E-1	6.124881E-1	6.447938E-1	6.052458E-1	6.114184E-1	6.071579E-1	6.503516E-1	6.437148E-1	6.243877E-1	6.442016E-1	6.470626E-1	5.059809E-1	5.437443E-1	6.571420E-1	6.381670E-1	4.424278E-1	5.161580E-1	6.448246E-1	6.568087E-1	5.600840E-1	5.333555E-1	6.144174E-1	6.503282E-1	6.867313E-1	6.930633E-1	6.241319E-1	6.833849E-1	5.855411E-1	5.996917E-1	6.643398E-1	6.398179E-1	5.712483E-1	5.309774E-1	6.719591E-1	6.700898E-1	6.524684E-1	6.221414E-1	6.801465E-1	6.780551E-1	6.666128E-1	6.090542E-1	6.475094E-1	6.933723E-1	5.488001E-1	5.597536E-1	6.248272E-1	6.515849E-1	5.823340E-1	4.996192E-1	6.423073E-1	6.180782E-1	6.042840E-1	5.847247E-1	6.177336E-1	6.980541E-1	5.881019E-1	6.302066E-1	6.570428E-1	6.449751E-1	5.188712E-1	5.513817E-1	6.223392E-1	6.093048E-1	5.555091E-1	4.691560E-1	6.482140E-1	6.439370E-1	5.994975E-1	5.854405E-1	6.682780E-1	6.303422E-1	6.365589E-1	6.665165E-1	6.449987E-1	6.633268E-1	5.485741E-1	5.577165E-1	6.683853E-1	6.461252E-1	5.557101E-1	5.245148E-1	6.530802E-1	6.304110E-1	5.823817E-1	5.803784E-1	6.743808E-1	6.017554E-1	6.710477E-1	5.805244E-1	6.292656E-1	6.410980E-1	5.621355E-1	5.659839E-1	6.919240E-1	6.545674E-1	7.425359E-1
2.886010E+2	7.217569E-1	8.438876E-1	8.034432E-1	7.678777E-1	7.982753E-1	8.766668E-1	6.416584E-1	6.912378E-1	7.893031E-1	7.961779E-1	6.865160E-1	6.661939E-1	6.793022E-1	8.405560E-1	7.527806E-1	7.076205E-1	6.863104E-1	7.751266E-1	7.389177E-1	8.144154E-1	8.025880E-1	8.108427E-1	7.217592E-1	6.983339E-1	7.954917E-1	8.147414E-1	6.482807E-1	6.271180E-1	7.182089E-1	7.744509E-1	7.499302E-1	7.365096E-1	7.278761E-1	8.086477E-1	8.165432E-1	7.187915E-1	8.050471E-1	7.932173E-1	7.222487E-1	6.680622E-1	8.286162E-1	7.920767E-1	7.211894E-1	7.002374E-1	8.075870E-1	8.141460E-1	7.825877E-1	8.014277E-1	7.274484E-1	8.713456E-1	8.171238E-1	8.308858E-1	7.970633E-1	8.124678E-1	7.539953E-1	7.234013E-1	8.247223E-1	8.563716E-1	7.832607E-1	7.880692E-1	7.693449E-1	8.376435E-1	8.215332E-1	7.285899E-1	7.623796E-1	8.089134E-1	7.982318E-1	7.590461E-1	8.060765E-1	7.869230E-1	7.098383E-1	6.952823E-1	7.846448E-1	8.019300E-1	7.418691E-1	6.338414E-1	8.011763E-1	8.672009E-1	8.334247E-1	6.862669E-1	8.071811E-1	8.474763E-1	7.866822E-1	7.798136E-1	7.974821E-1	8.146173E-1	6.574948E-1	6.528676E-1	8.081512E-1	7.891412E-1	5.893497E-1	6.656919E-1	8.457413E-1	8.526027E-1	6.981373E-1	6.901075E-1	8.483218E-1	8.006478E-1	7.830161E-1	8.670936E-1	7.940688E-1	8.746348E-1	6.907697E-1	7.635784E-1	8.240032E-1	8.333796E-1	7.583206E-1	7.340585E-1	8.323648E-1	8.698942E-1	8.105722E-1	7.874009E-1	8.237695E-1	8.422313E-1	8.155734E-1	8.115942E-1	8.285180E-1	8.573556E-1	6.801099E-1	6.628690E-1	8.265670E-1	7.902454E-1	8.049205E-1	6.195989E-1	8.181250E-1	8.167555E-1	7.989935E-1	7.238078E-1	7.894297E-1	7.701156E-1	8.048132E-1	7.613846E-1	8.346189E-1	8.358490E-1	6.744963E-1	6.658103E-1	8.420389E-1	8.222109E-1	6.831240E-1	6.775787E-1	8.982385E-1	8.521226E-1	7.352217E-1	7.261476E-1	8.138862E-1	8.089411E-1	7.578664E-1	7.780281E-1	8.130122E-1	8.557560E-1	6.566171E-1	6.828660E-1	8.255748E-1	8.549852E-1	6.814012E-1	6.406060E-1	8.302768E-1	8.349049E-1	7.175915E-1	7.154124E-1	7.817934E-1	7.942106E-1	8.565310E-1	7.597551E-1	8.220281E-1	8.269047E-1	7.464275E-1	6.697155E-1	8.127627E-1	8.767291E-1	7.533767E-1
2.888180E+2	7.669708E-1	8.356717E-1	7.523037E-1	7.949784E-1	8.510195E-1	7.962307E-1	6.927926E-1	6.462358E-1	7.834992E-1	8.073977E-1	7.254596E-1	6.895842E-1	7.326637E-1	7.735122E-1	7.322743E-1	7.226746E-1	7.314819E-1	7.417978E-1	7.888359E-1	7.845800E-1	7.921274E-1	8.218131E-1	6.637658E-1	6.772186E-1	8.166129E-1	7.146559E-1	6.702550E-1	5.989574E-1	7.321253E-1	8.327743E-1	7.834146E-1	7.529954E-1	7.457978E-1	8.712547E-1	8.215189E-1	7.319890E-1	8.223533E-1	8.206277E-1	7.357247E-1	6.977146E-1	7.892105E-1	8.211304E-1	6.832603E-1	6.929193E-1	8.480479E-1	8.192771E-1	7.891187E-1	7.379055E-1	7.506741E-1	8.643282E-1	7.844313E-1	8.649359E-1	7.785250E-1	8.133009E-1	7.456199E-1	7.373764E-1	7.950395E-1	8.412838E-1	7.338244E-1	7.426557E-1	7.799989E-1	8.394189E-1	7.738973E-1	7.542279E-1	7.837954E-1	8.171617E-1	8.665810E-1	8.036320E-1	8.190523E-1	7.987685E-1	7.581981E-1	6.890204E-1	7.976591E-1	8.290879E-1	7.228958E-1	6.976296E-1	7.448382E-1	8.642990E-1	7.796797E-1	7.662776E-1	7.609440E-1	8.375641E-1	7.832785E-1	7.756130E-1	8.137510E-1	8.789881E-1	6.662033E-1	6.502897E-1	8.091009E-1	8.283929E-1	6.231143E-1	6.923602E-1	8.114612E-1	8.951663E-1	7.059512E-1	7.034485E-1	8.090098E-1	8.221223E-1	8.168190E-1	8.408695E-1	8.259323E-1	8.490126E-1	7.320184E-1	7.417267E-1	8.096880E-1	8.725035E-1	7.686577E-1	7.118164E-1	8.908780E-1	8.457323E-1	7.916804E-1	7.727684E-1	8.203769E-1	8.401537E-1	8.133325E-1	8.694628E-1	8.513810E-1	8.363094E-1	7.127034E-1	6.611506E-1	7.699554E-1	7.690609E-1	7.962329E-1	6.400607E-1	8.318759E-1	8.329377E-1	7.757454E-1	7.198574E-1	8.272245E-1	8.614610E-1	7.873012E-1	8.208252E-1	8.435425E-1	8.005371E-1	6.744968E-1	6.772535E-1	7.967190E-1	8.189190E-1	7.160240E-1	6.012553E-1	8.882739E-1	8.441916E-1	7.186904E-1	7.446605E-1	8.524293E-1	8.214015E-1	7.501646E-1	7.896008E-1	8.111767E-1	7.928652E-1	6.682530E-1	6.678835E-1	8.359165E-1	8.539673E-1	6.452317E-1	6.744266E-1	7.668359E-1	8.264617E-1	7.314595E-1	7.563588E-1	8.080497E-1	8.463831E-1	8.227139E-1	8.007495E-1	8.277545E-1	8.259264E-1	6.962592E-1	6.934868E-1	8.448601E-1	9.119482E-1	7.533762E-1
2.890230E+2	6.637884E-1	8.286293E-1	7.491719E-1	7.018928E-1	7.196209E-1	7.354587E-1	7.009088E-1	6.781125E-1	7.941387E-1	8.214219E-1	8.215762E-1	6.525489E-1	7.071784E-1	7.451474E-1	7.960719E-1	6.987652E-1	6.533732E-1	7.153649E-1	7.443640E-1	7.067941E-1	7.237299E-1	7.539950E-1	6.552596E-1	6.459678E-1	7.462087E-1	7.994346E-1	6.938559E-1	6.533361E-1	6.608081E-1	7.349104E-1	6.789750E-1	7.000667E-1	6.373261E-1	7.733056E-1	7.637952E-1	7.634606E-1	7.326775E-1	7.367855E-1	6.404950E-1	6.746513E-1	7.732599E-1	7.295678E-1	6.862541E-1	6.581556E-1	7.203723E-1	7.850702E-1	7.070066E-1	6.929744E-1	6.809962E-1	7.991647E-1	7.210885E-1	7.608398E-1	7.170594E-1	8.116343E-1	7.009479E-1	6.867147E-1	7.250695E-1	8.146582E-1	7.499449E-1	7.331508E-1	7.112374E-1	7.408520E-1	7.123677E-1	7.399843E-1	7.440220E-1	7.150876E-1	7.634771E-1	7.623895E-1	7.982899E-1	7.276972E-1	6.195043E-1	6.425079E-1	7.149250E-1	7.635328E-1	6.689725E-1	6.019471E-1	7.287416E-1	8.536623E-1	7.174497E-1	6.862672E-1	6.966150E-1	7.307433E-1	6.959088E-1	7.409577E-1	7.880626E-1	7.616056E-1	6.383384E-1	6.580234E-1	7.825086E-1	7.680036E-1	6.559663E-1	6.333090E-1	7.686114E-1	7.712577E-1	7.024787E-1	6.617589E-1	7.097478E-1	8.489650E-1	7.584329E-1	7.848459E-1	8.108864E-1	8.288812E-1	6.621470E-1	6.880084E-1	7.986770E-1	7.839589E-1	7.469520E-1	6.508925E-1	8.101703E-1	7.509406E-1	7.598600E-1	7.426435E-1	7.446070E-1	7.663774E-1	7.573327E-1	7.587133E-1	7.580192E-1	7.705406E-1	6.493775E-1	6.130297E-1	7.565756E-1	7.526910E-1	7.278293E-1	6.214586E-1	7.857120E-1	7.906850E-1	7.224660E-1	6.795542E-1	7.246395E-1	7.711304E-1	7.281980E-1	7.706090E-1	8.069565E-1	7.871766E-1	6.377283E-1	6.262009E-1	8.233191E-1	8.200173E-1	6.272928E-1	5.855993E-1	7.623556E-1	7.361333E-1	6.664887E-1	6.826383E-1	7.528601E-1	7.975188E-1	7.578663E-1	7.654043E-1	8.157661E-1	7.778463E-1	6.200492E-1	7.137132E-1	7.924816E-1	8.366472E-1	5.964017E-1	6.360341E-1	7.919934E-1	7.804978E-1	6.283174E-1	6.762087E-1	7.591174E-1	7.884145E-1	7.745497E-1	7.197145E-1	8.458846E-1	7.916995E-1	6.573525E-1	6.297356E-1	7.391266E-1	7.195899E-1	6.774923E-1
2.892040E+2	5.907501E-1	6.290866E-1	6.823779E-1	6.488709E-1	6.576227E-1	6.836223E-1	6.376005E-1	5.731083E-1	6.490527E-1	6.839822E-1	7.105452E-1	5.044073E-1	5.821379E-1	6.402839E-1	6.601202E-1	6.057821E-1	5.997321E-1	6.659467E-1	6.309155E-1	6.055665E-1	6.400449E-1	6.941568E-1	6.745909E-1	5.674195E-1	6.647414E-1	6.969936E-1	6.751379E-1	5.455496E-1	5.834026E-1	6.587938E-1	6.518690E-1	6.063555E-1	6.052563E-1	6.975728E-1	6.553138E-1	6.375773E-1	6.367088E-1	6.956715E-1	5.641319E-1	5.955792E-1	6.775601E-1	6.520916E-1	6.014135E-1	5.968612E-1	6.403499E-1	6.576527E-1	6.510207E-1	6.100848E-1	6.282107E-1	6.608194E-1	6.260743E-1	6.333970E-1	6.760812E-1	7.057828E-1	5.957836E-1	5.801519E-1	6.370781E-1	7.090446E-1	5.898084E-1	6.169756E-1	5.969594E-1	6.138679E-1	6.369454E-1	6.184433E-1	6.552966E-1	6.583811E-1	6.777495E-1	6.275148E-1	6.564161E-1	6.820071E-1	5.966932E-1	5.396435E-1	6.433468E-1	6.417874E-1	5.890864E-1	5.381586E-1	6.661433E-1	6.670339E-1	6.457915E-1	6.337875E-1	6.574148E-1	7.329455E-1	6.176170E-1	6.789968E-1	6.647532E-1	6.991281E-1	5.286208E-1	6.013128E-1	6.704384E-1	6.723877E-1	5.838745E-1	5.628279E-1	6.381582E-1	6.785630E-1	5.861318E-1	5.608708E-1	6.724016E-1	6.481818E-1	6.590739E-1	6.632627E-1	6.913982E-1	7.282235E-1	5.703884E-1	6.279168E-1	6.654413E-1	6.851193E-1	5.774496E-1	6.160776E-1	6.971799E-1	6.877464E-1	6.315871E-1	6.384951E-1	6.473514E-1	6.998761E-1	6.598917E-1	6.719110E-1	6.446515E-1	6.881108E-1	6.288898E-1	5.812355E-1	6.907016E-1	6.852875E-1	6.279371E-1	5.665849E-1	6.865071E-1	6.801086E-1	6.662809E-1	6.353006E-1	6.296130E-1	6.726803E-1	6.712839E-1	6.322557E-1	6.811358E-1	7.213241E-1	5.299878E-1	5.857103E-1	6.745544E-1	6.488128E-1	6.043616E-1	4.965543E-1	7.342729E-1	7.519953E-1	6.403886E-1	5.743321E-1	7.014676E-1	6.770678E-1	6.519638E-1	6.233846E-1	7.065121E-1	7.102607E-1	5.668586E-1	5.409710E-1	7.480137E-1	6.481630E-1	5.213486E-1	5.400547E-1	6.366721E-1	6.716854E-1	6.170504E-1	5.969308E-1	6.290283E-1	6.550858E-1	6.853943E-1	6.262851E-1	6.731615E-1	7.085751E-1	6.092329E-1	5.303258E-1	6.711549E-1	7.060437E-1	5.040425E-1
2.894020E+2	4.968430E-1	5.727452E-1	5.634008E-1	5.169021E-1	5.030913E-1	5.611833E-1	5.337095E-1	4.259150E-1	4.807532E-1	5.371921E-1	5.348835E-1	4.274126E-1	4.969191E-1	5.379995E-1	5.697384E-1	5.048287E-1	4.576308E-1	5.303325E-1	5.628464E-1	5.320429E-1	4.831335E-1	5.106506E-1	5.717491E-1	4.601537E-1	5.138749E-1	5.180155E-1	5.465497E-1	3.892119E-1	4.677295E-1	5.223771E-1	5.585913E-1	4.284785E-1	5.231955E-1	5.400484E-1	5.717132E-1	5.330125E-1	5.313003E-1	4.933234E-1	5.299933E-1	5.099178E-1	5.171213E-1	5.367578E-1	5.305457E-1	4.084054E-1	5.072784E-1	5.199718E-1	4.951937E-1	4.729704E-1	4.793541E-1	5.786139E-1	5.290171E-1	5.905904E-1	5.121703E-1	5.440880E-1	5.371517E-1	4.989195E-1	5.151612E-1	5.377553E-1	5.306979E-1	4.648926E-1	5.068930E-1	5.463790E-1	5.456433E-1	5.177922E-1	5.257782E-1	5.676494E-1	5.746450E-1	5.327683E-1	5.569300E-1	5.204014E-1	5.328211E-1	4.323059E-1	5.336557E-1	5.500102E-1	5.221820E-1	4.190245E-1	4.881867E-1	5.229533E-1	5.128448E-1	4.333311E-1	5.589108E-1	5.115932E-1	5.143610E-1	5.445748E-1	5.868285E-1	5.391465E-1	4.946614E-1	4.870349E-1	5.403244E-1	5.405374E-1	4.761924E-1	4.418670E-1	5.210362E-1	5.537089E-1	4.897552E-1	4.841628E-1	5.407075E-1	5.558419E-1	5.474245E-1	5.488310E-1	5.223460E-1	5.882169E-1	4.432721E-1	4.576568E-1	5.388116E-1	5.718663E-1	5.247387E-1	4.652170E-1	5.882258E-1	5.288318E-1	5.391112E-1	5.446755E-1	5.240831E-1	5.429742E-1	5.490122E-1	5.581695E-1	5.855855E-1	5.495588E-1	4.873367E-1	4.678083E-1	5.270465E-1	5.504784E-1	4.965566E-1	4.512554E-1	5.843568E-1	5.497542E-1	5.374431E-1	5.151825E-1	5.399847E-1	5.316032E-1	5.388499E-1	4.836549E-1	4.928515E-1	4.941852E-1	4.846676E-1	4.774431E-1	5.927829E-1	5.269934E-1	4.348736E-1	3.938107E-1	5.567195E-1	5.467837E-1	5.107545E-1	5.317491E-1	5.986863E-1	5.555792E-1	5.499104E-1	5.644733E-1	5.550241E-1	5.553790E-1	4.613091E-1	4.854476E-1	5.111958E-1	5.411855E-1	4.535297E-1	3.956269E-1	5.655748E-1	5.347313E-1	5.000424E-1	4.784497E-1	4.870050E-1	5.507414E-1	4.742909E-1	5.280895E-1	5.214329E-1	5.325470E-1	4.669176E-1	4.060638E-1	5.352113E-1	5.461963E-1	5.528253E-1
2.896060E+2	3.809082E-1	4.835392E-1	3.985016E-1	4.662357E-1	4.679284E-1	4.405301E-1	4.630964E-1	3.687256E-1	4.227186E-1	4.530445E-1	4.743970E-1	3.445702E-1	3.527638E-1	4.374337E-1	4.710028E-1	3.666825E-1	4.039895E-1	4.383913E-1	4.657352E-1	4.542575E-1	4.243927E-1	4.767419E-1	4.364302E-1	3.680914E-1	4.223486E-1	4.862231E-1	4.285417E-1	3.319196E-1	4.190248E-1	4.452714E-1	4.621244E-1	3.885649E-1	4.326441E-1	4.431092E-1	4.035175E-1	4.254026E-1	4.188126E-1	4.530145E-1	4.141007E-1	3.830742E-1	4.814686E-1	4.363909E-1	4.197531E-1	3.379622E-1	4.443406E-1	4.233389E-1	4.457397E-1	4.233913E-1	4.329025E-1	4.773611E-1	4.575007E-1	4.582833E-1	4.311910E-1	4.465708E-1	4.198890E-1	3.818742E-1	4.398912E-1	4.658667E-1	4.565416E-1	3.466051E-1	4.342588E-1	4.664595E-1	4.652588E-1	4.684158E-1	4.268548E-1	4.800107E-1	4.842826E-1	4.369064E-1	4.280320E-1	4.679434E-1	4.579989E-1	3.714814E-1	4.453442E-1	4.404390E-1	4.253203E-1	4.040153E-1	4.694067E-1	4.552643E-1	4.694714E-1	4.092419E-1	4.282423E-1	4.587330E-1	4.735134E-1	4.595102E-1	4.463927E-1	4.435362E-1	4.589590E-1	3.624452E-1	4.871378E-1	4.147262E-1	4.542919E-1	3.656717E-1	4.705689E-1	4.629069E-1	4.463426E-1	3.849415E-1	4.669968E-1	4.602823E-1	4.869904E-1	4.546644E-1	4.541933E-1	4.180128E-1	4.112828E-1	4.039382E-1	5.013727E-1	4.544936E-1	3.821090E-1	4.004246E-1	4.631286E-1	4.572740E-1	4.893926E-1	4.370857E-1	4.426583E-1	4.764716E-1	4.840523E-1	4.424315E-1	4.407786E-1	4.539751E-1	3.709285E-1	3.664114E-1	4.683780E-1	4.724831E-1	4.400953E-1	3.703390E-1	4.723830E-1	4.185013E-1	4.337921E-1	3.721481E-1	4.622357E-1	4.524383E-1	4.425325E-1	4.611088E-1	4.723274E-1	4.235622E-1	3.829130E-1	3.885414E-1	4.469727E-1	4.359045E-1	3.900090E-1	3.360785E-1	4.905900E-1	5.170431E-1	4.228806E-1	3.891918E-1	4.723500E-1	4.652423E-1	4.382312E-1	4.119338E-1	4.512784E-1	4.577554E-1	3.449551E-1	3.814496E-1	4.750008E-1	4.423581E-1	3.594877E-1	3.791725E-1	4.452551E-1	4.690686E-1	3.951683E-1	4.000434E-1	4.249442E-1	4.823386E-1	4.681419E-1	4.584956E-1	4.508177E-1	4.347530E-1	4.341551E-1	3.887754E-1	4.577991E-1	4.757549E-1	5.040422E-1
2.898030E+2	4.052540E-1	5.164046E-1	5.039110E-1	4.886240E-1	4.475702E-1	4.959414E-1	4.371242E-1	4.052897E-1	4.720478E-1	4.605250E-1	5.058830E-1	3.377476E-1	4.101072E-1	4.915840E-1	4.854333E-1	4.330990E-1	4.134005E-1	5.165405E-1	4.720885E-1	5.032731E-1	3.994487E-1	4.837234E-1	4.611742E-1	4.491736E-1	4.555393E-1	4.556085E-1	4.806278E-1	4.057196E-1	4.285924E-1	4.571344E-1	4.772715E-1	4.493027E-1	4.147223E-1	4.956183E-1	4.711933E-1	4.507827E-1	4.715170E-1	4.860674E-1	4.805819E-1	4.423780E-1	4.767777E-1	4.777695E-1	4.776447E-1	3.837042E-1	4.901955E-1	5.251027E-1	4.774647E-1	4.164192E-1	4.730200E-1	4.813718E-1	4.861081E-1	4.903868E-1	4.780216E-1	5.015804E-1	5.166769E-1	4.211795E-1	4.653346E-1	5.084669E-1	4.812607E-1	4.448259E-1	4.923659E-1	4.993158E-1	4.980078E-1	4.836088E-1	4.421523E-1	4.707311E-1	4.912339E-1	4.491676E-1	4.626354E-1	4.654045E-1	4.999724E-1	4.063663E-1	4.276816E-1	5.134870E-1	4.932234E-1	3.815020E-1	4.846091E-1	4.958774E-1	4.581573E-1	4.333310E-1	4.764891E-1	4.840613E-1	5.086883E-1	4.563599E-1	4.866394E-1	4.861348E-1	4.589595E-1	4.139998E-1	4.880876E-1	4.781351E-1	4.415159E-1	4.228183E-1	4.924692E-1	4.629065E-1	4.420018E-1	4.291326E-1	4.542214E-1	5.000096E-1	4.255313E-1	4.475122E-1	4.692406E-1	5.095206E-1	4.474812E-1	4.512840E-1	4.837546E-1	5.039129E-1	4.823631E-1	4.371727E-1	4.510221E-1	4.842245E-1	5.172346E-1	4.138459E-1	4.460515E-1	5.190750E-1	4.717321E-1	4.534075E-1	4.741215E-1	5.100979E-1	4.882678E-1	4.274214E-1	5.188130E-1	4.830751E-1	4.867843E-1	3.861503E-1	4.959566E-1	4.850270E-1	4.899768E-1	4.812019E-1	5.086695E-1	4.615729E-1	4.589510E-1	4.488112E-1	4.964204E-1	5.294968E-1	4.316523E-1	3.674162E-1	5.090402E-1	4.468793E-1	4.617923E-1	3.722833E-1	4.969312E-1	5.170434E-1	4.768232E-1	4.660242E-1	4.830557E-1	4.787408E-1	4.565227E-1	4.718977E-1	5.137093E-1	4.877940E-1	4.189223E-1	4.413805E-1	4.501811E-1	5.208082E-1	3.721478E-1	4.001969E-1	4.955703E-1	5.056516E-1	4.411048E-1	4.287930E-1	4.416523E-1	4.313261E-1	4.630188E-1	4.899555E-1	4.784917E-1	5.080983E-1	4.208449E-1	4.309162E-1	5.522041E-1	5.028479E-1	3.956368E-1
2.900050E+2	4.307603E-1	5.633548E-1	5.226978E-1	5.192584E-1	4.864346E-1	5.361582E-1	5.604943E-1	4.465413E-1	5.252460E-1	5.025987E-1	4.884824E-1	4.264372E-1	4.873615E-1	5.096349E-1	5.537888E-1	4.596657E-1	4.830400E-1	5.498698E-1	5.102071E-1	4.798309E-1	5.096875E-1	5.445588E-1	5.493242E-1	4.432618E-1	5.199088E-1	5.321453E-1	5.424801E-1	4.202848E-1	4.659901E-1	4.897558E-1	5.338763E-1	4.510381E-1	4.788626E-1	5.683227E-1	5.239416E-1	5.228605E-1	5.281534E-1	5.602352E-1	5.344850E-1	4.654409E-1	5.171212E-1	5.041821E-1	5.445199E-1	4.578063E-1	5.324551E-1	5.858192E-1	5.101237E-1	4.822664E-1	4.951905E-1	5.766087E-1	5.382112E-1	5.390292E-1	5.326595E-1	5.582567E-1	5.613494E-1	4.657276E-1	5.109210E-1	5.492922E-1	5.414458E-1	4.891830E-1	4.817137E-1	5.517071E-1	5.605300E-1	5.082963E-1	5.206798E-1	5.645561E-1	5.792777E-1	5.060150E-1	5.188653E-1	5.322468E-1	5.355588E-1	4.448283E-1	4.964722E-1	5.415819E-1	5.371606E-1	4.349714E-1	5.239565E-1	5.132831E-1	5.269881E-1	5.081788E-1	4.825206E-1	5.115935E-1	5.166311E-1	5.592770E-1	4.840707E-1	5.239998E-1	5.512609E-1	4.586796E-1	5.374741E-1	4.942390E-1	5.647104E-1	4.561542E-1	5.277018E-1	5.433051E-1	5.227492E-1	4.408051E-1	5.161375E-1	5.311464E-1	5.433270E-1	5.178381E-1	5.843021E-1	5.726605E-1	5.325062E-1	4.740460E-1	5.443169E-1	5.780432E-1	5.123355E-1	4.362045E-1	5.448454E-1	5.855211E-1	5.092792E-1	5.748017E-1	5.387845E-1	5.731075E-1	5.803715E-1	5.202551E-1	5.398566E-1	5.714813E-1	5.637008E-1	4.446079E-1	5.404276E-1	5.129253E-1	5.834188E-1	4.103323E-1	5.588189E-1	5.254817E-1	5.025700E-1	4.622364E-1	5.626610E-1	5.275444E-1	5.826296E-1	5.738402E-1	5.695925E-1	5.562191E-1	5.265668E-1	4.457559E-1	5.188926E-1	5.247998E-1	6.133345E-1	3.957673E-1	5.992959E-1	5.269570E-1	5.377248E-1	4.947212E-1	5.483652E-1	5.202751E-1	6.250057E-1	5.171331E-1	5.485970E-1	5.225243E-1	5.344452E-1	4.449050E-1	5.535959E-1	5.574864E-1	5.240615E-1	4.440744E-1	5.141652E-1	5.469257E-1	5.425120E-1	5.037147E-1	5.478726E-1	4.974107E-1	5.767685E-1	5.357172E-1	5.500615E-1	5.961117E-1	4.996808E-1	4.471244E-1	5.503155E-1	4.188601E-1	5.203035E-1
2.905310E+2	4.910466E-1	5.727454E-1	5.216539E-1	5.275072E-1	5.539852E-1	5.459899E-1	5.483186E-1	4.709171E-1	4.875234E-1	5.792652E-1	5.895710E-1	4.410566E-1	4.825830E-1	5.526112E-1	5.537894E-1	4.933160E-1	4.397495E-1	5.590644E-1	5.755527E-1	5.608132E-1	5.354371E-1	5.395730E-1	6.042256E-1	4.542418E-1	5.289613E-1	5.733572E-1	5.660823E-1	4.299958E-1	4.981704E-1	5.441253E-1	5.522126E-1	5.395435E-1	5.203652E-1	5.784198E-1	5.836567E-1	5.248914E-1	5.470327E-1	5.578167E-1	5.856931E-1	4.308462E-1	5.621566E-1	5.288344E-1	5.774581E-1	5.044628E-1	5.441437E-1	5.832532E-1	5.931686E-1	4.993082E-1	5.173603E-1	5.675867E-1	5.841859E-1	5.701612E-1	5.492452E-1	5.607571E-1	5.427359E-1	4.735878E-1	5.395446E-1	5.484052E-1	5.822853E-1	4.976316E-1	5.262622E-1	5.703557E-1	5.853392E-1	4.978512E-1	5.318967E-1	5.635252E-1	6.325686E-1	5.639786E-1	5.794224E-1	5.508615E-1	6.039931E-1	4.618233E-1	5.699092E-1	5.350262E-1	5.711118E-1	4.255914E-1	5.418420E-1	5.596981E-1	5.458453E-1	4.866712E-1	5.297613E-1	5.126941E-1	5.801716E-1	5.424737E-1	5.705581E-1	5.514520E-1	5.895749E-1	4.423540E-1	5.726146E-1	5.656995E-1	5.683612E-1	4.437722E-1	5.915002E-1	5.745183E-1	5.574793E-1	4.899986E-1	5.918122E-1	5.923488E-1	5.720076E-1	5.881665E-1	5.754517E-1	6.120089E-1	5.838570E-1	4.649405E-1	5.751486E-1	5.543629E-1	5.846842E-1	4.661847E-1	5.498893E-1	6.078253E-1	5.460715E-1	5.214361E-1	5.614025E-1	5.367389E-1	5.736522E-1	5.521824E-1	5.550993E-1	5.732354E-1	5.301754E-1	4.970246E-1	5.568961E-1	5.889955E-1	5.921052E-1	4.521859E-1	5.774809E-1	5.731288E-1	5.703792E-1	5.001684E-1	5.680611E-1	5.864108E-1	5.902907E-1	5.512940E-1	5.285448E-1	6.201617E-1	6.129306E-1	4.334321E-1	5.602709E-1	5.456510E-1	5.614910E-1	4.446934E-1	5.875202E-1	5.576883E-1	5.638253E-1	5.076815E-1	5.505063E-1	5.368887E-1	5.730170E-1	5.223944E-1	5.403346E-1	5.347280E-1	5.469125E-1	4.493121E-1	5.566980E-1	5.422045E-1	5.620402E-1	5.053183E-1	5.732312E-1	5.666247E-1	5.884485E-1	4.880326E-1	5.657733E-1	5.576986E-1	5.501238E-1	5.414369E-1	5.691470E-1	5.560171E-1	5.856851E-1	5.033128E-1	5.578687E-1	5.895446E-1	5.582461E-1
2.910030E+2	5.095959E-1	6.466929E-1	6.041034E-1	5.557856E-1	5.650889E-1	6.460863E-1	6.384118E-1	5.037310E-1	5.890835E-1	6.858519E-1	6.931446E-1	4.829652E-1	5.447056E-1	5.672236E-1	6.661961E-1	5.225402E-1	5.263293E-1	6.096315E-1	5.900745E-1	6.023699E-1	5.949829E-1	5.904356E-1	6.444349E-1	5.767100E-1	6.285326E-1	6.487168E-1	6.547919E-1	5.319554E-1	5.781848E-1	6.123333E-1	6.550572E-1	5.968110E-1	5.618672E-1	6.450651E-1	6.334192E-1	6.111824E-1	6.209765E-1	6.279530E-1	6.189329E-1	5.420417E-1	6.372156E-1	6.512111E-1	6.543145E-1	4.669545E-1	5.729149E-1	6.756106E-1	6.388901E-1	5.814228E-1	5.595889E-1	6.247287E-1	6.087060E-1	6.246409E-1	6.546159E-1	6.532730E-1	6.209118E-1	5.609353E-1	6.126942E-1	6.735442E-1	6.252753E-1	5.493829E-1	6.182658E-1	6.120913E-1	6.220584E-1	6.023013E-1	5.747306E-1	5.965189E-1	6.047650E-1	6.252857E-1	6.209465E-1	6.794681E-1	6.733400E-1	4.788182E-1	6.210367E-1	6.221204E-1	6.230371E-1	4.893792E-1	5.454184E-1	6.563972E-1	6.354188E-1	5.511962E-1	6.855584E-1	6.283267E-1	6.028662E-1	5.666286E-1	6.142306E-1	6.252907E-1	6.400800E-1	5.678028E-1	6.846843E-1	6.049531E-1	6.222022E-1	5.399692E-1	6.400628E-1	6.501878E-1	6.286761E-1	5.133452E-1	6.399690E-1	6.632134E-1	6.181023E-1	6.298870E-1	6.250166E-1	6.321404E-1	6.032195E-1	5.578096E-1	6.015754E-1	6.552619E-1	6.074230E-1	5.580547E-1	6.820470E-1	6.282699E-1	6.126939E-1	5.429543E-1	6.236018E-1	6.738992E-1	6.946122E-1	6.120470E-1	6.494148E-1	6.635575E-1	6.745218E-1	5.391295E-1	6.526188E-1	6.284744E-1	6.268508E-1	5.061294E-1	6.069479E-1	6.171792E-1	6.265640E-1	5.420511E-1	6.792861E-1	6.412180E-1	6.132749E-1	6.220071E-1	6.365185E-1	6.526106E-1	6.821921E-1	5.258555E-1	6.637169E-1	6.718592E-1	6.851173E-1	4.779627E-1	6.409670E-1	6.270839E-1	6.456081E-1	5.456349E-1	6.126040E-1	6.407259E-1	6.702563E-1	6.391649E-1	6.266367E-1	6.614494E-1	5.951163E-1	5.356826E-1	6.663168E-1	6.338988E-1	6.316674E-1	5.162881E-1	5.951072E-1	6.172788E-1	6.413189E-1	5.978025E-1	6.278349E-1	6.237832E-1	6.044374E-1	6.215182E-1	6.235398E-1	6.528333E-1	6.378998E-1	4.892654E-1	6.371686E-1	6.383110E-1	6.991735E-1
2.915180E+2	6.672676E-1	7.546818E-1	7.449975E-1	7.219246E-1	6.798320E-1	7.095411E-1	7.155187E-1	6.246723E-1	6.751682E-1	7.494297E-1	6.757440E-1	6.047925E-1	6.315168E-1	6.849798E-1	7.375899E-1	6.943374E-1	6.759585E-1	6.958268E-1	7.189506E-1	7.302366E-1	6.625754E-1	7.061240E-1	7.202133E-1	6.062712E-1	7.431918E-1	7.158335E-1	7.337353E-1	5.552604E-1	6.381957E-1	7.368872E-1	7.052846E-1	6.610206E-1	6.222344E-1	7.672465E-1	7.120432E-1	6.974734E-1	7.232378E-1	6.940590E-1	7.258423E-1	6.244081E-1	6.982012E-1	7.568599E-1	7.381572E-1	6.233915E-1	6.538375E-1	7.388915E-1	7.228697E-1	6.224802E-1	6.894423E-1	6.888894E-1	7.006553E-1	6.557717E-1	6.848626E-1	7.641260E-1	7.335205E-1	6.806006E-1	6.540401E-1	7.445452E-1	7.209255E-1	6.190872E-1	7.054274E-1	7.124355E-1	7.719115E-1	6.564250E-1	6.971104E-1	6.965298E-1	7.901218E-1	7.133440E-1	7.334087E-1	7.090819E-1	7.518104E-1	6.228296E-1	6.944743E-1	6.979780E-1	7.258910E-1	5.634864E-1	6.330564E-1	6.989440E-1	7.089633E-1	6.071169E-1	6.986253E-1	7.395523E-1	7.333534E-1	6.726961E-1	7.349707E-1	7.085940E-1	7.593764E-1	6.253717E-1	7.701620E-1	7.015763E-1	7.563477E-1	5.875912E-1	6.667251E-1	7.532870E-1	7.181069E-1	6.209034E-1	7.009030E-1	7.179723E-1	7.205327E-1	7.347815E-1	7.374225E-1	7.648264E-1	6.680398E-1	6.188122E-1	7.238004E-1	7.499829E-1	7.035435E-1	6.073746E-1	7.950374E-1	7.834666E-1	7.469339E-1	6.359127E-1	7.197272E-1	7.601431E-1	7.438925E-1	6.998480E-1	6.494150E-1	7.775558E-1	7.173611E-1	5.881104E-1	7.874536E-1	7.517274E-1	7.017706E-1	5.507734E-1	7.552630E-1	7.115735E-1	7.108416E-1	6.629590E-1	6.954821E-1	7.437271E-1	7.873010E-1	7.132178E-1	7.159371E-1	7.337321E-1	7.514551E-1	6.411641E-1	7.385932E-1	7.157569E-1	7.120367E-1	5.464589E-1	7.532971E-1	7.073835E-1	7.465320E-1	6.308000E-1	7.143153E-1	6.874526E-1	8.108180E-1	7.327927E-1	7.028401E-1	7.665816E-1	7.064839E-1	6.202912E-1	6.590778E-1	7.826481E-1	7.465073E-1	5.738767E-1	7.362091E-1	7.345338E-1	7.401261E-1	6.195826E-1	7.113777E-1	7.118947E-1	7.284348E-1	7.073202E-1	7.418699E-1	7.291116E-1	7.597382E-1	6.491848E-1	7.523436E-1	6.626952E-1	7.967384E-1
2.920010E+2	4.968435E-1	5.938737E-1	6.343694E-1	5.875992E-1	5.724918E-1	6.559176E-1	6.018878E-1	5.365447E-1	5.445908E-1	6.213394E-1	6.608291E-1	5.073305E-1	5.383334E-1	5.912909E-1	6.145499E-1	5.358235E-1	6.016143E-1	5.981389E-1	6.136719E-1	5.970428E-1	5.772805E-1	6.024033E-1	6.080919E-1	5.040741E-1	5.611463E-1	6.181019E-1	6.401424E-1	5.067084E-1	5.390468E-1	5.787229E-1	6.486799E-1	5.751187E-1	5.250815E-1	6.349674E-1	5.985849E-1	5.786963E-1	6.217630E-1	6.061866E-1	6.162383E-1	5.502781E-1	6.240807E-1	6.203973E-1	5.924306E-1	5.511195E-1	6.016869E-1	6.268667E-1	6.099650E-1	5.953670E-1	5.595891E-1	5.565596E-1	5.852081E-1	5.954551E-1	6.077850E-1	6.282689E-1	6.544152E-1	5.574414E-1	6.455584E-1	6.460318E-1	6.510684E-1	5.335410E-1	5.504742E-1	5.969955E-1	6.210662E-1	5.966033E-1	6.053256E-1	6.284810E-1	6.128743E-1	5.862716E-1	6.391135E-1	5.940125E-1	6.487028E-1	5.289097E-1	6.312618E-1	6.333585E-1	5.980739E-1	4.612369E-1	5.749293E-1	6.592977E-1	6.674768E-1	5.486151E-1	5.820294E-1	6.272249E-1	6.198861E-1	6.348900E-1	6.322130E-1	6.357027E-1	6.522709E-1	5.360114E-1	5.982579E-1	6.210568E-1	6.249397E-1	4.932996E-1	6.333978E-1	6.104612E-1	5.878683E-1	5.241844E-1	6.065538E-1	6.310019E-1	6.221998E-1	6.155827E-1	5.727961E-1	6.202447E-1	6.335247E-1	5.505262E-1	6.687442E-1	6.006936E-1	5.857186E-1	5.077676E-1	6.255520E-1	6.477856E-1	6.126944E-1	5.696373E-1	6.021144E-1	6.271395E-1	6.587722E-1	6.300054E-1	6.122604E-1	6.828494E-1	6.279586E-1	5.073362E-1	6.505601E-1	6.236603E-1	5.866769E-1	4.865986E-1	6.167691E-1	5.785230E-1	6.536874E-1	5.309879E-1	6.220533E-1	5.843806E-1	6.712845E-1	5.738401E-1	6.115329E-1	6.306605E-1	6.839029E-1	5.012090E-1	6.134722E-1	6.082058E-1	5.963856E-1	4.730699E-1	6.627081E-1	6.052737E-1	6.160268E-1	6.021026E-1	6.308060E-1	6.490327E-1	6.538894E-1	6.118130E-1	6.119471E-1	5.985575E-1	6.873683E-1	5.277513E-1	6.373609E-1	6.695583E-1	6.452316E-1	4.916073E-1	6.202654E-1	6.210311E-1	6.456529E-1	5.716670E-1	5.896431E-1	6.353761E-1	6.351805E-1	5.357165E-1	6.244939E-1	6.029582E-1	6.297095E-1	5.260042E-1	6.390572E-1	5.543242E-1	6.178688E-1
2.925020E+2	5.872720E-1	7.135990E-1	6.604617E-1	6.382661E-1	5.882223E-1	6.755786E-1	6.546456E-1	5.571701E-1	6.413151E-1	6.334934E-1	6.525434E-1	4.907619E-1	5.829340E-1	6.514585E-1	6.783482E-1	5.756734E-1	5.602070E-1	6.521544E-1	6.681268E-1	6.140908E-1	6.102720E-1	6.442905E-1	6.367019E-1	5.513718E-1	6.204871E-1	7.123006E-1	6.678132E-1	5.154475E-1	5.633989E-1	6.083788E-1	6.813671E-1	6.072233E-1	5.929943E-1	6.814167E-1	6.632760E-1	5.858023E-1	6.060302E-1	6.053805E-1	6.503765E-1	5.667514E-1	5.996867E-1	6.688197E-1	6.193798E-1	5.620974E-1	6.430467E-1	7.029754E-1	6.734152E-1	5.930428E-1	6.155419E-1	6.758568E-1	6.597888E-1	6.752290E-1	6.555925E-1	6.949473E-1	7.074627E-1	6.238249E-1	6.042137E-1	6.699944E-1	7.091047E-1	5.821231E-1	6.114869E-1	6.369554E-1	7.193145E-1	6.526267E-1	6.807933E-1	6.882814E-1	6.441539E-1	6.364331E-1	6.477647E-1	6.481629E-1	6.459663E-1	4.707681E-1	6.154597E-1	6.314864E-1	6.500002E-1	5.681772E-1	6.205361E-1	6.670342E-1	6.354186E-1	5.907708E-1	6.704809E-1	6.646671E-1	6.925041E-1	6.684951E-1	6.476268E-1	6.811414E-1	6.897144E-1	5.463216E-1	6.732879E-1	6.784264E-1	6.349780E-1	5.380634E-1	6.800559E-1	6.880216E-1	6.278085E-1	5.675415E-1	7.126964E-1	6.825402E-1	6.857067E-1	6.704142E-1	6.480290E-1	6.980260E-1	6.267896E-1	6.115281E-1	6.158907E-1	6.954155E-1	6.663348E-1	5.396802E-1	6.800302E-1	6.765952E-1	6.723562E-1	6.204197E-1	6.722302E-1	6.863685E-1	6.778123E-1	6.339969E-1	6.741849E-1	6.582960E-1	7.089794E-1	6.044369E-1	6.526190E-1	6.525474E-1	6.605096E-1	5.089195E-1	6.766847E-1	6.657250E-1	6.517502E-1	5.618077E-1	6.166538E-1	6.584719E-1	6.669057E-1	6.650501E-1	6.632891E-1	6.640624E-1	6.608158E-1	5.698669E-1	6.735699E-1	6.323505E-1	6.392561E-1	5.337380E-1	6.663322E-1	7.222541E-1	6.891099E-1	6.141373E-1	6.575719E-1	6.656471E-1	6.721807E-1	6.675695E-1	6.909038E-1	6.717749E-1	6.607726E-1	5.365643E-1	6.963076E-1	6.909536E-1	6.841144E-1	5.363984E-1	6.246405E-1	6.848175E-1	7.037238E-1	6.065143E-1	6.970559E-1	6.863889E-1	6.792461E-1	6.377262E-1	6.922477E-1	6.743476E-1	6.471147E-1	5.584198E-1	6.636022E-1	6.572768E-1	5.907672E-1
2.930050E+2	6.046619E-1	6.185233E-1	6.583730E-1	6.783279E-1	6.206093E-1	6.273179E-1	6.530215E-1	6.527983E-1	6.442164E-1	6.213389E-1	6.666295E-1	6.262349E-1	5.725799E-1	6.617723E-1	6.365752E-1	6.234930E-1	5.790281E-1	6.268710E-1	6.644963E-1	6.460577E-1	6.078579E-1	6.353149E-1	6.421143E-1	5.741760E-1	6.265217E-1	6.652010E-1	6.490948E-1	5.775953E-1	6.034066E-1	6.350692E-1	6.805694E-1	6.124299E-1	5.486627E-1	6.178014E-1	6.115233E-1	5.989997E-1	6.107502E-1	6.223104E-1	6.315109E-1	5.675748E-1	6.222044E-1	6.212770E-1	6.872530E-1	5.465456E-1	6.007887E-1	6.268661E-1	6.258271E-1	5.496617E-1	5.859818E-1	6.507944E-1	6.965691E-1	6.489623E-1	5.726610E-1	6.632748E-1	6.609297E-1	6.124704E-1	6.020938E-1	6.859696E-1	6.929832E-1	5.008007E-1	5.921172E-1	6.644831E-1	6.657240E-1	6.041998E-1	6.471387E-1	6.336358E-1	6.464705E-1	5.963046E-1	6.572807E-1	6.177036E-1	7.089259E-1	5.190698E-1	6.768118E-1	6.211843E-1	7.159060E-1	5.231498E-1	6.151713E-1	6.544629E-1	6.335324E-1	6.303457E-1	6.503787E-1	6.569588E-1	6.754852E-1	6.306892E-1	6.433453E-1	6.517961E-1	6.540126E-1	5.600696E-1	6.618909E-1	6.069654E-1	6.322402E-1	5.637800E-1	6.048314E-1	6.378913E-1	6.356224E-1	5.650394E-1	6.399694E-1	6.535493E-1	6.385886E-1	6.966380E-1	5.869571E-1	6.614225E-1	6.444686E-1	5.723775E-1	6.577335E-1	6.665872E-1	6.849386E-1	5.532192E-1	6.517825E-1	6.738074E-1	6.286032E-1	6.006230E-1	6.439578E-1	6.406481E-1	6.688523E-1	6.270124E-1	6.398879E-1	6.775879E-1	6.363400E-1	5.090549E-1	6.608524E-1	6.650657E-1	6.887409E-1	5.079896E-1	6.599882E-1	6.171788E-1	6.934049E-1	5.768215E-1	6.695662E-1	6.747102E-1	6.493942E-1	5.984359E-1	6.864902E-1	6.621543E-1	6.471348E-1	4.915267E-1	6.617471E-1	6.488127E-1	6.721576E-1	5.004691E-1	6.672386E-1	7.054013E-1	6.543087E-1	5.993260E-1	6.768437E-1	6.282655E-1	6.972124E-1	6.486326E-1	6.468356E-1	6.445529E-1	6.532928E-1	5.374457E-1	7.056142E-1	6.522379E-1	6.533695E-1	5.400549E-1	6.487042E-1	6.510477E-1	6.863883E-1	5.821211E-1	6.254481E-1	6.411733E-1	6.495267E-1	6.186582E-1	6.302194E-1	6.567448E-1	6.010422E-1	5.508567E-1	7.391268E-1	5.787070E-1	5.690868E-1
2.935120E+2	6.382835E-1	7.347267E-1	7.084695E-1	6.948238E-1	6.946365E-1	6.979217E-1	7.000971E-1	6.771744E-1	6.761351E-1	6.802417E-1	6.823730E-1	6.710661E-1	6.139951E-1	6.540368E-1	6.988554E-1	6.890245E-1	6.411390E-1	7.096186E-1	6.844633E-1	6.588442E-1	6.376305E-1	7.340494E-1	7.109340E-1	6.974895E-1	6.929037E-1	6.828630E-1	6.971120E-1	6.591628E-1	6.051461E-1	6.706563E-1	7.116622E-1	6.913901E-1	6.543050E-1	7.450324E-1	7.120426E-1	6.832604E-1	6.791862E-1	6.892223E-1	6.943983E-1	6.705327E-1	7.019542E-1	6.802643E-1	6.622992E-1	6.179026E-1	6.646263E-1	6.721897E-1	7.387324E-1	6.767070E-1	5.965389E-1	6.828745E-1	6.638759E-1	7.044149E-1	6.507141E-1	6.432716E-1	7.633022E-1	6.351803E-1	6.890246E-1	6.850818E-1	6.929833E-1	6.233127E-1	6.870264E-1	6.316279E-1	7.242762E-1	6.326865E-1	6.471381E-1	6.882812E-1	6.962848E-1	6.921650E-1	7.065904E-1	6.904680E-1	7.308248E-1	5.763163E-1	7.009821E-1	7.204540E-1	6.609840E-1	5.372204E-1	6.303728E-1	6.650997E-1	7.155638E-1	6.320666E-1	7.348099E-1	6.888961E-1	7.367566E-1	6.296391E-1	6.510525E-1	7.029145E-1	7.140956E-1	5.592108E-1	6.723381E-1	6.965436E-1	7.088953E-1	5.542558E-1	6.990999E-1	7.277489E-1	7.155016E-1	5.867181E-1	6.537288E-1	7.029404E-1	6.979985E-1	6.751822E-1	6.834323E-1	6.815543E-1	6.815087E-1	5.987812E-1	7.293066E-1	6.748241E-1	6.746028E-1	5.870662E-1	7.264369E-1	6.645138E-1	7.111365E-1	6.625951E-1	6.880625E-1	7.019547E-1	6.822921E-1	6.649266E-1	6.694208E-1	7.179261E-1	6.754534E-1	6.001404E-1	7.092292E-1	6.612148E-1	7.093709E-1	5.712343E-1	7.316898E-1	7.304516E-1	6.798430E-1	6.005292E-1	6.609280E-1	6.361428E-1	7.303870E-1	6.793979E-1	7.346764E-1	7.547271E-1	6.514096E-1	5.821891E-1	6.932728E-1	7.069787E-1	7.658741E-1	5.611362E-1	6.907908E-1	7.034186E-1	7.247811E-1	5.946978E-1	7.143164E-1	7.009511E-1	7.126166E-1	7.254292E-1	6.817228E-1	7.149539E-1	7.172876E-1	5.964952E-1	7.004432E-1	6.766901E-1	6.578910E-1	5.885018E-1	6.946445E-1	7.073308E-1	7.392594E-1	6.605277E-1	6.827344E-1	6.782738E-1	7.007661E-1	6.853929E-1	6.836594E-1	6.841261E-1	6.901168E-1	6.254139E-1	7.183573E-1	6.572759E-1	7.154345E-1
2.940100E+2	6.753829E-1	7.769826E-1	7.554339E-1	7.690562E-1	7.298010E-1	7.738884E-1	7.244466E-1	7.606157E-1	6.877429E-1	7.522339E-1	7.337456E-1	7.811982E-1	6.386843E-1	7.365523E-1	7.261980E-1	8.103446E-1	6.703125E-1	7.647835E-1	6.953540E-1	7.675301E-1	7.156835E-1	7.629713E-1	7.503695E-1	7.253618E-1	7.834227E-1	7.311401E-1	7.671033E-1	7.164545E-1	6.321073E-1	7.655543E-1	7.587001E-1	7.625409E-1	6.863743E-1	6.814167E-1	7.627995E-1	7.055952E-1	7.751553E-1	7.851562E-1	8.049001E-1	7.224245E-1	7.469892E-1	7.586212E-1	7.511328E-1	7.715958E-1	7.203714E-1	7.696779E-1	7.433974E-1	7.262854E-1	6.820523E-1	7.480378E-1	7.639982E-1	7.618131E-1	7.512066E-1	8.241362E-1	7.353822E-1	7.749353E-1	7.483927E-1	8.190959E-1	7.510190E-1	7.658909E-1	7.247967E-1	7.372995E-1	7.897746E-1	7.152962E-1	6.960902E-1	7.367401E-1	7.912797E-1	7.211462E-1	7.455195E-1	7.480033E-1	7.654984E-1	6.917037E-1	7.799968E-1	6.783116E-1	7.898000E-1	6.310268E-1	7.010199E-1	7.879071E-1	7.334791E-1	7.636971E-1	7.408418E-1	7.450593E-1	7.571807E-1	7.210040E-1	7.820690E-1	7.900048E-1	7.201909E-1	6.477119E-1	7.483178E-1	7.388157E-1	7.946752E-1	6.304513E-1	7.552809E-1	7.627458E-1	7.389441E-1	6.617596E-1	7.176104E-1	7.695110E-1	7.338494E-1	7.693506E-1	7.684015E-1	7.419493E-1	7.530636E-1	6.606933E-1	7.766540E-1	8.035218E-1	7.324825E-1	6.180118E-1	7.536757E-1	8.039121E-1	7.369903E-1	7.047708E-1	7.525229E-1	7.684568E-1	7.640521E-1	7.427502E-1	8.008905E-1	7.784330E-1	7.434353E-1	6.620093E-1	7.967173E-1	7.565423E-1	8.005772E-1	5.991371E-1	7.935699E-1	7.196646E-1	7.573398E-1	6.669103E-1	7.894296E-1	7.366217E-1	7.544660E-1	7.480619E-1	7.453846E-1	7.833585E-1	8.121655E-1	6.420441E-1	7.415483E-1	7.124657E-1	7.838199E-1	6.061476E-1	7.514855E-1	8.085017E-1	7.482718E-1	7.252216E-1	7.967551E-1	7.601380E-1	7.357229E-1	7.222724E-1	7.524170E-1	7.590717E-1	7.322474E-1	6.132410E-1	7.893796E-1	7.755165E-1	7.772526E-1	5.775327E-1	7.252705E-1	7.495428E-1	7.626606E-1	6.640121E-1	7.638906E-1	7.571105E-1	7.058896E-1	7.406886E-1	7.600006E-1	7.418252E-1	7.607613E-1	6.243330E-1	7.957698E-1	7.060447E-1	7.262752E-1
2.945010E+2	7.090045E-1	8.779277E-1	7.773518E-1	7.525596E-1	7.982759E-1	7.810380E-1	7.966832E-1	8.431193E-1	7.815657E-1	8.251606E-1	8.224051E-1	7.899705E-1	7.016029E-1	7.984388E-1	8.591110E-1	8.377966E-1	7.230123E-1	8.383366E-1	7.897434E-1	8.517091E-1	7.301680E-1	8.287944E-1	8.361996E-1	7.785708E-1	7.864398E-1	7.429154E-1	7.760554E-1	8.106457E-1	7.312554E-1	8.080620E-1	8.455996E-1	8.015868E-1	7.524004E-1	7.834040E-1	8.712813E-1	7.665069E-1	8.034735E-1	7.916054E-1	8.022050E-1	8.673896E-1	8.229864E-1	7.806316E-1	8.130172E-1	8.164231E-1	7.770169E-1	7.978983E-1	8.124470E-1	8.455837E-1	7.116124E-1	8.593150E-1	7.752355E-1	7.812706E-1	7.570605E-1	8.208030E-1	8.880104E-1	8.142414E-1	8.385051E-1	8.199836E-1	8.262513E-1	8.556621E-1	7.799980E-1	8.021241E-1	8.582511E-1	8.548788E-1	8.092919E-1	7.676713E-1	8.561552E-1	8.493337E-1	8.190516E-1	8.080758E-1	8.092968E-1	7.856235E-1	8.116030E-1	7.625965E-1	8.377322E-1	8.270824E-1	7.806084E-1	8.043471E-1	7.815656E-1	7.817635E-1	8.333147E-1	8.452734E-1	8.479538E-1	8.428244E-1	7.683668E-1	8.638427E-1	8.029151E-1	8.504926E-1	7.958051E-1	7.921599E-1	7.974120E-1	8.095111E-1	7.752778E-1	8.204429E-1	8.214287E-1	8.268498E-1	8.316147E-1	8.006486E-1	8.168190E-1	8.277575E-1	8.011493E-1	8.224761E-1	7.850542E-1	7.389950E-1	7.799570E-1	8.251419E-1	8.006965E-1	7.156852E-1	8.232854E-1	7.593050E-1	8.205163E-1	8.140832E-1	7.366908E-1	7.383228E-1	8.435740E-1	8.095991E-1	8.075582E-1	8.898006E-1	8.207318E-1	6.912257E-1	8.625913E-1	8.056522E-1	8.429227E-1	6.465710E-1	8.083036E-1	8.320382E-1	8.183677E-1	7.064230E-1	7.915887E-1	8.015787E-1	8.070027E-1	8.116025E-1	8.140953E-1	8.320313E-1	8.386732E-1	6.886961E-1	8.016452E-1	8.046520E-1	8.665700E-1	6.178899E-1	8.855562E-1	8.233730E-1	8.744254E-1	7.733574E-1	8.888312E-1	8.411293E-1	8.137069E-1	7.633004E-1	8.267836E-1	8.426143E-1	7.821131E-1	6.749338E-1	7.655943E-1	8.172885E-1	8.378373E-1	6.616296E-1	8.160573E-1	8.198960E-1	8.571347E-1	7.345784E-1	8.498204E-1	8.208767E-1	8.329619E-1	7.092271E-1	8.248918E-1	8.660223E-1	8.344784E-1	6.772798E-1	8.014351E-1	7.819033E-1	8.401011E-1
2.950050E+2	7.090036E-1	8.591467E-1	8.410157E-1	8.008689E-1	7.640382E-1	8.176811E-1	8.031761E-1	8.243683E-1	7.941394E-1	8.176814E-1	8.679776E-1	8.143351E-1	7.374421E-1	8.233657E-1	8.598711E-1	8.741040E-1	7.314816E-1	8.567252E-1	8.215080E-1	8.261369E-1	7.647677E-1	8.527303E-1	8.021774E-1	8.816138E-1	8.588561E-1	8.583087E-1	8.126788E-1	8.222989E-1	7.373440E-1	8.357401E-1	8.830703E-1	8.267503E-1	7.439113E-1	8.298531E-1	9.300014E-1	7.857949E-1	7.751553E-1	8.311073E-1	8.111895E-1	8.517403E-1	7.985930E-1	7.991196E-1	8.739030E-1	8.841208E-1	8.021926E-1	8.073044E-1	8.693658E-1	8.819931E-1	7.886789E-1	8.623230E-1	7.823880E-1	8.201840E-1	7.843797E-1	8.774780E-1	8.666055E-1	8.387000E-1	8.501664E-1	8.608089E-1	8.875110E-1	8.810090E-1	7.770929E-1	8.074515E-1	8.542816E-1	8.453836E-1	8.500856E-1	8.573724E-1	8.434122E-1	8.292697E-1	8.251073E-1	7.708476E-1	8.968922E-1	8.419759E-1	8.255464E-1	7.916274E-1	8.357350E-1	8.270827E-1	8.441006E-1	8.053138E-1	8.004235E-1	8.221991E-1	7.669751E-1	8.122357E-1	8.899367E-1	8.291713E-1	7.966252E-1	8.382833E-1	8.525491E-1	7.894864E-1	8.698848E-1	8.283934E-1	8.676799E-1	8.980891E-1	8.533585E-1	8.412529E-1	8.448726E-1	8.368553E-1	8.434080E-1	8.457438E-1	8.516450E-1	8.611331E-1	8.648761E-1	8.343711E-1	7.858949E-1	8.746565E-1	8.339129E-1	8.745627E-1	8.161994E-1	8.007863E-1	8.707008E-1	8.782575E-1	8.175337E-1	8.502335E-1	8.271619E-1	8.630135E-1	8.738133E-1	8.425236E-1	8.323282E-1	8.100015E-1	8.170061E-1	8.304313E-1	8.986165E-1	8.172065E-1	8.950403E-1	7.907325E-1	8.299111E-1	8.590077E-1	8.513029E-1	8.107356E-1	8.207460E-1	7.792506E-1	7.599385E-1	8.126265E-1	8.256957E-1	8.406205E-1	8.318334E-1	7.089404E-1	8.715951E-1	8.748901E-1	8.246958E-1	6.531170E-1	8.339212E-1	7.906578E-1	8.770357E-1	7.483632E-1	9.102449E-1	8.764343E-1	8.377747E-1	8.095890E-1	8.102575E-1	8.801618E-1	8.319798E-1	6.987300E-1	8.276432E-1	8.376657E-1	8.387421E-1	6.753410E-1	8.401216E-1	8.030101E-1	8.684024E-1	7.371926E-1	8.283385E-1	8.544989E-1	8.626804E-1	7.997958E-1	8.105769E-1	8.396176E-1	7.965966E-1	7.053732E-1	7.882172E-1	8.469269E-1	6.991731E-1
2.955030E+2	8.365326E-1	8.556257E-1	8.368405E-1	8.126522E-1	8.399164E-1	8.328742E-1	8.397000E-1	8.590576E-1	8.366969E-1	8.485355E-1	8.679775E-1	9.059494E-1	7.159384E-1	8.517301E-1	8.720230E-1	8.873876E-1	7.192477E-1	8.096050E-1	8.741482E-1	8.559721E-1	7.776431E-1	8.108419E-1	8.640366E-1	8.275582E-1	8.206364E-1	8.441789E-1	8.216313E-1	8.582277E-1	7.677842E-1	8.426602E-1	7.945759E-1	8.527806E-1	7.986184E-1	8.167268E-1	7.956436E-1	8.446758E-1	8.097674E-1	8.657723E-1	8.534137E-1	8.393852E-1	8.060985E-1	8.316950E-1	8.100217E-1	8.411232E-1	8.606357E-1	8.953856E-1	8.619011E-1	8.386116E-1	7.654550E-1	8.733506E-1	8.273404E-1	8.649356E-1	8.019411E-1	8.383057E-1	9.038319E-1	8.683967E-1	8.713685E-1	8.590340E-1	9.143792E-1	9.306473E-1	7.896832E-1	8.607312E-1	8.661904E-1	8.520297E-1	7.868548E-1	8.150995E-1	8.700573E-1	8.693977E-1	8.380840E-1	8.512273E-1	8.768180E-1	8.759657E-1	8.153211E-1	8.403263E-1	8.357339E-1	8.739868E-1	8.521493E-1	9.116819E-1	8.390816E-1	8.342433E-1	8.262789E-1	8.639946E-1	8.604365E-1	8.743293E-1	8.462914E-1	8.335501E-1	7.889830E-1	8.384628E-1	8.803321E-1	8.112829E-1	8.622040E-1	8.571331E-1	7.952735E-1	8.639534E-1	9.117278E-1	8.226804E-1	7.706812E-1	8.339336E-1	8.485727E-1	9.040443E-1	8.294720E-1	8.362017E-1	8.170428E-1	8.537158E-1	8.548345E-1	8.663258E-1	8.523750E-1	8.694470E-1	8.374085E-1	8.810466E-1	8.583023E-1	8.321581E-1	8.531727E-1	7.985899E-1	8.693327E-1	8.465144E-1	8.418557E-1	8.301714E-1	8.328381E-1	8.184020E-1	8.883235E-1	8.258731E-1	8.689821E-1	8.158452E-1	8.711657E-1	8.464223E-1	8.338672E-1	8.597317E-1	7.894296E-1	8.056381E-1	8.781451E-1	8.279992E-1	8.372954E-1	8.224879E-1	8.275573E-1	8.444941E-1	8.341572E-1	8.726942E-1	8.366608E-1	8.664330E-1	8.964276E-1	9.006988E-1	9.013965E-1	8.335272E-1	8.813374E-1	8.681280E-1	8.579936E-1	8.211602E-1	8.258657E-1	8.782842E-1	8.751968E-1	7.463218E-1	8.462578E-1	8.570228E-1	8.125184E-1	7.594387E-1	8.226201E-1	8.546033E-1	8.623352E-1	7.450324E-1	8.653363E-1	8.742085E-1	8.719037E-1	8.064683E-1	8.344335E-1	8.454851E-1	9.450541E-1	6.913269E-1	8.335321E-1	7.791943E-1	8.292607E-1
2.960030E+2	7.808837E-1	1.002347E+0	9.005042E-1	9.670080E-1	9.148691E-1	8.873908E-1	9.630706E-1	9.546853E-1	9.218150E-1	9.373578E-1	9.417225E-1	9.381114E-1	7.955822E-1	8.508708E-1	9.737969E-1	9.538030E-1	8.199423E-1	8.900542E-1	9.331415E-1	9.550693E-1	8.581098E-1	9.065848E-1	9.328562E-1	9.162429E-1	9.031095E-1	9.336688E-1	8.737175E-1	9.796078E-1	8.591052E-1	9.336045E-1	9.747537E-1	9.074451E-1	8.740780E-1	9.055866E-1	8.931764E-1	9.380731E-1	9.002299E-1	9.342976E-1	9.342675E-1	9.604642E-1	9.205634E-1	8.563466E-1	8.868787E-1	9.838376E-1	8.939033E-1	9.150544E-1	9.458802E-1	9.338954E-1	8.171849E-1	9.214703E-1	8.590120E-1	8.941211E-1	9.082882E-1	9.249868E-1	9.159307E-1	9.103231E-1	9.116550E-1	9.264850E-1	9.627427E-1	9.295909E-1	8.555377E-1	9.450918E-1	9.723778E-1	9.631256E-1	8.888392E-1	9.099554E-1	9.442002E-1	9.262457E-1	9.202673E-1	9.206076E-1	9.580267E-1	9.162179E-1	9.222240E-1	9.536436E-1	8.597003E-1	8.880583E-1	9.120647E-1	9.242528E-1	9.258258E-1	8.996289E-1	9.468940E-1	9.201601E-1	9.171692E-1	9.289390E-1	8.976706E-1	9.215876E-1	8.873798E-1	8.917358E-1	9.544119E-1	9.058931E-1	9.370334E-1	1.001904E+0	9.266797E-1	9.244885E-1	9.204102E-1	9.502510E-1	9.151519E-1	9.498936E-1	9.161772E-1	1.016092E+0	8.861186E-1	9.780389E-1	8.717618E-1	9.921086E-1	9.440260E-1	9.456031E-1	9.247229E-1	9.352065E-1	9.231591E-1	9.749083E-1	9.627107E-1	9.672927E-1	9.345975E-1	9.523747E-1	1.009333E+0	9.333177E-1	9.685622E-1	9.126010E-1	9.138582E-1	9.309696E-1	9.058208E-1	9.317942E-1	9.395587E-1	9.023420E-1	9.870675E-1	9.111504E-1	9.607667E-1	9.158392E-1	8.768973E-1	9.893433E-1	9.591388E-1	8.782158E-1	9.247459E-1	9.484644E-1	9.276021E-1	9.501211E-1	9.060773E-1	9.078128E-1	9.064487E-1	8.928528E-1	9.181678E-1	9.661281E-1	9.274974E-1	9.584978E-1	1.037652E+0	9.013555E-1	9.032426E-1	9.116322E-1	9.433834E-1	9.008132E-1	9.258939E-1	9.358093E-1	8.886578E-1	9.670579E-1	9.770918E-1	8.965540E-1	9.276264E-1	9.737346E-1	9.776092E-1	9.401791E-1	9.381385E-1	9.043512E-1	9.067456E-1	9.389861E-1	9.394028E-1	8.787357E-1	9.778166E-1	9.625408E-1	8.863990E-1	8.902749E-1	8.780432E-1
2.964960E+2	8.504432E-1	1.010563E+0	9.067658E-1	9.163425E-1	8.334380E-1	9.615698E-1	9.176181E-1	9.378102E-1	8.570098E-1	9.018288E-1	9.400644E-1	1.018031E+0	8.489433E-1	8.990045E-1	9.555694E-1	9.555748E-1	8.190014E-1	8.590231E-1	9.476621E-1	9.785110E-1	8.387982E-1	9.524612E-1	9.475484E-1	9.365136E-1	9.463581E-1	8.912783E-1	9.176661E-1	9.757236E-1	7.964850E-1	9.069143E-1	9.675783E-1	8.944305E-1	8.089952E-1	9.399184E-1	9.439349E-1	1.007106E+0	8.797774E-1	9.673497E-1	8.956377E-1	9.439911E-1	8.961685E-1	9.646377E-1	9.457680E-1	9.893269E-1	9.037939E-1	9.637984E-1	9.925352E-1	9.098812E-1	8.129622E-1	9.475362E-1	9.049857E-1	9.223338E-1	8.819445E-1	9.716622E-1	9.782850E-1	9.627313E-1	8.830313E-1	9.309226E-1	1.010030E+0	9.221975E-1	8.865287E-1	9.095715E-1	9.614606E-1	9.887636E-1	8.613031E-1	9.388242E-1	9.048116E-1	9.463106E-1	9.349742E-1	9.028390E-1	1.002737E+0	9.135336E-1	9.222243E-1	9.536438E-1	9.116264E-1	9.180755E-1	9.460464E-1	1.017084E+0	8.890541E-1	9.374829E-1	9.026694E-1	9.609053E-1	1.023828E+0	9.436414E-1	9.490494E-1	1.013410E+0	9.317887E-1	9.269648E-1	9.040754E-1	9.421267E-1	9.452464E-1	9.780939E-1	9.600064E-1	9.084090E-1	9.282240E-1	9.277386E-1	9.495504E-1	9.595575E-1	9.632955E-1	9.517245E-1	9.206365E-1	9.359450E-1	9.407910E-1	9.502272E-1	8.944754E-1	9.260417E-1	9.464282E-1	8.568751E-1	9.120630E-1	9.386644E-1	8.940993E-1	9.259774E-1	8.362081E-1	9.232805E-1	9.320530E-1	9.223430E-1	9.342656E-1	9.020777E-1	9.352780E-1	9.997130E-1	9.253774E-1	9.693480E-1	1.002534E+0	9.274544E-1	9.222406E-1	9.138468E-1	9.539855E-1	9.237412E-1	8.758173E-1	9.162674E-1	9.098860E-1	9.069114E-1	9.309922E-1	8.883394E-1	9.395736E-1	8.946674E-1	9.110032E-1	9.133007E-1	9.224016E-1	9.290576E-1	9.480619E-1	9.066469E-1	9.153169E-1	8.779616E-1	9.273754E-1	9.304292E-1	9.985554E-1	8.874367E-1	9.470560E-1	9.862331E-1	9.524893E-1	9.455043E-1	8.958973E-1	9.334357E-1	9.092731E-1	9.258046E-1	9.615346E-1	9.212045E-1	9.169392E-1	8.791953E-1	9.083019E-1	9.263796E-1	9.149434E-1	9.342187E-1	8.878734E-1	9.237204E-1	9.102428E-1	9.117561E-1	9.166091E-1	9.986459E-1	9.539274E-1
2.970040E+2	8.075480E-1	8.509302E-1	8.337091E-1	8.444664E-1	7.936488E-1	8.730919E-1	8.543094E-1	9.246842E-1	8.173529E-1	8.812595E-1	8.828923E-1	8.640402E-1	7.820421E-1	8.164889E-1	8.932896E-1	9.059835E-1	7.352457E-1	8.854557E-1	8.342143E-1	8.922015E-1	8.138531E-1	9.055879E-1	8.671305E-1	8.182683E-1	8.306945E-1	7.911925E-1	8.842975E-1	8.650247E-1	7.582167E-1	8.555111E-1	8.687198E-1	8.302207E-1	7.882441E-1	8.833715E-1	9.120860E-1	8.060987E-1	7.853818E-1	8.133724E-1	8.435317E-1	8.698608E-1	7.929631E-1	8.035220E-1	8.549387E-1	8.639942E-1	8.552405E-1	8.449316E-1	8.665670E-1	8.688233E-1	7.770671E-1	8.803678E-1	8.171243E-1	8.834191E-1	8.107218E-1	8.316370E-1	9.103466E-1	8.753839E-1	8.310837E-1	8.741221E-1	8.746137E-1	8.514371E-1	8.623173E-1	8.127798E-1	8.642058E-1	8.235442E-1	7.878749E-1	8.068513E-1	8.700565E-1	8.928056E-1	8.173221E-1	8.334593E-1	8.686059E-1	8.974337E-1	8.274063E-1	8.571833E-1	8.806704E-1	8.636671E-1	8.136961E-1	8.594647E-1	8.466240E-1	8.583329E-1	8.313046E-1	8.915267E-1	8.513585E-1	8.806312E-1	8.480041E-1	8.960284E-1	8.682231E-1	8.814247E-1	8.727341E-1	8.394640E-1	8.476038E-1	9.152322E-1	8.685948E-1	8.648989E-1	8.613680E-1	8.501958E-1	8.905825E-1	8.124586E-1	8.352566E-1	8.992770E-1	8.498294E-1	8.499282E-1	8.077832E-1	8.637314E-1	8.118895E-1	8.900068E-1	8.461730E-1	8.820178E-1	8.585946E-1	8.856938E-1	9.000654E-1	8.519557E-1	8.305546E-1	9.191235E-1	9.051732E-1	8.684659E-1	8.104182E-1	8.354334E-1	8.095560E-1	8.656626E-1	8.306834E-1	9.289046E-1	9.167564E-1	8.530482E-1	8.534847E-1	8.392298E-1	8.793963E-1	8.091552E-1	8.833765E-1	8.147733E-1	8.037193E-1	8.505460E-1	8.863742E-1	8.138989E-1	8.600506E-1	8.585782E-1	8.834175E-1	8.595252E-1	8.316749E-1	7.881521E-1	9.172625E-1	8.699667E-1	8.735560E-1	8.881446E-1	8.085323E-1	8.328233E-1	9.273113E-1	8.316797E-1	8.662625E-1	8.407368E-1	8.810143E-1	9.146567E-1	8.297109E-1	9.303793E-1	8.125184E-1	8.526773E-1	8.641847E-1	8.546032E-1	8.970031E-1	8.800670E-1	8.474340E-1	8.324700E-1	9.098195E-1	8.722510E-1	8.811930E-1	8.405969E-1	9.061473E-1	8.739375E-1	8.694052E-1	8.008674E-1	8.943040E-1
2.975020E+2	7.866806E-1	8.298026E-1	8.441467E-1	8.032262E-1	8.103052E-1	8.382365E-1	8.697303E-1	8.374940E-1	7.399741E-1	8.335763E-1	8.381482E-1	8.211582E-1	7.207167E-1	8.818140E-1	8.408833E-1	8.422244E-1	7.615950E-1	7.716793E-1	7.933734E-1	8.325301E-1	7.969553E-1	8.317865E-1	8.207353E-1	8.638769E-1	8.618737E-1	7.864829E-1	8.118653E-1	8.378351E-1	7.095123E-1	8.268432E-1	8.264659E-1	8.336923E-1	7.042956E-1	8.510580E-1	8.145528E-1	8.182814E-1	8.231400E-1	8.165965E-1	7.878305E-1	8.023198E-1	7.873339E-1	8.642701E-1	8.768968E-1	8.795465E-1	7.689250E-1	8.226975E-1	7.713911E-1	8.145971E-1	7.475069E-1	8.713454E-1	7.926042E-1	8.279673E-1	8.126736E-1	8.558081E-1	8.628830E-1	8.980953E-1	8.236626E-1	8.332960E-1	7.918594E-1	7.975744E-1	7.983994E-1	8.030119E-1	8.056537E-1	8.444333E-1	8.092909E-1	8.161304E-1	8.237181E-1	8.381869E-1	8.614419E-1	8.689955E-1	8.594812E-1	8.723881E-1	8.785335E-1	7.963093E-1	8.766759E-1	8.374023E-1	8.047535E-1	8.072470E-1	7.730799E-1	8.230588E-1	7.820522E-1	8.430710E-1	8.853986E-1	8.491245E-1	8.420100E-1	7.502460E-1	8.151056E-1	7.869089E-1	8.375939E-1	8.636213E-1	8.275270E-1	8.799918E-1	8.286011E-1	8.686821E-1	8.769977E-1	8.376892E-1	8.335791E-1	8.156796E-1	8.465242E-1	7.669654E-1	8.144260E-1	8.563339E-1	8.271452E-1	8.373281E-1	8.735544E-1	8.539716E-1	8.337704E-1	8.665460E-1	8.384176E-1	8.215703E-1	8.046063E-1	8.218292E-1	8.667433E-1	8.297630E-1	8.446932E-1	8.664696E-1	8.504298E-1	8.336786E-1	8.449434E-1	7.848896E-1	8.203906E-1	7.758004E-1	8.635530E-1	8.260755E-1	8.348228E-1	8.239473E-1	8.193368E-1	8.771157E-1	8.153464E-1	8.482656E-1	8.157581E-1	8.331232E-1	8.265875E-1	8.415742E-1	7.967743E-1	8.506555E-1	8.420383E-1	8.606227E-1	8.655729E-1	8.155502E-1	7.859096E-1	8.322951E-1	8.474555E-1	7.992770E-1	8.973968E-1	8.411299E-1	7.944510E-1	8.758646E-1	8.570814E-1	8.623269E-1	7.912557E-1	8.388620E-1	7.945502E-1	8.183083E-1	8.215609E-1	8.005739E-1	8.751223E-1	8.311526E-1	8.467333E-1	8.574163E-1	8.175977E-1	8.591359E-1	8.503831E-1	8.875047E-1	8.811933E-1	8.493977E-1	8.631470E-1	8.620513E-1	8.543007E-1	8.469249E-1	8.780435E-1
2.980040E+2	8.921808E-1	9.706552E-1	9.151157E-1	9.163415E-1	8.861828E-1	8.945403E-1	9.338507E-1	9.340599E-1	8.840923E-1	9.093083E-1	9.417225E-1	9.303148E-1	8.322175E-1	8.766563E-1	9.456952E-1	9.024414E-1	7.841822E-1	9.118890E-1	9.866886E-1	9.337575E-1	8.532817E-1	9.494687E-1	8.972868E-1	9.593175E-1	8.809823E-1	9.489751E-1	9.477780E-1	9.786376E-1	7.851782E-1	8.525449E-1	9.659842E-1	9.091811E-1	8.297466E-1	9.025570E-1	9.081060E-1	8.568578E-1	8.349392E-1	9.004386E-1	9.549308E-1	8.970416E-1	9.402653E-1	8.853998E-1	8.539406E-1	9.856677E-1	8.687277E-1	9.569561E-1	9.393484E-1	9.315712E-1	8.678584E-1	9.244780E-1	9.335925E-1	9.233066E-1	8.604806E-1	9.224867E-1	9.652555E-1	8.902336E-1	9.519400E-1	8.705714E-1	9.466217E-1	9.295911E-1	8.787812E-1	9.264433E-1	8.800846E-1	8.919111E-1	9.296328E-1	9.295457E-1	9.036528E-1	9.975856E-1	9.341085E-1	9.671432E-1	9.142290E-1	9.430515E-1	9.250136E-1	9.255475E-1	8.776745E-1	9.405883E-1	8.959681E-1	8.962102E-1	9.559989E-1	9.116728E-1	8.966388E-1	8.948300E-1	9.069576E-1	9.457407E-1	8.676992E-1	9.698656E-1	9.187281E-1	9.072023E-1	8.822318E-1	9.048867E-1	8.795426E-1	8.590384E-1	9.143000E-1	8.894919E-1	9.195423E-1	9.277382E-1	9.239974E-1	8.736608E-1	9.499792E-1	9.159651E-1	9.418790E-1	9.020868E-1	9.475267E-1	9.484055E-1	9.065877E-1	8.848586E-1	9.639989E-1	9.216685E-1	9.090363E-1	9.061384E-1	9.070267E-1	9.044593E-1	8.497802E-1	8.619739E-1	8.950931E-1	8.844289E-1	8.999693E-1	9.660927E-1	9.641461E-1	9.197987E-1	9.428750E-1	9.606809E-1	9.276135E-1	8.716497E-1	8.790228E-1	8.994631E-1	9.171756E-1	8.945018E-1	9.643653E-1	9.182975E-1	9.547599E-1	9.140852E-1	8.872674E-1	9.322402E-1	9.635169E-1	8.761828E-1	8.981958E-1	8.935460E-1	9.592895E-1	9.153589E-1	9.109213E-1	8.858286E-1	9.135771E-1	9.149899E-1	8.866894E-1	9.003165E-1	8.897640E-1	9.032161E-1	9.369559E-1	9.092608E-1	8.652233E-1	9.067251E-1	9.341593E-1	9.334355E-1	9.137939E-1	9.120939E-1	9.473156E-1	9.090096E-1	9.273396E-1	8.948765E-1	9.512656E-1	9.147859E-1	9.210917E-1	9.208720E-1	9.499006E-1	9.070963E-1	9.153620E-1	9.301249E-1	8.750699E-1	9.742618E-1	8.509420E-1
2.985040E+2	9.930435E-1	9.812200E-1	1.004871E+0	1.036527E+0	9.935223E-1	1.019662E+0	9.857968E-1	1.049376E+0	1.086246E+0	1.059838E+0	1.026239E+0	1.023878E+0	9.938937E-1	1.018480E+0	9.783538E-1	1.036160E+0	1.030742E+0	1.031413E+0	9.875962E-1	1.037117E+0	1.024676E+0	1.023271E+0	9.838903E-1	9.871904E-1	9.855836E-1	1.036109E+0	1.017769E+0	1.048552E+0	9.138970E-1	1.010709E+0	9.954819E-1	1.014172E+0	9.004880E-1	1.032818E+0	1.053411E+0	1.013197E+0	9.238282E-1	1.042324E+0	1.041177E+0	1.063423E+0	1.047225E+0	1.013060E+0	1.037596E+0	9.865826E-1	9.838156E-1	1.009977E+0	1.006532E+0	1.023757E+0	9.459828E-1	9.996657E-1	1.028606E+0	1.044914E+0	9.560956E-1	1.020003E+0	9.922446E-1	9.950504E-1	9.964666E-1	1.084461E+0	1.049796E+0	1.016194E+0	9.795008E-1	1.029452E+0	1.016044E+0	1.032442E+0	1.008158E+0	9.955317E-1	9.893801E-1	9.652592E-1	9.834190E-1	9.908341E-1	1.015512E+0	1.017294E+0	1.026339E+0	9.667545E-1	1.049430E+0	1.009068E+0	1.020270E+0	1.012249E+0	1.045573E+0	9.710357E-1	9.951422E-1	1.036892E+0	9.920573E-1	9.320889E-1	9.798771E-1	1.038023E+0	9.735867E-1	1.027495E+0	1.016145E+0	1.016607E+0	1.063879E+0	1.042861E+0	1.025710E+0	1.002995E+0	1.038492E+0	9.977761E-1	9.957417E-1	9.949893E-1	1.030900E+0	1.030396E+0	1.016227E+0	9.954253E-1	1.007296E+0	1.021245E+0	1.000183E+0	1.000171E+0	1.031178E+0	1.026111E+0	9.453545E-1	9.702613E-1	1.003480E+0	1.006025E+0	1.026199E+0	1.018878E+0	1.051894E+0	9.552681E-1	1.038107E+0	1.035369E+0	1.002328E+0	1.051272E+0	1.016983E+0	1.046381E+0	1.066595E+0	9.944197E-1	1.058770E+0	1.026221E+0	1.061511E+0	1.047810E+0	9.838021E-1	1.016746E+0	1.014959E+0	1.037065E+0	1.028258E+0	1.041992E+0	1.011401E+0	1.031981E+0	1.023316E+0	1.031827E+0	9.383528E-1	1.047458E+0	1.051333E+0	1.008757E+0	1.027551E+0	1.014965E+0	9.948255E-1	1.026998E+0	1.056321E+0	9.915840E-1	1.020504E+0	1.039737E+0	1.037261E+0	1.004553E+0	9.900034E-1	1.040414E+0	9.924643E-1	9.916203E-1	9.910670E-1	1.031893E+0	1.022680E+0	1.023812E+0	1.007360E+0	9.971020E-1	1.016397E+0	9.475659E-1	9.728041E-1	1.014669E+0	9.737218E-1	1.045743E+0	1.024232E+0	1.004063E+0	9.539278E-1
2.990010E+2	1.178540E+0	1.093902E+0	1.110280E+0	1.142572E+0	1.129548E+0	1.127803E+0	1.090499E+0	1.038127E+0	1.149116E+0	1.047684E+0	1.080097E+0	1.115492E+0	1.157960E+0	1.095838E+0	1.108230E+0	1.047673E+0	1.147434E+0	1.091175E+0	1.089246E+0	1.072281E+0	1.133307E+0	1.085105E+0	1.122302E+0	1.076719E+0	1.117341E+0	1.085564E+0	1.084505E+0	1.075742E+0	1.251350E+0	1.185678E+0	1.125434E+0	1.116561E+0	1.187232E+0	1.106532E+0	1.090236E+0	1.082231E+0	1.172402E+0	1.106817E+0	1.086994E+0	1.130963E+0	1.085692E+0	1.111665E+0	1.095488E+0	1.148509E+0	1.031469E+0	1.072404E+0	1.132500E+0	1.094251E+0	1.035719E+0	1.129991E+0	1.098079E+0	1.104258E+0	1.065369E+0	1.110020E+0	1.042500E+0	1.115589E+0	1.104601E+0	1.127062E+0	1.140074E+0	1.150322E+0	1.065694E+0	1.142228E+0	1.120246E+0	1.077071E+0	1.001019E+0	1.092450E+0	1.123764E+0	1.093446E+0	1.072523E+0	1.147363E+0	1.089421E+0	1.077223E+0	1.052367E+0	1.144690E+0	1.096362E+0	1.110379E+0	1.070348E+0	1.081872E+0	1.125717E+0	1.143962E+0	1.049418E+0	1.148119E+0	1.105524E+0	1.142124E+0	1.067221E+0	1.131740E+0	1.111169E+0	1.130605E+0	1.118718E+0	1.072970E+0	1.132320E+0	1.098102E+0	1.080938E+0	1.098528E+0	1.073222E+0	1.046970E+0	1.060606E+0	1.133498E+0	1.072897E+0	1.089995E+0	1.105621E+0	1.134516E+0	1.075483E+0	1.094082E+0	1.092679E+0	1.070183E+0	1.123165E+0	1.070595E+0	1.144096E+0	1.157985E+0	1.111866E+0	1.109313E+0	1.079351E+0	1.170584E+0	1.129173E+0	1.074996E+0	1.109558E+0	1.084476E+0	1.097318E+0	1.077050E+0	1.096237E+0	1.066602E+0	1.044880E+0	1.139512E+0	1.051895E+0	1.123311E+0	1.094449E+0	1.066776E+0	1.072350E+0	1.084748E+0	1.146299E+0	1.099579E+0	1.074660E+0	1.065852E+0	1.091779E+0	1.127926E+0	1.114941E+0	1.089992E+0	1.134760E+0	1.049415E+0	1.043180E+0	1.089057E+0	1.113684E+0	1.088095E+0	1.082618E+0	1.055034E+0	1.115050E+0	1.067328E+0	1.083855E+0	1.076346E+0	1.105411E+0	1.092687E+0	1.091349E+0	1.070979E+0	1.152518E+0	1.139705E+0	1.058884E+0	1.082548E+0	1.145755E+0	1.132711E+0	1.070614E+0	1.131589E+0	1.020496E+0	1.104868E+0	1.138846E+0	1.093881E+0	1.103749E+0	1.048984E+0	1.118636E+0	1.090762E+0	1.067754E+0
2.995040E+2	1.122891E+0	1.058689E+0	1.094625E+0	1.067162E+0	1.124921E+0	1.075072E+0	1.098615E+0	1.113129E+0	1.077540E+0	1.127155E+0	1.058554E+0	1.055065E+0	1.185835E+0	1.113029E+0	1.075571E+0	1.096378E+0	1.172843E+0	1.133698E+0	1.072909E+0	1.076543E+0	1.158252E+0	1.078122E+0	1.132354E+0	1.064894E+0	1.150532E+0	1.064369E+0	1.076366E+0	1.102931E+0	1.159160E+0	1.100665E+0	1.096733E+0	1.092264E+0	1.254203E+0	1.043924E+0	1.076302E+0	1.144158E+0	1.157457E+0	1.118910E+0	1.099571E+0	1.083190E+0	1.141987E+0	1.116067E+0	1.141402E+0	1.005794E+0	1.258949E+0	1.090362E+0	1.122236E+0	1.134533E+0	1.265866E+0	1.022724E+0	1.069473E+0	1.078963E+0	1.238061E+0	1.113353E+0	1.077865E+0	1.092879E+0	1.090819E+0	1.056062E+0	1.056244E+0	1.071113E+0	1.164477E+0	1.066749E+0	1.127193E+0	1.087516E+0	1.137677E+0	1.149158E+0	1.163153E+0	1.135804E+0	1.096746E+0	1.037369E+0	1.089421E+0	1.106740E+0	1.067240E+0	1.114722E+0	1.078388E+0	1.072856E+0	1.058723E+0	1.107980E+0	1.068202E+0	1.109548E+0	1.067512E+0	1.029184E+0	1.048791E+0	1.140024E+0	1.086059E+0	1.076836E+0	1.096365E+0	1.067021E+0	1.066482E+0	1.128328E+0	1.084868E+0	1.096197E+0	1.086652E+0	1.116499E+0	1.094061E+0	1.110339E+0	1.124487E+0	1.093771E+0	1.074946E+0	1.143635E+0	1.130403E+0	1.078696E+0	1.126835E+0	1.087710E+0	1.093779E+0	1.146372E+0	1.095259E+0	1.070595E+0	1.135017E+0	1.051113E+0	1.126782E+0	1.120502E+0	1.099707E+0	1.078104E+0	1.069814E+0	1.137854E+0	1.051444E+0	1.065184E+0	1.048892E+0	1.080488E+0	1.059184E+0	1.102230E+0	1.070938E+0	1.135790E+0	1.154045E+0	1.073867E+0	1.105105E+0	1.133157E+0	1.115543E+0	1.072569E+0	1.045605E+0	1.071910E+0	1.107676E+0	1.095437E+0	1.096910E+0	1.093597E+0	1.086370E+0	1.050484E+0	1.075937E+0	1.086598E+0	1.148263E+0	1.118798E+0	1.104114E+0	1.071434E+0	1.121161E+0	1.107990E+0	1.090981E+0	1.089420E+0	1.112315E+0	1.045370E+0	1.121202E+0	1.105908E+0	1.109964E+0	1.079129E+0	1.130815E+0	1.076632E+0	1.078572E+0	1.110689E+0	1.065149E+0	1.061273E+0	1.050324E+0	1.041159E+0	1.146543E+0	1.101055E+0	1.037693E+0	1.117352E+0	1.091463E+0	1.063032E+0	1.124300E+0	1.085342E+0	1.159898E+0
3.000060E+2	1.026665E+0	1.065731E+0	1.030962E+0	1.034171E+0	1.055520E+0	1.044685E+0	1.021508E+0	1.027814E+0	1.063032E+0	1.022439E+0	1.055239E+0	1.054091E+0	1.109378E+0	1.014182E+0	1.051267E+0	1.075124E+0	1.103204E+0	1.060145E+0	1.070186E+0	1.047772E+0	1.033528E+0	1.032247E+0	1.043431E+0	1.048002E+0	1.003687E+0	1.078499E+0	1.061717E+0	9.563025E-1	1.180902E+0	1.023560E+0	9.899016E-1	1.034130E+0	1.124035E+0	1.063111E+0	1.057392E+0	1.085275E+0	1.088234E+0	1.014914E+0	1.029497E+0	1.023063E+0	9.974976E-1	1.009538E+0	9.946769E-1	9.939006E-1	1.088114E+0	1.047604E+0	1.027993E+0	1.001291E+0	1.137067E+0	1.051796E+0	1.077646E+0	1.020592E+0	1.067320E+0	9.783290E-1	1.059252E+0	1.008153E+0	1.032511E+0	1.028548E+0	1.015405E+0	1.035204E+0	1.113148E+0	1.032116E+0	1.050778E+0	1.066626E+0	1.114221E+0	1.017184E+0	9.963318E-1	9.697182E-1	1.051762E+0	9.882957E-1	1.031936E+0	9.833036E-1	1.050508E+0	1.051976E+0	1.021470E+0	1.029705E+0	1.149937E+0	1.094442E+0	1.031429E+0	1.040722E+0	1.209237E+0	1.047904E+0	1.061272E+0	9.908987E-1	1.157134E+0	1.033290E+0	1.085046E+0	1.080768E+0	1.078829E+0	1.013587E+0	1.011864E+0	1.023811E+0	1.063799E+0	1.023804E+0	9.976844E-1	1.079488E+0	1.061589E+0	1.088402E+0	1.024755E+0	1.053043E+0	9.914440E-1	1.032942E+0	1.015714E+0	1.011230E+0	1.033217E+0	1.044444E+0	9.526285E-1	1.044484E+0	1.028079E+0	1.092932E+0	1.046238E+0	1.037873E+0	1.078219E+0	1.040697E+0	1.009333E+0	1.080983E+0	1.050492E+0	1.015199E+0	1.042373E+0	1.086502E+0	1.064330E+0	1.048306E+0	1.026421E+0	1.032553E+0	1.021446E+0	1.053191E+0	1.002422E+0	9.806390E-1	1.048593E+0	1.059374E+0	1.022620E+0	1.044238E+0	1.075552E+0	1.022905E+0	1.039619E+0	1.019658E+0	1.035139E+0	1.073529E+0	1.026088E+0	1.085619E+0	1.060393E+0	1.065265E+0	9.936198E-1	1.111239E+0	1.017309E+0	1.068532E+0	1.053433E+0	1.072587E+0	9.892888E-1	1.066959E+0	1.079647E+0	1.051265E+0	1.079974E+0	1.057734E+0	9.888476E-1	1.079374E+0	1.049039E+0	1.034708E+0	9.923438E-1	1.029911E+0	1.102838E+0	1.056229E+0	1.045090E+0	1.038134E+0	1.019563E+0	1.017604E+0	1.052557E+0	1.050064E+0	1.003461E+0	9.986461E-1	1.089435E+0
