Photon Energy (eV)	#1	#2	#3	#4	#5	#6	#7	#8	#9	#10	#11	#12	#13	#14	#15	#16	#17	#18	#19	#20	#21	#22	#23	#24	#25	#26	#27	#28	#29	#30	#31	#32	#33	#34	#35	#36	#37	#38	#39	#40	#41	#42	#43	#44	#45	#46	#47	#48	#49	#50	#51	#52	#53	#54	#55	#56	#57	#58	#59	#60	#61	#62	#63	#64	#65	#66	#67	#68	#69	#70	#71	#72	#73	#74	#75	#76	#77	#78	#79	#80	#81	#82	#83	#84	#85	#86	#87	#88	#89	#90	#91	#92	#93	#94	#95	#96	#97	#98	#99	#100	#101	#102	#103	#104	#105	#106	#107	#108	#109	#110	#111	#112	#113	#114	#115	#116	#117	#118	#119	#120	#121	#122	#123	#124	#125	#126	#127	#128	#129	#130	#131	#132	#133	#134	#135	#136	#137	#138	#139	#140	#141	#142	#143	#144	#145	#146	#147	#148	#149	#150	#151	#152	#153	#154	#155	#156	#157	#158	#159	#160	#161	#162	#163	#164	#165	#166	#167	#168	#169	#170	#171	#172	
2.790030E+2	-1.063813E-2	4.529794E-3	-2.248628E-3	-4.536459E-3	1.577825E-3	-1.044721E-2	-1.150984E-2	-6.727970E-3	-2.999909E-3	4.780693E-3	4.257065E-4	-2.705961E-3	1.219773E-3	-4.382967E-5	-6.850167E-3	6.246280E-3	3.780719E-3	-1.215194E-2	-3.743282E-3	8.072033E-3	-7.914742E-3	5.551625E-3	-1.080123E-2	-6.696152E-3	-1.388031E-2	-1.102914E-3	7.758096E-3	-1.605909E-2	-1.457074E-3	-1.434741E-2	-5.668370E-3	-3.708259E-3	4.056635E-3	-3.388058E-3	1.021478E-2	2.584839E-3	-1.173487E-3	-6.883348E-3	-8.670677E-3	-1.048238E-3	-9.375706E-3	-1.877647E-2	2.447825E-3	-8.147472E-3	2.981523E-3	1.865964E-2	-4.943449E-3	3.039501E-3	-1.024650E-2	1.141212E-2	7.556047E-3	-7.848953E-3	-9.048695E-3	2.246610E-3	8.075749E-4	-1.001102E-2	-1.165506E-2	9.926779E-3	-2.614490E-3	1.005014E-3	-9.814318E-3	1.062972E-2	1.056917E-2	-1.792137E-3	-4.066265E-3	1.972700E-2	-3.826612E-4	-2.655914E-3	-2.044262E-2	1.938359E-2	-8.542998E-3	-4.947840E-3	3.071974E-3	-1.225988E-3	-8.910204E-3	6.134863E-3	-4.455663E-3	5.027085E-3	-5.402287E-3	-9.877364E-5	-1.173122E-2	-1.096495E-2	-1.695666E-3	-1.899391E-2	-6.946748E-3	-1.620046E-2	-4.329599E-3	-1.463283E-2	1.475429E-2	-1.686952E-4	2.343976E-3	-5.010510E-4	4.815674E-3	-9.301942E-4	-8.092991E-3	-2.134447E-3	7.188617E-4	-2.359366E-3	1.701068E-2	-2.653140E-3	4.100150E-3	-1.079078E-2	-2.093181E-3	9.842116E-3	5.085971E-4	-6.941144E-3	1.287582E-2	1.281899E-2	2.924183E-3	-1.837919E-4	-7.728040E-3	-2.587302E-3	1.125698E-3	-9.457688E-3	6.987485E-3	-1.059049E-2	-4.496187E-4	-1.018775E-2	-1.728602E-3	3.816625E-3	-3.780343E-3	-2.185225E-2	5.608178E-3	-4.576302E-3	-1.079519E-2	-5.815970E-3	4.738343E-3	9.132359E-3	-6.055460E-3	-4.110567E-3	-1.717960E-2	3.706826E-3	-9.106187E-3	2.438770E-3	-1.392282E-3	-4.078797E-3	-1.493236E-2	2.206555E-3	-9.493070E-4	-3.817936E-3	-4.960220E-3	-5.817774E-3	-1.119644E-2	6.597286E-4	-1.460608E-3	4.373605E-3	6.706108E-3	-3.714623E-3	-1.844729E-3	-5.566091E-3	1.045607E-2	-1.284678E-2	1.273935E-2	6.946042E-4	2.234365E-3	1.492284E-3	-6.569715E-3	-1.848945E-2	1.656562E-3	-5.982019E-3	3.147995E-4	4.632270E-3	3.484292E-3	-1.470455E-2	-6.751166E-3	-5.926958E-3	-1.797233E-2	4.865333E-3	3.637761E-3	2.298697E-3	-2.068720E-2	-9.220291E-3
2.795060E+2	-5.902533E-3	-8.552193E-4	6.661644E-5	1.462555E-3	-2.854674E-3	-8.355433E-3	-2.109072E-2	1.500352E-3	3.613221E-3	-5.592940E-3	-8.303091E-3	-9.110574E-3	5.053126E-3	-2.554550E-3	-2.632732E-4	6.543610E-3	8.167994E-3	2.999399E-3	-3.583290E-3	-9.027934E-3	-2.156241E-2	-4.340024E-3	1.571225E-3	2.786253E-3	7.361535E-3	-7.148082E-3	-2.374454E-3	-3.029968E-3	-9.093045E-3	-7.473463E-4	-3.521120E-3	-2.552640E-2	-1.533139E-3	2.563745E-3	-1.792871E-2	6.585690E-3	4.185592E-4	5.113950E-3	2.039311E-2	-7.686780E-3	-8.882041E-3	-6.652062E-3	-1.693851E-2	-5.885030E-3	-9.801235E-3	-2.296624E-3	-1.198556E-2	-1.025807E-2	-2.337787E-4	-1.413015E-2	-6.810657E-3	2.906765E-3	-1.294999E-3	-1.102887E-2	-4.293492E-3	8.614171E-3	-7.370686E-3	4.488627E-3	2.349724E-3	-5.550276E-3	-9.352432E-3	2.522157E-4	-1.611663E-2	2.642918E-4	-1.831135E-2	-1.891194E-3	-2.109535E-3	-5.668751E-3	-1.552325E-2	-1.906583E-3	8.928537E-4	-9.013121E-3	1.797858E-3	-6.107750E-3	-2.348186E-3	-8.198827E-3	6.097551E-3	-4.186115E-3	-1.843599E-5	-6.149487E-3	-2.141909E-2	-8.829008E-3	4.719832E-3	-1.613055E-2	-9.471460E-3	1.150087E-2	-8.462012E-3	-5.259254E-3	-6.164877E-3	2.666289E-4	-2.855033E-3	-3.316477E-3	1.066203E-3	1.185287E-2	9.811583E-4	-4.740897E-3	-3.484019E-3	-2.094048E-3	-5.064527E-3	9.730297E-3	-1.419111E-3	-1.484272E-2	1.121630E-3	3.134392E-4	-1.488833E-2	-1.598149E-2	-1.572360E-2	-6.528806E-3	-8.109518E-3	-1.237311E-5	-8.750678E-3	-8.045875E-3	-8.507299E-3	-6.351108E-3	-7.985304E-3	-6.410643E-3	-6.481094E-3	-6.983081E-3	-3.994512E-5	5.554466E-3	-6.745378E-3	-1.297535E-3	8.065219E-4	8.300022E-3	9.166655E-4	7.754202E-4	-1.204120E-3	-8.487631E-3	-4.112428E-3	2.778476E-3	-3.327320E-3	-5.543791E-3	-5.974031E-3	9.693169E-3	6.344979E-3	-1.172326E-2	-3.071543E-3	-9.089805E-3	-3.865203E-3	-1.195095E-2	2.816774E-3	-1.627614E-3	-1.383671E-2	-1.272089E-2	-1.130573E-2	-8.484155E-3	1.349896E-2	-1.494636E-3	-1.331499E-2	-6.732236E-3	-9.503542E-3	-1.532287E-2	2.952144E-3	-1.889096E-2	8.858288E-3	-2.997444E-3	1.640914E-3	1.845614E-3	-4.348579E-3	-8.579359E-3	7.733052E-3	-4.800004E-3	-9.224361E-3	-7.550569E-3	-1.567417E-2	-2.412733E-3	-6.561190E-3	-9.724639E-4	1.026603E-2	3.834679E-3	-1.561194E-3	9.980177E-3
2.800000E+2	-1.921721E-2	1.731803E-3	-1.475391E-2	-5.885911E-3	-4.464050E-3	-5.940650E-3	-1.117751E-2	-3.253857E-3	-1.354380E-2	4.949408E-3	-7.901078E-4	-5.596981E-4	-3.784713E-3	-5.211004E-3	-2.990130E-4	-1.342563E-2	8.094731E-3	-1.161895E-2	-4.886089E-3	4.392326E-3	-2.671933E-3	-7.233653E-3	-1.300103E-2	-4.895192E-3	-4.516478E-3	8.823725E-4	2.800975E-3	-8.288516E-3	-5.111305E-6	-6.074728E-3	-1.288106E-2	3.043113E-3	-3.044078E-3	9.575147E-3	2.655777E-3	-1.060344E-2	-6.402013E-3	-1.438675E-2	6.333723E-4	-2.016892E-2	-2.931115E-3	-2.423820E-3	-1.238659E-2	3.379528E-3	9.516041E-3	9.807709E-3	-1.071889E-2	-7.547651E-3	-1.126762E-2	5.659737E-3	7.079283E-3	1.258874E-2	1.250893E-2	1.020830E-3	-9.739671E-3	-8.124733E-3	-1.092258E-2	3.057793E-3	-9.460300E-4	-1.628432E-2	-2.131326E-3	1.398778E-3	5.220309E-3	-2.787124E-3	-1.094831E-2	-2.622160E-2	9.272776E-3	-1.700079E-2	1.729822E-2	-6.147344E-3	1.013179E-2	-9.081871E-3	-1.882497E-2	2.786152E-3	-1.355563E-3	-1.473438E-4	8.564994E-3	1.197970E-3	-1.015737E-2	8.483708E-3	1.501920E-2	-1.046481E-3	-4.186867E-4	9.947196E-3	8.957119E-3	-1.286857E-2	-1.211433E-2	-3.788786E-3	-1.946902E-2	-1.300453E-3	1.022937E-2	-7.886849E-3	4.851301E-3	-4.623393E-3	-2.205191E-3	-7.329100E-3	-3.483590E-3	-3.505146E-3	-3.043127E-3	1.535317E-3	-1.422001E-3	-4.473344E-3	-2.741664E-3	-6.313711E-3	-6.143340E-3	-2.236584E-2	-7.919289E-3	-6.562911E-3	-3.914307E-3	-3.924811E-3	-2.540617E-3	-1.392303E-2	-1.856193E-2	-6.389634E-3	5.453296E-3	1.994755E-3	-4.947063E-3	-4.220284E-3	-4.606175E-3	4.030462E-3	-1.019553E-2	1.177856E-2	-4.448743E-3	-5.035176E-4	-1.039080E-2	-1.226136E-2	-1.528040E-2	-1.439553E-2	-2.648701E-3	-1.042512E-2	-1.074008E-2	-9.516645E-3	5.271005E-3	-1.287110E-2	6.290520E-3	-8.539245E-3	-3.122164E-3	-8.326891E-4	-5.657063E-3	-1.345662E-3	-1.099838E-2	-9.503740E-3	-4.099601E-3	-9.319399E-3	-1.565275E-2	4.447937E-3	-1.730675E-2	1.716953E-4	-1.481023E-2	-1.808470E-2	-1.860418E-3	7.489373E-3	4.540394E-3	-8.234510E-3	-5.425155E-3	1.785684E-3	-1.508011E-3	5.780961E-3	2.998358E-4	5.215199E-3	1.640396E-2	-8.049192E-3	-1.137106E-3	4.857195E-4	2.936401E-3	-3.979027E-3	-1.421245E-2	4.258163E-4	-1.656205E-3	-1.631932E-2	-5.638219E-3	-1.707107E-2
2.805050E+2	-3.948301E-4	-5.094204E-3	3.828245E-4	-4.093186E-3	-6.038530E-3	1.455372E-2	1.581620E-2	1.341903E-3	6.589202E-3	-4.200601E-3	9.222379E-3	-7.530182E-3	-3.831823E-3	6.453419E-3	-6.818696E-3	-1.016724E-2	3.718825E-3	-1.998558E-3	1.520283E-2	-1.485579E-3	9.883714E-3	3.982914E-3	1.838534E-2	8.699038E-3	1.304516E-3	-8.896424E-3	1.188832E-2	1.062672E-2	-1.353394E-3	-7.439294E-3	6.886708E-3	-3.377533E-3	2.692247E-3	-3.209522E-3	3.977760E-3	1.495402E-2	-3.747133E-3	6.284255E-3	-1.907300E-2	1.013531E-2	-9.002001E-3	3.771979E-4	-4.776879E-3	-2.309438E-2	-3.435198E-3	-8.452301E-3	4.931204E-3	3.454776E-3	1.424408E-3	-7.075750E-5	-5.531977E-3	-3.828823E-3	2.456176E-4	-9.772855E-3	-1.717134E-3	4.379925E-3	5.973079E-3	-3.818553E-3	5.204188E-3	-9.280286E-3	-5.095180E-3	-1.020171E-2	6.415280E-3	-1.279060E-3	-1.098829E-2	-3.437648E-3	-4.708749E-3	3.584678E-3	-8.543004E-3	-1.463523E-2	-7.086143E-3	1.225046E-2	-1.299867E-2	-1.527121E-2	1.585669E-3	1.752959E-2	-1.043120E-2	3.805094E-3	1.093795E-2	5.280446E-3	6.211864E-3	9.764338E-3	-4.781383E-4	6.169162E-3	-6.735061E-3	-4.303824E-3	1.396883E-2	-8.924748E-4	-1.650233E-2	1.550137E-2	1.096237E-2	9.076675E-3	-1.416034E-2	-7.178101E-3	1.758758E-3	-5.787603E-3	-6.342439E-3	-6.152738E-4	-9.129375E-3	1.517101E-2	1.304441E-3	-5.977673E-3	-6.722028E-3	-7.653563E-3	1.132041E-2	3.151521E-3	6.801413E-3	-4.901587E-3	2.861848E-4	9.021148E-3	-2.265322E-3	-2.004294E-3	1.145081E-2	7.334291E-3	8.299950E-3	1.407647E-2	-8.144118E-3	5.571445E-3	-9.702848E-3	-4.849926E-3	-1.363946E-2	-6.311962E-3	1.299284E-2	-5.759315E-3	-6.197451E-3	-1.880887E-3	-1.083448E-2	9.161543E-3	6.384487E-3	-5.173271E-3	-2.229259E-4	-2.319049E-2	-6.054228E-3	2.568711E-3	-9.355673E-3	-4.930751E-4	-3.169722E-3	7.847961E-4	-2.274878E-3	1.279528E-2	-9.768383E-3	-9.532339E-3	5.705320E-3	2.510082E-2	1.157711E-2	-4.250406E-3	3.705064E-3	-3.345687E-3	1.196298E-3	-1.171737E-3	1.190797E-2	-5.403079E-3	-1.702142E-2	3.932057E-3	-3.897397E-3	-9.525246E-3	3.069332E-3	-3.525603E-3	3.367583E-3	-1.633488E-2	-1.514313E-2	-3.299249E-3	-6.067459E-3	1.172422E-2	1.685239E-2	2.052775E-3	1.311282E-2	-9.729224E-3	2.621459E-4	-4.903709E-3	1.831217E-2	9.833185E-3
2.810050E+2	3.283738E-3	-5.166551E-3	-7.172560E-3	-9.628156E-3	-7.662037E-3	2.797553E-3	1.146648E-2	-3.398185E-3	3.097887E-4	3.294298E-3	-8.946041E-4	-9.323007E-3	-1.376724E-3	-1.409486E-3	-3.724999E-4	-2.179528E-2	3.643324E-3	-3.687119E-3	-3.711586E-3	-1.505177E-2	9.817022E-3	-3.201211E-4	-1.065866E-2	-1.109397E-2	1.152155E-2	-1.219075E-2	-5.128170E-3	1.918503E-3	3.800369E-3	1.713807E-3	6.836330E-3	-2.826798E-4	2.622786E-3	-4.684889E-3	-1.990132E-4	9.736660E-3	-3.802871E-3	2.342720E-3	5.135138E-4	-5.092465E-3	1.343136E-2	7.442805E-3	1.045304E-2	1.362059E-4	-6.065902E-3	-1.213130E-2	-1.659974E-3	-7.659542E-3	3.153761E-3	-1.286750E-2	-4.205213E-3	-3.909591E-3	-1.371575E-2	1.700024E-2	7.626648E-3	-6.838670E-3	-5.965016E-3	-7.964006E-3	-8.842829E-3	-1.287264E-2	-8.029424E-4	-5.128184E-3	-8.316469E-3	-1.401636E-2	1.100162E-2	1.497103E-2	4.435443E-3	5.375783E-3	-4.367409E-3	-6.284290E-3	-7.204291E-3	3.024841E-3	-1.403017E-3	-6.357414E-3	-2.972428E-3	-8.363103E-3	-5.411540E-3	-1.513819E-2	-1.681147E-2	3.896082E-4	3.215165E-3	1.890657E-3	-6.905293E-3	5.393059E-4	-1.107346E-2	-5.778654E-3	8.082091E-4	2.986624E-2	-3.234067E-3	-1.363334E-2	-1.362317E-2	-1.787746E-3	-6.593437E-3	4.193161E-3	6.983651E-3	2.990267E-3	-6.087461E-4	3.753199E-3	5.494644E-4	-2.563589E-2	-9.747299E-3	1.366191E-3	-8.054634E-3	7.269316E-3	-1.323975E-2	1.580121E-3	-2.941785E-3	-3.305775E-3	-9.593382E-3	-1.370008E-3	-4.325392E-3	2.450940E-3	-3.594676E-3	5.938286E-3	-1.877215E-2	-2.874773E-3	6.031164E-3	5.536399E-3	8.112010E-3	-4.128363E-4	6.708462E-3	3.470803E-3	5.171535E-3	-3.858670E-4	-9.032117E-3	1.500447E-2	1.524140E-2	-8.232748E-3	-4.200900E-3	9.323770E-3	1.157865E-2	2.599267E-3	-4.436699E-4	3.972831E-3	1.788571E-3	6.060736E-3	-1.430363E-2	-5.885049E-3	1.232472E-3	-3.073225E-3	5.234372E-3	1.266191E-2	-3.149342E-4	3.084435E-3	1.444920E-2	4.415060E-3	-6.641308E-3	1.785420E-2	1.430287E-2	2.548275E-4	-7.852778E-3	4.843563E-4	-2.168619E-3	5.444558E-3	3.767973E-3	-3.132596E-3	-7.171098E-5	-9.101728E-4	-6.070817E-3	2.038307E-3	-1.344526E-2	-1.754048E-3	1.172210E-2	-2.850690E-3	1.271749E-3	-8.638501E-3	-8.216763E-3	-5.432519E-3	1.006170E-2	1.793556E-2	-1.776309E-2	9.782357E-3
2.815020E+2	7.003815E-3	-3.535379E-3	-5.345442E-3	3.040905E-3	9.403935E-3	2.776033E-3	5.772261E-3	8.998174E-3	2.848102E-4	-1.938574E-2	-2.158827E-3	2.330076E-2	-1.264869E-2	3.779262E-3	1.043354E-2	1.286844E-2	-1.072492E-2	1.077361E-2	-1.203271E-3	4.141233E-3	-1.285393E-2	-4.562243E-3	1.410390E-3	5.554052E-3	7.083357E-3	2.331185E-2	1.387382E-3	-1.016659E-2	-1.572891E-2	-1.275415E-2	1.020839E-3	1.275821E-3	1.272782E-2	-1.875817E-3	-5.695240E-3	-1.756546E-2	1.102311E-2	3.624689E-3	7.505570E-3	4.531807E-3	8.907304E-3	-2.553151E-3	-9.444042E-3	1.668588E-3	-3.495763E-3	2.422468E-3	6.168558E-3	7.504077E-3	-2.337734E-3	5.493663E-3	-1.256780E-2	2.575179E-3	-5.073915E-3	8.995027E-4	-3.133019E-3	1.125048E-2	1.093259E-2	-9.335800E-3	1.750151E-2	-4.093967E-3	6.323711E-4	6.381765E-3	5.000644E-3	1.648819E-3	5.046658E-3	-6.436295E-3	-6.421420E-3	-4.048287E-3	9.837013E-3	-2.110104E-3	8.602294E-3	6.028176E-3	7.310354E-3	-1.178077E-2	-1.491757E-3	1.280543E-3	-9.207456E-3	5.176277E-3	-2.311705E-3	-4.418032E-3	-6.983238E-3	-1.206587E-2	4.014975E-3	9.713289E-3	7.273647E-3	5.638875E-3	-4.996697E-3	9.302164E-3	8.549106E-3	-1.401768E-3	-1.188637E-2	5.912067E-3	1.113275E-2	9.274906E-3	3.052639E-3	-5.824785E-3	1.512743E-2	-1.365608E-2	-1.052845E-2	1.510575E-3	-2.869052E-3	-1.588356E-3	3.698497E-3	-8.858010E-4	4.258216E-3	2.234632E-2	-2.914542E-3	4.760645E-3	8.694440E-3	1.232304E-3	9.015635E-4	6.851122E-3	1.138670E-2	-6.385840E-3	4.737652E-3	-1.307310E-2	-1.877036E-3	-5.247123E-5	-4.185299E-4	-9.327891E-3	-6.907629E-3	1.820215E-2	-1.053956E-2	-1.092579E-2	1.770142E-2	-1.876175E-3	-1.663486E-3	6.536422E-3	3.347078E-3	-1.304979E-2	1.311632E-2	8.468912E-3	-3.262946E-3	-7.271324E-3	1.790113E-3	4.433384E-3	-6.390526E-3	-4.234651E-3	-8.445946E-3	1.298280E-2	-2.258965E-3	1.530127E-2	1.324434E-2	-1.582998E-2	-1.313357E-3	3.013646E-3	6.703110E-3	7.464788E-4	-6.101804E-3	4.533197E-3	9.924711E-3	-1.229440E-2	-2.173354E-3	-8.273785E-3	-2.688115E-3	-1.458289E-3	-4.698381E-3	-2.206552E-3	-1.167304E-3	1.016045E-2	-1.165843E-2	4.732460E-3	1.726548E-3	-1.386860E-2	2.845770E-3	1.268723E-2	5.496190E-3	6.256634E-3	-1.359352E-2	-7.817726E-3	2.890758E-2	-1.039850E-2
2.820060E+2	9.195594E-3	1.171501E-2	1.553013E-2	7.089094E-3	5.057196E-3	1.186319E-2	4.686233E-3	-3.115943E-3	1.146650E-2	3.557618E-3	4.431357E-3	-4.609764E-4	1.399890E-2	-2.439022E-3	-3.324839E-3	1.154865E-2	-9.035805E-3	-2.017991E-4	1.046171E-2	-3.247777E-3	5.092091E-3	5.617796E-3	-1.922684E-3	7.411478E-3	1.495004E-3	5.852096E-3	-6.181002E-3	-6.485989E-3	1.456532E-2	2.052433E-2	-2.162663E-3	4.772065E-3	-1.600050E-2	5.504604E-3	1.109515E-2	-8.826577E-3	-2.198182E-3	7.825475E-3	7.872536E-4	-4.852944E-3	1.992998E-4	1.061467E-2	7.688147E-3	2.068367E-2	8.415178E-3	-3.372869E-3	1.044567E-2	1.200696E-2	7.063474E-3	4.415028E-3	1.287106E-2	2.888112E-3	-3.081813E-3	-6.893209E-3	1.065706E-2	-6.596110E-3	1.124783E-2	-3.623560E-3	-1.330463E-2	1.917525E-2	-4.910160E-3	1.574521E-3	-1.072873E-2	3.559983E-4	1.417986E-2	2.392203E-3	-7.717784E-3	2.059295E-2	1.019795E-2	6.603793E-3	-1.228495E-2	-7.495573E-3	9.106434E-3	2.445270E-2	-1.220562E-3	8.068659E-3	1.125215E-2	-5.427110E-3	5.952963E-3	6.353181E-4	4.952526E-3	5.872882E-4	5.932681E-3	6.316997E-3	-6.597395E-3	1.317984E-2	1.560560E-2	8.248639E-4	4.436506E-3	8.092219E-3	-1.066496E-3	-1.389394E-2	-8.830926E-3	-1.456245E-2	4.721792E-3	3.308497E-3	-1.677155E-3	9.960271E-3	6.474834E-3	5.265793E-3	-3.938640E-3	1.960544E-2	8.026711E-3	-3.321742E-3	8.184308E-3	9.927489E-3	-1.112506E-3	5.096224E-3	-2.248556E-3	-6.277741E-3	1.171522E-2	7.176412E-3	5.052687E-3	1.318695E-2	5.091824E-3	2.496379E-3	7.961883E-3	8.700848E-3	8.502020E-3	5.841154E-3	2.413170E-2	5.019759E-4	2.329595E-3	5.191902E-3	-4.525245E-3	5.006405E-3	3.863522E-3	-3.515389E-3	6.706391E-3	-3.558203E-3	5.740000E-3	8.817956E-3	2.539440E-2	-2.780362E-3	-2.026477E-3	9.632797E-3	2.093985E-2	2.722085E-3	1.238365E-2	-4.553639E-3	8.096752E-3	7.814734E-3	8.493561E-3	8.928053E-3	-5.337538E-3	-6.807340E-3	7.050851E-3	-1.120848E-2	4.452640E-3	7.729653E-3	-4.501003E-3	2.402743E-2	9.730993E-3	1.192958E-2	1.627598E-3	3.712604E-3	-2.874433E-3	1.676153E-2	-7.117607E-4	2.000130E-2	6.182088E-3	5.106204E-3	-1.114389E-2	1.260495E-2	-3.049401E-3	1.460268E-2	2.063593E-2	-2.039771E-3	-1.491231E-3	1.085109E-3	-9.988837E-3	3.582371E-3
2.825030E+2	1.666955E-2	-3.325253E-3	1.354097E-2	1.255116E-2	4.980334E-3	-7.247206E-3	6.036888E-3	4.655526E-3	-5.719813E-3	1.259727E-2	-1.932813E-3	6.389635E-3	1.370153E-3	1.425211E-3	7.494945E-3	8.181170E-3	-7.644869E-3	1.588536E-2	-8.537023E-3	1.220747E-2	2.021019E-2	1.303706E-3	1.501665E-2	-1.765504E-3	-1.036918E-2	-7.081464E-4	-1.015115E-2	3.148493E-2	9.271840E-3	1.912479E-2	9.489340E-3	2.380387E-2	-1.521779E-3	-4.485209E-3	-4.120506E-3	3.134267E-3	5.882021E-3	-3.920994E-3	-2.089141E-3	2.418223E-2	7.652903E-3	1.197083E-2	2.295701E-2	1.125889E-2	1.885356E-3	-4.636722E-3	7.762439E-3	-5.400543E-4	1.244400E-2	8.786578E-5	1.609262E-3	-5.371429E-3	1.946062E-2	6.527750E-3	-2.079683E-4	7.325949E-3	7.759835E-3	7.268720E-3	6.525627E-4	2.790123E-2	3.147399E-2	-4.907105E-3	7.956427E-3	1.760557E-2	1.408608E-2	8.964977E-4	7.631931E-3	-1.796627E-4	1.154309E-2	5.096164E-3	1.549144E-2	9.234928E-3	1.194004E-2	1.350428E-2	1.671303E-2	-1.630438E-2	3.591161E-3	9.544985E-3	1.781036E-2	-4.122788E-3	1.073479E-2	2.066402E-2	-5.169703E-3	2.438505E-3	2.459335E-2	8.831920E-3	-4.799987E-4	-1.541992E-2	1.763039E-2	-7.355967E-3	5.895354E-3	1.239732E-2	7.718772E-3	1.973211E-3	-7.199815E-3	1.951807E-2	-2.503447E-4	8.516442E-3	3.730494E-3	-4.923957E-3	1.399151E-2	1.670124E-2	6.764670E-3	7.499446E-4	9.999883E-3	8.283021E-3	1.093450E-2	-1.376777E-3	1.196095E-2	1.515273E-3	1.299326E-2	1.008203E-2	1.648007E-3	2.124743E-3	-3.812755E-3	1.438140E-2	7.905884E-3	1.634898E-3	-1.179297E-4	-4.652054E-3	1.042818E-2	-4.491742E-3	-1.192036E-2	8.658872E-3	2.232272E-2	1.048105E-3	5.139224E-3	9.800972E-3	5.795342E-4	2.421471E-2	1.034947E-3	1.465797E-2	-5.824342E-3	4.249309E-3	-3.439751E-3	4.707461E-3	2.405010E-2	1.432876E-2	7.576275E-3	-1.036663E-3	1.183805E-2	-9.296448E-3	2.004466E-3	9.723112E-5	9.043663E-3	3.291653E-3	-1.371604E-2	9.910500E-4	1.611995E-2	1.903708E-2	-8.571012E-3	1.386597E-2	-8.599491E-3	1.339846E-2	-4.477557E-3	1.012300E-2	1.101200E-2	7.436626E-4	6.974479E-3	-6.518994E-3	9.612924E-3	3.431558E-3	1.063987E-2	1.415952E-2	1.568425E-3	-8.385462E-3	7.717785E-3	6.626193E-3	-7.486678E-3	3.886710E-3	8.418791E-3	3.511772E-3
2.830040E+2	1.540198E-2	1.228268E-2	4.833056E-3	1.323456E-2	8.300585E-4	1.832516E-2	3.787291E-3	-4.209264E-3	1.202263E-2	7.099094E-3	1.131689E-2	3.509153E-3	2.350173E-2	9.883902E-3	9.197549E-3	-7.960994E-3	1.562077E-3	1.821699E-2	-4.270751E-3	-8.511515E-3	2.477169E-2	-5.262683E-3	1.203156E-2	4.943964E-3	7.927857E-3	6.346573E-3	1.011879E-2	2.533073E-2	9.880849E-3	2.532739E-3	1.014749E-2	3.589166E-2	3.855833E-2	2.462409E-2	2.276478E-2	1.932381E-2	1.739848E-2	-8.287808E-4	2.968199E-2	5.430297E-3	1.433883E-2	8.270799E-3	3.548845E-3	8.797810E-3	1.024606E-2	1.307010E-2	3.080751E-3	2.104285E-2	3.886565E-3	3.517899E-3	9.278019E-3	1.174710E-2	3.246738E-2	1.664148E-2	-2.395540E-3	2.334494E-3	4.884874E-3	1.890803E-2	5.896466E-3	5.532376E-3	1.759877E-2	2.674574E-2	1.537672E-2	5.581102E-3	1.319575E-2	-2.888453E-3	2.033827E-3	1.369377E-2	3.566192E-3	1.416563E-2	8.193259E-3	1.294911E-2	2.225266E-3	1.552559E-3	2.202930E-2	-1.746865E-2	1.048909E-2	1.557097E-2	1.165580E-3	1.899547E-2	1.282205E-2	-3.681708E-3	8.083837E-3	1.427574E-2	5.317849E-3	1.528611E-2	-1.025085E-2	4.288096E-3	-2.552812E-3	2.720894E-2	8.313057E-3	-2.562124E-3	1.905957E-3	7.672653E-3	1.463419E-2	8.326233E-4	-2.612907E-3	1.208263E-2	2.117483E-2	3.176828E-2	1.469234E-2	9.950172E-3	3.409329E-3	1.275211E-3	5.319474E-3	1.373389E-2	8.462165E-3	-2.547057E-3	-3.168805E-3	2.309253E-2	1.629877E-2	2.109954E-2	3.091423E-2	2.771759E-2	1.180947E-3	2.532961E-2	1.174420E-2	2.064600E-2	9.133951E-3	2.594670E-2	1.452914E-2	1.928683E-2	2.512642E-2	9.272340E-3	1.736807E-2	5.629563E-3	1.743514E-3	2.542877E-2	1.490816E-2	1.025205E-2	1.254566E-2	2.531605E-2	-3.876888E-3	6.223337E-3	-1.267737E-2	8.583641E-3	2.318676E-2	2.342539E-2	1.455474E-2	1.564051E-2	-6.607265E-3	9.711331E-3	5.201239E-3	2.892107E-2	-5.168069E-4	1.702734E-2	7.617440E-3	-7.280049E-3	1.388358E-2	-4.589134E-3	8.210590E-3	-4.326666E-3	6.913144E-3	2.179509E-2	8.230809E-3	1.891064E-2	2.415742E-2	1.332513E-3	1.022005E-2	2.063994E-2	-7.448312E-3	2.398487E-3	9.919700E-3	1.318862E-2	2.149205E-3	1.210219E-2	5.433191E-3	1.444432E-3	6.939436E-3	1.317227E-2	1.642465E-3	-2.747901E-3
2.835020E+2	1.102024E-3	1.869705E-2	2.145887E-2	5.224397E-3	2.113723E-2	3.773241E-2	1.373806E-2	1.282369E-2	1.325942E-2	3.629080E-2	2.420743E-2	1.705310E-2	4.047520E-2	2.183753E-2	3.049140E-2	1.848600E-2	1.303489E-2	-6.977015E-3	2.523893E-2	1.237434E-2	2.884967E-2	2.187146E-2	2.826514E-2	2.179549E-2	1.514199E-2	3.079884E-2	2.209947E-2	2.147092E-2	3.257135E-2	2.809666E-2	1.501462E-2	2.781615E-2	1.932853E-2	4.070184E-2	1.988556E-2	1.006826E-2	3.543013E-2	2.685038E-2	2.545164E-2	9.368697E-3	2.026968E-2	1.089532E-2	4.091847E-2	2.926117E-2	3.003690E-2	1.806663E-2	-3.935532E-3	2.252841E-2	2.562267E-2	5.725557E-2	1.058595E-2	8.045767E-3	1.975558E-2	1.103308E-2	2.497254E-2	1.927732E-2	1.813738E-2	1.883956E-2	5.505630E-2	3.031440E-2	-1.103588E-2	2.166713E-2	1.675583E-2	3.523222E-3	1.887803E-2	4.656060E-2	6.268490E-3	2.070501E-2	1.206448E-2	2.838532E-2	5.335482E-3	1.884435E-2	3.345366E-2	1.361697E-2	4.037349E-2	1.650395E-2	2.837375E-2	2.229783E-2	3.495985E-2	4.339836E-2	2.905964E-2	2.279845E-2	4.536718E-3	1.173594E-2	1.817731E-2	1.893072E-3	3.684440E-2	-6.321372E-4	7.609447E-3	3.017622E-2	2.383223E-3	9.643883E-3	2.775725E-2	3.637935E-2	7.817670E-3	3.833415E-2	3.389700E-2	2.539369E-2	2.969615E-2	2.632148E-2	2.177060E-2	1.279770E-2	2.077595E-2	5.124610E-3	1.378997E-2	2.159007E-2	5.022553E-3	8.571952E-3	2.251680E-2	3.122797E-2	2.843354E-2	1.943194E-2	3.426243E-2	-4.724542E-3	2.205504E-2	2.851300E-2	1.305330E-2	2.064388E-2	1.193379E-2	3.355864E-2	1.063591E-2	2.582195E-2	2.660990E-2	2.499125E-2	3.620899E-2	1.094571E-2	3.508932E-2	1.933422E-2	2.559159E-2	1.277738E-2	1.063751E-2	1.874456E-2	2.630551E-2	2.622318E-2	1.501949E-2	1.649225E-2	3.280726E-2	1.463327E-2	1.094830E-2	3.705250E-2	1.108212E-2	9.560198E-3	9.050978E-3	1.429915E-2	2.280091E-2	2.584298E-2	2.476942E-2	1.888599E-2	1.221429E-2	1.834663E-2	2.744574E-2	2.489990E-2	4.388763E-2	1.061071E-2	2.809811E-2	2.362528E-2	2.404184E-2	1.616389E-2	-5.729894E-3	2.202973E-2	4.224731E-2	2.672730E-2	3.642639E-2	1.616530E-2	4.497813E-2	3.847609E-2	3.738943E-2	7.163629E-3	3.992477E-3	2.334146E-2	2.562741E-2	1.920967E-2
2.840000E+2	4.200984E-2	3.963714E-2	3.319444E-2	2.015918E-2	6.225886E-2	1.515022E-2	5.283069E-2	7.350103E-2	3.605078E-2	4.306313E-2	4.853709E-2	2.414189E-2	4.524689E-2	2.905797E-2	5.412134E-2	6.898099E-2	7.073741E-2	2.645966E-2	4.165987E-2	4.660164E-2	5.202976E-2	1.920335E-2	5.184839E-2	4.123619E-2	3.376528E-2	4.292626E-2	4.725317E-2	5.408484E-2	4.274817E-2	1.887841E-2	4.003975E-2	3.478830E-2	6.371707E-2	4.734672E-2	4.468399E-2	6.556094E-2	7.163713E-2	2.452701E-2	3.463952E-2	4.285468E-2	3.937140E-2	4.700395E-2	4.466668E-2	2.628804E-2	4.277394E-2	2.608200E-2	3.174422E-2	4.767846E-2	1.400461E-2	3.146987E-2	1.219737E-2	1.815153E-2	3.970257E-2	5.078875E-2	6.798673E-2	4.011311E-2	3.932642E-2	4.638977E-2	6.081656E-2	9.549282E-2	4.212624E-2	6.266169E-2	3.536345E-2	4.138990E-2	4.054378E-2	4.884089E-2	2.716964E-2	4.606300E-2	2.266302E-2	5.088974E-2	4.304954E-2	2.523226E-2	4.470766E-2	2.838707E-2	2.189434E-2	3.175215E-2	4.731584E-2	4.243756E-2	5.235765E-2	3.387075E-2	3.859451E-2	2.125612E-2	3.255072E-2	2.511973E-2	5.871330E-2	3.352938E-2	3.426146E-2	2.394702E-2	4.026563E-2	6.575426E-2	4.067658E-2	6.487300E-2	2.006089E-2	2.501049E-2	7.194740E-2	2.494448E-2	3.301246E-2	3.032427E-2	4.915672E-2	3.000810E-2	5.563462E-2	3.170735E-2	5.850867E-2	2.822595E-2	3.401083E-2	5.199039E-2	5.079229E-2	3.078608E-2	3.312064E-2	3.862406E-2	4.551818E-2	3.191784E-2	4.864112E-2	5.299046E-2	3.165800E-2	4.826098E-2	2.134903E-2	4.015050E-2	2.112601E-2	3.707418E-2	2.658745E-2	4.157636E-2	3.674378E-2	3.608912E-2	3.531578E-2	1.673757E-2	4.260805E-2	5.387316E-2	4.340026E-2	3.933861E-2	7.246019E-3	4.383259E-2	5.365244E-2	3.842537E-2	4.994732E-2	4.327015E-2	4.649901E-2	2.852299E-2	3.406042E-2	4.651983E-2	5.228868E-2	5.112201E-2	4.321584E-2	5.641269E-2	3.827650E-2	3.989738E-2	5.112190E-2	2.616551E-2	2.306628E-2	4.552059E-2	5.913103E-2	3.442538E-2	4.436022E-2	3.952366E-2	5.706036E-2	6.115514E-2	4.538023E-2	3.048722E-2	3.070126E-2	5.156729E-2	5.192696E-2	3.881859E-2	3.709254E-2	3.154706E-2	6.864813E-2	5.824656E-2	4.245525E-2	3.480391E-2	4.276618E-2	3.724766E-2	4.703863E-2	4.949739E-2
2.841010E+2	3.855390E-2	3.318758E-2	4.365500E-2	3.996430E-2	3.161852E-2	2.177464E-2	4.297499E-2	5.778033E-2	4.812841E-2	3.079800E-2	3.446070E-2	6.307185E-2	4.596422E-2	2.959870E-2	5.139151E-2	4.451813E-2	4.621730E-2	5.102991E-2	3.968564E-2	3.565478E-2	3.712462E-2	4.070101E-2	7.581256E-2	4.176619E-2	4.247659E-2	3.669565E-2	5.351521E-2	4.523173E-2	5.723506E-2	3.195639E-2	4.814245E-2	3.369972E-2	4.908657E-2	4.952265E-2	5.699781E-2	4.271392E-2	7.961975E-2	4.567272E-2	3.372119E-2	6.841435E-2	3.201179E-2	3.855245E-2	3.391605E-2	6.642786E-2	5.849172E-2	4.988193E-2	3.789060E-2	3.073494E-2	3.183695E-2	3.957876E-2	3.636646E-2	3.772448E-2	5.503710E-2	4.291385E-2	3.447490E-2	5.556789E-2	3.990707E-2	4.559798E-2	4.508146E-2	5.154937E-2	5.514242E-2	1.031040E-2	4.309123E-2	5.205538E-2	5.519228E-2	3.288021E-2	3.591359E-2	4.478106E-2	4.589876E-2	3.066281E-2	3.810258E-2	4.195910E-2	4.381068E-2	4.811644E-2	5.751630E-2	3.935481E-2	4.805808E-2	5.021953E-2	2.782586E-2	5.988402E-2	5.469246E-2	2.502924E-2	2.649713E-2	7.275042E-2	1.739275E-2	3.262032E-2	4.713924E-2	3.229460E-2	3.777404E-2	3.577276E-2	4.513840E-2	4.610027E-2	4.766808E-2	3.364073E-2	4.752341E-2	3.015563E-2	5.481522E-2	4.319591E-2	4.532672E-2	5.960086E-2	5.343964E-2	5.275844E-2	2.858224E-2	3.909247E-2	4.010719E-2	5.092885E-2	5.606511E-2	2.963536E-2	4.863710E-2	5.991132E-2	4.475699E-2	3.242570E-2	5.104796E-2	2.593730E-2	5.256286E-2	4.525079E-2	1.847815E-2	6.310255E-2	6.556576E-2	2.023223E-2	5.781909E-2	4.915269E-2	4.398415E-2	4.783437E-2	6.436741E-2	3.664116E-2	6.125335E-2	3.726996E-2	5.526830E-2	5.255633E-2	5.529260E-2	4.267395E-2	4.116293E-2	7.050264E-2	5.504864E-2	8.057322E-2	5.907580E-2	3.257474E-2	3.126466E-2	4.332572E-2	4.629091E-2	2.811866E-2	4.797939E-2	3.302242E-2	2.206657E-2	2.055519E-2	4.768763E-2	3.409954E-2	4.065218E-2	4.467340E-2	3.135277E-2	3.959514E-2	4.324329E-2	4.660488E-2	4.012777E-2	4.473032E-2	3.473726E-2	4.656119E-2	3.947675E-2	5.056089E-2	2.684999E-2	9.393929E-2	5.359042E-2	6.318188E-2	4.315747E-2	6.215665E-2	2.339206E-2	5.699224E-2	4.546479E-2	3.173549E-2	7.899875E-2	7.169964E-2
2.842040E+2	5.310725E-2	4.962274E-2	4.823156E-2	1.527355E-2	6.200298E-2	5.028283E-2	8.149467E-2	3.351947E-2	5.204674E-2	4.097145E-2	4.844860E-2	4.283211E-2	5.735319E-2	6.073312E-2	5.901067E-2	4.688441E-2	5.021133E-2	6.032559E-2	4.839225E-2	3.963646E-2	5.557548E-2	3.980458E-2	4.945550E-2	4.630437E-2	5.268096E-2	5.278407E-2	6.818202E-2	4.601692E-2	5.245073E-2	6.068067E-2	4.758439E-2	3.799153E-2	3.809822E-2	4.727150E-2	5.783464E-2	5.696219E-2	5.960533E-2	3.526656E-2	4.190223E-2	5.372019E-2	7.156235E-2	4.678730E-2	5.088738E-2	4.834849E-2	5.237515E-2	3.884535E-2	2.732071E-2	3.404867E-2	5.235751E-2	5.844871E-2	5.199450E-2	7.115948E-2	6.556061E-2	6.801962E-2	3.078301E-2	4.469905E-2	6.426290E-2	6.814456E-2	3.579096E-2	3.886561E-2	4.033296E-2	4.094535E-2	2.235360E-2	3.770522E-2	7.022841E-2	6.095219E-2	5.648789E-2	5.565981E-2	4.658046E-2	4.182837E-2	3.454558E-2	5.251709E-2	6.015163E-2	6.810738E-2	4.390067E-2	2.631896E-2	5.960877E-2	3.772066E-2	4.535045E-2	7.095793E-2	7.095795E-2	5.547754E-2	4.223595E-2	5.194219E-2	4.965889E-2	4.396332E-2	6.494571E-2	8.475320E-2	3.701371E-2	5.595700E-2	3.078379E-2	4.012657E-2	3.462655E-2	7.492181E-2	2.980597E-2	5.895735E-2	4.477592E-2	5.310951E-2	6.676127E-2	6.207182E-2	6.149972E-2	5.496932E-2	2.909802E-2	4.832352E-2	5.368131E-2	7.034587E-2	5.335137E-2	5.262799E-2	5.514423E-2	6.196794E-2	4.255520E-2	5.335364E-2	4.631719E-2	4.697907E-2	4.851033E-2	4.763474E-2	5.275200E-2	4.583615E-2	2.977377E-2	4.292941E-2	3.490786E-2	5.326699E-2	4.623189E-2	5.780619E-2	6.658500E-2	2.329444E-2	7.032847E-2	5.048736E-2	3.813168E-2	5.602669E-2	2.456462E-2	2.820571E-2	2.966235E-2	4.110327E-2	3.368480E-2	6.474069E-2	5.974125E-2	4.197249E-2	3.851320E-2	4.385387E-2	6.706242E-2	6.925991E-2	4.176479E-2	6.151506E-2	4.715337E-2	5.654808E-2	6.770144E-2	6.447638E-2	6.469102E-2	3.167964E-2	5.343485E-2	3.252327E-2	5.269413E-2	2.761124E-2	3.264704E-2	5.049301E-2	6.022807E-2	2.593425E-2	3.185427E-2	6.776274E-2	3.123220E-2	2.796143E-2	8.919427E-2	4.999528E-2	6.046886E-2	3.843975E-2	5.887668E-2	5.619053E-2	5.876728E-2	5.675884E-2	3.658925E-2	5.079590E-2
2.843040E+2	9.870023E-2	7.207579E-2	5.130049E-2	6.698126E-2	6.147286E-2	9.381181E-2	7.368658E-2	8.472479E-2	7.648864E-2	7.449299E-2	7.800400E-2	6.866519E-2	8.829774E-2	5.905968E-2	9.996737E-2	6.840042E-2	6.533875E-2	7.538162E-2	5.623123E-2	8.844283E-2	5.804250E-2	8.031801E-2	6.751940E-2	5.906838E-2	9.358671E-2	6.252643E-2	4.961966E-2	7.738664E-2	8.733883E-2	6.326481E-2	5.873891E-2	7.862181E-2	8.942498E-2	8.035960E-2	7.377207E-2	6.566931E-2	6.218390E-2	6.272871E-2	1.035419E-1	8.078963E-2	6.303297E-2	7.706588E-2	8.661719E-2	8.845265E-2	6.607912E-2	7.133842E-2	6.635802E-2	4.930116E-2	6.611353E-2	7.348383E-2	7.134205E-2	7.618881E-2	9.027738E-2	7.948519E-2	8.996853E-2	6.903004E-2	8.596225E-2	6.348409E-2	5.517478E-2	9.359235E-2	8.544779E-2	7.382715E-2	6.649551E-2	1.045083E-1	7.370573E-2	5.761017E-2	7.112066E-2	9.731982E-2	8.071753E-2	7.481018E-2	6.563019E-2	7.113828E-2	5.216764E-2	7.517070E-2	9.027455E-2	7.289745E-2	7.575908E-2	7.370152E-2	6.927442E-2	6.940592E-2	8.816633E-2	6.174864E-2	6.038254E-2	8.611087E-2	5.854204E-2	6.517601E-2	7.251056E-2	6.228871E-2	6.690531E-2	9.505051E-2	7.326672E-2	5.936318E-2	7.928173E-2	6.389722E-2	5.062569E-2	8.711826E-2	6.430661E-2	8.084466E-2	7.081349E-2	7.608758E-2	6.271891E-2	7.037620E-2	8.081660E-2	4.480568E-2	5.277361E-2	8.193796E-2	5.923912E-2	8.153358E-2	7.133357E-2	7.295879E-2	8.310479E-2	6.233297E-2	7.432905E-2	8.953034E-2	7.182889E-2	8.526500E-2	7.776945E-2	6.048305E-2	8.148414E-2	7.119013E-2	5.239278E-2	6.674380E-2	9.305155E-2	8.545008E-2	7.390806E-2	8.472661E-2	8.285776E-2	6.753062E-2	5.865767E-2	8.850913E-2	7.046690E-2	6.140319E-2	9.025327E-2	5.574613E-2	7.168416E-2	5.754884E-2	5.056837E-2	7.341535E-2	4.963772E-2	7.545722E-2	8.320595E-2	7.616387E-2	9.430489E-2	8.525311E-2	6.839215E-2	6.391696E-2	7.035237E-2	8.263860E-2	7.856585E-2	6.471673E-2	7.342689E-2	8.155426E-2	5.017707E-2	4.162310E-2	6.771820E-2	6.718702E-2	7.307429E-2	8.558079E-2	6.749569E-2	5.726248E-2	7.382334E-2	3.921642E-2	7.893465E-2	8.091406E-2	7.007533E-2	5.251224E-2	9.077835E-2	6.681040E-2	8.333283E-2	1.073137E-1	4.551297E-2	6.646327E-2
2.844010E+2	1.241192E-1	1.016800E-1	6.213472E-2	8.753351E-2	9.599922E-2	1.106484E-1	9.155676E-2	8.904180E-2	1.009269E-1	1.344507E-1	1.117543E-1	1.106215E-1	1.152262E-1	1.037027E-1	1.069469E-1	1.090551E-1	7.087823E-2	9.201212E-2	1.063685E-1	9.278503E-2	1.057982E-1	1.042147E-1	1.369079E-1	1.070507E-1	1.362952E-1	8.610300E-2	1.214336E-1	1.448640E-1	1.053292E-1	9.129064E-2	1.154554E-1	9.382938E-2	1.141627E-1	9.049941E-2	1.045397E-1	9.868110E-2	1.177229E-1	1.184614E-1	1.275119E-1	1.271727E-1	1.178151E-1	6.861583E-2	8.420770E-2	1.007163E-1	9.078469E-2	1.291184E-1	9.425111E-2	1.049266E-1	1.088646E-1	1.236985E-1	9.653086E-2	1.015004E-1	9.499345E-2	9.794296E-2	8.654025E-2	8.504583E-2	1.034716E-1	1.444462E-1	9.978976E-2	1.146299E-1	1.038838E-1	7.333149E-2	8.189040E-2	1.193888E-1	1.100708E-1	1.172184E-1	1.020239E-1	7.204465E-2	9.588966E-2	1.030373E-1	1.024128E-1	1.012410E-1	1.167398E-1	9.943845E-2	1.239266E-1	1.033704E-1	9.189775E-2	1.337109E-1	1.119754E-1	9.616753E-2	9.956974E-2	1.435291E-1	8.696260E-2	9.216297E-2	8.487881E-2	9.412090E-2	9.073976E-2	1.030465E-1	1.115394E-1	1.177461E-1	1.237480E-1	9.970188E-2	8.602690E-2	7.860233E-2	8.587597E-2	1.162372E-1	1.044372E-1	1.136230E-1	1.249099E-1	1.292321E-1	1.193387E-1	1.197363E-1	1.018581E-1	9.567130E-2	1.089847E-1	1.158976E-1	1.350969E-1	6.881833E-2	9.852069E-2	1.177294E-1	1.510558E-1	9.089699E-2	8.267831E-2	1.100137E-1	9.679002E-2	9.085304E-2	1.271150E-1	1.086011E-1	1.026621E-1	1.132097E-1	9.035745E-2	1.353310E-1	1.214566E-1	1.054373E-1	1.132083E-1	8.295580E-2	1.236022E-1	9.092920E-2	1.203248E-1	9.669230E-2	1.385944E-1	1.273108E-1	9.747671E-2	1.101874E-1	1.099369E-1	9.902554E-2	1.100215E-1	1.302880E-1	1.103744E-1	1.477530E-1	1.293216E-1	8.707321E-2	1.122355E-1	8.240703E-2	8.961645E-2	1.134589E-1	1.036461E-1	1.328668E-1	9.861547E-2	1.133618E-1	1.138146E-1	1.028774E-1	1.210418E-1	1.054306E-1	1.095584E-1	9.956769E-2	1.059652E-1	8.227754E-2	6.420146E-2	1.389070E-1	1.014239E-1	1.270788E-1	1.080439E-1	1.048556E-1	1.133083E-1	9.795403E-2	9.336186E-2	9.928971E-2	9.285389E-2	1.239666E-1	9.023969E-2	1.187070E-1
2.845010E+2	1.585529E-1	1.502306E-1	1.528371E-1	1.505287E-1	2.011978E-1	1.568933E-1	1.800627E-1	1.158862E-1	1.583628E-1	1.626356E-1	1.616208E-1	1.554161E-1	1.802034E-1	1.451280E-1	1.691649E-1	1.879337E-1	1.514595E-1	1.481036E-1	1.521387E-1	1.594817E-1	1.825636E-1	1.829387E-1	1.759250E-1	1.219425E-1	1.363666E-1	1.670125E-1	1.517288E-1	1.756726E-1	1.741029E-1	1.461096E-1	1.696322E-1	1.528112E-1	1.828806E-1	1.399198E-1	1.784099E-1	1.557708E-1	1.685372E-1	1.299600E-1	1.630442E-1	1.468943E-1	1.886901E-1	1.480021E-1	1.508991E-1	1.704687E-1	1.218622E-1	1.802127E-1	1.832837E-1	1.479819E-1	1.707764E-1	1.222061E-1	1.393037E-1	1.405941E-1	2.230990E-1	1.052142E-1	1.454914E-1	1.544800E-1	1.737990E-1	1.357081E-1	1.743637E-1	1.879333E-1	1.292687E-1	1.379099E-1	1.462019E-1	1.268824E-1	1.845852E-1	1.422050E-1	1.270018E-1	1.599859E-1	1.334687E-1	1.660343E-1	1.459622E-1	1.426601E-1	1.745715E-1	1.573808E-1	1.416704E-1	1.266096E-1	1.652264E-1	1.325812E-1	1.396257E-1	1.664065E-1	1.657788E-1	1.757500E-1	1.521369E-1	1.098927E-1	1.428436E-1	1.680382E-1	1.413236E-1	1.467147E-1	1.650405E-1	1.897154E-1	1.426602E-1	1.933619E-1	1.389755E-1	1.655050E-1	1.510414E-1	1.627793E-1	1.382269E-1	1.505696E-1	1.635280E-1	1.669926E-1	9.393778E-2	1.525916E-1	1.424208E-1	1.655470E-1	1.935839E-1	1.437880E-1	1.454958E-1	1.444822E-1	1.596497E-1	2.023167E-1	1.502756E-1	1.593739E-1	2.036958E-1	1.585856E-1	1.211799E-1	1.386295E-1	2.004746E-1	1.595911E-1	1.514487E-1	1.600406E-1	1.453403E-1	1.677434E-1	1.422431E-1	1.580640E-1	1.848012E-1	1.646143E-1	1.640845E-1	1.484098E-1	1.545249E-1	1.417544E-1	1.389132E-1	1.864655E-1	1.526632E-1	1.396261E-1	1.538688E-1	1.834165E-1	1.625135E-1	1.247493E-1	1.621760E-1	1.530306E-1	1.573354E-1	1.647149E-1	1.507243E-1	1.506102E-1	1.573532E-1	1.531139E-1	1.634441E-1	1.537052E-1	1.370051E-1	1.274100E-1	1.803115E-1	1.359323E-1	1.353879E-1	1.371037E-1	1.657048E-1	1.540380E-1	1.857263E-1	1.361196E-1	1.571626E-1	1.661979E-1	1.414244E-1	1.516640E-1	1.857890E-1	1.670066E-1	1.559356E-1	1.160607E-1	1.447484E-1	1.597525E-1	1.916474E-1	1.287593E-1	1.562090E-1	1.425692E-1
2.846030E+2	2.287515E-1	2.612110E-1	2.141997E-1	2.383862E-1	2.219216E-1	2.484064E-1	2.146323E-1	2.235325E-1	2.130059E-1	2.590672E-1	2.047988E-1	2.550154E-1	2.178159E-1	2.312118E-1	2.589894E-1	2.150920E-1	2.375937E-1	2.137663E-1	2.508506E-1	2.385099E-1	1.996403E-1	1.971267E-1	2.628548E-1	1.936808E-1	1.981879E-1	2.505666E-1	2.339385E-1	1.868205E-1	2.619363E-1	1.955839E-1	2.008198E-1	1.963512E-1	2.472813E-1	2.116356E-1	2.331321E-1	1.978684E-1	2.451029E-1	2.156492E-1	2.420348E-1	2.223554E-1	2.220231E-1	2.062602E-1	2.553590E-1	2.212535E-1	1.959878E-1	2.193658E-1	2.167177E-1	2.327935E-1	2.516810E-1	2.236764E-1	1.886476E-1	2.452271E-1	2.868337E-1	2.517517E-1	1.798132E-1	2.383710E-1	2.561368E-1	2.499482E-1	2.274654E-1	2.508730E-1	2.031036E-1	2.623746E-1	2.639439E-1	2.173984E-1	2.774788E-1	2.489523E-1	2.269656E-1	2.369474E-1	2.251161E-1	2.156357E-1	2.276815E-1	2.216140E-1	2.199738E-1	2.024627E-1	2.222515E-1	2.368912E-1	1.764982E-1	2.137557E-1	2.373161E-1	2.342015E-1	2.308225E-1	1.997318E-1	2.697644E-1	2.409476E-1	2.592420E-1	2.092057E-1	2.387176E-1	2.299299E-1	2.564870E-1	2.571528E-1	2.122342E-1	2.205883E-1	2.174020E-1	1.926296E-1	2.574143E-1	2.590637E-1	2.479070E-1	2.213917E-1	2.191494E-1	1.830197E-1	2.583874E-1	1.889022E-1	2.279287E-1	2.093701E-1	2.248328E-1	2.283725E-1	1.986453E-1	2.381824E-1	2.568018E-1	2.285403E-1	2.154766E-1	2.007727E-1	2.577452E-1	2.345648E-1	2.236585E-1	2.005810E-1	2.236568E-1	2.185835E-1	2.396868E-1	2.484546E-1	2.416061E-1	2.959593E-1	2.324912E-1	2.656653E-1	2.493346E-1	2.152989E-1	2.047634E-1	2.434779E-1	2.266114E-1	2.207888E-1	2.092463E-1	2.378236E-1	2.435172E-1	2.656753E-1	2.239760E-1	2.189986E-1	2.456691E-1	2.601050E-1	2.250126E-1	2.485108E-1	2.173871E-1	2.170210E-1	2.178518E-1	2.039981E-1	2.309298E-1	2.284023E-1	2.411184E-1	2.020664E-1	2.112286E-1	2.290685E-1	2.726186E-1	2.141391E-1	2.471821E-1	2.095960E-1	2.672204E-1	2.084469E-1	2.458042E-1	2.460115E-1	2.410679E-1	2.378056E-1	2.442748E-1	2.630505E-1	2.371326E-1	2.278157E-1	2.095805E-1	2.367772E-1	2.421468E-1	2.422919E-1	2.485758E-1	2.138843E-1	2.010051E-1	2.836430E-1
2.847020E+2	4.100508E-1	4.347994E-1	4.966432E-1	4.914621E-1	4.379346E-1	3.903123E-1	4.327985E-1	4.293772E-1	4.283944E-1	4.646662E-1	4.308520E-1	3.965426E-1	4.310240E-1	4.246084E-1	4.066704E-1	4.645394E-1	4.186917E-1	4.538063E-1	4.022657E-1	4.258300E-1	4.206994E-1	3.901130E-1	4.112758E-1	4.909600E-1	4.821038E-1	4.072723E-1	4.457311E-1	3.983130E-1	4.243716E-1	4.274581E-1	4.187629E-1	4.405013E-1	4.459327E-1	4.667888E-1	4.770581E-1	4.146120E-1	4.593359E-1	4.310142E-1	4.162311E-1	4.935405E-1	4.115415E-1	4.224351E-1	4.499844E-1	4.196315E-1	4.337012E-1	3.949929E-1	4.170153E-1	4.318096E-1	3.644817E-1	4.260463E-1	4.450261E-1	4.296456E-1	4.645802E-1	4.457257E-1	3.868770E-1	3.987623E-1	4.416838E-1	4.012621E-1	4.348872E-1	4.844461E-1	4.155806E-1	4.392837E-1	3.915456E-1	4.486160E-1	4.365537E-1	4.478724E-1	3.662480E-1	4.289501E-1	4.346350E-1	4.145238E-1	4.404033E-1	4.519298E-1	4.519478E-1	4.502898E-1	4.422093E-1	4.296773E-1	4.103200E-1	4.180888E-1	4.215007E-1	3.874885E-1	4.514821E-1	4.099689E-1	4.084255E-1	4.132027E-1	4.027250E-1	4.388340E-1	4.245556E-1	4.498104E-1	4.288093E-1	4.208013E-1	4.407673E-1	4.213233E-1	4.154245E-1	4.337345E-1	3.892511E-1	3.978788E-1	4.553674E-1	4.107605E-1	4.600866E-1	4.526950E-1	4.053218E-1	4.724075E-1	4.050571E-1	4.349683E-1	4.116952E-1	4.227800E-1	3.996519E-1	4.088439E-1	4.177209E-1	3.977535E-1	4.046534E-1	4.358850E-1	4.273346E-1	4.209022E-1	4.510220E-1	4.628758E-1	4.090530E-1	4.427857E-1	4.171900E-1	5.021126E-1	4.632037E-1	4.413605E-1	3.908728E-1	4.595229E-1	3.812787E-1	4.473596E-1	4.324828E-1	4.257735E-1	4.042525E-1	4.382410E-1	4.837510E-1	4.503220E-1	3.862349E-1	4.083255E-1	3.995430E-1	4.422212E-1	4.185430E-1	4.585971E-1	4.099982E-1	4.561240E-1	4.090945E-1	4.062718E-1	3.798867E-1	4.231736E-1	4.151961E-1	4.080480E-1	4.028055E-1	4.011323E-1	3.911620E-1	4.004261E-1	3.926168E-1	4.224669E-1	4.086520E-1	4.377859E-1	4.412267E-1	3.791936E-1	4.443751E-1	4.883142E-1	4.358747E-1	4.470791E-1	4.311576E-1	4.180994E-1	4.388556E-1	4.598538E-1	4.655980E-1	4.394310E-1	4.402366E-1	4.423800E-1	4.203892E-1	4.103538E-1	4.898279E-1	4.627372E-1
2.848000E+2	1.114272E+0	1.057733E+0	1.084742E+0	1.215476E+0	1.082704E+0	1.123121E+0	1.125310E+0	1.168618E+0	1.089598E+0	1.076606E+0	1.101555E+0	1.144939E+0	1.121473E+0	1.112081E+0	1.042717E+0	1.041490E+0	1.074597E+0	1.136813E+0	1.141414E+0	1.175960E+0	1.030898E+0	1.035931E+0	1.113635E+0	1.149903E+0	1.106936E+0	1.077347E+0	1.091736E+0	1.080333E+0	1.050784E+0	1.077969E+0	1.127062E+0	1.124865E+0	1.147056E+0	1.099511E+0	1.094249E+0	1.176851E+0	1.120922E+0	1.094048E+0	1.108336E+0	1.077172E+0	1.076308E+0	1.065623E+0	1.093693E+0	1.156851E+0	1.080987E+0	1.045157E+0	1.094465E+0	1.003917E+0	1.028057E+0	1.050908E+0	1.057294E+0	1.066638E+0	1.179602E+0	1.193255E+0	1.083883E+0	1.116180E+0	1.143185E+0	1.101160E+0	1.039854E+0	1.157022E+0	1.139589E+0	1.037424E+0	1.078101E+0	1.140411E+0	1.134983E+0	1.062097E+0	1.079265E+0	9.618378E-1	1.020751E+0	1.074215E+0	1.105658E+0	1.082486E+0	1.137200E+0	1.067227E+0	1.127928E+0	1.080891E+0	1.095723E+0	1.119130E+0	1.122093E+0	1.125279E+0	1.054020E+0	1.048933E+0	1.063054E+0	1.133056E+0	1.071708E+0	1.127828E+0	1.106036E+0	1.084947E+0	1.099715E+0	1.060570E+0	1.101917E+0	1.041508E+0	1.080863E+0	1.098614E+0	1.018569E+0	1.095408E+0	1.094789E+0	1.037232E+0	9.779640E-1	1.135181E+0	1.079357E+0	1.130394E+0	1.107457E+0	1.164847E+0	1.072798E+0	1.071753E+0	1.066478E+0	1.101954E+0	1.054175E+0	1.137494E+0	1.005598E+0	1.116557E+0	1.106027E+0	1.014968E+0	1.171313E+0	1.068364E+0	1.204277E+0	1.089306E+0	1.098513E+0	1.091625E+0	1.175344E+0	1.124997E+0	1.122464E+0	1.088622E+0	1.083196E+0	1.083450E+0	1.037531E+0	1.069497E+0	1.116557E+0	9.848456E-1	1.102713E+0	1.073536E+0	1.095038E+0	1.131542E+0	1.021310E+0	1.151447E+0	1.050137E+0	1.055509E+0	1.099769E+0	1.149028E+0	1.131457E+0	1.116355E+0	1.064748E+0	1.080226E+0	1.072709E+0	1.095045E+0	1.015034E+0	9.963391E-1	1.151079E+0	1.054677E+0	1.061356E+0	1.155137E+0	1.041623E+0	1.107008E+0	1.071902E+0	1.013576E+0	1.062994E+0	1.063202E+0	1.161270E+0	1.084051E+0	1.092019E+0	1.062844E+0	1.116360E+0	1.066170E+0	1.129341E+0	1.104941E+0	1.128221E+0	1.028437E+0	9.934191E-1	1.082506E+0	1.118838E+0	1.017440E+0
2.849020E+2	1.818978E+0	1.859774E+0	1.858560E+0	1.974136E+0	1.839259E+0	1.856108E+0	1.944708E+0	1.745684E+0	1.778553E+0	1.825561E+0	1.824997E+0	1.810284E+0	1.882986E+0	1.836111E+0	1.815099E+0	1.879759E+0	1.916026E+0	1.874288E+0	1.822893E+0	1.800855E+0	1.810578E+0	1.822588E+0	1.913400E+0	1.869357E+0	1.867764E+0	1.824716E+0	1.812167E+0	1.902141E+0	1.853068E+0	1.817800E+0	1.862314E+0	1.828623E+0	1.824657E+0	1.797516E+0	1.881974E+0	1.896467E+0	1.958512E+0	1.849708E+0	1.837082E+0	1.745531E+0	1.894580E+0	1.819860E+0	1.824978E+0	1.907718E+0	1.787194E+0	1.713461E+0	1.795283E+0	1.912849E+0	1.960691E+0	1.942071E+0	1.775274E+0	1.858960E+0	1.904762E+0	1.769721E+0	1.765612E+0	1.780933E+0	1.873387E+0	1.946354E+0	1.865521E+0	1.941858E+0	1.864230E+0	1.821090E+0	1.776268E+0	1.736650E+0	1.736512E+0	1.937758E+0	1.813726E+0	1.928750E+0	1.866246E+0	1.810877E+0	1.924008E+0	1.754065E+0	1.835864E+0	1.749843E+0	2.013300E+0	1.984988E+0	1.859011E+0	1.770293E+0	1.755715E+0	1.811669E+0	1.839263E+0	1.910783E+0	1.976011E+0	1.934613E+0	1.832872E+0	1.796552E+0	1.863010E+0	1.811011E+0	1.809311E+0	1.860753E+0	1.886899E+0	1.891610E+0	1.845493E+0	1.925503E+0	1.842240E+0	2.070352E+0	1.820358E+0	1.787010E+0	1.804708E+0	1.902332E+0	1.962005E+0	1.864005E+0	1.848654E+0	1.835012E+0	1.924108E+0	1.898757E+0	1.802851E+0	1.907889E+0	1.827254E+0	1.844978E+0	1.750391E+0	1.894301E+0	1.889641E+0	1.768457E+0	1.831604E+0	1.832925E+0	1.908985E+0	1.759831E+0	1.915660E+0	1.860709E+0	1.795965E+0	1.823951E+0	1.918419E+0	1.999411E+0	1.744677E+0	1.863828E+0	1.745558E+0	1.808456E+0	1.772323E+0	1.702680E+0	1.869239E+0	1.831567E+0	1.758299E+0	1.841836E+0	1.853415E+0	1.762595E+0	1.878764E+0	1.893999E+0	1.901208E+0	1.904860E+0	1.850941E+0	1.806515E+0	1.804557E+0	1.872901E+0	1.872610E+0	1.864447E+0	1.836469E+0	1.815946E+0	1.915142E+0	1.775450E+0	1.861645E+0	1.731204E+0	1.673903E+0	1.804630E+0	1.854596E+0	1.906984E+0	1.889441E+0	1.855148E+0	1.863599E+0	1.781210E+0	1.956908E+0	1.791619E+0	1.805906E+0	1.799006E+0	1.860703E+0	1.914158E+0	1.945694E+0	1.833568E+0	1.878284E+0	1.983752E+0	1.769117E+0	1.838934E+0
2.850030E+2	1.908023E+0	1.836266E+0	2.009689E+0	1.997506E+0	1.868477E+0	1.871315E+0	1.994981E+0	1.862789E+0	2.001521E+0	1.842082E+0	1.862784E+0	1.798321E+0	1.869090E+0	1.862326E+0	1.871101E+0	1.833840E+0	1.852936E+0	1.879820E+0	1.908208E+0	1.944504E+0	1.775572E+0	1.816927E+0	1.861942E+0	1.910367E+0	1.836272E+0	1.826929E+0	1.878074E+0	1.802133E+0	1.892678E+0	1.879686E+0	1.930678E+0	1.848196E+0	1.870058E+0	1.891130E+0	1.904145E+0	1.853476E+0	1.953389E+0	1.858567E+0	1.904938E+0	1.812165E+0	1.791562E+0	1.884270E+0	1.840422E+0	1.859797E+0	1.863922E+0	1.884036E+0	1.867059E+0	1.871394E+0	1.890130E+0	1.840989E+0	1.855216E+0	1.932330E+0	1.932307E+0	1.897419E+0	1.800866E+0	1.847198E+0	1.967670E+0	1.913237E+0	1.904850E+0	1.816046E+0	1.938924E+0	1.798672E+0	1.845054E+0	1.883771E+0	1.840228E+0	1.845515E+0	1.882052E+0	1.815154E+0	1.843465E+0	1.774794E+0	1.847769E+0	1.769420E+0	1.827288E+0	2.070936E+0	1.944230E+0	1.774280E+0	1.820405E+0	1.832814E+0	1.876426E+0	1.820693E+0	1.811224E+0	1.998196E+0	1.854982E+0	1.953888E+0	1.845031E+0	1.914598E+0	1.955509E+0	1.883264E+0	1.889722E+0	1.857446E+0	1.918650E+0	1.862779E+0	1.824694E+0	1.800883E+0	1.877120E+0	1.860501E+0	2.001330E+0	1.788558E+0	1.856795E+0	1.839136E+0	1.913248E+0	1.890705E+0	1.786066E+0	1.888378E+0	1.993102E+0	1.941372E+0	1.756539E+0	1.781370E+0	1.931093E+0	1.887540E+0	1.815597E+0	1.905051E+0	1.802744E+0	1.858327E+0	1.800678E+0	1.822052E+0	1.884477E+0	1.896758E+0	1.959332E+0	1.863094E+0	1.933273E+0	1.950262E+0	1.916847E+0	1.949341E+0	1.851673E+0	1.907892E+0	1.755467E+0	1.853075E+0	1.872789E+0	1.768779E+0	2.054864E+0	1.919544E+0	1.866103E+0	1.822670E+0	1.903229E+0	1.819290E+0	1.730869E+0	1.821203E+0	1.903316E+0	1.882912E+0	1.910060E+0	1.821838E+0	1.895641E+0	1.887591E+0	1.906053E+0	1.921825E+0	1.812689E+0	1.863123E+0	1.816692E+0	1.882174E+0	1.944377E+0	1.812347E+0	1.961927E+0	1.937057E+0	1.893030E+0	1.875021E+0	1.911760E+0	1.788016E+0	1.946999E+0	1.905164E+0	1.922327E+0	1.842229E+0	1.881125E+0	1.854318E+0	1.873113E+0	1.979677E+0	1.933784E+0	1.925488E+0	1.823942E+0	1.836393E+0	1.702280E+0	1.769740E+0
2.851000E+2	1.487937E+0	1.505416E+0	1.559563E+0	1.591371E+0	1.528932E+0	1.524422E+0	1.628548E+0	1.525066E+0	1.637920E+0	1.649857E+0	1.476106E+0	1.507203E+0	1.500037E+0	1.492744E+0	1.405206E+0	1.550790E+0	1.525933E+0	1.554510E+0	1.487477E+0	1.554297E+0	1.555764E+0	1.502122E+0	1.537410E+0	1.599203E+0	1.564649E+0	1.525522E+0	1.538952E+0	1.490970E+0	1.540975E+0	1.466242E+0	1.500273E+0	1.513749E+0	1.540697E+0	1.501438E+0	1.517760E+0	1.585681E+0	1.686270E+0	1.525234E+0	1.627574E+0	1.575288E+0	1.549273E+0	1.575090E+0	1.523434E+0	1.614106E+0	1.498341E+0	1.515005E+0	1.566906E+0	1.524345E+0	1.507394E+0	1.585783E+0	1.627729E+0	1.526029E+0	1.534708E+0	1.533487E+0	1.530316E+0	1.429900E+0	1.656023E+0	1.525736E+0	1.485284E+0	1.655690E+0	1.468029E+0	1.601465E+0	1.650221E+0	1.523963E+0	1.588360E+0	1.533548E+0	1.547654E+0	1.489708E+0	1.554823E+0	1.534288E+0	1.584001E+0	1.464425E+0	1.552797E+0	1.539861E+0	1.588566E+0	1.541550E+0	1.470228E+0	1.507032E+0	1.486867E+0	1.526276E+0	1.602332E+0	1.558944E+0	1.464665E+0	1.581051E+0	1.539641E+0	1.508351E+0	1.568509E+0	1.446899E+0	1.577905E+0	1.498037E+0	1.650502E+0	1.479173E+0	1.544379E+0	1.542013E+0	1.588240E+0	1.512329E+0	1.478603E+0	1.553321E+0	1.450973E+0	1.536197E+0	1.513444E+0	1.567857E+0	1.539321E+0	1.518634E+0	1.587907E+0	1.554250E+0	1.574576E+0	1.495138E+0	1.573078E+0	1.565294E+0	1.575438E+0	1.580342E+0	1.500075E+0	1.498552E+0	1.502521E+0	1.568144E+0	1.566768E+0	1.670668E+0	1.479485E+0	1.520421E+0	1.542193E+0	1.543960E+0	1.556681E+0	1.692189E+0	1.490757E+0	1.512101E+0	1.512805E+0	1.534603E+0	1.538442E+0	1.478717E+0	1.713433E+0	1.537693E+0	1.584501E+0	1.511486E+0	1.509845E+0	1.568309E+0	1.489105E+0	1.525142E+0	1.528041E+0	1.635021E+0	1.482392E+0	1.586136E+0	1.569274E+0	1.487409E+0	1.548587E+0	1.477255E+0	1.483988E+0	1.436977E+0	1.566759E+0	1.557239E+0	1.581407E+0	1.504606E+0	1.464050E+0	1.623645E+0	1.546713E+0	1.585673E+0	1.554886E+0	1.452618E+0	1.492632E+0	1.487486E+0	1.677195E+0	1.488584E+0	1.496041E+0	1.658023E+0	1.593996E+0	1.608161E+0	1.594530E+0	1.558107E+0	1.435161E+0	1.640303E+0	1.552713E+0	1.439482E+0
2.852010E+2	1.280291E+0	1.263446E+0	1.409394E+0	1.416560E+0	1.385373E+0	1.327878E+0	1.372211E+0	1.400925E+0	1.393519E+0	1.409668E+0	1.300169E+0	1.281519E+0	1.364212E+0	1.319286E+0	1.341312E+0	1.317982E+0	1.287899E+0	1.395939E+0	1.306911E+0	1.403855E+0	1.349492E+0	1.285425E+0	1.308269E+0	1.300481E+0	1.335113E+0	1.308631E+0	1.246193E+0	1.394506E+0	1.342092E+0	1.259548E+0	1.285220E+0	1.371276E+0	1.305726E+0	1.349010E+0	1.367518E+0	1.322313E+0	1.382251E+0	1.412924E+0	1.429934E+0	1.306483E+0	1.291898E+0	1.384424E+0	1.271065E+0	1.337338E+0	1.301923E+0	1.274268E+0	1.412823E+0	1.328494E+0	1.462796E+0	1.415259E+0	1.357194E+0	1.382977E+0	1.301679E+0	1.313265E+0	1.334915E+0	1.261428E+0	1.436072E+0	1.341471E+0	1.403101E+0	1.486762E+0	1.308360E+0	1.364658E+0	1.313999E+0	1.428780E+0	1.314189E+0	1.293078E+0	1.256537E+0	1.357752E+0	1.255165E+0	1.360581E+0	1.379695E+0	1.278892E+0	1.358521E+0	1.354128E+0	1.361314E+0	1.290789E+0	1.267233E+0	1.341495E+0	1.302161E+0	1.290890E+0	1.306047E+0	1.311765E+0	1.302702E+0	1.388074E+0	1.393738E+0	1.348757E+0	1.349562E+0	1.317374E+0	1.337856E+0	1.373099E+0	1.291068E+0	1.341211E+0	1.326792E+0	1.354968E+0	1.294206E+0	1.401782E+0	1.315308E+0	1.389325E+0	1.352181E+0	1.335818E+0	1.324860E+0	1.294196E+0	1.403531E+0	1.341155E+0	1.446178E+0	1.287211E+0	1.305797E+0	1.349494E+0	1.359025E+0	1.367981E+0	1.279639E+0	1.315953E+0	1.330915E+0	1.283904E+0	1.361132E+0	1.299752E+0	1.407334E+0	1.396311E+0	1.266705E+0	1.329212E+0	1.312144E+0	1.488994E+0	1.390512E+0	1.320166E+0	1.231018E+0	1.329365E+0	1.325448E+0	1.290509E+0	1.260432E+0	1.304197E+0	1.310603E+0	1.231912E+0	1.324949E+0	1.346296E+0	1.381843E+0	1.387761E+0	1.335694E+0	1.317892E+0	1.327047E+0	1.303771E+0	1.318526E+0	1.312727E+0	1.308010E+0	1.378137E+0	1.357462E+0	1.362597E+0	1.297898E+0	1.289833E+0	1.307790E+0	1.307772E+0	1.346623E+0	1.321204E+0	1.358248E+0	1.303842E+0	1.285395E+0	1.296377E+0	1.378902E+0	1.362957E+0	1.336772E+0	1.362607E+0	1.338346E+0	1.417874E+0	1.299908E+0	1.299064E+0	1.398421E+0	1.384581E+0	1.318042E+0	1.334848E+0	1.304881E+0	1.481213E+0	1.425933E+0	1.214147E+0
2.853000E+2	1.024986E+0	1.006135E+0	1.121948E+0	1.123854E+0	9.874683E-1	1.039155E+0	1.078529E+0	1.041256E+0	1.055821E+0	1.111391E+0	1.078608E+0	1.101831E+0	1.012814E+0	1.041454E+0	1.060784E+0	1.065411E+0	9.758417E-1	1.098331E+0	1.036003E+0	1.006376E+0	1.059709E+0	1.046934E+0	1.117537E+0	1.135177E+0	1.076188E+0	1.074115E+0	1.059317E+0	1.137547E+0	1.036884E+0	1.060130E+0	1.017535E+0	1.076639E+0	1.009862E+0	1.009063E+0	1.174555E+0	1.089930E+0	1.026721E+0	1.099001E+0	1.111389E+0	1.102522E+0	1.115010E+0	1.088850E+0	1.093206E+0	1.177560E+0	1.030972E+0	1.058077E+0	1.004277E+0	1.104012E+0	1.113734E+0	1.052979E+0	1.085447E+0	1.075455E+0	1.032257E+0	1.060199E+0	1.032153E+0	1.063908E+0	1.094098E+0	1.030222E+0	9.834736E-1	1.214949E+0	1.017304E+0	1.110712E+0	1.065747E+0	1.062534E+0	1.056311E+0	1.073893E+0	9.812306E-1	1.061954E+0	9.571272E-1	1.026246E+0	9.828208E-1	1.065407E+0	1.101355E+0	1.072389E+0	1.063218E+0	1.076504E+0	1.017866E+0	1.098745E+0	1.039672E+0	1.049043E+0	1.032508E+0	1.032104E+0	1.031029E+0	1.129852E+0	1.082350E+0	1.092334E+0	1.084866E+0	1.050318E+0	1.065262E+0	1.068730E+0	1.067997E+0	1.075071E+0	1.007874E+0	1.047073E+0	1.061438E+0	1.120523E+0	1.106230E+0	1.057870E+0	1.008550E+0	1.013400E+0	9.988557E-1	1.005097E+0	1.056726E+0	1.124591E+0	1.049803E+0	1.064468E+0	1.006613E+0	1.068549E+0	1.183377E+0	1.057173E+0	1.015694E+0	1.026249E+0	1.159002E+0	1.054097E+0	1.139236E+0	1.039778E+0	1.108901E+0	1.062624E+0	1.118735E+0	1.096645E+0	1.107333E+0	1.097486E+0	1.021132E+0	1.135525E+0	1.080975E+0	1.030714E+0	1.046558E+0	1.093142E+0	1.019960E+0	1.021845E+0	1.159982E+0	1.077010E+0	1.094587E+0	1.053153E+0	1.085409E+0	1.098230E+0	9.277947E-1	1.082529E+0	1.157859E+0	1.064657E+0	1.097854E+0	9.882018E-1	1.077411E+0	1.057825E+0	1.013583E+0	1.045228E+0	1.060179E+0	1.027359E+0	1.145393E+0	1.072050E+0	1.056919E+0	1.065165E+0	1.064550E+0	1.072984E+0	1.055205E+0	1.080702E+0	1.086916E+0	1.084957E+0	1.075763E+0	1.067036E+0	1.116342E+0	1.022942E+0	1.096833E+0	1.036122E+0	1.103288E+0	1.030715E+0	1.019972E+0	1.084672E+0	1.088625E+0	1.116899E+0	9.507524E-1	1.042407E+0
2.854010E+2	7.442290E-1	8.083054E-1	7.906935E-1	7.956678E-1	7.365691E-1	7.669562E-1	8.506737E-1	8.017002E-1	7.325475E-1	8.349576E-1	7.325495E-1	8.104204E-1	8.184651E-1	7.586481E-1	8.313682E-1	7.801566E-1	7.621466E-1	8.074515E-1	7.729571E-1	7.729724E-1	8.032776E-1	7.402456E-1	8.004313E-1	7.609881E-1	7.247001E-1	7.750619E-1	8.067897E-1	7.623132E-1	8.213674E-1	7.275837E-1	7.884639E-1	7.408506E-1	8.614587E-1	8.340432E-1	8.372327E-1	7.532227E-1	8.082258E-1	7.692135E-1	8.190613E-1	7.553296E-1	7.525526E-1	8.141766E-1	7.946767E-1	7.924143E-1	7.489733E-1	7.604061E-1	8.398656E-1	7.806088E-1	7.648339E-1	7.919095E-1	7.894118E-1	7.618770E-1	8.189853E-1	8.624476E-1	8.033808E-1	7.477086E-1	7.302650E-1	8.639031E-1	8.224350E-1	8.077583E-1	7.492814E-1	8.288268E-1	7.788738E-1	7.797287E-1	8.465029E-1	8.193707E-1	6.973197E-1	7.482138E-1	7.938662E-1	7.503989E-1	7.712301E-1	7.648362E-1	7.343753E-1	8.114243E-1	7.245482E-1	6.679810E-1	7.285680E-1	7.255634E-1	7.512476E-1	7.732717E-1	7.799304E-1	7.904040E-1	8.064970E-1	8.205953E-1	8.009461E-1	7.848897E-1	7.934759E-1	8.357718E-1	8.178687E-1	8.065814E-1	7.913423E-1	7.893729E-1	7.814819E-1	8.074259E-1	7.947684E-1	8.336494E-1	7.668342E-1	7.515636E-1	7.711016E-1	7.569875E-1	7.599577E-1	7.892673E-1	7.637253E-1	8.398501E-1	8.240311E-1	8.517552E-1	7.106555E-1	7.415999E-1	8.064407E-1	8.574862E-1	7.529256E-1	7.999508E-1	8.474373E-1	8.345832E-1	8.112079E-1	7.944854E-1	8.465082E-1	7.691332E-1	7.930921E-1	8.387322E-1	7.253127E-1	8.215894E-1	7.892805E-1	8.408337E-1	7.711677E-1	7.499218E-1	8.099684E-1	7.970253E-1	8.296374E-1	7.448014E-1	7.988057E-1	7.975446E-1	8.303689E-1	7.847542E-1	7.745166E-1	7.798644E-1	8.096207E-1	8.234923E-1	8.130144E-1	7.193297E-1	7.233775E-1	7.296700E-1	8.105570E-1	7.824221E-1	8.339165E-1	8.078756E-1	7.722760E-1	7.634895E-1	7.919892E-1	7.941238E-1	7.798439E-1	7.455079E-1	8.315468E-1	7.896217E-1	7.147140E-1	7.580965E-1	7.617688E-1	7.828390E-1	8.110722E-1	8.794163E-1	7.894991E-1	8.815529E-1	7.917859E-1	7.940618E-1	8.176234E-1	8.476765E-1	7.823021E-1	7.706801E-1	8.030659E-1	7.130595E-1	7.954136E-1	7.831873E-1
2.855000E+2	5.493557E-1	5.926569E-1	5.570642E-1	5.407410E-1	5.542007E-1	6.016120E-1	5.709463E-1	5.532246E-1	5.613837E-1	5.323609E-1	5.382441E-1	5.111326E-1	5.500732E-1	5.246032E-1	5.156391E-1	5.514539E-1	5.344732E-1	5.995416E-1	5.115781E-1	5.844445E-1	5.561984E-1	5.120431E-1	5.665787E-1	5.650452E-1	5.374133E-1	5.356720E-1	6.123889E-1	5.520355E-1	5.225514E-1	5.445027E-1	5.463662E-1	5.469921E-1	5.322558E-1	5.512344E-1	5.597098E-1	5.508859E-1	5.872815E-1	5.859000E-1	5.493712E-1	5.721515E-1	5.538040E-1	6.032359E-1	5.617748E-1	5.517517E-1	5.190155E-1	5.638171E-1	5.771593E-1	5.198404E-1	5.506717E-1	5.468990E-1	5.368491E-1	5.420155E-1	5.814000E-1	5.288966E-1	5.327314E-1	5.939273E-1	5.423070E-1	5.202496E-1	5.827736E-1	5.334532E-1	5.579612E-1	5.290088E-1	5.785930E-1	5.360468E-1	5.505901E-1	5.669470E-1	5.712808E-1	5.359744E-1	5.574181E-1	5.914541E-1	5.325146E-1	5.640137E-1	5.479165E-1	5.729434E-1	5.760386E-1	5.665610E-1	5.339498E-1	5.281316E-1	5.645941E-1	6.165638E-1	5.918216E-1	5.576399E-1	5.329279E-1	5.600914E-1	4.878666E-1	5.223417E-1	5.416148E-1	6.040203E-1	5.398985E-1	5.442591E-1	5.951820E-1	5.706051E-1	5.700870E-1	5.665650E-1	5.907851E-1	5.361211E-1	6.116003E-1	5.753612E-1	5.183012E-1	5.937844E-1	5.450610E-1	5.358660E-1	5.474296E-1	5.337798E-1	6.056723E-1	5.978717E-1	5.129374E-1	4.720001E-1	5.197346E-1	5.645077E-1	5.895269E-1	5.611148E-1	6.056886E-1	5.129039E-1	6.077278E-1	6.346078E-1	5.522469E-1	5.397376E-1	5.881755E-1	5.425055E-1	5.714402E-1	5.845506E-1	5.633491E-1	5.796296E-1	5.665311E-1	5.380009E-1	5.691816E-1	5.579749E-1	5.261213E-1	5.782835E-1	5.661002E-1	5.202435E-1	5.686117E-1	5.573116E-1	5.875672E-1	4.979238E-1	5.473579E-1	5.430967E-1	5.743278E-1	5.637373E-1	5.621844E-1	5.645107E-1	5.741358E-1	5.472930E-1	5.776172E-1	5.788019E-1	5.330087E-1	5.702934E-1	5.464002E-1	5.951297E-1	5.601431E-1	4.998448E-1	5.736097E-1	5.633469E-1	5.214180E-1	5.832262E-1	6.450227E-1	5.657972E-1	5.595927E-1	5.203419E-1	5.388220E-1	6.028281E-1	5.616374E-1	5.384832E-1	6.096604E-1	5.314444E-1	6.093323E-1	5.390100E-1	5.987601E-1	5.079787E-1	5.228072E-1	5.222778E-1
2.856010E+2	3.607043E-1	4.198907E-1	3.830463E-1	4.127402E-1	3.741335E-1	4.554128E-1	3.693916E-1	4.215285E-1	3.871313E-1	4.121487E-1	3.891996E-1	4.693583E-1	4.101130E-1	3.863927E-1	4.280283E-1	3.779191E-1	3.709897E-1	3.767908E-1	4.010934E-1	4.113351E-1	4.223985E-1	3.886910E-1	3.731855E-1	4.356372E-1	4.037888E-1	3.954926E-1	4.255033E-1	3.869650E-1	4.268601E-1	3.915653E-1	3.778281E-1	4.031849E-1	4.250804E-1	4.196713E-1	4.136098E-1	4.260959E-1	4.108382E-1	4.190361E-1	3.895992E-1	4.436859E-1	4.646770E-1	4.205082E-1	4.352120E-1	4.223770E-1	4.120980E-1	3.824270E-1	4.031278E-1	3.819884E-1	4.033460E-1	4.069058E-1	4.224088E-1	4.536400E-1	4.268721E-1	3.998114E-1	3.719206E-1	4.151845E-1	4.299503E-1	4.213081E-1	3.966456E-1	4.760338E-1	4.173231E-1	4.032107E-1	4.420462E-1	3.885841E-1	4.574170E-1	4.199676E-1	3.865568E-1	4.231432E-1	4.077823E-1	4.406534E-1	4.047840E-1	4.345645E-1	3.979972E-1	4.219359E-1	4.115249E-1	4.197330E-1	3.995414E-1	3.976056E-1	3.612924E-1	4.011493E-1	3.951489E-1	4.621717E-1	4.462456E-1	4.203912E-1	4.255302E-1	4.285208E-1	3.693302E-1	4.324106E-1	4.361146E-1	4.269697E-1	4.436061E-1	4.422886E-1	3.916206E-1	3.817695E-1	3.935981E-1	4.578441E-1	4.317878E-1	5.030129E-1	4.763407E-1	4.211817E-1	3.948703E-1	4.201863E-1	4.137852E-1	4.214605E-1	4.212284E-1	3.774430E-1	4.107222E-1	3.908238E-1	4.137128E-1	4.768588E-1	4.211368E-1	3.918100E-1	4.064141E-1	4.037009E-1	3.898759E-1	4.693571E-1	3.934329E-1	3.717939E-1	3.491715E-1	3.775006E-1	3.859285E-1	4.126662E-1	4.403761E-1	4.212676E-1	3.384387E-1	3.880679E-1	3.741332E-1	4.016515E-1	4.146710E-1	4.040225E-1	3.923107E-1	4.384397E-1	4.122915E-1	4.123515E-1	4.365978E-1	4.303253E-1	4.437230E-1	4.047626E-1	4.456407E-1	3.670544E-1	3.933039E-1	4.090007E-1	4.322114E-1	3.608371E-1	3.760082E-1	4.170281E-1	4.605005E-1	4.037549E-1	3.986191E-1	4.131111E-1	4.156265E-1	4.051546E-1	3.718309E-1	3.851920E-1	4.102092E-1	4.053950E-1	4.107356E-1	4.243242E-1	3.644912E-1	3.958497E-1	3.665042E-1	3.641353E-1	4.078069E-1	4.325724E-1	4.553611E-1	4.572991E-1	4.077836E-1	4.645608E-1	4.362976E-1	4.742312E-1	4.004372E-1	4.002147E-1
2.858040E+2	4.064091E-1	3.609080E-1	4.136118E-1	4.326559E-1	4.097326E-1	4.293365E-1	4.445973E-1	3.926416E-1	4.196318E-1	4.315774E-1	4.324249E-1	3.781104E-1	4.502633E-1	4.128507E-1	3.337710E-1	3.850212E-1	4.367804E-1	3.560605E-1	3.690919E-1	4.011881E-1	3.544299E-1	3.960590E-1	3.635379E-1	3.996197E-1	3.915455E-1	3.692453E-1	4.134949E-1	3.853324E-1	3.954874E-1	4.082932E-1	3.875053E-1	3.841590E-1	3.990492E-1	3.976862E-1	4.460046E-1	4.026275E-1	4.029606E-1	3.799949E-1	4.015085E-1	3.807998E-1	3.784966E-1	4.231496E-1	3.999843E-1	3.898317E-1	4.114079E-1	4.018755E-1	4.054344E-1	3.938575E-1	4.032729E-1	4.188392E-1	3.854307E-1	4.154421E-1	3.497947E-1	3.964174E-1	3.760213E-1	4.020960E-1	3.720393E-1	4.058468E-1	3.914765E-1	3.792189E-1	4.508549E-1	4.026490E-1	4.223464E-1	3.633222E-1	3.884031E-1	4.256377E-1	3.964159E-1	4.026005E-1	3.757398E-1	3.444403E-1	4.185571E-1	3.972483E-1	3.453378E-1	3.624190E-1	4.012470E-1	3.857807E-1	4.052887E-1	4.052523E-1	3.386310E-1	3.762239E-1	4.084222E-1	3.875244E-1	3.891557E-1	4.079742E-1	3.610180E-1	4.491738E-1	4.087096E-1	4.325022E-1	3.749229E-1	4.605933E-1	4.081185E-1	3.791144E-1	3.537330E-1	3.709579E-1	3.891847E-1	4.022221E-1	3.773055E-1	3.933342E-1	4.180514E-1	3.309912E-1	3.929203E-1	4.069827E-1	4.336480E-1	3.754074E-1	4.089386E-1	4.169114E-1	3.830698E-1	4.013014E-1	4.087841E-1	4.182372E-1	4.037697E-1	3.929780E-1	4.268308E-1	3.759733E-1	4.206027E-1	4.080856E-1	4.073397E-1	3.905270E-1	4.042657E-1	4.100875E-1	3.660007E-1	4.079781E-1	3.963107E-1	3.957627E-1	3.881321E-1	3.967448E-1	3.230058E-1	3.976505E-1	3.732524E-1	4.434716E-1	4.262583E-1	3.735495E-1	4.080177E-1	3.970824E-1	3.918034E-1	4.431557E-1	3.947404E-1	4.268876E-1	3.790313E-1	3.905971E-1	4.037806E-1	4.289713E-1	4.163589E-1	3.896872E-1	4.311468E-1	3.601941E-1	3.723315E-1	4.037394E-1	4.184891E-1	3.297089E-1	3.422628E-1	3.547879E-1	4.128994E-1	3.738612E-1	3.905612E-1	4.380964E-1	4.250390E-1	4.225878E-1	4.120897E-1	4.303465E-1	3.978200E-1	3.734543E-1	3.750051E-1	3.226697E-1	3.886191E-1	4.123705E-1	4.246832E-1	3.785514E-1	3.961349E-1	4.114988E-1	4.529457E-1	3.751286E-1
2.860080E+2	6.277522E-1	6.567459E-1	6.827023E-1	6.206399E-1	6.090057E-1	6.702496E-1	6.450768E-1	6.296375E-1	6.141023E-1	6.965910E-1	6.466661E-1	6.292091E-1	6.291094E-1	6.152629E-1	6.291625E-1	6.500366E-1	6.337018E-1	7.089928E-1	6.469752E-1	6.862324E-1	6.536180E-1	6.058700E-1	6.490492E-1	6.297058E-1	6.073308E-1	6.753238E-1	6.631999E-1	6.380899E-1	5.927722E-1	6.513160E-1	6.134886E-1	6.519582E-1	6.426426E-1	6.109034E-1	6.893603E-1	6.027404E-1	6.513510E-1	6.220291E-1	6.340141E-1	6.711940E-1	6.899893E-1	6.562064E-1	6.432419E-1	7.404462E-1	6.695559E-1	5.999496E-1	5.812426E-1	6.294974E-1	6.431460E-1	5.977385E-1	6.061065E-1	6.138723E-1	6.576625E-1	6.428070E-1	6.325613E-1	5.765278E-1	6.444811E-1	6.565317E-1	5.935895E-1	6.486516E-1	6.703913E-1	6.504485E-1	6.115128E-1	6.242353E-1	6.466539E-1	6.098255E-1	6.002719E-1	6.827224E-1	6.180084E-1	7.385545E-1	6.331481E-1	6.454688E-1	6.932072E-1	6.228574E-1	6.359172E-1	6.419735E-1	6.538822E-1	6.503513E-1	6.519114E-1	6.940922E-1	6.608798E-1	5.850913E-1	6.691552E-1	6.587596E-1	6.535666E-1	6.636017E-1	6.989517E-1	7.019616E-1	6.706260E-1	6.559235E-1	6.750984E-1	6.609300E-1	6.604596E-1	6.434997E-1	6.479806E-1	6.534781E-1	6.439116E-1	5.973807E-1	6.374208E-1	6.322526E-1	6.619350E-1	6.878101E-1	6.744332E-1	6.376630E-1	6.875457E-1	6.389846E-1	6.002467E-1	6.445897E-1	6.073902E-1	5.995868E-1	5.943825E-1	5.863216E-1	6.660494E-1	6.584153E-1	6.921618E-1	7.088206E-1	7.228942E-1	6.943031E-1	7.165507E-1	6.548023E-1	6.643515E-1	5.940514E-1	6.593541E-1	6.704120E-1	6.401452E-1	6.554561E-1	6.588749E-1	7.314312E-1	7.012603E-1	6.904720E-1	6.450345E-1	5.942571E-1	6.167150E-1	6.116863E-1	5.910322E-1	7.060831E-1	6.146581E-1	6.685895E-1	6.701800E-1	6.661758E-1	6.644059E-1	5.869870E-1	6.249852E-1	6.417651E-1	6.267903E-1	6.699979E-1	6.202238E-1	6.767433E-1	5.970071E-1	6.308714E-1	6.219300E-1	5.799570E-1	6.600737E-1	6.489628E-1	6.784774E-1	6.825309E-1	6.558660E-1	6.589600E-1	6.809850E-1	6.886948E-1	6.891235E-1	6.831941E-1	6.337967E-1	6.117683E-1	7.038336E-1	6.414094E-1	6.397995E-1	6.111343E-1	6.456770E-1	7.690977E-1	5.493616E-1	6.622637E-1
2.862000E+2	9.997928E-1	1.028999E+0	1.038975E+0	9.967936E-1	9.699408E-1	1.138994E+0	1.076838E+0	1.070657E+0	1.041388E+0	1.145674E+0	1.002818E+0	9.801233E-1	1.124880E+0	9.889372E-1	1.029409E+0	1.065300E+0	1.007891E+0	1.056264E+0	1.068590E+0	1.026492E+0	9.846621E-1	1.010876E+0	9.562969E-1	1.072824E+0	1.016160E+0	1.123482E+0	9.983672E-1	1.154681E+0	1.119712E+0	9.552358E-1	1.104798E+0	1.017726E+0	9.794976E-1	1.009051E+0	1.052140E+0	1.120763E+0	1.047646E+0	1.054138E+0	9.793349E-1	1.035653E+0	1.000958E+0	1.102685E+0	1.073997E+0	1.083851E+0	1.070986E+0	1.029836E+0	9.957626E-1	1.006779E+0	1.043390E+0	1.044818E+0	9.628393E-1	9.837694E-1	1.007626E+0	1.113608E+0	1.058657E+0	1.018823E+0	1.046216E+0	9.719405E-1	9.945854E-1	1.135769E+0	1.018936E+0	1.005805E+0	1.022619E+0	1.004327E+0	1.022549E+0	1.060097E+0	1.057227E+0	1.032182E+0	1.053495E+0	1.085358E+0	1.077292E+0	1.039394E+0	1.049008E+0	9.762807E-1	1.031307E+0	1.051273E+0	9.930902E-1	1.010285E+0	1.071578E+0	1.009931E+0	1.026708E+0	9.927626E-1	9.865285E-1	1.074245E+0	1.099583E+0	1.022575E+0	1.009042E+0	1.019677E+0	1.039783E+0	9.918285E-1	1.081485E+0	1.093871E+0	1.032684E+0	9.986757E-1	9.980558E-1	1.089123E+0	1.110146E+0	1.020871E+0	1.078100E+0	1.067114E+0	9.981026E-1	1.024885E+0	9.787019E-1	9.937023E-1	1.110173E+0	1.042208E+0	1.082701E+0	9.811643E-1	9.427411E-1	1.056074E+0	1.010553E+0	1.036177E+0	1.022236E+0	9.733931E-1	9.423030E-1	1.030191E+0	1.031608E+0	1.035923E+0	1.059355E+0	1.078997E+0	1.001062E+0	1.093883E+0	1.052096E+0	1.092464E+0	1.007142E+0	1.108384E+0	1.014858E+0	1.111314E+0	1.021506E+0	1.009050E+0	1.036836E+0	1.038651E+0	9.755875E-1	1.023925E+0	1.019437E+0	1.045369E+0	9.906989E-1	9.975970E-1	1.000049E+0	1.047682E+0	9.563448E-1	1.029775E+0	1.046153E+0	9.942481E-1	1.028170E+0	9.878528E-1	1.065485E+0	9.635546E-1	9.817961E-1	1.005846E+0	1.065015E+0	1.031414E+0	1.057145E+0	9.449261E-1	1.123633E+0	9.980274E-1	9.946892E-1	1.083090E+0	1.092145E+0	1.000805E+0	1.082285E+0	1.081890E+0	1.028495E+0	1.035152E+0	1.054673E+0	1.086211E+0	1.042203E+0	1.039137E+0	1.033438E+0	1.069642E+0	1.019373E+0	9.199019E-1
2.864000E+2	1.275649E+0	1.312302E+0	1.357552E+0	1.330658E+0	1.252359E+0	1.292523E+0	1.420925E+0	1.268229E+0	1.320261E+0	1.340640E+0	1.214274E+0	1.308259E+0	1.303308E+0	1.351428E+0	1.313545E+0	1.364111E+0	1.251158E+0	1.319684E+0	1.306120E+0	1.406257E+0	1.242998E+0	1.248103E+0	1.316080E+0	1.374297E+0	1.313026E+0	1.354571E+0	1.335210E+0	1.257850E+0	1.267961E+0	1.317947E+0	1.297661E+0	1.334750E+0	1.288846E+0	1.345820E+0	1.308371E+0	1.245291E+0	1.334511E+0	1.377147E+0	1.283835E+0	1.307212E+0	1.258502E+0	1.334083E+0	1.359739E+0	1.369818E+0	1.258634E+0	1.228042E+0	1.351070E+0	1.340146E+0	1.329609E+0	1.299300E+0	1.296005E+0	1.233132E+0	1.276226E+0	1.315519E+0	1.281217E+0	1.310710E+0	1.364376E+0	1.249198E+0	1.323081E+0	1.351652E+0	1.269497E+0	1.281026E+0	1.274276E+0	1.275468E+0	1.251299E+0	1.371446E+0	1.227876E+0	1.337708E+0	1.349319E+0	1.245881E+0	1.275870E+0	1.259486E+0	1.318192E+0	1.295834E+0	1.228162E+0	1.347159E+0	1.242183E+0	1.294533E+0	1.318567E+0	1.343886E+0	1.332969E+0	1.332262E+0	1.393226E+0	1.375347E+0	1.247651E+0	1.323733E+0	1.399893E+0	1.451425E+0	1.332494E+0	1.327941E+0	1.283610E+0	1.283388E+0	1.257435E+0	1.253863E+0	1.323854E+0	1.246318E+0	1.343101E+0	1.202510E+0	1.316483E+0	1.365785E+0	1.308188E+0	1.353105E+0	1.328554E+0	1.274206E+0	1.417839E+0	1.343194E+0	1.272446E+0	1.290780E+0	1.319632E+0	1.354484E+0	1.287339E+0	1.256527E+0	1.341965E+0	1.236795E+0	1.355365E+0	1.339798E+0	1.400145E+0	1.305879E+0	1.343188E+0	1.332423E+0	1.273611E+0	1.392954E+0	1.285351E+0	1.344574E+0	1.324025E+0	1.330123E+0	1.244203E+0	1.336972E+0	1.277364E+0	1.278381E+0	1.311951E+0	1.331551E+0	1.297093E+0	1.279130E+0	1.300626E+0	1.232442E+0	1.285031E+0	1.339110E+0	1.338917E+0	1.306311E+0	1.314191E+0	1.319120E+0	1.280182E+0	1.354841E+0	1.353199E+0	1.268861E+0	1.319542E+0	1.225508E+0	1.267043E+0	1.275053E+0	1.283720E+0	1.269711E+0	1.288605E+0	1.294371E+0	1.370407E+0	1.345395E+0	1.246276E+0	1.296284E+0	1.381469E+0	1.387184E+0	1.343819E+0	1.356189E+0	1.360838E+0	1.332740E+0	1.345269E+0	1.374379E+0	1.345357E+0	1.384780E+0	1.277933E+0	1.383763E+0	1.216291E+0	1.327595E+0
2.866200E+2	1.214522E+0	1.261163E+0	1.355996E+0	1.418072E+0	1.221839E+0	1.224546E+0	1.368803E+0	1.246985E+0	1.338769E+0	1.281180E+0	1.181385E+0	1.253191E+0	1.372037E+0	1.349351E+0	1.241891E+0	1.270873E+0	1.261990E+0	1.232551E+0	1.304411E+0	1.311573E+0	1.220156E+0	1.213459E+0	1.221718E+0	1.280683E+0	1.285973E+0	1.258196E+0	1.374052E+0	1.334936E+0	1.257045E+0	1.382150E+0	1.165146E+0	1.391863E+0	1.299227E+0	1.356299E+0	1.289895E+0	1.234353E+0	1.283369E+0	1.297701E+0	1.247707E+0	1.267127E+0	1.176491E+0	1.308840E+0	1.250680E+0	1.268090E+0	1.251877E+0	1.256927E+0	1.178668E+0	1.274322E+0	1.315524E+0	1.233715E+0	1.275781E+0	1.288362E+0	1.213099E+0	1.319955E+0	1.240678E+0	1.238718E+0	1.300044E+0	1.353025E+0	1.256151E+0	1.398105E+0	1.269605E+0	1.253790E+0	1.338097E+0	1.267021E+0	1.228393E+0	1.262999E+0	1.224245E+0	1.304446E+0	1.238882E+0	1.332401E+0	1.274440E+0	1.226095E+0	1.249586E+0	1.244938E+0	1.291720E+0	1.244675E+0	1.181495E+0	1.284429E+0	1.319387E+0	1.284386E+0	1.299893E+0	1.368676E+0	1.354696E+0	1.342787E+0	1.214563E+0	1.283718E+0	1.238924E+0	1.241858E+0	1.262984E+0	1.312314E+0	1.325237E+0	1.222168E+0	1.204009E+0	1.276320E+0	1.236004E+0	1.310012E+0	1.307591E+0	1.335189E+0	1.243053E+0	1.251339E+0	1.269571E+0	1.357458E+0	1.325074E+0	1.264060E+0	1.290298E+0	1.297701E+0	1.300255E+0	1.291843E+0	1.303977E+0	1.312332E+0	1.223464E+0	1.295912E+0	1.353269E+0	1.227815E+0	1.231651E+0	1.308879E+0	1.340958E+0	1.263848E+0	1.349778E+0	1.286773E+0	1.232264E+0	1.382245E+0	1.309878E+0	1.227984E+0	1.272781E+0	1.348107E+0	1.274895E+0	1.278721E+0	1.251315E+0	1.334410E+0	1.287610E+0	1.210780E+0	1.270102E+0	1.282980E+0	1.332814E+0	1.285441E+0	1.290726E+0	1.351226E+0	1.200606E+0	1.224815E+0	1.331681E+0	1.269687E+0	1.268444E+0	1.251755E+0	1.266670E+0	1.379016E+0	1.246445E+0	1.185104E+0	1.268247E+0	1.259447E+0	1.289878E+0	1.250419E+0	1.203836E+0	1.370942E+0	1.254888E+0	1.313349E+0	1.349659E+0	1.215840E+0	1.298969E+0	1.261277E+0	1.350298E+0	1.234747E+0	1.239904E+0	1.309203E+0	1.290568E+0	1.200448E+0	1.339809E+0	1.202782E+0	1.262523E+0	1.290718E+0	1.219644E+0	1.263460E+0
2.868000E+2	1.471475E+0	1.583303E+0	1.582412E+0	1.581479E+0	1.549034E+0	1.651519E+0	1.556678E+0	1.637686E+0	1.649427E+0	1.644119E+0	1.545404E+0	1.542337E+0	1.647057E+0	1.546687E+0	1.531866E+0	1.632408E+0	1.570690E+0	1.635868E+0	1.666452E+0	1.539788E+0	1.582170E+0	1.525801E+0	1.617084E+0	1.653553E+0	1.552981E+0	1.598977E+0	1.626013E+0	1.543815E+0	1.594438E+0	1.513086E+0	1.626058E+0	1.611386E+0	1.646447E+0	1.474522E+0	1.565381E+0	1.513480E+0	1.687097E+0	1.572385E+0	1.595767E+0	1.499098E+0	1.542863E+0	1.561866E+0	1.495038E+0	1.633573E+0	1.511175E+0	1.514191E+0	1.522857E+0	1.508353E+0	1.595485E+0	1.610796E+0	1.601633E+0	1.564229E+0	1.686950E+0	1.611476E+0	1.563817E+0	1.520942E+0	1.499459E+0	1.476455E+0	1.539368E+0	1.636692E+0	1.567089E+0	1.489740E+0	1.451242E+0	1.482144E+0	1.535103E+0	1.487753E+0	1.579141E+0	1.636551E+0	1.558397E+0	1.594689E+0	1.665400E+0	1.526657E+0	1.538987E+0	1.551151E+0	1.490525E+0	1.588190E+0	1.587239E+0	1.587734E+0	1.588624E+0	1.541367E+0	1.570435E+0	1.566074E+0	1.611893E+0	1.561013E+0	1.616843E+0	1.558029E+0	1.561922E+0	1.665415E+0	1.554211E+0	1.561880E+0	1.712467E+0	1.581436E+0	1.507238E+0	1.588905E+0	1.656803E+0	1.585828E+0	1.607084E+0	1.534050E+0	1.510655E+0	1.524417E+0	1.503105E+0	1.496179E+0	1.582444E+0	1.522853E+0	1.639643E+0	1.565227E+0	1.490964E+0	1.491125E+0	1.609174E+0	1.536620E+0	1.474398E+0	1.590672E+0	1.646737E+0	1.488494E+0	1.437727E+0	1.523729E+0	1.600067E+0	1.691441E+0	1.645276E+0	1.667275E+0	1.528550E+0	1.598976E+0	1.632516E+0	1.614588E+0	1.573452E+0	1.526983E+0	1.495358E+0	1.625739E+0	1.504473E+0	1.542920E+0	1.484452E+0	1.523648E+0	1.603240E+0	1.537246E+0	1.570501E+0	1.596936E+0	1.563822E+0	1.708290E+0	1.597980E+0	1.651529E+0	1.489840E+0	1.567722E+0	1.573037E+0	1.508435E+0	1.499060E+0	1.620081E+0	1.501479E+0	1.606071E+0	1.522549E+0	1.573454E+0	1.582152E+0	1.595253E+0	1.581481E+0	1.577768E+0	1.541029E+0	1.592190E+0	1.598157E+0	1.568571E+0	1.535205E+0	1.643846E+0	1.552837E+0	1.560181E+0	1.540536E+0	1.586534E+0	1.594666E+0	1.610080E+0	1.566164E+0	1.631106E+0	1.532886E+0	1.674376E+0	1.461892E+0	1.506832E+0
2.870120E+2	1.331077E+0	1.547869E+0	1.449225E+0	1.438220E+0	1.313244E+0	1.427395E+0	1.376936E+0	1.377800E+0	1.398759E+0	1.424133E+0	1.455261E+0	1.325593E+0	1.329642E+0	1.348717E+0	1.378351E+0	1.435393E+0	1.305323E+0	1.456247E+0	1.385191E+0	1.399658E+0	1.437154E+0	1.461892E+0	1.404556E+0	1.456114E+0	1.423498E+0	1.302650E+0	1.466498E+0	1.488239E+0	1.396267E+0	1.514816E+0	1.276825E+0	1.383274E+0	1.364972E+0	1.380012E+0	1.401844E+0	1.376537E+0	1.427083E+0	1.446641E+0	1.408246E+0	1.347540E+0	1.405577E+0	1.355947E+0	1.402979E+0	1.517028E+0	1.339334E+0	1.306182E+0	1.408667E+0	1.417837E+0	1.327951E+0	1.372930E+0	1.370037E+0	1.399215E+0	1.346686E+0	1.508056E+0	1.441741E+0	1.383355E+0	1.396034E+0	1.408060E+0	1.450271E+0	1.490217E+0	1.378385E+0	1.374219E+0	1.304551E+0	1.440140E+0	1.410631E+0	1.363691E+0	1.399797E+0	1.450540E+0	1.460273E+0	1.410379E+0	1.390942E+0	1.408563E+0	1.382489E+0	1.430580E+0	1.429073E+0	1.400094E+0	1.450408E+0	1.424233E+0	1.404186E+0	1.422470E+0	1.398148E+0	1.441832E+0	1.416166E+0	1.522662E+0	1.445107E+0	1.424668E+0	1.373514E+0	1.422615E+0	1.442853E+0	1.409477E+0	1.388946E+0	1.366440E+0	1.423080E+0	1.379042E+0	1.427718E+0	1.480134E+0	1.377140E+0	1.450602E+0	1.497651E+0	1.357737E+0	1.459944E+0	1.402552E+0	1.327697E+0	1.438031E+0	1.418655E+0	1.457727E+0	1.336054E+0	1.471672E+0	1.364460E+0	1.400178E+0	1.328353E+0	1.362187E+0	1.424885E+0	1.418239E+0	1.433941E+0	1.396990E+0	1.456067E+0	1.459534E+0	1.380612E+0	1.472965E+0	1.301758E+0	1.397407E+0	1.367005E+0	1.465662E+0	1.391785E+0	1.359936E+0	1.419210E+0	1.414505E+0	1.390848E+0	1.411479E+0	1.406883E+0	1.340963E+0	1.339492E+0	1.419006E+0	1.384130E+0	1.384268E+0	1.392161E+0	1.418744E+0	1.421711E+0	1.415071E+0	1.412737E+0	1.339394E+0	1.442803E+0	1.409553E+0	1.395285E+0	1.396261E+0	1.371833E+0	1.362923E+0	1.373170E+0	1.412263E+0	1.428724E+0	1.407584E+0	1.362376E+0	1.416470E+0	1.416091E+0	1.388896E+0	1.325194E+0	1.384927E+0	1.371291E+0	1.398175E+0	1.385858E+0	1.418756E+0	1.439115E+0	1.318509E+0	1.426562E+0	1.433284E+0	1.450613E+0	1.477781E+0	1.369336E+0	1.402520E+0	1.354071E+0	1.490807E+0
2.872120E+2	9.433159E-1	1.029831E+0	1.084576E+0	9.897641E-1	1.035321E+0	1.050966E+0	1.082916E+0	9.765028E-1	1.112747E+0	1.058851E+0	1.058244E+0	1.015954E+0	1.093708E+0	1.021732E+0	1.011674E+0	1.088814E+0	9.818350E-1	1.012768E+0	1.012814E+0	1.068364E+0	9.784224E-1	9.468895E-1	1.004460E+0	1.035670E+0	1.026992E+0	1.029136E+0	1.079498E+0	1.055411E+0	9.922405E-1	1.028931E+0	1.000990E+0	1.062565E+0	1.052156E+0	9.908269E-1	1.039125E+0	1.010025E+0	1.058899E+0	1.033949E+0	1.014607E+0	9.676290E-1	1.050807E+0	1.029410E+0	1.049950E+0	1.075762E+0	9.506636E-1	9.822577E-1	1.070903E+0	1.006990E+0	1.021051E+0	1.019530E+0	9.714661E-1	1.023806E+0	9.949171E-1	1.028979E+0	1.009172E+0	9.626838E-1	1.061326E+0	1.038399E+0	1.080384E+0	1.080987E+0	1.057699E+0	1.054560E+0	1.047744E+0	1.039339E+0	9.935223E-1	9.906457E-1	1.017268E+0	1.020148E+0	9.667672E-1	1.033876E+0	9.668122E-1	9.500758E-1	1.011536E+0	1.008080E+0	1.026497E+0	1.066466E+0	1.013435E+0	1.028247E+0	9.983132E-1	1.053710E+0	9.633245E-1	1.013890E+0	1.072428E+0	1.064628E+0	1.025669E+0	1.013451E+0	1.016389E+0	1.022877E+0	1.077241E+0	1.044467E+0	1.056914E+0	9.888011E-1	9.980076E-1	9.870302E-1	1.007092E+0	1.070565E+0	1.061318E+0	1.002134E+0	1.079782E+0	1.027594E+0	9.926730E-1	9.922317E-1	1.020350E+0	1.043668E+0	1.084265E+0	1.112942E+0	9.307131E-1	1.088532E+0	9.932139E-1	1.070397E+0	1.011529E+0	9.983404E-1	1.060963E+0	1.022405E+0	9.126130E-1	1.030651E+0	1.081322E+0	1.017866E+0	1.067001E+0	1.049514E+0	9.945900E-1	1.031456E+0	1.051089E+0	1.081181E+0	1.038653E+0	1.047736E+0	9.646649E-1	1.021060E+0	9.608779E-1	1.040883E+0	1.010482E+0	1.051351E+0	1.050170E+0	9.696975E-1	1.082732E+0	1.022749E+0	1.106399E+0	1.070710E+0	9.894243E-1	1.074065E+0	9.646307E-1	1.061416E+0	1.063855E+0	1.022051E+0	9.924288E-1	9.921273E-1	9.676998E-1	9.964843E-1	1.034354E+0	1.011978E+0	9.932322E-1	1.040252E+0	8.997847E-1	9.717655E-1	1.024879E+0	1.012283E+0	9.438284E-1	1.143896E+0	1.055742E+0	1.112559E+0	1.032230E+0	1.013527E+0	1.018830E+0	1.039615E+0	1.008573E+0	1.036997E+0	1.050776E+0	1.037866E+0	1.012745E+0	1.005625E+0	9.699818E-1	9.264538E-1
2.874030E+2	8.604295E-1	7.982490E-1	8.027351E-1	8.724459E-1	8.125835E-1	8.528548E-1	9.289146E-1	8.641898E-1	8.872263E-1	7.904665E-1	8.709591E-1	8.467226E-1	8.681483E-1	8.279605E-1	8.660424E-1	8.803531E-1	8.082734E-1	7.967055E-1	8.887987E-1	8.281792E-1	8.841458E-1	9.006760E-1	8.521612E-1	8.286309E-1	7.640220E-1	8.300518E-1	8.380632E-1	8.751373E-1	8.621209E-1	8.194290E-1	8.412959E-1	8.364123E-1	9.136211E-1	8.373468E-1	8.669760E-1	8.295758E-1	9.012466E-1	8.267773E-1	8.270718E-1	8.519151E-1	8.139992E-1	8.218899E-1	8.478249E-1	8.524636E-1	8.070120E-1	8.461754E-1	8.399771E-1	8.498823E-1	9.009759E-1	8.325489E-1	7.994377E-1	8.752285E-1	8.367134E-1	8.833885E-1	8.287141E-1	8.555349E-1	8.231928E-1	8.520927E-1	8.406247E-1	8.552526E-1	7.710096E-1	8.736528E-1	8.519013E-1	8.157897E-1	8.095379E-1	8.292017E-1	8.252228E-1	8.876328E-1	8.254508E-1	8.925424E-1	8.560881E-1	8.338475E-1	8.530567E-1	8.927290E-1	8.227085E-1	8.655790E-1	8.386213E-1	8.654152E-1	8.311107E-1	8.605553E-1	8.658267E-1	8.856110E-1	8.235207E-1	8.899326E-1	8.687244E-1	8.676896E-1	9.138214E-1	8.716083E-1	8.916208E-1	8.900652E-1	8.480730E-1	8.598589E-1	7.960583E-1	7.853844E-1	8.448339E-1	8.160511E-1	8.468617E-1	7.980936E-1	8.137882E-1	8.782711E-1	8.786168E-1	8.123610E-1	8.423148E-1	8.771452E-1	7.569346E-1	9.284584E-1	8.110595E-1	8.045252E-1	8.599941E-1	9.509194E-1	8.349790E-1	8.981490E-1	9.190325E-1	7.771796E-1	8.846356E-1	8.957406E-1	8.493546E-1	9.205881E-1	8.247165E-1	8.085538E-1	8.263431E-1	8.502261E-1	8.560555E-1	8.651818E-1	8.871627E-1	8.112124E-1	8.425947E-1	8.720242E-1	9.050096E-1	8.443619E-1	8.503216E-1	7.827505E-1	8.674649E-1	8.719887E-1	8.262418E-1	8.140962E-1	8.351666E-1	8.924874E-1	8.735047E-1	8.833042E-1	8.198476E-1	8.702050E-1	8.629637E-1	8.420569E-1	8.218556E-1	8.956110E-1	9.025039E-1	8.006346E-1	8.557851E-1	8.487973E-1	8.434529E-1	8.841558E-1	8.344866E-1	8.902743E-1	8.236903E-1	8.206712E-1	8.481309E-1	8.419978E-1	8.901981E-1	8.506599E-1	8.395735E-1	8.485403E-1	8.055301E-1	7.915756E-1	8.096134E-1	9.129843E-1	9.060806E-1	8.659298E-1	8.678659E-1	8.191361E-1	8.938686E-1	8.642861E-1
2.876180E+2	6.436819E-1	6.845555E-1	6.453229E-1	6.989683E-1	5.971655E-1	6.298437E-1	6.651236E-1	6.619006E-1	6.808787E-1	6.215271E-1	6.934399E-1	6.703881E-1	6.657168E-1	5.943227E-1	6.364700E-1	6.865593E-1	6.225773E-1	6.371163E-1	6.291115E-1	6.172131E-1	6.211811E-1	6.463118E-1	6.779258E-1	6.460448E-1	6.566788E-1	6.467735E-1	6.579442E-1	6.672341E-1	7.100686E-1	6.838030E-1	6.712044E-1	6.972928E-1	6.069378E-1	6.509691E-1	6.248846E-1	6.325992E-1	6.450825E-1	6.452651E-1	6.564455E-1	6.270416E-1	6.727850E-1	6.654571E-1	6.245141E-1	7.289821E-1	6.112520E-1	6.259935E-1	6.463386E-1	6.315421E-1	6.344673E-1	6.376707E-1	7.231527E-1	6.306246E-1	6.874596E-1	6.334625E-1	6.578411E-1	5.978142E-1	6.349281E-1	6.375752E-1	6.641014E-1	7.296673E-1	6.529617E-1	6.380049E-1	6.532275E-1	6.287780E-1	6.603026E-1	6.959219E-1	6.232282E-1	6.539218E-1	6.733654E-1	6.578381E-1	6.468931E-1	6.095534E-1	6.831228E-1	6.991499E-1	6.743945E-1	6.119467E-1	6.603337E-1	7.018645E-1	6.518952E-1	6.472675E-1	6.708381E-1	6.428906E-1	6.870871E-1	6.876916E-1	6.358084E-1	6.928002E-1	6.986798E-1	6.553430E-1	6.658488E-1	6.133877E-1	6.271645E-1	6.081296E-1	6.490963E-1	6.350937E-1	6.426704E-1	6.245048E-1	5.908162E-1	6.792685E-1	6.569823E-1	6.409634E-1	6.494673E-1	6.875203E-1	6.659266E-1	7.453626E-1	6.302550E-1	6.233834E-1	6.530022E-1	6.507164E-1	6.146284E-1	6.434661E-1	7.197284E-1	6.427341E-1	7.024769E-1	6.355203E-1	6.373432E-1	6.431192E-1	6.714181E-1	6.754016E-1	6.040631E-1	6.306762E-1	6.263860E-1	6.157590E-1	6.459137E-1	6.719572E-1	6.622329E-1	6.647477E-1	6.240964E-1	6.524329E-1	6.701876E-1	6.909513E-1	6.148757E-1	6.308076E-1	6.817135E-1	6.915239E-1	6.474067E-1	6.414426E-1	6.388496E-1	6.499766E-1	6.775049E-1	6.779753E-1	6.705748E-1	6.552213E-1	7.120752E-1	6.685909E-1	6.862603E-1	6.877108E-1	6.726319E-1	6.423868E-1	6.470747E-1	6.804706E-1	6.595982E-1	6.056330E-1	6.440597E-1	6.037104E-1	5.893243E-1	6.005762E-1	6.120289E-1	6.138725E-1	6.348878E-1	7.134542E-1	6.497007E-1	5.655815E-1	5.987694E-1	5.785007E-1	6.935551E-1	6.997008E-1	6.387706E-1	6.068790E-1	6.427587E-1	6.760905E-1	5.678540E-1	6.716765E-1
2.878020E+2	5.303973E-1	5.352609E-1	5.168365E-1	5.472485E-1	4.828534E-1	5.189433E-1	5.447000E-1	5.470147E-1	5.083932E-1	5.850296E-1	4.953826E-1	5.586642E-1	5.514203E-1	4.717981E-1	5.372676E-1	5.348163E-1	5.221951E-1	5.305117E-1	5.503338E-1	5.291356E-1	4.978563E-1	4.991096E-1	5.318102E-1	5.570152E-1	5.284026E-1	5.362722E-1	5.277068E-1	5.055168E-1	5.480085E-1	5.281548E-1	4.859908E-1	5.355885E-1	5.043800E-1	5.459362E-1	5.127840E-1	5.250988E-1	5.132797E-1	5.163118E-1	5.483585E-1	5.699541E-1	4.984551E-1	5.143430E-1	5.287695E-1	5.092705E-1	5.347041E-1	5.505307E-1	5.123334E-1	5.039121E-1	5.258646E-1	5.629347E-1	4.897833E-1	5.656612E-1	5.395709E-1	5.359808E-1	5.274601E-1	5.404979E-1	5.227017E-1	5.387866E-1	5.172358E-1	5.585571E-1	5.207114E-1	5.329432E-1	5.776404E-1	5.679429E-1	5.178626E-1	5.220355E-1	5.292175E-1	5.882544E-1	5.865062E-1	5.271399E-1	5.284566E-1	4.682887E-1	5.133009E-1	5.218362E-1	5.568165E-1	5.574083E-1	5.468055E-1	5.987915E-1	5.199266E-1	6.033999E-1	5.161541E-1	5.591048E-1	5.554043E-1	5.076425E-1	5.781646E-1	5.631690E-1	5.069807E-1	5.558358E-1	5.428034E-1	5.284458E-1	5.874412E-1	5.051601E-1	5.066334E-1	4.801539E-1	5.608697E-1	5.629530E-1	5.302658E-1	5.134361E-1	5.940969E-1	5.173252E-1	5.817730E-1	5.315259E-1	5.988695E-1	5.544318E-1	5.706005E-1	5.142043E-1	5.197130E-1	5.603582E-1	5.182074E-1	5.446808E-1	5.720711E-1	5.287868E-1	5.598776E-1	4.851500E-1	5.819959E-1	5.531245E-1	5.459672E-1	5.366184E-1	5.352204E-1	5.560568E-1	5.262231E-1	5.270842E-1	5.777913E-1	5.838385E-1	5.244911E-1	5.149983E-1	4.810367E-1	5.159419E-1	5.518745E-1	5.373200E-1	5.588455E-1	5.694908E-1	5.562219E-1	5.156741E-1	6.046827E-1	4.876327E-1	5.253161E-1	5.220512E-1	5.266576E-1	4.959548E-1	5.210040E-1	5.036651E-1	5.660699E-1	5.435364E-1	5.653616E-1	5.316274E-1	5.237984E-1	5.369030E-1	5.003152E-1	5.387856E-1	5.484760E-1	6.090054E-1	5.004810E-1	5.460547E-1	5.266859E-1	5.396086E-1	4.955914E-1	5.093554E-1	5.208549E-1	5.837118E-1	5.429900E-1	5.332238E-1	5.214753E-1	4.731262E-1	5.495566E-1	5.174821E-1	5.476432E-1	5.750382E-1	5.640280E-1	4.144840E-1	5.532845E-1	5.188981E-1
2.880040E+2	5.223166E-1	5.468552E-1	5.636554E-1	6.120276E-1	5.344002E-1	6.063957E-1	5.846250E-1	5.254496E-1	6.147867E-1	5.413218E-1	5.295702E-1	5.675598E-1	5.188923E-1	5.938085E-1	6.261802E-1	5.656908E-1	5.457814E-1	5.506333E-1	5.503884E-1	5.750150E-1	6.046851E-1	5.878361E-1	5.632747E-1	5.934474E-1	5.537907E-1	5.646914E-1	5.709878E-1	5.706166E-1	5.586670E-1	5.120836E-1	5.055384E-1	5.574196E-1	5.616981E-1	5.349772E-1	5.642656E-1	5.777152E-1	5.550642E-1	5.914165E-1	5.574389E-1	5.437947E-1	5.270188E-1	5.748540E-1	5.483876E-1	5.738692E-1	5.212661E-1	5.641693E-1	6.102489E-1	5.552090E-1	5.912751E-1	5.699391E-1	4.759491E-1	5.562963E-1	5.456498E-1	5.859870E-1	5.755417E-1	5.668833E-1	5.482736E-1	5.733349E-1	5.420470E-1	6.057723E-1	5.591219E-1	5.622987E-1	5.846838E-1	4.696095E-1	5.384991E-1	5.295566E-1	5.219697E-1	5.854798E-1	5.006299E-1	5.665562E-1	5.163882E-1	5.430282E-1	5.225312E-1	5.644473E-1	6.261044E-1	5.356999E-1	5.603064E-1	5.247710E-1	5.440715E-1	5.568303E-1	5.633433E-1	5.745029E-1	5.431366E-1	5.393025E-1	6.129844E-1	5.581109E-1	6.356978E-1	5.621087E-1	6.367748E-1	5.998986E-1	5.454179E-1	5.279246E-1	5.463248E-1	5.641194E-1	5.544313E-1	6.544791E-1	5.061308E-1	5.475975E-1	5.468706E-1	5.723078E-1	5.032856E-1	5.254535E-1	6.043399E-1	5.389406E-1	5.998136E-1	5.983316E-1	5.803779E-1	6.029003E-1	5.751930E-1	5.473778E-1	5.571762E-1	5.739031E-1	4.874681E-1	5.473556E-1	5.533351E-1	6.071297E-1	5.555120E-1	5.247142E-1	5.834271E-1	5.825705E-1	5.885688E-1	5.018213E-1	5.375311E-1	5.526617E-1	5.860401E-1	5.065304E-1	5.631274E-1	5.975136E-1	5.552563E-1	5.247633E-1	5.643911E-1	4.980450E-1	5.417856E-1	5.457400E-1	5.540273E-1	5.312450E-1	5.275022E-1	5.302185E-1	6.228449E-1	5.411048E-1	5.725016E-1	5.531887E-1	5.173791E-1	5.709515E-1	5.285720E-1	5.936101E-1	5.118778E-1	5.125794E-1	5.366140E-1	4.993900E-1	5.704030E-1	5.393962E-1	5.624746E-1	5.624906E-1	5.341028E-1	5.358263E-1	5.905202E-1	5.944892E-1	5.775545E-1	5.257395E-1	5.560189E-1	5.102289E-1	5.349116E-1	5.421833E-1	6.176549E-1	5.229262E-1	5.256953E-1	5.496649E-1	5.960745E-1	5.646213E-1	5.292166E-1	6.326343E-1
2.882060E+2	6.885801E-1	6.055800E-1	6.920655E-1	7.725272E-1	6.392466E-1	6.900053E-1	6.924214E-1	6.817692E-1	6.894005E-1	6.962905E-1	7.042735E-1	6.409762E-1	6.775660E-1	6.426346E-1	7.015683E-1	6.977682E-1	6.426508E-1	6.706646E-1	6.593480E-1	7.199891E-1	6.787945E-1	6.183697E-1	7.136779E-1	7.410165E-1	6.636619E-1	6.870288E-1	6.958902E-1	6.529547E-1	7.236816E-1	6.758504E-1	6.648135E-1	6.422611E-1	6.111688E-1	6.539030E-1	6.943611E-1	7.252685E-1	6.609718E-1	6.388696E-1	6.840727E-1	6.836234E-1	6.605199E-1	6.206074E-1	6.667570E-1	7.594363E-1	7.159228E-1	6.750139E-1	6.682068E-1	6.514115E-1	7.316040E-1	6.597931E-1	6.901888E-1	6.948797E-1	7.019189E-1	6.835912E-1	6.495057E-1	7.015932E-1	5.818166E-1	6.516291E-1	6.764343E-1	7.257095E-1	6.305699E-1	6.120802E-1	6.810147E-1	7.218041E-1	6.559581E-1	6.848480E-1	6.940005E-1	6.280605E-1	6.244817E-1	6.990945E-1	6.594991E-1	7.050546E-1	6.420112E-1	6.501662E-1	7.178134E-1	7.368967E-1	6.927270E-1	6.613030E-1	6.625720E-1	7.080656E-1	6.661945E-1	7.128097E-1	6.798399E-1	7.249444E-1	7.059153E-1	6.557789E-1	7.348106E-1	6.473386E-1	6.638535E-1	6.778017E-1	6.776278E-1	6.985123E-1	6.375627E-1	6.693058E-1	6.535025E-1	6.791592E-1	6.769309E-1	6.781909E-1	6.619333E-1	6.687817E-1	7.132282E-1	6.259988E-1	6.715461E-1	7.168717E-1	7.035386E-1	6.746836E-1	6.730358E-1	6.849090E-1	6.924253E-1	6.655652E-1	6.535730E-1	6.239616E-1	7.221790E-1	6.467083E-1	7.053983E-1	6.481107E-1	7.034229E-1	6.487800E-1	6.369283E-1	6.765901E-1	6.615151E-1	6.828494E-1	6.747062E-1	7.093422E-1	6.512164E-1	6.390894E-1	7.383628E-1	6.238870E-1	6.772398E-1	6.261502E-1	6.567386E-1	6.736592E-1	6.822582E-1	6.112595E-1	6.670197E-1	6.601738E-1	6.551874E-1	6.548918E-1	6.633638E-1	6.462125E-1	6.830749E-1	6.630993E-1	6.727929E-1	7.147304E-1	6.513517E-1	6.734431E-1	6.918100E-1	6.269854E-1	6.463868E-1	7.078497E-1	7.116034E-1	6.446152E-1	6.787934E-1	6.502531E-1	7.227530E-1	6.677617E-1	6.649268E-1	7.209436E-1	6.059493E-1	7.213236E-1	6.720198E-1	7.161323E-1	6.851573E-1	6.886823E-1	7.395747E-1	6.405578E-1	6.518025E-1	7.152132E-1	6.436387E-1	7.477461E-1	7.078161E-1	6.601026E-1
2.884150E+2	8.488401E-1	9.315449E-1	8.952119E-1	8.910069E-1	8.355408E-1	8.579402E-1	8.952447E-1	8.764968E-1	9.003762E-1	9.299991E-1	8.569055E-1	8.832248E-1	8.643755E-1	8.532270E-1	8.690255E-1	9.461549E-1	8.564426E-1	9.250382E-1	8.547981E-1	9.284084E-1	8.591123E-1	8.357637E-1	9.189139E-1	8.391910E-1	9.387326E-1	9.622657E-1	9.004524E-1	8.933967E-1	8.694667E-1	8.944665E-1	8.835539E-1	9.261943E-1	8.729672E-1	8.926144E-1	9.375610E-1	8.763745E-1	9.656065E-1	8.512301E-1	8.771000E-1	9.038683E-1	8.935309E-1	8.491248E-1	9.000241E-1	9.259443E-1	8.560618E-1	8.927000E-1	8.826517E-1	8.812654E-1	8.248653E-1	9.535663E-1	9.108505E-1	9.102779E-1	8.147844E-1	8.531303E-1	8.293423E-1	8.630241E-1	9.341399E-1	9.252614E-1	8.790282E-1	9.548389E-1	9.136742E-1	9.520834E-1	8.580527E-1	8.982925E-1	8.759754E-1	9.114127E-1	9.173294E-1	8.575572E-1	8.311013E-1	8.976527E-1	8.637951E-1	8.691987E-1	8.917865E-1	8.479635E-1	9.024383E-1	8.578555E-1	8.609393E-1	8.911561E-1	8.832208E-1	9.047820E-1	8.609896E-1	9.216196E-1	8.485118E-1	9.141543E-1	8.389778E-1	8.735192E-1	9.677231E-1	9.456929E-1	8.760231E-1	8.776856E-1	8.823802E-1	8.494317E-1	8.119958E-1	9.439099E-1	9.468809E-1	8.832006E-1	9.398371E-1	8.509990E-1	8.423679E-1	8.313004E-1	8.980401E-1	8.546882E-1	9.095323E-1	8.884666E-1	8.787475E-1	8.932946E-1	8.663055E-1	8.801753E-1	8.446903E-1	9.141244E-1	8.880591E-1	8.808886E-1	8.899217E-1	8.339211E-1	8.751728E-1	8.922356E-1	8.749114E-1	8.624570E-1	8.776086E-1	8.696975E-1	8.980467E-1	9.349459E-1	9.044653E-1	9.704710E-1	8.568010E-1	9.205351E-1	8.736747E-1	8.762548E-1	8.165740E-1	8.717359E-1	8.474962E-1	8.722009E-1	8.827894E-1	8.185594E-1	8.795956E-1	9.131732E-1	8.781259E-1	9.508507E-1	9.054916E-1	8.717999E-1	8.371722E-1	9.020429E-1	8.678698E-1	8.195558E-1	8.250046E-1	8.355656E-1	8.628474E-1	9.007601E-1	8.837872E-1	8.757056E-1	8.571325E-1	8.305133E-1	8.304070E-1	8.589501E-1	8.191032E-1	8.999696E-1	8.844764E-1	8.823106E-1	8.313647E-1	8.938294E-1	9.067744E-1	8.599328E-1	8.906186E-1	8.358432E-1	8.864754E-1	8.626126E-1	8.466634E-1	8.310249E-1	8.545313E-1	8.083358E-1	8.135713E-1	7.959047E-1
2.886010E+2	1.123001E+0	1.152557E+0	1.105134E+0	1.089459E+0	1.103740E+0	1.096192E+0	1.197733E+0	1.101688E+0	1.115100E+0	1.122546E+0	1.047791E+0	1.179436E+0	1.132210E+0	1.052918E+0	1.122100E+0	1.088182E+0	1.162369E+0	1.142788E+0	1.101939E+0	1.100143E+0	1.139328E+0	1.029860E+0	1.124213E+0	1.183676E+0	1.121454E+0	1.128528E+0	1.221914E+0	1.149547E+0	1.139222E+0	1.123492E+0	1.157820E+0	1.131553E+0	1.124292E+0	1.111224E+0	1.161971E+0	1.105212E+0	1.109546E+0	1.141131E+0	1.110526E+0	1.122818E+0	1.055671E+0	1.122137E+0	1.126447E+0	1.131447E+0	1.096451E+0	1.101316E+0	1.145633E+0	1.148095E+0	1.127123E+0	1.081923E+0	1.147750E+0	1.179811E+0	1.146172E+0	1.150065E+0	1.066172E+0	1.150130E+0	1.092962E+0	1.117096E+0	1.113938E+0	1.222552E+0	1.133072E+0	1.046230E+0	1.184944E+0	1.095138E+0	1.108327E+0	1.137528E+0	1.143814E+0	1.109906E+0	1.108014E+0	1.169912E+0	1.080128E+0	1.071875E+0	1.114776E+0	1.126348E+0	1.095692E+0	1.131860E+0	1.120347E+0	1.031859E+0	1.147441E+0	1.123017E+0	1.143588E+0	1.068442E+0	1.115147E+0	1.213452E+0	1.191982E+0	1.119189E+0	1.165926E+0	1.149442E+0	1.070766E+0	1.109876E+0	1.126224E+0	1.098766E+0	1.116631E+0	1.088425E+0	1.094038E+0	1.071907E+0	1.167238E+0	1.067001E+0	1.094150E+0	1.124823E+0	1.090430E+0	1.142256E+0	1.092674E+0	1.132434E+0	1.188745E+0	1.147422E+0	1.155796E+0	1.060075E+0	1.105451E+0	1.167487E+0	1.134129E+0	1.101297E+0	1.161814E+0	1.054850E+0	1.068378E+0	1.113040E+0	1.099220E+0	1.107638E+0	1.179983E+0	1.073193E+0	1.109017E+0	1.135366E+0	1.128170E+0	1.257206E+0	1.085322E+0	1.130822E+0	1.189244E+0	1.074531E+0	1.114344E+0	1.095105E+0	1.137592E+0	1.058188E+0	1.064999E+0	1.087234E+0	1.171783E+0	1.118554E+0	1.143226E+0	1.084744E+0	1.156297E+0	1.032629E+0	1.089715E+0	1.079023E+0	1.057052E+0	1.127296E+0	1.107865E+0	1.071301E+0	1.122582E+0	1.081277E+0	1.111175E+0	1.105276E+0	1.129892E+0	1.130788E+0	1.092182E+0	1.085894E+0	1.069377E+0	1.115588E+0	1.135992E+0	1.173483E+0	1.089702E+0	1.125415E+0	1.089748E+0	1.131349E+0	1.095494E+0	1.101586E+0	1.172435E+0	1.152292E+0	1.148892E+0	1.099310E+0	1.114644E+0	1.150629E+0	1.020390E+0	1.097691E+0
2.888180E+2	1.039666E+0	1.075427E+0	1.124847E+0	1.125565E+0	1.162193E+0	1.194910E+0	1.185719E+0	1.212415E+0	1.120335E+0	1.091357E+0	1.133488E+0	1.205697E+0	1.172743E+0	1.141650E+0	1.106677E+0	1.108416E+0	1.116822E+0	1.225199E+0	1.201256E+0	1.154438E+0	1.119016E+0	1.066931E+0	1.165093E+0	1.094004E+0	1.108461E+0	1.178872E+0	1.144506E+0	1.110436E+0	1.064669E+0	1.140468E+0	1.168008E+0	1.215723E+0	1.145087E+0	1.182111E+0	1.128922E+0	1.155476E+0	1.183349E+0	1.120731E+0	1.133539E+0	1.042553E+0	1.157959E+0	1.156478E+0	1.067650E+0	1.092944E+0	1.077558E+0	1.066514E+0	1.094967E+0	1.174738E+0	1.138506E+0	1.118407E+0	1.102729E+0	1.112645E+0	1.175620E+0	1.166459E+0	1.134453E+0	1.145595E+0	1.192580E+0	1.128338E+0	1.156295E+0	1.146744E+0	1.136763E+0	1.112633E+0	1.197613E+0	1.054621E+0	1.067839E+0	1.076378E+0	1.076250E+0	1.119170E+0	1.130122E+0	1.134134E+0	1.078365E+0	1.133801E+0	1.148483E+0	1.126988E+0	1.110882E+0	1.095111E+0	1.105113E+0	1.136588E+0	1.115225E+0	1.168570E+0	1.126149E+0	1.152346E+0	1.152182E+0	1.119790E+0	1.179288E+0	1.139069E+0	1.278865E+0	1.175672E+0	1.130822E+0	1.157896E+0	1.113936E+0	1.054628E+0	1.102034E+0	1.107413E+0	1.137531E+0	1.146048E+0	1.135451E+0	1.091423E+0	1.139905E+0	1.228603E+0	1.098475E+0	1.189928E+0	1.149377E+0	1.135624E+0	1.191613E+0	1.165270E+0	1.152406E+0	1.055436E+0	1.136652E+0	1.092289E+0	1.117435E+0	1.128472E+0	1.088903E+0	1.127726E+0	1.132161E+0	1.110027E+0	1.181584E+0	1.136677E+0	1.231702E+0	1.127035E+0	1.046711E+0	1.168952E+0	1.134632E+0	1.168597E+0	1.113757E+0	1.090759E+0	1.139865E+0	1.153068E+0	1.179454E+0	1.086737E+0	1.196408E+0	1.106477E+0	1.151914E+0	1.133576E+0	1.181442E+0	1.062764E+0	1.095082E+0	1.142399E+0	1.172288E+0	1.127487E+0	1.119057E+0	1.104871E+0	1.198709E+0	1.165350E+0	1.086191E+0	1.167779E+0	1.093969E+0	1.091427E+0	1.096089E+0	1.123983E+0	1.147789E+0	1.144436E+0	1.158176E+0	1.127131E+0	1.184978E+0	1.082874E+0	1.091119E+0	1.119583E+0	1.178862E+0	1.090786E+0	1.167011E+0	1.096263E+0	1.106556E+0	1.084852E+0	1.223365E+0	1.106632E+0	1.129279E+0	1.158437E+0	1.028321E+0	1.122850E+0	1.199518E+0	1.046542E+0
2.890230E+2	1.041728E+0	1.060119E+0	1.021065E+0	1.096534E+0	1.004456E+0	1.141698E+0	1.050406E+0	1.128748E+0	1.067529E+0	9.913690E-1	1.044356E+0	1.092841E+0	1.045811E+0	1.070129E+0	1.057989E+0	1.070068E+0	1.073344E+0	1.087451E+0	1.086252E+0	1.090033E+0	1.071567E+0	9.798597E-1	1.044476E+0	1.038986E+0	1.014962E+0	1.119717E+0	9.918543E-1	1.018009E+0	1.106705E+0	1.002219E+0	1.038852E+0	1.043669E+0	1.055303E+0	1.057464E+0	1.059999E+0	1.064134E+0	1.038575E+0	1.032869E+0	1.026756E+0	1.111708E+0	1.074477E+0	1.091530E+0	1.123686E+0	1.101530E+0	1.038291E+0	1.066592E+0	1.093239E+0	1.035971E+0	1.093175E+0	1.100403E+0	1.066437E+0	1.061000E+0	1.066016E+0	1.016079E+0	1.036197E+0	1.004211E+0	1.052495E+0	1.064350E+0	1.049761E+0	1.096083E+0	1.001586E+0	1.045828E+0	1.016437E+0	1.026653E+0	1.025741E+0	9.955064E-1	1.078737E+0	1.037542E+0	1.113784E+0	1.027965E+0	1.130345E+0	1.058177E+0	1.086184E+0	1.004208E+0	1.111997E+0	1.015380E+0	1.010427E+0	1.011345E+0	1.015301E+0	1.102557E+0	1.086783E+0	1.065763E+0	1.091989E+0	1.099469E+0	1.052930E+0	1.072460E+0	1.117030E+0	1.109088E+0	1.056955E+0	1.065992E+0	1.120375E+0	1.160911E+0	9.391608E-1	1.003618E+0	1.006520E+0	1.090851E+0	1.123988E+0	1.118282E+0	1.093559E+0	1.003241E+0	1.053813E+0	1.033519E+0	1.118907E+0	1.035860E+0	1.112625E+0	1.027415E+0	1.032033E+0	1.034904E+0	1.031019E+0	1.116406E+0	1.069530E+0	1.110881E+0	1.057245E+0	1.036345E+0	1.029622E+0	1.017910E+0	1.069649E+0	1.012112E+0	1.092885E+0	1.052240E+0	9.901791E-1	1.094589E+0	9.984372E-1	1.039563E+0	1.009332E+0	1.048746E+0	1.014636E+0	1.025700E+0	1.055443E+0	1.029747E+0	1.009451E+0	9.629048E-1	1.055501E+0	1.026693E+0	1.096817E+0	1.056531E+0	9.579778E-1	1.041607E+0	1.068890E+0	1.047450E+0	1.077684E+0	9.516597E-1	1.110281E+0	1.102919E+0	1.000402E+0	9.965095E-1	1.093634E+0	9.581449E-1	1.013282E+0	1.069599E+0	1.091204E+0	1.018045E+0	1.046886E+0	1.061126E+0	1.038615E+0	1.104805E+0	1.027719E+0	1.052067E+0	1.095858E+0	1.069639E+0	1.077194E+0	1.063838E+0	1.018799E+0	1.049441E+0	1.101583E+0	1.022487E+0	1.063532E+0	9.706281E-1	9.568523E-1	1.084612E+0	9.265981E-1	1.020265E+0
2.892040E+2	8.508394E-1	8.508770E-1	9.905214E-1	8.602298E-1	9.671698E-1	9.061507E-1	9.226133E-1	9.418388E-1	9.795169E-1	9.103241E-1	8.871237E-1	9.956386E-1	9.216615E-1	9.064450E-1	9.199786E-1	9.543659E-1	9.001836E-1	9.808891E-1	9.377806E-1	9.173964E-1	8.407006E-1	9.033121E-1	9.300615E-1	9.691784E-1	8.790065E-1	9.133190E-1	9.327631E-1	9.546382E-1	8.402375E-1	8.636143E-1	9.420004E-1	9.606604E-1	9.388223E-1	9.613708E-1	9.093885E-1	9.018071E-1	9.350040E-1	9.062630E-1	8.778881E-1	9.820976E-1	9.514767E-1	8.870119E-1	9.320505E-1	9.971000E-1	8.754521E-1	9.630203E-1	9.011005E-1	8.716470E-1	9.288820E-1	9.366292E-1	9.455720E-1	9.711786E-1	9.320741E-1	8.823608E-1	9.503604E-1	9.243128E-1	8.740769E-1	8.862677E-1	8.563028E-1	9.460700E-1	9.182652E-1	8.692383E-1	9.179936E-1	9.418911E-1	9.076484E-1	9.356923E-1	9.009189E-1	8.099488E-1	9.328236E-1	9.497276E-1	9.579413E-1	8.797036E-1	9.003978E-1	9.374888E-1	8.989187E-1	8.721583E-1	9.033466E-1	9.071705E-1	9.835133E-1	9.347191E-1	9.214364E-1	9.157109E-1	9.368812E-1	9.006249E-1	9.026024E-1	9.375118E-1	9.489101E-1	9.193613E-1	8.961698E-1	9.407403E-1	9.517582E-1	8.652506E-1	8.591176E-1	9.462334E-1	9.059668E-1	9.518126E-1	9.965411E-1	8.946192E-1	9.178703E-1	8.843685E-1	9.079057E-1	9.371594E-1	8.570479E-1	9.746462E-1	9.823538E-1	9.277252E-1	9.970799E-1	9.034057E-1	8.838388E-1	9.574790E-1	9.305848E-1	8.945618E-1	8.879691E-1	8.909026E-1	8.950060E-1	9.155355E-1	9.226658E-1	9.197376E-1	1.004364E+0	9.466397E-1	8.603461E-1	9.106089E-1	9.043799E-1	1.028660E+0	9.412609E-1	9.234680E-1	9.149372E-1	9.066622E-1	9.177522E-1	9.292628E-1	9.527495E-1	9.051434E-1	9.173770E-1	9.081369E-1	8.902662E-1	9.416924E-1	9.031285E-1	8.690744E-1	8.807267E-1	9.061809E-1	9.089086E-1	9.225044E-1	8.634732E-1	9.118070E-1	9.083858E-1	9.174504E-1	9.325509E-1	9.304595E-1	9.108189E-1	8.909986E-1	8.913378E-1	9.310979E-1	7.739223E-1	9.025887E-1	9.314375E-1	9.584551E-1	1.035950E+0	9.371529E-1	8.401404E-1	9.112732E-1	9.586545E-1	9.613455E-1	9.179245E-1	8.863917E-1	9.629433E-1	9.327897E-1	9.221256E-1	9.664266E-1	9.463653E-1	8.600430E-1	8.281828E-1	9.687036E-1
2.894020E+2	7.765420E-1	7.453879E-1	7.462457E-1	8.106219E-1	7.392052E-1	7.447346E-1	7.785166E-1	8.006136E-1	7.349508E-1	8.271868E-1	7.214433E-1	7.093287E-1	7.652076E-1	7.186791E-1	7.366338E-1	8.589360E-1	7.931733E-1	8.063072E-1	6.925578E-1	7.762959E-1	6.966793E-1	7.188263E-1	7.933008E-1	8.592271E-1	7.677218E-1	7.682537E-1	7.924665E-1	8.207696E-1	7.456393E-1	7.501064E-1	7.002060E-1	7.440026E-1	7.343105E-1	7.724927E-1	7.513503E-1	8.073251E-1	7.565194E-1	7.168920E-1	7.534667E-1	7.701129E-1	7.342485E-1	7.342928E-1	7.179428E-1	7.776204E-1	6.975398E-1	7.697720E-1	7.713193E-1	7.037552E-1	7.643955E-1	7.284446E-1	7.288525E-1	7.613006E-1	7.374026E-1	7.435374E-1	7.977967E-1	7.204500E-1	7.927889E-1	7.423123E-1	7.865680E-1	8.153809E-1	7.275043E-1	7.112986E-1	7.713874E-1	7.245051E-1	7.848624E-1	7.269789E-1	6.965145E-1	7.220347E-1	7.654990E-1	7.359477E-1	7.052873E-1	8.087540E-1	7.301462E-1	7.341023E-1	7.458349E-1	7.175653E-1	7.333286E-1	7.508302E-1	7.863990E-1	7.716657E-1	7.217369E-1	7.023873E-1	7.438056E-1	7.036644E-1	8.179288E-1	7.337720E-1	8.144033E-1	7.562452E-1	8.019545E-1	7.916846E-1	7.481804E-1	7.095141E-1	7.033608E-1	7.287135E-1	7.041636E-1	6.745081E-1	7.838005E-1	6.941320E-1	8.036892E-1	6.982085E-1	7.613770E-1	7.221919E-1	7.016687E-1	7.836105E-1	7.520747E-1	7.389952E-1	6.677515E-1	7.411126E-1	7.916926E-1	7.640094E-1	7.749925E-1	7.495035E-1	7.298289E-1	7.114428E-1	7.070996E-1	7.488034E-1	7.769222E-1	7.444672E-1	8.110187E-1	7.993450E-1	7.282203E-1	7.408620E-1	7.645286E-1	7.541883E-1	7.674466E-1	7.270368E-1	7.249827E-1	7.576266E-1	7.267153E-1	7.102398E-1	7.944947E-1	8.325873E-1	7.343972E-1	7.389724E-1	7.730957E-1	7.066382E-1	7.467249E-1	7.455536E-1	7.593224E-1	7.856281E-1	7.642679E-1	6.977651E-1	7.637636E-1	7.898602E-1	7.080688E-1	7.479309E-1	7.356301E-1	7.297084E-1	7.194832E-1	7.592482E-1	6.915909E-1	7.328726E-1	6.949827E-1	7.259998E-1	8.061778E-1	7.195107E-1	7.097684E-1	7.173699E-1	6.945668E-1	7.000442E-1	7.064315E-1	7.430594E-1	7.230881E-1	7.204681E-1	7.798371E-1	7.186436E-1	8.025547E-1	7.553468E-1	7.823596E-1	7.720803E-1	7.671792E-1	7.708602E-1
2.896060E+2	6.025031E-1	6.313005E-1	6.056621E-1	5.775425E-1	6.362446E-1	5.994987E-1	6.461199E-1	6.520246E-1	6.195064E-1	6.463965E-1	6.156772E-1	6.302300E-1	6.154941E-1	5.731532E-1	5.914646E-1	6.459447E-1	5.882400E-1	6.319382E-1	6.450999E-1	6.769233E-1	6.154170E-1	6.354165E-1	6.442009E-1	6.622057E-1	6.030468E-1	7.186530E-1	6.154606E-1	6.654844E-1	6.232128E-1	6.436597E-1	5.995829E-1	5.962245E-1	5.708234E-1	5.984192E-1	6.057530E-1	6.317729E-1	6.196578E-1	5.905662E-1	5.638421E-1	5.814038E-1	5.917204E-1	6.044504E-1	5.705763E-1	6.818659E-1	6.487751E-1	6.354767E-1	6.606995E-1	6.250864E-1	7.175719E-1	5.811742E-1	6.480386E-1	6.035158E-1	6.169384E-1	6.067801E-1	5.856382E-1	6.348697E-1	6.024598E-1	6.785862E-1	5.906788E-1	6.480048E-1	6.725841E-1	6.581179E-1	6.312791E-1	6.563451E-1	6.096404E-1	6.172972E-1	5.934448E-1	5.918230E-1	5.661631E-1	6.721204E-1	5.991493E-1	6.273311E-1	6.385366E-1	6.054355E-1	6.385894E-1	6.245663E-1	6.470383E-1	6.441364E-1	6.580449E-1	6.434664E-1	6.544372E-1	6.007428E-1	5.954308E-1	5.970344E-1	6.610194E-1	5.738746E-1	6.843863E-1	6.489382E-1	6.347607E-1	5.859607E-1	6.286721E-1	6.220591E-1	6.099257E-1	6.206950E-1	6.596054E-1	6.638338E-1	5.997575E-1	5.737909E-1	6.010258E-1	6.920229E-1	6.319139E-1	6.167309E-1	5.332795E-1	6.241024E-1	6.466825E-1	6.113362E-1	6.248155E-1	6.452593E-1	6.380137E-1	7.151375E-1	6.139320E-1	6.179269E-1	6.135162E-1	6.254554E-1	6.204075E-1	6.364506E-1	6.092091E-1	6.166014E-1	6.338098E-1	6.419602E-1	5.489089E-1	6.074132E-1	6.817699E-1	6.107555E-1	6.019075E-1	6.304158E-1	5.920612E-1	6.598662E-1	6.261375E-1	5.998725E-1	6.447176E-1	6.601261E-1	6.620151E-1	6.123554E-1	6.273798E-1	6.655521E-1	6.491870E-1	6.302830E-1	6.191873E-1	6.471256E-1	6.161304E-1	6.135802E-1	6.452416E-1	6.102598E-1	5.869867E-1	6.648048E-1	6.447290E-1	5.629456E-1	6.081419E-1	6.166732E-1	6.123131E-1	6.123797E-1	5.707186E-1	5.908494E-1	6.815008E-1	6.377717E-1	6.272911E-1	6.356783E-1	6.669181E-1	6.754704E-1	5.989861E-1	6.757833E-1	6.808195E-1	6.613565E-1	6.546974E-1	5.991744E-1	6.157550E-1	5.966416E-1	5.809478E-1	6.541754E-1	5.781879E-1	5.942954E-1
2.898030E+2	6.393373E-1	7.751573E-1	7.004718E-1	7.089696E-1	6.492546E-1	6.811264E-1	7.034663E-1	6.923699E-1	7.194984E-1	6.881432E-1	6.375137E-1	6.452012E-1	6.586522E-1	6.656239E-1	6.870418E-1	7.122780E-1	6.814999E-1	6.798306E-1	6.335405E-1	7.284173E-1	6.511673E-1	6.171094E-1	6.602210E-1	6.974953E-1	6.233345E-1	6.554362E-1	6.790174E-1	7.069021E-1	6.347692E-1	6.500224E-1	6.288590E-1	6.577160E-1	7.129092E-1	6.545942E-1	6.539797E-1	6.706964E-1	6.961989E-1	6.834941E-1	7.265218E-1	6.546370E-1	5.990317E-1	6.796789E-1	6.851815E-1	6.886108E-1	6.450889E-1	6.382608E-1	6.451900E-1	7.105493E-1	7.279905E-1	6.665881E-1	7.314926E-1	6.986371E-1	6.638566E-1	6.466170E-1	7.005198E-1	6.344640E-1	6.867301E-1	6.779593E-1	6.721331E-1	6.599713E-1	6.117282E-1	6.609097E-1	6.443553E-1	6.429623E-1	6.933993E-1	6.336289E-1	7.207220E-1	6.255334E-1	6.354168E-1	5.924536E-1	6.371659E-1	6.291161E-1	6.592489E-1	6.260681E-1	6.839845E-1	6.716750E-1	6.147706E-1	6.838289E-1	6.846755E-1	7.242194E-1	6.566144E-1	6.519163E-1	6.625270E-1	7.205163E-1	6.688460E-1	6.896793E-1	6.969395E-1	7.252227E-1	6.887734E-1	6.533571E-1	6.466620E-1	6.512207E-1	6.262509E-1	7.682117E-1	7.166506E-1	7.263727E-1	6.885770E-1	6.691444E-1	6.512750E-1	6.773420E-1	7.149499E-1	7.082713E-1	7.234512E-1	7.310099E-1	6.444939E-1	7.089568E-1	6.419712E-1	6.281949E-1	6.469899E-1	6.692986E-1	6.497234E-1	7.181522E-1	6.678690E-1	6.629819E-1	6.716529E-1	7.182057E-1	7.286513E-1	6.625981E-1	6.555550E-1	6.980219E-1	6.373577E-1	6.960212E-1	7.038556E-1	7.263988E-1	6.162451E-1	6.841503E-1	7.033209E-1	6.575158E-1	6.371788E-1	6.463394E-1	6.984423E-1	6.572243E-1	6.750718E-1	6.330195E-1	6.313636E-1	7.040686E-1	6.808620E-1	6.625255E-1	6.583889E-1	7.180966E-1	6.931310E-1	6.792819E-1	6.535570E-1	7.462231E-1	6.356730E-1	6.792046E-1	6.880494E-1	6.293754E-1	6.950931E-1	6.386839E-1	6.401970E-1	6.172826E-1	6.685402E-1	6.476478E-1	6.674114E-1	6.776342E-1	6.549291E-1	7.398604E-1	6.968009E-1	6.864441E-1	6.466223E-1	6.632301E-1	6.313773E-1	6.963339E-1	6.960304E-1	6.640145E-1	6.296418E-1	6.668488E-1	7.017648E-1	6.767984E-1	5.942756E-1	6.898055E-1
2.900050E+2	7.463118E-1	7.592108E-1	7.644665E-1	7.575125E-1	7.594437E-1	7.461370E-1	7.790745E-1	7.628088E-1	7.859777E-1	7.132542E-1	7.476078E-1	7.928034E-1	7.356377E-1	6.989783E-1	7.706598E-1	8.023097E-1	7.774913E-1	7.837940E-1	7.209194E-1	8.463668E-1	7.407654E-1	6.894560E-1	8.171539E-1	7.736133E-1	7.428018E-1	7.498541E-1	7.660457E-1	7.999767E-1	7.658724E-1	7.261274E-1	8.071450E-1	7.757197E-1	7.417012E-1	7.992910E-1	7.537305E-1	8.187123E-1	7.361962E-1	7.498912E-1	7.789676E-1	7.421838E-1	7.781051E-1	7.270867E-1	7.633290E-1	8.196935E-1	7.506874E-1	7.254878E-1	7.672619E-1	7.537932E-1	7.626420E-1	7.166410E-1	7.093923E-1	7.612941E-1	8.062100E-1	7.788475E-1	7.579507E-1	7.583125E-1	7.494987E-1	7.234429E-1	7.724767E-1	8.388721E-1	7.090520E-1	7.747996E-1	7.442880E-1	6.951317E-1	7.737206E-1	7.662733E-1	7.247713E-1	7.628121E-1	6.686411E-1	7.524440E-1	7.776996E-1	7.553543E-1	7.153952E-1	7.404033E-1	7.382567E-1	7.327674E-1	6.832857E-1	7.494616E-1	7.168569E-1	7.538736E-1	7.435103E-1	7.232770E-1	7.175555E-1	7.587064E-1	7.071245E-1	7.700728E-1	7.615749E-1	8.001013E-1	7.594556E-1	7.894520E-1	7.472723E-1	7.627918E-1	7.347199E-1	7.423071E-1	6.911194E-1	7.341143E-1	7.259562E-1	7.683235E-1	7.244235E-1	7.120426E-1	7.364177E-1	7.597587E-1	7.064833E-1	8.079492E-1	7.626512E-1	7.838638E-1	7.874378E-1	7.879564E-1	7.580714E-1	7.455212E-1	7.440459E-1	7.741522E-1	8.380164E-1	7.198214E-1	6.697988E-1	8.069983E-1	7.730764E-1	7.837733E-1	6.831992E-1	7.754416E-1	7.081726E-1	7.186444E-1	7.622321E-1	8.513384E-1	7.180898E-1	7.617433E-1	7.243646E-1	7.404249E-1	7.496211E-1	7.504068E-1	7.660638E-1	7.250968E-1	7.554577E-1	7.200513E-1	7.521030E-1	7.782974E-1	7.443560E-1	7.127122E-1	7.844849E-1	8.057145E-1	7.477837E-1	7.431513E-1	7.329452E-1	7.849779E-1	7.219772E-1	7.414180E-1	7.693967E-1	7.597532E-1	7.693601E-1	7.200110E-1	7.073588E-1	7.686733E-1	7.762411E-1	7.816100E-1	7.311789E-1	7.506998E-1	7.851125E-1	7.222384E-1	7.323414E-1	7.328527E-1	7.928320E-1	7.647905E-1	7.394155E-1	7.981789E-1	8.017635E-1	7.080762E-1	7.769143E-1	7.365153E-1	6.919894E-1	7.628578E-1	8.434056E-1	8.409761E-1
2.905310E+2	7.326434E-1	7.664195E-1	7.990374E-1	8.338639E-1	8.161749E-1	7.944758E-1	8.315626E-1	8.036314E-1	8.641543E-1	8.366526E-1	8.148488E-1	8.276042E-1	8.201248E-1	8.108872E-1	7.770047E-1	8.235678E-1	8.328345E-1	8.151818E-1	7.764581E-1	8.201173E-1	7.064509E-1	7.947033E-1	8.406693E-1	8.499680E-1	7.772806E-1	8.507956E-1	8.067190E-1	8.521631E-1	7.582709E-1	8.134253E-1	8.464670E-1	7.776598E-1	8.340872E-1	8.157928E-1	8.038102E-1	8.839333E-1	8.094118E-1	7.471602E-1	8.107466E-1	7.756179E-1	7.460236E-1	7.663536E-1	8.120347E-1	8.717602E-1	7.777680E-1	7.921111E-1	7.396432E-1	8.268731E-1	7.993542E-1	8.173157E-1	7.601283E-1	7.603479E-1	7.414703E-1	8.011532E-1	7.674769E-1	7.440115E-1	8.481373E-1	7.138761E-1	8.142225E-1	8.742831E-1	7.870945E-1	7.528408E-1	7.986412E-1	7.577618E-1	7.718886E-1	7.779759E-1	7.288760E-1	8.138058E-1	8.201224E-1	8.111358E-1	7.464801E-1	8.092129E-1	8.342953E-1	7.989913E-1	8.719106E-1	7.666986E-1	7.598955E-1	7.834059E-1	8.087937E-1	7.878525E-1	7.986697E-1	8.005210E-1	7.251943E-1	8.531678E-1	8.522230E-1	8.141725E-1	8.006730E-1	8.739068E-1	7.671230E-1	7.964684E-1	8.279474E-1	7.972197E-1	7.738422E-1	8.114700E-1	7.857383E-1	7.864754E-1	7.730720E-1	8.252226E-1	7.649952E-1	8.885165E-1	7.709524E-1	8.018998E-1	8.263440E-1	8.087399E-1	7.368690E-1	7.685665E-1	8.369637E-1	7.920269E-1	8.295898E-1	8.049438E-1	7.718409E-1	7.679258E-1	7.995847E-1	7.650202E-1	8.650690E-1	8.221369E-1	8.504552E-1	8.026157E-1	7.898905E-1	8.031576E-1	7.695713E-1	8.228908E-1	7.827539E-1	8.112895E-1	8.124042E-1	8.017081E-1	8.004242E-1	7.743200E-1	7.932052E-1	7.829567E-1	8.475487E-1	7.833098E-1	7.789383E-1	7.918246E-1	7.873307E-1	7.544233E-1	7.821760E-1	8.231907E-1	7.442310E-1	7.465840E-1	7.782770E-1	8.202129E-1	7.257883E-1	8.314843E-1	8.100824E-1	8.773027E-1	7.731647E-1	8.135839E-1	7.967859E-1	8.317642E-1	8.346074E-1	8.419093E-1	7.850138E-1	7.741697E-1	8.326673E-1	8.270123E-1	8.557766E-1	8.047068E-1	8.484957E-1	8.034196E-1	7.808137E-1	7.812753E-1	8.022910E-1	8.700798E-1	7.980381E-1	8.176519E-1	8.378834E-1	8.140520E-1	8.578648E-1	9.014968E-1	8.886310E-1	7.703131E-1
2.910030E+2	8.829820E-1	8.916091E-1	8.819505E-1	8.659325E-1	8.620354E-1	8.498186E-1	8.665780E-1	9.494631E-1	9.267415E-1	9.004538E-1	8.250929E-1	8.626233E-1	9.595974E-1	9.480779E-1	8.818900E-1	8.777075E-1	9.070658E-1	9.624768E-1	8.661055E-1	8.385311E-1	9.014730E-1	9.868452E-1	9.334807E-1	8.695172E-1	9.248262E-1	9.102910E-1	8.795701E-1	9.438492E-1	8.857177E-1	8.931316E-1	8.772367E-1	9.094355E-1	8.757759E-1	8.687359E-1	8.744845E-1	8.832804E-1	8.836390E-1	9.090756E-1	8.724028E-1	9.290111E-1	8.567683E-1	8.568912E-1	8.723671E-1	9.502714E-1	8.784549E-1	9.094116E-1	8.262562E-1	8.877361E-1	8.350550E-1	8.619180E-1	9.669032E-1	9.143998E-1	9.199868E-1	8.617700E-1	9.160785E-1	8.502948E-1	9.606271E-1	9.026821E-1	8.551795E-1	9.297233E-1	9.180903E-1	8.580612E-1	9.110527E-1	8.362148E-1	8.813513E-1	8.978126E-1	8.573303E-1	9.182276E-1	8.585579E-1	8.685855E-1	8.729297E-1	9.939031E-1	8.563128E-1	8.438407E-1	8.709703E-1	9.647351E-1	8.049865E-1	8.877577E-1	8.669192E-1	9.171651E-1	9.510937E-1	8.730320E-1	8.899259E-1	9.764057E-1	8.971589E-1	8.451329E-1	9.024867E-1	9.235335E-1	8.843061E-1	8.842427E-1	8.911675E-1	8.805649E-1	9.154013E-1	9.032406E-1	8.910441E-1	9.730273E-1	8.853279E-1	8.696131E-1	8.498816E-1	8.786638E-1	9.161689E-1	9.591530E-1	9.116210E-1	8.665279E-1	9.063062E-1	8.731335E-1	8.515030E-1	8.879397E-1	9.241759E-1	9.444165E-1	8.464374E-1	8.972425E-1	9.584001E-1	8.974604E-1	8.147884E-1	9.132773E-1	9.951805E-1	9.008737E-1	8.992928E-1	8.603985E-1	8.322138E-1	8.845123E-1	9.346771E-1	8.582503E-1	8.610595E-1	8.925443E-1	8.812388E-1	9.460918E-1	8.555411E-1	8.640844E-1	9.807847E-1	8.602260E-1	8.370274E-1	8.956498E-1	8.602324E-1	8.954697E-1	8.510677E-1	9.046469E-1	8.805408E-1	9.254332E-1	8.765136E-1	9.636999E-1	9.322009E-1	8.510705E-1	9.047249E-1	7.968036E-1	8.860358E-1	8.855602E-1	8.794719E-1	8.393730E-1	8.898784E-1	9.264770E-1	9.044729E-1	9.040525E-1	9.573679E-1	9.472622E-1	8.388372E-1	8.933736E-1	8.646601E-1	8.895381E-1	9.235105E-1	9.069644E-1	8.666205E-1	8.644881E-1	9.567639E-1	9.260304E-1	9.020871E-1	8.779661E-1	8.541545E-1	9.504745E-1	8.309758E-1	1.020696E+0
2.915180E+2	1.013886E+0	1.039513E+0	1.153132E+0	1.175192E+0	1.074876E+0	1.031230E+0	1.129971E+0	1.183966E+0	1.020572E+0	1.120465E+0	1.155923E+0	1.119305E+0	1.091504E+0	1.068348E+0	1.082435E+0	1.129809E+0	1.166008E+0	1.209663E+0	1.113773E+0	1.134376E+0	1.111350E+0	1.051469E+0	1.109991E+0	1.091229E+0	1.062982E+0	1.117247E+0	1.195573E+0	1.128456E+0	1.099240E+0	1.115871E+0	1.167111E+0	1.136244E+0	1.070362E+0	1.109633E+0	1.140897E+0	1.120650E+0	1.082074E+0	1.101112E+0	1.085090E+0	1.130333E+0	1.130484E+0	1.133406E+0	1.119109E+0	1.109754E+0	9.945356E-1	1.134114E+0	1.152328E+0	1.099734E+0	1.161753E+0	1.105109E+0	1.041475E+0	1.117391E+0	1.092326E+0	1.105379E+0	1.110962E+0	1.029274E+0	1.150623E+0	1.125628E+0	1.078640E+0	1.225009E+0	1.067309E+0	1.063455E+0	1.160150E+0	1.110844E+0	1.032887E+0	1.096288E+0	1.097675E+0	1.100611E+0	1.099465E+0	1.132503E+0	1.150664E+0	1.035847E+0	1.078227E+0	1.087910E+0	1.105337E+0	1.088435E+0	1.067117E+0	1.075066E+0	1.145340E+0	1.147691E+0	1.079826E+0	1.109129E+0	1.094788E+0	1.076093E+0	1.212706E+0	1.120973E+0	1.190979E+0	1.088438E+0	1.049687E+0	1.112157E+0	1.060472E+0	1.138864E+0	1.066900E+0	1.095984E+0	1.096500E+0	1.128667E+0	1.087996E+0	1.129707E+0	1.146873E+0	1.118211E+0	1.149504E+0	1.134087E+0	1.079522E+0	1.151483E+0	1.221854E+0	1.135222E+0	1.061920E+0	1.177938E+0	1.085359E+0	1.095479E+0	9.900087E-1	1.164974E+0	1.219041E+0	1.048695E+0	1.124097E+0	1.184948E+0	1.111137E+0	1.012615E+0	1.121984E+0	1.150813E+0	1.021423E+0	1.036627E+0	1.043539E+0	1.151667E+0	1.100950E+0	1.146400E+0	1.139661E+0	1.111669E+0	1.080884E+0	1.110496E+0	1.103184E+0	1.140853E+0	1.128826E+0	1.106012E+0	1.029558E+0	1.224580E+0	1.190149E+0	1.133818E+0	1.150517E+0	1.096637E+0	1.100932E+0	1.153477E+0	1.153324E+0	1.111574E+0	1.102670E+0	1.037298E+0	1.097106E+0	1.160942E+0	1.121557E+0	1.084127E+0	1.064787E+0	1.122076E+0	1.084208E+0	1.048973E+0	1.089508E+0	1.100718E+0	1.102831E+0	1.151367E+0	1.060204E+0	1.162809E+0	1.124871E+0	1.185835E+0	1.090968E+0	1.062440E+0	1.117567E+0	1.083229E+0	1.167648E+0	1.080665E+0	1.086223E+0	1.181387E+0	1.125856E+0	1.084251E+0
2.920010E+2	1.119723E+0	1.024533E+0	1.033112E+0	9.969507E-1	9.960891E-1	9.657443E-1	9.818889E-1	1.019966E+0	1.031252E+0	1.078979E+0	1.002752E+0	9.762828E-1	1.073494E+0	9.906813E-1	9.525810E-1	1.004033E+0	9.823946E-1	1.040601E+0	9.778958E-1	9.774372E-1	1.051317E+0	9.935390E-1	1.021393E+0	1.040908E+0	1.022816E+0	9.762906E-1	1.016403E+0	1.049305E+0	1.064835E+0	9.976582E-1	1.030790E+0	1.019133E+0	9.744236E-1	1.049119E+0	9.558675E-1	1.052247E+0	9.915544E-1	1.032782E+0	1.073882E+0	1.000107E+0	1.003877E+0	1.054555E+0	9.605678E-1	1.004952E+0	1.019572E+0	9.422940E-1	1.051611E+0	1.036546E+0	9.944090E-1	1.032277E+0	9.353591E-1	1.028023E+0	1.087754E+0	1.026344E+0	1.023263E+0	9.657720E-1	1.045370E+0	9.904434E-1	1.017765E+0	1.090090E+0	9.748496E-1	1.018683E+0	1.001743E+0	1.026986E+0	1.032617E+0	1.001527E+0	9.582410E-1	1.032339E+0	1.081637E+0	1.003703E+0	1.093077E+0	1.067773E+0	9.787467E-1	9.681292E-1	9.251088E-1	1.109677E+0	9.711879E-1	9.725671E-1	9.687852E-1	1.010268E+0	9.622266E-1	9.935161E-1	9.873540E-1	1.118384E+0	1.003056E+0	9.982585E-1	9.930858E-1	1.052442E+0	9.632662E-1	1.091883E+0	9.984969E-1	1.088633E+0	9.450019E-1	9.877509E-1	1.023711E+0	1.088277E+0	1.006191E+0	9.372430E-1	1.050712E+0	9.376175E-1	9.870575E-1	9.959557E-1	9.857731E-1	1.015159E+0	1.005929E+0	9.629411E-1	9.867334E-1	8.864196E-1	1.004333E+0	9.257264E-1	9.971541E-1	1.004465E+0	1.078566E+0	9.869104E-1	1.057057E+0	1.055300E+0	1.038907E+0	9.536256E-1	1.049077E+0	1.069154E+0	1.035501E+0	9.759708E-1	1.018475E+0	1.041632E+0	1.024903E+0	1.051900E+0	1.056459E+0	9.573123E-1	1.003774E+0	9.983408E-1	9.792879E-1	9.536489E-1	1.046527E+0	1.071701E+0	1.034100E+0	1.067252E+0	1.058408E+0	1.022349E+0	9.590694E-1	9.452001E-1	1.014684E+0	1.014862E+0	1.005388E+0	1.015361E+0	9.485296E-1	9.995130E-1	9.943827E-1	1.054266E+0	1.056152E+0	1.020893E+0	9.913268E-1	1.026662E+0	1.048056E+0	9.608833E-1	9.676513E-1	1.009976E+0	1.014806E+0	1.008002E+0	9.964853E-1	9.718558E-1	1.042288E+0	1.001641E+0	1.003530E+0	9.405798E-1	1.024103E+0	1.037196E+0	1.116079E+0	1.025699E+0	9.229075E-1	1.045149E+0	8.794651E-1	9.397179E-1
2.925020E+2	9.556022E-1	1.058762E+0	1.050070E+0	9.803622E-1	1.072363E+0	9.524118E-1	1.016582E+0	1.069732E+0	1.097672E+0	1.008598E+0	1.009388E+0	1.050791E+0	1.053403E+0	1.069364E+0	9.137536E-1	1.028963E+0	9.793314E-1	1.092097E+0	1.057600E+0	1.080505E+0	1.005625E+0	9.672242E-1	9.905933E-1	1.096571E+0	9.625141E-1	9.860912E-1	1.035009E+0	1.076605E+0	1.018865E+0	9.897267E-1	1.020838E+0	1.017439E+0	9.852442E-1	9.792170E-1	1.086602E+0	1.011494E+0	1.029862E+0	9.442604E-1	1.012007E+0	1.015763E+0	9.712182E-1	1.028653E+0	1.010525E+0	1.113746E+0	9.979540E-1	9.993284E-1	1.016577E+0	1.023025E+0	1.058657E+0	9.299445E-1	9.596617E-1	1.041274E+0	9.300871E-1	1.008688E+0	9.398097E-1	9.395533E-1	9.155536E-1	1.000065E+0	1.001471E+0	1.056417E+0	9.754963E-1	9.886714E-1	1.000824E+0	1.088502E+0	9.994478E-1	1.043366E+0	1.050668E+0	1.001066E+0	1.030646E+0	1.108298E+0	1.081386E+0	1.036143E+0	1.034046E+0	1.037607E+0	9.845918E-1	1.074392E+0	9.557897E-1	9.572439E-1	1.006170E+0	9.083732E-1	1.050630E+0	1.023791E+0	9.875796E-1	1.155052E+0	9.306233E-1	9.453411E-1	1.126401E+0	1.106548E+0	1.021700E+0	1.006773E+0	9.827346E-1	1.057089E+0	8.804321E-1	1.044226E+0	9.460846E-1	1.034941E+0	1.042483E+0	1.036617E+0	9.949976E-1	1.085867E+0	9.623351E-1	1.002452E+0	1.040991E+0	9.951136E-1	9.593602E-1	9.974356E-1	9.839279E-1	1.083312E+0	1.026294E+0	1.030084E+0	1.019734E+0	9.586215E-1	1.050153E+0	9.549472E-1	1.001746E+0	1.056279E+0	1.002286E+0	1.040319E+0	1.039532E+0	1.071078E+0	1.019751E+0	1.037522E+0	1.055191E+0	1.088064E+0	1.004416E+0	1.001506E+0	1.048311E+0	1.071061E+0	9.965230E-1	9.772376E-1	1.007903E+0	1.009125E+0	1.018406E+0	9.470930E-1	1.006637E+0	1.086832E+0	1.025159E+0	1.013724E+0	1.005838E+0	9.943961E-1	9.382316E-1	9.326957E-1	1.040150E+0	1.080955E+0	1.031630E+0	1.086015E+0	1.017599E+0	9.772552E-1	9.222427E-1	1.002019E+0	1.027593E+0	1.087692E+0	9.921531E-1	1.073481E+0	9.970064E-1	9.953448E-1	1.023407E+0	9.362125E-1	9.875943E-1	1.034660E+0	1.058875E+0	1.032098E+0	1.011003E+0	1.007847E+0	1.028061E+0	9.800510E-1	1.074424E+0	1.110334E+0	1.021210E+0	1.043112E+0	1.194831E+0	1.026113E+0
2.930050E+2	8.614467E-1	9.315928E-1	9.604989E-1	1.037347E+0	9.324454E-1	9.980666E-1	9.714667E-1	9.509006E-1	9.832841E-1	9.228030E-1	9.340977E-1	9.400483E-1	1.024612E+0	9.592640E-1	9.212202E-1	9.222304E-1	9.411046E-1	9.705706E-1	9.142910E-1	9.628172E-1	9.156876E-1	9.470416E-1	9.534020E-1	1.004499E+0	9.128488E-1	9.434411E-1	9.668071E-1	9.369329E-1	9.253954E-1	8.843319E-1	9.169319E-1	9.615989E-1	9.476677E-1	9.406284E-1	8.782800E-1	9.090656E-1	8.955142E-1	9.142869E-1	9.120139E-1	9.414958E-1	8.860450E-1	9.601403E-1	9.007565E-1	9.946712E-1	9.969917E-1	1.031937E+0	9.094311E-1	9.228558E-1	9.808935E-1	9.395467E-1	9.654378E-1	9.256625E-1	9.800835E-1	8.974516E-1	9.681238E-1	9.079116E-1	9.366786E-1	8.798371E-1	9.634561E-1	1.006660E+0	9.459855E-1	9.060131E-1	9.212104E-1	1.000551E+0	8.932995E-1	9.223484E-1	9.695908E-1	8.896864E-1	9.113223E-1	1.003309E+0	9.284813E-1	9.565734E-1	9.422894E-1	9.683361E-1	9.716253E-1	9.252450E-1	1.008616E+0	9.647301E-1	9.561342E-1	9.430104E-1	8.914934E-1	9.565793E-1	9.733374E-1	9.821393E-1	9.314457E-1	9.435302E-1	9.640256E-1	1.013704E+0	9.972648E-1	9.527451E-1	1.003753E+0	1.030106E+0	9.578261E-1	9.505978E-1	8.507415E-1	1.010390E+0	9.456765E-1	9.494672E-1	9.483000E-1	1.018120E+0	8.734117E-1	8.939822E-1	9.610512E-1	9.278351E-1	9.761569E-1	8.727988E-1	8.943227E-1	9.703350E-1	9.201713E-1	9.848676E-1	9.289653E-1	9.631577E-1	9.681739E-1	9.398834E-1	9.225558E-1	9.932225E-1	9.935338E-1	9.843795E-1	9.534540E-1	9.500526E-1	9.073176E-1	9.268784E-1	9.233061E-1	1.021092E+0	9.335611E-1	9.545299E-1	9.483527E-1	1.007721E+0	9.530439E-1	8.883317E-1	9.913906E-1	8.601617E-1	9.967538E-1	9.404191E-1	9.214513E-1	9.367111E-1	9.518213E-1	9.693444E-1	9.166615E-1	1.027451E+0	9.562253E-1	9.253883E-1	1.018434E+0	9.353855E-1	8.746347E-1	9.161875E-1	9.227288E-1	9.356277E-1	9.844829E-1	9.398116E-1	9.215984E-1	1.016698E+0	8.726872E-1	8.768514E-1	8.787579E-1	9.281683E-1	9.335315E-1	9.393000E-1	9.512168E-1	9.053059E-1	9.483930E-1	9.749518E-1	9.456984E-1	9.428401E-1	9.832592E-1	9.099098E-1	9.678667E-1	9.389439E-1	9.683385E-1	1.046021E+0	8.845752E-1	9.847693E-1
2.935120E+2	1.012534E+0	1.001346E+0	9.439816E-1	9.954899E-1	9.569103E-1	9.788194E-1	9.702588E-1	9.391627E-1	9.731912E-1	9.743711E-1	9.782499E-1	8.947988E-1	9.871929E-1	9.706247E-1	9.571651E-1	9.695528E-1	9.221957E-1	1.007084E+0	9.783709E-1	9.408469E-1	8.578363E-1	8.733791E-1	9.849851E-1	9.437750E-1	9.756714E-1	9.978942E-1	9.811130E-1	9.815762E-1	9.731540E-1	9.216193E-1	9.346565E-1	9.903374E-1	1.021715E+0	9.864658E-1	9.408015E-1	9.478019E-1	9.980910E-1	1.002887E+0	9.907745E-1	9.571576E-1	9.865160E-1	9.582570E-1	9.582224E-1	9.844097E-1	9.797689E-1	9.704932E-1	9.628154E-1	1.014482E+0	9.886312E-1	9.529045E-1	9.421090E-1	9.960134E-1	8.916905E-1	9.596645E-1	9.840548E-1	9.625128E-1	9.778689E-1	9.164447E-1	9.949326E-1	1.054162E+0	9.560070E-1	1.007129E+0	9.781191E-1	9.651988E-1	9.753884E-1	9.521618E-1	9.256448E-1	1.001637E+0	9.139085E-1	8.877651E-1	9.651498E-1	1.018881E+0	9.422163E-1	9.409558E-1	1.007548E+0	9.742212E-1	9.062207E-1	9.377799E-1	9.790758E-1	9.004528E-1	9.981550E-1	9.223326E-1	8.946773E-1	1.003164E+0	9.274031E-1	9.730769E-1	9.783607E-1	8.985532E-1	9.911583E-1	9.699869E-1	9.355453E-1	1.059103E+0	9.362381E-1	9.513230E-1	9.374127E-1	1.022911E+0	9.670130E-1	1.006690E+0	1.004333E+0	9.742445E-1	9.058697E-1	9.365096E-1	9.322727E-1	1.015827E+0	1.009117E+0	9.564201E-1	9.854194E-1	8.894412E-1	1.002946E+0	9.954604E-1	9.089892E-1	9.944585E-1	9.861446E-1	8.982405E-1	9.352656E-1	9.568529E-1	1.009951E+0	9.612703E-1	1.007137E+0	9.931733E-1	9.824133E-1	1.003430E+0	9.037252E-1	1.071938E+0	9.389897E-1	1.018486E+0	9.825327E-1	9.291137E-1	1.034748E+0	9.022608E-1	1.142719E+0	9.493115E-1	9.149370E-1	9.859983E-1	9.270111E-1	9.424574E-1	8.903963E-1	1.011096E+0	9.628970E-1	9.907607E-1	9.666268E-1	9.461960E-1	9.713479E-1	9.541452E-1	9.797415E-1	9.680162E-1	8.623457E-1	9.093130E-1	9.712472E-1	9.179348E-1	9.333998E-1	9.466079E-1	9.801466E-1	9.324505E-1	9.430507E-1	9.706583E-1	1.004178E+0	9.136546E-1	9.483570E-1	1.029154E+0	1.026898E+0	9.039389E-1	9.346488E-1	1.019144E+0	1.046757E+0	9.870337E-1	9.839505E-1	9.387046E-1	9.161991E-1	9.805506E-1	9.982859E-1	8.857630E-1
2.940100E+2	1.019516E+0	1.011864E+0	1.040007E+0	1.097819E+0	9.655011E-1	1.000553E+0	1.090050E+0	9.803595E-1	1.045635E+0	1.009668E+0	9.479590E-1	9.590161E-1	1.097229E+0	1.033321E+0	1.039157E+0	1.002837E+0	1.011663E+0	1.031876E+0	1.055523E+0	9.762600E-1	9.760524E-1	9.665203E-1	1.014896E+0	1.036747E+0	1.018594E+0	1.057469E+0	1.030296E+0	1.050674E+0	1.018978E+0	1.084851E+0	1.009312E+0	1.041121E+0	1.031776E+0	1.037271E+0	1.091384E+0	1.048466E+0	1.030402E+0	1.025680E+0	9.862846E-1	9.903747E-1	1.035291E+0	1.031529E+0	1.039755E+0	1.025558E+0	9.417520E-1	9.865182E-1	9.981702E-1	9.599547E-1	1.040177E+0	1.004184E+0	9.832703E-1	1.009409E+0	1.066208E+0	1.068301E+0	1.055056E+0	1.104229E+0	1.021099E+0	9.367120E-1	9.332328E-1	1.058637E+0	1.018865E+0	1.002268E+0	1.032060E+0	9.521756E-1	9.918451E-1	1.017698E+0	1.038030E+0	1.053666E+0	9.710287E-1	9.976305E-1	9.416716E-1	1.030244E+0	1.034040E+0	9.732177E-1	1.048599E+0	1.069050E+0	1.015037E+0	9.688975E-1	1.045379E+0	9.458322E-1	1.012608E+0	1.039811E+0	1.004412E+0	1.063419E+0	9.815797E-1	8.490211E-1	1.079840E+0	1.051740E+0	1.036350E+0	1.121476E+0	1.019151E+0	1.040350E+0	9.728644E-1	1.001555E+0	1.036159E+0	1.081406E+0	1.051148E+0	9.467475E-1	1.008470E+0	1.055361E+0	1.078330E+0	9.665736E-1	9.690475E-1	9.930385E-1	1.022174E+0	1.011730E+0	1.028602E+0	1.076926E+0	1.020756E+0	1.022269E+0	1.059993E+0	1.052762E+0	1.087247E+0	1.053840E+0	1.037758E+0	9.412062E-1	1.051097E+0	1.018362E+0	9.751118E-1	1.037981E+0	9.764115E-1	1.026736E+0	1.069043E+0	1.023754E+0	9.627470E-1	1.070054E+0	9.928826E-1	1.022260E+0	1.018727E+0	1.007193E+0	1.079441E+0	9.517160E-1	1.009088E+0	9.686009E-1	1.031824E+0	1.011418E+0	1.013509E+0	9.734087E-1	9.972365E-1	1.085006E+0	9.671305E-1	9.947160E-1	1.016352E+0	1.032649E+0	9.462516E-1	9.446342E-1	9.695758E-1	9.953658E-1	9.711742E-1	1.045145E+0	1.028146E+0	1.001537E+0	1.014335E+0	9.513117E-1	9.693336E-1	1.035955E+0	1.042499E+0	9.992498E-1	1.024920E+0	1.072137E+0	1.120219E+0	9.673463E-1	1.069816E+0	9.978095E-1	1.041974E+0	1.077907E+0	1.009722E+0	1.029791E+0	9.555373E-1	1.033112E+0	1.076063E+0	9.354621E-1
2.945010E+2	1.032508E+0	1.067965E+0	1.090567E+0	1.065861E+0	1.031461E+0	1.008542E+0	1.071725E+0	1.063737E+0	1.081199E+0	1.098484E+0	1.122317E+0	9.822898E-1	1.058846E+0	1.075362E+0	1.000262E+0	1.132684E+0	1.017319E+0	1.048641E+0	1.073570E+0	1.048217E+0	1.061249E+0	1.024401E+0	1.021307E+0	1.120247E+0	1.051575E+0	1.013544E+0	1.030113E+0	1.075214E+0	1.056817E+0	1.037468E+0	1.064963E+0	1.027906E+0	1.058630E+0	1.123653E+0	1.007565E+0	1.043420E+0	1.104606E+0	1.089151E+0	1.009143E+0	1.021346E+0	1.054068E+0	1.061191E+0	1.111232E+0	1.097302E+0	1.027431E+0	1.098101E+0	1.013642E+0	1.044045E+0	1.143588E+0	1.023877E+0	9.917055E-1	9.701729E-1	1.047004E+0	9.880950E-1	1.057263E+0	1.008739E+0	1.001190E+0	1.029548E+0	1.056305E+0	1.063167E+0	1.095460E+0	9.852313E-1	1.074819E+0	9.866408E-1	1.024281E+0	1.036595E+0	1.021452E+0	9.741319E-1	1.028972E+0	1.059312E+0	1.073092E+0	1.072579E+0	1.023397E+0	1.064371E+0	1.057016E+0	9.640897E-1	1.017218E+0	1.014818E+0	1.011966E+0	1.080614E+0	9.969087E-1	1.022368E+0	1.104681E+0	1.055565E+0	1.062214E+0	1.094981E+0	1.061083E+0	1.097710E+0	1.057528E+0	1.094614E+0	1.072655E+0	1.053161E+0	9.919290E-1	1.029813E+0	1.026312E+0	1.037654E+0	1.088020E+0	1.102057E+0	1.053131E+0	1.067314E+0	1.019188E+0	1.032943E+0	9.786920E-1	9.993250E-1	1.063330E+0	1.073092E+0	1.077125E+0	1.093225E+0	1.057828E+0	1.120363E+0	1.019990E+0	9.753394E-1	1.104983E+0	1.032629E+0	1.075550E+0	1.094770E+0	1.064883E+0	1.074219E+0	1.024781E+0	1.041728E+0	1.057838E+0	1.060208E+0	1.086507E+0	1.052540E+0	1.031186E+0	1.045835E+0	1.063950E+0	1.001320E+0	1.031091E+0	1.011022E+0	1.112322E+0	1.028540E+0	1.031898E+0	9.828611E-1	1.056328E+0	1.100889E+0	1.098534E+0	1.098806E+0	9.877950E-1	1.067545E+0	1.044112E+0	9.974830E-1	1.055373E+0	1.075101E+0	9.595653E-1	1.063442E+0	1.069974E+0	1.079606E+0	1.025223E+0	9.970191E-1	1.081393E+0	1.124926E+0	1.068039E+0	1.051469E+0	9.701580E-1	1.044954E+0	1.127623E+0	1.062399E+0	1.043680E+0	1.058515E+0	1.145353E+0	1.062560E+0	1.003557E+0	1.104405E+0	1.150039E+0	1.112022E+0	1.110730E+0	1.017138E+0	1.071900E+0	9.679403E-1	9.889672E-1	1.059692E+0
2.950050E+2	9.819146E-1	1.012913E+0	9.918696E-1	1.018286E+0	1.006485E+0	1.050834E+0	1.017578E+0	1.023548E+0	1.066706E+0	9.899641E-1	1.021694E+0	1.024581E+0	1.036797E+0	9.731640E-1	9.916592E-1	1.002439E+0	1.031934E+0	9.757473E-1	1.051562E+0	9.800171E-1	1.037058E+0	9.429861E-1	1.055371E+0	1.031587E+0	1.000412E+0	1.014364E+0	1.027889E+0	1.020011E+0	9.524864E-1	9.951020E-1	1.002060E+0	1.054293E+0	9.984108E-1	1.055788E+0	1.032714E+0	1.032310E+0	1.032618E+0	1.023114E+0	1.029274E+0	1.035152E+0	1.000845E+0	1.008261E+0	1.062638E+0	1.043728E+0	9.976649E-1	1.002654E+0	1.030693E+0	9.681592E-1	1.050302E+0	9.885327E-1	1.077232E+0	9.995794E-1	9.822218E-1	1.000127E+0	9.713068E-1	9.814132E-1	1.033101E+0	1.016776E+0	9.806245E-1	1.045222E+0	9.495498E-1	1.019673E+0	1.005026E+0	9.689562E-1	9.830078E-1	1.010380E+0	9.702439E-1	1.042469E+0	1.048309E+0	1.034896E+0	9.835914E-1	1.013762E+0	9.948683E-1	1.017175E+0	9.625419E-1	9.673219E-1	9.739736E-1	9.935092E-1	1.030625E+0	9.648072E-1	9.643478E-1	1.021555E+0	1.014301E+0	1.078771E+0	9.905180E-1	1.012247E+0	9.992742E-1	1.046371E+0	1.023324E+0	1.036654E+0	1.060846E+0	9.586516E-1	1.047109E+0	1.013996E+0	9.784159E-1	1.015549E+0	1.012539E+0	9.667311E-1	9.809121E-1	1.061993E+0	9.702301E-1	1.078017E+0	9.590013E-1	1.018180E+0	1.054422E+0	9.623661E-1	1.038977E+0	1.067669E+0	1.027276E+0	1.064323E+0	1.025271E+0	1.044185E+0	1.019718E+0	9.949813E-1	1.066094E+0	1.052168E+0	1.027429E+0	1.028965E+0	9.617416E-1	1.014041E+0	1.039077E+0	1.076931E+0	1.027438E+0	1.150476E+0	9.569569E-1	1.033013E+0	9.499257E-1	9.862325E-1	1.013631E+0	9.685834E-1	1.057081E+0	1.043000E+0	1.047092E+0	1.028709E+0	1.039145E+0	1.169361E+0	1.000398E+0	1.070541E+0	1.014640E+0	1.004215E+0	1.052209E+0	9.993693E-1	1.001455E+0	1.061840E+0	9.663322E-1	1.028040E+0	1.027483E+0	1.015335E+0	1.007996E+0	9.730891E-1	9.933354E-1	9.653123E-1	1.044909E+0	9.783824E-1	1.037587E+0	1.085331E+0	9.650128E-1	1.025755E+0	1.028403E+0	1.037764E+0	9.993347E-1	1.054646E+0	1.033501E+0	1.066155E+0	1.054274E+0	1.044146E+0	9.383861E-1	1.026016E+0	1.031236E+0	1.006567E+0	9.451353E-1	1.070047E+0
2.955030E+2	9.195082E-1	1.030754E+0	1.083680E+0	9.255270E-1	1.046080E+0	1.066585E+0	1.049908E+0	9.679821E-1	1.056126E+0	1.032145E+0	9.640696E-1	1.043778E+0	9.871851E-1	1.063391E+0	1.010730E+0	1.037358E+0	9.886145E-1	1.045617E+0	1.065011E+0	1.053670E+0	1.022977E+0	1.042208E+0	1.016894E+0	1.062887E+0	9.597130E-1	1.039746E+0	9.941274E-1	1.038354E+0	1.048910E+0	1.021059E+0	9.951248E-1	9.903788E-1	1.052716E+0	1.040336E+0	9.849505E-1	1.068510E+0	1.046645E+0	1.019026E+0	1.018563E+0	9.994145E-1	1.031864E+0	1.045901E+0	1.078321E+0	1.045279E+0	9.754136E-1	9.353912E-1	1.031162E+0	1.045362E+0	1.148913E+0	9.463112E-1	1.028729E+0	9.529923E-1	1.074309E+0	9.211633E-1	1.044593E+0	1.004203E+0	1.037462E+0	1.011409E+0	9.444958E-1	1.118904E+0	1.047609E+0	1.002536E+0	9.808054E-1	9.558129E-1	1.011532E+0	1.024036E+0	9.380080E-1	9.850361E-1	9.769309E-1	1.023942E+0	9.871583E-1	9.544646E-1	1.049369E+0	1.067914E+0	9.880874E-1	9.564615E-1	9.575316E-1	1.021087E+0	1.023477E+0	9.655382E-1	1.007535E+0	1.022726E+0	1.040684E+0	1.059084E+0	9.844038E-1	9.935999E-1	1.061897E+0	1.015455E+0	1.015792E+0	1.065372E+0	1.022854E+0	1.049531E+0	9.421377E-1	1.032746E+0	1.026896E+0	1.042305E+0	1.024928E+0	9.589999E-1	1.028572E+0	9.738730E-1	9.428134E-1	1.036340E+0	1.015571E+0	1.061549E+0	1.153500E+0	1.007431E+0	1.048583E+0	1.008702E+0	1.023170E+0	1.075310E+0	1.022453E+0	9.891878E-1	1.003906E+0	1.020021E+0	9.841722E-1	1.028444E+0	1.088749E+0	9.638037E-1	1.033055E+0	9.798965E-1	9.638211E-1	1.039388E+0	1.035558E+0	1.091189E+0	1.038357E+0	9.609894E-1	9.989973E-1	1.029878E+0	1.083894E+0	9.957501E-1	1.027798E+0	1.027967E+0	9.928067E-1	9.943081E-1	9.888954E-1	1.012269E+0	9.807529E-1	1.015187E+0	9.773949E-1	1.039281E+0	1.013895E+0	1.047497E+0	9.657093E-1	1.078157E+0	1.000170E+0	9.678325E-1	9.765636E-1	9.492930E-1	9.941308E-1	1.005190E+0	1.023794E+0	9.912969E-1	1.015608E+0	9.827421E-1	1.060247E+0	1.020120E+0	9.662437E-1	9.786270E-1	1.018298E+0	1.019845E+0	1.019636E+0	9.753685E-1	1.052172E+0	1.044566E+0	1.033508E+0	1.035238E+0	9.989329E-1	1.001711E+0	1.061745E+0	9.888103E-1	1.037002E+0	9.262501E-1
2.960030E+2	1.132117E+0	1.067456E+0	1.111671E+0	1.129676E+0	1.088479E+0	1.006447E+0	1.127557E+0	1.082414E+0	1.060506E+0	1.061487E+0	1.059817E+0	1.036260E+0	1.109305E+0	1.118803E+0	1.066463E+0	1.124511E+0	1.060022E+0	1.166684E+0	1.125140E+0	1.135175E+0	1.135631E+0	1.061568E+0	1.130339E+0	1.133806E+0	1.057805E+0	1.114224E+0	1.101518E+0	1.040820E+0	1.095760E+0	1.021420E+0	1.055628E+0	1.057273E+0	1.063349E+0	1.137940E+0	1.092310E+0	1.125431E+0	1.053600E+0	1.064350E+0	1.089572E+0	1.044701E+0	1.042570E+0	1.138444E+0	1.093301E+0	1.140614E+0	1.069293E+0	1.085818E+0	1.146575E+0	1.047861E+0	1.149699E+0	1.070943E+0	1.088890E+0	1.060965E+0	1.119080E+0	1.057043E+0	1.053916E+0	1.074476E+0	1.121281E+0	1.151553E+0	9.951526E-1	1.199128E+0	1.020191E+0	1.103071E+0	1.140538E+0	1.050966E+0	1.063096E+0	1.059437E+0	1.109902E+0	1.136384E+0	1.103704E+0	1.144405E+0	1.099883E+0	1.100014E+0	1.099677E+0	1.078813E+0	1.105069E+0	1.042697E+0	1.086441E+0	1.055251E+0	1.097291E+0	1.140680E+0	1.073392E+0	1.146711E+0	1.107537E+0	1.127005E+0	1.104211E+0	1.014058E+0	1.120938E+0	1.121693E+0	1.058044E+0	1.042753E+0	1.067709E+0	1.064122E+0	1.047336E+0	1.115388E+0	1.116285E+0	1.093030E+0	1.061073E+0	1.149736E+0	1.071673E+0	1.067458E+0	1.057205E+0	1.110482E+0	1.058325E+0	1.044543E+0	1.115420E+0	1.091562E+0	1.127166E+0	1.105259E+0	1.103414E+0	1.124896E+0	1.030501E+0	1.072897E+0	1.138857E+0	1.080113E+0	1.081375E+0	1.125467E+0	1.128537E+0	1.068168E+0	1.175672E+0	1.063249E+0	1.067407E+0	1.071436E+0	1.112479E+0	1.077852E+0	1.154660E+0	1.066754E+0	1.054590E+0	1.059466E+0	1.117741E+0	1.094160E+0	1.093068E+0	1.030762E+0	1.138901E+0	1.139849E+0	1.032189E+0	1.145250E+0	1.144242E+0	1.109381E+0	1.084378E+0	1.017134E+0	1.063084E+0	1.068775E+0	1.071695E+0	1.056664E+0	1.028495E+0	1.098960E+0	1.136142E+0	1.095149E+0	1.049346E+0	1.069985E+0	1.125426E+0	1.157590E+0	1.104911E+0	1.095625E+0	1.055370E+0	1.105112E+0	1.081727E+0	1.071712E+0	1.083598E+0	1.066890E+0	1.129090E+0	1.069551E+0	1.057109E+0	1.045763E+0	1.116560E+0	1.012434E+0	1.096625E+0	1.092262E+0	1.062587E+0	1.030431E+0	1.069626E+0	9.962155E-1
2.964960E+2	1.136908E+0	1.059021E+0	1.141329E+0	1.030317E+0	1.024221E+0	1.038247E+0	1.090852E+0	1.116225E+0	1.098836E+0	1.088033E+0	9.970323E-1	9.765858E-1	1.117318E+0	1.076771E+0	1.059885E+0	1.068010E+0	1.027417E+0	1.043103E+0	1.016932E+0	1.087085E+0	1.027056E+0	1.005767E+0	1.059086E+0	1.033432E+0	9.980411E-1	1.062820E+0	1.029287E+0	1.035373E+0	1.082319E+0	1.083415E+0	1.057673E+0	1.034679E+0	1.066878E+0	1.061183E+0	1.043334E+0	1.058352E+0	1.054979E+0	1.092045E+0	1.084914E+0	1.004709E+0	1.014247E+0	1.056374E+0	1.035173E+0	1.047135E+0	1.037453E+0	1.034637E+0	9.596482E-1	1.057947E+0	1.095365E+0	1.055567E+0	1.077334E+0	1.004245E+0	1.123342E+0	1.068926E+0	1.041301E+0	1.085970E+0	1.044776E+0	1.010945E+0	1.076995E+0	1.024174E+0	1.037150E+0	1.065770E+0	1.024861E+0	1.025612E+0	9.815096E-1	1.007841E+0	1.058970E+0	1.082225E+0	1.036265E+0	1.046921E+0	1.047524E+0	1.056961E+0	1.062698E+0	1.011324E+0	1.080693E+0	1.003355E+0	9.546904E-1	1.052679E+0	1.074688E+0	1.100066E+0	1.023721E+0	1.038336E+0	1.074768E+0	1.097017E+0	1.025794E+0	1.001171E+0	1.079397E+0	1.087782E+0	1.054161E+0	1.097117E+0	9.951282E-1	1.013500E+0	1.089178E+0	1.021077E+0	1.036097E+0	1.043197E+0	1.107263E+0	9.902384E-1	1.013042E+0	1.026518E+0	1.062673E+0	1.106682E+0	1.051007E+0	1.055437E+0	1.116091E+0	1.088766E+0	1.057408E+0	1.047537E+0	1.027314E+0	1.048896E+0	1.002810E+0	1.008373E+0	9.934685E-1	1.058204E+0	1.049912E+0	1.037629E+0	1.072822E+0	1.081306E+0	1.061084E+0	1.018755E+0	1.008273E+0	1.092406E+0	9.766236E-1	1.052105E+0	1.003709E+0	1.014436E+0	9.836503E-1	1.042824E+0	1.014590E+0	1.030644E+0	1.048221E+0	1.041361E+0	1.036179E+0	1.050942E+0	1.050112E+0	1.011007E+0	1.047586E+0	1.104593E+0	1.041642E+0	1.042927E+0	1.051591E+0	1.082449E+0	9.548915E-1	1.025553E+0	1.013700E+0	1.040131E+0	1.077762E+0	1.028841E+0	1.074214E+0	1.113509E+0	1.055826E+0	1.034154E+0	1.066999E+0	1.075931E+0	1.105000E+0	1.056502E+0	1.033574E+0	1.106259E+0	1.035362E+0	1.064964E+0	1.082354E+0	9.949000E-1	1.023246E+0	1.013740E+0	1.103602E+0	1.081534E+0	1.095680E+0	1.007503E+0	1.064487E+0	1.060465E+0	1.083572E+0	9.188206E-1
2.970040E+2	9.388460E-1	9.148640E-1	8.803191E-1	9.503391E-1	8.945645E-1	8.920803E-1	9.147322E-1	9.070562E-1	8.891706E-1	8.891870E-1	9.633718E-1	8.954632E-1	9.006079E-1	9.015143E-1	9.016096E-1	9.566280E-1	8.765322E-1	9.658116E-1	9.172888E-1	9.705753E-1	9.626466E-1	8.860455E-1	9.070104E-1	8.716420E-1	8.866377E-1	9.329910E-1	9.019510E-1	9.097474E-1	9.308462E-1	8.936626E-1	9.507917E-1	8.905447E-1	9.469524E-1	9.378267E-1	9.365623E-1	8.948913E-1	8.814714E-1	9.102519E-1	9.265076E-1	9.085849E-1	9.242772E-1	9.490007E-1	9.236831E-1	9.405576E-1	9.152400E-1	9.112224E-1	8.207056E-1	8.794924E-1	9.400991E-1	8.747197E-1	9.248538E-1	9.494490E-1	8.910946E-1	8.998376E-1	9.153313E-1	9.354025E-1	9.725222E-1	9.341161E-1	1.027647E+0	9.101837E-1	9.401947E-1	9.010911E-1	9.030246E-1	9.461918E-1	8.593839E-1	8.899205E-1	8.831390E-1	8.494594E-1	9.741207E-1	9.727848E-1	9.119730E-1	9.100143E-1	9.218050E-1	9.268090E-1	8.879457E-1	8.733055E-1	8.897027E-1	9.287065E-1	8.946280E-1	9.112092E-1	9.244777E-1	9.199486E-1	9.607973E-1	9.540300E-1	9.115884E-1	9.670775E-1	9.150962E-1	9.007772E-1	9.003287E-1	9.059059E-1	9.570593E-1	9.127275E-1	8.895682E-1	9.110442E-1	9.225392E-1	1.005463E+0	9.454431E-1	8.803028E-1	8.662794E-1	9.214012E-1	9.106119E-1	8.586875E-1	9.353506E-1	9.564847E-1	9.871806E-1	9.606896E-1	9.311952E-1	8.912560E-1	9.344183E-1	8.821685E-1	9.016052E-1	9.566125E-1	8.930157E-1	9.422855E-1	9.661313E-1	9.121793E-1	9.320991E-1	9.594367E-1	9.553438E-1	9.172360E-1	8.462334E-1	9.139339E-1	9.124028E-1	8.826956E-1	9.241417E-1	9.328450E-1	9.242436E-1	9.458826E-1	8.980434E-1	8.964767E-1	9.944117E-1	9.161522E-1	8.739743E-1	8.611047E-1	9.016539E-1	9.849112E-1	9.311983E-1	9.172503E-1	8.832054E-1	9.187701E-1	8.768421E-1	9.147453E-1	9.347165E-1	9.133882E-1	8.428093E-1	8.641178E-1	9.858428E-1	9.223900E-1	8.664510E-1	9.176388E-1	9.319013E-1	8.835889E-1	9.355574E-1	9.323509E-1	8.735360E-1	9.422218E-1	9.313782E-1	9.024091E-1	9.333686E-1	9.457129E-1	9.819434E-1	9.594962E-1	8.589635E-1	8.946815E-1	9.792483E-1	8.790021E-1	1.003245E+0	8.504654E-1	8.929955E-1	9.245183E-1	7.985217E-1	9.856021E-1
2.975020E+2	8.706234E-1	9.144630E-1	8.244225E-1	8.729563E-1	8.620162E-1	8.800000E-1	8.251923E-1	8.593717E-1	8.516848E-1	9.002136E-1	8.426617E-1	9.094005E-1	8.341031E-1	8.446817E-1	8.622986E-1	8.544358E-1	8.737154E-1	8.914040E-1	8.820091E-1	8.498306E-1	7.920079E-1	8.456372E-1	8.286750E-1	8.251664E-1	8.752097E-1	8.673081E-1	8.656228E-1	8.747274E-1	8.854111E-1	8.807984E-1	8.309290E-1	8.738321E-1	9.067364E-1	8.641719E-1	8.282438E-1	8.073398E-1	8.418145E-1	8.397372E-1	8.643959E-1	8.617747E-1	8.501085E-1	8.681323E-1	8.359398E-1	8.732567E-1	8.931549E-1	8.797678E-1	8.200411E-1	8.569145E-1	8.409888E-1	8.711377E-1	8.618997E-1	8.349949E-1	8.231604E-1	8.364811E-1	8.535398E-1	8.644551E-1	8.540451E-1	8.527421E-1	8.620359E-1	8.500121E-1	8.968624E-1	8.496432E-1	8.912243E-1	7.983158E-1	8.686593E-1	8.987227E-1	8.870677E-1	8.412307E-1	8.088021E-1	8.751982E-1	8.895862E-1	9.174576E-1	8.538454E-1	8.574792E-1	8.672296E-1	8.482365E-1	7.797799E-1	8.316550E-1	8.398921E-1	8.669019E-1	8.515410E-1	8.475451E-1	8.813481E-1	8.877571E-1	8.378701E-1	8.599995E-1	8.938788E-1	8.762291E-1	8.192451E-1	8.552626E-1	8.372853E-1	8.579886E-1	8.888413E-1	8.730580E-1	8.319474E-1	8.396793E-1	8.600430E-1	8.031137E-1	8.938112E-1	8.700885E-1	8.382757E-1	7.946608E-1	8.440113E-1	8.607689E-1	7.934685E-1	8.761760E-1	8.638487E-1	8.430786E-1	8.999110E-1	8.592518E-1	8.469751E-1	8.489072E-1	7.967603E-1	9.156731E-1	8.378420E-1	8.299289E-1	8.318485E-1	8.172247E-1	8.339725E-1	8.913420E-1	8.324660E-1	8.829947E-1	8.583548E-1	8.345906E-1	8.523896E-1	8.542028E-1	8.401250E-1	8.431699E-1	8.669342E-1	8.642923E-1	8.462152E-1	8.431050E-1	8.580471E-1	8.833851E-1	8.341201E-1	8.399514E-1	8.708293E-1	9.017939E-1	8.900601E-1	8.745215E-1	8.784169E-1	8.032184E-1	8.284359E-1	8.646573E-1	8.586086E-1	8.663371E-1	8.388120E-1	8.396908E-1	9.044898E-1	8.492459E-1	8.516588E-1	8.322834E-1	8.276461E-1	8.243891E-1	8.597061E-1	9.061679E-1	8.356142E-1	8.666539E-1	8.425916E-1	9.259612E-1	8.509965E-1	8.108852E-1	7.789383E-1	8.187625E-1	8.811432E-1	8.176209E-1	8.143708E-1	8.432850E-1	9.261287E-1	7.525824E-1	8.564456E-1	9.177431E-1
2.980040E+2	8.784533E-1	8.760557E-1	8.996469E-1	9.193754E-1	8.277919E-1	9.220326E-1	9.421155E-1	9.262123E-1	9.094779E-1	8.947191E-1	8.833629E-1	9.374506E-1	9.827565E-1	8.937224E-1	9.135079E-1	9.293660E-1	9.662454E-1	9.430481E-1	8.923807E-1	8.877264E-1	9.267856E-1	9.295367E-1	9.245915E-1	9.183235E-1	9.272512E-1	8.814879E-1	8.935757E-1	9.228558E-1	8.768367E-1	8.945540E-1	9.253640E-1	8.725026E-1	9.144321E-1	8.638593E-1	9.332899E-1	9.538612E-1	9.283521E-1	9.007220E-1	9.037100E-1	9.112745E-1	9.495680E-1	9.430300E-1	9.339439E-1	8.614699E-1	9.463040E-1	8.978402E-1	9.809052E-1	8.566321E-1	8.525476E-1	8.650298E-1	8.577425E-1	8.755065E-1	8.828221E-1	9.331886E-1	8.950049E-1	9.099406E-1	9.228686E-1	9.382835E-1	8.777531E-1	9.123431E-1	9.185272E-1	8.772757E-1	9.316205E-1	9.665736E-1	9.444204E-1	8.610279E-1	8.665672E-1	9.136639E-1	9.361407E-1	8.989877E-1	8.894942E-1	8.699912E-1	8.985437E-1	9.259991E-1	9.602312E-1	9.289820E-1	9.553293E-1	9.760530E-1	9.625261E-1	9.052860E-1	9.433428E-1	9.031014E-1	8.800156E-1	9.000993E-1	9.251020E-1	9.265514E-1	8.840109E-1	8.628958E-1	9.168451E-1	9.571200E-1	8.970815E-1	8.881376E-1	9.119707E-1	9.236517E-1	9.053375E-1	9.518311E-1	8.990853E-1	9.533951E-1	8.835362E-1	8.911619E-1	9.911243E-1	8.942275E-1	1.000547E+0	8.889834E-1	9.503823E-1	8.994713E-1	9.326341E-1	9.212454E-1	9.164764E-1	9.235703E-1	9.000962E-1	9.238066E-1	9.297459E-1	8.885326E-1	9.281899E-1	9.106672E-1	9.056384E-1	9.499415E-1	8.807803E-1	8.630084E-1	9.047630E-1	9.569868E-1	8.901520E-1	9.605180E-1	9.342391E-1	9.168410E-1	8.830058E-1	9.282538E-1	9.185798E-1	9.142787E-1	9.217386E-1	9.364043E-1	8.819544E-1	9.197685E-1	9.066180E-1	9.645433E-1	9.252302E-1	9.082971E-1	9.063296E-1	9.537053E-1	9.420203E-1	9.458093E-1	9.592963E-1	8.761051E-1	8.999127E-1	9.418226E-1	9.235379E-1	8.865403E-1	9.132442E-1	8.647059E-1	8.823110E-1	9.344904E-1	9.459128E-1	9.120394E-1	9.086697E-1	9.133009E-1	8.680777E-1	8.924687E-1	9.053674E-1	8.982734E-1	8.755222E-1	9.485241E-1	9.014770E-1	9.518795E-1	9.320209E-1	9.295729E-1	8.681472E-1	8.833919E-1	9.461804E-1	9.913105E-1	8.886161E-1	8.903455E-1
2.985040E+2	1.090183E+0	1.017934E+0	1.056811E+0	1.036483E+0	1.063074E+0	1.065030E+0	1.043489E+0	1.050658E+0	1.024109E+0	1.084309E+0	1.051049E+0	1.011345E+0	1.038286E+0	1.054826E+0	1.030163E+0	1.054801E+0	1.079366E+0	1.009210E+0	1.008765E+0	9.988979E-1	1.009078E+0	1.044977E+0	1.081462E+0	1.048699E+0	1.069703E+0	9.991237E-1	1.027797E+0	1.045918E+0	1.065575E+0	1.008354E+0	1.023890E+0	1.013729E+0	1.049825E+0	9.740081E-1	1.106253E+0	1.043911E+0	1.045507E+0	1.013786E+0	1.041293E+0	1.031369E+0	1.025637E+0	1.021792E+0	1.049364E+0	1.005218E+0	1.056169E+0	1.045001E+0	1.024405E+0	1.041746E+0	1.085782E+0	1.046420E+0	9.801807E-1	1.058784E+0	1.028359E+0	1.054918E+0	1.026345E+0	1.036599E+0	1.026089E+0	1.037885E+0	1.062740E+0	1.066473E+0	9.642694E-1	1.033282E+0	1.006677E+0	1.081250E+0	1.036599E+0	9.870289E-1	1.030146E+0	1.024807E+0	1.052406E+0	1.061884E+0	1.063038E+0	1.040181E+0	1.046864E+0	1.026894E+0	1.097632E+0	1.002422E+0	1.060182E+0	1.054507E+0	9.808717E-1	1.028099E+0	9.955843E-1	1.039039E+0	1.019335E+0	1.065742E+0	1.101962E+0	1.028008E+0	1.006929E+0	1.054114E+0	1.049286E+0	1.050499E+0	1.020744E+0	1.053057E+0	1.026678E+0	1.051263E+0	1.030994E+0	1.033004E+0	1.018315E+0	1.077714E+0	1.087112E+0	1.045019E+0	1.062866E+0	1.077906E+0	9.947242E-1	1.022011E+0	1.054661E+0	1.075290E+0	1.025555E+0	1.016924E+0	9.838449E-1	1.042705E+0	1.061575E+0	1.052215E+0	1.068048E+0	1.008168E+0	1.085428E+0	1.042886E+0	1.081347E+0	1.040217E+0	1.029908E+0	1.086125E+0	1.062941E+0	9.999986E-1	1.035285E+0	1.001223E+0	1.033056E+0	1.026392E+0	1.057816E+0	1.049421E+0	1.013469E+0	1.019025E+0	1.027767E+0	1.030318E+0	1.055318E+0	1.019777E+0	1.048804E+0	1.009607E+0	1.081719E+0	1.048611E+0	1.073053E+0	1.006448E+0	1.085956E+0	1.053645E+0	1.095843E+0	1.049075E+0	1.059871E+0	1.033762E+0	1.085247E+0	1.037158E+0	1.030585E+0	9.734593E-1	1.046595E+0	9.819433E-1	1.098937E+0	1.021004E+0	1.008750E+0	1.004009E+0	1.060680E+0	9.758968E-1	1.044589E+0	9.860267E-1	1.074461E+0	1.032250E+0	1.041019E+0	1.062107E+0	9.984481E-1	1.027304E+0	1.068382E+0	1.033130E+0	9.956234E-1	1.029129E+0	1.094469E+0	1.056688E+0
2.990010E+2	1.085452E+0	1.091554E+0	1.125547E+0	1.032950E+0	1.115814E+0	1.109997E+0	1.113830E+0	1.090291E+0	1.124762E+0	1.042387E+0	1.149922E+0	1.123353E+0	1.118393E+0	1.048509E+0	1.140377E+0	1.107619E+0	1.070070E+0	1.124994E+0	1.193636E+0	1.158078E+0	1.142017E+0	1.144318E+0	1.130399E+0	1.146113E+0	1.126229E+0	1.146605E+0	1.138513E+0	1.134236E+0	1.140834E+0	1.176649E+0	1.114430E+0	1.145592E+0	1.096932E+0	1.126554E+0	1.150069E+0	1.148988E+0	1.114055E+0	1.179993E+0	1.119908E+0	1.108843E+0	1.097869E+0	1.120524E+0	1.110719E+0	1.080773E+0	1.132216E+0	1.102342E+0	1.058631E+0	1.132123E+0	1.219489E+0	1.180565E+0	1.142967E+0	1.137021E+0	1.156330E+0	1.102470E+0	1.166810E+0	1.113344E+0	1.102221E+0	1.133660E+0	1.123541E+0	1.118726E+0	1.121239E+0	1.113514E+0	1.114198E+0	1.113233E+0	1.047814E+0	1.216179E+0	1.144770E+0	1.188963E+0	1.124541E+0	1.098090E+0	1.077079E+0	1.158969E+0	1.161387E+0	1.120198E+0	1.098055E+0	1.099257E+0	1.131476E+0	1.098858E+0	1.134528E+0	1.151055E+0	1.143945E+0	1.142798E+0	1.126883E+0	1.101934E+0	1.104199E+0	1.106071E+0	1.131187E+0	1.168940E+0	1.143228E+0	1.089038E+0	1.114425E+0	1.120514E+0	1.165911E+0	1.116674E+0	1.119922E+0	1.168964E+0	1.131813E+0	1.105403E+0	1.111959E+0	1.078008E+0	1.117444E+0	1.128588E+0	1.135361E+0	1.108455E+0	1.136163E+0	1.130096E+0	1.066442E+0	1.108231E+0	1.154796E+0	1.119201E+0	1.115367E+0	1.131170E+0	1.103981E+0	1.165168E+0	1.110262E+0	1.165086E+0	1.191918E+0	1.132487E+0	1.163015E+0	1.067633E+0	1.129904E+0	1.059828E+0	1.114265E+0	1.119260E+0	1.074172E+0	1.109385E+0	1.156567E+0	1.123364E+0	1.137318E+0	1.116751E+0	1.175315E+0	1.135302E+0	1.156265E+0	1.119683E+0	1.172947E+0	1.110644E+0	1.105232E+0	1.150488E+0	1.068312E+0	1.118621E+0	1.068850E+0	1.141741E+0	1.046377E+0	1.112330E+0	1.114543E+0	1.133017E+0	1.107676E+0	1.192315E+0	1.134504E+0	1.195972E+0	1.113628E+0	1.168396E+0	1.094813E+0	1.136096E+0	1.086187E+0	1.144133E+0	1.148692E+0	1.115306E+0	1.130795E+0	1.135858E+0	1.122051E+0	1.112501E+0	1.186580E+0	1.112363E+0	1.094770E+0	1.185262E+0	1.117099E+0	1.174761E+0	1.105760E+0	1.174685E+0	1.165431E+0	1.087711E+0
2.995040E+2	1.105021E+0	1.120484E+0	1.086950E+0	1.112261E+0	1.107085E+0	1.066637E+0	1.071547E+0	1.046907E+0	1.077910E+0	1.098708E+0	1.084322E+0	1.093116E+0	1.061284E+0	1.130280E+0	1.065176E+0	1.117332E+0	1.094424E+0	1.076734E+0	1.048010E+0	1.102106E+0	1.086826E+0	1.058333E+0	1.082310E+0	1.085894E+0	1.064227E+0	1.081592E+0	1.086831E+0	1.111958E+0	1.023197E+0	1.068111E+0	1.110685E+0	1.088823E+0	1.087285E+0	1.157000E+0	1.051085E+0	1.077278E+0	1.121033E+0	1.065107E+0	1.093424E+0	1.067396E+0	1.083076E+0	1.101269E+0	1.057437E+0	1.152841E+0	1.038455E+0	1.080673E+0	1.108287E+0	1.106485E+0	1.052075E+0	1.124719E+0	1.187924E+0	1.109560E+0	1.114473E+0	1.068666E+0	1.100570E+0	1.108708E+0	1.099157E+0	1.047374E+0	1.102579E+0	1.097567E+0	1.125818E+0	1.095995E+0	1.087182E+0	1.063167E+0	1.104778E+0	1.063463E+0	1.087014E+0	1.085272E+0	1.100051E+0	1.062992E+0	1.099646E+0	1.065374E+0	1.086008E+0	1.102002E+0	1.048402E+0	1.122030E+0	1.041813E+0	1.047125E+0	1.093002E+0	1.076726E+0	1.094211E+0	1.132399E+0	1.089869E+0	1.090431E+0	1.058699E+0	1.075748E+0	1.084297E+0	1.068044E+0	1.094258E+0	1.037487E+0	1.156014E+0	1.074743E+0	1.033087E+0	1.067587E+0	1.088092E+0	1.074668E+0	1.090903E+0	1.064079E+0	1.061491E+0	1.145043E+0	1.051017E+0	1.100917E+0	1.079242E+0	1.111647E+0	1.090779E+0	1.051706E+0	1.143990E+0	1.104519E+0	1.059312E+0	1.081097E+0	1.063438E+0	1.067008E+0	1.077953E+0	1.061183E+0	1.086833E+0	1.063278E+0	1.028429E+0	1.076975E+0	1.127906E+0	1.090090E+0	1.098216E+0	1.122637E+0	1.103373E+0	1.098568E+0	1.104891E+0	1.119532E+0	1.078881E+0	1.091408E+0	1.106583E+0	1.079526E+0	1.031197E+0	1.045389E+0	1.103558E+0	1.047259E+0	1.042464E+0	1.097877E+0	1.042479E+0	1.052227E+0	1.084079E+0	1.074416E+0	1.057270E+0	1.072804E+0	1.052752E+0	1.095098E+0	1.112860E+0	1.072433E+0	1.055964E+0	1.080983E+0	1.094044E+0	1.131120E+0	1.114666E+0	1.067019E+0	1.094970E+0	1.116978E+0	1.151997E+0	1.089672E+0	1.084545E+0	1.131005E+0	1.102852E+0	1.079126E+0	1.050239E+0	1.075379E+0	1.087704E+0	1.084828E+0	1.098928E+0	1.089305E+0	1.105267E+0	1.071354E+0	1.047704E+0	1.114973E+0	1.054319E+0	9.855357E-1
3.000060E+2	9.702667E-1	9.795086E-1	1.006623E+0	1.025974E+0	1.024218E+0	9.563026E-1	1.003826E+0	1.026560E+0	1.012057E+0	9.796634E-1	9.886826E-1	9.253356E-1	9.651784E-1	1.027981E+0	9.884776E-1	9.364462E-1	9.161787E-1	9.546102E-1	9.751992E-1	1.003361E+0	1.043286E+0	9.771979E-1	9.525619E-1	9.758039E-1	9.373791E-1	1.023883E+0	9.876605E-1	9.103049E-1	1.008146E+0	9.715339E-1	9.947017E-1	1.005521E+0	9.447904E-1	1.014406E+0	9.310588E-1	9.686227E-1	9.492388E-1	1.000654E+0	9.772698E-1	1.019342E+0	9.937418E-1	9.452522E-1	1.012597E+0	1.026441E+0	9.337004E-1	9.943757E-1	1.007731E+0	1.006100E+0	9.491172E-1	9.121284E-1	9.692860E-1	9.841336E-1	9.948551E-1	1.004277E+0	9.577302E-1	9.669534E-1	9.956186E-1	9.900558E-1	9.713512E-1	9.548789E-1	9.732837E-1	1.030290E+0	9.690985E-1	9.774597E-1	9.977300E-1	9.735784E-1	9.844363E-1	9.460635E-1	9.780597E-1	1.002848E+0	9.811574E-1	9.480268E-1	9.533513E-1	9.674271E-1	9.284508E-1	9.990721E-1	1.031420E+0	9.918021E-1	9.891798E-1	9.719317E-1	9.713763E-1	9.351180E-1	1.002549E+0	9.540369E-1	9.721678E-1	1.003623E+0	9.996968E-1	9.697779E-1	9.771379E-1	1.010593E+0	9.744503E-1	1.005560E+0	9.735113E-1	9.677664E-1	1.023708E+0	9.318536E-1	9.998412E-1	9.962952E-1	9.620909E-1	9.706792E-1	9.392729E-1	1.003701E+0	9.461147E-1	1.008135E+0	9.745454E-1	9.672600E-1	9.675296E-1	1.006002E+0	9.856591E-1	9.741750E-1	1.012548E+0	9.768928E-1	1.023511E+0	9.612745E-1	9.514439E-1	9.881548E-1	9.608188E-1	9.831540E-1	9.644180E-1	1.001801E+0	9.717097E-1	9.775545E-1	9.985703E-1	9.858408E-1	1.001253E+0	9.736473E-1	9.836059E-1	9.643830E-1	9.571163E-1	1.006127E+0	9.977665E-1	1.009482E+0	9.448581E-1	1.010128E+0	9.950471E-1	9.773780E-1	9.745111E-1	9.385825E-1	9.781670E-1	9.722877E-1	9.674872E-1	9.827832E-1	1.017296E+0	1.002734E+0	9.542059E-1	9.526293E-1	9.887638E-1	9.633126E-1	9.231334E-1	9.854971E-1	9.911414E-1	1.015869E+0	9.377213E-1	9.894936E-1	9.846907E-1	9.427180E-1	1.002392E+0	1.018669E+0	9.738051E-1	9.747545E-1	1.026729E+0	1.020460E+0	1.004282E+0	9.700608E-1	9.946904E-1	9.509347E-1	1.026735E+0	9.940781E-1	9.786035E-1	9.373195E-1	9.407187E-1	1.061977E+0
