Photon Energy (eV)	#1	#2	#3	#4	#5	#6	#7	#8	#9	#10	#11	#12	#13	#14	#15	#16	#17	#18	#19	#20	#21	#22	#23	#24	#25	#26	#27	#28	#29	#30	#31	#32	#33	#34	#35	#36	#37	#38	#39	#40	#41	#42	#43	#44	#45	#46	#47	#48	#49	#50	#51	#52	#53	#54	#55	#56	#57	#58	#59	#60	#61	#62	#63	#64	#65	#66	#67	#68	#69	#70	#71	#72	#73	#74	#75	#76	#77	#78	#79	#80	#81	#82	#83	#84	#85	#86	#87	#88	#89	#90	#91	#92	#93	#94	#95	#96	#97	#98	#99	#100	#101	#102	#103	#104	#105	#106	#107	#108	#109	#110	#111	#112	#113	#114	#115	#116	#117	#118	#119	#120	#121	#122	#123	#124	#125	#126	#127	#128	#129	#130	#131	#132	#133	#134	#135	#136	#137	#138	#139	#140	#141	#142	#143	#144	#145	#146	#147	#148	#149	#150	#151	#152	#153	#154	#155	#156	#157	#158	#159	#160	#161	#162	#163	#164	#165	#166	#167	#168	#169	#170	
2.790060E+2	-1.243340E-2	-6.282501E-3	8.815924E-4	-1.397030E-2	7.360793E-3	1.611952E-2	1.148006E-2	7.460070E-3	9.931634E-3	-4.634026E-3	-2.531669E-3	9.004717E-3	-4.177828E-4	1.077951E-3	2.157409E-2	-7.018347E-3	-1.649933E-2	5.257462E-3	5.552708E-3	3.874951E-3	-3.345215E-3	-4.717999E-3	-1.286875E-2	-3.812719E-3	3.277897E-4	-8.816184E-3	-8.708052E-3	1.119181E-2	-1.130107E-2	1.289064E-2	-4.200466E-3	-3.169416E-3	-8.058393E-3	9.675252E-3	8.964636E-3	5.615068E-3	2.981381E-3	-3.248564E-3	1.651415E-3	3.645835E-3	-9.894935E-3	-7.454984E-3	8.327157E-3	-2.147236E-3	-1.505598E-3	2.423004E-4	-1.133435E-2	-3.111926E-3	1.932280E-3	7.227077E-4	-8.222883E-3	-1.793226E-3	-2.768970E-3	1.378202E-3	9.060838E-3	-6.587593E-3	-9.986103E-3	-2.310779E-3	-8.175022E-3	-2.869685E-3	3.512866E-3	4.686436E-3	7.566118E-3	2.475409E-3	-8.526502E-3	4.461096E-3	1.924286E-2	6.475614E-4	1.932457E-2	6.177781E-3	-3.920368E-4	4.570615E-3	1.790846E-2	2.736212E-3	-4.978399E-3	1.452863E-3	3.232685E-3	-3.306940E-3	3.154987E-4	4.900391E-3	-1.132272E-2	-3.717985E-3	8.033529E-3	-1.536101E-2	1.381862E-2	3.348395E-3	-9.098029E-4	-2.321529E-3	3.192541E-3	-2.313977E-3	-2.827480E-3	1.083695E-2	1.486921E-3	-7.231610E-3	-1.247094E-3	-3.332797E-4	9.887876E-3	6.539823E-3	-1.059775E-2	-6.307925E-3	6.261016E-3	2.424104E-3	3.568262E-3	9.028483E-3	5.594209E-4	-4.476507E-3	1.343509E-2	2.774997E-4	2.815064E-3	-4.688435E-3	-1.094732E-3	2.828948E-3	-2.700947E-3	-6.405585E-3	-8.828422E-3	1.770560E-3	4.129849E-3	-5.731336E-3	4.991188E-3	-8.961199E-3	-3.683272E-4	2.212702E-3	3.839929E-3	-2.024268E-3	1.040409E-3	-1.811576E-2	-5.173692E-3	-5.269237E-3	1.635879E-3	5.664187E-3	-4.177000E-3	3.376360E-3	-5.302215E-4	-2.967961E-3	-1.956659E-3	4.944442E-4	7.618414E-3	2.416544E-3	4.202445E-3	-7.901187E-3	4.358930E-3	-2.617845E-3	1.067958E-3	7.477429E-4	-1.694724E-2	4.829698E-3	1.021077E-3	-1.869949E-2	-9.170907E-3	-3.281377E-3	3.281436E-3	-1.055756E-2	1.985260E-3	1.352645E-2	-1.115055E-2	-5.919656E-3	-8.036904E-3	-7.445942E-3	-1.582869E-2	3.057003E-3	-1.075030E-2	8.883171E-3	-5.904774E-3	9.470717E-3	-1.798461E-2	-7.371898E-3	6.120035E-3	-7.872235E-3	-2.412715E-2	7.804085E-3
2.795020E+2	-4.073567E-4	5.119212E-3	6.490084E-3	7.348026E-3	-4.134027E-3	-3.234055E-3	-3.010373E-3	8.688810E-3	7.373951E-3	-3.400495E-3	-2.850776E-5	7.747466E-3	-3.964347E-3	2.314918E-3	-5.016505E-3	-8.684388E-6	-1.647609E-2	8.437025E-4	-4.401075E-3	-1.155603E-2	-5.514310E-3	7.836262E-3	-4.422317E-3	4.379024E-3	-7.399128E-3	-6.265440E-3	-6.340677E-4	-6.071431E-3	-2.814066E-3	-1.227579E-2	-5.319118E-3	-6.593655E-3	1.473991E-2	-3.834201E-3	1.520818E-3	6.810407E-4	7.341163E-3	-4.787458E-3	-6.235368E-3	-1.279450E-2	-1.192681E-3	1.427583E-3	-1.033239E-2	1.125215E-2	9.350869E-4	1.267940E-2	1.102978E-2	-4.058143E-3	2.000205E-3	1.906905E-3	-3.759608E-3	-1.312468E-2	-4.898784E-3	-2.426060E-3	-1.288873E-3	5.020638E-3	4.445933E-4	-5.080438E-3	-6.727028E-3	-1.028350E-2	-1.290397E-3	1.312978E-4	7.700868E-3	-1.211653E-2	1.016050E-2	8.902210E-3	-1.961352E-2	-1.584229E-2	-2.400139E-3	-1.625901E-4	-1.654128E-2	-4.675517E-3	-2.171582E-3	1.101067E-2	-1.377342E-2	1.070346E-2	-1.109668E-2	-3.627621E-4	-1.479981E-2	-2.728798E-4	-5.478368E-3	3.791990E-3	-2.169448E-2	3.963501E-3	-2.189449E-3	2.147414E-2	3.187936E-3	-3.374268E-3	-8.427158E-3	8.048947E-3	9.770864E-3	-3.101776E-4	1.386112E-2	8.996850E-3	-3.623883E-3	-7.838852E-3	7.302545E-3	-9.582817E-3	1.040440E-2	-2.327466E-2	-1.186679E-2	1.708498E-2	-1.521785E-3	-8.249125E-3	7.964864E-3	-4.590453E-4	-5.685583E-3	-2.297477E-3	-3.101537E-3	4.211778E-3	-2.236126E-3	-6.337340E-3	2.376292E-3	3.204813E-3	1.395820E-3	-4.264808E-3	-3.665891E-3	4.138857E-3	-2.206205E-2	5.769511E-3	-9.922985E-3	-9.509240E-3	1.255406E-3	7.012764E-4	-1.333625E-3	-1.201377E-2	-1.400751E-3	-1.178193E-2	-1.173152E-2	-7.397678E-3	-7.857327E-3	-5.669530E-3	-1.168812E-2	1.001485E-2	-4.425118E-3	-8.578311E-3	4.130033E-3	-1.117875E-2	-6.028419E-3	1.847520E-2	-6.920958E-3	7.611215E-3	-2.693327E-5	-2.873865E-4	-5.964228E-3	2.430688E-3	-5.559939E-3	8.837387E-4	-6.606326E-3	-1.370470E-2	-4.983398E-4	7.583687E-3	9.570617E-3	1.692308E-3	-5.931774E-3	-7.109345E-3	-7.993152E-3	-4.022080E-3	9.933344E-3	-1.159073E-2	3.618751E-5	-4.303702E-3	1.398150E-3	9.537976E-3	3.767283E-3	3.908531E-3	-1.934880E-2	-1.588874E-2	1.602606E-3	-2.150537E-2
2.800000E+2	6.347631E-4	-1.910127E-2	1.033521E-2	-1.487501E-3	-2.096621E-3	3.330386E-3	-2.033571E-2	-8.272969E-3	7.057860E-3	-8.754318E-5	3.421787E-3	-1.179905E-2	-3.021186E-3	8.222817E-4	-8.888440E-3	-4.204050E-3	1.502762E-4	-1.138644E-2	-1.337089E-2	-1.100449E-3	8.640475E-3	-1.302968E-3	-3.487549E-3	-1.674764E-2	-1.664335E-2	-7.546433E-3	1.749362E-3	4.284593E-3	1.730877E-3	-3.839123E-3	3.760193E-3	-2.221621E-3	-8.259009E-3	-6.525293E-3	-3.832856E-3	-2.081072E-3	-4.600435E-3	2.403673E-4	6.371288E-3	-1.190390E-2	-1.370704E-2	-3.462025E-3	-1.307636E-2	3.073728E-4	-1.680909E-3	3.651780E-4	-1.849647E-2	-9.303832E-3	-7.224724E-3	-2.658090E-3	1.467694E-2	1.580465E-2	6.104196E-3	5.272643E-4	-5.521189E-3	-1.629413E-3	-8.938050E-3	8.126548E-3	-3.162332E-3	1.475798E-2	-7.624497E-3	-1.034751E-2	-4.640822E-3	1.241663E-2	-9.820118E-3	-3.575991E-3	-7.994826E-4	-3.631673E-3	1.025272E-3	-1.738725E-3	1.630297E-2	-2.537810E-3	-2.114804E-2	-1.574432E-3	1.929752E-2	-1.310824E-2	-1.700762E-3	-1.579552E-3	3.729112E-3	-1.512593E-3	-1.045988E-3	-1.470538E-4	6.832865E-3	1.811807E-4	-5.530307E-3	-3.905698E-3	5.466124E-4	-1.416067E-2	-4.698985E-3	1.466977E-3	3.449024E-3	-6.730310E-3	-1.587192E-2	5.135141E-3	2.172246E-3	-9.100759E-3	1.935182E-3	-9.238796E-3	-1.840985E-4	9.347563E-3	-7.421185E-3	-1.231797E-2	-4.224957E-3	-2.689754E-3	6.495256E-3	-3.231624E-3	1.827952E-3	-1.020382E-2	-2.200279E-3	5.692747E-3	5.837212E-3	1.464362E-3	-9.182544E-3	-5.327763E-3	3.503739E-3	-8.689137E-4	2.834731E-3	4.723974E-3	-1.154424E-2	-2.037536E-2	-2.922985E-3	2.734134E-3	3.669854E-3	-1.428707E-2	-1.576645E-3	-1.829632E-3	2.096400E-3	1.088597E-3	-3.430797E-3	-9.228766E-3	1.290858E-2	1.846394E-3	-8.536328E-3	2.225853E-2	-4.641884E-3	-8.507692E-4	2.931620E-4	-5.345105E-3	-2.419392E-3	-8.116755E-3	-1.092032E-2	1.183264E-2	7.774462E-3	-5.944188E-3	4.721712E-3	-1.242066E-2	-7.108800E-3	-6.661809E-3	-5.780900E-4	-2.166146E-3	6.889799E-3	-1.074776E-2	-8.210350E-3	5.383626E-3	4.139366E-3	4.781047E-5	-2.197306E-3	1.402540E-3	-5.730912E-3	6.253590E-3	-4.263477E-3	-1.111974E-2	-7.236200E-3	-4.781327E-3	9.488286E-3	-1.252308E-2	4.428875E-3	-6.051318E-3	-8.252237E-3	-4.142215E-3
2.805030E+2	-3.257993E-3	6.195168E-3	-4.872363E-3	5.705796E-3	-1.002981E-2	-1.090996E-3	2.184052E-2	4.944220E-3	-7.032147E-3	-1.074904E-2	-7.598353E-3	-1.684560E-2	1.017951E-2	2.007706E-2	-2.751346E-3	-4.091404E-3	1.010999E-2	-3.650743E-3	-7.780363E-4	8.518203E-3	3.242714E-3	-3.388360E-3	2.572802E-3	1.467891E-2	5.402088E-3	7.596432E-3	-6.128220E-3	-9.147035E-4	5.469216E-3	-1.614047E-2	-7.782358E-4	4.792327E-3	-1.445753E-2	4.744743E-3	6.501691E-3	-4.473879E-3	1.903969E-3	2.461522E-3	-7.520419E-3	3.601498E-3	-8.807299E-5	1.427934E-4	-1.046077E-2	-2.244358E-3	6.733215E-3	-1.694952E-3	1.086615E-2	-3.135602E-3	5.248206E-3	-1.394455E-4	1.615688E-2	-1.814255E-3	5.107744E-3	1.115789E-2	6.763355E-3	1.042272E-3	-1.954026E-3	5.676861E-3	3.219730E-3	1.196852E-2	-5.979792E-3	-3.496499E-3	-1.171518E-2	-8.513363E-3	1.954532E-3	-5.807692E-3	-6.874227E-4	-7.738426E-4	3.565782E-3	5.690506E-3	7.597036E-3	-5.917956E-3	-9.069227E-4	-2.566491E-3	4.132829E-3	2.709685E-3	-3.663892E-4	-4.992150E-3	1.529234E-3	-2.420463E-3	3.675465E-3	-9.422323E-3	6.536639E-5	-6.886680E-3	-9.706782E-3	-4.571940E-4	-2.042471E-3	-3.451809E-3	-1.758294E-2	-2.035462E-3	-7.737927E-3	-4.092155E-4	-1.008046E-3	-3.586316E-4	-4.841245E-3	1.039100E-2	-1.747361E-3	6.643805E-3	-1.398212E-2	1.476017E-2	-4.468439E-4	-1.043433E-2	-5.361449E-3	2.073321E-3	4.205505E-3	-5.237191E-3	1.225636E-2	-5.035061E-3	-5.662866E-3	4.299796E-3	-2.322282E-3	1.194879E-2	7.294960E-3	-1.675640E-2	8.336359E-3	-4.346574E-3	-8.190203E-3	1.292423E-2	1.359296E-2	4.546174E-3	1.285513E-2	5.403956E-3	-1.366849E-3	1.889886E-3	-3.862730E-3	1.846659E-5	-2.726731E-3	-9.470996E-4	3.538066E-4	1.001053E-2	-3.226282E-4	1.888336E-2	-6.129401E-3	-3.318903E-3	-4.230669E-3	-7.509769E-3	-7.806613E-3	-1.049974E-2	1.075102E-2	1.039676E-2	1.776615E-3	5.139399E-3	3.370282E-3	8.328172E-3	-1.978058E-3	-4.465105E-3	-2.931401E-3	2.004210E-3	8.371408E-4	-4.710710E-5	3.411544E-3	-2.915823E-4	-8.094640E-3	-6.076889E-3	-7.232667E-3	-1.093046E-2	-6.874667E-3	9.754779E-3	-5.562079E-3	-3.759771E-3	6.596120E-3	-4.759632E-3	-5.908948E-3	-1.287606E-2	-1.080905E-2	9.265891E-3	-4.403517E-3	-3.909580E-3	1.749856E-2	7.204955E-3
2.810020E+2	7.245178E-3	3.547774E-3	8.914129E-3	-5.755129E-3	5.946989E-3	-1.143517E-2	9.876884E-3	-5.890259E-3	1.349502E-2	-1.293174E-3	1.457698E-2	3.565310E-3	1.599603E-2	-1.111556E-2	3.203885E-3	-2.185781E-3	1.557261E-2	1.370975E-2	1.537487E-2	-2.281658E-3	5.344850E-3	-1.818493E-4	2.444510E-3	-5.153722E-3	1.409347E-3	6.416738E-3	1.501859E-2	8.238001E-3	-6.661172E-4	-1.243841E-4	2.610723E-3	-4.514689E-3	5.595893E-3	-4.039279E-3	-5.113984E-3	4.131529E-4	7.130020E-3	1.324837E-3	5.477059E-4	5.680004E-3	8.402985E-3	2.360259E-3	1.451277E-2	1.624110E-3	-6.410914E-3	-3.982949E-3	1.774206E-2	1.813580E-3	4.014013E-3	3.337643E-3	-5.328574E-3	-6.532144E-4	-8.433625E-3	1.219404E-2	3.929213E-3	1.495641E-2	1.281250E-2	2.977355E-3	-1.907101E-3	-9.015965E-3	-3.574930E-3	5.323730E-3	-4.558832E-3	3.352190E-3	6.890475E-4	1.159525E-2	4.588761E-3	3.235042E-3	-6.226171E-3	6.638176E-3	9.983602E-3	-3.684394E-3	9.698270E-3	-3.776336E-3	7.836075E-3	6.490880E-3	3.109609E-3	7.939409E-4	3.749278E-3	-4.524547E-4	6.977228E-3	3.296449E-3	1.069775E-3	1.085010E-2	-1.202089E-2	3.743145E-3	4.561737E-3	-2.398759E-3	1.216222E-2	-9.189847E-4	-4.070030E-3	-5.470700E-3	1.334428E-3	1.533713E-2	1.006207E-3	-2.614769E-3	5.840001E-3	-3.585583E-3	1.264410E-2	1.457370E-3	-6.321246E-4	-2.789080E-3	-3.201321E-4	-8.397549E-3	1.023961E-2	4.628173E-3	-1.214045E-2	2.554403E-3	5.018753E-3	1.724360E-3	-2.242910E-5	-1.110330E-2	-6.636434E-3	7.081940E-3	4.847260E-3	6.468204E-3	1.747243E-2	-8.610473E-3	7.579032E-3	1.798100E-2	1.635049E-2	4.090445E-3	-5.400319E-3	-8.761904E-4	1.774153E-2	1.417868E-2	1.581347E-2	3.344296E-3	8.776082E-3	1.650780E-2	-4.149261E-4	8.401071E-3	1.170667E-2	-5.670827E-3	8.260176E-3	1.404385E-2	-3.151293E-3	-2.319939E-4	3.597467E-4	-1.596091E-2	1.046589E-2	6.173616E-3	-9.367547E-3	6.380440E-4	-2.066226E-3	1.405281E-2	9.007634E-3	5.586891E-3	1.079971E-2	4.773348E-3	6.097578E-3	6.075362E-3	5.651183E-3	-1.081123E-2	7.019586E-3	1.738766E-2	1.833581E-2	-6.487197E-3	8.485956E-3	1.647429E-2	-2.074305E-4	1.402933E-2	-9.987062E-4	4.678245E-3	1.560489E-2	-2.962556E-3	-8.673264E-3	1.212000E-2	-1.764361E-3	1.168569E-2
2.815020E+2	-1.835022E-3	3.229719E-6	-1.036310E-2	-5.527568E-3	-6.463433E-3	1.157943E-2	-1.491279E-2	2.705036E-4	-1.341557E-2	8.539454E-3	6.230602E-3	1.234242E-3	-7.570720E-3	4.661961E-3	-2.558123E-3	4.006731E-3	3.673870E-4	-1.120156E-2	-6.584103E-4	1.103555E-2	4.348058E-5	-2.156807E-3	2.721957E-3	-1.191213E-2	4.208404E-3	6.675981E-3	1.941052E-2	-4.803967E-3	5.597680E-3	-3.608279E-3	8.766387E-3	3.765797E-3	8.010165E-4	-5.104359E-3	-3.637919E-3	-1.863703E-3	-8.621966E-3	2.598473E-3	-1.326376E-2	-5.070650E-3	4.946927E-3	6.089111E-3	2.116742E-2	-4.825314E-3	-6.217938E-3	-7.063157E-3	-3.029517E-3	1.049593E-3	-5.881149E-3	-8.414546E-3	2.633742E-4	3.365039E-3	7.435192E-4	-1.086432E-2	-5.345864E-3	-5.248832E-3	-2.977263E-3	-1.746626E-2	7.096995E-3	-7.557606E-3	1.563356E-3	1.453572E-2	2.929675E-3	-7.472036E-3	-1.406035E-3	-6.873872E-3	-1.141574E-2	-6.731647E-4	1.265287E-3	-6.703548E-3	1.233424E-4	3.542157E-3	-1.830847E-2	-1.315909E-3	6.787300E-3	6.748191E-3	1.056699E-2	-1.492047E-4	-1.007257E-2	1.888264E-3	-8.928839E-3	9.399431E-3	5.976502E-3	3.093344E-4	2.186653E-3	-4.867712E-3	-1.269025E-2	3.717192E-3	8.482230E-3	2.908838E-3	7.461418E-3	-2.396140E-2	-7.049322E-3	-1.383655E-2	8.386270E-3	-2.389605E-3	-1.167131E-2	-4.682193E-3	9.408638E-3	-1.276235E-2	7.501209E-4	-5.843150E-3	-2.669328E-3	-5.885833E-3	-1.774293E-2	-1.010940E-2	2.184427E-3	-6.075448E-3	8.820443E-3	-4.283781E-3	-1.286386E-2	-2.826628E-3	2.395951E-3	1.281929E-2	2.844786E-3	1.892751E-3	2.055758E-3	-2.997781E-3	-4.444889E-4	1.329704E-3	-2.633018E-3	1.901416E-3	1.196279E-2	-2.001015E-3	-6.140130E-3	-1.005870E-3	1.155208E-3	4.714276E-3	-1.169512E-2	2.224387E-3	3.557796E-3	-2.381787E-2	8.646546E-3	-3.136133E-3	5.986760E-3	4.068691E-3	-2.902785E-3	4.644539E-3	5.970905E-4	5.294651E-3	-1.695948E-2	-5.788211E-3	4.698160E-3	5.239339E-3	-4.935134E-4	2.952482E-3	3.948724E-3	7.061990E-3	-2.771664E-3	-5.074952E-3	-2.066387E-2	-2.716612E-3	-7.968975E-3	-2.168607E-3	7.895775E-4	7.802506E-3	-1.901347E-3	1.684567E-2	2.325551E-3	-4.745004E-3	5.410520E-3	-1.722619E-2	5.263025E-3	-2.141988E-3	-9.431936E-3	1.573606E-2	1.725306E-2	1.645713E-2	1.668080E-3	6.644728E-3
2.820040E+2	1.180280E-2	7.879347E-3	-5.935613E-3	1.609695E-2	7.309985E-4	-1.559259E-2	-2.812855E-3	-5.498603E-3	-1.450650E-2	1.007141E-2	-8.450277E-3	-4.944854E-3	-1.212766E-2	-1.548564E-2	-9.594754E-3	2.284211E-3	-2.179453E-3	-8.806796E-3	3.356416E-3	-1.136267E-2	-5.264277E-3	-2.990508E-3	1.378631E-2	6.997956E-3	1.872253E-3	-5.994664E-3	-1.510152E-2	-9.915468E-3	1.195777E-2	1.661755E-3	-1.325904E-2	-2.909809E-3	8.701717E-3	-6.139191E-3	-3.420510E-3	5.945601E-3	5.553796E-3	1.810960E-3	-1.280125E-3	1.402289E-2	8.930200E-3	-2.995151E-3	-1.131545E-2	-5.731791E-4	-2.340192E-5	8.601709E-3	-1.551038E-3	3.185186E-4	-2.243049E-3	1.112457E-2	-8.844980E-3	-2.746267E-3	3.256744E-3	-9.440175E-3	4.430497E-3	1.410867E-4	1.343535E-2	3.467064E-3	2.378350E-3	-6.059057E-3	1.841735E-3	-8.722181E-3	1.177225E-2	4.996606E-3	2.373167E-3	-5.467682E-3	7.803644E-3	9.290442E-3	-1.553052E-2	-1.382533E-2	-5.933431E-3	8.521427E-3	3.498422E-3	-1.458783E-2	-9.608530E-3	-7.434680E-3	-9.645324E-3	-1.067144E-3	-7.465549E-3	-2.066356E-3	2.030601E-2	-9.433701E-4	-6.430467E-3	-9.081604E-3	1.760656E-2	-9.068316E-3	1.588961E-2	8.715790E-3	-2.999736E-3	-2.918949E-3	-4.869951E-3	1.247401E-2	6.787774E-3	-9.074911E-3	-1.047654E-2	5.481420E-3	-8.878021E-3	-1.877953E-3	-3.187125E-3	7.180975E-3	1.019004E-2	7.678042E-3	9.210072E-3	-3.306406E-3	5.916589E-3	1.389402E-2	3.782687E-3	8.535808E-3	7.966942E-3	-1.156304E-2	1.237158E-2	-3.705620E-3	3.928642E-3	-1.074060E-3	-4.847964E-3	-6.354186E-3	-1.459218E-2	5.380925E-4	3.421219E-3	2.758803E-3	-1.688901E-2	-1.012136E-2	-1.287161E-2	3.649050E-3	-1.439778E-2	2.081773E-2	1.432561E-3	2.838534E-3	-5.347931E-3	-2.280470E-2	-9.893064E-3	5.076449E-3	-3.438850E-3	-1.080892E-2	7.536556E-3	6.690892E-3	1.291494E-2	-4.302108E-3	-4.310210E-3	-7.623995E-3	4.758730E-3	-8.902194E-3	3.603557E-4	5.610794E-5	1.625643E-2	-4.776016E-3	-5.118689E-3	-1.238137E-3	8.884204E-3	1.432163E-2	-3.701597E-3	-5.050314E-3	3.604939E-3	-5.556298E-3	-6.757931E-3	-4.311299E-3	-8.921783E-3	-4.970972E-3	3.917281E-3	-4.495954E-3	-1.023087E-3	9.752779E-3	1.161824E-2	-5.439580E-3	-1.901907E-3	-5.693395E-3	-1.279556E-2	1.073979E-2	5.155581E-3	-2.514905E-2
2.825040E+2	-1.748972E-3	2.639044E-3	-5.449940E-3	-2.410270E-3	8.685109E-3	3.234696E-4	-2.125733E-3	-1.701773E-3	-2.904250E-3	1.553408E-3	-5.620559E-3	1.203777E-2	9.261572E-4	-2.352972E-3	4.031190E-3	1.121732E-2	8.954608E-3	1.523462E-2	-5.075577E-3	2.872100E-3	-3.147716E-3	6.902229E-3	-7.469658E-4	1.157032E-2	1.082260E-2	7.933571E-3	-5.606611E-3	-2.008832E-3	-9.974291E-3	2.143565E-2	8.419553E-3	1.085107E-2	9.363952E-4	1.122233E-2	-9.818756E-4	-4.236208E-3	-1.168793E-2	-4.001368E-4	1.972927E-2	2.818822E-3	2.602622E-3	3.892414E-3	1.177632E-3	-3.393548E-3	8.170458E-3	-9.147525E-3	-5.226618E-3	1.642781E-2	2.154220E-3	-5.879749E-3	-4.941149E-3	9.619486E-4	8.891770E-4	-2.526842E-3	-1.202798E-2	-7.694565E-3	-2.837000E-3	4.609652E-3	7.276408E-3	9.059317E-3	1.155166E-2	-2.110990E-3	-9.054073E-3	4.861091E-3	4.575403E-3	-3.233315E-3	8.808982E-4	7.747927E-3	-1.024083E-3	3.923726E-3	-1.114020E-2	1.814762E-4	1.142987E-2	1.007411E-2	-9.693375E-3	-7.562163E-3	5.899868E-3	1.066381E-2	2.301480E-2	-6.390838E-5	-4.182788E-3	-2.257138E-3	6.146908E-3	1.602518E-2	-4.164404E-3	-1.026676E-2	-8.543371E-3	1.327405E-2	9.871826E-3	-4.237390E-3	-1.175918E-3	1.357084E-2	4.590467E-4	1.032580E-3	8.624036E-3	6.404840E-3	-2.668912E-3	1.578371E-2	-4.506050E-3	9.598852E-3	3.165767E-3	4.197399E-3	1.319316E-3	1.742686E-2	-1.763832E-2	4.991568E-3	-1.566049E-2	1.224410E-2	-1.365652E-2	4.606577E-3	3.306407E-4	7.730782E-3	2.524080E-3	6.457766E-3	-7.251578E-3	5.702967E-3	-4.449149E-5	-4.985566E-3	4.466384E-3	-3.048632E-3	3.530704E-3	3.287952E-3	-1.089203E-3	1.294833E-2	8.528976E-3	-2.049837E-3	-1.119647E-2	6.012562E-3	2.143960E-2	5.024247E-3	6.198569E-3	-8.096236E-3	9.969709E-3	-6.370642E-3	-6.529161E-3	-8.359031E-3	-1.109585E-2	2.449662E-2	-3.152282E-3	5.436241E-3	1.344060E-2	-1.344861E-2	-7.876739E-3	-8.777832E-3	6.471125E-3	-2.603906E-3	6.741394E-3	1.106261E-2	-1.394069E-3	5.179302E-3	5.183446E-3	1.570478E-2	3.461966E-3	4.010634E-3	1.912439E-2	3.032783E-3	1.758935E-2	-5.076803E-3	2.459546E-3	-1.193423E-3	4.201462E-3	4.743981E-3	1.769210E-3	1.552017E-3	1.126704E-2	-3.595484E-4	1.741917E-2	-5.595053E-3	8.218921E-3	1.745717E-2
2.830020E+2	-6.206474E-3	3.839370E-2	6.399376E-3	1.462151E-2	1.455730E-2	1.298610E-2	1.242367E-2	7.831230E-3	1.521399E-2	1.488691E-2	3.690104E-3	6.757769E-3	8.008129E-3	4.780007E-3	2.710531E-2	1.166152E-3	3.311509E-2	1.193126E-2	3.266344E-2	2.344972E-2	2.382558E-2	8.090583E-3	4.683345E-4	3.408143E-3	1.720652E-2	1.783554E-2	-1.205698E-3	1.804219E-2	-1.736970E-3	1.276860E-2	-1.056890E-3	-2.057881E-3	-5.720003E-3	1.608339E-2	1.371053E-2	3.208705E-3	2.391411E-2	1.766297E-2	4.033199E-3	3.472283E-2	1.492850E-2	9.722658E-3	1.218936E-2	2.503616E-2	1.170218E-2	2.302385E-2	5.056281E-3	8.503043E-3	6.630023E-3	-1.225352E-2	6.651793E-4	-1.878925E-3	2.591604E-2	1.283550E-2	2.301436E-2	-7.958754E-3	3.913347E-2	7.006364E-3	8.877346E-3	2.847064E-2	4.036484E-3	8.015154E-3	-8.589681E-4	7.126491E-3	2.346981E-2	1.082595E-2	2.382339E-2	2.437304E-2	2.441861E-3	1.455149E-2	1.391639E-3	1.904966E-2	2.636068E-2	-2.493586E-3	1.063861E-2	4.085755E-3	1.069875E-2	1.030425E-3	1.482604E-2	2.353015E-2	1.442634E-2	1.925360E-2	2.720139E-2	-3.340879E-3	8.987154E-3	3.337852E-2	1.704082E-2	2.194436E-2	1.367279E-2	1.870727E-2	-2.708181E-3	3.127481E-2	9.032447E-3	1.706781E-2	1.826406E-2	1.731243E-2	9.811041E-3	1.184397E-2	2.398691E-3	1.099296E-2	5.473859E-3	1.427763E-2	1.796278E-2	2.464619E-2	1.310574E-2	1.866420E-2	2.045961E-2	3.948060E-2	-3.348340E-3	1.808639E-3	4.838603E-3	5.319327E-3	3.174947E-2	1.087475E-2	1.099155E-2	3.120604E-3	1.575387E-2	1.680939E-2	1.930314E-3	4.805191E-3	1.069228E-2	1.310861E-2	5.274467E-3	2.504914E-2	1.700262E-2	2.804793E-2	8.622981E-3	1.161050E-2	1.900584E-2	2.369678E-2	9.653098E-4	1.792505E-2	1.918630E-2	3.938182E-3	1.742367E-2	-7.426778E-3	3.460686E-2	-1.080600E-3	2.404976E-2	-6.849188E-3	4.426365E-3	3.470428E-2	1.887478E-2	1.207683E-2	-3.653212E-3	1.797706E-2	1.460027E-2	8.501525E-3	9.855531E-3	1.989687E-2	2.193543E-2	2.505075E-3	2.484789E-2	3.085951E-2	9.871760E-3	9.234652E-3	1.884022E-2	2.827679E-2	2.319391E-2	3.259137E-3	6.707663E-3	1.563228E-2	1.011687E-2	8.579971E-3	1.498025E-2	7.325917E-3	1.870133E-2	1.602111E-2	3.222498E-2	-3.005355E-2
2.835020E+2	4.639961E-2	4.597535E-2	1.611634E-2	1.653196E-2	2.237385E-2	4.091591E-2	4.387857E-2	3.060894E-2	3.453422E-2	3.176783E-2	3.222015E-2	4.879361E-2	1.954757E-2	1.515273E-2	1.582628E-2	2.851344E-2	1.927443E-2	3.746117E-2	5.206525E-2	2.416309E-2	3.155006E-2	1.439432E-2	2.043507E-2	2.920326E-2	1.080577E-2	1.850308E-2	2.353855E-2	2.952724E-2	3.486812E-2	3.145323E-2	3.366757E-2	3.657564E-2	2.197652E-2	4.363355E-2	2.036985E-2	2.301645E-2	1.690291E-2	5.333507E-2	9.867070E-3	2.198071E-2	5.385286E-2	2.223910E-2	2.366550E-2	4.930434E-2	3.065789E-2	2.266049E-2	2.552710E-2	4.707756E-2	1.522289E-2	5.276891E-2	2.401908E-2	3.140960E-2	4.894628E-2	2.200041E-2	2.883628E-2	4.589336E-2	1.994440E-2	2.070602E-2	3.211182E-2	3.741951E-2	2.485424E-2	3.418586E-2	2.286659E-2	2.843183E-2	3.395044E-2	4.788211E-2	2.433898E-2	2.806130E-2	2.166972E-2	1.517704E-2	2.952392E-2	4.216619E-3	3.553958E-2	3.290444E-2	3.494005E-2	2.129704E-2	2.622514E-2	2.238442E-2	3.727380E-2	4.212296E-2	3.791598E-2	1.997194E-2	2.310384E-2	2.696488E-2	4.557756E-2	1.936541E-2	2.244431E-2	9.462151E-3	2.350668E-2	4.313275E-2	4.227390E-2	3.378861E-2	2.493938E-2	2.966183E-2	3.594591E-2	3.386180E-2	4.851334E-2	3.068910E-2	3.170738E-2	3.608064E-2	3.450176E-2	2.061777E-2	7.666586E-3	3.144138E-2	2.126413E-2	3.988658E-2	1.850402E-2	3.242544E-2	1.527699E-2	3.443318E-2	2.104574E-2	1.649103E-2	6.930326E-2	3.413787E-2	1.742265E-2	1.865856E-2	3.971322E-2	3.439691E-2	2.322829E-2	2.403753E-2	3.745675E-2	1.103528E-2	4.395039E-2	2.558802E-2	1.625490E-2	4.130199E-2	2.839161E-2	1.907835E-2	1.573734E-2	1.880764E-2	3.743595E-2	2.792939E-2	2.345589E-2	1.041049E-2	2.572008E-2	2.612630E-2	1.088394E-2	2.570273E-2	4.349054E-2	2.193453E-2	3.488150E-2	3.101702E-2	3.158559E-2	3.879375E-2	2.897263E-2	3.276391E-2	3.297338E-2	4.715724E-2	1.679201E-2	3.453234E-2	3.319188E-2	9.441216E-3	2.662911E-2	2.537690E-2	2.779403E-2	4.074523E-2	4.712275E-2	5.893591E-2	3.060183E-2	2.600737E-2	3.360132E-2	1.228073E-2	1.925355E-2	4.085301E-2	6.799140E-3	3.843883E-2	3.475837E-2	2.004774E-2	4.439132E-2	3.176131E-2
2.840030E+2	3.758814E-2	5.928653E-2	5.940500E-2	5.791791E-2	4.162737E-2	5.312427E-2	5.449659E-2	5.958582E-2	5.751112E-2	4.942326E-2	9.100239E-2	3.898842E-2	4.942167E-2	4.261774E-2	5.994412E-2	4.543841E-2	6.332069E-2	3.382602E-2	5.968199E-2	6.178339E-2	6.452864E-2	3.994226E-2	5.554562E-2	5.994398E-2	5.655421E-2	4.678225E-2	6.801640E-2	6.567957E-2	4.745449E-2	5.631482E-2	7.366205E-2	6.593453E-2	4.960826E-2	5.520650E-2	5.085534E-2	5.445049E-2	6.998423E-2	5.927687E-2	6.628884E-2	3.109332E-2	5.776258E-2	4.530227E-2	5.175169E-2	1.328649E-2	6.317625E-2	3.983031E-2	4.212284E-2	5.719317E-2	5.066507E-2	4.141645E-2	5.395084E-2	4.845281E-2	5.380532E-2	5.525831E-2	4.946482E-2	6.216009E-2	7.461019E-2	6.257436E-2	6.313309E-2	4.242392E-2	4.793069E-2	6.035384E-2	3.845266E-2	5.183074E-2	4.239605E-2	4.037851E-2	5.845242E-2	7.446329E-2	4.822958E-2	4.484245E-2	5.379869E-2	4.214036E-2	4.214650E-2	3.869253E-2	8.081752E-2	6.276890E-2	6.551982E-2	2.690894E-2	5.374116E-2	4.790711E-2	5.755352E-2	5.204979E-2	4.999771E-2	4.968757E-2	4.806948E-2	8.149072E-2	5.909722E-2	4.444563E-2	5.182212E-2	4.163087E-2	4.405683E-2	5.365693E-2	4.807493E-2	6.209855E-2	6.134416E-2	7.542138E-2	5.793622E-2	5.592596E-2	5.336654E-2	3.873055E-2	4.297298E-2	5.434466E-2	4.893801E-2	3.763361E-2	6.661474E-2	3.295653E-2	4.361286E-2	7.052044E-2	5.250223E-2	5.802937E-2	5.428144E-2	5.168139E-2	1.032583E-1	5.622563E-2	5.271596E-2	5.849398E-2	5.406253E-2	5.978897E-2	5.611629E-2	4.937170E-2	3.985348E-2	6.522401E-2	4.438153E-2	5.946605E-2	4.256473E-2	3.997409E-2	6.038981E-2	4.689345E-2	6.308822E-2	5.051263E-2	6.805430E-2	5.647386E-2	5.436092E-2	5.118242E-2	5.170271E-2	4.180931E-2	4.061405E-2	5.868542E-2	7.461211E-2	8.443137E-2	7.349040E-2	7.096806E-2	4.197736E-2	6.331401E-2	4.854295E-2	4.461008E-2	6.638230E-2	7.328000E-2	6.569201E-2	5.585880E-2	7.377413E-2	4.160951E-2	6.605382E-2	4.281541E-2	5.346830E-2	7.374216E-2	5.224175E-2	6.867790E-2	4.521083E-2	6.437288E-2	4.885907E-2	5.534070E-2	4.945785E-2	6.711533E-2	5.489923E-2	6.756261E-2	4.672433E-2	3.935009E-2	1.051222E-1	5.672958E-2
2.841010E+2	6.578522E-2	5.641992E-2	5.226380E-2	5.150968E-2	3.523412E-2	4.569164E-2	5.206959E-2	6.591716E-2	6.427244E-2	5.058054E-2	4.810543E-2	6.367058E-2	6.080441E-2	5.144777E-2	7.749599E-2	6.047022E-2	7.216408E-2	4.652756E-2	6.340341E-2	5.402222E-2	5.141378E-2	3.980293E-2	5.076017E-2	4.481208E-2	5.348263E-2	4.321092E-2	7.065520E-2	6.689489E-2	6.804224E-2	2.539436E-2	4.431135E-2	6.843738E-2	4.938260E-2	5.226727E-2	5.057151E-2	6.101304E-2	6.667425E-2	6.837746E-2	4.949613E-2	5.831442E-2	4.826015E-2	5.136631E-2	6.667551E-2	6.590654E-2	4.390426E-2	6.331465E-2	5.538198E-2	5.948943E-2	3.355339E-2	4.246853E-2	5.246734E-2	5.224809E-2	5.732340E-2	4.638939E-2	2.928127E-2	6.475547E-2	4.128192E-2	6.376394E-2	6.194405E-2	6.264215E-2	3.975336E-2	4.588484E-2	5.190720E-2	5.175095E-2	6.226509E-2	5.398577E-2	5.823531E-2	4.296551E-2	4.014630E-2	5.039171E-2	7.160542E-2	8.118566E-2	5.476414E-2	3.846088E-2	5.936820E-2	5.974933E-2	6.288030E-2	6.356176E-2	4.165491E-2	7.184975E-2	6.495984E-2	7.581518E-2	6.736183E-2	4.669525E-2	5.016770E-2	4.575681E-2	6.514161E-2	6.227147E-2	5.553640E-2	5.294278E-2	5.205963E-2	5.742587E-2	5.710107E-2	7.431050E-2	4.313203E-2	5.457670E-2	5.228898E-2	5.840297E-2	3.887499E-2	4.958890E-2	5.621949E-2	6.868200E-2	5.547503E-2	4.119913E-2	7.324042E-2	6.751447E-2	5.084722E-2	4.564402E-2	6.654067E-2	4.579110E-2	4.907461E-2	4.790924E-2	5.318743E-2	4.923303E-2	6.116446E-2	5.863977E-2	5.890821E-2	4.134337E-2	4.163863E-2	6.187740E-2	6.174984E-2	7.457868E-2	8.404654E-2	4.639876E-2	6.971786E-2	5.778851E-2	5.654193E-2	5.051249E-2	4.200207E-2	6.172815E-2	4.118445E-2	6.788776E-2	5.079500E-2	6.112683E-2	6.355102E-2	7.083805E-2	4.179243E-2	4.641314E-2	4.673501E-2	4.393107E-2	4.236522E-2	6.161121E-2	5.177322E-2	7.543684E-2	7.323440E-2	5.429741E-2	5.295812E-2	4.704046E-2	5.484239E-2	8.371996E-2	6.014933E-2	7.544677E-2	8.633679E-2	6.871040E-2	6.118179E-2	5.951982E-2	5.603569E-2	5.216914E-2	3.814719E-2	7.802837E-2	3.992735E-2	4.213943E-2	6.565887E-2	5.190565E-2	7.437926E-2	7.247724E-2	3.830983E-2	4.487321E-2	6.523637E-2	4.073977E-2
2.842060E+2	4.517440E-2	7.383576E-2	3.775528E-2	3.322953E-2	5.736396E-2	5.280122E-2	8.888104E-2	6.932758E-2	4.703644E-2	3.979424E-2	7.609096E-2	6.055619E-2	6.570735E-2	5.762101E-2	4.828695E-2	7.778926E-2	4.886449E-2	6.166184E-2	6.051431E-2	3.946322E-2	7.046590E-2	5.636139E-2	4.086637E-2	5.456316E-2	8.108854E-2	7.218636E-2	8.932677E-2	5.636280E-2	6.520592E-2	5.723203E-2	6.009572E-2	6.700499E-2	5.033517E-2	7.342439E-2	6.873597E-2	7.157851E-2	4.683322E-2	5.686932E-2	5.157325E-2	6.176032E-2	5.583780E-2	5.863216E-2	7.788158E-2	6.403089E-2	4.475563E-2	4.407649E-2	5.146967E-2	2.524990E-2	6.496537E-2	8.642864E-2	5.346068E-2	5.316666E-2	6.319703E-2	5.497828E-2	7.670895E-2	8.122669E-2	5.341528E-2	5.355382E-2	4.584488E-2	8.166907E-2	3.928474E-2	6.261719E-2	3.784007E-2	4.907964E-2	5.824820E-2	6.513352E-2	7.429725E-2	5.888025E-2	5.948740E-2	5.931414E-2	5.369604E-2	6.193805E-2	4.990918E-2	4.908516E-2	7.005333E-2	5.793452E-2	7.438989E-2	6.335348E-2	4.252255E-2	5.689430E-2	4.344000E-2	7.059172E-2	5.201121E-2	6.858531E-2	7.347991E-2	7.071696E-2	5.406353E-2	6.483689E-2	7.783458E-2	9.200727E-2	6.383196E-2	5.842156E-2	6.616987E-2	4.091394E-2	4.769656E-2	6.731250E-2	2.848503E-2	5.943179E-2	6.845313E-2	3.345955E-2	4.984365E-2	4.713429E-2	7.845864E-2	6.733267E-2	4.096500E-2	5.768824E-2	3.645914E-2	2.139623E-2	6.368038E-2	5.346205E-2	7.007227E-2	5.636974E-2	5.958861E-2	7.629451E-2	5.526250E-2	3.712622E-2	4.155354E-2	5.749431E-2	1.777324E-2	5.796681E-2	4.702985E-2	7.173536E-2	5.229731E-2	4.727115E-2	3.399871E-2	6.917710E-2	5.624410E-2	7.538916E-2	6.540449E-2	5.990213E-2	6.597709E-2	5.480571E-2	4.320190E-2	6.348862E-2	5.986137E-2	3.319757E-2	3.104277E-2	4.862345E-2	7.614355E-2	3.476236E-2	8.023099E-2	6.261028E-2	4.076413E-2	5.394602E-2	5.054358E-2	5.028389E-2	6.744616E-2	4.537093E-2	5.448565E-2	5.807253E-2	6.289775E-2	5.569677E-2	7.249099E-2	6.984291E-2	6.099211E-2	4.591005E-2	4.126721E-2	7.231053E-2	5.485847E-2	5.827699E-2	6.270245E-2	8.124714E-2	4.974918E-2	6.322779E-2	3.622393E-2	5.241797E-2	3.864378E-2	2.859647E-2	6.635544E-2	1.852137E-2
2.843040E+2	7.485862E-2	7.463947E-2	8.356799E-2	3.903915E-2	8.117401E-2	8.100309E-2	9.103595E-2	7.703331E-2	6.900256E-2	4.565698E-2	6.623789E-2	7.979986E-2	9.122184E-2	8.060615E-2	7.186415E-2	7.545482E-2	7.567166E-2	7.075952E-2	7.422326E-2	4.141673E-2	7.370444E-2	5.952244E-2	8.880689E-2	8.975078E-2	9.462774E-2	6.710096E-2	6.437005E-2	7.756189E-2	7.783340E-2	7.833507E-2	8.080513E-2	8.556560E-2	7.311656E-2	8.915192E-2	1.029258E-1	5.597754E-2	8.488651E-2	6.907389E-2	6.143113E-2	7.828624E-2	8.077301E-2	6.698508E-2	6.861649E-2	7.502007E-2	4.798066E-2	9.154983E-2	7.072133E-2	8.016776E-2	7.929242E-2	7.159001E-2	7.320870E-2	7.194788E-2	7.131635E-2	5.572104E-2	9.149765E-2	1.201207E-1	5.789390E-2	9.944714E-2	8.223318E-2	8.252700E-2	7.755785E-2	8.052680E-2	7.380130E-2	7.524514E-2	1.086780E-1	6.845751E-2	9.855211E-2	7.473027E-2	5.756396E-2	7.496665E-2	1.025762E-1	7.813229E-2	8.003471E-2	6.452070E-2	6.962587E-2	4.570372E-2	7.653951E-2	9.006519E-2	7.243433E-2	9.117577E-2	8.076144E-2	7.923134E-2	9.878787E-2	7.344578E-2	9.570484E-2	7.403184E-2	9.446596E-2	7.601278E-2	6.438048E-2	7.833940E-2	7.298814E-2	1.099030E-1	8.314476E-2	7.508738E-2	7.909874E-2	6.091249E-2	1.067082E-1	6.156017E-2	9.572946E-2	6.868356E-2	5.060618E-2	5.987404E-2	7.315869E-2	9.229542E-2	7.654576E-2	9.520173E-2	8.203111E-2	7.663095E-2	6.180261E-2	7.188786E-2	9.739985E-2	7.476126E-2	9.893722E-2	8.311051E-2	7.468285E-2	8.178016E-2	8.275656E-2	8.305105E-2	6.929453E-2	7.987623E-2	7.666396E-2	6.449249E-2	1.028214E-1	1.069785E-1	8.879641E-2	8.823577E-2	9.201335E-2	5.822687E-2	6.482492E-2	7.660707E-2	6.550716E-2	6.976708E-2	9.683430E-2	5.435531E-2	5.584270E-2	7.410285E-2	7.329855E-2	8.095102E-2	7.450172E-2	6.863317E-2	8.523276E-2	7.307653E-2	1.005092E-1	6.782293E-2	9.027413E-2	9.327985E-2	7.503875E-2	6.619998E-2	7.587953E-2	7.967635E-2	7.932689E-2	6.353691E-2	8.424740E-2	1.129643E-1	9.228355E-2	8.203367E-2	8.549748E-2	7.430790E-2	1.041997E-1	8.885022E-2	6.054436E-2	1.033247E-1	7.870774E-2	9.368061E-2	5.269977E-2	7.100414E-2	5.730776E-2	5.802761E-2	3.896936E-2	1.181130E-1
2.844040E+2	1.074167E-1	1.166440E-1	1.138995E-1	1.138978E-1	9.061234E-2	1.003629E-1	1.496940E-1	1.229466E-1	1.064172E-1	1.237685E-1	1.190984E-1	9.310708E-2	1.179585E-1	1.311049E-1	7.366645E-2	9.793819E-2	9.931206E-2	1.241336E-1	1.204383E-1	1.059499E-1	8.887933E-2	1.051226E-1	1.003713E-1	1.236903E-1	1.122236E-1	1.220431E-1	1.030483E-1	1.307580E-1	1.035003E-1	1.116166E-1	9.764202E-2	1.128172E-1	9.719516E-2	1.265688E-1	1.021826E-1	1.308067E-1	1.277388E-1	1.250328E-1	1.217792E-1	1.130133E-1	8.807980E-2	1.110175E-1	1.251218E-1	1.433193E-1	1.070442E-1	7.887606E-2	1.084842E-1	1.176623E-1	1.058126E-1	9.188355E-2	9.555233E-2	8.507524E-2	1.101313E-1	1.203798E-1	1.379348E-1	1.307831E-1	1.050671E-1	1.014434E-1	1.236006E-1	1.349813E-1	8.349353E-2	1.105806E-1	1.148511E-1	1.039283E-1	1.182842E-1	1.036715E-1	1.088253E-1	1.299604E-1	1.233319E-1	1.215430E-1	1.032497E-1	1.290333E-1	6.134137E-2	1.131456E-1	1.105009E-1	1.185050E-1	1.245872E-1	1.101606E-1	6.316077E-2	9.528527E-2	1.053877E-1	1.248577E-1	1.243769E-1	1.041516E-1	1.033085E-1	1.449510E-1	7.879770E-2	1.183502E-1	1.090553E-1	1.080325E-1	9.864005E-2	1.091212E-1	1.188657E-1	1.130090E-1	1.090720E-1	1.031225E-1	1.241768E-1	1.414675E-1	1.252390E-1	1.052037E-1	1.161353E-1	7.239064E-2	9.096041E-2	1.031396E-1	1.014099E-1	1.040272E-1	1.176467E-1	1.138784E-1	8.972319E-2	1.080870E-1	1.145554E-1	1.438175E-1	8.708714E-2	1.077347E-1	1.210235E-1	1.426869E-1	9.323844E-2	1.418373E-1	1.029111E-1	1.104923E-1	1.314674E-1	1.284142E-1	1.189116E-1	1.313598E-1	1.093171E-1	1.150408E-1	1.161163E-1	1.106590E-1	1.041880E-1	1.062922E-1	1.080126E-1	1.275429E-1	1.160847E-1	9.990004E-2	1.160485E-1	1.151452E-1	9.740411E-2	8.663301E-2	9.509713E-2	1.054729E-1	1.107239E-1	1.016989E-1	1.290666E-1	1.056712E-1	1.194052E-1	1.001500E-1	1.166413E-1	1.045581E-1	1.054716E-1	1.172759E-1	1.053376E-1	8.839684E-2	1.262254E-1	1.349264E-1	1.056937E-1	1.045288E-1	1.457990E-1	1.099977E-1	8.995683E-2	8.945743E-2	1.199476E-1	8.930442E-2	1.115326E-1	1.072610E-1	1.274374E-1	1.205723E-1	1.061011E-1	1.565692E-1	1.345901E-1	1.305323E-1
2.845040E+2	1.520746E-1	1.591130E-1	1.417327E-1	1.457616E-1	1.652281E-1	1.665448E-1	1.713135E-1	1.357335E-1	1.345382E-1	1.154188E-1	1.546452E-1	1.705615E-1	1.479381E-1	1.293860E-1	1.308227E-1	1.667069E-1	1.310774E-1	1.792804E-1	1.382888E-1	1.487422E-1	1.729108E-1	1.671472E-1	1.476511E-1	1.451562E-1	1.885494E-1	1.966180E-1	1.559110E-1	2.020752E-1	1.520806E-1	1.316027E-1	1.788792E-1	1.658432E-1	1.521783E-1	1.822560E-1	1.811803E-1	1.496772E-1	1.734713E-1	1.491366E-1	1.724197E-1	1.676856E-1	1.567080E-1	1.594277E-1	1.873723E-1	1.737422E-1	1.981294E-1	1.703413E-1	1.878387E-1	1.767791E-1	1.562888E-1	1.482102E-1	1.825954E-1	1.756796E-1	1.506660E-1	1.651390E-1	1.759797E-1	1.615557E-1	1.527729E-1	1.662739E-1	1.468169E-1	2.006588E-1	1.573724E-1	1.632673E-1	1.322097E-1	1.550049E-1	1.666657E-1	1.354455E-1	1.485326E-1	1.507065E-1	1.335652E-1	1.663759E-1	1.489372E-1	1.805713E-1	1.835443E-1	1.647990E-1	1.444577E-1	1.674904E-1	1.572544E-1	1.763076E-1	1.596950E-1	1.731657E-1	1.380164E-1	1.452012E-1	1.647615E-1	1.525635E-1	1.683832E-1	1.556766E-1	1.478274E-1	1.466153E-1	1.697499E-1	1.844789E-1	1.569054E-1	1.599811E-1	1.563965E-1	1.451443E-1	1.360346E-1	1.403730E-1	1.679645E-1	1.492822E-1	1.465628E-1	1.608496E-1	1.648072E-1	1.529775E-1	1.510690E-1	1.667181E-1	1.618377E-1	1.556695E-1	1.551531E-1	1.530230E-1	1.586796E-1	1.584992E-1	1.498809E-1	1.550321E-1	1.546268E-1	1.495809E-1	1.714587E-1	1.181092E-1	1.299879E-1	1.571820E-1	1.358170E-1	1.440181E-1	1.470114E-1	1.591533E-1	1.378592E-1	1.531082E-1	1.715082E-1	1.580153E-1	1.588981E-1	1.539888E-1	1.480563E-1	1.787832E-1	1.433432E-1	1.485729E-1	1.455665E-1	1.422169E-1	1.577295E-1	1.427129E-1	1.454939E-1	1.715921E-1	1.398691E-1	1.544207E-1	1.518521E-1	1.711803E-1	1.494724E-1	1.826697E-1	2.047951E-1	1.637616E-1	1.463515E-1	1.501489E-1	1.577516E-1	1.714621E-1	1.402070E-1	1.438026E-1	1.590973E-1	1.692058E-1	1.642580E-1	1.617220E-1	1.627860E-1	1.753373E-1	1.519761E-1	1.478631E-1	1.548146E-1	1.542366E-1	1.655176E-1	1.445312E-1	1.350169E-1	1.527055E-1	1.524115E-1	1.777450E-1	1.319144E-1	1.667018E-1
2.846030E+2	2.844845E-1	2.834026E-1	2.862020E-1	2.634349E-1	2.500249E-1	2.502131E-1	2.606979E-1	2.873631E-1	2.660882E-1	2.524723E-1	2.679044E-1	2.741950E-1	3.049997E-1	2.780815E-1	2.833087E-1	2.778565E-1	2.621265E-1	3.019389E-1	2.780469E-1	2.910528E-1	2.624113E-1	2.585703E-1	2.451567E-1	2.608601E-1	3.507028E-1	3.012272E-1	3.369518E-1	3.360548E-1	2.814378E-1	3.396217E-1	3.324120E-1	2.970742E-1	3.676341E-1	3.231112E-1	2.874568E-1	3.109750E-1	3.162545E-1	3.114612E-1	3.470910E-1	3.598838E-1	2.984580E-1	2.904176E-1	2.663450E-1	3.581381E-1	3.112966E-1	3.008708E-1	2.661404E-1	2.787850E-1	3.017755E-1	2.748893E-1	3.082492E-1	2.619610E-1	2.969550E-1	2.938287E-1	2.972712E-1	3.031575E-1	2.665529E-1	3.053490E-1	3.068360E-1	3.267380E-1	3.495622E-1	2.802262E-1	2.857000E-1	2.968526E-1	2.974402E-1	3.134267E-1	2.969192E-1	2.736156E-1	3.047206E-1	2.900067E-1	3.137789E-1	3.087756E-1	2.719448E-1	3.108941E-1	2.657647E-1	2.643439E-1	2.961192E-1	2.830540E-1	2.922692E-1	3.131887E-1	3.085255E-1	2.737903E-1	2.974003E-1	2.680945E-1	2.469774E-1	2.801342E-1	2.826956E-1	3.121061E-1	3.218113E-1	2.828487E-1	2.761284E-1	2.787056E-1	2.974323E-1	2.839187E-1	2.913175E-1	2.661128E-1	2.718941E-1	3.004914E-1	2.861884E-1	2.623698E-1	2.627355E-1	2.924009E-1	2.576030E-1	2.695384E-1	3.186997E-1	2.981712E-1	2.925426E-1	2.675858E-1	2.807944E-1	2.832322E-1	2.642391E-1	2.819505E-1	3.071916E-1	3.095558E-1	2.983715E-1	2.560713E-1	2.809049E-1	2.700103E-1	2.452684E-1	2.829970E-1	3.157406E-1	2.845117E-1	2.856000E-1	3.028766E-1	2.710825E-1	2.640155E-1	2.434525E-1	2.347475E-1	2.861449E-1	2.716309E-1	2.846614E-1	2.397675E-1	2.868517E-1	2.699124E-1	2.677155E-1	2.667208E-1	3.092763E-1	2.360791E-1	2.752356E-1	2.367996E-1	2.818976E-1	2.959496E-1	2.915389E-1	2.159909E-1	2.795704E-1	3.041184E-1	2.831923E-1	2.730891E-1	2.951784E-1	2.776559E-1	2.638224E-1	3.130332E-1	3.172792E-1	3.248770E-1	2.715461E-1	3.014247E-1	2.970128E-1	2.747676E-1	2.875936E-1	2.652737E-1	2.504352E-1	2.821529E-1	2.791355E-1	2.677608E-1	3.046979E-1	3.000940E-1	2.228594E-1	2.523079E-1	2.432753E-1	2.613623E-1
2.847030E+2	7.816091E-1	8.124380E-1	7.885142E-1	8.206105E-1	8.033177E-1	8.142117E-1	8.652694E-1	8.155313E-1	8.647996E-1	8.151048E-1	7.803809E-1	8.506416E-1	8.395114E-1	8.157649E-1	9.058803E-1	8.158234E-1	8.681927E-1	7.729334E-1	8.253383E-1	8.367669E-1	7.810770E-1	7.672562E-1	7.954292E-1	8.218365E-1	9.768997E-1	9.092592E-1	9.072528E-1	9.616375E-1	9.493395E-1	8.662599E-1	9.480281E-1	8.584428E-1	9.580670E-1	9.811187E-1	9.080918E-1	8.413183E-1	9.184332E-1	9.224984E-1	9.214809E-1	8.560103E-1	9.240664E-1	9.540560E-1	9.464328E-1	8.943131E-1	9.132895E-1	8.399931E-1	8.844529E-1	9.560602E-1	9.095387E-1	8.717524E-1	9.701101E-1	9.412576E-1	8.297557E-1	8.122046E-1	8.683322E-1	8.991690E-1	9.204764E-1	9.454957E-1	9.007356E-1	8.765958E-1	8.368670E-1	8.761748E-1	8.575507E-1	9.174869E-1	8.806407E-1	8.494491E-1	8.783615E-1	8.954351E-1	8.783915E-1	8.620905E-1	8.772045E-1	9.591262E-1	8.846660E-1	8.944121E-1	8.662638E-1	9.259557E-1	8.199388E-1	8.890836E-1	9.649363E-1	8.834705E-1	8.428856E-1	8.571063E-1	8.871671E-1	8.270092E-1	8.664081E-1	8.483759E-1	8.367017E-1	8.712962E-1	8.374388E-1	8.651355E-1	7.981282E-1	9.399647E-1	9.373518E-1	9.403956E-1	8.948154E-1	8.464493E-1	9.360890E-1	8.309673E-1	8.582460E-1	8.616436E-1	8.371527E-1	8.685891E-1	8.436791E-1	8.528282E-1	8.822493E-1	8.681763E-1	8.631589E-1	9.040800E-1	8.532707E-1	8.262181E-1	8.110798E-1	8.381055E-1	8.841929E-1	8.081455E-1	8.769833E-1	8.569733E-1	8.065351E-1	8.516190E-1	8.841644E-1	8.024606E-1	8.406742E-1	8.592754E-1	8.482534E-1	9.198504E-1	8.562411E-1	8.290466E-1	8.416245E-1	8.229134E-1	8.561800E-1	8.921751E-1	8.039377E-1	8.453216E-1	8.608870E-1	8.121224E-1	8.798253E-1	8.507166E-1	8.894012E-1	8.173009E-1	8.786069E-1	8.529167E-1	8.005517E-1	8.897481E-1	8.257160E-1	8.911476E-1	7.808484E-1	8.061583E-1	8.182003E-1	8.315843E-1	8.381272E-1	8.478506E-1	8.743128E-1	8.717700E-1	8.263812E-1	8.311676E-1	8.227626E-1	8.299113E-1	8.645643E-1	8.556301E-1	8.643809E-1	8.847393E-1	7.925730E-1	8.151873E-1	8.218943E-1	8.352544E-1	8.627327E-1	7.980877E-1	8.574257E-1	8.847881E-1	8.581335E-1	8.405070E-1
2.848060E+2	1.484643E+0	1.382168E+0	1.421206E+0	1.411012E+0	1.327711E+0	1.425884E+0	1.345150E+0	1.402623E+0	1.495777E+0	1.427593E+0	1.483950E+0	1.358761E+0	1.444987E+0	1.528031E+0	1.432526E+0	1.449814E+0	1.499371E+0	1.402395E+0	1.468434E+0	1.332044E+0	1.389431E+0	1.464184E+0	1.425573E+0	1.419666E+0	1.413892E+0	1.491167E+0	1.482164E+0	1.365483E+0	1.449521E+0	1.483012E+0	1.378365E+0	1.473893E+0	1.488518E+0	1.424639E+0	1.456220E+0	1.473887E+0	1.410930E+0	1.446249E+0	1.455249E+0	1.495384E+0	1.468756E+0	1.470848E+0	1.430472E+0	1.446464E+0	1.550204E+0	1.399450E+0	1.494948E+0	1.416352E+0	1.460076E+0	1.416114E+0	1.518519E+0	1.416934E+0	1.498850E+0	1.467766E+0	1.387511E+0	1.474840E+0	1.461417E+0	1.462949E+0	1.444534E+0	1.497555E+0	1.464050E+0	1.434774E+0	1.427797E+0	1.411316E+0	1.346481E+0	1.433070E+0	1.296339E+0	1.519241E+0	1.457506E+0	1.411470E+0	1.453425E+0	1.418855E+0	1.469235E+0	1.423964E+0	1.443613E+0	1.436169E+0	1.511263E+0	1.469752E+0	1.350353E+0	1.380677E+0	1.344622E+0	1.478344E+0	1.479008E+0	1.518959E+0	1.428938E+0	1.421854E+0	1.442971E+0	1.469431E+0	1.371081E+0	1.323508E+0	1.362924E+0	1.475280E+0	1.408458E+0	1.464418E+0	1.504050E+0	1.402800E+0	1.338709E+0	1.411359E+0	1.349842E+0	1.386205E+0	1.457417E+0	1.473985E+0	1.394731E+0	1.453261E+0	1.447192E+0	1.374331E+0	1.467283E+0	1.413899E+0	1.447105E+0	1.418216E+0	1.428385E+0	1.355906E+0	1.450139E+0	1.346324E+0	1.375066E+0	1.462127E+0	1.356913E+0	1.487540E+0	1.406209E+0	1.482189E+0	1.487106E+0	1.438852E+0	1.453102E+0	1.450290E+0	1.448816E+0	1.414668E+0	1.410172E+0	1.424437E+0	1.435194E+0	1.485415E+0	1.428042E+0	1.360303E+0	1.452688E+0	1.393365E+0	1.420893E+0	1.426845E+0	1.404465E+0	1.396882E+0	1.404589E+0	1.359289E+0	1.413349E+0	1.461193E+0	1.490924E+0	1.436512E+0	1.513388E+0	1.360863E+0	1.464465E+0	1.419623E+0	1.419590E+0	1.397933E+0	1.420198E+0	1.436735E+0	1.433782E+0	1.472363E+0	1.378841E+0	1.404643E+0	1.414175E+0	1.421789E+0	1.492845E+0	1.446393E+0	1.503580E+0	1.526841E+0	1.430884E+0	1.365790E+0	1.432200E+0	1.369742E+0	1.503846E+0	1.394968E+0	1.494280E+0	1.541540E+0
2.849010E+2	1.458542E+0	1.577295E+0	1.559507E+0	1.584118E+0	1.531527E+0	1.501813E+0	1.500835E+0	1.649842E+0	1.558817E+0	1.528668E+0	1.457583E+0	1.552912E+0	1.581564E+0	1.493170E+0	1.606992E+0	1.532902E+0	1.537544E+0	1.503054E+0	1.510462E+0	1.482196E+0	1.441288E+0	1.523364E+0	1.534054E+0	1.491180E+0	1.491371E+0	1.544120E+0	1.501241E+0	1.456879E+0	1.584071E+0	1.472934E+0	1.572365E+0	1.504681E+0	1.525915E+0	1.547217E+0	1.440686E+0	1.449632E+0	1.506277E+0	1.437959E+0	1.525423E+0	1.535607E+0	1.504001E+0	1.497928E+0	1.512820E+0	1.546647E+0	1.435416E+0	1.464157E+0	1.478411E+0	1.425409E+0	1.444863E+0	1.589186E+0	1.612109E+0	1.559839E+0	1.486009E+0	1.519459E+0	1.505899E+0	1.579372E+0	1.561467E+0	1.523884E+0	1.546110E+0	1.541337E+0	1.603913E+0	1.482084E+0	1.487929E+0	1.544460E+0	1.586691E+0	1.509605E+0	1.553893E+0	1.547851E+0	1.604487E+0	1.379805E+0	1.580538E+0	1.545448E+0	1.550913E+0	1.456140E+0	1.528961E+0	1.581888E+0	1.577953E+0	1.487374E+0	1.565144E+0	1.536612E+0	1.488290E+0	1.466701E+0	1.506689E+0	1.478621E+0	1.488151E+0	1.550563E+0	1.580960E+0	1.542114E+0	1.533942E+0	1.404712E+0	1.511236E+0	1.501625E+0	1.570388E+0	1.504728E+0	1.517349E+0	1.394095E+0	1.484171E+0	1.584337E+0	1.534167E+0	1.543093E+0	1.513153E+0	1.469333E+0	1.469200E+0	1.475890E+0	1.474109E+0	1.413065E+0	1.589934E+0	1.561377E+0	1.534996E+0	1.488248E+0	1.554735E+0	1.495951E+0	1.566283E+0	1.541748E+0	1.486792E+0	1.616967E+0	1.521047E+0	1.548963E+0	1.487358E+0	1.499257E+0	1.597197E+0	1.481918E+0	1.562234E+0	1.569607E+0	1.588955E+0	1.508054E+0	1.402701E+0	1.529568E+0	1.565865E+0	1.600303E+0	1.523930E+0	1.557614E+0	1.592024E+0	1.505888E+0	1.528694E+0	1.477267E+0	1.586310E+0	1.524334E+0	1.564889E+0	1.479936E+0	1.537241E+0	1.498172E+0	1.599306E+0	1.504213E+0	1.599302E+0	1.503421E+0	1.484558E+0	1.676762E+0	1.507298E+0	1.471031E+0	1.535137E+0	1.561380E+0	1.526662E+0	1.474307E+0	1.602233E+0	1.575383E+0	1.565292E+0	1.605572E+0	1.571684E+0	1.522093E+0	1.635853E+0	1.558156E+0	1.500539E+0	1.518104E+0	1.559163E+0	1.584790E+0	1.553032E+0	1.651296E+0	1.553012E+0	1.661547E+0
2.850030E+2	1.450764E+0	1.372571E+0	1.402671E+0	1.432728E+0	1.419327E+0	1.418875E+0	1.337518E+0	1.357441E+0	1.400953E+0	1.381497E+0	1.357077E+0	1.406472E+0	1.434971E+0	1.334484E+0	1.400792E+0	1.346463E+0	1.393486E+0	1.360459E+0	1.463705E+0	1.356695E+0	1.370392E+0	1.445104E+0	1.352431E+0	1.391229E+0	1.430135E+0	1.317124E+0	1.424786E+0	1.356609E+0	1.402893E+0	1.393829E+0	1.394426E+0	1.447916E+0	1.452356E+0	1.273298E+0	1.319349E+0	1.381734E+0	1.350071E+0	1.391077E+0	1.396950E+0	1.328713E+0	1.371260E+0	1.317232E+0	1.344840E+0	1.313030E+0	1.352642E+0	1.331908E+0	1.306873E+0	1.398969E+0	1.244854E+0	1.422023E+0	1.393586E+0	1.338686E+0	1.336560E+0	1.369749E+0	1.340548E+0	1.411523E+0	1.408019E+0	1.410099E+0	1.422941E+0	1.313470E+0	1.468552E+0	1.296056E+0	1.341287E+0	1.362925E+0	1.331668E+0	1.394618E+0	1.379632E+0	1.433266E+0	1.297162E+0	1.311046E+0	1.450927E+0	1.325471E+0	1.400077E+0	1.384657E+0	1.388583E+0	1.471128E+0	1.346047E+0	1.353987E+0	1.428180E+0	1.365974E+0	1.393167E+0	1.335918E+0	1.425752E+0	1.317140E+0	1.327919E+0	1.373927E+0	1.410215E+0	1.402776E+0	1.449029E+0	1.349204E+0	1.335101E+0	1.399724E+0	1.284496E+0	1.373042E+0	1.423888E+0	1.331918E+0	1.376498E+0	1.528672E+0	1.387031E+0	1.480857E+0	1.378920E+0	1.357902E+0	1.412495E+0	1.346398E+0	1.327324E+0	1.383663E+0	1.435053E+0	1.354919E+0	1.373596E+0	1.377100E+0	1.436156E+0	1.408573E+0	1.419766E+0	1.447974E+0	1.307207E+0	1.409531E+0	1.399514E+0	1.327563E+0	1.328047E+0	1.355595E+0	1.406336E+0	1.487291E+0	1.432294E+0	1.401410E+0	1.330705E+0	1.327565E+0	1.401406E+0	1.429864E+0	1.332434E+0	1.435008E+0	1.406602E+0	1.500021E+0	1.469965E+0	1.372885E+0	1.359272E+0	1.383291E+0	1.358554E+0	1.377950E+0	1.349805E+0	1.422644E+0	1.341068E+0	1.375858E+0	1.402115E+0	1.400534E+0	1.461067E+0	1.416018E+0	1.387869E+0	1.394703E+0	1.372911E+0	1.388688E+0	1.414053E+0	1.313488E+0	1.443517E+0	1.425486E+0	1.428791E+0	1.315893E+0	1.426063E+0	1.428019E+0	1.460427E+0	1.416213E+0	1.419947E+0	1.380159E+0	1.400327E+0	1.451104E+0	1.328669E+0	1.363586E+0	1.453138E+0	1.353950E+0	1.377887E+0	1.430249E+0
2.851090E+2	8.460903E-1	8.959039E-1	9.584541E-1	9.019369E-1	9.206514E-1	8.286388E-1	9.337845E-1	8.890048E-1	9.112045E-1	8.539421E-1	8.920516E-1	9.450492E-1	8.717889E-1	8.304741E-1	8.625861E-1	8.229431E-1	8.654451E-1	9.469228E-1	8.951093E-1	9.559091E-1	8.371694E-1	8.783228E-1	8.714229E-1	9.372644E-1	9.161961E-1	9.240067E-1	8.052354E-1	8.570362E-1	9.055220E-1	8.983519E-1	9.188659E-1	8.401336E-1	9.431614E-1	9.210085E-1	8.677011E-1	8.844222E-1	8.820861E-1	8.833423E-1	8.592878E-1	8.585825E-1	9.244225E-1	9.864756E-1	8.909827E-1	8.898541E-1	8.554832E-1	8.485636E-1	8.781009E-1	9.285701E-1	8.681362E-1	8.497306E-1	9.338773E-1	9.034024E-1	9.139302E-1	9.160037E-1	9.069742E-1	8.777599E-1	9.230284E-1	9.188115E-1	9.089947E-1	8.859971E-1	9.554849E-1	8.802361E-1	9.102092E-1	8.737482E-1	9.446508E-1	8.502896E-1	8.198975E-1	9.074399E-1	8.642398E-1	8.982099E-1	8.783470E-1	9.762908E-1	9.267655E-1	8.591196E-1	8.575756E-1	8.791275E-1	9.383659E-1	9.600146E-1	9.516242E-1	8.513241E-1	8.827401E-1	9.052627E-1	9.121095E-1	9.061561E-1	9.134197E-1	9.184254E-1	8.439240E-1	9.350698E-1	9.485084E-1	8.679441E-1	8.384563E-1	9.122468E-1	9.949531E-1	9.455125E-1	9.522125E-1	8.844780E-1	8.995028E-1	8.824828E-1	8.372651E-1	9.181864E-1	9.177248E-1	8.683362E-1	9.526935E-1	9.095519E-1	9.534020E-1	8.518985E-1	9.093574E-1	8.900009E-1	8.890594E-1	8.381795E-1	9.366171E-1	9.046137E-1	8.839977E-1	9.194751E-1	8.687804E-1	8.915620E-1	9.125941E-1	8.973427E-1	9.323399E-1	8.915480E-1	9.367676E-1	9.425649E-1	8.526229E-1	8.573462E-1	9.200688E-1	8.886353E-1	8.864450E-1	9.608393E-1	9.511957E-1	9.398469E-1	8.529272E-1	8.583543E-1	8.848378E-1	8.813603E-1	9.114665E-1	9.436278E-1	8.666036E-1	8.863972E-1	8.942918E-1	8.759417E-1	9.238708E-1	9.032061E-1	8.924054E-1	9.075144E-1	8.940942E-1	8.762161E-1	8.569751E-1	9.263839E-1	8.952676E-1	9.611813E-1	9.554688E-1	8.929415E-1	8.947283E-1	9.017181E-1	8.642844E-1	8.975591E-1	9.174708E-1	9.421081E-1	9.062942E-1	9.239015E-1	9.048465E-1	9.069719E-1	9.649601E-1	9.007230E-1	8.920593E-1	8.926370E-1	8.870234E-1	8.948256E-1	8.876925E-1	1.040951E+0
2.852020E+2	6.633137E-1	6.023765E-1	6.719482E-1	6.997741E-1	6.872358E-1	6.603235E-1	7.087544E-1	6.215469E-1	7.225200E-1	6.261815E-1	6.378662E-1	6.817655E-1	7.125069E-1	6.164376E-1	6.556133E-1	6.412203E-1	6.889439E-1	6.255940E-1	6.378069E-1	6.643082E-1	6.809232E-1	7.048516E-1	6.618662E-1	6.868364E-1	6.488531E-1	6.890834E-1	6.822829E-1	6.089270E-1	6.610724E-1	6.596228E-1	6.600811E-1	6.520286E-1	6.767251E-1	6.723138E-1	6.719254E-1	6.815567E-1	6.692166E-1	6.375908E-1	6.622212E-1	6.411061E-1	6.984036E-1	6.659081E-1	6.664918E-1	6.466462E-1	6.739512E-1	6.875188E-1	6.251657E-1	6.293781E-1	6.311736E-1	6.469563E-1	6.700667E-1	6.368345E-1	6.719236E-1	6.714721E-1	6.525979E-1	6.417193E-1	6.836013E-1	6.774618E-1	6.681741E-1	6.460938E-1	6.239527E-1	6.373032E-1	6.457394E-1	6.544293E-1	6.575979E-1	5.805926E-1	6.431286E-1	6.671151E-1	6.288569E-1	6.647034E-1	6.408008E-1	6.804569E-1	6.372595E-1	6.525830E-1	6.677015E-1	6.679051E-1	6.326269E-1	6.462140E-1	6.597306E-1	6.303331E-1	6.334756E-1	6.199042E-1	6.922137E-1	6.336422E-1	6.725113E-1	6.536740E-1	6.665296E-1	6.521282E-1	6.603277E-1	6.474739E-1	6.782644E-1	6.908010E-1	6.747969E-1	7.062462E-1	6.481724E-1	6.323465E-1	6.931601E-1	6.365978E-1	6.584724E-1	6.922984E-1	6.621469E-1	6.629772E-1	6.185420E-1	6.251783E-1	6.870835E-1	6.438370E-1	6.793427E-1	6.318880E-1	6.945479E-1	6.244702E-1	6.882512E-1	6.995348E-1	6.479378E-1	6.972602E-1	6.311941E-1	6.508629E-1	6.649025E-1	6.606750E-1	6.356805E-1	6.511805E-1	6.664933E-1	6.627696E-1	7.255001E-1	6.776049E-1	6.616617E-1	6.925667E-1	6.541441E-1	6.402656E-1	6.717930E-1	7.057367E-1	6.599612E-1	6.225410E-1	6.702525E-1	6.648720E-1	5.905890E-1	6.981089E-1	7.402255E-1	6.136229E-1	6.176208E-1	6.215724E-1	6.518449E-1	7.313882E-1	6.701327E-1	6.968031E-1	6.711451E-1	6.431402E-1	6.575384E-1	6.493889E-1	6.678433E-1	6.485317E-1	6.745814E-1	7.015707E-1	6.678480E-1	6.015044E-1	6.507514E-1	7.192594E-1	6.794725E-1	6.994367E-1	7.208000E-1	6.705731E-1	6.818877E-1	6.480726E-1	7.020792E-1	6.680705E-1	7.125431E-1	6.346074E-1	7.311252E-1	6.228795E-1	7.649469E-1	6.970444E-1
2.853020E+2	5.455745E-1	4.933685E-1	4.971377E-1	4.759088E-1	5.193311E-1	4.767111E-1	5.684269E-1	4.631053E-1	5.886658E-1	5.131730E-1	5.141218E-1	5.478861E-1	5.558158E-1	4.755763E-1	5.265120E-1	5.175866E-1	5.315368E-1	5.500569E-1	5.255735E-1	5.126756E-1	5.074328E-1	5.247782E-1	5.130105E-1	5.332535E-1	5.361208E-1	5.288151E-1	5.248679E-1	4.784153E-1	5.371394E-1	5.064539E-1	5.793961E-1	5.005196E-1	5.232158E-1	5.744447E-1	5.019847E-1	5.572379E-1	5.577611E-1	5.104541E-1	5.015652E-1	4.742754E-1	5.096799E-1	4.946812E-1	5.573298E-1	5.135565E-1	5.174198E-1	5.314989E-1	5.551441E-1	4.993488E-1	5.324156E-1	5.392098E-1	4.753832E-1	5.554951E-1	5.671415E-1	5.640115E-1	5.082851E-1	5.155051E-1	4.868759E-1	5.238567E-1	5.354975E-1	5.105708E-1	5.353637E-1	4.954149E-1	5.046682E-1	4.929391E-1	5.520099E-1	5.288230E-1	4.860308E-1	5.045283E-1	5.360790E-1	5.297133E-1	5.162564E-1	4.978114E-1	5.091505E-1	5.025401E-1	4.540562E-1	4.855778E-1	5.337387E-1	4.945619E-1	5.333094E-1	5.026038E-1	4.907592E-1	4.836687E-1	5.039254E-1	5.566251E-1	5.175648E-1	5.592063E-1	5.167943E-1	4.969746E-1	5.307822E-1	4.753141E-1	5.083537E-1	5.471218E-1	5.444249E-1	5.570030E-1	5.246866E-1	5.377741E-1	4.457592E-1	5.577475E-1	5.401112E-1	5.446920E-1	4.940483E-1	5.557964E-1	5.131257E-1	4.839566E-1	5.018557E-1	5.037317E-1	5.121912E-1	5.444843E-1	5.429399E-1	5.860867E-1	5.625480E-1	5.400879E-1	5.342522E-1	5.127259E-1	4.697243E-1	5.373499E-1	5.186879E-1	5.094972E-1	5.126175E-1	4.943179E-1	5.605211E-1	5.360891E-1	5.504177E-1	5.618088E-1	5.151498E-1	5.203256E-1	5.448958E-1	5.383719E-1	5.417293E-1	5.378432E-1	4.952619E-1	5.192553E-1	5.134922E-1	5.462106E-1	5.427568E-1	4.928299E-1	5.002800E-1	5.070941E-1	5.266231E-1	5.003371E-1	5.562864E-1	5.597298E-1	5.106318E-1	5.350108E-1	5.259633E-1	5.268354E-1	5.315823E-1	5.388482E-1	4.654925E-1	4.873683E-1	5.351350E-1	5.554984E-1	5.481589E-1	5.628677E-1	5.605602E-1	5.119619E-1	4.738492E-1	5.766546E-1	5.285736E-1	5.688274E-1	5.276614E-1	5.146058E-1	5.217522E-1	5.372041E-1	6.036751E-1	5.369666E-1	5.029112E-1	4.980297E-1	5.532228E-1	5.623234E-1
2.854160E+2	3.140936E-1	3.902531E-1	3.899874E-1	3.599553E-1	3.563761E-1	4.151240E-1	4.142838E-1	3.762352E-1	4.124984E-1	3.699427E-1	3.866561E-1	3.942946E-1	3.963593E-1	3.939211E-1	3.689569E-1	3.895124E-1	3.816652E-1	3.995078E-1	3.643643E-1	4.323471E-1	3.962928E-1	3.981135E-1	3.799926E-1	3.658149E-1	4.130900E-1	4.201403E-1	4.271429E-1	4.185966E-1	4.567296E-1	3.730950E-1	3.674046E-1	3.914423E-1	4.001206E-1	3.645686E-1	4.139620E-1	4.488962E-1	4.054723E-1	3.901910E-1	4.062685E-1	4.084338E-1	4.092742E-1	4.225024E-1	4.027028E-1	3.753888E-1	4.273540E-1	3.666100E-1	3.764291E-1	4.330928E-1	4.460642E-1	4.046782E-1	4.096059E-1	3.638831E-1	3.914518E-1	4.132633E-1	3.807063E-1	3.830767E-1	4.010393E-1	3.933974E-1	4.014717E-1	3.993899E-1	4.061220E-1	3.948287E-1	4.100745E-1	4.381485E-1	4.038113E-1	4.236836E-1	3.740587E-1	4.082330E-1	4.226829E-1	3.615352E-1	4.273341E-1	3.919719E-1	4.147105E-1	4.090491E-1	3.962658E-1	4.042676E-1	4.197784E-1	3.986685E-1	3.993580E-1	3.408866E-1	3.724396E-1	4.146900E-1	3.785730E-1	3.777761E-1	4.094763E-1	3.766046E-1	4.012409E-1	4.048123E-1	4.674764E-1	4.356375E-1	3.918715E-1	4.006356E-1	3.986589E-1	3.989202E-1	3.908908E-1	4.143522E-1	4.056686E-1	3.782394E-1	3.683770E-1	4.110807E-1	3.936896E-1	3.647109E-1	3.444827E-1	4.106282E-1	4.076106E-1	3.817972E-1	4.066980E-1	4.166031E-1	4.334458E-1	3.777368E-1	4.431186E-1	3.802975E-1	4.051573E-1	3.852881E-1	4.192550E-1	4.104331E-1	4.226237E-1	4.270041E-1	4.148127E-1	3.930804E-1	3.857229E-1	4.038105E-1	3.945236E-1	3.834261E-1	4.402748E-1	4.159285E-1	4.303343E-1	4.535696E-1	3.734475E-1	4.277174E-1	3.795896E-1	4.313978E-1	4.298243E-1	3.980809E-1	3.865957E-1	4.095068E-1	4.368502E-1	4.109306E-1	4.126994E-1	4.032144E-1	4.438936E-1	4.162952E-1	4.176439E-1	3.727479E-1	4.166212E-1	4.424291E-1	3.975727E-1	4.086622E-1	4.295538E-1	4.473047E-1	4.595851E-1	4.394149E-1	4.427155E-1	4.020398E-1	4.168345E-1	4.328224E-1	4.243770E-1	4.343399E-1	3.954284E-1	4.202241E-1	4.337219E-1	4.342212E-1	4.358156E-1	4.435426E-1	3.969355E-1	4.319285E-1	4.422740E-1	3.717405E-1	3.689208E-1	4.323049E-1
2.855060E+2	3.741610E-1	3.197226E-1	2.947745E-1	3.049748E-1	3.519585E-1	3.344505E-1	2.971022E-1	3.162127E-1	2.884171E-1	2.895152E-1	3.498278E-1	2.710200E-1	3.155957E-1	3.125981E-1	3.205440E-1	3.048335E-1	2.946071E-1	3.046570E-1	2.937419E-1	3.149720E-1	3.372395E-1	2.564047E-1	2.891566E-1	3.352287E-1	3.139502E-1	3.072430E-1	3.283352E-1	2.907188E-1	3.290693E-1	3.646445E-1	2.999016E-1	2.957330E-1	3.560099E-1	3.473308E-1	3.345941E-1	3.409048E-1	3.345491E-1	3.152005E-1	3.202116E-1	2.744178E-1	2.980155E-1	3.247619E-1	3.349913E-1	2.908983E-1	2.957274E-1	3.242430E-1	3.017396E-1	3.217798E-1	2.959425E-1	2.925942E-1	3.455201E-1	3.206961E-1	3.064030E-1	3.386188E-1	3.336567E-1	3.484461E-1	3.021349E-1	3.097112E-1	3.305325E-1	3.636731E-1	3.449158E-1	2.811335E-1	2.912812E-1	2.753534E-1	3.030910E-1	3.178667E-1	3.414521E-1	3.154414E-1	3.441272E-1	2.921792E-1	3.112504E-1	3.166925E-1	3.598209E-1	2.792624E-1	3.385559E-1	2.990981E-1	3.138854E-1	3.546185E-1	3.253944E-1	2.843762E-1	3.334582E-1	3.094247E-1	3.326134E-1	3.165581E-1	3.185209E-1	3.417606E-1	3.022613E-1	2.853145E-1	2.947306E-1	3.232677E-1	2.951163E-1	3.103168E-1	3.233853E-1	3.339410E-1	2.812604E-1	3.112153E-1	2.684179E-1	3.183796E-1	3.127159E-1	3.283916E-1	3.331433E-1	3.003740E-1	3.011263E-1	3.367454E-1	3.160756E-1	3.049538E-1	3.214484E-1	2.966668E-1	3.219368E-1	2.993847E-1	3.339225E-1	3.328857E-1	3.271533E-1	3.298539E-1	2.897532E-1	3.266473E-1	3.064871E-1	3.358316E-1	2.820146E-1	3.148976E-1	3.301058E-1	3.252714E-1	3.131727E-1	3.670292E-1	3.289555E-1	3.395534E-1	2.840843E-1	3.317238E-1	3.131769E-1	2.648393E-1	2.822642E-1	3.422467E-1	3.107233E-1	3.098144E-1	3.107561E-1	3.303297E-1	3.265819E-1	3.251488E-1	2.440928E-1	2.845766E-1	3.105150E-1	3.573744E-1	3.221389E-1	3.199068E-1	3.103177E-1	2.914401E-1	3.292521E-1	2.905657E-1	2.875627E-1	2.925448E-1	3.381414E-1	3.244348E-1	3.375368E-1	2.923941E-1	3.149225E-1	3.171424E-1	3.045635E-1	3.102028E-1	3.124028E-1	3.241474E-1	2.743753E-1	3.146824E-1	3.237415E-1	3.199071E-1	2.948954E-1	3.050852E-1	2.653470E-1	3.430976E-1	3.344341E-1	3.363421E-1
2.856030E+2	3.760169E-1	3.327968E-1	4.082986E-1	3.871649E-1	3.497827E-1	3.589136E-1	3.281760E-1	3.638316E-1	3.466714E-1	3.447231E-1	3.104342E-1	3.666753E-1	3.571613E-1	3.451547E-1	3.572227E-1	3.314314E-1	3.619744E-1	3.432284E-1	3.286794E-1	4.002613E-1	3.399853E-1	3.286404E-1	3.364884E-1	3.023139E-1	4.103004E-1	3.954436E-1	3.978856E-1	3.541641E-1	3.719241E-1	3.358514E-1	3.499305E-1	3.233115E-1	3.649607E-1	3.561739E-1	3.718408E-1	4.250004E-1	3.689274E-1	3.426276E-1	3.837083E-1	4.145376E-1	3.909847E-1	4.309009E-1	3.793426E-1	3.730463E-1	3.658087E-1	3.534861E-1	3.476423E-1	3.435614E-1	4.265872E-1	3.565678E-1	4.468736E-1	3.695305E-1	3.596849E-1	3.796243E-1	3.651013E-1	3.208830E-1	3.641208E-1	3.653102E-1	3.536774E-1	3.811606E-1	3.635175E-1	3.715773E-1	3.138153E-1	3.304418E-1	3.932829E-1	3.886634E-1	4.023873E-1	3.777229E-1	3.592117E-1	3.303661E-1	3.325958E-1	3.466272E-1	3.885055E-1	3.725178E-1	3.963745E-1	3.654004E-1	3.450795E-1	3.710390E-1	3.735214E-1	3.751262E-1	3.712393E-1	3.562637E-1	3.565975E-1	3.728946E-1	3.576173E-1	3.647583E-1	3.482925E-1	3.647939E-1	3.400815E-1	3.816710E-1	3.178409E-1	3.875956E-1	3.623233E-1	3.700386E-1	4.045664E-1	3.687964E-1	3.558463E-1	3.340036E-1	3.659782E-1	3.540891E-1	3.115083E-1	3.541465E-1	3.492662E-1	3.903949E-1	3.895772E-1	3.585667E-1	3.392051E-1	4.006204E-1	3.694370E-1	3.878472E-1	3.925117E-1	3.814714E-1	3.687769E-1	3.293708E-1	3.403365E-1	3.379911E-1	3.506122E-1	3.316693E-1	3.208189E-1	3.626850E-1	3.697547E-1	3.969424E-1	3.801437E-1	3.343007E-1	3.860841E-1	3.720165E-1	3.574069E-1	3.712873E-1	3.748718E-1	3.923588E-1	3.486850E-1	3.635223E-1	3.490689E-1	3.891593E-1	4.083216E-1	3.353240E-1	3.924911E-1	3.283440E-1	3.260798E-1	3.105618E-1	3.463959E-1	3.591997E-1	3.596260E-1	3.795792E-1	3.278806E-1	3.636294E-1	3.133104E-1	3.878078E-1	3.222561E-1	3.409054E-1	3.399331E-1	3.513394E-1	3.762169E-1	3.875578E-1	3.932605E-1	3.757048E-1	3.714686E-1	3.478894E-1	3.968529E-1	3.771998E-1	3.290607E-1	3.558929E-1	3.531758E-1	4.048303E-1	3.509601E-1	3.603770E-1	3.643244E-1	3.501356E-1	4.093496E-1	3.890593E-1
2.858010E+2	5.879726E-1	5.771766E-1	4.693614E-1	5.238335E-1	5.677889E-1	5.992708E-1	5.716425E-1	5.214724E-1	5.859767E-1	5.955230E-1	5.527592E-1	5.196324E-1	5.641363E-1	5.285745E-1	5.515710E-1	5.613987E-1	5.416743E-1	5.534684E-1	6.036205E-1	6.102640E-1	5.764274E-1	5.635711E-1	5.475149E-1	5.997334E-1	5.928958E-1	6.332592E-1	5.710442E-1	5.691020E-1	5.636929E-1	5.710880E-1	5.507851E-1	6.129974E-1	6.496263E-1	5.913221E-1	5.639648E-1	6.386104E-1	5.760493E-1	6.193779E-1	5.764601E-1	5.467518E-1	5.550382E-1	5.923840E-1	6.205815E-1	5.783069E-1	5.708201E-1	5.876687E-1	5.794632E-1	5.636519E-1	5.855492E-1	5.936764E-1	6.017593E-1	5.521974E-1	5.522625E-1	5.117942E-1	5.450424E-1	5.707753E-1	5.827876E-1	6.172719E-1	5.474247E-1	5.647313E-1	6.169452E-1	5.981621E-1	5.593887E-1	5.907301E-1	5.879615E-1	5.602462E-1	5.739459E-1	5.730914E-1	5.492436E-1	5.563455E-1	5.973564E-1	5.955221E-1	5.739752E-1	6.111934E-1	6.212015E-1	5.810014E-1	5.867842E-1	6.258674E-1	5.776795E-1	5.429784E-1	6.078642E-1	5.857570E-1	5.212971E-1	5.570013E-1	5.734986E-1	5.831359E-1	5.525269E-1	6.024367E-1	5.859608E-1	5.519128E-1	5.530478E-1	5.894584E-1	5.825426E-1	5.851946E-1	5.353752E-1	5.968615E-1	5.282521E-1	5.969939E-1	5.336521E-1	5.226413E-1	5.126378E-1	5.795694E-1	5.570991E-1	6.175239E-1	5.541495E-1	5.205568E-1	5.991256E-1	5.380124E-1	5.430619E-1	6.280252E-1	5.637321E-1	5.612240E-1	4.973506E-1	5.445150E-1	5.752739E-1	5.573646E-1	5.663283E-1	6.314130E-1	5.490986E-1	5.676141E-1	6.034869E-1	5.808567E-1	5.809194E-1	6.595658E-1	5.163639E-1	6.451074E-1	5.577489E-1	6.146601E-1	5.743538E-1	5.630530E-1	5.798470E-1	4.986487E-1	5.674655E-1	5.918349E-1	5.903651E-1	5.452185E-1	5.948699E-1	5.885960E-1	5.680489E-1	5.684279E-1	5.420932E-1	6.427283E-1	6.036946E-1	5.732757E-1	5.902634E-1	5.686859E-1	6.273396E-1	6.104876E-1	5.357415E-1	5.790600E-1	5.700905E-1	5.549637E-1	5.681165E-1	5.933111E-1	5.661418E-1	5.922449E-1	5.519847E-1	5.829703E-1	5.827833E-1	5.776259E-1	5.942952E-1	5.698078E-1	5.395607E-1	6.181229E-1	5.392926E-1	5.902708E-1	5.784482E-1	5.294571E-1	6.863469E-1	6.408694E-1
2.860020E+2	8.718444E-1	8.715806E-1	9.409653E-1	8.897426E-1	8.556566E-1	8.846994E-1	9.005980E-1	8.950154E-1	9.718594E-1	9.514770E-1	9.577275E-1	9.462682E-1	9.487698E-1	8.987349E-1	9.660553E-1	9.126816E-1	8.863559E-1	9.203870E-1	8.651878E-1	8.780674E-1	8.671896E-1	9.496528E-1	8.731686E-1	8.816734E-1	9.947982E-1	9.455806E-1	9.457334E-1	8.878615E-1	9.325781E-1	9.821717E-1	9.564431E-1	8.865735E-1	9.586673E-1	9.132225E-1	9.742685E-1	9.494594E-1	9.574169E-1	9.531754E-1	9.839381E-1	9.439383E-1	9.631413E-1	9.205690E-1	9.929684E-1	8.645912E-1	9.341312E-1	8.872091E-1	8.982865E-1	9.589199E-1	8.804065E-1	9.326276E-1	9.446989E-1	9.115671E-1	9.000425E-1	9.643398E-1	9.360810E-1	9.347501E-1	9.702503E-1	9.759849E-1	9.649935E-1	9.875022E-1	9.454213E-1	9.447645E-1	9.051553E-1	9.806008E-1	9.086948E-1	8.477123E-1	9.141351E-1	1.000724E+0	9.284645E-1	9.555051E-1	9.149648E-1	1.019339E+0	9.183275E-1	8.871038E-1	9.466918E-1	8.865373E-1	9.260232E-1	9.121264E-1	9.197803E-1	8.925516E-1	8.753546E-1	9.574804E-1	9.606648E-1	8.998891E-1	8.905947E-1	9.740385E-1	9.241182E-1	8.483987E-1	8.691339E-1	9.024900E-1	8.916447E-1	9.664598E-1	9.379250E-1	9.686371E-1	9.773513E-1	9.209271E-1	9.011301E-1	9.164569E-1	9.051138E-1	8.511349E-1	9.371420E-1	9.212425E-1	9.476593E-1	9.559541E-1	8.553124E-1	8.519408E-1	9.126153E-1	9.243051E-1	8.763940E-1	9.909560E-1	9.150835E-1	9.067934E-1	9.654546E-1	9.081234E-1	9.570126E-1	9.517793E-1	9.089619E-1	9.393038E-1	9.191537E-1	9.426885E-1	9.093585E-1	9.263588E-1	9.415561E-1	9.412975E-1	9.172180E-1	9.384665E-1	9.349934E-1	9.133351E-1	8.962487E-1	9.668296E-1	8.648593E-1	8.879091E-1	8.598446E-1	8.839604E-1	9.849869E-1	9.488994E-1	8.972159E-1	8.700117E-1	9.156741E-1	9.015831E-1	9.592874E-1	9.586585E-1	8.650570E-1	8.912725E-1	8.681565E-1	9.304341E-1	9.451854E-1	9.372219E-1	8.333912E-1	9.073473E-1	9.010915E-1	9.722885E-1	9.639501E-1	1.005276E+0	9.210561E-1	8.872070E-1	9.389538E-1	9.607768E-1	9.540204E-1	9.517083E-1	8.469988E-1	9.280123E-1	8.798926E-1	8.987883E-1	8.611292E-1	9.344114E-1	9.607449E-1	9.328777E-1	8.112874E-1	9.374307E-1
2.862030E+2	1.281879E+0	1.200387E+0	1.290512E+0	1.202451E+0	1.175326E+0	1.245221E+0	1.219575E+0	1.254387E+0	1.236382E+0	1.188149E+0	1.233764E+0	1.242763E+0	1.275462E+0	1.224648E+0	1.226155E+0	1.171753E+0	1.272424E+0	1.173411E+0	1.286654E+0	1.210875E+0	1.244125E+0	1.137173E+0	1.168336E+0	1.154834E+0	1.166271E+0	1.194483E+0	1.158095E+0	1.208930E+0	1.264114E+0	1.234865E+0	1.198060E+0	1.197403E+0	1.236723E+0	1.214141E+0	1.212069E+0	1.259463E+0	1.145646E+0	1.193317E+0	1.278489E+0	1.171683E+0	1.249697E+0	1.182692E+0	1.288776E+0	1.222608E+0	1.183882E+0	1.220494E+0	1.158213E+0	1.164608E+0	1.162786E+0	1.286051E+0	1.204319E+0	1.270667E+0	1.241223E+0	1.190804E+0	1.182139E+0	1.159586E+0	1.245879E+0	1.264515E+0	1.262841E+0	1.198130E+0	1.317469E+0	1.180704E+0	1.131466E+0	1.242101E+0	1.275017E+0	1.214135E+0	1.193254E+0	1.245995E+0	1.166813E+0	1.207604E+0	1.268354E+0	1.221446E+0	1.183602E+0	1.248390E+0	1.235461E+0	1.203411E+0	1.235683E+0	1.260199E+0	1.235852E+0	1.235528E+0	1.185787E+0	1.191034E+0	1.258878E+0	1.149812E+0	1.228435E+0	1.221747E+0	1.232739E+0	1.302214E+0	1.264448E+0	1.216344E+0	1.261423E+0	1.230836E+0	1.243362E+0	1.209608E+0	1.233345E+0	1.169904E+0	1.214869E+0	1.199177E+0	1.214120E+0	1.305004E+0	1.270956E+0	1.222072E+0	1.226193E+0	1.207144E+0	1.162062E+0	1.213820E+0	1.277854E+0	1.220113E+0	1.210980E+0	1.206097E+0	1.345367E+0	1.245660E+0	1.214185E+0	1.183351E+0	1.204541E+0	1.228633E+0	1.206275E+0	1.182237E+0	1.217696E+0	1.327219E+0	1.223326E+0	1.159822E+0	1.196234E+0	1.213290E+0	1.242602E+0	1.217740E+0	1.251934E+0	1.243018E+0	1.202507E+0	1.203544E+0	1.214857E+0	1.252210E+0	1.238738E+0	1.198839E+0	1.212095E+0	1.190417E+0	1.237235E+0	1.196872E+0	1.196952E+0	1.277820E+0	1.211704E+0	1.209801E+0	1.269065E+0	1.201671E+0	1.199718E+0	1.220620E+0	1.253889E+0	1.206857E+0	1.220838E+0	1.235979E+0	1.210091E+0	1.180455E+0	1.248456E+0	1.272621E+0	1.249892E+0	1.257700E+0	1.252348E+0	1.213698E+0	1.321424E+0	1.253687E+0	1.229988E+0	1.254207E+0	1.250458E+0	1.269075E+0	1.203317E+0	1.173697E+0	1.245940E+0	1.280230E+0	1.303244E+0	1.185144E+0
2.864090E+2	8.271841E-1	7.788508E-1	8.102610E-1	8.305375E-1	7.744199E-1	7.707085E-1	7.638871E-1	7.586518E-1	8.441072E-1	8.110903E-1	8.979580E-1	7.881883E-1	8.581841E-1	8.420909E-1	8.186486E-1	8.970201E-1	8.367210E-1	8.177119E-1	7.985860E-1	8.072522E-1	8.702838E-1	8.335116E-1	7.859693E-1	8.569677E-1	8.438250E-1	7.953497E-1	8.351903E-1	8.304254E-1	8.117276E-1	8.641032E-1	7.795758E-1	7.247298E-1	7.635022E-1	8.363779E-1	7.896452E-1	8.322625E-1	8.279358E-1	7.712265E-1	8.638129E-1	8.433556E-1	7.799364E-1	8.870565E-1	8.252423E-1	8.170553E-1	8.155064E-1	8.763845E-1	8.042401E-1	8.332111E-1	7.902863E-1	8.603302E-1	8.583064E-1	8.188410E-1	8.237581E-1	8.034177E-1	7.705752E-1	7.979225E-1	7.790034E-1	8.288802E-1	8.116627E-1	8.892163E-1	8.125068E-1	8.467957E-1	7.807295E-1	7.885823E-1	8.322937E-1	8.465971E-1	8.040512E-1	8.820855E-1	8.060219E-1	8.401928E-1	8.144655E-1	8.426816E-1	7.781896E-1	8.104781E-1	7.938912E-1	8.232541E-1	8.356836E-1	8.315538E-1	7.950826E-1	8.225932E-1	8.669349E-1	8.400331E-1	7.986230E-1	8.263293E-1	8.341075E-1	8.500105E-1	8.424447E-1	7.935108E-1	8.199768E-1	8.195099E-1	8.223679E-1	8.776133E-1	8.186252E-1	8.044224E-1	7.868843E-1	8.244416E-1	7.870228E-1	9.175795E-1	8.686221E-1	8.266024E-1	8.106686E-1	8.241192E-1	8.807443E-1	8.394022E-1	8.256843E-1	7.912899E-1	8.664007E-1	8.623910E-1	8.232553E-1	8.857265E-1	8.521478E-1	8.364969E-1	8.227753E-1	8.715248E-1	8.762695E-1	9.068951E-1	8.167886E-1	8.181924E-1	8.375965E-1	8.411599E-1	7.996086E-1	8.654560E-1	7.829369E-1	8.660400E-1	8.782660E-1	8.604402E-1	8.330613E-1	8.326593E-1	7.976411E-1	8.266323E-1	7.874806E-1	8.002043E-1	8.215490E-1	8.626334E-1	8.378994E-1	8.352544E-1	7.796797E-1	7.559127E-1	7.841443E-1	8.246885E-1	7.887070E-1	8.249736E-1	8.336783E-1	8.189526E-1	8.195828E-1	8.211410E-1	8.615370E-1	8.441905E-1	7.677974E-1	8.418785E-1	7.700958E-1	8.023309E-1	8.212606E-1	8.067632E-1	8.486353E-1	8.086956E-1	8.354733E-1	8.236273E-1	8.600232E-1	7.607015E-1	7.537974E-1	8.513018E-1	7.960738E-1	7.858641E-1	7.925703E-1	8.416789E-1	8.328442E-1	8.574637E-1	8.261189E-1	7.771847E-1
2.866050E+2	7.629789E-1	8.228163E-1	7.793012E-1	8.132254E-1	7.229249E-1	7.503968E-1	8.338486E-1	7.615213E-1	7.955750E-1	7.512098E-1	7.744495E-1	7.562433E-1	7.685451E-1	7.729908E-1	7.840914E-1	7.890621E-1	7.891634E-1	7.537985E-1	7.226485E-1	8.356324E-1	7.519466E-1	7.977202E-1	6.876379E-1	8.063223E-1	7.545125E-1	7.865020E-1	7.680005E-1	7.616939E-1	8.174616E-1	8.663454E-1	8.709165E-1	8.231861E-1	7.827917E-1	8.523969E-1	7.903990E-1	8.339936E-1	8.180344E-1	8.127782E-1	7.926509E-1	7.621772E-1	7.668519E-1	7.970659E-1	7.847081E-1	7.578012E-1	7.116273E-1	7.678867E-1	7.440099E-1	7.991376E-1	7.577032E-1	8.192996E-1	7.776491E-1	8.013412E-1	7.896763E-1	7.723270E-1	8.398398E-1	7.878003E-1	7.844363E-1	8.179152E-1	7.963429E-1	8.235363E-1	7.887754E-1	7.661725E-1	7.962823E-1	7.318648E-1	7.779697E-1	7.844495E-1	8.698938E-1	8.489662E-1	8.485818E-1	7.830044E-1	8.030403E-1	7.847694E-1	7.887627E-1	7.722154E-1	7.728139E-1	7.811065E-1	7.469901E-1	7.643329E-1	7.703586E-1	7.965753E-1	8.012733E-1	8.331883E-1	7.734586E-1	7.707361E-1	7.655226E-1	7.764581E-1	7.699193E-1	7.734748E-1	7.715986E-1	8.126565E-1	7.632802E-1	7.525966E-1	7.537568E-1	8.566848E-1	7.427403E-1	8.081453E-1	7.825590E-1	8.253271E-1	7.993426E-1	8.377980E-1	8.170384E-1	8.534566E-1	8.084701E-1	7.415937E-1	7.698604E-1	7.504954E-1	7.600665E-1	8.122513E-1	8.037922E-1	8.348943E-1	8.038848E-1	7.628117E-1	8.088506E-1	7.994013E-1	7.529993E-1	7.840332E-1	7.578284E-1	7.869274E-1	8.264584E-1	7.558673E-1	7.810706E-1	8.039619E-1	7.648320E-1	7.785991E-1	7.711268E-1	7.771737E-1	7.621096E-1	7.431573E-1	7.692246E-1	8.176206E-1	7.930704E-1	7.823409E-1	7.674022E-1	8.124837E-1	8.111424E-1	7.637360E-1	8.318168E-1	7.517803E-1	7.872508E-1	8.006727E-1	7.822561E-1	7.422112E-1	8.434831E-1	8.080311E-1	7.834364E-1	7.558296E-1	8.432700E-1	7.794483E-1	7.597981E-1	8.167172E-1	7.742257E-1	8.149508E-1	8.282706E-1	7.918116E-1	7.727004E-1	7.284137E-1	7.669438E-1	7.626406E-1	8.818012E-1	7.808622E-1	7.931448E-1	8.071793E-1	7.322739E-1	7.959908E-1	7.724747E-1	8.006700E-1	8.076247E-1	8.065459E-1	7.459808E-1	7.382331E-1
2.868020E+2	9.231355E-1	9.815530E-1	9.705883E-1	9.552620E-1	9.681773E-1	1.071931E+0	9.418333E-1	1.007026E+0	1.043807E+0	9.692245E-1	1.035613E+0	1.033272E+0	1.036661E+0	1.030529E+0	9.338966E-1	1.011455E+0	9.835735E-1	9.900085E-1	9.617587E-1	9.962446E-1	9.671408E-1	9.519916E-1	9.882339E-1	9.782734E-1	9.614428E-1	9.402861E-1	9.849246E-1	9.662757E-1	9.158312E-1	9.322886E-1	9.733801E-1	9.094004E-1	9.763717E-1	9.665373E-1	1.006281E+0	1.022905E+0	8.833812E-1	9.653925E-1	9.645973E-1	9.639387E-1	9.411991E-1	1.011420E+0	1.018327E+0	9.366092E-1	9.302945E-1	9.357584E-1	9.563558E-1	1.024294E+0	1.021131E+0	9.665228E-1	1.067406E+0	1.033390E+0	9.360342E-1	9.584367E-1	9.655105E-1	9.909507E-1	9.684510E-1	1.033055E+0	9.453741E-1	9.629190E-1	9.849665E-1	9.654531E-1	9.682877E-1	9.683238E-1	9.803865E-1	9.965436E-1	1.026402E+0	1.032500E+0	1.022099E+0	9.603580E-1	1.002612E+0	9.985689E-1	9.929028E-1	9.009734E-1	9.228354E-1	1.043298E+0	9.459715E-1	1.026968E+0	1.005317E+0	9.374457E-1	9.186129E-1	9.344909E-1	9.525760E-1	9.688135E-1	1.001454E+0	9.873549E-1	9.433408E-1	9.399378E-1	1.041912E+0	9.732506E-1	9.904640E-1	1.015828E+0	9.827105E-1	9.664663E-1	9.977658E-1	9.596098E-1	1.008629E+0	1.014105E+0	9.686878E-1	1.007546E+0	9.539951E-1	9.646449E-1	9.393982E-1	9.619599E-1	9.832477E-1	9.359835E-1	1.006858E+0	1.025351E+0	9.905919E-1	1.023595E+0	9.890992E-1	1.030025E+0	9.606097E-1	9.844175E-1	9.984936E-1	9.314913E-1	9.662503E-1	1.015857E+0	9.879003E-1	1.053230E+0	1.015209E+0	9.753537E-1	9.754976E-1	9.941185E-1	9.556102E-1	1.013500E+0	9.749707E-1	9.341015E-1	1.037005E+0	1.001644E+0	9.571109E-1	1.002075E+0	1.044618E+0	9.007374E-1	9.688104E-1	1.004564E+0	1.019289E+0	9.821649E-1	1.011410E+0	9.731156E-1	9.565607E-1	1.040301E+0	9.585082E-1	9.811387E-1	9.796581E-1	1.037739E+0	1.002415E+0	1.021800E+0	9.917305E-1	9.463935E-1	1.001672E+0	9.382729E-1	9.993193E-1	1.043504E+0	1.005776E+0	9.651379E-1	9.889253E-1	9.904767E-1	9.920976E-1	1.008572E+0	9.825771E-1	1.050610E+0	9.257154E-1	9.752556E-1	9.867293E-1	1.018882E+0	9.844124E-1	9.223655E-1	1.070430E+0	9.517676E-1
2.870030E+2	8.364605E-1	8.546240E-1	8.902594E-1	8.187884E-1	8.199810E-1	8.402414E-1	8.238041E-1	8.901643E-1	8.010142E-1	8.467255E-1	8.493854E-1	8.416171E-1	8.430635E-1	7.985695E-1	8.884027E-1	8.340581E-1	8.371761E-1	8.435338E-1	8.434048E-1	7.908206E-1	8.360294E-1	8.479105E-1	7.999585E-1	8.739735E-1	8.317704E-1	8.479924E-1	9.013259E-1	7.882136E-1	8.557741E-1	8.421466E-1	8.236843E-1	8.502583E-1	8.979623E-1	7.838867E-1	8.047864E-1	8.367112E-1	8.157210E-1	7.960999E-1	8.167167E-1	8.629789E-1	8.452958E-1	8.127830E-1	8.790004E-1	8.589479E-1	8.146092E-1	8.339300E-1	7.891634E-1	8.038699E-1	8.395563E-1	8.169935E-1	9.000461E-1	8.325464E-1	8.284103E-1	8.026996E-1	7.954631E-1	8.755415E-1	8.459594E-1	8.463373E-1	8.472394E-1	8.842068E-1	8.727896E-1	9.491039E-1	8.226255E-1	8.965024E-1	7.988577E-1	8.391361E-1	7.829712E-1	8.455057E-1	8.446086E-1	8.236599E-1	8.747492E-1	8.314035E-1	8.231781E-1	9.170214E-1	7.794182E-1	9.070653E-1	8.503648E-1	8.087854E-1	8.948311E-1	8.428458E-1	8.224221E-1	8.825747E-1	8.651796E-1	7.970875E-1	8.532109E-1	8.512700E-1	8.972810E-1	8.142344E-1	8.113284E-1	7.772740E-1	8.727068E-1	8.670116E-1	8.559982E-1	8.288542E-1	8.867432E-1	8.634658E-1	8.368700E-1	8.759826E-1	8.599249E-1	8.827445E-1	9.113027E-1	8.615436E-1	8.231020E-1	8.298183E-1	8.817270E-1	7.702566E-1	8.988243E-1	8.156521E-1	8.427919E-1	9.073218E-1	8.113532E-1	8.243918E-1	8.559237E-1	8.590047E-1	8.512274E-1	8.215710E-1	8.098441E-1	8.700760E-1	8.492017E-1	8.964024E-1	8.576385E-1	8.710116E-1	8.574674E-1	9.224387E-1	8.166179E-1	9.103593E-1	7.626393E-1	8.465423E-1	8.041195E-1	8.578789E-1	8.661102E-1	8.662716E-1	8.591393E-1	8.744402E-1	8.355336E-1	8.174013E-1	7.721251E-1	8.054750E-1	8.216506E-1	8.531056E-1	8.580509E-1	8.180198E-1	8.253538E-1	8.327533E-1	8.258938E-1	8.054333E-1	7.756318E-1	8.649147E-1	8.267268E-1	8.237911E-1	8.412180E-1	8.076936E-1	8.344975E-1	8.297633E-1	8.766669E-1	8.305818E-1	8.153046E-1	8.915910E-1	8.031992E-1	8.595919E-1	7.956986E-1	8.763937E-1	8.140022E-1	8.279568E-1	8.363489E-1	8.716504E-1	8.670174E-1	8.289138E-1	8.668267E-1	1.108010E+0
2.872040E+2	6.191958E-1	6.078837E-1	6.706313E-1	6.412678E-1	6.707772E-1	5.907779E-1	6.824948E-1	6.020109E-1	6.908484E-1	6.372652E-1	6.183296E-1	6.710597E-1	6.383814E-1	6.268421E-1	6.528423E-1	5.959583E-1	6.102949E-1	6.396559E-1	6.517844E-1	6.663418E-1	5.962694E-1	6.260566E-1	6.619044E-1	6.433130E-1	6.420976E-1	6.702173E-1	5.896066E-1	6.161360E-1	6.231095E-1	5.841332E-1	5.733768E-1	6.138889E-1	6.374244E-1	6.115953E-1	6.105005E-1	6.683057E-1	6.439413E-1	6.062763E-1	6.701461E-1	6.233972E-1	6.289795E-1	6.412279E-1	6.498623E-1	6.109474E-1	6.074607E-1	5.802315E-1	6.157195E-1	6.466109E-1	6.412142E-1	6.027431E-1	7.032212E-1	6.242113E-1	6.426668E-1	6.282992E-1	6.603239E-1	6.320305E-1	6.962447E-1	6.131057E-1	6.497937E-1	6.290015E-1	6.620151E-1	5.999106E-1	6.465919E-1	6.124912E-1	6.850666E-1	6.465680E-1	6.431462E-1	6.277381E-1	6.439299E-1	6.178985E-1	6.192162E-1	6.715460E-1	6.321650E-1	5.979793E-1	6.087391E-1	7.158978E-1	6.397606E-1	6.313709E-1	6.380622E-1	6.363109E-1	6.028782E-1	6.185168E-1	6.763187E-1	6.304812E-1	6.548248E-1	6.749960E-1	5.818356E-1	6.032931E-1	6.877275E-1	5.616368E-1	6.520670E-1	6.546431E-1	6.512926E-1	6.495091E-1	6.633776E-1	5.912114E-1	6.505314E-1	6.541532E-1	6.094799E-1	5.971816E-1	6.523998E-1	6.860784E-1	6.773415E-1	6.059471E-1	6.175554E-1	6.495053E-1	6.465341E-1	6.438994E-1	6.336954E-1	6.518428E-1	6.066659E-1	5.825516E-1	6.746932E-1	6.413342E-1	6.211410E-1	6.371354E-1	6.478845E-1	6.068048E-1	6.443655E-1	6.276034E-1	6.803549E-1	6.318618E-1	6.073716E-1	6.590326E-1	7.166536E-1	6.134006E-1	6.048348E-1	6.549718E-1	5.884384E-1	6.276662E-1	6.628743E-1	6.816040E-1	6.730435E-1	6.618587E-1	5.999842E-1	6.329166E-1	6.643917E-1	6.226187E-1	6.381014E-1	6.298571E-1	5.762075E-1	7.145443E-1	5.980068E-1	6.728603E-1	6.334276E-1	5.981182E-1	6.964219E-1	7.234482E-1	6.040738E-1	6.580270E-1	6.567117E-1	6.410455E-1	6.938409E-1	6.564741E-1	6.777510E-1	6.525983E-1	6.378064E-1	6.417232E-1	6.506387E-1	6.541926E-1	6.300749E-1	6.348813E-1	6.351213E-1	6.763549E-1	6.334655E-1	6.023995E-1	6.757600E-1	6.341388E-1	6.893855E-1	6.342654E-1
2.874030E+2	7.405179E-1	8.133981E-1	7.535761E-1	7.571582E-1	7.506396E-1	7.644626E-1	7.696692E-1	7.472488E-1	7.947291E-1	7.162214E-1	7.832293E-1	7.723166E-1	7.562998E-1	7.594102E-1	8.016985E-1	7.738675E-1	7.540714E-1	7.875422E-1	7.598765E-1	7.867976E-1	7.333061E-1	7.864009E-1	7.189765E-1	7.936724E-1	8.037609E-1	7.437604E-1	7.928473E-1	7.811668E-1	7.395816E-1	7.614259E-1	7.969874E-1	8.070080E-1	8.289370E-1	8.213815E-1	8.187242E-1	7.944827E-1	8.212422E-1	7.429167E-1	7.900333E-1	8.105141E-1	7.658702E-1	8.289178E-1	8.253265E-1	7.917177E-1	8.070738E-1	7.842707E-1	8.253561E-1	7.654545E-1	7.655232E-1	8.064260E-1	8.244638E-1	7.680566E-1	8.267020E-1	7.934495E-1	7.745890E-1	7.588359E-1	7.593128E-1	8.514429E-1	7.383257E-1	7.838677E-1	7.634593E-1	8.029804E-1	7.554218E-1	8.341477E-1	7.509514E-1	7.749846E-1	8.307272E-1	7.735632E-1	8.328944E-1	7.953698E-1	8.094352E-1	7.924201E-1	7.680148E-1	7.847419E-1	8.133861E-1	7.494703E-1	7.668444E-1	7.599269E-1	7.829587E-1	7.504606E-1	7.575922E-1	8.101952E-1	7.778836E-1	7.238006E-1	7.683841E-1	8.122214E-1	7.662990E-1	8.196188E-1	7.541750E-1	7.916829E-1	7.005689E-1	8.028495E-1	7.972934E-1	7.961055E-1	7.586200E-1	8.013622E-1	7.108701E-1	7.959055E-1	7.862351E-1	7.933812E-1	7.900844E-1	8.236110E-1	7.574043E-1	7.929268E-1	7.665463E-1	7.471962E-1	8.035194E-1	7.998843E-1	7.634591E-1	8.006641E-1	7.950972E-1	7.973544E-1	8.195343E-1	7.803887E-1	7.578720E-1	6.715869E-1	7.360417E-1	7.649680E-1	8.179875E-1	8.015914E-1	7.548339E-1	7.812967E-1	7.274960E-1	8.285986E-1	8.217568E-1	7.976846E-1	7.737057E-1	8.188172E-1	7.899109E-1	8.243271E-1	8.081969E-1	8.169074E-1	7.653817E-1	7.427905E-1	7.426225E-1	7.774205E-1	7.661796E-1	8.140436E-1	7.986275E-1	7.874120E-1	7.527915E-1	8.159055E-1	7.855745E-1	7.492560E-1	7.162544E-1	7.337593E-1	7.537451E-1	8.358350E-1	8.307409E-1	7.817236E-1	7.648472E-1	7.788662E-1	8.280517E-1	8.151317E-1	7.868427E-1	7.508312E-1	7.920887E-1	7.964555E-1	7.856536E-1	8.686579E-1	8.431218E-1	8.124094E-1	8.558012E-1	7.878375E-1	7.231689E-1	8.102789E-1	8.054447E-1	7.657249E-1	8.060947E-1	7.583053E-1
2.876030E+2	7.458875E-1	7.489385E-1	7.657937E-1	7.611283E-1	7.434319E-1	7.378317E-1	7.664200E-1	8.397161E-1	7.961147E-1	7.404918E-1	7.673756E-1	8.189732E-1	7.727938E-1	7.363911E-1	7.969676E-1	7.892926E-1	8.146836E-1	7.861136E-1	8.059289E-1	7.651042E-1	7.246026E-1	7.846230E-1	8.477695E-1	7.589813E-1	7.819002E-1	7.656548E-1	7.956328E-1	8.125703E-1	7.678176E-1	8.020703E-1	8.096629E-1	7.824384E-1	8.294888E-1	7.426429E-1	7.884970E-1	8.393499E-1	7.880112E-1	7.693484E-1	7.623222E-1	7.854685E-1	8.531429E-1	8.199967E-1	8.008261E-1	7.205652E-1	7.771929E-1	7.279274E-1	7.402645E-1	7.816842E-1	7.275284E-1	7.935012E-1	7.845977E-1	8.352274E-1	7.810929E-1	7.962028E-1	7.823209E-1	7.851037E-1	7.911487E-1	7.678087E-1	8.383805E-1	8.348618E-1	8.277306E-1	7.185725E-1	8.080660E-1	7.743053E-1	7.583448E-1	7.995553E-1	7.817880E-1	7.974601E-1	7.569865E-1	7.610625E-1	7.517104E-1	7.701576E-1	7.518190E-1	8.000216E-1	8.366463E-1	7.363621E-1	7.719125E-1	7.646002E-1	7.217215E-1	7.652030E-1	7.105279E-1	7.682923E-1	7.841673E-1	7.668818E-1	7.811189E-1	7.902281E-1	7.467569E-1	7.923743E-1	7.653431E-1	7.193076E-1	7.568924E-1	8.410166E-1	8.169180E-1	8.326304E-1	8.287706E-1	7.641665E-1	8.040681E-1	7.938291E-1	7.970929E-1	8.032076E-1	8.029115E-1	7.712947E-1	7.338503E-1	8.084048E-1	8.451843E-1	7.854711E-1	8.438930E-1	8.099196E-1	7.977418E-1	7.738474E-1	7.685107E-1	7.621004E-1	8.015297E-1	7.966902E-1	8.179646E-1	7.071870E-1	7.539007E-1	7.870383E-1	8.283386E-1	8.035733E-1	7.645609E-1	8.148519E-1	8.136829E-1	8.769526E-1	7.630166E-1	7.833207E-1	7.727963E-1	7.351763E-1	8.202659E-1	8.544221E-1	7.993631E-1	8.003137E-1	7.984873E-1	7.810581E-1	7.420958E-1	8.251735E-1	7.096307E-1	7.336742E-1	7.774376E-1	6.999585E-1	7.964910E-1	7.994024E-1	7.816494E-1	7.655279E-1	7.632015E-1	7.795572E-1	8.598420E-1	7.738325E-1	7.866181E-1	8.175062E-1	7.561935E-1	8.110798E-1	8.438972E-1	8.326998E-1	7.814226E-1	8.311788E-1	8.285778E-1	7.538225E-1	8.194086E-1	8.015228E-1	7.307638E-1	7.996117E-1	7.856828E-1	7.981002E-1	7.854640E-1	8.299537E-1	8.801898E-1	7.529463E-1	7.670158E-1	8.922656E-1
2.878050E+2	6.603618E-1	7.349304E-1	7.253343E-1	7.329864E-1	7.295579E-1	7.584093E-1	7.144011E-1	7.311523E-1	7.414717E-1	6.380935E-1	6.868444E-1	7.861686E-1	7.434552E-1	7.334905E-1	7.780179E-1	7.380190E-1	7.855952E-1	6.839314E-1	7.159848E-1	7.576695E-1	7.075702E-1	7.712275E-1	6.868472E-1	7.841465E-1	7.816040E-1	7.332260E-1	7.282990E-1	7.709234E-1	7.448161E-1	7.124378E-1	7.404430E-1	7.039420E-1	7.460810E-1	7.734729E-1	7.446673E-1	7.073634E-1	7.917555E-1	6.952881E-1	7.399082E-1	7.558908E-1	7.304365E-1	6.748301E-1	8.046294E-1	7.001848E-1	7.879711E-1	7.335890E-1	7.903549E-1	7.410604E-1	7.447071E-1	7.103803E-1	7.950770E-1	7.912161E-1	7.966925E-1	7.343686E-1	7.873459E-1	7.146065E-1	6.989897E-1	7.174367E-1	7.592997E-1	8.000051E-1	7.856159E-1	7.302388E-1	7.579670E-1	7.207551E-1	7.282424E-1	7.423259E-1	7.132366E-1	7.207502E-1	7.313674E-1	7.541536E-1	7.078915E-1	7.849827E-1	7.880889E-1	7.388610E-1	7.717910E-1	7.193236E-1	7.425384E-1	7.507816E-1	7.859006E-1	6.902999E-1	7.788616E-1	6.779520E-1	6.600594E-1	7.468057E-1	7.080029E-1	6.817962E-1	6.973810E-1	7.279815E-1	7.167328E-1	7.595983E-1	7.004819E-1	7.532728E-1	7.530682E-1	7.572469E-1	8.082495E-1	7.414200E-1	7.107332E-1	7.732761E-1	7.558580E-1	7.615027E-1	7.680411E-1	7.569891E-1	7.419449E-1	7.643813E-1	7.202756E-1	7.222343E-1	7.617284E-1	7.622044E-1	6.810655E-1	7.090337E-1	7.319893E-1	7.383248E-1	7.086289E-1	7.269707E-1	7.765438E-1	7.755941E-1	7.703617E-1	7.281109E-1	7.445196E-1	7.123860E-1	6.972346E-1	7.301741E-1	7.302224E-1	7.508006E-1	6.995862E-1	7.763517E-1	7.430487E-1	7.723692E-1	7.376451E-1	8.220009E-1	7.538031E-1	7.108457E-1	7.349851E-1	6.939559E-1	7.477070E-1	7.454131E-1	7.037478E-1	7.074302E-1	7.248289E-1	6.875890E-1	7.087797E-1	7.194091E-1	7.738712E-1	7.693023E-1	7.174116E-1	7.919170E-1	7.406067E-1	8.032117E-1	6.695855E-1	7.694752E-1	7.575376E-1	7.104861E-1	8.109678E-1	7.757126E-1	7.497387E-1	7.722747E-1	7.551128E-1	7.529031E-1	7.488868E-1	7.331825E-1	7.354577E-1	7.698464E-1	7.622235E-1	7.590769E-1	7.608745E-1	7.541495E-1	7.554493E-1	7.035582E-1	7.004468E-1	6.049401E-1
2.880020E+2	6.782994E-1	7.022260E-1	6.918009E-1	6.125562E-1	6.515577E-1	6.040654E-1	7.093131E-1	6.821350E-1	6.829875E-1	6.610224E-1	6.918427E-1	6.528431E-1	7.073603E-1	6.657833E-1	7.041449E-1	6.951711E-1	6.880442E-1	6.799799E-1	6.540484E-1	6.267529E-1	6.187575E-1	6.738556E-1	7.104461E-1	6.919155E-1	7.503045E-1	6.709413E-1	7.098297E-1	6.406834E-1	7.452207E-1	6.905353E-1	7.790580E-1	6.412504E-1	7.286431E-1	6.728315E-1	7.183139E-1	7.304104E-1	7.021549E-1	7.075800E-1	6.745054E-1	6.667160E-1	7.025517E-1	6.737388E-1	7.134762E-1	7.206148E-1	6.683164E-1	6.895112E-1	7.010533E-1	6.713007E-1	6.644042E-1	7.408881E-1	6.999548E-1	7.343189E-1	6.818358E-1	6.886516E-1	6.886714E-1	6.888440E-1	6.674144E-1	7.175086E-1	6.775637E-1	6.800896E-1	7.035061E-1	6.920216E-1	7.027296E-1	7.289327E-1	7.063916E-1	6.564842E-1	6.966972E-1	7.063802E-1	6.064422E-1	6.403100E-1	6.961621E-1	6.722309E-1	7.487105E-1	6.797594E-1	6.547469E-1	6.730113E-1	7.176843E-1	6.915644E-1	7.095799E-1	6.840993E-1	6.642919E-1	6.715239E-1	6.999585E-1	6.803812E-1	6.799294E-1	6.683974E-1	6.708005E-1	7.331154E-1	6.889359E-1	7.085569E-1	6.968678E-1	7.418014E-1	6.665750E-1	6.576744E-1	7.255171E-1	6.809136E-1	6.800152E-1	6.634387E-1	7.019635E-1	6.773315E-1	6.667930E-1	7.238451E-1	6.603418E-1	6.778608E-1	6.928219E-1	6.641485E-1	7.053286E-1	7.109688E-1	6.678099E-1	6.656823E-1	7.511827E-1	7.064255E-1	6.527773E-1	6.935711E-1	6.933592E-1	7.121931E-1	7.312760E-1	7.153012E-1	7.045800E-1	7.269431E-1	7.257076E-1	6.899101E-1	6.850151E-1	6.314567E-1	6.859924E-1	6.384971E-1	7.188159E-1	7.111865E-1	6.665700E-1	7.682201E-1	7.226533E-1	7.778758E-1	7.378370E-1	6.770373E-1	7.092260E-1	7.188919E-1	6.944917E-1	6.544215E-1	6.733136E-1	6.509817E-1	7.337493E-1	7.174721E-1	6.834035E-1	7.146730E-1	6.649196E-1	7.268178E-1	7.447591E-1	7.112389E-1	7.097297E-1	6.675066E-1	6.815385E-1	6.438611E-1	6.621372E-1	7.352216E-1	7.390329E-1	7.141014E-1	7.224298E-1	6.730408E-1	8.292987E-1	6.617630E-1	6.997344E-1	7.021529E-1	6.800779E-1	6.908712E-1	7.211734E-1	6.761254E-1	6.661631E-1	7.089457E-1	6.860288E-1	7.499671E-1
2.882060E+2	5.082987E-1	5.013107E-1	5.990555E-1	5.156737E-1	5.251298E-1	4.777323E-1	5.019658E-1	4.958096E-1	4.919103E-1	4.789943E-1	4.613731E-1	5.242221E-1	5.318703E-1	4.893696E-1	5.477331E-1	5.098481E-1	5.058425E-1	4.943521E-1	5.498808E-1	5.409122E-1	5.286534E-1	4.796453E-1	5.417689E-1	5.044273E-1	4.957065E-1	5.338518E-1	4.964300E-1	5.175605E-1	5.334656E-1	5.389028E-1	5.759819E-1	5.257879E-1	4.743243E-1	5.457600E-1	5.324849E-1	5.171406E-1	5.515567E-1	4.891129E-1	5.285899E-1	5.655745E-1	5.631150E-1	5.174458E-1	5.333390E-1	5.324818E-1	5.519398E-1	5.184812E-1	5.455846E-1	5.316739E-1	4.872754E-1	4.807003E-1	5.585248E-1	5.488475E-1	5.428917E-1	5.496354E-1	4.864621E-1	5.316793E-1	5.408824E-1	5.297063E-1	4.993058E-1	4.713516E-1	5.144256E-1	5.183478E-1	5.180761E-1	5.321814E-1	5.475807E-1	5.331012E-1	5.328398E-1	5.589724E-1	5.387448E-1	5.110462E-1	5.508154E-1	4.874918E-1	5.369037E-1	4.809393E-1	5.072937E-1	5.629836E-1	5.447166E-1	5.390323E-1	5.735318E-1	5.736719E-1	5.278165E-1	4.808455E-1	5.371981E-1	4.937605E-1	5.360618E-1	5.081731E-1	5.367175E-1	4.845420E-1	5.638975E-1	5.588861E-1	5.196551E-1	5.782212E-1	5.498149E-1	5.248556E-1	5.427153E-1	5.193721E-1	5.506649E-1	5.017982E-1	5.417701E-1	4.576613E-1	5.322703E-1	5.313633E-1	5.206183E-1	5.070680E-1	5.312223E-1	5.050798E-1	5.800016E-1	5.171398E-1	5.210796E-1	5.348832E-1	5.974354E-1	5.459636E-1	4.901035E-1	5.285013E-1	4.594880E-1	5.237410E-1	4.847646E-1	5.121064E-1	5.366948E-1	5.482512E-1	4.882508E-1	5.654946E-1	5.343269E-1	5.246085E-1	4.953127E-1	5.054585E-1	4.785760E-1	5.402580E-1	5.454492E-1	5.506458E-1	4.999537E-1	5.596508E-1	5.022336E-1	5.621121E-1	4.695806E-1	5.619474E-1	5.029909E-1	4.387540E-1	4.931118E-1	5.549380E-1	5.208717E-1	5.448363E-1	4.907406E-1	5.896217E-1	5.100644E-1	5.414686E-1	5.186367E-1	5.520368E-1	5.361646E-1	5.554000E-1	5.478093E-1	4.978036E-1	5.052777E-1	5.833186E-1	5.009222E-1	5.190494E-1	5.451344E-1	5.109743E-1	5.599377E-1	5.074459E-1	5.386148E-1	5.343979E-1	5.329707E-1	5.077452E-1	5.075908E-1	5.151724E-1	5.093222E-1	5.166716E-1	5.027658E-1	5.747372E-1
2.884040E+2	6.768431E-1	6.900266E-1	5.937123E-1	6.454542E-1	6.032809E-1	6.408073E-1	6.857807E-1	6.401465E-1	7.295493E-1	6.708636E-1	6.536399E-1	6.656593E-1	6.703002E-1	6.349531E-1	6.704971E-1	6.406687E-1	6.920578E-1	6.486548E-1	7.044777E-1	6.672790E-1	6.248189E-1	6.605206E-1	6.546554E-1	6.785375E-1	7.141157E-1	6.791607E-1	6.820513E-1	6.543236E-1	6.567401E-1	6.488408E-1	6.880535E-1	6.782614E-1	6.829930E-1	6.790988E-1	6.928448E-1	7.280103E-1	6.906943E-1	6.714681E-1	6.461126E-1	7.188280E-1	6.737881E-1	6.887026E-1	7.595048E-1	6.588641E-1	7.113075E-1	6.722180E-1	6.811149E-1	6.774113E-1	6.648800E-1	7.231431E-1	7.215280E-1	7.163352E-1	6.906274E-1	6.493682E-1	7.238457E-1	6.705078E-1	6.570355E-1	6.890283E-1	6.931461E-1	6.760875E-1	6.495270E-1	6.951395E-1	6.446744E-1	6.812769E-1	6.602434E-1	6.834047E-1	6.817849E-1	7.802600E-1	6.310082E-1	6.486167E-1	7.334364E-1	7.039872E-1	7.232332E-1	6.495119E-1	6.736614E-1	6.785565E-1	6.805804E-1	6.924574E-1	6.557491E-1	7.431474E-1	6.455997E-1	6.643541E-1	6.861432E-1	6.529657E-1	6.980050E-1	7.146670E-1	6.705608E-1	6.012125E-1	6.730699E-1	6.801387E-1	6.995835E-1	6.317044E-1	6.791795E-1	6.740161E-1	6.808672E-1	6.684812E-1	7.021387E-1	6.842685E-1	7.229179E-1	6.364682E-1	6.841950E-1	6.613877E-1	6.778853E-1	6.295925E-1	6.692560E-1	6.679622E-1	7.031331E-1	6.798032E-1	7.254358E-1	6.833514E-1	6.670145E-1	6.481254E-1	6.615944E-1	6.934597E-1	6.961300E-1	7.136335E-1	6.603913E-1	6.327837E-1	6.781062E-1	6.532086E-1	6.698366E-1	6.878957E-1	7.169376E-1	6.609980E-1	6.924663E-1	6.723532E-1	6.802978E-1	6.879331E-1	6.997362E-1	6.376074E-1	6.637236E-1	6.749586E-1	6.823989E-1	6.229741E-1	6.872088E-1	6.716288E-1	6.696819E-1	7.142976E-1	7.181528E-1	6.477002E-1	5.713369E-1	6.579164E-1	6.802087E-1	7.075067E-1	6.246062E-1	6.788156E-1	6.196906E-1	6.357238E-1	6.525413E-1	6.837453E-1	7.011201E-1	6.600801E-1	6.509273E-1	6.797799E-1	7.103211E-1	6.629140E-1	6.897383E-1	7.061140E-1	7.028333E-1	6.924659E-1	6.838732E-1	6.719381E-1	7.377845E-1	6.731892E-1	6.959752E-1	6.948472E-1	7.787104E-1	7.489298E-1	6.988643E-1	6.176091E-1
2.886030E+2	8.015077E-1	8.304005E-1	8.715160E-1	8.278016E-1	8.376744E-1	8.924306E-1	8.508650E-1	8.830995E-1	8.107609E-1	8.678163E-1	8.698431E-1	8.870696E-1	8.594685E-1	8.591891E-1	8.926538E-1	8.829608E-1	8.303524E-1	8.490041E-1	8.413959E-1	8.551447E-1	7.982123E-1	8.529102E-1	7.898082E-1	8.706911E-1	8.533037E-1	8.421874E-1	8.759258E-1	8.549012E-1	8.685487E-1	8.330287E-1	8.702226E-1	8.287600E-1	8.320641E-1	8.085303E-1	8.408518E-1	9.286763E-1	8.325374E-1	8.436053E-1	8.401381E-1	8.460754E-1	8.088811E-1	8.998844E-1	8.497797E-1	8.011334E-1	8.379798E-1	7.709411E-1	8.327734E-1	8.422280E-1	8.087583E-1	8.642749E-1	8.401840E-1	8.324364E-1	8.694863E-1	8.312068E-1	7.844917E-1	8.582817E-1	8.684913E-1	8.044985E-1	8.688638E-1	8.707370E-1	7.982614E-1	8.002083E-1	8.756517E-1	7.698811E-1	8.199001E-1	8.219759E-1	8.739963E-1	8.473930E-1	8.192161E-1	8.431404E-1	9.218403E-1	8.271794E-1	8.447313E-1	7.874976E-1	7.808688E-1	8.483043E-1	8.030158E-1	8.351373E-1	8.389267E-1	8.418068E-1	8.252374E-1	8.012408E-1	8.734069E-1	8.236024E-1	8.363664E-1	8.431313E-1	8.248937E-1	8.388633E-1	8.201801E-1	8.184063E-1	8.177429E-1	8.545768E-1	8.264919E-1	8.401320E-1	8.938919E-1	8.289892E-1	8.683624E-1	7.808239E-1	8.019791E-1	8.086805E-1	8.683329E-1	7.824048E-1	8.683951E-1	8.444814E-1	8.872563E-1	8.449148E-1	8.280746E-1	8.215736E-1	8.624559E-1	7.993552E-1	8.945427E-1	8.489688E-1	8.130742E-1	8.078324E-1	8.108639E-1	8.637193E-1	9.650802E-1	9.046355E-1	8.559601E-1	8.467793E-1	8.787850E-1	8.820766E-1	8.390283E-1	8.609498E-1	7.962235E-1	8.451035E-1	8.513987E-1	8.585965E-1	8.399000E-1	8.214746E-1	8.178785E-1	8.657520E-1	8.534420E-1	8.714332E-1	7.634114E-1	8.167275E-1	8.379257E-1	8.549582E-1	8.583036E-1	8.344723E-1	8.202074E-1	8.205002E-1	8.018343E-1	8.058147E-1	8.548435E-1	8.450123E-1	7.467155E-1	8.829333E-1	8.443362E-1	8.490356E-1	8.092997E-1	8.188644E-1	8.428301E-1	8.738645E-1	8.349739E-1	8.544158E-1	8.600331E-1	8.415059E-1	8.984992E-1	8.765884E-1	8.291998E-1	8.738237E-1	8.507756E-1	8.291884E-1	8.882382E-1	8.859962E-1	7.956608E-1	8.341889E-1	8.605351E-1	9.477157E-1
2.887970E+2	8.115115E-1	8.321780E-1	8.456094E-1	8.074864E-1	7.700317E-1	8.451501E-1	8.372893E-1	7.921719E-1	7.833803E-1	7.995846E-1	7.909648E-1	8.079737E-1	8.762019E-1	8.143434E-1	7.953349E-1	7.857214E-1	8.460294E-1	7.613933E-1	7.872457E-1	8.425710E-1	8.091855E-1	7.922143E-1	7.751353E-1	8.261431E-1	8.668781E-1	7.875381E-1	8.169756E-1	7.557760E-1	7.869097E-1	7.604142E-1	8.276289E-1	7.960560E-1	8.119926E-1	7.887037E-1	8.172729E-1	7.874580E-1	8.501645E-1	8.547447E-1	7.755284E-1	7.615094E-1	7.728144E-1	8.028385E-1	8.268818E-1	7.645191E-1	7.990667E-1	7.808007E-1	8.179238E-1	7.749037E-1	8.286103E-1	8.285151E-1	8.243975E-1	8.298231E-1	7.897830E-1	8.140313E-1	7.430192E-1	7.964348E-1	7.876789E-1	7.663585E-1	7.965486E-1	7.933953E-1	8.649707E-1	7.665160E-1	8.220766E-1	8.278858E-1	8.046790E-1	6.906261E-1	7.788529E-1	8.454906E-1	8.008687E-1	7.820699E-1	8.750312E-1	7.624178E-1	8.237394E-1	8.355258E-1	8.069052E-1	8.213116E-1	8.282550E-1	8.262951E-1	7.960746E-1	8.077004E-1	8.171525E-1	7.672223E-1	8.510662E-1	7.793314E-1	8.467745E-1	8.337167E-1	8.115885E-1	7.784708E-1	8.631093E-1	7.996636E-1	7.521051E-1	8.272757E-1	8.228451E-1	8.434125E-1	8.434608E-1	8.266028E-1	8.738807E-1	8.122489E-1	8.074010E-1	8.370529E-1	8.254773E-1	8.329883E-1	8.264042E-1	8.098512E-1	7.786700E-1	7.822408E-1	8.045936E-1	8.506029E-1	7.607365E-1	8.205842E-1	8.511176E-1	8.365719E-1	7.874781E-1	8.078965E-1	8.128609E-1	8.177567E-1	8.465972E-1	8.246632E-1	8.072306E-1	8.241731E-1	8.008978E-1	8.001993E-1	8.308053E-1	8.405138E-1	8.242098E-1	8.042503E-1	8.209661E-1	8.523765E-1	7.933501E-1	8.063007E-1	8.073784E-1	8.370322E-1	8.663466E-1	8.294311E-1	7.973649E-1	8.495295E-1	8.436036E-1	8.159866E-1	8.504881E-1	7.969478E-1	8.351466E-1	8.405685E-1	8.747496E-1	7.934421E-1	7.837619E-1	8.211090E-1	8.943906E-1	8.389068E-1	8.614821E-1	7.888361E-1	8.137755E-1	8.589992E-1	7.694836E-1	8.370580E-1	8.738688E-1	8.450563E-1	8.061963E-1	8.437902E-1	8.251342E-1	7.693614E-1	7.837869E-1	7.947700E-1	8.669202E-1	8.399303E-1	8.585596E-1	7.928322E-1	8.638311E-1	8.867502E-1	7.726337E-1	7.995861E-1
2.890120E+2	8.638278E-1	8.780576E-1	8.015548E-1	7.966282E-1	8.543912E-1	8.195523E-1	8.030701E-1	8.708598E-1	8.936437E-1	8.600244E-1	8.554915E-1	8.612697E-1	8.568030E-1	8.741198E-1	8.673749E-1	9.172610E-1	8.325020E-1	8.658296E-1	8.700103E-1	8.722963E-1	8.413663E-1	8.914455E-1	8.209057E-1	9.065293E-1	8.409033E-1	7.909842E-1	8.645022E-1	8.377636E-1	9.056146E-1	7.908676E-1	8.435912E-1	8.366053E-1	8.430324E-1	8.722592E-1	8.949653E-1	9.480681E-1	8.372326E-1	8.180333E-1	8.055277E-1	8.752523E-1	8.821985E-1	9.227095E-1	8.126069E-1	8.281041E-1	9.054654E-1	8.430346E-1	8.311103E-1	8.716517E-1	8.130734E-1	8.132941E-1	9.450755E-1	8.522968E-1	9.042576E-1	9.276389E-1	8.321017E-1	8.967390E-1	8.465151E-1	8.135558E-1	8.372102E-1	8.678904E-1	8.597260E-1	8.417422E-1	8.517002E-1	8.395802E-1	8.655467E-1	8.235935E-1	8.747847E-1	8.695656E-1	8.706341E-1	8.173836E-1	8.415712E-1	8.655690E-1	9.573049E-1	7.926570E-1	8.701908E-1	8.841710E-1	9.417785E-1	8.651184E-1	9.394087E-1	9.052561E-1	8.685851E-1	8.444208E-1	8.710909E-1	8.861025E-1	8.960387E-1	8.560319E-1	9.160602E-1	8.613263E-1	8.331834E-1	8.735591E-1	8.682015E-1	8.968002E-1	8.225218E-1	9.216751E-1	9.087161E-1	8.611433E-1	8.550646E-1	8.505639E-1	8.896481E-1	8.856438E-1	9.237725E-1	8.839781E-1	8.394929E-1	8.941546E-1	8.542804E-1	9.020341E-1	9.572840E-1	8.140294E-1	8.611482E-1	8.537494E-1	9.169423E-1	9.005212E-1	8.369802E-1	9.145320E-1	8.853298E-1	8.194487E-1	8.375305E-1	9.037183E-1	8.855360E-1	8.469593E-1	8.205008E-1	8.633912E-1	8.830668E-1	9.449577E-1	8.517820E-1	8.785513E-1	8.677233E-1	8.931618E-1	8.616016E-1	9.553378E-1	8.404548E-1	8.535765E-1	8.988899E-1	8.205659E-1	9.148540E-1	8.970717E-1	9.054692E-1	8.695980E-1	8.668224E-1	8.392556E-1	7.911461E-1	9.573509E-1	9.313649E-1	8.959072E-1	8.574028E-1	8.215974E-1	8.745493E-1	8.818812E-1	8.568940E-1	8.845624E-1	8.130533E-1	8.447300E-1	7.915716E-1	9.068106E-1	9.540240E-1	8.831866E-1	8.423548E-1	8.971642E-1	8.969275E-1	8.059678E-1	9.217969E-1	8.776691E-1	9.134374E-1	8.694126E-1	8.773244E-1	9.066964E-1	8.615549E-1	8.861056E-1	8.949734E-1	9.423170E-1
2.892040E+2	9.575181E-1	9.406643E-1	9.718237E-1	9.834897E-1	1.003946E+0	9.478978E-1	9.546238E-1	1.016392E+0	9.621193E-1	9.854891E-1	9.574825E-1	1.010484E+0	9.289933E-1	9.321137E-1	9.770491E-1	9.938639E-1	9.012023E-1	9.151899E-1	9.452614E-1	9.362895E-1	9.879070E-1	9.314097E-1	1.014412E+0	1.010200E+0	1.014417E+0	9.847136E-1	1.001724E+0	9.930388E-1	1.010211E+0	1.009740E+0	9.113058E-1	9.707862E-1	9.677883E-1	9.927700E-1	9.877217E-1	1.025676E+0	9.932763E-1	9.781685E-1	1.014957E+0	9.831982E-1	9.529662E-1	9.994813E-1	9.875490E-1	9.521925E-1	9.787377E-1	9.246547E-1	9.322987E-1	9.729081E-1	9.683023E-1	9.480480E-1	1.092432E+0	9.669758E-1	9.806739E-1	9.587928E-1	1.000560E+0	1.027757E+0	1.048030E+0	1.021993E+0	8.975281E-1	9.917168E-1	9.655070E-1	9.713422E-1	9.328335E-1	9.764249E-1	9.465926E-1	9.613818E-1	9.515749E-1	9.574220E-1	9.125116E-1	9.436616E-1	9.912412E-1	1.033479E+0	9.651374E-1	9.396632E-1	9.950443E-1	9.307066E-1	9.861289E-1	9.391819E-1	9.641878E-1	9.861283E-1	9.552032E-1	9.561933E-1	9.438073E-1	9.792133E-1	1.035590E+0	9.983213E-1	9.509872E-1	1.021039E+0	1.004097E+0	9.716017E-1	9.552150E-1	1.014629E+0	9.718370E-1	8.900253E-1	9.252418E-1	9.605991E-1	9.623607E-1	9.339559E-1	9.362985E-1	9.136842E-1	9.412843E-1	9.304602E-1	9.404132E-1	9.768830E-1	9.397072E-1	9.357462E-1	9.544027E-1	1.041889E+0	1.001394E+0	9.467737E-1	9.910922E-1	9.695170E-1	9.374391E-1	9.919400E-1	9.588383E-1	1.053980E+0	1.011570E+0	9.320035E-1	9.849619E-1	1.006020E+0	1.016574E+0	9.415744E-1	9.821650E-1	9.858726E-1	9.565989E-1	9.468232E-1	9.636614E-1	9.876933E-1	9.675631E-1	9.979368E-1	9.601773E-1	9.427866E-1	1.016227E+0	9.561635E-1	9.948301E-1	1.015639E+0	9.491670E-1	9.677490E-1	9.555499E-1	9.901514E-1	1.029839E+0	9.395755E-1	9.663699E-1	9.654863E-1	9.045020E-1	9.389000E-1	9.710872E-1	1.051873E+0	1.030929E+0	9.761233E-1	1.009643E+0	9.414276E-1	1.009904E+0	9.691100E-1	1.002302E+0	9.723677E-1	9.615335E-1	9.364051E-1	1.015362E+0	1.057590E+0	9.531705E-1	1.023818E+0	9.659306E-1	9.725228E-1	9.729613E-1	9.995139E-1	1.006316E+0	9.087610E-1	9.459868E-1	9.460133E-1
2.894050E+2	8.874233E-1	9.883400E-1	9.080073E-1	9.476468E-1	9.375483E-1	8.845117E-1	9.341549E-1	9.315469E-1	9.116722E-1	9.258839E-1	9.248989E-1	9.171261E-1	9.037266E-1	8.756768E-1	8.532020E-1	9.159886E-1	9.887934E-1	8.596695E-1	8.990285E-1	9.306693E-1	9.051909E-1	9.497736E-1	9.054882E-1	9.519602E-1	1.011264E+0	9.381569E-1	9.332674E-1	8.959802E-1	8.970195E-1	8.964731E-1	8.581354E-1	8.918130E-1	8.937010E-1	8.775042E-1	9.363174E-1	8.633667E-1	8.937097E-1	9.119079E-1	9.315472E-1	9.587148E-1	9.202156E-1	9.633542E-1	8.875478E-1	8.814990E-1	9.645777E-1	8.767347E-1	8.924664E-1	9.211313E-1	9.122835E-1	9.355278E-1	9.148197E-1	8.989331E-1	8.400848E-1	9.332048E-1	8.922836E-1	9.202911E-1	9.460855E-1	9.198286E-1	9.346424E-1	9.522517E-1	9.457164E-1	9.421786E-1	8.989144E-1	9.365326E-1	9.086995E-1	8.643747E-1	9.384791E-1	8.924253E-1	8.921752E-1	9.549971E-1	9.545905E-1	9.126882E-1	9.652807E-1	8.702281E-1	8.858365E-1	9.351279E-1	9.121204E-1	9.338759E-1	9.516692E-1	9.328139E-1	9.377336E-1	9.021050E-1	9.078232E-1	8.513628E-1	8.740013E-1	9.206964E-1	9.686482E-1	9.026812E-1	9.134954E-1	8.322507E-1	8.986952E-1	9.429485E-1	9.426126E-1	9.930028E-1	9.206591E-1	9.534879E-1	8.678978E-1	9.273730E-1	9.246529E-1	9.005054E-1	9.014220E-1	9.283292E-1	9.446725E-1	9.175845E-1	9.702129E-1	9.317863E-1	9.396644E-1	9.192249E-1	8.895458E-1	9.303774E-1	8.986333E-1	9.609154E-1	8.673770E-1	9.588401E-1	9.126242E-1	9.254672E-1	8.776673E-1	9.441783E-1	8.883758E-1	8.925656E-1	8.781528E-1	9.179312E-1	9.286013E-1	8.973759E-1	9.488035E-1	9.067061E-1	8.824446E-1	9.605943E-1	9.093668E-1	8.963444E-1	9.169487E-1	9.564157E-1	9.135210E-1	9.149016E-1	8.990408E-1	9.306506E-1	9.273976E-1	8.690703E-1	9.395886E-1	9.084029E-1	9.061359E-1	9.727764E-1	8.674998E-1	8.937397E-1	9.346888E-1	8.545594E-1	9.878820E-1	9.826888E-1	8.711076E-1	9.298639E-1	9.834808E-1	8.668396E-1	9.158656E-1	9.005286E-1	9.515275E-1	8.813401E-1	9.638079E-1	9.033060E-1	9.367852E-1	9.745412E-1	8.817051E-1	9.422511E-1	9.528170E-1	9.149004E-1	9.782260E-1	9.362410E-1	9.643241E-1	8.856124E-1	9.200467E-1	8.073803E-1
2.896060E+2	8.975960E-1	8.278729E-1	9.545367E-1	8.006778E-1	8.130720E-1	8.282145E-1	8.513914E-1	8.674553E-1	7.774980E-1	8.587638E-1	8.071717E-1	8.441018E-1	8.601696E-1	8.147155E-1	8.433014E-1	9.248262E-1	8.808535E-1	8.993824E-1	8.092311E-1	8.494732E-1	8.558305E-1	8.385850E-1	8.444197E-1	8.257734E-1	8.322739E-1	8.539999E-1	7.992382E-1	8.313507E-1	8.830814E-1	8.985181E-1	8.709606E-1	8.288159E-1	8.506031E-1	8.848167E-1	8.711612E-1	8.284483E-1	8.598179E-1	8.677741E-1	8.200271E-1	8.194948E-1	8.969243E-1	8.388433E-1	8.082191E-1	8.056118E-1	8.096453E-1	8.247246E-1	7.906877E-1	8.557322E-1	8.539869E-1	8.718789E-1	8.976487E-1	8.413431E-1	8.580266E-1	8.702215E-1	8.464251E-1	8.062701E-1	8.052711E-1	8.620749E-1	8.296094E-1	8.758417E-1	7.819508E-1	8.779851E-1	8.124400E-1	8.659350E-1	8.569540E-1	8.462077E-1	8.783267E-1	8.737220E-1	8.165293E-1	8.441565E-1	8.928800E-1	9.059699E-1	8.421620E-1	8.158863E-1	8.308128E-1	9.143886E-1	8.300049E-1	8.924392E-1	8.104045E-1	8.937675E-1	8.075695E-1	8.128826E-1	8.451466E-1	8.092032E-1	8.880425E-1	8.197962E-1	8.143972E-1	8.601617E-1	8.759650E-1	7.821214E-1	8.107879E-1	8.291399E-1	8.595057E-1	8.669075E-1	8.092774E-1	8.346691E-1	8.233991E-1	8.534909E-1	8.426103E-1	8.386414E-1	8.918413E-1	8.948851E-1	8.813361E-1	8.067891E-1	8.831260E-1	7.584732E-1	8.150441E-1	8.790360E-1	8.233754E-1	8.898926E-1	8.616727E-1	8.483181E-1	8.783448E-1	8.278139E-1	8.589142E-1	9.024994E-1	8.850739E-1	9.098100E-1	8.588730E-1	8.508576E-1	8.671821E-1	8.490859E-1	8.521147E-1	8.645395E-1	8.649518E-1	8.582485E-1	8.574109E-1	8.895614E-1	8.156551E-1	8.484211E-1	8.036114E-1	8.822443E-1	8.460781E-1	8.789584E-1	8.257429E-1	8.271749E-1	8.972619E-1	8.777287E-1	8.635319E-1	8.031157E-1	8.818212E-1	8.611107E-1	8.054145E-1	8.325956E-1	8.239514E-1	8.315272E-1	8.281368E-1	8.612825E-1	8.186572E-1	8.967508E-1	8.665589E-1	8.631736E-1	8.338135E-1	7.929151E-1	8.571345E-1	8.357307E-1	8.572308E-1	8.363494E-1	8.573006E-1	9.106057E-1	8.654222E-1	8.551404E-1	8.443631E-1	9.113220E-1	8.212092E-1	8.064354E-1	8.673748E-1	9.649310E-1	8.796436E-1	9.768833E-1
2.898050E+2	8.310748E-1	8.085478E-1	8.492981E-1	7.978918E-1	7.997409E-1	7.749479E-1	8.113243E-1	7.682604E-1	7.415902E-1	7.040361E-1	7.853443E-1	7.956947E-1	8.070631E-1	7.553945E-1	8.122432E-1	7.899325E-1	7.952237E-1	7.634167E-1	7.871688E-1	7.793784E-1	7.449681E-1	7.841390E-1	7.141109E-1	7.629568E-1	8.365277E-1	7.993844E-1	8.185891E-1	8.217380E-1	8.095684E-1	7.285251E-1	8.135174E-1	7.593931E-1	7.802351E-1	7.971612E-1	7.946740E-1	7.803743E-1	7.815528E-1	8.278327E-1	7.590840E-1	7.748655E-1	8.433662E-1	7.354330E-1	7.976239E-1	7.322720E-1	8.008971E-1	8.048551E-1	7.523438E-1	7.335132E-1	7.551232E-1	8.346137E-1	8.565604E-1	7.624611E-1	7.787917E-1	8.472563E-1	7.497822E-1	7.719133E-1	7.922506E-1	8.410577E-1	8.086514E-1	7.663573E-1	7.474151E-1	7.768968E-1	7.663680E-1	7.883364E-1	7.705022E-1	8.121547E-1	7.881459E-1	8.567015E-1	7.324346E-1	8.159162E-1	8.037008E-1	8.118909E-1	7.660673E-1	7.831218E-1	8.373038E-1	7.986168E-1	8.031057E-1	8.709776E-1	7.682425E-1	8.156810E-1	7.629670E-1	7.860827E-1	7.883277E-1	7.893650E-1	8.263683E-1	7.082061E-1	7.682719E-1	7.706493E-1	7.845774E-1	8.362111E-1	7.204954E-1	7.828652E-1	7.969245E-1	7.740438E-1	7.607693E-1	7.540799E-1	7.988604E-1	7.847234E-1	7.531553E-1	8.276457E-1	7.650714E-1	7.753328E-1	7.639273E-1	7.603476E-1	7.740425E-1	7.228362E-1	7.890454E-1	7.626121E-1	7.708069E-1	7.808083E-1	8.240573E-1	7.902736E-1	7.767130E-1	8.522039E-1	7.365049E-1	8.122648E-1	7.945342E-1	7.816539E-1	7.985515E-1	7.567012E-1	7.557676E-1	8.010181E-1	7.550098E-1	7.966602E-1	7.692375E-1	8.018208E-1	7.915751E-1	8.278759E-1	8.056106E-1	7.937277E-1	7.808536E-1	8.706005E-1	8.318123E-1	8.177427E-1	8.475297E-1	7.730070E-1	7.826534E-1	7.949645E-1	7.552908E-1	7.505956E-1	7.736711E-1	7.688315E-1	7.518580E-1	7.785123E-1	7.575062E-1	8.109189E-1	7.595174E-1	8.304783E-1	7.140648E-1	7.591962E-1	7.660763E-1	7.428302E-1	7.242126E-1	7.749265E-1	8.053159E-1	7.251508E-1	8.007781E-1	8.198728E-1	7.850196E-1	7.800060E-1	7.933716E-1	7.982529E-1	8.039902E-1	7.596019E-1	8.048113E-1	7.736217E-1	7.534237E-1	7.270510E-1	6.689042E-1	8.133205E-1
2.900050E+2	6.094079E-1	5.959163E-1	6.045795E-1	5.709239E-1	6.034861E-1	5.462980E-1	5.095720E-1	5.409539E-1	5.660620E-1	5.361417E-1	5.361140E-1	5.254305E-1	5.485965E-1	5.695956E-1	5.529051E-1	5.872643E-1	5.590694E-1	5.305225E-1	5.998730E-1	5.756867E-1	5.544369E-1	5.346224E-1	5.280713E-1	5.522753E-1	5.995707E-1	5.817524E-1	6.381928E-1	5.029826E-1	5.812661E-1	5.713609E-1	5.718719E-1	5.865724E-1	5.766433E-1	6.101144E-1	5.306766E-1	5.980553E-1	5.995869E-1	6.222735E-1	5.470959E-1	5.539987E-1	5.820951E-1	5.804283E-1	5.887540E-1	5.248809E-1	5.866308E-1	5.763003E-1	5.311616E-1	5.363460E-1	5.645077E-1	5.939075E-1	5.758702E-1	5.341910E-1	5.522499E-1	6.171809E-1	5.471204E-1	5.848634E-1	5.853057E-1	5.586827E-1	5.445756E-1	5.242107E-1	5.975934E-1	5.806408E-1	5.306390E-1	5.570991E-1	5.488108E-1	5.334690E-1	6.022520E-1	5.815024E-1	5.315193E-1	5.501452E-1	5.931374E-1	5.380063E-1	6.245574E-1	5.639858E-1	5.306820E-1	6.053521E-1	6.037576E-1	5.293215E-1	5.304286E-1	5.907131E-1	5.306080E-1	5.365482E-1	5.853352E-1	5.383325E-1	5.294209E-1	6.031047E-1	5.537618E-1	5.624934E-1	5.528741E-1	5.145543E-1	6.203072E-1	5.496182E-1	6.004794E-1	5.656349E-1	5.832596E-1	5.461682E-1	5.948822E-1	5.246482E-1	5.660007E-1	5.740183E-1	5.665205E-1	5.692112E-1	6.026670E-1	4.966676E-1	5.808207E-1	5.749903E-1	5.874464E-1	5.697055E-1	5.525554E-1	5.425862E-1	5.984307E-1	6.095947E-1	5.974315E-1	5.740765E-1	5.549568E-1	5.523614E-1	5.713337E-1	5.833408E-1	5.293797E-1	5.792478E-1	5.809168E-1	6.219237E-1	5.867603E-1	5.880426E-1	5.376968E-1	5.309462E-1	5.301320E-1	6.473595E-1	5.916383E-1	5.646455E-1	5.400413E-1	5.367286E-1	6.046818E-1	5.935432E-1	5.418119E-1	5.964053E-1	5.611395E-1	5.285051E-1	5.628642E-1	5.837329E-1	6.398172E-1	5.980882E-1	5.916668E-1	5.593887E-1	5.724369E-1	6.133073E-1	5.760949E-1	5.841294E-1	5.419891E-1	5.421569E-1	5.935898E-1	5.738948E-1	5.710139E-1	6.081037E-1	5.633544E-1	5.504421E-1	6.008421E-1	6.373172E-1	5.190721E-1	5.475820E-1	5.739147E-1	5.931737E-1	5.866817E-1	5.197534E-1	5.906524E-1	5.400477E-1	5.555601E-1	6.369916E-1	6.133330E-1	5.673647E-1
2.905170E+2	5.815703E-1	5.970470E-1	5.571764E-1	6.094121E-1	5.995576E-1	5.854816E-1	5.770848E-1	5.850798E-1	5.553448E-1	5.657595E-1	5.723724E-1	6.308467E-1	5.558789E-1	5.444657E-1	6.489458E-1	5.652744E-1	5.278347E-1	5.854164E-1	6.192355E-1	5.724089E-1	5.885854E-1	6.046736E-1	5.658429E-1	5.855748E-1	6.192022E-1	5.620778E-1	5.710122E-1	5.752615E-1	6.206861E-1	6.249785E-1	5.605894E-1	6.180913E-1	5.566400E-1	6.437396E-1	6.247490E-1	6.398677E-1	5.672839E-1	6.329807E-1	6.046732E-1	6.116821E-1	5.269721E-1	6.123559E-1	5.873755E-1	5.979234E-1	5.958548E-1	5.418276E-1	6.207822E-1	5.765789E-1	5.710165E-1	5.722086E-1	6.225327E-1	5.717590E-1	6.186574E-1	6.031010E-1	5.844221E-1	5.649848E-1	5.709918E-1	6.339487E-1	5.663953E-1	6.155063E-1	6.174774E-1	6.029611E-1	5.395904E-1	6.012598E-1	5.510000E-1	5.547901E-1	5.943377E-1	6.367856E-1	5.755339E-1	5.625900E-1	5.920034E-1	6.330171E-1	6.365496E-1	6.193317E-1	5.579644E-1	6.060034E-1	5.574723E-1	5.425832E-1	5.942875E-1	6.158992E-1	5.732417E-1	5.431483E-1	5.545661E-1	6.328457E-1	5.497059E-1	5.633106E-1	5.710511E-1	5.807026E-1	5.958866E-1	6.163233E-1	5.986999E-1	6.035841E-1	5.727460E-1	5.377693E-1	6.316544E-1	5.855410E-1	5.346085E-1	5.509597E-1	5.707603E-1	5.546820E-1	6.472678E-1	5.654943E-1	5.786223E-1	5.676441E-1	5.938787E-1	5.805229E-1	5.811034E-1	6.217623E-1	5.411777E-1	6.234001E-1	5.685381E-1	5.714230E-1	5.835667E-1	5.972822E-1	5.797515E-1	6.169969E-1	5.750826E-1	5.844235E-1	5.975570E-1	6.284559E-1	5.782201E-1	5.238013E-1	5.638337E-1	6.000008E-1	5.834503E-1	6.005258E-1	5.819489E-1	6.109183E-1	6.174757E-1	5.861891E-1	5.435809E-1	6.195250E-1	6.130673E-1	5.610474E-1	5.682303E-1	5.960839E-1	6.107372E-1	6.231297E-1	6.259066E-1	6.215265E-1	6.032653E-1	6.148890E-1	5.727699E-1	5.551580E-1	5.875778E-1	6.014798E-1	5.753969E-1	5.882768E-1	5.735445E-1	6.252654E-1	5.854928E-1	5.668567E-1	5.666351E-1	6.096826E-1	5.909390E-1	6.219960E-1	5.953286E-1	5.689180E-1	5.608398E-1	5.832682E-1	6.024078E-1	5.782405E-1	5.759734E-1	5.592365E-1	5.710984E-1	5.796948E-1	6.079655E-1	6.051679E-1	6.036813E-1	5.382600E-1
2.910030E+2	7.589641E-1	7.699520E-1	7.452897E-1	7.838854E-1	8.036124E-1	7.145917E-1	7.764859E-1	8.195184E-1	8.397508E-1	7.684401E-1	7.770391E-1	7.579864E-1	8.130986E-1	7.535827E-1	7.677411E-1	7.367351E-1	8.049330E-1	7.604671E-1	7.482020E-1	7.373041E-1	7.636334E-1	7.520654E-1	7.669338E-1	7.845002E-1	8.304871E-1	7.543334E-1	7.595271E-1	7.885946E-1	8.265711E-1	7.630969E-1	8.235034E-1	7.728452E-1	8.031659E-1	8.430880E-1	7.627452E-1	7.762655E-1	7.901671E-1	7.766607E-1	8.068544E-1	7.795125E-1	8.070814E-1	8.104254E-1	7.540753E-1	7.492268E-1	7.514701E-1	7.718242E-1	7.685226E-1	7.891354E-1	7.375399E-1	7.357232E-1	7.588666E-1	7.689349E-1	7.772235E-1	7.506676E-1	7.788089E-1	7.750373E-1	8.037465E-1	7.935269E-1	7.555906E-1	7.713027E-1	8.253505E-1	8.073792E-1	7.514632E-1	7.863811E-1	8.331911E-1	7.544902E-1	7.545789E-1	8.136467E-1	7.988147E-1	7.722763E-1	8.169010E-1	7.512523E-1	8.030074E-1	7.489796E-1	8.295127E-1	7.962114E-1	7.676261E-1	7.661546E-1	7.775404E-1	7.924466E-1	8.049762E-1	7.643965E-1	7.531553E-1	7.965920E-1	7.915695E-1	7.975939E-1	6.948202E-1	7.309526E-1	7.559438E-1	7.878359E-1	7.269924E-1	8.578836E-1	7.215615E-1	8.003252E-1	7.576912E-1	7.509056E-1	7.286418E-1	8.200740E-1	8.024219E-1	8.447258E-1	7.819913E-1	7.995782E-1	7.599479E-1	7.244816E-1	7.375419E-1	7.506911E-1	7.653751E-1	7.704190E-1	7.813987E-1	7.730234E-1	8.180468E-1	7.910352E-1	7.534973E-1	7.302256E-1	7.633680E-1	8.062612E-1	8.082892E-1	7.976035E-1	7.423567E-1	7.722800E-1	7.497518E-1	7.722303E-1	7.961109E-1	7.733680E-1	7.567121E-1	7.572863E-1	8.013232E-1	8.196897E-1	8.162273E-1	7.482844E-1	7.401362E-1	7.875177E-1	7.943500E-1	7.857058E-1	6.754498E-1	7.860484E-1	7.600156E-1	7.790036E-1	7.733213E-1	7.553680E-1	7.187911E-1	7.881029E-1	7.569684E-1	7.665871E-1	7.459975E-1	8.167494E-1	7.739411E-1	7.912067E-1	8.069061E-1	6.981908E-1	7.708565E-1	7.659572E-1	8.057643E-1	7.403311E-1	8.093910E-1	7.945678E-1	8.106786E-1	7.814158E-1	8.173631E-1	8.095973E-1	7.740678E-1	7.594892E-1	7.763559E-1	8.031293E-1	7.538239E-1	7.503833E-1	6.524509E-1	8.152136E-1	7.815857E-1	7.894449E-1
2.915070E+2	9.919546E-1	9.212540E-1	9.117923E-1	8.598625E-1	7.548091E-1	8.003373E-1	8.849542E-1	8.894565E-1	9.057787E-1	8.613573E-1	8.447451E-1	8.507306E-1	8.616782E-1	8.477802E-1	9.271192E-1	8.603834E-1	9.133548E-1	8.891218E-1	8.674710E-1	8.759391E-1	8.795107E-1	8.887302E-1	9.112270E-1	8.815242E-1	8.266248E-1	8.535428E-1	8.644887E-1	8.296569E-1	8.820973E-1	8.246125E-1	8.265339E-1	8.969305E-1	9.203257E-1	8.796625E-1	8.176449E-1	9.558166E-1	9.002331E-1	8.631663E-1	8.998497E-1	8.437182E-1	8.629889E-1	8.749761E-1	8.380511E-1	8.685001E-1	8.280764E-1	8.294077E-1	8.357722E-1	8.696766E-1	8.926968E-1	9.658395E-1	8.527979E-1	8.423951E-1	8.570833E-1	9.417129E-1	9.055784E-1	9.550699E-1	8.557558E-1	8.911283E-1	9.585626E-1	8.997820E-1	8.602117E-1	8.811229E-1	8.598922E-1	8.644404E-1	8.872550E-1	8.458413E-1	9.462679E-1	9.032098E-1	8.542354E-1	8.571955E-1	8.772077E-1	8.914402E-1	9.078032E-1	8.977425E-1	8.574334E-1	9.365963E-1	9.646629E-1	8.712100E-1	9.221475E-1	8.670886E-1	9.010116E-1	8.860934E-1	8.715933E-1	8.423552E-1	8.932156E-1	8.966054E-1	8.650100E-1	9.107165E-1	8.733188E-1	9.348760E-1	8.609196E-1	9.144247E-1	8.633815E-1	9.306503E-1	8.678900E-1	9.190683E-1	9.034401E-1	8.968022E-1	8.386876E-1	8.886799E-1	8.798540E-1	8.792933E-1	8.739303E-1	8.736351E-1	8.906617E-1	8.921877E-1	9.114241E-1	9.271513E-1	8.814195E-1	9.407530E-1	9.217846E-1	8.229589E-1	9.043900E-1	8.480244E-1	8.672296E-1	9.414516E-1	8.459505E-1	8.381466E-1	8.681555E-1	9.109133E-1	8.927241E-1	9.160904E-1	8.673852E-1	8.975715E-1	8.481826E-1	8.895619E-1	9.179163E-1	8.991652E-1	8.481973E-1	9.383509E-1	8.383721E-1	8.803256E-1	8.504256E-1	8.898638E-1	9.224822E-1	8.895647E-1	8.722726E-1	8.084154E-1	9.139156E-1	9.111336E-1	8.840240E-1	9.314044E-1	9.152132E-1	8.652103E-1	8.470665E-1	8.950665E-1	8.584698E-1	8.884922E-1	8.509383E-1	9.149529E-1	8.683514E-1	8.665745E-1	8.883601E-1	8.724747E-1	8.921803E-1	9.037800E-1	9.295652E-1	9.504531E-1	8.748242E-1	9.512456E-1	9.518680E-1	8.839540E-1	8.862302E-1	8.942614E-1	9.145947E-1	8.539452E-1	9.047074E-1	9.217307E-1	7.976535E-1	8.727394E-1
2.920050E+2	7.448192E-1	7.481378E-1	7.928909E-1	7.311303E-1	7.364166E-1	7.973442E-1	7.097398E-1	6.850984E-1	7.480807E-1	7.969630E-1	7.263873E-1	7.921718E-1	7.810420E-1	7.590190E-1	7.848281E-1	8.364863E-1	8.174982E-1	8.322051E-1	7.355528E-1	8.499076E-1	7.937386E-1	8.104798E-1	7.038135E-1	7.973631E-1	7.639407E-1	8.047742E-1	8.037904E-1	7.135603E-1	7.648284E-1	8.513498E-1	7.387222E-1	7.158627E-1	7.793930E-1	7.851378E-1	7.689158E-1	7.679440E-1	7.393808E-1	7.374998E-1	8.055309E-1	7.499080E-1	7.405247E-1	8.149002E-1	8.378159E-1	7.247239E-1	7.581057E-1	7.636884E-1	7.678465E-1	7.811282E-1	7.491597E-1	8.166005E-1	8.112378E-1	7.909727E-1	7.954767E-1	8.162423E-1	7.588856E-1	8.191612E-1	7.637943E-1	7.686328E-1	7.776166E-1	7.699021E-1	7.404449E-1	7.546169E-1	7.200209E-1	8.005719E-1	8.073202E-1	7.927184E-1	7.911479E-1	7.609593E-1	7.761314E-1	7.714792E-1	8.076452E-1	7.647766E-1	7.886231E-1	8.162327E-1	7.531759E-1	7.674346E-1	7.782820E-1	7.479626E-1	7.508736E-1	7.605278E-1	7.313426E-1	7.609799E-1	7.837772E-1	7.842951E-1	7.640912E-1	7.834655E-1	7.655160E-1	8.337992E-1	8.477458E-1	7.053880E-1	7.586396E-1	7.995653E-1	7.788602E-1	7.226038E-1	7.486447E-1	7.861983E-1	7.648722E-1	7.487640E-1	7.303147E-1	8.292643E-1	7.463484E-1	7.596120E-1	7.060280E-1	7.991322E-1	7.477453E-1	7.389205E-1	8.379917E-1	7.061922E-1	7.904508E-1	8.202690E-1	8.252762E-1	7.663298E-1	7.791838E-1	8.141238E-1	7.400116E-1	7.932556E-1	7.817239E-1	8.144581E-1	8.001733E-1	7.556176E-1	8.105086E-1	8.157899E-1	8.227825E-1	7.813004E-1	7.729862E-1	7.691728E-1	7.959535E-1	8.066731E-1	7.478144E-1	7.872770E-1	7.572590E-1	8.210113E-1	8.127457E-1	8.712239E-1	7.237699E-1	8.282930E-1	7.510073E-1	7.932454E-1	7.641045E-1	7.366639E-1	7.693010E-1	8.094575E-1	8.169384E-1	7.552158E-1	8.002883E-1	7.202695E-1	7.740723E-1	7.915804E-1	8.117258E-1	8.112858E-1	7.271764E-1	7.946675E-1	8.146176E-1	7.416032E-1	7.127749E-1	7.992701E-1	7.748718E-1	7.629786E-1	7.674508E-1	8.476832E-1	7.797359E-1	7.620499E-1	8.261534E-1	7.917994E-1	7.426974E-1	7.712621E-1	8.382815E-1	8.143554E-1	7.725035E-1	8.255857E-1
2.925000E+2	1.090486E+0	1.105791E+0	9.882120E-1	1.147129E+0	1.090282E+0	1.101349E+0	1.099840E+0	1.104949E+0	1.090707E+0	1.019864E+0	1.058075E+0	1.161093E+0	1.083833E+0	1.051254E+0	1.073026E+0	1.087440E+0	1.141339E+0	1.118679E+0	1.036267E+0	1.115060E+0	1.108788E+0	1.085005E+0	1.123916E+0	1.153353E+0	1.123021E+0	1.136322E+0	1.194430E+0	1.069083E+0	1.025681E+0	1.054143E+0	1.164689E+0	1.140593E+0	1.041948E+0	1.108636E+0	1.076258E+0	1.217906E+0	1.052368E+0	1.085432E+0	1.075472E+0	1.098056E+0	1.135199E+0	1.098239E+0	1.101636E+0	1.105979E+0	1.105072E+0	1.094359E+0	1.083754E+0	1.119058E+0	1.059321E+0	1.180679E+0	1.145660E+0	1.100922E+0	1.099861E+0	1.169267E+0	1.069626E+0	1.117700E+0	1.082885E+0	1.132704E+0	1.170952E+0	1.141250E+0	1.224478E+0	1.032110E+0	1.062284E+0	1.108367E+0	1.119091E+0	1.105504E+0	1.142200E+0	1.049198E+0	1.104761E+0	1.126822E+0	1.144555E+0	1.024839E+0	1.151394E+0	1.090814E+0	1.095245E+0	1.145833E+0	1.056853E+0	1.098210E+0	1.102969E+0	1.111761E+0	1.073344E+0	1.014097E+0	1.066974E+0	1.042214E+0	1.111069E+0	1.148463E+0	1.131273E+0	1.098467E+0	1.161662E+0	1.033074E+0	1.096455E+0	1.175598E+0	1.121242E+0	1.121745E+0	1.087476E+0	1.110389E+0	1.139678E+0	1.116496E+0	1.176649E+0	1.186061E+0	1.172032E+0	1.128908E+0	1.036313E+0	1.151554E+0	1.131227E+0	1.097516E+0	1.136301E+0	1.137856E+0	1.112922E+0	1.146190E+0	1.089151E+0	1.139554E+0	1.131301E+0	1.124500E+0	9.821773E-1	1.059281E+0	1.064586E+0	1.115511E+0	1.093654E+0	1.085341E+0	1.137946E+0	1.128432E+0	1.093845E+0	1.085045E+0	1.076319E+0	1.082641E+0	1.050982E+0	1.146452E+0	1.162747E+0	1.104551E+0	1.155833E+0	1.153147E+0	1.096724E+0	1.170755E+0	1.082269E+0	1.125418E+0	1.086201E+0	1.189573E+0	1.097080E+0	1.042236E+0	1.092286E+0	1.109446E+0	1.114786E+0	1.101395E+0	1.122518E+0	1.103323E+0	1.107978E+0	1.108973E+0	1.125588E+0	1.121467E+0	1.092581E+0	1.086477E+0	1.065373E+0	1.067294E+0	1.130777E+0	1.079100E+0	1.119422E+0	1.140877E+0	1.056182E+0	1.141203E+0	1.121815E+0	1.098798E+0	1.119257E+0	1.100327E+0	1.168395E+0	1.113277E+0	1.135504E+0	1.090722E+0	1.069486E+0	1.296590E+0
2.930150E+2	1.175798E+0	1.141330E+0	1.162494E+0	1.128341E+0	1.143621E+0	1.156609E+0	1.192268E+0	1.143455E+0	1.140259E+0	1.159827E+0	1.166865E+0	1.207613E+0	1.176351E+0	1.201795E+0	1.223796E+0	1.144667E+0	1.183991E+0	1.070868E+0	1.227895E+0	1.135255E+0	1.210040E+0	1.114025E+0	1.133892E+0	1.083724E+0	1.194265E+0	1.127521E+0	1.184238E+0	1.067443E+0	1.145816E+0	1.230376E+0	1.134496E+0	1.158530E+0	1.151944E+0	1.192693E+0	1.126183E+0	1.141047E+0	1.159995E+0	1.178076E+0	1.146568E+0	1.182892E+0	1.214077E+0	1.120275E+0	1.132519E+0	1.154588E+0	1.204723E+0	1.080224E+0	1.140623E+0	1.093912E+0	1.108939E+0	1.241353E+0	1.156716E+0	1.067112E+0	1.178328E+0	1.197540E+0	1.190549E+0	1.180838E+0	1.250028E+0	1.165234E+0	1.211178E+0	1.196156E+0	1.149198E+0	1.183128E+0	1.146141E+0	1.206884E+0	1.157552E+0	1.149624E+0	1.201593E+0	1.166443E+0	1.101889E+0	1.136320E+0	1.037260E+0	1.152983E+0	1.241281E+0	1.215722E+0	1.088740E+0	1.267700E+0	1.143578E+0	1.142328E+0	1.147567E+0	1.185713E+0	1.149079E+0	1.164622E+0	1.203795E+0	1.150866E+0	1.108090E+0	1.147143E+0	1.224916E+0	1.185836E+0	1.274599E+0	1.113633E+0	1.124684E+0	1.220633E+0	1.178957E+0	1.129043E+0	1.204768E+0	1.195086E+0	1.115054E+0	1.182986E+0	1.127487E+0	1.147749E+0	1.164014E+0	1.188408E+0	1.168836E+0	1.199676E+0	1.150084E+0	1.099415E+0	1.157998E+0	1.205612E+0	1.114496E+0	1.195741E+0	1.142118E+0	1.136878E+0	1.183554E+0	1.193981E+0	1.194850E+0	1.181467E+0	1.099105E+0	1.199160E+0	1.082547E+0	1.147376E+0	1.239777E+0	1.178788E+0	1.179864E+0	1.218355E+0	1.121408E+0	1.186850E+0	1.167674E+0	1.217726E+0	1.220024E+0	1.168529E+0	1.135197E+0	1.147327E+0	1.154691E+0	1.192190E+0	1.116003E+0	1.197396E+0	1.072566E+0	1.162988E+0	1.123032E+0	1.170501E+0	1.218400E+0	1.187232E+0	1.202034E+0	1.157994E+0	1.196021E+0	1.139990E+0	1.126757E+0	1.242817E+0	1.194138E+0	1.167235E+0	1.125576E+0	1.194825E+0	1.134572E+0	1.113654E+0	1.241211E+0	1.149610E+0	1.218720E+0	1.185245E+0	1.207269E+0	1.188036E+0	1.182542E+0	1.194225E+0	1.108677E+0	1.217204E+0	1.151816E+0	1.198858E+0	1.188411E+0	1.159712E+0	1.194695E+0	1.196122E+0
2.935040E+2	1.056506E+0	1.214786E+0	1.102842E+0	1.098585E+0	1.153071E+0	1.104416E+0	1.209628E+0	1.115731E+0	1.173470E+0	1.087392E+0	1.018789E+0	1.197725E+0	1.156207E+0	1.110381E+0	1.201511E+0	1.213555E+0	1.194899E+0	1.140266E+0	1.153676E+0	1.166068E+0	1.169983E+0	1.139031E+0	1.070285E+0	1.184050E+0	1.108757E+0	1.148815E+0	1.180860E+0	1.135274E+0	1.158072E+0	1.137776E+0	1.167493E+0	1.081417E+0	1.197278E+0	1.153453E+0	1.133410E+0	1.156243E+0	1.118120E+0	1.124605E+0	1.197715E+0	1.057538E+0	1.189520E+0	1.155276E+0	1.189608E+0	1.104057E+0	1.207298E+0	1.150533E+0	1.092872E+0	1.100286E+0	1.191588E+0	1.161799E+0	1.199517E+0	1.107213E+0	1.172932E+0	1.195907E+0	1.136201E+0	1.107347E+0	1.181954E+0	1.126365E+0	1.084817E+0	1.178797E+0	1.129691E+0	1.105128E+0	1.192639E+0	1.102588E+0	1.227157E+0	1.102967E+0	1.196316E+0	1.271279E+0	1.202478E+0	1.108337E+0	1.251857E+0	1.192891E+0	1.175710E+0	1.168659E+0	1.138947E+0	1.177198E+0	1.195144E+0	1.078443E+0	1.131260E+0	1.138650E+0	1.137346E+0	1.182555E+0	1.096316E+0	1.115331E+0	1.144240E+0	1.151205E+0	1.137170E+0	1.185312E+0	1.217014E+0	1.145561E+0	1.088768E+0	1.189748E+0	1.176416E+0	1.165448E+0	1.130566E+0	1.107468E+0	1.147255E+0	1.183667E+0	1.146756E+0	1.110085E+0	1.158013E+0	1.062685E+0	1.213995E+0	1.058865E+0	1.207987E+0	1.153029E+0	1.190296E+0	1.200567E+0	1.096901E+0	1.161715E+0	1.123561E+0	1.177192E+0	1.184167E+0	1.180636E+0	1.154654E+0	1.183822E+0	1.214366E+0	1.188436E+0	1.092951E+0	1.182207E+0	1.093146E+0	1.198613E+0	1.140966E+0	1.162548E+0	1.179870E+0	1.128179E+0	1.134942E+0	1.189227E+0	1.177252E+0	1.134399E+0	1.147670E+0	1.235929E+0	1.108003E+0	1.104330E+0	1.157137E+0	1.100552E+0	1.202011E+0	1.151039E+0	1.150215E+0	1.153014E+0	1.124766E+0	1.106708E+0	1.212443E+0	1.111966E+0	1.161646E+0	1.137101E+0	1.134613E+0	1.144318E+0	1.140556E+0	1.122979E+0	1.112229E+0	1.189301E+0	1.204774E+0	1.166158E+0	1.202091E+0	1.184402E+0	1.143298E+0	1.149213E+0	1.180752E+0	1.160334E+0	1.114805E+0	1.138653E+0	1.154593E+0	1.166692E+0	1.155463E+0	1.141793E+0	1.150390E+0	1.179387E+0	1.273861E+0	1.097938E+0
2.940100E+2	1.089424E+0	1.076689E+0	1.072647E+0	1.068382E+0	1.009665E+0	1.135640E+0	1.015919E+0	1.070081E+0	1.063509E+0	1.041305E+0	9.834147E-1	1.061966E+0	1.114170E+0	1.073443E+0	1.060033E+0	1.078312E+0	1.097626E+0	1.031960E+0	1.017263E+0	1.081840E+0	1.177049E+0	9.962950E-1	1.043907E+0	1.053777E+0	1.075168E+0	1.074125E+0	1.053395E+0	1.041876E+0	1.137185E+0	1.126455E+0	1.117428E+0	1.061030E+0	1.066558E+0	1.055558E+0	1.080255E+0	1.080636E+0	1.140401E+0	1.071918E+0	1.041771E+0	1.029099E+0	1.062109E+0	1.053112E+0	1.088366E+0	1.027419E+0	1.050763E+0	1.014454E+0	1.024150E+0	1.041035E+0	1.006415E+0	1.062266E+0	1.138150E+0	1.075967E+0	1.080238E+0	1.078309E+0	1.077669E+0	1.122612E+0	1.078400E+0	1.043746E+0	1.111207E+0	1.059995E+0	1.057074E+0	1.078079E+0	1.031164E+0	1.071954E+0	1.040243E+0	1.041464E+0	1.056053E+0	1.119115E+0	1.118581E+0	1.101891E+0	1.056620E+0	1.053322E+0	1.061969E+0	1.057916E+0	1.007630E+0	1.120266E+0	1.077990E+0	1.084284E+0	1.036592E+0	9.672278E-1	1.038860E+0	1.039125E+0	1.064229E+0	1.057582E+0	1.034937E+0	1.107967E+0	1.097778E+0	1.095742E+0	1.110080E+0	1.097649E+0	1.046395E+0	1.114811E+0	1.074614E+0	1.061894E+0	1.034073E+0	1.055445E+0	1.082491E+0	1.093432E+0	1.069770E+0	1.061552E+0	1.077684E+0	1.043327E+0	1.066999E+0	1.018668E+0	1.041879E+0	1.061592E+0	1.168552E+0	1.041944E+0	1.098919E+0	1.070410E+0	1.070784E+0	1.018005E+0	9.859845E-1	1.075952E+0	1.041593E+0	1.062124E+0	1.086628E+0	1.098037E+0	1.064084E+0	1.053099E+0	1.106943E+0	1.176832E+0	1.003777E+0	1.117847E+0	1.043271E+0	1.038119E+0	1.075451E+0	1.177586E+0	1.094084E+0	1.166079E+0	9.920143E-1	1.064872E+0	1.095137E+0	1.123705E+0	9.988277E-1	1.116573E+0	1.072869E+0	1.045636E+0	1.096138E+0	1.007141E+0	1.039294E+0	1.121376E+0	1.039274E+0	1.082774E+0	1.106077E+0	1.061558E+0	1.105042E+0	1.084560E+0	1.079482E+0	1.068513E+0	1.087003E+0	1.012146E+0	1.076251E+0	1.143692E+0	1.099442E+0	1.125746E+0	1.063514E+0	1.058858E+0	1.029598E+0	1.029786E+0	1.103528E+0	1.085054E+0	1.029743E+0	1.081686E+0	1.165918E+0	1.105958E+0	1.113553E+0	1.109287E+0	1.171056E+0	1.257356E+0
2.945040E+2	7.889279E-1	8.215512E-1	8.351913E-1	8.227440E-1	8.148049E-1	8.520853E-1	8.757745E-1	8.812566E-1	8.091527E-1	8.194151E-1	7.874547E-1	8.673635E-1	8.217748E-1	8.140296E-1	8.667595E-1	8.501901E-1	8.480844E-1	8.046368E-1	8.471338E-1	8.189944E-1	8.402649E-1	7.778676E-1	8.302211E-1	8.357081E-1	8.221392E-1	8.179821E-1	8.496467E-1	8.142803E-1	8.611002E-1	8.333705E-1	8.282345E-1	8.126159E-1	8.547716E-1	8.477779E-1	8.440587E-1	8.883589E-1	8.328958E-1	8.771929E-1	8.083012E-1	8.270427E-1	8.500005E-1	8.352385E-1	8.395752E-1	8.060043E-1	8.672640E-1	8.290522E-1	8.001758E-1	8.811164E-1	8.231759E-1	8.577733E-1	8.280138E-1	8.199713E-1	8.384223E-1	8.063717E-1	7.891891E-1	8.452228E-1	8.743093E-1	8.188439E-1	9.010303E-1	8.733560E-1	8.478049E-1	8.268003E-1	8.056309E-1	8.414680E-1	8.952496E-1	8.176964E-1	7.671298E-1	8.827109E-1	9.222253E-1	8.270556E-1	8.275854E-1	8.637242E-1	8.493017E-1	8.094433E-1	8.164571E-1	8.556369E-1	8.341753E-1	8.401530E-1	8.061181E-1	8.148047E-1	8.583690E-1	8.384459E-1	8.626310E-1	8.239613E-1	8.041934E-1	9.101659E-1	8.102738E-1	8.323669E-1	9.263140E-1	8.771050E-1	8.413414E-1	8.425330E-1	8.473428E-1	8.369696E-1	8.869920E-1	8.629485E-1	8.414581E-1	8.713585E-1	7.674549E-1	8.033700E-1	7.947589E-1	8.872529E-1	8.273424E-1	8.725548E-1	8.687086E-1	8.320629E-1	8.559407E-1	7.746008E-1	8.047428E-1	8.613612E-1	8.711635E-1	8.569211E-1	8.829618E-1	8.453226E-1	8.072956E-1	8.013642E-1	8.266278E-1	8.651347E-1	8.321936E-1	8.641278E-1	8.233104E-1	8.467670E-1	8.410455E-1	9.220174E-1	8.194231E-1	8.376585E-1	7.724548E-1	8.199027E-1	8.762494E-1	8.351047E-1	8.534038E-1	8.253167E-1	8.484050E-1	8.413071E-1	7.813213E-1	7.801815E-1	8.515736E-1	8.312011E-1	7.916500E-1	7.793833E-1	8.078998E-1	8.452074E-1	8.105719E-1	8.196195E-1	8.286953E-1	8.768523E-1	8.387882E-1	8.609722E-1	7.843266E-1	8.658781E-1	8.252794E-1	8.439022E-1	8.264001E-1	8.501879E-1	8.749371E-1	8.481619E-1	8.486955E-1	7.901388E-1	8.392961E-1	8.337255E-1	8.639742E-1	7.799257E-1	8.194489E-1	8.303269E-1	8.005785E-1	8.579328E-1	7.590593E-1	8.295312E-1	9.004170E-1	7.811433E-1
2.950100E+2	7.399628E-1	7.284664E-1	8.076940E-1	7.967652E-1	7.275864E-1	8.047209E-1	7.703711E-1	8.245347E-1	8.012551E-1	8.034794E-1	8.126708E-1	7.991385E-1	8.029371E-1	7.667655E-1	7.668533E-1	7.541593E-1	7.886317E-1	7.596242E-1	7.615336E-1	7.661958E-1	7.806704E-1	7.875137E-1	8.173864E-1	8.204242E-1	7.440759E-1	8.119173E-1	7.286535E-1	8.043576E-1	7.926145E-1	7.611796E-1	7.438123E-1	7.619106E-1	7.993127E-1	8.006964E-1	8.257271E-1	7.613035E-1	7.636073E-1	7.885473E-1	8.199021E-1	7.802303E-1	8.262080E-1	7.619572E-1	7.517569E-1	7.617495E-1	7.872733E-1	7.848539E-1	7.912820E-1	7.670590E-1	7.993533E-1	7.976680E-1	7.697478E-1	7.790834E-1	8.077368E-1	7.699572E-1	7.913800E-1	8.107164E-1	8.027961E-1	7.770411E-1	7.878564E-1	7.856080E-1	8.313729E-1	8.266740E-1	7.937081E-1	7.960572E-1	8.149849E-1	8.281195E-1	8.145231E-1	7.847742E-1	7.977999E-1	8.427038E-1	7.633880E-1	8.013456E-1	7.493746E-1	7.906359E-1	7.858160E-1	7.719656E-1	7.644389E-1	7.364154E-1	7.325669E-1	7.959732E-1	8.082145E-1	7.507419E-1	7.851157E-1	7.986097E-1	7.480274E-1	7.806243E-1	8.195524E-1	8.120794E-1	7.998598E-1	7.217618E-1	7.919913E-1	8.064508E-1	7.635363E-1	8.400143E-1	8.185329E-1	7.956631E-1	8.177011E-1	7.410243E-1	7.271541E-1	8.213166E-1	7.288034E-1	7.857902E-1	7.405941E-1	7.707100E-1	7.981720E-1	7.784546E-1	7.528189E-1	7.779627E-1	7.849260E-1	7.633562E-1	7.887452E-1	7.806512E-1	7.817815E-1	7.395332E-1	7.764084E-1	7.865923E-1	8.104561E-1	8.661481E-1	7.949543E-1	7.668132E-1	7.945667E-1	8.442303E-1	7.937603E-1	8.033092E-1	7.300811E-1	7.937241E-1	7.803123E-1	7.762039E-1	8.103353E-1	8.708214E-1	7.974965E-1	8.161406E-1	7.645404E-1	7.758246E-1	8.409003E-1	7.929664E-1	7.740323E-1	7.432818E-1	7.267595E-1	8.016348E-1	7.877649E-1	7.885886E-1	6.994676E-1	7.644456E-1	7.443338E-1	7.591077E-1	8.083050E-1	8.930603E-1	8.123969E-1	8.178513E-1	7.444003E-1	7.406080E-1	8.277629E-1	7.820665E-1	7.661888E-1	8.180605E-1	7.976579E-1	7.800830E-1	8.129897E-1	8.234213E-1	8.422860E-1	7.192411E-1	7.937291E-1	8.002187E-1	8.329091E-1	8.235887E-1	7.998538E-1	8.129768E-1	8.137077E-1	8.263030E-1
2.955070E+2	8.405599E-1	8.642372E-1	8.380744E-1	8.323502E-1	8.677424E-1	9.150524E-1	8.484068E-1	8.232564E-1	8.352305E-1	8.388133E-1	8.531400E-1	8.391405E-1	8.002660E-1	8.604176E-1	8.587281E-1	8.052210E-1	8.481138E-1	8.384011E-1	8.977923E-1	8.503949E-1	8.302524E-1	8.696643E-1	8.585501E-1	7.939615E-1	8.558650E-1	8.691380E-1	9.020572E-1	8.441782E-1	8.720057E-1	8.768866E-1	8.717037E-1	8.691079E-1	8.565035E-1	8.368693E-1	8.649607E-1	8.732171E-1	8.756871E-1	8.218880E-1	8.852008E-1	8.496134E-1	8.695877E-1	8.910925E-1	7.969029E-1	7.843335E-1	8.561956E-1	8.571639E-1	8.147908E-1	8.478411E-1	8.508930E-1	8.329684E-1	8.758087E-1	8.699749E-1	8.251106E-1	8.842543E-1	8.477901E-1	8.207524E-1	8.693125E-1	9.016060E-1	8.522748E-1	9.376564E-1	8.910742E-1	8.901368E-1	8.739192E-1	8.375087E-1	8.960319E-1	8.821105E-1	8.911178E-1	8.767917E-1	8.268619E-1	8.593264E-1	8.727988E-1	8.830148E-1	8.425946E-1	8.287460E-1	7.951514E-1	8.269013E-1	8.267099E-1	8.495821E-1	8.639049E-1	8.530948E-1	9.183638E-1	8.223972E-1	8.984175E-1	8.519880E-1	8.856830E-1	9.081975E-1	8.836390E-1	8.905667E-1	8.281043E-1	8.531921E-1	8.478985E-1	8.605578E-1	8.816896E-1	8.643772E-1	8.712272E-1	8.708768E-1	8.280001E-1	8.828848E-1	8.841253E-1	8.061814E-1	9.104568E-1	8.463589E-1	8.175729E-1	8.838006E-1	9.043119E-1	9.060073E-1	9.054757E-1	8.774006E-1	8.512155E-1	8.476283E-1	8.708284E-1	8.572837E-1	8.911779E-1	8.747948E-1	8.365858E-1	8.902253E-1	8.935780E-1	8.405077E-1	8.874214E-1	8.583249E-1	8.464523E-1	8.631945E-1	8.230875E-1	8.761384E-1	8.237199E-1	8.419506E-1	8.757273E-1	8.492984E-1	8.593032E-1	8.906527E-1	8.651852E-1	9.078550E-1	9.073290E-1	8.210474E-1	8.820175E-1	8.302283E-1	7.788725E-1	8.941110E-1	8.673726E-1	8.219807E-1	8.873583E-1	8.758655E-1	8.927319E-1	8.430660E-1	8.566692E-1	8.320364E-1	8.525443E-1	8.922477E-1	8.670051E-1	8.718973E-1	8.551603E-1	8.626836E-1	8.289068E-1	8.793944E-1	8.097948E-1	8.121343E-1	8.283792E-1	8.268274E-1	8.868808E-1	8.336619E-1	9.786413E-1	8.719840E-1	8.815719E-1	8.564282E-1	8.612866E-1	8.347073E-1	8.612781E-1	9.673611E-1	8.832849E-1	8.226862E-1
2.960030E+2	8.788281E-1	8.925933E-1	8.629536E-1	9.815123E-1	9.183566E-1	9.475912E-1	8.356364E-1	9.130140E-1	8.520951E-1	9.188577E-1	9.028207E-1	9.146214E-1	9.823290E-1	8.516461E-1	9.586651E-1	8.859657E-1	9.024278E-1	8.873352E-1	9.333252E-1	8.888835E-1	9.147141E-1	9.512846E-1	9.291151E-1	9.315615E-1	9.219466E-1	8.467766E-1	9.358326E-1	9.007432E-1	8.840516E-1	9.249975E-1	9.554411E-1	9.586448E-1	9.080026E-1	9.088366E-1	9.246086E-1	9.724890E-1	9.390209E-1	9.379355E-1	9.304932E-1	9.130646E-1	9.203448E-1	9.246046E-1	8.689200E-1	8.826390E-1	8.287858E-1	9.043971E-1	9.614528E-1	8.705108E-1	8.952975E-1	9.414555E-1	9.606631E-1	9.526594E-1	9.765225E-1	9.138303E-1	8.590915E-1	9.161074E-1	8.865102E-1	9.239360E-1	9.309415E-1	9.153022E-1	9.288609E-1	9.313346E-1	9.271905E-1	8.953529E-1	9.270485E-1	9.393657E-1	8.548438E-1	1.001441E+0	8.882641E-1	9.139924E-1	9.807824E-1	9.616667E-1	9.369439E-1	9.480617E-1	8.701660E-1	9.568355E-1	9.500746E-1	9.256036E-1	9.394410E-1	8.770556E-1	8.847256E-1	8.806446E-1	9.639267E-1	9.562407E-1	8.951566E-1	9.409249E-1	9.650945E-1	9.568866E-1	9.043705E-1	8.284070E-1	9.288520E-1	9.352819E-1	8.678444E-1	9.284146E-1	9.727336E-1	9.487448E-1	9.117807E-1	9.509324E-1	8.966401E-1	9.611916E-1	9.102024E-1	9.650937E-1	9.578355E-1	9.526558E-1	9.121841E-1	9.724357E-1	9.255281E-1	9.215880E-1	9.124375E-1	9.336804E-1	9.201039E-1	9.190824E-1	9.203646E-1	8.801072E-1	8.924612E-1	9.531543E-1	9.293947E-1	9.969335E-1	9.346553E-1	9.274699E-1	8.843326E-1	8.747163E-1	9.266065E-1	1.000469E+0	9.560118E-1	8.571540E-1	9.326223E-1	9.466719E-1	9.551891E-1	9.316079E-1	9.034921E-1	9.420469E-1	9.341504E-1	9.130813E-1	9.362854E-1	9.525050E-1	9.524986E-1	8.925005E-1	9.029614E-1	9.698265E-1	8.527786E-1	9.522763E-1	9.272069E-1	9.170258E-1	8.830499E-1	8.741322E-1	9.233728E-1	9.623213E-1	9.539586E-1	8.908962E-1	9.137010E-1	9.658296E-1	8.996340E-1	9.254945E-1	9.526526E-1	9.684328E-1	9.198265E-1	9.273440E-1	9.426026E-1	9.835613E-1	9.166079E-1	9.381635E-1	9.544270E-1	9.824279E-1	9.442247E-1	9.265191E-1	9.209003E-1	9.865378E-1	9.399899E-1	9.119159E-1
2.965070E+2	8.192948E-1	8.311926E-1	9.082849E-1	8.429448E-1	9.065393E-1	8.521074E-1	8.180608E-1	9.196394E-1	8.171969E-1	8.511792E-1	8.028167E-1	9.117363E-1	9.255148E-1	8.259127E-1	8.377261E-1	8.457371E-1	8.547780E-1	8.528841E-1	8.822909E-1	8.496870E-1	8.312419E-1	8.779717E-1	7.990565E-1	8.444780E-1	8.829324E-1	8.156288E-1	8.947078E-1	8.414381E-1	8.861441E-1	8.806909E-1	7.835295E-1	7.997692E-1	8.603658E-1	8.665257E-1	8.555024E-1	8.716698E-1	8.849260E-1	8.080856E-1	8.223867E-1	8.128137E-1	8.917811E-1	8.492819E-1	8.617723E-1	7.986486E-1	8.654976E-1	8.334948E-1	8.097734E-1	8.710350E-1	8.374211E-1	9.009839E-1	8.486600E-1	8.630169E-1	8.957010E-1	8.112177E-1	8.344567E-1	8.299891E-1	8.487921E-1	8.019933E-1	8.536275E-1	8.965430E-1	8.321829E-1	8.302503E-1	7.966449E-1	8.527874E-1	8.725442E-1	8.696803E-1	8.780814E-1	8.378906E-1	8.438602E-1	8.659323E-1	8.756745E-1	8.576498E-1	8.551690E-1	8.441665E-1	8.772004E-1	9.028143E-1	8.464749E-1	8.374558E-1	8.756152E-1	8.843668E-1	8.602644E-1	8.342870E-1	8.776568E-1	8.460141E-1	8.549527E-1	8.650079E-1	8.865004E-1	8.421166E-1	8.162793E-1	8.334269E-1	8.638046E-1	8.737004E-1	8.663046E-1	8.914932E-1	8.487200E-1	8.567249E-1	8.736955E-1	8.362965E-1	8.261714E-1	8.793108E-1	8.010844E-1	8.653650E-1	8.711923E-1	8.893187E-1	8.806413E-1	8.501576E-1	8.431628E-1	8.375687E-1	8.474044E-1	8.546960E-1	8.197603E-1	8.564495E-1	8.882237E-1	8.681367E-1	8.640051E-1	8.914441E-1	8.606495E-1	9.049937E-1	8.072456E-1	8.375700E-1	8.440001E-1	8.579840E-1	8.149210E-1	9.292106E-1	8.226001E-1	8.713145E-1	8.256279E-1	8.598267E-1	8.979186E-1	8.390323E-1	8.706130E-1	8.115891E-1	8.277805E-1	8.168740E-1	9.029657E-1	9.230333E-1	8.322723E-1	8.348731E-1	8.788661E-1	8.916348E-1	8.782775E-1	8.739755E-1	8.536100E-1	8.531929E-1	8.935094E-1	8.304894E-1	8.569092E-1	9.457094E-1	8.045447E-1	9.048858E-1	8.548822E-1	8.432676E-1	8.420067E-1	8.674072E-1	8.769161E-1	8.390419E-1	9.059441E-1	8.764509E-1	9.037291E-1	9.243207E-1	8.407604E-1	8.730076E-1	8.452650E-1	8.802548E-1	8.570917E-1	8.932378E-1	8.078083E-1	8.805669E-1	8.719892E-1	8.852133E-1
2.970060E+2	9.499864E-1	8.947322E-1	9.273025E-1	9.925631E-1	1.015131E+0	9.631127E-1	1.009265E+0	9.822804E-1	9.497733E-1	9.660027E-1	9.814944E-1	9.973535E-1	9.358941E-1	9.737991E-1	9.694670E-1	9.828769E-1	9.576745E-1	9.965203E-1	9.261073E-1	1.016350E+0	9.352875E-1	9.608212E-1	9.386122E-1	9.506934E-1	9.842590E-1	9.056392E-1	1.002808E+0	9.944166E-1	9.331809E-1	9.822587E-1	9.529964E-1	9.409682E-1	9.186288E-1	1.012656E+0	9.716173E-1	9.557502E-1	9.933557E-1	9.075300E-1	9.582551E-1	1.006807E+0	1.015665E+0	9.459826E-1	9.833996E-1	9.531421E-1	9.838049E-1	9.116667E-1	9.894375E-1	9.045558E-1	9.990071E-1	1.066357E+0	9.902401E-1	9.134282E-1	9.786436E-1	9.972322E-1	9.399057E-1	9.601406E-1	9.311412E-1	9.690799E-1	9.832957E-1	9.671847E-1	9.812555E-1	9.704598E-1	9.463445E-1	9.557667E-1	9.370815E-1	9.641413E-1	9.609611E-1	1.052646E+0	9.581953E-1	9.444130E-1	1.043867E+0	8.960290E-1	9.691561E-1	9.640905E-1	9.611403E-1	9.748203E-1	9.622209E-1	9.799677E-1	1.036895E+0	9.388623E-1	9.813468E-1	9.638035E-1	9.839829E-1	9.951908E-1	9.504456E-1	9.796483E-1	9.685699E-1	9.304022E-1	9.221642E-1	9.666899E-1	9.509437E-1	9.975807E-1	1.009925E+0	9.822576E-1	9.906872E-1	1.003022E+0	9.512472E-1	9.148629E-1	9.902441E-1	9.542213E-1	9.711411E-1	9.416541E-1	9.739585E-1	9.985977E-1	9.878874E-1	9.299996E-1	9.491286E-1	1.011427E+0	9.967168E-1	9.641240E-1	9.315121E-1	9.012799E-1	9.271961E-1	9.164535E-1	9.897353E-1	9.695118E-1	9.371992E-1	9.245793E-1	9.360732E-1	9.179336E-1	9.075935E-1	1.007581E+0	9.430445E-1	9.988172E-1	9.210578E-1	9.822022E-1	9.829716E-1	9.741098E-1	1.001405E+0	9.597393E-1	9.520108E-1	1.002920E+0	9.620402E-1	9.522422E-1	9.407838E-1	9.812972E-1	9.438239E-1	9.441222E-1	9.512032E-1	9.501054E-1	1.013645E+0	9.476380E-1	9.566704E-1	8.918405E-1	9.597531E-1	9.393152E-1	9.837504E-1	9.841679E-1	9.008973E-1	9.758659E-1	9.727831E-1	1.041067E+0	9.696772E-1	9.715411E-1	1.006788E+0	9.148332E-1	1.032999E+0	9.731993E-1	9.289448E-1	9.936840E-1	9.584111E-1	9.475587E-1	9.572284E-1	8.903747E-1	1.005145E+0	9.500399E-1	9.433226E-1	9.399589E-1	1.018874E+0	9.523375E-1
2.975020E+2	1.073505E+0	1.073564E+0	1.074704E+0	1.074400E+0	1.052433E+0	1.058001E+0	1.077071E+0	1.090794E+0	1.053045E+0	1.059678E+0	1.071586E+0	1.064941E+0	1.082993E+0	1.067982E+0	1.048156E+0	1.074943E+0	1.035534E+0	1.062022E+0	1.094972E+0	1.112587E+0	1.063546E+0	1.041910E+0	1.101017E+0	1.068142E+0	1.116736E+0	1.089120E+0	1.068234E+0	1.110230E+0	1.087379E+0	1.051886E+0	1.095162E+0	1.109238E+0	1.098378E+0	1.051218E+0	1.049344E+0	1.042574E+0	1.077631E+0	1.124835E+0	1.037803E+0	1.098873E+0	1.080958E+0	1.071659E+0	1.050406E+0	1.118446E+0	1.112085E+0	1.091868E+0	1.066327E+0	1.083440E+0	1.066222E+0	1.073049E+0	1.056509E+0	1.044663E+0	1.090045E+0	1.091552E+0	1.036305E+0	1.099209E+0	1.070925E+0	1.025261E+0	1.083041E+0	1.100974E+0	1.077193E+0	1.104732E+0	1.020325E+0	1.095390E+0	1.042591E+0	1.108545E+0	1.062723E+0	1.058857E+0	1.086171E+0	1.088120E+0	1.087316E+0	1.096713E+0	1.056258E+0	1.032345E+0	1.058443E+0	1.059130E+0	1.050279E+0	1.020921E+0	1.053712E+0	1.078370E+0	1.069148E+0	1.130037E+0	1.021533E+0	1.132771E+0	1.075532E+0	1.126650E+0	1.099044E+0	1.085942E+0	1.083922E+0	1.066913E+0	1.164791E+0	1.065966E+0	1.057706E+0	9.842248E-1	1.080302E+0	1.066700E+0	1.042476E+0	1.069147E+0	1.059641E+0	1.081289E+0	1.067482E+0	1.094139E+0	1.054958E+0	1.066602E+0	1.106764E+0	1.074288E+0	1.033820E+0	1.115062E+0	1.126708E+0	1.114871E+0	1.089673E+0	1.085621E+0	1.070688E+0	1.058684E+0	1.034224E+0	1.073837E+0	1.093075E+0	1.088766E+0	1.056973E+0	1.089089E+0	1.037063E+0	1.077201E+0	1.080985E+0	1.075034E+0	9.817159E-1	1.048170E+0	1.083264E+0	1.085288E+0	1.067704E+0	1.050656E+0	1.058894E+0	1.079453E+0	1.095495E+0	1.084718E+0	1.057681E+0	1.037574E+0	1.067992E+0	1.042594E+0	1.039509E+0	1.083391E+0	1.069756E+0	1.057346E+0	1.032425E+0	1.048987E+0	1.042216E+0	1.082017E+0	1.064051E+0	1.065634E+0	1.067148E+0	1.077197E+0	1.096814E+0	1.038530E+0	1.087981E+0	1.063182E+0	1.070957E+0	1.074230E+0	1.082015E+0	1.073133E+0	1.061604E+0	1.076116E+0	1.015234E+0	1.098867E+0	1.098175E+0	1.044824E+0	1.048720E+0	1.063285E+0	1.020436E+0	1.013461E+0	1.056696E+0	1.065808E+0
2.980040E+2	1.146566E+0	1.094247E+0	1.167185E+0	1.093747E+0	1.101640E+0	1.162953E+0	1.128123E+0	1.088163E+0	1.161278E+0	1.157266E+0	1.057699E+0	1.132816E+0	1.091471E+0	1.115067E+0	1.148045E+0	1.096860E+0	1.092289E+0	1.119669E+0	1.114622E+0	1.125784E+0	1.121385E+0	1.164842E+0	1.100395E+0	1.145588E+0	1.090790E+0	1.138096E+0	1.071968E+0	1.087430E+0	1.109846E+0	1.127789E+0	1.127470E+0	1.066961E+0	1.060958E+0	1.150936E+0	1.083553E+0	1.151994E+0	1.072807E+0	1.124214E+0	1.154959E+0	1.140358E+0	1.152941E+0	1.147106E+0	1.109640E+0	1.112746E+0	1.103986E+0	1.121874E+0	1.132813E+0	1.128721E+0	1.144969E+0	1.119467E+0	1.079305E+0	1.073347E+0	1.113494E+0	1.066986E+0	1.130064E+0	1.089364E+0	1.158173E+0	1.212608E+0	1.160983E+0	1.107481E+0	1.122560E+0	1.096370E+0	1.111593E+0	1.102177E+0	1.080491E+0	1.129905E+0	1.115518E+0	1.125051E+0	1.126704E+0	1.175966E+0	1.157732E+0	1.162671E+0	1.073277E+0	1.168860E+0	1.122710E+0	1.137574E+0	1.137795E+0	1.191230E+0	1.131983E+0	1.141792E+0	1.138294E+0	1.093113E+0	1.160328E+0	1.114523E+0	1.081046E+0	1.109985E+0	1.140655E+0	1.112255E+0	1.100782E+0	1.146158E+0	1.172670E+0	1.170530E+0	1.062823E+0	1.134615E+0	1.128096E+0	1.086960E+0	1.107233E+0	1.105692E+0	1.134710E+0	1.081395E+0	1.061705E+0	1.085358E+0	1.074245E+0	1.117171E+0	1.112436E+0	1.145199E+0	1.116199E+0	1.086405E+0	1.121602E+0	1.192114E+0	1.154089E+0	1.155863E+0	1.056880E+0	1.094749E+0	1.114349E+0	1.096405E+0	1.105228E+0	1.121127E+0	1.089223E+0	1.157195E+0	1.148336E+0	1.146296E+0	1.164140E+0	1.133087E+0	1.121874E+0	1.143573E+0	1.125688E+0	1.154165E+0	1.163695E+0	1.134944E+0	1.118267E+0	1.072298E+0	1.086248E+0	1.095525E+0	1.146348E+0	1.108820E+0	1.130931E+0	1.172277E+0	1.151941E+0	1.096623E+0	1.099574E+0	1.162563E+0	1.119612E+0	1.119432E+0	1.143157E+0	1.091700E+0	1.187163E+0	1.112443E+0	1.054350E+0	1.100709E+0	1.099677E+0	1.138878E+0	1.056350E+0	1.153213E+0	1.115713E+0	1.152815E+0	1.162072E+0	1.104355E+0	1.136572E+0	1.127265E+0	1.141043E+0	1.126260E+0	1.146440E+0	1.081514E+0	1.155789E+0	1.085625E+0	1.118228E+0	1.205488E+0	1.150809E+0	1.093243E+0
2.985020E+2	1.074938E+0	1.125676E+0	1.140086E+0	1.127292E+0	1.095491E+0	1.113538E+0	1.122083E+0	1.101725E+0	1.084472E+0	1.087781E+0	1.131702E+0	1.097454E+0	1.097837E+0	1.125211E+0	1.112379E+0	1.075503E+0	1.126117E+0	1.127390E+0	1.071866E+0	1.116765E+0	1.067244E+0	1.057881E+0	1.085911E+0	1.089081E+0	1.144636E+0	1.117459E+0	1.135342E+0	1.081126E+0	1.080475E+0	1.095301E+0	1.115354E+0	1.098910E+0	1.130426E+0	1.160686E+0	1.073973E+0	1.097163E+0	1.116307E+0	1.172142E+0	1.074154E+0	1.070103E+0	1.088969E+0	1.082779E+0	1.082663E+0	1.121159E+0	1.067735E+0	1.115367E+0	1.082161E+0	1.098868E+0	1.089455E+0	1.079779E+0	1.129925E+0	1.122293E+0	1.130426E+0	1.126374E+0	1.105146E+0	1.081418E+0	1.088820E+0	1.115116E+0	1.083808E+0	1.127346E+0	1.095417E+0	1.108756E+0	1.130910E+0	1.151593E+0	1.118621E+0	1.058334E+0	1.119435E+0	1.137910E+0	1.134834E+0	1.116806E+0	1.075256E+0	1.063153E+0	1.154174E+0	1.135333E+0	1.074489E+0	1.142415E+0	1.083042E+0	1.088848E+0	1.104118E+0	1.070146E+0	1.140244E+0	1.096923E+0	1.061693E+0	1.091749E+0	1.114798E+0	1.112355E+0	1.091416E+0	1.110922E+0	1.099710E+0	1.084581E+0	1.051443E+0	1.085140E+0	1.135883E+0	1.141000E+0	1.053972E+0	1.140845E+0	1.153847E+0	1.074581E+0	1.091691E+0	1.115373E+0	1.108429E+0	1.158564E+0	1.151725E+0	1.187975E+0	1.102302E+0	1.091171E+0	1.082448E+0	1.137904E+0	1.023441E+0	1.042896E+0	1.044840E+0	1.083454E+0	1.185075E+0	1.151961E+0	1.087344E+0	1.108433E+0	1.132504E+0	1.067336E+0	1.122754E+0	1.017260E+0	1.092142E+0	1.091996E+0	1.065057E+0	1.104392E+0	1.099010E+0	1.130056E+0	1.136164E+0	1.078016E+0	1.099234E+0	1.110316E+0	1.085082E+0	1.122382E+0	1.185544E+0	1.111679E+0	1.072459E+0	1.122821E+0	1.091877E+0	1.069096E+0	1.100093E+0	1.090150E+0	1.085796E+0	1.098960E+0	1.123812E+0	1.062583E+0	1.112063E+0	1.133600E+0	1.097586E+0	1.046971E+0	1.156097E+0	1.109791E+0	1.115428E+0	1.154917E+0	1.167625E+0	1.112949E+0	1.101955E+0	1.100582E+0	1.098875E+0	1.136220E+0	1.146244E+0	1.124199E+0	1.112571E+0	1.122233E+0	1.100167E+0	1.169557E+0	1.084559E+0	1.090156E+0	1.133802E+0	1.163928E+0	1.110812E+0	1.123557E+0
2.990020E+2	1.082185E+0	1.044073E+0	1.003205E+0	1.059591E+0	1.029119E+0	1.002283E+0	9.905403E-1	1.042457E+0	1.019686E+0	1.002002E+0	1.080671E+0	1.068004E+0	1.050663E+0	1.031805E+0	1.015787E+0	1.038788E+0	1.030103E+0	1.031034E+0	1.031569E+0	1.021954E+0	1.106800E+0	1.073441E+0	1.076669E+0	1.036098E+0	1.027937E+0	9.895239E-1	9.920457E-1	1.044352E+0	1.046774E+0	1.082124E+0	1.019405E+0	1.049363E+0	1.047264E+0	1.004779E+0	1.083804E+0	1.042113E+0	1.068923E+0	9.676062E-1	9.930467E-1	1.033530E+0	1.053181E+0	1.035518E+0	1.059369E+0	9.851468E-1	1.082076E+0	1.096072E+0	1.071699E+0	1.026080E+0	1.069359E+0	1.062452E+0	1.054632E+0	1.072883E+0	1.054891E+0	1.052943E+0	1.043712E+0	1.013238E+0	1.049609E+0	1.028202E+0	9.911537E-1	1.043486E+0	1.036801E+0	1.066203E+0	1.101904E+0	1.016301E+0	1.094742E+0	1.079626E+0	1.039347E+0	1.022827E+0	1.004576E+0	9.724545E-1	9.761306E-1	1.018391E+0	9.897154E-1	1.042989E+0	1.083262E+0	9.987553E-1	1.055432E+0	1.072266E+0	1.045531E+0	1.040442E+0	1.031586E+0	1.040357E+0	1.062397E+0	1.044652E+0	1.045830E+0	1.005897E+0	9.770439E-1	1.040754E+0	1.046159E+0	1.040672E+0	1.008877E+0	1.085840E+0	1.104368E+0	1.045777E+0	1.030537E+0	1.029451E+0	1.079806E+0	1.071963E+0	1.046586E+0	1.022176E+0	1.107045E+0	1.035059E+0	1.008612E+0	9.958751E-1	1.011053E+0	1.001417E+0	1.078111E+0	1.038227E+0	1.042993E+0	1.078261E+0	1.031041E+0	9.850652E-1	9.978049E-1	1.041782E+0	1.054796E+0	1.050898E+0	1.027432E+0	1.024590E+0	1.019661E+0	1.065277E+0	1.033872E+0	1.039740E+0	1.029253E+0	1.020436E+0	1.125669E+0	1.044506E+0	1.001981E+0	9.881510E-1	1.060422E+0	1.062916E+0	1.017854E+0	1.052481E+0	1.033151E+0	1.074303E+0	1.063694E+0	1.074151E+0	1.023306E+0	1.082727E+0	1.087088E+0	1.060449E+0	1.036409E+0	1.056050E+0	1.009023E+0	1.054750E+0	1.025818E+0	1.015564E+0	9.956318E-1	1.040294E+0	1.045160E+0	1.041120E+0	1.059660E+0	1.076899E+0	1.063647E+0	1.004136E+0	1.051974E+0	1.035003E+0	1.036942E+0	1.033878E+0	1.032999E+0	1.016269E+0	1.014944E+0	1.017628E+0	1.000940E+0	1.045236E+0	1.032640E+0	1.058783E+0	1.051341E+0	9.303199E-1	1.016927E+0	1.034878E+0
2.995040E+2	8.229875E-1	7.941418E-1	7.688311E-1	8.206544E-1	8.553212E-1	8.137516E-1	8.237429E-1	8.530129E-1	8.370568E-1	7.748092E-1	8.373197E-1	8.129387E-1	8.122723E-1	8.361764E-1	8.653257E-1	8.565181E-1	8.222094E-1	8.228482E-1	8.060038E-1	8.377363E-1	8.079231E-1	8.179709E-1	8.064168E-1	8.206124E-1	7.888747E-1	8.356789E-1	8.601210E-1	8.112356E-1	8.322715E-1	8.078286E-1	8.157501E-1	8.509489E-1	8.202134E-1	8.056929E-1	8.411318E-1	8.182561E-1	7.821583E-1	7.500647E-1	8.616856E-1	8.245088E-1	7.730940E-1	7.920789E-1	8.359141E-1	8.252888E-1	8.230646E-1	7.765312E-1	7.879186E-1	8.221327E-1	7.983124E-1	7.617206E-1	7.946142E-1	8.397171E-1	7.930802E-1	7.874407E-1	8.471270E-1	8.794390E-1	7.930763E-1	7.678822E-1	8.155483E-1	7.659305E-1	8.393018E-1	8.263643E-1	8.124574E-1	8.263601E-1	8.226838E-1	8.258623E-1	8.058680E-1	8.111969E-1	8.219827E-1	8.217831E-1	8.145210E-1	7.918977E-1	8.056723E-1	8.065790E-1	8.310977E-1	8.083851E-1	8.073999E-1	8.008605E-1	8.067839E-1	8.580284E-1	8.010951E-1	7.936124E-1	8.165349E-1	7.670615E-1	8.134270E-1	8.004107E-1	8.478873E-1	7.712485E-1	8.255702E-1	8.568471E-1	8.069446E-1	7.686999E-1	7.733311E-1	8.348390E-1	8.321151E-1	8.309794E-1	8.146236E-1	8.249694E-1	8.244577E-1	8.374264E-1	8.004867E-1	7.852657E-1	8.394251E-1	7.874313E-1	8.212264E-1	7.998032E-1	8.333370E-1	8.171606E-1	8.251973E-1	7.566576E-1	8.257346E-1	8.147366E-1	8.172012E-1	8.126426E-1	8.429958E-1	8.239586E-1	7.950999E-1	8.746529E-1	8.305927E-1	8.203923E-1	8.223594E-1	8.353748E-1	8.169917E-1	7.908405E-1	8.304381E-1	8.003811E-1	7.997362E-1	8.040930E-1	7.760897E-1	8.097058E-1	8.390132E-1	8.445889E-1	7.895643E-1	8.065114E-1	7.972737E-1	8.300067E-1	8.014602E-1	8.056902E-1	7.807563E-1	8.445718E-1	8.406970E-1	7.852505E-1	8.355748E-1	8.495896E-1	8.098338E-1	8.163380E-1	7.991717E-1	8.439343E-1	8.488386E-1	7.719879E-1	8.181757E-1	7.828676E-1	7.781886E-1	8.002183E-1	8.181667E-1	7.960048E-1	8.044240E-1	8.023530E-1	7.577959E-1	7.981003E-1	8.484126E-1	8.208349E-1	7.955395E-1	8.236391E-1	8.468928E-1	8.553229E-1	8.077440E-1	7.860816E-1	7.977705E-1	8.618092E-1
3.000080E+2	7.998183E-1	8.682987E-1	8.459886E-1	8.243147E-1	8.659952E-1	8.494737E-1	8.584396E-1	8.238484E-1	8.444619E-1	9.184635E-1	8.210220E-1	8.238470E-1	8.647641E-1	8.237576E-1	8.103075E-1	8.573873E-1	8.937473E-1	8.370363E-1	8.809681E-1	7.851734E-1	8.331020E-1	8.439548E-1	8.295913E-1	8.404783E-1	8.310268E-1	8.301219E-1	8.722902E-1	8.656264E-1	8.432536E-1	8.350717E-1	8.268597E-1	8.245786E-1	8.427593E-1	8.266876E-1	8.681945E-1	8.478998E-1	8.821737E-1	8.611385E-1	8.783518E-1	8.326277E-1	8.508574E-1	8.708583E-1	8.620078E-1	8.372132E-1	8.110533E-1	7.982880E-1	8.590811E-1	8.407579E-1	8.316817E-1	9.035328E-1	8.850150E-1	8.470967E-1	8.180640E-1	8.747044E-1	8.376462E-1	8.373328E-1	8.393958E-1	8.509309E-1	8.654653E-1	8.547827E-1	8.287280E-1	7.975760E-1	8.228107E-1	8.081782E-1	8.408718E-1	7.977273E-1	8.571079E-1	8.441588E-1	8.257326E-1	8.248706E-1	8.890443E-1	8.671743E-1	9.209033E-1	8.138945E-1	8.299974E-1	8.537409E-1	8.660509E-1	8.258749E-1	8.578715E-1	8.112209E-1	8.196332E-1	8.459577E-1	8.775132E-1	8.492432E-1	8.693667E-1	8.447025E-1	8.439549E-1	8.788773E-1	8.438562E-1	8.048290E-1	7.952732E-1	8.238244E-1	8.658892E-1	8.595432E-1	8.749778E-1	8.450646E-1	8.020149E-1	8.536472E-1	8.429139E-1	8.623404E-1	8.548529E-1	8.416141E-1	8.710349E-1	8.449459E-1	8.462182E-1	8.881208E-1	8.560851E-1	8.052416E-1	8.600590E-1	8.152003E-1	8.546235E-1	8.752595E-1	8.723518E-1	8.401814E-1	8.662919E-1	8.464687E-1	8.466611E-1	8.235291E-1	8.807968E-1	8.507863E-1	8.662277E-1	8.093923E-1	8.435736E-1	8.762094E-1	8.412921E-1	8.333138E-1	8.531674E-1	8.902883E-1	8.328561E-1	8.314633E-1	8.808899E-1	8.287964E-1	8.099984E-1	8.272633E-1	8.625436E-1	8.266268E-1	8.844344E-1	8.276150E-1	8.406135E-1	8.248149E-1	8.677680E-1	8.398311E-1	8.795534E-1	8.646581E-1	8.669129E-1	8.607798E-1	8.563961E-1	8.907238E-1	8.284061E-1	8.991955E-1	8.102455E-1	8.079084E-1	8.462092E-1	8.663028E-1	8.412338E-1	8.413657E-1	8.156725E-1	8.500606E-1	8.647856E-1	8.580503E-1	8.677954E-1	8.141777E-1	8.587389E-1	8.352303E-1	8.313986E-1	8.468278E-1	8.684492E-1	9.007217E-1	8.669861E-1	8.207047E-1
