Photon Energy (eV)	#1	#2	#3	#4	#5	#6	#7	#8	#9	#10	#11	#12	#13	#14	#15	#16	#17	#18	#19	#20	#21	#22	#23	#24	#25	#26	#27	#28	#29	#30	#31	#32	#33	#34	#35	#36	#37	#38	#39	#40	#41	#42	#43	#44	#45	#46	#47	#48	#49	#50	#51	#52	#53	#54	#55	#56	#57	#58	#59	#60	#61	#62	#63	#64	#65	#66	#67	#68	#69	#70	#71	#72	#73	#74	#75	#76	#77	#78	#79	#80	#81	#82	#83	#84	#85	#86	#87	#88	#89	#90	#91	#92	#93	#94	#95	#96	#97	#98	#99	#100	#101	#102	#103	#104	#105	#106	#107	#108	#109	#110	#111	#112	#113	#114	#115	#116	#117	#118	#119	#120	#121	#122	#123	#124	#125	#126	#127	#128	#129	#130	#131	#132	#133	#134	#135	#136	#137	#138	#139	#140	#141	#142	#143	#144	#145	#146	#147	#148	#149	#150	#151	#152	#153	#154	#155	#156	#157	#158	#159	#160	#161	#162	#163	#164	#165	#166	
5.300320E+2	-1.037164E-2	-1.379010E-2	-3.367908E-3	-9.701237E-3	1.228630E-3	-3.304886E-3	-1.787598E-3	-1.218025E-2	-1.189647E-2	-1.287514E-2	-4.689041E-4	-1.154127E-2	-7.222503E-3	-8.057461E-3	-2.885071E-3	5.260297E-3	-1.274452E-2	-9.128920E-3	-2.237481E-3	1.139891E-2	-1.548119E-2	-1.175318E-2	-1.482472E-2	-6.816771E-4	-5.448119E-3	-3.894946E-3	-2.135095E-2	-1.469246E-2	-9.304779E-3	-1.015479E-3	-6.207526E-3	-1.597182E-2	-8.889290E-4	-1.551889E-2	-7.268657E-3	-1.588547E-2	-9.847737E-3	-7.173093E-3	-5.116563E-3	-2.973873E-3	-6.316755E-3	-1.336683E-2	-1.679592E-2	-1.012975E-2	-6.326258E-4	-5.968726E-3	-9.545940E-3	-1.124166E-2	2.305439E-3	-5.844332E-3	-1.368993E-3	-1.926291E-2	-6.103538E-3	-7.293678E-3	-7.512542E-3	-1.120446E-2	-2.459083E-3	-9.729819E-3	-1.357251E-2	-9.402311E-3	-1.521777E-2	-5.243982E-3	-6.977517E-3	-4.272189E-3	-1.225105E-2	-8.072046E-3	-3.937694E-3	-6.721096E-4	-9.910164E-3	-8.904170E-3	-7.882706E-4	-3.609350E-3	-6.357328E-3	-5.078981E-3	-1.379090E-2	1.480162E-4	-1.628146E-2	-4.937471E-3	-1.269150E-2	-1.640740E-2	-4.860005E-3	-1.289411E-2	-1.454002E-3	-8.918506E-3	-5.011556E-3	-1.144394E-2	-2.409848E-4	-9.872292E-3	-4.938957E-3	-6.518894E-3	-9.921481E-3	-5.086355E-3	-3.969919E-3	-1.305299E-2	-1.387146E-2	-1.005748E-2	-1.100211E-2	-1.217916E-3	1.125131E-3	-8.380859E-3	-5.234563E-3	-1.120402E-2	-7.454786E-3	-9.198125E-3	6.655652E-4	2.062196E-3	-6.777367E-3	-4.721565E-3	-1.330164E-3	-4.624943E-3	-1.026743E-2	-7.628699E-3	-2.796000E-3	-3.519750E-3	-9.691949E-3	-2.614265E-3	-1.571622E-2	-1.343204E-2	3.664265E-3	-3.351562E-3	-7.570721E-3	-3.163311E-4	-1.003060E-2	-6.551837E-4	3.789566E-4	-1.607936E-2	2.782464E-4	-6.141534E-3	3.560253E-3	-7.367673E-3	-1.176265E-2	-1.094667E-2	-3.420373E-3	-6.550141E-3	-7.876743E-3	8.167253E-4	-1.008110E-2	-1.323771E-2	-1.673184E-2	-5.938540E-3	1.051444E-3	-5.298298E-3	-7.142646E-3	-3.594313E-3	-3.037440E-3	-1.360432E-3	-6.721046E-3	7.239396E-4	-1.105994E-2	-4.152037E-3	-1.352729E-2	1.296091E-4	-6.545470E-3	-1.065385E-2	7.484029E-3	-1.090539E-2	-2.568969E-3	3.755749E-4	-3.202065E-3	-6.164737E-3	-7.104160E-3	-2.006276E-2	-1.503198E-2	-4.791766E-3	-7.355461E-3	-1.524666E-2
5.305030E+2	5.395467E-3	-4.537879E-3	-9.254377E-3	-1.382346E-3	-7.740901E-3	-7.748153E-3	-1.016077E-2	-6.811270E-3	-6.652261E-3	-5.147341E-3	-1.205864E-2	-1.715450E-2	-4.547821E-3	-1.057002E-3	-1.371822E-2	-1.722488E-2	-1.058571E-2	-2.476425E-3	-8.303911E-3	-1.167708E-2	-7.204678E-3	-6.315642E-3	-3.554864E-3	-5.838874E-3	-1.192725E-2	8.278775E-4	-7.424494E-3	-8.928890E-3	-1.569207E-2	-1.334724E-2	-1.181966E-2	-4.745511E-3	-1.814818E-2	-3.485187E-3	-2.735925E-3	-5.180200E-3	-8.504168E-3	8.442517E-5	-5.622480E-3	-1.334913E-2	-1.149362E-2	-6.027089E-3	-4.518160E-3	1.391965E-3	2.502752E-3	-1.120766E-2	-2.201980E-4	-8.500469E-3	-1.243095E-2	-1.151254E-2	-2.008913E-3	-8.476957E-3	-2.441097E-3	-4.905465E-3	-4.146908E-3	9.026246E-4	-1.076164E-2	-3.290098E-3	-5.812512E-3	-1.776915E-2	-1.001948E-2	-9.665261E-3	-1.346431E-2	-9.052300E-3	-1.874598E-3	-2.072729E-3	-1.000712E-2	-7.896107E-3	-1.046202E-2	-1.192147E-4	-1.165468E-2	-2.871656E-3	-7.971403E-3	-2.600336E-3	-4.948053E-3	-6.394962E-3	-1.075548E-2	-1.102552E-2	-9.518682E-3	-6.216881E-3	-7.675965E-3	-7.760867E-3	-7.316829E-3	-2.390687E-3	-9.872185E-4	-4.397062E-3	-7.245326E-3	-9.098339E-3	-4.855243E-3	-2.681207E-3	-6.221860E-3	-4.245128E-3	-3.237122E-3	-8.789587E-3	-3.532720E-3	-8.574047E-3	-1.166567E-2	-1.762738E-2	-4.803324E-3	-9.880916E-3	-7.199710E-3	-8.025754E-3	5.281868E-5	-4.494118E-3	-1.738582E-2	-8.066728E-3	-1.292988E-3	-5.401286E-3	1.914939E-3	-1.429023E-2	-8.486810E-3	-2.015622E-2	-1.275649E-2	-3.431024E-3	-6.395500E-3	-1.384633E-2	-6.724394E-3	-1.003160E-2	-1.125075E-2	-3.943760E-3	-8.193799E-3	-1.771295E-2	-5.049698E-3	-1.240900E-2	-1.052010E-2	-9.277289E-3	-1.339505E-2	-1.211963E-2	-1.511584E-2	-2.989848E-3	-1.375819E-2	-1.241810E-2	-7.303937E-3	-5.749058E-3	-1.312431E-2	-1.676090E-2	-6.827547E-3	-4.503605E-4	-7.275753E-3	-9.191320E-3	-1.413221E-2	-1.207357E-2	-3.389556E-3	-5.752940E-3	-1.242360E-3	-1.199648E-3	-1.393500E-2	-1.223342E-2	-8.912429E-3	-1.853287E-2	5.445221E-3	-8.868751E-3	-8.045445E-3	-1.212717E-2	-1.288310E-2	-1.855715E-2	-1.390924E-2	-1.064022E-2	1.083833E-2	-1.229023E-2	-9.914635E-3	-8.506573E-3	-1.265648E-2	2.984779E-3	-1.031855E-2	-4.486411E-3
5.310100E+2	-3.941398E-3	-5.271442E-3	-2.466488E-3	4.094870E-3	-1.069620E-2	-1.610986E-3	-3.689875E-3	4.075819E-3	-4.264998E-3	-5.730844E-3	-1.194237E-2	-9.971530E-3	-8.314662E-3	-7.308988E-3	-9.507666E-4	1.602867E-3	-6.667745E-4	-1.162790E-2	-4.714011E-3	2.413025E-6	4.413116E-3	-2.114178E-2	-4.703595E-3	-1.039809E-2	-1.180563E-2	-1.218084E-2	-5.889660E-3	-5.277132E-3	-2.364069E-4	-8.158452E-3	2.761345E-4	-1.975325E-2	-5.377187E-3	-5.114999E-4	4.995195E-3	-3.645096E-3	-1.095532E-2	-1.159185E-2	-8.095474E-3	9.052266E-4	-1.368500E-2	-2.302701E-3	-4.491631E-3	-1.282797E-2	-2.889198E-3	-2.185516E-3	-8.770499E-3	-7.093436E-3	-1.235632E-2	-1.337049E-2	3.035842E-4	-7.579692E-3	-7.366019E-3	3.830894E-3	5.378957E-4	-3.677139E-3	-2.705782E-6	-3.221669E-3	-4.324682E-3	-1.155937E-2	-8.667993E-3	-1.093249E-3	-8.123020E-4	-6.891978E-3	-1.100034E-3	-4.976678E-3	-1.061297E-2	-4.569765E-3	-9.748823E-3	-9.411459E-3	-5.752680E-3	-5.944373E-3	-1.044696E-2	-7.309775E-3	-1.508510E-2	-1.518222E-2	-2.478556E-3	-1.094816E-2	-5.096299E-3	-7.482723E-3	1.129815E-3	1.739029E-3	-8.555420E-3	1.245975E-4	-8.751205E-3	-5.706556E-3	-3.263507E-3	-2.786786E-3	-6.998624E-3	-4.837309E-3	-2.509783E-3	-8.775839E-3	-6.978670E-3	-3.144433E-4	-9.482249E-3	2.110872E-3	-1.084384E-2	-7.216672E-3	-6.724762E-3	-9.018057E-3	-7.794873E-3	1.370408E-3	2.632292E-3	-8.351730E-3	-2.169350E-3	-7.972810E-3	-8.628652E-3	-2.225117E-2	-1.560884E-2	-8.090236E-3	-1.289113E-2	-1.839539E-3	1.003512E-3	-1.315996E-2	-6.297613E-3	-1.296048E-2	3.687770E-3	-5.276424E-3	-3.958629E-3	-9.316435E-3	-3.869250E-3	-8.881949E-3	-3.536775E-3	-6.382812E-3	-1.366378E-2	-4.886609E-3	-8.291749E-3	-1.405070E-2	-5.288718E-3	4.297699E-3	-4.679791E-3	-1.468247E-3	-9.187858E-3	-9.930696E-3	-7.684470E-3	-4.656867E-3	-5.931497E-3	-2.733432E-3	-1.062914E-2	-2.796007E-3	-8.036119E-3	-9.469910E-3	9.007702E-4	-8.950081E-3	-1.552641E-2	-1.360104E-2	-3.915586E-3	-9.775795E-3	-6.767707E-3	-1.808770E-3	-1.540704E-2	-1.089883E-2	-1.193900E-2	-1.013495E-3	-3.423357E-3	-4.337491E-3	-4.360849E-3	-6.589970E-3	-1.124192E-2	4.323077E-3	-4.682139E-3	-1.757705E-3	3.842407E-3	-6.726255E-3	-1.479837E-2	-1.235046E-2
5.315130E+2	-1.467359E-3	-1.276783E-2	-7.599242E-3	-4.205202E-3	3.939994E-3	6.818935E-3	7.102888E-3	-6.526691E-3	-4.273515E-4	-2.834053E-3	5.370075E-4	-2.054935E-3	-1.772292E-3	7.218299E-3	-4.868348E-3	-2.813278E-3	8.835808E-4	-8.522770E-4	-1.143916E-2	-1.074279E-2	-3.744683E-3	2.269677E-3	-8.320046E-3	-2.437045E-3	-7.334104E-3	-5.542669E-3	8.164520E-3	1.132496E-2	-4.900033E-3	-1.231306E-3	-8.652801E-4	-1.823288E-3	4.089253E-3	3.130604E-3	-3.201222E-3	-1.340582E-3	2.269282E-3	-7.595621E-3	-7.402069E-3	-6.413496E-3	7.290791E-4	1.434920E-3	1.674501E-3	-4.138748E-3	-3.535368E-4	-9.238822E-3	1.824675E-3	-1.673755E-3	-3.773350E-3	-1.008036E-2	-1.348734E-2	-3.455037E-3	2.020632E-3	-7.037013E-3	1.954806E-3	-6.257676E-3	-4.512607E-3	1.038435E-3	-1.438553E-3	-7.635236E-3	4.005800E-4	1.405894E-4	2.287303E-3	-8.207656E-3	-2.389420E-3	-7.109994E-3	-7.097115E-3	-4.487855E-3	-1.400856E-3	-9.330288E-3	6.004956E-3	5.189683E-4	-1.004032E-3	-8.024732E-3	-5.605084E-3	-4.744267E-3	-3.751649E-3	-8.109616E-3	-3.384376E-5	-1.213991E-2	-8.239751E-3	-9.781395E-3	-1.819067E-3	-4.637101E-3	-9.315758E-3	-1.422492E-3	-5.108405E-3	6.325280E-3	-4.687327E-3	5.254506E-4	-4.591705E-3	-1.777789E-3	-6.889328E-3	-1.101272E-2	-5.149174E-3	-5.587183E-3	-6.299767E-3	-9.096983E-4	-1.537528E-2	-1.832642E-3	-3.568277E-3	-4.105733E-3	-3.613936E-4	-6.269552E-3	-1.315370E-3	-4.209866E-3	-1.125085E-2	1.735401E-3	-1.868172E-2	-6.374163E-4	7.725641E-4	5.300505E-3	-6.091196E-3	-3.935345E-3	2.836436E-3	-3.150515E-3	-5.823074E-3	1.495931E-3	-7.787988E-3	3.829961E-4	-1.013800E-2	-4.804940E-3	-6.935630E-3	-6.282794E-3	7.926462E-5	-9.697962E-3	-1.385578E-2	-3.798293E-3	3.182019E-3	-7.093040E-3	5.818418E-3	-1.690237E-2	-1.174832E-2	-9.118775E-3	-2.894224E-3	-5.819979E-3	-1.141594E-2	-9.817551E-3	5.371976E-3	-3.402053E-3	1.426487E-3	-1.816365E-3	-1.212405E-2	-6.867901E-3	-5.827868E-3	-8.651072E-3	3.490182E-3	3.793735E-3	-1.192126E-3	-7.255680E-3	1.878330E-3	-3.656743E-3	-2.289907E-3	5.405972E-3	-4.017133E-3	-1.888031E-3	-6.285147E-3	-5.173294E-3	-4.036895E-3	-1.931467E-3	-3.858876E-3	8.266375E-4	-9.029727E-3	-6.628349E-3	1.296344E-2	1.455864E-2
5.320170E+2	-2.190773E-3	6.685709E-3	8.171794E-3	-7.185512E-3	-8.994365E-3	-7.509218E-3	-5.560788E-3	-3.530987E-3	-8.540405E-3	-6.388984E-4	-1.140856E-5	1.440946E-2	-4.245242E-3	-1.058522E-2	1.575304E-3	-4.645723E-3	-6.044155E-3	-7.626578E-4	-3.129724E-3	-6.794927E-3	-1.724530E-3	-4.238081E-3	1.369418E-2	-3.641260E-3	1.251537E-2	-8.715539E-4	6.173159E-3	9.304368E-3	-3.040333E-3	7.998006E-3	-4.610179E-3	1.419167E-2	2.191766E-3	2.525146E-3	2.001869E-3	1.884777E-3	4.848595E-3	4.939562E-3	2.185606E-4	1.764850E-3	1.367461E-2	9.569987E-3	-4.341434E-3	3.885655E-3	-2.708981E-3	4.270814E-4	-1.794740E-3	8.459698E-3	2.003039E-3	1.002431E-2	-2.649555E-3	-6.672857E-3	-4.353415E-3	-3.471315E-3	-9.134276E-3	9.950387E-3	-5.789100E-4	3.984350E-3	7.739000E-4	1.018417E-2	5.193344E-4	5.363742E-3	5.938752E-4	3.756401E-3	-2.299558E-3	9.899753E-3	8.141966E-3	-1.142244E-3	-2.761220E-5	8.252186E-3	4.823401E-3	-6.464215E-4	5.096926E-3	-8.744572E-3	3.941168E-3	-1.944328E-4	1.074665E-2	3.026376E-3	5.670770E-3	2.865851E-3	-8.578005E-4	-4.614279E-3	7.608669E-3	-2.120675E-3	-1.326695E-3	7.202437E-5	3.441541E-3	1.686225E-2	4.334207E-3	6.658229E-3	-3.769927E-3	-3.235406E-3	9.098732E-4	9.526372E-3	4.132588E-4	5.853080E-3	4.957978E-3	2.652369E-3	1.525667E-3	1.419473E-3	-1.037298E-2	-4.629454E-3	-4.615843E-3	1.787402E-3	4.857155E-3	-5.580773E-3	3.708770E-4	-3.572142E-3	1.301631E-2	4.381782E-3	-3.072919E-3	6.821393E-3	-9.414276E-4	-3.845284E-3	-2.224812E-3	-3.879072E-3	-2.059896E-4	4.950429E-3	-4.411530E-3	-4.327121E-3	4.826531E-3	7.374937E-5	5.822850E-3	-4.703769E-3	-1.115199E-3	2.434489E-4	7.643942E-3	7.161475E-3	-7.208011E-3	-4.125271E-3	1.071725E-3	-4.841487E-4	5.736071E-3	1.249194E-2	5.930506E-3	-6.360946E-3	5.446351E-3	-4.147618E-3	2.013404E-3	2.057077E-4	-4.495042E-3	6.489256E-3	-5.629652E-5	7.835879E-3	4.691637E-3	3.283791E-3	5.592281E-3	1.262997E-2	5.083126E-3	6.060959E-3	2.622429E-3	-6.988351E-4	-3.006586E-3	-8.190320E-4	-3.927729E-3	-1.009604E-3	8.709726E-3	-4.423422E-3	-1.531099E-3	-1.132289E-3	7.936656E-3	2.575843E-3	-5.698718E-3	-7.822773E-3	8.463122E-3	-4.117214E-3
5.325120E+2	4.259225E-3	1.775423E-2	4.550660E-3	-4.796524E-3	2.580831E-3	1.680857E-3	1.160477E-2	2.037783E-2	1.395916E-2	5.101494E-3	6.002013E-3	1.524309E-2	1.135733E-2	5.324700E-4	1.035820E-2	1.304335E-2	1.307859E-2	1.471939E-2	1.346874E-2	4.208129E-3	4.758090E-3	1.874633E-2	-3.759102E-3	1.111937E-2	4.592466E-3	8.494892E-3	1.186705E-2	-6.323659E-3	7.293453E-3	3.522373E-3	1.284496E-2	1.296092E-2	5.663422E-3	-9.457943E-4	1.729103E-4	1.356321E-2	5.688965E-3	1.554409E-2	1.356947E-2	5.624346E-3	-5.149721E-3	-4.228844E-3	1.488278E-2	9.046147E-3	-2.603142E-3	1.191877E-2	-2.281498E-3	5.567887E-4	1.135596E-2	6.276205E-3	-1.673071E-3	9.318356E-3	1.485581E-3	2.996135E-3	6.778101E-3	3.387758E-3	6.417118E-3	-2.992909E-3	5.789936E-3	2.034683E-2	1.029758E-2	3.496221E-4	8.525440E-3	8.054940E-3	4.010611E-3	-5.338629E-3	8.941292E-3	1.038260E-2	5.811767E-3	7.004115E-3	-9.233890E-4	3.287572E-3	9.090385E-4	1.060342E-2	1.659284E-2	1.513245E-3	9.488706E-3	2.435871E-3	8.280762E-3	1.452215E-2	7.269494E-3	1.295150E-2	5.044624E-3	8.512165E-3	-3.208788E-3	1.069254E-2	5.501509E-3	-9.469562E-3	1.262775E-2	-4.558941E-3	6.521359E-3	9.191558E-3	3.652419E-4	4.220966E-3	-7.068251E-4	1.448135E-2	2.072300E-2	1.591431E-2	1.240588E-2	3.084439E-3	2.221561E-2	1.417028E-2	2.324793E-3	-1.010020E-4	1.907452E-3	3.345911E-3	6.584266E-3	5.030518E-3	1.630906E-2	5.103129E-3	1.405977E-2	-1.322371E-4	7.109612E-3	1.529988E-2	-1.938732E-4	1.246723E-2	1.786174E-2	1.108476E-2	7.527151E-3	5.396535E-3	4.249838E-3	1.055261E-2	8.042653E-3	1.030231E-2	1.398980E-2	1.638266E-2	1.027339E-2	1.543161E-2	2.670397E-3	8.945487E-3	1.438305E-2	1.831393E-2	1.829101E-3	9.731264E-3	6.708237E-3	8.360664E-3	1.354245E-2	1.433390E-2	4.880276E-3	5.924106E-3	1.303917E-2	3.431807E-3	1.504949E-2	6.611174E-3	3.980263E-3	4.069528E-3	5.023856E-3	-2.392124E-3	6.550336E-3	1.383087E-2	3.997528E-3	8.708267E-3	2.026152E-2	1.192942E-2	5.195795E-3	2.181923E-2	6.096580E-3	3.582044E-3	-2.445167E-4	6.056798E-3	2.891933E-3	7.620885E-3	1.800174E-2	2.552918E-2	1.473361E-2	9.416765E-3
5.330230E+2	8.316482E-3	1.192731E-2	9.965562E-3	2.317595E-2	1.968202E-2	1.167345E-2	2.491377E-3	4.595545E-3	1.782233E-2	2.212478E-2	1.794231E-2	1.106968E-2	1.474519E-2	1.925790E-2	1.048890E-2	4.777369E-3	1.607899E-2	1.012879E-2	1.635555E-2	1.360534E-2	1.898388E-2	2.243267E-2	2.146815E-2	1.187757E-2	1.940727E-2	1.316724E-2	8.460368E-3	1.459281E-2	2.588017E-2	1.223210E-2	1.038155E-2	1.514127E-2	1.246986E-2	1.480563E-2	6.035829E-3	1.060337E-2	1.650038E-2	5.792488E-3	1.244855E-2	1.444208E-2	2.224140E-2	1.492055E-2	1.358986E-2	1.277270E-2	6.684732E-3	1.625487E-2	2.078820E-2	1.949283E-2	1.289618E-2	2.450721E-2	2.088429E-2	3.612910E-2	1.675786E-2	1.588044E-2	1.152292E-2	6.898503E-3	1.189783E-2	1.421171E-2	1.858442E-2	1.583508E-2	2.268775E-2	1.014854E-2	9.847510E-3	1.661278E-2	1.590404E-2	1.767032E-2	1.457165E-2	8.385476E-3	2.573771E-2	1.250883E-2	8.290663E-3	9.265259E-3	1.977376E-2	2.115498E-2	1.889513E-2	2.485462E-2	1.303178E-2	2.955852E-2	1.338879E-2	2.485891E-2	1.323421E-2	2.036012E-2	6.492026E-3	9.430205E-3	2.860122E-2	1.220548E-2	6.915173E-3	8.039447E-3	4.518191E-3	1.141267E-2	2.049340E-2	1.392896E-2	1.979992E-2	1.942240E-2	3.232917E-2	1.773398E-3	1.413042E-2	8.404993E-3	1.184668E-2	2.460856E-2	1.195479E-2	1.242427E-2	7.422119E-3	2.662712E-2	1.344037E-2	2.042207E-2	2.099471E-2	2.918024E-2	4.380413E-3	1.815791E-2	1.988595E-2	1.763480E-2	1.447198E-2	1.259148E-2	2.196731E-2	2.398344E-2	6.920168E-3	1.120894E-2	1.621749E-2	1.515935E-2	2.069540E-2	2.108981E-2	1.168720E-2	2.013126E-2	1.085106E-2	2.331511E-2	1.734699E-2	1.351707E-2	1.819991E-2	8.332645E-3	8.927429E-3	2.390561E-2	2.409531E-2	9.125465E-3	1.894100E-2	2.442131E-2	1.526728E-2	1.605277E-2	2.237108E-2	1.519811E-2	1.114627E-2	1.873708E-2	6.762292E-3	1.071818E-2	1.696218E-2	1.745887E-2	1.046531E-2	7.253691E-3	1.629874E-2	1.185753E-2	1.499082E-2	1.528528E-2	1.156489E-2	7.278147E-3	1.157150E-2	1.487844E-2	1.231790E-2	2.286928E-2	9.418162E-3	1.113885E-2	1.473122E-2	1.930367E-2	2.057275E-2	-2.544816E-3	-3.687787E-3	1.222535E-2
5.331580E+2	1.572722E-2	3.843042E-2	2.218561E-2	1.798019E-2	5.177427E-3	1.958687E-2	1.262752E-2	1.270553E-2	1.196578E-2	1.314746E-2	1.738937E-2	6.242796E-3	2.590895E-2	2.001895E-2	1.175534E-2	1.599794E-2	9.140502E-3	1.094626E-2	2.066334E-2	1.387313E-2	1.978483E-2	4.000575E-3	1.789154E-2	1.540601E-2	2.242724E-2	1.200074E-2	2.963846E-2	1.408081E-2	2.669051E-2	2.038225E-2	2.594439E-2	1.460677E-2	2.402402E-2	2.988514E-2	1.321040E-2	7.630574E-3	2.034510E-2	1.840400E-2	1.180285E-2	8.944399E-3	2.463538E-2	1.577486E-2	3.000811E-2	2.012738E-2	2.892356E-2	9.179210E-3	6.582182E-3	3.173354E-2	3.023899E-3	1.939962E-2	2.406835E-2	2.208516E-2	1.318548E-2	1.368187E-2	2.091275E-2	3.200592E-2	1.507010E-2	2.504632E-2	2.083732E-2	2.371812E-2	1.116297E-2	6.269784E-3	3.113447E-2	2.588142E-2	2.018809E-2	1.465820E-3	1.261729E-2	2.823577E-2	2.588209E-2	2.007497E-2	1.559148E-2	9.402811E-3	2.332565E-2	1.243413E-2	1.312347E-2	2.128192E-2	2.488147E-2	2.277031E-2	1.477050E-2	1.957284E-2	2.143292E-2	2.341148E-2	1.129037E-2	2.936294E-2	1.287437E-2	1.654660E-2	1.552794E-2	1.382180E-2	2.257282E-2	2.438770E-3	2.208825E-2	2.802549E-2	2.445978E-2	1.775258E-2	2.883309E-2	2.328136E-2	1.650027E-2	3.008385E-2	2.617775E-2	2.397099E-2	1.138845E-2	1.192888E-2	2.506265E-2	2.280971E-2	1.050618E-2	1.686771E-2	1.226548E-2	9.921280E-3	1.276847E-2	7.194957E-3	1.720784E-2	2.627708E-2	8.068031E-3	3.681191E-2	2.342398E-2	1.841320E-2	1.607118E-2	2.075285E-2	1.636485E-2	1.737485E-2	1.656033E-2	1.962268E-2	2.637466E-3	5.304629E-3	1.688798E-2	2.410265E-2	2.510494E-2	1.093824E-2	1.974652E-2	1.425034E-2	1.743692E-2	2.171421E-2	1.888842E-2	1.935400E-2	2.247089E-2	2.011313E-2	2.343695E-2	1.297466E-2	1.904336E-2	1.321315E-2	1.600184E-2	1.888870E-2	1.955568E-2	3.089067E-2	1.710433E-2	1.689632E-2	2.263237E-2	2.333743E-2	2.402985E-2	1.549248E-2	1.513533E-2	2.694205E-2	2.774519E-2	1.534112E-2	2.218261E-2	1.344630E-2	1.450348E-2	7.780927E-3	1.435289E-2	1.911667E-2	2.074254E-2	2.608368E-2	2.235638E-2	1.415498E-3	1.654761E-2	9.668705E-3
5.333130E+2	2.318170E-2	4.124022E-2	1.855676E-2	2.987344E-2	2.130276E-2	1.977183E-2	2.351784E-2	7.771263E-3	2.488301E-2	2.673766E-2	2.740145E-2	1.174350E-2	3.058674E-2	2.364104E-2	3.403541E-2	2.377378E-2	2.368343E-2	1.649743E-2	2.710238E-2	2.005928E-2	3.047031E-2	3.371562E-2	2.056732E-2	2.269642E-2	2.917053E-2	1.806718E-2	3.329820E-2	-9.389186E-4	2.868107E-2	1.936848E-2	2.544084E-2	8.134838E-3	1.339485E-2	2.576051E-2	3.138981E-2	2.158251E-2	2.050098E-2	2.777249E-2	2.454526E-2	3.217577E-2	1.721285E-2	1.369773E-2	1.923568E-2	2.239723E-2	2.906138E-2	1.894862E-2	8.570504E-3	2.649141E-2	2.097606E-2	1.952714E-2	2.179414E-2	2.136594E-2	2.843231E-2	2.021446E-2	1.838864E-2	1.524665E-2	2.978965E-2	2.438334E-2	2.309562E-2	1.453233E-2	1.449806E-2	3.903188E-2	4.220451E-2	1.616041E-2	2.031122E-2	1.707598E-2	1.758294E-2	3.164791E-2	2.025205E-2	3.172961E-2	1.506680E-2	1.660429E-2	1.745550E-2	2.547307E-2	4.253947E-2	3.632545E-2	3.262598E-2	1.317384E-2	2.367035E-2	3.270313E-2	1.862744E-2	2.134261E-2	2.550550E-2	2.625567E-2	2.362160E-2	2.938625E-2	1.959558E-2	2.025880E-2	3.770543E-2	2.455775E-2	2.222472E-2	2.737948E-2	3.043861E-2	3.183178E-2	2.470177E-2	3.058136E-2	3.313934E-2	2.536008E-2	3.107624E-2	2.339669E-2	1.012890E-2	1.645040E-2	2.709301E-2	2.167704E-2	2.056186E-2	2.218128E-2	2.742596E-2	1.862617E-2	2.118435E-2	3.206718E-2	1.735867E-2	2.004431E-2	1.110591E-2	1.710124E-2	2.944099E-2	2.507844E-2	2.038526E-2	1.417656E-2	1.716541E-2	2.512886E-2	2.882584E-2	2.537804E-2	1.338254E-2	3.017078E-2	1.637390E-2	2.984451E-2	3.478817E-2	2.269442E-2	1.776750E-2	3.107449E-2	3.087399E-2	1.637092E-2	1.769770E-2	2.671773E-2	2.059693E-2	3.050336E-2	1.714743E-2	2.757589E-2	1.219982E-2	2.750786E-2	2.356875E-2	3.113138E-2	1.608337E-2	2.369845E-2	1.400654E-2	3.950879E-2	1.942819E-2	3.067193E-2	3.592819E-2	3.105507E-2	3.649253E-2	1.989714E-2	3.191561E-2	3.298485E-2	2.862543E-2	4.898643E-3	2.085109E-2	2.184304E-2	2.948859E-2	2.496062E-2	2.168439E-2	2.123853E-2	2.167349E-2	2.338464E-2	1.515790E-2	4.765631E-2
5.334580E+2	2.523208E-2	3.879276E-2	4.603212E-2	2.629817E-2	2.380239E-2	2.079096E-2	2.865959E-2	1.225325E-2	3.176122E-2	1.558496E-2	2.819050E-2	2.101848E-2	4.183470E-2	3.783190E-2	2.720375E-2	3.263940E-2	3.176727E-2	3.621298E-2	2.030886E-2	3.579491E-2	3.586745E-2	1.742439E-2	3.082968E-2	2.527913E-2	2.418493E-2	4.864815E-2	3.203015E-2	2.317734E-2	3.193631E-2	3.677209E-2	2.559358E-2	2.613899E-2	2.649959E-2	3.381103E-2	3.288634E-2	3.457671E-2	3.850329E-2	4.115745E-2	3.480112E-2	3.317536E-2	1.590818E-2	3.372830E-2	3.508557E-2	4.021991E-2	2.062162E-2	1.850544E-2	2.681894E-2	2.753850E-2	3.349233E-2	3.207687E-2	3.664254E-2	4.874929E-2	3.467250E-2	3.089787E-2	2.923706E-2	2.302307E-2	3.309811E-2	4.233949E-2	2.678404E-2	2.696972E-2	4.119035E-2	3.634496E-2	3.024968E-2	3.603616E-2	1.765035E-2	2.154343E-2	3.299903E-2	1.923375E-2	3.775253E-2	3.053859E-2	3.419676E-2	3.092494E-2	2.102834E-2	3.775215E-2	3.300655E-2	2.282091E-2	4.110962E-2	2.095985E-2	2.319506E-2	2.875375E-2	3.496552E-2	3.689442E-2	2.632841E-2	3.936519E-2	2.844493E-2	1.256101E-2	1.317622E-2	2.462013E-2	3.036526E-2	3.307811E-2	2.970050E-2	3.218917E-2	3.579901E-2	3.565300E-2	2.854148E-2	3.288546E-2	3.331453E-2	2.552205E-2	1.764902E-2	4.512642E-2	3.117006E-2	1.597481E-2	3.731063E-2	3.659248E-2	3.451324E-2	3.272194E-2	3.100631E-2	1.877045E-2	3.412036E-2	3.782894E-2	4.041625E-2	4.152515E-2	2.218023E-2	3.004737E-2	3.876704E-2	3.096147E-2	3.448617E-2	3.051526E-2	3.656861E-2	3.570029E-2	3.831329E-2	3.761956E-2	2.914894E-2	2.282664E-2	3.034358E-2	3.562369E-2	4.580423E-2	3.176873E-2	1.015024E-2	2.470057E-2	3.175846E-2	1.887877E-2	3.678163E-2	2.181894E-2	3.160553E-2	2.041711E-2	1.971715E-2	2.127681E-2	3.614304E-2	3.263386E-2	4.200159E-2	3.468162E-2	3.135562E-2	3.124508E-2	4.896547E-2	2.494502E-2	2.697226E-2	3.805137E-2	2.780048E-2	1.859360E-2	3.991270E-2	2.006437E-2	3.934221E-2	4.592477E-2	3.019937E-2	2.872576E-2	2.241530E-2	2.134124E-2	2.969059E-2	2.655921E-2	3.665460E-2	4.302197E-2	3.907979E-2	3.773413E-2	4.953928E-2	1.264004E-2
5.336080E+2	2.517661E-2	5.069311E-2	4.373795E-2	5.349632E-2	3.740583E-2	3.683711E-2	2.590474E-2	1.887779E-2	4.318103E-2	3.896942E-2	4.156739E-2	2.533498E-2	4.785844E-2	3.736154E-2	3.788333E-2	3.472240E-2	4.620211E-2	4.847920E-2	3.570143E-2	3.644366E-2	5.221585E-2	4.250081E-2	4.049448E-2	4.990937E-2	3.184339E-2	3.081096E-2	3.571116E-2	3.930871E-2	4.042589E-2	3.868918E-2	4.388887E-2	3.596875E-2	4.180922E-2	4.401425E-2	4.923208E-2	4.320391E-2	4.331271E-2	3.206347E-2	3.124945E-2	5.202284E-2	1.910942E-2	3.315354E-2	4.433435E-2	4.323613E-2	3.756596E-2	1.868937E-2	3.703424E-2	4.076577E-2	4.413351E-2	4.273625E-2	3.383472E-2	4.156384E-2	4.249140E-2	2.934325E-2	3.212713E-2	3.726694E-2	6.128356E-2	4.335710E-2	2.059146E-2	4.103244E-2	3.377896E-2	3.827691E-2	3.653306E-2	2.546011E-2	3.079243E-2	4.254317E-2	3.186995E-2	3.562772E-2	4.421436E-2	3.686740E-2	4.365752E-2	3.932304E-2	3.957674E-2	2.579231E-2	5.837678E-2	2.672723E-2	1.910971E-2	2.669113E-2	2.148290E-2	4.607062E-2	2.111810E-2	3.632455E-2	4.131365E-2	4.034030E-2	3.526863E-2	2.898008E-2	3.237306E-2	3.882387E-2	3.352886E-2	2.486121E-2	3.500628E-2	3.310444E-2	3.403975E-2	4.801171E-2	4.284582E-2	4.236561E-2	3.498586E-2	3.755460E-2	3.683889E-2	2.766985E-2	3.483267E-2	4.004705E-2	3.873059E-2	2.736044E-2	2.314611E-2	3.957049E-2	2.566199E-2	4.625166E-2	3.494282E-2	4.420470E-2	3.659226E-2	2.387450E-2	3.400279E-2	3.944076E-2	5.266290E-2	3.846472E-2	3.674301E-2	3.742202E-2	3.472844E-2	3.028572E-2	3.849459E-2	3.856236E-2	3.996076E-2	4.854538E-2	3.708456E-2	3.141132E-2	4.341930E-2	3.946434E-2	5.125061E-2	4.375586E-2	5.789307E-2	3.550872E-2	3.085695E-2	5.167889E-2	4.465339E-2	3.597409E-2	4.647231E-2	4.156530E-2	4.329201E-2	3.490038E-2	3.402246E-2	3.099142E-2	4.485596E-2	5.556838E-2	4.100977E-2	3.987662E-2	3.988989E-2	3.256544E-2	4.806650E-2	3.982493E-2	3.362024E-2	3.681942E-2	3.301642E-2	5.005203E-2	3.032936E-2	3.596518E-2	3.214107E-2	3.012696E-2	4.912194E-2	4.101881E-2	4.196550E-2	2.316762E-2	3.675398E-2	5.464507E-2	3.413034E-2	4.803421E-2
5.337630E+2	4.062454E-2	4.820596E-2	5.512750E-2	5.052530E-2	5.996329E-2	3.845037E-2	4.830069E-2	5.473856E-2	5.312231E-2	5.973558E-2	4.170041E-2	5.119126E-2	5.516618E-2	4.801636E-2	4.040820E-2	6.100715E-2	5.848268E-2	3.982742E-2	4.072119E-2	5.734392E-2	5.108512E-2	3.657615E-2	3.991948E-2	5.136596E-2	4.169567E-2	5.492410E-2	5.356012E-2	3.809097E-2	4.911369E-2	3.419078E-2	5.441912E-2	6.020353E-2	5.294996E-2	4.418743E-2	5.396221E-2	5.940740E-2	4.356151E-2	5.480198E-2	4.611647E-2	5.464916E-2	3.841678E-2	3.405351E-2	3.290681E-2	3.639191E-2	6.631606E-2	4.734522E-2	4.040067E-2	4.773153E-2	6.320786E-2	3.181442E-2	5.841179E-2	3.701646E-2	4.852592E-2	5.240703E-2	5.702597E-2	2.618000E-2	3.823474E-2	5.513583E-2	3.781590E-2	5.830321E-2	5.228581E-2	3.962540E-2	4.892293E-2	6.233930E-2	6.573834E-2	5.615968E-2	5.164127E-2	5.453154E-2	3.098906E-2	5.343880E-2	4.521654E-2	4.151901E-2	3.991434E-2	4.300425E-2	6.173328E-2	2.994212E-2	4.449212E-2	2.687482E-2	4.373199E-2	7.002361E-2	4.565165E-2	3.584458E-2	4.027616E-2	5.493540E-2	5.813862E-2	6.825817E-2	5.439535E-2	4.706933E-2	5.213775E-2	4.793832E-2	4.775894E-2	4.165200E-2	3.877803E-2	4.699067E-2	5.845487E-2	4.829478E-2	6.004652E-2	4.405547E-2	5.884881E-2	7.031703E-2	2.801038E-2	4.401349E-2	5.594025E-2	5.106503E-2	4.254101E-2	4.422030E-2	4.438656E-2	2.764851E-2	3.064591E-2	6.183275E-2	5.977764E-2	6.039317E-2	3.930371E-2	6.031269E-2	4.368185E-2	4.273005E-2	3.902884E-2	4.911215E-2	5.820538E-2	5.133526E-2	4.803237E-2	5.571679E-2	5.510842E-2	4.421427E-2	4.520302E-2	4.281933E-2	5.254632E-2	4.170969E-2	5.356922E-2	5.268513E-2	5.669065E-2	3.567161E-2	5.272880E-2	6.059703E-2	3.871807E-2	5.032006E-2	4.666025E-2	6.598997E-2	3.855247E-2	5.357724E-2	5.727702E-2	6.128904E-2	4.748704E-2	5.039182E-2	3.793957E-2	5.064499E-2	4.007351E-2	5.121299E-2	6.008692E-2	3.929958E-2	4.738317E-2	3.990076E-2	4.691715E-2	4.863511E-2	5.019838E-2	5.437060E-2	4.192743E-2	4.631481E-2	5.416551E-2	4.191161E-2	6.736214E-2	4.833732E-2	4.517933E-2	1.992826E-2	4.054368E-2	2.375017E-2
5.339090E+2	7.221674E-2	5.697634E-2	7.661263E-2	5.616780E-2	3.537359E-2	6.489589E-2	5.278798E-2	4.906464E-2	5.027956E-2	7.416038E-2	4.452323E-2	6.496132E-2	5.732267E-2	5.650256E-2	5.525245E-2	6.673645E-2	6.871483E-2	6.168606E-2	4.088224E-2	6.184768E-2	7.795925E-2	6.175627E-2	6.366096E-2	7.352003E-2	8.121724E-2	6.576175E-2	6.293179E-2	5.309586E-2	6.737390E-2	6.678523E-2	5.662713E-2	5.386217E-2	6.265872E-2	5.801115E-2	6.843600E-2	5.056653E-2	6.228425E-2	5.297350E-2	6.277423E-2	6.994214E-2	7.157128E-2	6.603892E-2	6.958211E-2	5.064945E-2	5.656525E-2	5.421753E-2	6.382466E-2	6.259713E-2	6.770447E-2	6.469506E-2	6.628534E-2	5.345797E-2	6.113147E-2	5.553707E-2	5.520447E-2	5.082594E-2	6.791160E-2	5.600507E-2	5.294536E-2	5.476777E-2	6.880470E-2	6.636280E-2	6.928513E-2	7.147296E-2	7.935479E-2	6.379419E-2	4.692108E-2	4.593338E-2	5.654334E-2	7.002191E-2	4.935350E-2	5.950683E-2	6.003529E-2	5.535684E-2	6.930312E-2	5.265449E-2	6.426591E-2	6.626669E-2	5.023990E-2	7.521127E-2	5.646763E-2	8.107414E-2	5.606000E-2	5.729591E-2	5.447300E-2	6.563718E-2	5.991193E-2	7.326746E-2	6.680785E-2	5.653282E-2	6.492884E-2	7.709820E-2	6.330766E-2	7.532997E-2	7.539047E-2	5.865408E-2	5.342561E-2	5.486100E-2	5.918016E-2	6.341606E-2	6.392406E-2	5.437688E-2	6.510662E-2	5.899969E-2	6.473882E-2	6.680681E-2	5.151447E-2	6.319182E-2	8.354427E-2	6.830225E-2	5.657964E-2	6.350245E-2	6.083912E-2	5.553991E-2	8.658430E-2	6.200053E-2	7.854010E-2	6.085902E-2	8.046837E-2	7.005302E-2	8.068534E-2	6.076110E-2	8.032695E-2	7.155648E-2	4.674832E-2	6.743308E-2	6.621472E-2	6.464149E-2	7.011301E-2	6.751225E-2	6.818930E-2	6.740498E-2	5.161248E-2	7.756615E-2	5.661611E-2	5.957053E-2	5.254049E-2	4.109867E-2	6.476467E-2	7.519880E-2	7.929760E-2	6.409794E-2	6.597452E-2	6.813552E-2	6.497869E-2	7.207689E-2	5.781356E-2	6.026671E-2	5.682896E-2	5.927902E-2	6.963807E-2	4.953645E-2	7.789521E-2	5.925223E-2	7.719942E-2	7.046887E-2	6.761387E-2	8.668301E-2	6.408493E-2	6.873191E-2	5.644875E-2	6.942944E-2	7.760015E-2	6.024672E-2	4.857059E-2	9.749754E-2
5.340640E+2	9.786717E-2	1.063308E-1	1.059913E-1	7.127180E-2	9.281533E-2	1.201587E-1	8.118047E-2	9.464040E-2	1.224059E-1	9.937357E-2	1.111155E-1	1.089456E-1	1.146180E-1	1.044535E-1	7.957160E-2	9.937073E-2	1.200393E-1	1.101523E-1	9.200276E-2	1.010073E-1	9.126394E-2	8.343332E-2	1.162580E-1	8.865712E-2	9.631257E-2	1.234588E-1	1.092690E-1	1.111799E-1	1.119595E-1	1.093440E-1	8.416825E-2	8.671235E-2	1.031141E-1	8.846227E-2	8.815680E-2	1.083677E-1	1.240020E-1	1.064374E-1	9.725015E-2	1.064722E-1	9.098672E-2	1.010962E-1	8.831264E-2	1.101611E-1	9.599662E-2	7.754043E-2	8.925096E-2	9.335302E-2	1.208506E-1	8.654569E-2	1.031855E-1	9.371770E-2	8.553501E-2	1.016985E-1	9.964262E-2	9.067315E-2	1.070082E-1	1.232620E-1	9.527828E-2	9.444280E-2	1.010974E-1	1.099840E-1	1.178903E-1	8.243230E-2	7.816028E-2	9.382959E-2	1.073636E-1	1.009313E-1	1.102500E-1	8.529718E-2	1.010845E-1	8.945734E-2	1.054356E-1	8.892646E-2	9.450394E-2	9.214351E-2	9.104132E-2	1.029873E-1	9.409470E-2	1.065244E-1	9.556924E-2	9.091391E-2	8.340354E-2	1.072411E-1	8.232634E-2	9.650970E-2	1.051436E-1	1.045684E-1	1.095616E-1	1.042110E-1	9.175753E-2	1.272894E-1	1.021984E-1	9.702740E-2	9.916717E-2	1.069151E-1	1.215995E-1	1.099953E-1	1.149454E-1	1.085994E-1	1.038291E-1	9.263263E-2	9.388372E-2	9.998321E-2	1.138770E-1	1.141290E-1	9.798885E-2	8.175563E-2	8.722611E-2	1.154724E-1	9.265984E-2	1.062941E-1	1.154043E-1	9.966062E-2	1.068458E-1	8.393999E-2	1.158710E-1	1.149155E-1	1.030175E-1	1.107121E-1	1.083403E-1	1.251243E-1	1.086148E-1	9.418786E-2	8.952609E-2	9.531055E-2	9.988546E-2	1.170128E-1	9.411892E-2	8.540308E-2	1.116310E-1	1.011047E-1	9.633432E-2	1.187320E-1	9.649172E-2	9.903396E-2	1.121943E-1	1.086793E-1	1.045272E-1	9.755033E-2	1.123684E-1	1.126708E-1	1.035014E-1	1.028793E-1	1.027843E-1	1.064173E-1	9.661985E-2	1.315089E-1	1.101759E-1	9.776234E-2	1.160429E-1	1.094290E-1	1.098493E-1	1.028726E-1	1.050486E-1	9.381953E-2	1.245305E-1	1.138429E-1	1.195755E-1	8.488276E-2	1.014098E-1	9.649007E-2	1.002330E-1	7.997117E-2	1.083672E-1	6.507206E-2
5.342090E+2	1.263399E-1	1.457458E-1	1.443635E-1	1.235706E-1	1.254656E-1	1.468098E-1	1.168404E-1	1.542314E-1	1.325718E-1	1.167683E-1	1.526677E-1	1.178333E-1	1.320044E-1	1.401583E-1	1.446599E-1	1.289677E-1	1.390396E-1	1.587343E-1	1.391144E-1	1.447557E-1	1.457566E-1	1.417153E-1	1.344340E-1	1.498881E-1	1.420435E-1	1.665367E-1	1.479479E-1	1.221289E-1	1.313265E-1	1.468085E-1	1.409842E-1	1.587602E-1	1.381534E-1	1.537177E-1	1.203345E-1	1.237364E-1	1.331722E-1	1.320863E-1	1.179436E-1	1.661914E-1	1.345990E-1	1.526329E-1	1.319210E-1	1.302618E-1	1.412863E-1	1.271711E-1	1.369098E-1	1.418035E-1	1.537228E-1	1.078221E-1	1.419002E-1	1.389448E-1	1.644172E-1	1.285720E-1	1.388769E-1	1.407734E-1	1.548854E-1	1.638706E-1	1.670594E-1	1.394825E-1	1.444928E-1	1.537869E-1	1.446108E-1	1.584990E-1	1.436271E-1	1.381901E-1	1.392496E-1	1.249670E-1	1.641758E-1	1.308195E-1	1.324926E-1	1.332381E-1	1.379331E-1	1.593294E-1	1.502384E-1	1.479507E-1	1.200314E-1	1.560195E-1	1.336894E-1	1.328064E-1	1.610644E-1	1.445331E-1	1.299022E-1	1.300719E-1	1.251611E-1	1.424850E-1	1.578400E-1	1.334148E-1	1.379975E-1	1.643466E-1	1.602039E-1	1.342467E-1	1.471232E-1	1.237159E-1	1.385460E-1	1.504592E-1	1.364398E-1	1.356893E-1	1.441141E-1	1.505682E-1	1.317435E-1	1.335638E-1	1.526151E-1	1.484391E-1	1.545781E-1	1.406569E-1	1.370170E-1	1.190150E-1	1.385626E-1	1.133092E-1	1.323367E-1	1.227766E-1	1.387464E-1	1.452300E-1	1.190523E-1	1.233987E-1	1.232879E-1	1.534144E-1	1.295037E-1	1.315956E-1	1.456552E-1	1.465873E-1	1.354815E-1	1.435530E-1	1.302533E-1	1.296369E-1	1.536980E-1	1.394546E-1	1.271579E-1	1.335930E-1	1.540515E-1	1.276831E-1	1.634488E-1	1.411254E-1	1.325690E-1	1.424419E-1	1.268892E-1	1.318122E-1	1.303789E-1	1.380661E-1	1.510173E-1	1.433659E-1	1.442633E-1	1.437089E-1	1.243702E-1	1.480079E-1	1.647546E-1	1.245494E-1	1.490520E-1	1.300053E-1	1.300765E-1	1.363170E-1	1.378746E-1	1.547009E-1	1.174270E-1	1.283808E-1	1.138585E-1	1.303388E-1	1.520447E-1	1.494987E-1	1.323618E-1	1.370739E-1	1.337193E-1	1.142530E-1	1.055798E-1	1.693566E-1
5.343600E+2	2.226961E-1	2.338415E-1	2.437091E-1	2.251923E-1	2.436226E-1	2.204465E-1	2.309241E-1	2.250507E-1	2.574152E-1	2.437721E-1	2.483267E-1	2.491204E-1	2.277604E-1	2.296523E-1	2.376595E-1	2.357525E-1	2.389752E-1	2.456054E-1	2.297390E-1	2.306215E-1	2.547087E-1	2.595852E-1	2.433410E-1	2.451777E-1	2.507112E-1	2.550453E-1	2.231449E-1	2.310058E-1	2.415047E-1	2.419579E-1	2.393228E-1	2.331312E-1	2.562684E-1	2.763837E-1	2.447477E-1	2.463338E-1	2.426249E-1	2.073526E-1	2.434308E-1	2.389636E-1	2.108355E-1	2.415856E-1	2.211765E-1	2.426217E-1	2.381120E-1	2.491072E-1	2.568882E-1	2.171754E-1	2.579260E-1	2.358557E-1	2.156213E-1	2.593382E-1	2.458369E-1	2.277549E-1	2.260825E-1	2.271229E-1	2.459671E-1	2.710341E-1	2.391904E-1	2.340389E-1	2.432764E-1	2.471776E-1	2.569228E-1	2.641971E-1	2.654587E-1	2.501359E-1	2.303510E-1	2.394894E-1	2.360072E-1	2.452539E-1	2.456383E-1	2.368984E-1	2.814049E-1	2.250641E-1	2.297816E-1	2.181075E-1	2.593331E-1	2.607221E-1	2.522280E-1	2.475661E-1	2.463345E-1	2.391923E-1	2.685776E-1	2.658856E-1	2.575077E-1	2.373142E-1	2.320225E-1	2.552751E-1	2.565263E-1	2.685150E-1	2.548677E-1	2.513736E-1	2.448218E-1	2.316890E-1	2.389739E-1	2.362510E-1	2.500704E-1	2.250784E-1	2.277719E-1	2.467653E-1	2.605324E-1	2.261880E-1	2.535678E-1	2.740996E-1	2.732182E-1	2.550125E-1	2.309297E-1	2.320310E-1	2.451107E-1	2.510680E-1	2.353830E-1	2.584226E-1	2.514088E-1	2.607936E-1	2.159494E-1	2.387644E-1	2.598990E-1	2.541101E-1	2.636104E-1	2.290142E-1	2.208523E-1	2.503950E-1	2.292265E-1	2.214397E-1	2.368163E-1	2.087159E-1	2.475579E-1	2.165631E-1	2.449104E-1	2.443240E-1	2.588437E-1	2.411336E-1	2.236931E-1	2.593988E-1	2.419824E-1	2.418013E-1	2.605073E-1	2.429135E-1	2.064610E-1	2.352132E-1	2.648551E-1	2.562900E-1	2.501656E-1	2.659859E-1	2.546304E-1	2.440737E-1	2.524288E-1	2.244026E-1	2.443862E-1	2.556010E-1	2.422645E-1	2.211573E-1	2.672145E-1	2.607627E-1	2.100909E-1	2.430824E-1	2.494019E-1	2.303566E-1	2.390472E-1	2.626967E-1	2.312161E-1	2.526347E-1	2.538374E-1	2.524035E-1	2.510374E-1	2.410778E-1
5.345160E+2	3.986405E-1	3.955670E-1	4.285882E-1	3.961361E-1	4.435692E-1	4.171137E-1	3.869581E-1	3.875796E-1	4.039463E-1	3.958317E-1	4.041121E-1	4.229191E-1	4.236991E-1	4.180195E-1	4.090303E-1	3.871093E-1	4.421308E-1	4.186713E-1	3.800041E-1	4.208174E-1	4.196361E-1	4.430892E-1	3.953586E-1	4.062199E-1	4.058768E-1	4.155311E-1	4.016994E-1	4.009591E-1	4.388580E-1	4.004394E-1	4.294497E-1	4.350967E-1	4.117172E-1	4.129176E-1	3.889667E-1	3.677150E-1	4.360100E-1	4.139166E-1	4.188988E-1	4.342640E-1	4.361279E-1	3.938707E-1	4.252552E-1	4.374995E-1	4.429913E-1	4.240363E-1	4.027850E-1	4.430002E-1	4.240254E-1	4.063174E-1	4.110057E-1	4.148931E-1	4.142457E-1	4.018785E-1	3.915586E-1	4.428196E-1	4.141079E-1	4.241018E-1	4.132091E-1	4.221837E-1	4.065378E-1	3.961112E-1	4.292882E-1	4.013431E-1	4.166140E-1	4.440137E-1	3.799804E-1	3.902287E-1	4.024183E-1	4.445807E-1	4.234629E-1	4.162463E-1	4.379820E-1	4.542954E-1	3.800603E-1	3.791981E-1	4.143528E-1	4.106736E-1	3.862725E-1	4.229212E-1	4.188068E-1	4.365279E-1	3.945166E-1	4.033126E-1	4.002630E-1	4.138984E-1	4.301307E-1	4.288442E-1	4.171167E-1	3.973048E-1	4.208957E-1	4.219210E-1	4.408524E-1	4.243310E-1	4.106318E-1	4.270158E-1	4.535043E-1	4.023069E-1	4.134994E-1	4.129942E-1	4.342949E-1	4.107796E-1	4.114816E-1	3.918984E-1	4.215032E-1	4.295630E-1	4.040805E-1	4.208686E-1	4.180299E-1	4.156098E-1	4.177985E-1	4.227323E-1	4.327429E-1	4.392104E-1	4.243848E-1	3.827642E-1	4.493871E-1	3.987150E-1	4.127990E-1	4.174602E-1	4.051347E-1	4.365610E-1	4.036512E-1	4.117058E-1	4.031312E-1	4.021665E-1	4.191027E-1	4.083461E-1	4.234112E-1	4.318043E-1	4.214202E-1	4.339589E-1	4.459098E-1	4.394583E-1	4.498928E-1	4.144348E-1	4.285653E-1	4.282319E-1	4.109305E-1	3.981531E-1	4.761114E-1	4.192754E-1	4.238710E-1	4.271533E-1	4.339259E-1	4.142547E-1	4.135133E-1	4.419586E-1	4.149022E-1	4.260912E-1	4.152760E-1	4.429991E-1	4.114414E-1	3.795294E-1	3.908319E-1	3.645612E-1	4.283067E-1	4.060215E-1	3.964148E-1	3.995502E-1	4.031537E-1	4.331311E-1	4.032661E-1	4.004789E-1	4.266227E-1	4.260429E-1
5.346620E+2	6.862951E-1	6.560661E-1	6.647621E-1	7.044787E-1	6.589285E-1	7.219376E-1	6.971233E-1	6.945969E-1	6.715830E-1	6.686780E-1	6.985620E-1	7.001341E-1	7.219768E-1	6.936710E-1	6.513446E-1	6.356647E-1	7.035263E-1	6.948990E-1	6.892076E-1	6.727132E-1	6.809580E-1	6.929526E-1	6.657918E-1	7.065564E-1	6.813725E-1	6.859033E-1	6.662746E-1	6.900550E-1	6.946481E-1	6.405923E-1	7.034786E-1	6.709108E-1	6.771932E-1	6.770982E-1	6.239931E-1	7.203842E-1	7.189997E-1	6.943848E-1	6.680511E-1	6.821496E-1	6.847891E-1	6.966069E-1	6.552564E-1	6.612144E-1	6.766038E-1	6.848593E-1	6.832150E-1	6.743282E-1	7.127662E-1	6.849319E-1	7.191400E-1	6.737456E-1	7.050072E-1	6.752715E-1	6.845944E-1	6.903735E-1	6.846167E-1	6.615712E-1	6.551615E-1	7.090484E-1	7.078989E-1	6.903812E-1	7.302065E-1	6.651174E-1	6.914444E-1	6.693361E-1	6.850108E-1	6.553519E-1	6.982470E-1	6.954518E-1	6.523290E-1	6.849853E-1	6.759938E-1	6.476590E-1	6.887583E-1	7.145365E-1	6.796629E-1	6.791498E-1	6.585477E-1	6.877647E-1	6.782483E-1	6.677253E-1	6.986809E-1	6.784443E-1	6.799156E-1	7.043825E-1	6.727908E-1	7.217480E-1	6.873495E-1	6.403981E-1	6.774454E-1	6.825738E-1	6.717396E-1	6.669853E-1	6.620024E-1	6.966920E-1	7.194924E-1	6.720957E-1	6.791526E-1	7.005874E-1	6.624744E-1	7.006893E-1	6.829531E-1	6.823470E-1	6.878370E-1	6.758589E-1	6.652708E-1	7.064800E-1	6.934662E-1	6.801152E-1	6.625107E-1	6.800955E-1	6.851591E-1	6.423880E-1	6.890181E-1	6.424497E-1	6.904165E-1	7.045592E-1	6.728892E-1	6.786566E-1	7.224202E-1	7.360816E-1	7.233931E-1	6.773580E-1	6.710025E-1	6.757905E-1	6.861470E-1	6.708543E-1	6.903009E-1	7.237103E-1	6.497365E-1	6.842414E-1	7.251953E-1	6.534089E-1	7.015252E-1	6.575974E-1	6.909124E-1	6.641924E-1	6.682495E-1	6.593826E-1	7.166080E-1	7.026353E-1	7.137804E-1	7.168011E-1	7.389451E-1	6.574951E-1	6.347670E-1	7.055214E-1	6.761492E-1	6.751860E-1	7.111524E-1	7.488547E-1	7.409606E-1	6.931342E-1	6.693777E-1	6.784372E-1	7.242510E-1	6.582278E-1	6.573283E-1	6.599737E-1	6.767759E-1	6.876077E-1	7.078063E-1	7.020122E-1	6.974415E-1	7.329459E-1
5.348070E+2	1.037727E+0	1.013211E+0	9.882476E-1	9.957340E-1	1.024378E+0	1.001423E+0	1.011111E+0	1.053001E+0	1.061940E+0	1.009741E+0	1.005905E+0	1.031422E+0	1.014177E+0	1.003412E+0	1.043603E+0	1.049852E+0	1.041257E+0	1.031557E+0	1.055720E+0	9.589961E-1	1.052441E+0	1.088962E+0	1.031105E+0	9.994449E-1	1.071832E+0	9.993615E-1	9.885702E-1	1.033119E+0	1.046544E+0	1.006740E+0	1.038308E+0	9.672543E-1	1.054480E+0	1.052556E+0	9.796011E-1	1.020083E+0	1.066597E+0	1.030997E+0	1.039147E+0	1.041509E+0	1.063037E+0	9.996172E-1	1.068993E+0	1.045379E+0	1.031897E+0	1.019484E+0	9.977979E-1	1.038208E+0	1.053957E+0	9.833823E-1	1.039928E+0	1.029052E+0	1.073868E+0	9.550848E-1	1.011812E+0	1.030417E+0	1.044881E+0	1.024695E+0	9.737006E-1	1.038173E+0	1.098940E+0	9.981443E-1	1.034790E+0	1.035647E+0	1.028844E+0	1.061117E+0	9.759721E-1	1.004986E+0	1.071200E+0	1.058630E+0	1.012277E+0	1.013210E+0	1.117018E+0	1.025667E+0	9.992068E-1	1.035258E+0	1.039029E+0	1.009584E+0	9.755515E-1	1.029607E+0	1.077886E+0	1.028368E+0	1.025256E+0	1.003602E+0	1.041789E+0	1.057072E+0	1.061709E+0	1.085827E+0	1.022290E+0	1.098751E+0	1.032730E+0	1.027744E+0	1.047347E+0	1.034692E+0	1.007812E+0	1.021772E+0	1.018909E+0	9.813275E-1	9.617298E-1	1.049961E+0	1.044579E+0	1.027062E+0	1.037016E+0	1.022751E+0	9.911164E-1	1.017581E+0	9.484024E-1	9.916459E-1	1.031468E+0	1.026784E+0	1.034793E+0	1.026840E+0	1.031427E+0	1.034849E+0	1.037555E+0	9.830139E-1	1.044668E+0	9.994872E-1	1.064271E+0	1.009001E+0	1.009871E+0	1.042518E+0	1.033509E+0	1.000602E+0	1.060170E+0	1.051526E+0	1.042712E+0	9.712620E-1	1.028613E+0	9.981956E-1	1.013529E+0	1.045662E+0	1.045218E+0	1.079359E+0	1.073166E+0	1.004788E+0	1.102488E+0	1.073249E+0	1.020036E+0	9.743521E-1	9.802132E-1	1.047805E+0	1.034099E+0	1.052367E+0	1.073336E+0	9.878805E-1	9.864097E-1	1.042847E+0	1.032323E+0	9.954920E-1	1.036006E+0	1.042279E+0	1.080743E+0	1.073675E+0	9.925987E-1	9.927591E-1	1.014460E+0	1.022761E+0	1.041132E+0	1.009750E+0	1.050668E+0	1.076772E+0	1.025359E+0	1.069745E+0	1.052045E+0	9.830787E-1
5.349630E+2	1.479803E+0	1.435085E+0	1.471621E+0	1.411764E+0	1.402072E+0	1.474217E+0	1.395574E+0	1.418249E+0	1.528727E+0	1.435547E+0	1.485259E+0	1.408840E+0	1.494639E+0	1.434242E+0	1.409361E+0	1.445985E+0	1.497380E+0	1.367723E+0	1.471058E+0	1.372658E+0	1.434763E+0	1.497045E+0	1.444439E+0	1.423117E+0	1.502439E+0	1.485158E+0	1.440402E+0	1.473029E+0	1.494138E+0	1.448410E+0	1.419422E+0	1.374216E+0	1.449726E+0	1.493178E+0	1.439636E+0	1.447343E+0	1.485343E+0	1.434460E+0	1.444328E+0	1.420571E+0	1.480141E+0	1.421945E+0	1.414682E+0	1.464304E+0	1.430286E+0	1.414823E+0	1.454130E+0	1.443702E+0	1.446432E+0	1.426855E+0	1.465852E+0	1.478465E+0	1.454775E+0	1.431014E+0	1.506354E+0	1.445343E+0	1.446616E+0	1.397716E+0	1.374120E+0	1.428507E+0	1.470180E+0	1.421308E+0	1.430067E+0	1.396720E+0	1.445081E+0	1.435782E+0	1.395400E+0	1.453516E+0	1.437911E+0	1.480341E+0	1.460096E+0	1.421136E+0	1.462220E+0	1.415667E+0	1.398200E+0	1.435736E+0	1.451209E+0	1.393256E+0	1.388761E+0	1.436568E+0	1.405707E+0	1.409378E+0	1.347839E+0	1.452478E+0	1.461315E+0	1.460525E+0	1.488649E+0	1.468003E+0	1.410281E+0	1.463690E+0	1.386770E+0	1.484714E+0	1.394118E+0	1.421435E+0	1.391669E+0	1.392897E+0	1.461079E+0	1.425448E+0	1.352036E+0	1.421705E+0	1.447703E+0	1.443676E+0	1.417176E+0	1.410949E+0	1.431031E+0	1.416222E+0	1.411501E+0	1.405840E+0	1.450955E+0	1.410120E+0	1.408966E+0	1.389299E+0	1.448669E+0	1.409673E+0	1.399934E+0	1.374583E+0	1.423003E+0	1.419943E+0	1.477252E+0	1.422414E+0	1.443870E+0	1.423662E+0	1.447014E+0	1.419373E+0	1.439716E+0	1.444618E+0	1.399330E+0	1.372482E+0	1.416804E+0	1.386523E+0	1.402983E+0	1.442074E+0	1.457305E+0	1.423220E+0	1.439084E+0	1.486462E+0	1.420708E+0	1.386854E+0	1.370951E+0	1.384361E+0	1.374224E+0	1.392250E+0	1.459011E+0	1.379457E+0	1.446261E+0	1.394987E+0	1.385386E+0	1.411721E+0	1.378337E+0	1.404475E+0	1.390322E+0	1.440798E+0	1.397745E+0	1.418114E+0	1.453822E+0	1.397851E+0	1.372158E+0	1.377022E+0	1.393215E+0	1.411039E+0	1.381972E+0	1.457139E+0	1.397022E+0	1.365268E+0	1.414309E+0	1.353087E+0
5.351090E+2	1.679451E+0	1.709546E+0	1.675980E+0	1.712543E+0	1.719804E+0	1.727684E+0	1.694012E+0	1.669975E+0	1.749088E+0	1.693606E+0	1.722064E+0	1.718659E+0	1.726848E+0	1.641579E+0	1.708505E+0	1.778239E+0	1.769631E+0	1.695483E+0	1.732095E+0	1.674947E+0	1.711707E+0	1.708870E+0	1.704854E+0	1.714419E+0	1.795310E+0	1.767665E+0	1.681093E+0	1.719988E+0	1.707725E+0	1.621126E+0	1.763182E+0	1.826663E+0	1.768160E+0	1.673992E+0	1.670722E+0	1.673253E+0	1.712622E+0	1.677549E+0	1.715536E+0	1.676715E+0	1.776562E+0	1.754253E+0	1.700535E+0	1.712746E+0	1.711495E+0	1.739173E+0	1.702983E+0	1.728190E+0	1.716300E+0	1.729314E+0	1.761945E+0	1.710602E+0	1.774036E+0	1.671613E+0	1.742589E+0	1.707889E+0	1.672554E+0	1.711615E+0	1.729548E+0	1.716573E+0	1.764700E+0	1.642634E+0	1.692152E+0	1.657779E+0	1.662003E+0	1.725631E+0	1.711020E+0	1.722948E+0	1.730412E+0	1.704797E+0	1.671601E+0	1.707791E+0	1.831369E+0	1.666958E+0	1.677536E+0	1.679860E+0	1.713759E+0	1.653053E+0	1.646855E+0	1.735553E+0	1.775864E+0	1.671590E+0	1.752318E+0	1.684148E+0	1.672107E+0	1.709072E+0	1.728303E+0	1.700454E+0	1.681854E+0	1.765082E+0	1.748582E+0	1.708277E+0	1.677326E+0	1.705756E+0	1.629901E+0	1.678994E+0	1.752122E+0	1.647453E+0	1.664841E+0	1.650014E+0	1.742928E+0	1.655820E+0	1.710508E+0	1.720760E+0	1.679754E+0	1.640525E+0	1.706925E+0	1.746029E+0	1.748789E+0	1.674788E+0	1.703187E+0	1.638786E+0	1.733892E+0	1.691674E+0	1.653750E+0	1.646981E+0	1.686948E+0	1.729901E+0	1.725706E+0	1.737768E+0	1.703214E+0	1.701330E+0	1.686416E+0	1.660733E+0	1.721810E+0	1.673278E+0	1.720575E+0	1.673859E+0	1.671233E+0	1.688014E+0	1.662042E+0	1.705156E+0	1.720404E+0	1.740462E+0	1.696546E+0	1.618839E+0	1.774032E+0	1.710676E+0	1.673434E+0	1.654792E+0	1.735491E+0	1.631717E+0	1.696305E+0	1.671165E+0	1.669828E+0	1.679744E+0	1.626561E+0	1.674598E+0	1.708812E+0	1.647627E+0	1.651274E+0	1.702989E+0	1.628285E+0	1.649750E+0	1.675053E+0	1.711316E+0	1.720958E+0	1.682568E+0	1.684205E+0	1.716995E+0	1.609496E+0	1.718211E+0	1.691905E+0	1.625089E+0	1.671805E+0	1.669930E+0
5.352550E+2	1.987027E+0	2.033077E+0	1.958148E+0	1.946251E+0	1.916387E+0	2.029835E+0	1.952864E+0	1.968976E+0	1.950232E+0	1.958317E+0	1.979978E+0	1.952828E+0	1.965537E+0	1.923718E+0	1.940538E+0	1.981559E+0	2.007568E+0	1.956677E+0	2.012721E+0	1.936993E+0	2.002572E+0	1.981331E+0	1.994409E+0	2.010549E+0	2.018183E+0	1.936086E+0	1.967004E+0	1.978719E+0	1.993955E+0	1.926028E+0	2.043920E+0	1.931492E+0	1.947970E+0	1.995011E+0	1.954777E+0	1.892296E+0	2.057422E+0	1.949493E+0	1.914571E+0	1.950934E+0	2.024414E+0	1.927116E+0	1.961683E+0	2.002439E+0	1.956283E+0	1.992118E+0	1.906813E+0	1.981128E+0	1.982124E+0	1.965551E+0	1.996169E+0	1.950959E+0	2.041340E+0	1.891195E+0	2.009177E+0	1.893780E+0	1.989283E+0	2.000903E+0	1.847008E+0	1.938631E+0	1.978913E+0	1.852875E+0	2.040421E+0	1.964301E+0	1.882838E+0	1.988220E+0	1.913344E+0	1.908893E+0	1.948824E+0	1.979956E+0	1.933834E+0	1.929041E+0	1.981748E+0	1.897779E+0	1.876278E+0	1.873129E+0	2.025403E+0	1.935057E+0	1.910821E+0	1.873878E+0	1.974236E+0	1.984819E+0	1.903640E+0	1.914638E+0	1.941675E+0	2.014281E+0	1.936908E+0	1.964127E+0	1.894916E+0	1.932213E+0	1.981288E+0	1.926927E+0	1.971282E+0	1.864947E+0	1.911458E+0	1.908799E+0	1.951375E+0	1.912419E+0	1.905554E+0	1.983436E+0	2.019168E+0	1.967599E+0	1.995362E+0	1.899791E+0	1.894745E+0	1.928301E+0	1.914173E+0	1.836077E+0	1.917125E+0	1.912059E+0	1.955637E+0	1.946058E+0	1.903963E+0	1.942503E+0	1.878828E+0	1.840799E+0	1.962673E+0	1.882494E+0	1.930726E+0	1.936818E+0	1.894296E+0	1.955438E+0	1.990009E+0	1.799735E+0	1.902389E+0	1.906115E+0	1.917262E+0	1.895376E+0	1.913531E+0	1.855085E+0	1.939367E+0	1.965827E+0	1.956515E+0	1.950620E+0	1.897845E+0	1.916804E+0	1.982128E+0	1.935164E+0	1.903832E+0	1.879612E+0	1.899139E+0	1.865687E+0	1.887833E+0	1.906834E+0	1.925779E+0	1.836571E+0	1.838489E+0	1.894505E+0	2.038883E+0	1.845229E+0	1.896719E+0	1.994458E+0	1.967252E+0	1.936522E+0	1.835944E+0	1.856523E+0	1.928469E+0	1.869793E+0	1.890498E+0	1.855197E+0	1.904991E+0	1.956626E+0	1.844483E+0	1.854787E+0	1.835026E+0	2.128285E+0
5.354110E+2	2.159888E+0	2.135083E+0	2.100834E+0	2.134625E+0	1.956517E+0	2.028797E+0	2.168207E+0	2.105105E+0	2.069586E+0	2.108865E+0	2.126426E+0	2.113847E+0	2.114176E+0	2.100783E+0	2.057820E+0	2.109879E+0	2.165212E+0	2.110240E+0	2.130422E+0	2.025186E+0	2.016076E+0	2.140958E+0	2.099680E+0	2.085619E+0	2.013391E+0	2.053261E+0	2.077327E+0	2.161796E+0	2.122933E+0	2.045765E+0	2.068002E+0	2.096156E+0	2.121871E+0	2.162706E+0	2.011169E+0	2.062207E+0	2.161856E+0	2.043575E+0	2.067596E+0	2.077195E+0	2.096970E+0	2.048199E+0	2.025103E+0	2.035733E+0	2.058651E+0	2.076620E+0	2.070464E+0	2.068998E+0	2.129632E+0	2.125287E+0	2.177680E+0	2.088998E+0	2.104111E+0	1.937489E+0	2.168433E+0	2.116098E+0	2.112887E+0	2.069830E+0	2.095314E+0	2.108473E+0	2.101942E+0	2.062978E+0	2.105026E+0	2.105057E+0	2.042567E+0	2.102502E+0	2.081241E+0	2.013680E+0	2.032251E+0	2.109733E+0	2.101033E+0	2.026795E+0	2.125536E+0	2.065057E+0	2.035177E+0	2.069558E+0	2.105573E+0	2.075513E+0	2.043164E+0	2.033704E+0	2.078543E+0	2.041328E+0	2.062547E+0	1.994212E+0	2.100915E+0	2.000349E+0	2.070948E+0	2.157872E+0	2.078762E+0	2.063665E+0	2.061813E+0	2.039119E+0	2.046321E+0	2.000779E+0	1.978181E+0	2.012922E+0	2.050776E+0	2.060737E+0	2.031851E+0	2.053440E+0	2.169275E+0	2.087401E+0	2.075015E+0	2.088386E+0	2.127321E+0	2.041869E+0	2.040570E+0	2.057040E+0	2.051539E+0	1.951952E+0	1.994680E+0	2.015723E+0	2.077661E+0	2.015284E+0	2.054465E+0	1.976839E+0	2.116062E+0	2.022609E+0	2.111084E+0	2.085633E+0	2.086708E+0	2.055321E+0	2.071898E+0	2.029958E+0	2.079593E+0	2.046099E+0	2.042182E+0	2.043271E+0	2.098153E+0	1.912775E+0	2.066050E+0	1.934645E+0	2.085795E+0	2.074174E+0	2.027939E+0	2.012455E+0	2.221448E+0	2.040537E+0	1.970195E+0	1.994031E+0	2.056404E+0	2.034000E+0	2.082489E+0	1.986647E+0	2.105291E+0	1.932629E+0	1.979180E+0	2.088143E+0	2.103852E+0	1.987876E+0	1.954950E+0	2.036238E+0	1.998998E+0	2.051602E+0	2.010873E+0	1.966420E+0	2.050763E+0	1.989542E+0	2.012493E+0	2.037045E+0	1.960812E+0	2.094698E+0	2.015687E+0	2.006161E+0	2.011418E+0	2.063622E+0
5.355630E+2	1.853389E+0	1.903656E+0	1.820923E+0	1.802432E+0	1.760830E+0	1.810768E+0	1.778861E+0	1.751793E+0	1.830187E+0	1.835026E+0	1.802215E+0	1.785550E+0	1.867216E+0	1.733083E+0	1.761103E+0	1.779810E+0	1.889773E+0	1.744032E+0	1.799546E+0	1.811426E+0	1.770037E+0	1.819663E+0	1.806890E+0	1.785218E+0	1.856179E+0	1.788432E+0	1.773565E+0	1.853737E+0	1.893929E+0	1.818705E+0	1.821069E+0	1.721230E+0	1.772178E+0	1.780024E+0	1.809541E+0	1.809827E+0	1.827446E+0	1.789603E+0	1.748769E+0	1.761413E+0	1.750183E+0	1.817154E+0	1.809245E+0	1.881584E+0	1.823530E+0	1.798229E+0	1.789278E+0	1.794344E+0	1.787701E+0	1.726759E+0	1.838057E+0	1.827106E+0	1.843456E+0	1.757104E+0	1.694311E+0	1.811060E+0	1.799274E+0	1.783627E+0	1.851691E+0	1.773218E+0	1.819802E+0	1.793129E+0	1.809021E+0	1.809197E+0	1.815485E+0	1.765649E+0	1.732821E+0	1.753458E+0	1.874475E+0	1.792005E+0	1.774831E+0	1.828121E+0	1.821761E+0	1.841441E+0	1.755693E+0	1.800028E+0	1.800894E+0	1.731032E+0	1.704263E+0	1.739819E+0	1.787409E+0	1.737949E+0	1.796728E+0	1.751587E+0	1.759084E+0	1.749315E+0	1.759542E+0	1.790561E+0	1.787373E+0	1.807831E+0	1.742305E+0	1.803451E+0	1.754877E+0	1.730028E+0	1.751036E+0	1.740124E+0	1.876103E+0	1.747585E+0	1.788369E+0	1.815699E+0	1.773182E+0	1.769471E+0	1.766558E+0	1.774212E+0	1.823673E+0	1.795685E+0	1.709476E+0	1.754664E+0	1.815574E+0	1.731638E+0	1.778318E+0	1.791604E+0	1.856826E+0	1.767678E+0	1.759259E+0	1.704386E+0	1.776312E+0	1.823692E+0	1.851169E+0	1.740225E+0	1.754545E+0	1.788082E+0	1.741829E+0	1.738720E+0	1.753791E+0	1.778132E+0	1.765154E+0	1.699192E+0	1.738526E+0	1.718627E+0	1.713324E+0	1.774418E+0	1.809149E+0	1.766807E+0	1.720418E+0	1.748358E+0	1.831553E+0	1.789365E+0	1.759384E+0	1.757146E+0	1.744220E+0	1.748941E+0	1.823102E+0	1.828865E+0	1.766507E+0	1.671657E+0	1.785977E+0	1.667940E+0	1.828320E+0	1.742531E+0	1.773036E+0	1.836240E+0	1.778545E+0	1.666025E+0	1.684767E+0	1.734226E+0	1.727540E+0	1.691103E+0	1.693890E+0	1.751985E+0	1.761457E+0	1.760883E+0	1.789860E+0	1.732848E+0	1.789100E+0	1.749018E+0
5.357250E+2	1.642150E+0	1.758957E+0	1.643188E+0	1.646008E+0	1.555305E+0	1.677628E+0	1.537269E+0	1.652492E+0	1.659954E+0	1.681384E+0	1.626187E+0	1.639399E+0	1.639781E+0	1.557285E+0	1.660744E+0	1.638691E+0	1.633915E+0	1.649572E+0	1.647677E+0	1.655816E+0	1.603911E+0	1.651512E+0	1.694587E+0	1.627070E+0	1.630526E+0	1.583329E+0	1.649672E+0	1.672780E+0	1.705401E+0	1.591780E+0	1.608955E+0	1.567854E+0	1.606069E+0	1.653822E+0	1.624441E+0	1.620960E+0	1.553361E+0	1.662231E+0	1.596701E+0	1.655595E+0	1.656338E+0	1.607264E+0	1.563950E+0	1.649321E+0	1.627504E+0	1.587384E+0	1.623100E+0	1.628659E+0	1.608235E+0	1.622585E+0	1.632255E+0	1.642078E+0	1.673967E+0	1.610986E+0	1.639867E+0	1.721683E+0	1.578416E+0	1.623661E+0	1.682864E+0	1.640835E+0	1.669435E+0	1.555233E+0	1.657200E+0	1.610498E+0	1.561940E+0	1.620994E+0	1.546698E+0	1.586992E+0	1.605930E+0	1.648219E+0	1.557585E+0	1.592593E+0	1.675443E+0	1.606866E+0	1.604854E+0	1.638964E+0	1.676242E+0	1.620781E+0	1.593281E+0	1.621496E+0	1.686403E+0	1.553122E+0	1.572480E+0	1.605336E+0	1.625062E+0	1.564627E+0	1.651308E+0	1.610568E+0	1.619368E+0	1.669642E+0	1.636005E+0	1.644125E+0	1.614779E+0	1.577596E+0	1.579797E+0	1.592365E+0	1.699541E+0	1.622429E+0	1.643349E+0	1.613483E+0	1.593484E+0	1.594795E+0	1.578034E+0	1.604001E+0	1.688312E+0	1.586123E+0	1.531359E+0	1.629360E+0	1.618653E+0	1.608902E+0	1.615997E+0	1.576780E+0	1.644695E+0	1.564717E+0	1.597077E+0	1.564562E+0	1.631039E+0	1.618890E+0	1.577332E+0	1.632749E+0	1.533057E+0	1.626840E+0	1.610237E+0	1.592990E+0	1.594955E+0	1.573977E+0	1.569770E+0	1.571979E+0	1.595480E+0	1.534825E+0	1.601286E+0	1.531105E+0	1.641430E+0	1.645304E+0	1.550155E+0	1.596962E+0	1.693295E+0	1.708799E+0	1.590851E+0	1.574550E+0	1.582544E+0	1.575385E+0	1.608844E+0	1.591482E+0	1.631083E+0	1.587266E+0	1.615255E+0	1.533508E+0	1.637008E+0	1.635637E+0	1.576150E+0	1.654191E+0	1.595395E+0	1.516961E+0	1.612711E+0	1.725475E+0	1.634687E+0	1.561691E+0	1.622192E+0	1.594371E+0	1.591606E+0	1.647987E+0	1.538713E+0	1.601763E+0	1.563313E+0	1.677618E+0
5.358550E+2	1.495684E+0	1.491787E+0	1.476339E+0	1.523774E+0	1.502691E+0	1.528590E+0	1.551848E+0	1.537067E+0	1.559822E+0	1.549956E+0	1.510505E+0	1.537853E+0	1.519339E+0	1.543231E+0	1.574772E+0	1.606247E+0	1.560600E+0	1.553426E+0	1.545630E+0	1.471500E+0	1.531503E+0	1.500884E+0	1.527762E+0	1.504589E+0	1.538050E+0	1.540290E+0	1.477201E+0	1.565640E+0	1.562040E+0	1.508020E+0	1.513911E+0	1.522013E+0	1.516397E+0	1.587835E+0	1.484736E+0	1.510612E+0	1.505535E+0	1.476666E+0	1.481521E+0	1.516464E+0	1.504022E+0	1.523613E+0	1.530283E+0	1.575596E+0	1.540798E+0	1.633263E+0	1.514323E+0	1.540401E+0	1.547695E+0	1.494806E+0	1.589469E+0	1.516336E+0	1.509504E+0	1.515478E+0	1.592860E+0	1.502700E+0	1.565223E+0	1.484153E+0	1.527031E+0	1.524552E+0	1.548892E+0	1.440403E+0	1.516508E+0	1.515363E+0	1.475723E+0	1.545507E+0	1.470166E+0	1.484163E+0	1.506210E+0	1.535506E+0	1.537217E+0	1.498682E+0	1.562698E+0	1.586362E+0	1.504087E+0	1.566370E+0	1.547959E+0	1.540757E+0	1.496583E+0	1.473691E+0	1.517512E+0	1.495825E+0	1.542685E+0	1.517793E+0	1.555480E+0	1.567210E+0	1.527979E+0	1.589517E+0	1.561735E+0	1.549925E+0	1.492576E+0	1.473938E+0	1.533211E+0	1.512089E+0	1.468013E+0	1.517651E+0	1.492228E+0	1.474732E+0	1.444698E+0	1.543411E+0	1.558809E+0	1.476111E+0	1.505714E+0	1.565665E+0	1.507314E+0	1.514072E+0	1.461933E+0	1.622260E+0	1.502384E+0	1.476049E+0	1.537380E+0	1.531592E+0	1.557923E+0	1.489875E+0	1.540597E+0	1.439448E+0	1.589680E+0	1.548104E+0	1.511561E+0	1.509352E+0	1.519682E+0	1.526497E+0	1.542604E+0	1.518714E+0	1.579580E+0	1.505650E+0	1.501617E+0	1.503719E+0	1.535790E+0	1.534657E+0	1.547538E+0	1.542852E+0	1.564791E+0	1.583109E+0	1.518530E+0	1.494314E+0	1.560817E+0	1.524715E+0	1.551072E+0	1.476088E+0	1.555405E+0	1.473957E+0	1.527279E+0	1.506135E+0	1.551351E+0	1.471015E+0	1.449919E+0	1.499831E+0	1.530968E+0	1.572337E+0	1.529607E+0	1.570163E+0	1.507156E+0	1.555874E+0	1.478555E+0	1.470855E+0	1.540612E+0	1.536315E+0	1.498097E+0	1.489123E+0	1.513030E+0	1.548988E+0	1.459923E+0	1.492142E+0	1.564510E+0	1.453139E+0
5.360120E+2	1.225664E+0	1.288440E+0	1.298977E+0	1.209573E+0	1.234853E+0	1.242751E+0	1.237890E+0	1.231645E+0	1.262927E+0	1.277161E+0	1.228942E+0	1.253101E+0	1.197162E+0	1.187603E+0	1.278677E+0	1.254351E+0	1.215849E+0	1.182584E+0	1.271574E+0	1.257638E+0	1.232228E+0	1.335200E+0	1.259733E+0	1.263925E+0	1.233993E+0	1.317435E+0	1.221583E+0	1.281787E+0	1.222812E+0	1.243581E+0	1.273307E+0	1.236837E+0	1.242683E+0	1.249958E+0	1.213249E+0	1.256131E+0	1.200642E+0	1.285382E+0	1.252893E+0	1.265548E+0	1.247813E+0	1.283123E+0	1.211247E+0	1.270576E+0	1.241252E+0	1.220907E+0	1.259771E+0	1.256594E+0	1.277583E+0	1.238548E+0	1.354276E+0	1.253174E+0	1.261287E+0	1.250009E+0	1.280617E+0	1.269508E+0	1.224896E+0	1.251036E+0	1.265574E+0	1.287003E+0	1.272554E+0	1.209591E+0	1.250804E+0	1.212014E+0	1.277193E+0	1.243342E+0	1.310074E+0	1.202832E+0	1.211750E+0	1.294849E+0	1.247641E+0	1.216549E+0	1.213905E+0	1.247811E+0	1.257713E+0	1.210390E+0	1.286179E+0	1.246996E+0	1.244262E+0	1.269686E+0	1.198392E+0	1.252696E+0	1.303729E+0	1.230726E+0	1.237135E+0	1.258443E+0	1.251916E+0	1.251822E+0	1.231986E+0	1.242770E+0	1.277515E+0	1.296237E+0	1.252452E+0	1.205237E+0	1.225765E+0	1.234007E+0	1.280188E+0	1.259758E+0	1.243885E+0	1.273221E+0	1.301136E+0	1.263650E+0	1.328913E+0	1.245090E+0	1.222770E+0	1.263283E+0	1.260011E+0	1.237171E+0	1.221527E+0	1.244069E+0	1.240883E+0	1.250505E+0	1.297845E+0	1.221032E+0	1.255035E+0	1.229838E+0	1.240530E+0	1.214862E+0	1.243465E+0	1.274068E+0	1.254668E+0	1.274575E+0	1.283242E+0	1.216284E+0	1.290274E+0	1.247404E+0	1.240525E+0	1.230581E+0	1.261630E+0	1.268437E+0	1.293406E+0	1.273768E+0	1.279962E+0	1.246895E+0	1.288544E+0	1.225774E+0	1.253702E+0	1.217183E+0	1.216454E+0	1.236560E+0	1.276339E+0	1.298974E+0	1.217417E+0	1.231255E+0	1.275698E+0	1.239563E+0	1.188482E+0	1.217134E+0	1.262795E+0	1.197957E+0	1.262763E+0	1.258820E+0	1.234544E+0	1.267849E+0	1.170015E+0	1.255013E+0	1.243696E+0	1.180399E+0	1.239028E+0	1.252187E+0	1.196480E+0	1.290738E+0	1.211901E+0	1.242053E+0	1.401529E+0	1.177772E+0
5.362680E+2	9.108999E-1	9.630464E-1	9.722358E-1	9.410608E-1	9.214796E-1	9.302664E-1	9.502964E-1	9.210275E-1	8.913637E-1	9.200222E-1	9.037289E-1	9.278809E-1	9.157894E-1	9.218341E-1	8.971387E-1	9.010634E-1	9.656063E-1	9.353058E-1	9.561117E-1	9.800844E-1	9.567520E-1	9.591460E-1	9.421097E-1	9.033187E-1	9.889599E-1	9.123210E-1	8.993871E-1	9.662732E-1	9.472772E-1	9.027655E-1	9.593536E-1	9.662624E-1	9.018056E-1	9.429215E-1	9.308112E-1	8.950005E-1	9.304866E-1	8.970782E-1	9.260857E-1	9.455955E-1	9.266392E-1	9.503704E-1	9.411554E-1	9.274890E-1	9.039300E-1	9.837610E-1	9.053084E-1	9.460609E-1	9.345869E-1	9.272058E-1	9.880690E-1	9.530204E-1	9.571775E-1	9.585442E-1	9.189228E-1	9.653984E-1	9.304744E-1	9.720692E-1	9.451268E-1	9.558328E-1	8.970921E-1	9.132756E-1	9.701849E-1	9.887752E-1	9.522033E-1	9.416760E-1	8.911681E-1	9.226209E-1	9.322614E-1	9.351900E-1	9.052280E-1	9.271695E-1	9.315778E-1	9.713476E-1	9.034299E-1	9.546974E-1	9.371659E-1	9.334979E-1	9.223966E-1	8.962463E-1	9.081975E-1	8.995611E-1	9.620297E-1	9.463986E-1	8.724068E-1	9.109395E-1	9.668592E-1	9.603476E-1	9.116846E-1	9.516460E-1	9.282793E-1	9.572452E-1	8.664953E-1	9.264823E-1	9.306584E-1	9.496535E-1	9.421325E-1	9.552423E-1	9.461630E-1	9.094370E-1	9.530909E-1	9.662125E-1	9.147879E-1	9.454475E-1	9.550773E-1	9.856938E-1	9.366907E-1	9.633191E-1	9.421226E-1	9.434705E-1	9.458212E-1	9.222976E-1	9.281740E-1	9.003000E-1	9.357053E-1	8.469225E-1	9.512788E-1	9.564770E-1	9.318158E-1	9.554446E-1	9.149730E-1	9.781016E-1	9.336376E-1	9.181765E-1	9.225822E-1	9.529790E-1	9.368193E-1	9.946893E-1	9.045048E-1	9.132832E-1	9.120992E-1	9.364177E-1	9.558358E-1	9.579476E-1	9.217047E-1	9.476613E-1	9.503827E-1	9.392598E-1	9.605198E-1	9.709417E-1	9.411750E-1	9.715389E-1	9.081952E-1	9.361989E-1	9.947450E-1	8.876010E-1	8.723723E-1	9.341020E-1	9.103075E-1	9.391161E-1	9.479003E-1	9.966786E-1	9.617185E-1	9.208977E-1	8.814182E-1	9.288126E-1	9.285141E-1	9.451214E-1	9.311779E-1	9.338930E-1	8.913515E-1	9.963743E-1	9.450571E-1	9.125409E-1	9.545710E-1	1.006190E+0
5.365250E+2	6.892543E-1	7.658564E-1	7.443586E-1	7.282237E-1	7.457565E-1	7.766058E-1	7.171989E-1	7.039789E-1	7.106990E-1	7.452522E-1	7.389117E-1	7.105120E-1	7.449242E-1	7.019373E-1	7.474694E-1	7.399083E-1	7.472690E-1	7.676959E-1	7.518951E-1	7.438912E-1	7.334953E-1	7.628156E-1	7.485997E-1	7.612588E-1	7.435012E-1	7.235499E-1	7.604726E-1	7.717725E-1	7.672120E-1	7.625698E-1	7.419554E-1	7.466098E-1	7.775860E-1	7.621322E-1	6.949746E-1	7.015938E-1	7.561716E-1	7.186775E-1	7.524067E-1	7.629641E-1	7.219096E-1	7.690305E-1	6.781038E-1	7.492047E-1	7.463994E-1	7.332594E-1	7.390902E-1	7.392608E-1	7.554883E-1	7.171964E-1	6.905018E-1	7.541492E-1	7.456161E-1	7.463951E-1	7.684745E-1	7.715723E-1	7.220330E-1	7.466331E-1	7.279606E-1	7.346983E-1	7.018685E-1	7.028658E-1	7.398401E-1	7.462078E-1	7.478520E-1	7.329212E-1	7.541062E-1	7.406019E-1	7.448013E-1	7.623450E-1	7.514120E-1	7.420355E-1	7.293537E-1	7.221529E-1	7.158829E-1	7.447198E-1	7.242136E-1	7.625692E-1	7.435599E-1	7.527251E-1	7.454401E-1	7.156971E-1	7.297572E-1	7.433674E-1	7.432033E-1	7.457822E-1	7.243840E-1	7.801851E-1	7.297628E-1	7.736129E-1	6.895522E-1	7.590354E-1	7.570958E-1	7.473560E-1	7.289764E-1	7.405528E-1	7.783702E-1	7.519259E-1	7.468846E-1	8.069355E-1	7.643050E-1	7.638331E-1	7.604745E-1	7.541746E-1	7.245455E-1	7.495286E-1	7.308634E-1	7.160160E-1	7.928282E-1	7.169714E-1	7.300694E-1	7.147222E-1	7.537373E-1	7.433104E-1	7.125558E-1	7.404561E-1	7.346601E-1	7.660237E-1	7.180808E-1	7.375985E-1	7.211408E-1	7.636966E-1	7.844264E-1	7.136907E-1	7.722596E-1	7.172542E-1	7.605914E-1	7.562350E-1	7.401408E-1	7.851406E-1	7.557543E-1	7.339983E-1	7.837261E-1	8.038595E-1	7.683201E-1	7.510438E-1	7.374057E-1	7.412493E-1	7.741097E-1	7.129690E-1	7.392110E-1	7.681674E-1	8.003594E-1	7.449211E-1	7.785429E-1	7.930626E-1	7.740339E-1	7.192462E-1	7.753618E-1	7.706490E-1	7.401791E-1	7.830114E-1	7.556964E-1	7.711237E-1	7.297413E-1	7.341168E-1	7.414001E-1	7.506672E-1	7.813071E-1	7.427733E-1	7.295643E-1	7.935639E-1	7.706018E-1	7.072088E-1	7.735788E-1	6.946260E-1
5.367810E+2	6.081195E-1	5.580418E-1	5.804048E-1	5.880049E-1	5.775325E-1	6.014408E-1	5.984307E-1	5.525898E-1	5.919939E-1	5.975475E-1	6.203571E-1	6.109201E-1	6.142138E-1	5.604081E-1	5.926456E-1	5.856756E-1	5.959233E-1	5.667155E-1	6.038116E-1	5.545444E-1	5.697833E-1	5.723680E-1	6.234952E-1	5.993071E-1	5.680946E-1	5.989507E-1	6.094135E-1	5.829279E-1	5.787103E-1	5.662790E-1	5.778554E-1	5.671510E-1	5.847679E-1	5.874497E-1	5.900890E-1	5.485003E-1	5.970287E-1	6.486215E-1	5.721236E-1	5.593491E-1	5.752791E-1	6.186213E-1	5.973029E-1	5.600887E-1	6.017643E-1	5.921109E-1	5.638230E-1	5.812755E-1	5.926556E-1	5.860162E-1	5.831385E-1	5.983311E-1	5.907085E-1	5.726342E-1	6.139600E-1	6.029004E-1	5.930597E-1	6.194555E-1	6.127430E-1	5.983031E-1	5.650537E-1	5.786753E-1	6.277868E-1	5.853092E-1	5.620824E-1	5.752779E-1	5.636266E-1	5.746701E-1	5.882026E-1	6.195461E-1	5.709238E-1	5.460575E-1	6.099177E-1	5.733513E-1	5.655324E-1	5.708099E-1	5.790620E-1	5.491231E-1	5.836507E-1	5.942211E-1	5.911530E-1	5.674825E-1	6.125065E-1	5.804928E-1	5.730067E-1	6.171414E-1	6.127067E-1	6.179164E-1	6.438876E-1	5.982374E-1	5.899515E-1	5.982202E-1	5.901183E-1	5.993741E-1	6.214232E-1	5.931553E-1	5.983752E-1	6.049901E-1	5.716548E-1	6.340309E-1	5.918072E-1	6.116724E-1	5.922803E-1	6.365000E-1	6.262206E-1	6.154018E-1	5.829494E-1	6.058760E-1	6.191475E-1	5.676058E-1	5.822509E-1	5.998191E-1	6.095662E-1	6.179602E-1	6.006083E-1	5.770041E-1	5.977279E-1	6.118029E-1	6.034828E-1	6.194131E-1	5.553820E-1	5.835422E-1	5.888645E-1	6.164303E-1	6.370113E-1	6.071233E-1	6.043452E-1	5.882030E-1	5.732358E-1	6.134858E-1	6.149519E-1	5.922780E-1	5.603191E-1	6.162245E-1	6.365872E-1	5.915845E-1	5.998173E-1	6.436737E-1	6.258510E-1	6.027305E-1	5.801570E-1	5.772950E-1	5.907420E-1	6.249441E-1	5.982671E-1	5.719923E-1	6.177471E-1	5.762701E-1	6.131763E-1	6.029998E-1	5.672996E-1	6.101417E-1	6.128635E-1	6.438454E-1	5.906614E-1	6.376482E-1	6.114481E-1	6.012365E-1	5.995532E-1	5.864881E-1	5.727691E-1	6.513399E-1	6.113691E-1	6.415783E-1	6.527425E-1	6.065478E-1
5.370120E+2	5.182512E-1	5.355352E-1	5.440144E-1	5.552083E-1	5.265485E-1	5.255603E-1	5.285931E-1	5.097287E-1	5.360234E-1	5.292811E-1	5.300337E-1	5.615340E-1	5.291398E-1	5.178501E-1	5.445151E-1	5.359179E-1	5.398060E-1	5.338799E-1	5.312547E-1	5.284426E-1	5.363944E-1	5.405949E-1	5.269860E-1	5.370118E-1	5.200773E-1	5.126054E-1	5.209595E-1	5.425507E-1	5.663431E-1	5.331469E-1	5.074462E-1	5.552240E-1	5.532215E-1	5.160533E-1	5.158633E-1	5.179514E-1	5.404509E-1	5.435043E-1	5.521057E-1	5.134232E-1	5.069455E-1	5.479680E-1	5.269926E-1	5.005253E-1	5.320282E-1	5.675204E-1	5.446026E-1	5.838601E-1	5.118407E-1	5.749961E-1	5.330929E-1	5.496440E-1	5.235429E-1	5.609843E-1	5.137046E-1	5.813411E-1	5.413375E-1	5.262035E-1	5.177766E-1	5.524237E-1	5.721524E-1	5.336111E-1	5.286382E-1	5.519595E-1	5.688717E-1	5.625016E-1	5.278035E-1	5.288693E-1	5.170290E-1	5.628350E-1	5.282605E-1	5.071343E-1	5.133573E-1	5.252993E-1	5.427545E-1	5.240808E-1	5.371727E-1	5.418082E-1	5.284107E-1	5.141480E-1	5.444033E-1	5.171186E-1	5.525664E-1	5.499066E-1	5.363998E-1	5.514089E-1	5.232671E-1	5.816058E-1	4.870728E-1	5.515749E-1	5.406242E-1	5.131705E-1	5.580383E-1	5.312048E-1	5.585293E-1	5.362137E-1	5.645531E-1	5.659554E-1	5.394298E-1	5.639000E-1	5.708891E-1	5.180575E-1	5.593097E-1	5.535253E-1	5.802212E-1	5.385944E-1	5.347775E-1	5.625816E-1	5.395898E-1	5.369866E-1	5.656080E-1	5.198742E-1	5.523760E-1	5.064227E-1	5.471309E-1	5.166023E-1	5.146443E-1	5.290965E-1	5.561334E-1	5.841746E-1	5.039998E-1	5.669853E-1	5.611495E-1	5.254313E-1	5.624335E-1	5.450374E-1	5.055650E-1	6.058096E-1	5.651694E-1	5.275892E-1	5.839075E-1	5.422973E-1	5.717912E-1	5.273429E-1	5.321474E-1	5.488497E-1	5.175743E-1	5.509384E-1	5.261748E-1	5.071905E-1	5.654570E-1	5.564305E-1	5.552210E-1	5.670564E-1	5.531617E-1	5.317924E-1	5.143430E-1	5.073293E-1	5.496644E-1	5.754452E-1	5.300709E-1	5.359153E-1	5.204509E-1	5.525272E-1	5.537552E-1	5.618047E-1	5.315691E-1	5.522439E-1	5.365494E-1	5.661768E-1	5.324249E-1	5.396493E-1	5.826001E-1	5.538822E-1	5.729248E-1	6.509412E-1
5.372740E+2	5.020512E-1	5.087259E-1	4.693125E-1	5.087146E-1	4.947261E-1	4.968532E-1	4.781246E-1	5.265506E-1	5.243085E-1	4.965756E-1	4.918323E-1	5.076002E-1	4.960595E-1	5.186428E-1	5.064466E-1	5.202304E-1	5.358421E-1	5.025060E-1	5.257605E-1	5.038544E-1	5.105869E-1	5.415380E-1	5.380334E-1	5.286861E-1	5.005960E-1	4.994110E-1	5.050580E-1	4.832882E-1	5.152021E-1	4.690163E-1	5.153609E-1	5.067864E-1	5.019736E-1	5.112428E-1	4.763622E-1	4.987628E-1	4.967086E-1	4.923308E-1	5.519297E-1	5.208515E-1	5.225969E-1	5.002537E-1	4.755941E-1	5.184044E-1	5.341243E-1	5.046435E-1	4.957060E-1	5.131900E-1	5.206123E-1	4.866669E-1	5.389649E-1	5.162660E-1	5.197427E-1	5.177053E-1	5.224416E-1	5.144740E-1	5.010906E-1	5.386401E-1	5.025143E-1	5.241275E-1	5.151888E-1	5.106031E-1	5.253350E-1	4.824106E-1	5.282516E-1	4.814397E-1	5.048842E-1	4.821353E-1	5.160304E-1	5.102002E-1	4.956921E-1	5.262709E-1	4.847401E-1	4.564293E-1	5.027844E-1	4.783656E-1	4.924715E-1	5.010336E-1	5.137495E-1	5.069611E-1	5.094432E-1	5.143026E-1	5.085918E-1	5.454098E-1	4.930068E-1	5.174244E-1	5.388421E-1	5.349536E-1	5.132652E-1	5.118472E-1	5.201828E-1	4.965798E-1	5.116503E-1	4.965998E-1	4.914552E-1	4.680333E-1	5.212827E-1	5.274591E-1	5.099403E-1	5.189518E-1	4.898702E-1	4.958509E-1	5.307561E-1	5.098095E-1	5.066279E-1	5.208782E-1	5.394775E-1	5.331904E-1	5.120878E-1	5.375159E-1	5.271656E-1	4.501563E-1	4.990765E-1	5.246894E-1	5.380407E-1	4.679069E-1	5.225610E-1	5.316412E-1	5.573076E-1	5.159874E-1	4.805281E-1	4.900815E-1	4.916602E-1	4.927981E-1	5.311479E-1	4.839706E-1	4.712630E-1	5.171975E-1	5.303268E-1	4.934394E-1	4.923810E-1	4.642904E-1	5.252618E-1	5.314796E-1	5.254806E-1	4.919579E-1	5.072594E-1	5.282344E-1	5.265310E-1	5.075643E-1	5.258935E-1	5.192186E-1	5.012422E-1	5.013738E-1	5.634646E-1	5.047381E-1	5.027928E-1	4.793919E-1	5.590732E-1	5.618304E-1	5.393161E-1	5.115940E-1	5.392385E-1	5.594153E-1	5.137196E-1	5.271039E-1	5.065023E-1	5.289140E-1	5.124345E-1	5.165621E-1	5.272862E-1	5.301110E-1	5.355166E-1	5.301227E-1	4.551606E-1	5.801182E-1
5.375110E+2	5.318939E-1	5.532423E-1	6.010940E-1	5.571670E-1	5.687823E-1	5.444857E-1	5.271351E-1	5.484421E-1	6.125887E-1	5.696236E-1	6.139538E-1	5.725385E-1	5.773533E-1	5.481660E-1	5.884442E-1	6.086842E-1	5.944645E-1	5.808274E-1	6.009454E-1	5.803359E-1	5.820073E-1	5.867933E-1	5.708338E-1	6.036229E-1	5.775794E-1	5.577749E-1	5.893842E-1	5.484026E-1	5.985070E-1	5.886072E-1	5.863655E-1	5.601247E-1	6.058104E-1	5.836434E-1	5.382181E-1	5.653844E-1	5.458363E-1	5.737631E-1	6.043438E-1	6.045452E-1	5.679544E-1	5.404581E-1	5.627320E-1	5.891822E-1	5.779626E-1	5.202852E-1	6.025852E-1	5.609411E-1	5.636776E-1	6.254005E-1	5.797096E-1	5.771636E-1	5.958735E-1	5.596565E-1	5.660232E-1	5.582752E-1	5.718616E-1	5.530893E-1	5.844590E-1	5.754029E-1	5.495793E-1	5.364815E-1	5.845707E-1	5.667759E-1	5.683365E-1	5.879682E-1	5.691873E-1	5.776051E-1	5.670747E-1	5.564978E-1	5.711384E-1	5.628476E-1	6.007962E-1	5.997316E-1	5.261521E-1	5.840013E-1	5.919325E-1	5.525402E-1	5.577638E-1	5.327641E-1	5.751200E-1	5.924697E-1	5.591506E-1	5.735688E-1	5.771632E-1	5.835402E-1	6.027828E-1	6.070991E-1	6.050836E-1	5.832370E-1	5.911547E-1	6.008945E-1	5.811457E-1	5.700425E-1	5.545330E-1	5.669106E-1	6.051269E-1	5.955485E-1	5.703016E-1	5.713117E-1	6.058730E-1	5.862938E-1	5.730394E-1	5.644728E-1	5.526292E-1	5.735977E-1	5.685866E-1	5.342566E-1	5.727782E-1	5.368121E-1	5.858526E-1	5.891286E-1	5.583651E-1	5.670804E-1	5.673993E-1	5.132442E-1	5.736312E-1	5.814450E-1	6.053744E-1	6.288969E-1	5.480798E-1	5.802277E-1	5.562028E-1	5.672281E-1	5.637607E-1	5.895596E-1	5.922708E-1	5.979592E-1	5.791035E-1	5.903605E-1	5.885930E-1	5.516521E-1	5.883730E-1	5.893284E-1	6.036298E-1	5.951074E-1	5.930727E-1	5.887794E-1	6.165414E-1	5.788847E-1	6.290416E-1	5.688681E-1	5.780108E-1	5.843713E-1	5.518894E-1	5.694979E-1	6.085699E-1	6.067684E-1	6.213162E-1	5.756225E-1	5.839242E-1	5.786888E-1	6.140892E-1	5.906276E-1	6.031482E-1	5.835533E-1	5.508395E-1	5.328758E-1	5.656383E-1	5.686254E-1	5.715925E-1	6.049425E-1	6.040520E-1	5.572482E-1	5.462427E-1	6.216625E-1
5.377840E+2	6.847607E-1	6.491249E-1	6.718448E-1	6.397264E-1	6.468989E-1	6.479444E-1	6.289718E-1	6.772877E-1	6.889339E-1	6.372000E-1	6.774058E-1	6.789480E-1	6.492094E-1	6.407049E-1	6.526267E-1	6.743622E-1	6.746822E-1	6.885638E-1	6.994473E-1	6.250164E-1	6.645762E-1	6.875550E-1	6.743305E-1	6.626329E-1	6.718925E-1	6.561554E-1	6.518313E-1	7.077719E-1	6.893298E-1	6.658128E-1	6.319075E-1	6.774757E-1	6.784690E-1	6.381662E-1	6.478466E-1	6.823471E-1	6.609959E-1	6.593974E-1	7.086606E-1	6.760248E-1	6.679101E-1	6.877077E-1	6.907365E-1	6.764642E-1	6.717167E-1	6.909582E-1	7.008562E-1	6.278931E-1	7.024795E-1	6.538269E-1	6.711317E-1	6.235496E-1	6.617269E-1	6.323846E-1	6.749400E-1	6.904516E-1	6.796335E-1	6.978518E-1	6.279036E-1	6.974504E-1	6.409067E-1	6.625707E-1	6.843609E-1	6.733236E-1	6.750268E-1	7.153754E-1	6.973321E-1	6.755280E-1	6.341673E-1	6.548897E-1	6.344268E-1	6.637270E-1	6.327205E-1	6.533093E-1	6.722369E-1	6.878081E-1	6.503429E-1	6.670186E-1	6.562467E-1	6.920044E-1	6.786558E-1	7.010768E-1	6.757664E-1	6.636901E-1	6.484856E-1	6.641085E-1	6.904893E-1	6.849351E-1	7.005974E-1	6.830793E-1	6.316063E-1	6.826618E-1	6.360852E-1	6.181218E-1	6.748188E-1	6.417022E-1	6.568757E-1	6.660097E-1	6.959498E-1	6.786664E-1	6.723587E-1	6.476428E-1	6.976715E-1	6.834025E-1	6.632271E-1	6.893255E-1	6.482919E-1	6.272340E-1	6.807563E-1	6.500997E-1	6.313818E-1	6.711405E-1	6.759843E-1	6.869309E-1	6.719569E-1	6.214767E-1	6.504331E-1	6.801066E-1	6.906812E-1	6.551096E-1	6.124892E-1	6.486077E-1	6.769085E-1	6.765257E-1	6.749644E-1	6.697941E-1	6.479658E-1	6.427609E-1	6.817245E-1	6.445982E-1	6.703625E-1	6.490841E-1	7.076092E-1	6.789006E-1	6.663317E-1	6.560780E-1	6.863557E-1	6.733393E-1	6.398896E-1	6.861329E-1	6.693611E-1	6.876327E-1	6.960418E-1	6.690799E-1	6.984909E-1	6.746484E-1	6.459330E-1	6.866099E-1	7.016395E-1	6.837253E-1	6.796020E-1	6.608896E-1	7.085829E-1	6.537820E-1	6.522352E-1	6.931925E-1	6.463884E-1	6.604044E-1	6.996981E-1	6.847151E-1	6.404040E-1	6.975664E-1	6.632521E-1	6.167250E-1	6.886938E-1	7.324502E-1
5.380160E+2	7.603287E-1	7.628191E-1	8.186554E-1	7.065394E-1	7.385550E-1	7.486266E-1	7.794152E-1	7.252279E-1	7.089557E-1	7.440118E-1	7.176630E-1	6.858791E-1	7.004802E-1	7.530879E-1	7.195225E-1	7.780929E-1	7.392137E-1	7.363829E-1	7.694156E-1	7.163459E-1	7.507215E-1	7.403630E-1	7.560073E-1	7.362724E-1	7.421503E-1	7.807235E-1	7.601962E-1	7.714643E-1	7.582442E-1	7.303192E-1	7.597635E-1	7.687568E-1	7.628822E-1	7.554340E-1	7.578429E-1	7.196867E-1	7.459626E-1	7.560787E-1	7.505691E-1	7.395167E-1	7.210945E-1	7.030627E-1	7.300100E-1	7.699479E-1	7.388643E-1	7.056229E-1	7.392646E-1	7.456160E-1	7.143451E-1	7.383535E-1	7.262796E-1	7.633458E-1	7.529378E-1	7.099474E-1	7.421352E-1	7.492131E-1	7.266695E-1	7.098870E-1	7.660941E-1	7.555105E-1	7.749863E-1	7.200117E-1	7.524585E-1	7.740737E-1	7.338273E-1	7.424127E-1	7.900994E-1	7.072947E-1	7.328101E-1	7.610445E-1	7.380729E-1	7.624944E-1	7.437444E-1	7.438681E-1	7.348124E-1	7.839371E-1	7.732994E-1	7.700080E-1	7.158939E-1	7.515594E-1	8.003461E-1	7.299524E-1	7.799179E-1	7.733886E-1	7.746509E-1	7.359033E-1	7.550005E-1	7.271100E-1	7.787675E-1	7.768097E-1	7.500881E-1	7.508504E-1	7.288140E-1	7.422846E-1	7.540865E-1	7.432357E-1	8.005471E-1	7.544893E-1	7.238751E-1	7.992628E-1	7.593107E-1	7.742352E-1	7.251338E-1	8.369232E-1	7.172091E-1	8.102111E-1	7.333015E-1	7.622843E-1	7.188237E-1	7.553854E-1	7.269906E-1	7.736198E-1	7.435100E-1	7.410764E-1	7.348980E-1	7.400843E-1	7.472370E-1	7.735190E-1	7.245031E-1	7.736003E-1	7.435618E-1	7.743700E-1	7.083158E-1	7.415772E-1	7.624322E-1	7.418916E-1	7.315581E-1	7.435427E-1	7.243606E-1	7.106498E-1	7.540177E-1	7.386783E-1	7.434448E-1	7.535617E-1	7.286648E-1	7.537076E-1	7.318556E-1	7.275615E-1	7.489775E-1	7.458163E-1	7.409986E-1	7.737983E-1	7.652237E-1	7.624247E-1	7.889740E-1	7.691396E-1	7.267550E-1	7.100031E-1	7.666119E-1	7.395196E-1	7.049888E-1	7.819729E-1	7.645154E-1	7.819204E-1	7.208349E-1	7.338391E-1	7.602437E-1	7.336681E-1	7.529676E-1	6.992680E-1	7.090098E-1	7.659821E-1	7.600856E-1	7.512450E-1	7.307709E-1	7.804589E-1
5.382850E+2	8.475251E-1	8.362312E-1	8.666388E-1	8.652541E-1	8.043408E-1	8.727972E-1	8.933482E-1	9.023547E-1	8.745306E-1	8.926746E-1	8.857093E-1	8.656189E-1	8.951528E-1	8.615089E-1	9.048605E-1	8.804290E-1	9.252450E-1	8.739280E-1	8.763805E-1	8.699024E-1	8.798557E-1	8.863593E-1	8.557775E-1	8.548466E-1	9.051381E-1	8.617171E-1	8.691109E-1	9.182937E-1	8.694314E-1	8.482837E-1	8.911339E-1	8.680037E-1	9.050034E-1	8.974474E-1	8.418358E-1	8.268758E-1	8.759288E-1	8.688189E-1	8.376116E-1	8.821935E-1	8.815658E-1	8.497446E-1	8.301194E-1	9.015484E-1	8.459364E-1	8.438743E-1	8.498881E-1	8.991038E-1	8.571238E-1	8.861435E-1	9.177737E-1	8.926024E-1	8.976250E-1	8.631231E-1	9.045552E-1	8.771138E-1	8.533490E-1	9.096655E-1	8.283111E-1	8.730026E-1	7.933954E-1	8.004600E-1	8.448254E-1	8.829275E-1	8.877485E-1	8.494378E-1	8.159732E-1	8.450764E-1	8.325437E-1	8.857873E-1	8.415933E-1	8.255365E-1	8.585219E-1	8.194219E-1	8.531006E-1	8.534480E-1	8.825026E-1	8.697093E-1	8.384088E-1	8.635793E-1	8.769282E-1	8.613077E-1	9.274419E-1	8.814924E-1	8.599632E-1	8.530462E-1	8.962964E-1	8.905524E-1	8.832534E-1	9.138039E-1	8.644230E-1	8.670520E-1	8.802840E-1	8.370436E-1	8.692937E-1	8.483209E-1	8.715934E-1	8.792235E-1	8.832329E-1	9.238538E-1	8.478503E-1	8.703801E-1	8.878687E-1	8.872804E-1	8.521632E-1	9.188823E-1	8.713831E-1	8.882670E-1	8.483090E-1	8.905496E-1	8.933335E-1	9.039201E-1	8.729371E-1	8.442451E-1	8.559107E-1	8.228589E-1	8.870066E-1	8.598173E-1	8.960024E-1	9.111577E-1	8.410269E-1	9.277344E-1	8.955630E-1	8.101960E-1	8.953713E-1	8.906389E-1	8.933516E-1	8.832068E-1	8.820966E-1	8.799555E-1	8.421289E-1	8.807842E-1	9.333472E-1	8.904944E-1	9.257174E-1	9.342556E-1	8.479127E-1	9.216790E-1	8.322395E-1	8.499329E-1	8.988348E-1	8.538480E-1	9.122982E-1	9.389193E-1	8.699464E-1	9.009219E-1	8.508907E-1	8.332397E-1	9.003752E-1	8.376372E-1	8.828962E-1	8.446554E-1	8.730651E-1	8.537023E-1	8.233358E-1	8.536702E-1	8.733809E-1	8.082395E-1	8.615896E-1	9.065746E-1	8.655974E-1	9.171977E-1	8.125928E-1	8.981790E-1	7.984878E-1	9.233643E-1
5.385170E+2	1.094114E+0	1.057486E+0	1.056099E+0	1.089204E+0	1.039018E+0	1.021249E+0	1.038419E+0	1.059521E+0	1.087806E+0	1.022589E+0	1.030499E+0	1.068659E+0	1.059707E+0	1.067036E+0	1.054735E+0	1.094722E+0	1.097949E+0	1.038769E+0	1.062287E+0	1.020957E+0	1.047881E+0	1.098894E+0	1.037730E+0	1.028498E+0	1.062587E+0	1.039316E+0	1.077904E+0	9.972400E-1	1.027600E+0	9.921592E-1	1.051372E+0	1.069616E+0	1.124607E+0	1.060117E+0	1.051762E+0	1.067036E+0	1.045523E+0	1.061895E+0	1.056432E+0	1.070267E+0	1.003202E+0	1.073281E+0	1.034583E+0	1.089675E+0	1.075588E+0	1.042335E+0	1.063519E+0	1.076815E+0	1.069827E+0	1.072139E+0	1.099204E+0	1.103554E+0	1.026159E+0	1.020307E+0	1.075120E+0	1.062912E+0	1.011466E+0	1.076352E+0	1.073130E+0	1.052499E+0	1.079345E+0	1.024118E+0	1.055312E+0	1.066042E+0	1.092666E+0	1.059713E+0	1.024601E+0	1.052015E+0	1.059231E+0	1.114316E+0	1.034828E+0	1.063519E+0	1.076167E+0	1.035298E+0	9.889193E-1	1.054776E+0	1.050908E+0	1.028009E+0	1.044597E+0	1.049397E+0	1.094579E+0	1.086135E+0	1.062479E+0	1.082176E+0	1.026246E+0	1.024526E+0	1.071441E+0	1.060110E+0	1.076204E+0	1.175015E+0	1.080572E+0	1.119496E+0	1.092258E+0	9.975953E-1	1.051443E+0	1.092689E+0	1.101028E+0	1.084303E+0	1.010156E+0	1.044711E+0	1.077717E+0	1.032171E+0	1.010669E+0	1.092504E+0	1.105420E+0	1.053298E+0	1.036194E+0	1.060698E+0	1.076936E+0	1.038202E+0	1.003867E+0	1.062576E+0	1.088938E+0	1.052892E+0	1.027501E+0	1.069140E+0	1.081468E+0	1.065618E+0	1.104356E+0	1.081192E+0	9.984763E-1	1.091193E+0	1.026669E+0	1.143773E+0	1.082356E+0	1.023033E+0	1.074358E+0	1.057071E+0	1.030614E+0	1.060313E+0	1.084080E+0	1.026649E+0	1.104570E+0	1.096377E+0	1.041264E+0	1.071797E+0	1.080351E+0	1.092076E+0	1.061913E+0	1.080939E+0	1.066406E+0	1.060947E+0	1.067476E+0	1.036992E+0	1.070700E+0	1.064778E+0	1.074664E+0	1.066755E+0	1.159332E+0	1.034888E+0	1.031908E+0	1.122753E+0	9.978997E-1	1.066772E+0	1.032611E+0	1.051268E+0	1.034508E+0	1.018986E+0	1.055683E+0	1.054252E+0	1.070882E+0	1.095743E+0	1.044740E+0	1.043549E+0	1.012805E+0	1.078854E+0
5.387600E+2	1.310844E+0	1.267657E+0	1.239534E+0	1.277831E+0	1.297260E+0	1.286577E+0	1.306452E+0	1.240965E+0	1.274326E+0	1.266538E+0	1.303114E+0	1.294772E+0	1.280296E+0	1.347206E+0	1.289990E+0	1.257251E+0	1.331110E+0	1.298725E+0	1.274424E+0	1.279349E+0	1.260085E+0	1.293539E+0	1.295875E+0	1.292510E+0	1.331830E+0	1.232512E+0	1.337599E+0	1.327852E+0	1.354388E+0	1.253981E+0	1.275549E+0	1.270487E+0	1.332057E+0	1.271820E+0	1.327856E+0	1.312429E+0	1.280464E+0	1.288946E+0	1.312166E+0	1.262927E+0	1.314785E+0	1.299904E+0	1.273474E+0	1.368010E+0	1.300642E+0	1.257173E+0	1.310565E+0	1.345654E+0	1.270072E+0	1.295799E+0	1.332054E+0	1.289259E+0	1.408746E+0	1.218131E+0	1.259411E+0	1.301641E+0	1.262823E+0	1.275266E+0	1.278644E+0	1.280770E+0	1.306532E+0	1.324594E+0	1.318431E+0	1.255025E+0	1.308847E+0	1.312115E+0	1.287734E+0	1.262409E+0	1.292827E+0	1.320079E+0	1.273236E+0	1.222680E+0	1.282954E+0	1.251982E+0	1.269582E+0	1.300776E+0	1.351434E+0	1.247265E+0	1.273165E+0	1.311035E+0	1.287938E+0	1.313973E+0	1.265815E+0	1.268393E+0	1.248809E+0	1.282977E+0	1.238879E+0	1.315001E+0	1.279582E+0	1.339156E+0	1.268244E+0	1.288606E+0	1.268084E+0	1.253917E+0	1.268470E+0	1.311599E+0	1.289932E+0	1.232650E+0	1.239211E+0	1.318753E+0	1.296573E+0	1.224290E+0	1.316767E+0	1.264468E+0	1.255683E+0	1.285536E+0	1.301170E+0	1.324735E+0	1.279695E+0	1.257371E+0	1.265383E+0	1.281343E+0	1.324028E+0	1.279765E+0	1.262285E+0	1.233993E+0	1.262366E+0	1.355034E+0	1.318635E+0	1.314988E+0	1.247558E+0	1.278266E+0	1.293819E+0	1.206412E+0	1.321257E+0	1.326633E+0	1.269796E+0	1.267881E+0	1.259769E+0	1.286890E+0	1.263733E+0	1.214537E+0	1.274722E+0	1.361251E+0	1.280475E+0	1.303019E+0	1.288759E+0	1.194340E+0	1.203650E+0	1.308590E+0	1.296609E+0	1.271035E+0	1.280238E+0	1.303394E+0	1.334452E+0	1.318493E+0	1.282767E+0	1.298766E+0	1.245960E+0	1.256394E+0	1.279579E+0	1.224036E+0	1.301469E+0	1.278099E+0	1.244537E+0	1.289191E+0	1.300161E+0	1.244215E+0	1.259828E+0	1.241074E+0	1.208286E+0	1.300553E+0	1.259361E+0	1.316013E+0	1.253540E+0	1.297564E+0
5.390340E+2	1.515349E+0	1.431681E+0	1.514642E+0	1.474054E+0	1.444914E+0	1.434610E+0	1.466730E+0	1.424255E+0	1.492287E+0	1.443594E+0	1.455080E+0	1.477545E+0	1.489497E+0	1.432058E+0	1.479035E+0	1.438503E+0	1.474779E+0	1.432117E+0	1.513321E+0	1.455252E+0	1.453487E+0	1.478283E+0	1.519607E+0	1.482630E+0	1.459456E+0	1.456595E+0	1.508770E+0	1.549423E+0	1.446474E+0	1.458489E+0	1.452167E+0	1.501443E+0	1.509815E+0	1.465648E+0	1.467637E+0	1.412683E+0	1.431413E+0	1.415715E+0	1.467520E+0	1.442528E+0	1.463763E+0	1.437227E+0	1.472041E+0	1.455977E+0	1.436923E+0	1.487404E+0	1.422241E+0	1.448779E+0	1.524301E+0	1.394020E+0	1.465186E+0	1.467881E+0	1.441245E+0	1.430579E+0	1.528204E+0	1.503403E+0	1.497968E+0	1.465018E+0	1.470246E+0	1.487333E+0	1.441143E+0	1.392211E+0	1.512045E+0	1.477687E+0	1.474984E+0	1.427308E+0	1.461208E+0	1.459331E+0	1.488208E+0	1.485760E+0	1.531677E+0	1.493808E+0	1.434857E+0	1.402567E+0	1.423392E+0	1.465705E+0	1.481132E+0	1.463713E+0	1.407307E+0	1.445775E+0	1.437352E+0	1.493483E+0	1.441887E+0	1.452249E+0	1.443555E+0	1.434677E+0	1.549193E+0	1.560966E+0	1.463862E+0	1.543774E+0	1.492492E+0	1.470071E+0	1.432175E+0	1.461139E+0	1.445321E+0	1.453343E+0	1.524901E+0	1.427215E+0	1.411762E+0	1.519423E+0	1.480092E+0	1.415280E+0	1.432475E+0	1.447760E+0	1.454599E+0	1.452244E+0	1.411599E+0	1.482113E+0	1.415764E+0	1.430421E+0	1.436702E+0	1.430822E+0	1.441027E+0	1.455975E+0	1.425159E+0	1.381127E+0	1.429697E+0	1.445410E+0	1.477152E+0	1.483306E+0	1.395558E+0	1.438563E+0	1.472459E+0	1.420811E+0	1.475115E+0	1.386735E+0	1.426638E+0	1.418505E+0	1.438880E+0	1.416753E+0	1.479115E+0	1.497621E+0	1.431240E+0	1.501331E+0	1.400948E+0	1.426010E+0	1.474741E+0	1.452789E+0	1.470249E+0	1.448952E+0	1.442888E+0	1.475245E+0	1.426079E+0	1.414043E+0	1.534377E+0	1.375987E+0	1.422364E+0	1.452861E+0	1.484715E+0	1.454742E+0	1.474975E+0	1.470070E+0	1.398422E+0	1.480331E+0	1.364310E+0	1.398011E+0	1.414194E+0	1.500221E+0	1.433944E+0	1.472716E+0	1.349741E+0	1.540239E+0	1.495356E+0	1.493016E+0	1.380367E+0	1.402508E+0
5.392670E+2	1.671235E+0	1.634271E+0	1.683101E+0	1.689369E+0	1.595263E+0	1.667336E+0	1.640941E+0	1.625798E+0	1.658016E+0	1.619378E+0	1.678176E+0	1.693008E+0	1.661524E+0	1.640615E+0	1.641873E+0	1.732663E+0	1.678912E+0	1.646213E+0	1.750692E+0	1.689047E+0	1.661684E+0	1.668258E+0	1.728651E+0	1.642015E+0	1.705629E+0	1.630670E+0	1.711542E+0	1.734326E+0	1.725136E+0	1.634879E+0	1.680291E+0	1.679507E+0	1.632000E+0	1.643046E+0	1.623957E+0	1.686750E+0	1.698001E+0	1.585270E+0	1.637929E+0	1.677505E+0	1.638187E+0	1.570028E+0	1.630537E+0	1.720640E+0	1.691799E+0	1.617186E+0	1.712471E+0	1.666384E+0	1.673375E+0	1.710301E+0	1.679175E+0	1.617904E+0	1.704840E+0	1.619111E+0	1.639820E+0	1.638833E+0	1.593134E+0	1.606795E+0	1.668332E+0	1.674996E+0	1.647901E+0	1.573857E+0	1.675030E+0	1.609705E+0	1.655466E+0	1.641259E+0	1.720563E+0	1.631046E+0	1.685410E+0	1.631197E+0	1.589003E+0	1.599351E+0	1.679470E+0	1.560890E+0	1.669865E+0	1.596447E+0	1.631893E+0	1.640897E+0	1.645889E+0	1.658226E+0	1.684265E+0	1.674958E+0	1.677466E+0	1.635702E+0	1.651602E+0	1.723241E+0	1.646034E+0	1.715444E+0	1.628058E+0	1.676806E+0	1.636387E+0	1.671795E+0	1.608197E+0	1.576635E+0	1.627765E+0	1.633436E+0	1.668475E+0	1.716746E+0	1.626072E+0	1.613949E+0	1.643504E+0	1.575442E+0	1.652466E+0	1.658677E+0	1.678986E+0	1.716297E+0	1.602894E+0	1.641772E+0	1.604245E+0	1.578210E+0	1.594752E+0	1.628955E+0	1.604332E+0	1.684726E+0	1.589808E+0	1.516120E+0	1.650581E+0	1.666866E+0	1.689081E+0	1.576235E+0	1.555826E+0	1.714380E+0	1.654926E+0	1.590759E+0	1.685270E+0	1.581919E+0	1.592498E+0	1.647808E+0	1.605778E+0	1.639592E+0	1.583245E+0	1.650502E+0	1.675925E+0	1.684409E+0	1.634724E+0	1.615800E+0	1.622025E+0	1.592253E+0	1.553058E+0	1.599961E+0	1.638742E+0	1.626410E+0	1.691339E+0	1.653422E+0	1.702352E+0	1.583876E+0	1.668761E+0	1.581742E+0	1.572811E+0	1.607309E+0	1.580299E+0	1.667509E+0	1.672278E+0	1.587374E+0	1.573433E+0	1.592066E+0	1.607086E+0	1.570974E+0	1.601218E+0	1.583168E+0	1.590483E+0	1.702125E+0	1.622045E+0	1.567131E+0	1.580810E+0	1.597860E+0
5.395320E+2	1.869453E+0	1.814593E+0	1.840398E+0	1.893704E+0	1.870677E+0	1.773830E+0	1.826431E+0	1.775482E+0	1.860972E+0	1.848403E+0	1.816013E+0	1.848088E+0	1.867929E+0	1.765965E+0	1.855008E+0	1.859756E+0	1.884800E+0	1.787238E+0	1.962776E+0	1.770260E+0	1.797110E+0	1.785868E+0	1.823489E+0	1.914731E+0	1.826580E+0	1.795700E+0	1.829878E+0	1.931344E+0	1.905211E+0	1.746895E+0	1.826814E+0	1.847382E+0	1.801578E+0	1.809641E+0	1.824176E+0	1.813038E+0	1.829995E+0	1.783591E+0	1.778352E+0	1.868488E+0	1.764010E+0	1.810586E+0	1.860729E+0	1.874619E+0	1.898016E+0	1.836207E+0	1.796113E+0	1.775238E+0	1.787761E+0	1.785404E+0	1.897393E+0	1.827595E+0	1.770873E+0	1.730979E+0	1.807698E+0	1.829958E+0	1.807112E+0	1.828762E+0	1.815240E+0	1.898190E+0	1.873057E+0	1.768638E+0	1.852975E+0	1.886602E+0	1.836689E+0	1.828375E+0	1.763163E+0	1.789781E+0	1.858783E+0	1.847085E+0	1.848724E+0	1.823560E+0	1.815777E+0	1.799167E+0	1.822958E+0	1.767105E+0	1.806176E+0	1.720869E+0	1.845509E+0	1.775816E+0	1.838376E+0	1.796014E+0	1.836594E+0	1.803404E+0	1.772583E+0	1.729711E+0	1.827420E+0	1.868426E+0	1.799835E+0	1.793495E+0	1.803745E+0	1.848911E+0	1.827823E+0	1.762958E+0	1.780540E+0	1.752244E+0	1.853800E+0	1.726565E+0	1.815484E+0	1.886315E+0	1.747130E+0	1.755496E+0	1.778983E+0	1.817248E+0	1.718984E+0	1.794650E+0	1.768730E+0	1.878949E+0	1.824516E+0	1.779999E+0	1.783260E+0	1.794290E+0	1.833220E+0	1.816031E+0	1.772386E+0	1.738828E+0	1.805017E+0	1.795416E+0	1.806305E+0	1.820941E+0	1.736623E+0	1.812723E+0	1.748589E+0	1.738773E+0	1.845787E+0	1.801619E+0	1.757720E+0	1.722163E+0	1.779142E+0	1.864006E+0	1.802944E+0	1.775210E+0	1.789541E+0	1.853196E+0	1.779117E+0	1.845885E+0	1.825977E+0	1.821037E+0	1.835764E+0	1.769780E+0	1.810738E+0	1.789775E+0	1.752744E+0	1.781921E+0	1.799962E+0	1.732538E+0	1.739463E+0	1.760039E+0	1.740886E+0	1.786845E+0	1.816132E+0	1.887235E+0	1.794695E+0	1.883648E+0	1.714494E+0	1.788653E+0	1.774741E+0	1.698961E+0	1.788520E+0	1.776460E+0	1.675995E+0	1.833752E+0	1.746178E+0	1.758277E+0	1.684398E+0	1.772156E+0
5.397750E+2	2.096624E+0	1.992816E+0	1.989049E+0	1.944371E+0	1.911250E+0	2.005276E+0	1.960297E+0	1.927153E+0	1.975145E+0	2.025580E+0	2.004255E+0	2.032356E+0	1.954107E+0	1.966655E+0	1.974981E+0	2.007375E+0	1.966425E+0	1.978018E+0	2.034772E+0	2.020224E+0	2.016804E+0	2.017694E+0	1.944162E+0	2.002629E+0	1.961266E+0	1.874499E+0	2.038537E+0	2.094605E+0	2.026921E+0	1.945135E+0	2.007763E+0	1.978193E+0	1.993990E+0	2.002913E+0	1.943571E+0	1.989053E+0	2.060211E+0	1.911109E+0	1.962960E+0	2.050269E+0	1.999500E+0	1.956598E+0	1.974679E+0	2.004397E+0	1.986653E+0	2.042149E+0	1.970484E+0	1.950503E+0	2.038360E+0	1.992803E+0	2.104963E+0	2.007193E+0	2.058789E+0	1.921943E+0	2.035718E+0	2.024755E+0	1.976940E+0	1.987171E+0	2.005159E+0	1.965147E+0	2.003651E+0	1.946547E+0	1.984639E+0	1.886081E+0	2.007371E+0	2.039657E+0	1.992104E+0	1.977086E+0	1.891599E+0	2.004673E+0	2.019345E+0	1.967777E+0	1.950143E+0	1.971675E+0	1.993769E+0	2.026090E+0	1.999066E+0	1.912939E+0	1.922864E+0	1.948749E+0	2.016852E+0	2.004659E+0	1.994210E+0	1.958083E+0	1.985937E+0	1.967306E+0	2.047457E+0	1.991490E+0	2.022752E+0	1.946929E+0	1.973924E+0	2.031572E+0	1.934999E+0	1.847553E+0	1.994277E+0	2.004111E+0	2.045975E+0	1.960781E+0	1.901362E+0	1.950081E+0	1.941951E+0	1.894143E+0	1.982979E+0	1.984684E+0	1.902417E+0	1.910103E+0	1.926350E+0	1.925599E+0	2.024988E+0	1.925572E+0	1.947221E+0	1.948613E+0	1.986805E+0	1.898352E+0	1.927737E+0	1.844175E+0	1.946988E+0	1.961028E+0	2.057225E+0	1.971577E+0	1.914236E+0	1.953654E+0	1.919989E+0	1.935890E+0	1.947573E+0	1.928611E+0	1.878674E+0	1.974225E+0	1.949028E+0	1.960504E+0	1.914121E+0	1.907377E+0	1.990429E+0	2.072665E+0	1.911519E+0	1.942230E+0	1.914952E+0	1.963816E+0	1.973733E+0	1.954110E+0	1.974821E+0	1.928790E+0	1.951426E+0	1.900340E+0	1.967342E+0	2.022697E+0	1.835695E+0	1.882805E+0	1.940323E+0	1.942056E+0	1.906021E+0	1.946755E+0	2.012790E+0	1.859211E+0	1.861891E+0	1.948376E+0	1.945600E+0	1.907426E+0	1.940690E+0	1.883405E+0	1.964631E+0	1.998840E+0	2.024495E+0	2.018869E+0	1.943048E+0	2.060461E+0
5.400190E+2	2.233143E+0	2.163103E+0	2.020025E+0	2.168642E+0	2.057463E+0	2.144990E+0	2.110988E+0	2.038008E+0	2.096504E+0	2.069069E+0	2.141036E+0	1.998378E+0	2.130103E+0	2.117028E+0	2.163960E+0	2.096659E+0	2.143347E+0	2.103260E+0	2.129214E+0	2.090674E+0	2.094257E+0	2.135278E+0	2.132926E+0	2.062719E+0	2.125833E+0	2.067455E+0	2.151622E+0	2.232704E+0	2.127200E+0	2.043891E+0	2.113835E+0	2.093914E+0	1.999271E+0	2.026330E+0	2.133528E+0	2.052814E+0	2.105624E+0	2.083618E+0	2.079160E+0	2.104271E+0	2.083694E+0	2.034193E+0	2.065833E+0	2.161565E+0	2.110785E+0	2.031189E+0	2.058142E+0	2.077108E+0	2.096619E+0	2.081198E+0	2.173445E+0	2.070774E+0	2.176066E+0	2.067509E+0	2.143903E+0	2.129300E+0	2.120988E+0	2.064763E+0	2.118991E+0	2.154763E+0	2.158593E+0	2.052344E+0	2.144681E+0	2.126352E+0	2.029497E+0	2.064621E+0	2.108491E+0	2.097322E+0	2.027778E+0	2.020364E+0	2.027350E+0	2.094884E+0	2.053598E+0	1.994067E+0	2.046533E+0	2.132927E+0	2.059897E+0	2.082969E+0	2.049014E+0	2.064791E+0	2.198113E+0	2.023785E+0	2.092155E+0	2.091584E+0	2.053036E+0	2.054812E+0	2.121666E+0	2.181931E+0	2.027244E+0	2.030552E+0	2.127329E+0	2.114126E+0	2.075345E+0	2.027927E+0	2.131907E+0	2.031057E+0	2.154897E+0	1.946337E+0	2.046686E+0	2.037405E+0	2.061136E+0	1.968748E+0	2.115808E+0	2.161005E+0	2.075684E+0	2.115667E+0	2.080222E+0	2.072287E+0	2.023956E+0	1.996087E+0	2.020752E+0	2.052862E+0	2.005370E+0	1.959096E+0	2.001194E+0	1.994185E+0	2.066860E+0	2.041985E+0	2.077726E+0	2.028808E+0	2.103158E+0	2.070192E+0	2.088388E+0	2.044716E+0	2.041765E+0	2.024169E+0	1.953063E+0	2.055428E+0	1.996099E+0	2.008092E+0	2.036067E+0	2.040659E+0	2.047407E+0	2.028614E+0	2.102723E+0	1.987034E+0	2.047229E+0	1.978433E+0	2.038106E+0	2.003209E+0	2.065045E+0	1.979516E+0	2.035826E+0	2.109656E+0	2.161868E+0	2.017810E+0	1.994549E+0	2.008667E+0	2.041213E+0	2.033217E+0	2.011983E+0	2.086383E+0	2.055057E+0	1.979744E+0	1.925867E+0	2.088913E+0	1.984095E+0	1.954124E+0	2.001218E+0	1.968657E+0	2.007755E+0	1.962066E+0	2.054388E+0	1.991847E+0	2.013442E+0	2.064298E+0
5.402530E+2	2.090525E+0	2.037220E+0	2.092737E+0	2.044257E+0	2.061424E+0	2.087132E+0	2.146147E+0	2.062490E+0	2.054322E+0	2.006755E+0	2.121692E+0	2.103201E+0	2.067597E+0	2.006978E+0	2.053854E+0	2.029154E+0	2.093575E+0	2.004295E+0	2.104960E+0	2.025497E+0	2.035303E+0	2.025171E+0	2.060393E+0	2.076296E+0	2.052844E+0	2.040427E+0	2.004961E+0	2.100122E+0	2.066271E+0	1.985702E+0	2.059487E+0	2.020077E+0	2.100372E+0	2.080775E+0	1.982258E+0	2.032979E+0	2.071238E+0	1.923175E+0	1.992743E+0	1.984992E+0	2.001414E+0	2.036370E+0	2.052890E+0	2.025250E+0	2.095617E+0	2.012086E+0	2.027920E+0	2.045152E+0	2.028514E+0	2.047807E+0	2.025713E+0	2.070038E+0	2.051773E+0	2.017399E+0	2.060513E+0	2.022621E+0	2.115220E+0	2.051063E+0	2.082516E+0	2.066142E+0	2.006506E+0	1.997716E+0	2.036537E+0	2.028243E+0	2.043520E+0	2.110086E+0	1.980021E+0	2.018402E+0	2.007484E+0	2.075271E+0	2.044132E+0	2.014085E+0	2.086064E+0	1.964548E+0	1.958381E+0	2.042051E+0	2.017116E+0	1.961802E+0	1.988784E+0	2.050320E+0	1.969382E+0	2.001303E+0	2.054171E+0	2.020909E+0	2.036179E+0	1.993464E+0	2.068954E+0	2.106918E+0	2.123678E+0	2.000819E+0	2.024533E+0	2.044588E+0	1.986582E+0	1.975510E+0	2.025743E+0	2.052745E+0	2.097510E+0	1.980961E+0	2.011265E+0	2.039432E+0	2.045956E+0	1.943371E+0	2.018357E+0	2.009699E+0	1.992769E+0	2.051557E+0	2.003588E+0	2.023361E+0	2.026704E+0	1.948969E+0	2.036003E+0	2.045470E+0	2.050192E+0	1.969612E+0	2.088170E+0	1.950222E+0	2.040716E+0	1.949224E+0	2.016489E+0	2.053977E+0	1.990974E+0	1.989845E+0	2.011337E+0	1.990911E+0	1.978166E+0	1.964498E+0	2.082696E+0	1.920665E+0	1.968978E+0	2.007325E+0	2.049404E+0	2.028852E+0	2.051861E+0	2.043326E+0	1.995047E+0	2.013092E+0	2.072992E+0	1.960635E+0	1.997593E+0	1.975260E+0	1.972642E+0	1.911503E+0	2.037890E+0	1.936118E+0	1.999441E+0	1.885129E+0	1.984306E+0	1.975982E+0	1.961080E+0	1.971342E+0	2.042967E+0	2.003557E+0	2.035678E+0	1.947577E+0	2.012284E+0	2.045039E+0	1.998713E+0	1.940033E+0	2.021693E+0	2.040406E+0	1.907619E+0	1.997567E+0	1.945942E+0	1.994495E+0	1.996800E+0	1.901111E+0
5.405080E+2	2.008009E+0	1.955882E+0	1.954367E+0	2.016909E+0	1.864548E+0	1.979129E+0	2.003592E+0	2.019046E+0	1.989433E+0	1.991334E+0	2.019827E+0	2.082596E+0	1.985321E+0	1.950690E+0	2.010913E+0	2.011815E+0	2.029397E+0	2.012713E+0	2.071752E+0	1.994188E+0	2.033882E+0	1.952135E+0	1.971480E+0	2.014015E+0	2.011608E+0	1.948451E+0	2.032844E+0	2.031352E+0	2.081107E+0	1.925485E+0	2.039813E+0	1.971973E+0	1.980610E+0	2.036393E+0	1.985789E+0	2.011724E+0	2.024876E+0	1.948294E+0	1.969414E+0	1.996950E+0	2.030441E+0	1.960968E+0	1.973034E+0	2.069012E+0	2.074520E+0	2.004570E+0	2.010934E+0	1.990133E+0	1.959301E+0	1.949232E+0	2.029667E+0	2.100406E+0	2.080051E+0	1.980167E+0	2.027969E+0	2.016181E+0	1.972773E+0	1.932273E+0	1.996462E+0	2.001654E+0	2.109520E+0	1.962648E+0	2.062543E+0	1.982216E+0	2.019007E+0	2.032510E+0	1.976429E+0	2.006588E+0	1.884575E+0	1.979885E+0	1.928483E+0	2.026108E+0	1.967849E+0	1.918939E+0	1.987700E+0	1.918492E+0	1.980798E+0	1.845431E+0	1.986133E+0	1.970003E+0	2.028665E+0	1.938748E+0	1.981052E+0	2.007587E+0	1.961437E+0	1.929663E+0	2.025227E+0	2.086229E+0	2.019415E+0	1.976436E+0	2.083090E+0	2.051658E+0	1.950935E+0	1.933165E+0	1.950114E+0	1.961794E+0	2.047078E+0	1.924940E+0	1.949049E+0	1.998996E+0	1.963535E+0	1.942727E+0	2.040120E+0	1.991610E+0	1.958945E+0	1.958901E+0	1.953072E+0	2.010222E+0	1.981371E+0	1.912884E+0	1.949947E+0	1.999679E+0	1.967493E+0	1.888870E+0	1.992395E+0	1.908513E+0	1.990694E+0	2.039682E+0	2.067296E+0	1.934860E+0	1.893247E+0	1.901567E+0	1.966653E+0	1.929676E+0	1.938482E+0	2.008154E+0	1.957026E+0	1.917896E+0	1.967279E+0	1.971388E+0	1.886985E+0	1.948388E+0	1.898418E+0	1.978828E+0	2.032653E+0	1.921305E+0	1.982510E+0	1.921968E+0	1.944114E+0	1.963413E+0	1.977773E+0	1.867700E+0	1.966560E+0	1.903032E+0	1.992449E+0	1.795191E+0	1.989481E+0	1.998246E+0	1.991496E+0	1.885259E+0	1.953911E+0	2.053052E+0	1.921855E+0	1.936192E+0	1.929693E+0	1.960778E+0	2.008037E+0	1.949759E+0	1.925442E+0	1.943858E+0	1.955464E+0	1.923680E+0	1.936502E+0	1.923311E+0	1.964436E+0	1.918966E+0
5.407630E+2	1.858277E+0	1.908150E+0	1.801355E+0	1.829003E+0	1.745062E+0	1.729410E+0	1.809038E+0	1.856442E+0	1.893105E+0	1.809679E+0	1.836955E+0	1.883047E+0	1.880591E+0	1.807258E+0	1.786312E+0	1.875456E+0	1.845093E+0	1.779577E+0	1.901566E+0	1.822517E+0	1.764553E+0	1.835668E+0	1.820318E+0	1.875927E+0	1.840991E+0	1.797362E+0	1.801324E+0	1.828609E+0	1.864827E+0	1.818323E+0	1.823741E+0	1.798512E+0	1.820207E+0	1.724921E+0	1.817206E+0	1.827881E+0	1.851008E+0	1.822092E+0	1.829209E+0	1.872441E+0	1.788363E+0	1.759540E+0	1.763873E+0	1.845880E+0	1.836807E+0	1.833659E+0	1.821880E+0	1.802169E+0	1.845704E+0	1.756369E+0	1.866614E+0	1.892977E+0	1.831546E+0	1.760856E+0	1.869071E+0	1.869590E+0	1.843857E+0	1.837078E+0	1.865130E+0	1.809173E+0	1.824875E+0	1.751175E+0	1.785697E+0	1.763568E+0	1.812878E+0	1.837169E+0	1.750989E+0	1.843255E+0	1.824576E+0	1.799031E+0	1.867794E+0	1.735786E+0	1.861286E+0	1.757253E+0	1.770757E+0	1.788627E+0	1.730055E+0	1.776994E+0	1.750097E+0	1.794374E+0	1.754674E+0	1.772389E+0	1.799550E+0	1.858754E+0	1.796909E+0	1.809170E+0	1.826552E+0	1.802136E+0	1.829550E+0	1.833532E+0	1.788770E+0	1.802238E+0	1.787322E+0	1.740619E+0	1.746710E+0	1.778856E+0	1.935403E+0	1.720638E+0	1.723814E+0	1.783515E+0	1.821604E+0	1.800904E+0	1.831603E+0	1.904014E+0	1.743873E+0	1.768474E+0	1.761478E+0	1.793845E+0	1.784493E+0	1.693495E+0	1.793204E+0	1.778034E+0	1.780288E+0	1.772416E+0	1.755329E+0	1.796144E+0	1.856335E+0	1.774014E+0	1.773273E+0	1.814371E+0	1.729531E+0	1.721554E+0	1.758002E+0	1.792594E+0	1.771906E+0	1.734313E+0	1.797415E+0	1.766525E+0	1.759711E+0	1.766660E+0	1.754065E+0	1.754897E+0	1.790639E+0	1.782662E+0	1.781996E+0	1.751031E+0	1.781269E+0	1.685726E+0	1.830920E+0	1.806396E+0	1.778230E+0	1.646334E+0	1.762314E+0	1.750397E+0	1.829026E+0	1.697447E+0	1.804366E+0	1.764035E+0	1.765532E+0	1.771113E+0	1.758551E+0	1.758838E+0	1.762489E+0	1.709748E+0	1.693215E+0	1.795701E+0	1.799187E+0	1.773039E+0	1.805579E+0	1.735561E+0	1.752487E+0	1.747418E+0	1.759794E+0	1.731823E+0	1.747618E+0	1.683371E+0
5.410190E+2	1.737528E+0	1.696147E+0	1.711944E+0	1.744710E+0	1.728361E+0	1.769152E+0	1.690897E+0	1.764046E+0	1.755241E+0	1.708768E+0	1.760415E+0	1.755123E+0	1.726627E+0	1.789944E+0	1.760849E+0	1.705635E+0	1.735344E+0	1.756198E+0	1.819757E+0	1.695754E+0	1.723110E+0	1.772792E+0	1.779194E+0	1.728687E+0	1.766204E+0	1.706090E+0	1.770750E+0	1.784668E+0	1.745575E+0	1.654248E+0	1.754603E+0	1.756149E+0	1.728131E+0	1.700501E+0	1.702332E+0	1.705083E+0	1.689336E+0	1.666327E+0	1.652777E+0	1.679393E+0	1.702943E+0	1.766437E+0	1.630778E+0	1.742562E+0	1.747396E+0	1.766594E+0	1.686205E+0	1.714298E+0	1.689886E+0	1.719873E+0	1.780452E+0	1.799727E+0	1.706104E+0	1.699285E+0	1.788746E+0	1.722781E+0	1.712799E+0	1.713160E+0	1.719855E+0	1.771859E+0	1.810593E+0	1.705478E+0	1.733189E+0	1.770237E+0	1.715061E+0	1.729079E+0	1.657122E+0	1.703662E+0	1.698751E+0	1.700643E+0	1.756835E+0	1.708504E+0	1.707101E+0	1.611817E+0	1.795580E+0	1.780070E+0	1.752304E+0	1.713803E+0	1.752972E+0	1.648624E+0	1.736923E+0	1.704776E+0	1.721886E+0	1.687638E+0	1.660285E+0	1.730134E+0	1.831025E+0	1.738961E+0	1.648268E+0	1.685357E+0	1.736423E+0	1.707198E+0	1.693938E+0	1.657905E+0	1.775891E+0	1.691256E+0	1.751997E+0	1.663291E+0	1.666802E+0	1.726406E+0	1.773672E+0	1.621215E+0	1.754393E+0	1.723083E+0	1.701394E+0	1.732510E+0	1.705516E+0	1.725738E+0	1.753028E+0	1.649887E+0	1.722408E+0	1.745611E+0	1.754421E+0	1.737242E+0	1.681872E+0	1.627777E+0	1.750541E+0	1.738899E+0	1.707728E+0	1.748207E+0	1.658650E+0	1.742585E+0	1.714956E+0	1.721165E+0	1.738449E+0	1.677647E+0	1.706781E+0	1.690803E+0	1.643050E+0	1.675757E+0	1.690269E+0	1.700917E+0	1.740064E+0	1.716215E+0	1.749100E+0	1.805818E+0	1.715233E+0	1.655211E+0	1.726012E+0	1.705210E+0	1.738255E+0	1.659491E+0	1.722775E+0	1.677886E+0	1.773957E+0	1.639095E+0	1.704653E+0	1.666430E+0	1.621387E+0	1.622549E+0	1.680848E+0	1.720614E+0	1.669710E+0	1.620644E+0	1.612329E+0	1.665635E+0	1.708505E+0	1.704176E+0	1.688474E+0	1.662799E+0	1.660629E+0	1.658932E+0	1.731990E+0	1.661444E+0	1.718375E+0	1.609561E+0
5.412690E+2	1.799111E+0	1.714949E+0	1.796485E+0	1.738562E+0	1.728194E+0	1.767662E+0	1.787594E+0	1.747198E+0	1.743264E+0	1.746254E+0	1.769380E+0	1.752287E+0	1.812702E+0	1.802890E+0	1.724165E+0	1.807808E+0	1.753308E+0	1.750069E+0	1.757029E+0	1.771346E+0	1.708858E+0	1.776218E+0	1.751369E+0	1.722874E+0	1.803846E+0	1.762488E+0	1.765691E+0	1.803288E+0	1.781412E+0	1.706390E+0	1.736002E+0	1.741529E+0	1.758134E+0	1.755855E+0	1.741059E+0	1.756912E+0	1.678535E+0	1.713177E+0	1.778624E+0	1.737210E+0	1.698400E+0	1.741861E+0	1.774752E+0	1.823128E+0	1.773338E+0	1.747273E+0	1.712189E+0	1.774035E+0	1.807410E+0	1.781908E+0	1.751049E+0	1.764882E+0	1.746587E+0	1.688224E+0	1.738078E+0	1.808356E+0	1.761098E+0	1.798838E+0	1.766869E+0	1.746326E+0	1.769700E+0	1.654443E+0	1.769705E+0	1.711581E+0	1.765894E+0	1.811332E+0	1.729741E+0	1.739794E+0	1.725516E+0	1.753395E+0	1.737903E+0	1.712721E+0	1.752672E+0	1.729249E+0	1.755191E+0	1.813330E+0	1.820122E+0	1.724630E+0	1.740795E+0	1.842636E+0	1.747561E+0	1.725184E+0	1.797642E+0	1.717326E+0	1.726253E+0	1.707718E+0	1.798517E+0	1.844200E+0	1.753637E+0	1.733552E+0	1.754534E+0	1.752871E+0	1.719370E+0	1.731905E+0	1.786045E+0	1.770416E+0	1.796204E+0	1.711467E+0	1.652197E+0	1.765664E+0	1.749628E+0	1.716763E+0	1.746516E+0	1.789035E+0	1.720499E+0	1.713338E+0	1.720259E+0	1.777035E+0	1.753416E+0	1.698495E+0	1.785347E+0	1.703846E+0	1.695804E+0	1.733216E+0	1.681236E+0	1.732845E+0	1.728824E+0	1.700135E+0	1.774645E+0	1.705618E+0	1.742339E+0	1.765332E+0	1.755610E+0	1.738152E+0	1.813124E+0	1.732803E+0	1.747879E+0	1.734503E+0	1.650075E+0	1.740459E+0	1.753218E+0	1.694462E+0	1.728119E+0	1.723590E+0	1.769019E+0	1.669449E+0	1.694318E+0	1.748054E+0	1.730294E+0	1.772114E+0	1.784835E+0	1.675430E+0	1.801554E+0	1.687222E+0	1.770286E+0	1.629858E+0	1.695707E+0	1.712498E+0	1.711893E+0	1.662700E+0	1.690688E+0	1.734451E+0	1.777209E+0	1.715295E+0	1.766925E+0	1.791339E+0	1.748461E+0	1.710336E+0	1.745341E+0	1.738930E+0	1.630878E+0	1.685851E+0	1.764685E+0	1.706383E+0	1.737251E+0	1.686588E+0
5.415090E+2	1.694319E+0	1.708588E+0	1.751077E+0	1.730175E+0	1.633865E+0	1.686104E+0	1.683573E+0	1.755972E+0	1.696712E+0	1.693044E+0	1.640634E+0	1.705279E+0	1.639645E+0	1.678544E+0	1.647574E+0	1.689355E+0	1.744814E+0	1.698761E+0	1.752269E+0	1.671141E+0	1.753017E+0	1.705045E+0	1.746105E+0	1.731228E+0	1.738266E+0	1.677189E+0	1.769108E+0	1.739541E+0	1.694025E+0	1.676763E+0	1.679693E+0	1.723678E+0	1.731348E+0	1.632613E+0	1.671388E+0	1.661241E+0	1.680514E+0	1.651625E+0	1.755414E+0	1.730576E+0	1.646320E+0	1.699713E+0	1.669692E+0	1.772885E+0	1.696566E+0	1.665922E+0	1.697082E+0	1.696308E+0	1.636789E+0	1.689146E+0	1.697720E+0	1.701492E+0	1.758756E+0	1.605123E+0	1.717438E+0	1.741600E+0	1.672658E+0	1.656720E+0	1.659294E+0	1.734346E+0	1.695301E+0	1.647015E+0	1.743541E+0	1.707909E+0	1.689110E+0	1.728222E+0	1.767607E+0	1.729955E+0	1.678261E+0	1.688872E+0	1.694720E+0	1.666714E+0	1.663511E+0	1.654017E+0	1.717997E+0	1.645310E+0	1.687532E+0	1.644792E+0	1.734464E+0	1.802121E+0	1.671619E+0	1.594782E+0	1.704269E+0	1.730794E+0	1.684097E+0	1.700435E+0	1.722822E+0	1.812108E+0	1.711819E+0	1.699664E+0	1.706479E+0	1.725920E+0	1.624513E+0	1.607140E+0	1.642760E+0	1.685841E+0	1.687212E+0	1.608439E+0	1.638944E+0	1.674168E+0	1.694640E+0	1.625359E+0	1.743566E+0	1.699896E+0	1.604250E+0	1.661761E+0	1.634147E+0	1.692479E+0	1.620947E+0	1.698037E+0	1.690676E+0	1.699218E+0	1.675901E+0	1.673542E+0	1.675518E+0	1.701623E+0	1.713244E+0	1.666824E+0	1.717928E+0	1.713410E+0	1.589152E+0	1.681440E+0	1.739123E+0	1.599804E+0	1.689887E+0	1.695954E+0	1.705034E+0	1.692881E+0	1.630613E+0	1.656064E+0	1.661969E+0	1.725982E+0	1.680815E+0	1.658571E+0	1.724796E+0	1.680817E+0	1.682851E+0	1.559759E+0	1.654048E+0	1.699470E+0	1.733667E+0	1.629811E+0	1.721406E+0	1.685741E+0	1.707517E+0	1.596546E+0	1.609331E+0	1.679856E+0	1.633649E+0	1.677807E+0	1.620302E+0	1.668142E+0	1.655067E+0	1.623752E+0	1.689038E+0	1.702152E+0	1.635309E+0	1.606675E+0	1.716543E+0	1.634959E+0	1.644791E+0	1.705413E+0	1.654761E+0	1.634241E+0	1.635595E+0	1.618193E+0
5.417650E+2	1.504934E+0	1.498465E+0	1.559671E+0	1.472458E+0	1.458371E+0	1.497908E+0	1.522725E+0	1.475747E+0	1.506786E+0	1.557830E+0	1.486964E+0	1.532801E+0	1.517370E+0	1.493164E+0	1.506236E+0	1.566976E+0	1.543247E+0	1.485308E+0	1.618947E+0	1.480184E+0	1.520931E+0	1.535131E+0	1.610420E+0	1.548486E+0	1.550509E+0	1.530953E+0	1.577224E+0	1.533009E+0	1.540142E+0	1.480207E+0	1.539842E+0	1.499127E+0	1.562115E+0	1.489729E+0	1.510322E+0	1.508877E+0	1.514911E+0	1.549196E+0	1.520123E+0	1.558792E+0	1.472348E+0	1.547451E+0	1.497879E+0	1.500644E+0	1.531666E+0	1.520224E+0	1.471975E+0	1.528521E+0	1.568953E+0	1.467951E+0	1.553598E+0	1.547087E+0	1.498066E+0	1.439663E+0	1.540816E+0	1.541196E+0	1.524967E+0	1.446523E+0	1.546668E+0	1.490957E+0	1.526763E+0	1.484814E+0	1.590320E+0	1.541516E+0	1.491314E+0	1.528863E+0	1.517584E+0	1.578225E+0	1.526592E+0	1.546417E+0	1.534239E+0	1.486338E+0	1.536141E+0	1.471032E+0	1.524923E+0	1.519961E+0	1.514050E+0	1.475024E+0	1.549466E+0	1.553421E+0	1.528260E+0	1.467161E+0	1.486600E+0	1.476384E+0	1.486628E+0	1.469429E+0	1.503712E+0	1.560449E+0	1.502724E+0	1.530984E+0	1.501327E+0	1.450612E+0	1.461010E+0	1.449404E+0	1.502357E+0	1.477582E+0	1.547859E+0	1.519690E+0	1.466982E+0	1.545308E+0	1.535436E+0	1.430824E+0	1.492370E+0	1.547629E+0	1.465525E+0	1.507073E+0	1.535758E+0	1.549258E+0	1.505253E+0	1.448864E+0	1.457194E+0	1.497848E+0	1.462698E+0	1.449794E+0	1.459501E+0	1.503233E+0	1.553317E+0	1.491006E+0	1.564584E+0	1.565098E+0	1.544834E+0	1.551628E+0	1.523430E+0	1.510638E+0	1.476030E+0	1.436128E+0	1.458691E+0	1.401705E+0	1.466672E+0	1.537294E+0	1.422588E+0	1.490265E+0	1.539951E+0	1.533882E+0	1.501529E+0	1.522111E+0	1.553891E+0	1.496536E+0	1.459533E+0	1.557032E+0	1.557356E+0	1.413802E+0	1.516417E+0	1.539464E+0	1.509714E+0	1.403985E+0	1.507491E+0	1.509466E+0	1.502080E+0	1.438750E+0	1.411398E+0	1.471692E+0	1.513678E+0	1.456279E+0	1.471777E+0	1.444992E+0	1.470430E+0	1.448256E+0	1.445405E+0	1.400094E+0	1.540103E+0	1.550438E+0	1.553152E+0	1.451034E+0	1.417166E+0	1.551153E+0
5.420160E+2	1.282136E+0	1.252557E+0	1.301562E+0	1.307561E+0	1.230142E+0	1.256797E+0	1.304040E+0	1.333692E+0	1.273134E+0	1.328862E+0	1.306159E+0	1.331614E+0	1.298264E+0	1.309197E+0	1.295917E+0	1.260418E+0	1.341451E+0	1.257361E+0	1.282027E+0	1.304300E+0	1.297608E+0	1.343175E+0	1.245285E+0	1.357209E+0	1.278106E+0	1.280186E+0	1.290666E+0	1.288497E+0	1.310760E+0	1.251845E+0	1.278088E+0	1.282868E+0	1.304821E+0	1.259156E+0	1.297120E+0	1.253924E+0	1.264694E+0	1.298396E+0	1.300362E+0	1.264241E+0	1.263654E+0	1.260937E+0	1.385952E+0	1.282498E+0	1.300481E+0	1.281950E+0	1.282119E+0	1.277518E+0	1.288391E+0	1.251167E+0	1.344311E+0	1.347318E+0	1.279645E+0	1.230636E+0	1.296452E+0	1.316631E+0	1.256508E+0	1.319969E+0	1.288533E+0	1.282028E+0	1.353638E+0	1.226750E+0	1.314285E+0	1.316174E+0	1.229015E+0	1.249139E+0	1.223333E+0	1.230590E+0	1.261649E+0	1.288005E+0	1.242647E+0	1.272541E+0	1.293774E+0	1.284236E+0	1.321823E+0	1.300374E+0	1.253665E+0	1.248046E+0	1.316174E+0	1.244544E+0	1.299985E+0	1.287305E+0	1.265200E+0	1.231561E+0	1.304874E+0	1.278202E+0	1.274825E+0	1.283861E+0	1.271624E+0	1.228168E+0	1.322294E+0	1.332553E+0	1.341066E+0	1.220573E+0	1.272823E+0	1.299856E+0	1.309407E+0	1.263816E+0	1.292480E+0	1.293517E+0	1.308884E+0	1.273140E+0	1.324129E+0	1.352781E+0	1.250903E+0	1.253522E+0	1.249308E+0	1.278453E+0	1.281812E+0	1.269717E+0	1.229928E+0	1.335565E+0	1.291776E+0	1.293709E+0	1.284132E+0	1.266944E+0	1.331423E+0	1.219114E+0	1.319276E+0	1.262764E+0	1.274358E+0	1.321057E+0	1.337485E+0	1.316041E+0	1.281461E+0	1.244777E+0	1.303439E+0	1.242011E+0	1.229723E+0	1.283896E+0	1.262951E+0	1.234708E+0	1.283359E+0	1.251659E+0	1.274456E+0	1.277510E+0	1.341627E+0	1.287392E+0	1.255222E+0	1.328628E+0	1.304930E+0	1.251617E+0	1.329832E+0	1.302662E+0	1.367698E+0	1.209983E+0	1.251775E+0	1.233385E+0	1.257052E+0	1.226535E+0	1.264950E+0	1.292544E+0	1.229180E+0	1.289511E+0	1.279901E+0	1.279063E+0	1.278388E+0	1.273589E+0	1.320109E+0	1.233399E+0	1.247013E+0	1.324655E+0	1.317699E+0	1.290672E+0	1.229861E+0	1.226744E+0
5.422780E+2	1.147594E+0	1.108991E+0	1.088990E+0	1.108324E+0	1.113046E+0	1.189514E+0	1.169710E+0	1.122376E+0	1.122889E+0	1.190890E+0	1.148129E+0	1.105239E+0	1.159617E+0	1.104979E+0	1.139469E+0	1.172463E+0	1.180978E+0	1.141131E+0	1.206261E+0	1.134255E+0	1.187387E+0	1.188028E+0	1.199320E+0	1.150710E+0	1.201040E+0	1.091783E+0	1.153126E+0	1.193749E+0	1.171925E+0	1.129993E+0	1.109526E+0	1.151558E+0	1.172102E+0	1.070181E+0	1.203216E+0	1.151856E+0	1.169333E+0	1.159134E+0	1.148073E+0	1.163165E+0	1.148797E+0	1.145179E+0	1.134895E+0	1.146451E+0	1.176251E+0	1.206162E+0	1.139419E+0	1.166113E+0	1.145834E+0	1.146547E+0	1.183086E+0	1.154738E+0	1.143427E+0	1.100415E+0	1.184901E+0	1.153192E+0	1.193000E+0	1.172439E+0	1.173214E+0	1.173085E+0	1.178816E+0	1.118983E+0	1.157778E+0	1.200075E+0	1.173703E+0	1.166642E+0	1.197705E+0	1.096205E+0	1.121480E+0	1.192821E+0	1.159907E+0	1.174960E+0	1.153559E+0	1.169330E+0	1.171755E+0	1.190733E+0	1.203846E+0	1.107065E+0	1.096599E+0	1.136308E+0	1.139670E+0	1.128374E+0	1.154136E+0	1.207567E+0	1.169386E+0	1.136262E+0	1.124568E+0	1.228281E+0	1.135834E+0	1.122684E+0	1.150411E+0	1.096027E+0	1.166565E+0	1.121349E+0	1.146618E+0	1.161199E+0	1.145127E+0	1.162374E+0	1.150609E+0	1.171225E+0	1.141750E+0	1.180481E+0	1.176810E+0	1.179463E+0	1.141082E+0	1.170127E+0	1.129842E+0	1.167039E+0	1.172695E+0	1.137356E+0	1.188210E+0	1.183392E+0	1.156591E+0	1.115364E+0	1.091327E+0	1.055756E+0	1.183787E+0	1.131075E+0	1.147319E+0	1.193486E+0	1.114102E+0	1.126454E+0	1.170812E+0	1.173557E+0	1.171618E+0	1.154677E+0	1.113628E+0	1.192590E+0	1.127471E+0	1.158473E+0	1.221457E+0	1.135709E+0	1.189898E+0	1.147576E+0	1.217701E+0	1.153099E+0	1.177213E+0	1.143106E+0	1.144256E+0	1.149633E+0	1.171777E+0	1.146414E+0	1.150093E+0	1.160848E+0	1.243934E+0	1.181837E+0	1.171269E+0	1.175100E+0	1.159207E+0	1.123997E+0	1.174523E+0	1.169942E+0	1.159581E+0	1.144122E+0	1.101680E+0	1.158291E+0	1.179751E+0	1.130181E+0	1.181755E+0	1.119634E+0	1.148517E+0	1.175318E+0	1.160121E+0	1.153949E+0	1.142232E+0	1.039994E+0
5.425080E+2	9.704484E-1	1.013355E+0	1.007659E+0	9.994087E-1	9.507523E-1	1.022517E+0	9.941433E-1	1.043382E+0	1.005162E+0	1.049417E+0	1.005739E+0	9.982613E-1	9.935373E-1	9.788186E-1	9.927187E-1	1.012216E+0	9.601128E-1	9.703044E-1	1.025900E+0	9.643700E-1	9.985189E-1	1.038301E+0	9.552332E-1	1.093590E+0	1.011783E+0	1.007817E+0	9.853383E-1	1.026259E+0	1.026711E+0	1.027138E+0	1.012087E+0	9.777864E-1	1.008396E+0	1.013511E+0	9.925898E-1	1.048371E+0	1.029649E+0	9.620407E-1	1.021268E+0	1.031078E+0	1.031284E+0	9.937829E-1	9.977142E-1	1.050100E+0	1.010165E+0	1.034860E+0	1.028094E+0	1.026909E+0	1.010192E+0	9.799287E-1	1.012719E+0	1.027667E+0	1.023412E+0	1.011810E+0	1.017600E+0	1.013495E+0	1.000155E+0	1.009273E+0	1.036235E+0	1.077199E+0	9.861189E-1	9.816345E-1	9.670094E-1	1.068991E+0	1.042547E+0	1.034595E+0	1.035380E+0	9.980427E-1	1.031564E+0	9.750671E-1	1.041095E+0	1.011813E+0	1.004642E+0	9.480960E-1	1.062524E+0	1.015313E+0	9.628834E-1	9.951604E-1	9.805489E-1	1.000640E+0	1.017888E+0	9.573327E-1	1.018842E+0	1.014665E+0	9.826746E-1	1.030203E+0	1.020710E+0	1.024169E+0	1.023573E+0	1.035763E+0	9.889610E-1	1.060946E+0	1.029768E+0	9.907601E-1	9.692332E-1	1.022096E+0	1.059701E+0	1.052692E+0	1.009579E+0	1.006197E+0	1.046344E+0	9.789724E-1	9.563097E-1	1.009536E+0	1.015511E+0	1.057989E+0	1.042407E+0	9.867895E-1	1.038843E+0	9.893850E-1	9.904400E-1	1.036666E+0	1.002060E+0	1.001885E+0	9.783831E-1	9.699672E-1	1.010940E+0	9.882940E-1	1.007943E+0	1.005912E+0	9.706231E-1	9.766424E-1	1.034179E+0	9.983116E-1	1.034200E+0	9.928625E-1	9.981985E-1	1.023270E+0	1.024117E+0	1.008158E+0	1.044310E+0	9.921852E-1	1.030834E+0	1.027439E+0	1.040071E+0	1.027777E+0	1.014846E+0	9.970229E-1	9.853021E-1	1.000694E+0	9.681900E-1	1.008264E+0	1.012261E+0	9.813089E-1	1.045416E+0	9.844289E-1	9.871957E-1	9.893345E-1	1.058038E+0	9.910169E-1	1.020645E+0	1.016769E+0	1.002511E+0	9.505613E-1	1.006532E+0	1.058011E+0	9.567728E-1	9.926405E-1	1.013194E+0	9.973801E-1	1.000632E+0	9.820133E-1	9.887382E-1	9.788718E-1	9.800837E-1	9.939426E-1
5.427710E+2	1.014286E+0	9.667556E-1	9.402709E-1	1.023310E+0	9.928358E-1	9.537760E-1	9.427754E-1	9.795146E-1	1.028569E+0	1.001973E+0	1.018699E+0	9.962760E-1	9.972858E-1	9.188893E-1	9.851934E-1	1.013652E+0	1.002060E+0	9.496548E-1	9.906833E-1	1.042128E+0	9.624012E-1	9.816873E-1	9.866779E-1	9.851849E-1	9.834405E-1	9.558015E-1	9.489826E-1	1.054232E+0	9.778881E-1	9.705387E-1	9.682672E-1	9.873343E-1	1.002456E+0	9.827860E-1	9.400209E-1	9.690692E-1	1.009111E+0	9.384686E-1	1.015224E+0	9.617484E-1	9.819321E-1	1.012429E+0	9.328026E-1	1.031738E+0	1.017302E+0	1.008065E+0	9.772150E-1	9.696381E-1	1.020415E+0	9.919118E-1	9.801859E-1	1.016009E+0	1.006871E+0	9.670855E-1	9.431599E-1	1.062221E+0	9.846370E-1	9.400046E-1	9.770259E-1	1.036551E+0	1.033797E+0	9.628386E-1	1.031612E+0	9.996493E-1	1.011204E+0	9.920013E-1	9.759402E-1	9.750495E-1	1.013666E+0	9.949594E-1	9.618350E-1	9.865920E-1	9.641282E-1	9.712676E-1	1.012123E+0	1.005609E+0	9.709569E-1	9.571786E-1	1.007411E+0	1.047699E+0	9.748254E-1	9.649667E-1	9.859678E-1	1.004247E+0	9.967816E-1	9.687109E-1	1.024905E+0	9.760947E-1	9.685880E-1	9.709673E-1	9.729904E-1	9.966691E-1	9.764923E-1	9.706369E-1	1.011187E+0	1.003468E+0	9.791533E-1	9.978216E-1	9.815947E-1	1.020141E+0	1.033310E+0	1.013863E+0	1.036460E+0	1.005602E+0	9.733344E-1	1.011508E+0	1.014887E+0	9.855225E-1	1.009520E+0	9.472850E-1	1.014746E+0	9.832756E-1	9.519474E-1	9.418767E-1	9.694900E-1	9.967729E-1	9.983982E-1	9.967182E-1	1.071753E+0	9.652410E-1	9.814686E-1	1.006677E+0	9.774707E-1	9.410115E-1	9.912350E-1	1.033366E+0	9.447122E-1	9.976892E-1	9.812495E-1	9.458366E-1	9.875223E-1	9.635201E-1	9.893427E-1	1.014399E+0	1.007504E+0	1.061148E+0	1.024340E+0	9.713443E-1	1.048122E+0	1.000329E+0	1.015765E+0	1.018963E+0	1.028483E+0	9.859957E-1	1.084131E+0	9.728289E-1	9.794518E-1	9.500878E-1	9.969931E-1	9.867366E-1	1.003319E+0	1.022566E+0	1.051562E+0	9.692622E-1	1.035581E+0	9.352611E-1	9.919730E-1	1.015804E+0	1.005915E+0	9.496966E-1	1.009830E+0	1.020654E+0	9.539903E-1	1.072962E+0	1.016073E+0	9.611557E-1
5.430170E+2	9.745801E-1	9.660239E-1	9.777847E-1	9.872515E-1	1.018773E+0	1.043001E+0	9.578414E-1	9.666198E-1	1.047232E+0	9.454382E-1	9.952202E-1	9.972237E-1	1.017579E+0	9.599946E-1	9.518183E-1	9.907840E-1	1.014369E+0	1.001906E+0	9.982885E-1	1.054079E+0	1.004753E+0	1.019105E+0	9.782923E-1	1.035345E+0	1.029893E+0	1.005145E+0	1.004959E+0	1.061578E+0	1.013225E+0	9.721611E-1	1.005879E+0	1.040527E+0	9.958334E-1	1.048233E+0	9.699774E-1	1.003904E+0	9.940101E-1	9.580676E-1	9.693346E-1	1.004323E+0	1.001628E+0	9.871383E-1	9.821308E-1	1.031043E+0	1.043075E+0	1.009669E+0	9.874937E-1	9.679845E-1	9.689266E-1	9.729925E-1	9.711747E-1	1.010025E+0	1.083452E+0	9.763804E-1	1.014388E+0	1.001617E+0	9.666970E-1	1.036914E+0	1.026609E+0	1.015281E+0	1.008888E+0	1.000590E+0	1.005533E+0	9.946573E-1	9.964051E-1	9.854116E-1	1.026020E+0	1.034179E+0	1.052115E+0	9.874192E-1	9.861884E-1	1.047864E+0	1.007801E+0	9.674026E-1	9.918784E-1	1.047050E+0	1.016964E+0	1.000386E+0	9.755180E-1	1.027165E+0	9.613860E-1	9.924958E-1	9.970503E-1	9.642378E-1	9.983861E-1	1.005127E+0	1.023985E+0	1.039651E+0	1.011423E+0	1.081374E+0	1.028403E+0	1.036794E+0	9.542094E-1	1.010177E+0	9.572804E-1	1.030132E+0	1.048904E+0	9.714898E-1	9.974604E-1	1.025367E+0	1.000555E+0	9.869491E-1	1.004251E+0	1.022276E+0	9.992618E-1	1.013639E+0	1.053113E+0	9.851209E-1	9.945850E-1	9.966926E-1	1.002933E+0	9.691484E-1	1.045222E+0	9.480220E-1	1.029926E+0	9.120665E-1	1.007666E+0	1.000216E+0	9.971675E-1	1.013619E+0	9.776808E-1	9.613585E-1	1.035855E+0	1.000150E+0	1.026935E+0	1.034873E+0	9.747764E-1	9.898192E-1	9.629159E-1	1.003766E+0	9.770831E-1	1.014369E+0	1.015963E+0	1.016038E+0	1.086317E+0	1.004224E+0	9.903054E-1	9.990185E-1	1.049488E+0	9.778154E-1	9.996494E-1	9.575532E-1	1.009791E+0	1.054900E+0	1.010343E+0	9.791201E-1	9.948139E-1	9.702648E-1	9.717504E-1	9.766087E-1	9.681311E-1	1.070838E+0	1.007922E+0	9.495731E-1	9.671221E-1	1.027230E+0	1.009573E+0	9.586704E-1	9.994259E-1	9.880452E-1	1.021269E+0	1.028418E+0	1.008243E+0	1.010010E+0	1.006848E+0	1.026178E+0
5.432860E+2	1.125844E+0	1.123407E+0	1.159648E+0	1.118547E+0	1.108696E+0	1.136911E+0	1.110685E+0	1.144296E+0	1.152260E+0	1.107518E+0	1.121395E+0	1.127462E+0	1.153469E+0	1.154988E+0	1.096871E+0	1.136596E+0	1.205171E+0	1.124374E+0	1.175711E+0	1.151839E+0	1.123869E+0	1.148735E+0	1.141636E+0	1.214318E+0	1.152639E+0	1.116856E+0	1.163033E+0	1.195637E+0	1.182459E+0	1.111247E+0	1.115677E+0	1.102784E+0	1.113468E+0	1.110983E+0	1.097089E+0	1.121081E+0	1.179734E+0	1.097080E+0	1.088549E+0	1.165969E+0	1.085692E+0	1.152674E+0	1.111338E+0	1.101565E+0	1.157325E+0	1.139092E+0	1.094780E+0	1.093960E+0	1.157721E+0	1.122792E+0	1.162110E+0	1.163853E+0	1.098101E+0	1.113888E+0	1.141181E+0	1.189864E+0	1.101086E+0	1.212744E+0	1.133844E+0	1.192125E+0	1.188997E+0	1.078581E+0	1.179303E+0	1.119750E+0	1.151034E+0	1.137503E+0	1.098592E+0	1.109150E+0	1.108666E+0	1.151252E+0	1.161034E+0	1.128353E+0	1.130953E+0	1.076549E+0	1.128476E+0	1.143332E+0	1.140877E+0	1.099923E+0	1.133811E+0	1.113957E+0	1.201129E+0	1.099973E+0	1.130008E+0	1.168481E+0	1.111098E+0	1.150680E+0	1.157599E+0	1.196666E+0	1.102087E+0	1.167494E+0	1.188006E+0	1.115954E+0	1.118859E+0	1.101754E+0	1.101666E+0	1.124408E+0	1.137158E+0	1.119752E+0	1.094526E+0	1.204862E+0	1.186365E+0	1.052484E+0	1.187801E+0	1.175745E+0	1.204283E+0	1.183083E+0	1.082262E+0	1.171132E+0	1.108098E+0	1.112750E+0	1.092065E+0	1.166293E+0	1.150960E+0	1.103561E+0	1.116254E+0	1.089589E+0	1.147529E+0	1.114731E+0	1.123823E+0	1.116283E+0	1.078054E+0	1.128097E+0	1.138149E+0	1.087197E+0	1.133264E+0	1.124342E+0	1.105566E+0	1.161926E+0	1.099040E+0	1.086465E+0	1.129969E+0	1.070543E+0	1.151625E+0	1.115583E+0	1.144184E+0	1.161652E+0	1.126215E+0	1.047640E+0	1.162950E+0	1.156542E+0	1.157988E+0	1.107462E+0	1.163847E+0	1.140850E+0	1.193759E+0	1.126465E+0	1.096345E+0	1.151702E+0	1.146248E+0	1.181489E+0	1.127146E+0	1.177337E+0	1.134930E+0	1.118603E+0	1.145175E+0	1.110084E+0	1.104401E+0	1.117058E+0	1.131957E+0	1.083326E+0	1.120912E+0	1.138994E+0	1.101085E+0	1.040387E+0	1.122326E+0	1.161286E+0
5.435330E+2	1.364334E+0	1.289246E+0	1.318762E+0	1.314795E+0	1.221839E+0	1.314795E+0	1.248262E+0	1.275471E+0	1.297730E+0	1.314975E+0	1.271085E+0	1.292069E+0	1.282893E+0	1.291170E+0	1.292694E+0	1.310988E+0	1.281107E+0	1.268438E+0	1.268582E+0	1.285018E+0	1.327292E+0	1.326230E+0	1.316243E+0	1.313178E+0	1.317360E+0	1.263528E+0	1.266348E+0	1.348159E+0	1.318582E+0	1.218425E+0	1.299906E+0	1.299444E+0	1.284926E+0	1.276815E+0	1.264806E+0	1.275442E+0	1.301219E+0	1.254377E+0	1.237643E+0	1.284616E+0	1.287227E+0	1.258705E+0	1.236144E+0	1.348018E+0	1.314366E+0	1.293127E+0	1.232251E+0	1.315296E+0	1.294528E+0	1.299865E+0	1.310620E+0	1.305541E+0	1.323259E+0	1.257396E+0	1.275895E+0	1.278470E+0	1.319985E+0	1.241214E+0	1.287271E+0	1.352831E+0	1.323142E+0	1.211513E+0	1.266464E+0	1.299125E+0	1.309121E+0	1.329311E+0	1.274979E+0	1.267862E+0	1.252331E+0	1.289422E+0	1.220910E+0	1.264567E+0	1.277323E+0	1.265657E+0	1.305066E+0	1.277310E+0	1.332295E+0	1.240831E+0	1.265241E+0	1.290821E+0	1.305488E+0	1.240111E+0	1.297179E+0	1.342228E+0	1.295082E+0	1.303970E+0	1.232362E+0	1.413755E+0	1.279515E+0	1.304426E+0	1.283196E+0	1.311546E+0	1.285792E+0	1.302353E+0	1.284407E+0	1.287178E+0	1.313970E+0	1.251473E+0	1.230162E+0	1.330104E+0	1.362390E+0	1.256464E+0	1.249713E+0	1.384748E+0	1.268213E+0	1.320824E+0	1.298649E+0	1.306624E+0	1.317927E+0	1.300065E+0	1.218078E+0	1.279860E+0	1.264089E+0	1.302467E+0	1.241003E+0	1.272208E+0	1.312020E+0	1.319112E+0	1.283855E+0	1.279847E+0	1.284337E+0	1.275746E+0	1.288930E+0	1.282511E+0	1.348324E+0	1.259362E+0	1.252706E+0	1.297587E+0	1.244929E+0	1.211233E+0	1.297256E+0	1.311297E+0	1.352170E+0	1.284027E+0	1.364805E+0	1.311670E+0	1.324872E+0	1.197890E+0	1.341078E+0	1.289149E+0	1.316967E+0	1.312316E+0	1.303102E+0	1.286962E+0	1.309429E+0	1.269414E+0	1.271421E+0	1.288808E+0	1.305688E+0	1.218573E+0	1.293965E+0	1.267058E+0	1.395324E+0	1.184721E+0	1.212851E+0	1.302916E+0	1.345269E+0	1.212099E+0	1.279132E+0	1.306412E+0	1.283113E+0	1.316153E+0	1.297221E+0	1.306612E+0	1.250810E+0	1.232937E+0
5.437640E+2	1.462562E+0	1.440686E+0	1.473787E+0	1.481079E+0	1.448234E+0	1.494602E+0	1.421611E+0	1.409161E+0	1.415959E+0	1.484751E+0	1.512081E+0	1.397292E+0	1.524603E+0	1.429883E+0	1.423782E+0	1.444290E+0	1.503887E+0	1.442370E+0	1.519012E+0	1.443314E+0	1.434584E+0	1.515862E+0	1.394297E+0	1.480378E+0	1.496889E+0	1.455112E+0	1.399064E+0	1.528829E+0	1.542176E+0	1.440409E+0	1.417418E+0	1.468210E+0	1.429812E+0	1.456735E+0	1.435566E+0	1.478932E+0	1.453703E+0	1.385915E+0	1.413236E+0	1.541979E+0	1.498221E+0	1.408497E+0	1.384077E+0	1.449801E+0	1.447142E+0	1.425700E+0	1.435496E+0	1.461848E+0	1.505968E+0	1.436647E+0	1.414938E+0	1.440275E+0	1.497043E+0	1.375639E+0	1.427420E+0	1.523729E+0	1.495405E+0	1.416309E+0	1.462722E+0	1.487743E+0	1.489975E+0	1.411319E+0	1.445890E+0	1.474007E+0	1.493424E+0	1.521036E+0	1.424818E+0	1.486125E+0	1.451680E+0	1.437958E+0	1.389103E+0	1.419755E+0	1.439678E+0	1.397072E+0	1.387790E+0	1.438876E+0	1.440868E+0	1.451348E+0	1.420531E+0	1.445200E+0	1.514669E+0	1.405186E+0	1.481857E+0	1.436216E+0	1.436150E+0	1.392971E+0	1.478140E+0	1.506368E+0	1.468281E+0	1.456199E+0	1.432287E+0	1.404745E+0	1.447009E+0	1.471536E+0	1.471344E+0	1.479012E+0	1.482227E+0	1.401587E+0	1.460138E+0	1.438873E+0	1.406344E+0	1.419834E+0	1.435525E+0	1.464861E+0	1.440518E+0	1.423214E+0	1.340784E+0	1.456767E+0	1.459665E+0	1.443366E+0	1.395340E+0	1.461253E+0	1.501804E+0	1.428224E+0	1.441377E+0	1.426024E+0	1.449822E+0	1.390364E+0	1.409563E+0	1.507469E+0	1.386587E+0	1.411214E+0	1.389444E+0	1.448807E+0	1.458717E+0	1.430563E+0	1.425133E+0	1.422838E+0	1.505694E+0	1.474565E+0	1.452863E+0	1.422990E+0	1.438183E+0	1.449804E+0	1.479497E+0	1.468109E+0	1.478902E+0	1.433637E+0	1.448312E+0	1.458858E+0	1.444741E+0	1.417042E+0	1.453846E+0	1.422974E+0	1.505847E+0	1.414115E+0	1.418766E+0	1.399353E+0	1.470719E+0	1.425785E+0	1.379296E+0	1.498602E+0	1.470723E+0	1.390319E+0	1.402381E+0	1.470899E+0	1.432744E+0	1.423508E+0	1.422682E+0	1.486199E+0	1.475357E+0	1.468670E+0	1.464745E+0	1.427050E+0	1.441748E+0	1.332456E+0
5.440220E+2	1.587068E+0	1.599454E+0	1.575314E+0	1.677745E+0	1.594247E+0	1.522477E+0	1.587949E+0	1.566962E+0	1.620381E+0	1.653049E+0	1.531331E+0	1.613043E+0	1.641474E+0	1.545826E+0	1.506190E+0	1.654377E+0	1.568976E+0	1.572977E+0	1.640137E+0	1.570127E+0	1.490971E+0	1.599889E+0	1.569100E+0	1.572202E+0	1.576525E+0	1.545576E+0	1.534147E+0	1.634704E+0	1.625854E+0	1.439785E+0	1.599446E+0	1.526128E+0	1.625070E+0	1.554854E+0	1.536517E+0	1.598783E+0	1.549969E+0	1.583164E+0	1.565553E+0	1.583823E+0	1.599865E+0	1.568824E+0	1.556659E+0	1.618475E+0	1.616481E+0	1.597091E+0	1.575048E+0	1.539440E+0	1.579029E+0	1.530826E+0	1.490365E+0	1.602367E+0	1.558350E+0	1.546799E+0	1.581833E+0	1.630873E+0	1.542379E+0	1.515531E+0	1.554257E+0	1.641791E+0	1.597150E+0	1.507325E+0	1.563666E+0	1.542229E+0	1.588840E+0	1.550752E+0	1.540869E+0	1.611162E+0	1.605343E+0	1.586110E+0	1.511688E+0	1.587654E+0	1.518638E+0	1.518843E+0	1.530200E+0	1.537292E+0	1.590304E+0	1.569523E+0	1.548438E+0	1.605036E+0	1.648342E+0	1.486499E+0	1.499826E+0	1.582421E+0	1.549533E+0	1.567127E+0	1.604247E+0	1.662835E+0	1.577794E+0	1.604983E+0	1.509388E+0	1.589925E+0	1.565341E+0	1.531010E+0	1.572810E+0	1.589126E+0	1.645869E+0	1.543603E+0	1.573825E+0	1.632079E+0	1.498412E+0	1.509459E+0	1.563609E+0	1.645465E+0	1.566171E+0	1.513264E+0	1.528560E+0	1.585903E+0	1.596555E+0	1.553975E+0	1.522282E+0	1.600245E+0	1.543496E+0	1.481402E+0	1.543369E+0	1.517323E+0	1.539708E+0	1.507013E+0	1.580335E+0	1.568560E+0	1.505402E+0	1.575054E+0	1.549499E+0	1.547796E+0	1.628029E+0	1.587926E+0	1.553815E+0	1.576686E+0	1.573315E+0	1.587592E+0	1.591199E+0	1.552451E+0	1.592086E+0	1.554839E+0	1.564244E+0	1.576038E+0	1.559280E+0	1.548082E+0	1.506705E+0	1.548905E+0	1.518065E+0	1.584117E+0	1.550078E+0	1.531357E+0	1.572948E+0	1.490242E+0	1.568090E+0	1.581103E+0	1.514566E+0	1.559941E+0	1.533671E+0	1.623157E+0	1.533362E+0	1.510017E+0	1.554553E+0	1.546787E+0	1.613301E+0	1.539354E+0	1.444953E+0	1.593239E+0	1.510433E+0	1.514773E+0	1.598555E+0	1.590665E+0	1.536240E+0	1.538256E+0
5.442750E+2	1.608414E+0	1.578634E+0	1.598913E+0	1.608348E+0	1.533186E+0	1.607468E+0	1.542708E+0	1.625294E+0	1.563936E+0	1.553870E+0	1.600512E+0	1.648806E+0	1.595037E+0	1.562164E+0	1.572326E+0	1.623582E+0	1.627869E+0	1.537461E+0	1.633829E+0	1.612806E+0	1.622414E+0	1.600551E+0	1.573123E+0	1.643393E+0	1.567464E+0	1.521844E+0	1.565064E+0	1.715652E+0	1.627483E+0	1.527124E+0	1.573752E+0	1.580550E+0	1.632394E+0	1.595236E+0	1.565251E+0	1.625836E+0	1.607355E+0	1.509761E+0	1.543097E+0	1.595189E+0	1.561253E+0	1.565183E+0	1.544297E+0	1.629473E+0	1.550296E+0	1.503021E+0	1.521640E+0	1.600649E+0	1.517755E+0	1.599288E+0	1.518021E+0	1.626839E+0	1.568990E+0	1.543268E+0	1.588483E+0	1.578828E+0	1.606131E+0	1.585207E+0	1.567441E+0	1.618841E+0	1.628487E+0	1.550119E+0	1.565106E+0	1.603629E+0	1.545548E+0	1.635247E+0	1.608739E+0	1.540288E+0	1.540872E+0	1.576681E+0	1.547035E+0	1.588366E+0	1.593363E+0	1.563687E+0	1.583341E+0	1.600843E+0	1.621808E+0	1.619489E+0	1.562258E+0	1.569447E+0	1.635131E+0	1.524252E+0	1.528106E+0	1.601381E+0	1.546573E+0	1.537246E+0	1.515936E+0	1.624995E+0	1.587471E+0	1.537571E+0	1.632198E+0	1.600265E+0	1.576092E+0	1.545770E+0	1.573726E+0	1.543793E+0	1.535043E+0	1.548119E+0	1.478926E+0	1.542777E+0	1.575965E+0	1.553697E+0	1.624712E+0	1.581371E+0	1.577078E+0	1.616747E+0	1.579450E+0	1.602133E+0	1.603204E+0	1.550925E+0	1.555533E+0	1.605571E+0	1.584558E+0	1.541956E+0	1.556718E+0	1.489576E+0	1.610353E+0	1.604771E+0	1.613559E+0	1.609739E+0	1.609868E+0	1.557401E+0	1.582470E+0	1.556132E+0	1.572400E+0	1.541666E+0	1.657013E+0	1.657112E+0	1.573541E+0	1.450582E+0	1.535054E+0	1.610045E+0	1.575852E+0	1.584746E+0	1.579745E+0	1.631206E+0	1.531047E+0	1.525226E+0	1.562310E+0	1.583736E+0	1.585743E+0	1.542137E+0	1.548716E+0	1.588748E+0	1.644151E+0	1.517581E+0	1.526011E+0	1.559997E+0	1.579246E+0	1.529574E+0	1.544987E+0	1.585959E+0	1.631772E+0	1.494418E+0	1.505823E+0	1.619415E+0	1.535147E+0	1.545717E+0	1.543438E+0	1.571608E+0	1.556742E+0	1.564460E+0	1.518950E+0	1.626974E+0	1.570227E+0	1.563596E+0
5.445130E+2	1.543756E+0	1.582600E+0	1.582517E+0	1.576942E+0	1.577745E+0	1.561736E+0	1.521523E+0	1.618596E+0	1.591945E+0	1.556384E+0	1.541706E+0	1.578333E+0	1.534915E+0	1.578920E+0	1.579407E+0	1.595072E+0	1.564334E+0	1.539417E+0	1.564874E+0	1.656872E+0	1.629014E+0	1.560684E+0	1.574789E+0	1.576001E+0	1.557139E+0	1.585286E+0	1.528675E+0	1.639448E+0	1.590924E+0	1.502394E+0	1.575430E+0	1.529324E+0	1.589591E+0	1.517284E+0	1.530855E+0	1.512860E+0	1.548253E+0	1.528832E+0	1.495405E+0	1.614410E+0	1.538828E+0	1.544702E+0	1.549828E+0	1.622115E+0	1.561372E+0	1.483569E+0	1.538346E+0	1.493055E+0	1.603398E+0	1.541171E+0	1.566494E+0	1.595492E+0	1.542166E+0	1.593747E+0	1.517394E+0	1.564240E+0	1.548897E+0	1.512914E+0	1.521975E+0	1.516393E+0	1.545835E+0	1.513036E+0	1.589077E+0	1.650537E+0	1.547379E+0	1.579861E+0	1.511064E+0	1.586346E+0	1.551606E+0	1.567075E+0	1.501836E+0	1.527556E+0	1.558608E+0	1.515125E+0	1.547396E+0	1.651703E+0	1.535328E+0	1.561265E+0	1.473330E+0	1.579137E+0	1.553676E+0	1.491328E+0	1.593203E+0	1.564005E+0	1.565726E+0	1.491972E+0	1.528609E+0	1.643886E+0	1.574249E+0	1.617656E+0	1.582556E+0	1.505324E+0	1.543971E+0	1.502465E+0	1.566174E+0	1.590611E+0	1.587272E+0	1.537821E+0	1.574261E+0	1.639706E+0	1.564333E+0	1.513308E+0	1.587008E+0	1.533395E+0	1.531299E+0	1.535147E+0	1.492827E+0	1.571949E+0	1.580277E+0	1.539897E+0	1.455693E+0	1.580813E+0	1.599013E+0	1.512775E+0	1.505893E+0	1.509143E+0	1.580038E+0	1.550576E+0	1.586219E+0	1.560725E+0	1.519528E+0	1.554696E+0	1.566040E+0	1.519329E+0	1.494318E+0	1.540631E+0	1.504951E+0	1.570393E+0	1.514946E+0	1.524820E+0	1.581251E+0	1.615767E+0	1.562101E+0	1.550342E+0	1.543933E+0	1.497304E+0	1.525808E+0	1.498018E+0	1.477096E+0	1.573933E+0	1.557832E+0	1.504275E+0	1.525014E+0	1.571152E+0	1.615750E+0	1.477357E+0	1.564167E+0	1.542897E+0	1.500906E+0	1.552968E+0	1.470009E+0	1.652262E+0	1.585820E+0	1.561199E+0	1.495961E+0	1.572849E+0	1.558492E+0	1.518535E+0	1.569569E+0	1.529254E+0	1.519847E+0	1.525428E+0	1.585055E+0	1.493003E+0	1.422394E+0	1.538509E+0
5.447660E+2	1.549931E+0	1.525156E+0	1.590963E+0	1.560177E+0	1.547326E+0	1.554985E+0	1.556883E+0	1.646461E+0	1.544333E+0	1.537204E+0	1.615758E+0	1.511336E+0	1.610605E+0	1.559065E+0	1.534541E+0	1.515651E+0	1.576172E+0	1.541620E+0	1.634204E+0	1.523140E+0	1.622596E+0	1.558810E+0	1.493705E+0	1.569980E+0	1.626620E+0	1.510233E+0	1.544888E+0	1.674952E+0	1.554491E+0	1.513446E+0	1.530586E+0	1.546492E+0	1.619940E+0	1.519694E+0	1.520825E+0	1.565705E+0	1.557112E+0	1.509842E+0	1.505656E+0	1.599217E+0	1.566754E+0	1.532015E+0	1.529413E+0	1.591002E+0	1.577371E+0	1.540816E+0	1.509861E+0	1.544477E+0	1.544672E+0	1.528850E+0	1.581204E+0	1.555108E+0	1.521239E+0	1.484020E+0	1.599337E+0	1.622466E+0	1.549794E+0	1.548261E+0	1.492951E+0	1.564977E+0	1.593898E+0	1.528711E+0	1.537127E+0	1.576483E+0	1.554891E+0	1.519249E+0	1.483827E+0	1.578264E+0	1.531372E+0	1.522492E+0	1.508271E+0	1.504014E+0	1.561244E+0	1.497609E+0	1.508783E+0	1.565815E+0	1.575760E+0	1.448895E+0	1.502201E+0	1.572191E+0	1.512984E+0	1.526271E+0	1.509006E+0	1.549709E+0	1.558273E+0	1.542999E+0	1.525462E+0	1.653729E+0	1.503240E+0	1.589099E+0	1.515275E+0	1.516313E+0	1.536072E+0	1.530798E+0	1.517257E+0	1.578741E+0	1.543003E+0	1.530705E+0	1.543478E+0	1.531833E+0	1.496923E+0	1.478156E+0	1.595592E+0	1.555360E+0	1.556568E+0	1.536237E+0	1.490039E+0	1.588172E+0	1.566829E+0	1.489190E+0	1.542194E+0	1.643555E+0	1.544819E+0	1.506360E+0	1.549995E+0	1.462515E+0	1.558780E+0	1.507134E+0	1.558812E+0	1.548091E+0	1.523772E+0	1.530725E+0	1.504964E+0	1.523019E+0	1.539668E+0	1.507403E+0	1.532027E+0	1.503441E+0	1.559316E+0	1.530726E+0	1.545788E+0	1.491472E+0	1.522202E+0	1.502251E+0	1.570412E+0	1.510550E+0	1.570132E+0	1.529149E+0	1.501701E+0	1.563973E+0	1.592285E+0	1.501420E+0	1.534792E+0	1.607009E+0	1.589928E+0	1.431720E+0	1.461307E+0	1.546380E+0	1.489281E+0	1.509957E+0	1.522343E+0	1.545648E+0	1.550677E+0	1.533765E+0	1.447548E+0	1.563387E+0	1.508022E+0	1.486169E+0	1.486698E+0	1.545193E+0	1.494567E+0	1.584987E+0	1.596934E+0	1.558783E+0	1.480002E+0	1.551370E+0
5.450090E+2	1.616530E+0	1.534551E+0	1.544451E+0	1.639574E+0	1.539405E+0	1.543217E+0	1.535759E+0	1.562712E+0	1.635976E+0	1.570428E+0	1.568540E+0	1.606066E+0	1.584390E+0	1.541628E+0	1.592570E+0	1.627708E+0	1.599399E+0	1.569275E+0	1.619481E+0	1.609938E+0	1.576100E+0	1.570168E+0	1.546535E+0	1.551826E+0	1.560734E+0	1.527646E+0	1.585700E+0	1.649300E+0	1.576783E+0	1.557066E+0	1.526260E+0	1.526818E+0	1.541915E+0	1.610863E+0	1.516314E+0	1.560917E+0	1.536105E+0	1.548325E+0	1.561461E+0	1.597190E+0	1.519053E+0	1.505184E+0	1.535022E+0	1.585791E+0	1.550961E+0	1.587397E+0	1.513083E+0	1.515997E+0	1.510248E+0	1.585359E+0	1.542027E+0	1.615204E+0	1.612289E+0	1.531140E+0	1.569628E+0	1.618442E+0	1.572962E+0	1.512090E+0	1.531838E+0	1.594554E+0	1.601892E+0	1.541808E+0	1.559123E+0	1.579598E+0	1.550531E+0	1.575561E+0	1.498927E+0	1.598578E+0	1.562096E+0	1.575371E+0	1.512383E+0	1.626723E+0	1.570867E+0	1.461693E+0	1.538609E+0	1.549243E+0	1.537097E+0	1.554628E+0	1.539954E+0	1.573697E+0	1.630988E+0	1.532629E+0	1.583719E+0	1.598789E+0	1.529265E+0	1.549376E+0	1.560463E+0	1.672047E+0	1.540841E+0	1.584179E+0	1.547533E+0	1.523084E+0	1.495596E+0	1.485404E+0	1.590767E+0	1.528821E+0	1.612484E+0	1.585063E+0	1.507159E+0	1.545964E+0	1.593002E+0	1.532675E+0	1.588549E+0	1.678890E+0	1.546101E+0	1.580245E+0	1.562035E+0	1.647900E+0	1.522477E+0	1.499016E+0	1.538238E+0	1.556971E+0	1.520091E+0	1.539348E+0	1.463832E+0	1.510651E+0	1.593676E+0	1.545386E+0	1.621754E+0	1.540645E+0	1.511112E+0	1.617464E+0	1.564163E+0	1.525504E+0	1.580786E+0	1.544084E+0	1.543003E+0	1.536114E+0	1.562165E+0	1.511218E+0	1.473355E+0	1.507455E+0	1.563623E+0	1.597292E+0	1.517366E+0	1.525648E+0	1.587401E+0	1.576550E+0	1.483596E+0	1.527606E+0	1.558741E+0	1.542929E+0	1.571089E+0	1.551381E+0	1.635248E+0	1.472594E+0	1.544381E+0	1.575567E+0	1.625095E+0	1.556627E+0	1.527944E+0	1.612501E+0	1.536786E+0	1.553565E+0	1.486405E+0	1.525654E+0	1.579247E+0	1.540292E+0	1.513045E+0	1.555275E+0	1.496475E+0	1.538531E+0	1.574760E+0	1.439191E+0	1.512210E+0	1.393374E+0
5.452580E+2	1.424841E+0	1.400941E+0	1.422462E+0	1.476569E+0	1.333550E+0	1.467201E+0	1.382531E+0	1.437562E+0	1.478061E+0	1.383093E+0	1.449198E+0	1.403275E+0	1.431134E+0	1.409790E+0	1.447525E+0	1.470889E+0	1.449051E+0	1.463996E+0	1.464771E+0	1.474342E+0	1.440203E+0	1.445418E+0	1.397647E+0	1.456836E+0	1.409670E+0	1.419914E+0	1.378491E+0	1.451502E+0	1.467919E+0	1.415692E+0	1.418036E+0	1.410355E+0	1.462046E+0	1.376398E+0	1.349172E+0	1.376451E+0	1.464894E+0	1.404772E+0	1.381899E+0	1.413183E+0	1.418448E+0	1.403689E+0	1.389939E+0	1.466162E+0	1.383241E+0	1.427729E+0	1.409126E+0	1.419481E+0	1.354544E+0	1.462868E+0	1.374485E+0	1.385126E+0	1.415207E+0	1.413299E+0	1.454926E+0	1.466684E+0	1.427683E+0	1.434517E+0	1.406740E+0	1.450506E+0	1.488700E+0	1.356981E+0	1.478389E+0	1.439312E+0	1.403239E+0	1.431570E+0	1.393584E+0	1.384817E+0	1.394983E+0	1.415415E+0	1.394162E+0	1.363880E+0	1.449565E+0	1.332447E+0	1.336294E+0	1.359880E+0	1.440901E+0	1.401500E+0	1.405371E+0	1.426538E+0	1.390260E+0	1.338973E+0	1.417305E+0	1.433384E+0	1.389079E+0	1.356390E+0	1.392428E+0	1.467641E+0	1.410351E+0	1.386281E+0	1.382790E+0	1.447843E+0	1.429348E+0	1.368505E+0	1.415962E+0	1.381111E+0	1.429330E+0	1.393627E+0	1.404675E+0	1.374247E+0	1.399934E+0	1.369486E+0	1.479181E+0	1.477991E+0	1.393960E+0	1.403216E+0	1.347484E+0	1.504821E+0	1.417212E+0	1.404618E+0	1.399345E+0	1.407473E+0	1.358665E+0	1.379068E+0	1.379567E+0	1.390434E+0	1.435815E+0	1.448853E+0	1.418899E+0	1.482846E+0	1.409224E+0	1.372936E+0	1.443473E+0	1.391927E+0	1.380110E+0	1.363945E+0	1.378390E+0	1.359070E+0	1.374455E+0	1.384724E+0	1.392961E+0	1.421536E+0	1.399543E+0	1.424109E+0	1.416673E+0	1.360628E+0	1.441941E+0	1.412005E+0	1.327224E+0	1.446339E+0	1.392034E+0	1.373464E+0	1.437022E+0	1.399926E+0	1.488418E+0	1.406021E+0	1.357905E+0	1.435117E+0	1.438024E+0	1.420387E+0	1.411850E+0	1.459663E+0	1.362772E+0	1.375187E+0	1.352830E+0	1.441205E+0	1.386428E+0	1.378538E+0	1.373978E+0	1.419655E+0	1.373285E+0	1.410025E+0	1.418504E+0	1.438574E+0	1.376623E+0	1.363982E+0
5.455130E+2	1.435102E+0	1.451257E+0	1.374334E+0	1.504223E+0	1.421670E+0	1.484177E+0	1.414092E+0	1.404975E+0	1.488686E+0	1.479913E+0	1.424741E+0	1.502800E+0	1.441806E+0	1.392447E+0	1.503050E+0	1.443454E+0	1.460120E+0	1.393097E+0	1.441282E+0	1.453597E+0	1.480589E+0	1.475262E+0	1.444753E+0	1.437788E+0	1.409505E+0	1.403858E+0	1.433183E+0	1.462896E+0	1.475008E+0	1.442793E+0	1.423702E+0	1.462501E+0	1.429644E+0	1.475326E+0	1.411586E+0	1.422504E+0	1.464628E+0	1.475404E+0	1.417147E+0	1.405712E+0	1.467077E+0	1.443244E+0	1.464007E+0	1.479014E+0	1.447747E+0	1.409863E+0	1.447119E+0	1.431938E+0	1.462286E+0	1.370792E+0	1.408116E+0	1.471026E+0	1.445087E+0	1.394277E+0	1.463546E+0	1.493690E+0	1.370592E+0	1.385139E+0	1.414976E+0	1.457328E+0	1.407593E+0	1.390520E+0	1.449985E+0	1.410121E+0	1.435073E+0	1.437733E+0	1.404770E+0	1.459360E+0	1.432162E+0	1.442284E+0	1.429377E+0	1.423790E+0	1.473774E+0	1.409412E+0	1.454103E+0	1.488176E+0	1.409988E+0	1.428654E+0	1.431571E+0	1.470527E+0	1.433911E+0	1.446986E+0	1.422226E+0	1.436200E+0	1.386265E+0	1.403385E+0	1.399174E+0	1.462866E+0	1.443238E+0	1.394217E+0	1.456101E+0	1.454972E+0	1.381044E+0	1.361636E+0	1.448509E+0	1.482976E+0	1.470498E+0	1.405791E+0	1.396028E+0	1.464030E+0	1.436891E+0	1.422805E+0	1.431175E+0	1.448085E+0	1.409737E+0	1.415793E+0	1.381278E+0	1.497559E+0	1.459983E+0	1.377689E+0	1.457764E+0	1.386162E+0	1.510086E+0	1.364154E+0	1.375496E+0	1.440581E+0	1.459786E+0	1.377531E+0	1.432665E+0	1.453082E+0	1.371156E+0	1.426843E+0	1.427307E+0	1.415433E+0	1.441037E+0	1.410676E+0	1.412626E+0	1.426804E+0	1.380825E+0	1.426965E+0	1.460705E+0	1.388380E+0	1.393611E+0	1.446107E+0	1.383087E+0	1.360508E+0	1.452375E+0	1.428871E+0	1.418617E+0	1.403595E+0	1.437134E+0	1.388971E+0	1.376765E+0	1.410762E+0	1.571935E+0	1.373018E+0	1.379505E+0	1.428201E+0	1.451310E+0	1.444929E+0	1.401579E+0	1.447749E+0	1.481144E+0	1.388655E+0	1.393831E+0	1.487206E+0	1.372213E+0	1.387285E+0	1.361680E+0	1.430925E+0	1.378937E+0	1.428032E+0	1.392341E+0	1.375043E+0	1.339394E+0	1.412758E+0
5.457670E+2	1.326184E+0	1.366037E+0	1.342429E+0	1.384636E+0	1.308161E+0	1.308338E+0	1.330102E+0	1.346475E+0	1.387013E+0	1.349287E+0	1.398284E+0	1.424870E+0	1.364738E+0	1.328260E+0	1.336442E+0	1.396383E+0	1.396057E+0	1.323081E+0	1.373537E+0	1.372043E+0	1.343881E+0	1.344262E+0	1.314166E+0	1.304956E+0	1.347765E+0	1.354876E+0	1.341857E+0	1.409819E+0	1.329021E+0	1.312844E+0	1.341285E+0	1.305919E+0	1.389502E+0	1.368082E+0	1.336317E+0	1.332202E+0	1.397713E+0	1.342862E+0	1.345503E+0	1.413961E+0	1.320244E+0	1.300686E+0	1.323196E+0	1.373139E+0	1.344334E+0	1.329792E+0	1.330293E+0	1.345470E+0	1.351796E+0	1.319183E+0	1.374491E+0	1.367901E+0	1.347686E+0	1.334693E+0	1.283293E+0	1.412342E+0	1.314364E+0	1.357935E+0	1.335593E+0	1.375130E+0	1.381207E+0	1.306700E+0	1.364858E+0	1.360939E+0	1.380026E+0	1.347973E+0	1.325418E+0	1.327362E+0	1.329060E+0	1.395472E+0	1.322098E+0	1.360273E+0	1.343278E+0	1.265518E+0	1.374172E+0	1.343156E+0	1.359589E+0	1.371909E+0	1.348931E+0	1.351521E+0	1.348919E+0	1.274787E+0	1.313709E+0	1.376514E+0	1.322710E+0	1.280887E+0	1.345551E+0	1.394132E+0	1.388480E+0	1.378823E+0	1.316251E+0	1.410510E+0	1.267578E+0	1.323806E+0	1.354637E+0	1.307640E+0	1.408043E+0	1.304290E+0	1.319981E+0	1.369465E+0	1.296770E+0	1.268937E+0	1.409497E+0	1.334896E+0	1.316783E+0	1.335988E+0	1.324934E+0	1.363303E+0	1.345722E+0	1.311200E+0	1.335980E+0	1.393147E+0	1.386889E+0	1.375406E+0	1.318342E+0	1.319213E+0	1.357933E+0	1.336553E+0	1.381459E+0	1.353496E+0	1.303715E+0	1.359345E+0	1.329962E+0	1.360574E+0	1.355459E+0	1.338710E+0	1.300211E+0	1.294441E+0	1.335963E+0	1.362803E+0	1.334183E+0	1.325816E+0	1.326063E+0	1.329521E+0	1.354203E+0	1.328954E+0	1.379475E+0	1.310114E+0	1.396977E+0	1.323639E+0	1.269751E+0	1.352177E+0	1.343514E+0	1.352453E+0	1.364675E+0	1.313190E+0	1.314608E+0	1.263032E+0	1.429051E+0	1.339547E+0	1.300298E+0	1.403812E+0	1.322857E+0	1.253462E+0	1.283776E+0	1.392254E+0	1.377335E+0	1.299140E+0	1.356223E+0	1.376842E+0	1.271165E+0	1.347838E+0	1.348824E+0	1.314306E+0	1.364668E+0	1.281374E+0
5.460060E+2	1.267669E+0	1.269254E+0	1.284952E+0	1.257263E+0	1.221169E+0	1.280899E+0	1.206750E+0	1.239639E+0	1.280460E+0	1.327968E+0	1.304429E+0	1.319166E+0	1.269455E+0	1.292782E+0	1.255467E+0	1.306360E+0	1.327097E+0	1.221395E+0	1.359748E+0	1.277402E+0	1.297216E+0	1.284346E+0	1.305118E+0	1.291597E+0	1.277777E+0	1.233134E+0	1.231064E+0	1.292429E+0	1.348436E+0	1.254950E+0	1.306327E+0	1.329945E+0	1.250301E+0	1.260307E+0	1.289373E+0	1.258878E+0	1.282369E+0	1.268173E+0	1.221169E+0	1.291486E+0	1.309558E+0	1.300455E+0	1.243668E+0	1.333406E+0	1.279063E+0	1.253561E+0	1.203621E+0	1.270550E+0	1.297135E+0	1.318978E+0	1.254042E+0	1.342442E+0	1.294510E+0	1.217158E+0	1.329478E+0	1.317563E+0	1.296871E+0	1.315853E+0	1.226542E+0	1.265952E+0	1.379821E+0	1.273356E+0	1.272048E+0	1.295783E+0	1.310916E+0	1.342543E+0	1.269308E+0	1.253136E+0	1.295057E+0	1.261195E+0	1.271235E+0	1.277754E+0	1.220294E+0	1.245831E+0	1.303470E+0	1.353388E+0	1.288862E+0	1.289923E+0	1.248211E+0	1.273021E+0	1.323434E+0	1.266817E+0	1.281766E+0	1.288513E+0	1.352162E+0	1.264321E+0	1.220387E+0	1.282085E+0	1.262705E+0	1.282634E+0	1.291946E+0	1.299299E+0	1.280557E+0	1.257343E+0	1.323040E+0	1.297005E+0	1.272603E+0	1.286290E+0	1.222219E+0	1.327024E+0	1.275307E+0	1.201782E+0	1.242214E+0	1.328341E+0	1.228388E+0	1.236077E+0	1.264374E+0	1.348956E+0	1.246346E+0	1.254062E+0	1.262065E+0	1.289488E+0	1.283370E+0	1.226531E+0	1.186439E+0	1.283811E+0	1.286477E+0	1.287383E+0	1.339733E+0	1.315350E+0	1.255070E+0	1.299333E+0	1.288973E+0	1.293164E+0	1.309781E+0	1.236147E+0	1.257826E+0	1.297887E+0	1.260108E+0	1.225719E+0	1.278281E+0	1.269188E+0	1.259295E+0	1.282890E+0	1.294840E+0	1.287767E+0	1.338071E+0	1.190276E+0	1.232760E+0	1.237533E+0	1.257191E+0	1.217094E+0	1.289023E+0	1.287343E+0	1.288316E+0	1.287801E+0	1.186631E+0	1.248138E+0	1.235789E+0	1.191178E+0	1.224496E+0	1.331897E+0	1.226470E+0	1.261318E+0	1.301965E+0	1.315089E+0	1.259055E+0	1.270235E+0	1.272552E+0	1.265287E+0	1.246853E+0	1.329088E+0	1.285775E+0	1.311383E+0	1.207189E+0	1.291437E+0
5.467600E+2	1.301729E+0	1.298255E+0	1.255748E+0	1.257495E+0	1.219105E+0	1.296376E+0	1.194396E+0	1.256277E+0	1.229017E+0	1.267304E+0	1.240557E+0	1.229124E+0	1.230559E+0	1.260123E+0	1.250973E+0	1.199644E+0	1.313567E+0	1.241157E+0	1.269664E+0	1.304897E+0	1.229518E+0	1.270001E+0	1.230893E+0	1.259592E+0	1.224723E+0	1.205617E+0	1.247759E+0	1.266908E+0	1.274780E+0	1.217295E+0	1.226782E+0	1.263621E+0	1.246534E+0	1.250608E+0	1.169771E+0	1.226242E+0	1.249994E+0	1.205787E+0	1.152464E+0	1.256128E+0	1.222111E+0	1.214988E+0	1.210236E+0	1.322061E+0	1.267187E+0	1.244314E+0	1.265612E+0	1.222710E+0	1.233382E+0	1.241663E+0	1.213327E+0	1.272720E+0	1.285613E+0	1.187701E+0	1.233572E+0	1.249949E+0	1.270696E+0	1.238417E+0	1.210009E+0	1.290019E+0	1.254717E+0	1.224031E+0	1.297599E+0	1.294983E+0	1.260361E+0	1.237606E+0	1.212779E+0	1.218225E+0	1.281624E+0	1.311835E+0	1.257691E+0	1.312351E+0	1.254783E+0	1.195059E+0	1.245283E+0	1.270349E+0	1.240181E+0	1.224425E+0	1.243168E+0	1.244402E+0	1.270632E+0	1.192082E+0	1.264081E+0	1.202317E+0	1.261967E+0	1.233814E+0	1.312101E+0	1.295804E+0	1.216131E+0	1.263983E+0	1.259628E+0	1.249103E+0	1.269332E+0	1.225200E+0	1.213077E+0	1.257445E+0	1.280643E+0	1.254396E+0	1.191235E+0	1.234378E+0	1.267120E+0	1.206306E+0	1.265920E+0	1.245283E+0	1.248962E+0	1.207031E+0	1.205513E+0	1.227944E+0	1.256348E+0	1.187981E+0	1.234603E+0	1.230376E+0	1.260537E+0	1.262536E+0	1.237714E+0	1.257254E+0	1.256205E+0	1.228779E+0	1.242203E+0	1.249798E+0	1.224632E+0	1.229565E+0	1.230124E+0	1.231501E+0	1.259931E+0	1.190854E+0	1.298526E+0	1.242205E+0	1.249414E+0	1.183958E+0	1.255474E+0	1.253287E+0	1.232128E+0	1.273311E+0	1.251459E+0	1.226629E+0	1.236503E+0	1.251057E+0	1.221671E+0	1.239606E+0	1.274831E+0	1.258047E+0	1.235318E+0	1.264834E+0	1.275939E+0	1.222191E+0	1.173787E+0	1.173027E+0	1.297117E+0	1.261573E+0	1.201639E+0	1.298663E+0	1.207471E+0	1.232047E+0	1.192549E+0	1.260275E+0	1.262799E+0	1.163748E+0	1.240910E+0	1.243943E+0	1.211456E+0	1.238637E+0	1.229234E+0	1.191507E+0	1.286851E+0	1.153692E+0
5.475280E+2	1.347117E+0	1.293957E+0	1.283817E+0	1.286884E+0	1.305695E+0	1.304365E+0	1.267848E+0	1.298901E+0	1.310273E+0	1.366318E+0	1.294615E+0	1.295848E+0	1.307456E+0	1.268542E+0	1.361000E+0	1.353723E+0	1.358891E+0	1.316498E+0	1.355620E+0	1.252959E+0	1.287865E+0	1.345096E+0	1.225869E+0	1.325860E+0	1.291591E+0	1.288680E+0	1.289675E+0	1.280443E+0	1.313438E+0	1.311652E+0	1.334852E+0	1.257674E+0	1.351030E+0	1.307931E+0	1.329067E+0	1.264650E+0	1.247465E+0	1.281979E+0	1.264186E+0	1.323650E+0	1.308493E+0	1.232027E+0	1.319249E+0	1.313883E+0	1.340514E+0	1.300557E+0	1.343949E+0	1.307313E+0	1.327989E+0	1.224126E+0	1.280649E+0	1.299403E+0	1.309673E+0	1.291848E+0	1.311489E+0	1.386242E+0	1.350238E+0	1.299215E+0	1.340010E+0	1.313835E+0	1.323121E+0	1.288082E+0	1.336969E+0	1.291823E+0	1.306204E+0	1.336169E+0	1.285022E+0	1.233472E+0	1.294452E+0	1.294103E+0	1.287902E+0	1.272016E+0	1.343606E+0	1.226853E+0	1.276931E+0	1.283485E+0	1.322656E+0	1.303940E+0	1.262431E+0	1.286145E+0	1.353782E+0	1.285659E+0	1.311645E+0	1.266320E+0	1.302010E+0	1.299428E+0	1.278380E+0	1.296990E+0	1.307994E+0	1.372691E+0	1.282339E+0	1.305293E+0	1.294991E+0	1.259631E+0	1.291864E+0	1.343603E+0	1.328858E+0	1.261422E+0	1.259537E+0	1.324275E+0	1.358985E+0	1.263482E+0	1.312044E+0	1.330255E+0	1.302483E+0	1.284962E+0	1.314066E+0	1.229350E+0	1.321378E+0	1.310886E+0	1.296284E+0	1.322029E+0	1.301634E+0	1.268952E+0	1.335572E+0	1.275981E+0	1.343094E+0	1.317591E+0	1.372033E+0	1.307185E+0	1.260616E+0	1.313268E+0	1.349841E+0	1.279833E+0	1.336930E+0	1.258768E+0	1.318111E+0	1.346520E+0	1.268215E+0	1.280473E+0	1.290066E+0	1.260439E+0	1.330915E+0	1.285493E+0	1.293027E+0	1.328707E+0	1.318378E+0	1.286796E+0	1.293337E+0	1.299516E+0	1.313924E+0	1.302876E+0	1.347550E+0	1.287950E+0	1.354396E+0	1.319271E+0	1.301819E+0	1.327032E+0	1.352934E+0	1.317417E+0	1.233527E+0	1.350032E+0	1.345169E+0	1.288709E+0	1.328559E+0	1.283047E+0	1.326085E+0	1.272608E+0	1.262181E+0	1.297473E+0	1.314764E+0	1.280558E+0	1.332254E+0	1.308145E+0	1.251745E+0	1.169132E+0
5.482600E+2	1.401164E+0	1.413739E+0	1.396669E+0	1.399302E+0	1.315002E+0	1.418375E+0	1.356630E+0	1.318426E+0	1.401931E+0	1.421723E+0	1.437707E+0	1.417996E+0	1.410574E+0	1.450666E+0	1.425722E+0	1.486673E+0	1.388815E+0	1.400414E+0	1.438808E+0	1.370120E+0	1.410329E+0	1.443907E+0	1.398538E+0	1.384064E+0	1.393583E+0	1.429686E+0	1.386671E+0	1.402453E+0	1.388178E+0	1.375944E+0	1.392124E+0	1.335201E+0	1.475138E+0	1.395261E+0	1.407842E+0	1.403060E+0	1.468583E+0	1.291454E+0	1.357026E+0	1.418439E+0	1.333931E+0	1.399081E+0	1.370713E+0	1.406733E+0	1.429091E+0	1.394156E+0	1.344790E+0	1.448355E+0	1.452670E+0	1.367560E+0	1.405382E+0	1.465762E+0	1.399373E+0	1.339577E+0	1.431764E+0	1.424118E+0	1.421897E+0	1.423576E+0	1.358084E+0	1.392433E+0	1.459123E+0	1.357681E+0	1.409087E+0	1.429310E+0	1.445132E+0	1.414789E+0	1.380608E+0	1.434873E+0	1.422634E+0	1.415485E+0	1.374811E+0	1.389479E+0	1.399083E+0	1.400625E+0	1.353165E+0	1.361225E+0	1.409225E+0	1.403399E+0	1.417856E+0	1.431123E+0	1.430649E+0	1.386363E+0	1.445611E+0	1.369046E+0	1.390534E+0	1.343276E+0	1.326947E+0	1.432829E+0	1.400419E+0	1.463699E+0	1.389875E+0	1.432340E+0	1.387421E+0	1.334870E+0	1.369697E+0	1.366110E+0	1.477547E+0	1.359401E+0	1.378611E+0	1.425271E+0	1.373967E+0	1.363453E+0	1.379548E+0	1.394262E+0	1.374014E+0	1.422696E+0	1.351684E+0	1.398641E+0	1.372713E+0	1.396491E+0	1.341476E+0	1.359664E+0	1.365688E+0	1.381301E+0	1.374159E+0	1.287488E+0	1.430718E+0	1.421532E+0	1.423891E+0	1.377301E+0	1.416114E+0	1.356911E+0	1.386366E+0	1.379829E+0	1.395531E+0	1.368823E+0	1.394350E+0	1.413364E+0	1.442096E+0	1.427221E+0	1.401650E+0	1.384173E+0	1.399278E+0	1.382313E+0	1.367914E+0	1.335352E+0	1.407873E+0	1.322502E+0	1.380579E+0	1.397918E+0	1.476521E+0	1.363890E+0	1.461250E+0	1.392034E+0	1.470284E+0	1.357253E+0	1.417936E+0	1.389543E+0	1.413829E+0	1.400206E+0	1.391438E+0	1.456336E+0	1.427964E+0	1.334839E+0	1.393163E+0	1.331073E+0	1.387604E+0	1.371716E+0	1.349092E+0	1.381650E+0	1.445269E+0	1.396644E+0	1.360051E+0	1.393379E+0	1.307203E+0	1.301964E+0
5.490100E+2	1.381829E+0	1.347260E+0	1.362690E+0	1.405479E+0	1.367198E+0	1.339905E+0	1.336270E+0	1.353775E+0	1.358188E+0	1.340638E+0	1.388563E+0	1.344739E+0	1.375395E+0	1.359337E+0	1.356861E+0	1.366480E+0	1.350666E+0	1.403145E+0	1.396519E+0	1.330203E+0	1.290311E+0	1.350238E+0	1.322509E+0	1.352394E+0	1.385004E+0	1.309220E+0	1.363060E+0	1.360983E+0	1.435995E+0	1.359687E+0	1.309405E+0	1.301640E+0	1.385412E+0	1.341111E+0	1.267902E+0	1.287246E+0	1.394244E+0	1.255727E+0	1.340269E+0	1.353854E+0	1.315687E+0	1.313709E+0	1.394416E+0	1.355324E+0	1.386669E+0	1.359846E+0	1.319004E+0	1.326296E+0	1.356354E+0	1.425782E+0	1.335618E+0	1.329334E+0	1.366846E+0	1.340083E+0	1.347132E+0	1.368830E+0	1.379486E+0	1.313488E+0	1.347760E+0	1.337458E+0	1.387308E+0	1.272011E+0	1.352501E+0	1.334032E+0	1.343046E+0	1.318738E+0	1.318193E+0	1.351692E+0	1.320525E+0	1.344770E+0	1.336230E+0	1.387129E+0	1.352573E+0	1.284190E+0	1.358932E+0	1.381305E+0	1.359899E+0	1.359221E+0	1.377335E+0	1.318041E+0	1.349861E+0	1.347095E+0	1.356785E+0	1.313628E+0	1.349890E+0	1.279411E+0	1.378518E+0	1.407635E+0	1.292408E+0	1.303739E+0	1.290602E+0	1.387709E+0	1.336233E+0	1.358257E+0	1.366970E+0	1.312616E+0	1.403583E+0	1.293836E+0	1.321207E+0	1.363772E+0	1.369187E+0	1.319387E+0	1.345559E+0	1.357323E+0	1.357323E+0	1.378100E+0	1.297724E+0	1.270292E+0	1.357316E+0	1.292916E+0	1.312113E+0	1.309297E+0	1.371089E+0	1.261346E+0	1.324539E+0	1.287243E+0	1.386641E+0	1.374173E+0	1.390806E+0	1.263581E+0	1.356777E+0	1.385656E+0	1.349739E+0	1.292790E+0	1.374820E+0	1.343525E+0	1.299322E+0	1.344801E+0	1.289649E+0	1.371210E+0	1.323788E+0	1.308008E+0	1.346006E+0	1.346992E+0	1.376012E+0	1.331799E+0	1.392023E+0	1.395465E+0	1.277498E+0	1.374435E+0	1.395606E+0	1.301243E+0	1.344847E+0	1.371462E+0	1.384095E+0	1.283824E+0	1.319551E+0	1.342268E+0	1.354982E+0	1.320364E+0	1.307018E+0	1.367710E+0	1.394001E+0	1.342174E+0	1.335878E+0	1.333410E+0	1.311311E+0	1.357618E+0	1.297685E+0	1.382773E+0	1.315840E+0	1.380020E+0	1.325859E+0	1.376091E+0	1.358945E+0	1.281394E+0
5.497520E+2	1.256642E+0	1.227768E+0	1.340453E+0	1.262058E+0	1.267620E+0	1.293338E+0	1.265201E+0	1.275294E+0	1.278666E+0	1.282006E+0	1.285945E+0	1.245671E+0	1.280889E+0	1.330736E+0	1.303112E+0	1.251755E+0	1.297651E+0	1.295020E+0	1.318149E+0	1.252368E+0	1.338808E+0	1.249985E+0	1.276964E+0	1.246444E+0	1.303297E+0	1.228626E+0	1.269003E+0	1.233826E+0	1.305890E+0	1.275017E+0	1.272575E+0	1.264613E+0	1.278032E+0	1.268490E+0	1.201747E+0	1.284519E+0	1.256047E+0	1.263325E+0	1.219282E+0	1.249309E+0	1.233252E+0	1.191232E+0	1.309084E+0	1.269502E+0	1.326360E+0	1.259003E+0	1.235469E+0	1.249994E+0	1.344919E+0	1.207712E+0	1.301816E+0	1.290465E+0	1.306607E+0	1.269360E+0	1.294741E+0	1.288254E+0	1.276361E+0	1.212593E+0	1.262501E+0	1.297232E+0	1.243561E+0	1.277764E+0	1.282863E+0	1.283647E+0	1.304603E+0	1.286518E+0	1.265367E+0	1.267967E+0	1.250581E+0	1.297816E+0	1.294319E+0	1.272319E+0	1.258890E+0	1.263647E+0	1.213353E+0	1.348475E+0	1.262622E+0	1.282933E+0	1.247447E+0	1.266235E+0	1.300853E+0	1.273902E+0	1.284802E+0	1.256226E+0	1.344148E+0	1.224404E+0	1.209113E+0	1.262405E+0	1.313573E+0	1.263297E+0	1.240481E+0	1.298066E+0	1.262583E+0	1.281961E+0	1.262141E+0	1.247934E+0	1.370970E+0	1.224629E+0	1.273075E+0	1.219843E+0	1.302775E+0	1.256400E+0	1.270387E+0	1.238666E+0	1.312774E+0	1.288436E+0	1.315559E+0	1.293268E+0	1.260832E+0	1.280389E+0	1.202694E+0	1.252733E+0	1.350327E+0	1.209790E+0	1.299961E+0	1.162754E+0	1.283759E+0	1.261054E+0	1.289501E+0	1.250875E+0	1.244789E+0	1.288998E+0	1.249199E+0	1.229563E+0	1.311701E+0	1.220715E+0	1.284941E+0	1.220125E+0	1.272378E+0	1.238949E+0	1.268814E+0	1.215587E+0	1.260915E+0	1.270688E+0	1.309844E+0	1.322458E+0	1.297560E+0	1.295333E+0	1.285633E+0	1.223562E+0	1.269546E+0	1.192814E+0	1.264446E+0	1.251963E+0	1.302199E+0	1.244746E+0	1.306598E+0	1.286991E+0	1.235551E+0	1.256855E+0	1.302949E+0	1.280597E+0	1.323757E+0	1.312504E+0	1.224914E+0	1.278051E+0	1.254560E+0	1.272136E+0	1.288780E+0	1.253619E+0	1.235265E+0	1.277798E+0	1.270827E+0	1.233270E+0	1.233977E+0	1.226512E+0
5.505110E+2	1.278525E+0	1.262825E+0	1.314220E+0	1.254157E+0	1.267172E+0	1.307343E+0	1.283278E+0	1.255841E+0	1.319444E+0	1.308591E+0	1.286296E+0	1.338907E+0	1.314665E+0	1.289818E+0	1.282681E+0	1.358668E+0	1.410830E+0	1.281665E+0	1.272274E+0	1.278256E+0	1.316398E+0	1.346725E+0	1.318653E+0	1.305237E+0	1.384411E+0	1.249359E+0	1.294847E+0	1.303986E+0	1.342000E+0	1.230660E+0	1.293815E+0	1.293904E+0	1.343463E+0	1.289661E+0	1.250844E+0	1.250329E+0	1.295251E+0	1.272134E+0	1.291612E+0	1.318033E+0	1.328650E+0	1.325450E+0	1.278855E+0	1.309244E+0	1.312934E+0	1.286246E+0	1.335396E+0	1.206797E+0	1.264793E+0	1.270824E+0	1.311415E+0	1.352912E+0	1.307766E+0	1.277976E+0	1.306847E+0	1.286930E+0	1.302140E+0	1.298449E+0	1.289506E+0	1.291862E+0	1.329514E+0	1.232648E+0	1.321971E+0	1.288752E+0	1.353331E+0	1.333804E+0	1.299404E+0	1.268298E+0	1.294263E+0	1.269802E+0	1.286218E+0	1.231420E+0	1.325014E+0	1.237963E+0	1.260739E+0	1.301679E+0	1.366601E+0	1.216807E+0	1.278907E+0	1.218734E+0	1.275503E+0	1.239211E+0	1.308307E+0	1.265141E+0	1.205964E+0	1.273208E+0	1.276571E+0	1.358267E+0	1.289940E+0	1.327322E+0	1.343151E+0	1.271534E+0	1.346426E+0	1.275373E+0	1.292885E+0	1.269843E+0	1.323511E+0	1.270685E+0	1.300037E+0	1.308561E+0	1.306815E+0	1.332884E+0	1.290426E+0	1.317489E+0	1.273434E+0	1.318008E+0	1.344659E+0	1.282646E+0	1.260679E+0	1.291747E+0	1.263809E+0	1.238628E+0	1.300196E+0	1.261153E+0	1.336194E+0	1.265734E+0	1.297907E+0	1.233586E+0	1.238939E+0	1.280099E+0	1.277954E+0	1.219711E+0	1.240791E+0	1.223990E+0	1.338129E+0	1.285166E+0	1.265945E+0	1.309397E+0	1.275749E+0	1.347764E+0	1.313164E+0	1.212521E+0	1.287964E+0	1.328845E+0	1.373512E+0	1.275003E+0	1.296233E+0	1.240975E+0	1.311090E+0	1.249394E+0	1.313445E+0	1.265826E+0	1.292644E+0	1.324842E+0	1.271091E+0	1.259264E+0	1.256532E+0	1.292428E+0	1.280916E+0	1.314545E+0	1.286215E+0	1.326316E+0	1.312060E+0	1.275908E+0	1.246121E+0	1.242732E+0	1.323068E+0	1.247165E+0	1.269100E+0	1.239232E+0	1.323284E+0	1.365383E+0	1.348619E+0	1.360947E+0	1.305785E+0	1.296517E+0
5.512570E+2	1.267428E+0	1.332965E+0	1.266628E+0	1.266158E+0	1.297197E+0	1.303392E+0	1.243539E+0	1.281942E+0	1.341929E+0	1.288799E+0	1.279123E+0	1.330322E+0	1.342868E+0	1.319565E+0	1.350329E+0	1.311321E+0	1.372157E+0	1.339915E+0	1.294299E+0	1.249595E+0	1.265688E+0	1.302842E+0	1.327272E+0	1.349232E+0	1.284664E+0	1.325575E+0	1.299481E+0	1.323694E+0	1.367047E+0	1.227032E+0	1.337692E+0	1.308438E+0	1.370011E+0	1.338200E+0	1.259039E+0	1.295785E+0	1.336871E+0	1.317572E+0	1.303688E+0	1.328444E+0	1.255559E+0	1.278629E+0	1.261102E+0	1.359221E+0	1.310607E+0	1.300149E+0	1.274957E+0	1.282521E+0	1.337634E+0	1.303035E+0	1.290367E+0	1.323634E+0	1.272501E+0	1.302402E+0	1.308201E+0	1.287898E+0	1.309783E+0	1.282683E+0	1.290435E+0	1.282287E+0	1.381904E+0	1.279537E+0	1.297934E+0	1.354252E+0	1.314014E+0	1.308102E+0	1.249122E+0	1.307272E+0	1.303118E+0	1.280155E+0	1.269188E+0	1.332719E+0	1.320495E+0	1.247316E+0	1.312955E+0	1.267047E+0	1.298046E+0	1.297068E+0	1.321950E+0	1.315064E+0	1.336564E+0	1.280221E+0	1.289891E+0	1.288450E+0	1.284597E+0	1.263632E+0	1.262439E+0	1.358576E+0	1.345452E+0	1.277787E+0	1.250357E+0	1.278259E+0	1.296555E+0	1.274594E+0	1.257590E+0	1.242893E+0	1.349473E+0	1.258978E+0	1.276322E+0	1.249699E+0	1.343533E+0	1.319324E+0	1.384046E+0	1.248636E+0	1.304679E+0	1.346099E+0	1.240602E+0	1.301491E+0	1.330270E+0	1.292505E+0	1.377136E+0	1.350675E+0	1.339025E+0	1.296257E+0	1.273878E+0	1.285244E+0	1.298705E+0	1.273122E+0	1.273631E+0	1.289438E+0	1.295106E+0	1.248971E+0	1.309553E+0	1.301648E+0	1.285575E+0	1.229953E+0	1.312223E+0	1.342462E+0	1.254866E+0	1.286626E+0	1.279329E+0	1.285871E+0	1.290847E+0	1.320313E+0	1.284625E+0	1.247113E+0	1.316989E+0	1.288392E+0	1.249627E+0	1.278638E+0	1.277719E+0	1.261508E+0	1.325641E+0	1.274296E+0	1.302799E+0	1.261639E+0	1.328542E+0	1.267820E+0	1.346600E+0	1.280665E+0	1.269101E+0	1.328958E+0	1.358108E+0	1.362066E+0	1.286507E+0	1.284309E+0	1.277348E+0	1.296687E+0	1.286478E+0	1.263094E+0	1.265847E+0	1.376644E+0	1.283311E+0	1.269130E+0	1.268485E+0	1.275419E+0
5.520150E+2	1.206207E+0	1.244426E+0	1.235813E+0	1.252009E+0	1.209317E+0	1.205741E+0	1.202484E+0	1.156851E+0	1.243936E+0	1.318753E+0	1.296909E+0	1.254117E+0	1.225859E+0	1.289088E+0	1.205381E+0	1.271520E+0	1.304925E+0	1.242239E+0	1.250388E+0	1.206714E+0	1.213045E+0	1.286457E+0	1.245275E+0	1.245883E+0	1.245412E+0	1.238694E+0	1.200575E+0	1.272198E+0	1.228215E+0	1.257224E+0	1.256615E+0	1.209563E+0	1.274304E+0	1.221065E+0	1.233461E+0	1.197434E+0	1.239956E+0	1.226361E+0	1.247218E+0	1.216698E+0	1.241737E+0	1.257789E+0	1.228012E+0	1.200256E+0	1.261848E+0	1.243541E+0	1.217680E+0	1.216658E+0	1.266023E+0	1.274480E+0	1.251030E+0	1.270579E+0	1.344760E+0	1.157147E+0	1.230822E+0	1.320635E+0	1.297057E+0	1.251931E+0	1.195299E+0	1.287244E+0	1.240869E+0	1.167376E+0	1.281211E+0	1.233616E+0	1.260117E+0	1.246461E+0	1.292066E+0	1.253184E+0	1.222271E+0	1.253321E+0	1.151871E+0	1.255268E+0	1.211495E+0	1.231642E+0	1.211735E+0	1.249645E+0	1.279133E+0	1.212339E+0	1.208128E+0	1.179716E+0	1.270175E+0	1.232679E+0	1.208937E+0	1.277300E+0	1.197769E+0	1.241948E+0	1.222547E+0	1.259722E+0	1.239051E+0	1.254995E+0	1.222139E+0	1.280734E+0	1.289767E+0	1.214814E+0	1.235781E+0	1.224587E+0	1.280447E+0	1.223485E+0	1.227063E+0	1.237822E+0	1.258494E+0	1.210623E+0	1.276813E+0	1.252529E+0	1.221223E+0	1.223105E+0	1.224393E+0	1.250348E+0	1.253101E+0	1.258600E+0	1.253425E+0	1.255142E+0	1.207994E+0	1.261371E+0	1.199828E+0	1.206584E+0	1.222840E+0	1.229357E+0	1.201920E+0	1.217751E+0	1.245120E+0	1.162492E+0	1.224121E+0	1.236436E+0	1.239649E+0	1.209644E+0	1.227049E+0	1.253230E+0	1.202599E+0	1.233443E+0	1.191307E+0	1.197856E+0	1.299122E+0	1.279887E+0	1.243313E+0	1.286512E+0	1.247023E+0	1.172911E+0	1.201689E+0	1.217912E+0	1.183674E+0	1.257591E+0	1.266786E+0	1.230905E+0	1.265391E+0	1.215152E+0	1.210242E+0	1.219105E+0	1.235613E+0	1.250918E+0	1.226647E+0	1.285993E+0	1.235732E+0	1.277100E+0	1.186514E+0	1.199054E+0	1.241088E+0	1.177082E+0	1.239815E+0	1.199686E+0	1.259078E+0	1.257135E+0	1.207736E+0	1.217587E+0	1.235088E+0	1.261796E+0
5.527700E+2	1.405259E+0	1.297176E+0	1.281067E+0	1.338255E+0	1.235757E+0	1.341800E+0	1.317486E+0	1.347722E+0	1.319346E+0	1.341304E+0	1.297998E+0	1.337966E+0	1.326323E+0	1.269710E+0	1.267582E+0	1.305459E+0	1.354313E+0	1.293464E+0	1.320662E+0	1.332622E+0	1.328940E+0	1.343996E+0	1.309976E+0	1.304927E+0	1.330684E+0	1.330833E+0	1.316655E+0	1.337918E+0	1.359261E+0	1.280823E+0	1.297479E+0	1.337369E+0	1.326044E+0	1.325169E+0	1.333223E+0	1.302679E+0	1.364393E+0	1.316619E+0	1.273740E+0	1.329901E+0	1.317397E+0	1.313160E+0	1.275725E+0	1.348562E+0	1.325452E+0	1.245006E+0	1.305286E+0	1.320859E+0	1.401978E+0	1.316262E+0	1.248493E+0	1.327316E+0	1.321946E+0	1.261423E+0	1.270633E+0	1.319787E+0	1.379624E+0	1.335877E+0	1.293723E+0	1.363714E+0	1.297672E+0	1.344058E+0	1.339865E+0	1.305537E+0	1.310202E+0	1.313884E+0	1.334185E+0	1.318008E+0	1.268686E+0	1.344548E+0	1.294132E+0	1.280328E+0	1.320778E+0	1.292849E+0	1.260605E+0	1.353649E+0	1.318653E+0	1.260777E+0	1.330472E+0	1.323543E+0	1.259963E+0	1.313194E+0	1.285042E+0	1.345888E+0	1.359595E+0	1.261831E+0	1.306020E+0	1.307899E+0	1.334593E+0	1.354819E+0	1.323764E+0	1.314565E+0	1.268667E+0	1.270838E+0	1.288805E+0	1.253787E+0	1.268597E+0	1.255448E+0	1.353442E+0	1.338443E+0	1.294531E+0	1.281804E+0	1.284015E+0	1.290161E+0	1.313907E+0	1.243951E+0	1.272337E+0	1.258471E+0	1.328289E+0	1.290914E+0	1.307633E+0	1.271658E+0	1.334675E+0	1.274922E+0	1.314507E+0	1.234130E+0	1.368863E+0	1.318402E+0	1.335887E+0	1.358681E+0	1.328412E+0	1.250258E+0	1.329183E+0	1.332805E+0	1.306842E+0	1.300110E+0	1.316402E+0	1.279769E+0	1.279818E+0	1.301966E+0	1.274214E+0	1.297720E+0	1.365553E+0	1.311934E+0	1.351202E+0	1.328039E+0	1.387928E+0	1.302657E+0	1.240483E+0	1.316088E+0	1.345088E+0	1.281976E+0	1.400659E+0	1.325112E+0	1.304055E+0	1.256909E+0	1.272817E+0	1.280319E+0	1.336472E+0	1.358879E+0	1.228464E+0	1.310791E+0	1.322317E+0	1.317681E+0	1.303592E+0	1.305044E+0	1.312020E+0	1.312379E+0	1.261532E+0	1.313313E+0	1.314726E+0	1.280740E+0	1.286888E+0	1.244587E+0	1.207653E+0	1.217035E+0
5.535330E+2	1.288146E+0	1.261619E+0	1.230735E+0	1.332365E+0	1.323629E+0	1.230935E+0	1.219527E+0	1.218852E+0	1.276995E+0	1.223411E+0	1.259043E+0	1.192834E+0	1.237842E+0	1.262503E+0	1.279626E+0	1.293909E+0	1.304239E+0	1.220150E+0	1.302107E+0	1.218427E+0	1.246060E+0	1.265174E+0	1.263891E+0	1.265111E+0	1.307496E+0	1.244663E+0	1.266543E+0	1.245516E+0	1.283768E+0	1.215291E+0	1.226934E+0	1.285530E+0	1.251931E+0	1.211432E+0	1.231611E+0	1.231941E+0	1.236922E+0	1.227041E+0	1.222446E+0	1.250280E+0	1.239165E+0	1.235394E+0	1.232090E+0	1.233352E+0	1.260971E+0	1.208891E+0	1.256099E+0	1.249442E+0	1.277006E+0	1.282378E+0	1.257746E+0	1.305434E+0	1.243350E+0	1.263840E+0	1.280544E+0	1.255252E+0	1.233504E+0	1.324039E+0	1.241600E+0	1.251469E+0	1.323256E+0	1.223495E+0	1.263767E+0	1.236946E+0	1.229885E+0	1.233819E+0	1.204299E+0	1.224367E+0	1.280357E+0	1.290373E+0	1.292759E+0	1.249752E+0	1.293743E+0	1.266906E+0	1.223312E+0	1.257195E+0	1.278885E+0	1.257352E+0	1.218035E+0	1.269882E+0	1.257229E+0	1.224992E+0	1.219019E+0	1.296480E+0	1.285186E+0	1.282539E+0	1.251582E+0	1.313207E+0	1.284331E+0	1.261797E+0	1.229095E+0	1.258391E+0	1.232685E+0	1.219588E+0	1.262538E+0	1.277897E+0	1.299407E+0	1.245835E+0	1.214534E+0	1.216749E+0	1.266381E+0	1.263822E+0	1.221547E+0	1.249201E+0	1.283888E+0	1.251609E+0	1.348880E+0	1.239169E+0	1.276921E+0	1.206310E+0	1.246018E+0	1.268424E+0	1.308698E+0	1.283661E+0	1.204932E+0	1.218232E+0	1.280754E+0	1.276541E+0	1.260102E+0	1.204572E+0	1.282468E+0	1.233795E+0	1.234233E+0	1.175964E+0	1.291106E+0	1.246275E+0	1.266660E+0	1.260859E+0	1.243780E+0	1.230721E+0	1.275483E+0	1.323945E+0	1.316352E+0	1.241302E+0	1.240352E+0	1.242150E+0	1.245849E+0	1.232151E+0	1.361098E+0	1.214113E+0	1.305263E+0	1.209803E+0	1.236521E+0	1.279239E+0	1.287353E+0	1.280821E+0	1.280181E+0	1.226509E+0	1.265878E+0	1.227125E+0	1.230299E+0	1.223626E+0	1.242608E+0	1.224463E+0	1.204026E+0	1.197797E+0	1.283286E+0	1.185833E+0	1.246622E+0	1.222942E+0	1.222556E+0	1.286829E+0	1.276907E+0	1.156150E+0	1.197287E+0	1.180604E+0
5.542700E+2	1.195036E+0	1.169376E+0	1.158034E+0	1.198852E+0	1.175700E+0	1.217226E+0	1.146279E+0	1.161205E+0	1.263152E+0	1.226941E+0	1.143994E+0	1.226331E+0	1.204191E+0	1.128103E+0	1.244923E+0	1.238699E+0	1.227090E+0	1.162452E+0	1.262969E+0	1.235913E+0	1.190368E+0	1.209126E+0	1.231879E+0	1.162935E+0	1.193654E+0	1.166138E+0	1.151907E+0	1.226552E+0	1.187038E+0	1.125149E+0	1.156084E+0	1.162902E+0	1.199198E+0	1.162625E+0	1.157139E+0	1.167192E+0	1.250044E+0	1.126934E+0	1.182292E+0	1.158446E+0	1.248249E+0	1.131833E+0	1.156022E+0	1.195333E+0	1.225786E+0	1.220469E+0	1.190736E+0	1.203440E+0	1.170981E+0	1.206197E+0	1.148516E+0	1.162538E+0	1.203081E+0	1.239143E+0	1.195752E+0	1.199929E+0	1.205337E+0	1.226690E+0	1.176211E+0	1.167613E+0	1.194558E+0	1.199126E+0	1.219463E+0	1.158906E+0	1.206245E+0	1.211860E+0	1.197334E+0	1.182062E+0	1.204637E+0	1.259633E+0	1.220179E+0	1.156066E+0	1.230244E+0	1.121229E+0	1.210600E+0	1.177255E+0	1.184879E+0	1.096600E+0	1.179055E+0	1.225688E+0	1.236929E+0	1.174180E+0	1.227161E+0	1.197327E+0	1.177579E+0	1.229806E+0	1.183128E+0	1.218235E+0	1.195965E+0	1.214466E+0	1.213253E+0	1.173365E+0	1.192742E+0	1.182100E+0	1.212359E+0	1.197476E+0	1.168430E+0	1.181699E+0	1.161844E+0	1.198196E+0	1.228522E+0	1.199359E+0	1.145174E+0	1.183144E+0	1.177820E+0	1.199960E+0	1.116720E+0	1.151554E+0	1.207745E+0	1.101736E+0	1.160435E+0	1.209107E+0	1.189250E+0	1.135153E+0	1.166367E+0	1.176566E+0	1.195856E+0	1.246723E+0	1.210729E+0	1.268292E+0	1.151090E+0	1.159646E+0	1.226246E+0	1.200642E+0	1.251686E+0	1.203519E+0	1.197619E+0	1.207866E+0	1.186379E+0	1.157010E+0	1.262755E+0	1.178031E+0	1.194946E+0	1.177231E+0	1.204002E+0	1.167733E+0	1.249799E+0	1.187718E+0	1.130924E+0	1.211258E+0	1.190281E+0	1.191454E+0	1.182216E+0	1.176817E+0	1.187957E+0	1.206543E+0	1.165076E+0	1.205908E+0	1.238673E+0	1.165789E+0	1.138728E+0	1.228784E+0	1.167654E+0	1.182715E+0	1.118341E+0	1.188100E+0	1.232311E+0	1.216544E+0	1.227415E+0	1.139636E+0	1.166914E+0	1.192893E+0	1.206393E+0	1.227136E+0	1.162173E+0	1.254446E+0
5.550310E+2	1.070127E+0	1.100219E+0	1.031323E+0	1.097652E+0	1.105712E+0	1.040872E+0	1.036575E+0	1.044749E+0	1.065568E+0	1.070450E+0	1.107368E+0	1.051941E+0	1.125313E+0	1.087255E+0	1.058562E+0	1.035620E+0	1.080450E+0	1.084476E+0	1.089697E+0	1.072276E+0	1.058162E+0	1.048565E+0	1.064517E+0	1.140715E+0	1.139228E+0	1.107765E+0	1.049048E+0	1.133166E+0	1.075949E+0	1.033785E+0	1.076176E+0	1.045244E+0	1.072062E+0	1.118776E+0	1.014048E+0	1.133117E+0	1.073171E+0	1.007595E+0	1.046668E+0	1.040923E+0	1.063806E+0	1.041777E+0	1.080339E+0	1.082528E+0	1.089755E+0	1.070890E+0	1.062573E+0	1.125657E+0	1.051178E+0	1.048549E+0	9.931675E-1	1.107089E+0	1.140891E+0	1.072558E+0	1.084943E+0	1.110026E+0	1.131059E+0	1.082518E+0	1.054779E+0	1.069416E+0	1.145863E+0	1.048063E+0	1.023475E+0	1.018295E+0	1.098632E+0	1.077746E+0	1.068478E+0	1.035495E+0	1.079311E+0	1.065092E+0	1.025095E+0	1.060781E+0	1.110956E+0	1.033963E+0	1.073683E+0	1.081027E+0	1.100891E+0	1.065223E+0	1.058586E+0	1.096023E+0	1.093432E+0	1.063898E+0	1.103775E+0	1.124487E+0	1.070728E+0	1.126483E+0	1.051888E+0	1.093680E+0	1.099183E+0	1.040075E+0	1.092696E+0	1.042454E+0	1.062601E+0	1.091801E+0	1.100561E+0	1.058824E+0	1.158112E+0	1.063015E+0	1.030683E+0	1.116326E+0	1.117652E+0	9.791805E-1	1.065751E+0	1.114283E+0	1.128557E+0	1.170188E+0	1.072114E+0	1.040807E+0	1.082464E+0	1.033336E+0	1.113494E+0	1.044796E+0	1.067887E+0	1.039279E+0	1.126309E+0	1.027062E+0	1.106493E+0	1.069739E+0	1.079695E+0	1.075053E+0	1.103006E+0	1.056412E+0	1.114093E+0	1.036160E+0	1.047518E+0	1.085737E+0	1.107653E+0	1.101403E+0	1.059255E+0	1.079241E+0	1.041238E+0	1.060452E+0	1.094853E+0	1.046068E+0	1.103025E+0	1.110620E+0	1.097348E+0	1.076981E+0	1.066172E+0	1.081354E+0	1.135199E+0	1.066498E+0	1.134446E+0	1.070045E+0	1.094742E+0	1.002707E+0	1.033672E+0	1.117649E+0	1.105468E+0	1.066247E+0	1.022225E+0	1.079583E+0	1.042655E+0	1.048912E+0	1.059739E+0	1.086132E+0	1.108087E+0	1.055847E+0	1.035246E+0	1.101049E+0	1.143373E+0	1.099561E+0	1.107753E+0	1.084236E+0	1.092440E+0	1.062410E+0
5.557600E+2	9.851713E-1	9.616865E-1	1.021807E+0	1.002871E+0	1.055748E+0	9.764308E-1	9.913792E-1	9.774341E-1	1.020383E+0	1.046305E+0	9.897857E-1	1.041459E+0	9.960558E-1	1.012957E+0	1.007149E+0	1.034548E+0	1.016821E+0	1.003968E+0	1.013442E+0	1.024032E+0	1.021265E+0	9.893876E-1	1.043768E+0	1.007797E+0	1.005248E+0	1.008324E+0	9.996243E-1	1.036822E+0	1.048749E+0	1.043719E+0	1.009921E+0	1.006871E+0	9.930065E-1	1.010199E+0	9.749056E-1	1.052535E+0	1.039050E+0	1.003344E+0	1.014749E+0	1.037157E+0	1.007723E+0	9.859297E-1	9.685232E-1	1.025765E+0	1.025937E+0	1.034498E+0	1.006407E+0	1.007462E+0	1.018780E+0	1.013505E+0	1.019942E+0	1.026334E+0	1.017536E+0	9.866257E-1	1.032549E+0	1.061565E+0	1.055273E+0	9.962560E-1	9.546098E-1	1.040966E+0	1.050525E+0	9.969731E-1	1.044549E+0	1.005070E+0	1.024463E+0	1.047089E+0	9.947663E-1	1.027345E+0	1.004040E+0	1.018181E+0	9.677272E-1	9.946226E-1	1.028904E+0	9.637214E-1	9.847928E-1	9.984680E-1	1.051310E+0	9.815710E-1	1.006156E+0	1.012950E+0	1.043121E+0	9.704324E-1	1.034456E+0	1.024460E+0	9.971654E-1	1.012558E+0	1.029541E+0	1.068841E+0	1.047522E+0	1.051206E+0	1.006866E+0	1.012036E+0	9.822211E-1	9.777526E-1	1.009401E+0	9.939126E-1	1.019036E+0	1.005165E+0	1.035784E+0	1.023162E+0	1.045606E+0	9.738850E-1	1.013656E+0	9.929354E-1	1.029843E+0	1.022125E+0	9.715286E-1	1.037870E+0	9.978781E-1	9.852383E-1	9.646532E-1	1.006242E+0	1.031562E+0	9.511802E-1	1.022916E+0	1.019934E+0	1.023454E+0	1.045812E+0	1.017787E+0	9.942999E-1	9.969014E-1	1.000656E+0	1.082284E+0	9.601173E-1	1.053015E+0	1.054699E+0	1.039956E+0	1.001365E+0	9.781273E-1	9.600665E-1	1.020630E+0	9.870961E-1	9.974925E-1	1.028386E+0	1.055972E+0	9.783982E-1	1.016771E+0	9.978239E-1	1.000174E+0	1.002922E+0	1.046806E+0	9.928649E-1	9.885318E-1	1.034302E+0	1.020046E+0	1.002991E+0	9.868750E-1	9.874069E-1	9.968516E-1	9.995597E-1	9.691165E-1	1.047553E+0	1.037147E+0	1.025790E+0	9.712332E-1	9.725217E-1	9.757383E-1	1.012866E+0	9.784742E-1	1.008091E+0	9.914869E-1	9.540901E-1	1.053104E+0	1.008334E+0	1.008671E+0	1.066311E+0
5.560130E+2	9.806669E-1	9.740803E-1	9.444854E-1	9.668000E-1	9.365625E-1	9.551336E-1	9.413725E-1	9.257462E-1	9.703507E-1	1.003991E+0	1.039828E+0	9.480721E-1	9.986402E-1	9.488485E-1	9.382195E-1	9.944810E-1	9.463915E-1	9.347959E-1	9.475872E-1	9.611339E-1	9.927520E-1	9.839270E-1	9.525371E-1	1.003066E+0	9.745880E-1	9.581627E-1	9.876501E-1	1.009162E+0	9.938546E-1	9.667981E-1	9.647554E-1	9.457764E-1	1.007502E+0	9.327265E-1	9.282396E-1	9.631852E-1	9.537860E-1	9.370883E-1	9.659888E-1	9.519833E-1	9.417145E-1	9.981024E-1	9.033113E-1	1.016132E+0	9.643884E-1	9.670312E-1	9.433547E-1	9.749271E-1	9.188357E-1	9.460576E-1	9.331631E-1	9.575674E-1	9.775001E-1	9.115288E-1	9.600883E-1	9.405083E-1	9.338792E-1	9.813287E-1	9.176550E-1	9.523289E-1	9.481717E-1	9.278074E-1	1.004427E+0	9.770334E-1	9.876981E-1	9.807150E-1	8.924092E-1	9.388402E-1	9.919542E-1	9.701155E-1	9.937135E-1	9.401468E-1	9.560683E-1	9.563462E-1	9.302037E-1	9.573947E-1	9.637833E-1	9.655269E-1	9.533528E-1	9.512578E-1	9.867495E-1	9.638401E-1	1.002398E+0	9.398316E-1	9.871669E-1	9.433251E-1	9.913896E-1	1.026622E+0	9.977116E-1	9.956378E-1	9.828239E-1	9.140714E-1	9.948205E-1	9.194755E-1	9.710087E-1	9.000848E-1	9.723282E-1	9.268097E-1	9.659525E-1	1.022155E+0	9.774171E-1	9.676236E-1	9.995876E-1	9.636385E-1	9.554541E-1	9.956119E-1	9.531261E-1	9.656209E-1	9.619468E-1	9.311090E-1	9.548921E-1	9.561713E-1	1.000530E+0	9.657148E-1	9.476804E-1	9.436935E-1	1.010830E+0	8.858933E-1	9.585131E-1	9.951729E-1	9.490281E-1	9.782339E-1	9.588421E-1	9.766678E-1	9.691323E-1	9.479021E-1	9.839865E-1	9.381736E-1	9.748413E-1	9.768239E-1	9.377307E-1	9.310946E-1	9.990777E-1	9.722390E-1	1.001983E+0	9.510786E-1	1.022510E+0	9.587044E-1	9.601278E-1	9.930277E-1	9.830720E-1	9.289282E-1	9.763860E-1	9.826654E-1	9.996506E-1	8.983851E-1	9.575879E-1	9.654938E-1	9.526352E-1	9.024229E-1	9.712318E-1	9.875636E-1	9.225707E-1	9.489232E-1	9.514865E-1	9.551273E-1	9.708094E-1	9.795377E-1	1.006865E+0	9.262347E-1	9.336500E-1	9.418860E-1	1.003791E+0	9.307976E-1	9.452169E-1	8.982445E-1
5.565030E+2	9.483534E-1	9.625723E-1	9.201269E-1	9.120818E-1	9.177279E-1	9.766353E-1	9.306704E-1	9.583237E-1	9.516304E-1	8.960745E-1	8.657083E-1	9.259798E-1	8.944598E-1	9.606118E-1	9.072742E-1	8.873032E-1	9.382347E-1	9.314867E-1	9.349278E-1	9.846696E-1	9.369963E-1	9.314975E-1	9.650817E-1	8.885066E-1	9.280762E-1	9.190251E-1	9.512326E-1	9.161154E-1	9.686831E-1	8.944877E-1	9.426984E-1	9.274896E-1	9.451671E-1	8.862761E-1	9.300623E-1	9.444372E-1	9.275856E-1	9.958131E-1	9.613501E-1	9.295273E-1	9.245653E-1	9.562982E-1	9.491642E-1	9.471033E-1	9.370943E-1	9.164779E-1	9.174479E-1	9.409117E-1	9.061523E-1	9.471272E-1	9.000504E-1	9.272257E-1	9.749288E-1	9.270571E-1	9.428719E-1	9.680768E-1	9.287438E-1	9.374782E-1	8.824700E-1	9.656756E-1	9.256230E-1	9.677905E-1	9.477675E-1	9.580811E-1	9.719793E-1	9.164500E-1	8.957011E-1	9.533266E-1	9.376690E-1	9.263225E-1	9.295570E-1	9.551789E-1	9.216419E-1	8.839112E-1	9.725579E-1	9.048698E-1	9.159717E-1	9.080988E-1	8.697236E-1	9.513648E-1	9.597366E-1	8.863737E-1	9.543629E-1	9.340321E-1	9.228769E-1	9.770817E-1	9.130281E-1	9.389618E-1	9.811477E-1	9.750872E-1	9.430877E-1	8.983004E-1	9.103462E-1	9.341355E-1	9.611203E-1	9.577235E-1	9.946899E-1	9.142793E-1	9.373902E-1	9.371446E-1	9.494832E-1	9.611820E-1	9.378193E-1	9.653387E-1	9.257793E-1	9.835113E-1	9.446835E-1	9.411498E-1	9.582811E-1	9.431817E-1	9.314546E-1	9.543236E-1	1.000152E+0	9.428574E-1	9.353730E-1	9.289145E-1	1.011606E+0	9.233647E-1	9.242973E-1	9.632843E-1	9.563941E-1	1.000233E+0	9.375167E-1	9.766128E-1	9.558139E-1	9.762229E-1	9.548058E-1	9.274770E-1	9.343571E-1	9.455942E-1	9.651993E-1	9.511029E-1	9.586777E-1	9.682360E-1	9.670142E-1	9.455000E-1	9.514564E-1	9.582313E-1	9.258193E-1	9.399750E-1	9.565506E-1	8.814719E-1	9.634795E-1	9.161669E-1	9.624499E-1	9.116656E-1	9.210986E-1	9.615727E-1	9.866225E-1	9.416331E-1	9.609446E-1	9.265077E-1	9.516637E-1	9.101488E-1	9.243275E-1	9.743376E-1	9.605717E-1	9.373341E-1	8.960748E-1	9.192593E-1	9.597370E-1	9.324751E-1	1.007619E+0	9.306332E-1	9.593078E-1	9.118684E-1
5.570100E+2	9.615472E-1	9.977407E-1	9.845655E-1	9.602936E-1	9.508477E-1	9.656172E-1	9.010835E-1	9.622917E-1	9.607735E-1	8.994157E-1	9.266715E-1	9.872300E-1	9.319880E-1	9.618503E-1	9.239529E-1	9.725800E-1	1.020381E+0	9.402865E-1	9.144682E-1	9.410366E-1	9.593662E-1	9.858607E-1	9.599869E-1	9.906115E-1	9.540458E-1	9.299613E-1	9.415900E-1	9.402665E-1	9.594648E-1	1.016243E+0	8.890282E-1	9.808091E-1	9.264555E-1	9.813808E-1	9.233757E-1	9.241134E-1	9.225205E-1	9.258924E-1	9.553131E-1	9.505612E-1	9.633356E-1	9.821193E-1	9.515753E-1	9.498364E-1	9.481473E-1	9.873026E-1	9.494545E-1	9.302921E-1	9.322114E-1	9.391231E-1	9.534536E-1	9.985765E-1	9.463736E-1	9.251314E-1	9.768308E-1	9.931716E-1	9.263478E-1	9.512014E-1	9.448989E-1	9.015993E-1	9.503683E-1	9.506754E-1	1.012014E+0	9.113699E-1	9.700054E-1	1.014862E+0	9.347742E-1	9.010992E-1	8.986264E-1	9.588736E-1	9.501387E-1	9.194798E-1	9.744189E-1	9.408302E-1	9.824783E-1	9.859503E-1	9.827696E-1	9.384597E-1	9.479482E-1	9.636809E-1	9.603583E-1	9.505883E-1	9.890515E-1	9.512583E-1	9.464149E-1	1.006750E+0	9.531221E-1	1.077777E+0	9.553935E-1	9.624067E-1	9.633725E-1	1.026333E+0	9.193438E-1	9.502232E-1	9.414803E-1	1.011662E+0	1.005846E+0	9.474235E-1	9.335772E-1	1.029723E+0	9.851114E-1	9.598582E-1	9.624811E-1	9.667685E-1	9.561015E-1	9.609908E-1	9.189613E-1	9.139812E-1	9.574835E-1	9.718054E-1	9.382121E-1	9.560501E-1	9.311652E-1	8.994212E-1	9.038735E-1	9.369267E-1	9.417067E-1	9.720718E-1	1.025944E+0	9.734206E-1	8.711198E-1	9.540222E-1	1.005522E+0	9.198511E-1	9.840163E-1	8.917878E-1	9.297099E-1	9.787383E-1	9.757269E-1	9.405395E-1	9.318417E-1	9.406385E-1	9.948665E-1	9.937228E-1	9.569857E-1	9.446158E-1	1.011900E+0	9.627608E-1	9.516743E-1	9.022431E-1	9.120304E-1	9.826017E-1	9.737594E-1	9.588455E-1	9.701757E-1	9.303165E-1	9.653484E-1	9.440985E-1	9.365288E-1	9.341112E-1	9.449530E-1	9.570475E-1	9.847181E-1	9.465457E-1	9.379587E-1	9.472136E-1	9.741185E-1	8.972756E-1	9.516174E-1	9.569502E-1	9.043033E-1	9.713433E-1	9.650575E-1	1.037299E+0	9.902399E-1	8.767694E-1
5.575080E+2	1.002000E+0	9.623416E-1	9.646935E-1	1.000338E+0	9.520516E-1	9.829332E-1	9.911615E-1	1.024120E+0	9.654415E-1	9.810465E-1	1.029911E+0	9.731696E-1	1.010805E+0	9.999363E-1	9.509510E-1	9.953462E-1	9.703781E-1	1.007372E+0	9.667690E-1	9.901765E-1	9.862904E-1	1.032719E+0	9.936767E-1	1.012054E+0	9.788025E-1	9.865841E-1	9.424589E-1	9.999702E-1	9.486131E-1	9.950360E-1	9.771975E-1	1.003467E+0	9.720018E-1	1.001518E+0	9.745059E-1	9.692438E-1	9.918240E-1	9.903380E-1	9.717416E-1	9.823389E-1	9.558289E-1	9.924541E-1	1.003153E+0	1.028007E+0	9.842894E-1	9.686455E-1	9.579870E-1	1.026347E+0	1.013043E+0	9.800167E-1	9.882776E-1	9.672634E-1	1.028247E+0	1.012928E+0	1.015286E+0	9.623317E-1	9.874580E-1	9.484487E-1	9.787957E-1	9.835430E-1	1.006119E+0	1.004162E+0	1.010415E+0	9.837883E-1	9.908377E-1	1.054556E+0	1.032700E+0	9.713187E-1	9.843772E-1	9.593590E-1	9.499768E-1	1.013395E+0	1.001188E+0	9.845768E-1	1.020673E+0	1.006027E+0	9.926450E-1	1.014334E+0	9.834985E-1	9.944148E-1	9.931406E-1	9.987407E-1	9.886731E-1	1.008513E+0	1.017774E+0	9.893954E-1	9.983792E-1	9.969917E-1	9.641191E-1	1.018790E+0	1.012721E+0	9.820166E-1	9.769215E-1	9.574082E-1	9.880332E-1	1.002588E+0	9.497700E-1	1.023593E+0	9.868587E-1	9.454861E-1	9.615838E-1	9.992932E-1	9.922910E-1	1.003751E+0	9.903632E-1	9.725403E-1	9.624785E-1	1.037332E+0	9.801877E-1	9.777134E-1	1.000662E+0	1.030482E+0	9.729559E-1	9.838106E-1	9.658607E-1	9.915781E-1	9.873023E-1	9.668916E-1	1.017790E+0	9.836604E-1	9.925100E-1	9.650306E-1	9.693514E-1	9.747482E-1	9.928383E-1	9.987965E-1	1.011306E+0	9.697215E-1	1.015380E+0	9.362197E-1	9.763965E-1	9.850796E-1	9.913369E-1	9.950745E-1	1.018373E+0	1.018635E+0	9.684645E-1	9.554924E-1	9.776561E-1	9.866444E-1	1.037975E+0	9.531749E-1	9.908608E-1	9.713541E-1	9.880464E-1	9.641536E-1	9.753133E-1	9.945963E-1	1.005698E+0	9.910121E-1	1.007775E+0	9.730896E-1	1.004448E+0	9.751975E-1	9.456483E-1	9.492469E-1	1.027723E+0	1.047238E+0	9.714255E-1	9.715284E-1	9.950615E-1	1.011822E+0	9.569720E-1	9.943316E-1	1.006145E+0	9.296998E-1
5.580400E+2	1.088371E+0	1.028245E+0	1.013638E+0	1.037924E+0	1.057266E+0	1.034764E+0	1.059531E+0	9.567307E-1	9.920248E-1	1.024612E+0	1.064603E+0	1.019263E+0	9.978011E-1	1.016416E+0	1.010120E+0	1.011187E+0	1.010976E+0	9.999454E-1	1.001797E+0	9.757014E-1	1.037978E+0	1.022250E+0	9.891058E-1	1.054387E+0	1.020643E+0	1.004625E+0	1.019146E+0	1.015115E+0	1.025304E+0	1.025267E+0	1.011707E+0	1.029883E+0	1.028825E+0	1.001390E+0	1.009613E+0	1.025002E+0	1.051175E+0	9.860966E-1	1.035208E+0	1.037596E+0	1.026261E+0	9.863934E-1	1.010573E+0	1.036191E+0	1.022724E+0	9.773976E-1	1.041521E+0	1.013733E+0	1.030346E+0	9.917975E-1	1.078300E+0	1.032872E+0	1.049195E+0	1.045077E+0	9.899015E-1	1.042741E+0	9.868632E-1	9.681597E-1	1.020525E+0	9.915359E-1	1.006492E+0	1.011090E+0	1.049543E+0	9.894633E-1	1.002502E+0	1.014134E+0	1.051985E+0	1.010695E+0	1.016586E+0	1.019974E+0	1.015075E+0	1.015463E+0	1.024550E+0	1.053560E+0	9.782404E-1	1.024541E+0	9.898418E-1	1.026847E+0	1.040421E+0	1.023970E+0	1.013081E+0	1.031488E+0	1.008736E+0	1.022514E+0	9.841073E-1	9.922722E-1	1.023201E+0	9.876467E-1	1.040028E+0	9.951014E-1	1.002254E+0	1.028279E+0	1.001942E+0	1.000537E+0	1.016403E+0	1.028859E+0	1.008905E+0	1.005861E+0	1.011704E+0	9.732120E-1	1.032520E+0	1.065115E+0	1.006917E+0	1.053766E+0	1.029337E+0	1.047632E+0	1.061514E+0	1.012340E+0	1.032605E+0	1.003026E+0	9.734250E-1	1.042021E+0	1.002050E+0	1.004207E+0	1.058862E+0	1.011162E+0	1.029696E+0	1.026097E+0	9.994280E-1	9.860164E-1	1.035632E+0	1.007499E+0	1.010292E+0	9.956534E-1	1.024417E+0	1.019911E+0	1.007931E+0	1.032652E+0	1.047262E+0	1.052805E+0	1.022310E+0	1.032420E+0	9.940594E-1	1.051869E+0	1.017979E+0	1.016282E+0	1.013676E+0	1.018247E+0	9.618543E-1	1.005741E+0	9.671423E-1	1.035360E+0	1.019195E+0	9.898936E-1	1.024557E+0	9.989173E-1	1.000918E+0	9.950725E-1	9.959337E-1	1.030621E+0	1.019184E+0	1.063111E+0	9.626962E-1	1.017851E+0	1.017420E+0	1.037564E+0	1.064647E+0	1.025355E+0	1.007160E+0	1.043162E+0	1.019537E+0	9.972455E-1	9.900258E-1	9.726553E-1	9.870140E-1	1.065169E+0
5.585390E+2	1.022014E+0	1.065843E+0	1.022901E+0	1.048980E+0	1.063794E+0	1.009910E+0	1.060305E+0	1.046728E+0	1.083209E+0	1.037689E+0	1.055704E+0	1.059289E+0	1.054464E+0	1.029771E+0	1.032560E+0	1.012238E+0	1.033277E+0	1.045776E+0	1.052184E+0	1.055728E+0	1.032235E+0	9.929951E-1	1.033313E+0	1.019799E+0	1.046561E+0	1.054170E+0	1.059887E+0	1.032966E+0	1.052025E+0	9.998494E-1	1.001704E+0	1.037216E+0	1.042593E+0	1.049516E+0	1.043557E+0	9.933457E-1	1.040519E+0	1.015444E+0	1.011090E+0	1.021826E+0	1.019788E+0	1.049261E+0	1.052287E+0	1.064126E+0	1.057915E+0	1.062871E+0	1.057313E+0	1.040979E+0	1.001195E+0	1.027165E+0	1.023867E+0	1.041423E+0	1.036809E+0	1.086479E+0	1.050784E+0	1.023116E+0	1.054767E+0	1.045798E+0	1.023919E+0	1.019107E+0	1.027629E+0	1.028331E+0	9.957162E-1	1.053478E+0	1.057240E+0	9.950542E-1	1.019305E+0	1.041339E+0	1.063749E+0	1.068160E+0	1.041279E+0	1.004348E+0	1.062222E+0	1.073909E+0	1.022573E+0	9.915561E-1	1.029156E+0	1.042749E+0	9.982959E-1	1.017153E+0	1.042272E+0	1.038124E+0	1.006495E+0	1.040666E+0	1.057993E+0	1.001192E+0	9.933848E-1	1.037661E+0	1.037997E+0	1.022952E+0	1.059246E+0	1.004967E+0	1.027407E+0	1.055887E+0	1.029287E+0	1.051621E+0	1.085822E+0	1.042231E+0	1.086727E+0	1.077699E+0	1.004075E+0	1.006416E+0	1.011701E+0	9.933649E-1	1.027445E+0	1.019148E+0	1.013142E+0	9.696470E-1	1.045846E+0	1.059638E+0	1.112098E+0	9.830330E-1	1.055258E+0	1.020661E+0	1.055998E+0	1.026743E+0	1.037227E+0	9.978690E-1	1.018040E+0	1.049013E+0	1.044704E+0	1.025689E+0	1.037356E+0	1.038649E+0	1.008779E+0	1.037438E+0	1.098829E+0	1.076118E+0	1.025604E+0	1.041964E+0	9.895044E-1	1.047751E+0	1.015821E+0	1.007463E+0	9.812932E-1	1.039702E+0	1.022457E+0	1.018226E+0	1.049342E+0	1.062272E+0	1.044717E+0	1.034431E+0	1.070918E+0	1.045018E+0	1.035242E+0	9.957818E-1	1.033045E+0	1.007633E+0	1.034233E+0	1.045484E+0	1.033875E+0	1.003708E+0	1.065538E+0	1.034809E+0	1.006361E+0	1.053767E+0	1.069484E+0	1.018931E+0	1.065995E+0	1.027549E+0	1.057950E+0	1.026196E+0	1.050037E+0	1.034561E+0	1.025258E+0	1.181074E+0
5.590160E+2	9.843997E-1	9.831212E-1	1.000399E+0	9.986197E-1	9.900378E-1	1.002435E+0	9.777127E-1	1.001940E+0	1.045459E+0	1.005261E+0	1.006404E+0	1.046216E+0	1.006767E+0	1.017214E+0	1.049018E+0	9.683961E-1	1.014480E+0	9.685702E-1	1.002607E+0	1.039536E+0	9.987335E-1	1.042840E+0	1.015905E+0	9.487019E-1	9.878766E-1	1.026598E+0	1.049126E+0	1.016502E+0	1.018680E+0	1.008254E+0	1.058991E+0	9.813418E-1	1.061160E+0	1.012538E+0	1.012876E+0	1.008603E+0	9.800356E-1	1.005140E+0	1.000313E+0	1.036057E+0	1.019926E+0	1.056476E+0	9.591270E-1	1.011519E+0	1.034312E+0	9.987031E-1	9.719995E-1	1.000479E+0	1.057572E+0	9.865735E-1	1.020558E+0	1.029087E+0	1.026967E+0	9.654792E-1	1.015475E+0	1.052972E+0	9.922920E-1	1.038549E+0	1.017743E+0	1.012672E+0	1.005263E+0	9.690643E-1	9.840330E-1	1.000146E+0	9.994647E-1	1.003932E+0	1.003551E+0	1.019094E+0	9.907013E-1	1.049966E+0	9.634807E-1	1.008348E+0	1.020356E+0	1.013147E+0	1.020905E+0	1.046438E+0	1.022943E+0	1.033744E+0	1.010680E+0	1.014729E+0	9.794397E-1	1.031558E+0	1.017130E+0	9.662152E-1	1.057698E+0	9.914543E-1	9.993314E-1	1.018199E+0	1.020504E+0	9.844258E-1	9.590278E-1	1.037557E+0	1.004667E+0	1.003227E+0	9.997280E-1	9.952425E-1	1.050204E+0	1.001352E+0	1.043755E+0	1.013792E+0	1.014512E+0	1.041892E+0	9.882729E-1	1.001677E+0	1.050565E+0	1.027678E+0	1.044334E+0	1.010609E+0	1.046955E+0	1.066450E+0	9.886965E-1	9.733888E-1	1.045582E+0	1.004898E+0	9.861911E-1	1.032437E+0	1.017012E+0	9.856169E-1	1.050870E+0	1.006769E+0	1.015921E+0	1.000041E+0	1.050067E+0	1.030093E+0	1.037256E+0	1.014124E+0	9.599999E-1	1.022820E+0	9.838146E-1	9.885562E-1	1.053480E+0	9.578923E-1	1.020468E+0	9.983882E-1	9.946252E-1	1.016635E+0	1.041463E+0	1.009807E+0	1.010994E+0	1.057531E+0	1.008466E+0	1.044832E+0	1.017775E+0	1.002671E+0	9.964574E-1	9.720886E-1	1.031895E+0	9.898735E-1	1.032583E+0	9.914938E-1	1.011516E+0	9.896965E-1	9.799528E-1	1.030273E+0	1.025717E+0	1.059007E+0	1.006448E+0	1.045135E+0	9.873962E-1	1.015728E+0	1.022649E+0	1.029580E+0	1.039806E+0	1.018852E+0	1.025902E+0	9.950090E-1
5.595000E+2	1.036723E+0	1.006772E+0	1.039328E+0	1.038079E+0	1.011465E+0	1.056499E+0	1.028734E+0	1.065783E+0	1.017983E+0	1.050105E+0	9.906890E-1	1.036017E+0	9.892578E-1	1.039580E+0	1.033510E+0	1.068188E+0	1.062035E+0	1.021836E+0	1.040825E+0	1.062372E+0	1.017396E+0	1.000437E+0	1.015732E+0	1.047926E+0	1.060485E+0	9.898517E-1	1.024304E+0	1.036115E+0	1.038828E+0	1.014144E+0	9.785563E-1	1.020751E+0	9.843746E-1	1.043181E+0	1.064178E+0	1.075322E+0	9.897771E-1	1.034558E+0	1.037902E+0	1.022355E+0	1.083858E+0	1.008659E+0	1.020190E+0	9.845982E-1	1.031313E+0	1.045732E+0	1.061289E+0	1.002377E+0	1.033487E+0	1.066702E+0	1.054784E+0	1.048269E+0	1.024221E+0	1.017268E+0	1.061505E+0	1.033019E+0	1.021317E+0	1.052218E+0	1.012186E+0	1.041981E+0	1.060991E+0	1.090483E+0	1.039320E+0	1.040032E+0	1.025226E+0	1.007256E+0	1.050528E+0	1.016595E+0	1.042119E+0	1.019059E+0	1.050777E+0	1.057519E+0	1.017100E+0	1.038536E+0	1.051387E+0	1.003992E+0	1.053110E+0	1.007783E+0	1.077237E+0	1.023231E+0	1.007856E+0	1.049560E+0	1.066606E+0	1.038799E+0	1.039473E+0	1.012788E+0	1.002717E+0	1.053874E+0	1.037176E+0	1.052848E+0	1.058370E+0	1.021508E+0	1.015421E+0	1.049701E+0	1.023907E+0	1.027558E+0	9.863284E-1	1.045382E+0	1.018857E+0	1.031966E+0	1.010299E+0	1.016998E+0	1.041176E+0	1.040417E+0	9.750741E-1	1.037831E+0	1.018402E+0	1.026472E+0	1.030638E+0	9.825350E-1	1.041131E+0	1.059769E+0	1.078928E+0	1.029874E+0	1.028487E+0	1.021525E+0	1.027186E+0	1.050251E+0	1.068350E+0	1.081324E+0	1.033299E+0	1.080865E+0	1.029388E+0	1.064895E+0	1.040273E+0	1.028146E+0	1.002071E+0	1.025093E+0	1.008505E+0	1.050606E+0	1.033649E+0	1.022360E+0	1.051486E+0	1.011559E+0	1.034165E+0	9.888677E-1	1.063679E+0	1.077238E+0	9.859300E-1	1.022315E+0	1.017840E+0	1.033516E+0	1.068969E+0	1.043393E+0	1.031060E+0	1.051107E+0	9.934978E-1	1.002443E+0	1.068911E+0	1.051689E+0	1.030219E+0	1.028675E+0	1.052862E+0	1.035504E+0	1.024903E+0	1.017294E+0	1.029865E+0	1.015527E+0	1.088420E+0	1.020719E+0	1.007297E+0	1.007369E+0	1.044911E+0	1.033421E+0	1.081751E+0	1.006881E+0
5.600470E+2	9.484123E-1	9.616604E-1	9.848187E-1	9.501685E-1	9.366124E-1	9.624238E-1	9.868186E-1	9.439262E-1	9.402565E-1	9.550687E-1	9.149140E-1	8.926797E-1	9.410943E-1	9.902389E-1	1.010342E+0	9.379065E-1	9.657249E-1	9.631118E-1	9.654638E-1	9.429501E-1	9.633507E-1	9.883488E-1	9.827514E-1	9.865206E-1	9.289287E-1	9.699695E-1	9.713386E-1	9.634117E-1	9.724215E-1	9.553183E-1	9.491722E-1	9.696632E-1	9.904604E-1	9.536282E-1	9.460176E-1	9.753120E-1	9.466270E-1	9.257332E-1	1.017002E+0	9.546442E-1	9.360259E-1	9.533050E-1	9.182417E-1	9.631202E-1	9.411039E-1	9.302644E-1	9.725908E-1	9.493666E-1	8.922993E-1	9.699911E-1	9.823954E-1	9.376119E-1	9.331101E-1	9.485880E-1	9.121428E-1	9.194677E-1	9.979771E-1	9.626649E-1	9.723988E-1	9.312052E-1	9.763887E-1	9.701504E-1	9.801136E-1	9.785406E-1	9.809086E-1	9.551153E-1	9.403285E-1	9.688804E-1	9.538669E-1	9.264052E-1	9.717507E-1	9.766856E-1	9.404102E-1	9.721418E-1	9.745118E-1	9.489424E-1	9.432508E-1	9.597073E-1	9.895006E-1	9.883013E-1	9.976686E-1	9.251099E-1	9.855508E-1	9.211005E-1	9.438094E-1	9.939699E-1	9.570626E-1	9.795628E-1	9.307864E-1	9.551246E-1	9.886455E-1	9.671433E-1	9.913436E-1	9.337373E-1	9.611786E-1	9.771326E-1	9.627962E-1	9.459769E-1	9.337206E-1	9.403619E-1	1.007897E+0	9.729420E-1	9.538342E-1	9.423398E-1	9.776944E-1	9.467963E-1	9.816665E-1	9.696135E-1	9.440480E-1	9.731550E-1	9.397474E-1	9.886305E-1	9.743480E-1	9.819994E-1	9.671126E-1	9.656233E-1	9.747196E-1	9.803345E-1	9.461834E-1	9.580515E-1	9.264117E-1	9.623483E-1	9.346646E-1	9.585215E-1	9.688827E-1	9.181175E-1	9.287887E-1	9.553354E-1	9.262856E-1	9.948068E-1	9.285804E-1	9.839791E-1	9.708170E-1	9.868360E-1	9.591028E-1	9.434218E-1	9.785024E-1	9.853843E-1	9.394415E-1	9.492278E-1	9.348126E-1	9.635613E-1	9.479194E-1	9.818114E-1	9.676442E-1	9.960754E-1	9.357734E-1	1.012824E+0	9.598951E-1	9.401823E-1	9.637631E-1	9.747212E-1	9.283453E-1	9.471119E-1	9.379063E-1	9.525343E-1	9.057251E-1	9.438693E-1	9.628642E-1	9.786738E-1	9.665371E-1	9.412723E-1	9.390936E-1	9.778642E-1	9.514909E-1	8.793950E-1
5.605040E+2	9.922575E-1	1.038473E+0	9.962612E-1	9.830725E-1	1.035853E+0	9.900940E-1	9.678901E-1	1.009624E+0	1.002591E+0	1.015973E+0	9.806191E-1	1.031433E+0	1.042298E+0	9.809755E-1	9.727457E-1	9.942811E-1	9.957445E-1	1.026755E+0	1.023347E+0	9.698813E-1	1.000921E+0	9.761007E-1	9.936317E-1	9.720272E-1	1.004037E+0	9.990136E-1	1.013972E+0	1.000026E+0	9.805621E-1	1.047506E+0	1.027826E+0	9.981261E-1	9.788343E-1	9.946163E-1	9.596415E-1	1.011010E+0	1.009891E+0	1.075095E+0	9.691846E-1	1.015583E+0	9.808309E-1	1.015404E+0	1.058189E+0	9.912704E-1	9.697570E-1	1.024249E+0	9.729332E-1	9.735129E-1	1.017046E+0	9.622810E-1	9.605510E-1	9.926139E-1	9.664746E-1	9.862194E-1	9.940162E-1	1.011355E+0	9.832375E-1	1.002700E+0	9.818205E-1	1.013819E+0	9.915840E-1	9.828400E-1	9.746206E-1	9.936782E-1	9.921592E-1	1.054540E+0	9.725958E-1	1.017970E+0	1.001120E+0	9.989807E-1	1.012960E+0	9.840887E-1	9.979400E-1	9.745445E-1	9.608005E-1	1.017452E+0	9.905127E-1	9.997942E-1	9.872764E-1	9.870254E-1	9.976665E-1	9.631018E-1	1.017855E+0	1.023513E+0	9.701046E-1	9.896724E-1	1.031378E+0	9.901966E-1	9.914626E-1	1.003810E+0	9.668699E-1	1.000610E+0	1.022299E+0	1.028385E+0	1.001637E+0	9.921993E-1	9.978706E-1	9.884193E-1	9.829112E-1	1.001908E+0	9.751577E-1	9.438830E-1	1.013697E+0	9.946547E-1	9.974155E-1	9.898315E-1	1.003881E+0	1.040683E+0	9.545683E-1	9.736166E-1	9.881421E-1	9.659202E-1	9.512168E-1	1.029871E+0	9.703936E-1	9.872251E-1	1.003782E+0	1.029252E+0	9.778137E-1	9.866073E-1	9.810367E-1	1.000037E+0	1.018367E+0	9.645964E-1	9.676354E-1	1.003916E+0	1.022121E+0	9.766994E-1	1.056529E+0	9.924410E-1	1.047241E+0	9.776815E-1	1.010133E+0	9.866249E-1	9.984778E-1	1.002961E+0	9.556851E-1	1.012449E+0	1.054502E+0	9.373449E-1	9.646099E-1	9.524027E-1	9.857639E-1	9.689820E-1	1.008344E+0	1.041067E+0	1.023868E+0	1.011536E+0	9.966324E-1	9.713925E-1	9.622670E-1	1.006006E+0	1.067170E+0	1.026429E+0	1.050705E+0	9.945305E-1	9.521150E-1	9.275352E-1	9.775480E-1	9.954846E-1	9.679402E-1	1.006280E+0	9.802512E-1	9.513590E-1	1.011213E+0	9.577168E-1
5.610180E+2	9.258219E-1	9.535429E-1	9.779611E-1	9.428175E-1	9.529204E-1	9.609413E-1	9.278461E-1	9.511485E-1	9.530358E-1	9.302458E-1	9.571567E-1	9.419337E-1	9.575130E-1	9.258683E-1	9.407521E-1	1.012457E+0	9.473844E-1	9.666337E-1	9.470075E-1	9.636548E-1	9.630950E-1	9.443098E-1	9.758851E-1	9.585840E-1	9.726655E-1	9.691882E-1	9.197664E-1	9.358938E-1	9.635667E-1	9.546254E-1	9.948455E-1	9.595522E-1	9.417516E-1	9.436120E-1	9.896113E-1	9.421618E-1	9.901524E-1	9.675956E-1	9.575587E-1	9.296001E-1	9.774804E-1	9.380474E-1	9.782393E-1	9.211683E-1	9.585860E-1	9.921372E-1	9.643664E-1	9.932052E-1	9.550124E-1	1.015473E+0	8.912680E-1	9.508586E-1	9.349762E-1	9.379610E-1	9.608898E-1	9.549980E-1	9.760885E-1	9.814609E-1	9.926128E-1	1.006138E+0	9.255343E-1	9.438796E-1	9.662386E-1	9.608728E-1	9.516618E-1	9.154127E-1	9.290055E-1	9.541085E-1	9.474812E-1	9.580963E-1	9.947009E-1	9.401510E-1	9.362342E-1	8.895853E-1	9.709099E-1	9.610525E-1	9.785404E-1	9.150417E-1	9.130903E-1	9.511755E-1	9.688757E-1	9.623171E-1	9.089527E-1	9.786795E-1	9.290420E-1	1.029256E+0	9.945454E-1	9.358690E-1	9.779274E-1	9.669481E-1	9.528654E-1	9.579190E-1	9.599980E-1	9.711178E-1	9.798274E-1	9.247999E-1	9.583034E-1	9.471850E-1	9.354671E-1	1.015575E+0	9.939557E-1	9.534604E-1	9.921111E-1	9.700295E-1	9.521056E-1	9.585425E-1	9.145820E-1	9.333041E-1	9.651524E-1	9.638661E-1	9.560981E-1	9.567563E-1	9.196619E-1	9.446792E-1	9.670953E-1	9.637061E-1	9.230741E-1	9.636892E-1	9.215250E-1	9.485574E-1	9.704859E-1	9.584895E-1	9.505137E-1	9.728438E-1	9.599188E-1	9.795513E-1	9.689535E-1	9.415607E-1	9.366200E-1	9.426022E-1	9.488386E-1	9.928361E-1	9.458783E-1	9.621855E-1	9.959843E-1	9.734958E-1	9.560729E-1	9.231555E-1	1.020279E+0	9.789242E-1	1.024437E+0	9.827233E-1	8.985981E-1	9.968773E-1	9.486489E-1	9.808091E-1	1.005689E+0	9.860219E-1	9.061140E-1	9.781256E-1	9.714005E-1	9.609928E-1	9.389887E-1	9.328255E-1	9.913403E-1	9.360566E-1	9.439937E-1	9.764084E-1	9.391916E-1	9.471562E-1	9.630293E-1	9.802340E-1	9.989037E-1	1.016957E+0	9.112271E-1	9.850558E-1
