Photon Energy (eV)	#1	#2	#3	#4	#5	#6	#7	#8	#9	#10	#11	#12	#13	#14	#15	#16	#17	#18	#19	#20	#21	#22	#23	#24	#25	#26	#27	#28	#29	#30	#31	#32	#33	#34	#35	#36	#37	#38	#39	#40	#41	#42	#43	#44	#45	#46	#47	#48	#49	#50	#51	#52	#53	#54	#55	#56	#57	#58	#59	#60	#61	#62	#63	#64	#65	#66	#67	#68	#69	#70	#71	#72	#73	#74	#75	#76	#77	#78	#79	#80	#81	#82	#83	#84	#85	#86	#87	#88	#89	#90	#91	#92	#93	#94	#95	#96	#97	#98	#99	#100	#101	#102	#103	#104	#105	#106	#107	#108	#109	#110	#111	#112	#113	#114	#115	#116	#117	#118	#119	#120	#121	#122	#123	#124	#125	#126	#127	#128	#129	#130	#131	#132	#133	#134	#135	#136	#137	#138	#139	#140	#141	#142	#143	#144	#145	#146	#147	#148	#149	#150	#151	#152	#153	#154	#155	#156	#157	#158	#159	#160	#161	#162	#163	#164	#165	
5.300320E+2	-8.892490E-3	-7.041931E-3	1.812103E-5	4.120723E-3	-1.077983E-2	-3.629015E-3	-9.226742E-3	-8.536314E-3	4.666353E-4	-6.504755E-3	-2.426262E-3	-7.078937E-3	-1.140379E-2	-1.940282E-3	-7.480769E-3	-2.355778E-2	-2.514296E-3	-1.093069E-2	-2.877582E-4	-6.435793E-3	-1.107382E-2	-1.742542E-2	4.237337E-3	-5.016819E-3	-8.314788E-3	1.768164E-4	-3.801968E-3	-1.145307E-2	1.306688E-3	-1.180170E-2	-8.133237E-3	-1.640095E-2	-6.282231E-3	-8.649105E-3	-3.298423E-3	-8.500169E-3	-9.004992E-3	-9.990185E-3	-1.057263E-2	-1.111893E-2	-8.785839E-3	-1.013824E-2	4.365339E-3	1.495461E-3	-5.010866E-3	-4.245610E-3	-1.229686E-2	-1.076538E-3	-1.240543E-2	-1.099156E-2	-2.590647E-3	-8.831378E-3	-9.838214E-3	-1.909002E-3	1.430700E-4	3.919625E-3	-2.205145E-3	-4.606858E-3	-9.230457E-3	5.532534E-4	-4.121075E-3	-7.766688E-3	-1.154279E-2	-6.120681E-3	-1.129234E-2	-8.422646E-3	-8.635175E-3	-2.438069E-3	-1.155537E-2	-1.775487E-3	-1.254792E-2	-2.354395E-3	-1.427759E-2	-1.186838E-2	-1.092906E-2	-1.041961E-2	-1.095478E-2	-1.767031E-3	-4.568472E-3	-5.225180E-3	-4.214936E-3	-1.333188E-3	-7.173536E-3	-3.622653E-3	-1.399337E-4	-2.940137E-3	-5.546337E-3	-4.700036E-3	-7.943004E-3	-4.069397E-3	-1.028103E-2	-4.765332E-3	-4.020633E-3	-9.533513E-3	-4.367260E-3	-1.288732E-2	-3.324410E-3	-8.661042E-3	-1.374764E-2	-6.075596E-3	-9.115937E-3	-8.642293E-3	-5.282761E-3	-2.248633E-3	-7.806584E-3	-1.436902E-2	-4.751017E-3	-8.757057E-3	-1.333864E-2	-6.416809E-3	-6.978143E-3	-7.163539E-3	-8.070434E-3	-8.039978E-4	-2.129697E-3	-4.808027E-3	-3.730467E-3	-6.360682E-3	-1.602860E-2	-1.125204E-2	-6.750859E-3	-3.853145E-3	-3.466745E-3	-7.959009E-3	-1.803913E-2	-4.589494E-3	-5.243834E-3	-7.944601E-3	1.881810E-3	-4.448439E-3	-3.981954E-3	-1.556833E-2	-1.199536E-2	-6.859887E-3	-9.033712E-3	-1.207494E-2	-1.427681E-2	-1.579435E-2	-3.409473E-3	-1.083928E-2	-4.737391E-3	-1.421667E-2	-3.077215E-3	-9.470578E-3	-4.280829E-3	-8.945922E-3	-1.840895E-2	-7.522294E-3	-7.993666E-3	-2.111999E-2	-3.287953E-3	-8.429893E-3	-6.049845E-3	-8.814337E-3	2.964332E-3	3.483329E-3	-5.721916E-3	-8.768887E-3	7.824884E-4	-9.861565E-3	-7.720577E-3	-4.834467E-3	-8.365480E-3	-1.140666E-2	5.208949E-3
5.305030E+2	-9.592883E-3	-8.742082E-3	-2.202393E-2	-1.990094E-2	2.622734E-3	-2.785821E-3	-8.440201E-3	-6.715632E-3	-5.304974E-3	-1.750405E-2	-9.512610E-3	-1.056704E-2	3.622719E-3	-7.049439E-3	-5.112688E-3	2.335505E-3	-1.018559E-2	-4.906914E-3	-1.292059E-2	-4.062047E-3	-8.478103E-3	-8.022657E-3	-1.429060E-2	-6.854963E-3	-2.058034E-2	-3.640058E-3	-1.968892E-4	-1.632055E-2	-5.412303E-3	-4.333985E-3	3.300754E-3	-1.033928E-2	-3.553824E-3	-1.646083E-2	-4.494465E-3	-1.069779E-2	3.704134E-3	-5.249099E-3	-1.552258E-2	-5.176050E-4	-7.194531E-3	-9.327568E-3	-7.104821E-3	-8.865014E-3	-9.162836E-3	-1.066395E-2	-4.872751E-3	6.402356E-3	-5.207657E-3	-1.961443E-3	-8.622375E-3	-2.193689E-3	-1.217634E-3	-5.939274E-3	-1.483395E-2	-1.187776E-2	-5.130115E-3	-7.400538E-3	-1.054888E-2	-6.242770E-3	-9.805968E-3	-3.707527E-3	-8.021804E-3	-1.086551E-2	-9.813731E-3	-1.261136E-2	-9.246057E-3	-3.985773E-3	-9.607778E-3	-1.137541E-2	-7.923626E-3	-7.422785E-3	-6.542247E-3	-6.927808E-3	-6.404739E-3	2.770794E-3	-3.201872E-3	-7.132597E-3	1.115990E-3	-5.817221E-3	-1.131936E-2	-1.977710E-3	-1.235849E-2	-3.536997E-3	-1.121165E-2	-1.413049E-2	-1.069193E-2	-1.663733E-2	-1.086180E-2	-2.044095E-2	-4.438255E-3	-8.808072E-5	-7.793050E-3	-7.040080E-3	-9.079233E-3	-1.351960E-2	-7.602443E-3	2.311393E-3	-1.922712E-3	-1.141384E-2	-5.609975E-3	-5.427232E-3	-5.795774E-3	-4.089189E-3	-1.454936E-2	-1.215992E-2	-5.336705E-3	-6.312773E-3	-1.450849E-2	-6.937941E-3	-3.456675E-3	-4.975048E-3	-4.411226E-3	-9.494976E-3	-1.447040E-2	-6.377235E-3	-1.581512E-2	-8.904736E-3	-6.809470E-3	-8.418573E-3	-1.158036E-2	-2.964798E-3	4.882865E-3	-9.372241E-3	-3.206788E-3	-8.466888E-4	-1.022837E-2	-5.835914E-3	-1.927443E-2	-6.486657E-3	-4.576507E-3	-1.160487E-2	-7.343844E-3	-1.455043E-2	-1.027418E-2	-8.860939E-3	-7.952852E-3	-1.652347E-2	-9.736916E-4	-7.046146E-3	-6.585108E-3	-5.411562E-3	-4.216392E-3	-5.744981E-3	-8.030411E-3	2.407117E-3	6.286627E-4	5.047010E-4	-4.448279E-3	-3.889375E-3	-7.531945E-3	-8.918460E-3	-2.010746E-3	1.603138E-3	-5.810053E-3	-8.081595E-3	-4.965073E-3	-6.703697E-3	-9.994074E-3	-4.709490E-4	-4.630696E-3	2.873171E-4	-5.044669E-3	-1.534067E-2	-6.601284E-4
5.310100E+2	-6.429057E-3	-1.621742E-3	-7.940712E-3	-6.972284E-3	-1.991590E-2	-1.250394E-2	-1.116216E-2	-2.272383E-3	7.347041E-4	-4.966278E-3	-3.503876E-3	-2.664055E-3	-5.356612E-3	-5.231035E-3	-8.442250E-3	-9.560472E-3	-5.122069E-3	-4.054131E-3	3.997481E-3	-8.882671E-4	3.990232E-5	-6.752270E-3	-9.229818E-3	-2.286441E-3	-8.860870E-3	-1.026199E-2	-1.554131E-2	1.425057E-5	-7.650819E-3	-3.080783E-3	-1.368447E-2	-6.189151E-3	-1.210293E-2	1.865959E-4	-1.146787E-2	-9.917430E-3	-8.853896E-3	-6.502475E-3	-4.081242E-3	1.436035E-3	-1.088102E-2	2.502981E-3	-1.188197E-2	-4.191638E-4	-4.222400E-3	-4.635147E-3	-1.153114E-2	-1.029779E-2	-5.121284E-3	-9.561937E-3	2.939352E-3	-2.108055E-3	-1.324264E-2	-4.084815E-3	-7.539637E-3	-8.484148E-3	-8.837773E-3	-6.606563E-3	-4.144832E-3	-3.082657E-3	-5.858138E-3	-3.048879E-3	-7.363232E-3	4.419706E-3	-1.462363E-2	-6.122013E-3	3.929389E-3	-1.292217E-2	-2.004365E-3	-1.591531E-3	-1.985893E-3	6.903435E-3	-6.466921E-3	-1.010613E-2	-2.011961E-3	-3.708015E-3	-3.814136E-3	-4.997381E-3	-8.742273E-3	-1.115378E-2	-4.038015E-3	-4.095974E-3	9.165493E-4	-8.278885E-3	-1.310618E-2	-6.986025E-3	1.847284E-3	-7.866848E-3	-1.153333E-2	-6.886006E-3	-4.351666E-3	-8.435298E-3	-7.056815E-3	-7.555681E-3	-7.784560E-3	3.505282E-3	-1.262062E-2	-8.491493E-3	-9.434953E-3	-3.563626E-3	-1.030851E-2	-9.097257E-3	-5.701630E-3	-4.635679E-3	-1.143008E-2	-9.223746E-3	-5.919144E-3	-1.174431E-2	-6.075676E-4	-6.639344E-4	-1.074896E-2	-1.542626E-2	-5.758438E-3	-1.211432E-2	-6.510408E-3	-5.449316E-3	-6.238414E-3	-9.469327E-3	-1.259267E-2	-5.559348E-3	-7.978511E-3	-1.486860E-2	-1.882803E-3	-3.339481E-4	-1.145487E-2	-4.996209E-3	-7.589363E-3	-7.767321E-3	-9.970834E-3	1.402903E-3	-1.206225E-2	-9.176288E-3	-7.241051E-3	7.467102E-3	-5.535060E-3	-5.619478E-3	-6.288997E-3	-3.666091E-3	-1.131451E-2	-9.805692E-3	-7.137119E-3	-5.923165E-3	-4.692833E-3	-6.946417E-3	-6.375247E-3	-3.810385E-3	-5.323023E-3	-1.015886E-2	-2.155191E-4	-1.023791E-3	-1.010899E-3	-7.449869E-3	-1.538425E-2	-1.021380E-2	-8.501928E-3	-7.110632E-3	-2.858527E-3	6.305821E-4	-4.874158E-3	-1.441290E-3	2.261887E-3	-3.524616E-3	2.242513E-3	-4.748144E-3	-6.521693E-3
5.315130E+2	-6.321896E-3	-1.904075E-2	1.021856E-3	-1.214782E-2	-2.577401E-3	-1.844464E-3	1.090732E-2	-2.845592E-3	-7.235377E-3	2.747425E-3	-8.630715E-3	-1.835400E-3	-7.830163E-3	-2.200299E-3	2.059551E-3	-5.042253E-3	-1.419200E-2	-1.911049E-3	-5.942450E-3	2.313687E-3	-9.483905E-3	3.815449E-4	-8.477720E-3	-1.256469E-2	-7.645113E-4	-1.349997E-2	-6.967633E-3	-5.256513E-4	-7.582511E-3	-3.526307E-3	-9.492399E-4	-4.734128E-3	-6.870753E-4	-4.266820E-4	-5.618521E-3	-4.533687E-3	-1.134980E-2	-5.083425E-3	-4.630773E-3	-9.644661E-3	-1.005006E-2	-4.018776E-3	7.417122E-3	-9.419623E-3	-1.386307E-2	-2.156621E-3	2.201436E-4	-6.858633E-3	-4.320974E-3	5.901108E-3	-7.017902E-3	-8.688390E-3	3.230913E-3	-8.135361E-3	-4.164524E-3	-1.747261E-3	2.565951E-3	-3.706135E-3	-7.577763E-3	-6.828947E-3	-1.241289E-3	-6.378292E-3	-3.676130E-4	-7.253514E-3	-6.845496E-3	3.294243E-3	-2.882298E-3	-6.278969E-3	-1.918213E-3	-4.093142E-3	-1.890544E-3	-4.650292E-3	-3.823254E-3	8.705909E-3	5.331221E-3	-6.549929E-3	-3.024422E-3	4.003529E-3	1.948447E-3	-2.172473E-4	-6.113401E-3	-4.743907E-3	-9.660156E-4	-1.223432E-2	-6.432127E-3	1.600290E-3	5.894039E-3	1.502552E-2	3.635409E-3	-1.280486E-2	-4.986924E-3	3.943309E-3	-7.612584E-3	-2.027556E-4	1.357229E-3	-2.050909E-3	-1.585770E-3	-2.259460E-3	-4.489542E-3	7.425709E-3	1.445370E-3	-7.750897E-3	6.012086E-3	-5.835053E-3	-1.210709E-2	1.597228E-3	-1.081884E-3	-1.403525E-2	-6.779007E-3	-3.637482E-3	-9.171734E-4	-1.181473E-2	-1.350202E-3	3.571918E-3	-3.117589E-3	-5.353051E-3	-2.736719E-3	-4.088958E-3	-2.660105E-3	-6.836803E-3	-1.374432E-4	4.531771E-4	-4.534295E-3	-9.203227E-3	-6.203428E-3	-1.834906E-3	-1.113620E-3	-7.673696E-3	-6.296792E-4	-9.133030E-3	1.017948E-2	6.575831E-3	-2.546460E-3	-3.049910E-3	5.202366E-3	-1.105032E-3	-3.833903E-3	1.083642E-2	3.425156E-3	-2.562211E-3	1.821596E-4	-1.967687E-4	-2.209593E-3	-1.146103E-2	-3.139791E-3	-2.310589E-3	1.925705E-4	-8.451166E-4	-2.850771E-3	-4.339291E-3	-2.192001E-3	-9.408593E-3	-9.761668E-3	1.819917E-3	-1.476763E-3	4.172500E-5	-2.752959E-3	-1.107699E-2	-1.834973E-3	-1.330828E-3	-4.377914E-3	-1.447241E-2	-1.072691E-2	-1.908916E-2	-1.844941E-2
5.320170E+2	7.094547E-4	1.525717E-2	4.059306E-3	-6.489079E-4	4.575272E-3	5.059187E-3	-7.398791E-3	-7.088113E-3	-1.379198E-2	8.395410E-3	-3.291028E-3	-2.451011E-3	2.064989E-3	-2.685245E-3	1.001265E-3	2.669964E-3	1.145830E-4	-4.501914E-3	-9.899758E-3	-1.466268E-3	-2.932248E-3	-7.103236E-4	1.621886E-3	-8.002159E-4	8.078740E-3	3.328319E-3	-5.461953E-3	4.549410E-3	-2.920373E-3	1.170152E-3	-2.770316E-3	8.163813E-3	1.011023E-2	-1.768488E-3	-3.924936E-4	-5.239297E-4	9.015916E-5	-9.819121E-4	8.225415E-3	-7.657241E-3	-1.666399E-3	-2.435946E-4	-8.314716E-3	-4.428015E-3	-1.591833E-3	2.129067E-3	-1.527925E-3	-4.745291E-3	-6.495279E-4	-1.259087E-2	-6.959201E-3	-1.191514E-3	4.749757E-3	-3.899094E-3	-3.409330E-3	-4.313513E-3	-3.536234E-4	-3.599349E-3	-4.322238E-4	-2.887489E-3	-1.763780E-3	-1.719878E-3	2.045775E-3	-2.308658E-3	1.008325E-2	-2.350841E-3	-2.795234E-3	1.683661E-2	3.841032E-3	-4.004863E-3	-4.407426E-3	-6.587915E-4	-1.136701E-3	-1.796463E-3	-4.056848E-3	1.295073E-4	1.040362E-2	6.171781E-3	2.056061E-3	-2.163840E-3	-9.639425E-3	5.086330E-4	2.444412E-3	-4.451716E-5	4.890676E-3	7.380045E-3	-1.176276E-2	3.057972E-3	-7.903614E-4	6.078122E-3	-2.724239E-3	-1.344559E-3	-4.924917E-3	-9.804005E-5	-3.370518E-3	7.260723E-3	2.167024E-3	-1.479064E-3	-1.612768E-3	-1.350626E-2	1.802438E-4	7.456657E-3	-2.443395E-3	3.980636E-3	1.085363E-2	-2.603385E-3	-1.658292E-3	1.613860E-2	-1.636638E-3	-6.012809E-3	1.498516E-3	2.400955E-3	1.622667E-3	-7.199263E-3	9.390748E-4	-1.102540E-3	1.302132E-2	-1.341145E-3	4.674747E-3	2.256027E-3	-1.442121E-3	6.174391E-3	-1.274335E-2	2.105825E-3	6.163937E-3	4.389916E-3	-2.924900E-3	1.212503E-2	1.839039E-4	1.887878E-4	-1.480815E-3	4.324042E-3	1.661507E-2	1.300680E-3	-6.668344E-3	1.523245E-3	7.267295E-3	-3.478354E-3	7.271757E-4	-4.617281E-3	4.231692E-3	5.391444E-4	6.798825E-3	5.140322E-3	4.821414E-3	-2.932746E-3	1.650774E-3	-1.537255E-3	4.143013E-3	5.849258E-4	-1.454584E-3	7.852237E-3	7.795399E-3	-4.799265E-4	7.044503E-4	-3.802868E-3	-8.645484E-3	4.801838E-3	-1.114114E-3	-8.416727E-3	-5.326555E-4	-1.312244E-3	1.120582E-2	1.607663E-2	-3.339284E-3
5.325120E+2	1.559330E-2	1.010639E-2	1.085946E-2	1.771184E-2	1.253491E-2	4.384746E-3	2.615848E-3	1.331116E-2	1.361585E-2	3.643655E-3	7.351203E-3	1.117629E-2	1.133508E-2	1.548982E-3	9.793321E-3	1.041976E-2	1.158005E-2	4.333598E-3	-1.044292E-3	2.529891E-3	1.395630E-2	1.795068E-3	3.605354E-3	8.502696E-3	1.113205E-2	1.628478E-2	9.528978E-3	7.545135E-3	5.327491E-3	1.157075E-2	7.574619E-3	1.027006E-2	3.540190E-3	4.094372E-3	1.258339E-2	1.432800E-2	1.044451E-2	2.054991E-2	4.580976E-3	9.939627E-3	1.279107E-2	3.534307E-3	-1.945457E-3	-4.340961E-3	7.082734E-3	-3.142543E-3	1.713154E-2	1.451234E-3	1.092221E-2	7.453064E-3	5.640319E-3	8.949382E-3	1.273417E-3	6.873885E-3	9.880297E-3	1.117742E-2	5.795096E-3	4.536227E-3	8.131214E-3	5.706091E-3	6.784330E-3	5.237454E-3	1.568174E-3	1.168644E-2	1.089950E-2	5.056603E-3	9.766625E-3	6.236491E-3	2.039133E-3	1.299554E-2	1.530249E-2	5.295106E-3	1.266254E-2	8.905838E-3	2.012775E-3	5.478514E-3	-4.953301E-3	-6.103887E-3	-9.712895E-4	1.018624E-2	1.578699E-2	6.511715E-3	7.847662E-3	4.894710E-3	9.625775E-3	7.484575E-3	4.134693E-3	3.150238E-3	4.595883E-3	1.221088E-2	1.042960E-2	4.909927E-3	8.811338E-3	8.507182E-3	9.438767E-3	1.684054E-3	8.124904E-3	3.402729E-3	1.309968E-2	-6.413731E-3	7.855741E-3	5.037624E-3	3.784890E-3	-1.114302E-3	1.860404E-2	1.903533E-2	7.956006E-3	1.180539E-3	1.678294E-2	7.732420E-3	9.083138E-3	1.806863E-2	4.595237E-3	1.534698E-2	2.084092E-2	6.482942E-3	1.550671E-3	6.053592E-3	1.004970E-2	7.207755E-3	1.353740E-2	3.848430E-3	1.297863E-2	1.441592E-3	1.468443E-2	8.149905E-4	7.402178E-3	5.427202E-3	5.271430E-3	-2.575616E-3	8.339460E-3	2.053548E-3	1.015353E-2	4.946099E-3	8.754428E-3	1.744311E-2	9.723986E-3	1.666378E-2	-3.390970E-3	5.514444E-3	1.032980E-3	1.003307E-2	3.940892E-3	1.252339E-2	1.121919E-2	6.747836E-4	4.458223E-3	7.027397E-3	-5.906008E-4	1.172112E-2	2.509108E-3	8.640233E-3	7.874019E-3	2.794087E-3	7.878365E-4	5.715991E-3	4.748939E-3	1.215085E-2	4.309136E-3	9.627525E-3	9.331870E-3	1.490117E-2	-7.322849E-4	2.236991E-2	-6.279967E-3
5.330230E+2	1.493357E-2	1.108295E-2	1.400590E-2	1.783739E-2	1.354021E-2	1.131931E-2	2.270473E-2	1.414687E-2	1.151514E-2	1.418859E-2	2.001329E-2	1.342015E-2	7.567776E-3	1.755732E-2	8.181570E-3	2.273527E-2	2.031931E-2	2.197110E-2	2.609737E-2	8.008797E-3	1.797187E-2	3.073406E-2	2.253356E-2	1.902043E-2	1.930972E-2	7.612102E-3	2.244078E-2	1.619048E-2	1.693183E-2	1.000187E-2	1.466189E-2	1.922964E-2	8.975639E-3	2.302413E-2	1.268838E-2	1.984501E-2	1.496988E-2	7.257188E-3	2.200084E-2	1.756277E-2	2.578678E-2	1.769089E-2	1.746450E-2	2.597732E-2	2.676827E-2	2.271480E-2	1.287698E-2	1.512466E-2	1.678266E-2	2.175164E-2	1.661045E-2	1.406364E-2	1.504440E-2	1.709366E-2	1.992407E-2	1.132563E-2	8.165610E-3	2.138322E-2	2.380294E-2	1.278252E-2	1.600592E-2	1.738381E-2	2.368149E-2	1.044222E-2	2.159245E-2	2.115602E-2	9.862750E-3	2.551887E-3	1.920557E-2	9.844893E-3	1.345292E-2	2.887722E-3	1.958417E-2	1.308704E-2	1.605861E-2	1.229874E-2	1.554489E-2	9.825586E-3	9.161537E-3	1.439103E-2	1.953815E-2	5.130432E-3	9.289421E-3	2.282267E-2	1.637344E-2	7.591739E-3	1.612501E-2	7.970478E-3	2.289720E-2	2.591221E-2	1.635251E-2	5.780034E-3	2.259666E-2	1.592289E-2	1.380557E-2	1.600778E-2	1.484132E-2	1.517694E-2	1.810794E-2	3.354734E-2	1.555306E-2	1.842340E-2	9.426585E-3	1.394222E-2	1.643544E-2	1.772352E-2	1.079104E-2	2.353025E-2	2.008741E-2	1.593655E-2	1.151929E-2	1.890999E-2	1.337239E-2	1.069365E-2	4.448099E-3	1.660723E-2	1.394872E-2	2.411126E-2	2.336640E-2	2.260299E-2	1.435190E-2	1.121055E-2	4.765699E-3	2.332101E-2	1.805585E-2	7.062391E-3	1.969791E-2	1.166930E-2	2.253780E-2	2.105205E-2	3.582578E-3	2.339607E-2	2.358116E-3	1.074635E-2	1.755451E-2	8.694025E-3	1.536128E-2	1.196206E-2	1.493631E-2	2.935617E-2	1.301279E-2	1.517595E-2	3.456315E-3	1.595929E-2	5.785669E-3	1.491774E-2	1.680174E-2	1.253143E-2	1.195582E-2	1.806640E-2	1.296827E-2	1.771435E-2	1.753709E-2	1.329092E-2	1.133213E-2	9.754050E-3	2.019502E-2	8.966301E-3	1.272569E-2	1.189383E-2	5.668086E-3	8.955253E-3	1.142101E-2	1.213808E-2	3.004153E-2
5.331580E+2	1.131713E-2	1.132454E-2	2.313427E-2	1.983619E-3	2.317677E-2	1.234942E-2	1.001197E-2	1.793699E-2	2.796596E-2	8.783696E-3	1.615956E-2	1.575742E-2	1.820148E-2	2.421657E-2	1.119187E-2	1.519630E-2	1.835002E-2	2.621673E-2	5.956692E-3	2.384800E-2	1.683700E-2	1.330798E-2	8.267898E-3	1.859442E-2	9.852262E-3	9.786375E-3	1.899916E-2	1.711107E-2	2.579166E-2	8.975737E-3	2.948295E-2	2.139609E-2	2.249237E-2	2.822209E-2	2.314779E-2	3.621090E-2	2.010970E-2	1.609525E-2	2.006106E-2	3.209640E-2	3.197851E-2	1.263077E-2	1.890535E-2	3.104353E-2	3.241682E-2	3.006084E-2	1.980359E-2	1.456317E-2	1.043680E-2	1.213498E-2	8.914500E-3	2.496394E-2	2.441081E-2	1.662730E-2	6.139577E-3	1.881757E-2	1.433529E-2	1.349384E-2	1.332140E-2	1.833748E-2	5.704064E-3	1.808904E-2	1.569758E-2	1.824201E-2	2.172953E-2	2.192807E-2	1.414249E-2	1.175043E-2	2.566410E-2	1.845175E-2	1.817423E-2	1.151317E-2	2.314587E-2	2.386779E-2	9.527650E-3	2.278164E-2	2.555204E-2	1.339348E-2	1.996494E-2	2.616779E-2	2.549673E-2	2.007116E-2	1.539554E-2	3.135675E-2	2.248261E-2	1.483298E-2	1.955996E-2	1.830251E-2	1.998962E-2	4.041720E-2	1.647308E-2	2.217518E-2	1.883002E-2	1.544841E-2	1.211567E-2	2.041652E-2	2.452665E-2	1.599022E-2	1.963994E-2	8.664125E-3	2.398312E-2	2.679722E-2	1.201617E-2	1.343834E-2	2.116814E-2	2.289886E-2	2.456921E-2	6.168652E-3	8.193288E-3	1.671208E-2	2.321609E-2	3.681923E-2	2.581139E-2	2.243550E-2	2.047894E-2	2.009376E-2	1.546252E-2	1.561289E-2	2.419565E-2	2.763692E-2	2.796864E-2	1.941124E-2	1.394021E-2	9.916793E-3	2.990406E-2	1.273737E-2	2.050130E-2	1.317348E-2	2.627806E-2	1.404922E-2	1.904914E-2	1.171409E-2	2.957603E-2	2.444101E-2	2.306184E-2	1.772140E-2	2.419280E-2	2.981516E-2	1.788494E-2	2.015534E-2	2.108906E-2	1.029515E-2	1.015273E-2	2.740291E-2	3.678840E-2	3.278278E-2	2.512609E-2	9.545143E-3	2.110223E-2	7.835777E-3	2.089204E-2	2.960633E-2	3.364574E-2	2.384174E-2	1.006952E-2	2.568088E-2	2.168859E-2	1.505663E-2	1.882268E-2	2.357281E-2	8.048591E-3	2.830485E-2	6.059481E-3	2.886383E-2	3.625967E-2
5.333130E+2	1.944260E-2	1.862148E-2	3.226065E-2	2.286877E-2	4.932247E-3	2.322694E-2	1.156974E-2	2.685462E-2	1.847377E-2	1.870121E-2	2.158705E-2	3.406410E-2	1.569548E-2	2.257657E-2	2.474849E-2	3.020901E-2	1.511354E-2	2.100521E-2	1.903111E-2	2.342371E-2	3.349046E-2	1.813583E-2	2.038770E-2	1.857750E-2	2.022056E-2	9.905281E-3	1.984186E-2	2.343672E-2	3.177184E-2	2.352163E-2	1.685180E-2	3.816895E-2	2.199795E-2	1.821062E-2	1.682256E-2	3.131453E-2	2.600384E-2	1.824362E-2	1.315175E-2	3.472247E-2	2.990792E-2	2.611146E-2	2.666782E-2	3.326166E-2	1.475576E-2	2.180969E-2	2.118747E-2	1.060594E-2	2.997980E-2	2.324299E-2	2.840970E-2	5.983482E-3	1.588331E-2	2.869002E-2	1.951779E-2	2.701250E-2	4.410122E-2	3.398050E-2	9.187759E-3	1.770035E-2	1.623254E-2	3.491905E-2	2.396867E-2	1.557509E-2	1.621330E-2	3.584041E-2	1.982380E-2	2.931274E-2	2.135478E-2	1.399662E-2	2.882575E-2	3.196207E-2	2.069724E-2	2.893483E-2	2.211285E-2	2.210001E-2	3.347103E-2	2.250473E-2	3.206839E-2	2.905439E-2	1.544258E-2	2.242486E-2	1.551985E-2	1.275621E-2	2.595994E-2	1.425315E-2	3.296076E-2	1.911836E-2	2.621670E-2	2.468452E-2	1.513551E-2	1.997629E-2	2.289726E-2	2.413340E-2	2.320561E-2	2.985080E-2	3.647061E-2	1.542601E-2	4.079212E-2	1.436205E-2	2.829511E-2	2.758631E-2	3.066330E-2	2.014725E-2	2.283457E-2	2.519936E-2	2.265953E-2	2.863858E-2	2.420191E-2	9.980952E-3	2.454169E-2	1.564444E-2	2.015183E-2	2.531533E-2	1.598062E-2	1.016890E-2	3.000453E-2	3.110155E-2	2.369241E-2	4.104732E-2	1.461275E-2	2.115728E-2	2.104449E-2	2.435541E-2	4.048519E-2	1.595489E-2	2.451455E-2	2.631337E-2	2.356096E-2	1.775779E-2	1.920104E-2	3.000156E-2	2.179630E-2	4.032144E-2	2.791128E-2	3.441756E-2	3.226267E-2	2.028093E-2	2.224345E-2	2.462846E-2	3.183971E-2	2.493570E-2	3.600901E-2	1.292589E-2	3.694605E-2	2.227605E-2	1.435541E-2	3.837636E-2	2.124662E-2	2.947246E-2	3.143468E-2	2.630324E-2	3.460147E-2	3.442862E-2	1.858434E-2	3.610998E-2	2.458726E-2	3.109853E-2	4.875493E-2	3.021451E-2	2.489101E-2	4.465211E-2	3.479041E-2	2.067995E-2	6.123303E-3
5.334580E+2	1.971601E-2	2.217791E-2	3.175208E-2	2.933897E-2	2.627108E-2	3.270244E-2	3.602065E-2	2.187076E-2	1.856826E-2	3.223068E-2	2.701073E-2	2.978240E-2	3.430405E-2	3.515630E-2	2.607209E-2	3.167631E-2	2.324981E-2	3.133870E-2	4.637977E-2	2.327983E-2	3.568232E-2	3.596016E-2	2.937452E-2	1.922506E-2	2.626160E-2	3.911874E-2	4.070716E-2	3.584091E-2	4.307007E-2	1.847304E-2	3.682316E-2	3.101745E-2	1.887280E-2	2.856975E-2	3.193125E-2	2.988468E-2	2.047418E-2	2.783409E-2	2.934006E-2	2.839221E-2	1.796609E-2	3.296038E-2	2.818028E-2	3.113521E-2	2.294645E-2	2.859701E-2	2.753282E-2	4.081326E-2	3.032535E-2	3.251264E-2	3.317331E-2	2.722944E-2	2.275838E-2	2.707279E-2	2.771112E-2	3.499181E-2	3.518671E-2	3.404813E-2	1.784384E-2	1.460214E-2	4.180111E-2	2.239696E-2	2.936748E-2	2.900762E-2	2.696074E-2	2.568553E-2	4.857550E-2	3.676162E-2	2.911945E-2	3.379582E-2	1.975341E-2	2.029954E-2	4.413217E-2	3.484485E-2	2.800995E-2	2.503972E-2	3.860406E-2	2.333525E-2	3.980192E-2	2.989290E-2	2.944205E-2	3.597384E-2	4.373287E-2	4.622928E-2	3.813731E-2	2.440412E-2	3.777327E-2	3.488332E-2	2.942630E-2	3.014963E-2	3.718653E-2	3.176755E-2	2.960572E-2	2.674045E-2	2.641378E-2	1.999363E-2	2.778892E-2	2.523084E-2	3.958227E-2	2.237546E-2	2.152641E-2	3.030249E-2	3.207615E-2	4.585770E-2	2.299534E-2	2.318113E-2	5.364486E-2	3.759318E-2	2.501103E-2	2.638786E-2	2.413994E-2	1.222682E-2	3.993798E-2	1.724151E-2	3.477643E-2	2.624894E-2	1.644733E-2	3.195229E-2	3.382196E-2	3.425780E-2	3.045235E-2	1.644490E-2	1.421356E-2	2.979630E-2	3.612504E-2	2.290718E-2	2.856126E-2	3.471327E-2	2.876642E-2	3.296727E-2	2.146665E-2	3.492163E-2	3.789414E-2	3.620661E-2	2.809186E-2	3.205029E-2	3.641094E-2	2.688868E-2	3.723648E-2	3.491459E-2	2.537736E-2	2.844265E-2	4.458476E-2	2.841697E-2	4.109703E-2	3.029311E-2	3.366236E-2	3.387927E-2	4.228711E-2	3.870262E-2	2.900636E-2	2.439468E-2	4.680558E-2	3.863122E-2	3.906144E-2	3.628261E-2	3.823538E-2	3.593634E-2	3.466953E-2	3.111788E-2	3.039999E-2	2.861395E-2	2.174349E-2	3.332675E-2	1.841564E-2
5.336080E+2	1.966366E-2	3.815313E-2	4.748890E-2	3.612438E-2	3.253288E-2	2.032806E-2	3.041099E-2	4.245698E-2	3.804073E-2	3.638421E-2	3.048968E-2	2.839181E-2	5.689813E-2	4.592990E-2	3.559095E-2	3.251271E-2	3.779475E-2	2.531338E-2	4.312294E-2	4.605192E-2	3.974092E-2	4.214880E-2	6.055809E-2	3.707085E-2	3.684113E-2	3.578519E-2	4.159661E-2	2.961959E-2	3.555863E-2	3.717580E-2	4.667301E-2	4.223143E-2	3.341130E-2	3.966941E-2	4.381087E-2	2.253801E-2	4.193103E-2	3.678800E-2	3.862075E-2	3.704265E-2	2.804862E-2	3.833636E-2	4.241347E-2	2.466635E-2	3.367694E-2	3.785612E-2	2.958882E-2	4.018213E-2	4.393593E-2	4.573331E-2	4.598466E-2	3.096603E-2	4.937638E-2	4.646153E-2	4.194134E-2	3.703527E-2	2.702580E-2	5.266315E-2	3.656826E-2	4.463119E-2	3.042599E-2	4.684761E-2	3.832230E-2	3.576285E-2	3.256765E-2	2.662884E-2	4.117048E-2	2.608918E-2	3.862109E-2	3.663025E-2	4.640113E-2	4.276565E-2	3.597009E-2	3.832615E-2	3.719461E-2	2.444823E-2	5.511261E-2	4.153172E-2	4.126874E-2	4.242917E-2	3.544736E-2	4.732964E-2	3.186422E-2	3.576655E-2	3.497265E-2	2.741993E-2	5.125648E-2	2.959399E-2	4.257005E-2	5.007145E-2	3.882002E-2	4.903132E-2	3.241043E-2	4.163185E-2	3.880640E-2	3.302861E-2	3.681971E-2	3.989450E-2	3.483497E-2	3.197243E-2	4.462599E-2	4.576001E-2	4.958469E-2	5.128909E-2	4.548702E-2	3.709010E-2	4.009873E-2	3.695201E-2	3.411148E-2	2.966690E-2	4.636309E-2	3.018951E-2	4.519446E-2	3.453061E-2	3.026398E-2	4.150051E-2	4.342835E-2	3.411050E-2	4.461437E-2	4.000454E-2	2.990657E-2	4.008605E-2	3.392155E-2	3.446268E-2	4.020615E-2	3.294728E-2	2.999331E-2	6.304126E-2	4.186390E-2	3.597081E-2	2.159947E-2	4.377100E-2	4.403503E-2	4.568140E-2	3.092932E-2	4.434476E-2	2.461753E-2	5.857829E-2	4.868818E-2	4.810191E-2	3.481357E-2	3.365813E-2	4.116761E-2	4.325494E-2	4.043243E-2	4.754327E-2	3.175982E-2	4.880059E-2	3.060474E-2	2.353946E-2	3.763622E-2	3.841205E-2	4.935391E-2	5.084457E-2	2.938252E-2	3.878610E-2	2.491117E-2	3.807643E-2	3.542454E-2	2.326511E-2	3.432413E-2	3.380585E-2	5.059110E-2	2.718582E-2	4.288812E-2
5.337630E+2	4.204310E-2	4.540000E-2	5.802211E-2	4.010792E-2	4.257416E-2	4.033776E-2	5.132163E-2	5.066532E-2	4.861051E-2	4.495273E-2	5.588021E-2	5.566798E-2	6.166437E-2	4.782475E-2	4.984616E-2	5.103586E-2	5.450377E-2	4.178540E-2	6.103460E-2	6.116749E-2	4.973510E-2	3.991972E-2	5.049293E-2	6.191098E-2	5.405948E-2	4.890496E-2	4.678799E-2	4.439913E-2	6.261677E-2	5.587191E-2	5.263275E-2	5.586921E-2	5.876075E-2	7.128043E-2	5.442483E-2	4.999663E-2	5.118451E-2	4.983575E-2	4.341840E-2	5.299527E-2	4.352396E-2	5.641391E-2	6.156141E-2	5.225260E-2	6.418847E-2	4.410227E-2	4.415764E-2	5.004167E-2	4.564285E-2	5.048386E-2	5.654539E-2	5.132864E-2	5.831197E-2	5.747967E-2	4.748248E-2	5.466212E-2	3.489301E-2	5.295677E-2	4.673708E-2	4.246172E-2	5.102776E-2	4.473776E-2	5.256257E-2	4.518943E-2	4.444547E-2	4.801247E-2	4.771319E-2	5.101262E-2	5.958987E-2	4.538498E-2	5.061659E-2	4.203480E-2	4.238337E-2	5.420325E-2	5.755884E-2	4.616028E-2	5.413813E-2	5.426881E-2	4.086133E-2	5.291130E-2	3.629467E-2	5.360710E-2	4.289789E-2	6.013610E-2	6.328798E-2	5.134748E-2	4.355360E-2	5.452636E-2	3.848772E-2	5.639153E-2	5.960447E-2	5.056237E-2	6.218368E-2	4.734999E-2	3.838904E-2	5.042951E-2	4.810775E-2	4.355384E-2	6.600723E-2	4.081532E-2	2.809864E-2	5.616414E-2	5.227210E-2	4.424639E-2	4.105869E-2	4.742777E-2	5.611040E-2	4.594348E-2	4.261987E-2	4.114436E-2	4.890577E-2	4.537064E-2	4.611198E-2	3.744714E-2	4.645230E-2	5.261681E-2	4.362679E-2	4.233648E-2	3.947098E-2	4.018504E-2	5.084484E-2	4.920917E-2	4.110007E-2	5.585227E-2	6.332425E-2	4.801413E-2	5.476416E-2	5.430545E-2	3.627249E-2	4.044766E-2	5.196062E-2	5.585264E-2	4.089777E-2	5.449410E-2	4.323258E-2	5.478364E-2	6.059216E-2	5.147646E-2	4.886940E-2	4.900933E-2	3.898095E-2	4.907974E-2	4.677782E-2	3.875694E-2	4.538453E-2	7.203010E-2	6.351819E-2	5.287747E-2	3.426632E-2	4.811369E-2	4.893574E-2	4.763913E-2	5.597083E-2	5.022078E-2	4.571535E-2	5.805393E-2	4.799799E-2	5.158561E-2	4.819919E-2	3.285506E-2	4.210249E-2	4.924278E-2	5.080597E-2	3.986666E-2	5.221801E-2
5.339090E+2	5.796936E-2	6.708208E-2	5.223684E-2	6.108778E-2	5.588036E-2	5.595609E-2	7.881600E-2	6.845918E-2	6.448475E-2	5.495942E-2	6.740511E-2	5.440624E-2	4.731327E-2	6.651533E-2	7.530110E-2	6.137803E-2	9.810169E-2	6.718737E-2	6.191223E-2	8.212261E-2	8.802704E-2	7.414131E-2	7.740453E-2	5.069854E-2	7.049717E-2	7.017518E-2	5.843914E-2	4.813448E-2	6.332912E-2	8.754554E-2	6.705875E-2	7.391011E-2	6.095206E-2	5.755554E-2	7.355557E-2	7.186164E-2	6.359036E-2	6.764049E-2	8.298368E-2	6.715243E-2	5.747784E-2	5.882501E-2	5.192063E-2	6.272737E-2	6.873653E-2	6.792549E-2	7.118492E-2	5.934377E-2	7.426252E-2	6.827589E-2	5.345045E-2	5.825947E-2	9.421371E-2	7.333420E-2	6.037734E-2	6.171512E-2	6.880622E-2	7.224831E-2	5.120028E-2	7.011842E-2	5.778159E-2	7.045560E-2	6.800798E-2	6.780517E-2	5.680990E-2	7.161140E-2	7.881382E-2	6.481420E-2	8.104526E-2	6.864158E-2	6.274473E-2	7.124370E-2	7.216519E-2	7.505639E-2	7.258462E-2	6.427821E-2	5.866899E-2	7.466947E-2	7.026377E-2	7.080774E-2	3.884052E-2	7.030105E-2	7.543911E-2	6.571247E-2	6.975011E-2	6.739234E-2	7.854144E-2	7.221089E-2	6.335294E-2	6.345459E-2	6.128068E-2	7.939804E-2	5.866071E-2	8.084672E-2	5.334896E-2	6.815324E-2	5.645734E-2	5.701584E-2	5.083095E-2	4.306506E-2	4.210072E-2	6.859232E-2	5.444607E-2	6.055210E-2	5.324666E-2	5.636367E-2	5.499563E-2	9.189185E-2	7.615528E-2	6.273803E-2	5.905792E-2	6.912711E-2	6.686861E-2	8.040306E-2	7.077592E-2	6.636181E-2	5.496203E-2	7.011109E-2	6.904097E-2	7.791237E-2	7.119676E-2	5.264483E-2	6.447624E-2	8.942378E-2	7.474064E-2	5.694059E-2	7.122146E-2	7.383900E-2	6.178179E-2	5.361046E-2	5.851162E-2	8.070202E-2	5.578998E-2	8.065031E-2	6.438120E-2	8.132474E-2	7.837496E-2	7.117607E-2	7.035919E-2	7.685893E-2	5.521386E-2	6.394084E-2	5.785347E-2	5.437424E-2	7.514079E-2	8.013525E-2	5.343113E-2	6.088308E-2	7.362987E-2	6.161896E-2	7.995838E-2	6.737266E-2	7.149329E-2	6.174325E-2	7.620401E-2	7.819720E-2	7.592907E-2	7.118358E-2	5.923802E-2	8.035300E-2	6.443420E-2	7.698745E-2	5.324536E-2	9.027566E-2	7.384008E-2
5.340640E+2	7.919607E-2	9.963811E-2	8.654076E-2	1.038119E-1	8.390477E-2	7.479804E-2	9.926457E-2	1.069553E-1	9.762785E-2	1.066388E-1	9.831971E-2	9.619626E-2	8.601867E-2	9.717079E-2	9.968505E-2	9.980440E-2	1.542610E-1	1.070554E-1	1.182850E-1	1.039632E-1	1.153041E-1	1.001968E-1	9.812754E-2	1.208028E-1	1.099973E-1	1.059709E-1	1.111643E-1	1.239460E-1	9.175034E-2	9.074383E-2	1.008781E-1	1.122483E-1	9.443026E-2	9.806302E-2	1.136890E-1	1.140478E-1	1.031080E-1	8.890844E-2	1.147793E-1	1.063053E-1	8.760482E-2	1.166342E-1	1.192464E-1	1.179785E-1	1.167571E-1	1.021560E-1	1.102374E-1	9.832572E-2	1.088119E-1	9.724903E-2	9.434555E-2	1.137983E-1	1.112609E-1	1.109698E-1	9.076332E-2	8.630033E-2	1.251128E-1	1.187825E-1	1.094356E-1	9.638386E-2	1.047832E-1	9.976260E-2	9.702037E-2	1.147551E-1	1.001277E-1	1.026161E-1	9.029992E-2	9.026113E-2	1.064498E-1	8.933810E-2	1.141405E-1	8.663280E-2	1.142497E-1	1.208394E-1	1.038276E-1	1.019006E-1	1.168234E-1	1.139888E-1	1.016786E-1	1.183113E-1	1.250365E-1	1.125548E-1	1.222332E-1	1.168795E-1	1.058559E-1	1.036837E-1	1.089437E-1	1.131307E-1	9.516762E-2	1.110480E-1	1.108390E-1	1.008084E-1	1.045430E-1	1.175487E-1	8.619669E-2	1.056893E-1	1.197096E-1	9.413516E-2	1.126312E-1	1.038784E-1	9.656766E-2	9.706305E-2	9.461685E-2	1.262209E-1	1.103167E-1	1.076063E-1	1.056454E-1	1.093113E-1	1.003817E-1	9.959916E-2	1.066780E-1	1.032137E-1	1.161335E-1	1.050529E-1	8.868327E-2	9.548455E-2	1.216027E-1	1.196906E-1	9.758646E-2	9.496531E-2	1.030350E-1	1.067287E-1	1.155062E-1	8.513945E-2	1.198754E-1	9.522400E-2	1.242355E-1	1.068830E-1	1.000201E-1	1.117184E-1	1.103468E-1	8.675162E-2	8.700843E-2	1.293610E-1	1.066782E-1	1.165254E-1	7.875556E-2	9.179215E-2	1.069217E-1	1.069290E-1	1.070370E-1	9.995380E-2	9.137931E-2	1.070539E-1	1.082765E-1	1.041171E-1	1.102063E-1	1.261214E-1	1.019773E-1	9.270599E-2	1.150670E-1	9.559406E-2	9.034544E-2	9.846476E-2	9.978811E-2	1.208195E-1	1.162309E-1	1.116560E-1	1.058904E-1	1.113099E-1	9.225180E-2	9.566553E-2	1.113062E-1	1.115485E-1	9.556233E-2
5.342090E+2	1.466677E-1	1.622747E-1	1.298153E-1	1.166676E-1	1.436498E-1	1.314439E-1	1.608519E-1	1.639443E-1	1.496470E-1	1.549187E-1	1.159791E-1	1.266051E-1	1.122044E-1	1.386474E-1	1.489543E-1	1.269119E-1	1.894505E-1	1.695977E-1	1.707478E-1	1.583396E-1	1.690211E-1	1.351443E-1	1.475068E-1	1.427643E-1	1.548455E-1	1.677269E-1	1.496568E-1	1.327316E-1	1.497801E-1	1.546834E-1	1.553686E-1	1.529330E-1	1.490914E-1	1.416761E-1	1.388862E-1	1.358541E-1	1.517148E-1	1.307026E-1	1.766913E-1	1.724347E-1	1.627422E-1	1.544082E-1	1.452939E-1	1.520528E-1	1.463896E-1	1.602534E-1	1.632711E-1	1.671743E-1	1.595042E-1	1.224007E-1	1.291968E-1	1.418693E-1	1.525227E-1	1.687220E-1	1.474809E-1	1.454282E-1	1.338837E-1	1.697967E-1	1.427076E-1	1.391442E-1	1.590273E-1	1.344397E-1	1.320493E-1	1.269520E-1	1.558552E-1	1.484472E-1	1.709885E-1	1.670835E-1	1.274409E-1	1.419048E-1	1.237738E-1	1.628052E-1	1.626112E-1	1.427131E-1	1.486209E-1	1.334191E-1	1.637335E-1	1.513549E-1	1.542682E-1	1.527563E-1	1.372488E-1	1.436833E-1	1.232360E-1	1.403388E-1	1.624585E-1	1.596079E-1	1.743752E-1	1.385496E-1	1.440789E-1	1.205309E-1	1.421505E-1	1.563648E-1	1.611851E-1	1.562471E-1	1.376873E-1	1.337640E-1	1.628255E-1	1.516045E-1	1.618860E-1	1.371489E-1	1.384595E-1	1.468404E-1	1.380561E-1	1.357558E-1	1.495973E-1	1.619580E-1	1.467834E-1	1.421148E-1	1.393436E-1	1.302570E-1	1.392426E-1	1.221401E-1	1.646077E-1	1.400069E-1	1.300341E-1	1.636258E-1	1.471173E-1	1.565244E-1	1.374862E-1	1.618503E-1	1.481646E-1	1.773215E-1	1.440690E-1	1.510435E-1	1.313120E-1	1.505923E-1	1.410102E-1	1.434797E-1	1.418254E-1	1.470160E-1	1.456311E-1	1.476428E-1	1.413931E-1	1.740107E-1	1.520242E-1	1.329573E-1	1.525498E-1	1.533032E-1	1.436973E-1	1.540354E-1	1.288620E-1	1.290711E-1	1.474858E-1	1.603960E-1	1.463371E-1	1.576905E-1	1.568645E-1	1.568812E-1	1.487176E-1	1.393516E-1	1.522926E-1	1.388966E-1	1.238555E-1	1.613107E-1	1.411573E-1	1.419480E-1	1.437804E-1	1.294630E-1	1.356961E-1	1.679488E-1	1.531438E-1	1.564056E-1	1.372674E-1	2.025062E-1	1.143023E-1
5.343600E+2	2.103135E-1	2.161682E-1	2.221709E-1	2.423858E-1	2.368859E-1	2.195786E-1	2.436531E-1	2.196639E-1	2.347919E-1	2.345085E-1	2.354826E-1	2.693528E-1	2.403389E-1	2.548808E-1	2.349679E-1	2.239871E-1	3.463061E-1	3.241430E-1	3.105962E-1	3.057010E-1	3.008034E-1	2.649899E-1	2.945870E-1	2.522232E-1	2.959085E-1	2.786923E-1	2.750101E-1	2.821528E-1	2.503585E-1	2.837619E-1	2.692330E-1	2.660757E-1	2.695044E-1	2.730457E-1	2.555332E-1	2.848129E-1	2.729217E-1	2.361379E-1	2.601184E-1	2.456020E-1	3.100075E-1	2.554172E-1	2.724631E-1	2.456931E-1	3.003056E-1	2.143502E-1	2.567217E-1	2.592472E-1	2.762938E-1	2.684173E-1	2.440459E-1	2.438752E-1	2.665522E-1	2.764034E-1	2.576576E-1	2.525112E-1	2.654864E-1	2.658402E-1	2.330029E-1	2.425533E-1	2.545475E-1	2.522082E-1	2.321279E-1	2.306504E-1	2.464192E-1	2.909324E-1	2.519879E-1	2.702471E-1	2.593457E-1	2.517438E-1	2.449186E-1	2.575495E-1	2.768512E-1	2.769095E-1	2.807249E-1	2.576123E-1	2.840940E-1	2.701706E-1	2.454264E-1	2.787926E-1	2.477747E-1	2.698766E-1	2.841521E-1	2.525748E-1	2.471253E-1	2.345838E-1	2.663161E-1	2.394710E-1	2.821513E-1	2.689130E-1	2.504721E-1	2.453548E-1	2.306615E-1	2.719791E-1	2.499625E-1	2.805905E-1	2.632493E-1	2.519136E-1	2.525433E-1	2.379520E-1	2.412857E-1	2.476738E-1	2.399168E-1	2.512148E-1	2.694217E-1	2.867142E-1	2.629509E-1	2.563952E-1	2.436153E-1	2.610663E-1	2.664085E-1	2.756218E-1	2.481027E-1	2.375701E-1	2.611936E-1	2.472357E-1	2.462471E-1	2.530003E-1	2.554681E-1	2.451209E-1	2.484514E-1	2.448868E-1	2.553954E-1	2.808475E-1	2.303606E-1	2.505150E-1	2.661945E-1	2.617302E-1	2.361502E-1	2.773553E-1	2.453005E-1	2.498658E-1	2.756026E-1	2.636067E-1	2.245432E-1	2.686168E-1	2.333656E-1	2.312489E-1	2.776232E-1	2.602463E-1	2.647779E-1	2.319703E-1	2.505703E-1	2.542599E-1	2.671386E-1	2.700397E-1	2.302420E-1	2.340108E-1	2.529275E-1	2.411395E-1	2.492748E-1	2.291917E-1	2.272572E-1	2.602039E-1	2.309353E-1	2.331955E-1	2.455797E-1	2.319935E-1	2.589324E-1	2.586023E-1	2.724037E-1	2.543279E-1	2.627633E-1	2.349925E-1	2.441623E-1
5.345160E+2	4.009474E-1	4.394998E-1	4.045189E-1	4.139605E-1	4.083914E-1	4.188466E-1	3.899300E-1	4.282315E-1	4.172756E-1	3.783870E-1	4.269071E-1	4.135475E-1	3.817943E-1	4.269114E-1	3.958428E-1	4.036534E-1	5.841492E-1	5.011350E-1	4.913575E-1	5.118820E-1	4.786257E-1	4.549713E-1	4.785242E-1	4.576250E-1	4.738003E-1	4.592161E-1	4.220855E-1	4.600637E-1	4.505121E-1	4.562204E-1	4.502664E-1	4.405725E-1	4.332954E-1	4.702029E-1	4.684833E-1	4.496546E-1	4.532948E-1	4.483134E-1	4.331926E-1	4.719696E-1	4.548146E-1	4.776057E-1	4.444479E-1	4.155184E-1	4.533888E-1	4.114697E-1	4.167958E-1	4.612159E-1	5.012120E-1	4.272259E-1	4.549924E-1	4.344119E-1	4.504468E-1	4.444771E-1	4.496710E-1	4.283805E-1	4.246256E-1	4.739280E-1	4.320806E-1	4.125285E-1	4.428343E-1	4.194866E-1	4.152174E-1	4.310540E-1	4.497791E-1	4.395953E-1	4.102019E-1	4.641187E-1	4.532832E-1	4.309035E-1	4.766756E-1	4.135225E-1	4.480136E-1	4.252428E-1	4.047765E-1	4.209707E-1	4.514225E-1	4.256245E-1	4.282971E-1	4.464784E-1	4.299187E-1	4.603778E-1	4.372815E-1	4.456262E-1	4.742064E-1	4.342798E-1	4.446876E-1	4.785484E-1	4.536924E-1	4.574453E-1	4.521891E-1	4.579171E-1	4.379168E-1	4.134443E-1	4.325539E-1	4.520362E-1	4.420783E-1	4.363692E-1	4.400578E-1	4.429062E-1	4.766263E-1	4.325831E-1	4.544019E-1	4.184894E-1	4.197776E-1	4.842163E-1	4.279320E-1	4.235058E-1	4.159750E-1	4.239550E-1	4.186951E-1	4.507362E-1	4.691931E-1	4.186551E-1	4.494370E-1	4.205239E-1	4.620161E-1	4.411987E-1	4.221560E-1	4.407858E-1	4.248866E-1	4.558347E-1	4.121825E-1	4.638970E-1	4.384564E-1	4.089983E-1	4.139174E-1	4.464141E-1	4.533795E-1	4.158169E-1	4.389249E-1	4.496247E-1	4.425758E-1	4.673753E-1	3.891617E-1	4.603956E-1	4.099897E-1	4.596557E-1	4.496964E-1	4.502947E-1	4.525872E-1	4.075467E-1	4.725833E-1	4.359383E-1	4.400015E-1	4.451508E-1	4.124010E-1	4.391075E-1	4.645603E-1	4.189805E-1	4.626276E-1	3.923817E-1	4.579641E-1	4.477460E-1	4.314343E-1	4.376071E-1	4.177746E-1	4.545418E-1	4.401249E-1	4.656846E-1	4.607428E-1	3.797839E-1	3.646040E-1	4.748246E-1	4.188359E-1
5.346620E+2	6.847958E-1	6.773099E-1	6.854703E-1	6.594001E-1	7.052259E-1	6.670805E-1	7.073463E-1	6.895952E-1	7.037326E-1	6.437398E-1	7.039866E-1	6.747079E-1	6.566473E-1	6.973657E-1	7.031519E-1	6.819458E-1	8.710461E-1	8.114110E-1	7.314979E-1	7.759701E-1	7.988533E-1	7.383365E-1	7.134436E-1	7.711167E-1	7.974274E-1	7.437996E-1	6.960610E-1	7.937617E-1	7.190674E-1	7.290838E-1	7.295542E-1	7.396771E-1	7.218630E-1	7.345822E-1	7.216406E-1	7.346962E-1	7.217880E-1	7.427606E-1	7.315165E-1	6.960697E-1	7.749354E-1	7.319045E-1	7.217540E-1	6.973774E-1	7.580083E-1	7.269698E-1	7.100179E-1	7.624772E-1	7.414467E-1	6.891602E-1	7.599348E-1	7.053395E-1	7.827766E-1	7.055986E-1	7.064936E-1	7.233937E-1	6.996134E-1	7.036795E-1	7.196809E-1	7.733376E-1	7.062964E-1	6.783140E-1	6.980131E-1	7.032129E-1	7.093716E-1	7.398173E-1	6.954875E-1	6.929269E-1	7.591210E-1	6.891040E-1	7.184696E-1	7.234864E-1	7.977856E-1	7.271654E-1	7.034316E-1	7.018432E-1	7.453922E-1	7.334938E-1	6.971571E-1	7.247604E-1	7.185207E-1	7.518503E-1	7.589364E-1	7.173036E-1	7.257378E-1	7.405855E-1	7.147229E-1	7.140076E-1	6.984164E-1	7.087054E-1	7.197518E-1	6.968700E-1	7.331892E-1	7.029308E-1	7.187646E-1	7.052812E-1	7.661933E-1	7.194318E-1	7.479274E-1	7.181448E-1	7.245739E-1	6.832613E-1	7.217701E-1	7.086443E-1	7.199906E-1	7.349220E-1	7.032617E-1	7.527431E-1	6.762393E-1	7.125377E-1	6.863660E-1	7.216651E-1	7.047044E-1	6.634528E-1	7.436467E-1	7.382743E-1	7.133027E-1	7.418836E-1	6.829323E-1	7.416470E-1	6.952455E-1	6.631361E-1	7.111371E-1	6.911982E-1	6.868661E-1	6.557874E-1	6.734209E-1	7.082824E-1	7.874264E-1	6.928482E-1	7.083398E-1	6.951117E-1	7.176935E-1	7.026357E-1	7.317945E-1	7.181792E-1	7.182728E-1	6.996305E-1	7.294755E-1	7.138398E-1	7.163682E-1	6.986067E-1	6.981870E-1	7.109449E-1	7.289974E-1	7.108547E-1	7.486290E-1	6.867848E-1	6.969987E-1	6.901948E-1	7.121276E-1	6.775562E-1	7.606238E-1	7.079241E-1	7.147503E-1	7.592286E-1	6.979919E-1	7.300662E-1	6.804457E-1	7.445368E-1	7.192748E-1	7.097113E-1	7.159768E-1	7.361617E-1	7.300255E-1
5.348070E+2	1.017979E+0	1.098900E+0	1.017422E+0	1.043043E+0	1.043200E+0	1.005581E+0	9.835505E-1	1.018793E+0	1.057289E+0	1.037037E+0	1.063470E+0	1.047056E+0	1.005080E+0	1.025754E+0	1.017291E+0	1.053358E+0	1.256797E+0	1.157085E+0	1.170219E+0	1.078692E+0	1.154821E+0	1.127582E+0	1.108197E+0	1.077474E+0	1.118466E+0	1.098861E+0	1.138404E+0	1.085683E+0	1.048484E+0	1.077684E+0	1.142354E+0	1.121750E+0	1.106084E+0	1.053579E+0	1.077593E+0	1.096432E+0	1.103030E+0	1.102751E+0	1.094823E+0	1.079548E+0	1.089059E+0	1.111806E+0	1.105560E+0	1.103147E+0	1.058110E+0	1.127620E+0	1.011138E+0	1.080467E+0	1.096588E+0	1.014532E+0	1.114095E+0	1.031771E+0	1.072632E+0	1.070323E+0	1.133762E+0	1.093405E+0	1.028880E+0	1.095843E+0	1.069074E+0	1.031485E+0	1.069744E+0	1.022376E+0	1.002738E+0	1.083799E+0	1.139989E+0	1.089537E+0	1.033647E+0	1.079838E+0	1.070729E+0	1.040411E+0	1.077359E+0	1.048856E+0	1.079175E+0	1.117764E+0	1.015827E+0	1.079670E+0	1.139399E+0	1.050178E+0	1.036747E+0	1.041128E+0	1.104207E+0	1.045860E+0	1.084498E+0	1.079381E+0	1.139768E+0	1.035463E+0	1.119372E+0	1.045920E+0	1.055414E+0	1.045736E+0	1.052253E+0	1.083472E+0	1.096593E+0	1.049322E+0	9.856369E-1	1.028718E+0	1.071908E+0	9.718406E-1	1.061955E+0	1.096292E+0	1.017645E+0	1.092668E+0	1.092521E+0	1.026042E+0	1.101452E+0	1.053678E+0	1.045322E+0	1.072319E+0	1.095082E+0	1.033058E+0	1.063685E+0	1.055660E+0	1.097326E+0	1.052531E+0	1.101073E+0	1.025230E+0	1.043914E+0	1.059696E+0	1.041794E+0	1.036611E+0	9.969266E-1	1.053563E+0	1.053961E+0	1.066665E+0	1.060810E+0	1.024764E+0	1.081589E+0	1.026743E+0	1.037722E+0	1.014824E+0	1.041022E+0	1.068215E+0	1.021263E+0	1.039777E+0	1.041658E+0	1.036868E+0	1.032616E+0	1.052332E+0	1.048513E+0	1.082313E+0	1.018561E+0	1.065163E+0	1.076674E+0	1.045302E+0	1.098964E+0	1.058990E+0	1.076501E+0	9.656511E-1	1.065218E+0	1.031976E+0	1.047243E+0	1.034652E+0	1.062747E+0	1.087018E+0	9.920009E-1	1.050308E+0	1.026016E+0	1.068380E+0	1.034146E+0	1.096534E+0	1.044136E+0	1.066713E+0	9.990636E-1	1.023771E+0	1.002089E+0
5.349630E+2	1.436791E+0	1.534583E+0	1.416231E+0	1.394434E+0	1.398175E+0	1.389889E+0	1.407887E+0	1.473152E+0	1.439113E+0	1.381554E+0	1.485724E+0	1.446107E+0	1.468786E+0	1.480949E+0	1.473529E+0	1.420251E+0	1.603425E+0	1.494003E+0	1.525452E+0	1.464915E+0	1.565615E+0	1.474756E+0	1.502335E+0	1.494696E+0	1.475988E+0	1.475246E+0	1.497649E+0	1.515983E+0	1.438187E+0	1.449854E+0	1.465376E+0	1.489117E+0	1.503947E+0	1.438575E+0	1.458954E+0	1.474783E+0	1.494854E+0	1.480009E+0	1.402467E+0	1.472969E+0	1.453192E+0	1.522142E+0	1.471311E+0	1.510820E+0	1.409086E+0	1.452667E+0	1.455550E+0	1.454064E+0	1.522716E+0	1.483166E+0	1.486825E+0	1.454264E+0	1.518785E+0	1.462299E+0	1.473812E+0	1.464983E+0	1.536876E+0	1.457846E+0	1.459317E+0	1.486119E+0	1.486289E+0	1.466643E+0	1.414198E+0	1.446609E+0	1.527227E+0	1.419991E+0	1.410849E+0	1.419218E+0	1.472220E+0	1.430805E+0	1.510461E+0	1.478769E+0	1.547002E+0	1.508846E+0	1.392218E+0	1.492115E+0	1.524385E+0	1.411239E+0	1.402150E+0	1.482905E+0	1.496034E+0	1.496379E+0	1.431375E+0	1.423040E+0	1.441005E+0	1.507876E+0	1.539434E+0	1.453017E+0	1.523281E+0	1.484191E+0	1.489476E+0	1.442320E+0	1.445544E+0	1.380971E+0	1.448682E+0	1.421234E+0	1.482226E+0	1.388473E+0	1.459278E+0	1.414912E+0	1.513917E+0	1.394050E+0	1.406748E+0	1.432137E+0	1.527312E+0	1.459622E+0	1.389807E+0	1.535929E+0	1.481395E+0	1.469149E+0	1.511737E+0	1.374377E+0	1.408126E+0	1.428831E+0	1.448078E+0	1.469894E+0	1.478823E+0	1.468580E+0	1.433657E+0	1.438598E+0	1.418397E+0	1.512877E+0	1.420151E+0	1.434375E+0	1.476010E+0	1.421729E+0	1.480772E+0	1.423470E+0	1.408868E+0	1.355509E+0	1.437151E+0	1.442554E+0	1.476009E+0	1.400719E+0	1.435643E+0	1.445839E+0	1.509669E+0	1.503570E+0	1.412662E+0	1.476320E+0	1.441465E+0	1.427870E+0	1.405607E+0	1.429338E+0	1.428532E+0	1.377066E+0	1.377603E+0	1.416901E+0	1.432569E+0	1.442421E+0	1.453517E+0	1.409620E+0	1.493853E+0	1.439510E+0	1.376146E+0	1.457118E+0	1.401224E+0	1.394963E+0	1.407566E+0	1.391875E+0	1.431706E+0	1.481920E+0	1.367810E+0	1.517180E+0	1.349842E+0
5.351090E+2	1.727793E+0	1.762141E+0	1.669840E+0	1.659374E+0	1.729180E+0	1.728499E+0	1.723208E+0	1.679372E+0	1.726027E+0	1.659392E+0	1.691112E+0	1.744946E+0	1.784758E+0	1.696828E+0	1.685165E+0	1.671756E+0	1.866350E+0	1.665045E+0	1.739435E+0	1.730676E+0	1.777789E+0	1.740640E+0	1.702939E+0	1.696251E+0	1.795799E+0	1.757658E+0	1.779709E+0	1.766215E+0	1.726895E+0	1.695972E+0	1.702505E+0	1.760195E+0	1.765755E+0	1.785368E+0	1.716706E+0	1.762386E+0	1.765059E+0	1.724601E+0	1.851909E+0	1.784404E+0	1.818344E+0	1.762667E+0	1.760769E+0	1.686028E+0	1.719098E+0	1.749343E+0	1.707235E+0	1.700848E+0	1.730705E+0	1.732184E+0	1.734046E+0	1.735103E+0	1.757058E+0	1.691452E+0	1.770791E+0	1.746730E+0	1.724873E+0	1.774451E+0	1.713488E+0	1.718096E+0	1.763264E+0	1.675597E+0	1.691483E+0	1.694543E+0	1.732335E+0	1.696790E+0	1.711549E+0	1.689914E+0	1.774199E+0	1.667638E+0	1.690243E+0	1.679748E+0	1.736931E+0	1.736954E+0	1.683162E+0	1.734065E+0	1.820905E+0	1.674593E+0	1.714214E+0	1.688134E+0	1.701206E+0	1.743572E+0	1.704850E+0	1.750608E+0	1.750997E+0	1.735240E+0	1.706506E+0	1.639756E+0	1.726320E+0	1.757109E+0	1.778213E+0	1.592289E+0	1.721596E+0	1.624128E+0	1.698390E+0	1.719566E+0	1.781292E+0	1.652517E+0	1.728432E+0	1.666440E+0	1.744454E+0	1.707669E+0	1.649198E+0	1.749368E+0	1.677603E+0	1.703024E+0	1.649525E+0	1.785134E+0	1.741098E+0	1.700423E+0	1.702582E+0	1.725653E+0	1.716637E+0	1.535863E+0	1.762869E+0	1.786375E+0	1.655828E+0	1.689760E+0	1.756860E+0	1.743078E+0	1.666512E+0	1.735824E+0	1.654227E+0	1.720704E+0	1.703537E+0	1.633729E+0	1.709281E+0	1.701451E+0	1.737166E+0	1.650002E+0	1.661480E+0	1.646169E+0	1.719583E+0	1.663452E+0	1.655990E+0	1.699841E+0	1.722538E+0	1.777360E+0	1.767776E+0	1.725851E+0	1.696848E+0	1.628949E+0	1.569756E+0	1.681792E+0	1.767598E+0	1.644629E+0	1.696951E+0	1.634385E+0	1.704215E+0	1.679584E+0	1.621916E+0	1.664218E+0	1.753098E+0	1.658459E+0	1.661494E+0	1.700883E+0	1.603913E+0	1.670769E+0	1.662229E+0	1.706624E+0	1.661431E+0	1.645293E+0	1.570397E+0	1.784669E+0	1.615456E+0
5.352550E+2	1.992295E+0	2.089728E+0	1.950906E+0	1.983249E+0	2.001378E+0	2.029956E+0	1.900157E+0	2.011525E+0	1.945763E+0	1.978661E+0	2.003885E+0	1.955002E+0	1.979675E+0	2.023116E+0	1.971988E+0	1.880523E+0	2.003738E+0	1.950524E+0	1.892275E+0	1.951693E+0	1.951547E+0	1.952232E+0	1.972634E+0	1.942172E+0	1.981560E+0	1.990062E+0	1.975212E+0	1.917533E+0	1.901904E+0	1.896955E+0	1.903466E+0	2.006716E+0	1.985064E+0	1.964334E+0	1.943237E+0	1.919194E+0	2.015703E+0	1.969558E+0	2.072737E+0	1.943716E+0	1.979521E+0	1.996397E+0	2.019418E+0	1.896940E+0	1.956750E+0	2.002458E+0	1.935321E+0	1.944147E+0	2.046393E+0	1.962334E+0	2.035940E+0	2.007672E+0	1.973948E+0	1.935910E+0	1.951559E+0	1.976608E+0	1.904081E+0	2.029158E+0	1.912940E+0	1.965612E+0	1.909552E+0	1.930869E+0	1.889195E+0	1.995364E+0	1.992555E+0	1.976676E+0	1.867514E+0	1.970974E+0	1.877728E+0	1.957530E+0	1.984526E+0	1.884104E+0	2.017856E+0	1.893577E+0	1.869020E+0	1.896056E+0	1.991681E+0	1.861269E+0	1.901373E+0	1.953112E+0	2.012456E+0	1.971396E+0	1.849747E+0	1.905123E+0	2.010691E+0	1.934689E+0	2.004298E+0	1.921571E+0	2.010079E+0	2.046744E+0	1.891508E+0	1.821005E+0	1.959867E+0	1.913444E+0	1.946638E+0	1.882034E+0	1.999322E+0	1.892632E+0	1.966144E+0	1.916296E+0	1.959989E+0	1.938933E+0	1.893912E+0	1.961195E+0	1.929777E+0	1.866006E+0	1.872942E+0	1.945736E+0	1.942310E+0	1.873659E+0	1.894764E+0	1.841239E+0	1.947225E+0	1.797991E+0	1.919236E+0	1.915542E+0	1.876758E+0	1.972186E+0	1.932602E+0	1.917228E+0	1.950129E+0	1.992128E+0	1.882633E+0	1.908542E+0	1.904109E+0	1.905125E+0	1.943746E+0	1.895182E+0	1.926855E+0	1.862667E+0	1.895250E+0	1.853257E+0	1.922844E+0	2.012650E+0	1.925437E+0	1.908061E+0	1.942771E+0	1.923150E+0	1.878678E+0	1.943696E+0	1.976280E+0	1.917413E+0	1.903548E+0	1.921659E+0	1.956044E+0	1.874848E+0	1.907377E+0	1.867849E+0	1.951510E+0	1.935347E+0	1.921580E+0	1.796647E+0	1.915996E+0	1.970087E+0	1.788408E+0	1.919425E+0	1.860566E+0	1.864458E+0	1.852288E+0	1.950237E+0	1.879605E+0	1.823486E+0	1.828377E+0	1.870225E+0	1.765551E+0
5.354110E+2	2.169100E+0	2.249087E+0	2.106088E+0	2.091691E+0	2.133377E+0	2.116846E+0	2.116385E+0	2.024655E+0	2.045171E+0	2.102891E+0	2.081633E+0	2.102051E+0	2.148002E+0	2.107951E+0	2.095447E+0	2.122947E+0	2.163706E+0	2.062884E+0	2.025065E+0	2.073285E+0	2.160626E+0	2.087160E+0	2.010767E+0	2.088621E+0	2.148596E+0	2.135717E+0	2.147921E+0	2.036209E+0	2.065789E+0	2.039344E+0	2.007547E+0	2.154746E+0	2.110420E+0	2.070455E+0	2.053980E+0	2.054078E+0	2.069013E+0	2.096006E+0	2.067611E+0	2.061288E+0	2.041991E+0	2.120223E+0	2.098832E+0	2.035193E+0	2.111751E+0	2.073803E+0	2.053105E+0	2.028542E+0	2.085254E+0	2.048177E+0	2.047884E+0	2.055260E+0	2.114038E+0	2.019046E+0	2.055379E+0	2.121640E+0	2.085073E+0	2.194900E+0	2.049666E+0	2.112564E+0	2.064916E+0	1.989415E+0	1.880193E+0	2.042757E+0	2.088910E+0	2.093580E+0	2.098674E+0	2.050905E+0	2.099430E+0	1.998639E+0	2.020554E+0	2.137086E+0	2.119458E+0	2.085476E+0	2.090011E+0	1.981616E+0	2.193262E+0	2.029240E+0	2.023401E+0	1.985495E+0	2.149957E+0	2.020240E+0	2.074466E+0	2.053077E+0	1.999810E+0	2.132194E+0	2.100397E+0	2.070657E+0	2.096872E+0	2.079237E+0	2.042247E+0	2.056657E+0	2.007888E+0	2.008190E+0	1.991100E+0	2.079027E+0	2.086450E+0	1.991019E+0	2.043819E+0	2.005729E+0	2.089951E+0	1.974239E+0	1.936481E+0	2.096541E+0	2.085396E+0	2.010936E+0	2.051460E+0	2.130540E+0	2.029735E+0	2.009144E+0	1.951426E+0	2.083945E+0	2.018849E+0	1.945633E+0	1.986502E+0	1.976743E+0	2.031571E+0	1.981971E+0	1.999498E+0	2.072296E+0	2.005085E+0	2.073440E+0	2.062157E+0	1.965470E+0	2.009126E+0	1.992679E+0	2.053100E+0	1.973852E+0	2.062014E+0	1.939566E+0	2.082239E+0	2.020539E+0	1.984589E+0	2.015022E+0	2.011706E+0	2.064684E+0	2.036958E+0	2.002256E+0	2.042790E+0	2.059662E+0	1.972154E+0	1.943507E+0	1.985772E+0	2.004721E+0	2.010869E+0	2.016868E+0	2.067022E+0	1.975120E+0	2.107863E+0	1.998661E+0	1.980459E+0	1.971809E+0	2.051478E+0	2.081280E+0	1.962323E+0	2.024247E+0	1.920377E+0	1.973045E+0	1.985058E+0	2.079941E+0	1.969686E+0	1.911112E+0	1.931314E+0	2.046066E+0	1.862696E+0
5.355630E+2	1.792128E+0	1.884313E+0	1.781163E+0	1.823528E+0	1.792313E+0	1.835246E+0	1.774223E+0	1.811222E+0	1.781847E+0	1.788089E+0	1.802813E+0	1.767306E+0	1.833910E+0	1.816519E+0	1.805711E+0	1.747510E+0	1.790931E+0	1.721209E+0	1.705814E+0	1.793715E+0	1.772508E+0	1.785979E+0	1.754057E+0	1.766508E+0	1.753511E+0	1.753228E+0	1.759980E+0	1.869217E+0	1.740838E+0	1.693719E+0	1.750400E+0	1.765482E+0	1.714869E+0	1.834608E+0	1.766923E+0	1.730083E+0	1.820354E+0	1.888158E+0	1.758311E+0	1.809204E+0	1.820065E+0	1.789864E+0	1.707368E+0	1.726783E+0	1.844154E+0	1.770384E+0	1.725678E+0	1.734540E+0	1.815770E+0	1.773156E+0	1.836663E+0	1.804713E+0	1.768143E+0	1.806638E+0	1.748691E+0	1.814303E+0	1.756861E+0	1.817995E+0	1.728311E+0	1.739778E+0	1.788445E+0	1.712561E+0	1.691564E+0	1.820382E+0	1.751132E+0	1.769106E+0	1.751405E+0	1.796411E+0	1.743114E+0	1.708726E+0	1.760146E+0	1.796405E+0	1.828934E+0	1.894579E+0	1.693112E+0	1.772905E+0	1.840208E+0	1.759492E+0	1.710420E+0	1.790150E+0	1.798701E+0	1.759045E+0	1.760514E+0	1.747413E+0	1.820701E+0	1.792224E+0	1.802277E+0	1.719199E+0	1.850078E+0	1.783352E+0	1.752517E+0	1.841581E+0	1.783838E+0	1.745322E+0	1.739967E+0	1.757594E+0	1.775601E+0	1.742427E+0	1.722919E+0	1.701507E+0	1.820756E+0	1.793329E+0	1.671601E+0	1.728369E+0	1.860175E+0	1.794659E+0	1.695509E+0	1.792370E+0	1.731343E+0	1.781745E+0	1.772493E+0	1.805952E+0	1.719860E+0	1.582474E+0	1.780199E+0	1.749050E+0	1.768925E+0	1.783973E+0	1.776362E+0	1.765322E+0	1.751397E+0	1.764819E+0	1.705105E+0	1.766074E+0	1.674463E+0	1.662449E+0	1.726952E+0	1.726957E+0	1.789527E+0	1.708199E+0	1.698993E+0	1.766365E+0	1.795922E+0	1.762999E+0	1.700312E+0	1.699229E+0	1.756106E+0	1.680529E+0	1.772045E+0	1.726839E+0	1.758159E+0	1.736715E+0	1.744179E+0	1.688775E+0	1.817135E+0	1.705858E+0	1.779213E+0	1.684664E+0	1.798182E+0	1.753115E+0	1.779032E+0	1.670187E+0	1.817340E+0	1.743552E+0	1.717320E+0	1.787189E+0	1.782391E+0	1.668254E+0	1.729154E+0	1.774137E+0	1.744533E+0	1.785135E+0	1.629669E+0	1.739730E+0	1.762929E+0
5.357250E+2	1.553243E+0	1.716873E+0	1.636648E+0	1.584114E+0	1.596961E+0	1.650054E+0	1.660678E+0	1.590959E+0	1.623501E+0	1.604208E+0	1.637528E+0	1.604302E+0	1.620510E+0	1.640038E+0	1.609410E+0	1.655686E+0	1.598294E+0	1.572091E+0	1.621166E+0	1.623998E+0	1.601502E+0	1.595419E+0	1.659440E+0	1.587183E+0	1.606239E+0	1.638076E+0	1.646861E+0	1.585038E+0	1.560200E+0	1.619147E+0	1.593981E+0	1.642980E+0	1.598806E+0	1.657395E+0	1.596028E+0	1.581110E+0	1.686280E+0	1.677649E+0	1.634362E+0	1.604241E+0	1.537017E+0	1.716789E+0	1.678194E+0	1.682823E+0	1.608650E+0	1.631639E+0	1.594606E+0	1.614758E+0	1.646742E+0	1.582202E+0	1.631235E+0	1.553038E+0	1.608098E+0	1.550449E+0	1.602215E+0	1.658242E+0	1.579119E+0	1.647990E+0	1.615874E+0	1.612067E+0	1.542761E+0	1.552672E+0	1.534959E+0	1.597053E+0	1.672481E+0	1.589351E+0	1.563641E+0	1.604278E+0	1.595041E+0	1.595621E+0	1.617812E+0	1.637646E+0	1.626961E+0	1.688594E+0	1.584328E+0	1.592528E+0	1.637015E+0	1.582602E+0	1.643139E+0	1.642071E+0	1.635696E+0	1.616805E+0	1.596928E+0	1.519478E+0	1.659878E+0	1.592142E+0	1.615124E+0	1.588090E+0	1.621255E+0	1.560923E+0	1.615733E+0	1.622272E+0	1.598283E+0	1.551097E+0	1.539293E+0	1.567780E+0	1.601974E+0	1.571621E+0	1.671540E+0	1.566186E+0	1.573336E+0	1.619191E+0	1.567172E+0	1.565105E+0	1.640722E+0	1.629873E+0	1.602871E+0	1.629202E+0	1.590954E+0	1.614618E+0	1.628009E+0	1.624887E+0	1.597213E+0	1.467205E+0	1.585234E+0	1.589518E+0	1.599143E+0	1.562157E+0	1.668499E+0	1.561839E+0	1.563240E+0	1.591829E+0	1.552554E+0	1.604679E+0	1.537103E+0	1.596204E+0	1.630227E+0	1.582440E+0	1.664759E+0	1.559470E+0	1.619669E+0	1.582414E+0	1.612513E+0	1.638997E+0	1.552887E+0	1.609701E+0	1.605999E+0	1.589493E+0	1.672702E+0	1.589274E+0	1.635975E+0	1.660403E+0	1.589568E+0	1.590007E+0	1.578724E+0	1.565924E+0	1.561288E+0	1.536977E+0	1.585154E+0	1.553932E+0	1.552935E+0	1.552630E+0	1.600389E+0	1.591617E+0	1.539839E+0	1.639247E+0	1.566439E+0	1.531470E+0	1.533161E+0	1.584346E+0	1.546423E+0	1.544614E+0	1.462576E+0	1.590377E+0	1.543864E+0
5.358550E+2	1.472178E+0	1.596997E+0	1.492978E+0	1.465290E+0	1.541049E+0	1.553868E+0	1.515980E+0	1.498899E+0	1.525148E+0	1.561492E+0	1.502133E+0	1.571819E+0	1.516675E+0	1.555477E+0	1.516619E+0	1.538742E+0	1.531599E+0	1.478816E+0	1.459214E+0	1.504396E+0	1.517239E+0	1.560255E+0	1.530706E+0	1.526458E+0	1.522341E+0	1.578005E+0	1.486762E+0	1.539575E+0	1.479792E+0	1.461100E+0	1.495626E+0	1.513152E+0	1.504869E+0	1.606811E+0	1.542031E+0	1.517197E+0	1.482527E+0	1.559299E+0	1.548010E+0	1.541227E+0	1.523488E+0	1.495871E+0	1.560282E+0	1.536951E+0	1.457863E+0	1.514953E+0	1.532881E+0	1.554468E+0	1.553825E+0	1.565119E+0	1.555281E+0	1.519523E+0	1.514772E+0	1.499311E+0	1.534433E+0	1.583368E+0	1.506256E+0	1.578457E+0	1.536590E+0	1.493608E+0	1.545232E+0	1.489988E+0	1.510405E+0	1.484342E+0	1.527719E+0	1.544490E+0	1.523585E+0	1.474062E+0	1.479228E+0	1.519685E+0	1.542120E+0	1.539468E+0	1.453631E+0	1.589529E+0	1.441184E+0	1.439438E+0	1.549283E+0	1.530282E+0	1.500155E+0	1.552187E+0	1.545239E+0	1.531838E+0	1.502239E+0	1.536661E+0	1.522850E+0	1.591874E+0	1.592038E+0	1.449354E+0	1.568022E+0	1.544651E+0	1.475832E+0	1.505067E+0	1.489615E+0	1.500809E+0	1.509670E+0	1.462107E+0	1.500291E+0	1.512656E+0	1.541954E+0	1.524031E+0	1.556143E+0	1.536662E+0	1.488327E+0	1.518844E+0	1.527680E+0	1.508902E+0	1.471881E+0	1.587032E+0	1.558932E+0	1.568078E+0	1.507547E+0	1.557488E+0	1.538599E+0	1.460953E+0	1.511718E+0	1.490383E+0	1.493866E+0	1.498799E+0	1.516262E+0	1.482508E+0	1.524057E+0	1.536007E+0	1.518472E+0	1.468096E+0	1.500751E+0	1.462336E+0	1.535131E+0	1.531850E+0	1.592747E+0	1.469591E+0	1.465964E+0	1.503178E+0	1.580059E+0	1.509959E+0	1.589058E+0	1.546017E+0	1.483756E+0	1.518096E+0	1.534844E+0	1.524766E+0	1.556483E+0	1.492506E+0	1.504415E+0	1.503315E+0	1.520201E+0	1.519919E+0	1.497489E+0	1.443248E+0	1.496727E+0	1.525055E+0	1.522675E+0	1.495313E+0	1.554930E+0	1.517934E+0	1.404996E+0	1.582583E+0	1.432281E+0	1.501959E+0	1.505843E+0	1.459581E+0	1.410466E+0	1.464020E+0	1.380757E+0	1.539829E+0	1.464677E+0
5.360120E+2	1.244268E+0	1.291418E+0	1.237720E+0	1.207948E+0	1.253891E+0	1.279199E+0	1.212313E+0	1.221116E+0	1.218860E+0	1.215507E+0	1.277444E+0	1.280654E+0	1.326548E+0	1.277979E+0	1.238254E+0	1.252279E+0	1.246430E+0	1.171344E+0	1.254880E+0	1.292247E+0	1.286783E+0	1.235987E+0	1.229035E+0	1.264207E+0	1.289076E+0	1.270828E+0	1.209921E+0	1.242730E+0	1.235983E+0	1.212436E+0	1.248763E+0	1.237732E+0	1.262048E+0	1.232948E+0	1.219230E+0	1.254849E+0	1.298693E+0	1.261448E+0	1.255918E+0	1.284642E+0	1.178905E+0	1.278703E+0	1.248055E+0	1.221312E+0	1.278475E+0	1.273531E+0	1.194251E+0	1.205419E+0	1.216870E+0	1.292966E+0	1.241976E+0	1.171252E+0	1.217290E+0	1.254318E+0	1.289501E+0	1.257959E+0	1.203138E+0	1.252618E+0	1.255169E+0	1.251730E+0	1.228151E+0	1.222615E+0	1.208982E+0	1.173371E+0	1.282069E+0	1.251928E+0	1.210073E+0	1.262111E+0	1.191206E+0	1.229161E+0	1.228197E+0	1.301947E+0	1.246056E+0	1.255363E+0	1.202975E+0	1.221325E+0	1.312013E+0	1.242507E+0	1.229279E+0	1.210445E+0	1.242437E+0	1.254192E+0	1.286087E+0	1.272892E+0	1.227738E+0	1.263099E+0	1.288492E+0	1.292252E+0	1.279039E+0	1.250723E+0	1.235814E+0	1.250478E+0	1.211500E+0	1.267244E+0	1.211060E+0	1.264990E+0	1.237113E+0	1.268029E+0	1.237945E+0	1.233056E+0	1.250619E+0	1.220174E+0	1.242281E+0	1.198518E+0	1.272751E+0	1.200389E+0	1.232933E+0	1.288277E+0	1.231603E+0	1.200135E+0	1.199001E+0	1.184859E+0	1.355629E+0	1.168312E+0	1.260605E+0	1.257881E+0	1.225922E+0	1.302162E+0	1.279902E+0	1.232196E+0	1.212519E+0	1.283598E+0	1.245223E+0	1.238791E+0	1.237519E+0	1.239008E+0	1.247702E+0	1.242283E+0	1.260791E+0	1.197155E+0	1.175684E+0	1.166815E+0	1.178310E+0	1.241524E+0	1.235432E+0	1.200884E+0	1.263735E+0	1.225562E+0	1.238898E+0	1.237540E+0	1.241210E+0	1.210662E+0	1.253624E+0	1.282311E+0	1.371167E+0	1.240655E+0	1.217609E+0	1.196621E+0	1.243452E+0	1.223175E+0	1.227070E+0	1.177360E+0	1.252160E+0	1.195532E+0	1.215728E+0	1.220651E+0	1.190871E+0	1.171455E+0	1.261698E+0	1.281450E+0	1.167272E+0	1.206855E+0	1.219075E+0	1.266415E+0	1.205745E+0
5.362680E+2	9.011341E-1	1.015430E+0	9.356422E-1	9.299263E-1	9.300538E-1	9.364212E-1	8.986571E-1	9.276021E-1	9.179174E-1	9.003740E-1	9.239434E-1	9.992448E-1	9.682900E-1	9.237798E-1	9.351207E-1	9.517135E-1	9.676041E-1	9.071420E-1	9.149811E-1	9.257376E-1	9.421753E-1	8.385163E-1	9.091992E-1	8.978817E-1	9.475193E-1	9.461118E-1	9.521397E-1	9.389840E-1	8.561753E-1	9.430347E-1	9.589804E-1	9.721438E-1	9.650227E-1	9.825757E-1	9.243180E-1	9.736711E-1	9.382120E-1	9.174147E-1	9.159507E-1	9.416836E-1	9.683766E-1	9.871205E-1	9.660541E-1	9.457585E-1	9.085796E-1	8.969688E-1	9.383318E-1	9.717351E-1	9.818697E-1	9.334401E-1	9.251148E-1	9.362546E-1	9.360057E-1	9.420369E-1	9.662901E-1	8.933905E-1	9.137347E-1	1.001442E+0	9.830984E-1	9.484965E-1	9.792604E-1	9.091252E-1	9.233950E-1	9.449504E-1	9.639465E-1	9.265924E-1	9.077846E-1	9.200930E-1	9.528281E-1	9.554093E-1	9.659164E-1	9.601515E-1	9.287727E-1	9.629761E-1	8.992495E-1	9.774855E-1	9.305844E-1	9.279119E-1	8.968889E-1	9.046653E-1	9.333705E-1	9.167513E-1	9.518544E-1	8.865342E-1	9.326313E-1	9.684183E-1	9.190331E-1	9.206077E-1	8.863706E-1	9.055532E-1	8.969218E-1	9.572481E-1	9.575821E-1	9.109441E-1	9.219119E-1	9.461263E-1	9.798611E-1	9.626070E-1	9.633327E-1	9.329428E-1	9.330823E-1	9.443858E-1	9.028436E-1	9.390056E-1	9.551839E-1	9.159051E-1	8.965809E-1	9.695303E-1	9.037085E-1	9.195345E-1	9.184601E-1	9.303407E-1	9.124509E-1	8.969060E-1	9.759527E-1	8.926320E-1	9.308738E-1	9.010329E-1	9.518182E-1	9.504824E-1	9.197554E-1	9.517781E-1	9.513335E-1	9.391341E-1	9.598521E-1	8.921484E-1	9.532584E-1	9.404945E-1	9.344204E-1	8.794232E-1	9.483631E-1	9.583028E-1	9.624024E-1	9.658242E-1	9.713205E-1	9.341621E-1	9.842727E-1	9.259366E-1	9.293884E-1	9.307425E-1	9.467517E-1	8.985742E-1	9.343379E-1	9.987692E-1	9.909515E-1	9.684482E-1	9.851418E-1	9.114276E-1	1.011715E+0	9.454591E-1	9.316209E-1	9.173692E-1	9.532130E-1	9.612888E-1	9.057453E-1	9.286664E-1	9.135841E-1	9.421210E-1	9.237436E-1	9.432217E-1	9.227038E-1	9.405713E-1	9.226997E-1	1.068695E+0	1.021838E+0
5.365250E+2	7.331473E-1	7.704133E-1	7.455416E-1	7.663230E-1	7.010558E-1	7.271387E-1	7.209423E-1	6.986956E-1	7.730559E-1	7.641821E-1	7.232593E-1	7.583881E-1	7.449064E-1	7.413998E-1	7.312504E-1	7.382831E-1	7.248136E-1	7.456333E-1	7.477178E-1	7.185338E-1	6.977042E-1	7.390410E-1	7.500796E-1	7.308677E-1	7.471497E-1	7.214747E-1	8.084807E-1	7.805909E-1	7.652292E-1	7.277993E-1	7.424871E-1	7.316642E-1	7.337871E-1	7.252417E-1	7.282433E-1	7.434165E-1	6.904049E-1	7.481524E-1	7.073677E-1	7.511449E-1	7.288960E-1	7.716241E-1	7.598560E-1	7.237983E-1	7.673519E-1	7.366838E-1	7.111591E-1	7.662398E-1	8.014623E-1	7.383477E-1	7.897299E-1	7.421459E-1	7.395370E-1	7.429412E-1	7.555537E-1	7.544249E-1	7.694962E-1	7.897793E-1	7.594165E-1	7.399236E-1	7.124832E-1	7.205334E-1	7.504169E-1	7.566958E-1	7.311155E-1	7.053808E-1	7.162717E-1	7.627392E-1	7.613580E-1	7.301573E-1	7.473849E-1	7.300374E-1	7.441325E-1	7.691707E-1	7.480051E-1	7.415153E-1	7.684227E-1	7.193517E-1	6.984102E-1	7.518864E-1	7.282061E-1	7.783782E-1	7.383101E-1	7.675526E-1	7.389455E-1	7.316525E-1	7.746258E-1	7.567062E-1	7.771870E-1	7.515660E-1	7.213719E-1	7.752207E-1	7.180751E-1	7.597528E-1	6.938617E-1	7.710873E-1	7.566559E-1	7.399236E-1	7.758671E-1	7.403950E-1	7.564227E-1	7.481885E-1	7.580754E-1	7.008475E-1	7.558741E-1	7.756972E-1	7.355189E-1	7.759017E-1	7.554277E-1	7.177395E-1	7.352075E-1	7.661880E-1	7.623150E-1	7.340943E-1	7.756560E-1	7.557355E-1	7.990036E-1	7.957842E-1	7.700563E-1	7.384300E-1	7.278921E-1	7.624533E-1	7.682347E-1	7.378894E-1	7.563292E-1	7.535426E-1	7.618286E-1	7.809367E-1	8.012433E-1	7.362980E-1	7.243991E-1	7.515413E-1	7.797313E-1	7.885186E-1	8.003732E-1	7.229399E-1	7.560269E-1	7.390681E-1	7.544347E-1	7.702765E-1	7.133209E-1	7.020502E-1	7.824737E-1	6.972516E-1	7.868884E-1	7.315229E-1	7.652983E-1	7.770217E-1	7.473252E-1	7.592332E-1	7.915511E-1	7.437377E-1	7.210051E-1	7.708896E-1	6.879185E-1	7.437127E-1	7.382930E-1	7.410722E-1	7.424642E-1	7.199269E-1	7.320369E-1	7.589324E-1	6.470848E-1	7.781665E-1	7.642275E-1
5.367810E+2	5.553691E-1	5.809040E-1	6.064432E-1	5.709300E-1	6.264807E-1	5.884380E-1	6.173311E-1	6.155442E-1	5.742370E-1	5.875093E-1	5.675373E-1	5.915716E-1	5.644471E-1	5.760454E-1	6.079257E-1	5.852139E-1	6.243438E-1	5.803828E-1	5.896625E-1	6.194855E-1	5.791827E-1	5.917246E-1	6.014471E-1	5.745582E-1	6.458042E-1	6.287986E-1	5.885408E-1	5.917768E-1	5.740022E-1	5.629604E-1	5.922704E-1	5.816426E-1	5.923004E-1	6.104911E-1	5.936792E-1	5.521801E-1	6.418349E-1	6.037356E-1	5.878657E-1	5.956594E-1	5.702724E-1	5.949718E-1	6.229844E-1	6.320289E-1	5.704765E-1	6.147218E-1	5.734115E-1	5.637699E-1	6.255341E-1	5.784612E-1	5.791076E-1	6.524633E-1	5.896444E-1	5.864090E-1	5.981262E-1	6.121881E-1	5.934020E-1	6.379321E-1	5.653699E-1	5.821925E-1	5.921463E-1	5.739450E-1	5.844971E-1	5.233168E-1	6.093653E-1	5.807185E-1	5.822912E-1	5.779143E-1	6.070381E-1	5.874644E-1	6.022843E-1	5.843719E-1	6.110002E-1	5.900063E-1	5.383884E-1	5.964148E-1	5.968695E-1	6.153576E-1	5.823551E-1	5.972350E-1	6.011350E-1	5.610910E-1	5.861024E-1	5.805911E-1	5.900947E-1	6.059843E-1	6.546942E-1	6.030111E-1	6.103634E-1	6.242003E-1	5.673563E-1	5.986329E-1	6.005056E-1	5.772040E-1	5.797793E-1	5.996846E-1	5.832846E-1	6.011138E-1	5.693305E-1	5.825394E-1	5.690208E-1	6.196378E-1	5.957817E-1	5.553265E-1	5.717352E-1	5.848957E-1	5.818174E-1	5.840230E-1	5.909293E-1	6.319594E-1	6.178300E-1	5.913560E-1	6.020146E-1	5.801610E-1	6.066111E-1	6.068816E-1	5.628822E-1	5.717040E-1	6.347283E-1	5.825579E-1	5.752836E-1	5.991751E-1	5.794841E-1	5.927146E-1	5.983915E-1	5.942190E-1	5.777741E-1	6.204551E-1	6.380295E-1	5.977167E-1	6.115716E-1	5.898923E-1	5.932343E-1	6.328995E-1	5.825205E-1	6.105972E-1	6.164755E-1	5.793376E-1	5.989155E-1	5.826580E-1	6.467600E-1	5.991705E-1	5.830037E-1	5.962537E-1	6.205093E-1	6.017294E-1	6.167040E-1	5.661657E-1	5.685967E-1	5.919030E-1	6.093255E-1	6.067553E-1	5.918607E-1	6.138711E-1	5.949783E-1	6.484838E-1	6.030346E-1	6.294598E-1	5.944751E-1	5.658705E-1	5.825758E-1	5.943013E-1	5.901012E-1	6.391212E-1	6.465827E-1
5.370120E+2	5.207490E-1	5.380253E-1	5.781952E-1	5.162705E-1	5.326662E-1	5.480026E-1	5.529022E-1	5.466614E-1	5.263164E-1	5.148966E-1	5.278081E-1	5.525537E-1	5.585832E-1	5.299214E-1	5.212994E-1	5.031532E-1	5.745109E-1	5.523667E-1	5.624023E-1	5.513708E-1	5.364709E-1	5.537801E-1	5.466273E-1	5.641950E-1	5.361239E-1	5.476902E-1	5.293729E-1	5.611549E-1	5.391965E-1	5.144525E-1	5.029782E-1	5.931207E-1	5.488836E-1	5.789678E-1	5.563058E-1	5.322655E-1	5.816269E-1	5.560194E-1	5.480470E-1	5.565206E-1	5.277815E-1	5.633889E-1	5.538431E-1	5.762782E-1	5.307261E-1	5.769480E-1	5.146223E-1	5.200318E-1	5.244938E-1	5.477484E-1	5.566336E-1	5.445655E-1	5.289843E-1	5.315297E-1	5.381358E-1	5.329817E-1	5.212667E-1	5.573625E-1	5.486776E-1	5.340430E-1	5.336695E-1	5.407497E-1	5.351342E-1	5.251540E-1	5.492683E-1	5.255438E-1	5.842558E-1	5.098250E-1	5.444732E-1	4.974418E-1	5.918476E-1	5.460145E-1	5.559735E-1	6.003540E-1	5.418080E-1	5.611578E-1	5.592845E-1	5.673432E-1	5.651573E-1	5.338097E-1	5.443277E-1	5.965689E-1	5.502577E-1	5.317647E-1	5.342832E-1	5.635641E-1	6.066768E-1	5.418548E-1	5.648809E-1	5.466095E-1	5.845719E-1	5.258868E-1	5.337237E-1	5.534328E-1	5.683210E-1	5.665246E-1	5.584909E-1	5.574410E-1	5.463078E-1	5.580419E-1	5.451367E-1	5.652218E-1	5.451855E-1	5.528246E-1	5.803808E-1	5.358283E-1	5.114059E-1	5.740084E-1	5.731098E-1	5.439843E-1	5.328856E-1	5.148834E-1	5.373676E-1	5.136390E-1	5.751212E-1	5.321105E-1	5.857855E-1	5.567194E-1	5.971994E-1	5.610856E-1	4.920921E-1	5.834100E-1	5.624453E-1	5.566061E-1	5.830319E-1	5.402963E-1	5.695678E-1	5.391357E-1	5.687348E-1	5.566724E-1	5.321517E-1	5.269172E-1	5.471109E-1	5.744260E-1	5.478395E-1	5.223490E-1	5.566919E-1	5.957654E-1	5.543996E-1	5.476429E-1	5.551599E-1	5.293081E-1	5.371099E-1	5.540087E-1	5.407158E-1	5.573610E-1	5.320715E-1	5.357683E-1	5.678177E-1	5.368787E-1	5.089013E-1	5.307369E-1	5.721418E-1	5.544777E-1	5.500722E-1	5.454525E-1	5.516548E-1	5.597031E-1	5.325463E-1	5.568918E-1	5.653514E-1	5.377346E-1	5.463347E-1	5.665313E-1	5.698925E-1
5.372740E+2	5.068057E-1	5.131518E-1	4.918670E-1	4.839792E-1	4.872425E-1	5.201053E-1	5.130489E-1	4.897052E-1	4.917287E-1	4.979897E-1	4.907973E-1	4.800701E-1	4.911845E-1	5.114632E-1	4.911045E-1	5.002107E-1	5.585190E-1	5.322508E-1	5.237051E-1	5.313731E-1	5.217372E-1	5.491634E-1	5.094197E-1	4.781088E-1	5.355053E-1	5.492703E-1	5.483311E-1	5.009435E-1	4.943547E-1	4.790953E-1	5.430363E-1	5.432933E-1	5.219220E-1	5.155046E-1	5.247846E-1	4.954860E-1	5.062496E-1	5.493383E-1	5.350468E-1	5.254168E-1	5.203537E-1	5.215149E-1	5.417082E-1	5.338278E-1	5.523239E-1	4.983709E-1	5.227634E-1	5.075175E-1	5.087440E-1	5.338851E-1	5.201512E-1	5.268859E-1	5.550516E-1	5.345876E-1	4.974156E-1	5.439530E-1	4.964796E-1	5.048840E-1	5.245021E-1	5.196538E-1	4.794764E-1	5.243080E-1	5.454858E-1	5.454456E-1	5.341491E-1	4.869522E-1	5.159884E-1	4.988572E-1	5.279127E-1	4.943327E-1	5.177027E-1	5.295354E-1	5.317864E-1	5.352854E-1	4.993577E-1	5.291003E-1	5.347197E-1	5.092009E-1	5.292435E-1	5.236342E-1	5.398636E-1	5.328676E-1	4.939010E-1	5.081709E-1	5.188057E-1	4.854216E-1	5.040071E-1	5.169203E-1	5.253171E-1	5.340807E-1	5.551097E-1	5.024692E-1	4.621037E-1	4.683175E-1	5.227803E-1	5.100480E-1	5.032773E-1	4.983090E-1	5.482244E-1	5.438454E-1	4.987922E-1	5.367606E-1	5.372379E-1	5.031118E-1	5.038524E-1	4.781336E-1	4.902191E-1	5.478939E-1	4.990647E-1	4.957718E-1	5.439297E-1	5.348445E-1	5.110069E-1	5.197563E-1	5.547017E-1	5.411947E-1	5.226438E-1	5.210814E-1	5.280158E-1	5.172580E-1	4.913593E-1	5.623807E-1	5.372895E-1	5.519759E-1	5.410789E-1	5.173781E-1	5.376266E-1	5.434357E-1	5.052846E-1	5.230435E-1	5.310741E-1	4.986574E-1	5.374277E-1	5.134233E-1	5.306715E-1	5.115922E-1	5.325458E-1	5.347990E-1	5.326066E-1	5.546323E-1	4.723267E-1	4.984026E-1	5.252894E-1	5.164075E-1	5.177011E-1	5.142971E-1	5.303664E-1	5.326472E-1	5.223689E-1	5.336030E-1	5.503582E-1	5.067205E-1	5.515093E-1	4.973556E-1	4.719297E-1	5.472942E-1	5.180825E-1	5.322432E-1	4.910095E-1	4.984542E-1	5.323009E-1	5.322897E-1	4.953521E-1	5.135638E-1	5.032228E-1
5.375110E+2	5.101658E-1	5.486510E-1	5.611578E-1	5.814329E-1	5.935172E-1	5.800582E-1	5.920110E-1	6.055679E-1	5.606513E-1	5.488141E-1	5.726175E-1	5.828676E-1	5.577129E-1	5.862011E-1	5.670249E-1	5.417209E-1	6.438844E-1	5.540220E-1	5.583690E-1	5.412916E-1	5.575519E-1	5.665645E-1	5.600181E-1	5.952921E-1	5.766338E-1	6.254862E-1	6.099611E-1	6.434165E-1	5.817225E-1	5.602936E-1	5.887090E-1	6.129269E-1	5.463097E-1	6.021216E-1	5.904922E-1	5.539058E-1	5.938801E-1	5.776388E-1	5.667146E-1	5.892424E-1	5.568137E-1	5.879489E-1	6.395562E-1	6.307540E-1	6.015484E-1	5.876304E-1	5.545718E-1	5.586220E-1	6.063522E-1	5.282710E-1	6.189380E-1	5.698005E-1	6.066328E-1	5.959307E-1	5.926682E-1	5.744606E-1	5.834240E-1	6.071675E-1	6.469675E-1	5.863275E-1	5.631638E-1	5.466831E-1	5.650077E-1	5.910465E-1	6.159636E-1	6.024075E-1	6.091747E-1	5.901159E-1	5.683646E-1	5.667851E-1	5.874005E-1	5.617246E-1	5.731578E-1	6.189635E-1	5.764288E-1	5.929618E-1	6.206498E-1	5.540685E-1	5.788507E-1	6.086197E-1	5.649491E-1	5.785354E-1	5.947594E-1	5.864397E-1	5.583933E-1	5.885421E-1	6.371380E-1	5.657819E-1	5.652274E-1	5.662022E-1	6.090236E-1	5.814369E-1	5.602006E-1	5.661807E-1	5.399857E-1	5.414091E-1	5.679727E-1	5.575940E-1	5.516069E-1	5.702827E-1	6.167545E-1	5.588536E-1	5.247997E-1	5.635612E-1	5.634564E-1	5.860455E-1	5.422678E-1	5.923657E-1	5.845047E-1	5.794717E-1	6.290156E-1	5.924645E-1	6.219396E-1	5.208874E-1	5.818389E-1	5.618372E-1	6.185805E-1	5.548511E-1	5.837134E-1	5.871478E-1	5.467074E-1	6.138563E-1	6.133662E-1	6.232902E-1	6.097044E-1	5.871538E-1	5.809494E-1	5.767572E-1	5.726779E-1	5.869609E-1	5.631596E-1	5.818467E-1	6.012335E-1	5.926987E-1	5.855985E-1	5.669921E-1	5.591710E-1	6.270565E-1	5.937665E-1	6.026281E-1	5.984899E-1	5.823153E-1	5.951181E-1	5.860230E-1	5.610047E-1	5.895654E-1	5.943202E-1	5.640629E-1	5.847709E-1	5.706818E-1	6.050690E-1	6.127491E-1	5.897465E-1	5.819305E-1	5.472125E-1	6.432375E-1	5.553836E-1	5.697978E-1	5.538717E-1	6.121640E-1	5.491907E-1	5.665748E-1	5.776545E-1	5.206209E-1	5.805635E-1
5.377840E+2	6.641743E-1	7.070705E-1	7.157376E-1	6.540017E-1	6.627590E-1	6.436698E-1	6.607181E-1	6.648319E-1	6.584522E-1	6.628389E-1	6.800404E-1	6.661185E-1	6.592049E-1	6.655050E-1	6.281708E-1	6.681559E-1	6.911638E-1	6.587326E-1	6.934804E-1	6.731643E-1	6.794490E-1	6.671293E-1	6.613596E-1	6.571954E-1	6.790583E-1	6.581151E-1	6.845199E-1	6.450425E-1	6.746602E-1	6.593325E-1	6.957457E-1	6.674971E-1	6.756270E-1	6.958453E-1	6.353999E-1	6.404280E-1	6.226138E-1	6.478394E-1	6.806961E-1	6.922268E-1	6.416483E-1	6.997341E-1	6.996724E-1	6.492098E-1	6.656887E-1	6.664618E-1	6.691051E-1	6.589464E-1	6.665877E-1	6.494045E-1	7.260763E-1	6.933935E-1	6.903174E-1	6.583676E-1	6.919097E-1	6.933270E-1	6.680074E-1	7.118426E-1	6.831940E-1	6.788270E-1	7.186012E-1	6.716047E-1	6.828732E-1	6.956583E-1	6.768202E-1	6.273749E-1	6.873976E-1	6.539345E-1	7.138175E-1	6.646077E-1	7.086992E-1	7.140104E-1	6.683423E-1	6.931130E-1	6.818906E-1	6.788136E-1	7.216227E-1	6.487714E-1	7.185573E-1	6.879719E-1	6.619201E-1	6.847844E-1	6.297996E-1	6.784420E-1	6.947822E-1	6.912689E-1	6.692603E-1	6.685408E-1	6.766102E-1	6.650175E-1	6.478208E-1	6.929876E-1	6.926728E-1	6.663845E-1	6.699284E-1	6.424619E-1	6.641058E-1	6.731299E-1	6.568811E-1	6.809570E-1	6.842033E-1	6.715655E-1	6.846327E-1	6.581041E-1	6.717629E-1	6.469214E-1	6.788874E-1	7.118550E-1	6.746511E-1	6.535131E-1	6.665851E-1	6.364871E-1	6.536614E-1	6.371516E-1	6.385783E-1	6.612609E-1	6.506636E-1	6.405661E-1	6.738775E-1	6.918065E-1	6.652481E-1	6.792376E-1	6.190574E-1	6.695313E-1	6.571516E-1	6.662464E-1	7.101934E-1	6.578175E-1	6.573940E-1	6.351745E-1	6.462494E-1	6.885212E-1	6.740091E-1	7.369457E-1	6.775593E-1	7.058488E-1	6.495065E-1	6.820432E-1	6.603292E-1	6.316337E-1	7.046253E-1	6.612083E-1	6.733064E-1	6.306782E-1	7.025106E-1	6.681559E-1	6.647850E-1	6.577604E-1	6.804874E-1	6.835310E-1	6.956537E-1	6.522455E-1	6.780840E-1	6.549361E-1	6.675814E-1	6.600328E-1	6.485009E-1	6.684281E-1	6.989501E-1	6.794574E-1	6.791936E-1	7.008271E-1	6.334660E-1	7.463431E-1	6.344562E-1
5.380160E+2	7.416299E-1	7.395329E-1	7.116140E-1	7.400462E-1	7.104986E-1	7.324037E-1	7.853259E-1	7.344655E-1	7.360598E-1	7.544299E-1	7.586930E-1	7.493427E-1	7.071438E-1	7.641992E-1	7.547534E-1	6.914386E-1	7.778545E-1	7.569052E-1	7.786346E-1	7.207997E-1	7.453448E-1	7.320449E-1	7.389147E-1	7.161847E-1	7.283003E-1	7.624616E-1	7.171618E-1	8.219943E-1	7.608604E-1	7.560609E-1	7.635739E-1	7.294214E-1	7.536552E-1	7.523692E-1	7.344030E-1	7.730010E-1	7.559498E-1	7.385595E-1	7.428266E-1	7.943078E-1	7.575356E-1	7.592746E-1	7.176467E-1	7.409963E-1	7.368997E-1	7.308119E-1	7.706855E-1	7.417959E-1	7.993133E-1	8.131534E-1	7.625773E-1	7.688912E-1	7.267980E-1	7.766584E-1	7.640866E-1	7.732925E-1	7.171863E-1	7.821249E-1	6.927057E-1	7.383444E-1	7.661019E-1	6.975231E-1	7.464161E-1	7.393231E-1	7.436379E-1	7.474495E-1	7.497249E-1	7.372399E-1	7.250266E-1	7.608850E-1	7.407745E-1	7.727663E-1	7.375967E-1	8.057545E-1	7.400361E-1	7.236260E-1	7.703679E-1	7.362041E-1	7.606494E-1	7.276526E-1	7.881558E-1	7.612040E-1	7.170623E-1	7.082464E-1	7.138163E-1	7.366207E-1	7.288911E-1	7.592341E-1	7.378074E-1	7.665525E-1	7.312945E-1	7.204270E-1	7.196974E-1	7.002441E-1	7.416898E-1	7.277392E-1	7.407312E-1	7.307185E-1	7.603378E-1	7.449332E-1	7.526085E-1	7.800565E-1	7.129758E-1	7.876488E-1	7.678037E-1	7.655547E-1	7.495570E-1	7.769819E-1	7.602286E-1	7.464946E-1	7.541804E-1	7.536593E-1	7.154346E-1	7.270783E-1	7.547087E-1	7.640367E-1	7.125174E-1	7.495021E-1	7.441545E-1	7.827745E-1	6.844929E-1	7.405904E-1	7.352821E-1	7.682806E-1	7.497125E-1	7.405265E-1	7.513955E-1	7.951111E-1	7.515018E-1	7.337609E-1	7.600609E-1	7.732489E-1	7.091611E-1	7.789823E-1	7.060639E-1	7.840932E-1	7.580252E-1	7.398541E-1	7.458544E-1	7.955116E-1	7.248263E-1	7.586246E-1	8.003927E-1	7.377124E-1	7.963892E-1	7.388650E-1	7.767817E-1	7.476837E-1	7.802021E-1	7.402309E-1	7.110066E-1	7.398804E-1	7.806088E-1	7.172754E-1	7.398284E-1	7.943125E-1	7.351475E-1	7.233171E-1	7.183364E-1	7.520482E-1	7.095003E-1	7.603627E-1	7.105784E-1	7.861382E-1	6.412436E-1
5.382850E+2	8.717284E-1	8.559540E-1	8.208391E-1	8.593154E-1	8.874191E-1	9.030812E-1	8.500160E-1	9.095192E-1	8.950498E-1	8.813324E-1	8.865727E-1	8.323909E-1	8.580150E-1	8.651113E-1	8.861180E-1	8.719079E-1	9.444842E-1	9.074196E-1	8.786115E-1	8.737585E-1	8.956058E-1	9.021607E-1	8.911355E-1	9.330379E-1	8.776658E-1	8.933044E-1	8.913271E-1	8.764114E-1	8.695158E-1	8.588196E-1	8.643492E-1	8.997269E-1	8.655374E-1	8.875724E-1	8.989392E-1	8.628755E-1	9.133008E-1	8.735953E-1	9.118782E-1	8.624985E-1	9.014868E-1	9.546278E-1	8.995560E-1	8.699288E-1	8.878299E-1	8.822899E-1	8.367094E-1	8.827320E-1	9.299197E-1	8.651522E-1	8.939078E-1	9.334194E-1	8.501178E-1	9.099764E-1	8.908275E-1	8.655790E-1	9.067770E-1	9.310804E-1	9.233895E-1	8.828708E-1	9.237479E-1	8.832141E-1	8.683961E-1	8.852495E-1	8.593257E-1	8.673600E-1	8.963962E-1	8.311186E-1	8.135406E-1	8.646086E-1	9.055415E-1	8.988163E-1	9.194368E-1	9.245726E-1	8.775286E-1	8.459975E-1	9.267458E-1	8.488027E-1	8.926569E-1	9.163206E-1	9.149607E-1	9.339436E-1	8.975635E-1	8.821172E-1	8.668444E-1	9.220858E-1	9.133297E-1	8.391658E-1	8.882635E-1	8.959942E-1	8.921383E-1	8.195323E-1	8.890275E-1	8.723498E-1	9.131591E-1	8.242614E-1	8.623648E-1	8.935542E-1	8.314726E-1	8.485596E-1	8.559841E-1	9.173827E-1	8.751333E-1	8.862063E-1	8.505650E-1	8.523009E-1	8.725489E-1	9.189801E-1	8.686584E-1	8.576205E-1	8.646974E-1	8.478017E-1	8.549262E-1	8.098712E-1	8.851228E-1	8.836542E-1	8.763248E-1	8.878253E-1	9.381728E-1	9.396227E-1	8.183041E-1	8.938493E-1	8.915221E-1	8.634659E-1	8.919489E-1	8.712979E-1	9.072250E-1	8.398473E-1	8.779443E-1	9.221565E-1	8.702828E-1	8.769974E-1	8.651771E-1	8.810250E-1	8.731113E-1	8.889499E-1	8.836598E-1	8.797206E-1	8.775279E-1	8.899625E-1	8.638679E-1	8.876565E-1	8.817000E-1	8.591486E-1	9.334579E-1	8.540160E-1	8.563202E-1	8.546470E-1	9.297054E-1	9.221237E-1	8.867569E-1	8.404872E-1	8.845999E-1	8.863553E-1	8.038187E-1	8.686776E-1	8.706583E-1	8.575536E-1	8.419708E-1	8.879513E-1	8.120278E-1	9.005199E-1	7.887643E-1	9.100922E-1	8.379134E-1
5.385170E+2	1.015027E+0	1.065393E+0	1.082433E+0	1.082410E+0	1.057130E+0	1.090632E+0	1.135801E+0	1.046731E+0	1.008180E+0	1.014719E+0	1.093625E+0	1.133701E+0	1.058015E+0	1.051519E+0	1.075673E+0	1.053605E+0	1.138288E+0	1.097684E+0	1.097826E+0	1.113638E+0	1.095479E+0	1.078103E+0	1.071625E+0	1.068930E+0	1.108845E+0	1.121808E+0	1.107516E+0	1.109214E+0	1.092487E+0	1.042178E+0	1.030823E+0	1.093724E+0	1.077449E+0	1.126027E+0	1.138307E+0	1.098446E+0	1.115729E+0	1.088512E+0	1.041223E+0	1.084779E+0	1.051116E+0	1.095075E+0	1.112237E+0	1.057554E+0	1.055906E+0	1.057387E+0	1.033140E+0	1.066662E+0	1.063544E+0	1.083536E+0	1.092104E+0	1.041054E+0	1.037639E+0	1.093981E+0	1.052328E+0	1.039542E+0	1.051339E+0	1.126777E+0	1.034915E+0	1.123687E+0	1.075003E+0	1.025204E+0	1.028447E+0	1.056494E+0	1.093772E+0	1.080319E+0	1.093651E+0	1.104757E+0	1.033250E+0	1.045369E+0	1.111220E+0	1.090385E+0	1.053806E+0	1.050174E+0	1.053041E+0	1.061558E+0	1.091778E+0	1.014744E+0	1.051942E+0	1.094723E+0	1.080462E+0	1.106150E+0	1.048082E+0	1.055086E+0	1.044037E+0	1.065199E+0	1.120230E+0	1.069690E+0	1.135628E+0	1.108224E+0	1.075123E+0	1.080876E+0	1.062386E+0	1.051875E+0	1.077628E+0	1.064384E+0	1.114897E+0	1.008408E+0	1.093071E+0	1.048645E+0	1.051983E+0	1.034257E+0	1.064353E+0	1.015475E+0	1.030804E+0	1.032591E+0	1.024398E+0	1.044686E+0	1.049386E+0	1.053788E+0	1.066476E+0	1.049105E+0	1.073872E+0	1.022742E+0	1.105969E+0	1.083073E+0	1.071253E+0	1.101984E+0	1.102227E+0	1.067412E+0	1.095377E+0	1.040047E+0	1.054518E+0	1.080901E+0	1.077374E+0	1.048909E+0	1.054425E+0	1.089273E+0	1.078128E+0	1.012549E+0	1.092664E+0	1.149143E+0	1.088036E+0	1.070352E+0	1.078213E+0	1.023121E+0	1.053442E+0	1.120018E+0	1.035383E+0	1.085068E+0	1.059498E+0	1.051205E+0	1.076934E+0	1.048719E+0	1.058920E+0	1.110349E+0	1.087235E+0	1.033821E+0	1.055828E+0	1.054683E+0	1.084464E+0	1.043198E+0	1.074585E+0	1.094598E+0	1.075048E+0	1.103301E+0	1.054070E+0	1.099753E+0	1.025758E+0	1.046266E+0	1.036317E+0	1.053312E+0	9.921711E-1	1.044994E+0	1.106998E+0
5.387600E+2	1.261239E+0	1.353804E+0	1.307407E+0	1.240678E+0	1.265684E+0	1.310665E+0	1.312751E+0	1.289470E+0	1.236953E+0	1.224534E+0	1.294725E+0	1.280008E+0	1.292381E+0	1.270187E+0	1.305036E+0	1.246240E+0	1.355082E+0	1.323739E+0	1.291896E+0	1.315503E+0	1.277663E+0	1.364823E+0	1.322293E+0	1.285436E+0	1.381324E+0	1.327631E+0	1.330701E+0	1.314257E+0	1.295196E+0	1.279263E+0	1.288634E+0	1.338688E+0	1.285938E+0	1.269243E+0	1.268353E+0	1.379787E+0	1.321649E+0	1.327040E+0	1.351400E+0	1.313754E+0	1.277274E+0	1.302016E+0	1.277032E+0	1.270919E+0	1.249922E+0	1.274834E+0	1.289650E+0	1.276218E+0	1.325098E+0	1.281689E+0	1.359966E+0	1.252400E+0	1.278234E+0	1.283178E+0	1.283954E+0	1.273263E+0	1.229405E+0	1.344538E+0	1.334127E+0	1.280827E+0	1.320636E+0	1.284704E+0	1.263597E+0	1.260364E+0	1.324014E+0	1.308503E+0	1.262093E+0	1.316155E+0	1.295419E+0	1.221510E+0	1.340029E+0	1.323019E+0	1.299901E+0	1.311827E+0	1.338824E+0	1.285517E+0	1.302235E+0	1.280696E+0	1.304021E+0	1.317996E+0	1.292689E+0	1.283568E+0	1.266581E+0	1.292166E+0	1.306260E+0	1.316808E+0	1.348428E+0	1.318988E+0	1.307851E+0	1.347126E+0	1.312350E+0	1.318490E+0	1.295170E+0	1.316288E+0	1.264399E+0	1.281647E+0	1.284887E+0	1.251990E+0	1.332643E+0	1.254946E+0	1.307176E+0	1.210233E+0	1.294697E+0	1.272378E+0	1.265658E+0	1.275341E+0	1.234981E+0	1.290778E+0	1.268467E+0	1.258957E+0	1.310206E+0	1.283056E+0	1.279784E+0	1.247404E+0	1.336954E+0	1.317488E+0	1.277666E+0	1.311709E+0	1.334146E+0	1.301443E+0	1.246918E+0	1.315881E+0	1.258907E+0	1.266371E+0	1.309049E+0	1.334900E+0	1.325912E+0	1.235867E+0	1.288976E+0	1.247478E+0	1.266889E+0	1.299802E+0	1.302470E+0	1.301139E+0	1.312127E+0	1.316039E+0	1.282053E+0	1.261339E+0	1.298057E+0	1.280237E+0	1.227628E+0	1.311358E+0	1.229324E+0	1.298127E+0	1.256824E+0	1.230740E+0	1.270143E+0	1.219150E+0	1.294785E+0	1.250983E+0	1.249634E+0	1.304835E+0	1.297133E+0	1.354755E+0	1.243023E+0	1.382725E+0	1.327574E+0	1.285215E+0	1.281280E+0	1.277503E+0	1.203936E+0	1.226895E+0	1.300666E+0	1.262614E+0	1.219250E+0
5.390340E+2	1.530418E+0	1.521723E+0	1.428846E+0	1.428288E+0	1.468973E+0	1.440752E+0	1.497152E+0	1.462243E+0	1.515703E+0	1.420775E+0	1.484730E+0	1.479263E+0	1.494721E+0	1.481616E+0	1.486222E+0	1.410643E+0	1.539463E+0	1.432912E+0	1.459718E+0	1.450783E+0	1.527564E+0	1.471970E+0	1.452563E+0	1.496174E+0	1.451515E+0	1.454091E+0	1.481405E+0	1.479708E+0	1.422577E+0	1.483284E+0	1.513680E+0	1.535301E+0	1.521912E+0	1.430897E+0	1.442595E+0	1.452971E+0	1.440019E+0	1.464417E+0	1.490078E+0	1.509196E+0	1.428065E+0	1.507709E+0	1.550814E+0	1.489092E+0	1.481511E+0	1.458489E+0	1.440930E+0	1.488689E+0	1.541471E+0	1.462417E+0	1.480246E+0	1.421276E+0	1.444662E+0	1.446695E+0	1.523966E+0	1.480821E+0	1.458795E+0	1.501450E+0	1.434536E+0	1.443344E+0	1.479064E+0	1.485924E+0	1.417661E+0	1.481472E+0	1.456141E+0	1.478362E+0	1.428167E+0	1.457162E+0	1.418372E+0	1.441448E+0	1.524368E+0	1.516104E+0	1.509823E+0	1.520933E+0	1.476913E+0	1.418351E+0	1.458949E+0	1.421286E+0	1.420162E+0	1.494585E+0	1.484934E+0	1.406270E+0	1.450927E+0	1.474089E+0	1.517044E+0	1.543831E+0	1.497887E+0	1.486141E+0	1.455630E+0	1.540017E+0	1.487803E+0	1.507561E+0	1.501835E+0	1.439507E+0	1.488497E+0	1.445927E+0	1.476450E+0	1.451826E+0	1.463144E+0	1.446137E+0	1.469734E+0	1.444437E+0	1.420484E+0	1.412846E+0	1.438712E+0	1.460419E+0	1.464002E+0	1.561634E+0	1.445828E+0	1.461651E+0	1.453874E+0	1.489430E+0	1.464918E+0	1.401270E+0	1.482513E+0	1.503377E+0	1.430111E+0	1.505391E+0	1.426166E+0	1.416958E+0	1.420073E+0	1.462416E+0	1.506634E+0	1.474692E+0	1.478021E+0	1.396658E+0	1.493243E+0	1.435538E+0	1.426576E+0	1.411549E+0	1.477510E+0	1.479396E+0	1.459329E+0	1.515073E+0	1.456112E+0	1.399470E+0	1.523735E+0	1.464622E+0	1.438899E+0	1.471895E+0	1.431121E+0	1.450224E+0	1.490772E+0	1.429478E+0	1.430405E+0	1.474665E+0	1.407217E+0	1.377926E+0	1.444612E+0	1.391602E+0	1.435294E+0	1.483547E+0	1.461281E+0	1.509420E+0	1.417754E+0	1.504544E+0	1.414262E+0	1.460810E+0	1.399911E+0	1.486147E+0	1.385273E+0	1.425557E+0	1.385972E+0	1.488028E+0	1.418960E+0
5.392670E+2	1.626934E+0	1.747868E+0	1.686926E+0	1.631427E+0	1.615488E+0	1.643704E+0	1.664834E+0	1.666530E+0	1.608669E+0	1.652550E+0	1.638464E+0	1.702190E+0	1.648788E+0	1.675211E+0	1.672356E+0	1.644782E+0	1.765118E+0	1.638317E+0	1.654158E+0	1.684406E+0	1.685261E+0	1.625840E+0	1.705830E+0	1.633946E+0	1.664551E+0	1.628808E+0	1.669308E+0	1.730142E+0	1.637494E+0	1.607989E+0	1.656476E+0	1.720874E+0	1.686509E+0	1.631163E+0	1.697516E+0	1.682797E+0	1.633916E+0	1.684246E+0	1.705921E+0	1.685613E+0	1.628455E+0	1.726085E+0	1.656294E+0	1.650551E+0	1.644496E+0	1.691418E+0	1.591832E+0	1.666385E+0	1.771102E+0	1.630411E+0	1.693922E+0	1.621629E+0	1.657773E+0	1.671290E+0	1.730418E+0	1.704032E+0	1.590117E+0	1.677312E+0	1.600584E+0	1.693407E+0	1.679403E+0	1.664793E+0	1.620078E+0	1.701060E+0	1.616315E+0	1.610836E+0	1.692253E+0	1.677769E+0	1.618953E+0	1.594464E+0	1.750816E+0	1.740838E+0	1.674555E+0	1.628800E+0	1.669927E+0	1.683981E+0	1.708684E+0	1.592706E+0	1.603278E+0	1.653671E+0	1.651309E+0	1.678319E+0	1.628739E+0	1.703778E+0	1.726729E+0	1.721669E+0	1.708738E+0	1.583659E+0	1.582760E+0	1.656839E+0	1.659230E+0	1.620701E+0	1.648676E+0	1.640096E+0	1.687212E+0	1.597713E+0	1.674887E+0	1.672579E+0	1.684407E+0	1.689793E+0	1.640444E+0	1.635310E+0	1.595350E+0	1.668232E+0	1.596899E+0	1.649108E+0	1.705163E+0	1.720435E+0	1.643310E+0	1.553850E+0	1.669738E+0	1.659088E+0	1.710590E+0	1.519187E+0	1.708776E+0	1.625834E+0	1.596357E+0	1.635910E+0	1.658529E+0	1.563750E+0	1.643557E+0	1.668824E+0	1.613337E+0	1.660315E+0	1.673958E+0	1.580753E+0	1.620111E+0	1.572087E+0	1.647877E+0	1.605347E+0	1.636818E+0	1.634820E+0	1.620382E+0	1.664838E+0	1.636549E+0	1.640030E+0	1.628710E+0	1.637322E+0	1.574971E+0	1.564402E+0	1.624747E+0	1.623723E+0	1.655033E+0	1.633728E+0	1.706172E+0	1.637994E+0	1.666274E+0	1.558031E+0	1.668464E+0	1.616099E+0	1.645552E+0	1.587684E+0	1.580306E+0	1.650849E+0	1.611858E+0	1.649033E+0	1.593783E+0	1.547684E+0	1.542225E+0	1.579746E+0	1.565703E+0	1.616742E+0	1.656189E+0	1.693474E+0	1.580377E+0
5.395320E+2	1.865774E+0	1.890599E+0	1.833147E+0	1.807417E+0	1.831673E+0	1.751943E+0	1.876015E+0	1.808550E+0	1.807202E+0	1.829510E+0	1.874270E+0	1.912496E+0	1.879506E+0	1.822034E+0	1.853242E+0	1.752330E+0	1.865447E+0	1.801180E+0	1.868736E+0	1.844858E+0	1.782656E+0	1.807345E+0	1.816780E+0	1.819397E+0	1.924227E+0	1.784383E+0	1.781513E+0	1.950044E+0	1.752789E+0	1.775821E+0	1.896261E+0	1.869402E+0	1.837117E+0	1.755672E+0	1.837168E+0	1.798995E+0	1.860562E+0	1.789946E+0	1.861071E+0	1.906666E+0	1.824735E+0	1.848986E+0	1.841699E+0	1.859487E+0	1.790870E+0	1.783253E+0	1.841065E+0	1.825860E+0	1.846429E+0	1.834097E+0	1.896010E+0	1.829997E+0	1.793801E+0	1.857667E+0	1.827173E+0	1.931799E+0	1.825740E+0	1.854007E+0	1.782705E+0	1.807188E+0	1.808003E+0	1.844669E+0	1.803955E+0	1.764970E+0	1.831219E+0	1.795501E+0	1.797051E+0	1.802379E+0	1.789777E+0	1.757017E+0	1.832403E+0	1.851478E+0	1.754148E+0	1.873109E+0	1.805252E+0	1.818829E+0	1.903993E+0	1.710872E+0	1.917288E+0	1.819399E+0	1.915607E+0	1.807035E+0	1.814111E+0	1.849521E+0	1.748149E+0	1.765574E+0	1.874653E+0	1.824027E+0	1.873183E+0	1.787535E+0	1.808836E+0	1.808427E+0	1.749085E+0	1.784109E+0	1.800075E+0	1.848428E+0	1.849875E+0	1.738794E+0	1.842410E+0	1.813676E+0	1.850323E+0	1.790570E+0	1.698946E+0	1.785023E+0	1.779959E+0	1.790916E+0	1.807168E+0	1.852440E+0	1.849641E+0	1.782446E+0	1.865741E+0	1.809700E+0	1.789596E+0	1.689103E+0	1.820921E+0	1.778694E+0	1.783498E+0	1.800858E+0	1.794176E+0	1.807386E+0	1.752978E+0	1.900983E+0	1.806145E+0	1.797466E+0	1.795566E+0	1.749975E+0	1.831855E+0	1.869341E+0	1.831539E+0	1.749085E+0	1.774680E+0	1.858211E+0	1.812856E+0	1.803405E+0	1.791372E+0	1.786203E+0	1.737556E+0	1.810581E+0	1.775034E+0	1.838160E+0	1.737349E+0	1.717650E+0	1.848347E+0	1.767806E+0	1.894748E+0	1.754913E+0	1.755124E+0	1.706063E+0	1.829653E+0	1.804976E+0	1.777184E+0	1.774500E+0	1.862448E+0	1.831572E+0	1.767051E+0	1.801653E+0	1.697542E+0	1.849736E+0	1.748638E+0	1.741007E+0	1.674442E+0	1.839696E+0	1.717709E+0	1.830761E+0	1.675006E+0
5.397750E+2	1.987150E+0	2.141719E+0	2.028660E+0	1.972467E+0	1.963383E+0	1.971169E+0	2.041102E+0	2.007066E+0	1.998116E+0	1.906837E+0	2.062163E+0	2.007251E+0	2.000753E+0	2.014822E+0	2.000904E+0	2.044940E+0	2.034026E+0	1.944820E+0	2.051484E+0	2.024904E+0	1.996756E+0	1.970239E+0	1.967882E+0	2.006906E+0	2.092478E+0	1.951018E+0	1.928512E+0	2.003917E+0	1.915403E+0	1.959537E+0	1.994564E+0	1.957294E+0	1.974195E+0	1.989414E+0	2.008849E+0	1.933345E+0	1.973757E+0	2.027244E+0	2.059123E+0	1.959289E+0	1.889343E+0	1.999681E+0	1.978760E+0	1.929845E+0	1.955616E+0	2.035876E+0	1.971727E+0	1.986849E+0	2.051698E+0	2.055859E+0	2.109003E+0	1.992693E+0	1.958480E+0	1.992934E+0	2.086891E+0	2.025027E+0	1.958755E+0	2.018422E+0	2.027112E+0	2.083299E+0	2.050795E+0	1.923944E+0	1.908426E+0	1.950114E+0	1.945229E+0	2.033911E+0	1.961966E+0	2.036048E+0	1.935976E+0	1.892960E+0	1.986153E+0	1.996483E+0	2.049052E+0	1.939119E+0	2.031796E+0	2.017198E+0	2.016227E+0	1.887378E+0	2.015661E+0	1.984182E+0	1.922052E+0	2.061208E+0	1.921837E+0	2.011079E+0	2.022260E+0	1.957801E+0	2.059361E+0	1.930413E+0	2.047915E+0	1.980803E+0	1.987828E+0	1.982227E+0	1.973528E+0	1.942122E+0	1.975983E+0	1.898227E+0	2.018593E+0	1.862155E+0	2.035778E+0	1.897809E+0	2.008172E+0	1.910395E+0	1.926353E+0	1.951308E+0	2.015746E+0	1.898243E+0	1.960595E+0	2.080241E+0	1.902787E+0	1.965533E+0	2.007422E+0	1.987541E+0	1.980747E+0	1.858793E+0	1.937034E+0	1.961618E+0	1.959766E+0	1.917922E+0	1.979570E+0	1.978274E+0	1.932003E+0	1.915095E+0	1.972514E+0	1.975128E+0	1.949957E+0	1.950720E+0	1.947085E+0	1.934941E+0	2.002643E+0	1.891533E+0	1.923201E+0	1.862774E+0	1.977593E+0	2.017951E+0	1.904065E+0	1.933993E+0	1.899125E+0	1.921091E+0	1.898805E+0	1.968168E+0	1.856659E+0	1.856398E+0	1.979996E+0	1.874219E+0	2.029884E+0	1.830710E+0	1.954677E+0	1.856130E+0	1.995654E+0	1.902606E+0	2.038225E+0	1.841294E+0	1.982809E+0	1.979498E+0	1.867192E+0	1.907902E+0	1.896340E+0	1.918403E+0	1.859067E+0	1.972279E+0	1.851135E+0	1.852563E+0	1.814438E+0	1.919463E+0	1.827246E+0
5.400190E+2	2.097983E+0	2.122033E+0	2.072291E+0	2.002808E+0	2.069736E+0	1.997753E+0	2.081629E+0	2.073406E+0	2.133398E+0	2.126747E+0	2.162839E+0	2.129063E+0	2.139347E+0	2.093404E+0	2.021223E+0	2.034918E+0	2.051114E+0	2.019745E+0	2.135510E+0	1.999242E+0	2.108513E+0	2.036078E+0	2.098516E+0	2.116078E+0	2.027375E+0	2.111596E+0	2.129542E+0	2.152763E+0	2.081119E+0	2.056542E+0	2.064137E+0	2.157245E+0	2.107429E+0	2.103980E+0	2.072298E+0	2.078546E+0	2.081530E+0	2.145420E+0	2.161316E+0	2.089967E+0	2.067842E+0	2.129295E+0	2.127831E+0	2.141406E+0	2.108051E+0	2.047077E+0	2.034099E+0	2.066375E+0	2.093145E+0	2.007725E+0	2.158457E+0	2.161540E+0	2.120283E+0	2.075629E+0	2.183035E+0	2.111524E+0	1.996441E+0	2.142714E+0	2.018742E+0	2.059942E+0	2.102338E+0	1.956615E+0	1.994840E+0	2.027788E+0	2.154975E+0	2.094817E+0	2.135166E+0	2.123900E+0	2.004293E+0	2.003165E+0	2.062701E+0	2.144156E+0	2.019895E+0	2.060870E+0	2.049585E+0	2.060626E+0	2.113010E+0	2.048499E+0	2.029567E+0	2.076450E+0	2.028280E+0	2.059377E+0	2.066728E+0	2.084234E+0	2.137544E+0	1.987177E+0	2.038685E+0	2.083182E+0	2.097076E+0	2.060175E+0	2.106046E+0	2.073215E+0	2.083968E+0	1.991483E+0	2.089179E+0	2.053750E+0	2.043275E+0	2.018375E+0	2.130791E+0	2.013844E+0	2.028476E+0	2.042824E+0	2.118224E+0	2.068832E+0	2.130598E+0	2.051739E+0	2.051632E+0	2.103546E+0	2.039656E+0	1.965876E+0	2.024133E+0	2.034545E+0	2.028195E+0	1.888553E+0	2.065787E+0	2.030027E+0	2.155515E+0	2.013349E+0	2.106496E+0	2.022100E+0	1.988614E+0	1.994878E+0	2.009408E+0	2.040258E+0	2.045385E+0	1.935827E+0	2.035104E+0	1.989022E+0	2.044369E+0	2.011526E+0	2.012590E+0	2.050043E+0	2.001917E+0	1.964688E+0	2.118722E+0	2.072805E+0	1.975854E+0	2.076717E+0	2.078132E+0	1.971944E+0	1.949675E+0	1.992896E+0	2.065125E+0	2.007098E+0	2.023893E+0	2.039791E+0	2.044498E+0	2.010056E+0	2.050595E+0	2.036352E+0	2.026170E+0	1.997631E+0	2.053611E+0	2.139484E+0	1.910802E+0	2.004675E+0	1.981006E+0	1.972498E+0	1.997128E+0	2.029183E+0	1.953392E+0	1.974705E+0	2.076859E+0	2.158981E+0	1.968503E+0
5.402530E+2	2.086372E+0	2.098267E+0	2.058979E+0	2.088292E+0	2.067495E+0	2.070509E+0	2.115867E+0	2.036303E+0	2.004414E+0	2.018281E+0	2.051846E+0	2.151088E+0	2.080124E+0	2.063639E+0	2.087514E+0	2.049929E+0	2.036496E+0	1.984345E+0	2.085490E+0	1.981433E+0	2.029815E+0	2.048673E+0	2.057423E+0	2.004089E+0	2.012904E+0	2.044147E+0	2.111164E+0	2.107313E+0	1.962689E+0	1.995667E+0	2.084435E+0	2.021938E+0	2.017035E+0	1.998976E+0	2.031161E+0	2.004936E+0	2.043993E+0	2.067100E+0	2.074335E+0	2.111086E+0	1.987735E+0	2.056887E+0	2.131874E+0	2.054018E+0	2.065410E+0	2.041248E+0	2.008081E+0	2.066476E+0	2.061947E+0	1.955329E+0	2.084678E+0	2.060895E+0	2.062811E+0	2.016706E+0	2.045783E+0	2.053686E+0	2.009416E+0	2.041201E+0	2.130698E+0	2.104007E+0	2.022676E+0	1.983026E+0	1.962021E+0	2.017541E+0	2.057751E+0	2.019272E+0	1.976746E+0	2.014590E+0	1.952009E+0	1.950527E+0	2.091070E+0	2.018946E+0	2.016413E+0	2.049447E+0	2.018030E+0	1.995242E+0	2.063795E+0	1.941850E+0	1.919735E+0	2.070002E+0	2.017249E+0	2.010989E+0	2.052053E+0	2.023198E+0	2.044500E+0	2.058021E+0	2.138067E+0	2.009233E+0	2.018362E+0	2.054879E+0	2.056458E+0	1.962986E+0	2.006994E+0	2.006542E+0	2.037614E+0	2.054397E+0	2.035235E+0	1.899046E+0	2.050367E+0	1.996507E+0	1.975421E+0	2.003417E+0	1.998135E+0	1.977758E+0	1.994370E+0	1.966546E+0	2.027608E+0	2.054202E+0	2.000149E+0	1.986128E+0	1.994210E+0	2.011029E+0	1.988796E+0	1.908788E+0	2.070208E+0	1.991605E+0	1.929313E+0	1.986573E+0	2.066977E+0	2.037037E+0	2.013123E+0	1.974464E+0	2.058915E+0	1.940963E+0	2.012928E+0	1.941576E+0	1.962212E+0	1.959052E+0	1.988766E+0	1.992053E+0	1.979741E+0	2.052490E+0	1.997265E+0	1.896924E+0	2.038304E+0	2.018067E+0	1.906938E+0	1.969438E+0	2.028887E+0	2.082955E+0	1.986434E+0	1.917951E+0	1.979752E+0	1.964268E+0	2.166995E+0	1.930492E+0	1.964421E+0	1.892540E+0	2.015350E+0	1.960829E+0	2.030424E+0	1.973203E+0	2.045076E+0	2.059202E+0	1.917326E+0	2.031452E+0	1.932707E+0	1.947910E+0	1.985059E+0	1.966081E+0	1.960243E+0	1.977077E+0	1.935975E+0	2.052797E+0	1.802455E+0
5.405080E+2	1.992083E+0	2.098550E+0	1.988153E+0	2.013814E+0	2.066688E+0	2.061513E+0	2.012975E+0	2.023089E+0	1.999994E+0	2.021894E+0	2.085906E+0	1.979509E+0	2.041909E+0	1.979277E+0	2.028813E+0	1.952649E+0	2.013722E+0	1.995432E+0	1.992908E+0	2.018136E+0	2.030671E+0	1.889653E+0	2.016513E+0	1.955099E+0	1.973075E+0	1.966899E+0	2.000531E+0	1.997406E+0	1.986410E+0	1.960938E+0	1.958116E+0	1.992008E+0	2.076944E+0	2.051739E+0	1.976617E+0	2.045356E+0	2.014000E+0	2.026254E+0	1.990179E+0	1.974164E+0	1.957339E+0	2.004906E+0	2.028526E+0	1.954515E+0	2.014814E+0	1.970073E+0	2.003945E+0	2.001831E+0	1.990793E+0	2.017581E+0	2.086287E+0	1.958101E+0	1.985488E+0	1.978466E+0	1.993741E+0	2.043362E+0	1.914779E+0	1.980090E+0	2.074282E+0	2.000114E+0	2.017484E+0	1.995791E+0	1.949815E+0	1.945221E+0	2.114922E+0	2.012283E+0	1.947468E+0	1.956746E+0	1.936912E+0	1.956800E+0	2.012796E+0	2.038928E+0	2.035917E+0	2.015145E+0	1.993731E+0	2.008243E+0	2.085186E+0	1.963835E+0	2.007903E+0	1.935618E+0	2.014111E+0	1.911851E+0	1.956913E+0	2.030264E+0	1.983648E+0	1.937403E+0	2.017242E+0	1.997227E+0	1.927235E+0	1.984006E+0	1.958400E+0	1.968343E+0	1.943549E+0	1.927601E+0	2.000775E+0	1.970178E+0	2.040037E+0	1.879452E+0	1.942869E+0	2.003377E+0	1.972257E+0	1.927132E+0	1.896771E+0	1.990252E+0	1.972873E+0	1.884511E+0	1.943638E+0	1.974813E+0	1.960715E+0	1.953504E+0	2.019894E+0	1.964375E+0	1.911127E+0	1.890946E+0	1.999898E+0	1.965869E+0	1.959960E+0	1.945014E+0	2.001498E+0	2.045868E+0	1.912544E+0	1.937331E+0	1.915204E+0	1.970498E+0	1.963689E+0	1.901815E+0	2.013486E+0	1.950144E+0	2.020660E+0	1.918976E+0	1.951541E+0	1.919545E+0	1.908931E+0	1.887885E+0	1.901127E+0	1.874299E+0	1.909107E+0	1.976647E+0	1.945832E+0	1.970767E+0	1.959084E+0	1.881613E+0	2.009813E+0	1.953671E+0	2.018560E+0	1.865670E+0	1.939129E+0	1.803411E+0	1.978106E+0	1.922182E+0	1.941013E+0	1.889320E+0	1.888845E+0	1.874894E+0	1.851408E+0	1.963565E+0	1.933244E+0	1.917601E+0	1.938860E+0	1.934487E+0	1.890503E+0	1.867434E+0	1.942729E+0	2.071460E+0	1.774513E+0
5.407630E+2	1.813841E+0	1.894200E+0	1.835035E+0	1.822129E+0	1.854238E+0	1.797445E+0	1.824302E+0	1.887744E+0	1.761396E+0	1.793263E+0	1.814471E+0	1.788470E+0	1.853881E+0	1.848261E+0	1.798348E+0	1.736969E+0	1.830654E+0	1.786258E+0	1.877853E+0	1.812026E+0	1.806150E+0	1.768437E+0	1.836889E+0	1.834530E+0	1.852965E+0	1.807405E+0	1.872888E+0	1.887347E+0	1.795181E+0	1.773712E+0	1.747491E+0	1.792615E+0	1.803779E+0	1.825552E+0	1.818923E+0	1.852552E+0	1.848281E+0	1.811290E+0	1.892413E+0	1.874393E+0	1.748934E+0	1.797044E+0	1.858377E+0	1.787647E+0	1.824358E+0	1.780672E+0	1.748276E+0	1.815992E+0	1.828475E+0	1.799653E+0	1.930532E+0	1.823457E+0	1.772520E+0	1.792164E+0	1.821688E+0	1.838837E+0	1.788087E+0	1.839006E+0	1.836153E+0	1.750017E+0	1.817934E+0	1.770020E+0	1.732127E+0	1.746518E+0	1.834403E+0	1.795621E+0	1.822767E+0	1.845329E+0	1.801490E+0	1.732964E+0	1.841215E+0	1.850599E+0	1.864073E+0	1.735351E+0	1.771956E+0	1.817749E+0	1.828013E+0	1.761369E+0	1.882909E+0	1.828484E+0	1.797479E+0	1.799310E+0	1.773504E+0	1.836830E+0	1.721518E+0	1.771996E+0	1.858053E+0	1.780949E+0	1.839066E+0	1.775123E+0	1.805881E+0	1.752828E+0	1.852714E+0	1.739713E+0	1.740897E+0	1.812633E+0	1.860588E+0	1.774943E+0	1.894065E+0	1.796982E+0	1.838439E+0	1.822322E+0	1.744061E+0	1.796340E+0	1.761924E+0	1.751913E+0	1.762366E+0	1.881641E+0	1.754157E+0	1.732162E+0	1.841801E+0	1.783206E+0	1.801615E+0	1.678807E+0	1.847851E+0	1.781878E+0	1.725377E+0	1.784256E+0	1.802248E+0	1.706797E+0	1.750116E+0	1.744422E+0	1.772067E+0	1.778505E+0	1.754566E+0	1.729926E+0	1.777525E+0	1.815338E+0	1.768424E+0	1.718394E+0	1.808290E+0	1.798756E+0	1.802499E+0	1.773561E+0	1.773452E+0	1.810059E+0	1.774985E+0	1.721841E+0	1.754096E+0	1.802444E+0	1.793056E+0	1.661065E+0	1.816801E+0	1.805793E+0	1.815608E+0	1.754833E+0	1.817299E+0	1.658428E+0	1.781032E+0	1.804316E+0	1.800382E+0	1.696224E+0	1.790669E+0	1.790659E+0	1.717891E+0	1.836414E+0	1.736769E+0	1.739817E+0	1.741091E+0	1.799971E+0	1.741453E+0	1.727507E+0	1.729832E+0	1.762181E+0	1.734438E+0
5.410190E+2	1.687881E+0	1.786581E+0	1.755496E+0	1.733354E+0	1.860924E+0	1.699607E+0	1.736759E+0	1.764231E+0	1.738581E+0	1.716547E+0	1.765436E+0	1.723044E+0	1.735181E+0	1.764638E+0	1.760839E+0	1.734311E+0	1.764938E+0	1.695365E+0	1.694597E+0	1.674279E+0	1.684798E+0	1.699143E+0	1.754672E+0	1.668236E+0	1.779125E+0	1.728535E+0	1.702062E+0	1.819047E+0	1.732173E+0	1.724106E+0	1.689131E+0	1.742243E+0	1.736201E+0	1.715615E+0	1.727264E+0	1.745969E+0	1.709414E+0	1.738150E+0	1.768480E+0	1.749638E+0	1.724580E+0	1.767792E+0	1.686539E+0	1.707545E+0	1.722657E+0	1.737841E+0	1.675358E+0	1.726777E+0	1.743963E+0	1.683969E+0	1.779636E+0	1.746754E+0	1.717526E+0	1.710456E+0	1.749171E+0	1.778369E+0	1.663555E+0	1.792120E+0	1.672021E+0	1.680100E+0	1.748876E+0	1.696943E+0	1.671670E+0	1.722577E+0	1.715375E+0	1.682268E+0	1.711140E+0	1.763887E+0	1.673526E+0	1.674044E+0	1.795736E+0	1.689624E+0	1.687616E+0	1.653506E+0	1.739629E+0	1.650746E+0	1.772939E+0	1.633380E+0	1.718425E+0	1.739760E+0	1.767690E+0	1.697803E+0	1.750767E+0	1.737642E+0	1.650432E+0	1.703450E+0	1.815417E+0	1.711166E+0	1.739303E+0	1.761349E+0	1.760115E+0	1.753023E+0	1.776649E+0	1.673239E+0	1.688279E+0	1.709333E+0	1.735625E+0	1.643486E+0	1.688540E+0	1.688904E+0	1.690762E+0	1.706068E+0	1.640849E+0	1.695034E+0	1.747105E+0	1.627781E+0	1.645906E+0	1.732598E+0	1.679541E+0	1.688844E+0	1.724010E+0	1.689335E+0	1.753083E+0	1.625872E+0	1.651364E+0	1.713895E+0	1.659744E+0	1.696091E+0	1.734600E+0	1.718497E+0	1.625254E+0	1.666370E+0	1.741211E+0	1.740131E+0	1.641843E+0	1.643037E+0	1.682040E+0	1.704105E+0	1.738881E+0	1.667879E+0	1.728751E+0	1.705365E+0	1.690122E+0	1.656126E+0	1.687060E+0	1.719564E+0	1.663408E+0	1.583842E+0	1.698039E+0	1.708990E+0	1.681246E+0	1.660740E+0	1.807383E+0	1.668126E+0	1.758138E+0	1.622862E+0	1.716377E+0	1.662310E+0	1.683953E+0	1.621499E+0	1.666170E+0	1.667944E+0	1.708388E+0	1.685699E+0	1.663878E+0	1.770636E+0	1.684980E+0	1.654929E+0	1.630571E+0	1.693927E+0	1.682375E+0	1.630586E+0	1.617845E+0	1.781171E+0	1.613556E+0
5.412690E+2	1.752335E+0	1.868794E+0	1.751599E+0	1.705857E+0	1.766130E+0	1.839339E+0	1.789797E+0	1.754348E+0	1.743515E+0	1.744810E+0	1.778754E+0	1.765393E+0	1.832358E+0	1.773312E+0	1.811817E+0	1.741819E+0	1.790010E+0	1.736564E+0	1.770641E+0	1.758754E+0	1.764136E+0	1.729807E+0	1.713756E+0	1.745748E+0	1.791242E+0	1.732154E+0	1.793612E+0	1.789692E+0	1.716929E+0	1.753682E+0	1.811774E+0	1.799924E+0	1.672171E+0	1.776100E+0	1.715462E+0	1.807282E+0	1.756264E+0	1.789085E+0	1.798466E+0	1.788237E+0	1.743954E+0	1.716717E+0	1.760472E+0	1.721171E+0	1.744684E+0	1.730596E+0	1.751862E+0	1.777147E+0	1.767284E+0	1.731334E+0	1.820001E+0	1.742531E+0	1.813848E+0	1.727078E+0	1.809136E+0	1.797482E+0	1.720343E+0	1.737934E+0	1.696803E+0	1.749919E+0	1.752996E+0	1.739321E+0	1.692143E+0	1.719139E+0	1.739928E+0	1.804709E+0	1.711447E+0	1.814312E+0	1.668080E+0	1.696473E+0	1.765918E+0	1.809714E+0	1.773524E+0	1.734384E+0	1.741782E+0	1.708025E+0	1.777210E+0	1.680640E+0	1.697130E+0	1.716030E+0	1.720302E+0	1.688360E+0	1.716201E+0	1.716214E+0	1.771199E+0	1.678756E+0	1.758436E+0	1.721134E+0	1.784152E+0	1.687728E+0	1.775819E+0	1.768788E+0	1.761385E+0	1.681150E+0	1.736147E+0	1.677577E+0	1.733859E+0	1.670284E+0	1.800750E+0	1.663972E+0	1.739946E+0	1.734833E+0	1.746951E+0	1.745008E+0	1.701674E+0	1.721047E+0	1.743555E+0	1.781784E+0	1.705613E+0	1.783796E+0	1.747048E+0	1.722385E+0	1.741633E+0	1.661910E+0	1.693436E+0	1.761412E+0	1.695904E+0	1.708627E+0	1.782666E+0	1.762633E+0	1.679117E+0	1.727498E+0	1.684650E+0	1.741558E+0	1.713079E+0	1.655679E+0	1.748928E+0	1.723560E+0	1.743331E+0	1.626231E+0	1.697226E+0	1.714772E+0	1.706157E+0	1.753738E+0	1.724447E+0	1.710284E+0	1.661041E+0	1.712948E+0	1.699211E+0	1.695163E+0	1.723526E+0	1.642586E+0	1.724303E+0	1.677416E+0	1.774183E+0	1.681624E+0	1.749049E+0	1.688910E+0	1.718015E+0	1.679598E+0	1.785453E+0	1.665786E+0	1.732315E+0	1.714606E+0	1.678517E+0	1.787497E+0	1.728518E+0	1.648249E+0	1.672572E+0	1.712140E+0	1.649588E+0	1.609874E+0	1.614757E+0	1.870928E+0	1.687659E+0
5.415090E+2	1.740953E+0	1.715503E+0	1.681342E+0	1.642236E+0	1.713444E+0	1.709761E+0	1.686800E+0	1.712023E+0	1.742317E+0	1.639398E+0	1.736570E+0	1.732207E+0	1.706072E+0	1.619748E+0	1.718151E+0	1.693608E+0	1.737070E+0	1.684950E+0	1.634113E+0	1.626654E+0	1.726539E+0	1.663373E+0	1.742230E+0	1.692512E+0	1.682948E+0	1.697041E+0	1.682777E+0	1.754936E+0	1.652144E+0	1.701472E+0	1.779097E+0	1.701765E+0	1.719385E+0	1.731357E+0	1.694065E+0	1.649274E+0	1.683058E+0	1.626702E+0	1.748907E+0	1.669359E+0	1.709047E+0	1.692990E+0	1.707426E+0	1.633674E+0	1.692815E+0	1.697291E+0	1.719444E+0	1.702462E+0	1.697258E+0	1.721920E+0	1.748160E+0	1.755294E+0	1.713934E+0	1.684682E+0	1.742210E+0	1.723768E+0	1.613152E+0	1.762568E+0	1.674242E+0	1.702911E+0	1.772428E+0	1.675656E+0	1.596476E+0	1.640750E+0	1.731396E+0	1.719509E+0	1.728136E+0	1.671649E+0	1.605549E+0	1.648801E+0	1.731894E+0	1.738664E+0	1.662927E+0	1.707375E+0	1.638097E+0	1.749171E+0	1.727839E+0	1.647896E+0	1.715477E+0	1.670795E+0	1.655913E+0	1.673634E+0	1.648752E+0	1.685745E+0	1.615817E+0	1.682236E+0	1.761077E+0	1.674413E+0	1.641469E+0	1.642591E+0	1.681043E+0	1.720579E+0	1.669007E+0	1.652953E+0	1.726137E+0	1.704015E+0	1.669092E+0	1.634474E+0	1.691757E+0	1.677976E+0	1.648787E+0	1.624834E+0	1.704672E+0	1.690231E+0	1.711785E+0	1.660378E+0	1.658935E+0	1.734052E+0	1.669383E+0	1.645636E+0	1.631454E+0	1.693136E+0	1.712568E+0	1.576505E+0	1.633774E+0	1.660892E+0	1.701038E+0	1.609715E+0	1.693931E+0	1.721705E+0	1.592670E+0	1.660430E+0	1.722472E+0	1.733157E+0	1.675234E+0	1.688643E+0	1.708277E+0	1.643081E+0	1.674167E+0	1.584365E+0	1.680787E+0	1.581163E+0	1.625148E+0	1.622598E+0	1.637679E+0	1.628925E+0	1.700190E+0	1.706421E+0	1.673134E+0	1.660121E+0	1.633723E+0	1.641672E+0	1.663283E+0	1.618328E+0	1.712577E+0	1.692768E+0	1.679000E+0	1.641230E+0	1.663700E+0	1.590125E+0	1.647080E+0	1.592220E+0	1.647334E+0	1.646889E+0	1.762086E+0	1.682752E+0	1.685796E+0	1.648877E+0	1.642575E+0	1.644509E+0	1.624680E+0	1.614252E+0	1.561044E+0	1.729127E+0	1.715056E+0
5.417650E+2	1.473451E+0	1.515809E+0	1.534822E+0	1.535645E+0	1.528117E+0	1.561602E+0	1.583270E+0	1.533491E+0	1.540733E+0	1.466815E+0	1.536855E+0	1.481398E+0	1.531601E+0	1.514045E+0	1.525751E+0	1.502664E+0	1.510840E+0	1.503826E+0	1.452634E+0	1.501880E+0	1.482745E+0	1.499670E+0	1.487815E+0	1.528238E+0	1.531342E+0	1.455569E+0	1.542601E+0	1.556788E+0	1.457519E+0	1.436128E+0	1.460055E+0	1.533728E+0	1.472427E+0	1.483582E+0	1.483888E+0	1.553583E+0	1.484210E+0	1.506722E+0	1.528155E+0	1.500460E+0	1.457730E+0	1.455563E+0	1.511056E+0	1.514030E+0	1.544341E+0	1.502064E+0	1.521116E+0	1.518417E+0	1.525241E+0	1.500793E+0	1.586952E+0	1.507157E+0	1.466581E+0	1.481946E+0	1.489132E+0	1.496330E+0	1.486366E+0	1.543277E+0	1.524861E+0	1.482143E+0	1.554652E+0	1.484117E+0	1.497044E+0	1.460024E+0	1.554067E+0	1.512862E+0	1.478261E+0	1.533296E+0	1.569562E+0	1.407618E+0	1.563261E+0	1.532563E+0	1.492014E+0	1.452093E+0	1.530032E+0	1.495889E+0	1.546852E+0	1.489828E+0	1.561089E+0	1.492633E+0	1.530577E+0	1.528439E+0	1.500218E+0	1.475287E+0	1.548283E+0	1.494895E+0	1.558290E+0	1.500691E+0	1.507349E+0	1.498721E+0	1.563605E+0	1.533437E+0	1.541167E+0	1.480112E+0	1.465091E+0	1.561446E+0	1.481629E+0	1.474235E+0	1.534155E+0	1.450269E+0	1.458034E+0	1.462983E+0	1.502389E+0	1.529546E+0	1.498125E+0	1.489948E+0	1.497481E+0	1.528286E+0	1.470417E+0	1.483634E+0	1.487434E+0	1.540528E+0	1.538610E+0	1.423968E+0	1.524192E+0	1.539538E+0	1.492704E+0	1.498871E+0	1.536158E+0	1.505839E+0	1.451140E+0	1.495057E+0	1.476682E+0	1.518773E+0	1.496797E+0	1.435553E+0	1.500168E+0	1.472880E+0	1.497925E+0	1.410027E+0	1.483898E+0	1.487878E+0	1.511549E+0	1.510951E+0	1.487770E+0	1.474868E+0	1.477365E+0	1.491032E+0	1.501653E+0	1.558551E+0	1.474800E+0	1.420007E+0	1.531549E+0	1.514404E+0	1.547544E+0	1.481060E+0	1.534825E+0	1.381618E+0	1.454613E+0	1.475990E+0	1.582344E+0	1.422532E+0	1.493284E+0	1.528154E+0	1.482354E+0	1.475196E+0	1.441969E+0	1.513129E+0	1.432307E+0	1.522928E+0	1.465889E+0	1.472537E+0	1.416529E+0	1.623042E+0	1.455453E+0
5.420160E+2	1.272116E+0	1.326563E+0	1.268903E+0	1.305308E+0	1.283807E+0	1.353952E+0	1.212888E+0	1.285101E+0	1.254938E+0	1.276468E+0	1.312512E+0	1.273900E+0	1.277299E+0	1.302624E+0	1.271255E+0	1.226472E+0	1.337318E+0	1.264579E+0	1.281090E+0	1.280438E+0	1.311064E+0	1.296762E+0	1.282304E+0	1.282258E+0	1.280705E+0	1.245860E+0	1.309836E+0	1.373415E+0	1.259192E+0	1.284156E+0	1.252615E+0	1.283372E+0	1.257051E+0	1.303930E+0	1.274318E+0	1.284486E+0	1.264049E+0	1.236000E+0	1.277432E+0	1.326901E+0	1.259136E+0	1.282020E+0	1.301722E+0	1.294105E+0	1.300617E+0	1.269071E+0	1.296491E+0	1.282048E+0	1.352763E+0	1.293000E+0	1.287519E+0	1.278043E+0	1.304789E+0	1.238556E+0	1.276585E+0	1.318684E+0	1.249554E+0	1.318304E+0	1.313244E+0	1.270278E+0	1.283670E+0	1.239301E+0	1.223208E+0	1.286245E+0	1.339229E+0	1.305926E+0	1.265635E+0	1.270628E+0	1.254427E+0	1.184410E+0	1.314218E+0	1.319300E+0	1.311097E+0	1.285630E+0	1.318031E+0	1.192763E+0	1.345205E+0	1.277584E+0	1.309760E+0	1.294771E+0	1.289044E+0	1.246507E+0	1.247116E+0	1.320880E+0	1.278481E+0	1.298220E+0	1.299559E+0	1.318154E+0	1.277161E+0	1.295134E+0	1.295769E+0	1.327639E+0	1.253403E+0	1.221573E+0	1.303024E+0	1.297940E+0	1.305969E+0	1.227433E+0	1.307234E+0	1.346860E+0	1.282108E+0	1.262989E+0	1.319097E+0	1.288000E+0	1.295432E+0	1.280725E+0	1.319158E+0	1.356451E+0	1.327083E+0	1.234566E+0	1.337393E+0	1.225352E+0	1.259880E+0	1.175208E+0	1.284859E+0	1.273486E+0	1.287387E+0	1.254067E+0	1.339846E+0	1.246824E+0	1.220354E+0	1.273757E+0	1.316681E+0	1.309622E+0	1.258086E+0	1.217753E+0	1.314536E+0	1.289826E+0	1.299056E+0	1.248403E+0	1.280925E+0	1.284957E+0	1.279504E+0	1.332584E+0	1.262442E+0	1.272848E+0	1.286742E+0	1.192540E+0	1.280861E+0	1.362782E+0	1.291290E+0	1.283891E+0	1.381272E+0	1.292357E+0	1.333465E+0	1.275627E+0	1.332844E+0	1.221067E+0	1.272281E+0	1.282701E+0	1.276265E+0	1.200123E+0	1.332181E+0	1.222829E+0	1.245361E+0	1.288304E+0	1.262858E+0	1.235541E+0	1.205176E+0	1.286064E+0	1.229341E+0	1.181127E+0	1.270221E+0	1.386670E+0	1.198541E+0
5.422780E+2	1.125882E+0	1.153361E+0	1.145514E+0	1.218591E+0	1.148365E+0	1.155506E+0	1.130787E+0	1.141839E+0	1.126166E+0	1.175603E+0	1.157382E+0	1.172505E+0	1.161552E+0	1.149219E+0	1.169188E+0	1.112740E+0	1.176251E+0	1.205121E+0	1.137532E+0	1.099334E+0	1.192138E+0	1.152483E+0	1.168299E+0	1.128297E+0	1.134556E+0	1.150592E+0	1.143099E+0	1.159095E+0	1.138206E+0	1.172977E+0	1.165340E+0	1.159132E+0	1.170740E+0	1.164017E+0	1.165635E+0	1.146126E+0	1.132842E+0	1.145435E+0	1.184123E+0	1.124982E+0	1.213025E+0	1.147651E+0	1.193688E+0	1.179445E+0	1.187634E+0	1.128710E+0	1.182819E+0	1.169090E+0	1.189427E+0	1.152912E+0	1.104144E+0	1.170710E+0	1.220546E+0	1.158183E+0	1.155689E+0	1.131267E+0	1.178345E+0	1.172759E+0	1.164916E+0	1.118962E+0	1.150640E+0	1.099269E+0	1.120369E+0	1.121378E+0	1.168360E+0	1.170209E+0	1.148195E+0	1.202513E+0	1.133319E+0	1.144170E+0	1.193271E+0	1.204689E+0	1.188370E+0	1.114437E+0	1.169830E+0	1.128648E+0	1.154729E+0	1.119343E+0	1.148612E+0	1.154313E+0	1.235457E+0	1.189132E+0	1.176320E+0	1.166058E+0	1.190603E+0	1.051613E+0	1.254619E+0	1.216861E+0	1.193438E+0	1.154680E+0	1.146149E+0	1.185138E+0	1.134016E+0	1.161515E+0	1.188972E+0	1.099213E+0	1.137226E+0	1.106744E+0	1.162264E+0	1.120929E+0	1.197161E+0	1.141538E+0	1.154273E+0	1.171733E+0	1.085706E+0	1.125827E+0	1.154537E+0	1.259900E+0	1.128392E+0	1.171917E+0	1.153228E+0	1.159976E+0	1.145781E+0	1.107710E+0	1.184176E+0	1.177016E+0	1.198660E+0	1.149471E+0	1.122488E+0	1.190364E+0	1.146493E+0	1.138026E+0	1.115123E+0	1.204693E+0	1.156571E+0	1.119794E+0	1.171035E+0	1.180585E+0	1.159380E+0	1.129024E+0	1.148899E+0	1.172827E+0	1.182813E+0	1.159829E+0	1.209093E+0	1.216871E+0	1.130042E+0	1.236415E+0	1.145634E+0	1.183398E+0	1.150306E+0	1.138342E+0	1.130984E+0	1.157120E+0	1.171454E+0	1.157019E+0	1.156030E+0	1.184431E+0	1.100283E+0	1.169277E+0	1.238152E+0	1.139093E+0	1.143384E+0	1.112526E+0	1.098871E+0	1.179782E+0	1.127681E+0	1.099772E+0	1.167223E+0	1.128887E+0	1.104331E+0	1.089908E+0	1.148468E+0	1.243594E+0	1.187037E+0
5.425080E+2	9.498949E-1	1.064223E+0	1.001562E+0	9.933997E-1	1.040551E+0	1.019550E+0	9.636517E-1	1.002233E+0	9.793965E-1	1.001486E+0	1.024224E+0	1.074385E+0	1.059646E+0	9.974874E-1	1.055668E+0	1.012618E+0	1.076899E+0	1.019870E+0	1.055239E+0	9.643023E-1	1.000354E+0	9.825210E-1	1.026839E+0	1.059761E+0	1.033525E+0	1.053460E+0	9.934430E-1	1.084538E+0	1.007519E+0	1.008736E+0	1.011956E+0	1.053177E+0	1.018170E+0	9.940558E-1	1.026448E+0	1.069793E+0	1.028090E+0	1.003531E+0	1.030677E+0	1.047124E+0	1.002191E+0	1.020009E+0	1.062132E+0	1.035780E+0	9.934625E-1	9.856626E-1	1.032117E+0	1.047422E+0	1.026381E+0	9.972298E-1	9.535838E-1	1.044642E+0	9.762754E-1	1.040959E+0	1.057518E+0	1.041565E+0	1.006387E+0	1.035730E+0	1.000978E+0	9.716921E-1	1.070646E+0	9.886536E-1	9.797226E-1	9.859226E-1	1.064657E+0	1.045391E+0	1.010995E+0	9.779494E-1	9.910280E-1	1.014732E+0	1.034433E+0	1.076155E+0	1.021655E+0	9.966112E-1	1.051196E+0	1.042719E+0	1.075584E+0	9.374232E-1	9.859872E-1	1.012080E+0	1.019720E+0	9.823555E-1	1.026385E+0	1.027533E+0	1.000694E+0	1.042811E+0	1.023201E+0	1.014720E+0	1.038450E+0	1.071535E+0	1.033546E+0	9.997927E-1	1.032532E+0	1.021018E+0	1.009243E+0	9.836529E-1	1.037833E+0	9.960787E-1	1.024334E+0	1.000687E+0	1.006006E+0	1.029942E+0	1.040126E+0	9.916673E-1	1.058011E+0	1.054636E+0	9.779674E-1	9.984177E-1	1.012551E+0	1.015663E+0	1.028097E+0	1.071626E+0	9.663713E-1	9.565427E-1	1.016376E+0	1.011934E+0	9.653449E-1	9.967364E-1	1.084459E+0	1.042304E+0	1.022833E+0	1.044509E+0	1.030597E+0	1.027045E+0	1.008109E+0	1.002162E+0	1.056952E+0	1.070907E+0	1.017734E+0	9.755410E-1	9.703360E-1	9.989417E-1	1.006329E+0	1.042170E+0	9.657487E-1	1.053468E+0	1.046170E+0	1.041183E+0	1.050602E+0	1.065811E+0	1.016484E+0	9.411893E-1	9.951132E-1	1.014800E+0	1.072071E+0	1.007447E+0	1.027208E+0	1.013776E+0	1.004366E+0	1.005873E+0	1.058093E+0	1.002660E+0	9.996405E-1	1.026972E+0	9.613937E-1	1.011048E+0	9.907318E-1	9.447846E-1	1.022985E+0	9.980382E-1	9.784433E-1	9.847545E-1	9.517975E-1	1.065506E+0	1.063113E+0
5.427710E+2	9.295208E-1	1.019462E+0	9.998752E-1	9.607742E-1	1.025916E+0	9.300332E-1	9.734598E-1	9.619874E-1	1.022347E+0	9.641706E-1	9.466118E-1	9.537301E-1	9.863924E-1	1.016522E+0	1.025772E+0	1.004964E+0	1.054803E+0	9.829455E-1	9.781656E-1	1.048783E+0	1.028150E+0	9.686618E-1	9.914343E-1	1.011749E+0	1.020195E+0	9.812810E-1	9.438882E-1	1.037208E+0	1.018156E+0	1.023532E+0	9.922718E-1	1.059028E+0	9.290729E-1	9.506862E-1	1.000305E+0	9.678092E-1	9.997348E-1	1.003058E+0	9.886098E-1	1.035727E+0	9.898045E-1	9.653179E-1	9.909145E-1	1.006662E+0	1.000550E+0	1.001730E+0	9.525467E-1	1.024133E+0	1.006557E+0	9.738459E-1	9.705463E-1	1.070928E+0	9.982232E-1	9.975423E-1	1.036440E+0	9.838629E-1	9.668854E-1	1.014832E+0	9.666391E-1	1.021859E+0	1.059983E+0	1.016936E+0	9.628303E-1	1.053362E+0	9.906944E-1	1.004985E+0	1.001060E+0	1.021495E+0	9.720745E-1	9.590429E-1	1.003572E+0	1.030629E+0	1.033128E+0	1.010460E+0	1.052939E+0	9.615131E-1	1.040986E+0	9.440752E-1	9.969506E-1	9.555505E-1	9.976205E-1	1.001000E+0	9.885553E-1	1.002390E+0	9.972710E-1	9.786561E-1	1.036999E+0	1.042179E+0	1.021754E+0	9.891993E-1	9.661667E-1	1.047964E+0	1.025789E+0	1.001407E+0	9.566389E-1	1.006668E+0	1.093035E+0	9.332919E-1	1.050993E+0	9.910444E-1	1.017707E+0	9.838888E-1	9.604460E-1	9.918354E-1	9.840703E-1	9.710231E-1	9.813449E-1	9.744724E-1	1.071074E+0	9.967714E-1	9.768829E-1	1.016826E+0	9.891532E-1	9.480808E-1	1.005144E+0	9.438611E-1	9.805901E-1	9.889073E-1	1.031386E+0	9.625877E-1	9.726720E-1	1.014599E+0	9.994776E-1	1.050242E+0	1.089576E+0	9.835953E-1	9.757730E-1	9.973039E-1	1.026118E+0	9.692608E-1	1.018342E+0	1.032377E+0	9.888415E-1	9.894653E-1	1.037849E+0	1.004139E+0	9.891007E-1	9.533241E-1	9.870408E-1	1.060955E+0	9.806194E-1	9.646694E-1	9.898296E-1	9.812823E-1	9.910052E-1	9.763180E-1	1.035983E+0	9.824176E-1	1.034389E+0	9.683800E-1	9.921329E-1	9.982812E-1	9.804112E-1	1.001947E+0	9.594096E-1	9.746481E-1	9.505175E-1	9.786938E-1	1.035659E+0	1.015193E+0	9.639056E-1	9.539379E-1	1.002887E+0	1.090647E+0	9.578501E-1
5.430170E+2	9.937645E-1	1.003067E+0	9.875297E-1	1.007480E+0	9.655727E-1	9.917232E-1	1.007918E+0	1.039308E+0	1.005344E+0	1.016817E+0	1.009351E+0	1.007847E+0	1.041780E+0	1.010914E+0	1.007021E+0	1.000270E+0	1.048317E+0	9.867547E-1	1.037636E+0	1.003636E+0	1.032847E+0	9.919664E-1	9.954397E-1	1.013705E+0	9.913714E-1	1.011976E+0	1.041458E+0	1.029258E+0	1.015664E+0	9.268762E-1	9.740005E-1	1.031376E+0	1.054748E+0	1.040601E+0	1.016119E+0	9.968077E-1	1.024114E+0	9.915249E-1	1.008220E+0	1.028370E+0	1.028017E+0	1.048926E+0	9.709386E-1	9.534057E-1	1.051194E+0	1.021141E+0	9.741987E-1	1.021306E+0	1.075404E+0	1.052921E+0	1.013721E+0	1.017675E+0	1.045674E+0	9.951916E-1	1.028877E+0	1.028054E+0	9.705750E-1	1.051700E+0	1.009270E+0	1.015952E+0	1.039714E+0	9.794506E-1	9.302609E-1	1.017436E+0	1.046001E+0	1.023604E+0	1.007221E+0	1.026854E+0	9.675887E-1	9.736842E-1	9.940942E-1	1.064482E+0	1.048332E+0	9.525731E-1	9.620144E-1	1.046252E+0	1.023476E+0	9.761878E-1	1.029114E+0	9.936168E-1	1.031455E+0	1.018811E+0	9.966023E-1	1.024752E+0	1.045492E+0	1.001158E+0	1.074740E+0	1.044902E+0	1.035568E+0	1.056071E+0	1.061273E+0	1.013015E+0	9.992647E-1	9.959594E-1	9.730922E-1	1.005010E+0	1.047181E+0	1.012151E+0	9.939883E-1	1.025500E+0	1.021959E+0	9.884916E-1	1.014025E+0	9.472161E-1	9.966973E-1	9.915988E-1	1.045307E+0	9.580396E-1	9.933015E-1	1.019281E+0	9.770724E-1	9.593620E-1	1.007116E+0	9.685270E-1	9.806500E-1	1.009997E+0	1.008643E+0	1.021743E+0	1.000242E+0	9.950270E-1	9.815321E-1	1.017161E+0	1.066241E+0	1.003248E+0	1.033454E+0	9.869521E-1	1.069044E+0	1.014757E+0	1.002485E+0	1.016151E+0	1.004122E+0	1.043321E+0	1.050061E+0	1.019560E+0	1.002415E+0	1.002358E+0	9.911077E-1	1.021361E+0	1.026538E+0	1.029707E+0	1.010337E+0	1.000070E+0	1.034066E+0	9.926298E-1	1.068031E+0	1.026599E+0	1.019148E+0	1.003590E+0	1.037969E+0	9.808276E-1	1.023204E+0	9.624290E-1	9.940851E-1	1.051248E+0	9.296174E-1	1.021778E+0	9.466300E-1	9.910625E-1	1.014692E+0	9.993566E-1	9.665411E-1	8.825871E-1	9.592618E-1	1.096944E+0	9.349406E-1
5.432860E+2	1.117362E+0	1.202025E+0	1.060177E+0	1.121739E+0	1.144692E+0	1.153265E+0	1.104795E+0	1.179278E+0	1.132576E+0	1.142025E+0	1.159223E+0	1.095737E+0	1.179959E+0	1.147645E+0	1.165778E+0	1.162336E+0	1.216064E+0	1.200775E+0	1.145082E+0	1.116592E+0	1.142348E+0	1.120042E+0	1.163306E+0	1.139112E+0	1.166581E+0	1.143355E+0	1.109742E+0	1.251435E+0	1.146613E+0	1.104573E+0	1.171292E+0	1.155137E+0	1.151674E+0	1.137109E+0	1.129655E+0	1.169182E+0	1.141686E+0	1.170654E+0	1.131702E+0	1.200301E+0	1.159848E+0	1.201686E+0	1.151451E+0	1.162930E+0	1.161241E+0	1.155889E+0	1.134474E+0	1.168511E+0	1.184718E+0	1.149494E+0	1.141223E+0	1.185413E+0	1.109352E+0	1.145489E+0	1.120067E+0	1.192261E+0	1.146940E+0	1.161566E+0	1.164670E+0	1.172338E+0	1.126677E+0	1.137163E+0	1.077249E+0	1.176799E+0	1.174146E+0	1.135240E+0	1.134152E+0	1.196569E+0	1.139115E+0	1.092699E+0	1.100254E+0	1.171323E+0	1.180046E+0	1.146591E+0	1.187214E+0	1.141343E+0	1.173247E+0	1.144947E+0	1.137192E+0	1.145428E+0	1.163074E+0	1.151203E+0	1.129169E+0	1.187750E+0	1.158734E+0	1.200024E+0	1.183636E+0	1.192345E+0	1.181431E+0	1.161906E+0	1.140008E+0	1.182384E+0	1.169067E+0	1.200339E+0	1.133985E+0	1.162051E+0	1.127263E+0	1.127103E+0	1.144410E+0	1.163403E+0	1.129287E+0	1.124719E+0	1.166459E+0	1.156826E+0	1.143719E+0	1.120407E+0	1.055707E+0	1.216649E+0	1.189988E+0	1.146649E+0	1.173395E+0	1.140634E+0	1.171190E+0	1.109679E+0	1.127529E+0	1.155027E+0	1.118892E+0	1.053332E+0	1.175650E+0	1.182687E+0	1.097568E+0	1.121380E+0	1.138356E+0	1.156663E+0	1.138239E+0	1.115400E+0	1.123897E+0	1.170668E+0	1.138388E+0	1.113310E+0	1.178509E+0	1.152980E+0	1.134808E+0	1.156243E+0	1.173609E+0	1.182826E+0	1.140455E+0	1.140654E+0	1.191002E+0	1.108018E+0	1.166509E+0	1.123271E+0	1.116435E+0	1.108614E+0	1.122662E+0	1.130263E+0	1.096080E+0	1.124193E+0	1.150386E+0	1.132109E+0	1.189150E+0	1.109042E+0	1.126352E+0	1.126949E+0	1.170253E+0	1.157121E+0	1.138115E+0	1.069399E+0	1.129700E+0	1.139028E+0	1.112170E+0	1.113720E+0	1.107998E+0	1.132458E+0	1.050462E+0
5.435330E+2	1.269562E+0	1.314849E+0	1.287459E+0	1.282286E+0	1.265645E+0	1.306882E+0	1.279682E+0	1.334751E+0	1.323370E+0	1.247785E+0	1.262838E+0	1.348167E+0	1.359010E+0	1.283474E+0	1.332609E+0	1.310473E+0	1.385072E+0	1.285291E+0	1.286409E+0	1.292336E+0	1.353640E+0	1.273190E+0	1.291610E+0	1.291259E+0	1.293293E+0	1.306724E+0	1.320035E+0	1.349453E+0	1.275709E+0	1.294363E+0	1.251840E+0	1.286347E+0	1.286661E+0	1.297960E+0	1.263729E+0	1.313411E+0	1.369661E+0	1.316311E+0	1.307767E+0	1.265783E+0	1.322703E+0	1.323839E+0	1.273609E+0	1.282334E+0	1.310068E+0	1.272616E+0	1.313490E+0	1.360969E+0	1.326367E+0	1.286953E+0	1.228421E+0	1.291952E+0	1.294137E+0	1.299595E+0	1.306396E+0	1.310705E+0	1.262873E+0	1.286986E+0	1.306140E+0	1.343367E+0	1.342529E+0	1.216625E+0	1.309839E+0	1.320527E+0	1.271469E+0	1.288644E+0	1.293257E+0	1.263025E+0	1.316269E+0	1.233177E+0	1.292227E+0	1.347858E+0	1.288684E+0	1.278079E+0	1.296767E+0	1.253067E+0	1.321634E+0	1.296054E+0	1.292322E+0	1.339967E+0	1.279738E+0	1.256994E+0	1.281300E+0	1.308715E+0	1.306799E+0	1.307369E+0	1.281226E+0	1.316932E+0	1.272654E+0	1.259237E+0	1.288195E+0	1.332584E+0	1.334319E+0	1.287166E+0	1.263218E+0	1.226936E+0	1.323320E+0	1.313359E+0	1.228337E+0	1.300702E+0	1.283987E+0	1.318228E+0	1.304698E+0	1.290266E+0	1.236766E+0	1.281927E+0	1.262421E+0	1.383463E+0	1.215340E+0	1.308817E+0	1.237700E+0	1.325169E+0	1.366870E+0	1.207664E+0	1.255339E+0	1.309705E+0	1.311604E+0	1.260219E+0	1.281622E+0	1.333042E+0	1.253001E+0	1.249031E+0	1.229374E+0	1.326061E+0	1.285276E+0	1.183116E+0	1.277430E+0	1.330192E+0	1.303662E+0	1.247667E+0	1.309912E+0	1.225990E+0	1.279358E+0	1.228932E+0	1.303748E+0	1.285527E+0	1.332326E+0	1.294552E+0	1.289434E+0	1.295066E+0	1.251891E+0	1.230842E+0	1.218079E+0	1.285874E+0	1.345554E+0	1.263988E+0	1.279014E+0	1.234229E+0	1.330707E+0	1.294547E+0	1.333205E+0	1.270629E+0	1.305182E+0	1.303721E+0	1.286150E+0	1.287346E+0	1.274468E+0	1.290043E+0	1.312521E+0	1.318502E+0	1.269574E+0	1.338239E+0	1.309634E+0	1.305654E+0	1.325836E+0
5.437640E+2	1.452171E+0	1.551969E+0	1.479715E+0	1.465507E+0	1.442959E+0	1.448252E+0	1.392356E+0	1.483876E+0	1.481683E+0	1.470135E+0	1.478032E+0	1.444767E+0	1.432219E+0	1.463907E+0	1.497706E+0	1.400019E+0	1.546889E+0	1.499039E+0	1.451788E+0	1.533323E+0	1.523113E+0	1.416809E+0	1.464294E+0	1.421039E+0	1.534301E+0	1.459537E+0	1.485028E+0	1.449943E+0	1.477764E+0	1.433200E+0	1.432455E+0	1.507138E+0	1.479657E+0	1.510956E+0	1.432325E+0	1.470270E+0	1.463615E+0	1.438097E+0	1.492676E+0	1.524449E+0	1.415323E+0	1.472314E+0	1.432272E+0	1.404160E+0	1.451440E+0	1.444531E+0	1.367078E+0	1.523303E+0	1.535790E+0	1.493340E+0	1.436677E+0	1.476612E+0	1.417086E+0	1.470303E+0	1.467205E+0	1.500950E+0	1.466906E+0	1.460587E+0	1.420133E+0	1.505800E+0	1.476383E+0	1.363683E+0	1.349468E+0	1.413924E+0	1.524865E+0	1.404998E+0	1.449471E+0	1.470182E+0	1.455492E+0	1.408158E+0	1.419751E+0	1.444130E+0	1.475890E+0	1.432778E+0	1.494897E+0	1.431685E+0	1.462055E+0	1.419710E+0	1.424267E+0	1.511377E+0	1.424134E+0	1.485200E+0	1.498576E+0	1.479464E+0	1.484579E+0	1.417748E+0	1.523409E+0	1.482301E+0	1.476565E+0	1.473663E+0	1.444103E+0	1.467904E+0	1.444213E+0	1.381726E+0	1.430943E+0	1.408212E+0	1.436610E+0	1.417247E+0	1.467987E+0	1.463151E+0	1.465933E+0	1.412763E+0	1.417878E+0	1.511825E+0	1.438740E+0	1.440451E+0	1.442350E+0	1.513658E+0	1.493901E+0	1.459841E+0	1.495476E+0	1.438994E+0	1.450048E+0	1.387697E+0	1.515365E+0	1.455141E+0	1.461597E+0	1.447881E+0	1.486626E+0	1.485532E+0	1.374961E+0	1.488253E+0	1.447687E+0	1.517831E+0	1.422710E+0	1.458913E+0	1.474267E+0	1.423701E+0	1.476607E+0	1.423629E+0	1.442987E+0	1.419009E+0	1.456006E+0	1.436394E+0	1.436659E+0	1.449719E+0	1.534673E+0	1.404926E+0	1.420308E+0	1.443228E+0	1.456482E+0	1.409852E+0	1.401973E+0	1.422492E+0	1.460241E+0	1.434985E+0	1.415707E+0	1.402730E+0	1.489133E+0	1.464223E+0	1.468443E+0	1.458699E+0	1.471489E+0	1.484093E+0	1.420475E+0	1.481728E+0	1.369761E+0	1.401815E+0	1.405272E+0	1.465502E+0	1.478141E+0	1.405570E+0	1.390200E+0	1.468270E+0	1.334541E+0
5.440220E+2	1.495514E+0	1.691121E+0	1.581093E+0	1.610202E+0	1.551161E+0	1.503446E+0	1.526079E+0	1.639462E+0	1.546722E+0	1.550447E+0	1.588371E+0	1.565062E+0	1.585406E+0	1.585657E+0	1.545952E+0	1.498525E+0	1.621115E+0	1.582699E+0	1.579949E+0	1.569269E+0	1.548376E+0	1.554034E+0	1.530338E+0	1.575677E+0	1.576791E+0	1.577674E+0	1.614004E+0	1.577856E+0	1.569544E+0	1.543390E+0	1.621256E+0	1.624960E+0	1.526455E+0	1.555709E+0	1.592170E+0	1.606460E+0	1.601731E+0	1.574950E+0	1.560657E+0	1.578622E+0	1.574821E+0	1.574225E+0	1.520274E+0	1.653489E+0	1.568525E+0	1.579019E+0	1.535860E+0	1.598507E+0	1.680939E+0	1.596503E+0	1.564108E+0	1.650504E+0	1.536663E+0	1.559980E+0	1.510220E+0	1.638572E+0	1.518304E+0	1.586653E+0	1.492974E+0	1.552748E+0	1.604044E+0	1.543073E+0	1.459270E+0	1.575803E+0	1.547069E+0	1.564793E+0	1.543608E+0	1.553220E+0	1.508181E+0	1.536883E+0	1.499969E+0	1.653068E+0	1.591044E+0	1.553607E+0	1.585970E+0	1.610829E+0	1.663374E+0	1.535096E+0	1.543036E+0	1.563365E+0	1.517830E+0	1.523148E+0	1.546219E+0	1.588573E+0	1.503704E+0	1.518233E+0	1.635260E+0	1.623938E+0	1.576668E+0	1.529552E+0	1.558571E+0	1.588009E+0	1.582305E+0	1.516910E+0	1.497129E+0	1.545966E+0	1.548846E+0	1.463160E+0	1.621471E+0	1.488642E+0	1.555880E+0	1.569098E+0	1.556082E+0	1.504105E+0	1.618258E+0	1.510384E+0	1.513653E+0	1.649419E+0	1.562199E+0	1.500584E+0	1.549310E+0	1.555756E+0	1.563695E+0	1.414725E+0	1.560058E+0	1.569298E+0	1.536383E+0	1.500612E+0	1.560813E+0	1.594487E+0	1.580153E+0	1.530496E+0	1.549096E+0	1.563682E+0	1.554833E+0	1.514574E+0	1.539840E+0	1.553386E+0	1.613228E+0	1.581987E+0	1.511491E+0	1.585055E+0	1.571963E+0	1.520546E+0	1.577201E+0	1.562407E+0	1.520537E+0	1.512194E+0	1.502059E+0	1.561208E+0	1.575991E+0	1.472160E+0	1.574975E+0	1.555977E+0	1.554862E+0	1.518554E+0	1.546505E+0	1.520056E+0	1.518631E+0	1.490048E+0	1.546970E+0	1.566801E+0	1.571227E+0	1.507764E+0	1.502186E+0	1.626425E+0	1.587322E+0	1.516026E+0	1.531056E+0	1.521174E+0	1.487625E+0	1.466369E+0	1.560699E+0	1.742803E+0	1.528549E+0
5.442750E+2	1.614614E+0	1.638592E+0	1.584310E+0	1.591781E+0	1.621241E+0	1.583249E+0	1.502306E+0	1.593144E+0	1.583945E+0	1.572510E+0	1.612035E+0	1.661599E+0	1.604688E+0	1.548643E+0	1.580783E+0	1.615953E+0	1.632985E+0	1.538096E+0	1.577084E+0	1.586532E+0	1.593738E+0	1.553528E+0	1.530115E+0	1.525317E+0	1.586292E+0	1.548266E+0	1.575621E+0	1.595876E+0	1.562558E+0	1.566499E+0	1.548922E+0	1.621383E+0	1.589583E+0	1.602472E+0	1.573515E+0	1.518932E+0	1.566685E+0	1.626026E+0	1.558984E+0	1.626611E+0	1.597374E+0	1.566386E+0	1.611401E+0	1.634708E+0	1.555591E+0	1.564114E+0	1.605467E+0	1.603259E+0	1.617864E+0	1.628984E+0	1.564787E+0	1.566126E+0	1.589550E+0	1.627220E+0	1.601677E+0	1.629399E+0	1.532195E+0	1.599394E+0	1.501921E+0	1.595131E+0	1.616401E+0	1.624027E+0	1.492823E+0	1.584376E+0	1.611552E+0	1.544341E+0	1.561718E+0	1.608339E+0	1.538432E+0	1.569163E+0	1.534855E+0	1.613224E+0	1.602489E+0	1.575644E+0	1.569739E+0	1.612363E+0	1.561342E+0	1.567627E+0	1.543702E+0	1.588006E+0	1.639820E+0	1.546058E+0	1.518299E+0	1.511250E+0	1.619856E+0	1.579605E+0	1.570982E+0	1.611157E+0	1.585718E+0	1.616137E+0	1.526901E+0	1.600788E+0	1.584178E+0	1.623581E+0	1.540839E+0	1.527961E+0	1.622260E+0	1.479619E+0	1.630801E+0	1.544980E+0	1.631954E+0	1.589400E+0	1.516032E+0	1.628805E+0	1.497927E+0	1.500176E+0	1.593096E+0	1.581010E+0	1.601982E+0	1.516741E+0	1.584871E+0	1.574313E+0	1.481212E+0	1.450148E+0	1.514803E+0	1.624273E+0	1.563352E+0	1.527946E+0	1.624287E+0	1.612901E+0	1.569774E+0	1.577584E+0	1.600831E+0	1.574376E+0	1.604114E+0	1.516374E+0	1.586004E+0	1.608158E+0	1.586720E+0	1.469219E+0	1.545741E+0	1.565798E+0	1.573439E+0	1.556525E+0	1.542041E+0	1.594388E+0	1.543661E+0	1.576015E+0	1.539981E+0	1.562557E+0	1.615337E+0	1.540438E+0	1.556954E+0	1.579509E+0	1.599456E+0	1.572456E+0	1.545288E+0	1.517572E+0	1.558747E+0	1.459903E+0	1.572171E+0	1.549301E+0	1.564530E+0	1.507630E+0	1.500396E+0	1.628222E+0	1.480415E+0	1.535437E+0	1.538039E+0	1.475043E+0	1.507817E+0	1.524579E+0	1.530193E+0	1.598519E+0	1.512848E+0
5.445130E+2	1.523144E+0	1.597406E+0	1.580061E+0	1.512404E+0	1.536050E+0	1.538298E+0	1.557671E+0	1.704768E+0	1.552843E+0	1.564629E+0	1.554847E+0	1.630866E+0	1.555634E+0	1.561724E+0	1.532299E+0	1.591522E+0	1.660741E+0	1.533892E+0	1.510708E+0	1.520338E+0	1.529585E+0	1.511052E+0	1.540027E+0	1.578185E+0	1.598731E+0	1.589827E+0	1.583591E+0	1.538692E+0	1.552896E+0	1.524656E+0	1.457859E+0	1.600708E+0	1.570975E+0	1.554777E+0	1.528716E+0	1.582596E+0	1.563562E+0	1.544488E+0	1.548313E+0	1.603879E+0	1.585177E+0	1.570622E+0	1.569693E+0	1.511733E+0	1.516646E+0	1.534901E+0	1.488900E+0	1.632706E+0	1.604197E+0	1.518192E+0	1.610301E+0	1.574740E+0	1.569557E+0	1.556078E+0	1.567356E+0	1.564800E+0	1.568832E+0	1.520472E+0	1.504523E+0	1.557584E+0	1.588121E+0	1.542084E+0	1.500254E+0	1.586867E+0	1.602270E+0	1.536917E+0	1.486740E+0	1.615595E+0	1.562833E+0	1.502902E+0	1.527736E+0	1.612332E+0	1.524144E+0	1.579737E+0	1.504271E+0	1.588816E+0	1.612200E+0	1.495215E+0	1.558696E+0	1.555869E+0	1.550194E+0	1.536218E+0	1.554530E+0	1.632077E+0	1.552297E+0	1.496158E+0	1.569167E+0	1.556601E+0	1.597261E+0	1.506507E+0	1.583798E+0	1.536177E+0	1.559345E+0	1.510697E+0	1.532626E+0	1.550699E+0	1.554674E+0	1.471440E+0	1.553815E+0	1.532052E+0	1.586991E+0	1.557576E+0	1.508792E+0	1.507855E+0	1.589215E+0	1.501647E+0	1.527220E+0	1.596836E+0	1.501893E+0	1.445266E+0	1.556598E+0	1.562064E+0	1.620627E+0	1.421915E+0	1.485017E+0	1.547187E+0	1.587145E+0	1.548912E+0	1.552349E+0	1.602582E+0	1.489815E+0	1.547003E+0	1.547517E+0	1.547426E+0	1.615758E+0	1.497540E+0	1.607896E+0	1.533395E+0	1.508840E+0	1.470742E+0	1.534287E+0	1.511767E+0	1.606786E+0	1.509541E+0	1.570013E+0	1.548158E+0	1.503310E+0	1.506449E+0	1.539229E+0	1.582759E+0	1.535555E+0	1.499000E+0	1.505122E+0	1.560027E+0	1.565389E+0	1.523815E+0	1.527372E+0	1.448989E+0	1.543702E+0	1.510962E+0	1.505796E+0	1.548744E+0	1.603128E+0	1.510065E+0	1.471146E+0	1.517911E+0	1.517292E+0	1.503453E+0	1.511955E+0	1.486806E+0	1.496276E+0	1.497695E+0	1.434830E+0	1.558722E+0	1.497378E+0
5.447660E+2	1.560047E+0	1.670755E+0	1.547900E+0	1.580959E+0	1.524811E+0	1.555660E+0	1.539734E+0	1.585575E+0	1.502138E+0	1.542931E+0	1.543255E+0	1.669655E+0	1.510103E+0	1.584630E+0	1.554769E+0	1.511381E+0	1.581570E+0	1.451507E+0	1.534024E+0	1.503484E+0	1.559800E+0	1.522773E+0	1.591813E+0	1.567396E+0	1.565428E+0	1.557761E+0	1.520354E+0	1.536475E+0	1.593732E+0	1.476015E+0	1.569261E+0	1.567035E+0	1.510540E+0	1.548609E+0	1.496894E+0	1.584712E+0	1.526113E+0	1.533910E+0	1.559394E+0	1.611035E+0	1.613172E+0	1.498169E+0	1.500744E+0	1.497196E+0	1.579394E+0	1.467655E+0	1.542943E+0	1.575274E+0	1.540517E+0	1.511534E+0	1.618794E+0	1.527059E+0	1.561416E+0	1.555909E+0	1.522892E+0	1.605148E+0	1.499505E+0	1.643832E+0	1.478871E+0	1.539601E+0	1.503031E+0	1.541653E+0	1.467193E+0	1.536961E+0	1.550562E+0	1.499848E+0	1.494718E+0	1.630206E+0	1.478735E+0	1.488167E+0	1.580822E+0	1.574832E+0	1.540319E+0	1.546385E+0	1.538219E+0	1.520102E+0	1.554022E+0	1.522875E+0	1.515619E+0	1.520441E+0	1.552451E+0	1.528176E+0	1.440835E+0	1.515244E+0	1.581935E+0	1.521897E+0	1.545091E+0	1.585732E+0	1.553234E+0	1.542858E+0	1.556000E+0	1.578306E+0	1.532611E+0	1.538600E+0	1.469314E+0	1.500323E+0	1.567499E+0	1.487931E+0	1.533538E+0	1.537326E+0	1.569722E+0	1.516637E+0	1.490831E+0	1.500663E+0	1.497062E+0	1.537717E+0	1.520913E+0	1.566444E+0	1.513038E+0	1.532073E+0	1.523921E+0	1.564100E+0	1.518148E+0	1.407282E+0	1.527091E+0	1.459471E+0	1.448163E+0	1.599981E+0	1.532329E+0	1.540645E+0	1.451348E+0	1.517444E+0	1.494778E+0	1.564316E+0	1.513819E+0	1.452585E+0	1.515507E+0	1.530222E+0	1.551819E+0	1.485499E+0	1.496487E+0	1.526686E+0	1.501437E+0	1.516659E+0	1.495380E+0	1.573617E+0	1.525110E+0	1.567489E+0	1.551529E+0	1.502484E+0	1.483775E+0	1.495529E+0	1.515443E+0	1.519552E+0	1.637348E+0	1.466716E+0	1.476459E+0	1.536047E+0	1.549697E+0	1.475553E+0	1.545525E+0	1.528981E+0	1.508378E+0	1.472539E+0	1.459535E+0	1.585034E+0	1.539487E+0	1.502977E+0	1.496532E+0	1.508682E+0	1.486926E+0	1.467105E+0	1.435131E+0	1.605967E+0	1.379570E+0
5.450090E+2	1.504080E+0	1.702146E+0	1.616989E+0	1.588443E+0	1.569755E+0	1.598026E+0	1.551722E+0	1.547141E+0	1.552197E+0	1.604484E+0	1.533675E+0	1.636483E+0	1.630761E+0	1.525791E+0	1.594898E+0	1.595575E+0	1.618568E+0	1.504519E+0	1.534927E+0	1.577211E+0	1.570957E+0	1.468693E+0	1.556644E+0	1.537581E+0	1.538349E+0	1.534741E+0	1.555647E+0	1.604154E+0	1.574206E+0	1.496688E+0	1.510441E+0	1.585998E+0	1.576899E+0	1.572797E+0	1.515333E+0	1.603992E+0	1.570021E+0	1.576947E+0	1.593623E+0	1.568067E+0	1.547497E+0	1.566185E+0	1.575806E+0	1.622374E+0	1.556997E+0	1.540423E+0	1.503970E+0	1.533803E+0	1.577657E+0	1.570685E+0	1.543874E+0	1.623757E+0	1.590910E+0	1.562463E+0	1.539191E+0	1.639706E+0	1.505639E+0	1.592317E+0	1.525647E+0	1.626844E+0	1.533082E+0	1.512935E+0	1.503266E+0	1.563122E+0	1.652287E+0	1.505718E+0	1.543955E+0	1.606746E+0	1.527067E+0	1.548300E+0	1.547732E+0	1.530233E+0	1.605836E+0	1.518002E+0	1.540152E+0	1.557734E+0	1.647419E+0	1.533154E+0	1.568877E+0	1.561946E+0	1.549077E+0	1.558991E+0	1.604904E+0	1.549747E+0	1.562466E+0	1.598043E+0	1.575580E+0	1.542896E+0	1.536795E+0	1.578422E+0	1.525211E+0	1.575352E+0	1.573836E+0	1.425756E+0	1.574156E+0	1.550779E+0	1.530522E+0	1.573917E+0	1.582158E+0	1.593813E+0	1.536602E+0	1.590543E+0	1.539030E+0	1.545439E+0	1.580578E+0	1.549689E+0	1.485934E+0	1.609555E+0	1.564357E+0	1.550513E+0	1.589690E+0	1.483771E+0	1.595647E+0	1.444605E+0	1.504661E+0	1.602635E+0	1.551845E+0	1.542530E+0	1.532938E+0	1.575232E+0	1.471847E+0	1.520575E+0	1.532993E+0	1.587029E+0	1.620338E+0	1.529904E+0	1.563038E+0	1.542909E+0	1.540812E+0	1.483472E+0	1.535138E+0	1.620678E+0	1.554053E+0	1.508725E+0	1.506449E+0	1.655188E+0	1.486265E+0	1.595686E+0	1.581093E+0	1.619742E+0	1.537174E+0	1.544645E+0	1.475473E+0	1.558943E+0	1.553679E+0	1.494897E+0	1.563941E+0	1.482769E+0	1.617111E+0	1.514494E+0	1.472975E+0	1.553674E+0	1.560412E+0	1.469865E+0	1.452474E+0	1.595215E+0	1.536875E+0	1.457804E+0	1.491120E+0	1.584891E+0	1.497158E+0	1.518782E+0	1.511715E+0	1.670642E+0	1.520782E+0
5.452580E+2	1.389916E+0	1.439191E+0	1.433707E+0	1.444036E+0	1.412909E+0	1.367552E+0	1.406578E+0	1.383408E+0	1.398035E+0	1.360564E+0	1.393883E+0	1.457023E+0	1.413078E+0	1.397439E+0	1.424188E+0	1.401774E+0	1.414646E+0	1.387385E+0	1.411553E+0	1.405462E+0	1.431331E+0	1.405434E+0	1.424234E+0	1.500500E+0	1.398797E+0	1.413540E+0	1.411047E+0	1.454522E+0	1.376359E+0	1.455224E+0	1.405681E+0	1.440950E+0	1.425308E+0	1.412284E+0	1.398989E+0	1.450785E+0	1.485748E+0	1.460245E+0	1.417812E+0	1.411735E+0	1.415149E+0	1.407538E+0	1.416033E+0	1.443708E+0	1.410128E+0	1.375280E+0	1.404612E+0	1.408300E+0	1.421632E+0	1.317517E+0	1.432840E+0	1.417971E+0	1.377975E+0	1.392617E+0	1.353317E+0	1.456030E+0	1.386791E+0	1.452908E+0	1.412125E+0	1.480598E+0	1.429377E+0	1.413557E+0	1.325663E+0	1.376742E+0	1.441771E+0	1.429684E+0	1.428219E+0	1.357850E+0	1.361668E+0	1.413955E+0	1.420123E+0	1.478067E+0	1.433587E+0	1.366506E+0	1.409487E+0	1.372474E+0	1.458319E+0	1.442294E+0	1.414216E+0	1.383879E+0	1.430293E+0	1.367673E+0	1.360978E+0	1.418860E+0	1.451433E+0	1.381577E+0	1.418437E+0	1.414152E+0	1.449504E+0	1.404144E+0	1.345416E+0	1.414846E+0	1.381470E+0	1.363854E+0	1.378554E+0	1.419270E+0	1.422076E+0	1.354410E+0	1.404016E+0	1.365837E+0	1.374745E+0	1.388004E+0	1.341067E+0	1.389952E+0	1.466911E+0	1.358763E+0	1.428137E+0	1.553694E+0	1.378443E+0	1.405802E+0	1.349276E+0	1.459276E+0	1.397905E+0	1.318710E+0	1.381067E+0	1.426352E+0	1.451459E+0	1.396955E+0	1.406667E+0	1.431164E+0	1.360043E+0	1.429731E+0	1.406877E+0	1.462965E+0	1.429816E+0	1.365431E+0	1.366355E+0	1.409103E+0	1.434078E+0	1.361659E+0	1.441114E+0	1.415759E+0	1.429951E+0	1.425796E+0	1.442634E+0	1.394954E+0	1.369379E+0	1.384295E+0	1.416513E+0	1.372002E+0	1.506820E+0	1.339530E+0	1.395813E+0	1.417671E+0	1.458676E+0	1.358441E+0	1.403888E+0	1.396335E+0	1.424179E+0	1.340225E+0	1.341443E+0	1.406855E+0	1.446534E+0	1.333203E+0	1.290384E+0	1.410730E+0	1.404799E+0	1.365720E+0	1.357541E+0	1.388802E+0	1.395017E+0	1.331297E+0	1.378468E+0	1.488250E+0	1.412412E+0
5.455130E+2	1.407555E+0	1.501469E+0	1.419344E+0	1.442734E+0	1.499002E+0	1.431455E+0	1.408666E+0	1.431271E+0	1.414807E+0	1.404193E+0	1.398505E+0	1.414953E+0	1.502841E+0	1.477259E+0	1.444788E+0	1.413617E+0	1.471032E+0	1.418569E+0	1.406887E+0	1.413792E+0	1.439685E+0	1.430088E+0	1.388838E+0	1.436175E+0	1.435989E+0	1.365165E+0	1.430258E+0	1.440576E+0	1.445941E+0	1.418853E+0	1.424839E+0	1.406427E+0	1.427334E+0	1.410711E+0	1.440720E+0	1.492622E+0	1.461906E+0	1.414393E+0	1.412565E+0	1.496747E+0	1.403364E+0	1.478100E+0	1.410905E+0	1.461639E+0	1.407743E+0	1.459173E+0	1.450846E+0	1.470914E+0	1.492736E+0	1.440540E+0	1.439130E+0	1.432808E+0	1.427057E+0	1.456958E+0	1.426065E+0	1.519493E+0	1.447009E+0	1.419492E+0	1.351798E+0	1.427810E+0	1.483781E+0	1.434802E+0	1.419929E+0	1.431386E+0	1.468085E+0	1.422611E+0	1.367493E+0	1.396300E+0	1.378483E+0	1.382955E+0	1.411804E+0	1.485814E+0	1.423576E+0	1.385757E+0	1.422203E+0	1.421267E+0	1.541865E+0	1.369793E+0	1.478607E+0	1.451297E+0	1.418062E+0	1.377778E+0	1.449928E+0	1.420887E+0	1.471947E+0	1.414455E+0	1.476752E+0	1.424387E+0	1.454726E+0	1.423743E+0	1.473520E+0	1.411997E+0	1.398302E+0	1.411194E+0	1.442823E+0	1.444232E+0	1.500350E+0	1.355587E+0	1.498759E+0	1.369589E+0	1.386765E+0	1.429831E+0	1.414383E+0	1.403902E+0	1.456167E+0	1.395404E+0	1.401466E+0	1.479227E+0	1.448552E+0	1.383178E+0	1.444628E+0	1.396916E+0	1.410908E+0	1.345790E+0	1.432183E+0	1.454547E+0	1.391171E+0	1.444651E+0	1.401006E+0	1.491548E+0	1.377900E+0	1.438685E+0	1.399673E+0	1.457114E+0	1.446532E+0	1.374724E+0	1.462110E+0	1.425609E+0	1.406260E+0	1.387487E+0	1.413561E+0	1.415389E+0	1.443131E+0	1.426824E+0	1.413473E+0	1.437111E+0	1.418943E+0	1.323891E+0	1.405856E+0	1.421520E+0	1.379681E+0	1.367522E+0	1.445593E+0	1.409834E+0	1.488587E+0	1.401538E+0	1.435246E+0	1.405569E+0	1.475889E+0	1.416378E+0	1.415190E+0	1.441835E+0	1.378659E+0	1.435513E+0	1.301891E+0	1.451590E+0	1.452765E+0	1.433677E+0	1.414690E+0	1.476864E+0	1.378615E+0	1.397392E+0	1.402647E+0	1.552382E+0	1.421498E+0
5.457670E+2	1.345475E+0	1.409701E+0	1.392323E+0	1.380922E+0	1.394344E+0	1.288199E+0	1.317821E+0	1.362123E+0	1.304591E+0	1.371528E+0	1.347618E+0	1.395501E+0	1.347157E+0	1.363348E+0	1.387308E+0	1.348389E+0	1.419435E+0	1.337098E+0	1.340394E+0	1.337022E+0	1.333414E+0	1.332028E+0	1.344669E+0	1.297975E+0	1.413133E+0	1.360589E+0	1.358914E+0	1.368162E+0	1.345329E+0	1.307691E+0	1.393335E+0	1.356401E+0	1.335555E+0	1.330464E+0	1.342528E+0	1.327342E+0	1.374456E+0	1.381326E+0	1.378566E+0	1.290387E+0	1.380763E+0	1.323155E+0	1.378302E+0	1.338254E+0	1.355160E+0	1.339049E+0	1.293614E+0	1.373596E+0	1.400325E+0	1.345891E+0	1.283508E+0	1.386552E+0	1.385739E+0	1.342963E+0	1.335529E+0	1.305954E+0	1.337640E+0	1.383630E+0	1.311692E+0	1.367264E+0	1.339529E+0	1.315360E+0	1.290536E+0	1.346668E+0	1.356085E+0	1.289609E+0	1.379832E+0	1.404535E+0	1.342947E+0	1.281759E+0	1.298146E+0	1.328364E+0	1.407212E+0	1.328691E+0	1.339763E+0	1.351384E+0	1.455598E+0	1.327799E+0	1.278467E+0	1.354821E+0	1.375249E+0	1.376294E+0	1.320850E+0	1.378124E+0	1.368248E+0	1.297214E+0	1.355460E+0	1.338771E+0	1.381302E+0	1.314350E+0	1.337663E+0	1.405547E+0	1.324393E+0	1.369222E+0	1.310999E+0	1.307927E+0	1.318653E+0	1.338890E+0	1.382863E+0	1.311611E+0	1.376395E+0	1.317857E+0	1.307566E+0	1.343526E+0	1.329716E+0	1.393004E+0	1.302440E+0	1.390640E+0	1.284131E+0	1.341613E+0	1.353963E+0	1.366139E+0	1.400303E+0	1.304570E+0	1.363472E+0	1.382068E+0	1.353378E+0	1.300808E+0	1.375465E+0	1.397177E+0	1.296384E+0	1.338725E+0	1.299182E+0	1.268584E+0	1.324755E+0	1.406952E+0	1.332578E+0	1.393503E+0	1.378876E+0	1.329426E+0	1.363997E+0	1.366673E+0	1.296714E+0	1.389475E+0	1.354804E+0	1.379312E+0	1.306192E+0	1.335376E+0	1.318888E+0	1.358071E+0	1.286113E+0	1.301647E+0	1.296537E+0	1.393962E+0	1.383985E+0	1.309150E+0	1.423085E+0	1.336720E+0	1.408931E+0	1.331890E+0	1.405554E+0	1.307415E+0	1.385726E+0	1.275029E+0	1.318508E+0	1.357037E+0	1.280351E+0	1.243804E+0	1.305434E+0	1.337157E+0	1.329999E+0	1.300235E+0	1.333438E+0	1.377953E+0	1.311532E+0
5.460060E+2	1.279086E+0	1.357938E+0	1.238413E+0	1.334015E+0	1.269720E+0	1.330381E+0	1.240301E+0	1.295671E+0	1.290627E+0	1.284836E+0	1.287089E+0	1.288359E+0	1.272489E+0	1.291665E+0	1.298807E+0	1.281021E+0	1.339114E+0	1.276610E+0	1.314523E+0	1.244978E+0	1.254362E+0	1.261913E+0	1.278192E+0	1.258485E+0	1.319702E+0	1.254460E+0	1.227346E+0	1.301336E+0	1.328786E+0	1.265438E+0	1.281808E+0	1.270224E+0	1.261003E+0	1.281183E+0	1.273338E+0	1.352344E+0	1.327179E+0	1.275835E+0	1.319384E+0	1.250972E+0	1.310788E+0	1.291417E+0	1.326390E+0	1.337382E+0	1.248601E+0	1.264242E+0	1.287144E+0	1.321328E+0	1.226492E+0	1.281537E+0	1.245643E+0	1.254302E+0	1.337721E+0	1.282468E+0	1.266815E+0	1.307197E+0	1.278675E+0	1.348116E+0	1.255560E+0	1.228709E+0	1.291124E+0	1.247744E+0	1.224782E+0	1.242807E+0	1.385533E+0	1.308460E+0	1.297749E+0	1.280038E+0	1.299656E+0	1.237358E+0	1.286492E+0	1.293040E+0	1.317630E+0	1.255688E+0	1.206459E+0	1.283263E+0	1.359036E+0	1.233705E+0	1.227269E+0	1.329769E+0	1.261767E+0	1.255717E+0	1.285675E+0	1.330869E+0	1.245510E+0	1.263027E+0	1.296026E+0	1.298628E+0	1.266311E+0	1.276700E+0	1.284087E+0	1.282029E+0	1.306672E+0	1.199744E+0	1.232001E+0	1.234009E+0	1.305379E+0	1.200355E+0	1.249861E+0	1.269754E+0	1.264904E+0	1.284068E+0	1.271905E+0	1.293008E+0	1.322982E+0	1.281415E+0	1.245433E+0	1.303428E+0	1.285551E+0	1.266931E+0	1.292007E+0	1.254657E+0	1.309649E+0	1.282394E+0	1.236085E+0	1.296168E+0	1.273144E+0	1.278383E+0	1.262653E+0	1.358827E+0	1.231480E+0	1.284629E+0	1.241966E+0	1.321804E+0	1.275224E+0	1.269164E+0	1.361951E+0	1.307562E+0	1.289857E+0	1.216862E+0	1.291125E+0	1.268881E+0	1.266526E+0	1.269067E+0	1.287008E+0	1.312481E+0	1.250140E+0	1.240861E+0	1.274919E+0	1.341156E+0	1.288762E+0	1.223983E+0	1.258866E+0	1.326632E+0	1.339551E+0	1.257373E+0	1.292827E+0	1.289629E+0	1.303980E+0	1.217531E+0	1.320178E+0	1.256748E+0	1.300319E+0	1.276173E+0	1.213241E+0	1.281238E+0	1.252391E+0	1.282757E+0	1.278944E+0	1.313892E+0	1.181340E+0	1.181358E+0	1.178785E+0	1.311442E+0	1.171830E+0
5.467600E+2	1.234411E+0	1.256489E+0	1.275495E+0	1.264718E+0	1.228384E+0	1.286276E+0	1.245380E+0	1.253019E+0	1.244189E+0	1.241826E+0	1.273484E+0	1.246796E+0	1.276773E+0	1.309903E+0	1.240405E+0	1.264395E+0	1.308132E+0	1.279081E+0	1.230896E+0	1.208080E+0	1.267124E+0	1.261663E+0	1.260437E+0	1.238498E+0	1.245880E+0	1.232239E+0	1.200729E+0	1.239327E+0	1.208422E+0	1.212108E+0	1.249879E+0	1.310274E+0	1.269568E+0	1.259643E+0	1.258442E+0	1.280557E+0	1.256207E+0	1.228126E+0	1.200573E+0	1.205418E+0	1.224186E+0	1.255048E+0	1.276594E+0	1.195333E+0	1.224820E+0	1.224639E+0	1.220024E+0	1.282316E+0	1.328976E+0	1.274500E+0	1.286210E+0	1.217186E+0	1.205996E+0	1.224812E+0	1.252355E+0	1.212811E+0	1.210584E+0	1.269887E+0	1.200533E+0	1.185262E+0	1.206857E+0	1.225298E+0	1.173450E+0	1.255132E+0	1.286234E+0	1.235405E+0	1.208669E+0	1.231485E+0	1.246819E+0	1.176903E+0	1.235077E+0	1.246810E+0	1.307944E+0	1.247685E+0	1.234325E+0	1.220644E+0	1.238239E+0	1.215115E+0	1.216058E+0	1.278911E+0	1.243339E+0	1.186546E+0	1.250888E+0	1.223500E+0	1.269095E+0	1.258349E+0	1.267212E+0	1.233755E+0	1.247415E+0	1.242697E+0	1.199119E+0	1.288103E+0	1.208069E+0	1.237006E+0	1.222126E+0	1.311380E+0	1.268509E+0	1.243337E+0	1.231200E+0	1.327816E+0	1.223949E+0	1.225911E+0	1.257633E+0	1.260214E+0	1.244264E+0	1.171377E+0	1.183608E+0	1.349591E+0	1.271256E+0	1.246933E+0	1.261040E+0	1.273225E+0	1.235622E+0	1.188572E+0	1.247540E+0	1.233159E+0	1.254335E+0	1.281511E+0	1.241881E+0	1.220225E+0	1.220325E+0	1.240401E+0	1.172534E+0	1.244961E+0	1.257948E+0	1.189486E+0	1.235952E+0	1.293722E+0	1.284125E+0	1.176430E+0	1.223967E+0	1.252076E+0	1.243683E+0	1.218403E+0	1.230914E+0	1.248298E+0	1.263582E+0	1.211343E+0	1.221184E+0	1.242503E+0	1.243622E+0	1.208914E+0	1.195140E+0	1.223147E+0	1.295456E+0	1.272919E+0	1.201288E+0	1.249713E+0	1.201023E+0	1.199774E+0	1.250630E+0	1.289271E+0	1.315298E+0	1.167910E+0	1.213472E+0	1.302849E+0	1.176651E+0	1.207349E+0	1.244946E+0	1.249300E+0	1.219523E+0	1.255888E+0	1.270448E+0	1.321903E+0	1.208245E+0
5.475280E+2	1.285140E+0	1.328524E+0	1.322354E+0	1.293711E+0	1.293800E+0	1.274809E+0	1.311038E+0	1.274624E+0	1.311364E+0	1.376481E+0	1.352230E+0	1.307733E+0	1.334872E+0	1.271586E+0	1.342369E+0	1.307928E+0	1.319046E+0	1.362573E+0	1.273348E+0	1.368136E+0	1.310050E+0	1.299006E+0	1.287077E+0	1.263151E+0	1.311850E+0	1.296767E+0	1.264586E+0	1.333517E+0	1.326348E+0	1.315057E+0	1.275894E+0	1.353990E+0	1.328815E+0	1.340589E+0	1.345581E+0	1.297490E+0	1.354653E+0	1.313534E+0	1.271433E+0	1.296552E+0	1.292738E+0	1.336228E+0	1.353741E+0	1.273679E+0	1.341563E+0	1.306115E+0	1.272766E+0	1.342694E+0	1.287667E+0	1.287871E+0	1.309127E+0	1.319965E+0	1.255554E+0	1.309980E+0	1.312866E+0	1.300135E+0	1.302414E+0	1.285000E+0	1.216654E+0	1.310179E+0	1.333150E+0	1.287763E+0	1.296595E+0	1.294404E+0	1.289196E+0	1.333088E+0	1.197106E+0	1.293289E+0	1.233808E+0	1.248395E+0	1.332321E+0	1.329696E+0	1.319141E+0	1.271839E+0	1.366382E+0	1.284827E+0	1.344193E+0	1.292780E+0	1.305407E+0	1.298105E+0	1.355326E+0	1.327883E+0	1.309212E+0	1.291252E+0	1.296225E+0	1.309943E+0	1.364400E+0	1.288815E+0	1.327221E+0	1.269641E+0	1.264867E+0	1.331392E+0	1.284507E+0	1.304724E+0	1.308290E+0	1.280011E+0	1.327385E+0	1.257549E+0	1.349700E+0	1.283207E+0	1.292953E+0	1.310082E+0	1.256133E+0	1.318149E+0	1.284071E+0	1.264463E+0	1.284149E+0	1.372234E+0	1.348396E+0	1.296599E+0	1.393665E+0	1.380608E+0	1.322026E+0	1.210295E+0	1.318307E+0	1.282654E+0	1.254704E+0	1.263107E+0	1.298433E+0	1.314706E+0	1.284378E+0	1.278892E+0	1.290229E+0	1.318657E+0	1.238926E+0	1.255658E+0	1.216620E+0	1.265690E+0	1.328396E+0	1.252670E+0	1.341206E+0	1.318346E+0	1.341457E+0	1.357412E+0	1.336138E+0	1.305271E+0	1.296165E+0	1.335564E+0	1.284210E+0	1.298788E+0	1.356779E+0	1.286205E+0	1.297697E+0	1.270947E+0	1.358815E+0	1.325636E+0	1.269646E+0	1.263058E+0	1.284452E+0	1.203132E+0	1.332187E+0	1.259972E+0	1.345824E+0	1.251483E+0	1.263424E+0	1.316936E+0	1.276191E+0	1.227555E+0	1.239276E+0	1.298222E+0	1.239903E+0	1.266361E+0	1.301118E+0	1.381174E+0	1.213898E+0
5.482600E+2	1.407492E+0	1.467025E+0	1.386252E+0	1.378208E+0	1.449836E+0	1.366159E+0	1.410001E+0	1.439014E+0	1.449792E+0	1.377405E+0	1.443390E+0	1.422586E+0	1.356556E+0	1.470603E+0	1.403950E+0	1.379533E+0	1.437632E+0	1.380716E+0	1.381034E+0	1.453953E+0	1.436124E+0	1.379020E+0	1.357947E+0	1.373961E+0	1.495836E+0	1.447420E+0	1.374570E+0	1.422466E+0	1.378031E+0	1.335032E+0	1.381275E+0	1.359181E+0	1.432075E+0	1.430164E+0	1.413797E+0	1.405033E+0	1.416008E+0	1.459769E+0	1.409098E+0	1.495352E+0	1.411414E+0	1.406994E+0	1.428195E+0	1.386594E+0	1.449764E+0	1.379208E+0	1.394299E+0	1.438479E+0	1.488595E+0	1.476965E+0	1.356363E+0	1.414379E+0	1.410561E+0	1.419087E+0	1.465140E+0	1.432520E+0	1.439278E+0	1.405085E+0	1.353329E+0	1.403879E+0	1.424363E+0	1.362149E+0	1.370895E+0	1.380892E+0	1.461647E+0	1.377905E+0	1.433470E+0	1.416797E+0	1.411289E+0	1.383974E+0	1.401477E+0	1.395346E+0	1.355197E+0	1.393364E+0	1.423098E+0	1.395339E+0	1.483364E+0	1.373499E+0	1.388261E+0	1.379595E+0	1.366894E+0	1.374617E+0	1.406473E+0	1.372436E+0	1.462244E+0	1.420447E+0	1.426248E+0	1.428853E+0	1.417985E+0	1.445608E+0	1.386429E+0	1.333923E+0	1.424699E+0	1.385927E+0	1.356043E+0	1.334889E+0	1.420740E+0	1.306439E+0	1.380526E+0	1.454628E+0	1.399432E+0	1.382494E+0	1.376728E+0	1.399404E+0	1.371145E+0	1.378278E+0	1.400558E+0	1.451942E+0	1.446997E+0	1.402083E+0	1.391842E+0	1.462872E+0	1.371780E+0	1.366203E+0	1.446723E+0	1.440522E+0	1.397861E+0	1.416586E+0	1.404574E+0	1.437930E+0	1.377291E+0	1.392910E+0	1.423161E+0	1.397682E+0	1.460094E+0	1.303330E+0	1.414408E+0	1.466846E+0	1.464287E+0	1.360886E+0	1.365137E+0	1.352096E+0	1.366658E+0	1.398327E+0	1.411238E+0	1.380603E+0	1.416351E+0	1.388875E+0	1.373609E+0	1.420406E+0	1.450131E+0	1.356761E+0	1.350291E+0	1.362330E+0	1.379154E+0	1.372270E+0	1.358928E+0	1.400437E+0	1.389855E+0	1.415954E+0	1.395904E+0	1.391787E+0	1.339568E+0	1.373174E+0	1.368783E+0	1.396166E+0	1.337280E+0	1.376402E+0	1.345205E+0	1.328939E+0	1.355142E+0	1.305690E+0	1.393552E+0	1.441826E+0	1.348396E+0
5.490100E+2	1.310721E+0	1.435537E+0	1.306070E+0	1.351361E+0	1.347935E+0	1.348434E+0	1.314185E+0	1.314592E+0	1.377933E+0	1.368249E+0	1.403038E+0	1.337738E+0	1.337112E+0	1.369196E+0	1.276219E+0	1.366942E+0	1.422485E+0	1.351232E+0	1.300881E+0	1.342195E+0	1.330486E+0	1.320136E+0	1.347215E+0	1.294510E+0	1.374718E+0	1.321652E+0	1.376964E+0	1.374785E+0	1.325787E+0	1.355279E+0	1.368420E+0	1.387265E+0	1.416770E+0	1.389037E+0	1.328305E+0	1.378816E+0	1.371798E+0	1.344564E+0	1.350500E+0	1.341448E+0	1.315454E+0	1.325802E+0	1.338413E+0	1.364337E+0	1.363662E+0	1.312402E+0	1.321820E+0	1.346003E+0	1.369451E+0	1.340878E+0	1.341599E+0	1.385335E+0	1.391799E+0	1.399962E+0	1.324713E+0	1.366493E+0	1.287282E+0	1.352513E+0	1.354445E+0	1.297130E+0	1.377359E+0	1.315472E+0	1.317908E+0	1.334484E+0	1.358743E+0	1.337524E+0	1.408329E+0	1.331500E+0	1.318855E+0	1.313283E+0	1.358248E+0	1.363482E+0	1.377009E+0	1.326430E+0	1.283364E+0	1.284197E+0	1.353298E+0	1.307839E+0	1.329178E+0	1.375847E+0	1.375860E+0	1.348990E+0	1.310474E+0	1.299431E+0	1.342928E+0	1.345127E+0	1.366719E+0	1.325962E+0	1.402931E+0	1.330138E+0	1.286840E+0	1.375424E+0	1.428538E+0	1.304909E+0	1.316430E+0	1.343895E+0	1.318895E+0	1.331173E+0	1.363820E+0	1.371063E+0	1.396711E+0	1.308411E+0	1.353130E+0	1.304015E+0	1.351441E+0	1.283261E+0	1.352500E+0	1.379310E+0	1.337918E+0	1.355782E+0	1.370611E+0	1.314236E+0	1.373420E+0	1.204340E+0	1.332412E+0	1.339386E+0	1.338601E+0	1.350170E+0	1.368918E+0	1.328141E+0	1.270099E+0	1.376805E+0	1.262717E+0	1.327030E+0	1.385421E+0	1.285456E+0	1.296760E+0	1.326946E+0	1.336381E+0	1.313924E+0	1.390789E+0	1.296919E+0	1.333441E+0	1.343019E+0	1.346146E+0	1.329808E+0	1.273726E+0	1.304218E+0	1.308864E+0	1.412919E+0	1.357049E+0	1.291336E+0	1.335813E+0	1.389203E+0	1.336551E+0	1.307725E+0	1.316496E+0	1.243251E+0	1.339496E+0	1.295684E+0	1.302798E+0	1.288737E+0	1.340446E+0	1.317423E+0	1.271208E+0	1.347186E+0	1.343767E+0	1.296732E+0	1.324378E+0	1.381468E+0	1.280848E+0	1.282817E+0	1.346657E+0	1.403278E+0	1.225159E+0
5.497520E+2	1.289379E+0	1.337450E+0	1.301537E+0	1.218247E+0	1.228234E+0	1.270913E+0	1.258134E+0	1.296274E+0	1.280948E+0	1.280464E+0	1.295411E+0	1.294805E+0	1.278316E+0	1.314419E+0	1.300731E+0	1.277058E+0	1.292008E+0	1.269744E+0	1.317029E+0	1.276113E+0	1.328084E+0	1.253233E+0	1.254135E+0	1.250481E+0	1.310919E+0	1.228014E+0	1.272586E+0	1.292313E+0	1.208143E+0	1.273202E+0	1.276325E+0	1.263402E+0	1.298978E+0	1.273354E+0	1.257941E+0	1.247435E+0	1.294349E+0	1.302908E+0	1.277783E+0	1.311507E+0	1.271728E+0	1.275181E+0	1.280047E+0	1.304005E+0	1.284843E+0	1.289586E+0	1.277298E+0	1.232883E+0	1.312843E+0	1.243776E+0	1.258228E+0	1.288238E+0	1.245443E+0	1.215876E+0	1.301758E+0	1.281192E+0	1.248696E+0	1.308032E+0	1.271084E+0	1.282529E+0	1.303179E+0	1.249289E+0	1.217390E+0	1.273180E+0	1.323547E+0	1.296991E+0	1.218043E+0	1.242045E+0	1.237394E+0	1.272296E+0	1.270392E+0	1.264270E+0	1.282325E+0	1.258961E+0	1.209324E+0	1.318623E+0	1.335643E+0	1.203845E+0	1.275600E+0	1.237382E+0	1.357878E+0	1.280705E+0	1.267965E+0	1.306974E+0	1.327942E+0	1.294324E+0	1.292777E+0	1.317722E+0	1.304870E+0	1.329676E+0	1.281829E+0	1.247382E+0	1.282311E+0	1.270343E+0	1.285987E+0	1.299342E+0	1.284440E+0	1.326338E+0	1.337061E+0	1.246199E+0	1.294849E+0	1.274153E+0	1.271331E+0	1.290613E+0	1.285316E+0	1.259648E+0	1.245151E+0	1.285066E+0	1.320672E+0	1.247105E+0	1.252858E+0	1.274444E+0	1.343682E+0	1.200217E+0	1.306618E+0	1.257250E+0	1.286248E+0	1.278263E+0	1.273306E+0	1.276077E+0	1.227209E+0	1.307333E+0	1.283020E+0	1.249030E+0	1.307270E+0	1.205070E+0	1.242866E+0	1.246466E+0	1.262311E+0	1.225394E+0	1.233940E+0	1.237135E+0	1.246640E+0	1.280648E+0	1.262438E+0	1.281012E+0	1.360134E+0	1.327700E+0	1.180228E+0	1.249891E+0	1.251296E+0	1.245487E+0	1.307845E+0	1.238125E+0	1.344019E+0	1.226130E+0	1.253083E+0	1.206191E+0	1.298760E+0	1.228151E+0	1.220705E+0	1.251914E+0	1.271721E+0	1.254519E+0	1.241776E+0	1.253390E+0	1.290124E+0	1.200638E+0	1.233315E+0	1.275618E+0	1.302923E+0	1.191424E+0	1.228558E+0	1.414093E+0	1.231033E+0
5.505110E+2	1.337537E+0	1.391889E+0	1.294639E+0	1.258321E+0	1.312682E+0	1.273259E+0	1.283941E+0	1.274586E+0	1.313155E+0	1.278944E+0	1.271829E+0	1.277102E+0	1.312467E+0	1.278792E+0	1.343081E+0	1.306781E+0	1.371805E+0	1.301920E+0	1.265817E+0	1.314135E+0	1.290530E+0	1.263296E+0	1.287162E+0	1.281519E+0	1.304813E+0	1.270352E+0	1.271599E+0	1.327559E+0	1.283226E+0	1.295320E+0	1.280910E+0	1.328900E+0	1.242445E+0	1.312520E+0	1.247351E+0	1.308887E+0	1.299873E+0	1.366065E+0	1.258647E+0	1.316549E+0	1.277077E+0	1.251814E+0	1.323015E+0	1.310925E+0	1.346850E+0	1.227911E+0	1.321552E+0	1.224936E+0	1.342220E+0	1.295193E+0	1.239708E+0	1.318138E+0	1.303775E+0	1.249271E+0	1.267942E+0	1.344725E+0	1.248730E+0	1.316226E+0	1.274395E+0	1.282018E+0	1.345988E+0	1.208338E+0	1.242766E+0	1.297758E+0	1.313726E+0	1.261718E+0	1.310799E+0	1.271851E+0	1.319976E+0	1.251460E+0	1.333422E+0	1.273498E+0	1.333967E+0	1.313358E+0	1.269056E+0	1.312388E+0	1.341109E+0	1.240537E+0	1.274033E+0	1.253897E+0	1.313002E+0	1.318600E+0	1.200934E+0	1.353766E+0	1.260214E+0	1.326848E+0	1.335327E+0	1.282384E+0	1.371939E+0	1.304232E+0	1.326721E+0	1.301539E+0	1.319867E+0	1.264320E+0	1.251011E+0	1.243274E+0	1.275370E+0	1.279940E+0	1.300787E+0	1.271861E+0	1.290232E+0	1.322561E+0	1.252338E+0	1.240414E+0	1.299047E+0	1.234733E+0	1.296881E+0	1.323099E+0	1.281445E+0	1.286379E+0	1.306339E+0	1.284231E+0	1.363703E+0	1.211260E+0	1.302233E+0	1.300011E+0	1.307489E+0	1.261499E+0	1.306168E+0	1.284193E+0	1.277653E+0	1.259924E+0	1.252308E+0	1.324265E+0	1.351254E+0	1.275185E+0	1.317409E+0	1.357882E+0	1.343922E+0	1.291414E+0	1.330882E+0	1.343413E+0	1.264877E+0	1.313180E+0	1.299170E+0	1.291747E+0	1.387718E+0	1.257994E+0	1.311234E+0	1.344933E+0	1.270526E+0	1.227787E+0	1.266873E+0	1.253111E+0	1.326733E+0	1.258058E+0	1.349042E+0	1.280650E+0	1.310623E+0	1.256403E+0	1.288755E+0	1.280155E+0	1.329758E+0	1.339912E+0	1.314206E+0	1.306736E+0	1.261378E+0	1.308138E+0	1.259221E+0	1.263810E+0	1.218344E+0	1.249283E+0	1.187287E+0	1.330366E+0	1.223108E+0
5.512570E+2	1.312807E+0	1.294650E+0	1.291957E+0	1.321456E+0	1.280322E+0	1.339672E+0	1.264455E+0	1.287227E+0	1.264190E+0	1.310089E+0	1.326119E+0	1.338652E+0	1.350224E+0	1.323766E+0	1.301635E+0	1.311937E+0	1.328277E+0	1.309128E+0	1.270842E+0	1.309304E+0	1.295286E+0	1.291700E+0	1.260153E+0	1.308274E+0	1.303712E+0	1.319749E+0	1.318102E+0	1.314018E+0	1.267054E+0	1.234275E+0	1.321705E+0	1.350203E+0	1.318371E+0	1.342732E+0	1.321638E+0	1.271843E+0	1.284864E+0	1.253708E+0	1.304814E+0	1.344100E+0	1.326940E+0	1.308888E+0	1.290122E+0	1.275746E+0	1.305830E+0	1.335837E+0	1.290775E+0	1.261872E+0	1.352891E+0	1.352647E+0	1.314572E+0	1.301617E+0	1.266622E+0	1.324973E+0	1.274262E+0	1.323962E+0	1.280159E+0	1.357232E+0	1.289020E+0	1.249505E+0	1.373254E+0	1.312992E+0	1.256734E+0	1.309246E+0	1.270619E+0	1.307849E+0	1.297262E+0	1.303179E+0	1.333123E+0	1.244198E+0	1.282575E+0	1.352963E+0	1.322405E+0	1.269140E+0	1.343726E+0	1.304729E+0	1.369128E+0	1.260569E+0	1.286033E+0	1.310134E+0	1.366715E+0	1.324834E+0	1.228403E+0	1.289278E+0	1.301676E+0	1.328797E+0	1.412174E+0	1.274589E+0	1.335607E+0	1.309569E+0	1.305709E+0	1.242733E+0	1.285886E+0	1.293469E+0	1.268559E+0	1.279154E+0	1.370164E+0	1.240557E+0	1.319083E+0	1.346184E+0	1.336759E+0	1.316812E+0	1.333925E+0	1.287815E+0	1.315622E+0	1.265483E+0	1.340520E+0	1.345303E+0	1.349487E+0	1.298426E+0	1.299366E+0	1.293374E+0	1.389725E+0	1.258702E+0	1.329883E+0	1.298758E+0	1.318215E+0	1.266184E+0	1.321216E+0	1.314343E+0	1.260573E+0	1.274301E+0	1.280299E+0	1.308377E+0	1.331945E+0	1.277795E+0	1.280661E+0	1.323184E+0	1.310785E+0	1.284717E+0	1.324722E+0	1.300073E+0	1.353305E+0	1.278907E+0	1.272025E+0	1.296632E+0	1.301786E+0	1.212327E+0	1.270783E+0	1.264196E+0	1.295568E+0	1.262190E+0	1.327464E+0	1.285916E+0	1.280542E+0	1.267216E+0	1.359061E+0	1.236115E+0	1.327268E+0	1.264422E+0	1.250720E+0	1.215519E+0	1.337564E+0	1.333389E+0	1.272026E+0	1.316070E+0	1.274525E+0	1.325736E+0	1.283094E+0	1.296284E+0	1.235828E+0	1.228538E+0	1.224972E+0	1.409475E+0	1.286683E+0
5.520150E+2	1.249302E+0	1.307885E+0	1.246121E+0	1.197465E+0	1.193140E+0	1.203796E+0	1.174699E+0	1.263368E+0	1.247448E+0	1.237373E+0	1.207151E+0	1.266160E+0	1.244752E+0	1.228662E+0	1.229624E+0	1.243777E+0	1.295604E+0	1.208792E+0	1.238151E+0	1.262897E+0	1.284553E+0	1.279192E+0	1.254959E+0	1.230600E+0	1.192219E+0	1.256122E+0	1.254937E+0	1.295465E+0	1.266277E+0	1.195237E+0	1.214943E+0	1.205996E+0	1.222076E+0	1.262690E+0	1.193776E+0	1.288830E+0	1.265938E+0	1.212887E+0	1.263853E+0	1.228244E+0	1.255043E+0	1.236638E+0	1.216524E+0	1.238869E+0	1.219035E+0	1.214605E+0	1.255914E+0	1.271329E+0	1.311473E+0	1.260517E+0	1.197244E+0	1.256606E+0	1.228341E+0	1.219073E+0	1.223295E+0	1.263606E+0	1.225585E+0	1.266492E+0	1.232646E+0	1.248812E+0	1.312125E+0	1.250302E+0	1.250322E+0	1.216566E+0	1.247474E+0	1.240557E+0	1.203127E+0	1.237809E+0	1.242099E+0	1.165662E+0	1.250776E+0	1.253637E+0	1.264468E+0	1.224294E+0	1.253687E+0	1.260414E+0	1.243348E+0	1.213641E+0	1.172800E+0	1.271145E+0	1.248067E+0	1.284957E+0	1.211311E+0	1.201562E+0	1.269998E+0	1.223837E+0	1.259250E+0	1.243910E+0	1.253509E+0	1.262394E+0	1.239475E+0	1.192583E+0	1.251033E+0	1.251232E+0	1.296468E+0	1.226794E+0	1.317075E+0	1.231873E+0	1.273006E+0	1.191573E+0	1.279413E+0	1.159080E+0	1.265265E+0	1.190203E+0	1.263081E+0	1.218062E+0	1.239746E+0	1.243013E+0	1.299539E+0	1.195509E+0	1.245746E+0	1.245411E+0	1.231098E+0	1.213609E+0	1.256598E+0	1.202167E+0	1.234830E+0	1.216901E+0	1.249607E+0	1.269473E+0	1.271570E+0	1.251906E+0	1.212704E+0	1.223392E+0	1.208034E+0	1.204865E+0	1.203942E+0	1.250137E+0	1.227663E+0	1.213826E+0	1.246378E+0	1.277074E+0	1.238423E+0	1.198375E+0	1.252616E+0	1.251430E+0	1.260210E+0	1.256384E+0	1.257024E+0	1.258355E+0	1.258471E+0	1.183476E+0	1.241215E+0	1.195987E+0	1.284918E+0	1.196752E+0	1.228276E+0	1.238838E+0	1.273373E+0	1.261886E+0	1.222626E+0	1.197190E+0	1.242781E+0	1.230229E+0	1.197131E+0	1.285384E+0	1.232441E+0	1.136626E+0	1.189070E+0	1.262708E+0	1.181105E+0	1.179559E+0	1.221289E+0	1.260175E+0	1.129083E+0
5.527700E+2	1.287767E+0	1.298321E+0	1.309456E+0	1.292320E+0	1.339565E+0	1.280511E+0	1.254782E+0	1.306599E+0	1.276664E+0	1.326965E+0	1.327699E+0	1.310345E+0	1.319115E+0	1.271341E+0	1.278533E+0	1.318092E+0	1.340954E+0	1.231284E+0	1.364858E+0	1.334048E+0	1.346695E+0	1.264419E+0	1.266022E+0	1.322156E+0	1.339704E+0	1.348280E+0	1.367765E+0	1.303493E+0	1.351816E+0	1.238870E+0	1.256833E+0	1.313627E+0	1.326456E+0	1.350123E+0	1.312423E+0	1.319197E+0	1.286110E+0	1.330173E+0	1.339552E+0	1.330211E+0	1.294730E+0	1.324532E+0	1.355337E+0	1.296585E+0	1.347628E+0	1.339417E+0	1.313654E+0	1.263299E+0	1.284863E+0	1.329713E+0	1.339003E+0	1.308047E+0	1.295264E+0	1.353267E+0	1.293495E+0	1.311899E+0	1.289731E+0	1.358160E+0	1.309699E+0	1.272005E+0	1.378036E+0	1.318848E+0	1.311127E+0	1.256323E+0	1.347855E+0	1.301626E+0	1.352307E+0	1.334235E+0	1.278169E+0	1.325635E+0	1.291685E+0	1.302442E+0	1.320552E+0	1.282651E+0	1.331624E+0	1.286093E+0	1.371352E+0	1.278772E+0	1.273272E+0	1.319227E+0	1.331667E+0	1.337163E+0	1.335940E+0	1.296348E+0	1.298932E+0	1.373590E+0	1.336172E+0	1.328414E+0	1.324502E+0	1.291414E+0	1.310113E+0	1.318387E+0	1.328720E+0	1.248915E+0	1.300335E+0	1.285492E+0	1.301668E+0	1.330433E+0	1.319887E+0	1.263083E+0	1.317356E+0	1.319715E+0	1.255856E+0	1.262794E+0	1.279544E+0	1.264082E+0	1.265599E+0	1.338941E+0	1.290888E+0	1.312839E+0	1.296631E+0	1.292323E+0	1.352226E+0	1.219497E+0	1.339920E+0	1.304224E+0	1.307509E+0	1.348442E+0	1.268945E+0	1.387396E+0	1.328674E+0	1.312363E+0	1.322261E+0	1.292442E+0	1.341800E+0	1.360617E+0	1.263196E+0	1.287428E+0	1.343823E+0	1.290664E+0	1.284195E+0	1.297544E+0	1.301680E+0	1.339566E+0	1.261324E+0	1.276319E+0	1.316207E+0	1.306124E+0	1.352552E+0	1.311709E+0	1.321117E+0	1.275707E+0	1.296375E+0	1.288995E+0	1.338496E+0	1.306275E+0	1.353551E+0	1.313384E+0	1.301522E+0	1.225947E+0	1.296480E+0	1.176599E+0	1.299087E+0	1.316034E+0	1.216013E+0	1.305790E+0	1.333243E+0	1.308010E+0	1.308120E+0	1.271374E+0	1.279631E+0	1.270049E+0	1.238248E+0	1.379703E+0	1.230300E+0
5.535330E+2	1.229533E+0	1.297054E+0	1.328550E+0	1.306421E+0	1.306319E+0	1.237710E+0	1.237386E+0	1.270451E+0	1.224982E+0	1.246356E+0	1.342776E+0	1.261556E+0	1.291443E+0	1.303101E+0	1.232546E+0	1.230910E+0	1.303666E+0	1.235968E+0	1.269436E+0	1.238724E+0	1.280653E+0	1.217546E+0	1.293323E+0	1.239723E+0	1.242522E+0	1.240891E+0	1.230138E+0	1.254414E+0	1.252235E+0	1.221210E+0	1.310036E+0	1.250373E+0	1.284226E+0	1.280374E+0	1.269343E+0	1.229476E+0	1.226236E+0	1.206310E+0	1.228326E+0	1.311858E+0	1.191825E+0	1.281701E+0	1.237622E+0	1.247791E+0	1.274616E+0	1.292564E+0	1.173289E+0	1.245073E+0	1.318919E+0	1.258232E+0	1.232123E+0	1.246871E+0	1.274722E+0	1.283558E+0	1.292038E+0	1.240683E+0	1.247662E+0	1.315165E+0	1.212499E+0	1.238165E+0	1.219865E+0	1.288314E+0	1.303080E+0	1.204638E+0	1.286553E+0	1.242317E+0	1.224700E+0	1.291393E+0	1.230819E+0	1.237946E+0	1.269122E+0	1.247892E+0	1.256620E+0	1.222673E+0	1.251732E+0	1.220128E+0	1.300668E+0	1.222337E+0	1.219510E+0	1.245781E+0	1.294481E+0	1.211990E+0	1.245876E+0	1.280062E+0	1.272489E+0	1.285997E+0	1.313530E+0	1.259071E+0	1.233709E+0	1.264744E+0	1.234620E+0	1.226386E+0	1.288875E+0	1.249441E+0	1.225790E+0	1.235019E+0	1.270864E+0	1.259939E+0	1.288815E+0	1.260628E+0	1.216410E+0	1.220088E+0	1.261246E+0	1.211552E+0	1.272455E+0	1.248034E+0	1.262303E+0	1.298930E+0	1.306853E+0	1.271017E+0	1.219177E+0	1.279607E+0	1.214023E+0	1.191218E+0	1.248313E+0	1.298713E+0	1.270870E+0	1.209167E+0	1.222568E+0	1.230949E+0	1.274478E+0	1.283140E+0	1.217174E+0	1.312894E+0	1.226033E+0	1.168505E+0	1.239757E+0	1.243820E+0	1.262148E+0	1.262807E+0	1.239532E+0	1.245629E+0	1.278479E+0	1.207123E+0	1.233666E+0	1.254000E+0	1.328802E+0	1.210065E+0	1.264602E+0	1.255241E+0	1.266721E+0	1.208315E+0	1.246636E+0	1.259402E+0	1.263010E+0	1.243332E+0	1.231273E+0	1.183827E+0	1.315754E+0	1.224963E+0	1.283492E+0	1.192807E+0	1.237837E+0	1.263946E+0	1.235495E+0	1.196601E+0	1.273867E+0	1.220314E+0	1.237566E+0	1.257871E+0	1.219345E+0	1.257643E+0	1.285450E+0	1.302145E+0	1.218825E+0
5.542700E+2	1.180239E+0	1.293025E+0	1.216473E+0	1.185700E+0	1.199134E+0	1.133191E+0	1.176809E+0	1.170809E+0	1.211680E+0	1.147001E+0	1.192687E+0	1.173620E+0	1.246017E+0	1.162032E+0	1.211126E+0	1.120336E+0	1.248477E+0	1.151003E+0	1.232405E+0	1.214702E+0	1.193193E+0	1.190677E+0	1.190985E+0	1.182967E+0	1.222419E+0	1.185276E+0	1.134193E+0	1.192241E+0	1.193791E+0	1.143094E+0	1.222525E+0	1.206320E+0	1.186887E+0	1.194457E+0	1.224746E+0	1.227556E+0	1.253109E+0	1.195816E+0	1.189363E+0	1.221445E+0	1.203819E+0	1.195136E+0	1.175380E+0	1.200780E+0	1.210521E+0	1.185635E+0	1.221302E+0	1.213557E+0	1.243873E+0	1.201144E+0	1.233021E+0	1.195106E+0	1.143794E+0	1.174557E+0	1.183061E+0	1.175008E+0	1.195763E+0	1.224123E+0	1.147565E+0	1.131297E+0	1.267451E+0	1.189153E+0	1.198935E+0	1.160143E+0	1.194138E+0	1.187841E+0	1.128587E+0	1.222711E+0	1.155821E+0	1.178353E+0	1.201167E+0	1.209141E+0	1.240308E+0	1.158254E+0	1.191300E+0	1.206856E+0	1.237484E+0	1.134759E+0	1.131652E+0	1.193170E+0	1.195763E+0	1.190028E+0	1.156490E+0	1.194142E+0	1.220887E+0	1.231943E+0	1.174185E+0	1.186504E+0	1.228951E+0	1.171990E+0	1.166423E+0	1.134796E+0	1.159181E+0	1.147239E+0	1.187622E+0	1.236132E+0	1.194967E+0	1.191394E+0	1.229694E+0	1.171576E+0	1.224233E+0	1.205206E+0	1.171592E+0	1.181816E+0	1.201092E+0	1.144813E+0	1.147658E+0	1.236130E+0	1.167839E+0	1.173654E+0	1.168585E+0	1.145787E+0	1.201863E+0	1.118550E+0	1.157292E+0	1.154405E+0	1.219002E+0	1.185402E+0	1.230420E+0	1.249380E+0	1.189209E+0	1.163840E+0	1.212771E+0	1.192139E+0	1.214821E+0	1.114291E+0	1.187822E+0	1.176108E+0	1.169045E+0	1.168530E+0	1.227560E+0	1.205181E+0	1.222091E+0	1.207004E+0	1.192695E+0	1.195275E+0	1.191045E+0	1.223974E+0	1.199661E+0	1.173440E+0	1.221722E+0	1.180573E+0	1.241822E+0	1.209136E+0	1.281651E+0	1.174168E+0	1.171186E+0	1.148716E+0	1.223995E+0	1.127085E+0	1.138150E+0	1.129429E+0	1.158167E+0	1.120459E+0	1.157155E+0	1.203249E+0	1.178351E+0	1.109053E+0	1.139185E+0	1.233679E+0	1.112577E+0	1.183993E+0	1.155034E+0	1.223438E+0	1.121689E+0
5.550310E+2	1.037157E+0	1.151669E+0	1.144534E+0	1.111866E+0	1.067982E+0	1.093589E+0	1.073997E+0	1.073879E+0	1.005777E+0	1.093191E+0	1.104230E+0	1.075248E+0	1.080035E+0	1.112933E+0	1.100104E+0	1.090485E+0	1.080317E+0	1.003944E+0	1.086871E+0	1.024712E+0	1.073011E+0	1.081588E+0	1.053510E+0	1.049451E+0	1.078995E+0	1.100831E+0	1.038309E+0	1.058699E+0	1.047730E+0	1.045567E+0	1.060610E+0	1.079532E+0	1.058792E+0	1.071573E+0	1.049218E+0	1.129039E+0	1.073502E+0	1.066407E+0	1.082242E+0	1.090930E+0	1.112709E+0	1.055030E+0	1.047416E+0	1.058723E+0	1.064101E+0	1.033031E+0	1.084015E+0	1.102796E+0	1.071996E+0	1.079652E+0	1.135454E+0	1.097695E+0	1.098345E+0	1.125200E+0	1.070876E+0	1.120909E+0	1.094464E+0	1.126900E+0	1.112928E+0	1.044397E+0	1.111889E+0	1.068923E+0	1.065798E+0	1.017376E+0	1.120675E+0	1.133171E+0	1.065552E+0	1.025572E+0	1.057297E+0	1.028551E+0	1.047325E+0	1.091548E+0	1.070170E+0	1.035188E+0	1.101633E+0	1.085164E+0	1.082413E+0	1.107196E+0	1.122195E+0	1.083535E+0	1.069725E+0	1.088781E+0	1.094843E+0	1.092671E+0	1.098390E+0	1.095808E+0	1.110265E+0	1.060431E+0	1.100852E+0	1.146649E+0	1.105766E+0	1.073100E+0	1.128185E+0	1.074945E+0	1.063875E+0	1.113278E+0	1.068170E+0	1.043752E+0	1.103955E+0	1.036942E+0	1.127280E+0	1.098519E+0	1.028352E+0	1.057123E+0	1.094105E+0	1.035539E+0	1.047422E+0	1.071731E+0	1.069340E+0	1.117524E+0	1.061923E+0	1.050233E+0	1.115828E+0	9.885883E-1	1.081120E+0	1.112997E+0	1.103581E+0	1.093518E+0	1.083314E+0	1.098630E+0	1.076645E+0	1.044821E+0	1.043678E+0	1.069382E+0	1.112956E+0	1.036678E+0	1.119632E+0	1.122756E+0	1.101965E+0	1.033786E+0	1.083445E+0	1.074329E+0	1.072453E+0	1.083880E+0	1.088278E+0	1.109138E+0	1.109247E+0	1.092937E+0	1.117005E+0	1.090005E+0	1.103383E+0	1.062254E+0	1.076455E+0	1.054526E+0	1.094933E+0	1.038636E+0	1.119021E+0	1.044993E+0	1.070959E+0	1.088260E+0	1.103941E+0	9.815889E-1	1.113018E+0	1.137151E+0	1.082131E+0	1.107600E+0	1.079529E+0	1.100875E+0	1.061073E+0	1.122757E+0	1.082757E+0	1.031864E+0	1.029244E+0	1.062689E+0	1.050574E+0
5.557600E+2	9.635842E-1	1.048172E+0	1.054450E+0	9.976259E-1	1.008650E+0	9.919541E-1	9.966913E-1	9.830856E-1	9.837714E-1	1.005705E+0	9.860742E-1	1.016729E+0	1.040322E+0	1.020664E+0	1.010836E+0	9.748007E-1	1.046912E+0	1.029513E+0	1.020486E+0	1.024447E+0	1.040556E+0	9.985384E-1	1.022850E+0	9.792000E-1	1.087314E+0	1.055580E+0	9.973199E-1	1.017912E+0	9.504247E-1	9.977897E-1	1.021300E+0	9.956820E-1	1.012704E+0	1.064358E+0	1.023130E+0	1.037365E+0	9.983078E-1	1.024871E+0	1.078757E+0	9.803284E-1	1.048486E+0	1.041041E+0	1.007003E+0	9.704185E-1	1.022638E+0	9.868194E-1	9.523739E-1	1.037789E+0	1.020956E+0	1.025118E+0	1.037235E+0	1.061383E+0	9.950538E-1	1.039163E+0	1.026069E+0	1.014789E+0	1.008999E+0	1.038981E+0	1.019885E+0	1.021568E+0	1.019398E+0	1.000763E+0	9.775718E-1	1.032323E+0	1.032879E+0	1.010005E+0	1.055247E+0	1.027544E+0	9.852989E-1	9.801383E-1	9.877011E-1	1.035307E+0	1.056780E+0	1.004535E+0	1.022621E+0	1.045592E+0	9.762915E-1	9.621877E-1	1.030372E+0	1.027691E+0	1.081799E+0	9.870820E-1	9.970229E-1	1.023247E+0	1.032587E+0	1.051339E+0	1.061478E+0	1.040793E+0	1.053032E+0	1.032861E+0	1.022395E+0	1.018466E+0	1.081168E+0	9.713699E-1	9.889355E-1	1.020840E+0	1.033527E+0	9.791177E-1	1.046748E+0	9.885029E-1	1.054218E+0	1.041436E+0	1.017672E+0	1.003700E+0	1.013722E+0	1.038296E+0	9.943242E-1	1.016873E+0	9.871084E-1	1.013221E+0	1.062021E+0	1.008377E+0	9.980221E-1	9.744971E-1	1.045576E+0	1.025978E+0	9.936345E-1	1.014364E+0	9.542184E-1	1.019965E+0	9.885035E-1	1.020884E+0	1.026147E+0	9.915727E-1	9.975599E-1	9.688181E-1	1.051704E+0	1.011125E+0	1.029139E+0	9.355376E-1	1.037451E+0	1.034661E+0	1.029530E+0	9.834061E-1	1.030325E+0	1.011800E+0	1.059871E+0	1.020532E+0	1.081769E+0	1.020290E+0	1.033445E+0	9.996179E-1	1.036121E+0	1.042928E+0	1.005153E+0	9.749282E-1	1.024944E+0	1.028102E+0	1.008789E+0	9.971892E-1	1.009123E+0	9.696041E-1	1.027551E+0	1.060572E+0	9.966510E-1	1.027225E+0	9.563434E-1	1.009023E+0	1.026159E+0	1.005622E+0	1.025496E+0	9.628922E-1	1.041979E+0	1.039768E+0	8.938114E-1
5.560130E+2	9.308769E-1	9.608450E-1	9.701644E-1	9.562470E-1	9.451331E-1	9.766340E-1	9.646057E-1	9.934840E-1	9.149269E-1	9.419962E-1	9.733377E-1	9.455745E-1	9.829510E-1	1.004627E+0	9.669469E-1	9.884239E-1	9.313284E-1	9.392040E-1	9.685725E-1	9.834775E-1	1.008234E+0	9.541904E-1	9.827043E-1	9.547843E-1	9.781280E-1	9.794366E-1	9.124158E-1	1.007911E+0	9.695257E-1	9.763265E-1	9.939820E-1	9.685664E-1	9.762813E-1	9.954316E-1	9.438359E-1	9.970497E-1	9.756660E-1	1.023642E+0	9.400482E-1	9.400662E-1	9.291531E-1	9.257391E-1	9.360949E-1	9.548110E-1	9.330584E-1	1.003483E+0	9.401689E-1	9.856701E-1	9.819745E-1	9.940182E-1	9.284754E-1	9.804188E-1	9.879734E-1	9.875840E-1	1.000884E+0	9.946673E-1	9.224791E-1	9.575419E-1	9.720032E-1	9.358241E-1	9.635897E-1	9.645295E-1	9.909026E-1	9.610959E-1	9.759194E-1	9.710305E-1	9.157556E-1	9.639610E-1	9.960715E-1	9.312147E-1	9.394887E-1	9.308674E-1	9.630451E-1	9.496045E-1	9.831994E-1	9.169786E-1	1.001008E+0	9.768831E-1	9.731538E-1	9.524632E-1	9.701488E-1	9.597366E-1	9.926059E-1	9.367064E-1	9.504051E-1	9.765533E-1	9.940063E-1	9.761412E-1	9.901457E-1	1.009654E+0	9.977842E-1	9.782521E-1	9.466667E-1	1.013261E+0	9.526851E-1	9.699209E-1	9.712937E-1	9.736260E-1	1.059819E+0	9.575090E-1	9.721634E-1	9.655897E-1	9.778399E-1	9.596792E-1	9.705865E-1	9.565021E-1	9.632974E-1	9.778663E-1	9.953092E-1	9.694556E-1	9.784230E-1	9.907778E-1	9.700279E-1	9.524025E-1	1.007222E+0	9.778270E-1	9.644045E-1	9.603556E-1	9.893866E-1	9.879886E-1	9.542335E-1	9.275214E-1	9.747358E-1	9.296367E-1	9.525215E-1	9.385975E-1	9.472448E-1	9.797596E-1	9.471871E-1	9.085047E-1	9.690944E-1	9.943906E-1	9.351940E-1	9.424741E-1	9.752964E-1	9.882775E-1	9.419438E-1	9.883257E-1	9.671470E-1	9.882881E-1	9.833828E-1	9.370076E-1	9.952414E-1	9.363955E-1	9.749126E-1	9.240161E-1	9.559357E-1	9.346972E-1	9.734002E-1	8.861165E-1	1.023800E+0	9.308062E-1	1.008436E+0	9.791333E-1	9.234951E-1	9.641108E-1	9.747615E-1	9.627398E-1	1.001525E+0	9.691467E-1	9.930624E-1	9.473831E-1	9.126785E-1	9.595083E-1	9.257383E-1
5.565030E+2	9.083021E-1	9.558737E-1	8.948035E-1	8.771957E-1	9.176216E-1	9.465822E-1	8.906194E-1	9.478373E-1	9.661764E-1	8.636415E-1	9.422372E-1	9.450219E-1	9.672302E-1	9.842333E-1	9.469886E-1	9.360636E-1	9.671753E-1	9.610684E-1	9.125216E-1	9.341129E-1	9.173342E-1	9.170658E-1	9.342288E-1	9.196228E-1	9.474490E-1	8.826992E-1	9.347763E-1	9.546547E-1	9.273730E-1	8.787100E-1	1.027490E+0	9.811433E-1	8.788459E-1	1.002558E+0	9.622886E-1	9.267802E-1	9.615563E-1	8.822536E-1	9.253882E-1	9.084570E-1	9.396854E-1	9.558046E-1	9.214944E-1	9.524657E-1	9.120285E-1	9.511245E-1	9.353633E-1	9.570229E-1	9.235976E-1	9.369657E-1	8.999259E-1	9.574548E-1	1.007770E+0	9.486605E-1	9.151367E-1	9.415811E-1	9.167435E-1	9.990977E-1	8.738445E-1	9.908540E-1	9.210010E-1	9.332994E-1	9.281526E-1	9.172358E-1	9.090258E-1	9.747295E-1	9.927748E-1	9.653981E-1	8.922651E-1	8.870364E-1	9.033298E-1	9.419734E-1	9.032283E-1	9.457209E-1	9.339277E-1	9.396519E-1	9.748910E-1	9.480424E-1	9.526523E-1	9.455027E-1	9.510383E-1	9.326694E-1	9.377484E-1	9.062201E-1	9.554564E-1	9.352746E-1	9.436037E-1	8.976025E-1	9.586883E-1	9.628252E-1	8.863203E-1	9.115679E-1	9.711286E-1	9.740400E-1	9.461300E-1	9.474808E-1	9.455379E-1	9.285981E-1	9.193156E-1	8.772752E-1	9.382520E-1	9.156322E-1	9.451420E-1	9.267862E-1	9.664234E-1	8.941191E-1	8.667563E-1	9.637693E-1	9.504201E-1	9.661363E-1	9.216576E-1	9.473283E-1	9.695877E-1	8.875351E-1	9.701213E-1	9.264830E-1	9.362807E-1	9.213533E-1	9.000504E-1	9.354027E-1	8.957008E-1	9.083936E-1	9.245977E-1	9.076610E-1	9.443604E-1	8.973263E-1	9.407714E-1	9.582439E-1	9.824163E-1	9.235406E-1	9.349937E-1	9.648577E-1	9.268066E-1	9.196193E-1	1.004831E+0	9.301207E-1	9.469018E-1	9.266121E-1	9.186431E-1	9.334820E-1	9.529668E-1	8.858846E-1	9.960364E-1	9.762966E-1	9.690297E-1	9.489629E-1	9.016567E-1	8.671250E-1	9.103510E-1	9.249082E-1	9.615245E-1	9.480311E-1	9.973229E-1	9.447746E-1	9.209518E-1	9.179902E-1	9.873105E-1	9.785312E-1	9.284818E-1	9.565281E-1	9.088160E-1	9.292995E-1	9.070126E-1	9.883934E-1	9.572036E-1
5.570100E+2	9.446291E-1	9.468062E-1	9.586096E-1	1.019509E+0	9.582449E-1	9.385008E-1	9.271384E-1	9.605399E-1	8.969859E-1	9.332340E-1	9.469888E-1	9.571806E-1	9.728033E-1	9.808664E-1	9.644059E-1	9.458778E-1	9.629148E-1	9.216796E-1	9.785685E-1	9.301738E-1	9.841566E-1	9.245392E-1	9.141122E-1	9.313080E-1	9.818633E-1	1.009502E+0	9.731519E-1	9.834208E-1	9.352469E-1	9.512882E-1	9.610054E-1	9.816104E-1	9.510148E-1	9.982589E-1	9.609143E-1	9.263907E-1	9.705032E-1	9.702752E-1	9.544236E-1	9.770645E-1	1.004194E+0	1.007215E+0	9.706824E-1	9.307433E-1	9.156403E-1	9.601135E-1	9.043442E-1	9.689498E-1	9.337199E-1	8.920734E-1	9.441395E-1	9.371256E-1	1.002431E+0	9.833684E-1	9.875999E-1	9.477752E-1	9.531847E-1	1.008587E+0	9.496588E-1	9.056667E-1	1.006921E+0	9.410039E-1	9.383690E-1	9.389494E-1	9.825767E-1	9.695831E-1	9.185247E-1	9.561344E-1	9.239510E-1	9.033027E-1	9.882592E-1	9.807791E-1	9.721131E-1	9.303335E-1	9.262701E-1	9.374101E-1	9.914873E-1	9.075431E-1	9.497559E-1	9.623268E-1	9.197225E-1	1.004108E+0	9.644165E-1	9.924980E-1	9.491952E-1	9.179565E-1	9.506958E-1	9.864753E-1	9.916021E-1	9.811469E-1	9.714111E-1	9.845908E-1	9.735379E-1	9.700498E-1	9.637307E-1	9.631635E-1	9.363585E-1	9.781038E-1	9.855032E-1	9.719241E-1	1.005214E+0	9.335939E-1	9.138052E-1	9.717800E-1	9.317871E-1	9.705058E-1	9.067082E-1	1.055043E+0	9.530926E-1	9.631622E-1	9.815003E-1	9.426167E-1	9.782162E-1	8.674500E-1	9.453062E-1	9.199732E-1	9.776752E-1	9.463755E-1	9.684568E-1	9.395877E-1	9.433392E-1	9.312707E-1	9.894102E-1	9.737887E-1	9.701459E-1	8.910815E-1	9.772789E-1	1.005791E+0	9.722322E-1	9.458485E-1	9.761741E-1	9.594490E-1	9.439597E-1	9.791502E-1	9.666608E-1	9.927018E-1	9.858414E-1	9.606304E-1	9.593341E-1	9.389885E-1	9.542714E-1	9.439225E-1	1.008337E+0	9.334158E-1	9.979349E-1	9.970369E-1	9.756479E-1	8.993841E-1	9.176146E-1	9.243070E-1	9.769582E-1	9.514974E-1	9.298857E-1	1.015517E+0	9.440038E-1	9.772521E-1	9.667963E-1	9.262983E-1	9.177296E-1	9.488537E-1	9.511721E-1	9.745109E-1	9.522104E-1	9.935766E-1	1.056931E+0
5.575080E+2	1.000694E+0	9.736189E-1	1.002842E+0	9.800581E-1	1.019268E+0	9.838016E-1	9.852564E-1	9.971531E-1	1.029908E+0	9.446236E-1	9.629493E-1	1.061535E+0	9.826827E-1	9.988393E-1	9.940948E-1	9.760665E-1	1.009167E+0	9.768076E-1	1.003840E+0	1.003209E+0	9.981673E-1	9.995493E-1	1.000831E+0	9.647005E-1	1.001342E+0	1.007822E+0	9.052222E-1	9.981353E-1	1.000806E+0	9.945070E-1	1.008628E+0	1.023902E+0	9.869415E-1	9.839496E-1	9.677598E-1	1.001799E+0	1.000018E+0	9.799224E-1	9.902984E-1	9.963995E-1	1.033148E+0	1.003872E+0	1.005785E+0	1.020510E+0	1.008397E+0	9.829079E-1	9.906047E-1	9.859108E-1	9.733630E-1	1.002980E+0	9.716910E-1	9.752247E-1	9.944324E-1	9.776435E-1	1.029314E+0	1.002195E+0	1.040196E+0	9.859054E-1	1.001306E+0	1.027976E+0	9.690672E-1	1.014496E+0	1.003339E+0	1.025085E+0	1.003736E+0	1.000935E+0	9.584950E-1	9.680983E-1	9.962882E-1	9.663143E-1	9.705831E-1	9.987892E-1	1.029831E+0	9.866079E-1	9.645104E-1	1.052178E+0	9.824261E-1	9.945252E-1	9.875842E-1	9.750788E-1	9.648141E-1	9.662533E-1	9.938441E-1	1.002257E+0	1.011936E+0	1.024069E+0	1.007460E+0	1.009886E+0	1.005424E+0	9.835941E-1	9.901460E-1	1.010885E+0	1.014678E+0	9.862174E-1	1.030705E+0	1.010692E+0	9.677150E-1	9.843092E-1	1.003350E+0	9.449335E-1	9.589762E-1	9.930562E-1	1.055974E+0	9.684365E-1	9.627880E-1	9.600012E-1	1.022961E+0	9.782672E-1	9.975945E-1	9.635502E-1	9.822834E-1	9.527909E-1	1.005714E+0	9.957726E-1	1.025280E+0	9.394862E-1	9.791676E-1	1.005934E+0	9.569270E-1	9.908891E-1	9.800466E-1	1.012793E+0	9.538256E-1	9.895127E-1	9.970709E-1	9.981484E-1	9.774575E-1	9.846008E-1	9.759238E-1	9.588813E-1	1.007109E+0	1.004253E+0	9.720471E-1	9.973672E-1	9.637820E-1	9.998381E-1	1.060302E+0	9.837197E-1	9.958091E-1	9.754412E-1	9.686761E-1	9.542237E-1	9.554607E-1	9.732778E-1	1.021871E+0	9.898567E-1	1.022256E+0	9.796355E-1	9.832494E-1	9.943359E-1	1.041841E+0	1.003825E+0	9.743908E-1	9.772754E-1	9.313384E-1	9.899012E-1	1.022452E+0	9.836786E-1	9.913153E-1	9.621496E-1	1.019683E+0	9.784990E-1	1.001647E+0	9.817913E-1	9.586143E-1
5.580400E+2	1.049267E+0	9.853508E-1	1.049059E+0	1.014556E+0	9.855864E-1	1.005904E+0	1.047458E+0	1.009001E+0	1.003534E+0	1.036645E+0	9.861062E-1	1.030146E+0	1.002710E+0	1.040777E+0	1.054822E+0	1.008887E+0	1.013402E+0	1.018515E+0	1.039101E+0	1.026213E+0	1.000971E+0	1.083633E+0	1.010704E+0	1.004943E+0	1.016172E+0	9.902690E-1	1.007692E+0	1.005030E+0	1.013082E+0	1.031319E+0	1.031005E+0	9.914304E-1	1.051193E+0	9.966374E-1	1.039801E+0	1.009333E+0	1.009292E+0	1.011942E+0	1.029945E+0	1.035059E+0	1.000931E+0	9.955783E-1	1.021571E+0	1.019659E+0	1.000106E+0	1.045754E+0	1.002356E+0	1.009042E+0	9.953911E-1	1.011067E+0	1.018360E+0	9.846038E-1	9.914523E-1	1.041539E+0	1.010387E+0	1.033129E+0	9.659268E-1	9.953227E-1	1.009306E+0	1.006975E+0	1.018272E+0	9.521531E-1	9.729495E-1	1.006308E+0	9.982520E-1	1.061970E+0	1.052520E+0	1.009236E+0	1.019209E+0	1.033154E+0	1.020451E+0	1.035921E+0	1.011202E+0	1.011351E+0	1.017888E+0	9.878693E-1	1.061144E+0	1.005485E+0	1.077516E+0	1.025950E+0	1.014585E+0	1.053737E+0	1.002422E+0	1.059319E+0	1.014357E+0	9.796242E-1	9.891929E-1	1.014247E+0	1.054333E+0	1.042731E+0	9.796710E-1	9.655317E-1	9.591913E-1	1.035234E+0	1.004394E+0	1.019167E+0	9.720997E-1	1.010418E+0	1.028163E+0	1.025560E+0	1.008617E+0	9.942379E-1	9.944603E-1	9.968618E-1	1.011346E+0	1.031850E+0	1.031990E+0	1.042603E+0	1.003303E+0	1.072002E+0	1.001307E+0	1.052672E+0	9.949728E-1	1.003053E+0	9.933057E-1	1.031556E+0	1.035216E+0	1.032628E+0	1.003794E+0	1.026468E+0	1.008508E+0	1.001138E+0	1.010207E+0	9.652133E-1	1.002663E+0	1.012213E+0	1.044005E+0	1.011568E+0	1.064123E+0	1.033933E+0	1.002328E+0	9.664750E-1	1.036018E+0	1.060414E+0	1.027966E+0	9.867200E-1	1.042732E+0	1.063355E+0	1.020359E+0	1.019007E+0	9.973812E-1	1.044204E+0	1.022937E+0	1.031785E+0	1.047969E+0	1.106542E+0	1.000664E+0	1.019530E+0	9.880552E-1	1.042570E+0	9.845568E-1	9.980993E-1	1.023897E+0	9.957013E-1	1.036537E+0	1.060486E+0	1.052632E+0	1.047758E+0	1.037049E+0	1.000452E+0	9.618329E-1	1.012557E+0	1.063978E+0	1.012941E+0	1.033453E+0
5.585390E+2	1.039642E+0	1.047287E+0	9.964997E-1	1.005196E+0	1.049924E+0	1.045576E+0	1.043554E+0	1.024127E+0	1.071387E+0	1.027619E+0	1.034902E+0	1.018575E+0	1.072552E+0	1.010930E+0	1.063023E+0	1.055381E+0	1.063194E+0	1.063903E+0	1.025428E+0	1.028775E+0	1.077747E+0	1.000694E+0	1.040455E+0	1.047626E+0	1.047253E+0	1.043554E+0	1.048234E+0	1.019333E+0	1.063546E+0	1.030820E+0	1.067012E+0	1.048859E+0	1.059878E+0	1.070606E+0	1.049876E+0	1.046501E+0	1.047263E+0	1.037256E+0	1.036529E+0	1.075474E+0	1.048213E+0	1.017428E+0	1.081248E+0	1.056442E+0	1.020308E+0	1.047935E+0	1.015259E+0	1.032693E+0	1.045229E+0	1.035969E+0	1.015958E+0	1.013112E+0	1.004161E+0	1.021502E+0	1.006737E+0	9.972552E-1	1.065148E+0	1.076101E+0	1.098489E+0	1.049554E+0	1.010029E+0	1.044750E+0	9.841434E-1	9.981169E-1	1.025749E+0	1.045609E+0	1.020402E+0	1.057095E+0	1.017253E+0	1.052473E+0	9.834325E-1	9.846179E-1	1.073373E+0	1.020719E+0	1.063924E+0	1.036036E+0	1.038218E+0	1.069230E+0	1.031012E+0	1.066996E+0	1.024134E+0	1.013812E+0	1.004470E+0	9.874479E-1	1.056078E+0	9.802255E-1	1.036109E+0	1.029136E+0	1.002159E+0	1.015787E+0	1.029298E+0	1.017529E+0	1.052300E+0	9.968244E-1	1.016532E+0	9.925262E-1	9.829482E-1	1.033580E+0	1.024419E+0	1.047104E+0	1.019796E+0	1.026244E+0	1.005929E+0	9.816848E-1	9.699124E-1	1.047435E+0	1.011397E+0	1.050681E+0	9.936947E-1	1.020651E+0	1.020131E+0	1.042714E+0	1.036340E+0	1.095536E+0	1.021633E+0	1.048296E+0	1.057566E+0	1.018076E+0	1.027005E+0	1.029428E+0	1.034295E+0	9.990319E-1	1.040370E+0	1.055193E+0	1.027241E+0	1.044970E+0	1.046099E+0	1.039548E+0	1.046222E+0	1.057923E+0	1.027601E+0	1.046029E+0	1.008982E+0	1.056571E+0	1.044298E+0	1.069131E+0	1.051142E+0	1.047692E+0	1.008445E+0	1.036431E+0	1.066375E+0	1.047549E+0	1.067373E+0	1.028184E+0	1.010713E+0	1.005659E+0	1.054305E+0	1.036205E+0	1.022234E+0	1.050428E+0	1.039127E+0	1.059136E+0	1.016694E+0	1.036593E+0	9.853594E-1	1.069956E+0	1.022159E+0	1.072355E+0	1.012738E+0	1.030066E+0	9.754561E-1	1.047918E+0	1.040826E+0	9.739619E-1	9.718094E-1
5.590160E+2	1.035580E+0	9.982905E-1	9.788778E-1	1.016352E+0	1.036646E+0	1.044178E+0	1.028471E+0	1.005444E+0	9.816773E-1	9.867546E-1	1.070551E+0	9.754734E-1	9.944486E-1	9.841294E-1	9.894953E-1	1.014033E+0	1.053204E+0	9.964928E-1	1.025832E+0	9.993281E-1	1.017407E+0	1.015376E+0	9.998128E-1	1.022923E+0	9.782270E-1	1.054200E+0	1.063777E+0	1.015934E+0	1.033070E+0	9.820041E-1	9.761139E-1	1.017470E+0	1.026196E+0	1.028440E+0	1.019009E+0	9.648663E-1	1.030014E+0	1.006148E+0	1.009402E+0	1.006804E+0	9.831985E-1	1.048733E+0	9.818660E-1	1.017511E+0	1.011573E+0	1.054041E+0	1.023298E+0	9.956259E-1	1.019882E+0	9.858622E-1	1.046197E+0	1.048272E+0	1.038070E+0	1.013475E+0	1.012748E+0	1.040227E+0	9.966374E-1	1.014588E+0	9.612683E-1	1.007412E+0	1.030692E+0	1.016338E+0	1.028139E+0	1.003408E+0	1.021886E+0	1.041409E+0	1.000092E+0	1.022115E+0	1.012886E+0	9.732543E-1	1.032682E+0	1.006537E+0	9.527275E-1	1.010274E+0	1.017415E+0	1.011443E+0	1.003233E+0	9.889884E-1	9.890618E-1	1.035483E+0	1.061739E+0	1.035132E+0	1.025054E+0	1.049543E+0	1.027668E+0	1.001814E+0	1.007079E+0	1.035782E+0	1.009076E+0	9.773242E-1	1.045497E+0	1.007490E+0	9.881617E-1	9.904792E-1	1.022566E+0	1.036407E+0	1.033534E+0	1.030968E+0	1.031932E+0	9.913754E-1	1.095415E+0	1.015636E+0	1.022099E+0	1.010937E+0	1.034626E+0	1.049440E+0	1.013941E+0	9.644548E-1	1.040904E+0	9.930075E-1	1.055632E+0	9.884042E-1	1.016303E+0	1.020808E+0	1.039662E+0	1.022204E+0	1.003326E+0	1.006646E+0	1.061167E+0	9.908375E-1	1.046637E+0	9.462482E-1	1.045176E+0	9.875928E-1	1.030653E+0	1.028112E+0	9.692095E-1	1.024903E+0	9.597745E-1	9.326114E-1	9.857489E-1	1.016108E+0	1.026358E+0	1.029299E+0	1.025545E+0	1.030084E+0	9.817208E-1	9.880590E-1	9.940370E-1	1.014163E+0	1.022834E+0	1.010062E+0	9.826196E-1	9.946142E-1	1.038182E+0	1.002697E+0	9.969600E-1	1.021988E+0	1.024123E+0	1.003963E+0	1.025142E+0	1.011936E+0	1.001154E+0	9.889773E-1	1.028810E+0	9.643439E-1	1.009486E+0	9.949283E-1	1.006679E+0	1.018813E+0	1.056389E+0	1.045728E+0	1.009992E+0	1.048090E+0	9.724195E-1
5.595000E+2	1.005611E+0	1.057848E+0	1.041770E+0	9.892842E-1	1.001409E+0	1.042323E+0	9.832278E-1	1.046115E+0	1.012514E+0	1.030324E+0	1.016192E+0	1.037192E+0	1.024602E+0	1.042164E+0	1.015084E+0	1.029777E+0	9.972430E-1	1.050141E+0	1.048474E+0	1.012629E+0	1.012655E+0	1.004571E+0	1.065160E+0	1.082920E+0	1.059813E+0	1.050877E+0	1.060825E+0	1.040867E+0	1.044390E+0	1.053684E+0	1.081781E+0	1.024044E+0	1.067013E+0	1.013119E+0	1.020870E+0	1.043361E+0	1.026893E+0	1.038789E+0	1.027596E+0	1.018485E+0	1.010337E+0	1.008528E+0	1.010396E+0	1.011874E+0	1.058980E+0	9.750539E-1	1.073799E+0	1.069855E+0	1.017345E+0	1.051586E+0	1.036145E+0	1.081036E+0	1.023410E+0	1.048656E+0	1.043233E+0	1.024051E+0	1.048011E+0	1.034698E+0	1.020915E+0	1.020918E+0	1.010303E+0	1.060119E+0	1.024120E+0	1.033296E+0	1.035326E+0	1.014796E+0	1.015997E+0	1.015886E+0	1.021611E+0	1.012803E+0	1.038633E+0	1.006284E+0	9.930218E-1	1.021500E+0	1.080450E+0	1.073735E+0	1.060165E+0	1.041868E+0	1.051761E+0	1.068069E+0	9.933509E-1	1.065868E+0	1.075705E+0	1.077242E+0	1.010577E+0	1.066875E+0	1.009187E+0	9.997196E-1	1.003987E+0	1.083811E+0	1.057576E+0	1.069329E+0	1.068604E+0	1.069748E+0	9.964107E-1	1.039862E+0	1.093901E+0	1.035187E+0	9.825326E-1	1.047647E+0	1.043367E+0	1.048466E+0	1.048539E+0	1.082715E+0	1.088741E+0	1.076552E+0	1.052917E+0	1.057842E+0	1.072745E+0	1.010279E+0	1.090702E+0	1.034787E+0	1.003222E+0	9.999362E-1	1.049114E+0	9.898991E-1	1.040645E+0	1.012219E+0	1.019484E+0	1.032467E+0	1.015499E+0	1.062573E+0	1.018517E+0	1.068063E+0	1.026614E+0	9.986989E-1	1.033926E+0	1.021982E+0	1.012765E+0	1.037274E+0	9.990065E-1	1.032245E+0	1.035718E+0	1.002160E+0	1.063425E+0	1.021115E+0	1.007002E+0	1.047738E+0	1.047134E+0	1.009439E+0	1.045742E+0	1.058723E+0	1.046293E+0	1.037758E+0	1.005176E+0	1.016387E+0	1.071043E+0	1.068780E+0	1.019858E+0	9.901014E-1	1.016071E+0	1.025142E+0	1.117401E+0	1.048437E+0	1.061735E+0	9.930232E-1	1.000543E+0	1.034487E+0	1.042362E+0	1.065231E+0	1.073491E+0	1.032333E+0	1.028649E+0	1.039605E+0	1.066513E+0
5.600470E+2	9.353244E-1	1.010915E+0	9.539162E-1	9.543369E-1	9.593760E-1	9.275382E-1	9.366473E-1	9.669549E-1	9.476170E-1	9.776625E-1	9.934632E-1	9.563018E-1	9.915190E-1	9.572277E-1	9.206659E-1	9.905102E-1	9.556172E-1	8.976371E-1	9.709861E-1	9.571113E-1	9.556690E-1	9.402396E-1	9.660351E-1	9.682259E-1	9.439170E-1	9.593848E-1	9.620127E-1	9.639326E-1	9.412601E-1	9.350918E-1	9.059698E-1	9.915537E-1	9.269618E-1	9.524746E-1	9.079875E-1	9.855013E-1	9.409813E-1	9.697746E-1	9.706650E-1	9.601410E-1	9.540275E-1	9.416657E-1	9.362066E-1	9.512213E-1	9.697111E-1	9.839484E-1	9.179216E-1	9.548510E-1	9.888029E-1	9.655987E-1	9.878202E-1	9.488169E-1	9.939192E-1	9.642574E-1	9.600056E-1	9.393446E-1	9.265702E-1	9.711952E-1	9.654004E-1	9.432607E-1	9.933997E-1	9.444131E-1	9.937170E-1	9.794043E-1	9.506759E-1	9.689436E-1	9.409865E-1	9.469994E-1	9.687046E-1	9.572477E-1	9.446352E-1	9.939676E-1	9.219783E-1	9.485685E-1	9.567927E-1	9.382195E-1	9.707828E-1	9.510311E-1	9.550269E-1	9.433306E-1	9.953599E-1	9.591294E-1	9.277156E-1	9.489326E-1	9.593443E-1	9.474613E-1	9.596857E-1	9.443927E-1	9.293226E-1	9.633674E-1	9.359306E-1	9.625814E-1	9.900365E-1	1.015816E+0	9.017361E-1	9.136897E-1	9.747643E-1	9.588886E-1	9.247175E-1	9.596702E-1	9.383829E-1	9.712823E-1	9.700873E-1	9.875853E-1	9.628097E-1	9.278273E-1	9.685398E-1	9.623693E-1	9.419493E-1	9.289423E-1	9.405137E-1	9.588178E-1	9.444044E-1	9.671031E-1	9.365991E-1	9.739422E-1	9.518201E-1	9.617121E-1	9.321594E-1	1.001945E+0	9.548575E-1	9.802697E-1	9.698023E-1	9.982280E-1	9.506854E-1	9.902769E-1	1.014615E+0	9.170026E-1	9.855776E-1	1.019480E+0	9.434827E-1	9.653311E-1	9.692961E-1	9.564758E-1	9.345762E-1	9.386922E-1	9.104658E-1	9.452846E-1	9.973641E-1	9.585797E-1	9.587526E-1	9.428702E-1	9.449026E-1	9.778350E-1	1.007335E+0	9.293653E-1	9.461592E-1	9.254020E-1	1.010540E+0	9.748335E-1	9.601600E-1	9.232617E-1	9.243794E-1	9.672452E-1	9.844604E-1	9.836083E-1	9.476216E-1	9.755969E-1	9.244034E-1	9.619641E-1	9.353153E-1	9.725501E-1	9.226349E-1	9.961672E-1	9.568600E-1
5.605040E+2	9.733769E-1	9.880517E-1	1.007055E+0	1.064936E+0	1.000506E+0	9.924975E-1	9.787491E-1	1.000590E+0	1.027568E+0	1.016496E+0	9.793759E-1	9.987343E-1	1.004454E+0	1.003734E+0	9.934667E-1	9.911831E-1	9.820158E-1	1.021518E+0	9.541628E-1	1.009880E+0	9.734939E-1	1.037121E+0	9.705484E-1	9.609173E-1	1.004881E+0	9.869469E-1	1.010212E+0	1.011216E+0	9.678323E-1	9.623330E-1	9.911079E-1	1.007039E+0	9.869303E-1	9.910730E-1	1.042360E+0	9.844271E-1	9.531090E-1	1.004536E+0	9.884393E-1	9.494447E-1	1.027588E+0	1.007955E+0	9.923894E-1	9.800405E-1	9.782157E-1	9.812611E-1	1.023874E+0	1.002122E+0	1.017075E+0	9.871726E-1	9.847942E-1	9.912207E-1	9.999318E-1	1.008539E+0	1.003617E+0	9.872392E-1	9.684653E-1	9.560066E-1	9.778161E-1	9.999369E-1	1.043272E+0	9.957556E-1	1.018924E+0	1.002928E+0	1.007130E+0	9.362786E-1	9.965684E-1	1.018738E+0	9.961243E-1	1.030060E+0	1.030129E+0	9.996990E-1	9.896367E-1	1.006074E+0	9.659343E-1	9.827005E-1	9.134695E-1	9.894202E-1	9.639367E-1	9.667381E-1	9.913260E-1	9.460224E-1	1.011470E+0	9.537560E-1	9.729137E-1	9.753876E-1	9.904283E-1	1.014761E+0	1.029983E+0	1.003536E+0	1.002233E+0	1.027595E+0	9.624907E-1	9.734337E-1	1.000411E+0	9.901086E-1	9.766862E-1	9.682112E-1	1.031827E+0	9.854831E-1	9.551575E-1	9.803059E-1	9.570051E-1	9.775489E-1	1.014824E+0	9.984942E-1	9.558702E-1	1.006786E+0	1.011011E+0	1.044304E+0	9.813904E-1	9.816461E-1	1.035685E+0	9.955158E-1	1.000206E+0	1.018760E+0	9.791751E-1	1.021013E+0	1.019231E+0	9.818067E-1	1.020188E+0	1.001765E+0	1.007693E+0	9.879407E-1	9.892283E-1	1.001226E+0	9.213871E-1	9.930023E-1	9.944272E-1	9.886202E-1	1.065255E+0	9.827398E-1	9.615947E-1	1.004850E+0	9.779224E-1	1.003336E+0	9.857850E-1	9.794885E-1	1.011033E+0	1.000217E+0	9.656784E-1	1.021640E+0	9.796486E-1	9.856275E-1	9.654569E-1	1.010749E+0	9.455450E-1	1.012406E+0	9.779645E-1	1.007884E+0	9.746645E-1	1.032465E+0	9.551880E-1	1.016863E+0	1.010401E+0	9.738600E-1	9.876731E-1	9.674170E-1	1.022335E+0	9.818189E-1	1.011757E+0	9.586226E-1	9.735772E-1	1.018601E+0	9.990649E-1
5.610180E+2	9.605051E-1	9.386384E-1	9.699796E-1	9.752809E-1	9.472858E-1	9.581826E-1	9.966367E-1	9.506146E-1	9.257950E-1	9.798747E-1	9.564600E-1	9.220434E-1	9.270322E-1	9.621984E-1	9.693479E-1	9.341621E-1	9.261566E-1	9.749846E-1	9.321762E-1	9.628544E-1	9.638892E-1	9.188169E-1	9.464545E-1	9.477435E-1	9.483936E-1	9.069457E-1	9.420253E-1	9.455519E-1	9.360141E-1	1.010240E+0	9.383824E-1	8.957015E-1	8.948863E-1	9.637000E-1	9.523356E-1	9.642109E-1	9.924303E-1	9.516311E-1	9.471257E-1	9.581937E-1	9.425572E-1	9.762398E-1	9.705370E-1	9.427423E-1	9.527099E-1	9.290980E-1	9.528865E-1	9.499009E-1	9.429113E-1	9.597648E-1	9.390360E-1	9.577147E-1	9.546244E-1	9.243875E-1	9.339584E-1	9.765598E-1	9.890449E-1	9.661832E-1	9.654991E-1	9.439681E-1	9.249650E-1	9.719759E-1	9.746694E-1	9.514532E-1	9.572452E-1	9.300585E-1	1.014939E+0	9.618331E-1	9.679242E-1	9.746934E-1	9.794543E-1	9.741835E-1	1.028230E+0	9.949054E-1	9.330854E-1	9.178190E-1	9.705612E-1	9.594518E-1	9.441019E-1	9.183550E-1	9.546919E-1	9.600450E-1	9.593185E-1	9.215019E-1	9.471256E-1	1.024543E+0	1.000858E+0	9.520759E-1	9.657141E-1	9.298497E-1	9.596484E-1	9.390588E-1	9.645383E-1	9.322465E-1	1.027246E+0	9.975471E-1	9.983514E-1	9.784387E-1	9.730580E-1	9.982264E-1	9.802897E-1	9.707716E-1	9.459066E-1	9.942305E-1	9.549527E-1	9.083998E-1	9.423842E-1	9.369971E-1	9.387978E-1	9.672630E-1	9.280396E-1	9.881685E-1	9.633600E-1	9.222752E-1	9.341994E-1	9.758569E-1	9.530840E-1	9.417721E-1	9.802327E-1	9.461583E-1	9.399702E-1	9.961810E-1	9.544081E-1	9.482568E-1	9.758453E-1	9.263544E-1	9.933002E-1	1.007394E+0	9.611877E-1	9.712764E-1	9.694683E-1	9.868187E-1	9.899869E-1	8.928638E-1	9.624854E-1	9.510841E-1	9.608516E-1	9.446637E-1	9.258200E-1	9.867215E-1	9.745612E-1	9.207284E-1	1.000767E+0	9.709192E-1	9.032975E-1	9.387434E-1	9.630675E-1	9.360542E-1	9.739756E-1	9.358843E-1	9.584380E-1	9.461340E-1	9.868959E-1	9.689074E-1	9.613586E-1	9.648221E-1	9.574336E-1	9.237796E-1	9.631185E-1	9.795045E-1	9.660755E-1	9.517924E-1	9.586958E-1	9.288421E-1	1.041265E+0
