Photon Energy (eV)	#1	#2	#3	#4	#5	#6	#7	#8	#9	#10	#11	#12	#13	#14	#15	#16	#17	#18	#19	#20	#21	#22	#23	#24	#25	#26	#27	#28	#29	#30	#31	#32	#33	#34	#35	#36	#37	#38	#39	#40	#41	#42	#43	#44	#45	#46	#47	#48	#49	#50	#51	#52	#53	#54	#55	#56	#57	#58	#59	#60	#61	#62	#63	#64	#65	#66	#67	#68	#69	#70	#71	#72	#73	#74	#75	#76	#77	#78	#79	#80	#81	#82	#83	#84	#85	#86	#87	#88	#89	#90	#91	#92	#93	#94	#95	#96	#97	#98	#99	#100	#101	#102	#103	#104	#105	#106	#107	#108	#109	#110	#111	#112	#113	#114	#115	#116	#117	#118	#119	#120	#121	#122	#123	#124	#125	#126	#127	#128	#129	#130	#131	#132	#133	#134	#135	#136	#137	#138	#139	#140	#141	#142	#143	#144	#145	#146	#147	#148	#149	#150	#151	#152	#153	#154	#155	#156	#157	#158	#159	#160	#161	#162	#163	#164	#165	#166	#167	#168	#169	#170	#171	
5.290120E+2	-3.587618E-2	-3.529501E-2	-3.085824E-2	1.178207E-2	-3.479991E-2	-3.295069E-2	-4.745760E-2	-7.116437E-2	-3.362950E-2	-4.404161E-2	-2.203070E-2	-3.303698E-2	-3.909675E-2	-4.838688E-2	-4.994363E-2	-4.492034E-2	-1.715927E-2	-3.732954E-2	-3.299125E-2	-2.042426E-2	-1.826537E-2	-3.206173E-2	-4.621375E-2	-3.524784E-2	-4.599713E-2	-1.796920E-2	-3.190570E-2	-3.032733E-2	-2.587262E-2	-4.126392E-2	-3.963826E-2	-5.406693E-2	-1.135345E-2	-2.438642E-2	-3.787898E-2	-1.853686E-2	-3.214924E-2	-3.311116E-2	-3.996859E-2	-4.318980E-2	-2.113299E-2	-2.226972E-2	-4.122147E-2	-3.638981E-2	-4.085335E-2	-2.395326E-2	-3.158152E-2	-2.006926E-2	-4.757672E-2	-4.427334E-2	-3.350016E-2	-5.641119E-2	-1.715062E-2	-3.301603E-2	-3.789170E-2	-2.451428E-2	-3.340551E-2	-3.295360E-2	-1.797168E-2	-3.846747E-2	-4.241663E-2	-4.229230E-2	-9.824583E-3	-3.065020E-2	-2.116916E-2	-3.132914E-2	-5.107010E-2	-3.545633E-2	-3.600725E-2	-3.713944E-2	-3.023774E-2	-3.443575E-2	-1.021249E-2	-3.689729E-2	-3.122275E-2	-5.099053E-2	-5.382926E-2	-2.424586E-2	-3.385912E-2	-2.576392E-2	-2.194743E-2	-3.926254E-2	-2.587152E-2	-1.487153E-2	-5.055524E-2	-4.347616E-2	-2.704326E-2	-2.500396E-2	-6.061981E-3	-3.505019E-2	-1.657987E-2	-1.215704E-2	-3.031344E-2	-3.557437E-2	-3.318506E-2	-5.703987E-2	-3.541161E-2	-3.085473E-2	-3.558432E-2	-2.559393E-2	-2.973326E-2	-4.159424E-2	-2.311284E-2	-4.255305E-2	-3.817852E-2	-1.309954E-2	-3.591419E-2	-2.383024E-2	-3.299951E-2	-3.330068E-2	-3.750955E-2	-1.942470E-2	-2.663160E-2	-3.665998E-2	-3.533569E-2	-2.874488E-2	-2.134612E-2	-2.559388E-2	-4.041584E-2	-4.247403E-2	-2.158961E-2	-4.687519E-2	-3.049191E-2	-1.141701E-2	-4.306877E-2	-3.352914E-2	-3.837232E-2	-3.166174E-2	-3.449195E-2	-4.656893E-2	-3.073300E-2	-2.309962E-2	-5.485710E-2	-2.928741E-2	-4.115441E-2	-2.668498E-2	-4.349799E-2	-3.772257E-2	-3.150417E-2	-3.360450E-2	-2.810566E-2	-2.985948E-2	-1.334764E-2	-5.603858E-2	-2.701972E-2	-3.921648E-2	-1.502710E-2	-1.645231E-2	-4.720412E-2	-1.988475E-2	-3.465324E-2	-4.694390E-2	-4.485446E-2	-2.536375E-2	-5.221330E-2	-3.573581E-2	-5.748874E-2	-2.657736E-2	-2.201409E-2	-3.626102E-2	-9.715774E-3	-1.612707E-2	-2.956413E-2	-2.889164E-2	-3.952796E-2	-4.309840E-2	-3.687268E-2	-3.215201E-2	-3.229026E-2	-1.904021E-2	-1.145163E-2
5.295010E+2	-1.028965E-2	-1.859590E-2	2.568001E-2	5.845694E-3	4.086604E-2	8.781735E-3	3.335668E-3	1.577629E-2	2.926608E-2	1.144713E-2	2.903342E-2	-4.602487E-3	2.471079E-2	-3.730398E-3	3.049415E-2	2.979358E-2	4.163121E-2	4.439081E-2	1.860814E-2	-2.894102E-4	3.408275E-2	6.336181E-3	2.531751E-2	1.994917E-2	2.254808E-2	3.002435E-4	2.613675E-2	2.048162E-2	-2.479304E-5	2.346455E-2	2.457089E-2	3.622362E-2	8.078565E-3	9.335404E-3	2.475753E-2	8.090308E-3	2.541634E-2	3.246556E-2	3.479226E-2	1.499181E-2	2.334142E-2	2.376566E-2	2.538375E-2	2.572180E-2	1.648886E-2	2.032970E-2	1.567562E-2	1.390882E-2	2.244261E-2	2.315657E-2	1.710706E-2	2.468721E-2	1.490770E-2	1.725890E-2	8.889049E-3	9.677722E-4	2.990935E-2	1.536252E-2	1.454956E-2	4.655155E-2	1.935358E-2	1.108604E-2	3.538447E-2	2.478578E-2	7.913412E-3	2.501207E-2	2.610079E-2	8.402408E-3	2.422206E-2	2.313483E-2	3.020254E-2	1.519431E-2	1.433371E-2	6.317394E-3	1.547724E-2	2.010565E-2	1.542532E-2	2.680176E-2	2.494579E-2	1.095904E-2	2.514430E-2	1.607417E-3	2.359430E-2	-2.685428E-2	2.233982E-2	2.606713E-2	2.636094E-2	1.331892E-2	1.456153E-2	2.557790E-2	1.313666E-2	1.615233E-2	2.545406E-2	2.037966E-2	1.580655E-2	2.713862E-2	1.050111E-2	1.101541E-2	1.320453E-2	7.848934E-3	2.276720E-2	3.878427E-2	2.081258E-2	3.314604E-2	2.440811E-2	1.017767E-2	2.984822E-3	3.883542E-2	1.037910E-2	2.459837E-2	2.179532E-2	2.415011E-2	7.920247E-3	2.964437E-2	2.711061E-2	4.705516E-2	1.028938E-2	1.365310E-2	1.657608E-2	-3.604878E-4	1.426830E-2	1.237559E-2	4.516913E-2	2.378151E-2	2.761646E-2	2.065372E-2	9.036812E-3	2.563366E-2	9.389682E-3	1.488946E-2	2.093367E-2	2.006624E-2	6.010895E-2	3.348764E-3	2.543359E-2	2.462341E-2	7.541039E-3	2.844995E-2	2.075902E-2	2.571076E-2	2.552433E-2	4.050968E-2	1.396940E-2	2.143047E-2	3.273690E-2	1.943704E-2	2.700645E-2	8.580531E-3	5.849279E-3	9.846048E-3	2.035160E-2	2.054320E-2	6.969135E-3	-2.773446E-3	1.119643E-2	1.912547E-2	1.045024E-2	-1.549708E-2	4.751892E-2	2.021185E-2	7.593667E-3	2.530592E-2	-1.567588E-4	1.359567E-2	-2.525170E-3	1.535551E-2	4.040402E-2	1.874519E-2	2.093505E-2	1.943969E-2	4.984089E-4
5.300110E+2	-1.615942E-3	5.626497E-3	1.117439E-2	-3.060861E-2	-1.090333E-2	-2.174099E-2	1.655515E-2	1.073056E-2	5.875731E-3	-7.663793E-3	-2.287000E-3	-2.015313E-2	-4.697628E-3	-3.092389E-3	6.081799E-3	-1.970101E-2	-9.067043E-3	-2.655099E-2	-5.034596E-3	1.236612E-2	-1.210023E-2	-2.753519E-2	-1.743650E-4	-2.299110E-2	-2.944032E-2	1.613043E-2	-1.174205E-2	-1.710766E-2	1.383194E-2	1.375482E-2	8.617959E-3	-1.908806E-2	1.537296E-2	1.077078E-2	9.255984E-3	-9.706168E-3	-7.610582E-3	3.871722E-3	-1.273936E-4	7.182288E-3	-1.265472E-2	-1.523413E-2	1.965834E-2	-1.331996E-2	-4.150640E-3	-7.680693E-3	-1.163423E-2	-7.903248E-3	-9.413475E-4	7.748326E-3	8.128369E-3	2.620494E-2	-9.562089E-3	-1.992560E-2	1.292633E-2	-2.097746E-2	-4.619376E-3	7.856707E-3	-1.107273E-2	-1.172886E-2	3.995031E-3	2.859861E-3	1.078323E-3	2.126351E-4	2.293059E-2	-1.435459E-3	8.534542E-3	-1.287392E-2	7.991416E-3	1.725966E-2	9.653621E-3	-4.177620E-3	-1.970967E-2	-2.128594E-2	-2.060567E-2	4.137257E-3	-1.524071E-2	-2.654752E-2	-1.381306E-2	1.128547E-2	1.042610E-2	-1.699569E-3	-1.542447E-2	-7.235864E-3	1.945521E-2	-1.792153E-2	-1.500774E-2	-8.364760E-4	7.631617E-3	7.187414E-3	6.191283E-3	2.800492E-3	3.084001E-2	-9.852744E-4	1.478205E-3	1.247247E-2	-4.955589E-3	-3.493137E-3	-1.724289E-3	-1.834339E-2	-8.235431E-3	-7.260818E-3	-1.748787E-2	4.233935E-3	4.164269E-3	-2.188717E-2	2.237231E-5	5.877388E-3	1.395839E-2	-6.683443E-4	4.487924E-3	6.418689E-3	-1.252931E-2	-9.443192E-4	1.146242E-2	-2.006972E-3	-7.725150E-3	-6.668124E-3	-9.015489E-3	4.076482E-3	-1.668122E-3	-5.309080E-3	7.035301E-3	-1.332314E-2	9.758573E-3	1.106312E-2	2.935149E-2	4.581972E-3	2.960138E-3	-1.113162E-2	9.796369E-3	-1.187404E-3	-1.341337E-2	8.695808E-3	-2.225908E-3	-1.364838E-2	1.297756E-2	-2.098083E-2	1.954794E-3	6.802131E-3	-6.256532E-4	-8.641463E-3	-1.807488E-2	5.857163E-3	-2.926419E-2	1.025429E-2	1.377294E-3	2.073135E-2	4.199025E-3	-1.089867E-4	-1.639774E-2	5.707833E-3	2.048670E-2	7.515894E-3	2.819835E-3	-1.350889E-2	6.150789E-3	-3.815369E-3	-4.480706E-3	-8.325368E-3	1.085136E-2	-1.909811E-2	-1.649847E-2	-1.394831E-3	8.756870E-3	-2.232198E-2	-4.741295E-3	4.424206E-4	7.345018E-3	-5.780228E-3	-2.117124E-2
5.305330E+2	-3.554658E-2	-4.909698E-3	-4.106610E-2	-4.367744E-3	-1.141424E-2	-1.400295E-2	1.960310E-2	-3.714974E-2	-1.826388E-2	-3.318063E-2	-2.811786E-2	-1.635632E-2	-1.723667E-2	-2.502268E-2	-4.374460E-2	-8.668508E-3	-4.369712E-2	-8.863325E-3	8.977583E-3	-1.552764E-2	-2.482095E-2	-2.453733E-2	-6.845485E-5	-1.677671E-2	-1.460526E-2	-2.247959E-2	-2.791308E-2	-3.077868E-2	-3.161589E-2	-3.493106E-2	-1.948616E-2	-2.299347E-2	-1.999484E-2	-3.086904E-2	-3.371387E-2	-2.029881E-2	-3.570417E-2	-1.811800E-2	6.525520E-4	-2.900923E-2	-1.763230E-2	-1.020893E-2	-2.427010E-2	-1.495140E-2	-2.844271E-2	-1.233340E-2	-8.501611E-3	-1.467995E-2	-1.535634E-2	-1.278706E-2	6.712645E-4	-3.084173E-2	-3.797935E-2	-2.244663E-2	-1.520406E-2	-1.973847E-2	-3.943889E-3	-2.028078E-2	-4.324245E-2	-7.232877E-3	-2.085001E-2	-1.578504E-2	-2.831124E-2	-8.280289E-3	-2.541845E-2	-2.947333E-3	-3.135428E-2	-2.670142E-2	-1.106796E-2	-3.080494E-2	-3.438814E-2	-1.325950E-2	-2.241142E-2	-2.112064E-2	-3.302025E-3	-1.817381E-2	-1.844595E-2	-3.703107E-2	1.842676E-3	-4.215330E-2	-1.636650E-2	-4.236836E-3	-4.865468E-2	6.829285E-3	-2.381089E-2	8.503537E-3	-1.798988E-2	-3.187733E-2	-3.846402E-2	-2.490014E-2	-4.370761E-2	-1.376292E-2	-3.949084E-2	-2.120604E-2	2.214163E-3	-2.567597E-2	1.430956E-2	-2.854048E-2	-4.739863E-2	-1.457571E-2	3.315905E-3	-2.551280E-2	-2.901454E-2	-1.864476E-2	-2.127220E-2	-1.503943E-2	-1.618074E-2	-3.052527E-2	-5.654019E-2	-2.773293E-2	-2.417138E-2	-2.194609E-2	-7.834792E-3	-1.241345E-2	-2.593785E-2	-1.756864E-2	-1.184537E-2	-1.587249E-2	3.433125E-4	-2.162190E-2	-3.671271E-2	-8.503776E-3	-3.609432E-2	-1.433876E-2	-2.333586E-2	-2.635687E-2	-1.887141E-2	-3.216362E-2	-2.795989E-2	-1.573730E-2	-3.519981E-2	-1.476981E-2	-2.299183E-2	-2.879806E-2	-1.969528E-2	-2.098168E-2	-3.272396E-2	-2.516954E-2	-3.021981E-2	-5.137357E-2	-3.123559E-2	-1.491876E-2	-1.308756E-2	-2.423376E-2	-1.845338E-2	-4.954948E-3	-2.503707E-3	-1.931598E-2	-8.598033E-3	-2.677391E-2	-2.419334E-3	-1.787791E-2	-4.022796E-2	-4.344653E-3	-2.125312E-2	-2.807744E-2	-3.055225E-2	-1.651647E-2	-2.286525E-2	-1.284177E-2	-4.738040E-2	-4.299965E-2	-5.331611E-3	-1.986792E-2	-5.925664E-3	-2.501010E-3	-5.474249E-4	-3.273725E-2	-3.456797E-2	-1.754733E-2	-4.017503E-3
5.310100E+2	2.701050E-2	3.044419E-2	1.061555E-2	1.269805E-2	-1.080662E-3	-6.508274E-3	-2.612822E-2	1.117395E-2	-7.800284E-3	2.937243E-2	-2.897172E-3	1.018333E-2	1.212899E-2	1.173270E-2	1.465993E-2	-1.452097E-2	6.739677E-3	-1.172786E-3	-2.662633E-2	-2.764951E-4	-1.532415E-3	5.111009E-5	-1.943678E-3	1.629576E-2	2.567854E-2	3.786927E-3	-1.640610E-2	1.047965E-3	8.712424E-4	-1.309912E-3	-1.765000E-2	1.367638E-2	-4.598327E-3	1.209316E-2	2.098695E-2	2.449563E-3	7.744110E-3	5.370794E-3	-2.371089E-2	-6.922284E-3	-2.009222E-2	5.174787E-3	-2.950964E-3	-1.534151E-3	-5.954293E-3	-2.133513E-2	-7.830817E-3	-5.178452E-3	-7.133465E-3	1.840806E-3	-8.451252E-3	5.187750E-3	-1.635314E-2	2.815548E-3	-6.250125E-5	-4.220225E-3	9.381622E-3	-1.069042E-2	9.364325E-3	-3.529249E-3	-2.581648E-2	-1.076662E-2	-1.800395E-2	6.386367E-3	-1.953236E-2	-2.520504E-2	-1.844618E-2	-1.919931E-2	-7.632855E-3	6.069907E-3	-8.441863E-3	-1.429713E-2	-1.768699E-2	7.046129E-4	-1.116950E-2	-2.114884E-2	2.177871E-2	2.393524E-2	-6.117902E-3	2.880023E-3	-1.493907E-2	4.066664E-4	6.985447E-3	1.670543E-2	-8.491722E-3	9.221076E-3	-1.477249E-2	2.104076E-2	3.847267E-3	6.129788E-3	-5.573221E-3	1.979210E-2	-3.791893E-3	1.784771E-3	6.908482E-3	1.716493E-3	-2.057920E-3	-2.556324E-2	-2.765294E-3	-2.294828E-3	-2.249705E-2	2.092581E-2	1.030398E-5	1.142973E-2	-8.047263E-3	2.479035E-2	5.809323E-3	-2.834854E-2	-1.139961E-2	2.138317E-2	-1.454185E-2	-1.127722E-2	1.770423E-2	-7.721572E-3	-1.739490E-2	5.607661E-3	-9.067748E-3	1.100803E-2	2.461217E-2	-2.025733E-2	3.218807E-2	-1.014132E-2	-1.434150E-2	4.805875E-3	-4.325977E-3	-1.637399E-2	2.684617E-3	1.829107E-2	2.501824E-3	-1.807350E-2	-4.106845E-3	7.489207E-3	1.653965E-2	1.024762E-2	-1.959826E-2	9.070797E-3	8.530441E-3	-5.333240E-3	-1.447410E-2	3.321169E-3	-1.279358E-2	6.105873E-3	1.076482E-2	6.326800E-3	5.405045E-3	-8.198996E-3	-2.498280E-2	-1.215690E-2	2.404301E-2	-8.722359E-3	-8.722584E-3	1.256471E-2	-1.582595E-3	-5.251662E-3	-1.304601E-2	5.884280E-3	2.171003E-2	3.510776E-3	-1.410104E-2	1.156640E-2	3.411461E-3	1.753408E-2	1.241918E-2	-1.602571E-2	-2.298862E-2	1.599374E-2	1.044304E-2	1.974805E-2	1.365505E-2	-1.868805E-3	-2.584207E-2
5.315130E+2	2.339892E-2	-2.963664E-2	-4.021241E-3	-9.101448E-3	-1.558213E-2	-1.451631E-2	-1.201903E-2	1.508987E-2	-1.963425E-3	-1.859294E-2	-1.543203E-2	-7.952691E-3	-2.090699E-2	2.595788E-4	-1.592392E-3	-5.274687E-3	-2.274875E-2	-3.562924E-3	3.783850E-3	-1.234491E-2	-5.358079E-3	1.693954E-2	-1.455623E-2	-1.427640E-2	-2.413871E-2	-1.817266E-2	1.773932E-3	-2.806685E-3	-2.501764E-2	-1.457516E-2	3.007315E-3	-2.113503E-2	-3.805273E-2	-1.076718E-2	8.607694E-4	-2.327425E-2	3.648830E-3	-2.733366E-2	-1.536470E-2	5.392013E-3	-1.856301E-2	-2.234135E-2	-2.094246E-2	-1.828269E-2	-2.079281E-2	-1.459006E-2	-1.136665E-2	-1.088435E-2	-2.391949E-2	-2.124937E-2	-3.275815E-2	-1.510305E-2	-1.220170E-2	-6.843849E-3	-2.843941E-2	1.191400E-2	-1.803730E-2	-1.124589E-2	-6.844866E-3	-2.068026E-2	-1.995273E-2	3.497559E-3	-1.860492E-2	-2.494772E-2	-8.258149E-3	-1.423059E-2	-5.476239E-3	2.090680E-2	-1.634745E-2	-1.404859E-2	-1.980182E-2	-1.935888E-3	-9.289448E-3	-5.170269E-3	-1.129994E-2	-9.851053E-3	-1.499591E-2	-2.005207E-2	-6.006562E-3	1.034575E-2	-1.348939E-2	-2.143885E-2	-1.200584E-2	-1.304510E-2	-2.029664E-2	-3.982635E-3	-3.032396E-2	-2.579449E-2	-4.327889E-2	-4.061486E-2	-3.495951E-4	-3.775044E-2	-1.993856E-2	-3.220797E-3	-3.146544E-2	-1.774919E-2	-9.539842E-3	4.057262E-3	-1.393327E-2	-2.565504E-2	-1.432805E-2	-3.477499E-2	-2.188346E-2	-2.534935E-2	-7.435056E-3	-1.850660E-2	-1.341364E-2	-1.823724E-2	-5.909270E-3	-4.302384E-3	-7.791928E-3	-1.738444E-2	-2.160778E-2	-2.165976E-2	4.221818E-3	-2.631333E-2	-1.386271E-2	-1.663915E-2	-6.209922E-3	-2.623494E-3	-3.400910E-2	-1.486758E-2	-1.446158E-2	-1.550947E-2	-2.125736E-2	-1.126689E-2	-5.401604E-3	-1.928942E-2	-7.955475E-3	1.513453E-2	1.111185E-2	-2.986991E-2	-1.427913E-2	-2.421188E-2	-4.439450E-3	-9.857761E-3	-1.428160E-2	-3.429552E-2	-1.683611E-2	-8.073762E-3	-8.209903E-3	-3.527141E-2	1.307822E-3	-4.293193E-3	-1.990174E-3	-1.064099E-2	-3.285375E-2	-4.101070E-2	-2.114504E-2	-6.040340E-3	-3.843374E-2	-1.529287E-2	-2.221052E-2	-1.630555E-2	1.260652E-2	-8.089665E-3	-1.059707E-2	-3.698218E-2	-2.761661E-2	-2.098419E-2	-1.241113E-2	-8.778397E-4	-8.183643E-4	-8.671386E-3	-2.504545E-3	-2.012040E-2	-2.768562E-2	-3.687299E-2	-1.291059E-2	-1.973976E-2	-5.411964E-3
5.320020E+2	2.336431E-2	2.054448E-2	1.160777E-2	2.441187E-2	3.303072E-2	2.490239E-2	3.188335E-2	2.972503E-2	1.747808E-2	4.290865E-2	1.825780E-2	5.957507E-2	2.589758E-2	5.006740E-2	2.194128E-2	3.711488E-2	2.966729E-2	3.176394E-2	2.278620E-2	2.657111E-2	2.704279E-2	1.042153E-2	2.786722E-2	5.893296E-2	4.149697E-2	1.215808E-2	4.138521E-2	3.463542E-2	5.946486E-2	3.738815E-2	2.868736E-2	4.675652E-2	5.523797E-2	4.090807E-2	1.871877E-2	2.575718E-2	1.764582E-2	2.481884E-2	3.891311E-2	4.929575E-2	3.207440E-2	3.247346E-2	2.115344E-2	3.544421E-2	6.366782E-2	5.368897E-2	2.629330E-2	4.288745E-2	4.772716E-2	3.351850E-2	2.289696E-2	3.574334E-2	5.891651E-2	3.814644E-2	3.181402E-2	5.175793E-2	1.653441E-3	4.373664E-2	3.489662E-2	3.736979E-2	5.155620E-2	5.294880E-2	2.617462E-2	1.321105E-2	2.139082E-2	2.651871E-2	4.317839E-2	3.415611E-2	2.178524E-2	2.581115E-2	3.757643E-2	1.637145E-2	4.594299E-2	4.313668E-2	3.812423E-2	5.843898E-2	5.746121E-2	2.352327E-2	1.607944E-2	2.210931E-2	3.815188E-2	4.038219E-2	5.389945E-2	1.957446E-2	3.101964E-2	8.070997E-3	4.521789E-2	2.083218E-2	5.624781E-2	4.938256E-2	3.736116E-2	3.065510E-2	1.884361E-2	2.958881E-2	3.171430E-2	4.061387E-2	1.319569E-2	3.547669E-2	4.686092E-2	3.028752E-2	2.901624E-2	3.459017E-2	4.432433E-2	1.245151E-2	2.483259E-2	2.469147E-2	4.574502E-2	1.578267E-2	6.217064E-2	6.128904E-3	4.362170E-2	3.656700E-2	1.823356E-2	5.302340E-2	3.390679E-2	2.115416E-2	5.207602E-2	4.035179E-2	3.317031E-2	5.422266E-2	3.603351E-2	3.936225E-2	3.344369E-2	2.075981E-2	4.228231E-2	2.122572E-2	8.038070E-3	2.258487E-2	4.246052E-2	2.728574E-2	1.643953E-2	4.088862E-2	2.550663E-2	2.473872E-2	4.787610E-2	1.740335E-2	4.636964E-2	5.636995E-2	4.008588E-2	3.309515E-2	3.464232E-2	2.730443E-2	8.556989E-3	2.471823E-2	2.014765E-2	1.436939E-2	3.165444E-2	4.790482E-2	3.569227E-2	4.985548E-2	5.790660E-2	2.642864E-2	5.512503E-2	4.150130E-2	2.967039E-2	1.961409E-2	3.181305E-2	6.100417E-2	2.374623E-2	3.905759E-2	3.143454E-2	3.572743E-2	3.965524E-2	5.014739E-2	5.101761E-2	3.349588E-2	1.853311E-2	5.193024E-2	3.702063E-2	3.476343E-2	6.769760E-2
5.325070E+2	9.554626E-3	3.182209E-2	1.686786E-2	-1.065988E-2	-1.164913E-4	5.603508E-2	1.422757E-2	2.581841E-2	9.037203E-3	1.975076E-2	2.347354E-2	1.234322E-2	1.920066E-2	1.817266E-2	2.210346E-2	2.617706E-2	1.463401E-2	1.324813E-3	1.049640E-2	9.925482E-3	9.514951E-4	5.038589E-2	9.771748E-3	-5.885835E-3	2.445783E-2	2.624578E-2	1.867103E-2	2.485534E-2	8.362895E-3	1.747253E-2	1.189089E-2	2.062696E-2	-4.690140E-3	-7.084776E-3	-2.987152E-3	3.551903E-2	2.100889E-2	1.203591E-2	4.813649E-3	2.259449E-3	3.465941E-2	8.640216E-3	2.318947E-2	2.331200E-2	2.003712E-2	5.873861E-3	2.894591E-2	1.918983E-3	2.475759E-2	1.204556E-2	2.590592E-2	1.053273E-2	1.942269E-2	2.401122E-2	2.796827E-2	4.810725E-3	1.906166E-2	8.214828E-3	2.032122E-2	-2.282615E-3	3.413104E-2	-1.548299E-3	1.210728E-2	1.928238E-2	2.214331E-2	2.361678E-2	2.853308E-2	3.076567E-2	1.705681E-2	9.717423E-3	1.543697E-2	3.654014E-2	1.903332E-2	3.431545E-2	2.399840E-2	1.748235E-2	7.846602E-3	3.361626E-2	1.692873E-2	1.033764E-2	-6.979900E-3	2.424151E-2	1.747733E-2	1.889760E-2	3.033983E-2	1.351759E-2	3.355850E-2	2.832041E-2	5.516664E-3	1.228754E-2	9.521190E-3	-5.729619E-3	1.839706E-2	9.233235E-3	6.528799E-3	1.852357E-2	1.395860E-2	3.790223E-2	4.134035E-2	4.832644E-2	1.969444E-2	1.484260E-2	2.635149E-2	2.528594E-2	2.152806E-2	8.873271E-3	1.094704E-2	4.044582E-2	2.034045E-2	1.389390E-2	1.410977E-2	2.896652E-3	2.474544E-2	-3.268693E-3	1.966805E-3	8.168499E-4	1.481705E-3	-2.392735E-4	-1.906063E-2	2.903810E-2	1.148967E-2	3.395910E-2	9.741180E-3	5.241185E-3	1.233063E-2	3.458433E-2	1.353435E-2	1.202322E-2	1.309515E-2	3.420161E-2	1.175824E-2	4.826596E-4	3.386205E-3	3.526643E-2	1.380362E-2	2.007524E-2	1.508487E-2	3.868181E-2	3.023450E-2	2.412262E-2	2.080373E-2	1.477113E-2	9.911044E-3	2.623287E-2	1.843788E-2	1.895070E-2	1.532917E-2	1.171918E-2	7.163600E-3	1.828819E-3	2.236844E-2	1.487029E-2	2.629467E-2	5.021865E-3	3.021924E-2	4.078796E-2	2.851395E-2	3.487351E-2	1.981254E-2	7.576510E-3	1.621628E-2	5.352552E-4	2.949091E-4	1.110842E-2	1.369748E-2	2.319666E-2	4.668571E-4	1.089634E-2	8.130610E-4	9.773215E-3	-3.016053E-4
5.330080E+2	2.422227E-3	2.481220E-2	8.195178E-3	3.171322E-3	4.328128E-2	8.789498E-3	1.403980E-2	-2.150238E-3	5.896525E-3	1.397285E-2	1.792748E-2	1.462132E-2	2.887894E-2	-4.289737E-3	-3.415239E-3	2.172371E-2	6.537785E-3	-2.528898E-3	-2.787150E-4	5.283808E-3	3.993358E-3	2.949556E-2	1.316612E-2	-2.046459E-2	1.126858E-2	1.060383E-2	1.796036E-2	7.662315E-3	1.331478E-2	5.161775E-4	1.639491E-2	1.939810E-2	3.902295E-2	6.819051E-3	3.819622E-2	6.629276E-3	3.055093E-2	6.329906E-3	4.019689E-2	1.439065E-2	4.263789E-3	3.231340E-2	2.768193E-2	-1.311746E-2	2.012875E-2	9.016075E-3	2.495168E-2	-3.694370E-3	-3.413218E-2	1.671245E-2	1.455002E-2	1.352224E-2	5.461017E-4	2.770328E-2	6.258827E-3	4.505054E-2	-1.064465E-2	1.916342E-2	-2.288755E-3	1.575380E-2	1.859678E-2	2.707173E-2	1.685807E-2	9.004164E-3	2.483571E-2	2.159083E-2	-1.105026E-2	3.623591E-3	3.405523E-2	8.410962E-3	2.978690E-2	2.284898E-2	1.785404E-2	2.759681E-2	2.941107E-2	2.669017E-3	-3.216517E-3	1.492019E-2	3.544933E-2	2.159442E-2	2.599374E-2	8.859007E-3	1.441373E-2	2.181008E-2	4.157202E-2	-4.134631E-4	-1.297335E-2	2.731449E-2	5.325231E-3	-3.992308E-3	5.675742E-2	2.900827E-2	6.085255E-3	1.521141E-2	2.666936E-2	4.307522E-2	-1.325303E-2	1.678321E-2	-1.034470E-2	-4.043197E-3	9.484026E-3	3.204423E-2	1.674431E-2	1.920017E-2	2.649057E-2	1.830347E-2	1.239760E-2	-4.327283E-3	1.161457E-2	-1.316342E-2	1.193184E-3	1.310840E-2	3.296707E-2	1.505751E-3	7.729077E-3	2.190900E-2	-3.388292E-3	-7.385714E-3	8.558769E-3	-1.402280E-2	-4.155958E-3	1.833380E-2	-6.584807E-4	1.241501E-2	6.253757E-3	1.043151E-2	1.676993E-2	2.259758E-2	3.444542E-2	1.061550E-2	1.938904E-2	-8.221004E-3	7.826545E-3	1.735303E-2	5.448615E-3	4.522023E-2	3.403994E-2	-1.222144E-2	1.648273E-2	1.661445E-2	2.547820E-2	3.221260E-2	2.083042E-2	3.944785E-3	6.477446E-3	-4.026700E-3	-1.107090E-2	3.214150E-2	2.223522E-2	-1.892338E-3	3.874289E-2	1.043800E-2	-6.996993E-3	5.729349E-3	-8.874291E-3	3.246022E-2	2.107557E-2	4.111192E-3	-1.153812E-4	2.313247E-2	7.292551E-3	-5.862258E-3	-1.775220E-3	2.176966E-3	3.451747E-2	1.743389E-2	1.201935E-2	3.010125E-2	3.590567E-2	5.122997E-3	2.022669E-2
5.332090E+2	6.962618E-2	5.308307E-2	4.051268E-2	1.361943E-2	4.805304E-2	2.880767E-2	4.344396E-3	3.214195E-3	3.010980E-3	1.537654E-2	-4.571111E-3	3.904145E-2	2.117397E-2	3.840820E-3	2.618372E-2	2.534132E-2	3.061494E-2	1.710422E-2	2.720567E-2	3.027332E-2	1.667816E-2	3.508147E-2	4.159022E-4	-6.043297E-4	1.495998E-2	1.936342E-2	5.232571E-3	3.729604E-3	3.558250E-2	1.532169E-2	3.671049E-2	5.981147E-2	3.020915E-2	8.934833E-3	4.114994E-2	1.725846E-2	3.132078E-2	1.645136E-2	1.033593E-2	4.220203E-2	3.266094E-2	2.398262E-2	3.632527E-3	1.038263E-2	4.622885E-2	2.265995E-2	3.426739E-2	3.088816E-2	2.373891E-2	3.693714E-2	3.573023E-2	4.268913E-2	1.632062E-2	3.725644E-2	7.641930E-3	3.951008E-2	1.519617E-2	3.157078E-2	3.893933E-2	1.097761E-2	1.074728E-2	5.017303E-3	3.329323E-2	3.514227E-2	1.645455E-2	9.744459E-3	4.180953E-2	3.654382E-2	2.688246E-2	2.361195E-2	3.708881E-2	5.801960E-2	4.327600E-2	2.309774E-2	1.257673E-2	1.019728E-2	2.255420E-2	2.411082E-2	2.430975E-2	1.888774E-2	3.610127E-2	3.607740E-2	2.586507E-2	2.049171E-2	2.646282E-2	3.517432E-2	4.700565E-2	3.696293E-2	5.513834E-3	1.171713E-2	-6.093080E-3	5.157725E-2	-1.174030E-3	2.865525E-2	2.955179E-2	5.141829E-2	1.816990E-2	-2.756472E-3	1.263107E-2	2.420031E-2	1.322418E-2	2.909370E-2	3.267500E-2	4.042517E-2	2.281921E-2	5.715128E-2	5.420453E-2	2.850288E-2	3.338854E-2	3.946544E-3	-3.979791E-3	2.408577E-2	3.171200E-2	2.198812E-2	2.452374E-2	4.079013E-2	-4.171222E-3	2.433970E-2	2.003655E-2	1.565520E-2	1.597991E-2	4.338133E-2	-3.148302E-3	2.204947E-2	2.143522E-2	5.778264E-2	4.905582E-2	3.674981E-2	4.810175E-2	4.811760E-2	4.254721E-2	1.657817E-2	5.319697E-2	5.716419E-2	4.261814E-2	1.399255E-2	4.264849E-3	-7.453838E-3	3.411336E-2	3.618491E-2	3.858418E-2	3.992400E-2	1.701126E-2	1.457672E-2	2.010142E-2	2.922738E-2	2.261268E-2	2.427474E-2	3.545617E-2	1.121228E-2	3.850167E-2	2.102602E-2	3.577312E-2	6.756292E-2	1.796670E-2	4.904701E-2	4.724154E-2	1.600198E-2	2.425191E-3	2.156992E-2	4.578102E-3	1.022329E-2	2.873641E-2	1.889245E-2	4.615835E-2	3.531311E-2	2.612311E-2	3.466156E-2	3.797399E-2	7.633419E-3	7.389461E-2
5.334060E+2	4.132848E-2	-2.124567E-3	3.972477E-2	2.268620E-2	4.896772E-2	3.423600E-2	4.533018E-2	3.767307E-2	7.089488E-2	6.986770E-2	1.192556E-2	3.580830E-2	5.590121E-2	4.400639E-2	6.224564E-2	3.015048E-2	6.009257E-2	4.503402E-2	4.687626E-2	5.914366E-2	2.542435E-2	1.885763E-2	2.250005E-2	2.036737E-2	5.263119E-2	6.039644E-2	2.913465E-2	3.909362E-2	4.964057E-2	5.694012E-2	5.076565E-2	3.986717E-2	3.379516E-2	5.912922E-2	6.927648E-2	3.509801E-2	2.296656E-2	5.341433E-2	2.181916E-2	4.986536E-2	4.176106E-2	5.746372E-2	3.528081E-2	4.043550E-2	5.348137E-2	4.598322E-2	5.070793E-2	5.113399E-2	3.306549E-2	5.442388E-2	6.114488E-2	6.382081E-2	5.245905E-2	3.638335E-2	5.287036E-2	4.585575E-2	3.760156E-2	3.945565E-2	5.619160E-2	2.365555E-2	1.728728E-2	1.297168E-2	4.096041E-2	4.693344E-2	4.707781E-2	6.179911E-2	4.913800E-2	6.426591E-2	4.301850E-2	4.522835E-2	4.012365E-2	5.569231E-2	1.271783E-2	3.826368E-2	3.447430E-2	3.176524E-2	4.053581E-2	6.800884E-2	3.936522E-2	3.286509E-2	5.784585E-2	7.131124E-2	3.606350E-2	5.668595E-2	5.108328E-2	6.618819E-2	5.330109E-2	4.971160E-2	3.587805E-2	8.656767E-2	5.875898E-2	5.659477E-2	1.898520E-2	8.774451E-2	4.806849E-2	5.061192E-2	5.387990E-2	5.876786E-2	3.516502E-2	6.622286E-2	4.570676E-2	5.244295E-2	4.566733E-2	6.145109E-2	3.616898E-2	6.167357E-2	4.488260E-2	5.296021E-2	4.786383E-2	5.347965E-2	2.422504E-2	5.567700E-2	8.316963E-2	4.569731E-2	5.339700E-2	2.696270E-2	6.069228E-2	7.419407E-2	6.294645E-2	1.899950E-2	1.480536E-2	7.234647E-2	3.375353E-2	4.376444E-2	1.696989E-2	4.904833E-2	7.922487E-2	4.551208E-2	4.987228E-2	4.683370E-2	8.400092E-2	4.847822E-2	5.116733E-2	6.728236E-2	5.805524E-2	4.838078E-2	5.440923E-2	3.417823E-2	5.922768E-2	5.810571E-2	4.122864E-2	6.016040E-2	4.901125E-2	4.504378E-2	4.981737E-2	7.763651E-2	5.960330E-2	4.595132E-2	4.864275E-2	2.318678E-2	6.852361E-2	4.316522E-2	7.325857E-2	4.978674E-2	3.469325E-2	2.867881E-2	3.020570E-2	3.456263E-2	4.845393E-2	4.757796E-2	5.009473E-2	1.466698E-2	2.197921E-2	7.122584E-2	4.520153E-2	4.588139E-2	5.902408E-2	6.015832E-2	3.341470E-2	2.551084E-2	5.499092E-2
5.336180E+2	3.798552E-2	5.061007E-2	5.238599E-2	5.688065E-2	9.519590E-2	6.511000E-2	7.273315E-2	5.537000E-2	6.541652E-2	8.451200E-2	8.647246E-2	5.220168E-2	6.145321E-2	8.242913E-2	8.098100E-2	6.408249E-2	4.831128E-2	3.945569E-2	4.764641E-2	6.406729E-2	4.698923E-2	1.104800E-1	6.245668E-2	5.240819E-2	5.630835E-2	7.190116E-2	8.277717E-2	7.894487E-2	6.226823E-2	8.153022E-2	7.383692E-2	4.076657E-2	5.608903E-2	3.750132E-2	9.881525E-2	7.534956E-2	7.626820E-2	6.568452E-2	5.670649E-2	7.328060E-2	5.726162E-2	8.043765E-2	8.983406E-2	9.503886E-2	9.723973E-2	7.845390E-2	7.063818E-2	8.260144E-2	5.212156E-2	8.091876E-2	5.762383E-2	7.324165E-2	5.819949E-2	5.647481E-2	6.382768E-2	1.056996E-1	5.488858E-2	5.326846E-2	7.329543E-2	4.796272E-2	6.728372E-2	5.392981E-2	9.576933E-2	6.032300E-2	8.363568E-2	6.866778E-2	4.449288E-2	5.314080E-2	7.089212E-2	7.018951E-2	6.425007E-2	8.159559E-2	7.401692E-2	5.540732E-2	7.079594E-2	6.544642E-2	4.834345E-2	7.633150E-2	8.034994E-2	5.589943E-2	6.027000E-2	6.233580E-2	6.761267E-2	5.681083E-2	6.545982E-2	6.026342E-2	5.105944E-2	8.133727E-2	7.770965E-2	8.663315E-2	6.501822E-2	8.300693E-2	5.283410E-2	8.157640E-2	6.515186E-2	6.950205E-2	7.326977E-2	9.240671E-2	8.247520E-2	7.581194E-2	7.021378E-2	1.009742E-1	5.313196E-2	5.220429E-2	4.602793E-2	7.779673E-2	8.174279E-2	4.166711E-2	5.592871E-2	9.891753E-2	4.631275E-2	7.699444E-2	7.350452E-2	6.799359E-2	7.260492E-2	8.868543E-2	7.543573E-2	7.296349E-2	6.390372E-2	6.555943E-2	6.082203E-2	6.211590E-2	7.527073E-2	4.701441E-2	7.825445E-2	7.090686E-2	6.936935E-2	8.056075E-2	8.367554E-2	6.698910E-2	7.868367E-2	5.453578E-2	4.423136E-2	6.903467E-2	5.576843E-2	7.448910E-2	5.925524E-2	6.468333E-2	7.630789E-2	7.544948E-2	4.957659E-2	6.553847E-2	9.543708E-2	5.782115E-2	7.780328E-2	6.942029E-2	6.418204E-2	8.442055E-2	7.524514E-2	8.000525E-2	5.258990E-2	6.078360E-2	7.819229E-2	1.749738E-2	7.056041E-2	6.129999E-2	6.883979E-2	5.174627E-2	6.028833E-2	4.749323E-2	5.628602E-2	6.758588E-2	7.535418E-2	8.591812E-2	5.987286E-2	5.589334E-2	6.617211E-2	7.787117E-2	6.959376E-2	7.110935E-2	9.541620E-2
5.338260E+2	2.340953E-2	1.975606E-2	4.397090E-2	7.282946E-2	3.992336E-2	3.011781E-2	3.752791E-2	4.260315E-2	3.300081E-2	5.417942E-2	5.274723E-2	3.233275E-2	5.041173E-2	5.835363E-2	6.345094E-2	7.987754E-2	4.560752E-2	4.933065E-2	4.471691E-2	6.303146E-2	3.447896E-2	3.484167E-2	5.129144E-2	4.376450E-2	5.368232E-2	2.990056E-2	5.316276E-2	5.802865E-2	4.530654E-2	1.665522E-2	4.094307E-2	4.931129E-2	2.398898E-2	6.330996E-2	6.578261E-2	4.886091E-2	6.401793E-2	4.270064E-2	4.136110E-2	2.809185E-2	3.468986E-2	7.046399E-2	5.301158E-2	2.980777E-2	7.670685E-2	2.810162E-2	4.957126E-2	4.364733E-2	2.717797E-2	4.457766E-2	3.899053E-2	5.663936E-2	1.513357E-2	4.628718E-2	4.469738E-2	3.549288E-2	4.740977E-2	4.420342E-2	3.744930E-2	3.396070E-2	2.528171E-2	5.199032E-2	2.445116E-2	5.490897E-2	2.650404E-2	1.675876E-2	2.942300E-2	3.221819E-2	5.960954E-2	4.027514E-2	6.412635E-2	4.108709E-2	2.333120E-2	5.249803E-2	2.916443E-2	5.072572E-2	4.382126E-2	5.523216E-2	4.320433E-3	2.517424E-2	3.386805E-2	4.531363E-2	3.781981E-2	6.580049E-2	3.849078E-2	5.453797E-2	4.260927E-2	6.649329E-2	1.506511E-2	4.315940E-2	4.953119E-2	2.875381E-2	2.160198E-2	7.228706E-2	5.071078E-2	3.597764E-2	3.054957E-2	4.904932E-2	4.894267E-2	2.621500E-2	6.504891E-2	2.983398E-2	5.093538E-2	2.835735E-2	3.345914E-2	6.031930E-2	2.559516E-2	4.344816E-2	6.813926E-2	3.083850E-2	3.537927E-2	3.609146E-2	6.234767E-2	3.339195E-2	6.114751E-2	1.284709E-2	5.235218E-2	5.294893E-2	4.854023E-2	4.814780E-2	2.362000E-2	3.219918E-2	4.588919E-2	3.478611E-2	3.314711E-2	4.352340E-2	4.795336E-2	5.367946E-2	7.567725E-2	5.650667E-2	7.430578E-2	3.579028E-2	6.188123E-2	4.509876E-2	4.035447E-2	1.078769E-2	3.956415E-2	1.627011E-2	5.961245E-2	3.769893E-2	4.662019E-2	6.920259E-2	3.031331E-2	5.909892E-2	2.210396E-2	6.245007E-2	3.999964E-2	5.090804E-2	1.631155E-2	3.229489E-2	3.653599E-2	3.122634E-2	3.592195E-2	1.918007E-2	2.690816E-2	4.560276E-2	3.690615E-2	5.440579E-2	3.060453E-2	2.622835E-2	1.063171E-2	6.294829E-2	2.661559E-2	3.099366E-2	3.288719E-2	7.564638E-2	4.321792E-2	5.138105E-2	3.914804E-2	6.705423E-2	6.718686E-2
5.340070E+2	1.003356E-1	9.193096E-2	3.427046E-2	5.166463E-2	7.456011E-2	8.467977E-2	7.398513E-2	7.754884E-2	7.262598E-2	9.613481E-2	7.184265E-2	1.188671E-1	4.058397E-2	8.466190E-2	8.177761E-2	6.588560E-2	4.931308E-2	6.257545E-2	8.960483E-2	7.988070E-2	9.989922E-2	7.241664E-2	1.092395E-1	7.973989E-2	8.644313E-2	1.185153E-1	8.785588E-2	9.103351E-2	1.018883E-1	7.494806E-2	1.158549E-1	1.068236E-1	8.920266E-2	7.376241E-2	9.574727E-2	1.194318E-1	8.222506E-2	7.763481E-2	8.004226E-2	7.089604E-2	5.556509E-2	3.755957E-2	7.018557E-2	7.170809E-2	8.324279E-2	8.571004E-2	7.043565E-2	8.934478E-2	8.481394E-2	9.796613E-2	7.697285E-2	6.339971E-2	8.159545E-2	8.416482E-2	6.133568E-2	8.826972E-2	9.086125E-2	7.606854E-2	8.607027E-2	8.552228E-2	6.482593E-2	5.346123E-2	7.313029E-2	1.075266E-1	1.225511E-1	7.702179E-2	1.137236E-1	1.112471E-1	4.315226E-2	6.421064E-2	9.979301E-2	8.948461E-2	7.333503E-2	7.817872E-2	7.839921E-2	6.142846E-2	1.093314E-1	8.217287E-2	9.308262E-2	8.498735E-2	8.884333E-2	1.000088E-1	1.053716E-1	9.444980E-2	4.412751E-2	8.097264E-2	8.237070E-2	9.799645E-2	6.392088E-2	9.710878E-2	7.174276E-2	8.601239E-2	8.113955E-2	1.083486E-1	9.190856E-2	6.185680E-2	1.070949E-1	6.818224E-2	4.912599E-2	1.019105E-1	9.001210E-2	8.826920E-2	9.451734E-2	7.963622E-2	9.823765E-2	8.968891E-2	9.307302E-2	5.092200E-2	6.487092E-2	9.241606E-2	8.167900E-2	8.270328E-2	1.008133E-1	6.098725E-2	6.741452E-2	8.071110E-2	8.374871E-2	6.431255E-2	8.602274E-2	7.066275E-2	6.657735E-2	4.195474E-2	9.113571E-2	9.609360E-2	1.089573E-1	9.322005E-2	7.603644E-2	8.279392E-2	9.498892E-2	7.003558E-2	1.098693E-1	6.937368E-2	7.527846E-2	8.205079E-2	7.135403E-2	6.113364E-2	7.279967E-2	8.422444E-2	7.698379E-2	9.255739E-2	7.624040E-2	1.044041E-1	8.775884E-2	8.288723E-2	9.984384E-2	4.901017E-2	9.405078E-2	7.865450E-2	8.297395E-2	1.182603E-1	7.803540E-2	5.975976E-2	6.959773E-2	8.964313E-2	8.233341E-2	5.752165E-2	7.978760E-2	6.845060E-2	6.271478E-2	4.249684E-2	6.353892E-2	8.934686E-2	1.107194E-1	7.171424E-2	8.963164E-2	6.661929E-2	6.075978E-2	1.239341E-1	8.050486E-2	6.850525E-2	1.289510E-1
5.342090E+2	1.175300E-1	1.719605E-1	1.392106E-1	1.240463E-1	1.091328E-1	1.393293E-1	1.502216E-1	1.085413E-1	1.254864E-1	1.423219E-1	1.494569E-1	1.248663E-1	1.084083E-1	1.291695E-1	1.037963E-1	9.536002E-2	1.064073E-1	1.062599E-1	1.233894E-1	1.268083E-1	9.872157E-2	9.163313E-2	1.296518E-1	1.266830E-1	1.228157E-1	1.210883E-1	1.255734E-1	1.423805E-1	1.248153E-1	1.139399E-1	1.162896E-1	1.380974E-1	9.730212E-2	1.042180E-1	1.340733E-1	1.076719E-1	1.191601E-1	1.514084E-1	1.293143E-1	1.203341E-1	9.645816E-2	1.376474E-1	1.368959E-1	9.898068E-2	1.183371E-1	1.161518E-1	1.210200E-1	1.188209E-1	1.254977E-1	1.446881E-1	1.063545E-1	1.322542E-1	1.259998E-1	1.086424E-1	1.369215E-1	1.358789E-1	1.040723E-1	1.250186E-1	1.330852E-1	1.166065E-1	9.215498E-2	9.755428E-2	1.013307E-1	1.272572E-1	1.062672E-1	1.152855E-1	1.225141E-1	1.578349E-1	1.073774E-1	1.145331E-1	1.381023E-1	1.145586E-1	9.289369E-2	1.212489E-1	1.124758E-1	1.376582E-1	1.389069E-1	1.383688E-1	1.076198E-1	1.486579E-1	1.405757E-1	1.257053E-1	1.374198E-1	1.157861E-1	8.184014E-2	1.280754E-1	9.763080E-2	1.219932E-1	1.697054E-1	1.675543E-1	1.113195E-1	7.138874E-2	1.087123E-1	8.731121E-2	1.283381E-1	1.239282E-1	1.397872E-1	1.015741E-1	1.025129E-1	1.084735E-1	9.298871E-2	1.096686E-1	1.267951E-1	1.316332E-1	1.380587E-1	1.311490E-1	1.015904E-1	1.200879E-1	9.061225E-2	1.147793E-1	1.071973E-1	1.357494E-1	1.351602E-1	8.765376E-2	1.105476E-1	9.520239E-2	1.005556E-1	1.019293E-1	1.075079E-1	1.499368E-1	1.498640E-1	1.090804E-1	1.082184E-1	1.085925E-1	1.277911E-1	1.422958E-1	1.384744E-1	1.347625E-1	1.216093E-1	1.082622E-1	1.312357E-1	1.073294E-1	1.279548E-1	1.475212E-1	1.173820E-1	1.177529E-1	1.137247E-1	8.099599E-2	1.393559E-1	1.325589E-1	1.123811E-1	1.016314E-1	1.182686E-1	1.278361E-1	1.202154E-1	1.175561E-1	1.144257E-1	9.289470E-2	1.211100E-1	1.339164E-1	1.237898E-1	1.092051E-1	1.239793E-1	9.624410E-2	1.027562E-1	1.329404E-1	1.445958E-1	1.155816E-1	1.151771E-1	1.080027E-1	9.052805E-2	8.538604E-2	1.343671E-1	1.271611E-1	1.154422E-1	1.265189E-1	1.132430E-1	1.262633E-1	1.017031E-1	1.482521E-1	1.168334E-1
5.344170E+2	2.677076E-1	2.823401E-1	2.376561E-1	2.750503E-1	2.471416E-1	2.253605E-1	2.936553E-1	2.311655E-1	2.280248E-1	2.651158E-1	2.137423E-1	2.635276E-1	2.061020E-1	2.812749E-1	2.740756E-1	2.690009E-1	2.590466E-1	2.382147E-1	2.622678E-1	2.683259E-1	2.826317E-1	2.196776E-1	2.324189E-1	2.436870E-1	2.085335E-1	2.166838E-1	2.385428E-1	2.648183E-1	2.694103E-1	2.734903E-1	2.450399E-1	2.621751E-1	2.439087E-1	2.911733E-1	2.680701E-1	2.711359E-1	2.687016E-1	2.492354E-1	2.684648E-1	2.662125E-1	2.596512E-1	2.518295E-1	2.461498E-1	2.733842E-1	2.814063E-1	2.938626E-1	2.626103E-1	2.768910E-1	2.620341E-1	2.772808E-1	2.527182E-1	2.886374E-1	2.417860E-1	2.905808E-1	2.506765E-1	2.381068E-1	2.328456E-1	2.744556E-1	2.319134E-1	2.302423E-1	2.479617E-1	2.639396E-1	2.656557E-1	2.246952E-1	2.575150E-1	2.694828E-1	2.375148E-1	2.550246E-1	2.409715E-1	2.358909E-1	2.721149E-1	2.486641E-1	2.504068E-1	2.619005E-1	2.324420E-1	2.220669E-1	2.433835E-1	2.707231E-1	2.504285E-1	2.847317E-1	2.339993E-1	2.512424E-1	2.674482E-1	2.383687E-1	2.393667E-1	2.765334E-1	2.670353E-1	2.519324E-1	2.306282E-1	2.850785E-1	2.513506E-1	2.483775E-1	2.402807E-1	2.519223E-1	2.605915E-1	2.246452E-1	2.613422E-1	2.475422E-1	2.467117E-1	2.401797E-1	2.494947E-1	2.500582E-1	2.298455E-1	2.129012E-1	2.771222E-1	2.139040E-1	2.604467E-1	2.463760E-1	2.698934E-1	2.767796E-1	2.450916E-1	2.489494E-1	2.831099E-1	2.528649E-1	2.339452E-1	2.687649E-1	2.317131E-1	2.684056E-1	2.283718E-1	2.214423E-1	2.811149E-1	2.306805E-1	2.496038E-1	2.388276E-1	2.600521E-1	2.520297E-1	2.598551E-1	2.648268E-1	2.695175E-1	2.524271E-1	2.729521E-1	2.447701E-1	2.665906E-1	2.439633E-1	2.651288E-1	2.943286E-1	2.306393E-1	2.529164E-1	2.260884E-1	2.432499E-1	2.581095E-1	2.577551E-1	2.591835E-1	2.422424E-1	2.488019E-1	2.557417E-1	2.950549E-1	2.893821E-1	2.896601E-1	2.593985E-1	2.282138E-1	2.653362E-1	2.553424E-1	2.331746E-1	2.726029E-1	2.623200E-1	2.613410E-1	2.450884E-1	2.553201E-1	2.721362E-1	2.723307E-1	2.438650E-1	2.520060E-1	2.329531E-1	2.487507E-1	2.902657E-1	2.904613E-1	2.313171E-1	2.292809E-1	2.466635E-1	3.245797E-1
5.346200E+2	3.826374E-1	4.240064E-1	4.354147E-1	3.922760E-1	4.043257E-1	3.694352E-1	3.883601E-1	4.007034E-1	3.958087E-1	3.807048E-1	4.001472E-1	4.061114E-1	4.097441E-1	3.982619E-1	4.508380E-1	4.196193E-1	4.068450E-1	3.955365E-1	4.106504E-1	3.683836E-1	3.833508E-1	4.071014E-1	4.122506E-1	4.045578E-1	3.547450E-1	3.803380E-1	4.345784E-1	4.150818E-1	4.063762E-1	4.085695E-1	3.948018E-1	4.071309E-1	3.977193E-1	4.150171E-1	3.963970E-1	4.011902E-1	3.951900E-1	3.917082E-1	4.035202E-1	3.962361E-1	4.074252E-1	3.970547E-1	3.817238E-1	4.291908E-1	4.093258E-1	3.707475E-1	4.037745E-1	4.019900E-1	3.942996E-1	3.676412E-1	3.929033E-1	4.242061E-1	3.828431E-1	3.578202E-1	4.014677E-1	4.241139E-1	3.886521E-1	4.190692E-1	4.143484E-1	3.824914E-1	4.326236E-1	3.896083E-1	3.800733E-1	3.725720E-1	3.693174E-1	3.909196E-1	4.253545E-1	3.974049E-1	4.115098E-1	4.054461E-1	4.234250E-1	3.975608E-1	4.218822E-1	4.086068E-1	4.240324E-1	3.685080E-1	3.970624E-1	3.859719E-1	3.913589E-1	4.094201E-1	4.048965E-1	4.133276E-1	3.919279E-1	3.485545E-1	3.715199E-1	3.818590E-1	3.942392E-1	4.249563E-1	4.045572E-1	4.170828E-1	4.107027E-1	4.119760E-1	3.990437E-1	4.168690E-1	3.897469E-1	4.168041E-1	4.387566E-1	3.803612E-1	3.904246E-1	4.225372E-1	3.837976E-1	3.912729E-1	3.611119E-1	3.773207E-1	4.437236E-1	3.949443E-1	3.912583E-1	3.929675E-1	4.010396E-1	3.879543E-1	3.790107E-1	3.907159E-1	3.742710E-1	4.156499E-1	3.783656E-1	3.622086E-1	4.424364E-1	4.188611E-1	3.610349E-1	3.815449E-1	3.504277E-1	4.340019E-1	3.982519E-1	4.014354E-1	4.228780E-1	4.236885E-1	3.881349E-1	4.431098E-1	4.156378E-1	3.935330E-1	4.154410E-1	3.822400E-1	4.285547E-1	4.286782E-1	3.593591E-1	4.261891E-1	3.745449E-1	3.588964E-1	4.150987E-1	3.989773E-1	3.882435E-1	4.098085E-1	4.184209E-1	3.845010E-1	3.558475E-1	3.646577E-1	3.719125E-1	4.040976E-1	4.267076E-1	3.602005E-1	3.801378E-1	4.105664E-1	4.067521E-1	4.013715E-1	4.260589E-1	4.363193E-1	4.050139E-1	4.092075E-1	4.282862E-1	4.209101E-1	4.069657E-1	4.167387E-1	3.984369E-1	3.853310E-1	4.187671E-1	4.289330E-1	4.373588E-1	4.519490E-1	3.374058E-1	4.205156E-1	3.741245E-1
5.348120E+2	7.531384E-1	7.240315E-1	7.044316E-1	6.401492E-1	7.321001E-1	7.788115E-1	7.625225E-1	7.186051E-1	7.826046E-1	8.429212E-1	7.149328E-1	7.466124E-1	7.319456E-1	7.541517E-1	8.151887E-1	7.304255E-1	7.644276E-1	7.656114E-1	7.980986E-1	7.359191E-1	7.523120E-1	7.269971E-1	7.688234E-1	7.681651E-1	7.063981E-1	6.995556E-1	7.035359E-1	7.849709E-1	7.566010E-1	7.245531E-1	7.453316E-1	7.180377E-1	7.024681E-1	7.371043E-1	7.739107E-1	7.138997E-1	7.533044E-1	7.324159E-1	8.117985E-1	7.433717E-1	7.419357E-1	7.164890E-1	7.276901E-1	7.097388E-1	7.617261E-1	7.506195E-1	7.237191E-1	7.120555E-1	7.895260E-1	7.353615E-1	7.093746E-1	7.891594E-1	7.301715E-1	7.443501E-1	7.804021E-1	6.804559E-1	7.535908E-1	6.899175E-1	7.419162E-1	7.622251E-1	6.753483E-1	7.583070E-1	7.489584E-1	7.604245E-1	7.342892E-1	7.184641E-1	7.400222E-1	7.752380E-1	7.553147E-1	7.076337E-1	7.338817E-1	7.552113E-1	7.815828E-1	7.761361E-1	6.841939E-1	7.169231E-1	7.071476E-1	7.165880E-1	7.449461E-1	7.204446E-1	6.759033E-1	7.450538E-1	7.259847E-1	7.677402E-1	6.816450E-1	7.273903E-1	7.041724E-1	7.202109E-1	7.384899E-1	7.530898E-1	7.741304E-1	7.049334E-1	7.622664E-1	7.198962E-1	7.745163E-1	7.517355E-1	7.410006E-1	7.529134E-1	6.885552E-1	7.230337E-1	7.205168E-1	7.218966E-1	7.592260E-1	7.369964E-1	6.981605E-1	7.574172E-1	7.046347E-1	7.459985E-1	7.811906E-1	7.243547E-1	7.783027E-1	7.640094E-1	7.421983E-1	7.851816E-1	6.918559E-1	7.548097E-1	7.321197E-1	7.164889E-1	7.380076E-1	7.389773E-1	7.416228E-1	7.462517E-1	7.500746E-1	7.874383E-1	7.642801E-1	7.461720E-1	7.061235E-1	7.353106E-1	7.475399E-1	7.603055E-1	7.327168E-1	7.700446E-1	7.357993E-1	7.527113E-1	7.346071E-1	7.271973E-1	7.096399E-1	7.732180E-1	7.176724E-1	7.714468E-1	7.549207E-1	7.316948E-1	7.583746E-1	7.486781E-1	7.377801E-1	7.433577E-1	7.260907E-1	7.387594E-1	7.528436E-1	7.308251E-1	7.295007E-1	7.135151E-1	7.780357E-1	7.499053E-1	6.928137E-1	7.629513E-1	7.336039E-1	7.470491E-1	7.457667E-1	7.218831E-1	7.409770E-1	7.252230E-1	7.554582E-1	7.017425E-1	7.379915E-1	7.350234E-1	7.213195E-1	7.333106E-1	7.414227E-1	7.303400E-1	7.363573E-1
5.350100E+2	1.194861E+0	1.221666E+0	1.172269E+0	1.297125E+0	1.193305E+0	1.288689E+0	1.327035E+0	1.245254E+0	1.201551E+0	1.247005E+0	1.239887E+0	1.228510E+0	1.238510E+0	1.198281E+0	1.290491E+0	1.213647E+0	1.269476E+0	1.279293E+0	1.249842E+0	1.219441E+0	1.266844E+0	1.183796E+0	1.229769E+0	1.242248E+0	1.213239E+0	1.220273E+0	1.170024E+0	1.223888E+0	1.206494E+0	1.195151E+0	1.252344E+0	1.226400E+0	1.252307E+0	1.234738E+0	1.221920E+0	1.198245E+0	1.244996E+0	1.167583E+0	1.278920E+0	1.217134E+0	1.256239E+0	1.231602E+0	1.241303E+0	1.248309E+0	1.223833E+0	1.223764E+0	1.271562E+0	1.204156E+0	1.184087E+0	1.209469E+0	1.178266E+0	1.272163E+0	1.287342E+0	1.190255E+0	1.274273E+0	1.201221E+0	1.290693E+0	1.230666E+0	1.232868E+0	1.260944E+0	1.268478E+0	1.295518E+0	1.218528E+0	1.241410E+0	1.167071E+0	1.252594E+0	1.244684E+0	1.188075E+0	1.242986E+0	1.212130E+0	1.192915E+0	1.215620E+0	1.298597E+0	1.211899E+0	1.196015E+0	1.146164E+0	1.197002E+0	1.213810E+0	1.243673E+0	1.332109E+0	1.235125E+0	1.147236E+0	1.214459E+0	1.207345E+0	1.241009E+0	1.250813E+0	1.289414E+0	1.217298E+0	1.218088E+0	1.196046E+0	1.227953E+0	1.164816E+0	1.221276E+0	1.216382E+0	1.260511E+0	1.251367E+0	1.232361E+0	1.216693E+0	1.201831E+0	1.209579E+0	1.226176E+0	1.282183E+0	1.239778E+0	1.198342E+0	1.219091E+0	1.236760E+0	1.214045E+0	1.200467E+0	1.208414E+0	1.196176E+0	1.265335E+0	1.250045E+0	1.253286E+0	1.210692E+0	1.179679E+0	1.269758E+0	1.281107E+0	1.271208E+0	1.198463E+0	1.246229E+0	1.267356E+0	1.216682E+0	1.256823E+0	1.180022E+0	1.277990E+0	1.210651E+0	1.180116E+0	1.216715E+0	1.198316E+0	1.257055E+0	1.257706E+0	1.271084E+0	1.274110E+0	1.197174E+0	1.221284E+0	1.232291E+0	1.206672E+0	1.196102E+0	1.255636E+0	1.247147E+0	1.231704E+0	1.173569E+0	1.241400E+0	1.238443E+0	1.269309E+0	1.249259E+0	1.251861E+0	1.220627E+0	1.196139E+0	1.213177E+0	1.239128E+0	1.245784E+0	1.297802E+0	1.182993E+0	1.245969E+0	1.229470E+0	1.178818E+0	1.199555E+0	1.233885E+0	1.210100E+0	1.213681E+0	1.261830E+0	1.242964E+0	1.173357E+0	1.235277E+0	1.180604E+0	1.263275E+0	1.302085E+0	1.174770E+0	1.253564E+0	1.193508E+0
5.352080E+2	1.870136E+0	1.909344E+0	1.913829E+0	1.872038E+0	1.820630E+0	1.904563E+0	1.874914E+0	1.885951E+0	1.834854E+0	1.864649E+0	1.704551E+0	1.743786E+0	1.851384E+0	1.843612E+0	1.839972E+0	1.745211E+0	1.866831E+0	1.896510E+0	1.805092E+0	1.822245E+0	1.877969E+0	1.825303E+0	1.835042E+0	1.797888E+0	1.807781E+0	1.802490E+0	1.786257E+0	1.852808E+0	1.825952E+0	1.798095E+0	1.821102E+0	1.757104E+0	1.814941E+0	1.883779E+0	1.854402E+0	1.748921E+0	1.825426E+0	1.812860E+0	1.832478E+0	1.780088E+0	1.768208E+0	1.782868E+0	1.740068E+0	1.842005E+0	1.793137E+0	1.866693E+0	1.762921E+0	1.814628E+0	1.805382E+0	1.796538E+0	1.754460E+0	1.758068E+0	1.752079E+0	1.812495E+0	1.816288E+0	1.775632E+0	1.883118E+0	1.756504E+0	1.816698E+0	1.878865E+0	1.835628E+0	1.838757E+0	1.862289E+0	1.789463E+0	1.756741E+0	1.789153E+0	1.838683E+0	1.851929E+0	1.809773E+0	1.742498E+0	1.864926E+0	1.872221E+0	1.808864E+0	1.777776E+0	1.712568E+0	1.739723E+0	1.770997E+0	1.795338E+0	1.807834E+0	1.836334E+0	1.799686E+0	1.808207E+0	1.831040E+0	1.784514E+0	1.798672E+0	1.735096E+0	1.768488E+0	1.742862E+0	1.809653E+0	1.768239E+0	1.857630E+0	1.855028E+0	1.776192E+0	1.780406E+0	1.849266E+0	1.843864E+0	1.779226E+0	1.813192E+0	1.790237E+0	1.772922E+0	1.843867E+0	1.849941E+0	1.784064E+0	1.804693E+0	1.805385E+0	1.758622E+0	1.771913E+0	1.776492E+0	1.783184E+0	1.797103E+0	1.825829E+0	1.787243E+0	1.719839E+0	1.788880E+0	1.742371E+0	1.845059E+0	1.877320E+0	1.775124E+0	1.748243E+0	1.785363E+0	1.810644E+0	1.820141E+0	1.816238E+0	1.782658E+0	1.839087E+0	1.815241E+0	1.736963E+0	1.848821E+0	1.755079E+0	1.805724E+0	1.803212E+0	1.807818E+0	1.828191E+0	1.774236E+0	1.759156E+0	1.810701E+0	1.773896E+0	1.753402E+0	1.830124E+0	1.800327E+0	1.752530E+0	1.767163E+0	1.758698E+0	1.847045E+0	1.865566E+0	1.883905E+0	1.819468E+0	1.807464E+0	1.799986E+0	1.706703E+0	1.720716E+0	1.793986E+0	1.744308E+0	1.845874E+0	1.846640E+0	1.803317E+0	1.847228E+0	1.754023E+0	1.724009E+0	1.794581E+0	1.874881E+0	1.813042E+0	1.879437E+0	1.726160E+0	1.775036E+0	1.736323E+0	1.836086E+0	1.782510E+0	1.806568E+0	1.653823E+0	1.933759E+0
5.354110E+2	2.035885E+0	2.130662E+0	2.172557E+0	2.121607E+0	2.080562E+0	2.140441E+0	2.167339E+0	2.179105E+0	2.123479E+0	2.150134E+0	2.124410E+0	2.102771E+0	2.107704E+0	2.138328E+0	2.134973E+0	2.017868E+0	2.127051E+0	2.213374E+0	2.150659E+0	2.069802E+0	2.202036E+0	2.092923E+0	2.170056E+0	2.138584E+0	2.084637E+0	2.055464E+0	2.100215E+0	2.116247E+0	2.074890E+0	2.115088E+0	2.088976E+0	2.103677E+0	2.027792E+0	2.096348E+0	2.033791E+0	2.147204E+0	2.087741E+0	2.061535E+0	2.146746E+0	2.140098E+0	2.056782E+0	2.147760E+0	2.057173E+0	2.085984E+0	2.079996E+0	2.069133E+0	2.211388E+0	2.138189E+0	2.185426E+0	2.166133E+0	2.181072E+0	2.078460E+0	2.123822E+0	2.070389E+0	2.137499E+0	2.073720E+0	2.111888E+0	2.010832E+0	1.992353E+0	2.104688E+0	2.057560E+0	2.122267E+0	2.132192E+0	2.062145E+0	2.099280E+0	2.154668E+0	2.292611E+0	2.027346E+0	2.098081E+0	2.090344E+0	2.069699E+0	2.092106E+0	2.100787E+0	2.018167E+0	2.168298E+0	1.973972E+0	2.065698E+0	2.088282E+0	2.093900E+0	2.165461E+0	2.110921E+0	2.088912E+0	2.193916E+0	2.019064E+0	2.075262E+0	1.973606E+0	2.083161E+0	1.950108E+0	2.102420E+0	2.054114E+0	2.039856E+0	2.029329E+0	2.086613E+0	2.022267E+0	2.120516E+0	2.120303E+0	2.044845E+0	2.037193E+0	2.058543E+0	2.069016E+0	2.079144E+0	2.152124E+0	2.080313E+0	2.063598E+0	2.024397E+0	2.017012E+0	2.066376E+0	2.181980E+0	2.072215E+0	2.087663E+0	2.066563E+0	2.053394E+0	1.982146E+0	2.172606E+0	2.043731E+0	2.063625E+0	2.057412E+0	2.033197E+0	2.086352E+0	2.012804E+0	1.980451E+0	2.106658E+0	2.017744E+0	2.082258E+0	2.081486E+0	2.098582E+0	1.923832E+0	2.098571E+0	2.026573E+0	2.018776E+0	2.076196E+0	2.083046E+0	2.086510E+0	2.038223E+0	2.103614E+0	2.074676E+0	2.063343E+0	2.094873E+0	2.120993E+0	2.095522E+0	2.077372E+0	2.006686E+0	2.063729E+0	1.989713E+0	2.066470E+0	2.062420E+0	2.088652E+0	2.166313E+0	2.047065E+0	2.029507E+0	2.086454E+0	2.099117E+0	2.044138E+0	2.045307E+0	2.132595E+0	2.036877E+0	2.073136E+0	2.071055E+0	2.053324E+0	2.031815E+0	2.143702E+0	2.080714E+0	2.036798E+0	2.013915E+0	1.958687E+0	2.004287E+0	2.061915E+0	2.031421E+0	2.080012E+0	2.024548E+0	2.161982E+0
5.356250E+2	2.514982E+0	2.600734E+0	2.579701E+0	2.628489E+0	2.530289E+0	2.669291E+0	2.672129E+0	2.694967E+0	2.573945E+0	2.535861E+0	2.640115E+0	2.539665E+0	2.486147E+0	2.631255E+0	2.548284E+0	2.520712E+0	2.690439E+0	2.666500E+0	2.597502E+0	2.594662E+0	2.579909E+0	2.517818E+0	2.535594E+0	2.549795E+0	2.552468E+0	2.534175E+0	2.611483E+0	2.569470E+0	2.620825E+0	2.558434E+0	2.627181E+0	2.489314E+0	2.532246E+0	2.620114E+0	2.638269E+0	2.548056E+0	2.513143E+0	2.528969E+0	2.571880E+0	2.571837E+0	2.570618E+0	2.494512E+0	2.612328E+0	2.512572E+0	2.496400E+0	2.530077E+0	2.495857E+0	2.644456E+0	2.541501E+0	2.568742E+0	2.550232E+0	2.626095E+0	2.546069E+0	2.516153E+0	2.519038E+0	2.531807E+0	2.595956E+0	2.556567E+0	2.594139E+0	2.549438E+0	2.567055E+0	2.674558E+0	2.616850E+0	2.529148E+0	2.504121E+0	2.562477E+0	2.546971E+0	2.458819E+0	2.602641E+0	2.610083E+0	2.509736E+0	2.569641E+0	2.546381E+0	2.463600E+0	2.451938E+0	2.400746E+0	2.441949E+0	2.538876E+0	2.536288E+0	2.612598E+0	2.478244E+0	2.534187E+0	2.623649E+0	2.462153E+0	2.560571E+0	2.481474E+0	2.577536E+0	2.459936E+0	2.441904E+0	2.476459E+0	2.521380E+0	2.469642E+0	2.491452E+0	2.376199E+0	2.554700E+0	2.627308E+0	2.611496E+0	2.397479E+0	2.425210E+0	2.544791E+0	2.533482E+0	2.594083E+0	2.464976E+0	2.535917E+0	2.515587E+0	2.453188E+0	2.472562E+0	2.512268E+0	2.488194E+0	2.516341E+0	2.471816E+0	2.517261E+0	2.459682E+0	2.608609E+0	2.537285E+0	2.537310E+0	2.535168E+0	2.564735E+0	2.457820E+0	2.502759E+0	2.468499E+0	2.448751E+0	2.445405E+0	2.432815E+0	2.512348E+0	2.529267E+0	2.394063E+0	2.545048E+0	2.512106E+0	2.572673E+0	2.542272E+0	2.533500E+0	2.576965E+0	2.452754E+0	2.517216E+0	2.508392E+0	2.468883E+0	2.486594E+0	2.593660E+0	2.519718E+0	2.500167E+0	2.460218E+0	2.578875E+0	2.424248E+0	2.558658E+0	2.571310E+0	2.461300E+0	2.529645E+0	2.509478E+0	2.472745E+0	2.503649E+0	2.484092E+0	2.538613E+0	2.577535E+0	2.556570E+0	2.539853E+0	2.411306E+0	2.546046E+0	2.442873E+0	2.503855E+0	2.448065E+0	2.440455E+0	2.460469E+0	2.425721E+0	2.456196E+0	2.404630E+0	2.525212E+0	2.466065E+0	2.432980E+0	2.262471E+0	2.458256E+0
5.358130E+2	2.552760E+0	2.586079E+0	2.459120E+0	2.596661E+0	2.504702E+0	2.555188E+0	2.546366E+0	2.558145E+0	2.473626E+0	2.530223E+0	2.469848E+0	2.465527E+0	2.434234E+0	2.547830E+0	2.492806E+0	2.437187E+0	2.601129E+0	2.464505E+0	2.490278E+0	2.477175E+0	2.627421E+0	2.399116E+0	2.603941E+0	2.439263E+0	2.556916E+0	2.445030E+0	2.493658E+0	2.579304E+0	2.427148E+0	2.507786E+0	2.533979E+0	2.473684E+0	2.472384E+0	2.522345E+0	2.437394E+0	2.488988E+0	2.466558E+0	2.407241E+0	2.536192E+0	2.395884E+0	2.447738E+0	2.437426E+0	2.444541E+0	2.431945E+0	2.489040E+0	2.526593E+0	2.435777E+0	2.523224E+0	2.509201E+0	2.436748E+0	2.456353E+0	2.479401E+0	2.492816E+0	2.469743E+0	2.506068E+0	2.454436E+0	2.428373E+0	2.434550E+0	2.505221E+0	2.512546E+0	2.408373E+0	2.589662E+0	2.542564E+0	2.466453E+0	2.403666E+0	2.397040E+0	2.574647E+0	2.432264E+0	2.445354E+0	2.436063E+0	2.482891E+0	2.457837E+0	2.469769E+0	2.404770E+0	2.460136E+0	2.414671E+0	2.460105E+0	2.430590E+0	2.428245E+0	2.604558E+0	2.447916E+0	2.474507E+0	2.467078E+0	2.436055E+0	2.432720E+0	2.328038E+0	2.433716E+0	2.427862E+0	2.556270E+0	2.509296E+0	2.428055E+0	2.390457E+0	2.490229E+0	2.348055E+0	2.467917E+0	2.517332E+0	2.521646E+0	2.345348E+0	2.385850E+0	2.482444E+0	2.495085E+0	2.498803E+0	2.486679E+0	2.419590E+0	2.384497E+0	2.435059E+0	2.298044E+0	2.425808E+0	2.478122E+0	2.408072E+0	2.492058E+0	2.477525E+0	2.400470E+0	2.441810E+0	2.421929E+0	2.412405E+0	2.467044E+0	2.452056E+0	2.376166E+0	2.414581E+0	2.448537E+0	2.349396E+0	2.441148E+0	2.499613E+0	2.478317E+0	2.364156E+0	2.329810E+0	2.424569E+0	2.446997E+0	2.439872E+0	2.442600E+0	2.401394E+0	2.428405E+0	2.479877E+0	2.401425E+0	2.457653E+0	2.418280E+0	2.482025E+0	2.484995E+0	2.437034E+0	2.339514E+0	2.389042E+0	2.362212E+0	2.447791E+0	2.389434E+0	2.465570E+0	2.468762E+0	2.400870E+0	2.428998E+0	2.404139E+0	2.430240E+0	2.408484E+0	2.412512E+0	2.420267E+0	2.497822E+0	2.382577E+0	2.430894E+0	2.449996E+0	2.402257E+0	2.306625E+0	2.439143E+0	2.439867E+0	2.455575E+0	2.472198E+0	2.378611E+0	2.295238E+0	2.352055E+0	2.384636E+0	2.392942E+0	2.276345E+0	2.416700E+0
5.360070E+2	2.539277E+0	2.595799E+0	2.537803E+0	2.582572E+0	2.512303E+0	2.515337E+0	2.591845E+0	2.656000E+0	2.467269E+0	2.488219E+0	2.462767E+0	2.652244E+0	2.503813E+0	2.497862E+0	2.567481E+0	2.427532E+0	2.698793E+0	2.476649E+0	2.485989E+0	2.544664E+0	2.554502E+0	2.463754E+0	2.489278E+0	2.584444E+0	2.556695E+0	2.548742E+0	2.377616E+0	2.598704E+0	2.588789E+0	2.537725E+0	2.513995E+0	2.584430E+0	2.504962E+0	2.595961E+0	2.520027E+0	2.510981E+0	2.574297E+0	2.584889E+0	2.540041E+0	2.457957E+0	2.587736E+0	2.538565E+0	2.497684E+0	2.628312E+0	2.565344E+0	2.524580E+0	2.404297E+0	2.548078E+0	2.526672E+0	2.521167E+0	2.534505E+0	2.619369E+0	2.527096E+0	2.530309E+0	2.583068E+0	2.573191E+0	2.536984E+0	2.449698E+0	2.588210E+0	2.484879E+0	2.530415E+0	2.564516E+0	2.565469E+0	2.606180E+0	2.511942E+0	2.471086E+0	2.560668E+0	2.441149E+0	2.574860E+0	2.550704E+0	2.549915E+0	2.474250E+0	2.539294E+0	2.441529E+0	2.492699E+0	2.471179E+0	2.448238E+0	2.515972E+0	2.556100E+0	2.620129E+0	2.564783E+0	2.528302E+0	2.443383E+0	2.570651E+0	2.493125E+0	2.420121E+0	2.488096E+0	2.512259E+0	2.519834E+0	2.481885E+0	2.564703E+0	2.443074E+0	2.430354E+0	2.486702E+0	2.547684E+0	2.492088E+0	2.446308E+0	2.482221E+0	2.440916E+0	2.544096E+0	2.531566E+0	2.516883E+0	2.478676E+0	2.519875E+0	2.441385E+0	2.543373E+0	2.467813E+0	2.514717E+0	2.546479E+0	2.525221E+0	2.480742E+0	2.459241E+0	2.568433E+0	2.553412E+0	2.377606E+0	2.527464E+0	2.534836E+0	2.571670E+0	2.479348E+0	2.506625E+0	2.518218E+0	2.533291E+0	2.525193E+0	2.451866E+0	2.502292E+0	2.441404E+0	2.359233E+0	2.532304E+0	2.534856E+0	2.515047E+0	2.376387E+0	2.477291E+0	2.503522E+0	2.432658E+0	2.510869E+0	2.512046E+0	2.435812E+0	2.387896E+0	2.500903E+0	2.442920E+0	2.514195E+0	2.372624E+0	2.505084E+0	2.406161E+0	2.504810E+0	2.526557E+0	2.473792E+0	2.474083E+0	2.472726E+0	2.398274E+0	2.546381E+0	2.468537E+0	2.441998E+0	2.455750E+0	2.461974E+0	2.390548E+0	2.509847E+0	2.452572E+0	2.475832E+0	2.441520E+0	2.512961E+0	2.545783E+0	2.432615E+0	2.487146E+0	2.397920E+0	2.390505E+0	2.487389E+0	2.457685E+0	2.473055E+0	2.335789E+0	2.606317E+0
5.362050E+2	2.002865E+0	2.278448E+0	1.992800E+0	2.085102E+0	2.115054E+0	2.190842E+0	2.126887E+0	2.135234E+0	2.038643E+0	2.193850E+0	2.120153E+0	2.144895E+0	2.046611E+0	2.146281E+0	2.166926E+0	2.073721E+0	2.125993E+0	2.157804E+0	2.067515E+0	2.096140E+0	2.163591E+0	2.147495E+0	2.109832E+0	2.108349E+0	2.071754E+0	2.090185E+0	2.017188E+0	2.068840E+0	2.121945E+0	2.128980E+0	2.074356E+0	2.127872E+0	2.100394E+0	2.145865E+0	2.164959E+0	2.117005E+0	2.099430E+0	2.077431E+0	2.102892E+0	2.153688E+0	2.134442E+0	2.125471E+0	2.121979E+0	2.148486E+0	2.107027E+0	2.079782E+0	2.088087E+0	2.066663E+0	2.215584E+0	2.062038E+0	2.092457E+0	2.175794E+0	2.103643E+0	2.150975E+0	2.134187E+0	2.082095E+0	2.100390E+0	2.064679E+0	2.050719E+0	2.181770E+0	2.074260E+0	2.148348E+0	2.113334E+0	2.135893E+0	2.052454E+0	2.072114E+0	2.113093E+0	2.020551E+0	2.134571E+0	2.050793E+0	2.115908E+0	2.118365E+0	2.153814E+0	2.046907E+0	2.022770E+0	1.994645E+0	2.052435E+0	2.139208E+0	2.060721E+0	2.165413E+0	2.049986E+0	2.075793E+0	2.108470E+0	2.019652E+0	2.090799E+0	2.005823E+0	2.154542E+0	2.103585E+0	2.147688E+0	2.094923E+0	2.087601E+0	2.049730E+0	2.102707E+0	2.083297E+0	2.076948E+0	2.149590E+0	2.184089E+0	2.111705E+0	2.065352E+0	2.132344E+0	2.044392E+0	2.081876E+0	2.057329E+0	2.101718E+0	2.024153E+0	2.115979E+0	2.057492E+0	2.041877E+0	2.080261E+0	2.134241E+0	2.143023E+0	2.148878E+0	2.089901E+0	2.075358E+0	2.047081E+0	2.034413E+0	2.192490E+0	2.046831E+0	2.065796E+0	2.120468E+0	2.102182E+0	2.009401E+0	2.127189E+0	2.102424E+0	2.082624E+0	2.103546E+0	1.972627E+0	2.184126E+0	2.097986E+0	2.114569E+0	2.082738E+0	2.137849E+0	2.097226E+0	2.080785E+0	2.041850E+0	2.185050E+0	2.016890E+0	1.992239E+0	2.133421E+0	2.038299E+0	2.053860E+0	2.018025E+0	2.093857E+0	2.075589E+0	2.018983E+0	2.128783E+0	2.074071E+0	2.179703E+0	2.032816E+0	2.041062E+0	2.079116E+0	1.968038E+0	2.058891E+0	2.078554E+0	1.980213E+0	2.155338E+0	2.174420E+0	2.075245E+0	2.014865E+0	2.101041E+0	2.118592E+0	2.049509E+0	2.092803E+0	2.032934E+0	2.017975E+0	2.014558E+0	2.049891E+0	2.079703E+0	2.059570E+0	2.010751E+0	2.219927E+0
5.364090E+2	1.989018E+0	2.065876E+0	2.049465E+0	1.879829E+0	1.939177E+0	2.103539E+0	2.028790E+0	2.068660E+0	1.934280E+0	1.992171E+0	1.991542E+0	1.931325E+0	1.967483E+0	1.978043E+0	1.996056E+0	1.928497E+0	2.068301E+0	2.035362E+0	1.952794E+0	2.029867E+0	2.021616E+0	1.945849E+0	1.954383E+0	2.017053E+0	1.911971E+0	2.081887E+0	1.871097E+0	2.023338E+0	1.957787E+0	2.103890E+0	2.023335E+0	1.970388E+0	1.936802E+0	2.043738E+0	2.003881E+0	1.987281E+0	1.948780E+0	1.929319E+0	2.022920E+0	2.013101E+0	1.974921E+0	1.959421E+0	1.984888E+0	1.980455E+0	1.989404E+0	1.981239E+0	1.950014E+0	2.029670E+0	2.003955E+0	1.911902E+0	1.914687E+0	2.003984E+0	1.917951E+0	1.929365E+0	1.950361E+0	1.908225E+0	1.994707E+0	1.998870E+0	1.900918E+0	2.013678E+0	1.971124E+0	2.018371E+0	1.965779E+0	1.971958E+0	1.992627E+0	1.993947E+0	2.063423E+0	1.995056E+0	1.971354E+0	1.978260E+0	1.973260E+0	1.998438E+0	1.943341E+0	1.948190E+0	1.925871E+0	1.944290E+0	1.965253E+0	1.938421E+0	1.949551E+0	1.983997E+0	1.909299E+0	1.892983E+0	1.981423E+0	1.883005E+0	2.031727E+0	1.901560E+0	2.028134E+0	1.935384E+0	1.998912E+0	1.916487E+0	1.926176E+0	2.072849E+0	1.955034E+0	1.993231E+0	1.827095E+0	2.038388E+0	2.098329E+0	1.952291E+0	2.009840E+0	1.993453E+0	2.028041E+0	2.040032E+0	1.890477E+0	1.996740E+0	1.945739E+0	1.968815E+0	1.898643E+0	1.973093E+0	1.918825E+0	1.946123E+0	1.943985E+0	1.936893E+0	1.996945E+0	2.012496E+0	1.927067E+0	1.944751E+0	1.990072E+0	1.984667E+0	1.932235E+0	2.039745E+0	1.952687E+0	2.006710E+0	1.996372E+0	2.008280E+0	1.963662E+0	1.949254E+0	1.894838E+0	2.135646E+0	1.917836E+0	1.978957E+0	1.928925E+0	1.942766E+0	2.000100E+0	1.903318E+0	1.928135E+0	1.943886E+0	1.977353E+0	2.017690E+0	1.883599E+0	2.000134E+0	1.935410E+0	1.909789E+0	1.990908E+0	1.955745E+0	2.034833E+0	2.044482E+0	1.920754E+0	1.918403E+0	1.949826E+0	1.871258E+0	1.957364E+0	1.932885E+0	1.952013E+0	1.931050E+0	2.050612E+0	2.014066E+0	1.943881E+0	1.909512E+0	1.904521E+0	1.940552E+0	1.957759E+0	1.918795E+0	1.963002E+0	1.989556E+0	1.930867E+0	1.924056E+0	2.002839E+0	2.003616E+0	1.970533E+0	1.889826E+0	2.012729E+0
5.366350E+2	1.696557E+0	1.685901E+0	1.622796E+0	1.720887E+0	1.651393E+0	1.676306E+0	1.672427E+0	1.681607E+0	1.647700E+0	1.688133E+0	1.676292E+0	1.698548E+0	1.580139E+0	1.686478E+0	1.692615E+0	1.637278E+0	1.806533E+0	1.716898E+0	1.613188E+0	1.684770E+0	1.743305E+0	1.589885E+0	1.602554E+0	1.715349E+0	1.667824E+0	1.635209E+0	1.652404E+0	1.788054E+0	1.632011E+0	1.679985E+0	1.668017E+0	1.648096E+0	1.672922E+0	1.712118E+0	1.692435E+0	1.716739E+0	1.698610E+0	1.695919E+0	1.682379E+0	1.685592E+0	1.645957E+0	1.644421E+0	1.590317E+0	1.706167E+0	1.609792E+0	1.657957E+0	1.604098E+0	1.614756E+0	1.637194E+0	1.677919E+0	1.582699E+0	1.647034E+0	1.623637E+0	1.631619E+0	1.660920E+0	1.704144E+0	1.746884E+0	1.675762E+0	1.639549E+0	1.711978E+0	1.640203E+0	1.736071E+0	1.669339E+0	1.676620E+0	1.575493E+0	1.682976E+0	1.713675E+0	1.604844E+0	1.713392E+0	1.770721E+0	1.642924E+0	1.714344E+0	1.690772E+0	1.642681E+0	1.588846E+0	1.604281E+0	1.658036E+0	1.676141E+0	1.626674E+0	1.729367E+0	1.699612E+0	1.634666E+0	1.664056E+0	1.644326E+0	1.620362E+0	1.622160E+0	1.666860E+0	1.655360E+0	1.623203E+0	1.663392E+0	1.632943E+0	1.645855E+0	1.639578E+0	1.618044E+0	1.663434E+0	1.713103E+0	1.682803E+0	1.608568E+0	1.650299E+0	1.627060E+0	1.660754E+0	1.657163E+0	1.572590E+0	1.670163E+0	1.658021E+0	1.647185E+0	1.615039E+0	1.695316E+0	1.658654E+0	1.667977E+0	1.610509E+0	1.685327E+0	1.646416E+0	1.641267E+0	1.611821E+0	1.686812E+0	1.643246E+0	1.655947E+0	1.670647E+0	1.678606E+0	1.611140E+0	1.634494E+0	1.665356E+0	1.617806E+0	1.630456E+0	1.629589E+0	1.557295E+0	1.649868E+0	1.715693E+0	1.669318E+0	1.639328E+0	1.636660E+0	1.557989E+0	1.621565E+0	1.590869E+0	1.719751E+0	1.665984E+0	1.639130E+0	1.597932E+0	1.708448E+0	1.613825E+0	1.612979E+0	1.661443E+0	1.715800E+0	1.624261E+0	1.597148E+0	1.612745E+0	1.602886E+0	1.663325E+0	1.612075E+0	1.594779E+0	1.700783E+0	1.629721E+0	1.635787E+0	1.632874E+0	1.704879E+0	1.647659E+0	1.579510E+0	1.588688E+0	1.630184E+0	1.712912E+0	1.608385E+0	1.644489E+0	1.699371E+0	1.597487E+0	1.541040E+0	1.661856E+0	1.649123E+0	1.613300E+0	1.591298E+0	1.528397E+0
5.368130E+2	1.751616E+0	1.601575E+0	1.664585E+0	1.610123E+0	1.531281E+0	1.733401E+0	1.639415E+0	1.671633E+0	1.625877E+0	1.663599E+0	1.607183E+0	1.591564E+0	1.597622E+0	1.631116E+0	1.606159E+0	1.613074E+0	1.698830E+0	1.621884E+0	1.590818E+0	1.632473E+0	1.684026E+0	1.597721E+0	1.693377E+0	1.712685E+0	1.687024E+0	1.551923E+0	1.574902E+0	1.707395E+0	1.619069E+0	1.704121E+0	1.692538E+0	1.646522E+0	1.626199E+0	1.742198E+0	1.652001E+0	1.528485E+0	1.581699E+0	1.681104E+0	1.648791E+0	1.650057E+0	1.749802E+0	1.644696E+0	1.653410E+0	1.657183E+0	1.660416E+0	1.598608E+0	1.599583E+0	1.653627E+0	1.712419E+0	1.600710E+0	1.505265E+0	1.634663E+0	1.632253E+0	1.622721E+0	1.643321E+0	1.648687E+0	1.700094E+0	1.562836E+0	1.637248E+0	1.645298E+0	1.634641E+0	1.657079E+0	1.681128E+0	1.675014E+0	1.539351E+0	1.635916E+0	1.689970E+0	1.614746E+0	1.673257E+0	1.595958E+0	1.645037E+0	1.595124E+0	1.585990E+0	1.582000E+0	1.581727E+0	1.660790E+0	1.612942E+0	1.605034E+0	1.658687E+0	1.647116E+0	1.708349E+0	1.579459E+0	1.619040E+0	1.643746E+0	1.612667E+0	1.590092E+0	1.628770E+0	1.591750E+0	1.636427E+0	1.665412E+0	1.602512E+0	1.614768E+0	1.695979E+0	1.633501E+0	1.642563E+0	1.613921E+0	1.622028E+0	1.627100E+0	1.537698E+0	1.647454E+0	1.636437E+0	1.681760E+0	1.638394E+0	1.574640E+0	1.631753E+0	1.665784E+0	1.628942E+0	1.650254E+0	1.694527E+0	1.628861E+0	1.590144E+0	1.630434E+0	1.669334E+0	1.662468E+0	1.543708E+0	1.612377E+0	1.657632E+0	1.684276E+0	1.589125E+0	1.675742E+0	1.663887E+0	1.626033E+0	1.634852E+0	1.656678E+0	1.629963E+0	1.598361E+0	1.594567E+0	1.632862E+0	1.604576E+0	1.659397E+0	1.636834E+0	1.626651E+0	1.617715E+0	1.543154E+0	1.630013E+0	1.608915E+0	1.625518E+0	1.662708E+0	1.595648E+0	1.639022E+0	1.611928E+0	1.700356E+0	1.553885E+0	1.596982E+0	1.635806E+0	1.672841E+0	1.657222E+0	1.689708E+0	1.699766E+0	1.608580E+0	1.528576E+0	1.601040E+0	1.548864E+0	1.682595E+0	1.585397E+0	1.744399E+0	1.661475E+0	1.698792E+0	1.623449E+0	1.639785E+0	1.618020E+0	1.520523E+0	1.634199E+0	1.645247E+0	1.624247E+0	1.553389E+0	1.582438E+0	1.657950E+0	1.658245E+0	1.593741E+0	1.803970E+0
5.370010E+2	1.416917E+0	1.318303E+0	1.405019E+0	1.378789E+0	1.386888E+0	1.410382E+0	1.402662E+0	1.406110E+0	1.388502E+0	1.345256E+0	1.356885E+0	1.383439E+0	1.317389E+0	1.341994E+0	1.399304E+0	1.287085E+0	1.359389E+0	1.341298E+0	1.329279E+0	1.382956E+0	1.404676E+0	1.384209E+0	1.414945E+0	1.392322E+0	1.388366E+0	1.389931E+0	1.346964E+0	1.494956E+0	1.308618E+0	1.371087E+0	1.361085E+0	1.380840E+0	1.394009E+0	1.394598E+0	1.417243E+0	1.331642E+0	1.363058E+0	1.364651E+0	1.324412E+0	1.426277E+0	1.387126E+0	1.386401E+0	1.396664E+0	1.365119E+0	1.348828E+0	1.397658E+0	1.385290E+0	1.367335E+0	1.359172E+0	1.387766E+0	1.365785E+0	1.408395E+0	1.306429E+0	1.346662E+0	1.362405E+0	1.395672E+0	1.412177E+0	1.314432E+0	1.381858E+0	1.400170E+0	1.279821E+0	1.442693E+0	1.391975E+0	1.391340E+0	1.390573E+0	1.413921E+0	1.405661E+0	1.391873E+0	1.374736E+0	1.373003E+0	1.308798E+0	1.386595E+0	1.382352E+0	1.337140E+0	1.396499E+0	1.403419E+0	1.368441E+0	1.330917E+0	1.338850E+0	1.405375E+0	1.428310E+0	1.335229E+0	1.391672E+0	1.341981E+0	1.279339E+0	1.341060E+0	1.422895E+0	1.351630E+0	1.344146E+0	1.351924E+0	1.329084E+0	1.392168E+0	1.358210E+0	1.341632E+0	1.376572E+0	1.396522E+0	1.381534E+0	1.374068E+0	1.371101E+0	1.435056E+0	1.384514E+0	1.397427E+0	1.309092E+0	1.405958E+0	1.359057E+0	1.315202E+0	1.293862E+0	1.392442E+0	1.404203E+0	1.402370E+0	1.295853E+0	1.348818E+0	1.373249E+0	1.359753E+0	1.349940E+0	1.379060E+0	1.384982E+0	1.425168E+0	1.354693E+0	1.276469E+0	1.433143E+0	1.371518E+0	1.331900E+0	1.348640E+0	1.279196E+0	1.373382E+0	1.276414E+0	1.354667E+0	1.389793E+0	1.368898E+0	1.358739E+0	1.321977E+0	1.376263E+0	1.305435E+0	1.315641E+0	1.365384E+0	1.369093E+0	1.403416E+0	1.380996E+0	1.391673E+0	1.341096E+0	1.333945E+0	1.382091E+0	1.350149E+0	1.452607E+0	1.385788E+0	1.414039E+0	1.420124E+0	1.378818E+0	1.319545E+0	1.373278E+0	1.346266E+0	1.365052E+0	1.320553E+0	1.288322E+0	1.398419E+0	1.403115E+0	1.362547E+0	1.300579E+0	1.346689E+0	1.383495E+0	1.294848E+0	1.342776E+0	1.366796E+0	1.319685E+0	1.339433E+0	1.365959E+0	1.417766E+0	1.426327E+0	1.378419E+0	1.316537E+0
5.372270E+2	1.404967E+0	1.377680E+0	1.374586E+0	1.394824E+0	1.351907E+0	1.375117E+0	1.373046E+0	1.428263E+0	1.411603E+0	1.379524E+0	1.401923E+0	1.455649E+0	1.327593E+0	1.420729E+0	1.458968E+0	1.370281E+0	1.365601E+0	1.436124E+0	1.437138E+0	1.368041E+0	1.409135E+0	1.340587E+0	1.348114E+0	1.426524E+0	1.373177E+0	1.346785E+0	1.406900E+0	1.452401E+0	1.346400E+0	1.369388E+0	1.413320E+0	1.385042E+0	1.375369E+0	1.410148E+0	1.419918E+0	1.414869E+0	1.367626E+0	1.331952E+0	1.345355E+0	1.388053E+0	1.313252E+0	1.442968E+0	1.338243E+0	1.416381E+0	1.378039E+0	1.350297E+0	1.423373E+0	1.444512E+0	1.401344E+0	1.389691E+0	1.283176E+0	1.412017E+0	1.364653E+0	1.411003E+0	1.384929E+0	1.378029E+0	1.381709E+0	1.372606E+0	1.370660E+0	1.430202E+0	1.385324E+0	1.427234E+0	1.457383E+0	1.382896E+0	1.469171E+0	1.411126E+0	1.408339E+0	1.350029E+0	1.417143E+0	1.406222E+0	1.405995E+0	1.373412E+0	1.381840E+0	1.436493E+0	1.282194E+0	1.419833E+0	1.337478E+0	1.375033E+0	1.387552E+0	1.434635E+0	1.391101E+0	1.385804E+0	1.378857E+0	1.380264E+0	1.458095E+0	1.331147E+0	1.427965E+0	1.368619E+0	1.385354E+0	1.336736E+0	1.352513E+0	1.419071E+0	1.348483E+0	1.382971E+0	1.426829E+0	1.423621E+0	1.383697E+0	1.347341E+0	1.415066E+0	1.323641E+0	1.379483E+0	1.459838E+0	1.353062E+0	1.427588E+0	1.429592E+0	1.412450E+0	1.310691E+0	1.383575E+0	1.407586E+0	1.348961E+0	1.408265E+0	1.386010E+0	1.352483E+0	1.399187E+0	1.381658E+0	1.336342E+0	1.423649E+0	1.353040E+0	1.410464E+0	1.395976E+0	1.395366E+0	1.403475E+0	1.312879E+0	1.373550E+0	1.397259E+0	1.357296E+0	1.302407E+0	1.511139E+0	1.338380E+0	1.451653E+0	1.411181E+0	1.346520E+0	1.440316E+0	1.376334E+0	1.403818E+0	1.397709E+0	1.373793E+0	1.452063E+0	1.401480E+0	1.408109E+0	1.413695E+0	1.353597E+0	1.413409E+0	1.378081E+0	1.328385E+0	1.444091E+0	1.311609E+0	1.409772E+0	1.423436E+0	1.400821E+0	1.364096E+0	1.384116E+0	1.391799E+0	1.335738E+0	1.354169E+0	1.480404E+0	1.372981E+0	1.384159E+0	1.327526E+0	1.389181E+0	1.413339E+0	1.395688E+0	1.418328E+0	1.401917E+0	1.345986E+0	1.334279E+0	1.389643E+0	1.417437E+0	1.355789E+0	1.355203E+0	1.347453E+0
5.374110E+2	1.382576E+0	1.333563E+0	1.223571E+0	1.433078E+0	1.330463E+0	1.373192E+0	1.282556E+0	1.382653E+0	1.359075E+0	1.412823E+0	1.294947E+0	1.373954E+0	1.377760E+0	1.346445E+0	1.366870E+0	1.283485E+0	1.363649E+0	1.366642E+0	1.358111E+0	1.351892E+0	1.381433E+0	1.350999E+0	1.323054E+0	1.374145E+0	1.331956E+0	1.312244E+0	1.313348E+0	1.439684E+0	1.345948E+0	1.363644E+0	1.377644E+0	1.380422E+0	1.297314E+0	1.314101E+0	1.381452E+0	1.359900E+0	1.329226E+0	1.303431E+0	1.339992E+0	1.313086E+0	1.344474E+0	1.351226E+0	1.292767E+0	1.372010E+0	1.303017E+0	1.310249E+0	1.296989E+0	1.376243E+0	1.377354E+0	1.349066E+0	1.373090E+0	1.337196E+0	1.303154E+0	1.318788E+0	1.314127E+0	1.341964E+0	1.400317E+0	1.356241E+0	1.270317E+0	1.427957E+0	1.361505E+0	1.397868E+0	1.343347E+0	1.328432E+0	1.370226E+0	1.345787E+0	1.472634E+0	1.310858E+0	1.418612E+0	1.342264E+0	1.356972E+0	1.366203E+0	1.308635E+0	1.293611E+0	1.299818E+0	1.355047E+0	1.299822E+0	1.329897E+0	1.338594E+0	1.420324E+0	1.267405E+0	1.379247E+0	1.363002E+0	1.334682E+0	1.356655E+0	1.265147E+0	1.353917E+0	1.312126E+0	1.308057E+0	1.328068E+0	1.293850E+0	1.277713E+0	1.323110E+0	1.263103E+0	1.327648E+0	1.359288E+0	1.388386E+0	1.328643E+0	1.280690E+0	1.368140E+0	1.347834E+0	1.294062E+0	1.280462E+0	1.375926E+0	1.335161E+0	1.349143E+0	1.282352E+0	1.311643E+0	1.343303E+0	1.289167E+0	1.296557E+0	1.346856E+0	1.313471E+0	1.358332E+0	1.316166E+0	1.392210E+0	1.323783E+0	1.338184E+0	1.295276E+0	1.401660E+0	1.361244E+0	1.320222E+0	1.336594E+0	1.317847E+0	1.328128E+0	1.347312E+0	1.307401E+0	1.420558E+0	1.375075E+0	1.401461E+0	1.271814E+0	1.374701E+0	1.388480E+0	1.309452E+0	1.329926E+0	1.349456E+0	1.331188E+0	1.292815E+0	1.397168E+0	1.373255E+0	1.384941E+0	1.347035E+0	1.340300E+0	1.339863E+0	1.394122E+0	1.322871E+0	1.369592E+0	1.315633E+0	1.304746E+0	1.312438E+0	1.257853E+0	1.377623E+0	1.293262E+0	1.300973E+0	1.300025E+0	1.327315E+0	1.304987E+0	1.357311E+0	1.351281E+0	1.375539E+0	1.361626E+0	1.359127E+0	1.300615E+0	1.315028E+0	1.292206E+0	1.295959E+0	1.361734E+0	1.363681E+0	1.345526E+0	1.299641E+0	1.456422E+0
5.376060E+2	1.574105E+0	1.643488E+0	1.448938E+0	1.463087E+0	1.479287E+0	1.532854E+0	1.505369E+0	1.552500E+0	1.649569E+0	1.564426E+0	1.509730E+0	1.449752E+0	1.436345E+0	1.566531E+0	1.477109E+0	1.512559E+0	1.631335E+0	1.515486E+0	1.496809E+0	1.547887E+0	1.591966E+0	1.520638E+0	1.503047E+0	1.540487E+0	1.501249E+0	1.544352E+0	1.454472E+0	1.490853E+0	1.490565E+0	1.526096E+0	1.545273E+0	1.514883E+0	1.466888E+0	1.509499E+0	1.553708E+0	1.547242E+0	1.541631E+0	1.580060E+0	1.449646E+0	1.554593E+0	1.509579E+0	1.425091E+0	1.503105E+0	1.521685E+0	1.537937E+0	1.517981E+0	1.481909E+0	1.544085E+0	1.551311E+0	1.511920E+0	1.431809E+0	1.653210E+0	1.500410E+0	1.477133E+0	1.476402E+0	1.516485E+0	1.503135E+0	1.537184E+0	1.405075E+0	1.536059E+0	1.510411E+0	1.547416E+0	1.521553E+0	1.517461E+0	1.521152E+0	1.551191E+0	1.530108E+0	1.421086E+0	1.521321E+0	1.483527E+0	1.499352E+0	1.567968E+0	1.476960E+0	1.520933E+0	1.460633E+0	1.462770E+0	1.479747E+0	1.517094E+0	1.515102E+0	1.601715E+0	1.468553E+0	1.488642E+0	1.448078E+0	1.541635E+0	1.515502E+0	1.437954E+0	1.512703E+0	1.471190E+0	1.614529E+0	1.463790E+0	1.527675E+0	1.509333E+0	1.484548E+0	1.532183E+0	1.508326E+0	1.567874E+0	1.583919E+0	1.468117E+0	1.485482E+0	1.589343E+0	1.568073E+0	1.584116E+0	1.481174E+0	1.512770E+0	1.515469E+0	1.476770E+0	1.496208E+0	1.532361E+0	1.473724E+0	1.572325E+0	1.492207E+0	1.461326E+0	1.464994E+0	1.529176E+0	1.513461E+0	1.463701E+0	1.513403E+0	1.502112E+0	1.525840E+0	1.559447E+0	1.502178E+0	1.491171E+0	1.473805E+0	1.472428E+0	1.509518E+0	1.566039E+0	1.391509E+0	1.572683E+0	1.500430E+0	1.487681E+0	1.531528E+0	1.501664E+0	1.596209E+0	1.464130E+0	1.457758E+0	1.540935E+0	1.501338E+0	1.538236E+0	1.536393E+0	1.500420E+0	1.522961E+0	1.510915E+0	1.513961E+0	1.452700E+0	1.557677E+0	1.529329E+0	1.452309E+0	1.539675E+0	1.479109E+0	1.498745E+0	1.460532E+0	1.512461E+0	1.506155E+0	1.475442E+0	1.508119E+0	1.525979E+0	1.510276E+0	1.505714E+0	1.527231E+0	1.497507E+0	1.559890E+0	1.518924E+0	1.498382E+0	1.556220E+0	1.553173E+0	1.454283E+0	1.486139E+0	1.602050E+0	1.551061E+0	1.507328E+0	1.569315E+0
5.378160E+2	1.838992E+0	1.835491E+0	1.739781E+0	1.857682E+0	1.792545E+0	1.773296E+0	1.761122E+0	1.906091E+0	1.833625E+0	1.808654E+0	1.771125E+0	1.860001E+0	1.806834E+0	1.806849E+0	1.855181E+0	1.733745E+0	1.848096E+0	1.857830E+0	1.855075E+0	1.778940E+0	1.837107E+0	1.847890E+0	1.763032E+0	1.826599E+0	1.866988E+0	1.759239E+0	1.704515E+0	1.761073E+0	1.822646E+0	1.794004E+0	1.887172E+0	1.779221E+0	1.866069E+0	1.805929E+0	1.810640E+0	1.797393E+0	1.838343E+0	1.778207E+0	1.775904E+0	1.793410E+0	1.864927E+0	1.799377E+0	1.779878E+0	1.796522E+0	1.753478E+0	1.769913E+0	1.750847E+0	1.789315E+0	1.928631E+0	1.795611E+0	1.759554E+0	1.790298E+0	1.838191E+0	1.830376E+0	1.853702E+0	1.758228E+0	1.832317E+0	1.754873E+0	1.769727E+0	1.816914E+0	1.781020E+0	1.808706E+0	1.865240E+0	1.787643E+0	1.813706E+0	1.860256E+0	1.846820E+0	1.766941E+0	1.913211E+0	1.796886E+0	1.852868E+0	1.787595E+0	1.839463E+0	1.758566E+0	1.818791E+0	1.708583E+0	1.752399E+0	1.746413E+0	1.822341E+0	1.876908E+0	1.778768E+0	1.787617E+0	1.747236E+0	1.779450E+0	1.742455E+0	1.761639E+0	1.823370E+0	1.791461E+0	1.802733E+0	1.733200E+0	1.804572E+0	1.802041E+0	1.846874E+0	1.751699E+0	1.762082E+0	1.838851E+0	1.782109E+0	1.773449E+0	1.726057E+0	1.769459E+0	1.847783E+0	1.829498E+0	1.758377E+0	1.797338E+0	1.826636E+0	1.788030E+0	1.687771E+0	1.715817E+0	1.859535E+0	1.774094E+0	1.810406E+0	1.727939E+0	1.756788E+0	1.793328E+0	1.756251E+0	1.775173E+0	1.796857E+0	1.762182E+0	1.737478E+0	1.760318E+0	1.781013E+0	1.761222E+0	1.767949E+0	1.851192E+0	1.800609E+0	1.798369E+0	1.748345E+0	1.840667E+0	1.814550E+0	1.829525E+0	1.794478E+0	1.741248E+0	1.818994E+0	1.785897E+0	1.753136E+0	1.816128E+0	1.750401E+0	1.866374E+0	1.819948E+0	1.821923E+0	1.820973E+0	1.732394E+0	1.753427E+0	1.816497E+0	1.875311E+0	1.845144E+0	1.748328E+0	1.806412E+0	1.759738E+0	1.735501E+0	1.766820E+0	1.748027E+0	1.764658E+0	1.712046E+0	1.647085E+0	1.788351E+0	1.792249E+0	1.733784E+0	1.760172E+0	1.836212E+0	1.820391E+0	1.756300E+0	1.750712E+0	1.830865E+0	1.788149E+0	1.723385E+0	1.732779E+0	1.796831E+0	1.809812E+0	1.708051E+0	1.806423E+0
5.380210E+2	1.933161E+0	1.901474E+0	1.778978E+0	1.762001E+0	1.852274E+0	1.902127E+0	1.897543E+0	1.869316E+0	1.822153E+0	1.877785E+0	1.827682E+0	1.757881E+0	1.900156E+0	1.882159E+0	1.846978E+0	1.747743E+0	1.945271E+0	1.885737E+0	1.872704E+0	1.869659E+0	1.900419E+0	1.858021E+0	1.818125E+0	1.907666E+0	1.861079E+0	1.842893E+0	1.800030E+0	1.861732E+0	1.802421E+0	1.916559E+0	1.937065E+0	1.771245E+0	1.827865E+0	1.884539E+0	1.870145E+0	1.809140E+0	1.890321E+0	1.836054E+0	1.865048E+0	1.867966E+0	1.895191E+0	1.776290E+0	1.843942E+0	1.798134E+0	1.824684E+0	1.860060E+0	1.744781E+0	1.882197E+0	1.911794E+0	1.856419E+0	1.855728E+0	1.878746E+0	1.815961E+0	1.849211E+0	1.820758E+0	1.770392E+0	1.937712E+0	1.859367E+0	1.764057E+0	1.870803E+0	1.792173E+0	1.892488E+0	1.862588E+0	1.764599E+0	1.828969E+0	1.725301E+0	1.900874E+0	1.764562E+0	1.910431E+0	1.839240E+0	1.822282E+0	1.804448E+0	1.860549E+0	1.832420E+0	1.772585E+0	1.718683E+0	1.809401E+0	1.789173E+0	1.817265E+0	1.950670E+0	1.801341E+0	1.837644E+0	1.822793E+0	1.809785E+0	1.811096E+0	1.769198E+0	1.807075E+0	1.757268E+0	1.892280E+0	1.825788E+0	1.804250E+0	1.758129E+0	1.872695E+0	1.856536E+0	1.854677E+0	1.882228E+0	1.856166E+0	1.776837E+0	1.775543E+0	1.814269E+0	1.804698E+0	1.888902E+0	1.753942E+0	1.764550E+0	1.786790E+0	1.741051E+0	1.783402E+0	1.795788E+0	1.867093E+0	1.802852E+0	1.846202E+0	1.884779E+0	1.863093E+0	1.949724E+0	1.809661E+0	1.813580E+0	1.816065E+0	1.794229E+0	1.744288E+0	1.884028E+0	1.853807E+0	1.818991E+0	1.867622E+0	1.775438E+0	1.849357E+0	1.792667E+0	1.721757E+0	1.870925E+0	1.842268E+0	1.818237E+0	1.841022E+0	1.819775E+0	1.876708E+0	1.769492E+0	1.809941E+0	1.789350E+0	1.806305E+0	1.813172E+0	1.866709E+0	1.901796E+0	1.848835E+0	1.838452E+0	1.839394E+0	1.688185E+0	1.826835E+0	1.860706E+0	1.797556E+0	1.850202E+0	1.765004E+0	1.802668E+0	1.774175E+0	1.808534E+0	1.808239E+0	1.800130E+0	1.792232E+0	1.882683E+0	1.861491E+0	1.857493E+0	1.783102E+0	1.850111E+0	1.873651E+0	1.806408E+0	1.843176E+0	1.880700E+0	1.818896E+0	1.687251E+0	1.864389E+0	1.860490E+0	1.823114E+0	1.663673E+0	1.660257E+0
5.382110E+2	2.100838E+0	2.170792E+0	2.017652E+0	2.220790E+0	2.140809E+0	2.128142E+0	2.112860E+0	2.126668E+0	2.175670E+0	2.163629E+0	2.140023E+0	2.082397E+0	2.122203E+0	2.144692E+0	2.174304E+0	2.077735E+0	2.177024E+0	2.189922E+0	2.041623E+0	2.151851E+0	2.155347E+0	2.159565E+0	2.116231E+0	2.127890E+0	2.113672E+0	2.098935E+0	2.114297E+0	2.118590E+0	2.140296E+0	2.208128E+0	2.100057E+0	2.127812E+0	2.145583E+0	2.145214E+0	2.146111E+0	2.094500E+0	2.105872E+0	2.118616E+0	2.071699E+0	2.138203E+0	2.117300E+0	2.125960E+0	2.157443E+0	2.111245E+0	2.170743E+0	2.133698E+0	2.082784E+0	2.172939E+0	2.151993E+0	2.059837E+0	2.067146E+0	2.305067E+0	2.125993E+0	2.158214E+0	2.121088E+0	2.012210E+0	2.147821E+0	2.133656E+0	2.031633E+0	2.182150E+0	2.118594E+0	2.160643E+0	2.124865E+0	2.107044E+0	2.109763E+0	2.162831E+0	2.157946E+0	2.094385E+0	2.147851E+0	2.100505E+0	2.164354E+0	2.098164E+0	2.161025E+0	2.136973E+0	2.089357E+0	2.047913E+0	2.117736E+0	2.075797E+0	2.136272E+0	2.193876E+0	2.113208E+0	2.159293E+0	2.105468E+0	2.113014E+0	2.074454E+0	2.070400E+0	2.116150E+0	2.082391E+0	2.138039E+0	2.127830E+0	1.969348E+0	2.094301E+0	2.106711E+0	1.998088E+0	2.084439E+0	2.154570E+0	2.182649E+0	2.115812E+0	2.037995E+0	2.150276E+0	2.111610E+0	2.149095E+0	2.115479E+0	2.129591E+0	2.082203E+0	2.091091E+0	2.011005E+0	2.100029E+0	2.139942E+0	2.138933E+0	2.095442E+0	2.122648E+0	2.141902E+0	2.116300E+0	2.052641E+0	2.146589E+0	2.118523E+0	2.119172E+0	2.080725E+0	2.028423E+0	2.164355E+0	2.068753E+0	2.015371E+0	2.036037E+0	2.115494E+0	2.133088E+0	2.046156E+0	2.093848E+0	2.141081E+0	2.206825E+0	2.089020E+0	2.137161E+0	2.082370E+0	2.010891E+0	2.039975E+0	2.147866E+0	2.061131E+0	2.113608E+0	2.092799E+0	2.085497E+0	2.138845E+0	2.037293E+0	2.051153E+0	2.077496E+0	2.149898E+0	2.156017E+0	2.155122E+0	2.062877E+0	2.081203E+0	2.023749E+0	2.068375E+0	2.079460E+0	2.142129E+0	2.006066E+0	2.114154E+0	2.038826E+0	2.133985E+0	2.088029E+0	2.111224E+0	2.025242E+0	2.060301E+0	2.150863E+0	2.127964E+0	2.143809E+0	2.108574E+0	1.982875E+0	2.027358E+0	2.160561E+0	2.125892E+0	2.083432E+0	2.184204E+0
5.384110E+2	2.107121E+0	2.239869E+0	2.200833E+0	2.049509E+0	2.188761E+0	2.250905E+0	2.288868E+0	2.304500E+0	2.206649E+0	2.214688E+0	2.136049E+0	2.216657E+0	2.143532E+0	2.251480E+0	2.214761E+0	2.214593E+0	2.169539E+0	2.306631E+0	2.209875E+0	2.232964E+0	2.235750E+0	2.279934E+0	2.217488E+0	2.253456E+0	2.184619E+0	2.191050E+0	2.161980E+0	2.205238E+0	2.195772E+0	2.261958E+0	2.143447E+0	2.186525E+0	2.136985E+0	2.188959E+0	2.194561E+0	2.200749E+0	2.158290E+0	2.189901E+0	2.199210E+0	2.143356E+0	2.259625E+0	2.129821E+0	2.228448E+0	2.123560E+0	2.271727E+0	2.129658E+0	2.142244E+0	2.171958E+0	2.260029E+0	2.192477E+0	2.105497E+0	2.265285E+0	2.178382E+0	2.178941E+0	2.147940E+0	2.108328E+0	2.203465E+0	2.109621E+0	2.097014E+0	2.198046E+0	2.241979E+0	2.297675E+0	2.207798E+0	2.133633E+0	2.204641E+0	2.205065E+0	2.268123E+0	2.154239E+0	2.257685E+0	2.195957E+0	2.120243E+0	2.106805E+0	2.289589E+0	2.160145E+0	2.143372E+0	2.136964E+0	2.119827E+0	2.108484E+0	2.165978E+0	2.236733E+0	2.103983E+0	2.095177E+0	2.190843E+0	2.150917E+0	2.093684E+0	2.071089E+0	2.200445E+0	2.087059E+0	2.183952E+0	2.198698E+0	2.169430E+0	2.127198E+0	2.185244E+0	2.089159E+0	2.205889E+0	2.104156E+0	2.142890E+0	2.117058E+0	2.177522E+0	2.156234E+0	2.153189E+0	2.180313E+0	2.128894E+0	2.125827E+0	2.178047E+0	2.140343E+0	2.101262E+0	2.130985E+0	2.187189E+0	2.164222E+0	2.079747E+0	2.165262E+0	2.130685E+0	2.130561E+0	2.139215E+0	2.164192E+0	2.217318E+0	2.120595E+0	2.135554E+0	2.160115E+0	2.231551E+0	2.132941E+0	2.076036E+0	2.075156E+0	2.189335E+0	2.143894E+0	2.045298E+0	2.167924E+0	2.184556E+0	2.137428E+0	2.147168E+0	2.132175E+0	2.224723E+0	2.138642E+0	2.093707E+0	2.184639E+0	2.174614E+0	2.172607E+0	2.084967E+0	2.112698E+0	2.144997E+0	2.025614E+0	2.089709E+0	2.160042E+0	2.169895E+0	2.226777E+0	2.152817E+0	2.170072E+0	2.158111E+0	2.124702E+0	2.082083E+0	2.151270E+0	2.138268E+0	2.210665E+0	2.206133E+0	2.169443E+0	2.167466E+0	2.077465E+0	2.084265E+0	2.065278E+0	2.111281E+0	2.202133E+0	2.185982E+0	2.180490E+0	2.170636E+0	1.996150E+0	2.089220E+0	2.173211E+0	2.158555E+0	1.999309E+0	2.188576E+0
5.386120E+2	2.269046E+0	2.239820E+0	2.067928E+0	2.115339E+0	2.255890E+0	2.248616E+0	2.291955E+0	2.229293E+0	2.241643E+0	2.203912E+0	2.168393E+0	2.154001E+0	2.177817E+0	2.241210E+0	2.214019E+0	2.143565E+0	2.258695E+0	2.201526E+0	2.246588E+0	2.227530E+0	2.343993E+0	2.222581E+0	2.176414E+0	2.272562E+0	2.272976E+0	2.216354E+0	2.238445E+0	2.190147E+0	2.265319E+0	2.261416E+0	2.227907E+0	2.185939E+0	2.208553E+0	2.283025E+0	2.207363E+0	2.161580E+0	2.158020E+0	2.231365E+0	2.237216E+0	2.198974E+0	2.302867E+0	2.127060E+0	2.266099E+0	2.173853E+0	2.266158E+0	2.217482E+0	2.190389E+0	2.243144E+0	2.260476E+0	2.174141E+0	2.181767E+0	2.253488E+0	2.102809E+0	2.249785E+0	2.236036E+0	2.195878E+0	2.347314E+0	2.192211E+0	2.159218E+0	2.123563E+0	2.219245E+0	2.210506E+0	2.214351E+0	2.178058E+0	2.179534E+0	2.188273E+0	2.171753E+0	2.095242E+0	2.212771E+0	2.190611E+0	2.165478E+0	2.180316E+0	2.247185E+0	2.172373E+0	2.163383E+0	2.108228E+0	2.197563E+0	2.208365E+0	2.254014E+0	2.257456E+0	2.125145E+0	2.240130E+0	2.074296E+0	2.155926E+0	2.168801E+0	2.132320E+0	2.195688E+0	2.123750E+0	2.262010E+0	2.207588E+0	2.132308E+0	2.174874E+0	2.245456E+0	2.159414E+0	2.269100E+0	2.248099E+0	2.209569E+0	2.107351E+0	2.124974E+0	2.145793E+0	2.262316E+0	2.211431E+0	2.174211E+0	2.140911E+0	2.227416E+0	2.232089E+0	2.024451E+0	2.096121E+0	2.179744E+0	2.196900E+0	2.130324E+0	2.158420E+0	2.185306E+0	2.316466E+0	2.175364E+0	2.249656E+0	2.252995E+0	2.202365E+0	2.089695E+0	2.111619E+0	2.218960E+0	2.152905E+0	2.205364E+0	2.078045E+0	2.163643E+0	2.241706E+0	2.051645E+0	2.115636E+0	2.250622E+0	2.257267E+0	2.240630E+0	2.167381E+0	2.176449E+0	2.159448E+0	2.148307E+0	2.182723E+0	2.166547E+0	2.155501E+0	2.076008E+0	2.198392E+0	2.211270E+0	2.085586E+0	2.173232E+0	2.139500E+0	2.214853E+0	2.178616E+0	2.173421E+0	2.199301E+0	2.169274E+0	2.200133E+0	2.112834E+0	2.220877E+0	2.130614E+0	2.167972E+0	2.109874E+0	2.177882E+0	2.164106E+0	2.228824E+0	2.159756E+0	2.149580E+0	2.222104E+0	2.154576E+0	2.136600E+0	2.179556E+0	2.112288E+0	2.066408E+0	2.093638E+0	2.142886E+0	2.143069E+0	1.961634E+0	2.028901E+0
5.388120E+2	2.040716E+0	2.105110E+0	1.945162E+0	1.922056E+0	1.978765E+0	2.066480E+0	2.015481E+0	1.976861E+0	1.958744E+0	2.013078E+0	1.908829E+0	1.905196E+0	1.996354E+0	1.890716E+0	1.909540E+0	1.926819E+0	1.983709E+0	1.995343E+0	1.915389E+0	2.007259E+0	2.035793E+0	1.974604E+0	1.956911E+0	1.972171E+0	1.906012E+0	2.032230E+0	1.946993E+0	1.936884E+0	1.923866E+0	1.968789E+0	1.986128E+0	2.018162E+0	1.952741E+0	2.031430E+0	2.002964E+0	1.967118E+0	1.961766E+0	1.951095E+0	1.914031E+0	1.864789E+0	1.936781E+0	1.973814E+0	1.952942E+0	1.849927E+0	1.993536E+0	1.979589E+0	1.958169E+0	1.972639E+0	2.053960E+0	1.952423E+0	1.838760E+0	2.030522E+0	1.967900E+0	1.903689E+0	1.962550E+0	1.951789E+0	1.996030E+0	1.913021E+0	1.960550E+0	1.933831E+0	1.998579E+0	2.080370E+0	1.968611E+0	1.884535E+0	1.895434E+0	1.893466E+0	2.020496E+0	1.862090E+0	1.978995E+0	1.959054E+0	1.947004E+0	1.925315E+0	2.053124E+0	1.922637E+0	1.897374E+0	1.893675E+0	1.938627E+0	2.005391E+0	1.924856E+0	1.939465E+0	1.960543E+0	1.963609E+0	1.921815E+0	2.027544E+0	1.980278E+0	1.869717E+0	1.927253E+0	1.921767E+0	1.982875E+0	1.867398E+0	1.861023E+0	1.870637E+0	1.981807E+0	1.991547E+0	1.955983E+0	2.010604E+0	2.023777E+0	1.946455E+0	1.884884E+0	1.932450E+0	1.906825E+0	1.984410E+0	1.943469E+0	1.860140E+0	1.936063E+0	1.915103E+0	1.939940E+0	1.907187E+0	2.013504E+0	1.976503E+0	1.939239E+0	1.900517E+0	1.963190E+0	1.899885E+0	1.854416E+0	2.089761E+0	2.040265E+0	1.972756E+0	1.916112E+0	1.929410E+0	1.955074E+0	2.003507E+0	1.877539E+0	1.893580E+0	2.043721E+0	1.902051E+0	1.859642E+0	1.972776E+0	1.912365E+0	1.937444E+0	1.881209E+0	1.943815E+0	1.914603E+0	1.900489E+0	1.935560E+0	1.878563E+0	1.932510E+0	1.899390E+0	1.949168E+0	1.907478E+0	1.869923E+0	1.972556E+0	1.927324E+0	1.860230E+0	1.982395E+0	1.988651E+0	1.904572E+0	1.875927E+0	1.935961E+0	1.894419E+0	1.922069E+0	1.919390E+0	2.032012E+0	1.970376E+0	1.880935E+0	1.862097E+0	1.960183E+0	1.911381E+0	1.856707E+0	1.909171E+0	2.031196E+0	1.977338E+0	1.927514E+0	2.034554E+0	1.888701E+0	1.887843E+0	1.903308E+0	1.938149E+0	2.000019E+0	1.876957E+0	1.960623E+0
5.390130E+2	1.860327E+0	1.963000E+0	1.833501E+0	1.829376E+0	1.850442E+0	1.913483E+0	1.790896E+0	1.869049E+0	1.810254E+0	1.813012E+0	1.745947E+0	1.852694E+0	1.775523E+0	1.839494E+0	1.819238E+0	1.746531E+0	1.827770E+0	1.808162E+0	1.785499E+0	1.792010E+0	1.862582E+0	1.806241E+0	1.815290E+0	1.807973E+0	1.804576E+0	1.845590E+0	1.815098E+0	1.893598E+0	1.837695E+0	1.820361E+0	1.858353E+0	1.819198E+0	1.815878E+0	1.890183E+0	1.816125E+0	1.746380E+0	1.814759E+0	1.764352E+0	1.775934E+0	1.852081E+0	1.931773E+0	1.746673E+0	1.804236E+0	1.798917E+0	1.754870E+0	1.873051E+0	1.776801E+0	1.802888E+0	1.904185E+0	1.784872E+0	1.768533E+0	1.781699E+0	1.752439E+0	1.815136E+0	1.794997E+0	1.741139E+0	1.859836E+0	1.801151E+0	1.782648E+0	1.788654E+0	1.826208E+0	1.832015E+0	1.829287E+0	1.822615E+0	1.769679E+0	1.831780E+0	1.886741E+0	1.750601E+0	1.912098E+0	1.817933E+0	1.860473E+0	1.792339E+0	1.796906E+0	1.724939E+0	1.747914E+0	1.762634E+0	1.758860E+0	1.861241E+0	1.748493E+0	1.836620E+0	1.857521E+0	1.758646E+0	1.820478E+0	1.795116E+0	1.809396E+0	1.723883E+0	1.861811E+0	1.802285E+0	1.860752E+0	1.747498E+0	1.766263E+0	1.769610E+0	1.827718E+0	1.764131E+0	1.844468E+0	1.792126E+0	1.792653E+0	1.737158E+0	1.856758E+0	1.824099E+0	1.806315E+0	1.836304E+0	1.731329E+0	1.757077E+0	1.820356E+0	1.791273E+0	1.739666E+0	1.692680E+0	1.765992E+0	1.864094E+0	1.749491E+0	1.764410E+0	1.770773E+0	1.865046E+0	1.755293E+0	1.886495E+0	1.839520E+0	1.829974E+0	1.855840E+0	1.747512E+0	1.852738E+0	1.818766E+0	1.776391E+0	1.750157E+0	1.827778E+0	1.786409E+0	1.745658E+0	1.836119E+0	1.790002E+0	1.874829E+0	1.797766E+0	1.754881E+0	1.783861E+0	1.806302E+0	1.797699E+0	1.798049E+0	1.815911E+0	1.798248E+0	1.782011E+0	1.817127E+0	1.748875E+0	1.784748E+0	1.836214E+0	1.700103E+0	1.769325E+0	1.917140E+0	1.726187E+0	1.846882E+0	1.784620E+0	1.797312E+0	1.801551E+0	1.821694E+0	1.883887E+0	1.819876E+0	1.768107E+0	1.789281E+0	1.817681E+0	1.790929E+0	1.746575E+0	1.749692E+0	1.821452E+0	1.785968E+0	1.832705E+0	1.829164E+0	1.734130E+0	1.723415E+0	1.732780E+0	1.733940E+0	1.861877E+0	1.812435E+0	1.876557E+0
5.392190E+2	1.680361E+0	1.699555E+0	1.633030E+0	1.778976E+0	1.671675E+0	1.756291E+0	1.708143E+0	1.782426E+0	1.607339E+0	1.716791E+0	1.668708E+0	1.646340E+0	1.677960E+0	1.665866E+0	1.683531E+0	1.661316E+0	1.662114E+0	1.694004E+0	1.697650E+0	1.679333E+0	1.712960E+0	1.671118E+0	1.647527E+0	1.651173E+0	1.656514E+0	1.668842E+0	1.657172E+0	1.665135E+0	1.637763E+0	1.684174E+0	1.691784E+0	1.660864E+0	1.663902E+0	1.699737E+0	1.656726E+0	1.692553E+0	1.681525E+0	1.649536E+0	1.666558E+0	1.700640E+0	1.728246E+0	1.644562E+0	1.685393E+0	1.675777E+0	1.661832E+0	1.743251E+0	1.665997E+0	1.725401E+0	1.678861E+0	1.675133E+0	1.632338E+0	1.745355E+0	1.665289E+0	1.640708E+0	1.672291E+0	1.627990E+0	1.674582E+0	1.727352E+0	1.671801E+0	1.685848E+0	1.635164E+0	1.763040E+0	1.698172E+0	1.676621E+0	1.566938E+0	1.656697E+0	1.700291E+0	1.664051E+0	1.689325E+0	1.643071E+0	1.618665E+0	1.729854E+0	1.716960E+0	1.708384E+0	1.626588E+0	1.607431E+0	1.604680E+0	1.664768E+0	1.700030E+0	1.681261E+0	1.682318E+0	1.721908E+0	1.652556E+0	1.651060E+0	1.726269E+0	1.667057E+0	1.726163E+0	1.624498E+0	1.689534E+0	1.662555E+0	1.654795E+0	1.633070E+0	1.609507E+0	1.651451E+0	1.658661E+0	1.709015E+0	1.726151E+0	1.635113E+0	1.681712E+0	1.745377E+0	1.652763E+0	1.701563E+0	1.726500E+0	1.632130E+0	1.674484E+0	1.668898E+0	1.642084E+0	1.662872E+0	1.780216E+0	1.670925E+0	1.691020E+0	1.658850E+0	1.690270E+0	1.720994E+0	1.632677E+0	1.702228E+0	1.616569E+0	1.665692E+0	1.634727E+0	1.631411E+0	1.686331E+0	1.680350E+0	1.664335E+0	1.625706E+0	1.742576E+0	1.723647E+0	1.561194E+0	1.741655E+0	1.624654E+0	1.729967E+0	1.687953E+0	1.659666E+0	1.702116E+0	1.581070E+0	1.640040E+0	1.641994E+0	1.644205E+0	1.701062E+0	1.680575E+0	1.656253E+0	1.686208E+0	1.670416E+0	1.704094E+0	1.650770E+0	1.755730E+0	1.719083E+0	1.647173E+0	1.635266E+0	1.669054E+0	1.630478E+0	1.644536E+0	1.596985E+0	1.754864E+0	1.757271E+0	1.643916E+0	1.630044E+0	1.661039E+0	1.629687E+0	1.645767E+0	1.705932E+0	1.638544E+0	1.654146E+0	1.678799E+0	1.612496E+0	1.685603E+0	1.582896E+0	1.617342E+0	1.590940E+0	1.657635E+0	1.599814E+0	1.621206E+0
5.394100E+2	1.390351E+0	1.557529E+0	1.346440E+0	1.442416E+0	1.405068E+0	1.535690E+0	1.412564E+0	1.479506E+0	1.450765E+0	1.499128E+0	1.429541E+0	1.457937E+0	1.435501E+0	1.446275E+0	1.432440E+0	1.398523E+0	1.491876E+0	1.534923E+0	1.418156E+0	1.425622E+0	1.528649E+0	1.428763E+0	1.446618E+0	1.471671E+0	1.486808E+0	1.458558E+0	1.407852E+0	1.422697E+0	1.361693E+0	1.466967E+0	1.476137E+0	1.422373E+0	1.409467E+0	1.441643E+0	1.443922E+0	1.480008E+0	1.470501E+0	1.403772E+0	1.504663E+0	1.426697E+0	1.475106E+0	1.399146E+0	1.463319E+0	1.418400E+0	1.404046E+0	1.440617E+0	1.487670E+0	1.439984E+0	1.466556E+0	1.421786E+0	1.390149E+0	1.472933E+0	1.394675E+0	1.494838E+0	1.458071E+0	1.410384E+0	1.468044E+0	1.400416E+0	1.453075E+0	1.447917E+0	1.470652E+0	1.517135E+0	1.434897E+0	1.383452E+0	1.373766E+0	1.436067E+0	1.512073E+0	1.410038E+0	1.446837E+0	1.467874E+0	1.422561E+0	1.455599E+0	1.462085E+0	1.388099E+0	1.416226E+0	1.370950E+0	1.424384E+0	1.468033E+0	1.414480E+0	1.477813E+0	1.385206E+0	1.457136E+0	1.427133E+0	1.482477E+0	1.430376E+0	1.392892E+0	1.473678E+0	1.405136E+0	1.416045E+0	1.442056E+0	1.389785E+0	1.443572E+0	1.456362E+0	1.458191E+0	1.518785E+0	1.416955E+0	1.487306E+0	1.379900E+0	1.461171E+0	1.496749E+0	1.401317E+0	1.497281E+0	1.448826E+0	1.442406E+0	1.447379E+0	1.434588E+0	1.417664E+0	1.438867E+0	1.423419E+0	1.533065E+0	1.446221E+0	1.475723E+0	1.400886E+0	1.464821E+0	1.410290E+0	1.399118E+0	1.427512E+0	1.388136E+0	1.455855E+0	1.398062E+0	1.386071E+0	1.397929E+0	1.412686E+0	1.446807E+0	1.495710E+0	1.483710E+0	1.401649E+0	1.396957E+0	1.444593E+0	1.461056E+0	1.472132E+0	1.442027E+0	1.414566E+0	1.395889E+0	1.457108E+0	1.437586E+0	1.486154E+0	1.476702E+0	1.443917E+0	1.436876E+0	1.411038E+0	1.413167E+0	1.397007E+0	1.444665E+0	1.382125E+0	1.523935E+0	1.488364E+0	1.390940E+0	1.461751E+0	1.463586E+0	1.422080E+0	1.431456E+0	1.532613E+0	1.482410E+0	1.335713E+0	1.408138E+0	1.435771E+0	1.520524E+0	1.447358E+0	1.432006E+0	1.492759E+0	1.487251E+0	1.359136E+0	1.405567E+0	1.424446E+0	1.430303E+0	1.471092E+0	1.387157E+0	1.577959E+0	1.377098E+0	1.520364E+0
5.396110E+2	1.170761E+0	1.204517E+0	1.136984E+0	1.273409E+0	1.216243E+0	1.285144E+0	1.229385E+0	1.254709E+0	1.248307E+0	1.241803E+0	1.212220E+0	1.157899E+0	1.175925E+0	1.221309E+0	1.229668E+0	1.232960E+0	1.254851E+0	1.233568E+0	1.225900E+0	1.240065E+0	1.298633E+0	1.252284E+0	1.242012E+0	1.179311E+0	1.246356E+0	1.301061E+0	1.178618E+0	1.240857E+0	1.183222E+0	1.226055E+0	1.201949E+0	1.245685E+0	1.212233E+0	1.196540E+0	1.205915E+0	1.209585E+0	1.222894E+0	1.283916E+0	1.229774E+0	1.250729E+0	1.278748E+0	1.241704E+0	1.261877E+0	1.152089E+0	1.244509E+0	1.276516E+0	1.165311E+0	1.272052E+0	1.190045E+0	1.279501E+0	1.242378E+0	1.199806E+0	1.212518E+0	1.270108E+0	1.287533E+0	1.189433E+0	1.266322E+0	1.191485E+0	1.202263E+0	1.267764E+0	1.281993E+0	1.289386E+0	1.318283E+0	1.193032E+0	1.189905E+0	1.184094E+0	1.281799E+0	1.260533E+0	1.259411E+0	1.243041E+0	1.272505E+0	1.189171E+0	1.203527E+0	1.222082E+0	1.121572E+0	1.161685E+0	1.204871E+0	1.205736E+0	1.262266E+0	1.257245E+0	1.217091E+0	1.196012E+0	1.291274E+0	1.235922E+0	1.278377E+0	1.212029E+0	1.220501E+0	1.266253E+0	1.282457E+0	1.251370E+0	1.267496E+0	1.235004E+0	1.291948E+0	1.230582E+0	1.253468E+0	1.248095E+0	1.186994E+0	1.207484E+0	1.195438E+0	1.193782E+0	1.203961E+0	1.274141E+0	1.201831E+0	1.232450E+0	1.271903E+0	1.185687E+0	1.220574E+0	1.244424E+0	1.206836E+0	1.231125E+0	1.250365E+0	1.229917E+0	1.184856E+0	1.311276E+0	1.256692E+0	1.187659E+0	1.216427E+0	1.242975E+0	1.221666E+0	1.207243E+0	1.207140E+0	1.223203E+0	1.172383E+0	1.220778E+0	1.195768E+0	1.212281E+0	1.108382E+0	1.278880E+0	1.225715E+0	1.220355E+0	1.225281E+0	1.264532E+0	1.143444E+0	1.300571E+0	1.226437E+0	1.235266E+0	1.304138E+0	1.216977E+0	1.132048E+0	1.287163E+0	1.221263E+0	1.186373E+0	1.215492E+0	1.215797E+0	1.249288E+0	1.219199E+0	1.228030E+0	1.229508E+0	1.232294E+0	1.179415E+0	1.199065E+0	1.164375E+0	1.207717E+0	1.290412E+0	1.227186E+0	1.179706E+0	1.265496E+0	1.290773E+0	1.219537E+0	1.223214E+0	1.195391E+0	1.241833E+0	1.210265E+0	1.190503E+0	1.224020E+0	1.184471E+0	1.232218E+0	1.242611E+0	1.395347E+0	1.214951E+0	1.287079E+0
5.398180E+2	1.039879E+0	1.111754E+0	9.740883E-1	9.899858E-1	1.033477E+0	1.074444E+0	1.064904E+0	1.055691E+0	1.057448E+0	1.074448E+0	1.056733E+0	1.080555E+0	9.990703E-1	1.064692E+0	1.033950E+0	1.007222E+0	1.070150E+0	1.057353E+0	1.025284E+0	1.081948E+0	1.063649E+0	1.107959E+0	1.006420E+0	1.012791E+0	1.031295E+0	1.019501E+0	9.761762E-1	1.031271E+0	1.051605E+0	1.042639E+0	1.092251E+0	1.027851E+0	1.017251E+0	1.161412E+0	1.031194E+0	9.853043E-1	1.103373E+0	1.053345E+0	1.069727E+0	1.069959E+0	1.060811E+0	1.021811E+0	1.009990E+0	1.091394E+0	1.052184E+0	1.031365E+0	1.024346E+0	1.015004E+0	1.034998E+0	1.069166E+0	1.001095E+0	1.048629E+0	1.058425E+0	1.088278E+0	1.081063E+0	1.066073E+0	1.006512E+0	1.035548E+0	1.066529E+0	1.018788E+0	1.000516E+0	1.092804E+0	1.055662E+0	1.085848E+0	1.036728E+0	1.092141E+0	1.069503E+0	1.064624E+0	1.058577E+0	1.076385E+0	1.075796E+0	1.012729E+0	1.077225E+0	1.045159E+0	9.596314E-1	1.005513E+0	1.003670E+0	1.045748E+0	1.030350E+0	1.070536E+0	1.006518E+0	1.063950E+0	1.044343E+0	1.073299E+0	1.046011E+0	1.042087E+0	1.023357E+0	1.030130E+0	1.052505E+0	1.086640E+0	1.085376E+0	1.000222E+0	1.129588E+0	1.039927E+0	1.064082E+0	1.050896E+0	1.094825E+0	1.059429E+0	1.047741E+0	1.069779E+0	1.085513E+0	1.020285E+0	1.034787E+0	1.046881E+0	9.961323E-1	1.029208E+0	1.028838E+0	1.017479E+0	1.064224E+0	1.042213E+0	1.059458E+0	1.051390E+0	1.018359E+0	1.115339E+0	1.017198E+0	1.079556E+0	1.034186E+0	1.029341E+0	1.022694E+0	1.032316E+0	1.027955E+0	1.013400E+0	1.087555E+0	1.078305E+0	1.035961E+0	1.052827E+0	1.002908E+0	1.022496E+0	1.038712E+0	1.063343E+0	1.014496E+0	1.083937E+0	1.052948E+0	1.000004E+0	9.877224E-1	1.073786E+0	1.014168E+0	1.040032E+0	1.022496E+0	1.021518E+0	9.714103E-1	1.035605E+0	1.062132E+0	1.067192E+0	1.083557E+0	1.064240E+0	1.090221E+0	9.932432E-1	1.076914E+0	1.100995E+0	1.052717E+0	1.059501E+0	1.035026E+0	1.081485E+0	1.013638E+0	1.065864E+0	1.022542E+0	1.068759E+0	9.755186E-1	1.042464E+0	1.031088E+0	1.032768E+0	1.038903E+0	1.057725E+0	1.092194E+0	1.041396E+0	9.891386E-1	1.049356E+0	1.096093E+0	1.050448E+0	1.058285E+0
5.400300E+2	8.468422E-1	1.007759E+0	9.070540E-1	9.033597E-1	9.105891E-1	9.695167E-1	9.174097E-1	9.277277E-1	9.886572E-1	9.480442E-1	9.711977E-1	9.268693E-1	8.861227E-1	9.471618E-1	9.496536E-1	8.806253E-1	9.599095E-1	9.381689E-1	9.506991E-1	9.215315E-1	9.186701E-1	9.423244E-1	9.456460E-1	9.417829E-1	9.398205E-1	8.775446E-1	8.563058E-1	9.025936E-1	9.026199E-1	9.100245E-1	8.844432E-1	8.910662E-1	8.873658E-1	9.627213E-1	9.087305E-1	9.348610E-1	9.412948E-1	9.174386E-1	9.307631E-1	9.408011E-1	9.415081E-1	8.471544E-1	9.357761E-1	9.114598E-1	9.290458E-1	9.097104E-1	8.992199E-1	9.404386E-1	8.879608E-1	9.492450E-1	9.464883E-1	9.591269E-1	8.820052E-1	9.384480E-1	9.314512E-1	9.638973E-1	9.612131E-1	9.546850E-1	8.946358E-1	9.119484E-1	8.900838E-1	9.616720E-1	9.834815E-1	9.255687E-1	9.073721E-1	1.051577E+0	9.170913E-1	9.002269E-1	9.511775E-1	9.444886E-1	9.266792E-1	9.306707E-1	9.715915E-1	9.271044E-1	9.171588E-1	8.826425E-1	8.607922E-1	9.091716E-1	9.223614E-1	9.292371E-1	9.077724E-1	8.732549E-1	9.113860E-1	9.414911E-1	8.743857E-1	9.038412E-1	9.330617E-1	9.272375E-1	8.836247E-1	9.250558E-1	9.263092E-1	8.911138E-1	9.510220E-1	9.017447E-1	9.425076E-1	9.454922E-1	9.624905E-1	9.114546E-1	8.851816E-1	9.145665E-1	8.960952E-1	9.316518E-1	9.419106E-1	9.384927E-1	9.334750E-1	8.850551E-1	8.889444E-1	8.785154E-1	9.214722E-1	9.504524E-1	9.561958E-1	8.756351E-1	9.299135E-1	9.575147E-1	8.897585E-1	8.507802E-1	9.187629E-1	9.499244E-1	9.354125E-1	9.052163E-1	9.289314E-1	9.307086E-1	9.164200E-1	9.469010E-1	9.607356E-1	8.890596E-1	8.220006E-1	9.831581E-1	8.862441E-1	9.498769E-1	9.309088E-1	9.611871E-1	9.343165E-1	9.039531E-1	9.015850E-1	9.642118E-1	8.985999E-1	9.755241E-1	9.119185E-1	9.483260E-1	9.355010E-1	9.786927E-1	9.167780E-1	9.477518E-1	9.198417E-1	1.018138E+0	8.985470E-1	8.890458E-1	9.111397E-1	9.540023E-1	8.823472E-1	8.837869E-1	9.271757E-1	9.359409E-1	9.534908E-1	8.537355E-1	9.061272E-1	8.880971E-1	9.338345E-1	9.478076E-1	8.948400E-1	9.306240E-1	8.675046E-1	9.671696E-1	9.339470E-1	8.605739E-1	9.309640E-1	9.065839E-1	1.015657E+0	9.020441E-1	9.563083E-1
5.402050E+2	7.497970E-1	7.953896E-1	8.573351E-1	7.923278E-1	7.350865E-1	7.975334E-1	7.635923E-1	7.710347E-1	7.943709E-1	7.294458E-1	7.708188E-1	8.161627E-1	7.464464E-1	7.765347E-1	8.188517E-1	7.921287E-1	7.603729E-1	7.565260E-1	7.717144E-1	7.987307E-1	7.961713E-1	8.008784E-1	8.216339E-1	7.583222E-1	7.663891E-1	7.692445E-1	7.498564E-1	7.712103E-1	7.350853E-1	8.033485E-1	7.805832E-1	7.787191E-1	7.542378E-1	7.489030E-1	8.036799E-1	7.586195E-1	7.902577E-1	7.698517E-1	8.104316E-1	7.798448E-1	7.773020E-1	7.845129E-1	7.518570E-1	7.180878E-1	7.823478E-1	8.034157E-1	7.333049E-1	7.648844E-1	8.142295E-1	7.935221E-1	7.347234E-1	8.447691E-1	7.800184E-1	8.085858E-1	7.926556E-1	7.408517E-1	7.349741E-1	8.264309E-1	7.882649E-1	7.556420E-1	7.760096E-1	8.144031E-1	7.976480E-1	7.976086E-1	7.729821E-1	8.082055E-1	7.642172E-1	8.047498E-1	7.780687E-1	8.028810E-1	7.469898E-1	7.702996E-1	7.830175E-1	8.112142E-1	7.812483E-1	7.555110E-1	7.637890E-1	7.725141E-1	7.854868E-1	8.325588E-1	7.785962E-1	7.561502E-1	8.214144E-1	7.587624E-1	7.337492E-1	8.015210E-1	7.998599E-1	8.084392E-1	7.651631E-1	7.949152E-1	7.842237E-1	7.880739E-1	7.935473E-1	7.961957E-1	7.985793E-1	8.245264E-1	8.449436E-1	7.915159E-1	7.626168E-1	8.410478E-1	7.775627E-1	8.304584E-1	7.733604E-1	7.398192E-1	7.736762E-1	8.117293E-1	7.466810E-1	7.756680E-1	7.661936E-1	7.898163E-1	7.654466E-1	7.615915E-1	8.192538E-1	8.314493E-1	7.726107E-1	7.766448E-1	7.411474E-1	8.038791E-1	7.306650E-1	7.856714E-1	8.205029E-1	8.226227E-1	7.973316E-1	7.739409E-1	7.958847E-1	7.671457E-1	7.598814E-1	8.596423E-1	7.911235E-1	7.986374E-1	7.869505E-1	7.820248E-1	7.716399E-1	8.025958E-1	7.292560E-1	7.524354E-1	8.058052E-1	8.500302E-1	7.823858E-1	7.436873E-1	7.460547E-1	7.451486E-1	7.592651E-1	7.693853E-1	7.783176E-1	7.832700E-1	7.467248E-1	7.784282E-1	7.907538E-1	8.189382E-1	7.735216E-1	7.466688E-1	8.720098E-1	7.956221E-1	7.685350E-1	7.413261E-1	7.665106E-1	7.394475E-1	7.522444E-1	7.815496E-1	7.469908E-1	8.512949E-1	8.033258E-1	7.608476E-1	7.567503E-1	7.839478E-1	7.509023E-1	8.014282E-1	8.104573E-1	7.570586E-1	7.439562E-1
5.404070E+2	6.389322E-1	6.996540E-1	5.896715E-1	6.912818E-1	6.765989E-1	6.813608E-1	6.729530E-1	6.566115E-1	6.950567E-1	7.333445E-1	6.478768E-1	6.810116E-1	6.670813E-1	6.732069E-1	6.800167E-1	6.559938E-1	6.825832E-1	6.623248E-1	6.948619E-1	7.240700E-1	6.589209E-1	6.257038E-1	6.698801E-1	6.347711E-1	6.584254E-1	7.040550E-1	6.492739E-1	6.023180E-1	6.733647E-1	6.940058E-1	6.808265E-1	6.377392E-1	6.126734E-1	7.032572E-1	6.669007E-1	6.132866E-1	6.740066E-1	6.562049E-1	6.548379E-1	6.398235E-1	6.837966E-1	6.672543E-1	6.599605E-1	6.904083E-1	6.293806E-1	7.019416E-1	6.649753E-1	6.786629E-1	6.488516E-1	7.046888E-1	6.636152E-1	6.436740E-1	6.517907E-1	6.717356E-1	6.263691E-1	6.400896E-1	6.595757E-1	6.936284E-1	6.385041E-1	6.742956E-1	6.377594E-1	7.293129E-1	7.009723E-1	6.782988E-1	6.734264E-1	7.222884E-1	6.820496E-1	6.725775E-1	6.997376E-1	6.820859E-1	6.404798E-1	6.914077E-1	6.463632E-1	6.350031E-1	7.034180E-1	6.249022E-1	6.584315E-1	6.911848E-1	6.245219E-1	7.306074E-1	6.791141E-1	7.201003E-1	6.909948E-1	6.707775E-1	6.340476E-1	6.804161E-1	6.826582E-1	6.604952E-1	7.411712E-1	6.534951E-1	6.727248E-1	6.533548E-1	7.064287E-1	6.531531E-1	6.698082E-1	7.283458E-1	7.077957E-1	6.671405E-1	6.712061E-1	6.959954E-1	6.619774E-1	6.550580E-1	6.979681E-1	6.594132E-1	7.438441E-1	6.719881E-1	6.427315E-1	6.159655E-1	6.681126E-1	6.719192E-1	6.263271E-1	6.942954E-1	7.214516E-1	6.897766E-1	6.348424E-1	7.056128E-1	6.713564E-1	6.578017E-1	6.411285E-1	6.462302E-1	6.681239E-1	7.026545E-1	6.624814E-1	7.345555E-1	6.872459E-1	6.419605E-1	6.722351E-1	6.405514E-1	6.121404E-1	6.887467E-1	6.956703E-1	6.688065E-1	6.957087E-1	7.078909E-1	6.794041E-1	6.663539E-1	6.307384E-1	6.697542E-1	6.629321E-1	7.058558E-1	7.338402E-1	7.041015E-1	6.729758E-1	6.256028E-1	6.963972E-1	7.525288E-1	6.665021E-1	6.691621E-1	6.679428E-1	6.895066E-1	7.201122E-1	6.608664E-1	7.111014E-1	6.760212E-1	6.015360E-1	6.685283E-1	6.642736E-1	6.955472E-1	6.346063E-1	6.433555E-1	6.895829E-1	6.418413E-1	6.511770E-1	7.068596E-1	6.879888E-1	6.359570E-1	6.743970E-1	6.727083E-1	6.937590E-1	6.711183E-1	7.179039E-1
5.406030E+2	5.428203E-1	5.014014E-1	5.493325E-1	4.835074E-1	5.123259E-1	5.081698E-1	5.670304E-1	5.248478E-1	5.067785E-1	5.308493E-1	5.511083E-1	5.127024E-1	4.786759E-1	4.781190E-1	5.025858E-1	5.645547E-1	5.562083E-1	5.015496E-1	5.427227E-1	5.723412E-1	5.574009E-1	5.325140E-1	5.334915E-1	4.829194E-1	4.860837E-1	5.426030E-1	4.886981E-1	5.444580E-1	5.458320E-1	5.033199E-1	5.535196E-1	5.527800E-1	5.203375E-1	5.205066E-1	5.549814E-1	5.101565E-1	5.700053E-1	5.146798E-1	5.006914E-1	5.310594E-1	5.180707E-1	5.128292E-1	5.238420E-1	4.925472E-1	4.990091E-1	5.561767E-1	5.069575E-1	5.300035E-1	5.434991E-1	5.386494E-1	5.545057E-1	5.800251E-1	5.432659E-1	5.105930E-1	5.561275E-1	5.368344E-1	5.281119E-1	5.165237E-1	4.809367E-1	5.392469E-1	5.394619E-1	5.256611E-1	5.165496E-1	5.471535E-1	5.004435E-1	5.848964E-1	4.990735E-1	5.320074E-1	5.527212E-1	5.203452E-1	5.438396E-1	5.625447E-1	5.447597E-1	4.951935E-1	5.073628E-1	5.174552E-1	5.370939E-1	5.156969E-1	5.192710E-1	5.496722E-1	5.284034E-1	4.990716E-1	4.849303E-1	5.574893E-1	5.262416E-1	5.272048E-1	5.296438E-1	5.170046E-1	5.288548E-1	5.655802E-1	5.418217E-1	5.419481E-1	4.901769E-1	5.169443E-1	5.505711E-1	4.855190E-1	5.151769E-1	5.615689E-1	5.447430E-1	5.195421E-1	5.633439E-1	5.193683E-1	5.484840E-1	5.088061E-1	5.809130E-1	5.360010E-1	4.864502E-1	5.191732E-1	4.911392E-1	5.867553E-1	5.525423E-1	5.251734E-1	5.111753E-1	5.015458E-1	5.139118E-1	5.067937E-1	5.295668E-1	5.011669E-1	5.436856E-1	5.242550E-1	5.040782E-1	5.364287E-1	5.180451E-1	5.574566E-1	5.094162E-1	5.292644E-1	5.488225E-1	5.763401E-1	5.391611E-1	5.476258E-1	5.380445E-1	5.181183E-1	5.188135E-1	5.204890E-1	5.259971E-1	5.582478E-1	5.090587E-1	5.554038E-1	5.237699E-1	5.136745E-1	5.345721E-1	5.019470E-1	5.262866E-1	5.704562E-1	5.398868E-1	5.391866E-1	5.281326E-1	5.759090E-1	5.368512E-1	5.499862E-1	5.283150E-1	5.438413E-1	5.584124E-1	5.224820E-1	5.147696E-1	5.513304E-1	5.123285E-1	5.981635E-1	4.534236E-1	5.183415E-1	5.365448E-1	5.658396E-1	5.431306E-1	5.933157E-1	5.224727E-1	5.173679E-1	5.427348E-1	5.339728E-1	5.102346E-1	5.666864E-1	5.097337E-1
5.408060E+2	4.773089E-1	5.329210E-1	5.420375E-1	5.654201E-1	4.942600E-1	5.449861E-1	5.358096E-1	5.302943E-1	5.555736E-1	5.436991E-1	5.433719E-1	5.726946E-1	4.949035E-1	5.003913E-1	5.237130E-1	5.022504E-1	5.201955E-1	5.417401E-1	5.443545E-1	5.249332E-1	5.738666E-1	5.011714E-1	5.104104E-1	4.996629E-1	5.468261E-1	4.962344E-1	4.969125E-1	5.100053E-1	4.897706E-1	5.446892E-1	5.134216E-1	5.399794E-1	5.281926E-1	5.344161E-1	4.867062E-1	5.165999E-1	5.346905E-1	5.773677E-1	5.150115E-1	5.649040E-1	5.104209E-1	5.004134E-1	4.939575E-1	4.997371E-1	5.469599E-1	5.351405E-1	4.966547E-1	5.135740E-1	4.976496E-1	5.269050E-1	5.228165E-1	6.379807E-1	5.270346E-1	5.550180E-1	5.272864E-1	5.240346E-1	5.295108E-1	5.427441E-1	5.516672E-1	5.392807E-1	5.198556E-1	5.549223E-1	5.523504E-1	5.538471E-1	4.948809E-1	4.921789E-1	5.576319E-1	4.807497E-1	5.064557E-1	5.460295E-1	5.110929E-1	5.498553E-1	4.889264E-1	5.115049E-1	5.181262E-1	4.993362E-1	5.272885E-1	5.565793E-1	5.284823E-1	5.409433E-1	5.013430E-1	5.285304E-1	5.208026E-1	5.076023E-1	5.240122E-1	5.352897E-1	5.547127E-1	5.405661E-1	5.535858E-1	5.099021E-1	4.938735E-1	5.273568E-1	5.374954E-1	5.310371E-1	5.366758E-1	5.445547E-1	5.296125E-1	5.580795E-1	5.153806E-1	5.113370E-1	4.937598E-1	5.872101E-1	4.894691E-1	4.785504E-1	5.140513E-1	5.356604E-1	5.089215E-1	5.304518E-1	5.227082E-1	5.726550E-1	4.605692E-1	5.394369E-1	5.567454E-1	5.317424E-1	5.142301E-1	5.401192E-1	5.009620E-1	5.259182E-1	5.454983E-1	5.697638E-1	5.163583E-1	5.902860E-1	4.993302E-1	5.789299E-1	5.739674E-1	5.812956E-1	4.872370E-1	5.642820E-1	5.033582E-1	5.471105E-1	5.919080E-1	5.120980E-1	5.590738E-1	5.425842E-1	5.572575E-1	5.344271E-1	5.343705E-1	5.195426E-1	5.716164E-1	5.075983E-1	5.592931E-1	5.233893E-1	5.748289E-1	4.901583E-1	5.386520E-1	5.720083E-1	4.735179E-1	5.517471E-1	4.976867E-1	5.214503E-1	5.183614E-1	5.297167E-1	5.473303E-1	5.102792E-1	5.404237E-1	5.479814E-1	5.653129E-1	5.519390E-1	5.441204E-1	5.274652E-1	5.407848E-1	5.202645E-1	5.540357E-1	5.244961E-1	5.787884E-1	5.598214E-1	5.178095E-1	5.435308E-1	5.543625E-1	5.942208E-1	5.884361E-1
5.410190E+2	4.243283E-1	4.389888E-1	4.116586E-1	4.411178E-1	4.302940E-1	4.619930E-1	4.457642E-1	3.852677E-1	4.150837E-1	4.706674E-1	4.482226E-1	4.173690E-1	4.335832E-1	4.680109E-1	4.292491E-1	4.441845E-1	4.099828E-1	4.443957E-1	4.574258E-1	4.563022E-1	4.517994E-1	4.821664E-1	4.186560E-1	4.258089E-1	4.163266E-1	4.434624E-1	4.674628E-1	4.760993E-1	4.541250E-1	4.332675E-1	4.676644E-1	4.387007E-1	4.178191E-1	4.741671E-1	4.914511E-1	4.545830E-1	4.355652E-1	4.464833E-1	4.485891E-1	3.899530E-1	4.398577E-1	4.146066E-1	4.183613E-1	4.413195E-1	4.553550E-1	4.574865E-1	4.089624E-1	3.994190E-1	4.017738E-1	4.336039E-1	4.526877E-1	4.479834E-1	4.505941E-1	4.511693E-1	4.406618E-1	4.326668E-1	4.303290E-1	3.956497E-1	4.624220E-1	4.079484E-1	4.566657E-1	4.054022E-1	4.428519E-1	4.447800E-1	4.346536E-1	4.334256E-1	4.481217E-1	4.592750E-1	4.171231E-1	4.536672E-1	4.490368E-1	4.397452E-1	4.487572E-1	4.169723E-1	4.526438E-1	4.100390E-1	4.769138E-1	4.785576E-1	4.430368E-1	4.715146E-1	3.744208E-1	4.240524E-1	4.798970E-1	4.581871E-1	5.010923E-1	4.065003E-1	4.529429E-1	4.505773E-1	4.354068E-1	4.617818E-1	4.344385E-1	4.881317E-1	4.531806E-1	4.418774E-1	4.703341E-1	4.529435E-1	4.261558E-1	4.460462E-1	4.567672E-1	4.747424E-1	4.457173E-1	4.659160E-1	4.565488E-1	4.112168E-1	4.361957E-1	4.395214E-1	4.455548E-1	4.534811E-1	4.397600E-1	4.476125E-1	4.233313E-1	4.376653E-1	4.494902E-1	4.927849E-1	4.682775E-1	4.740336E-1	4.565487E-1	4.545417E-1	4.449955E-1	4.232760E-1	4.666268E-1	4.342969E-1	4.566371E-1	4.451469E-1	4.122129E-1	3.946520E-1	4.316689E-1	4.472288E-1	4.318502E-1	5.066115E-1	4.714235E-1	4.562542E-1	4.265539E-1	4.301762E-1	4.388652E-1	4.416478E-1	4.536051E-1	4.730385E-1	4.249569E-1	4.242186E-1	4.356025E-1	4.382293E-1	4.248537E-1	4.391673E-1	4.690912E-1	4.873095E-1	4.189437E-1	4.659023E-1	4.084764E-1	4.986334E-1	4.204817E-1	4.911757E-1	4.952619E-1	4.577927E-1	4.315101E-1	4.778297E-1	4.292254E-1	5.005751E-1	4.608308E-1	4.543816E-1	4.101996E-1	4.618184E-1	4.749813E-1	4.584321E-1	5.018276E-1	4.649593E-1	4.546606E-1	4.745880E-1	4.795479E-1	4.285844E-1	4.803121E-1
5.415140E+2	5.429993E-1	5.084383E-1	5.148773E-1	4.627705E-1	5.241287E-1	5.449292E-1	5.055003E-1	5.582066E-1	5.676655E-1	5.330865E-1	5.120717E-1	5.367459E-1	5.055792E-1	5.499361E-1	5.453703E-1	5.236046E-1	5.253646E-1	5.259464E-1	5.379680E-1	5.353209E-1	5.379725E-1	5.189715E-1	5.452725E-1	5.099431E-1	5.693087E-1	5.285430E-1	4.763698E-1	5.433560E-1	5.429478E-1	4.931783E-1	5.551468E-1	5.622953E-1	4.962109E-1	5.544969E-1	5.766089E-1	5.123163E-1	5.544877E-1	5.557458E-1	5.576192E-1	5.503321E-1	5.370344E-1	5.499027E-1	5.164567E-1	5.216229E-1	5.816109E-1	5.229666E-1	5.128936E-1	5.102769E-1	5.105677E-1	5.625482E-1	5.304552E-1	5.467853E-1	5.506406E-1	5.063094E-1	5.116943E-1	5.303793E-1	5.488240E-1	5.099297E-1	5.143955E-1	4.806134E-1	5.361087E-1	5.532003E-1	5.615824E-1	5.339348E-1	5.030340E-1	4.989712E-1	5.331464E-1	4.856805E-1	5.378399E-1	5.521156E-1	5.438282E-1	5.655182E-1	5.238434E-1	5.291022E-1	5.381346E-1	5.282826E-1	5.331848E-1	5.224956E-1	5.210639E-1	5.744690E-1	5.273493E-1	5.261541E-1	5.785891E-1	4.867844E-1	4.903188E-1	5.226018E-1	5.648348E-1	5.570044E-1	5.798639E-1	5.157785E-1	5.590272E-1	5.458709E-1	5.620931E-1	5.060784E-1	5.764495E-1	5.963619E-1	5.581131E-1	5.269622E-1	5.107507E-1	5.439820E-1	5.405496E-1	5.237745E-1	5.243405E-1	5.256829E-1	5.289165E-1	5.282614E-1	5.347760E-1	5.438267E-1	5.475870E-1	5.338805E-1	5.447623E-1	5.219373E-1	5.787962E-1	6.302047E-1	5.326359E-1	5.556711E-1	5.330550E-1	5.696905E-1	5.663597E-1	5.173786E-1	5.364566E-1	5.615913E-1	5.251188E-1	5.693469E-1	5.935191E-1	5.369212E-1	5.200554E-1	5.395154E-1	5.074406E-1	5.212116E-1	5.436130E-1	5.608129E-1	5.109395E-1	5.220350E-1	5.205744E-1	5.254444E-1	5.676202E-1	5.180040E-1	5.535951E-1	5.479128E-1	5.110074E-1	5.263175E-1	5.517134E-1	5.592787E-1	5.229561E-1	5.253946E-1	5.101333E-1	5.620882E-1	4.994047E-1	5.366324E-1	5.610587E-1	5.444999E-1	5.761939E-1	4.951928E-1	5.327363E-1	5.739470E-1	5.167383E-1	5.505742E-1	5.391380E-1	5.705709E-1	5.194635E-1	5.516887E-1	5.507591E-1	5.445083E-1	4.993095E-1	4.869070E-1	5.717363E-1	5.646730E-1	6.199731E-1	5.742877E-1	5.573718E-1
5.420160E+2	5.955188E-1	6.649701E-1	6.791273E-1	7.238980E-1	6.508334E-1	6.604260E-1	6.699254E-1	6.864789E-1	6.479783E-1	6.835498E-1	6.505846E-1	6.565721E-1	6.573687E-1	6.733025E-1	6.699284E-1	6.893461E-1	6.619989E-1	6.902937E-1	6.407187E-1	7.450079E-1	6.876394E-1	6.566810E-1	6.500684E-1	6.650214E-1	6.539292E-1	6.488194E-1	6.472427E-1	6.599424E-1	6.652676E-1	6.525090E-1	6.918619E-1	6.960123E-1	6.711947E-1	7.007464E-1	6.557486E-1	6.617769E-1	7.166485E-1	7.001152E-1	6.519440E-1	6.592298E-1	6.897401E-1	6.499364E-1	6.389344E-1	6.612372E-1	6.501516E-1	6.961862E-1	6.494005E-1	6.789982E-1	7.199144E-1	6.520108E-1	6.749488E-1	7.059691E-1	6.493145E-1	6.773803E-1	6.530349E-1	6.596564E-1	6.989462E-1	6.691637E-1	6.938359E-1	7.185880E-1	6.466237E-1	7.107957E-1	6.719637E-1	6.525527E-1	6.564345E-1	6.896919E-1	6.449501E-1	6.513158E-1	6.881233E-1	6.586485E-1	6.668885E-1	6.805026E-1	6.954147E-1	6.855773E-1	6.534530E-1	6.471561E-1	6.351726E-1	6.680513E-1	6.595732E-1	6.882537E-1	6.440773E-1	6.970248E-1	6.859894E-1	6.710556E-1	6.355964E-1	6.964880E-1	6.442929E-1	6.141094E-1	6.986886E-1	6.578206E-1	7.377569E-1	6.692120E-1	6.710450E-1	6.690415E-1	7.145719E-1	6.909281E-1	6.960566E-1	6.638868E-1	7.092727E-1	6.654832E-1	6.517855E-1	6.727727E-1	6.497887E-1	6.316272E-1	7.082412E-1	6.311687E-1	6.469218E-1	6.754240E-1	6.699846E-1	6.943029E-1	6.762284E-1	6.836441E-1	6.462446E-1	6.546311E-1	7.027338E-1	6.745201E-1	7.398256E-1	6.533974E-1	6.561394E-1	6.600521E-1	6.514031E-1	6.546925E-1	7.098524E-1	6.931790E-1	7.103457E-1	6.989316E-1	6.565234E-1	6.655573E-1	5.981173E-1	6.785059E-1	7.246708E-1	7.204350E-1	6.676327E-1	6.567840E-1	6.730733E-1	6.901502E-1	6.340296E-1	6.913854E-1	6.956505E-1	6.257870E-1	6.513269E-1	6.594226E-1	6.802278E-1	6.885948E-1	7.202734E-1	7.043974E-1	7.188447E-1	6.915371E-1	6.672054E-1	6.858189E-1	6.904078E-1	6.732041E-1	6.715849E-1	6.780420E-1	7.059296E-1	6.990431E-1	6.673765E-1	6.565782E-1	6.448388E-1	6.347841E-1	6.292120E-1	6.372131E-1	6.448436E-1	6.504547E-1	6.268390E-1	6.200115E-1	6.780051E-1	7.059809E-1	6.466525E-1	6.421056E-1	6.729273E-1
5.424810E+2	8.307073E-1	8.534628E-1	8.582611E-1	8.705397E-1	7.916661E-1	8.500148E-1	8.739774E-1	8.697618E-1	8.901007E-1	8.664573E-1	8.732139E-1	9.084567E-1	8.564262E-1	8.530790E-1	8.700248E-1	8.582156E-1	8.185311E-1	8.187437E-1	9.032447E-1	8.778855E-1	8.556449E-1	8.882110E-1	8.325811E-1	8.585903E-1	8.774658E-1	8.645015E-1	8.833917E-1	7.945639E-1	8.291553E-1	8.786520E-1	8.759947E-1	8.628775E-1	8.484939E-1	8.573420E-1	8.318185E-1	8.729992E-1	8.640553E-1	8.499389E-1	8.569598E-1	8.137155E-1	8.198787E-1	7.857826E-1	8.605699E-1	8.429471E-1	8.403809E-1	8.435617E-1	8.079621E-1	8.440745E-1	8.413908E-1	8.514387E-1	8.796231E-1	8.833012E-1	8.637532E-1	8.297965E-1	8.122724E-1	8.094349E-1	8.862882E-1	8.676436E-1	8.337915E-1	8.454411E-1	8.102069E-1	8.853504E-1	9.135698E-1	8.607528E-1	8.286100E-1	8.522071E-1	8.222082E-1	8.534390E-1	8.689836E-1	8.080113E-1	8.911126E-1	8.161864E-1	8.492402E-1	8.466130E-1	8.212691E-1	7.898322E-1	8.043044E-1	8.102368E-1	8.157989E-1	8.425022E-1	8.089217E-1	8.534145E-1	9.113561E-1	8.808926E-1	8.569801E-1	8.402997E-1	8.463811E-1	8.378230E-1	8.166300E-1	8.605993E-1	8.569374E-1	8.278006E-1	8.588166E-1	8.211565E-1	8.837288E-1	8.765659E-1	9.002202E-1	8.935499E-1	8.597280E-1	8.188598E-1	8.430009E-1	8.657130E-1	8.369839E-1	8.904878E-1	8.202383E-1	8.128010E-1	8.300115E-1	8.434530E-1	8.420044E-1	8.044339E-1	8.416805E-1	8.794876E-1	8.362852E-1	8.349357E-1	8.014821E-1	8.234095E-1	8.293590E-1	8.262278E-1	8.522332E-1	8.084432E-1	8.357840E-1	8.839247E-1	7.943604E-1	9.032487E-1	8.546997E-1	8.540655E-1	8.239299E-1	8.999578E-1	8.230695E-1	9.139875E-1	8.592096E-1	8.672742E-1	8.215622E-1	8.068598E-1	8.999020E-1	8.957557E-1	8.560752E-1	8.040621E-1	8.734430E-1	8.526291E-1	8.348995E-1	8.265079E-1	8.490165E-1	8.457044E-1	8.706700E-1	8.516528E-1	8.484380E-1	9.121633E-1	8.975377E-1	8.246239E-1	8.595381E-1	8.434853E-1	9.003170E-1	8.801957E-1	8.848647E-1	8.805312E-1	8.383228E-1	8.235607E-1	8.389305E-1	8.271094E-1	8.287279E-1	8.336677E-1	8.728003E-1	8.374535E-1	8.311043E-1	8.455372E-1	8.633763E-1	8.326273E-1	8.584730E-1	7.840964E-1	8.109418E-1
5.430120E+2	1.151540E+0	1.220233E+0	1.138666E+0	1.116039E+0	1.123757E+0	1.132767E+0	1.111549E+0	1.127774E+0	1.094869E+0	1.179992E+0	1.110115E+0	1.141431E+0	1.137654E+0	1.172161E+0	1.198033E+0	1.140073E+0	1.112910E+0	1.129407E+0	1.159379E+0	1.187673E+0	1.174467E+0	1.144806E+0	1.174311E+0	1.124191E+0	1.141946E+0	1.112343E+0	1.109118E+0	1.138160E+0	1.105662E+0	1.124657E+0	1.187339E+0	1.193225E+0	1.008801E+0	1.115471E+0	1.161891E+0	1.082464E+0	1.128222E+0	1.112803E+0	1.158844E+0	1.144553E+0	1.150001E+0	1.209022E+0	1.109426E+0	1.170578E+0	1.096391E+0	1.152381E+0	1.166231E+0	1.154340E+0	1.199294E+0	1.147648E+0	1.165822E+0	1.164370E+0	1.151068E+0	1.173539E+0	1.116553E+0	1.136900E+0	1.148277E+0	1.110621E+0	1.176411E+0	1.216803E+0	1.180032E+0	1.166112E+0	1.177509E+0	1.128785E+0	1.107956E+0	1.151251E+0	1.163217E+0	1.184328E+0	1.200001E+0	1.164164E+0	1.121062E+0	1.106744E+0	1.127341E+0	1.111367E+0	1.094382E+0	1.105356E+0	1.165479E+0	1.114581E+0	1.180860E+0	1.146508E+0	1.116540E+0	1.112596E+0	1.142680E+0	1.200325E+0	1.187421E+0	1.164075E+0	1.190908E+0	1.060983E+0	1.163430E+0	1.148961E+0	1.119210E+0	1.129880E+0	1.152979E+0	1.112536E+0	1.197482E+0	1.120649E+0	1.068787E+0	1.145181E+0	1.139495E+0	1.144535E+0	1.139689E+0	1.110737E+0	1.147868E+0	1.161788E+0	1.128207E+0	1.092881E+0	1.093735E+0	1.097302E+0	1.096417E+0	1.147302E+0	1.222151E+0	1.107053E+0	1.111717E+0	1.185682E+0	1.103247E+0	1.092868E+0	1.116314E+0	1.084352E+0	1.048412E+0	1.126222E+0	1.120719E+0	1.133558E+0	1.085454E+0	1.174339E+0	1.169316E+0	1.088517E+0	1.092346E+0	1.145694E+0	1.134770E+0	1.146534E+0	1.183292E+0	1.181742E+0	1.148493E+0	1.073828E+0	1.124705E+0	1.172527E+0	1.119826E+0	1.053377E+0	1.114964E+0	1.146534E+0	1.156205E+0	1.107233E+0	1.109735E+0	1.070971E+0	1.082725E+0	1.109495E+0	1.130523E+0	1.129859E+0	1.116678E+0	1.066443E+0	1.145980E+0	1.106655E+0	1.197037E+0	1.159312E+0	1.184715E+0	1.117232E+0	1.144844E+0	1.127294E+0	1.104191E+0	1.109582E+0	1.167474E+0	1.148748E+0	1.163480E+0	1.104877E+0	1.130130E+0	1.047519E+0	1.140878E+0	1.081042E+0	1.193340E+0	1.020242E+0	1.168582E+0
5.435010E+2	1.110776E+0	1.197012E+0	1.150401E+0	1.128087E+0	1.150273E+0	1.157249E+0	1.200684E+0	1.203920E+0	1.115924E+0	1.196146E+0	1.234140E+0	1.138575E+0	1.129182E+0	1.154103E+0	1.199178E+0	1.137392E+0	1.138116E+0	1.138047E+0	1.176799E+0	1.172706E+0	1.129205E+0	1.123480E+0	1.186306E+0	1.182639E+0	1.231876E+0	1.165088E+0	1.202120E+0	1.227280E+0	1.112785E+0	1.158120E+0	1.163385E+0	1.186934E+0	1.147097E+0	1.147229E+0	1.167407E+0	1.140420E+0	1.187318E+0	1.198727E+0	1.169238E+0	1.157844E+0	1.156991E+0	1.187503E+0	1.166113E+0	1.152092E+0	1.142325E+0	1.131964E+0	1.114219E+0	1.202958E+0	1.165586E+0	1.128208E+0	1.153949E+0	1.155732E+0	1.115965E+0	1.137692E+0	1.185116E+0	1.106063E+0	1.231055E+0	1.193174E+0	1.144007E+0	1.101273E+0	1.176565E+0	1.230831E+0	1.208480E+0	1.139161E+0	1.148865E+0	1.157381E+0	1.161861E+0	1.103440E+0	1.130146E+0	1.148253E+0	1.150379E+0	1.194178E+0	1.149256E+0	1.123003E+0	1.161002E+0	1.134645E+0	1.202166E+0	1.151995E+0	1.179436E+0	1.200139E+0	1.120421E+0	1.213838E+0	1.180358E+0	1.123705E+0	1.191133E+0	1.114983E+0	1.161533E+0	1.197557E+0	1.233136E+0	1.153760E+0	1.191256E+0	1.188751E+0	1.139126E+0	1.085231E+0	1.230425E+0	1.196540E+0	1.117859E+0	1.131550E+0	1.137209E+0	1.254099E+0	1.218294E+0	1.156304E+0	1.116369E+0	1.117172E+0	1.171806E+0	1.114778E+0	1.136137E+0	1.095762E+0	1.116237E+0	1.127052E+0	1.170216E+0	1.201903E+0	1.108179E+0	1.135438E+0	1.189066E+0	1.143645E+0	1.110187E+0	1.152971E+0	1.155192E+0	1.124538E+0	1.235549E+0	1.143262E+0	1.148165E+0	1.110173E+0	1.194211E+0	1.147499E+0	1.112622E+0	1.171132E+0	1.126698E+0	1.165910E+0	1.139668E+0	1.142919E+0	1.157747E+0	1.176954E+0	1.176862E+0	1.139905E+0	1.148499E+0	1.220975E+0	1.105237E+0	1.170419E+0	1.174313E+0	1.140053E+0	1.187395E+0	1.148080E+0	1.153068E+0	1.130298E+0	1.154496E+0	1.159937E+0	1.173319E+0	1.079684E+0	1.129822E+0	1.081195E+0	1.160389E+0	1.234295E+0	1.116920E+0	1.137181E+0	1.168019E+0	1.192825E+0	1.128340E+0	1.133070E+0	1.165188E+0	1.160148E+0	1.159132E+0	1.228835E+0	1.159025E+0	1.118570E+0	1.141605E+0	1.126589E+0	1.210135E+0	1.167128E+0	1.178898E+0
5.440280E+2	1.241017E+0	1.341537E+0	1.368507E+0	1.283652E+0	1.245685E+0	1.355701E+0	1.379901E+0	1.334471E+0	1.285176E+0	1.344944E+0	1.365876E+0	1.346155E+0	1.352869E+0	1.325467E+0	1.270455E+0	1.303398E+0	1.220145E+0	1.306166E+0	1.257119E+0	1.292363E+0	1.374645E+0	1.289585E+0	1.260759E+0	1.324038E+0	1.350689E+0	1.301941E+0	1.286563E+0	1.317442E+0	1.297232E+0	1.347550E+0	1.353326E+0	1.255260E+0	1.304477E+0	1.337697E+0	1.345463E+0	1.305690E+0	1.380526E+0	1.297804E+0	1.304008E+0	1.267975E+0	1.369545E+0	1.337701E+0	1.314740E+0	1.306488E+0	1.317321E+0	1.339830E+0	1.328572E+0	1.336105E+0	1.370794E+0	1.392041E+0	1.296031E+0	1.319743E+0	1.277550E+0	1.324978E+0	1.297829E+0	1.350514E+0	1.329326E+0	1.335063E+0	1.340911E+0	1.289491E+0	1.275483E+0	1.345963E+0	1.360883E+0	1.261305E+0	1.369138E+0	1.298221E+0	1.324724E+0	1.301824E+0	1.353382E+0	1.292279E+0	1.328208E+0	1.312356E+0	1.281584E+0	1.365502E+0	1.318791E+0	1.297268E+0	1.318749E+0	1.309681E+0	1.329440E+0	1.336585E+0	1.234762E+0	1.287641E+0	1.365087E+0	1.247664E+0	1.329629E+0	1.255485E+0	1.355286E+0	1.290093E+0	1.312317E+0	1.362431E+0	1.325707E+0	1.302797E+0	1.297981E+0	1.320408E+0	1.322321E+0	1.354679E+0	1.309418E+0	1.282826E+0	1.312130E+0	1.339507E+0	1.294504E+0	1.319678E+0	1.312713E+0	1.301065E+0	1.299988E+0	1.297654E+0	1.245416E+0	1.315180E+0	1.263217E+0	1.336053E+0	1.351739E+0	1.241597E+0	1.341681E+0	1.323372E+0	1.322406E+0	1.288201E+0	1.302284E+0	1.389432E+0	1.250672E+0	1.298013E+0	1.326074E+0	1.275657E+0	1.263125E+0	1.303316E+0	1.319779E+0	1.349013E+0	1.237236E+0	1.299770E+0	1.280022E+0	1.282464E+0	1.358980E+0	1.294148E+0	1.293413E+0	1.298898E+0	1.299176E+0	1.337508E+0	1.312637E+0	1.295584E+0	1.317589E+0	1.279276E+0	1.269663E+0	1.264061E+0	1.355752E+0	1.339306E+0	1.281202E+0	1.314301E+0	1.316062E+0	1.321298E+0	1.303609E+0	1.299363E+0	1.348193E+0	1.317576E+0	1.272318E+0	1.337513E+0	1.246866E+0	1.311310E+0	1.352979E+0	1.275578E+0	1.232565E+0	1.327404E+0	1.264918E+0	1.324148E+0	1.345790E+0	1.319793E+0	1.293831E+0	1.250977E+0	1.312092E+0	1.342968E+0	1.391015E+0	1.342902E+0	1.257592E+0
5.445240E+2	1.247197E+0	1.314086E+0	1.227534E+0	1.175653E+0	1.237839E+0	1.283530E+0	1.249191E+0	1.332901E+0	1.159420E+0	1.222895E+0	1.307611E+0	1.250442E+0	1.196265E+0	1.253234E+0	1.272148E+0	1.254754E+0	1.229974E+0	1.261194E+0	1.204271E+0	1.207947E+0	1.347596E+0	1.349871E+0	1.183004E+0	1.228047E+0	1.283076E+0	1.254166E+0	1.301963E+0	1.302169E+0	1.279933E+0	1.236324E+0	1.264518E+0	1.233546E+0	1.201287E+0	1.196731E+0	1.224569E+0	1.207047E+0	1.226711E+0	1.267689E+0	1.246912E+0	1.294087E+0	1.264141E+0	1.193924E+0	1.239172E+0	1.234838E+0	1.200248E+0	1.287909E+0	1.207944E+0	1.247314E+0	1.264876E+0	1.219304E+0	1.146650E+0	1.256893E+0	1.223405E+0	1.256875E+0	1.248278E+0	1.238881E+0	1.254358E+0	1.247663E+0	1.252900E+0	1.253576E+0	1.261276E+0	1.287592E+0	1.292527E+0	1.207404E+0	1.235988E+0	1.202026E+0	1.329073E+0	1.183272E+0	1.278838E+0	1.241240E+0	1.279801E+0	1.206081E+0	1.269431E+0	1.211875E+0	1.234438E+0	1.198806E+0	1.237154E+0	1.217093E+0	1.226358E+0	1.281083E+0	1.245149E+0	1.208415E+0	1.198255E+0	1.259607E+0	1.274614E+0	1.222622E+0	1.299947E+0	1.250463E+0	1.297964E+0	1.270846E+0	1.211188E+0	1.311817E+0	1.292289E+0	1.237394E+0	1.262663E+0	1.246299E+0	1.208213E+0	1.208234E+0	1.257518E+0	1.248150E+0	1.233702E+0	1.224865E+0	1.263665E+0	1.272959E+0	1.192634E+0	1.203371E+0	1.205123E+0	1.264027E+0	1.267776E+0	1.223117E+0	1.210126E+0	1.239101E+0	1.216340E+0	1.260322E+0	1.234979E+0	1.206973E+0	1.178266E+0	1.246957E+0	1.243201E+0	1.216440E+0	1.276798E+0	1.308444E+0	1.284187E+0	1.233791E+0	1.196441E+0	1.316080E+0	1.207662E+0	1.249747E+0	1.232133E+0	1.251634E+0	1.271050E+0	1.261558E+0	1.194002E+0	1.172394E+0	1.298137E+0	1.229302E+0	1.209308E+0	1.281036E+0	1.184550E+0	1.299671E+0	1.222560E+0	1.195730E+0	1.213909E+0	1.307332E+0	1.235312E+0	1.268051E+0	1.247136E+0	1.272880E+0	1.301494E+0	1.221734E+0	1.284704E+0	1.266189E+0	1.259675E+0	1.182611E+0	1.219999E+0	1.274269E+0	1.252478E+0	1.196812E+0	1.224211E+0	1.227030E+0	1.268496E+0	1.286498E+0	1.215632E+0	1.297381E+0	1.179966E+0	1.188305E+0	1.263814E+0	1.246892E+0	1.304820E+0	1.206446E+0	1.284767E+0
5.450150E+2	1.153576E+0	1.147017E+0	1.185194E+0	1.250998E+0	1.152829E+0	1.220683E+0	1.222031E+0	1.264628E+0	1.210002E+0	1.283010E+0	1.151661E+0	1.176121E+0	1.179158E+0	1.153273E+0	1.226781E+0	1.225270E+0	1.218336E+0	1.163685E+0	1.199392E+0	1.219942E+0	1.242634E+0	1.228192E+0	1.197853E+0	1.184285E+0	1.183692E+0	1.209175E+0	1.214063E+0	1.204557E+0	1.227265E+0	1.230200E+0	1.217079E+0	1.228773E+0	1.121346E+0	1.242488E+0	1.153918E+0	1.218601E+0	1.181737E+0	1.153358E+0	1.228561E+0	1.227850E+0	1.272077E+0	1.143276E+0	1.223298E+0	1.239138E+0	1.214700E+0	1.188205E+0	1.168413E+0	1.209814E+0	1.203984E+0	1.223478E+0	1.135638E+0	1.220777E+0	1.253805E+0	1.219305E+0	1.160008E+0	1.120429E+0	1.279575E+0	1.191085E+0	1.134321E+0	1.204692E+0	1.171392E+0	1.214466E+0	1.132194E+0	1.260100E+0	1.169639E+0	1.133601E+0	1.184181E+0	1.172462E+0	1.217721E+0	1.191874E+0	1.225770E+0	1.162205E+0	1.254115E+0	1.212427E+0	1.143634E+0	1.155435E+0	1.132567E+0	1.221350E+0	1.216940E+0	1.271374E+0	1.230862E+0	1.182789E+0	1.121356E+0	1.166444E+0	1.238884E+0	1.168069E+0	1.203073E+0	1.141429E+0	1.222757E+0	1.156827E+0	1.214262E+0	1.187386E+0	1.163307E+0	1.188449E+0	1.159576E+0	1.225639E+0	1.172283E+0	1.106563E+0	1.208153E+0	1.133571E+0	1.181304E+0	1.255753E+0	1.207181E+0	1.163847E+0	1.213089E+0	1.241948E+0	1.174788E+0	1.184498E+0	1.159306E+0	1.181303E+0	1.242706E+0	1.142488E+0	1.189927E+0	1.251003E+0	1.249312E+0	1.208013E+0	1.185020E+0	1.170930E+0	1.223762E+0	1.198208E+0	1.207205E+0	1.162558E+0	1.164810E+0	1.131525E+0	1.167368E+0	1.194064E+0	1.160991E+0	1.153206E+0	1.118422E+0	1.209751E+0	1.242747E+0	1.218658E+0	1.204812E+0	1.173359E+0	1.265969E+0	1.210997E+0	1.207646E+0	1.248060E+0	1.134299E+0	1.193698E+0	1.176788E+0	1.124272E+0	1.180276E+0	1.153839E+0	1.183533E+0	1.211508E+0	1.255654E+0	1.249200E+0	1.201464E+0	1.239815E+0	1.190469E+0	1.252731E+0	1.227536E+0	1.235694E+0	1.211070E+0	1.246328E+0	1.166025E+0	1.191376E+0	1.191755E+0	1.201139E+0	1.199659E+0	1.179175E+0	1.171394E+0	1.089579E+0	1.227801E+0	1.163688E+0	1.286298E+0	1.184263E+0	1.151677E+0	1.116820E+0	1.246310E+0
5.455180E+2	1.132708E+0	1.165124E+0	1.202602E+0	1.128335E+0	1.170590E+0	1.134692E+0	1.206190E+0	1.188455E+0	1.126320E+0	1.195996E+0	1.130505E+0	1.156025E+0	1.149095E+0	1.172023E+0	1.172134E+0	1.170734E+0	1.184329E+0	1.186017E+0	1.139078E+0	1.174643E+0	1.226298E+0	1.186622E+0	1.127046E+0	1.158206E+0	1.164734E+0	1.167234E+0	1.143609E+0	1.119541E+0	1.161067E+0	1.148568E+0	1.181082E+0	1.150083E+0	1.182278E+0	1.089027E+0	1.142371E+0	1.151244E+0	1.174104E+0	1.177993E+0	1.141843E+0	1.132664E+0	1.138266E+0	1.156563E+0	1.132328E+0	1.109077E+0	1.186823E+0	1.203565E+0	1.152058E+0	1.210174E+0	1.191490E+0	1.206823E+0	1.154722E+0	1.197806E+0	1.164513E+0	1.160192E+0	1.209105E+0	1.144838E+0	1.202626E+0	1.164669E+0	1.170032E+0	1.103798E+0	1.167884E+0	1.154507E+0	1.169544E+0	1.132693E+0	1.113099E+0	1.216260E+0	1.103872E+0	1.139183E+0	1.240366E+0	1.161172E+0	1.144811E+0	1.172179E+0	1.198350E+0	1.143229E+0	1.174650E+0	1.078953E+0	1.179317E+0	1.112140E+0	1.146410E+0	1.228035E+0	1.142319E+0	1.078294E+0	1.124097E+0	1.144260E+0	1.223547E+0	1.172320E+0	1.140324E+0	1.160013E+0	1.205419E+0	1.201413E+0	1.172513E+0	1.189910E+0	1.191245E+0	1.153627E+0	1.211232E+0	1.184601E+0	1.163128E+0	1.148152E+0	1.176510E+0	1.210765E+0	1.115327E+0	1.153078E+0	1.121410E+0	1.133023E+0	1.253983E+0	1.130212E+0	1.191713E+0	1.185197E+0	1.167395E+0	1.147749E+0	1.214147E+0	1.151698E+0	1.100040E+0	1.158765E+0	1.121704E+0	1.209227E+0	1.148234E+0	1.200620E+0	1.171102E+0	1.178701E+0	1.198776E+0	1.212886E+0	1.197936E+0	1.165268E+0	1.199154E+0	1.158079E+0	1.171608E+0	1.193834E+0	1.200891E+0	1.203467E+0	1.172680E+0	1.226359E+0	1.149833E+0	1.180084E+0	1.185104E+0	1.218196E+0	1.197292E+0	1.158243E+0	1.177587E+0	1.179990E+0	1.115773E+0	1.115357E+0	1.216787E+0	1.135592E+0	1.144020E+0	1.152480E+0	1.150033E+0	1.174190E+0	1.174232E+0	1.141187E+0	1.191484E+0	1.154159E+0	1.194275E+0	1.092279E+0	1.170492E+0	1.252407E+0	1.204966E+0	1.169479E+0	1.141451E+0	1.129641E+0	1.155443E+0	1.203454E+0	1.132232E+0	1.124869E+0	1.179161E+0	1.147714E+0	1.237679E+0	1.177003E+0	1.160498E+0	1.055952E+0	1.179955E+0
5.460110E+2	1.024572E+0	1.076942E+0	9.555665E-1	1.045267E+0	9.809473E-1	1.016462E+0	1.023812E+0	1.059432E+0	1.001610E+0	1.045732E+0	1.006737E+0	9.886070E-1	9.865091E-1	1.028788E+0	1.045574E+0	1.027334E+0	1.010104E+0	1.085355E+0	1.021677E+0	1.053167E+0	1.077238E+0	1.017860E+0	1.045283E+0	9.775220E-1	9.816748E-1	9.694625E-1	1.051471E+0	9.949186E-1	9.926931E-1	9.897301E-1	9.471966E-1	9.818225E-1	1.052744E+0	9.744695E-1	1.046526E+0	1.066516E+0	1.043669E+0	1.012527E+0	1.047679E+0	1.013315E+0	1.080367E+0	1.053204E+0	1.057343E+0	1.004754E+0	1.041169E+0	9.871440E-1	1.056981E+0	1.048003E+0	9.910690E-1	9.833739E-1	1.043159E+0	1.063244E+0	1.048712E+0	1.026194E+0	9.895060E-1	1.053000E+0	9.931587E-1	1.072754E+0	9.971977E-1	1.044686E+0	9.657642E-1	1.005789E+0	1.019208E+0	1.016866E+0	9.658246E-1	1.070762E+0	9.967767E-1	9.821980E-1	1.034790E+0	1.020279E+0	1.004070E+0	9.721745E-1	1.062970E+0	1.027938E+0	9.684629E-1	1.024425E+0	1.035209E+0	1.024939E+0	9.911549E-1	1.096729E+0	9.548294E-1	9.829232E-1	9.729794E-1	1.031676E+0	1.017085E+0	1.033892E+0	1.074287E+0	1.034092E+0	1.000879E+0	1.036649E+0	1.016657E+0	9.990329E-1	1.031742E+0	1.018255E+0	1.092016E+0	1.115661E+0	1.001599E+0	1.036531E+0	1.047977E+0	1.024933E+0	1.016509E+0	1.048185E+0	1.055612E+0	1.007091E+0	1.000414E+0	1.016423E+0	9.891761E-1	1.067728E+0	1.031003E+0	1.030883E+0	1.092405E+0	1.077330E+0	1.061724E+0	1.056588E+0	9.966877E-1	1.042369E+0	9.570286E-1	1.026502E+0	1.019576E+0	9.440985E-1	1.083378E+0	1.029409E+0	1.002987E+0	1.025298E+0	9.810562E-1	1.044075E+0	9.380726E-1	1.087210E+0	9.896967E-1	1.002917E+0	1.043948E+0	1.056952E+0	1.041208E+0	1.055062E+0	9.968501E-1	1.020021E+0	1.026374E+0	1.030793E+0	9.853192E-1	1.042996E+0	9.902611E-1	1.008315E+0	1.046028E+0	1.011662E+0	1.012041E+0	1.032855E+0	1.064063E+0	1.000272E+0	1.028054E+0	1.040470E+0	9.969294E-1	1.065763E+0	1.041393E+0	1.041025E+0	1.010582E+0	1.032728E+0	1.044886E+0	1.014581E+0	1.032969E+0	1.020821E+0	9.927397E-1	9.935236E-1	1.004954E+0	9.746310E-1	1.020176E+0	9.427902E-1	1.030644E+0	9.872897E-1	1.073204E+0	9.683370E-1	1.124822E+0
5.465160E+2	1.064572E+0	1.151718E+0	1.080175E+0	1.067746E+0	1.064779E+0	1.097899E+0	1.153127E+0	1.147237E+0	1.126283E+0	1.138868E+0	1.079014E+0	1.065120E+0	1.075907E+0	1.110313E+0	1.122707E+0	1.102899E+0	1.100924E+0	1.099010E+0	1.098524E+0	1.180325E+0	1.137401E+0	1.118943E+0	1.146167E+0	1.122654E+0	1.057502E+0	1.123196E+0	1.103182E+0	1.128218E+0	1.115754E+0	1.085623E+0	1.089925E+0	1.149864E+0	1.114215E+0	1.059363E+0	1.110579E+0	1.138982E+0	1.132654E+0	1.134636E+0	1.098781E+0	1.127335E+0	1.133407E+0	1.115829E+0	1.179764E+0	1.088742E+0	1.049431E+0	1.139034E+0	1.147137E+0	1.098228E+0	1.111353E+0	1.142708E+0	1.064438E+0	1.200511E+0	1.122588E+0	1.163212E+0	1.098959E+0	1.140906E+0	1.117001E+0	1.096158E+0	1.058263E+0	1.107843E+0	1.057783E+0	1.197787E+0	1.092375E+0	1.094647E+0	1.044257E+0	1.117851E+0	1.175866E+0	1.069023E+0	1.126996E+0	1.143280E+0	1.091242E+0	1.091950E+0	1.100280E+0	1.138889E+0	1.099587E+0	1.126462E+0	1.091510E+0	1.147305E+0	1.105722E+0	1.123355E+0	1.054962E+0	1.109188E+0	1.149186E+0	1.109076E+0	1.071782E+0	1.136695E+0	1.138376E+0	1.119382E+0	1.109018E+0	1.125496E+0	1.082160E+0	1.051160E+0	1.152053E+0	1.084996E+0	1.100056E+0	1.123075E+0	1.111542E+0	1.104761E+0	1.101939E+0	1.120973E+0	1.137441E+0	1.162170E+0	1.155435E+0	1.138263E+0	1.065083E+0	1.060947E+0	1.088854E+0	1.132110E+0	1.139251E+0	1.120563E+0	1.097642E+0	1.101240E+0	1.075438E+0	1.132228E+0	1.130373E+0	1.084579E+0	1.127738E+0	1.072115E+0	1.083481E+0	1.151332E+0	1.165606E+0	1.141103E+0	1.066816E+0	1.132866E+0	1.070879E+0	1.105018E+0	1.014533E+0	1.129427E+0	1.040909E+0	1.121091E+0	1.094474E+0	1.254746E+0	1.176877E+0	1.107505E+0	1.128477E+0	1.146783E+0	1.087258E+0	1.091298E+0	1.127553E+0	1.145671E+0	1.103988E+0	1.173839E+0	1.098002E+0	1.132030E+0	1.108554E+0	1.130348E+0	1.092542E+0	1.111408E+0	1.132672E+0	1.027361E+0	1.095921E+0	1.133539E+0	1.134350E+0	1.096900E+0	1.110289E+0	1.081568E+0	1.050933E+0	1.118240E+0	1.137341E+0	1.116420E+0	1.106043E+0	1.113785E+0	1.165458E+0	1.109603E+0	1.122690E+0	1.059883E+0	1.083141E+0	1.088751E+0	1.172367E+0	1.040285E+0	1.112930E+0
5.470110E+2	1.068603E+0	1.086393E+0	9.547125E-1	1.157808E+0	1.087134E+0	1.130974E+0	1.116659E+0	1.081341E+0	1.134722E+0	1.149975E+0	1.104261E+0	1.124996E+0	1.102714E+0	1.077844E+0	1.133629E+0	1.052505E+0	1.126423E+0	1.130114E+0	1.136436E+0	1.123149E+0	1.154136E+0	1.085804E+0	1.102188E+0	1.137726E+0	1.240414E+0	1.085574E+0	1.114214E+0	1.175489E+0	1.073982E+0	1.076474E+0	1.127931E+0	1.122518E+0	1.099929E+0	1.116498E+0	1.115772E+0	1.190790E+0	1.136624E+0	1.122592E+0	1.129209E+0	1.155845E+0	1.114859E+0	1.049171E+0	1.031178E+0	1.112229E+0	1.120119E+0	1.103498E+0	1.121936E+0	1.102864E+0	1.132404E+0	1.091436E+0	1.072574E+0	1.162453E+0	1.087185E+0	1.144137E+0	1.133522E+0	1.096949E+0	1.170678E+0	1.114651E+0	1.148499E+0	1.146392E+0	1.121820E+0	1.173748E+0	1.158626E+0	1.170227E+0	1.131087E+0	1.112409E+0	1.081930E+0	1.154779E+0	1.154621E+0	1.100892E+0	1.125467E+0	1.094029E+0	1.155886E+0	1.115446E+0	1.133642E+0	1.060069E+0	1.096082E+0	1.073423E+0	1.058425E+0	1.161247E+0	1.077181E+0	1.070333E+0	1.123900E+0	1.129673E+0	1.120391E+0	1.097788E+0	1.055435E+0	1.070447E+0	1.114968E+0	1.146435E+0	1.122548E+0	1.094102E+0	1.122440E+0	1.073238E+0	1.126834E+0	1.147486E+0	1.195379E+0	1.091044E+0	1.094032E+0	1.138561E+0	1.092801E+0	1.128865E+0	1.109982E+0	1.092634E+0	1.144982E+0	1.164943E+0	1.046119E+0	1.120671E+0	1.094017E+0	1.099281E+0	1.103357E+0	1.092519E+0	1.135043E+0	1.107659E+0	1.071366E+0	1.088672E+0	1.126315E+0	1.106542E+0	1.120977E+0	1.091049E+0	1.153909E+0	1.105851E+0	1.115091E+0	1.091423E+0	1.018596E+0	1.147484E+0	1.027100E+0	1.165569E+0	1.087359E+0	1.129255E+0	1.012999E+0	1.152370E+0	1.159212E+0	1.092315E+0	1.087920E+0	1.148154E+0	1.055592E+0	1.133614E+0	1.122955E+0	1.097533E+0	1.086357E+0	1.121547E+0	1.127823E+0	1.136404E+0	1.171168E+0	1.110817E+0	1.106518E+0	1.166970E+0	1.068529E+0	1.114559E+0	1.131037E+0	1.129905E+0	1.120787E+0	1.115278E+0	1.112732E+0	1.136299E+0	1.125433E+0	1.116470E+0	1.120045E+0	1.145333E+0	1.157411E+0	1.098254E+0	1.122682E+0	1.179464E+0	1.103609E+0	1.143058E+0	1.099325E+0	1.163300E+0	1.148696E+0	1.066339E+0	1.067519E+0
5.475280E+2	1.272325E+0	1.328630E+0	1.265643E+0	1.269757E+0	1.301690E+0	1.301102E+0	1.294039E+0	1.335676E+0	1.257071E+0	1.284084E+0	1.207099E+0	1.252487E+0	1.276797E+0	1.257165E+0	1.258139E+0	1.239203E+0	1.309974E+0	1.277960E+0	1.247460E+0	1.345061E+0	1.263836E+0	1.253250E+0	1.234724E+0	1.272806E+0	1.195403E+0	1.260322E+0	1.259804E+0	1.256242E+0	1.302538E+0	1.276611E+0	1.266063E+0	1.288632E+0	1.290476E+0	1.209425E+0	1.302812E+0	1.220848E+0	1.222941E+0	1.201460E+0	1.262735E+0	1.251663E+0	1.276190E+0	1.261566E+0	1.262068E+0	1.238733E+0	1.268656E+0	1.264466E+0	1.266329E+0	1.265805E+0	1.260688E+0	1.271230E+0	1.245434E+0	1.305377E+0	1.277883E+0	1.228334E+0	1.269880E+0	1.264678E+0	1.343847E+0	1.215926E+0	1.230698E+0	1.288192E+0	1.209590E+0	1.277817E+0	1.271674E+0	1.252109E+0	1.318747E+0	1.312086E+0	1.319648E+0	1.294548E+0	1.299814E+0	1.279781E+0	1.241090E+0	1.316030E+0	1.283873E+0	1.213803E+0	1.217266E+0	1.281105E+0	1.225793E+0	1.205816E+0	1.275960E+0	1.308947E+0	1.262862E+0	1.220617E+0	1.282793E+0	1.199353E+0	1.244451E+0	1.231519E+0	1.311849E+0	1.286511E+0	1.257046E+0	1.311084E+0	1.259925E+0	1.245444E+0	1.239661E+0	1.241517E+0	1.265893E+0	1.306164E+0	1.290538E+0	1.248019E+0	1.260887E+0	1.258389E+0	1.314596E+0	1.310688E+0	1.241864E+0	1.293037E+0	1.256428E+0	1.299966E+0	1.191951E+0	1.261516E+0	1.285917E+0	1.309876E+0	1.286670E+0	1.233720E+0	1.250574E+0	1.330968E+0	1.242876E+0	1.229540E+0	1.274739E+0	1.279815E+0	1.181936E+0	1.229115E+0	1.265097E+0	1.200846E+0	1.266061E+0	1.317864E+0	1.288029E+0	1.286667E+0	1.225110E+0	1.258635E+0	1.275309E+0	1.248187E+0	1.228989E+0	1.329379E+0	1.252965E+0	1.282599E+0	1.245772E+0	1.289690E+0	1.257819E+0	1.290741E+0	1.256622E+0	1.287684E+0	1.294613E+0	1.289347E+0	1.258484E+0	1.324398E+0	1.252276E+0	1.289229E+0	1.218363E+0	1.292752E+0	1.246228E+0	1.274169E+0	1.180277E+0	1.248341E+0	1.304695E+0	1.251398E+0	1.327061E+0	1.300687E+0	1.241867E+0	1.263560E+0	1.290573E+0	1.331642E+0	1.275842E+0	1.242311E+0	1.238806E+0	1.268395E+0	1.311925E+0	1.175611E+0	1.251252E+0	1.281248E+0	1.351605E+0	1.302303E+0	1.257489E+0
5.480140E+2	1.424973E+0	1.424819E+0	1.237001E+0	1.454685E+0	1.384002E+0	1.417835E+0	1.447352E+0	1.414916E+0	1.364877E+0	1.348393E+0	1.388026E+0	1.346598E+0	1.392968E+0	1.415061E+0	1.412410E+0	1.383759E+0	1.456930E+0	1.398312E+0	1.463190E+0	1.405318E+0	1.439645E+0	1.392963E+0	1.376616E+0	1.403106E+0	1.476343E+0	1.374113E+0	1.371569E+0	1.387998E+0	1.438810E+0	1.372288E+0	1.387141E+0	1.383257E+0	1.385732E+0	1.433641E+0	1.379027E+0	1.381288E+0	1.364864E+0	1.379525E+0	1.379044E+0	1.368057E+0	1.437576E+0	1.332459E+0	1.399100E+0	1.368200E+0	1.377103E+0	1.393300E+0	1.320605E+0	1.400754E+0	1.395287E+0	1.359827E+0	1.366585E+0	1.435055E+0	1.389195E+0	1.429755E+0	1.428288E+0	1.389025E+0	1.429457E+0	1.425494E+0	1.380025E+0	1.410583E+0	1.428164E+0	1.432386E+0	1.357472E+0	1.386662E+0	1.317786E+0	1.410382E+0	1.419350E+0	1.386401E+0	1.437786E+0	1.416818E+0	1.396660E+0	1.404927E+0	1.455808E+0	1.308803E+0	1.399853E+0	1.335678E+0	1.325188E+0	1.421982E+0	1.319666E+0	1.459261E+0	1.401715E+0	1.371796E+0	1.445891E+0	1.374442E+0	1.345868E+0	1.363840E+0	1.435987E+0	1.379276E+0	1.435144E+0	1.397707E+0	1.394918E+0	1.318268E+0	1.419180E+0	1.380372E+0	1.374716E+0	1.376827E+0	1.386726E+0	1.392732E+0	1.410035E+0	1.413749E+0	1.381387E+0	1.442807E+0	1.433796E+0	1.353743E+0	1.374211E+0	1.349742E+0	1.475866E+0	1.392549E+0	1.458141E+0	1.396275E+0	1.420285E+0	1.358647E+0	1.403995E+0	1.432703E+0	1.320187E+0	1.445619E+0	1.418141E+0	1.404662E+0	1.336159E+0	1.407681E+0	1.415433E+0	1.393904E+0	1.304397E+0	1.405375E+0	1.387005E+0	1.385570E+0	1.318978E+0	1.382963E+0	1.365836E+0	1.398691E+0	1.401487E+0	1.432942E+0	1.374763E+0	1.391400E+0	1.357140E+0	1.431576E+0	1.417540E+0	1.444213E+0	1.429442E+0	1.429781E+0	1.346819E+0	1.373168E+0	1.398894E+0	1.386816E+0	1.354484E+0	1.372378E+0	1.393436E+0	1.367074E+0	1.330913E+0	1.353360E+0	1.364473E+0	1.376251E+0	1.437265E+0	1.361423E+0	1.351734E+0	1.411016E+0	1.435739E+0	1.326381E+0	1.384417E+0	1.448706E+0	1.415730E+0	1.368707E+0	1.329475E+0	1.398762E+0	1.456245E+0	1.318813E+0	1.377110E+0	1.400696E+0	1.477027E+0	1.271784E+0	1.336979E+0
5.485170E+2	1.368546E+0	1.394301E+0	1.356660E+0	1.290998E+0	1.348197E+0	1.389721E+0	1.374029E+0	1.384608E+0	1.351163E+0	1.407922E+0	1.322377E+0	1.405694E+0	1.375189E+0	1.346032E+0	1.361131E+0	1.391131E+0	1.401583E+0	1.432160E+0	1.399881E+0	1.387153E+0	1.385688E+0	1.338594E+0	1.412129E+0	1.349935E+0	1.326956E+0	1.429360E+0	1.404906E+0	1.392640E+0	1.355796E+0	1.358206E+0	1.396671E+0	1.385155E+0	1.371059E+0	1.370269E+0	1.330423E+0	1.319718E+0	1.372818E+0	1.308937E+0	1.356040E+0	1.377592E+0	1.368495E+0	1.366045E+0	1.351399E+0	1.355936E+0	1.393463E+0	1.389616E+0	1.360925E+0	1.392693E+0	1.358383E+0	1.382782E+0	1.310077E+0	1.392856E+0	1.349607E+0	1.327397E+0	1.381874E+0	1.359069E+0	1.393084E+0	1.348752E+0	1.393228E+0	1.351890E+0	1.387900E+0	1.421798E+0	1.353559E+0	1.407489E+0	1.401907E+0	1.329030E+0	1.427814E+0	1.301479E+0	1.358186E+0	1.307859E+0	1.353901E+0	1.344583E+0	1.422180E+0	1.325826E+0	1.294525E+0	1.330188E+0	1.292416E+0	1.364253E+0	1.297626E+0	1.412820E+0	1.334421E+0	1.316734E+0	1.354114E+0	1.348693E+0	1.377069E+0	1.370223E+0	1.372354E+0	1.329033E+0	1.321995E+0	1.401999E+0	1.381689E+0	1.347930E+0	1.378002E+0	1.311840E+0	1.383895E+0	1.348088E+0	1.373811E+0	1.362727E+0	1.299252E+0	1.373667E+0	1.409401E+0	1.365866E+0	1.399888E+0	1.330322E+0	1.384882E+0	1.379055E+0	1.355613E+0	1.310335E+0	1.386012E+0	1.401083E+0	1.349366E+0	1.394460E+0	1.365733E+0	1.360197E+0	1.326586E+0	1.394459E+0	1.323213E+0	1.366377E+0	1.341347E+0	1.355387E+0	1.281444E+0	1.404408E+0	1.329928E+0	1.310159E+0	1.373493E+0	1.375440E+0	1.260198E+0	1.407309E+0	1.362096E+0	1.459888E+0	1.302521E+0	1.374123E+0	1.352229E+0	1.313235E+0	1.376724E+0	1.410026E+0	1.358547E+0	1.366345E+0	1.362713E+0	1.374682E+0	1.336864E+0	1.373721E+0	1.309091E+0	1.361377E+0	1.367921E+0	1.385260E+0	1.360352E+0	1.395474E+0	1.364089E+0	1.343575E+0	1.381828E+0	1.377386E+0	1.382818E+0	1.413533E+0	1.353296E+0	1.405493E+0	1.375442E+0	1.320637E+0	1.358429E+0	1.397731E+0	1.288420E+0	1.344932E+0	1.363693E+0	1.436576E+0	1.328172E+0	1.303157E+0	1.357750E+0	1.438526E+0	1.394620E+0	1.299079E+0	1.443113E+0
5.490380E+2	1.630746E+0	1.766727E+0	1.638397E+0	1.605235E+0	1.640700E+0	1.646360E+0	1.662360E+0	1.719439E+0	1.692308E+0	1.609720E+0	1.678027E+0	1.647726E+0	1.628242E+0	1.671095E+0	1.695495E+0	1.626050E+0	1.704719E+0	1.690054E+0	1.624959E+0	1.701282E+0	1.746216E+0	1.666200E+0	1.673320E+0	1.653047E+0	1.744748E+0	1.648456E+0	1.577054E+0	1.676825E+0	1.695592E+0	1.697652E+0	1.731359E+0	1.691896E+0	1.662537E+0	1.683965E+0	1.650630E+0	1.640956E+0	1.644629E+0	1.675846E+0	1.663730E+0	1.634784E+0	1.707258E+0	1.654511E+0	1.672358E+0	1.648136E+0	1.696462E+0	1.630974E+0	1.629529E+0	1.722255E+0	1.604903E+0	1.696219E+0	1.650766E+0	1.673219E+0	1.712157E+0	1.700034E+0	1.654644E+0	1.727993E+0	1.660509E+0	1.711753E+0	1.644905E+0	1.657019E+0	1.635581E+0	1.694778E+0	1.647414E+0	1.660150E+0	1.579737E+0	1.654306E+0	1.682218E+0	1.688547E+0	1.651451E+0	1.665869E+0	1.629266E+0	1.610544E+0	1.692218E+0	1.623525E+0	1.599419E+0	1.583014E+0	1.634893E+0	1.666994E+0	1.627624E+0	1.740262E+0	1.680812E+0	1.636856E+0	1.656566E+0	1.741030E+0	1.720667E+0	1.617303E+0	1.626847E+0	1.676502E+0	1.724626E+0	1.639660E+0	1.646067E+0	1.706508E+0	1.670620E+0	1.636310E+0	1.624873E+0	1.719621E+0	1.680670E+0	1.554390E+0	1.693723E+0	1.727500E+0	1.605243E+0	1.678455E+0	1.667322E+0	1.630430E+0	1.713423E+0	1.648330E+0	1.560119E+0	1.615866E+0	1.745667E+0	1.630093E+0	1.642230E+0	1.693864E+0	1.670570E+0	1.677149E+0	1.674946E+0	1.702906E+0	1.674390E+0	1.722809E+0	1.614747E+0	1.692817E+0	1.639526E+0	1.656585E+0	1.621206E+0	1.623425E+0	1.660110E+0	1.616873E+0	1.534001E+0	1.655034E+0	1.608066E+0	1.695412E+0	1.636526E+0	1.693557E+0	1.695737E+0	1.635339E+0	1.620900E+0	1.678525E+0	1.560526E+0	1.604030E+0	1.667785E+0	1.698934E+0	1.646393E+0	1.644561E+0	1.652526E+0	1.641997E+0	1.591617E+0	1.601275E+0	1.667384E+0	1.629148E+0	1.646710E+0	1.631531E+0	1.643353E+0	1.611652E+0	1.732375E+0	1.651986E+0	1.650850E+0	1.671543E+0	1.677958E+0	1.545047E+0	1.606472E+0	1.633184E+0	1.556742E+0	1.580712E+0	1.629602E+0	1.612627E+0	1.626832E+0	1.558538E+0	1.641636E+0	1.635882E+0	1.579528E+0	1.597240E+0	1.782079E+0
5.495150E+2	1.580091E+0	1.588554E+0	1.633463E+0	1.524395E+0	1.657566E+0	1.689609E+0	1.652077E+0	1.629295E+0	1.663453E+0	1.620093E+0	1.642011E+0	1.558891E+0	1.569886E+0	1.562755E+0	1.572973E+0	1.563671E+0	1.644714E+0	1.548006E+0	1.580324E+0	1.659572E+0	1.672247E+0	1.571768E+0	1.639966E+0	1.643108E+0	1.685306E+0	1.609091E+0	1.535426E+0	1.582685E+0	1.654119E+0	1.643159E+0	1.629064E+0	1.580049E+0	1.568904E+0	1.614728E+0	1.626198E+0	1.647989E+0	1.678907E+0	1.617606E+0	1.570151E+0	1.674354E+0	1.649512E+0	1.596072E+0	1.644716E+0	1.619992E+0	1.661784E+0	1.626571E+0	1.582067E+0	1.591568E+0	1.579311E+0	1.565464E+0	1.600782E+0	1.604496E+0	1.670358E+0	1.614600E+0	1.668580E+0	1.559372E+0	1.657616E+0	1.570605E+0	1.608688E+0	1.630793E+0	1.590017E+0	1.657381E+0	1.591673E+0	1.586331E+0	1.646189E+0	1.570283E+0	1.624491E+0	1.560290E+0	1.638705E+0	1.587087E+0	1.589053E+0	1.648096E+0	1.649706E+0	1.618183E+0	1.637355E+0	1.542894E+0	1.551719E+0	1.613584E+0	1.546602E+0	1.654952E+0	1.639362E+0	1.591200E+0	1.559475E+0	1.600693E+0	1.634081E+0	1.625227E+0	1.626856E+0	1.586611E+0	1.638667E+0	1.625662E+0	1.577270E+0	1.582454E+0	1.590254E+0	1.546370E+0	1.614711E+0	1.660065E+0	1.616548E+0	1.547866E+0	1.657755E+0	1.659734E+0	1.643335E+0	1.629030E+0	1.529421E+0	1.634225E+0	1.656463E+0	1.612419E+0	1.552809E+0	1.659133E+0	1.669150E+0	1.635840E+0	1.597622E+0	1.648594E+0	1.603846E+0	1.625621E+0	1.586477E+0	1.681556E+0	1.630244E+0	1.619898E+0	1.557962E+0	1.636659E+0	1.591366E+0	1.580437E+0	1.551033E+0	1.630863E+0	1.607165E+0	1.680886E+0	1.511526E+0	1.636616E+0	1.647324E+0	1.633377E+0	1.611932E+0	1.670464E+0	1.606642E+0	1.609163E+0	1.622088E+0	1.623403E+0	1.582753E+0	1.589634E+0	1.611912E+0	1.617289E+0	1.545512E+0	1.505163E+0	1.636779E+0	1.608666E+0	1.600201E+0	1.620141E+0	1.574870E+0	1.596089E+0	1.561258E+0	1.551997E+0	1.587228E+0	1.540305E+0	1.591988E+0	1.642681E+0	1.540401E+0	1.605485E+0	1.571701E+0	1.560830E+0	1.562551E+0	1.599475E+0	1.655870E+0	1.549056E+0	1.558318E+0	1.602459E+0	1.615469E+0	1.578185E+0	1.615773E+0	1.603668E+0	1.678238E+0	1.437578E+0	1.685506E+0
5.499770E+2	1.751990E+0	1.843896E+0	1.811078E+0	1.666856E+0	1.747805E+0	1.756439E+0	1.779210E+0	1.788031E+0	1.864840E+0	1.762940E+0	1.730629E+0	1.719425E+0	1.718548E+0	1.801198E+0	1.736483E+0	1.638383E+0	1.813338E+0	1.712660E+0	1.783653E+0	1.763620E+0	1.834287E+0	1.786035E+0	1.731241E+0	1.728197E+0	1.811554E+0	1.762054E+0	1.748497E+0	1.785441E+0	1.673543E+0	1.802688E+0	1.743406E+0	1.739830E+0	1.767191E+0	1.733631E+0	1.796209E+0	1.744274E+0	1.797770E+0	1.837746E+0	1.678712E+0	1.745301E+0	1.757922E+0	1.782044E+0	1.717427E+0	1.755532E+0	1.721767E+0	1.797731E+0	1.703034E+0	1.757961E+0	1.771292E+0	1.740790E+0	1.671878E+0	1.720944E+0	1.741286E+0	1.800449E+0	1.757919E+0	1.684581E+0	1.778823E+0	1.728942E+0	1.683786E+0	1.692163E+0	1.728853E+0	1.841227E+0	1.744254E+0	1.710790E+0	1.725519E+0	1.720124E+0	1.716429E+0	1.739567E+0	1.832926E+0	1.767165E+0	1.772114E+0	1.718652E+0	1.804737E+0	1.786680E+0	1.623933E+0	1.738389E+0	1.737029E+0	1.719050E+0	1.729300E+0	1.776828E+0	1.709892E+0	1.719494E+0	1.800505E+0	1.717015E+0	1.802471E+0	1.707419E+0	1.796436E+0	1.653002E+0	1.765422E+0	1.689343E+0	1.746612E+0	1.695369E+0	1.813894E+0	1.761097E+0	1.788983E+0	1.763820E+0	1.803099E+0	1.721314E+0	1.711006E+0	1.769020E+0	1.787076E+0	1.754058E+0	1.693827E+0	1.740174E+0	1.728355E+0	1.745485E+0	1.701044E+0	1.744486E+0	1.700389E+0	1.655890E+0	1.706741E+0	1.653754E+0	1.659975E+0	1.760609E+0	1.684467E+0	1.701395E+0	1.764373E+0	1.789565E+0	1.700468E+0	1.743643E+0	1.677589E+0	1.758540E+0	1.756586E+0	1.803322E+0	1.695100E+0	1.697576E+0	1.600095E+0	1.841010E+0	1.707043E+0	1.872871E+0	1.789276E+0	1.709999E+0	1.706494E+0	1.658804E+0	1.694461E+0	1.797713E+0	1.704701E+0	1.776466E+0	1.773389E+0	1.740976E+0	1.706954E+0	1.728131E+0	1.732685E+0	1.715544E+0	1.721012E+0	1.746882E+0	1.721571E+0	1.793738E+0	1.719448E+0	1.667666E+0	1.690137E+0	1.679225E+0	1.685845E+0	1.760344E+0	1.658247E+0	1.781549E+0	1.705090E+0	1.710754E+0	1.661510E+0	1.724963E+0	1.792787E+0	1.740665E+0	1.736395E+0	1.793775E+0	1.706811E+0	1.702024E+0	1.702148E+0	1.728026E+0	1.706317E+0	1.725710E+0	1.736784E+0
5.505230E+2	1.816364E+0	1.863300E+0	1.655179E+0	1.661423E+0	1.710087E+0	1.765144E+0	1.780420E+0	1.811766E+0	1.776349E+0	1.804336E+0	1.629272E+0	1.747734E+0	1.715617E+0	1.736613E+0	1.743829E+0	1.693026E+0	1.788031E+0	1.769469E+0	1.760897E+0	1.763114E+0	1.814057E+0	1.772587E+0	1.752072E+0	1.681168E+0	1.743823E+0	1.727607E+0	1.661711E+0	1.753785E+0	1.702623E+0	1.810209E+0	1.717137E+0	1.735256E+0	1.746192E+0	1.809548E+0	1.738514E+0	1.808777E+0	1.780314E+0	1.715482E+0	1.774820E+0	1.806177E+0	1.723534E+0	1.798155E+0	1.803992E+0	1.813908E+0	1.738259E+0	1.770186E+0	1.675289E+0	1.770780E+0	1.782909E+0	1.759788E+0	1.699630E+0	1.753747E+0	1.763573E+0	1.777504E+0	1.737737E+0	1.740848E+0	1.784784E+0	1.748461E+0	1.766263E+0	1.688686E+0	1.806179E+0	1.820826E+0	1.781167E+0	1.688645E+0	1.714657E+0	1.792275E+0	1.761896E+0	1.775398E+0	1.799224E+0	1.772180E+0	1.736988E+0	1.758717E+0	1.774167E+0	1.708341E+0	1.811215E+0	1.598802E+0	1.745213E+0	1.740006E+0	1.763957E+0	1.785020E+0	1.732083E+0	1.729751E+0	1.788565E+0	1.744234E+0	1.735307E+0	1.776291E+0	1.789525E+0	1.695942E+0	1.810406E+0	1.663234E+0	1.749314E+0	1.673576E+0	1.769218E+0	1.677614E+0	1.729598E+0	1.801002E+0	1.778850E+0	1.707807E+0	1.709715E+0	1.798689E+0	1.778159E+0	1.685194E+0	1.682761E+0	1.642576E+0	1.747801E+0	1.724775E+0	1.624889E+0	1.724035E+0	1.746002E+0	1.765003E+0	1.748245E+0	1.686971E+0	1.739689E+0	1.808149E+0	1.758916E+0	1.727629E+0	1.834049E+0	1.774188E+0	1.664896E+0	1.764645E+0	1.788764E+0	1.780684E+0	1.770057E+0	1.734380E+0	1.815427E+0	1.736063E+0	1.725731E+0	1.789698E+0	1.715739E+0	1.785785E+0	1.738950E+0	1.763348E+0	1.816771E+0	1.715775E+0	1.848656E+0	1.739342E+0	1.736512E+0	1.735696E+0	1.868033E+0	1.787017E+0	1.746936E+0	1.702628E+0	1.695410E+0	1.745274E+0	1.729160E+0	1.701561E+0	1.720548E+0	1.703026E+0	1.728183E+0	1.700084E+0	1.668603E+0	1.726996E+0	1.768212E+0	1.760933E+0	1.750787E+0	1.732902E+0	1.742976E+0	1.728274E+0	1.699967E+0	1.710162E+0	1.693276E+0	1.584645E+0	1.761106E+0	1.794796E+0	1.739866E+0	1.725993E+0	1.697878E+0	1.737990E+0	1.742502E+0	1.732416E+0	1.819106E+0
5.510360E+2	1.514649E+0	1.543855E+0	1.500740E+0	1.512877E+0	1.492172E+0	1.525047E+0	1.566566E+0	1.546800E+0	1.585165E+0	1.580566E+0	1.486790E+0	1.527814E+0	1.476273E+0	1.542212E+0	1.524559E+0	1.499409E+0	1.640920E+0	1.523017E+0	1.506229E+0	1.548105E+0	1.622942E+0	1.512204E+0	1.485021E+0	1.543091E+0	1.542572E+0	1.460899E+0	1.447783E+0	1.456533E+0	1.521501E+0	1.518687E+0	1.572117E+0	1.592360E+0	1.587295E+0	1.552477E+0	1.537277E+0	1.483998E+0	1.594844E+0	1.509478E+0	1.530452E+0	1.506453E+0	1.592118E+0	1.499146E+0	1.556455E+0	1.487551E+0	1.488153E+0	1.466646E+0	1.511446E+0	1.524027E+0	1.479302E+0	1.503216E+0	1.536714E+0	1.574783E+0	1.519339E+0	1.526211E+0	1.564711E+0	1.471805E+0	1.578149E+0	1.470321E+0	1.493521E+0	1.557157E+0	1.495280E+0	1.584061E+0	1.518367E+0	1.484960E+0	1.513171E+0	1.570930E+0	1.526368E+0	1.487605E+0	1.646141E+0	1.502806E+0	1.460787E+0	1.473988E+0	1.591665E+0	1.518986E+0	1.492360E+0	1.483022E+0	1.491719E+0	1.473755E+0	1.512189E+0	1.520261E+0	1.532589E+0	1.449793E+0	1.478485E+0	1.553575E+0	1.474388E+0	1.510445E+0	1.544022E+0	1.438121E+0	1.457281E+0	1.587335E+0	1.453328E+0	1.587087E+0	1.508410E+0	1.496210E+0	1.542161E+0	1.632965E+0	1.507821E+0	1.464805E+0	1.500658E+0	1.550809E+0	1.550522E+0	1.489944E+0	1.495841E+0	1.500321E+0	1.520021E+0	1.489577E+0	1.524539E+0	1.487141E+0	1.526597E+0	1.591416E+0	1.538681E+0	1.495751E+0	1.549528E+0	1.494746E+0	1.416861E+0	1.528312E+0	1.580911E+0	1.528853E+0	1.518254E+0	1.524343E+0	1.535687E+0	1.462529E+0	1.505170E+0	1.446628E+0	1.584658E+0	1.594903E+0	1.444158E+0	1.477674E+0	1.477073E+0	1.559965E+0	1.504587E+0	1.553209E+0	1.566269E+0	1.492930E+0	1.531664E+0	1.502772E+0	1.537616E+0	1.530620E+0	1.531406E+0	1.492398E+0	1.523114E+0	1.491358E+0	1.471523E+0	1.463800E+0	1.503615E+0	1.624885E+0	1.489724E+0	1.454948E+0	1.530927E+0	1.496028E+0	1.490603E+0	1.486640E+0	1.553754E+0	1.512295E+0	1.487437E+0	1.500483E+0	1.516785E+0	1.516374E+0	1.526827E+0	1.524558E+0	1.579956E+0	1.464251E+0	1.537828E+0	1.501405E+0	1.567464E+0	1.474888E+0	1.503652E+0	1.470599E+0	1.610938E+0	1.252307E+0	1.476131E+0
5.515060E+2	1.553603E+0	1.561219E+0	1.552738E+0	1.460712E+0	1.557793E+0	1.611316E+0	1.506271E+0	1.658461E+0	1.608115E+0	1.578019E+0	1.489988E+0	1.523053E+0	1.501567E+0	1.537613E+0	1.542554E+0	1.573777E+0	1.560046E+0	1.576045E+0	1.534936E+0	1.565702E+0	1.591747E+0	1.557850E+0	1.603623E+0	1.515616E+0	1.578563E+0	1.594549E+0	1.523988E+0	1.636273E+0	1.569459E+0	1.523074E+0	1.585902E+0	1.574591E+0	1.569203E+0	1.539294E+0	1.557410E+0	1.536487E+0	1.583299E+0	1.577561E+0	1.550896E+0	1.561403E+0	1.621046E+0	1.550152E+0	1.581175E+0	1.578115E+0	1.622384E+0	1.552336E+0	1.509090E+0	1.567593E+0	1.568196E+0	1.523269E+0	1.536358E+0	1.597880E+0	1.504535E+0	1.511133E+0	1.639554E+0	1.528704E+0	1.569582E+0	1.529276E+0	1.499462E+0	1.567891E+0	1.612813E+0	1.603395E+0	1.589926E+0	1.540581E+0	1.560290E+0	1.625445E+0	1.581906E+0	1.517910E+0	1.589952E+0	1.636438E+0	1.562069E+0	1.512738E+0	1.552651E+0	1.617164E+0	1.589247E+0	1.452665E+0	1.500691E+0	1.495478E+0	1.508918E+0	1.575393E+0	1.505509E+0	1.548079E+0	1.537238E+0	1.557131E+0	1.550685E+0	1.524442E+0	1.564965E+0	1.542991E+0	1.612191E+0	1.524112E+0	1.518386E+0	1.493662E+0	1.527786E+0	1.472494E+0	1.596881E+0	1.555167E+0	1.525300E+0	1.487850E+0	1.528017E+0	1.558912E+0	1.594209E+0	1.608905E+0	1.532477E+0	1.518583E+0	1.597997E+0	1.519767E+0	1.557187E+0	1.581099E+0	1.541860E+0	1.507031E+0	1.584963E+0	1.642074E+0	1.481765E+0	1.531484E+0	1.541880E+0	1.544054E+0	1.514674E+0	1.531054E+0	1.532800E+0	1.599363E+0	1.610000E+0	1.549540E+0	1.517862E+0	1.493724E+0	1.526197E+0	1.587266E+0	1.452884E+0	1.523887E+0	1.562620E+0	1.570216E+0	1.532106E+0	1.569283E+0	1.595287E+0	1.509886E+0	1.566918E+0	1.627088E+0	1.570443E+0	1.597016E+0	1.526335E+0	1.619370E+0	1.546178E+0	1.521655E+0	1.579244E+0	1.503229E+0	1.539149E+0	1.558827E+0	1.534542E+0	1.520207E+0	1.605187E+0	1.461556E+0	1.546460E+0	1.485765E+0	1.586387E+0	1.546893E+0	1.485179E+0	1.575396E+0	1.476499E+0	1.506567E+0	1.520114E+0	1.521444E+0	1.576106E+0	1.524733E+0	1.503994E+0	1.559030E+0	1.613063E+0	1.481797E+0	1.504450E+0	1.479781E+0	1.608795E+0	1.455535E+0	1.687230E+0
5.520150E+2	1.281043E+0	1.325338E+0	1.280732E+0	1.252770E+0	1.274662E+0	1.336833E+0	1.307362E+0	1.365010E+0	1.297335E+0	1.336908E+0	1.251422E+0	1.252491E+0	1.315751E+0	1.258640E+0	1.307290E+0	1.309885E+0	1.311508E+0	1.311683E+0	1.260754E+0	1.326646E+0	1.294661E+0	1.286244E+0	1.289796E+0	1.299997E+0	1.422796E+0	1.256901E+0	1.271595E+0	1.271616E+0	1.312089E+0	1.284766E+0	1.312992E+0	1.332182E+0	1.396107E+0	1.272225E+0	1.304965E+0	1.293734E+0	1.333741E+0	1.232860E+0	1.263601E+0	1.300413E+0	1.317942E+0	1.283188E+0	1.338018E+0	1.356842E+0	1.306391E+0	1.250588E+0	1.272024E+0	1.299696E+0	1.359540E+0	1.332349E+0	1.303929E+0	1.342560E+0	1.385598E+0	1.302978E+0	1.367153E+0	1.337097E+0	1.364292E+0	1.350134E+0	1.323057E+0	1.297040E+0	1.276240E+0	1.320391E+0	1.295636E+0	1.327304E+0	1.243139E+0	1.289382E+0	1.275159E+0	1.245881E+0	1.296821E+0	1.303979E+0	1.322089E+0	1.286957E+0	1.372067E+0	1.335613E+0	1.311028E+0	1.230788E+0	1.320705E+0	1.279590E+0	1.240336E+0	1.301723E+0	1.272896E+0	1.285346E+0	1.350121E+0	1.287661E+0	1.265315E+0	1.255064E+0	1.322914E+0	1.272224E+0	1.365659E+0	1.237193E+0	1.334788E+0	1.259841E+0	1.349282E+0	1.218791E+0	1.309369E+0	1.343448E+0	1.363063E+0	1.297925E+0	1.305483E+0	1.339906E+0	1.364038E+0	1.361274E+0	1.319997E+0	1.256487E+0	1.286025E+0	1.405215E+0	1.240454E+0	1.259043E+0	1.317734E+0	1.309069E+0	1.317472E+0	1.338895E+0	1.335846E+0	1.256780E+0	1.301196E+0	1.278253E+0	1.284063E+0	1.290639E+0	1.230766E+0	1.309405E+0	1.310724E+0	1.252675E+0	1.226503E+0	1.290675E+0	1.342270E+0	1.286939E+0	1.234179E+0	1.278444E+0	1.335089E+0	1.287743E+0	1.363681E+0	1.303338E+0	1.327878E+0	1.302773E+0	1.344805E+0	1.302685E+0	1.312879E+0	1.286093E+0	1.196826E+0	1.281887E+0	1.330901E+0	1.290679E+0	1.297160E+0	1.246291E+0	1.307800E+0	1.331617E+0	1.267472E+0	1.315074E+0	1.285420E+0	1.323680E+0	1.297176E+0	1.341042E+0	1.331232E+0	1.318348E+0	1.309015E+0	1.298542E+0	1.282416E+0	1.303307E+0	1.285620E+0	1.303391E+0	1.372535E+0	1.326612E+0	1.318358E+0	1.280889E+0	1.288175E+0	1.273955E+0	1.289521E+0	1.260235E+0	1.427410E+0	1.217560E+0	1.472062E+0
5.525040E+2	1.301161E+0	1.270859E+0	1.275986E+0	1.353244E+0	1.297935E+0	1.333326E+0	1.334793E+0	1.367050E+0	1.350010E+0	1.326971E+0	1.293813E+0	1.359234E+0	1.244867E+0	1.295802E+0	1.271269E+0	1.285838E+0	1.298188E+0	1.304418E+0	1.346011E+0	1.307478E+0	1.277593E+0	1.335005E+0	1.271597E+0	1.295638E+0	1.343350E+0	1.314042E+0	1.260513E+0	1.325873E+0	1.293693E+0	1.370770E+0	1.315153E+0	1.277783E+0	1.288621E+0	1.254573E+0	1.328836E+0	1.300454E+0	1.350178E+0	1.242848E+0	1.272497E+0	1.222685E+0	1.346563E+0	1.317283E+0	1.260119E+0	1.291393E+0	1.326243E+0	1.253375E+0	1.277918E+0	1.351829E+0	1.275268E+0	1.342463E+0	1.275904E+0	1.376716E+0	1.273217E+0	1.292802E+0	1.256104E+0	1.252328E+0	1.340011E+0	1.306709E+0	1.261124E+0	1.360477E+0	1.281655E+0	1.343808E+0	1.312634E+0	1.290053E+0	1.296141E+0	1.279480E+0	1.285817E+0	1.268451E+0	1.386238E+0	1.300907E+0	1.279825E+0	1.272952E+0	1.289202E+0	1.287555E+0	1.248830E+0	1.237294E+0	1.321552E+0	1.251477E+0	1.261902E+0	1.302222E+0	1.228016E+0	1.263788E+0	1.266805E+0	1.291627E+0	1.319797E+0	1.291640E+0	1.338763E+0	1.273456E+0	1.344922E+0	1.335052E+0	1.252146E+0	1.250408E+0	1.353803E+0	1.247576E+0	1.335896E+0	1.330930E+0	1.294558E+0	1.191564E+0	1.307816E+0	1.291849E+0	1.311574E+0	1.296771E+0	1.224527E+0	1.311461E+0	1.313313E+0	1.293433E+0	1.227554E+0	1.293438E+0	1.335778E+0	1.271323E+0	1.257713E+0	1.232135E+0	1.294682E+0	1.303597E+0	1.252446E+0	1.261289E+0	1.281496E+0	1.294956E+0	1.262335E+0	1.296862E+0	1.335747E+0	1.271349E+0	1.317852E+0	1.259896E+0	1.307007E+0	1.315249E+0	1.229706E+0	1.298607E+0	1.300233E+0	1.314657E+0	1.268960E+0	1.314326E+0	1.318416E+0	1.273071E+0	1.324773E+0	1.301971E+0	1.296091E+0	1.286075E+0	1.315146E+0	1.286768E+0	1.351025E+0	1.311800E+0	1.288364E+0	1.280780E+0	1.306506E+0	1.323119E+0	1.296458E+0	1.317556E+0	1.338500E+0	1.248593E+0	1.292241E+0	1.276014E+0	1.302858E+0	1.338715E+0	1.226647E+0	1.281142E+0	1.322136E+0	1.341571E+0	1.285055E+0	1.263517E+0	1.333375E+0	1.321418E+0	1.266896E+0	1.274191E+0	1.292935E+0	1.241442E+0	1.299045E+0	1.289990E+0	1.410923E+0	1.226748E+0	1.392291E+0
5.530200E+2	1.170512E+0	1.284384E+0	1.172404E+0	1.167835E+0	1.167108E+0	1.198577E+0	1.242983E+0	1.210538E+0	1.203170E+0	1.218631E+0	1.202660E+0	1.170631E+0	1.150627E+0	1.163292E+0	1.166866E+0	1.204182E+0	1.217937E+0	1.209723E+0	1.151698E+0	1.226999E+0	1.189564E+0	1.190077E+0	1.164680E+0	1.191823E+0	1.214556E+0	1.195911E+0	1.157619E+0	1.187154E+0	1.181237E+0	1.185195E+0	1.146698E+0	1.218858E+0	1.127318E+0	1.189954E+0	1.214409E+0	1.185274E+0	1.184880E+0	1.179750E+0	1.198139E+0	1.217660E+0	1.148896E+0	1.110745E+0	1.224664E+0	1.156020E+0	1.200164E+0	1.122335E+0	1.169428E+0	1.144913E+0	1.221977E+0	1.232295E+0	1.176387E+0	1.202826E+0	1.202847E+0	1.179721E+0	1.207083E+0	1.170126E+0	1.203885E+0	1.180849E+0	1.206795E+0	1.219682E+0	1.100918E+0	1.241793E+0	1.177586E+0	1.169912E+0	1.213039E+0	1.192153E+0	1.189071E+0	1.189595E+0	1.239226E+0	1.210990E+0	1.173389E+0	1.195536E+0	1.231153E+0	1.177106E+0	1.174393E+0	1.144777E+0	1.186112E+0	1.137999E+0	1.150895E+0	1.187813E+0	1.152312E+0	1.190649E+0	1.175837E+0	1.182001E+0	1.175592E+0	1.154740E+0	1.243585E+0	1.134692E+0	1.222843E+0	1.181171E+0	1.141442E+0	1.174495E+0	1.184693E+0	1.189879E+0	1.185380E+0	1.191479E+0	1.257429E+0	1.112177E+0	1.075650E+0	1.200900E+0	1.134142E+0	1.256177E+0	1.138170E+0	1.176851E+0	1.190884E+0	1.176277E+0	1.178846E+0	1.124802E+0	1.201575E+0	1.165262E+0	1.156124E+0	1.137012E+0	1.149160E+0	1.251388E+0	1.168731E+0	1.158619E+0	1.207246E+0	1.169654E+0	1.177937E+0	1.084714E+0	1.259485E+0	1.163118E+0	1.168988E+0	1.210331E+0	1.247638E+0	1.235938E+0	1.146076E+0	1.300652E+0	1.160859E+0	1.170797E+0	1.186952E+0	1.167877E+0	1.187112E+0	1.184556E+0	1.189740E+0	1.199575E+0	1.204291E+0	1.140638E+0	1.203427E+0	1.169408E+0	1.131993E+0	1.197785E+0	1.203691E+0	1.151393E+0	1.197826E+0	1.174347E+0	1.154908E+0	1.224896E+0	1.232822E+0	1.163744E+0	1.126767E+0	1.161527E+0	1.168817E+0	1.202218E+0	1.192716E+0	1.216131E+0	1.212302E+0	1.177922E+0	1.189611E+0	1.151781E+0	1.206692E+0	1.161040E+0	1.166726E+0	1.147731E+0	1.176932E+0	1.133803E+0	1.146275E+0	1.152678E+0	1.223765E+0	1.138250E+0	1.207873E+0
5.535050E+2	1.019115E+0	1.078837E+0	9.969000E-1	1.027455E+0	1.048214E+0	1.118284E+0	1.046199E+0	1.060762E+0	1.105664E+0	1.122147E+0	1.059155E+0	1.013368E+0	1.078295E+0	1.073896E+0	1.062740E+0	1.056013E+0	1.074525E+0	1.036406E+0	1.084798E+0	1.070744E+0	1.103444E+0	1.069326E+0	1.048320E+0	1.114520E+0	1.082386E+0	1.061290E+0	1.042323E+0	1.119707E+0	1.051791E+0	1.079204E+0	1.098531E+0	1.080451E+0	1.067906E+0	1.064278E+0	1.035683E+0	1.077602E+0	1.137286E+0	1.080263E+0	1.096320E+0	1.071195E+0	1.103762E+0	1.058952E+0	1.063023E+0	1.002633E+0	1.062547E+0	1.100461E+0	1.054368E+0	1.071472E+0	1.030729E+0	1.074528E+0	1.031134E+0	1.084078E+0	1.106728E+0	1.030385E+0	1.099036E+0	1.068930E+0	1.140184E+0	9.967399E-1	1.071521E+0	1.078420E+0	1.082865E+0	1.081816E+0	1.064132E+0	1.025204E+0	1.054141E+0	1.036402E+0	1.059464E+0	1.026719E+0	1.101070E+0	1.072339E+0	1.066990E+0	1.058565E+0	1.120483E+0	1.029320E+0	1.108345E+0	9.946203E-1	9.893013E-1	1.112988E+0	1.074144E+0	1.089037E+0	1.079680E+0	1.094963E+0	1.093748E+0	1.090236E+0	1.031877E+0	1.002414E+0	1.081008E+0	1.094236E+0	1.061746E+0	1.033438E+0	1.082699E+0	1.046374E+0	1.040276E+0	1.057850E+0	1.050973E+0	1.128579E+0	1.079397E+0	1.021745E+0	1.033619E+0	1.084190E+0	1.129580E+0	1.084777E+0	1.031761E+0	1.086366E+0	1.091917E+0	1.062435E+0	1.111574E+0	1.032387E+0	1.076100E+0	1.035747E+0	1.080882E+0	1.053046E+0	1.125421E+0	1.079258E+0	1.070952E+0	1.076381E+0	1.128393E+0	1.098118E+0	1.034004E+0	1.066626E+0	1.164270E+0	1.050055E+0	1.056685E+0	1.012921E+0	1.019926E+0	1.093457E+0	1.101248E+0	1.068094E+0	1.065642E+0	1.055284E+0	1.055834E+0	1.084348E+0	1.058049E+0	1.054123E+0	1.070599E+0	1.069307E+0	1.088861E+0	1.115257E+0	1.057357E+0	1.028175E+0	1.058874E+0	1.097925E+0	1.085559E+0	1.089277E+0	1.084000E+0	1.041349E+0	1.075097E+0	1.074163E+0	1.073418E+0	1.051317E+0	1.091194E+0	1.091007E+0	1.115243E+0	1.059580E+0	1.024665E+0	1.110256E+0	1.108478E+0	1.107973E+0	9.969942E-1	1.072162E+0	1.046719E+0	1.019010E+0	1.091895E+0	1.054948E+0	1.058482E+0	1.038399E+0	1.066128E+0	1.032306E+0	1.132301E+0	1.033612E+0	1.169969E+0
5.540070E+2	9.900143E-1	1.033279E+0	1.039475E+0	9.985310E-1	1.020076E+0	1.115613E+0	1.061872E+0	1.065141E+0	1.018361E+0	1.028669E+0	1.001389E+0	1.023414E+0	9.860134E-1	1.037469E+0	1.073599E+0	1.054169E+0	1.061980E+0	1.046036E+0	1.034611E+0	9.654084E-1	1.054792E+0	1.074704E+0	1.008137E+0	1.042370E+0	9.937357E-1	1.067398E+0	1.066103E+0	1.021702E+0	1.008711E+0	9.873348E-1	1.048563E+0	9.887373E-1	9.876568E-1	1.018318E+0	1.004544E+0	1.046697E+0	9.989765E-1	1.038400E+0	1.034143E+0	9.844272E-1	9.804972E-1	1.035742E+0	1.065026E+0	9.935638E-1	1.075220E+0	1.031883E+0	1.038528E+0	1.017158E+0	1.040001E+0	1.038338E+0	9.935462E-1	1.067339E+0	1.086164E+0	1.022549E+0	1.010692E+0	1.029684E+0	1.047296E+0	9.955669E-1	1.034586E+0	1.023861E+0	1.029127E+0	1.073603E+0	1.049695E+0	1.053117E+0	1.018025E+0	1.061480E+0	1.077658E+0	1.008490E+0	1.030380E+0	1.067472E+0	1.017992E+0	1.071536E+0	1.001624E+0	1.113413E+0	9.622448E-1	1.014097E+0	9.691611E-1	1.036918E+0	9.740945E-1	1.081900E+0	1.006258E+0	1.017285E+0	1.047514E+0	1.043748E+0	1.028534E+0	9.865435E-1	1.039275E+0	1.024713E+0	1.090269E+0	1.026904E+0	9.885158E-1	1.045209E+0	1.033132E+0	1.022125E+0	1.017157E+0	1.087421E+0	1.064694E+0	1.015906E+0	1.040093E+0	1.018038E+0	1.088085E+0	1.032900E+0	1.037997E+0	1.002217E+0	1.095005E+0	1.045290E+0	1.028624E+0	1.038563E+0	1.055091E+0	1.085490E+0	1.001818E+0	9.853961E-1	1.020567E+0	1.073101E+0	9.449571E-1	9.868758E-1	1.028639E+0	1.053900E+0	1.007078E+0	1.000194E+0	1.070378E+0	1.112337E+0	1.019084E+0	1.009772E+0	1.089857E+0	1.071969E+0	1.002931E+0	9.967352E-1	1.054246E+0	1.035037E+0	9.882015E-1	1.072610E+0	9.814635E-1	1.025221E+0	9.880890E-1	1.051625E+0	1.078471E+0	1.081059E+0	1.049210E+0	1.070804E+0	9.956094E-1	1.030946E+0	1.025846E+0	1.012489E+0	1.029640E+0	1.048690E+0	1.013452E+0	1.048621E+0	1.030133E+0	1.050420E+0	1.035527E+0	1.046838E+0	1.042729E+0	1.066502E+0	1.013673E+0	9.892729E-1	1.036355E+0	1.087984E+0	1.026164E+0	1.029347E+0	9.893114E-1	1.084039E+0	1.043553E+0	1.077430E+0	1.027951E+0	9.998494E-1	1.056709E+0	1.033031E+0	1.118977E+0	9.506638E-1	1.115223E+0
5.550310E+2	1.047083E+0	1.045906E+0	9.752255E-1	9.533376E-1	1.006517E+0	1.010417E+0	1.024969E+0	1.048810E+0	1.057873E+0	1.065530E+0	1.060741E+0	9.719708E-1	1.027808E+0	1.018040E+0	1.064661E+0	1.010222E+0	1.105888E+0	1.067141E+0	1.023017E+0	1.004020E+0	1.062594E+0	1.056968E+0	1.077926E+0	1.074324E+0	1.030258E+0	1.038227E+0	9.179499E-1	1.079974E+0	1.017783E+0	1.004156E+0	1.045460E+0	1.035528E+0	1.126970E+0	1.017676E+0	1.071536E+0	1.088647E+0	1.035584E+0	1.038814E+0	1.034004E+0	1.021303E+0	1.059707E+0	1.087103E+0	1.022972E+0	9.909862E-1	1.075168E+0	1.121984E+0	9.898463E-1	1.053649E+0	1.099662E+0	1.074691E+0	1.033560E+0	1.125237E+0	9.759551E-1	1.042557E+0	1.098412E+0	1.117914E+0	1.054359E+0	1.051172E+0	1.047130E+0	1.042650E+0	1.064764E+0	1.051754E+0	1.045841E+0	1.053153E+0	9.791047E-1	1.021452E+0	1.069433E+0	1.063213E+0	1.038361E+0	1.065805E+0	1.023860E+0	1.047650E+0	1.001874E+0	9.925271E-1	1.025416E+0	9.635851E-1	1.065153E+0	9.890086E-1	1.035497E+0	1.065671E+0	1.009555E+0	1.031951E+0	1.048056E+0	1.018090E+0	1.045056E+0	1.011072E+0	1.060322E+0	9.904916E-1	9.890653E-1	1.022962E+0	9.751542E-1	1.038730E+0	1.037247E+0	1.036275E+0	9.956363E-1	1.018155E+0	1.062071E+0	1.050511E+0	1.026912E+0	1.046410E+0	1.066209E+0	1.061701E+0	1.060204E+0	1.032765E+0	1.059146E+0	1.013949E+0	9.526919E-1	1.042819E+0	1.106864E+0	1.075681E+0	1.036998E+0	1.041155E+0	1.056237E+0	1.002116E+0	1.028253E+0	1.035396E+0	1.101516E+0	9.880256E-1	1.055129E+0	1.034226E+0	1.043205E+0	1.134239E+0	1.069920E+0	1.033938E+0	1.089525E+0	1.038745E+0	9.852641E-1	1.014375E+0	1.014613E+0	1.031711E+0	1.052818E+0	1.062355E+0	1.043992E+0	1.025697E+0	1.059080E+0	1.068060E+0	1.095560E+0	1.050790E+0	1.023172E+0	1.013053E+0	1.047892E+0	9.834441E-1	1.037724E+0	1.017610E+0	1.055801E+0	1.066110E+0	1.051897E+0	1.095827E+0	1.052095E+0	1.035612E+0	1.052181E+0	1.021456E+0	1.063532E+0	1.037907E+0	1.081300E+0	9.940859E-1	1.010549E+0	1.036840E+0	1.026005E+0	1.051950E+0	1.024184E+0	1.033133E+0	1.036064E+0	1.021750E+0	9.625946E-1	1.016566E+0	1.054704E+0	1.057304E+0	1.101610E+0	9.707067E-1	1.000845E+0
5.560240E+2	1.218171E+0	1.264671E+0	1.137311E+0	1.208675E+0	1.215969E+0	1.308010E+0	1.246631E+0	1.199526E+0	1.203254E+0	1.302983E+0	1.234263E+0	1.187139E+0	1.215664E+0	1.190357E+0	1.257749E+0	1.203879E+0	1.225284E+0	1.261701E+0	1.249874E+0	1.184875E+0	1.239560E+0	1.212594E+0	1.203233E+0	1.242636E+0	1.231004E+0	1.279209E+0	1.178285E+0	1.306245E+0	1.215352E+0	1.233440E+0	1.138824E+0	1.239746E+0	1.234481E+0	1.213074E+0	1.225049E+0	1.203356E+0	1.205538E+0	1.205939E+0	1.151637E+0	1.237057E+0	1.225350E+0	1.187523E+0	1.159128E+0	1.202867E+0	1.265104E+0	1.259944E+0	1.118832E+0	1.216431E+0	1.178010E+0	1.261700E+0	1.228178E+0	1.222290E+0	1.180366E+0	1.228185E+0	1.218450E+0	1.139460E+0	1.182301E+0	1.267426E+0	1.223482E+0	1.274772E+0	1.228299E+0	1.276977E+0	1.253644E+0	1.146388E+0	1.177914E+0	1.211162E+0	1.232836E+0	1.203580E+0	1.189714E+0	1.257319E+0	1.216797E+0	1.205730E+0	1.144363E+0	1.189022E+0	1.259271E+0	1.141026E+0	1.150953E+0	1.223186E+0	1.164422E+0	1.242824E+0	1.192798E+0	1.172099E+0	1.222091E+0	1.202667E+0	1.221510E+0	1.135163E+0	1.142416E+0	1.183620E+0	1.216426E+0	1.173542E+0	1.165226E+0	1.215548E+0	1.199925E+0	1.246088E+0	1.232122E+0	1.208819E+0	1.289753E+0	1.264976E+0	1.188289E+0	1.206181E+0	1.161229E+0	1.230370E+0	1.214648E+0	1.209625E+0	1.205640E+0	1.259938E+0	1.255779E+0	1.235373E+0	1.229386E+0	1.222022E+0	1.254640E+0	1.195679E+0	1.219701E+0	1.229702E+0	1.182284E+0	1.242050E+0	1.201133E+0	1.230592E+0	1.198648E+0	1.155177E+0	1.227332E+0	1.213903E+0	1.173625E+0	1.198942E+0	1.225958E+0	1.222944E+0	1.221954E+0	1.260481E+0	1.184240E+0	1.186003E+0	1.221591E+0	1.250320E+0	1.252684E+0	1.176992E+0	1.192085E+0	1.243861E+0	1.186643E+0	1.220360E+0	1.219711E+0	1.180106E+0	1.195597E+0	1.191133E+0	1.168766E+0	1.171941E+0	1.217156E+0	1.215308E+0	1.132329E+0	1.219144E+0	1.259699E+0	1.182254E+0	1.228818E+0	1.191609E+0	1.266182E+0	1.190607E+0	1.159088E+0	1.240733E+0	1.224880E+0	1.214268E+0	1.196676E+0	1.212940E+0	1.214561E+0	1.212940E+0	1.197211E+0	1.200065E+0	1.235550E+0	1.176575E+0	1.235235E+0	1.191728E+0	1.303788E+0	1.097653E+0	1.156218E+0
5.570100E+2	1.075483E+0	1.211005E+0	1.133158E+0	1.165325E+0	1.092368E+0	1.202150E+0	1.179754E+0	1.176268E+0	1.192769E+0	1.150815E+0	1.176644E+0	1.141717E+0	1.209579E+0	1.180588E+0	1.154313E+0	1.150362E+0	1.108683E+0	1.230228E+0	1.156226E+0	1.180892E+0	1.203375E+0	1.097477E+0	1.167444E+0	1.159772E+0	1.126953E+0	1.246814E+0	1.116245E+0	1.222906E+0	1.157112E+0	1.171163E+0	1.210619E+0	1.153139E+0	1.159361E+0	1.203276E+0	1.131643E+0	1.197264E+0	1.196339E+0	1.198735E+0	1.167037E+0	1.172951E+0	1.163160E+0	1.156130E+0	1.172345E+0	1.226363E+0	1.132397E+0	1.195404E+0	1.110740E+0	1.206479E+0	1.138966E+0	1.173138E+0	1.124238E+0	1.126260E+0	1.161203E+0	1.237104E+0	1.176652E+0	1.138878E+0	1.154799E+0	1.142260E+0	1.200119E+0	1.169411E+0	1.150652E+0	1.203627E+0	1.180138E+0	1.175142E+0	1.199007E+0	1.179233E+0	1.194357E+0	1.164416E+0	1.217941E+0	1.174257E+0	1.136244E+0	1.175692E+0	1.154096E+0	1.154044E+0	1.200768E+0	1.116719E+0	1.201418E+0	1.211564E+0	1.156024E+0	1.225652E+0	1.158649E+0	1.114551E+0	1.176059E+0	1.179233E+0	1.173909E+0	1.120145E+0	1.193844E+0	1.133722E+0	1.127223E+0	1.177241E+0	1.150907E+0	1.117292E+0	1.161053E+0	1.169258E+0	1.124348E+0	1.272466E+0	1.149141E+0	1.144072E+0	1.152761E+0	1.153901E+0	1.156109E+0	1.157501E+0	1.122889E+0	1.200721E+0	1.228626E+0	1.214209E+0	1.137277E+0	1.078701E+0	1.141984E+0	1.177923E+0	1.214704E+0	1.169148E+0	1.163657E+0	1.272292E+0	1.183740E+0	1.135586E+0	1.174407E+0	1.127649E+0	1.217310E+0	1.174797E+0	1.180522E+0	1.107619E+0	1.170680E+0	1.126951E+0	1.212928E+0	1.196843E+0	1.124403E+0	1.215110E+0	1.121058E+0	1.132268E+0	1.225644E+0	1.121699E+0	1.190196E+0	1.226191E+0	1.180834E+0	1.199400E+0	1.164673E+0	1.139149E+0	1.163880E+0	1.186095E+0	1.149495E+0	1.173578E+0	1.159895E+0	1.144459E+0	1.153486E+0	1.159240E+0	1.140728E+0	1.185765E+0	1.199474E+0	1.167438E+0	1.170783E+0	1.112417E+0	1.182244E+0	1.175907E+0	1.198808E+0	1.133137E+0	1.140757E+0	1.178300E+0	1.141875E+0	1.167386E+0	1.167632E+0	1.232705E+0	1.169127E+0	1.166191E+0	1.106796E+0	1.091000E+0	1.182494E+0	1.094114E+0	1.188720E+0	1.253803E+0	1.233686E+0
5.580400E+2	1.110497E+0	1.198889E+0	1.125489E+0	1.161894E+0	1.100297E+0	1.230213E+0	1.150241E+0	1.149522E+0	1.187806E+0	1.211063E+0	1.180837E+0	1.137085E+0	1.088000E+0	1.157989E+0	1.145951E+0	1.199735E+0	1.260546E+0	1.138931E+0	1.169557E+0	1.155546E+0	1.153482E+0	1.157178E+0	1.185067E+0	1.174162E+0	1.092353E+0	1.156891E+0	1.173914E+0	1.129252E+0	1.143209E+0	1.179210E+0	1.157807E+0	1.168374E+0	1.113722E+0	1.152880E+0	1.216425E+0	1.150593E+0	1.158051E+0	1.189309E+0	1.107216E+0	1.139387E+0	1.143114E+0	1.169842E+0	1.142764E+0	1.140483E+0	1.154267E+0	1.157897E+0	1.164483E+0	1.138023E+0	1.144837E+0	1.164046E+0	1.121900E+0	1.207918E+0	1.168958E+0	1.188411E+0	1.131531E+0	1.139212E+0	1.194305E+0	1.185171E+0	1.225597E+0	1.175597E+0	1.171317E+0	1.183766E+0	1.185337E+0	1.174691E+0	1.137719E+0	1.167129E+0	1.234218E+0	1.154404E+0	1.197690E+0	1.162813E+0	1.197082E+0	1.192965E+0	1.162625E+0	1.210881E+0	1.200133E+0	1.152580E+0	1.128162E+0	1.196106E+0	1.177502E+0	1.223077E+0	1.202647E+0	1.199340E+0	1.153166E+0	1.155160E+0	1.142829E+0	1.178995E+0	1.191917E+0	1.177837E+0	1.156847E+0	1.198222E+0	1.171959E+0	1.223210E+0	1.137145E+0	1.099772E+0	1.193441E+0	1.177228E+0	1.174187E+0	1.154995E+0	1.168592E+0	1.170204E+0	1.209193E+0	1.223961E+0	1.110283E+0	1.116025E+0	1.202345E+0	1.165818E+0	1.140132E+0	1.132410E+0	1.144827E+0	1.183400E+0	1.171197E+0	1.159726E+0	1.119818E+0	1.187753E+0	1.162715E+0	1.104140E+0	1.181280E+0	1.240061E+0	1.132585E+0	1.115810E+0	1.163762E+0	1.203073E+0	1.254164E+0	1.166729E+0	1.183529E+0	1.174428E+0	1.065489E+0	1.167484E+0	1.202769E+0	1.191027E+0	1.129045E+0	1.230422E+0	1.183337E+0	1.148032E+0	1.142716E+0	1.180238E+0	1.143882E+0	1.230319E+0	1.162606E+0	1.133064E+0	1.220302E+0	1.146839E+0	1.130411E+0	1.184284E+0	1.123866E+0	1.217706E+0	1.175874E+0	1.112738E+0	1.135799E+0	1.199821E+0	1.145409E+0	1.092373E+0	1.142243E+0	1.245259E+0	1.144780E+0	1.155763E+0	1.157378E+0	1.229941E+0	1.109912E+0	1.146006E+0	1.182551E+0	1.173308E+0	1.137102E+0	1.138306E+0	1.153400E+0	1.171934E+0	1.149887E+0	1.129766E+0	1.173429E+0	1.125699E+0	1.015977E+0
5.590210E+2	1.122787E+0	1.149077E+0	1.127454E+0	1.139298E+0	1.114093E+0	1.154573E+0	1.122616E+0	1.223598E+0	1.107762E+0	1.184542E+0	1.150536E+0	1.172208E+0	1.164857E+0	1.194118E+0	1.208459E+0	1.109899E+0	1.145503E+0	1.223440E+0	1.127772E+0	1.174700E+0	1.199621E+0	1.174351E+0	1.121813E+0	1.153531E+0	1.175168E+0	1.173729E+0	1.103524E+0	1.169022E+0	1.129139E+0	1.145079E+0	1.112093E+0	1.094766E+0	1.166406E+0	1.147207E+0	1.186279E+0	1.191737E+0	1.163877E+0	1.142684E+0	1.198675E+0	1.147803E+0	1.136066E+0	1.203257E+0	1.156357E+0	1.098506E+0	1.116580E+0	1.130297E+0	1.177907E+0	1.161474E+0	1.146724E+0	1.149345E+0	1.174951E+0	1.183252E+0	1.148819E+0	1.167237E+0	1.191859E+0	1.163491E+0	1.116073E+0	1.189048E+0	1.100278E+0	1.155510E+0	1.160325E+0	1.211626E+0	1.171056E+0	1.163335E+0	1.138278E+0	1.137164E+0	1.188687E+0	1.169574E+0	1.168838E+0	1.148268E+0	1.148409E+0	1.182066E+0	1.168716E+0	1.168993E+0	1.160061E+0	1.168892E+0	1.178793E+0	1.116571E+0	1.172197E+0	1.170596E+0	1.150359E+0	1.146547E+0	1.136630E+0	1.133605E+0	1.155562E+0	1.153047E+0	1.157610E+0	1.106955E+0	1.225560E+0	1.205154E+0	1.136054E+0	1.149953E+0	1.162009E+0	1.102334E+0	1.132137E+0	1.247086E+0	1.128796E+0	1.138601E+0	1.092518E+0	1.164736E+0	1.129312E+0	1.185303E+0	1.129362E+0	1.113598E+0	1.146880E+0	1.157967E+0	1.125765E+0	1.125440E+0	1.189904E+0	1.125451E+0	1.170786E+0	1.200566E+0	1.157101E+0	1.229385E+0	1.161553E+0	1.153910E+0	1.167749E+0	1.168292E+0	1.094218E+0	1.148713E+0	1.153126E+0	1.188211E+0	1.073281E+0	1.162881E+0	1.092353E+0	1.230692E+0	1.080217E+0	1.164119E+0	1.115961E+0	1.174487E+0	1.163369E+0	1.224657E+0	1.145487E+0	1.159898E+0	1.169270E+0	1.144421E+0	1.148273E+0	1.158925E+0	1.133057E+0	1.207072E+0	1.159466E+0	1.168208E+0	1.196750E+0	1.213105E+0	1.148011E+0	1.170029E+0	1.126954E+0	1.202703E+0	1.173214E+0	1.143905E+0	1.145863E+0	1.118278E+0	1.124550E+0	1.252037E+0	1.140993E+0	1.158228E+0	1.133770E+0	1.201590E+0	1.130107E+0	1.112892E+0	1.121124E+0	1.241421E+0	1.210409E+0	1.138863E+0	1.175848E+0	1.164297E+0	1.120968E+0	1.097420E+0	1.095347E+0	1.183790E+0	1.187711E+0
5.600130E+2	1.063207E+0	1.144049E+0	1.079786E+0	1.111420E+0	1.065485E+0	1.114907E+0	1.048288E+0	1.049958E+0	1.031778E+0	1.090228E+0	1.055877E+0	1.028651E+0	1.065176E+0	1.052429E+0	1.103095E+0	1.063936E+0	1.056413E+0	1.017375E+0	1.004676E+0	1.041188E+0	1.056482E+0	1.095464E+0	1.046336E+0	1.025241E+0	1.010961E+0	1.132542E+0	1.038382E+0	1.087780E+0	1.072836E+0	1.101730E+0	1.022432E+0	1.092557E+0	1.078373E+0	1.077351E+0	1.170158E+0	1.062156E+0	1.044993E+0	1.094445E+0	1.065865E+0	1.040217E+0	1.012646E+0	1.051959E+0	1.101813E+0	1.096696E+0	1.042455E+0	1.094658E+0	1.056411E+0	1.032464E+0	1.079415E+0	1.045963E+0	1.030025E+0	1.053767E+0	1.011161E+0	1.096214E+0	1.066369E+0	1.066543E+0	1.056285E+0	1.097798E+0	1.057831E+0	1.043026E+0	1.035830E+0	1.096397E+0	1.075036E+0	9.708396E-1	1.048623E+0	1.040719E+0	1.086678E+0	1.034557E+0	1.075031E+0	1.108801E+0	1.035967E+0	1.081010E+0	1.116844E+0	1.115294E+0	1.043882E+0	9.549342E-1	1.063789E+0	1.131154E+0	1.059436E+0	1.089840E+0	1.134666E+0	1.055524E+0	1.095421E+0	1.067905E+0	1.096091E+0	9.828027E-1	1.069304E+0	1.043496E+0	1.046742E+0	1.098991E+0	1.021471E+0	1.015842E+0	1.083812E+0	1.037774E+0	1.062132E+0	1.050567E+0	1.015659E+0	1.065452E+0	9.770922E-1	1.120018E+0	1.040468E+0	1.043623E+0	1.085714E+0	1.070697E+0	1.113924E+0	1.004681E+0	1.049200E+0	1.084795E+0	1.081706E+0	1.029518E+0	1.061900E+0	9.987171E-1	1.045722E+0	1.064687E+0	1.033799E+0	1.073414E+0	1.076061E+0	1.114079E+0	1.046602E+0	1.071732E+0	1.096090E+0	1.087682E+0	9.671134E-1	1.085216E+0	1.030284E+0	1.039100E+0	1.003521E+0	1.099789E+0	1.055001E+0	1.062360E+0	1.067909E+0	1.145643E+0	1.053406E+0	1.038450E+0	1.033903E+0	1.047932E+0	1.055653E+0	1.082587E+0	1.065097E+0	1.078857E+0	1.103339E+0	1.047352E+0	1.090161E+0	1.077828E+0	1.065230E+0	1.042626E+0	1.051405E+0	1.072543E+0	1.076517E+0	1.070423E+0	1.012244E+0	1.072361E+0	1.068989E+0	1.042105E+0	1.069735E+0	1.046259E+0	1.093619E+0	1.117450E+0	1.010940E+0	1.038268E+0	1.099807E+0	1.028084E+0	1.042007E+0	1.090189E+0	1.054904E+0	1.022848E+0	1.074842E+0	1.095930E+0	1.115004E+0	1.035391E+0	1.112420E+0
5.609950E+2	1.081009E+0	1.108793E+0	1.158478E+0	1.114043E+0	1.031185E+0	1.116185E+0	1.095634E+0	1.093390E+0	1.102644E+0	1.059602E+0	1.113667E+0	1.159205E+0	1.072763E+0	1.088992E+0	1.078170E+0	1.042048E+0	1.077242E+0	1.097448E+0	1.071707E+0	1.101619E+0	1.108599E+0	1.093829E+0	1.076161E+0	1.079211E+0	1.052554E+0	1.108210E+0	1.075381E+0	1.063453E+0	1.121364E+0	1.082211E+0	1.110144E+0	1.107635E+0	1.087842E+0	1.106709E+0	1.095165E+0	1.060494E+0	1.063164E+0	1.096879E+0	1.092499E+0	1.073969E+0	1.108898E+0	1.123689E+0	1.093317E+0	1.111157E+0	1.081897E+0	1.061029E+0	1.057665E+0	1.102295E+0	1.062932E+0	1.154283E+0	1.089996E+0	1.085327E+0	1.029195E+0	1.114711E+0	1.102945E+0	1.060103E+0	1.093775E+0	1.089525E+0	1.110853E+0	1.062132E+0	1.103365E+0	1.122355E+0	1.062103E+0	1.084437E+0	1.039736E+0	1.081571E+0	1.069434E+0	1.081619E+0	1.121253E+0	1.070511E+0	1.120938E+0	1.106822E+0	1.084172E+0	1.173824E+0	1.068771E+0	1.098000E+0	1.091803E+0	1.121092E+0	1.091885E+0	1.104972E+0	1.087851E+0	1.080638E+0	1.104261E+0	1.064045E+0	1.104528E+0	1.084844E+0	1.069331E+0	1.064608E+0	1.093363E+0	1.107821E+0	1.075500E+0	1.042364E+0	1.053363E+0	1.086610E+0	1.088435E+0	1.070228E+0	1.106855E+0	1.072311E+0	1.077680E+0	1.148360E+0	1.117399E+0	1.043485E+0	1.118688E+0	1.064782E+0	1.047932E+0	1.092823E+0	1.086554E+0	1.076066E+0	1.093431E+0	1.086127E+0	1.079921E+0	1.054790E+0	1.102012E+0	1.126838E+0	1.092765E+0	1.079114E+0	1.118519E+0	1.066824E+0	1.084377E+0	1.076622E+0	1.162253E+0	1.149006E+0	1.076466E+0	1.056657E+0	1.089307E+0	1.071931E+0	1.097707E+0	1.056263E+0	1.055040E+0	1.059050E+0	1.078223E+0	1.059177E+0	1.067251E+0	1.105459E+0	1.067693E+0	1.064984E+0	1.107190E+0	1.109369E+0	1.078544E+0	1.059069E+0	1.098065E+0	1.128125E+0	1.097349E+0	1.103892E+0	1.141072E+0	1.030882E+0	1.067202E+0	1.135975E+0	1.128799E+0	1.088054E+0	1.109262E+0	1.090639E+0	1.084041E+0	1.111618E+0	1.144221E+0	1.101246E+0	1.090922E+0	1.097992E+0	1.067058E+0	1.176532E+0	1.026325E+0	1.123133E+0	1.130687E+0	1.146981E+0	1.044000E+0	1.067644E+0	1.084706E+0	1.081997E+0	1.037850E+0	1.076157E+0	1.118295E+0
5.620340E+2	9.487975E-1	8.926732E-1	8.660072E-1	9.407005E-1	9.423325E-1	9.188988E-1	8.795834E-1	9.170571E-1	9.646526E-1	9.393327E-1	8.609933E-1	9.157382E-1	9.341460E-1	9.022861E-1	8.613784E-1	9.666555E-1	8.895692E-1	9.342588E-1	9.438881E-1	9.366082E-1	9.309631E-1	8.925092E-1	8.870200E-1	9.021244E-1	8.796158E-1	9.165300E-1	9.058770E-1	9.364051E-1	8.955338E-1	9.448901E-1	9.527984E-1	9.057292E-1	9.599193E-1	9.940168E-1	9.161168E-1	8.755633E-1	9.252181E-1	9.276788E-1	9.419584E-1	8.993251E-1	9.388536E-1	9.520879E-1	8.958309E-1	8.771941E-1	8.639793E-1	9.562777E-1	9.077026E-1	9.240530E-1	8.501130E-1	9.351625E-1	9.760424E-1	9.853343E-1	9.675764E-1	9.132680E-1	9.473689E-1	9.239575E-1	9.298584E-1	9.270513E-1	9.199856E-1	9.224792E-1	9.265103E-1	9.384435E-1	9.335678E-1	9.172926E-1	9.044723E-1	9.187225E-1	9.077304E-1	9.236407E-1	8.978172E-1	9.549686E-1	9.110950E-1	9.561323E-1	9.514967E-1	9.002551E-1	9.040095E-1	9.578721E-1	9.110563E-1	8.978468E-1	9.056289E-1	9.190974E-1	9.243116E-1	9.680644E-1	9.315754E-1	8.914566E-1	9.035358E-1	9.644067E-1	8.872697E-1	9.138685E-1	9.280219E-1	9.663489E-1	9.151965E-1	8.955600E-1	8.962010E-1	9.164627E-1	9.544016E-1	9.650219E-1	9.009000E-1	8.762570E-1	9.069472E-1	9.231222E-1	8.774270E-1	9.215765E-1	9.074268E-1	9.476664E-1	9.305085E-1	9.233596E-1	9.224141E-1	9.426762E-1	9.167832E-1	9.262059E-1	8.898139E-1	9.352341E-1	8.712275E-1	9.192896E-1	9.313111E-1	8.805497E-1	9.475052E-1	8.871227E-1	9.215934E-1	8.860007E-1	8.813944E-1	8.882442E-1	9.507878E-1	9.260339E-1	9.254577E-1	9.309403E-1	8.911021E-1	8.821960E-1	9.592362E-1	9.742129E-1	9.118245E-1	9.128602E-1	9.110215E-1	9.063085E-1	9.068990E-1	9.030961E-1	9.247180E-1	9.233721E-1	8.907740E-1	9.834078E-1	9.444209E-1	8.776853E-1	9.210363E-1	8.674593E-1	8.792839E-1	9.213108E-1	9.443142E-1	8.745653E-1	9.488477E-1	9.072342E-1	9.005750E-1	9.009973E-1	9.263843E-1	9.198242E-1	9.172092E-1	9.045517E-1	9.086285E-1	9.473844E-1	9.429688E-1	8.803061E-1	8.845589E-1	9.376608E-1	9.373101E-1	9.085637E-1	9.230117E-1	9.390526E-1	8.597717E-1	9.547932E-1	8.827489E-1	9.279018E-1	8.549622E-1
5.630180E+2	9.511168E-1	9.092404E-1	9.196289E-1	9.547456E-1	9.744114E-1	9.455533E-1	9.754636E-1	9.160256E-1	9.508237E-1	1.023413E+0	9.594214E-1	9.326183E-1	9.896384E-1	9.755736E-1	9.855504E-1	9.866490E-1	9.851883E-1	9.416424E-1	9.100225E-1	9.422958E-1	9.287427E-1	9.798817E-1	9.704868E-1	9.789684E-1	9.502978E-1	9.775316E-1	9.298232E-1	1.012667E+0	9.415104E-1	9.895974E-1	9.520971E-1	9.675082E-1	9.850608E-1	9.314347E-1	9.454842E-1	9.759232E-1	9.851471E-1	9.870809E-1	9.846109E-1	9.708953E-1	9.963750E-1	9.519167E-1	9.615468E-1	9.618574E-1	9.645778E-1	9.676123E-1	9.777642E-1	9.544861E-1	9.871053E-1	9.590021E-1	9.627039E-1	9.392464E-1	9.716342E-1	1.006718E+0	9.166136E-1	9.838397E-1	9.655190E-1	9.753286E-1	9.358732E-1	9.424945E-1	9.592739E-1	9.066367E-1	9.664533E-1	9.381129E-1	9.831319E-1	9.800861E-1	9.808440E-1	9.335504E-1	9.807226E-1	9.496905E-1	9.092949E-1	9.877484E-1	9.637122E-1	9.423472E-1	9.848786E-1	9.501029E-1	9.853327E-1	9.324450E-1	1.002628E+0	9.410820E-1	9.794224E-1	9.447162E-1	9.238880E-1	1.025892E+0	9.512103E-1	9.407468E-1	9.957268E-1	9.927110E-1	9.734476E-1	9.886914E-1	9.681338E-1	9.624574E-1	9.622855E-1	9.868195E-1	9.692029E-1	9.408092E-1	9.575143E-1	9.778051E-1	9.535143E-1	9.328582E-1	9.636907E-1	9.493936E-1	9.534151E-1	9.229716E-1	9.897509E-1	9.784753E-1	9.499026E-1	9.828802E-1	1.015086E+0	9.810333E-1	9.234872E-1	9.629388E-1	9.825345E-1	9.783639E-1	9.755024E-1	9.424525E-1	9.769187E-1	9.853942E-1	9.263946E-1	9.763213E-1	9.830144E-1	1.006282E+0	9.630485E-1	9.797952E-1	9.640517E-1	9.646077E-1	9.864068E-1	9.148641E-1	9.472071E-1	1.000946E+0	9.720322E-1	1.008097E+0	9.661739E-1	9.060558E-1	9.393286E-1	9.519288E-1	9.550392E-1	9.924505E-1	9.882352E-1	1.004344E+0	9.654129E-1	9.871696E-1	9.847515E-1	9.737086E-1	9.525657E-1	1.018693E+0	9.243882E-1	9.596290E-1	9.235625E-1	9.782071E-1	9.751898E-1	9.359016E-1	9.541114E-1	9.619104E-1	9.461548E-1	9.395506E-1	9.355592E-1	9.694746E-1	9.821251E-1	9.076298E-1	9.785450E-1	9.283977E-1	9.435775E-1	9.573372E-1	9.937895E-1	9.779288E-1	9.635046E-1	9.476252E-1	9.911178E-1	9.605220E-1	9.746020E-1
5.640410E+2	9.519769E-1	9.813528E-1	9.907390E-1	9.323288E-1	1.002583E+0	9.499254E-1	9.278802E-1	9.903559E-1	9.516063E-1	9.166298E-1	9.655295E-1	9.653671E-1	9.335000E-1	9.649077E-1	9.304893E-1	9.377560E-1	9.541045E-1	9.724790E-1	9.725733E-1	9.763627E-1	9.715231E-1	9.224733E-1	9.469322E-1	9.850127E-1	9.537660E-1	9.387385E-1	9.419587E-1	9.909198E-1	9.207334E-1	9.120085E-1	9.163875E-1	9.648702E-1	9.755690E-1	9.113011E-1	9.272258E-1	9.551090E-1	9.434448E-1	9.771042E-1	9.333738E-1	1.022680E+0	8.935549E-1	9.025811E-1	9.562962E-1	9.470598E-1	9.533338E-1	8.876623E-1	9.386215E-1	9.554655E-1	9.688372E-1	9.134403E-1	9.347251E-1	9.546798E-1	9.081226E-1	9.407527E-1	9.740056E-1	9.723036E-1	9.534265E-1	9.224998E-1	9.105210E-1	9.142829E-1	8.919303E-1	9.489864E-1	9.426655E-1	9.452670E-1	9.550542E-1	9.197376E-1	9.693548E-1	9.519367E-1	9.283951E-1	9.114620E-1	9.271881E-1	9.224821E-1	9.622788E-1	9.606744E-1	9.818249E-1	9.488559E-1	9.258007E-1	9.376514E-1	9.379704E-1	9.691134E-1	9.321483E-1	9.437122E-1	9.356309E-1	8.928560E-1	9.319487E-1	9.292221E-1	9.322802E-1	9.187244E-1	9.273152E-1	8.903707E-1	9.692520E-1	9.768859E-1	9.317693E-1	9.568863E-1	9.527566E-1	9.697925E-1	9.030934E-1	9.811677E-1	9.774089E-1	9.667918E-1	9.406521E-1	9.719618E-1	9.715173E-1	9.404845E-1	9.715351E-1	9.706369E-1	9.680925E-1	9.387158E-1	9.499503E-1	9.628932E-1	9.482588E-1	9.514955E-1	9.396593E-1	9.573152E-1	9.324634E-1	9.617998E-1	8.884931E-1	9.723858E-1	9.428670E-1	9.475244E-1	9.006482E-1	9.496629E-1	8.921005E-1	9.770398E-1	9.636652E-1	9.789990E-1	9.350617E-1	9.737890E-1	9.405736E-1	9.589079E-1	9.073204E-1	9.321521E-1	1.038561E+0	9.837293E-1	9.489492E-1	9.298260E-1	9.603926E-1	9.538113E-1	9.485717E-1	9.518678E-1	9.436092E-1	9.536540E-1	9.240130E-1	9.172827E-1	9.458330E-1	9.307693E-1	9.240060E-1	8.951418E-1	9.306948E-1	9.622190E-1	9.430317E-1	9.915075E-1	9.492386E-1	9.717126E-1	9.171763E-1	9.828170E-1	9.247770E-1	9.181887E-1	9.115851E-1	9.341941E-1	9.523169E-1	9.355237E-1	9.626924E-1	8.743307E-1	1.006746E+0	9.742065E-1	9.795932E-1	9.167051E-1	9.230336E-1	9.496282E-1	9.242504E-1
5.650260E+2	9.870044E-1	1.015261E+0	9.471239E-1	9.721568E-1	9.620130E-1	9.662083E-1	9.749764E-1	1.015825E+0	9.558694E-1	9.947473E-1	9.639028E-1	9.539484E-1	9.847324E-1	9.675278E-1	9.908093E-1	9.706033E-1	1.006130E+0	9.283384E-1	1.020159E+0	9.757419E-1	9.335048E-1	1.043409E+0	1.027947E+0	9.670656E-1	1.075883E+0	9.550973E-1	1.002249E+0	9.569610E-1	9.885745E-1	9.941231E-1	1.017026E+0	1.016275E+0	9.125629E-1	1.004395E+0	9.929599E-1	9.631347E-1	1.002613E+0	9.724776E-1	9.852398E-1	9.542838E-1	9.651916E-1	1.011730E+0	1.008754E+0	9.475186E-1	1.023336E+0	9.885672E-1	1.003788E+0	1.036867E+0	9.743328E-1	9.770766E-1	9.819971E-1	9.543039E-1	1.006178E+0	1.012972E+0	1.003504E+0	9.892396E-1	9.816979E-1	1.006949E+0	9.451229E-1	1.010394E+0	9.949366E-1	9.510446E-1	1.024994E+0	9.997274E-1	9.925906E-1	1.023994E+0	9.894342E-1	1.000741E+0	9.856874E-1	1.021516E+0	1.063604E+0	9.822780E-1	9.619355E-1	9.312697E-1	9.149236E-1	9.908862E-1	9.988846E-1	9.878477E-1	9.732347E-1	1.005918E+0	9.641434E-1	1.028075E+0	1.009933E+0	1.000542E+0	9.728602E-1	9.777919E-1	9.956053E-1	1.015614E+0	1.009673E+0	9.570980E-1	9.860263E-1	1.029694E+0	1.025935E+0	9.472455E-1	9.798962E-1	1.019648E+0	1.000813E+0	1.041661E+0	9.609028E-1	9.796489E-1	9.804397E-1	1.008467E+0	9.685083E-1	1.021647E+0	1.005522E+0	9.894749E-1	9.894885E-1	1.003029E+0	9.606797E-1	9.699057E-1	9.426510E-1	9.912779E-1	1.007464E+0	9.713297E-1	9.653896E-1	1.002670E+0	9.553175E-1	9.961126E-1	9.747589E-1	9.701276E-1	1.029072E+0	9.522986E-1	1.005142E+0	1.015800E+0	9.458049E-1	9.973374E-1	9.986901E-1	9.876259E-1	9.933083E-1	9.907504E-1	9.725008E-1	1.006091E+0	9.722439E-1	1.014053E+0	1.045979E+0	1.006840E+0	1.022034E+0	9.530606E-1	9.877742E-1	9.847561E-1	9.714953E-1	9.390726E-1	9.931755E-1	1.019934E+0	1.013072E+0	1.012276E+0	9.902070E-1	1.005721E+0	1.019059E+0	9.555646E-1	9.621335E-1	9.862625E-1	9.876923E-1	9.986975E-1	9.918275E-1	9.647249E-1	9.978250E-1	9.875909E-1	1.013800E+0	9.627100E-1	9.883228E-1	9.988070E-1	9.354359E-1	9.664159E-1	9.260767E-1	9.907749E-1	1.002456E+0	1.013877E+0	1.031455E+0	9.831777E-1	1.002066E+0
5.660210E+2	1.031760E+0	1.034601E+0	1.103531E+0	1.101248E+0	1.080187E+0	1.104070E+0	1.107230E+0	1.077110E+0	1.108388E+0	1.087262E+0	1.110763E+0	1.081791E+0	1.129440E+0	1.075176E+0	1.066362E+0	1.083258E+0	1.067387E+0	1.123237E+0	1.071642E+0	1.097578E+0	1.101166E+0	1.082610E+0	1.094267E+0	1.091486E+0	1.121826E+0	1.079649E+0	1.136260E+0	1.082374E+0	1.099261E+0	1.090286E+0	1.085108E+0	1.067998E+0	1.091340E+0	1.065714E+0	1.121078E+0	1.124387E+0	1.081618E+0	1.073945E+0	1.059345E+0	1.136694E+0	1.062767E+0	1.085882E+0	1.101978E+0	1.102185E+0	1.091378E+0	1.133207E+0	1.102900E+0	1.014918E+0	1.100741E+0	1.052736E+0	1.093194E+0	1.103818E+0	1.074731E+0	1.062084E+0	1.074513E+0	1.108003E+0	1.080899E+0	1.067068E+0	1.147057E+0	1.124590E+0	1.090112E+0	1.126976E+0	1.053371E+0	1.139059E+0	1.097071E+0	1.111906E+0	1.113490E+0	1.041771E+0	1.065667E+0	1.113931E+0	1.071166E+0	1.072183E+0	1.111995E+0	1.083339E+0	1.092061E+0	1.089716E+0	1.083912E+0	1.080096E+0	1.121731E+0	1.067910E+0	1.081264E+0	1.072565E+0	1.088348E+0	1.105755E+0	1.103509E+0	1.109540E+0	1.098778E+0	1.084805E+0	1.069178E+0	1.094014E+0	1.105471E+0	1.093326E+0	1.072769E+0	1.100054E+0	1.066161E+0	1.059406E+0	1.120681E+0	1.066731E+0	1.083630E+0	1.074478E+0	1.123775E+0	1.082163E+0	1.076726E+0	1.130667E+0	1.056803E+0	1.039767E+0	1.042567E+0	1.063044E+0	1.085865E+0	1.083040E+0	1.154826E+0	1.096842E+0	1.109454E+0	1.060546E+0	1.067137E+0	1.130986E+0	1.079367E+0	1.043521E+0	1.086238E+0	1.137521E+0	1.041991E+0	1.008906E+0	1.123506E+0	1.067539E+0	1.098636E+0	1.040927E+0	1.121077E+0	1.164822E+0	1.082718E+0	1.075478E+0	1.105853E+0	1.076472E+0	1.116029E+0	1.108958E+0	1.074380E+0	1.082089E+0	1.103005E+0	1.082862E+0	1.109076E+0	1.039855E+0	1.079542E+0	1.090052E+0	1.071236E+0	1.113392E+0	1.073364E+0	1.075765E+0	1.141009E+0	1.082569E+0	1.031855E+0	1.067965E+0	1.075103E+0	1.073339E+0	1.098656E+0	1.012876E+0	1.061077E+0	1.042021E+0	1.102260E+0	1.114280E+0	1.096548E+0	1.142960E+0	1.126785E+0	1.040151E+0	1.095734E+0	1.113717E+0	1.117587E+0	1.078884E+0	1.128757E+0	1.105779E+0	1.083869E+0	1.061593E+0	1.110360E+0
5.670200E+2	1.048335E+0	1.058079E+0	1.014491E+0	9.847770E-1	1.007288E+0	9.991600E-1	1.039233E+0	9.902369E-1	9.660157E-1	9.790134E-1	1.025722E+0	9.913323E-1	9.557804E-1	1.025537E+0	1.087241E+0	1.013030E+0	1.020380E+0	1.002596E+0	1.010007E+0	9.697936E-1	1.025502E+0	9.852882E-1	9.971862E-1	9.961322E-1	9.660570E-1	1.024243E+0	1.008451E+0	9.572198E-1	1.033022E+0	9.868835E-1	9.664385E-1	9.699848E-1	9.877053E-1	9.864293E-1	1.001971E+0	1.045389E+0	9.987942E-1	9.648354E-1	1.002974E+0	9.421533E-1	1.034360E+0	9.721133E-1	9.822768E-1	1.053028E+0	1.021499E+0	1.005644E+0	1.011559E+0	1.011915E+0	1.055938E+0	1.008299E+0	9.613406E-1	9.772901E-1	1.042563E+0	9.494945E-1	9.810490E-1	9.625538E-1	9.948244E-1	1.011579E+0	1.030587E+0	1.023628E+0	1.033872E+0	1.005558E+0	1.016845E+0	9.761040E-1	1.027943E+0	9.639827E-1	9.697122E-1	1.066741E+0	1.020458E+0	9.779205E-1	9.967140E-1	9.723545E-1	9.644099E-1	1.008291E+0	1.053532E+0	9.645662E-1	1.003210E+0	1.043021E+0	9.669230E-1	9.919074E-1	1.030859E+0	9.622290E-1	1.006363E+0	1.019453E+0	1.032408E+0	9.934487E-1	1.021009E+0	1.009668E+0	9.990007E-1	9.956557E-1	9.804204E-1	9.997125E-1	1.057677E+0	1.005922E+0	9.891464E-1	9.750948E-1	1.010143E+0	9.840672E-1	1.039916E+0	9.747401E-1	9.966162E-1	1.022953E+0	1.003718E+0	9.717815E-1	9.979493E-1	1.005462E+0	1.040981E+0	9.935888E-1	9.782063E-1	9.907952E-1	1.061042E+0	1.007422E+0	9.876498E-1	9.863176E-1	1.035432E+0	1.002428E+0	1.033879E+0	1.048640E+0	1.063771E+0	1.005883E+0	1.001626E+0	1.045601E+0	9.889486E-1	9.771351E-1	1.013078E+0	1.015257E+0	9.699555E-1	1.020440E+0	1.021917E+0	9.406548E-1	1.052247E+0	1.005151E+0	9.287194E-1	9.754354E-1	1.016771E+0	1.061236E+0	9.276212E-1	9.850741E-1	9.970245E-1	9.767006E-1	9.974554E-1	1.024242E+0	1.008439E+0	1.004332E+0	9.948095E-1	1.010304E+0	1.008874E+0	1.046399E+0	1.017182E+0	1.040756E+0	1.034706E+0	1.021353E+0	9.998765E-1	1.023361E+0	1.022334E+0	1.065089E+0	1.040028E+0	9.650903E-1	9.859154E-1	9.956681E-1	1.043146E+0	1.036326E+0	9.945631E-1	1.032655E+0	9.887884E-1	9.715088E-1	9.812109E-1	9.792231E-1	1.049927E+0	1.041020E+0	1.015465E+0
