Photon Energy (eV)	#1	#2	#3	#4	#5	#6	#7	#8	#9	#10	#11	#12	#13	#14	#15	#16	#17	#18	#19	#20	#21	#22	#23	#24	#25	#26	#27	#28	#29	#30	#31	#32	#33	#34	#35	#36	#37	#38	#39	#40	#41	#42	#43	#44	#45	#46	#47	#48	#49	#50	#51	#52	#53	#54	#55	#56	#57	#58	#59	#60	#61	#62	#63	#64	#65	#66	#67	#68	#69	#70	#71	#72	#73	#74	#75	#76	#77	#78	#79	#80	#81	#82	#83	#84	#85	#86	#87	#88	#89	#90	#91	#92	#93	#94	#95	#96	#97	#98	#99	#100	#101	#102	#103	#104	#105	#106	#107	#108	#109	#110	#111	#112	#113	#114	#115	#116	#117	#118	#119	#120	#121	#122	#123	#124	#125	#126	#127	#128	#129	#130	#131	#132	#133	#134	#135	#136	#137	#138	#139	#140	#141	#142	#143	#144	#145	#146	#147	#148	#149	#150	#151	#152	#153	#154	#155	#156	#157	#158	#159	#160	#161	#162	#163	#164	#165	
5.293120E+2	-7.928149E-3	-2.186373E-4	1.877223E-2	-3.577108E-2	-2.772044E-2	-2.292323E-2	-3.245975E-2	-1.118716E-2	-2.731680E-2	-1.005005E-2	-4.199734E-3	-2.589431E-2	-1.186215E-2	1.190522E-2	4.985270E-3	-2.235154E-2	-2.264702E-2	-1.626394E-2	-1.151189E-2	-2.019273E-2	-1.346126E-2	1.674700E-2	-3.592165E-2	-1.150626E-2	-1.553115E-2	-2.617747E-2	-2.942400E-2	8.012389E-4	1.276842E-2	-4.275465E-2	-7.835012E-3	1.626519E-2	-8.326636E-3	-9.816575E-3	-1.985665E-2	-2.831874E-2	-2.969662E-2	1.471831E-2	-3.479591E-2	-1.851718E-2	-5.031284E-3	-6.351533E-3	-5.841835E-3	-9.089414E-3	-3.781565E-2	-8.882972E-3	-4.082394E-2	-1.537662E-2	-2.612205E-2	-2.341582E-2	-3.884050E-2	-2.333107E-2	-3.931168E-2	-1.243504E-2	-1.152396E-2	-1.626624E-2	1.160016E-2	-3.222682E-2	-6.937396E-3	-3.012786E-2	-5.783994E-3	-1.797938E-2	2.263797E-2	-1.661654E-2	-1.199069E-2	-4.438745E-2	-1.133308E-2	-3.287603E-3	7.165036E-3	-7.397765E-3	5.867465E-3	-2.783476E-2	7.233732E-3	-1.348896E-2	-4.987089E-3	-2.819328E-2	1.733925E-2	-1.969427E-2	6.578204E-3	-1.142221E-2	-9.351450E-3	-2.569025E-2	-1.173450E-2	-4.024884E-2	-4.326194E-2	-1.181594E-3	-3.407717E-2	-1.271033E-2	-1.132813E-2	-1.552429E-2	-2.526740E-2	-3.158967E-2	-4.354274E-2	1.241274E-3	-1.134972E-3	-1.659635E-2	-2.243484E-2	-2.211547E-2	-2.104168E-2	-9.647111E-3	-3.329446E-2	-1.542662E-2	-5.072455E-3	-1.345558E-2	1.726795E-2	-1.699580E-2	-6.672870E-3	1.277295E-4	2.239983E-3	-1.833678E-2	-5.153499E-2	-1.309092E-2	-2.307579E-2	-1.719555E-2	-1.793809E-2	-2.361104E-2	-2.310855E-2	-1.246399E-2	-1.765424E-2	-3.091593E-2	-2.051453E-2	-1.046200E-2	-1.296704E-2	2.408117E-2	-2.817185E-2	-2.053484E-2	7.082341E-3	-2.084782E-2	2.532193E-2	-2.145462E-2	-3.890570E-2	-2.123676E-2	-6.758170E-3	-3.065150E-2	1.282956E-2	-1.695208E-2	-1.717705E-2	-8.209262E-3	-1.357416E-2	-3.869959E-3	-2.209218E-2	-2.935338E-2	-3.530710E-3	-1.885781E-2	-2.716672E-3	-2.232375E-2	-1.792435E-3	-2.230861E-2	-1.149971E-2	-2.033033E-3	1.254908E-3	-3.828012E-3	-8.541882E-3	-1.204361E-2	-2.124172E-2	-1.289144E-2	-2.746875E-2	-1.910331E-3	5.274112E-3	-2.493728E-2	-3.669079E-2	-8.824637E-3	-3.985227E-2	2.483927E-3	5.085198E-3
5.298070E+2	9.334353E-5	-1.737797E-2	2.136436E-2	3.229719E-3	3.067420E-2	-2.170115E-2	-1.218567E-3	-1.428068E-2	5.309755E-3	-3.639764E-2	-6.116262E-3	5.362404E-3	1.488469E-2	1.185205E-2	-2.344239E-2	-6.860028E-3	8.065189E-3	-1.193134E-2	-2.754364E-2	2.131752E-4	7.037991E-3	-1.298369E-2	-4.671813E-3	2.310784E-2	1.255420E-2	7.519043E-4	-4.765114E-3	1.950905E-2	9.924763E-3	-2.821602E-2	-1.317733E-2	-4.448890E-3	-1.572393E-2	-1.613475E-2	-2.068903E-3	8.570110E-3	1.685523E-3	-2.821827E-2	1.575698E-2	-1.608038E-2	7.026160E-4	-3.626367E-2	2.123299E-2	-2.841314E-2	1.453463E-2	8.956499E-3	5.666425E-3	5.410033E-3	-1.778892E-2	-8.876648E-3	-9.954868E-3	-1.255187E-3	4.619707E-3	-2.453335E-2	1.168617E-3	1.080373E-2	-1.795209E-2	9.724517E-3	-2.214781E-2	-1.379099E-2	-6.171470E-3	-6.481020E-3	-3.345466E-2	6.804178E-3	-1.918725E-2	-4.344178E-3	8.880227E-3	-9.946349E-3	9.973705E-3	-3.850655E-3	-1.073423E-2	-1.113240E-2	-2.520730E-2	8.858824E-3	-5.904215E-3	-2.947744E-2	-2.187198E-3	-1.635295E-2	-1.671802E-2	-3.088077E-2	-3.200854E-3	-7.853827E-3	2.467770E-3	-1.594569E-2	8.209115E-3	-3.645463E-3	-5.304241E-3	1.233756E-2	-2.260555E-3	-1.064993E-2	2.506847E-3	-3.501762E-3	1.260202E-2	1.684163E-2	-2.887819E-2	-1.144330E-2	-1.151090E-3	-1.340783E-2	-1.356818E-3	-1.717756E-2	1.421938E-2	-4.855612E-3	-5.981154E-3	-1.016199E-2	-1.543351E-2	4.706493E-4	-3.614662E-2	-2.234030E-2	9.040460E-3	-9.418681E-4	5.644126E-3	1.101914E-2	-3.100789E-3	1.962583E-2	4.508937E-4	-6.658501E-3	-1.955997E-2	-6.354631E-3	-1.372150E-2	1.964513E-2	-1.656428E-2	2.232073E-3	-2.703237E-3	-7.232650E-3	-1.837842E-2	-5.065026E-3	-2.840810E-3	1.398612E-2	-1.744987E-3	-9.213894E-4	-6.710362E-3	4.815068E-3	-5.682475E-3	-2.901316E-2	-8.911859E-3	-2.672921E-2	2.402188E-2	3.558714E-3	-2.288625E-3	-3.211168E-3	-2.985060E-3	3.376467E-3	-1.767798E-2	-5.959336E-3	-4.534560E-3	2.910848E-3	-5.895785E-3	9.562414E-3	4.788156E-3	-5.542546E-3	-1.686659E-2	-1.290941E-2	-2.065459E-2	3.549517E-2	-1.890971E-2	-1.791784E-3	-3.126315E-2	-1.910760E-2	-2.220444E-2	-5.054332E-3	1.409331E-2	-3.041850E-2	1.045741E-2	1.267057E-2	3.035587E-2
5.303080E+2	-9.888743E-3	1.736361E-2	-1.118826E-2	3.702146E-3	1.341504E-3	-1.707904E-2	8.650283E-3	8.668054E-3	-4.975474E-3	-5.429234E-3	-1.819632E-3	1.192164E-2	-8.181670E-3	1.600381E-2	1.550045E-2	3.583032E-2	-1.839156E-2	-1.460806E-2	-2.220705E-3	-1.046848E-2	-1.722768E-2	6.711257E-3	9.848169E-3	-1.371530E-2	-2.053938E-2	5.094895E-4	8.711201E-3	1.840732E-3	-1.998962E-2	1.214057E-2	-1.178652E-2	-2.493279E-2	8.745981E-3	-1.389755E-2	-9.239669E-3	4.690995E-3	1.331969E-2	4.095914E-3	3.244817E-4	4.900565E-3	1.939223E-2	9.891890E-3	7.496238E-3	-8.194358E-3	5.741349E-3	1.179047E-2	-1.087439E-2	-6.035371E-4	4.087906E-2	-1.994574E-3	-1.513349E-3	1.424376E-2	-2.068155E-2	6.387554E-3	2.078151E-3	6.199908E-3	-7.553839E-3	6.035105E-3	2.443662E-3	1.022446E-2	1.681337E-4	-8.704579E-3	2.667678E-2	-6.182371E-3	9.720179E-3	-1.340142E-2	-1.803527E-2	-4.728638E-4	1.860388E-2	-1.347420E-2	-2.265098E-2	-1.315193E-2	-8.783001E-3	-2.396081E-3	2.090232E-2	8.183351E-3	-1.480155E-2	1.633341E-3	-2.835858E-3	2.962874E-3	-2.049056E-2	-2.189224E-3	2.710970E-3	-6.304936E-3	-1.593758E-2	-1.919956E-3	8.423459E-3	-2.770210E-2	-9.625923E-3	1.699947E-2	1.476931E-2	3.318052E-2	-1.538816E-2	6.466407E-3	-1.606307E-2	4.724095E-3	1.348482E-3	-4.147721E-3	-6.362185E-4	-9.219142E-4	-1.190043E-3	8.978301E-3	6.907303E-3	2.672490E-3	5.678680E-4	-1.654349E-2	2.101136E-3	1.260752E-2	7.334431E-3	5.786503E-4	2.716128E-2	2.611525E-2	-1.608109E-3	8.952501E-3	-1.209698E-3	-8.572451E-3	-1.347898E-2	8.571768E-3	-2.175717E-2	3.744402E-3	-1.189607E-2	-8.196879E-4	3.135281E-2	-1.281070E-2	-8.684522E-3	8.462383E-3	-1.446132E-3	-3.146710E-3	-9.673801E-4	-1.844984E-2	2.156186E-2	-2.228650E-2	-3.153150E-3	-1.105723E-2	1.487851E-2	-1.348457E-3	-3.699368E-3	-3.514887E-2	6.956021E-3	3.375129E-3	-8.256823E-3	1.885830E-2	9.833152E-3	1.246470E-2	-2.209661E-2	5.647853E-3	-1.461184E-3	5.267964E-3	-2.376278E-2	-4.702882E-3	-1.535141E-2	-2.770282E-2	-7.665296E-4	-1.456989E-2	-1.551521E-3	2.159632E-2	-1.059260E-2	-8.902544E-3	-1.896592E-2	-1.803993E-3	-7.822718E-3	-2.205815E-2	-2.910753E-2	-5.007864E-2	-1.680375E-2
5.308150E+2	-7.519493E-3	-1.222428E-2	-9.600480E-3	1.206634E-2	1.161594E-2	8.252581E-3	7.199542E-3	2.398630E-2	-1.515909E-3	9.169345E-3	-6.701685E-3	2.575676E-2	-1.933535E-2	-3.416739E-3	-2.924740E-2	-6.747797E-3	-1.250006E-2	2.274308E-3	-2.975166E-3	-1.055325E-2	1.196457E-2	4.539504E-3	2.658170E-3	-1.286595E-2	-9.681784E-3	2.335647E-2	-1.718457E-3	-1.660922E-2	-3.644677E-2	-4.084847E-3	-1.012789E-2	-1.539684E-2	-9.061828E-3	-1.928630E-2	2.414836E-2	1.171805E-2	-1.125747E-2	-3.568653E-3	4.309692E-3	1.301621E-2	-3.337014E-2	-1.027925E-2	-2.300699E-2	2.576796E-2	-3.490287E-3	-1.096056E-2	8.190854E-3	-1.241776E-2	-1.764363E-2	-2.045382E-2	1.353850E-2	1.628580E-3	4.408908E-3	-1.185079E-2	-5.045435E-3	-3.470270E-2	-8.584596E-3	-4.297182E-2	-1.246959E-2	-4.608073E-3	3.738429E-3	2.521656E-3	-2.460450E-2	9.202334E-3	-1.447012E-3	1.910211E-2	-7.898904E-3	1.132756E-3	-2.425629E-2	-9.866102E-3	-1.419313E-2	-9.754500E-3	-2.452361E-3	-3.018110E-3	-1.027469E-2	-2.455460E-2	-1.745570E-2	1.990295E-2	-2.105054E-3	2.904395E-3	1.943962E-2	-5.823538E-3	2.583072E-3	-7.557499E-3	1.114438E-2	-1.876339E-2	-2.489601E-2	7.003264E-3	-4.533531E-3	-5.168853E-3	-5.518572E-3	-1.808527E-2	1.342504E-2	-7.453573E-4	1.076642E-2	1.769982E-2	-9.381765E-3	5.141524E-3	-1.238588E-2	1.688857E-3	-1.474671E-2	1.160861E-2	3.202449E-3	-9.863173E-3	-1.131062E-2	-1.503377E-2	-5.695210E-3	8.390719E-4	7.157485E-4	-8.284935E-3	1.508488E-2	-2.506898E-2	-1.589185E-2	-2.658414E-2	-2.082940E-2	1.422073E-3	1.740228E-2	2.882254E-3	1.722801E-2	-5.707571E-3	2.169054E-2	-8.815597E-4	-9.233506E-3	-1.213247E-2	1.501193E-2	-7.283935E-4	-1.007743E-2	-2.303418E-3	2.678238E-3	-1.324988E-2	2.021883E-2	-1.677829E-2	-2.193519E-3	7.040939E-3	9.253411E-3	3.651031E-2	-5.550845E-3	2.799788E-2	7.106291E-3	-2.786378E-2	-1.185395E-2	1.767418E-3	1.423035E-2	1.076518E-2	-1.115601E-2	-1.108448E-2	-1.027585E-2	-1.919579E-2	-1.115214E-3	-2.682612E-2	8.409670E-3	1.112751E-2	5.950257E-3	8.233747E-4	1.201527E-2	1.344769E-2	9.800823E-3	-2.291024E-2	2.950401E-3	-1.178739E-2	3.057701E-2	4.381172E-2	-1.307556E-2	-6.049003E-3	-1.347716E-3
5.313130E+2	-7.393653E-3	2.678268E-3	-2.233299E-2	6.645032E-3	4.350615E-3	1.194101E-2	-2.638275E-4	-4.736814E-3	1.326341E-2	-7.546172E-3	6.708425E-3	1.556170E-5	9.971610E-3	-3.502770E-2	8.956894E-3	-2.833067E-2	2.993528E-5	2.391610E-2	2.880097E-2	-9.394734E-3	-3.290648E-2	-4.729718E-3	1.391343E-2	1.513062E-3	2.759783E-3	-7.853743E-3	7.744963E-3	-1.285671E-2	-2.805791E-3	1.668381E-2	8.247608E-3	-2.426576E-3	-2.275531E-3	-1.354302E-3	-2.021988E-2	1.556615E-2	3.124164E-3	-1.252851E-2	-2.733751E-2	2.887676E-2	1.181584E-2	1.611603E-2	-7.268723E-3	-1.203811E-2	-8.709313E-3	-3.361160E-2	-1.111008E-2	-9.060020E-3	1.277203E-2	1.159416E-2	3.419857E-2	-1.561982E-2	-2.415569E-2	1.669931E-2	9.286417E-3	-6.646525E-5	-8.984094E-4	2.326858E-2	2.078836E-3	7.787199E-3	-2.263985E-3	3.671862E-3	-1.318384E-2	9.574024E-3	1.509906E-3	-1.116992E-5	5.507159E-3	1.657632E-2	-7.239633E-3	-6.990011E-4	1.528813E-2	4.633111E-3	-1.336650E-2	-3.366117E-3	-2.305018E-2	1.606970E-2	1.052748E-2	1.660544E-2	1.296747E-2	1.619620E-2	-3.831622E-3	-8.293720E-4	-4.294389E-3	2.041068E-2	-4.822617E-3	-5.112397E-3	3.197621E-2	1.268866E-3	-6.905167E-3	2.076256E-2	-5.849765E-3	-1.403219E-2	1.041742E-2	-3.591496E-3	3.644439E-2	5.111133E-3	6.223422E-3	2.109407E-2	1.324684E-3	4.207410E-3	2.097096E-2	5.849210E-3	-5.574436E-3	-1.924854E-3	-1.457130E-2	-2.869992E-2	8.528700E-3	2.350546E-4	-1.380843E-2	-7.068081E-3	7.246811E-3	-6.140403E-3	3.147110E-3	1.297923E-3	-8.219578E-4	1.653252E-2	2.296369E-3	2.172337E-2	7.352396E-3	-2.601965E-2	5.536327E-3	-9.533611E-3	-2.063078E-3	-2.301184E-2	8.953482E-3	1.163039E-2	-4.485541E-3	1.541103E-2	8.463644E-3	2.728779E-2	3.195960E-3	9.350229E-3	-4.943647E-3	9.903449E-3	-3.884482E-3	8.042805E-3	1.121628E-2	3.125861E-3	-4.132275E-3	2.231959E-2	1.777306E-2	-9.611328E-3	-7.456108E-3	-9.954704E-3	1.231242E-2	-1.075775E-2	-5.711924E-3	4.103854E-3	3.666691E-2	4.360648E-2	6.321748E-3	2.625261E-2	2.393226E-2	2.041524E-3	5.103941E-3	-1.882105E-2	3.958295E-3	4.699783E-3	-6.998892E-3	2.497948E-2	-7.322492E-3	1.159839E-2	4.121321E-3	2.762646E-3	-3.232792E-2
5.318010E+2	2.461547E-2	9.709442E-4	9.627698E-3	-1.873368E-2	-3.752719E-3	1.831969E-2	7.946976E-3	-1.247149E-2	1.552280E-2	1.083353E-2	1.082646E-2	-2.207268E-2	1.894537E-2	-7.155881E-3	1.672584E-2	2.391620E-2	-6.610880E-3	-1.847786E-2	1.390984E-2	5.049266E-3	2.278884E-2	-6.675777E-3	2.779950E-3	8.141114E-3	-1.375547E-2	-7.450368E-3	5.173029E-3	-1.071860E-2	3.044687E-4	1.402775E-2	1.499717E-2	1.702905E-2	1.493621E-2	5.202063E-2	7.716433E-3	9.750131E-3	8.090891E-5	8.888657E-3	2.082862E-2	-9.854599E-3	-3.383885E-3	6.401475E-3	-2.069145E-2	1.964722E-2	2.653244E-2	4.149666E-3	3.695446E-2	1.649945E-2	-1.242939E-2	2.957369E-2	-1.422347E-3	2.171394E-2	2.315591E-2	1.023135E-2	-3.503722E-3	1.207058E-2	2.622878E-2	2.036839E-2	1.098460E-2	2.409774E-2	-1.671423E-3	8.093926E-3	-9.456870E-3	-7.308983E-3	1.036204E-2	4.034162E-2	4.161403E-3	6.894408E-3	-8.581774E-3	6.573188E-3	1.940472E-2	2.172263E-2	1.058004E-2	9.408595E-3	5.369076E-3	4.004492E-2	3.409063E-3	2.300264E-3	1.663591E-2	1.157443E-3	-9.684159E-4	3.404668E-2	-6.467683E-3	7.486077E-3	2.019686E-2	2.377169E-3	-4.944306E-3	2.554236E-3	2.951996E-2	-6.728762E-3	2.510718E-2	3.157990E-3	-5.370177E-3	-2.268984E-2	-4.608234E-3	-4.852534E-3	-5.786991E-3	-8.462705E-4	3.360583E-3	8.544690E-3	-1.398490E-2	-1.488406E-2	-5.342901E-4	1.179237E-2	-1.324336E-2	2.681946E-2	-7.432002E-3	6.307942E-4	8.181094E-3	2.067385E-2	-8.858699E-3	-7.366426E-3	1.855499E-2	2.624154E-3	8.587318E-3	-1.450691E-3	2.013792E-2	-1.214222E-2	2.302343E-2	3.709257E-3	-2.303991E-3	1.724251E-2	8.190092E-5	1.665687E-2	1.301734E-2	7.027449E-3	3.787207E-3	-2.635084E-2	-1.717757E-2	1.219054E-2	1.206497E-2	3.372666E-2	-2.879880E-3	1.698797E-2	-1.841704E-3	1.214778E-2	7.781388E-4	7.694866E-4	-6.141280E-3	-5.542994E-3	1.736809E-2	-8.266210E-3	-1.873669E-3	4.572535E-3	2.605262E-3	5.419221E-3	3.404557E-2	1.453627E-2	-8.083325E-3	-1.051255E-3	4.435863E-3	2.337535E-5	-1.622453E-3	-1.162151E-2	1.151788E-2	-2.323611E-2	3.276927E-2	1.722103E-2	3.010531E-2	3.446050E-3	1.237576E-2	-1.594889E-2	7.840910E-3	1.828742E-2	-2.731955E-2
5.323010E+2	8.021222E-3	8.808060E-3	-6.642557E-3	2.886152E-2	-1.650910E-2	2.319014E-2	1.014535E-2	1.002179E-2	-2.877875E-4	3.942021E-2	1.302428E-3	4.910626E-3	-4.422509E-3	5.839244E-3	6.521328E-3	4.543509E-3	5.205440E-2	3.509079E-2	1.540594E-3	4.534675E-2	2.180402E-2	-3.608578E-3	1.139375E-2	5.325496E-3	4.419380E-2	1.686373E-2	1.427838E-2	1.803351E-2	3.624453E-2	3.220340E-2	1.968198E-2	1.391085E-2	1.170572E-2	8.468863E-3	1.952031E-2	-2.197669E-2	2.274380E-2	1.661255E-2	2.091364E-2	-2.341369E-3	9.874617E-3	2.048506E-2	2.807977E-2	1.231983E-2	3.206826E-3	2.855850E-2	1.199666E-2	1.554846E-2	2.033290E-2	1.357301E-2	3.993993E-3	2.619803E-3	5.196440E-2	1.550097E-2	7.539927E-3	2.196119E-2	-2.840010E-3	1.580205E-2	2.604770E-2	6.417535E-3	1.198431E-2	1.887753E-2	3.138512E-2	4.527357E-3	1.103282E-2	2.700499E-3	1.871847E-2	-1.089667E-2	4.335072E-3	2.871453E-2	7.018029E-3	3.551785E-2	3.199539E-2	4.001851E-3	1.794477E-2	1.792736E-2	3.168655E-3	-4.394765E-3	-1.452265E-2	1.908206E-2	1.840329E-2	8.339536E-3	1.473476E-2	4.216021E-2	2.447178E-2	2.824564E-2	2.882205E-2	1.724850E-2	5.133353E-3	3.098020E-4	-5.747602E-3	3.087038E-2	2.785660E-2	2.477380E-3	3.473653E-3	5.357136E-3	3.118278E-2	1.428169E-2	3.073533E-2	1.330563E-2	2.802577E-2	8.730180E-3	7.052583E-3	2.094073E-2	3.672298E-2	4.998287E-2	4.531686E-2	7.900133E-3	-1.370329E-2	1.337917E-2	5.256580E-3	1.453234E-2	2.197443E-2	1.127929E-2	3.176094E-2	2.233809E-2	1.631093E-2	-2.216551E-3	5.529074E-3	3.554436E-2	2.405200E-2	2.222273E-3	-4.467849E-3	1.444963E-2	1.825205E-2	-7.919648E-4	7.980363E-3	2.325163E-2	-1.657388E-2	1.459739E-2	-1.142555E-2	1.240959E-2	2.561084E-2	3.678952E-2	-2.232344E-2	-1.167116E-2	-9.589037E-3	7.906185E-3	1.207403E-2	1.479318E-2	1.004687E-2	2.322873E-2	6.474972E-3	6.969440E-3	2.558617E-2	3.018807E-2	-8.908383E-3	8.033907E-3	3.005962E-3	-3.450637E-3	1.179581E-2	7.036737E-3	1.702929E-3	-1.250604E-4	1.306586E-2	2.169638E-2	2.279611E-2	3.090990E-2	9.839425E-3	1.515746E-2	-5.210080E-3	2.184006E-2	5.961572E-2	1.992308E-2	4.235787E-2
5.328060E+2	1.641074E-2	-3.279394E-3	1.706367E-2	5.233253E-3	1.804717E-2	5.677932E-2	1.190772E-2	1.040689E-2	1.002915E-3	9.755317E-3	1.237448E-2	3.661960E-2	2.070234E-2	1.146288E-2	3.655800E-2	1.409699E-2	1.267486E-2	1.508867E-2	2.041876E-2	1.569671E-2	4.378577E-2	-1.303284E-2	2.367069E-2	-1.106294E-2	9.714831E-3	9.959697E-3	3.043341E-2	-7.699674E-3	1.474410E-2	5.438043E-3	6.416746E-3	2.687560E-2	3.168198E-2	2.550937E-2	1.718913E-2	2.590300E-2	1.778440E-2	2.734556E-3	2.544891E-2	-1.329676E-2	1.029521E-2	2.421518E-2	1.650097E-2	7.031065E-3	1.558101E-2	9.255328E-3	1.928893E-2	1.167591E-2	3.655068E-3	-1.792179E-2	3.717906E-2	4.102219E-2	-2.973041E-3	1.045183E-2	2.827686E-2	3.085492E-2	4.396293E-3	1.106396E-2	-7.459798E-4	1.826143E-2	-1.416251E-2	9.092632E-3	2.817939E-2	-4.569239E-3	3.412447E-2	-3.151741E-3	-4.555504E-3	9.933492E-3	3.754921E-3	3.028676E-2	2.321496E-2	1.524260E-2	6.047274E-2	2.030370E-2	2.048095E-2	2.023889E-2	2.862302E-2	-1.844640E-4	3.220931E-2	1.584508E-2	-5.298972E-3	-3.491049E-2	2.695049E-3	4.147308E-2	3.871640E-2	-1.381307E-2	4.570821E-2	4.289082E-2	-9.183301E-3	-2.637578E-3	3.654808E-2	2.835867E-2	2.290555E-2	3.503561E-3	-2.874270E-3	2.298195E-2	4.390439E-2	4.474245E-2	4.313903E-3	1.375900E-2	1.357263E-3	2.137806E-2	2.877248E-2	3.268971E-2	-1.319370E-2	8.144096E-3	8.229152E-3	1.221900E-2	2.320679E-2	9.284416E-3	5.950455E-2	5.436492E-3	1.856852E-2	-2.581457E-2	1.314485E-2	1.058876E-2	1.291482E-2	8.962134E-3	2.081679E-2	3.827364E-2	2.337904E-2	1.080157E-2	4.274590E-2	5.441534E-3	3.697107E-2	4.577898E-3	3.434461E-2	2.427708E-2	-2.689984E-3	3.954754E-3	-2.035346E-2	2.419878E-2	-3.677736E-4	2.449378E-2	-6.179257E-3	1.764014E-2	2.275084E-2	3.167790E-2	-1.601916E-2	2.273190E-2	1.831667E-2	6.251028E-3	2.461869E-2	2.865142E-3	1.840455E-2	-2.330220E-2	-1.712302E-2	-1.047370E-2	-2.778955E-3	-7.924395E-3	-5.196625E-3	2.027668E-2	8.607505E-3	-7.364643E-3	2.858258E-2	1.525067E-2	3.458221E-2	3.099819E-2	1.445692E-2	2.895282E-2	-1.733508E-2	2.028924E-2	-1.943829E-2	1.829692E-2	-9.128776E-3
5.333020E+2	3.583504E-2	-1.128690E-2	6.410034E-3	2.307522E-2	8.250975E-3	3.864530E-2	3.922233E-2	1.463997E-2	2.161108E-2	1.221823E-2	2.631643E-2	2.506994E-2	1.792813E-2	2.100425E-2	5.508286E-2	7.803191E-3	2.556889E-2	2.172549E-2	8.936281E-3	1.433684E-3	1.343873E-2	3.748740E-3	4.542772E-2	2.944010E-2	4.039356E-2	3.914131E-2	5.579556E-2	3.243413E-2	3.622669E-2	6.228392E-4	1.605118E-3	7.015738E-3	3.608004E-2	-1.546229E-2	2.649010E-2	4.539657E-2	1.633282E-3	-3.944730E-4	3.831061E-2	2.977802E-2	-1.868944E-3	2.661175E-2	1.654378E-2	3.035568E-2	4.290002E-2	1.930138E-2	8.360145E-3	2.544566E-2	5.074747E-3	-3.000208E-3	3.171747E-2	-1.112735E-3	1.336194E-3	2.861239E-2	1.807307E-3	2.911837E-2	2.200482E-2	1.337063E-2	1.679956E-2	3.930581E-2	2.445078E-2	-1.158246E-3	3.752253E-2	4.495277E-2	7.782531E-3	8.919645E-3	5.022082E-2	1.756278E-2	2.731768E-2	3.110743E-2	1.517389E-2	3.555961E-2	1.782445E-2	4.093860E-3	2.749027E-2	3.951972E-2	1.754398E-2	2.916381E-2	3.375474E-2	3.151710E-2	1.828625E-2	2.447308E-2	3.696609E-2	3.577811E-2	3.517531E-2	-4.503356E-3	1.973226E-2	9.310959E-3	3.109142E-2	2.367627E-2	2.591549E-2	2.236845E-2	5.022900E-2	3.368785E-2	1.091604E-2	3.503774E-2	4.553363E-2	7.261181E-2	3.579969E-2	2.563445E-2	2.824193E-3	4.605549E-2	3.263222E-2	1.615947E-2	3.033452E-2	2.082243E-2	2.973052E-2	3.892869E-2	6.808588E-2	7.188114E-3	-4.896648E-4	2.396297E-2	2.477208E-2	2.563098E-2	1.474264E-2	1.003329E-3	3.381563E-2	3.415512E-2	3.272204E-3	5.118994E-2	8.332143E-3	2.884255E-2	3.581258E-2	1.068533E-2	4.139350E-2	3.448575E-2	3.514373E-2	1.665997E-2	-1.472851E-2	1.457583E-2	1.723309E-2	2.786177E-3	-2.833363E-3	3.605834E-2	2.961101E-3	3.287140E-2	2.438527E-2	4.835683E-2	3.980745E-2	-7.051748E-3	3.821682E-3	3.414807E-2	9.961309E-3	4.064654E-2	1.627980E-2	3.668454E-2	9.178745E-3	4.011845E-2	3.808943E-2	4.685598E-2	2.339592E-2	1.255015E-2	3.345514E-2	3.425505E-2	2.761344E-2	5.190810E-3	1.657424E-2	-3.728851E-3	3.178347E-2	4.758245E-2	5.891980E-4	3.474931E-2	-1.311983E-2	-3.089863E-4	6.061234E-2
5.335040E+2	2.978886E-2	-2.581156E-2	4.597185E-2	-1.210005E-3	2.138609E-2	2.011551E-2	2.868675E-2	5.060197E-2	4.511261E-2	4.097387E-2	1.736988E-2	3.101488E-2	3.125502E-2	2.770797E-2	3.656503E-2	3.059960E-2	1.477480E-2	3.645139E-2	2.727193E-2	2.499003E-3	5.384178E-3	1.872159E-2	1.923014E-2	3.879921E-2	4.172705E-2	5.624159E-2	2.788726E-2	3.810119E-2	6.476467E-2	1.686769E-2	2.016813E-2	1.618610E-2	2.985997E-2	5.597321E-2	2.952301E-2	5.028846E-2	9.010384E-3	3.676412E-2	2.380889E-2	2.832816E-2	3.189438E-2	3.619853E-2	1.149574E-2	2.939654E-2	1.920717E-2	1.700039E-2	1.889670E-2	7.727605E-3	4.067578E-2	4.713585E-2	2.111035E-2	1.869451E-2	1.891872E-2	9.106717E-3	6.994135E-4	9.772987E-3	2.711091E-2	2.302539E-2	2.896210E-2	2.596759E-2	1.681907E-2	3.187924E-2	1.289241E-2	4.285872E-2	2.032980E-2	4.334267E-2	3.405251E-2	2.914097E-2	-1.726723E-2	1.495199E-2	4.428836E-2	2.874382E-2	3.121966E-3	2.085943E-2	4.466590E-2	2.960467E-2	4.085267E-2	3.550468E-2	1.465732E-2	2.358273E-2	2.842399E-2	1.874317E-2	2.597083E-2	6.186513E-2	2.980618E-2	1.718750E-2	3.026947E-2	2.309623E-2	3.382037E-2	4.187540E-2	7.325108E-2	4.315544E-2	4.816921E-2	1.449256E-2	9.758147E-3	6.128585E-2	3.153209E-2	1.652370E-2	4.210538E-2	8.704108E-3	4.090781E-3	1.719087E-2	6.487624E-2	4.624330E-2	3.630332E-2	2.872769E-3	3.019284E-2	6.072947E-2	2.350882E-2	1.999570E-2	1.669974E-3	3.463690E-2	1.546959E-3	1.889188E-2	5.300114E-2	3.210061E-2	3.612216E-2	4.818379E-2	1.261790E-2	2.560735E-2	-1.623617E-2	5.336262E-2	4.053932E-2	3.459509E-2	4.645474E-2	5.657237E-4	3.035813E-2	2.292778E-2	3.110544E-2	2.785833E-2	6.815458E-3	2.726038E-2	4.533087E-2	5.062130E-2	1.947894E-2	1.786962E-2	2.756757E-2	-5.869864E-3	4.363875E-2	2.646354E-2	5.696771E-2	2.636756E-2	3.953836E-2	2.086906E-3	1.911180E-3	2.500634E-2	3.022162E-2	2.340264E-2	5.563522E-2	1.983919E-2	1.485349E-2	1.196186E-2	3.042665E-2	3.046889E-2	1.604631E-2	2.390977E-2	3.849992E-2	8.766174E-3	4.361596E-2	4.802607E-2	7.775329E-3	1.078365E-3	3.585019E-2	5.565512E-2	6.567780E-2
5.337220E+2	2.875522E-2	-1.723577E-2	5.145041E-2	2.280845E-2	5.229184E-2	2.616514E-2	3.652150E-2	-3.824856E-3	4.269529E-2	3.712943E-2	3.356045E-2	3.648185E-2	3.479202E-2	5.090274E-2	4.242099E-2	4.313407E-2	4.525059E-2	3.648652E-2	4.027956E-2	2.525685E-2	4.905523E-2	6.687273E-3	2.204440E-2	2.055694E-2	4.795669E-2	4.215060E-2	6.422543E-2	5.542186E-2	3.967175E-2	2.652532E-2	3.860436E-2	2.486492E-2	2.738692E-2	1.081587E-2	1.764735E-2	3.252533E-2	5.457397E-2	2.879498E-2	7.103435E-2	4.336180E-2	2.127852E-2	2.383542E-2	3.866590E-2	5.520629E-2	3.875541E-2	3.507205E-2	1.749383E-2	2.651849E-2	3.897331E-2	2.680686E-2	2.913394E-2	7.635113E-2	2.816440E-2	5.356235E-2	4.113836E-2	1.086820E-2	3.590400E-2	6.316387E-2	4.761575E-2	1.427048E-2	2.582830E-2	3.362473E-2	3.946061E-2	3.148349E-2	4.852578E-2	5.846761E-2	7.961963E-2	4.336847E-2	2.959841E-2	3.272452E-2	4.343162E-2	2.018686E-2	1.173606E-2	4.591402E-3	2.710398E-2	4.254881E-2	6.358108E-2	4.330349E-2	3.667178E-2	4.085016E-2	6.478242E-2	3.802192E-2	4.227428E-2	1.762484E-2	5.285780E-2	1.944198E-2	4.327919E-2	4.684244E-2	5.225879E-2	2.895118E-2	2.597870E-2	6.472534E-2	3.697950E-2	3.659939E-2	2.122123E-2	6.205737E-2	8.047880E-2	6.511609E-2	4.200156E-2	4.190747E-2	5.740034E-2	3.671517E-2	4.088158E-2	5.863569E-2	7.022759E-3	4.154313E-2	1.891870E-2	2.193526E-2	5.102468E-2	2.088656E-2	3.510827E-2	4.135505E-2	6.000080E-2	1.978952E-2	-3.644781E-3	3.209973E-2	1.865554E-2	3.713299E-2	5.181981E-2	2.646605E-2	6.067408E-2	4.001957E-2	1.238359E-3	1.583934E-2	7.414998E-2	2.717223E-2	3.907491E-2	5.953428E-2	2.293773E-2	2.604162E-2	2.361102E-2	-5.843313E-4	3.733340E-2	5.875753E-2	3.391193E-2	2.333319E-2	4.499403E-2	4.968363E-2	4.280158E-3	7.950685E-2	8.721173E-3	2.457260E-2	4.545249E-2	3.223253E-2	4.313391E-2	7.806590E-2	2.935588E-2	3.350352E-2	3.062836E-2	2.448510E-2	4.755747E-2	3.048519E-2	7.203863E-2	3.791750E-2	2.291949E-2	4.613891E-2	4.576541E-2	2.894337E-2	2.339391E-2	4.026646E-2	1.676666E-2	2.017545E-2	3.971249E-2	3.441118E-2	3.817216E-2
5.339090E+2	4.279408E-2	1.367336E-3	3.715937E-2	2.524057E-2	1.294016E-2	5.245932E-2	6.370286E-2	6.362175E-2	2.130367E-2	2.373567E-2	5.314394E-2	5.991792E-2	7.677819E-2	1.144746E-2	2.170465E-2	1.459748E-2	2.820408E-2	3.207504E-2	4.005115E-2	1.924578E-2	2.113325E-2	4.192895E-2	5.290757E-2	2.395316E-2	3.483466E-2	4.752418E-2	5.031300E-2	4.580980E-2	6.544616E-2	3.111260E-2	5.586422E-2	4.062233E-2	3.867546E-2	2.124950E-2	5.808813E-2	5.989231E-2	4.641255E-2	5.907950E-2	6.491888E-2	6.235558E-2	3.812632E-2	6.292911E-2	2.860238E-2	4.995190E-2	6.772350E-2	6.566092E-2	2.061716E-2	2.714617E-2	5.307467E-2	1.341743E-3	2.737339E-2	5.894800E-2	1.355854E-2	3.051052E-2	6.613048E-2	4.447112E-2	6.613338E-2	2.745466E-2	2.065512E-2	3.138020E-2	6.224922E-2	7.241973E-2	3.530092E-2	5.097152E-2	6.134455E-2	6.803895E-2	7.071081E-2	6.443210E-2	3.628462E-2	3.189136E-2	5.218130E-2	1.981349E-2	4.566836E-2	2.407472E-2	4.603416E-2	4.178741E-2	4.707989E-2	7.983434E-2	5.314560E-2	5.579370E-2	4.800257E-2	6.049775E-2	4.716566E-2	2.541408E-2	5.239724E-3	6.309932E-2	5.163523E-2	2.376297E-2	7.028862E-2	3.359819E-2	5.538159E-2	2.780370E-2	2.563634E-2	5.934149E-2	4.151056E-2	2.605273E-2	5.534597E-2	4.925566E-2	6.021943E-2	3.018148E-2	2.058537E-2	5.513156E-2	3.539551E-2	8.218658E-2	3.245522E-2	1.692108E-2	3.437990E-2	3.235453E-2	5.424515E-2	1.715278E-2	5.331119E-2	6.241303E-2	5.511488E-2	5.175625E-2	4.639465E-2	4.023230E-2	4.141833E-2	4.959569E-2	2.849120E-2	1.849327E-2	2.222602E-2	2.824304E-2	6.430500E-2	5.786155E-2	5.457381E-2	3.560108E-2	6.160325E-2	6.603080E-2	2.096933E-2	5.242098E-2	5.115128E-2	5.964131E-2	5.862323E-2	2.229209E-2	4.828207E-2	4.489446E-2	1.827299E-2	5.321380E-2	6.858501E-2	5.660352E-2	4.072785E-2	5.982746E-2	2.397745E-2	5.683823E-2	3.089388E-2	2.764292E-2	4.463577E-2	3.429384E-2	7.695332E-2	2.437900E-2	3.765747E-2	3.309117E-2	2.977934E-2	4.950571E-2	5.094193E-2	4.015120E-2	6.875420E-2	4.819941E-2	2.328122E-2	7.843504E-2	3.791219E-2	4.110598E-2	2.987897E-2	1.910988E-2	2.913842E-2
5.341110E+2	3.408604E-2	7.826261E-2	5.414319E-2	5.610129E-2	5.305502E-2	7.219160E-2	8.384070E-2	5.340819E-2	1.899995E-2	4.823977E-2	7.332294E-2	5.596409E-2	6.296209E-2	5.953705E-2	6.102501E-2	6.274421E-2	5.920707E-2	5.692738E-2	4.254154E-2	4.148631E-2	4.566051E-2	4.268742E-2	6.643909E-2	9.021744E-2	6.080515E-2	6.414474E-2	5.484603E-2	5.242318E-2	4.373770E-2	5.942027E-2	4.163515E-2	5.056046E-2	3.341151E-2	7.487794E-3	5.904374E-2	7.405538E-2	4.916596E-2	6.522580E-2	6.102213E-2	6.126303E-2	7.561756E-2	7.968472E-2	5.176065E-2	4.740908E-2	6.876897E-2	6.052487E-2	7.555164E-2	4.855758E-2	5.523682E-2	7.731940E-2	7.682285E-2	8.405306E-2	4.186140E-2	3.078037E-2	4.930968E-2	1.312069E-2	9.101823E-2	9.030014E-2	4.192780E-2	2.619229E-2	8.457282E-2	4.625327E-2	8.717891E-2	7.714394E-2	4.971695E-2	6.995702E-2	7.611948E-2	6.734003E-2	4.986352E-2	7.683449E-2	7.399098E-2	3.509877E-2	5.996865E-2	5.192881E-2	3.756580E-2	5.929455E-2	1.022768E-1	8.788757E-2	6.071379E-2	8.582986E-2	7.499507E-2	4.406666E-2	8.408670E-2	3.313730E-2	3.979805E-2	4.825455E-2	6.166824E-2	7.554294E-2	8.033251E-2	3.886934E-2	4.870612E-2	9.349819E-2	1.054499E-1	7.087226E-2	5.083452E-2	6.656675E-2	5.937230E-2	5.166249E-2	6.308885E-2	8.091783E-2	5.390592E-2	3.983458E-2	5.896953E-2	8.703553E-2	8.233464E-2	8.869922E-2	6.786545E-2	5.934093E-2	3.823171E-2	5.635457E-2	8.669000E-2	6.824844E-2	9.078728E-2	4.763054E-2	4.327089E-2	5.123128E-2	4.452584E-2	5.472653E-2	4.456422E-2	8.160142E-2	6.924822E-2	6.690345E-2	6.866100E-2	5.155969E-2	5.490568E-2	3.745072E-2	6.087013E-2	5.533858E-2	1.872090E-2	8.197173E-2	4.204211E-2	3.608640E-2	1.853686E-2	5.860522E-2	2.707722E-2	5.772361E-2	7.333728E-2	3.762924E-2	2.624364E-2	4.478546E-2	6.232630E-2	7.448047E-2	6.926074E-2	8.077787E-2	6.277459E-2	8.539830E-2	4.908019E-2	5.082383E-2	8.138554E-2	4.323779E-2	7.835016E-2	5.372825E-2	5.348146E-2	6.293575E-2	7.652854E-2	5.309084E-2	9.286047E-2	5.793684E-2	5.325261E-2	4.970697E-2	5.553031E-2	6.549586E-2	3.546845E-2	4.181859E-2	4.922506E-2
5.343030E+2	6.749148E-2	8.706496E-2	5.172536E-2	6.740779E-2	6.490897E-2	8.556910E-2	9.401357E-2	5.958753E-2	1.034892E-1	5.442370E-2	7.859686E-2	4.299458E-2	8.854857E-2	1.089592E-1	7.509597E-2	8.907000E-2	5.259311E-2	8.064561E-2	8.849598E-2	8.974763E-2	7.651413E-2	6.668531E-2	6.586070E-2	9.369097E-2	7.155217E-2	7.506804E-2	7.624158E-2	9.489935E-2	1.180286E-1	3.963714E-2	7.461933E-2	4.638335E-2	7.122070E-2	7.052744E-2	8.722480E-2	7.023191E-2	8.232271E-2	7.532194E-2	1.143249E-1	8.968968E-2	8.296637E-2	6.692287E-2	1.099502E-1	3.746678E-2	9.967093E-2	9.169578E-2	6.108611E-2	9.506448E-2	7.831997E-2	1.089027E-1	8.080974E-2	8.371700E-2	6.125865E-2	7.093990E-2	8.767333E-2	5.847948E-2	1.042528E-1	5.965679E-2	7.044110E-2	6.518535E-2	9.769794E-2	5.619860E-2	1.052017E-1	8.883770E-2	1.065306E-1	5.801041E-2	7.927025E-2	7.245323E-2	6.447987E-2	9.698430E-2	7.122365E-2	6.281974E-2	5.895559E-2	5.732250E-2	7.715400E-2	7.221304E-2	8.111045E-2	6.997090E-2	9.163720E-2	5.765413E-2	9.248916E-2	6.649349E-2	1.119254E-1	9.560461E-2	6.274855E-2	6.940229E-2	7.863601E-2	5.133552E-2	6.495723E-2	8.513566E-2	9.050144E-2	7.868375E-2	8.477781E-2	7.904310E-2	5.646166E-2	1.161448E-1	6.838008E-2	5.848238E-2	7.193710E-2	6.638312E-2	4.532910E-2	1.174923E-1	1.222512E-1	1.000949E-1	7.984663E-2	9.320997E-2	5.658368E-2	7.217770E-2	1.040900E-1	1.205886E-1	8.540420E-2	6.231655E-2	1.107765E-1	7.581890E-2	8.247106E-2	6.461541E-2	4.739785E-2	7.827145E-2	1.022763E-1	6.306175E-2	7.997182E-2	7.802567E-2	8.168110E-2	6.813151E-2	1.037340E-1	7.337974E-2	1.037772E-1	4.944967E-2	8.723726E-2	7.352076E-2	4.880943E-2	7.415448E-2	9.521418E-2	3.712841E-2	6.740232E-2	9.008968E-2	5.667792E-2	8.868423E-2	7.610267E-2	7.812296E-2	8.260426E-2	5.976388E-2	3.756965E-2	6.651511E-2	6.717256E-2	1.046807E-1	6.603757E-2	7.213391E-2	9.632641E-2	7.141830E-2	6.549755E-2	4.130859E-2	9.703043E-2	1.005136E-1	7.731089E-2	7.861889E-2	8.925571E-2	8.933825E-2	6.698110E-2	9.543638E-2	1.673432E-2	4.222899E-2	2.335804E-2	5.175654E-2	5.648199E-2
5.345160E+2	1.158005E-1	9.834570E-2	1.120797E-1	1.152441E-1	1.018925E-1	1.249389E-1	1.701202E-1	1.304810E-1	1.584762E-1	1.354338E-1	1.109764E-1	1.314552E-1	1.583874E-1	1.303274E-1	1.295362E-1	1.430433E-1	1.663384E-1	1.805299E-1	9.660864E-2	1.119963E-1	1.313447E-1	1.207035E-1	1.014550E-1	1.157094E-1	1.502320E-1	1.290130E-1	1.231263E-1	1.204043E-1	1.124504E-1	1.457518E-1	1.489765E-1	1.437243E-1	9.549352E-2	1.147541E-1	1.615444E-1	1.551364E-1	1.716239E-1	1.074663E-1	1.663019E-1	1.064623E-1	1.388529E-1	1.470864E-1	1.209456E-1	1.138646E-1	1.638697E-1	1.384921E-1	1.411291E-1	1.773601E-1	1.409030E-1	1.367237E-1	1.652146E-1	1.323551E-1	1.363860E-1	1.225647E-1	1.210603E-1	1.430308E-1	1.150454E-1	1.693832E-1	1.499211E-1	1.164104E-1	1.598198E-1	1.153189E-1	1.714747E-1	1.236477E-1	1.651710E-1	1.516134E-1	1.275751E-1	1.361601E-1	1.264165E-1	1.459271E-1	1.317831E-1	1.219174E-1	1.551316E-1	1.590406E-1	1.126108E-1	1.361546E-1	1.271388E-1	1.224267E-1	9.921503E-2	1.304906E-1	1.407665E-1	1.446715E-1	1.386431E-1	1.379876E-1	1.461938E-1	1.284819E-1	1.266812E-1	1.288246E-1	1.417009E-1	1.577672E-1	1.030013E-1	1.236039E-1	1.419127E-1	1.506170E-1	1.313402E-1	1.446590E-1	1.693616E-1	1.404936E-1	1.382219E-1	1.535677E-1	1.074990E-1	1.292406E-1	1.713239E-1	1.404109E-1	1.279785E-1	1.450282E-1	1.455457E-1	1.348215E-1	1.512960E-1	1.189437E-1	1.501338E-1	1.282900E-1	1.712983E-1	1.295593E-1	1.104541E-1	1.216013E-1	1.433850E-1	1.282630E-1	1.322895E-1	1.277047E-1	1.155451E-1	1.453457E-1	1.058962E-1	1.504733E-1	1.325170E-1	1.363011E-1	1.539440E-1	1.431018E-1	1.259490E-1	1.636671E-1	1.381254E-1	1.525117E-1	1.391641E-1	1.505473E-1	9.601485E-2	1.450628E-1	1.463464E-1	9.570087E-2	1.505819E-1	1.547284E-1	1.328070E-1	1.647426E-1	1.459910E-1	1.778832E-1	8.032291E-2	1.392718E-1	1.083948E-1	1.364295E-1	1.273212E-1	1.281340E-1	1.206871E-1	1.307179E-1	1.339903E-1	1.560647E-1	1.757227E-1	1.129448E-1	1.645641E-1	1.371971E-1	9.335783E-2	1.082677E-1	1.134553E-1	1.428400E-1	1.374810E-1	1.029755E-1	1.350601E-1
5.347340E+2	2.416604E-1	2.091956E-1	2.260248E-1	2.421627E-1	2.269406E-1	2.545747E-1	1.930150E-1	2.557983E-1	2.605495E-1	2.101443E-1	2.070969E-1	2.336894E-1	2.508647E-1	2.515749E-1	1.993649E-1	2.297110E-1	2.468364E-1	2.207785E-1	2.178216E-1	2.430136E-1	2.807361E-1	2.239570E-1	2.169155E-1	2.487758E-1	2.902540E-1	2.394531E-1	2.452858E-1	2.354454E-1	2.133007E-1	2.195349E-1	2.178605E-1	2.496595E-1	2.473238E-1	2.293311E-1	2.611367E-1	2.236595E-1	3.003665E-1	2.720615E-1	2.369188E-1	2.578486E-1	2.357933E-1	2.501926E-1	2.298405E-1	2.548872E-1	2.306226E-1	2.231302E-1	2.424424E-1	2.334353E-1	2.438382E-1	2.090846E-1	2.371881E-1	2.329496E-1	2.218713E-1	2.354141E-1	2.428859E-1	1.944048E-1	2.378623E-1	2.317669E-1	2.516034E-1	2.588763E-1	2.117116E-1	2.219317E-1	2.764738E-1	2.812658E-1	2.517475E-1	2.917383E-1	2.558456E-1	2.096555E-1	2.416587E-1	2.158575E-1	2.436982E-1	2.147728E-1	2.685393E-1	2.350065E-1	2.680324E-1	2.634137E-1	2.467128E-1	2.661759E-1	2.871287E-1	2.520555E-1	2.700527E-1	2.363099E-1	2.235046E-1	2.635857E-1	2.368643E-1	2.225612E-1	2.499210E-1	2.328450E-1	2.480627E-1	2.158039E-1	2.572508E-1	2.339207E-1	2.663671E-1	2.360371E-1	2.315994E-1	2.781503E-1	2.130046E-1	2.303777E-1	1.945414E-1	2.380569E-1	2.533208E-1	1.846673E-1	2.340621E-1	2.364912E-1	2.105218E-1	2.563952E-1	2.520225E-1	2.442857E-1	2.622799E-1	2.599271E-1	2.415505E-1	2.598928E-1	1.925110E-1	2.469655E-1	2.258993E-1	2.283023E-1	2.476645E-1	1.598492E-1	2.262690E-1	2.170614E-1	2.594830E-1	1.664534E-1	2.594951E-1	2.227056E-1	2.678602E-1	2.421180E-1	2.259603E-1	2.886903E-1	2.580850E-1	2.769901E-1	2.216021E-1	2.754360E-1	2.301248E-1	2.242837E-1	2.060459E-1	2.517066E-1	2.642582E-1	2.644353E-1	2.188376E-1	2.400557E-1	2.501421E-1	2.505652E-1	2.884071E-1	2.409292E-1	2.527134E-1	2.735888E-1	1.955226E-1	2.170487E-1	2.270765E-1	2.344207E-1	2.301547E-1	2.632963E-1	2.588331E-1	2.145168E-1	2.610288E-1	2.122143E-1	2.434061E-1	2.281041E-1	2.134425E-1	2.483931E-1	1.894157E-1	2.095863E-1	3.186801E-1	2.255843E-1	1.617197E-1
5.349060E+2	4.124261E-1	3.920688E-1	4.301499E-1	3.663860E-1	3.923833E-1	3.500707E-1	4.308784E-1	3.919722E-1	3.986674E-1	3.648267E-1	3.851222E-1	4.204171E-1	3.834288E-1	3.988758E-1	3.923318E-1	3.760767E-1	4.378591E-1	3.903119E-1	4.066380E-1	4.394747E-1	4.728278E-1	3.905333E-1	3.867016E-1	4.542115E-1	4.057068E-1	4.113840E-1	3.964776E-1	3.794847E-1	4.100447E-1	3.967214E-1	4.111951E-1	4.046920E-1	4.168992E-1	3.927705E-1	4.155360E-1	4.081785E-1	4.221228E-1	4.059865E-1	3.922724E-1	3.799813E-1	4.360279E-1	3.429487E-1	3.858776E-1	3.712524E-1	4.104834E-1	4.356944E-1	4.104475E-1	4.060201E-1	4.277377E-1	4.262020E-1	4.044766E-1	3.894562E-1	3.818291E-1	3.687410E-1	4.174403E-1	4.094733E-1	4.283934E-1	4.247043E-1	4.063383E-1	4.222964E-1	3.946706E-1	3.990987E-1	4.209544E-1	3.854041E-1	4.179740E-1	4.110061E-1	3.985934E-1	4.019492E-1	4.333493E-1	3.889559E-1	4.024753E-1	4.178722E-1	4.572742E-1	4.015908E-1	4.381589E-1	4.226481E-1	3.996945E-1	4.200126E-1	4.297534E-1	3.895330E-1	4.038457E-1	4.437401E-1	3.874925E-1	3.979970E-1	4.117370E-1	4.138766E-1	4.388142E-1	3.813222E-1	4.291022E-1	4.208292E-1	3.736597E-1	4.268792E-1	4.104526E-1	3.951441E-1	4.236366E-1	4.656326E-1	4.153321E-1	3.764421E-1	4.157007E-1	4.377154E-1	3.926813E-1	3.824080E-1	3.849218E-1	4.218671E-1	4.216908E-1	4.763179E-1	3.720915E-1	4.580289E-1	4.469842E-1	4.137117E-1	4.199913E-1	4.177390E-1	4.289803E-1	3.503864E-1	3.920335E-1	3.952486E-1	4.462551E-1	4.297296E-1	3.858957E-1	4.205457E-1	4.102497E-1	3.907397E-1	4.341399E-1	3.890742E-1	4.074396E-1	4.309334E-1	4.478927E-1	3.999580E-1	4.352748E-1	3.786365E-1	3.821237E-1	4.167210E-1	4.196216E-1	3.968982E-1	4.243155E-1	4.132094E-1	3.925233E-1	4.032648E-1	4.317597E-1	3.812854E-1	4.171421E-1	4.568694E-1	3.851628E-1	3.834146E-1	4.448875E-1	4.575534E-1	3.533206E-1	4.249089E-1	4.301854E-1	3.820119E-1	4.048199E-1	4.220137E-1	3.980070E-1	4.271717E-1	3.873537E-1	3.655396E-1	4.053466E-1	3.823553E-1	4.263943E-1	4.220899E-1	3.835382E-1	4.080445E-1	4.238809E-1	4.612031E-1	4.424180E-1
5.351140E+2	7.204324E-1	7.317647E-1	7.260126E-1	7.798294E-1	7.378696E-1	7.272702E-1	7.887933E-1	7.052676E-1	7.331985E-1	7.074265E-1	6.884676E-1	7.159985E-1	7.639984E-1	7.541865E-1	6.953867E-1	7.556226E-1	7.550906E-1	7.971097E-1	7.552674E-1	7.186657E-1	7.443199E-1	7.446205E-1	7.590528E-1	8.117850E-1	8.268600E-1	7.060038E-1	7.803266E-1	7.752671E-1	7.417879E-1	7.608198E-1	7.371575E-1	7.197631E-1	7.196607E-1	7.542622E-1	7.657695E-1	7.925795E-1	7.483025E-1	7.521032E-1	7.532738E-1	7.486470E-1	7.220121E-1	6.942780E-1	7.220315E-1	7.504464E-1	7.640272E-1	7.801372E-1	7.767559E-1	7.254873E-1	7.728521E-1	8.011383E-1	6.990491E-1	8.032045E-1	7.598367E-1	7.270985E-1	7.960691E-1	7.138072E-1	7.820153E-1	6.732785E-1	7.671486E-1	7.983733E-1	7.793374E-1	7.612098E-1	8.072444E-1	7.717918E-1	7.418018E-1	7.522981E-1	7.270713E-1	7.774112E-1	7.491045E-1	7.407634E-1	7.635368E-1	7.449092E-1	8.623957E-1	7.225303E-1	7.058197E-1	6.917815E-1	6.888739E-1	7.945383E-1	7.107134E-1	7.187744E-1	8.316016E-1	7.479628E-1	6.816377E-1	7.140928E-1	7.462224E-1	8.181767E-1	7.151269E-1	7.250672E-1	7.696907E-1	6.893268E-1	6.852542E-1	7.291450E-1	7.694717E-1	7.850384E-1	7.306219E-1	7.649923E-1	7.809305E-1	7.668556E-1	7.896283E-1	7.194026E-1	7.822095E-1	7.480645E-1	7.495217E-1	7.534595E-1	7.889279E-1	7.447518E-1	7.175899E-1	7.614920E-1	7.727489E-1	6.936197E-1	7.608794E-1	7.507881E-1	8.118493E-1	7.380243E-1	7.983508E-1	7.159180E-1	6.921056E-1	7.444589E-1	7.010833E-1	7.200513E-1	7.446500E-1	7.838810E-1	7.482803E-1	7.671991E-1	8.039732E-1	6.734272E-1	7.633793E-1	7.419240E-1	7.240022E-1	7.437394E-1	8.027498E-1	7.990173E-1	7.956643E-1	6.940247E-1	7.358767E-1	7.937348E-1	7.561893E-1	7.598724E-1	7.537648E-1	6.562855E-1	7.809256E-1	7.739612E-1	7.345245E-1	7.172698E-1	7.168628E-1	7.125013E-1	7.628896E-1	7.085341E-1	8.350606E-1	7.038351E-1	7.287602E-1	7.472295E-1	7.375110E-1	7.124799E-1	7.219353E-1	7.839908E-1	7.409897E-1	7.045311E-1	7.303968E-1	7.363034E-1	7.505929E-1	7.721600E-1	7.967141E-1	7.337084E-1	7.616562E-1
5.353120E+2	1.186314E+0	1.240154E+0	1.285568E+0	1.193368E+0	1.286401E+0	1.239389E+0	1.238349E+0	1.271854E+0	1.213826E+0	1.183852E+0	1.204547E+0	1.227098E+0	1.310365E+0	1.254509E+0	1.243435E+0	1.256318E+0	1.243669E+0	1.240160E+0	1.237064E+0	1.283302E+0	1.330787E+0	1.298594E+0	1.264351E+0	1.312379E+0	1.239697E+0	1.219104E+0	1.269793E+0	1.209106E+0	1.247667E+0	1.332594E+0	1.276242E+0	1.243481E+0	1.239810E+0	1.277303E+0	1.300771E+0	1.289485E+0	1.223794E+0	1.215298E+0	1.300025E+0	1.242128E+0	1.366257E+0	1.161845E+0	1.285239E+0	1.245313E+0	1.294573E+0	1.288757E+0	1.310624E+0	1.186451E+0	1.248778E+0	1.236064E+0	1.251860E+0	1.233686E+0	1.238878E+0	1.242622E+0	1.173308E+0	1.270387E+0	1.254576E+0	1.244055E+0	1.249211E+0	1.365078E+0	1.244905E+0	1.215876E+0	1.281207E+0	1.243452E+0	1.296716E+0	1.190500E+0	1.266759E+0	1.266281E+0	1.298703E+0	1.178436E+0	1.226929E+0	1.176495E+0	1.277952E+0	1.224527E+0	1.221324E+0	1.271003E+0	1.239616E+0	1.266110E+0	1.236637E+0	1.314509E+0	1.188582E+0	1.265727E+0	1.249234E+0	1.327704E+0	1.254501E+0	1.293754E+0	1.288177E+0	1.236564E+0	1.263830E+0	1.197645E+0	1.199164E+0	1.281103E+0	1.290063E+0	1.268691E+0	1.192641E+0	1.250360E+0	1.307095E+0	1.297014E+0	1.221797E+0	1.201066E+0	1.262483E+0	1.245609E+0	1.200154E+0	1.318053E+0	1.240771E+0	1.294327E+0	1.282148E+0	1.242630E+0	1.280947E+0	1.174530E+0	1.229108E+0	1.297358E+0	1.260212E+0	1.196158E+0	1.287832E+0	1.280600E+0	1.234950E+0	1.224431E+0	1.213317E+0	1.236691E+0	1.250367E+0	1.172843E+0	1.299198E+0	1.236722E+0	1.293560E+0	1.248808E+0	1.310044E+0	1.220093E+0	1.309473E+0	1.182612E+0	1.309431E+0	1.287663E+0	1.199113E+0	1.253794E+0	1.218211E+0	1.269762E+0	1.266079E+0	1.250634E+0	1.229841E+0	1.234078E+0	1.302522E+0	1.232850E+0	1.343567E+0	1.205180E+0	1.289481E+0	1.248781E+0	1.225182E+0	1.187757E+0	1.293754E+0	1.150357E+0	1.208429E+0	1.276977E+0	1.265750E+0	1.207021E+0	1.190898E+0	1.188734E+0	1.330581E+0	1.210250E+0	1.224203E+0	1.205461E+0	1.289065E+0	1.210738E+0	1.286101E+0	1.193157E+0	1.359921E+0
5.355100E+2	1.824370E+0	1.805484E+0	1.836770E+0	1.750870E+0	1.822566E+0	1.769401E+0	1.729506E+0	1.853472E+0	1.820833E+0	1.797047E+0	1.753708E+0	1.752786E+0	1.792434E+0	1.853322E+0	1.805981E+0	1.831811E+0	1.772143E+0	1.914349E+0	1.732713E+0	1.861581E+0	1.825797E+0	1.821664E+0	1.794508E+0	1.819913E+0	1.752510E+0	1.791029E+0	1.838241E+0	1.807043E+0	1.839540E+0	1.810897E+0	1.827520E+0	1.857729E+0	1.773904E+0	1.771737E+0	1.806101E+0	1.740767E+0	1.874392E+0	1.714104E+0	1.825662E+0	1.785248E+0	1.835393E+0	1.779716E+0	1.770328E+0	1.798856E+0	1.900297E+0	1.800538E+0	1.849016E+0	1.693146E+0	1.917636E+0	1.747591E+0	1.739777E+0	1.821754E+0	1.862144E+0	1.728420E+0	1.771106E+0	1.836420E+0	1.849067E+0	1.706198E+0	1.851464E+0	1.814878E+0	1.786570E+0	1.847034E+0	1.754974E+0	1.754358E+0	1.748960E+0	1.772605E+0	1.837398E+0	1.857559E+0	1.865234E+0	1.751182E+0	1.823871E+0	1.792865E+0	1.866101E+0	1.752605E+0	1.751015E+0	1.848477E+0	1.812162E+0	1.764458E+0	1.772598E+0	1.836903E+0	1.818490E+0	1.814982E+0	1.673961E+0	1.888266E+0	1.830598E+0	1.694662E+0	1.835718E+0	1.812653E+0	1.748182E+0	1.727286E+0	1.690320E+0	1.698633E+0	1.808473E+0	1.737237E+0	1.832406E+0	1.786826E+0	1.806569E+0	1.807085E+0	1.680746E+0	1.723796E+0	1.726733E+0	1.803396E+0	1.723604E+0	1.789140E+0	1.845974E+0	1.703339E+0	1.801987E+0	1.679442E+0	1.775263E+0	1.686028E+0	1.770693E+0	1.806019E+0	1.815251E+0	1.687543E+0	1.812971E+0	1.805883E+0	1.837526E+0	1.790931E+0	1.831937E+0	1.770436E+0	1.810912E+0	1.698241E+0	1.787400E+0	1.741291E+0	1.912799E+0	1.715731E+0	1.780222E+0	1.654779E+0	1.804075E+0	1.678501E+0	1.803319E+0	1.734887E+0	1.764113E+0	1.790929E+0	1.749867E+0	1.772377E+0	1.770791E+0	1.688732E+0	1.800667E+0	1.691162E+0	1.798599E+0	1.847636E+0	1.787011E+0	1.805248E+0	1.811567E+0	1.812108E+0	1.659389E+0	1.812499E+0	1.784033E+0	1.776807E+0	1.741059E+0	1.723862E+0	1.812715E+0	1.686502E+0	1.624662E+0	1.714126E+0	1.775567E+0	1.702908E+0	1.745050E+0	1.701501E+0	1.827364E+0	1.763821E+0	1.771398E+0	1.772657E+0	1.796936E+0
5.357090E+2	2.189206E+0	2.222792E+0	2.237220E+0	2.249964E+0	2.267921E+0	2.095745E+0	2.103553E+0	2.224169E+0	2.203194E+0	2.209908E+0	2.093162E+0	2.122034E+0	2.195547E+0	2.354093E+0	2.126381E+0	2.209820E+0	2.200948E+0	2.263877E+0	2.161173E+0	2.282482E+0	2.097764E+0	2.254718E+0	2.150733E+0	2.213723E+0	2.180415E+0	2.114445E+0	2.137312E+0	2.199364E+0	2.182262E+0	2.145539E+0	2.216931E+0	2.140591E+0	2.151647E+0	2.207947E+0	2.156278E+0	2.169057E+0	2.220773E+0	2.108185E+0	2.198302E+0	2.169402E+0	2.307549E+0	1.981713E+0	2.158454E+0	2.165809E+0	2.187328E+0	2.196711E+0	2.238527E+0	2.119611E+0	2.194910E+0	2.239179E+0	2.153724E+0	2.245329E+0	2.238157E+0	2.041587E+0	2.056887E+0	2.111582E+0	2.252718E+0	2.103369E+0	2.166244E+0	2.178704E+0	2.165818E+0	2.131724E+0	2.170118E+0	2.188144E+0	2.153137E+0	2.145941E+0	2.098623E+0	2.266633E+0	2.223207E+0	2.150341E+0	2.064291E+0	2.121010E+0	2.307074E+0	2.140448E+0	2.019055E+0	2.252032E+0	2.143901E+0	2.086282E+0	2.169450E+0	2.141270E+0	2.273579E+0	2.148483E+0	2.076912E+0	2.149819E+0	2.149876E+0	2.121554E+0	2.054051E+0	2.151122E+0	2.141125E+0	2.068248E+0	2.188825E+0	2.094950E+0	2.196918E+0	2.156857E+0	2.204797E+0	2.235840E+0	2.198346E+0	2.166282E+0	2.063771E+0	2.061108E+0	2.185930E+0	2.165563E+0	2.078631E+0	2.158270E+0	2.201100E+0	2.159366E+0	2.105415E+0	2.073571E+0	2.232598E+0	2.037206E+0	2.189161E+0	2.229645E+0	2.163994E+0	2.078462E+0	2.173356E+0	2.175203E+0	2.185060E+0	2.149511E+0	2.065062E+0	2.103605E+0	2.219062E+0	1.981490E+0	2.083066E+0	2.116063E+0	2.136582E+0	2.072699E+0	2.210807E+0	2.096197E+0	2.156596E+0	2.070033E+0	2.116421E+0	2.254455E+0	2.124583E+0	2.097685E+0	2.115348E+0	2.122467E+0	2.245427E+0	2.054268E+0	2.096709E+0	1.997308E+0	2.172290E+0	2.163317E+0	2.149022E+0	2.118734E+0	2.155709E+0	2.121016E+0	2.074721E+0	2.020943E+0	2.028437E+0	2.065682E+0	2.133145E+0	2.033515E+0	2.122744E+0	2.043168E+0	2.088535E+0	2.084177E+0	2.089409E+0	2.073674E+0	2.079589E+0	2.144637E+0	2.138198E+0	2.060330E+0	2.081431E+0	2.134761E+0	2.311032E+0
5.359130E+2	2.340413E+0	2.396449E+0	2.380847E+0	2.371524E+0	2.539305E+0	2.293235E+0	2.325867E+0	2.415494E+0	2.393548E+0	2.463934E+0	2.274636E+0	2.402826E+0	2.445864E+0	2.390145E+0	2.323056E+0	2.363287E+0	2.310830E+0	2.374808E+0	2.280820E+0	2.386290E+0	2.364792E+0	2.395727E+0	2.365417E+0	2.382923E+0	2.310570E+0	2.289324E+0	2.339418E+0	2.342480E+0	2.333398E+0	2.443348E+0	2.358225E+0	2.384437E+0	2.301020E+0	2.418688E+0	2.316255E+0	2.291198E+0	2.378182E+0	2.389611E+0	2.329288E+0	2.379015E+0	2.481190E+0	2.233557E+0	2.284108E+0	2.277424E+0	2.354510E+0	2.256349E+0	2.313200E+0	2.298137E+0	2.283184E+0	2.408700E+0	2.365634E+0	2.299883E+0	2.385304E+0	2.214202E+0	2.232358E+0	2.276531E+0	2.365338E+0	2.248185E+0	2.296856E+0	2.443757E+0	2.317358E+0	2.313165E+0	2.467528E+0	2.310198E+0	2.257441E+0	2.307074E+0	2.295818E+0	2.319064E+0	2.368591E+0	2.282265E+0	2.281685E+0	2.246029E+0	2.385284E+0	2.313575E+0	2.300720E+0	2.313550E+0	2.256374E+0	2.278240E+0	2.224554E+0	2.338253E+0	2.343176E+0	2.382905E+0	2.257753E+0	2.363129E+0	2.288821E+0	2.368942E+0	2.282349E+0	2.275715E+0	2.309267E+0	2.261412E+0	2.369531E+0	2.213842E+0	2.333174E+0	2.326741E+0	2.257592E+0	2.284935E+0	2.305199E+0	2.313932E+0	2.217061E+0	2.329140E+0	2.404265E+0	2.267376E+0	2.242148E+0	2.341372E+0	2.411476E+0	2.289000E+0	2.253086E+0	2.326869E+0	2.321165E+0	2.291555E+0	2.290318E+0	2.321989E+0	2.234743E+0	2.271008E+0	2.332914E+0	2.279386E+0	2.351915E+0	2.340004E+0	2.328795E+0	2.239809E+0	2.416611E+0	2.141587E+0	2.293777E+0	2.234928E+0	2.319799E+0	2.238720E+0	2.438001E+0	2.212893E+0	2.427760E+0	2.124528E+0	2.328284E+0	2.408633E+0	2.253375E+0	2.247529E+0	2.222701E+0	2.276188E+0	2.403262E+0	2.260685E+0	2.175159E+0	2.166848E+0	2.275373E+0	2.356817E+0	2.300321E+0	2.177262E+0	2.352888E+0	2.168965E+0	2.144717E+0	2.288588E+0	2.309146E+0	2.279320E+0	2.258360E+0	2.170340E+0	2.376688E+0	2.233715E+0	2.280086E+0	2.193488E+0	2.381343E+0	2.280023E+0	2.118124E+0	2.277383E+0	2.373348E+0	2.237488E+0	2.329342E+0	2.194830E+0	2.329682E+0
5.361110E+2	2.351429E+0	2.512333E+0	2.497017E+0	2.418480E+0	2.561657E+0	2.451818E+0	2.339862E+0	2.362335E+0	2.421209E+0	2.442412E+0	2.386582E+0	2.473837E+0	2.476471E+0	2.451070E+0	2.436776E+0	2.550024E+0	2.273159E+0	2.569934E+0	2.324354E+0	2.464548E+0	2.409716E+0	2.482654E+0	2.465748E+0	2.496566E+0	2.391784E+0	2.359297E+0	2.459425E+0	2.406030E+0	2.367226E+0	2.505458E+0	2.438891E+0	2.394869E+0	2.366167E+0	2.428157E+0	2.401415E+0	2.427943E+0	2.422309E+0	2.380238E+0	2.404385E+0	2.333913E+0	2.504312E+0	2.418640E+0	2.336287E+0	2.486468E+0	2.479950E+0	2.482409E+0	2.449567E+0	2.308900E+0	2.460340E+0	2.571396E+0	2.442956E+0	2.450102E+0	2.501839E+0	2.325996E+0	2.342644E+0	2.349701E+0	2.436150E+0	2.292267E+0	2.428193E+0	2.453747E+0	2.362936E+0	2.301164E+0	2.396484E+0	2.341028E+0	2.394114E+0	2.356216E+0	2.349040E+0	2.456483E+0	2.436031E+0	2.378798E+0	2.296043E+0	2.264858E+0	2.557371E+0	2.327062E+0	2.373358E+0	2.380340E+0	2.341447E+0	2.422918E+0	2.274268E+0	2.335873E+0	2.450387E+0	2.448270E+0	2.454078E+0	2.398383E+0	2.452464E+0	2.414777E+0	2.423626E+0	2.336788E+0	2.454171E+0	2.399190E+0	2.328565E+0	2.283721E+0	2.337297E+0	2.358636E+0	2.312021E+0	2.481935E+0	2.520716E+0	2.383161E+0	2.342214E+0	2.327529E+0	2.365958E+0	2.390817E+0	2.344973E+0	2.455127E+0	2.514232E+0	2.392426E+0	2.347427E+0	2.358562E+0	2.447790E+0	2.266109E+0	2.424371E+0	2.442408E+0	2.393452E+0	2.275371E+0	2.497062E+0	2.336248E+0	2.383267E+0	2.405140E+0	2.405872E+0	2.280762E+0	2.440838E+0	2.288034E+0	2.331294E+0	2.193647E+0	2.441237E+0	2.221299E+0	2.428758E+0	2.393967E+0	2.412789E+0	2.230340E+0	2.401737E+0	2.462328E+0	2.364862E+0	2.442310E+0	2.386520E+0	2.384864E+0	2.437811E+0	2.306095E+0	2.316350E+0	2.249856E+0	2.459456E+0	2.321977E+0	2.368599E+0	2.339305E+0	2.357886E+0	2.355051E+0	2.317028E+0	2.331868E+0	2.428460E+0	2.341304E+0	2.270099E+0	2.230081E+0	2.298479E+0	2.339452E+0	2.306431E+0	2.324069E+0	2.354629E+0	2.264243E+0	2.221166E+0	2.292686E+0	2.362943E+0	2.258334E+0	2.360971E+0	2.319867E+0	2.366928E+0
5.363100E+2	2.340744E+0	2.431248E+0	2.504315E+0	2.323789E+0	2.539412E+0	2.246969E+0	2.238455E+0	2.394010E+0	2.388526E+0	2.457823E+0	2.392523E+0	2.327579E+0	2.360413E+0	2.476076E+0	2.314955E+0	2.413770E+0	2.355671E+0	2.496352E+0	2.243888E+0	2.415109E+0	2.418593E+0	2.425048E+0	2.378325E+0	2.478525E+0	2.366936E+0	2.297797E+0	2.308983E+0	2.277180E+0	2.318608E+0	2.398968E+0	2.318600E+0	2.416839E+0	2.283429E+0	2.367760E+0	2.377550E+0	2.337534E+0	2.439399E+0	2.342889E+0	2.396591E+0	2.246778E+0	2.350095E+0	2.267534E+0	2.331123E+0	2.366287E+0	2.402284E+0	2.341986E+0	2.397135E+0	2.277350E+0	2.421863E+0	2.413295E+0	2.347300E+0	2.391733E+0	2.467850E+0	2.221997E+0	2.255009E+0	2.295625E+0	2.409077E+0	2.255500E+0	2.277136E+0	2.442044E+0	2.318782E+0	2.346487E+0	2.300822E+0	2.228740E+0	2.327020E+0	2.252525E+0	2.280012E+0	2.343673E+0	2.389297E+0	2.185599E+0	2.231135E+0	2.253983E+0	2.440759E+0	2.263005E+0	2.256117E+0	2.322572E+0	2.292399E+0	2.293837E+0	2.229774E+0	2.280240E+0	2.392082E+0	2.394881E+0	2.372091E+0	2.344320E+0	2.256435E+0	2.349683E+0	2.243593E+0	2.260726E+0	2.301032E+0	2.283707E+0	2.239704E+0	2.290165E+0	2.280372E+0	2.293134E+0	2.214772E+0	2.396955E+0	2.360702E+0	2.315539E+0	2.295409E+0	2.350794E+0	2.305335E+0	2.340695E+0	2.286898E+0	2.283169E+0	2.309238E+0	2.305363E+0	2.205826E+0	2.306026E+0	2.315144E+0	2.356102E+0	2.313058E+0	2.260232E+0	2.333371E+0	2.149274E+0	2.330693E+0	2.305133E+0	2.354477E+0	2.290757E+0	2.306385E+0	2.303654E+0	2.432185E+0	2.239988E+0	2.268711E+0	2.253486E+0	2.444540E+0	2.299344E+0	2.348093E+0	2.317855E+0	2.307258E+0	2.241787E+0	2.392070E+0	2.325893E+0	2.204491E+0	2.290687E+0	2.327357E+0	2.362776E+0	2.310612E+0	2.275874E+0	2.272801E+0	2.202561E+0	2.381251E+0	2.299091E+0	2.226729E+0	2.253088E+0	2.419252E+0	2.298088E+0	2.247476E+0	2.256864E+0	2.350035E+0	2.179237E+0	2.280702E+0	2.271349E+0	2.406086E+0	2.234139E+0	2.235520E+0	2.217734E+0	2.267820E+0	2.289583E+0	2.226580E+0	2.237742E+0	2.293010E+0	2.128791E+0	2.325257E+0	2.227797E+0	2.438753E+0
5.365140E+2	2.063721E+0	2.076559E+0	2.049637E+0	2.060693E+0	2.163448E+0	2.086832E+0	2.017233E+0	2.034028E+0	2.063167E+0	2.016718E+0	2.012010E+0	2.087145E+0	2.048423E+0	2.145942E+0	2.027713E+0	2.110375E+0	2.012301E+0	2.174386E+0	2.042286E+0	2.130264E+0	2.097041E+0	2.036857E+0	2.043988E+0	2.171884E+0	2.106729E+0	2.033411E+0	2.072941E+0	1.983538E+0	2.055310E+0	2.135864E+0	2.088396E+0	2.091211E+0	2.060848E+0	2.078579E+0	2.117731E+0	2.071252E+0	2.035190E+0	2.056963E+0	2.080668E+0	2.080616E+0	2.113072E+0	1.997596E+0	2.059146E+0	2.111479E+0	2.084573E+0	1.981166E+0	2.074923E+0	1.972497E+0	2.009123E+0	2.121654E+0	2.021729E+0	2.104998E+0	2.073441E+0	1.953102E+0	2.031284E+0	1.990926E+0	2.150483E+0	2.066405E+0	2.044482E+0	2.069418E+0	2.007153E+0	2.056884E+0	2.077874E+0	2.051523E+0	2.004147E+0	2.054104E+0	2.005544E+0	2.091101E+0	2.012411E+0	2.079820E+0	2.022040E+0	1.988613E+0	2.115353E+0	1.965724E+0	1.978514E+0	2.084875E+0	2.017380E+0	2.103161E+0	1.989258E+0	2.033164E+0	2.016717E+0	2.144409E+0	1.924242E+0	2.002601E+0	2.115767E+0	2.052422E+0	2.003277E+0	1.965463E+0	2.000250E+0	1.949559E+0	2.049480E+0	2.022459E+0	2.045767E+0	2.122159E+0	1.983268E+0	2.092094E+0	2.087343E+0	2.018795E+0	1.993460E+0	2.073520E+0	2.020396E+0	2.051976E+0	2.121578E+0	2.092708E+0	2.049639E+0	2.021507E+0	2.057391E+0	2.066695E+0	2.017044E+0	1.984547E+0	2.125022E+0	2.098347E+0	2.007085E+0	1.989565E+0	2.054729E+0	2.089287E+0	2.098903E+0	2.063123E+0	2.127485E+0	1.999028E+0	2.116870E+0	1.913427E+0	2.030037E+0	2.048614E+0	2.129864E+0	2.015478E+0	1.999415E+0	2.006858E+0	2.070425E+0	1.986617E+0	2.025964E+0	2.077201E+0	2.030826E+0	1.994207E+0	2.016230E+0	1.988478E+0	2.092235E+0	2.018236E+0	2.054562E+0	1.901548E+0	2.045609E+0	2.109336E+0	1.958146E+0	2.063045E+0	2.112043E+0	1.944073E+0	1.955437E+0	2.057205E+0	2.056319E+0	1.949073E+0	2.003022E+0	1.903038E+0	2.064501E+0	2.045395E+0	1.952142E+0	2.010652E+0	2.018320E+0	1.922260E+0	1.976319E+0	1.949077E+0	2.111582E+0	1.848941E+0	2.144268E+0	1.868604E+0	2.153468E+0
5.367240E+2	1.642156E+0	1.738347E+0	1.742552E+0	1.691354E+0	1.808118E+0	1.603436E+0	1.670678E+0	1.693807E+0	1.692472E+0	1.696706E+0	1.684649E+0	1.654998E+0	1.748128E+0	1.780054E+0	1.686902E+0	1.741036E+0	1.642975E+0	1.741367E+0	1.638071E+0	1.765258E+0	1.790413E+0	1.739084E+0	1.707687E+0	1.763470E+0	1.669849E+0	1.745178E+0	1.737119E+0	1.732906E+0	1.672511E+0	1.769119E+0	1.770719E+0	1.744458E+0	1.711191E+0	1.753932E+0	1.664952E+0	1.706032E+0	1.710484E+0	1.642459E+0	1.733573E+0	1.636666E+0	1.756705E+0	1.654993E+0	1.704770E+0	1.682876E+0	1.740906E+0	1.769215E+0	1.632990E+0	1.686173E+0	1.661694E+0	1.661046E+0	1.705837E+0	1.777563E+0	1.705432E+0	1.647247E+0	1.712555E+0	1.677563E+0	1.818828E+0	1.653974E+0	1.666172E+0	1.788504E+0	1.683877E+0	1.740596E+0	1.785280E+0	1.621861E+0	1.662036E+0	1.755359E+0	1.688967E+0	1.714955E+0	1.750707E+0	1.631610E+0	1.711484E+0	1.674158E+0	1.714031E+0	1.714960E+0	1.633482E+0	1.732376E+0	1.732707E+0	1.718067E+0	1.661404E+0	1.734038E+0	1.726153E+0	1.777541E+0	1.713792E+0	1.740463E+0	1.689669E+0	1.676064E+0	1.738766E+0	1.746156E+0	1.684810E+0	1.618629E+0	1.680171E+0	1.583255E+0	1.721448E+0	1.688777E+0	1.639338E+0	1.755124E+0	1.780609E+0	1.718039E+0	1.606941E+0	1.712600E+0	1.637994E+0	1.699140E+0	1.702752E+0	1.729303E+0	1.806272E+0	1.681467E+0	1.706337E+0	1.627477E+0	1.716283E+0	1.657216E+0	1.765922E+0	1.758814E+0	1.684930E+0	1.765571E+0	1.697442E+0	1.699792E+0	1.748233E+0	1.759402E+0	1.750663E+0	1.697348E+0	1.785833E+0	1.641863E+0	1.694167E+0	1.632826E+0	1.733076E+0	1.722387E+0	1.679530E+0	1.742762E+0	1.843384E+0	1.687717E+0	1.633365E+0	1.664156E+0	1.708056E+0	1.698432E+0	1.656516E+0	1.704690E+0	1.728835E+0	1.646614E+0	1.641925E+0	1.625801E+0	1.750896E+0	1.787928E+0	1.642703E+0	1.680579E+0	1.775547E+0	1.691266E+0	1.708144E+0	1.778087E+0	1.670906E+0	1.620949E+0	1.662525E+0	1.646023E+0	1.763568E+0	1.724093E+0	1.795442E+0	1.674350E+0	1.678722E+0	1.617684E+0	1.607941E+0	1.699944E+0	1.709190E+0	1.715412E+0	1.726843E+0	1.667702E+0	1.768340E+0
5.369180E+2	1.662950E+0	1.678209E+0	1.653174E+0	1.558740E+0	1.669383E+0	1.597504E+0	1.572080E+0	1.672246E+0	1.622912E+0	1.668732E+0	1.640490E+0	1.622265E+0	1.680942E+0	1.635211E+0	1.609741E+0	1.654075E+0	1.560269E+0	1.674769E+0	1.627159E+0	1.648016E+0	1.698639E+0	1.628237E+0	1.611636E+0	1.667052E+0	1.584919E+0	1.634298E+0	1.675420E+0	1.627286E+0	1.654918E+0	1.721142E+0	1.631739E+0	1.601452E+0	1.631638E+0	1.625633E+0	1.656521E+0	1.624351E+0	1.643983E+0	1.656403E+0	1.676612E+0	1.678776E+0	1.665004E+0	1.591315E+0	1.589701E+0	1.608996E+0	1.641693E+0	1.615724E+0	1.671475E+0	1.574205E+0	1.575652E+0	1.735392E+0	1.664859E+0	1.646617E+0	1.709619E+0	1.576520E+0	1.635913E+0	1.543532E+0	1.751051E+0	1.556880E+0	1.689467E+0	1.669166E+0	1.673390E+0	1.582736E+0	1.750794E+0	1.633238E+0	1.668714E+0	1.677349E+0	1.657953E+0	1.719256E+0	1.725842E+0	1.568030E+0	1.565459E+0	1.630689E+0	1.706427E+0	1.628129E+0	1.599851E+0	1.688473E+0	1.635748E+0	1.544824E+0	1.587916E+0	1.740502E+0	1.693017E+0	1.647138E+0	1.623151E+0	1.715769E+0	1.604013E+0	1.684878E+0	1.657431E+0	1.619554E+0	1.625211E+0	1.586896E+0	1.602595E+0	1.670344E+0	1.633596E+0	1.651273E+0	1.646252E+0	1.709733E+0	1.678732E+0	1.587853E+0	1.616073E+0	1.634900E+0	1.602806E+0	1.648086E+0	1.554370E+0	1.638833E+0	1.691943E+0	1.621966E+0	1.664532E+0	1.607379E+0	1.612011E+0	1.564078E+0	1.731874E+0	1.644482E+0	1.616222E+0	1.545088E+0	1.627205E+0	1.628510E+0	1.616417E+0	1.668459E+0	1.629648E+0	1.567929E+0	1.743774E+0	1.521648E+0	1.654376E+0	1.557663E+0	1.647432E+0	1.559695E+0	1.601123E+0	1.644525E+0	1.662530E+0	1.567367E+0	1.604097E+0	1.701844E+0	1.567673E+0	1.610680E+0	1.623031E+0	1.625074E+0	1.616025E+0	1.660202E+0	1.662930E+0	1.495290E+0	1.622919E+0	1.538327E+0	1.642665E+0	1.635743E+0	1.720902E+0	1.611601E+0	1.553423E+0	1.646852E+0	1.772315E+0	1.605810E+0	1.658072E+0	1.628150E+0	1.568920E+0	1.577329E+0	1.637288E+0	1.549920E+0	1.613036E+0	1.559243E+0	1.655062E+0	1.641930E+0	1.704016E+0	1.529278E+0	1.612894E+0	1.503432E+0	1.764250E+0
5.371120E+2	1.460657E+0	1.411469E+0	1.492543E+0	1.424669E+0	1.576485E+0	1.402120E+0	1.433469E+0	1.539817E+0	1.451634E+0	1.456196E+0	1.474261E+0	1.458397E+0	1.479758E+0	1.498534E+0	1.457185E+0	1.529322E+0	1.459135E+0	1.478534E+0	1.507297E+0	1.546474E+0	1.495138E+0	1.471027E+0	1.508785E+0	1.581392E+0	1.363532E+0	1.473387E+0	1.472865E+0	1.551990E+0	1.405627E+0	1.538160E+0	1.527431E+0	1.460711E+0	1.436534E+0	1.586782E+0	1.484826E+0	1.525569E+0	1.509686E+0	1.434414E+0	1.526176E+0	1.465210E+0	1.509418E+0	1.369362E+0	1.475360E+0	1.471445E+0	1.468291E+0	1.473311E+0	1.522782E+0	1.398666E+0	1.451958E+0	1.626371E+0	1.469829E+0	1.510719E+0	1.530945E+0	1.476202E+0	1.476048E+0	1.463718E+0	1.522222E+0	1.358165E+0	1.480596E+0	1.560097E+0	1.472241E+0	1.494064E+0	1.465491E+0	1.466934E+0	1.459300E+0	1.431235E+0	1.459874E+0	1.509246E+0	1.474821E+0	1.406045E+0	1.512171E+0	1.443326E+0	1.517275E+0	1.457290E+0	1.473604E+0	1.518457E+0	1.469185E+0	1.483875E+0	1.449859E+0	1.523758E+0	1.501660E+0	1.567958E+0	1.399814E+0	1.477717E+0	1.466192E+0	1.498921E+0	1.474743E+0	1.482502E+0	1.586907E+0	1.489624E+0	1.453584E+0	1.472629E+0	1.453024E+0	1.472872E+0	1.453679E+0	1.492437E+0	1.493729E+0	1.443933E+0	1.427347E+0	1.507013E+0	1.496722E+0	1.485018E+0	1.462803E+0	1.466935E+0	1.517406E+0	1.533909E+0	1.403170E+0	1.457107E+0	1.454770E+0	1.448335E+0	1.511594E+0	1.504696E+0	1.440203E+0	1.468493E+0	1.465013E+0	1.478880E+0	1.432271E+0	1.517830E+0	1.502883E+0	1.493641E+0	1.469671E+0	1.421794E+0	1.438458E+0	1.371050E+0	1.547684E+0	1.451993E+0	1.480123E+0	1.469216E+0	1.484917E+0	1.315946E+0	1.554114E+0	1.458486E+0	1.405287E+0	1.394847E+0	1.496652E+0	1.520289E+0	1.515049E+0	1.525687E+0	1.453907E+0	1.428382E+0	1.512203E+0	1.521232E+0	1.434965E+0	1.405898E+0	1.463569E+0	1.477437E+0	1.458821E+0	1.456247E+0	1.495720E+0	1.406076E+0	1.386749E+0	1.472101E+0	1.468599E+0	1.380294E+0	1.433159E+0	1.448034E+0	1.467458E+0	1.411141E+0	1.482504E+0	1.362543E+0	1.499996E+0	1.392399E+0	1.443373E+0	1.438342E+0	1.461698E+0
5.373170E+2	1.249864E+0	1.212439E+0	1.214422E+0	1.236436E+0	1.301137E+0	1.234039E+0	1.229361E+0	1.189047E+0	1.199628E+0	1.205095E+0	1.174018E+0	1.204235E+0	1.223829E+0	1.282060E+0	1.200037E+0	1.259176E+0	1.224219E+0	1.387960E+0	1.285097E+0	1.282094E+0	1.297829E+0	1.200921E+0	1.222547E+0	1.306831E+0	1.219539E+0	1.241498E+0	1.226083E+0	1.263757E+0	1.230727E+0	1.259633E+0	1.248270E+0	1.291267E+0	1.268834E+0	1.238222E+0	1.262244E+0	1.294679E+0	1.254090E+0	1.253632E+0	1.265532E+0	1.161537E+0	1.307993E+0	1.235954E+0	1.218405E+0	1.232246E+0	1.272443E+0	1.290431E+0	1.294801E+0	1.247287E+0	1.253407E+0	1.285961E+0	1.189765E+0	1.298302E+0	1.282123E+0	1.214390E+0	1.245107E+0	1.154229E+0	1.244851E+0	1.241561E+0	1.178150E+0	1.254446E+0	1.267827E+0	1.285125E+0	1.288153E+0	1.280005E+0	1.220906E+0	1.300628E+0	1.229094E+0	1.214206E+0	1.219804E+0	1.213588E+0	1.203932E+0	1.172555E+0	1.343755E+0	1.243919E+0	1.147551E+0	1.254610E+0	1.201151E+0	1.201376E+0	1.184286E+0	1.315883E+0	1.209215E+0	1.296902E+0	1.195259E+0	1.252414E+0	1.305295E+0	1.253625E+0	1.270418E+0	1.259385E+0	1.249549E+0	1.193505E+0	1.211437E+0	1.210377E+0	1.229598E+0	1.251545E+0	1.266182E+0	1.239314E+0	1.181627E+0	1.231053E+0	1.226046E+0	1.255860E+0	1.168713E+0	1.309435E+0	1.276476E+0	1.293007E+0	1.293644E+0	1.198391E+0	1.202217E+0	1.185772E+0	1.199361E+0	1.225364E+0	1.274897E+0	1.262395E+0	1.265094E+0	1.200852E+0	1.219862E+0	1.286980E+0	1.330264E+0	1.274952E+0	1.233857E+0	1.207058E+0	1.235132E+0	1.252432E+0	1.229000E+0	1.252479E+0	1.255709E+0	1.222860E+0	1.274121E+0	1.182218E+0	1.272554E+0	1.183407E+0	1.263249E+0	1.247355E+0	1.229624E+0	1.249992E+0	1.224040E+0	1.295178E+0	1.265390E+0	1.223378E+0	1.247320E+0	1.201325E+0	1.201426E+0	1.225816E+0	1.279657E+0	1.210698E+0	1.247764E+0	1.222085E+0	1.191585E+0	1.251894E+0	1.284143E+0	1.193972E+0	1.207096E+0	1.221789E+0	1.304707E+0	1.193892E+0	1.276872E+0	1.225511E+0	1.209141E+0	1.248178E+0	1.233117E+0	1.245448E+0	1.289586E+0	1.208068E+0	1.256315E+0	1.162851E+0	1.360137E+0
5.375060E+2	1.229897E+0	1.119013E+0	1.217841E+0	1.160291E+0	1.269730E+0	1.202969E+0	1.195897E+0	1.206221E+0	1.210453E+0	1.155019E+0	1.234011E+0	1.230951E+0	1.216966E+0	1.259892E+0	1.138549E+0	1.205544E+0	1.212314E+0	1.152159E+0	1.137340E+0	1.188988E+0	1.188977E+0	1.244381E+0	1.181934E+0	1.205288E+0	1.180252E+0	1.133300E+0	1.206043E+0	1.184013E+0	1.202427E+0	1.262628E+0	1.196551E+0	1.221145E+0	1.125849E+0	1.182666E+0	1.247543E+0	1.198345E+0	1.188859E+0	1.209595E+0	1.224225E+0	1.253060E+0	1.230972E+0	1.109191E+0	1.144361E+0	1.201065E+0	1.153367E+0	1.128642E+0	1.249186E+0	1.136756E+0	1.245013E+0	1.308173E+0	1.165026E+0	1.206744E+0	1.211835E+0	1.160694E+0	1.183728E+0	1.150572E+0	1.191287E+0	1.135278E+0	1.187202E+0	1.272564E+0	1.165860E+0	1.068648E+0	1.257596E+0	1.176647E+0	1.186759E+0	1.250659E+0	1.252136E+0	1.243131E+0	1.288290E+0	1.139871E+0	1.154578E+0	1.134207E+0	1.302991E+0	1.180142E+0	1.178523E+0	1.227313E+0	1.153225E+0	1.233887E+0	1.150850E+0	1.260379E+0	1.145818E+0	1.266747E+0	1.200608E+0	1.141261E+0	1.249198E+0	1.220938E+0	1.188359E+0	1.200781E+0	1.218025E+0	1.233009E+0	1.184463E+0	1.244002E+0	1.174359E+0	1.241218E+0	1.211949E+0	1.175679E+0	1.176819E+0	1.162183E+0	1.188848E+0	1.170133E+0	1.194482E+0	1.194016E+0	1.154828E+0	1.205025E+0	1.237463E+0	1.201890E+0	1.231629E+0	1.177528E+0	1.168655E+0	1.196180E+0	1.158833E+0	1.223351E+0	1.216428E+0	1.204601E+0	1.247055E+0	1.236240E+0	1.149319E+0	1.172158E+0	1.225573E+0	1.142498E+0	1.216761E+0	1.180489E+0	1.203173E+0	1.141313E+0	1.143981E+0	1.195011E+0	1.215458E+0	1.125036E+0	1.157519E+0	1.120963E+0	1.215328E+0	1.266529E+0	1.190414E+0	1.143511E+0	1.231489E+0	1.148235E+0	1.162202E+0	1.239509E+0	1.156578E+0	1.138507E+0	1.196558E+0	1.233384E+0	1.121521E+0	1.212508E+0	1.207578E+0	1.190936E+0	1.165510E+0	1.216980E+0	1.236021E+0	1.096831E+0	1.181844E+0	1.102349E+0	1.198329E+0	1.105824E+0	1.198845E+0	1.183664E+0	1.191585E+0	1.105470E+0	1.191712E+0	1.194195E+0	1.292853E+0	1.181990E+0	1.177680E+0	1.200986E+0	1.249942E+0
5.377210E+2	1.317574E+0	1.360756E+0	1.354422E+0	1.312539E+0	1.445043E+0	1.362847E+0	1.312772E+0	1.340593E+0	1.337287E+0	1.290833E+0	1.247345E+0	1.316355E+0	1.398780E+0	1.401832E+0	1.318752E+0	1.313317E+0	1.333250E+0	1.391836E+0	1.291072E+0	1.441428E+0	1.340755E+0	1.382478E+0	1.360551E+0	1.419016E+0	1.353774E+0	1.308915E+0	1.373091E+0	1.415317E+0	1.347550E+0	1.354865E+0	1.355187E+0	1.387485E+0	1.294790E+0	1.420565E+0	1.398604E+0	1.344607E+0	1.364301E+0	1.268864E+0	1.374790E+0	1.315244E+0	1.381136E+0	1.330494E+0	1.308205E+0	1.328714E+0	1.305587E+0	1.373546E+0	1.349008E+0	1.337753E+0	1.330017E+0	1.331305E+0	1.347859E+0	1.320717E+0	1.335425E+0	1.329725E+0	1.340381E+0	1.341768E+0	1.317595E+0	1.343259E+0	1.338099E+0	1.391173E+0	1.334957E+0	1.314225E+0	1.398920E+0	1.344834E+0	1.318558E+0	1.301331E+0	1.322979E+0	1.437013E+0	1.366394E+0	1.318200E+0	1.365826E+0	1.318636E+0	1.372726E+0	1.321375E+0	1.276317E+0	1.419867E+0	1.318160E+0	1.295355E+0	1.341889E+0	1.323306E+0	1.411702E+0	1.376007E+0	1.301271E+0	1.374058E+0	1.305910E+0	1.359773E+0	1.337359E+0	1.312484E+0	1.364162E+0	1.349537E+0	1.318147E+0	1.386020E+0	1.347658E+0	1.299891E+0	1.239757E+0	1.386321E+0	1.386718E+0	1.300181E+0	1.325906E+0	1.300130E+0	1.303042E+0	1.351348E+0	1.337297E+0	1.386215E+0	1.344039E+0	1.354825E+0	1.248396E+0	1.302498E+0	1.354464E+0	1.311794E+0	1.293229E+0	1.385612E+0	1.318493E+0	1.224557E+0	1.335996E+0	1.312436E+0	1.374265E+0	1.334207E+0	1.280848E+0	1.277410E+0	1.435120E+0	1.294862E+0	1.325229E+0	1.346789E+0	1.395151E+0	1.329948E+0	1.358352E+0	1.346242E+0	1.280455E+0	1.260526E+0	1.337460E+0	1.319107E+0	1.296666E+0	1.346006E+0	1.292435E+0	1.357519E+0	1.409725E+0	1.334484E+0	1.320708E+0	1.273425E+0	1.364620E+0	1.309688E+0	1.354483E+0	1.367395E+0	1.334198E+0	1.342046E+0	1.255157E+0	1.423944E+0	1.364063E+0	1.336627E+0	1.353233E+0	1.287265E+0	1.273443E+0	1.378593E+0	1.362398E+0	1.306962E+0	1.288123E+0	1.304688E+0	1.298139E+0	1.306771E+0	1.393758E+0	1.341492E+0	1.379470E+0	1.251928E+0	1.443556E+0
5.379050E+2	1.463810E+0	1.428247E+0	1.454462E+0	1.472164E+0	1.498309E+0	1.478928E+0	1.475446E+0	1.485022E+0	1.481507E+0	1.446793E+0	1.430634E+0	1.462681E+0	1.428035E+0	1.467667E+0	1.454397E+0	1.552518E+0	1.420073E+0	1.496693E+0	1.440619E+0	1.522645E+0	1.552454E+0	1.556675E+0	1.519560E+0	1.615802E+0	1.471836E+0	1.495310E+0	1.455391E+0	1.486196E+0	1.490680E+0	1.568204E+0	1.553941E+0	1.524269E+0	1.434750E+0	1.572925E+0	1.463919E+0	1.432866E+0	1.512886E+0	1.507104E+0	1.456173E+0	1.416474E+0	1.531945E+0	1.479973E+0	1.487321E+0	1.459144E+0	1.474828E+0	1.463070E+0	1.547326E+0	1.472550E+0	1.514622E+0	1.460318E+0	1.491565E+0	1.501910E+0	1.495197E+0	1.429435E+0	1.384872E+0	1.460445E+0	1.476240E+0	1.488149E+0	1.456550E+0	1.465779E+0	1.510177E+0	1.397203E+0	1.604385E+0	1.367320E+0	1.486393E+0	1.488648E+0	1.413450E+0	1.562809E+0	1.509407E+0	1.398783E+0	1.469769E+0	1.507507E+0	1.519257E+0	1.485660E+0	1.447048E+0	1.473445E+0	1.413998E+0	1.544650E+0	1.396568E+0	1.391926E+0	1.541977E+0	1.552170E+0	1.479205E+0	1.482670E+0	1.439795E+0	1.478260E+0	1.466379E+0	1.439043E+0	1.442267E+0	1.458606E+0	1.416684E+0	1.462120E+0	1.497341E+0	1.467891E+0	1.407716E+0	1.492579E+0	1.482484E+0	1.500622E+0	1.393170E+0	1.440483E+0	1.437162E+0	1.516411E+0	1.416435E+0	1.484889E+0	1.536678E+0	1.418913E+0	1.421139E+0	1.448787E+0	1.411590E+0	1.452385E+0	1.541054E+0	1.489005E+0	1.377129E+0	1.407454E+0	1.567242E+0	1.408727E+0	1.474528E+0	1.478610E+0	1.510799E+0	1.393445E+0	1.423553E+0	1.396932E+0	1.506540E+0	1.407441E+0	1.436570E+0	1.425326E+0	1.502896E+0	1.460498E+0	1.483067E+0	1.443702E+0	1.558430E+0	1.464256E+0	1.459870E+0	1.418635E+0	1.391982E+0	1.435196E+0	1.561491E+0	1.414977E+0	1.395106E+0	1.383747E+0	1.422703E+0	1.465457E+0	1.433095E+0	1.459830E+0	1.487007E+0	1.453729E+0	1.413903E+0	1.409981E+0	1.472400E+0	1.499355E+0	1.454200E+0	1.389230E+0	1.484985E+0	1.457642E+0	1.417810E+0	1.421884E+0	1.456995E+0	1.488273E+0	1.383223E+0	1.489662E+0	1.527306E+0	1.399956E+0	1.481684E+0	1.511252E+0	1.393018E+0
5.381060E+2	1.392375E+0	1.406482E+0	1.380913E+0	1.483312E+0	1.471233E+0	1.314391E+0	1.370036E+0	1.376492E+0	1.465288E+0	1.421101E+0	1.451851E+0	1.432232E+0	1.437877E+0	1.444372E+0	1.453685E+0	1.405491E+0	1.421249E+0	1.505340E+0	1.364050E+0	1.413392E+0	1.430401E+0	1.428710E+0	1.365208E+0	1.451656E+0	1.407318E+0	1.422078E+0	1.392761E+0	1.342041E+0	1.395894E+0	1.467884E+0	1.393882E+0	1.433392E+0	1.396615E+0	1.437554E+0	1.396146E+0	1.463728E+0	1.387921E+0	1.412882E+0	1.471227E+0	1.422491E+0	1.439214E+0	1.362475E+0	1.386374E+0	1.413087E+0	1.403736E+0	1.352933E+0	1.430217E+0	1.413958E+0	1.403377E+0	1.435852E+0	1.518656E+0	1.461658E+0	1.531911E+0	1.437615E+0	1.413630E+0	1.296833E+0	1.496490E+0	1.409852E+0	1.440848E+0	1.396764E+0	1.436464E+0	1.421177E+0	1.468737E+0	1.444698E+0	1.440137E+0	1.473641E+0	1.468786E+0	1.471551E+0	1.462069E+0	1.375194E+0	1.367058E+0	1.383915E+0	1.448612E+0	1.386410E+0	1.366523E+0	1.452357E+0	1.415099E+0	1.397739E+0	1.373588E+0	1.444396E+0	1.457957E+0	1.460823E+0	1.446605E+0	1.460095E+0	1.349290E+0	1.490961E+0	1.394027E+0	1.455420E+0	1.384353E+0	1.348829E+0	1.439848E+0	1.394031E+0	1.350411E+0	1.386301E+0	1.401625E+0	1.529525E+0	1.402778E+0	1.375198E+0	1.389814E+0	1.498444E+0	1.449231E+0	1.458132E+0	1.402865E+0	1.456023E+0	1.376000E+0	1.422946E+0	1.363323E+0	1.387230E+0	1.431239E+0	1.389559E+0	1.390798E+0	1.352638E+0	1.383681E+0	1.404260E+0	1.415744E+0	1.420642E+0	1.400592E+0	1.427319E+0	1.388511E+0	1.360244E+0	1.479572E+0	1.390468E+0	1.425420E+0	1.389407E+0	1.427242E+0	1.473212E+0	1.462453E+0	1.407638E+0	1.394203E+0	1.397152E+0	1.385648E+0	1.458565E+0	1.398875E+0	1.431955E+0	1.325611E+0	1.405577E+0	1.497233E+0	1.428894E+0	1.442425E+0	1.267594E+0	1.397121E+0	1.432967E+0	1.450261E+0	1.416546E+0	1.429655E+0	1.410555E+0	1.405078E+0	1.389744E+0	1.430280E+0	1.378729E+0	1.411312E+0	1.344873E+0	1.404974E+0	1.370628E+0	1.390410E+0	1.410712E+0	1.407839E+0	1.413607E+0	1.403897E+0	1.358723E+0	1.417183E+0	1.372963E+0	1.402749E+0	1.432308E+0	1.422138E+0
5.383110E+2	1.637943E+0	1.737997E+0	1.693306E+0	1.661521E+0	1.746471E+0	1.694737E+0	1.620117E+0	1.649637E+0	1.681156E+0	1.638482E+0	1.677041E+0	1.692376E+0	1.651689E+0	1.739070E+0	1.696460E+0	1.645312E+0	1.688117E+0	1.736793E+0	1.611485E+0	1.827422E+0	1.678832E+0	1.677190E+0	1.646086E+0	1.700953E+0	1.662218E+0	1.619211E+0	1.717496E+0	1.691650E+0	1.623585E+0	1.704737E+0	1.685217E+0	1.743203E+0	1.681539E+0	1.688139E+0	1.740910E+0	1.690694E+0	1.738251E+0	1.659750E+0	1.699234E+0	1.640473E+0	1.769947E+0	1.606399E+0	1.626150E+0	1.700604E+0	1.680901E+0	1.700046E+0	1.733750E+0	1.677538E+0	1.639841E+0	1.674381E+0	1.725282E+0	1.658341E+0	1.767577E+0	1.610533E+0	1.666503E+0	1.740955E+0	1.705597E+0	1.682688E+0	1.645412E+0	1.680668E+0	1.626967E+0	1.649709E+0	1.693203E+0	1.697559E+0	1.610148E+0	1.697702E+0	1.724101E+0	1.772341E+0	1.750003E+0	1.617561E+0	1.652620E+0	1.679240E+0	1.757109E+0	1.631733E+0	1.579418E+0	1.647941E+0	1.680849E+0	1.683838E+0	1.610340E+0	1.719002E+0	1.685971E+0	1.715212E+0	1.630253E+0	1.666240E+0	1.649481E+0	1.638252E+0	1.717098E+0	1.725185E+0	1.686097E+0	1.653018E+0	1.633933E+0	1.627338E+0	1.682022E+0	1.688063E+0	1.646539E+0	1.652878E+0	1.714872E+0	1.757308E+0	1.595910E+0	1.622906E+0	1.684770E+0	1.686682E+0	1.651981E+0	1.701249E+0	1.694397E+0	1.631615E+0	1.626664E+0	1.675528E+0	1.615938E+0	1.691216E+0	1.712491E+0	1.715444E+0	1.605363E+0	1.612755E+0	1.620680E+0	1.613033E+0	1.620254E+0	1.742113E+0	1.722909E+0	1.668395E+0	1.712870E+0	1.611486E+0	1.602924E+0	1.615844E+0	1.677373E+0	1.675543E+0	1.802733E+0	1.607721E+0	1.645642E+0	1.686892E+0	1.643253E+0	1.635205E+0	1.678000E+0	1.691635E+0	1.662972E+0	1.677827E+0	1.691108E+0	1.618717E+0	1.619846E+0	1.542506E+0	1.697057E+0	1.674442E+0	1.684754E+0	1.636065E+0	1.707064E+0	1.695797E+0	1.591903E+0	1.651952E+0	1.663617E+0	1.647575E+0	1.677016E+0	1.646534E+0	1.658377E+0	1.698964E+0	1.686280E+0	1.540695E+0	1.598959E+0	1.584949E+0	1.633387E+0	1.644539E+0	1.557377E+0	1.615591E+0	1.715443E+0	1.762494E+0	1.697395E+0
5.385110E+2	1.982071E+0	1.984201E+0	2.036979E+0	1.972233E+0	2.073598E+0	1.908956E+0	1.983850E+0	2.054424E+0	2.033551E+0	1.943389E+0	2.010613E+0	1.961848E+0	2.040235E+0	2.032154E+0	1.930327E+0	2.011839E+0	1.940561E+0	2.037096E+0	1.992531E+0	2.169592E+0	2.018827E+0	1.970310E+0	2.114077E+0	2.103841E+0	2.007029E+0	1.945999E+0	2.075329E+0	1.985920E+0	2.025113E+0	2.082705E+0	2.048494E+0	2.089886E+0	1.968411E+0	1.991859E+0	2.049608E+0	1.907118E+0	2.024473E+0	2.032083E+0	1.985369E+0	1.943060E+0	2.083260E+0	1.885293E+0	2.068224E+0	2.022865E+0	2.052911E+0	1.907047E+0	2.043953E+0	1.900848E+0	1.987796E+0	1.982853E+0	1.977124E+0	2.033334E+0	2.030163E+0	1.927604E+0	1.934515E+0	1.992832E+0	1.951052E+0	1.975820E+0	1.988592E+0	1.981285E+0	1.950751E+0	1.969246E+0	2.045532E+0	1.931402E+0	1.888963E+0	1.986486E+0	1.986632E+0	2.062498E+0	2.061847E+0	1.978495E+0	1.858041E+0	1.934050E+0	2.102838E+0	2.026173E+0	1.971142E+0	2.041289E+0	2.065192E+0	1.966396E+0	1.953820E+0	2.020621E+0	2.007572E+0	2.088805E+0	1.940273E+0	2.090015E+0	2.091334E+0	2.026127E+0	1.901796E+0	1.993766E+0	2.036052E+0	1.970942E+0	1.978431E+0	1.948533E+0	1.956995E+0	1.929382E+0	1.958236E+0	2.039274E+0	1.976380E+0	2.077522E+0	1.888038E+0	1.929599E+0	1.982358E+0	2.040068E+0	1.927740E+0	2.010978E+0	1.965430E+0	1.983246E+0	2.023926E+0	1.864946E+0	1.973003E+0	1.997851E+0	2.006097E+0	1.996306E+0	1.968181E+0	1.849450E+0	1.942484E+0	1.961029E+0	1.901039E+0	2.096675E+0	1.994301E+0	1.920949E+0	2.026404E+0	1.951392E+0	1.957548E+0	1.883171E+0	1.950230E+0	1.940382E+0	2.024531E+0	1.900345E+0	1.904527E+0	1.884264E+0	2.044926E+0	2.018350E+0	1.906102E+0	2.006134E+0	1.892550E+0	2.044266E+0	2.013027E+0	1.919322E+0	1.929742E+0	1.886692E+0	1.988647E+0	1.944076E+0	1.960057E+0	2.006262E+0	1.952324E+0	1.995229E+0	1.952355E+0	1.989284E+0	2.014607E+0	1.911670E+0	1.903994E+0	1.913864E+0	2.034129E+0	1.931865E+0	1.909186E+0	1.877980E+0	1.993618E+0	1.915401E+0	1.963306E+0	2.004902E+0	1.990239E+0	1.887972E+0	2.038534E+0	1.972139E+0	2.137039E+0
5.387120E+2	2.045546E+0	2.072367E+0	2.077934E+0	2.002814E+0	2.123266E+0	1.996273E+0	2.050773E+0	2.008859E+0	2.052624E+0	2.023658E+0	2.016830E+0	2.004657E+0	2.046401E+0	2.042898E+0	2.069776E+0	2.061382E+0	1.983485E+0	2.065365E+0	2.013425E+0	2.076779E+0	2.088779E+0	2.051589E+0	2.102027E+0	2.045978E+0	2.060927E+0	2.005121E+0	2.036023E+0	2.054416E+0	2.046580E+0	2.013780E+0	2.060191E+0	2.116199E+0	1.994698E+0	2.026198E+0	1.977521E+0	2.107180E+0	2.128986E+0	1.981718E+0	2.086426E+0	2.013379E+0	2.112325E+0	1.948925E+0	1.958352E+0	1.991596E+0	2.050555E+0	1.985398E+0	2.062179E+0	1.971577E+0	1.985460E+0	2.077751E+0	2.072270E+0	2.018198E+0	2.014370E+0	1.963821E+0	2.033596E+0	1.991632E+0	2.027480E+0	1.984240E+0	1.987372E+0	2.015006E+0	1.987014E+0	1.959888E+0	2.036566E+0	1.979122E+0	1.928847E+0	1.991344E+0	1.996944E+0	2.069472E+0	2.009802E+0	1.961899E+0	1.966162E+0	1.987998E+0	2.099349E+0	1.946554E+0	1.946559E+0	2.031002E+0	1.965680E+0	1.977033E+0	2.022305E+0	1.963624E+0	2.132889E+0	2.161071E+0	2.009518E+0	1.982067E+0	1.947174E+0	2.063900E+0	2.017712E+0	2.083200E+0	1.993931E+0	1.983623E+0	1.870254E+0	2.028584E+0	1.959005E+0	2.018692E+0	2.038212E+0	2.041756E+0	1.996704E+0	2.083055E+0	1.920490E+0	1.996300E+0	1.973666E+0	1.981513E+0	1.957236E+0	2.023135E+0	2.122518E+0	1.969704E+0	2.040736E+0	1.912208E+0	2.021664E+0	1.846135E+0	2.097855E+0	1.972725E+0	1.923841E+0	2.017688E+0	2.020181E+0	1.992793E+0	1.943032E+0	2.019858E+0	2.002158E+0	1.986757E+0	2.020941E+0	1.877637E+0	2.024365E+0	1.928529E+0	1.967166E+0	2.008026E+0	2.090631E+0	1.949939E+0	1.990116E+0	1.898924E+0	2.067638E+0	1.995322E+0	1.933506E+0	1.909086E+0	1.913414E+0	1.948466E+0	1.937365E+0	1.906153E+0	1.944164E+0	1.942969E+0	1.965370E+0	1.985067E+0	1.955591E+0	1.996404E+0	2.016235E+0	2.017851E+0	1.939322E+0	1.957053E+0	1.896894E+0	2.008198E+0	1.917197E+0	1.924557E+0	2.000940E+0	1.967977E+0	1.922919E+0	1.950939E+0	1.984881E+0	1.987559E+0	1.990963E+0	1.962323E+0	1.947409E+0	1.898861E+0	2.007503E+0	1.956756E+0	2.279461E+0
5.389130E+2	1.777931E+0	1.744595E+0	1.825078E+0	1.786103E+0	1.804835E+0	1.712978E+0	1.771146E+0	1.769276E+0	1.826783E+0	1.693295E+0	1.780235E+0	1.787247E+0	1.805609E+0	1.895682E+0	1.826993E+0	1.818821E+0	1.746853E+0	1.815485E+0	1.683930E+0	1.752123E+0	1.784542E+0	1.716755E+0	1.697733E+0	1.851734E+0	1.714668E+0	1.704658E+0	1.766590E+0	1.707728E+0	1.725338E+0	1.793765E+0	1.789290E+0	1.849103E+0	1.785030E+0	1.790015E+0	1.848249E+0	1.762353E+0	1.761176E+0	1.684167E+0	1.756182E+0	1.649719E+0	1.816542E+0	1.660812E+0	1.827038E+0	1.707959E+0	1.826554E+0	1.801887E+0	1.725943E+0	1.610163E+0	1.750149E+0	1.684768E+0	1.741707E+0	1.771969E+0	1.792193E+0	1.671856E+0	1.730276E+0	1.727230E+0	1.787800E+0	1.763279E+0	1.770432E+0	1.881986E+0	1.796508E+0	1.696443E+0	1.881483E+0	1.676667E+0	1.707294E+0	1.734663E+0	1.774788E+0	1.783258E+0	1.804902E+0	1.741964E+0	1.768784E+0	1.700644E+0	1.817954E+0	1.761815E+0	1.698803E+0	1.802451E+0	1.692263E+0	1.751235E+0	1.728845E+0	1.787864E+0	1.784652E+0	1.843863E+0	1.697890E+0	1.834799E+0	1.746954E+0	1.763440E+0	1.769404E+0	1.757821E+0	1.763087E+0	1.734081E+0	1.750040E+0	1.690948E+0	1.736074E+0	1.762616E+0	1.721681E+0	1.891541E+0	1.792105E+0	1.752689E+0	1.671895E+0	1.671770E+0	1.706073E+0	1.742023E+0	1.709242E+0	1.834921E+0	1.774936E+0	1.779993E+0	1.745681E+0	1.714264E+0	1.685047E+0	1.705539E+0	1.793188E+0	1.756380E+0	1.679376E+0	1.649906E+0	1.773165E+0	1.742207E+0	1.804061E+0	1.734684E+0	1.731300E+0	1.735924E+0	1.718183E+0	1.632235E+0	1.753445E+0	1.703701E+0	1.710321E+0	1.754851E+0	1.796687E+0	1.709325E+0	1.782200E+0	1.663993E+0	1.738718E+0	1.794363E+0	1.695594E+0	1.675746E+0	1.654791E+0	1.726774E+0	1.713046E+0	1.721058E+0	1.693919E+0	1.665743E+0	1.720521E+0	1.699386E+0	1.673231E+0	1.641180E+0	1.758688E+0	1.762058E+0	1.734598E+0	1.755033E+0	1.760294E+0	1.691075E+0	1.757591E+0	1.667950E+0	1.746275E+0	1.756195E+0	1.703287E+0	1.686412E+0	1.674919E+0	1.681359E+0	1.745952E+0	1.691182E+0	1.694062E+0	1.731405E+0	1.915857E+0	1.799975E+0	1.750840E+0
5.391140E+2	1.595756E+0	1.707045E+0	1.705420E+0	1.721577E+0	1.632439E+0	1.651043E+0	1.538430E+0	1.653372E+0	1.702978E+0	1.652715E+0	1.603183E+0	1.658094E+0	1.684799E+0	1.660877E+0	1.642885E+0	1.660869E+0	1.621019E+0	1.649361E+0	1.644671E+0	1.627260E+0	1.660683E+0	1.656433E+0	1.645712E+0	1.707962E+0	1.597393E+0	1.639220E+0	1.657342E+0	1.655860E+0	1.620113E+0	1.637041E+0	1.670223E+0	1.658895E+0	1.597441E+0	1.604804E+0	1.698477E+0	1.667403E+0	1.662033E+0	1.629438E+0	1.602432E+0	1.659775E+0	1.663381E+0	1.529088E+0	1.671976E+0	1.669666E+0	1.593172E+0	1.644975E+0	1.630897E+0	1.598033E+0	1.654952E+0	1.663118E+0	1.568419E+0	1.605304E+0	1.717936E+0	1.630287E+0	1.603160E+0	1.627481E+0	1.613321E+0	1.584075E+0	1.597137E+0	1.662774E+0	1.666494E+0	1.629313E+0	1.648274E+0	1.656192E+0	1.613848E+0	1.587073E+0	1.598709E+0	1.656724E+0	1.670591E+0	1.621524E+0	1.633048E+0	1.658665E+0	1.668819E+0	1.598316E+0	1.619760E+0	1.745468E+0	1.606192E+0	1.582277E+0	1.525399E+0	1.666124E+0	1.653192E+0	1.657402E+0	1.648668E+0	1.694659E+0	1.701079E+0	1.678280E+0	1.620989E+0	1.655422E+0	1.669995E+0	1.557873E+0	1.609515E+0	1.535481E+0	1.646912E+0	1.575902E+0	1.627831E+0	1.759042E+0	1.662340E+0	1.568841E+0	1.604814E+0	1.581095E+0	1.589238E+0	1.673685E+0	1.594591E+0	1.696020E+0	1.645609E+0	1.700775E+0	1.619527E+0	1.601970E+0	1.542976E+0	1.648982E+0	1.687984E+0	1.665508E+0	1.568413E+0	1.565840E+0	1.672948E+0	1.645064E+0	1.705219E+0	1.686811E+0	1.578827E+0	1.609052E+0	1.789786E+0	1.573450E+0	1.592286E+0	1.616685E+0	1.654885E+0	1.610970E+0	1.665881E+0	1.599892E+0	1.635700E+0	1.523332E+0	1.748107E+0	1.702628E+0	1.592360E+0	1.618579E+0	1.623461E+0	1.677425E+0	1.686034E+0	1.655768E+0	1.585881E+0	1.535652E+0	1.658181E+0	1.633476E+0	1.638662E+0	1.605179E+0	1.668285E+0	1.579770E+0	1.541360E+0	1.611468E+0	1.692256E+0	1.556882E+0	1.651698E+0	1.608346E+0	1.662033E+0	1.567852E+0	1.605981E+0	1.624379E+0	1.686737E+0	1.584266E+0	1.580256E+0	1.608666E+0	1.592018E+0	1.575079E+0	1.596908E+0	1.722303E+0	1.787579E+0
5.393140E+2	1.815392E+0	1.798007E+0	1.629232E+0	1.667060E+0	1.779148E+0	1.691741E+0	1.775877E+0	1.714321E+0	1.676747E+0	1.705507E+0	1.650762E+0	1.701050E+0	1.639247E+0	1.802710E+0	1.763505E+0	1.760158E+0	1.645589E+0	1.681731E+0	1.714316E+0	1.728396E+0	1.746668E+0	1.712236E+0	1.708115E+0	1.725033E+0	1.654634E+0	1.688581E+0	1.675236E+0	1.661085E+0	1.648180E+0	1.669259E+0	1.776540E+0	1.654007E+0	1.654484E+0	1.633519E+0	1.779757E+0	1.727423E+0	1.607124E+0	1.674130E+0	1.749044E+0	1.644912E+0	1.753967E+0	1.496010E+0	1.675199E+0	1.654406E+0	1.720852E+0	1.736673E+0	1.763969E+0	1.592130E+0	1.705478E+0	1.687589E+0	1.723266E+0	1.763657E+0	1.720609E+0	1.588428E+0	1.732165E+0	1.673825E+0	1.718982E+0	1.623762E+0	1.635828E+0	1.686016E+0	1.734579E+0	1.648944E+0	1.685741E+0	1.676692E+0	1.715823E+0	1.655214E+0	1.683965E+0	1.712936E+0	1.782604E+0	1.660630E+0	1.622606E+0	1.622937E+0	1.717041E+0	1.654738E+0	1.654380E+0	1.700420E+0	1.628569E+0	1.683093E+0	1.746580E+0	1.690524E+0	1.703094E+0	1.766473E+0	1.664069E+0	1.710381E+0	1.680619E+0	1.654126E+0	1.628118E+0	1.692514E+0	1.732802E+0	1.700587E+0	1.595138E+0	1.691237E+0	1.654249E+0	1.691350E+0	1.736136E+0	1.770884E+0	1.721920E+0	1.699868E+0	1.649620E+0	1.684915E+0	1.696913E+0	1.719376E+0	1.612197E+0	1.747303E+0	1.646608E+0	1.650693E+0	1.683478E+0	1.683083E+0	1.718721E+0	1.640034E+0	1.737564E+0	1.678750E+0	1.596496E+0	1.602764E+0	1.776769E+0	1.693746E+0	1.751437E+0	1.649795E+0	1.698635E+0	1.639728E+0	1.658293E+0	1.649552E+0	1.638457E+0	1.631571E+0	1.712198E+0	1.651965E+0	1.670885E+0	1.651072E+0	1.671510E+0	1.671507E+0	1.726889E+0	1.652154E+0	1.624546E+0	1.600632E+0	1.644766E+0	1.573856E+0	1.773225E+0	1.647796E+0	1.680125E+0	1.684343E+0	1.719067E+0	1.652394E+0	1.717713E+0	1.680852E+0	1.708396E+0	1.679321E+0	1.609271E+0	1.730236E+0	1.652729E+0	1.657231E+0	1.633071E+0	1.544873E+0	1.669761E+0	1.619301E+0	1.605782E+0	1.604391E+0	1.650929E+0	1.615993E+0	1.702480E+0	1.648426E+0	1.678518E+0	1.667394E+0	1.713277E+0	1.681435E+0	1.687954E+0
5.395160E+2	1.488138E+0	1.582588E+0	1.595896E+0	1.493114E+0	1.565537E+0	1.420352E+0	1.524159E+0	1.510062E+0	1.533717E+0	1.492885E+0	1.466079E+0	1.479981E+0	1.534837E+0	1.574460E+0	1.587227E+0	1.603108E+0	1.569280E+0	1.530881E+0	1.462051E+0	1.514957E+0	1.509012E+0	1.500048E+0	1.583739E+0	1.646174E+0	1.484258E+0	1.501583E+0	1.462810E+0	1.498912E+0	1.487738E+0	1.522888E+0	1.543673E+0	1.496001E+0	1.547181E+0	1.528977E+0	1.571203E+0	1.482890E+0	1.476980E+0	1.510417E+0	1.539030E+0	1.417720E+0	1.634354E+0	1.371746E+0	1.490717E+0	1.476236E+0	1.532835E+0	1.536063E+0	1.599962E+0	1.418644E+0	1.495191E+0	1.447223E+0	1.503266E+0	1.494362E+0	1.567573E+0	1.397908E+0	1.491844E+0	1.442751E+0	1.538707E+0	1.499113E+0	1.520902E+0	1.496229E+0	1.481130E+0	1.524816E+0	1.569504E+0	1.490187E+0	1.454064E+0	1.472937E+0	1.435960E+0	1.575795E+0	1.526910E+0	1.492540E+0	1.482634E+0	1.474991E+0	1.501372E+0	1.427475E+0	1.443264E+0	1.532476E+0	1.511970E+0	1.520580E+0	1.449797E+0	1.557858E+0	1.557381E+0	1.492205E+0	1.471256E+0	1.623386E+0	1.509333E+0	1.497810E+0	1.483302E+0	1.506361E+0	1.551216E+0	1.423104E+0	1.466655E+0	1.563551E+0	1.481845E+0	1.496249E+0	1.536264E+0	1.512904E+0	1.511856E+0	1.481379E+0	1.437891E+0	1.466090E+0	1.516254E+0	1.523836E+0	1.480559E+0	1.480289E+0	1.526256E+0	1.453228E+0	1.480186E+0	1.541860E+0	1.501026E+0	1.442268E+0	1.525716E+0	1.613727E+0	1.465381E+0	1.426669E+0	1.550202E+0	1.488994E+0	1.512153E+0	1.563686E+0	1.478905E+0	1.507623E+0	1.646530E+0	1.425784E+0	1.492709E+0	1.464616E+0	1.467030E+0	1.463184E+0	1.566063E+0	1.426938E+0	1.513667E+0	1.493729E+0	1.507269E+0	1.549676E+0	1.488234E+0	1.445147E+0	1.489261E+0	1.540143E+0	1.561986E+0	1.478260E+0	1.469670E+0	1.435345E+0	1.464316E+0	1.554491E+0	1.482754E+0	1.474709E+0	1.463772E+0	1.535836E+0	1.433740E+0	1.519837E+0	1.487221E+0	1.442589E+0	1.525971E+0	1.516300E+0	1.497100E+0	1.433960E+0	1.424130E+0	1.383079E+0	1.509366E+0	1.455988E+0	1.425056E+0	1.581367E+0	1.518635E+0	1.422114E+0	1.434183E+0	1.547632E+0	1.563131E+0
5.397060E+2	1.250419E+0	1.350668E+0	1.249534E+0	1.257212E+0	1.278262E+0	1.208017E+0	1.227628E+0	1.233140E+0	1.264543E+0	1.223297E+0	1.251958E+0	1.249907E+0	1.256024E+0	1.275966E+0	1.224212E+0	1.183572E+0	1.179099E+0	1.204033E+0	1.241857E+0	1.297937E+0	1.240992E+0	1.223035E+0	1.254973E+0	1.249243E+0	1.132545E+0	1.179897E+0	1.214771E+0	1.250985E+0	1.200352E+0	1.200042E+0	1.236323E+0	1.281335E+0	1.243591E+0	1.305174E+0	1.263721E+0	1.327886E+0	1.172962E+0	1.241153E+0	1.205901E+0	1.197431E+0	1.246090E+0	1.147794E+0	1.220459E+0	1.154102E+0	1.222116E+0	1.308520E+0	1.302534E+0	1.194109E+0	1.256922E+0	1.244955E+0	1.243118E+0	1.291818E+0	1.273483E+0	1.158077E+0	1.206669E+0	1.234740E+0	1.203490E+0	1.233374E+0	1.257718E+0	1.235728E+0	1.164150E+0	1.197963E+0	1.295625E+0	1.230562E+0	1.233686E+0	1.217950E+0	1.225901E+0	1.194367E+0	1.255242E+0	1.269714E+0	1.255791E+0	1.214115E+0	1.305953E+0	1.195007E+0	1.234318E+0	1.208902E+0	1.237661E+0	1.177182E+0	1.156768E+0	1.196034E+0	1.212344E+0	1.224230E+0	1.185255E+0	1.270373E+0	1.270086E+0	1.225614E+0	1.207438E+0	1.255350E+0	1.256787E+0	1.167789E+0	1.244147E+0	1.233622E+0	1.240116E+0	1.283767E+0	1.256158E+0	1.275182E+0	1.258593E+0	1.248675E+0	1.155113E+0	1.278788E+0	1.281075E+0	1.216436E+0	1.228286E+0	1.209922E+0	1.271796E+0	1.193022E+0	1.171612E+0	1.211506E+0	1.217083E+0	1.138751E+0	1.253365E+0	1.306954E+0	1.215209E+0	1.116273E+0	1.237183E+0	1.285488E+0	1.323766E+0	1.249205E+0	1.226812E+0	1.225955E+0	1.297998E+0	1.210333E+0	1.255462E+0	1.187718E+0	1.204029E+0	1.194461E+0	1.231723E+0	1.246823E+0	1.245317E+0	1.101099E+0	1.290729E+0	1.296413E+0	1.192300E+0	1.225147E+0	1.148820E+0	1.241082E+0	1.216368E+0	1.270044E+0	1.250903E+0	1.193745E+0	1.191902E+0	1.204456E+0	1.249999E+0	1.277463E+0	1.222066E+0	1.228057E+0	1.270486E+0	1.285257E+0	1.278965E+0	1.250794E+0	1.274975E+0	1.184645E+0	1.289881E+0	1.192337E+0	1.235964E+0	1.248381E+0	1.214966E+0	1.190275E+0	1.195261E+0	1.228312E+0	1.245301E+0	1.242116E+0	1.323649E+0	1.305559E+0	1.190991E+0
5.399500E+2	1.106881E+0	1.079679E+0	1.075947E+0	9.763903E-1	1.184630E+0	9.719101E-1	1.127333E+0	1.055154E+0	1.063255E+0	1.033334E+0	1.024741E+0	1.064099E+0	1.109045E+0	1.103011E+0	1.077111E+0	1.079644E+0	9.879417E-1	1.083730E+0	1.036003E+0	1.130093E+0	1.081651E+0	1.036725E+0	9.939682E-1	1.029275E+0	1.052514E+0	1.038791E+0	1.127062E+0	1.107049E+0	1.018259E+0	1.036689E+0	1.114789E+0	1.078648E+0	1.007458E+0	1.051447E+0	1.105910E+0	1.071692E+0	1.083278E+0	1.018871E+0	1.091963E+0	1.042975E+0	1.084030E+0	9.929562E-1	1.026412E+0	1.021126E+0	1.052889E+0	1.028832E+0	1.153978E+0	1.050720E+0	1.020740E+0	1.084226E+0	1.073592E+0	1.098878E+0	1.097624E+0	9.660558E-1	1.095347E+0	1.080132E+0	9.983690E-1	1.032215E+0	1.078100E+0	1.081833E+0	1.120879E+0	1.049303E+0	1.063584E+0	1.078100E+0	1.041810E+0	9.975648E-1	1.036376E+0	1.105355E+0	1.161798E+0	1.049021E+0	1.072909E+0	1.011337E+0	1.140789E+0	1.077416E+0	1.056914E+0	1.054488E+0	1.055102E+0	9.971729E-1	1.038682E+0	1.027397E+0	1.028728E+0	1.053976E+0	1.071808E+0	1.100038E+0	1.126138E+0	1.047083E+0	1.032997E+0	1.064257E+0	1.013266E+0	9.870465E-1	1.126903E+0	1.016820E+0	1.043851E+0	1.016029E+0	1.016888E+0	1.058468E+0	1.081940E+0	1.061907E+0	1.073993E+0	1.072774E+0	1.042714E+0	1.101904E+0	1.086645E+0	1.085589E+0	1.022091E+0	1.040524E+0	1.070225E+0	1.037290E+0	1.044125E+0	9.808058E-1	1.154375E+0	1.066637E+0	1.053882E+0	9.804492E-1	1.112283E+0	1.046459E+0	9.996830E-1	1.042129E+0	9.987790E-1	1.043093E+0	1.078418E+0	9.915658E-1	9.886670E-1	1.002933E+0	1.084262E+0	9.938217E-1	1.095447E+0	1.080505E+0	1.070684E+0	1.034204E+0	1.052524E+0	1.073065E+0	1.028892E+0	1.056828E+0	1.006650E+0	1.042115E+0	1.094050E+0	1.016652E+0	1.060069E+0	1.089065E+0	1.067056E+0	1.055470E+0	1.111086E+0	1.076706E+0	1.059466E+0	1.074388E+0	1.053995E+0	1.070879E+0	1.074143E+0	9.851991E-1	1.100143E+0	1.005374E+0	1.099861E+0	1.056475E+0	1.056240E+0	1.050819E+0	1.022135E+0	1.057418E+0	1.033882E+0	1.100923E+0	1.036546E+0	1.007166E+0	1.116376E+0	1.078753E+0	1.194022E+0
5.401150E+2	9.495876E-1	1.032975E+0	1.022463E+0	9.395195E-1	1.086095E+0	9.986233E-1	9.419947E-1	1.030823E+0	1.069314E+0	1.019587E+0	1.046731E+0	1.046760E+0	9.516731E-1	1.019628E+0	1.032797E+0	1.019135E+0	1.005595E+0	9.789414E-1	9.540692E-1	1.021284E+0	9.356319E-1	1.025715E+0	9.769218E-1	1.080551E+0	9.845603E-1	9.740960E-1	1.041079E+0	9.929827E-1	1.003117E+0	9.437244E-1	1.012269E+0	9.599847E-1	1.003234E+0	9.597631E-1	9.949563E-1	1.024655E+0	1.003599E+0	9.740879E-1	9.751736E-1	9.805100E-1	1.022121E+0	1.013347E+0	9.549650E-1	9.523861E-1	1.040403E+0	9.658068E-1	1.017695E+0	9.759485E-1	1.004950E+0	1.015444E+0	1.015336E+0	9.558731E-1	1.004926E+0	9.048911E-1	9.851575E-1	9.993195E-1	1.029319E+0	9.963682E-1	1.013186E+0	1.028410E+0	1.015799E+0	9.823426E-1	1.050620E+0	9.696070E-1	1.015384E+0	1.046602E+0	1.083346E+0	1.032289E+0	1.031260E+0	9.942012E-1	9.848694E-1	9.203383E-1	1.052960E+0	9.111690E-1	1.005347E+0	9.921493E-1	9.944645E-1	9.768592E-1	9.863252E-1	9.733013E-1	1.018940E+0	1.045899E+0	1.029219E+0	1.001919E+0	1.040153E+0	9.998657E-1	1.021550E+0	1.015968E+0	1.088355E+0	1.023600E+0	9.955138E-1	9.788484E-1	9.835261E-1	9.670384E-1	9.579951E-1	1.036277E+0	1.019627E+0	1.060091E+0	9.306579E-1	9.081728E-1	9.818423E-1	9.641599E-1	9.746101E-1	1.056699E+0	1.069426E+0	9.807482E-1	1.019789E+0	9.701610E-1	9.873554E-1	9.418911E-1	1.066620E+0	1.056801E+0	9.796483E-1	9.660412E-1	1.026129E+0	9.976148E-1	9.824108E-1	9.980758E-1	9.408414E-1	1.010691E+0	1.057666E+0	1.004975E+0	9.609339E-1	9.869240E-1	9.833817E-1	9.938152E-1	1.049811E+0	9.845554E-1	9.768077E-1	9.753811E-1	1.027405E+0	1.033219E+0	9.728908E-1	9.907239E-1	1.040808E+0	9.754513E-1	1.000398E+0	9.802376E-1	9.835251E-1	9.403321E-1	1.026242E+0	1.039569E+0	1.033104E+0	1.078043E+0	1.012577E+0	9.720611E-1	9.999975E-1	9.824372E-1	9.836136E-1	9.593958E-1	1.009487E+0	9.811794E-1	9.985098E-1	1.020455E+0	1.012379E+0	1.004383E+0	9.881987E-1	9.705655E-1	1.010635E+0	9.860057E-1	1.006514E+0	9.487303E-1	9.817007E-1	1.045138E+0	1.054331E+0
5.403170E+2	8.613866E-1	8.236358E-1	9.593176E-1	8.375991E-1	9.205122E-1	9.045473E-1	8.372143E-1	9.050997E-1	9.344906E-1	8.557774E-1	9.010947E-1	8.307891E-1	8.483917E-1	8.693456E-1	8.570812E-1	8.272024E-1	8.421045E-1	8.475972E-1	8.896319E-1	9.004604E-1	8.873107E-1	8.173976E-1	8.694722E-1	9.652095E-1	8.591131E-1	8.405298E-1	8.687694E-1	8.298634E-1	8.308278E-1	8.302073E-1	9.151758E-1	8.671589E-1	8.485611E-1	8.692875E-1	8.457002E-1	8.086512E-1	7.666280E-1	8.664184E-1	8.514351E-1	8.449653E-1	8.783158E-1	7.680991E-1	9.170162E-1	8.516568E-1	8.463680E-1	8.578015E-1	9.639049E-1	8.523134E-1	8.916412E-1	8.923689E-1	8.941158E-1	8.736312E-1	8.648796E-1	8.254970E-1	8.560810E-1	8.485225E-1	8.334942E-1	8.841816E-1	8.677778E-1	8.509288E-1	8.380153E-1	8.087679E-1	9.008438E-1	8.524687E-1	7.953867E-1	8.530291E-1	8.456279E-1	9.256443E-1	8.483303E-1	8.681114E-1	8.413167E-1	8.121452E-1	8.958726E-1	8.786108E-1	8.554100E-1	9.029469E-1	8.533622E-1	8.412589E-1	8.543927E-1	8.906458E-1	8.993663E-1	8.854602E-1	8.096381E-1	8.326465E-1	8.515860E-1	8.357662E-1	8.787834E-1	8.731378E-1	8.733686E-1	8.251526E-1	8.406168E-1	8.358251E-1	8.594734E-1	9.016633E-1	8.771567E-1	9.196191E-1	9.348247E-1	8.687606E-1	8.981895E-1	8.749220E-1	8.598178E-1	8.923728E-1	8.399310E-1	8.822244E-1	9.028060E-1	8.121820E-1	8.832319E-1	8.549042E-1	8.136091E-1	8.159566E-1	9.357519E-1	8.629234E-1	8.362588E-1	8.236828E-1	8.962863E-1	8.458829E-1	8.119184E-1	8.994920E-1	8.632701E-1	8.055046E-1	9.186854E-1	8.249532E-1	8.477602E-1	8.375089E-1	7.882875E-1	8.295656E-1	8.418950E-1	8.351481E-1	8.618230E-1	8.082802E-1	8.781885E-1	8.827404E-1	8.451351E-1	8.823082E-1	8.723536E-1	8.420175E-1	9.060938E-1	8.038654E-1	8.216855E-1	8.123235E-1	8.795207E-1	9.072622E-1	9.393992E-1	8.183443E-1	8.751615E-1	8.247708E-1	8.037846E-1	8.599783E-1	8.987721E-1	8.242029E-1	8.374401E-1	8.222107E-1	8.736356E-1	8.392358E-1	8.496190E-1	8.288797E-1	8.702374E-1	8.093279E-1	7.795132E-1	8.306720E-1	9.020687E-1	8.525149E-1	9.354196E-1	7.359564E-1	9.182456E-1
5.405130E+2	6.453564E-1	6.803680E-1	6.888031E-1	6.890208E-1	7.348433E-1	6.604995E-1	7.005508E-1	6.337267E-1	6.423358E-1	6.475888E-1	6.998396E-1	6.823377E-1	7.216900E-1	6.938486E-1	7.196104E-1	6.804864E-1	6.860172E-1	7.274718E-1	7.115301E-1	7.523675E-1	6.774635E-1	6.893639E-1	6.659078E-1	7.045592E-1	7.035684E-1	7.156859E-1	7.273750E-1	7.119388E-1	7.226527E-1	7.146966E-1	7.510472E-1	6.774144E-1	6.726323E-1	6.725604E-1	7.262908E-1	7.040449E-1	6.397768E-1	6.779561E-1	6.805500E-1	6.932531E-1	7.291821E-1	6.587233E-1	6.886136E-1	6.080475E-1	6.968033E-1	6.891426E-1	7.204143E-1	7.528969E-1	6.755461E-1	7.341948E-1	6.964998E-1	6.848217E-1	6.981971E-1	6.475191E-1	7.148152E-1	7.018219E-1	7.348680E-1	6.758016E-1	6.787223E-1	7.150314E-1	7.462912E-1	6.422549E-1	7.234625E-1	6.984521E-1	6.924738E-1	7.151905E-1	6.862930E-1	7.228823E-1	6.487998E-1	6.841028E-1	6.753754E-1	7.158154E-1	6.779095E-1	6.771436E-1	6.541081E-1	6.582148E-1	6.784654E-1	7.081165E-1	6.650327E-1	6.907605E-1	6.890203E-1	6.855742E-1	7.152420E-1	7.001788E-1	7.300037E-1	7.249881E-1	6.748287E-1	7.498088E-1	6.734109E-1	6.684405E-1	7.408159E-1	6.600688E-1	6.558085E-1	7.193189E-1	7.043845E-1	7.415475E-1	7.198111E-1	6.333655E-1	6.810145E-1	7.338579E-1	7.325475E-1	6.828286E-1	6.825424E-1	7.232009E-1	7.188166E-1	7.025719E-1	6.551577E-1	6.598485E-1	7.103975E-1	6.612017E-1	7.263448E-1	6.883537E-1	6.851974E-1	6.677447E-1	6.987461E-1	7.222798E-1	7.225255E-1	6.773676E-1	6.526252E-1	6.746456E-1	7.489332E-1	6.388020E-1	7.139453E-1	6.761320E-1	7.481780E-1	7.103632E-1	6.472987E-1	6.907409E-1	6.760467E-1	7.180379E-1	7.102094E-1	7.028397E-1	6.954372E-1	6.375029E-1	6.829773E-1	6.929364E-1	6.779753E-1	6.763424E-1	7.061217E-1	7.009732E-1	6.778486E-1	6.698232E-1	7.252831E-1	7.428332E-1	7.048609E-1	7.082103E-1	6.639932E-1	7.054371E-1	6.699524E-1	6.521070E-1	6.770079E-1	6.372741E-1	7.293307E-1	6.823929E-1	7.469684E-1	7.200162E-1	7.234360E-1	6.271208E-1	7.247634E-1	7.039032E-1	6.449501E-1	6.880662E-1	7.671963E-1	7.616425E-1	6.945078E-1
5.407050E+2	5.345306E-1	5.002609E-1	5.451586E-1	5.756000E-1	5.400132E-1	5.000157E-1	5.362985E-1	6.396716E-1	5.707105E-1	4.990632E-1	5.076194E-1	5.305710E-1	5.760132E-1	5.616521E-1	5.775081E-1	5.468996E-1	5.688246E-1	5.650842E-1	5.763205E-1	5.753547E-1	5.357595E-1	5.097134E-1	5.352026E-1	5.582488E-1	5.918553E-1	5.610940E-1	5.864068E-1	5.403309E-1	5.323120E-1	5.872958E-1	5.467322E-1	5.230224E-1	5.350817E-1	5.752535E-1	5.687237E-1	5.401444E-1	5.443182E-1	5.101467E-1	5.954184E-1	5.221810E-1	5.732824E-1	5.542751E-1	5.541018E-1	5.819480E-1	5.849159E-1	5.684179E-1	5.413653E-1	5.259690E-1	5.706399E-1	5.247779E-1	5.285374E-1	5.162377E-1	5.449549E-1	4.908798E-1	5.392351E-1	5.684966E-1	5.637762E-1	5.265976E-1	5.507676E-1	4.936188E-1	5.471716E-1	5.668850E-1	5.465191E-1	5.277355E-1	5.338519E-1	5.798662E-1	5.306964E-1	5.684319E-1	5.199157E-1	5.439375E-1	5.260419E-1	5.527502E-1	5.394424E-1	5.726995E-1	5.299274E-1	6.051689E-1	5.430730E-1	5.700495E-1	5.854863E-1	5.188422E-1	5.959617E-1	5.148467E-1	5.295705E-1	5.438494E-1	5.175782E-1	5.351449E-1	5.849600E-1	5.751076E-1	5.467989E-1	5.503203E-1	5.654840E-1	5.560822E-1	5.939585E-1	5.143217E-1	5.350998E-1	5.231085E-1	5.695671E-1	4.982653E-1	5.294033E-1	5.296969E-1	5.169921E-1	5.963718E-1	5.955447E-1	5.552904E-1	5.791617E-1	5.286604E-1	5.478333E-1	5.688930E-1	5.269541E-1	5.504669E-1	5.500953E-1	5.781342E-1	5.525772E-1	5.487526E-1	5.417634E-1	6.062499E-1	5.600310E-1	5.611706E-1	5.860326E-1	5.398600E-1	6.133279E-1	5.442663E-1	5.709325E-1	5.912806E-1	5.278543E-1	5.473941E-1	5.878194E-1	5.538920E-1	5.605787E-1	5.670494E-1	5.605961E-1	5.298778E-1	5.648273E-1	5.369802E-1	5.394488E-1	5.484366E-1	5.639100E-1	5.572602E-1	5.584475E-1	5.318733E-1	5.475970E-1	5.369707E-1	5.730170E-1	5.390361E-1	6.072311E-1	5.581617E-1	5.519559E-1	5.553419E-1	6.126537E-1	5.152000E-1	5.881187E-1	5.296443E-1	5.564146E-1	5.149881E-1	5.274340E-1	5.460326E-1	5.878629E-1	5.863279E-1	5.162447E-1	5.948070E-1	5.634286E-1	5.344659E-1	5.294594E-1	5.798030E-1	6.150632E-1
5.409170E+2	4.552400E-1	4.526301E-1	4.645911E-1	4.758421E-1	4.873100E-1	4.793466E-1	4.560366E-1	5.457747E-1	5.269367E-1	4.874547E-1	5.032940E-1	4.847520E-1	4.954812E-1	5.162367E-1	4.880373E-1	5.201839E-1	4.849418E-1	5.187152E-1	4.963631E-1	5.467965E-1	5.518137E-1	4.983125E-1	5.448108E-1	5.433330E-1	5.034728E-1	4.809119E-1	5.105262E-1	5.263906E-1	5.191126E-1	5.125003E-1	4.793704E-1	5.396948E-1	4.946711E-1	4.789597E-1	5.619630E-1	4.899405E-1	4.532886E-1	5.072471E-1	5.460012E-1	4.905042E-1	4.793713E-1	4.707801E-1	4.881021E-1	4.893707E-1	4.836209E-1	4.623522E-1	5.122665E-1	4.656784E-1	4.648319E-1	5.295253E-1	5.341840E-1	5.163852E-1	5.233386E-1	4.926941E-1	4.905884E-1	4.558680E-1	5.057653E-1	4.632947E-1	5.354925E-1	4.859869E-1	4.910141E-1	4.769013E-1	5.106025E-1	5.128591E-1	5.349725E-1	5.214546E-1	5.354439E-1	5.116206E-1	5.616683E-1	5.292162E-1	5.132795E-1	4.612840E-1	5.370312E-1	4.885837E-1	4.692160E-1	5.218946E-1	4.792128E-1	4.914586E-1	4.619157E-1	5.470371E-1	5.923998E-1	4.703898E-1	5.004070E-1	5.212070E-1	5.593634E-1	4.671226E-1	5.172042E-1	5.378183E-1	5.024522E-1	4.684939E-1	5.053451E-1	5.045016E-1	5.194081E-1	5.386468E-1	4.941592E-1	5.367894E-1	5.431616E-1	4.905981E-1	5.503084E-1	4.789055E-1	4.855670E-1	5.253530E-1	4.521788E-1	5.465222E-1	5.008220E-1	5.212294E-1	5.011331E-1	4.992026E-1	5.410043E-1	4.624740E-1	5.002223E-1	5.538882E-1	5.205587E-1	5.118283E-1	5.134452E-1	5.158316E-1	5.060767E-1	5.118160E-1	4.904066E-1	5.223172E-1	5.014410E-1	4.813244E-1	4.620441E-1	5.197717E-1	5.542274E-1	5.087234E-1	5.293950E-1	4.985784E-1	5.174610E-1	4.957886E-1	4.855771E-1	4.503997E-1	4.683357E-1	5.278189E-1	4.884906E-1	5.259127E-1	4.903271E-1	4.733459E-1	5.033237E-1	4.929055E-1	5.187657E-1	5.102778E-1	5.235408E-1	4.899317E-1	5.255361E-1	4.935364E-1	4.666224E-1	5.187421E-1	4.894973E-1	4.692329E-1	4.809389E-1	5.089585E-1	5.530908E-1	5.079185E-1	4.958631E-1	4.799255E-1	5.207284E-1	4.647861E-1	5.156910E-1	5.278780E-1	4.295118E-1	5.331892E-1	5.418270E-1	4.454975E-1	5.395324E-1
5.411040E+2	4.618402E-1	4.927850E-1	5.052199E-1	4.229893E-1	4.831792E-1	5.095997E-1	4.505131E-1	4.944605E-1	4.847279E-1	4.508785E-1	4.825540E-1	4.823954E-1	4.639816E-1	4.570591E-1	4.400868E-1	4.682112E-1	4.802033E-1	4.793271E-1	4.902751E-1	4.356026E-1	4.648882E-1	4.859641E-1	4.463975E-1	5.448382E-1	4.600525E-1	4.948307E-1	5.028179E-1	4.810599E-1	4.407250E-1	4.422560E-1	4.883936E-1	4.718767E-1	4.329071E-1	4.395667E-1	4.445739E-1	5.088483E-1	4.432604E-1	4.560527E-1	4.768754E-1	4.711471E-1	5.072295E-1	4.538657E-1	4.409536E-1	4.905499E-1	4.625807E-1	4.669727E-1	5.005059E-1	4.487891E-1	4.722701E-1	5.096796E-1	5.084961E-1	4.398238E-1	4.860856E-1	4.458602E-1	4.946580E-1	4.805671E-1	4.803156E-1	4.707896E-1	4.639580E-1	4.834518E-1	4.760507E-1	4.748607E-1	4.899935E-1	4.889136E-1	4.273385E-1	4.508846E-1	4.654392E-1	4.632359E-1	5.056370E-1	4.509076E-1	4.737954E-1	4.114383E-1	4.904385E-1	4.727899E-1	4.477047E-1	4.707344E-1	4.629809E-1	4.817949E-1	4.552303E-1	4.787800E-1	4.480573E-1	4.668135E-1	4.996551E-1	4.834202E-1	5.179404E-1	4.636021E-1	5.076496E-1	4.848647E-1	4.964763E-1	4.448215E-1	5.401205E-1	4.512067E-1	5.027627E-1	4.392225E-1	4.722590E-1	4.329719E-1	5.215680E-1	5.130593E-1	4.643219E-1	4.332232E-1	4.619720E-1	4.344406E-1	4.653992E-1	4.874463E-1	4.893044E-1	5.165698E-1	4.956017E-1	5.031813E-1	5.318817E-1	4.392009E-1	4.981450E-1	5.183786E-1	4.939538E-1	4.581744E-1	5.128013E-1	5.322020E-1	5.075884E-1	4.781126E-1	5.254795E-1	4.891652E-1	5.042833E-1	4.727980E-1	5.399490E-1	4.688143E-1	5.317345E-1	4.490377E-1	4.913752E-1	4.746672E-1	4.377771E-1	4.408360E-1	4.923560E-1	4.881697E-1	4.476112E-1	4.685792E-1	4.974800E-1	4.637362E-1	4.311860E-1	4.409198E-1	5.064605E-1	4.521990E-1	5.054598E-1	4.265338E-1	5.128441E-1	5.366080E-1	4.483239E-1	4.919062E-1	4.380055E-1	4.534153E-1	5.699359E-1	4.612798E-1	4.530342E-1	4.548108E-1	4.900105E-1	4.338306E-1	4.519695E-1	4.488661E-1	4.695271E-1	3.966413E-1	4.446513E-1	4.690112E-1	4.462049E-1	4.921173E-1	4.397582E-1	4.367816E-1	5.393031E-1
5.413120E+2	3.821514E-1	4.044898E-1	4.644485E-1	4.412617E-1	4.954211E-1	4.887570E-1	4.483685E-1	4.443390E-1	4.897361E-1	4.271058E-1	4.030527E-1	4.411807E-1	4.803528E-1	4.773162E-1	4.255595E-1	4.725035E-1	4.063326E-1	4.302003E-1	4.347943E-1	4.245788E-1	4.678065E-1	4.444019E-1	4.768812E-1	4.815602E-1	4.958298E-1	4.074304E-1	4.820291E-1	4.612590E-1	4.391345E-1	4.028431E-1	4.777611E-1	4.744535E-1	4.418303E-1	4.680220E-1	4.618104E-1	4.511805E-1	4.629654E-1	3.915372E-1	4.539796E-1	4.235694E-1	4.652221E-1	4.461408E-1	4.237612E-1	4.138468E-1	4.718273E-1	4.769763E-1	4.811936E-1	4.558893E-1	3.906863E-1	4.440486E-1	4.348982E-1	4.543624E-1	4.640828E-1	4.557948E-1	4.437404E-1	4.191309E-1	4.572685E-1	4.459601E-1	4.162131E-1	4.697621E-1	4.274801E-1	4.787546E-1	4.831947E-1	4.147528E-1	3.740350E-1	4.472514E-1	4.793785E-1	4.433066E-1	4.523126E-1	4.758285E-1	4.394793E-1	4.169589E-1	5.531596E-1	4.330281E-1	4.250482E-1	4.814860E-1	4.369743E-1	4.035502E-1	4.351250E-1	4.144698E-1	4.387340E-1	4.577384E-1	4.452736E-1	4.567421E-1	4.165022E-1	4.315845E-1	4.605791E-1	4.383856E-1	4.567122E-1	4.267515E-1	4.418076E-1	4.732823E-1	4.513011E-1	4.404470E-1	4.741683E-1	4.543730E-1	4.101966E-1	4.901526E-1	4.266101E-1	4.025055E-1	4.308491E-1	4.573684E-1	4.330953E-1	4.779594E-1	4.305130E-1	4.623358E-1	4.576368E-1	4.858669E-1	4.633641E-1	4.065862E-1	4.469073E-1	5.155613E-1	4.669077E-1	4.030988E-1	4.704539E-1	4.599702E-1	4.497128E-1	4.492008E-1	4.630248E-1	4.248737E-1	4.775143E-1	4.109923E-1	4.485802E-1	4.249745E-1	4.461750E-1	4.272786E-1	4.719394E-1	4.372677E-1	4.458762E-1	4.709993E-1	4.448917E-1	4.671859E-1	4.665841E-1	4.437555E-1	4.193021E-1	3.590570E-1	4.789626E-1	4.149649E-1	4.663779E-1	3.966155E-1	4.306332E-1	4.094907E-1	4.463541E-1	4.133674E-1	4.433790E-1	4.918459E-1	4.308426E-1	4.665539E-1	4.535185E-1	4.492884E-1	4.676667E-1	4.612235E-1	4.361466E-1	4.541669E-1	4.789073E-1	4.396138E-1	4.650030E-1	4.045950E-1	4.342717E-1	4.740173E-1	4.566431E-1	4.267772E-1	4.575451E-1	5.743086E-1	6.069433E-1
5.418180E+2	4.807564E-1	4.232115E-1	4.374032E-1	4.431457E-1	3.889517E-1	4.870979E-1	4.594276E-1	4.253692E-1	4.777365E-1	4.255226E-1	4.284215E-1	4.282192E-1	4.662448E-1	4.434173E-1	4.233547E-1	4.943082E-1	4.931966E-1	4.552874E-1	4.240719E-1	4.744585E-1	4.663721E-1	4.281018E-1	4.425516E-1	4.721410E-1	4.319708E-1	4.936802E-1	4.567819E-1	4.135662E-1	4.802086E-1	4.279335E-1	4.533081E-1	4.712199E-1	4.052394E-1	4.335233E-1	4.473660E-1	4.552447E-1	4.476876E-1	4.769325E-1	4.098073E-1	4.071173E-1	4.953006E-1	4.023732E-1	4.326303E-1	4.367658E-1	4.912176E-1	4.541895E-1	4.357737E-1	4.444810E-1	4.962421E-1	4.968973E-1	4.668882E-1	4.596984E-1	4.483879E-1	4.053895E-1	4.935861E-1	4.647248E-1	4.394249E-1	4.248271E-1	5.050169E-1	4.771804E-1	4.974469E-1	4.392777E-1	5.253486E-1	4.296335E-1	5.337281E-1	4.891558E-1	4.560697E-1	4.538020E-1	4.817894E-1	4.657535E-1	4.306458E-1	4.389624E-1	4.425680E-1	4.770032E-1	4.196610E-1	4.947258E-1	4.381201E-1	4.601856E-1	4.248540E-1	4.124003E-1	4.881400E-1	4.377908E-1	4.235322E-1	4.417457E-1	4.559645E-1	5.166689E-1	4.528509E-1	4.571658E-1	4.854336E-1	4.367984E-1	4.404951E-1	4.471516E-1	4.583922E-1	4.608474E-1	4.595129E-1	4.602423E-1	5.054036E-1	4.677875E-1	4.460844E-1	4.210853E-1	4.411450E-1	4.631722E-1	4.812793E-1	4.297718E-1	4.557824E-1	4.947152E-1	4.608343E-1	4.263279E-1	4.215581E-1	4.639308E-1	5.179977E-1	4.512160E-1	4.734035E-1	4.778959E-1	4.795060E-1	4.896124E-1	4.968741E-1	4.748055E-1	4.410293E-1	4.387160E-1	4.716699E-1	4.192080E-1	4.846963E-1	4.151427E-1	4.669641E-1	4.302984E-1	4.760166E-1	4.419049E-1	4.430734E-1	3.905775E-1	4.661575E-1	4.305607E-1	4.295009E-1	4.424421E-1	4.090342E-1	4.362009E-1	4.662120E-1	4.601611E-1	4.576986E-1	4.660578E-1	4.799087E-1	4.486673E-1	4.253106E-1	4.887709E-1	4.582152E-1	4.367556E-1	4.534495E-1	4.638471E-1	4.972559E-1	4.295785E-1	4.645443E-1	4.626322E-1	4.954467E-1	4.580201E-1	4.202084E-1	4.155264E-1	4.697299E-1	4.616788E-1	4.421893E-1	5.059015E-1	4.414615E-1	4.482349E-1	5.550472E-1	4.110121E-1	4.872473E-1
5.423100E+2	6.209623E-1	6.015728E-1	6.239642E-1	6.220733E-1	5.875902E-1	6.287956E-1	5.876901E-1	6.184341E-1	6.244165E-1	6.020027E-1	5.844490E-1	5.708349E-1	6.216872E-1	6.113958E-1	5.743486E-1	6.219727E-1	6.130399E-1	6.949671E-1	6.301372E-1	5.810937E-1	6.231400E-1	6.555970E-1	5.730289E-1	6.637935E-1	5.898999E-1	5.749650E-1	5.727611E-1	6.546919E-1	6.082329E-1	6.238281E-1	6.082367E-1	6.655297E-1	6.097995E-1	6.477302E-1	5.324705E-1	5.921254E-1	6.481287E-1	5.866304E-1	6.195867E-1	5.888669E-1	6.388053E-1	5.967311E-1	5.818616E-1	6.301852E-1	6.364746E-1	5.624962E-1	6.145364E-1	5.953771E-1	6.037266E-1	6.398579E-1	6.096279E-1	6.397659E-1	6.341433E-1	5.990118E-1	6.062197E-1	5.650026E-1	6.202131E-1	6.025150E-1	5.939662E-1	6.070532E-1	6.676621E-1	6.017463E-1	6.423940E-1	5.910101E-1	6.228541E-1	6.048150E-1	6.563535E-1	6.817063E-1	6.292373E-1	6.400480E-1	5.916010E-1	6.217297E-1	6.447772E-1	6.119865E-1	5.882108E-1	5.904221E-1	6.414699E-1	6.726404E-1	6.550990E-1	6.343701E-1	5.586308E-1	6.458914E-1	6.674855E-1	6.292051E-1	5.993397E-1	6.081681E-1	5.852996E-1	6.294533E-1	6.460277E-1	5.819483E-1	6.465105E-1	6.262176E-1	6.298615E-1	6.396479E-1	6.274891E-1	6.174306E-1	6.460166E-1	5.896868E-1	6.407385E-1	6.071186E-1	6.407756E-1	5.632617E-1	6.386484E-1	6.529191E-1	6.884693E-1	6.270925E-1	6.384769E-1	6.323864E-1	6.332974E-1	5.615704E-1	6.467595E-1	6.291387E-1	6.465511E-1	6.233635E-1	5.911247E-1	6.503833E-1	6.274209E-1	6.576544E-1	6.720432E-1	5.581719E-1	6.298280E-1	6.110992E-1	6.061462E-1	6.710101E-1	5.839670E-1	5.949210E-1	6.203496E-1	6.016312E-1	6.246870E-1	6.058915E-1	6.177291E-1	7.079519E-1	6.635943E-1	6.314508E-1	6.058874E-1	6.237492E-1	5.924166E-1	6.090755E-1	6.349852E-1	5.603603E-1	5.843764E-1	6.483768E-1	7.095095E-1	6.192979E-1	6.572480E-1	6.625507E-1	5.914036E-1	6.801586E-1	5.887008E-1	5.829858E-1	6.221909E-1	6.397206E-1	6.212814E-1	6.403856E-1	5.884065E-1	6.575904E-1	6.317644E-1	6.047887E-1	6.417580E-1	6.116128E-1	5.634987E-1	6.480775E-1	6.941590E-1	6.509073E-1	6.173050E-1
5.428140E+2	8.162508E-1	8.458663E-1	9.125040E-1	8.502049E-1	8.243009E-1	7.662854E-1	8.486923E-1	8.519949E-1	8.710246E-1	8.217671E-1	8.086312E-1	8.813985E-1	8.301842E-1	8.849322E-1	8.119247E-1	8.370800E-1	8.113515E-1	8.438014E-1	8.218922E-1	8.951016E-1	8.597075E-1	8.518574E-1	8.256723E-1	8.547606E-1	8.287054E-1	8.088190E-1	8.086578E-1	8.674079E-1	8.352809E-1	7.946675E-1	8.416869E-1	8.746041E-1	8.098462E-1	8.601632E-1	7.643548E-1	8.906988E-1	9.224333E-1	8.346114E-1	8.528709E-1	8.344846E-1	8.547381E-1	8.026741E-1	8.165679E-1	8.606531E-1	8.955297E-1	8.194849E-1	8.148105E-1	8.225776E-1	8.530341E-1	8.455943E-1	8.589131E-1	9.285004E-1	8.298613E-1	7.570120E-1	8.391023E-1	8.515986E-1	8.570108E-1	8.643678E-1	8.255111E-1	8.506712E-1	8.391431E-1	8.273768E-1	8.207292E-1	8.604192E-1	8.419351E-1	8.253839E-1	8.184532E-1	8.939936E-1	8.543478E-1	8.136529E-1	8.224423E-1	7.739364E-1	9.438786E-1	9.031323E-1	7.853181E-1	8.327005E-1	8.350124E-1	7.949411E-1	8.264846E-1	8.217635E-1	8.428843E-1	8.298806E-1	8.302271E-1	8.771781E-1	8.979494E-1	8.023384E-1	8.628746E-1	8.490730E-1	8.366067E-1	8.047965E-1	8.842965E-1	8.562955E-1	8.667033E-1	7.835659E-1	8.106118E-1	8.236494E-1	7.890021E-1	7.648909E-1	7.750069E-1	7.600822E-1	8.253453E-1	8.143181E-1	8.358132E-1	8.740103E-1	8.539712E-1	8.541439E-1	8.410266E-1	8.273226E-1	8.309491E-1	7.899378E-1	8.299032E-1	8.711938E-1	7.593535E-1	7.987936E-1	8.151848E-1	8.001441E-1	8.417653E-1	8.862194E-1	8.178317E-1	8.151031E-1	8.522766E-1	8.384280E-1	8.504707E-1	7.538632E-1	8.626731E-1	8.250306E-1	8.643260E-1	8.239829E-1	8.178853E-1	8.630027E-1	8.308931E-1	8.291447E-1	8.944368E-1	7.439942E-1	7.916977E-1	8.369075E-1	8.565678E-1	8.313237E-1	8.557521E-1	8.205169E-1	8.213965E-1	8.152716E-1	8.520247E-1	8.815016E-1	8.691735E-1	8.284598E-1	8.311904E-1	9.018347E-1	8.608642E-1	8.009039E-1	7.894295E-1	8.470852E-1	8.550458E-1	8.291721E-1	8.272322E-1	8.432309E-1	8.417383E-1	7.703794E-1	7.995211E-1	8.248031E-1	8.980694E-1	8.283300E-1	9.305657E-1	8.161442E-1	8.689398E-1
5.433230E+2	9.847838E-1	9.692886E-1	1.085405E+0	1.018067E+0	1.025836E+0	1.000759E+0	1.084740E+0	1.075407E+0	1.011372E+0	9.722953E-1	1.086750E+0	1.050327E+0	1.042826E+0	9.939073E-1	1.025484E+0	1.029806E+0	9.706257E-1	1.030215E+0	9.656624E-1	1.108080E+0	9.910234E-1	1.022508E+0	9.696953E-1	1.059618E+0	1.011061E+0	1.005939E+0	1.037754E+0	9.730417E-1	9.942147E-1	1.036156E+0	1.013213E+0	1.000707E+0	9.567348E-1	1.042125E+0	1.027625E+0	1.027687E+0	1.016532E+0	9.932500E-1	1.036594E+0	9.759402E-1	1.115455E+0	9.928419E-1	9.868221E-1	9.146297E-1	1.046780E+0	9.366809E-1	1.033599E+0	9.576598E-1	1.031329E+0	1.013645E+0	9.394763E-1	9.902680E-1	1.036970E+0	9.753901E-1	1.027614E+0	1.010469E+0	1.028868E+0	1.002675E+0	9.844506E-1	1.053104E+0	1.037824E+0	1.022757E+0	1.104800E+0	9.632120E-1	9.469728E-1	9.724371E-1	1.002209E+0	1.007347E+0	1.096062E+0	1.017327E+0	9.994196E-1	9.873639E-1	1.032761E+0	1.024336E+0	9.851875E-1	1.050006E+0	9.889653E-1	9.843325E-1	9.120640E-1	1.055855E+0	9.995814E-1	9.950069E-1	9.962120E-1	1.016083E+0	1.018174E+0	1.033438E+0	1.041391E+0	1.082406E+0	1.086070E+0	1.016815E+0	1.030145E+0	1.000743E+0	1.047372E+0	1.017667E+0	1.002672E+0	1.054786E+0	1.041017E+0	1.041809E+0	9.612667E-1	9.989286E-1	1.013753E+0	1.070707E+0	1.020466E+0	1.004246E+0	1.017756E+0	1.005221E+0	1.043422E+0	9.592884E-1	9.517397E-1	9.834088E-1	1.031223E+0	1.062380E+0	9.819725E-1	9.665517E-1	9.855376E-1	9.879579E-1	1.056819E+0	1.044340E+0	1.016767E+0	1.042388E+0	1.124745E+0	9.636980E-1	1.030038E+0	9.754665E-1	1.059866E+0	9.561392E-1	1.025839E+0	9.612323E-1	9.765128E-1	9.835793E-1	1.033266E+0	1.035385E+0	9.746485E-1	9.946974E-1	9.382840E-1	1.011028E+0	1.039134E+0	9.732415E-1	1.044061E+0	9.651217E-1	1.026709E+0	1.002530E+0	1.041552E+0	1.092251E+0	1.033850E+0	9.440930E-1	1.052333E+0	9.835700E-1	1.012051E+0	9.853367E-1	1.002714E+0	1.016374E+0	1.010859E+0	9.848337E-1	1.004225E+0	1.025454E+0	1.031801E+0	9.305689E-1	9.780406E-1	9.742977E-1	1.042118E+0	8.994893E-1	1.016544E+0	9.681045E-1	1.005661E+0
5.438290E+2	1.123470E+0	1.083791E+0	1.090929E+0	1.068312E+0	1.131370E+0	1.040421E+0	1.081075E+0	1.103035E+0	1.097411E+0	1.083756E+0	1.087964E+0	1.044261E+0	1.096953E+0	1.149885E+0	1.080760E+0	1.042206E+0	1.103625E+0	1.098584E+0	1.049618E+0	1.109792E+0	1.093004E+0	1.067374E+0	1.063324E+0	1.160351E+0	1.062989E+0	1.027787E+0	1.075294E+0	1.096185E+0	1.061967E+0	1.108993E+0	1.082828E+0	1.072018E+0	1.091137E+0	1.078534E+0	1.104341E+0	1.114879E+0	1.072357E+0	1.054482E+0	1.103546E+0	1.092672E+0	1.052818E+0	9.811455E-1	1.028959E+0	1.077205E+0	1.047243E+0	1.067852E+0	1.149485E+0	1.009514E+0	1.065712E+0	1.147985E+0	1.103665E+0	1.134593E+0	1.060469E+0	1.072426E+0	1.062514E+0	1.087242E+0	1.116736E+0	1.097608E+0	1.086143E+0	1.091354E+0	1.093847E+0	1.097458E+0	1.075623E+0	1.101484E+0	1.079831E+0	1.102069E+0	1.041931E+0	1.013225E+0	1.169635E+0	1.059567E+0	1.034775E+0	1.002477E+0	1.090278E+0	1.103807E+0	1.051108E+0	1.153531E+0	1.090558E+0	1.071046E+0	1.064409E+0	1.123382E+0	1.087360E+0	1.099141E+0	1.069262E+0	1.080846E+0	1.135938E+0	1.048334E+0	1.099760E+0	1.123096E+0	1.044492E+0	1.065894E+0	1.079804E+0	1.088930E+0	1.107173E+0	1.134634E+0	1.132793E+0	1.228685E+0	1.140828E+0	1.074754E+0	1.147747E+0	1.026406E+0	1.137733E+0	1.065539E+0	1.074513E+0	1.099797E+0	1.155703E+0	1.114061E+0	1.093771E+0	1.080745E+0	1.151050E+0	1.017574E+0	1.155955E+0	1.083082E+0	1.102829E+0	1.011746E+0	1.147815E+0	1.150969E+0	1.110975E+0	1.097687E+0	1.112780E+0	1.069285E+0	1.114205E+0	1.069346E+0	1.095555E+0	1.086950E+0	1.118122E+0	1.095987E+0	1.071023E+0	1.121375E+0	1.072090E+0	1.045487E+0	1.106992E+0	1.135506E+0	1.014903E+0	1.066944E+0	1.054243E+0	1.040548E+0	1.061092E+0	9.912893E-1	1.062807E+0	1.086542E+0	1.083224E+0	1.091369E+0	1.083681E+0	1.098303E+0	1.126768E+0	1.112522E+0	1.056465E+0	1.092849E+0	1.078936E+0	1.044188E+0	1.112464E+0	1.055288E+0	1.071625E+0	1.112718E+0	1.036250E+0	1.002708E+0	1.074160E+0	1.038189E+0	1.094816E+0	1.051044E+0	1.092845E+0	1.029556E+0	1.129090E+0	1.084539E+0	1.150934E+0
5.443240E+2	1.093691E+0	1.124768E+0	1.154625E+0	1.126222E+0	1.196421E+0	1.085420E+0	1.082742E+0	1.158949E+0	1.080633E+0	1.186241E+0	1.139363E+0	1.143960E+0	1.137698E+0	1.143969E+0	1.155490E+0	1.119089E+0	1.090115E+0	1.144082E+0	1.091448E+0	1.180352E+0	1.182252E+0	1.125642E+0	1.144852E+0	1.184952E+0	1.139133E+0	1.147876E+0	1.200432E+0	1.202629E+0	1.156349E+0	1.118080E+0	1.142169E+0	1.125658E+0	1.151591E+0	1.186150E+0	1.175272E+0	1.089495E+0	1.123900E+0	1.139797E+0	1.122263E+0	1.128869E+0	1.202374E+0	1.101324E+0	1.113980E+0	1.205548E+0	1.112876E+0	1.143168E+0	1.141916E+0	1.176577E+0	1.128552E+0	1.109416E+0	1.087612E+0	1.192429E+0	1.208050E+0	1.105341E+0	1.105486E+0	1.109529E+0	1.144910E+0	1.120717E+0	1.097011E+0	1.188508E+0	1.127939E+0	1.131491E+0	1.146211E+0	1.121550E+0	1.128944E+0	1.090236E+0	1.102234E+0	1.218807E+0	1.227241E+0	1.162937E+0	1.131594E+0	1.206035E+0	1.215796E+0	1.108164E+0	1.067679E+0	1.163688E+0	1.151459E+0	1.138426E+0	1.109761E+0	1.157074E+0	1.165711E+0	1.172729E+0	1.141417E+0	1.135164E+0	1.101164E+0	1.149627E+0	1.094970E+0	1.120523E+0	1.123794E+0	1.145634E+0	1.110827E+0	1.124911E+0	1.024409E+0	1.104723E+0	1.130050E+0	1.179005E+0	1.114133E+0	1.133278E+0	1.115374E+0	1.149057E+0	1.160762E+0	1.153623E+0	1.123110E+0	1.163296E+0	1.242780E+0	1.095724E+0	1.138455E+0	1.121391E+0	1.138744E+0	1.105629E+0	1.143175E+0	1.175894E+0	1.147411E+0	1.104259E+0	1.155131E+0	1.151962E+0	1.130268E+0	1.146076E+0	1.163839E+0	1.052884E+0	1.203924E+0	1.051485E+0	1.144338E+0	1.134090E+0	1.111170E+0	1.127376E+0	1.171190E+0	1.188234E+0	1.158631E+0	1.102839E+0	1.130194E+0	1.254279E+0	1.098482E+0	1.071755E+0	1.107929E+0	1.122266E+0	1.212609E+0	1.131591E+0	1.133114E+0	1.074366E+0	1.195919E+0	1.065108E+0	1.117739E+0	1.179714E+0	1.125238E+0	1.194086E+0	1.125559E+0	1.128929E+0	1.150387E+0	1.078652E+0	1.149408E+0	1.123806E+0	1.140244E+0	1.177971E+0	1.143699E+0	1.054871E+0	1.155414E+0	1.038588E+0	1.119751E+0	1.163454E+0	1.173935E+0	1.025041E+0	1.222015E+0	1.080172E+0	1.106483E+0
5.448150E+2	1.120036E+0	1.095088E+0	1.193568E+0	1.160758E+0	1.251855E+0	1.086299E+0	1.131728E+0	1.156092E+0	1.184233E+0	1.143682E+0	1.118944E+0	1.209514E+0	1.218288E+0	1.224293E+0	1.133830E+0	1.209521E+0	1.096054E+0	1.186459E+0	1.134463E+0	1.211793E+0	1.112907E+0	1.122706E+0	1.123121E+0	1.176322E+0	1.088409E+0	1.128883E+0	1.139414E+0	1.180460E+0	1.142241E+0	1.170820E+0	1.097724E+0	1.155972E+0	1.141940E+0	1.233663E+0	1.149480E+0	1.152412E+0	1.196852E+0	1.201297E+0	1.183884E+0	1.175413E+0	1.217931E+0	1.166853E+0	1.129860E+0	1.197069E+0	1.185058E+0	1.148185E+0	1.126552E+0	1.181948E+0	1.102573E+0	1.253771E+0	1.191424E+0	1.114015E+0	1.188638E+0	1.104147E+0	1.106530E+0	1.142203E+0	1.106205E+0	1.137956E+0	1.079529E+0	1.113854E+0	1.225038E+0	1.142676E+0	1.157201E+0	1.100474E+0	1.186152E+0	1.199946E+0	1.116558E+0	1.158600E+0	1.132109E+0	1.068952E+0	1.125988E+0	1.120317E+0	1.281140E+0	1.085154E+0	1.053629E+0	1.247928E+0	1.213391E+0	1.123617E+0	1.090170E+0	1.200034E+0	1.148673E+0	1.196358E+0	1.172092E+0	1.163461E+0	1.162630E+0	1.111511E+0	1.188879E+0	1.149582E+0	1.156110E+0	1.161369E+0	1.190534E+0	1.179665E+0	1.208600E+0	1.178063E+0	1.180279E+0	1.234950E+0	1.204037E+0	1.145012E+0	1.157897E+0	1.163330E+0	1.178673E+0	1.094816E+0	1.199905E+0	1.185171E+0	1.179848E+0	1.168813E+0	1.062594E+0	1.155740E+0	1.149682E+0	1.130074E+0	1.204909E+0	1.218364E+0	1.120591E+0	1.129665E+0	1.130538E+0	1.128438E+0	1.179418E+0	1.136358E+0	1.163382E+0	1.149017E+0	1.239272E+0	1.092418E+0	1.104311E+0	1.097284E+0	1.176877E+0	1.174037E+0	1.201973E+0	1.145476E+0	1.157415E+0	1.160127E+0	1.202372E+0	1.184092E+0	1.132558E+0	1.124969E+0	1.172098E+0	1.210959E+0	1.233869E+0	1.115021E+0	1.167943E+0	1.146586E+0	1.210067E+0	1.180012E+0	1.198342E+0	1.169179E+0	1.173746E+0	1.165570E+0	1.141093E+0	1.178872E+0	1.114891E+0	1.110028E+0	1.123690E+0	1.175718E+0	1.160725E+0	1.149263E+0	1.122368E+0	1.108838E+0	1.190744E+0	1.113752E+0	1.194005E+0	1.144038E+0	1.210430E+0	1.112817E+0	1.232784E+0	1.257954E+0	1.217503E+0
5.453180E+2	1.031556E+0	1.138832E+0	1.225067E+0	1.147386E+0	1.137641E+0	1.124363E+0	1.113148E+0	1.143901E+0	1.118697E+0	1.115012E+0	1.061037E+0	1.113157E+0	1.133476E+0	1.163160E+0	1.034316E+0	1.131166E+0	1.088328E+0	1.117803E+0	1.080715E+0	1.257207E+0	1.183766E+0	1.144744E+0	1.159846E+0	1.162493E+0	1.124785E+0	1.005556E+0	1.134553E+0	1.107751E+0	1.082338E+0	1.126821E+0	1.094637E+0	1.063933E+0	1.112633E+0	1.085511E+0	1.128705E+0	1.121817E+0	1.204880E+0	1.153579E+0	1.046145E+0	1.123773E+0	1.187063E+0	1.058749E+0	1.112899E+0	1.105207E+0	1.167981E+0	1.150561E+0	1.094823E+0	1.093349E+0	1.126078E+0	1.136050E+0	1.061834E+0	1.163648E+0	1.129861E+0	1.020098E+0	1.064098E+0	1.097843E+0	1.137960E+0	1.107776E+0	1.063880E+0	1.129455E+0	1.088028E+0	1.138315E+0	1.157045E+0	1.065705E+0	1.025562E+0	1.119430E+0	1.142303E+0	1.148057E+0	1.118019E+0	1.088525E+0	1.110713E+0	1.139473E+0	1.207465E+0	1.054099E+0	1.090483E+0	1.139348E+0	1.044629E+0	1.062179E+0	1.024416E+0	1.143075E+0	1.193475E+0	1.110004E+0	1.096563E+0	1.152818E+0	1.179932E+0	1.093851E+0	1.109856E+0	1.070715E+0	1.105084E+0	1.119095E+0	1.115490E+0	1.125173E+0	1.168973E+0	1.100655E+0	1.080880E+0	1.192136E+0	1.109667E+0	1.119938E+0	1.091637E+0	1.084673E+0	1.110836E+0	1.167325E+0	1.126443E+0	1.112699E+0	1.124214E+0	1.092936E+0	1.103692E+0	1.081133E+0	1.126810E+0	9.981797E-1	1.164173E+0	1.177659E+0	1.117896E+0	1.097253E+0	1.173918E+0	1.144659E+0	1.085881E+0	1.072313E+0	1.146530E+0	1.090923E+0	1.114467E+0	1.008328E+0	1.096639E+0	1.068149E+0	1.068863E+0	1.138457E+0	1.072896E+0	1.066637E+0	1.086978E+0	1.083278E+0	1.109965E+0	1.149051E+0	1.088374E+0	1.120503E+0	1.099889E+0	1.105148E+0	1.130079E+0	1.076748E+0	1.077383E+0	1.043469E+0	1.103981E+0	1.137524E+0	1.120411E+0	1.096151E+0	1.157493E+0	1.132601E+0	1.074001E+0	1.141970E+0	1.149722E+0	1.094535E+0	1.073810E+0	1.128206E+0	1.139985E+0	1.086789E+0	1.161916E+0	1.123873E+0	1.135777E+0	1.127566E+0	1.052637E+0	1.035659E+0	1.106518E+0	1.105035E+0	1.128625E+0	1.160795E+0	1.043763E+0
5.458370E+2	1.007567E+0	1.025215E+0	1.027881E+0	9.546356E-1	1.052993E+0	9.359811E-1	9.532798E-1	1.020310E+0	1.055711E+0	9.812187E-1	9.369076E-1	1.022986E+0	9.774405E-1	9.723276E-1	9.539651E-1	1.044063E+0	9.575624E-1	9.741213E-1	9.378628E-1	1.024232E+0	9.514323E-1	9.932349E-1	9.773364E-1	1.033780E+0	9.732924E-1	1.003372E+0	9.754459E-1	1.057240E+0	9.963009E-1	1.004787E+0	9.995178E-1	1.007722E+0	1.043985E+0	9.864572E-1	1.017176E+0	9.828614E-1	9.592838E-1	9.503941E-1	9.854879E-1	9.868435E-1	1.080894E+0	9.550634E-1	9.805492E-1	1.010587E+0	9.900793E-1	9.965477E-1	1.015363E+0	9.719990E-1	9.894052E-1	1.006682E+0	1.009861E+0	9.996570E-1	9.908586E-1	9.726179E-1	9.699405E-1	9.562932E-1	9.923407E-1	9.565097E-1	9.907533E-1	1.000274E+0	1.016447E+0	9.409360E-1	1.019390E+0	9.883810E-1	9.507776E-1	9.779280E-1	9.794220E-1	1.042827E+0	1.041154E+0	9.825843E-1	9.869365E-1	9.310745E-1	1.088163E+0	9.477501E-1	9.251722E-1	9.950237E-1	1.025336E+0	9.905185E-1	9.408374E-1	1.042577E+0	1.002355E+0	9.629316E-1	9.849164E-1	1.038017E+0	9.984486E-1	9.672425E-1	9.669534E-1	9.804562E-1	1.018993E+0	9.262430E-1	9.095980E-1	9.940585E-1	1.029067E+0	9.595486E-1	9.302629E-1	1.068743E+0	1.005025E+0	9.745567E-1	9.339976E-1	9.648121E-1	9.952208E-1	1.000243E+0	9.716547E-1	1.047599E+0	1.073109E+0	9.630938E-1	9.792536E-1	1.008986E+0	1.020701E+0	9.566361E-1	1.015748E+0	1.050722E+0	1.029596E+0	9.478866E-1	1.049321E+0	9.912153E-1	1.000910E+0	1.078999E+0	9.886125E-1	9.394941E-1	1.040947E+0	1.005965E+0	9.573615E-1	9.539677E-1	1.026350E+0	9.631472E-1	9.839826E-1	9.862152E-1	1.057940E+0	9.172212E-1	9.991877E-1	1.008629E+0	9.412346E-1	9.843943E-1	9.450020E-1	1.017857E+0	9.932510E-1	9.470750E-1	9.954065E-1	9.953467E-1	9.797967E-1	9.719597E-1	9.662059E-1	1.021773E+0	9.822317E-1	9.884035E-1	1.020062E+0	1.056861E+0	9.847055E-1	9.756164E-1	9.783943E-1	9.646870E-1	1.044147E+0	9.852269E-1	9.735529E-1	1.003192E+0	1.014881E+0	9.703420E-1	9.424043E-1	9.676913E-1	1.010896E+0	9.570408E-1	9.764017E-1	8.962384E-1	1.075908E+0
5.463090E+2	9.054935E-1	9.771347E-1	9.727288E-1	9.398978E-1	9.106540E-1	9.033095E-1	8.748266E-1	9.788320E-1	8.960733E-1	9.560688E-1	8.985716E-1	9.090646E-1	9.056465E-1	8.889699E-1	8.718630E-1	9.119728E-1	9.117491E-1	8.984227E-1	9.132814E-1	9.776594E-1	9.497518E-1	9.161323E-1	9.307356E-1	9.827818E-1	8.883154E-1	9.044841E-1	9.711288E-1	9.773203E-1	9.054795E-1	9.136486E-1	9.479260E-1	9.826565E-1	9.056471E-1	9.551244E-1	9.597211E-1	9.594294E-1	8.958917E-1	8.708633E-1	9.584739E-1	8.992658E-1	9.569145E-1	8.576059E-1	8.831207E-1	9.337422E-1	9.856368E-1	9.379186E-1	9.267051E-1	9.690973E-1	9.800968E-1	9.318728E-1	8.727166E-1	9.643545E-1	9.537816E-1	8.966486E-1	9.254068E-1	9.466346E-1	9.548940E-1	9.555595E-1	8.659885E-1	9.111737E-1	9.351211E-1	9.225254E-1	9.526649E-1	9.537110E-1	9.870973E-1	9.476155E-1	9.577102E-1	9.547906E-1	9.545816E-1	8.901287E-1	8.986304E-1	8.883924E-1	1.041176E+0	9.312259E-1	9.073960E-1	9.791139E-1	9.066764E-1	8.973808E-1	8.129945E-1	9.170960E-1	9.343011E-1	9.609111E-1	9.305355E-1	8.985292E-1	9.825261E-1	9.534261E-1	9.522040E-1	9.342607E-1	9.193153E-1	9.345692E-1	8.924112E-1	9.355666E-1	9.807905E-1	9.644270E-1	9.126519E-1	9.055516E-1	9.277646E-1	9.164006E-1	9.047955E-1	9.065576E-1	9.265373E-1	9.931965E-1	8.774518E-1	9.647828E-1	9.135698E-1	8.606801E-1	8.459798E-1	9.430326E-1	9.463541E-1	8.978373E-1	9.728383E-1	9.439151E-1	8.860999E-1	9.125642E-1	9.419896E-1	9.522826E-1	9.484058E-1	9.340223E-1	8.967837E-1	9.542878E-1	9.571148E-1	9.236997E-1	9.205343E-1	9.083777E-1	9.732356E-1	9.700728E-1	8.821939E-1	9.621850E-1	8.887118E-1	8.849556E-1	9.453572E-1	9.989744E-1	8.996917E-1	9.562476E-1	8.742466E-1	9.294615E-1	9.815592E-1	9.236769E-1	9.333070E-1	8.942984E-1	8.912340E-1	9.249047E-1	9.170571E-1	9.484077E-1	9.050953E-1	8.881070E-1	9.341829E-1	9.566647E-1	9.935446E-1	9.302831E-1	9.939102E-1	9.354736E-1	9.345407E-1	8.672546E-1	9.481939E-1	9.206218E-1	8.967974E-1	8.667472E-1	9.675656E-1	9.630380E-1	9.430599E-1	9.629859E-1	9.647660E-1	8.338308E-1	1.027248E+0
5.468150E+2	1.064080E+0	9.896326E-1	9.985431E-1	1.031897E+0	1.103906E+0	9.694188E-1	1.000265E+0	1.024433E+0	1.032544E+0	9.812100E-1	1.045586E+0	1.113457E+0	1.001576E+0	9.775502E-1	9.706644E-1	1.043592E+0	1.004710E+0	1.003437E+0	9.789466E-1	1.098425E+0	1.026213E+0	9.873877E-1	1.021202E+0	1.053826E+0	9.673876E-1	9.657525E-1	1.043093E+0	1.052540E+0	9.811844E-1	9.226006E-1	1.010963E+0	1.057042E+0	9.918158E-1	9.804027E-1	1.024877E+0	1.042270E+0	1.073768E+0	1.045611E+0	1.034458E+0	1.020919E+0	1.036879E+0	9.961644E-1	1.003143E+0	1.007652E+0	1.038974E+0	1.059727E+0	1.040564E+0	1.013334E+0	9.856756E-1	1.022434E+0	1.083236E+0	9.981717E-1	1.002301E+0	9.135486E-1	9.882892E-1	1.003182E+0	1.058019E+0	9.866564E-1	9.817154E-1	9.860842E-1	1.065753E+0	1.003127E+0	1.048173E+0	9.738736E-1	1.014240E+0	1.042790E+0	1.057936E+0	1.026133E+0	1.088029E+0	9.995683E-1	9.818948E-1	9.498884E-1	1.126332E+0	1.011366E+0	9.903815E-1	1.057803E+0	9.823168E-1	1.046426E+0	9.471616E-1	1.021500E+0	1.102220E+0	1.033975E+0	9.707385E-1	1.032635E+0	1.120740E+0	1.031166E+0	9.730192E-1	1.051896E+0	9.856830E-1	9.864157E-1	9.786073E-1	1.022352E+0	1.054983E+0	1.049479E+0	9.934551E-1	1.058961E+0	1.009493E+0	1.038305E+0	9.650803E-1	9.646346E-1	1.007252E+0	1.064003E+0	1.032915E+0	1.015357E+0	1.073998E+0	1.055204E+0	1.007460E+0	9.774949E-1	1.059417E+0	9.502537E-1	1.014340E+0	1.066292E+0	1.072642E+0	9.925868E-1	1.008192E+0	1.059816E+0	1.078825E+0	1.044080E+0	1.021022E+0	9.762954E-1	1.071743E+0	9.760375E-1	9.744830E-1	1.011739E+0	1.070091E+0	1.028170E+0	1.026253E+0	9.840732E-1	1.026839E+0	9.899121E-1	1.054289E+0	1.013875E+0	1.005948E+0	9.974763E-1	9.880683E-1	1.070059E+0	1.012074E+0	9.888487E-1	9.847240E-1	9.882347E-1	1.035582E+0	1.067570E+0	1.009458E+0	9.514641E-1	1.072712E+0	1.015851E+0	9.902217E-1	1.051638E+0	1.084420E+0	1.019501E+0	9.641553E-1	1.004138E+0	9.824200E-1	1.014327E+0	9.695599E-1	9.713363E-1	9.804310E-1	1.068316E+0	1.011384E+0	1.008664E+0	1.032101E+0	9.604344E-1	1.026831E+0	1.207922E+0	1.099673E+0
5.473160E+2	1.114740E+0	9.866304E-1	1.106840E+0	1.057966E+0	1.068879E+0	9.800466E-1	1.041991E+0	1.010547E+0	1.053097E+0	9.998291E-1	1.052619E+0	1.076880E+0	1.053392E+0	1.019258E+0	1.028404E+0	1.090113E+0	1.079184E+0	1.092282E+0	1.018072E+0	1.091630E+0	1.123685E+0	1.059133E+0	1.066461E+0	1.060368E+0	1.031819E+0	1.034514E+0	1.102515E+0	1.032888E+0	1.034628E+0	1.140244E+0	1.056035E+0	1.078844E+0	1.069262E+0	1.088002E+0	1.056951E+0	1.130826E+0	9.997427E-1	1.055051E+0	1.057537E+0	1.103165E+0	1.151112E+0	1.007654E+0	1.033013E+0	1.044454E+0	1.116301E+0	1.054214E+0	1.073622E+0	9.843169E-1	1.025304E+0	1.076966E+0	1.052932E+0	1.071931E+0	1.070306E+0	1.010868E+0	1.040484E+0	1.068418E+0	1.129352E+0	1.132545E+0	1.059727E+0	1.029206E+0	1.029138E+0	1.012552E+0	1.108082E+0	1.035642E+0	1.083668E+0	1.043844E+0	1.065927E+0	1.094997E+0	1.066842E+0	1.074567E+0	1.028280E+0	1.061819E+0	1.094944E+0	1.057431E+0	1.059722E+0	1.070808E+0	1.078266E+0	1.066216E+0	1.055812E+0	1.054618E+0	1.057256E+0	1.085772E+0	9.837054E-1	1.114747E+0	1.073331E+0	1.049392E+0	1.022974E+0	1.106320E+0	1.047164E+0	1.093859E+0	1.017011E+0	1.065417E+0	1.093599E+0	1.055945E+0	1.031592E+0	1.106513E+0	1.101204E+0	9.840528E-1	9.541137E-1	1.058934E+0	1.107350E+0	1.040641E+0	1.098138E+0	1.112084E+0	1.099427E+0	1.047320E+0	1.006035E+0	1.128605E+0	1.062710E+0	9.991661E-1	1.159567E+0	1.105193E+0	1.073092E+0	1.018893E+0	1.103428E+0	1.062667E+0	1.036335E+0	1.062111E+0	1.042219E+0	1.001651E+0	1.108976E+0	1.051637E+0	1.017039E+0	1.089219E+0	1.041477E+0	1.040806E+0	1.075819E+0	1.063821E+0	1.077108E+0	1.030562E+0	1.075647E+0	1.035435E+0	1.061086E+0	1.065044E+0	1.067940E+0	1.131241E+0	1.131247E+0	9.896603E-1	1.085766E+0	1.041038E+0	1.074555E+0	1.061928E+0	1.019002E+0	1.128303E+0	1.099507E+0	1.026384E+0	1.023291E+0	1.009978E+0	1.078275E+0	1.088621E+0	1.042457E+0	1.074476E+0	1.031333E+0	1.066864E+0	1.033379E+0	9.823398E-1	1.061555E+0	1.016697E+0	9.736288E-1	1.078011E+0	1.072492E+0	1.026552E+0	1.114214E+0	9.963021E-1	1.065907E+0
5.478120E+2	1.154390E+0	1.181945E+0	1.240659E+0	1.210774E+0	1.198665E+0	1.191483E+0	1.126876E+0	1.185265E+0	1.196598E+0	1.176638E+0	1.165349E+0	1.175914E+0	1.222612E+0	1.201818E+0	1.112047E+0	1.182285E+0	1.163258E+0	1.178356E+0	1.168135E+0	1.275210E+0	1.253999E+0	1.233587E+0	1.236410E+0	1.249192E+0	1.147700E+0	1.251591E+0	1.223064E+0	1.197521E+0	1.224029E+0	1.219719E+0	1.151850E+0	1.245652E+0	1.145970E+0	1.126285E+0	1.166612E+0	1.200372E+0	1.198186E+0	1.192391E+0	1.222468E+0	1.146206E+0	1.188657E+0	1.089008E+0	1.162685E+0	1.142398E+0	1.200997E+0	1.223238E+0	1.214531E+0	1.168750E+0	1.189950E+0	1.229312E+0	1.150115E+0	1.220170E+0	1.228576E+0	1.129958E+0	1.282648E+0	1.176569E+0	1.192283E+0	1.080757E+0	1.214502E+0	1.169541E+0	1.167405E+0	1.174472E+0	1.191392E+0	1.160112E+0	1.213649E+0	1.233369E+0	1.164032E+0	1.222443E+0	1.270720E+0	1.146587E+0	1.216358E+0	1.166446E+0	1.230274E+0	1.103566E+0	1.174571E+0	1.223235E+0	1.173918E+0	1.168544E+0	1.128490E+0	1.259549E+0	1.207856E+0	1.227586E+0	1.164430E+0	1.215632E+0	1.232431E+0	1.229368E+0	1.168217E+0	1.205812E+0	1.152620E+0	1.143986E+0	1.209735E+0	1.209124E+0	1.125171E+0	1.160917E+0	1.190891E+0	1.246144E+0	1.221878E+0	1.181782E+0	1.168184E+0	1.237623E+0	1.199148E+0	1.200579E+0	1.181179E+0	1.256347E+0	1.206898E+0	1.254578E+0	1.185747E+0	1.244289E+0	1.167190E+0	1.181132E+0	1.213400E+0	1.205705E+0	1.171975E+0	1.101483E+0	1.206104E+0	1.223484E+0	1.210691E+0	1.128240E+0	1.159657E+0	1.144773E+0	1.308521E+0	1.091256E+0	1.144170E+0	1.124900E+0	1.201298E+0	1.084502E+0	1.219833E+0	1.230533E+0	1.173349E+0	1.129585E+0	1.248377E+0	1.196038E+0	1.140295E+0	1.160917E+0	1.129167E+0	1.207043E+0	1.203382E+0	1.187755E+0	1.091177E+0	1.121042E+0	1.201207E+0	1.174238E+0	1.227665E+0	1.190453E+0	1.199185E+0	1.134187E+0	1.189894E+0	1.166313E+0	1.190991E+0	1.117405E+0	1.243736E+0	1.160257E+0	1.149452E+0	1.162920E+0	1.151167E+0	1.173022E+0	1.148064E+0	1.124919E+0	1.179404E+0	1.240243E+0	1.147603E+0	1.068590E+0	1.211403E+0	1.309521E+0	1.228061E+0
5.483090E+2	1.219050E+0	1.213876E+0	1.165412E+0	1.273873E+0	1.339665E+0	1.169950E+0	1.229857E+0	1.240574E+0	1.264147E+0	1.204853E+0	1.224584E+0	1.210511E+0	1.310484E+0	1.269073E+0	1.259051E+0	1.282066E+0	1.229161E+0	1.272847E+0	1.211295E+0	1.272922E+0	1.339176E+0	1.248153E+0	1.233481E+0	1.266295E+0	1.268768E+0	1.196124E+0	1.213441E+0	1.180926E+0	1.233339E+0	1.314751E+0	1.244886E+0	1.232760E+0	1.315066E+0	1.278696E+0	1.282176E+0	1.314746E+0	1.280616E+0	1.228093E+0	1.219644E+0	1.217202E+0	1.317202E+0	1.188800E+0	1.177855E+0	1.211673E+0	1.284115E+0	1.246095E+0	1.283742E+0	1.233815E+0	1.236047E+0	1.241627E+0	1.324253E+0	1.237958E+0	1.219265E+0	1.196319E+0	1.278896E+0	1.168590E+0	1.285077E+0	1.207299E+0	1.221062E+0	1.274433E+0	1.267136E+0	1.245192E+0	1.219869E+0	1.190140E+0	1.152753E+0	1.230068E+0	1.179170E+0	1.332276E+0	1.353628E+0	1.211830E+0	1.227312E+0	1.183349E+0	1.218019E+0	1.202375E+0	1.213181E+0	1.289602E+0	1.288767E+0	1.232398E+0	1.165346E+0	1.286489E+0	1.225112E+0	1.248303E+0	1.212500E+0	1.227559E+0	1.221976E+0	1.237499E+0	1.256622E+0	1.263286E+0	1.283946E+0	1.151720E+0	1.211927E+0	1.273322E+0	1.281507E+0	1.302695E+0	1.179861E+0	1.282420E+0	1.243195E+0	1.287377E+0	1.284887E+0	1.196705E+0	1.215022E+0	1.271928E+0	1.236832E+0	1.252651E+0	1.339694E+0	1.273604E+0	1.188279E+0	1.247755E+0	1.286437E+0	1.167457E+0	1.270048E+0	1.319426E+0	1.225317E+0	1.230761E+0	1.256169E+0	1.205495E+0	1.355016E+0	1.209951E+0	1.223306E+0	1.193762E+0	1.310287E+0	1.208412E+0	1.226142E+0	1.185349E+0	1.264255E+0	1.222731E+0	1.330241E+0	1.290067E+0	1.252616E+0	1.164003E+0	1.191358E+0	1.348278E+0	1.186213E+0	1.237005E+0	1.204246E+0	1.280471E+0	1.260831E+0	1.253484E+0	1.282636E+0	1.242049E+0	1.266606E+0	1.241065E+0	1.248473E+0	1.243279E+0	1.260490E+0	1.202063E+0	1.204334E+0	1.258177E+0	1.267899E+0	1.200317E+0	1.253398E+0	1.252024E+0	1.311153E+0	1.239025E+0	1.266799E+0	1.174464E+0	1.194061E+0	1.209173E+0	1.245556E+0	1.265079E+0	1.277776E+0	1.248364E+0	1.239584E+0	1.197850E+0	1.347932E+0
5.488180E+2	1.460702E+0	1.402539E+0	1.491963E+0	1.460600E+0	1.494903E+0	1.358894E+0	1.374832E+0	1.351828E+0	1.431037E+0	1.365048E+0	1.314069E+0	1.386038E+0	1.382375E+0	1.445077E+0	1.398277E+0	1.399327E+0	1.370432E+0	1.436680E+0	1.422377E+0	1.395866E+0	1.399483E+0	1.429305E+0	1.330729E+0	1.447537E+0	1.391225E+0	1.319406E+0	1.388315E+0	1.392955E+0	1.415109E+0	1.408509E+0	1.453444E+0	1.407496E+0	1.376573E+0	1.413428E+0	1.411109E+0	1.351277E+0	1.494672E+0	1.430858E+0	1.413893E+0	1.434823E+0	1.543217E+0	1.298718E+0	1.319938E+0	1.446252E+0	1.510357E+0	1.393799E+0	1.443821E+0	1.385175E+0	1.452991E+0	1.446695E+0	1.332015E+0	1.423701E+0	1.493995E+0	1.293942E+0	1.364498E+0	1.381710E+0	1.455554E+0	1.372542E+0	1.346434E+0	1.413770E+0	1.463808E+0	1.368602E+0	1.422369E+0	1.338229E+0	1.450992E+0	1.381883E+0	1.414352E+0	1.414385E+0	1.547440E+0	1.449900E+0	1.403096E+0	1.385579E+0	1.495239E+0	1.359910E+0	1.366426E+0	1.438022E+0	1.351479E+0	1.383251E+0	1.293485E+0	1.395807E+0	1.327941E+0	1.333454E+0	1.335704E+0	1.452615E+0	1.398449E+0	1.367436E+0	1.432084E+0	1.356141E+0	1.442011E+0	1.367126E+0	1.368438E+0	1.376836E+0	1.445123E+0	1.409842E+0	1.391942E+0	1.401517E+0	1.377239E+0	1.324057E+0	1.291777E+0	1.384491E+0	1.377477E+0	1.366244E+0	1.359493E+0	1.396379E+0	1.403346E+0	1.356932E+0	1.377530E+0	1.362962E+0	1.369099E+0	1.335259E+0	1.400479E+0	1.389978E+0	1.372302E+0	1.341736E+0	1.397932E+0	1.523655E+0	1.480966E+0	1.399237E+0	1.322685E+0	1.447426E+0	1.430643E+0	1.353222E+0	1.351523E+0	1.314712E+0	1.427740E+0	1.368777E+0	1.446166E+0	1.443244E+0	1.397684E+0	1.315554E+0	1.407603E+0	1.470242E+0	1.378017E+0	1.356866E+0	1.375839E+0	1.400822E+0	1.390715E+0	1.400437E+0	1.411148E+0	1.357973E+0	1.435108E+0	1.375349E+0	1.352294E+0	1.471739E+0	1.383149E+0	1.417737E+0	1.333115E+0	1.383871E+0	1.452516E+0	1.451008E+0	1.422398E+0	1.383642E+0	1.468690E+0	1.369523E+0	1.331729E+0	1.382010E+0	1.341414E+0	1.336252E+0	1.342804E+0	1.430386E+0	1.392737E+0	1.392265E+0	1.481494E+0	1.348796E+0	1.337671E+0
5.493070E+2	1.566880E+0	1.502687E+0	1.592586E+0	1.509088E+0	1.540847E+0	1.477988E+0	1.494596E+0	1.533593E+0	1.567237E+0	1.489543E+0	1.545247E+0	1.508129E+0	1.557912E+0	1.509985E+0	1.575710E+0	1.549412E+0	1.510446E+0	1.639970E+0	1.472467E+0	1.529930E+0	1.669190E+0	1.605351E+0	1.517027E+0	1.540618E+0	1.477646E+0	1.531215E+0	1.541618E+0	1.473699E+0	1.547116E+0	1.578423E+0	1.543675E+0	1.580470E+0	1.477544E+0	1.559840E+0	1.544382E+0	1.465667E+0	1.558867E+0	1.523752E+0	1.596374E+0	1.548862E+0	1.650844E+0	1.433409E+0	1.574539E+0	1.461712E+0	1.561679E+0	1.524514E+0	1.511676E+0	1.487814E+0	1.460760E+0	1.666204E+0	1.545644E+0	1.565996E+0	1.635909E+0	1.468535E+0	1.494856E+0	1.493386E+0	1.582674E+0	1.451199E+0	1.576348E+0	1.569926E+0	1.524030E+0	1.559114E+0	1.574950E+0	1.498550E+0	1.562258E+0	1.573549E+0	1.510720E+0	1.507622E+0	1.673361E+0	1.543110E+0	1.544205E+0	1.474925E+0	1.596879E+0	1.468359E+0	1.474689E+0	1.482131E+0	1.472028E+0	1.488887E+0	1.510509E+0	1.504841E+0	1.596221E+0	1.576487E+0	1.450051E+0	1.511598E+0	1.565984E+0	1.580928E+0	1.531350E+0	1.545943E+0	1.538626E+0	1.507364E+0	1.514401E+0	1.597129E+0	1.539761E+0	1.491347E+0	1.464894E+0	1.567552E+0	1.521904E+0	1.542270E+0	1.519775E+0	1.495612E+0	1.537278E+0	1.473351E+0	1.457978E+0	1.544439E+0	1.509649E+0	1.439456E+0	1.514517E+0	1.557758E+0	1.575997E+0	1.471779E+0	1.566975E+0	1.565126E+0	1.499728E+0	1.435953E+0	1.537412E+0	1.505293E+0	1.477719E+0	1.556534E+0	1.463417E+0	1.431104E+0	1.625164E+0	1.457226E+0	1.447900E+0	1.441957E+0	1.568026E+0	1.553023E+0	1.520351E+0	1.534181E+0	1.585499E+0	1.460488E+0	1.545960E+0	1.571765E+0	1.480603E+0	1.530602E+0	1.507444E+0	1.500785E+0	1.530544E+0	1.400664E+0	1.446984E+0	1.478741E+0	1.602551E+0	1.565044E+0	1.521573E+0	1.525096E+0	1.536484E+0	1.460899E+0	1.411187E+0	1.479198E+0	1.565165E+0	1.471833E+0	1.505342E+0	1.424988E+0	1.528141E+0	1.549420E+0	1.503017E+0	1.477658E+0	1.551900E+0	1.517586E+0	1.459338E+0	1.493207E+0	1.556176E+0	1.495557E+0	1.543775E+0	1.668458E+0	1.485734E+0
5.498010E+2	1.602083E+0	1.587309E+0	1.671188E+0	1.587950E+0	1.658765E+0	1.581811E+0	1.650810E+0	1.651204E+0	1.625451E+0	1.684303E+0	1.575528E+0	1.684327E+0	1.614069E+0	1.743206E+0	1.592938E+0	1.651600E+0	1.496427E+0	1.582519E+0	1.595007E+0	1.656297E+0	1.725178E+0	1.628608E+0	1.598947E+0	1.703816E+0	1.601266E+0	1.563094E+0	1.602184E+0	1.581492E+0	1.660805E+0	1.642208E+0	1.609162E+0	1.606770E+0	1.634109E+0	1.682913E+0	1.631846E+0	1.667800E+0	1.734052E+0	1.568663E+0	1.665957E+0	1.650586E+0	1.687682E+0	1.511291E+0	1.557638E+0	1.581537E+0	1.688333E+0	1.572715E+0	1.671248E+0	1.543043E+0	1.620424E+0	1.679460E+0	1.588464E+0	1.599849E+0	1.762655E+0	1.524851E+0	1.506228E+0	1.542716E+0	1.702029E+0	1.559181E+0	1.606252E+0	1.551701E+0	1.659129E+0	1.570900E+0	1.632967E+0	1.601349E+0	1.600839E+0	1.521983E+0	1.674028E+0	1.634385E+0	1.640445E+0	1.592335E+0	1.575497E+0	1.609768E+0	1.697701E+0	1.577542E+0	1.503086E+0	1.621677E+0	1.587938E+0	1.561397E+0	1.513183E+0	1.618128E+0	1.653872E+0	1.586569E+0	1.532536E+0	1.586444E+0	1.658314E+0	1.604727E+0	1.580272E+0	1.603033E+0	1.619972E+0	1.616034E+0	1.660947E+0	1.607275E+0	1.620751E+0	1.587625E+0	1.527445E+0	1.516703E+0	1.609288E+0	1.558504E+0	1.626791E+0	1.564422E+0	1.648329E+0	1.615085E+0	1.591406E+0	1.587654E+0	1.606282E+0	1.676903E+0	1.593860E+0	1.573514E+0	1.630596E+0	1.522583E+0	1.652011E+0	1.671392E+0	1.578707E+0	1.515544E+0	1.590773E+0	1.608179E+0	1.699327E+0	1.588127E+0	1.563251E+0	1.577709E+0	1.639310E+0	1.487237E+0	1.568804E+0	1.564619E+0	1.572975E+0	1.588637E+0	1.615075E+0	1.741655E+0	1.598009E+0	1.477840E+0	1.636547E+0	1.706620E+0	1.573445E+0	1.580891E+0	1.626686E+0	1.642819E+0	1.655283E+0	1.477762E+0	1.630102E+0	1.458449E+0	1.644403E+0	1.575520E+0	1.596334E+0	1.558174E+0	1.644362E+0	1.602542E+0	1.491843E+0	1.556307E+0	1.607864E+0	1.557591E+0	1.590660E+0	1.559246E+0	1.606404E+0	1.557186E+0	1.617503E+0	1.534867E+0	1.605591E+0	1.591726E+0	1.566904E+0	1.514799E+0	1.623625E+0	1.611116E+0	1.665110E+0	1.564516E+0	1.772409E+0
5.503080E+2	1.655868E+0	1.522635E+0	1.651569E+0	1.686076E+0	1.659368E+0	1.529722E+0	1.698372E+0	1.643134E+0	1.625775E+0	1.576800E+0	1.590438E+0	1.608075E+0	1.640344E+0	1.666355E+0	1.544662E+0	1.577663E+0	1.602416E+0	1.624900E+0	1.630574E+0	1.598692E+0	1.635421E+0	1.614069E+0	1.601482E+0	1.629124E+0	1.631440E+0	1.534288E+0	1.550433E+0	1.624085E+0	1.595470E+0	1.635205E+0	1.627065E+0	1.609424E+0	1.600366E+0	1.656300E+0	1.559838E+0	1.613501E+0	1.649942E+0	1.521616E+0	1.618947E+0	1.592612E+0	1.639152E+0	1.600161E+0	1.605561E+0	1.539792E+0	1.696637E+0	1.612812E+0	1.633805E+0	1.530555E+0	1.617890E+0	1.637765E+0	1.592034E+0	1.601001E+0	1.656712E+0	1.537617E+0	1.635439E+0	1.600577E+0	1.602954E+0	1.537929E+0	1.570046E+0	1.664252E+0	1.609476E+0	1.571667E+0	1.582512E+0	1.596837E+0	1.598316E+0	1.658244E+0	1.585160E+0	1.582618E+0	1.685603E+0	1.564295E+0	1.564393E+0	1.602377E+0	1.695226E+0	1.577647E+0	1.545384E+0	1.593756E+0	1.529516E+0	1.539263E+0	1.527224E+0	1.662121E+0	1.596380E+0	1.621638E+0	1.556049E+0	1.549071E+0	1.540745E+0	1.620217E+0	1.555919E+0	1.570862E+0	1.684895E+0	1.606609E+0	1.496258E+0	1.565128E+0	1.586357E+0	1.629427E+0	1.562857E+0	1.554916E+0	1.570916E+0	1.509946E+0	1.520640E+0	1.558148E+0	1.613475E+0	1.619321E+0	1.566396E+0	1.672803E+0	1.642479E+0	1.636026E+0	1.517777E+0	1.551514E+0	1.544744E+0	1.483788E+0	1.591933E+0	1.608153E+0	1.629361E+0	1.529002E+0	1.612025E+0	1.576578E+0	1.646082E+0	1.670928E+0	1.532045E+0	1.532279E+0	1.686278E+0	1.459701E+0	1.624243E+0	1.562717E+0	1.645649E+0	1.577405E+0	1.592337E+0	1.579161E+0	1.643456E+0	1.550291E+0	1.551408E+0	1.554498E+0	1.518637E+0	1.558486E+0	1.576344E+0	1.568564E+0	1.570218E+0	1.547236E+0	1.530370E+0	1.487556E+0	1.624039E+0	1.565373E+0	1.675831E+0	1.605302E+0	1.671844E+0	1.543878E+0	1.476303E+0	1.581987E+0	1.559993E+0	1.555316E+0	1.580396E+0	1.536747E+0	1.579049E+0	1.487476E+0	1.545298E+0	1.519798E+0	1.607007E+0	1.498113E+0	1.426034E+0	1.503963E+0	1.644126E+0	1.545673E+0	1.718636E+0	1.572812E+0	1.647667E+0
5.508370E+2	1.548216E+0	1.595812E+0	1.681848E+0	1.601375E+0	1.627399E+0	1.571957E+0	1.525640E+0	1.668696E+0	1.579106E+0	1.626674E+0	1.558682E+0	1.618420E+0	1.623724E+0	1.652402E+0	1.595249E+0	1.602079E+0	1.563905E+0	1.646161E+0	1.542325E+0	1.540822E+0	1.683653E+0	1.646425E+0	1.588147E+0	1.675271E+0	1.543864E+0	1.552664E+0	1.611779E+0	1.642804E+0	1.641686E+0	1.667784E+0	1.651242E+0	1.574656E+0	1.552999E+0	1.588789E+0	1.605487E+0	1.618931E+0	1.621144E+0	1.591073E+0	1.642608E+0	1.566663E+0	1.580125E+0	1.475856E+0	1.614965E+0	1.587141E+0	1.621436E+0	1.616023E+0	1.620831E+0	1.524005E+0	1.657579E+0	1.615936E+0	1.614504E+0	1.598002E+0	1.675395E+0	1.506117E+0	1.595664E+0	1.555427E+0	1.604609E+0	1.565434E+0	1.620869E+0	1.613150E+0	1.621040E+0	1.586238E+0	1.607121E+0	1.597547E+0	1.569421E+0	1.617490E+0	1.555952E+0	1.643544E+0	1.617330E+0	1.659357E+0	1.621281E+0	1.599450E+0	1.675745E+0	1.591111E+0	1.537392E+0	1.619503E+0	1.585248E+0	1.615760E+0	1.540628E+0	1.631084E+0	1.671919E+0	1.615977E+0	1.592772E+0	1.613227E+0	1.630352E+0	1.558262E+0	1.576877E+0	1.609708E+0	1.651927E+0	1.604263E+0	1.632396E+0	1.599194E+0	1.660584E+0	1.626900E+0	1.596453E+0	1.574072E+0	1.643243E+0	1.601091E+0	1.548548E+0	1.596627E+0	1.653739E+0	1.616026E+0	1.579425E+0	1.604523E+0	1.638027E+0	1.576854E+0	1.498773E+0	1.589477E+0	1.634365E+0	1.558401E+0	1.614880E+0	1.623172E+0	1.634668E+0	1.601052E+0	1.674973E+0	1.644053E+0	1.638733E+0	1.652184E+0	1.591765E+0	1.542757E+0	1.714444E+0	1.540947E+0	1.557951E+0	1.577121E+0	1.615771E+0	1.587597E+0	1.655626E+0	1.599137E+0	1.615002E+0	1.481948E+0	1.564522E+0	1.657965E+0	1.638408E+0	1.502970E+0	1.544501E+0	1.588724E+0	1.645504E+0	1.710580E+0	1.589624E+0	1.492056E+0	1.606121E+0	1.576423E+0	1.604270E+0	1.591398E+0	1.654211E+0	1.618267E+0	1.574365E+0	1.599398E+0	1.554677E+0	1.599790E+0	1.589193E+0	1.531452E+0	1.555516E+0	1.520180E+0	1.622106E+0	1.542652E+0	1.610676E+0	1.538035E+0	1.538147E+0	1.564353E+0	1.644599E+0	1.566873E+0	1.654203E+0	1.580051E+0	1.785884E+0
5.513120E+2	1.551040E+0	1.578562E+0	1.542239E+0	1.563045E+0	1.649205E+0	1.501932E+0	1.517447E+0	1.625764E+0	1.636611E+0	1.554623E+0	1.504268E+0	1.554632E+0	1.554352E+0	1.639093E+0	1.520874E+0	1.606997E+0	1.525736E+0	1.571817E+0	1.495663E+0	1.613616E+0	1.585000E+0	1.538799E+0	1.557189E+0	1.613881E+0	1.608065E+0	1.507942E+0	1.542650E+0	1.547132E+0	1.525114E+0	1.583765E+0	1.549003E+0	1.532663E+0	1.571890E+0	1.547979E+0	1.582806E+0	1.541654E+0	1.546447E+0	1.507936E+0	1.579468E+0	1.475519E+0	1.645553E+0	1.516261E+0	1.590061E+0	1.487822E+0	1.507345E+0	1.626180E+0	1.650769E+0	1.508300E+0	1.652601E+0	1.542202E+0	1.561257E+0	1.525340E+0	1.666449E+0	1.522781E+0	1.497038E+0	1.560021E+0	1.623110E+0	1.450881E+0	1.531047E+0	1.545009E+0	1.530634E+0	1.532540E+0	1.579453E+0	1.453379E+0	1.576485E+0	1.590409E+0	1.503150E+0	1.511289E+0	1.587953E+0	1.486247E+0	1.545596E+0	1.557367E+0	1.677712E+0	1.556276E+0	1.427903E+0	1.524418E+0	1.570912E+0	1.460559E+0	1.454790E+0	1.551373E+0	1.624856E+0	1.584634E+0	1.614736E+0	1.542512E+0	1.563968E+0	1.597396E+0	1.549024E+0	1.571690E+0	1.570687E+0	1.563870E+0	1.544111E+0	1.577132E+0	1.532527E+0	1.551281E+0	1.510464E+0	1.525791E+0	1.630405E+0	1.549492E+0	1.503336E+0	1.452342E+0	1.497205E+0	1.522100E+0	1.574095E+0	1.543106E+0	1.640626E+0	1.597442E+0	1.561418E+0	1.571546E+0	1.552796E+0	1.526823E+0	1.569484E+0	1.646294E+0	1.509275E+0	1.491314E+0	1.618433E+0	1.525447E+0	1.563444E+0	1.563664E+0	1.524060E+0	1.508248E+0	1.646962E+0	1.455461E+0	1.598222E+0	1.450825E+0	1.571185E+0	1.521505E+0	1.679822E+0	1.476786E+0	1.557866E+0	1.504234E+0	1.570100E+0	1.621556E+0	1.525129E+0	1.540336E+0	1.516266E+0	1.583275E+0	1.564056E+0	1.470938E+0	1.544710E+0	1.525450E+0	1.600329E+0	1.543906E+0	1.537440E+0	1.578100E+0	1.655479E+0	1.501350E+0	1.468341E+0	1.534451E+0	1.614604E+0	1.504871E+0	1.446126E+0	1.514514E+0	1.598338E+0	1.530116E+0	1.548555E+0	1.551795E+0	1.618430E+0	1.481006E+0	1.477867E+0	1.553241E+0	1.594314E+0	1.528890E+0	1.562526E+0	1.471251E+0	1.570873E+0
5.518100E+2	1.357553E+0	1.413120E+0	1.503372E+0	1.361600E+0	1.397571E+0	1.331269E+0	1.384786E+0	1.405602E+0	1.409113E+0	1.340568E+0	1.411004E+0	1.417206E+0	1.418621E+0	1.318077E+0	1.377501E+0	1.389891E+0	1.326072E+0	1.388407E+0	1.444365E+0	1.450371E+0	1.414350E+0	1.430569E+0	1.371586E+0	1.427726E+0	1.283260E+0	1.386689E+0	1.379878E+0	1.455247E+0	1.424979E+0	1.423030E+0	1.435066E+0	1.412877E+0	1.359024E+0	1.422790E+0	1.376927E+0	1.357336E+0	1.356692E+0	1.361553E+0	1.436932E+0	1.400319E+0	1.454506E+0	1.343765E+0	1.346666E+0	1.379349E+0	1.442309E+0	1.388998E+0	1.408992E+0	1.311237E+0	1.388035E+0	1.389645E+0	1.390991E+0	1.418454E+0	1.448091E+0	1.353332E+0	1.310847E+0	1.413008E+0	1.437098E+0	1.329068E+0	1.368366E+0	1.421430E+0	1.342322E+0	1.327882E+0	1.466053E+0	1.364846E+0	1.417487E+0	1.349462E+0	1.333754E+0	1.424348E+0	1.435106E+0	1.326145E+0	1.403568E+0	1.366942E+0	1.422872E+0	1.396258E+0	1.279470E+0	1.376668E+0	1.414822E+0	1.306878E+0	1.312059E+0	1.328498E+0	1.425695E+0	1.387032E+0	1.418993E+0	1.387569E+0	1.396857E+0	1.409615E+0	1.359003E+0	1.354525E+0	1.376283E+0	1.345322E+0	1.367533E+0	1.328384E+0	1.402294E+0	1.362549E+0	1.388203E+0	1.411314E+0	1.474867E+0	1.325820E+0	1.322566E+0	1.394267E+0	1.373257E+0	1.307917E+0	1.312765E+0	1.382898E+0	1.443202E+0	1.356593E+0	1.297285E+0	1.400176E+0	1.389754E+0	1.360683E+0	1.413147E+0	1.416941E+0	1.296706E+0	1.331698E+0	1.354019E+0	1.459428E+0	1.359325E+0	1.352884E+0	1.359886E+0	1.347570E+0	1.399242E+0	1.317605E+0	1.401412E+0	1.325261E+0	1.403827E+0	1.359907E+0	1.365638E+0	1.378896E+0	1.461125E+0	1.358018E+0	1.411994E+0	1.421377E+0	1.390524E+0	1.416911E+0	1.332840E+0	1.425743E+0	1.419474E+0	1.284585E+0	1.375644E+0	1.281400E+0	1.399417E+0	1.402489E+0	1.403410E+0	1.428398E+0	1.361474E+0	1.362472E+0	1.425407E+0	1.340411E+0	1.497521E+0	1.264214E+0	1.361120E+0	1.386974E+0	1.395091E+0	1.367787E+0	1.351663E+0	1.349947E+0	1.318785E+0	1.288050E+0	1.283227E+0	1.383411E+0	1.425561E+0	1.343441E+0	1.434196E+0	1.329972E+0	1.302641E+0
5.523090E+2	1.264468E+0	1.248146E+0	1.286824E+0	1.348220E+0	1.364830E+0	1.195739E+0	1.218612E+0	1.269216E+0	1.285986E+0	1.296627E+0	1.253294E+0	1.340593E+0	1.289476E+0	1.287413E+0	1.262988E+0	1.314735E+0	1.292385E+0	1.231893E+0	1.271260E+0	1.225589E+0	1.275134E+0	1.287945E+0	1.269789E+0	1.363887E+0	1.274372E+0	1.232729E+0	1.255537E+0	1.330639E+0	1.291277E+0	1.292416E+0	1.282891E+0	1.273916E+0	1.261810E+0	1.313807E+0	1.247625E+0	1.281217E+0	1.321790E+0	1.292310E+0	1.289243E+0	1.273341E+0	1.301024E+0	1.198721E+0	1.248931E+0	1.294490E+0	1.258692E+0	1.174232E+0	1.290749E+0	1.239289E+0	1.325298E+0	1.319240E+0	1.325739E+0	1.308765E+0	1.251479E+0	1.162915E+0	1.270311E+0	1.170757E+0	1.311808E+0	1.257044E+0	1.228704E+0	1.310987E+0	1.299720E+0	1.216256E+0	1.278620E+0	1.313758E+0	1.245529E+0	1.221340E+0	1.254865E+0	1.252239E+0	1.333124E+0	1.244562E+0	1.237034E+0	1.303946E+0	1.285111E+0	1.235390E+0	1.222454E+0	1.276190E+0	1.215093E+0	1.257967E+0	1.178982E+0	1.348109E+0	1.377080E+0	1.221432E+0	1.227817E+0	1.287428E+0	1.292809E+0	1.233668E+0	1.291346E+0	1.339661E+0	1.285557E+0	1.244162E+0	1.206856E+0	1.285489E+0	1.257027E+0	1.262111E+0	1.186951E+0	1.295103E+0	1.278787E+0	1.168533E+0	1.219022E+0	1.212938E+0	1.223896E+0	1.283442E+0	1.291264E+0	1.276681E+0	1.287608E+0	1.297762E+0	1.197590E+0	1.262174E+0	1.266441E+0	1.248186E+0	1.269399E+0	1.352679E+0	1.264237E+0	1.243168E+0	1.253242E+0	1.335532E+0	1.305893E+0	1.373854E+0	1.283781E+0	1.227221E+0	1.367771E+0	1.264899E+0	1.187835E+0	1.256714E+0	1.234424E+0	1.262330E+0	1.218654E+0	1.252154E+0	1.356400E+0	1.190546E+0	1.337192E+0	1.266926E+0	1.365981E+0	1.264418E+0	1.286562E+0	1.278729E+0	1.311235E+0	1.237249E+0	1.344681E+0	1.232567E+0	1.319138E+0	1.218875E+0	1.255437E+0	1.260780E+0	1.423411E+0	1.223213E+0	1.302158E+0	1.274122E+0	1.320413E+0	1.278635E+0	1.302004E+0	1.240095E+0	1.275959E+0	1.264201E+0	1.163184E+0	1.261199E+0	1.280612E+0	1.270301E+0	1.249723E+0	1.280988E+0	1.289983E+0	1.197015E+0	1.303478E+0	1.314363E+0	1.290724E+0
5.528420E+2	1.193769E+0	1.245863E+0	1.255887E+0	1.197276E+0	1.234929E+0	1.141874E+0	1.111091E+0	1.220287E+0	1.092811E+0	1.111141E+0	1.165604E+0	1.157176E+0	1.170962E+0	1.198224E+0	1.151220E+0	1.187837E+0	1.167224E+0	1.195593E+0	1.150765E+0	1.203040E+0	1.216161E+0	1.140046E+0	1.167174E+0	1.200260E+0	1.127326E+0	1.184012E+0	1.095541E+0	1.171723E+0	1.140457E+0	1.230654E+0	1.159540E+0	1.220597E+0	1.178497E+0	1.217393E+0	1.170089E+0	1.184619E+0	1.204351E+0	1.203974E+0	1.164744E+0	1.158028E+0	1.306207E+0	1.114385E+0	1.179488E+0	1.127652E+0	1.252291E+0	1.132956E+0	1.222218E+0	1.159525E+0	1.194804E+0	1.222851E+0	1.163105E+0	1.160831E+0	1.214080E+0	1.086618E+0	1.144367E+0	1.212576E+0	1.207482E+0	1.210971E+0	1.243446E+0	1.126069E+0	1.196513E+0	1.158154E+0	1.194376E+0	1.171374E+0	1.126086E+0	1.225063E+0	1.156352E+0	1.295200E+0	1.250533E+0	1.142942E+0	1.151545E+0	1.186631E+0	1.253137E+0	1.159127E+0	1.205209E+0	1.213214E+0	1.180723E+0	1.158076E+0	1.221365E+0	1.156472E+0	1.206467E+0	1.255161E+0	1.141423E+0	1.223829E+0	1.193144E+0	1.226183E+0	1.224915E+0	1.195579E+0	1.288377E+0	1.134159E+0	1.145527E+0	1.142312E+0	1.243921E+0	1.204028E+0	1.168552E+0	1.224518E+0	1.196236E+0	1.132356E+0	1.171323E+0	1.114477E+0	1.175473E+0	1.210812E+0	1.164122E+0	1.184789E+0	1.183006E+0	1.238217E+0	1.214607E+0	1.185748E+0	1.207051E+0	1.164231E+0	1.191831E+0	1.151659E+0	1.167177E+0	1.130601E+0	1.260372E+0	1.208887E+0	1.187834E+0	1.224993E+0	1.183326E+0	1.177885E+0	1.256794E+0	1.081130E+0	1.183580E+0	1.157501E+0	1.157310E+0	1.213895E+0	1.159841E+0	1.119723E+0	1.225989E+0	1.174920E+0	1.222511E+0	1.184991E+0	1.164088E+0	1.206780E+0	1.189354E+0	1.156022E+0	1.197478E+0	1.174671E+0	1.174221E+0	1.145696E+0	1.146527E+0	1.259573E+0	1.172236E+0	1.194733E+0	1.178384E+0	1.148753E+0	1.181898E+0	1.090792E+0	1.241870E+0	1.087160E+0	1.133505E+0	1.157452E+0	1.202105E+0	1.181480E+0	1.170512E+0	1.149874E+0	1.197203E+0	1.157724E+0	1.140280E+0	1.140991E+0	1.193924E+0	1.222087E+0	1.271949E+0	1.181531E+0	1.324495E+0
5.533380E+2	1.071840E+0	1.131319E+0	1.095948E+0	1.048513E+0	1.153240E+0	9.969842E-1	1.052795E+0	1.163397E+0	1.121022E+0	1.076775E+0	1.046949E+0	1.029082E+0	1.045195E+0	1.131986E+0	1.080635E+0	1.073443E+0	1.042998E+0	1.129798E+0	1.136891E+0	1.125372E+0	1.126312E+0	1.025639E+0	1.071616E+0	1.164000E+0	1.010686E+0	1.069806E+0	1.093577E+0	1.091892E+0	1.114531E+0	1.113260E+0	1.077748E+0	1.078218E+0	1.143884E+0	1.081383E+0	1.080008E+0	1.069606E+0	1.108689E+0	1.086681E+0	1.064207E+0	1.098498E+0	1.063462E+0	1.065094E+0	1.087077E+0	1.123781E+0	1.055895E+0	1.096328E+0	1.177406E+0	1.079280E+0	1.111760E+0	1.143110E+0	1.098262E+0	1.096140E+0	1.119536E+0	1.049983E+0	1.085981E+0	1.077359E+0	1.124064E+0	1.065077E+0	1.052540E+0	1.125772E+0	1.107337E+0	1.070310E+0	1.063077E+0	1.081295E+0	1.090946E+0	1.060325E+0	1.062557E+0	1.161284E+0	1.113124E+0	1.072257E+0	1.053954E+0	1.017876E+0	1.148557E+0	9.949147E-1	1.083064E+0	1.064210E+0	1.014469E+0	1.044513E+0	1.069757E+0	1.123638E+0	1.185613E+0	1.078614E+0	1.075386E+0	1.073291E+0	1.188357E+0	1.076756E+0	1.052497E+0	1.125040E+0	1.092738E+0	1.060901E+0	1.050831E+0	1.060649E+0	1.058758E+0	1.090035E+0	1.086761E+0	1.087117E+0	1.124634E+0	1.045344E+0	1.044541E+0	1.104898E+0	1.042357E+0	1.063987E+0	1.086982E+0	1.063747E+0	1.088490E+0	1.131767E+0	1.148025E+0	1.105352E+0	1.121030E+0	1.070588E+0	1.102019E+0	1.144104E+0	1.108739E+0	1.010593E+0	1.101083E+0	1.114521E+0	1.152003E+0	1.137456E+0	1.108074E+0	1.104287E+0	1.139548E+0	1.058635E+0	1.079625E+0	1.048310E+0	1.102284E+0	1.110432E+0	1.092540E+0	1.054042E+0	1.078552E+0	1.057206E+0	1.088296E+0	1.016171E+0	1.116302E+0	1.024895E+0	1.032648E+0	1.090815E+0	1.135805E+0	1.007535E+0	1.068018E+0	1.005259E+0	1.055873E+0	1.143511E+0	1.061244E+0	1.115634E+0	1.114220E+0	1.123666E+0	1.051755E+0	1.111889E+0	1.134519E+0	1.066087E+0	1.088463E+0	1.060693E+0	1.142830E+0	1.109136E+0	1.109275E+0	1.061869E+0	1.081071E+0	1.075653E+0	1.132858E+0	1.154152E+0	1.142381E+0	1.040590E+0	1.145693E+0	9.702454E-1	1.166001E+0
5.538170E+2	1.003892E+0	9.941460E-1	1.081137E+0	1.033147E+0	9.854828E-1	1.032655E+0	9.960101E-1	1.025886E+0	1.003950E+0	9.397478E-1	9.803735E-1	9.926299E-1	1.053417E+0	1.014830E+0	9.796422E-1	1.001765E+0	1.024497E+0	1.016388E+0	1.016572E+0	9.579720E-1	1.081856E+0	1.034405E+0	1.020931E+0	1.076683E+0	1.009368E+0	1.033476E+0	1.022708E+0	1.023161E+0	1.036844E+0	1.042279E+0	1.005521E+0	1.008725E+0	1.069185E+0	9.820295E-1	1.019285E+0	9.948385E-1	1.065944E+0	9.800381E-1	1.003286E+0	9.594596E-1	1.057957E+0	9.306729E-1	1.018535E+0	1.015196E+0	1.020157E+0	9.640045E-1	9.925740E-1	9.937543E-1	9.671803E-1	1.003788E+0	1.000676E+0	9.680287E-1	1.051619E+0	9.572340E-1	1.030174E+0	1.005453E+0	1.012634E+0	1.025031E+0	9.686938E-1	1.066431E+0	1.031578E+0	9.574346E-1	9.896486E-1	9.584212E-1	1.052741E+0	1.001014E+0	9.863401E-1	1.077740E+0	1.025974E+0	9.874244E-1	1.029186E+0	9.620232E-1	1.072499E+0	9.700725E-1	9.781764E-1	1.000626E+0	9.560167E-1	9.856542E-1	9.461234E-1	1.054756E+0	9.937685E-1	1.066594E+0	1.032373E+0	1.010648E+0	1.061169E+0	1.054559E+0	1.050810E+0	1.030781E+0	9.704613E-1	1.023014E+0	9.920265E-1	9.836261E-1	9.837189E-1	9.618180E-1	1.053316E+0	9.986433E-1	1.068970E+0	9.362379E-1	1.009733E+0	9.946880E-1	1.010569E+0	9.701275E-1	1.041649E+0	1.033027E+0	1.029611E+0	1.021372E+0	9.966295E-1	9.709929E-1	1.025568E+0	9.548347E-1	1.036999E+0	1.031008E+0	1.062632E+0	9.741866E-1	1.058726E+0	1.039043E+0	1.046971E+0	9.675829E-1	1.002802E+0	1.038907E+0	9.715911E-1	9.896207E-1	1.040495E+0	9.924843E-1	9.900399E-1	9.849199E-1	1.075550E+0	9.863912E-1	9.927408E-1	9.498519E-1	1.004618E+0	1.032122E+0	9.620850E-1	1.051807E+0	9.239699E-1	1.063191E+0	1.020728E+0	1.009754E+0	1.052763E+0	1.000883E+0	1.008581E+0	1.019458E+0	1.038889E+0	9.932042E-1	1.033555E+0	9.929576E-1	9.767370E-1	1.030001E+0	1.015160E+0	9.817318E-1	1.006808E+0	9.598732E-1	1.098488E+0	9.631323E-1	1.011012E+0	9.587724E-1	1.031526E+0	1.014866E+0	1.029052E+0	9.944654E-1	1.084346E+0	9.508672E-1	1.052754E+0	1.030624E+0	1.023955E+0
5.543090E+2	9.021671E-1	8.729253E-1	9.879043E-1	9.750924E-1	9.758051E-1	9.600755E-1	9.349097E-1	9.814339E-1	9.340350E-1	9.951681E-1	8.871601E-1	8.956312E-1	9.675069E-1	9.911357E-1	9.088977E-1	8.960271E-1	9.504121E-1	9.208600E-1	9.361221E-1	9.851648E-1	9.525752E-1	9.566020E-1	9.626049E-1	9.624152E-1	9.702030E-1	9.427034E-1	9.226610E-1	9.775348E-1	9.393404E-1	9.959029E-1	1.001698E+0	9.291137E-1	8.894709E-1	9.638512E-1	9.121378E-1	1.013128E+0	9.786518E-1	9.268069E-1	9.386101E-1	9.211813E-1	9.556396E-1	9.367373E-1	8.624537E-1	9.027095E-1	9.682244E-1	9.318554E-1	1.004244E+0	9.487065E-1	9.728951E-1	9.396180E-1	9.914776E-1	9.691020E-1	1.001534E+0	8.794613E-1	9.350515E-1	9.158072E-1	9.140149E-1	9.247497E-1	9.843741E-1	9.540115E-1	1.001607E+0	9.336092E-1	9.173390E-1	9.227017E-1	9.249346E-1	9.730434E-1	9.025472E-1	1.013322E+0	1.050943E+0	9.231335E-1	9.911864E-1	9.513349E-1	9.814060E-1	9.346730E-1	8.743109E-1	9.532582E-1	9.828071E-1	8.438142E-1	9.371623E-1	9.324305E-1	9.359598E-1	1.026978E+0	8.979181E-1	9.888584E-1	9.687338E-1	9.744546E-1	9.446339E-1	9.196404E-1	9.428115E-1	8.799640E-1	9.040469E-1	9.409697E-1	9.518707E-1	9.026474E-1	9.313329E-1	9.825922E-1	9.400055E-1	9.251672E-1	1.006049E+0	9.795111E-1	9.914370E-1	9.578269E-1	9.159962E-1	9.547864E-1	9.500736E-1	1.038918E+0	9.667778E-1	9.788035E-1	9.507979E-1	9.056921E-1	9.569724E-1	1.062844E+0	9.664009E-1	9.026889E-1	9.744428E-1	9.593779E-1	9.715684E-1	9.203837E-1	9.469348E-1	9.267835E-1	9.397411E-1	9.794794E-1	8.562575E-1	9.838315E-1	9.551222E-1	9.413545E-1	8.729941E-1	9.822925E-1	9.485588E-1	9.709082E-1	9.384829E-1	9.934654E-1	1.024352E+0	9.718328E-1	9.322967E-1	9.810150E-1	1.049907E+0	9.213510E-1	9.542372E-1	8.925608E-1	1.048891E+0	9.629427E-1	9.290871E-1	9.808296E-1	9.623901E-1	9.568576E-1	9.000271E-1	9.329767E-1	1.027414E+0	9.254039E-1	9.559261E-1	9.464712E-1	9.292663E-1	9.692455E-1	9.378310E-1	9.627410E-1	1.006513E+0	9.565837E-1	9.211974E-1	9.332194E-1	9.833291E-1	8.830629E-1	9.218845E-1	1.080611E+0	9.694929E-1
5.553280E+2	1.027567E+0	1.017527E+0	1.050155E+0	1.048874E+0	1.033363E+0	1.012391E+0	9.908911E-1	1.085417E+0	9.493655E-1	9.985459E-1	1.031027E+0	1.039681E+0	1.034642E+0	9.861852E-1	1.028316E+0	9.760449E-1	9.651259E-1	1.014623E+0	9.687427E-1	1.065428E+0	1.007902E+0	1.017974E+0	1.048964E+0	1.070590E+0	9.804075E-1	9.798224E-1	9.739458E-1	1.004359E+0	9.821787E-1	1.001208E+0	1.025264E+0	9.813483E-1	9.386793E-1	1.040496E+0	9.969552E-1	1.001671E+0	1.040465E+0	9.842410E-1	1.029155E+0	1.017220E+0	1.073829E+0	9.982498E-1	9.865137E-1	9.587828E-1	1.015189E+0	1.025966E+0	1.052583E+0	1.006002E+0	1.024384E+0	1.041423E+0	9.864627E-1	1.048441E+0	1.042346E+0	9.673125E-1	9.777299E-1	9.956950E-1	1.044394E+0	9.783240E-1	1.007032E+0	1.016784E+0	9.777254E-1	9.847843E-1	1.049584E+0	1.069514E+0	1.006191E+0	9.819046E-1	1.003176E+0	1.130185E+0	1.005711E+0	9.875197E-1	9.684633E-1	1.041783E+0	1.066169E+0	9.933065E-1	9.748624E-1	1.045424E+0	1.029330E+0	9.392752E-1	9.537701E-1	9.897111E-1	1.048746E+0	1.021308E+0	1.025821E+0	1.058074E+0	1.054612E+0	1.038953E+0	9.984851E-1	9.949963E-1	1.067429E+0	9.911004E-1	1.026682E+0	9.887994E-1	1.112849E+0	9.829963E-1	9.953815E-1	1.061738E+0	1.027003E+0	9.679611E-1	1.019253E+0	1.012570E+0	1.043248E+0	9.683113E-1	1.044935E+0	1.053969E+0	1.004612E+0	1.106179E+0	1.058040E+0	9.957023E-1	1.018980E+0	9.289098E-1	9.695745E-1	1.036110E+0	1.018318E+0	9.983603E-1	9.490225E-1	1.028625E+0	1.008343E+0	1.007599E+0	1.026642E+0	1.011914E+0	9.942128E-1	9.937333E-1	9.776501E-1	9.822802E-1	1.022877E+0	1.039590E+0	1.045922E+0	9.892874E-1	9.484167E-1	9.408960E-1	1.016826E+0	1.044639E+0	9.634551E-1	9.711002E-1	9.495086E-1	1.047111E+0	1.056764E+0	1.024552E+0	9.700151E-1	1.015762E+0	1.001067E+0	1.049384E+0	1.017743E+0	1.013990E+0	1.063637E+0	9.667093E-1	1.004748E+0	1.051980E+0	1.033081E+0	9.822236E-1	9.691846E-1	1.014026E+0	9.885540E-1	1.043555E+0	1.006500E+0	9.494870E-1	1.049077E+0	9.552499E-1	1.002562E+0	9.176595E-1	1.033628E+0	1.034964E+0	1.046250E+0	1.039586E+0	1.123005E+0
5.563280E+2	1.024543E+0	1.115791E+0	1.113358E+0	1.033098E+0	1.045894E+0	1.111945E+0	1.044755E+0	1.110272E+0	1.075394E+0	1.103820E+0	1.080864E+0	1.068055E+0	1.062754E+0	1.102212E+0	1.076540E+0	1.096431E+0	1.083663E+0	1.063517E+0	1.085601E+0	1.102662E+0	1.107753E+0	1.081597E+0	1.121783E+0	1.011701E+0	1.144296E+0	1.089224E+0	1.018378E+0	1.068926E+0	1.093821E+0	1.038274E+0	1.085867E+0	1.053994E+0	1.065892E+0	1.087472E+0	1.083712E+0	1.075271E+0	1.024831E+0	1.028179E+0	1.145456E+0	1.119841E+0	1.121633E+0	1.049981E+0	1.052383E+0	1.131106E+0	1.131007E+0	1.088824E+0	1.071778E+0	1.080112E+0	1.098088E+0	1.089353E+0	1.110559E+0	1.095491E+0	1.142185E+0	1.060912E+0	1.072931E+0	1.116292E+0	1.124179E+0	1.081376E+0	1.065994E+0	1.103279E+0	1.101114E+0	1.046967E+0	1.052723E+0	1.009424E+0	1.070778E+0	1.091440E+0	1.047688E+0	1.136881E+0	1.129350E+0	1.105269E+0	1.009353E+0	1.060248E+0	1.185608E+0	1.102025E+0	9.958105E-1	1.081176E+0	1.057604E+0	1.045429E+0	1.023559E+0	1.061014E+0	1.077338E+0	1.057614E+0	1.139810E+0	1.070795E+0	1.016310E+0	1.044888E+0	1.083012E+0	1.040948E+0	1.159660E+0	1.016228E+0	1.056052E+0	1.054377E+0	1.059754E+0	1.109553E+0	1.079216E+0	1.057746E+0	1.138002E+0	1.105128E+0	1.016476E+0	9.930273E-1	1.140366E+0	1.055375E+0	1.091791E+0	1.074010E+0	1.125947E+0	1.079012E+0	1.084371E+0	1.074811E+0	1.108084E+0	1.079479E+0	1.092965E+0	1.124759E+0	1.079455E+0	9.951653E-1	1.134514E+0	1.080352E+0	1.058925E+0	1.090450E+0	1.067604E+0	1.028516E+0	1.102998E+0	1.033679E+0	1.086385E+0	1.052520E+0	1.129528E+0	1.128920E+0	1.020123E+0	1.139085E+0	1.128493E+0	1.062875E+0	1.101695E+0	1.096034E+0	1.124594E+0	1.088935E+0	1.020738E+0	1.088255E+0	1.094907E+0	9.968573E-1	1.092614E+0	9.806353E-1	1.128162E+0	1.095510E+0	1.109918E+0	1.046818E+0	1.054865E+0	1.015267E+0	9.792547E-1	1.100922E+0	1.074959E+0	1.043138E+0	1.080316E+0	9.976021E-1	1.127581E+0	1.083162E+0	1.077596E+0	1.119440E+0	1.099077E+0	1.054027E+0	1.055352E+0	1.023645E+0	1.094986E+0	1.042968E+0	1.141108E+0	1.069117E+0	1.132798E+0
5.573160E+2	1.145399E+0	1.183454E+0	1.096917E+0	1.106016E+0	1.154775E+0	1.144237E+0	1.143911E+0	1.156507E+0	1.130342E+0	1.043185E+0	1.125485E+0	1.140652E+0	1.120472E+0	1.101545E+0	1.105470E+0	1.092112E+0	1.113091E+0	1.219224E+0	1.143852E+0	1.118712E+0	1.206880E+0	1.156598E+0	1.117289E+0	1.130788E+0	1.133755E+0	1.103172E+0	1.159230E+0	1.084477E+0	1.138358E+0	1.205802E+0	1.119987E+0	1.157648E+0	1.051510E+0	1.177744E+0	1.166803E+0	1.155748E+0	1.019559E+0	1.132493E+0	1.135828E+0	1.132335E+0	1.108491E+0	1.094488E+0	1.171159E+0	1.128063E+0	1.208005E+0	1.153417E+0	1.133478E+0	1.065284E+0	1.192242E+0	1.158012E+0	1.141297E+0	1.130574E+0	1.147355E+0	1.124350E+0	1.128529E+0	1.086004E+0	1.173684E+0	1.099697E+0	1.128651E+0	1.186673E+0	1.096467E+0	1.133252E+0	1.165076E+0	1.140106E+0	1.101409E+0	1.068949E+0	1.125197E+0	1.193729E+0	1.215531E+0	1.146911E+0	1.159714E+0	1.170452E+0	1.178796E+0	1.103553E+0	1.100984E+0	1.159545E+0	1.104028E+0	1.120822E+0	1.168427E+0	1.130964E+0	1.095862E+0	1.109424E+0	1.131416E+0	1.137807E+0	1.072724E+0	1.152435E+0	1.131675E+0	1.112882E+0	1.158249E+0	1.097469E+0	1.153123E+0	1.144716E+0	1.170184E+0	1.166921E+0	1.144508E+0	1.085846E+0	1.118769E+0	1.207041E+0	1.077813E+0	1.058457E+0	1.076177E+0	1.179222E+0	1.146873E+0	1.119786E+0	1.090174E+0	1.107494E+0	1.152388E+0	1.136300E+0	1.099584E+0	1.089571E+0	1.156785E+0	1.119937E+0	1.178871E+0	1.132890E+0	1.105688E+0	1.156415E+0	1.152005E+0	1.160289E+0	1.106869E+0	1.066469E+0	1.143240E+0	1.081898E+0	1.070732E+0	1.107063E+0	1.184175E+0	1.129018E+0	1.107120E+0	1.178274E+0	1.149261E+0	1.113073E+0	1.156028E+0	1.113833E+0	1.123082E+0	1.060866E+0	1.103142E+0	1.142006E+0	1.171564E+0	1.128516E+0	1.145536E+0	1.096067E+0	1.128460E+0	1.127786E+0	1.110903E+0	1.097764E+0	1.138690E+0	1.122417E+0	1.082553E+0	1.196513E+0	1.161020E+0	1.142699E+0	1.104835E+0	1.116974E+0	1.160564E+0	1.192221E+0	1.128509E+0	1.094810E+0	1.117384E+0	1.083295E+0	1.052530E+0	1.051764E+0	1.180749E+0	1.066648E+0	1.118927E+0	1.017505E+0	1.059819E+0
5.583170E+2	1.058337E+0	1.158330E+0	1.186409E+0	1.132541E+0	1.095512E+0	1.148981E+0	1.142498E+0	1.110342E+0	1.126522E+0	1.114793E+0	1.098616E+0	1.110055E+0	1.100871E+0	1.173818E+0	1.090664E+0	1.092026E+0	1.085459E+0	1.203783E+0	1.106422E+0	1.155758E+0	1.158617E+0	1.120927E+0	1.093313E+0	1.142102E+0	1.047102E+0	1.175909E+0	1.175878E+0	1.159673E+0	1.120643E+0	1.177859E+0	1.086441E+0	1.108229E+0	1.125168E+0	1.177930E+0	1.120957E+0	1.086020E+0	1.081616E+0	1.133810E+0	1.176836E+0	1.108191E+0	1.099663E+0	1.053936E+0	1.112418E+0	1.039099E+0	1.126151E+0	1.085289E+0	1.110905E+0	1.087513E+0	1.166677E+0	1.128358E+0	1.139630E+0	1.057627E+0	1.129791E+0	1.035135E+0	1.078860E+0	1.077264E+0	1.183594E+0	1.064969E+0	1.125438E+0	1.127408E+0	1.127607E+0	1.070903E+0	1.163355E+0	1.092783E+0	1.121184E+0	1.160208E+0	1.085143E+0	1.153251E+0	1.159280E+0	1.051854E+0	1.072338E+0	1.176101E+0	1.060623E+0	1.104368E+0	1.064907E+0	1.073710E+0	1.107260E+0	1.078708E+0	1.063190E+0	1.080368E+0	1.134858E+0	1.094819E+0	1.164184E+0	1.163689E+0	1.119669E+0	1.152662E+0	1.098048E+0	1.061884E+0	1.127885E+0	1.148276E+0	1.040277E+0	1.059828E+0	1.156303E+0	1.079147E+0	1.118621E+0	1.130124E+0	1.083252E+0	1.123126E+0	1.119428E+0	1.107017E+0	1.169177E+0	1.142387E+0	1.161896E+0	1.157575E+0	1.133979E+0	1.152050E+0	1.088479E+0	1.100225E+0	1.119832E+0	1.076511E+0	1.144288E+0	1.129946E+0	1.132027E+0	1.111020E+0	1.166304E+0	1.146609E+0	1.170461E+0	1.185552E+0	1.110854E+0	1.098108E+0	1.116004E+0	1.130345E+0	1.081224E+0	1.139439E+0	1.103377E+0	1.052345E+0	1.108474E+0	1.107696E+0	1.129115E+0	1.060774E+0	1.099952E+0	1.163619E+0	1.093010E+0	1.112930E+0	1.074910E+0	1.127899E+0	1.160357E+0	1.130261E+0	1.089804E+0	1.021695E+0	1.143255E+0	1.166530E+0	1.076279E+0	1.104006E+0	1.077546E+0	1.152710E+0	1.153702E+0	1.097575E+0	1.155840E+0	1.068926E+0	1.104523E+0	1.063347E+0	1.127145E+0	1.121163E+0	1.107998E+0	1.123362E+0	1.076661E+0	1.068329E+0	1.056821E+0	1.073045E+0	1.170681E+0	1.022098E+0	1.219164E+0	1.070777E+0	1.280057E+0
5.593120E+2	1.117374E+0	1.064726E+0	1.162548E+0	1.113543E+0	1.142137E+0	1.040845E+0	1.137790E+0	1.104555E+0	1.078242E+0	1.065163E+0	1.148460E+0	1.123341E+0	1.161066E+0	1.095600E+0	1.121718E+0	1.088991E+0	1.078575E+0	1.159103E+0	1.155076E+0	1.111222E+0	1.124575E+0	1.076140E+0	1.126709E+0	1.136382E+0	1.048615E+0	1.082333E+0	1.137839E+0	1.074521E+0	1.125367E+0	1.157382E+0	1.087995E+0	1.108727E+0	1.065326E+0	1.026744E+0	1.104512E+0	1.128682E+0	1.139454E+0	1.109288E+0	1.129201E+0	1.110384E+0	1.093653E+0	1.021357E+0	1.060819E+0	1.096978E+0	1.166253E+0	1.143865E+0	1.141588E+0	1.037369E+0	1.092195E+0	1.037188E+0	1.064529E+0	1.064642E+0	1.092833E+0	1.038556E+0	1.089797E+0	1.089699E+0	1.125762E+0	1.033006E+0	1.153616E+0	1.101553E+0	1.123198E+0	1.140531E+0	1.070631E+0	1.065638E+0	1.034676E+0	1.042439E+0	1.024927E+0	1.094117E+0	1.082488E+0	1.111092E+0	1.188953E+0	1.049099E+0	1.170502E+0	1.037241E+0	1.075744E+0	1.160481E+0	1.019357E+0	1.117665E+0	1.105513E+0	1.125919E+0	1.195012E+0	1.091111E+0	1.052052E+0	1.128142E+0	1.093879E+0	1.118760E+0	1.118951E+0	1.112127E+0	1.124320E+0	1.041250E+0	1.077773E+0	1.162255E+0	1.092135E+0	1.142129E+0	1.037818E+0	1.123484E+0	1.100547E+0	1.112408E+0	1.072115E+0	1.024661E+0	1.084285E+0	1.144377E+0	1.078596E+0	1.104852E+0	1.150233E+0	1.114484E+0	1.154864E+0	1.160463E+0	1.040194E+0	1.118418E+0	1.116806E+0	1.090612E+0	1.059441E+0	1.030054E+0	1.136184E+0	1.043886E+0	1.180476E+0	1.079283E+0	1.073662E+0	1.108775E+0	1.081741E+0	1.094386E+0	1.058705E+0	1.109473E+0	1.086188E+0	1.082122E+0	1.157394E+0	1.061673E+0	1.085884E+0	1.024929E+0	1.114858E+0	1.113495E+0	1.090854E+0	1.012153E+0	1.052637E+0	1.087743E+0	1.131297E+0	1.095994E+0	1.077222E+0	1.074100E+0	1.132754E+0	1.172166E+0	1.044253E+0	1.042588E+0	1.116767E+0	1.100271E+0	1.088877E+0	1.101878E+0	1.147781E+0	1.018611E+0	1.121691E+0	1.109757E+0	1.181960E+0	1.147386E+0	1.197231E+0	1.080847E+0	1.048395E+0	1.059600E+0	1.043765E+0	1.037426E+0	1.064991E+0	1.047458E+0	1.165294E+0	1.058473E+0	1.080518E+0
5.603040E+2	1.056828E+0	9.825779E-1	1.066760E+0	1.045499E+0	1.026549E+0	9.699501E-1	9.680246E-1	1.003827E+0	1.029804E+0	1.037751E+0	1.037520E+0	1.032261E+0	1.052834E+0	1.059537E+0	9.866113E-1	1.039517E+0	1.003619E+0	9.625511E-1	1.049548E+0	1.044433E+0	9.746631E-1	9.815781E-1	1.004711E+0	1.125116E+0	9.821668E-1	1.027189E+0	1.083938E+0	1.071684E+0	9.885947E-1	1.026195E+0	1.054566E+0	1.020984E+0	1.005413E+0	1.004953E+0	1.015191E+0	1.032669E+0	9.919138E-1	9.851020E-1	1.026679E+0	1.022411E+0	9.717396E-1	1.011243E+0	1.018999E+0	9.980463E-1	9.925616E-1	9.973274E-1	1.066000E+0	9.741959E-1	1.000942E+0	1.098540E+0	1.025776E+0	9.993537E-1	1.041468E+0	9.640358E-1	1.011528E+0	9.885490E-1	1.067800E+0	1.044692E+0	1.056924E+0	1.093192E+0	1.021512E+0	9.938434E-1	1.027521E+0	9.309278E-1	9.826247E-1	9.959234E-1	9.952868E-1	1.053475E+0	1.057588E+0	9.670674E-1	1.034260E+0	1.045253E+0	1.088115E+0	1.005828E+0	9.600654E-1	1.047254E+0	1.026360E+0	9.785591E-1	9.609688E-1	1.065140E+0	1.003627E+0	9.717939E-1	9.693085E-1	1.014039E+0	1.021555E+0	1.110752E+0	9.960233E-1	1.057849E+0	1.064864E+0	1.053364E+0	9.976997E-1	9.832413E-1	1.031490E+0	1.025183E+0	1.079790E+0	1.034953E+0	1.089878E+0	9.892675E-1	1.028193E+0	1.025762E+0	1.031218E+0	1.033756E+0	1.076193E+0	1.067010E+0	1.048508E+0	1.049513E+0	9.924372E-1	1.060431E+0	1.029729E+0	9.456491E-1	9.894446E-1	1.054871E+0	1.000472E+0	9.689713E-1	9.917540E-1	9.441150E-1	1.017029E+0	1.033168E+0	9.845730E-1	1.082296E+0	1.028143E+0	1.049848E+0	1.036329E+0	1.058393E+0	1.023736E+0	9.785781E-1	1.049081E+0	1.049682E+0	1.012335E+0	1.000044E+0	1.048013E+0	1.021420E+0	1.003892E+0	9.886364E-1	9.671706E-1	9.641052E-1	1.019338E+0	1.012276E+0	1.036674E+0	1.059626E+0	1.034813E+0	1.007440E+0	1.050357E+0	1.009467E+0	1.026304E+0	9.962094E-1	9.433351E-1	1.026837E+0	1.073887E+0	9.626556E-1	1.040425E+0	9.576832E-1	9.973021E-1	1.007292E+0	1.043845E+0	9.265492E-1	1.023218E+0	1.044930E+0	1.011994E+0	9.395412E-1	1.051864E+0	9.482331E-1	9.845770E-1	1.017126E+0	9.255144E-1
5.613790E+2	9.365622E-1	1.056720E+0	1.018623E+0	1.030013E+0	9.545413E-1	9.728537E-1	1.002108E+0	9.721384E-1	9.268361E-1	9.679120E-1	1.004994E+0	9.734009E-1	1.038756E+0	9.977204E-1	9.461123E-1	1.001984E+0	9.975153E-1	1.068457E+0	9.752386E-1	9.854266E-1	1.033383E+0	9.664265E-1	9.882893E-1	1.031878E+0	8.789853E-1	9.817561E-1	1.030881E+0	9.893639E-1	1.005850E+0	9.640838E-1	1.045109E+0	1.000707E+0	9.796170E-1	1.009779E+0	1.013077E+0	9.960151E-1	9.587402E-1	9.894958E-1	1.005214E+0	9.254575E-1	9.874250E-1	9.821057E-1	9.705135E-1	9.502563E-1	9.954030E-1	9.619718E-1	9.904647E-1	9.242042E-1	1.027328E+0	9.726136E-1	1.020804E+0	9.798548E-1	9.957830E-1	9.440240E-1	9.270965E-1	9.636416E-1	1.009919E+0	9.526609E-1	9.412194E-1	9.930290E-1	9.842785E-1	9.734821E-1	1.000548E+0	1.016577E+0	9.813253E-1	1.002192E+0	9.723282E-1	1.029731E+0	9.772977E-1	9.998368E-1	9.477771E-1	9.560268E-1	1.033296E+0	9.905506E-1	9.643817E-1	1.003358E+0	1.007330E+0	1.026889E+0	9.318494E-1	1.035164E+0	1.082456E+0	1.015426E+0	9.607017E-1	9.692905E-1	9.639572E-1	1.007796E+0	9.716698E-1	9.890669E-1	1.010801E+0	9.492610E-1	9.333366E-1	1.055704E+0	1.008162E+0	1.021535E+0	9.989834E-1	1.045436E+0	1.094116E+0	1.052036E+0	9.930303E-1	1.014191E+0	9.836798E-1	9.347051E-1	9.762797E-1	9.841360E-1	1.006365E+0	9.977183E-1	9.806918E-1	1.043682E+0	9.764443E-1	9.520606E-1	1.021407E+0	1.038334E+0	9.467918E-1	1.007838E+0	1.016906E+0	9.943361E-1	1.014192E+0	1.045922E+0	1.001364E+0	9.445736E-1	9.908138E-1	9.516407E-1	9.725595E-1	9.540343E-1	1.011627E+0	9.499233E-1	1.004401E+0	1.002128E+0	9.565641E-1	9.570064E-1	1.045941E+0	1.064915E+0	9.241855E-1	1.003910E+0	9.453492E-1	1.013019E+0	1.035052E+0	9.601806E-1	9.893110E-1	9.311353E-1	9.820007E-1	9.973973E-1	1.013175E+0	1.020054E+0	1.044586E+0	9.255329E-1	9.600925E-1	1.009939E+0	1.022861E+0	9.795040E-1	9.384496E-1	9.442996E-1	1.014896E+0	1.038211E+0	9.458921E-1	1.025714E+0	1.034649E+0	9.741344E-1	9.375459E-1	9.317580E-1	9.646998E-1	9.894568E-1	1.014564E+0	1.017165E+0	1.030121E+0
5.623330E+2	9.653088E-1	9.256401E-1	9.539713E-1	9.294861E-1	9.789498E-1	9.655962E-1	9.598519E-1	9.473250E-1	9.437503E-1	9.424803E-1	9.453209E-1	9.202667E-1	9.413719E-1	9.461772E-1	1.014418E+0	9.325877E-1	8.968245E-1	9.782646E-1	9.195871E-1	9.403142E-1	9.913823E-1	9.692104E-1	9.013546E-1	9.875523E-1	8.965952E-1	9.457539E-1	9.368425E-1	9.783130E-1	9.848997E-1	9.427976E-1	9.194612E-1	9.545316E-1	9.859702E-1	9.480253E-1	9.403980E-1	1.001221E+0	9.240555E-1	9.317624E-1	9.194385E-1	9.548930E-1	9.276914E-1	1.023998E+0	9.537789E-1	9.795030E-1	9.482761E-1	9.967413E-1	9.415067E-1	9.347493E-1	9.862796E-1	9.613811E-1	9.248619E-1	9.319489E-1	9.492419E-1	9.621660E-1	9.585229E-1	9.319516E-1	1.005851E+0	9.398580E-1	9.774072E-1	9.858447E-1	9.823755E-1	1.007208E+0	9.649622E-1	9.633799E-1	9.595230E-1	9.988598E-1	9.335239E-1	9.353940E-1	9.699866E-1	9.725906E-1	9.512086E-1	9.824324E-1	8.999180E-1	9.771464E-1	9.327743E-1	9.561777E-1	9.603987E-1	9.712597E-1	9.909440E-1	9.506861E-1	9.915323E-1	9.412654E-1	9.640593E-1	9.573041E-1	9.945988E-1	9.220012E-1	1.028995E+0	9.471003E-1	9.537533E-1	9.530279E-1	9.497044E-1	1.001129E+0	9.872917E-1	9.866580E-1	9.553338E-1	9.903326E-1	9.862994E-1	9.499618E-1	9.395555E-1	9.354047E-1	9.412327E-1	9.647722E-1	9.683589E-1	9.414330E-1	9.509630E-1	1.039697E+0	1.007586E+0	9.637270E-1	9.453217E-1	9.451818E-1	9.564764E-1	9.802091E-1	9.789504E-1	9.410155E-1	9.215535E-1	9.495042E-1	9.162523E-1	9.198656E-1	9.927199E-1	9.784368E-1	9.403642E-1	9.309459E-1	9.493830E-1	9.687548E-1	9.417010E-1	9.049363E-1	9.809571E-1	9.716411E-1	9.452466E-1	9.467221E-1	9.705594E-1	9.956478E-1	9.521117E-1	9.878351E-1	9.643808E-1	9.479870E-1	9.198230E-1	9.418789E-1	8.944667E-1	9.989496E-1	9.618516E-1	8.855925E-1	9.749795E-1	9.301275E-1	9.468423E-1	9.334610E-1	9.672446E-1	9.692978E-1	9.609853E-1	9.606633E-1	9.824421E-1	9.601775E-1	9.868629E-1	9.105281E-1	9.373854E-1	9.256319E-1	9.361616E-1	9.764561E-1	9.280154E-1	9.430659E-1	9.831837E-1	8.870812E-1	9.310125E-1	8.810447E-1	1.000998E+0
5.633300E+2	9.186475E-1	9.418896E-1	9.071332E-1	9.674928E-1	9.124607E-1	9.645752E-1	9.651714E-1	9.652976E-1	9.404571E-1	9.012584E-1	9.287404E-1	9.711191E-1	9.502421E-1	9.188381E-1	8.836893E-1	8.964850E-1	9.490332E-1	9.167957E-1	9.285259E-1	9.253595E-1	9.296198E-1	9.388898E-1	9.157260E-1	9.224225E-1	9.497320E-1	9.440308E-1	9.157910E-1	9.298661E-1	8.441332E-1	9.071993E-1	9.276278E-1	9.495694E-1	9.543008E-1	9.557927E-1	9.256258E-1	9.257368E-1	9.126233E-1	9.199837E-1	9.367157E-1	9.132350E-1	9.089472E-1	9.025391E-1	9.466632E-1	9.552725E-1	9.483072E-1	9.597168E-1	9.509061E-1	9.362062E-1	9.660597E-1	9.617604E-1	9.172508E-1	9.401160E-1	9.042733E-1	9.823865E-1	8.919638E-1	9.124342E-1	9.374059E-1	9.007780E-1	9.253438E-1	9.416873E-1	9.066629E-1	9.548306E-1	9.492565E-1	9.573644E-1	9.319374E-1	9.574988E-1	9.411982E-1	9.498455E-1	9.254349E-1	9.524488E-1	8.941619E-1	9.326910E-1	9.831027E-1	9.122818E-1	9.710157E-1	9.436760E-1	1.020821E+0	9.558066E-1	9.560674E-1	9.679634E-1	9.320288E-1	9.507298E-1	9.523805E-1	9.186318E-1	8.944243E-1	9.105288E-1	9.080701E-1	8.454322E-1	9.086483E-1	9.420191E-1	9.095213E-1	9.016118E-1	9.713251E-1	9.323964E-1	9.208390E-1	9.087454E-1	9.242750E-1	9.857857E-1	9.306311E-1	9.487596E-1	9.025862E-1	9.552547E-1	9.370391E-1	9.242253E-1	9.360351E-1	9.456645E-1	8.439280E-1	9.258607E-1	9.544424E-1	8.789690E-1	9.143347E-1	9.038005E-1	8.580799E-1	9.605724E-1	9.951128E-1	8.923660E-1	9.313962E-1	9.772910E-1	8.836159E-1	9.385824E-1	9.200772E-1	9.410362E-1	9.012150E-1	9.219390E-1	9.759446E-1	9.508891E-1	8.935247E-1	9.477747E-1	9.171465E-1	9.381848E-1	9.183959E-1	9.097203E-1	9.134371E-1	9.686059E-1	9.633020E-1	9.402143E-1	9.555908E-1	9.304934E-1	9.435992E-1	9.205059E-1	9.715770E-1	9.908584E-1	9.669778E-1	9.544066E-1	9.284319E-1	8.929734E-1	9.352869E-1	9.140060E-1	8.593179E-1	9.178131E-1	9.014648E-1	9.033682E-1	9.467248E-1	9.451041E-1	9.979314E-1	8.993700E-1	8.989085E-1	9.343173E-1	9.174692E-1	9.345424E-1	9.167720E-1	9.730020E-1	9.164332E-1	8.876936E-1	1.046695E+0
5.643420E+2	9.253692E-1	1.006321E+0	1.082650E+0	9.790413E-1	9.122874E-1	9.035252E-1	9.586240E-1	1.011566E+0	8.933739E-1	9.826146E-1	1.002695E+0	9.407048E-1	9.565936E-1	1.049651E+0	9.317575E-1	1.047353E+0	9.812596E-1	9.408988E-1	1.054125E+0	1.009291E+0	9.856864E-1	9.013547E-1	1.034292E+0	9.683809E-1	9.794236E-1	1.003386E+0	1.027638E+0	9.112091E-1	1.000128E+0	9.762665E-1	9.879895E-1	9.697095E-1	9.834378E-1	9.429938E-1	1.027043E+0	9.274064E-1	9.893976E-1	1.016827E+0	9.669063E-1	9.848921E-1	9.600413E-1	1.042653E+0	9.704164E-1	9.470337E-1	9.128196E-1	9.353421E-1	9.639286E-1	1.006171E+0	8.786449E-1	9.818427E-1	1.025627E+0	9.555013E-1	9.587051E-1	9.457916E-1	9.781873E-1	9.891564E-1	1.000298E+0	9.996484E-1	9.478560E-1	9.642988E-1	9.373880E-1	9.512364E-1	9.532768E-1	9.368907E-1	9.801502E-1	9.192469E-1	9.256469E-1	9.763702E-1	1.057886E+0	9.510022E-1	9.724046E-1	9.066737E-1	9.559110E-1	9.717653E-1	9.051515E-1	9.783301E-1	9.401925E-1	9.648846E-1	9.123360E-1	9.796234E-1	9.346970E-1	9.769455E-1	9.974752E-1	9.803062E-1	9.439163E-1	9.575550E-1	9.208547E-1	9.819142E-1	1.002065E+0	9.165739E-1	9.733656E-1	9.377860E-1	9.601676E-1	9.254935E-1	9.733300E-1	9.674416E-1	1.003763E+0	9.611568E-1	9.434469E-1	9.668128E-1	9.809891E-1	9.525892E-1	9.743034E-1	9.329887E-1	9.345105E-1	8.909568E-1	9.880964E-1	9.769185E-1	9.838609E-1	1.040005E+0	9.628456E-1	1.001863E+0	9.946116E-1	9.900827E-1	9.684542E-1	9.727449E-1	1.031945E+0	1.014065E+0	9.853380E-1	9.337968E-1	9.315735E-1	9.688177E-1	9.254300E-1	1.013401E+0	9.702080E-1	9.286701E-1	9.231709E-1	9.706112E-1	1.019615E+0	9.986906E-1	9.810350E-1	9.594049E-1	1.015057E+0	9.307680E-1	9.549524E-1	9.911822E-1	9.631429E-1	9.220150E-1	9.677735E-1	9.422352E-1	9.561161E-1	1.006241E+0	9.744876E-1	9.580420E-1	1.012280E+0	9.798362E-1	9.844552E-1	9.592116E-1	1.007720E+0	9.184492E-1	9.352214E-1	9.920680E-1	9.498639E-1	9.609089E-1	9.712205E-1	1.020237E+0	9.743172E-1	1.017291E+0	9.149825E-1	9.499967E-1	1.016765E+0	9.730467E-1	9.356801E-1	9.758094E-1	9.846817E-1
5.653230E+2	1.060541E+0	1.004259E+0	9.729634E-1	9.889701E-1	1.100819E+0	1.029229E+0	1.025271E+0	9.606222E-1	1.024615E+0	1.018020E+0	9.727385E-1	9.723897E-1	1.021594E+0	1.009709E+0	1.021080E+0	9.645148E-1	9.897448E-1	9.848493E-1	9.937065E-1	1.001957E+0	1.014936E+0	1.016214E+0	1.016065E+0	9.697107E-1	1.047815E+0	9.863048E-1	1.039252E+0	1.057583E+0	1.072633E+0	1.005449E+0	1.021251E+0	1.078524E+0	1.047720E+0	1.052501E+0	9.914785E-1	1.040787E+0	9.975684E-1	1.017591E+0	1.012573E+0	9.709620E-1	1.013063E+0	9.847386E-1	1.004163E+0	1.045607E+0	1.050750E+0	9.799642E-1	9.918371E-1	1.019016E+0	1.024033E+0	1.009885E+0	1.024679E+0	1.022414E+0	1.047711E+0	1.004628E+0	1.024287E+0	1.042277E+0	1.003314E+0	1.025401E+0	1.001478E+0	1.014902E+0	1.001228E+0	9.783970E-1	1.017636E+0	1.017304E+0	9.474080E-1	1.007678E+0	1.029502E+0	1.046760E+0	9.493203E-1	1.012974E+0	1.000675E+0	1.003045E+0	1.028979E+0	1.007149E+0	1.022279E+0	1.022116E+0	1.003749E+0	1.001200E+0	1.036292E+0	1.021552E+0	9.860762E-1	9.724610E-1	9.981503E-1	9.712654E-1	1.040460E+0	1.019613E+0	1.019090E+0	1.096674E+0	1.022073E+0	1.060990E+0	1.056907E+0	1.042574E+0	9.677239E-1	9.815875E-1	1.046424E+0	1.060566E+0	1.009446E+0	1.043290E+0	1.070109E+0	1.029799E+0	1.059705E+0	1.041588E+0	1.027543E+0	1.029871E+0	1.017096E+0	9.930806E-1	1.007939E+0	1.001377E+0	1.010511E+0	9.893512E-1	1.048190E+0	1.029491E+0	9.986299E-1	9.541090E-1	1.038149E+0	1.039340E+0	1.028172E+0	9.873277E-1	9.875324E-1	1.061704E+0	1.018893E+0	1.048179E+0	1.031554E+0	1.010535E+0	1.051435E+0	1.036053E+0	1.008241E+0	1.015142E+0	1.005964E+0	1.010836E+0	1.035707E+0	1.033492E+0	1.032304E+0	1.000634E+0	1.006434E+0	1.022577E+0	1.007169E+0	9.893807E-1	1.035973E+0	9.965789E-1	9.840487E-1	9.768591E-1	9.481326E-1	1.019379E+0	9.733208E-1	1.025268E+0	9.561452E-1	1.027256E+0	1.000200E+0	1.002976E+0	1.104838E+0	1.024993E+0	9.996583E-1	1.034609E+0	1.011820E+0	1.045323E+0	1.053993E+0	1.036373E+0	9.937530E-1	1.031646E+0	1.014859E+0	1.068069E+0	9.634970E-1	1.016604E+0	1.014276E+0
5.663250E+2	1.074708E+0	1.066578E+0	1.053828E+0	1.078159E+0	9.921335E-1	1.055979E+0	1.057303E+0	1.013779E+0	1.077040E+0	1.007227E+0	1.060436E+0	1.101646E+0	1.062558E+0	1.007620E+0	1.070528E+0	1.110157E+0	1.050545E+0	1.099726E+0	1.068137E+0	1.047071E+0	1.054848E+0	1.027637E+0	1.093612E+0	1.072582E+0	1.055555E+0	1.018171E+0	1.047007E+0	1.056796E+0	1.026902E+0	1.060130E+0	1.076333E+0	1.004525E+0	1.023920E+0	1.004099E+0	1.047318E+0	1.024986E+0	1.109005E+0	1.064881E+0	1.090735E+0	1.094212E+0	1.087727E+0	1.014679E+0	1.044059E+0	1.020133E+0	1.078386E+0	1.032206E+0	1.045179E+0	1.018598E+0	1.068299E+0	1.052324E+0	1.054971E+0	1.032778E+0	1.113171E+0	1.038171E+0	1.024312E+0	1.054916E+0	1.027915E+0	1.103791E+0	1.101397E+0	1.026018E+0	1.119084E+0	1.048476E+0	1.078854E+0	1.065729E+0	1.030492E+0	1.058872E+0	1.084080E+0	1.041999E+0	1.051541E+0	1.032588E+0	1.100508E+0	1.031510E+0	1.061466E+0	1.036651E+0	1.161162E+0	1.053855E+0	9.687997E-1	1.069866E+0	1.042904E+0	1.031296E+0	1.098664E+0	1.039905E+0	1.046394E+0	1.095309E+0	1.046275E+0	1.020717E+0	1.056464E+0	9.995877E-1	1.033679E+0	1.077334E+0	1.068441E+0	1.048310E+0	1.032190E+0	1.062577E+0	1.052074E+0	1.046122E+0	1.007955E+0	1.011049E+0	1.009424E+0	1.042435E+0	1.042065E+0	1.019826E+0	1.054347E+0	1.047634E+0	1.060952E+0	1.095904E+0	1.047149E+0	1.052889E+0	1.049441E+0	1.085291E+0	1.075799E+0	1.021587E+0	1.066521E+0	1.050650E+0	9.941881E-1	1.009554E+0	1.007958E+0	1.036487E+0	1.069362E+0	1.040560E+0	1.044046E+0	1.079384E+0	1.115372E+0	1.032911E+0	1.052075E+0	1.081069E+0	1.065974E+0	1.019226E+0	1.004941E+0	1.040775E+0	1.033912E+0	1.078861E+0	1.039667E+0	1.018329E+0	1.022223E+0	1.036697E+0	1.064607E+0	1.083782E+0	1.038222E+0	1.036048E+0	1.071933E+0	1.039383E+0	1.078832E+0	1.052161E+0	1.025179E+0	1.035972E+0	1.056846E+0	1.013414E+0	1.055255E+0	1.055664E+0	1.038575E+0	1.038350E+0	1.026995E+0	1.030229E+0	1.012306E+0	1.061015E+0	1.081447E+0	9.701707E-1	1.119985E+0	1.044659E+0	1.029846E+0	1.039060E+0	1.157707E+0	1.080349E+0	8.247483E-1
5.673240E+2	1.055426E+0	1.055313E+0	1.029454E+0	1.056851E+0	1.103350E+0	1.081095E+0	1.033779E+0	1.101409E+0	1.120764E+0	1.148400E+0	1.090069E+0	1.093874E+0	1.067640E+0	1.068004E+0	1.078527E+0	1.048902E+0	1.132593E+0	1.079466E+0	1.035919E+0	1.076008E+0	1.023528E+0	1.146694E+0	1.038950E+0	1.079352E+0	1.070879E+0	1.102354E+0	1.033469E+0	1.066233E+0	1.071303E+0	1.108157E+0	1.067337E+0	1.043141E+0	1.004652E+0	1.096588E+0	1.068137E+0	1.079863E+0	1.067351E+0	1.048954E+0	1.073631E+0	1.081806E+0	1.102530E+0	1.031392E+0	1.080920E+0	1.052451E+0	1.061461E+0	1.096030E+0	1.106643E+0	1.085259E+0	1.076684E+0	1.032807E+0	1.052611E+0	1.117242E+0	1.026897E+0	1.066857E+0	1.122727E+0	1.069264E+0	1.025216E+0	1.030524E+0	1.046518E+0	1.067249E+0	1.053262E+0	1.059852E+0	1.036014E+0	1.059331E+0	1.150489E+0	1.057845E+0	1.086049E+0	1.049632E+0	1.045831E+0	1.078397E+0	1.081042E+0	1.143648E+0	1.070623E+0	1.095007E+0	1.007617E+0	1.045845E+0	1.106040E+0	1.036983E+0	1.061457E+0	1.048879E+0	1.057002E+0	1.118693E+0	1.041541E+0	1.077184E+0	1.080326E+0	1.169584E+0	1.066527E+0	1.129292E+0	1.079783E+0	1.050055E+0	1.042061E+0	1.068589E+0	1.081302E+0	1.111287E+0	1.051999E+0	1.026793E+0	1.068262E+0	1.048757E+0	1.106833E+0	1.076789E+0	1.073422E+0	1.065970E+0	1.038409E+0	1.123848E+0	1.100443E+0	1.034697E+0	1.105301E+0	1.079228E+0	1.056423E+0	1.061202E+0	1.042354E+0	1.063049E+0	1.103207E+0	1.103570E+0	1.082543E+0	1.136491E+0	1.084277E+0	1.064964E+0	1.081432E+0	1.046920E+0	1.145046E+0	1.031637E+0	1.077046E+0	1.052460E+0	1.008637E+0	1.098383E+0	1.128132E+0	1.075605E+0	1.107086E+0	1.064792E+0	1.060391E+0	1.022874E+0	1.047424E+0	1.093828E+0	1.088708E+0	1.061343E+0	1.089668E+0	1.132450E+0	1.119966E+0	1.105683E+0	1.054474E+0	1.101066E+0	1.056590E+0	1.085884E+0	1.113946E+0	1.132489E+0	1.100022E+0	1.116815E+0	1.116522E+0	1.144434E+0	1.037459E+0	1.081043E+0	1.089895E+0	1.118621E+0	1.069337E+0	1.048423E+0	1.055173E+0	1.065391E+0	1.125795E+0	1.096090E+0	1.038574E+0	1.059741E+0	1.095671E+0	1.158499E+0	1.128601E+0
