Photon Energy (eV)	#1	#2	#3	#4	#5	#6	#7	#8	#9	#10	#11	#12	#13	#14	#15	#16	#17	#18	#19	#20	#21	#22	#23	#24	#25	#26	#27	#28	#29	#30	#31	#32	#33	#34	#35	#36	#37	#38	#39	#40	#41	#42	#43	#44	#45	#46	#47	#48	#49	#50	#51	#52	#53	#54	#55	#56	#57	#58	#59	#60	#61	#62	#63	#64	#65	#66	#67	#68	#69	#70	#71	#72	#73	#74	#75	#76	#77	#78	#79	#80	#81	#82	#83	#84	#85	#86	#87	#88	#89	#90	#91	#92	#93	#94	#95	#96	#97	#98	#99	#100	#101	#102	#103	#104	#105	#106	#107	#108	#109	#110	#111	#112	#113	#114	#115	#116	#117	#118	#119	#120	#121	#122	#123	#124	#125	#126	#127	#128	#129	#130	#131	#132	#133	#134	#135	#136	#137	#138	#139	#140	#141	#142	#143	#144	#145	#146	#147	#148	#149	#150	#151	#152	#153	#154	#155	#156	#157	#158	#159	#160	#161	#162	#163	#164	#165	#166	#167	#168	#169	#170	
1.400000E+3	1.321110E+0	1.444670E+0	1.414830E+0	1.250360E+0	1.533730E+0	1.565440E+0	1.466640E+0	1.524820E+0	1.499860E+0	1.461360E+0	1.606070E+0	1.652930E+0	1.756890E+0	1.834680E+0	1.750480E+0	1.803230E+0	1.528180E+0	1.761580E+0	1.581320E+0	1.508590E+0	1.672100E+0	1.833030E+0	1.901560E+0	1.790400E+0	1.510490E+0	1.637860E+0	1.706460E+0	1.551170E+0	1.898150E+0	1.952840E+0	1.808990E+0	1.733970E+0	1.669950E+0	1.713340E+0	1.615580E+0	1.485760E+0	1.817560E+0	1.781340E+0	1.992340E+0	1.692410E+0	1.643760E+0	1.587990E+0	1.727230E+0	1.402800E+0	1.974510E+0	1.944710E+0	1.740120E+0	1.560400E+0	1.608040E+0	1.681040E+0	1.563810E+0	1.367250E+0	1.654050E+0	1.711340E+0	1.823270E+0	1.663320E+0	1.329860E+0	1.498990E+0	1.690920E+0	1.494510E+0	1.667510E+0	1.875270E+0	1.783050E+0	1.700550E+0	1.590580E+0	1.786930E+0	1.596240E+0	1.483760E+0	1.715470E+0	1.893900E+0	1.904420E+0	1.724150E+0	1.475470E+0	1.576730E+0	1.684290E+0	1.551940E+0	1.714690E+0	1.869500E+0	1.752520E+0	1.729200E+0	1.471860E+0	1.678810E+0	1.639470E+0	1.510940E+0	1.566400E+0	1.847400E+0	1.926720E+0	1.882920E+0	1.550070E+0	1.676690E+0	1.590260E+0	1.667970E+0	1.867290E+0	1.904270E+0	1.579000E+0	1.758900E+0	1.612430E+0	1.589770E+0	1.405000E+0	1.419150E+0	1.605840E+0	1.767320E+0	1.716810E+0	1.750550E+0	1.433410E+0	1.648730E+0	1.658400E+0	1.529600E+0	1.779750E+0	1.896540E+0	1.771430E+0	1.688190E+0	1.526370E+0	1.685080E+0	1.557090E+0	1.533820E+0	1.589540E+0	1.877600E+0	1.848740E+0	1.812500E+0	1.442500E+0	1.612910E+0	1.633650E+0	1.568240E+0	1.611800E+0	1.781540E+0	1.704210E+0	1.703900E+0	1.555280E+0	1.548430E+0	1.558900E+0	1.530090E+0	1.614810E+0	1.720040E+0	1.800650E+0	1.812970E+0	1.518640E+0	1.604240E+0	1.529090E+0	1.550730E+0	1.756210E+0	1.923050E+0	1.528220E+0	1.659910E+0	1.528460E+0	1.594880E+0	1.427730E+0	1.501260E+0	1.608160E+0	1.700670E+0	1.741470E+0	1.938300E+0	1.497250E+0	1.555120E+0	1.605800E+0	1.648630E+0	1.883380E+0	1.896930E+0	1.671540E+0	1.692120E+0	1.602190E+0	1.745060E+0	1.499760E+0	1.439550E+0	1.475400E+0	1.905980E+0	1.744520E+0	1.725110E+0	1.366730E+0	1.601010E+0
1.700000E+3	1.319930E+0	1.443190E+0	1.413320E+0	1.249370E+0	1.532000E+0	1.563720E+0	1.465120E+0	1.523230E+0	1.498370E+0	1.459820E+0	1.604630E+0	1.651170E+0	1.755030E+0	1.832760E+0	1.748650E+0	1.801290E+0	1.526660E+0	1.759740E+0	1.579730E+0	1.506900E+0	1.670270E+0	1.830960E+0	1.899210E+0	1.788480E+0	1.508900E+0	1.636280E+0	1.704590E+0	1.549520E+0	1.895940E+0	1.950540E+0	1.807000E+0	1.731970E+0	1.668280E+0	1.711470E+0	1.613880E+0	1.484360E+0	1.815590E+0	1.779460E+0	1.990130E+0	1.690760E+0	1.642180E+0	1.586510E+0	1.725390E+0	1.401580E+0	1.972160E+0	1.942530E+0	1.738270E+0	1.558880E+0	1.606510E+0	1.681080E+0	1.562330E+0	1.365920E+0	1.654730E+0	1.711510E+0	1.823540E+0	1.661900E+0	1.328920E+0	1.498120E+0	1.691440E+0	1.492880E+0	1.668000E+0	1.872720E+0	1.777920E+0	1.698950E+0	1.588600E+0	1.785210E+0	1.596340E+0	1.479600E+0	1.713850E+0	1.891580E+0	1.898230E+0	1.721760E+0	1.474920E+0	1.574710E+0	1.681860E+0	1.549950E+0	1.712220E+0	1.866750E+0	1.747750E+0	1.726740E+0	1.467910E+0	1.676530E+0	1.635900E+0	1.506980E+0	1.563660E+0	1.842540E+0	1.921220E+0	1.880160E+0	1.547190E+0	1.672430E+0	1.586160E+0	1.661880E+0	1.864540E+0	1.901540E+0	1.576360E+0	1.756210E+0	1.609880E+0	1.587810E+0	1.397340E+0	1.415980E+0	1.603960E+0	1.765110E+0	1.712080E+0	1.748330E+0	1.431830E+0	1.644200E+0	1.655140E+0	1.527860E+0	1.777390E+0	1.894020E+0	1.769220E+0	1.686190E+0	1.524660E+0	1.682950E+0	1.555230E+0	1.532050E+0	1.587560E+0	1.875020E+0	1.846270E+0	1.810200E+0	1.440400E+0	1.611110E+0	1.631710E+0	1.566500E+0	1.609970E+0	1.779360E+0	1.702210E+0	1.702040E+0	1.553600E+0	1.546550E+0	1.557130E+0	1.528440E+0	1.613010E+0	1.717940E+0	1.798450E+0	1.810810E+0	1.516990E+0	1.602480E+0	1.527460E+0	1.549120E+0	1.754230E+0	1.920580E+0	1.526610E+0	1.658130E+0	1.526800E+0	1.593220E+0	1.426340E+0	1.499690E+0	1.606340E+0	1.698730E+0	1.739500E+0	1.935850E+0	1.495770E+0	1.553430E+0	1.604080E+0	1.646840E+0	1.881140E+0	1.894640E+0	1.669750E+0	1.690280E+0	1.600530E+0	1.743110E+0	1.498320E+0	1.438250E+0	1.474070E+0	1.903650E+0	1.742660E+0	1.723340E+0	1.365590E+0	1.599390E+0
2.000000E+3	1.318850E+0	1.441870E+0	1.412130E+0	1.248290E+0	1.530330E+0	1.562150E+0	1.463470E+0	1.521700E+0	1.496820E+0	1.458230E+0	1.715700E+0	1.644200E+0	1.752240E+0	1.829520E+0	2.028330E+0	1.786700E+0	1.523180E+0	1.755090E+0	1.800440E+0	1.495190E+0	1.667300E+0	1.826750E+0	2.009830E+0	1.781420E+0	1.506720E+0	1.633380E+0	1.706420E+0	1.547680E+0	1.893420E+0	1.947610E+0	1.804720E+0	1.729840E+0	1.666010E+0	1.709070E+0	1.611890E+0	1.482680E+0	1.813120E+0	1.777130E+0	1.987540E+0	1.688540E+0	1.640110E+0	1.584420E+0	1.723340E+0	1.399700E+0	1.969170E+0	1.939860E+0	1.735970E+0	1.556720E+0	1.604570E+0	1.679720E+0	1.560600E+0	1.364440E+0	1.653990E+0	1.710680E+0	1.822350E+0	1.658080E+0	1.326420E+0	1.498820E+0	1.690130E+0	1.490290E+0	1.667160E+0	1.872410E+0	1.773170E+0	1.695760E+0	1.586650E+0	1.782330E+0	1.595020E+0	1.478920E+0	1.711250E+0	1.887120E+0	1.895960E+0	1.720830E+0	1.474390E+0	1.573360E+0	1.679790E+0	1.548060E+0	1.709660E+0	1.863700E+0	1.742620E+0	1.721040E+0	1.463410E+0	1.673880E+0	1.630150E+0	1.502220E+0	1.561420E+0	1.837630E+0	1.916510E+0	1.877150E+0	1.545350E+0	1.667330E+0	1.581310E+0	1.658590E+0	1.861600E+0	1.898370E+0	1.573960E+0	1.753450E+0	1.603680E+0	1.581210E+0	1.395360E+0	1.414050E+0	1.601610E+0	1.758480E+0	1.709550E+0	1.745650E+0	1.429930E+0	1.640120E+0	1.652700E+0	1.525730E+0	1.774750E+0	1.891080E+0	1.766770E+0	1.683650E+0	1.522620E+0	1.680380E+0	1.553170E+0	1.530000E+0	1.585440E+0	1.872080E+0	1.843690E+0	1.807730E+0	1.437540E+0	1.609170E+0	1.629720E+0	1.564460E+0	1.607830E+0	1.776850E+0	1.699830E+0	1.699660E+0	1.551510E+0	1.544520E+0	1.554930E+0	1.526290E+0	1.610860E+0	1.715600E+0	1.795930E+0	1.808030E+0	1.515150E+0	1.600350E+0	1.525510E+0	1.546970E+0	1.751770E+0	1.917430E+0	1.524620E+0	1.655690E+0	1.524750E+0	1.591000E+0	1.424480E+0	1.497820E+0	1.604030E+0	1.696460E+0	1.737130E+0	1.931160E+0	1.493900E+0	1.551650E+0	1.602170E+0	1.640160E+0	1.878870E+0	1.892040E+0	1.667790E+0	1.684660E+0	1.598920E+0	1.740880E+0	1.496800E+0	1.434810E+0	1.472650E+0	1.901050E+0	1.740410E+0	1.721100E+0	1.364090E+0	1.597430E+0
2.100000E+3	1.317650E+0	1.440350E+0	1.410630E+0	1.247040E+0	1.528670E+0	1.560410E+0	1.461820E+0	1.519980E+0	1.495230E+0	1.456590E+0	1.744970E+0	1.640860E+0	1.749900E+0	1.826880E+0	2.103600E+0	1.781010E+0	1.520930E+0	1.752210E+0	1.859740E+0	1.490710E+0	1.664960E+0	1.823900E+0	2.038440E+0	1.777850E+0	1.504930E+0	1.631020E+0	1.713810E+0	1.545430E+0	1.890750E+0	1.944710E+0	1.892370E+0	1.723490E+0	1.663180E+0	1.705920E+0	1.697450E+0	1.476800E+0	1.810180E+0	1.774140E+0	2.016920E+0	1.684920E+0	1.638020E+0	1.582170E+0	1.722400E+0	1.397930E+0	1.966360E+0	1.936860E+0	1.733600E+0	1.554270E+0	1.602290E+0	1.676360E+0	1.556980E+0	1.364140E+0	1.650770E+0	1.706970E+0	1.818820E+0	1.655680E+0	1.326160E+0	1.496260E+0	1.686320E+0	1.489210E+0	1.663300E+0	1.869520E+0	1.772950E+0	1.694550E+0	1.583610E+0	1.781220E+0	1.591720E+0	1.476300E+0	1.709250E+0	1.884640E+0	1.891080E+0	1.716810E+0	1.471690E+0	1.571790E+0	1.677980E+0	1.546460E+0	1.707820E+0	1.861160E+0	1.742080E+0	1.720010E+0	1.462950E+0	1.671730E+0	1.629820E+0	1.501230E+0	1.559410E+0	1.835030E+0	1.912330E+0	1.874390E+0	1.541670E+0	1.665970E+0	1.579670E+0	1.656340E+0	1.859030E+0	1.895690E+0	1.572070E+0	1.751150E+0	1.603380E+0	1.580930E+0	1.393740E+0	1.412290E+0	1.599570E+0	1.757300E+0	1.707060E+0	1.743130E+0	1.427760E+0	1.637880E+0	1.650510E+0	1.523840E+0	1.772380E+0	1.888500E+0	1.764450E+0	1.681550E+0	1.520870E+0	1.678070E+0	1.551190E+0	1.527980E+0	1.583430E+0	1.869400E+0	1.841180E+0	1.805230E+0	1.435680E+0	1.607120E+0	1.627620E+0	1.562550E+0	1.605860E+0	1.774310E+0	1.697650E+0	1.697390E+0	1.549520E+0	1.542550E+0	1.552990E+0	1.524350E+0	1.608810E+0	1.713290E+0	1.793410E+0	1.805460E+0	1.513370E+0	1.598350E+0	1.523710E+0	1.544930E+0	1.749350E+0	1.914600E+0	1.522700E+0	1.653520E+0	1.522790E+0	1.588800E+0	1.422710E+0	1.495970E+0	1.601940E+0	1.694290E+0	1.734900E+0	1.927940E+0	1.492080E+0	1.549720E+0	1.600170E+0	1.636720E+0	1.876230E+0	1.889290E+0	1.665580E+0	1.681430E+0	1.596960E+0	1.738440E+0	1.494980E+0	1.432660E+0	1.470990E+0	1.898350E+0	1.738230E+0	1.718780E+0	1.362470E+0	1.595460E+0
2.200000E+3	1.316090E+0	1.438600E+0	1.408840E+0	1.245600E+0	1.526870E+0	1.558370E+0	1.459990E+0	1.517920E+0	1.493190E+0	1.454680E+0	1.742440E+0	1.638560E+0	1.747350E+0	1.824180E+0	2.100000E+0	1.778380E+0	1.518860E+0	1.749550E+0	1.856880E+0	1.488560E+0	1.662570E+0	1.821030E+0	2.035100E+0	1.775060E+0	1.502670E+0	1.628740E+0	1.722500E+0	1.542640E+0	1.887680E+0	1.941320E+0	2.006360E+0	1.715580E+0	1.659830E+0	1.702200E+0	1.808290E+0	1.469410E+0	1.806610E+0	1.770230E+0	2.054850E+0	1.680430E+0	1.635280E+0	1.579320E+0	1.786330E+0	1.392940E+0	1.962310E+0	1.932590E+0	1.962430E+0	1.540680E+0	1.597890E+0	1.668990E+0	1.729600E+0	1.352240E+0	1.644970E+0	1.700380E+0	1.878740E+0	1.651230E+0	1.322710E+0	1.491090E+0	1.683620E+0	1.485780E+0	1.658020E+0	1.864020E+0	1.771480E+0	1.690030E+0	1.578930E+0	1.776460E+0	1.587620E+0	1.473550E+0	1.704460E+0	1.882650E+0	1.888920E+0	1.713930E+0	1.468050E+0	1.568690E+0	1.675330E+0	1.543730E+0	1.705220E+0	1.859070E+0	1.743120E+0	1.719980E+0	1.464010E+0	1.669960E+0	1.630780E+0	1.501670E+0	1.557750E+0	1.834890E+0	1.912800E+0	1.872130E+0	1.541670E+0	1.666630E+0	1.578960E+0	1.654500E+0	1.856820E+0	1.893490E+0	1.570540E+0	1.749290E+0	1.604240E+0	1.581800E+0	1.392120E+0	1.410720E+0	1.597610E+0	1.757890E+0	1.705110E+0	1.740960E+0	1.426800E+0	1.638170E+0	1.648700E+0	1.522160E+0	1.770450E+0	1.885940E+0	1.762350E+0	1.679420E+0	1.519120E+0	1.675860E+0	1.549370E+0	1.526070E+0	1.581480E+0	1.866720E+0	1.838510E+0	1.802630E+0	1.433820E+0	1.605080E+0	1.625570E+0	1.560650E+0	1.603910E+0	1.771890E+0	1.695430E+0	1.695150E+0	1.547420E+0	1.540410E+0	1.550860E+0	1.522310E+0	1.606610E+0	1.710780E+0	1.790860E+0	1.802810E+0	1.511390E+0	1.596260E+0	1.521820E+0	1.542930E+0	1.746900E+0	1.911700E+0	1.520800E+0	1.651050E+0	1.520780E+0	1.586530E+0	1.420810E+0	1.493800E+0	1.599660E+0	1.691850E+0	1.732360E+0	1.924720E+0	1.490030E+0	1.547530E+0	1.598050E+0	1.634280E+0	1.873300E+0	1.886140E+0	1.663140E+0	1.678780E+0	1.594460E+0	1.735650E+0	1.492690E+0	1.430660E+0	1.468930E+0	1.895400E+0	1.735470E+0	1.715810E+0	1.360430E+0	1.593100E+0
2.300000E+3	1.315100E+0	1.437260E+0	1.407500E+0	1.244460E+0	1.525180E+0	1.556720E+0	1.458470E+0	1.516410E+0	1.491760E+0	1.453300E+0	1.740580E+0	1.636980E+0	1.745580E+0	1.822120E+0	2.097410E+0	1.776460E+0	1.517350E+0	1.747680E+0	1.854660E+0	1.487250E+0	1.660850E+0	1.819090E+0	2.032720E+0	1.773100E+0	1.501280E+0	1.627080E+0	1.720650E+0	1.541110E+0	1.885570E+0	1.939080E+0	2.004050E+0	1.713780E+0	1.658170E+0	1.700420E+0	1.806300E+0	1.468040E+0	1.804740E+0	1.768400E+0	2.052490E+0	1.678800E+0	1.633740E+0	1.577800E+0	1.802410E+0	1.390670E+0	1.959880E+0	1.930250E+0	2.024510E+0	1.536760E+0	1.595880E+0	1.667650E+0	1.778020E+0	1.348600E+0	1.643650E+0	1.699260E+0	1.894770E+0	1.648070E+0	1.322010E+0	1.489530E+0	1.736300E+0	1.481980E+0	1.656260E+0	1.860450E+0	1.983410E+0	1.679780E+0	1.576630E+0	1.773370E+0	1.756650E+0	1.466750E+0	1.701860E+0	1.877720E+0	1.953640E+0	1.708900E+0	1.465950E+0	1.566070E+0	1.675830E+0	1.541430E+0	1.702810E+0	1.856010E+0	1.738770E+0	1.717550E+0	1.461060E+0	1.667500E+0	1.628700E+0	1.499360E+0	1.555750E+0	1.831770E+0	1.908460E+0	1.869240E+0	1.539130E+0	1.661250E+0	1.575650E+0	1.651470E+0	1.853990E+0	1.890570E+0	1.568480E+0	1.746710E+0	1.601140E+0	1.579360E+0	1.390490E+0	1.408780E+0	1.595390E+0	1.754670E+0	1.702730E+0	1.738380E+0	1.424880E+0	1.635910E+0	1.646410E+0	1.520010E+0	1.767800E+0	1.883330E+0	1.760040E+0	1.677410E+0	1.517210E+0	1.673830E+0	1.547420E+0	1.524170E+0	1.579360E+0	1.864240E+0	1.835990E+0	1.800210E+0	1.431770E+0	1.603130E+0	1.623530E+0	1.558650E+0	1.601930E+0	1.769540E+0	1.693350E+0	1.692970E+0	1.545540E+0	1.538390E+0	1.548940E+0	1.520280E+0	1.604500E+0	1.708470E+0	1.788450E+0	1.800290E+0	1.509620E+0	1.594240E+0	1.519980E+0	1.541140E+0	1.744680E+0	1.908980E+0	1.518900E+0	1.648950E+0	1.518830E+0	1.584320E+0	1.419020E+0	1.491950E+0	1.597580E+0	1.689460E+0	1.730030E+0	1.922010E+0	1.488290E+0	1.545620E+0	1.596000E+0	1.632230E+0	1.870750E+0	1.883550E+0	1.661090E+0	1.676650E+0	1.592490E+0	1.733250E+0	1.490880E+0	1.428850E+0	1.467150E+0	1.892710E+0	1.733280E+0	1.713570E+0	1.359050E+0	1.591180E+0
2.325000E+3	1.313730E+0	1.435550E+0	1.405960E+0	1.243140E+0	1.523390E+0	1.554850E+0	1.456740E+0	1.514650E+0	1.490010E+0	1.451560E+0	1.738350E+0	1.634870E+0	1.743310E+0	1.819570E+0	2.094320E+0	1.774120E+0	1.515480E+0	1.745270E+0	1.851980E+0	1.485460E+0	1.658690E+0	1.816490E+0	2.029720E+0	1.770860E+0	1.499590E+0	1.625140E+0	1.718430E+0	1.539330E+0	1.882960E+0	1.936400E+0	2.001170E+0	1.711680E+0	1.656100E+0	1.698110E+0	1.803800E+0	1.466360E+0	1.802300E+0	1.766070E+0	2.049580E+0	1.676780E+0	1.631790E+0	1.575850E+0	1.800160E+0	1.389150E+0	1.957210E+0	1.927750E+0	2.021630E+0	1.535360E+0	1.593950E+0	1.666570E+0	1.776070E+0	1.347660E+0	1.642290E+0	1.698930E+0	1.894380E+0	1.645360E+0	1.320640E+0	1.488830E+0	1.751880E+0	1.480210E+0	1.655110E+0	1.858350E+0	2.041100E+0	1.674760E+0	1.575970E+0	1.770540E+0	1.803260E+0	1.462700E+0	1.701150E+0	1.873560E+0	1.969380E+0	1.704750E+0	1.463580E+0	1.563300E+0	1.735850E+0	1.536180E+0	1.699420E+0	1.852000E+0	2.020510E+0	1.702650E+0	1.458280E+0	1.662280E+0	1.862260E+0	1.489810E+0	1.552110E+0	1.826430E+0	2.008060E+0	1.862040E+0	1.535570E+0	1.657500E+0	1.577300E+0	1.648780E+0	1.850680E+0	1.886890E+0	1.565940E+0	1.743770E+0	1.599000E+0	1.576780E+0	1.388710E+0	1.406660E+0	1.592910E+0	1.752240E+0	1.700250E+0	1.735330E+0	1.422770E+0	1.630520E+0	1.643870E+0	1.517280E+0	1.764670E+0	1.880110E+0	1.757210E+0	1.674430E+0	1.514980E+0	1.671360E+0	1.545300E+0	1.521840E+0	1.577130E+0	1.861320E+0	1.833100E+0	1.797110E+0	1.429390E+0	1.600890E+0	1.620940E+0	1.556160E+0	1.599460E+0	1.766690E+0	1.690780E+0	1.690320E+0	1.543330E+0	1.536200E+0	1.546620E+0	1.518160E+0	1.602150E+0	1.705970E+0	1.785640E+0	1.797360E+0	1.507500E+0	1.591970E+0	1.517800E+0	1.538890E+0	1.742040E+0	1.905690E+0	1.516690E+0	1.646430E+0	1.516610E+0	1.581850E+0	1.417090E+0	1.489640E+0	1.595100E+0	1.686810E+0	1.727180E+0	1.918810E+0	1.486120E+0	1.543330E+0	1.593690E+0	1.629770E+0	1.867840E+0	1.880380E+0	1.658440E+0	1.674160E+0	1.590070E+0	1.730520E+0	1.488700E+0	1.426800E+0	1.464920E+0	1.889460E+0	1.730670E+0	1.710870E+0	1.357270E+0	1.588810E+0
2.350000E+3	1.312390E+0	1.434030E+0	1.404310E+0	1.241750E+0	1.521530E+0	1.552980E+0	1.455070E+0	1.512800E+0	1.488190E+0	1.449980E+0	1.736120E+0	1.632850E+0	1.741060E+0	1.817110E+0	2.091200E+0	1.771910E+0	1.513610E+0	1.743000E+0	1.849430E+0	1.483660E+0	1.656530E+0	1.814080E+0	2.026840E+0	1.768460E+0	1.497710E+0	1.623060E+0	1.716140E+0	1.537320E+0	1.880350E+0	1.933630E+0	1.998290E+0	1.709390E+0	1.654030E+0	1.695860E+0	1.801280E+0	1.464420E+0	1.799790E+0	1.763600E+0	2.046630E+0	1.674570E+0	1.629580E+0	1.573820E+0	1.797570E+0	1.387560E+0	1.954330E+0	1.924830E+0	2.018690E+0	1.533450E+0	1.591870E+0	1.664790E+0	1.773520E+0	1.345680E+0	1.641370E+0	1.696250E+0	1.891670E+0	1.643710E+0	1.319130E+0	1.486960E+0	1.748260E+0	1.477920E+0	1.653820E+0	1.855640E+0	2.037950E+0	1.671750E+0	1.573640E+0	1.767690E+0	1.800430E+0	1.461880E+0	1.698460E+0	1.872670E+0	1.965870E+0	1.703060E+0	1.462260E+0	1.561430E+0	1.736350E+0	1.534180E+0	1.697100E+0	1.849420E+0	2.030280E+0	1.699930E+0	1.456820E+0	1.660000E+0	1.870450E+0	1.488340E+0	1.550670E+0	1.824270E+0	2.010030E+0	1.859290E+0	1.534430E+0	1.656010E+0	1.669590E+0	1.645760E+0	1.847460E+0	1.883390E+0	1.902720E+0	1.726880E+0	1.595240E+0	1.572380E+0	1.663960E+0	1.401160E+0	1.590010E+0	1.748360E+0	1.819670E+0	1.728090E+0	1.420620E+0	1.629600E+0	1.646180E+0	1.515300E+0	1.762260E+0	1.877150E+0	1.754770E+0	1.672210E+0	1.512960E+0	1.668910E+0	1.543540E+0	1.520000E+0	1.575140E+0	1.858710E+0	1.830880E+0	1.794470E+0	1.427460E+0	1.598610E+0	1.618990E+0	1.553660E+0	1.597110E+0	1.764060E+0	1.688450E+0	1.687780E+0	1.541300E+0	1.534380E+0	1.544810E+0	1.516010E+0	1.600020E+0	1.703770E+0	1.783160E+0	1.794500E+0	1.505340E+0	1.589920E+0	1.515650E+0	1.536440E+0	1.739440E+0	1.902870E+0	1.514740E+0	1.644040E+0	1.514640E+0	1.579910E+0	1.415220E+0	1.487620E+0	1.592890E+0	1.684540E+0	1.724670E+0	1.915630E+0	1.484080E+0	1.541260E+0	1.591450E+0	1.627410E+0	1.864980E+0	1.877650E+0	1.656170E+0	1.671680E+0	1.587890E+0	1.727650E+0	1.486700E+0	1.424600E+0	1.462930E+0	1.886390E+0	1.727970E+0	1.708250E+0	1.355400E+0	1.586610E+0
2.375000E+3	1.311170E+0	1.432440E+0	1.402890E+0	1.240490E+0	1.519840E+0	1.551130E+0	1.453290E+0	1.510990E+0	1.486430E+0	1.448140E+0	1.733760E+0	1.630780E+0	1.738770E+0	1.814580E+0	2.088220E+0	1.769580E+0	1.511880E+0	1.740680E+0	1.846810E+0	1.481980E+0	1.654480E+0	1.811650E+0	2.023900E+0	1.766270E+0	1.496040E+0	1.621110E+0	1.713860E+0	1.535550E+0	1.877720E+0	1.930850E+0	1.995350E+0	1.707310E+0	1.651830E+0	1.693630E+0	1.798890E+0	1.462770E+0	1.797470E+0	1.761370E+0	2.043610E+0	1.672560E+0	1.627710E+0	1.571890E+0	1.795250E+0	1.386090E+0	1.951590E+0	1.922200E+0	2.015700E+0	1.531690E+0	1.589960E+0	1.664330E+0	1.771140E+0	1.344790E+0	1.641040E+0	1.695750E+0	1.890240E+0	1.642130E+0	1.317570E+0	1.487780E+0	1.747260E+0	1.476470E+0	1.653450E+0	1.855850E+0	2.035430E+0	1.669820E+0	1.571840E+0	1.765000E+0	1.798040E+0	1.462580E+0	1.696400E+0	1.869620E+0	1.962120E+0	1.703200E+0	1.462750E+0	1.560280E+0	1.734320E+0	1.532250E+0	1.694350E+0	1.846010E+0	2.025640E+0	1.697150E+0	1.452960E+0	1.657300E+0	1.865380E+0	1.485310E+0	1.547920E+0	1.819860E+0	2.005570E+0	1.856030E+0	1.532050E+0	1.652680E+0	1.674160E+0	1.641600E+0	1.844190E+0	1.880140E+0	1.931540E+0	1.722750E+0	1.592610E+0	1.569710E+0	1.687210E+0	1.396320E+0	1.587170E+0	1.744820E+0	1.828100E+0	1.724750E+0	1.418500E+0	1.625280E+0	1.687420E+0	1.511170E+0	1.759070E+0	1.873630E+0	1.945410E+0	1.661480E+0	1.509540E+0	1.664740E+0	1.687270E+0	1.511590E+0	1.572350E+0	1.854610E+0	1.888470E+0	1.789290E+0	1.425140E+0	1.595900E+0	1.618760E+0	1.551510E+0	1.594710E+0	1.761170E+0	1.686030E+0	1.685340E+0	1.538980E+0	1.532150E+0	1.542760E+0	1.514050E+0	1.597870E+0	1.701320E+0	1.780690E+0	1.791710E+0	1.503370E+0	1.587530E+0	1.513670E+0	1.534150E+0	1.736720E+0	1.899550E+0	1.512520E+0	1.641480E+0	1.512560E+0	1.577690E+0	1.413430E+0	1.485570E+0	1.590620E+0	1.682230E+0	1.722230E+0	1.912500E+0	1.482000E+0	1.539120E+0	1.589110E+0	1.624920E+0	1.862050E+0	1.874620E+0	1.653870E+0	1.669230E+0	1.585710E+0	1.725230E+0	1.484700E+0	1.422740E+0	1.460960E+0	1.883610E+0	1.725440E+0	1.705760E+0	1.353800E+0	1.584380E+0
2.400000E+3	1.309960E+0	1.430950E+0	1.401320E+0	1.239300E+0	1.518160E+0	1.549510E+0	1.451820E+0	1.509390E+0	1.484870E+0	1.446540E+0	1.731730E+0	1.628920E+0	1.736710E+0	1.812230E+0	2.085280E+0	1.767450E+0	1.510110E+0	1.738700E+0	1.844530E+0	1.480360E+0	1.652770E+0	1.809560E+0	2.021310E+0	1.764230E+0	1.494460E+0	1.619300E+0	1.711830E+0	1.533810E+0	1.875380E+0	1.928390E+0	1.992760E+0	1.705240E+0	1.649990E+0	1.691690E+0	1.796680E+0	1.461220E+0	1.795290E+0	1.759360E+0	2.041040E+0	1.670720E+0	1.625870E+0	1.570180E+0	1.793090E+0	1.384610E+0	1.949150E+0	1.919760E+0	2.013080E+0	1.530120E+0	1.588210E+0	1.662380E+0	1.768920E+0	1.344230E+0	1.639220E+0	1.693830E+0	1.887860E+0	1.640260E+0	1.316510E+0	1.486560E+0	1.745230E+0	1.475220E+0	1.651650E+0	1.854370E+0	2.032070E+0	1.667810E+0	1.570360E+0	1.763030E+0	1.796010E+0	1.461600E+0	1.694290E+0	1.866950E+0	1.958910E+0	1.702240E+0	1.462590E+0	1.559870E+0	1.732340E+0	1.531540E+0	1.692360E+0	1.843350E+0	2.022010E+0	1.694700E+0	1.450190E+0	1.655010E+0	1.860550E+0	1.482960E+0	1.545870E+0	1.816730E+0	2.000260E+0	1.853290E+0	1.529700E+0	1.650400E+0	1.669770E+0	1.637290E+0	1.841470E+0	1.877230E+0	1.928470E+0	1.720270E+0	1.590400E+0	1.567530E+0	1.684800E+0	1.392880E+0	1.585070E+0	1.741090E+0	1.825410E+0	1.722450E+0	1.416680E+0	1.622690E+0	1.703980E+0	1.508370E+0	1.756390E+0	1.870660E+0	2.026960E+0	1.655460E+0	1.507110E+0	1.661660E+0	1.748690E+0	1.506990E+0	1.570200E+0	1.851480E+0	1.912210E+0	1.785900E+0	1.423240E+0	1.593610E+0	1.703850E+0	1.545670E+0	1.591980E+0	1.757840E+0	1.993700E+0	1.669460E+0	1.535130E+0	1.527420E+0	1.794960E+0	1.501170E+0	1.594700E+0	1.697140E+0	1.884200E+0	1.785060E+0	1.501190E+0	1.584690E+0	1.516110E+0	1.531980E+0	1.734190E+0	1.896450E+0	1.510470E+0	1.639240E+0	1.510400E+0	1.575600E+0	1.411850E+0	1.483660E+0	1.588570E+0	1.680120E+0	1.720140E+0	1.909490E+0	1.480130E+0	1.536940E+0	1.587150E+0	1.622220E+0	1.859140E+0	1.871720E+0	1.651570E+0	1.666650E+0	1.583550E+0	1.722990E+0	1.482980E+0	1.420790E+0	1.459120E+0	1.881130E+0	1.723090E+0	1.703140E+0	1.351980E+0	1.582270E+0
2.425000E+3	1.308280E+0	1.429180E+0	1.399560E+0	1.237860E+0	1.516310E+0	1.547420E+0	1.450020E+0	1.507350E+0	1.482910E+0	1.444630E+0	1.729120E+0	1.626620E+0	1.734080E+0	1.809480E+0	2.081760E+0	1.764800E+0	1.508120E+0	1.736130E+0	1.841770E+0	1.478360E+0	1.650410E+0	1.806780E+0	2.017930E+0	1.761390E+0	1.492240E+0	1.616830E+0	1.709200E+0	1.531490E+0	1.872430E+0	1.925180E+0	1.989330E+0	1.702700E+0	1.647490E+0	1.689130E+0	1.793920E+0	1.459150E+0	1.792510E+0	1.756460E+0	2.037420E+0	1.667990E+0	1.623310E+0	1.567800E+0	1.790130E+0	1.382570E+0	1.945680E+0	1.916290E+0	2.009450E+0	1.527600E+0	1.585720E+0	1.657660E+0	1.766020E+0	1.341360E+0	1.634170E+0	1.688920E+0	1.882060E+0	1.635860E+0	1.314530E+0	1.481850E+0	1.741080E+0	1.472860E+0	1.646480E+0	1.848020E+0	2.028460E+0	1.665460E+0	1.567330E+0	1.760050E+0	1.791670E+0	1.455850E+0	1.691900E+0	1.863140E+0	1.956500E+0	1.695560E+0	1.456690E+0	1.555590E+0	1.729020E+0	1.528300E+0	1.690020E+0	1.841090E+0	2.020100E+0	1.692870E+0	1.450730E+0	1.653070E+0	1.861580E+0	1.482670E+0	1.544060E+0	1.815780E+0	2.000220E+0	1.851040E+0	1.527530E+0	1.648440E+0	1.671180E+0	1.638690E+0	1.839260E+0	1.874830E+0	1.925860E+0	1.718290E+0	1.588620E+0	1.565790E+0	1.682660E+0	1.393540E+0	1.583100E+0	1.740750E+0	1.823070E+0	1.720330E+0	1.415220E+0	1.622360E+0	1.701850E+0	1.506690E+0	1.754210E+0	1.867930E+0	2.024000E+0	1.653540E+0	1.505200E+0	1.659500E+0	1.746310E+0	1.505080E+0	1.568180E+0	1.848910E+0	1.909400E+0	1.783310E+0	1.421590E+0	1.591390E+0	1.714410E+0	1.543120E+0	1.589760E+0	1.755330E+0	2.036990E+0	1.665120E+0	1.532790E+0	1.525100E+0	1.830380E+0	1.497530E+0	1.592350E+0	1.694450E+0	1.897080E+0	1.781800E+0	1.499070E+0	1.582400E+0	1.551750E+0	1.528250E+0	1.731370E+0	1.893120E+0	1.694010E+0	1.629000E+0	1.507160E+0	1.571800E+0	1.546090E+0	1.475580E+0	1.585760E+0	1.676620E+0	1.774520E+0	1.904020E+0	1.477780E+0	1.534320E+0	1.587290E+0	1.619830E+0	1.856070E+0	1.868480E+0	1.649100E+0	1.664220E+0	1.581170E+0	1.720140E+0	1.480930E+0	1.418900E+0	1.457100E+0	1.878100E+0	1.720530E+0	1.700340E+0	1.349990E+0	1.579850E+0
2.450000E+3	1.306630E+0	1.427580E+0	1.397770E+0	1.236360E+0	1.514210E+0	1.545290E+0	1.448150E+0	1.505350E+0	1.480910E+0	1.442690E+0	1.726630E+0	1.624420E+0	1.731550E+0	1.806760E+0	2.078290E+0	1.762150E+0	1.506080E+0	1.733460E+0	1.838890E+0	1.476350E+0	1.647960E+0	1.804050E+0	2.014640E+0	1.758710E+0	1.490210E+0	1.614530E+0	1.706670E+0	1.529290E+0	1.869430E+0	1.922010E+0	1.986080E+0	1.700250E+0	1.644970E+0	1.686610E+0	1.791110E+0	1.457170E+0	1.789740E+0	1.753710E+0	2.034060E+0	1.665450E+0	1.620820E+0	1.565460E+0	1.787230E+0	1.380690E+0	1.942490E+0	1.913170E+0	2.006060E+0	1.525460E+0	1.583430E+0	1.653890E+0	1.763290E+0	1.339330E+0	1.630960E+0	1.686760E+0	1.879470E+0	1.634210E+0	1.312720E+0	1.478410E+0	1.738760E+0	1.470320E+0	1.643110E+0	1.844590E+0	2.024550E+0	1.663090E+0	1.564280E+0	1.757320E+0	1.788560E+0	1.453940E+0	1.689410E+0	1.861200E+0	1.953290E+0	1.693540E+0	1.454290E+0	1.553050E+0	1.726540E+0	1.526110E+0	1.687540E+0	1.838320E+0	2.017700E+0	1.690390E+0	1.448800E+0	1.650670E+0	1.858230E+0	1.480420E+0	1.542020E+0	1.813860E+0	1.997060E+0	1.848190E+0	1.525870E+0	1.646060E+0	1.668770E+0	1.636340E+0	1.836390E+0	1.871940E+0	1.922740E+0	1.715750E+0	1.586310E+0	1.563580E+0	1.680110E+0	1.393300E+0	1.580830E+0	1.738030E+0	1.820260E+0	1.717720E+0	1.413340E+0	1.620480E+0	1.699440E+0	1.504630E+0	1.751580E+0	1.864990E+0	2.020570E+0	1.650880E+0	1.503070E+0	1.656920E+0	1.743440E+0	1.502980E+0	1.565890E+0	1.846000E+0	1.906330E+0	1.780500E+0	1.419780E+0	1.589110E+0	1.711770E+0	1.540830E+0	1.587420E+0	1.752520E+0	2.033470E+0	1.662720E+0	1.530590E+0	1.522920E+0	1.827430E+0	1.495360E+0	1.590020E+0	1.691940E+0	1.894000E+0	1.778980E+0	1.496920E+0	1.580090E+0	1.569190E+0	1.525210E+0	1.728450E+0	1.889870E+0	1.790210E+0	1.622270E+0	1.504290E+0	1.568680E+0	1.616280E+0	1.470220E+0	1.583130E+0	1.673410E+0	1.801990E+0	1.899520E+0	1.475550E+0	1.531820E+0	1.660170E+0	1.614100E+0	1.852410E+0	1.864550E+0	1.908260E+0	1.650020E+0	1.577030E+0	1.715210E+0	1.673340E+0	1.408070E+0	1.454180E+0	1.873510E+0	1.787930E+0	1.694760E+0	1.347860E+0	1.576870E+0
2.475000E+3	1.305290E+0	1.425750E+0	1.396230E+0	1.234880E+0	1.512430E+0	1.543460E+0	1.446370E+0	1.503350E+0	1.479170E+0	1.441020E+0	1.724320E+0	1.622200E+0	1.729320E+0	1.804260E+0	2.075250E+0	1.759830E+0	1.504290E+0	1.731300E+0	1.836310E+0	1.474660E+0	1.645830E+0	1.801680E+0	2.011760E+0	1.756430E+0	1.488410E+0	1.612490E+0	1.704440E+0	1.527410E+0	1.866780E+0	1.919250E+0	1.983140E+0	1.697950E+0	1.642840E+0	1.684420E+0	1.788710E+0	1.455540E+0	1.787400E+0	1.751540E+0	2.031210E+0	1.663500E+0	1.618870E+0	1.563610E+0	1.784910E+0	1.379130E+0	1.939710E+0	1.910390E+0	2.003090E+0	1.523700E+0	1.581400E+0	1.655100E+0	1.760940E+0	1.337690E+0	1.632200E+0	1.686330E+0	1.878930E+0	1.633090E+0	1.310780E+0	1.479900E+0	1.737340E+0	1.468070E+0	1.644320E+0	1.842160E+0	2.021290E+0	1.660400E+0	1.563480E+0	1.754410E+0	1.787610E+0	1.453500E+0	1.686850E+0	1.857920E+0	1.949940E+0	1.693080E+0	1.454420E+0	1.551670E+0	1.723790E+0	1.523880E+0	1.685010E+0	1.835190E+0	2.012910E+0	1.687820E+0	1.445840E+0	1.648190E+0	1.853870E+0	1.477740E+0	1.539780E+0	1.809270E+0	1.991930E+0	1.845240E+0	1.524110E+0	1.643640E+0	1.664150E+0	1.630560E+0	1.833420E+0	1.868930E+0	1.919500E+0	1.713160E+0	1.584030E+0	1.561280E+0	1.677900E+0	1.387970E+0	1.578590E+0	1.734450E+0	1.817240E+0	1.715110E+0	1.411300E+0	1.616340E+0	1.696820E+0	1.502520E+0	1.748860E+0	1.861980E+0	2.017180E+0	1.648530E+0	1.501000E+0	1.654470E+0	1.740770E+0	1.500850E+0	1.563630E+0	1.842950E+0	1.903210E+0	1.777780E+0	1.417960E+0	1.586800E+0	1.709340E+0	1.538690E+0	1.585210E+0	1.749880E+0	2.030060E+0	1.660300E+0	1.528580E+0	1.520760E+0	1.824610E+0	1.493370E+0	1.587820E+0	1.689430E+0	1.891030E+0	1.776340E+0	1.494900E+0	1.577900E+0	1.567090E+0	1.523090E+0	1.725980E+0	1.886850E+0	1.787460E+0	1.620020E+0	1.502250E+0	1.566530E+0	1.613980E+0	1.468320E+0	1.580980E+0	1.671100E+0	1.799280E+0	1.896630E+0	1.473590E+0	1.529740E+0	1.668850E+0	1.611260E+0	1.849470E+0	1.861540E+0	1.944380E+0	1.645930E+0	1.574710E+0	1.712370E+0	1.700220E+0	1.405030E+0	1.452220E+0	1.870580E+0	1.795890E+0	1.692030E+0	1.346160E+0	1.574660E+0
2.500000E+3	1.303490E+0	1.424180E+0	1.394760E+0	1.230910E+0	1.510500E+0	1.541650E+0	1.444870E+0	1.499280E+0	1.477450E+0	1.439270E+0	1.722090E+0	1.619150E+0	1.727020E+0	1.801780E+0	2.072100E+0	1.757500E+0	1.502420E+0	1.728910E+0	1.833670E+0	1.472760E+0	1.643690E+0	1.799090E+0	2.008730E+0	1.754020E+0	1.486600E+0	1.610370E+0	1.702170E+0	1.525400E+0	1.864160E+0	1.916400E+0	1.980110E+0	1.695670E+0	1.640720E+0	1.682070E+0	1.786110E+0	1.453710E+0	1.784930E+0	1.749010E+0	2.028080E+0	1.661200E+0	1.616650E+0	1.561590E+0	1.782330E+0	1.377470E+0	1.936810E+0	1.907540E+0	2.000040E+0	1.521670E+0	1.579300E+0	1.652010E+0	1.758390E+0	1.336100E+0	1.629170E+0	1.683240E+0	1.875320E+0	1.630490E+0	1.309750E+0	1.477710E+0	1.734530E+0	1.466720E+0	1.641240E+0	1.840350E+0	2.018200E+0	1.659050E+0	1.561320E+0	1.752750E+0	1.785050E+0	1.451760E+0	1.684870E+0	1.855120E+0	1.947400E+0	1.691220E+0	1.453380E+0	1.550470E+0	1.722640E+0	1.521850E+0	1.682590E+0	1.832440E+0	2.009670E+0	1.685410E+0	1.445280E+0	1.645870E+0	1.851540E+0	1.475910E+0	1.538190E+0	1.807070E+0	1.989680E+0	1.842400E+0	1.521720E+0	1.641760E+0	1.663870E+0	1.630370E+0	1.830630E+0	1.866000E+0	1.916370E+0	1.710700E+0	1.581770E+0	1.559250E+0	1.675110E+0	1.387590E+0	1.576930E+0	1.732010E+0	1.814550E+0	1.712630E+0	1.409530E+0	1.614610E+0	1.694320E+0	1.500490E+0	1.746320E+0	1.859050E+0	2.013840E+0	1.646210E+0	1.498970E+0	1.652000E+0	1.738120E+0	1.498920E+0	1.561620E+0	1.840170E+0	1.900330E+0	1.775140E+0	1.416220E+0	1.584650E+0	1.706880E+0	1.536570E+0	1.582950E+0	1.747220E+0	2.026740E+0	1.658030E+0	1.526480E+0	1.518680E+0	1.821810E+0	1.491370E+0	1.585640E+0	1.687070E+0	1.888070E+0	1.773760E+0	1.492930E+0	1.575810E+0	1.564840E+0	1.521130E+0	1.723480E+0	1.884000E+0	1.784790E+0	1.617770E+0	1.500270E+0	1.564350E+0	1.611660E+0	1.466440E+0	1.578840E+0	1.668680E+0	1.796610E+0	1.893770E+0	1.471800E+0	1.527680E+0	1.666490E+0	1.609110E+0	1.846650E+0	1.858690E+0	1.941290E+0	1.643690E+0	1.572510E+0	1.709800E+0	1.697720E+0	1.403310E+0	1.450390E+0	1.867730E+0	1.793190E+0	1.689660E+0	1.344540E+0	1.572570E+0
2.600000E+3	1.301870E+0	1.422270E+0	1.393090E+0	1.229270E+0	1.508550E+0	1.539520E+0	1.443040E+0	1.497330E+0	1.475470E+0	1.437330E+0	1.719610E+0	1.617140E+0	1.724470E+0	1.799120E+0	2.068920E+0	1.754520E+0	1.500180E+0	1.726470E+0	1.831120E+0	1.468520E+0	1.641370E+0	1.796630E+0	2.005790E+0	1.749300E+0	1.484860E+0	1.608270E+0	1.700000E+0	1.522570E+0	1.861660E+0	1.913820E+0	1.977240E+0	1.693520E+0	1.638530E+0	1.679930E+0	1.783520E+0	1.451990E+0	1.782370E+0	1.746720E+0	2.024950E+0	1.658940E+0	1.614620E+0	1.559640E+0	1.779800E+0	1.375930E+0	1.934140E+0	1.904910E+0	1.997090E+0	1.519860E+0	1.577310E+0	1.650660E+0	1.756050E+0	1.335250E+0	1.627850E+0	1.681700E+0	1.873380E+0	1.628910E+0	1.307760E+0	1.476600E+0	1.732630E+0	1.464870E+0	1.640000E+0	1.839310E+0	2.015250E+0	1.656390E+0	1.559640E+0	1.749720E+0	1.782850E+0	1.451760E+0	1.682510E+0	1.853110E+0	1.944380E+0	1.689920E+0	1.452690E+0	1.549420E+0	1.721180E+0	1.521290E+0	1.679970E+0	1.829280E+0	2.005770E+0	1.682870E+0	1.441520E+0	1.643330E+0	1.846740E+0	1.473460E+0	1.535660E+0	1.803390E+0	1.984640E+0	1.839400E+0	1.519890E+0	1.638950E+0	1.658790E+0	1.626190E+0	1.827570E+0	1.862900E+0	1.913020E+0	1.708020E+0	1.579370E+0	1.556860E+0	1.672530E+0	1.384900E+0	1.574220E+0	1.728490E+0	1.811700E+0	1.710050E+0	1.407620E+0	1.611300E+0	1.691660E+0	1.498310E+0	1.743460E+0	1.856030E+0	2.010350E+0	1.643720E+0	1.496910E+0	1.649540E+0	1.735380E+0	1.496920E+0	1.559350E+0	1.837370E+0	1.897360E+0	1.772520E+0	1.414410E+0	1.582390E+0	1.704230E+0	1.534320E+0	1.580680E+0	1.744480E+0	2.023240E+0	1.655580E+0	1.524320E+0	1.516530E+0	1.818890E+0	1.489340E+0	1.583430E+0	1.684630E+0	1.885140E+0	1.771130E+0	1.490950E+0	1.573540E+0	1.562720E+0	1.519000E+0	1.720920E+0	1.880940E+0	1.782040E+0	1.615430E+0	1.498180E+0	1.562040E+0	1.609240E+0	1.464340E+0	1.576550E+0	1.666240E+0	1.793890E+0	1.890830E+0	1.469850E+0	1.525610E+0	1.664130E+0	1.606890E+0	1.843950E+0	1.855820E+0	1.938300E+0	1.641440E+0	1.570370E+0	1.707280E+0	1.695160E+0	1.401390E+0	1.448440E+0	1.864900E+0	1.790480E+0	1.687290E+0	1.342860E+0	1.570410E+0
2.700000E+3	1.300520E+0	1.420500E+0	1.391440E+0	1.227830E+0	1.506700E+0	1.537590E+0	1.441340E+0	1.495450E+0	1.473690E+0	1.435510E+0	1.717220E+0	1.614770E+0	1.722110E+0	1.796360E+0	2.065720E+0	1.751850E+0	1.498250E+0	1.723970E+0	1.828600E+0	1.466620E+0	1.639210E+0	1.794050E+0	2.002880E+0	1.746880E+0	1.482840E+0	1.606060E+0	1.697640E+0	1.520660E+0	1.858810E+0	1.910860E+0	1.974430E+0	1.690780E+0	1.636170E+0	1.677710E+0	1.781300E+0	1.447560E+0	1.779990E+0	1.744450E+0	2.022350E+0	1.654450E+0	1.612630E+0	1.557810E+0	1.777600E+0	1.372850E+0	1.931490E+0	1.902400E+0	1.994390E+0	1.518120E+0	1.575460E+0	1.648630E+0	1.753650E+0	1.335670E+0	1.625930E+0	1.679680E+0	1.870940E+0	1.626850E+0	1.306950E+0	1.475010E+0	1.730430E+0	1.465880E+0	1.638070E+0	1.838110E+0	2.013870E+0	1.654910E+0	1.557950E+0	1.748030E+0	1.780410E+0	1.450070E+0	1.680490E+0	1.850090E+0	1.941190E+0	1.687400E+0	1.451190E+0	1.548890E+0	1.720210E+0	1.521230E+0	1.678970E+0	1.826040E+0	2.002070E+0	1.679930E+0	1.436940E+0	1.640690E+0	1.842310E+0	1.470750E+0	1.533290E+0	1.800270E+0	1.979480E+0	1.836260E+0	1.516420E+0	1.636410E+0	1.655000E+0	1.623330E+0	1.824470E+0	1.859570E+0	1.909630E+0	1.705210E+0	1.576800E+0	1.551960E+0	1.668940E+0	1.382020E+0	1.571990E+0	1.723180E+0	1.808650E+0	1.707300E+0	1.405550E+0	1.608430E+0	1.688940E+0	1.495990E+0	1.740710E+0	1.852850E+0	2.006900E+0	1.641240E+0	1.494620E+0	1.646990E+0	1.732620E+0	1.494620E+0	1.557020E+0	1.834390E+0	1.894180E+0	1.769720E+0	1.412610E+0	1.579970E+0	1.701540E+0	1.532080E+0	1.578270E+0	1.741800E+0	2.019780E+0	1.653060E+0	1.522150E+0	1.514350E+0	1.815980E+0	1.487300E+0	1.581070E+0	1.682060E+0	1.882130E+0	1.768410E+0	1.488940E+0	1.571310E+0	1.560400E+0	1.516880E+0	1.718380E+0	1.877900E+0	1.779230E+0	1.613100E+0	1.496180E+0	1.559830E+0	1.606880E+0	1.462410E+0	1.574320E+0	1.663740E+0	1.791150E+0	1.887930E+0	1.467870E+0	1.523400E+0	1.661630E+0	1.604550E+0	1.841170E+0	1.853030E+0	1.935240E+0	1.639180E+0	1.568270E+0	1.704760E+0	1.692740E+0	1.399650E+0	1.446590E+0	1.862020E+0	1.787910E+0	1.684930E+0	1.341170E+0	1.568290E+0
2.800000E+3	1.297510E+0	1.417270E+0	1.388270E+0	1.225320E+0	1.503470E+0	1.534110E+0	1.438200E+0	1.492080E+0	1.470480E+0	1.432030E+0	1.712700E+0	1.610720E+0	1.717440E+0	1.791650E+0	2.059760E+0	1.747220E+0	1.494780E+0	1.719530E+0	1.823840E+0	1.463160E+0	1.635370E+0	1.789590E+0	1.997370E+0	1.742500E+0	1.479340E+0	1.602000E+0	1.693200E+0	1.516670E+0	1.853810E+0	1.905390E+0	1.968910E+0	1.686280E+0	1.631990E+0	1.673360E+0	1.776720E+0	1.443860E+0	1.775330E+0	1.739760E+0	2.016660E+0	1.650070E+0	1.608430E+0	1.553820E+0	1.772720E+0	1.369510E+0	1.926030E+0	1.896960E+0	1.988750E+0	1.513960E+0	1.571260E+0	1.644380E+0	1.749180E+0	1.330500E+0	1.621710E+0	1.675500E+0	1.865870E+0	1.620610E+0	1.304020E+0	1.471000E+0	1.726030E+0	1.459980E+0	1.633930E+0	1.831940E+0	2.006670E+0	1.650730E+0	1.554080E+0	1.743600E+0	1.775850E+0	1.444680E+0	1.676720E+0	1.845210E+0	1.936000E+0	1.681310E+0	1.447780E+0	1.544080E+0	1.714790E+0	1.515800E+0	1.673720E+0	1.821380E+0	1.995840E+0	1.675890E+0	1.434530E+0	1.636750E+0	1.837880E+0	1.467410E+0	1.529730E+0	1.795370E+0	1.974610E+0	1.831580E+0	1.513420E+0	1.632550E+0	1.651040E+0	1.619370E+0	1.819800E+0	1.854820E+0	1.904470E+0	1.701060E+0	1.573060E+0	1.549120E+0	1.664690E+0	1.378920E+0	1.568240E+0	1.719710E+0	1.804040E+0	1.703110E+0	1.402410E+0	1.604160E+0	1.684770E+0	1.492540E+0	1.736140E+0	1.847890E+0	2.001140E+0	1.637160E+0	1.491140E+0	1.642780E+0	1.728170E+0	1.491190E+0	1.553410E+0	1.829650E+0	1.889220E+0	1.765220E+0	1.409710E+0	1.575990E+0	1.697200E+0	1.528390E+0	1.574420E+0	1.737110E+0	2.013910E+0	1.649030E+0	1.518640E+0	1.510780E+0	1.811200E+0	1.483820E+0	1.577390E+0	1.678040E+0	1.877120E+0	1.763920E+0	1.485320E+0	1.567480E+0	1.556620E+0	1.513240E+0	1.713950E+0	1.872930E+0	1.774510E+0	1.609110E+0	1.492570E+0	1.556160E+0	1.602900E+0	1.459040E+0	1.570630E+0	1.659680E+0	1.786450E+0	1.882800E+0	1.464570E+0	1.519840E+0	1.657380E+0	1.600500E+0	1.836150E+0	1.847990E+0	1.929850E+0	1.635200E+0	1.564490E+0	1.700510E+0	1.688360E+0	1.396350E+0	1.443230E+0	1.857110E+0	1.783290E+0	1.680710E+0	1.338200E+0	1.564580E+0
3.100000E+3	1.295820E+0	1.415470E+0	1.386550E+0	1.223760E+0	1.501440E+0	1.532060E+0	1.436420E+0	1.490090E+0	1.468670E+0	1.430190E+0	1.710430E+0	1.608470E+0	1.715050E+0	1.789090E+0	2.056540E+0	1.744670E+0	1.492690E+0	1.717040E+0	1.821100E+0	1.461150E+0	1.633180E+0	1.787110E+0	1.994400E+0	1.739990E+0	1.477460E+0	1.599750E+0	1.690710E+0	1.514550E+0	1.851040E+0	1.902390E+0	1.965710E+0	1.683860E+0	1.629740E+0	1.671010E+0	1.774060E+0	1.442060E+0	1.772840E+0	1.737350E+0	2.013560E+0	1.647750E+0	1.606240E+0	1.551580E+0	1.770080E+0	1.367630E+0	1.923010E+0	1.893940E+0	1.985680E+0	1.511660E+0	1.569110E+0	1.642080E+0	1.746680E+0	1.329210E+0	1.619360E+0	1.673110E+0	1.863060E+0	1.618380E+0	1.301850E+0	1.469340E+0	1.723430E+0	1.458320E+0	1.631450E+0	1.829510E+0	2.004750E+0	1.647480E+0	1.551390E+0	1.740760E+0	1.773120E+0	1.438220E+0	1.673470E+0	1.842290E+0	1.932870E+0	1.674310E+0	1.445510E+0	1.542930E+0	1.712370E+0	1.513680E+0	1.672210E+0	1.818710E+0	1.993580E+0	1.673390E+0	1.431750E+0	1.634430E+0	1.835170E+0	1.463270E+0	1.527640E+0	1.793230E+0	1.971700E+0	1.827900E+0	1.511480E+0	1.630330E+0	1.648750E+0	1.616840E+0	1.817140E+0	1.852100E+0	1.901460E+0	1.698630E+0	1.570040E+0	1.545780E+0	1.662630E+0	1.377270E+0	1.566140E+0	1.716470E+0	1.801450E+0	1.700730E+0	1.400630E+0	1.602860E+0	1.682420E+0	1.490590E+0	1.733650E+0	1.845090E+0	1.997900E+0	1.634830E+0	1.489070E+0	1.640450E+0	1.725610E+0	1.489180E+0	1.551200E+0	1.826920E+0	1.886480E+0	1.762630E+0	1.408150E+0	1.573830E+0	1.694880E+0	1.526330E+0	1.572250E+0	1.734620E+0	2.010640E+0	1.646780E+0	1.516580E+0	1.508680E+0	1.808500E+0	1.481810E+0	1.575290E+0	1.675590E+0	1.874300E+0	1.761300E+0	1.483370E+0	1.565320E+0	1.554470E+0	1.511200E+0	1.711460E+0	1.870030E+0	1.771840E+0	1.606810E+0	1.490620E+0	1.554040E+0	1.600630E+0	1.457170E+0	1.568470E+0	1.657330E+0	1.783860E+0	1.880000E+0	1.462660E+0	1.517780E+0	1.655070E+0	1.598370E+0	1.833540E+0	1.845290E+0	1.926870E+0	1.633020E+0	1.562410E+0	1.698160E+0	1.686090E+0	1.394660E+0	1.441410E+0	1.854400E+0	1.780750E+0	1.678450E+0	1.336530E+0	1.562470E+0
3.400000E+3	1.294410E+0	1.413850E+0	1.384970E+0	1.222330E+0	1.499650E+0	1.530180E+0	1.434860E+0	1.488280E+0	1.466930E+0	1.428580E+0	1.708340E+0	1.606460E+0	1.712810E+0	1.786750E+0	2.053600E+0	1.742320E+0	1.490770E+0	1.714660E+0	1.818540E+0	1.459380E+0	1.631190E+0	1.784700E+0	1.991650E+0	1.737720E+0	1.475830E+0	1.597800E+0	1.688660E+0	1.512660E+0	1.848610E+0	1.899650E+0	1.962990E+0	1.681540E+0	1.627660E+0	1.668790E+0	1.771660E+0	1.440330E+0	1.770590E+0	1.735150E+0	2.010960E+0	1.645790E+0	1.604510E+0	1.549750E+0	1.767770E+0	1.366060E+0	1.920370E+0	1.891290E+0	1.982800E+0	1.509810E+0	1.567190E+0	1.639930E+0	1.744370E+0	1.328530E+0	1.617460E+0	1.670950E+0	1.860590E+0	1.616440E+0	1.300820E+0	1.467630E+0	1.721180E+0	1.457310E+0	1.629440E+0	1.827770E+0	2.003100E+0	1.645100E+0	1.549370E+0	1.738700E+0	1.770630E+0	1.435910E+0	1.671660E+0	1.839540E+0	1.930010E+0	1.672040E+0	1.443660E+0	1.540400E+0	1.710780E+0	1.513030E+0	1.670240E+0	1.815090E+0	1.991430E+0	1.670660E+0	1.429210E+0	1.632260E+0	1.832580E+0	1.455950E+0	1.525400E+0	1.790670E+0	1.968770E+0	1.822510E+0	1.509880E+0	1.628160E+0	1.646520E+0	1.613740E+0	1.814620E+0	1.849400E+0	1.898560E+0	1.696210E+0	1.566760E+0	1.542990E+0	1.659550E+0	1.375510E+0	1.564160E+0	1.714060E+0	1.798680E+0	1.698360E+0	1.397590E+0	1.600270E+0	1.679980E+0	1.488550E+0	1.731200E+0	1.842410E+0	1.994880E+0	1.632650E+0	1.487200E+0	1.638270E+0	1.723150E+0	1.487260E+0	1.549330E+0	1.824310E+0	1.883590E+0	1.760230E+0	1.406490E+0	1.571840E+0	1.692500E+0	1.524360E+0	1.570210E+0	1.732130E+0	2.007590E+0	1.644510E+0	1.514580E+0	1.506780E+0	1.805850E+0	1.479960E+0	1.573320E+0	1.673380E+0	1.871630E+0	1.759030E+0	1.481530E+0	1.563390E+0	1.552530E+0	1.509330E+0	1.709130E+0	1.867340E+0	1.769320E+0	1.604770E+0	1.488740E+0	1.552020E+0	1.598510E+0	1.455420E+0	1.566580E+0	1.655190E+0	1.781540E+0	1.877470E+0	1.460960E+0	1.516020E+0	1.652890E+0	1.596300E+0	1.830880E+0	1.842740E+0	1.924060E+0	1.630930E+0	1.560480E+0	1.695860E+0	1.683860E+0	1.393050E+0	1.439820E+0	1.851870E+0	1.778510E+0	1.676380E+0	1.335080E+0	1.560620E+0
