Photon Energy (eV)	#1	#2	#3	#4	#5	#6	#7	#8	#9	#10	#11	#12	#13	#14	#15	#16	#17	#18	#19	#20	#21	#22	#23	#24	#25	#26	#27	#28	#29	#30	#31	#32	#33	#34	#35	#36	#37	#38	#39	#40	#41	#42	#43	#44	#45	#46	#47	#48	#49	#50	#51	#52	#53	#54	#55	#56	#57	#58	#59	#60	#61	#62	#63	#64	#65	#66	#67	#68	#69	#70	#71	#72	#73	#74	#75	#76	#77	#78	#79	#80	#81	#82	#83	#84	#85	#86	#87	#88	#89	#90	#91	#92	#93	#94	#95	#96	#97	#98	#99	#100	#101	#102	#103	#104	#105	#106	#107	#108	#109	#110	#111	#112	#113	#114	#115	#116	#117	#118	#119	#120	#121	#122	#123	#124	#125	#126	#127	#128	#129	#130	#131	#132	#133	#134	#135	#136	#137	#138	#139	#140	#141	#142	#143	#144	#145	#146	#147	#148	#149	#150	#151	#152	#153	#154	#155	#156	#157	#158	#159	#160	#161	#162	#163	#164	#165	
5.300220E+2	-7.723193E-3	-6.964110E-3	-7.971743E-3	-8.403783E-3	3.510642E-3	-9.060820E-3	-5.208535E-4	-8.745802E-3	-2.657809E-3	-1.266110E-2	-1.314583E-2	-1.217173E-2	-8.972192E-3	-1.443569E-2	-2.431345E-3	-1.100760E-3	-4.403106E-3	-8.395116E-3	4.548058E-4	-8.681297E-3	-1.017966E-2	-9.358303E-3	-4.728636E-3	-1.494949E-2	-4.293010E-3	-7.376689E-3	-1.312013E-2	-5.245692E-3	-3.892737E-3	-4.751443E-3	-3.252802E-3	-7.529576E-3	-5.660836E-3	-6.806903E-3	-2.111514E-3	-3.083529E-3	-4.929052E-3	1.537178E-3	-5.012725E-3	5.447377E-4	-4.982238E-3	-3.713615E-3	-3.192392E-3	-1.244343E-2	-1.393634E-2	-1.023849E-2	-1.358145E-2	-1.313885E-2	-1.304690E-3	-4.073374E-3	-7.913461E-3	-2.388210E-3	-5.453881E-3	-1.000629E-2	-2.847053E-3	-8.403263E-3	-1.094350E-2	-7.451557E-3	-1.488759E-3	-6.118861E-6	-3.932826E-4	-6.061938E-3	-4.073351E-3	-9.854534E-3	-2.233247E-3	-5.988769E-3	-1.553625E-2	2.852270E-3	3.752938E-3	-8.514395E-3	-1.052017E-3	-1.503858E-2	-7.063411E-3	-1.437275E-3	-8.307222E-3	-1.120936E-2	-8.077045E-3	-5.095188E-3	-8.418113E-3	-9.088246E-3	-7.830022E-3	-7.342314E-3	-1.395567E-4	-1.640699E-2	-1.425586E-2	-1.091788E-2	-9.654361E-3	-1.051114E-3	-2.862443E-3	-1.235649E-2	-4.906105E-3	-4.375100E-3	1.017410E-3	-5.360725E-3	-9.911445E-3	-7.290713E-3	2.917056E-3	-4.006298E-3	-4.965227E-3	-1.689824E-2	-3.439195E-3	-9.619832E-3	-4.383678E-3	-2.216457E-3	-7.412902E-3	-2.534809E-3	2.054179E-3	-8.212647E-3	-1.176292E-2	-1.595228E-2	-2.466692E-3	-2.854774E-3	-1.731099E-2	-6.147799E-3	-1.201525E-2	-6.277390E-3	-1.189247E-2	-4.693096E-3	-8.425360E-3	-8.601955E-3	-4.476692E-3	-5.124451E-3	-6.533187E-3	-4.808340E-3	-1.184151E-2	-6.090451E-3	-3.929103E-3	-4.954956E-3	-5.380984E-3	6.545033E-4	-1.006663E-2	-9.613269E-3	-8.298577E-3	-8.825422E-3	-6.528684E-3	-1.331446E-2	6.259599E-3	-1.153745E-2	-4.413457E-3	-5.557512E-3	-2.761301E-3	-2.380222E-3	-5.973044E-3	-5.177536E-3	-5.653122E-3	-9.079349E-4	-1.536786E-2	-1.952903E-2	-1.287283E-2	-1.398703E-2	-7.321918E-3	-6.550674E-3	-1.041302E-2	-1.521539E-2	-1.010014E-2	-1.545180E-2	9.956897E-5	-7.269741E-3	-9.002320E-3	-1.374079E-2	-8.158453E-3	-1.141721E-3	-1.995036E-2	-2.493587E-2	-2.627172E-2
5.305080E+2	-1.173245E-2	-1.111417E-2	-6.185721E-3	-5.146044E-3	-7.291185E-3	-1.403986E-2	-1.027096E-2	3.666659E-3	-8.023220E-3	-7.086239E-3	-1.057436E-2	-5.211916E-4	-3.397406E-3	-6.522201E-3	-8.245632E-3	-1.535127E-2	-9.399806E-3	-4.201082E-3	4.699596E-3	-5.630072E-4	-6.571708E-3	-7.013259E-3	-3.412940E-3	-1.221932E-2	1.958201E-3	-6.537726E-3	-7.198808E-3	-1.034013E-2	-9.138917E-3	-9.954161E-3	-1.606257E-4	-1.177928E-2	-2.782370E-3	3.031625E-3	4.569201E-3	-1.100852E-2	-7.108108E-3	-9.856898E-3	-4.910577E-3	-3.394402E-3	-1.331123E-2	-5.922074E-3	-4.184634E-3	-9.232264E-4	-1.147192E-2	1.796041E-3	3.353372E-3	-8.225817E-3	-8.407938E-3	-5.590964E-3	-1.466382E-2	-1.207442E-2	-1.045798E-2	-3.776104E-3	-1.549235E-3	-6.523576E-3	-1.232136E-3	-5.283354E-3	-3.711883E-3	-6.967235E-3	-1.110714E-2	1.100453E-3	-5.189285E-3	-4.929195E-3	-4.605649E-3	-6.983935E-3	-1.453132E-3	-5.895813E-4	-1.127014E-2	-2.391477E-3	-7.879070E-3	5.814085E-4	-6.170216E-3	4.423895E-4	4.930327E-3	-1.004480E-3	7.731148E-4	-5.493151E-3	-5.778146E-3	1.611613E-3	-1.107863E-2	9.184931E-4	6.287523E-3	-5.368362E-3	-2.385036E-3	9.151048E-4	-1.000268E-2	-3.890910E-3	-7.068258E-3	-5.584850E-4	-8.579583E-3	-7.250774E-3	-5.059019E-3	-8.828951E-3	-4.969797E-3	-8.453746E-3	-6.726586E-3	-1.140676E-2	-6.703869E-3	-3.695293E-3	1.230453E-3	-1.512472E-3	-7.906097E-3	-1.063297E-2	-2.221135E-3	-2.272253E-3	-1.298478E-2	-1.163997E-2	-8.759985E-3	-3.355804E-3	-2.493329E-3	1.050003E-3	-1.169490E-2	-7.069012E-3	9.427373E-4	-6.064854E-3	-1.948672E-3	-2.780510E-3	-1.171698E-2	-8.358040E-3	-1.357450E-2	6.884472E-3	-6.941750E-3	5.859307E-3	-3.917126E-3	-4.304910E-3	1.920341E-3	-1.480065E-2	-4.391177E-3	-5.468203E-3	-8.229452E-3	-1.665045E-2	-1.158690E-2	-6.792403E-3	-3.026228E-3	-6.451670E-3	-1.043862E-2	-3.298777E-3	-1.419320E-3	-2.065212E-2	-4.826532E-3	-4.975134E-3	-1.155628E-2	-6.369549E-3	-4.020876E-3	1.062149E-3	-3.409746E-3	-2.028276E-3	-5.567843E-3	-4.339811E-3	-1.117961E-2	-4.620345E-3	-1.053570E-2	1.745121E-3	-6.846181E-3	5.419388E-3	-1.758717E-3	-1.410100E-2	-7.416968E-3	-1.400539E-2	6.577366E-3	-8.675124E-3	-2.142332E-3	-9.692567E-3	4.378636E-3
5.310350E+2	6.672471E-4	-2.565620E-3	-4.225463E-3	-1.005604E-2	-5.344285E-3	-5.186544E-3	-5.920693E-3	-5.169373E-3	1.294029E-4	-4.519796E-3	-1.049718E-4	-6.405276E-3	1.406428E-3	-6.522197E-3	-8.775284E-3	-9.137392E-3	-1.054700E-2	-1.372161E-2	-3.060420E-3	-1.191285E-2	-1.051794E-2	-8.604083E-3	-6.930065E-3	-3.869886E-3	-1.431007E-2	4.670590E-3	-1.704889E-3	-2.599224E-3	-1.207527E-2	-1.259663E-2	-4.377235E-3	4.106159E-3	-4.097413E-3	-1.134666E-2	-9.287587E-3	-2.110015E-3	-3.046587E-3	-2.442513E-3	-1.180586E-2	-4.527034E-3	-7.206912E-3	-5.289103E-3	-7.957980E-3	-5.884068E-3	-3.898388E-3	-1.968457E-3	-3.779859E-3	-1.412145E-2	-1.571415E-2	-1.311482E-2	-5.476131E-3	-9.148537E-4	-1.638792E-3	-8.675588E-3	-3.862160E-3	-5.417870E-3	-3.676932E-3	9.312056E-4	-3.711904E-3	-1.983172E-2	2.836393E-3	-9.715279E-3	-3.457692E-3	-4.929140E-3	-5.876613E-3	-2.008114E-3	2.900373E-3	-4.701613E-3	-8.860058E-3	-6.495159E-3	-2.125935E-3	-6.568579E-3	-1.330155E-2	-5.034211E-3	-9.897460E-3	-3.888643E-4	-4.384130E-3	-6.052762E-3	-7.009243E-3	5.682218E-3	5.835573E-3	-2.743919E-3	-5.816316E-3	-4.361651E-4	-3.527706E-3	-3.306172E-3	-1.874470E-3	-6.795249E-3	-3.295574E-3	1.326401E-3	4.234875E-3	2.454572E-3	-2.291418E-3	-3.200200E-3	-1.411871E-3	-7.823185E-3	-5.884724E-4	-6.148518E-3	2.064073E-3	-6.389805E-3	-1.567037E-2	1.320083E-3	-3.638558E-3	-3.544356E-6	-5.271097E-3	-1.160002E-2	-5.729122E-3	-9.766762E-3	-1.192585E-3	-5.021327E-3	-7.901690E-3	-3.543865E-3	-3.270881E-3	-6.476831E-3	-3.508480E-3	-1.047865E-2	-5.135819E-3	-5.593180E-3	-4.719003E-3	-1.416852E-2	1.588463E-3	-3.620065E-3	4.470185E-3	-2.417277E-3	-3.285966E-3	-7.606959E-3	-6.938123E-3	-8.672597E-3	4.900609E-4	-9.881634E-3	-2.763381E-3	2.481891E-3	-5.101905E-3	-9.743544E-3	1.404601E-3	-3.684383E-3	-8.580192E-3	-1.340661E-3	-9.585105E-3	-4.084843E-3	-2.044017E-3	-9.730535E-3	-1.155634E-2	-2.753327E-3	-1.262340E-2	-2.581147E-3	1.728723E-4	-1.189004E-2	-8.037383E-4	-3.724034E-3	-2.466163E-3	-1.171125E-2	1.121934E-3	-9.099981E-3	-4.003052E-3	4.106752E-3	-1.758729E-3	3.811904E-3	-1.138028E-2	-5.857632E-3	-9.075495E-3	-5.499463E-3	2.544050E-3	-1.853209E-2	-3.551749E-2
5.315230E+2	-9.872467E-3	2.695061E-3	-3.571996E-3	4.654116E-4	-9.238085E-3	-9.272675E-3	1.536882E-3	-5.800475E-3	-5.514691E-3	-1.029427E-2	-3.962110E-3	-1.109557E-3	8.726587E-4	2.150855E-3	-9.834604E-3	-2.923512E-3	-2.221495E-4	-1.400954E-3	-6.045065E-3	2.274492E-3	7.570423E-4	-1.180094E-3	-3.999103E-3	-9.237366E-3	-7.531623E-3	-3.588184E-3	-7.198839E-3	1.050083E-2	-6.202665E-3	8.014688E-3	1.646483E-3	-7.502429E-3	-8.099235E-4	-4.756594E-3	-4.467855E-3	4.050527E-3	-8.848735E-3	-6.434850E-3	-5.485212E-3	-6.226034E-3	1.949485E-3	-2.757077E-3	-1.487583E-2	-5.264006E-3	-2.275473E-3	-2.506280E-3	-3.779867E-3	3.565454E-3	7.248030E-4	-2.697183E-3	-8.822984E-4	-7.479318E-3	-2.226702E-3	-2.687360E-3	-3.862157E-3	-5.417877E-3	-6.732964E-3	4.038468E-3	-3.086656E-3	-6.324009E-3	1.549216E-4	-8.633690E-3	-2.303293E-3	4.629486E-3	-7.783060E-3	4.798323E-4	-2.092774E-4	-7.442992E-3	1.778859E-4	3.470931E-3	4.777863E-3	-1.041857E-2	4.202631E-3	-1.991682E-3	-3.450591E-3	2.073410E-3	-6.676315E-3	-2.695035E-3	-7.624771E-3	-1.118171E-2	7.043767E-3	-6.406348E-3	-9.638603E-3	5.905167E-3	-1.242403E-3	-1.235176E-2	-3.035649E-3	3.079519E-3	-7.697071E-3	-1.186790E-3	-8.909244E-4	5.135337E-4	-3.398459E-3	-8.828974E-3	-4.969819E-3	-3.409134E-3	-6.112751E-3	3.199464E-3	-7.378283E-3	-3.271836E-4	-2.713086E-3	-2.079020E-3	6.290200E-4	-1.681882E-3	-7.711104E-3	-1.284373E-2	-9.686714E-3	-6.020206E-3	-4.976277E-3	7.192693E-3	-4.296132E-3	-8.137705E-3	-3.918860E-3	-5.292400E-3	-1.622621E-2	-6.800472E-3	2.513248E-3	-5.030609E-3	-5.367833E-5	1.326052E-3	1.588526E-3	-4.203670E-3	-5.673734E-3	-7.245336E-3	-1.392553E-3	-2.103538E-3	-8.836345E-3	-2.544618E-3	-9.272404E-3	2.097630E-3	-5.496417E-3	-8.168151E-4	7.935775E-4	2.904246E-4	-8.090020E-3	7.938063E-3	9.241060E-5	-7.867752E-3	-5.502186E-3	-1.016840E-3	-7.052494E-3	-6.031896E-3	-2.063365E-3	-4.561453E-3	-3.359079E-3	-8.653246E-3	1.605922E-3	-1.323828E-3	-4.206670E-3	7.360074E-3	2.225709E-3	-9.938533E-3	-1.945863E-3	-5.033048E-3	-7.557018E-3	-4.425509E-3	-1.025169E-2	-1.966469E-3	-1.510117E-4	1.043791E-2	-7.652494E-3	5.615378E-3	-3.313924E-3	-8.530819E-4	-4.170556E-3
5.320120E+2	8.726996E-3	7.298084E-3	6.229287E-3	9.583965E-3	-4.046297E-3	2.304669E-3	-2.191924E-3	6.191198E-3	-4.977228E-4	1.408690E-2	1.548120E-3	-2.286406E-3	-7.667486E-3	-9.102294E-4	1.817626E-3	1.834852E-4	6.087483E-3	5.319388E-3	-7.835870E-3	3.693248E-3	-4.316673E-3	5.713642E-3	-3.412942E-3	9.250641E-3	3.991764E-3	-4.178084E-3	9.283086E-3	-7.958316E-3	2.572860E-4	1.672732E-3	1.044102E-3	4.106153E-3	-2.124893E-3	-3.558434E-3	-2.057943E-3	-1.425512E-3	4.347032E-4	6.682921E-3	6.581487E-3	2.268939E-3	5.612039E-3	8.636971E-3	3.362088E-3	1.209890E-2	2.052281E-3	-3.581855E-3	-7.940903E-3	5.923741E-3	5.595639E-3	8.877947E-3	3.137290E-3	3.680248E-3	1.188397E-2	-5.098513E-4	-2.705711E-3	1.769122E-3	2.435157E-3	-9.331777E-4	-9.339333E-3	1.297267E-2	2.836364E-3	1.100424E-3	5.827012E-4	6.421772E-3	1.064570E-2	-6.361971E-3	-3.940840E-3	-4.016276E-3	-3.437302E-3	6.402088E-3	-7.303733E-3	-6.568571E-3	5.499273E-3	7.744519E-3	3.640928E-3	2.266717E-4	-1.518991E-3	3.460755E-3	4.685848E-3	-2.458973E-3	-2.017439E-3	3.970559E-3	5.541364E-4	3.086825E-3	4.715930E-4	3.327244E-3	3.350838E-3	4.822163E-3	1.179507E-2	5.096193E-3	3.905364E-4	5.135158E-4	-2.844925E-3	2.940267E-3	-6.155767E-3	7.310697E-3	-1.816135E-3	3.783733E-3	2.064032E-3	3.464148E-4	6.670978E-4	-5.478050E-3	-1.809601E-3	-3.919644E-3	2.658799E-3	1.458909E-3	4.164928E-3	1.146357E-2	7.996358E-3	-1.135044E-3	5.318653E-3	-2.395356E-3	3.209169E-3	3.760459E-5	-4.780263E-3	-1.797975E-4	-3.860982E-3	1.157200E-3	-6.368526E-4	1.165578E-2	1.588519E-3	-3.036502E-3	6.661603E-4	-7.934992E-3	-7.613645E-4	4.500582E-3	6.349589E-3	-3.157395E-3	5.981470E-3	3.358537E-3	5.435674E-3	-4.115488E-3	1.022628E-2	-2.997765E-4	3.936525E-3	-3.130940E-3	-4.243872E-3	-6.879564E-4	-4.821739E-3	1.437592E-3	-7.609040E-3	3.086257E-4	2.366696E-3	3.876444E-3	1.053738E-2	-8.046022E-3	5.905099E-3	-6.194476E-4	1.918632E-3	-3.108241E-3	8.258139E-3	3.652365E-3	2.349058E-3	-2.321787E-3	8.080536E-3	-3.769208E-3	2.161093E-3	-1.966493E-3	1.830691E-3	3.543610E-3	-1.249078E-3	-1.105695E-2	-1.385816E-2	1.505805E-2	-1.320838E-3
5.325120E+2	9.966914E-3	7.298121E-3	1.655306E-3	3.972542E-3	3.092401E-3	1.456301E-2	-9.489304E-4	1.773195E-3	2.010795E-3	3.179557E-3	8.711416E-3	1.301231E-2	4.075196E-3	1.490537E-2	1.241049E-2	2.668996E-3	2.645837E-3	1.147970E-2	1.783201E-2	6.530682E-3	1.372324E-2	1.101646E-2	7.724692E-3	1.223255E-2	1.212590E-2	3.490809E-3	5.849321E-3	7.523557E-3	7.891730E-3	-1.498249E-3	-1.967726E-3	9.604986E-3	1.820128E-3	1.141894E-2	6.979076E-3	3.366023E-3	-1.455270E-4	-1.611413E-4	9.454531E-3	-1.695394E-3	7.286467E-4	4.205934E-3	1.531103E-2	2.797369E-3	4.216062E-3	-3.550986E-4	1.048661E-2	1.181933E-2	6.813351E-3	-9.609081E-4	8.879604E-3	1.710924E-3	2.476842E-3	1.364417E-2	3.076497E-3	1.393169E-2	-6.209139E-4	9.311856E-4	8.168186E-3	7.826923E-3	1.227500E-3	1.083461E-2	2.314268E-3	-7.472372E-4	3.020010E-3	7.943574E-3	7.875719E-3	5.578432E-3	9.215802E-3	4.057118E-3	2.476591E-3	1.213146E-2	-5.521912E-3	2.267941E-3	1.062181E-3	8.229205E-3	9.941682E-3	1.781882E-3	7.763483E-3	1.149741E-2	4.023389E-3	9.464197E-3	-1.994065E-3	6.609767E-3	1.189800E-2	6.945472E-3	2.770242E-3	-4.056822E-4	2.992193E-3	-5.584763E-4	-8.909215E-4	5.135158E-4	1.583242E-3	7.545647E-3	8.075956E-3	4.788407E-3	-5.884894E-4	2.030943E-3	9.482979E-3	3.714562E-3	7.990776E-3	2.453081E-3	3.677250E-3	3.353116E-3	8.148741E-3	1.016483E-2	5.484123E-3	2.097285E-3	5.293711E-3	-5.798148E-4	-8.967247E-5	1.081203E-2	6.449174E-3	7.736488E-3	1.366050E-2	2.041779E-2	6.975235E-3	1.719747E-3	6.944309E-3	7.136487E-3	-2.743804E-3	-7.021386E-4	-3.771756E-3	3.790134E-3	5.550106E-3	5.601264E-3	3.818592E-3	1.277548E-2	1.330330E-2	5.250055E-3	1.500126E-2	2.481866E-3	1.383087E-3	7.373261E-3	1.279813E-2	7.432069E-4	6.287197E-3	1.367172E-2	9.468481E-3	6.346430E-3	7.384805E-4	1.246132E-2	3.632463E-3	-9.451896E-4	6.566930E-3	4.705420E-3	8.894237E-4	1.206001E-2	5.321536E-3	4.896937E-3	8.928363E-3	1.665240E-2	3.576182E-3	8.523283E-3	1.376691E-2	7.388349E-3	-1.758753E-3	7.278920E-3	9.757199E-3	3.543636E-3	8.711830E-3	4.821510E-3	1.074507E-2	1.152221E-2	2.432667E-2
5.330280E+2	9.966949E-3	3.352632E-3	1.407033E-2	9.583946E-3	1.931681E-2	2.069222E-2	1.831648E-2	8.084598E-3	1.455325E-2	1.729496E-2	1.752774E-2	9.481853E-3	1.368280E-2	1.133410E-2	1.505875E-2	2.566045E-2	1.583875E-2	1.091967E-2	-6.045062E-3	8.658736E-3	1.710570E-2	9.425635E-3	1.475899E-2	1.879287E-2	8.058831E-3	1.351928E-2	1.409026E-2	8.118977E-3	2.316057E-2	1.911306E-2	7.067803E-3	8.993984E-3	1.365531E-2	1.201803E-2	6.376621E-3	1.021103E-2	2.364331E-2	1.067530E-2	1.117835E-2	1.302919E-2	1.721021E-2	4.838966E-3	1.153771E-2	9.618459E-3	2.531378E-2	1.685414E-2	1.524211E-2	1.417759E-2	1.229298E-2	1.755930E-2	1.691881E-2	1.746563E-2	5.416541E-3	1.201102E-2	1.174982E-2	1.006177E-2	2.077129E-2	7.767229E-3	1.317035E-2	1.232949E-2	4.445246E-3	1.137542E-2	1.212665E-2	9.408848E-3	6.832857E-3	1.291938E-2	1.036341E-2	8.319760E-3	1.042087E-2	3.470893E-3	1.110630E-2	2.588143E-2	2.235519E-2	-1.991682E-3	1.202184E-2	2.073413E-3	9.941684E-3	1.409350E-2	1.638094E-2	3.937695E-3	4.023367E-3	2.139331E-3	1.074688E-2	6.609758E-3	9.041415E-3	1.538799E-2	1.844608E-2	4.241273E-3	6.136079E-3	8.237648E-3	1.064212E-2	7.630737E-3	1.099317E-2	1.573294E-2	1.934274E-2	1.487767E-2	1.291538E-2	1.254744E-2	5.436294E-3	2.324954E-2	1.193432E-2	1.491621E-2	1.343167E-2	1.510139E-2	1.180870E-2	1.762707E-2	1.669739E-2	2.207873E-2	1.340170E-2	1.885158E-2	1.192886E-2	5.069671E-3	2.653728E-2	1.721195E-2	2.192697E-2	9.383374E-3	1.334946E-2	1.522045E-2	1.860757E-2	1.101019E-2	1.602949E-2	9.802355E-3	1.778408E-2	1.275650E-2	1.564841E-2	1.000401E-2	7.615047E-3	2.135473E-2	-7.302669E-4	3.989113E-3	6.118938E-3	2.623227E-2	1.258444E-2	1.799746E-2	-4.943267E-4	1.790018E-2	1.062348E-2	1.106088E-2	1.627333E-2	2.352729E-2	2.355490E-2	1.034784E-2	2.514987E-2	1.593061E-2	8.552163E-3	1.442078E-2	1.020429E-2	2.333061E-2	1.621092E-2	1.290211E-2	1.555481E-3	1.251603E-2	1.584741E-2	2.140180E-2	6.658948E-3	6.732030E-3	1.326723E-2	1.421288E-2	1.636269E-2	1.607866E-2	1.084632E-2	1.593637E-2	2.597565E-2	2.743335E-2	3.857530E-2
5.331730E+2	1.368683E-2	1.058603E-2	1.080320E-2	1.519535E-2	2.256170E-2	2.304644E-3	1.085888E-2	8.715749E-3	3.399411E-2	5.745980E-3	2.303799E-2	3.009278E-3	1.955418E-2	2.000717E-2	1.505876E-2	1.696098E-2	6.661110E-3	1.371981E-2	2.201048E-2	3.561475E-2	1.823317E-2	1.525877E-2	9.483266E-3	2.177478E-2	1.077020E-2	9.979827E-3	1.477705E-2	1.585990E-2	2.492238E-2	2.175555E-2	1.007967E-2	5.328105E-3	2.614795E-2	3.630733E-3	1.782356E-2	1.568701E-2	9.718117E-3	1.010497E-2	2.324501E-2	1.416186E-2	1.110591E-2	2.066399E-2	2.097104E-2	1.767976E-2	2.423186E-2	3.460123E-2	1.583656E-2	1.358803E-2	2.142569E-2	1.640179E-2	1.347344E-2	2.731228E-2	1.599958E-2	1.037787E-2	2.331419E-2	2.001299E-2	2.749455E-2	1.087451E-2	1.754722E-2	2.326429E-2	2.160651E-2	2.056879E-2	3.636896E-2	1.239592E-2	2.399065E-2	8.565509E-3	2.093617E-2	1.859978E-2	2.066386E-2	8.747022E-3	1.628414E-2	7.731469E-3	1.846538E-2	1.930628E-2	2.298142E-2	1.315379E-2	2.713264E-2	1.129539E-2	2.068968E-2	2.777979E-2	1.489679E-2	1.373703E-2	2.093962E-2	1.436028E-2	1.418328E-2	1.599107E-2	2.367131E-2	3.038049E-2	1.368145E-2	6.981055E-3	1.128279E-2	2.898248E-2	1.154664E-2	8.569036E-3	6.890011E-3	5.419023E-3	1.598441E-2	1.605288E-2	1.622751E-2	1.516611E-2	8.554165E-3	1.208368E-2	2.457983E-3	2.349302E-2	1.668864E-2	2.080767E-3	1.339935E-2	1.958106E-2	1.718536E-2	2.495858E-2	1.433253E-2	1.483161E-2	5.153181E-3	1.247417E-2	1.366044E-2	1.747531E-2	1.462428E-2	1.859564E-2	1.802439E-2	1.811188E-2	1.747354E-2	1.680539E-2	3.236596E-2	2.930968E-2	1.817301E-2	1.605771E-2	2.090275E-2	2.564430E-2	1.147284E-2	8.402486E-3	1.568452E-2	1.369736E-2	2.319628E-2	1.209511E-2	1.279809E-2	2.343473E-2	3.809252E-3	2.575592E-3	1.491236E-2	8.800777E-3	2.407947E-3	1.827350E-2	1.122685E-2	2.135494E-2	1.252258E-2	1.927846E-2	2.166879E-2	2.473945E-2	2.165562E-2	2.583353E-2	1.227968E-2	8.379651E-3	1.768808E-2	3.021342E-2	1.589932E-2	1.526428E-2	1.914694E-2	1.941340E-2	2.098657E-2	2.359974E-2	2.080722E-2	2.625736E-2	8.401922E-3	1.505805E-2	-9.869951E-3
5.333080E+2	4.468592E-2	2.439521E-2	2.387163E-2	2.150820E-2	2.840247E-2	1.796813E-2	5.887145E-3	1.313374E-2	2.521436E-2	1.280369E-2	1.367059E-2	1.418913E-2	3.289810E-2	2.306825E-2	1.770695E-2	1.136847E-2	3.534131E-2	1.539990E-2	2.141352E-2	2.355550E-2	2.894444E-2	3.010676E-2	2.648278E-2	2.356396E-2	3.246124E-2	2.885702E-2	2.370467E-2	2.300543E-2	3.138222E-2	1.911309E-2	2.634368E-2	8.994000E-3	2.023039E-2	1.621168E-2	3.228279E-2	2.321655E-2	2.132244E-2	1.637869E-2	1.520058E-2	2.209049E-2	2.392492E-2	2.319607E-2	2.725998E-2	8.378261E-3	1.936315E-2	5.560556E-3	1.405322E-2	1.712538E-2	2.629655E-2	1.698055E-2	1.806728E-2	8.931799E-3	2.364288E-2	6.022800E-3	2.100132E-2	2.609423E-2	2.260493E-2	1.025305E-2	1.879776E-2	3.226941E-2	3.501377E-2	1.732405E-2	2.136180E-2	3.509778E-2	2.081328E-2	2.971280E-2	1.782651E-2	2.750913E-2	1.283101E-2	2.574786E-2	2.951639E-2	3.248144E-2	1.716877E-2	2.295736E-2	1.137712E-2	1.992512E-2	1.968322E-2	1.857042E-2	2.253624E-2	3.359496E-2	2.879067E-2	2.716593E-2	3.113232E-2	1.506491E-2	2.332446E-2	2.563970E-2	1.380134E-2	2.282919E-2	1.116630E-2	2.457325E-2	1.897150E-2	2.574738E-2	2.040301E-2	1.368612E-2	1.400580E-2	2.244462E-2	2.396392E-2	1.838989E-2	2.297203E-2	2.055507E-2	1.813130E-2	2.114780E-2	1.526068E-2	1.733916E-2	2.339860E-2	2.508932E-2	2.725101E-2	2.520089E-2	2.367168E-2	1.774121E-2	1.733714E-2	2.057391E-2	1.913179E-3	2.076528E-2	1.683987E-2	1.600397E-2	1.717400E-2	2.365842E-2	1.394228E-2	3.231521E-2	3.047040E-2	2.030693E-2	1.588207E-2	1.965363E-2	2.637790E-2	1.110466E-2	3.165945E-2	2.686995E-2	2.550639E-2	7.141488E-3	2.251710E-2	3.282968E-2	2.260672E-2	2.744120E-2	2.672356E-2	1.402604E-2	1.991555E-2	5.186443E-3	1.831480E-2	7.573584E-3	1.465093E-2	1.933025E-2	3.401002E-2	1.351980E-2	3.634514E-2	1.077751E-2	2.381837E-2	3.037477E-2	3.186446E-2	1.413367E-2	1.496076E-2	7.788750E-3	2.075593E-2	2.072397E-2	4.433122E-2	2.248386E-2	1.261391E-2	1.479076E-2	3.617912E-2	3.425443E-2	1.369226E-2	2.863911E-2	1.894617E-2	3.096907E-2	3.287585E-2
5.334580E+2	2.980630E-2	1.913460E-2	2.648528E-2	2.080684E-2	2.710452E-2	2.614036E-2	2.080231E-2	2.701879E-2	2.897708E-2	1.857816E-2	2.083389E-2	2.654579E-2	3.236436E-2	2.000717E-2	1.929592E-2	2.814602E-2	3.763576E-2	3.052065E-2	3.036745E-2	4.058030E-2	3.796444E-2	2.268276E-2	1.300039E-2	2.416036E-2	3.720614E-2	2.295786E-2	2.301796E-2	3.789183E-2	3.549310E-2	3.338242E-2	3.417446E-2	2.793431E-2	4.981831E-2	1.321621E-2	2.384822E-2	3.690660E-2	3.582781E-2	1.580830E-2	2.611806E-2	3.681505E-2	2.575619E-2	2.636108E-2	2.474440E-2	4.372415E-2	2.693668E-2	2.707214E-2	2.594197E-2	3.186444E-2	3.664698E-2	3.202825E-2	2.897760E-2	3.518963E-2	2.599468E-2	1.854365E-2	3.661327E-2	3.880971E-2	3.605148E-2	1.895348E-2	3.067787E-2	2.133464E-2	2.804199E-2	2.273192E-2	3.521463E-2	2.852617E-2	1.890688E-2	2.535897E-2	2.031419E-2	2.956510E-2	3.391953E-2	2.574787E-2	3.642016E-2	2.423143E-2	2.818997E-2	1.382963E-2	3.136234E-2	1.130707E-2	2.025625E-2	2.472620E-2	3.792456E-2	2.196462E-2	1.610496E-2	3.327002E-2	3.559168E-2	4.395326E-2	3.532224E-2	3.106704E-2	2.134898E-2	2.979972E-2	2.059802E-2	2.017524E-2	3.114526E-2	3.998186E-2	1.763542E-2	3.313097E-2	2.290070E-2	2.307518E-2	3.378493E-2	3.358040E-2	3.241438E-2	3.200664E-2	2.996189E-2	2.794586E-2	2.806332E-2	2.405245E-2	1.668867E-2	2.633301E-2	2.988942E-2	2.769855E-2	2.799590E-2	2.551378E-2	1.373156E-2	2.746478E-2	3.560930E-2	2.609526E-2	2.955762E-2	4.027979E-2	3.565925E-2	1.972071E-2	3.085404E-2	3.231517E-2	3.191452E-2	2.380838E-2	3.807187E-2	3.827602E-2	4.089427E-2	2.046045E-2	4.937652E-2	4.280284E-2	3.648917E-2	1.470734E-2	3.208268E-2	2.689206E-2	1.906946E-2	7.963462E-3	3.178736E-2	2.620197E-2	1.805713E-2	2.737863E-2	3.124399E-2	2.107290E-2	3.412835E-2	1.827350E-2	2.957993E-2	3.581995E-2	3.171294E-2	2.595779E-2	4.101508E-2	2.755715E-2	1.757212E-2	2.706510E-2	2.702551E-2	3.378872E-2	2.382371E-2	2.614651E-2	2.300726E-2	2.904710E-2	1.980027E-2	8.434584E-3	4.674785E-2	3.174749E-2	2.365320E-2	1.831816E-2	4.237780E-2	3.273705E-2	-7.020234E-3
5.336080E+2	3.104636E-2	1.781943E-2	4.608788E-2	3.904390E-2	4.916968E-2	3.022651E-2	1.893790E-2	3.711707E-2	4.026537E-2	3.269360E-2	3.295637E-2	2.654578E-2	3.183057E-2	3.582277E-2	3.094809E-2	4.368072E-2	3.362048E-2	2.212023E-2	2.380125E-2	4.270848E-2	4.529313E-2	2.586448E-2	2.765518E-2	3.012417E-2	4.737381E-2	4.301487E-2	4.842759E-2	3.789181E-2	3.608034E-2	4.659490E-2	3.056037E-2	2.487941E-2	3.338052E-2	3.538270E-2	4.794704E-2	4.101356E-2	3.872888E-2	2.607445E-2	2.669264E-2	3.851400E-2	3.613351E-2	4.408520E-2	3.166222E-2	3.938339E-2	4.316571E-2	2.545880E-2	4.436949E-2	3.717042E-2	2.568764E-2	2.276815E-2	3.759109E-2	4.241057E-2	5.304017E-2	3.433077E-2	4.817767E-2	4.765520E-2	4.827559E-2	3.759711E-2	3.505474E-2	3.419907E-2	4.466698E-2	3.138448E-2	4.906732E-2	3.031838E-2	3.733565E-2	3.717653E-2	2.528957E-2	4.190118E-2	3.391950E-2	4.392120E-2	2.836576E-2	3.523144E-2	3.532137E-2	2.539142E-2	3.845387E-2	3.408341E-2	4.317758E-2	3.759743E-2	4.038665E-2	4.580677E-2	3.060285E-2	2.960758E-2	3.113229E-2	3.761190E-2	3.875018E-2	4.734909E-2	4.805604E-2	3.735100E-2	3.568871E-2	3.776748E-2	3.627107E-2	3.027650E-2	2.317062E-2	3.773629E-2	3.831844E-2	1.613881E-2	3.439874E-2	4.526531E-2	3.848446E-2	4.884715E-2	3.503213E-2	2.851235E-2	2.928262E-2	1.622026E-2	3.559848E-2	4.685417E-2	1.999536E-2	3.394278E-2	3.340118E-2	3.273115E-2	4.918622E-2	2.976171E-2	3.042527E-2	3.793965E-2	3.146525E-2	2.262468E-2	4.139604E-2	3.772166E-2	3.610253E-2	2.585913E-2	4.924368E-2	3.664727E-2	2.856197E-2	3.482740E-2	3.521392E-2	3.476937E-2	5.570399E-2	4.219001E-2	3.404859E-2	2.794756E-2	4.574781E-2	2.293362E-2	3.852445E-2	2.212910E-2	3.368628E-2	3.561065E-2	1.805712E-2	2.868408E-2	4.485371E-2	3.825373E-2	4.024981E-2	2.884106E-2	3.907291E-2	3.099825E-2	3.237468E-2	3.688754E-2	5.749522E-2	5.221158E-2	3.526739E-2	3.630178E-2	4.311190E-2	4.265240E-2	2.136948E-2	3.631382E-2	4.219886E-2	2.445280E-2	3.286632E-2	3.501496E-2	4.476626E-2	3.488121E-2	2.649917E-2	3.260868E-2	3.651997E-2	4.864814E-2	4.997422E-2
5.337630E+2	6.514529E-2	4.083476E-2	5.523579E-2	4.746105E-2	5.825536E-2	3.839872E-2	4.876836E-2	4.847763E-2	4.089245E-2	4.167610E-2	3.681353E-2	3.596038E-2	5.638353E-2	4.908749E-2	4.313002E-2	4.492358E-2	7.491991E-2	3.892110E-2	3.275513E-2	6.327999E-2	4.867562E-2	5.396976E-2	4.406851E-2	5.397980E-2	5.550799E-2	4.773420E-2	4.362036E-2	4.086908E-2	5.311091E-2	4.236686E-2	3.116262E-2	5.298440E-2	4.784574E-2	3.718002E-2	6.662351E-2	6.017961E-2	7.644294E-2	3.348887E-2	4.335616E-2	6.513156E-2	4.528993E-2	5.104826E-2	5.304469E-2	4.558444E-2	5.290306E-2	4.159247E-2	4.080287E-2	4.011833E-2	5.552142E-2	4.186712E-2	4.161065E-2	5.291368E-2	5.774370E-2	4.031901E-2	5.395983E-2	4.986674E-2	6.600071E-2	4.567598E-2	4.756010E-2	3.226944E-2	3.930412E-2	4.328181E-2	4.387252E-2	3.987710E-2	3.987750E-2	4.028646E-2	3.710618E-2	5.286653E-2	7.067396E-2	3.512767E-2	3.584482E-2	3.963145E-2	4.763919E-2	5.034040E-2	4.747947E-2	4.701051E-2	4.833497E-2	3.591855E-2	3.238477E-2	5.801858E-2	4.268444E-2	3.998444E-2	4.132507E-2	5.522678E-2	5.417594E-2	3.649437E-2	3.876659E-2	3.038050E-2	5.266575E-2	3.776744E-2	3.498963E-2	4.515797E-2	6.579197E-2	4.541195E-2	4.662031E-2	5.523468E-2	5.097175E-2	3.650158E-2	5.197348E-2	4.480544E-2	5.080625E-2	4.607394E-2	4.330464E-2	4.363298E-2	5.755820E-2	3.379525E-2	3.846423E-2	3.706486E-2	5.394130E-2	4.050373E-2	5.219090E-2	5.732505E-2	3.496127E-2	4.030853E-2	5.181366E-2	5.425674E-2	4.458312E-2	4.390950E-2	4.076781E-2	4.587300E-2	5.285395E-2	3.489652E-2	4.758182E-2	6.517496E-2	5.351725E-2	4.577613E-2	5.443836E-2	6.976615E-2	5.357356E-2	4.434021E-2	4.164825E-2	3.414913E-2	4.383037E-2	3.924592E-2	5.267549E-2	4.391246E-2	4.717243E-2	4.108554E-2	3.532691E-2	4.438980E-2	4.136282E-2	4.680596E-2	5.869172E-2	5.149030E-2	4.560944E-2	4.538849E-2	4.388123E-2	7.193526E-2	6.112969E-2	4.184396E-2	4.780393E-2	2.906148E-2	3.425423E-2	4.580321E-2	5.072846E-2	2.970344E-2	3.417294E-2	4.541608E-2	4.939006E-2	6.308521E-2	5.567038E-2	5.483845E-2	6.698102E-2	6.455930E-2	2.432666E-2
5.339090E+2	7.940493E-2	5.332884E-2	7.026453E-2	7.130974E-2	7.707578E-2	5.678624E-2	8.108446E-2	4.784642E-2	7.224858E-2	6.477418E-2	5.279315E-2	5.302442E-2	7.132850E-2	6.337249E-2	6.908250E-2	6.232261E-2	8.122963E-2	6.748247E-2	6.200452E-2	6.966448E-2	7.968152E-2	5.980290E-2	7.337804E-2	6.173269E-2	6.906495E-2	6.307193E-2	6.490949E-2	7.302368E-2	7.307787E-2	7.407668E-2	6.429311E-2	5.603938E-2	7.940628E-2	6.054468E-2	8.108287E-2	7.797669E-2	9.210858E-2	6.314662E-2	6.806427E-2	7.249372E-2	5.688805E-2	6.244245E-2	6.184920E-2	6.542774E-2	6.264054E-2	6.149079E-2	6.636366E-2	7.843995E-2	6.648055E-2	4.244586E-2	4.505606E-2	6.998133E-2	7.361831E-2	5.665066E-2	6.899335E-2	7.529758E-2	8.128065E-2	5.748386E-2	7.194572E-2	7.343581E-2	6.504594E-2	6.437253E-2	5.310764E-2	7.392971E-2	5.385801E-2	6.703159E-2	6.820239E-2	5.012521E-2	7.127634E-2	6.326692E-2	6.748723E-2	5.503149E-2	6.644005E-2	6.068536E-2	6.939885E-2	5.993759E-2	4.833489E-2	5.270724E-2	6.131488E-2	6.848573E-2	6.141100E-2	6.134871E-2	6.043652E-2	7.284152E-2	7.702880E-2	4.674606E-2	6.315114E-2	5.477724E-2	7.090035E-2	4.907674E-2	7.407371E-2	6.003948E-2	7.243407E-2	5.411095E-2	6.737489E-2	8.108843E-2	7.368269E-2	5.519754E-2	5.669468E-2	7.444487E-2	8.122772E-2	6.080332E-2	7.500648E-2	7.608055E-2	7.890817E-2	5.804757E-2	6.484834E-2	5.954407E-2	6.421140E-2	7.103885E-2	7.262229E-2	7.397772E-2	6.282547E-2	4.978397E-2	4.799844E-2	8.000374E-2	8.027893E-2	6.584812E-2	4.484999E-2	6.524131E-2	7.018321E-2	4.423390E-2	6.786963E-2	7.827964E-2	5.982854E-2	7.054146E-2	7.088979E-2	8.324779E-2	7.370871E-2	6.766820E-2	6.556236E-2	5.658005E-2	7.271832E-2	6.580660E-2	6.217008E-2	6.106938E-2	6.389827E-2	6.262503E-2	6.730985E-2	5.911633E-2	6.195314E-2	5.367484E-2	7.008338E-2	7.318779E-2	5.685900E-2	5.631832E-2	8.042442E-2	7.052635E-2	5.772675E-2	6.278042E-2	6.523069E-2	7.397072E-2	5.020683E-2	5.935953E-2	6.707672E-2	6.120714E-2	5.638525E-2	4.946085E-2	6.656442E-2	7.311318E-2	5.922787E-2	8.262562E-2	5.292210E-2	6.632710E-2	7.562168E-2
5.340640E+2	1.042042E-1	8.160497E-2	1.081631E-1	8.323404E-2	1.017366E-1	7.721698E-2	9.662113E-2	6.867398E-2	1.067406E-1	7.953108E-2	8.695663E-2	7.597245E-2	8.467252E-2	8.633065E-2	6.908262E-2	1.014702E-1	1.150724E-1	9.604423E-2	9.185082E-2	1.058421E-1	8.982930E-2	9.533213E-2	8.686055E-2	7.723877E-2	9.278947E-2	8.253921E-2	1.088612E-1	7.838284E-2	1.147735E-1	8.781750E-2	1.010375E-1	8.597731E-2	9.978890E-2	6.713485E-2	9.373490E-2	9.029765E-2	1.071943E-1	8.481934E-2	9.679447E-2	7.589178E-2	9.351373E-2	1.023214E-1	8.574706E-2	9.271210E-2	7.941048E-2	8.569124E-2	9.965201E-2	1.026119E-1	9.692311E-2	8.064405E-2	7.147054E-2	9.492631E-2	1.030156E-1	8.441411E-2	9.096590E-2	8.856577E-2	1.032842E-1	8.855664E-2	9.382999E-2	8.565706E-2	7.523560E-2	1.022274E-1	8.485353E-2	1.002162E-1	9.643478E-2	7.760528E-2	8.188480E-2	7.890926E-2	1.092358E-1	8.144036E-2	9.049963E-2	7.648159E-2	9.950360E-2	8.076626E-2	8.809462E-2	1.036435E-1	1.073575E-1	7.956879E-2	8.778267E-2	8.069773E-2	9.705166E-2	8.820646E-2	1.024815E-1	9.397965E-2	1.038810E-1	9.559220E-2	8.579404E-2	8.323976E-2	1.180590E-1	8.928753E-2	7.022946E-2	9.562555E-2	9.734242E-2	7.918439E-2	1.088842E-1	1.056808E-1	1.031455E-1	8.324169E-2	8.906835E-2	8.724351E-2	1.054522E-1	9.479376E-2	8.963811E-2	7.664026E-2	9.537799E-2	8.292179E-2	8.133855E-2	8.951624E-2	1.036698E-1	9.990865E-2	9.425576E-2	9.465016E-2	8.680168E-2	9.183175E-2	9.505430E-2	1.079575E-1	9.493935E-2	7.203602E-2	7.692407E-2	1.013952E-1	1.026752E-1	5.882351E-2	1.103473E-1	1.044886E-1	1.014843E-1	1.019111E-1	1.006292E-1	9.795508E-2	1.017757E-1	8.469128E-2	8.947604E-2	9.286546E-2	1.027850E-1	7.879166E-2	9.761682E-2	9.372280E-2	8.929647E-2	8.873354E-2	9.248771E-2	1.131133E-1	9.367357E-2	8.115045E-2	1.042579E-1	9.850165E-2	9.921028E-2	9.032214E-2	9.690442E-2	8.461477E-2	8.631169E-2	8.864313E-2	8.667918E-2	8.165220E-2	8.579359E-2	8.647219E-2	9.124429E-2	7.695889E-2	9.101030E-2	9.799927E-2	1.022339E-1	9.818302E-2	8.982229E-2	1.064435E-1	8.806951E-2	1.122926E-1	7.277198E-2
5.342090E+2	1.581423E-1	1.190873E-1	1.395272E-1	1.309308E-1	1.685813E-1	1.262506E-1	1.109151E-1	1.090670E-1	1.380967E-1	1.372761E-1	1.310382E-1	1.206917E-1	1.231032E-1	1.179619E-1	1.347585E-1	1.406176E-1	1.970976E-1	1.727677E-1	1.694512E-1	1.434384E-1	1.636800E-1	1.520725E-1	1.419625E-1	1.494016E-1	1.537955E-1	1.586377E-1	1.466321E-1	1.504331E-1	1.458989E-1	1.422525E-1	1.456128E-1	1.446311E-1	1.832924E-1	1.234494E-1	1.443421E-1	1.649080E-1	1.872641E-1	1.418535E-1	1.272485E-1	1.534790E-1	1.551672E-1	1.333389E-1	1.486363E-1	1.379801E-1	1.746202E-1	1.513018E-1	1.555290E-1	1.556728E-1	1.571992E-1	1.379410E-1	1.386556E-1	1.382515E-1	1.665136E-1	1.176214E-1	1.453189E-1	1.427445E-1	1.479024E-1	1.159006E-1	1.238429E-1	1.589845E-1	1.503161E-1	1.346749E-1	1.466138E-1	1.557760E-1	1.332926E-1	1.379374E-1	1.403459E-1	1.522403E-1	1.628608E-1	1.347878E-1	1.158135E-1	1.281814E-1	1.273809E-1	1.251876E-1	1.312882E-1	1.214952E-1	1.262676E-1	1.204205E-1	1.351786E-1	1.510608E-1	1.302759E-1	1.223892E-1	1.426151E-1	1.940321E-1	1.655837E-1	1.305687E-1	1.351440E-1	1.331949E-1	1.652171E-1	1.269855E-1	1.182838E-1	1.130953E-1	1.349824E-1	1.313786E-1	1.598814E-1	1.416240E-1	1.258565E-1	1.112851E-1	1.207673E-1	1.512374E-1	1.724922E-1	1.270843E-1	1.353618E-1	1.409758E-1	1.563777E-1	1.482165E-1	1.440005E-1	1.232350E-1	1.496145E-1	1.265572E-1	1.309121E-1	1.555185E-1	1.328097E-1	1.273648E-1	1.408378E-1	1.587160E-1	1.306353E-1	1.339145E-1	1.235771E-1	1.523979E-1	1.654931E-1	1.072610E-1	1.338050E-1	1.589763E-1	1.355664E-1	1.244750E-1	1.512486E-1	1.702658E-1	1.597405E-1	1.181072E-1	1.530187E-1	1.403663E-1	1.646873E-1	1.242398E-1	1.216695E-1	1.363390E-1	1.419519E-1	1.141894E-1	1.360389E-1	1.487023E-1	1.415326E-1	1.086263E-1	1.536214E-1	1.545530E-1	1.184002E-1	1.212900E-1	1.477778E-1	1.811193E-1	1.441616E-1	1.169693E-1	1.403005E-1	1.448798E-1	1.189259E-1	1.332416E-1	1.552158E-1	1.511239E-1	1.387015E-1	1.199567E-1	1.702702E-1	1.577243E-1	1.574141E-1	1.429634E-1	1.161876E-1	1.617939E-1	1.953102E-1
5.343600E+2	2.325404E-1	1.795846E-1	2.140169E-1	2.094905E-1	2.393196E-1	1.929904E-1	1.954343E-1	1.949021E-1	2.146057E-1	1.995120E-1	2.230592E-1	1.754141E-1	2.117065E-1	2.097944E-1	2.157942E-1	2.089701E-1	3.336151E-1	2.573322E-1	2.673472E-1	3.080122E-1	2.798122E-1	2.326761E-1	2.164085E-1	2.144081E-1	2.615727E-1	2.441750E-1	2.379695E-1	2.206968E-1	2.715731E-1	1.988014E-1	2.498231E-1	2.466643E-1	2.707413E-1	2.258946E-1	2.407374E-1	2.443104E-1	2.742962E-1	2.256933E-1	2.519374E-1	2.327648E-1	2.601606E-1	2.270236E-1	1.939164E-1	2.285147E-1	2.270945E-1	2.088450E-1	2.429109E-1	2.452861E-1	2.272171E-1	2.149154E-1	2.173247E-1	2.459083E-1	2.605848E-1	1.932910E-1	1.886849E-1	1.936062E-1	2.664762E-1	1.910967E-1	2.145067E-1	2.207341E-1	2.329046E-1	2.163335E-1	2.222266E-1	2.662977E-1	2.108202E-1	2.349661E-1	2.236832E-1	2.481868E-1	2.472148E-1	1.904803E-1	2.228223E-1	2.189315E-1	2.388894E-1	2.237663E-1	2.337928E-1	2.089072E-1	2.127953E-1	2.043636E-1	1.967316E-1	2.441035E-1	2.371983E-1	2.108982E-1	2.158760E-1	2.525131E-1	2.472824E-1	2.119789E-1	2.071365E-1	2.528541E-1	2.268378E-1	1.954691E-1	2.150332E-1	2.302060E-1	2.329559E-1	1.892013E-1	2.369699E-1	2.349498E-1	2.363424E-1	1.971698E-1	2.097955E-1	2.549752E-1	2.677003E-1	2.143266E-1	1.890113E-1	2.260111E-1	2.503166E-1	2.122673E-1	2.158976E-1	2.112785E-1	2.112346E-1	2.214939E-1	2.276606E-1	2.209811E-1	2.164020E-1	2.031688E-1	2.317698E-1	2.528767E-1	2.606691E-1	1.957925E-1	2.238816E-1	2.518215E-1	2.362542E-1	1.831271E-1	2.371461E-1	2.527778E-1	2.302380E-1	2.092276E-1	2.740016E-1	2.517684E-1	2.353992E-1	2.051143E-1	2.630231E-1	2.248120E-1	2.672680E-1	1.974288E-1	2.058552E-1	2.271050E-1	2.416871E-1	2.016526E-1	2.217799E-1	2.272436E-1	2.138774E-1	2.201138E-1	2.422225E-1	2.419458E-1	2.143524E-1	2.202651E-1	2.710210E-1	2.508563E-1	2.557778E-1	2.198047E-1	2.555861E-1	2.140164E-1	1.980754E-1	2.023788E-1	2.476196E-1	2.154440E-1	2.014188E-1	2.152996E-1	2.501965E-1	2.360683E-1	2.264288E-1	2.207679E-1	2.602925E-1	2.183671E-1	2.665530E-1
5.345110E+2	4.352741E-1	3.433221E-1	3.603830E-1	3.546859E-1	4.015636E-1	3.271518E-1	3.849816E-1	3.539496E-1	3.902002E-1	3.541398E-1	3.663250E-1	3.466421E-1	3.969206E-1	3.638692E-1	3.572094E-1	3.860664E-1	5.636308E-1	4.376613E-1	4.595573E-1	4.477574E-1	4.788153E-1	3.880499E-1	4.239206E-1	4.267220E-1	4.791610E-1	4.276378E-1	4.488004E-1	3.904020E-1	4.594971E-1	3.874741E-1	4.455935E-1	4.165158E-1	4.620756E-1	3.780647E-1	4.636513E-1	4.215965E-1	4.524225E-1	3.756927E-1	3.915663E-1	4.145566E-1	3.840778E-1	3.884394E-1	4.121422E-1	4.108249E-1	3.828925E-1	3.890040E-1	4.646356E-1	4.321774E-1	4.208314E-1	3.682865E-1	3.890197E-1	4.270875E-1	4.863560E-1	3.658606E-1	3.916402E-1	3.970533E-1	4.565616E-1	3.321674E-1	3.508153E-1	4.085553E-1	4.098805E-1	3.774875E-1	4.144335E-1	4.520944E-1	3.912947E-1	3.724230E-1	4.003101E-1	4.441931E-1	4.394217E-1	3.786625E-1	3.764308E-1	4.103315E-1	4.340291E-1	3.892816E-1	3.549941E-1	3.800375E-1	4.013233E-1	3.705701E-1	4.244781E-1	4.203020E-1	3.858018E-1	3.506810E-1	3.974339E-1	4.342986E-1	4.163944E-1	3.542960E-1	4.022137E-1	3.841310E-1	4.368496E-1	3.594542E-1	4.066090E-1	3.829031E-1	3.801931E-1	3.662515E-1	4.154601E-1	4.140341E-1	3.750638E-1	3.514113E-1	3.898740E-1	4.287696E-1	4.513562E-1	3.650171E-1	3.609328E-1	4.100680E-1	4.320947E-1	3.814112E-1	3.840959E-1	4.042245E-1	3.950144E-1	3.425238E-1	4.373842E-1	4.231115E-1	3.777555E-1	4.033389E-1	3.932849E-1	4.331058E-1	4.397850E-1	3.454256E-1	3.685060E-1	4.319466E-1	4.362614E-1	3.068473E-1	3.772588E-1	4.445188E-1	4.265246E-1	3.974444E-1	4.214317E-1	4.533800E-1	3.775658E-1	3.558005E-1	4.037740E-1	4.332882E-1	4.441322E-1	3.756793E-1	3.862529E-1	3.831782E-1	4.392993E-1	3.837588E-1	4.204820E-1	3.923027E-1	3.964086E-1	3.601340E-1	4.485366E-1	4.173335E-1	3.711843E-1	3.471721E-1	4.566020E-1	4.276641E-1	4.504259E-1	3.842187E-1	4.459422E-1	3.930614E-1	3.766216E-1	3.745443E-1	4.331379E-1	3.585227E-1	3.601711E-1	3.863389E-1	4.457182E-1	4.322418E-1	4.249355E-1	4.136903E-1	4.102546E-1	4.039965E-1	4.660332E-1
5.346620E+2	7.328650E-1	5.708458E-1	6.393938E-1	6.163193E-1	6.747823E-1	5.804912E-1	5.882008E-1	5.502336E-1	6.705245E-1	5.620213E-1	5.955495E-1	5.973052E-1	5.986808E-1	5.791647E-1	6.156760E-1	6.340013E-1	8.120007E-1	6.919143E-1	6.965374E-1	7.166082E-1	7.916950E-1	6.478900E-1	6.923960E-1	6.682587E-1	7.923253E-1	6.376461E-1	7.111370E-1	6.351343E-1	7.736836E-1	6.221261E-1	7.256956E-1	6.761819E-1	7.204767E-1	6.428648E-1	7.148810E-1	6.673322E-1	7.216420E-1	5.947023E-1	6.409443E-1	6.603439E-1	6.270282E-1	5.935323E-1	6.272239E-1	6.303412E-1	6.517527E-1	6.068090E-1	7.172713E-1	7.069133E-1	7.520458E-1	5.777965E-1	6.210085E-1	7.231440E-1	7.268257E-1	6.228102E-1	6.009560E-1	6.353295E-1	6.759847E-1	5.807499E-1	5.927941E-1	6.561965E-1	6.260052E-1	6.186784E-1	6.914884E-1	7.071915E-1	6.308686E-1	6.361425E-1	6.285558E-1	7.046204E-1	6.985094E-1	6.295716E-1	6.088584E-1	6.066815E-1	6.408389E-1	6.466829E-1	6.141563E-1	6.078006E-1	5.973008E-1	6.095267E-1	6.706905E-1	6.639569E-1	6.673030E-1	5.881292E-1	6.248592E-1	7.499570E-1	6.889150E-1	6.039545E-1	6.147080E-1	6.373911E-1	7.172850E-1	6.019757E-1	6.449590E-1	6.113018E-1	6.392412E-1	5.596764E-1	6.283433E-1	6.713107E-1	6.187466E-1	5.652462E-1	6.171642E-1	6.584745E-1	6.997983E-1	5.831220E-1	6.273505E-1	6.584603E-1	6.895121E-1	5.754295E-1	6.070418E-1	6.415048E-1	6.344679E-1	5.579350E-1	6.855657E-1	6.614176E-1	5.870601E-1	5.875195E-1	6.711670E-1	7.052889E-1	6.826432E-1	6.531297E-1	6.099361E-1	6.630736E-1	7.496301E-1	5.005975E-1	6.536802E-1	7.204063E-1	6.322782E-1	5.829099E-1	6.960442E-1	7.358824E-1	6.637288E-1	6.187131E-1	6.217319E-1	6.747510E-1	7.035320E-1	5.781302E-1	5.970329E-1	6.355517E-1	6.753186E-1	5.260499E-1	6.464031E-1	6.168813E-1	6.167822E-1	5.809965E-1	6.864948E-1	6.837296E-1	5.994837E-1	5.991649E-1	7.546781E-1	7.129510E-1	7.042847E-1	6.108260E-1	7.060045E-1	6.459711E-1	5.502594E-1	6.090688E-1	6.620153E-1	5.954567E-1	6.175730E-1	5.683567E-1	7.139004E-1	6.879564E-1	6.625743E-1	6.685381E-1	6.551156E-1	6.939320E-1	8.108488E-1
5.348070E+2	1.083775E+0	8.424268E-1	1.021645E+0	9.256487E-1	1.066763E+0	9.223634E-1	9.269001E-1	8.557056E-1	9.922394E-1	9.399297E-1	9.217547E-1	9.221087E-1	9.258758E-1	8.934355E-1	9.504127E-1	1.030449E+0	1.142971E+0	1.038011E+0	1.082748E+0	1.142937E+0	1.113032E+0	9.538656E-1	1.019492E+0	9.718202E-1	1.154973E+0	9.939532E-1	1.103956E+0	9.459622E-1	1.180656E+0	9.889008E-1	1.033507E+0	1.039102E+0	1.057779E+0	8.860970E-1	1.042023E+0	1.074611E+0	1.107486E+0	8.958420E-1	9.719165E-1	1.003540E+0	1.021974E+0	9.663716E-1	1.013993E+0	9.751178E-1	9.931028E-1	9.633614E-1	1.012706E+0	1.104867E+0	1.021767E+0	8.781717E-1	1.004594E+0	1.079594E+0	1.077242E+0	8.574394E-1	9.924108E-1	9.471339E-1	1.054321E+0	9.424375E-1	9.479466E-1	1.031196E+0	9.729846E-1	9.572092E-1	1.038385E+0	1.062653E+0	9.524186E-1	9.259845E-1	9.637726E-1	1.045918E+0	1.034118E+0	9.332418E-1	9.413896E-1	9.680302E-1	9.753645E-1	9.527642E-1	9.364986E-1	9.568327E-1	9.520084E-1	9.257114E-1	1.052934E+0	1.064040E+0	9.554494E-1	9.049292E-1	1.005812E+0	1.077594E+0	1.052277E+0	9.060768E-1	9.526097E-1	9.202751E-1	1.043622E+0	8.482671E-1	9.774948E-1	9.574582E-1	9.187704E-1	8.697708E-1	9.764281E-1	1.054702E+0	9.244245E-1	8.819088E-1	1.017114E+0	1.124619E+0	1.006267E+0	9.315237E-1	9.364437E-1	9.773423E-1	1.042088E+0	8.770286E-1	9.012243E-1	9.018885E-1	9.555422E-1	9.249118E-1	1.067755E+0	1.053618E+0	9.564219E-1	8.362515E-1	1.049519E+0	1.148137E+0	1.074020E+0	8.674535E-1	9.948255E-1	1.013639E+0	1.094047E+0	7.503721E-1	9.598998E-1	1.060436E+0	1.034317E+0	9.246723E-1	1.083917E+0	1.148911E+0	9.706366E-1	9.453053E-1	9.845417E-1	1.063994E+0	1.089093E+0	9.216461E-1	9.717536E-1	9.427175E-1	9.893915E-1	9.268142E-1	9.294846E-1	9.218424E-1	9.584719E-1	8.589229E-1	1.131398E+0	1.051983E+0	9.859381E-1	9.015562E-1	1.074251E+0	1.072202E+0	1.037773E+0	9.599739E-1	1.015667E+0	9.579714E-1	9.079659E-1	8.930746E-1	1.023101E+0	9.236199E-1	8.599479E-1	9.555075E-1	1.118816E+0	1.064634E+0	9.948419E-1	9.376772E-1	9.913601E-1	1.093478E+0	1.078722E+0
5.349580E+2	1.543801E+0	1.304706E+0	1.395402E+0	1.374562E+0	1.556741E+0	1.499870E+0	1.317181E+0	1.233759E+0	1.473870E+0	1.472464E+0	1.277713E+0	1.369889E+0	1.356613E+0	1.368415E+0	1.337053E+0	1.549930E+0	1.504341E+0	1.448512E+0	1.433145E+0	1.562173E+0	1.590523E+0	1.559983E+0	1.378825E+0	1.468612E+0	1.619295E+0	1.475321E+0	1.505702E+0	1.406252E+0	1.591152E+0	1.373118E+0	1.530463E+0	1.513831E+0	1.546968E+0	1.316247E+0	1.510141E+0	1.509953E+0	1.616332E+0	1.303635E+0	1.454009E+0	1.470765E+0	1.445001E+0	1.336679E+0	1.436610E+0	1.368263E+0	1.370155E+0	1.337126E+0	1.497765E+0	1.530534E+0	1.443090E+0	1.239316E+0	1.407129E+0	1.518758E+0	1.580525E+0	1.289681E+0	1.374614E+0	1.355135E+0	1.439381E+0	1.294804E+0	1.317480E+0	1.374678E+0	1.392899E+0	1.298447E+0	1.441846E+0	1.574046E+0	1.298753E+0	1.360126E+0	1.334438E+0	1.520172E+0	1.436005E+0	1.378781E+0	1.293483E+0	1.383284E+0	1.471316E+0	1.372638E+0	1.318796E+0	1.384658E+0	1.347974E+0	1.325836E+0	1.407479E+0	1.487382E+0	1.340853E+0	1.330381E+0	1.356190E+0	1.629997E+0	1.496195E+0	1.317350E+0	1.385726E+0	1.408788E+0	1.487539E+0	1.251004E+0	1.417028E+0	1.343084E+0	1.356606E+0	1.250479E+0	1.437775E+0	1.465210E+0	1.355319E+0	1.303153E+0	1.427858E+0	1.540247E+0	1.471603E+0	1.313347E+0	1.361982E+0	1.344336E+0	1.462376E+0	1.304242E+0	1.337222E+0	1.319002E+0	1.338236E+0	1.260241E+0	1.502224E+0	1.494057E+0	1.316065E+0	1.222379E+0	1.491463E+0	1.512274E+0	1.548898E+0	1.217349E+0	1.384381E+0	1.451362E+0	1.572766E+0	1.061422E+0	1.445539E+0	1.460470E+0	1.359360E+0	1.304958E+0	1.535698E+0	1.563777E+0	1.392253E+0	1.300901E+0	1.434807E+0	1.511291E+0	1.601411E+0	1.235651E+0	1.343943E+0	1.357805E+0	1.457714E+0	1.281238E+0	1.440530E+0	1.371000E+0	1.341341E+0	1.231958E+0	1.559846E+0	1.493165E+0	1.313497E+0	1.189374E+0	1.572237E+0	1.527955E+0	1.477433E+0	1.266636E+0	1.482175E+0	1.379289E+0	1.245426E+0	1.279431E+0	1.438206E+0	1.308225E+0	1.374751E+0	1.316075E+0	1.593747E+0	1.422511E+0	1.444509E+0	1.456900E+0	1.441247E+0	1.408164E+0	1.611623E+0
5.351090E+2	1.988946E+0	1.638759E+0	1.787453E+0	1.753335E+0	1.909780E+0	1.949342E+0	1.691924E+0	1.633902E+0	1.875855E+0	1.840751E+0	1.635879E+0	1.718820E+0	1.739320E+0	1.695950E+0	1.712571E+0	1.856899E+0	1.750990E+0	1.733006E+0	1.789511E+0	1.993470E+0	1.940616E+0	1.988985E+0	1.753988E+0	1.767997E+0	2.001600E+0	1.966128E+0	1.889591E+0	1.711123E+0	1.922371E+0	1.807013E+0	1.886466E+0	1.871255E+0	1.914512E+0	1.648145E+0	1.777639E+0	1.856310E+0	2.013200E+0	1.724546E+0	1.748781E+0	1.736935E+0	1.802715E+0	1.661410E+0	1.767406E+0	1.724200E+0	1.731524E+0	1.668405E+0	1.828866E+0	1.911980E+0	1.749952E+0	1.588888E+0	1.744200E+0	1.846979E+0	1.949752E+0	1.596170E+0	1.701886E+0	1.675784E+0	1.782878E+0	1.601801E+0	1.670134E+0	1.735526E+0	1.683570E+0	1.645089E+0	1.730442E+0	1.917557E+0	1.684485E+0	1.682934E+0	1.708841E+0	1.934799E+0	1.843916E+0	1.677176E+0	1.677794E+0	1.765531E+0	1.795470E+0	1.741396E+0	1.700449E+0	1.693062E+0	1.680906E+0	1.669439E+0	1.749104E+0	1.907234E+0	1.686386E+0	1.639249E+0	1.741600E+0	2.007657E+0	1.852700E+0	1.570023E+0	1.666730E+0	1.679473E+0	1.879268E+0	1.575205E+0	1.713688E+0	1.705417E+0	1.695916E+0	1.546247E+0	1.749686E+0	1.854907E+0	1.637059E+0	1.550873E+0	1.689541E+0	1.864928E+0	1.896941E+0	1.633989E+0	1.579015E+0	1.648672E+0	1.811902E+0	1.548630E+0	1.659111E+0	1.659308E+0	1.629580E+0	1.570588E+0	1.799683E+0	1.824816E+0	1.684131E+0	1.552244E+0	1.775066E+0	1.969100E+0	1.824266E+0	1.537425E+0	1.647968E+0	1.820647E+0	1.942454E+0	1.617580E+0	1.738445E+0	1.808089E+0	1.750670E+0	1.641216E+0	1.833093E+0	1.939426E+0	1.725400E+0	1.553095E+0	1.709476E+0	1.770570E+0	1.856680E+0	1.542575E+0	1.618020E+0	1.669401E+0	1.831255E+0	1.559292E+0	1.678698E+0	1.688845E+0	1.668007E+0	1.491391E+0	1.864890E+0	1.818626E+0	1.686718E+0	1.540949E+0	1.939818E+0	1.918204E+0	1.824530E+0	1.639181E+0	1.871596E+0	1.651106E+0	1.542391E+0	1.551234E+0	1.757352E+0	1.628512E+0	1.570744E+0	1.624064E+0	1.879106E+0	1.779130E+0	1.794559E+0	1.767322E+0	1.765776E+0	1.834228E+0	1.987783E+0
5.352500E+2	2.205323E+0	1.818278E+0	2.052089E+0	1.927988E+0	2.146659E+0	2.223793E+0	1.958533E+0	1.756975E+0	2.055216E+0	2.099318E+0	1.837002E+0	1.900638E+0	1.912788E+0	1.972467E+0	1.902185E+0	2.028401E+0	1.869156E+0	1.892615E+0	1.945904E+0	2.241039E+0	2.104098E+0	2.219130E+0	1.946847E+0	2.002380E+0	2.246307E+0	2.197965E+0	2.089437E+0	1.881424E+0	2.110296E+0	1.957635E+0	2.001518E+0	2.067376E+0	2.167653E+0	1.989032E+0	2.080076E+0	2.123266E+0	2.169279E+0	2.124922E+0	1.955066E+0	1.994049E+0	2.028571E+0	2.081091E+0	1.948530E+0	1.879226E+0	1.894894E+0	1.888900E+0	2.057726E+0	2.153110E+0	2.052548E+0	1.787978E+0	1.903839E+0	2.039318E+0	2.100267E+0	2.046920E+0	1.930283E+0	1.885866E+0	2.044476E+0	1.995183E+0	1.834579E+0	1.954866E+0	1.875024E+0	1.934952E+0	1.965941E+0	2.129042E+0	1.884661E+0	1.873258E+0	1.897904E+0	2.179464E+0	2.024678E+0	1.898190E+0	1.850962E+0	1.874980E+0	1.983478E+0	1.900217E+0	1.883537E+0	1.870348E+0	1.904961E+0	1.790318E+0	1.947304E+0	2.036332E+0	1.866398E+0	1.793069E+0	1.977306E+0	2.100665E+0	2.038952E+0	1.840184E+0	1.879807E+0	1.871742E+0	2.004396E+0	1.778771E+0	1.925124E+0	1.844524E+0	1.868062E+0	1.683383E+0	1.967906E+0	2.059219E+0	1.896085E+0	1.740170E+0	1.922905E+0	2.066343E+0	2.057499E+0	1.783550E+0	1.827755E+0	1.907138E+0	2.061389E+0	1.742649E+0	1.845775E+0	1.927811E+0	1.839305E+0	1.741030E+0	2.061685E+0	2.068288E+0	1.824098E+0	1.706817E+0	2.033236E+0	2.145650E+0	2.091349E+0	1.766937E+0	1.878901E+0	2.023369E+0	2.153292E+0	1.747718E+0	1.988239E+0	1.997763E+0	1.903407E+0	1.804120E+0	2.021648E+0	2.154519E+0	1.893191E+0	1.787008E+0	1.949297E+0	2.112973E+0	2.103114E+0	1.746207E+0	1.830070E+0	1.876388E+0	1.999753E+0	1.761633E+0	1.931161E+0	1.850837E+0	1.833286E+0	1.683723E+0	2.034500E+0	2.022944E+0	1.894505E+0	1.712184E+0	2.140442E+0	2.145731E+0	2.021220E+0	1.843621E+0	2.067987E+0	1.785244E+0	1.717254E+0	1.778982E+0	2.016089E+0	1.732871E+0	1.849051E+0	1.803191E+0	2.135401E+0	1.979688E+0	1.916939E+0	1.963422E+0	2.031724E+0	2.034002E+0	2.107472E+0
5.354110E+2	2.311337E+0	1.927437E+0	2.041632E+0	1.969372E+0	2.263477E+0	2.243543E+0	1.930570E+0	1.796733E+0	2.150535E+0	2.214805E+0	1.936186E+0	1.947119E+0	1.950687E+0	1.991344E+0	1.935555E+0	2.090539E+0	1.909876E+0	1.908857E+0	1.951877E+0	2.175777E+0	2.126649E+0	2.127389E+0	2.036533E+0	2.011326E+0	2.270027E+0	2.189113E+0	2.124461E+0	1.870707E+0	2.175479E+0	2.002025E+0	2.169577E+0	2.086931E+0	2.178176E+0	1.993824E+0	2.078872E+0	2.094517E+0	2.256311E+0	2.083858E+0	2.056769E+0	2.002546E+0	1.958984E+0	2.070331E+0	1.943496E+0	1.932555E+0	1.983610E+0	1.961500E+0	2.081502E+0	2.242135E+0	2.014800E+0	1.926302E+0	1.972744E+0	2.107587E+0	2.170821E+0	2.082848E+0	1.928550E+0	1.950548E+0	2.073810E+0	2.110152E+0	1.902731E+0	1.896333E+0	1.899159E+0	1.943603E+0	1.990184E+0	2.235979E+0	1.918341E+0	1.915552E+0	1.878625E+0	2.176035E+0	2.052392E+0	2.204204E+0	1.830251E+0	1.915133E+0	2.003576E+0	2.088857E+0	1.936403E+0	1.887585E+0	1.935331E+0	1.823898E+0	2.045789E+0	2.088665E+0	1.854925E+0	1.909049E+0	1.956285E+0	2.129555E+0	2.069803E+0	1.954763E+0	1.896639E+0	1.907175E+0	2.096197E+0	1.981081E+0	1.963566E+0	1.862642E+0	1.891862E+0	1.803123E+0	2.033729E+0	2.115337E+0	1.823658E+0	1.737247E+0	1.950554E+0	2.165362E+0	2.073272E+0	1.879855E+0	1.833240E+0	1.931191E+0	2.070537E+0	1.769386E+0	1.864243E+0	1.880356E+0	1.841467E+0	1.747137E+0	2.082718E+0	2.034984E+0	1.828635E+0	1.729910E+0	2.011616E+0	2.269234E+0	2.057563E+0	1.752314E+0	1.877736E+0	2.075662E+0	2.148236E+0	1.841676E+0	2.017403E+0	2.042593E+0	1.955792E+0	1.849246E+0	2.044429E+0	2.223152E+0	1.906000E+0	1.807179E+0	1.949979E+0	2.045018E+0	2.053590E+0	1.753878E+0	1.880706E+0	1.930077E+0	1.994177E+0	1.783171E+0	1.964505E+0	1.841632E+0	1.831616E+0	1.692703E+0	2.105381E+0	2.082613E+0	1.901781E+0	1.725540E+0	2.156925E+0	2.037249E+0	2.126031E+0	1.860246E+0	2.079378E+0	1.828971E+0	1.655897E+0	1.840662E+0	2.050202E+0	1.793907E+0	1.860156E+0	1.831503E+0	2.199471E+0	2.030457E+0	1.903423E+0	2.005502E+0	1.997750E+0	2.037538E+0	2.175866E+0
5.355630E+2	2.165024E+0	1.722928E+0	1.898536E+0	1.781392E+0	2.156390E+0	2.082820E+0	1.883338E+0	1.671139E+0	1.891535E+0	1.967147E+0	1.764819E+0	1.810611E+0	1.779351E+0	1.805641E+0	1.816912E+0	1.990495E+0	1.806053E+0	1.764368E+0	1.823536E+0	2.004818E+0	1.946815E+0	2.046255E+0	1.865951E+0	1.824654E+0	2.087690E+0	2.074671E+0	1.888218E+0	1.780791E+0	2.008111E+0	1.903199E+0	1.921399E+0	2.002614E+0	2.053907E+0	1.932711E+0	1.913795E+0	1.919285E+0	2.103136E+0	1.961804E+0	1.829224E+0	1.826984E+0	1.874137E+0	1.920310E+0	1.871173E+0	1.811636E+0	1.779130E+0	1.828126E+0	1.894850E+0	2.051707E+0	1.898513E+0	1.757304E+0	1.828039E+0	2.013717E+0	1.993261E+0	1.921165E+0	1.778211E+0	1.859330E+0	1.875780E+0	1.890780E+0	1.737035E+0	1.824291E+0	1.787610E+0	1.841396E+0	1.905913E+0	2.050184E+0	1.778535E+0	1.819145E+0	1.725010E+0	1.997162E+0	1.933695E+0	2.024227E+0	1.731873E+0	1.758931E+0	1.921889E+0	1.982977E+0	1.811336E+0	1.774932E+0	1.724456E+0	1.783604E+0	1.897443E+0	1.908397E+0	1.708131E+0	1.869370E+0	1.864551E+0	1.994273E+0	1.924114E+0	2.011451E+0	1.774723E+0	1.799133E+0	1.932084E+0	1.896890E+0	1.846958E+0	1.686650E+0	1.778391E+0	1.705897E+0	1.882518E+0	2.008141E+0	1.789895E+0	1.775808E+0	1.865574E+0	1.932966E+0	1.970177E+0	1.918944E+0	1.673514E+0	1.804759E+0	1.860092E+0	1.770632E+0	1.795646E+0	1.731746E+0	1.750116E+0	1.753801E+0	1.942101E+0	1.943103E+0	1.763185E+0	1.612649E+0	1.829752E+0	2.077234E+0	1.957489E+0	1.654433E+0	1.757604E+0	1.958808E+0	2.031987E+0	1.628669E+0	1.889970E+0	1.966035E+0	1.788538E+0	1.748534E+0	1.953943E+0	2.065052E+0	1.763228E+0	1.724585E+0	1.835877E+0	1.926927E+0	1.983437E+0	1.618713E+0	1.754111E+0	1.835988E+0	1.830020E+0	1.608244E+0	1.807310E+0	1.728117E+0	1.680809E+0	1.569065E+0	1.980707E+0	1.947608E+0	1.785318E+0	1.607132E+0	2.005022E+0	2.009779E+0	1.938188E+0	1.730317E+0	1.937952E+0	1.724970E+0	1.599450E+0	1.721368E+0	1.899518E+0	1.734182E+0	1.730801E+0	1.668555E+0	1.984794E+0	1.991601E+0	1.892746E+0	1.815752E+0	1.864189E+0	1.890801E+0	1.953587E+0
5.357040E+2	1.904631E+0	1.603906E+0	1.657423E+0	1.657939E+0	1.832551E+0	1.828123E+0	1.609890E+0	1.503885E+0	1.744162E+0	1.713710E+0	1.550472E+0	1.594074E+0	1.606948E+0	1.622484E+0	1.622534E+0	1.743179E+0	1.641430E+0	1.566119E+0	1.533428E+0	1.761506E+0	1.745554E+0	1.824598E+0	1.565233E+0	1.636196E+0	1.895179E+0	1.834578E+0	1.782462E+0	1.488423E+0	1.814314E+0	1.661148E+0	1.754545E+0	1.772887E+0	1.807338E+0	1.693677E+0	1.723418E+0	1.747476E+0	1.817088E+0	1.745647E+0	1.660291E+0	1.634434E+0	1.672080E+0	1.693058E+0	1.587546E+0	1.660331E+0	1.585460E+0	1.649047E+0	1.711760E+0	1.776966E+0	1.748736E+0	1.571525E+0	1.624762E+0	1.781337E+0	1.902718E+0	1.719744E+0	1.652160E+0	1.643718E+0	1.761485E+0	1.723609E+0	1.544451E+0	1.589518E+0	1.570947E+0	1.572626E+0	1.654253E+0	1.759840E+0	1.584082E+0	1.620114E+0	1.596893E+0	1.799789E+0	1.734259E+0	1.810253E+0	1.549498E+0	1.611531E+0	1.724156E+0	1.725573E+0	1.555394E+0	1.538552E+0	1.543953E+0	1.578785E+0	1.708479E+0	1.732198E+0	1.533553E+0	1.598960E+0	1.657512E+0	1.839966E+0	1.755005E+0	1.789529E+0	1.538421E+0	1.581305E+0	1.764204E+0	1.725364E+0	1.688700E+0	1.541073E+0	1.555320E+0	1.501216E+0	1.664889E+0	1.747079E+0	1.565244E+0	1.651946E+0	1.622774E+0	1.763214E+0	1.775257E+0	1.803945E+0	1.532683E+0	1.585455E+0	1.715523E+0	1.783067E+0	1.517952E+0	1.581260E+0	1.532282E+0	1.659418E+0	1.755213E+0	1.735810E+0	1.619978E+0	1.469928E+0	1.647890E+0	1.844781E+0	1.724829E+0	1.671870E+0	1.576823E+0	1.827748E+0	1.746776E+0	1.730796E+0	1.683923E+0	1.749463E+0	1.656630E+0	1.633514E+0	1.790697E+0	1.811964E+0	1.603975E+0	1.533550E+0	1.624751E+0	1.722408E+0	1.772967E+0	1.498305E+0	1.579411E+0	1.567011E+0	1.688156E+0	1.460732E+0	1.646036E+0	1.467338E+0	1.569507E+0	1.433798E+0	1.747809E+0	1.727618E+0	1.579517E+0	1.449261E+0	1.797943E+0	1.857622E+0	1.765319E+0	1.514794E+0	1.778426E+0	1.545335E+0	1.438082E+0	1.538356E+0	1.709734E+0	1.497251E+0	1.528932E+0	1.511384E+0	1.817673E+0	1.737138E+0	1.707044E+0	1.643473E+0	1.680250E+0	1.747601E+0	1.819650E+0
5.358600E+2	1.617579E+0	1.370466E+0	1.487531E+0	1.354922E+0	1.637863E+0	1.655144E+0	1.421589E+0	1.291193E+0	1.510242E+0	1.514169E+0	1.375798E+0	1.414020E+0	1.395048E+0	1.369944E+0	1.429211E+0	1.577269E+0	1.410270E+0	1.363950E+0	1.368676E+0	1.630983E+0	1.494124E+0	1.557860E+0	1.394653E+0	1.436408E+0	1.596928E+0	1.589175E+0	1.556524E+0	1.376477E+0	1.545934E+0	1.430195E+0	1.563594E+0	1.550492E+0	1.540390E+0	1.459429E+0	1.507128E+0	1.522960E+0	1.633741E+0	1.571123E+0	1.431025E+0	1.402804E+0	1.448055E+0	1.460747E+0	1.390698E+0	1.419112E+0	1.414515E+0	1.412417E+0	1.482311E+0	1.580056E+0	1.482055E+0	1.418731E+0	1.415169E+0	1.588340E+0	1.498799E+0	1.558606E+0	1.386756E+0	1.413735E+0	1.422878E+0	1.532200E+0	1.378756E+0	1.392046E+0	1.406308E+0	1.508813E+0	1.483981E+0	1.578821E+0	1.391530E+0	1.444093E+0	1.394146E+0	1.541416E+0	1.466737E+0	1.528859E+0	1.353316E+0	1.427281E+0	1.517997E+0	1.559452E+0	1.356832E+0	1.336645E+0	1.365164E+0	1.344304E+0	1.464113E+0	1.535066E+0	1.401259E+0	1.414618E+0	1.413524E+0	1.643383E+0	1.505907E+0	1.568816E+0	1.341022E+0	1.344892E+0	1.546016E+0	1.521171E+0	1.430485E+0	1.306201E+0	1.444066E+0	1.331841E+0	1.468019E+0	1.548446E+0	1.441252E+0	1.382611E+0	1.432575E+0	1.527441E+0	1.521177E+0	1.567712E+0	1.407096E+0	1.443358E+0	1.553262E+0	1.576613E+0	1.360968E+0	1.292775E+0	1.338235E+0	1.386269E+0	1.520854E+0	1.519321E+0	1.377624E+0	1.363326E+0	1.474292E+0	1.607905E+0	1.453927E+0	1.532365E+0	1.393710E+0	1.477183E+0	1.514999E+0	1.593653E+0	1.422715E+0	1.505303E+0	1.429417E+0	1.416128E+0	1.501532E+0	1.624448E+0	1.385541E+0	1.353232E+0	1.436171E+0	1.481606E+0	1.587852E+0	1.477059E+0	1.402808E+0	1.413705E+0	1.414349E+0	1.464648E+0	1.464347E+0	1.370384E+0	1.370837E+0	1.315443E+0	1.557948E+0	1.554040E+0	1.400845E+0	1.285313E+0	1.559341E+0	1.567408E+0	1.573394E+0	1.338681E+0	1.505631E+0	1.335562E+0	1.244199E+0	1.293663E+0	1.448158E+0	1.332512E+0	1.336208E+0	1.338031E+0	1.621493E+0	1.508999E+0	1.432409E+0	1.445784E+0	1.513885E+0	1.537221E+0	1.497633E+0
5.360070E+2	1.398727E+0	1.140310E+0	1.262755E+0	1.180968E+0	1.338034E+0	1.407932E+0	1.108368E+0	1.063982E+0	1.276326E+0	1.288324E+0	1.218756E+0	1.202782E+0	1.190083E+0	1.155161E+0	1.146380E+0	1.264089E+0	1.180829E+0	1.184741E+0	1.177062E+0	1.320281E+0	1.323308E+0	1.323477E+0	1.184796E+0	1.179365E+0	1.450513E+0	1.297167E+0	1.276331E+0	1.121622E+0	1.291649E+0	1.218268E+0	1.278068E+0	1.290825E+0	1.301714E+0	1.231175E+0	1.265537E+0	1.231363E+0	1.297794E+0	1.285383E+0	1.177626E+0	1.226673E+0	1.204494E+0	1.239196E+0	1.166185E+0	1.233081E+0	1.206785E+0	1.175791E+0	1.283769E+0	1.329491E+0	1.195899E+0	1.164078E+0	1.230840E+0	1.250269E+0	1.344169E+0	1.280424E+0	1.206353E+0	1.189833E+0	1.249296E+0	1.250059E+0	1.189301E+0	1.198434E+0	1.159613E+0	1.194615E+0	1.261760E+0	1.336271E+0	1.168481E+0	1.167311E+0	1.149727E+0	1.337186E+0	1.254644E+0	1.317813E+0	1.122613E+0	1.164932E+0	1.221074E+0	1.273450E+0	1.147955E+0	1.161821E+0	1.129648E+0	1.136128E+0	1.276988E+0	1.238495E+0	1.191644E+0	1.197924E+0	1.237696E+0	1.363660E+0	1.321942E+0	1.311921E+0	1.159299E+0	1.158435E+0	1.290732E+0	1.272365E+0	1.170353E+0	1.038336E+0	1.188336E+0	1.137391E+0	1.215402E+0	1.286125E+0	1.171176E+0	1.178124E+0	1.218102E+0	1.287635E+0	1.298087E+0	1.343373E+0	1.210785E+0	1.175384E+0	1.298895E+0	1.346529E+0	1.132745E+0	1.166019E+0	1.130673E+0	1.169749E+0	1.263655E+0	1.252306E+0	1.189703E+0	1.124661E+0	1.278438E+0	1.376183E+0	1.265247E+0	1.293851E+0	1.205931E+0	1.301580E+0	1.322213E+0	1.293691E+0	1.180529E+0	1.230796E+0	1.141613E+0	1.222406E+0	1.299684E+0	1.371357E+0	1.211646E+0	1.238481E+0	1.203184E+0	1.304136E+0	1.289542E+0	1.275198E+0	1.163543E+0	1.241581E+0	1.216738E+0	1.298860E+0	1.217330E+0	1.101014E+0	1.143787E+0	1.123642E+0	1.282651E+0	1.227973E+0	1.178502E+0	1.235521E+0	1.373043E+0	1.358193E+0	1.267132E+0	1.299270E+0	1.292488E+0	1.138789E+0	1.079762E+0	1.278075E+0	1.300312E+0	1.146115E+0	1.134335E+0	1.185485E+0	1.366523E+0	1.312199E+0	1.223943E+0	1.179823E+0	1.336976E+0	1.328609E+0	1.338048E+0
5.362630E+2	1.061455E+0	8.871430E-1	9.380067E-1	9.158285E-1	9.973230E-1	9.605004E-1	8.628892E-1	8.279355E-1	9.671541E-1	9.713679E-1	8.319378E-1	8.656215E-1	8.639569E-1	9.005781E-1	8.831467E-1	1.000000E+0	9.301635E-1	8.576826E-1	9.144157E-1	1.046464E+0	9.997182E-1	9.448512E-1	9.169074E-1	9.443868E-1	1.056007E+0	1.016960E+0	9.604265E-1	8.566438E-1	1.032666E+0	9.223104E-1	9.226708E-1	9.645637E-1	9.815079E-1	9.406146E-1	9.347827E-1	9.698820E-1	1.010589E+0	9.882370E-1	8.857263E-1	8.999016E-1	9.261383E-1	9.214284E-1	9.209169E-1	8.740417E-1	8.713852E-1	8.730146E-1	9.479123E-1	1.035890E+0	9.432249E-1	9.192637E-1	9.000838E-1	1.004759E+0	1.027265E+0	9.826472E-1	8.351352E-1	8.509388E-1	9.186329E-1	9.088786E-1	8.579077E-1	9.257079E-1	8.710897E-1	9.831689E-1	9.443009E-1	1.002913E+0	8.831521E-1	9.079470E-1	8.934957E-1	1.033581E+0	9.304831E-1	1.011212E+0	8.286281E-1	8.888322E-1	9.358175E-1	9.612814E-1	8.739641E-1	8.811165E-1	8.775140E-1	8.753449E-1	9.390622E-1	9.727408E-1	9.228285E-1	9.189683E-1	9.045232E-1	9.789499E-1	9.831449E-1	9.543200E-1	8.968732E-1	8.778714E-1	9.493049E-1	9.971730E-1	8.833082E-1	9.380480E-1	9.171107E-1	8.769333E-1	8.845153E-1	9.733579E-1	9.103064E-1	8.830771E-1	9.031318E-1	9.959584E-1	9.859859E-1	1.082779E+0	8.035395E-1	9.230765E-1	9.865794E-1	1.002021E+0	8.774790E-1	8.687939E-1	8.560843E-1	9.126972E-1	9.469685E-1	9.812655E-1	9.194854E-1	8.919200E-1	9.560446E-1	1.003954E+0	9.656588E-1	9.968350E-1	9.481717E-1	9.142149E-1	1.104878E+0	9.791384E-1	8.781142E-1	9.749120E-1	9.478514E-1	8.685372E-1	9.801476E-1	1.053926E+0	9.291458E-1	9.654806E-1	9.107493E-1	1.003299E+0	9.900511E-1	1.020216E+0	8.818711E-1	9.239002E-1	9.584180E-1	1.016236E+0	9.213189E-1	8.795034E-1	8.705451E-1	8.948524E-1	1.026976E+0	9.959313E-1	9.012353E-1	8.930549E-1	1.029109E+0	1.039799E+0	1.013271E+0	1.006158E+0	9.968998E-1	8.693349E-1	8.392468E-1	9.717015E-1	9.427807E-1	8.553620E-1	8.730142E-1	9.399047E-1	1.075880E+0	1.000078E+0	9.080398E-1	9.535555E-1	9.702712E-1	9.184545E-1	1.098671E+0
5.365090E+2	7.824638E-1	6.563309E-1	6.955877E-1	6.997888E-1	7.584998E-1	7.950125E-1	7.075224E-1	6.392245E-1	7.112875E-1	6.999676E-1	6.605705E-1	6.726221E-1	7.043649E-1	7.005883E-1	6.855892E-1	7.359090E-1	7.230926E-1	6.661530E-1	7.210114E-1	7.400168E-1	7.370117E-1	7.390996E-1	6.818444E-1	7.028500E-1	7.719895E-1	7.809948E-1	7.516552E-1	6.791983E-1	7.807307E-1	6.998149E-1	7.612352E-1	7.354466E-1	7.737348E-1	6.859995E-1	6.660811E-1	7.255149E-1	7.825646E-1	7.013558E-1	7.070243E-1	6.920582E-1	7.314117E-1	7.536824E-1	6.863397E-1	6.756086E-1	6.852929E-1	7.132912E-1	7.285654E-1	7.517204E-1	7.325625E-1	6.854453E-1	6.870448E-1	7.927276E-1	7.738613E-1	7.463848E-1	7.056140E-1	6.474919E-1	6.888198E-1	7.354925E-1	6.565712E-1	7.250217E-1	6.935775E-1	7.143973E-1	7.399729E-1	7.699200E-1	6.594649E-1	6.946085E-1	7.081622E-1	7.779510E-1	7.443013E-1	7.350941E-1	6.623628E-1	7.260315E-1	7.179868E-1	7.556063E-1	6.328524E-1	6.656649E-1	6.609078E-1	6.554155E-1	6.928495E-1	7.337387E-1	6.727400E-1	6.680922E-1	7.172309E-1	7.795499E-1	7.294791E-1	7.939117E-1	6.669612E-1	6.577217E-1	7.587847E-1	7.634472E-1	6.878874E-1	6.824744E-1	6.990217E-1	6.947671E-1	7.190708E-1	7.696807E-1	7.009972E-1	6.937805E-1	7.109132E-1	7.817466E-1	7.600782E-1	7.780000E-1	6.108898E-1	6.914672E-1	7.602713E-1	7.968091E-1	6.664062E-1	6.708527E-1	6.609537E-1	6.728578E-1	7.228234E-1	7.521466E-1	6.473246E-1	6.846431E-1	7.163150E-1	7.648745E-1	7.553091E-1	7.926368E-1	7.143227E-1	7.327994E-1	7.799560E-1	7.935571E-1	7.170796E-1	7.617893E-1	7.313681E-1	7.474619E-1	7.441328E-1	8.130955E-1	6.985073E-1	7.151783E-1	7.276369E-1	7.486415E-1	7.601285E-1	7.487081E-1	6.710904E-1	6.709731E-1	7.279739E-1	7.179471E-1	6.770242E-1	6.678104E-1	6.885702E-1	6.655368E-1	7.978784E-1	7.217005E-1	6.762451E-1	7.321440E-1	8.248985E-1	7.707135E-1	8.056919E-1	7.764713E-1	7.576151E-1	6.837888E-1	6.312496E-1	7.303985E-1	7.949348E-1	6.610896E-1	6.476247E-1	7.255281E-1	7.680651E-1	7.807155E-1	7.116673E-1	7.296704E-1	7.265824E-1	7.646477E-1	8.051504E-1
5.367760E+2	6.150685E-1	5.524335E-1	6.165241E-1	6.464803E-1	6.137783E-1	6.336111E-1	5.235685E-1	5.167832E-1	5.758290E-1	5.677958E-1	5.376926E-1	5.755342E-1	5.255562E-1	5.628390E-1	5.219290E-1	5.898825E-1	6.227119E-1	5.978297E-1	5.532754E-1	6.556020E-1	6.084770E-1	6.717534E-1	5.839505E-1	5.734335E-1	6.370990E-1	6.824798E-1	6.452103E-1	5.559389E-1	5.928064E-1	5.772042E-1	6.016076E-1	6.095851E-1	6.540686E-1	5.859506E-1	6.196909E-1	5.810854E-1	6.276473E-1	6.426110E-1	5.852082E-1	5.940830E-1	5.794148E-1	5.808720E-1	5.328903E-1	5.528281E-1	5.495106E-1	5.433495E-1	6.031393E-1	6.479573E-1	5.706087E-1	5.453862E-1	5.532492E-1	5.905421E-1	6.539203E-1	6.015788E-1	5.662626E-1	5.568254E-1	5.751349E-1	5.938001E-1	5.677832E-1	5.359138E-1	5.149933E-1	5.510799E-1	5.645046E-1	6.420732E-1	5.552472E-1	5.714564E-1	5.371331E-1	6.449963E-1	5.882464E-1	6.131567E-1	5.208351E-1	5.390317E-1	5.688767E-1	6.028696E-1	5.735415E-1	5.505520E-1	5.600535E-1	5.462897E-1	5.629727E-1	5.994086E-1	5.555480E-1	6.137658E-1	5.630658E-1	6.541319E-1	6.283548E-1	6.129998E-1	5.334262E-1	5.357384E-1	6.003323E-1	6.114000E-1	6.071562E-1	5.621286E-1	5.523385E-1	5.586527E-1	5.826833E-1	6.303229E-1	5.665727E-1	5.821894E-1	5.922095E-1	6.059321E-1	6.259984E-1	6.471370E-1	5.450476E-1	5.409773E-1	6.303430E-1	6.338840E-1	5.424007E-1	5.547100E-1	5.474431E-1	5.818080E-1	6.615291E-1	6.097372E-1	5.384597E-1	5.768590E-1	6.031276E-1	6.560015E-1	6.450350E-1	6.632551E-1	5.323756E-1	6.288567E-1	6.463771E-1	6.383232E-1	5.972548E-1	6.203973E-1	6.164997E-1	5.895136E-1	6.023976E-1	6.715381E-1	5.880693E-1	5.695355E-1	5.800539E-1	6.239513E-1	6.351447E-1	6.188562E-1	5.761450E-1	5.508740E-1	5.966456E-1	6.539812E-1	5.817567E-1	5.684067E-1	5.461067E-1	5.672582E-1	6.149808E-1	6.240613E-1	5.253690E-1	5.651607E-1	6.357340E-1	6.389880E-1	6.103635E-1	6.490042E-1	6.255729E-1	5.620617E-1	4.901306E-1	6.334703E-1	5.795628E-1	5.390128E-1	5.463627E-1	5.394648E-1	6.650197E-1	6.002110E-1	5.850214E-1	5.788259E-1	5.578738E-1	6.426623E-1	6.199187E-1
5.370230E+2	5.642301E-1	4.445901E-1	4.740786E-1	5.489816E-1	5.417420E-1	5.335006E-1	5.117605E-1	4.536693E-1	5.369472E-1	5.427731E-1	4.820394E-1	5.043362E-1	4.897946E-1	4.781493E-1	4.742609E-1	4.836249E-1	5.154479E-1	5.076648E-1	5.108935E-1	5.860840E-1	5.453374E-1	5.609233E-1	5.100909E-1	4.988852E-1	5.672806E-1	5.385405E-1	5.325835E-1	4.791251E-1	5.516976E-1	5.322819E-1	5.196852E-1	5.466546E-1	5.350596E-1	5.398205E-1	5.582389E-1	5.235872E-1	5.905133E-1	5.091517E-1	4.984423E-1	4.932770E-1	5.006694E-1	5.283330E-1	5.058476E-1	4.846173E-1	5.040691E-1	4.809660E-1	5.044629E-1	5.447839E-1	5.663466E-1	4.904043E-1	4.682633E-1	5.426217E-1	5.557337E-1	5.128445E-1	4.650740E-1	5.186794E-1	5.030128E-1	5.627277E-1	5.083827E-1	4.760941E-1	4.753077E-1	5.170104E-1	5.443026E-1	5.650062E-1	4.929710E-1	5.105025E-1	4.531733E-1	5.483635E-1	5.057002E-1	5.721200E-1	4.926452E-1	4.730312E-1	5.150677E-1	5.694016E-1	4.742603E-1	5.062304E-1	4.826943E-1	4.685030E-1	5.032660E-1	5.523060E-1	4.866833E-1	5.411278E-1	4.961761E-1	5.752175E-1	5.278021E-1	5.683749E-1	4.736254E-1	4.828791E-1	5.324242E-1	5.071032E-1	5.238621E-1	5.207191E-1	4.925577E-1	5.146466E-1	5.026298E-1	5.376282E-1	4.812531E-1	4.764407E-1	5.065542E-1	5.614731E-1	5.229029E-1	5.746239E-1	4.938369E-1	4.906277E-1	5.455538E-1	5.698331E-1	4.665461E-1	5.022585E-1	5.123087E-1	4.918680E-1	5.112974E-1	5.626498E-1	5.112440E-1	4.933565E-1	5.300001E-1	5.633121E-1	5.934039E-1	5.254351E-1	4.851393E-1	5.604221E-1	6.073860E-1	5.607065E-1	5.344898E-1	5.017655E-1	4.965818E-1	5.130161E-1	5.467159E-1	6.078068E-1	5.099692E-1	5.291844E-1	4.939636E-1	5.619363E-1	5.832649E-1	5.822614E-1	4.875287E-1	4.855665E-1	5.247869E-1	5.345358E-1	5.069034E-1	5.039789E-1	4.787705E-1	4.969838E-1	5.687817E-1	5.179853E-1	5.247072E-1	5.141551E-1	5.705302E-1	5.734776E-1	5.879041E-1	5.252324E-1	5.665893E-1	5.047433E-1	4.619067E-1	5.406097E-1	5.717437E-1	4.773178E-1	4.803791E-1	5.019057E-1	5.474426E-1	5.362826E-1	5.387741E-1	5.026094E-1	5.086680E-1	4.959266E-1	5.401270E-1
5.372640E+2	5.642303E-1	4.366991E-1	5.008686E-1	4.858537E-1	5.352525E-1	5.382678E-1	4.769584E-1	4.580876E-1	4.943030E-1	4.940110E-1	4.434678E-1	4.301964E-1	4.663091E-1	4.812104E-1	4.737315E-1	4.724400E-1	5.217572E-1	4.869437E-1	5.019391E-1	5.130190E-1	5.261699E-1	5.354697E-1	4.983666E-1	4.798007E-1	5.381335E-1	4.907581E-1	5.167884E-1	4.725745E-1	5.064784E-1	5.058569E-1	5.052282E-1	5.228261E-1	5.528121E-1	5.134602E-1	5.293201E-1	4.886778E-1	5.794893E-1	5.331060E-1	4.645411E-1	4.836492E-1	5.104366E-1	5.074438E-1	4.662273E-1	4.647738E-1	4.981185E-1	4.858066E-1	5.324016E-1	5.288657E-1	4.896313E-1	4.684114E-1	4.734313E-1	5.367138E-1	5.204567E-1	5.433299E-1	4.720128E-1	4.584186E-1	4.956784E-1	5.310333E-1	4.764941E-1	4.664454E-1	4.554648E-1	4.705026E-1	4.929321E-1	5.446941E-1	4.739062E-1	5.136122E-1	4.295404E-1	5.469936E-1	5.020847E-1	5.469121E-1	4.575505E-1	4.834811E-1	5.202538E-1	5.048990E-1	4.510517E-1	4.717584E-1	4.574807E-1	4.601088E-1	5.235789E-1	5.179967E-1	4.854751E-1	4.806976E-1	4.802499E-1	5.554891E-1	5.020929E-1	5.587265E-1	4.504020E-1	4.968206E-1	5.487725E-1	5.083601E-1	4.918259E-1	4.650748E-1	4.593463E-1	4.747334E-1	4.889905E-1	5.338443E-1	4.806393E-1	5.044840E-1	4.802503E-1	5.190346E-1	5.167061E-1	5.547967E-1	4.792050E-1	4.755227E-1	5.303037E-1	5.039167E-1	4.922706E-1	4.672909E-1	4.631207E-1	4.768780E-1	5.046876E-1	5.115434E-1	4.652354E-1	4.394645E-1	5.007494E-1	5.758177E-1	5.264747E-1	5.524368E-1	4.927205E-1	5.158753E-1	5.481787E-1	5.636250E-1	4.951823E-1	5.265960E-1	5.022622E-1	4.700899E-1	4.998924E-1	5.710387E-1	5.069189E-1	5.102696E-1	5.083123E-1	5.117963E-1	5.355115E-1	5.291408E-1	4.818320E-1	5.054911E-1	5.272643E-1	5.430208E-1	4.994182E-1	4.561177E-1	4.793268E-1	4.663379E-1	5.314426E-1	5.216019E-1	4.651508E-1	5.086904E-1	5.612155E-1	5.389615E-1	5.443469E-1	5.369323E-1	5.156491E-1	4.840620E-1	4.165027E-1	5.297642E-1	5.347820E-1	5.022589E-1	4.673129E-1	4.776365E-1	5.613142E-1	5.450571E-1	4.811440E-1	5.534200E-1	4.992942E-1	5.701796E-1	5.543750E-1
5.375060E+2	6.039094E-1	4.886482E-1	5.675173E-1	5.391616E-1	5.631585E-1	5.300958E-1	6.037377E-1	4.543005E-1	5.162525E-1	5.363571E-1	5.415501E-1	4.919800E-1	4.844568E-1	4.965157E-1	5.362293E-1	5.470068E-1	5.315088E-1	5.132654E-1	5.210413E-1	5.945964E-1	5.419552E-1	6.033463E-1	5.224003E-1	4.947104E-1	6.113406E-1	5.580084E-1	5.559329E-1	5.106837E-1	5.716648E-1	5.127275E-1	5.184801E-1	5.381008E-1	5.751677E-1	5.398204E-1	5.558290E-1	5.495983E-1	6.038583E-1	5.502159E-1	4.955699E-1	4.774195E-1	5.440100E-1	5.080771E-1	5.008166E-1	5.230635E-1	5.186750E-1	5.078560E-1	5.169461E-1	5.577541E-1	5.267715E-1	5.262871E-1	4.912323E-1	5.294931E-1	5.574973E-1	5.438742E-1	4.754819E-1	4.794273E-1	5.457975E-1	5.453272E-1	4.965031E-1	5.108277E-1	4.635095E-1	5.116028E-1	5.275639E-1	5.279662E-1	5.463508E-1	5.067707E-1	5.122563E-1	5.606997E-1	4.984699E-1	5.633268E-1	4.621530E-1	5.032813E-1	5.001564E-1	5.310648E-1	5.232564E-1	5.154641E-1	5.038965E-1	4.998418E-1	5.241947E-1	5.284640E-1	4.788302E-1	5.521149E-1	5.229318E-1	5.505567E-1	5.363716E-1	5.804360E-1	4.794315E-1	5.119226E-1	5.506590E-1	5.422877E-1	5.277064E-1	5.084256E-1	4.704172E-1	4.834324E-1	5.221982E-1	5.086209E-1	4.978262E-1	5.190904E-1	5.099263E-1	5.264448E-1	5.285369E-1	5.270381E-1	4.981045E-1	4.945435E-1	5.504337E-1	5.573954E-1	5.021650E-1	4.910190E-1	4.679857E-1	4.918682E-1	5.215132E-1	5.408290E-1	5.138358E-1	4.903954E-1	5.617948E-1	5.603698E-1	5.800186E-1	5.760629E-1	5.113815E-1	5.094191E-1	5.727279E-1	5.782142E-1	5.275157E-1	5.397002E-1	5.275076E-1	5.212714E-1	5.321625E-1	6.078063E-1	5.197319E-1	5.512516E-1	5.499907E-1	5.658951E-1	5.537876E-1	5.574718E-1	4.938583E-1	5.154531E-1	5.229278E-1	5.652128E-1	4.926134E-1	5.315909E-1	5.015868E-1	4.806043E-1	5.611871E-1	5.342582E-1	4.929439E-1	5.190128E-1	5.755458E-1	5.910879E-1	5.572780E-1	5.510951E-1	5.558653E-1	4.970616E-1	4.698830E-1	4.999407E-1	5.042180E-1	5.173541E-1	4.718864E-1	5.076840E-1	5.626350E-1	5.362823E-1	5.409091E-1	5.589774E-1	4.887505E-1	5.754825E-1	6.712125E-1
5.377690E+2	6.646673E-1	5.162665E-1	6.491949E-1	6.198262E-1	6.507702E-1	6.683429E-1	7.162230E-1	5.111030E-1	5.927615E-1	5.851195E-1	6.159376E-1	5.472902E-1	5.239550E-1	5.883482E-1	6.040242E-1	6.085246E-1	5.951789E-1	5.877490E-1	6.069984E-1	6.421243E-1	6.259534E-1	6.728136E-1	6.267427E-1	5.835718E-1	6.350652E-1	6.441351E-1	6.919085E-1	5.458162E-1	6.168839E-1	5.756185E-1	6.323283E-1	6.095848E-1	6.264534E-1	5.973336E-1	6.341501E-1	5.975132E-1	6.607192E-1	5.764520E-1	5.949763E-1	5.765272E-1	6.264179E-1	5.947986E-1	6.083571E-1	5.553086E-1	5.862958E-1	5.847599E-1	6.174062E-1	6.261434E-1	5.748702E-1	5.633277E-1	5.595658E-1	5.892295E-1	6.833179E-1	6.293429E-1	5.419772E-1	5.203378E-1	6.295328E-1	6.466243E-1	5.746612E-1	5.899451E-1	5.584330E-1	5.819049E-1	5.587326E-1	6.450599E-1	5.647791E-1	6.006891E-1	5.103903E-1	6.182680E-1	5.792083E-1	6.706082E-1	5.496006E-1	5.698316E-1	5.889741E-1	6.448570E-1	5.625822E-1	5.413186E-1	5.342670E-1	5.250245E-1	5.765148E-1	6.180175E-1	5.942094E-1	6.003366E-1	5.910961E-1	6.703384E-1	6.237843E-1	6.473735E-1	5.415543E-1	5.566494E-1	6.003322E-1	6.082585E-1	5.962634E-1	5.640695E-1	5.506776E-1	5.796333E-1	5.915779E-1	6.448267E-1	5.598206E-1	5.564825E-1	5.814184E-1	6.375922E-1	6.259983E-1	6.397728E-1	5.523635E-1	5.728658E-1	6.163132E-1	6.407245E-1	5.100799E-1	5.284843E-1	5.647397E-1	5.884701E-1	5.954272E-1	6.074400E-1	5.915961E-1	5.519861E-1	5.808714E-1	6.376108E-1	6.074273E-1	5.991269E-1	5.551186E-1	6.249826E-1	6.781477E-1	6.517458E-1	5.997911E-1	6.038433E-1	5.994586E-1	6.395949E-1	6.030303E-1	6.488646E-1	5.795272E-1	5.569260E-1	5.834700E-1	6.325279E-1	6.522418E-1	6.342022E-1	5.780436E-1	5.912763E-1	6.325749E-1	6.402744E-1	5.878810E-1	5.855879E-1	5.900698E-1	5.403112E-1	6.137150E-1	6.077885E-1	5.855872E-1	5.858066E-1	7.102536E-1	6.270129E-1	6.539211E-1	6.656309E-1	6.403182E-1	5.839257E-1	4.987205E-1	6.016130E-1	5.681898E-1	5.567339E-1	5.189241E-1	6.059160E-1	6.676621E-1	5.795284E-1	5.935598E-1	5.915281E-1	6.363699E-1	6.797883E-1	6.997107E-1
5.380160E+2	7.421653E-1	6.017524E-1	7.641967E-1	7.025944E-1	7.455201E-1	7.548322E-1	7.926631E-1	6.253395E-1	6.767958E-1	6.749446E-1	7.134686E-1	6.243724E-1	6.429829E-1	6.592637E-1	7.237239E-1	6.793627E-1	7.041634E-1	6.437515E-1	6.971344E-1	7.556229E-1	7.246091E-1	7.539474E-1	7.140848E-1	6.515602E-1	7.435204E-1	7.320324E-1	7.550892E-1	6.500209E-1	7.325749E-1	6.575352E-1	7.112385E-1	7.103965E-1	7.448047E-1	6.362748E-1	7.371723E-1	7.214082E-1	7.674789E-1	7.156146E-1	7.633354E-1	6.507164E-1	6.630433E-1	7.239312E-1	7.247023E-1	7.090940E-1	6.863746E-1	6.358497E-1	7.119212E-1	7.705860E-1	7.100354E-1	6.171523E-1	7.243694E-1	7.047638E-1	7.368211E-1	6.963021E-1	7.541845E-1	6.458334E-1	6.930982E-1	6.702393E-1	7.084687E-1	6.735637E-1	6.587186E-1	6.700530E-1	7.209255E-1	7.048020E-1	6.149818E-1	6.647532E-1	6.733344E-1	7.162710E-1	6.774205E-1	7.362664E-1	6.502807E-1	6.369315E-1	6.810335E-1	7.190953E-1	6.077096E-1	6.336547E-1	6.448622E-1	6.307921E-1	7.076225E-1	7.255977E-1	6.201846E-1	6.778583E-1	6.834675E-1	7.020444E-1	6.912003E-1	6.919981E-1	6.408347E-1	6.333253E-1	7.153992E-1	6.779990E-1	6.455994E-1	6.333006E-1	6.392412E-1	6.338741E-1	6.698529E-1	7.104067E-1	6.666236E-1	6.318504E-1	6.360490E-1	7.211210E-1	7.364174E-1	6.986892E-1	6.523462E-1	6.170618E-1	6.968325E-1	7.582547E-1	6.703634E-1	6.383827E-1	6.350082E-1	6.478745E-1	7.114055E-1	7.016142E-1	6.492685E-1	6.254212E-1	6.622649E-1	7.751731E-1	7.380992E-1	7.448219E-1	6.560066E-1	7.282798E-1	7.351893E-1	7.381162E-1	6.790398E-1	6.928174E-1	6.493189E-1	6.819712E-1	6.827566E-1	7.530405E-1	6.893552E-1	6.817622E-1	6.804927E-1	7.097172E-1	7.070692E-1	7.670048E-1	6.577982E-1	6.538161E-1	7.267350E-1	7.101146E-1	6.395976E-1	6.322212E-1	6.145557E-1	6.401746E-1	6.890254E-1	7.446033E-1	6.563925E-1	6.392407E-1	7.711585E-1	7.629647E-1	7.301472E-1	7.321348E-1	6.865671E-1	6.288346E-1	5.987306E-1	7.134529E-1	7.736106E-1	6.276166E-1	6.365186E-1	6.226733E-1	7.231481E-1	7.299487E-1	7.045523E-1	7.010895E-1	6.902627E-1	7.575768E-1	7.510048E-1
5.382690E+2	8.866205E-1	7.247202E-1	8.798520E-1	8.456858E-1	8.474097E-1	8.978465E-1	9.163353E-1	7.080184E-1	8.260517E-1	8.468963E-1	8.721632E-1	7.461736E-1	7.561394E-1	7.888494E-1	8.375971E-1	7.769212E-1	7.735695E-1	8.112006E-1	7.789133E-1	8.726687E-1	8.728750E-1	9.093225E-1	9.010801E-1	8.000612E-1	9.150152E-1	8.913085E-1	9.185349E-1	7.435072E-1	8.917232E-1	8.234829E-1	8.672531E-1	8.735274E-1	8.618415E-1	8.621330E-1	8.540515E-1	8.281900E-1	9.009286E-1	8.627622E-1	8.690622E-1	8.047583E-1	8.309114E-1	8.473672E-1	8.379031E-1	7.661434E-1	8.010595E-1	8.014888E-1	8.801467E-1	8.525352E-1	8.184106E-1	7.878858E-1	8.616103E-1	8.327705E-1	8.414751E-1	8.144332E-1	8.559511E-1	7.619309E-1	8.397875E-1	8.280894E-1	8.579080E-1	8.125001E-1	7.970815E-1	8.068716E-1	8.761910E-1	8.595328E-1	7.350867E-1	7.667576E-1	8.555583E-1	8.882903E-1	8.455267E-1	8.922052E-1	8.343817E-1	7.711313E-1	7.964322E-1	8.712233E-1	8.423744E-1	7.383029E-1	8.053121E-1	8.216213E-1	8.615050E-1	8.477154E-1	7.585193E-1	7.913940E-1	8.121511E-1	8.683287E-1	8.214616E-1	8.403457E-1	7.430181E-1	7.489183E-1	8.323515E-1	8.444972E-1	7.974510E-1	7.549410E-1	7.305722E-1	7.387735E-1	8.275880E-1	8.667899E-1	7.494882E-1	8.106304E-1	7.985917E-1	8.632550E-1	8.406386E-1	9.156611E-1	7.413553E-1	7.669921E-1	8.377414E-1	8.446922E-1	7.871135E-1	7.626425E-1	7.874374E-1	7.666841E-1	8.484169E-1	8.354104E-1	7.730369E-1	7.533405E-1	7.970730E-1	8.906671E-1	8.655834E-1	8.162634E-1	7.376492E-1	8.625663E-1	8.658799E-1	8.834293E-1	7.963294E-1	8.286918E-1	7.515653E-1	8.008449E-1	8.637222E-1	9.031773E-1	7.747769E-1	7.996630E-1	8.150938E-1	8.047186E-1	8.627092E-1	8.750180E-1	7.489466E-1	7.633994E-1	8.208951E-1	8.582798E-1	7.654879E-1	7.420563E-1	7.175083E-1	7.331691E-1	8.497737E-1	8.446521E-1	7.583004E-1	8.019730E-1	9.216297E-1	8.714443E-1	8.601393E-1	8.768438E-1	8.615066E-1	7.411077E-1	7.447582E-1	8.591834E-1	8.574854E-1	7.680703E-1	7.462730E-1	7.659768E-1	8.942294E-1	7.901170E-1	7.942005E-1	8.312922E-1	8.460829E-1	7.893985E-1	9.305388E-1
5.385110E+2	1.107334E+0	8.858278E-1	1.065424E+0	1.075754E+0	1.051837E+0	1.046990E+0	1.107747E+0	8.784267E-1	9.909847E-1	9.816337E-1	1.046286E+0	8.926883E-1	9.242727E-1	9.148651E-1	1.018737E+0	9.975142E-1	9.858024E-1	9.635281E-1	9.848529E-1	1.030857E+0	1.044256E+0	1.095984E+0	1.045284E+0	9.909053E-1	1.131248E+0	1.031707E+0	1.104643E+0	9.167852E-1	1.099614E+0	9.809735E-1	1.061818E+0	1.019551E+0	1.031478E+0	9.681730E-1	9.914147E-1	9.733045E-1	1.095301E+0	1.035003E+0	1.105802E+0	9.049981E-1	1.006104E+0	9.499134E-1	1.073738E+0	9.292305E-1	9.779560E-1	9.284074E-1	1.109004E+0	1.012897E+0	9.791472E-1	9.250510E-1	1.028712E+0	1.006729E+0	1.060192E+0	1.042530E+0	1.024792E+0	9.427112E-1	1.013982E+0	1.018876E+0	1.020478E+0	9.765225E-1	8.973679E-1	8.993461E-1	1.014143E+0	9.861858E-1	9.079356E-1	9.539732E-1	1.014149E+0	1.069219E+0	9.660324E-1	1.039938E+0	1.051850E+0	9.179812E-1	9.999999E-1	1.061688E+0	1.063500E+0	9.131266E-1	9.227835E-1	9.436185E-1	1.083712E+0	9.547137E-1	9.349101E-1	9.726842E-1	1.058051E+0	1.036727E+0	1.054562E+0	1.004977E+0	1.123884E+0	9.028488E-1	1.065629E+0	1.000314E+0	1.105639E+0	9.179900E-1	9.270731E-1	9.045672E-1	1.036913E+0	1.038938E+0	9.348591E-1	9.432548E-1	1.059605E+0	1.054563E+0	9.966893E-1	1.022730E+0	1.057154E+0	9.745449E-1	1.061608E+0	1.023164E+0	1.062168E+0	9.231187E-1	9.409461E-1	9.010373E-1	1.089989E+0	1.008254E+0	9.428139E-1	8.889587E-1	9.655827E-1	1.053241E+0	1.047249E+0	1.063215E+0	8.933538E-1	1.012993E+0	1.108488E+0	1.017070E+0	9.694099E-1	1.052160E+0	9.794087E-1	9.989685E-1	1.028236E+0	1.071698E+0	9.742969E-1	1.019074E+0	9.838582E-1	1.042223E+0	1.052543E+0	1.036742E+0	9.318764E-1	8.691089E-1	1.009834E+0	1.080855E+0	9.628288E-1	9.144792E-1	9.273079E-1	9.233862E-1	1.014319E+0	1.005575E+0	9.124858E-1	9.270588E-1	1.123691E+0	1.098266E+0	1.012591E+0	1.063427E+0	1.014327E+0	9.296074E-1	8.956947E-1	1.061173E+0	1.004620E+0	9.321522E-1	9.331177E-1	9.583954E-1	1.058708E+0	9.988246E-1	9.279613E-1	9.940455E-1	1.026508E+0	1.028065E+0	1.078724E+0
5.387650E+2	1.311310E+0	1.079814E+0	1.243154E+0	1.239188E+0	1.234198E+0	1.275813E+0	1.329608E+0	1.068400E+0	1.169089E+0	1.224805E+0	1.261184E+0	1.099809E+0	1.078530E+0	1.140873E+0	1.159622E+0	1.225565E+0	1.179682E+0	1.155620E+0	1.213475E+0	1.374900E+0	1.254535E+0	1.292188E+0	1.316690E+0	1.191291E+0	1.382050E+0	1.303656E+0	1.324403E+0	1.086490E+0	1.270508E+0	1.152735E+0	1.241324E+0	1.213232E+0	1.266208E+0	1.133524E+0	1.240235E+0	1.199191E+0	1.267044E+0	1.251163E+0	1.260944E+0	1.140027E+0	1.238067E+0	1.182225E+0	1.254859E+0	1.136967E+0	1.144573E+0	1.129539E+0	1.304572E+0	1.250491E+0	1.161801E+0	1.129930E+0	1.237731E+0	1.202350E+0	1.302425E+0	1.215644E+0	1.303494E+0	1.141737E+0	1.116052E+0	1.204692E+0	1.258704E+0	1.082654E+0	1.114564E+0	1.145945E+0	1.296391E+0	1.230528E+0	1.104932E+0	1.180372E+0	1.270381E+0	1.280988E+0	1.235364E+0	1.267396E+0	1.313618E+0	1.149531E+0	1.173097E+0	1.261887E+0	1.295589E+0	1.058401E+0	1.099851E+0	1.094717E+0	1.267141E+0	1.243146E+0	1.078681E+0	1.160078E+0	1.292484E+0	1.329838E+0	1.236812E+0	1.257650E+0	1.307927E+0	1.131712E+0	1.280042E+0	1.256031E+0	1.372181E+0	1.048042E+0	1.113613E+0	1.094921E+0	1.269365E+0	1.243247E+0	1.147236E+0	1.183965E+0	1.297011E+0	1.222296E+0	1.265977E+0	1.285023E+0	1.327842E+0	1.159160E+0	1.211665E+0	1.273769E+0	1.277199E+0	1.082347E+0	1.134458E+0	1.097575E+0	1.311731E+0	1.185692E+0	1.071767E+0	1.082021E+0	1.261271E+0	1.312920E+0	1.236562E+0	1.254473E+0	1.321981E+0	1.239601E+0	1.289000E+0	1.286101E+0	1.285773E+0	1.245281E+0	1.168122E+0	1.169574E+0	1.312339E+0	1.311304E+0	1.154903E+0	1.155258E+0	1.186103E+0	1.193303E+0	1.299563E+0	1.236833E+0	1.073662E+0	1.107091E+0	1.247092E+0	1.203564E+0	1.162891E+0	1.091812E+0	1.144341E+0	1.086127E+0	1.209874E+0	1.223755E+0	1.132843E+0	1.156584E+0	1.294942E+0	1.273665E+0	1.282783E+0	1.236459E+0	1.216077E+0	1.135244E+0	9.834336E-1	1.173690E+0	1.221416E+0	1.083764E+0	1.113430E+0	1.145615E+0	1.219220E+0	1.264568E+0	1.201175E+0	1.160769E+0	1.216304E+0	1.252589E+0	1.235460E+0
5.390340E+2	1.514042E+0	1.231056E+0	1.543730E+0	1.452419E+0	1.548954E+0	1.500549E+0	1.566387E+0	1.243224E+0	1.438751E+0	1.396754E+0	1.435858E+0	1.310462E+0	1.277621E+0	1.326069E+0	1.407496E+0	1.393340E+0	1.463615E+0	1.385230E+0	1.404495E+0	1.549403E+0	1.483412E+0	1.579604E+0	1.553511E+0	1.386905E+0	1.566423E+0	1.516617E+0	1.570255E+0	1.311573E+0	1.498367E+0	1.366775E+0	1.429869E+0	1.435016E+0	1.462147E+0	1.408508E+0	1.505319E+0	1.446981E+0	1.539165E+0	1.474166E+0	1.501128E+0	1.359761E+0	1.352826E+0	1.417071E+0	1.539119E+0	1.354623E+0	1.326879E+0	1.301633E+0	1.484687E+0	1.466267E+0	1.410821E+0	1.326709E+0	1.506469E+0	1.453114E+0	1.511734E+0	1.412169E+0	1.569474E+0	1.302059E+0	1.413710E+0	1.458866E+0	1.431906E+0	1.294917E+0	1.238984E+0	1.371453E+0	1.484558E+0	1.461130E+0	1.273334E+0	1.286110E+0	1.481835E+0	1.445471E+0	1.414314E+0	1.432128E+0	1.562157E+0	1.293632E+0	1.349437E+0	1.429226E+0	1.537988E+0	1.285552E+0	1.280356E+0	1.287223E+0	1.539820E+0	1.423414E+0	1.331792E+0	1.368227E+0	1.482325E+0	1.590538E+0	1.353935E+0	1.434941E+0	1.552357E+0	1.359414E+0	1.443524E+0	1.451427E+0	1.558632E+0	1.287439E+0	1.323396E+0	1.268390E+0	1.454971E+0	1.486019E+0	1.277977E+0	1.328275E+0	1.428530E+0	1.458735E+0	1.449633E+0	1.434013E+0	1.457086E+0	1.284477E+0	1.387956E+0	1.410580E+0	1.521912E+0	1.297148E+0	1.246345E+0	1.268570E+0	1.550298E+0	1.425148E+0	1.281721E+0	1.286337E+0	1.523256E+0	1.517421E+0	1.428426E+0	1.436169E+0	1.496930E+0	1.446839E+0	1.421857E+0	1.420911E+0	1.512107E+0	1.441850E+0	1.322121E+0	1.342933E+0	1.490141E+0	1.533141E+0	1.277545E+0	1.344403E+0	1.521580E+0	1.412333E+0	1.465815E+0	1.439285E+0	1.569915E+0	1.298585E+0	1.381519E+0	1.443762E+0	1.593638E+0	1.238460E+0	1.296266E+0	1.251508E+0	1.559850E+0	1.460617E+0	1.323425E+0	1.329033E+0	1.469775E+0	1.427934E+0	1.487640E+0	1.427967E+0	1.458714E+0	1.284154E+0	1.187137E+0	1.435329E+0	1.358597E+0	1.268191E+0	1.263035E+0	1.309720E+0	1.496649E+0	1.441938E+0	1.417469E+0	1.370365E+0	1.386183E+0	1.457665E+0	1.443488E+0
5.392560E+2	1.750873E+0	1.501325E+0	1.716229E+0	1.645315E+0	1.714441E+0	1.750488E+0	1.801305E+0	1.432566E+0	1.616854E+0	1.612979E+0	1.623204E+0	1.485218E+0	1.477779E+0	1.473000E+0	1.665962E+0	1.654323E+0	1.553098E+0	1.511234E+0	1.565066E+0	1.689151E+0	1.668885E+0	1.768914E+0	1.659612E+0	1.513940E+0	1.835529E+0	1.717184E+0	1.783147E+0	1.498546E+0	1.638721E+0	1.515283E+0	1.636478E+0	1.657413E+0	1.725809E+0	1.549892E+0	1.622802E+0	1.681081E+0	1.728314E+0	1.594506E+0	1.724648E+0	1.486053E+0	1.560374E+0	1.618365E+0	1.720869E+0	1.544990E+0	1.530822E+0	1.569451E+0	1.719489E+0	1.657879E+0	1.571560E+0	1.463876E+0	1.663809E+0	1.628381E+0	1.692232E+0	1.619577E+0	1.716923E+0	1.515459E+0	1.580570E+0	1.575701E+0	1.647621E+0	1.523909E+0	1.517318E+0	1.515302E+0	1.606347E+0	1.681578E+0	1.481766E+0	1.496961E+0	1.659707E+0	1.640787E+0	1.586641E+0	1.700040E+0	1.730144E+0	1.492181E+0	1.561434E+0	1.634297E+0	1.709476E+0	1.474534E+0	1.483212E+0	1.453431E+0	1.653078E+0	1.644393E+0	1.496704E+0	1.551960E+0	1.747973E+0	1.715953E+0	1.576752E+0	1.670734E+0	1.756143E+0	1.479071E+0	1.644105E+0	1.621069E+0	1.670118E+0	1.423313E+0	1.447940E+0	1.488425E+0	1.614485E+0	1.569886E+0	1.467648E+0	1.569569E+0	1.712474E+0	1.648024E+0	1.627656E+0	1.698574E+0	1.710699E+0	1.473008E+0	1.598402E+0	1.630095E+0	1.713853E+0	1.407046E+0	1.443639E+0	1.492309E+0	1.719156E+0	1.610052E+0	1.386047E+0	1.434395E+0	1.696215E+0	1.734431E+0	1.666822E+0	1.592556E+0	1.758188E+0	1.577898E+0	1.648577E+0	1.697530E+0	1.696599E+0	1.656352E+0	1.481801E+0	1.477216E+0	1.670474E+0	1.744555E+0	1.557605E+0	1.565072E+0	1.680096E+0	1.600359E+0	1.730521E+0	1.626387E+0	1.753475E+0	1.450785E+0	1.551873E+0	1.588013E+0	1.689590E+0	1.482062E+0	1.492710E+0	1.431156E+0	1.668066E+0	1.646253E+0	1.449818E+0	1.448045E+0	1.830908E+0	1.627985E+0	1.663912E+0	1.663810E+0	1.744244E+0	1.449610E+0	1.390838E+0	1.567502E+0	1.675615E+0	1.430958E+0	1.412643E+0	1.501559E+0	1.655840E+0	1.594238E+0	1.507829E+0	1.578371E+0	1.698995E+0	1.652135E+0	1.537529E+0
5.395160E+2	2.062107E+0	1.634814E+0	2.014190E+0	1.940616E+0	1.959756E+0	1.985437E+0	2.106443E+0	1.652834E+0	1.874601E+0	1.926080E+0	1.850227E+0	1.669979E+0	1.698220E+0	1.725543E+0	1.829094E+0	1.815262E+0	1.782540E+0	1.802450E+0	1.752500E+0	1.940978E+0	1.858307E+0	1.953456E+0	1.864190E+0	1.719094E+0	2.047019E+0	1.963769E+0	1.965821E+0	1.638476E+0	1.942925E+0	1.811240E+0	1.905740E+0	1.857201E+0	1.849419E+0	1.772757E+0	1.872226E+0	1.822087E+0	2.028284E+0	1.875112E+0	1.990115E+0	1.748261E+0	1.795387E+0	1.810166E+0	1.944751E+0	1.762647E+0	1.743420E+0	1.725411E+0	1.888905E+0	1.970935E+0	1.770045E+0	1.697113E+0	1.883165E+0	1.875205E+0	1.865677E+0	1.814466E+0	1.975962E+0	1.692919E+0	1.789603E+0	1.872761E+0	1.938369E+0	1.745816E+0	1.637986E+0	1.745137E+0	1.930733E+0	1.904416E+0	1.730240E+0	1.728338E+0	1.902259E+0	1.864896E+0	1.824636E+0	1.909327E+0	2.008024E+0	1.724834E+0	1.751383E+0	1.821114E+0	1.918353E+0	1.665979E+0	1.711850E+0	1.625234E+0	1.917142E+0	1.833966E+0	1.726254E+0	1.771095E+0	1.917427E+0	1.947065E+0	1.798996E+0	1.913754E+0	1.889675E+0	1.682378E+0	1.932086E+0	1.833433E+0	2.064799E+0	1.658830E+0	1.694809E+0	1.635282E+0	1.880143E+0	1.770409E+0	1.728516E+0	1.719721E+0	1.919530E+0	1.867626E+0	1.840605E+0	1.959733E+0	1.910058E+0	1.673290E+0	1.914991E+0	1.920499E+0	1.868201E+0	1.650569E+0	1.631743E+0	1.698838E+0	1.930081E+0	1.842042E+0	1.700977E+0	1.664765E+0	1.963290E+0	1.962478E+0	1.777099E+0	1.885634E+0	1.942467E+0	1.871006E+0	1.925125E+0	1.919875E+0	1.954638E+0	1.757740E+0	1.700809E+0	1.695151E+0	1.983683E+0	1.966391E+0	1.675365E+0	1.802137E+0	1.870040E+0	1.884044E+0	1.874956E+0	1.904974E+0	1.997172E+0	1.681022E+0	1.722850E+0	1.806017E+0	1.929799E+0	1.658167E+0	1.659104E+0	1.597595E+0	1.947796E+0	1.793315E+0	1.705908E+0	1.682428E+0	1.958445E+0	1.877345E+0	1.838822E+0	1.903353E+0	1.989565E+0	1.675928E+0	1.523982E+0	1.767460E+0	1.866106E+0	1.656080E+0	1.623657E+0	1.681267E+0	1.947804E+0	1.851833E+0	1.734083E+0	1.803844E+0	1.935656E+0	1.922623E+0	1.879496E+0
5.397810E+2	2.191681E+0	1.845899E+0	2.155328E+0	2.028994E+0	2.126539E+0	2.125726E+0	2.281699E+0	1.755079E+0	1.969298E+0	2.012698E+0	2.055759E+0	1.841207E+0	1.872225E+0	1.835229E+0	2.013411E+0	1.961912E+0	1.885212E+0	1.857335E+0	1.938148E+0	2.166551E+0	2.039831E+0	2.093448E+0	2.103360E+0	1.900399E+0	2.263928E+0	2.100039E+0	2.125836E+0	1.828427E+0	2.065076E+0	1.885231E+0	2.103316E+0	1.988563E+0	2.093355E+0	1.874001E+0	2.102974E+0	2.063029E+0	2.146071E+0	1.978346E+0	2.129745E+0	1.816224E+0	1.970582E+0	1.942464E+0	2.149145E+0	1.855664E+0	1.867307E+0	1.809843E+0	2.137379E+0	2.105944E+0	1.914342E+0	1.836015E+0	2.024425E+0	2.083297E+0	1.973857E+0	1.976148E+0	2.159834E+0	1.836109E+0	1.958294E+0	1.983378E+0	1.993394E+0	1.826219E+0	1.766694E+0	1.910075E+0	1.995955E+0	2.018523E+0	1.842086E+0	1.847137E+0	2.121174E+0	2.110245E+0	1.948156E+0	2.051195E+0	2.150126E+0	1.859031E+0	1.875860E+0	2.057823E+0	2.044711E+0	1.821718E+0	1.868287E+0	1.829493E+0	2.090723E+0	2.020629E+0	1.817468E+0	1.877304E+0	2.037829E+0	2.056275E+0	1.989245E+0	2.104918E+0	2.131201E+0	1.804362E+0	2.016340E+0	1.983596E+0	2.119906E+0	1.767530E+0	1.735769E+0	1.750415E+0	2.074642E+0	2.029577E+0	1.812610E+0	1.789247E+0	2.043630E+0	2.007063E+0	1.994402E+0	2.091728E+0	2.128925E+0	1.816509E+0	1.975991E+0	2.026215E+0	2.066084E+0	1.802928E+0	1.788496E+0	1.828750E+0	2.080312E+0	1.905208E+0	1.825392E+0	1.800383E+0	2.126712E+0	2.141237E+0	2.011030E+0	1.990263E+0	2.111000E+0	1.966554E+0	2.058701E+0	2.010333E+0	2.115038E+0	1.946720E+0	1.830193E+0	1.884469E+0	2.106439E+0	2.150839E+0	1.780310E+0	1.856356E+0	2.077066E+0	2.001476E+0	2.009376E+0	1.977575E+0	2.106674E+0	1.782305E+0	1.909311E+0	1.896745E+0	2.084266E+0	1.723210E+0	1.757049E+0	1.778828E+0	2.131961E+0	1.993411E+0	1.796566E+0	1.835446E+0	2.144027E+0	2.031614E+0	2.012374E+0	2.046827E+0	2.122949E+0	1.779927E+0	1.671234E+0	1.978259E+0	2.059447E+0	1.818849E+0	1.727535E+0	1.851728E+0	2.103030E+0	1.925788E+0	1.882076E+0	1.833218E+0	1.998920E+0	1.917320E+0	2.019132E+0
5.400090E+2	2.267318E+0	1.797892E+0	2.189961E+0	2.129296E+0	2.184299E+0	2.159779E+0	2.279834E+0	1.810619E+0	2.037025E+0	2.046065E+0	2.056309E+0	1.934177E+0	1.860482E+0	1.891859E+0	2.067963E+0	2.055739E+0	1.882345E+0	1.893178E+0	1.976947E+0	2.154496E+0	2.068585E+0	2.220720E+0	2.102769E+0	1.946321E+0	2.265281E+0	2.176728E+0	2.193134E+0	1.888571E+0	2.076821E+0	1.963446E+0	2.041273E+0	2.037440E+0	2.079547E+0	1.921333E+0	2.166230E+0	2.034282E+0	2.180303E+0	2.020550E+0	2.148130E+0	1.931189E+0	1.985233E+0	2.039946E+0	2.128390E+0	1.942478E+0	1.857566E+0	1.917941E+0	2.095172E+0	2.118325E+0	1.991663E+0	1.847010E+0	2.095632E+0	2.029472E+0	2.098504E+0	1.977782E+0	2.180653E+0	1.848826E+0	2.028585E+0	2.054221E+0	2.034039E+0	1.877034E+0	1.891113E+0	1.827877E+0	2.051941E+0	2.137407E+0	1.808403E+0	1.944785E+0	2.054629E+0	2.078033E+0	2.026487E+0	2.096333E+0	2.220888E+0	1.889282E+0	1.984778E+0	2.097374E+0	2.180095E+0	1.817408E+0	1.836774E+0	1.791437E+0	2.131345E+0	1.995625E+0	1.922580E+0	1.898059E+0	2.084330E+0	2.149279E+0	2.077803E+0	2.089238E+0	2.211903E+0	1.770091E+0	2.063500E+0	1.994905E+0	2.176929E+0	1.868465E+0	1.814924E+0	1.834848E+0	2.031951E+0	1.917967E+0	1.784988E+0	1.906097E+0	2.077356E+0	2.012453E+0	2.000598E+0	2.056607E+0	2.135020E+0	1.896508E+0	2.009538E+0	2.038653E+0	2.168318E+0	1.860376E+0	1.775521E+0	1.787665E+0	2.109759E+0	2.037854E+0	1.881769E+0	1.786174E+0	2.150242E+0	2.136821E+0	2.037802E+0	2.048202E+0	2.126166E+0	1.943314E+0	2.070976E+0	2.008581E+0	2.141029E+0	1.954309E+0	1.928021E+0	1.892173E+0	2.149466E+0	2.120201E+0	1.889532E+0	1.901123E+0	2.107816E+0	2.056236E+0	2.078941E+0	1.981706E+0	2.221875E+0	1.790606E+0	1.879578E+0	1.958752E+0	2.256431E+0	1.879062E+0	1.779308E+0	1.733390E+0	2.132590E+0	1.969906E+0	1.835610E+0	1.867627E+0	2.121100E+0	2.041474E+0	1.963369E+0	2.028358E+0	2.187959E+0	1.792336E+0	1.671236E+0	1.973512E+0	2.129816E+0	1.812943E+0	1.842515E+0	1.867909E+0	2.210044E+0	1.956501E+0	1.905553E+0	1.900703E+0	2.132481E+0	2.046376E+0	2.164467E+0
5.402690E+2	2.228881E+0	1.855761E+0	2.165131E+0	2.122288E+0	2.191436E+0	2.067158E+0	2.242542E+0	1.790425E+0	2.088452E+0	2.069803E+0	2.126290E+0	1.869453E+0	1.800705E+0	1.925531E+0	2.100271E+0	2.066306E+0	1.922498E+0	1.862374E+0	1.971573E+0	2.155916E+0	2.047159E+0	2.080193E+0	2.154357E+0	1.952880E+0	2.276807E+0	2.109476E+0	2.183519E+0	1.821878E+0	2.133784E+0	1.922226E+0	2.065369E+0	2.141308E+0	2.103217E+0	1.994424E+0	2.120440E+0	1.984998E+0	2.141429E+0	2.005150E+0	2.143535E+0	1.862663E+0	1.990725E+0	1.966519E+0	2.075565E+0	1.920156E+0	1.884614E+0	1.844262E+0	2.120141E+0	2.148394E+0	1.919817E+0	1.891577E+0	2.065769E+0	2.015687E+0	2.079689E+0	1.997922E+0	2.158682E+0	1.823946E+0	2.041420E+0	2.013828E+0	1.982767E+0	1.882182E+0	1.812814E+0	1.883576E+0	2.041555E+0	2.083043E+0	1.873224E+0	1.906224E+0	2.054627E+0	2.114355E+0	1.961411E+0	1.997263E+0	2.161633E+0	1.895882E+0	1.959492E+0	2.061474E+0	2.096287E+0	1.792169E+0	1.847088E+0	1.769614E+0	2.091953E+0	2.020050E+0	1.850695E+0	1.821758E+0	2.070953E+0	2.161967E+0	1.988103E+0	1.996373E+0	2.171840E+0	1.843280E+0	1.966042E+0	2.043281E+0	2.172444E+0	1.819940E+0	1.850901E+0	1.734042E+0	2.050923E+0	2.052909E+0	1.830410E+0	1.830728E+0	2.074653E+0	2.035356E+0	2.003418E+0	1.952369E+0	2.163060E+0	1.791331E+0	2.036991E+0	1.980819E+0	2.006719E+0	1.804176E+0	1.840926E+0	1.811540E+0	2.186675E+0	1.936215E+0	1.840300E+0	1.794461E+0	2.079657E+0	2.139767E+0	1.986172E+0	2.066767E+0	2.180399E+0	2.017557E+0	2.047152E+0	2.090868E+0	2.137226E+0	1.964656E+0	1.946956E+0	1.853099E+0	2.162121E+0	2.032571E+0	1.855972E+0	1.982457E+0	2.141978E+0	2.007414E+0	2.033548E+0	1.950423E+0	2.081358E+0	1.859234E+0	2.037544E+0	1.948958E+0	2.104001E+0	1.828749E+0	1.774299E+0	1.761392E+0	2.128794E+0	1.984974E+0	1.762818E+0	1.794763E+0	2.038697E+0	2.033025E+0	1.962009E+0	2.035741E+0	2.209410E+0	1.729698E+0	1.647307E+0	1.930136E+0	2.092140E+0	1.845101E+0	1.713813E+0	1.832083E+0	2.144644E+0	1.972796E+0	1.866424E+0	1.891971E+0	2.121935E+0	1.984500E+0	1.873797E+0
5.405020E+2	2.038546E+0	1.716354E+0	2.101750E+0	2.061959E+0	2.029842E+0	2.067841E+0	2.221414E+0	1.700173E+0	1.979331E+0	1.958805E+0	1.995146E+0	1.692339E+0	1.787357E+0	1.783191E+0	1.906949E+0	1.976204E+0	1.824411E+0	1.782850E+0	1.808016E+0	2.052344E+0	1.978950E+0	2.053149E+0	1.989048E+0	1.817496E+0	2.156151E+0	2.016862E+0	2.038619E+0	1.815922E+0	2.011049E+0	1.839250E+0	1.990675E+0	1.964733E+0	2.033521E+0	1.859027E+0	1.950545E+0	2.018536E+0	2.101972E+0	1.953819E+0	2.072286E+0	1.816790E+0	1.866810E+0	1.895620E+0	2.033429E+0	1.799235E+0	1.811043E+0	1.805544E+0	2.041674E+0	2.028712E+0	1.896074E+0	1.754988E+0	1.983082E+0	1.976953E+0	2.009721E+0	1.972885E+0	1.945896E+0	1.784694E+0	1.944236E+0	1.916259E+0	1.956504E+0	1.809497E+0	1.773665E+0	1.823550E+0	1.963055E+0	2.035246E+0	1.797599E+0	1.819768E+0	1.957608E+0	1.984143E+0	1.872838E+0	2.013674E+0	2.031034E+0	1.730330E+0	1.835663E+0	1.997580E+0	2.093706E+0	1.762623E+0	1.743367E+0	1.714210E+0	2.002698E+0	2.033426E+0	1.702694E+0	1.796122E+0	2.038465E+0	2.010477E+0	1.885835E+0	1.976470E+0	2.062693E+0	1.674827E+0	1.919511E+0	1.914479E+0	2.094277E+0	1.741648E+0	1.791123E+0	1.700781E+0	2.023057E+0	2.022009E+0	1.769644E+0	1.745427E+0	2.021377E+0	2.032661E+0	1.940319E+0	1.956333E+0	1.987485E+0	1.836088E+0	1.883271E+0	1.904955E+0	1.998805E+0	1.777326E+0	1.751736E+0	1.761021E+0	2.053874E+0	1.927025E+0	1.742450E+0	1.737017E+0	2.031329E+0	2.025008E+0	1.960038E+0	1.932885E+0	2.059685E+0	1.958811E+0	2.099138E+0	1.959557E+0	2.050369E+0	1.890856E+0	1.808105E+0	1.795313E+0	2.048223E+0	2.083433E+0	1.859631E+0	1.835551E+0	1.990976E+0	1.891961E+0	1.958674E+0	1.984661E+0	2.016159E+0	1.706480E+0	1.835594E+0	1.924812E+0	2.048886E+0	1.732411E+0	1.690826E+0	1.654662E+0	2.043989E+0	1.859008E+0	1.729067E+0	1.787477E+0	2.063774E+0	1.942152E+0	1.910285E+0	1.947690E+0	2.053237E+0	1.656428E+0	1.537480E+0	1.835918E+0	1.973439E+0	1.716461E+0	1.683111E+0	1.715361E+0	2.054153E+0	1.921406E+0	1.734796E+0	1.853863E+0	1.980175E+0	1.883730E+0	1.822502E+0
5.407580E+2	2.059625E+0	1.699258E+0	1.922709E+0	1.958853E+0	1.993499E+0	1.952065E+0	2.041188E+0	1.794841E+0	1.855789E+0	1.888871E+0	1.927371E+0	1.850034E+0	1.675802E+0	1.772988E+0	1.776657E+0	1.902257E+0	1.736651E+0	1.665241E+0	1.784139E+0	1.928921E+0	1.868453E+0	1.901487E+0	1.910503E+0	1.725059E+0	2.036172E+0	1.956687E+0	2.002904E+0	1.669442E+0	1.897703E+0	1.852465E+0	1.971999E+0	1.944573E+0	1.932921E+0	1.869211E+0	1.939704E+0	1.891221E+0	1.954597E+0	1.856290E+0	1.991264E+0	1.677470E+0	1.783182E+0	1.883595E+0	1.956077E+0	1.768231E+0	1.758569E+0	1.685079E+0	1.901984E+0	1.927899E+0	1.851629E+0	1.706951E+0	1.907285E+0	1.885710E+0	1.953869E+0	1.826442E+0	1.978853E+0	1.734388E+0	1.753539E+0	1.833606E+0	1.897730E+0	1.716231E+0	1.700191E+0	1.744595E+0	1.903603E+0	1.904415E+0	1.746763E+0	1.802973E+0	1.921538E+0	1.836108E+0	1.808370E+0	1.867118E+0	1.926905E+0	1.722633E+0	1.768239E+0	1.895351E+0	1.984112E+0	1.712762E+0	1.684920E+0	1.629707E+0	1.920832E+0	1.878159E+0	1.678531E+0	1.771093E+0	1.937172E+0	1.913240E+0	1.842413E+0	1.869132E+0	1.966313E+0	1.695157E+0	1.890586E+0	1.864846E+0	1.965491E+0	1.634243E+0	1.636136E+0	1.633748E+0	1.839229E+0	1.829055E+0	1.683094E+0	1.671227E+0	1.916159E+0	1.868300E+0	1.858630E+0	1.888917E+0	1.916763E+0	1.726437E+0	1.823493E+0	1.868265E+0	1.908435E+0	1.574388E+0	1.630120E+0	1.648316E+0	1.953515E+0	1.835153E+0	1.667282E+0	1.641078E+0	1.993812E+0	1.917604E+0	1.850404E+0	1.843445E+0	1.975126E+0	1.790304E+0	1.844256E+0	1.820665E+0	1.941322E+0	1.832229E+0	1.734890E+0	1.724317E+0	1.981154E+0	2.015411E+0	1.705872E+0	1.788266E+0	1.950663E+0	1.872827E+0	1.868474E+0	1.803459E+0	2.003499E+0	1.683787E+0	1.744533E+0	1.845178E+0	1.966543E+0	1.661232E+0	1.590099E+0	1.592841E+0	1.959820E+0	1.869252E+0	1.655619E+0	1.749831E+0	1.977794E+0	1.863259E+0	1.836779E+0	1.929216E+0	1.983532E+0	1.669425E+0	1.510482E+0	1.789826E+0	1.952826E+0	1.581916E+0	1.615167E+0	1.630419E+0	1.953745E+0	1.847448E+0	1.744044E+0	1.690311E+0	1.947371E+0	1.668045E+0	1.768355E+0
5.410080E+2	1.963530E+0	1.624290E+0	1.874358E+0	1.902038E+0	1.965594E+0	1.785896E+0	1.936783E+0	1.957047E+0	1.744787E+0	1.736809E+0	1.805044E+0	1.923000E+0	1.657657E+0	1.624524E+0	1.778247E+0	1.872432E+0	1.681583E+0	1.631083E+0	1.706537E+0	1.917566E+0	1.770362E+0	1.827778E+0	1.874157E+0	1.937967E+0	2.003637E+0	1.853454E+0	1.825040E+0	1.835575E+0	1.798456E+0	1.692858E+0	1.812374E+0	1.863314E+0	1.819174E+0	1.725428E+0	1.784263E+0	1.798815E+0	1.930233E+0	1.775874E+0	1.853359E+0	1.646889E+0	1.670251E+0	1.677236E+0	1.812687E+0	1.641107E+0	1.628197E+0	1.614088E+0	1.804497E+0	1.884270E+0	1.703680E+0	1.621298E+0	1.853304E+0	1.749166E+0	1.855681E+0	1.751317E+0	1.853958E+0	1.632110E+0	1.705254E+0	1.772705E+0	1.843333E+0	1.619102E+0	1.593473E+0	1.606152E+0	1.784699E+0	1.817189E+0	1.688298E+0	1.623843E+0	1.782224E+0	1.782653E+0	1.705336E+0	1.768628E+0	1.838881E+0	1.654434E+0	1.688503E+0	1.734096E+0	1.879026E+0	1.542861E+0	1.573176E+0	1.612921E+0	1.836509E+0	1.720568E+0	1.612085E+0	1.650235E+0	1.828876E+0	1.847716E+0	1.771569E+0	1.780486E+0	1.918126E+0	1.544133E+0	1.741567E+0	1.727251E+0	1.886683E+0	1.546893E+0	1.639454E+0	1.594346E+0	1.841007E+0	1.716812E+0	1.597776E+0	1.632665E+0	1.800827E+0	1.769276E+0	1.714976E+0	1.860596E+0	1.859457E+0	1.652590E+0	1.688072E+0	1.753218E+0	1.803563E+0	1.613104E+0	1.584175E+0	1.663306E+0	1.874797E+0	1.746719E+0	1.583688E+0	1.518488E+0	1.862182E+0	1.913193E+0	1.754151E+0	1.747814E+0	1.831665E+0	1.729620E+0	1.804540E+0	1.748304E+0	1.855098E+0	1.808780E+0	1.629490E+0	1.711110E+0	1.906487E+0	1.824221E+0	1.652790E+0	1.684864E+0	1.811966E+0	1.795638E+0	1.794783E+0	1.752696E+0	1.937671E+0	1.596898E+0	1.719751E+0	1.779908E+0	1.871280E+0	1.587600E+0	1.533890E+0	1.525208E+0	1.872485E+0	1.733041E+0	1.580179E+0	1.565845E+0	1.975642E+0	1.898478E+0	1.783694E+0	1.802365E+0	1.830709E+0	1.570154E+0	1.458943E+0	1.697644E+0	1.897382E+0	1.512345E+0	1.548531E+0	1.578411E+0	1.883068E+0	1.749047E+0	1.693528E+0	1.650618E+0	1.877076E+0	1.761745E+0	1.708511E+0
5.412640E+2	1.840774E+0	1.550642E+0	1.836456E+0	1.807345E+0	1.763763E+0	1.784538E+0	1.787009E+0	1.802416E+0	1.703399E+0	1.705371E+0	1.757652E+0	1.898284E+0	1.545033E+0	1.567383E+0	1.668609E+0	1.786682E+0	1.583497E+0	1.600280E+0	1.585959E+0	1.833151E+0	1.757396E+0	1.695738E+0	1.776848E+0	1.779330E+0	1.876198E+0	1.757299E+0	1.792076E+0	1.702787E+0	1.750303E+0	1.635251E+0	1.645515E+0	1.812601E+0	1.710684E+0	1.644551E+0	1.754741E+0	1.880954E+0	1.799103E+0	1.689184E+0	1.756828E+0	1.847937E+0	1.626297E+0	1.656977E+0	1.729673E+0	1.801094E+0	1.590872E+0	1.607097E+0	1.715329E+0	1.805859E+0	1.567296E+0	1.563420E+0	1.725252E+0	1.746543E+0	1.766900E+0	1.680006E+0	1.740627E+0	1.628240E+0	1.670418E+0	1.642196E+0	1.695769E+0	1.597877E+0	1.536091E+0	1.580196E+0	1.720055E+0	1.723994E+0	1.505282E+0	1.559782E+0	1.733094E+0	1.765522E+0	1.666173E+0	1.734625E+0	1.814718E+0	1.526281E+0	1.656735E+0	1.738963E+0	1.784904E+0	1.486226E+0	1.519884E+0	1.515548E+0	1.765104E+0	1.617058E+0	1.502747E+0	1.509840E+0	1.711663E+0	1.713843E+0	1.623025E+0	1.687617E+0	1.790976E+0	1.536578E+0	1.701953E+0	1.630492E+0	1.873866E+0	1.570188E+0	1.465649E+0	1.485354E+0	1.778747E+0	1.646187E+0	1.571995E+0	1.523413E+0	1.716521E+0	1.637916E+0	1.694696E+0	1.743894E+0	1.785074E+0	1.536785E+0	1.692953E+0	1.738294E+0	1.738922E+0	1.473235E+0	1.538772E+0	1.507298E+0	1.772640E+0	1.702501E+0	1.493616E+0	1.453935E+0	1.724832E+0	1.808736E+0	1.682122E+0	1.673558E+0	1.791427E+0	1.634068E+0	1.699844E+0	1.711536E+0	1.765705E+0	1.694286E+0	1.520300E+0	1.574075E+0	1.777411E+0	1.761102E+0	1.564928E+0	1.558768E+0	1.709478E+0	1.661053E+0	1.726984E+0	1.731448E+0	1.753476E+0	1.566458E+0	1.587185E+0	1.637619E+0	1.808672E+0	1.520721E+0	1.473789E+0	1.452293E+0	1.778820E+0	1.654690E+0	1.531211E+0	1.574953E+0	1.808692E+0	1.695607E+0	1.627163E+0	1.681055E+0	1.814625E+0	1.516969E+0	1.388385E+0	1.633928E+0	1.682723E+0	1.504470E+0	1.515865E+0	1.557033E+0	1.853343E+0	1.693264E+0	1.566883E+0	1.601392E+0	1.779835E+0	1.597330E+0	1.642968E+0
5.415140E+2	1.766372E+0	1.413865E+0	1.747597E+0	1.675475E+0	1.685885E+0	1.742992E+0	1.768989E+0	1.736145E+0	1.614973E+0	1.650833E+0	1.651306E+0	1.729410E+0	1.494326E+0	1.499529E+0	1.594462E+0	1.769283E+0	1.533594E+0	1.580679E+0	1.535220E+0	1.718945E+0	1.635064E+0	1.627329E+0	1.669575E+0	1.796623E+0	1.764355E+0	1.687100E+0	1.695245E+0	1.709932E+0	1.735035E+0	1.549635E+0	1.643708E+0	1.793661E+0	1.706738E+0	1.570262E+0	1.705943E+0	1.682449E+0	1.725994E+0	1.597930E+0	1.717754E+0	1.803198E+0	1.561594E+0	1.583550E+0	1.686909E+0	1.744663E+0	1.478349E+0	1.482869E+0	1.671341E+0	1.760464E+0	1.592867E+0	1.487024E+0	1.609832E+0	1.698622E+0	1.638143E+0	1.602702E+0	1.671242E+0	1.721119E+0	1.584847E+0	1.570731E+0	1.634492E+0	1.690500E+0	1.472807E+0	1.535852E+0	1.714859E+0	1.793892E+0	1.465883E+0	1.535525E+0	1.662195E+0	1.702470E+0	1.552895E+0	1.641414E+0	1.769842E+0	1.552682E+0	1.553656E+0	1.553976E+0	1.660480E+0	1.571795E+0	1.432211E+0	1.483089E+0	1.700476E+0	1.607172E+0	1.442943E+0	1.523269E+0	1.651141E+0	1.658882E+0	1.595029E+0	1.615853E+0	1.695762E+0	1.480235E+0	1.610152E+0	1.575203E+0	1.702154E+0	1.461486E+0	1.499414E+0	1.369706E+0	1.646506E+0	1.669517E+0	1.493427E+0	1.434025E+0	1.620749E+0	1.658131E+0	1.621460E+0	1.663451E+0	1.636934E+0	1.483639E+0	1.618534E+0	1.643151E+0	1.672300E+0	1.486347E+0	1.405262E+0	1.482315E+0	1.708341E+0	1.541718E+0	1.419743E+0	1.416625E+0	1.690495E+0	1.721927E+0	1.597980E+0	1.645434E+0	1.705118E+0	1.571444E+0	1.574210E+0	1.635669E+0	1.748586E+0	1.579791E+0	1.478016E+0	1.476663E+0	1.705277E+0	1.667344E+0	1.516115E+0	1.530396E+0	1.708794E+0	1.588483E+0	1.607896E+0	1.640551E+0	1.700304E+0	1.426432E+0	1.499220E+0	1.627173E+0	1.727014E+0	1.435429E+0	1.462101E+0	1.402096E+0	1.702875E+0	1.617326E+0	1.431287E+0	1.519698E+0	1.730591E+0	1.689270E+0	1.580203E+0	1.653960E+0	1.715426E+0	1.433652E+0	1.343594E+0	1.564790E+0	1.653580E+0	1.426368E+0	1.402844E+0	1.500406E+0	1.702077E+0	1.608027E+0	1.507826E+0	1.617272E+0	1.729457E+0	1.586724E+0	1.574575E+0
5.417540E+2	1.608899E+0	1.318517E+0	1.628673E+0	1.566754E+0	1.515205E+0	1.527792E+0	1.675143E+0	1.614335E+0	1.476378E+0	1.534060E+0	1.505288E+0	1.573480E+0	1.318185E+0	1.356171E+0	1.430271E+0	1.582243E+0	1.405107E+0	1.351629E+0	1.409268E+0	1.531669E+0	1.533587E+0	1.573770E+0	1.495477E+0	1.598031E+0	1.619972E+0	1.525464E+0	1.562704E+0	1.579527E+0	1.562966E+0	1.407471E+0	1.445527E+0	1.582875E+0	1.515402E+0	1.425882E+0	1.557735E+0	1.576350E+0	1.562953E+0	1.500401E+0	1.562610E+0	1.633297E+0	1.423638E+0	1.437325E+0	1.539119E+0	1.558013E+0	1.380435E+0	1.366704E+0	1.555425E+0	1.602458E+0	1.376725E+0	1.351595E+0	1.461679E+0	1.591621E+0	1.495271E+0	1.460618E+0	1.526105E+0	1.597833E+0	1.449162E+0	1.424689E+0	1.452538E+0	1.574722E+0	1.329618E+0	1.399032E+0	1.536505E+0	1.599731E+0	1.327349E+0	1.351419E+0	1.486810E+0	1.598300E+0	1.460707E+0	1.559931E+0	1.576538E+0	1.629681E+0	1.391577E+0	1.515029E+0	1.528318E+0	1.560710E+0	1.314163E+0	1.331434E+0	1.550902E+0	1.586238E+0	1.328165E+0	1.372501E+0	1.568326E+0	1.599695E+0	1.405925E+0	1.474743E+0	1.562806E+0	1.484301E+0	1.502002E+0	1.507976E+0	1.572728E+0	1.476369E+0	1.384283E+0	1.313420E+0	1.463867E+0	1.557276E+0	1.352250E+0	1.378518E+0	1.516208E+0	1.496459E+0	1.478928E+0	1.503695E+0	1.580235E+0	1.348813E+0	1.500807E+0	1.478361E+0	1.464527E+0	1.313383E+0	1.318776E+0	1.310766E+0	1.531668E+0	1.419408E+0	1.313470E+0	1.333715E+0	1.565859E+0	1.683675E+0	1.478785E+0	1.527864E+0	1.582074E+0	1.481059E+0	1.511391E+0	1.506116E+0	1.546980E+0	1.465299E+0	1.329063E+0	1.422734E+0	1.550885E+0	1.551524E+0	1.411170E+0	1.452215E+0	1.556425E+0	1.464453E+0	1.510030E+0	1.468796E+0	1.594599E+0	1.365553E+0	1.410016E+0	1.482926E+0	1.616776E+0	1.331115E+0	1.307953E+0	1.257848E+0	1.595919E+0	1.420237E+0	1.367762E+0	1.372752E+0	1.623830E+0	1.431453E+0	1.469945E+0	1.531418E+0	1.565954E+0	1.292427E+0	1.218426E+0	1.467185E+0	1.546251E+0	1.388957E+0	1.312687E+0	1.381948E+0	1.574596E+0	1.442564E+0	1.384028E+0	1.379095E+0	1.516229E+0	1.477112E+0	1.577425E+0
5.420160E+2	1.453905E+0	1.176479E+0	1.401282E+0	1.390696E+0	1.355555E+0	1.415424E+0	1.427802E+0	1.360620E+0	1.234936E+0	1.390982E+0	1.353205E+0	1.376362E+0	1.262676E+0	1.215361E+0	1.325930E+0	1.439946E+0	1.277767E+0	1.192581E+0	1.241532E+0	1.522450E+0	1.356571E+0	1.407259E+0	1.305554E+0	1.366033E+0	1.465425E+0	1.339054E+0	1.401317E+0	1.443765E+0	1.315143E+0	1.190787E+0	1.329870E+0	1.486339E+0	1.358260E+0	1.304865E+0	1.396276E+0	1.409331E+0	1.369741E+0	1.300212E+0	1.354603E+0	1.440745E+0	1.281409E+0	1.305029E+0	1.375605E+0	1.416630E+0	1.175950E+0	1.229569E+0	1.327756E+0	1.472754E+0	1.247653E+0	1.216166E+0	1.327310E+0	1.466897E+0	1.313008E+0	1.251030E+0	1.402946E+0	1.420921E+0	1.311639E+0	1.264351E+0	1.309352E+0	1.419061E+0	1.215924E+0	1.240040E+0	1.291197E+0	1.385857E+0	1.237112E+0	1.240084E+0	1.368024E+0	1.411199E+0	1.305859E+0	1.369987E+0	1.360220E+0	1.429482E+0	1.304704E+0	1.320307E+0	1.372304E+0	1.478226E+0	1.213311E+0	1.194887E+0	1.346543E+0	1.374568E+0	1.184396E+0	1.244313E+0	1.377213E+0	1.434821E+0	1.287661E+0	1.366799E+0	1.471653E+0	1.426214E+0	1.342291E+0	1.389857E+0	1.396529E+0	1.447256E+0	1.199406E+0	1.175260E+0	1.370174E+0	1.400260E+0	1.233170E+0	1.289129E+0	1.336806E+0	1.437853E+0	1.365691E+0	1.305417E+0	1.381488E+0	1.364478E+0	1.353795E+0	1.286209E+0	1.393288E+0	1.403300E+0	1.231750E+0	1.245254E+0	1.383842E+0	1.453859E+0	1.195535E+0	1.206389E+0	1.378909E+0	1.427676E+0	1.327716E+0	1.346165E+0	1.440363E+0	1.315784E+0	1.362649E+0	1.297775E+0	1.422716E+0	1.300459E+0	1.214824E+0	1.289551E+0	1.378146E+0	1.383614E+0	1.236055E+0	1.244786E+0	1.368531E+0	1.336464E+0	1.389763E+0	1.339533E+0	1.459144E+0	1.161329E+0	1.303465E+0	1.319095E+0	1.379966E+0	1.195508E+0	1.169940E+0	1.132622E+0	1.442136E+0	1.282818E+0	1.204312E+0	1.225198E+0	1.460460E+0	1.390597E+0	1.337233E+0	1.337449E+0	1.445978E+0	1.139380E+0	1.089580E+0	1.339754E+0	1.398402E+0	1.195338E+0	1.134989E+0	1.179707E+0	1.425310E+0	1.312828E+0	1.195483E+0	1.277474E+0	1.374468E+0	1.279108E+0	1.326648E+0
5.422670E+2	1.238149E+0	1.029838E+0	1.262756E+0	1.258125E+0	1.193315E+0	1.161402E+0	1.238254E+0	1.229971E+0	1.102613E+0	1.141395E+0	1.168061E+0	1.254562E+0	1.059314E+0	9.970044E-1	1.159621E+0	1.213137E+0	1.072417E+0	1.048093E+0	1.088717E+0	1.255017E+0	1.220708E+0	1.180827E+0	1.178935E+0	1.227074E+0	1.268850E+0	1.182134E+0	1.237872E+0	1.240116E+0	1.166562E+0	1.063947E+0	1.135911E+0	1.232783E+0	1.136680E+0	1.099375E+0	1.195049E+0	1.220409E+0	1.211925E+0	1.097171E+0	1.219569E+0	1.218177E+0	1.147724E+0	1.155006E+0	1.204548E+0	1.230600E+0	1.115901E+0	1.040804E+0	1.222541E+0	1.251081E+0	1.103354E+0	1.047168E+0	1.161933E+0	1.248957E+0	1.190714E+0	1.191692E+0	1.183803E+0	1.333572E+0	1.113607E+0	1.134468E+0	1.206183E+0	1.250535E+0	1.034121E+0	1.019401E+0	1.158443E+0	1.292659E+0	1.043291E+0	1.077747E+0	1.162165E+0	1.241239E+0	1.121484E+0	1.193532E+0	1.248032E+0	1.217729E+0	1.110861E+0	1.112195E+0	1.218869E+0	1.268929E+0	1.005874E+0	1.032039E+0	1.183428E+0	1.236749E+0	1.090764E+0	1.066077E+0	1.214763E+0	1.300949E+0	1.116833E+0	1.220260E+0	1.238837E+0	1.209550E+0	1.168120E+0	1.154875E+0	1.201747E+0	1.276441E+0	1.045528E+0	1.004863E+0	1.197020E+0	1.202888E+0	1.028160E+0	1.118528E+0	1.159424E+0	1.245200E+0	1.139220E+0	1.207412E+0	1.215055E+0	1.258184E+0	1.155549E+0	1.225267E+0	1.185513E+0	1.155403E+0	9.912175E-1	1.067593E+0	1.252240E+0	1.216129E+0	1.058807E+0	1.050042E+0	1.162074E+0	1.201839E+0	1.165173E+0	1.115529E+0	1.249085E+0	1.247993E+0	1.198744E+0	1.217238E+0	1.180529E+0	1.254937E+0	1.104376E+0	1.047948E+0	1.180096E+0	1.259215E+0	1.103040E+0	1.078968E+0	1.160138E+0	1.161636E+0	1.151587E+0	1.127639E+0	1.314193E+0	1.041232E+0	1.146119E+0	1.144821E+0	1.153364E+0	1.086901E+0	1.026923E+0	1.028533E+0	1.271894E+0	1.208084E+0	1.018363E+0	1.061859E+0	1.176714E+0	1.172229E+0	1.120123E+0	1.188431E+0	1.264336E+0	1.004062E+0	9.674809E-1	1.131666E+0	1.145358E+0	1.048978E+0	1.018701E+0	1.086676E+0	1.213933E+0	1.149245E+0	1.126468E+0	1.094080E+0	1.249108E+0	1.081102E+0	1.098672E+0
5.425140E+2	1.145154E+0	9.108154E-1	1.083066E+0	1.076456E+0	1.051837E+0	1.067421E+0	1.146900E+0	1.123941E+0	1.004154E+0	1.005373E+0	1.061714E+0	1.129816E+0	9.269406E-1	9.368013E-1	9.779522E-1	1.110608E+0	1.032840E+0	9.086453E-1	9.573945E-1	1.142228E+0	1.044254E+0	1.068937E+0	1.066387E+0	1.102429E+0	1.153617E+0	1.075360E+0	1.162329E+0	1.087086E+0	1.089043E+0	9.566625E-1	1.054591E+0	1.093481E+0	1.070271E+0	9.873428E-1	1.093835E+0	1.138954E+0	1.070932E+0	1.065231E+0	1.054659E+0	1.118505E+0	1.047003E+0	1.041066E+0	1.085058E+0	1.102860E+0	9.628096E-1	9.375493E-1	1.075123E+0	1.117837E+0	1.049773E+0	9.690352E-1	1.022969E+0	1.076312E+0	1.031968E+0	9.940805E-1	1.079720E+0	1.086452E+0	1.018871E+0	9.878036E-1	1.035484E+0	1.139257E+0	9.204268E-1	9.582930E-1	1.057431E+0	1.166007E+0	9.651283E-1	9.564613E-1	1.068879E+0	1.150773E+0	1.031106E+0	1.071009E+0	1.092697E+0	1.114331E+0	9.928688E-1	1.103676E+0	1.098960E+0	1.116882E+0	9.651880E-1	9.223541E-1	1.065861E+0	1.071016E+0	9.409515E-1	9.873341E-1	1.120483E+0	1.161440E+0	1.035135E+0	1.034525E+0	1.103561E+0	1.113707E+0	1.070658E+0	1.026703E+0	1.137034E+0	1.064217E+0	9.768904E-1	9.178700E-1	1.077236E+0	1.132894E+0	9.704605E-1	9.543555E-1	1.110188E+0	1.107779E+0	1.052463E+0	1.083348E+0	1.070566E+0	1.079162E+0	1.010370E+0	1.056746E+0	1.080636E+0	1.096085E+0	9.004074E-1	9.482282E-1	1.150081E+0	1.143774E+0	9.460534E-1	9.138322E-1	1.094669E+0	1.120919E+0	1.010916E+0	1.037337E+0	1.062472E+0	1.101442E+0	1.023286E+0	1.039829E+0	1.099378E+0	1.076300E+0	9.560561E-1	9.527388E-1	1.097207E+0	1.101724E+0	9.267051E-1	9.434139E-1	1.065166E+0	1.123371E+0	1.017170E+0	1.095766E+0	1.155948E+0	1.086062E+0	1.014790E+0	1.055400E+0	1.101648E+0	1.146421E+0	8.967009E-1	8.885120E-1	1.095324E+0	1.109842E+0	9.634390E-1	9.786713E-1	1.092880E+0	1.068680E+0	1.032328E+0	1.091752E+0	1.183234E+0	9.674258E-1	8.374064E-1	1.055072E+0	1.089915E+0	9.675938E-1	9.246252E-1	9.815091E-1	1.050779E+0	1.038311E+0	9.628247E-1	9.869001E-1	1.131950E+0	9.874039E-1	1.001782E+0
5.427810E+2	1.070755E+0	8.549208E-1	9.994283E-1	1.015431E+0	1.000568E+0	1.003405E+0	1.036278E+0	1.022958E+0	9.357983E-1	9.283809E-1	9.707971E-1	1.034498E+0	8.767688E-1	8.648649E-1	9.504117E-1	1.022370E+0	9.875239E-1	9.148055E-1	9.036707E-1	1.038660E+0	1.031289E+0	1.024924E+0	9.720095E-1	1.011778E+0	1.066852E+0	1.010470E+0	9.981969E-1	1.041237E+0	1.016810E+0	9.127990E-1	1.032904E+0	1.034826E+0	1.034766E+0	8.998761E-1	1.022743E+0	1.026011E+0	1.011751E+0	9.483123E-1	9.523809E-1	1.056209E+0	8.870703E-1	1.007517E+0	1.000786E+0	1.070615E+0	8.600246E-1	8.789301E-1	1.020433E+0	1.056526E+0	9.243504E-1	8.498126E-1	1.020097E+0	1.052679E+0	1.021387E+0	9.788366E-1	9.877865E-1	1.022320E+0	8.954075E-1	9.051499E-1	9.879636E-1	1.013829E+0	8.453475E-1	9.085404E-1	9.535358E-1	1.079382E+0	8.240527E-1	9.241183E-1	9.737239E-1	1.034952E+0	9.654298E-1	1.003005E+0	1.056454E+0	1.042282E+0	8.897880E-1	1.007531E+0	1.030622E+0	1.044861E+0	8.184914E-1	8.691895E-1	9.987689E-1	1.026821E+0	9.010817E-1	8.774610E-1	1.075888E+0	1.069139E+0	9.585790E-1	1.026685E+0	1.056536E+0	1.027155E+0	9.467899E-1	9.670147E-1	1.061429E+0	1.005338E+0	8.733813E-1	8.595368E-1	9.770219E-1	1.028849E+0	9.170587E-1	8.889194E-1	9.881127E-1	1.068036E+0	9.623250E-1	9.819422E-1	1.071176E+0	1.108254E+0	9.542497E-1	9.497858E-1	9.995055E-1	1.069234E+0	8.674354E-1	8.777209E-1	1.037709E+0	1.039263E+0	8.469096E-1	8.676389E-1	1.010731E+0	1.053241E+0	9.337879E-1	9.360829E-1	1.056641E+0	1.078199E+0	1.039171E+0	9.517078E-1	1.018861E+0	1.065264E+0	9.175562E-1	9.296244E-1	1.042157E+0	1.034318E+0	8.894858E-1	9.396309E-1	1.004356E+0	1.033646E+0	9.759033E-1	9.836207E-1	1.036950E+0	1.007472E+0	9.577990E-1	9.542290E-1	1.052653E+0	1.069719E+0	9.061602E-1	8.642068E-1	1.026343E+0	1.102008E+0	8.767514E-1	9.215937E-1	1.071384E+0	1.127851E+0	9.853673E-1	1.010470E+0	1.000921E+0	1.038926E+0	7.821857E-1	9.974580E-1	9.719231E-1	1.012223E+0	8.155235E-1	8.965673E-1	1.040211E+0	1.080302E+0	9.407685E-1	9.217990E-1	1.038223E+0	9.520462E-1	9.333880E-1
5.430120E+2	1.004418E+0	8.654426E-1	1.083066E+0	1.083469E+0	1.059625E+0	1.035413E+0	1.061758E+0	1.105638E+0	1.024850E+0	9.527615E-1	1.017633E+0	1.095690E+0	8.997193E-1	8.862949E-1	9.917256E-1	1.045363E+0	1.000715E+0	9.187259E-1	9.770928E-1	1.087607E+0	1.028470E+0	1.072120E+0	1.062282E+0	1.083345E+0	1.043806E+0	1.075360E+0	1.056570E+0	1.060885E+0	1.056744E+0	9.482078E-1	9.913407E-1	1.091648E+0	1.004521E+0	9.933341E-1	1.017322E+0	1.021904E+0	1.075573E+0	1.000214E+0	1.025356E+0	1.074896E+0	9.591013E-1	9.423171E-1	1.008333E+0	1.031546E+0	8.914004E-1	8.956029E-1	1.020435E+0	1.118427E+0	9.444421E-1	9.308385E-1	9.730109E-1	1.083532E+0	1.051373E+0	9.913578E-1	1.046184E+0	1.090320E+0	9.785313E-1	9.834535E-1	9.854626E-1	1.091015E+0	8.769883E-1	9.280078E-1	9.604616E-1	1.108059E+0	9.314485E-1	9.608150E-1	1.011039E+0	1.100059E+0	1.025683E+0	1.028213E+0	1.021934E+0	1.070330E+0	9.675847E-1	9.923174E-1	1.038358E+0	1.044244E+0	8.889748E-1	9.161973E-1	1.018464E+0	1.047756E+0	8.859794E-1	9.610866E-1	9.981682E-1	1.060683E+0	1.012284E+0	1.020654E+0	1.060599E+0	1.073627E+0	9.442747E-1	1.005969E+0	1.071680E+0	1.086863E+0	8.850052E-1	8.687469E-1	1.012009E+0	1.073621E+0	8.961889E-1	9.023572E-1	1.023859E+0	1.086224E+0	9.989419E-1	1.048224E+0	1.029720E+0	1.038880E+0	1.026230E+0	9.864750E-1	1.013357E+0	1.084219E+0	8.982464E-1	8.655067E-1	1.025089E+0	1.055916E+0	8.786613E-1	9.126475E-1	9.738494E-1	1.076046E+0	1.017290E+0	9.827722E-1	1.072384E+0	1.097567E+0	9.987365E-1	9.983963E-1	1.065777E+0	1.063885E+0	9.472203E-1	9.147661E-1	1.059241E+0	1.046573E+0	9.358575E-1	9.276519E-1	1.072681E+0	1.061354E+0	1.021298E+0	9.617823E-1	1.085057E+0	1.072779E+0	9.577988E-1	9.933912E-1	1.034960E+0	1.037200E+0	8.777797E-1	8.509981E-1	1.073175E+0	1.096584E+0	8.946186E-1	9.179507E-1	1.064219E+0	1.091222E+0	1.020758E+0	1.049264E+0	1.071970E+0	1.018834E+0	7.950706E-1	9.676344E-1	1.091338E+0	1.128394E+0	8.449219E-1	9.092796E-1	1.042192E+0	1.048965E+0	9.720741E-1	9.781673E-1	1.066342E+0	9.891722E-1	1.058775E+0
5.432960E+2	1.166852E+0	9.765739E-1	1.165396E+0	1.165535E+0	1.142693E+0	1.138248E+0	1.222720E+0	1.119523E+0	1.072511E+0	1.122788E+0	1.058959E+0	1.206312E+0	1.004870E+0	1.003125E+0	1.047336E+0	1.201953E+0	1.044312E+0	1.046973E+0	1.114984E+0	1.287648E+0	1.144037E+0	1.182948E+0	1.173659E+0	1.143581E+0	1.165140E+0	1.134943E+0	1.192546E+0	1.204391E+0	1.163039E+0	1.019026E+0	1.110008E+0	1.200402E+0	1.192569E+0	1.045455E+0	1.126368E+0	1.218357E+0	1.160864E+0	1.097742E+0	1.139699E+0	1.199490E+0	1.079355E+0	1.089807E+0	1.139772E+0	1.190914E+0	1.066676E+0	9.956304E-1	1.160127E+0	1.244004E+0	1.071692E+0	1.012445E+0	1.100490E+0	1.247645E+0	1.142502E+0	1.081726E+0	1.194208E+0	1.147817E+0	1.060431E+0	1.147517E+0	1.066124E+0	1.229954E+0	1.012133E+0	1.066450E+0	1.127271E+0	1.241282E+0	1.041385E+0	1.023635E+0	1.126096E+0	1.169277E+0	1.039541E+0	1.096215E+0	1.156556E+0	1.224881E+0	1.091413E+0	1.121931E+0	1.199529E+0	1.137813E+0	1.001288E+0	9.827917E-1	1.126799E+0	1.182668E+0	9.832364E-1	1.017245E+0	1.158705E+0	1.228376E+0	1.109981E+0	1.110509E+0	1.165104E+0	1.207807E+0	1.109645E+0	1.073195E+0	1.235706E+0	1.187151E+0	9.685870E-1	9.828579E-1	1.105108E+0	1.206675E+0	1.024476E+0	1.009275E+0	1.167517E+0	1.212192E+0	1.098658E+0	1.125268E+0	1.162014E+0	1.222380E+0	1.117119E+0	1.138206E+0	1.143957E+0	1.237201E+0	1.043648E+0	1.009853E+0	1.162700E+0	1.151238E+0	9.965980E-1	9.931884E-1	1.174790E+0	1.230528E+0	1.101430E+0	1.116653E+0	1.156362E+0	1.208612E+0	1.166253E+0	1.053836E+0	1.208424E+0	1.200450E+0	1.018540E+0	1.041344E+0	1.150356E+0	1.175263E+0	1.022499E+0	1.019703E+0	1.173121E+0	1.211773E+0	1.094401E+0	1.112883E+0	1.196459E+0	1.200626E+0	1.050720E+0	1.096520E+0	1.129547E+0	1.166671E+0	1.005218E+0	9.624853E-1	1.180129E+0	1.181566E+0	1.025643E+0	1.047893E+0	1.170265E+0	1.186316E+0	1.076566E+0	1.098524E+0	1.151060E+0	1.179560E+0	9.380302E-1	1.115398E+0	1.161706E+0	1.163836E+0	9.821154E-1	1.026580E+0	1.198081E+0	1.133577E+0	1.070972E+0	1.046445E+0	1.212789E+0	1.167730E+0	1.249706E+0
5.435330E+2	1.377026E+0	1.140969E+0	1.324831E+0	1.333880E+0	1.345174E+0	1.314633E+0	1.360684E+0	1.389649E+0	1.271308E+0	1.228012E+0	1.312430E+0	1.305164E+0	1.137243E+0	1.167912E+0	1.203582E+0	1.354191E+0	1.181977E+0	1.167938E+0	1.196167E+0	1.390507E+0	1.300757E+0	1.340975E+0	1.334274E+0	1.333233E+0	1.356971E+0	1.253516E+0	1.390329E+0	1.300855E+0	1.291651E+0	1.218798E+0	1.341920E+0	1.379417E+0	1.305001E+0	1.263525E+0	1.301084E+0	1.384004E+0	1.341312E+0	1.234625E+0	1.331618E+0	1.362029E+0	1.205103E+0	1.237931E+0	1.384410E+0	1.358962E+0	1.157017E+0	1.137068E+0	1.283769E+0	1.330672E+0	1.293315E+0	1.103310E+0	1.283095E+0	1.355958E+0	1.275379E+0	1.292402E+0	1.332404E+0	1.358451E+0	1.216900E+0	1.249437E+0	1.300598E+0	1.297491E+0	1.127972E+0	1.100520E+0	1.245019E+0	1.359571E+0	1.151322E+0	1.198410E+0	1.274736E+0	1.349519E+0	1.184149E+0	1.267983E+0	1.330877E+0	1.359079E+0	1.193194E+0	1.315438E+0	1.325244E+0	1.310789E+0	1.117615E+0	1.138924E+0	1.283145E+0	1.332696E+0	1.106469E+0	1.189380E+0	1.314782E+0	1.351681E+0	1.259093E+0	1.311320E+0	1.341603E+0	1.339083E+0	1.218422E+0	1.235297E+0	1.351037E+0	1.247323E+0	1.163426E+0	1.052962E+0	1.298423E+0	1.359272E+0	1.142940E+0	1.117945E+0	1.233614E+0	1.344221E+0	1.256965E+0	1.325815E+0	1.303454E+0	1.291750E+0	1.241558E+0	1.238325E+0	1.346456E+0	1.317754E+0	1.090133E+0	1.175299E+0	1.346583E+0	1.313171E+0	1.133975E+0	1.093273E+0	1.347116E+0	1.326894E+0	1.235927E+0	1.234225E+0	1.339475E+0	1.360330E+0	1.219682E+0	1.288436E+0	1.301624E+0	1.345978E+0	1.183901E+0	1.173428E+0	1.307278E+0	1.291080E+0	1.126835E+0	1.163454E+0	1.356914E+0	1.347021E+0	1.246503E+0	1.272838E+0	1.347738E+0	1.305228E+0	1.173375E+0	1.232285E+0	1.284017E+0	1.324366E+0	1.139889E+0	1.087710E+0	1.305436E+0	1.303916E+0	1.165270E+0	1.148691E+0	1.385223E+0	1.266620E+0	1.244670E+0	1.296807E+0	1.389676E+0	1.353289E+0	1.055220E+0	1.196058E+0	1.303865E+0	1.289849E+0	1.144137E+0	1.126546E+0	1.367841E+0	1.307813E+0	1.177696E+0	1.211580E+0	1.317059E+0	1.208392E+0	1.335198E+0
5.437640E+2	1.530158E+0	1.258019E+0	1.488842E+0	1.542905E+0	1.469128E+0	1.511445E+0	1.537179E+0	1.471700E+0	1.369140E+0	1.346710E+0	1.374145E+0	1.512285E+0	1.235455E+0	1.303622E+0	1.362474E+0	1.449886E+0	1.277196E+0	1.282184E+0	1.288690E+0	1.504715E+0	1.471011E+0	1.475136E+0	1.390551E+0	1.470998E+0	1.537953E+0	1.437569E+0	1.496776E+0	1.447932E+0	1.440813E+0	1.293316E+0	1.452152E+0	1.526050E+0	1.472666E+0	1.304865E+0	1.442062E+0	1.517485E+0	1.423120E+0	1.390328E+0	1.431024E+0	1.481521E+0	1.303995E+0	1.401879E+0	1.475601E+0	1.511506E+0	1.261422E+0	1.269364E+0	1.449022E+0	1.523459E+0	1.418127E+0	1.285039E+0	1.364636E+0	1.466239E+0	1.432359E+0	1.334321E+0	1.504138E+0	1.438615E+0	1.327530E+0	1.347006E+0	1.370627E+0	1.482097E+0	1.290470E+0	1.297907E+0	1.426838E+0	1.524457E+0	1.278418E+0	1.304146E+0	1.402228E+0	1.412574E+0	1.357677E+0	1.430369E+0	1.459750E+0	1.481730E+0	1.333878E+0	1.401847E+0	1.452246E+0	1.442522E+0	1.265458E+0	1.216714E+0	1.453644E+0	1.529252E+0	1.258696E+0	1.274835E+0	1.461938E+0	1.429185E+0	1.370501E+0	1.413233E+0	1.485007E+0	1.473265E+0	1.432207E+0	1.396770E+0	1.532364E+0	1.521661E+0	1.225974E+0	1.265831E+0	1.394485E+0	1.484126E+0	1.289026E+0	1.283873E+0	1.389412E+0	1.485680E+0	1.379214E+0	1.408521E+0	1.494275E+0	1.514966E+0	1.417237E+0	1.357100E+0	1.442758E+0	1.460747E+0	1.227428E+0	1.207499E+0	1.409081E+0	1.448118E+0	1.255152E+0	1.264427E+0	1.496549E+0	1.489469E+0	1.412492E+0	1.397356E+0	1.478851E+0	1.492680E+0	1.392976E+0	1.419159E+0	1.511477E+0	1.434264E+0	1.303817E+0	1.252676E+0	1.473692E+0	1.497595E+0	1.290967E+0	1.322968E+0	1.451204E+0	1.441361E+0	1.472887E+0	1.346616E+0	1.460411E+0	1.487314E+0	1.291075E+0	1.360868E+0	1.468430E+0	1.468561E+0	1.225591E+0	1.197613E+0	1.467449E+0	1.479905E+0	1.271809E+0	1.292600E+0	1.494136E+0	1.509644E+0	1.382149E+0	1.371318E+0	1.501610E+0	1.465563E+0	1.173638E+0	1.351281E+0	1.416885E+0	1.453929E+0	1.197053E+0	1.294695E+0	1.468906E+0	1.473901E+0	1.284419E+0	1.344958E+0	1.410787E+0	1.439986E+0	1.494783E+0
5.440170E+2	1.667795E+0	1.321148E+0	1.612988E+0	1.607434E+0	1.602167E+0	1.595892E+0	1.706842E+0	1.621280E+0	1.454431E+0	1.520583E+0	1.526225E+0	1.649976E+0	1.380635E+0	1.390863E+0	1.446689E+0	1.626983E+0	1.432067E+0	1.350508E+0	1.478512E+0	1.648715E+0	1.535279E+0	1.574300E+0	1.513652E+0	1.609952E+0	1.678270E+0	1.605103E+0	1.616270E+0	1.626567E+0	1.540061E+0	1.449222E+0	1.555161E+0	1.610978E+0	1.535787E+0	1.484591E+0	1.527612E+0	1.604416E+0	1.625036E+0	1.478731E+0	1.606854E+0	1.616872E+0	1.431571E+0	1.506323E+0	1.571193E+0	1.654131E+0	1.406400E+0	1.368318E+0	1.608925E+0	1.615430E+0	1.486317E+0	1.393845E+0	1.514511E+0	1.559457E+0	1.517023E+0	1.535200E+0	1.624984E+0	1.631003E+0	1.452217E+0	1.457003E+0	1.546329E+0	1.581797E+0	1.376810E+0	1.413634E+0	1.522076E+0	1.700097E+0	1.416951E+0	1.433519E+0	1.514178E+0	1.601042E+0	1.452274E+0	1.597447E+0	1.593797E+0	1.674232E+0	1.455759E+0	1.493123E+0	1.584406E+0	1.640738E+0	1.333076E+0	1.356616E+0	1.541666E+0	1.653693E+0	1.430861E+0	1.420722E+0	1.534564E+0	1.596878E+0	1.520762E+0	1.506703E+0	1.564549E+0	1.698644E+0	1.501372E+0	1.492894E+0	1.638721E+0	1.613540E+0	1.349963E+0	1.322631E+0	1.523164E+0	1.642403E+0	1.417928E+0	1.380856E+0	1.616704E+0	1.583357E+0	1.497520E+0	1.602266E+0	1.522318E+0	1.654827E+0	1.522156E+0	1.515671E+0	1.544336E+0	1.594995E+0	1.326885E+0	1.390711E+0	1.591161E+0	1.578471E+0	1.343930E+0	1.375172E+0	1.583029E+0	1.654985E+0	1.538063E+0	1.531238E+0	1.577409E+0	1.658599E+0	1.510669E+0	1.539960E+0	1.609743E+0	1.584623E+0	1.385237E+0	1.419430E+0	1.583157E+0	1.664278E+0	1.381881E+0	1.403040E+0	1.564624E+0	1.577929E+0	1.490576E+0	1.467615E+0	1.572446E+0	1.593576E+0	1.450898E+0	1.520783E+0	1.590237E+0	1.583306E+0	1.376959E+0	1.308573E+0	1.571240E+0	1.540780E+0	1.351880E+0	1.417685E+0	1.617377E+0	1.589944E+0	1.582920E+0	1.570216E+0	1.597461E+0	1.662924E+0	1.260151E+0	1.457695E+0	1.522081E+0	1.605544E+0	1.330980E+0	1.358835E+0	1.657160E+0	1.619935E+0	1.398971E+0	1.444993E+0	1.606440E+0	1.547828E+0	1.463437E+0
5.442920E+2	1.688256E+0	1.419784E+0	1.624752E+0	1.677580E+0	1.659278E+0	1.621093E+0	1.714919E+0	1.686920E+0	1.606819E+0	1.557157E+0	1.617146E+0	1.758831E+0	1.525283E+0	1.464329E+0	1.525077E+0	1.743804E+0	1.589232E+0	1.445715E+0	1.490451E+0	1.743066E+0	1.662122E+0	1.652780E+0	1.578715E+0	1.661247E+0	1.748085E+0	1.653474E+0	1.702797E+0	1.671227E+0	1.586457E+0	1.479344E+0	1.576242E+0	1.725229E+0	1.658740E+0	1.491782E+0	1.621601E+0	1.747475E+0	1.709747E+0	1.559145E+0	1.640758E+0	1.683702E+0	1.550603E+0	1.565193E+0	1.661754E+0	1.677696E+0	1.443729E+0	1.436619E+0	1.697497E+0	1.738058E+0	1.545376E+0	1.431465E+0	1.592029E+0	1.681556E+0	1.565823E+0	1.562418E+0	1.632501E+0	1.717248E+0	1.471163E+0	1.594344E+0	1.543201E+0	1.718802E+0	1.445456E+0	1.442835E+0	1.601729E+0	1.710851E+0	1.481770E+0	1.491987E+0	1.583834E+0	1.685336E+0	1.566755E+0	1.592169E+0	1.661107E+0	1.672582E+0	1.516053E+0	1.587443E+0	1.627600E+0	1.694908E+0	1.406996E+0	1.436641E+0	1.613684E+0	1.656022E+0	1.461064E+0	1.532428E+0	1.651779E+0	1.694817E+0	1.547615E+0	1.606807E+0	1.731756E+0	1.699804E+0	1.510176E+0	1.564523E+0	1.688695E+0	1.702183E+0	1.419155E+0	1.407060E+0	1.625161E+0	1.721856E+0	1.409335E+0	1.492447E+0	1.628844E+0	1.717409E+0	1.553853E+0	1.587536E+0	1.608279E+0	1.638604E+0	1.544723E+0	1.575371E+0	1.668341E+0	1.672423E+0	1.378234E+0	1.467880E+0	1.631423E+0	1.661159E+0	1.406783E+0	1.422548E+0	1.653612E+0	1.674848E+0	1.563562E+0	1.548116E+0	1.601899E+0	1.659245E+0	1.579266E+0	1.604158E+0	1.657927E+0	1.647385E+0	1.423103E+0	1.503633E+0	1.607831E+0	1.697986E+0	1.469133E+0	1.464194E+0	1.657550E+0	1.636644E+0	1.628529E+0	1.606320E+0	1.696511E+0	1.649477E+0	1.553732E+0	1.524699E+0	1.568461E+0	1.609692E+0	1.404227E+0	1.331293E+0	1.667433E+0	1.676990E+0	1.371729E+0	1.437116E+0	1.685449E+0	1.687156E+0	1.573395E+0	1.625016E+0	1.640356E+0	1.645789E+0	1.311690E+0	1.529543E+0	1.640074E+0	1.587822E+0	1.430934E+0	1.453601E+0	1.633381E+0	1.616802E+0	1.504272E+0	1.597426E+0	1.577152E+0	1.680422E+0	1.551778E+0
5.445070E+2	1.669038E+0	1.459239E+0	1.723418E+0	1.633388E+0	1.680693E+0	1.706899E+0	1.778308E+0	1.695122E+0	1.712179E+0	1.608486E+0	1.588491E+0	1.696460E+0	1.721173E+0	1.459226E+0	1.553149E+0	1.713357E+0	1.716576E+0	1.424433E+0	1.453440E+0	1.652265E+0	1.672268E+0	1.615663E+0	1.585752E+0	1.736388E+0	1.720295E+0	1.626339E+0	1.643052E+0	1.646219E+0	1.675134E+0	1.519513E+0	1.579254E+0	1.739895E+0	1.623896E+0	1.477406E+0	1.585448E+0	1.681764E+0	1.669132E+0	1.600781E+0	1.657993E+0	1.733538E+0	1.531682E+0	1.519616E+0	1.669929E+0	1.700018E+0	1.499988E+0	1.440920E+0	1.588119E+0	1.701507E+0	1.542334E+0	1.452299E+0	1.571933E+0	1.715692E+0	1.658721E+0	1.599980E+0	1.612260E+0	1.655880E+0	1.521285E+0	1.559544E+0	1.648249E+0	1.730378E+0	1.380026E+0	1.424447E+0	1.584990E+0	1.774178E+0	1.491300E+0	1.487010E+0	1.601243E+0	1.626395E+0	1.562536E+0	1.570481E+0	1.628893E+0	1.757281E+0	1.536149E+0	1.642211E+0	1.663054E+0	1.687522E+0	1.421896E+0	1.434963E+0	1.630918E+0	1.673464E+0	1.471938E+0	1.465282E+0	1.611006E+0	1.736388E+0	1.596175E+0	1.689426E+0	1.702730E+0	1.648106E+0	1.611410E+0	1.552585E+0	1.686777E+0	1.716416E+0	1.450154E+0	1.357937E+0	1.615670E+0	1.699786E+0	1.447393E+0	1.436361E+0	1.569490E+0	1.747719E+0	1.579205E+0	1.578472E+0	1.675339E+0	1.654269E+0	1.602675E+0	1.554228E+0	1.667025E+0	1.659936E+0	1.420937E+0	1.406811E+0	1.653055E+0	1.684125E+0	1.411967E+0	1.415443E+0	1.637079E+0	1.693239E+0	1.624754E+0	1.623493E+0	1.613561E+0	1.661185E+0	1.622585E+0	1.598320E+0	1.710548E+0	1.678425E+0	1.527875E+0	1.518491E+0	1.636304E+0	1.699822E+0	1.480726E+0	1.510849E+0	1.734075E+0	1.727689E+0	1.567807E+0	1.539621E+0	1.675621E+0	1.617376E+0	1.507893E+0	1.565165E+0	1.713404E+0	1.669825E+0	1.356368E+0	1.345562E+0	1.678195E+0	1.698689E+0	1.455772E+0	1.463223E+0	1.667535E+0	1.671658E+0	1.552295E+0	1.542502E+0	1.717437E+0	1.697789E+0	1.350959E+0	1.491589E+0	1.590316E+0	1.584542E+0	1.366260E+0	1.472668E+0	1.612242E+0	1.700162E+0	1.425294E+0	1.534707E+0	1.640416E+0	1.477112E+0	1.620171E+0
5.447720E+2	1.706237E+0	1.324436E+0	1.697932E+0	1.671266E+0	1.617742E+0	1.633348E+0	1.732938E+0	1.680606E+0	1.685209E+0	1.489147E+0	1.616595E+0	1.698227E+0	1.691817E+0	1.435249E+0	1.540436E+0	1.650595E+0	1.615621E+0	1.385230E+0	1.436725E+0	1.641624E+0	1.669451E+0	1.616724E+0	1.585166E+0	1.652895E+0	1.723006E+0	1.613949E+0	1.616266E+0	1.629547E+0	1.692162E+0	1.483047E+0	1.590097E+0	1.659858E+0	1.621922E+0	1.510354E+0	1.586052E+0	1.679027E+0	1.685381E+0	1.533479E+0	1.572378E+0	1.651422E+0	1.687343E+0	1.470242E+0	1.572451E+0	1.629328E+0	1.669312E+0	1.419947E+0	1.597630E+0	1.673209E+0	1.670802E+0	1.487027E+0	1.563893E+0	1.653983E+0	1.662246E+0	1.526488E+0	1.636548E+0	1.627686E+0	1.541451E+0	1.519771E+0	1.578842E+0	1.658338E+0	1.481923E+0	1.419583E+0	1.583259E+0	1.662463E+0	1.530700E+0	1.462131E+0	1.542164E+0	1.649698E+0	1.586033E+0	1.569896E+0	1.624287E+0	1.637932E+0	1.501787E+0	1.507727E+0	1.617282E+0	1.669052E+0	1.369749E+0	1.377882E+0	1.635231E+0	1.656019E+0	1.442941E+0	1.453073E+0	1.667067E+0	1.719480E+0	1.551040E+0	1.597764E+0	1.674858E+0	1.614414E+0	1.588143E+0	1.529339E+0	1.605404E+0	1.709942E+0	1.389817E+0	1.315465E+0	1.603219E+0	1.672669E+0	1.448620E+0	1.387866E+0	1.616703E+0	1.685745E+0	1.519490E+0	1.590371E+0	1.600353E+0	1.671610E+0	1.541064E+0	1.529353E+0	1.593148E+0	1.589375E+0	1.302558E+0	1.402369E+0	1.598374E+0	1.610051E+0	1.387993E+0	1.390570E+0	1.558228E+0	1.645426E+0	1.504919E+0	1.567241E+0	1.586155E+0	1.683782E+0	1.621142E+0	1.587232E+0	1.625594E+0	1.617725E+0	1.428151E+0	1.460154E+0	1.643265E+0	1.668570E+0	1.435574E+0	1.476175E+0	1.647980E+0	1.621470E+0	1.536561E+0	1.575036E+0	1.607895E+0	1.621252E+0	1.465146E+0	1.459428E+0	1.629706E+0	1.672280E+0	1.386418E+0	1.316501E+0	1.592757E+0	1.601050E+0	1.451140E+0	1.416471E+0	1.633145E+0	1.616711E+0	1.597215E+0	1.572677E+0	1.616896E+0	1.638698E+0	1.573063E+0	1.527512E+0	1.596714E+0	1.643610E+0	1.411336E+0	1.378482E+0	1.661788E+0	1.581706E+0	1.475811E+0	1.452137E+0	1.638073E+0	1.505398E+0	1.406442E+0
5.450150E+2	1.629977E+0	1.281033E+0	1.577052E+0	1.594113E+0	1.580752E+0	1.546177E+0	1.612997E+0	1.615601E+0	1.566684E+0	1.457068E+0	1.541102E+0	1.590544E+0	1.588269E+0	1.359742E+0	1.435039E+0	1.600886E+0	1.594397E+0	1.395311E+0	1.430160E+0	1.589839E+0	1.631679E+0	1.502709E+0	1.510719E+0	1.611743E+0	1.617263E+0	1.609232E+0	1.496089E+0	1.580124E+0	1.630502E+0	1.437067E+0	1.449744E+0	1.628085E+0	1.566032E+0	1.368969E+0	1.464354E+0	1.542126E+0	1.562954E+0	1.480440E+0	1.520090E+0	1.594221E+0	1.627520E+0	1.504426E+0	1.498240E+0	1.577860E+0	1.627656E+0	1.329599E+0	1.507872E+0	1.585360E+0	1.578255E+0	1.338283E+0	1.500152E+0	1.521380E+0	1.689291E+0	1.420877E+0	1.586822E+0	1.575164E+0	1.529227E+0	1.411016E+0	1.540701E+0	1.556067E+0	1.570412E+0	1.361177E+0	1.518610E+0	1.618252E+0	1.582810E+0	1.381893E+0	1.456338E+0	1.571571E+0	1.630621E+0	1.471406E+0	1.525332E+0	1.559832E+0	1.474558E+0	1.402457E+0	1.608258E+0	1.557634E+0	1.428197E+0	1.331434E+0	1.511505E+0	1.567048E+0	1.443546E+0	1.365785E+0	1.581066E+0	1.610969E+0	1.477340E+0	1.515749E+0	1.581963E+0	1.627776E+0	1.480625E+0	1.465252E+0	1.579136E+0	1.619362E+0	1.331697E+0	1.321095E+0	1.482843E+0	1.613396E+0	1.298849E+0	1.355731E+0	1.558025E+0	1.610302E+0	1.504280E+0	1.511626E+0	1.533294E+0	1.513851E+0	1.450786E+0	1.426125E+0	1.534445E+0	1.538798E+0	1.330667E+0	1.386824E+0	1.544286E+0	1.534824E+0	1.349111E+0	1.289298E+0	1.532794E+0	1.638066E+0	1.422690E+0	1.524490E+0	1.540667E+0	1.606305E+0	1.530164E+0	1.468181E+0	1.604035E+0	1.557723E+0	1.332218E+0	1.372101E+0	1.562274E+0	1.575421E+0	1.384322E+0	1.329271E+0	1.533881E+0	1.593760E+0	1.540100E+0	1.444002E+0	1.599033E+0	1.514431E+0	1.419306E+0	1.463343E+0	1.563698E+0	1.623803E+0	1.309621E+0	1.298005E+0	1.569976E+0	1.554040E+0	1.363788E+0	1.400683E+0	1.552174E+0	1.535706E+0	1.478793E+0	1.488314E+0	1.581372E+0	1.545334E+0	1.470602E+0	1.398723E+0	1.543407E+0	1.564850E+0	1.296354E+0	1.355947E+0	1.561382E+0	1.587972E+0	1.453043E+0	1.441021E+0	1.592382E+0	1.455898E+0	1.386494E+0
5.452580E+2	1.544419E+0	1.205413E+0	1.525429E+0	1.547814E+0	1.475620E+0	1.454923E+0	1.568253E+0	1.498205E+0	1.503972E+0	1.409587E+0	1.459003E+0	1.538174E+0	1.498596E+0	1.285253E+0	1.392136E+0	1.538123E+0	1.519255E+0	1.260344E+0	1.347786E+0	1.511099E+0	1.486798E+0	1.469304E+0	1.491962E+0	1.510359E+0	1.542699E+0	1.500688E+0	1.472053E+0	1.486041E+0	1.508351E+0	1.363075E+0	1.435888E+0	1.480229E+0	1.511462E+0	1.332424E+0	1.445074E+0	1.540757E+0	1.496229E+0	1.411428E+0	1.471248E+0	1.549482E+0	1.470027E+0	1.356935E+0	1.449817E+0	1.537553E+0	1.507019E+0	1.305933E+0	1.448429E+0	1.569443E+0	1.562424E+0	1.312818E+0	1.384160E+0	1.510878E+0	1.563471E+0	1.404000E+0	1.467128E+0	1.524858E+0	1.523726E+0	1.386158E+0	1.461917E+0	1.520688E+0	1.455108E+0	1.290877E+0	1.401440E+0	1.566874E+0	1.560567E+0	1.336489E+0	1.465664E+0	1.544155E+0	1.537832E+0	1.400471E+0	1.497718E+0	1.526283E+0	1.503732E+0	1.429839E+0	1.540567E+0	1.471455E+0	1.532492E+0	1.265959E+0	1.438257E+0	1.500756E+0	1.546240E+0	1.290706E+0	1.443464E+0	1.539808E+0	1.529328E+0	1.413233E+0	1.528552E+0	1.508698E+0	1.464275E+0	1.359698E+0	1.557350E+0	1.561777E+0	1.459008E+0	1.217217E+0	1.416427E+0	1.527637E+0	1.433886E+0	1.283870E+0	1.406948E+0	1.577290E+0	1.381467E+0	1.492931E+0	1.493666E+0	1.450629E+0	1.350135E+0	1.358966E+0	1.440120E+0	1.533179E+0	1.259317E+0	1.281892E+0	1.525659E+0	1.504965E+0	1.265521E+0	1.309433E+0	1.467295E+0	1.521100E+0	1.429067E+0	1.434481E+0	1.431616E+0	1.564988E+0	1.361926E+0	1.435498E+0	1.478507E+0	1.471510E+0	1.322753E+0	1.361095E+0	1.449644E+0	1.511691E+0	1.299510E+0	1.345035E+0	1.471702E+0	1.450596E+0	1.445772E+0	1.425707E+0	1.510415E+0	1.527164E+0	1.323905E+0	1.405906E+0	1.468431E+0	1.502925E+0	1.268441E+0	1.244111E+0	1.475675E+0	1.491960E+0	1.224165E+0	1.292600E+0	1.420333E+0	1.559659E+0	1.406650E+0	1.453216E+0	1.569307E+0	1.511654E+0	1.379794E+0	1.427873E+0	1.505021E+0	1.518252E+0	1.293741E+0	1.292964E+0	1.499950E+0	1.498973E+0	1.302920E+0	1.304468E+0	1.385011E+0	1.388718E+0	1.397893E+0
5.455130E+2	1.407404E+0	1.200809E+0	1.445059E+0	1.389996E+0	1.443819E+0	1.365708E+0	1.460740E+0	1.457182E+0	1.426210E+0	1.363393E+0	1.418227E+0	1.432850E+0	1.498598E+0	1.209749E+0	1.330167E+0	1.486549E+0	1.483692E+0	1.216659E+0	1.288691E+0	1.446545E+0	1.415201E+0	1.394534E+0	1.370033E+0	1.439986E+0	1.447126E+0	1.406892E+0	1.388953E+0	1.430069E+0	1.532428E+0	1.240465E+0	1.364810E+0	1.457011E+0	1.463462E+0	1.277305E+0	1.343256E+0	1.434657E+0	1.444009E+0	1.312188E+0	1.389654E+0	1.471894E+0	1.454156E+0	1.280340E+0	1.339132E+0	1.522669E+0	1.424793E+0	1.255383E+0	1.382446E+0	1.485724E+0	1.458922E+0	1.241053E+0	1.341093E+0	1.436701E+0	1.468225E+0	1.298936E+0	1.413355E+0	1.441378E+0	1.425935E+0	1.315311E+0	1.320606E+0	1.390114E+0	1.415425E+0	1.231929E+0	1.414141E+0	1.462326E+0	1.478593E+0	1.263720E+0	1.351232E+0	1.514689E+0	1.382984E+0	1.403990E+0	1.346409E+0	1.431131E+0	1.359811E+0	1.326390E+0	1.404542E+0	1.371729E+0	1.452266E+0	1.192649E+0	1.380400E+0	1.404225E+0	1.392802E+0	1.280330E+0	1.368929E+0	1.444688E+0	1.400782E+0	1.331824E+0	1.488492E+0	1.448869E+0	1.449812E+0	1.306293E+0	1.476621E+0	1.419432E+0	1.437420E+0	1.208009E+0	1.352977E+0	1.403411E+0	1.485446E+0	1.233041E+0	1.404251E+0	1.425054E+0	1.417520E+0	1.368867E+0	1.432087E+0	1.395805E+0	1.384907E+0	1.314190E+0	1.377457E+0	1.390185E+0	1.370667E+0	1.196396E+0	1.379035E+0	1.388398E+0	1.314767E+0	1.202243E+0	1.434868E+0	1.387953E+0	1.388907E+0	1.369793E+0	1.450859E+0	1.410041E+0	1.399474E+0	1.332207E+0	1.427787E+0	1.410814E+0	1.215456E+0	1.260381E+0	1.342079E+0	1.487791E+0	1.267782E+0	1.244788E+0	1.384247E+0	1.416292E+0	1.406271E+0	1.357830E+0	1.473068E+0	1.433075E+0	1.319570E+0	1.257741E+0	1.406505E+0	1.429906E+0	1.227260E+0	1.145305E+0	1.473778E+0	1.417825E+0	1.262544E+0	1.249489E+0	1.416033E+0	1.430043E+0	1.350164E+0	1.383633E+0	1.474129E+0	1.434836E+0	1.287759E+0	1.303153E+0	1.368547E+0	1.446056E+0	1.198359E+0	1.251356E+0	1.417384E+0	1.426896E+0	1.253826E+0	1.249688E+0	1.373295E+0	1.417004E+0	1.449188E+0
5.457890E+2	1.340449E+0	1.325091E+0	1.415657E+0	1.323358E+0	1.348421E+0	1.350044E+0	1.362547E+0	1.321487E+0	1.370394E+0	1.245978E+0	1.257881E+0	1.329877E+0	1.361955E+0	1.175057E+0	1.242777E+0	1.313181E+0	1.408547E+0	1.182497E+0	1.202731E+0	1.388378E+0	1.399417E+0	1.330901E+0	1.310242E+0	1.426865E+0	1.380695E+0	1.294219E+0	1.307919E+0	1.348489E+0	1.349202E+0	1.185502E+0	1.313608E+0	1.434405E+0	1.340507E+0	1.241361E+0	1.286023E+0	1.363471E+0	1.408615E+0	1.276258E+0	1.286226E+0	1.415261E+0	1.346112E+0	1.249956E+0	1.359882E+0	1.378186E+0	1.359877E+0	1.196764E+0	1.321812E+0	1.384910E+0	1.394384E+0	1.139770E+0	1.301474E+0	1.358583E+0	1.342405E+0	1.243953E+0	1.343391E+0	1.354028E+0	1.356257E+0	1.257515E+0	1.324983E+0	1.389471E+0	1.345706E+0	1.166493E+0	1.273302E+0	1.439028E+0	1.392165E+0	1.133102E+0	1.295258E+0	1.359800E+0	1.328753E+0	1.303745E+0	1.304988E+0	1.329932E+0	1.330638E+0	1.302049E+0	1.324600E+0	1.311404E+0	1.360009E+0	1.160191E+0	1.298532E+0	1.350724E+0	1.378910E+0	1.139326E+0	1.291845E+0	1.374230E+0	1.312229E+0	1.343282E+0	1.333475E+0	1.330371E+0	1.347949E+0	1.223986E+0	1.363208E+0	1.387728E+0	1.361588E+0	1.102597E+0	1.228448E+0	1.356120E+0	1.389079E+0	1.219603E+0	1.318595E+0	1.346240E+0	1.322312E+0	1.334878E+0	1.314427E+0	1.335944E+0	1.358675E+0	1.282476E+0	1.264007E+0	1.359588E+0	1.343642E+0	1.150871E+0	1.344179E+0	1.322935E+0	1.324488E+0	1.091499E+0	1.306420E+0	1.363678E+0	1.374248E+0	1.277537E+0	1.354054E+0	1.402293E+0	1.343153E+0	1.269762E+0	1.323177E+0	1.343910E+0	1.296874E+0	1.199292E+0	1.408516E+0	1.331527E+0	1.338561E+0	1.213263E+0	1.324804E+0	1.347018E+0	1.351443E+0	1.253358E+0	1.399011E+0	1.341755E+0	1.178330E+0	1.247297E+0	1.307154E+0	1.372843E+0	1.107614E+0	1.104620E+0	1.320626E+0	1.405772E+0	1.210928E+0	1.177230E+0	1.348683E+0	1.350446E+0	1.281422E+0	1.334987E+0	1.377611E+0	1.313107E+0	1.314142E+0	1.273331E+0	1.364995E+0	1.356796E+0	1.126496E+0	1.164105E+0	1.299147E+0	1.346046E+0	1.225367E+0	1.247306E+0	1.359237E+0	1.321537E+0	1.298151E+0
5.460060E+2	1.253030E+0	1.346790E+0	1.288240E+0	1.342296E+0	1.270542E+0	1.330295E+0	1.347633E+0	1.356201E+0	1.335276E+0	1.206197E+0	1.262287E+0	1.358711E+0	1.304844E+0	1.104651E+0	1.136847E+0	1.301995E+0	1.332260E+0	1.152818E+0	1.210490E+0	1.291194E+0	1.281027E+0	1.289537E+0	1.234036E+0	1.301623E+0	1.310200E+0	1.272982E+0	1.279762E+0	1.285374E+0	1.348614E+0	1.183388E+0	1.238915E+0	1.257833E+0	1.247797E+0	1.156888E+0	1.260718E+0	1.292283E+0	1.325646E+0	1.188426E+0	1.289098E+0	1.318984E+0	1.288124E+0	1.184759E+0	1.247309E+0	1.306253E+0	1.310109E+0	1.130077E+0	1.231457E+0	1.327724E+0	1.267133E+0	1.122407E+0	1.234860E+0	1.315258E+0	1.312417E+0	1.200401E+0	1.311009E+0	1.373379E+0	1.308583E+0	1.205315E+0	1.229316E+0	1.334156E+0	1.287786E+0	1.152434E+0	1.254257E+0	1.314764E+0	1.299388E+0	1.128749E+0	1.241150E+0	1.293323E+0	1.267299E+0	1.270913E+0	1.245156E+0	1.288130E+0	1.168560E+0	1.168786E+0	1.237565E+0	1.307710E+0	1.262592E+0	1.072331E+0	1.268372E+0	1.269313E+0	1.276216E+0	1.116740E+0	1.265090E+0	1.301655E+0	1.312799E+0	1.267297E+0	1.313155E+0	1.280996E+0	1.405168E+0	1.159272E+0	1.280557E+0	1.306851E+0	1.301255E+0	1.093385E+0	1.227262E+0	1.310716E+0	1.321560E+0	1.140147E+0	1.295663E+0	1.336138E+0	1.317807E+0	1.275959E+0	1.293091E+0	1.295665E+0	1.271447E+0	1.198527E+0	1.271260E+0	1.302141E+0	1.238239E+0	1.088134E+0	1.298510E+0	1.255175E+0	1.283017E+0	1.083800E+0	1.293700E+0	1.314388E+0	1.304766E+0	1.254474E+0	1.278243E+0	1.303514E+0	1.314272E+0	1.251670E+0	1.299722E+0	1.265283E+0	1.313284E+0	1.125545E+0	1.301585E+0	1.250025E+0	1.291576E+0	1.172281E+0	1.297472E+0	1.298201E+0	1.310762E+0	1.211451E+0	1.276214E+0	1.346184E+0	1.254527E+0	1.208132E+0	1.337775E+0	1.259937E+0	1.292927E+0	1.082426E+0	1.282652E+0	1.311148E+0	1.244016E+0	1.138974E+0	1.268428E+0	1.294796E+0	1.252158E+0	1.242620E+0	1.267017E+0	1.285333E+0	1.253400E+0	1.229948E+0	1.277566E+0	1.281975E+0	1.133682E+0	1.102856E+0	1.276027E+0	1.288386E+0	1.149945E+0	1.176647E+0	1.301829E+0	1.284411E+0	1.164215E+0
5.467600E+2	1.234431E+0	1.303391E+0	1.285627E+0	1.203414E+0	1.253667E+0	1.243805E+0	1.270572E+0	1.228712E+0	1.286359E+0	1.199781E+0	1.200573E+0	1.342236E+0	1.295768E+0	1.038328E+0	1.165448E+0	1.278383E+0	1.284653E+0	1.050892E+0	1.103642E+0	1.301835E+0	1.319363E+0	1.263022E+0	1.200039E+0	1.259278E+0	1.231569E+0	1.192754E+0	1.265341E+0	1.188910E+0	1.274030E+0	1.156964E+0	1.203979E+0	1.274940E+0	1.209008E+0	1.136519E+0	1.219148E+0	1.295022E+0	1.291415E+0	1.223216E+0	1.227041E+0	1.273111E+0	1.255159E+0	1.143613E+0	1.208950E+0	1.246723E+0	1.238703E+0	1.071995E+0	1.210653E+0	1.320648E+0	1.299401E+0	1.047748E+0	1.172842E+0	1.233857E+0	1.266559E+0	1.179716E+0	1.284410E+0	1.241246E+0	1.248686E+0	1.148139E+0	1.157412E+0	1.247962E+0	1.235766E+0	1.092407E+0	1.214431E+0	1.330894E+0	1.279052E+0	1.114445E+0	1.155950E+0	1.256999E+0	1.217891E+0	1.183565E+0	1.248608E+0	1.320031E+0	1.237927E+0	1.137144E+0	1.211779E+0	1.253540E+0	1.272333E+0	1.046029E+0	1.193891E+0	1.260009E+0	1.250844E+0	1.083778E+0	1.245344E+0	1.253742E+0	1.276806E+0	1.193727E+0	1.278318E+0	1.235690E+0	1.304564E+0	1.147335E+0	1.255568E+0	1.211737E+0	1.239813E+0	1.047332E+0	1.207694E+0	1.318917E+0	1.255268E+0	1.133136E+0	1.207311E+0	1.257998E+0	1.253579E+0	1.198916E+0	1.235783E+0	1.293988E+0	1.225696E+0	1.181736E+0	1.231027E+0	1.220344E+0	1.275533E+0	1.075366E+0	1.209573E+0	1.260343E+0	1.271350E+0	1.067807E+0	1.237106E+0	1.229793E+0	1.256963E+0	1.175722E+0	1.246754E+0	1.289957E+0	1.253618E+0	1.189811E+0	1.315570E+0	1.214243E+0	1.313286E+0	1.145910E+0	1.242739E+0	1.269633E+0	1.261070E+0	1.082751E+0	1.209332E+0	1.270490E+0	1.277751E+0	1.195515E+0	1.278746E+0	1.222211E+0	1.240898E+0	1.219229E+0	1.290821E+0	1.258711E+0	1.257870E+0	1.046498E+0	1.233290E+0	1.303312E+0	1.253942E+0	1.124403E+0	1.235469E+0	1.259576E+0	1.309325E+0	1.208133E+0	1.288466E+0	1.291835E+0	1.269966E+0	1.162846E+0	1.215727E+0	1.278035E+0	1.295703E+0	1.068183E+0	1.311696E+0	1.265193E+0	1.224654E+0	1.117897E+0	1.202244E+0	1.199551E+0	1.224060E+0
5.475230E+2	1.377026E+0	1.407945E+0	1.345088E+0	1.346506E+0	1.308183E+0	1.379329E+0	1.379327E+0	1.382076E+0	1.323359E+0	1.238920E+0	1.247960E+0	1.328701E+0	1.327793E+0	1.150055E+0	1.232711E+0	1.302615E+0	1.340865E+0	1.195940E+0	1.208103E+0	1.388380E+0	1.266371E+0	1.273097E+0	1.273312E+0	1.281941E+0	1.424075E+0	1.349672E+0	1.295559E+0	1.341344E+0	1.353313E+0	1.209814E+0	1.246747E+0	1.326263E+0	1.341164E+0	1.198826E+0	1.285421E+0	1.353886E+0	1.318103E+0	1.262568E+0	1.304611E+0	1.352965E+0	1.341838E+0	1.207546E+0	1.332840E+0	1.328577E+0	1.330124E+0	1.182244E+0	1.321813E+0	1.364275E+0	1.394383E+0	1.147295E+0	1.261275E+0	1.326417E+0	1.352989E+0	1.232521E+0	1.283256E+0	1.357345E+0	1.287802E+0	1.191643E+0	1.294970E+0	1.335442E+0	1.363938E+0	1.152975E+0	1.259452E+0	1.373313E+0	1.411232E+0	1.136836E+0	1.270380E+0	1.307030E+0	1.331167E+0	1.298469E+0	1.391861E+0	1.330482E+0	1.349438E+0	1.295965E+0	1.320731E+0	1.346492E+0	1.307863E+0	1.119898E+0	1.302228E+0	1.318742E+0	1.341456E+0	1.183883E+0	1.288024E+0	1.314338E+0	1.301373E+0	1.255238E+0	1.398498E+0	1.317009E+0	1.361155E+0	1.237180E+0	1.322844E+0	1.363140E+0	1.397568E+0	1.116925E+0	1.261064E+0	1.330266E+0	1.364528E+0	1.183967E+0	1.202589E+0	1.372514E+0	1.352168E+0	1.270858E+0	1.343081E+0	1.278884E+0	1.352578E+0	1.227132E+0	1.310180E+0	1.398927E+0	1.315533E+0	1.123669E+0	1.298512E+0	1.326953E+0	1.398360E+0	1.080244E+0	1.251096E+0	1.403401E+0	1.379983E+0	1.239286E+0	1.299235E+0	1.400358E+0	1.369868E+0	1.284936E+0	1.327617E+0	1.329426E+0	1.322752E+0	1.167922E+0	1.314871E+0	1.357876E+0	1.364799E+0	1.174805E+0	1.320704E+0	1.357576E+0	1.367949E+0	1.275196E+0	1.369261E+0	1.357806E+0	1.324525E+0	1.241423E+0	1.350705E+0	1.329887E+0	1.326319E+0	1.102506E+0	1.345307E+0	1.341884E+0	1.346583E+0	1.180874E+0	1.306404E+0	1.335653E+0	1.314090E+0	1.247543E+0	1.344095E+0	1.334379E+0	1.350958E+0	1.239437E+0	1.315241E+0	1.306914E+0	1.310728E+0	1.139257E+0	1.279989E+0	1.359835E+0	1.349165E+0	1.213961E+0	1.308858E+0	1.316234E+0	1.244008E+0
5.482600E+2	1.471264E+0	1.478308E+0	1.437872E+0	1.444706E+0	1.400338E+0	1.448111E+0	1.472545E+0	1.393439E+0	1.471362E+0	1.344145E+0	1.357614E+0	1.391659E+0	1.428674E+0	1.217402E+0	1.359297E+0	1.405768E+0	1.420594E+0	1.244102E+0	1.295256E+0	1.400435E+0	1.401107E+0	1.354232E+0	1.428066E+0	1.434019E+0	1.527787E+0	1.352619E+0	1.408185E+0	1.482466E+0	1.494257E+0	1.255792E+0	1.359391E+0	1.506502E+0	1.452283E+0	1.329427E+0	1.412539E+0	1.414123E+0	1.503773E+0	1.357817E+0	1.416660E+0	1.428289E+0	1.446224E+0	1.365167E+0	1.398874E+0	1.460660E+0	1.458875E+0	1.188696E+0	1.361640E+0	1.447993E+0	1.454051E+0	1.218479E+0	1.308935E+0	1.420289E+0	1.421188E+0	1.313089E+0	1.413934E+0	1.439719E+0	1.444882E+0	1.251923E+0	1.400640E+0	1.390115E+0	1.384856E+0	1.251397E+0	1.409520E+0	1.453366E+0	1.459528E+0	1.261230E+0	1.379841E+0	1.460545E+0	1.405879E+0	1.372919E+0	1.355618E+0	1.389880E+0	1.414267E+0	1.310571E+0	1.397445E+0	1.422824E+0	1.400693E+0	1.196566E+0	1.384706E+0	1.412947E+0	1.427841E+0	1.263236E+0	1.315417E+0	1.486258E+0	1.417923E+0	1.378860E+0	1.400242E+0	1.421568E+0	1.483137E+0	1.325143E+0	1.436253E+0	1.361849E+0	1.395908E+0	1.187540E+0	1.435998E+0	1.433050E+0	1.372504E+0	1.292051E+0	1.369854E+0	1.439203E+0	1.478926E+0	1.369435E+0	1.401608E+0	1.406436E+0	1.423945E+0	1.354612E+0	1.396587E+0	1.372078E+0	1.412289E+0	1.203614E+0	1.407879E+0	1.394137E+0	1.435944E+0	1.217050E+0	1.424055E+0	1.420319E+0	1.443089E+0	1.360228E+0	1.404789E+0	1.420372E+0	1.441353E+0	1.383561E+0	1.448709E+0	1.437021E+0	1.406694E+0	1.242770E+0	1.412314E+0	1.403223E+0	1.391032E+0	1.245418E+0	1.432759E+0	1.375388E+0	1.494114E+0	1.356649E+0	1.454713E+0	1.366107E+0	1.438509E+0	1.312564E+0	1.464346E+0	1.419474E+0	1.451530E+0	1.196026E+0	1.453526E+0	1.464234E+0	1.442537E+0	1.259811E+0	1.394539E+0	1.418071E+0	1.410734E+0	1.400873E+0	1.433913E+0	1.455517E+0	1.475511E+0	1.290953E+0	1.381343E+0	1.451963E+0	1.439427E+0	1.202241E+0	1.434560E+0	1.436297E+0	1.418892E+0	1.284620E+0	1.365095E+0	1.333912E+0	1.366545E+0
5.490100E+2	1.429104E+0	1.461212E+0	1.386255E+0	1.480476E+0	1.410072E+0	1.412699E+0	1.481248E+0	1.437618E+0	1.418684E+0	1.373017E+0	1.349898E+0	1.501694E+0	1.444685E+0	1.229137E+0	1.253370E+0	1.519484E+0	1.464188E+0	1.252503E+0	1.307790E+0	1.434485E+0	1.460299E+0	1.411504E+0	1.418688E+0	1.399432E+0	1.449833E+0	1.389783E+0	1.438402E+0	1.445549E+0	1.429658E+0	1.248921E+0	1.397338E+0	1.453345E+0	1.417435E+0	1.295878E+0	1.378201E+0	1.392903E+0	1.352917E+0	1.321887E+0	1.405744E+0	1.468497E+0	1.454160E+0	1.294900E+0	1.364286E+0	1.459418E+0	1.474023E+0	1.230106E+0	1.384823E+0	1.475114E+0	1.471706E+0	1.223110E+0	1.294004E+0	1.480682E+0	1.436474E+0	1.379503E+0	1.429546E+0	1.428662E+0	1.396598E+0	1.355086E+0	1.371879E+0	1.431926E+0	1.421323E+0	1.245449E+0	1.343145E+0	1.488015E+0	1.479225E+0	1.264962E+0	1.373001E+0	1.458489E+0	1.392623E+0	1.389920E+0	1.504622E+0	1.438279E+0	1.427234E+0	1.401238E+0	1.395512E+0	1.458528E+0	1.456851E+0	1.225105E+0	1.363163E+0	1.448422E+0	1.448980E+0	1.271783E+0	1.401420E+0	1.496829E+0	1.386499E+0	1.386095E+0	1.393274E+0	1.369868E+0	1.431581E+0	1.275508E+0	1.463803E+0	1.423960E+0	1.437421E+0	1.145580E+0	1.421763E+0	1.407196E+0	1.380487E+0	1.256410E+0	1.369179E+0	1.427748E+0	1.470477E+0	1.383032E+0	1.433309E+0	1.424337E+0	1.401378E+0	1.360830E+0	1.362289E+0	1.474484E+0	1.434989E+0	1.275232E+0	1.446939E+0	1.405624E+0	1.409377E+0	1.147166E+0	1.445675E+0	1.407079E+0	1.482608E+0	1.310727E+0	1.452027E+0	1.448781E+0	1.435576E+0	1.357884E+0	1.438565E+0	1.361155E+0	1.517775E+0	1.227362E+0	1.423702E+0	1.441218E+0	1.375781E+0	1.281354E+0	1.464871E+0	1.432125E+0	1.421599E+0	1.315332E+0	1.428128E+0	1.377177E+0	1.450900E+0	1.370006E+0	1.411947E+0	1.394318E+0	1.394210E+0	1.152172E+0	1.369988E+0	1.439526E+0	1.386952E+0	1.236128E+0	1.383073E+0	1.432156E+0	1.419582E+0	1.397178E+0	1.445978E+0	1.402334E+0	1.405565E+0	1.294343E+0	1.350068E+0	1.407989E+0	1.403497E+0	1.208020E+0	1.429933E+0	1.398692E+0	1.403951E+0	1.261596E+0	1.358065E+0	1.417003E+0	1.426389E+0
5.497680E+2	1.424146E+0	1.406632E+0	1.411084E+0	1.371755E+0	1.347772E+0	1.407251E+0	1.420966E+0	1.427518E+0	1.456308E+0	1.312061E+0	1.320695E+0	1.385777E+0	1.421202E+0	1.226584E+0	1.252841E+0	1.413222E+0	1.409699E+0	1.213861E+0	1.239144E+0	1.436617E+0	1.394341E+0	1.352111E+0	1.347172E+0	1.419111E+0	1.430176E+0	1.429307E+0	1.359425E+0	1.386601E+0	1.367407E+0	1.189730E+0	1.348547E+0	1.443568E+0	1.436505E+0	1.271315E+0	1.309518E+0	1.368945E+0	1.385989E+0	1.305917E+0	1.385633E+0	1.397705E+0	1.373583E+0	1.237296E+0	1.385668E+0	1.357102E+0	1.453464E+0	1.170951E+0	1.322405E+0	1.397882E+0	1.423000E+0	1.173339E+0	1.278500E+0	1.430137E+0	1.391203E+0	1.267358E+0	1.368833E+0	1.351264E+0	1.388652E+0	1.251302E+0	1.273711E+0	1.430637E+0	1.439556E+0	1.223817E+0	1.329869E+0	1.404377E+0	1.399792E+0	1.215826E+0	1.328220E+0	1.359800E+0	1.387199E+0	1.335986E+0	1.316497E+0	1.358533E+0	1.350083E+0	1.301442E+0	1.331046E+0	1.354494E+0	1.355426E+0	1.177538E+0	1.353933E+0	1.409459E+0	1.355348E+0	1.192430E+0	1.313506E+0	1.418618E+0	1.355077E+0	1.286594E+0	1.386305E+0	1.383230E+0	1.336004E+0	1.361584E+0	1.377947E+0	1.341789E+0	1.389818E+0	1.155303E+0	1.285972E+0	1.349184E+0	1.440027E+0	1.186302E+0	1.305106E+0	1.412929E+0	1.360623E+0	1.342805E+0	1.306502E+0	1.380701E+0	1.330006E+0	1.263821E+0	1.362285E+0	1.375824E+0	1.327425E+0	1.226930E+0	1.404873E+0	1.408495E+0	1.388640E+0	1.177961E+0	1.422786E+0	1.437238E+0	1.439264E+0	1.289352E+0	1.310900E+0	1.407460E+0	1.404529E+0	1.332207E+0	1.375168E+0	1.399777E+0	1.400383E+0	1.220205E+0	1.409785E+0	1.386680E+0	1.389810E+0	1.188043E+0	1.372632E+0	1.383967E+0	1.303690E+0	1.311200E+0	1.418631E+0	1.348951E+0	1.370367E+0	1.341939E+0	1.439847E+0	1.367931E+0	1.346909E+0	1.112016E+0	1.344042E+0	1.424456E+0	1.407466E+0	1.207590E+0	1.342231E+0	1.403981E+0	1.375346E+0	1.302349E+0	1.420508E+0	1.404107E+0	1.340525E+0	1.310610E+0	1.400535E+0	1.356794E+0	1.414601E+0	1.213798E+0	1.349349E+0	1.389918E+0	1.408219E+0	1.237779E+0	1.311201E+0	1.252589E+0	1.369395E+0
5.505000E+2	1.374545E+0	1.356654E+0	1.335941E+0	1.382979E+0	1.357506E+0	1.344598E+0	1.340175E+0	1.305708E+0	1.394224E+0	1.241485E+0	1.297553E+0	1.397545E+0	1.378499E+0	1.160772E+0	1.217881E+0	1.339901E+0	1.377575E+0	1.197060E+0	1.220641E+0	1.383415E+0	1.344734E+0	1.322415E+0	1.306726E+0	1.381538E+0	1.399674E+0	1.281241E+0	1.362860E+0	1.348490E+0	1.353899E+0	1.198714E+0	1.309995E+0	1.383083E+0	1.351687E+0	1.270716E+0	1.294457E+0	1.349094E+0	1.355238E+0	1.327019E+0	1.316106E+0	1.367691E+0	1.385789E+0	1.246792E+0	1.265551E+0	1.357721E+0	1.335532E+0	1.237635E+0	1.280201E+0	1.367816E+0	1.367593E+0	1.177388E+0	1.257253E+0	1.390093E+0	1.350047E+0	1.277705E+0	1.287881E+0	1.310352E+0	1.366037E+0	1.294803E+0	1.271834E+0	1.402978E+0	1.362867E+0	1.204350E+0	1.298699E+0	1.400196E+0	1.371198E+0	1.144298E+0	1.310185E+0	1.302918E+0	1.372739E+0	1.297293E+0	1.357342E+0	1.374481E+0	1.341657E+0	1.277709E+0	1.295587E+0	1.342183E+0	1.397830E+0	1.107586E+0	1.353313E+0	1.345493E+0	1.358371E+0	1.184493E+0	1.338353E+0	1.401709E+0	1.354507E+0	1.272724E+0	1.411852E+0	1.328627E+0	1.374360E+0	1.278649E+0	1.436254E+0	1.342437E+0	1.400334E+0	1.067800E+0	1.300794E+0	1.369992E+0	1.331380E+0	1.216100E+0	1.242380E+0	1.361060E+0	1.389915E+0	1.327514E+0	1.366246E+0	1.369510E+0	1.338546E+0	1.266932E+0	1.339859E+0	1.363959E+0	1.357694E+0	1.120892E+0	1.324950E+0	1.372319E+0	1.309582E+0	1.160197E+0	1.370642E+0	1.340138E+0	1.408032E+0	1.306790E+0	1.367466E+0	1.406811E+0	1.363372E+0	1.258674E+0	1.384042E+0	1.339771E+0	1.373875E+0	1.223507E+0	1.310441E+0	1.342555E+0	1.331849E+0	1.169758E+0	1.312506E+0	1.352958E+0	1.352035E+0	1.253947E+0	1.379388E+0	1.349503E+0	1.322671E+0	1.267530E+0	1.424196E+0	1.359343E+0	1.398662E+0	1.108316E+0	1.321257E+0	1.255699E+0	1.320775E+0	1.206983E+0	1.346533E+0	1.389187E+0	1.335869E+0	1.344838E+0	1.420510E+0	1.346197E+0	1.358933E+0	1.264516E+0	1.296758E+0	1.380423E+0	1.309421E+0	1.190686E+0	1.273386E+0	1.337898E+0	1.298649E+0	1.132188E+0	1.320574E+0	1.272036E+0	1.278205E+0
5.512620E+2	1.344167E+0	1.423729E+0	1.324179E+0	1.364743E+0	1.315321E+0	1.350044E+0	1.430907E+0	1.356830E+0	1.317715E+0	1.287681E+0	1.314083E+0	1.396957E+0	1.377433E+0	1.152099E+0	1.227417E+0	1.357300E+0	1.390765E+0	1.171860E+0	1.220638E+0	1.354330E+0	1.356006E+0	1.300142E+0	1.314929E+0	1.380346E+0	1.374595E+0	1.275342E+0	1.276329E+0	1.322292E+0	1.377979E+0	1.190787E+0	1.293731E+0	1.367199E+0	1.385217E+0	1.225783E+0	1.330606E+0	1.330613E+0	1.372644E+0	1.245460E+0	1.348285E+0	1.396005E+0	1.343061E+0	1.228436E+0	1.298253E+0	1.400507E+0	1.385843E+0	1.143520E+0	1.336674E+0	1.370761E+0	1.378553E+0	1.146714E+0	1.217633E+0	1.337578E+0	1.362395E+0	1.246131E+0	1.328935E+0	1.370614E+0	1.317750E+0	1.243222E+0	1.288720E+0	1.356669E+0	1.349996E+0	1.195697E+0	1.304472E+0	1.338661E+0	1.345140E+0	1.110090E+0	1.253589E+0	1.437244E+0	1.380575E+0	1.246879E+0	1.309015E+0	1.387679E+0	1.345549E+0	1.295966E+0	1.338780E+0	1.357572E+0	1.389234E+0	1.109823E+0	1.289299E+0	1.325719E+0	1.400655E+0	1.222341E+0	1.310959E+0	1.405934E+0	1.359649E+0	1.294436E+0	1.298639E+0	1.336178E+0	1.409572E+0	1.291212E+0	1.392685E+0	1.345671E+0	1.278005E+0	1.159906E+0	1.282409E+0	1.368730E+0	1.355318E+0	1.237132E+0	1.326014E+0	1.371168E+0	1.329073E+0	1.260661E+0	1.326012E+0	1.330911E+0	1.363557E+0	1.296160E+0	1.289070E+0	1.348350E+0	1.406342E+0	1.146429E+0	1.388648E+0	1.286184E+0	1.345224E+0	1.134137E+0	1.309598E+0	1.410755E+0	1.364046E+0	1.261787E+0	1.379130E+0	1.330631E+0	1.309216E+0	1.243501E+0	1.336492E+0	1.408744E+0	1.374506E+0	1.203144E+0	1.391436E+0	1.390968E+0	1.330017E+0	1.187412E+0	1.328902E+0	1.370110E+0	1.408630E+0	1.252178E+0	1.371795E+0	1.340095E+0	1.302225E+0	1.231630E+0	1.373161E+0	1.345843E+0	1.410348E+0	1.060763E+0	1.328853E+0	1.340681E+0	1.338644E+0	1.190588E+0	1.376624E+0	1.396939E+0	1.372623E+0	1.278949E+0	1.364874E+0	1.374562E+0	1.357705E+0	1.269942E+0	1.329454E+0	1.352857E+0	1.343393E+0	1.133480E+0	1.357935E+0	1.362968E+0	1.384740E+0	1.208404E+0	1.355722E+0	1.224303E+0	1.332350E+0
5.520100E+2	1.329289E+0	1.371124E+0	1.356848E+0	1.332477E+0	1.369186E+0	1.363664E+0	1.434636E+0	1.297504E+0	1.393598E+0	1.297948E+0	1.282675E+0	1.384014E+0	1.336869E+0	1.350045E+0	1.178688E+0	1.318773E+0	1.358645E+0	1.300665E+0	1.174675E+0	1.364969E+0	1.317108E+0	1.359535E+0	1.259242E+0	1.367224E+0	1.423399E+0	1.280649E+0	1.325776E+0	1.325862E+0	1.369168E+0	1.178631E+0	1.296743E+0	1.376363E+0	1.301714E+0	1.183246E+0	1.320362E+0	1.302550E+0	1.400491E+0	1.204964E+0	1.283354E+0	1.330878E+0	1.360763E+0	1.229704E+0	1.303913E+0	1.373224E+0	1.378271E+0	1.151589E+0	1.295064E+0	1.347768E+0	1.371247E+0	1.103888E+0	1.271609E+0	1.342171E+0	1.319476E+0	1.238506E+0	1.284991E+0	1.341312E+0	1.356259E+0	1.215880E+0	1.225567E+0	1.329651E+0	1.329081E+0	1.151351E+0	1.260028E+0	1.321337E+0	1.402970E+0	1.205876E+0	1.279710E+0	1.343353E+0	1.337792E+0	1.267395E+0	1.284279E+0	1.292532E+0	1.332582E+0	1.237548E+0	1.317506E+0	1.362496E+0	1.323908E+0	1.100312E+0	1.288685E+0	1.313509E+0	1.329373E+0	1.186326E+0	1.259994E+0	1.393252E+0	1.359077E+0	1.275138E+0	1.399660E+0	1.346634E+0	1.354236E+0	1.266085E+0	1.349112E+0	1.291322E+0	1.365466E+0	1.103619E+0	1.264028E+0	1.305043E+0	1.349797E+0	1.151248E+0	1.303082E+0	1.353651E+0	1.353297E+0	1.277660E+0	1.335155E+0	1.357205E+0	1.356847E+0	1.266310E+0	1.329305E+0	1.279664E+0	1.329046E+0	1.188624E+0	1.341175E+0	1.294798E+0	1.320598E+0	1.096826E+0	1.303875E+0	1.366620E+0	1.348750E+0	1.222409E+0	1.313816E+0	1.341606E+0	1.363369E+0	1.267429E+0	1.307963E+0	1.368738E+0	1.349890E+0	1.186636E+0	1.326894E+0	1.375037E+0	1.344661E+0	1.206956E+0	1.289275E+0	1.318653E+0	1.339651E+0	1.280508E+0	1.333183E+0	1.381604E+0	1.333819E+0	1.225757E+0	1.357511E+0	1.334185E+0	1.318525E+0	1.081900E+0	1.326322E+0	1.340077E+0	1.314160E+0	1.115902E+0	1.376626E+0	1.348331E+0	1.348802E+0	1.272173E+0	1.329353E+0	1.300107E+0	1.344820E+0	1.208259E+0	1.313816E+0	1.314136E+0	1.315301E+0	1.104012E+0	1.315659E+0	1.344792E+0	1.322127E+0	1.202846E+0	1.396726E+0	1.282643E+0	1.395043E+0
5.527590E+2	1.340446E+0	1.289582E+0	1.284973E+0	1.326865E+0	1.319864E+0	1.318038E+0	1.361927E+0	1.301290E+0	1.364752E+0	1.306930E+0	1.240796E+0	1.289866E+0	1.314449E+0	1.325559E+0	1.224238E+0	1.324987E+0	1.321935E+0	1.283865E+0	1.181242E+0	1.299707E+0	1.344730E+0	1.344159E+0	1.238726E+0	1.329057E+0	1.407808E+0	1.347902E+0	1.268086E+0	1.296091E+0	1.325711E+0	1.288560E+0	1.247951E+0	1.279826E+0	1.339193E+0	1.368965E+0	1.249272E+0	1.349097E+0	1.338992E+0	1.334434E+0	1.301740E+0	1.344470E+0	1.307655E+0	1.191087E+0	1.319004E+0	1.285788E+0	1.336617E+0	1.119321E+0	1.302790E+0	1.275251E+0	1.353590E+0	1.149028E+0	1.231989E+0	1.286373E+0	1.290665E+0	1.214013E+0	1.304072E+0	1.342416E+0	1.301250E+0	1.181078E+0	1.241822E+0	1.266617E+0	1.288322E+0	1.115659E+0	1.243868E+0	1.356583E+0	1.380728E+0	1.098273E+0	1.219384E+0	1.304974E+0	1.266696E+0	1.188841E+0	1.302685E+0	1.330481E+0	1.310537E+0	1.257630E+0	1.318797E+0	1.316327E+0	1.291243E+0	1.129971E+0	1.244367E+0	1.298389E+0	1.264738E+0	1.127115E+0	1.251076E+0	1.306588E+0	1.285377E+0	1.239557E+0	1.306768E+0	1.286224E+0	1.351725E+0	1.146079E+0	1.343347E+0	1.249911E+0	1.345534E+0	1.146092E+0	1.268773E+0	1.383864E+0	1.320947E+0	1.144238E+0	1.283521E+0	1.316601E+0	1.346539E+0	1.210244E+0	1.276021E+0	1.304615E+0	1.279985E+0	1.212208E+0	1.319414E+0	1.338359E+0	1.363098E+0	1.118672E+0	1.267261E+0	1.328101E+0	1.319953E+0	1.067218E+0	1.313411E+0	1.317331E+0	1.279272E+0	1.259538E+0	1.305650E+0	1.308034E+0	1.333046E+0	1.232998E+0	1.297186E+0	1.274937E+0	1.375769E+0	1.181131E+0	1.314239E+0	1.333365E+0	1.299510E+0	1.172281E+0	1.261942E+0	1.292921E+0	1.332578E+0	1.222667E+0	1.336346E+0	1.282535E+0	1.316476E+0	1.257085E+0	1.263604E+0	1.312708E+0	1.296268E+0	1.087183E+0	1.237721E+0	1.302707E+0	1.243356E+0	1.125617E+0	1.253384E+0	1.319453E+0	1.339954E+0	1.281411E+0	1.274390E+0	1.342061E+0	1.318439E+0	1.187247E+0	1.248425E+0	1.287226E+0	1.274796E+0	1.119035E+0	1.284612E+0	1.201894E+0	1.292246E+0	1.167120E+0	1.246764E+0	1.282644E+0	1.192712E+0
5.535160E+2	1.240629E+0	1.265251E+0	1.262756E+0	1.272155E+0	1.258859E+0	1.239040E+0	1.251306E+0	1.221766E+0	1.275699E+0	1.289607E+0	1.217652E+0	1.253973E+0	1.286160E+0	1.266889E+0	1.136319E+0	1.280870E+0	1.248515E+0	1.214421E+0	1.157365E+0	1.298287E+0	1.224653E+0	1.270446E+0	1.180693E+0	1.241389E+0	1.262072E+0	1.309558E+0	1.210402E+0	1.203797E+0	1.285188E+0	1.236238E+0	1.203376E+0	1.303657E+0	1.303688E+0	1.238367E+0	1.211920E+0	1.254636E+0	1.247316E+0	1.218083E+0	1.208653E+0	1.272548E+0	1.235624E+0	1.296169E+0	1.215238E+0	1.243001E+0	1.288472E+0	1.310774E+0	1.197576E+0	1.231034E+0	1.268959E+0	1.275780E+0	1.125183E+0	1.251583E+0	1.300072E+0	1.236877E+0	1.253768E+0	1.273312E+0	1.227905E+0	1.227065E+0	1.177418E+0	1.247962E+0	1.249175E+0	1.150812E+0	1.205772E+0	1.240683E+0	1.256177E+0	1.110712E+0	1.173361E+0	1.298121E+0	1.201620E+0	1.188841E+0	1.256663E+0	1.309583E+0	1.239874E+0	1.191912E+0	1.236922E+0	1.255386E+0	1.175492E+0	1.059459E+0	1.194507E+0	1.205346E+0	1.264135E+0	1.058750E+0	1.205847E+0	1.271357E+0	1.239099E+0	1.214834E+0	1.266708E+0	1.280416E+0	1.241689E+0	1.180007E+0	1.251084E+0	1.227914E+0	1.252542E+0	1.045797E+0	1.185160E+0	1.283601E+0	1.203094E+0	1.063025E+0	1.174936E+0	1.235093E+0	1.282315E+0	1.194950E+0	1.235782E+0	1.248111E+0	1.216548E+0	1.199150E+0	1.236302E+0	1.217845E+0	1.279316E+0	1.075366E+0	1.214379E+0	1.262639E+0	1.236358E+0	1.021616E+0	1.244737E+0	1.300415E+0	1.244851E+0	1.164469E+0	1.251417E+0	1.237664E+0	1.217517E+0	1.180475E+0	1.251537E+0	1.254937E+0	1.260899E+0	1.115091E+0	1.222491E+0	1.199773E+0	1.201274E+0	1.104819E+0	1.241446E+0	1.255318E+0	1.278928E+0	1.217943E+0	1.286341E+0	1.225530E+0	1.227268E+0	1.182024E+0	1.262243E+0	1.172192E+0	1.228373E+0	1.008983E+0	1.225062E+0	1.285233E+0	1.297617E+0	1.055787E+0	1.269863E+0	1.263802E+0	1.244672E+0	1.150866E+0	1.279082E+0	1.261699E+0	1.245425E+0	1.105231E+0	1.278277E+0	1.260970E+0	1.231677E+0	1.063562E+0	1.279329E+0	1.243886E+0	1.282997E+0	1.101225E+0	1.233878E+0	1.095246E+0	1.301002E+0
5.542640E+2	1.225130E+0	1.150833E+0	1.157556E+0	1.193594E+0	1.158269E+0	1.155954E+0	1.151871E+0	1.151710E+0	1.198562E+0	1.138827E+0	1.084306E+0	1.202782E+0	1.184746E+0	1.162813E+0	1.063227E+0	1.165911E+0	1.226718E+0	1.125377E+0	1.055887E+0	1.157125E+0	1.231419E+0	1.190903E+0	1.126764E+0	1.178765E+0	1.171241E+0	1.146738E+0	1.217270E+0	1.137700E+0	1.172435E+0	1.126839E+0	1.132897E+0	1.201622E+0	1.153116E+0	1.203018E+0	1.146248E+0	1.193715E+0	1.128951E+0	1.171887E+0	1.145448E+0	1.165510E+0	1.134295E+0	1.144245E+0	1.197629E+0	1.231221E+0	1.134836E+0	1.130078E+0	1.138725E+0	1.173257E+0	1.170328E+0	1.096943E+0	1.110252E+0	1.173464E+0	1.176603E+0	1.152496E+0	1.138124E+0	1.195361E+0	1.127666E+0	1.179214E+0	1.085507E+0	1.168203E+0	1.155859E+0	1.165953E+0	1.094372E+0	1.170190E+0	1.211056E+0	1.194059E+0	1.106195E+0	1.122675E+0	1.138357E+0	1.185909E+0	1.163460E+0	1.169881E+0	1.191897E+0	1.172436E+0	1.133772E+0	1.161821E+0	1.141682E+0	1.152358E+0	1.108332E+0	1.174525E+0	1.139089E+0	1.149090E+0	1.128126E+0	1.218511E+0	1.160828E+0	1.083371E+0	1.216195E+0	1.196188E+0	1.203332E+0	1.066915E+0	1.165867E+0	1.118567E+0	1.158998E+0	9.434571E-1	1.103921E+0	1.182711E+0	1.166265E+0	9.397491E-1	1.139865E+0	1.159647E+0	1.170205E+0	1.069751E+0	1.200424E+0	1.153010E+0	1.139078E+0	1.110846E+0	1.103063E+0	1.143539E+0	1.139322E+0	1.005413E+0	1.153688E+0	1.166169E+0	1.176094E+0	9.629862E-1	1.104841E+0	1.172413E+0	1.170912E+0	1.040712E+0	1.136535E+0	1.187955E+0	1.206686E+0	1.108110E+0	1.168484E+0	1.108717E+0	1.234393E+0	1.013275E+0	1.192120E+0	1.193031E+0	1.182970E+0	1.032313E+0	1.166288E+0	1.150418E+0	1.171630E+0	1.122328E+0	1.183802E+0	1.124804E+0	1.182666E+0	1.050178E+0	1.169695E+0	1.139672E+0	1.151019E+0	9.609004E-1	1.179496E+0	1.180964E+0	1.164607E+0	9.719921E-1	1.127274E+0	1.228583E+0	1.152792E+0	1.098525E+0	1.171169E+0	1.150015E+0	1.195113E+0	1.019148E+0	1.171658E+0	1.130363E+0	1.164386E+0	1.027157E+0	1.178925E+0	1.127937E+0	1.203309E+0	1.065499E+0	1.102661E+0	1.134140E+0	1.164214E+0
5.550140E+2	1.060836E+0	1.039702E+0	1.007269E+0	1.046996E+0	1.046645E+0	1.044947E+0	1.094696E+0	1.094277E+0	1.102613E+0	1.083651E+0	9.867765E-1	1.073331E+0	1.105750E+0	1.038327E+0	9.816613E-1	1.042254E+0	1.079875E+0	1.127056E+0	1.005148E+0	1.037951E+0	1.061167E+0	1.079012E+0	1.052904E+0	1.105411E+0	1.067531E+0	1.075361E+0	1.127992E+0	1.029327E+0	1.083759E+0	1.102001E+0	9.877266E-1	1.098367E+0	1.095258E+0	1.098777E+0	1.016114E+0	1.060921E+0	1.072671E+0	1.081770E+0	1.062704E+0	1.103779E+0	1.078135E+0	1.089174E+0	1.030344E+0	1.073095E+0	1.096968E+0	1.051024E+0	1.038267E+0	1.074210E+0	1.047948E+0	1.073791E+0	9.483190E-1	1.098631E+0	1.033144E+0	1.022388E+0	1.028838E+0	1.095296E+0	1.088547E+0	1.024470E+0	1.002345E+0	1.078152E+0	1.115103E+0	1.089704E+0	1.011834E+0	1.069824E+0	1.054095E+0	1.085211E+0	1.038404E+0	1.050715E+0	1.043156E+0	1.073354E+0	1.064506E+0	1.095082E+0	1.042140E+0	1.067773E+0	1.042872E+0	1.068252E+0	1.050569E+0	1.075689E+0	1.022774E+0	1.052990E+0	1.065391E+0	1.083169E+0	1.017917E+0	1.064206E+0	1.027137E+0	1.066485E+0	1.094852E+0	1.077110E+0	1.071288E+0	1.116548E+0	1.097950E+0	1.076510E+0	1.082057E+0	1.040680E+0	1.046402E+0	1.062269E+0	1.066215E+0	1.031476E+0	1.014416E+0	1.091612E+0	1.060914E+0	1.068618E+0	1.053496E+0	1.043355E+0	1.073197E+0	9.815002E-1	1.036443E+0	1.124183E+0	1.030673E+0	8.927109E-1	9.986483E-1	1.044431E+0	1.085375E+0	8.942887E-1	1.048247E+0	1.028230E+0	1.086132E+0	1.010336E+0	1.086965E+0	1.124039E+0	1.060832E+0	9.954771E-1	1.037247E+0	1.067334E+0	1.062089E+0	9.626458E-1	1.030767E+0	1.152589E+0	1.097549E+0	9.572853E-1	1.082247E+0	1.036285E+0	1.090863E+0	9.824394E-1	1.066067E+0	1.041233E+0	1.066825E+0	1.001224E+0	1.100286E+0	1.096106E+0	1.075892E+0	8.784730E-1	1.044696E+0	1.073680E+0	1.069317E+0	9.203795E-1	1.082849E+0	1.115876E+0	1.103109E+0	1.023401E+0	1.132294E+0	1.080288E+0	1.054608E+0	9.961024E-1	1.090627E+0	1.045040E+0	1.072272E+0	9.058125E-1	1.087111E+0	1.045830E+0	1.040377E+0	9.940452E-1	1.089773E+0	1.020995E+0	1.081573E+0
5.558000E+2	1.004417E+0	1.024577E+0	9.857065E-1	9.950897E-1	9.544909E-1	9.686729E-1	1.001476E+0	1.001499E+0	9.978831E-1	1.020772E+0	9.404892E-1	9.809500E-1	1.004335E+0	9.745546E-1	9.212803E-1	9.732800E-1	1.057504E+0	1.039692E+0	8.857634E-1	1.002482E+0	9.997180E-1	1.023862E+0	9.608713E-1	1.023110E+0	9.963566E-1	1.029347E+0	1.001631E+0	9.953843E-1	1.022683E+0	9.952423E-1	8.943596E-1	9.871698E-1	9.433720E-1	1.048451E+0	9.371922E-1	9.842567E-1	9.508276E-1	1.006488E+0	9.839836E-1	9.712589E-1	9.969478E-1	9.815638E-1	1.002044E+0	1.038368E+0	9.822842E-1	9.988582E-1	9.734733E-1	9.845963E-1	9.949769E-1	1.013602E+0	9.661211E-1	1.000164E+0	9.949289E-1	9.826476E-1	9.698599E-1	9.791980E-1	9.980899E-1	9.517592E-1	8.979247E-1	1.008683E+0	1.000873E+0	1.015074E+0	9.564219E-1	9.993282E-1	1.001986E+0	9.925361E-1	9.258355E-1	1.014393E+0	9.684429E-1	9.983136E-1	9.603755E-1	1.047233E+0	9.987033E-1	9.868413E-1	1.028688E+0	9.691445E-1	9.560188E-1	9.984621E-1	9.575284E-1	9.855334E-1	9.977363E-1	1.041050E+0	9.816052E-1	1.020521E+0	1.017425E+0	1.006181E+0	9.607382E-1	9.777807E-1	1.033560E+0	9.908898E-1	9.736503E-1	9.736337E-1	1.036117E+0	9.802992E-1	9.070487E-1	9.834468E-1	1.028159E+0	1.036150E+0	9.847406E-1	1.004716E+0	1.001760E+0	1.057287E+0	9.626590E-1	1.011469E+0	9.579098E-1	9.939371E-1	9.566324E-1	9.499683E-1	1.004189E+0	1.037058E+0	1.004657E+0	9.743752E-1	9.829900E-1	9.931905E-1	1.018361E+0	9.818852E-1	1.021114E+0	9.462070E-1	9.907424E-1	9.903967E-1	1.018232E+0	9.627964E-1	9.789196E-1	9.700836E-1	1.014121E+0	8.795438E-1	9.984973E-1	1.018384E+0	1.007245E+0	8.891921E-1	1.002306E+0	1.034306E+0	1.018351E+0	9.547001E-1	1.031253E+0	9.964013E-1	1.053197E+0	8.941790E-1	1.001616E+0	1.020632E+0	1.019687E+0	7.981598E-1	9.826754E-1	9.591666E-1	9.535130E-1	8.754457E-1	9.732196E-1	1.032755E+0	1.013272E+0	9.692108E-1	1.037786E+0	9.821980E-1	1.022702E+0	9.330655E-1	9.868500E-1	1.004348E+0	1.004982E+0	8.561186E-1	1.023036E+0	9.568322E-1	1.026859E+0	9.170355E-1	1.031193E+0	8.919362E-1	8.678441E-1
5.560080E+2	1.026737E+0	9.969588E-1	9.732909E-1	1.012626E+0	9.674699E-1	1.047671E+0	1.000854E+0	1.034318E+0	1.002900E+0	9.643103E-1	9.371833E-1	9.815375E-1	1.045969E+0	1.030675E+0	9.276361E-1	9.900575E-1	1.003011E+0	1.015050E+0	9.096403E-1	1.010995E+0	1.003101E+0	1.034470E+0	9.720081E-1	1.071417E+0	1.014659E+0	9.821547E-1	9.872087E-1	9.775215E-1	9.733528E-1	1.036995E+0	9.521870E-1	1.063541E+0	1.031478E+0	1.025088E+0	9.257456E-1	1.036963E+0	9.885415E-1	1.009911E+0	9.701921E-1	9.384122E-1	1.040288E+0	1.024608E+0	9.831769E-1	1.006743E+0	1.039627E+0	9.741188E-1	9.080851E-1	1.011716E+0	9.815823E-1	1.029806E+0	9.086971E-1	9.745626E-1	1.006100E+0	9.755710E-1	9.999279E-1	1.010713E+0	1.002980E+0	9.797247E-1	8.947986E-1	1.005467E+0	9.858570E-1	1.023186E+0	9.552674E-1	1.082368E+0	1.033758E+0	9.962680E-1	8.953614E-1	1.012336E+0	1.000376E+0	1.017073E+0	1.035742E+0	1.027431E+0	9.811991E-1	1.012399E+0	1.029978E+0	9.734530E-1	9.972778E-1	9.827910E-1	9.562969E-1	9.861157E-1	9.892769E-1	1.066686E+0	9.535753E-1	9.690862E-1	9.602933E-1	1.004975E+0	9.926701E-1	1.007987E+0	1.015955E+0	1.005340E+0	9.909499E-1	1.035101E+0	1.018958E+0	9.690405E-1	9.651616E-1	1.042091E+0	1.009744E+0	9.613662E-1	9.584371E-1	1.010778E+0	9.437344E-1	1.034628E+0	9.583913E-1	9.913289E-1	1.028670E+0	9.945590E-1	9.698234E-1	9.774432E-1	1.018242E+0	1.001526E+0	9.872304E-1	9.468117E-1	1.010854E+0	9.570642E-1	9.528647E-1	1.006897E+0	1.022390E+0	1.035086E+0	9.644994E-1	1.003309E+0	9.929601E-1	9.826390E-1	1.003012E+0	1.083197E+0	1.023589E+0	1.008875E+0	9.947009E-1	1.051474E+0	9.742969E-1	1.014028E+0	9.428625E-1	9.993402E-1	1.004201E+0	1.010182E+0	9.780834E-1	9.770314E-1	9.745245E-1	1.003835E+0	9.798400E-1	1.024928E+0	9.851840E-1	9.112315E-1	1.009256E+0	1.041738E+0	9.872616E-1	1.010246E+0	9.997309E-1	1.015145E+0	9.996595E-1	9.655171E-1	1.047170E+0	1.015290E+0	1.063810E+0	9.554337E-1	9.641048E-1	1.022725E+0	9.971418E-1	8.607414E-1	9.820825E-1	9.643536E-1	1.025435E+0	9.345018E-1	1.031192E+0	9.379020E-1	8.792432E-1
5.565030E+2	9.672184E-1	9.805193E-1	9.719847E-1	9.922843E-1	9.551397E-1	9.986380E-1	1.028199E+0	9.907701E-1	1.028613E+0	9.611025E-1	9.217550E-1	9.809500E-1	9.253417E-1	1.006697E+0	8.995667E-1	9.919216E-1	1.033985E+0	9.937697E-1	8.815847E-1	9.670145E-1	9.687114E-1	9.724264E-1	9.256996E-1	9.736103E-1	9.814442E-1	9.939525E-1	9.789680E-1	9.733531E-1	1.037952E+0	9.767480E-1	8.877336E-1	9.810600E-1	9.578375E-1	9.903399E-1	9.486384E-1	9.979463E-1	9.630116E-1	9.859529E-1	9.339926E-1	1.026759E+0	9.780248E-1	9.619408E-1	9.712286E-1	9.906204E-1	9.952678E-1	9.778827E-1	9.366179E-1	1.027046E+0	9.882806E-1	9.997119E-1	9.018064E-1	1.024453E+0	1.048433E+0	9.837375E-1	9.692820E-1	9.753291E-1	9.455261E-1	9.909110E-1	9.554495E-1	9.700904E-1	9.874648E-1	1.005341E+0	9.367971E-1	9.873803E-1	9.841928E-1	9.925359E-1	9.277014E-1	9.869786E-1	9.756729E-1	9.643122E-1	9.408150E-1	9.999300E-1	9.805511E-1	9.777135E-1	9.087775E-1	9.734530E-1	1.004155E+0	1.030360E+0	9.550660E-1	9.989096E-1	9.186005E-1	1.001373E+0	9.542122E-1	1.023340E+0	9.677204E-1	9.651747E-1	9.717691E-1	9.864958E-1	9.794865E-1	1.043666E+0	1.048614E+0	1.046101E+0	9.879592E-1	9.915572E-1	9.313611E-1	9.954287E-1	9.459083E-1	1.006936E+0	9.260633E-1	9.993268E-1	1.002323E+0	9.819422E-1	9.340053E-1	9.896508E-1	9.335103E-1	9.578695E-1	9.685041E-1	1.003668E+0	9.614868E-1	1.009298E+0	9.199267E-1	9.738001E-1	9.875262E-1	9.256764E-1	9.604956E-1	1.041471E+0	9.905183E-1	9.979602E-1	9.843277E-1	1.023968E+0	1.052890E+0	1.019988E+0	9.960375E-1	9.762913E-1	1.007809E+0	9.885105E-1	9.858427E-1	1.001226E+0	9.559924E-1	1.005201E+0	9.339807E-1	9.709716E-1	9.770801E-1	9.387634E-1	1.014796E+0	1.004151E+0	9.677101E-1	1.059968E+0	9.880067E-1	1.067879E+0	9.835141E-1	1.003170E+0	1.028875E+0	9.941242E-1	9.799823E-1	1.010246E+0	1.001881E+0	9.982394E-1	9.581441E-1	9.729056E-1	1.012986E+0	1.065518E+0	1.004909E+0	9.710230E-1	9.321192E-1	9.984416E-1	9.742770E-1	9.728417E-1	9.880277E-1	1.006346E+0	9.791884E-1	9.749917E-1	1.030022E+0	9.149204E-1	9.134391E-1
5.570610E+2	9.758982E-1	9.581616E-1	9.778650E-1	1.024550E+0	9.849925E-1	9.754834E-1	1.008312E+0	9.775156E-1	1.023595E+0	9.944664E-1	9.294691E-1	1.048029E+0	9.397509E-1	9.572088E-1	8.508385E-1	9.913004E-1	9.634322E-1	9.915293E-1	9.090433E-1	9.819113E-1	9.873155E-1	9.957589E-1	9.737674E-1	1.046370E+0	1.016014E+0	9.921835E-1	9.576788E-1	9.858578E-1	9.903834E-1	1.012684E+0	9.196591E-1	9.853381E-1	9.532344E-1	9.975291E-1	9.161057E-1	9.739889E-1	9.809986E-1	9.562976E-1	9.374406E-1	9.922126E-1	9.615433E-1	9.859953E-1	9.643106E-1	9.763586E-1	9.801198E-1	9.918668E-1	9.253237E-1	9.851870E-1	1.016287E+0	9.875567E-1	9.414286E-1	1.028392E+0	9.972807E-1	1.005513E+0	9.236026E-1	1.065996E+0	9.993124E-1	9.840749E-1	9.341905E-1	1.004181E+0	9.778110E-1	9.680262E-1	9.316026E-1	1.033978E+0	1.012789E+0	1.004354E+0	9.102874E-1	9.931469E-1	9.491616E-1	1.003591E+0	9.736082E-1	9.691324E-1	9.786062E-1	9.844066E-1	9.816265E-1	9.562175E-1	1.019627E+0	9.665623E-1	9.630680E-1	9.762313E-1	1.032770E+0	9.726848E-1	9.510269E-1	1.031091E+0	9.642916E-1	9.748235E-1	1.000799E+0	1.020185E+0	1.041107E+0	9.959163E-1	9.723689E-1	9.658694E-1	9.995850E-1	9.741579E-1	9.200944E-1	1.008670E+0	1.014656E+0	1.010444E+0	9.328078E-1	9.124295E-1	9.668323E-1	1.022732E+0	9.577820E-1	1.019301E+0	9.566898E-1	9.759037E-1	9.843344E-1	9.786922E-1	9.225694E-1	9.648832E-1	9.595876E-1	9.410697E-1	1.021222E+0	9.973352E-1	9.331527E-1	9.693795E-1	9.796821E-1	1.000772E+0	1.014653E+0	1.028487E+0	9.850174E-1	9.937269E-1	9.637037E-1	1.043883E+0	9.876133E-1	9.802565E-1	1.011785E+0	9.779395E-1	1.017618E+0	1.002680E+0	9.647273E-1	8.964218E-1	1.002432E+0	1.001328E+0	1.036317E+0	9.167055E-1	9.918699E-1	9.875172E-1	9.356091E-1	9.549768E-1	9.690446E-1	1.004228E+0	9.896370E-1	9.772476E-1	1.054759E+0	9.968875E-1	9.373929E-1	9.813330E-1	9.819646E-1	9.796793E-1	9.633865E-1	9.821987E-1	9.889559E-1	9.879689E-1	9.498885E-1	9.689068E-1	9.514103E-1	9.647507E-1	9.972748E-1	9.536990E-1	9.919955E-1	9.440288E-1	9.573839E-1	9.043119E-1	8.963418E-1
5.575080E+2	9.684585E-1	9.923558E-1	9.843999E-1	1.013327E+0	1.038857E+0	1.006810E+0	1.007069E+0	9.926630E-1	9.972565E-1	1.003449E+0	9.074284E-1	9.515296E-1	1.005405E+0	9.771061E-1	8.921511E-1	9.999998E-1	1.013337E+0	9.433672E-1	9.185942E-1	1.023764E+0	1.014377E+0	9.825005E-1	9.298033E-1	9.938869E-1	1.018048E+0	1.029939E+0	9.322695E-1	1.012654E+0	9.803988E-1	1.036465E+0	9.509820E-1	9.810589E-1	9.867675E-1	9.777594E-1	9.432169E-1	1.069819E+0	9.879600E-1	9.876661E-1	9.667453E-1	1.014299E+0	1.031741E+0	9.676377E-1	1.000157E+0	1.021625E+0	9.812011E-1	9.993948E-1	9.485070E-1	1.002285E+0	9.663610E-1	1.024598E+0	9.643974E-1	9.778454E-1	1.010805E+0	9.597845E-1	9.467323E-1	1.004631E+0	1.001757E+0	9.878034E-1	9.079293E-1	9.842411E-1	9.992619E-1	1.042113E+0	9.379517E-1	9.736392E-1	1.012789E+0	1.006220E+0	9.370304E-1	1.002741E+0	9.491618E-1	9.795544E-1	9.931685E-1	9.641819E-1	1.009076E+0	9.856239E-1	9.751797E-1	1.009157E+0	1.015615E+0	9.911877E-1	9.809181E-1	9.936769E-1	9.856533E-1	1.024569E+0	9.841537E-1	1.026158E+0	9.837170E-1	9.856768E-1	9.543519E-1	9.923034E-1	9.851449E-1	9.965444E-1	1.005046E+0	9.568115E-1	9.658208E-1	1.025329E+0	9.473728E-1	9.853391E-1	1.020793E+0	9.981749E-1	1.001602E+0	1.003368E+0	9.865502E-1	1.010836E+0	9.596105E-1	9.784610E-1	1.001830E+0	1.037466E+0	1.023251E+0	1.019903E+0	9.885130E-1	1.020402E+0	9.974463E-1	9.881570E-1	1.023165E+0	9.985207E-1	9.579522E-1	9.936553E-1	1.023664E+0	1.012024E+0	9.872426E-1	9.568252E-1	9.727428E-1	9.803032E-1	1.006181E+0	9.845677E-1	9.813019E-1	9.874097E-1	9.402846E-1	1.009192E+0	1.024330E+0	1.024747E+0	9.859080E-1	9.835065E-1	9.647008E-1	1.017264E+0	9.761843E-1	9.399514E-1	9.881526E-1	1.011014E+0	9.607869E-1	1.007133E+0	1.039165E+0	1.000529E+0	1.006724E+0	1.009794E+0	9.839527E-1	9.956737E-1	9.939991E-1	1.017962E+0	1.052746E+0	9.735211E-1	9.888568E-1	9.709710E-1	1.006749E+0	9.845798E-1	1.013860E+0	9.899087E-1	1.021967E+0	1.006934E+0	1.011807E+0	9.750080E-1	1.009072E+0	1.001191E+0	1.008933E+0	9.591172E-1	1.075872E+0
5.580510E+2	1.005038E+0	9.772311E-1	1.008576E+0	9.943889E-1	1.002515E+0	1.038137E+0	9.890463E-1	1.040629E+0	1.047427E+0	1.037454E+0	9.548167E-1	9.986026E-1	1.001134E+0	9.970022E-1	9.069798E-1	9.701730E-1	1.032264E+0	1.041371E+0	8.994925E-1	9.925514E-1	9.946456E-1	1.027044E+0	9.333206E-1	9.867300E-1	9.875446E-1	1.006342E+0	9.659201E-1	1.015631E+0	1.026207E+0	9.815028E-1	9.702585E-1	9.993878E-1	1.017013E+0	1.015502E+0	9.594841E-1	9.644057E-1	1.030896E+0	1.009910E+0	1.009265E+0	1.003540E+0	1.045783E+0	9.777660E-1	9.580217E-1	9.993023E-1	9.741692E-1	1.046720E+0	9.378070E-1	1.042964E+0	1.019940E+0	1.008970E+0	9.885142E-1	1.011324E+0	9.755263E-1	1.035998E+0	9.860502E-1	9.908093E-1	1.051266E+0	1.025713E+0	9.642037E-1	1.001608E+0	1.043239E+0	1.045359E+0	9.264078E-1	1.025614E+0	1.001986E+0	1.065931E+0	9.382743E-1	1.004112E+0	9.877231E-1	1.066906E+0	9.649779E-1	1.028530E+0	9.954616E-1	9.369430E-1	9.487477E-1	9.943827E-1	1.031088E+0	1.006295E+0	9.642988E-1	9.896052E-1	1.010420E+0	9.732946E-1	9.605825E-1	1.051524E+0	1.011711E+0	9.923112E-1	1.006023E+0	1.023670E+0	1.020356E+0	1.001571E+0	9.704465E-1	9.788102E-1	1.041098E+0	1.003326E+0	9.799852E-1	9.462429E-1	1.022636E+0	1.034983E+0	9.233652E-1	1.005389E+0	1.020916E+0	1.007434E+0	9.760712E-1	1.017062E+0	1.007320E+0	1.002021E+0	9.896112E-1	1.021777E+0	1.039863E+0	1.033173E+0	9.752119E-1	9.893044E-1	1.010854E+0	1.019247E+0	1.010731E+0	1.031908E+0	9.930680E-1	9.687093E-1	1.027482E+0	1.000081E+0	1.013900E+0	9.937262E-1	1.003645E+0	9.445644E-1	1.051359E+0	9.841112E-1	9.984975E-1	9.859055E-1	9.694159E-1	1.005202E+0	1.012555E+0	1.015834E+0	1.007148E+0	1.001918E+0	1.028721E+0	1.049533E+0	9.639932E-1	1.004488E+0	1.032238E+0	9.832024E-1	9.957561E-1	9.899604E-1	1.015584E+0	9.796589E-1	9.819677E-1	9.768499E-1	1.028392E+0	9.862637E-1	1.001021E+0	9.550487E-1	1.036446E+0	1.027107E+0	1.012885E+0	1.051006E+0	9.655259E-1	9.872838E-1	1.012821E+0	9.942224E-1	1.013129E+0	9.913038E-1	1.004091E+0	9.908700E-1	1.034708E+0	9.767966E-1	9.647341E-1
5.585390E+2	1.024877E+0	1.031810E+0	1.064117E+0	1.037877E+0	1.022633E+0	1.037457E+0	1.035035E+0	1.016015E+0	1.017951E+0	1.008581E+0	9.818170E-1	1.028612E+0	1.019282E+0	1.014859E+0	9.212821E-1	1.017399E+0	1.002438E+0	1.031852E+0	8.947170E-1	1.006739E+0	1.042000E+0	9.936366E-1	9.468033E-1	1.035635E+0	1.013303E+0	9.862844E-1	9.844622E-1	1.001935E+0	1.013874E+0	1.004228E+0	9.136352E-1	1.051933E+0	1.029506E+0	1.016699E+0	9.992466E-1	1.019166E+0	1.045401E+0	1.042419E+0	1.020185E+0	1.014865E+0	9.639849E-1	1.051194E+0	1.039149E+0	1.066275E+0	1.038544E+0	1.016067E+0	9.580180E-1	1.024689E+0	1.050991E+0	1.039065E+0	9.959795E-1	1.043489E+0	1.025503E+0	1.021299E+0	9.727504E-1	1.019003E+0	9.815874E-1	1.058651E+0	9.354408E-1	1.012543E+0	1.019639E+0	9.977698E-1	9.679658E-1	9.778209E-1	1.046469E+0	1.031099E+0	1.025964E+0	1.001370E+0	1.034721E+0	1.028799E+0	1.023660E+0	1.004882E+0	1.012966E+0	1.047692E+0	1.026754E+0	1.022084E+0	1.017908E+0	9.883877E-1	9.790720E-1	1.048920E+0	1.004984E+0	1.027621E+0	9.765087E-1	1.032500E+0	1.019139E+0	1.042364E+0	9.932511E-1	9.975316E-1	1.029160E+0	9.846071E-1	1.021705E+0	1.026042E+0	1.022834E+0	1.046821E+0	1.010822E+0	1.018760E+0	1.014655E+0	9.958370E-1	1.006997E+0	1.063320E+0	1.036126E+0	1.043125E+0	1.005336E+0	1.057344E+0	9.945096E-1	1.015080E+0	9.902708E-1	1.013659E+0	9.971635E-1	1.022070E+0	1.044919E+0	1.027204E+0	1.053623E+0	1.006809E+0	9.961051E-1	1.018666E+0	9.949805E-1	1.004149E+0	1.049643E+0	1.029778E+0	1.035561E+0	1.031076E+0	1.009986E+0	1.036296E+0	1.037475E+0	1.072713E+0	9.921700E-1	1.007967E+0	1.046905E+0	1.028529E+0	1.017338E+0	1.006597E+0	9.835663E-1	1.008410E+0	9.749183E-1	9.687296E-1	1.035233E+0	9.946965E-1	1.007060E+0	1.004679E+0	1.012452E+0	9.746388E-1	1.028241E+0	1.018834E+0	1.048803E+0	1.028463E+0	1.015495E+0	1.015850E+0	9.833257E-1	1.039410E+0	1.033094E+0	1.030653E+0	1.059515E+0	1.019148E+0	1.049401E+0	1.001723E+0	1.000408E+0	1.023114E+0	9.906700E-1	1.092211E+0	1.027570E+0	9.900757E-1	1.032365E+0	1.026297E+0	9.846834E-1
5.590210E+2	9.932579E-1	1.000247E+0	9.889734E-1	9.712413E-1	9.674702E-1	9.564147E-1	9.846965E-1	1.011598E+0	9.709168E-1	1.047078E+0	1.038022E+0	9.703587E-1	1.001135E+0	9.776149E-1	1.039392E+0	1.019263E+0	9.875242E-1	9.713688E-1	1.039770E+0	9.861674E-1	9.867506E-1	9.952266E-1	1.045870E+0	9.789772E-1	9.950008E-1	9.910029E-1	1.000944E+0	9.989578E-1	9.939077E-1	9.746333E-1	8.985759E-1	9.828929E-1	9.775627E-1	9.711686E-1	9.161058E-1	9.698819E-1	9.705554E-1	1.007058E+0	9.632973E-1	9.956111E-1	1.001221E+0	1.003086E+0	9.492169E-1	9.608568E-1	9.644304E-1	9.612113E-1	9.544512E-1	9.745759E-1	9.493135E-1	9.209997E-1	9.058266E-1	9.876918E-1	1.015507E+0	9.929906E-1	1.000506E+0	1.005184E+0	9.785314E-1	9.623242E-1	9.541995E-1	9.765218E-1	9.901457E-1	9.761378E-1	9.240986E-1	1.013069E+0	9.638574E-1	9.844502E-1	9.295673E-1	9.629919E-1	9.672377E-1	1.007108E+0	9.649776E-1	9.779316E-1	9.831442E-1	1.020918E+0	9.996775E-1	9.451367E-1	9.806603E-1	1.028121E+0	9.606057E-1	9.797194E-1	9.753837E-1	9.604761E-1	9.930717E-1	9.444253E-1	1.012283E+0	9.917083E-1	9.351921E-1	9.754583E-1	9.593651E-1	9.776958E-1	9.454583E-1	9.904567E-1	9.652667E-1	9.864398E-1	9.562666E-1	9.985813E-1	1.002378E+0	1.015117E+0	9.334820E-1	9.373527E-1	1.002887E+0	9.932733E-1	9.839964E-1	9.728673E-1	1.000001E+0	9.833649E-1	9.652059E-1	9.718229E-1	9.604067E-1	9.920897E-1	9.349499E-1	9.738010E-1	9.914140E-1	9.748308E-1	9.789362E-1	9.855635E-1	9.835064E-1	9.940241E-1	9.289273E-1	9.813579E-1	9.922380E-1	9.919768E-1	9.808218E-1	9.721525E-1	9.598429E-1	9.907132E-1	9.839440E-1	9.938722E-1	1.006635E+0	1.000158E+0	9.797588E-1	9.907637E-1	1.000074E+0	9.948353E-1	9.806153E-1	1.013561E+0	1.003639E+0	9.999185E-1	9.764380E-1	9.801348E-1	9.957560E-1	9.735801E-1	9.845740E-1	9.314425E-1	1.010422E+0	9.999238E-1	9.932822E-1	9.975351E-1	9.513380E-1	9.747527E-1	9.700893E-1	9.756999E-1	9.552102E-1	9.466219E-1	9.434918E-1	1.027976E+0	9.579438E-1	9.774640E-1	9.754767E-1	9.762616E-1	9.763427E-1	1.040093E+0	9.597266E-1	9.555816E-1	9.248388E-1
5.595110E+2	1.006277E+0	1.027865E+0	9.811329E-1	9.607198E-1	9.512458E-1	9.795695E-1	9.666739E-1	1.036212E+0	1.016070E+0	9.822754E-1	1.031959E+0	1.041556E+0	9.867221E-1	1.015370E+0	1.084943E+0	9.813585E-1	9.221343E-1	9.803292E-1	1.061856E+0	9.932610E-1	9.754774E-1	1.004773E+0	1.015386E+0	9.843447E-1	9.956789E-1	9.986726E-1	1.043523E+0	1.025158E+0	9.897959E-1	1.037523E+0	1.090131E+0	1.004888E+0	9.775622E-1	1.026286E+0	1.054675E+0	9.774112E-1	1.023935E+0	1.030442E+0	1.016160E+0	9.961765E-1	1.006104E+0	9.986546E-1	9.812907E-1	9.782187E-1	1.027725E+0	1.017680E+0	9.556400E-1	9.869554E-1	1.021157E+0	9.985535E-1	9.695660E-1	1.005416E+0	9.719990E-1	1.022387E+0	9.669703E-1	1.006843E+0	1.032928E+0	9.846965E-1	9.548248E-1	1.000322E+0	1.001408E+0	9.637003E-1	9.431461E-1	1.013068E+0	1.007069E+0	9.732549E-1	9.581756E-1	9.773842E-1	1.022670E+0	9.701747E-1	9.667037E-1	9.933313E-1	9.837923E-1	1.017874E+0	9.867839E-1	1.035627E+0	9.926931E-1	9.979012E-1	9.322913E-1	9.954198E-1	9.759876E-1	9.562036E-1	9.599460E-1	9.958604E-1	1.015712E+0	9.977388E-1	9.897672E-1	9.940456E-1	1.028531E+0	9.808367E-1	9.806980E-1	1.064863E+0	1.000692E+0	1.000255E+0	9.681267E-1	9.973199E-1	1.036137E+0	1.023297E+0	9.854148E-1	9.925906E-1	9.859858E-1	9.830762E-1	1.030940E+0	1.010349E+0	1.017689E+0	9.821221E-1	1.034464E+0	9.768185E-1	1.029054E+0	9.959740E-1	9.920376E-1	1.033521E+0	9.641979E-1	1.006219E+0	1.017090E+0	1.017195E+0	1.003904E+0	1.017085E+0	1.039726E+0	1.018803E+0	9.814075E-1	1.001314E+0	9.846256E-1	1.025950E+0	9.838265E-1	1.005020E+0	1.035829E+0	9.957098E-1	9.944324E-1	9.459354E-1	1.009139E+0	1.038265E+0	1.011865E+0	1.037923E+0	1.009099E+0	9.936343E-1	9.980644E-1	9.979605E-1	1.037682E+0	1.043336E+0	9.595844E-1	9.973576E-1	1.002927E+0	1.056202E+0	9.813059E-1	1.007211E+0	1.012629E+0	9.862640E-1	9.860474E-1	1.033867E+0	9.814841E-1	1.015881E+0	9.981596E-1	9.879692E-1	1.041582E+0	9.800643E-1	9.827694E-1	1.027159E+0	1.012468E+0	9.875432E-1	9.891498E-1	1.023421E+0	1.014792E+0	1.061656E+0	1.044527E+0
5.600470E+2	1.024877E+0	9.916982E-1	1.004656E+0	1.054010E+0	1.031718E+0	1.034732E+0	1.007069E+0	9.756224E-1	9.796966E-1	1.006015E+0	1.054000E+0	1.040968E+0	1.024085E+0	9.714935E-1	1.097652E+0	9.658234E-1	1.004159E+0	9.831294E-1	1.058276E+0	1.013124E+0	1.005918E+0	9.904548E-1	1.064042E+0	9.926941E-1	1.002457E+0	9.821549E-1	1.043522E+0	9.751397E-1	1.011525E+0	9.941872E-1	1.070854E+0	1.018330E+0	1.048574E+0	1.042461E+0	1.062506E+0	9.678287E-1	9.821581E-1	9.773998E-1	1.016735E+0	1.005239E+0	1.011598E+0	1.030938E+0	1.000786E+0	1.012324E+0	1.004463E+0	1.017142E+0	1.081660E+0	1.009359E+0	9.974123E-1	9.997116E-1	1.074651E+0	1.019201E+0	1.061366E+0	1.016400E+0	1.058327E+0	9.615077E-1	9.932001E-1	1.037520E+0	1.046739E+0	1.008040E+0	1.024469E+0	1.013453E+0	1.113418E+0	1.031589E+0	9.625864E-1	1.011195E+0	1.069500E+0	1.030155E+0	1.012428E+0	1.000073E+0	1.028262E+0	1.051081E+0	9.818474E-1	1.005705E+0	9.887181E-1	1.016543E+0	9.795139E-1	1.010772E+0	9.501419E-1	9.727414E-1	1.017669E+0	1.008699E+0	9.382860E-1	9.796548E-1	1.016284E+0	9.989449E-1	9.793160E-1	9.963691E-1	1.017842E+0	1.043667E+0	1.012094E+0	1.012455E+0	9.624972E-1	9.736477E-1	9.704986E-1	1.043983E+0	9.999240E-1	1.041408E+0	1.001602E+0	1.011451E+0	1.016972E+0	9.740113E-1	9.967992E-1	1.040001E+0	9.792602E-1	1.004508E+0	9.995051E-1	1.039884E+0	9.901359E-1	9.576666E-1	9.595877E-1	1.050173E+0	1.004374E+0	9.848982E-1	9.929257E-1	1.003219E+0	1.035138E+0	9.765846E-1	9.709150E-1	1.029779E+0	9.749086E-1	1.041581E+0	9.903318E-1	1.012846E+0	1.028639E+0	1.016578E+0	1.013683E+0	1.047798E+0	1.007856E+0	1.019703E+0	9.763424E-1	9.973610E-1	1.026013E+0	9.954257E-1	1.045811E+0	1.029056E+0	9.745242E-1	1.024069E+0	9.594263E-1	1.021246E+0	1.025807E+0	1.046498E+0	9.795108E-1	1.014013E+0	1.019025E+0	9.981028E-1	9.789518E-1	9.686531E-1	1.002382E+0	1.008621E+0	9.948890E-1	9.691986E-1	1.002454E+0	1.027960E+0	1.023812E+0	1.045040E+0	1.016088E+0	9.786201E-1	1.021055E+0	1.000078E+0	1.010495E+0	1.036917E+0	1.014791E+0	1.026298E+0	1.055927E+0
5.605150E+2	9.504791E-1	9.824917E-1	9.994278E-1	9.978957E-1	9.875885E-1	9.625438E-1	1.051194E+0	9.428029E-1	9.746793E-1	9.424960E-1	9.939378E-1	9.903648E-1	9.498934E-1	1.019451E+0	1.032507E+0	9.857077E-1	1.022514E+0	1.015611E+0	1.039770E+0	1.010286E+0	9.709668E-1	9.968192E-1	1.007181E+0	9.634710E-1	1.007202E+0	1.018730E+0	1.019487E+0	9.620396E-1	9.915588E-1	9.836175E-1	1.079286E+0	9.798385E-1	9.676998E-1	9.400155E-1	1.025153E+0	1.025327E+0	9.850588E-1	9.580078E-1	1.023630E+0	9.706918E-1	9.768039E-1	9.853622E-1	1.014621E+0	9.869000E-1	1.001758E+0	9.794976E-1	1.076906E+0	9.828287E-1	1.008980E+0	9.852416E-1	1.014931E+0	9.620903E-1	9.855219E-1	9.646822E-1	1.027681E+0	1.014580E+0	9.925892E-1	9.759963E-1	1.104888E+0	9.971056E-1	9.756653E-1	9.804630E-1	1.111687E+0	9.581066E-1	1.005163E+0	9.894263E-1	1.061415E+0	1.033582E+0	1.009414E+0	9.766236E-1	1.044370E+0	9.740818E-1	1.019449E+0	9.801482E-1	1.012572E+0	1.005463E+0	9.571657E-1	9.715989E-1	1.134803E+0	1.018681E+0	1.008004E+0	1.014802E+0	1.121756E+0	9.662674E-1	9.711496E-1	1.006182E+0	1.070469E+0	9.952068E-1	9.650244E-1	1.005969E+0	1.040286E+0	9.768688E-1	1.013977E+0	9.634124E-1	1.051738E+0	1.029480E+0	9.452939E-1	9.637033E-1	1.039371E+0	9.845069E-1	1.009083E+0	1.021597E+0	1.027282E+0	9.627965E-1	9.755997E-1	9.616010E-1	9.553117E-1	9.574617E-1	9.652697E-1	1.002081E+0	9.752119E-1	9.473862E-1	9.609578E-1	1.005626E+0	9.471420E-1	9.605514E-1	9.937057E-1	1.030587E+0	9.318430E-1	9.903965E-1	1.012455E+0	9.791356E-1	1.008083E+0	1.008018E+0	9.529007E-1	9.835597E-1	9.814130E-1	9.797779E-1	9.663650E-1	9.995271E-1	9.783916E-1	9.874651E-1	9.841572E-1	9.505678E-1	9.723865E-1	9.814594E-1	1.004259E+0	9.725047E-1	1.028155E+0	9.967016E-1	1.005218E+0	1.005813E+0	9.997625E-1	9.718233E-1	9.495428E-1	9.993170E-1	9.732196E-1	1.019371E+0	9.996598E-1	1.030174E+0	9.781325E-1	1.012336E+0	9.852747E-1	9.933914E-1	9.790313E-1	9.840019E-1	1.004982E+0	9.942216E-1	1.000578E+0	9.950645E-1	9.756316E-1	9.511741E-1	9.491817E-1	9.891714E-1	9.504849E-1
5.610070E+2	1.026737E+0	9.963008E-1	9.687176E-1	9.705398E-1	9.979716E-1	9.843364E-1	9.592162E-1	9.844579E-1	9.960029E-1	9.726516E-1	1.038019E+0	9.780079E-1	1.012344E+0	1.027103E+0	1.025093E+0	1.060275E+0	1.015630E+0	1.032972E+0	1.087523E+0	9.741082E-1	1.009865E+0	1.009546E+0	1.057594E+0	1.064261E+0	9.807660E-1	9.868743E-1	1.009872E+0	1.008485E+0	9.927327E-1	9.878429E-1	1.026278E+0	9.816709E-1	9.953154E-1	1.010109E+0	1.039612E+0	1.006160E+0	9.740354E-1	9.870964E-1	9.839831E-1	9.995768E-1	9.627641E-1	9.853616E-1	1.056758E+0	9.744984E-1	1.007709E+0	9.622871E-1	1.087011E+0	9.763433E-1	9.858443E-1	1.022861E+0	1.086134E+0	9.929428E-1	9.537726E-1	9.864594E-1	1.040982E+0	9.974415E-1	9.681408E-1	9.672958E-1	1.131775E+0	1.019619E+0	9.461711E-1	9.810044E-1	1.075325E+0	1.007094E+0	1.000080E+0	9.384239E-1	1.080073E+0	9.876642E-1	1.016645E+0	9.707614E-1	1.013880E+0	1.005980E+0	1.014262E+0	1.005096E+0	1.061567E+0	9.716061E-1	1.025357E+0	1.005736E+0	1.097869E+0	1.001236E+0	1.021898E+0	1.034334E+0	1.065696E+0	1.003611E+0	9.700048E-1	9.850750E-1	1.071630E+0	1.025415E+0	9.945772E-1	1.009110E+0	1.024267E+0	9.936917E-1	1.027814E+0	1.000768E+0	1.115189E+0	9.802939E-1	9.581840E-1	9.274802E-1	1.108165E+0	1.002021E+0	9.414804E-1	9.666469E-1	1.019965E+0	9.611195E-1	1.023790E+0	1.013836E+0	1.042380E+0	9.986734E-1	1.029595E+0	9.765436E-1	1.120635E+0	9.904542E-1	9.914144E-1	1.003849E+0	1.099118E+0	9.892417E-1	9.720329E-1	9.968368E-1	1.064221E+0	9.929789E-1	1.016788E+0	9.808878E-1	1.016325E+0	1.015605E+0	1.004655E+0	9.598947E-1	1.054179E+0	9.797776E-1	9.840597E-1	9.761989E-1	1.040569E+0	9.802080E-1	1.022476E+0	9.936554E-1	1.012264E+0	1.024076E+0	1.032135E+0	9.953492E-1	9.982135E-1	9.635672E-1	9.662620E-1	1.011624E+0	9.826753E-1	1.018232E+0	1.024981E+0	9.944592E-1	1.004031E+0	1.008101E+0	1.023480E+0	9.846054E-1	1.017008E+0	9.981532E-1	9.797519E-1	9.893242E-1	9.832965E-1	9.840018E-1	1.003021E+0	9.982653E-1	9.748165E-1	9.825297E-1	1.007649E+0	9.662587E-1	9.855018E-1	1.005082E+0	9.989323E-1
