Photon Energy (eV)	#1	#2	#3	#4	#5	#6	#7	#8	#9	#10	#11	#12	#13	#14	#15	#16	#17	#18	#19	#20	#21	#22	#23	#24	#25	#26	#27	#28	#29	#30	#31	#32	#33	#34	#35	#36	#37	#38	#39	#40	#41	#42	#43	#44	#45	#46	#47	#48	#49	#50	#51	#52	#53	#54	#55	#56	#57	#58	#59	#60	#61	#62	#63	#64	#65	#66	#67	#68	#69	#70	#71	#72	#73	#74	#75	#76	#77	#78	#79	#80	#81	#82	#83	#84	#85	#86	#87	#88	#89	#90	#91	#92	#93	#94	#95	#96	#97	#98	#99	#100	#101	#102	#103	#104	#105	#106	#107	#108	#109	#110	#111	#112	#113	#114	#115	#116	#117	#118	#119	#120	#121	#122	#123	#124	#125	#126	#127	#128	#129	#130	#131	#132	#133	#134	#135	#136	#137	#138	#139	#140	#141	#142	#143	#144	#145	#146	#147	#148	#149	#150	#151	#152	#153	#154	#155	#156	#157	#158	#159	#160	#161	#162	#163	#164	#165	
5.300220E+2	-7.767376E-3	-7.007077E-3	-8.011923E-3	-8.389660E-3	3.531786E-3	-9.084329E-3	-5.189587E-4	-8.773626E-3	-2.644005E-3	-1.271761E-2	-1.334436E-2	-1.213656E-2	-9.094889E-3	-1.448799E-2	-2.493583E-3	-1.102610E-3	-4.404244E-3	-8.407476E-3	4.645318E-4	-8.725864E-3	-1.022463E-2	-9.388171E-3	-4.776657E-3	-1.491968E-2	-4.294102E-3	-7.386930E-3	-1.320378E-2	-5.267176E-3	-3.881738E-3	-4.756469E-3	-3.316684E-3	-7.554962E-3	-5.711628E-3	-6.815170E-3	-2.140465E-3	-3.092207E-3	-4.956805E-3	1.546107E-3	-5.078011E-3	5.437062E-4	-5.012529E-3	-3.733051E-3	-3.213104E-3	-1.248465E-2	-1.397073E-2	-1.026955E-2	-1.377158E-2	-1.312280E-2	-1.304094E-3	-4.078567E-3	-8.039492E-3	-2.375656E-3	-5.429063E-3	-1.001706E-2	-2.877880E-3	-8.368680E-3	-1.100421E-2	-7.470243E-3	-1.505372E-3	-6.134645E-6	-3.946530E-4	-6.078126E-3	-4.127671E-3	-9.833531E-3	-2.233921E-3	-5.990632E-3	-1.579210E-2	2.857950E-3	3.781360E-3	-8.541812E-3	-1.061098E-3	-1.508525E-2	-7.092378E-3	-1.442740E-3	-8.399274E-3	-1.128875E-2	-8.057881E-3	-5.096757E-3	-8.487597E-3	-9.110895E-3	-7.868285E-3	-7.361411E-3	-1.408918E-4	-1.631817E-2	-1.435345E-2	-1.098378E-2	-9.680918E-3	-1.050412E-3	-2.856560E-3	-1.230777E-2	-4.895832E-3	-4.369870E-3	1.018678E-3	-5.379167E-3	-1.006089E-2	-7.287725E-3	2.928605E-3	-3.999347E-3	-5.036304E-3	-1.704868E-2	-3.449836E-3	-9.615338E-3	-4.431634E-3	-2.214475E-3	-7.495200E-3	-2.551708E-3	2.063913E-3	-8.227159E-3	-1.190091E-2	-1.599358E-2	-2.496775E-3	-2.879285E-3	-1.729586E-2	-6.195497E-3	-1.214441E-2	-6.270586E-3	-1.192802E-2	-4.693691E-3	-8.426218E-3	-8.557069E-3	-4.459786E-3	-5.117432E-3	-6.559595E-3	-4.798659E-3	-1.184693E-2	-6.109532E-3	-3.930035E-3	-4.965301E-3	-5.395222E-3	6.539879E-4	-1.016964E-2	-9.742460E-3	-8.315614E-3	-8.878612E-3	-6.495485E-3	-1.342068E-2	6.285003E-3	-1.148293E-2	-4.447428E-3	-5.544839E-3	-2.774463E-3	-2.378462E-3	-5.962007E-3	-5.192401E-3	-5.633551E-3	-9.072877E-4	-1.546176E-2	-1.956901E-2	-1.295040E-2	-1.405367E-2	-7.339258E-3	-6.519564E-3	-1.041941E-2	-1.527804E-2	-1.022074E-2	-1.550242E-2	1.003144E-4	-7.315394E-3	-9.015571E-3	-1.379591E-2	-8.182031E-3	-1.151042E-3	-1.997552E-2	-2.539493E-2	-2.678115E-2
5.305080E+2	-1.179957E-2	-1.118274E-2	-6.216899E-3	-5.137396E-3	-7.335098E-3	-1.407629E-2	-1.023360E-2	3.678324E-3	-7.981550E-3	-7.117865E-3	-1.073406E-2	-5.196856E-4	-3.443867E-3	-6.545828E-3	-8.456707E-3	-1.537707E-2	-9.402234E-3	-4.207267E-3	4.800097E-3	-5.658975E-4	-6.600734E-3	-7.035642E-3	-3.447600E-3	-1.219496E-2	1.958699E-3	-6.546803E-3	-7.244705E-3	-1.038248E-2	-9.113094E-3	-9.964691E-3	-1.637803E-4	-1.181899E-2	-2.807336E-3	3.035307E-3	4.631849E-3	-1.103951E-2	-7.148130E-3	-9.914152E-3	-4.974532E-3	-3.387974E-3	-1.339216E-2	-5.953068E-3	-4.211783E-3	-9.262851E-4	-1.150022E-2	1.801490E-3	3.400316E-3	-8.215767E-3	-8.404100E-3	-5.598091E-3	-1.489736E-2	-1.201095E-2	-1.041039E-2	-3.780168E-3	-1.566010E-3	-6.496728E-3	-1.238970E-3	-5.296603E-3	-3.753305E-3	-6.985207E-3	-1.114584E-2	1.103392E-3	-5.258487E-3	-4.918689E-3	-4.607039E-3	-6.986108E-3	-1.477062E-3	-5.907554E-4	-1.135549E-2	-2.399177E-3	-7.947079E-3	5.832128E-4	-6.195521E-3	4.440717E-4	4.984960E-3	-1.011594E-3	7.712805E-4	-5.494842E-3	-5.825839E-3	1.615629E-3	-1.113277E-2	9.208821E-4	6.347674E-3	-5.339300E-3	-2.401363E-3	9.206287E-4	-1.003020E-2	-3.888312E-3	-7.053732E-3	-5.562831E-4	-8.561618E-3	-7.242105E-3	-5.065329E-3	-8.859325E-3	-5.044734E-3	-8.450282E-3	-6.753218E-3	-1.138697E-2	-6.799834E-3	-3.728192E-3	1.234260E-3	-1.511766E-3	-7.992587E-3	-1.062346E-2	-2.245794E-3	-2.287402E-3	-1.304631E-2	-1.166054E-2	-8.862743E-3	-3.364490E-3	-2.523736E-3	1.059019E-3	-1.168467E-2	-7.123857E-3	9.528712E-4	-6.058280E-3	-1.954497E-3	-2.780863E-3	-1.171818E-2	-8.314426E-3	-1.352324E-2	6.875042E-3	-6.969810E-3	5.847510E-3	-3.918920E-3	-4.318397E-3	1.920797E-3	-1.483155E-2	-4.402796E-3	-5.463897E-3	-8.313662E-3	-1.687422E-2	-1.161069E-2	-6.833341E-3	-3.010838E-3	-6.503138E-3	-1.048099E-2	-3.283187E-3	-1.430245E-3	-2.060502E-2	-4.849539E-3	-4.971456E-3	-1.153493E-2	-6.387836E-3	-4.006956E-3	1.061392E-3	-3.430579E-3	-2.032428E-3	-5.601390E-3	-4.360487E-3	-1.120609E-2	-4.598403E-3	-1.054217E-2	1.752307E-3	-6.927925E-3	5.437141E-3	-1.771885E-3	-1.418956E-2	-7.427885E-3	-1.406157E-2	6.596374E-3	-8.745948E-3	-2.145034E-3	-9.871003E-3	4.463541E-3
5.310350E+2	6.710643E-4	-2.581449E-3	-4.246761E-3	-1.003914E-2	-5.376472E-3	-5.200001E-3	-5.899155E-3	-5.185820E-3	1.287308E-4	-4.539968E-3	-1.065571E-4	-6.386768E-3	1.425661E-3	-6.545823E-3	-8.999917E-3	-9.152748E-3	-1.054973E-2	-1.374181E-2	-3.125867E-3	-1.197401E-2	-1.056439E-2	-8.631544E-3	-7.000443E-3	-3.862169E-3	-1.431370E-2	4.677075E-3	-1.715759E-3	-2.609870E-3	-1.204115E-2	-1.260995E-2	-4.463199E-3	4.120003E-3	-4.134177E-3	-1.136044E-2	-9.414929E-3	-2.115954E-3	-3.063741E-3	-2.456700E-3	-1.195962E-2	-4.518462E-3	-7.250729E-3	-5.316785E-3	-8.009611E-3	-5.903562E-3	-3.908006E-3	-1.974430E-3	-3.832774E-3	-1.410420E-2	-1.570697E-2	-1.313153E-2	-5.563345E-3	-9.100447E-4	-1.631335E-3	-8.684924E-3	-3.903977E-3	-5.395573E-3	-3.697327E-3	9.335408E-4	-3.753325E-3	-1.988287E-2	2.846277E-3	-9.741222E-3	-3.503802E-3	-4.918634E-3	-5.878387E-3	-2.008739E-3	2.948136E-3	-4.710976E-3	-8.927160E-3	-6.516073E-3	-2.144285E-3	-6.588964E-3	-1.335610E-2	-5.053353E-3	-1.000713E-2	-3.916185E-4	-4.373728E-3	-6.054626E-3	-7.067099E-3	5.696379E-3	5.864089E-3	-2.751056E-3	-5.871960E-3	-4.338039E-4	-3.551854E-3	-3.326129E-3	-1.879626E-3	-6.790712E-3	-3.288802E-3	1.321171E-3	4.226007E-3	2.451637E-3	-2.294276E-3	-3.211210E-3	-1.433160E-3	-7.819979E-3	-5.908023E-4	-6.137850E-3	2.093620E-3	-6.446693E-3	-1.571885E-2	1.319467E-3	-3.678363E-3	-3.541186E-6	-5.329616E-3	-1.167735E-2	-5.756269E-3	-9.784021E-3	-1.206575E-3	-5.034325E-3	-7.998055E-3	-3.574293E-3	-3.268022E-3	-6.527082E-3	-3.546195E-3	-1.046729E-2	-5.151170E-3	-5.593889E-3	-4.719484E-3	-1.409458E-2	1.582464E-3	-3.615107E-3	4.488255E-3	-2.412410E-3	-3.287471E-3	-7.630792E-3	-6.939769E-3	-8.690703E-3	4.913575E-4	-9.873852E-3	-2.791659E-3	2.515245E-3	-5.112379E-3	-9.802268E-3	1.397458E-3	-3.713775E-3	-8.615014E-3	-1.334325E-3	-9.658884E-3	-4.075528E-3	-2.053760E-3	-9.723342E-3	-1.153498E-2	-2.761232E-3	-1.257969E-2	-2.579307E-3	1.739285E-4	-1.191437E-2	-8.085810E-4	-3.741775E-3	-2.472004E-3	-1.165563E-2	1.122623E-3	-9.137452E-3	-4.050849E-3	4.120205E-3	-1.771897E-3	3.835842E-3	-1.139704E-2	-5.881130E-3	-9.101723E-3	-5.544361E-3	2.547258E-3	-1.887326E-2	-3.620620E-2
5.315230E+2	-9.928946E-3	2.711688E-3	-3.590000E-3	4.646294E-4	-9.293724E-3	-9.296733E-3	1.531291E-3	-5.818929E-3	-5.486050E-3	-1.034021E-2	-4.021947E-3	-1.106351E-3	8.845925E-4	2.158646E-3	-1.008635E-2	-2.928425E-3	-2.222068E-4	-1.403017E-3	-6.174338E-3	2.286168E-3	7.603860E-4	-1.183860E-3	-4.039716E-3	-9.218947E-3	-7.533538E-3	-3.593165E-3	-7.244737E-3	1.054384E-2	-6.185140E-3	8.023166E-3	1.678818E-3	-7.527724E-3	-8.171906E-4	-4.762372E-3	-4.529114E-3	4.061926E-3	-8.898558E-3	-6.472226E-3	-5.556652E-3	-6.214244E-3	1.961338E-3	-2.771507E-3	-1.497234E-2	-5.281446E-3	-2.281088E-3	-2.513885E-3	-3.832782E-3	3.561097E-3	7.244721E-4	-2.700622E-3	-8.963500E-4	-7.440002E-3	-2.216569E-3	-2.690252E-3	-3.903975E-3	-5.395580E-3	-6.770310E-3	4.048595E-3	-3.121101E-3	-6.340322E-3	1.554614E-4	-8.656746E-3	-2.334009E-3	4.619619E-3	-7.785410E-3	4.799816E-4	-2.127237E-4	-7.457814E-3	1.792331E-4	3.482108E-3	4.819103E-3	-1.045091E-2	4.219866E-3	-1.999255E-3	-3.488827E-3	2.088095E-3	-6.660475E-3	-2.695865E-3	-7.687707E-3	-1.120958E-2	7.078187E-3	-6.423011E-3	-9.730813E-3	5.873199E-3	-1.250908E-3	-1.242632E-2	-3.043999E-3	3.077463E-3	-7.681253E-3	-1.182111E-3	-8.890589E-4	5.129197E-4	-3.402697E-3	-8.859348E-3	-5.044756E-3	-3.407737E-3	-6.136953E-3	3.193913E-3	-7.483902E-3	-3.300965E-4	-2.721480E-3	-2.078048E-3	6.359013E-4	-1.680378E-3	-7.796712E-3	-1.292936E-2	-9.732614E-3	-6.030844E-3	-5.034650E-3	7.211311E-3	-4.348526E-3	-8.207576E-3	-3.915434E-3	-5.333461E-3	-1.640063E-2	-6.793101E-3	2.520759E-3	-5.031247E-3	-5.368380E-5	1.319133E-3	1.582527E-3	-4.197913E-3	-5.696668E-3	-7.230748E-3	-1.393191E-3	-2.110129E-3	-8.838441E-3	-2.549931E-3	-9.296938E-3	2.095978E-3	-5.552661E-3	-8.277922E-4	7.952067E-4	2.921750E-4	-8.048881E-3	8.001389E-3	9.278564E-5	-7.830569E-3	-5.544538E-3	-1.014521E-3	-7.086111E-3	-6.027437E-3	-2.059552E-3	-4.574549E-3	-3.347450E-3	-8.647078E-3	1.615734E-3	-1.326538E-3	-4.232016E-3	7.395138E-3	2.230980E-3	-9.891335E-3	-1.947058E-3	-5.053772E-3	-7.647249E-3	-4.440007E-3	-1.032845E-2	-1.978818E-3	-1.512339E-4	1.047978E-2	-7.674609E-3	5.661222E-3	-3.318103E-3	-8.687867E-4	-4.251426E-3
5.320120E+2	8.776922E-3	7.343112E-3	6.260684E-3	9.567859E-3	-4.070667E-3	2.310649E-3	-2.183950E-3	6.210895E-3	-4.951378E-4	1.414977E-2	1.571500E-3	-2.279800E-3	-7.772341E-3	-9.135267E-4	1.864154E-3	1.837936E-4	6.089056E-3	5.327220E-3	-8.003439E-3	3.712208E-3	-4.335739E-3	5.731878E-3	-3.447602E-3	9.232196E-3	3.992779E-3	-4.183885E-3	9.342273E-3	-7.990911E-3	2.565590E-4	1.674502E-3	1.064607E-3	4.119997E-3	-2.143959E-3	-3.562756E-3	-2.086160E-3	-1.429524E-3	4.371508E-4	6.721739E-3	6.667206E-3	2.264643E-3	5.646160E-3	8.682174E-3	3.383901E-3	1.213899E-2	2.057345E-3	-3.592723E-3	-8.052069E-3	5.916503E-3	5.593084E-3	8.889264E-3	3.187255E-3	3.660902E-3	1.182989E-2	-5.104000E-4	-2.735007E-3	1.761842E-3	2.448665E-3	-9.355178E-4	-9.443553E-3	1.300613E-2	2.846247E-3	1.103362E-3	5.904718E-4	6.408085E-3	1.064892E-2	-6.363951E-3	-4.005737E-3	-4.024274E-3	-3.463334E-3	6.422703E-3	-7.366775E-3	-6.588956E-3	5.521826E-3	7.773967E-3	3.681273E-3	2.282772E-4	-1.515387E-3	3.461821E-3	4.724526E-3	-2.465101E-3	-2.027298E-3	3.980887E-3	5.594376E-4	3.070115E-3	4.748212E-4	3.347329E-3	3.360055E-3	4.818943E-3	1.177083E-2	5.076100E-3	3.897186E-4	5.129019E-4	-2.848473E-3	2.950383E-3	-6.248587E-3	7.307701E-3	-1.823325E-3	3.777168E-3	2.093579E-3	3.494989E-4	6.691618E-4	-5.475491E-3	-1.829398E-3	-3.916139E-3	2.688317E-3	1.468635E-3	4.184664E-3	1.148383E-2	8.090158E-3	-1.137982E-3	5.383516E-3	-2.415923E-3	3.206364E-3	3.789635E-5	-4.831649E-3	-1.796026E-4	-3.872522E-3	1.157347E-3	-6.369175E-4	1.159496E-2	1.582520E-3	-3.032343E-3	6.688530E-4	-7.919016E-3	-7.617132E-4	4.514683E-3	6.351096E-3	-3.163987E-3	5.997296E-3	3.355892E-3	5.491296E-3	-4.170795E-3	1.024728E-2	-3.015832E-4	3.916507E-3	-3.155917E-3	-4.261096E-3	-6.847050E-4	-4.858853E-3	1.434314E-3	-7.645310E-3	3.083976E-4	2.362323E-3	3.887574E-3	1.050090E-2	-8.040287E-3	5.941177E-3	-6.207156E-4	1.930192E-3	-3.123049E-3	8.277696E-3	3.635020E-3	2.350500E-3	-2.331348E-3	8.177019E-3	-3.781555E-3	2.177273E-3	-1.978842E-3	1.833385E-3	3.557825E-3	-1.252687E-3	-1.114722E-2	-1.387563E-2	1.533526E-2	-1.346450E-3
5.325120E+2	1.002393E-2	7.343148E-3	1.663649E-3	3.965866E-3	3.111026E-3	1.460079E-2	-9.454784E-4	1.778836E-3	2.000351E-3	3.193747E-3	8.842978E-3	1.297471E-2	4.130925E-3	1.495937E-2	1.272818E-2	2.673482E-3	2.646521E-3	1.149660E-2	1.821335E-2	6.564208E-3	1.378385E-2	1.105162E-2	7.803139E-3	1.220816E-2	1.212899E-2	3.495655E-3	5.886614E-3	7.554371E-3	7.869432E-3	-1.499834E-3	-2.006370E-3	9.637369E-3	1.836459E-3	1.143281E-2	7.074767E-3	3.375496E-3	-1.463464E-4	-1.620773E-4	9.577668E-3	-1.692184E-3	7.330769E-4	4.227946E-3	1.541037E-2	2.806637E-3	4.226464E-3	-3.561761E-4	1.063341E-2	1.180489E-2	6.810241E-3	-9.621331E-4	9.021022E-3	1.701930E-3	2.465571E-3	1.365885E-2	3.109808E-3	1.387435E-2	-6.243580E-4	9.335207E-4	8.259336E-3	7.847113E-3	1.231777E-3	1.086355E-2	2.345130E-3	-7.456446E-4	3.020922E-3	7.946045E-3	8.005415E-3	5.589541E-3	9.285598E-3	4.070182E-3	2.497968E-3	1.216911E-2	-5.544557E-3	2.276564E-3	1.073951E-3	8.287491E-3	9.918094E-3	1.782430E-3	7.827564E-3	1.152606E-2	4.043050E-3	9.488813E-3	-2.013142E-3	6.573985E-3	1.197945E-2	6.987397E-3	2.777862E-3	-4.054113E-4	2.986044E-3	-5.562744E-4	-8.890560E-4	5.129019E-4	1.585217E-3	7.571606E-3	8.197729E-3	4.786445E-3	-5.908193E-4	2.027419E-3	9.618727E-3	3.747632E-3	8.015500E-3	2.451935E-3	3.717478E-3	3.350117E-3	8.239207E-3	1.023259E-2	5.510109E-3	2.100991E-3	5.355808E-3	-5.813156E-4	-9.076607E-5	1.090486E-2	6.443537E-3	7.796512E-3	1.380734E-2	2.039566E-2	6.996083E-3	1.719965E-3	6.945016E-3	7.099248E-3	-2.733443E-3	-7.011769E-4	-3.787002E-3	3.782503E-3	5.552648E-3	5.618814E-3	3.819498E-3	1.280216E-2	1.333850E-2	5.245920E-3	1.515477E-2	2.515220E-3	1.385927E-3	7.417699E-3	1.273305E-2	7.491358E-4	6.312713E-3	1.360710E-2	9.541362E-3	6.331958E-3	7.420006E-4	1.245211E-2	3.625751E-3	-9.479033E-4	6.544195E-3	4.702065E-3	8.948578E-4	1.208470E-2	5.353599E-3	4.920266E-3	8.949508E-3	1.657332E-2	3.578377E-3	8.558380E-3	1.393129E-2	7.412553E-3	-1.771921E-3	7.324632E-3	9.771561E-3	3.557851E-3	8.737007E-3	4.860873E-3	1.075862E-2	1.173433E-2	2.479838E-2
5.330280E+2	1.002397E-2	3.373317E-3	1.414125E-2	9.567839E-3	1.943315E-2	2.074591E-2	1.824985E-2	8.110319E-3	1.447766E-2	1.737214E-2	1.779244E-2	9.454455E-3	1.386992E-2	1.137515E-2	1.544423E-2	2.570358E-2	1.584284E-2	1.093574E-2	-6.174335E-3	8.703187E-3	1.718125E-2	9.455718E-3	1.490888E-2	1.875540E-2	8.060879E-3	1.353805E-2	1.418010E-2	8.152229E-3	2.309513E-2	1.913328E-2	7.206608E-3	9.024307E-3	1.377783E-2	1.203263E-2	6.464051E-3	1.023977E-2	2.377643E-2	1.073731E-2	1.132394E-2	1.300451E-2	1.731484E-2	4.864291E-3	1.161257E-2	9.650325E-3	2.537623E-2	1.690528E-2	1.545548E-2	1.416027E-2	1.228737E-2	1.758168E-2	1.718827E-2	1.737382E-2	5.391893E-3	1.202395E-2	1.187704E-2	1.002037E-2	2.088651E-2	7.786707E-3	1.331732E-2	1.236129E-2	4.460735E-3	1.140579E-2	1.228837E-2	9.388795E-3	6.834920E-3	1.292340E-2	1.053407E-2	8.336328E-3	1.049980E-2	3.482070E-3	1.120217E-2	2.596175E-2	2.244687E-2	-1.999255E-3	1.215505E-2	2.088098E-3	9.918096E-3	1.409784E-2	1.651615E-2	3.947508E-3	4.043027E-3	2.144895E-3	1.084969E-2	6.573975E-3	9.103306E-3	1.548087E-2	1.849682E-2	4.238442E-3	6.123469E-3	8.205170E-3	1.061984E-2	7.621614E-3	1.100688E-2	1.578706E-2	1.963440E-2	1.487158E-2	1.296651E-2	1.252567E-2	5.514114E-3	2.345653E-2	1.197125E-2	1.490924E-2	1.357860E-2	1.508788E-2	1.193980E-2	1.774459E-2	1.677651E-2	2.211774E-2	1.355891E-2	1.890038E-2	1.207434E-2	5.113200E-3	2.651409E-2	1.734549E-2	2.216267E-2	9.373203E-3	1.338936E-2	1.522238E-2	1.860946E-2	1.095274E-2	1.596895E-2	9.788929E-3	1.785597E-2	1.273082E-2	1.565558E-2	1.003535E-2	7.616854E-3	2.139931E-2	-7.321992E-4	3.985971E-3	6.181552E-3	2.658480E-2	1.261027E-2	1.810593E-2	-4.918130E-4	1.804298E-2	1.066660E-2	1.100861E-2	1.639858E-2	2.347364E-2	2.366718E-2	1.034019E-2	2.510339E-2	1.597635E-2	8.522555E-3	1.441050E-2	1.026664E-2	2.337837E-2	1.630859E-2	1.296358E-2	1.559165E-3	1.245659E-2	1.585714E-2	2.148993E-2	6.738456E-3	6.754083E-3	1.336656E-2	1.430214E-2	1.638678E-2	1.614316E-2	1.087767E-2	1.606647E-2	2.600841E-2	2.793839E-2	3.932330E-2
5.331730E+2	1.376513E-2	1.065134E-2	1.085765E-2	1.516982E-2	2.269758E-2	2.310623E-3	1.081938E-2	8.743478E-3	3.381756E-2	5.771624E-3	2.338592E-2	3.000583E-3	1.982159E-2	2.007965E-2	1.544424E-2	1.698948E-2	6.662831E-3	1.374001E-2	2.248117E-2	3.579758E-2	1.831370E-2	1.530747E-2	9.579572E-3	2.173136E-2	1.077294E-2	9.993682E-3	1.487127E-2	1.592486E-2	2.485196E-2	2.177856E-2	1.027763E-2	5.346068E-3	2.638257E-2	3.635143E-3	1.806794E-2	1.573116E-2	9.772835E-3	1.016366E-2	2.354776E-2	1.413504E-2	1.117343E-2	2.077214E-2	2.110710E-2	1.773834E-2	2.429164E-2	3.470622E-2	1.605825E-2	1.357143E-2	2.141591E-2	1.642269E-2	1.368802E-2	2.716871E-2	1.592677E-2	1.038904E-2	2.356663E-2	1.993063E-2	2.764705E-2	1.090178E-2	1.774303E-2	2.332430E-2	2.168180E-2	2.062372E-2	3.685396E-2	1.236950E-2	2.399789E-2	8.568174E-3	2.128094E-2	1.863682E-2	2.082036E-2	8.775188E-3	1.642470E-2	7.755463E-3	1.854111E-2	1.937969E-2	2.323608E-2	1.324696E-2	2.706827E-2	1.129886E-2	2.086045E-2	2.784902E-2	1.496958E-2	1.377275E-2	2.113994E-2	1.428254E-2	1.428036E-2	1.608760E-2	2.373643E-2	3.036021E-2	1.365334E-2	6.953532E-3	1.125916E-2	2.894783E-2	1.156104E-2	8.598516E-3	6.993902E-3	5.416802E-3	1.604770E-2	1.602503E-2	1.645980E-2	1.530114E-2	8.580632E-3	1.207804E-2	2.484872E-3	2.347201E-2	1.687392E-2	2.094639E-3	1.346285E-2	1.961566E-2	1.738695E-2	2.502319E-2	1.450732E-2	1.495896E-2	5.148677E-3	1.257095E-2	1.380728E-2	1.745637E-2	1.466799E-2	1.859799E-2	1.802623E-2	1.801737E-2	1.740756E-2	1.678238E-2	3.249679E-2	2.925067E-2	1.818133E-2	1.610802E-2	2.090771E-2	2.569784E-2	1.150320E-2	8.395868E-3	1.584502E-2	1.388144E-2	2.324390E-2	1.216801E-2	1.273301E-2	2.362168E-2	3.824712E-3	2.563420E-3	1.502714E-2	8.780708E-3	2.419425E-3	1.825999E-2	1.120610E-2	2.141626E-2	1.247922E-2	1.926472E-2	2.180118E-2	2.479009E-2	2.178610E-2	2.595660E-2	1.230876E-2	8.339856E-3	1.769894E-2	3.033783E-2	1.608916E-2	1.531429E-2	1.929029E-2	1.953531E-2	2.101746E-2	2.369441E-2	2.086735E-2	2.647173E-2	8.412517E-3	1.533526E-2	-1.006134E-2
5.333080E+2	4.494156E-2	2.454572E-2	2.399195E-2	2.147205E-2	2.857353E-2	1.801475E-2	5.865729E-3	1.317552E-2	2.508340E-2	1.286083E-2	1.387705E-2	1.414813E-2	3.334799E-2	2.315181E-2	1.816022E-2	1.138758E-2	3.535044E-2	1.542257E-2	2.187145E-2	2.367643E-2	2.907228E-2	3.020285E-2	2.675173E-2	2.351698E-2	3.246949E-2	2.889708E-2	2.385580E-2	2.309965E-2	3.129355E-2	1.913331E-2	2.686104E-2	9.024324E-3	2.041191E-2	1.623137E-2	3.272543E-2	2.328189E-2	2.144250E-2	1.647383E-2	1.539855E-2	2.204866E-2	2.407038E-2	2.331747E-2	2.743684E-2	8.406018E-3	1.941092E-2	5.577428E-3	1.424995E-2	1.710445E-2	2.628455E-2	1.700219E-2	1.835503E-2	8.884848E-3	2.353529E-2	6.029281E-3	2.122872E-2	2.598684E-2	2.273032E-2	1.027876E-2	1.900753E-2	3.235265E-2	3.513578E-2	1.737031E-2	2.164668E-2	3.502297E-2	2.081956E-2	2.972205E-2	1.812007E-2	2.756391E-2	1.292818E-2	2.583077E-2	2.977116E-2	3.258224E-2	1.723918E-2	2.304465E-2	1.150319E-2	2.006625E-2	1.963652E-2	1.857614E-2	2.272226E-2	3.367868E-2	2.893136E-2	2.723658E-2	3.143015E-2	1.498335E-2	2.348412E-2	2.579447E-2	1.383931E-2	2.281395E-2	1.114335E-2	2.447636E-2	1.893177E-2	2.571659E-2	2.042846E-2	1.373320E-2	1.421699E-2	2.243542E-2	2.405880E-2	1.835798E-2	2.330087E-2	2.073807E-2	1.818740E-2	2.113792E-2	1.542762E-2	1.732365E-2	2.365837E-2	2.525658E-2	2.738014E-2	2.524543E-2	2.394936E-2	1.778714E-2	1.754858E-2	2.075056E-2	1.911507E-3	2.092639E-2	1.702089E-2	1.598662E-2	1.722533E-2	2.366142E-2	1.394370E-2	3.214658E-2	3.035533E-2	2.027912E-2	1.594627E-2	1.961406E-2	2.638997E-2	1.113946E-2	3.166696E-2	2.692605E-2	2.557388E-2	7.135864E-3	2.274751E-2	3.327087E-2	2.265313E-2	2.760659E-2	2.658767E-2	1.413794E-2	1.999638E-2	5.161931E-3	1.845577E-2	7.556313E-3	1.472077E-2	1.931596E-2	3.394717E-2	1.355862E-2	3.621931E-2	1.076983E-2	2.396389E-2	3.043695E-2	3.205645E-2	1.420101E-2	1.499619E-2	7.751761E-3	2.076867E-2	2.080930E-2	4.486054E-2	2.255751E-2	1.270835E-2	1.488364E-2	3.623238E-2	3.439184E-2	1.373183E-2	2.887292E-2	1.897006E-2	3.153920E-2	3.351334E-2
5.334580E+2	2.997682E-2	1.925266E-2	2.661878E-2	2.077187E-2	2.726776E-2	2.620818E-2	2.072664E-2	2.710475E-2	2.882659E-2	1.866107E-2	2.114853E-2	2.646909E-2	3.280695E-2	2.007964E-2	1.978986E-2	2.819333E-2	3.764548E-2	3.056558E-2	3.101686E-2	4.078863E-2	3.813212E-2	2.275515E-2	1.313241E-2	2.411218E-2	3.721560E-2	2.298973E-2	2.316472E-2	3.804703E-2	3.539282E-2	3.341773E-2	3.484561E-2	2.802849E-2	5.026531E-2	1.323226E-2	2.417520E-2	3.701047E-2	3.602954E-2	1.590012E-2	2.645822E-2	3.674534E-2	2.591278E-2	2.649905E-2	2.490494E-2	4.386901E-2	2.700314E-2	2.715429E-2	2.630514E-2	3.182551E-2	3.663025E-2	3.206908E-2	2.943910E-2	3.500465E-2	2.587639E-2	1.856361E-2	3.700970E-2	3.864999E-2	3.625145E-2	1.900101E-2	3.102021E-2	2.138967E-2	2.813971E-2	2.279262E-2	3.568423E-2	2.846537E-2	1.891259E-2	2.536686E-2	2.064872E-2	2.962398E-2	3.417642E-2	2.583078E-2	3.673452E-2	2.430662E-2	2.830558E-2	1.388222E-2	3.170986E-2	1.138715E-2	2.020819E-2	2.473381E-2	3.823760E-2	2.201935E-2	1.618366E-2	3.335655E-2	3.593218E-2	4.371531E-2	3.556403E-2	3.125457E-2	2.140771E-2	2.977983E-2	2.055569E-2	2.009570E-2	3.108004E-2	3.993406E-2	1.765741E-2	3.324495E-2	2.324600E-2	2.306572E-2	3.391869E-2	3.352213E-2	3.287839E-2	3.229159E-2	3.005459E-2	2.793281E-2	2.837033E-2	2.403094E-2	1.687395E-2	2.650857E-2	3.003105E-2	2.774750E-2	2.832430E-2	2.557982E-2	1.389903E-2	2.770060E-2	3.557818E-2	2.629773E-2	2.987535E-2	4.023613E-2	3.576583E-2	1.972322E-2	3.085719E-2	3.214655E-2	3.179399E-2	2.377577E-2	3.822577E-2	3.819896E-2	4.091300E-2	2.052456E-2	4.938823E-2	4.289220E-2	3.658572E-2	1.469576E-2	3.241098E-2	2.725346E-2	1.910861E-2	8.011457E-3	3.162571E-2	2.641099E-2	1.813041E-2	2.724923E-2	3.148448E-2	2.102484E-2	3.429103E-2	1.825999E-2	2.952528E-2	3.592279E-2	3.160315E-2	2.593929E-2	4.126567E-2	2.761355E-2	1.767799E-2	2.719404E-2	2.708951E-2	3.362826E-2	2.383833E-2	2.625418E-2	2.328197E-2	2.914225E-2	1.994852E-2	8.487553E-3	4.681665E-2	3.187484E-2	2.372156E-2	1.846771E-2	4.243124E-2	3.333972E-2	-7.156361E-3
5.336080E+2	3.122397E-2	1.792937E-2	4.632018E-2	3.897829E-2	4.946582E-2	3.030494E-2	1.886901E-2	3.723515E-2	4.005624E-2	3.283951E-2	3.345408E-2	2.646908E-2	3.226586E-2	3.595254E-2	3.174031E-2	4.375413E-2	3.362917E-2	2.215279E-2	2.431024E-2	4.292773E-2	4.549317E-2	2.594703E-2	2.793603E-2	3.006411E-2	4.738585E-2	4.307459E-2	4.873635E-2	3.804700E-2	3.597840E-2	4.664419E-2	3.116055E-2	2.496330E-2	3.368003E-2	3.542568E-2	4.860445E-2	4.112898E-2	3.894694E-2	2.622590E-2	2.704029E-2	3.844107E-2	3.635320E-2	4.431593E-2	3.186764E-2	3.951387E-2	4.327221E-2	2.553605E-2	4.499063E-2	3.712500E-2	2.567591E-2	2.279718E-2	3.818977E-2	4.218763E-2	5.279881E-2	3.436771E-2	4.869932E-2	4.745908E-2	4.854337E-2	3.769139E-2	3.544592E-2	3.428728E-2	4.482262E-2	3.146829E-2	4.972166E-2	3.025377E-2	3.734693E-2	3.718809E-2	2.570604E-2	4.198462E-2	3.417639E-2	4.406263E-2	2.861060E-2	3.534078E-2	3.546622E-2	2.548797E-2	3.887998E-2	3.432481E-2	4.307514E-2	3.760901E-2	4.072001E-2	4.592092E-2	3.075240E-2	2.968459E-2	3.143013E-2	3.740829E-2	3.901544E-2	4.763490E-2	4.818823E-2	3.732606E-2	3.561537E-2	3.761857E-2	3.619513E-2	3.024031E-2	2.319952E-2	3.786612E-2	3.889622E-2	1.613220E-2	3.453493E-2	4.518678E-2	3.903536E-2	4.928203E-2	3.514052E-2	2.849903E-2	2.960296E-2	1.620575E-2	3.599370E-2	4.716654E-2	2.009011E-2	3.400276E-2	3.379299E-2	3.281587E-2	4.978607E-2	3.001725E-2	3.039868E-2	3.823400E-2	3.180349E-2	2.260015E-2	4.151977E-2	3.772645E-2	3.610621E-2	2.572419E-2	4.905772E-2	3.659708E-2	2.867742E-2	3.475728E-2	3.523004E-2	3.487831E-2	5.571721E-2	4.227809E-2	3.413868E-2	2.792555E-2	4.621594E-2	2.324182E-2	3.860354E-2	2.226247E-2	3.351498E-2	3.589474E-2	1.813040E-2	2.854852E-2	4.519896E-2	3.816650E-2	4.044167E-2	2.881974E-2	3.900072E-2	3.108725E-2	3.226259E-2	3.686124E-2	5.784650E-2	5.231845E-2	3.547989E-2	3.647472E-2	4.321400E-2	4.244984E-2	2.138260E-2	3.646335E-2	4.270272E-2	2.453290E-2	3.311239E-2	3.523485E-2	4.483215E-2	3.502113E-2	2.657575E-2	3.287490E-2	3.656602E-2	4.954373E-2	5.094326E-2
5.337630E+2	6.551797E-2	4.108670E-2	5.551420E-2	4.738129E-2	5.860622E-2	3.849835E-2	4.859095E-2	4.863187E-2	4.068007E-2	4.186210E-2	3.736949E-2	3.585647E-2	5.715459E-2	4.926531E-2	4.423408E-2	4.499908E-2	7.493926E-2	3.897840E-2	3.345560E-2	6.360484E-2	4.889061E-2	5.414201E-2	4.451605E-2	5.387216E-2	5.552210E-2	4.780048E-2	4.389847E-2	4.103646E-2	5.296084E-2	4.241168E-2	3.177462E-2	5.316304E-2	4.827504E-2	3.722518E-2	6.753699E-2	6.034898E-2	7.687335E-2	3.368339E-2	4.392084E-2	6.500822E-2	4.556529E-2	5.131543E-2	5.338884E-2	4.573546E-2	5.303359E-2	4.171867E-2	4.137407E-2	4.006931E-2	5.549608E-2	4.192050E-2	4.227335E-2	5.263553E-2	5.748093E-2	4.036240E-2	5.454408E-2	4.966152E-2	6.636680E-2	4.579052E-2	4.809083E-2	3.235268E-2	3.944107E-2	4.339739E-2	4.445758E-2	3.979211E-2	3.988954E-2	4.029900E-2	3.771724E-2	5.297181E-2	7.120920E-2	3.524078E-2	3.615421E-2	3.975444E-2	4.783455E-2	5.053182E-2	4.800559E-2	4.734347E-2	4.822029E-2	3.592961E-2	3.265208E-2	5.816317E-2	4.289302E-2	4.008843E-2	4.172041E-2	5.492780E-2	5.454679E-2	3.671466E-2	3.887323E-2	3.036022E-2	5.255752E-2	3.761853E-2	3.491636E-2	4.510398E-2	6.587402E-2	4.556818E-2	4.732327E-2	5.521204E-2	5.117356E-2	3.643825E-2	5.271748E-2	4.520434E-2	5.096344E-2	4.605241E-2	4.377837E-2	4.359396E-2	5.819721E-2	3.402056E-2	3.864650E-2	3.713036E-2	5.457405E-2	4.060858E-2	5.282740E-2	5.781725E-2	3.493071E-2	4.062126E-2	5.237064E-2	5.419793E-2	4.471637E-2	4.391506E-2	4.077196E-2	4.563363E-2	5.265435E-2	3.484872E-2	4.777415E-2	6.504374E-2	5.354176E-2	4.591955E-2	5.445128E-2	6.991180E-2	5.371531E-2	4.430529E-2	4.207443E-2	3.460806E-2	4.392036E-2	3.948245E-2	5.240763E-2	4.426277E-2	4.736388E-2	4.089137E-2	3.559883E-2	4.428857E-2	4.155999E-2	4.677136E-2	5.858327E-2	5.163813E-2	4.545153E-2	4.535613E-2	4.414933E-2	7.208251E-2	6.149801E-2	4.204331E-2	4.791715E-2	2.892347E-2	3.427526E-2	4.599181E-2	5.133417E-2	2.980074E-2	3.442879E-2	4.570129E-2	4.946276E-2	6.333828E-2	5.583126E-2	5.528616E-2	6.706548E-2	6.574781E-2	2.479837E-2
5.339090E+2	7.985920E-2	5.365786E-2	7.061869E-2	7.118990E-2	7.754000E-2	5.693357E-2	8.078949E-2	4.799864E-2	7.187334E-2	6.506326E-2	5.359045E-2	5.287121E-2	7.230393E-2	6.360206E-2	7.085090E-2	6.242735E-2	8.125061E-2	6.758183E-2	6.333049E-2	7.002211E-2	8.003345E-2	5.999377E-2	7.412322E-2	6.160960E-2	6.908250E-2	6.315950E-2	6.532333E-2	7.332275E-2	7.287138E-2	7.415504E-2	6.555576E-2	5.622832E-2	8.011876E-2	6.061822E-2	8.219461E-2	7.819614E-2	9.262720E-2	6.351340E-2	6.895075E-2	7.235645E-2	5.723393E-2	6.276925E-2	6.225047E-2	6.564450E-2	6.279509E-2	6.167737E-2	6.729270E-2	7.834411E-2	6.645020E-2	4.249997E-2	4.577363E-2	6.961346E-2	7.328331E-2	5.671162E-2	6.974037E-2	7.498769E-2	8.173150E-2	5.762801E-2	7.274857E-2	7.362524E-2	6.527259E-2	6.454444E-2	5.381586E-2	7.377215E-2	5.387427E-2	6.705244E-2	6.932554E-2	5.022503E-2	7.181615E-2	6.347064E-2	6.806975E-2	5.520227E-2	6.671252E-2	6.091611E-2	7.016786E-2	6.036211E-2	4.822021E-2	5.272346E-2	6.182098E-2	6.865640E-2	6.171109E-2	6.150828E-2	6.101470E-2	7.244719E-2	7.755609E-2	4.702823E-2	6.332485E-2	5.474067E-2	7.075464E-2	4.888325E-2	7.391860E-2	5.996770E-2	7.252441E-2	5.429711E-2	6.839080E-2	8.105520E-2	7.397441E-2	5.510177E-2	5.750626E-2	7.510765E-2	8.147904E-2	6.077491E-2	7.582702E-2	7.601250E-2	7.978420E-2	5.843456E-2	6.515563E-2	5.964929E-2	6.496463E-2	7.122273E-2	7.350795E-2	7.461290E-2	6.277056E-2	5.017023E-2	4.851440E-2	7.991702E-2	8.051887E-2	6.585647E-2	4.485456E-2	6.490087E-2	6.991817E-2	4.417331E-2	6.814397E-2	7.812203E-2	5.985594E-2	7.076247E-2	7.090661E-2	8.342159E-2	7.390373E-2	6.761491E-2	6.623325E-2	5.734042E-2	7.286761E-2	6.620322E-2	6.185393E-2	6.155656E-2	6.415760E-2	6.232906E-2	6.782795E-2	5.898153E-2	6.224845E-2	5.363516E-2	6.995388E-2	7.339792E-2	5.666215E-2	5.627817E-2	8.091579E-2	7.067071E-2	5.807457E-2	6.307951E-2	6.538518E-2	7.361943E-2	5.023766E-2	5.960396E-2	6.787762E-2	6.140765E-2	5.680740E-2	4.977146E-2	6.666240E-2	7.340648E-2	5.939903E-2	8.330018E-2	5.298884E-2	6.754815E-2	7.708804E-2
5.340640E+2	1.048003E-1	8.210846E-2	1.087083E-1	8.309416E-2	1.023493E-1	7.741732E-2	9.626964E-2	6.889246E-2	1.061862E-1	7.988602E-2	8.826987E-2	7.575292E-2	8.583044E-2	8.664338E-2	7.085102E-2	1.016407E-1	1.151022E-1	9.618564E-2	9.381505E-2	1.063855E-1	9.022605E-2	9.563639E-2	8.774265E-2	7.708476E-2	9.281306E-2	8.265380E-2	1.095552E-1	7.870387E-2	1.144492E-1	8.791040E-2	1.030217E-1	8.626718E-2	1.006843E-1	6.721639E-2	9.502010E-2	9.055178E-2	1.077978E-1	8.531201E-2	9.805513E-2	7.574807E-2	9.408229E-2	1.028570E-1	8.630338E-2	9.301926E-2	7.960641E-2	8.595124E-2	1.010470E-1	1.024865E-1	9.687886E-2	8.074685E-2	7.260880E-2	9.442731E-2	1.025469E-1	8.450495E-2	9.195084E-2	8.820128E-2	1.038571E-1	8.877871E-2	9.487705E-2	8.587801E-2	7.549776E-2	1.025004E-1	8.598510E-2	1.000026E-1	9.646390E-2	7.762943E-2	8.323327E-2	7.906640E-2	1.100631E-1	8.170260E-2	9.128078E-2	7.671894E-2	9.991166E-2	8.107337E-2	8.907080E-2	1.043776E-1	1.071028E-1	7.959329E-2	8.850724E-2	8.089883E-2	9.752592E-2	8.843588E-2	1.034619E-1	9.347088E-2	1.045921E-1	9.616924E-2	8.603004E-2	8.318419E-2	1.178164E-1	8.893550E-2	7.008241E-2	9.551122E-2	9.746382E-2	7.945681E-2	1.105260E-1	1.056375E-1	1.035539E-1	8.309726E-2	9.034335E-2	8.802023E-2	1.057785E-1	9.474947E-2	9.061872E-2	7.657171E-2	9.643687E-2	8.347461E-2	8.172397E-2	8.967442E-2	1.048859E-1	1.001673E-1	9.540525E-2	9.546284E-2	8.672581E-2	9.254423E-2	9.607609E-2	1.078405E-1	9.522311E-2	7.204516E-2	7.693191E-2	1.008661E-1	1.022874E-1	5.874294E-2	1.107933E-1	1.042783E-1	1.015308E-1	1.022304E-1	1.006530E-1	9.815958E-2	1.020450E-1	8.462458E-2	9.039163E-2	9.411347E-2	1.029960E-1	7.926653E-2	9.712042E-2	9.447047E-2	8.965887E-2	8.831418E-2	9.319960E-2	1.128554E-1	9.412009E-2	8.109047E-2	1.040652E-1	9.878445E-2	9.886681E-2	9.025775E-2	9.749648E-2	8.478797E-2	8.683173E-2	8.906544E-2	8.688446E-2	8.126443E-2	8.584626E-2	8.682825E-2	9.233375E-2	7.721100E-2	9.169168E-2	9.861470E-2	1.023844E-1	9.857689E-2	9.008187E-2	1.073125E-1	8.818057E-2	1.143598E-1	7.418309E-2
5.342090E+2	1.590470E-1	1.198220E-1	1.402304E-1	1.307108E-1	1.695967E-1	1.265782E-1	1.105116E-1	1.094140E-1	1.373794E-1	1.378887E-1	1.330172E-1	1.203429E-1	1.247867E-1	1.183892E-1	1.382081E-1	1.408539E-1	1.971485E-1	1.730221E-1	1.730749E-1	1.441748E-1	1.644030E-1	1.525579E-1	1.434042E-1	1.491036E-1	1.538346E-1	1.588579E-1	1.475670E-1	1.510492E-1	1.454866E-1	1.424030E-1	1.484725E-1	1.451187E-1	1.849370E-1	1.235993E-1	1.463212E-1	1.653721E-1	1.883185E-1	1.426774E-1	1.289058E-1	1.531884E-1	1.561106E-1	1.340367E-1	1.496006E-1	1.384373E-1	1.750510E-1	1.517608E-1	1.577063E-1	1.554826E-1	1.571275E-1	1.381169E-1	1.408639E-1	1.375247E-1	1.657559E-1	1.177480E-1	1.468924E-1	1.421570E-1	1.487227E-1	1.161912E-1	1.252249E-1	1.593946E-1	1.508398E-1	1.350345E-1	1.485689E-1	1.554440E-1	1.333328E-1	1.379803E-1	1.426571E-1	1.525435E-1	1.640942E-1	1.352218E-1	1.168132E-1	1.285791E-1	1.279033E-1	1.256636E-1	1.327430E-1	1.223557E-1	1.259680E-1	1.204576E-1	1.362944E-1	1.514373E-1	1.309125E-1	1.227076E-1	1.439795E-1	1.929817E-1	1.667171E-1	1.313569E-1	1.355158E-1	1.331060E-1	1.648776E-1	1.264848E-1	1.180361E-1	1.129601E-1	1.351507E-1	1.318305E-1	1.622921E-1	1.415660E-1	1.263548E-1	1.110920E-1	1.224960E-1	1.525839E-1	1.730258E-1	1.270249E-1	1.368426E-1	1.408497E-1	1.581138E-1	1.492047E-1	1.446828E-1	1.234528E-1	1.513696E-1	1.268848E-1	1.325086E-1	1.568538E-1	1.326936E-1	1.283530E-1	1.423517E-1	1.585440E-1	1.310258E-1	1.339315E-1	1.235897E-1	1.516026E-1	1.648681E-1	1.071141E-1	1.343459E-1	1.586562E-1	1.356285E-1	1.248650E-1	1.512845E-1	1.706212E-1	1.601631E-1	1.180141E-1	1.545846E-1	1.422527E-1	1.650254E-1	1.249886E-1	1.210508E-1	1.374266E-1	1.425280E-1	1.136497E-1	1.370860E-1	1.483632E-1	1.422073E-1	1.085460E-1	1.533376E-1	1.549967E-1	1.179902E-1	1.212036E-1	1.486807E-1	1.814900E-1	1.450302E-1	1.175265E-1	1.406328E-1	1.441917E-1	1.189989E-1	1.337903E-1	1.570691E-1	1.516189E-1	1.397399E-1	1.207101E-1	1.705208E-1	1.583571E-1	1.578690E-1	1.441305E-1	1.163341E-1	1.647724E-1	1.990974E-1
5.343600E+2	2.338707E-1	1.806926E-1	2.150956E-1	2.091384E-1	2.407610E-1	1.934912E-1	1.947233E-1	1.955222E-1	2.134911E-1	2.004024E-1	2.264279E-1	1.749073E-1	2.146017E-1	2.105544E-1	2.213182E-1	2.093213E-1	3.337013E-1	2.577111E-1	2.730644E-1	3.095935E-1	2.810480E-1	2.334187E-1	2.186062E-1	2.139806E-1	2.616392E-1	2.445140E-1	2.394867E-1	2.216006E-1	2.708058E-1	1.990117E-1	2.547293E-1	2.474959E-1	2.731706E-1	2.261690E-1	2.440381E-1	2.449980E-1	2.758406E-1	2.270042E-1	2.552187E-1	2.323240E-1	2.617424E-1	2.282117E-1	1.951745E-1	2.292718E-1	2.276548E-1	2.094787E-1	2.463114E-1	2.449864E-1	2.271134E-1	2.151894E-1	2.207859E-1	2.446157E-1	2.593990E-1	1.934990E-1	1.907279E-1	1.928095E-1	2.679543E-1	1.915759E-1	2.169004E-1	2.213035E-1	2.337162E-1	2.169112E-1	2.251901E-1	2.657301E-1	2.108838E-1	2.350392E-1	2.273668E-1	2.486811E-1	2.490871E-1	1.910936E-1	2.247456E-1	2.196109E-1	2.398691E-1	2.246172E-1	2.363834E-1	2.103869E-1	2.122904E-1	2.044265E-1	1.983555E-1	2.447118E-1	2.383575E-1	2.114467E-1	2.179412E-1	2.511461E-1	2.489752E-1	2.132584E-1	2.077063E-1	2.526853E-1	2.263716E-1	1.946984E-1	2.145829E-1	2.299308E-1	2.332464E-1	1.898522E-1	2.405430E-1	2.348535E-1	2.372781E-1	1.968277E-1	2.127987E-1	2.572453E-1	2.685286E-1	2.142265E-1	1.910790E-1	2.258090E-1	2.530956E-1	2.136824E-1	2.169207E-1	2.116518E-1	2.137125E-1	2.220673E-1	2.304371E-1	2.228785E-1	2.162128E-1	2.047451E-1	2.342612E-1	2.526026E-1	2.614482E-1	1.958174E-1	2.239044E-1	2.505075E-1	2.353620E-1	1.828762E-1	2.381047E-1	2.522689E-1	2.303434E-1	2.098831E-1	2.740666E-1	2.522940E-1	2.360221E-1	2.049527E-1	2.657146E-1	2.278332E-1	2.678167E-1	1.986187E-1	2.048084E-1	2.289167E-1	2.426680E-1	2.006995E-1	2.234870E-1	2.267254E-1	2.148969E-1	2.199511E-1	2.417750E-1	2.426405E-1	2.136103E-1	2.201080E-1	2.726769E-1	2.513698E-1	2.573189E-1	2.208519E-1	2.561914E-1	2.130000E-1	1.981970E-1	2.032121E-1	2.505762E-1	2.161497E-1	2.029268E-1	2.166517E-1	2.505648E-1	2.370153E-1	2.270832E-1	2.225703E-1	2.606207E-1	2.223871E-1	2.717217E-1
5.345110E+2	4.377643E-1	3.454403E-1	3.621995E-1	3.540899E-1	4.039822E-1	3.280006E-1	3.835811E-1	3.550757E-1	3.881736E-1	3.557203E-1	3.718573E-1	3.456405E-1	4.023486E-1	3.651874E-1	3.663534E-1	3.867153E-1	5.637764E-1	4.383057E-1	4.693849E-1	4.500561E-1	4.809301E-1	3.892885E-1	4.282257E-1	4.258711E-1	4.792828E-1	4.282315E-1	4.516618E-1	3.920009E-1	4.581988E-1	3.878840E-1	4.543445E-1	4.179200E-1	4.662216E-1	3.785239E-1	4.700084E-1	4.227831E-1	4.549699E-1	3.778749E-1	3.966661E-1	4.137716E-1	3.864130E-1	3.904724E-1	4.148162E-1	4.121859E-1	3.838373E-1	3.901843E-1	4.711400E-1	4.316494E-1	4.206393E-1	3.687559E-1	3.952152E-1	4.248424E-1	4.841428E-1	3.662544E-1	3.958807E-1	3.954192E-1	4.590941E-1	3.330003E-1	3.547301E-1	4.096092E-1	4.113088E-1	3.784955E-1	4.199602E-1	4.511308E-1	3.914129E-1	3.725389E-1	4.069023E-1	4.450777E-1	4.427496E-1	3.798818E-1	3.796799E-1	4.116049E-1	4.358091E-1	3.907618E-1	3.589278E-1	3.827292E-1	4.003711E-1	3.706842E-1	4.279818E-1	4.213495E-1	3.876871E-1	3.515931E-1	4.012361E-1	4.319475E-1	4.192448E-1	3.564347E-1	4.033201E-1	3.838746E-1	4.359519E-1	3.580370E-1	4.057576E-1	3.824453E-1	3.806672E-1	3.675115E-1	4.217246E-1	4.138645E-1	3.765488E-1	3.508016E-1	3.954550E-1	4.325870E-1	4.527526E-1	3.648465E-1	3.648813E-1	4.097012E-1	4.368918E-1	3.839540E-1	3.859160E-1	4.049388E-1	3.996480E-1	3.434104E-1	4.427183E-1	4.267443E-1	3.774253E-1	4.064683E-1	3.975125E-1	4.326363E-1	4.410995E-1	3.454694E-1	3.685436E-1	4.296926E-1	4.346139E-1	3.064270E-1	3.787837E-1	4.436238E-1	4.267199E-1	3.986897E-1	4.215317E-1	4.543266E-1	3.785648E-1	3.555203E-1	4.079058E-1	4.391111E-1	4.450440E-1	3.779435E-1	3.842887E-1	3.862350E-1	4.410821E-1	3.819452E-1	4.237185E-1	3.914081E-1	3.982981E-1	3.598678E-1	4.477078E-1	4.185317E-1	3.698992E-1	3.469246E-1	4.593917E-1	4.285395E-1	4.531398E-1	3.860491E-1	4.469983E-1	3.911948E-1	3.768528E-1	3.760865E-1	4.383097E-1	3.596972E-1	3.628676E-1	3.887651E-1	4.463743E-1	4.339758E-1	4.261635E-1	4.170677E-1	4.107719E-1	4.114339E-1	4.750699E-1
5.346620E+2	7.370577E-1	5.743678E-1	6.426165E-1	6.152835E-1	6.788464E-1	5.819973E-1	5.860610E-1	5.519842E-1	6.670421E-1	5.645296E-1	6.045437E-1	5.955793E-1	6.068679E-1	5.812627E-1	6.314364E-1	6.350669E-1	8.122105E-1	6.929330E-1	7.114328E-1	7.202870E-1	7.951918E-1	6.499579E-1	6.994276E-1	6.669262E-1	7.925267E-1	6.385314E-1	7.156710E-1	6.377356E-1	7.714975E-1	6.227843E-1	7.399475E-1	6.784617E-1	7.269413E-1	6.436456E-1	7.246828E-1	6.692104E-1	7.257052E-1	5.981566E-1	6.492920E-1	6.590935E-1	6.308405E-1	5.966386E-1	6.312933E-1	6.324296E-1	6.533608E-1	6.086502E-1	7.273125E-1	7.060496E-1	7.517024E-1	5.785330E-1	6.308988E-1	7.193427E-1	7.235182E-1	6.234804E-1	6.074628E-1	6.327148E-1	6.797342E-1	5.822062E-1	5.994092E-1	6.578892E-1	6.281866E-1	6.203305E-1	7.007098E-1	7.056843E-1	6.310591E-1	6.363404E-1	6.389068E-1	7.060235E-1	7.037995E-1	6.315989E-1	6.141138E-1	6.085642E-1	6.434670E-1	6.491418E-1	6.209618E-1	6.121055E-1	5.958837E-1	6.097144E-1	6.762265E-1	6.656116E-1	6.705639E-1	5.896588E-1	6.308371E-1	7.458971E-1	6.936308E-1	6.076002E-1	6.163989E-1	6.369655E-1	7.158110E-1	5.996024E-1	6.436085E-1	6.105710E-1	6.400385E-1	5.616018E-1	6.378177E-1	6.710357E-1	6.211964E-1	5.642655E-1	6.259989E-1	6.643369E-1	7.019635E-1	5.828496E-1	6.342135E-1	6.578714E-1	6.971670E-1	5.792658E-1	6.099183E-1	6.426384E-1	6.419104E-1	5.593793E-1	6.939265E-1	6.670966E-1	5.865470E-1	5.920778E-1	6.783817E-1	7.045245E-1	6.846835E-1	6.532125E-1	6.099983E-1	6.596136E-1	7.467992E-1	4.999118E-1	6.563225E-1	7.189558E-1	6.325677E-1	5.847362E-1	6.962093E-1	7.374188E-1	6.654849E-1	6.182258E-1	6.280940E-1	6.838188E-1	7.049763E-1	5.816146E-1	5.939969E-1	6.406218E-1	6.780593E-1	5.235638E-1	6.513786E-1	6.154746E-1	6.197222E-1	5.805670E-1	6.852263E-1	6.856926E-1	5.974083E-1	5.987378E-1	7.592889E-1	7.144104E-1	7.085282E-1	6.137360E-1	7.076766E-1	6.429034E-1	5.505972E-1	6.115767E-1	6.699198E-1	5.974074E-1	6.221967E-1	5.719260E-1	7.149512E-1	6.907161E-1	6.644891E-1	6.739961E-1	6.559417E-1	7.067070E-1	8.265717E-1
5.348070E+2	1.089975E+0	8.476244E-1	1.026794E+0	9.240931E-1	1.073188E+0	9.247565E-1	9.235282E-1	8.584281E-1	9.870860E-1	9.441246E-1	9.356753E-1	9.194442E-1	9.385374E-1	8.966720E-1	9.747417E-1	1.032181E+0	1.143266E+0	1.039539E+0	1.105902E+0	1.148805E+0	1.117948E+0	9.569099E-1	1.029846E+0	9.698824E-1	1.155267E+0	9.953331E-1	1.110994E+0	9.498365E-1	1.177320E+0	9.899470E-1	1.053804E+0	1.042606E+0	1.067270E+0	8.871732E-1	1.056310E+0	1.077635E+0	1.113722E+0	9.010455E-1	9.845749E-1	1.001639E+0	1.028188E+0	9.714293E-1	1.020572E+0	9.783484E-1	9.955531E-1	9.662844E-1	1.026883E+0	1.103517E+0	1.021300E+0	8.792912E-1	1.020593E+0	1.073919E+0	1.072340E+0	8.583621E-1	1.003156E+0	9.432360E-1	1.060169E+0	9.448009E-1	9.585249E-1	1.033856E+0	9.763750E-1	9.597654E-1	1.052232E+0	1.060389E+0	9.527061E-1	9.262726E-1	9.796439E-1	1.048001E+0	1.041950E+0	9.362468E-1	9.495152E-1	9.710343E-1	9.793645E-1	9.563870E-1	9.468759E-1	9.636097E-1	9.497496E-1	9.259964E-1	1.061625E+0	1.066691E+0	9.601183E-1	9.072829E-1	1.015434E+0	1.071760E+0	1.059480E+0	9.115462E-1	9.552300E-1	9.196607E-1	1.041477E+0	8.449227E-1	9.754480E-1	9.563135E-1	9.199162E-1	8.727631E-1	9.911511E-1	1.054270E+0	9.280845E-1	8.803786E-1	1.031674E+0	1.134631E+0	1.009380E+0	9.310885E-1	9.466881E-1	9.764681E-1	1.053657E+0	8.828756E-1	9.054947E-1	9.034822E-1	9.667511E-1	9.273060E-1	1.080777E+0	1.062664E+0	9.555859E-1	8.427396E-1	1.060801E+0	1.146893E+0	1.077231E+0	8.675635E-1	9.949269E-1	1.008349E+0	1.089915E+0	7.493443E-1	9.637798E-1	1.058301E+0	1.034791E+0	9.275694E-1	1.084174E+0	1.151309E+0	9.732049E-1	9.445609E-1	9.946163E-1	1.078293E+0	1.091329E+0	9.272008E-1	9.668120E-1	9.502380E-1	9.934069E-1	9.224340E-1	9.366390E-1	9.197403E-1	9.630407E-1	8.582880E-1	1.129308E+0	1.055004E+0	9.825247E-1	9.009135E-1	1.080814E+0	1.074397E+0	1.044025E+0	9.645473E-1	1.018072E+0	9.534220E-1	9.085233E-1	8.967520E-1	1.035317E+0	9.266455E-1	8.663863E-1	9.615080E-1	1.120462E+0	1.068905E+0	9.977169E-1	9.453325E-1	9.926102E-1	1.113608E+0	1.099640E+0
5.349580E+2	1.552633E+0	1.312756E+0	1.402435E+0	1.372252E+0	1.566117E+0	1.503762E+0	1.312389E+0	1.237685E+0	1.466215E+0	1.479036E+0	1.297009E+0	1.365930E+0	1.375165E+0	1.373372E+0	1.371279E+0	1.552535E+0	1.504730E+0	1.450644E+0	1.463793E+0	1.570193E+0	1.597548E+0	1.564962E+0	1.392828E+0	1.465684E+0	1.619706E+0	1.477369E+0	1.515302E+0	1.412011E+0	1.586656E+0	1.374571E+0	1.560520E+0	1.518935E+0	1.560848E+0	1.317846E+0	1.530847E+0	1.514203E+0	1.625433E+0	1.311208E+0	1.472946E+0	1.467980E+0	1.453787E+0	1.343675E+0	1.445930E+0	1.372796E+0	1.373536E+0	1.341184E+0	1.518733E+0	1.528664E+0	1.442431E+0	1.240896E+0	1.429539E+0	1.510774E+0	1.573332E+0	1.291069E+0	1.389497E+0	1.349558E+0	1.447365E+0	1.298051E+0	1.332182E+0	1.378224E+0	1.397753E+0	1.301914E+0	1.461074E+0	1.570691E+0	1.299145E+0	1.360549E+0	1.356413E+0	1.523199E+0	1.446880E+0	1.383221E+0	1.304647E+0	1.387576E+0	1.477350E+0	1.377857E+0	1.333410E+0	1.394465E+0	1.344776E+0	1.326245E+0	1.419097E+0	1.491089E+0	1.347405E+0	1.333841E+0	1.369165E+0	1.621173E+0	1.506437E+0	1.325303E+0	1.389538E+0	1.407847E+0	1.484482E+0	1.246072E+0	1.414061E+0	1.341479E+0	1.358298E+0	1.254781E+0	1.459455E+0	1.464610E+0	1.360685E+0	1.300892E+0	1.448298E+0	1.553960E+0	1.476156E+0	1.312733E+0	1.376881E+0	1.343134E+0	1.478611E+0	1.312937E+0	1.343558E+0	1.321333E+0	1.353934E+0	1.263504E+0	1.520544E+0	1.506885E+0	1.314915E+0	1.231863E+0	1.507495E+0	1.510635E+0	1.553528E+0	1.217503E+0	1.384522E+0	1.443789E+0	1.566826E+0	1.059969E+0	1.451382E+0	1.457529E+0	1.359983E+0	1.309047E+0	1.536062E+0	1.567041E+0	1.395936E+0	1.299877E+0	1.449489E+0	1.531601E+0	1.604699E+0	1.243098E+0	1.337108E+0	1.368637E+0	1.463630E+0	1.275182E+0	1.451618E+0	1.367874E+0	1.347734E+0	1.231047E+0	1.556964E+0	1.497452E+0	1.308949E+0	1.188526E+0	1.581843E+0	1.531083E+0	1.486335E+0	1.272670E+0	1.485685E+0	1.372739E+0	1.246190E+0	1.284699E+0	1.455378E+0	1.312511E+0	1.385044E+0	1.324340E+0	1.596093E+0	1.428217E+0	1.448683E+0	1.468794E+0	1.443065E+0	1.434087E+0	1.642873E+0
5.351090E+2	2.000325E+0	1.648869E+0	1.796462E+0	1.750388E+0	1.921282E+0	1.954400E+0	1.685769E+0	1.639101E+0	1.866113E+0	1.848966E+0	1.660585E+0	1.713854E+0	1.763105E+0	1.702094E+0	1.756410E+0	1.860020E+0	1.751442E+0	1.735558E+0	1.827779E+0	2.003704E+0	1.949187E+0	1.995334E+0	1.771801E+0	1.764471E+0	2.002109E+0	1.968858E+0	1.901639E+0	1.718131E+0	1.916939E+0	1.808924E+0	1.923514E+0	1.877564E+0	1.931690E+0	1.650146E+0	1.802012E+0	1.861534E+0	2.024535E+0	1.734563E+0	1.771557E+0	1.733646E+0	1.813675E+0	1.670105E+0	1.778873E+0	1.729912E+0	1.735797E+0	1.673468E+0	1.854469E+0	1.909644E+0	1.749153E+0	1.590913E+0	1.771979E+0	1.837270E+0	1.940879E+0	1.597887E+0	1.720314E+0	1.668887E+0	1.792768E+0	1.605818E+0	1.688771E+0	1.740003E+0	1.689436E+0	1.649482E+0	1.753519E+0	1.913470E+0	1.684994E+0	1.683458E+0	1.736982E+0	1.938652E+0	1.857881E+0	1.682576E+0	1.692276E+0	1.771010E+0	1.802834E+0	1.748017E+0	1.719292E+0	1.705053E+0	1.676918E+0	1.669953E+0	1.763542E+0	1.911987E+0	1.694627E+0	1.643512E+0	1.758262E+0	1.996788E+0	1.865382E+0	1.579500E+0	1.671315E+0	1.678352E+0	1.875406E+0	1.568995E+0	1.710100E+0	1.703378E+0	1.698031E+0	1.551567E+0	1.776069E+0	1.854147E+0	1.643540E+0	1.548182E+0	1.713727E+0	1.881532E+0	1.902810E+0	1.633226E+0	1.596289E+0	1.647198E+0	1.832018E+0	1.558955E+0	1.666972E+0	1.662240E+0	1.648696E+0	1.574654E+0	1.821631E+0	1.840484E+0	1.682659E+0	1.564287E+0	1.794147E+0	1.966966E+0	1.829719E+0	1.537620E+0	1.648136E+0	1.811146E+0	1.935118E+0	1.615364E+0	1.745472E+0	1.804449E+0	1.751471E+0	1.646358E+0	1.833528E+0	1.943475E+0	1.729965E+0	1.551872E+0	1.726969E+0	1.794364E+0	1.860492E+0	1.551872E+0	1.609792E+0	1.682719E+0	1.838687E+0	1.551923E+0	1.691619E+0	1.684994E+0	1.675958E+0	1.490288E+0	1.861444E+0	1.823848E+0	1.680878E+0	1.539851E+0	1.951669E+0	1.922131E+0	1.835524E+0	1.646990E+0	1.876028E+0	1.643265E+0	1.543338E+0	1.557622E+0	1.778335E+0	1.633847E+0	1.582504E+0	1.634263E+0	1.881871E+0	1.786267E+0	1.799745E+0	1.781750E+0	1.768002E+0	1.867995E+0	2.026328E+0
5.352500E+2	2.217939E+0	1.829496E+0	2.062432E+0	1.924748E+0	2.159588E+0	2.229563E+0	1.951408E+0	1.762565E+0	2.044542E+0	2.108687E+0	1.864745E+0	1.895146E+0	1.938946E+0	1.979612E+0	1.950878E+0	2.031810E+0	1.869639E+0	1.895402E+0	1.987517E+0	2.252543E+0	2.113392E+0	2.226212E+0	1.966618E+0	1.998388E+0	2.246878E+0	2.201016E+0	2.102758E+0	1.889130E+0	2.104333E+0	1.959706E+0	2.040826E+0	2.074347E+0	2.187102E+0	1.991447E+0	2.108596E+0	2.129241E+0	2.181493E+0	2.137264E+0	1.980529E+0	1.990273E+0	2.040905E+0	2.091982E+0	1.961172E+0	1.885452E+0	1.899570E+0	1.894631E+0	2.086532E+0	2.150480E+0	2.051611E+0	1.790257E+0	1.934160E+0	2.028598E+0	2.090710E+0	2.049122E+0	1.951183E+0	1.878104E+0	2.055816E+0	2.000186E+0	1.855052E+0	1.959909E+0	1.881557E+0	1.940119E+0	1.992157E+0	2.124505E+0	1.885230E+0	1.873841E+0	1.929159E+0	2.183804E+0	2.040011E+0	1.904302E+0	1.866939E+0	1.880799E+0	1.991612E+0	1.907442E+0	1.904409E+0	1.883596E+0	1.900441E+0	1.790869E+0	1.963377E+0	2.041407E+0	1.875519E+0	1.797733E+0	1.996222E+0	2.089293E+0	2.052909E+0	1.851292E+0	1.884978E+0	1.870493E+0	2.000277E+0	1.771757E+0	1.921093E+0	1.842319E+0	1.870392E+0	1.689175E+0	1.997579E+0	2.058375E+0	1.903592E+0	1.737151E+0	1.950431E+0	2.084739E+0	2.063865E+0	1.782717E+0	1.847750E+0	1.905432E+0	2.084275E+0	1.754266E+0	1.854521E+0	1.931217E+0	1.860881E+0	1.745537E+0	2.086828E+0	2.086046E+0	1.822503E+0	1.720059E+0	2.055092E+0	2.143324E+0	2.097600E+0	1.767161E+0	1.879092E+0	2.012811E+0	2.145160E+0	1.745325E+0	1.996276E+0	1.993740E+0	1.904278E+0	1.809773E+0	2.022128E+0	2.159017E+0	1.898200E+0	1.785600E+0	1.969244E+0	2.141369E+0	2.107432E+0	1.756731E+0	1.820763E+0	1.891357E+0	2.007869E+0	1.753307E+0	1.946026E+0	1.846617E+0	1.842024E+0	1.682478E+0	2.030741E+0	2.028752E+0	1.887946E+0	1.710963E+0	2.153520E+0	2.150123E+0	2.033398E+0	1.852404E+0	2.072884E+0	1.776766E+0	1.718308E+0	1.786307E+0	2.040161E+0	1.738548E+0	1.862894E+0	1.814515E+0	2.138544E+0	1.987629E+0	1.922479E+0	1.979451E+0	2.034286E+0	2.071447E+0	2.148337E+0
5.354110E+2	2.324560E+0	1.939329E+0	2.051922E+0	1.966063E+0	2.277109E+0	2.249364E+0	1.923547E+0	1.802450E+0	2.139366E+0	2.224690E+0	1.965427E+0	1.941493E+0	1.977363E+0	1.998558E+0	1.985102E+0	2.094053E+0	1.910369E+0	1.911667E+0	1.993617E+0	2.186947E+0	2.136042E+0	2.134179E+0	2.057215E+0	2.007315E+0	2.270604E+0	2.192152E+0	2.138006E+0	1.878369E+0	2.169332E+0	2.004143E+0	2.212185E+0	2.093967E+0	2.197720E+0	1.996246E+0	2.107376E+0	2.100412E+0	2.269015E+0	2.095963E+0	2.083557E+0	1.998754E+0	1.970895E+0	2.081166E+0	1.956105E+0	1.938958E+0	1.988504E+0	1.967451E+0	2.110641E+0	2.239395E+0	2.013880E+0	1.928757E+0	2.004162E+0	2.096508E+0	2.160943E+0	2.085089E+0	1.949432E+0	1.942521E+0	2.085313E+0	2.115444E+0	1.923964E+0	1.901224E+0	1.905777E+0	1.948794E+0	2.016724E+0	2.231214E+0	1.918920E+0	1.916148E+0	1.909562E+0	2.180368E+0	2.067935E+0	2.211301E+0	1.846049E+0	1.921077E+0	2.011793E+0	2.096799E+0	1.957861E+0	1.900955E+0	1.930739E+0	1.824460E+0	2.062676E+0	2.093871E+0	1.863990E+0	1.914014E+0	1.975000E+0	2.118027E+0	2.083971E+0	1.966563E+0	1.901856E+0	1.905902E+0	2.091889E+0	1.973270E+0	1.959455E+0	1.860415E+0	1.894222E+0	1.809327E+0	2.064395E+0	2.114471E+0	1.830878E+0	1.734233E+0	1.978476E+0	2.184640E+0	2.079687E+0	1.878977E+0	1.853295E+0	1.929463E+0	2.093523E+0	1.781182E+0	1.873077E+0	1.883678E+0	1.863068E+0	1.751660E+0	2.108117E+0	2.052457E+0	1.827036E+0	1.743332E+0	2.033240E+0	2.266775E+0	2.063713E+0	1.752536E+0	1.877927E+0	2.064831E+0	2.140124E+0	1.839153E+0	2.025558E+0	2.038481E+0	1.956688E+0	1.855040E+0	2.044914E+0	2.227793E+0	1.911043E+0	1.805756E+0	1.969933E+0	2.072501E+0	2.057806E+0	1.764449E+0	1.871142E+0	1.945474E+0	2.002270E+0	1.774743E+0	1.979626E+0	1.837432E+0	1.840347E+0	1.691452E+0	2.101490E+0	2.088592E+0	1.895197E+0	1.724310E+0	2.170103E+0	2.041419E+0	2.138841E+0	1.869108E+0	2.084303E+0	1.820285E+0	1.656914E+0	1.848241E+0	2.074682E+0	1.799784E+0	1.874083E+0	1.843005E+0	2.202708E+0	2.038602E+0	1.908924E+0	2.021875E+0	2.000269E+0	2.075048E+0	2.218058E+0
5.355630E+2	2.177410E+0	1.733558E+0	1.908105E+0	1.778398E+0	2.169378E+0	2.088224E+0	1.876486E+0	1.676456E+0	1.881711E+0	1.975926E+0	1.791472E+0	1.805379E+0	1.803684E+0	1.812182E+0	1.863422E+0	1.993841E+0	1.806520E+0	1.766965E+0	1.862532E+0	2.015110E+0	1.955413E+0	2.052786E+0	1.884901E+0	1.821016E+0	2.088220E+0	2.077552E+0	1.900257E+0	1.788084E+0	2.002437E+0	1.905212E+0	1.959133E+0	2.009366E+0	2.072336E+0	1.935058E+0	1.940035E+0	1.924687E+0	2.114977E+0	1.973199E+0	1.853048E+0	1.823525E+0	1.885531E+0	1.930360E+0	1.883313E+0	1.817638E+0	1.783520E+0	1.833673E+0	1.921377E+0	2.049200E+0	1.897646E+0	1.759544E+0	1.857152E+0	2.003131E+0	1.984191E+0	1.923232E+0	1.797465E+0	1.851678E+0	1.886185E+0	1.895521E+0	1.756419E+0	1.828997E+0	1.793838E+0	1.846313E+0	1.931329E+0	2.045814E+0	1.779072E+0	1.819711E+0	1.753417E+0	2.001139E+0	1.948340E+0	2.030745E+0	1.746821E+0	1.764390E+0	1.929771E+0	1.990517E+0	1.831407E+0	1.787503E+0	1.720364E+0	1.784153E+0	1.913104E+0	1.913153E+0	1.716478E+0	1.874233E+0	1.882389E+0	1.983477E+0	1.937285E+0	2.023593E+0	1.779605E+0	1.797932E+0	1.928113E+0	1.889411E+0	1.843090E+0	1.684633E+0	1.780609E+0	1.711766E+0	1.910903E+0	2.007319E+0	1.796982E+0	1.772727E+0	1.892280E+0	1.950175E+0	1.976272E+0	1.918048E+0	1.691821E+0	1.803145E+0	1.880742E+0	1.782437E+0	1.804155E+0	1.734806E+0	1.770645E+0	1.758341E+0	1.965786E+0	1.959787E+0	1.761644E+0	1.625161E+0	1.849420E+0	2.074982E+0	1.963339E+0	1.654643E+0	1.757783E+0	1.948586E+0	2.024314E+0	1.626438E+0	1.897609E+0	1.962076E+0	1.789357E+0	1.754012E+0	1.954407E+0	2.069364E+0	1.767893E+0	1.723227E+0	1.854663E+0	1.952822E+0	1.987509E+0	1.628469E+0	1.745190E+0	1.850635E+0	1.837447E+0	1.600644E+0	1.821221E+0	1.724177E+0	1.688821E+0	1.567906E+0	1.977047E+0	1.953200E+0	1.779137E+0	1.605987E+0	2.017272E+0	2.013893E+0	1.949866E+0	1.738560E+0	1.942542E+0	1.716778E+0	1.600432E+0	1.728456E+0	1.922198E+0	1.739863E+0	1.743759E+0	1.679033E+0	1.987715E+0	1.999590E+0	1.898215E+0	1.830576E+0	1.866540E+0	1.925610E+0	1.991469E+0
5.357040E+2	1.915527E+0	1.613801E+0	1.665777E+0	1.655152E+0	1.843588E+0	1.832866E+0	1.604033E+0	1.508670E+0	1.735103E+0	1.721359E+0	1.573887E+0	1.589468E+0	1.628923E+0	1.628362E+0	1.664068E+0	1.746108E+0	1.641854E+0	1.568425E+0	1.566220E+0	1.770549E+0	1.753264E+0	1.830421E+0	1.581129E+0	1.632934E+0	1.895661E+0	1.837125E+0	1.793826E+0	1.494519E+0	1.809187E+0	1.662905E+0	1.789002E+0	1.778864E+0	1.823555E+0	1.695734E+0	1.747048E+0	1.752394E+0	1.827319E+0	1.755786E+0	1.681915E+0	1.631339E+0	1.682246E+0	1.701919E+0	1.597845E+0	1.665832E+0	1.589372E+0	1.654051E+0	1.735724E+0	1.774795E+0	1.747938E+0	1.573528E+0	1.650638E+0	1.771973E+0	1.894059E+0	1.721594E+0	1.670048E+0	1.636954E+0	1.771255E+0	1.727931E+0	1.561686E+0	1.593618E+0	1.576421E+0	1.576826E+0	1.676314E+0	1.756089E+0	1.584560E+0	1.620619E+0	1.623191E+0	1.803373E+0	1.747394E+0	1.816082E+0	1.562873E+0	1.616532E+0	1.731227E+0	1.732134E+0	1.572629E+0	1.549450E+0	1.540290E+0	1.579271E+0	1.722581E+0	1.736514E+0	1.541047E+0	1.603119E+0	1.673369E+0	1.830005E+0	1.767019E+0	1.800331E+0	1.542653E+0	1.580250E+0	1.760578E+0	1.718562E+0	1.685164E+0	1.539230E+0	1.557260E+0	1.506381E+0	1.689993E+0	1.746364E+0	1.571441E+0	1.649080E+0	1.646004E+0	1.778912E+0	1.780750E+0	1.803102E+0	1.549450E+0	1.584037E+0	1.734569E+0	1.794955E+0	1.525145E+0	1.584054E+0	1.550256E+0	1.663713E+0	1.776619E+0	1.750714E+0	1.618562E+0	1.481333E+0	1.665604E+0	1.842781E+0	1.729984E+0	1.672082E+0	1.576984E+0	1.818210E+0	1.740179E+0	1.728425E+0	1.690729E+0	1.745941E+0	1.657389E+0	1.638632E+0	1.791122E+0	1.815747E+0	1.608219E+0	1.532342E+0	1.641377E+0	1.745555E+0	1.776607E+0	1.507335E+0	1.571379E+0	1.579512E+0	1.695008E+0	1.453829E+0	1.658706E+0	1.463992E+0	1.576988E+0	1.432738E+0	1.744579E+0	1.732578E+0	1.574049E+0	1.448228E+0	1.808928E+0	1.861425E+0	1.775955E+0	1.522010E+0	1.782638E+0	1.537996E+0	1.438965E+0	1.544691E+0	1.730148E+0	1.502156E+0	1.540379E+0	1.520876E+0	1.820349E+0	1.744107E+0	1.711978E+0	1.656890E+0	1.682369E+0	1.779774E+0	1.854934E+0
5.358600E+2	1.626833E+0	1.378921E+0	1.495029E+0	1.352645E+0	1.647727E+0	1.659439E+0	1.416417E+0	1.295301E+0	1.502399E+0	1.520927E+0	1.396576E+0	1.409934E+0	1.414126E+0	1.374906E+0	1.465796E+0	1.579920E+0	1.410634E+0	1.365958E+0	1.397945E+0	1.639356E+0	1.500723E+0	1.562832E+0	1.408817E+0	1.433544E+0	1.597334E+0	1.591381E+0	1.566448E+0	1.382115E+0	1.541565E+0	1.431708E+0	1.594302E+0	1.555720E+0	1.554211E+0	1.461202E+0	1.527793E+0	1.527246E+0	1.642940E+0	1.580249E+0	1.449663E+0	1.400147E+0	1.456859E+0	1.468392E+0	1.399721E+0	1.423813E+0	1.418005E+0	1.416703E+0	1.503062E+0	1.578125E+0	1.481379E+0	1.420540E+0	1.437707E+0	1.579990E+0	1.491979E+0	1.560283E+0	1.401771E+0	1.407917E+0	1.430771E+0	1.536042E+0	1.394142E+0	1.395637E+0	1.411208E+0	1.512842E+0	1.503771E+0	1.575456E+0	1.391950E+0	1.444543E+0	1.417104E+0	1.544485E+0	1.477845E+0	1.533782E+0	1.364997E+0	1.431710E+0	1.524223E+0	1.565381E+0	1.371868E+0	1.346112E+0	1.361925E+0	1.344718E+0	1.476198E+0	1.538891E+0	1.408107E+0	1.418297E+0	1.427047E+0	1.634486E+0	1.516215E+0	1.578286E+0	1.344711E+0	1.343995E+0	1.542839E+0	1.515173E+0	1.427490E+0	1.304639E+0	1.445866E+0	1.336423E+0	1.490154E+0	1.547812E+0	1.446959E+0	1.380212E+0	1.453082E+0	1.541040E+0	1.525883E+0	1.566980E+0	1.422489E+0	1.442067E+0	1.570506E+0	1.587125E+0	1.367417E+0	1.295060E+0	1.353934E+0	1.389857E+0	1.539401E+0	1.532366E+0	1.376420E+0	1.373903E+0	1.490140E+0	1.606162E+0	1.458272E+0	1.532559E+0	1.393852E+0	1.469475E+0	1.509278E+0	1.591470E+0	1.428466E+0	1.502273E+0	1.430071E+0	1.420565E+0	1.501889E+0	1.627839E+0	1.389207E+0	1.352167E+0	1.450867E+0	1.501517E+0	1.591112E+0	1.485961E+0	1.395674E+0	1.424983E+0	1.420089E+0	1.457726E+0	1.475618E+0	1.367259E+0	1.377372E+0	1.314470E+0	1.555069E+0	1.558502E+0	1.395995E+0	1.284396E+0	1.568868E+0	1.570617E+0	1.582874E+0	1.345059E+0	1.509197E+0	1.329219E+0	1.244963E+0	1.298990E+0	1.465449E+0	1.336877E+0	1.346212E+0	1.346434E+0	1.623880E+0	1.515052E+0	1.436548E+0	1.457588E+0	1.515794E+0	1.565520E+0	1.526673E+0
5.360070E+2	1.406729E+0	1.147346E+0	1.269119E+0	1.178983E+0	1.346092E+0	1.411585E+0	1.104336E+0	1.067367E+0	1.269697E+0	1.294074E+0	1.237162E+0	1.199306E+0	1.206358E+0	1.159345E+0	1.175726E+0	1.266214E+0	1.181134E+0	1.186485E+0	1.202234E+0	1.327059E+0	1.329153E+0	1.327701E+0	1.196828E+0	1.177013E+0	1.450882E+0	1.298967E+0	1.284468E+0	1.126215E+0	1.287999E+0	1.219557E+0	1.303168E+0	1.295177E+0	1.313394E+0	1.232670E+0	1.282889E+0	1.234829E+0	1.305102E+0	1.292849E+0	1.192963E+0	1.224351E+0	1.211817E+0	1.245681E+0	1.173751E+0	1.237167E+0	1.209763E+0	1.179358E+0	1.301741E+0	1.327867E+0	1.195353E+0	1.165562E+0	1.250443E+0	1.243697E+0	1.338052E+0	1.281802E+0	1.219415E+0	1.184936E+0	1.256225E+0	1.253194E+0	1.202573E+0	1.201525E+0	1.163653E+0	1.197806E+0	1.278586E+0	1.333423E+0	1.168834E+0	1.167674E+0	1.168660E+0	1.339848E+0	1.264146E+0	1.322056E+0	1.132303E+0	1.168547E+0	1.226081E+0	1.278292E+0	1.160676E+0	1.170050E+0	1.126968E+0	1.136478E+0	1.287528E+0	1.241581E+0	1.197467E+0	1.201040E+0	1.249537E+0	1.356278E+0	1.330991E+0	1.319840E+0	1.162488E+0	1.157661E+0	1.288079E+0	1.267348E+0	1.167903E+0	1.037095E+0	1.189818E+0	1.141304E+0	1.233729E+0	1.285598E+0	1.175813E+0	1.176080E+0	1.235539E+0	1.299099E+0	1.302103E+0	1.342745E+0	1.224031E+0	1.174333E+0	1.313315E+0	1.355506E+0	1.138112E+0	1.168079E+0	1.143936E+0	1.172777E+0	1.279066E+0	1.263058E+0	1.188663E+0	1.133387E+0	1.292181E+0	1.374692E+0	1.269029E+0	1.294016E+0	1.206054E+0	1.294788E+0	1.317220E+0	1.291919E+0	1.185301E+0	1.228317E+0	1.142136E+0	1.226236E+0	1.299992E+0	1.374220E+0	1.214852E+0	1.237506E+0	1.215496E+0	1.321662E+0	1.292190E+0	1.282884E+0	1.157627E+0	1.251485E+0	1.221676E+0	1.292721E+0	1.226700E+0	1.098504E+0	1.149239E+0	1.122812E+0	1.280281E+0	1.231498E+0	1.174422E+0	1.234640E+0	1.381432E+0	1.360974E+0	1.274766E+0	1.305460E+0	1.295549E+0	1.133381E+0	1.080425E+0	1.283338E+0	1.315838E+0	1.149870E+0	1.142827E+0	1.192930E+0	1.368535E+0	1.317463E+0	1.227480E+0	1.189455E+0	1.338662E+0	1.353068E+0	1.363994E+0
5.362630E+2	1.067528E+0	8.926165E-1	9.427345E-1	9.142894E-1	1.003330E+0	9.629925E-1	8.597501E-1	8.305696E-1	9.621310E-1	9.757031E-1	8.445020E-1	8.631202E-1	8.757717E-1	9.038405E-1	9.057538E-1	1.001681E+0	9.304038E-1	8.589454E-1	9.339704E-1	1.051836E+0	1.004134E+0	9.478668E-1	9.262189E-1	9.425036E-1	1.056276E+0	1.018372E+0	9.665499E-1	8.601523E-1	1.029749E+0	9.232861E-1	9.407911E-1	9.678157E-1	9.903146E-1	9.417570E-1	9.475996E-1	9.726116E-1	1.016279E+0	9.939771E-1	8.972621E-1	8.981975E-1	9.317692E-1	9.262508E-1	9.268917E-1	8.769375E-1	8.735351E-1	8.756635E-1	9.611823E-1	1.034624E+0	9.427943E-1	9.204356E-1	9.144187E-1	9.994771E-1	1.022590E+0	9.837046E-1	8.441776E-1	8.474368E-1	9.237283E-1	9.111578E-1	8.674812E-1	9.280957E-1	8.741250E-1	9.857944E-1	9.568937E-1	1.000775E+0	8.834188E-1	9.082295E-1	9.082097E-1	1.035640E+0	9.375301E-1	1.014469E+0	8.357805E-1	8.915906E-1	9.396553E-1	9.649366E-1	8.836486E-1	8.873572E-1	8.754320E-1	8.756144E-1	9.468134E-1	9.751649E-1	9.273381E-1	9.213584E-1	9.131766E-1	9.736503E-1	9.898748E-1	9.600807E-1	8.993402E-1	8.772853E-1	9.473540E-1	9.932415E-1	8.814586E-1	9.369265E-1	9.182544E-1	8.799502E-1	8.978524E-1	9.729591E-1	9.139105E-1	8.815448E-1	9.160601E-1	1.004825E+0	9.890365E-1	1.082274E+0	8.123300E-1	9.222509E-1	9.975323E-1	1.008702E+0	8.816370E-1	8.703291E-1	8.661265E-1	9.150597E-1	9.585173E-1	9.896907E-1	9.186817E-1	8.988400E-1	9.663216E-1	1.002866E+0	9.685450E-1	9.969614E-1	9.482683E-1	9.094443E-1	1.100705E+0	9.777974E-1	8.816636E-1	9.729491E-1	9.482855E-1	8.712584E-1	9.803801E-1	1.056126E+0	9.316042E-1	9.647203E-1	9.200689E-1	1.016782E+0	9.920837E-1	1.026364E+0	8.773866E-1	9.312705E-1	9.623077E-1	1.011434E+0	9.284104E-1	8.774978E-1	8.746948E-1	8.941910E-1	1.025078E+0	9.987907E-1	8.981152E-1	8.924182E-1	1.035396E+0	1.041927E+0	1.019376E+0	1.010951E+0	9.992607E-1	8.652064E-1	8.397621E-1	9.757027E-1	9.540376E-1	8.581641E-1	8.795504E-1	9.458073E-1	1.077464E+0	1.004090E+0	9.106640E-1	9.613404E-1	9.714947E-1	9.353628E-1	1.119975E+0
5.365090E+2	7.869402E-1	6.603803E-1	6.990937E-1	6.986128E-1	7.630681E-1	7.970753E-1	7.049486E-1	6.412582E-1	7.075933E-1	7.030915E-1	6.705466E-1	6.706785E-1	7.139972E-1	7.031262E-1	7.031392E-1	7.371458E-1	7.232794E-1	6.671338E-1	7.364302E-1	7.438158E-1	7.402669E-1	7.414586E-1	6.887688E-1	7.014485E-1	7.721858E-1	7.820791E-1	7.564475E-1	6.819800E-1	7.785247E-1	7.005552E-1	7.761851E-1	7.379262E-1	7.806773E-1	6.868327E-1	6.752138E-1	7.275568E-1	7.869708E-1	7.054296E-1	7.162326E-1	6.907478E-1	7.358586E-1	7.576269E-1	6.907926E-1	6.778469E-1	6.869838E-1	7.154555E-1	7.387646E-1	7.508019E-1	7.322281E-1	6.863191E-1	6.979868E-1	7.885605E-1	7.703398E-1	7.471880E-1	7.132540E-1	6.448272E-1	6.926405E-1	7.373368E-1	6.638980E-1	7.268919E-1	6.959943E-1	7.163050E-1	7.498409E-1	7.682791E-1	6.596641E-1	6.948247E-1	7.198242E-1	7.795002E-1	7.499383E-1	7.374611E-1	6.680800E-1	7.282846E-1	7.209313E-1	7.584794E-1	6.398651E-1	6.703796E-1	6.593397E-1	6.556173E-1	6.985684E-1	7.355673E-1	6.760274E-1	6.698298E-1	7.240924E-1	7.753297E-1	7.344726E-1	7.987041E-1	6.687959E-1	6.572825E-1	7.572253E-1	7.604372E-1	6.864470E-1	6.816584E-1	6.998935E-1	6.971573E-1	7.299133E-1	7.693653E-1	7.037726E-1	6.925768E-1	7.210899E-1	7.887064E-1	7.624298E-1	7.776365E-1	6.175727E-1	6.908487E-1	7.687118E-1	8.021213E-1	6.695639E-1	6.720381E-1	6.687070E-1	6.745995E-1	7.316386E-1	7.586046E-1	6.467588E-1	6.899550E-1	7.240150E-1	7.640455E-1	7.575666E-1	7.927373E-1	7.143955E-1	7.289756E-1	7.770106E-1	7.924702E-1	7.199782E-1	7.602555E-1	7.317031E-1	7.498037E-1	7.443093E-1	8.147930E-1	7.003555E-1	7.146151E-1	7.350827E-1	7.587024E-1	7.616890E-1	7.532205E-1	6.676778E-1	6.763257E-1	7.309283E-1	7.145541E-1	6.822354E-1	6.662876E-1	6.918525E-1	6.650448E-1	7.964041E-1	7.237726E-1	6.739039E-1	7.316220E-1	8.299384E-1	7.722911E-1	8.105464E-1	7.801704E-1	7.594094E-1	6.805415E-1	6.316371E-1	7.334061E-1	8.044264E-1	6.632552E-1	6.524734E-1	7.300843E-1	7.691957E-1	7.838474E-1	7.137240E-1	7.356275E-1	7.274986E-1	7.787245E-1	8.207629E-1
5.367760E+2	6.185872E-1	5.558419E-1	6.196316E-1	6.453938E-1	6.174750E-1	6.352551E-1	5.216639E-1	5.184273E-1	5.728383E-1	5.703298E-1	5.458130E-1	5.738712E-1	5.327433E-1	5.648779E-1	5.352895E-1	5.908739E-1	6.228728E-1	5.987098E-1	5.651072E-1	6.589676E-1	6.111644E-1	6.738974E-1	5.898808E-1	5.722900E-1	6.372610E-1	6.834273E-1	6.493240E-1	5.582159E-1	5.911314E-1	5.778148E-1	6.134225E-1	6.116403E-1	6.599373E-1	5.866623E-1	6.281875E-1	5.827208E-1	6.311812E-1	6.463436E-1	5.928300E-1	5.929580E-1	5.829376E-1	5.839121E-1	5.363476E-1	5.546597E-1	5.508664E-1	5.449982E-1	6.115827E-1	6.471657E-1	5.703482E-1	5.460814E-1	5.620604E-1	5.874378E-1	6.509446E-1	6.022262E-1	5.723938E-1	5.545338E-1	5.783250E-1	5.952891E-1	5.741192E-1	5.372962E-1	5.167878E-1	5.525515E-1	5.720326E-1	6.407048E-1	5.554149E-1	5.716342E-1	5.459786E-1	6.462808E-1	5.927015E-1	6.151311E-1	5.253308E-1	5.407045E-1	5.712097E-1	6.051620E-1	5.798970E-1	5.544514E-1	5.587247E-1	5.464579E-1	5.676195E-1	6.009024E-1	5.582627E-1	6.153622E-1	5.684525E-1	6.505907E-1	6.326561E-1	6.167001E-1	5.348935E-1	5.353807E-1	5.990986E-1	6.089895E-1	6.058848E-1	5.614566E-1	5.530274E-1	5.605746E-1	5.914693E-1	6.300647E-1	5.688159E-1	5.811793E-1	6.006869E-1	6.113266E-1	6.279352E-1	6.468347E-1	5.510103E-1	5.404934E-1	6.373410E-1	6.381100E-1	5.449709E-1	5.556902E-1	5.538648E-1	5.833141E-1	6.695968E-1	6.149725E-1	5.379890E-1	5.813346E-1	6.096109E-1	6.552904E-1	6.469629E-1	6.633392E-1	5.324299E-1	6.255753E-1	6.439361E-1	6.374490E-1	5.996690E-1	6.191482E-1	6.167820E-1	5.913606E-1	6.025405E-1	6.729402E-1	5.896253E-1	5.690870E-1	5.859895E-1	6.323365E-1	6.364486E-1	6.225861E-1	5.732152E-1	5.552686E-1	5.990670E-1	6.508904E-1	5.862346E-1	5.671106E-1	5.487099E-1	5.668389E-1	6.138444E-1	6.258530E-1	5.235501E-1	5.647579E-1	6.396181E-1	6.402959E-1	6.140411E-1	6.520961E-1	6.270544E-1	5.593925E-1	4.904315E-1	6.360787E-1	5.864828E-1	5.407786E-1	5.504533E-1	5.428526E-1	6.659986E-1	6.026188E-1	5.867121E-1	5.835514E-1	5.585773E-1	6.544934E-1	6.319394E-1
5.370230E+2	5.674580E-1	4.473331E-1	4.764681E-1	5.480590E-1	5.450048E-1	5.348848E-1	5.098988E-1	4.551126E-1	5.341585E-1	5.451955E-1	4.893193E-1	5.028789E-1	4.964926E-1	4.798813E-1	4.864012E-1	4.844377E-1	5.155811E-1	5.084122E-1	5.218189E-1	5.890928E-1	5.477460E-1	5.627136E-1	5.152711E-1	4.978904E-1	5.674248E-1	5.392881E-1	5.359791E-1	4.810874E-1	5.501388E-1	5.328450E-1	5.298913E-1	5.484976E-1	5.398605E-1	5.404762E-1	5.658930E-1	5.250608E-1	5.938382E-1	5.121091E-1	5.049341E-1	4.923430E-1	5.037134E-1	5.310981E-1	5.091295E-1	4.862228E-1	5.053128E-1	4.824254E-1	5.115249E-1	5.441183E-1	5.660881E-1	4.910295E-1	4.757209E-1	5.397693E-1	5.532048E-1	5.133964E-1	4.701096E-1	5.165448E-1	5.058029E-1	5.641388E-1	5.140558E-1	4.773222E-1	4.769640E-1	5.183911E-1	5.515612E-1	5.638020E-1	4.931199E-1	5.106614E-1	4.606362E-1	5.494555E-1	5.095301E-1	5.739623E-1	4.968975E-1	4.744992E-1	5.171800E-1	5.715667E-1	4.795156E-1	5.098160E-1	4.815490E-1	4.686472E-1	5.074201E-1	5.536824E-1	4.890615E-1	5.425353E-1	5.009228E-1	5.721035E-1	5.314151E-1	5.718059E-1	4.749282E-1	4.825567E-1	5.313300E-1	5.051039E-1	5.227651E-1	5.200965E-1	4.931719E-1	5.164172E-1	5.102087E-1	5.374079E-1	4.831584E-1	4.756140E-1	5.138054E-1	5.664719E-1	5.245208E-1	5.743555E-1	4.992393E-1	4.901889E-1	5.516105E-1	5.736321E-1	4.687569E-1	5.031460E-1	5.183183E-1	4.931412E-1	5.175329E-1	5.674808E-1	5.107972E-1	4.971842E-1	5.356973E-1	5.627015E-1	5.951775E-1	5.255018E-1	4.851887E-1	5.574978E-1	6.050923E-1	5.599385E-1	5.366503E-1	5.007553E-1	4.968092E-1	5.146234E-1	5.468457E-1	6.090758E-1	5.113186E-1	5.287676E-1	4.990182E-1	5.694881E-1	5.844623E-1	5.857707E-1	4.850495E-1	4.894401E-1	5.269167E-1	5.320095E-1	5.108052E-1	5.028296E-1	4.810526E-1	4.966164E-1	5.677307E-1	5.194725E-1	5.228907E-1	5.137886E-1	5.740160E-1	5.746514E-1	5.914464E-1	5.277347E-1	5.679311E-1	5.023463E-1	4.621903E-1	5.428357E-1	5.785704E-1	4.788815E-1	4.839757E-1	5.050576E-1	5.482484E-1	5.384339E-1	5.403312E-1	5.067128E-1	5.093094E-1	5.050564E-1	5.506005E-1
5.372640E+2	5.674582E-1	4.393934E-1	5.033931E-1	4.850372E-1	5.384762E-1	5.396644E-1	4.752233E-1	4.595450E-1	4.917358E-1	4.962157E-1	4.501652E-1	4.289533E-1	4.726859E-1	4.829536E-1	4.858582E-1	4.732340E-1	5.218920E-1	4.876606E-1	5.126730E-1	5.156526E-1	5.284939E-1	5.371787E-1	5.034277E-1	4.788440E-1	5.382703E-1	4.914394E-1	5.200833E-1	4.745100E-1	5.050473E-1	5.063921E-1	5.151503E-1	5.245888E-1	5.577723E-1	5.140838E-1	5.365777E-1	4.900531E-1	5.827521E-1	5.362025E-1	4.705913E-1	4.827334E-1	5.135400E-1	5.100996E-1	4.692522E-1	4.663137E-1	4.993475E-1	4.872807E-1	5.398548E-1	5.282195E-1	4.894077E-1	4.690085E-1	4.809712E-1	5.338925E-1	5.180884E-1	5.439146E-1	4.771236E-1	4.565320E-1	4.984278E-1	5.323650E-1	4.818113E-1	4.676486E-1	4.570519E-1	4.717591E-1	4.995056E-1	5.435332E-1	4.740493E-1	5.137720E-1	4.366140E-1	5.480829E-1	5.058872E-1	5.486731E-1	4.614999E-1	4.849815E-1	5.223874E-1	5.068188E-1	4.560498E-1	4.750998E-1	4.563952E-1	4.602504E-1	5.279007E-1	5.192876E-1	4.878474E-1	4.819478E-1	4.848443E-1	5.524819E-1	5.055299E-1	5.620992E-1	4.516409E-1	4.964889E-1	5.476447E-1	5.063558E-1	4.907960E-1	4.645188E-1	4.599192E-1	4.763667E-1	4.963637E-1	5.336255E-1	4.825423E-1	5.036087E-1	4.871250E-1	5.236556E-1	5.183048E-1	5.545375E-1	4.844473E-1	4.750974E-1	5.361911E-1	5.072762E-1	4.946032E-1	4.681166E-1	4.685533E-1	4.781124E-1	5.108426E-1	5.159356E-1	4.648287E-1	4.428741E-1	5.061322E-1	5.751936E-1	5.280483E-1	5.525069E-1	4.927707E-1	5.131834E-1	5.461085E-1	5.628530E-1	4.971839E-1	5.255358E-1	5.024922E-1	4.715627E-1	5.000110E-1	5.722309E-1	5.082602E-1	5.098678E-1	5.135138E-1	5.186743E-1	5.366110E-1	5.323299E-1	4.793818E-1	5.095237E-1	5.294041E-1	5.404544E-1	5.032623E-1	4.550776E-1	4.816117E-1	4.659932E-1	5.304606E-1	5.230994E-1	4.635404E-1	5.083277E-1	5.646443E-1	5.400647E-1	5.476267E-1	5.394903E-1	5.168703E-1	4.817632E-1	4.167584E-1	5.319456E-1	5.411673E-1	5.039042E-1	4.708116E-1	4.806361E-1	5.621404E-1	5.472436E-1	4.825345E-1	5.579382E-1	4.999238E-1	5.806763E-1	5.651247E-1
5.375060E+2	6.073643E-1	4.916631E-1	5.703778E-1	5.382555E-1	5.665503E-1	5.314712E-1	6.015414E-1	4.557458E-1	5.135713E-1	5.387509E-1	5.497287E-1	4.905584E-1	4.910819E-1	4.983143E-1	5.499559E-1	5.479261E-1	5.316461E-1	5.140210E-1	5.321838E-1	5.976488E-1	5.443489E-1	6.052719E-1	5.277055E-1	4.937239E-1	6.114960E-1	5.587831E-1	5.594774E-1	5.127752E-1	5.700495E-1	5.132699E-1	5.286625E-1	5.399150E-1	5.803284E-1	5.404760E-1	5.634500E-1	5.511451E-1	6.072584E-1	5.534119E-1	5.020243E-1	4.765155E-1	5.473175E-1	5.107362E-1	5.040658E-1	5.247965E-1	5.199548E-1	5.093969E-1	5.241829E-1	5.570726E-1	5.265310E-1	5.269580E-1	4.990558E-1	5.267098E-1	5.549604E-1	5.444594E-1	4.806302E-1	4.774542E-1	5.488249E-1	5.466948E-1	5.020436E-1	5.121454E-1	4.651246E-1	5.129689E-1	5.345992E-1	5.268409E-1	5.465158E-1	5.069283E-1	5.206921E-1	5.618163E-1	5.022450E-1	5.651407E-1	4.661421E-1	5.048432E-1	5.022075E-1	5.330842E-1	5.290546E-1	5.191150E-1	5.027009E-1	4.999957E-1	5.285215E-1	5.297810E-1	4.811700E-1	5.535509E-1	5.279346E-1	5.475762E-1	5.400433E-1	5.839398E-1	4.807503E-1	5.115808E-1	5.495273E-1	5.401496E-1	5.266014E-1	5.078178E-1	4.710039E-1	4.850956E-1	5.300721E-1	5.084125E-1	4.997972E-1	5.181897E-1	5.172259E-1	5.311317E-1	5.301722E-1	5.267919E-1	5.035536E-1	4.941011E-1	5.565446E-1	5.611115E-1	5.045445E-1	4.918867E-1	4.734753E-1	4.931414E-1	5.278734E-1	5.454726E-1	5.133866E-1	4.942001E-1	5.678338E-1	5.597624E-1	5.817522E-1	5.761360E-1	5.114336E-1	5.067609E-1	5.705650E-1	5.774222E-1	5.296480E-1	5.386136E-1	5.277491E-1	5.229046E-1	5.322887E-1	6.090753E-1	5.211070E-1	5.508175E-1	5.556187E-1	5.735001E-1	5.549245E-1	5.608316E-1	4.913469E-1	5.195651E-1	5.250500E-1	5.625416E-1	4.964052E-1	5.303787E-1	5.039777E-1	4.802491E-1	5.601501E-1	5.357921E-1	4.912373E-1	5.186428E-1	5.790623E-1	5.922978E-1	5.606357E-1	5.537206E-1	5.571818E-1	4.947010E-1	4.701715E-1	5.019993E-1	5.102384E-1	5.190489E-1	4.754194E-1	5.108722E-1	5.634631E-1	5.384336E-1	5.424723E-1	5.635409E-1	4.893668E-1	5.860769E-1	6.842279E-1
5.377690E+2	6.684698E-1	5.194517E-1	6.524670E-1	6.187846E-1	6.546897E-1	6.700770E-1	7.136175E-1	5.127291E-1	5.896829E-1	5.877309E-1	6.252397E-1	5.457088E-1	5.311202E-1	5.904795E-1	6.194863E-1	6.095473E-1	5.953326E-1	5.886143E-1	6.199790E-1	6.454207E-1	6.287180E-1	6.749609E-1	6.331075E-1	5.824082E-1	6.352266E-1	6.450293E-1	6.963200E-1	5.480516E-1	6.151408E-1	5.762274E-1	6.447466E-1	6.116400E-1	6.320743E-1	5.980591E-1	6.428449E-1	5.991948E-1	6.644393E-1	5.798003E-1	6.027253E-1	5.754355E-1	6.302265E-1	5.979116E-1	6.123041E-1	5.571484E-1	5.877424E-1	5.865342E-1	6.260493E-1	6.253784E-1	5.746078E-1	5.640458E-1	5.684775E-1	5.861322E-1	6.802085E-1	6.300201E-1	5.478455E-1	5.181964E-1	6.330247E-1	6.482458E-1	5.810739E-1	5.914668E-1	5.603789E-1	5.834588E-1	5.661836E-1	6.436851E-1	5.649496E-1	6.008760E-1	5.187954E-1	6.194993E-1	5.835950E-1	6.727676E-1	5.543445E-1	5.716000E-1	5.913895E-1	6.473090E-1	5.688162E-1	5.451526E-1	5.329993E-1	5.251862E-1	5.812734E-1	6.195576E-1	5.971131E-1	6.018981E-1	5.967509E-1	6.667095E-1	6.280544E-1	6.512813E-1	5.430440E-1	5.562777E-1	5.990985E-1	6.058604E-1	5.950149E-1	5.633951E-1	5.513644E-1	5.816274E-1	6.004979E-1	6.445625E-1	5.620370E-1	5.555170E-1	5.897414E-1	6.432686E-1	6.279352E-1	6.394739E-1	5.584061E-1	5.723534E-1	6.231555E-1	6.449961E-1	5.124969E-1	5.294182E-1	5.713644E-1	5.899934E-1	6.026887E-1	6.126555E-1	5.910790E-1	5.562688E-1	5.871155E-1	6.369197E-1	6.092428E-1	5.992029E-1	5.551752E-1	6.217214E-1	6.755867E-1	6.508531E-1	6.022155E-1	6.026275E-1	5.997331E-1	6.415988E-1	6.031734E-1	6.502192E-1	5.810606E-1	5.564874E-1	5.894406E-1	6.410284E-1	6.535808E-1	6.380245E-1	5.751041E-1	5.959932E-1	6.351421E-1	6.372484E-1	5.924061E-1	5.842526E-1	5.928825E-1	5.399118E-1	6.125810E-1	6.095335E-1	5.835598E-1	5.853890E-1	7.145931E-1	6.282964E-1	6.578611E-1	6.688020E-1	6.418347E-1	5.811526E-1	4.990267E-1	6.040902E-1	5.749741E-1	5.585576E-1	5.228092E-1	6.097212E-1	6.686448E-1	5.818531E-1	5.952752E-1	5.963574E-1	6.371724E-1	6.923029E-1	7.132787E-1
5.380160E+2	7.464111E-1	6.054650E-1	7.680485E-1	7.014136E-1	7.500102E-1	7.567907E-1	7.897796E-1	6.273290E-1	6.732807E-1	6.779569E-1	7.242436E-1	6.225683E-1	6.517758E-1	6.616519E-1	7.422501E-1	6.805044E-1	7.043453E-1	6.446993E-1	7.120426E-1	7.595020E-1	7.278095E-1	7.563537E-1	7.213366E-1	6.502610E-1	7.437094E-1	7.330487E-1	7.599034E-1	6.526831E-1	7.305050E-1	6.582308E-1	7.252065E-1	7.127916E-1	7.514875E-1	6.370476E-1	7.472797E-1	7.234385E-1	7.718002E-1	7.197712E-1	7.732772E-1	6.494842E-1	6.670745E-1	7.277200E-1	7.294041E-1	7.114433E-1	6.880681E-1	6.377790E-1	7.218875E-1	7.696445E-1	7.097113E-1	6.179390E-1	7.359059E-1	7.010591E-1	7.334682E-1	6.970514E-1	7.623504E-1	6.431755E-1	6.969427E-1	6.719200E-1	7.163747E-1	6.753011E-1	6.610139E-1	6.718423E-1	7.305394E-1	7.032998E-1	6.151674E-1	6.649601E-1	6.844229E-1	7.176974E-1	6.825509E-1	7.386372E-1	6.558936E-1	6.389081E-1	6.838264E-1	7.218296E-1	6.144436E-1	6.381427E-1	6.433322E-1	6.309864E-1	7.134633E-1	7.274060E-1	6.232152E-1	6.796214E-1	6.900060E-1	6.982438E-1	6.959318E-1	6.961753E-1	6.425974E-1	6.329025E-1	7.139290E-1	6.753258E-1	6.442475E-1	6.325435E-1	6.400385E-1	6.360548E-1	6.799532E-1	7.101156E-1	6.692629E-1	6.307540E-1	6.451540E-1	7.275411E-1	7.386958E-1	6.983628E-1	6.594826E-1	6.165099E-1	7.045686E-1	7.633098E-1	6.735399E-1	6.395108E-1	6.424571E-1	6.495516E-1	7.200814E-1	7.076383E-1	6.487010E-1	6.302736E-1	6.693840E-1	7.743329E-1	7.403053E-1	7.449164E-1	6.560735E-1	7.244795E-1	7.324130E-1	7.371053E-1	6.817845E-1	6.914225E-1	6.496163E-1	6.841078E-1	6.829186E-1	7.546127E-1	6.911792E-1	6.812253E-1	6.874561E-1	7.192550E-1	7.085208E-1	7.716275E-1	6.544531E-1	6.590319E-1	7.296844E-1	7.067585E-1	6.445208E-1	6.307795E-1	6.174851E-1	6.397014E-1	6.877523E-1	7.467411E-1	6.541200E-1	6.387850E-1	7.758701E-1	7.645264E-1	7.345465E-1	7.356228E-1	6.881931E-1	6.258482E-1	5.990982E-1	7.163907E-1	7.828476E-1	6.296726E-1	6.412842E-1	6.265836E-1	7.242126E-1	7.328769E-1	7.065884E-1	7.068132E-1	6.911332E-1	7.715234E-1	7.655673E-1
5.382690E+2	8.916928E-1	7.291915E-1	8.842867E-1	8.442645E-1	8.525135E-1	9.001760E-1	9.130018E-1	7.102709E-1	8.217615E-1	8.506759E-1	8.853349E-1	7.440175E-1	7.664798E-1	7.917070E-1	8.590383E-1	7.782270E-1	7.737693E-1	8.123949E-1	7.955703E-1	8.771486E-1	8.767303E-1	9.122247E-1	9.102309E-1	7.984659E-1	9.152478E-1	8.925459E-1	9.243913E-1	7.465523E-1	8.892036E-1	8.243541E-1	8.842851E-1	8.764725E-1	8.695744E-1	8.631801E-1	8.657614E-1	8.305209E-1	9.060013E-1	8.677735E-1	8.803809E-1	8.032345E-1	8.359633E-1	8.518021E-1	8.433393E-1	7.686816E-1	8.030360E-1	8.039208E-1	8.924680E-1	8.514935E-1	8.180370E-1	7.888901E-1	8.753324E-1	8.283929E-1	8.376460E-1	8.153096E-1	8.652189E-1	7.587952E-1	8.444455E-1	8.301660E-1	8.674816E-1	8.145959E-1	7.998589E-1	8.090263E-1	8.878755E-1	8.577009E-1	7.353086E-1	7.669961E-1	8.696476E-1	8.900593E-1	8.519303E-1	8.950781E-1	8.415837E-1	7.735244E-1	7.996983E-1	8.745360E-1	8.517088E-1	7.435321E-1	8.034013E-1	8.218743E-1	8.686160E-1	8.498280E-1	7.622259E-1	7.934524E-1	8.199208E-1	8.636280E-1	8.270848E-1	8.454184E-1	7.450619E-1	7.484183E-1	8.306409E-1	8.411676E-1	7.957812E-1	7.540384E-1	7.314833E-1	7.413151E-1	8.400668E-1	8.664347E-1	7.524556E-1	8.092239E-1	8.100234E-1	8.709405E-1	8.432395E-1	9.152334E-1	7.494654E-1	7.663061E-1	8.470419E-1	8.503236E-1	7.908432E-1	7.639902E-1	7.966744E-1	7.686687E-1	8.587637E-1	8.425833E-1	7.723612E-1	7.591853E-1	8.056411E-1	8.897017E-1	8.681706E-1	8.163669E-1	7.377244E-1	8.580652E-1	8.626100E-1	8.822194E-1	7.995482E-1	8.270234E-1	7.519095E-1	8.033540E-1	8.639271E-1	9.050629E-1	7.768269E-1	7.990333E-1	8.234346E-1	8.155331E-1	8.644804E-1	8.802917E-1	7.451380E-1	7.694894E-1	8.242266E-1	8.542235E-1	7.713800E-1	7.403642E-1	7.209285E-1	7.326271E-1	8.482036E-1	8.470772E-1	7.556751E-1	8.014013E-1	9.272606E-1	8.732281E-1	8.653218E-1	8.810212E-1	8.635469E-1	7.375881E-1	7.452154E-1	8.627212E-1	8.677238E-1	7.705864E-1	7.518603E-1	7.707870E-1	8.955457E-1	7.932865E-1	7.964957E-1	8.380789E-1	8.471499E-1	8.039310E-1	9.485827E-1
5.385110E+2	1.113669E+0	8.912931E-1	1.070794E+0	1.073946E+0	1.058172E+0	1.049707E+0	1.103718E+0	8.812214E-1	9.858379E-1	9.860147E-1	1.062088E+0	8.901089E-1	9.369123E-1	9.181792E-1	1.044815E+0	9.991907E-1	9.860571E-1	9.649467E-1	1.005914E+0	1.036149E+0	1.048868E+0	1.099482E+0	1.055899E+0	9.889294E-1	1.131536E+0	1.033139E+0	1.111686E+0	9.205400E-1	1.096507E+0	9.820113E-1	1.082671E+0	1.022989E+0	1.040733E+0	9.693489E-1	1.005008E+0	9.760438E-1	1.101468E+0	1.041015E+0	1.120204E+0	9.032844E-1	1.012221E+0	9.548849E-1	1.080704E+0	9.323091E-1	9.803690E-1	9.312244E-1	1.124529E+0	1.011660E+0	9.787001E-1	9.262302E-1	1.045095E+0	1.001437E+0	1.055368E+0	1.043652E+0	1.035888E+0	9.388315E-1	1.019606E+0	1.021431E+0	1.031866E+0	9.790415E-1	9.004948E-1	9.017478E-1	1.027667E+0	9.840840E-1	9.082097E-1	9.542700E-1	1.030850E+0	1.071348E+0	9.733486E-1	1.043287E+0	1.060930E+0	9.208301E-1	1.004101E+0	1.065725E+0	1.075285E+0	9.195940E-1	9.205941E-1	9.439090E-1	1.092657E+0	9.570930E-1	9.394787E-1	9.752141E-1	1.068173E+0	1.031114E+0	1.061781E+0	1.011043E+0	1.126975E+0	9.022460E-1	1.063439E+0	9.963703E-1	1.103324E+0	9.168925E-1	9.282293E-1	9.076791E-1	1.052549E+0	1.038512E+0	9.385604E-1	9.416182E-1	1.074773E+0	1.063952E+0	9.997730E-1	1.022252E+0	1.068719E+0	9.736732E-1	1.073393E+0	1.029986E+0	1.067201E+0	9.247499E-1	9.519837E-1	9.033697E-1	1.103282E+0	1.016911E+0	9.419898E-1	8.958558E-1	9.759622E-1	1.052099E+0	1.050379E+0	1.063350E+0	8.934449E-1	1.007707E+0	1.104302E+0	1.015677E+0	9.733284E-1	1.050041E+0	9.798572E-1	1.002098E+0	1.028480E+0	1.073936E+0	9.768748E-1	1.018271E+0	9.939259E-1	1.056229E+0	1.054704E+0	1.042991E+0	9.271376E-1	8.760421E-1	1.013933E+0	1.075747E+0	9.702399E-1	9.123939E-1	9.317281E-1	9.227037E-1	1.012444E+0	1.008462E+0	9.093267E-1	9.263979E-1	1.130557E+0	1.100514E+0	1.018692E+0	1.068493E+0	1.016729E+0	9.251927E-1	8.962446E-1	1.065543E+0	1.016615E+0	9.352058E-1	9.401038E-1	9.644140E-1	1.060266E+0	1.002831E+0	9.306430E-1	1.002161E+0	1.027802E+0	1.046992E+0	1.099641E+0
5.387650E+2	1.318812E+0	1.086476E+0	1.249420E+0	1.237106E+0	1.241632E+0	1.279123E+0	1.324771E+0	1.071800E+0	1.163017E+0	1.230272E+0	1.280231E+0	1.096631E+0	1.093279E+0	1.145006E+0	1.189307E+0	1.227624E+0	1.179987E+0	1.157321E+0	1.239426E+0	1.381959E+0	1.260076E+0	1.296312E+0	1.330061E+0	1.188915E+0	1.382402E+0	1.305466E+0	1.332847E+0	1.090940E+0	1.266918E+0	1.153955E+0	1.265703E+0	1.217323E+0	1.277570E+0	1.134900E+0	1.257240E+0	1.202566E+0	1.274178E+0	1.258430E+0	1.277367E+0	1.137868E+0	1.245594E+0	1.188412E+0	1.263001E+0	1.140733E+0	1.147397E+0	1.132966E+0	1.322835E+0	1.248963E+0	1.161271E+0	1.131370E+0	1.257443E+0	1.196030E+0	1.296498E+0	1.216952E+0	1.317608E+0	1.137039E+0	1.122243E+0	1.207713E+0	1.272750E+0	1.085447E+0	1.118448E+0	1.149005E+0	1.313679E+0	1.227905E+0	1.105265E+0	1.180739E+0	1.291301E+0	1.283539E+0	1.244720E+0	1.271477E+0	1.324957E+0	1.153099E+0	1.177908E+0	1.266685E+0	1.309946E+0	1.065898E+0	1.097242E+0	1.095054E+0	1.277601E+0	1.246244E+0	1.083952E+0	1.163095E+0	1.304849E+0	1.322639E+0	1.245279E+0	1.265241E+0	1.311525E+0	1.130956E+0	1.277412E+0	1.251078E+0	1.369308E+0	1.046788E+0	1.115001E+0	1.098688E+0	1.288505E+0	1.242737E+0	1.151778E+0	1.181911E+0	1.315578E+0	1.233178E+0	1.269894E+0	1.284423E+0	1.342368E+0	1.158124E+0	1.225117E+0	1.282261E+0	1.283251E+0	1.084260E+0	1.147765E+0	1.100416E+0	1.327729E+0	1.195873E+0	1.070830E+0	1.090416E+0	1.274829E+0	1.311497E+0	1.240258E+0	1.254632E+0	1.322116E+0	1.233132E+0	1.284132E+0	1.284339E+0	1.290970E+0	1.242773E+0	1.168657E+0	1.173238E+0	1.312650E+0	1.314042E+0	1.157959E+0	1.154348E+0	1.198240E+0	1.209339E+0	1.302231E+0	1.244288E+0	1.068202E+0	1.115923E+0	1.252153E+0	1.197876E+0	1.171842E+0	1.089322E+0	1.149795E+0	1.085324E+0	1.207638E+0	1.227269E+0	1.128921E+0	1.155759E+0	1.302854E+0	1.276272E+0	1.290512E+0	1.242350E+0	1.218957E+0	1.129853E+0	9.840373E-1	1.178523E+0	1.235999E+0	1.087314E+0	1.121766E+0	1.152810E+0	1.221014E+0	1.269641E+0	1.204647E+0	1.170245E+0	1.217837E+0	1.275649E+0	1.259416E+0
5.390340E+2	1.522704E+0	1.238652E+0	1.551510E+0	1.449979E+0	1.558283E+0	1.504442E+0	1.560689E+0	1.247179E+0	1.431279E+0	1.402987E+0	1.457543E+0	1.306675E+0	1.295093E+0	1.330873E+0	1.443526E+0	1.395682E+0	1.463993E+0	1.387269E+0	1.434530E+0	1.557357E+0	1.489964E+0	1.584646E+0	1.569288E+0	1.384140E+0	1.566821E+0	1.518722E+0	1.580266E+0	1.316944E+0	1.494133E+0	1.368220E+0	1.457950E+0	1.439854E+0	1.475267E+0	1.410219E+0	1.525959E+0	1.451053E+0	1.547831E+0	1.482728E+0	1.520679E+0	1.357187E+0	1.361051E+0	1.424487E+0	1.549105E+0	1.359111E+0	1.330152E+0	1.305583E+0	1.505472E+0	1.464476E+0	1.410177E+0	1.328401E+0	1.530461E+0	1.445475E+0	1.504855E+0	1.413689E+0	1.586468E+0	1.296701E+0	1.421551E+0	1.462524E+0	1.447885E+0	1.298257E+0	1.243301E+0	1.375116E+0	1.504355E+0	1.458016E+0	1.273719E+0	1.286510E+0	1.506238E+0	1.448349E+0	1.425025E+0	1.436740E+0	1.575641E+0	1.297647E+0	1.354971E+0	1.434660E+0	1.555031E+0	1.294657E+0	1.277318E+0	1.287620E+0	1.552530E+0	1.426961E+0	1.338300E+0	1.371785E+0	1.496506E+0	1.581927E+0	1.363203E+0	1.443603E+0	1.556627E+0	1.358507E+0	1.440557E+0	1.445705E+0	1.555369E+0	1.285900E+0	1.325046E+0	1.272754E+0	1.476910E+0	1.485410E+0	1.283037E+0	1.325971E+0	1.448979E+0	1.471722E+0	1.454118E+0	1.433344E+0	1.473026E+0	1.283328E+0	1.403365E+0	1.419984E+0	1.529124E+0	1.299440E+0	1.260965E+0	1.271854E+0	1.569205E+0	1.437384E+0	1.280601E+0	1.296318E+0	1.539630E+0	1.515777E+0	1.432696E+0	1.436351E+0	1.497082E+0	1.439290E+0	1.416487E+0	1.418964E+0	1.518220E+0	1.438947E+0	1.322726E+0	1.347141E+0	1.490495E+0	1.536342E+0	1.280925E+0	1.343344E+0	1.537150E+0	1.431313E+0	1.468824E+0	1.447959E+0	1.561931E+0	1.308944E+0	1.387125E+0	1.436938E+0	1.605904E+0	1.235636E+0	1.302445E+0	1.250582E+0	1.556968E+0	1.464810E+0	1.318843E+0	1.328086E+0	1.478755E+0	1.430856E+0	1.496603E+0	1.434770E+0	1.462169E+0	1.278055E+0	1.187866E+0	1.441239E+0	1.374819E+0	1.272345E+0	1.272492E+0	1.317945E+0	1.498852E+0	1.447722E+0	1.421565E+0	1.381553E+0	1.387931E+0	1.484500E+0	1.471478E+0
5.392560E+2	1.760890E+0	1.510588E+0	1.724879E+0	1.642550E+0	1.724767E+0	1.755029E+0	1.794753E+0	1.437124E+0	1.608456E+0	1.620178E+0	1.647718E+0	1.480927E+0	1.497988E+0	1.478336E+0	1.708608E+0	1.657103E+0	1.553500E+0	1.513459E+0	1.598535E+0	1.697822E+0	1.676256E+0	1.774560E+0	1.676466E+0	1.510921E+0	1.835996E+0	1.719568E+0	1.794516E+0	1.504683E+0	1.634090E+0	1.516886E+0	1.668617E+0	1.663001E+0	1.741294E+0	1.551775E+0	1.645053E+0	1.685812E+0	1.738045E+0	1.603768E+0	1.747110E+0	1.483239E+0	1.569861E+0	1.626835E+0	1.732034E+0	1.550109E+0	1.534599E+0	1.574213E+0	1.743560E+0	1.655853E+0	1.570843E+0	1.465742E+0	1.690307E+0	1.619821E+0	1.684532E+0	1.621319E+0	1.735513E+0	1.509222E+0	1.589337E+0	1.579653E+0	1.666007E+0	1.527840E+0	1.522605E+0	1.519348E+0	1.627769E+0	1.677994E+0	1.482214E+0	1.497427E+0	1.687039E+0	1.644055E+0	1.598657E+0	1.705514E+0	1.745078E+0	1.496812E+0	1.567837E+0	1.640511E+0	1.728419E+0	1.484977E+0	1.479693E+0	1.453879E+0	1.666723E+0	1.648491E+0	1.504018E+0	1.555997E+0	1.764696E+0	1.706664E+0	1.587545E+0	1.680819E+0	1.760974E+0	1.478084E+0	1.640726E+0	1.614677E+0	1.666621E+0	1.421612E+0	1.449745E+0	1.493545E+0	1.638829E+0	1.569242E+0	1.473459E+0	1.566845E+0	1.736988E+0	1.662697E+0	1.632692E+0	1.697780E+0	1.729414E+0	1.471691E+0	1.616147E+0	1.640963E+0	1.721974E+0	1.409532E+0	1.460574E+0	1.496172E+0	1.740122E+0	1.623876E+0	1.384836E+0	1.445523E+0	1.714449E+0	1.732551E+0	1.671803E+0	1.592758E+0	1.758367E+0	1.569664E+0	1.642352E+0	1.695205E+0	1.703457E+0	1.653017E+0	1.482480E+0	1.481844E+0	1.670870E+0	1.748197E+0	1.561727E+0	1.563839E+0	1.697288E+0	1.621866E+0	1.734074E+0	1.636189E+0	1.744559E+0	1.462359E+0	1.558171E+0	1.580508E+0	1.702595E+0	1.478683E+0	1.499825E+0	1.430098E+0	1.664984E+0	1.650980E+0	1.444799E+0	1.447013E+0	1.842094E+0	1.631318E+0	1.673938E+0	1.671737E+0	1.748375E+0	1.442726E+0	1.391692E+0	1.573957E+0	1.695622E+0	1.435646E+0	1.423220E+0	1.510989E+0	1.658277E+0	1.600634E+0	1.512187E+0	1.591257E+0	1.701138E+0	1.682550E+0	1.567342E+0
5.395160E+2	2.073904E+0	1.644901E+0	2.024342E+0	1.937354E+0	1.971559E+0	1.990588E+0	2.098781E+0	1.658093E+0	1.864865E+0	1.934676E+0	1.878170E+0	1.665153E+0	1.721444E+0	1.731793E+0	1.875915E+0	1.818313E+0	1.783001E+0	1.805103E+0	1.789978E+0	1.950942E+0	1.866515E+0	1.959691E+0	1.883122E+0	1.715666E+0	2.047539E+0	1.966496E+0	1.978355E+0	1.645187E+0	1.937436E+0	1.813156E+0	1.943167E+0	1.863463E+0	1.866014E+0	1.774911E+0	1.897896E+0	1.827215E+0	2.039705E+0	1.886003E+0	2.016035E+0	1.744951E+0	1.806303E+0	1.819640E+0	1.957368E+0	1.768487E+0	1.747722E+0	1.730646E+0	1.915348E+0	1.968527E+0	1.769237E+0	1.699277E+0	1.913157E+0	1.865348E+0	1.857188E+0	1.816419E+0	1.997357E+0	1.685952E+0	1.799530E+0	1.877457E+0	1.959999E+0	1.750319E+0	1.643694E+0	1.749798E+0	1.956480E+0	1.900357E+0	1.730762E+0	1.728876E+0	1.933586E+0	1.868610E+0	1.838455E+0	1.915475E+0	2.025356E+0	1.730187E+0	1.758565E+0	1.828038E+0	1.939610E+0	1.677779E+0	1.707789E+0	1.625734E+0	1.932966E+0	1.838537E+0	1.734689E+0	1.775702E+0	1.935771E+0	1.936525E+0	1.811311E+0	1.925307E+0	1.894873E+0	1.681255E+0	1.928115E+0	1.826204E+0	2.060476E+0	1.656846E+0	1.696923E+0	1.640908E+0	1.908493E+0	1.769683E+0	1.735360E+0	1.716737E+0	1.947007E+0	1.884253E+0	1.846300E+0	1.958817E+0	1.930954E+0	1.671793E+0	1.936251E+0	1.933302E+0	1.877054E+0	1.653485E+0	1.650884E+0	1.703236E+0	1.953619E+0	1.857858E+0	1.699490E+0	1.677681E+0	1.984394E+0	1.960351E+0	1.782410E+0	1.885873E+0	1.942665E+0	1.861243E+0	1.917855E+0	1.917246E+0	1.962539E+0	1.754201E+0	1.701588E+0	1.700462E+0	1.984154E+0	1.970496E+0	1.679798E+0	1.800718E+0	1.889176E+0	1.909363E+0	1.878805E+0	1.916456E+0	1.987016E+0	1.694432E+0	1.729842E+0	1.797481E+0	1.944653E+0	1.654386E+0	1.667013E+0	1.596414E+0	1.944197E+0	1.798464E+0	1.700002E+0	1.681229E+0	1.970410E+0	1.881188E+0	1.849901E+0	1.912421E+0	1.994277E+0	1.667969E+0	1.524918E+0	1.774738E+0	1.888388E+0	1.661505E+0	1.635813E+0	1.691826E+0	1.950671E+0	1.859262E+0	1.739094E+0	1.818570E+0	1.938097E+0	1.958018E+0	1.915941E+0
5.397810E+2	2.204219E+0	1.857288E+0	2.166192E+0	2.025584E+0	2.139347E+0	2.131242E+0	2.273399E+0	1.760663E+0	1.959070E+0	2.021680E+0	2.086805E+0	1.835886E+0	1.897828E+0	1.841877E+0	2.064951E+0	1.965210E+0	1.885699E+0	1.860069E+0	1.979595E+0	2.177674E+0	2.048841E+0	2.100130E+0	2.124720E+0	1.896610E+0	2.264503E+0	2.102955E+0	2.139389E+0	1.835915E+0	2.059241E+0	1.887225E+0	2.144623E+0	1.995268E+0	2.112137E+0	1.876277E+0	2.131808E+0	2.068835E+0	2.158154E+0	1.989837E+0	2.157483E+0	1.812785E+0	1.982563E+0	1.952630E+0	2.163089E+0	1.861812E+0	1.871914E+0	1.815335E+0	2.167300E+0	2.103371E+0	1.913468E+0	1.838355E+0	2.056666E+0	2.072346E+0	1.964875E+0	1.978275E+0	2.183220E+0	1.828553E+0	1.969156E+0	1.988351E+0	2.015639E+0	1.830929E+0	1.772850E+0	1.915176E+0	2.022572E+0	2.014221E+0	1.842642E+0	1.847712E+0	2.156106E+0	2.114447E+0	1.962910E+0	2.057800E+0	2.168685E+0	1.864801E+0	1.883553E+0	2.065648E+0	2.067368E+0	1.834620E+0	1.863855E+0	1.830056E+0	2.107981E+0	2.025665E+0	1.826350E+0	1.882187E+0	2.057324E+0	2.045143E+0	2.002863E+0	2.117625E+0	2.137064E+0	1.803157E+0	2.012197E+0	1.975775E+0	2.115467E+0	1.765417E+0	1.737934E+0	1.756437E+0	2.105925E+0	2.028745E+0	1.819787E+0	1.786142E+0	2.072884E+0	2.024932E+0	2.000573E+0	2.090751E+0	2.152215E+0	1.814885E+0	1.997928E+0	2.039723E+0	2.075874E+0	1.806114E+0	1.809476E+0	1.833484E+0	2.105682E+0	1.921566E+0	1.823796E+0	1.814352E+0	2.149573E+0	2.138916E+0	2.017041E+0	1.990515E+0	2.111215E+0	1.956292E+0	2.050927E+0	2.007579E+0	2.123588E+0	1.942801E+0	1.831031E+0	1.890373E+0	2.106939E+0	2.155329E+0	1.785021E+0	1.854894E+0	2.098320E+0	2.028374E+0	2.013501E+0	1.989494E+0	2.095961E+0	1.796524E+0	1.917059E+0	1.887781E+0	2.100309E+0	1.719280E+0	1.765424E+0	1.777513E+0	2.128022E+0	1.999134E+0	1.790346E+0	1.834138E+0	2.157127E+0	2.035772E+0	2.024499E+0	2.056579E+0	2.127977E+0	1.771474E+0	1.672260E+0	1.986405E+0	2.084037E+0	1.824808E+0	1.740469E+0	1.863357E+0	2.106126E+0	1.933514E+0	1.887515E+0	1.848185E+0	2.001441E+0	1.952617E+0	2.058284E+0
5.400090E+2	2.280289E+0	1.808985E+0	2.200999E+0	2.125718E+0	2.197454E+0	2.165383E+0	2.271541E+0	1.816380E+0	2.026445E+0	2.055196E+0	2.087364E+0	1.928588E+0	1.885924E+0	1.898712E+0	2.120899E+0	2.059194E+0	1.882831E+0	1.895965E+0	2.019224E+0	2.165556E+0	2.077721E+0	2.227808E+0	2.124124E+0	1.942440E+0	2.265856E+0	2.179750E+0	2.207116E+0	1.896306E+0	2.070953E+0	1.965523E+0	2.081362E+0	2.044309E+0	2.098206E+0	1.923667E+0	2.195931E+0	2.040007E+0	2.192580E+0	2.032286E+0	2.176108E+0	1.927533E+0	1.997303E+0	2.050623E+0	2.142199E+0	1.948913E+0	1.862149E+0	1.923760E+0	2.124502E+0	2.115736E+0	1.990754E+0	1.849365E+0	2.129007E+0	2.018804E+0	2.088955E+0	1.979910E+0	2.204265E+0	1.841217E+0	2.039837E+0	2.059372E+0	2.056737E+0	1.881876E+0	1.897703E+0	1.832758E+0	2.079305E+0	2.132852E+0	1.808949E+0	1.945390E+0	2.088464E+0	2.082172E+0	2.041834E+0	2.103083E+0	2.240057E+0	1.895145E+0	1.992918E+0	2.105349E+0	2.204252E+0	1.830280E+0	1.832416E+0	1.791989E+0	2.148938E+0	2.000598E+0	1.931975E+0	1.902996E+0	2.104271E+0	2.137644E+0	2.092026E+0	2.101850E+0	2.217988E+0	1.768909E+0	2.059259E+0	1.987040E+0	2.172370E+0	1.866231E+0	1.817187E+0	1.841160E+0	2.062589E+0	1.917181E+0	1.792055E+0	1.902790E+0	2.107093E+0	2.030369E+0	2.006788E+0	2.055646E+0	2.158377E+0	1.894812E+0	2.031847E+0	2.052244E+0	2.178593E+0	1.863663E+0	1.796349E+0	1.792293E+0	2.135489E+0	2.055351E+0	1.880124E+0	1.800032E+0	2.173356E+0	2.134505E+0	2.043893E+0	2.048461E+0	2.126383E+0	1.933174E+0	2.063155E+0	2.005830E+0	2.149684E+0	1.950374E+0	1.928904E+0	1.898101E+0	2.149976E+0	2.124628E+0	1.894531E+0	1.899626E+0	2.129385E+0	2.083870E+0	2.083209E+0	1.993650E+0	2.210576E+0	1.804890E+0	1.887206E+0	1.949495E+0	2.273799E+0	1.874777E+0	1.787790E+0	1.732109E+0	2.128649E+0	1.975562E+0	1.829255E+0	1.866295E+0	2.134059E+0	2.045653E+0	1.975199E+0	2.038021E+0	2.193141E+0	1.783825E+0	1.672262E+0	1.981639E+0	2.155247E+0	1.818882E+0	1.856310E+0	1.879639E+0	2.213297E+0	1.964349E+0	1.911060E+0	1.916220E+0	2.135170E+0	2.084049E+0	2.206438E+0
5.402690E+2	2.241632E+0	1.867210E+0	2.176044E+0	2.118722E+0	2.204635E+0	2.072522E+0	2.234384E+0	1.796121E+0	2.077605E+0	2.079040E+0	2.158402E+0	1.864051E+0	1.825330E+0	1.932506E+0	2.154035E+0	2.069778E+0	1.922995E+0	1.865116E+0	2.013735E+0	2.166983E+0	2.056201E+0	2.086832E+0	2.176235E+0	1.948985E+0	2.277386E+0	2.112405E+0	2.197440E+0	1.829340E+0	2.127755E+0	1.924259E+0	2.105930E+0	2.148527E+0	2.122089E+0	1.996847E+0	2.149514E+0	1.990584E+0	2.153486E+0	2.016796E+0	2.171452E+0	1.859136E+0	2.002828E+0	1.976811E+0	2.089031E+0	1.926517E+0	1.889264E+0	1.849858E+0	2.149821E+0	2.145770E+0	1.918941E+0	1.893988E+0	2.098669E+0	2.005091E+0	2.070225E+0	2.000072E+0	2.182055E+0	1.816440E+0	2.052743E+0	2.018878E+0	2.004893E+0	1.887037E+0	1.819130E+0	1.888606E+0	2.068780E+0	2.078603E+0	1.873790E+0	1.906817E+0	2.088463E+0	2.118565E+0	1.976266E+0	2.003694E+0	2.180291E+0	1.901765E+0	1.967528E+0	2.069313E+0	2.119516E+0	1.804863E+0	1.842706E+0	1.770159E+0	2.109220E+0	2.025084E+0	1.859739E+0	1.826496E+0	2.090765E+0	2.150263E+0	2.001712E+0	2.008424E+0	2.177814E+0	1.842050E+0	1.962002E+0	2.035225E+0	2.167895E+0	1.817764E+0	1.853209E+0	1.740008E+0	2.081848E+0	2.052068E+0	1.837657E+0	1.827551E+0	2.104351E+0	2.053476E+0	2.009616E+0	1.951457E+0	2.186723E+0	1.789729E+0	2.059606E+0	1.994025E+0	2.016228E+0	1.807364E+0	1.862521E+0	1.816230E+0	2.213342E+0	1.952839E+0	1.838692E+0	1.808383E+0	2.102013E+0	2.137448E+0	1.992108E+0	2.067029E+0	2.180621E+0	2.007029E+0	2.039422E+0	2.088004E+0	2.145865E+0	1.960701E+0	1.947847E+0	1.858905E+0	2.162634E+0	2.036815E+0	1.860883E+0	1.980896E+0	2.163896E+0	2.034391E+0	2.037722E+0	1.962178E+0	2.070774E+0	1.874066E+0	2.045813E+0	1.939747E+0	2.120196E+0	1.824578E+0	1.782756E+0	1.760090E+0	2.124861E+0	1.990673E+0	1.756714E+0	1.793484E+0	2.051153E+0	2.037186E+0	1.973831E+0	2.045440E+0	2.214642E+0	1.721484E+0	1.648318E+0	1.938083E+0	2.117120E+0	1.851146E+0	1.726644E+0	1.843589E+0	2.147801E+0	1.980710E+0	1.871818E+0	1.907417E+0	2.124611E+0	2.021033E+0	1.910132E+0
5.405020E+2	2.050208E+0	1.726943E+0	2.112344E+0	2.058494E+0	2.042067E+0	2.073206E+0	2.213333E+0	1.705582E+0	1.969051E+0	1.967547E+0	2.025277E+0	1.687449E+0	1.811800E+0	1.789651E+0	1.955764E+0	1.979525E+0	1.824883E+0	1.785475E+0	1.846680E+0	2.062880E+0	1.987691E+0	2.059702E+0	2.009248E+0	1.813872E+0	2.156699E+0	2.019662E+0	2.051617E+0	1.823359E+0	2.005367E+0	1.841196E+0	2.029770E+0	1.971357E+0	2.051766E+0	1.861285E+0	1.977289E+0	2.024217E+0	2.113808E+0	1.965168E+0	2.099276E+0	1.813349E+0	1.878160E+0	1.905541E+0	2.046622E+0	1.805196E+0	1.815512E+0	1.811022E+0	2.070256E+0	2.026234E+0	1.895209E+0	1.757225E+0	2.014665E+0	1.966561E+0	2.000576E+0	1.975008E+0	1.966966E+0	1.777349E+0	1.955021E+0	1.921064E+0	1.978337E+0	1.814165E+0	1.779845E+0	1.828419E+0	1.989233E+0	2.030909E+0	1.798141E+0	1.820335E+0	1.989846E+0	1.988094E+0	1.887022E+0	2.020159E+0	2.048565E+0	1.735699E+0	1.843191E+0	2.005176E+0	2.116907E+0	1.775107E+0	1.739231E+0	1.714738E+0	2.019229E+0	2.038493E+0	1.711014E+0	1.800794E+0	2.057966E+0	1.999594E+0	1.898744E+0	1.988401E+0	2.068366E+0	1.673709E+0	1.915567E+0	1.906931E+0	2.089892E+0	1.739566E+0	1.793357E+0	1.706632E+0	2.053561E+0	2.021181E+0	1.776650E+0	1.742398E+0	2.050313E+0	2.050757E+0	1.946322E+0	1.955419E+0	2.009227E+0	1.834446E+0	1.904179E+0	1.917655E+0	2.008277E+0	1.780466E+0	1.772285E+0	1.765579E+0	2.078922E+0	1.943571E+0	1.740927E+0	1.750493E+0	2.053165E+0	2.022813E+0	1.965896E+0	1.933130E+0	2.059895E+0	1.948589E+0	2.091211E+0	1.956873E+0	2.058657E+0	1.887049E+0	1.808933E+0	1.800938E+0	2.048709E+0	2.087783E+0	1.864551E+0	1.834105E+0	2.011349E+0	1.917387E+0	1.962696E+0	1.996622E+0	2.005906E+0	1.720093E+0	1.843044E+0	1.915715E+0	2.064657E+0	1.728460E+0	1.698886E+0	1.653439E+0	2.040212E+0	1.864345E+0	1.723081E+0	1.786203E+0	2.076383E+0	1.946127E+0	1.921794E+0	1.956969E+0	2.058100E+0	1.648561E+0	1.538424E+0	1.843478E+0	1.997002E+0	1.722084E+0	1.695712E+0	1.726133E+0	2.057176E+0	1.929114E+0	1.739809E+0	1.868998E+0	1.982672E+0	1.918409E+0	1.857842E+0
5.407580E+2	2.071408E+0	1.709742E+0	1.932400E+0	1.955561E+0	2.005505E+0	1.957130E+0	2.033763E+0	1.800551E+0	1.846151E+0	1.897300E+0	1.956479E+0	1.844688E+0	1.698719E+0	1.779411E+0	1.822137E+0	1.905454E+0	1.737099E+0	1.667693E+0	1.822293E+0	1.938823E+0	1.876705E+0	1.907556E+0	1.929905E+0	1.721619E+0	2.036690E+0	1.959403E+0	2.015674E+0	1.676279E+0	1.892341E+0	1.854425E+0	2.010727E+0	1.951130E+0	1.950265E+0	1.871481E+0	1.966299E+0	1.896543E+0	1.965603E+0	1.867073E+0	2.017199E+0	1.674294E+0	1.794024E+0	1.893453E+0	1.968768E+0	1.774089E+0	1.762908E+0	1.690191E+0	1.928610E+0	1.925543E+0	1.850784E+0	1.709127E+0	1.937661E+0	1.875797E+0	1.944977E+0	1.828408E+0	2.000280E+0	1.727250E+0	1.763265E+0	1.838204E+0	1.918907E+0	1.720658E+0	1.706115E+0	1.749254E+0	1.928989E+0	1.900356E+0	1.747290E+0	1.803534E+0	1.953182E+0	1.839764E+0	1.822066E+0	1.873130E+0	1.943537E+0	1.727979E+0	1.775490E+0	1.902558E+0	2.006098E+0	1.724893E+0	1.680922E+0	1.630209E+0	1.936687E+0	1.882840E+0	1.686733E+0	1.775700E+0	1.955704E+0	1.902883E+0	1.855025E+0	1.880415E+0	1.971722E+0	1.694025E+0	1.886701E+0	1.857493E+0	1.961376E+0	1.632290E+0	1.638177E+0	1.639369E+0	1.866962E+0	1.828305E+0	1.689758E+0	1.668327E+0	1.943588E+0	1.884933E+0	1.864381E+0	1.888035E+0	1.937731E+0	1.724893E+0	1.843737E+0	1.880720E+0	1.917478E+0	1.577170E+0	1.649242E+0	1.652583E+0	1.977339E+0	1.850909E+0	1.665825E+0	1.653810E+0	2.015244E+0	1.915526E+0	1.855934E+0	1.843678E+0	1.975327E+0	1.780962E+0	1.837291E+0	1.818172E+0	1.949169E+0	1.828540E+0	1.735685E+0	1.729720E+0	1.981624E+0	2.019619E+0	1.710386E+0	1.786857E+0	1.970624E+0	1.897995E+0	1.872310E+0	1.814329E+0	1.993311E+0	1.697220E+0	1.751613E+0	1.836457E+0	1.981680E+0	1.657444E+0	1.597678E+0	1.591663E+0	1.956199E+0	1.874619E+0	1.649887E+0	1.748583E+0	1.989877E+0	1.867073E+0	1.847846E+0	1.938407E+0	1.988230E+0	1.661497E+0	1.511409E+0	1.797196E+0	1.976143E+0	1.587098E+0	1.627260E+0	1.640658E+0	1.956621E+0	1.854859E+0	1.749084E+0	1.704111E+0	1.949827E+0	1.698753E+0	1.802645E+0
5.410080E+2	1.974763E+0	1.634312E+0	1.883805E+0	1.898841E+0	1.977432E+0	1.790530E+0	1.929737E+0	1.963273E+0	1.735725E+0	1.744560E+0	1.832305E+0	1.917444E+0	1.680326E+0	1.630409E+0	1.823767E+0	1.875579E+0	1.682017E+0	1.633485E+0	1.743031E+0	1.927410E+0	1.778181E+0	1.833612E+0	1.893190E+0	1.934103E+0	2.004147E+0	1.856027E+0	1.836676E+0	1.843093E+0	1.793375E+0	1.694649E+0	1.847967E+0	1.869596E+0	1.835496E+0	1.727524E+0	1.808727E+0	1.803878E+0	1.941101E+0	1.786189E+0	1.877498E+0	1.643771E+0	1.680406E+0	1.686014E+0	1.824448E+0	1.646544E+0	1.632214E+0	1.618986E+0	1.829758E+0	1.881968E+0	1.702902E+0	1.623364E+0	1.882820E+0	1.739972E+0	1.847237E+0	1.753202E+0	1.874032E+0	1.625393E+0	1.714713E+0	1.777151E+0	1.863903E+0	1.623279E+0	1.599026E+0	1.610441E+0	1.808499E+0	1.813316E+0	1.688807E+0	1.624348E+0	1.811573E+0	1.786203E+0	1.718251E+0	1.774323E+0	1.854754E+0	1.659568E+0	1.695427E+0	1.740690E+0	1.899848E+0	1.553789E+0	1.569444E+0	1.613417E+0	1.851668E+0	1.724856E+0	1.619963E+0	1.654528E+0	1.846372E+0	1.837713E+0	1.783696E+0	1.791233E+0	1.923402E+0	1.543102E+0	1.737988E+0	1.720441E+0	1.882732E+0	1.545044E+0	1.641499E+0	1.599831E+0	1.868767E+0	1.716109E+0	1.604101E+0	1.629832E+0	1.826606E+0	1.785028E+0	1.720282E+0	1.859727E+0	1.879799E+0	1.651112E+0	1.706813E+0	1.764907E+0	1.812109E+0	1.615955E+0	1.602758E+0	1.667611E+0	1.897661E+0	1.761716E+0	1.582304E+0	1.530270E+0	1.882200E+0	1.911119E+0	1.759394E+0	1.748035E+0	1.831852E+0	1.720595E+0	1.797726E+0	1.745909E+0	1.862597E+0	1.805138E+0	1.630236E+0	1.716471E+0	1.906940E+0	1.828030E+0	1.657163E+0	1.683537E+0	1.830508E+0	1.819770E+0	1.798468E+0	1.763259E+0	1.927817E+0	1.609637E+0	1.726730E+0	1.771496E+0	1.885683E+0	1.583980E+0	1.541202E+0	1.524080E+0	1.869026E+0	1.738017E+0	1.574708E+0	1.564728E+0	1.987712E+0	1.902364E+0	1.794441E+0	1.810952E+0	1.835044E+0	1.562697E+0	1.459838E+0	1.704635E+0	1.920037E+0	1.517300E+0	1.560125E+0	1.588323E+0	1.885839E+0	1.756063E+0	1.698423E+0	1.664093E+0	1.879443E+0	1.794178E+0	1.741641E+0
5.412640E+2	1.851304E+0	1.560209E+0	1.845712E+0	1.804308E+0	1.774386E+0	1.789168E+0	1.780508E+0	1.808151E+0	1.694552E+0	1.712982E+0	1.784197E+0	1.892799E+0	1.566162E+0	1.573061E+0	1.711322E+0	1.789685E+0	1.583906E+0	1.602637E+0	1.619874E+0	1.842562E+0	1.765158E+0	1.701150E+0	1.794893E+0	1.775782E+0	1.876675E+0	1.759738E+0	1.803501E+0	1.709761E+0	1.745357E+0	1.636981E+0	1.677832E+0	1.818712E+0	1.726034E+0	1.646549E+0	1.778800E+0	1.886248E+0	1.809233E+0	1.698995E+0	1.779709E+0	1.844438E+0	1.636185E+0	1.665649E+0	1.740895E+0	1.807061E+0	1.594797E+0	1.611973E+0	1.739342E+0	1.803653E+0	1.566581E+0	1.565413E+0	1.752729E+0	1.737362E+0	1.758859E+0	1.681814E+0	1.759474E+0	1.621539E+0	1.679683E+0	1.646314E+0	1.714693E+0	1.601999E+0	1.541443E+0	1.584416E+0	1.742992E+0	1.720320E+0	1.505736E+0	1.560268E+0	1.761635E+0	1.769038E+0	1.678792E+0	1.740210E+0	1.830381E+0	1.531018E+0	1.663529E+0	1.745575E+0	1.804683E+0	1.496753E+0	1.516278E+0	1.516015E+0	1.779674E+0	1.621088E+0	1.510090E+0	1.513767E+0	1.728038E+0	1.704565E+0	1.634136E+0	1.697804E+0	1.795902E+0	1.535552E+0	1.698455E+0	1.624063E+0	1.869942E+0	1.568311E+0	1.467477E+0	1.490464E+0	1.805567E+0	1.645513E+0	1.578219E+0	1.520770E+0	1.741093E+0	1.652499E+0	1.699939E+0	1.743079E+0	1.804603E+0	1.535411E+0	1.711748E+0	1.749882E+0	1.747162E+0	1.475838E+0	1.556823E+0	1.511200E+0	1.794259E+0	1.717119E+0	1.492310E+0	1.465216E+0	1.743373E+0	1.806775E+0	1.687150E+0	1.673770E+0	1.791609E+0	1.625541E+0	1.693425E+0	1.709192E+0	1.772842E+0	1.690874E+0	1.520996E+0	1.579007E+0	1.777832E+0	1.764779E+0	1.569069E+0	1.557541E+0	1.726971E+0	1.683376E+0	1.730529E+0	1.741884E+0	1.744559E+0	1.578954E+0	1.593627E+0	1.629879E+0	1.822594E+0	1.517254E+0	1.480814E+0	1.451219E+0	1.775533E+0	1.659440E+0	1.525910E+0	1.573831E+0	1.819743E+0	1.699078E+0	1.636967E+0	1.689064E+0	1.818922E+0	1.509765E+0	1.389237E+0	1.640656E+0	1.702814E+0	1.509399E+0	1.527214E+0	1.566811E+0	1.856071E+0	1.700057E+0	1.571411E+0	1.614466E+0	1.782080E+0	1.626736E+0	1.674826E+0
5.415140E+2	1.776477E+0	1.422588E+0	1.756405E+0	1.672659E+0	1.696039E+0	1.747514E+0	1.762554E+0	1.741668E+0	1.606586E+0	1.658200E+0	1.676245E+0	1.724413E+0	1.514761E+0	1.504961E+0	1.635278E+0	1.772256E+0	1.533991E+0	1.583006E+0	1.568050E+0	1.727769E+0	1.642285E+0	1.632523E+0	1.686530E+0	1.793041E+0	1.764803E+0	1.689442E+0	1.706054E+0	1.716935E+0	1.730133E+0	1.551274E+0	1.675989E+0	1.799708E+0	1.722052E+0	1.572169E+0	1.729333E+0	1.687185E+0	1.735712E+0	1.607211E+0	1.740126E+0	1.799784E+0	1.571088E+0	1.591837E+0	1.697853E+0	1.750443E+0	1.481997E+0	1.487368E+0	1.694738E+0	1.758313E+0	1.592140E+0	1.488920E+0	1.635470E+0	1.689693E+0	1.630688E+0	1.604427E+0	1.689337E+0	1.714036E+0	1.593637E+0	1.574670E+0	1.652731E+0	1.694861E+0	1.477939E+0	1.539954E+0	1.737727E+0	1.790069E+0	1.466326E+0	1.536003E+0	1.689568E+0	1.705860E+0	1.564656E+0	1.646700E+0	1.785119E+0	1.557500E+0	1.560027E+0	1.559885E+0	1.678880E+0	1.582928E+0	1.428813E+0	1.483545E+0	1.714512E+0	1.611178E+0	1.449994E+0	1.527231E+0	1.666937E+0	1.649902E+0	1.605948E+0	1.625607E+0	1.700426E+0	1.479246E+0	1.606843E+0	1.568993E+0	1.698590E+0	1.459738E+0	1.501284E+0	1.374418E+0	1.671333E+0	1.668833E+0	1.499339E+0	1.431537E+0	1.643950E+0	1.672893E+0	1.626477E+0	1.662674E+0	1.654841E+0	1.482312E+0	1.636503E+0	1.654106E+0	1.680224E+0	1.488973E+0	1.421746E+0	1.486152E+0	1.729175E+0	1.554955E+0	1.418502E+0	1.427616E+0	1.708667E+0	1.720061E+0	1.602757E+0	1.645643E+0	1.705292E+0	1.563244E+0	1.568265E+0	1.633429E+0	1.755654E+0	1.576611E+0	1.478693E+0	1.481289E+0	1.705682E+0	1.670825E+0	1.520127E+0	1.529191E+0	1.726280E+0	1.609830E+0	1.611197E+0	1.650439E+0	1.691658E+0	1.437811E+0	1.505305E+0	1.619483E+0	1.740307E+0	1.432156E+0	1.469071E+0	1.401060E+0	1.699729E+0	1.621969E+0	1.426331E+0	1.518615E+0	1.741165E+0	1.692728E+0	1.589724E+0	1.661840E+0	1.719489E+0	1.426844E+0	1.344419E+0	1.571234E+0	1.673324E+0	1.431041E+0	1.413347E+0	1.509829E+0	1.704583E+0	1.614478E+0	1.512184E+0	1.630475E+0	1.731638E+0	1.615935E+0	1.605107E+0
5.417540E+2	1.618104E+0	1.326652E+0	1.636882E+0	1.564121E+0	1.524331E+0	1.531756E+0	1.669049E+0	1.619471E+0	1.468710E+0	1.540907E+0	1.528021E+0	1.568933E+0	1.336212E+0	1.361084E+0	1.466884E+0	1.584902E+0	1.405470E+0	1.353619E+0	1.439405E+0	1.539532E+0	1.540360E+0	1.578793E+0	1.510665E+0	1.594845E+0	1.620384E+0	1.527582E+0	1.572667E+0	1.585996E+0	1.558550E+0	1.408960E+0	1.473916E+0	1.588211E+0	1.528999E+0	1.427614E+0	1.579093E+0	1.580786E+0	1.571754E+0	1.509116E+0	1.582961E+0	1.630205E+0	1.432294E+0	1.444847E+0	1.549105E+0	1.563175E+0	1.383841E+0	1.370851E+0	1.577199E+0	1.600500E+0	1.376097E+0	1.353317E+0	1.484958E+0	1.583254E+0	1.488466E+0	1.462190E+0	1.542629E+0	1.591257E+0	1.457200E+0	1.428261E+0	1.468747E+0	1.578784E+0	1.334251E+0	1.402768E+0	1.556995E+0	1.596321E+0	1.327750E+0	1.351840E+0	1.511295E+0	1.601483E+0	1.471770E+0	1.564954E+0	1.590146E+0	1.634739E+0	1.397284E+0	1.520790E+0	1.545253E+0	1.571765E+0	1.311045E+0	1.331843E+0	1.563703E+0	1.590191E+0	1.334656E+0	1.376071E+0	1.583330E+0	1.591035E+0	1.415549E+0	1.483645E+0	1.567104E+0	1.483310E+0	1.498915E+0	1.502031E+0	1.569435E+0	1.474604E+0	1.386010E+0	1.317938E+0	1.485940E+0	1.556638E+0	1.357604E+0	1.376126E+0	1.537912E+0	1.509782E+0	1.483504E+0	1.502993E+0	1.597522E+0	1.347606E+0	1.517469E+0	1.488217E+0	1.471467E+0	1.315703E+0	1.334246E+0	1.314159E+0	1.550348E+0	1.431596E+0	1.312322E+0	1.344063E+0	1.582691E+0	1.681850E+0	1.483205E+0	1.528057E+0	1.582235E+0	1.473330E+0	1.505684E+0	1.504053E+0	1.553233E+0	1.462349E+0	1.329671E+0	1.427191E+0	1.551253E+0	1.554763E+0	1.414904E+0	1.451072E+0	1.572352E+0	1.484134E+0	1.513130E+0	1.477648E+0	1.586490E+0	1.376447E+0	1.415739E+0	1.475918E+0	1.629220E+0	1.328080E+0	1.314187E+0	1.256918E+0	1.592970E+0	1.424315E+0	1.363027E+0	1.371773E+0	1.633751E+0	1.434383E+0	1.478801E+0	1.538713E+0	1.569663E+0	1.286289E+0	1.219174E+0	1.473226E+0	1.564713E+0	1.393508E+0	1.322515E+0	1.390626E+0	1.576913E+0	1.448351E+0	1.388028E+0	1.390354E+0	1.518141E+0	1.504305E+0	1.608012E+0
5.420160E+2	1.462222E+0	1.183738E+0	1.408345E+0	1.388359E+0	1.363720E+0	1.419097E+0	1.422608E+0	1.364949E+0	1.228522E+0	1.397190E+0	1.373641E+0	1.372385E+0	1.279943E+0	1.219763E+0	1.359872E+0	1.442366E+0	1.278097E+0	1.194337E+0	1.268082E+0	1.530265E+0	1.362563E+0	1.411751E+0	1.318812E+0	1.363309E+0	1.465798E+0	1.340913E+0	1.410251E+0	1.449678E+0	1.311427E+0	1.192047E+0	1.355987E+0	1.491350E+0	1.370447E+0	1.306449E+0	1.415420E+0	1.413297E+0	1.377454E+0	1.307764E+0	1.372246E+0	1.438017E+0	1.289200E+0	1.311859E+0	1.384530E+0	1.421323E+0	1.178851E+0	1.233300E+0	1.346343E+0	1.470954E+0	1.247083E+0	1.217717E+0	1.348449E+0	1.459186E+0	1.307033E+0	1.252376E+0	1.418137E+0	1.415074E+0	1.318914E+0	1.267522E+0	1.323963E+0	1.422722E+0	1.220161E+0	1.243352E+0	1.308415E+0	1.382903E+0	1.237486E+0	1.240470E+0	1.390552E+0	1.414009E+0	1.315749E+0	1.374399E+0	1.371961E+0	1.433918E+0	1.310054E+0	1.325327E+0	1.387511E+0	1.488696E+0	1.210432E+0	1.195255E+0	1.357658E+0	1.377994E+0	1.190184E+0	1.247549E+0	1.390388E+0	1.427054E+0	1.296475E+0	1.375049E+0	1.475701E+0	1.425262E+0	1.339533E+0	1.384377E+0	1.393604E+0	1.445525E+0	1.200902E+0	1.179303E+0	1.390834E+0	1.399686E+0	1.238053E+0	1.286892E+0	1.355942E+0	1.450654E+0	1.369917E+0	1.304807E+0	1.396601E+0	1.363257E+0	1.368824E+0	1.294783E+0	1.399890E+0	1.405780E+0	1.246199E+0	1.248477E+0	1.400718E+0	1.466342E+0	1.194490E+0	1.215749E+0	1.393732E+0	1.426128E+0	1.331685E+0	1.346336E+0	1.440509E+0	1.308918E+0	1.357503E+0	1.295998E+0	1.428467E+0	1.297840E+0	1.215380E+0	1.293591E+0	1.378473E+0	1.386502E+0	1.239326E+0	1.243806E+0	1.382535E+0	1.354425E+0	1.392616E+0	1.347607E+0	1.451723E+0	1.170593E+0	1.308755E+0	1.312861E+0	1.390588E+0	1.192781E+0	1.175517E+0	1.131785E+0	1.439472E+0	1.286501E+0	1.200143E+0	1.224324E+0	1.469383E+0	1.393444E+0	1.345290E+0	1.343821E+0	1.449402E+0	1.133969E+0	1.090249E+0	1.345271E+0	1.415099E+0	1.199253E+0	1.143486E+0	1.187115E+0	1.427408E+0	1.318094E+0	1.198938E+0	1.287904E+0	1.376201E+0	1.302656E+0	1.352373E+0
5.422670E+2	1.245232E+0	1.036192E+0	1.269121E+0	1.256011E+0	1.200502E+0	1.164415E+0	1.233749E+0	1.233884E+0	1.096886E+0	1.146489E+0	1.185701E+0	1.250937E+0	1.073801E+0	1.000616E+0	1.189306E+0	1.215176E+0	1.072694E+0	1.049636E+0	1.111999E+0	1.261460E+0	1.226100E+0	1.184596E+0	1.190907E+0	1.224627E+0	1.269173E+0	1.183776E+0	1.245764E+0	1.245195E+0	1.163266E+0	1.065073E+0	1.158219E+0	1.236939E+0	1.146879E+0	1.100710E+0	1.211434E+0	1.223844E+0	1.218749E+0	1.103544E+0	1.235453E+0	1.215870E+0	1.154702E+0	1.161051E+0	1.212363E+0	1.234677E+0	1.118655E+0	1.043962E+0	1.239655E+0	1.249552E+0	1.102850E+0	1.048503E+0	1.180438E+0	1.242391E+0	1.185296E+0	1.192974E+0	1.196621E+0	1.328084E+0	1.119784E+0	1.137313E+0	1.219643E+0	1.253761E+0	1.037724E+0	1.022123E+0	1.173891E+0	1.289904E+0	1.043606E+0	1.078083E+0	1.181303E+0	1.243711E+0	1.129977E+0	1.197376E+0	1.258805E+0	1.221509E+0	1.115417E+0	1.116424E+0	1.232375E+0	1.277916E+0	1.003487E+0	1.032357E+0	1.193197E+0	1.239832E+0	1.096095E+0	1.068849E+0	1.226385E+0	1.293907E+0	1.124478E+0	1.227626E+0	1.242244E+0	1.208742E+0	1.165719E+0	1.150321E+0	1.199230E+0	1.274915E+0	1.046831E+0	1.008320E+0	1.215069E+0	1.202395E+0	1.032230E+0	1.116587E+0	1.176022E+0	1.256286E+0	1.142745E+0	1.206848E+0	1.228348E+0	1.257059E+0	1.168378E+0	1.233435E+0	1.191130E+0	1.157444E+0	1.002845E+0	1.070356E+0	1.267511E+0	1.226570E+0	1.057882E+0	1.058189E+0	1.174566E+0	1.200536E+0	1.168656E+0	1.115670E+0	1.249212E+0	1.241481E+0	1.194217E+0	1.215571E+0	1.185301E+0	1.252410E+0	1.104881E+0	1.051232E+0	1.180377E+0	1.261844E+0	1.105959E+0	1.078119E+0	1.172010E+0	1.177247E+0	1.153952E+0	1.134436E+0	1.307510E+0	1.049538E+0	1.150770E+0	1.139411E+0	1.162242E+0	1.084423E+0	1.031818E+0	1.027773E+0	1.269544E+0	1.211553E+0	1.014838E+0	1.061102E+0	1.183903E+0	1.174629E+0	1.126872E+0	1.194093E+0	1.267331E+0	9.992939E-1	9.680748E-1	1.136326E+0	1.159034E+0	1.052414E+0	1.026328E+0	1.093501E+0	1.215720E+0	1.153855E+0	1.129724E+0	1.103012E+0	1.250683E+0	1.101005E+0	1.119977E+0
5.425140E+2	1.151705E+0	9.164349E-1	1.088525E+0	1.074647E+0	1.058172E+0	1.070190E+0	1.142728E+0	1.127517E+0	9.989392E-1	1.009860E+0	1.077748E+0	1.126552E+0	9.396167E-1	9.401949E-1	1.002986E+0	1.112475E+0	1.033106E+0	9.099831E-1	9.778683E-1	1.148092E+0	1.048867E+0	1.072348E+0	1.077216E+0	1.100231E+0	1.153910E+0	1.076853E+0	1.169740E+0	1.091539E+0	1.085966E+0	9.576745E-1	1.075302E+0	1.097168E+0	1.079874E+0	9.885420E-1	1.108832E+0	1.142160E+0	1.076962E+0	1.071419E+0	1.068395E+0	1.116387E+0	1.053369E+0	1.046515E+0	1.092098E+0	1.106514E+0	9.651852E-1	9.403941E-1	1.090174E+0	1.116471E+0	1.049294E+0	9.702705E-1	1.039261E+0	1.070654E+0	1.027272E+0	9.951502E-1	1.091411E+0	1.081981E+0	1.024522E+0	9.902807E-1	1.047039E+0	1.142196E+0	9.236340E-1	9.608520E-1	1.071532E+0	1.163522E+0	9.654197E-1	9.567589E-1	1.086481E+0	1.153064E+0	1.038915E+0	1.074458E+0	1.102128E+0	1.117789E+0	9.969406E-1	1.107872E+0	1.111138E+0	1.124793E+0	9.628980E-1	9.226380E-1	1.074659E+0	1.073685E+0	9.455497E-1	9.899021E-1	1.131202E+0	1.155153E+0	1.042221E+0	1.040770E+0	1.106597E+0	1.112963E+0	1.068458E+0	1.022655E+0	1.134653E+0	1.062945E+0	9.781088E-1	9.210277E-1	1.093479E+0	1.132430E+0	9.743028E-1	9.526996E-1	1.126080E+0	1.117642E+0	1.055719E+0	1.082842E+0	1.082277E+0	1.078197E+0	1.021587E+0	1.063791E+0	1.085757E+0	1.098022E+0	9.109695E-1	9.506828E-1	1.164106E+0	1.153595E+0	9.452265E-1	9.209222E-1	1.106436E+0	1.119704E+0	1.013938E+0	1.037468E+0	1.062581E+0	1.095695E+0	1.019422E+0	1.038405E+0	1.103822E+0	1.074133E+0	9.564940E-1	9.557239E-1	1.097467E+0	1.104024E+0	9.291571E-1	9.426709E-1	1.076065E+0	1.138467E+0	1.019259E+0	1.102370E+0	1.150070E+0	1.094726E+0	1.018909E+0	1.050412E+0	1.110127E+0	1.143807E+0	9.009752E-1	8.878552E-1	1.093300E+0	1.113029E+0	9.601035E-1	9.779737E-1	1.099557E+0	1.070868E+0	1.038548E+0	1.096953E+0	1.186037E+0	9.628315E-1	8.379205E-1	1.059417E+0	1.102929E+0	9.707635E-1	9.315477E-1	9.876730E-1	1.052326E+0	1.042476E+0	9.656072E-1	9.949572E-1	1.133377E+0	1.005582E+0	1.021207E+0
5.427810E+2	1.076881E+0	8.601954E-1	1.004466E+0	1.013725E+0	1.006594E+0	1.006008E+0	1.032508E+0	1.026212E+0	9.309381E-1	9.325243E-1	9.854584E-1	1.031508E+0	8.887589E-1	8.679978E-1	9.747407E-1	1.024089E+0	9.877791E-1	9.161523E-1	9.229956E-1	1.043992E+0	1.035844E+0	1.028195E+0	9.818806E-1	1.009761E+0	1.067123E+0	1.011873E+0	1.004561E+0	1.045501E+0	1.013937E+0	9.137646E-1	1.053190E+0	1.038315E+0	1.044051E+0	9.009691E-1	1.036766E+0	1.028899E+0	1.017448E+0	9.538206E-1	9.647848E-1	1.054209E+0	8.924636E-1	1.012790E+0	1.007279E+0	1.074162E+0	8.621466E-1	8.815969E-1	1.034719E+0	1.055235E+0	9.239284E-1	8.508959E-1	1.036343E+0	1.047146E+0	1.016739E+0	9.798899E-1	9.984818E-1	1.018112E+0	9.003741E-1	9.074197E-1	9.989885E-1	1.016444E+0	8.482932E-1	9.109666E-1	9.662517E-1	1.077082E+0	8.243015E-1	9.244058E-1	9.897591E-1	1.037013E+0	9.727415E-1	1.006234E+0	1.065573E+0	1.045516E+0	8.934371E-1	1.011362E+0	1.042042E+0	1.052261E+0	8.165494E-1	8.694571E-1	1.007013E+0	1.029380E+0	9.054850E-1	8.797432E-1	1.086180E+0	1.063351E+0	9.651408E-1	1.032882E+0	1.059442E+0	1.026470E+0	9.448442E-1	9.632021E-1	1.059207E+0	1.004136E+0	8.744705E-1	8.624938E-1	9.917538E-1	1.028427E+0	9.206896E-1	8.873770E-1	1.002257E+0	1.077544E+0	9.653025E-1	9.814835E-1	1.082894E+0	1.107262E+0	9.648437E-1	9.561178E-1	1.004242E+0	1.071123E+0	8.776107E-1	8.799929E-1	1.050365E+0	1.048187E+0	8.461694E-1	8.743705E-1	1.021596E+0	1.052100E+0	9.365789E-1	9.362016E-1	1.056749E+0	1.072573E+0	1.035247E+0	9.504043E-1	1.022980E+0	1.063120E+0	9.179764E-1	9.325370E-1	1.042404E+0	1.036478E+0	8.918393E-1	9.388910E-1	1.014633E+0	1.047537E+0	9.779068E-1	9.895489E-1	1.031677E+0	1.015509E+0	9.616862E-1	9.497192E-1	1.060755E+0	1.067280E+0	9.104796E-1	8.635680E-1	1.024447E+0	1.105172E+0	8.737160E-1	9.209367E-1	1.077930E+0	1.130160E+0	9.913044E-1	1.015284E+0	1.003292E+0	1.033992E+0	7.826659E-1	1.001565E+0	9.835280E-1	1.015539E+0	8.216293E-1	9.021977E-1	1.041742E+0	1.084636E+0	9.434873E-1	9.293246E-1	1.039532E+0	9.695730E-1	9.514870E-1
5.430120E+2	1.010164E+0	8.707822E-1	1.088525E+0	1.081648E+0	1.066007E+0	1.038099E+0	1.057896E+0	1.109156E+0	1.019527E+0	9.570136E-1	1.033002E+0	1.092524E+0	9.120232E-1	8.895055E-1	1.017112E+0	1.047119E+0	1.000974E+0	9.200785E-1	9.979878E-1	1.093190E+0	1.033013E+0	1.075542E+0	1.073070E+0	1.081185E+0	1.044071E+0	1.076853E+0	1.063307E+0	1.065230E+0	1.053758E+0	9.492109E-1	1.010810E+0	1.095328E+0	1.013534E+0	9.945405E-1	1.031271E+0	1.024780E+0	1.081629E+0	1.006024E+0	1.038710E+0	1.072860E+0	9.649326E-1	9.472488E-1	1.014875E+0	1.034964E+0	8.935997E-1	8.983204E-1	1.034720E+0	1.117061E+0	9.440109E-1	9.320251E-1	9.885073E-1	1.077836E+0	1.046588E+0	9.924246E-1	1.057512E+0	1.085833E+0	9.839590E-1	9.859197E-1	9.964595E-1	1.093829E+0	8.800442E-1	9.304860E-1	9.732699E-1	1.105698E+0	9.317298E-1	9.611140E-1	1.027689E+0	1.102250E+0	1.033451E+0	1.031524E+0	1.030755E+0	1.073652E+0	9.715528E-1	9.960906E-1	1.049864E+0	1.051641E+0	8.868656E-1	9.164794E-1	1.026871E+0	1.050367E+0	8.903089E-1	9.635864E-1	1.007717E+0	1.054941E+0	1.019213E+0	1.026815E+0	1.063516E+0	1.072910E+0	9.423342E-1	1.002002E+0	1.069436E+0	1.085563E+0	8.861089E-1	8.717356E-1	1.027268E+0	1.073181E+0	8.997371E-1	9.007915E-1	1.038515E+0	1.095894E+0	1.002033E+0	1.047734E+0	1.040985E+0	1.037951E+0	1.037623E+0	9.930517E-1	1.018159E+0	1.086135E+0	9.087832E-1	8.677471E-1	1.037591E+0	1.064982E+0	8.778933E-1	9.197284E-1	9.843178E-1	1.074880E+0	1.020331E+0	9.828968E-1	1.072494E+0	1.091839E+0	9.949649E-1	9.970289E-1	1.070085E+0	1.061743E+0	9.476541E-1	9.176321E-1	1.059492E+0	1.048758E+0	9.383337E-1	9.269214E-1	1.083657E+0	1.075618E+0	1.023395E+0	9.675789E-1	1.079539E+0	1.081337E+0	9.616859E-1	9.886964E-1	1.042926E+0	1.034835E+0	8.819639E-1	8.503690E-1	1.071192E+0	1.099732E+0	8.915213E-1	9.172963E-1	1.070721E+0	1.093455E+0	1.026908E+0	1.054263E+0	1.074508E+0	1.013996E+0	7.955587E-1	9.716189E-1	1.104368E+0	1.132090E+0	8.512477E-1	9.149898E-1	1.043726E+0	1.053173E+0	9.748834E-1	9.861532E-1	1.067686E+0	1.007382E+0	1.079306E+0
5.432960E+2	1.173527E+0	9.825991E-1	1.171270E+0	1.163577E+0	1.149576E+0	1.141201E+0	1.218272E+0	1.123085E+0	1.066941E+0	1.127799E+0	1.074952E+0	1.202826E+0	1.018612E+0	1.006759E+0	1.074146E+0	1.203973E+0	1.044582E+0	1.048515E+0	1.138828E+0	1.294258E+0	1.149090E+0	1.186724E+0	1.185578E+0	1.141301E+0	1.165437E+0	1.136519E+0	1.200149E+0	1.209324E+0	1.159753E+0	1.020104E+0	1.131807E+0	1.204449E+0	1.203269E+0	1.046725E+0	1.141812E+0	1.221786E+0	1.167400E+0	1.104118E+0	1.154543E+0	1.197219E+0	1.085918E+0	1.095510E+0	1.147167E+0	1.194860E+0	1.069307E+0	9.986514E-1	1.176368E+0	1.242484E+0	1.071203E+0	1.013735E+0	1.118017E+0	1.241086E+0	1.137303E+0	1.082890E+0	1.207139E+0	1.143093E+0	1.066313E+0	1.150395E+0	1.078021E+0	1.233127E+0	1.015660E+0	1.069297E+0	1.142304E+0	1.238636E+0	1.041700E+0	1.023954E+0	1.144640E+0	1.171606E+0	1.047414E+0	1.099745E+0	1.166538E+0	1.228682E+0	1.095888E+0	1.126197E+0	1.212821E+0	1.145871E+0	9.989126E-1	9.830943E-1	1.136100E+0	1.185615E+0	9.880412E-1	1.019890E+0	1.169790E+0	1.221726E+0	1.117579E+0	1.117212E+0	1.168309E+0	1.207000E+0	1.107364E+0	1.068964E+0	1.233119E+0	1.185732E+0	9.697950E-1	9.862392E-1	1.121771E+0	1.206180E+0	1.028532E+0	1.007524E+0	1.184230E+0	1.222984E+0	1.102057E+0	1.124742E+0	1.174726E+0	1.221287E+0	1.129521E+0	1.145794E+0	1.149378E+0	1.239388E+0	1.055891E+0	1.012467E+0	1.176880E+0	1.161123E+0	9.957269E-1	1.000894E+0	1.187418E+0	1.229195E+0	1.104722E+0	1.116795E+0	1.156480E+0	1.202305E+0	1.161848E+0	1.052393E+0	1.213309E+0	1.198033E+0	1.019006E+0	1.044607E+0	1.150629E+0	1.177716E+0	1.025204E+0	1.018900E+0	1.185125E+0	1.228058E+0	1.096648E+0	1.119590E+0	1.190375E+0	1.210204E+0	1.054984E+0	1.091338E+0	1.138241E+0	1.164011E+0	1.010010E+0	9.617738E-1	1.177949E+0	1.184958E+0	1.022092E+0	1.047146E+0	1.177415E+0	1.188744E+0	1.083052E+0	1.103758E+0	1.153786E+0	1.173959E+0	9.386061E-1	1.119991E+0	1.175577E+0	1.167648E+0	9.894684E-1	1.033027E+0	1.199844E+0	1.138124E+0	1.074067E+0	1.054988E+0	1.214319E+0	1.189227E+0	1.273939E+0
5.435330E+2	1.384903E+0	1.148009E+0	1.331508E+0	1.331638E+0	1.353276E+0	1.318044E+0	1.355734E+0	1.394070E+0	1.264705E+0	1.233493E+0	1.332250E+0	1.301393E+0	1.152795E+0	1.172143E+0	1.234391E+0	1.356467E+0	1.182282E+0	1.169658E+0	1.221747E+0	1.397646E+0	1.306502E+0	1.345255E+0	1.347824E+0	1.330574E+0	1.357316E+0	1.255256E+0	1.399193E+0	1.306183E+0	1.288002E+0	1.220087E+0	1.368274E+0	1.384067E+0	1.316710E+0	1.265060E+0	1.318923E+0	1.387899E+0	1.348864E+0	1.241796E+0	1.348961E+0	1.359450E+0	1.212430E+0	1.244410E+0	1.393392E+0	1.363464E+0	1.159871E+0	1.140518E+0	1.301741E+0	1.329046E+0	1.292724E+0	1.104716E+0	1.303530E+0	1.348830E+0	1.269575E+0	1.293793E+0	1.346831E+0	1.352861E+0	1.223650E+0	1.252570E+0	1.315112E+0	1.300838E+0	1.131903E+0	1.103459E+0	1.261622E+0	1.356674E+0	1.151669E+0	1.198783E+0	1.295728E+0	1.352207E+0	1.193117E+0	1.272066E+0	1.342364E+0	1.363297E+0	1.198087E+0	1.320439E+0	1.339929E+0	1.320073E+0	1.114963E+0	1.139275E+0	1.293736E+0	1.336017E+0	1.111876E+0	1.192473E+0	1.327360E+0	1.344364E+0	1.267712E+0	1.319236E+0	1.345293E+0	1.338189E+0	1.215918E+0	1.230427E+0	1.348208E+0	1.245832E+0	1.164877E+0	1.056584E+0	1.318001E+0	1.358715E+0	1.147465E+0	1.116005E+0	1.251273E+0	1.356188E+0	1.260854E+0	1.325195E+0	1.317713E+0	1.290594E+0	1.255342E+0	1.246581E+0	1.352837E+0	1.320083E+0	1.102920E+0	1.178341E+0	1.363006E+0	1.324446E+0	1.132984E+0	1.101756E+0	1.361597E+0	1.325456E+0	1.239621E+0	1.234381E+0	1.339612E+0	1.353231E+0	1.215076E+0	1.286671E+0	1.306885E+0	1.343268E+0	1.184443E+0	1.177104E+0	1.307588E+0	1.293775E+0	1.129816E+0	1.162538E+0	1.370799E+0	1.365124E+0	1.249062E+0	1.280509E+0	1.340884E+0	1.315640E+0	1.178137E+0	1.226461E+0	1.293900E+0	1.321345E+0	1.145323E+0	1.086906E+0	1.303024E+0	1.307659E+0	1.161236E+0	1.147872E+0	1.393686E+0	1.269212E+0	1.252169E+0	1.302985E+0	1.392967E+0	1.346862E+0	1.055868E+0	1.200983E+0	1.319434E+0	1.294074E+0	1.152703E+0	1.133621E+0	1.369855E+0	1.313060E+0	1.181099E+0	1.221471E+0	1.318720E+0	1.230638E+0	1.361088E+0
5.437640E+2	1.538912E+0	1.265781E+0	1.496346E+0	1.540312E+0	1.477976E+0	1.515366E+0	1.531587E+0	1.476382E+0	1.362029E+0	1.352720E+0	1.394898E+0	1.507916E+0	1.252350E+0	1.308345E+0	1.397351E+0	1.452323E+0	1.277526E+0	1.284072E+0	1.316249E+0	1.512440E+0	1.477508E+0	1.479844E+0	1.404673E+0	1.468065E+0	1.538344E+0	1.439565E+0	1.506319E+0	1.453863E+0	1.436742E+0	1.294684E+0	1.480671E+0	1.531195E+0	1.485880E+0	1.306450E+0	1.461835E+0	1.521755E+0	1.431133E+0	1.398403E+0	1.449662E+0	1.478716E+0	1.311923E+0	1.409216E+0	1.485175E+0	1.516514E+0	1.264534E+0	1.273216E+0	1.469307E+0	1.521597E+0	1.417480E+0	1.286677E+0	1.386370E+0	1.458532E+0	1.425841E+0	1.335757E+0	1.520424E+0	1.432694E+0	1.334893E+0	1.350384E+0	1.385922E+0	1.485921E+0	1.294966E+0	1.301373E+0	1.445866E+0	1.521208E+0	1.278804E+0	1.304552E+0	1.425320E+0	1.415387E+0	1.367959E+0	1.434975E+0	1.472349E+0	1.486328E+0	1.339348E+0	1.407177E+0	1.468338E+0	1.452739E+0	1.262456E+0	1.217089E+0	1.465643E+0	1.533063E+0	1.264847E+0	1.278151E+0	1.475924E+0	1.421448E+0	1.379883E+0	1.421764E+0	1.489092E+0	1.472281E+0	1.429264E+0	1.391263E+0	1.529155E+0	1.519842E+0	1.227503E+0	1.270186E+0	1.415511E+0	1.483518E+0	1.294130E+0	1.281646E+0	1.409301E+0	1.498907E+0	1.383482E+0	1.407863E+0	1.510621E+0	1.513611E+0	1.432971E+0	1.366148E+0	1.449594E+0	1.463328E+0	1.241827E+0	1.210624E+0	1.426266E+0	1.460552E+0	1.254055E+0	1.274237E+0	1.512636E+0	1.487854E+0	1.416714E+0	1.397533E+0	1.479002E+0	1.484891E+0	1.387715E+0	1.417215E+0	1.517587E+0	1.431377E+0	1.304414E+0	1.256601E+0	1.474042E+0	1.500722E+0	1.294383E+0	1.321927E+0	1.466054E+0	1.460731E+0	1.475910E+0	1.354732E+0	1.452984E+0	1.499179E+0	1.296314E+0	1.354436E+0	1.479732E+0	1.465212E+0	1.231433E+0	1.196728E+0	1.464738E+0	1.484153E+0	1.267406E+0	1.291678E+0	1.503265E+0	1.512734E+0	1.390477E+0	1.377851E+0	1.505166E+0	1.458603E+0	1.174358E+0	1.356845E+0	1.433803E+0	1.458692E+0	1.206015E+0	1.302826E+0	1.471068E+0	1.479814E+0	1.288131E+0	1.355939E+0	1.412566E+0	1.466496E+0	1.523768E+0
5.440170E+2	1.677336E+0	1.329299E+0	1.621118E+0	1.604732E+0	1.611816E+0	1.600032E+0	1.700633E+0	1.626438E+0	1.446877E+0	1.527369E+0	1.549274E+0	1.645208E+0	1.399516E+0	1.395902E+0	1.483722E+0	1.629717E+0	1.432437E+0	1.352496E+0	1.510130E+0	1.657179E+0	1.542060E+0	1.579324E+0	1.529023E+0	1.606742E+0	1.678697E+0	1.607332E+0	1.626574E+0	1.633229E+0	1.535709E+0	1.450755E+0	1.585703E+0	1.616410E+0	1.549567E+0	1.486394E+0	1.548557E+0	1.608931E+0	1.634186E+0	1.487320E+0	1.627782E+0	1.613810E+0	1.440275E+0	1.514207E+0	1.581387E+0	1.659611E+0	1.409870E+0	1.372470E+0	1.631449E+0	1.613456E+0	1.485639E+0	1.395622E+0	1.538631E+0	1.551259E+0	1.510119E+0	1.536852E+0	1.642578E+0	1.624291E+0	1.460272E+0	1.460656E+0	1.563585E+0	1.585877E+0	1.381607E+0	1.417409E+0	1.542374E+0	1.696474E+0	1.417378E+0	1.433965E+0	1.539113E+0	1.604230E+0	1.463273E+0	1.602591E+0	1.607554E+0	1.679427E+0	1.461729E+0	1.498801E+0	1.601963E+0	1.652359E+0	1.329913E+0	1.357034E+0	1.554391E+0	1.657814E+0	1.437853E+0	1.424417E+0	1.549245E+0	1.588233E+0	1.531172E+0	1.515798E+0	1.568853E+0	1.697510E+0	1.498286E+0	1.487008E+0	1.635290E+0	1.611611E+0	1.351647E+0	1.327181E+0	1.546131E+0	1.641730E+0	1.423542E+0	1.378460E+0	1.639846E+0	1.597454E+0	1.502154E+0	1.601517E+0	1.538972E+0	1.653347E+0	1.539054E+0	1.525776E+0	1.551654E+0	1.597814E+0	1.342450E+0	1.394311E+0	1.610566E+0	1.592024E+0	1.342756E+0	1.385842E+0	1.600046E+0	1.653191E+0	1.542660E+0	1.531432E+0	1.577570E+0	1.649944E+0	1.504965E+0	1.537851E+0	1.616250E+0	1.581433E+0	1.385871E+0	1.423877E+0	1.583533E+0	1.667752E+0	1.385537E+0	1.401935E+0	1.580634E+0	1.599134E+0	1.493636E+0	1.476460E+0	1.564449E+0	1.606289E+0	1.456786E+0	1.513595E+0	1.602478E+0	1.579695E+0	1.383523E+0	1.307606E+0	1.568337E+0	1.545204E+0	1.347200E+0	1.416675E+0	1.627259E+0	1.593199E+0	1.592458E+0	1.577697E+0	1.601244E+0	1.655027E+0	1.260924E+0	1.463697E+0	1.540255E+0	1.610803E+0	1.340945E+0	1.367369E+0	1.659599E+0	1.626434E+0	1.403014E+0	1.456790E+0	1.608466E+0	1.576323E+0	1.491814E+0
5.442920E+2	1.697915E+0	1.428544E+0	1.632941E+0	1.674761E+0	1.669272E+0	1.625299E+0	1.708681E+0	1.692287E+0	1.598473E+0	1.564106E+0	1.641569E+0	1.753749E+0	1.546141E+0	1.469634E+0	1.564116E+0	1.746734E+0	1.589642E+0	1.447843E+0	1.522325E+0	1.752015E+0	1.669463E+0	1.658056E+0	1.594748E+0	1.657934E+0	1.748529E+0	1.655770E+0	1.713653E+0	1.678072E+0	1.581974E+0	1.480909E+0	1.607198E+0	1.731046E+0	1.673623E+0	1.493594E+0	1.643835E+0	1.752393E+0	1.719374E+0	1.568201E+0	1.662127E+0	1.680514E+0	1.560031E+0	1.573384E+0	1.672535E+0	1.683254E+0	1.447291E+0	1.440978E+0	1.721261E+0	1.735934E+0	1.544671E+0	1.433289E+0	1.617384E+0	1.672717E+0	1.558698E+0	1.564100E+0	1.650177E+0	1.710180E+0	1.479324E+0	1.598343E+0	1.560422E+0	1.723235E+0	1.450493E+0	1.446688E+0	1.623089E+0	1.707205E+0	1.482217E+0	1.492451E+0	1.609916E+0	1.688693E+0	1.578621E+0	1.597296E+0	1.675445E+0	1.677772E+0	1.522270E+0	1.593479E+0	1.645636E+0	1.706912E+0	1.403658E+0	1.437083E+0	1.627004E+0	1.660149E+0	1.468203E+0	1.536414E+0	1.667581E+0	1.685642E+0	1.558209E+0	1.616506E+0	1.736519E+0	1.698670E+0	1.507073E+0	1.558355E+0	1.685159E+0	1.700147E+0	1.420925E+0	1.411901E+0	1.649665E+0	1.721151E+0	1.414915E+0	1.489858E+0	1.652161E+0	1.732699E+0	1.558661E+0	1.586794E+0	1.625873E+0	1.637139E+0	1.561873E+0	1.585874E+0	1.676246E+0	1.675378E+0	1.394401E+0	1.471679E+0	1.651319E+0	1.675422E+0	1.405554E+0	1.433585E+0	1.671387E+0	1.673033E+0	1.568235E+0	1.548313E+0	1.602062E+0	1.650587E+0	1.573302E+0	1.601960E+0	1.664628E+0	1.644069E+0	1.423755E+0	1.508344E+0	1.608213E+0	1.701531E+0	1.473020E+0	1.463041E+0	1.674511E+0	1.658638E+0	1.631873E+0	1.616001E+0	1.687884E+0	1.662635E+0	1.560038E+0	1.517494E+0	1.580534E+0	1.606021E+0	1.410920E+0	1.330309E+0	1.664352E+0	1.681805E+0	1.366980E+0	1.436092E+0	1.695747E+0	1.690610E+0	1.582875E+0	1.632758E+0	1.644241E+0	1.637973E+0	1.312495E+0	1.535841E+0	1.659657E+0	1.593023E+0	1.441647E+0	1.462730E+0	1.635786E+0	1.623288E+0	1.508619E+0	1.610467E+0	1.579141E+0	1.711358E+0	1.581868E+0
5.445070E+2	1.678586E+0	1.468242E+0	1.732104E+0	1.630643E+0	1.690815E+0	1.711327E+0	1.771838E+0	1.700516E+0	1.703286E+0	1.615664E+0	1.612481E+0	1.691558E+0	1.744710E+0	1.464512E+0	1.592908E+0	1.716236E+0	1.717019E+0	1.426530E+0	1.484521E+0	1.660747E+0	1.679654E+0	1.620819E+0	1.601856E+0	1.732926E+0	1.720732E+0	1.628597E+0	1.653528E+0	1.652961E+0	1.670400E+0	1.521120E+0	1.610269E+0	1.745761E+0	1.638466E+0	1.479200E+0	1.607186E+0	1.686497E+0	1.678530E+0	1.610079E+0	1.679587E+0	1.730255E+0	1.540995E+0	1.527570E+0	1.680763E+0	1.705650E+0	1.503689E+0	1.445292E+0	1.610352E+0	1.699428E+0	1.541630E+0	1.454150E+0	1.596968E+0	1.706673E+0	1.651173E+0	1.601702E+0	1.629717E+0	1.649065E+0	1.529723E+0	1.563454E+0	1.666642E+0	1.734841E+0	1.384835E+0	1.428251E+0	1.606126E+0	1.770397E+0	1.491751E+0	1.487472E+0	1.627612E+0	1.629634E+0	1.574370E+0	1.575538E+0	1.642953E+0	1.762734E+0	1.542449E+0	1.648455E+0	1.681482E+0	1.699475E+0	1.418522E+0	1.435405E+0	1.644380E+0	1.677635E+0	1.479131E+0	1.469093E+0	1.626418E+0	1.726988E+0	1.607102E+0	1.699624E+0	1.707414E+0	1.647005E+0	1.608099E+0	1.546463E+0	1.683245E+0	1.714364E+0	1.451962E+0	1.362609E+0	1.640032E+0	1.699090E+0	1.453123E+0	1.433869E+0	1.591957E+0	1.763279E+0	1.584091E+0	1.577735E+0	1.693667E+0	1.652789E+0	1.620468E+0	1.564590E+0	1.674925E+0	1.662869E+0	1.437605E+0	1.410453E+0	1.673215E+0	1.698585E+0	1.410733E+0	1.426425E+0	1.654677E+0	1.691403E+0	1.629610E+0	1.623699E+0	1.613726E+0	1.652516E+0	1.616457E+0	1.596131E+0	1.717462E+0	1.675046E+0	1.528575E+0	1.523249E+0	1.636693E+0	1.703371E+0	1.484644E+0	1.509660E+0	1.751819E+0	1.750907E+0	1.571026E+0	1.548901E+0	1.667100E+0	1.630279E+0	1.514013E+0	1.557768E+0	1.726593E+0	1.666017E+0	1.362834E+0	1.344567E+0	1.675094E+0	1.703566E+0	1.450732E+0	1.462180E+0	1.677723E+0	1.675080E+0	1.561648E+0	1.549851E+0	1.721505E+0	1.689726E+0	1.351788E+0	1.497731E+0	1.609304E+0	1.589732E+0	1.376489E+0	1.481916E+0	1.614615E+0	1.706982E+0	1.429413E+0	1.547236E+0	1.642485E+0	1.504305E+0	1.651587E+0
5.447720E+2	1.715998E+0	1.332607E+0	1.706491E+0	1.668457E+0	1.627485E+0	1.637585E+0	1.726634E+0	1.685953E+0	1.676457E+0	1.495793E+0	1.641010E+0	1.693320E+0	1.714953E+0	1.440448E+0	1.579868E+0	1.653369E+0	1.616039E+0	1.387270E+0	1.467449E+0	1.650051E+0	1.676825E+0	1.621884E+0	1.601264E+0	1.649599E+0	1.723444E+0	1.616190E+0	1.626571E+0	1.636221E+0	1.687381E+0	1.484616E+0	1.621325E+0	1.665454E+0	1.636474E+0	1.512188E+0	1.607798E+0	1.683753E+0	1.694870E+0	1.542386E+0	1.592857E+0	1.648295E+0	1.697602E+0	1.477936E+0	1.582653E+0	1.634726E+0	1.673431E+0	1.424255E+0	1.619995E+0	1.671165E+0	1.670039E+0	1.488923E+0	1.588799E+0	1.645289E+0	1.654682E+0	1.528131E+0	1.654267E+0	1.620988E+0	1.550001E+0	1.523582E+0	1.596461E+0	1.662616E+0	1.487087E+0	1.423374E+0	1.604373E+0	1.658919E+0	1.531162E+0	1.462586E+0	1.567560E+0	1.652983E+0	1.598045E+0	1.574951E+0	1.638307E+0	1.643015E+0	1.507945E+0	1.513460E+0	1.635204E+0	1.680873E+0	1.366499E+0	1.378306E+0	1.648729E+0	1.660146E+0	1.449992E+0	1.456853E+0	1.683015E+0	1.710172E+0	1.561658E+0	1.607408E+0	1.679466E+0	1.613336E+0	1.584880E+0	1.523309E+0	1.602042E+0	1.707898E+0	1.391551E+0	1.319990E+0	1.627393E+0	1.671984E+0	1.454356E+0	1.385458E+0	1.639846E+0	1.700753E+0	1.524191E+0	1.589628E+0	1.617861E+0	1.670115E+0	1.558173E+0	1.539549E+0	1.600698E+0	1.592183E+0	1.317838E+0	1.405999E+0	1.617867E+0	1.623875E+0	1.386780E+0	1.401358E+0	1.574979E+0	1.643643E+0	1.509417E+0	1.567440E+0	1.586316E+0	1.674996E+0	1.615020E+0	1.585058E+0	1.632165E+0	1.614468E+0	1.428805E+0	1.464728E+0	1.643655E+0	1.672053E+0	1.439373E+0	1.475012E+0	1.664844E+0	1.643261E+0	1.539715E+0	1.584529E+0	1.599718E+0	1.634186E+0	1.471092E+0	1.452531E+0	1.642250E+0	1.668467E+0	1.393026E+0	1.315527E+0	1.589814E+0	1.605647E+0	1.446116E+0	1.415461E+0	1.643123E+0	1.620020E+0	1.606838E+0	1.580169E+0	1.620725E+0	1.630916E+0	1.574029E+0	1.533802E+0	1.615779E+0	1.648994E+0	1.421902E+0	1.387138E+0	1.664234E+0	1.588051E+0	1.480076E+0	1.463992E+0	1.640139E+0	1.533112E+0	1.433714E+0
5.450150E+2	1.639302E+0	1.288936E+0	1.585001E+0	1.591434E+0	1.590273E+0	1.550188E+0	1.607129E+0	1.620741E+0	1.558548E+0	1.463570E+0	1.564376E+0	1.585948E+0	1.609989E+0	1.364668E+0	1.471774E+0	1.603577E+0	1.594809E+0	1.397365E+0	1.460744E+0	1.598001E+0	1.638885E+0	1.507505E+0	1.526061E+0	1.608530E+0	1.617674E+0	1.611466E+0	1.505627E+0	1.586596E+0	1.625895E+0	1.438587E+0	1.478216E+0	1.633574E+0	1.580083E+0	1.370632E+0	1.484432E+0	1.546466E+0	1.571754E+0	1.489039E+0	1.539888E+0	1.591203E+0	1.637415E+0	1.512299E+0	1.507960E+0	1.583087E+0	1.631672E+0	1.333633E+0	1.528981E+0	1.583423E+0	1.577534E+0	1.339989E+0	1.524044E+0	1.513383E+0	1.681604E+0	1.422406E+0	1.604003E+0	1.568681E+0	1.537710E+0	1.414554E+0	1.557894E+0	1.560081E+0	1.575884E+0	1.364812E+0	1.538862E+0	1.614803E+0	1.583288E+0	1.382323E+0	1.480321E+0	1.574700E+0	1.642971E+0	1.476144E+0	1.538498E+0	1.564672E+0	1.480605E+0	1.407789E+0	1.626079E+0	1.568666E+0	1.424809E+0	1.331844E+0	1.523981E+0	1.570953E+0	1.450600E+0	1.369337E+0	1.596192E+0	1.602248E+0	1.487453E+0	1.524899E+0	1.586315E+0	1.626689E+0	1.477583E+0	1.459475E+0	1.575829E+0	1.617426E+0	1.333358E+0	1.325640E+0	1.505202E+0	1.612735E+0	1.303992E+0	1.353379E+0	1.580328E+0	1.624638E+0	1.508934E+0	1.510920E+0	1.550068E+0	1.512497E+0	1.466893E+0	1.435633E+0	1.541716E+0	1.541517E+0	1.346276E+0	1.390414E+0	1.563119E+0	1.548002E+0	1.347932E+0	1.299301E+0	1.549270E+0	1.636291E+0	1.426943E+0	1.524684E+0	1.540823E+0	1.597923E+0	1.524385E+0	1.466170E+0	1.610519E+0	1.554586E+0	1.332828E+0	1.376400E+0	1.562645E+0	1.578710E+0	1.387985E+0	1.328224E+0	1.549577E+0	1.615179E+0	1.543261E+0	1.452705E+0	1.590902E+0	1.526512E+0	1.425066E+0	1.456427E+0	1.575734E+0	1.620101E+0	1.315864E+0	1.297045E+0	1.567075E+0	1.558501E+0	1.359066E+0	1.399685E+0	1.561657E+0	1.538850E+0	1.487703E+0	1.495405E+0	1.585118E+0	1.537995E+0	1.471505E+0	1.404483E+0	1.561835E+0	1.569976E+0	1.306060E+0	1.364462E+0	1.563680E+0	1.594343E+0	1.457243E+0	1.452786E+0	1.594390E+0	1.482701E+0	1.413379E+0
5.452580E+2	1.553255E+0	1.212850E+0	1.533118E+0	1.545213E+0	1.484507E+0	1.458698E+0	1.562548E+0	1.502972E+0	1.496161E+0	1.415878E+0	1.481037E+0	1.533730E+0	1.519089E+0	1.289909E+0	1.427773E+0	1.540708E+0	1.519648E+0	1.262200E+0	1.376608E+0	1.518856E+0	1.493365E+0	1.473994E+0	1.507113E+0	1.507348E+0	1.543092E+0	1.502772E+0	1.481439E+0	1.492127E+0	1.504089E+0	1.364517E+0	1.464088E+0	1.485219E+0	1.525023E+0	1.334042E+0	1.464887E+0	1.545093E+0	1.504653E+0	1.419626E+0	1.490410E+0	1.546548E+0	1.478965E+0	1.364037E+0	1.459223E+0	1.542647E+0	1.510737E+0	1.309896E+0	1.468705E+0	1.567526E+0	1.561710E+0	1.314492E+0	1.406204E+0	1.502936E+0	1.556357E+0	1.405511E+0	1.483013E+0	1.518583E+0	1.532178E+0	1.389634E+0	1.478231E+0	1.524611E+0	1.460178E+0	1.294325E+0	1.420129E+0	1.563534E+0	1.561038E+0	1.336905E+0	1.489801E+0	1.547231E+0	1.549479E+0	1.404981E+0	1.510646E+0	1.531019E+0	1.509899E+0	1.435275E+0	1.557638E+0	1.481877E+0	1.528856E+0	1.266349E+0	1.450129E+0	1.504496E+0	1.553796E+0	1.294063E+0	1.457273E+0	1.531472E+0	1.539797E+0	1.421764E+0	1.532757E+0	1.507690E+0	1.461266E+0	1.354338E+0	1.554089E+0	1.559909E+0	1.460828E+0	1.221405E+0	1.437785E+0	1.527012E+0	1.439563E+0	1.281642E+0	1.427088E+0	1.591333E+0	1.385741E+0	1.492234E+0	1.510007E+0	1.449331E+0	1.365125E+0	1.368026E+0	1.446944E+0	1.535888E+0	1.274090E+0	1.285210E+0	1.544265E+0	1.517887E+0	1.264415E+0	1.319593E+0	1.483068E+0	1.519451E+0	1.433338E+0	1.434663E+0	1.431762E+0	1.556822E+0	1.356783E+0	1.433532E+0	1.484484E+0	1.468548E+0	1.323358E+0	1.365359E+0	1.449988E+0	1.514847E+0	1.302949E+0	1.343976E+0	1.486761E+0	1.470091E+0	1.448740E+0	1.434300E+0	1.502734E+0	1.539347E+0	1.329278E+0	1.399262E+0	1.479733E+0	1.499498E+0	1.274487E+0	1.243191E+0	1.472949E+0	1.496243E+0	1.219927E+0	1.291678E+0	1.429010E+0	1.562851E+0	1.415126E+0	1.460139E+0	1.573024E+0	1.504475E+0	1.380641E+0	1.433753E+0	1.522991E+0	1.523226E+0	1.303427E+0	1.301083E+0	1.502158E+0	1.504986E+0	1.306685E+0	1.315118E+0	1.386757E+0	1.414284E+0	1.424999E+0
5.455130E+2	1.415456E+0	1.208218E+0	1.452343E+0	1.387660E+0	1.452515E+0	1.369251E+0	1.455426E+0	1.461818E+0	1.418802E+0	1.369478E+0	1.439646E+0	1.428710E+0	1.519092E+0	1.214131E+0	1.364217E+0	1.489047E+0	1.484075E+0	1.218450E+0	1.316250E+0	1.453971E+0	1.421451E+0	1.398985E+0	1.383946E+0	1.437114E+0	1.447494E+0	1.408845E+0	1.397809E+0	1.435926E+0	1.528098E+0	1.241777E+0	1.391614E+0	1.461923E+0	1.476593E+0	1.278856E+0	1.361673E+0	1.438695E+0	1.452139E+0	1.319810E+0	1.407753E+0	1.469107E+0	1.462997E+0	1.287041E+0	1.347820E+0	1.527714E+0	1.428308E+0	1.259193E+0	1.401799E+0	1.483909E+0	1.458256E+0	1.242635E+0	1.362452E+0	1.429149E+0	1.461543E+0	1.300334E+0	1.428658E+0	1.435446E+0	1.433844E+0	1.318610E+0	1.335342E+0	1.393700E+0	1.420357E+0	1.235219E+0	1.433000E+0	1.459209E+0	1.479040E+0	1.264113E+0	1.373484E+0	1.517705E+0	1.393458E+0	1.408511E+0	1.358031E+0	1.435573E+0	1.365388E+0	1.331434E+0	1.420105E+0	1.381444E+0	1.448820E+0	1.193016E+0	1.391794E+0	1.407725E+0	1.399608E+0	1.283660E+0	1.382026E+0	1.436867E+0	1.410371E+0	1.339864E+0	1.492586E+0	1.447901E+0	1.446833E+0	1.301143E+0	1.473529E+0	1.417735E+0	1.439212E+0	1.212164E+0	1.373378E+0	1.402836E+0	1.491327E+0	1.230902E+0	1.424352E+0	1.437742E+0	1.421906E+0	1.368228E+0	1.447754E+0	1.394556E+0	1.400282E+0	1.322951E+0	1.383984E+0	1.392642E+0	1.386745E+0	1.199493E+0	1.395853E+0	1.400319E+0	1.313618E+0	1.211571E+0	1.450292E+0	1.386448E+0	1.393058E+0	1.369967E+0	1.451007E+0	1.402683E+0	1.394189E+0	1.330383E+0	1.433558E+0	1.407974E+0	1.216012E+0	1.264330E+0	1.342398E+0	1.490897E+0	1.271136E+0	1.243808E+0	1.398412E+0	1.435325E+0	1.409158E+0	1.366014E+0	1.465577E+0	1.444508E+0	1.324925E+0	1.251797E+0	1.417331E+0	1.426646E+0	1.233110E+0	1.144458E+0	1.471055E+0	1.421895E+0	1.258173E+0	1.248598E+0	1.424685E+0	1.432970E+0	1.358299E+0	1.390225E+0	1.477620E+0	1.428022E+0	1.288550E+0	1.308519E+0	1.384888E+0	1.450793E+0	1.207331E+0	1.259214E+0	1.419471E+0	1.432620E+0	1.257449E+0	1.259890E+0	1.375027E+0	1.443090E+0	1.477288E+0
5.457890E+2	1.348117E+0	1.333267E+0	1.422792E+0	1.321134E+0	1.356542E+0	1.353546E+0	1.357590E+0	1.325692E+0	1.363277E+0	1.251538E+0	1.276878E+0	1.326035E+0	1.380580E+0	1.179314E+0	1.274590E+0	1.315388E+0	1.408911E+0	1.184238E+0	1.228452E+0	1.395506E+0	1.405598E+0	1.335149E+0	1.323548E+0	1.424020E+0	1.381046E+0	1.296016E+0	1.316258E+0	1.354012E+0	1.345390E+0	1.186756E+0	1.339406E+0	1.439241E+0	1.352535E+0	1.242869E+0	1.303656E+0	1.367308E+0	1.416546E+0	1.283671E+0	1.302978E+0	1.412581E+0	1.354296E+0	1.256498E+0	1.368705E+0	1.382752E+0	1.363232E+0	1.200395E+0	1.340316E+0	1.383218E+0	1.393747E+0	1.141223E+0	1.322201E+0	1.351441E+0	1.336296E+0	1.245291E+0	1.357936E+0	1.348456E+0	1.363779E+0	1.260668E+0	1.339769E+0	1.393056E+0	1.350396E+0	1.169609E+0	1.290282E+0	1.435961E+0	1.392586E+0	1.133455E+0	1.316588E+0	1.362508E+0	1.338816E+0	1.307943E+0	1.316252E+0	1.334059E+0	1.336095E+0	1.307000E+0	1.339278E+0	1.320692E+0	1.356782E+0	1.160548E+0	1.309251E+0	1.354090E+0	1.385649E+0	1.142289E+0	1.304204E+0	1.366790E+0	1.321212E+0	1.351391E+0	1.337143E+0	1.329482E+0	1.345179E+0	1.219160E+0	1.360353E+0	1.386069E+0	1.363286E+0	1.106391E+0	1.246971E+0	1.355565E+0	1.394579E+0	1.217486E+0	1.337470E+0	1.358226E+0	1.326403E+0	1.334254E+0	1.328806E+0	1.334749E+0	1.373759E+0	1.291026E+0	1.269996E+0	1.361991E+0	1.359403E+0	1.153850E+0	1.360572E+0	1.334294E+0	1.323331E+0	1.099967E+0	1.320463E+0	1.362200E+0	1.378355E+0	1.277699E+0	1.354192E+0	1.394976E+0	1.338081E+0	1.268023E+0	1.328525E+0	1.341204E+0	1.297467E+0	1.203049E+0	1.408850E+0	1.334307E+0	1.342103E+0	1.212308E+0	1.338360E+0	1.365121E+0	1.354217E+0	1.260912E+0	1.391897E+0	1.352458E+0	1.183113E+0	1.241402E+0	1.317216E+0	1.369713E+0	1.112893E+0	1.103804E+0	1.318186E+0	1.409808E+0	1.206736E+0	1.176391E+0	1.356923E+0	1.353211E+0	1.289143E+0	1.341347E+0	1.380874E+0	1.306871E+0	1.314949E+0	1.278574E+0	1.381294E+0	1.361240E+0	1.134930E+0	1.171416E+0	1.301059E+0	1.351446E+0	1.228908E+0	1.257489E+0	1.360951E+0	1.345866E+0	1.323324E+0
5.460060E+2	1.260199E+0	1.355100E+0	1.294733E+0	1.340040E+0	1.278195E+0	1.333746E+0	1.342731E+0	1.360515E+0	1.328341E+0	1.211580E+0	1.281350E+0	1.354785E+0	1.322688E+0	1.108652E+0	1.165949E+0	1.304183E+0	1.332604E+0	1.154515E+0	1.236377E+0	1.297822E+0	1.286685E+0	1.293653E+0	1.246568E+0	1.299028E+0	1.310533E+0	1.274750E+0	1.287921E+0	1.290638E+0	1.344803E+0	1.184640E+0	1.263246E+0	1.262073E+0	1.258993E+0	1.158293E+0	1.278003E+0	1.295920E+0	1.333110E+0	1.195329E+0	1.305888E+0	1.316487E+0	1.295956E+0	1.190960E+0	1.255402E+0	1.310581E+0	1.313342E+0	1.133506E+0	1.248696E+0	1.326102E+0	1.266554E+0	1.123838E+0	1.254526E+0	1.308344E+0	1.306445E+0	1.201693E+0	1.325204E+0	1.367727E+0	1.315842E+0	1.208338E+0	1.243034E+0	1.337597E+0	1.292273E+0	1.155512E+0	1.270983E+0	1.311962E+0	1.299780E+0	1.129100E+0	1.261590E+0	1.295899E+0	1.276896E+0	1.275005E+0	1.255904E+0	1.292128E+0	1.173352E+0	1.173230E+0	1.251279E+0	1.316972E+0	1.259596E+0	1.072662E+0	1.278841E+0	1.272476E+0	1.282453E+0	1.119645E+0	1.277193E+0	1.294608E+0	1.321785E+0	1.274947E+0	1.316767E+0	1.280140E+0	1.402280E+0	1.154702E+0	1.277875E+0	1.305289E+0	1.302878E+0	1.097146E+0	1.245767E+0	1.310179E+0	1.326792E+0	1.138169E+0	1.314210E+0	1.348034E+0	1.321884E+0	1.275363E+0	1.307237E+0	1.294507E+0	1.285563E+0	1.206517E+0	1.277284E+0	1.304442E+0	1.252764E+0	1.090950E+0	1.314346E+0	1.265952E+0	1.281895E+0	1.092208E+0	1.307607E+0	1.312963E+0	1.308666E+0	1.254633E+0	1.278373E+0	1.296712E+0	1.309309E+0	1.249956E+0	1.304976E+0	1.262736E+0	1.313885E+0	1.129072E+0	1.301894E+0	1.252634E+0	1.294994E+0	1.171358E+0	1.310749E+0	1.315647E+0	1.313453E+0	1.218753E+0	1.269724E+0	1.356923E+0	1.259618E+0	1.202422E+0	1.348072E+0	1.257064E+0	1.299090E+0	1.081626E+0	1.280282E+0	1.314912E+0	1.239709E+0	1.138162E+0	1.276178E+0	1.297446E+0	1.259702E+0	1.248540E+0	1.270017E+0	1.279229E+0	1.254169E+0	1.235013E+0	1.292821E+0	1.286174E+0	1.142170E+0	1.109781E+0	1.277905E+0	1.293554E+0	1.153269E+0	1.186253E+0	1.303470E+0	1.308057E+0	1.186790E+0
5.467600E+2	1.241493E+0	1.311432E+0	1.292107E+0	1.201392E+0	1.261217E+0	1.247032E+0	1.265950E+0	1.232621E+0	1.279678E+0	1.205136E+0	1.218705E+0	1.338358E+0	1.313488E+0	1.042089E+0	1.195282E+0	1.280532E+0	1.284984E+0	1.052439E+0	1.127243E+0	1.308518E+0	1.325190E+0	1.267053E+0	1.212226E+0	1.256767E+0	1.231882E+0	1.194410E+0	1.273408E+0	1.193779E+0	1.270431E+0	1.158188E+0	1.227624E+0	1.279238E+0	1.219856E+0	1.137899E+0	1.235864E+0	1.298666E+0	1.298686E+0	1.230321E+0	1.243022E+0	1.270700E+0	1.262790E+0	1.149598E+0	1.216793E+0	1.250853E+0	1.241759E+0	1.075247E+0	1.227601E+0	1.319035E+0	1.298808E+0	1.049084E+0	1.191521E+0	1.227371E+0	1.260796E+0	1.180985E+0	1.298317E+0	1.236138E+0	1.255612E+0	1.151018E+0	1.170327E+0	1.251181E+0	1.240072E+0	1.095324E+0	1.230626E+0	1.328057E+0	1.279438E+0	1.114792E+0	1.174986E+0	1.259502E+0	1.227115E+0	1.187376E+0	1.259385E+0	1.324127E+0	1.243004E+0	1.141468E+0	1.225206E+0	1.262419E+0	1.269314E+0	1.046351E+0	1.203745E+0	1.263149E+0	1.256956E+0	1.086597E+0	1.257258E+0	1.246954E+0	1.285546E+0	1.200933E+0	1.281834E+0	1.234865E+0	1.301883E+0	1.142811E+0	1.252939E+0	1.210288E+0	1.241359E+0	1.050935E+0	1.225904E+0	1.318376E+0	1.260238E+0	1.131170E+0	1.224593E+0	1.269197E+0	1.257458E+0	1.198355E+0	1.249302E+0	1.292830E+0	1.239304E+0	1.189614E+0	1.236860E+0	1.222500E+0	1.290496E+0	1.078150E+0	1.224324E+0	1.271164E+0	1.270239E+0	1.076092E+0	1.250404E+0	1.228460E+0	1.260719E+0	1.175871E+0	1.246881E+0	1.283225E+0	1.248883E+0	1.188182E+0	1.320888E+0	1.211798E+0	1.313887E+0	1.149500E+0	1.243034E+0	1.272284E+0	1.264406E+0	1.081899E+0	1.221707E+0	1.287564E+0	1.280374E+0	1.202720E+0	1.272244E+0	1.231961E+0	1.245934E+0	1.213466E+0	1.300757E+0	1.255841E+0	1.263865E+0	1.045724E+0	1.231011E+0	1.307054E+0	1.249601E+0	1.123602E+0	1.243018E+0	1.262154E+0	1.317214E+0	1.213889E+0	1.291517E+0	1.285700E+0	1.270746E+0	1.167634E+0	1.230243E+0	1.282222E+0	1.305404E+0	1.074892E+0	1.313627E+0	1.270269E+0	1.228193E+0	1.127024E+0	1.203761E+0	1.221634E+0	1.247795E+0
5.475230E+2	1.384904E+0	1.416632E+0	1.351867E+0	1.344244E+0	1.316062E+0	1.382908E+0	1.374310E+0	1.386473E+0	1.316486E+0	1.244449E+0	1.266807E+0	1.324862E+0	1.345951E+0	1.154221E+0	1.264267E+0	1.304805E+0	1.341211E+0	1.197700E+0	1.233939E+0	1.395507E+0	1.271964E+0	1.277160E+0	1.286243E+0	1.279385E+0	1.424437E+0	1.351546E+0	1.303819E+0	1.346838E+0	1.349489E+0	1.211094E+0	1.271232E+0	1.330735E+0	1.353198E+0	1.200282E+0	1.303045E+0	1.357696E+0	1.325524E+0	1.269902E+0	1.321603E+0	1.350403E+0	1.349996E+0	1.213866E+0	1.341488E+0	1.332978E+0	1.333406E+0	1.185831E+0	1.340318E+0	1.362608E+0	1.393746E+0	1.148758E+0	1.281362E+0	1.319444E+0	1.346832E+0	1.233847E+0	1.297150E+0	1.351759E+0	1.294945E+0	1.194632E+0	1.309421E+0	1.338887E+0	1.368691E+0	1.156054E+0	1.276247E+0	1.370386E+0	1.411659E+0	1.137189E+0	1.291301E+0	1.309633E+0	1.341249E+0	1.302650E+0	1.403874E+0	1.334611E+0	1.354972E+0	1.300893E+0	1.335366E+0	1.356029E+0	1.304760E+0	1.120243E+0	1.312977E+0	1.322028E+0	1.348011E+0	1.186962E+0	1.300347E+0	1.307223E+0	1.310281E+0	1.262815E+0	1.402345E+0	1.316130E+0	1.358357E+0	1.232303E+0	1.320074E+0	1.361511E+0	1.399311E+0	1.120768E+0	1.280079E+0	1.329721E+0	1.369931E+0	1.181912E+0	1.219804E+0	1.384733E+0	1.356352E+0	1.270265E+0	1.357773E+0	1.277740E+0	1.367595E+0	1.235313E+0	1.316388E+0	1.401399E+0	1.330964E+0	1.126578E+0	1.314348E+0	1.338347E+0	1.397137E+0	1.088625E+0	1.264544E+0	1.401880E+0	1.384108E+0	1.239443E+0	1.299367E+0	1.393050E+0	1.364695E+0	1.283176E+0	1.332983E+0	1.326750E+0	1.323357E+0	1.171581E+0	1.315183E+0	1.360711E+0	1.368410E+0	1.173879E+0	1.334219E+0	1.375821E+0	1.370758E+0	1.282882E+0	1.362298E+0	1.368638E+0	1.329901E+0	1.235556E+0	1.361102E+0	1.326854E+0	1.332641E+0	1.101691E+0	1.342821E+0	1.345737E+0	1.341921E+0	1.180032E+0	1.314386E+0	1.338387E+0	1.322008E+0	1.253487E+0	1.347279E+0	1.328042E+0	1.351787E+0	1.244541E+0	1.330945E+0	1.311195E+0	1.320541E+0	1.146412E+0	1.281873E+0	1.365290E+0	1.353064E+0	1.223872E+0	1.310509E+0	1.340465E+0	1.268130E+0
5.482600E+2	1.479681E+0	1.487429E+0	1.445120E+0	1.442278E+0	1.408772E+0	1.451869E+0	1.467189E+0	1.397872E+0	1.463721E+0	1.350144E+0	1.378117E+0	1.387638E+0	1.448211E+0	1.221812E+0	1.394093E+0	1.408130E+0	1.420961E+0	1.245933E+0	1.322955E+0	1.407624E+0	1.407295E+0	1.358554E+0	1.442568E+0	1.431160E+0	1.528176E+0	1.354497E+0	1.417163E+0	1.488538E+0	1.490035E+0	1.257120E+0	1.386088E+0	1.511581E+0	1.465313E+0	1.331042E+0	1.431906E+0	1.418103E+0	1.512240E+0	1.365704E+0	1.435111E+0	1.425584E+0	1.455017E+0	1.372311E+0	1.407950E+0	1.465499E+0	1.462474E+0	1.192303E+0	1.380702E+0	1.446224E+0	1.453387E+0	1.220032E+0	1.329781E+0	1.412823E+0	1.414721E+0	1.314502E+0	1.429243E+0	1.433794E+0	1.452897E+0	1.255063E+0	1.416270E+0	1.393701E+0	1.389682E+0	1.254739E+0	1.428317E+0	1.450268E+0	1.459969E+0	1.261623E+0	1.402564E+0	1.463454E+0	1.416527E+0	1.377339E+0	1.367319E+0	1.394193E+0	1.420067E+0	1.315555E+0	1.412931E+0	1.432902E+0	1.397370E+0	1.196934E+0	1.396136E+0	1.416469E+0	1.434818E+0	1.266522E+0	1.328001E+0	1.478212E+0	1.427629E+0	1.387183E+0	1.404094E+0	1.420619E+0	1.480089E+0	1.319919E+0	1.433245E+0	1.360221E+0	1.397648E+0	1.191626E+0	1.457651E+0	1.432463E+0	1.377938E+0	1.289809E+0	1.389463E+0	1.452016E+0	1.483501E+0	1.368795E+0	1.416942E+0	1.405178E+0	1.439754E+0	1.363643E+0	1.403205E+0	1.374502E+0	1.428856E+0	1.206729E+0	1.425049E+0	1.406107E+0	1.434689E+0	1.226493E+0	1.439363E+0	1.418779E+0	1.447402E+0	1.360400E+0	1.404932E+0	1.412960E+0	1.435909E+0	1.381666E+0	1.454565E+0	1.434128E+0	1.407338E+0	1.246663E+0	1.412650E+0	1.406152E+0	1.394713E+0	1.244438E+0	1.447420E+0	1.393872E+0	1.497182E+0	1.364826E+0	1.447315E+0	1.377006E+0	1.444348E+0	1.306361E+0	1.475617E+0	1.416237E+0	1.458450E+0	1.195142E+0	1.450840E+0	1.468437E+0	1.437543E+0	1.258913E+0	1.403059E+0	1.420973E+0	1.419234E+0	1.407547E+0	1.437309E+0	1.448605E+0	1.476417E+0	1.296268E+0	1.397836E+0	1.456720E+0	1.450204E+0	1.209791E+0	1.436671E+0	1.442059E+0	1.422993E+0	1.295108E+0	1.366816E+0	1.358469E+0	1.393043E+0
5.490100E+2	1.437279E+0	1.470227E+0	1.393243E+0	1.477988E+0	1.418565E+0	1.416364E+0	1.475860E+0	1.442192E+0	1.411316E+0	1.379145E+0	1.370284E+0	1.497355E+0	1.464441E+0	1.233590E+0	1.285454E+0	1.522037E+0	1.464566E+0	1.254347E+0	1.335757E+0	1.441850E+0	1.466749E+0	1.416009E+0	1.433095E+0	1.396641E+0	1.450202E+0	1.391713E+0	1.447573E+0	1.451470E+0	1.425619E+0	1.250242E+0	1.424780E+0	1.458245E+0	1.430153E+0	1.297452E+0	1.397098E+0	1.396823E+0	1.360534E+0	1.329565E+0	1.424053E+0	1.465717E+0	1.463001E+0	1.301677E+0	1.373138E+0	1.464253E+0	1.477659E+0	1.233839E+0	1.404210E+0	1.473312E+0	1.471034E+0	1.224669E+0	1.314613E+0	1.472899E+0	1.429937E+0	1.380988E+0	1.445025E+0	1.422782E+0	1.404344E+0	1.358484E+0	1.387188E+0	1.435620E+0	1.426275E+0	1.248775E+0	1.361057E+0	1.484844E+0	1.479671E+0	1.265356E+0	1.395611E+0	1.461394E+0	1.403170E+0	1.394395E+0	1.517609E+0	1.442743E+0	1.433087E+0	1.406566E+0	1.410976E+0	1.468858E+0	1.453395E+0	1.225483E+0	1.374415E+0	1.452032E+0	1.456060E+0	1.275091E+0	1.414827E+0	1.488726E+0	1.395990E+0	1.394462E+0	1.397107E+0	1.368953E+0	1.428639E+0	1.270479E+0	1.460738E+0	1.422258E+0	1.439214E+0	1.149521E+0	1.443201E+0	1.406619E+0	1.385953E+0	1.254230E+0	1.388779E+0	1.440459E+0	1.475026E+0	1.382385E+0	1.448989E+0	1.423063E+0	1.416936E+0	1.369903E+0	1.368744E+0	1.477089E+0	1.451822E+0	1.278533E+0	1.464585E+0	1.417692E+0	1.408145E+0	1.156067E+0	1.461216E+0	1.405553E+0	1.487039E+0	1.310893E+0	1.452175E+0	1.441221E+0	1.430154E+0	1.356024E+0	1.444379E+0	1.358414E+0	1.518471E+0	1.231207E+0	1.424040E+0	1.444227E+0	1.379421E+0	1.280345E+0	1.479861E+0	1.451371E+0	1.424517E+0	1.323259E+0	1.420866E+0	1.388163E+0	1.456788E+0	1.363531E+0	1.422815E+0	1.391138E+0	1.400856E+0	1.151321E+0	1.367457E+0	1.443659E+0	1.382151E+0	1.235247E+0	1.391524E+0	1.435087E+0	1.428136E+0	1.403834E+0	1.449402E+0	1.395674E+0	1.406428E+0	1.299673E+0	1.366188E+0	1.412602E+0	1.414005E+0	1.215607E+0	1.432038E+0	1.404303E+0	1.408008E+0	1.271896E+0	1.359778E+0	1.443089E+0	1.454048E+0
5.497680E+2	1.432293E+0	1.415310E+0	1.418196E+0	1.369449E+0	1.355889E+0	1.410903E+0	1.415797E+0	1.432060E+0	1.448744E+0	1.317916E+0	1.340640E+0	1.381773E+0	1.440637E+0	1.231028E+0	1.284911E+0	1.415597E+0	1.410063E+0	1.215648E+0	1.265643E+0	1.443992E+0	1.400500E+0	1.356427E+0	1.360853E+0	1.416281E+0	1.430540E+0	1.431292E+0	1.368092E+0	1.392280E+0	1.363544E+0	1.190988E+0	1.375031E+0	1.448435E+0	1.449394E+0	1.272859E+0	1.327473E+0	1.372798E+0	1.393793E+0	1.313503E+0	1.403680E+0	1.395058E+0	1.381934E+0	1.243771E+0	1.394658E+0	1.361598E+0	1.457050E+0	1.174504E+0	1.340917E+0	1.396174E+0	1.422351E+0	1.174835E+0	1.298861E+0	1.422619E+0	1.384873E+0	1.268722E+0	1.383654E+0	1.345703E+0	1.396354E+0	1.254440E+0	1.287925E+0	1.434328E+0	1.444572E+0	1.227085E+0	1.347604E+0	1.401384E+0	1.400214E+0	1.216205E+0	1.350093E+0	1.362508E+0	1.397705E+0	1.340288E+0	1.327860E+0	1.362749E+0	1.355619E+0	1.306391E+0	1.345796E+0	1.364087E+0	1.352210E+0	1.177901E+0	1.365108E+0	1.412971E+0	1.361971E+0	1.195532E+0	1.326072E+0	1.410938E+0	1.364353E+0	1.294360E+0	1.390119E+0	1.382306E+0	1.333259E+0	1.356215E+0	1.375062E+0	1.340185E+0	1.391551E+0	1.159277E+0	1.305362E+0	1.348632E+0	1.445728E+0	1.184244E+0	1.323789E+0	1.425508E+0	1.364832E+0	1.342178E+0	1.320795E+0	1.379466E+0	1.344771E+0	1.272247E+0	1.368740E+0	1.378255E+0	1.342996E+0	1.230106E+0	1.422006E+0	1.420589E+0	1.387426E+0	1.187100E+0	1.438080E+0	1.435681E+0	1.443566E+0	1.289515E+0	1.311034E+0	1.400115E+0	1.399225E+0	1.330383E+0	1.380727E+0	1.396959E+0	1.401025E+0	1.224028E+0	1.410120E+0	1.389575E+0	1.393488E+0	1.187108E+0	1.386678E+0	1.402566E+0	1.306367E+0	1.319103E+0	1.411417E+0	1.359713E+0	1.375929E+0	1.335597E+0	1.450929E+0	1.364812E+0	1.353329E+0	1.111194E+0	1.341558E+0	1.428546E+0	1.402593E+0	1.206729E+0	1.350432E+0	1.406855E+0	1.383632E+0	1.308554E+0	1.423872E+0	1.397439E+0	1.341348E+0	1.316007E+0	1.417258E+0	1.361239E+0	1.425192E+0	1.221421E+0	1.351335E+0	1.395494E+0	1.412289E+0	1.247884E+0	1.312855E+0	1.275648E+0	1.395949E+0
5.505000E+2	1.382408E+0	1.365024E+0	1.342675E+0	1.380654E+0	1.365682E+0	1.348086E+0	1.335300E+0	1.309862E+0	1.386983E+0	1.247026E+0	1.317149E+0	1.393507E+0	1.397351E+0	1.164977E+0	1.249057E+0	1.342153E+0	1.377931E+0	1.198822E+0	1.246744E+0	1.390516E+0	1.350673E+0	1.326636E+0	1.319997E+0	1.378783E+0	1.400030E+0	1.283020E+0	1.371549E+0	1.354013E+0	1.350074E+0	1.199983E+0	1.335722E+0	1.387747E+0	1.363815E+0	1.272259E+0	1.312206E+0	1.352891E+0	1.362869E+0	1.334727E+0	1.333247E+0	1.365101E+0	1.394215E+0	1.253317E+0	1.273762E+0	1.362219E+0	1.338828E+0	1.241390E+0	1.298122E+0	1.366145E+0	1.366969E+0	1.178889E+0	1.277276E+0	1.382786E+0	1.343903E+0	1.279080E+0	1.301826E+0	1.304959E+0	1.373614E+0	1.298050E+0	1.286027E+0	1.406597E+0	1.367616E+0	1.207566E+0	1.316018E+0	1.397212E+0	1.371612E+0	1.144654E+0	1.331762E+0	1.305513E+0	1.383135E+0	1.301470E+0	1.369058E+0	1.378747E+0	1.347160E+0	1.282567E+0	1.309943E+0	1.351689E+0	1.394513E+0	1.107927E+0	1.364483E+0	1.348847E+0	1.365008E+0	1.187574E+0	1.351157E+0	1.394121E+0	1.363779E+0	1.280407E+0	1.415736E+0	1.327740E+0	1.371535E+0	1.273607E+0	1.433247E+0	1.340832E+0	1.402081E+0	1.071474E+0	1.320408E+0	1.369431E+0	1.336652E+0	1.213990E+0	1.260165E+0	1.373178E+0	1.394216E+0	1.326894E+0	1.381192E+0	1.368285E+0	1.353406E+0	1.275378E+0	1.346207E+0	1.366370E+0	1.373620E+0	1.123794E+0	1.341109E+0	1.384102E+0	1.308437E+0	1.169198E+0	1.385376E+0	1.338686E+0	1.412241E+0	1.306956E+0	1.367606E+0	1.399470E+0	1.358224E+0	1.256950E+0	1.389637E+0	1.337074E+0	1.374504E+0	1.227340E+0	1.310752E+0	1.345358E+0	1.335373E+0	1.168836E+0	1.325937E+0	1.371141E+0	1.354811E+0	1.261504E+0	1.372374E+0	1.360269E+0	1.328038E+0	1.261539E+0	1.435158E+0	1.356243E+0	1.405329E+0	1.107497E+0	1.318816E+0	1.259304E+0	1.316203E+0	1.206122E+0	1.354760E+0	1.392031E+0	1.343918E+0	1.351245E+0	1.423874E+0	1.339804E+0	1.359767E+0	1.269723E+0	1.312242E+0	1.384945E+0	1.319224E+0	1.198163E+0	1.275260E+0	1.343265E+0	1.302402E+0	1.141431E+0	1.322239E+0	1.295454E+0	1.302990E+0
5.512620E+2	1.351857E+0	1.432513E+0	1.330853E+0	1.362449E+0	1.323243E+0	1.353546E+0	1.425702E+0	1.361146E+0	1.310871E+0	1.293428E+0	1.333929E+0	1.392920E+0	1.396270E+0	1.156272E+0	1.258836E+0	1.359581E+0	1.391124E+0	1.173586E+0	1.246742E+0	1.361282E+0	1.361995E+0	1.304292E+0	1.328282E+0	1.377594E+0	1.374944E+0	1.277112E+0	1.284467E+0	1.327707E+0	1.374085E+0	1.192046E+0	1.319139E+0	1.371808E+0	1.397646E+0	1.227272E+0	1.348850E+0	1.334358E+0	1.380373E+0	1.252694E+0	1.365845E+0	1.393361E+0	1.351227E+0	1.234865E+0	1.306676E+0	1.405147E+0	1.389262E+0	1.146990E+0	1.355386E+0	1.369086E+0	1.377924E+0	1.148176E+0	1.237025E+0	1.330547E+0	1.356196E+0	1.247472E+0	1.343324E+0	1.364973E+0	1.325059E+0	1.246340E+0	1.303101E+0	1.360168E+0	1.354701E+0	1.198890E+0	1.321868E+0	1.335808E+0	1.345546E+0	1.110435E+0	1.274233E+0	1.440106E+0	1.391031E+0	1.250894E+0	1.320314E+0	1.391985E+0	1.351067E+0	1.300893E+0	1.353615E+0	1.367187E+0	1.385938E+0	1.110165E+0	1.299941E+0	1.329023E+0	1.407500E+0	1.225520E+0	1.323501E+0	1.398323E+0	1.368956E+0	1.302250E+0	1.302211E+0	1.335286E+0	1.406676E+0	1.286121E+0	1.389769E+0	1.344062E+0	1.279599E+0	1.163897E+0	1.301746E+0	1.368170E+0	1.360684E+0	1.234986E+0	1.344996E+0	1.383375E+0	1.333185E+0	1.260072E+0	1.340519E+0	1.329720E+0	1.378695E+0	1.304802E+0	1.295179E+0	1.350732E+0	1.422839E+0	1.149396E+0	1.405583E+0	1.297227E+0	1.344049E+0	1.142936E+0	1.323675E+0	1.409226E+0	1.368123E+0	1.261947E+0	1.379270E+0	1.323687E+0	1.304272E+0	1.241798E+0	1.341894E+0	1.405908E+0	1.375136E+0	1.206914E+0	1.391766E+0	1.393872E+0	1.333537E+0	1.186477E+0	1.342500E+0	1.388523E+0	1.411522E+0	1.259724E+0	1.364819E+0	1.350785E+0	1.307510E+0	1.225809E+0	1.383731E+0	1.342774E+0	1.417071E+0	1.059979E+0	1.326397E+0	1.344530E+0	1.334010E+0	1.189739E+0	1.385035E+0	1.399798E+0	1.380893E+0	1.285042E+0	1.368107E+0	1.368034E+0	1.358539E+0	1.275171E+0	1.345328E+0	1.357288E+0	1.353450E+0	1.140598E+0	1.359933E+0	1.368436E+0	1.388742E+0	1.218270E+0	1.357431E+0	1.246842E+0	1.358185E+0
5.520100E+2	1.336894E+0	1.379584E+0	1.363687E+0	1.330238E+0	1.377433E+0	1.367202E+0	1.429417E+0	1.301632E+0	1.386360E+0	1.303741E+0	1.302046E+0	1.380014E+0	1.355151E+0	1.354935E+0	1.208861E+0	1.320989E+0	1.358996E+0	1.302580E+0	1.199795E+0	1.371977E+0	1.322925E+0	1.363874E+0	1.272030E+0	1.364498E+0	1.423761E+0	1.282427E+0	1.334229E+0	1.331293E+0	1.365299E+0	1.179878E+0	1.322210E+0	1.381004E+0	1.313393E+0	1.184683E+0	1.338465E+0	1.306216E+0	1.408376E+0	1.211963E+0	1.300068E+0	1.328358E+0	1.369037E+0	1.236140E+0	1.312373E+0	1.377774E+0	1.381672E+0	1.155083E+0	1.313194E+0	1.346121E+0	1.370621E+0	1.105295E+0	1.291861E+0	1.335116E+0	1.313472E+0	1.239839E+0	1.298905E+0	1.335792E+0	1.363782E+0	1.218929E+0	1.239243E+0	1.333081E+0	1.333712E+0	1.154426E+0	1.276831E+0	1.318521E+0	1.403394E+0	1.206251E+0	1.300785E+0	1.346028E+0	1.347924E+0	1.271476E+0	1.295364E+0	1.296543E+0	1.338047E+0	1.242253E+0	1.332106E+0	1.372146E+0	1.320767E+0	1.100650E+0	1.299322E+0	1.316783E+0	1.335869E+0	1.189412E+0	1.272048E+0	1.385710E+0	1.368380E+0	1.282836E+0	1.403510E+0	1.345735E+0	1.351453E+0	1.261093E+0	1.346287E+0	1.289778E+0	1.367169E+0	1.107415E+0	1.283087E+0	1.304508E+0	1.355141E+0	1.149250E+0	1.321735E+0	1.365702E+0	1.357484E+0	1.277063E+0	1.349761E+0	1.355992E+0	1.371910E+0	1.274753E+0	1.335604E+0	1.281925E+0	1.344636E+0	1.191701E+0	1.357532E+0	1.305915E+0	1.319444E+0	1.105336E+0	1.317891E+0	1.365138E+0	1.352781E+0	1.222564E+0	1.313949E+0	1.334605E+0	1.358220E+0	1.265693E+0	1.313250E+0	1.365982E+0	1.350508E+0	1.190354E+0	1.327209E+0	1.377908E+0	1.348219E+0	1.206006E+0	1.302468E+0	1.336374E+0	1.342402E+0	1.288225E+0	1.326403E+0	1.392626E+0	1.339232E+0	1.219964E+0	1.367960E+0	1.331143E+0	1.324810E+0	1.081100E+0	1.323871E+0	1.343925E+0	1.309610E+0	1.115107E+0	1.385037E+0	1.351091E+0	1.356929E+0	1.278234E+0	1.332501E+0	1.293933E+0	1.345645E+0	1.213234E+0	1.329503E+0	1.318441E+0	1.325149E+0	1.110945E+0	1.317596E+0	1.350187E+0	1.325948E+0	1.212666E+0	1.398488E+0	1.306256E+0	1.422094E+0
5.527590E+2	1.348115E+0	1.297538E+0	1.291449E+0	1.324635E+0	1.327813E+0	1.321457E+0	1.356973E+0	1.305430E+0	1.357664E+0	1.312763E+0	1.259535E+0	1.286139E+0	1.332425E+0	1.330360E+0	1.255576E+0	1.327214E+0	1.322277E+0	1.285755E+0	1.206503E+0	1.306379E+0	1.350670E+0	1.348449E+0	1.251306E+0	1.326407E+0	1.408166E+0	1.349773E+0	1.276171E+0	1.301399E+0	1.321965E+0	1.289923E+0	1.272460E+0	1.284141E+0	1.351210E+0	1.370628E+0	1.266401E+0	1.352894E+0	1.346531E+0	1.342185E+0	1.318694E+0	1.341924E+0	1.315606E+0	1.197321E+0	1.327562E+0	1.290048E+0	1.339915E+0	1.122717E+0	1.321027E+0	1.273693E+0	1.352972E+0	1.150493E+0	1.251610E+0	1.279611E+0	1.284792E+0	1.215319E+0	1.318192E+0	1.336891E+0	1.308468E+0	1.184039E+0	1.255680E+0	1.269884E+0	1.292811E+0	1.118638E+0	1.260455E+0	1.353692E+0	1.381145E+0	1.098614E+0	1.239464E+0	1.307573E+0	1.276290E+0	1.192669E+0	1.313929E+0	1.334610E+0	1.315911E+0	1.262412E+0	1.333410E+0	1.325650E+0	1.288179E+0	1.130319E+0	1.254638E+0	1.301625E+0	1.270918E+0	1.130047E+0	1.263045E+0	1.299514E+0	1.294176E+0	1.247039E+0	1.310362E+0	1.285366E+0	1.348947E+0	1.141560E+0	1.340534E+0	1.248417E+0	1.347212E+0	1.150034E+0	1.287905E+0	1.383297E+0	1.326176E+0	1.142252E+0	1.301895E+0	1.328323E+0	1.350705E+0	1.209679E+0	1.289980E+0	1.303448E+0	1.294195E+0	1.220289E+0	1.325666E+0	1.340724E+0	1.379088E+0	1.121568E+0	1.282716E+0	1.339505E+0	1.318799E+0	1.075498E+0	1.327529E+0	1.315903E+0	1.283095E+0	1.259698E+0	1.305783E+0	1.301209E+0	1.328012E+0	1.231309E+0	1.302429E+0	1.272370E+0	1.376399E+0	1.184832E+0	1.314551E+0	1.336148E+0	1.302949E+0	1.171358E+0	1.274855E+0	1.310296E+0	1.335314E+0	1.230036E+0	1.329551E+0	1.292767E+0	1.321819E+0	1.251144E+0	1.273331E+0	1.309715E+0	1.302447E+0	1.086380E+0	1.235434E+0	1.306448E+0	1.239051E+0	1.124814E+0	1.261042E+0	1.322154E+0	1.348028E+0	1.287516E+0	1.277408E+0	1.335688E+0	1.319248E+0	1.192136E+0	1.263331E+0	1.291443E+0	1.284340E+0	1.126062E+0	1.286503E+0	1.206715E+0	1.295981E+0	1.176648E+0	1.248336E+0	1.306257E+0	1.215839E+0
5.535160E+2	1.247727E+0	1.273058E+0	1.269121E+0	1.270017E+0	1.266441E+0	1.242254E+0	1.246754E+0	1.225653E+0	1.269073E+0	1.295362E+0	1.236041E+0	1.250350E+0	1.303748E+0	1.271478E+0	1.165407E+0	1.283023E+0	1.248837E+0	1.216209E+0	1.182115E+0	1.304952E+0	1.230062E+0	1.274501E+0	1.192684E+0	1.238914E+0	1.262393E+0	1.311376E+0	1.218119E+0	1.208727E+0	1.281557E+0	1.237546E+0	1.227009E+0	1.308052E+0	1.315386E+0	1.239871E+0	1.228536E+0	1.258167E+0	1.254339E+0	1.225158E+0	1.224394E+0	1.270138E+0	1.243136E+0	1.302952E+0	1.223123E+0	1.247119E+0	1.291651E+0	1.314751E+0	1.214341E+0	1.229530E+0	1.268379E+0	1.277406E+0	1.143103E+0	1.245004E+0	1.294156E+0	1.238208E+0	1.267343E+0	1.268072E+0	1.234716E+0	1.230142E+0	1.190557E+0	1.251182E+0	1.253528E+0	1.153885E+0	1.221851E+0	1.238038E+0	1.256556E+0	1.111057E+0	1.192684E+0	1.300706E+0	1.210720E+0	1.192669E+0	1.267510E+0	1.313647E+0	1.244958E+0	1.196444E+0	1.250628E+0	1.264278E+0	1.172703E+0	1.059785E+0	1.204366E+0	1.208350E+0	1.270312E+0	1.061504E+0	1.217383E+0	1.264475E+0	1.247581E+0	1.222167E+0	1.270193E+0	1.279561E+0	1.239137E+0	1.175355E+0	1.248465E+0	1.226446E+0	1.254104E+0	1.049395E+0	1.203031E+0	1.283075E+0	1.207857E+0	1.061180E+0	1.191755E+0	1.246089E+0	1.286282E+0	1.194392E+0	1.249301E+0	1.246995E+0	1.230054E+0	1.207145E+0	1.242160E+0	1.219997E+0	1.294323E+0	1.078149E+0	1.229189E+0	1.273481E+0	1.235277E+0	1.029542E+0	1.258117E+0	1.299005E+0	1.248571E+0	1.164616E+0	1.251545E+0	1.231206E+0	1.212919E+0	1.178858E+0	1.256596E+0	1.252410E+0	1.261477E+0	1.118585E+0	1.222781E+0	1.202278E+0	1.204452E+0	1.103949E+0	1.254150E+0	1.272188E+0	1.281554E+0	1.225284E+0	1.279800E+0	1.235307E+0	1.232249E+0	1.176438E+0	1.271959E+0	1.169519E+0	1.234228E+0	1.008238E+0	1.222798E+0	1.288922E+0	1.293125E+0	1.055035E+0	1.277621E+0	1.266389E+0	1.252172E+0	1.156348E+0	1.282111E+0	1.255707E+0	1.246190E+0	1.109782E+0	1.293540E+0	1.265101E+0	1.240898E+0	1.070241E+0	1.281212E+0	1.248876E+0	1.286705E+0	1.110215E+0	1.235434E+0	1.115409E+0	1.326229E+0
5.542640E+2	1.232139E+0	1.157933E+0	1.163391E+0	1.191588E+0	1.165245E+0	1.158953E+0	1.147681E+0	1.155375E+0	1.192337E+0	1.143910E+0	1.100681E+0	1.199307E+0	1.200947E+0	1.167026E+0	1.090444E+0	1.167870E+0	1.227034E+0	1.127034E+0	1.078467E+0	1.163065E+0	1.236857E+0	1.194704E+0	1.138207E+0	1.176415E+0	1.171539E+0	1.148330E+0	1.225031E+0	1.142359E+0	1.169122E+0	1.128031E+0	1.155146E+0	1.205673E+0	1.163463E+0	1.204479E+0	1.161964E+0	1.197075E+0	1.135308E+0	1.178694E+0	1.160367E+0	1.163303E+0	1.141192E+0	1.150234E+0	1.205399E+0	1.235300E+0	1.137636E+0	1.133507E+0	1.154666E+0	1.171824E+0	1.169794E+0	1.098342E+0	1.127934E+0	1.167295E+0	1.171249E+0	1.153736E+0	1.150447E+0	1.190442E+0	1.133921E+0	1.182171E+0	1.097620E+0	1.171216E+0	1.159886E+0	1.169067E+0	1.108966E+0	1.167696E+0	1.211421E+0	1.194430E+0	1.124411E+0	1.124911E+0	1.146978E+0	1.189727E+0	1.173503E+0	1.173511E+0	1.196785E+0	1.176894E+0	1.146335E+0	1.170049E+0	1.138973E+0	1.152712E+0	1.117480E+0	1.177452E+0	1.144656E+0	1.152079E+0	1.138919E+0	1.211915E+0	1.168774E+0	1.089911E+0	1.219540E+0	1.195389E+0	1.200859E+0	1.062708E+0	1.163425E+0	1.117229E+0	1.160444E+0	9.467029E-1	1.120566E+0	1.182226E+0	1.170882E+0	9.381186E-1	1.156182E+0	1.169971E+0	1.173826E+0	1.069251E+0	1.213556E+0	1.151978E+0	1.151724E+0	1.118252E+0	1.108290E+0	1.145559E+0	1.152687E+0	1.008015E+0	1.167757E+0	1.176182E+0	1.175067E+0	9.704576E-1	1.116717E+0	1.171142E+0	1.174411E+0	1.040844E+0	1.136651E+0	1.181756E+0	1.202129E+0	1.106592E+0	1.173207E+0	1.106484E+0	1.234958E+0	1.016450E+0	1.192403E+0	1.195522E+0	1.186100E+0	1.031500E+0	1.178222E+0	1.165878E+0	1.174036E+0	1.129092E+0	1.177782E+0	1.133777E+0	1.187466E+0	1.045214E+0	1.178698E+0	1.137073E+0	1.156505E+0	9.601901E-1	1.177317E+0	1.184354E+0	1.160575E+0	9.712992E-1	1.134161E+0	1.231098E+0	1.159738E+0	1.103758E+0	1.173943E+0	1.144554E+0	1.195847E+0	1.023345E+0	1.185648E+0	1.134065E+0	1.173104E+0	1.033608E+0	1.180660E+0	1.132462E+0	1.206786E+0	1.074197E+0	1.104051E+0	1.155019E+0	1.186789E+0
5.550140E+2	1.066905E+0	1.046116E+0	1.012346E+0	1.045236E+0	1.052949E+0	1.047659E+0	1.090714E+0	1.097758E+0	1.096887E+0	1.088487E+0	1.001679E+0	1.070229E+0	1.120872E+0	1.042088E+0	1.006790E+0	1.044006E+0	1.080154E+0	1.128715E+0	1.026644E+0	1.043280E+0	1.065854E+0	1.082455E+0	1.063597E+0	1.103206E+0	1.067802E+0	1.076854E+0	1.135184E+0	1.033542E+0	1.080697E+0	1.103167E+0	1.007125E+0	1.102070E+0	1.105085E+0	1.100111E+0	1.030046E+0	1.063907E+0	1.078710E+0	1.088054E+0	1.076544E+0	1.101689E+0	1.084690E+0	1.094874E+0	1.037029E+0	1.076650E+0	1.099675E+0	1.054213E+0	1.052802E+0	1.072898E+0	1.047470E+0	1.075160E+0	9.634221E-1	1.092856E+0	1.028443E+0	1.023488E+0	1.039978E+0	1.090788E+0	1.094585E+0	1.027039E+0	1.013530E+0	1.080933E+0	1.118989E+0	1.092614E+0	1.025327E+0	1.067544E+0	1.054413E+0	1.085548E+0	1.055504E+0	1.052808E+0	1.051057E+0	1.076810E+0	1.073694E+0	1.098480E+0	1.046413E+0	1.071833E+0	1.054429E+0	1.075818E+0	1.048076E+0	1.076020E+0	1.031217E+0	1.055614E+0	1.070598E+0	1.085986E+0	1.027655E+0	1.058445E+0	1.034168E+0	1.072923E+0	1.097863E+0	1.076391E+0	1.069086E+0	1.112146E+0	1.095651E+0	1.075223E+0	1.083407E+0	1.044260E+0	1.062180E+0	1.061833E+0	1.070436E+0	1.029686E+0	1.028937E+0	1.101331E+0	1.064196E+0	1.068118E+0	1.065021E+0	1.042422E+0	1.085112E+0	9.880437E-1	1.041354E+0	1.126170E+0	1.042763E+0	8.950217E-1	1.010827E+0	1.053398E+0	1.084426E+0	9.012272E-1	1.059515E+0	1.027116E+0	1.089378E+0	1.010464E+0	1.087075E+0	1.118173E+0	1.056826E+0	9.941137E-1	1.041439E+0	1.065185E+0	1.062575E+0	9.656619E-1	1.031012E+0	1.154995E+0	1.100453E+0	9.565314E-1	1.093321E+0	1.050212E+0	1.093103E+0	9.883606E-1	1.060645E+0	1.049540E+0	1.071154E+0	9.964919E-1	1.108755E+0	1.093606E+0	1.081021E+0	8.778236E-1	1.042766E+0	1.076762E+0	1.065615E+0	9.197233E-1	1.089465E+0	1.118160E+0	1.109755E+0	1.028277E+0	1.134975E+0	1.075157E+0	1.055256E+0	1.000204E+0	1.103649E+0	1.048464E+0	1.080300E+0	9.115010E-1	1.088711E+0	1.050026E+0	1.043384E+0	1.002161E+0	1.091147E+0	1.039791E+0	1.102546E+0
5.558000E+2	1.010164E+0	1.030899E+0	9.906748E-1	9.934174E-1	9.602396E-1	9.711862E-1	9.978328E-1	1.004686E+0	9.927005E-1	1.025328E+0	9.546927E-1	9.781155E-1	1.018069E+0	9.780850E-1	9.448636E-1	9.749158E-1	1.057777E+0	1.041223E+0	9.047054E-1	1.007629E+0	1.004133E+0	1.027130E+0	9.706293E-1	1.021070E+0	9.966099E-1	1.030776E+0	1.008017E+0	9.994610E-1	1.019793E+0	9.962952E-1	9.119240E-1	9.904980E-1	9.518365E-1	1.049724E+0	9.500421E-1	9.870267E-1	9.561812E-1	1.012334E+0	9.967991E-1	9.694197E-1	1.003009E+0	9.867009E-1	1.008545E+0	1.041808E+0	9.847079E-1	1.001889E+0	9.871011E-1	9.833933E-1	9.945227E-1	1.014894E+0	9.815077E-1	9.949069E-1	9.904014E-1	9.837050E-1	9.803611E-1	9.751681E-1	1.003626E+0	9.541459E-1	9.079447E-1	1.011285E+0	1.004361E+0	1.017785E+0	9.691763E-1	9.971984E-1	1.002288E+0	9.928449E-1	9.410821E-1	1.016413E+0	9.757774E-1	1.001528E+0	9.686650E-1	1.050483E+0	1.002799E+0	9.905936E-1	1.040087E+0	9.760087E-1	9.537505E-1	9.987695E-1	9.654320E-1	9.879895E-1	1.002612E+0	1.043758E+0	9.909959E-1	1.014996E+0	1.024390E+0	1.012255E+0	9.633810E-1	9.771279E-1	1.031436E+0	9.869830E-1	9.716115E-1	9.724697E-1	1.037409E+0	9.836717E-1	9.207256E-1	9.830438E-1	1.032229E+0	1.034352E+0	9.988371E-1	1.013661E+0	1.004860E+0	1.056793E+0	9.731901E-1	1.010565E+0	9.685444E-1	1.000563E+0	9.611654E-1	9.516469E-1	1.015968E+0	1.039742E+0	1.016910E+0	9.827413E-1	9.821308E-1	1.000896E+0	1.029308E+0	9.808210E-1	1.024166E+0	9.463270E-1	9.908434E-1	9.852286E-1	1.014386E+0	9.614777E-1	9.828766E-1	9.681304E-1	1.014585E+0	8.822995E-1	9.987343E-1	1.020510E+0	1.009910E+0	8.884919E-1	1.012562E+0	1.048206E+0	1.020441E+0	9.604540E-1	1.026009E+0	1.004350E+0	1.057472E+0	8.899530E-1	1.009326E+0	1.018304E+0	1.024547E+0	7.975699E-1	9.808597E-1	9.619204E-1	9.502119E-1	8.748216E-1	9.791657E-1	1.034869E+0	1.019377E+0	9.738282E-1	1.040244E+0	9.775335E-1	1.023330E+0	9.369076E-1	9.986331E-1	1.007638E+0	1.012506E+0	8.614950E-1	1.024542E+0	9.606706E-1	1.029826E+0	9.245222E-1	1.032494E+0	9.083564E-1	8.846722E-1
5.560080E+2	1.032611E+0	1.003110E+0	9.781966E-1	1.010924E+0	9.732968E-1	1.050389E+0	9.972134E-1	1.037609E+0	9.976916E-1	9.686139E-1	9.513369E-1	9.787014E-1	1.060273E+0	1.034409E+0	9.513821E-1	9.917215E-1	1.003270E+0	1.016544E+0	9.290930E-1	1.016185E+0	1.007531E+0	1.037772E+0	9.818792E-1	1.069280E+0	1.014916E+0	9.835182E-1	9.935028E-1	9.815251E-1	9.706026E-1	1.038092E+0	9.708869E-1	1.067126E+0	1.040733E+0	1.026333E+0	9.384386E-1	1.039881E+0	9.941075E-1	1.015777E+0	9.828280E-1	9.366353E-1	1.046613E+0	1.029971E+0	9.895556E-1	1.010078E+0	1.042192E+0	9.770745E-1	9.207975E-1	1.010480E+0	9.811341E-1	1.031119E+0	9.231692E-1	9.694397E-1	1.001521E+0	9.766209E-1	1.010755E+0	1.006553E+0	1.008543E+0	9.821816E-1	9.047838E-1	1.008061E+0	9.892922E-1	1.025918E+0	9.680064E-1	1.080062E+0	1.034070E+0	9.965780E-1	9.101061E-1	1.014352E+0	1.007953E+0	1.020348E+0	1.044682E+0	1.030620E+0	9.852230E-1	1.016248E+0	1.041391E+0	9.803477E-1	9.949116E-1	9.830935E-1	9.641903E-1	9.885732E-1	9.941112E-1	1.069460E+0	9.626979E-1	9.638400E-1	9.668669E-1	1.011042E+0	9.954006E-1	1.007314E+0	1.013867E+0	1.001377E+0	9.888750E-1	1.033864E+0	1.020229E+0	9.723743E-1	9.797147E-1	1.041664E+0	1.013742E+0	9.596982E-1	9.721570E-1	1.019777E+0	9.466543E-1	1.034144E+0	9.688758E-1	9.904422E-1	1.040090E+0	1.001190E+0	9.744189E-1	9.791704E-1	1.030186E+0	1.004119E+0	9.992702E-1	9.549412E-1	1.009970E+0	9.644896E-1	9.631075E-1	1.005806E+0	1.025446E+0	1.035217E+0	9.645976E-1	9.980734E-1	9.892103E-1	9.812931E-1	1.007066E+0	1.081016E+0	1.024058E+0	1.012035E+0	9.949369E-1	1.053670E+0	9.768748E-1	1.013230E+0	9.525107E-1	1.012770E+0	1.006263E+0	1.016270E+0	9.731096E-1	9.848256E-1	9.784795E-1	9.990906E-1	9.873821E-1	1.022590E+0	9.898801E-1	9.105579E-1	1.007391E+0	1.044728E+0	9.838436E-1	1.009526E+0	1.005839E+0	1.017223E+0	1.005683E+0	9.701169E-1	1.049650E+0	1.010468E+0	1.064463E+0	9.593678E-1	9.756163E-1	1.026075E+0	1.004607E+0	8.661469E-1	9.835280E-1	9.682222E-1	1.028399E+0	9.421311E-1	1.032493E+0	9.551684E-1	8.962924E-1
5.565030E+2	9.727517E-1	9.865688E-1	9.768838E-1	9.906167E-1	9.608924E-1	1.001229E+0	1.024459E+0	9.939222E-1	1.023270E+0	9.653919E-1	9.356756E-1	9.781155E-1	9.379960E-1	1.010344E+0	9.225942E-1	9.935886E-1	1.034252E+0	9.952328E-1	9.004373E-1	9.719788E-1	9.729900E-1	9.755300E-1	9.351005E-1	9.716690E-1	9.816937E-1	9.953324E-1	9.852097E-1	9.773396E-1	1.035019E+0	9.777812E-1	9.051678E-1	9.843677E-1	9.664318E-1	9.915428E-1	9.616452E-1	1.000755E+0	9.684339E-1	9.916798E-1	9.461571E-1	1.024815E+0	9.839711E-1	9.669753E-1	9.775298E-1	9.939024E-1	9.977234E-1	9.808498E-1	9.497297E-1	1.025791E+0	9.878294E-1	1.000986E+0	9.161687E-1	1.019067E+0	1.043662E+0	9.847961E-1	9.797769E-1	9.713152E-1	9.507707E-1	9.933959E-1	9.661115E-1	9.725927E-1	9.909056E-1	1.008025E+0	9.492898E-1	9.852759E-1	9.844900E-1	9.928447E-1	9.429787E-1	9.889441E-1	9.830621E-1	9.674173E-1	9.489357E-1	1.003033E+0	9.845723E-1	9.814311E-1	9.188477E-1	9.803477E-1	1.001773E+0	1.030677E+0	9.629493E-1	1.001399E+0	9.230894E-1	1.003978E+0	9.633409E-1	1.017800E+0	9.743447E-1	9.710009E-1	9.744422E-1	9.858372E-1	9.774736E-1	1.039552E+0	1.046419E+0	1.044850E+0	9.891913E-1	9.949685E-1	9.454045E-1	9.950208E-1	9.496534E-1	1.005189E+0	9.393199E-1	1.008224E+0	1.005424E+0	9.814834E-1	9.442229E-1	9.887656E-1	9.438740E-1	9.642554E-1	9.730934E-1	1.005442E+0	9.727654E-1	1.011911E+0	9.311457E-1	9.821613E-1	9.866630E-1	9.328583E-1	9.708204E-1	1.040342E+0	9.934788E-1	9.980867E-1	9.844280E-1	1.018625E+0	1.048914E+0	1.018591E+0	1.000064E+0	9.743257E-1	1.008271E+0	9.916076E-1	9.860766E-1	1.003317E+0	9.585219E-1	1.004410E+0	9.435380E-1	9.840203E-1	9.790860E-1	9.444213E-1	1.009635E+0	1.012162E+0	9.716375E-1	1.054959E+0	9.956116E-1	1.065444E+0	9.882022E-1	1.002428E+0	1.026973E+0	9.969783E-1	9.765895E-1	1.009526E+0	1.008002E+0	1.000283E+0	9.639171E-1	9.775407E-1	1.015385E+0	1.060458E+0	1.005526E+0	9.750213E-1	9.432488E-1	1.001712E+0	9.815713E-1	9.789511E-1	9.894820E-1	1.010383E+0	9.820182E-1	9.829516E-1	1.031320E+0	9.317636E-1	9.311514E-1
5.570610E+2	9.814812E-1	9.640732E-1	9.827937E-1	1.022828E+0	9.909250E-1	9.780144E-1	1.004644E+0	9.806256E-1	1.018279E+0	9.989046E-1	9.435062E-1	1.045001E+0	9.526022E-1	9.606763E-1	8.726186E-1	9.929664E-1	9.636811E-1	9.929891E-1	9.284831E-1	9.869521E-1	9.916762E-1	9.989370E-1	9.836564E-1	1.044283E+0	1.016273E+0	9.935610E-1	9.637847E-1	9.898955E-1	9.875851E-1	1.013756E+0	9.377203E-1	9.886602E-1	9.617874E-1	9.987406E-1	9.286665E-1	9.767300E-1	9.865221E-1	9.618522E-1	9.496500E-1	9.903338E-1	9.673894E-1	9.911556E-1	9.705670E-1	9.795933E-1	9.825381E-1	9.948763E-1	9.382774E-1	9.839833E-1	1.015823E+0	9.888156E-1	9.564220E-1	1.022986E+0	9.927426E-1	1.006595E+0	9.336029E-1	1.061608E+0	1.004855E+0	9.865427E-1	9.446153E-1	1.006771E+0	9.812182E-1	9.706112E-1	9.440260E-1	1.031774E+0	1.013095E+0	1.004666E+0	9.252779E-1	9.951247E-1	9.563501E-1	1.006823E+0	9.820119E-1	9.721400E-1	9.826195E-1	9.881497E-1	9.925039E-1	9.629901E-1	1.017208E+0	9.668599E-1	9.710173E-1	9.786642E-1	1.037817E+0	9.752146E-1	9.601252E-1	1.025509E+0	9.708925E-1	9.807079E-1	1.003552E+0	1.019504E+0	1.038967E+0	9.919897E-1	9.703328E-1	9.647147E-1	1.000832E+0	9.775092E-1	9.339680E-1	1.008257E+0	1.018673E+0	1.008691E+0	9.461609E-1	9.205528E-1	9.698237E-1	1.022254E+0	9.682598E-1	1.018390E+0	9.673109E-1	9.824099E-1	9.889987E-1	9.804216E-1	9.333915E-1	9.673808E-1	9.712903E-1	9.491498E-1	1.020329E+0	1.005073E+0	9.431836E-1	9.683288E-1	9.826103E-1	1.000899E+0	1.014757E+0	1.023120E+0	9.812975E-1	9.923659E-1	9.675992E-1	1.041781E+0	9.880656E-1	9.833277E-1	1.012025E+0	9.799812E-1	1.020311E+0	1.001890E+0	9.745992E-1	9.084687E-1	1.004490E+0	1.007363E+0	1.031047E+0	9.240185E-1	9.958953E-1	9.828501E-1	9.428107E-1	9.527991E-1	9.736638E-1	1.003485E+0	9.878084E-1	9.800533E-1	1.051107E+0	9.961768E-1	9.431201E-1	9.833417E-1	9.878812E-1	9.843466E-1	9.656681E-1	9.775342E-1	9.895630E-1	9.920370E-1	9.612303E-1	9.720808E-1	9.585334E-1	9.708093E-1	9.987427E-1	9.575248E-1	9.948623E-1	9.517359E-1	9.585912E-1	9.209599E-1	9.137226E-1
5.575080E+2	9.739989E-1	9.984783E-1	9.893616E-1	1.011624E+0	1.045114E+0	1.009423E+0	1.003406E+0	9.958211E-1	9.920771E-1	1.007927E+0	9.211326E-1	9.487801E-1	1.019154E+0	9.806457E-1	9.149888E-1	1.001680E+0	1.013599E+0	9.447561E-1	9.382383E-1	1.029019E+0	1.018857E+0	9.856362E-1	9.392458E-1	9.919051E-1	1.018306E+0	1.031369E+0	9.382134E-1	1.016801E+0	9.776287E-1	1.037562E+0	9.696583E-1	9.843666E-1	9.956213E-1	9.789470E-1	9.561494E-1	1.072830E+0	9.935227E-1	9.934030E-1	9.793363E-1	1.012379E+0	1.038014E+0	9.727020E-1	1.006646E+0	1.025010E+0	9.836221E-1	1.002427E+0	9.617852E-1	1.001060E+0	9.659199E-1	1.025904E+0	9.797565E-1	9.727052E-1	1.006205E+0	9.608173E-1	9.569830E-1	1.000496E+0	1.007314E+0	9.902805E-1	9.180611E-1	9.867800E-1	1.002744E+0	1.044896E+0	9.504597E-1	9.715641E-1	1.013095E+0	1.006533E+0	9.524614E-1	1.004738E+0	9.563503E-1	9.827086E-1	1.001741E+0	9.671741E-1	1.013215E+0	9.893717E-1	9.859857E-1	1.016304E+0	1.013205E+0	9.914928E-1	9.890147E-1	9.961532E-1	9.904698E-1	1.027234E+0	9.935688E-1	1.020603E+0	9.904509E-1	9.916267E-1	9.569771E-1	9.916408E-1	9.831204E-1	9.926154E-1	1.002941E+0	9.556676E-1	9.670254E-1	1.028857E+0	9.616577E-1	9.849353E-1	1.024834E+0	9.964429E-1	1.015940E+0	1.012301E+0	9.896026E-1	1.010363E+0	9.701083E-1	9.775858E-1	1.012952E+0	1.044383E+0	1.028100E+0	1.021705E+0	1.000109E+0	1.023044E+0	1.009611E+0	9.966414E-1	1.022271E+0	1.006268E+0	9.682497E-1	9.925782E-1	1.026724E+0	1.012153E+0	9.873432E-1	9.518323E-1	9.690693E-1	9.789605E-1	1.010248E+0	9.825854E-1	9.817513E-1	9.905034E-1	9.405077E-1	1.011299E+0	1.027041E+0	1.023940E+0	9.959967E-1	9.967237E-1	9.666813E-1	1.023395E+0	9.712202E-1	9.474498E-1	9.921629E-1	1.006236E+0	9.681823E-1	1.004836E+0	1.044118E+0	9.997890E-1	1.004864E+0	1.012693E+0	9.805462E-1	9.949639E-1	1.000072E+0	1.020046E+0	1.059089E+0	9.781591E-1	9.911987E-1	9.663599E-1	1.007367E+0	9.886340E-1	1.025966E+0	9.931515E-1	1.029619E+0	1.013257E+0	1.013297E+0	9.789193E-1	1.011988E+0	1.009365E+0	1.010206E+0	9.767742E-1	1.096734E+0
5.580510E+2	1.010787E+0	9.832604E-1	1.013660E+0	9.927178E-1	1.008553E+0	1.040830E+0	9.854484E-1	1.043940E+0	1.041987E+0	1.042084E+0	9.692366E-1	9.957171E-1	1.014824E+0	1.000614E+0	9.301971E-1	9.718035E-1	1.032531E+0	1.042904E+0	9.187281E-1	9.976468E-1	9.990386E-1	1.030322E+0	9.427989E-1	9.847625E-1	9.877956E-1	1.007740E+0	9.720785E-1	1.019791E+0	1.023307E+0	9.825411E-1	9.893133E-1	1.002757E+0	1.026138E+0	1.016736E+0	9.726396E-1	9.671199E-1	1.036701E+0	1.015777E+0	1.022409E+0	1.001639E+0	1.052141E+0	9.828833E-1	9.642372E-1	1.002613E+0	9.765728E-1	1.049896E+0	9.509354E-1	1.041690E+0	1.019474E+0	1.010256E+0	1.004257E+0	1.006007E+0	9.710872E-1	1.037113E+0	9.967266E-1	9.867317E-1	1.057097E+0	1.028285E+0	9.749634E-1	1.004192E+0	1.046875E+0	1.048150E+0	9.387620E-1	1.023428E+0	1.002288E+0	1.066263E+0	9.537257E-1	1.006111E+0	9.952036E-1	1.070341E+0	9.733071E-1	1.031722E+0	9.995440E-1	9.405056E-1	9.592608E-1	1.001426E+0	1.028642E+0	1.006604E+0	9.722582E-1	9.920714E-1	1.015358E+0	9.758261E-1	9.697721E-1	1.045831E+0	1.018637E+0	9.983012E-1	1.008790E+0	1.022987E+0	1.018259E+0	9.976220E-1	9.684144E-1	9.776400E-1	1.042396E+0	1.006778E+0	9.947619E-1	9.458552E-1	1.026685E+0	1.033187E+0	9.365831E-1	1.014340E+0	1.024075E+0	1.006964E+0	9.867491E-1	1.016153E+0	1.018503E+0	1.008702E+0	9.943005E-1	1.023583E+0	1.052061E+0	1.035847E+0	9.871051E-1	9.977987E-1	1.009971E+0	1.027155E+0	1.021596E+0	1.030789E+0	9.960362E-1	9.688322E-1	1.027586E+0	9.948622E-1	1.010071E+0	9.923652E-1	1.007702E+0	9.426626E-1	1.051841E+0	9.871945E-1	9.987344E-1	9.879638E-1	9.719809E-1	1.004410E+0	1.022916E+0	1.029485E+0	1.009216E+0	1.007957E+0	1.023490E+0	1.057906E+0	9.679054E-1	9.997406E-1	1.040183E+0	9.809603E-1	1.000503E+0	9.892287E-1	1.013708E+0	9.824716E-1	9.785680E-1	9.761535E-1	1.034676E+0	9.882825E-1	1.007052E+0	9.595987E-1	1.038900E+0	1.022229E+0	1.013507E+0	1.055333E+0	9.770544E-1	9.905180E-1	1.020404E+0	1.000466E+0	1.014620E+0	9.952804E-1	1.006993E+0	9.989596E-1	1.036013E+0	9.947790E-1	9.834410E-1
5.585390E+2	1.030740E+0	1.038176E+0	1.069480E+0	1.036133E+0	1.028792E+0	1.040148E+0	1.031270E+0	1.019248E+0	1.012664E+0	1.013083E+0	9.966446E-1	1.025640E+0	1.033220E+0	1.018536E+0	9.448654E-1	1.019109E+0	1.002697E+0	1.033371E+0	9.138505E-1	1.011907E+0	1.046602E+0	9.968079E-1	9.564185E-1	1.033570E+0	1.013560E+0	9.876537E-1	9.907388E-1	1.006039E+0	1.011010E+0	1.005291E+0	9.315781E-1	1.055480E+0	1.038743E+0	1.017933E+0	1.012947E+0	1.022035E+0	1.051287E+0	1.048474E+0	1.033472E+0	1.012944E+0	9.698459E-1	1.056695E+0	1.045891E+0	1.069807E+0	1.041106E+0	1.019150E+0	9.714293E-1	1.023437E+0	1.050512E+0	1.040390E+0	1.011842E+0	1.038004E+0	1.020836E+0	1.022398E+0	9.832828E-1	1.014810E+0	9.870320E-1	1.061305E+0	9.458795E-1	1.015155E+0	1.023192E+0	1.000434E+0	9.808741E-1	9.757369E-1	1.046785E+0	1.031419E+0	1.042860E+0	1.003364E+0	1.042557E+0	1.032112E+0	1.032496E+0	1.008001E+0	1.017120E+0	1.051675E+0	1.038132E+0	1.029323E+0	1.015492E+0	9.886920E-1	9.871534E-1	1.051534E+0	1.009895E+0	1.030294E+0	9.858507E-1	1.026910E+0	1.026115E+0	1.048656E+0	9.959832E-1	9.968656E-1	1.027045E+0	9.807251E-1	1.019565E+0	1.024816E+0	1.024110E+0	1.050423E+0	1.026064E+0	1.018342E+0	1.018672E+0	9.941091E-1	1.021413E+0	1.072787E+0	1.039331E+0	1.042638E+0	1.016334E+0	1.056398E+0	1.005551E+0	1.021847E+0	9.949632E-1	1.015450E+0	1.008861E+0	1.024715E+0	1.057663E+0	1.036023E+0	1.052702E+0	1.014621E+0	1.006813E+0	1.017562E+0	9.979544E-1	1.004276E+0	1.049750E+0	1.024405E+0	1.031650E+0	1.029664E+0	1.014068E+0	1.034210E+0	1.037950E+0	1.076074E+0	9.924054E-1	1.010071E+0	1.049675E+0	1.027719E+0	1.027748E+0	1.020125E+0	9.855856E-1	1.014488E+0	9.699606E-1	9.764576E-1	1.039434E+0	9.899955E-1	1.014812E+0	1.002388E+0	1.017278E+0	9.739184E-1	1.026341E+0	1.021760E+0	1.045172E+0	1.027730E+0	1.021699E+0	1.017929E+0	9.892505E-1	1.044362E+0	1.035541E+0	1.025759E+0	1.060166E+0	1.023345E+0	1.061931E+0	1.005004E+0	1.007898E+0	1.029539E+0	9.921282E-1	1.096592E+0	1.030540E+0	9.981588E-1	1.033667E+0	1.045191E+0	1.003777E+0
5.590210E+2	9.989402E-1	1.006418E+0	9.939581E-1	9.696091E-1	9.732972E-1	9.588961E-1	9.811144E-1	1.014816E+0	9.658743E-1	1.051751E+0	1.053698E+0	9.675548E-1	1.014825E+0	9.811563E-1	1.065998E+0	1.020976E+0	9.877793E-1	9.727989E-1	1.062006E+0	9.912300E-1	9.911088E-1	9.984030E-1	1.056491E+0	9.770251E-1	9.952537E-1	9.923787E-1	1.007326E+0	1.003049E+0	9.910994E-1	9.756643E-1	9.162230E-1	9.862067E-1	9.863340E-1	9.723481E-1	9.286666E-1	9.726115E-1	9.760202E-1	1.012907E+0	9.758434E-1	9.937259E-1	1.007308E+0	1.008336E+0	9.553753E-1	9.640402E-1	9.668099E-1	9.641278E-1	9.678126E-1	9.733852E-1	9.488801E-1	9.221737E-1	9.202530E-1	9.824998E-1	1.010886E+0	9.940592E-1	1.011339E+0	1.001047E+0	9.839590E-1	9.647374E-1	9.648476E-1	9.790407E-1	9.935959E-1	9.787445E-1	9.364219E-1	1.010910E+0	9.641484E-1	9.847565E-1	9.448753E-1	9.649096E-1	9.745630E-1	1.010351E+0	9.733068E-1	9.809665E-1	9.871761E-1	1.024799E+0	1.010755E+0	9.518308E-1	9.783336E-1	1.028438E+0	9.685347E-1	9.821609E-1	9.801501E-1	9.629742E-1	1.002572E+0	9.393126E-1	1.019213E+0	9.976946E-1	9.377646E-1	9.748070E-1	9.573935E-1	9.738411E-1	9.434785E-1	9.892725E-1	9.664705E-1	9.898335E-1	9.706856E-1	9.981722E-1	1.006347E+0	1.013356E+0	9.468447E-1	9.456979E-1	1.005990E+0	9.928093E-1	9.947610E-1	9.719972E-1	1.011103E+0	9.899209E-1	9.697796E-1	9.735401E-1	9.716726E-1	9.946578E-1	9.463521E-1	9.821622E-1	9.905474E-1	9.823941E-1	9.894592E-1	9.844952E-1	9.864460E-1	9.941502E-1	9.290219E-1	9.762370E-1	9.884909E-1	9.906181E-1	9.847865E-1	9.701952E-1	9.602825E-1	9.938172E-1	9.841775E-1	9.959471E-1	1.009299E+0	9.993700E-1	9.897846E-1	1.004078E+0	1.002127E+0	1.000831E+0	9.756286E-1	1.021646E+0	1.007713E+0	9.951928E-1	9.839539E-1	9.778997E-1	1.000503E+0	9.728604E-1	9.827548E-1	9.341167E-1	1.006924E+0	9.992110E-1	9.993508E-1	9.995770E-1	9.570701E-1	9.793965E-1	9.723868E-1	9.710663E-1	9.557966E-1	9.505198E-1	9.547572E-1	1.031344E+0	9.651158E-1	9.836024E-1	9.769125E-1	9.801779E-1	9.791643E-1	1.048584E+0	9.609369E-1	9.731734E-1	9.427721E-1
5.595110E+2	1.012034E+0	1.034207E+0	9.860781E-1	9.591053E-1	9.569750E-1	9.821111E-1	9.631573E-1	1.039509E+0	1.010793E+0	9.866593E-1	1.047544E+0	1.038547E+0	1.000216E+0	1.019048E+0	1.112716E+0	9.830078E-1	9.223725E-1	9.817725E-1	1.084564E+0	9.983600E-1	9.797858E-1	1.007979E+0	1.025698E+0	9.823819E-1	9.959320E-1	1.000059E+0	1.050176E+0	1.029356E+0	9.869992E-1	1.038621E+0	1.111540E+0	1.008276E+0	9.863335E-1	1.027532E+0	1.069136E+0	9.801620E-1	1.029700E+0	1.036428E+0	1.029395E+0	9.942901E-1	1.012221E+0	1.003881E+0	9.876572E-1	9.814596E-1	1.030261E+0	1.020768E+0	9.690181E-1	9.857495E-1	1.020691E+0	9.998265E-1	9.850075E-1	1.000131E+0	9.675759E-1	1.023487E+0	9.774402E-1	1.002699E+0	1.038658E+0	9.871658E-1	9.654798E-1	1.002902E+0	1.004897E+0	9.662738E-1	9.557235E-1	1.010909E+0	1.007373E+0	9.735577E-1	9.739548E-1	9.793305E-1	1.030415E+0	9.732987E-1	9.750478E-1	9.964139E-1	9.878269E-1	1.021745E+0	9.977185E-1	1.042962E+0	9.903379E-1	9.982084E-1	9.399866E-1	9.979005E-1	9.807569E-1	9.586907E-1	9.691295E-1	9.904693E-1	1.022665E+0	1.003762E+0	9.924898E-1	9.933820E-1	1.026417E+0	9.769696E-1	9.786445E-1	1.063590E+0	1.001940E+0	1.003696E+0	9.827245E-1	9.969112E-1	1.040239E+0	1.021521E+0	9.995209E-1	1.001428E+0	9.890365E-1	9.826169E-1	1.042218E+0	1.009445E+0	1.028988E+0	9.886698E-1	1.039366E+0	9.785446E-1	1.041125E+0	9.985522E-1	1.004136E+0	1.042395E+0	9.633551E-1	1.014025E+0	1.028023E+0	1.016093E+0	1.006905E+0	1.017214E+0	1.039832E+0	1.013487E+0	9.777013E-1	9.999422E-1	9.886056E-1	1.023885E+0	9.842771E-1	1.008169E+0	1.036075E+0	9.977886E-1	9.970636E-1	9.451905E-1	1.019465E+0	1.052218E+0	1.013942E+0	1.044178E+0	1.003967E+0	1.001561E+0	1.002115E+0	9.932441E-1	1.045669E+0	1.040957E+0	9.641585E-1	9.966204E-1	1.001074E+0	1.059234E+0	9.779085E-1	1.006493E+0	1.018816E+0	9.882828E-1	9.919885E-1	1.038793E+0	9.838085E-1	1.011057E+0	9.987724E-1	9.920374E-1	1.054018E+0	9.832748E-1	9.901273E-1	1.033609E+0	1.013958E+0	9.915048E-1	9.920084E-1	1.031776E+0	1.016071E+0	1.081200E+0	1.064781E+0
5.600470E+2	1.030740E+0	9.978168E-1	1.009719E+0	1.052239E+0	1.037932E+0	1.037417E+0	1.003405E+0	9.787264E-1	9.746084E-1	1.010505E+0	1.069918E+0	1.037960E+0	1.038090E+0	9.750127E-1	1.125750E+0	9.674466E-1	1.004418E+0	9.845768E-1	1.080907E+0	1.018325E+0	1.010361E+0	9.936160E-1	1.074847E+0	9.907147E-1	1.002712E+0	9.835185E-1	1.050176E+0	9.791335E-1	1.008667E+0	9.952389E-1	1.091885E+0	1.021763E+0	1.057982E+0	1.043727E+0	1.077074E+0	9.705526E-1	9.876882E-1	9.830771E-1	1.029977E+0	1.003336E+0	1.017749E+0	1.036334E+0	1.007279E+0	1.015678E+0	1.006941E+0	1.020228E+0	1.096802E+0	1.008126E+0	9.969570E-1	1.000986E+0	1.091766E+0	1.013843E+0	1.056536E+0	1.017494E+0	1.069787E+0	9.575507E-1	9.987091E-1	1.040122E+0	1.058419E+0	1.010640E+0	1.028039E+0	1.016159E+0	1.128266E+0	1.029390E+0	9.628771E-1	1.011510E+0	1.087113E+0	1.032206E+0	1.020095E+0	1.003293E+0	1.037138E+0	1.054343E+0	9.858740E-1	1.009529E+0	9.996742E-1	1.023743E+0	9.771899E-1	1.011083E+0	9.579845E-1	9.751656E-1	1.022642E+0	1.011322E+0	9.472624E-1	9.743513E-1	1.023240E+0	1.004975E+0	9.820098E-1	9.957039E-1	1.015750E+0	1.039552E+0	1.009975E+0	1.011245E+0	9.636976E-1	9.769974E-1	9.851322E-1	1.043555E+0	1.003883E+0	1.039601E+0	1.015940E+0	1.020456E+0	1.020118E+0	9.735563E-1	1.007704E+0	1.039070E+0	9.901318E-1	1.011205E+0	1.004241E+0	1.041722E+0	1.001751E+0	9.601456E-1	9.712903E-1	1.059190E+0	1.003496E+0	9.925396E-1	1.003599E+0	1.002131E+0	1.038232E+0	9.767084E-1	9.710139E-1	1.024405E+0	9.712269E-1	1.040154E+0	9.943348E-1	1.010807E+0	1.029110E+0	1.019763E+0	1.013923E+0	1.049986E+0	1.010523E+0	1.018900E+0	9.863331E-1	1.010764E+0	1.028119E+0	1.001425E+0	1.040493E+0	1.037265E+0	9.784792E-1	1.019229E+0	9.668112E-1	1.018917E+0	1.030697E+0	1.045724E+0	9.777009E-1	1.016924E+0	1.015497E+0	9.973912E-1	9.849329E-1	9.706359E-1	1.008422E+0	1.013426E+0	9.972452E-1	9.645958E-1	1.003070E+0	1.032193E+0	1.036036E+0	1.048464E+0	1.023695E+0	9.847657E-1	1.022558E+0	1.004090E+0	1.013415E+0	1.045382E+0	1.016071E+0	1.045192E+0	1.076402E+0
5.605150E+2	9.559167E-1	9.885534E-1	1.004465E+0	9.962187E-1	9.935365E-1	9.650412E-1	1.047370E+0	9.458024E-1	9.696172E-1	9.467024E-1	1.008948E+0	9.875031E-1	9.628834E-1	1.023144E+0	1.058937E+0	9.873643E-1	1.022778E+0	1.017106E+0	1.062005E+0	1.015472E+0	9.752553E-1	1.000001E+0	1.017409E+0	9.615499E-1	1.007458E+0	1.020144E+0	1.025987E+0	9.659797E-1	9.887571E-1	9.846581E-1	1.100482E+0	9.831420E-1	9.763826E-1	9.411573E-1	1.039209E+0	1.028212E+0	9.906052E-1	9.635724E-1	1.036962E+0	9.688538E-1	9.827428E-1	9.905192E-1	1.021204E+0	9.901696E-1	1.004230E+0	9.824697E-1	1.091982E+0	9.816279E-1	1.008520E+0	9.864976E-1	1.031095E+0	9.570330E-1	9.810373E-1	9.657203E-1	1.038809E+0	1.010405E+0	9.980949E-1	9.784438E-1	1.117217E+0	9.996776E-1	9.790650E-1	9.830813E-1	1.126512E+0	9.560646E-1	1.005466E+0	9.897342E-1	1.078895E+0	1.035640E+0	1.017059E+0	9.797684E-1	1.053385E+0	9.771047E-1	1.023630E+0	9.838751E-1	1.023792E+0	1.012585E+0	9.548947E-1	9.718980E-1	1.144170E+0	1.021220E+0	1.012930E+0	1.017442E+0	1.132487E+0	9.610364E-1	9.777975E-1	1.012255E+0	1.073413E+0	9.945424E-1	9.630412E-1	1.002002E+0	1.038107E+0	9.757009E-1	1.015241E+0	9.667268E-1	1.067597E+0	1.029059E+0	9.490365E-1	9.620312E-1	1.054250E+0	9.932719E-1	1.012205E+0	1.021120E+0	1.038520E+0	9.619353E-1	9.864307E-1	9.680118E-1	9.598384E-1	9.591536E-1	9.765926E-1	1.004675E+0	9.871051E-1	9.555205E-1	9.601178E-1	1.013428E+0	9.573233E-1	9.595103E-1	9.966757E-1	1.030718E+0	9.319379E-1	9.852285E-1	1.008632E+0	9.777945E-1	1.012158E+0	1.005989E+0	9.533370E-1	9.866412E-1	9.816459E-1	9.818234E-1	9.689219E-1	9.987400E-1	9.884033E-1	1.000735E+0	9.861777E-1	9.562968E-1	9.674417E-1	9.892890E-1	1.008334E+0	9.679085E-1	1.036069E+0	9.944287E-1	1.010009E+0	1.005069E+0	9.979152E-1	9.746134E-1	9.462554E-1	9.986046E-1	9.791656E-1	1.021458E+0	1.005683E+0	1.035081E+0	9.804490E-1	1.007528E+0	9.858796E-1	9.974819E-1	9.907211E-1	9.872254E-1	1.012506E+0	1.000465E+0	1.002051E+0	9.990562E-1	9.784511E-1	9.589396E-1	9.503786E-1	1.007382E+0	9.689155E-1
5.610070E+2	1.032611E+0	1.002448E+0	9.736002E-1	9.689087E-1	1.003982E+0	9.868904E-1	9.557267E-1	9.875900E-1	9.908300E-1	9.769925E-1	1.053696E+0	9.751819E-1	1.026188E+0	1.030824E+0	1.051334E+0	1.062057E+0	1.015893E+0	1.034492E+0	1.110780E+0	9.791089E-1	1.014325E+0	1.012768E+0	1.068334E+0	1.062139E+0	9.810153E-1	9.882444E-1	1.016311E+0	1.012615E+0	9.899278E-1	9.888879E-1	1.046433E+0	9.849806E-1	1.004246E+0	1.011336E+0	1.053866E+0	1.008992E+0	9.795197E-1	9.928300E-1	9.967986E-1	9.976840E-1	9.686176E-1	9.905187E-1	1.063614E+0	9.777269E-1	1.010195E+0	9.652069E-1	1.102228E+0	9.751504E-1	9.853942E-1	1.024165E+0	1.103432E+0	9.877233E-1	9.494324E-1	9.875209E-1	1.052253E+0	9.933366E-1	9.735108E-1	9.697215E-1	1.144405E+0	1.022249E+0	9.494681E-1	9.836241E-1	1.089665E+0	1.004947E+0	1.000382E+0	9.387159E-1	1.097859E+0	9.896311E-1	1.024344E+0	9.738873E-1	1.022631E+0	1.009102E+0	1.018422E+0	1.008918E+0	1.073330E+0	9.784878E-1	1.022924E+0	1.006046E+0	1.106931E+0	1.003732E+0	1.026892E+0	1.037025E+0	1.075891E+0	9.981776E-1	9.766448E-1	9.910213E-1	1.074578E+0	1.024730E+0	9.925333E-1	1.005132E+0	1.022123E+0	9.925037E-1	1.029096E+0	1.004211E+0	1.132005E+0	9.798922E-1	9.619776E-1	9.258709E-1	1.124029E+0	1.010942E+0	9.443933E-1	9.661953E-1	1.031123E+0	9.602598E-1	1.035156E+0	1.020595E+0	1.047319E+0	1.000438E+0	1.041672E+0	9.790714E-1	1.134302E+0	9.989584E-1	9.905478E-1	1.011638E+0	1.110933E+0	9.881694E-1	9.749381E-1	9.969632E-1	1.064329E+0	9.877974E-1	1.012948E+0	9.795443E-1	1.020434E+0	1.013560E+0	1.005115E+0	9.629021E-1	1.054429E+0	9.818231E-1	9.866634E-1	9.754301E-1	1.051216E+0	9.933809E-1	1.024575E+0	9.996441E-1	1.007116E+0	1.032245E+0	1.036324E+0	9.906451E-1	1.005897E+0	9.613699E-1	9.708679E-1	1.010876E+0	9.808595E-1	1.021155E+0	1.021432E+0	9.937503E-1	1.010165E+0	1.010164E+0	1.029647E+0	9.892962E-1	1.019417E+0	9.934130E-1	9.803534E-1	9.933979E-1	9.950372E-1	9.872253E-1	1.010531E+0	1.004534E+0	9.762514E-1	9.864712E-1	1.010561E+0	9.741473E-1	9.867446E-1	1.023586E+0	1.018302E+0
