Photon Energy (eV)	#1	#2	#3	#4	#5	#6	#7	#8	#9	#10	#11	#12	#13	#14	#15	#16	#17	#18	#19	#20	#21	#22	#23	#24	#25	#26	#27	#28	#29	#30	#31	#32	#33	#34	#35	#36	#37	#38	#39	#40	#41	#42	#43	#44	#45	#46	#47	#48	#49	#50	#51	#52	#53	#54	#55	#56	#57	#58	#59	#60	#61	#62	#63	#64	#65	#66	#67	#68	#69	#70	#71	#72	#73	#74	#75	#76	#77	#78	#79	#80	#81	#82	#83	#84	#85	#86	#87	#88	#89	#90	#91	#92	#93	#94	#95	#96	#97	#98	#99	#100	#101	#102	#103	#104	#105	#106	#107	#108	#109	#110	#111	#112	#113	#114	#115	#116	#117	#118	#119	#120	#121	#122	#123	#124	#125	#126	#127	#128	#129	#130	#131	#132	#133	#134	#135	#136	#137	#138	#139	#140	#141	#142	#143	#144	#145	#146	#147	#148	#149	#150	#151	#152	#153	#154	#155	#156	#157	#158	#159	#160	#161	#162	#163	#164	#165	#166	
5.300160E+2	-1.322917E-2	-5.574755E-3	-1.113036E-2	-1.033509E-2	5.460331E-3	5.554061E-3	-2.523151E-3	-8.183075E-3	3.946213E-3	-1.273407E-2	9.120379E-4	-5.173914E-4	-4.319559E-3	-1.079353E-2	6.346925E-3	-8.079926E-3	-1.463940E-2	-6.270387E-3	1.796606E-3	-4.174845E-3	-4.112098E-3	-4.165050E-3	-1.334088E-2	-1.385931E-2	-5.990472E-4	-8.225634E-3	-1.016581E-2	-1.724747E-2	-9.735646E-3	-4.761211E-3	-5.700977E-3	-9.699388E-3	-1.267008E-2	-1.469677E-2	-3.946809E-4	-7.289019E-3	-1.022977E-2	-1.550577E-2	-1.674454E-3	-9.549947E-3	-1.259383E-2	-6.331414E-3	-6.064490E-4	-1.294255E-2	1.455870E-3	-1.052805E-2	3.602290E-3	-1.168701E-2	-3.439185E-3	-1.676269E-2	-1.325023E-3	-3.216125E-3	-8.588868E-3	-3.424442E-3	-6.327988E-3	-1.168389E-2	-7.726519E-3	-9.840301E-3	-1.228679E-3	-1.831320E-2	-7.512168E-3	-1.100994E-2	-9.915556E-4	-6.587642E-3	-3.267498E-3	1.640767E-2	-8.532976E-3	1.300964E-3	-1.529386E-3	-1.933440E-2	-7.807907E-3	-1.166324E-2	-1.477025E-2	-8.274181E-3	-2.554257E-3	-1.276315E-2	-6.849086E-3	-1.026519E-2	-9.291667E-3	5.591448E-3	-6.896392E-3	-1.307762E-2	-1.004502E-2	-1.440856E-2	-1.214101E-2	-6.996629E-3	-1.581852E-2	-8.357518E-4	-6.266782E-3	-7.994431E-4	-4.300998E-3	-2.577255E-3	-5.617884E-4	3.800146E-3	-2.981019E-3	-6.376926E-3	-4.546388E-3	-1.326863E-2	-5.017280E-3	-2.608662E-3	-1.265150E-2	-2.003907E-3	-3.391767E-3	3.571752E-3	-1.011432E-2	-9.002376E-3	-2.735350E-3	-1.191467E-3	-6.614650E-3	-1.269862E-2	-5.395395E-3	-2.693983E-3	-2.030431E-2	-1.083263E-3	-1.162897E-2	3.847811E-3	-6.287551E-3	-8.110967E-3	-6.985295E-3	-8.048192E-3	1.019534E-2	-2.780302E-4	-1.334672E-2	-1.371073E-2	-1.091628E-2	-4.286332E-3	-5.931559E-3	-4.246993E-3	-1.864485E-3	-1.637754E-3	-1.709521E-2	-1.584295E-2	-7.407300E-3	-1.030683E-2	-1.125653E-2	-6.409070E-3	-9.207171E-3	-9.578181E-3	-1.259494E-2	-4.660628E-3	-2.850656E-3	-6.946727E-3	-6.817467E-3	-5.010531E-3	-1.043345E-2	-5.028132E-3	-8.602134E-3	-5.886630E-3	-2.341346E-3	-2.653450E-3	-9.109307E-3	-1.467336E-2	-6.546488E-3	-9.726978E-3	-9.025589E-3	-8.471104E-3	2.902899E-3	-6.359487E-3	-1.017527E-2	-1.415301E-2	-7.035714E-3	-1.046705E-2	-8.273450E-3	-3.261582E-3	-2.263136E-2	-1.319281E-2
5.305130E+2	-2.834131E-3	-1.089348E-3	-8.576155E-3	-1.732633E-3	-1.109477E-2	7.406608E-3	-1.187739E-2	-9.742449E-3	3.509810E-4	-4.947285E-3	-4.238089E-3	-1.149680E-4	-7.996314E-3	-1.281286E-2	-1.895503E-2	-3.748062E-4	-9.820304E-3	-1.397484E-3	-2.680956E-3	3.444527E-3	-1.102922E-2	6.673832E-4	-2.244766E-3	2.560031E-3	6.889408E-4	2.094470E-3	1.001464E-2	-8.720116E-4	-6.457109E-4	-1.018693E-3	-1.061696E-2	-7.635354E-3	-5.002926E-3	5.071161E-4	-2.848338E-3	-1.074477E-4	-3.852873E-3	-1.107035E-2	-5.194276E-3	-7.949936E-3	1.611157E-3	2.787142E-3	-6.220699E-3	-6.798181E-3	-3.997431E-3	-5.329638E-4	-2.662227E-3	-4.320169E-3	-5.063393E-3	2.248332E-3	-3.029382E-3	-6.235294E-3	-3.930854E-3	-7.275136E-4	-7.863352E-3	-1.224132E-2	-5.497479E-3	-1.668683E-2	-1.163520E-2	3.269757E-3	-1.414857E-2	3.409924E-3	-4.316709E-3	-2.991018E-3	-2.722668E-3	-8.386297E-3	4.669601E-4	-1.524931E-2	-5.445808E-3	-1.895864E-3	2.576595E-4	-1.563253E-3	3.826933E-3	-6.783784E-3	-5.106963E-3	8.557957E-4	-4.622565E-3	9.055297E-4	-2.628492E-3	-2.044119E-3	-5.095141E-3	-7.228573E-3	-1.594095E-3	-2.417799E-3	-5.519073E-3	-5.716199E-3	-3.945654E-3	-2.466456E-3	7.355366E-3	-8.210763E-3	7.313129E-3	3.606850E-3	4.814273E-4	-4.297756E-3	-1.621177E-3	-1.079836E-2	4.212664E-3	1.619625E-4	-8.761655E-3	-1.279576E-2	-4.358423E-3	2.031799E-3	-6.019694E-4	6.505405E-3	1.245776E-2	-3.787067E-3	-9.983162E-3	-5.911783E-3	-4.235959E-3	3.395092E-3	-7.433821E-3	9.158713E-3	-7.219262E-3	-1.033854E-2	-6.302266E-3	-4.505762E-3	-5.182716E-3	-9.673746E-3	-6.622173E-3	-1.387323E-3	-7.692049E-3	-2.856660E-3	-3.159591E-3	-2.766119E-3	-2.673252E-3	-7.111877E-3	-6.903471E-3	-7.199058E-3	-4.996525E-3	-4.163116E-3	5.229169E-4	-1.183760E-2	-3.778771E-3	-7.851159E-3	-2.893867E-3	-4.060046E-3	-4.200657E-3	-4.448220E-3	-1.823375E-3	-1.079697E-2	-1.188295E-3	-3.649350E-3	-5.998987E-3	-1.490199E-2	-1.895478E-3	-9.671875E-3	-3.173326E-3	-1.186740E-2	-7.353390E-3	-9.958077E-4	-9.306256E-3	-3.018388E-3	-2.542668E-3	-1.297094E-2	-3.497635E-3	-6.204260E-3	-5.489392E-3	-5.318130E-3	1.989797E-3	-4.777629E-3	-1.017677E-2	-1.452920E-3	-3.161428E-3	-1.203137E-2	6.583903E-3	-6.036448E-3
5.310150E+2	3.663855E-5	-4.910477E-3	-7.697527E-3	-1.621241E-2	3.580912E-3	-1.531265E-3	-1.234057E-3	-5.063540E-3	-6.015696E-3	-1.269999E-2	2.710859E-3	-6.452603E-3	-4.484945E-3	-5.224033E-3	-1.867011E-3	-2.968822E-4	3.243327E-3	-6.425719E-3	-4.680746E-3	-5.069266E-3	-1.769368E-3	-7.256037E-3	-3.367095E-3	-6.614330E-3	-9.403389E-3	5.678175E-3	-4.640016E-3	-4.222274E-3	-2.900253E-3	-6.103529E-3	-4.546813E-3	-2.384390E-3	1.060393E-2	-3.585621E-3	-5.584652E-3	-6.092677E-3	2.841907E-3	-7.124441E-3	-7.087875E-3	-8.494296E-3	6.695268E-5	-1.802331E-3	-4.265564E-3	-5.415033E-3	1.057358E-3	-4.681123E-3	-2.592029E-3	-7.746640E-4	-2.232315E-3	-1.342855E-2	-4.414056E-3	3.990779E-3	-5.902359E-3	-3.694264E-3	4.245659E-3	-3.251327E-3	-4.616861E-3	-3.484203E-3	-6.614384E-3	-9.264301E-4	-1.876817E-3	-6.993559E-3	4.886806E-4	-4.582789E-3	-4.624193E-3	-8.982166E-3	-8.336466E-4	9.093271E-4	-4.109806E-3	3.391976E-3	-5.316597E-3	-1.279455E-2	-1.210836E-2	1.635812E-3	-4.264048E-3	-6.950827E-3	1.881903E-3	3.533346E-4	-9.310075E-3	-4.193537E-3	1.006908E-3	4.025579E-3	2.564285E-3	-1.006864E-2	-2.248428E-3	-7.818104E-3	3.234832E-3	-7.095560E-3	3.502250E-3	-1.250401E-4	-9.992117E-3	-3.999829E-3	-4.193835E-3	-2.908162E-3	-8.426403E-3	-8.057792E-3	-1.137968E-2	-3.615386E-4	7.544975E-3	-7.771109E-3	7.126517E-3	1.547327E-3	-4.251733E-3	-6.655043E-3	-6.770083E-3	5.611581E-3	-7.091149E-3	-3.561616E-3	-5.406256E-3	-2.761046E-3	5.611936E-5	-5.399231E-3	1.081749E-3	1.504235E-3	5.387932E-3	-1.247410E-2	-8.939264E-3	-5.821482E-3	-7.171430E-3	-1.363796E-2	-2.424595E-3	4.106696E-3	-1.109815E-2	-8.607293E-3	-4.502652E-3	-2.115521E-3	-1.826664E-4	2.606245E-3	-7.717212E-3	-3.334848E-3	-7.012451E-3	4.857814E-3	-4.972774E-3	-3.739360E-3	-1.410444E-2	-1.993129E-3	-4.116149E-3	-5.118131E-3	1.186188E-3	-1.280399E-3	-3.727385E-3	-5.985648E-3	-4.702573E-3	-7.748878E-3	-9.037807E-3	-3.098056E-3	-3.785108E-3	-5.895587E-3	-1.121169E-2	-8.936118E-4	-6.680055E-4	2.164030E-3	-1.082101E-2	-8.915104E-3	-1.263018E-2	-4.548042E-3	1.144202E-3	-3.264820E-3	-6.781974E-3	-1.266392E-2	4.851736E-3	-1.127490E-2	4.612283E-3	5.043183E-3	-1.273331E-2	-5.950929E-3
5.315130E+2	-1.262705E-3	-1.029533E-2	-2.643510E-3	4.387271E-3	-6.354683E-3	-1.460356E-3	-1.153641E-3	1.185419E-3	5.032699E-4	-4.817073E-3	-3.411401E-3	-5.667405E-3	3.894137E-3	8.136998E-5	9.779267E-4	-5.870185E-3	5.776374E-3	-5.076559E-3	-1.844879E-3	-4.325394E-3	2.266203E-3	4.266579E-3	3.524892E-3	-6.522711E-3	-4.648360E-3	-4.776220E-3	-6.669653E-3	4.759665E-3	-2.231509E-3	-1.066190E-2	6.919579E-3	1.741755E-3	-1.266091E-2	3.443297E-3	-6.871857E-3	8.113522E-3	-2.518168E-3	5.292491E-3	-3.833694E-3	1.186011E-3	1.606644E-4	-9.461471E-3	3.753030E-3	-1.109212E-3	1.793980E-3	-6.998937E-3	-1.350716E-2	-7.933838E-5	-5.629173E-3	-3.100148E-3	-1.141612E-2	-6.904956E-4	-2.361070E-3	1.313334E-3	-5.799630E-3	4.643542E-3	-4.541583E-3	4.718415E-3	1.158190E-2	-1.155616E-2	-4.509695E-4	-2.755909E-3	-5.879581E-3	-6.847779E-3	4.868475E-3	3.951930E-3	3.498576E-3	4.485632E-3	5.785906E-3	-7.523033E-3	-1.155739E-2	4.646514E-3	7.420295E-3	-7.400055E-3	2.490805E-4	1.567948E-3	-5.261524E-4	3.117991E-3	2.643461E-3	-2.340558E-3	-3.515340E-3	5.805123E-3	-9.372044E-3	1.253819E-3	4.668497E-3	-3.599786E-4	1.408855E-3	-2.443971E-3	5.234276E-3	8.773598E-3	-9.223937E-3	-9.948817E-3	4.921586E-3	-8.948817E-4	-6.607114E-3	-4.939734E-3	1.225691E-3	3.850864E-3	-4.303431E-3	9.161363E-3	-1.843103E-3	-3.941080E-3	-4.795395E-3	-4.163564E-3	3.532838E-3	-1.253916E-3	4.095671E-3	-2.174416E-3	1.176227E-3	-3.916043E-3	-4.388345E-3	-4.617901E-3	5.159196E-3	-7.363434E-3	-3.328638E-3	-9.995012E-4	2.765864E-3	-6.978179E-4	6.555256E-3	3.900795E-3	-1.455453E-3	-6.497007E-3	3.639091E-3	1.669115E-3	2.716913E-3	1.672596E-3	4.578866E-3	2.601040E-3	-1.790872E-3	-3.210687E-3	-2.307146E-3	-5.180994E-3	-4.047331E-3	-4.963852E-3	-6.932576E-3	-7.957348E-3	-3.058602E-3	-9.561992E-3	5.807144E-4	1.608217E-3	-8.270903E-3	-5.882862E-3	6.115496E-3	8.466017E-3	7.016346E-3	-2.268732E-3	-2.991729E-3	6.017320E-3	6.713164E-3	-2.163702E-3	-1.228368E-3	6.675822E-5	-1.745220E-2	6.336216E-3	-4.741200E-3	1.847911E-3	-1.256949E-2	7.738754E-4	1.625965E-3	3.371210E-3	-4.024492E-3	-5.057688E-4	-3.840163E-3	-1.059796E-2	1.281330E-2	1.010496E-2
5.320070E+2	2.336960E-3	8.499695E-3	4.083887E-3	7.020222E-3	-1.171054E-4	-3.647898E-3	-1.836980E-3	1.131899E-2	-9.100287E-3	1.520140E-2	3.567040E-3	-3.453832E-3	-2.950990E-3	8.303478E-3	-2.783373E-3	2.698789E-3	4.234791E-3	2.664981E-3	-4.538709E-3	-5.573815E-3	-6.211759E-3	-5.388032E-3	6.091148E-3	4.722228E-3	-9.264910E-3	-1.103640E-2	5.372257E-3	1.421637E-3	-3.316786E-3	6.254290E-3	-1.709909E-3	-3.364104E-3	-1.546929E-3	8.400746E-3	4.259049E-3	-9.313870E-3	-1.815249E-3	-1.684400E-3	2.051010E-3	7.805588E-4	9.124930E-3	-2.394085E-3	-7.009564E-4	2.579942E-3	-2.497192E-3	4.073273E-3	3.408854E-3	-2.271770E-3	9.774115E-3	7.994244E-3	-5.679149E-3	-6.692094E-3	-1.477140E-3	-4.043228E-3	-3.735468E-3	4.751925E-3	7.346855E-3	-9.770229E-4	3.780346E-3	5.001751E-3	-3.115517E-4	-2.075899E-3	-6.394375E-3	2.133089E-3	2.329531E-4	-3.720886E-3	-3.503200E-3	-7.998406E-3	3.788817E-4	1.616847E-3	-7.119892E-4	-1.856105E-3	1.010630E-3	6.332515E-3	-8.540026E-3	-5.394879E-3	-3.620035E-3	1.182684E-3	1.024579E-2	8.586195E-5	-3.442254E-3	-1.110704E-2	8.159769E-4	-8.395476E-4	9.101793E-3	5.619314E-3	8.828872E-4	5.468914E-3	-4.506326E-3	-4.789327E-3	5.521979E-3	2.192539E-3	-8.908536E-3	4.663321E-4	-2.475746E-3	-4.855373E-3	1.295379E-3	-2.901130E-3	-7.730079E-3	-2.887334E-3	5.205879E-3	-7.654319E-4	6.781995E-3	-3.480719E-3	-2.692229E-3	6.574857E-3	-5.544993E-3	-3.557386E-3	1.226556E-2	1.837127E-3	-7.153112E-3	3.272096E-3	3.039911E-3	-3.829696E-3	3.580943E-3	-2.350002E-3	1.507373E-3	-3.109574E-3	-5.597662E-3	7.113090E-3	-3.536840E-3	-2.602184E-3	5.186200E-3	-8.609368E-6	-4.252988E-3	5.447710E-4	-8.608458E-3	-5.635544E-3	-1.223123E-2	4.251501E-3	6.227913E-3	6.567166E-3	1.398276E-3	9.956756E-3	6.640718E-3	7.085857E-3	-8.827142E-3	9.456742E-3	-2.968095E-3	-5.726400E-4	-8.096368E-4	2.830246E-3	8.794154E-4	-5.804885E-3	-6.118454E-4	3.653243E-3	4.873525E-3	2.969921E-3	-6.853753E-3	1.411284E-3	-4.338230E-4	8.443756E-3	1.054058E-2	2.439995E-3	9.598402E-3	-1.340686E-3	1.229640E-2	-1.756949E-3	7.088845E-3	1.291250E-2	2.818538E-3	9.531865E-3	-4.611468E-3	5.215832E-3	6.930728E-3	-4.449665E-4
5.325070E+2	-1.822342E-3	8.596752E-3	3.330795E-3	5.388041E-3	-8.085782E-4	-1.309996E-3	-9.960227E-4	5.980726E-3	1.475691E-3	4.596628E-3	4.345419E-3	6.627522E-3	8.927615E-3	6.091035E-3	1.728655E-3	2.221247E-3	1.882127E-3	-1.731660E-3	6.623890E-3	3.144432E-3	6.413584E-3	5.602386E-3	-6.613393E-4	5.450769E-3	6.473128E-3	-3.915711E-3	-7.932040E-3	1.250284E-2	3.209312E-3	1.566464E-2	6.435640E-3	7.140866E-3	3.748074E-3	1.333192E-4	5.024669E-3	2.233946E-3	7.428575E-3	1.142620E-2	7.203336E-3	-2.749447E-3	2.835795E-3	7.798451E-3	7.041075E-4	1.396267E-2	-3.061710E-3	5.996119E-3	1.947276E-5	7.748656E-3	1.522126E-3	8.108816E-3	1.503413E-2	1.604132E-3	-5.889769E-5	5.862826E-3	3.324179E-3	1.895685E-3	4.294000E-3	1.534810E-2	-7.720478E-3	5.831044E-3	3.042280E-3	3.371759E-3	2.530443E-3	8.165427E-3	1.006804E-3	-3.631623E-3	8.406768E-4	1.238179E-2	5.096278E-4	4.968035E-3	8.305702E-3	1.242621E-3	-7.850875E-3	1.091838E-3	1.226126E-2	4.565969E-3	5.491963E-3	-4.084386E-3	9.122280E-3	-3.894417E-3	2.607744E-3	8.580202E-3	2.989965E-3	7.533711E-3	3.626220E-3	1.238839E-2	-1.552054E-3	3.622298E-3	-1.014084E-2	3.327366E-3	-4.885382E-3	5.305677E-3	2.324465E-3	-2.005568E-3	1.156430E-2	9.826229E-3	-4.002747E-3	-2.796176E-3	1.606547E-3	1.270825E-3	-3.095280E-3	-5.031751E-3	-7.801508E-4	-3.987050E-3	5.539004E-4	-2.634571E-3	9.165456E-3	1.322888E-2	7.029769E-4	5.531959E-5	1.179648E-2	-2.210783E-4	1.949008E-4	9.450361E-3	9.449953E-4	5.655773E-3	9.022023E-3	7.662794E-3	4.723727E-3	7.224253E-3	3.138394E-3	-9.805062E-4	6.020159E-3	1.269964E-2	3.599504E-3	3.807757E-5	6.127964E-3	1.876851E-3	1.066490E-2	6.735085E-4	8.626366E-3	1.529802E-2	-1.766688E-3	2.650235E-3	4.611282E-3	-2.589486E-3	1.251918E-2	6.529105E-3	-5.074287E-3	2.676671E-3	6.024705E-3	2.343429E-3	-3.174932E-3	5.883143E-3	4.115887E-3	1.468207E-2	6.433778E-3	4.530309E-3	2.101154E-3	-8.143699E-3	1.686150E-3	-3.196985E-3	2.343922E-3	6.550836E-3	7.590066E-3	5.926620E-3	-6.527998E-3	3.234108E-4	-8.272701E-3	7.563679E-3	9.505117E-4	8.937321E-3	1.541991E-3	5.435677E-3	-1.531187E-2	1.304644E-2
5.330180E+2	1.677475E-2	4.773465E-3	2.263287E-2	1.148460E-2	9.333898E-3	-5.011153E-3	1.962124E-2	4.503928E-3	8.839829E-3	1.540040E-2	-3.885867E-3	9.578677E-3	6.930057E-3	1.435453E-2	1.455191E-2	9.701764E-3	9.323085E-3	1.823683E-2	5.324794E-3	1.255436E-2	1.444266E-2	6.272769E-3	9.998043E-3	1.426332E-2	1.675364E-2	2.018132E-2	1.402062E-2	3.657607E-3	1.562059E-2	6.263991E-4	9.219437E-3	1.420061E-2	1.752884E-2	5.797916E-3	6.415810E-3	1.245555E-2	8.145577E-3	1.866627E-2	8.535953E-3	2.677706E-2	-1.205673E-3	9.403707E-3	7.336531E-3	9.722359E-3	5.249125E-3	1.267169E-2	1.173080E-2	1.138429E-2	5.067825E-3	1.493999E-2	1.082959E-2	1.123910E-2	2.231919E-2	4.713286E-3	1.615660E-2	1.588538E-2	1.074159E-2	1.092185E-2	1.183649E-2	1.669323E-2	2.125780E-2	1.605362E-2	1.456310E-2	1.071071E-2	4.506127E-3	4.361376E-3	8.063610E-3	4.170010E-3	4.410585E-3	1.877644E-2	1.683052E-2	2.198801E-2	2.247163E-2	1.339785E-2	7.954949E-3	1.811914E-2	8.243973E-3	8.790035E-3	-7.813012E-4	6.795320E-3	1.533447E-2	1.300233E-2	1.464093E-2	1.894702E-2	2.511997E-3	2.883202E-3	1.578965E-2	3.750527E-3	4.822058E-3	1.823609E-3	1.556733E-2	5.420835E-3	5.936681E-3	5.839890E-3	1.054716E-2	2.520196E-2	1.319508E-2	1.531465E-2	1.666092E-2	1.563067E-2	9.615907E-3	8.163043E-3	7.039021E-3	8.209219E-3	3.032132E-3	4.491492E-3	1.209353E-2	3.167782E-3	2.112100E-3	1.408816E-2	1.251807E-2	5.013833E-4	1.804782E-2	1.166034E-2	1.134600E-2	1.082578E-2	7.114272E-3	1.975079E-2	1.509758E-2	4.835335E-3	1.775199E-3	9.107691E-3	1.275901E-2	1.072400E-2	1.602876E-2	1.125829E-2	1.091932E-2	9.997459E-3	1.793542E-2	7.421395E-3	1.103761E-2	6.138547E-3	2.057459E-2	1.425421E-2	2.393542E-2	1.592322E-2	1.689054E-2	1.272068E-2	2.069379E-2	1.302575E-2	1.082217E-2	1.729091E-2	1.369905E-2	1.911712E-2	1.084635E-2	1.731482E-3	7.244994E-3	1.013207E-2	1.894586E-2	1.343899E-2	1.905961E-2	1.021418E-2	2.447787E-2	1.628597E-2	1.270614E-2	1.278956E-2	8.243380E-3	1.560210E-2	1.452533E-2	7.747175E-3	1.261619E-2	5.231453E-3	1.373223E-2	1.019622E-2	2.434861E-2	2.473756E-3
5.331630E+2	8.448121E-3	1.662496E-2	1.351863E-2	1.758331E-2	2.271441E-2	1.624444E-2	1.515382E-2	8.459140E-3	2.543680E-3	1.048267E-2	1.075263E-2	1.468203E-2	2.100714E-2	1.096402E-2	1.521706E-2	1.093166E-2	-6.142706E-3	1.127461E-2	2.834180E-2	1.319847E-3	2.051402E-2	2.423103E-2	2.380764E-2	1.188561E-2	8.207437E-3	1.108454E-2	7.750198E-3	2.027751E-2	1.396686E-2	1.997238E-2	4.588289E-3	5.599710E-3	1.566756E-2	2.377375E-3	1.820457E-2	1.593593E-2	1.252726E-2	-1.104117E-4	1.502067E-2	1.540175E-2	2.000589E-3	2.335574E-2	1.471144E-2	1.049991E-2	1.619403E-2	1.276773E-2	1.115625E-2	4.446505E-3	3.666490E-3	3.359540E-3	1.447123E-2	1.683278E-2	7.735686E-3	9.832104E-3	9.962307E-3	9.391033E-3	5.963131E-3	1.397367E-2	1.554594E-2	8.043769E-3	1.418371E-2	1.972611E-2	1.876777E-2	6.639185E-3	1.079612E-2	1.235943E-2	9.615645E-3	8.583756E-3	-4.095639E-3	1.828428E-2	7.402432E-3	1.674797E-2	5.553442E-3	2.574707E-2	4.373311E-3	1.543433E-2	2.644993E-2	1.633118E-2	1.899292E-2	5.184162E-3	4.849552E-3	4.697409E-3	6.665865E-3	2.284937E-2	1.773489E-2	1.420265E-2	2.176993E-2	1.113802E-2	8.369257E-3	1.240767E-2	1.921301E-2	1.688039E-2	1.802437E-2	2.147002E-2	1.244066E-2	1.561961E-2	1.877741E-2	2.390849E-3	4.015187E-3	1.510888E-2	1.263068E-2	2.265970E-2	1.875050E-2	1.682082E-3	6.308100E-3	2.348062E-2	1.222965E-2	2.149930E-2	2.763910E-2	2.120009E-2	1.208553E-2	3.636980E-3	1.448399E-2	2.712114E-2	1.559358E-2	1.568694E-3	6.548594E-3	2.683980E-2	1.865909E-2	2.819898E-2	5.553504E-3	1.460741E-2	1.287584E-2	1.014001E-2	1.810090E-2	4.587771E-3	1.304955E-2	3.702665E-2	1.019075E-2	-6.014584E-4	1.499283E-2	1.357106E-2	2.202098E-2	-5.186374E-4	1.479939E-2	2.221123E-2	1.529412E-2	2.654698E-2	1.274467E-2	3.589474E-3	1.294784E-2	5.060144E-3	1.084087E-2	1.433648E-2	2.127824E-2	8.384862E-3	1.230427E-2	6.807607E-3	1.103351E-2	1.078541E-2	1.786112E-2	1.565953E-2	8.332534E-4	1.398367E-2	8.523168E-3	1.822848E-2	5.415833E-3	2.365452E-2	1.585591E-2	1.462567E-2	2.108381E-2	1.379564E-2	2.623802E-3	1.137578E-2	3.186367E-3	7.930028E-3
5.333130E+2	1.992078E-2	5.742968E-3	2.284324E-2	1.941133E-2	8.066018E-3	2.090527E-2	1.832295E-2	2.179382E-2	2.622102E-2	1.560519E-2	1.851076E-2	1.264155E-2	1.554872E-2	2.220405E-2	9.801699E-3	1.561104E-2	1.199000E-2	1.911506E-2	8.290512E-3	2.011581E-2	2.267363E-2	1.686823E-2	2.143592E-2	1.139160E-2	1.385473E-2	1.899691E-2	1.564879E-2	4.250248E-2	2.882131E-2	1.191883E-2	2.021825E-2	8.616923E-3	1.841923E-2	2.209270E-2	3.143494E-2	2.622585E-2	1.946122E-2	1.897150E-2	1.898433E-2	2.217192E-2	9.355902E-3	1.879369E-2	2.948367E-2	2.549893E-2	2.657783E-2	1.289833E-2	1.825760E-2	1.968589E-2	2.750908E-2	1.721533E-2	1.668598E-2	2.248779E-2	1.627118E-2	1.930907E-2	1.011466E-2	2.638023E-2	1.399784E-2	1.930087E-2	7.672730E-3	1.244751E-2	1.432171E-2	2.168103E-2	2.191302E-2	1.456090E-2	2.726252E-2	1.822813E-2	3.686725E-2	2.566389E-2	1.579105E-2	2.105453E-2	1.456173E-2	1.997066E-2	3.119737E-2	9.798406E-3	2.011502E-2	2.124450E-2	2.726149E-2	2.996486E-2	2.294442E-2	1.298435E-2	3.693920E-2	2.549897E-2	1.358367E-2	2.298695E-2	1.037230E-2	2.706594E-2	1.811432E-2	1.923223E-2	4.347874E-3	1.414283E-2	1.371032E-2	1.625887E-2	9.077521E-3	2.032803E-2	1.316704E-2	5.983101E-3	2.075343E-2	2.407765E-2	1.915860E-2	3.369359E-2	3.226372E-2	2.474029E-2	7.940752E-3	1.515322E-2	1.117465E-2	1.197253E-2	1.167553E-2	1.798107E-2	2.976160E-2	1.945375E-2	2.258924E-2	1.587807E-2	1.016859E-2	2.238448E-2	2.191616E-2	1.976227E-2	8.010768E-3	1.500382E-2	-1.771929E-3	2.016705E-2	3.289899E-2	2.090923E-2	2.334304E-2	2.155079E-2	3.777582E-2	5.339208E-3	9.169563E-3	2.261244E-3	2.179327E-2	1.653670E-2	5.446597E-2	1.770170E-2	9.684143E-3	1.858967E-2	1.206699E-2	1.744598E-2	2.396613E-2	6.861405E-3	8.460378E-3	1.055807E-2	2.248410E-2	1.511668E-2	9.172353E-3	2.271431E-2	1.033053E-2	1.580548E-2	1.242453E-2	2.621122E-2	7.135548E-3	1.648528E-2	2.800575E-2	9.103455E-3	2.219376E-2	2.377341E-2	2.442550E-2	3.437604E-2	1.141189E-2	2.380263E-2	6.399795E-3	1.414707E-2	1.740827E-2	2.008605E-2	2.002423E-2	2.227741E-2	2.005692E-2	3.224046E-2
5.334630E+2	1.434755E-2	5.063298E-3	1.120321E-2	3.074976E-2	2.297522E-2	1.874984E-2	1.233740E-2	1.332732E-2	1.740013E-2	1.500121E-2	1.655222E-2	1.348132E-2	3.316882E-2	1.709002E-2	2.163260E-2	2.261146E-2	2.936872E-2	2.247092E-2	2.235614E-2	1.490451E-2	3.546104E-2	1.757963E-2	1.655941E-2	1.153024E-2	1.397449E-2	2.765457E-2	1.578067E-2	2.608568E-2	2.840302E-2	2.260948E-2	2.374920E-2	2.857097E-2	2.315587E-2	1.311291E-2	1.225930E-2	1.754397E-2	1.102164E-2	1.180640E-2	3.068437E-2	1.990711E-2	1.590068E-2	9.549471E-3	2.364148E-2	2.919604E-2	1.198639E-2	3.014167E-2	2.718008E-2	1.282807E-2	1.929483E-2	2.632979E-2	1.329116E-2	1.295418E-2	1.859245E-2	1.992910E-2	2.502351E-2	1.811716E-2	1.490150E-2	1.350522E-2	2.528460E-2	9.703223E-3	2.037305E-2	1.764071E-2	2.380567E-2	2.420756E-2	1.724586E-2	1.696189E-2	1.986363E-2	1.167283E-2	3.780725E-2	2.052356E-2	2.753661E-2	1.279973E-2	2.648994E-2	2.370253E-2	2.620596E-2	3.417313E-2	1.189679E-2	2.199077E-2	2.307942E-2	9.586450E-3	2.041878E-2	1.356752E-2	8.947828E-3	1.856841E-2	2.060763E-2	3.538951E-2	1.563577E-2	1.864895E-2	3.621693E-3	2.963136E-2	2.300727E-2	1.941603E-2	1.204954E-2	2.824974E-2	2.091595E-2	1.652784E-2	2.080602E-2	1.665646E-2	9.262497E-3	1.205768E-2	3.635745E-2	1.862830E-2	2.226008E-2	2.502873E-2	2.081480E-2	2.857105E-2	3.003289E-2	1.517473E-2	2.337619E-2	1.514831E-2	2.794276E-2	1.784834E-2	2.590528E-2	2.392507E-2	3.379248E-2	1.120797E-2	1.628142E-2	2.210460E-2	2.307277E-2	2.409636E-2	1.533854E-2	4.037143E-2	3.384837E-2	1.463036E-2	2.228828E-2	1.726303E-2	2.339595E-2	1.331171E-2	2.481562E-2	8.507320E-3	1.986431E-2	1.717412E-2	2.691178E-2	1.601517E-2	2.936292E-2	2.747751E-2	2.581300E-2	2.607894E-2	4.895521E-3	1.206816E-2	2.263862E-2	2.645921E-2	2.316837E-2	2.453080E-2	2.080637E-2	2.032744E-2	3.384543E-2	1.393817E-2	2.072862E-2	2.683485E-3	3.017433E-2	2.127658E-2	2.828933E-2	2.714119E-2	1.306682E-2	3.071174E-2	1.300535E-2	3.656021E-2	2.095474E-2	3.713065E-2	2.364337E-2	3.335481E-2	1.756051E-2	1.270267E-2	7.989926E-3	4.048766E-2
5.336130E+2	2.293660E-2	2.573710E-2	4.336867E-2	3.094684E-2	3.099291E-2	2.655673E-2	2.785042E-2	3.695576E-2	2.167774E-2	2.525904E-2	3.000973E-2	1.293266E-2	1.867030E-2	1.084080E-2	1.237321E-2	2.224821E-2	1.724583E-2	3.173434E-2	3.165634E-2	1.778358E-2	1.838360E-2	2.880939E-2	1.674602E-2	3.243218E-2	2.444726E-2	2.431560E-2	3.590209E-2	2.492353E-2	3.160215E-2	2.460372E-2	2.465099E-2	3.349814E-2	2.075074E-2	3.582373E-2	2.980616E-2	2.593450E-2	2.233224E-2	2.973590E-2	3.802201E-2	2.872133E-2	1.780544E-2	1.690563E-2	3.466469E-2	3.017354E-2	2.765491E-2	3.232939E-2	1.639455E-2	1.836701E-2	1.399970E-2	3.632806E-2	2.282033E-2	2.359180E-2	2.161917E-2	3.444748E-2	3.221865E-2	2.923629E-2	2.477762E-2	2.416243E-2	7.310566E-3	1.217289E-2	2.525092E-2	2.628676E-2	3.236618E-2	2.023373E-2	1.943763E-2	2.940430E-2	1.573721E-2	2.657677E-2	2.314022E-2	3.710584E-2	1.735459E-2	3.053968E-2	2.094405E-2	2.847078E-2	1.743265E-2	2.868390E-2	1.662945E-2	2.623154E-2	3.458058E-2	1.567206E-2	2.800292E-2	1.442291E-2	2.475967E-2	2.706741E-2	2.791737E-2	1.304990E-2	3.183061E-2	2.343995E-2	3.053389E-2	1.845745E-2	3.449718E-2	3.099434E-2	2.854262E-2	2.778820E-2	1.757601E-2	3.329708E-2	2.716156E-2	1.891299E-2	3.519092E-2	3.206296E-2	2.633817E-2	2.131687E-2	2.891928E-2	3.437501E-2	3.456049E-2	2.863816E-2	1.194734E-2	2.338695E-2	1.503618E-2	3.256516E-2	2.932308E-2	3.811941E-2	1.641746E-2	2.832539E-2	3.124030E-2	2.736387E-2	1.441294E-2	2.548671E-2	2.603361E-2	2.936209E-2	3.766008E-2	1.658978E-2	2.588887E-2	3.392379E-2	3.097763E-2	2.244395E-2	2.561500E-2	2.965405E-2	3.654177E-2	2.876182E-2	3.708161E-2	2.272789E-2	3.636514E-2	2.301872E-2	3.315426E-2	1.285343E-2	2.686732E-2	3.548258E-2	2.132424E-2	2.601235E-2	3.769005E-2	2.793826E-2	2.037644E-2	2.972575E-2	3.732110E-2	2.492218E-2	3.406592E-2	1.549610E-2	2.633754E-2	1.961515E-2	2.772335E-2	2.684258E-2	1.142149E-2	2.895203E-2	3.485582E-2	2.632443E-2	3.090979E-2	2.017858E-2	3.322827E-2	3.243766E-2	2.077246E-2	1.421139E-2	2.034491E-2	4.427016E-2	2.498765E-2	2.183718E-2
5.337840E+2	3.893956E-2	3.097774E-2	5.971022E-2	4.250946E-2	3.026141E-2	3.594727E-2	2.049444E-2	3.183585E-2	3.125304E-2	2.896372E-2	3.171846E-2	3.639369E-2	2.713544E-2	3.076087E-2	3.047743E-2	4.726918E-2	4.640044E-2	3.589704E-2	3.892731E-2	3.754403E-2	3.328360E-2	3.552924E-2	3.949805E-2	2.707360E-2	4.520560E-2	3.104897E-2	3.617655E-2	4.187089E-2	3.534147E-2	3.253749E-2	2.829903E-2	3.554465E-2	4.016631E-2	5.168021E-2	3.513028E-2	2.560278E-2	3.016602E-2	4.180545E-2	5.015296E-2	3.137553E-2	3.194356E-2	2.742974E-2	3.237140E-2	4.348388E-2	5.005875E-2	2.224404E-2	4.205123E-2	2.496018E-2	3.051295E-2	3.740297E-2	3.901217E-2	3.161616E-2	2.758492E-2	3.220987E-2	3.251802E-2	4.391221E-2	1.703943E-2	4.182560E-2	3.404411E-2	1.385651E-2	2.823402E-2	3.431063E-2	4.150773E-2	3.174918E-2	3.521598E-2	3.446892E-2	4.534445E-2	5.067988E-2	3.880330E-2	3.664211E-2	3.924728E-2	2.755985E-2	4.921709E-2	3.712286E-2	3.258438E-2	2.746486E-2	3.700633E-2	3.659731E-2	3.783542E-2	3.068578E-2	3.959414E-2	3.426493E-2	2.955985E-2	3.784902E-2	2.868456E-2	3.792611E-2	4.033652E-2	3.820501E-2	5.663131E-2	3.734135E-2	3.967898E-2	3.273838E-2	2.358718E-2	3.124727E-2	3.071112E-2	2.366962E-2	3.046498E-2	2.048870E-2	2.731424E-2	3.158713E-2	3.276860E-2	2.844328E-2	2.329143E-2	3.277457E-2	4.608509E-2	3.889963E-2	3.889919E-2	2.943449E-2	3.168634E-2	2.191128E-2	3.128861E-2	1.764080E-2	3.378183E-2	5.525891E-2	4.185815E-2	2.612373E-2	4.464533E-2	3.143820E-2	2.971292E-2	3.275464E-2	5.568660E-2	4.163956E-2	3.649438E-2	4.195343E-2	3.709674E-2	2.953984E-2	3.528187E-2	3.048870E-2	4.328713E-2	3.645494E-2	3.886671E-2	4.914191E-2	3.330793E-2	1.708479E-2	4.345114E-2	3.229966E-2	4.686317E-2	2.571681E-2	3.265748E-2	4.348364E-2	4.267818E-2	3.889200E-2	2.120740E-2	3.549690E-2	3.159489E-2	2.833755E-2	4.782947E-2	3.025040E-2	1.302221E-2	4.672652E-2	5.411695E-2	3.311340E-2	2.355718E-2	3.009399E-2	4.300871E-2	3.650549E-2	3.187006E-2	3.506967E-2	3.106476E-2	3.704162E-2	3.094738E-2	2.373607E-2	3.186533E-2	4.670315E-2	5.283369E-2	6.810090E-2
5.339090E+2	3.754209E-2	4.224567E-2	4.970845E-2	4.028964E-2	4.589227E-2	4.850722E-2	5.767672E-2	5.340968E-2	3.173909E-2	4.441558E-2	3.256960E-2	3.000489E-2	3.810687E-2	3.507226E-2	3.343462E-2	4.514360E-2	3.624252E-2	5.183323E-2	3.068364E-2	4.111406E-2	2.854999E-2	4.565706E-2	3.776901E-2	2.924151E-2	3.528158E-2	4.055690E-2	3.508656E-2	4.216974E-2	4.542548E-2	4.765349E-2	4.282702E-2	4.403083E-2	4.406465E-2	4.081197E-2	2.483996E-2	2.796298E-2	3.805111E-2	4.134352E-2	4.518022E-2	3.085791E-2	2.914485E-2	3.942678E-2	6.018382E-2	6.236060E-2	3.772693E-2	4.631892E-2	2.508304E-2	2.337734E-2	3.645201E-2	3.269440E-2	4.216954E-2	3.593767E-2	3.491631E-2	3.165851E-2	3.124636E-2	3.082859E-2	5.559323E-2	3.675832E-2	3.196991E-2	4.380719E-2	3.299681E-2	4.346720E-2	4.466241E-2	3.477675E-2	4.219769E-2	3.816922E-2	3.687122E-2	3.878383E-2	3.084340E-2	3.151240E-2	4.906506E-2	3.012897E-2	5.585233E-2	3.880105E-2	3.272649E-2	4.262037E-2	4.415613E-2	4.082917E-2	3.097334E-2	2.786626E-2	4.109018E-2	4.031166E-2	4.468057E-2	3.321114E-2	3.256082E-2	4.783512E-2	4.304508E-2	4.767335E-2	3.507070E-2	4.075745E-2	3.202430E-2	3.365057E-2	3.928669E-2	4.248940E-2	3.085954E-2	4.602992E-2	3.292434E-2	4.367217E-2	3.456104E-2	3.586532E-2	5.084292E-2	4.692496E-2	3.188516E-2	4.458148E-2	5.266292E-2	2.252688E-2	5.248196E-2	4.135239E-2	3.776931E-2	5.281858E-2	3.435359E-2	4.589262E-2	4.066634E-2	3.358993E-2	4.896344E-2	3.502758E-2	3.864864E-2	4.690608E-2	3.955650E-2	5.008032E-2	3.881627E-2	4.646756E-2	5.452683E-2	5.776657E-2	3.725647E-2	4.722330E-2	3.476661E-2	2.429540E-2	2.752911E-2	5.156813E-2	6.002479E-2	4.059167E-2	3.811174E-2	5.488332E-2	3.424973E-2	3.247314E-2	5.134417E-2	3.586410E-2	4.098095E-2	2.500752E-2	2.929691E-2	3.158332E-2	3.411216E-2	2.958518E-2	3.334187E-2	3.440879E-2	3.443690E-2	4.013881E-2	4.505680E-2	3.002745E-2	3.413320E-2	4.676099E-2	4.425984E-2	3.917866E-2	4.101258E-2	2.896711E-2	4.612146E-2	4.465830E-2	3.669326E-2	4.655442E-2	4.183909E-2	4.986443E-2	4.333220E-2	5.231322E-2	4.071586E-2	2.783759E-2
5.340640E+2	4.295281E-2	6.786315E-2	6.678828E-2	5.579637E-2	4.881630E-2	6.647719E-2	6.406717E-2	6.096510E-2	5.110852E-2	7.085812E-2	6.647862E-2	6.647579E-2	7.203014E-2	4.710786E-2	5.214920E-2	6.034051E-2	5.443406E-2	4.482875E-2	6.392735E-2	4.803065E-2	4.693373E-2	6.702939E-2	4.675260E-2	5.090109E-2	6.098527E-2	6.165868E-2	4.811512E-2	6.190851E-2	5.600042E-2	5.490563E-2	4.572407E-2	4.362060E-2	6.171668E-2	5.182577E-2	5.162257E-2	5.703841E-2	5.612457E-2	4.484402E-2	6.629063E-2	7.335950E-2	4.211637E-2	6.514463E-2	4.895728E-2	5.190789E-2	5.169173E-2	4.369291E-2	5.080967E-2	5.495164E-2	6.647791E-2	5.728689E-2	5.321122E-2	5.500168E-2	5.402763E-2	4.445527E-2	6.693619E-2	5.303065E-2	5.560626E-2	4.612573E-2	5.206157E-2	5.059755E-2	9.018440E-2	6.897969E-2	5.625072E-2	6.385349E-2	4.644438E-2	7.895309E-2	4.929955E-2	5.597105E-2	6.285733E-2	5.612651E-2	6.476738E-2	5.596340E-2	5.598923E-2	5.443549E-2	4.566499E-2	4.853255E-2	6.524965E-2	6.828491E-2	5.217865E-2	4.888828E-2	4.464050E-2	5.852915E-2	4.555864E-2	6.994484E-2	6.061744E-2	6.382550E-2	5.869619E-2	5.719201E-2	6.791898E-2	6.379067E-2	6.494627E-2	6.660876E-2	5.790017E-2	7.670270E-2	6.178555E-2	5.798555E-2	5.945469E-2	6.487588E-2	6.706989E-2	5.945652E-2	6.693754E-2	7.629177E-2	5.680383E-2	5.399906E-2	6.649314E-2	5.976122E-2	5.127216E-2	7.177734E-2	6.899180E-2	6.716503E-2	6.830672E-2	5.467911E-2	5.883739E-2	7.187363E-2	6.168010E-2	4.836407E-2	7.036894E-2	5.541999E-2	5.152976E-2	4.837996E-2	5.836114E-2	5.210314E-2	5.024231E-2	6.510496E-2	5.389297E-2	6.184803E-2	6.201875E-2	6.743219E-2	5.813777E-2	7.722757E-2	6.255747E-2	6.100669E-2	5.954420E-2	5.166955E-2	7.267955E-2	5.760104E-2	4.980011E-2	6.533564E-2	5.605037E-2	5.356538E-2	5.662809E-2	6.256789E-2	4.586365E-2	5.199033E-2	5.374095E-2	4.789022E-2	5.179001E-2	6.261415E-2	6.159226E-2	7.252161E-2	6.532075E-2	6.453521E-2	4.702192E-2	6.626048E-2	5.279244E-2	5.917690E-2	6.117881E-2	5.827812E-2	6.056129E-2	5.736265E-2	7.052373E-2	7.744894E-2	6.274079E-2	5.469614E-2	5.014047E-2	1.981715E-2
5.342040E+2	8.669885E-2	6.087654E-2	8.137394E-2	5.285494E-2	8.442066E-2	8.060372E-2	8.282695E-2	8.868113E-2	5.952571E-2	7.836273E-2	6.596000E-2	8.486158E-2	7.093619E-2	7.940996E-2	7.942745E-2	8.486483E-2	8.052974E-2	7.962877E-2	7.117730E-2	6.648136E-2	8.250295E-2	7.727210E-2	7.980390E-2	6.566583E-2	6.709123E-2	8.790805E-2	6.685323E-2	8.590900E-2	6.223338E-2	8.956911E-2	8.148930E-2	6.624756E-2	7.181451E-2	7.915208E-2	8.759743E-2	8.693259E-2	7.895709E-2	8.376822E-2	7.366602E-2	8.342908E-2	6.819932E-2	8.277165E-2	8.098837E-2	8.817247E-2	8.013720E-2	7.801266E-2	7.111620E-2	8.467839E-2	6.874254E-2	9.189309E-2	7.375136E-2	9.727873E-2	8.985276E-2	1.011549E-1	8.472842E-2	7.292177E-2	8.074101E-2	7.719748E-2	8.042211E-2	8.014813E-2	8.201685E-2	8.938254E-2	6.429126E-2	7.136196E-2	8.363864E-2	7.796089E-2	7.335542E-2	7.550302E-2	7.145921E-2	7.208265E-2	7.024401E-2	7.588970E-2	9.071946E-2	1.018199E-1	5.343581E-2	6.101637E-2	7.773419E-2	7.415045E-2	9.198012E-2	7.241086E-2	7.973066E-2	6.559406E-2	6.766423E-2	7.242248E-2	6.138735E-2	7.158061E-2	8.474713E-2	8.275172E-2	6.477155E-2	8.854414E-2	8.656872E-2	8.353762E-2	1.191774E-1	8.745097E-2	8.809536E-2	7.928738E-2	6.354347E-2	6.863501E-2	5.865885E-2	6.726603E-2	8.101392E-2	7.718361E-2	8.377589E-2	7.635189E-2	8.036778E-2	7.736855E-2	8.053939E-2	6.681104E-2	8.511716E-2	6.419872E-2	7.557100E-2	7.392456E-2	8.835194E-2	7.778336E-2	9.886118E-2	7.199753E-2	8.913906E-2	7.805223E-2	6.284829E-2	8.176397E-2	8.019520E-2	6.479055E-2	7.810243E-2	7.103852E-2	9.237678E-2	7.906171E-2	7.854096E-2	8.864462E-2	9.975071E-2	7.296527E-2	8.383964E-2	7.406710E-2	9.503609E-2	7.456299E-2	7.000902E-2	8.846299E-2	8.286149E-2	7.561271E-2	7.043128E-2	6.211336E-2	7.999054E-2	7.478502E-2	6.680691E-2	6.725228E-2	8.166426E-2	7.550704E-2	8.355542E-2	8.098647E-2	9.043653E-2	6.641464E-2	6.488878E-2	8.237971E-2	6.269709E-2	7.791777E-2	7.334108E-2	6.402863E-2	8.151261E-2	1.008218E-1	8.331544E-2	7.634672E-2	8.154673E-2	6.985332E-2	8.134836E-2	6.801181E-2	8.430194E-2	6.638697E-2
5.343550E+2	1.014980E-1	8.185079E-2	1.045494E-1	1.276622E-1	1.215082E-1	8.550352E-2	1.156355E-1	1.127005E-1	1.113302E-1	1.152364E-1	1.304282E-1	1.201218E-1	1.024656E-1	1.190193E-1	1.145315E-1	1.153129E-1	9.574049E-2	1.008347E-1	1.201961E-1	1.019880E-1	1.171080E-1	1.366603E-1	1.294735E-1	1.072004E-1	1.173503E-1	1.251800E-1	1.134050E-1	1.114469E-1	9.432897E-2	1.209465E-1	9.342129E-2	1.114992E-1	1.199443E-1	1.217191E-1	1.124284E-1	1.017510E-1	1.024327E-1	1.268427E-1	1.274299E-1	1.138185E-1	1.025824E-1	1.000530E-1	1.185829E-1	1.036178E-1	1.219767E-1	1.068637E-1	1.126466E-1	1.136389E-1	1.342507E-1	1.117168E-1	1.110417E-1	1.024460E-1	8.948580E-2	1.153236E-1	1.427725E-1	1.259824E-1	8.701349E-2	1.024941E-1	1.132393E-1	9.942486E-2	1.180513E-1	1.127260E-1	1.126793E-1	1.042314E-1	1.156143E-1	9.207466E-2	1.249240E-1	1.197987E-1	1.067816E-1	1.133692E-1	1.347847E-1	1.173564E-1	1.255160E-1	1.118920E-1	1.110073E-1	1.059147E-1	1.161026E-1	1.053515E-1	1.176726E-1	1.007940E-1	1.165471E-1	1.164093E-1	1.022862E-1	1.200623E-1	1.254369E-1	1.253086E-1	1.070172E-1	1.159953E-1	1.000114E-1	9.750518E-2	1.074273E-1	9.685218E-2	1.376894E-1	1.159374E-1	1.246324E-1	1.100901E-1	1.184531E-1	1.131662E-1	9.997850E-2	1.062226E-1	1.180425E-1	1.328071E-1	1.147848E-1	1.043636E-1	1.087749E-1	1.140346E-1	9.286441E-2	8.701052E-2	1.039215E-1	1.179867E-1	1.185281E-1	9.880567E-2	9.914237E-2	1.213003E-1	1.145385E-1	1.067491E-1	1.362162E-1	8.733586E-2	1.194754E-1	1.044254E-1	1.193107E-1	1.023882E-1	9.033711E-2	1.127421E-1	1.151474E-1	1.108491E-1	1.277770E-1	9.946420E-2	1.138967E-1	9.654792E-2	1.114895E-1	1.095394E-1	1.273598E-1	9.896329E-2	1.064903E-1	1.131825E-1	1.004594E-1	1.122606E-1	9.533874E-2	1.047653E-1	1.177955E-1	1.224287E-1	1.037551E-1	1.099504E-1	1.097280E-1	8.841215E-2	1.010909E-1	1.260332E-1	1.187330E-1	1.282972E-1	1.111797E-1	1.159436E-1	1.258477E-1	1.256602E-1	1.158360E-1	9.988125E-2	1.221056E-1	1.058939E-1	1.183879E-1	1.417991E-1	1.220468E-1	1.038682E-1	1.079415E-1	1.120529E-1	1.139907E-1	1.213874E-1
5.345160E+2	1.851982E-1	1.580278E-1	1.659904E-1	1.932786E-1	1.612728E-1	1.765768E-1	1.903776E-1	1.758417E-1	1.721733E-1	1.624124E-1	1.900465E-1	1.480799E-1	1.725558E-1	1.760116E-1	1.669560E-1	1.702153E-1	1.849843E-1	1.790930E-1	1.508749E-1	1.742096E-1	1.615063E-1	1.493820E-1	1.926625E-1	1.684851E-1	1.479077E-1	2.104077E-1	1.536930E-1	1.369536E-1	1.781707E-1	1.903949E-1	1.499445E-1	1.680952E-1	1.759662E-1	1.638135E-1	1.731645E-1	1.666605E-1	1.865881E-1	1.727049E-1	1.886087E-1	1.843698E-1	1.563056E-1	1.840442E-1	1.792978E-1	1.632218E-1	1.657020E-1	1.551196E-1	1.878223E-1	1.624667E-1	1.821782E-1	1.899773E-1	1.759520E-1	1.815549E-1	1.609163E-1	1.733250E-1	2.033350E-1	1.778372E-1	1.743282E-1	1.781831E-1	1.700027E-1	1.680478E-1	1.840266E-1	1.813967E-1	1.800638E-1	1.750752E-1	1.755377E-1	1.640608E-1	1.746570E-1	1.639142E-1	1.870432E-1	1.900344E-1	1.768508E-1	1.768735E-1	1.516838E-1	1.944766E-1	1.612419E-1	1.589071E-1	1.810822E-1	1.812810E-1	1.856552E-1	1.683005E-1	1.653424E-1	1.454325E-1	1.680226E-1	1.549913E-1	1.729251E-1	1.913609E-1	1.567540E-1	1.908375E-1	1.712599E-1	1.871543E-1	1.739225E-1	1.987531E-1	1.903841E-1	1.738479E-1	1.678852E-1	1.839576E-1	2.046747E-1	2.277168E-1	1.828126E-1	1.620988E-1	1.646699E-1	1.768131E-1	1.645080E-1	1.679918E-1	1.554852E-1	1.793539E-1	1.758271E-1	1.758051E-1	1.601670E-1	1.946711E-1	1.886942E-1	1.763045E-1	1.774763E-1	1.715738E-1	1.470871E-1	1.777535E-1	1.837490E-1	1.825910E-1	1.721967E-1	1.830236E-1	1.760359E-1	1.798851E-1	1.927441E-1	2.005710E-1	1.937055E-1	1.789412E-1	1.472292E-1	1.805015E-1	1.985758E-1	1.706856E-1	1.744901E-1	1.675249E-1	1.731438E-1	1.731267E-1	1.764787E-1	1.888094E-1	1.857430E-1	1.691866E-1	1.824299E-1	1.823421E-1	1.960094E-1	1.854543E-1	1.879979E-1	1.690387E-1	1.574066E-1	1.839619E-1	1.647699E-1	1.824271E-1	1.689857E-1	1.641376E-1	1.725427E-1	1.713211E-1	1.995067E-1	1.751541E-1	1.774154E-1	1.768828E-1	1.874717E-1	1.750240E-1	1.718964E-1	1.716866E-1	2.106492E-1	1.670765E-1	1.548074E-1	1.814248E-1	1.902050E-1	1.683033E-1
5.346670E+2	2.737900E-1	3.001229E-1	2.983457E-1	2.380466E-1	2.776678E-1	2.609468E-1	2.824558E-1	2.983608E-1	2.587337E-1	2.817549E-1	2.696595E-1	2.778022E-1	2.833837E-1	2.738347E-1	2.715337E-1	2.858470E-1	2.729285E-1	2.648247E-1	2.738361E-1	2.514321E-1	2.628653E-1	3.045067E-1	2.643082E-1	2.955963E-1	2.709643E-1	2.791697E-1	2.535482E-1	2.955730E-1	2.639621E-1	2.744970E-1	2.864737E-1	2.587419E-1	3.032776E-1	2.779431E-1	2.811900E-1	2.746985E-1	2.970088E-1	2.428299E-1	2.864744E-1	2.948220E-1	2.639650E-1	2.685590E-1	2.715628E-1	2.606191E-1	2.883462E-1	2.558087E-1	2.426303E-1	2.601500E-1	2.648767E-1	2.579315E-1	2.809034E-1	2.770318E-1	2.594912E-1	2.929492E-1	2.529606E-1	2.845368E-1	2.792185E-1	2.852540E-1	2.648682E-1	2.516176E-1	2.715347E-1	2.626873E-1	2.694710E-1	2.640873E-1	2.674569E-1	2.934655E-1	2.877001E-1	2.933905E-1	2.730764E-1	2.991430E-1	2.836124E-1	2.594265E-1	2.914286E-1	2.608187E-1	2.888816E-1	2.539946E-1	2.736832E-1	2.630051E-1	2.808331E-1	2.552859E-1	2.837910E-1	2.519837E-1	2.639223E-1	2.433683E-1	2.525109E-1	3.018034E-1	2.812074E-1	2.860424E-1	2.360823E-1	2.803399E-1	2.921860E-1	2.637924E-1	2.823881E-1	3.134204E-1	2.661562E-1	2.637330E-1	2.625696E-1	2.912552E-1	2.854609E-1	2.520849E-1	2.760231E-1	2.904612E-1	2.516521E-1	2.942636E-1	2.625222E-1	2.949633E-1	2.932779E-1	2.997182E-1	2.928806E-1	2.782480E-1	2.773323E-1	2.663852E-1	2.725998E-1	2.903846E-1	2.801863E-1	2.653002E-1	2.867823E-1	2.777597E-1	2.875344E-1	2.711596E-1	2.918756E-1	3.128101E-1	3.002416E-1	2.681603E-1	2.807099E-1	2.758565E-1	2.603368E-1	2.754347E-1	2.667335E-1	2.798171E-1	2.714479E-1	2.801168E-1	2.939612E-1	2.677696E-1	2.780310E-1	2.930820E-1	2.920350E-1	2.762041E-1	2.608783E-1	2.874542E-1	2.566967E-1	3.000843E-1	2.633551E-1	2.816087E-1	2.609157E-1	2.537598E-1	2.878389E-1	2.720487E-1	2.763048E-1	2.847312E-1	3.218660E-1	2.786903E-1	2.959108E-1	3.012656E-1	3.006233E-1	2.976236E-1	2.410794E-1	2.788936E-1	2.537695E-1	2.802690E-1	2.569240E-1	3.045949E-1	2.784686E-1	2.653338E-1	2.760277E-1	2.676303E-1
5.348180E+2	4.742891E-1	4.554394E-1	4.975981E-1	4.164706E-1	4.486219E-1	4.702044E-1	4.285290E-1	4.558791E-1	4.153597E-1	4.801650E-1	4.537700E-1	4.313242E-1	4.391631E-1	4.433219E-1	4.400206E-1	4.701538E-1	4.638505E-1	4.706014E-1	4.625397E-1	4.542793E-1	4.100065E-1	4.744352E-1	4.525308E-1	4.550305E-1	4.843107E-1	4.573792E-1	4.432779E-1	4.574967E-1	4.229243E-1	4.604767E-1	4.544070E-1	4.360113E-1	4.503951E-1	4.577349E-1	4.485565E-1	4.975609E-1	4.436932E-1	4.691370E-1	4.638698E-1	4.683604E-1	4.102008E-1	5.215046E-1	4.502444E-1	4.669963E-1	4.620243E-1	4.835067E-1	4.594595E-1	4.469621E-1	4.625930E-1	4.483757E-1	4.598058E-1	4.384153E-1	4.724534E-1	4.675876E-1	4.475049E-1	4.474128E-1	4.623460E-1	4.483435E-1	4.377173E-1	4.872933E-1	4.835705E-1	4.182689E-1	4.533947E-1	4.526972E-1	4.586096E-1	4.788674E-1	4.397623E-1	4.466657E-1	4.507851E-1	4.329634E-1	4.989746E-1	4.531809E-1	4.708820E-1	4.666271E-1	3.904494E-1	4.689850E-1	4.437376E-1	4.561786E-1	4.732979E-1	4.324301E-1	4.839764E-1	4.647948E-1	4.695545E-1	4.635220E-1	4.368072E-1	4.855574E-1	4.788842E-1	4.591718E-1	4.521099E-1	4.580295E-1	4.511408E-1	5.252790E-1	4.394299E-1	4.588711E-1	4.581443E-1	4.289397E-1	4.457987E-1	4.565033E-1	4.404509E-1	4.579904E-1	4.562838E-1	4.884586E-1	4.781231E-1	4.428477E-1	4.545740E-1	4.374635E-1	4.341039E-1	4.353215E-1	4.772363E-1	4.604544E-1	4.164177E-1	4.850791E-1	4.448140E-1	4.505796E-1	4.798324E-1	4.299633E-1	4.606090E-1	4.188235E-1	4.984662E-1	4.927994E-1	4.696189E-1	4.923981E-1	4.811065E-1	4.495674E-1	4.654103E-1	4.430985E-1	4.456659E-1	4.652513E-1	4.910860E-1	4.729677E-1	4.477573E-1	5.017571E-1	4.662513E-1	4.662959E-1	4.592863E-1	4.944011E-1	4.823257E-1	4.695430E-1	4.737404E-1	4.467434E-1	4.593650E-1	4.565912E-1	4.283118E-1	4.556218E-1	4.299126E-1	4.465222E-1	4.692606E-1	4.662693E-1	4.559709E-1	4.592572E-1	4.862304E-1	4.433437E-1	4.557253E-1	4.493047E-1	4.851502E-1	4.322506E-1	4.334615E-1	4.764893E-1	4.501683E-1	4.411406E-1	4.685884E-1	4.695514E-1	4.546850E-1	4.816925E-1	4.648499E-1	4.444580E-1
5.349580E+2	7.585589E-1	7.550974E-1	8.093807E-1	7.361599E-1	7.836035E-1	8.151803E-1	7.497295E-1	7.742829E-1	7.185360E-1	7.272184E-1	7.556389E-1	7.400888E-1	8.060718E-1	7.615931E-1	7.432352E-1	7.427938E-1	7.551502E-1	7.416418E-1	8.012345E-1	7.049396E-1	7.264384E-1	7.669795E-1	7.321788E-1	7.422035E-1	7.467537E-1	7.587789E-1	7.675347E-1	7.745045E-1	7.456232E-1	7.865414E-1	7.844132E-1	7.760964E-1	7.542036E-1	7.774684E-1	7.538089E-1	7.364876E-1	7.540632E-1	7.248776E-1	7.709170E-1	7.895757E-1	7.251133E-1	7.659027E-1	7.704656E-1	7.288458E-1	7.859863E-1	7.742537E-1	7.436986E-1	7.576131E-1	7.243424E-1	7.925381E-1	7.658185E-1	7.258564E-1	7.790201E-1	7.796821E-1	7.658904E-1	7.454021E-1	7.635476E-1	7.508134E-1	7.461590E-1	8.064740E-1	7.647126E-1	8.064086E-1	7.193613E-1	7.629981E-1	7.429942E-1	7.708568E-1	7.258191E-1	7.522842E-1	7.416944E-1	7.880893E-1	7.697469E-1	7.513865E-1	7.613153E-1	7.361901E-1	7.729312E-1	7.420505E-1	7.456091E-1	7.123051E-1	7.510106E-1	7.622813E-1	7.617538E-1	7.495401E-1	7.381271E-1	7.849205E-1	7.319526E-1	7.852430E-1	7.540871E-1	7.618159E-1	7.338631E-1	8.047952E-1	7.815416E-1	7.798038E-1	7.660443E-1	8.024466E-1	7.407231E-1	7.620805E-1	7.841997E-1	7.395763E-1	7.909037E-1	7.678827E-1	7.045706E-1	7.634747E-1	7.510129E-1	7.476317E-1	7.964105E-1	8.116703E-1	7.687923E-1	7.543621E-1	7.689388E-1	7.965713E-1	7.660577E-1	7.747386E-1	7.643722E-1	7.210205E-1	7.527993E-1	7.499231E-1	7.570291E-1	7.506093E-1	7.747618E-1	7.559754E-1	7.446316E-1	7.263629E-1	7.600559E-1	7.839279E-1	7.790678E-1	7.614054E-1	7.612292E-1	7.588470E-1	7.330720E-1	7.985824E-1	7.498107E-1	7.513191E-1	7.100203E-1	7.607549E-1	7.693880E-1	8.015451E-1	7.340560E-1	7.252913E-1	7.435664E-1	7.366082E-1	7.457177E-1	7.218532E-1	7.300480E-1	7.889730E-1	7.623204E-1	8.243040E-1	7.840589E-1	7.726410E-1	7.828496E-1	7.962904E-1	7.561516E-1	7.249363E-1	7.547238E-1	7.765281E-1	7.206967E-1	7.849615E-1	7.442480E-1	8.016747E-1	6.905809E-1	7.558158E-1	7.654184E-1	7.458817E-1	7.562715E-1	7.752048E-1	6.857635E-1	7.593308E-1
5.351200E+2	1.133005E+0	1.173579E+0	1.169166E+0	1.095260E+0	1.070070E+0	1.135538E+0	1.156375E+0	1.121521E+0	1.083068E+0	1.148877E+0	1.119680E+0	1.086688E+0	1.115760E+0	1.114362E+0	1.119897E+0	1.102468E+0	1.162348E+0	1.090953E+0	1.163852E+0	1.041947E+0	1.134135E+0	1.102444E+0	1.148025E+0	1.143165E+0	1.109032E+0	1.145217E+0	1.133432E+0	1.106866E+0	1.095077E+0	1.102390E+0	1.174969E+0	1.058900E+0	1.130463E+0	1.117052E+0	1.108927E+0	1.093030E+0	1.119000E+0	1.162195E+0	1.088401E+0	1.102469E+0	1.099741E+0	1.151792E+0	1.127428E+0	1.114608E+0	1.105803E+0	1.129999E+0	1.131424E+0	1.088416E+0	1.089017E+0	1.144772E+0	1.153409E+0	1.057215E+0	1.071665E+0	1.159485E+0	1.138154E+0	1.098776E+0	1.061969E+0	1.125961E+0	1.092922E+0	1.056453E+0	1.130018E+0	1.181883E+0	1.075574E+0	1.137981E+0	1.162438E+0	1.112922E+0	1.110903E+0	1.120803E+0	1.140572E+0	1.100203E+0	1.130197E+0	1.130873E+0	1.096280E+0	1.120324E+0	1.107370E+0	1.107818E+0	1.150402E+0	1.117776E+0	1.085153E+0	1.095461E+0	1.119112E+0	1.069254E+0	1.179186E+0	1.114978E+0	1.118435E+0	1.196988E+0	1.102444E+0	1.140837E+0	1.044652E+0	1.113596E+0	1.122634E+0	1.085739E+0	1.110959E+0	1.150153E+0	1.144689E+0	1.059686E+0	1.083813E+0	1.124961E+0	1.077430E+0	1.172694E+0	1.102666E+0	1.100462E+0	1.080566E+0	1.119223E+0	1.090567E+0	1.129327E+0	1.066113E+0	1.118040E+0	1.108132E+0	1.138676E+0	1.084742E+0	1.098640E+0	1.139875E+0	1.098119E+0	1.108039E+0	1.141681E+0	1.088316E+0	1.114456E+0	1.156976E+0	1.150938E+0	1.078947E+0	1.199002E+0	1.118755E+0	1.128218E+0	1.105061E+0	1.123122E+0	1.086958E+0	1.097995E+0	1.130062E+0	1.098762E+0	1.075832E+0	1.103839E+0	1.083304E+0	1.160960E+0	1.074110E+0	1.147356E+0	1.061953E+0	1.126018E+0	1.104198E+0	1.062664E+0	1.130068E+0	1.096895E+0	1.074982E+0	1.082095E+0	1.150125E+0	1.102236E+0	1.081706E+0	1.126816E+0	1.104392E+0	1.098304E+0	1.124565E+0	1.094234E+0	1.092047E+0	1.138761E+0	1.078781E+0	1.092129E+0	1.077771E+0	1.104442E+0	1.140073E+0	1.159565E+0	1.129573E+0	1.079713E+0	1.086597E+0	1.048906E+0	1.076400E+0	1.089631E+0
5.352550E+2	1.716219E+0	1.640375E+0	1.497623E+0	1.589854E+0	1.562268E+0	1.576269E+0	1.557684E+0	1.602541E+0	1.512897E+0	1.545879E+0	1.513715E+0	1.537765E+0	1.586122E+0	1.544342E+0	1.571312E+0	1.574491E+0	1.671878E+0	1.589228E+0	1.577315E+0	1.564694E+0	1.616936E+0	1.566527E+0	1.569686E+0	1.563086E+0	1.606393E+0	1.578309E+0	1.597579E+0	1.509772E+0	1.553632E+0	1.575115E+0	1.519229E+0	1.582245E+0	1.598424E+0	1.538728E+0	1.556683E+0	1.590096E+0	1.536765E+0	1.561925E+0	1.648135E+0	1.547672E+0	1.571114E+0	1.610712E+0	1.634792E+0	1.630591E+0	1.601338E+0	1.536503E+0	1.479500E+0	1.519500E+0	1.521406E+0	1.576819E+0	1.541807E+0	1.482768E+0	1.499311E+0	1.553229E+0	1.569085E+0	1.601676E+0	1.592144E+0	1.560682E+0	1.620018E+0	1.518556E+0	1.569239E+0	1.523640E+0	1.487838E+0	1.549477E+0	1.612144E+0	1.592102E+0	1.626843E+0	1.454673E+0	1.537528E+0	1.639083E+0	1.535093E+0	1.514326E+0	1.603431E+0	1.576777E+0	1.530533E+0	1.548249E+0	1.573527E+0	1.598861E+0	1.539764E+0	1.527425E+0	1.524637E+0	1.608988E+0	1.567626E+0	1.494255E+0	1.543099E+0	1.582379E+0	1.566578E+0	1.577477E+0	1.523340E+0	1.619154E+0	1.529146E+0	1.526503E+0	1.639593E+0	1.551213E+0	1.593396E+0	1.535222E+0	1.548356E+0	1.558592E+0	1.469214E+0	1.545173E+0	1.522625E+0	1.591107E+0	1.483431E+0	1.584197E+0	1.500930E+0	1.577021E+0	1.484516E+0	1.563111E+0	1.523178E+0	1.639827E+0	1.496482E+0	1.593976E+0	1.553895E+0	1.526316E+0	1.472335E+0	1.569016E+0	1.586350E+0	1.576581E+0	1.568120E+0	1.538290E+0	1.524435E+0	1.587828E+0	1.617532E+0	1.541998E+0	1.546101E+0	1.606612E+0	1.510899E+0	1.498232E+0	1.512454E+0	1.587710E+0	1.562091E+0	1.543419E+0	1.491313E+0	1.542339E+0	1.535486E+0	1.548599E+0	1.584891E+0	1.544895E+0	1.577233E+0	1.529377E+0	1.502501E+0	1.545852E+0	1.533942E+0	1.429086E+0	1.505821E+0	1.563928E+0	1.551389E+0	1.503534E+0	1.585774E+0	1.596990E+0	1.545145E+0	1.513806E+0	1.534609E+0	1.519728E+0	1.561981E+0	1.540670E+0	1.516978E+0	1.541804E+0	1.490809E+0	1.538950E+0	1.563177E+0	1.545002E+0	1.483645E+0	1.447524E+0	1.473772E+0	1.523815E+0
5.354060E+2	2.002051E+0	1.936966E+0	1.995812E+0	1.971640E+0	1.974142E+0	2.017273E+0	1.913984E+0	1.921841E+0	1.913936E+0	1.950184E+0	1.994885E+0	1.953049E+0	1.966925E+0	1.984221E+0	1.910334E+0	1.923103E+0	1.934556E+0	1.893471E+0	1.979616E+0	1.883849E+0	1.960106E+0	1.975230E+0	1.925574E+0	1.955433E+0	1.965415E+0	1.976802E+0	1.942074E+0	1.922509E+0	1.968816E+0	1.932206E+0	1.940140E+0	1.964238E+0	1.909196E+0	1.889608E+0	1.916628E+0	1.934011E+0	1.913009E+0	1.939728E+0	1.923662E+0	1.910051E+0	1.945717E+0	2.041409E+0	1.924539E+0	1.910307E+0	1.954615E+0	1.983889E+0	1.899475E+0	1.870307E+0	1.954725E+0	1.970142E+0	1.937933E+0	1.910877E+0	1.974362E+0	1.976511E+0	1.930560E+0	1.959560E+0	1.924540E+0	2.024086E+0	1.938919E+0	1.932522E+0	2.005740E+0	1.980372E+0	1.854143E+0	1.896892E+0	1.926286E+0	2.006306E+0	1.863141E+0	1.887234E+0	1.906470E+0	1.948282E+0	1.936662E+0	1.863512E+0	1.873270E+0	1.933597E+0	1.835426E+0	1.929199E+0	1.984700E+0	1.891165E+0	1.863722E+0	1.874862E+0	1.890522E+0	1.889098E+0	1.893523E+0	1.907050E+0	1.890409E+0	1.955243E+0	1.929897E+0	1.995681E+0	1.898369E+0	1.964559E+0	1.898341E+0	1.948903E+0	1.859917E+0	1.983385E+0	1.839123E+0	1.949648E+0	1.928422E+0	1.913194E+0	1.962850E+0	1.913751E+0	1.871970E+0	1.882447E+0	1.909299E+0	1.923360E+0	1.985652E+0	1.940947E+0	1.922012E+0	1.907194E+0	1.896131E+0	1.938722E+0	1.878271E+0	1.928176E+0	1.912994E+0	1.926950E+0	1.892343E+0	1.931485E+0	1.891089E+0	1.897473E+0	1.827897E+0	1.913344E+0	1.910900E+0	1.989971E+0	1.844246E+0	1.891055E+0	1.938345E+0	1.902770E+0	1.864632E+0	1.891147E+0	1.890890E+0	1.938422E+0	1.863750E+0	1.852058E+0	1.868473E+0	1.874895E+0	1.916138E+0	1.959549E+0	1.901296E+0	1.985585E+0	1.863314E+0	1.897601E+0	1.829398E+0	1.882193E+0	1.883650E+0	1.829654E+0	1.866434E+0	1.882643E+0	1.855954E+0	1.810682E+0	1.908581E+0	1.902209E+0	1.884115E+0	1.889998E+0	1.892577E+0	1.860048E+0	1.913974E+0	1.883201E+0	1.838958E+0	1.979423E+0	1.819936E+0	1.930582E+0	1.831693E+0	1.891358E+0	1.842079E+0	1.797700E+0	1.821068E+0	1.713816E+0
5.355630E+2	2.117078E+0	2.055267E+0	2.130645E+0	2.045159E+0	2.010715E+0	2.072756E+0	2.043918E+0	1.998161E+0	2.009523E+0	2.075530E+0	2.026831E+0	2.008088E+0	2.064356E+0	2.027514E+0	2.010948E+0	2.054194E+0	2.102092E+0	2.054515E+0	2.059219E+0	2.004517E+0	2.006177E+0	2.013552E+0	2.067696E+0	2.031367E+0	2.083896E+0	2.012648E+0	2.046621E+0	2.025360E+0	1.997982E+0	2.029498E+0	2.008071E+0	2.042204E+0	2.050178E+0	2.017662E+0	1.995219E+0	1.960859E+0	2.047917E+0	2.024085E+0	2.043664E+0	2.069769E+0	2.014898E+0	2.090861E+0	2.034882E+0	2.002671E+0	1.966760E+0	2.076007E+0	1.978559E+0	2.065220E+0	2.004269E+0	2.094938E+0	1.972100E+0	1.969173E+0	2.051570E+0	2.070312E+0	2.060769E+0	2.005279E+0	2.025258E+0	2.073324E+0	2.056107E+0	2.095760E+0	2.037875E+0	2.027540E+0	1.937521E+0	1.970657E+0	2.075817E+0	2.005041E+0	2.056401E+0	2.007508E+0	1.964647E+0	2.090905E+0	2.090559E+0	1.997777E+0	1.983226E+0	2.001749E+0	1.925729E+0	2.021315E+0	1.997041E+0	2.066632E+0	1.958513E+0	2.064997E+0	2.000272E+0	2.060466E+0	1.985691E+0	2.009366E+0	2.014878E+0	2.084051E+0	1.985475E+0	2.049148E+0	1.985589E+0	1.991596E+0	2.097363E+0	2.033791E+0	1.986210E+0	2.051265E+0	1.968204E+0	1.990401E+0	1.974069E+0	1.920621E+0	1.954160E+0	1.978770E+0	1.923051E+0	1.984097E+0	1.965809E+0	2.066192E+0	2.020735E+0	2.065042E+0	2.011673E+0	1.982261E+0	2.071363E+0	2.010415E+0	1.952595E+0	1.954774E+0	2.009679E+0	2.030335E+0	1.945797E+0	2.053185E+0	1.972258E+0	1.983469E+0	1.985134E+0	1.972007E+0	1.921046E+0	1.907071E+0	1.932909E+0	2.003780E+0	1.968964E+0	1.955460E+0	1.965697E+0	1.998098E+0	2.063819E+0	1.975064E+0	1.989392E+0	1.975509E+0	1.948905E+0	1.965328E+0	1.936633E+0	2.032412E+0	1.966156E+0	1.955770E+0	1.950114E+0	1.973980E+0	1.977564E+0	1.932310E+0	1.945366E+0	1.951965E+0	2.005934E+0	1.985758E+0	1.965900E+0	1.888111E+0	1.933750E+0	1.951325E+0	2.038449E+0	1.924531E+0	2.000540E+0	2.075849E+0	1.958143E+0	1.907652E+0	1.877190E+0	1.972204E+0	1.898085E+0	2.014832E+0	1.969527E+0	1.943285E+0	1.811510E+0	1.817793E+0	1.999360E+0	1.797947E+0
5.357140E+2	2.159660E+0	2.065374E+0	2.065749E+0	1.989895E+0	2.018845E+0	2.097148E+0	2.039321E+0	2.028042E+0	2.041237E+0	2.005924E+0	2.165028E+0	2.092128E+0	2.097243E+0	2.065795E+0	1.980576E+0	2.014390E+0	2.178715E+0	2.069884E+0	2.008761E+0	2.016747E+0	1.936752E+0	2.080489E+0	2.069441E+0	2.084726E+0	2.007983E+0	2.092566E+0	2.076718E+0	2.042072E+0	1.990654E+0	1.981497E+0	2.029364E+0	2.024178E+0	2.036766E+0	2.111019E+0	1.993090E+0	2.011083E+0	2.065719E+0	1.987025E+0	2.032490E+0	2.111661E+0	2.061868E+0	2.072058E+0	2.004731E+0	2.012757E+0	2.061101E+0	2.094295E+0	2.008197E+0	1.984502E+0	2.074471E+0	2.144985E+0	2.019257E+0	2.028647E+0	2.039718E+0	2.072836E+0	1.988819E+0	2.036840E+0	1.983865E+0	2.042268E+0	2.060386E+0	2.071799E+0	2.086779E+0	2.063174E+0	1.956620E+0	2.044782E+0	2.079707E+0	2.041142E+0	2.061459E+0	2.024797E+0	2.015044E+0	2.059785E+0	2.028933E+0	2.041078E+0	2.064533E+0	2.013637E+0	1.962734E+0	2.059865E+0	2.046301E+0	2.088272E+0	1.987116E+0	2.045941E+0	1.973058E+0	2.067659E+0	2.014582E+0	2.034425E+0	1.918638E+0	2.058775E+0	2.018464E+0	1.936247E+0	2.105839E+0	2.090944E+0	2.012410E+0	2.075873E+0	2.000659E+0	2.071984E+0	1.929512E+0	1.978883E+0	2.025861E+0	1.969579E+0	2.019143E+0	2.030066E+0	1.972069E+0	2.014608E+0	2.001335E+0	1.992299E+0	1.997460E+0	2.125884E+0	1.999876E+0	2.001281E+0	1.966928E+0	1.994928E+0	1.947444E+0	1.999791E+0	2.012481E+0	2.037984E+0	1.964707E+0	2.062684E+0	2.011145E+0	1.993695E+0	1.986385E+0	1.917497E+0	1.950084E+0	2.037475E+0	1.998376E+0	1.997712E+0	1.970264E+0	1.970606E+0	2.028427E+0	1.920612E+0	1.956270E+0	2.022492E+0	1.969184E+0	1.990636E+0	1.976211E+0	1.992707E+0	1.978107E+0	1.987742E+0	1.994693E+0	2.013447E+0	1.931778E+0	2.004103E+0	1.994106E+0	1.950509E+0	1.985321E+0	1.939285E+0	1.990017E+0	2.026616E+0	1.930372E+0	1.945156E+0	2.019313E+0	1.960896E+0	2.054969E+0	1.941354E+0	1.931622E+0	2.007296E+0	1.994956E+0	1.944167E+0	2.024080E+0	2.028466E+0	1.941888E+0	1.964812E+0	1.962990E+0	1.921222E+0	1.888147E+0	1.927131E+0	1.931291E+0	1.972240E+0
5.358600E+2	1.809869E+0	1.752400E+0	1.771521E+0	1.738739E+0	1.737483E+0	1.741528E+0	1.723777E+0	1.766728E+0	1.823369E+0	1.696243E+0	1.750080E+0	1.739058E+0	1.755918E+0	1.779883E+0	1.661970E+0	1.782234E+0	1.781074E+0	1.702600E+0	1.778983E+0	1.700291E+0	1.718405E+0	1.729117E+0	1.733423E+0	1.766084E+0	1.719292E+0	1.694863E+0	1.735599E+0	1.771405E+0	1.689569E+0	1.706870E+0	1.710796E+0	1.722449E+0	1.707898E+0	1.726285E+0	1.757248E+0	1.747562E+0	1.702974E+0	1.701915E+0	1.757391E+0	1.765144E+0	1.650829E+0	1.752804E+0	1.702111E+0	1.741801E+0	1.699410E+0	1.715124E+0	1.666494E+0	1.739300E+0	1.742986E+0	1.757264E+0	1.656041E+0	1.671279E+0	1.715930E+0	1.769503E+0	1.697083E+0	1.726325E+0	1.673810E+0	1.739621E+0	1.709585E+0	1.710023E+0	1.778917E+0	1.725609E+0	1.731946E+0	1.679690E+0	1.710587E+0	1.775612E+0	1.789645E+0	1.726573E+0	1.659528E+0	1.761746E+0	1.704838E+0	1.638716E+0	1.764804E+0	1.768405E+0	1.688318E+0	1.738097E+0	1.701983E+0	1.718686E+0	1.715095E+0	1.720913E+0	1.755983E+0	1.746926E+0	1.794633E+0	1.733991E+0	1.649540E+0	1.708979E+0	1.711381E+0	1.734876E+0	1.712046E+0	1.793116E+0	1.670899E+0	1.756264E+0	1.725476E+0	1.742555E+0	1.730365E+0	1.646668E+0	1.726014E+0	1.729400E+0	1.726606E+0	1.773101E+0	1.673608E+0	1.743319E+0	1.747849E+0	1.715348E+0	1.714749E+0	1.762182E+0	1.722842E+0	1.652459E+0	1.729367E+0	1.726877E+0	1.676669E+0	1.657479E+0	1.723745E+0	1.771215E+0	1.697532E+0	1.646440E+0	1.683608E+0	1.666811E+0	1.719566E+0	1.733060E+0	1.663567E+0	1.775876E+0	1.717333E+0	1.690365E+0	1.728291E+0	1.726873E+0	1.739928E+0	1.700528E+0	1.662636E+0	1.676490E+0	1.671746E+0	1.713978E+0	1.714898E+0	1.703130E+0	1.648450E+0	1.708226E+0	1.616141E+0	1.768138E+0	1.669380E+0	1.703030E+0	1.691806E+0	1.695958E+0	1.674092E+0	1.643319E+0	1.634544E+0	1.707184E+0	1.670451E+0	1.698760E+0	1.666135E+0	1.730819E+0	1.742644E+0	1.571038E+0	1.688628E+0	1.769164E+0	1.680654E+0	1.745814E+0	1.758831E+0	1.767462E+0	1.658607E+0	1.673171E+0	1.733448E+0	1.682209E+0	1.608697E+0	1.613457E+0	1.610812E+0	1.776235E+0
5.360070E+2	1.757527E+0	1.698595E+0	1.704125E+0	1.638741E+0	1.724568E+0	1.692654E+0	1.689123E+0	1.639165E+0	1.667288E+0	1.686443E+0	1.694309E+0	1.695311E+0	1.720462E+0	1.670639E+0	1.687035E+0	1.664762E+0	1.737555E+0	1.646414E+0	1.639739E+0	1.630137E+0	1.732652E+0	1.620749E+0	1.675711E+0	1.704498E+0	1.694952E+0	1.683648E+0	1.613305E+0	1.702200E+0	1.639612E+0	1.646953E+0	1.681236E+0	1.609088E+0	1.695759E+0	1.660862E+0	1.661847E+0	1.687951E+0	1.649452E+0	1.677280E+0	1.733208E+0	1.679357E+0	1.627652E+0	1.733250E+0	1.716650E+0	1.626424E+0	1.651975E+0	1.673276E+0	1.590791E+0	1.683917E+0	1.652735E+0	1.746411E+0	1.649606E+0	1.724202E+0	1.657022E+0	1.657616E+0	1.747038E+0	1.653927E+0	1.691525E+0	1.674408E+0	1.714790E+0	1.694141E+0	1.678790E+0	1.611501E+0	1.559663E+0	1.750136E+0	1.710692E+0	1.715872E+0	1.699891E+0	1.648187E+0	1.637209E+0	1.691066E+0	1.669116E+0	1.714935E+0	1.635209E+0	1.691486E+0	1.703610E+0	1.668537E+0	1.633360E+0	1.661845E+0	1.654234E+0	1.655708E+0	1.702680E+0	1.708512E+0	1.631773E+0	1.726037E+0	1.672850E+0	1.687067E+0	1.693814E+0	1.645867E+0	1.670692E+0	1.655756E+0	1.674108E+0	1.729646E+0	1.651083E+0	1.683726E+0	1.642020E+0	1.665059E+0	1.624280E+0	1.717910E+0	1.624579E+0	1.632870E+0	1.620234E+0	1.708115E+0	1.587978E+0	1.668872E+0	1.683324E+0	1.654044E+0	1.648450E+0	1.626641E+0	1.698681E+0	1.646343E+0	1.658104E+0	1.603452E+0	1.695903E+0	1.672815E+0	1.647144E+0	1.656204E+0	1.598020E+0	1.654299E+0	1.673094E+0	1.634461E+0	1.636546E+0	1.744377E+0	1.666218E+0	1.641657E+0	1.678031E+0	1.578520E+0	1.620976E+0	1.606192E+0	1.638695E+0	1.645731E+0	1.669221E+0	1.694541E+0	1.563768E+0	1.648935E+0	1.623501E+0	1.683534E+0	1.638745E+0	1.679106E+0	1.637436E+0	1.632449E+0	1.599881E+0	1.654774E+0	1.615301E+0	1.589235E+0	1.582435E+0	1.631574E+0	1.670159E+0	1.646388E+0	1.617084E+0	1.630059E+0	1.619142E+0	1.617884E+0	1.646427E+0	1.685594E+0	1.668874E+0	1.685990E+0	1.644729E+0	1.681837E+0	1.603114E+0	1.679961E+0	1.684847E+0	1.583959E+0	1.607374E+0	1.589346E+0	1.522297E+0	1.754042E+0
5.362730E+2	1.225894E+0	1.198507E+0	1.214093E+0	1.169720E+0	1.163432E+0	1.180671E+0	1.199614E+0	1.172419E+0	1.136060E+0	1.128740E+0	1.200458E+0	1.147345E+0	1.167120E+0	1.176240E+0	1.139754E+0	1.140301E+0	1.181590E+0	1.136886E+0	1.190614E+0	1.165257E+0	1.209147E+0	1.140621E+0	1.167964E+0	1.198347E+0	1.175603E+0	1.183868E+0	1.231011E+0	1.195803E+0	1.180044E+0	1.182563E+0	1.166039E+0	1.142868E+0	1.104453E+0	1.241746E+0	1.165716E+0	1.173394E+0	1.146039E+0	1.140134E+0	1.208954E+0	1.148958E+0	1.201985E+0	1.142910E+0	1.163108E+0	1.191688E+0	1.214736E+0	1.215874E+0	1.189132E+0	1.158984E+0	1.156208E+0	1.165723E+0	1.139913E+0	1.142034E+0	1.171258E+0	1.201020E+0	1.201484E+0	1.162401E+0	1.166532E+0	1.153115E+0	1.184739E+0	1.165234E+0	1.162144E+0	1.211910E+0	1.115761E+0	1.157828E+0	1.158640E+0	1.184753E+0	1.150182E+0	1.224507E+0	1.173589E+0	1.186351E+0	1.179318E+0	1.178266E+0	1.159234E+0	1.179513E+0	1.135748E+0	1.140576E+0	1.129568E+0	1.188969E+0	1.115233E+0	1.185981E+0	1.107847E+0	1.171959E+0	1.189779E+0	1.191733E+0	1.174823E+0	1.204270E+0	1.199876E+0	1.172541E+0	1.149933E+0	1.228825E+0	1.164177E+0	1.229468E+0	1.178456E+0	1.174009E+0	1.150365E+0	1.135297E+0	1.157372E+0	1.181056E+0	1.159689E+0	1.182765E+0	1.201101E+0	1.196091E+0	1.184947E+0	1.204577E+0	1.126974E+0	1.198286E+0	1.139558E+0	1.190757E+0	1.220904E+0	1.209164E+0	1.167806E+0	1.175972E+0	1.273336E+0	1.131727E+0	1.164508E+0	1.118094E+0	1.096516E+0	1.204862E+0	1.210013E+0	1.107734E+0	1.200926E+0	1.250461E+0	1.097546E+0	1.195663E+0	1.213763E+0	1.174573E+0	1.193334E+0	1.131327E+0	1.214523E+0	1.157392E+0	1.161094E+0	1.192981E+0	1.134799E+0	1.233351E+0	1.175483E+0	1.190251E+0	1.187394E+0	1.176548E+0	1.160880E+0	1.197859E+0	1.194441E+0	1.153092E+0	1.142805E+0	1.133775E+0	1.186953E+0	1.129742E+0	1.184302E+0	1.125722E+0	1.201355E+0	1.172190E+0	1.217679E+0	1.152068E+0	1.172565E+0	1.139204E+0	1.217721E+0	1.177195E+0	1.191130E+0	1.126237E+0	1.156813E+0	1.153147E+0	1.169518E+0	1.167337E+0	1.101016E+0	1.179509E+0	1.110857E+0	1.104164E+0
5.365140E+2	1.010021E+0	9.355353E-1	9.091363E-1	9.068793E-1	9.095985E-1	9.387490E-1	9.599112E-1	9.412557E-1	9.759296E-1	9.340844E-1	9.104969E-1	9.230162E-1	9.433072E-1	9.324933E-1	9.308690E-1	9.109474E-1	9.683777E-1	9.487733E-1	9.274459E-1	9.518740E-1	9.533332E-1	9.380397E-1	9.567956E-1	9.543244E-1	9.285620E-1	9.588486E-1	9.212215E-1	9.750580E-1	9.010420E-1	9.253003E-1	9.447721E-1	9.507607E-1	9.385144E-1	9.682350E-1	9.608828E-1	8.910615E-1	9.246706E-1	9.657073E-1	9.266285E-1	9.364196E-1	8.679082E-1	9.170561E-1	9.517661E-1	9.331943E-1	9.548250E-1	9.136985E-1	9.332969E-1	9.223365E-1	9.252818E-1	9.193115E-1	9.401467E-1	9.278216E-1	9.379846E-1	8.863391E-1	9.650122E-1	9.637956E-1	8.975150E-1	9.432541E-1	9.939527E-1	9.556206E-1	9.869591E-1	9.311571E-1	9.014683E-1	9.571468E-1	9.410310E-1	9.422149E-1	9.287731E-1	9.514843E-1	9.408195E-1	9.634200E-1	9.512171E-1	9.219997E-1	9.714856E-1	8.940566E-1	9.024490E-1	9.378645E-1	9.043608E-1	9.382821E-1	9.073775E-1	9.382983E-1	9.355043E-1	9.141418E-1	9.768626E-1	9.877225E-1	9.390901E-1	9.676098E-1	9.495247E-1	9.073408E-1	9.331279E-1	9.676352E-1	8.908898E-1	9.310719E-1	9.722171E-1	9.693890E-1	9.265869E-1	9.358210E-1	9.511783E-1	9.391140E-1	9.759202E-1	9.592232E-1	9.511123E-1	9.258697E-1	9.278139E-1	9.323240E-1	9.135116E-1	9.410435E-1	9.765811E-1	9.798075E-1	9.130644E-1	9.555677E-1	9.736257E-1	9.517512E-1	9.668034E-1	9.218537E-1	9.563937E-1	9.622791E-1	9.349090E-1	9.833989E-1	9.683340E-1	8.984615E-1	9.264271E-1	1.006385E+0	9.422695E-1	9.242077E-1	9.547413E-1	9.215546E-1	9.252768E-1	9.427405E-1	9.656811E-1	9.949429E-1	9.172948E-1	8.514535E-1	9.224340E-1	9.442552E-1	9.673727E-1	9.565846E-1	9.549377E-1	9.684950E-1	9.487433E-1	9.555656E-1	9.606322E-1	9.276517E-1	9.179840E-1	9.251578E-1	9.521405E-1	8.926773E-1	9.537802E-1	9.349696E-1	9.283704E-1	9.397609E-1	9.267461E-1	9.120167E-1	8.770014E-1	1.059314E+0	9.151844E-1	1.008197E+0	9.369108E-1	9.469098E-1	9.757689E-1	9.542550E-1	9.182556E-1	9.534235E-1	8.935974E-1	9.446261E-1	9.157090E-1	9.150542E-1
5.367660E+2	7.786463E-1	7.275723E-1	7.763898E-1	7.485508E-1	6.893818E-1	7.267501E-1	7.245134E-1	7.598810E-1	7.010434E-1	6.723693E-1	7.488344E-1	6.646414E-1	7.556962E-1	7.509698E-1	7.178085E-1	7.082651E-1	7.137356E-1	7.055453E-1	7.501803E-1	7.101188E-1	6.764609E-1	6.903717E-1	7.350862E-1	7.545748E-1	7.382797E-1	7.488914E-1	7.565779E-1	7.480611E-1	7.441534E-1	7.537455E-1	7.455560E-1	7.184334E-1	7.166541E-1	7.292693E-1	7.618007E-1	6.791012E-1	7.194641E-1	6.894707E-1	6.925514E-1	7.220151E-1	7.251837E-1	7.661706E-1	7.412434E-1	7.243374E-1	7.237848E-1	7.517922E-1	6.836509E-1	7.065229E-1	7.136344E-1	7.539300E-1	6.948974E-1	7.054741E-1	6.894445E-1	7.123262E-1	6.931744E-1	7.446851E-1	7.160177E-1	7.264874E-1	7.183446E-1	7.730277E-1	7.722233E-1	6.998669E-1	7.403454E-1	7.283945E-1	7.528168E-1	7.759873E-1	7.594435E-1	7.453472E-1	7.244435E-1	7.335761E-1	7.685937E-1	7.271021E-1	7.644572E-1	7.022765E-1	6.952075E-1	7.444318E-1	7.402983E-1	7.114016E-1	7.217510E-1	7.228750E-1	7.655356E-1	7.054151E-1	7.547157E-1	7.471958E-1	7.252879E-1	7.444132E-1	6.934983E-1	7.403478E-1	7.635562E-1	7.357452E-1	6.869822E-1	7.674529E-1	7.051914E-1	7.061004E-1	7.274765E-1	7.280979E-1	7.476678E-1	6.902071E-1	7.352956E-1	7.146272E-1	7.415619E-1	7.596417E-1	7.247746E-1	7.505541E-1	7.106817E-1	7.681684E-1	7.506487E-1	7.127539E-1	7.251245E-1	7.372914E-1	7.252014E-1	7.195030E-1	7.454446E-1	7.483170E-1	7.005271E-1	7.205208E-1	7.196430E-1	7.289057E-1	7.584868E-1	7.673568E-1	7.478923E-1	7.517855E-1	7.486794E-1	7.443680E-1	7.592136E-1	7.316293E-1	7.224462E-1	7.446153E-1	7.595775E-1	7.465946E-1	7.506783E-1	7.112792E-1	7.113578E-1	7.283884E-1	7.585449E-1	7.288196E-1	7.265846E-1	7.436758E-1	7.181353E-1	7.309550E-1	7.379432E-1	7.225410E-1	7.588054E-1	7.079341E-1	7.883706E-1	7.800343E-1	7.364887E-1	6.853584E-1	7.583896E-1	7.731719E-1	7.121318E-1	7.330805E-1	7.484544E-1	7.159862E-1	7.334688E-1	7.805118E-1	7.248119E-1	7.168258E-1	6.981641E-1	7.099055E-1	7.601867E-1	7.543499E-1	7.118413E-1	6.811225E-1	7.396566E-1	7.528595E-1
5.370070E+2	6.111602E-1	6.031223E-1	5.889907E-1	5.684478E-1	5.923750E-1	5.734963E-1	5.935301E-1	5.933227E-1	5.474022E-1	5.414272E-1	6.172572E-1	5.976670E-1	5.808173E-1	5.714822E-1	5.967601E-1	5.466474E-1	5.641282E-1	5.712389E-1	5.912590E-1	5.713484E-1	5.723955E-1	5.639907E-1	5.753790E-1	5.789115E-1	5.622819E-1	5.856490E-1	6.076910E-1	5.917084E-1	5.407634E-1	5.532699E-1	5.647964E-1	5.700490E-1	5.591977E-1	5.704056E-1	5.858788E-1	5.962503E-1	5.756266E-1	5.604575E-1	5.750852E-1	5.763000E-1	5.698964E-1	5.677972E-1	6.133780E-1	5.553873E-1	5.849867E-1	5.608896E-1	5.708042E-1	5.791866E-1	5.629686E-1	5.768849E-1	5.077812E-1	5.507230E-1	5.588636E-1	5.808262E-1	6.317868E-1	5.550606E-1	5.608859E-1	5.853009E-1	6.112449E-1	6.242730E-1	5.622513E-1	5.685766E-1	5.665228E-1	5.496352E-1	5.996247E-1	5.471215E-1	5.632763E-1	6.017103E-1	5.782083E-1	5.432999E-1	5.998686E-1	5.743051E-1	5.692404E-1	5.824713E-1	5.472425E-1	6.012225E-1	5.910117E-1	5.574264E-1	5.906356E-1	6.076479E-1	5.816058E-1	5.370875E-1	5.901703E-1	5.653949E-1	5.648732E-1	5.937378E-1	5.531975E-1	5.547058E-1	5.723472E-1	6.089541E-1	6.141264E-1	5.934198E-1	5.640854E-1	5.892365E-1	5.455846E-1	5.673430E-1	5.844615E-1	5.347200E-1	5.889872E-1	5.843222E-1	5.808975E-1	5.726379E-1	5.916408E-1	5.567129E-1	5.786347E-1	5.545819E-1	5.740409E-1	5.602208E-1	5.953846E-1	5.318282E-1	5.883537E-1	6.239717E-1	5.906863E-1	5.692547E-1	6.021651E-1	5.820374E-1	5.862409E-1	6.038196E-1	5.954737E-1	5.976170E-1	5.810449E-1	5.775076E-1	5.659794E-1	5.801723E-1	5.593229E-1	5.360700E-1	5.635907E-1	5.974142E-1	6.076411E-1	5.574437E-1	5.349821E-1	5.180436E-1	5.651654E-1	5.742004E-1	5.759422E-1	5.764215E-1	6.033151E-1	5.796771E-1	5.789633E-1	5.554914E-1	5.458470E-1	5.552588E-1	5.476756E-1	5.827723E-1	5.910874E-1	5.550527E-1	6.201224E-1	5.782104E-1	5.712606E-1	5.882448E-1	6.072117E-1	5.772287E-1	5.703514E-1	5.977807E-1	5.831820E-1	5.710558E-1	5.690199E-1	5.789956E-1	5.579730E-1	5.912419E-1	6.149343E-1	5.852030E-1	5.928226E-1	5.609002E-1	6.140597E-1	5.502659E-1
5.372640E+2	5.281439E-1	5.294913E-1	5.168593E-1	5.109294E-1	4.962850E-1	5.071808E-1	5.478974E-1	5.490208E-1	5.058601E-1	5.155394E-1	5.253640E-1	5.603868E-1	5.429220E-1	5.366934E-1	5.055507E-1	5.070032E-1	5.125215E-1	5.388675E-1	5.397456E-1	4.656086E-1	5.387742E-1	5.209760E-1	5.127069E-1	5.564147E-1	5.477037E-1	5.022878E-1	5.557818E-1	5.349811E-1	5.220296E-1	5.312262E-1	5.438423E-1	5.120002E-1	5.295800E-1	5.100812E-1	5.575158E-1	5.603438E-1	5.050503E-1	5.119058E-1	5.475559E-1	5.114493E-1	4.742124E-1	5.210021E-1	5.360830E-1	5.290105E-1	5.506798E-1	5.081244E-1	5.288221E-1	5.074398E-1	5.357255E-1	5.070886E-1	5.018724E-1	5.457785E-1	5.127399E-1	5.059126E-1	5.322425E-1	5.153536E-1	5.270927E-1	5.102778E-1	5.263253E-1	5.402938E-1	5.438217E-1	5.111009E-1	4.916869E-1	5.454914E-1	5.096295E-1	5.085221E-1	5.159289E-1	4.791001E-1	5.169694E-1	4.940524E-1	5.170403E-1	5.073004E-1	5.362652E-1	5.023825E-1	5.382508E-1	5.401527E-1	5.360904E-1	5.193283E-1	5.342271E-1	5.200610E-1	5.344185E-1	5.564922E-1	5.482157E-1	5.689216E-1	4.832133E-1	5.299366E-1	5.220739E-1	5.214371E-1	5.201669E-1	5.321988E-1	5.154588E-1	5.203701E-1	5.534608E-1	5.571592E-1	5.247023E-1	4.826131E-1	5.200494E-1	5.277037E-1	5.319840E-1	5.592674E-1	5.284984E-1	5.246708E-1	5.404945E-1	5.561380E-1	4.980905E-1	5.408662E-1	5.228334E-1	4.895145E-1	5.058509E-1	5.164481E-1	5.417738E-1	5.458815E-1	4.974965E-1	5.302950E-1	5.378803E-1	5.492304E-1	5.070178E-1	5.427781E-1	5.208508E-1	5.248640E-1	5.273238E-1	5.339202E-1	5.536889E-1	5.061377E-1	5.068317E-1	5.029249E-1	5.439418E-1	5.209028E-1	5.209442E-1	5.217534E-1	5.095801E-1	5.137311E-1	5.023062E-1	5.050238E-1	4.932016E-1	5.566260E-1	5.018156E-1	4.976252E-1	5.468763E-1	5.388105E-1	5.486245E-1	5.147042E-1	5.309471E-1	5.408360E-1	5.305794E-1	5.247728E-1	5.335430E-1	5.429727E-1	5.540797E-1	5.388989E-1	5.407033E-1	5.403646E-1	5.158175E-1	5.372383E-1	5.533740E-1	4.879193E-1	5.147238E-1	5.190749E-1	5.432262E-1	5.070635E-1	5.226063E-1	5.509367E-1	5.090653E-1	5.090971E-1	4.865778E-1	5.113047E-1
5.375060E+2	5.174553E-1	4.911330E-1	4.976382E-1	5.150002E-1	4.822524E-1	4.962413E-1	5.325113E-1	5.072644E-1	4.883539E-1	5.083726E-1	5.519177E-1	4.915285E-1	4.961704E-1	4.753454E-1	5.059953E-1	5.110193E-1	5.376972E-1	4.645730E-1	5.582428E-1	5.384800E-1	5.327745E-1	5.081776E-1	4.974889E-1	5.055966E-1	5.167239E-1	4.994507E-1	5.246177E-1	5.062693E-1	4.576882E-1	5.229713E-1	5.008644E-1	4.897395E-1	5.401759E-1	5.307416E-1	5.160276E-1	4.715931E-1	4.927702E-1	5.008267E-1	5.271274E-1	5.179741E-1	4.614680E-1	5.197945E-1	5.481164E-1	5.060870E-1	5.322700E-1	5.018427E-1	4.852718E-1	5.295389E-1	5.316284E-1	5.399346E-1	5.090079E-1	4.957781E-1	5.221277E-1	4.924008E-1	5.229150E-1	5.099335E-1	5.016641E-1	5.018686E-1	5.142778E-1	4.898881E-1	4.853516E-1	5.167109E-1	5.147429E-1	5.004911E-1	5.335497E-1	5.287765E-1	5.043050E-1	5.038554E-1	4.939922E-1	5.219036E-1	5.533178E-1	5.132119E-1	4.916968E-1	5.055439E-1	4.805281E-1	4.743020E-1	5.354631E-1	5.238570E-1	5.025178E-1	5.572692E-1	4.672375E-1	5.039823E-1	5.227614E-1	5.304149E-1	4.799198E-1	5.016600E-1	4.934322E-1	5.454740E-1	5.077246E-1	4.895463E-1	5.384375E-1	5.287927E-1	5.367674E-1	5.136872E-1	4.925535E-1	5.275276E-1	5.084863E-1	5.462157E-1	5.183040E-1	4.896793E-1	5.076902E-1	5.438518E-1	4.979911E-1	5.062126E-1	4.999081E-1	5.113375E-1	5.261774E-1	5.318588E-1	5.416569E-1	4.687226E-1	4.998247E-1	5.267197E-1	5.380133E-1	5.097001E-1	5.338896E-1	4.949302E-1	5.371948E-1	5.026532E-1	5.523178E-1	4.981626E-1	4.959820E-1	5.344014E-1	5.042929E-1	5.271741E-1	5.142779E-1	4.781440E-1	5.049430E-1	5.057733E-1	5.165569E-1	4.779845E-1	5.485979E-1	5.225396E-1	5.098402E-1	5.041633E-1	4.888937E-1	5.038739E-1	5.124099E-1	5.092589E-1	4.821694E-1	5.240685E-1	5.044461E-1	5.165106E-1	5.397058E-1	5.165135E-1	5.003932E-1	5.320154E-1	5.319402E-1	4.738906E-1	5.262246E-1	5.137991E-1	5.297193E-1	4.916285E-1	5.103827E-1	5.390029E-1	5.322939E-1	5.016958E-1	5.117652E-1	5.218779E-1	5.274851E-1	5.081738E-1	5.124137E-1	4.838016E-1	4.876529E-1	4.865539E-1	4.795541E-1	4.621943E-1
5.377740E+2	5.833138E-1	5.631877E-1	5.809409E-1	5.709041E-1	5.641736E-1	5.343066E-1	5.775409E-1	5.787260E-1	5.291274E-1	5.472719E-1	5.690660E-1	5.218055E-1	5.874518E-1	5.463678E-1	5.381297E-1	5.240825E-1	5.645773E-1	5.547307E-1	5.508414E-1	5.289942E-1	5.748691E-1	5.590536E-1	5.570930E-1	5.434300E-1	5.388958E-1	5.502179E-1	5.989070E-1	5.550629E-1	5.624058E-1	6.191776E-1	5.564931E-1	5.699017E-1	5.624748E-1	5.522581E-1	5.636534E-1	5.865008E-1	5.576373E-1	5.587002E-1	5.785504E-1	5.924290E-1	5.575149E-1	5.875019E-1	5.826064E-1	5.805685E-1	5.499720E-1	5.643377E-1	5.526253E-1	5.498229E-1	5.525227E-1	5.966904E-1	5.241928E-1	5.583323E-1	5.514403E-1	5.517129E-1	5.818095E-1	5.645943E-1	5.622908E-1	5.841358E-1	5.488386E-1	5.425001E-1	5.874093E-1	5.652232E-1	5.736517E-1	5.714399E-1	5.401104E-1	5.668876E-1	5.615453E-1	6.028424E-1	5.298570E-1	5.560896E-1	6.276531E-1	5.658335E-1	5.765753E-1	5.517047E-1	5.600357E-1	5.848632E-1	5.717269E-1	5.317576E-1	5.636896E-1	5.579851E-1	5.625842E-1	5.751553E-1	5.477458E-1	5.632196E-1	5.505039E-1	5.830248E-1	5.488580E-1	5.869494E-1	5.779558E-1	5.906296E-1	5.735863E-1	6.096620E-1	5.206566E-1	5.729226E-1	5.810267E-1	5.648953E-1	5.972196E-1	6.224576E-1	5.579229E-1	5.560059E-1	5.715950E-1	5.631531E-1	5.798609E-1	6.158508E-1	5.478464E-1	5.536448E-1	5.606518E-1	5.743911E-1	5.634851E-1	5.499825E-1	6.114248E-1	6.168041E-1	5.830140E-1	5.672642E-1	5.379399E-1	5.819462E-1	5.935282E-1	5.150305E-1	5.665451E-1	5.903508E-1	5.772028E-1	5.822086E-1	5.558688E-1	5.453573E-1	5.513453E-1	5.723894E-1	5.533435E-1	5.986556E-1	5.529248E-1	5.979639E-1	5.440102E-1	5.847831E-1	5.307544E-1	5.368374E-1	5.887079E-1	6.079628E-1	6.274498E-1	5.613404E-1	5.366762E-1	5.533483E-1	5.662506E-1	5.737846E-1	5.956545E-1	5.515485E-1	5.715105E-1	6.015063E-1	5.412814E-1	5.604791E-1	5.756617E-1	5.760911E-1	5.549636E-1	5.905723E-1	5.467981E-1	5.401518E-1	5.843216E-1	5.820016E-1	5.184159E-1	5.557603E-1	5.731864E-1	5.789624E-1	5.963810E-1	5.447096E-1	5.965567E-1	5.476552E-1	5.643082E-1	5.608309E-1
5.380160E+2	6.297023E-1	5.914703E-1	6.155876E-1	6.171023E-1	6.035182E-1	5.983714E-1	6.272090E-1	5.637252E-1	6.120661E-1	6.028154E-1	6.211245E-1	6.508260E-1	6.014951E-1	6.455832E-1	6.373673E-1	6.186211E-1	6.297188E-1	6.090995E-1	6.040336E-1	6.114779E-1	5.988251E-1	6.016269E-1	6.264039E-1	6.460950E-1	6.034528E-1	6.305752E-1	6.088842E-1	6.163894E-1	5.815119E-1	6.025180E-1	6.223226E-1	5.852401E-1	6.061547E-1	6.319126E-1	6.272498E-1	6.047423E-1	5.573733E-1	6.019801E-1	6.142577E-1	5.978490E-1	6.023062E-1	6.224629E-1	6.281192E-1	6.357904E-1	6.021523E-1	6.393645E-1	5.837862E-1	5.883015E-1	5.789405E-1	6.530115E-1	6.006271E-1	6.359289E-1	5.732744E-1	6.183425E-1	6.164466E-1	6.028800E-1	6.050186E-1	6.151805E-1	6.367395E-1	6.373568E-1	6.352027E-1	5.946121E-1	6.532079E-1	6.222448E-1	6.383284E-1	6.210528E-1	6.276837E-1	5.887575E-1	5.891665E-1	6.361840E-1	5.859540E-1	5.882932E-1	5.886781E-1	6.527190E-1	6.307603E-1	6.155723E-1	6.010136E-1	6.213358E-1	6.204142E-1	5.708676E-1	6.256060E-1	6.273226E-1	6.458390E-1	5.782431E-1	5.898837E-1	5.967958E-1	6.470268E-1	6.352036E-1	6.098626E-1	6.720590E-1	6.527974E-1	6.030411E-1	6.218428E-1	6.385506E-1	6.007872E-1	6.080007E-1	6.252379E-1	6.131134E-1	6.113873E-1	6.244554E-1	6.337003E-1	6.261455E-1	6.041459E-1	6.311730E-1	6.064674E-1	6.082562E-1	6.165371E-1	6.320661E-1	6.309790E-1	6.278067E-1	6.323631E-1	6.014551E-1	6.034828E-1	6.262816E-1	6.368789E-1	6.591738E-1	6.518907E-1	6.241463E-1	6.379711E-1	6.241976E-1	6.533334E-1	5.907474E-1	6.128869E-1	6.012562E-1	6.143459E-1	6.149076E-1	6.088412E-1	6.061290E-1	6.267139E-1	6.244910E-1	6.121981E-1	6.302443E-1	5.951615E-1	6.017939E-1	5.979394E-1	6.465035E-1	6.094488E-1	6.134170E-1	6.019997E-1	6.207900E-1	6.308500E-1	6.150516E-1	5.815740E-1	6.246896E-1	6.165206E-1	6.192079E-1	5.879222E-1	6.064995E-1	5.959702E-1	6.405545E-1	6.078492E-1	6.333043E-1	6.333014E-1	6.629390E-1	5.813886E-1	6.061326E-1	6.126967E-1	6.238148E-1	6.253649E-1	6.042925E-1	6.427241E-1	5.988145E-1	6.257899E-1	6.016390E-1	5.997343E-1	6.263253E-1
5.382850E+2	7.572307E-1	7.506008E-1	7.701875E-1	7.033785E-1	7.290696E-1	7.212161E-1	7.980451E-1	7.277327E-1	7.495432E-1	7.587414E-1	7.580848E-1	7.055556E-1	7.360327E-1	7.093137E-1	7.119394E-1	7.587009E-1	7.457932E-1	7.269373E-1	7.334058E-1	7.098024E-1	7.229328E-1	6.784522E-1	6.994999E-1	7.364875E-1	7.238485E-1	7.336356E-1	7.656684E-1	6.633327E-1	7.419353E-1	7.215622E-1	7.327591E-1	7.140335E-1	7.455088E-1	7.339746E-1	7.382582E-1	7.082650E-1	7.097546E-1	6.885560E-1	7.890269E-1	7.494635E-1	7.154234E-1	7.250737E-1	7.678479E-1	6.947269E-1	7.720940E-1	7.123454E-1	7.058502E-1	7.148986E-1	7.440996E-1	7.427764E-1	6.671718E-1	6.817989E-1	7.022345E-1	7.409462E-1	7.594764E-1	7.586707E-1	7.433637E-1	7.597711E-1	7.734807E-1	7.346649E-1	7.248277E-1	7.591519E-1	6.988793E-1	7.303994E-1	7.103355E-1	7.403722E-1	7.293651E-1	7.772004E-1	7.260375E-1	7.829396E-1	6.973865E-1	7.202217E-1	7.277035E-1	7.452620E-1	7.459710E-1	7.657573E-1	7.717196E-1	7.513261E-1	7.302254E-1	7.400764E-1	7.481219E-1	7.868854E-1	7.419163E-1	7.068396E-1	7.215314E-1	7.199174E-1	7.015461E-1	7.405052E-1	7.538576E-1	7.100506E-1	7.212893E-1	7.747288E-1	7.162619E-1	7.346552E-1	7.458313E-1	7.130615E-1	7.153008E-1	7.072030E-1	7.264652E-1	7.380971E-1	7.517969E-1	7.310868E-1	7.305242E-1	7.266889E-1	7.431134E-1	7.452475E-1	7.697294E-1	6.979877E-1	7.331159E-1	7.247197E-1	7.441163E-1	7.601521E-1	7.296234E-1	7.351553E-1	7.218816E-1	7.704593E-1	7.202114E-1	7.113911E-1	7.447977E-1	7.557258E-1	6.932402E-1	7.375719E-1	7.547524E-1	7.872005E-1	7.351415E-1	7.352864E-1	7.143106E-1	7.160677E-1	6.967128E-1	7.136696E-1	7.265447E-1	7.500713E-1	6.946599E-1	7.356954E-1	7.551359E-1	7.428009E-1	7.450279E-1	7.171389E-1	7.448663E-1	7.031426E-1	7.679032E-1	7.770378E-1	7.125698E-1	7.220963E-1	7.614665E-1	6.992443E-1	7.365542E-1	7.053422E-1	7.296603E-1	7.433631E-1	7.294309E-1	7.116152E-1	7.416254E-1	7.706570E-1	7.709591E-1	7.109981E-1	7.653822E-1	7.652483E-1	7.301191E-1	7.278000E-1	7.453473E-1	7.286844E-1	7.665255E-1	6.756491E-1	6.822466E-1	7.158747E-1
5.385110E+2	8.747707E-1	8.561168E-1	9.101438E-1	8.488813E-1	8.925413E-1	8.436776E-1	8.576781E-1	8.932458E-1	8.348678E-1	8.428000E-1	9.017171E-1	8.279010E-1	8.790687E-1	8.958094E-1	8.537942E-1	8.159754E-1	8.836098E-1	8.871801E-1	8.391097E-1	8.841515E-1	8.598472E-1	8.672828E-1	8.743760E-1	8.652985E-1	8.614829E-1	8.759657E-1	8.314822E-1	8.746371E-1	8.396813E-1	8.790788E-1	8.472395E-1	8.300281E-1	8.366602E-1	8.190463E-1	8.140430E-1	8.804928E-1	8.574854E-1	8.691454E-1	8.437587E-1	8.903650E-1	7.957658E-1	8.452175E-1	8.862394E-1	9.181575E-1	8.184947E-1	8.901427E-1	8.421234E-1	8.071403E-1	8.518751E-1	8.699231E-1	8.577082E-1	8.083658E-1	8.658096E-1	8.657188E-1	8.617499E-1	8.582775E-1	9.498899E-1	8.430555E-1	8.544292E-1	8.661101E-1	9.030114E-1	8.362951E-1	8.188536E-1	8.436300E-1	8.800584E-1	9.297674E-1	8.148708E-1	8.498558E-1	8.026976E-1	8.618176E-1	8.732722E-1	8.610669E-1	8.556276E-1	8.455514E-1	8.269585E-1	8.990882E-1	9.141914E-1	8.773697E-1	8.402959E-1	8.439971E-1	8.428848E-1	8.543454E-1	8.276113E-1	8.634747E-1	8.604259E-1	8.877397E-1	8.524667E-1	8.626120E-1	8.302579E-1	8.776266E-1	8.132737E-1	8.528376E-1	8.476857E-1	8.825052E-1	9.286516E-1	8.442995E-1	8.338497E-1	8.523413E-1	9.099033E-1	8.214702E-1	8.547396E-1	8.454953E-1	8.785157E-1	9.000595E-1	8.197594E-1	8.585279E-1	8.635023E-1	8.517375E-1	8.569362E-1	8.657934E-1	8.470419E-1	8.388528E-1	8.190579E-1	8.602160E-1	8.295420E-1	8.329749E-1	8.595320E-1	8.083879E-1	8.802981E-1	8.763748E-1	8.703588E-1	8.595423E-1	8.530425E-1	8.639559E-1	8.678457E-1	8.120841E-1	8.612666E-1	9.043408E-1	8.935175E-1	8.428925E-1	8.736558E-1	8.660950E-1	8.174425E-1	8.576638E-1	8.572985E-1	8.901063E-1	9.254774E-1	8.977439E-1	8.521716E-1	8.030536E-1	8.857858E-1	8.422395E-1	8.940420E-1	8.713136E-1	8.220914E-1	8.917714E-1	8.726226E-1	8.563511E-1	8.835877E-1	8.407653E-1	8.641313E-1	8.561014E-1	8.759923E-1	8.144179E-1	8.630880E-1	8.577316E-1	8.178474E-1	8.515209E-1	8.007642E-1	8.486482E-1	8.346534E-1	8.597367E-1	8.623283E-1	8.476889E-1	9.343249E-1	7.966910E-1
5.387600E+2	1.040185E+0	1.059429E+0	1.030106E+0	1.025756E+0	1.048567E+0	1.037533E+0	1.050995E+0	1.081248E+0	1.027549E+0	1.010498E+0	1.013658E+0	1.083417E+0	1.012622E+0	1.060132E+0	1.002007E+0	1.026309E+0	1.083750E+0	1.020371E+0	1.035683E+0	1.045052E+0	1.005051E+0	9.845563E-1	1.039833E+0	1.098025E+0	1.062773E+0	1.031165E+0	1.020890E+0	1.077649E+0	1.015453E+0	1.058696E+0	1.041125E+0	1.019870E+0	1.041742E+0	1.016963E+0	1.014636E+0	1.054697E+0	1.055122E+0	1.055133E+0	1.083953E+0	1.049395E+0	1.016521E+0	1.057916E+0	1.044959E+0	1.033899E+0	1.065998E+0	1.063464E+0	9.628822E-1	1.051972E+0	1.024097E+0	1.012171E+0	1.032001E+0	1.008132E+0	1.027242E+0	1.068760E+0	1.029836E+0	1.053957E+0	1.047921E+0	1.034631E+0	1.023068E+0	1.040508E+0	1.027050E+0	1.063047E+0	1.015871E+0	9.962602E-1	1.004941E+0	1.082790E+0	1.057539E+0	1.037546E+0	9.869815E-1	1.008136E+0	1.002926E+0	1.008594E+0	1.022276E+0	1.036704E+0	1.002069E+0	1.027049E+0	1.040545E+0	1.018393E+0	1.036489E+0	1.021384E+0	1.012703E+0	1.053640E+0	1.049888E+0	1.093865E+0	1.015469E+0	1.030909E+0	9.820782E-1	1.010104E+0	9.577971E-1	1.015437E+0	1.041238E+0	1.057777E+0	9.536626E-1	1.061999E+0	1.024921E+0	1.032891E+0	1.050650E+0	1.012347E+0	1.036287E+0	1.047168E+0	1.036418E+0	1.028697E+0	1.045289E+0	1.026205E+0	1.040187E+0	1.071331E+0	1.053654E+0	1.032002E+0	1.056596E+0	1.103231E+0	1.072264E+0	1.045635E+0	1.029223E+0	1.025297E+0	1.023167E+0	1.071549E+0	1.040739E+0	1.032072E+0	1.017118E+0	9.994327E-1	1.024668E+0	1.029635E+0	1.055363E+0	1.024148E+0	1.027785E+0	1.058558E+0	1.004415E+0	1.065631E+0	1.050584E+0	1.039821E+0	1.050115E+0	1.010195E+0	1.046198E+0	1.007783E+0	1.002529E+0	1.020701E+0	1.029402E+0	1.061391E+0	1.018528E+0	1.037186E+0	1.031786E+0	1.009819E+0	1.051720E+0	1.007294E+0	1.048306E+0	9.747009E-1	1.046322E+0	1.004387E+0	1.041028E+0	9.858480E-1	1.067993E+0	1.059773E+0	1.073960E+0	9.996368E-1	1.018464E+0	9.903012E-1	1.029619E+0	1.072709E+0	1.052984E+0	1.031390E+0	1.031396E+0	1.089130E+0	1.067379E+0	1.027684E+0	1.038623E+0	1.004983E+0
5.390240E+2	1.308991E+0	1.226780E+0	1.228421E+0	1.238531E+0	1.243442E+0	1.275420E+0	1.233875E+0	1.265405E+0	1.260003E+0	1.249965E+0	1.164350E+0	1.277056E+0	1.255437E+0	1.265937E+0	1.221172E+0	1.224559E+0	1.309927E+0	1.230907E+0	1.250908E+0	1.238212E+0	1.226064E+0	1.222597E+0	1.239064E+0	1.280105E+0	1.284832E+0	1.291282E+0	1.254575E+0	1.263857E+0	1.247451E+0	1.250789E+0	1.222804E+0	1.240242E+0	1.287020E+0	1.234726E+0	1.230800E+0	1.243043E+0	1.264889E+0	1.224395E+0	1.212780E+0	1.278512E+0	1.267791E+0	1.237125E+0	1.256917E+0	1.285179E+0	1.261215E+0	1.262925E+0	1.166259E+0	1.263907E+0	1.261609E+0	1.265553E+0	1.222595E+0	1.296567E+0	1.271002E+0	1.238739E+0	1.275084E+0	1.274639E+0	1.253211E+0	1.283632E+0	1.277912E+0	1.237073E+0	1.277410E+0	1.209845E+0	1.171835E+0	1.299502E+0	1.324586E+0	1.223908E+0	1.288136E+0	1.249303E+0	1.189896E+0	1.288251E+0	1.246181E+0	1.262335E+0	1.228468E+0	1.270568E+0	1.233459E+0	1.251286E+0	1.259883E+0	1.234440E+0	1.234196E+0	1.283126E+0	1.250654E+0	1.266448E+0	1.221586E+0	1.297238E+0	1.190375E+0	1.285090E+0	1.278310E+0	1.270415E+0	1.243124E+0	1.262668E+0	1.281057E+0	1.297544E+0	1.275170E+0	1.218246E+0	1.256348E+0	1.290265E+0	1.268342E+0	1.214344E+0	1.250865E+0	1.259372E+0	1.220130E+0	1.284040E+0	1.277618E+0	1.279574E+0	1.291284E+0	1.278784E+0	1.222819E+0	1.195985E+0	1.270141E+0	1.235577E+0	1.262109E+0	1.264285E+0	1.242455E+0	1.267848E+0	1.260102E+0	1.296376E+0	1.197665E+0	1.232928E+0	1.257794E+0	1.252649E+0	1.231290E+0	1.286580E+0	1.229374E+0	1.212703E+0	1.266754E+0	1.214515E+0	1.253076E+0	1.235569E+0	1.199858E+0	1.198170E+0	1.250916E+0	1.230032E+0	1.202804E+0	1.185819E+0	1.251880E+0	1.217892E+0	1.252738E+0	1.217307E+0	1.228668E+0	1.258413E+0	1.262486E+0	1.229000E+0	1.237129E+0	1.235609E+0	1.238476E+0	1.237034E+0	1.278979E+0	1.191044E+0	1.226513E+0	1.220071E+0	1.277899E+0	1.250191E+0	1.280235E+0	1.224588E+0	1.206059E+0	1.212494E+0	1.285107E+0	1.248283E+0	1.204856E+0	1.291550E+0	1.207658E+0	1.325593E+0	1.274356E+0	1.245145E+0	1.157702E+0	1.312963E+0
5.392670E+2	1.528304E+0	1.431002E+0	1.462379E+0	1.447525E+0	1.449224E+0	1.367295E+0	1.428965E+0	1.496107E+0	1.495946E+0	1.438504E+0	1.425343E+0	1.471056E+0	1.449903E+0	1.471802E+0	1.394890E+0	1.404804E+0	1.509154E+0	1.399252E+0	1.468015E+0	1.406683E+0	1.418573E+0	1.427257E+0	1.397094E+0	1.420399E+0	1.467268E+0	1.464289E+0	1.454440E+0	1.441134E+0	1.437316E+0	1.423091E+0	1.425745E+0	1.439361E+0	1.495656E+0	1.426379E+0	1.393372E+0	1.464618E+0	1.461127E+0	1.437158E+0	1.410133E+0	1.458599E+0	1.398798E+0	1.429429E+0	1.433806E+0	1.426608E+0	1.441011E+0	1.456777E+0	1.393303E+0	1.438492E+0	1.414163E+0	1.471614E+0	1.398470E+0	1.433568E+0	1.420127E+0	1.477634E+0	1.434916E+0	1.451412E+0	1.385612E+0	1.409349E+0	1.479208E+0	1.447135E+0	1.469827E+0	1.385257E+0	1.355378E+0	1.452311E+0	1.441536E+0	1.409364E+0	1.453304E+0	1.476841E+0	1.420722E+0	1.476332E+0	1.429562E+0	1.493959E+0	1.473102E+0	1.362200E+0	1.415161E+0	1.456377E+0	1.488866E+0	1.457973E+0	1.416546E+0	1.460299E+0	1.393061E+0	1.410050E+0	1.393021E+0	1.415195E+0	1.354822E+0	1.408584E+0	1.402332E+0	1.422579E+0	1.379942E+0	1.448367E+0	1.478316E+0	1.445360E+0	1.421230E+0	1.410913E+0	1.464847E+0	1.420424E+0	1.441694E+0	1.425272E+0	1.404225E+0	1.332066E+0	1.396615E+0	1.399375E+0	1.462754E+0	1.430435E+0	1.407962E+0	1.483810E+0	1.485184E+0	1.397218E+0	1.370972E+0	1.419349E+0	1.433550E+0	1.461961E+0	1.451824E+0	1.441343E+0	1.385979E+0	1.459470E+0	1.396300E+0	1.470230E+0	1.417441E+0	1.453108E+0	1.415676E+0	1.378620E+0	1.454088E+0	1.444613E+0	1.444210E+0	1.384597E+0	1.474005E+0	1.399040E+0	1.489534E+0	1.421209E+0	1.443763E+0	1.380930E+0	1.421922E+0	1.425736E+0	1.382799E+0	1.405937E+0	1.416326E+0	1.420702E+0	1.414911E+0	1.425633E+0	1.479564E+0	1.409357E+0	1.413796E+0	1.352685E+0	1.488755E+0	1.525711E+0	1.453883E+0	1.417832E+0	1.437066E+0	1.442471E+0	1.454681E+0	1.429052E+0	1.435046E+0	1.427855E+0	1.421783E+0	1.444122E+0	1.450144E+0	1.420030E+0	1.420524E+0	1.444951E+0	1.378168E+0	1.437640E+0	1.368506E+0	1.310975E+0	1.316889E+0	1.411195E+0
5.395160E+2	1.771585E+0	1.688610E+0	1.677211E+0	1.638077E+0	1.623607E+0	1.663922E+0	1.632675E+0	1.607936E+0	1.631288E+0	1.608512E+0	1.585326E+0	1.620109E+0	1.738303E+0	1.645697E+0	1.602288E+0	1.643200E+0	1.690005E+0	1.624803E+0	1.659738E+0	1.603227E+0	1.652827E+0	1.654116E+0	1.634110E+0	1.653468E+0	1.650617E+0	1.702807E+0	1.638545E+0	1.614296E+0	1.641647E+0	1.730598E+0	1.715224E+0	1.667268E+0	1.615006E+0	1.583846E+0	1.668363E+0	1.677472E+0	1.704715E+0	1.646501E+0	1.629763E+0	1.685808E+0	1.652258E+0	1.732956E+0	1.670223E+0	1.573162E+0	1.670972E+0	1.739318E+0	1.614923E+0	1.601832E+0	1.662580E+0	1.700619E+0	1.663762E+0	1.603064E+0	1.653917E+0	1.729204E+0	1.655866E+0	1.676909E+0	1.675211E+0	1.670293E+0	1.674662E+0	1.676901E+0	1.778882E+0	1.642245E+0	1.618689E+0	1.657911E+0	1.587462E+0	1.683923E+0	1.635419E+0	1.607547E+0	1.627007E+0	1.686223E+0	1.691388E+0	1.606360E+0	1.665845E+0	1.649625E+0	1.597977E+0	1.678059E+0	1.586001E+0	1.637227E+0	1.592439E+0	1.696451E+0	1.573390E+0	1.661336E+0	1.616924E+0	1.600689E+0	1.558872E+0	1.650152E+0	1.619166E+0	1.597244E+0	1.626273E+0	1.632675E+0	1.616960E+0	1.647945E+0	1.610930E+0	1.598920E+0	1.623198E+0	1.670596E+0	1.633296E+0	1.621161E+0	1.654724E+0	1.603950E+0	1.571704E+0	1.624703E+0	1.601422E+0	1.616099E+0	1.594894E+0	1.636223E+0	1.604196E+0	1.605501E+0	1.603032E+0	1.594362E+0	1.620856E+0	1.632351E+0	1.657652E+0	1.570428E+0	1.568062E+0	1.623291E+0	1.611108E+0	1.579414E+0	1.573925E+0	1.604063E+0	1.665549E+0	1.663261E+0	1.604241E+0	1.631260E+0	1.566856E+0	1.589630E+0	1.622279E+0	1.642603E+0	1.629446E+0	1.626831E+0	1.605229E+0	1.597296E+0	1.629725E+0	1.641619E+0	1.643213E+0	1.607741E+0	1.608671E+0	1.689234E+0	1.583500E+0	1.557413E+0	1.603338E+0	1.621344E+0	1.561072E+0	1.573252E+0	1.581070E+0	1.628947E+0	1.619494E+0	1.596124E+0	1.662263E+0	1.645572E+0	1.598732E+0	1.606118E+0	1.603619E+0	1.643751E+0	1.639687E+0	1.584660E+0	1.577421E+0	1.638750E+0	1.617453E+0	1.625047E+0	1.598118E+0	1.582129E+0	1.558616E+0	1.559521E+0	1.526551E+0	1.563103E+0
5.397700E+2	2.043846E+0	1.977828E+0	1.918945E+0	2.009444E+0	1.859795E+0	1.928489E+0	1.881736E+0	1.942214E+0	1.842421E+0	1.931027E+0	1.935059E+0	1.897476E+0	1.955782E+0	1.918243E+0	1.941749E+0	1.886875E+0	1.930709E+0	1.943091E+0	1.939239E+0	1.991286E+0	1.951547E+0	1.865067E+0	1.974668E+0	1.948569E+0	1.912921E+0	1.929252E+0	1.931929E+0	1.955103E+0	1.939384E+0	1.952311E+0	1.939507E+0	1.941799E+0	1.872117E+0	1.909857E+0	1.919440E+0	1.963701E+0	1.907231E+0	1.913698E+0	1.938482E+0	1.947921E+0	1.859006E+0	1.956234E+0	2.004719E+0	1.923112E+0	1.941478E+0	1.957052E+0	1.878459E+0	1.918136E+0	1.963477E+0	1.978016E+0	1.878178E+0	1.861426E+0	1.953026E+0	1.909051E+0	1.917017E+0	1.954383E+0	1.967389E+0	1.970691E+0	1.927644E+0	1.905261E+0	1.971699E+0	1.961763E+0	1.868392E+0	1.934474E+0	2.004708E+0	1.916629E+0	1.886334E+0	1.910279E+0	1.851189E+0	1.932995E+0	1.910750E+0	1.927378E+0	1.922238E+0	1.945579E+0	1.846777E+0	1.974700E+0	1.930210E+0	1.958317E+0	1.843531E+0	1.875330E+0	1.943662E+0	1.819752E+0	2.001662E+0	1.881976E+0	1.816709E+0	1.951819E+0	1.897218E+0	1.903266E+0	1.917490E+0	1.864732E+0	1.807948E+0	1.966127E+0	1.881960E+0	1.934956E+0	1.872930E+0	1.863363E+0	1.922425E+0	1.866482E+0	1.921211E+0	1.947247E+0	1.873483E+0	1.813475E+0	1.850754E+0	1.950198E+0	1.891490E+0	1.915843E+0	1.936319E+0	1.893542E+0	1.891777E+0	1.938981E+0	1.824505E+0	1.946715E+0	1.943847E+0	1.820540E+0	1.842937E+0	1.892088E+0	1.888993E+0	1.847747E+0	1.895697E+0	1.937238E+0	1.904275E+0	1.995292E+0	1.869766E+0	1.898484E+0	1.814385E+0	1.869282E+0	1.899496E+0	1.882046E+0	1.855814E+0	1.920142E+0	1.892079E+0	1.835659E+0	1.912187E+0	1.852348E+0	1.871330E+0	1.877480E+0	1.826164E+0	1.862355E+0	1.810629E+0	1.905059E+0	1.884391E+0	1.953639E+0	1.852414E+0	1.821714E+0	1.855734E+0	1.778854E+0	1.874466E+0	1.844242E+0	1.884247E+0	1.804974E+0	1.919592E+0	1.864893E+0	1.894089E+0	1.847406E+0	1.927830E+0	1.796516E+0	1.957980E+0	1.891896E+0	1.855144E+0	1.859135E+0	1.915194E+0	1.862316E+0	1.769593E+0	1.857492E+0	1.777335E+0	1.859216E+0
5.400190E+2	2.126905E+0	1.995926E+0	1.927926E+0	2.021092E+0	1.951292E+0	2.013093E+0	1.953490E+0	2.060502E+0	1.974832E+0	1.894186E+0	1.985872E+0	1.963322E+0	1.993729E+0	1.960720E+0	1.987500E+0	1.945085E+0	2.053658E+0	1.969710E+0	1.930712E+0	1.931790E+0	1.926383E+0	1.972396E+0	1.933956E+0	2.106790E+0	2.043911E+0	1.982480E+0	1.963084E+0	1.939320E+0	1.891463E+0	1.963427E+0	1.995139E+0	1.970714E+0	2.002842E+0	1.974553E+0	1.946088E+0	2.001990E+0	1.952785E+0	1.981980E+0	1.981015E+0	1.988744E+0	1.974303E+0	1.979049E+0	1.988266E+0	2.070033E+0	1.994991E+0	1.976103E+0	1.910746E+0	1.925491E+0	1.950015E+0	1.961196E+0	1.924778E+0	1.937715E+0	2.024435E+0	1.958634E+0	1.932308E+0	1.937886E+0	1.978443E+0	2.006357E+0	1.963246E+0	2.016845E+0	1.990857E+0	1.942954E+0	1.900937E+0	1.968165E+0	1.885039E+0	1.995586E+0	1.936617E+0	1.959368E+0	1.955592E+0	1.926258E+0	1.985543E+0	1.946931E+0	1.896878E+0	1.859346E+0	1.913292E+0	2.005058E+0	1.913323E+0	1.978643E+0	1.889060E+0	1.961172E+0	1.920620E+0	1.962948E+0	1.970217E+0	1.888587E+0	1.882630E+0	1.888263E+0	1.919559E+0	2.012370E+0	1.921443E+0	1.937570E+0	1.924362E+0	1.983825E+0	1.921776E+0	1.950534E+0	1.889710E+0	1.848685E+0	1.936086E+0	1.930442E+0	1.909101E+0	1.951838E+0	1.897419E+0	1.930372E+0	1.936385E+0	1.981336E+0	1.948809E+0	1.983559E+0	1.857165E+0	1.912010E+0	1.950760E+0	1.901773E+0	1.890923E+0	1.938976E+0	1.922054E+0	1.874372E+0	1.898317E+0	1.930063E+0	1.914667E+0	1.956790E+0	1.940346E+0	1.871376E+0	1.934752E+0	1.974236E+0	1.871807E+0	1.861745E+0	1.907239E+0	1.978165E+0	1.930267E+0	1.892852E+0	1.967441E+0	1.915503E+0	1.937585E+0	1.909158E+0	1.926778E+0	1.880374E+0	1.868830E+0	1.976204E+0	1.920628E+0	1.951927E+0	1.936196E+0	1.846981E+0	1.927313E+0	1.956757E+0	1.857860E+0	1.938785E+0	1.952206E+0	1.902950E+0	1.900097E+0	1.877490E+0	1.931102E+0	1.881749E+0	2.021817E+0	1.836441E+0	1.902868E+0	1.888696E+0	1.917695E+0	1.922738E+0	1.926839E+0	1.930499E+0	1.854892E+0	1.896700E+0	1.940146E+0	1.822399E+0	1.985119E+0	1.821153E+0	1.886804E+0	1.826083E+0
5.402530E+2	2.154158E+0	2.115439E+0	2.008841E+0	2.129559E+0	2.035943E+0	2.143240E+0	2.105250E+0	2.122708E+0	2.035398E+0	2.088248E+0	2.112705E+0	2.118944E+0	2.176932E+0	2.102553E+0	2.048094E+0	2.097051E+0	2.172273E+0	2.038483E+0	2.109573E+0	2.075728E+0	2.088286E+0	2.032351E+0	2.092038E+0	2.103758E+0	2.084297E+0	2.078810E+0	1.989320E+0	2.114120E+0	2.068745E+0	2.077965E+0	2.047683E+0	2.042366E+0	2.130544E+0	2.081777E+0	2.084811E+0	2.084853E+0	2.101530E+0	2.068923E+0	2.011987E+0	2.139088E+0	2.086687E+0	2.127458E+0	2.065208E+0	2.142190E+0	2.031764E+0	2.068569E+0	1.981839E+0	2.032947E+0	2.064796E+0	2.130213E+0	2.030151E+0	2.012413E+0	2.051264E+0	2.148766E+0	2.042705E+0	2.122077E+0	2.103757E+0	2.095431E+0	2.089804E+0	2.103437E+0	2.153940E+0	2.044138E+0	2.055704E+0	2.022165E+0	2.108089E+0	1.982205E+0	1.994648E+0	2.138502E+0	2.059431E+0	2.076842E+0	2.091579E+0	2.163678E+0	2.047290E+0	2.018734E+0	1.955984E+0	2.152812E+0	2.085848E+0	2.061449E+0	2.026082E+0	2.045051E+0	2.035010E+0	2.049800E+0	2.071974E+0	2.116738E+0	1.935005E+0	2.086249E+0	1.957496E+0	2.113927E+0	2.030768E+0	2.001899E+0	2.043116E+0	2.110639E+0	2.060665E+0	2.053935E+0	2.068706E+0	2.054720E+0	2.058619E+0	2.001423E+0	2.047722E+0	2.075972E+0	1.975796E+0	1.981117E+0	1.987792E+0	2.060842E+0	2.024975E+0	2.083714E+0	2.076150E+0	2.111413E+0	1.992815E+0	1.992314E+0	1.967915E+0	2.051766E+0	2.106700E+0	1.983168E+0	1.984907E+0	2.080515E+0	2.009894E+0	2.049060E+0	2.011979E+0	2.101001E+0	2.076550E+0	1.992500E+0	1.974541E+0	2.048038E+0	1.931578E+0	2.025534E+0	1.906554E+0	2.051103E+0	2.023812E+0	1.986416E+0	1.955102E+0	1.977373E+0	1.957110E+0	2.011577E+0	1.963207E+0	2.000712E+0	2.064255E+0	1.971714E+0	2.035255E+0	2.060612E+0	2.061142E+0	2.023261E+0	2.004338E+0	1.964452E+0	2.029560E+0	1.961977E+0	2.033543E+0	2.009372E+0	1.980768E+0	1.994392E+0	1.939846E+0	2.010854E+0	2.074233E+0	1.966820E+0	1.969158E+0	2.033587E+0	1.928422E+0	2.063273E+0	1.919786E+0	2.079462E+0	2.102677E+0	1.992428E+0	2.023299E+0	1.980840E+0	2.060679E+0	1.893105E+0
5.405080E+2	2.074944E+0	2.011742E+0	1.961029E+0	1.987978E+0	1.974240E+0	1.934507E+0	2.038031E+0	1.967142E+0	1.952578E+0	1.939012E+0	1.917265E+0	1.967188E+0	1.976952E+0	2.029349E+0	1.963308E+0	2.004639E+0	2.058434E+0	1.993328E+0	2.014811E+0	1.951452E+0	1.996398E+0	1.964535E+0	2.021064E+0	2.040766E+0	1.985745E+0	1.945124E+0	1.944401E+0	1.957087E+0	1.943812E+0	2.031592E+0	2.014791E+0	1.981570E+0	1.984805E+0	2.035790E+0	1.974263E+0	1.959835E+0	2.021722E+0	1.915539E+0	1.977081E+0	2.052018E+0	1.959948E+0	1.991611E+0	1.998852E+0	1.984892E+0	1.998398E+0	1.932254E+0	1.972096E+0	1.955697E+0	1.983105E+0	2.035265E+0	1.879493E+0	2.044317E+0	1.919117E+0	2.018564E+0	1.989068E+0	1.959314E+0	1.971224E+0	2.010260E+0	1.859204E+0	2.041332E+0	2.046414E+0	1.965814E+0	1.889298E+0	1.969397E+0	1.992212E+0	1.993252E+0	1.957984E+0	1.972658E+0	1.951570E+0	2.055451E+0	2.002829E+0	1.948606E+0	1.918412E+0	1.958101E+0	1.922217E+0	2.010050E+0	2.003181E+0	1.965594E+0	1.897465E+0	1.954637E+0	1.927378E+0	1.955750E+0	1.997886E+0	1.963467E+0	1.976714E+0	2.039327E+0	1.940732E+0	1.993969E+0	1.949765E+0	1.955168E+0	1.967997E+0	1.998993E+0	1.909406E+0	1.960606E+0	1.834031E+0	1.966456E+0	2.011056E+0	1.904127E+0	1.927541E+0	2.009054E+0	1.966797E+0	1.906583E+0	1.963432E+0	1.925476E+0	1.996346E+0	1.911667E+0	1.963476E+0	1.993315E+0	1.967771E+0	1.923200E+0	1.897663E+0	1.921241E+0	1.999591E+0	1.848177E+0	1.938573E+0	1.953818E+0	1.918465E+0	1.925492E+0	1.885073E+0	1.938250E+0	1.955366E+0	1.999171E+0	1.944544E+0	1.976915E+0	1.922112E+0	1.950395E+0	1.874028E+0	1.997942E+0	1.981104E+0	1.913435E+0	1.913868E+0	1.895876E+0	1.892538E+0	1.964475E+0	1.928473E+0	1.940828E+0	1.970235E+0	1.823812E+0	1.915176E+0	1.956047E+0	1.959847E+0	1.991770E+0	1.921199E+0	1.959755E+0	1.867729E+0	1.907484E+0	1.918654E+0	1.946487E+0	1.963754E+0	1.944438E+0	1.962404E+0	1.911006E+0	1.898722E+0	1.943202E+0	1.907872E+0	1.927963E+0	1.931608E+0	1.899518E+0	1.934242E+0	1.910373E+0	1.983968E+0	1.879721E+0	1.832538E+0	1.862506E+0	1.863804E+0	1.850277E+0
5.407630E+2	2.036254E+0	1.955876E+0	2.012193E+0	1.958507E+0	1.935882E+0	1.937162E+0	1.939066E+0	1.949575E+0	1.955099E+0	1.973038E+0	2.006270E+0	1.983183E+0	2.038372E+0	1.941223E+0	1.921481E+0	1.971965E+0	2.017521E+0	1.950714E+0	1.959941E+0	1.960302E+0	1.992959E+0	2.020901E+0	1.971429E+0	2.038193E+0	1.965878E+0	1.978057E+0	1.921464E+0	1.985724E+0	1.923727E+0	1.936032E+0	1.925130E+0	1.906329E+0	1.962435E+0	1.922574E+0	1.984070E+0	1.968544E+0	1.966376E+0	2.001737E+0	1.938552E+0	2.097709E+0	1.965143E+0	2.035189E+0	1.924714E+0	1.969816E+0	1.980986E+0	1.937052E+0	1.901556E+0	1.967103E+0	1.919914E+0	1.931200E+0	1.915160E+0	1.926233E+0	1.880602E+0	2.004885E+0	1.938048E+0	1.946913E+0	1.948555E+0	1.980896E+0	1.957520E+0	1.981766E+0	1.924514E+0	1.934536E+0	1.916314E+0	1.975939E+0	1.955708E+0	1.905961E+0	1.942921E+0	1.991009E+0	1.917951E+0	1.970587E+0	1.948824E+0	1.923442E+0	1.998689E+0	1.909151E+0	1.882980E+0	2.023953E+0	1.850464E+0	1.974848E+0	1.893247E+0	1.892861E+0	1.902653E+0	1.883371E+0	1.941288E+0	1.923746E+0	1.951095E+0	1.951517E+0	1.934658E+0	1.949451E+0	1.921853E+0	1.997738E+0	1.953633E+0	1.995992E+0	1.952836E+0	1.930157E+0	1.836213E+0	1.870725E+0	2.027425E+0	1.918112E+0	1.916412E+0	1.995620E+0	1.865559E+0	1.872503E+0	1.867073E+0	1.936489E+0	1.895165E+0	1.983042E+0	1.931029E+0	1.947082E+0	1.871211E+0	1.941427E+0	1.921072E+0	1.860610E+0	1.907124E+0	1.907654E+0	1.889168E+0	1.927012E+0	1.853474E+0	1.865741E+0	1.872128E+0	1.972209E+0	1.968928E+0	1.956958E+0	1.862070E+0	1.896262E+0	1.921540E+0	1.950954E+0	1.891653E+0	1.893609E+0	1.907261E+0	1.846490E+0	1.921527E+0	1.896258E+0	1.895624E+0	1.916905E+0	1.806132E+0	1.958797E+0	1.945534E+0	1.922056E+0	1.828979E+0	1.898766E+0	1.899092E+0	1.907975E+0	1.793667E+0	1.830692E+0	1.938553E+0	1.878040E+0	1.955781E+0	1.827664E+0	1.990066E+0	1.897366E+0	1.911281E+0	1.917135E+0	1.872180E+0	1.872335E+0	1.889212E+0	1.931257E+0	1.877721E+0	1.979241E+0	1.870845E+0	1.928036E+0	1.952770E+0	1.830990E+0	1.874876E+0	1.828739E+0	1.793251E+0	1.845738E+0
5.410130E+2	1.751464E+0	1.786814E+0	1.682653E+0	1.735871E+0	1.609188E+0	1.650033E+0	1.678269E+0	1.688807E+0	1.688548E+0	1.717859E+0	1.675920E+0	1.783854E+0	1.767515E+0	1.750782E+0	1.651156E+0	1.704621E+0	1.706441E+0	1.700752E+0	1.732547E+0	1.560381E+0	1.718355E+0	1.664733E+0	1.702868E+0	1.702140E+0	1.648863E+0	1.758496E+0	1.699314E+0	1.734323E+0	1.609306E+0	1.687500E+0	1.676659E+0	1.720901E+0	1.735920E+0	1.682143E+0	1.650428E+0	1.627216E+0	1.698977E+0	1.665390E+0	1.687233E+0	1.703345E+0	1.642133E+0	1.659789E+0	1.673343E+0	1.701755E+0	1.668236E+0	1.686438E+0	1.655239E+0	1.654360E+0	1.661153E+0	1.683738E+0	1.658262E+0	1.708068E+0	1.712889E+0	1.653302E+0	1.667584E+0	1.657740E+0	1.643068E+0	1.692915E+0	1.742501E+0	1.625067E+0	1.782175E+0	1.711034E+0	1.617846E+0	1.647295E+0	1.712115E+0	1.724494E+0	1.676348E+0	1.621721E+0	1.637740E+0	1.670136E+0	1.639575E+0	1.680440E+0	1.642815E+0	1.609021E+0	1.646958E+0	1.733438E+0	1.698764E+0	1.644094E+0	1.595764E+0	1.657232E+0	1.648296E+0	1.656967E+0	1.674829E+0	1.641363E+0	1.625923E+0	1.688780E+0	1.693779E+0	1.719458E+0	1.660592E+0	1.681466E+0	1.642713E+0	1.767665E+0	1.676237E+0	1.717675E+0	1.643445E+0	1.646827E+0	1.676113E+0	1.685957E+0	1.692336E+0	1.702458E+0	1.601337E+0	1.627928E+0	1.641915E+0	1.696894E+0	1.659576E+0	1.686767E+0	1.596822E+0	1.629546E+0	1.671993E+0	1.714024E+0	1.687448E+0	1.672332E+0	1.738006E+0	1.605256E+0	1.606471E+0	1.608645E+0	1.700874E+0	1.662722E+0	1.661792E+0	1.693205E+0	1.676114E+0	1.702114E+0	1.606869E+0	1.713728E+0	1.702956E+0	1.636091E+0	1.633349E+0	1.641882E+0	1.710642E+0	1.628474E+0	1.640094E+0	1.659309E+0	1.630565E+0	1.639750E+0	1.604220E+0	1.672427E+0	1.695001E+0	1.692331E+0	1.593860E+0	1.600870E+0	1.676905E+0	1.566763E+0	1.684309E+0	1.643213E+0	1.729968E+0	1.598567E+0	1.682193E+0	1.652063E+0	1.588710E+0	1.661125E+0	1.625792E+0	1.670683E+0	1.615505E+0	1.622552E+0	1.664589E+0	1.687309E+0	1.696800E+0	1.640389E+0	1.582350E+0	1.658925E+0	1.696732E+0	1.643288E+0	1.679204E+0	1.714652E+0	1.637528E+0	1.557572E+0
5.412690E+2	1.812925E+0	1.781477E+0	1.734784E+0	1.742840E+0	1.695781E+0	1.734778E+0	1.826804E+0	1.795117E+0	1.689531E+0	1.701690E+0	1.727936E+0	1.760959E+0	1.766964E+0	1.749928E+0	1.727346E+0	1.719175E+0	1.717749E+0	1.748664E+0	1.789285E+0	1.796730E+0	1.759221E+0	1.738534E+0	1.739546E+0	1.751837E+0	1.770571E+0	1.711446E+0	1.742578E+0	1.775673E+0	1.678705E+0	1.783731E+0	1.728981E+0	1.742551E+0	1.736501E+0	1.762489E+0	1.730208E+0	1.746909E+0	1.692943E+0	1.723226E+0	1.702807E+0	1.726248E+0	1.765301E+0	1.694282E+0	1.737488E+0	1.777289E+0	1.773783E+0	1.736473E+0	1.720066E+0	1.707159E+0	1.659442E+0	1.758851E+0	1.703937E+0	1.783391E+0	1.719608E+0	1.748519E+0	1.682909E+0	1.791851E+0	1.738283E+0	1.672019E+0	1.717327E+0	1.762305E+0	1.787785E+0	1.713074E+0	1.662674E+0	1.740049E+0	1.687666E+0	1.736270E+0	1.800120E+0	1.753753E+0	1.692368E+0	1.764795E+0	1.698921E+0	1.659702E+0	1.719225E+0	1.707579E+0	1.737437E+0	1.738244E+0	1.754677E+0	1.693126E+0	1.757662E+0	1.707620E+0	1.731231E+0	1.731192E+0	1.706038E+0	1.750828E+0	1.661697E+0	1.754814E+0	1.710249E+0	1.735319E+0	1.719203E+0	1.718615E+0	1.680471E+0	1.718197E+0	1.735126E+0	1.718026E+0	1.727267E+0	1.732917E+0	1.740864E+0	1.663877E+0	1.691338E+0	1.750801E+0	1.655986E+0	1.690585E+0	1.643091E+0	1.719279E+0	1.772831E+0	1.756882E+0	1.737256E+0	1.740011E+0	1.767524E+0	1.728643E+0	1.590405E+0	1.743983E+0	1.776752E+0	1.797751E+0	1.637338E+0	1.712894E+0	1.642094E+0	1.742116E+0	1.653930E+0	1.733436E+0	1.722813E+0	1.755860E+0	1.648672E+0	1.722951E+0	1.726820E+0	1.682297E+0	1.698265E+0	1.735300E+0	1.666401E+0	1.789096E+0	1.662816E+0	1.675081E+0	1.673526E+0	1.653636E+0	1.746146E+0	1.754372E+0	1.712127E+0	1.719882E+0	1.692407E+0	1.687280E+0	1.672411E+0	1.710978E+0	1.650316E+0	1.679338E+0	1.700982E+0	1.670054E+0	1.686619E+0	1.674850E+0	1.734774E+0	1.714966E+0	1.700639E+0	1.683738E+0	1.746378E+0	1.690818E+0	1.684442E+0	1.731844E+0	1.670887E+0	1.702998E+0	1.679787E+0	1.730988E+0	1.747628E+0	1.673167E+0	1.577986E+0	1.634556E+0	1.683269E+0	1.580441E+0
5.415140E+2	1.744015E+0	1.700495E+0	1.657868E+0	1.687181E+0	1.663273E+0	1.663064E+0	1.675090E+0	1.692521E+0	1.682616E+0	1.638323E+0	1.657139E+0	1.660733E+0	1.665313E+0	1.653289E+0	1.679312E+0	1.674998E+0	1.650204E+0	1.607259E+0	1.649384E+0	1.665740E+0	1.662488E+0	1.669516E+0	1.662935E+0	1.733485E+0	1.705740E+0	1.701068E+0	1.697712E+0	1.700874E+0	1.690613E+0	1.661506E+0	1.681020E+0	1.694350E+0	1.683941E+0	1.744296E+0	1.677205E+0	1.722650E+0	1.669846E+0	1.637461E+0	1.677376E+0	1.740728E+0	1.638648E+0	1.706331E+0	1.688755E+0	1.721055E+0	1.692070E+0	1.701092E+0	1.623361E+0	1.688217E+0	1.678850E+0	1.716358E+0	1.585137E+0	1.652442E+0	1.664380E+0	1.623202E+0	1.617948E+0	1.679778E+0	1.658378E+0	1.640657E+0	1.658415E+0	1.708420E+0	1.717408E+0	1.699385E+0	1.612349E+0	1.689162E+0	1.639968E+0	1.638889E+0	1.682023E+0	1.669183E+0	1.642397E+0	1.694077E+0	1.696982E+0	1.640782E+0	1.666479E+0	1.639131E+0	1.687356E+0	1.669322E+0	1.657792E+0	1.585006E+0	1.610774E+0	1.665168E+0	1.623090E+0	1.692891E+0	1.628386E+0	1.614691E+0	1.623550E+0	1.650057E+0	1.650393E+0	1.660698E+0	1.681263E+0	1.679469E+0	1.630036E+0	1.681803E+0	1.657517E+0	1.681831E+0	1.668115E+0	1.651747E+0	1.689508E+0	1.688967E+0	1.608989E+0	1.665866E+0	1.592169E+0	1.648805E+0	1.572684E+0	1.713344E+0	1.626222E+0	1.686261E+0	1.664888E+0	1.647421E+0	1.655797E+0	1.670612E+0	1.609538E+0	1.584353E+0	1.624067E+0	1.611030E+0	1.562749E+0	1.632483E+0	1.686570E+0	1.597460E+0	1.621172E+0	1.689348E+0	1.660534E+0	1.612463E+0	1.613040E+0	1.603488E+0	1.617733E+0	1.643265E+0	1.641875E+0	1.652486E+0	1.657738E+0	1.729305E+0	1.575970E+0	1.599570E+0	1.643304E+0	1.646498E+0	1.593448E+0	1.628238E+0	1.676190E+0	1.601826E+0	1.594781E+0	1.583457E+0	1.688341E+0	1.624279E+0	1.578529E+0	1.624916E+0	1.661305E+0	1.636296E+0	1.656696E+0	1.598792E+0	1.571718E+0	1.644202E+0	1.630393E+0	1.693873E+0	1.560487E+0	1.634543E+0	1.559256E+0	1.720250E+0	1.566456E+0	1.755429E+0	1.675902E+0	1.654945E+0	1.676510E+0	1.635080E+0	1.529616E+0	1.582624E+0	1.551182E+0	1.637495E+0
5.417490E+2	1.653271E+0	1.572544E+0	1.583672E+0	1.536822E+0	1.522294E+0	1.537532E+0	1.583895E+0	1.608431E+0	1.602059E+0	1.585850E+0	1.588416E+0	1.478879E+0	1.529700E+0	1.542092E+0	1.595712E+0	1.520594E+0	1.641045E+0	1.603591E+0	1.551666E+0	1.596119E+0	1.586786E+0	1.585224E+0	1.582386E+0	1.605592E+0	1.613132E+0	1.601592E+0	1.584857E+0	1.577838E+0	1.543770E+0	1.567797E+0	1.585562E+0	1.544778E+0	1.516140E+0	1.524503E+0	1.543223E+0	1.628260E+0	1.570378E+0	1.534461E+0	1.562152E+0	1.560912E+0	1.548016E+0	1.595808E+0	1.573941E+0	1.560881E+0	1.560210E+0	1.547556E+0	1.521401E+0	1.583002E+0	1.571077E+0	1.482704E+0	1.517897E+0	1.516421E+0	1.507870E+0	1.556013E+0	1.525110E+0	1.535975E+0	1.522365E+0	1.590124E+0	1.563341E+0	1.575231E+0	1.593659E+0	1.539932E+0	1.506561E+0	1.563445E+0	1.560740E+0	1.625076E+0	1.471487E+0	1.527421E+0	1.558984E+0	1.562424E+0	1.552059E+0	1.525671E+0	1.657503E+0	1.500592E+0	1.528704E+0	1.592361E+0	1.600589E+0	1.533988E+0	1.483026E+0	1.553103E+0	1.544566E+0	1.645463E+0	1.567436E+0	1.542369E+0	1.522877E+0	1.563873E+0	1.560647E+0	1.531305E+0	1.497959E+0	1.555525E+0	1.434354E+0	1.635405E+0	1.500644E+0	1.497500E+0	1.505744E+0	1.554208E+0	1.584011E+0	1.564598E+0	1.540096E+0	1.601240E+0	1.516982E+0	1.579885E+0	1.480887E+0	1.534022E+0	1.513483E+0	1.510001E+0	1.486416E+0	1.549393E+0	1.535291E+0	1.634343E+0	1.546427E+0	1.575553E+0	1.550393E+0	1.537141E+0	1.478948E+0	1.617755E+0	1.527312E+0	1.529341E+0	1.503710E+0	1.549414E+0	1.582808E+0	1.523299E+0	1.485254E+0	1.536598E+0	1.478611E+0	1.495095E+0	1.567072E+0	1.540883E+0	1.547900E+0	1.532871E+0	1.480291E+0	1.532163E+0	1.526938E+0	1.548104E+0	1.542763E+0	1.512169E+0	1.542719E+0	1.502600E+0	1.550168E+0	1.561371E+0	1.601344E+0	1.556739E+0	1.580912E+0	1.560952E+0	1.549556E+0	1.606583E+0	1.578661E+0	1.486715E+0	1.505476E+0	1.556869E+0	1.578468E+0	1.592405E+0	1.487398E+0	1.534997E+0	1.510747E+0	1.554025E+0	1.554639E+0	1.525341E+0	1.475798E+0	1.624812E+0	1.587213E+0	1.529122E+0	1.437008E+0	1.446519E+0	1.483363E+0	1.438834E+0
5.420320E+2	1.478476E+0	1.483926E+0	1.479082E+0	1.462392E+0	1.455201E+0	1.431957E+0	1.517838E+0	1.461829E+0	1.466632E+0	1.448284E+0	1.494141E+0	1.442063E+0	1.466717E+0	1.494097E+0	1.462441E+0	1.427102E+0	1.505698E+0	1.506865E+0	1.475331E+0	1.471659E+0	1.469854E+0	1.455709E+0	1.395157E+0	1.428405E+0	1.505864E+0	1.467934E+0	1.453539E+0	1.456530E+0	1.469663E+0	1.452793E+0	1.514703E+0	1.469541E+0	1.471561E+0	1.442620E+0	1.393155E+0	1.467370E+0	1.470240E+0	1.468901E+0	1.418691E+0	1.463554E+0	1.403774E+0	1.442152E+0	1.461297E+0	1.494946E+0	1.483539E+0	1.455000E+0	1.431879E+0	1.421384E+0	1.483778E+0	1.460410E+0	1.448655E+0	1.409425E+0	1.417362E+0	1.465448E+0	1.461852E+0	1.435223E+0	1.485172E+0	1.435245E+0	1.480092E+0	1.499594E+0	1.512299E+0	1.497127E+0	1.428560E+0	1.448966E+0	1.397629E+0	1.543633E+0	1.457004E+0	1.422951E+0	1.473598E+0	1.498431E+0	1.489283E+0	1.535938E+0	1.456220E+0	1.364649E+0	1.330394E+0	1.510662E+0	1.460999E+0	1.470845E+0	1.399833E+0	1.450498E+0	1.441699E+0	1.445932E+0	1.454583E+0	1.513438E+0	1.496631E+0	1.463968E+0	1.400812E+0	1.499803E+0	1.441347E+0	1.476120E+0	1.447962E+0	1.485142E+0	1.412267E+0	1.459010E+0	1.407661E+0	1.426271E+0	1.469866E+0	1.431522E+0	1.468443E+0	1.457269E+0	1.423702E+0	1.395226E+0	1.354462E+0	1.432176E+0	1.458721E+0	1.493012E+0	1.429566E+0	1.437804E+0	1.474393E+0	1.410495E+0	1.439518E+0	1.464175E+0	1.497661E+0	1.487566E+0	1.429051E+0	1.409186E+0	1.518717E+0	1.472614E+0	1.482870E+0	1.527432E+0	1.449403E+0	1.450155E+0	1.419862E+0	1.416986E+0	1.474875E+0	1.420623E+0	1.439087E+0	1.474524E+0	1.522609E+0	1.434053E+0	1.444985E+0	1.441877E+0	1.443548E+0	1.485002E+0	1.469365E+0	1.533340E+0	1.490909E+0	1.500238E+0	1.425954E+0	1.499200E+0	1.443652E+0	1.474048E+0	1.414861E+0	1.380618E+0	1.454593E+0	1.436212E+0	1.445938E+0	1.434246E+0	1.440986E+0	1.455088E+0	1.473843E+0	1.424005E+0	1.444902E+0	1.420344E+0	1.433068E+0	1.429919E+0	1.437886E+0	1.535128E+0	1.323882E+0	1.490010E+0	1.538230E+0	1.430519E+0	1.340575E+0	1.488589E+0	1.409945E+0	1.452160E+0
5.422780E+2	1.234408E+0	1.269678E+0	1.212611E+0	1.143735E+0	1.211323E+0	1.253691E+0	1.206766E+0	1.204955E+0	1.241005E+0	1.256962E+0	1.222873E+0	1.275385E+0	1.231115E+0	1.210955E+0	1.201313E+0	1.204693E+0	1.206082E+0	1.233900E+0	1.209819E+0	1.162768E+0	1.193834E+0	1.200945E+0	1.203594E+0	1.252879E+0	1.177712E+0	1.233749E+0	1.224631E+0	1.224124E+0	1.188117E+0	1.276574E+0	1.225248E+0	1.151376E+0	1.199152E+0	1.203376E+0	1.270199E+0	1.178096E+0	1.244711E+0	1.187004E+0	1.162965E+0	1.241809E+0	1.194766E+0	1.195009E+0	1.240308E+0	1.156840E+0	1.326978E+0	1.259355E+0	1.177871E+0	1.177338E+0	1.228813E+0	1.241651E+0	1.203641E+0	1.202359E+0	1.227652E+0	1.205681E+0	1.189787E+0	1.208736E+0	1.232292E+0	1.191642E+0	1.220651E+0	1.187531E+0	1.259746E+0	1.204871E+0	1.144896E+0	1.266775E+0	1.251946E+0	1.264009E+0	1.250371E+0	1.283051E+0	1.188663E+0	1.235677E+0	1.231393E+0	1.213590E+0	1.164780E+0	1.154253E+0	1.216498E+0	1.257046E+0	1.234062E+0	1.207920E+0	1.211138E+0	1.243632E+0	1.197205E+0	1.222444E+0	1.225993E+0	1.185848E+0	1.205982E+0	1.234818E+0	1.185534E+0	1.221618E+0	1.227354E+0	1.161531E+0	1.183252E+0	1.275425E+0	1.264579E+0	1.303822E+0	1.190015E+0	1.200527E+0	1.186302E+0	1.185146E+0	1.185010E+0	1.252649E+0	1.231876E+0	1.171586E+0	1.199135E+0	1.255353E+0	1.184793E+0	1.266919E+0	1.195106E+0	1.234900E+0	1.188374E+0	1.212086E+0	1.186064E+0	1.274558E+0	1.199321E+0	1.132565E+0	1.186786E+0	1.228294E+0	1.174062E+0	1.193264E+0	1.186591E+0	1.213807E+0	1.197856E+0	1.273285E+0	1.193966E+0	1.234455E+0	1.176781E+0	1.181857E+0	1.205027E+0	1.171801E+0	1.207938E+0	1.220778E+0	1.202587E+0	1.217083E+0	1.167487E+0	1.222963E+0	1.228466E+0	1.224897E+0	1.174903E+0	1.198135E+0	1.168961E+0	1.220659E+0	1.209727E+0	1.236518E+0	1.151284E+0	1.175963E+0	1.174701E+0	1.285119E+0	1.124780E+0	1.215932E+0	1.243672E+0	1.186990E+0	1.244711E+0	1.176635E+0	1.193202E+0	1.226839E+0	1.175054E+0	1.188048E+0	1.173664E+0	1.201415E+0	1.153806E+0	1.181430E+0	1.219427E+0	1.217334E+0	1.211874E+0	1.218491E+0	1.120710E+0	1.225373E+0
5.425240E+2	1.087420E+0	1.105283E+0	1.137931E+0	1.113845E+0	1.098285E+0	1.135110E+0	1.137897E+0	1.106802E+0	1.222251E+0	1.043053E+0	1.135215E+0	1.122387E+0	1.109395E+0	1.130894E+0	1.049210E+0	1.126406E+0	1.133197E+0	1.085450E+0	1.096454E+0	1.083511E+0	1.147228E+0	1.117459E+0	1.074864E+0	1.097984E+0	1.134923E+0	1.133637E+0	1.105656E+0	1.075742E+0	1.132933E+0	1.127393E+0	1.161022E+0	1.110379E+0	1.128789E+0	1.137818E+0	1.095213E+0	1.104818E+0	1.100826E+0	1.099433E+0	1.098215E+0	1.129925E+0	1.078984E+0	1.104264E+0	1.119939E+0	1.119218E+0	1.119706E+0	1.161292E+0	1.098092E+0	1.151245E+0	1.105800E+0	1.088904E+0	1.075720E+0	1.086309E+0	1.030457E+0	1.082448E+0	1.093244E+0	1.078661E+0	1.102447E+0	1.095270E+0	1.093640E+0	1.134727E+0	1.127761E+0	1.089044E+0	1.071301E+0	1.081298E+0	1.104497E+0	1.086888E+0	1.150496E+0	1.111073E+0	1.112239E+0	1.104332E+0	1.108875E+0	1.125461E+0	1.102122E+0	1.094558E+0	1.083581E+0	1.132384E+0	1.150171E+0	1.101738E+0	1.075803E+0	1.112627E+0	1.146674E+0	1.132522E+0	1.083329E+0	1.084655E+0	1.101407E+0	1.060729E+0	1.104116E+0	1.147053E+0	1.135254E+0	1.091628E+0	1.122123E+0	1.109652E+0	1.103774E+0	1.076296E+0	1.130778E+0	1.073873E+0	1.177220E+0	1.134084E+0	1.127931E+0	1.132821E+0	1.114011E+0	1.081088E+0	1.104453E+0	1.097081E+0	1.100115E+0	1.126806E+0	1.122881E+0	1.126139E+0	1.053863E+0	1.096324E+0	1.093939E+0	1.079588E+0	1.081214E+0	1.222458E+0	1.092877E+0	1.124010E+0	1.107165E+0	1.089504E+0	1.111646E+0	1.104245E+0	1.083294E+0	1.111290E+0	1.090539E+0	1.179123E+0	1.145208E+0	1.068350E+0	1.112792E+0	1.203920E+0	1.131171E+0	1.128005E+0	1.108128E+0	1.124399E+0	1.126594E+0	1.091437E+0	1.094763E+0	1.073492E+0	1.182676E+0	1.158339E+0	1.087003E+0	1.118628E+0	1.125459E+0	1.112293E+0	1.087653E+0	1.072545E+0	1.098515E+0	1.108128E+0	1.110540E+0	1.132915E+0	1.096989E+0	1.095141E+0	1.126245E+0	1.105339E+0	1.104783E+0	1.101616E+0	1.076632E+0	1.094437E+0	1.121745E+0	1.143827E+0	1.085874E+0	1.145658E+0	1.081801E+0	1.129424E+0	1.131995E+0	1.124164E+0	1.107079E+0	1.043899E+0
5.427870E+2	9.504606E-1	9.802898E-1	1.003136E+0	9.589163E-1	1.026023E+0	1.002014E+0	1.026743E+0	9.809938E-1	9.948774E-1	9.529012E-1	1.025416E+0	9.978573E-1	1.041140E+0	1.028001E+0	9.651518E-1	9.795049E-1	1.025770E+0	1.051061E+0	1.025973E+0	1.029934E+0	1.033925E+0	9.964931E-1	9.856444E-1	9.619409E-1	1.033885E+0	9.973799E-1	9.726097E-1	1.049107E+0	1.027904E+0	1.038432E+0	9.812311E-1	9.660931E-1	9.597768E-1	1.013606E+0	9.759237E-1	9.521626E-1	9.744430E-1	9.660421E-1	9.087680E-1	1.002473E+0	1.009662E+0	1.020463E+0	9.826068E-1	9.813515E-1	9.988149E-1	1.007841E+0	9.466386E-1	9.922750E-1	1.008976E+0	9.839280E-1	9.632788E-1	1.014109E+0	1.002414E+0	1.044223E+0	1.001307E+0	9.925003E-1	9.996572E-1	1.013165E+0	9.684191E-1	1.006147E+0	1.014961E+0	1.019718E+0	9.812388E-1	1.016317E+0	1.008643E+0	9.894842E-1	1.028950E+0	1.008093E+0	9.891231E-1	9.794312E-1	9.955181E-1	1.003337E+0	9.792050E-1	9.949675E-1	9.915579E-1	9.615614E-1	1.018320E+0	9.696595E-1	9.494195E-1	9.686977E-1	1.007642E+0	9.711930E-1	9.569629E-1	9.717679E-1	9.898456E-1	1.005628E+0	9.842252E-1	9.858527E-1	1.036215E+0	9.938555E-1	1.037479E+0	9.904017E-1	1.036160E+0	1.005259E+0	9.848600E-1	9.931354E-1	9.980908E-1	9.827178E-1	9.776448E-1	1.061093E+0	1.018401E+0	1.013526E+0	9.504389E-1	1.057025E+0	9.855995E-1	1.010809E+0	1.000811E+0	1.091370E+0	9.831632E-1	9.284641E-1	1.039587E+0	1.025728E+0	9.698774E-1	1.014593E+0	9.999374E-1	9.930330E-1	9.687060E-1	1.030739E+0	9.829752E-1	1.003928E+0	9.749655E-1	1.072234E+0	9.555207E-1	9.992011E-1	9.957226E-1	1.020001E+0	9.638166E-1	9.996987E-1	1.023630E+0	9.331511E-1	9.525012E-1	9.802997E-1	9.741277E-1	9.986247E-1	1.006083E+0	9.868066E-1	1.003403E+0	9.937589E-1	9.723200E-1	1.025761E+0	1.045440E+0	9.697923E-1	9.867585E-1	1.022599E+0	1.002494E+0	1.029680E+0	9.681926E-1	1.036419E+0	1.009462E+0	9.960692E-1	1.021227E+0	1.003795E+0	9.455101E-1	9.951056E-1	1.030186E+0	1.019633E+0	1.043782E+0	1.000943E+0	9.744056E-1	9.785517E-1	1.042067E+0	9.966192E-1	9.714162E-1	9.838982E-1	8.994275E-1	1.004927E+0
5.430170E+2	9.866346E-1	9.582803E-1	9.500719E-1	9.987307E-1	9.801230E-1	9.754657E-1	9.536175E-1	9.787870E-1	9.133577E-1	9.197438E-1	9.756431E-1	9.333320E-1	1.020067E+0	9.505070E-1	9.309457E-1	9.340073E-1	9.387070E-1	9.491315E-1	9.099097E-1	9.506274E-1	9.506638E-1	9.237688E-1	9.328877E-1	9.562579E-1	1.011656E+0	9.970440E-1	9.710382E-1	9.367450E-1	9.598669E-1	9.821373E-1	1.007714E+0	9.123526E-1	9.144662E-1	9.925917E-1	9.743663E-1	9.265206E-1	9.684251E-1	9.153958E-1	9.681261E-1	9.149094E-1	9.272533E-1	1.000977E+0	9.381421E-1	9.598217E-1	9.954409E-1	9.844504E-1	9.859351E-1	9.423496E-1	9.348030E-1	9.740422E-1	9.256339E-1	9.068159E-1	9.563996E-1	9.604756E-1	8.878542E-1	9.246693E-1	9.645482E-1	9.600260E-1	9.510990E-1	9.515460E-1	9.997484E-1	9.370166E-1	9.262220E-1	9.958525E-1	9.347695E-1	9.772086E-1	9.282711E-1	9.738479E-1	9.371148E-1	9.677559E-1	9.335273E-1	9.687998E-1	9.686925E-1	8.736117E-1	9.463084E-1	9.857472E-1	9.797208E-1	9.533007E-1	8.984534E-1	9.556823E-1	9.597906E-1	9.804351E-1	9.264110E-1	9.012050E-1	9.091692E-1	9.540277E-1	9.449605E-1	9.528494E-1	9.971943E-1	9.400644E-1	9.348268E-1	9.333736E-1	1.007425E+0	9.385960E-1	9.124121E-1	9.237335E-1	9.752591E-1	9.592186E-1	9.304483E-1	9.439483E-1	9.326059E-1	9.529959E-1	9.441364E-1	9.508798E-1	9.991331E-1	9.547034E-1	9.480325E-1	9.086704E-1	9.614884E-1	9.949844E-1	9.347538E-1	9.910208E-1	1.015343E+0	9.758552E-1	9.543421E-1	9.343804E-1	9.577697E-1	9.379902E-1	9.735160E-1	9.375437E-1	9.637167E-1	9.906345E-1	9.278716E-1	1.010229E+0	9.522097E-1	9.211099E-1	9.723817E-1	9.551805E-1	9.602298E-1	9.005519E-1	9.496242E-1	9.444092E-1	9.801526E-1	9.497550E-1	9.748525E-1	9.951214E-1	9.631761E-1	9.511173E-1	9.442596E-1	9.599817E-1	1.005447E+0	9.738696E-1	8.804968E-1	9.539630E-1	9.616937E-1	9.903474E-1	9.131104E-1	9.527043E-1	9.919748E-1	9.434974E-1	9.759435E-1	9.051109E-1	9.313291E-1	9.846185E-1	9.714428E-1	9.683396E-1	9.613720E-1	9.440185E-1	9.166672E-1	9.147039E-1	9.976764E-1	9.302589E-1	9.768609E-1	8.876234E-1	9.677446E-1	9.120877E-1
5.432700E+2	1.080961E+0	1.069529E+0	1.070932E+0	1.034966E+0	1.042926E+0	1.015659E+0	9.953027E-1	1.046747E+0	1.019815E+0	1.049959E+0	1.100144E+0	9.790108E-1	1.071576E+0	1.001955E+0	1.069967E+0	1.034252E+0	1.074364E+0	1.044622E+0	1.013884E+0	9.889200E-1	1.059629E+0	1.060880E+0	1.009341E+0	1.014144E+0	1.055903E+0	1.054917E+0	1.067060E+0	1.048007E+0	1.019998E+0	1.041221E+0	1.025357E+0	1.052161E+0	1.060694E+0	1.040756E+0	1.050907E+0	9.789944E-1	1.041839E+0	1.033587E+0	1.026787E+0	1.008786E+0	1.100427E+0	1.079903E+0	1.065296E+0	1.065226E+0	1.074607E+0	1.099745E+0	9.881727E-1	1.034028E+0	1.046662E+0	1.025186E+0	9.773137E-1	1.021946E+0	1.014582E+0	1.054271E+0	1.054441E+0	1.013056E+0	1.089317E+0	1.040345E+0	1.022070E+0	1.062184E+0	1.106172E+0	1.024380E+0	1.042717E+0	1.014357E+0	1.030519E+0	1.042823E+0	1.041513E+0	9.964280E-1	1.055595E+0	1.093280E+0	1.048472E+0	1.012122E+0	1.007827E+0	1.052160E+0	1.064300E+0	1.090751E+0	1.089218E+0	1.045600E+0	1.031817E+0	1.039380E+0	1.043127E+0	1.042872E+0	1.044078E+0	1.000144E+0	1.037101E+0	9.953905E-1	1.100461E+0	9.982314E-1	1.037162E+0	1.046107E+0	1.003064E+0	1.028655E+0	1.011899E+0	1.007237E+0	1.058503E+0	1.036027E+0	1.081432E+0	9.919578E-1	9.976976E-1	1.071053E+0	1.063226E+0	1.026794E+0	1.021606E+0	1.068430E+0	1.038651E+0	1.131039E+0	1.034930E+0	1.004355E+0	1.066583E+0	1.094225E+0	1.034339E+0	1.043101E+0	1.081067E+0	1.063793E+0	1.013647E+0	1.035146E+0	1.051812E+0	9.750793E-1	1.034102E+0	1.052128E+0	1.021055E+0	1.084271E+0	1.057631E+0	1.023567E+0	1.041634E+0	1.022529E+0	1.024968E+0	9.988937E-1	1.029386E+0	1.095845E+0	1.039440E+0	9.853093E-1	1.096374E+0	1.027676E+0	1.041626E+0	1.094758E+0	1.091658E+0	1.059976E+0	1.006732E+0	1.043797E+0	1.095148E+0	1.108501E+0	1.051404E+0	1.014528E+0	9.999196E-1	1.100178E+0	1.077777E+0	1.031695E+0	1.040407E+0	9.526830E-1	1.045587E+0	1.036623E+0	1.067795E+0	1.036881E+0	1.069442E+0	1.078814E+0	1.033170E+0	1.040692E+0	9.752175E-1	1.054487E+0	1.046209E+0	9.747604E-1	1.018890E+0	9.790941E-1	1.010949E+0	1.065655E+0
5.435110E+2	1.201952E+0	1.127676E+0	1.156271E+0	1.117868E+0	1.143880E+0	1.127721E+0	1.137153E+0	1.133878E+0	1.180109E+0	1.145354E+0	1.147181E+0	1.108937E+0	1.162377E+0	1.156740E+0	1.131767E+0	1.157924E+0	1.147646E+0	1.115493E+0	1.086118E+0	1.131891E+0	1.139133E+0	1.140176E+0	1.119391E+0	1.155929E+0	1.189355E+0	1.100020E+0	1.088711E+0	1.087474E+0	1.067646E+0	1.134183E+0	1.134592E+0	1.098345E+0	1.156409E+0	1.082745E+0	1.131791E+0	1.123770E+0	1.118711E+0	1.140836E+0	1.118957E+0	1.116624E+0	1.093299E+0	1.164133E+0	1.116929E+0	1.110542E+0	1.190941E+0	1.146029E+0	1.096850E+0	1.066404E+0	1.113031E+0	1.153425E+0	1.138328E+0	1.121274E+0	1.106906E+0	1.152520E+0	1.142375E+0	1.099990E+0	1.109870E+0	1.154696E+0	1.197587E+0	1.159053E+0	1.185674E+0	1.160296E+0	1.071666E+0	1.138886E+0	1.118788E+0	1.187055E+0	1.114149E+0	1.125567E+0	1.123121E+0	1.219930E+0	1.160142E+0	1.079514E+0	1.123499E+0	1.114087E+0	1.098014E+0	1.122596E+0	1.170430E+0	1.102095E+0	1.136772E+0	1.137928E+0	1.114171E+0	1.100923E+0	1.126803E+0	1.108829E+0	1.108234E+0	1.138562E+0	1.129933E+0	1.161674E+0	1.133984E+0	1.137503E+0	1.179065E+0	1.105411E+0	1.178474E+0	1.137756E+0	1.153379E+0	1.115403E+0	1.159926E+0	1.144200E+0	1.116487E+0	1.150900E+0	1.155868E+0	1.185460E+0	1.124913E+0	1.149961E+0	1.118537E+0	1.133343E+0	1.102000E+0	1.108087E+0	1.159430E+0	1.148944E+0	1.163270E+0	1.130370E+0	1.132286E+0	1.093907E+0	1.088150E+0	1.151417E+0	1.160298E+0	1.101411E+0	1.158267E+0	1.092968E+0	1.163177E+0	1.142656E+0	1.129435E+0	1.157260E+0	1.143180E+0	1.134233E+0	1.096242E+0	1.149007E+0	1.126721E+0	1.109501E+0	1.162580E+0	1.107998E+0	1.079352E+0	1.133064E+0	1.144541E+0	1.120919E+0	1.143521E+0	1.122683E+0	1.105824E+0	1.077234E+0	1.132851E+0	1.117800E+0	1.085393E+0	1.115492E+0	1.092762E+0	1.135526E+0	1.133285E+0	1.108481E+0	1.088574E+0	1.175106E+0	1.122430E+0	1.114046E+0	1.101057E+0	1.096157E+0	1.076432E+0	1.195906E+0	1.156908E+0	1.164056E+0	1.120793E+0	1.132844E+0	1.090369E+0	1.179401E+0	1.112131E+0	1.077945E+0	1.128349E+0	1.132321E+0
5.437750E+2	1.440506E+0	1.360774E+0	1.404909E+0	1.368306E+0	1.336811E+0	1.370751E+0	1.384550E+0	1.353024E+0	1.310504E+0	1.274058E+0	1.382226E+0	1.356767E+0	1.422738E+0	1.410144E+0	1.393003E+0	1.428612E+0	1.400994E+0	1.391289E+0	1.418369E+0	1.377339E+0	1.388295E+0	1.392704E+0	1.336931E+0	1.391426E+0	1.414890E+0	1.411865E+0	1.392947E+0	1.343885E+0	1.377613E+0	1.411230E+0	1.360212E+0	1.331880E+0	1.390437E+0	1.353864E+0	1.381409E+0	1.372605E+0	1.378371E+0	1.301531E+0	1.321016E+0	1.332641E+0	1.391616E+0	1.346116E+0	1.392758E+0	1.350359E+0	1.409286E+0	1.369918E+0	1.391422E+0	1.346959E+0	1.347757E+0	1.402427E+0	1.346644E+0	1.341437E+0	1.358663E+0	1.373307E+0	1.410013E+0	1.392240E+0	1.455131E+0	1.326114E+0	1.380643E+0	1.338253E+0	1.451764E+0	1.350645E+0	1.308745E+0	1.312368E+0	1.384531E+0	1.380266E+0	1.318709E+0	1.410465E+0	1.376157E+0	1.444216E+0	1.346897E+0	1.349526E+0	1.404966E+0	1.311664E+0	1.366418E+0	1.365802E+0	1.431036E+0	1.340115E+0	1.329749E+0	1.405473E+0	1.348909E+0	1.344587E+0	1.382210E+0	1.312296E+0	1.352716E+0	1.362381E+0	1.321065E+0	1.410143E+0	1.414157E+0	1.355298E+0	1.384473E+0	1.326179E+0	1.345624E+0	1.406721E+0	1.327468E+0	1.342051E+0	1.326788E+0	1.350947E+0	1.352277E+0	1.415545E+0	1.343211E+0	1.331956E+0	1.321468E+0	1.324223E+0	1.338228E+0	1.349377E+0	1.301929E+0	1.385408E+0	1.379700E+0	1.349811E+0	1.349707E+0	1.329876E+0	1.378384E+0	1.357473E+0	1.364400E+0	1.372367E+0	1.390454E+0	1.319180E+0	1.313948E+0	1.330956E+0	1.388360E+0	1.400060E+0	1.311942E+0	1.390579E+0	1.350809E+0	1.371045E+0	1.315414E+0	1.363081E+0	1.354884E+0	1.403108E+0	1.326314E+0	1.390027E+0	1.393304E+0	1.379395E+0	1.345070E+0	1.370492E+0	1.414318E+0	1.337805E+0	1.297368E+0	1.316599E+0	1.339001E+0	1.401569E+0	1.346036E+0	1.283750E+0	1.408496E+0	1.372354E+0	1.361620E+0	1.398522E+0	1.346277E+0	1.410853E+0	1.344396E+0	1.273804E+0	1.385054E+0	1.366184E+0	1.358187E+0	1.346889E+0	1.361792E+0	1.301224E+0	1.377628E+0	1.372922E+0	1.381256E+0	1.374381E+0	1.250307E+0	1.292137E+0	1.305510E+0	1.347913E+0
5.440170E+2	1.567796E+0	1.503059E+0	1.494745E+0	1.507895E+0	1.486887E+0	1.439928E+0	1.503018E+0	1.512765E+0	1.498723E+0	1.511972E+0	1.529596E+0	1.433769E+0	1.503674E+0	1.536023E+0	1.462186E+0	1.467043E+0	1.504850E+0	1.531892E+0	1.511122E+0	1.433721E+0	1.476533E+0	1.490254E+0	1.442827E+0	1.508547E+0	1.557078E+0	1.520263E+0	1.501662E+0	1.444069E+0	1.511316E+0	1.473485E+0	1.504076E+0	1.425392E+0	1.500951E+0	1.524661E+0	1.465778E+0	1.522247E+0	1.467389E+0	1.449230E+0	1.524660E+0	1.523721E+0	1.434756E+0	1.521795E+0	1.467680E+0	1.511873E+0	1.567311E+0	1.512603E+0	1.498197E+0	1.477633E+0	1.452827E+0	1.492635E+0	1.481455E+0	1.429270E+0	1.511197E+0	1.484388E+0	1.490511E+0	1.428763E+0	1.483592E+0	1.504110E+0	1.508654E+0	1.481938E+0	1.575799E+0	1.502749E+0	1.473657E+0	1.467097E+0	1.484349E+0	1.537784E+0	1.506238E+0	1.488793E+0	1.469311E+0	1.522235E+0	1.503465E+0	1.411642E+0	1.510027E+0	1.449409E+0	1.435022E+0	1.450810E+0	1.493440E+0	1.468062E+0	1.453144E+0	1.455688E+0	1.491240E+0	1.483265E+0	1.436968E+0	1.458457E+0	1.404244E+0	1.497026E+0	1.485895E+0	1.541054E+0	1.439296E+0	1.521719E+0	1.481991E+0	1.460033E+0	1.522859E+0	1.510370E+0	1.434866E+0	1.442322E+0	1.479832E+0	1.478244E+0	1.443204E+0	1.501398E+0	1.445353E+0	1.500559E+0	1.455774E+0	1.489246E+0	1.468872E+0	1.487498E+0	1.461763E+0	1.403413E+0	1.464143E+0	1.481949E+0	1.457463E+0	1.482399E+0	1.486838E+0	1.453436E+0	1.446292E+0	1.454242E+0	1.477846E+0	1.448332E+0	1.445225E+0	1.459586E+0	1.451041E+0	1.512926E+0	1.461666E+0	1.476217E+0	1.491341E+0	1.551429E+0	1.501492E+0	1.490409E+0	1.462420E+0	1.501371E+0	1.409482E+0	1.452296E+0	1.492641E+0	1.461061E+0	1.449837E+0	1.463606E+0	1.558532E+0	1.580450E+0	1.412232E+0	1.419252E+0	1.545996E+0	1.459265E+0	1.434642E+0	1.433723E+0	1.495692E+0	1.497546E+0	1.480524E+0	1.443332E+0	1.561942E+0	1.469859E+0	1.493893E+0	1.431392E+0	1.487775E+0	1.480165E+0	1.514308E+0	1.446694E+0	1.422416E+0	1.518162E+0	1.424998E+0	1.488062E+0	1.521392E+0	1.473159E+0	1.480911E+0	1.538569E+0	1.459905E+0	1.412997E+0
5.442700E+2	1.659846E+0	1.571904E+0	1.609831E+0	1.539886E+0	1.604847E+0	1.583667E+0	1.506582E+0	1.603930E+0	1.620157E+0	1.550179E+0	1.572015E+0	1.538506E+0	1.617074E+0	1.607507E+0	1.518997E+0	1.556504E+0	1.599551E+0	1.528120E+0	1.610248E+0	1.567335E+0	1.567240E+0	1.506659E+0	1.531268E+0	1.583801E+0	1.697895E+0	1.579223E+0	1.600992E+0	1.616736E+0	1.603965E+0	1.640914E+0	1.580336E+0	1.539607E+0	1.546146E+0	1.553194E+0	1.605385E+0	1.575662E+0	1.548954E+0	1.571258E+0	1.559540E+0	1.535168E+0	1.588519E+0	1.669124E+0	1.538604E+0	1.532768E+0	1.647855E+0	1.583870E+0	1.512188E+0	1.555513E+0	1.634305E+0	1.572231E+0	1.554863E+0	1.579209E+0	1.561135E+0	1.610225E+0	1.555048E+0	1.538598E+0	1.579671E+0	1.544014E+0	1.616420E+0	1.582609E+0	1.598009E+0	1.603770E+0	1.534965E+0	1.559307E+0	1.620666E+0	1.567437E+0	1.493338E+0	1.535263E+0	1.573788E+0	1.634760E+0	1.546916E+0	1.537287E+0	1.609126E+0	1.520184E+0	1.524818E+0	1.563017E+0	1.593637E+0	1.562912E+0	1.510362E+0	1.544826E+0	1.580250E+0	1.582731E+0	1.577240E+0	1.567220E+0	1.519769E+0	1.560275E+0	1.561274E+0	1.609556E+0	1.566998E+0	1.535457E+0	1.590266E+0	1.531496E+0	1.554114E+0	1.531325E+0	1.508180E+0	1.539650E+0	1.590091E+0	1.571835E+0	1.537003E+0	1.577296E+0	1.550916E+0	1.531483E+0	1.485406E+0	1.554133E+0	1.559585E+0	1.622170E+0	1.566835E+0	1.519412E+0	1.594847E+0	1.534431E+0	1.555239E+0	1.542719E+0	1.589870E+0	1.641828E+0	1.544763E+0	1.590714E+0	1.597666E+0	1.550066E+0	1.496062E+0	1.560323E+0	1.597135E+0	1.549305E+0	1.564570E+0	1.520014E+0	1.588956E+0	1.570656E+0	1.505054E+0	1.535001E+0	1.562554E+0	1.585910E+0	1.476865E+0	1.514941E+0	1.528030E+0	1.571173E+0	1.556767E+0	1.536210E+0	1.590783E+0	1.599707E+0	1.521674E+0	1.536912E+0	1.565012E+0	1.558615E+0	1.532162E+0	1.484331E+0	1.545408E+0	1.558595E+0	1.504287E+0	1.442207E+0	1.551303E+0	1.489663E+0	1.564730E+0	1.513123E+0	1.566409E+0	1.442263E+0	1.554058E+0	1.518783E+0	1.620892E+0	1.598346E+0	1.497797E+0	1.596335E+0	1.601255E+0	1.547448E+0	1.572908E+0	1.526341E+0	1.644266E+0	1.583212E+0
5.445180E+2	1.649087E+0	1.806646E+0	1.632461E+0	1.650271E+0	1.591882E+0	1.677020E+0	1.650244E+0	1.709958E+0	1.643586E+0	1.577378E+0	1.665006E+0	1.587320E+0	1.753467E+0	1.663510E+0	1.667769E+0	1.684871E+0	1.699782E+0	1.684546E+0	1.666816E+0	1.604594E+0	1.654358E+0	1.637264E+0	1.580823E+0	1.662305E+0	1.724882E+0	1.601830E+0	1.653547E+0	1.587376E+0	1.652040E+0	1.677856E+0	1.676019E+0	1.642901E+0	1.628284E+0	1.640293E+0	1.642116E+0	1.610070E+0	1.671108E+0	1.726702E+0	1.666326E+0	1.698058E+0	1.652565E+0	1.728915E+0	1.637174E+0	1.644186E+0	1.681943E+0	1.687483E+0	1.668537E+0	1.604711E+0	1.761177E+0	1.712220E+0	1.619606E+0	1.610817E+0	1.631683E+0	1.662931E+0	1.621612E+0	1.635629E+0	1.693471E+0	1.683235E+0	1.654711E+0	1.647820E+0	1.693804E+0	1.628881E+0	1.633992E+0	1.639343E+0	1.671088E+0	1.690058E+0	1.726783E+0	1.639962E+0	1.663449E+0	1.646743E+0	1.603204E+0	1.655078E+0	1.657622E+0	1.647167E+0	1.550034E+0	1.644508E+0	1.685670E+0	1.642044E+0	1.590189E+0	1.586819E+0	1.627548E+0	1.627256E+0	1.656795E+0	1.618823E+0	1.616597E+0	1.620635E+0	1.643352E+0	1.633156E+0	1.670603E+0	1.606338E+0	1.611830E+0	1.598786E+0	1.675914E+0	1.684630E+0	1.606497E+0	1.575459E+0	1.680590E+0	1.619602E+0	1.652778E+0	1.682205E+0	1.553627E+0	1.616550E+0	1.557401E+0	1.621952E+0	1.590885E+0	1.682265E+0	1.639425E+0	1.622979E+0	1.580748E+0	1.608328E+0	1.616252E+0	1.606306E+0	1.686718E+0	1.657721E+0	1.551853E+0	1.682121E+0	1.662952E+0	1.608007E+0	1.578889E+0	1.589560E+0	1.656509E+0	1.639078E+0	1.566243E+0	1.612099E+0	1.665446E+0	1.628178E+0	1.600212E+0	1.652986E+0	1.580776E+0	1.578361E+0	1.636726E+0	1.586608E+0	1.630824E+0	1.645457E+0	1.639779E+0	1.641829E+0	1.683381E+0	1.694597E+0	1.579437E+0	1.633590E+0	1.671042E+0	1.673397E+0	1.575502E+0	1.598111E+0	1.629619E+0	1.604733E+0	1.648918E+0	1.579147E+0	1.695793E+0	1.585668E+0	1.656536E+0	1.590617E+0	1.617055E+0	1.568230E+0	1.596779E+0	1.608880E+0	1.631230E+0	1.657427E+0	1.581459E+0	1.656841E+0	1.664011E+0	1.627184E+0	1.549379E+0	1.541662E+0	1.630783E+0	1.562600E+0
5.447610E+2	1.574454E+0	1.539253E+0	1.582267E+0	1.533070E+0	1.568303E+0	1.514717E+0	1.514874E+0	1.550130E+0	1.528550E+0	1.583948E+0	1.598438E+0	1.480625E+0	1.541755E+0	1.502909E+0	1.491338E+0	1.517300E+0	1.520867E+0	1.590401E+0	1.577691E+0	1.553215E+0	1.574520E+0	1.594997E+0	1.540470E+0	1.490308E+0	1.554742E+0	1.594651E+0	1.607526E+0	1.487495E+0	1.587641E+0	1.538553E+0	1.518807E+0	1.551191E+0	1.552497E+0	1.634972E+0	1.495916E+0	1.570352E+0	1.539875E+0	1.519802E+0	1.576894E+0	1.571518E+0	1.541450E+0	1.609977E+0	1.546335E+0	1.518199E+0	1.602168E+0	1.536630E+0	1.395164E+0	1.591339E+0	1.569287E+0	1.588370E+0	1.467825E+0	1.519968E+0	1.539931E+0	1.542185E+0	1.487764E+0	1.582865E+0	1.530470E+0	1.538060E+0	1.554170E+0	1.572765E+0	1.610255E+0	1.577048E+0	1.468644E+0	1.551229E+0	1.573821E+0	1.553999E+0	1.530276E+0	1.518043E+0	1.502995E+0	1.606248E+0	1.509521E+0	1.487250E+0	1.531020E+0	1.543773E+0	1.483184E+0	1.507997E+0	1.545149E+0	1.554351E+0	1.471824E+0	1.533966E+0	1.529672E+0	1.544540E+0	1.493155E+0	1.427879E+0	1.458049E+0	1.544397E+0	1.501210E+0	1.538778E+0	1.533643E+0	1.588688E+0	1.558777E+0	1.547165E+0	1.541087E+0	1.543987E+0	1.515263E+0	1.549054E+0	1.550234E+0	1.526424E+0	1.499085E+0	1.528461E+0	1.520183E+0	1.526538E+0	1.497027E+0	1.556213E+0	1.546200E+0	1.601044E+0	1.532009E+0	1.477601E+0	1.601559E+0	1.498032E+0	1.530212E+0	1.551009E+0	1.557068E+0	1.543711E+0	1.477870E+0	1.598650E+0	1.497722E+0	1.531090E+0	1.489345E+0	1.480195E+0	1.563675E+0	1.555959E+0	1.438468E+0	1.564417E+0	1.526822E+0	1.502868E+0	1.512767E+0	1.516107E+0	1.489224E+0	1.500727E+0	1.383834E+0	1.486455E+0	1.518888E+0	1.542933E+0	1.459892E+0	1.578829E+0	1.549523E+0	1.579197E+0	1.505193E+0	1.512182E+0	1.628978E+0	1.603035E+0	1.476257E+0	1.571864E+0	1.508250E+0	1.516279E+0	1.538276E+0	1.536784E+0	1.485723E+0	1.497708E+0	1.587734E+0	1.457027E+0	1.548274E+0	1.529006E+0	1.482928E+0	1.519178E+0	1.571800E+0	1.550587E+0	1.485706E+0	1.540215E+0	1.548114E+0	1.597402E+0	1.518494E+0	1.500267E+0	1.512538E+0	1.429268E+0
5.450150E+2	1.613721E+0	1.536338E+0	1.589592E+0	1.582121E+0	1.573681E+0	1.579280E+0	1.554900E+0	1.576392E+0	1.557931E+0	1.507586E+0	1.588127E+0	1.497800E+0	1.604023E+0	1.626211E+0	1.578269E+0	1.532882E+0	1.566986E+0	1.544644E+0	1.616408E+0	1.610311E+0	1.522779E+0	1.596311E+0	1.572545E+0	1.551660E+0	1.546087E+0	1.593943E+0	1.565563E+0	1.581348E+0	1.535426E+0	1.606841E+0	1.622189E+0	1.541350E+0	1.537266E+0	1.635231E+0	1.584152E+0	1.607703E+0	1.536622E+0	1.532431E+0	1.575389E+0	1.648068E+0	1.470346E+0	1.584199E+0	1.539071E+0	1.508517E+0	1.631495E+0	1.595009E+0	1.494237E+0	1.483806E+0	1.549662E+0	1.574502E+0	1.521117E+0	1.540100E+0	1.522000E+0	1.536662E+0	1.536929E+0	1.551753E+0	1.590564E+0	1.569913E+0	1.628428E+0	1.499345E+0	1.636614E+0	1.505197E+0	1.552090E+0	1.561856E+0	1.578559E+0	1.538880E+0	1.564722E+0	1.556585E+0	1.505657E+0	1.589444E+0	1.520050E+0	1.534898E+0	1.583907E+0	1.584400E+0	1.493595E+0	1.555009E+0	1.573611E+0	1.613843E+0	1.577827E+0	1.516675E+0	1.531676E+0	1.564671E+0	1.553308E+0	1.503138E+0	1.503382E+0	1.492877E+0	1.510000E+0	1.551886E+0	1.573327E+0	1.547677E+0	1.535040E+0	1.590492E+0	1.519563E+0	1.614602E+0	1.500442E+0	1.575448E+0	1.573802E+0	1.547894E+0	1.598813E+0	1.465741E+0	1.529096E+0	1.522447E+0	1.545815E+0	1.522133E+0	1.604807E+0	1.547314E+0	1.500091E+0	1.521383E+0	1.541061E+0	1.515886E+0	1.504456E+0	1.505210E+0	1.593248E+0	1.575288E+0	1.476685E+0	1.555836E+0	1.490611E+0	1.568906E+0	1.554068E+0	1.510210E+0	1.545761E+0	1.561334E+0	1.453644E+0	1.509234E+0	1.525246E+0	1.541932E+0	1.494116E+0	1.612132E+0	1.546284E+0	1.570668E+0	1.532522E+0	1.541606E+0	1.522826E+0	1.501801E+0	1.532122E+0	1.536403E+0	1.515316E+0	1.571738E+0	1.589244E+0	1.542334E+0	1.583387E+0	1.536129E+0	1.573529E+0	1.490671E+0	1.508112E+0	1.577663E+0	1.506738E+0	1.447388E+0	1.570593E+0	1.544489E+0	1.502886E+0	1.453449E+0	1.521930E+0	1.597241E+0	1.510405E+0	1.566091E+0	1.563192E+0	1.548881E+0	1.457596E+0	1.564522E+0	1.591551E+0	1.484866E+0	1.506444E+0	1.443790E+0	1.602736E+0	1.559312E+0
5.452690E+2	1.491712E+0	1.437390E+0	1.458708E+0	1.421171E+0	1.423932E+0	1.429710E+0	1.381219E+0	1.436828E+0	1.384713E+0	1.410648E+0	1.441001E+0	1.402090E+0	1.500573E+0	1.500158E+0	1.421766E+0	1.427340E+0	1.442307E+0	1.468763E+0	1.504108E+0	1.457725E+0	1.457174E+0	1.467321E+0	1.376238E+0	1.470495E+0	1.471425E+0	1.472449E+0	1.489061E+0	1.424575E+0	1.419610E+0	1.444493E+0	1.436032E+0	1.435727E+0	1.420854E+0	1.484053E+0	1.425329E+0	1.388126E+0	1.412732E+0	1.499827E+0	1.414221E+0	1.451510E+0	1.377207E+0	1.515472E+0	1.363267E+0	1.431325E+0	1.447714E+0	1.451458E+0	1.387027E+0	1.397725E+0	1.394213E+0	1.436794E+0	1.391014E+0	1.444768E+0	1.445790E+0	1.426544E+0	1.423886E+0	1.450577E+0	1.462728E+0	1.410265E+0	1.500485E+0	1.410885E+0	1.486428E+0	1.472389E+0	1.443773E+0	1.399726E+0	1.458829E+0	1.431738E+0	1.393859E+0	1.419448E+0	1.394327E+0	1.449606E+0	1.406938E+0	1.442270E+0	1.431847E+0	1.389930E+0	1.385792E+0	1.399489E+0	1.428621E+0	1.429336E+0	1.400756E+0	1.439142E+0	1.431859E+0	1.450267E+0	1.466440E+0	1.408724E+0	1.389772E+0	1.521131E+0	1.424805E+0	1.442023E+0	1.437072E+0	1.442993E+0	1.445539E+0	1.368729E+0	1.441951E+0	1.437222E+0	1.383049E+0	1.410682E+0	1.477063E+0	1.389377E+0	1.488392E+0	1.428018E+0	1.424457E+0	1.410511E+0	1.410380E+0	1.433615E+0	1.398583E+0	1.439360E+0	1.364434E+0	1.392490E+0	1.460729E+0	1.394212E+0	1.443082E+0	1.415335E+0	1.428657E+0	1.436354E+0	1.394799E+0	1.473481E+0	1.395374E+0	1.407285E+0	1.435911E+0	1.463488E+0	1.430598E+0	1.447485E+0	1.459217E+0	1.425364E+0	1.440737E+0	1.371742E+0	1.448628E+0	1.462065E+0	1.399047E+0	1.509153E+0	1.351958E+0	1.446196E+0	1.343331E+0	1.372436E+0	1.475784E+0	1.414433E+0	1.409453E+0	1.438610E+0	1.434956E+0	1.388857E+0	1.444872E+0	1.486013E+0	1.395501E+0	1.365987E+0	1.376968E+0	1.411128E+0	1.371088E+0	1.482042E+0	1.429379E+0	1.464664E+0	1.416195E+0	1.390354E+0	1.411914E+0	1.453877E+0	1.411201E+0	1.359032E+0	1.434332E+0	1.419161E+0	1.344147E+0	1.433010E+0	1.433065E+0	1.400341E+0	1.391645E+0	1.416186E+0	1.386607E+0	1.355417E+0
5.455070E+2	1.480778E+0	1.463453E+0	1.408170E+0	1.439700E+0	1.462837E+0	1.432299E+0	1.444556E+0	1.398160E+0	1.383913E+0	1.436805E+0	1.415590E+0	1.406829E+0	1.408135E+0	1.450038E+0	1.425495E+0	1.416062E+0	1.448091E+0	1.421330E+0	1.491267E+0	1.402186E+0	1.455251E+0	1.465962E+0	1.397764E+0	1.438885E+0	1.448347E+0	1.440699E+0	1.418708E+0	1.422605E+0	1.388441E+0	1.410722E+0	1.454470E+0	1.386662E+0	1.373352E+0	1.463476E+0	1.338330E+0	1.449081E+0	1.394144E+0	1.406607E+0	1.412014E+0	1.367225E+0	1.379479E+0	1.489706E+0	1.388816E+0	1.406644E+0	1.402641E+0	1.401607E+0	1.332251E+0	1.378112E+0	1.334873E+0	1.350898E+0	1.456671E+0	1.388494E+0	1.445997E+0	1.442746E+0	1.473921E+0	1.395355E+0	1.420274E+0	1.358164E+0	1.421817E+0	1.387278E+0	1.375263E+0	1.412805E+0	1.355506E+0	1.432171E+0	1.400175E+0	1.407945E+0	1.425465E+0	1.383346E+0	1.429423E+0	1.452164E+0	1.461322E+0	1.352204E+0	1.382962E+0	1.459701E+0	1.395501E+0	1.392273E+0	1.445033E+0	1.468484E+0	1.351214E+0	1.449862E+0	1.446480E+0	1.400583E+0	1.393355E+0	1.391838E+0	1.350740E+0	1.385170E+0	1.382713E+0	1.477008E+0	1.415640E+0	1.349415E+0	1.441334E+0	1.384964E+0	1.414985E+0	1.396372E+0	1.468767E+0	1.407123E+0	1.394212E+0	1.467938E+0	1.423308E+0	1.427758E+0	1.407886E+0	1.363353E+0	1.393756E+0	1.414868E+0	1.407736E+0	1.404488E+0	1.425020E+0	1.350748E+0	1.409865E+0	1.380115E+0	1.428124E+0	1.468835E+0	1.407476E+0	1.359693E+0	1.383869E+0	1.467349E+0	1.397188E+0	1.435637E+0	1.370551E+0	1.400561E+0	1.407912E+0	1.419074E+0	1.337254E+0	1.369311E+0	1.426286E+0	1.460302E+0	1.412259E+0	1.380183E+0	1.442096E+0	1.375745E+0	1.345130E+0	1.421475E+0	1.383065E+0	1.363114E+0	1.335139E+0	1.410061E+0	1.455299E+0	1.427142E+0	1.337172E+0	1.422295E+0	1.474675E+0	1.411303E+0	1.388251E+0	1.434147E+0	1.387030E+0	1.367342E+0	1.383548E+0	1.393146E+0	1.404567E+0	1.436417E+0	1.407160E+0	1.390681E+0	1.438011E+0	1.427509E+0	1.386046E+0	1.372954E+0	1.427630E+0	1.384408E+0	1.333599E+0	1.338801E+0	1.455659E+0	1.408392E+0	1.342633E+0	1.395645E+0	1.458493E+0	1.543681E+0
5.457720E+2	1.376176E+0	1.333401E+0	1.347230E+0	1.297708E+0	1.353527E+0	1.314824E+0	1.303467E+0	1.331950E+0	1.319252E+0	1.310409E+0	1.338014E+0	1.335964E+0	1.334806E+0	1.380159E+0	1.337411E+0	1.328887E+0	1.340633E+0	1.357351E+0	1.334485E+0	1.293366E+0	1.331203E+0	1.334135E+0	1.304691E+0	1.328489E+0	1.343111E+0	1.346639E+0	1.386476E+0	1.326655E+0	1.307361E+0	1.326245E+0	1.285697E+0	1.302182E+0	1.328858E+0	1.380201E+0	1.288263E+0	1.312251E+0	1.329997E+0	1.340671E+0	1.309420E+0	1.325906E+0	1.291620E+0	1.361636E+0	1.353949E+0	1.337554E+0	1.313602E+0	1.336460E+0	1.304357E+0	1.324260E+0	1.307487E+0	1.335703E+0	1.325870E+0	1.334201E+0	1.288255E+0	1.274186E+0	1.332860E+0	1.334775E+0	1.311276E+0	1.354336E+0	1.306736E+0	1.350069E+0	1.342731E+0	1.291351E+0	1.296201E+0	1.333637E+0	1.310947E+0	1.307762E+0	1.362545E+0	1.324302E+0	1.334420E+0	1.349037E+0	1.342246E+0	1.270524E+0	1.251502E+0	1.274532E+0	1.303609E+0	1.356693E+0	1.326093E+0	1.312057E+0	1.331951E+0	1.293352E+0	1.309971E+0	1.313893E+0	1.268483E+0	1.296926E+0	1.307072E+0	1.386219E+0	1.307540E+0	1.364996E+0	1.293103E+0	1.248111E+0	1.277946E+0	1.318493E+0	1.305885E+0	1.407087E+0	1.281669E+0	1.261879E+0	1.299590E+0	1.269138E+0	1.295448E+0	1.310941E+0	1.321131E+0	1.344442E+0	1.313521E+0	1.238158E+0	1.337838E+0	1.323220E+0	1.270933E+0	1.261422E+0	1.360534E+0	1.369772E+0	1.274213E+0	1.316184E+0	1.303598E+0	1.327245E+0	1.315940E+0	1.319282E+0	1.279903E+0	1.289530E+0	1.283802E+0	1.382919E+0	1.317706E+0	1.356831E+0	1.306969E+0	1.282459E+0	1.350112E+0	1.310199E+0	1.321696E+0	1.317941E+0	1.336244E+0	1.337894E+0	1.271443E+0	1.348883E+0	1.330672E+0	1.310203E+0	1.237162E+0	1.348479E+0	1.421800E+0	1.305460E+0	1.289974E+0	1.268554E+0	1.340200E+0	1.318213E+0	1.301042E+0	1.272978E+0	1.286419E+0	1.335896E+0	1.302638E+0	1.292265E+0	1.324566E+0	1.283974E+0	1.296571E+0	1.301247E+0	1.327924E+0	1.244145E+0	1.295781E+0	1.323168E+0	1.383637E+0	1.312023E+0	1.319481E+0	1.336998E+0	1.321803E+0	1.426290E+0	1.293521E+0	1.240070E+0	1.286197E+0	1.366557E+0
5.460110E+2	1.317848E+0	1.265586E+0	1.289484E+0	1.264943E+0	1.204848E+0	1.223373E+0	1.312249E+0	1.269053E+0	1.303439E+0	1.277527E+0	1.325233E+0	1.281125E+0	1.337385E+0	1.298495E+0	1.240158E+0	1.228263E+0	1.269343E+0	1.290325E+0	1.279233E+0	1.281780E+0	1.273695E+0	1.274924E+0	1.247096E+0	1.298332E+0	1.235944E+0	1.270118E+0	1.262220E+0	1.257239E+0	1.251855E+0	1.280488E+0	1.290376E+0	1.203540E+0	1.239836E+0	1.220162E+0	1.248769E+0	1.245050E+0	1.221005E+0	1.241142E+0	1.250921E+0	1.214571E+0	1.285007E+0	1.314002E+0	1.306312E+0	1.254431E+0	1.259796E+0	1.328389E+0	1.240226E+0	1.264479E+0	1.282497E+0	1.280276E+0	1.256245E+0	1.175475E+0	1.213522E+0	1.308438E+0	1.235279E+0	1.271290E+0	1.239696E+0	1.244813E+0	1.298660E+0	1.291030E+0	1.291998E+0	1.309365E+0	1.215653E+0	1.315463E+0	1.249435E+0	1.268338E+0	1.266195E+0	1.271129E+0	1.202884E+0	1.240513E+0	1.235805E+0	1.287630E+0	1.289690E+0	1.203362E+0	1.218612E+0	1.239734E+0	1.277957E+0	1.241553E+0	1.194280E+0	1.269518E+0	1.243323E+0	1.324723E+0	1.277567E+0	1.227943E+0	1.233394E+0	1.196206E+0	1.263385E+0	1.217375E+0	1.245400E+0	1.230870E+0	1.210034E+0	1.280022E+0	1.214179E+0	1.303420E+0	1.242498E+0	1.196090E+0	1.256615E+0	1.278378E+0	1.204133E+0	1.253846E+0	1.225705E+0	1.231815E+0	1.260906E+0	1.274997E+0	1.231051E+0	1.303673E+0	1.286634E+0	1.182974E+0	1.224409E+0	1.313975E+0	1.286065E+0	1.301121E+0	1.262467E+0	1.267144E+0	1.253878E+0	1.318889E+0	1.225000E+0	1.258904E+0	1.323780E+0	1.310378E+0	1.257221E+0	1.360962E+0	1.279648E+0	1.280098E+0	1.252400E+0	1.277309E+0	1.194693E+0	1.264689E+0	1.253314E+0	1.261528E+0	1.255512E+0	1.288308E+0	1.247538E+0	1.249343E+0	1.258772E+0	1.225131E+0	1.263975E+0	1.231387E+0	1.210307E+0	1.169421E+0	1.251995E+0	1.286881E+0	1.213017E+0	1.221817E+0	1.231634E+0	1.297702E+0	1.265261E+0	1.231706E+0	1.320347E+0	1.238167E+0	1.263061E+0	1.236301E+0	1.238058E+0	1.225377E+0	1.335543E+0	1.286512E+0	1.305987E+0	1.292156E+0	1.237735E+0	1.233458E+0	1.285125E+0	1.259961E+0	1.189973E+0	1.277201E+0	1.205731E+0	1.306201E+0
5.467660E+2	1.197255E+0	1.122083E+0	1.139627E+0	1.132144E+0	1.121827E+0	1.122738E+0	1.170769E+0	1.119289E+0	1.075189E+0	1.152299E+0	1.133672E+0	1.164853E+0	1.178865E+0	1.170763E+0	1.120286E+0	1.126404E+0	1.179551E+0	1.159702E+0	1.185870E+0	1.102036E+0	1.163134E+0	1.136091E+0	1.135689E+0	1.153320E+0	1.136427E+0	1.187235E+0	1.167063E+0	1.137631E+0	1.167098E+0	1.148787E+0	1.148152E+0	1.105323E+0	1.119572E+0	1.131016E+0	1.140525E+0	1.082460E+0	1.176466E+0	1.118986E+0	1.118358E+0	1.174657E+0	1.137727E+0	1.181935E+0	1.192048E+0	1.155176E+0	1.140902E+0	1.160014E+0	1.111040E+0	1.144471E+0	1.147269E+0	1.179660E+0	1.108074E+0	1.168732E+0	1.175852E+0	1.143286E+0	1.195307E+0	1.173755E+0	1.150285E+0	1.133920E+0	1.114045E+0	1.107931E+0	1.152080E+0	1.126047E+0	1.114965E+0	1.096316E+0	1.118375E+0	1.177105E+0	1.166014E+0	1.168508E+0	1.140127E+0	1.141516E+0	1.153149E+0	1.143418E+0	1.128420E+0	1.113002E+0	1.117436E+0	1.158706E+0	1.117203E+0	1.202579E+0	1.106349E+0	1.138952E+0	1.138893E+0	1.130759E+0	1.128733E+0	1.175119E+0	1.143326E+0	1.173327E+0	1.159980E+0	1.132425E+0	1.130744E+0	1.107093E+0	1.165219E+0	1.078510E+0	1.110812E+0	1.185359E+0	1.071590E+0	1.120590E+0	1.143515E+0	1.122565E+0	1.095469E+0	1.179600E+0	1.094051E+0	1.140179E+0	1.117647E+0	1.157145E+0	1.132599E+0	1.125686E+0	1.163380E+0	1.052649E+0	1.147735E+0	1.136491E+0	1.117538E+0	1.209645E+0	1.131075E+0	1.146205E+0	1.107600E+0	1.154356E+0	1.135520E+0	1.146836E+0	1.128335E+0	1.171897E+0	1.168678E+0	1.178782E+0	1.148622E+0	1.091501E+0	1.138225E+0	1.137288E+0	1.098029E+0	1.157116E+0	1.121941E+0	1.172048E+0	1.208022E+0	1.127693E+0	1.106648E+0	1.151083E+0	1.113779E+0	1.144097E+0	1.208444E+0	1.192268E+0	1.168656E+0	1.119033E+0	1.211222E+0	1.137852E+0	1.070452E+0	1.125631E+0	1.110189E+0	1.174309E+0	1.159723E+0	1.104485E+0	1.149409E+0	1.181600E+0	1.133064E+0	1.126391E+0	1.155945E+0	1.095997E+0	1.181808E+0	1.103960E+0	1.140373E+0	1.115685E+0	1.052702E+0	1.155654E+0	1.101010E+0	1.131699E+0	1.128755E+0	1.117394E+0	1.134300E+0	1.095114E+0
5.475120E+2	1.255595E+0	1.366173E+0	1.275157E+0	1.297137E+0	1.276665E+0	1.304506E+0	1.241932E+0	1.348126E+0	1.283371E+0	1.299002E+0	1.306915E+0	1.262336E+0	1.312410E+0	1.298638E+0	1.271499E+0	1.263456E+0	1.292640E+0	1.244120E+0	1.285504E+0	1.275494E+0	1.220351E+0	1.260519E+0	1.257278E+0	1.312060E+0	1.326742E+0	1.282069E+0	1.317891E+0	1.268159E+0	1.262083E+0	1.287867E+0	1.310170E+0	1.234313E+0	1.282660E+0	1.324877E+0	1.264612E+0	1.224723E+0	1.338115E+0	1.320295E+0	1.268627E+0	1.293124E+0	1.241964E+0	1.307584E+0	1.286985E+0	1.215860E+0	1.265791E+0	1.328577E+0	1.255390E+0	1.224149E+0	1.262379E+0	1.343522E+0	1.226966E+0	1.267856E+0	1.312429E+0	1.266531E+0	1.315057E+0	1.265421E+0	1.212716E+0	1.295895E+0	1.254471E+0	1.258747E+0	1.278630E+0	1.263090E+0	1.234145E+0	1.247464E+0	1.286418E+0	1.308019E+0	1.270257E+0	1.299871E+0	1.244996E+0	1.295556E+0	1.277194E+0	1.281185E+0	1.275132E+0	1.291414E+0	1.285271E+0	1.237329E+0	1.285400E+0	1.243562E+0	1.310477E+0	1.259360E+0	1.290074E+0	1.276092E+0	1.305957E+0	1.231320E+0	1.300104E+0	1.283375E+0	1.284907E+0	1.273400E+0	1.250572E+0	1.304852E+0	1.259201E+0	1.260145E+0	1.255200E+0	1.275249E+0	1.285901E+0	1.280570E+0	1.260590E+0	1.283349E+0	1.266298E+0	1.240563E+0	1.214728E+0	1.314872E+0	1.218608E+0	1.273871E+0	1.268999E+0	1.269130E+0	1.259735E+0	1.286709E+0	1.255081E+0	1.291899E+0	1.287676E+0	1.347302E+0	1.303962E+0	1.277938E+0	1.250138E+0	1.288057E+0	1.262055E+0	1.240843E+0	1.281597E+0	1.263965E+0	1.301424E+0	1.350100E+0	1.241363E+0	1.287813E+0	1.220709E+0	1.336269E+0	1.251873E+0	1.343829E+0	1.288748E+0	1.306534E+0	1.256245E+0	1.191983E+0	1.240664E+0	1.268926E+0	1.286258E+0	1.260066E+0	1.273771E+0	1.288484E+0	1.234543E+0	1.199053E+0	1.280815E+0	1.299345E+0	1.251276E+0	1.232838E+0	1.249848E+0	1.282683E+0	1.290005E+0	1.250825E+0	1.336521E+0	1.308647E+0	1.298850E+0	1.270506E+0	1.267712E+0	1.294760E+0	1.206444E+0	1.263349E+0	1.211331E+0	1.337124E+0	1.210720E+0	1.267565E+0	1.250890E+0	1.263154E+0	1.280399E+0	1.216229E+0	1.245453E+0	1.171727E+0
5.482600E+2	1.371783E+0	1.344430E+0	1.346144E+0	1.288728E+0	1.345080E+0	1.322231E+0	1.336074E+0	1.314816E+0	1.334450E+0	1.293392E+0	1.309858E+0	1.369676E+0	1.335231E+0	1.367532E+0	1.298393E+0	1.360231E+0	1.319777E+0	1.305061E+0	1.322330E+0	1.300010E+0	1.337279E+0	1.304297E+0	1.307282E+0	1.321723E+0	1.360439E+0	1.341784E+0	1.313928E+0	1.333203E+0	1.300006E+0	1.376237E+0	1.357604E+0	1.327489E+0	1.336851E+0	1.401719E+0	1.312019E+0	1.315253E+0	1.299925E+0	1.351559E+0	1.321799E+0	1.348006E+0	1.301995E+0	1.258946E+0	1.377946E+0	1.262590E+0	1.303760E+0	1.340555E+0	1.285601E+0	1.306900E+0	1.318669E+0	1.329524E+0	1.298201E+0	1.248722E+0	1.266730E+0	1.306423E+0	1.352106E+0	1.373916E+0	1.303250E+0	1.353844E+0	1.365177E+0	1.329145E+0	1.295614E+0	1.344805E+0	1.307390E+0	1.343203E+0	1.309426E+0	1.319190E+0	1.326608E+0	1.272127E+0	1.301700E+0	1.359143E+0	1.366270E+0	1.271779E+0	1.338225E+0	1.296980E+0	1.358306E+0	1.351874E+0	1.359780E+0	1.363383E+0	1.313977E+0	1.313078E+0	1.277325E+0	1.341606E+0	1.231539E+0	1.280854E+0	1.301143E+0	1.354099E+0	1.333833E+0	1.408183E+0	1.287332E+0	1.290718E+0	1.242640E+0	1.317267E+0	1.327909E+0	1.291585E+0	1.289939E+0	1.312229E+0	1.318228E+0	1.336498E+0	1.319028E+0	1.321520E+0	1.297987E+0	1.307970E+0	1.308362E+0	1.333320E+0	1.275133E+0	1.359980E+0	1.305994E+0	1.306313E+0	1.327717E+0	1.364641E+0	1.328127E+0	1.297322E+0	1.332207E+0	1.296830E+0	1.275337E+0	1.303796E+0	1.311212E+0	1.309616E+0	1.348141E+0	1.283681E+0	1.367587E+0	1.290768E+0	1.263311E+0	1.360430E+0	1.278444E+0	1.341628E+0	1.280700E+0	1.368741E+0	1.294699E+0	1.303136E+0	1.266116E+0	1.303604E+0	1.339268E+0	1.289209E+0	1.312142E+0	1.282474E+0	1.356430E+0	1.358451E+0	1.338372E+0	1.270854E+0	1.334520E+0	1.316660E+0	1.302890E+0	1.286435E+0	1.287556E+0	1.377348E+0	1.294609E+0	1.273516E+0	1.360493E+0	1.332099E+0	1.366935E+0	1.290919E+0	1.303737E+0	1.334195E+0	1.294302E+0	1.289599E+0	1.328505E+0	1.336679E+0	1.293197E+0	1.300518E+0	1.404101E+0	1.400066E+0	1.296517E+0	1.288195E+0	1.293830E+0	1.384671E+0
5.490100E+2	1.490708E+0	1.426293E+0	1.436709E+0	1.450594E+0	1.358460E+0	1.439418E+0	1.452292E+0	1.371818E+0	1.349532E+0	1.432988E+0	1.370867E+0	1.398701E+0	1.446178E+0	1.400308E+0	1.390720E+0	1.429978E+0	1.421200E+0	1.413437E+0	1.454321E+0	1.398794E+0	1.382033E+0	1.391715E+0	1.375163E+0	1.375101E+0	1.404526E+0	1.423181E+0	1.395716E+0	1.405373E+0	1.380632E+0	1.472559E+0	1.466135E+0	1.382811E+0	1.459783E+0	1.426127E+0	1.412277E+0	1.438273E+0	1.409017E+0	1.421802E+0	1.410495E+0	1.369299E+0	1.381651E+0	1.382275E+0	1.387906E+0	1.418348E+0	1.457612E+0	1.463368E+0	1.438413E+0	1.376506E+0	1.367069E+0	1.448097E+0	1.375619E+0	1.387196E+0	1.477441E+0	1.429518E+0	1.363560E+0	1.348954E+0	1.430121E+0	1.424953E+0	1.384347E+0	1.428716E+0	1.483228E+0	1.439530E+0	1.373834E+0	1.416162E+0	1.369449E+0	1.440219E+0	1.375606E+0	1.428136E+0	1.429085E+0	1.470224E+0	1.432220E+0	1.390842E+0	1.354962E+0	1.266604E+0	1.421644E+0	1.382325E+0	1.380156E+0	1.382874E+0	1.391968E+0	1.367629E+0	1.367470E+0	1.396694E+0	1.382616E+0	1.373507E+0	1.413690E+0	1.389878E+0	1.406891E+0	1.353964E+0	1.414211E+0	1.433005E+0	1.364743E+0	1.360388E+0	1.340541E+0	1.425882E+0	1.409762E+0	1.369620E+0	1.419041E+0	1.444272E+0	1.390303E+0	1.370423E+0	1.392222E+0	1.396320E+0	1.416787E+0	1.398319E+0	1.385964E+0	1.443561E+0	1.409192E+0	1.373194E+0	1.412857E+0	1.443147E+0	1.447503E+0	1.416696E+0	1.397465E+0	1.491565E+0	1.386762E+0	1.380452E+0	1.343617E+0	1.360299E+0	1.369851E+0	1.375728E+0	1.423211E+0	1.474005E+0	1.357964E+0	1.398886E+0	1.357391E+0	1.383110E+0	1.351288E+0	1.370311E+0	1.362279E+0	1.395739E+0	1.364680E+0	1.391698E+0	1.414548E+0	1.359782E+0	1.383109E+0	1.389079E+0	1.434170E+0	1.442039E+0	1.367237E+0	1.373941E+0	1.353560E+0	1.370167E+0	1.371523E+0	1.388940E+0	1.339883E+0	1.397050E+0	1.372103E+0	1.373044E+0	1.381968E+0	1.442243E+0	1.420556E+0	1.331943E+0	1.416700E+0	1.419027E+0	1.371203E+0	1.370538E+0	1.422808E+0	1.453279E+0	1.359176E+0	1.418459E+0	1.422193E+0	1.314595E+0	1.315371E+0	1.391219E+0	1.438745E+0	1.427251E+0
5.497630E+2	1.297068E+0	1.307353E+0	1.324296E+0	1.296176E+0	1.242840E+0	1.332874E+0	1.263205E+0	1.312807E+0	1.301011E+0	1.241974E+0	1.316395E+0	1.246381E+0	1.307561E+0	1.289841E+0	1.273357E+0	1.287566E+0	1.298028E+0	1.263192E+0	1.294304E+0	1.256021E+0	1.190964E+0	1.290346E+0	1.301325E+0	1.270701E+0	1.269727E+0	1.280389E+0	1.280733E+0	1.253814E+0	1.245522E+0	1.259501E+0	1.323407E+0	1.208587E+0	1.295961E+0	1.298853E+0	1.295182E+0	1.257399E+0	1.190678E+0	1.268132E+0	1.288756E+0	1.283699E+0	1.236878E+0	1.394420E+0	1.263511E+0	1.251789E+0	1.322045E+0	1.315368E+0	1.214321E+0	1.262864E+0	1.244705E+0	1.323680E+0	1.262491E+0	1.219043E+0	1.289280E+0	1.290960E+0	1.363486E+0	1.313186E+0	1.325077E+0	1.313783E+0	1.243249E+0	1.274190E+0	1.296136E+0	1.334042E+0	1.269913E+0	1.269956E+0	1.219296E+0	1.344150E+0	1.308673E+0	1.246632E+0	1.205846E+0	1.291016E+0	1.239901E+0	1.258520E+0	1.259538E+0	1.211408E+0	1.269994E+0	1.244909E+0	1.234767E+0	1.298290E+0	1.217434E+0	1.280341E+0	1.253612E+0	1.250163E+0	1.293829E+0	1.232265E+0	1.212135E+0	1.305692E+0	1.295734E+0	1.266035E+0	1.276600E+0	1.276061E+0	1.247162E+0	1.299277E+0	1.246899E+0	1.288650E+0	1.202605E+0	1.299144E+0	1.215411E+0	1.255747E+0	1.272790E+0	1.290611E+0	1.269203E+0	1.284608E+0	1.292398E+0	1.268585E+0	1.269350E+0	1.342703E+0	1.275014E+0	1.196302E+0	1.297185E+0	1.302921E+0	1.272282E+0	1.265333E+0	1.261224E+0	1.299104E+0	1.232412E+0	1.325132E+0	1.235415E+0	1.295162E+0	1.250909E+0	1.247862E+0	1.266357E+0	1.290167E+0	1.191186E+0	1.256912E+0	1.261132E+0	1.222771E+0	1.238859E+0	1.263941E+0	1.239401E+0	1.299365E+0	1.298036E+0	1.245318E+0	1.307705E+0	1.341431E+0	1.282363E+0	1.316144E+0	1.243606E+0	1.289208E+0	1.239518E+0	1.266620E+0	1.275162E+0	1.247131E+0	1.281363E+0	1.239295E+0	1.234353E+0	1.247765E+0	1.232743E+0	1.284790E+0	1.262907E+0	1.253801E+0	1.300163E+0	1.167426E+0	1.243454E+0	1.350879E+0	1.270183E+0	1.262990E+0	1.278300E+0	1.328893E+0	1.273681E+0	1.270232E+0	1.338139E+0	1.239511E+0	1.222094E+0	1.285365E+0	1.206563E+0	1.285167E+0
5.505060E+2	1.305555E+0	1.266825E+0	1.357823E+0	1.399004E+0	1.310914E+0	1.282963E+0	1.313635E+0	1.350238E+0	1.340041E+0	1.305992E+0	1.274441E+0	1.255000E+0	1.309587E+0	1.366149E+0	1.330222E+0	1.335148E+0	1.303407E+0	1.309102E+0	1.308452E+0	1.298950E+0	1.303862E+0	1.251133E+0	1.299611E+0	1.296473E+0	1.381125E+0	1.338855E+0	1.313142E+0	1.273500E+0	1.304184E+0	1.288989E+0	1.321110E+0	1.268610E+0	1.353985E+0	1.407215E+0	1.209990E+0	1.321231E+0	1.302269E+0	1.290910E+0	1.287314E+0	1.317013E+0	1.301280E+0	1.312125E+0	1.300369E+0	1.336301E+0	1.338518E+0	1.330090E+0	1.244362E+0	1.283179E+0	1.269868E+0	1.355119E+0	1.275605E+0	1.229988E+0	1.265043E+0	1.264006E+0	1.289093E+0	1.297641E+0	1.274414E+0	1.280178E+0	1.303711E+0	1.294644E+0	1.301887E+0	1.325672E+0	1.277817E+0	1.228876E+0	1.342062E+0	1.398105E+0	1.302554E+0	1.294925E+0	1.283579E+0	1.324559E+0	1.294592E+0	1.288811E+0	1.307403E+0	1.281749E+0	1.285155E+0	1.235413E+0	1.321397E+0	1.320310E+0	1.290690E+0	1.254903E+0	1.210490E+0	1.317532E+0	1.299709E+0	1.273831E+0	1.285328E+0	1.320263E+0	1.230187E+0	1.271625E+0	1.274675E+0	1.303266E+0	1.232625E+0	1.241452E+0	1.340193E+0	1.338464E+0	1.241547E+0	1.274334E+0	1.246297E+0	1.340949E+0	1.330050E+0	1.355422E+0	1.309793E+0	1.290671E+0	1.275729E+0	1.302167E+0	1.283626E+0	1.300544E+0	1.236097E+0	1.250186E+0	1.299260E+0	1.331561E+0	1.335603E+0	1.311038E+0	1.238641E+0	1.272875E+0	1.259627E+0	1.334589E+0	1.301726E+0	1.322787E+0	1.310336E+0	1.274488E+0	1.290137E+0	1.333212E+0	1.290897E+0	1.331163E+0	1.240361E+0	1.296897E+0	1.274682E+0	1.310424E+0	1.335118E+0	1.291033E+0	1.207624E+0	1.274635E+0	1.303064E+0	1.249766E+0	1.278762E+0	1.309448E+0	1.352106E+0	1.283160E+0	1.243201E+0	1.240033E+0	1.324767E+0	1.276410E+0	1.283917E+0	1.241233E+0	1.277287E+0	1.301877E+0	1.253878E+0	1.248276E+0	1.342658E+0	1.321159E+0	1.280869E+0	1.265128E+0	1.282011E+0	1.297987E+0	1.300798E+0	1.290153E+0	1.264410E+0	1.357943E+0	1.204111E+0	1.294051E+0	1.284238E+0	1.260661E+0	1.294909E+0	1.234135E+0	1.278338E+0	1.295744E+0
5.512620E+2	1.256034E+0	1.291821E+0	1.322621E+0	1.269579E+0	1.323540E+0	1.272219E+0	1.255081E+0	1.292316E+0	1.306666E+0	1.235155E+0	1.290752E+0	1.227662E+0	1.330492E+0	1.303296E+0	1.286718E+0	1.275704E+0	1.265781E+0	1.242268E+0	1.246503E+0	1.320696E+0	1.238110E+0	1.269710E+0	1.275066E+0	1.288555E+0	1.310258E+0	1.312676E+0	1.328198E+0	1.306915E+0	1.245474E+0	1.247643E+0	1.314049E+0	1.263255E+0	1.309808E+0	1.300324E+0	1.330860E+0	1.287552E+0	1.292394E+0	1.265356E+0	1.287882E+0	1.253156E+0	1.321400E+0	1.327428E+0	1.248576E+0	1.233165E+0	1.240506E+0	1.273163E+0	1.272043E+0	1.313457E+0	1.230273E+0	1.292108E+0	1.249638E+0	1.317108E+0	1.295658E+0	1.321058E+0	1.308659E+0	1.304085E+0	1.308184E+0	1.348990E+0	1.268830E+0	1.228123E+0	1.305460E+0	1.298792E+0	1.312382E+0	1.236706E+0	1.219241E+0	1.296295E+0	1.360243E+0	1.296188E+0	1.268415E+0	1.276786E+0	1.345350E+0	1.261356E+0	1.288441E+0	1.283400E+0	1.182320E+0	1.303369E+0	1.316365E+0	1.297889E+0	1.264303E+0	1.253050E+0	1.296139E+0	1.316710E+0	1.318032E+0	1.214896E+0	1.272159E+0	1.287593E+0	1.324946E+0	1.337016E+0	1.308726E+0	1.242028E+0	1.302533E+0	1.287956E+0	1.263669E+0	1.319519E+0	1.237605E+0	1.302166E+0	1.307052E+0	1.388086E+0	1.307426E+0	1.318881E+0	1.272990E+0	1.270496E+0	1.251259E+0	1.305466E+0	1.279634E+0	1.288340E+0	1.278427E+0	1.297231E+0	1.325336E+0	1.332801E+0	1.252713E+0	1.295373E+0	1.303663E+0	1.316424E+0	1.223459E+0	1.297792E+0	1.299997E+0	1.272933E+0	1.273640E+0	1.294308E+0	1.288730E+0	1.328822E+0	1.256884E+0	1.282282E+0	1.294990E+0	1.249891E+0	1.268764E+0	1.313771E+0	1.248552E+0	1.312131E+0	1.193233E+0	1.301817E+0	1.300965E+0	1.296075E+0	1.233534E+0	1.295504E+0	1.288721E+0	1.255422E+0	1.254260E+0	1.248520E+0	1.278151E+0	1.319469E+0	1.239039E+0	1.289203E+0	1.268772E+0	1.304938E+0	1.312185E+0	1.266046E+0	1.311601E+0	1.313093E+0	1.288064E+0	1.245822E+0	1.292704E+0	1.306654E+0	1.309095E+0	1.287976E+0	1.259999E+0	1.319698E+0	1.220412E+0	1.339836E+0	1.255578E+0	1.287752E+0	1.213175E+0	1.280347E+0	1.343072E+0	1.233644E+0
5.520150E+2	1.264813E+0	1.310709E+0	1.281104E+0	1.289999E+0	1.300288E+0	1.261674E+0	1.293423E+0	1.256866E+0	1.270862E+0	1.276361E+0	1.277720E+0	1.225782E+0	1.295397E+0	1.240870E+0	1.275851E+0	1.207820E+0	1.304281E+0	1.244318E+0	1.282806E+0	1.217460E+0	1.310039E+0	1.235615E+0	1.252762E+0	1.270380E+0	1.276679E+0	1.299725E+0	1.265478E+0	1.265426E+0	1.190412E+0	1.298302E+0	1.289127E+0	1.273987E+0	1.252951E+0	1.302126E+0	1.239185E+0	1.293448E+0	1.271913E+0	1.263442E+0	1.272195E+0	1.234007E+0	1.279153E+0	1.305708E+0	1.273202E+0	1.295293E+0	1.217187E+0	1.300144E+0	1.211470E+0	1.277180E+0	1.246054E+0	1.225462E+0	1.257343E+0	1.253781E+0	1.235352E+0	1.271161E+0	1.282768E+0	1.273835E+0	1.223312E+0	1.182213E+0	1.270837E+0	1.320178E+0	1.280245E+0	1.281354E+0	1.146909E+0	1.269997E+0	1.282340E+0	1.306883E+0	1.274455E+0	1.225913E+0	1.255153E+0	1.289249E+0	1.281056E+0	1.276403E+0	1.276723E+0	1.233657E+0	1.282841E+0	1.209200E+0	1.284943E+0	1.215779E+0	1.275575E+0	1.228996E+0	1.255264E+0	1.274139E+0	1.227694E+0	1.261932E+0	1.233482E+0	1.276949E+0	1.233329E+0	1.245290E+0	1.263599E+0	1.220584E+0	1.302600E+0	1.244907E+0	1.250020E+0	1.259303E+0	1.259286E+0	1.208588E+0	1.279679E+0	1.267810E+0	1.298947E+0	1.232700E+0	1.208356E+0	1.247807E+0	1.231127E+0	1.196936E+0	1.243760E+0	1.317600E+0	1.201242E+0	1.237438E+0	1.257923E+0	1.296323E+0	1.282139E+0	1.206097E+0	1.248786E+0	1.224650E+0	1.244661E+0	1.256488E+0	1.210914E+0	1.320915E+0	1.204033E+0	1.231867E+0	1.272356E+0	1.274607E+0	1.208147E+0	1.229900E+0	1.256323E+0	1.317763E+0	1.196663E+0	1.258735E+0	1.192720E+0	1.311710E+0	1.272194E+0	1.280493E+0	1.291198E+0	1.275032E+0	1.226220E+0	1.265433E+0	1.244302E+0	1.243920E+0	1.268538E+0	1.301425E+0	1.273045E+0	1.257573E+0	1.234055E+0	1.209814E+0	1.256367E+0	1.302406E+0	1.283876E+0	1.196068E+0	1.292400E+0	1.299060E+0	1.236788E+0	1.211211E+0	1.319133E+0	1.284970E+0	1.304112E+0	1.235885E+0	1.230622E+0	1.316707E+0	1.218995E+0	1.266657E+0	1.248652E+0	1.250511E+0	1.259036E+0	1.251482E+0	1.202009E+0	1.270744E+0
5.527590E+2	1.256066E+0	1.230576E+0	1.214359E+0	1.199255E+0	1.220701E+0	1.288137E+0	1.220596E+0	1.208703E+0	1.150441E+0	1.184545E+0	1.287934E+0	1.255684E+0	1.241439E+0	1.251326E+0	1.212920E+0	1.211600E+0	1.248524E+0	1.281584E+0	1.252672E+0	1.251420E+0	1.287425E+0	1.242740E+0	1.195675E+0	1.240182E+0	1.223768E+0	1.219591E+0	1.266497E+0	1.183143E+0	1.205670E+0	1.267706E+0	1.239345E+0	1.228945E+0	1.285298E+0	1.171915E+0	1.248782E+0	1.225120E+0	1.240236E+0	1.238563E+0	1.291103E+0	1.221034E+0	1.183896E+0	1.266296E+0	1.255603E+0	1.214122E+0	1.183580E+0	1.303339E+0	1.240550E+0	1.218350E+0	1.190534E+0	1.169310E+0	1.177865E+0	1.219974E+0	1.183369E+0	1.268075E+0	1.161372E+0	1.241511E+0	1.253686E+0	1.269517E+0	1.270183E+0	1.254409E+0	1.308463E+0	1.185297E+0	1.166627E+0	1.272962E+0	1.236335E+0	1.221987E+0	1.218568E+0	1.267974E+0	1.170393E+0	1.300441E+0	1.240746E+0	1.203074E+0	1.253595E+0	1.184628E+0	1.222019E+0	1.249465E+0	1.248940E+0	1.233611E+0	1.206390E+0	1.228458E+0	1.237466E+0	1.247171E+0	1.259363E+0	1.240337E+0	1.221324E+0	1.237080E+0	1.251810E+0	1.219449E+0	1.239511E+0	1.175197E+0	1.207303E+0	1.179232E+0	1.237561E+0	1.262587E+0	1.255350E+0	1.231691E+0	1.230679E+0	1.192168E+0	1.222755E+0	1.251498E+0	1.198918E+0	1.226885E+0	1.209692E+0	1.244952E+0	1.211819E+0	1.214202E+0	1.207213E+0	1.199274E+0	1.172281E+0	1.232597E+0	1.261360E+0	1.179549E+0	1.244475E+0	1.196580E+0	1.205527E+0	1.217903E+0	1.220401E+0	1.254578E+0	1.224992E+0	1.227947E+0	1.199804E+0	1.250676E+0	1.204138E+0	1.196114E+0	1.214776E+0	1.218556E+0	1.211552E+0	1.221630E+0	1.228645E+0	1.240078E+0	1.241800E+0	1.174615E+0	1.227529E+0	1.211646E+0	1.269192E+0	1.228319E+0	1.231509E+0	1.225146E+0	1.223604E+0	1.246508E+0	1.252468E+0	1.253544E+0	1.167316E+0	1.192290E+0	1.185237E+0	1.220178E+0	1.224397E+0	1.159975E+0	1.269721E+0	1.220506E+0	1.219247E+0	1.217421E+0	1.258506E+0	1.248012E+0	1.225651E+0	1.285226E+0	1.186685E+0	1.222606E+0	1.163126E+0	1.226322E+0	1.193640E+0	1.271038E+0	1.185360E+0	1.235757E+0	1.181187E+0	1.197562E+0
5.535100E+2	1.207326E+0	1.217900E+0	1.241942E+0	1.255101E+0	1.225159E+0	1.246348E+0	1.189360E+0	1.202370E+0	1.207634E+0	1.194873E+0	1.220944E+0	1.201343E+0	1.201491E+0	1.203599E+0	1.211045E+0	1.168399E+0	1.183242E+0	1.187747E+0	1.179079E+0	1.227747E+0	1.175956E+0	1.252231E+0	1.176234E+0	1.234406E+0	1.211659E+0	1.187567E+0	1.235128E+0	1.160723E+0	1.092579E+0	1.231466E+0	1.233686E+0	1.172944E+0	1.153883E+0	1.210818E+0	1.193751E+0	1.212199E+0	1.185729E+0	1.232412E+0	1.190944E+0	1.170761E+0	1.210667E+0	1.190251E+0	1.174872E+0	1.231798E+0	1.224603E+0	1.189717E+0	1.173604E+0	1.171637E+0	1.163810E+0	1.181820E+0	1.205138E+0	1.141248E+0	1.220605E+0	1.197528E+0	1.159259E+0	1.199252E+0	1.186132E+0	1.183553E+0	1.175442E+0	1.224230E+0	1.184655E+0	1.177090E+0	1.156001E+0	1.196261E+0	1.177309E+0	1.232373E+0	1.184185E+0	1.204312E+0	1.187169E+0	1.224384E+0	1.213604E+0	1.202184E+0	1.238133E+0	1.122024E+0	1.170209E+0	1.196194E+0	1.191150E+0	1.173975E+0	1.144029E+0	1.208035E+0	1.206791E+0	1.225440E+0	1.233307E+0	1.175747E+0	1.168369E+0	1.209198E+0	1.215703E+0	1.161024E+0	1.137349E+0	1.198046E+0	1.175451E+0	1.214900E+0	1.146035E+0	1.197706E+0	1.177900E+0	1.176702E+0	1.204920E+0	1.162324E+0	1.224653E+0	1.230431E+0	1.134752E+0	1.226766E+0	1.174787E+0	1.206660E+0	1.238925E+0	1.204303E+0	1.230693E+0	1.143288E+0	1.265441E+0	1.154371E+0	1.180007E+0	1.174882E+0	1.124462E+0	1.193210E+0	1.200823E+0	1.189462E+0	1.157466E+0	1.153818E+0	1.151891E+0	1.199992E+0	1.226361E+0	1.273675E+0	1.138386E+0	1.175971E+0	1.209091E+0	1.216188E+0	1.129184E+0	1.183978E+0	1.158870E+0	1.181583E+0	1.157146E+0	1.221819E+0	1.172454E+0	1.264204E+0	1.181235E+0	1.208327E+0	1.193449E+0	1.237667E+0	1.187454E+0	1.164303E+0	1.214418E+0	1.201848E+0	1.198852E+0	1.162228E+0	1.163621E+0	1.185507E+0	1.151859E+0	1.148468E+0	1.219748E+0	1.236053E+0	1.268414E+0	1.212424E+0	1.169834E+0	1.223526E+0	1.216220E+0	1.196797E+0	1.163364E+0	1.281080E+0	1.204848E+0	1.200995E+0	1.136730E+0	1.248560E+0	1.134474E+0	1.220433E+0	1.141788E+0	1.305746E+0
5.542530E+2	1.268014E+0	1.233073E+0	1.162955E+0	1.175169E+0	1.206452E+0	1.188373E+0	1.187373E+0	1.128272E+0	1.195072E+0	1.137692E+0	1.230149E+0	1.154057E+0	1.192724E+0	1.215371E+0	1.151998E+0	1.163441E+0	1.128045E+0	1.152066E+0	1.164403E+0	1.128925E+0	1.177761E+0	1.151171E+0	1.129921E+0	1.188765E+0	1.177917E+0	1.223719E+0	1.208286E+0	1.203151E+0	1.122108E+0	1.169505E+0	1.184115E+0	1.175921E+0	1.143572E+0	1.183609E+0	1.184245E+0	1.141981E+0	1.179122E+0	1.197417E+0	1.209320E+0	1.215860E+0	1.107033E+0	1.154089E+0	1.184487E+0	1.193951E+0	1.166505E+0	1.155554E+0	1.134821E+0	1.178393E+0	1.151995E+0	1.123626E+0	1.140158E+0	1.144648E+0	1.108461E+0	1.208444E+0	1.186038E+0	1.129703E+0	1.175894E+0	1.206198E+0	1.146886E+0	1.130356E+0	1.220479E+0	1.130452E+0	1.117785E+0	1.201504E+0	1.242063E+0	1.168130E+0	1.150944E+0	1.136627E+0	1.119286E+0	1.170404E+0	1.213288E+0	1.165064E+0	1.182983E+0	1.158014E+0	1.163363E+0	1.099524E+0	1.170995E+0	1.195427E+0	1.122351E+0	1.158183E+0	1.130155E+0	1.121486E+0	1.141207E+0	1.181302E+0	1.098558E+0	1.171551E+0	1.147801E+0	1.133959E+0	1.136002E+0	1.117257E+0	1.193276E+0	1.151620E+0	1.211328E+0	1.188403E+0	1.137757E+0	1.124254E+0	1.152595E+0	1.199755E+0	1.208529E+0	1.184767E+0	1.113656E+0	1.132607E+0	1.140844E+0	1.200031E+0	1.154818E+0	1.209808E+0	1.143375E+0	1.201634E+0	1.208523E+0	1.135288E+0	1.199905E+0	1.119114E+0	1.169342E+0	1.171753E+0	1.107610E+0	1.166267E+0	1.135703E+0	1.141742E+0	1.165973E+0	1.142407E+0	1.172857E+0	1.180847E+0	1.167009E+0	1.252262E+0	1.167480E+0	1.148184E+0	1.118177E+0	1.190466E+0	1.203684E+0	1.109469E+0	1.154870E+0	1.147826E+0	1.150232E+0	1.155685E+0	1.117262E+0	1.122753E+0	1.210240E+0	1.156121E+0	1.097216E+0	1.134011E+0	1.191870E+0	1.159140E+0	1.163453E+0	1.170300E+0	1.103767E+0	1.246541E+0	1.156523E+0	1.198185E+0	1.164694E+0	1.206648E+0	1.181925E+0	1.133855E+0	1.153988E+0	1.163694E+0	1.106896E+0	1.141808E+0	1.157648E+0	1.165873E+0	1.173001E+0	1.155881E+0	1.122833E+0	1.226802E+0	1.116768E+0	1.111278E+0	1.233347E+0	1.165078E+0
5.550190E+2	1.027890E+0	1.027397E+0	1.071182E+0	1.027534E+0	1.079431E+0	9.702254E-1	1.036149E+0	1.095794E+0	1.028784E+0	1.061372E+0	1.015632E+0	1.037920E+0	1.054964E+0	1.047438E+0	1.017196E+0	1.083476E+0	1.000384E+0	1.028876E+0	1.022577E+0	1.016830E+0	1.074445E+0	1.054249E+0	1.044659E+0	1.007680E+0	1.050841E+0	1.040550E+0	1.066447E+0	1.050827E+0	9.757959E-1	1.098870E+0	1.079045E+0	1.004286E+0	1.028106E+0	1.090566E+0	1.040544E+0	1.043664E+0	9.851251E-1	1.008263E+0	1.085350E+0	1.056172E+0	1.034308E+0	1.065677E+0	1.033766E+0	1.060572E+0	1.059158E+0	1.033866E+0	1.013089E+0	1.017357E+0	1.030757E+0	1.042615E+0	1.067763E+0	9.715839E-1	1.055777E+0	1.085100E+0	1.032180E+0	1.021554E+0	1.029864E+0	9.909880E-1	1.136699E+0	1.092913E+0	1.045920E+0	1.045876E+0	1.024480E+0	1.053099E+0	1.075099E+0	1.033410E+0	1.040299E+0	1.056568E+0	1.021914E+0	1.058213E+0	1.056240E+0	1.043068E+0	1.094794E+0	9.993285E-1	1.068418E+0	1.036462E+0	1.019770E+0	1.004484E+0	1.036546E+0	1.040486E+0	1.030652E+0	1.019301E+0	1.053099E+0	1.030010E+0	1.016780E+0	1.003080E+0	1.072214E+0	1.089794E+0	1.056201E+0	1.049508E+0	1.054379E+0	1.072627E+0	1.077900E+0	1.077249E+0	1.034242E+0	1.045520E+0	1.049138E+0	9.898115E-1	1.039549E+0	1.057553E+0	1.076634E+0	1.050036E+0	1.062627E+0	1.031676E+0	1.009626E+0	1.082876E+0	1.068214E+0	1.048096E+0	1.062693E+0	1.046434E+0	1.051280E+0	1.023758E+0	1.064964E+0	1.060076E+0	1.091620E+0	1.051537E+0	1.055472E+0	1.012567E+0	1.005752E+0	1.102468E+0	1.014969E+0	1.022474E+0	1.068023E+0	1.015903E+0	1.063191E+0	1.066254E+0	1.075309E+0	1.065220E+0	1.097809E+0	1.046029E+0	1.033308E+0	9.968778E-1	1.037362E+0	1.012724E+0	9.907629E-1	1.060488E+0	1.057488E+0	1.116810E+0	1.038906E+0	1.053773E+0	1.050195E+0	1.035778E+0	9.890108E-1	1.018310E+0	1.050268E+0	1.069020E+0	1.123744E+0	1.009145E+0	1.046307E+0	1.086077E+0	1.060857E+0	1.011111E+0	1.008082E+0	1.062315E+0	1.065074E+0	1.035673E+0	1.054944E+0	1.080010E+0	1.051005E+0	1.083479E+0	1.054301E+0	1.071075E+0	9.974909E-1	1.055616E+0	9.932227E-1	1.023593E+0
5.557660E+2	1.055972E+0	1.069291E+0	1.038038E+0	9.983302E-1	9.945549E-1	9.515361E-1	9.556979E-1	1.049045E+0	9.995672E-1	9.869612E-1	1.062922E+0	1.002136E+0	1.008652E+0	1.004993E+0	1.030207E+0	9.838868E-1	1.000115E+0	9.873615E-1	1.067508E+0	1.017263E+0	9.848847E-1	1.007095E+0	1.036017E+0	1.008159E+0	1.041576E+0	1.053315E+0	1.041920E+0	1.001010E+0	9.982974E-1	9.992374E-1	1.082005E+0	1.040721E+0	9.870778E-1	9.801675E-1	9.784833E-1	1.008419E+0	9.848528E-1	1.000590E+0	1.059317E+0	9.791454E-1	1.003394E+0	1.000199E+0	1.040526E+0	1.008646E+0	9.821303E-1	1.032501E+0	1.034874E+0	9.756962E-1	9.416160E-1	9.943314E-1	1.043864E+0	1.019655E+0	1.030460E+0	9.981192E-1	1.026002E+0	9.835050E-1	1.009870E+0	1.019650E+0	9.930085E-1	1.040470E+0	1.041417E+0	9.628706E-1	1.014142E+0	1.048587E+0	1.053560E+0	1.023307E+0	9.873190E-1	1.037928E+0	1.013937E+0	9.929277E-1	1.013542E+0	1.010333E+0	1.052534E+0	9.596099E-1	9.783834E-1	1.028570E+0	1.038716E+0	9.793131E-1	9.914625E-1	9.939267E-1	1.018337E+0	1.007938E+0	1.000297E+0	9.728073E-1	9.984173E-1	1.048850E+0	1.016765E+0	1.017132E+0	1.019247E+0	1.005488E+0	1.034653E+0	1.018683E+0	1.018134E+0	1.019498E+0	9.682064E-1	1.000595E+0	1.049836E+0	1.027724E+0	1.007372E+0	1.026659E+0	9.724459E-1	1.024267E+0	1.021014E+0	1.006121E+0	1.017314E+0	9.939517E-1	1.047838E+0	9.953625E-1	1.014017E+0	9.765391E-1	1.056569E+0	1.011104E+0	1.049848E+0	9.856522E-1	1.024486E+0	1.003396E+0	1.044772E+0	9.987671E-1	9.911081E-1	1.022818E+0	1.048408E+0	1.036092E+0	9.830262E-1	1.057869E+0	1.008666E+0	9.937658E-1	1.017355E+0	1.037953E+0	1.005650E+0	9.563175E-1	1.037817E+0	1.018063E+0	9.950949E-1	1.036338E+0	1.016013E+0	1.057280E+0	1.036085E+0	1.014146E+0	9.943312E-1	1.030014E+0	1.035124E+0	1.033680E+0	1.005671E+0	1.038283E+0	9.644316E-1	1.027709E+0	9.965246E-1	9.387526E-1	9.899809E-1	1.048500E+0	1.023168E+0	9.552931E-1	1.003561E+0	1.043650E+0	9.798898E-1	1.014794E+0	1.007831E+0	1.086602E+0	1.024462E+0	1.045984E+0	9.913780E-1	1.025861E+0	1.003889E+0	9.840379E-1	1.048000E+0	9.874545E-1
5.560130E+2	1.006534E+0	9.860059E-1	1.017988E+0	9.399630E-1	9.745852E-1	9.932235E-1	9.428669E-1	1.009954E+0	9.573516E-1	9.753514E-1	9.746580E-1	9.413497E-1	1.045445E+0	9.800700E-1	1.010883E+0	9.597683E-1	9.814111E-1	1.009222E+0	1.027424E+0	1.049695E+0	1.027217E+0	9.622203E-1	9.802744E-1	9.691721E-1	9.963347E-1	9.557245E-1	1.051887E+0	9.948196E-1	9.550791E-1	9.947142E-1	1.090247E+0	1.031116E+0	1.027507E+0	9.996452E-1	1.014851E+0	9.802675E-1	9.900827E-1	1.023816E+0	9.720380E-1	9.885600E-1	9.667972E-1	9.843827E-1	9.819849E-1	1.009871E+0	9.579349E-1	9.834079E-1	1.006075E+0	1.026364E+0	9.815407E-1	1.012492E+0	9.557236E-1	1.002526E+0	1.002533E+0	1.014161E+0	9.734806E-1	9.806047E-1	1.005017E+0	9.770504E-1	9.398966E-1	1.009307E+0	1.012592E+0	9.312778E-1	9.658750E-1	1.004917E+0	9.344790E-1	9.961439E-1	9.801255E-1	1.007245E+0	9.509096E-1	9.924465E-1	9.978423E-1	9.710625E-1	9.316434E-1	9.372365E-1	9.779071E-1	9.770210E-1	1.010420E+0	1.007298E+0	9.770807E-1	9.344027E-1	9.538724E-1	1.008571E+0	9.953641E-1	9.450977E-1	9.881450E-1	1.005102E+0	9.710555E-1	1.010964E+0	1.047605E+0	9.954381E-1	9.602735E-1	1.004855E+0	9.883384E-1	9.831326E-1	1.039681E+0	1.005961E+0	1.003373E+0	9.992330E-1	1.019085E+0	9.994785E-1	9.987168E-1	1.012193E+0	8.989306E-1	1.020616E+0	9.579433E-1	9.953094E-1	9.701005E-1	9.541997E-1	9.640860E-1	1.024183E+0	1.019221E+0	9.899039E-1	9.922255E-1	9.422250E-1	9.658336E-1	1.028282E+0	1.008429E+0	1.016879E+0	9.944321E-1	1.001713E+0	9.866536E-1	9.939835E-1	1.001363E+0	1.026354E+0	1.016995E+0	9.930869E-1	1.016499E+0	1.000670E+0	1.017863E+0	9.992230E-1	9.417325E-1	9.823519E-1	9.679865E-1	9.674850E-1	9.741921E-1	9.962591E-1	9.849267E-1	9.751000E-1	9.712750E-1	9.715758E-1	1.008297E+0	9.810759E-1	9.505121E-1	1.019955E+0	9.520754E-1	9.316802E-1	9.586511E-1	9.810673E-1	1.067643E+0	9.856386E-1	9.926656E-1	9.488265E-1	1.031032E+0	9.779701E-1	9.670595E-1	1.015895E+0	9.699990E-1	9.669042E-1	9.613589E-1	9.975392E-1	9.672836E-1	9.948893E-1	9.894117E-1	9.972052E-1	9.803713E-1	1.068997E+0
5.565090E+2	9.328104E-1	9.877873E-1	9.410289E-1	9.392474E-1	9.854686E-1	9.769206E-1	9.728624E-1	9.667213E-1	9.629311E-1	9.390414E-1	9.810460E-1	9.506879E-1	9.816935E-1	9.351171E-1	9.716923E-1	9.424352E-1	9.608908E-1	9.147542E-1	9.469546E-1	9.680829E-1	9.656868E-1	9.419023E-1	9.681151E-1	9.687092E-1	9.604289E-1	9.899222E-1	9.816956E-1	9.593239E-1	9.156436E-1	9.571613E-1	9.089317E-1	9.641560E-1	9.589975E-1	9.354564E-1	9.595181E-1	9.530445E-1	9.036698E-1	9.726022E-1	9.651825E-1	9.821468E-1	9.498217E-1	9.440554E-1	9.822361E-1	9.653005E-1	9.914914E-1	1.000321E+0	1.003451E+0	9.348616E-1	9.359218E-1	9.672879E-1	9.717742E-1	9.805406E-1	9.802284E-1	9.495534E-1	9.593527E-1	9.805573E-1	9.684208E-1	9.231072E-1	9.923159E-1	9.846256E-1	9.367894E-1	9.288300E-1	9.872812E-1	9.635067E-1	9.216168E-1	9.568540E-1	1.009325E+0	9.311958E-1	1.005896E+0	9.279573E-1	9.032808E-1	9.452919E-1	9.919117E-1	9.117367E-1	9.261937E-1	9.343637E-1	9.503777E-1	9.585599E-1	9.664874E-1	9.555692E-1	9.439880E-1	9.646400E-1	9.956307E-1	9.912284E-1	9.327971E-1	9.576270E-1	9.503091E-1	9.911427E-1	9.641378E-1	9.923128E-1	9.842891E-1	9.521194E-1	9.743744E-1	9.464234E-1	9.707574E-1	9.493156E-1	9.358189E-1	9.371052E-1	9.869087E-1	9.751083E-1	9.265431E-1	8.999734E-1	9.385363E-1	9.376829E-1	9.706700E-1	9.537201E-1	9.439269E-1	9.524825E-1	9.373524E-1	9.966019E-1	9.856952E-1	9.599569E-1	9.743417E-1	9.353680E-1	9.802306E-1	9.195842E-1	9.899694E-1	9.590276E-1	9.255518E-1	9.286963E-1	9.542655E-1	9.497238E-1	9.311880E-1	9.583114E-1	9.959645E-1	9.408282E-1	9.548497E-1	9.995660E-1	9.860838E-1	9.463287E-1	9.614334E-1	9.657965E-1	9.782271E-1	9.743017E-1	9.686369E-1	9.448421E-1	9.443500E-1	9.042104E-1	9.864399E-1	9.249626E-1	9.295630E-1	9.461612E-1	9.698225E-1	9.963341E-1	9.673044E-1	9.513999E-1	9.591264E-1	9.665531E-1	9.727788E-1	9.510321E-1	9.914960E-1	9.534742E-1	9.985738E-1	9.566585E-1	9.362727E-1	9.965305E-1	9.825635E-1	1.002894E+0	1.001825E+0	9.502247E-1	9.579561E-1	9.678495E-1	9.483636E-1	9.496153E-1	9.928827E-1	9.295791E-1
5.570220E+2	9.814846E-1	9.877992E-1	9.993745E-1	9.876146E-1	9.536864E-1	9.290551E-1	9.162606E-1	9.523716E-1	1.034184E+0	9.742933E-1	9.054093E-1	9.894452E-1	9.523047E-1	9.872390E-1	9.573304E-1	1.014272E+0	9.837182E-1	9.551159E-1	9.864905E-1	9.581061E-1	9.704883E-1	9.200409E-1	9.506110E-1	9.398418E-1	9.706324E-1	9.799488E-1	9.956408E-1	1.000328E+0	9.809165E-1	9.857486E-1	1.008505E+0	9.412631E-1	9.755432E-1	9.588700E-1	9.563752E-1	9.385444E-1	9.990483E-1	9.833753E-1	9.606139E-1	9.813855E-1	9.567034E-1	1.008698E+0	1.026195E+0	9.865186E-1	9.401299E-1	9.617926E-1	9.635984E-1	9.538112E-1	9.934321E-1	9.409472E-1	9.702602E-1	9.486468E-1	9.579985E-1	1.008981E+0	9.754673E-1	9.360196E-1	9.750819E-1	9.505133E-1	9.809285E-1	9.575650E-1	9.390241E-1	9.736657E-1	9.355139E-1	9.683961E-1	1.049321E+0	1.014179E+0	9.707672E-1	9.565153E-1	9.352199E-1	9.869318E-1	9.872595E-1	9.759358E-1	1.003127E+0	9.920107E-1	9.977003E-1	9.660102E-1	9.479919E-1	9.820646E-1	9.746597E-1	9.596303E-1	9.651979E-1	9.694474E-1	9.537798E-1	9.639686E-1	9.992886E-1	9.984434E-1	1.040384E+0	9.263726E-1	9.896154E-1	9.607841E-1	9.442017E-1	9.791722E-1	9.278548E-1	9.602098E-1	1.032584E+0	9.777058E-1	9.580080E-1	9.927147E-1	1.012307E+0	9.664179E-1	9.747736E-1	9.267857E-1	9.515226E-1	9.405856E-1	1.028526E+0	9.642469E-1	9.543557E-1	9.565679E-1	9.904167E-1	9.614957E-1	9.645778E-1	9.567536E-1	1.051207E+0	1.029601E+0	9.785336E-1	9.691628E-1	9.529951E-1	9.716367E-1	9.679571E-1	9.542641E-1	9.803214E-1	9.616060E-1	9.360076E-1	9.632584E-1	9.806660E-1	1.001694E+0	1.023635E+0	9.864568E-1	1.037396E+0	1.018366E+0	9.624944E-1	9.737049E-1	9.800880E-1	1.003028E+0	9.770102E-1	9.907633E-1	9.393944E-1	1.003641E+0	9.469021E-1	9.704750E-1	9.760493E-1	9.939085E-1	1.006193E+0	9.438746E-1	1.020446E+0	9.967166E-1	9.566102E-1	9.931854E-1	9.771185E-1	9.452043E-1	9.640804E-1	9.497951E-1	9.389034E-1	1.005484E+0	1.009158E+0	9.516712E-1	9.642841E-1	9.485195E-1	9.822933E-1	9.366776E-1	9.665524E-1	9.797053E-1	1.016120E+0	1.000782E+0	9.885395E-1	9.586907E-1
5.575130E+2	9.377797E-1	9.138624E-1	9.474998E-1	9.063605E-1	9.605860E-1	9.658066E-1	9.709649E-1	9.429830E-1	9.082068E-1	9.650840E-1	9.895363E-1	9.010878E-1	9.735178E-1	9.432566E-1	9.752604E-1	9.472755E-1	9.641811E-1	9.458602E-1	9.799848E-1	1.007687E+0	9.476912E-1	9.493886E-1	9.613511E-1	9.334403E-1	9.336037E-1	9.499747E-1	9.394729E-1	9.612661E-1	8.978137E-1	9.715886E-1	9.003105E-1	9.385500E-1	9.662769E-1	9.309786E-1	9.176012E-1	9.366019E-1	9.414995E-1	9.584773E-1	9.672053E-1	9.240363E-1	9.460453E-1	9.341893E-1	9.514529E-1	9.370142E-1	9.802802E-1	9.371048E-1	9.419952E-1	9.693622E-1	1.000151E+0	9.595102E-1	9.668660E-1	9.282910E-1	9.917286E-1	9.292422E-1	9.597615E-1	9.481799E-1	9.673010E-1	9.289699E-1	9.624223E-1	9.327136E-1	9.257556E-1	9.553046E-1	9.447047E-1	9.378906E-1	9.715284E-1	9.272985E-1	9.606876E-1	9.837275E-1	9.223304E-1	9.359512E-1	9.761181E-1	9.623885E-1	8.895484E-1	9.855291E-1	9.295507E-1	9.729053E-1	9.805215E-1	9.814726E-1	9.941311E-1	8.957772E-1	1.000331E+0	9.735936E-1	9.687017E-1	9.881686E-1	1.002096E+0	9.121436E-1	9.316390E-1	9.542039E-1	1.015221E+0	9.527437E-1	9.467811E-1	9.597188E-1	9.088004E-1	9.222601E-1	9.257039E-1	9.594282E-1	9.641920E-1	9.579106E-1	9.418983E-1	8.991003E-1	9.973653E-1	9.926425E-1	9.289045E-1	1.014409E+0	1.010948E+0	9.648426E-1	9.442697E-1	9.483116E-1	9.526961E-1	9.510561E-1	9.392087E-1	9.506852E-1	9.107259E-1	9.312898E-1	9.098668E-1	8.973688E-1	9.375277E-1	9.229516E-1	9.402972E-1	1.003773E+0	9.138092E-1	9.888667E-1	9.737587E-1	9.421220E-1	9.568393E-1	9.586235E-1	9.522182E-1	9.207296E-1	9.480362E-1	9.853350E-1	9.735699E-1	9.182893E-1	9.852994E-1	9.675984E-1	9.457859E-1	9.671149E-1	9.518005E-1	9.608414E-1	9.560043E-1	9.860096E-1	9.652480E-1	9.544189E-1	9.263995E-1	9.148660E-1	9.406204E-1	9.431871E-1	9.755020E-1	9.117634E-1	9.644044E-1	9.256002E-1	9.905458E-1	9.871897E-1	9.993004E-1	9.277134E-1	9.291035E-1	9.458843E-1	9.688514E-1	9.996143E-1	9.681702E-1	9.398454E-1	9.502475E-1	9.921855E-1	9.482464E-1	1.000017E+0	9.091261E-1	9.156588E-1
5.580170E+2	1.059595E+0	9.930532E-1	1.071940E+0	9.647028E-1	1.053283E+0	9.961068E-1	1.008409E+0	1.028097E+0	1.025021E+0	1.028146E+0	1.011140E+0	1.020281E+0	9.904521E-1	1.035570E+0	1.041013E+0	1.002729E+0	1.022132E+0	1.049345E+0	1.067663E+0	1.003986E+0	1.024181E+0	1.009985E+0	1.035467E+0	9.964822E-1	9.935304E-1	1.036898E+0	1.031009E+0	1.005336E+0	1.035726E+0	1.090672E+0	1.069930E+0	1.012898E+0	1.055454E+0	1.035170E+0	1.028197E+0	9.885468E-1	1.009812E+0	1.010713E+0	1.038963E+0	1.055917E+0	9.665969E-1	1.008985E+0	1.008637E+0	1.017211E+0	9.854145E-1	1.010718E+0	1.020078E+0	1.012441E+0	1.010285E+0	1.007697E+0	1.006003E+0	9.900377E-1	1.004826E+0	9.897490E-1	9.914191E-1	1.022956E+0	1.047723E+0	1.006335E+0	1.001404E+0	9.888246E-1	1.025320E+0	1.044919E+0	1.071262E+0	1.020933E+0	1.003606E+0	1.024935E+0	9.621888E-1	1.072086E+0	1.035678E+0	1.004025E+0	1.004335E+0	1.036590E+0	1.040180E+0	1.005474E+0	9.900335E-1	1.027381E+0	1.048157E+0	9.700756E-1	1.031402E+0	9.838228E-1	9.885019E-1	9.997096E-1	1.022850E+0	9.986112E-1	9.910060E-1	1.018925E+0	1.050000E+0	1.032562E+0	1.009023E+0	1.047069E+0	9.820625E-1	1.024176E+0	1.014038E+0	1.013955E+0	9.875222E-1	1.010869E+0	1.003224E+0	1.013711E+0	1.019226E+0	1.028264E+0	1.003961E+0	1.038173E+0	1.061919E+0	1.031554E+0	9.874302E-1	1.002143E+0	1.057020E+0	1.040038E+0	1.022611E+0	9.507221E-1	1.042265E+0	1.034399E+0	9.706875E-1	1.018631E+0	1.027037E+0	1.021517E+0	9.996281E-1	1.023973E+0	1.031107E+0	9.796582E-1	9.763195E-1	9.940176E-1	1.028779E+0	1.043997E+0	9.958973E-1	9.935343E-1	1.023760E+0	1.015831E+0	9.921396E-1	1.022277E+0	9.830866E-1	9.847427E-1	1.032437E+0	1.038873E+0	1.002134E+0	9.943064E-1	1.022269E+0	1.020440E+0	9.869941E-1	1.015726E+0	1.030709E+0	9.839763E-1	1.031381E+0	1.007717E+0	1.021745E+0	1.040322E+0	1.013768E+0	1.034201E+0	1.027451E+0	1.003306E+0	9.983802E-1	1.002843E+0	1.017212E+0	1.003697E+0	1.039619E+0	1.005815E+0	9.589352E-1	9.601591E-1	1.008489E+0	1.039779E+0	1.029335E+0	1.035218E+0	1.020530E+0	1.014961E+0	1.033634E+0	1.049164E+0
5.585220E+2	9.809213E-1	9.725535E-1	1.015367E+0	1.027958E+0	9.846497E-1	1.015785E+0	9.973228E-1	1.023467E+0	1.001532E+0	9.941303E-1	1.028540E+0	9.841905E-1	1.031682E+0	9.996823E-1	9.898606E-1	1.024508E+0	9.889384E-1	1.036630E+0	1.049914E+0	1.013563E+0	1.009881E+0	1.034084E+0	1.034639E+0	1.063747E+0	1.019421E+0	9.945339E-1	1.045189E+0	1.000319E+0	9.933950E-1	1.021797E+0	9.901535E-1	1.008188E+0	9.873503E-1	1.019617E+0	1.023844E+0	9.940427E-1	1.028043E+0	1.005156E+0	9.946269E-1	1.039900E+0	1.028261E+0	9.879225E-1	9.589419E-1	9.986579E-1	1.006347E+0	1.009807E+0	9.893914E-1	1.024750E+0	9.972236E-1	1.026828E+0	9.830066E-1	9.977219E-1	9.884285E-1	1.022410E+0	1.020820E+0	1.070394E+0	1.006150E+0	1.085901E+0	1.002477E+0	9.741581E-1	1.063789E+0	1.020005E+0	9.855603E-1	1.012361E+0	9.946626E-1	1.033336E+0	1.015390E+0	9.817813E-1	1.016850E+0	1.024740E+0	1.035128E+0	1.050073E+0	1.014011E+0	9.645820E-1	1.004463E+0	9.852692E-1	1.013825E+0	9.737613E-1	1.004042E+0	1.014933E+0	9.535311E-1	9.999024E-1	1.015017E+0	1.008827E+0	1.003495E+0	9.722360E-1	9.971654E-1	9.942611E-1	9.917089E-1	1.062488E+0	1.040546E+0	1.022653E+0	1.049662E+0	1.051015E+0	1.011960E+0	9.917873E-1	1.042941E+0	1.013576E+0	9.537344E-1	9.892312E-1	1.052881E+0	1.003967E+0	9.826695E-1	1.008489E+0	1.027102E+0	1.059997E+0	1.073450E+0	1.062199E+0	1.042341E+0	9.812473E-1	9.900937E-1	1.055307E+0	1.015741E+0	9.912271E-1	1.059901E+0	1.053150E+0	1.034120E+0	1.051928E+0	9.987858E-1	1.035203E+0	1.030631E+0	1.040157E+0	9.702423E-1	1.013565E+0	1.027743E+0	1.009541E+0	1.004854E+0	1.028467E+0	1.022944E+0	9.983420E-1	9.927587E-1	1.032935E+0	9.887573E-1	9.543700E-1	1.031908E+0	1.010722E+0	1.052636E+0	9.953737E-1	1.024201E+0	9.878533E-1	1.012368E+0	1.029784E+0	1.026101E+0	9.955304E-1	1.035623E+0	1.001912E+0	1.011201E+0	1.054970E+0	1.012917E+0	1.043157E+0	9.818018E-1	1.024757E+0	9.835600E-1	1.018578E+0	1.030726E+0	1.056423E+0	1.045073E+0	9.997441E-1	1.002526E+0	1.024802E+0	1.006768E+0	1.045632E+0	1.013547E+0	9.900518E-1	9.556995E-1	9.588657E-1
5.590210E+2	1.069089E+0	1.060180E+0	1.022228E+0	1.062999E+0	1.061116E+0	1.050034E+0	1.063030E+0	1.035159E+0	1.057887E+0	1.074647E+0	1.085714E+0	1.058559E+0	1.091751E+0	1.079223E+0	1.039600E+0	1.065035E+0	1.062482E+0	1.038141E+0	1.050239E+0	1.028855E+0	1.085937E+0	1.072907E+0	1.050937E+0	1.073228E+0	1.057816E+0	1.055616E+0	1.005165E+0	1.076908E+0	1.070569E+0	1.061646E+0	1.077255E+0	1.048076E+0	1.051567E+0	1.065012E+0	1.078120E+0	1.059923E+0	1.059865E+0	1.009665E+0	1.059495E+0	1.026850E+0	1.122503E+0	1.100973E+0	1.071659E+0	1.074468E+0	1.048334E+0	1.047357E+0	1.053374E+0	1.035992E+0	1.049358E+0	1.059353E+0	1.018631E+0	1.062791E+0	1.083194E+0	1.061525E+0	1.079205E+0	1.041758E+0	1.070396E+0	1.061182E+0	1.035676E+0	1.068757E+0	1.077545E+0	1.044615E+0	1.048034E+0	1.083649E+0	1.043190E+0	1.021398E+0	1.092833E+0	1.075113E+0	1.045955E+0	1.042625E+0	1.089567E+0	1.061849E+0	1.031986E+0	1.051026E+0	1.038522E+0	1.030313E+0	1.097158E+0	1.064969E+0	1.005267E+0	1.068101E+0	1.070079E+0	1.024130E+0	1.017448E+0	1.057063E+0	1.055082E+0	1.079814E+0	1.014876E+0	1.025949E+0	1.032686E+0	1.020953E+0	1.079669E+0	1.037978E+0	1.057856E+0	1.084532E+0	1.043779E+0	1.075131E+0	1.053663E+0	1.042277E+0	1.042713E+0	1.097242E+0	1.066923E+0	1.061554E+0	1.088373E+0	1.027166E+0	1.022530E+0	1.021761E+0	1.074128E+0	1.004582E+0	1.084495E+0	1.028611E+0	1.048117E+0	1.046209E+0	1.008180E+0	1.075271E+0	1.070924E+0	1.115476E+0	1.089253E+0	1.052490E+0	1.053050E+0	1.056601E+0	1.045408E+0	1.088376E+0	1.085609E+0	1.097463E+0	1.081172E+0	1.094361E+0	1.015582E+0	1.009874E+0	1.062879E+0	1.041407E+0	1.101558E+0	1.024659E+0	1.057243E+0	1.089842E+0	1.063914E+0	1.086850E+0	9.947776E-1	1.114314E+0	1.074123E+0	1.063254E+0	1.080586E+0	1.068176E+0	1.072790E+0	1.098214E+0	1.080988E+0	1.069607E+0	1.061950E+0	1.096921E+0	1.064744E+0	1.085208E+0	1.071369E+0	1.062123E+0	1.043462E+0	1.000594E+0	1.050158E+0	1.051563E+0	1.047193E+0	1.060688E+0	1.053877E+0	1.078408E+0	1.044787E+0	1.074467E+0	1.013397E+0	1.051218E+0	1.008814E+0	1.120500E+0
5.595110E+2	1.045899E+0	1.066262E+0	1.020741E+0	1.035059E+0	1.073957E+0	1.009490E+0	1.024753E+0	1.066918E+0	1.018657E+0	1.049578E+0	1.040500E+0	1.032169E+0	9.727611E-1	1.034123E+0	9.795165E-1	9.868975E-1	9.861203E-1	1.081178E+0	9.877176E-1	1.068145E+0	1.035027E+0	9.881536E-1	1.008147E+0	1.062127E+0	1.026171E+0	1.004661E+0	1.002158E+0	1.021562E+0	1.051079E+0	9.908986E-1	1.015871E+0	1.056206E+0	1.029180E+0	1.035093E+0	1.058659E+0	1.081245E+0	1.030738E+0	1.050330E+0	1.050835E+0	1.005851E+0	1.013744E+0	1.041939E+0	1.005874E+0	9.870981E-1	1.039599E+0	1.032627E+0	1.016321E+0	9.766202E-1	1.037875E+0	9.907641E-1	1.058258E+0	1.013301E+0	1.012661E+0	1.034001E+0	1.025618E+0	9.687131E-1	1.028973E+0	9.975854E-1	9.941905E-1	9.930547E-1	1.035176E+0	1.046716E+0	1.050577E+0	9.826178E-1	1.036990E+0	1.009563E+0	9.897853E-1	1.056484E+0	1.022636E+0	1.020331E+0	1.001831E+0	1.008380E+0	1.014953E+0	1.039152E+0	1.035535E+0	1.043794E+0	1.011314E+0	1.033816E+0	1.056405E+0	1.046012E+0	1.011508E+0	1.020859E+0	1.070858E+0	9.735011E-1	1.047604E+0	1.035833E+0	1.021411E+0	1.048283E+0	1.060488E+0	1.003291E+0	1.001369E+0	1.010996E+0	1.058099E+0	1.023722E+0	1.060564E+0	1.028743E+0	1.041486E+0	1.035548E+0	1.002256E+0	1.002230E+0	9.958411E-1	1.024855E+0	1.014554E+0	1.034896E+0	9.754669E-1	9.702544E-1	1.051126E+0	1.007418E+0	1.028612E+0	1.036709E+0	1.033627E+0	1.039589E+0	1.058882E+0	1.015308E+0	1.075748E+0	1.056112E+0	9.934051E-1	9.916906E-1	1.010906E+0	9.581774E-1	1.071748E+0	9.643124E-1	1.015090E+0	1.010911E+0	1.017288E+0	9.968008E-1	1.039027E+0	1.053192E+0	9.803325E-1	1.001730E+0	1.027767E+0	1.061662E+0	1.021451E+0	1.058277E+0	1.018497E+0	1.040697E+0	1.045665E+0	1.029345E+0	1.005890E+0	1.030346E+0	1.002516E+0	1.044390E+0	1.023554E+0	1.036069E+0	9.983432E-1	1.007382E+0	1.017212E+0	9.576681E-1	1.025171E+0	1.029082E+0	1.012461E+0	1.070802E+0	1.039798E+0	1.091639E+0	1.040315E+0	1.005229E+0	1.026296E+0	1.031027E+0	1.037126E+0	1.037712E+0	9.797299E-1	1.008445E+0	1.059262E+0	1.011188E+0	1.092664E+0	1.087958E+0
5.600520E+2	1.004780E+0	1.014857E+0	9.925261E-1	1.001004E+0	9.678293E-1	1.027268E+0	1.006554E+0	9.436630E-1	9.725614E-1	9.657272E-1	9.338565E-1	9.916035E-1	1.034394E+0	9.701783E-1	1.033189E+0	9.633736E-1	1.014637E+0	9.840411E-1	9.597428E-1	9.984111E-1	9.800501E-1	9.931419E-1	9.791845E-1	9.515143E-1	9.591453E-1	9.952969E-1	1.008041E+0	9.982662E-1	1.015845E+0	1.000493E+0	9.973667E-1	9.768381E-1	9.919485E-1	9.445634E-1	9.794481E-1	1.013753E+0	9.848376E-1	9.908883E-1	9.709679E-1	9.929544E-1	9.785690E-1	9.969657E-1	9.965432E-1	1.010771E+0	1.004300E+0	1.000018E+0	9.637866E-1	1.061212E+0	9.802041E-1	1.050971E+0	9.975470E-1	1.018849E+0	1.004240E+0	9.957844E-1	9.829160E-1	1.012446E+0	1.000854E+0	1.005264E+0	9.906173E-1	9.928286E-1	9.958311E-1	1.005055E+0	9.798049E-1	9.858626E-1	1.014992E+0	9.791870E-1	9.588117E-1	9.596270E-1	1.005412E+0	1.000259E+0	1.009533E+0	9.865677E-1	1.037848E+0	9.833430E-1	1.051743E+0	9.939925E-1	9.510996E-1	9.948679E-1	9.421962E-1	9.783575E-1	1.059708E+0	9.958129E-1	9.663844E-1	9.975630E-1	9.985841E-1	1.003014E+0	9.909838E-1	1.027537E+0	9.673809E-1	9.924182E-1	1.004294E+0	1.008986E+0	9.858161E-1	9.841160E-1	9.463364E-1	9.761612E-1	1.003308E+0	9.880808E-1	1.010236E+0	1.007277E+0	9.902036E-1	1.003260E+0	1.037170E+0	9.917851E-1	9.421980E-1	1.025672E+0	9.370197E-1	1.015523E+0	9.806505E-1	1.023601E+0	1.008604E+0	9.116200E-1	9.888630E-1	9.765255E-1	9.753660E-1	9.652629E-1	1.011146E+0	9.651303E-1	1.007460E+0	1.020638E+0	9.812681E-1	9.769997E-1	1.006808E+0	9.874446E-1	9.432349E-1	9.929161E-1	9.487233E-1	9.756658E-1	9.883785E-1	1.020729E+0	9.956822E-1	1.008917E+0	9.621074E-1	9.380281E-1	9.918506E-1	9.771121E-1	9.449300E-1	9.642835E-1	1.020997E+0	9.924764E-1	9.636267E-1	9.803593E-1	9.450538E-1	9.732073E-1	9.395500E-1	9.700040E-1	9.979976E-1	9.601931E-1	9.627522E-1	9.388766E-1	9.849592E-1	9.422390E-1	9.387618E-1	9.704597E-1	9.858762E-1	9.927398E-1	9.476622E-1	9.815242E-1	9.727763E-1	9.404885E-1	9.749945E-1	9.670093E-1	9.836766E-1	1.019133E+0	9.768636E-1	9.463760E-1
5.605090E+2	1.014610E+0	9.978827E-1	1.014266E+0	1.046484E+0	1.009712E+0	1.024641E+0	1.054995E+0	1.016502E+0	1.046535E+0	1.020408E+0	1.038207E+0	1.048047E+0	9.815732E-1	1.024849E+0	1.052440E+0	1.064756E+0	1.049110E+0	9.951930E-1	9.919167E-1	9.859222E-1	1.017579E+0	1.089893E+0	1.000607E+0	1.033421E+0	1.043301E+0	1.039951E+0	1.002196E+0	1.006621E+0	1.051585E+0	1.001404E+0	1.038147E+0	1.027911E+0	9.981563E-1	1.047081E+0	9.955639E-1	1.023404E+0	1.045823E+0	1.022635E+0	1.014636E+0	1.030409E+0	1.044115E+0	1.007228E+0	1.035749E+0	1.049630E+0	1.017984E+0	1.012479E+0	1.024151E+0	1.025336E+0	1.011796E+0	1.011533E+0	1.039097E+0	1.025974E+0	9.827473E-1	1.046881E+0	1.046125E+0	1.032168E+0	9.832130E-1	1.091042E+0	1.056654E+0	1.059941E+0	9.946250E-1	1.015060E+0	9.503758E-1	1.023779E+0	1.022346E+0	1.031929E+0	9.923236E-1	1.008380E+0	1.018479E+0	1.054119E+0	1.028875E+0	1.015836E+0	9.516057E-1	1.025007E+0	9.675545E-1	1.032674E+0	9.987386E-1	1.030039E+0	1.028747E+0	1.067629E+0	1.014518E+0	1.060949E+0	9.945239E-1	1.049227E+0	9.877781E-1	1.026871E+0	1.033261E+0	1.003709E+0	9.947963E-1	9.892181E-1	1.025789E+0	9.713238E-1	1.026775E+0	1.045341E+0	1.034720E+0	1.029725E+0	9.919232E-1	1.016721E+0	1.042722E+0	1.020766E+0	1.019492E+0	1.067032E+0	1.017917E+0	1.006251E+0	1.008000E+0	1.026343E+0	9.954234E-1	1.014695E+0	9.877098E-1	1.035606E+0	9.730276E-1	1.038394E+0	1.017503E+0	1.030199E+0	9.733542E-1	9.931115E-1	9.974744E-1	1.058822E+0	1.047603E+0	1.064500E+0	9.966274E-1	1.034440E+0	1.051680E+0	1.004198E+0	1.001555E+0	1.018698E+0	1.000157E+0	1.032612E+0	1.002844E+0	9.986703E-1	1.018188E+0	1.065916E+0	9.724681E-1	9.881324E-1	1.019035E+0	9.961983E-1	1.122117E+0	1.005072E+0	1.017870E+0	1.060680E+0	1.032012E+0	1.018014E+0	1.016879E+0	1.046175E+0	1.031560E+0	9.978711E-1	1.006854E+0	1.043434E+0	9.958215E-1	1.068715E+0	1.014023E+0	9.870851E-1	1.026549E+0	1.017695E+0	9.989405E-1	9.917495E-1	1.047039E+0	1.034268E+0	1.001131E+0	1.021348E+0	1.001987E+0	9.831792E-1	1.039996E+0	9.869140E-1	1.077714E+0	1.092500E+0
5.610180E+2	9.730317E-1	1.005762E+0	9.750282E-1	1.028571E+0	9.497114E-1	1.004893E+0	9.848478E-1	1.024119E+0	9.724843E-1	9.889442E-1	9.860502E-1	1.023929E+0	9.898701E-1	9.907620E-1	9.600984E-1	9.887177E-1	9.677902E-1	9.997419E-1	9.793770E-1	9.672400E-1	9.634796E-1	1.000504E+0	1.010941E+0	9.774892E-1	1.035950E+0	9.531978E-1	9.894334E-1	9.700693E-1	9.874267E-1	9.185903E-1	9.935284E-1	1.025914E+0	9.855265E-1	1.028158E+0	1.002672E+0	1.010895E+0	9.966642E-1	9.961586E-1	9.774749E-1	9.605500E-1	9.936420E-1	9.690446E-1	9.627112E-1	9.733306E-1	9.861201E-1	9.877748E-1	1.023853E+0	1.005613E+0	9.837537E-1	9.851086E-1	9.885570E-1	1.033847E+0	9.939476E-1	9.618723E-1	9.593154E-1	9.868080E-1	9.518871E-1	9.501001E-1	9.833144E-1	1.047532E+0	1.006144E+0	9.658307E-1	1.046886E+0	1.021004E+0	9.417468E-1	1.001319E+0	1.047887E+0	9.750899E-1	9.915434E-1	1.003061E+0	9.640724E-1	9.570876E-1	1.024829E+0	1.042141E+0	1.058704E+0	1.013297E+0	1.000817E+0	1.010375E+0	9.966638E-1	1.030168E+0	9.926368E-1	9.909556E-1	9.948064E-1	9.718423E-1	9.822683E-1	9.950929E-1	9.699701E-1	9.959799E-1	9.749424E-1	9.787216E-1	9.909990E-1	1.032876E+0	9.967240E-1	9.684260E-1	9.860724E-1	1.001133E+0	1.005436E+0	1.002355E+0	9.879983E-1	1.014363E+0	9.720163E-1	9.817576E-1	9.784340E-1	1.007182E+0	1.027128E+0	1.011020E+0	9.692808E-1	9.981830E-1	9.731159E-1	1.034351E+0	1.014784E+0	1.007086E+0	1.003868E+0	9.965799E-1	9.490398E-1	1.009254E+0	9.944812E-1	1.002350E+0	1.017282E+0	9.984890E-1	1.049602E+0	1.001501E+0	1.000838E+0	9.787308E-1	9.996407E-1	9.930029E-1	1.037194E+0	9.776070E-1	9.789672E-1	9.668143E-1	9.834625E-1	9.633771E-1	1.021922E+0	9.875485E-1	9.812287E-1	9.913935E-1	9.820605E-1	1.002480E+0	9.805784E-1	9.682159E-1	1.007322E+0	9.808128E-1	9.818263E-1	9.880121E-1	9.638189E-1	1.021599E+0	9.997785E-1	9.811100E-1	9.968406E-1	1.009820E+0	9.908842E-1	1.019692E+0	1.013880E+0	1.007481E+0	9.798314E-1	1.002394E+0	1.012102E+0	9.815606E-1	9.717857E-1	1.030715E+0	1.087642E+0	9.463090E-1	9.568614E-1	9.761198E-1	9.640634E-1	9.407088E-1
