Photon Energy (eV)	#1	#2	#3	#4	#5	#6	#7	#8	#9	#10	#11	#12	#13	#14	#15	#16	#17	#18	#19	#20	#21	#22	#23	#24	#25	#26	#27	#28	#29	#30	#31	#32	#33	#34	#35	#36	#37	#38	#39	#40	#41	#42	#43	#44	#45	#46	#47	#48	#49	#50	#51	#52	#53	#54	#55	#56	#57	#58	#59	#60	#61	#62	#63	#64	#65	#66	#67	#68	#69	#70	#71	#72	#73	#74	#75	#76	#77	#78	#79	#80	#81	#82	#83	#84	#85	#86	#87	#88	#89	#90	#91	#92	#93	#94	#95	#96	#97	#98	#99	#100	#101	#102	#103	#104	#105	#106	#107	#108	#109	#110	#111	#112	#113	#114	#115	#116	#117	#118	#119	#120	#121	#122	#123	#124	#125	#126	#127	#128	#129	#130	#131	#132	#133	#134	#135	#136	#137	#138	#139	#140	#141	#142	#143	#144	#145	#146	#147	#148	#149	#150	#151	#152	#153	#154	#155	#156	#157	#158	#159	#160	#161	#162	#163	#164	#165	
5.300160E+2	7.729523E-3	-2.888647E-3	-4.960963E-3	-1.555011E-2	-2.767556E-3	-1.920355E-2	3.788159E-4	-1.310492E-2	-9.254133E-3	-9.811988E-4	-8.256288E-3	-4.905511E-3	3.374961E-4	-1.199338E-3	-6.430693E-3	-7.598024E-3	-5.553652E-3	-1.002284E-2	-1.359517E-2	-1.074838E-2	9.447614E-3	-1.954053E-3	-3.956386E-3	-6.302069E-3	-6.242879E-3	-5.474360E-3	-6.711882E-3	-4.145088E-3	-1.003896E-2	-4.534375E-3	-8.950679E-3	-8.285880E-3	-1.362099E-3	-1.199199E-2	-7.468077E-3	-7.437357E-3	-1.120436E-2	-1.326032E-3	-3.557450E-3	-8.729828E-3	-2.130425E-2	-6.364487E-3	-1.129817E-2	-4.759949E-3	-9.877002E-3	-1.716462E-2	-7.357594E-3	-9.411785E-3	-3.869018E-3	-4.324257E-3	7.902976E-4	-5.546533E-3	-6.332668E-3	2.583863E-4	-2.320148E-3	-1.007650E-2	-5.772902E-3	-1.189876E-2	-3.427337E-3	-7.500863E-3	-3.423383E-3	-9.895469E-3	-4.591709E-3	-3.622582E-4	2.189761E-3	-1.638436E-2	-5.678312E-3	-8.602491E-3	-1.759142E-3	-6.817600E-3	-4.687769E-3	-9.471580E-3	-8.469832E-3	2.455951E-4	-5.774155E-3	-2.374697E-3	-1.239536E-2	-2.426990E-3	-3.081004E-3	-4.095633E-3	-1.309267E-3	-2.918956E-3	-1.037403E-2	-1.212910E-2	-6.952015E-3	-1.114093E-2	-5.412774E-3	-8.126256E-3	-2.704994E-3	5.692180E-3	-1.290496E-2	-1.109049E-2	-1.072149E-2	-8.004762E-3	-4.037096E-3	-1.520166E-2	-1.611208E-2	-3.947625E-3	-1.186701E-2	-1.076796E-2	-5.201960E-3	-8.814082E-3	-1.048582E-2	-3.602444E-3	-9.033090E-3	-1.126904E-2	4.060510E-3	5.442649E-4	1.450604E-3	-5.741152E-3	-7.668154E-3	-2.630314E-3	-1.374992E-2	2.213756E-3	-1.092528E-2	-1.051978E-3	-8.502315E-3	-1.176678E-2	-6.365114E-3	-1.073780E-2	-5.390760E-3	-1.201688E-3	-5.962625E-3	-6.574269E-3	6.061462E-3	-2.718115E-3	-8.285457E-3	-3.214796E-3	-2.714196E-3	-1.440475E-3	-2.445425E-3	-8.293371E-3	9.237040E-3	2.523727E-3	-7.122138E-4	4.793150E-5	-6.739678E-3	-2.112035E-2	-3.956894E-4	2.347687E-3	-1.666630E-3	-2.282421E-3	-4.653427E-3	-8.398012E-3	-1.240450E-2	-4.765684E-3	-7.898165E-3	1.615169E-3	-8.956996E-3	-6.037369E-3	4.035309E-3	-1.426693E-2	-4.804151E-3	1.175573E-2	-4.810764E-3	-7.061557E-3	-1.240910E-2	-4.574343E-3	-4.765129E-3	-8.252758E-3	-1.218487E-2	-9.150187E-3	4.904003E-3	-1.019931E-2	-8.909064E-3
5.305130E+2	-4.056678E-3	-1.580791E-2	-6.558109E-3	5.874054E-5	-6.771531E-3	-5.792768E-5	-1.831056E-2	-9.362543E-3	-1.230901E-2	-3.333777E-3	4.654831E-3	-1.708003E-3	-7.150159E-3	-6.518678E-3	2.320810E-4	-3.177101E-4	-1.085812E-3	-1.012058E-3	-1.436288E-2	-8.307739E-3	-7.885061E-3	-1.159328E-2	-1.434688E-2	-1.236052E-2	4.602336E-3	-7.764946E-3	-2.279743E-3	-7.766604E-3	-3.422544E-3	-6.517809E-3	-1.168620E-2	2.983553E-3	-7.863717E-3	-6.815733E-3	-5.053982E-3	1.013316E-2	5.353399E-4	-4.156089E-3	-2.041895E-3	2.532102E-3	3.303721E-3	5.247437E-3	-1.020564E-2	-7.888584E-3	-2.306203E-3	-1.219411E-3	-7.602667E-3	2.208607E-3	-1.362105E-2	-5.158295E-3	-3.638402E-3	-2.359666E-3	-8.487921E-3	-1.123151E-2	-1.498878E-3	-7.150335E-3	8.250040E-4	-4.243053E-3	-4.994509E-3	-8.986185E-3	5.651258E-4	5.484251E-4	-9.396167E-3	-7.265936E-3	-9.697340E-3	-2.346638E-3	9.202614E-4	-1.226030E-2	-2.001108E-3	-1.012783E-2	-8.619884E-3	-8.120203E-3	-7.075849E-3	-1.278474E-2	-2.270153E-3	-1.062649E-2	-5.352598E-3	-1.110041E-2	-1.033250E-3	-5.830109E-3	-4.099652E-3	-1.491070E-3	-3.947203E-4	-3.908849E-3	-1.560372E-2	-7.034152E-3	-5.114471E-3	-4.376029E-3	-2.925073E-3	-8.488711E-3	-1.160627E-2	-7.111213E-3	3.864920E-4	1.378639E-3	5.657202E-4	-1.830482E-3	1.308788E-2	-8.792590E-3	-7.944287E-3	-3.646457E-3	-7.672366E-4	-1.835906E-3	-2.106539E-3	-4.338960E-3	-1.057457E-2	4.038279E-3	-9.476898E-4	-1.340172E-2	-3.369014E-3	-4.238374E-3	-6.401852E-3	-4.896252E-3	-4.908438E-3	-8.773640E-3	-4.528041E-3	-2.064425E-3	-4.852987E-3	-7.268972E-3	-7.639932E-4	8.959519E-4	-8.518553E-4	-4.372871E-3	-3.321911E-3	-5.421479E-3	-1.008193E-2	-9.443205E-3	-8.476319E-3	-1.274022E-2	-3.592502E-3	-3.042724E-4	-4.831840E-3	-1.388833E-3	-1.060723E-2	9.221180E-4	2.321429E-3	4.030779E-3	-1.318167E-2	-3.460191E-3	3.514615E-3	-1.141638E-2	-2.646293E-3	-1.018810E-2	-8.403284E-3	-3.636692E-3	-7.554598E-3	-9.908388E-3	-4.707055E-3	2.153888E-3	-6.093331E-3	2.259666E-3	-2.128990E-3	-3.090024E-3	-1.175983E-4	-1.672520E-2	-9.717050E-4	-1.181599E-2	-2.770911E-3	-7.317810E-3	-8.455853E-3	2.554151E-3	1.704883E-3	-6.458798E-4	-1.917509E-2	6.489773E-3	-6.814055E-3
5.310150E+2	-8.089055E-3	-3.317415E-4	-2.647343E-3	1.597961E-3	-6.857080E-3	-3.659750E-3	7.031171E-4	4.751089E-3	-6.270033E-3	-5.447606E-3	-2.616093E-3	1.662449E-3	-1.970273E-3	-2.738567E-3	-4.081657E-3	2.868027E-3	-5.775393E-3	-7.827795E-3	-5.258957E-3	-8.368283E-3	-2.989998E-3	-4.588220E-3	2.233919E-3	-7.876627E-4	-1.586778E-2	-6.511386E-3	-4.342518E-3	3.990415E-3	2.223673E-3	-2.117813E-3	-4.757617E-3	-5.854276E-3	2.474501E-3	-1.022996E-2	-6.201883E-4	-4.543391E-3	-6.988078E-3	-7.311794E-3	-3.459511E-4	-7.272945E-3	-3.692815E-3	-5.820423E-3	-5.977629E-3	-2.613892E-3	-1.273178E-3	-3.017583E-3	-3.750906E-3	1.021579E-3	-6.235082E-3	-9.169707E-3	-7.164919E-3	-8.474597E-3	-3.295126E-3	-4.263929E-3	-5.790074E-3	-3.905434E-4	-6.000346E-3	1.165967E-3	-3.102790E-3	-3.617348E-3	-8.701716E-3	-8.411991E-3	-4.604508E-4	-1.652332E-3	4.503939E-3	-6.396151E-3	6.938536E-3	-1.556297E-3	-3.801587E-3	-3.438150E-3	-1.991978E-3	2.876892E-3	1.364657E-3	-3.843815E-3	-3.752709E-3	-6.073121E-3	-7.160242E-3	-2.156915E-3	-1.584324E-3	-4.427031E-3	-6.590728E-3	9.924541E-4	-1.110237E-2	-9.951855E-3	-4.767257E-3	-2.829452E-3	-2.015246E-3	-1.264155E-2	-5.347482E-4	-8.776071E-4	-9.439887E-4	6.560559E-3	1.058837E-3	1.944969E-3	-9.953214E-3	-8.577283E-3	-7.211316E-3	-4.183308E-3	-1.884661E-3	-3.090343E-3	8.262335E-4	5.562065E-4	-8.792719E-4	-1.249583E-2	4.601616E-3	-4.065442E-3	2.320262E-3	2.182812E-3	3.704795E-4	-1.389718E-2	-9.632303E-3	4.124672E-4	1.354800E-3	-4.129106E-3	-1.921426E-3	-4.579529E-3	-6.017027E-3	-1.472100E-3	-1.433692E-3	-5.025861E-3	-1.486626E-3	-4.429661E-3	-5.499623E-3	-7.651041E-3	-4.523139E-3	5.715639E-3	-1.229531E-2	-1.033813E-2	-9.685835E-3	-4.638308E-3	2.355078E-3	-5.368980E-3	-1.395335E-3	-7.434805E-3	-1.835898E-3	-1.598224E-2	-1.164913E-2	-5.718505E-3	2.057807E-3	5.293056E-4	-6.416336E-3	-9.058093E-3	6.450723E-5	-1.821559E-3	2.820457E-3	-3.667183E-3	2.631356E-3	-2.770829E-3	3.780655E-5	-5.003603E-3	-7.210226E-3	-1.757413E-3	-2.577943E-3	-2.045373E-3	-8.519549E-3	-5.011380E-3	6.550621E-4	1.052462E-5	-5.096840E-3	-8.525096E-3	-6.465775E-3	-7.094869E-4	-5.441572E-3	-1.347138E-3	-1.282990E-2
5.315130E+2	1.923444E-3	-9.461903E-4	-2.554541E-3	-4.000443E-3	-1.030825E-4	6.706741E-4	7.898557E-3	4.130164E-3	9.878122E-3	-6.697585E-3	1.424080E-3	-5.138865E-3	6.022514E-3	-2.619120E-3	-4.502546E-3	-4.053483E-3	5.083938E-3	5.179219E-3	7.595436E-4	1.824213E-3	2.346275E-4	-3.381129E-3	-1.194694E-3	5.165280E-3	-4.876980E-4	-2.395646E-3	5.689585E-3	-1.036690E-2	4.659056E-3	-2.546126E-3	4.921428E-3	-1.893004E-3	-4.147836E-3	-4.102595E-3	8.130403E-4	-7.605468E-3	1.109450E-3	9.500788E-3	-9.388645E-3	2.026912E-3	-7.394418E-3	8.843674E-4	5.423244E-3	5.668991E-3	-1.733904E-3	-1.736057E-3	8.624989E-4	-5.034128E-4	-4.765389E-3	6.436519E-3	-7.050016E-3	2.258607E-3	-5.675041E-4	1.724337E-3	-3.848091E-3	-4.230266E-3	1.646261E-3	-4.982934E-3	4.606812E-3	-6.884267E-3	-3.686108E-3	4.126314E-3	-1.452879E-3	-2.632509E-3	-3.784520E-3	-4.221249E-3	-5.760173E-3	-4.108297E-3	-4.243678E-3	-2.089281E-3	8.480205E-3	1.289338E-3	-1.070517E-2	-3.728348E-3	2.116852E-3	-4.585647E-3	5.580993E-3	-2.029287E-3	9.510162E-4	3.407894E-3	-2.048367E-3	2.708812E-3	3.695257E-4	3.042213E-3	-4.224435E-4	-2.703208E-3	-1.281353E-2	2.386078E-3	1.169648E-3	-7.662931E-3	9.899962E-3	-5.035425E-4	-3.431561E-3	1.482112E-3	-6.515772E-3	2.123912E-3	-5.369060E-3	-1.331275E-2	-2.408873E-3	-2.963078E-3	-8.444486E-3	-5.942805E-3	2.314173E-3	-7.233697E-3	-4.317292E-3	-3.209650E-3	-4.785918E-3	6.236718E-4	1.181403E-3	-4.148003E-3	6.598626E-4	-8.787411E-3	-3.762706E-3	-3.983770E-3	-5.031451E-3	-8.111264E-3	-8.257742E-3	8.617330E-3	-3.208930E-3	-5.600489E-3	3.673460E-3	5.087441E-3	1.774125E-3	6.131922E-3	1.291389E-3	-7.025179E-3	-5.866870E-3	2.579613E-4	5.440345E-3	-8.774206E-3	-1.092617E-3	-1.093982E-2	-4.748023E-3	1.015479E-3	-9.761681E-4	-1.304249E-3	4.902188E-4	1.053061E-2	-1.455748E-2	-1.557481E-3	1.811006E-3	-7.777619E-3	-2.056733E-3	-2.306811E-3	-3.307329E-3	-4.933779E-3	-5.311005E-3	-1.028070E-3	3.282216E-3	-5.536139E-3	-7.711496E-3	-1.631804E-3	3.159747E-3	-5.794707E-3	-1.113322E-2	7.341044E-3	-1.980062E-3	-1.093969E-2	7.103821E-4	-1.185374E-2	-1.898417E-3	-9.870219E-3	1.078707E-2	7.169968E-4	-9.723467E-3
5.320070E+2	-8.596240E-3	1.169236E-2	7.034192E-3	-3.178804E-3	-3.037688E-3	4.923822E-3	-5.758611E-4	-3.403780E-4	3.017862E-3	3.533055E-3	1.450777E-3	3.908271E-3	1.450985E-3	-4.786640E-3	3.002296E-3	4.137220E-3	-7.190741E-3	-5.853728E-3	1.194567E-2	-1.302879E-3	-2.225621E-3	3.739304E-3	-4.133607E-3	4.038739E-3	-1.188846E-3	3.059784E-4	-5.524356E-3	-3.086334E-3	-7.920880E-3	4.150106E-3	-2.064684E-3	5.840307E-3	-9.036799E-3	5.292117E-3	-1.701385E-3	-1.227145E-3	-5.614117E-4	-1.329608E-2	-3.173762E-3	-7.607004E-3	1.140337E-3	-2.742966E-3	-1.975862E-3	-6.468174E-3	7.576143E-4	-4.702901E-4	-1.031651E-2	-3.811888E-3	5.476198E-3	8.030912E-5	4.624394E-3	-2.793247E-4	-1.092006E-3	1.256050E-3	-3.126494E-3	4.959716E-3	-5.882372E-3	1.421034E-3	-9.745936E-3	2.676912E-3	-1.031279E-2	-3.184534E-3	9.251014E-3	6.415010E-3	-5.716076E-3	5.995838E-3	-1.453077E-2	-7.473824E-5	-5.391875E-3	9.566226E-3	-5.453952E-3	-2.170056E-3	3.025642E-3	5.286268E-3	2.129811E-3	6.337991E-3	8.036047E-3	-8.442790E-3	-2.026196E-3	-9.236417E-3	3.034941E-3	-7.712201E-3	-2.733224E-3	-5.437002E-3	2.614241E-3	2.976550E-3	4.205180E-3	1.162730E-3	-5.915196E-3	-5.346988E-3	4.561899E-3	-4.028481E-3	-2.094520E-3	-5.699865E-3	-3.715902E-3	9.222400E-3	-1.040342E-3	1.250954E-2	-2.348471E-3	6.628332E-3	9.817949E-4	2.541893E-3	-2.560671E-3	9.975923E-3	-6.569468E-3	-2.457806E-3	-8.056997E-3	6.192555E-3	-8.219473E-3	9.752857E-3	2.310502E-3	2.498423E-3	-1.063858E-2	7.194538E-4	-3.030482E-3	-7.118362E-4	1.351090E-3	-3.620892E-3	5.920213E-3	5.845392E-3	-3.212395E-3	-6.719984E-4	-1.770843E-3	-7.708830E-3	-2.365372E-3	4.466624E-5	3.651962E-3	-4.739536E-4	-1.159559E-3	-1.573916E-3	-4.671385E-3	6.723160E-3	-1.792239E-4	-2.783482E-3	-5.012550E-3	-3.515551E-3	1.178968E-2	9.107595E-3	-1.938172E-3	-3.395654E-3	-1.819676E-3	8.612370E-3	1.411647E-3	4.306126E-4	1.376063E-2	-4.869240E-3	2.871637E-3	-1.381040E-3	-3.905013E-3	1.094234E-2	-1.334397E-3	9.657891E-3	-5.505821E-3	3.574574E-3	1.209217E-3	1.136699E-3	-8.227739E-3	1.431196E-3	1.916948E-4	4.048623E-3	-3.332110E-3	-2.412226E-3	4.718946E-4	-1.481465E-2	1.125595E-2
5.325070E+2	-6.726029E-4	-8.937657E-4	-2.523678E-3	1.742367E-3	5.852819E-3	9.185944E-3	8.660416E-4	1.316728E-2	-5.371591E-3	8.325483E-3	-6.382843E-3	-1.616857E-3	-3.785709E-3	7.358633E-3	5.713789E-3	-4.526133E-3	1.291185E-3	4.015499E-3	-1.150592E-3	1.515431E-2	1.540882E-3	7.050754E-3	3.037548E-3	6.411143E-3	9.047952E-3	3.674752E-3	1.105282E-2	8.821974E-3	3.595947E-3	8.609779E-4	6.263837E-3	-1.817798E-3	3.909167E-3	1.202417E-2	9.404241E-4	5.163143E-3	-1.665206E-3	2.835868E-3	7.236029E-3	1.428435E-2	8.837788E-3	5.350332E-3	1.564449E-2	-5.093489E-3	4.367120E-3	5.887361E-3	9.944717E-3	-2.031440E-3	1.097394E-2	5.292446E-3	1.922769E-3	3.051891E-3	1.003805E-2	6.542564E-3	1.023140E-2	-1.834506E-3	-1.322654E-3	9.118654E-3	-4.203124E-3	2.719874E-3	6.814189E-3	4.772355E-3	7.048625E-3	1.976799E-3	-1.130197E-3	7.388048E-3	3.081038E-3	8.674404E-3	1.191898E-3	7.781056E-3	6.858583E-4	3.117853E-3	1.068691E-2	6.074360E-3	6.490447E-3	7.065188E-3	2.108461E-3	8.324815E-3	-1.364835E-3	1.799450E-4	4.347630E-3	-2.044127E-3	1.125710E-2	1.037332E-2	9.905321E-3	1.601107E-3	6.691443E-3	6.194916E-3	1.254299E-3	6.977351E-3	-3.446306E-3	4.633265E-3	2.565366E-3	5.765661E-3	9.091851E-3	5.742630E-3	-1.873827E-3	7.932337E-3	9.249548E-3	-1.620350E-3	-4.358449E-3	2.589754E-3	1.403925E-2	3.157741E-3	1.310469E-2	3.463091E-3	3.182981E-3	-4.174049E-3	4.405441E-3	4.983197E-3	1.040643E-2	4.239316E-3	1.354853E-2	4.770694E-3	1.480466E-2	9.395018E-3	5.227848E-3	4.614607E-3	-5.097236E-3	8.906888E-3	3.084407E-3	5.148612E-3	1.040971E-2	1.007013E-3	-4.195985E-3	1.359170E-2	1.318648E-2	8.709118E-3	4.990788E-3	-1.035152E-4	1.502163E-2	3.517051E-3	-2.004439E-3	1.099256E-3	-3.609061E-3	-4.628976E-3	6.238770E-3	-1.124036E-3	-3.305052E-3	8.537670E-3	2.033668E-3	1.043223E-2	4.326126E-3	6.864443E-3	-9.937485E-6	7.145068E-3	2.959207E-3	-4.405685E-3	-6.196067E-3	-7.400948E-3	3.162946E-3	-2.946660E-3	-4.568125E-3	-1.046584E-3	5.373541E-3	4.240607E-3	1.704158E-2	-1.603478E-3	9.360845E-3	1.102232E-2	9.632985E-3	3.245836E-3	6.337913E-3	9.908129E-3	5.616534E-3
5.330180E+2	1.176161E-2	9.175902E-3	1.221044E-2	1.933029E-2	1.368412E-2	8.140791E-3	9.039893E-3	7.593051E-4	2.030878E-2	4.601629E-3	9.725536E-3	7.798517E-3	5.095147E-3	1.050371E-2	6.066730E-3	9.490102E-3	1.323048E-2	1.552170E-2	2.166238E-2	1.174876E-2	1.877556E-3	1.072662E-2	1.836009E-2	3.835094E-3	1.013691E-2	1.816561E-2	2.116090E-3	1.255254E-2	1.090371E-2	1.070504E-2	1.627392E-2	9.027098E-3	1.602678E-2	1.582399E-2	1.309017E-2	5.517063E-3	1.877427E-2	1.375334E-2	1.127167E-2	4.766409E-3	1.910963E-2	3.445740E-3	8.389576E-3	2.115510E-2	1.006555E-2	1.772060E-2	1.822046E-2	1.252834E-2	1.204040E-2	6.842984E-3	1.051588E-2	1.134962E-2	9.737171E-3	5.714097E-3	6.352281E-3	1.872244E-2	1.650701E-2	9.419087E-3	2.086688E-2	2.159188E-2	1.874468E-2	1.204490E-2	-3.984329E-4	3.521226E-3	1.363443E-2	1.596451E-2	1.502942E-2	1.792772E-2	1.600549E-2	5.125583E-3	1.158752E-2	1.247776E-2	1.117364E-2	8.750677E-3	1.059907E-3	1.025677E-2	9.182703E-3	1.783158E-2	8.138593E-3	2.000135E-2	6.665442E-3	1.046509E-2	1.297772E-2	1.801128E-2	1.522587E-2	1.913009E-2	1.445940E-2	1.540011E-2	9.656064E-3	9.706705E-3	1.443966E-2	1.153991E-2	1.223687E-2	3.133245E-3	1.456441E-2	8.520477E-3	1.851875E-2	9.794398E-3	1.720375E-2	1.545986E-2	1.696410E-2	1.090494E-2	-3.211197E-4	1.453727E-2	1.278811E-2	1.350057E-2	4.226851E-3	8.032470E-3	4.180560E-3	1.328866E-2	1.032552E-2	9.163771E-3	1.815631E-2	9.182612E-3	1.063202E-2	7.124013E-3	2.105113E-2	1.089681E-2	1.094875E-2	5.715920E-3	4.183770E-3	4.401664E-4	4.371171E-3	2.021668E-2	1.381357E-2	-1.655070E-4	1.808551E-2	1.780001E-2	6.720959E-3	1.683469E-2	-4.335445E-3	1.575079E-2	9.697213E-3	4.657707E-3	9.824462E-3	2.135231E-2	1.305180E-2	1.178487E-2	1.462397E-2	4.954854E-3	8.704261E-3	1.026163E-2	9.311164E-3	8.868020E-3	6.695279E-3	2.099921E-2	9.454025E-3	5.816567E-3	2.183138E-2	1.077606E-2	1.118685E-2	1.403494E-2	1.441389E-2	1.028156E-2	1.885248E-2	1.117058E-2	7.691165E-3	2.299361E-2	8.054901E-3	1.100650E-2	1.254330E-2	1.954216E-2	2.115784E-3	9.246194E-3	2.140400E-2
5.331630E+2	7.974452E-3	1.380243E-2	6.679654E-3	3.811398E-3	5.714781E-3	1.038876E-2	1.843884E-2	1.973253E-2	9.734142E-3	2.873702E-2	8.521677E-3	5.814729E-3	6.572128E-3	1.229538E-2	1.911287E-2	4.128946E-3	1.024981E-2	8.216484E-3	5.910682E-3	1.887527E-2	4.499544E-3	5.354877E-3	1.550172E-2	3.356330E-3	2.422362E-2	1.223975E-2	1.690485E-2	1.068605E-2	8.724180E-3	9.713839E-3	1.318546E-2	1.359758E-2	5.613744E-3	1.325216E-2	1.916595E-2	4.345457E-3	5.680193E-3	1.084001E-2	6.455045E-3	1.759565E-2	6.832792E-3	2.260622E-2	1.923586E-2	4.125939E-3	1.380016E-2	1.901291E-2	1.939526E-2	4.653851E-3	1.001324E-2	1.604278E-2	-1.827033E-3	1.146398E-2	5.741791E-4	2.310730E-2	2.127424E-2	1.600044E-2	9.674031E-3	2.362141E-2	1.198691E-2	6.508686E-3	1.054209E-3	7.019478E-3	4.214597E-3	1.100657E-2	9.947632E-3	8.623853E-3	1.041376E-2	2.496200E-2	2.639916E-2	9.620128E-3	1.425923E-2	9.156286E-3	9.140646E-3	2.102894E-2	2.447600E-2	6.980186E-3	1.968077E-2	-2.777257E-3	1.754442E-2	1.462633E-2	1.258058E-2	2.294950E-2	6.110686E-3	2.106728E-2	1.123236E-2	5.045042E-3	6.727372E-3	2.403470E-3	2.354003E-2	2.768555E-2	1.866012E-2	1.967461E-2	1.445293E-2	1.906734E-2	1.475128E-2	7.493606E-3	9.145247E-3	2.338587E-2	6.466356E-3	8.548339E-3	9.078426E-3	1.473798E-2	1.405834E-2	6.617208E-3	1.446675E-2	4.117652E-3	1.035603E-2	1.658358E-2	1.195393E-2	1.833055E-2	1.320375E-2	2.126418E-2	1.483599E-2	8.647900E-3	1.744064E-2	1.539705E-2	3.090113E-2	8.098822E-3	1.766868E-2	1.072545E-2	3.623627E-3	7.126832E-3	1.620509E-3	1.530646E-3	8.926778E-3	5.878519E-3	9.308119E-3	6.063846E-3	3.290826E-2	2.060760E-2	1.119665E-2	6.042095E-3	7.967149E-3	1.449279E-2	-1.764092E-3	1.686199E-2	1.721332E-2	1.489262E-2	1.123952E-2	1.309217E-2	1.705159E-2	1.926573E-2	1.522042E-2	1.804004E-2	3.024869E-2	2.541742E-2	1.778724E-2	1.520192E-2	2.326552E-2	9.587737E-3	1.643878E-2	5.196069E-3	3.000498E-2	5.707792E-3	-5.144073E-3	2.151185E-4	1.277425E-2	8.202344E-3	2.601250E-2	5.888434E-3	5.908537E-3	1.874484E-2	9.222170E-3	-1.819248E-3	6.336185E-3
5.333130E+2	1.372572E-2	-4.354831E-3	2.815445E-2	1.345194E-2	1.144497E-2	1.939798E-2	2.033133E-2	2.249400E-2	1.261363E-2	1.614669E-2	2.017897E-2	1.258508E-2	2.293862E-2	2.040320E-2	2.319971E-2	2.037055E-2	2.471425E-2	1.976822E-2	1.693349E-2	1.547759E-2	2.123928E-2	1.066234E-2	2.365236E-2	7.881236E-3	1.447347E-2	7.315749E-3	1.201788E-2	3.834399E-3	1.892616E-2	1.454007E-2	2.130783E-2	2.335089E-2	2.027236E-2	1.235440E-2	1.035839E-2	3.518370E-3	1.185110E-2	2.743918E-2	1.488016E-2	1.506796E-2	2.126843E-2	1.793239E-2	2.340684E-2	1.145674E-2	2.380318E-2	1.474320E-2	9.003116E-3	1.519239E-2	1.522438E-2	2.491568E-2	6.931095E-3	1.527840E-2	1.690795E-2	3.239668E-2	1.250954E-2	2.208871E-2	1.399979E-2	2.267074E-2	1.729988E-2	1.584627E-2	2.477818E-2	1.879548E-2	2.559118E-2	1.368595E-2	2.221086E-2	1.994246E-2	1.566924E-2	1.933931E-2	1.238178E-2	3.260023E-3	1.403095E-2	1.311403E-2	2.206792E-2	1.473746E-2	1.625128E-2	8.144741E-3	2.188645E-2	1.261540E-2	1.916701E-2	1.498988E-2	2.001873E-2	1.382692E-2	1.804900E-2	1.217920E-2	2.016627E-2	2.275763E-2	1.454083E-2	1.167734E-2	2.168221E-2	2.741551E-2	2.181399E-2	1.943579E-2	1.960993E-2	2.551577E-2	4.495208E-3	2.630299E-2	2.222660E-2	1.725923E-2	1.792313E-2	1.676390E-2	1.498783E-2	1.579566E-2	2.187063E-2	2.259912E-2	2.107871E-2	1.290531E-2	1.747106E-2	1.636051E-2	1.555316E-2	8.998979E-3	1.301192E-2	1.879066E-2	2.156629E-2	2.461897E-2	1.322655E-2	1.000915E-3	1.776875E-2	1.556873E-2	1.744498E-2	1.233187E-2	1.391304E-2	2.220447E-2	1.293650E-2	1.613571E-2	5.574603E-3	3.703633E-2	1.421254E-2	1.399693E-2	1.965953E-2	2.395767E-2	1.977697E-2	1.700898E-2	1.842655E-2	2.075047E-2	1.182062E-2	2.189440E-2	2.098344E-2	1.835492E-2	1.526458E-2	8.893459E-3	1.935078E-2	1.905314E-2	3.049201E-2	1.995414E-2	1.865608E-2	2.374431E-2	8.712873E-3	8.395376E-3	3.182869E-2	1.997478E-2	8.591934E-3	1.908741E-2	2.810017E-2	1.567622E-2	1.534031E-2	2.215313E-2	1.114267E-2	1.298023E-2	1.603641E-2	1.213024E-2	1.470079E-2	1.664197E-2	2.179640E-2	2.354179E-2	2.434970E-2
5.334630E+2	3.397086E-2	1.206709E-2	2.571604E-2	1.249709E-2	6.176385E-3	2.301908E-2	1.103929E-2	1.188742E-2	2.651549E-2	1.620270E-2	1.297457E-2	9.091106E-3	2.037290E-2	3.126947E-2	3.162052E-2	7.911905E-3	1.149803E-2	2.056451E-2	1.170935E-2	2.902763E-2	1.698350E-2	1.357002E-2	2.207656E-2	2.988752E-2	2.257793E-2	1.547083E-2	2.281247E-2	1.253797E-2	3.551867E-2	1.811569E-2	7.855088E-3	2.642738E-2	1.233394E-2	1.583219E-2	2.638074E-2	2.867635E-2	1.781954E-2	1.877882E-2	2.682391E-2	2.280455E-2	3.567772E-4	3.500609E-2	2.171367E-2	1.975639E-2	2.829275E-2	3.184702E-2	2.563435E-2	2.684929E-2	3.122335E-2	2.708176E-2	2.783001E-2	2.546037E-2	2.174567E-2	1.941702E-2	1.696604E-2	2.352286E-2	1.014858E-2	1.780508E-2	2.572275E-2	1.732709E-2	3.063238E-2	2.534287E-2	1.324161E-2	2.180718E-2	1.250886E-2	1.324821E-2	2.533658E-2	2.012419E-2	1.929711E-2	1.947660E-2	2.160468E-2	2.755330E-2	2.065811E-2	2.158946E-2	1.988809E-2	6.080443E-3	2.271191E-2	1.987719E-2	2.056413E-2	2.527992E-2	1.373684E-2	9.592537E-3	2.521994E-2	1.214605E-2	1.982022E-2	1.563130E-2	2.018567E-2	1.932557E-2	2.251052E-2	1.891482E-2	2.807025E-2	2.461634E-2	2.176335E-2	1.227586E-2	1.926074E-2	1.996935E-2	1.005184E-2	2.619358E-2	3.040780E-2	1.365485E-2	3.229573E-2	1.536373E-2	3.641619E-2	1.646495E-2	2.955472E-2	1.513308E-2	1.821833E-2	1.640425E-2	9.286383E-3	1.952547E-2	2.578408E-2	2.760843E-2	3.079491E-2	2.067523E-2	1.732339E-2	3.573538E-2	3.347702E-2	1.154571E-2	2.152413E-2	2.349146E-2	3.356212E-3	3.259981E-2	2.093836E-2	9.462115E-3	1.646503E-2	2.366406E-2	1.430223E-2	2.351996E-2	3.770270E-2	2.336156E-2	3.091990E-2	1.981522E-2	2.055905E-2	2.412398E-2	2.369586E-2	2.568834E-2	1.611522E-2	3.108849E-2	2.240425E-2	1.630200E-2	2.080068E-2	2.340929E-2	1.113337E-2	2.078148E-2	2.155195E-2	1.316409E-2	1.489315E-2	1.507993E-2	1.369644E-2	1.207516E-2	1.701818E-2	2.182031E-2	8.485583E-3	2.358733E-2	2.027586E-2	2.002784E-2	2.468218E-2	2.312755E-2	2.315815E-2	2.471610E-2	1.624802E-2	1.168513E-2	1.792399E-2	2.598960E-2	6.823892E-3
5.336130E+2	9.378937E-3	1.855544E-2	2.623382E-2	1.305052E-2	2.164585E-2	2.915775E-2	2.799915E-2	1.769230E-2	2.388678E-2	2.764427E-2	3.528117E-2	3.974684E-2	3.011238E-2	2.093005E-2	1.671689E-2	2.589728E-2	3.224967E-2	2.277844E-2	1.877168E-2	2.425472E-2	2.492359E-2	2.880779E-2	3.265023E-2	4.023556E-2	3.190461E-2	9.106750E-3	3.928478E-2	2.564219E-2	3.461030E-2	2.687052E-2	2.702596E-2	3.172861E-2	2.331681E-2	2.437165E-2	4.072437E-2	2.774218E-2	1.698532E-2	3.354668E-2	2.468345E-2	2.845388E-2	9.504761E-3	1.556471E-2	1.960540E-2	3.191843E-2	2.380025E-2	2.464078E-2	3.744541E-2	3.005028E-2	1.381866E-2	3.275703E-2	1.642987E-2	2.657292E-2	1.881141E-2	3.759531E-2	2.459329E-2	2.381081E-2	3.137660E-2	2.533649E-2	2.273692E-2	2.268203E-2	2.853921E-2	2.564164E-2	2.953106E-2	2.608672E-2	1.879320E-2	1.499568E-2	3.871501E-2	3.191665E-2	3.411932E-2	1.791066E-2	2.060183E-2	2.178426E-2	2.114908E-2	2.276950E-2	3.345764E-2	1.340785E-2	3.280640E-2	3.521722E-2	1.709285E-2	3.503176E-2	3.660044E-2	1.081946E-2	3.385964E-2	2.273912E-2	2.212844E-2	1.810977E-2	3.398817E-2	2.656692E-2	3.116126E-2	3.259577E-2	2.432518E-2	8.252001E-3	3.362975E-2	3.639256E-2	2.121523E-2	1.847628E-2	2.686701E-2	4.475170E-2	3.552208E-2	3.021632E-2	2.870598E-2	1.691789E-2	3.604007E-2	2.082538E-2	2.616499E-2	3.636278E-2	1.591671E-2	6.259954E-3	3.773623E-2	1.862024E-2	2.329873E-2	1.815495E-2	3.044505E-2	4.004237E-2	1.769612E-2	3.605152E-2	3.054699E-2	2.494113E-2	2.517705E-2	2.866896E-2	2.209931E-2	3.444380E-2	3.219386E-2	3.016816E-2	2.060664E-2	2.576146E-2	3.711339E-2	3.739101E-2	4.560239E-2	2.159057E-2	2.762055E-2	2.150387E-2	1.644832E-2	3.683487E-2	1.366584E-2	4.006362E-2	2.955189E-2	2.999048E-2	1.997654E-2	4.282439E-2	2.367811E-2	1.956347E-2	2.129279E-2	2.158333E-2	2.196720E-2	2.925908E-2	2.078097E-2	1.479829E-2	1.912999E-2	2.380497E-2	2.504935E-2	2.216838E-2	2.618067E-2	2.167019E-2	2.343438E-2	2.119509E-2	2.931560E-2	2.345984E-2	2.980866E-2	2.618109E-2	3.180062E-2	3.121914E-2	3.400195E-2	3.531532E-2	2.491081E-2
5.337840E+2	3.119391E-2	3.101062E-2	4.170393E-2	3.044783E-2	3.224633E-2	4.523795E-2	3.255087E-2	3.156627E-2	3.844026E-2	3.681447E-2	2.753903E-2	3.233070E-2	3.178300E-2	4.056064E-2	3.927171E-2	3.347839E-2	3.482793E-2	4.311298E-2	2.962516E-2	3.151158E-2	3.649148E-2	3.196567E-2	2.369792E-2	3.942629E-2	4.754876E-2	3.240472E-2	3.347589E-2	2.650920E-2	2.727942E-2	2.887501E-2	3.441023E-2	4.390714E-2	4.181198E-2	2.389279E-2	2.643606E-2	2.739113E-2	2.372748E-2	2.680309E-2	3.445747E-2	2.866386E-2	2.679774E-2	3.507694E-2	3.786647E-2	3.995341E-2	3.394434E-2	3.793514E-2	2.752850E-2	2.851848E-2	2.644239E-2	3.372377E-2	3.902446E-2	5.206712E-2	2.770040E-2	3.972127E-2	2.795619E-2	3.147784E-2	2.459532E-2	3.275412E-2	3.346364E-2	3.677527E-2	2.138077E-2	4.842709E-2	4.470931E-2	3.254709E-2	2.938421E-2	2.516284E-2	3.889740E-2	3.668101E-2	3.851486E-2	4.245020E-2	3.173714E-2	4.094194E-2	2.655421E-2	4.195538E-2	4.680868E-2	2.737663E-2	4.228813E-2	2.686461E-2	3.371660E-2	3.193584E-2	3.230121E-2	3.021803E-2	2.869190E-2	3.441851E-2	2.283444E-2	1.954472E-2	3.912134E-2	3.373186E-2	3.201665E-2	3.424803E-2	2.919781E-2	2.799408E-2	5.319128E-2	4.650751E-2	4.129187E-2	3.487564E-2	3.975238E-2	4.297771E-2	4.172930E-2	4.216689E-2	2.688950E-2	3.127501E-2	4.006283E-2	3.275721E-2	4.562167E-2	2.807027E-2	2.737734E-2	3.735416E-2	3.548796E-2	3.913167E-2	2.904147E-2	3.215288E-2	4.044534E-2	4.231529E-2	3.190969E-2	2.665590E-2	4.248981E-2	2.212898E-2	3.463054E-2	3.815870E-2	3.357595E-2	3.830075E-2	3.159335E-2	2.898813E-2	3.871059E-2	4.038189E-2	4.579960E-2	4.386118E-2	3.892037E-2	3.628776E-2	4.108873E-2	4.103151E-2	2.682116E-2	2.391229E-2	2.697064E-2	4.282143E-2	2.466932E-2	3.383901E-2	3.789274E-2	3.568122E-2	4.560952E-2	3.294299E-2	2.382311E-2	3.528971E-2	3.132403E-2	4.262084E-2	3.742674E-2	2.823530E-2	4.164895E-2	3.692789E-2	3.749358E-2	3.464933E-2	3.437226E-2	5.047062E-2	3.469441E-2	4.822428E-2	4.449391E-2	3.310218E-2	3.589896E-2	4.490568E-2	3.271281E-2	3.872913E-2	3.489674E-2	2.647141E-2	3.192609E-2
5.339090E+2	3.574486E-2	1.713186E-2	3.822934E-2	3.165249E-2	2.620829E-2	2.619379E-2	3.096280E-2	3.490501E-2	4.377612E-2	4.643330E-2	3.675436E-2	4.206938E-2	3.575872E-2	3.925729E-2	3.472711E-2	3.164446E-2	4.921302E-2	3.678666E-2	4.022399E-2	4.171033E-2	4.156735E-2	4.358453E-2	2.658652E-2	2.742046E-2	3.630011E-2	4.118688E-2	3.889520E-2	4.062596E-2	4.538685E-2	4.422000E-2	4.864661E-2	4.268402E-2	4.327219E-2	5.003035E-2	3.301426E-2	3.846968E-2	3.203732E-2	4.689951E-2	4.560497E-2	4.195634E-2	3.237116E-2	3.492258E-2	3.897387E-2	3.561986E-2	3.297274E-2	3.294372E-2	4.404908E-2	3.991284E-2	4.728466E-2	4.874352E-2	4.385597E-2	4.163090E-2	4.712631E-2	4.485044E-2	4.687510E-2	4.257466E-2	3.748710E-2	2.400289E-2	4.801755E-2	3.237810E-2	3.931884E-2	4.585070E-2	2.841681E-2	3.511323E-2	4.312653E-2	3.660656E-2	5.251016E-2	3.511487E-2	4.135721E-2	3.159431E-2	4.023152E-2	4.370012E-2	3.483107E-2	4.020613E-2	4.659029E-2	3.833161E-2	4.314893E-2	4.049716E-2	3.291435E-2	2.724576E-2	3.470004E-2	3.401757E-2	4.396202E-2	4.931676E-2	2.631659E-2	3.963940E-2	5.687637E-2	4.754382E-2	3.506662E-2	3.092742E-2	4.136884E-2	5.790514E-2	5.364257E-2	4.077078E-2	3.088738E-2	3.289240E-2	4.252814E-2	2.781181E-2	3.110611E-2	3.674536E-2	4.140571E-2	2.986073E-2	3.048059E-2	3.552449E-2	5.081469E-2	1.963669E-2	2.855648E-2	3.291289E-2	4.109827E-2	3.400644E-2	2.723645E-2	4.293933E-2	4.447126E-2	4.074750E-2	3.778172E-2	2.512243E-2	3.902609E-2	3.335678E-2	4.043509E-2	3.367811E-2	4.121155E-2	4.474594E-2	4.161554E-2	4.722700E-2	5.643496E-2	4.081380E-2	3.331351E-2	3.159799E-2	4.983542E-2	5.218682E-2	3.270900E-2	4.084581E-2	3.814102E-2	4.671657E-2	4.565758E-2	2.783989E-2	4.322483E-2	3.440388E-2	3.412937E-2	4.495145E-2	3.774022E-2	4.538031E-2	3.825460E-2	3.729349E-2	3.700447E-2	4.171338E-2	4.484649E-2	4.813551E-2	3.956841E-2	3.877160E-2	3.150668E-2	5.007234E-2	3.335564E-2	4.943789E-2	4.429579E-2	2.704528E-2	4.643130E-2	3.425396E-2	3.632913E-2	2.392051E-2	3.402895E-2	4.737818E-2	2.762183E-2	3.602831E-2	5.331157E-2
5.340640E+2	4.233598E-2	4.795704E-2	5.900635E-2	4.762366E-2	4.752157E-2	5.792349E-2	4.223727E-2	5.153967E-2	5.665106E-2	5.036075E-2	5.528563E-2	4.602917E-2	6.903201E-2	5.042012E-2	5.539158E-2	5.662561E-2	6.305600E-2	5.929579E-2	7.633871E-2	7.581662E-2	6.691445E-2	5.359199E-2	6.655195E-2	5.596006E-2	5.697819E-2	5.400813E-2	5.760699E-2	6.882244E-2	5.556994E-2	6.287270E-2	5.366602E-2	5.668024E-2	5.947897E-2	5.758010E-2	4.490187E-2	4.475618E-2	3.778721E-2	6.081549E-2	6.127563E-2	5.427003E-2	5.072621E-2	5.956532E-2	4.782157E-2	6.624518E-2	6.006016E-2	6.016748E-2	6.653375E-2	5.492234E-2	4.380191E-2	5.984313E-2	6.261561E-2	6.256343E-2	5.597754E-2	6.709912E-2	6.344151E-2	4.361303E-2	5.017058E-2	7.770319E-2	6.610789E-2	6.845103E-2	4.963700E-2	5.088318E-2	6.803555E-2	5.106903E-2	6.949689E-2	6.116570E-2	6.268290E-2	5.809314E-2	4.903709E-2	4.519222E-2	5.374578E-2	6.509766E-2	6.258220E-2	5.833174E-2	4.922574E-2	5.134236E-2	5.901907E-2	5.479195E-2	7.905309E-2	6.897992E-2	6.174338E-2	6.063504E-2	6.833989E-2	5.785935E-2	6.762766E-2	6.186920E-2	5.545177E-2	5.503125E-2	5.663543E-2	5.178150E-2	6.449658E-2	5.828666E-2	5.003691E-2	5.230355E-2	5.863970E-2	5.203917E-2	5.803292E-2	7.120807E-2	5.642533E-2	6.733493E-2	4.853397E-2	5.139055E-2	5.225596E-2	5.185424E-2	7.220258E-2	5.540735E-2	6.543353E-2	5.463730E-2	5.187171E-2	4.928100E-2	5.407281E-2	5.553636E-2	5.126103E-2	5.556196E-2	4.562225E-2	5.646626E-2	6.895712E-2	6.380183E-2	7.023494E-2	6.559712E-2	5.094861E-2	4.888035E-2	6.913753E-2	4.906074E-2	6.081053E-2	6.354646E-2	7.005064E-2	4.525406E-2	7.189026E-2	7.248413E-2	4.576176E-2	6.608771E-2	4.691442E-2	7.019893E-2	5.733428E-2	5.678050E-2	5.672354E-2	7.090987E-2	5.604600E-2	7.662283E-2	4.971197E-2	5.906269E-2	6.562333E-2	6.636501E-2	5.622301E-2	8.191012E-2	5.846343E-2	4.658764E-2	5.735120E-2	6.354446E-2	5.587847E-2	5.250093E-2	6.181853E-2	7.148812E-2	6.577874E-2	5.222228E-2	6.124105E-2	4.545180E-2	4.726283E-2	5.354403E-2	7.880163E-2	6.888485E-2	6.350007E-2	6.083070E-2	3.522414E-2
5.342040E+2	7.200012E-2	7.218974E-2	4.658785E-2	6.528970E-2	8.207988E-2	6.869826E-2	6.534204E-2	6.328512E-2	7.874134E-2	8.882784E-2	7.057704E-2	6.935369E-2	7.632001E-2	7.125499E-2	8.380888E-2	7.549154E-2	1.030757E-1	9.071471E-2	6.337526E-2	9.572870E-2	8.681211E-2	8.446238E-2	7.735653E-2	8.100035E-2	7.283392E-2	6.281546E-2	8.924423E-2	6.932209E-2	7.328406E-2	7.699814E-2	8.296932E-2	8.085796E-2	9.642640E-2	7.056186E-2	6.367551E-2	7.800903E-2	7.618323E-2	6.836081E-2	8.380669E-2	7.952341E-2	7.428833E-2	7.368488E-2	8.059573E-2	7.798739E-2	6.957075E-2	6.360054E-2	8.016369E-2	7.380373E-2	9.124104E-2	7.910473E-2	7.306947E-2	9.114265E-2	7.632364E-2	8.559740E-2	6.709220E-2	8.829718E-2	7.489652E-2	7.602738E-2	6.462152E-2	8.727210E-2	6.722267E-2	9.210153E-2	6.849958E-2	9.471157E-2	8.309703E-2	6.397172E-2	6.950653E-2	7.656991E-2	7.150935E-2	7.199758E-2	7.985475E-2	8.421561E-2	8.173722E-2	8.035201E-2	8.976873E-2	8.205804E-2	7.419375E-2	8.519933E-2	8.752609E-2	6.888786E-2	8.155962E-2	7.768246E-2	8.759515E-2	8.475462E-2	7.297490E-2	7.262101E-2	7.579527E-2	7.213729E-2	7.030814E-2	6.424478E-2	8.911089E-2	7.786848E-2	1.047479E-1	7.131884E-2	7.276794E-2	7.793514E-2	7.292401E-2	7.791543E-2	6.600173E-2	8.358346E-2	7.589618E-2	9.227746E-2	7.540896E-2	7.468934E-2	9.140284E-2	7.184608E-2	8.285645E-2	9.357688E-2	7.436266E-2	6.961680E-2	7.711017E-2	8.550464E-2	9.073221E-2	1.041385E-1	8.670056E-2	6.459054E-2	7.340150E-2	8.770862E-2	8.276558E-2	6.916799E-2	7.434605E-2	8.282444E-2	7.556938E-2	7.220837E-2	7.866977E-2	9.177492E-2	8.938636E-2	7.605901E-2	7.731691E-2	6.792569E-2	7.098319E-2	6.528507E-2	7.689592E-2	6.611792E-2	6.840477E-2	7.570761E-2	7.372690E-2	7.452841E-2	8.245641E-2	7.716492E-2	6.628714E-2	8.179106E-2	7.838150E-2	7.544449E-2	7.053476E-2	6.730492E-2	6.872765E-2	9.211236E-2	7.134802E-2	5.598110E-2	8.101522E-2	6.413339E-2	8.807889E-2	9.288527E-2	8.036283E-2	7.688784E-2	7.545352E-2	8.403382E-2	8.107818E-2	6.418303E-2	7.557490E-2	8.786515E-2	6.691685E-2	9.484797E-2	1.062706E-1
5.343550E+2	1.117056E-1	9.749313E-2	1.185880E-1	1.041019E-1	1.027695E-1	1.024423E-1	1.121551E-1	1.134354E-1	1.019884E-1	9.322093E-2	8.958130E-2	9.876538E-2	1.090616E-1	9.896148E-2	1.073083E-1	9.331582E-2	1.808103E-1	1.306142E-1	1.191203E-1	1.340116E-1	9.714549E-2	1.201928E-1	1.101900E-1	1.364262E-1	1.177523E-1	1.101617E-1	1.144108E-1	1.117783E-1	1.190047E-1	1.385776E-1	1.089697E-1	1.092183E-1	1.166112E-1	9.508367E-2	1.317359E-1	1.131998E-1	1.170888E-1	1.381687E-1	1.413143E-1	1.209129E-1	1.149876E-1	1.089730E-1	1.238246E-1	1.091374E-1	1.167971E-1	1.210517E-1	1.069316E-1	1.064116E-1	9.032412E-2	1.113542E-1	1.064663E-1	1.175387E-1	1.055686E-1	1.250018E-1	1.080106E-1	9.102383E-2	1.123606E-1	1.036952E-1	1.243293E-1	1.022309E-1	1.115942E-1	1.101250E-1	1.129712E-1	1.312387E-1	1.003925E-1	1.190288E-1	1.114268E-1	1.041495E-1	1.279190E-1	1.031325E-1	1.216977E-1	1.245729E-1	1.047192E-1	1.393732E-1	1.070015E-1	1.048586E-1	9.596336E-2	1.396458E-1	1.119905E-1	1.086096E-1	1.182379E-1	1.110068E-1	1.205625E-1	1.033101E-1	1.018825E-1	1.186929E-1	1.129949E-1	1.254144E-1	1.136321E-1	1.154305E-1	1.092941E-1	1.343197E-1	1.063999E-1	1.169568E-1	1.300722E-1	1.173968E-1	1.019878E-1	1.331803E-1	9.388824E-2	1.315100E-1	9.492592E-2	1.140035E-1	9.845347E-2	1.100732E-1	1.266394E-1	1.029301E-1	1.355630E-1	1.210397E-1	1.129829E-1	1.023193E-1	1.214792E-1	1.022615E-1	9.300289E-2	1.135038E-1	1.073964E-1	1.048607E-1	1.264631E-1	9.962511E-2	1.301481E-1	1.148771E-1	1.269897E-1	1.208213E-1	1.125079E-1	1.068241E-1	1.152577E-1	1.257019E-1	9.490861E-2	1.177198E-1	1.273272E-1	1.160440E-1	1.123003E-1	1.032199E-1	1.146993E-1	1.080070E-1	1.151437E-1	1.144352E-1	1.345853E-1	1.078940E-1	8.902075E-2	1.142780E-1	1.078749E-1	1.130924E-1	1.159930E-1	1.140614E-1	1.127765E-1	1.110483E-1	1.170439E-1	9.784202E-2	1.188346E-1	1.269363E-1	1.251202E-1	1.175783E-1	1.163403E-1	1.115160E-1	1.123478E-1	1.216946E-1	1.146434E-1	1.195967E-1	1.062344E-1	1.246987E-1	1.218915E-1	1.155176E-1	9.457069E-2	1.392612E-1	7.995972E-2
5.345160E+2	1.759179E-1	1.740697E-1	1.849400E-1	1.359897E-1	1.636019E-1	1.653753E-1	1.550551E-1	1.596093E-1	1.657153E-1	1.517215E-1	1.618039E-1	1.938814E-1	1.626188E-1	1.741794E-1	1.790863E-1	1.551013E-1	2.306445E-1	2.290354E-1	1.934884E-1	1.931397E-1	1.777976E-1	1.773447E-1	1.917164E-1	1.923361E-1	1.925720E-1	1.780391E-1	1.850187E-1	1.947578E-1	1.760070E-1	1.952292E-1	1.713850E-1	1.905400E-1	1.820662E-1	1.716453E-1	1.953251E-1	1.804381E-1	1.706922E-1	1.829815E-1	1.912516E-1	1.945120E-1	1.785831E-1	1.771313E-1	1.800822E-1	1.822747E-1	1.868947E-1	1.697079E-1	1.728909E-1	1.520912E-1	1.744180E-1	1.634582E-1	1.813890E-1	1.869650E-1	1.796451E-1	1.901921E-1	1.739554E-1	1.613751E-1	1.667403E-1	1.982948E-1	1.732252E-1	1.613024E-1	1.706615E-1	1.710244E-1	1.663970E-1	1.777391E-1	1.929532E-1	1.893117E-1	1.938401E-1	1.926585E-1	1.681089E-1	1.726081E-1	1.913532E-1	1.842356E-1	1.731704E-1	2.024404E-1	1.873220E-1	1.752641E-1	1.735486E-1	1.747799E-1	1.974828E-1	1.816702E-1	1.938442E-1	1.880339E-1	1.687275E-1	1.904016E-1	1.791777E-1	1.591979E-1	1.944000E-1	1.671744E-1	1.745147E-1	1.960941E-1	1.905843E-1	1.861586E-1	1.743952E-1	1.730926E-1	1.666882E-1	1.728340E-1	1.882699E-1	1.901269E-1	2.000651E-1	1.890036E-1	1.685678E-1	1.970262E-1	1.759778E-1	1.755522E-1	1.640513E-1	1.802392E-1	1.667764E-1	1.647882E-1	1.903379E-1	1.828446E-1	1.764019E-1	1.717225E-1	1.835085E-1	1.737333E-1	1.685574E-1	1.568126E-1	1.686004E-1	1.708297E-1	1.986720E-1	1.851696E-1	1.842875E-1	1.628121E-1	1.795008E-1	1.723017E-1	1.710810E-1	1.555155E-1	1.733396E-1	1.688383E-1	1.795953E-1	1.743451E-1	1.812892E-1	1.679196E-1	1.765307E-1	1.908478E-1	1.863367E-1	1.952617E-1	1.721103E-1	1.949100E-1	1.807425E-1	1.961527E-1	1.763044E-1	1.997158E-1	1.778533E-1	1.760608E-1	1.642716E-1	1.845291E-1	1.650745E-1	1.789431E-1	1.781866E-1	1.765124E-1	1.863085E-1	1.792184E-1	1.776557E-1	1.902032E-1	1.863907E-1	1.964690E-1	1.788232E-1	1.738128E-1	1.680278E-1	1.720561E-1	1.701863E-1	1.876778E-1	1.838928E-1	1.586621E-1	1.515821E-1
5.346670E+2	2.706456E-1	2.276516E-1	2.858719E-1	2.651835E-1	2.491626E-1	2.195986E-1	2.704379E-1	2.979235E-1	2.471906E-1	2.590092E-1	2.454469E-1	2.587945E-1	2.823104E-1	2.594768E-1	2.902909E-1	2.606469E-1	4.100095E-1	3.265015E-1	2.948301E-1	3.291130E-1	3.089164E-1	2.950996E-1	2.718673E-1	3.302160E-1	3.155093E-1	2.819583E-1	3.083781E-1	3.034610E-1	2.878566E-1	2.817605E-1	2.989611E-1	3.074759E-1	2.706297E-1	3.093095E-1	2.777495E-1	2.607790E-1	2.715882E-1	3.325401E-1	2.960977E-1	3.007666E-1	2.914862E-1	2.889911E-1	2.921516E-1	2.693282E-1	2.530637E-1	2.783479E-1	3.029035E-1	2.972161E-1	2.835628E-1	3.111731E-1	2.963500E-1	2.741186E-1	2.655640E-1	2.844325E-1	2.774461E-1	2.652214E-1	2.745193E-1	2.860813E-1	2.726038E-1	3.125918E-1	2.939005E-1	2.864349E-1	2.866069E-1	2.761100E-1	2.865893E-1	2.825425E-1	2.893631E-1	2.948447E-1	2.659776E-1	2.885235E-1	2.910354E-1	2.842125E-1	2.770917E-1	3.169665E-1	3.114561E-1	2.914200E-1	2.627717E-1	2.805964E-1	2.871064E-1	2.848381E-1	2.576298E-1	2.859373E-1	2.831158E-1	2.941013E-1	2.627048E-1	3.082994E-1	2.778597E-1	2.694471E-1	3.044001E-1	2.885934E-1	2.979436E-1	2.867454E-1	2.825685E-1	2.635176E-1	2.807884E-1	2.843477E-1	2.916512E-1	2.782944E-1	2.683421E-1	2.813706E-1	2.661138E-1	2.617120E-1	2.602012E-1	2.894235E-1	2.729627E-1	3.160412E-1	2.627155E-1	2.757848E-1	2.587607E-1	3.059191E-1	2.950689E-1	2.824128E-1	2.857331E-1	2.629692E-1	2.665716E-1	2.622905E-1	3.014462E-1	2.870908E-1	3.056616E-1	2.786325E-1	2.718499E-1	2.938465E-1	2.828171E-1	2.752844E-1	3.127146E-1	2.998720E-1	2.739834E-1	2.806184E-1	2.696752E-1	2.851915E-1	2.645509E-1	2.980553E-1	2.902830E-1	2.664440E-1	2.998681E-1	2.634180E-1	3.014230E-1	2.835531E-1	2.709827E-1	2.875318E-1	3.211792E-1	2.770997E-1	2.820893E-1	2.939979E-1	2.855566E-1	2.769137E-1	2.676240E-1	2.978354E-1	2.788935E-1	2.663498E-1	2.625231E-1	2.730450E-1	2.673643E-1	2.673744E-1	2.956972E-1	2.848294E-1	2.805751E-1	2.504190E-1	2.757046E-1	2.728793E-1	2.686700E-1	2.774217E-1	3.283839E-1	2.447359E-1	3.439908E-1
5.348180E+2	4.544476E-1	4.564957E-1	4.404369E-1	3.953998E-1	4.142593E-1	4.326335E-1	4.352647E-1	4.547401E-1	4.485621E-1	4.140656E-1	4.290686E-1	4.474513E-1	4.215827E-1	4.577323E-1	4.379836E-1	4.313911E-1	5.892117E-1	5.334755E-1	5.504927E-1	4.726476E-1	4.932965E-1	4.925102E-1	5.144027E-1	4.753531E-1	4.748775E-1	4.915345E-1	4.859181E-1	5.147544E-1	5.013278E-1	4.785742E-1	4.477781E-1	4.667099E-1	4.438336E-1	4.672789E-1	4.937352E-1	4.511157E-1	4.687342E-1	4.902668E-1	4.753380E-1	4.881770E-1	4.473936E-1	4.650363E-1	4.657233E-1	4.688323E-1	4.810816E-1	4.849129E-1	4.570375E-1	4.778475E-1	4.881164E-1	4.454072E-1	4.828977E-1	4.761994E-1	4.831915E-1	4.473495E-1	4.604987E-1	4.491168E-1	4.902179E-1	4.421161E-1	4.509612E-1	4.844900E-1	4.602879E-1	4.598987E-1	4.710818E-1	4.604233E-1	4.866994E-1	4.382630E-1	4.534920E-1	4.715563E-1	4.448384E-1	4.623613E-1	4.921963E-1	4.804102E-1	4.764821E-1	4.893124E-1	4.482196E-1	4.606544E-1	4.439975E-1	4.319405E-1	4.621590E-1	4.349772E-1	4.899975E-1	4.877145E-1	4.506004E-1	4.543631E-1	4.778622E-1	4.739072E-1	4.812156E-1	4.352188E-1	4.840320E-1	4.786865E-1	4.692730E-1	4.799909E-1	4.565448E-1	4.460874E-1	4.357329E-1	4.525451E-1	4.593366E-1	4.563756E-1	4.796675E-1	4.647271E-1	4.638348E-1	4.554806E-1	4.813394E-1	4.407447E-1	4.521411E-1	4.985359E-1	4.473397E-1	4.894336E-1	4.728891E-1	4.727987E-1	4.322573E-1	4.714286E-1	4.743419E-1	4.501796E-1	4.497614E-1	4.600849E-1	4.570988E-1	4.428623E-1	4.673438E-1	4.664425E-1	4.698109E-1	4.701686E-1	4.545300E-1	4.742442E-1	4.459416E-1	4.710479E-1	4.585813E-1	4.599053E-1	4.430650E-1	4.555341E-1	4.991355E-1	4.801590E-1	4.611756E-1	4.606458E-1	4.430678E-1	4.708494E-1	4.172461E-1	4.771372E-1	4.859857E-1	5.043740E-1	4.362606E-1	4.722494E-1	4.726842E-1	4.861610E-1	4.704968E-1	4.773796E-1	4.982243E-1	5.018662E-1	4.810650E-1	4.558827E-1	4.520857E-1	4.712843E-1	4.955072E-1	5.030226E-1	4.574924E-1	4.543235E-1	4.932094E-1	4.544202E-1	4.641973E-1	4.767446E-1	4.852192E-1	4.916877E-1	4.341629E-1	4.483032E-1	4.740642E-1
5.349580E+2	7.457472E-1	7.173433E-1	7.369520E-1	6.839455E-1	7.085108E-1	7.080031E-1	7.573769E-1	7.476971E-1	7.164240E-1	7.198222E-1	6.950831E-1	7.233136E-1	7.033654E-1	7.761483E-1	7.100175E-1	6.871921E-1	9.113485E-1	8.517918E-1	7.731683E-1	7.970310E-1	7.727407E-1	7.734584E-1	7.981211E-1	7.824290E-1	7.644173E-1	7.997516E-1	7.514133E-1	7.405576E-1	7.753775E-1	7.868117E-1	7.753727E-1	7.891755E-1	7.304000E-1	7.401669E-1	7.717637E-1	7.572312E-1	7.604458E-1	7.207766E-1	7.626950E-1	7.781037E-1	7.663706E-1	8.190007E-1	8.039827E-1	7.374515E-1	7.715627E-1	7.877703E-1	7.895848E-1	7.558457E-1	7.526418E-1	7.577742E-1	7.587058E-1	7.888256E-1	7.318487E-1	8.217274E-1	7.490415E-1	7.617683E-1	7.776943E-1	7.601010E-1	7.600913E-1	7.760770E-1	7.610099E-1	7.879863E-1	7.376250E-1	7.718824E-1	7.346218E-1	7.846429E-1	7.736297E-1	7.915720E-1	7.742416E-1	7.286982E-1	7.387107E-1	7.736383E-1	7.521312E-1	7.982391E-1	7.495611E-1	7.554233E-1	7.372455E-1	7.334768E-1	7.206012E-1	7.454936E-1	7.865787E-1	7.513561E-1	7.410990E-1	7.291134E-1	7.570909E-1	7.892464E-1	7.513587E-1	7.566744E-1	7.744133E-1	7.818491E-1	7.697180E-1	7.412514E-1	7.608181E-1	7.514583E-1	7.369606E-1	7.577487E-1	7.807889E-1	7.761826E-1	7.881370E-1	7.254521E-1	7.411476E-1	7.586463E-1	7.603973E-1	7.965935E-1	8.116240E-1	7.717172E-1	7.445171E-1	7.358245E-1	7.876033E-1	7.688582E-1	7.270430E-1	7.575651E-1	7.628276E-1	7.499283E-1	7.585094E-1	7.754012E-1	7.121797E-1	7.950202E-1	7.244874E-1	7.967417E-1	7.486601E-1	7.718948E-1	7.212820E-1	7.457105E-1	7.424950E-1	7.485842E-1	7.690512E-1	7.654938E-1	7.381996E-1	7.903729E-1	7.724405E-1	7.498123E-1	7.483100E-1	7.761865E-1	7.407131E-1	7.796238E-1	7.446141E-1	7.464404E-1	7.344817E-1	7.947509E-1	7.360062E-1	7.499299E-1	7.745090E-1	7.491194E-1	7.916331E-1	7.565884E-1	8.151089E-1	7.286307E-1	7.605103E-1	7.619462E-1	7.422372E-1	7.770581E-1	7.901840E-1	7.759857E-1	7.576301E-1	7.617788E-1	7.736398E-1	7.267672E-1	7.676470E-1	7.327173E-1	7.234750E-1	7.313251E-1	7.291255E-1	7.085041E-1	7.125068E-1
5.351200E+2	1.122387E+0	1.080312E+0	1.133046E+0	1.074971E+0	1.047287E+0	1.024635E+0	1.064490E+0	1.121846E+0	1.081194E+0	1.064278E+0	1.083429E+0	1.021713E+0	1.031317E+0	1.105416E+0	1.059956E+0	1.113903E+0	1.241922E+0	1.154190E+0	1.173644E+0	1.090359E+0	1.147214E+0	1.113067E+0	1.124617E+0	1.132527E+0	1.115033E+0	1.121953E+0	1.077024E+0	1.106260E+0	1.144815E+0	1.127878E+0	1.158333E+0	1.082456E+0	1.142994E+0	1.110681E+0	1.115466E+0	1.092158E+0	1.102434E+0	1.082473E+0	1.128987E+0	1.131841E+0	1.072937E+0	1.160649E+0	1.078385E+0	1.122040E+0	1.082786E+0	1.137394E+0	1.124552E+0	1.100517E+0	1.124773E+0	1.148701E+0	1.098927E+0	1.120135E+0	1.131540E+0	1.099211E+0	1.124227E+0	1.148450E+0	1.114302E+0	1.133110E+0	1.109584E+0	1.097592E+0	1.127800E+0	1.076840E+0	1.059684E+0	1.126803E+0	1.107351E+0	1.107608E+0	1.056011E+0	1.138905E+0	1.082514E+0	1.118869E+0	1.138523E+0	1.179227E+0	1.131524E+0	1.136606E+0	1.132036E+0	1.083970E+0	1.103504E+0	1.095256E+0	1.071102E+0	1.097335E+0	1.102552E+0	1.134266E+0	1.011081E+0	1.129722E+0	1.109305E+0	1.144251E+0	1.098187E+0	1.132030E+0	1.115807E+0	1.160861E+0	1.091702E+0	1.147842E+0	1.074909E+0	1.069071E+0	1.133277E+0	1.123750E+0	1.128727E+0	1.129114E+0	1.106807E+0	1.080381E+0	1.089910E+0	1.109329E+0	1.050118E+0	1.085344E+0	1.130583E+0	1.099713E+0	1.118968E+0	1.051926E+0	1.092757E+0	1.090565E+0	1.073249E+0	1.097256E+0	1.090843E+0	1.094317E+0	1.053350E+0	1.092851E+0	1.083461E+0	1.094631E+0	1.082661E+0	1.107076E+0	1.072385E+0	1.144005E+0	1.125578E+0	1.125828E+0	1.106551E+0	1.055831E+0	1.064674E+0	1.120229E+0	1.087749E+0	1.135270E+0	1.086043E+0	1.135704E+0	1.095535E+0	1.116537E+0	1.129571E+0	1.127127E+0	1.049607E+0	1.097334E+0	1.107574E+0	1.129487E+0	1.113849E+0	1.093125E+0	1.092794E+0	1.096320E+0	1.076243E+0	1.119816E+0	1.087928E+0	1.071684E+0	1.046998E+0	1.080714E+0	1.043260E+0	1.122803E+0	1.117253E+0	1.136278E+0	1.142174E+0	1.111809E+0	1.080126E+0	1.064387E+0	1.078917E+0	1.117959E+0	1.051053E+0	1.074807E+0	1.069892E+0	1.053650E+0	1.125293E+0
5.352550E+2	1.556116E+0	1.634828E+0	1.534738E+0	1.511739E+0	1.520706E+0	1.476881E+0	1.485377E+0	1.590640E+0	1.453433E+0	1.498867E+0	1.540289E+0	1.495550E+0	1.539888E+0	1.582723E+0	1.491062E+0	1.456598E+0	1.617267E+0	1.592994E+0	1.543622E+0	1.531331E+0	1.539262E+0	1.514118E+0	1.531677E+0	1.555910E+0	1.572188E+0	1.510566E+0	1.537471E+0	1.617711E+0	1.533354E+0	1.575705E+0	1.542583E+0	1.553555E+0	1.584326E+0	1.647545E+0	1.564690E+0	1.501904E+0	1.493059E+0	1.541539E+0	1.550334E+0	1.518246E+0	1.547418E+0	1.617082E+0	1.495115E+0	1.536918E+0	1.494646E+0	1.494055E+0	1.539321E+0	1.501566E+0	1.552928E+0	1.559015E+0	1.528683E+0	1.531495E+0	1.475044E+0	1.527371E+0	1.585162E+0	1.493994E+0	1.558171E+0	1.552324E+0	1.482993E+0	1.508819E+0	1.527691E+0	1.565419E+0	1.515681E+0	1.557475E+0	1.535574E+0	1.460592E+0	1.598725E+0	1.488856E+0	1.520211E+0	1.555639E+0	1.559503E+0	1.548072E+0	1.468863E+0	1.524102E+0	1.590778E+0	1.540002E+0	1.508373E+0	1.522466E+0	1.498765E+0	1.500904E+0	1.512611E+0	1.512619E+0	1.533493E+0	1.483200E+0	1.490881E+0	1.546879E+0	1.471481E+0	1.492864E+0	1.540981E+0	1.534349E+0	1.450145E+0	1.525098E+0	1.548547E+0	1.526701E+0	1.503326E+0	1.578404E+0	1.568798E+0	1.565017E+0	1.576323E+0	1.537804E+0	1.584330E+0	1.544864E+0	1.542071E+0	1.501586E+0	1.544364E+0	1.506299E+0	1.482300E+0	1.482998E+0	1.513633E+0	1.483119E+0	1.468036E+0	1.489423E+0	1.496336E+0	1.553106E+0	1.431181E+0	1.528615E+0	1.506108E+0	1.521071E+0	1.544913E+0	1.526697E+0	1.462473E+0	1.544212E+0	1.517504E+0	1.501259E+0	1.504561E+0	1.508538E+0	1.487328E+0	1.453096E+0	1.545235E+0	1.577779E+0	1.518096E+0	1.536550E+0	1.495135E+0	1.478985E+0	1.534597E+0	1.546964E+0	1.490159E+0	1.509386E+0	1.493933E+0	1.522224E+0	1.474152E+0	1.497032E+0	1.481483E+0	1.500273E+0	1.521809E+0	1.527325E+0	1.449167E+0	1.543452E+0	1.486334E+0	1.524264E+0	1.486740E+0	1.437228E+0	1.485621E+0	1.522053E+0	1.537708E+0	1.563693E+0	1.540801E+0	1.560261E+0	1.571534E+0	1.474645E+0	1.438556E+0	1.502576E+0	1.513498E+0	1.466403E+0	1.464325E+0
5.354060E+2	1.975825E+0	1.923240E+0	1.863428E+0	1.846745E+0	1.912889E+0	1.856266E+0	1.934717E+0	1.954356E+0	1.870151E+0	1.895381E+0	1.914994E+0	1.912068E+0	1.860047E+0	1.905164E+0	1.900915E+0	1.920723E+0	1.899690E+0	1.862482E+0	1.904310E+0	1.853080E+0	1.893067E+0	1.920305E+0	1.897243E+0	1.931909E+0	1.926697E+0	1.968181E+0	1.872304E+0	1.866842E+0	1.911010E+0	1.911023E+0	1.921904E+0	1.922438E+0	1.889753E+0	1.921046E+0	1.874942E+0	1.798727E+0	1.853359E+0	1.889396E+0	1.944147E+0	1.931180E+0	1.840401E+0	1.914951E+0	1.887179E+0	1.961479E+0	1.847238E+0	1.939583E+0	1.890769E+0	1.902304E+0	1.933462E+0	1.927151E+0	1.874018E+0	1.854127E+0	1.857275E+0	1.939853E+0	1.896369E+0	1.893873E+0	1.925184E+0	1.899298E+0	1.882387E+0	1.910146E+0	1.901631E+0	1.948845E+0	1.856939E+0	1.845099E+0	1.894837E+0	1.880329E+0	1.864910E+0	1.873784E+0	1.882931E+0	1.873852E+0	1.923270E+0	1.914327E+0	1.824796E+0	1.942262E+0	1.907061E+0	1.906947E+0	1.841409E+0	1.954935E+0	1.823493E+0	1.845474E+0	1.919202E+0	1.830307E+0	1.871059E+0	1.830657E+0	1.861394E+0	1.916509E+0	1.862606E+0	1.868339E+0	1.901582E+0	1.960244E+0	1.891527E+0	1.908156E+0	1.868403E+0	1.904404E+0	1.917983E+0	1.890788E+0	1.943884E+0	1.898495E+0	1.904482E+0	1.815385E+0	1.861348E+0	1.915254E+0	1.836227E+0	1.847611E+0	1.909466E+0	1.880854E+0	1.922017E+0	1.863677E+0	1.912309E+0	1.888623E+0	1.848086E+0	1.786146E+0	1.820870E+0	1.856031E+0	1.802530E+0	1.794072E+0	1.820768E+0	1.854368E+0	1.881021E+0	1.864319E+0	1.834406E+0	1.860881E+0	1.825679E+0	1.846478E+0	1.848619E+0	1.855661E+0	1.842890E+0	1.860794E+0	1.876786E+0	1.881635E+0	1.764545E+0	1.890788E+0	1.825522E+0	1.908704E+0	1.876387E+0	1.827681E+0	1.857247E+0	1.869544E+0	1.835479E+0	1.854052E+0	1.822820E+0	1.824129E+0	1.856767E+0	1.813019E+0	1.848796E+0	1.889293E+0	1.810761E+0	1.821558E+0	1.816634E+0	1.848700E+0	1.840699E+0	1.777880E+0	1.796952E+0	1.966993E+0	1.786936E+0	1.846512E+0	1.869429E+0	1.821571E+0	1.793934E+0	1.804269E+0	1.823039E+0	1.734533E+0	1.867138E+0	1.705864E+0	1.704076E+0
5.355630E+2	2.078012E+0	1.999700E+0	2.066682E+0	1.937264E+0	1.927028E+0	2.010289E+0	1.982300E+0	1.970107E+0	1.920316E+0	1.965105E+0	1.981973E+0	2.027725E+0	2.025365E+0	2.022605E+0	2.003725E+0	1.949188E+0	1.959803E+0	1.881817E+0	1.918596E+0	1.879054E+0	2.002266E+0	1.902204E+0	2.009152E+0	1.952559E+0	1.941540E+0	2.001073E+0	1.947029E+0	2.050557E+0	1.978095E+0	1.952019E+0	1.924000E+0	1.954262E+0	1.927630E+0	1.963334E+0	2.050070E+0	1.942114E+0	1.892932E+0	2.006056E+0	1.977308E+0	2.013153E+0	1.996348E+0	2.011699E+0	1.946658E+0	2.003814E+0	1.936352E+0	1.984051E+0	1.916471E+0	1.963869E+0	1.963657E+0	1.977033E+0	1.933544E+0	2.009663E+0	1.845895E+0	1.994435E+0	1.992543E+0	1.985798E+0	1.948207E+0	2.031979E+0	1.933917E+0	1.988093E+0	1.964822E+0	1.982652E+0	1.864502E+0	1.926086E+0	1.904333E+0	1.922481E+0	2.045405E+0	2.017706E+0	1.939238E+0	1.964654E+0	1.952606E+0	1.989252E+0	1.854861E+0	2.019869E+0	1.967415E+0	2.006893E+0	1.923301E+0	2.021920E+0	1.966620E+0	1.954080E+0	1.916026E+0	1.963111E+0	2.003075E+0	1.900847E+0	1.939562E+0	2.054395E+0	1.899946E+0	1.942512E+0	1.930974E+0	2.034423E+0	1.909250E+0	1.855938E+0	1.896553E+0	1.963218E+0	1.898181E+0	1.948214E+0	1.979137E+0	1.965521E+0	1.960260E+0	1.899259E+0	1.876323E+0	2.003578E+0	1.954307E+0	1.893913E+0	1.984495E+0	1.966647E+0	1.904647E+0	1.895159E+0	1.908870E+0	2.006949E+0	1.888516E+0	1.882260E+0	1.839647E+0	1.916243E+0	1.944480E+0	1.889906E+0	1.880967E+0	1.910465E+0	1.964271E+0	1.908327E+0	1.871817E+0	1.985081E+0	1.987555E+0	1.999468E+0	1.959560E+0	1.868105E+0	1.892308E+0	1.925886E+0	1.894510E+0	1.923407E+0	1.888044E+0	2.041904E+0	1.878458E+0	1.928410E+0	1.931852E+0	1.915382E+0	1.925225E+0	1.986262E+0	1.932765E+0	1.930114E+0	1.868879E+0	1.887390E+0	1.926108E+0	1.878983E+0	1.898585E+0	1.930156E+0	1.919018E+0	1.866520E+0	1.868534E+0	1.860439E+0	1.945296E+0	1.819399E+0	1.944271E+0	1.962607E+0	1.869837E+0	1.948396E+0	1.958695E+0	1.926338E+0	1.891532E+0	1.891021E+0	1.899953E+0	1.872141E+0	1.908544E+0	1.713933E+0	1.680342E+0
5.357140E+2	2.034190E+0	2.015669E+0	2.052195E+0	1.957096E+0	2.038588E+0	1.898248E+0	1.984210E+0	1.967508E+0	2.000966E+0	2.083842E+0	1.960003E+0	2.001388E+0	2.000065E+0	2.006281E+0	1.952931E+0	2.014434E+0	1.934515E+0	1.902784E+0	1.958014E+0	1.901024E+0	1.969850E+0	1.939361E+0	1.979202E+0	1.924967E+0	1.944654E+0	1.987535E+0	1.934143E+0	1.964272E+0	1.977989E+0	2.002643E+0	1.896341E+0	1.943661E+0	1.962980E+0	1.994560E+0	1.954222E+0	1.890603E+0	1.939548E+0	1.997598E+0	1.971905E+0	1.965382E+0	1.941549E+0	1.993781E+0	1.949740E+0	1.957218E+0	1.924875E+0	1.945956E+0	1.970978E+0	2.001624E+0	2.035722E+0	1.902847E+0	1.988000E+0	1.943593E+0	1.967734E+0	2.019801E+0	1.960356E+0	1.941020E+0	2.002072E+0	2.048389E+0	1.993299E+0	1.991010E+0	1.906421E+0	2.018887E+0	1.924530E+0	1.912244E+0	1.938547E+0	1.999533E+0	1.927780E+0	1.961896E+0	1.967556E+0	1.947432E+0	1.981242E+0	2.037468E+0	1.915291E+0	2.035149E+0	2.011222E+0	1.986740E+0	1.902528E+0	1.962742E+0	1.947804E+0	2.010522E+0	1.900525E+0	1.919493E+0	1.931054E+0	1.887307E+0	1.953250E+0	1.997174E+0	1.903266E+0	1.919189E+0	1.909748E+0	2.014562E+0	1.937007E+0	1.924014E+0	1.883661E+0	1.959662E+0	1.892730E+0	2.015330E+0	1.930734E+0	2.022628E+0	2.012349E+0	1.933928E+0	1.958302E+0	1.899331E+0	1.958187E+0	1.944916E+0	1.912488E+0	1.941006E+0	1.920597E+0	1.988530E+0	1.925280E+0	1.905176E+0	1.886388E+0	1.939977E+0	1.944507E+0	1.906763E+0	1.976582E+0	1.929530E+0	1.917759E+0	1.970570E+0	2.019562E+0	1.938237E+0	1.852771E+0	1.937559E+0	1.924402E+0	1.882297E+0	1.926733E+0	1.913689E+0	1.915741E+0	1.936519E+0	1.915173E+0	1.995439E+0	1.848542E+0	1.981471E+0	1.904961E+0	1.915489E+0	1.988685E+0	1.908346E+0	1.906668E+0	2.097951E+0	1.956545E+0	1.976889E+0	1.963282E+0	1.935850E+0	1.904329E+0	1.948521E+0	1.938146E+0	1.929498E+0	1.943111E+0	1.880724E+0	1.905613E+0	1.942870E+0	1.948843E+0	1.935599E+0	1.922419E+0	1.922041E+0	1.935481E+0	1.882258E+0	1.935094E+0	1.946963E+0	1.894127E+0	1.913879E+0	1.895617E+0	1.929494E+0	1.790600E+0	1.733811E+0	1.851655E+0
5.358600E+2	1.806449E+0	1.661167E+0	1.727330E+0	1.641294E+0	1.614911E+0	1.711042E+0	1.690703E+0	1.733104E+0	1.687403E+0	1.669653E+0	1.699563E+0	1.701513E+0	1.719362E+0	1.669669E+0	1.625191E+0	1.641461E+0	1.657906E+0	1.610773E+0	1.607971E+0	1.619893E+0	1.600444E+0	1.653217E+0	1.649997E+0	1.643967E+0	1.660373E+0	1.657744E+0	1.666662E+0	1.610428E+0	1.653902E+0	1.692980E+0	1.696494E+0	1.630208E+0	1.622443E+0	1.709875E+0	1.637407E+0	1.580095E+0	1.644732E+0	1.627117E+0	1.611158E+0	1.603306E+0	1.689730E+0	1.686431E+0	1.623587E+0	1.667104E+0	1.658178E+0	1.680493E+0	1.657374E+0	1.707994E+0	1.712992E+0	1.625265E+0	1.616471E+0	1.632112E+0	1.666176E+0	1.707615E+0	1.698639E+0	1.673771E+0	1.654078E+0	1.725785E+0	1.712280E+0	1.638710E+0	1.675774E+0	1.680679E+0	1.639349E+0	1.576008E+0	1.640666E+0	1.662497E+0	1.655389E+0	1.601495E+0	1.690306E+0	1.697267E+0	1.655229E+0	1.634547E+0	1.624126E+0	1.664957E+0	1.680866E+0	1.760698E+0	1.601128E+0	1.685539E+0	1.571597E+0	1.540221E+0	1.627439E+0	1.644127E+0	1.652803E+0	1.644063E+0	1.650163E+0	1.666714E+0	1.648896E+0	1.724502E+0	1.606226E+0	1.703421E+0	1.678027E+0	1.589102E+0	1.613949E+0	1.628975E+0	1.634005E+0	1.691107E+0	1.679695E+0	1.740923E+0	1.645596E+0	1.671732E+0	1.659439E+0	1.665920E+0	1.673466E+0	1.631042E+0	1.661571E+0	1.662908E+0	1.659151E+0	1.614538E+0	1.666425E+0	1.656547E+0	1.613208E+0	1.657690E+0	1.602953E+0	1.606926E+0	1.638934E+0	1.630978E+0	1.594910E+0	1.654170E+0	1.676188E+0	1.599155E+0	1.631866E+0	1.684817E+0	1.606858E+0	1.688902E+0	1.647595E+0	1.665169E+0	1.640451E+0	1.593708E+0	1.625574E+0	1.628698E+0	1.671122E+0	1.656873E+0	1.600868E+0	1.639856E+0	1.700514E+0	1.609765E+0	1.581998E+0	1.615103E+0	1.651421E+0	1.702168E+0	1.585676E+0	1.596879E+0	1.642545E+0	1.658150E+0	1.620545E+0	1.692362E+0	1.662277E+0	1.612001E+0	1.603395E+0	1.617082E+0	1.658413E+0	1.565543E+0	1.609786E+0	1.686802E+0	1.642133E+0	1.702360E+0	1.664346E+0	1.603361E+0	1.628360E+0	1.569482E+0	1.646735E+0	1.638348E+0	1.547461E+0	1.519242E+0	1.582932E+0
5.360070E+2	1.673081E+0	1.643183E+0	1.747894E+0	1.625230E+0	1.615915E+0	1.572677E+0	1.675167E+0	1.632885E+0	1.577976E+0	1.636118E+0	1.614775E+0	1.683386E+0	1.640706E+0	1.611803E+0	1.627381E+0	1.631054E+0	1.624934E+0	1.551632E+0	1.617762E+0	1.646842E+0	1.579532E+0	1.515406E+0	1.623099E+0	1.623165E+0	1.559869E+0	1.641526E+0	1.602326E+0	1.592274E+0	1.620783E+0	1.632022E+0	1.596165E+0	1.569103E+0	1.619739E+0	1.655306E+0	1.566166E+0	1.564110E+0	1.607864E+0	1.672722E+0	1.645088E+0	1.616656E+0	1.626357E+0	1.649072E+0	1.636745E+0	1.613125E+0	1.552869E+0	1.626664E+0	1.653697E+0	1.643315E+0	1.678674E+0	1.634927E+0	1.550313E+0	1.577751E+0	1.559286E+0	1.644107E+0	1.642516E+0	1.657771E+0	1.620914E+0	1.632516E+0	1.587284E+0	1.670359E+0	1.612009E+0	1.633264E+0	1.601277E+0	1.583832E+0	1.609784E+0	1.617424E+0	1.607648E+0	1.570516E+0	1.600411E+0	1.610593E+0	1.625199E+0	1.692903E+0	1.570435E+0	1.618948E+0	1.668293E+0	1.659470E+0	1.597831E+0	1.607893E+0	1.589408E+0	1.559438E+0	1.603444E+0	1.638756E+0	1.599468E+0	1.616946E+0	1.591080E+0	1.615278E+0	1.609973E+0	1.611475E+0	1.567938E+0	1.629797E+0	1.577477E+0	1.692150E+0	1.572622E+0	1.632835E+0	1.603660E+0	1.654703E+0	1.641686E+0	1.647907E+0	1.565724E+0	1.610750E+0	1.564812E+0	1.654556E+0	1.614849E+0	1.625618E+0	1.621617E+0	1.622335E+0	1.569501E+0	1.594356E+0	1.649052E+0	1.642034E+0	1.556298E+0	1.532500E+0	1.569260E+0	1.577791E+0	1.554753E+0	1.649752E+0	1.530115E+0	1.593249E+0	1.615582E+0	1.571065E+0	1.565862E+0	1.588616E+0	1.619266E+0	1.636433E+0	1.610172E+0	1.641346E+0	1.564063E+0	1.541087E+0	1.597643E+0	1.569566E+0	1.549585E+0	1.643907E+0	1.569060E+0	1.520234E+0	1.616171E+0	1.636921E+0	1.583713E+0	1.660613E+0	1.538528E+0	1.589215E+0	1.568706E+0	1.584702E+0	1.540399E+0	1.607993E+0	1.584093E+0	1.685911E+0	1.585151E+0	1.572254E+0	1.562031E+0	1.625991E+0	1.600440E+0	1.571567E+0	1.575864E+0	1.641453E+0	1.597169E+0	1.587934E+0	1.613715E+0	1.562112E+0	1.536040E+0	1.551333E+0	1.557490E+0	1.613654E+0	1.569112E+0	1.457790E+0	1.468013E+0
5.362730E+2	1.155759E+0	1.139338E+0	1.141963E+0	1.150500E+0	1.131343E+0	1.063822E+0	1.164849E+0	1.129173E+0	1.183879E+0	1.133281E+0	1.127971E+0	1.159297E+0	1.181546E+0	1.121035E+0	1.150348E+0	1.113444E+0	1.142572E+0	1.137381E+0	1.106707E+0	1.154684E+0	1.149497E+0	1.118105E+0	1.160435E+0	1.116324E+0	1.115394E+0	1.103346E+0	1.101651E+0	1.127860E+0	1.113295E+0	1.140354E+0	1.166549E+0	1.105580E+0	1.133080E+0	1.171413E+0	1.114794E+0	1.162029E+0	1.091169E+0	1.151184E+0	1.094098E+0	1.167198E+0	1.194310E+0	1.162527E+0	1.116169E+0	1.227444E+0	1.152247E+0	1.136124E+0	1.152339E+0	1.127554E+0	1.167351E+0	1.133476E+0	1.123186E+0	1.159156E+0	1.097120E+0	1.144963E+0	1.174674E+0	1.182344E+0	1.185818E+0	1.186296E+0	1.186230E+0	1.152625E+0	1.146035E+0	1.108349E+0	1.130444E+0	1.092006E+0	1.180036E+0	1.211754E+0	1.141444E+0	1.130304E+0	1.131187E+0	1.188310E+0	1.155306E+0	1.101923E+0	1.097562E+0	1.196398E+0	1.132999E+0	1.206332E+0	1.137917E+0	1.129350E+0	1.116300E+0	1.127967E+0	1.163604E+0	1.157940E+0	1.106452E+0	1.185184E+0	1.144353E+0	1.164454E+0	1.109305E+0	1.104190E+0	1.135144E+0	1.187052E+0	1.123750E+0	1.126745E+0	1.118054E+0	1.136745E+0	1.170183E+0	1.176426E+0	1.180128E+0	1.157016E+0	1.135858E+0	1.190433E+0	1.135783E+0	1.144140E+0	1.056550E+0	1.159167E+0	1.094257E+0	1.217569E+0	1.141322E+0	1.126857E+0	1.149340E+0	1.131440E+0	1.125977E+0	1.094889E+0	1.187867E+0	1.174796E+0	1.128115E+0	1.069152E+0	1.198750E+0	1.137830E+0	1.122682E+0	1.163050E+0	1.115336E+0	1.178757E+0	1.154265E+0	1.166326E+0	1.122554E+0	1.073971E+0	1.139009E+0	1.193197E+0	1.147257E+0	1.119097E+0	1.130492E+0	1.186805E+0	1.101791E+0	1.167376E+0	1.158878E+0	1.185758E+0	1.136871E+0	1.087259E+0	1.164005E+0	1.119217E+0	1.146269E+0	1.154946E+0	1.102943E+0	1.111298E+0	1.149799E+0	1.206037E+0	1.159348E+0	1.087850E+0	1.140821E+0	1.157555E+0	1.150645E+0	1.125186E+0	1.142044E+0	1.123509E+0	1.165639E+0	1.200881E+0	1.084281E+0	1.173578E+0	1.142442E+0	1.135589E+0	1.131249E+0	1.180659E+0	1.218830E+0	1.109210E+0	1.095983E+0
5.365140E+2	9.260388E-1	9.095440E-1	9.291890E-1	8.423464E-1	9.455258E-1	9.301375E-1	8.999927E-1	8.756715E-1	9.070051E-1	8.885095E-1	9.386061E-1	9.256389E-1	9.188015E-1	9.051930E-1	9.068054E-1	9.005585E-1	9.582268E-1	8.817018E-1	9.120574E-1	8.966976E-1	9.148957E-1	9.000587E-1	9.185696E-1	9.308023E-1	8.724825E-1	8.864418E-1	8.902556E-1	8.927814E-1	9.476389E-1	9.042448E-1	8.678746E-1	8.995994E-1	9.235652E-1	9.131428E-1	9.453943E-1	9.133321E-1	8.720968E-1	9.068241E-1	8.978663E-1	9.668331E-1	9.065839E-1	9.147851E-1	9.062275E-1	9.068569E-1	8.676180E-1	9.076271E-1	8.814543E-1	9.448814E-1	8.951429E-1	9.175288E-1	9.254471E-1	8.612087E-1	9.107674E-1	9.420462E-1	8.913811E-1	9.269142E-1	8.840480E-1	9.420735E-1	9.276155E-1	9.027131E-1	9.228104E-1	8.605319E-1	9.262048E-1	9.181906E-1	9.285416E-1	8.822105E-1	9.278550E-1	9.211039E-1	8.904833E-1	9.383632E-1	9.239118E-1	9.248561E-1	9.080570E-1	8.838136E-1	9.123491E-1	9.318027E-1	8.782415E-1	9.000908E-1	9.063440E-1	9.071743E-1	8.621434E-1	8.965305E-1	9.107646E-1	9.452475E-1	8.742076E-1	9.651643E-1	9.264488E-1	9.201926E-1	9.066418E-1	8.921997E-1	9.302310E-1	9.576824E-1	9.224143E-1	9.289522E-1	8.896900E-1	8.882903E-1	9.540711E-1	9.598262E-1	8.927390E-1	8.777119E-1	8.862184E-1	9.075330E-1	9.185977E-1	8.821052E-1	9.137034E-1	9.153667E-1	8.997758E-1	9.237207E-1	9.614434E-1	9.033906E-1	8.898803E-1	9.298877E-1	9.049411E-1	9.281093E-1	8.846705E-1	8.860172E-1	9.378110E-1	8.848697E-1	9.541173E-1	9.226548E-1	8.934153E-1	9.243456E-1	9.239374E-1	9.526433E-1	9.164008E-1	8.775635E-1	9.306035E-1	8.804386E-1	8.848574E-1	9.246907E-1	8.316615E-1	9.052917E-1	9.042941E-1	8.835895E-1	9.663468E-1	8.932859E-1	9.236693E-1	9.548728E-1	8.904902E-1	9.173410E-1	9.631049E-1	9.086108E-1	9.371964E-1	9.239216E-1	8.897327E-1	9.120939E-1	9.151002E-1	9.062802E-1	8.638220E-1	9.090540E-1	9.134511E-1	9.534410E-1	9.044115E-1	9.762770E-1	9.387977E-1	9.783755E-1	9.151279E-1	8.920695E-1	9.066986E-1	9.038429E-1	9.115572E-1	8.242029E-1	9.387566E-1	8.910802E-1	8.531529E-1
5.367660E+2	7.168715E-1	7.296705E-1	7.433525E-1	6.876761E-1	6.921480E-1	7.046491E-1	6.857691E-1	7.290405E-1	7.053552E-1	6.890892E-1	6.965137E-1	6.793435E-1	7.230375E-1	6.876918E-1	7.251217E-1	6.952361E-1	7.436853E-1	7.152841E-1	7.025540E-1	6.796121E-1	7.208103E-1	6.893867E-1	6.950416E-1	7.016327E-1	6.799973E-1	7.510203E-1	7.357655E-1	7.193849E-1	7.623212E-1	7.129079E-1	7.004603E-1	6.870871E-1	6.871129E-1	7.132056E-1	6.649715E-1	6.798564E-1	6.992511E-1	6.814920E-1	7.370534E-1	6.809680E-1	7.014756E-1	7.227065E-1	6.920864E-1	6.839766E-1	6.837416E-1	7.242391E-1	7.342079E-1	7.250551E-1	6.947236E-1	7.083864E-1	7.156525E-1	6.924924E-1	6.530364E-1	7.108304E-1	7.131967E-1	7.183707E-1	7.036193E-1	6.938287E-1	7.513066E-1	6.885291E-1	7.264845E-1	7.088727E-1	6.872039E-1	6.897295E-1	7.648738E-1	7.297326E-1	7.412446E-1	7.247900E-1	6.953311E-1	6.863919E-1	7.039446E-1	7.405545E-1	6.686866E-1	7.222187E-1	7.409401E-1	7.530976E-1	7.034493E-1	7.012225E-1	7.268826E-1	6.962609E-1	7.010511E-1	6.727951E-1	7.413667E-1	7.250420E-1	6.897272E-1	7.026983E-1	6.830731E-1	7.247049E-1	7.166194E-1	7.200767E-1	7.131731E-1	7.254092E-1	7.216510E-1	7.039082E-1	7.390007E-1	7.084497E-1	7.105609E-1	7.196802E-1	7.086541E-1	7.156848E-1	6.811109E-1	7.245331E-1	7.438125E-1	6.876929E-1	6.813390E-1	7.247912E-1	7.115377E-1	7.040613E-1	7.604069E-1	7.180761E-1	6.675540E-1	7.079203E-1	6.976210E-1	7.330109E-1	7.402686E-1	7.051619E-1	7.087041E-1	6.912255E-1	7.711934E-1	7.391131E-1	6.926906E-1	7.507771E-1	7.408808E-1	6.914849E-1	7.153160E-1	7.348139E-1	7.264503E-1	7.001226E-1	7.002029E-1	7.112866E-1	6.847745E-1	7.090781E-1	6.877027E-1	7.554539E-1	7.078380E-1	6.821442E-1	6.585601E-1	7.141383E-1	6.953520E-1	6.967239E-1	7.097726E-1	7.232430E-1	6.867241E-1	6.922309E-1	7.120917E-1	7.747404E-1	7.094078E-1	6.999418E-1	6.661090E-1	7.358619E-1	6.953900E-1	6.970823E-1	7.148169E-1	7.357469E-1	7.602088E-1	6.974796E-1	6.824819E-1	7.526477E-1	7.150477E-1	6.542620E-1	7.129349E-1	7.474448E-1	7.213333E-1	6.535933E-1	6.864988E-1
5.370070E+2	5.927879E-1	5.267273E-1	5.840848E-1	5.386769E-1	5.710970E-1	5.748404E-1	5.360103E-1	5.451638E-1	5.373595E-1	5.404322E-1	5.659198E-1	5.654143E-1	5.532209E-1	5.658925E-1	5.601970E-1	5.896764E-1	5.781957E-1	5.475480E-1	5.227765E-1	5.695829E-1	5.778225E-1	5.616014E-1	5.608533E-1	5.821331E-1	5.589250E-1	5.607265E-1	5.254695E-1	5.267229E-1	5.460853E-1	5.742471E-1	5.356956E-1	5.427499E-1	5.527183E-1	5.779428E-1	5.305394E-1	5.452959E-1	5.580238E-1	5.416080E-1	5.710032E-1	5.736497E-1	5.634931E-1	5.530430E-1	5.308580E-1	5.637609E-1	5.530184E-1	5.520698E-1	5.933218E-1	5.878814E-1	5.764408E-1	5.885782E-1	5.826329E-1	5.502729E-1	5.650392E-1	5.881493E-1	5.768322E-1	5.870477E-1	5.471543E-1	5.384510E-1	5.848467E-1	5.471545E-1	5.238346E-1	5.551563E-1	5.539510E-1	5.490677E-1	6.015632E-1	5.692572E-1	5.796227E-1	5.683135E-1	5.596354E-1	5.735583E-1	5.609012E-1	5.594944E-1	5.280694E-1	5.328315E-1	5.992324E-1	5.725574E-1	5.719400E-1	5.195200E-1	5.706014E-1	5.625414E-1	5.239045E-1	5.839924E-1	5.543117E-1	5.603478E-1	5.802342E-1	5.384580E-1	5.989029E-1	5.504390E-1	5.440293E-1	5.580896E-1	5.386482E-1	5.696787E-1	5.783653E-1	5.579477E-1	5.592569E-1	5.601839E-1	5.892242E-1	5.489655E-1	5.988644E-1	5.692780E-1	5.649909E-1	5.738062E-1	6.080136E-1	5.472439E-1	5.467339E-1	6.025504E-1	5.630811E-1	5.604862E-1	5.699372E-1	5.606800E-1	5.582895E-1	5.373181E-1	5.836769E-1	5.543952E-1	5.259229E-1	5.553780E-1	5.702678E-1	5.625201E-1	5.935700E-1	5.689168E-1	5.629543E-1	5.580372E-1	5.819070E-1	5.339481E-1	5.701135E-1	5.801898E-1	5.668524E-1	5.403956E-1	5.668362E-1	5.965101E-1	6.120643E-1	5.628211E-1	4.978858E-1	5.805579E-1	5.960128E-1	5.832626E-1	5.517152E-1	5.465144E-1	5.767367E-1	5.747501E-1	5.695191E-1	5.672238E-1	5.562694E-1	5.565856E-1	5.482201E-1	5.827634E-1	5.590815E-1	5.528384E-1	5.917993E-1	5.659866E-1	5.754669E-1	5.807531E-1	5.573617E-1	6.106580E-1	5.864123E-1	5.744791E-1	5.677242E-1	5.734734E-1	5.936124E-1	5.687269E-1	5.699767E-1	5.398787E-1	6.439393E-1	4.827529E-1	5.468481E-1
5.372640E+2	5.164280E-1	5.115589E-1	5.053873E-1	5.477918E-1	4.988633E-1	5.124442E-1	5.420003E-1	4.774345E-1	4.800051E-1	4.934915E-1	5.242628E-1	4.971878E-1	5.039498E-1	5.088747E-1	5.105916E-1	4.959440E-1	4.804780E-1	5.282027E-1	4.686290E-1	5.406201E-1	5.102232E-1	5.037288E-1	5.276085E-1	5.255821E-1	4.848206E-1	4.907953E-1	5.291960E-1	5.509602E-1	5.194557E-1	4.753737E-1	5.426754E-1	5.328125E-1	5.040832E-1	4.626914E-1	5.274962E-1	4.976237E-1	5.404611E-1	4.870852E-1	5.510179E-1	5.317381E-1	5.337593E-1	5.306114E-1	5.171368E-1	4.924223E-1	4.959854E-1	5.299885E-1	5.029125E-1	5.211669E-1	5.378723E-1	5.390322E-1	5.086736E-1	5.152719E-1	5.270815E-1	4.968175E-1	5.177202E-1	5.072106E-1	5.322221E-1	5.230646E-1	4.929244E-1	5.022454E-1	5.270448E-1	5.201321E-1	4.940955E-1	5.283293E-1	5.277822E-1	5.185570E-1	5.073107E-1	4.951921E-1	5.241482E-1	4.745955E-1	5.225030E-1	5.053476E-1	4.992622E-1	5.290242E-1	5.125097E-1	5.304325E-1	5.073047E-1	5.329971E-1	5.143024E-1	4.676081E-1	4.813865E-1	5.151763E-1	5.282681E-1	5.353757E-1	4.926835E-1	5.192295E-1	4.886493E-1	5.052098E-1	5.103462E-1	5.047117E-1	5.218028E-1	5.255362E-1	5.016528E-1	4.954568E-1	4.916437E-1	5.528925E-1	5.199708E-1	5.255174E-1	4.907212E-1	5.256381E-1	5.077120E-1	5.211958E-1	5.083575E-1	5.289710E-1	5.373047E-1	5.210629E-1	5.034948E-1	5.034729E-1	5.290592E-1	5.000610E-1	4.777256E-1	5.345820E-1	4.685174E-1	4.855324E-1	4.987873E-1	4.930227E-1	5.315081E-1	4.532066E-1	5.073038E-1	5.465156E-1	5.123583E-1	5.331254E-1	5.581818E-1	5.222249E-1	5.327417E-1	5.091069E-1	5.237362E-1	5.087076E-1	5.190067E-1	5.499519E-1	4.946125E-1	5.499544E-1	4.955195E-1	4.992341E-1	5.346463E-1	5.462201E-1	4.922105E-1	5.149076E-1	5.431431E-1	5.295959E-1	4.771209E-1	5.477336E-1	5.106569E-1	4.902308E-1	5.202032E-1	5.196580E-1	5.477791E-1	4.950746E-1	5.249796E-1	5.285801E-1	5.310328E-1	4.993077E-1	4.984949E-1	5.184790E-1	5.276323E-1	5.114455E-1	5.286477E-1	4.810804E-1	5.215440E-1	5.407808E-1	5.057776E-1	5.106859E-1	5.137146E-1	4.716538E-1	5.206331E-1
5.375060E+2	5.290212E-1	4.623572E-1	4.777621E-1	4.857848E-1	4.656048E-1	4.669564E-1	5.002676E-1	5.027992E-1	4.695380E-1	4.921237E-1	5.155060E-1	4.791042E-1	4.868774E-1	5.017441E-1	4.943173E-1	5.086921E-1	5.159145E-1	4.543982E-1	5.184856E-1	5.010519E-1	4.993075E-1	4.932128E-1	5.309414E-1	4.914354E-1	4.820074E-1	4.673309E-1	4.967691E-1	4.983550E-1	5.130791E-1	4.661967E-1	5.005995E-1	4.769500E-1	5.180463E-1	4.928048E-1	5.204566E-1	4.952094E-1	4.872802E-1	4.926222E-1	4.927301E-1	5.140089E-1	5.125939E-1	4.941088E-1	5.133114E-1	5.454352E-1	4.885310E-1	5.051785E-1	4.892408E-1	5.126675E-1	5.438085E-1	4.764301E-1	5.137973E-1	4.740639E-1	4.654091E-1	4.970655E-1	5.166832E-1	4.977129E-1	5.209729E-1	4.986793E-1	5.106501E-1	4.918485E-1	5.116775E-1	4.985835E-1	5.020173E-1	4.849375E-1	4.838720E-1	5.241170E-1	5.311890E-1	5.024283E-1	5.165081E-1	5.103692E-1	5.014805E-1	4.798017E-1	4.765461E-1	5.232875E-1	4.944687E-1	4.944115E-1	4.920275E-1	4.604222E-1	5.159166E-1	5.241899E-1	4.993161E-1	4.930211E-1	5.130160E-1	5.244504E-1	4.972918E-1	4.849685E-1	4.669069E-1	4.823764E-1	5.257534E-1	4.987984E-1	4.930581E-1	5.055612E-1	5.074409E-1	4.801287E-1	4.538209E-1	5.192232E-1	4.994198E-1	5.268546E-1	4.966213E-1	4.967185E-1	4.951812E-1	5.174790E-1	5.316364E-1	4.695097E-1	5.302415E-1	5.283246E-1	5.062783E-1	5.346307E-1	5.012069E-1	5.019109E-1	4.998453E-1	5.297239E-1	4.848322E-1	5.293457E-1	5.050228E-1	4.741530E-1	4.762522E-1	5.001264E-1	5.268744E-1	4.919847E-1	5.142002E-1	4.852347E-1	5.049870E-1	4.790366E-1	5.296728E-1	5.121562E-1	4.861794E-1	4.820105E-1	5.109216E-1	5.217207E-1	5.045887E-1	5.112172E-1	5.230541E-1	5.042546E-1	5.064321E-1	4.867152E-1	5.026249E-1	5.312100E-1	5.113434E-1	5.059723E-1	4.927744E-1	5.185181E-1	5.038058E-1	4.754310E-1	4.605867E-1	5.355741E-1	5.384594E-1	4.675151E-1	5.070855E-1	5.272973E-1	5.143984E-1	5.006294E-1	5.326643E-1	5.075856E-1	5.472694E-1	5.152337E-1	5.117821E-1	5.158495E-1	4.902409E-1	4.974478E-1	5.056829E-1	4.926632E-1	4.550111E-1	5.023937E-1	4.277645E-1
5.377740E+2	5.117299E-1	5.533915E-1	5.462945E-1	5.311139E-1	5.390688E-1	5.402163E-1	5.236679E-1	5.465440E-1	5.488632E-1	5.587438E-1	5.734300E-1	5.574853E-1	5.297692E-1	5.472019E-1	5.544338E-1	5.473909E-1	5.587876E-1	5.633339E-1	5.803096E-1	5.832230E-1	5.655991E-1	5.534691E-1	5.949359E-1	5.590436E-1	5.590422E-1	5.426213E-1	5.314354E-1	5.427358E-1	5.685536E-1	5.558425E-1	5.602854E-1	5.558499E-1	5.667173E-1	5.514425E-1	5.727944E-1	5.669294E-1	5.586015E-1	5.272170E-1	5.919921E-1	5.578523E-1	5.370368E-1	5.352241E-1	5.857487E-1	5.140190E-1	5.393205E-1	5.638699E-1	5.597997E-1	5.675308E-1	5.635247E-1	5.571132E-1	5.458169E-1	5.566869E-1	5.451851E-1	5.485813E-1	5.823212E-1	5.557472E-1	5.621457E-1	5.412020E-1	5.515392E-1	5.619927E-1	5.587669E-1	5.678825E-1	5.286675E-1	5.418378E-1	5.511215E-1	5.560251E-1	5.454759E-1	5.369091E-1	5.459828E-1	5.654500E-1	5.398842E-1	5.524882E-1	5.697081E-1	5.813840E-1	5.945537E-1	5.580206E-1	5.388039E-1	5.688243E-1	5.658943E-1	5.631506E-1	5.800632E-1	5.781100E-1	5.785135E-1	5.516686E-1	5.431200E-1	5.340624E-1	5.654210E-1	5.598404E-1	5.206986E-1	5.689820E-1	5.506557E-1	5.407230E-1	5.405346E-1	5.681415E-1	5.585500E-1	5.905733E-1	5.719277E-1	5.694612E-1	5.462207E-1	5.428828E-1	5.771575E-1	5.628976E-1	5.485458E-1	5.700728E-1	5.866368E-1	5.444780E-1	5.662327E-1	5.545044E-1	5.594415E-1	5.460742E-1	5.425161E-1	5.817107E-1	4.927503E-1	5.469997E-1	5.289573E-1	5.890041E-1	5.434703E-1	5.525968E-1	5.769552E-1	5.377313E-1	5.334734E-1	5.448343E-1	5.777339E-1	5.710211E-1	5.233549E-1	5.625665E-1	5.558728E-1	5.614226E-1	5.505938E-1	5.837743E-1	5.391535E-1	5.952289E-1	5.358329E-1	5.401725E-1	5.556970E-1	5.592920E-1	5.756919E-1	5.767346E-1	5.395427E-1	5.708433E-1	5.472542E-1	5.588824E-1	5.599616E-1	5.407560E-1	5.591096E-1	5.361296E-1	5.484851E-1	5.385571E-1	5.538124E-1	5.533734E-1	5.992602E-1	5.976262E-1	5.554590E-1	5.933104E-1	5.440470E-1	5.492821E-1	5.409470E-1	5.391405E-1	5.580967E-1	5.986969E-1	5.763872E-1	5.736323E-1	5.138170E-1	5.817785E-1	5.903540E-1
5.380160E+2	5.758300E-1	6.012995E-1	5.778044E-1	6.082180E-1	5.937673E-1	6.131194E-1	5.709164E-1	5.693626E-1	5.896401E-1	5.595017E-1	5.872939E-1	5.934614E-1	5.978741E-1	5.932576E-1	5.983548E-1	5.811429E-1	6.323599E-1	5.977922E-1	6.195567E-1	6.221856E-1	5.915119E-1	5.844351E-1	6.073077E-1	5.965113E-1	5.955121E-1	5.988742E-1	6.126746E-1	5.991343E-1	6.270589E-1	6.134484E-1	6.059647E-1	6.233198E-1	6.121275E-1	6.181816E-1	5.970323E-1	5.560937E-1	5.989377E-1	5.868001E-1	5.893177E-1	6.056829E-1	6.146828E-1	6.029560E-1	5.877704E-1	6.144214E-1	5.918102E-1	5.862100E-1	5.839845E-1	6.021296E-1	6.383423E-1	6.252985E-1	5.742695E-1	6.166773E-1	5.695475E-1	5.884612E-1	6.110360E-1	6.423387E-1	5.888571E-1	5.790082E-1	6.410068E-1	5.964087E-1	6.134214E-1	6.065699E-1	5.811598E-1	5.728381E-1	6.433727E-1	6.008582E-1	6.272578E-1	6.113165E-1	5.899019E-1	5.971726E-1	5.933597E-1	6.268952E-1	5.481248E-1	6.437395E-1	5.960186E-1	6.213328E-1	6.065870E-1	5.937640E-1	5.975972E-1	5.733078E-1	5.986481E-1	6.199643E-1	6.287856E-1	5.818162E-1	6.265726E-1	5.699204E-1	6.130393E-1	5.611235E-1	6.317649E-1	6.165596E-1	6.155176E-1	6.064394E-1	5.954771E-1	5.992421E-1	5.948460E-1	5.988942E-1	5.904021E-1	5.873351E-1	6.063358E-1	5.872028E-1	5.970926E-1	6.208047E-1	6.436597E-1	5.831599E-1	5.873018E-1	5.903480E-1	5.928162E-1	5.777129E-1	6.162356E-1	5.802682E-1	6.222162E-1	5.714112E-1	5.883970E-1	6.105442E-1	6.195745E-1	6.195490E-1	6.257248E-1	6.088033E-1	6.137643E-1	6.423536E-1	5.872478E-1	6.104965E-1	6.203591E-1	5.934836E-1	5.969495E-1	5.651868E-1	6.005583E-1	6.218284E-1	6.193849E-1	6.648845E-1	5.950804E-1	6.179727E-1	5.654214E-1	6.144117E-1	6.069616E-1	6.029015E-1	6.138576E-1	6.174898E-1	5.987508E-1	6.382156E-1	5.688565E-1	6.096286E-1	6.152619E-1	6.161446E-1	6.664379E-1	6.232536E-1	6.455899E-1	5.995891E-1	6.298992E-1	5.991821E-1	6.172824E-1	5.942440E-1	6.072072E-1	6.037312E-1	6.252351E-1	6.237863E-1	6.158502E-1	6.206230E-1	5.960680E-1	5.798510E-1	5.643589E-1	6.143788E-1	5.671665E-1	5.726227E-1	6.580369E-1
5.382850E+2	7.305061E-1	6.947782E-1	6.904556E-1	7.260475E-1	6.933355E-1	7.265740E-1	6.903607E-1	7.226432E-1	6.890258E-1	6.926040E-1	7.007241E-1	7.647425E-1	7.186512E-1	7.184120E-1	6.963544E-1	6.814927E-1	7.560180E-1	7.230426E-1	7.480657E-1	6.667739E-1	7.058557E-1	7.125670E-1	7.362575E-1	7.191795E-1	7.012926E-1	7.534974E-1	6.804405E-1	6.939844E-1	7.551491E-1	7.655043E-1	6.683814E-1	6.927775E-1	7.066023E-1	6.921587E-1	7.262696E-1	7.171289E-1	6.975269E-1	6.930394E-1	7.322738E-1	6.858668E-1	6.813623E-1	7.088909E-1	7.182862E-1	7.264771E-1	7.352147E-1	7.300764E-1	6.974729E-1	7.220237E-1	7.638146E-1	7.173595E-1	6.891748E-1	7.705735E-1	6.983579E-1	7.046285E-1	6.995906E-1	7.542707E-1	7.296703E-1	7.694752E-1	7.316134E-1	7.367457E-1	7.110235E-1	7.546618E-1	6.928640E-1	7.225710E-1	7.100625E-1	7.174753E-1	7.412763E-1	7.391322E-1	7.355547E-1	7.486859E-1	7.377496E-1	7.423240E-1	6.854078E-1	7.387350E-1	7.334973E-1	7.123211E-1	7.196371E-1	7.050104E-1	6.918378E-1	7.295520E-1	7.225924E-1	6.921913E-1	7.316034E-1	6.628862E-1	6.880486E-1	7.068225E-1	7.024311E-1	7.530052E-1	7.081143E-1	7.034689E-1	7.346664E-1	7.412409E-1	7.235118E-1	7.268297E-1	7.058731E-1	6.750687E-1	7.219731E-1	7.501149E-1	6.923737E-1	7.547361E-1	7.159025E-1	7.445668E-1	7.200801E-1	6.944296E-1	7.346788E-1	7.465295E-1	6.684103E-1	6.781949E-1	7.306216E-1	7.490685E-1	7.099231E-1	6.928875E-1	7.471705E-1	7.551582E-1	7.613863E-1	7.098695E-1	7.218778E-1	7.001367E-1	7.110720E-1	7.195428E-1	7.056674E-1	7.225963E-1	7.404716E-1	7.159535E-1	6.892193E-1	7.342041E-1	7.108120E-1	7.282956E-1	7.399043E-1	7.605470E-1	7.138894E-1	7.509066E-1	7.084631E-1	7.174106E-1	7.186238E-1	7.329834E-1	7.872886E-1	7.534183E-1	6.821291E-1	7.116622E-1	7.706842E-1	7.086212E-1	7.098169E-1	7.206745E-1	7.075957E-1	7.342818E-1	7.113259E-1	6.942199E-1	6.986486E-1	7.307659E-1	7.685375E-1	6.675665E-1	6.927656E-1	7.580103E-1	7.581611E-1	7.513758E-1	6.795058E-1	7.232364E-1	6.986299E-1	7.106801E-1	6.940948E-1	6.719288E-1	7.070888E-1	7.181680E-1	7.923855E-1
5.385110E+2	7.995464E-1	8.351997E-1	8.262385E-1	8.791042E-1	8.704700E-1	8.247245E-1	7.959456E-1	8.689409E-1	8.162835E-1	8.534715E-1	8.124657E-1	8.431983E-1	8.348288E-1	8.245709E-1	8.629941E-1	8.512310E-1	8.835984E-1	8.677129E-1	8.402910E-1	8.015687E-1	8.492593E-1	8.319077E-1	8.652665E-1	8.616310E-1	8.579157E-1	8.506242E-1	8.728520E-1	8.612349E-1	8.623021E-1	8.435498E-1	8.760288E-1	7.809737E-1	8.215538E-1	8.432559E-1	7.869719E-1	8.434982E-1	8.340888E-1	8.390065E-1	8.334965E-1	8.480107E-1	8.523347E-1	8.675481E-1	8.366776E-1	8.879758E-1	8.541800E-1	8.155878E-1	8.315770E-1	8.421280E-1	8.741381E-1	8.662296E-1	9.115062E-1	8.582553E-1	8.079342E-1	8.551462E-1	8.584002E-1	8.642330E-1	8.045353E-1	8.746899E-1	8.601142E-1	8.856227E-1	8.676233E-1	8.050201E-1	8.297510E-1	8.195778E-1	8.719725E-1	8.200402E-1	8.331145E-1	8.644319E-1	8.375824E-1	8.667492E-1	8.945526E-1	8.362665E-1	8.718835E-1	8.438654E-1	9.273317E-1	8.667523E-1	8.500895E-1	8.857198E-1	8.129413E-1	8.324303E-1	8.620800E-1	8.550693E-1	8.553441E-1	8.428616E-1	8.391522E-1	8.745291E-1	8.698054E-1	8.670417E-1	8.560076E-1	8.464235E-1	8.606114E-1	8.660418E-1	8.359325E-1	8.330437E-1	8.205151E-1	8.741946E-1	8.761863E-1	8.284984E-1	8.452511E-1	8.491148E-1	8.062107E-1	8.605412E-1	8.670338E-1	8.587489E-1	8.143770E-1	8.515955E-1	8.722385E-1	8.437399E-1	8.657509E-1	8.525061E-1	8.360808E-1	8.077105E-1	8.360937E-1	8.378924E-1	7.995517E-1	8.341178E-1	8.508740E-1	8.345794E-1	8.436787E-1	8.690394E-1	8.045342E-1	8.383547E-1	8.656665E-1	8.725770E-1	8.644550E-1	8.466398E-1	8.430838E-1	8.222591E-1	8.850360E-1	8.489728E-1	8.242076E-1	9.047599E-1	8.558934E-1	8.328196E-1	8.366360E-1	8.775798E-1	8.218139E-1	8.466670E-1	8.787298E-1	8.452083E-1	8.533418E-1	8.196260E-1	8.432373E-1	8.542786E-1	8.723776E-1	8.357442E-1	8.488886E-1	8.860179E-1	8.073892E-1	8.286951E-1	8.754678E-1	7.820134E-1	8.370059E-1	8.789985E-1	8.495501E-1	9.176581E-1	8.338842E-1	8.706426E-1	8.853959E-1	8.490458E-1	8.129675E-1	8.522937E-1	7.941143E-1	8.876832E-1	7.893175E-1
5.387600E+2	1.031540E+0	1.001722E+0	1.003270E+0	1.005284E+0	9.930480E-1	1.008049E+0	9.592967E-1	1.010140E+0	1.009982E+0	9.467242E-1	1.005943E+0	9.913501E-1	1.001352E+0	1.016328E+0	9.842801E-1	1.010512E+0	1.071099E+0	9.886047E-1	1.010327E+0	9.924766E-1	1.051005E+0	1.043764E+0	1.023213E+0	1.010152E+0	9.589534E-1	9.990690E-1	9.889602E-1	9.991095E-1	1.079050E+0	1.018276E+0	1.011642E+0	9.949599E-1	1.050071E+0	9.930964E-1	1.055449E+0	9.899632E-1	9.684241E-1	9.910413E-1	9.903689E-1	9.972245E-1	9.900745E-1	1.054346E+0	1.012235E+0	1.067584E+0	9.897509E-1	9.694649E-1	1.010579E+0	1.036122E+0	1.018430E+0	9.899927E-1	1.050994E+0	9.952156E-1	9.682695E-1	1.057197E+0	1.027541E+0	9.740053E-1	1.025459E+0	1.024498E+0	1.047034E+0	1.007518E+0	1.000001E+0	1.017797E+0	9.746309E-1	1.008663E+0	9.806591E-1	9.997065E-1	1.028460E+0	9.948606E-1	1.044051E+0	1.017709E+0	1.038507E+0	1.010342E+0	9.739786E-1	9.871028E-1	9.820972E-1	1.055358E+0	1.021543E+0	1.020098E+0	1.012390E+0	1.024218E+0	9.950209E-1	1.015942E+0	9.917373E-1	1.018985E+0	1.014443E+0	1.017020E+0	9.887009E-1	1.083109E+0	1.037888E+0	9.957616E-1	1.030715E+0	1.073296E+0	1.044512E+0	9.786699E-1	1.004617E+0	1.008056E+0	1.008563E+0	1.017831E+0	9.999514E-1	9.857632E-1	1.001120E+0	1.011543E+0	1.023137E+0	1.022247E+0	1.029112E+0	1.042869E+0	9.997724E-1	1.035158E+0	1.030393E+0	1.060679E+0	9.808990E-1	1.008280E+0	1.008826E+0	1.000386E+0	1.071342E+0	1.006256E+0	9.771572E-1	9.963365E-1	1.080321E+0	9.992367E-1	1.014126E+0	1.079247E+0	1.032195E+0	9.900303E-1	1.006935E+0	1.009782E+0	1.015329E+0	9.866407E-1	9.957740E-1	1.029736E+0	1.060262E+0	1.049744E+0	1.038335E+0	1.010270E+0	1.040981E+0	1.007220E+0	1.046588E+0	1.041912E+0	1.003663E+0	1.016917E+0	9.563412E-1	1.010749E+0	9.977525E-1	9.450088E-1	1.023902E+0	9.761681E-1	1.003967E+0	9.939504E-1	9.935490E-1	9.946804E-1	9.981701E-1	1.001753E+0	1.002370E+0	1.010336E+0	1.037151E+0	1.054844E+0	9.999833E-1	9.827502E-1	1.018957E+0	1.048603E+0	9.765674E-1	9.621688E-1	9.995031E-1	1.056874E+0	1.112717E+0
5.390240E+2	1.264695E+0	1.223476E+0	1.218961E+0	1.189819E+0	1.260318E+0	1.219603E+0	1.184829E+0	1.256683E+0	1.227084E+0	1.213268E+0	1.183136E+0	1.286819E+0	1.242421E+0	1.194137E+0	1.183669E+0	1.218258E+0	1.275033E+0	1.217244E+0	1.196823E+0	1.189134E+0	1.282511E+0	1.187118E+0	1.276820E+0	1.245901E+0	1.218591E+0	1.252168E+0	1.188355E+0	1.264308E+0	1.257075E+0	1.258867E+0	1.278937E+0	1.185632E+0	1.196575E+0	1.217810E+0	1.209847E+0	1.148591E+0	1.216670E+0	1.193733E+0	1.258979E+0	1.242571E+0	1.209612E+0	1.199529E+0	1.183955E+0	1.273026E+0	1.206155E+0	1.209617E+0	1.217787E+0	1.283041E+0	1.209810E+0	1.227929E+0	1.229588E+0	1.188679E+0	1.241719E+0	1.250804E+0	1.199643E+0	1.237678E+0	1.230676E+0	1.256278E+0	1.237599E+0	1.194961E+0	1.229044E+0	1.180085E+0	1.212441E+0	1.153916E+0	1.227911E+0	1.210520E+0	1.196182E+0	1.167981E+0	1.239541E+0	1.214629E+0	1.274214E+0	1.204525E+0	1.191766E+0	1.248010E+0	1.213669E+0	1.234335E+0	1.229790E+0	1.206003E+0	1.229883E+0	1.183053E+0	1.225666E+0	1.275819E+0	1.191882E+0	1.211370E+0	1.204620E+0	1.186263E+0	1.175321E+0	1.247682E+0	1.269000E+0	1.230697E+0	1.183412E+0	1.224291E+0	1.200777E+0	1.194084E+0	1.223587E+0	1.214153E+0	1.246253E+0	1.226992E+0	1.238987E+0	1.195351E+0	1.205964E+0	1.217947E+0	1.191801E+0	1.253142E+0	1.275146E+0	1.169036E+0	1.233592E+0	1.191617E+0	1.240743E+0	1.259851E+0	1.227854E+0	1.243248E+0	1.191338E+0	1.179780E+0	1.167365E+0	1.196095E+0	1.219936E+0	1.138171E+0	1.235628E+0	1.237993E+0	1.234017E+0	1.191170E+0	1.271483E+0	1.231046E+0	1.207374E+0	1.218539E+0	1.195362E+0	1.242367E+0	1.245799E+0	1.259781E+0	1.196705E+0	1.264497E+0	1.203406E+0	1.184581E+0	1.243202E+0	1.196221E+0	1.145115E+0	1.211822E+0	1.177557E+0	1.244296E+0	1.259331E+0	1.188848E+0	1.150868E+0	1.188397E+0	1.191416E+0	1.209858E+0	1.221875E+0	1.166686E+0	1.221898E+0	1.227175E+0	1.218893E+0	1.186018E+0	1.213421E+0	1.228521E+0	1.209555E+0	1.276417E+0	1.221364E+0	1.201637E+0	1.205649E+0	1.177861E+0	1.256723E+0	1.242308E+0	1.145303E+0	1.159813E+0	1.234040E+0
5.392670E+2	1.445430E+0	1.398760E+0	1.401745E+0	1.479468E+0	1.370003E+0	1.352879E+0	1.390190E+0	1.391184E+0	1.352712E+0	1.381742E+0	1.385563E+0	1.338267E+0	1.387609E+0	1.411941E+0	1.349417E+0	1.417125E+0	1.425153E+0	1.385234E+0	1.364184E+0	1.368026E+0	1.364593E+0	1.407632E+0	1.361086E+0	1.408795E+0	1.421710E+0	1.422451E+0	1.428148E+0	1.411229E+0	1.417170E+0	1.420589E+0	1.388076E+0	1.325671E+0	1.395893E+0	1.396830E+0	1.390992E+0	1.373109E+0	1.346468E+0	1.399872E+0	1.401303E+0	1.448196E+0	1.453795E+0	1.452745E+0	1.356544E+0	1.446291E+0	1.344910E+0	1.407360E+0	1.425009E+0	1.385809E+0	1.477696E+0	1.422324E+0	1.415376E+0	1.444428E+0	1.335381E+0	1.410714E+0	1.407821E+0	1.448757E+0	1.373785E+0	1.433062E+0	1.381478E+0	1.399234E+0	1.401021E+0	1.435259E+0	1.374491E+0	1.378523E+0	1.422358E+0	1.402214E+0	1.349714E+0	1.467516E+0	1.389922E+0	1.374441E+0	1.398545E+0	1.388375E+0	1.322437E+0	1.420984E+0	1.436250E+0	1.409434E+0	1.429150E+0	1.346996E+0	1.419614E+0	1.404419E+0	1.357608E+0	1.373043E+0	1.417103E+0	1.432112E+0	1.424680E+0	1.434786E+0	1.353823E+0	1.415002E+0	1.393845E+0	1.373558E+0	1.371114E+0	1.365393E+0	1.421007E+0	1.365820E+0	1.331166E+0	1.438022E+0	1.384273E+0	1.380129E+0	1.456051E+0	1.337970E+0	1.377176E+0	1.402506E+0	1.380946E+0	1.387780E+0	1.366703E+0	1.399109E+0	1.378869E+0	1.422491E+0	1.394665E+0	1.392287E+0	1.339754E+0	1.345988E+0	1.409225E+0	1.418370E+0	1.377916E+0	1.337834E+0	1.351433E+0	1.321705E+0	1.395854E+0	1.415213E+0	1.335721E+0	1.383061E+0	1.320603E+0	1.413077E+0	1.366585E+0	1.416955E+0	1.388179E+0	1.399288E+0	1.397541E+0	1.449036E+0	1.392067E+0	1.444546E+0	1.373313E+0	1.365474E+0	1.419448E+0	1.417977E+0	1.398060E+0	1.403454E+0	1.381235E+0	1.433446E+0	1.315677E+0	1.347408E+0	1.337959E+0	1.358162E+0	1.367477E+0	1.450321E+0	1.440612E+0	1.402714E+0	1.330837E+0	1.394848E+0	1.386842E+0	1.364330E+0	1.378021E+0	1.378387E+0	1.344379E+0	1.419117E+0	1.395198E+0	1.338902E+0	1.355585E+0	1.462042E+0	1.348458E+0	1.349818E+0	1.454634E+0	1.273070E+0	1.372190E+0
5.395160E+2	1.624014E+0	1.626039E+0	1.652920E+0	1.640246E+0	1.558825E+0	1.545555E+0	1.580874E+0	1.640370E+0	1.512904E+0	1.535442E+0	1.607461E+0	1.609460E+0	1.607936E+0	1.593934E+0	1.554656E+0	1.569128E+0	1.643245E+0	1.591039E+0	1.607861E+0	1.582818E+0	1.557183E+0	1.583651E+0	1.595163E+0	1.585989E+0	1.553521E+0	1.612651E+0	1.591319E+0	1.628636E+0	1.574516E+0	1.572769E+0	1.595300E+0	1.581101E+0	1.555524E+0	1.587762E+0	1.561128E+0	1.547737E+0	1.579322E+0	1.539054E+0	1.620522E+0	1.620706E+0	1.635930E+0	1.591804E+0	1.570132E+0	1.672281E+0	1.604726E+0	1.602521E+0	1.475905E+0	1.589575E+0	1.638890E+0	1.579813E+0	1.576956E+0	1.635533E+0	1.530946E+0	1.617017E+0	1.621569E+0	1.599936E+0	1.547365E+0	1.632744E+0	1.524474E+0	1.623265E+0	1.603747E+0	1.564947E+0	1.538217E+0	1.631199E+0	1.596597E+0	1.663852E+0	1.602526E+0	1.597938E+0	1.574119E+0	1.579715E+0	1.604302E+0	1.599691E+0	1.550932E+0	1.563207E+0	1.579761E+0	1.590146E+0	1.599164E+0	1.575412E+0	1.499791E+0	1.582229E+0	1.529087E+0	1.574042E+0	1.537566E+0	1.590513E+0	1.571817E+0	1.558469E+0	1.590490E+0	1.612294E+0	1.577362E+0	1.634302E+0	1.506894E+0	1.623726E+0	1.538164E+0	1.566758E+0	1.544624E+0	1.597433E+0	1.595482E+0	1.621683E+0	1.586540E+0	1.589269E+0	1.568348E+0	1.604076E+0	1.592181E+0	1.602615E+0	1.605628E+0	1.588695E+0	1.591337E+0	1.551242E+0	1.589917E+0	1.596050E+0	1.540487E+0	1.603125E+0	1.605706E+0	1.611813E+0	1.573359E+0	1.550369E+0	1.544142E+0	1.551290E+0	1.578490E+0	1.572653E+0	1.499609E+0	1.568104E+0	1.550793E+0	1.602728E+0	1.629447E+0	1.564729E+0	1.490870E+0	1.537542E+0	1.547397E+0	1.617203E+0	1.581371E+0	1.610058E+0	1.550039E+0	1.566999E+0	1.536349E+0	1.516872E+0	1.541258E+0	1.546152E+0	1.542288E+0	1.595611E+0	1.532767E+0	1.542170E+0	1.576333E+0	1.522502E+0	1.575090E+0	1.603938E+0	1.622433E+0	1.581865E+0	1.536616E+0	1.611773E+0	1.658413E+0	1.611010E+0	1.563163E+0	1.595977E+0	1.576185E+0	1.599083E+0	1.498750E+0	1.577042E+0	1.516634E+0	1.516826E+0	1.540290E+0	1.496569E+0	1.483363E+0	1.453202E+0	1.454527E+0
5.397700E+2	1.931805E+0	1.866492E+0	1.971273E+0	1.880576E+0	1.868924E+0	1.808036E+0	1.858267E+0	1.853835E+0	1.920477E+0	1.885850E+0	1.899620E+0	1.886024E+0	1.967605E+0	1.841573E+0	1.847976E+0	1.858290E+0	1.831279E+0	1.887283E+0	1.790228E+0	1.871648E+0	1.855317E+0	1.851022E+0	1.874006E+0	1.912890E+0	1.798082E+0	1.947768E+0	1.827749E+0	1.902482E+0	1.841341E+0	1.854127E+0	1.905833E+0	1.842078E+0	1.868747E+0	1.939772E+0	1.889789E+0	1.788408E+0	1.812348E+0	1.919265E+0	1.842444E+0	1.829093E+0	1.841044E+0	1.875577E+0	1.863139E+0	1.860054E+0	1.799001E+0	1.851346E+0	1.861754E+0	1.880439E+0	1.923313E+0	1.826876E+0	1.815390E+0	1.845346E+0	1.825805E+0	1.837176E+0	1.890638E+0	1.880375E+0	1.854353E+0	1.904512E+0	1.866471E+0	1.889851E+0	1.852081E+0	1.854767E+0	1.884220E+0	1.858194E+0	1.871108E+0	1.832227E+0	1.865818E+0	1.864905E+0	1.921991E+0	1.870711E+0	1.822005E+0	1.927664E+0	1.822109E+0	1.933653E+0	1.848443E+0	1.895474E+0	1.873351E+0	1.894543E+0	1.806931E+0	1.779950E+0	1.904375E+0	1.870540E+0	1.831556E+0	1.815358E+0	1.842932E+0	1.878038E+0	1.820836E+0	1.890567E+0	1.845257E+0	1.782798E+0	1.841310E+0	1.880354E+0	1.875484E+0	1.789655E+0	1.838148E+0	1.868500E+0	1.883091E+0	1.839004E+0	1.860863E+0	1.897350E+0	1.816841E+0	1.787275E+0	1.815214E+0	1.841209E+0	1.829304E+0	1.846693E+0	1.795161E+0	1.884751E+0	1.808284E+0	1.862753E+0	1.760878E+0	1.843031E+0	1.828291E+0	1.822188E+0	1.774931E+0	1.844941E+0	1.744388E+0	1.798645E+0	1.804058E+0	1.800562E+0	1.763323E+0	1.739341E+0	1.861517E+0	1.843979E+0	1.859382E+0	1.799709E+0	1.789840E+0	1.817758E+0	1.885054E+0	1.908093E+0	1.749200E+0	1.872058E+0	1.804341E+0	1.809714E+0	1.888283E+0	1.893792E+0	1.775573E+0	1.827714E+0	1.815275E+0	1.887133E+0	1.843850E+0	1.791584E+0	1.797583E+0	1.817529E+0	1.813586E+0	1.799184E+0	1.827430E+0	1.779043E+0	1.821537E+0	1.833242E+0	1.895630E+0	1.770656E+0	1.734529E+0	1.837006E+0	1.804855E+0	1.884150E+0	1.817977E+0	1.790963E+0	1.784344E+0	1.792468E+0	1.799578E+0	1.815225E+0	1.808618E+0	1.718415E+0	1.813255E+0
5.400190E+2	1.953265E+0	1.885541E+0	1.940232E+0	1.905380E+0	1.950335E+0	1.815055E+0	1.892291E+0	2.011210E+0	1.918527E+0	1.823046E+0	1.926832E+0	1.970515E+0	1.904930E+0	1.905011E+0	1.837224E+0	1.916910E+0	1.959206E+0	1.915127E+0	1.900537E+0	1.863662E+0	1.875444E+0	1.872261E+0	1.905073E+0	1.911858E+0	1.911186E+0	1.910621E+0	1.844205E+0	1.907926E+0	1.956244E+0	1.899907E+0	1.918804E+0	1.872372E+0	1.930752E+0	1.967655E+0	1.925633E+0	1.802448E+0	1.868592E+0	1.870308E+0	1.905570E+0	1.971110E+0	1.878337E+0	1.887890E+0	1.859548E+0	1.956870E+0	1.892680E+0	1.852909E+0	1.891056E+0	1.926816E+0	1.909693E+0	1.870519E+0	1.856989E+0	1.860616E+0	1.873587E+0	1.884054E+0	1.785672E+0	1.923012E+0	1.919056E+0	1.868155E+0	1.834386E+0	1.915128E+0	1.906704E+0	1.903516E+0	1.831527E+0	1.861895E+0	1.925719E+0	1.842290E+0	1.843169E+0	1.900072E+0	1.911586E+0	1.851259E+0	1.802645E+0	1.921086E+0	1.836335E+0	1.881225E+0	1.849863E+0	1.903697E+0	1.817014E+0	1.978670E+0	1.849445E+0	1.874102E+0	1.838363E+0	1.876733E+0	1.825792E+0	1.909224E+0	1.840698E+0	1.876812E+0	1.806117E+0	1.927008E+0	1.866856E+0	1.839181E+0	1.855149E+0	1.834303E+0	1.871082E+0	1.818602E+0	1.837378E+0	1.855162E+0	1.858931E+0	1.955533E+0	1.823228E+0	1.897207E+0	1.843572E+0	1.908138E+0	1.791287E+0	1.833195E+0	1.810249E+0	1.881951E+0	1.850843E+0	1.852444E+0	1.875885E+0	1.909146E+0	1.842436E+0	1.893044E+0	1.822123E+0	1.771703E+0	1.743931E+0	1.848201E+0	1.841958E+0	1.909795E+0	1.876425E+0	1.889789E+0	1.833230E+0	1.871406E+0	1.867643E+0	1.849428E+0	1.919223E+0	1.806238E+0	1.780911E+0	1.856030E+0	1.922007E+0	1.881480E+0	1.766524E+0	1.899497E+0	1.758394E+0	1.895670E+0	1.822182E+0	1.884005E+0	1.863194E+0	1.893043E+0	1.770043E+0	1.837029E+0	1.823744E+0	1.823668E+0	1.797839E+0	1.835542E+0	1.822924E+0	1.832618E+0	1.854729E+0	1.880878E+0	1.791889E+0	1.834164E+0	1.809759E+0	1.885763E+0	1.845025E+0	1.806300E+0	1.837808E+0	1.931221E+0	1.800629E+0	1.852562E+0	1.852588E+0	1.805364E+0	1.793181E+0	1.750345E+0	1.888244E+0	1.795458E+0	1.752735E+0
5.402530E+2	2.081649E+0	2.038933E+0	2.038032E+0	2.005532E+0	2.009802E+0	1.900323E+0	1.958027E+0	2.083406E+0	2.055054E+0	1.932562E+0	1.999446E+0	2.100193E+0	2.079835E+0	2.066092E+0	1.991808E+0	2.038178E+0	2.044728E+0	1.981304E+0	1.964852E+0	1.939043E+0	1.962354E+0	1.946432E+0	1.951782E+0	1.987641E+0	2.003286E+0	2.009024E+0	2.015421E+0	1.965536E+0	2.004854E+0	2.026212E+0	2.006415E+0	2.001550E+0	1.986887E+0	2.026433E+0	1.993084E+0	1.875448E+0	1.937765E+0	1.898392E+0	2.026694E+0	2.067544E+0	1.981480E+0	1.979464E+0	1.909073E+0	2.049944E+0	1.973016E+0	1.957423E+0	1.953491E+0	2.048468E+0	1.979252E+0	1.983042E+0	1.963717E+0	2.006863E+0	1.960961E+0	2.007410E+0	1.935177E+0	1.971524E+0	1.985353E+0	2.006887E+0	1.999624E+0	1.970858E+0	1.969973E+0	1.996791E+0	1.925414E+0	1.941887E+0	2.039944E+0	1.981646E+0	1.861492E+0	1.990186E+0	2.000379E+0	2.005665E+0	1.962557E+0	2.006612E+0	1.938033E+0	2.003963E+0	1.915568E+0	2.108745E+0	1.988111E+0	1.892114E+0	1.909225E+0	1.941921E+0	1.993249E+0	1.954862E+0	1.998998E+0	2.036140E+0	1.969845E+0	2.011422E+0	1.966184E+0	2.043216E+0	2.058135E+0	2.022552E+0	1.954113E+0	1.980483E+0	1.995825E+0	1.947463E+0	1.999523E+0	2.007393E+0	1.984150E+0	1.967007E+0	1.944744E+0	1.956025E+0	1.962391E+0	2.026161E+0	1.909958E+0	1.984742E+0	1.936838E+0	1.984580E+0	1.913669E+0	1.967994E+0	1.995365E+0	2.010415E+0	1.856700E+0	1.929769E+0	1.948450E+0	1.976902E+0	1.987192E+0	1.916756E+0	1.898824E+0	1.979781E+0	1.981098E+0	1.922729E+0	1.927167E+0	1.891435E+0	1.964422E+0	1.993027E+0	2.018748E+0	1.917544E+0	1.925504E+0	1.948646E+0	2.013259E+0	1.976146E+0	1.809531E+0	1.983753E+0	1.938624E+0	1.895626E+0	1.956048E+0	2.022814E+0	1.959210E+0	1.943072E+0	1.957498E+0	1.985708E+0	1.893123E+0	1.907769E+0	1.938371E+0	1.882174E+0	1.905880E+0	2.026852E+0	1.942094E+0	1.933348E+0	1.917939E+0	1.973092E+0	1.887793E+0	2.008343E+0	1.972688E+0	1.950593E+0	1.960707E+0	1.993332E+0	1.933093E+0	1.958617E+0	1.944413E+0	1.972855E+0	1.931199E+0	1.869862E+0	1.935269E+0	1.865445E+0	1.979660E+0
5.405080E+2	1.929909E+0	1.922436E+0	1.930030E+0	1.931291E+0	1.854474E+0	1.854296E+0	1.865447E+0	1.953775E+0	1.900351E+0	1.978209E+0	1.868137E+0	1.953660E+0	1.940388E+0	1.928505E+0	1.949210E+0	1.982936E+0	1.912503E+0	1.877279E+0	1.867170E+0	1.881244E+0	1.898679E+0	1.873745E+0	1.906302E+0	1.921785E+0	1.901829E+0	1.861077E+0	1.889506E+0	1.939651E+0	1.909627E+0	1.899866E+0	1.917374E+0	1.868801E+0	1.889708E+0	1.966622E+0	1.936118E+0	1.865867E+0	1.865222E+0	1.896678E+0	1.901856E+0	1.890758E+0	1.947375E+0	1.934362E+0	1.867328E+0	1.953789E+0	1.855921E+0	1.893623E+0	1.838870E+0	1.985306E+0	1.968750E+0	1.887106E+0	1.881964E+0	1.924137E+0	1.806119E+0	1.827675E+0	1.853786E+0	1.889732E+0	1.850419E+0	1.854299E+0	1.851326E+0	1.871359E+0	1.898283E+0	1.903910E+0	1.878391E+0	1.919795E+0	1.932254E+0	1.875497E+0	1.905447E+0	1.806979E+0	1.912450E+0	1.895474E+0	1.835790E+0	1.963787E+0	1.816169E+0	1.923517E+0	1.921227E+0	1.992596E+0	1.833242E+0	1.915877E+0	1.829198E+0	1.834982E+0	1.933456E+0	1.864601E+0	1.870736E+0	1.934599E+0	1.916677E+0	1.852504E+0	1.863475E+0	1.900097E+0	1.951744E+0	1.908854E+0	1.909722E+0	1.877969E+0	1.865847E+0	1.878042E+0	1.899136E+0	1.963592E+0	1.894575E+0	1.968833E+0	1.847113E+0	1.918275E+0	1.915094E+0	1.917907E+0	1.885447E+0	1.913908E+0	1.896235E+0	1.915330E+0	1.841273E+0	1.884228E+0	1.816801E+0	1.801294E+0	1.845751E+0	1.860204E+0	1.869527E+0	1.881726E+0	1.836209E+0	1.877527E+0	1.864715E+0	1.861698E+0	1.832236E+0	1.922931E+0	1.849014E+0	1.829932E+0	1.899877E+0	1.920191E+0	1.843620E+0	1.900705E+0	1.809388E+0	1.868242E+0	1.876367E+0	1.912712E+0	1.824063E+0	1.865951E+0	1.839727E+0	1.894665E+0	1.832074E+0	1.878036E+0	1.910919E+0	1.856423E+0	1.831534E+0	1.877882E+0	1.824986E+0	1.862653E+0	1.838983E+0	1.820696E+0	1.885761E+0	1.786533E+0	1.879777E+0	1.831985E+0	1.840832E+0	1.820885E+0	1.834068E+0	1.881685E+0	1.830443E+0	1.941567E+0	1.806448E+0	1.842894E+0	1.895792E+0	1.807606E+0	1.826126E+0	1.829177E+0	1.860250E+0	1.857050E+0	1.806705E+0	1.683836E+0	1.864242E+0
5.407630E+2	1.939460E+0	1.949323E+0	1.943447E+0	1.820981E+0	1.839021E+0	1.849926E+0	1.879827E+0	1.976275E+0	1.836633E+0	1.874279E+0	1.910590E+0	1.950605E+0	1.943781E+0	1.912523E+0	1.907283E+0	1.912509E+0	1.911657E+0	1.834627E+0	1.837493E+0	1.916994E+0	1.913459E+0	1.881156E+0	1.866097E+0	1.910334E+0	1.898505E+0	1.922820E+0	1.773443E+0	1.890825E+0	1.879268E+0	1.871280E+0	1.901379E+0	1.862650E+0	1.859625E+0	1.885050E+0	1.903360E+0	1.803620E+0	1.878188E+0	1.855404E+0	1.873561E+0	1.957644E+0	1.820678E+0	1.910932E+0	1.894659E+0	1.837026E+0	1.838217E+0	1.893584E+0	1.830097E+0	1.943070E+0	1.855021E+0	1.856211E+0	1.852594E+0	1.867915E+0	1.811758E+0	1.859437E+0	1.839007E+0	1.909054E+0	1.948978E+0	1.899182E+0	1.798529E+0	1.925456E+0	1.895416E+0	1.935692E+0	1.834466E+0	1.888927E+0	1.936375E+0	1.897357E+0	1.864376E+0	1.864389E+0	1.866033E+0	1.908897E+0	1.841705E+0	1.908959E+0	1.855296E+0	1.840938E+0	1.966513E+0	1.906506E+0	1.875266E+0	1.888895E+0	1.867933E+0	1.857265E+0	1.865995E+0	1.763379E+0	1.868286E+0	1.877041E+0	1.800270E+0	1.856547E+0	1.833367E+0	1.925697E+0	1.867389E+0	1.892220E+0	1.890605E+0	1.852328E+0	1.822964E+0	1.826947E+0	1.889838E+0	1.870602E+0	1.911304E+0	1.861552E+0	1.862206E+0	1.839275E+0	1.795313E+0	1.833598E+0	1.806120E+0	1.858191E+0	1.908853E+0	1.880506E+0	1.770660E+0	1.900245E+0	1.897794E+0	1.853494E+0	1.775272E+0	1.876716E+0	1.838733E+0	1.908184E+0	1.807151E+0	1.817005E+0	1.859936E+0	1.861541E+0	1.865595E+0	1.860432E+0	1.841440E+0	1.794827E+0	1.814396E+0	1.865728E+0	1.803180E+0	1.842231E+0	1.863659E+0	1.804718E+0	1.929146E+0	1.881254E+0	1.730365E+0	1.903357E+0	1.838782E+0	1.845790E+0	1.816426E+0	1.883112E+0	1.779556E+0	1.846427E+0	1.807961E+0	1.848821E+0	1.813138E+0	1.817973E+0	1.813637E+0	1.834097E+0	1.853912E+0	1.867882E+0	1.853700E+0	1.787059E+0	1.808014E+0	1.934887E+0	1.806913E+0	1.827665E+0	1.737315E+0	1.849092E+0	1.801870E+0	1.813872E+0	1.783052E+0	1.851413E+0	1.811521E+0	1.822996E+0	1.807618E+0	1.717146E+0	1.782619E+0	1.735430E+0	1.854856E+0
5.410130E+2	1.717569E+0	1.644603E+0	1.576470E+0	1.598003E+0	1.617778E+0	1.590238E+0	1.603757E+0	1.658004E+0	1.595669E+0	1.591702E+0	1.597258E+0	1.637260E+0	1.593784E+0	1.666059E+0	1.618324E+0	1.648501E+0	1.564037E+0	1.567848E+0	1.662787E+0	1.589404E+0	1.575451E+0	1.593058E+0	1.599154E+0	1.642055E+0	1.599297E+0	1.591325E+0	1.653096E+0	1.598484E+0	1.576346E+0	1.656679E+0	1.641217E+0	1.577107E+0	1.574001E+0	1.663660E+0	1.667162E+0	1.605188E+0	1.574990E+0	1.564987E+0	1.598465E+0	1.638558E+0	1.612792E+0	1.571174E+0	1.550208E+0	1.672085E+0	1.591595E+0	1.630379E+0	1.618580E+0	1.660794E+0	1.617233E+0	1.563985E+0	1.522092E+0	1.642966E+0	1.586473E+0	1.653385E+0	1.597312E+0	1.586305E+0	1.613924E+0	1.621739E+0	1.585520E+0	1.641825E+0	1.690674E+0	1.564681E+0	1.600030E+0	1.574083E+0	1.691905E+0	1.655183E+0	1.599912E+0	1.619825E+0	1.595088E+0	1.598280E+0	1.610698E+0	1.715636E+0	1.599490E+0	1.644527E+0	1.679404E+0	1.623087E+0	1.554945E+0	1.543318E+0	1.606622E+0	1.548919E+0	1.607269E+0	1.594736E+0	1.571839E+0	1.602452E+0	1.644239E+0	1.629043E+0	1.580250E+0	1.608031E+0	1.611796E+0	1.602838E+0	1.602894E+0	1.620643E+0	1.590604E+0	1.630463E+0	1.617697E+0	1.562854E+0	1.666662E+0	1.660363E+0	1.607072E+0	1.592867E+0	1.583369E+0	1.563090E+0	1.583801E+0	1.548716E+0	1.560823E+0	1.550270E+0	1.593417E+0	1.545864E+0	1.613767E+0	1.635715E+0	1.589930E+0	1.625207E+0	1.600066E+0	1.607088E+0	1.592837E+0	1.583526E+0	1.642455E+0	1.570036E+0	1.572516E+0	1.652618E+0	1.536047E+0	1.575391E+0	1.619597E+0	1.563440E+0	1.654434E+0	1.640550E+0	1.586004E+0	1.665990E+0	1.589915E+0	1.619626E+0	1.496055E+0	1.587607E+0	1.578985E+0	1.583569E+0	1.618441E+0	1.641127E+0	1.551944E+0	1.612124E+0	1.548902E+0	1.576873E+0	1.541994E+0	1.603897E+0	1.575308E+0	1.617852E+0	1.579330E+0	1.599126E+0	1.610423E+0	1.602721E+0	1.630160E+0	1.550736E+0	1.593852E+0	1.575469E+0	1.615951E+0	1.569663E+0	1.581174E+0	1.615141E+0	1.557724E+0	1.560560E+0	1.557731E+0	1.623827E+0	1.526449E+0	1.569917E+0	1.537019E+0	1.527835E+0	1.566214E+0
5.412690E+2	1.670685E+0	1.733223E+0	1.700661E+0	1.683536E+0	1.687882E+0	1.621435E+0	1.658786E+0	1.738296E+0	1.690634E+0	1.666272E+0	1.701826E+0	1.696705E+0	1.757315E+0	1.650127E+0	1.614044E+0	1.656375E+0	1.656911E+0	1.645079E+0	1.633143E+0	1.690268E+0	1.697565E+0	1.606889E+0	1.649818E+0	1.672735E+0	1.656119E+0	1.675095E+0	1.647872E+0	1.725682E+0	1.698595E+0	1.657647E+0	1.677755E+0	1.667183E+0	1.670160E+0	1.745730E+0	1.664135E+0	1.672795E+0	1.602380E+0	1.646194E+0	1.606609E+0	1.698186E+0	1.696887E+0	1.721537E+0	1.685242E+0	1.672611E+0	1.666443E+0	1.686463E+0	1.623487E+0	1.655680E+0	1.688249E+0	1.670850E+0	1.664021E+0	1.647970E+0	1.612019E+0	1.641579E+0	1.619522E+0	1.679265E+0	1.714369E+0	1.705257E+0	1.654747E+0	1.737909E+0	1.651354E+0	1.645500E+0	1.579684E+0	1.647574E+0	1.657653E+0	1.657747E+0	1.709059E+0	1.624695E+0	1.679201E+0	1.621860E+0	1.683830E+0	1.703332E+0	1.646020E+0	1.735635E+0	1.697731E+0	1.741101E+0	1.633182E+0	1.648655E+0	1.650972E+0	1.630266E+0	1.627662E+0	1.603727E+0	1.602999E+0	1.716305E+0	1.647317E+0	1.660602E+0	1.616970E+0	1.643482E+0	1.712528E+0	1.642993E+0	1.564049E+0	1.646990E+0	1.683751E+0	1.616340E+0	1.639434E+0	1.682905E+0	1.728772E+0	1.723240E+0	1.588778E+0	1.646657E+0	1.673417E+0	1.672279E+0	1.658691E+0	1.589861E+0	1.708850E+0	1.682547E+0	1.648999E+0	1.638286E+0	1.706822E+0	1.667870E+0	1.606030E+0	1.608320E+0	1.631016E+0	1.704149E+0	1.631435E+0	1.628639E+0	1.664608E+0	1.610932E+0	1.612667E+0	1.679004E+0	1.566882E+0	1.620163E+0	1.637488E+0	1.710447E+0	1.662425E+0	1.706020E+0	1.668896E+0	1.668007E+0	1.621550E+0	1.679723E+0	1.612708E+0	1.719834E+0	1.678328E+0	1.634750E+0	1.666387E+0	1.699091E+0	1.676363E+0	1.699742E+0	1.643884E+0	1.697273E+0	1.642756E+0	1.642767E+0	1.595749E+0	1.592042E+0	1.667284E+0	1.679855E+0	1.621888E+0	1.596720E+0	1.606366E+0	1.647084E+0	1.649374E+0	1.604144E+0	1.659205E+0	1.621577E+0	1.661070E+0	1.684147E+0	1.673414E+0	1.617735E+0	1.640278E+0	1.639381E+0	1.681406E+0	1.595963E+0	1.659052E+0	1.562294E+0	1.574471E+0
5.415140E+2	1.654312E+0	1.526232E+0	1.606329E+0	1.626726E+0	1.541194E+0	1.557380E+0	1.549670E+0	1.642000E+0	1.582297E+0	1.565870E+0	1.564411E+0	1.579510E+0	1.645252E+0	1.620734E+0	1.642408E+0	1.550334E+0	1.533455E+0	1.510775E+0	1.574810E+0	1.612125E+0	1.556175E+0	1.566061E+0	1.623127E+0	1.666699E+0	1.585077E+0	1.556095E+0	1.615998E+0	1.591048E+0	1.611255E+0	1.555032E+0	1.605639E+0	1.608761E+0	1.599399E+0	1.654137E+0	1.584868E+0	1.563527E+0	1.584219E+0	1.615462E+0	1.555500E+0	1.601076E+0	1.523982E+0	1.597562E+0	1.605951E+0	1.653796E+0	1.601514E+0	1.590993E+0	1.621044E+0	1.581501E+0	1.677190E+0	1.605688E+0	1.536663E+0	1.608456E+0	1.552959E+0	1.567835E+0	1.581364E+0	1.599065E+0	1.606722E+0	1.610084E+0	1.600797E+0	1.620799E+0	1.575532E+0	1.607409E+0	1.578451E+0	1.576663E+0	1.644112E+0	1.581196E+0	1.591198E+0	1.577338E+0	1.547687E+0	1.559530E+0	1.618099E+0	1.589748E+0	1.579954E+0	1.577114E+0	1.601616E+0	1.593288E+0	1.568254E+0	1.563332E+0	1.538981E+0	1.550162E+0	1.534924E+0	1.598229E+0	1.513318E+0	1.613401E+0	1.612790E+0	1.574111E+0	1.539146E+0	1.659057E+0	1.640481E+0	1.577288E+0	1.540128E+0	1.588005E+0	1.552674E+0	1.530533E+0	1.576466E+0	1.641106E+0	1.557562E+0	1.642006E+0	1.567075E+0	1.608292E+0	1.517302E+0	1.541105E+0	1.610228E+0	1.576153E+0	1.564347E+0	1.563968E+0	1.575688E+0	1.604051E+0	1.670737E+0	1.593366E+0	1.576152E+0	1.532425E+0	1.609616E+0	1.581635E+0	1.582634E+0	1.590485E+0	1.552397E+0	1.492521E+0	1.571106E+0	1.571488E+0	1.555532E+0	1.628906E+0	1.534604E+0	1.547608E+0	1.607805E+0	1.549883E+0	1.528337E+0	1.540626E+0	1.596088E+0	1.551463E+0	1.578816E+0	1.635491E+0	1.559878E+0	1.546060E+0	1.584397E+0	1.560917E+0	1.533083E+0	1.591139E+0	1.539774E+0	1.550853E+0	1.534246E+0	1.619049E+0	1.536834E+0	1.585244E+0	1.540670E+0	1.622300E+0	1.564139E+0	1.518594E+0	1.555975E+0	1.608357E+0	1.569559E+0	1.611227E+0	1.570684E+0	1.524662E+0	1.543675E+0	1.679141E+0	1.558781E+0	1.633686E+0	1.529255E+0	1.554648E+0	1.566988E+0	1.573182E+0	1.580407E+0	1.438202E+0	1.498599E+0
5.417490E+2	1.516345E+0	1.540624E+0	1.460229E+0	1.478464E+0	1.533039E+0	1.443353E+0	1.485953E+0	1.505296E+0	1.507649E+0	1.476711E+0	1.459170E+0	1.461524E+0	1.499893E+0	1.494173E+0	1.458354E+0	1.498042E+0	1.500214E+0	1.470318E+0	1.500543E+0	1.470371E+0	1.465274E+0	1.499615E+0	1.459386E+0	1.553108E+0	1.462611E+0	1.483784E+0	1.465108E+0	1.519281E+0	1.493679E+0	1.508717E+0	1.450688E+0	1.497218E+0	1.482225E+0	1.473028E+0	1.530320E+0	1.469203E+0	1.418248E+0	1.433947E+0	1.486943E+0	1.523888E+0	1.462166E+0	1.506086E+0	1.462470E+0	1.525173E+0	1.526196E+0	1.525701E+0	1.488960E+0	1.533715E+0	1.539179E+0	1.446022E+0	1.495920E+0	1.528438E+0	1.475007E+0	1.554139E+0	1.428021E+0	1.527332E+0	1.474827E+0	1.513123E+0	1.474489E+0	1.432964E+0	1.432765E+0	1.494999E+0	1.490358E+0	1.448920E+0	1.484278E+0	1.456849E+0	1.519940E+0	1.531747E+0	1.457876E+0	1.534195E+0	1.500488E+0	1.512901E+0	1.419174E+0	1.547115E+0	1.448795E+0	1.589078E+0	1.460019E+0	1.520682E+0	1.445814E+0	1.427443E+0	1.463598E+0	1.501039E+0	1.433743E+0	1.511265E+0	1.521004E+0	1.502885E+0	1.379227E+0	1.482241E+0	1.504460E+0	1.417437E+0	1.462448E+0	1.528423E+0	1.456751E+0	1.527312E+0	1.453516E+0	1.501718E+0	1.516370E+0	1.424293E+0	1.396402E+0	1.523163E+0	1.491449E+0	1.521011E+0	1.458260E+0	1.471029E+0	1.484037E+0	1.531642E+0	1.432567E+0	1.437473E+0	1.520397E+0	1.469791E+0	1.428226E+0	1.476380E+0	1.483177E+0	1.479697E+0	1.436699E+0	1.442954E+0	1.469848E+0	1.435716E+0	1.415572E+0	1.458503E+0	1.515377E+0	1.518489E+0	1.498027E+0	1.464383E+0	1.484997E+0	1.437033E+0	1.495287E+0	1.403102E+0	1.561468E+0	1.520268E+0	1.407446E+0	1.539295E+0	1.520475E+0	1.498701E+0	1.514262E+0	1.469735E+0	1.435978E+0	1.466277E+0	1.478395E+0	1.513412E+0	1.442713E+0	1.423601E+0	1.412960E+0	1.456806E+0	1.536062E+0	1.449124E+0	1.518470E+0	1.464348E+0	1.404770E+0	1.516368E+0	1.526945E+0	1.538028E+0	1.487992E+0	1.512606E+0	1.490368E+0	1.480661E+0	1.514626E+0	1.480354E+0	1.458102E+0	1.491858E+0	1.528197E+0	1.447164E+0	1.443152E+0	1.328418E+0	1.525596E+0
5.420320E+2	1.446437E+0	1.428349E+0	1.393627E+0	1.385438E+0	1.412957E+0	1.379927E+0	1.405222E+0	1.394887E+0	1.441430E+0	1.378998E+0	1.422329E+0	1.437865E+0	1.407849E+0	1.437793E+0	1.409382E+0	1.409853E+0	1.386356E+0	1.419505E+0	1.410157E+0	1.420524E+0	1.432887E+0	1.363634E+0	1.388412E+0	1.384227E+0	1.403567E+0	1.427727E+0	1.413151E+0	1.347581E+0	1.431437E+0	1.413840E+0	1.455432E+0	1.336272E+0	1.430292E+0	1.361874E+0	1.407717E+0	1.396212E+0	1.383967E+0	1.409520E+0	1.418728E+0	1.403827E+0	1.409612E+0	1.489638E+0	1.364367E+0	1.496990E+0	1.415485E+0	1.441028E+0	1.345851E+0	1.409145E+0	1.458037E+0	1.360325E+0	1.422134E+0	1.465820E+0	1.412437E+0	1.382351E+0	1.393438E+0	1.425794E+0	1.406605E+0	1.374755E+0	1.403261E+0	1.382806E+0	1.393348E+0	1.427271E+0	1.362086E+0	1.391310E+0	1.410691E+0	1.368697E+0	1.436364E+0	1.449242E+0	1.397531E+0	1.384116E+0	1.457871E+0	1.452415E+0	1.336524E+0	1.397811E+0	1.496143E+0	1.469622E+0	1.371336E+0	1.376411E+0	1.431157E+0	1.402480E+0	1.430889E+0	1.369363E+0	1.347558E+0	1.415506E+0	1.374519E+0	1.404343E+0	1.387747E+0	1.358129E+0	1.392171E+0	1.312966E+0	1.448042E+0	1.379223E+0	1.424535E+0	1.386878E+0	1.403326E+0	1.457454E+0	1.433879E+0	1.429877E+0	1.393163E+0	1.374253E+0	1.372976E+0	1.405839E+0	1.398421E+0	1.461859E+0	1.425121E+0	1.373972E+0	1.368198E+0	1.369586E+0	1.377479E+0	1.390440E+0	1.333193E+0	1.361479E+0	1.469237E+0	1.399757E+0	1.410647E+0	1.365588E+0	1.386096E+0	1.353674E+0	1.432118E+0	1.435649E+0	1.441478E+0	1.410550E+0	1.431262E+0	1.469449E+0	1.418639E+0	1.358866E+0	1.360281E+0	1.347057E+0	1.435475E+0	1.471940E+0	1.353225E+0	1.431058E+0	1.325732E+0	1.391969E+0	1.372503E+0	1.348013E+0	1.385180E+0	1.419563E+0	1.388546E+0	1.431414E+0	1.366761E+0	1.356414E+0	1.386049E+0	1.403166E+0	1.416336E+0	1.354454E+0	1.387019E+0	1.401805E+0	1.431378E+0	1.453493E+0	1.376250E+0	1.393714E+0	1.346419E+0	1.426415E+0	1.430813E+0	1.432786E+0	1.443713E+0	1.407023E+0	1.399073E+0	1.363816E+0	1.388726E+0	1.360520E+0	1.271938E+0	1.300150E+0	1.260863E+0
5.422780E+2	1.171292E+0	1.125613E+0	1.217429E+0	1.162394E+0	1.145296E+0	1.135203E+0	1.143367E+0	1.205813E+0	1.205581E+0	1.137829E+0	1.175174E+0	1.219185E+0	1.214673E+0	1.265399E+0	1.186104E+0	1.144100E+0	1.162022E+0	1.134875E+0	1.157151E+0	1.143252E+0	1.135054E+0	1.144922E+0	1.130559E+0	1.122128E+0	1.167398E+0	1.149475E+0	1.133408E+0	1.121159E+0	1.192104E+0	1.217874E+0	1.133949E+0	1.097762E+0	1.153609E+0	1.179252E+0	1.161665E+0	1.105855E+0	1.167665E+0	1.148191E+0	1.174545E+0	1.169456E+0	1.206746E+0	1.223791E+0	1.174454E+0	1.206946E+0	1.176455E+0	1.150829E+0	1.146684E+0	1.206432E+0	1.240174E+0	1.131525E+0	1.161123E+0	1.145183E+0	1.121373E+0	1.191567E+0	1.187919E+0	1.238506E+0	1.164080E+0	1.142346E+0	1.163949E+0	1.155424E+0	1.196945E+0	1.209421E+0	1.130827E+0	1.128351E+0	1.167951E+0	1.201363E+0	1.183359E+0	1.208171E+0	1.164702E+0	1.143917E+0	1.138437E+0	1.165111E+0	1.083941E+0	1.138004E+0	1.208273E+0	1.189101E+0	1.148718E+0	1.148414E+0	1.154271E+0	1.192847E+0	1.156209E+0	1.148465E+0	1.113174E+0	1.166945E+0	1.193211E+0	1.146212E+0	1.127834E+0	1.163235E+0	1.148543E+0	1.174569E+0	1.161563E+0	1.183578E+0	1.164931E+0	1.148461E+0	1.124729E+0	1.166234E+0	1.168954E+0	1.217454E+0	1.142791E+0	1.180436E+0	1.137951E+0	1.203925E+0	1.155495E+0	1.175957E+0	1.178991E+0	1.154785E+0	1.129395E+0	1.211007E+0	1.179266E+0	1.206158E+0	1.099593E+0	1.088898E+0	1.154889E+0	1.173002E+0	1.143914E+0	1.143492E+0	1.141032E+0	1.111661E+0	1.161926E+0	1.196842E+0	1.167978E+0	1.152377E+0	1.122661E+0	1.140459E+0	1.178624E+0	1.138288E+0	1.148233E+0	1.167151E+0	1.176169E+0	1.188561E+0	1.142465E+0	1.222006E+0	1.166888E+0	1.175599E+0	1.152902E+0	1.161197E+0	1.149674E+0	1.193552E+0	1.172524E+0	1.181784E+0	1.145928E+0	1.160279E+0	1.123591E+0	1.104891E+0	1.163702E+0	1.201344E+0	1.155432E+0	1.126395E+0	1.131487E+0	1.178538E+0	1.169101E+0	1.201934E+0	1.182533E+0	1.151825E+0	1.236912E+0	1.254257E+0	1.187633E+0	1.136247E+0	1.139215E+0	1.181133E+0	1.171658E+0	1.159142E+0	1.131031E+0	1.135642E+0	1.103477E+0
5.425240E+2	1.119740E+0	1.070333E+0	1.051327E+0	1.052793E+0	1.076158E+0	1.062558E+0	1.046177E+0	1.047921E+0	1.107015E+0	1.028846E+0	1.110848E+0	1.069053E+0	1.003525E+0	1.091118E+0	1.096515E+0	1.097887E+0	1.061769E+0	1.078456E+0	1.068238E+0	1.144347E+0	1.038076E+0	1.033949E+0	1.047426E+0	1.115171E+0	1.107438E+0	1.103361E+0	1.040994E+0	1.124860E+0	1.112102E+0	1.081937E+0	1.040790E+0	1.068776E+0	1.056028E+0	1.139684E+0	1.069578E+0	1.046212E+0	1.097760E+0	1.090799E+0	1.110972E+0	1.043069E+0	1.094752E+0	1.098648E+0	1.046736E+0	1.058909E+0	1.053400E+0	1.051350E+0	1.050781E+0	1.080772E+0	1.112555E+0	1.044299E+0	1.086773E+0	1.087289E+0	1.051987E+0	1.097408E+0	1.068348E+0	1.039842E+0	1.091525E+0	1.069537E+0	1.042623E+0	1.096836E+0	1.089897E+0	1.068031E+0	1.047100E+0	1.046592E+0	1.102264E+0	1.073615E+0	1.083864E+0	1.084059E+0	1.083486E+0	1.071773E+0	1.062546E+0	1.055017E+0	1.080282E+0	1.088054E+0	1.094800E+0	1.075235E+0	1.070263E+0	1.091165E+0	1.061996E+0	1.059732E+0	1.071795E+0	1.115807E+0	1.042625E+0	9.980204E-1	1.085182E+0	1.115564E+0	1.094508E+0	1.116452E+0	1.015537E+0	1.054304E+0	1.107561E+0	1.102648E+0	1.061180E+0	1.067702E+0	1.091078E+0	1.063658E+0	1.068317E+0	1.132642E+0	1.053586E+0	1.102062E+0	1.128915E+0	1.056082E+0	1.062949E+0	1.096491E+0	1.081914E+0	1.058579E+0	1.113561E+0	1.084172E+0	1.096111E+0	1.077381E+0	1.047278E+0	1.036417E+0	1.110814E+0	1.021754E+0	1.030229E+0	1.047986E+0	1.070293E+0	1.047403E+0	1.099469E+0	1.090210E+0	1.059760E+0	1.102154E+0	1.077349E+0	1.078788E+0	1.082702E+0	1.069650E+0	1.085139E+0	1.069563E+0	1.086544E+0	1.082793E+0	1.075834E+0	1.121168E+0	1.038464E+0	1.106462E+0	1.028211E+0	1.076709E+0	1.048646E+0	9.966357E-1	1.089282E+0	1.120369E+0	1.077031E+0	1.041573E+0	1.076710E+0	1.107023E+0	1.105077E+0	1.123788E+0	1.052494E+0	1.068960E+0	1.092842E+0	9.994233E-1	1.076569E+0	1.020954E+0	1.072928E+0	1.135233E+0	1.057377E+0	1.160420E+0	1.080076E+0	1.083999E+0	1.047085E+0	1.093625E+0	1.086248E+0	1.007665E+0	1.064781E+0	1.071930E+0	9.825798E-1
5.427870E+2	9.876666E-1	9.883258E-1	9.256881E-1	9.254128E-1	9.494050E-1	9.249488E-1	9.388818E-1	9.437839E-1	9.739526E-1	9.158110E-1	9.519446E-1	9.743939E-1	9.844393E-1	9.597503E-1	9.688322E-1	9.687670E-1	9.949685E-1	9.667915E-1	9.600992E-1	1.002609E+0	9.526439E-1	9.727869E-1	9.118120E-1	9.156941E-1	9.820542E-1	9.595617E-1	9.800735E-1	9.939004E-1	1.025943E+0	9.695681E-1	9.781463E-1	9.471307E-1	9.875541E-1	9.723583E-1	9.675823E-1	9.403266E-1	9.279510E-1	9.352780E-1	9.735889E-1	9.709564E-1	9.684378E-1	1.000058E+0	9.086810E-1	9.728612E-1	9.695513E-1	9.541050E-1	9.833382E-1	9.483635E-1	1.003267E+0	9.656544E-1	9.493414E-1	9.524144E-1	9.352999E-1	9.959811E-1	9.648511E-1	9.556162E-1	9.787529E-1	9.865076E-1	9.313394E-1	9.741719E-1	1.004479E+0	9.932276E-1	9.579908E-1	9.862477E-1	9.769811E-1	1.000839E+0	9.737074E-1	9.561437E-1	9.493774E-1	9.905878E-1	9.740784E-1	9.607731E-1	9.701534E-1	9.668852E-1	9.502658E-1	9.874318E-1	9.273367E-1	9.699524E-1	9.633467E-1	9.411976E-1	9.841294E-1	9.667888E-1	9.509182E-1	9.133571E-1	9.052787E-1	9.721389E-1	9.402257E-1	9.727478E-1	9.973406E-1	9.997165E-1	9.502493E-1	9.335641E-1	9.662976E-1	9.580485E-1	9.465391E-1	9.398486E-1	9.648231E-1	9.897632E-1	1.044109E+0	9.973863E-1	9.389662E-1	9.475336E-1	9.720320E-1	9.872651E-1	1.055331E+0	9.413930E-1	9.546173E-1	9.739652E-1	1.035102E+0	9.517400E-1	9.492945E-1	9.018354E-1	9.482413E-1	9.370555E-1	9.191854E-1	9.057314E-1	9.259974E-1	9.406102E-1	9.450657E-1	9.458455E-1	9.657162E-1	9.445001E-1	9.857384E-1	1.021545E+0	9.733631E-1	9.840955E-1	9.221507E-1	9.419308E-1	9.565593E-1	9.983249E-1	9.442065E-1	9.542012E-1	9.580641E-1	9.570617E-1	9.570045E-1	9.663690E-1	9.334049E-1	9.885702E-1	9.640721E-1	1.000253E+0	9.830271E-1	9.595222E-1	9.735145E-1	9.493738E-1	9.798911E-1	9.703759E-1	9.623610E-1	9.877151E-1	9.638661E-1	9.763386E-1	9.701192E-1	9.538358E-1	1.002279E+0	1.020256E+0	9.483175E-1	9.466054E-1	1.010457E+0	9.391905E-1	9.752250E-1	9.353554E-1	9.512044E-1	1.025671E+0	9.654989E-1	9.033181E-1	9.427353E-1
5.430170E+2	9.335548E-1	9.334727E-1	9.351790E-1	9.240319E-1	9.495102E-1	8.578196E-1	8.702916E-1	9.886321E-1	9.491051E-1	9.377879E-1	9.073565E-1	9.314029E-1	9.228939E-1	9.331047E-1	9.048676E-1	8.855160E-1	9.617834E-1	9.620109E-1	9.619185E-1	9.532286E-1	9.350764E-1	9.482018E-1	9.178662E-1	9.466371E-1	9.507899E-1	9.797091E-1	9.209685E-1	9.590487E-1	9.539032E-1	9.754773E-1	9.261663E-1	9.421759E-1	9.328624E-1	9.600272E-1	9.583771E-1	9.343424E-1	9.097630E-1	8.990037E-1	9.021354E-1	9.302413E-1	9.544195E-1	9.316980E-1	9.559595E-1	9.543393E-1	9.657324E-1	9.290455E-1	9.117855E-1	9.350227E-1	9.764977E-1	9.275959E-1	9.365844E-1	8.986749E-1	9.487937E-1	9.507553E-1	9.361381E-1	9.744018E-1	9.140843E-1	9.448785E-1	9.265180E-1	9.444565E-1	9.382903E-1	9.083228E-1	8.958822E-1	9.240184E-1	9.244126E-1	9.131482E-1	9.395204E-1	8.970967E-1	9.079311E-1	8.850320E-1	9.510492E-1	9.919638E-1	9.257786E-1	9.731836E-1	9.379907E-1	8.995060E-1	9.292917E-1	9.642813E-1	9.406429E-1	9.028534E-1	9.457975E-1	9.535905E-1	9.587696E-1	9.249388E-1	8.906874E-1	9.377593E-1	9.050631E-1	9.303925E-1	9.623407E-1	9.228203E-1	9.410902E-1	9.477381E-1	9.459325E-1	9.376078E-1	8.735776E-1	9.585215E-1	9.182473E-1	9.771435E-1	9.577236E-1	9.109088E-1	9.254439E-1	9.176935E-1	9.366890E-1	9.376847E-1	9.772008E-1	9.055628E-1	9.142495E-1	9.243274E-1	1.011546E+0	8.947444E-1	9.138581E-1	9.023983E-1	9.731378E-1	9.462820E-1	9.064116E-1	9.213176E-1	9.127640E-1	9.204064E-1	9.965522E-1	9.658137E-1	9.518852E-1	9.075731E-1	9.186852E-1	9.480726E-1	9.236972E-1	9.020122E-1	9.096753E-1	9.218527E-1	9.628661E-1	9.419900E-1	9.027252E-1	9.232596E-1	9.341042E-1	9.619109E-1	9.306141E-1	9.926230E-1	9.647922E-1	9.557195E-1	9.121889E-1	9.819495E-1	9.279494E-1	9.263716E-1	9.087097E-1	9.528849E-1	9.628247E-1	9.463589E-1	9.391477E-1	9.077151E-1	8.864098E-1	9.336510E-1	9.469843E-1	9.274845E-1	9.218836E-1	9.708695E-1	9.186909E-1	9.915128E-1	9.735154E-1	9.444735E-1	9.086431E-1	9.593704E-1	9.669485E-1	9.153610E-1	8.943999E-1	9.563180E-1	9.739340E-1
5.432700E+2	1.074255E+0	1.011973E+0	1.018046E+0	1.034650E+0	1.053358E+0	9.843430E-1	9.652741E-1	1.014042E+0	1.059581E+0	1.049757E+0	1.009001E+0	1.002090E+0	1.055982E+0	9.511596E-1	1.010872E+0	9.743370E-1	1.030735E+0	1.039476E+0	1.047825E+0	1.056821E+0	1.055537E+0	1.033473E+0	1.003960E+0	9.963207E-1	1.049108E+0	1.044753E+0	1.026949E+0	1.004844E+0	1.047779E+0	9.964315E-1	9.981294E-1	9.924609E-1	1.019775E+0	1.041782E+0	1.009234E+0	9.897070E-1	9.677334E-1	1.006883E+0	9.988285E-1	1.031757E+0	1.008839E+0	1.012876E+0	9.923757E-1	1.032876E+0	9.940231E-1	1.067532E+0	9.786343E-1	1.010996E+0	1.074144E+0	9.737204E-1	9.772825E-1	9.763878E-1	1.017238E+0	1.036053E+0	1.041382E+0	1.034892E+0	1.032220E+0	9.826874E-1	1.028208E+0	1.001043E+0	1.033527E+0	1.086739E+0	1.007919E+0	1.026689E+0	1.048400E+0	1.018275E+0	1.019042E+0	1.004198E+0	9.963171E-1	1.018962E+0	9.975489E-1	9.723207E-1	1.015133E+0	1.045586E+0	1.033693E+0	1.048446E+0	1.008780E+0	1.001251E+0	1.036837E+0	9.785753E-1	9.888144E-1	1.052158E+0	1.000591E+0	1.008369E+0	1.032508E+0	1.036566E+0	1.006276E+0	1.023080E+0	1.028066E+0	1.002235E+0	1.012882E+0	1.016432E+0	1.000171E+0	1.021314E+0	1.025618E+0	1.024370E+0	1.046062E+0	1.047813E+0	9.853731E-1	1.032864E+0	9.862780E-1	1.043287E+0	9.827809E-1	9.869432E-1	1.063063E+0	1.032174E+0	1.020545E+0	9.919591E-1	1.059098E+0	1.031682E+0	1.020059E+0	9.641180E-1	1.017466E+0	1.020469E+0	1.030957E+0	9.858992E-1	1.013565E+0	1.025240E+0	1.011370E+0	9.959686E-1	1.023861E+0	1.007780E+0	1.003350E+0	1.013341E+0	1.029058E+0	9.664476E-1	9.997704E-1	1.012936E+0	1.068558E+0	1.057596E+0	9.751470E-1	1.053878E+0	1.018063E+0	9.687419E-1	9.797255E-1	1.051804E+0	1.008977E+0	1.053413E+0	1.026109E+0	1.026958E+0	9.783878E-1	9.805150E-1	9.967095E-1	9.895261E-1	1.021459E+0	1.073880E+0	1.007731E+0	1.012118E+0	1.008995E+0	1.059609E+0	1.004914E+0	9.987400E-1	1.046749E+0	1.076275E+0	1.030493E+0	1.049500E+0	9.847789E-1	1.029812E+0	1.037831E+0	1.008311E+0	1.032117E+0	1.017786E+0	9.442126E-1	9.283385E-1	9.913813E-1
5.435110E+2	1.101861E+0	1.151223E+0	1.149613E+0	1.113644E+0	1.172193E+0	1.054764E+0	1.067154E+0	1.102611E+0	1.142389E+0	1.069067E+0	1.133189E+0	1.086662E+0	1.102368E+0	1.154291E+0	1.110506E+0	1.124261E+0	1.143219E+0	1.133216E+0	1.110455E+0	1.123866E+0	1.150070E+0	1.141368E+0	1.080696E+0	1.132588E+0	1.169267E+0	1.139499E+0	1.124685E+0	1.105529E+0	1.159360E+0	1.134361E+0	1.111469E+0	1.103186E+0	1.164722E+0	1.078155E+0	1.128807E+0	1.083599E+0	1.117962E+0	1.134919E+0	1.064268E+0	1.095459E+0	1.073782E+0	1.122764E+0	1.084970E+0	1.085332E+0	1.148779E+0	1.120333E+0	1.047426E+0	1.146741E+0	1.184768E+0	1.109127E+0	1.114231E+0	1.137244E+0	1.066443E+0	1.136640E+0	1.134243E+0	1.125733E+0	1.093733E+0	1.103092E+0	1.120679E+0	1.083189E+0	1.163236E+0	1.094598E+0	1.071355E+0	1.098459E+0	1.081782E+0	1.139481E+0	1.088730E+0	1.115515E+0	1.161183E+0	1.102822E+0	1.102020E+0	1.115330E+0	1.072021E+0	1.173118E+0	1.195185E+0	1.123055E+0	1.121697E+0	1.127550E+0	1.078674E+0	1.085644E+0	1.164615E+0	1.130749E+0	1.096203E+0	1.156798E+0	1.101797E+0	1.135998E+0	1.116871E+0	1.098169E+0	1.145517E+0	1.093126E+0	1.082439E+0	1.107448E+0	1.128447E+0	1.114363E+0	1.090345E+0	1.120351E+0	1.084470E+0	1.164190E+0	1.068060E+0	1.138652E+0	1.102770E+0	1.168738E+0	1.101792E+0	1.092294E+0	1.134145E+0	1.055010E+0	1.107442E+0	1.115152E+0	1.139716E+0	1.134702E+0	1.088864E+0	1.137744E+0	1.102088E+0	1.172173E+0	1.087939E+0	1.070185E+0	1.151295E+0	1.093154E+0	1.102612E+0	1.153664E+0	1.098544E+0	1.084218E+0	1.038784E+0	1.117148E+0	1.137464E+0	1.106401E+0	1.087259E+0	1.083963E+0	1.115696E+0	1.163264E+0	1.071089E+0	1.125752E+0	1.067131E+0	1.137520E+0	1.059850E+0	1.090993E+0	1.109467E+0	1.139888E+0	1.112193E+0	1.143068E+0	1.103176E+0	1.166082E+0	1.139354E+0	1.078777E+0	1.094642E+0	1.093372E+0	1.088603E+0	1.113546E+0	1.089560E+0	1.107210E+0	1.083110E+0	1.128926E+0	1.144868E+0	1.109046E+0	1.063276E+0	1.142349E+0	1.152672E+0	1.087852E+0	1.112905E+0	1.087968E+0	1.113036E+0	1.078534E+0	1.204101E+0	1.143016E+0	1.110009E+0
5.437750E+2	1.353082E+0	1.356709E+0	1.345319E+0	1.275424E+0	1.348581E+0	1.302137E+0	1.307705E+0	1.412834E+0	1.369063E+0	1.306580E+0	1.311352E+0	1.343722E+0	1.354895E+0	1.368934E+0	1.355261E+0	1.309893E+0	1.367137E+0	1.330291E+0	1.349982E+0	1.325151E+0	1.307148E+0	1.391187E+0	1.306989E+0	1.330680E+0	1.363017E+0	1.335334E+0	1.301630E+0	1.369964E+0	1.368572E+0	1.357077E+0	1.355669E+0	1.266037E+0	1.356165E+0	1.361705E+0	1.382267E+0	1.318842E+0	1.310053E+0	1.303072E+0	1.265105E+0	1.326073E+0	1.358848E+0	1.355041E+0	1.345759E+0	1.332466E+0	1.373492E+0	1.354051E+0	1.332900E+0	1.350440E+0	1.344882E+0	1.362947E+0	1.341436E+0	1.377343E+0	1.354926E+0	1.417904E+0	1.316336E+0	1.348711E+0	1.342434E+0	1.382061E+0	1.328685E+0	1.286061E+0	1.355718E+0	1.329498E+0	1.365328E+0	1.296676E+0	1.334728E+0	1.321751E+0	1.404407E+0	1.380799E+0	1.329574E+0	1.343152E+0	1.361545E+0	1.351515E+0	1.314464E+0	1.390876E+0	1.388929E+0	1.297431E+0	1.352682E+0	1.342864E+0	1.355634E+0	1.329478E+0	1.342885E+0	1.332446E+0	1.340918E+0	1.335972E+0	1.334028E+0	1.347554E+0	1.350362E+0	1.346802E+0	1.369994E+0	1.302826E+0	1.328187E+0	1.318500E+0	1.296846E+0	1.333260E+0	1.272767E+0	1.343365E+0	1.378072E+0	1.346645E+0	1.345025E+0	1.308502E+0	1.367664E+0	1.357339E+0	1.315295E+0	1.289076E+0	1.310936E+0	1.298221E+0	1.340507E+0	1.292168E+0	1.365091E+0	1.326171E+0	1.279999E+0	1.260106E+0	1.321984E+0	1.352920E+0	1.328135E+0	1.329199E+0	1.374605E+0	1.233587E+0	1.356550E+0	1.322658E+0	1.274999E+0	1.325942E+0	1.281004E+0	1.349934E+0	1.327812E+0	1.353199E+0	1.324093E+0	1.299103E+0	1.303548E+0	1.345331E+0	1.258863E+0	1.314477E+0	1.371804E+0	1.315304E+0	1.325859E+0	1.322771E+0	1.347912E+0	1.337342E+0	1.349643E+0	1.332757E+0	1.299670E+0	1.333744E+0	1.321008E+0	1.307623E+0	1.317205E+0	1.395311E+0	1.291673E+0	1.305318E+0	1.304796E+0	1.321277E+0	1.323626E+0	1.321208E+0	1.374211E+0	1.402643E+0	1.344405E+0	1.306413E+0	1.403581E+0	1.302558E+0	1.305530E+0	1.275591E+0	1.386286E+0	1.323618E+0	1.308901E+0	1.272613E+0	1.351944E+0
5.440170E+2	1.538446E+0	1.499410E+0	1.517606E+0	1.479227E+0	1.410475E+0	1.470712E+0	1.459807E+0	1.524347E+0	1.431415E+0	1.408791E+0	1.487529E+0	1.527649E+0	1.509305E+0	1.505634E+0	1.437901E+0	1.480862E+0	1.455966E+0	1.429616E+0	1.416870E+0	1.481823E+0	1.455704E+0	1.450744E+0	1.471787E+0	1.427830E+0	1.448767E+0	1.496295E+0	1.446889E+0	1.471011E+0	1.491748E+0	1.490505E+0	1.441282E+0	1.452962E+0	1.468607E+0	1.460474E+0	1.440339E+0	1.430419E+0	1.496681E+0	1.512519E+0	1.463300E+0	1.481391E+0	1.500979E+0	1.459434E+0	1.461534E+0	1.462524E+0	1.489096E+0	1.496633E+0	1.475615E+0	1.456050E+0	1.431549E+0	1.451703E+0	1.392352E+0	1.448543E+0	1.453116E+0	1.438075E+0	1.454942E+0	1.469244E+0	1.497628E+0	1.461972E+0	1.446151E+0	1.484575E+0	1.460362E+0	1.400106E+0	1.447947E+0	1.460165E+0	1.535831E+0	1.464425E+0	1.520030E+0	1.431235E+0	1.457204E+0	1.468961E+0	1.466270E+0	1.463528E+0	1.424421E+0	1.432307E+0	1.494228E+0	1.480359E+0	1.443583E+0	1.461010E+0	1.469347E+0	1.384363E+0	1.437267E+0	1.435741E+0	1.427102E+0	1.429860E+0	1.456732E+0	1.464132E+0	1.457049E+0	1.431390E+0	1.493622E+0	1.448027E+0	1.484436E+0	1.432931E+0	1.481783E+0	1.439147E+0	1.427550E+0	1.470665E+0	1.442003E+0	1.421704E+0	1.421995E+0	1.507507E+0	1.392180E+0	1.431051E+0	1.448833E+0	1.404483E+0	1.525917E+0	1.447486E+0	1.388833E+0	1.392909E+0	1.504244E+0	1.414493E+0	1.446335E+0	1.433405E+0	1.436537E+0	1.502296E+0	1.466208E+0	1.396341E+0	1.448142E+0	1.462445E+0	1.448853E+0	1.483683E+0	1.469423E+0	1.419183E+0	1.400824E+0	1.416374E+0	1.455843E+0	1.475791E+0	1.439610E+0	1.456262E+0	1.484671E+0	1.525003E+0	1.421002E+0	1.502965E+0	1.541632E+0	1.409693E+0	1.475121E+0	1.429923E+0	1.392548E+0	1.417432E+0	1.406127E+0	1.419852E+0	1.455086E+0	1.394482E+0	1.385224E+0	1.399911E+0	1.488803E+0	1.464275E+0	1.434606E+0	1.392103E+0	1.428745E+0	1.463796E+0	1.386339E+0	1.378482E+0	1.454940E+0	1.451009E+0	1.407196E+0	1.537453E+0	1.492923E+0	1.455202E+0	1.408835E+0	1.406346E+0	1.470561E+0	1.503460E+0	1.445724E+0	1.445493E+0	1.480332E+0
5.442700E+2	1.548539E+0	1.620061E+0	1.576006E+0	1.576492E+0	1.534296E+0	1.487268E+0	1.546156E+0	1.570727E+0	1.589615E+0	1.492234E+0	1.541370E+0	1.557765E+0	1.612294E+0	1.532356E+0	1.520089E+0	1.483950E+0	1.538817E+0	1.529273E+0	1.510892E+0	1.560985E+0	1.562328E+0	1.562956E+0	1.506789E+0	1.505378E+0	1.545355E+0	1.558480E+0	1.516194E+0	1.485231E+0	1.606668E+0	1.648549E+0	1.534733E+0	1.520504E+0	1.537942E+0	1.510076E+0	1.494274E+0	1.455641E+0	1.533593E+0	1.511069E+0	1.571986E+0	1.503331E+0	1.573774E+0	1.507664E+0	1.506969E+0	1.573763E+0	1.521649E+0	1.529437E+0	1.528028E+0	1.544683E+0	1.607732E+0	1.514496E+0	1.558557E+0	1.500432E+0	1.514271E+0	1.507078E+0	1.515534E+0	1.521591E+0	1.475699E+0	1.500576E+0	1.523376E+0	1.607024E+0	1.584689E+0	1.561056E+0	1.480728E+0	1.473017E+0	1.597433E+0	1.558831E+0	1.604029E+0	1.522077E+0	1.543169E+0	1.607684E+0	1.503406E+0	1.542654E+0	1.559866E+0	1.617485E+0	1.572273E+0	1.542552E+0	1.531642E+0	1.559094E+0	1.491665E+0	1.474035E+0	1.518847E+0	1.471296E+0	1.527630E+0	1.486534E+0	1.543237E+0	1.531800E+0	1.438091E+0	1.480682E+0	1.539032E+0	1.576358E+0	1.552159E+0	1.526719E+0	1.538257E+0	1.490677E+0	1.495847E+0	1.566960E+0	1.554165E+0	1.544239E+0	1.556998E+0	1.513096E+0	1.522815E+0	1.514537E+0	1.471536E+0	1.529488E+0	1.533210E+0	1.535004E+0	1.511738E+0	1.507742E+0	1.562277E+0	1.516018E+0	1.460250E+0	1.456203E+0	1.482231E+0	1.564696E+0	1.456627E+0	1.519735E+0	1.507135E+0	1.479550E+0	1.461602E+0	1.521076E+0	1.539500E+0	1.492736E+0	1.480728E+0	1.524911E+0	1.548893E+0	1.568501E+0	1.474571E+0	1.520154E+0	1.533175E+0	1.530946E+0	1.489000E+0	1.569799E+0	1.539575E+0	1.515487E+0	1.461200E+0	1.533727E+0	1.500798E+0	1.520728E+0	1.520014E+0	1.519281E+0	1.490143E+0	1.529354E+0	1.512046E+0	1.510357E+0	1.551205E+0	1.598357E+0	1.523719E+0	1.498559E+0	1.510757E+0	1.581451E+0	1.547662E+0	1.451469E+0	1.575930E+0	1.524777E+0	1.470233E+0	1.570362E+0	1.527477E+0	1.514412E+0	1.538825E+0	1.482249E+0	1.535364E+0	1.552758E+0	1.476935E+0	1.315698E+0	1.534927E+0
5.445180E+2	1.629111E+0	1.624188E+0	1.588923E+0	1.605896E+0	1.604346E+0	1.581076E+0	1.587096E+0	1.674276E+0	1.605655E+0	1.577716E+0	1.619459E+0	1.606070E+0	1.685926E+0	1.609794E+0	1.657245E+0	1.578477E+0	1.576413E+0	1.571304E+0	1.633326E+0	1.574815E+0	1.614739E+0	1.611621E+0	1.511767E+0	1.633235E+0	1.650080E+0	1.684839E+0	1.550997E+0	1.543986E+0	1.668241E+0	1.663989E+0	1.603224E+0	1.576428E+0	1.562308E+0	1.648752E+0	1.661953E+0	1.567721E+0	1.590351E+0	1.638041E+0	1.549268E+0	1.668097E+0	1.695622E+0	1.643766E+0	1.629854E+0	1.617103E+0	1.598935E+0	1.631007E+0	1.611667E+0	1.583691E+0	1.679384E+0	1.621000E+0	1.605434E+0	1.529820E+0	1.584913E+0	1.611030E+0	1.618216E+0	1.593286E+0	1.671892E+0	1.654413E+0	1.638045E+0	1.594033E+0	1.663620E+0	1.559659E+0	1.549915E+0	1.571364E+0	1.623707E+0	1.659014E+0	1.627554E+0	1.628977E+0	1.579393E+0	1.583414E+0	1.631936E+0	1.621573E+0	1.621910E+0	1.607714E+0	1.633030E+0	1.656920E+0	1.620727E+0	1.625411E+0	1.545212E+0	1.552576E+0	1.623976E+0	1.644135E+0	1.603547E+0	1.592981E+0	1.621564E+0	1.628710E+0	1.505769E+0	1.592737E+0	1.687730E+0	1.633606E+0	1.655042E+0	1.585982E+0	1.599374E+0	1.593844E+0	1.592498E+0	1.706194E+0	1.704909E+0	1.664479E+0	1.569777E+0	1.621796E+0	1.598057E+0	1.558825E+0	1.651383E+0	1.553347E+0	1.580797E+0	1.565621E+0	1.508093E+0	1.550103E+0	1.684497E+0	1.596995E+0	1.594665E+0	1.534555E+0	1.592932E+0	1.698218E+0	1.543808E+0	1.555000E+0	1.548710E+0	1.524857E+0	1.582142E+0	1.593719E+0	1.563591E+0	1.616205E+0	1.587974E+0	1.563211E+0	1.612652E+0	1.585892E+0	1.542445E+0	1.572869E+0	1.604798E+0	1.648878E+0	1.534623E+0	1.628114E+0	1.526267E+0	1.530082E+0	1.544779E+0	1.565786E+0	1.585347E+0	1.563010E+0	1.581740E+0	1.667933E+0	1.587473E+0	1.533807E+0	1.541817E+0	1.513617E+0	1.573201E+0	1.597674E+0	1.517466E+0	1.578291E+0	1.511923E+0	1.599098E+0	1.595657E+0	1.552241E+0	1.652068E+0	1.555342E+0	1.623117E+0	1.638273E+0	1.595775E+0	1.603017E+0	1.585882E+0	1.585240E+0	1.607972E+0	1.529744E+0	1.598798E+0	1.460948E+0	1.540056E+0
5.447610E+2	1.534805E+0	1.536933E+0	1.551963E+0	1.525231E+0	1.529805E+0	1.463159E+0	1.460746E+0	1.530669E+0	1.537250E+0	1.531065E+0	1.528836E+0	1.556775E+0	1.485068E+0	1.548796E+0	1.519517E+0	1.545155E+0	1.526558E+0	1.497586E+0	1.456363E+0	1.472452E+0	1.519755E+0	1.581601E+0	1.532668E+0	1.472952E+0	1.498784E+0	1.520799E+0	1.511160E+0	1.511329E+0	1.540471E+0	1.520553E+0	1.507167E+0	1.536442E+0	1.555601E+0	1.582071E+0	1.495416E+0	1.477590E+0	1.558056E+0	1.508646E+0	1.574786E+0	1.476973E+0	1.545687E+0	1.503017E+0	1.519307E+0	1.515250E+0	1.517910E+0	1.517927E+0	1.517459E+0	1.526600E+0	1.573977E+0	1.541334E+0	1.533774E+0	1.553298E+0	1.546361E+0	1.542610E+0	1.428862E+0	1.478113E+0	1.538861E+0	1.548124E+0	1.484991E+0	1.460007E+0	1.553856E+0	1.542890E+0	1.480171E+0	1.466175E+0	1.557601E+0	1.484843E+0	1.547561E+0	1.502372E+0	1.539150E+0	1.523528E+0	1.499309E+0	1.523703E+0	1.517933E+0	1.577061E+0	1.561011E+0	1.484780E+0	1.546272E+0	1.535881E+0	1.510234E+0	1.464605E+0	1.475526E+0	1.494648E+0	1.519571E+0	1.473043E+0	1.502354E+0	1.526933E+0	1.453955E+0	1.502174E+0	1.578436E+0	1.491556E+0	1.502383E+0	1.497117E+0	1.595739E+0	1.519398E+0	1.477259E+0	1.528469E+0	1.530428E+0	1.506635E+0	1.535917E+0	1.535256E+0	1.505091E+0	1.549269E+0	1.490469E+0	1.502007E+0	1.461584E+0	1.543769E+0	1.500750E+0	1.497355E+0	1.561111E+0	1.532209E+0	1.475352E+0	1.488178E+0	1.527781E+0	1.499675E+0	1.459793E+0	1.496568E+0	1.477623E+0	1.533685E+0	1.437568E+0	1.569190E+0	1.508299E+0	1.512164E+0	1.514361E+0	1.538248E+0	1.545638E+0	1.513661E+0	1.444092E+0	1.493460E+0	1.510247E+0	1.533425E+0	1.400957E+0	1.576212E+0	1.471147E+0	1.515141E+0	1.488415E+0	1.476986E+0	1.489855E+0	1.530814E+0	1.453643E+0	1.537102E+0	1.505832E+0	1.527534E+0	1.511183E+0	1.512679E+0	1.464293E+0	1.561208E+0	1.499779E+0	1.503230E+0	1.488210E+0	1.552005E+0	1.541690E+0	1.485769E+0	1.531490E+0	1.520831E+0	1.518581E+0	1.455787E+0	1.490791E+0	1.568491E+0	1.484089E+0	1.462985E+0	1.556380E+0	1.461400E+0	1.466151E+0	1.415866E+0	1.480723E+0
5.450150E+2	1.520214E+0	1.490501E+0	1.566137E+0	1.478817E+0	1.453794E+0	1.527585E+0	1.539302E+0	1.567119E+0	1.481553E+0	1.543448E+0	1.589840E+0	1.527214E+0	1.479648E+0	1.560788E+0	1.544241E+0	1.472444E+0	1.498374E+0	1.501320E+0	1.515942E+0	1.514099E+0	1.534085E+0	1.512146E+0	1.560913E+0	1.551619E+0	1.522823E+0	1.535719E+0	1.524685E+0	1.524496E+0	1.531511E+0	1.572240E+0	1.526020E+0	1.522917E+0	1.550063E+0	1.600772E+0	1.506127E+0	1.469734E+0	1.462119E+0	1.515257E+0	1.563229E+0	1.462607E+0	1.491072E+0	1.516576E+0	1.557157E+0	1.503189E+0	1.526236E+0	1.479869E+0	1.519330E+0	1.513385E+0	1.551535E+0	1.454927E+0	1.504318E+0	1.526545E+0	1.554873E+0	1.548940E+0	1.529913E+0	1.513790E+0	1.543289E+0	1.446713E+0	1.547962E+0	1.474866E+0	1.546531E+0	1.499273E+0	1.429002E+0	1.505674E+0	1.557542E+0	1.555998E+0	1.520588E+0	1.495764E+0	1.547601E+0	1.524541E+0	1.505738E+0	1.532007E+0	1.545249E+0	1.536412E+0	1.517172E+0	1.549143E+0	1.429656E+0	1.511754E+0	1.511436E+0	1.534147E+0	1.517442E+0	1.452250E+0	1.478440E+0	1.423399E+0	1.541018E+0	1.492583E+0	1.464628E+0	1.478850E+0	1.521913E+0	1.563833E+0	1.546599E+0	1.504017E+0	1.553148E+0	1.511644E+0	1.500340E+0	1.571437E+0	1.635290E+0	1.572253E+0	1.479751E+0	1.511850E+0	1.530459E+0	1.531125E+0	1.499319E+0	1.532758E+0	1.564995E+0	1.476221E+0	1.497513E+0	1.459759E+0	1.495896E+0	1.502955E+0	1.483415E+0	1.473437E+0	1.528149E+0	1.517953E+0	1.524873E+0	1.543304E+0	1.486727E+0	1.429453E+0	1.542111E+0	1.511736E+0	1.477265E+0	1.544274E+0	1.542800E+0	1.563474E+0	1.536433E+0	1.445532E+0	1.448807E+0	1.501775E+0	1.496176E+0	1.518543E+0	1.449646E+0	1.533028E+0	1.517527E+0	1.502627E+0	1.501064E+0	1.560077E+0	1.495142E+0	1.530255E+0	1.507197E+0	1.496648E+0	1.448386E+0	1.497128E+0	1.468839E+0	1.509386E+0	1.536777E+0	1.396127E+0	1.504119E+0	1.478054E+0	1.473813E+0	1.493141E+0	1.505051E+0	1.443270E+0	1.552372E+0	1.495791E+0	1.496201E+0	1.518766E+0	1.526018E+0	1.500543E+0	1.461988E+0	1.521040E+0	1.588403E+0	1.483350E+0	1.475792E+0	1.429122E+0	1.500191E+0
5.452690E+2	1.438712E+0	1.418235E+0	1.453986E+0	1.387048E+0	1.433745E+0	1.406010E+0	1.347765E+0	1.436718E+0	1.373594E+0	1.402542E+0	1.398688E+0	1.424606E+0	1.411056E+0	1.440825E+0	1.371519E+0	1.409616E+0	1.370892E+0	1.430955E+0	1.405513E+0	1.378561E+0	1.423444E+0	1.417847E+0	1.410534E+0	1.413450E+0	1.373098E+0	1.429409E+0	1.393099E+0	1.404777E+0	1.439501E+0	1.473190E+0	1.397864E+0	1.389795E+0	1.352979E+0	1.434639E+0	1.431658E+0	1.369814E+0	1.382792E+0	1.370945E+0	1.430488E+0	1.413478E+0	1.476236E+0	1.453130E+0	1.397192E+0	1.374648E+0	1.369619E+0	1.414730E+0	1.422350E+0	1.454972E+0	1.413164E+0	1.403373E+0	1.350207E+0	1.453973E+0	1.363311E+0	1.435640E+0	1.410526E+0	1.480750E+0	1.441949E+0	1.427805E+0	1.416878E+0	1.385471E+0	1.419684E+0	1.425924E+0	1.377261E+0	1.372722E+0	1.391600E+0	1.457192E+0	1.375848E+0	1.406100E+0	1.410465E+0	1.429563E+0	1.373581E+0	1.379349E+0	1.417356E+0	1.478829E+0	1.378692E+0	1.443197E+0	1.453702E+0	1.426052E+0	1.438779E+0	1.360363E+0	1.392716E+0	1.415958E+0	1.355943E+0	1.419229E+0	1.395080E+0	1.385164E+0	1.386043E+0	1.323748E+0	1.431925E+0	1.346540E+0	1.390427E+0	1.420502E+0	1.387899E+0	1.460741E+0	1.390237E+0	1.433765E+0	1.437783E+0	1.368002E+0	1.380741E+0	1.396542E+0	1.437572E+0	1.398512E+0	1.403601E+0	1.360460E+0	1.430088E+0	1.395726E+0	1.387076E+0	1.360077E+0	1.391330E+0	1.422005E+0	1.347991E+0	1.369735E+0	1.353886E+0	1.390403E+0	1.429253E+0	1.334212E+0	1.346988E+0	1.374357E+0	1.391051E+0	1.390140E+0	1.416097E+0	1.423465E+0	1.405497E+0	1.357172E+0	1.437565E+0	1.447672E+0	1.413506E+0	1.402899E+0	1.413149E+0	1.477021E+0	1.363153E+0	1.358705E+0	1.426570E+0	1.421402E+0	1.389729E+0	1.396563E+0	1.458322E+0	1.427877E+0	1.421279E+0	1.409519E+0	1.423563E+0	1.394824E+0	1.420879E+0	1.406735E+0	1.400046E+0	1.409818E+0	1.445803E+0	1.346476E+0	1.392428E+0	1.403434E+0	1.431568E+0	1.379998E+0	1.415251E+0	1.415254E+0	1.366251E+0	1.384442E+0	1.344187E+0	1.459114E+0	1.400254E+0	1.370606E+0	1.365264E+0	1.282325E+0	1.451313E+0	1.344385E+0	1.466525E+0
5.455070E+2	1.434009E+0	1.409020E+0	1.408480E+0	1.446283E+0	1.452149E+0	1.357497E+0	1.382623E+0	1.444322E+0	1.412804E+0	1.384494E+0	1.428641E+0	1.359228E+0	1.380655E+0	1.406865E+0	1.391806E+0	1.379552E+0	1.377156E+0	1.399760E+0	1.376776E+0	1.365964E+0	1.363619E+0	1.418908E+0	1.377912E+0	1.385173E+0	1.366761E+0	1.407556E+0	1.371947E+0	1.384248E+0	1.398150E+0	1.444471E+0	1.350115E+0	1.364757E+0	1.376905E+0	1.399315E+0	1.383861E+0	1.309030E+0	1.347894E+0	1.448599E+0	1.396041E+0	1.395095E+0	1.421297E+0	1.413069E+0	1.381892E+0	1.401003E+0	1.382281E+0	1.397670E+0	1.369468E+0	1.403991E+0	1.367634E+0	1.422250E+0	1.409133E+0	1.415941E+0	1.384870E+0	1.402294E+0	1.351061E+0	1.402267E+0	1.380520E+0	1.383440E+0	1.368269E+0	1.374831E+0	1.391961E+0	1.391776E+0	1.334261E+0	1.424766E+0	1.448946E+0	1.419210E+0	1.416014E+0	1.410096E+0	1.391633E+0	1.350168E+0	1.377704E+0	1.377004E+0	1.361642E+0	1.426070E+0	1.435241E+0	1.386041E+0	1.336681E+0	1.432084E+0	1.374564E+0	1.393370E+0	1.402044E+0	1.391307E+0	1.352314E+0	1.420613E+0	1.359332E+0	1.384153E+0	1.314117E+0	1.368914E+0	1.398133E+0	1.362283E+0	1.365991E+0	1.360724E+0	1.359110E+0	1.420996E+0	1.360255E+0	1.361869E+0	1.447039E+0	1.411941E+0	1.444882E+0	1.397610E+0	1.312452E+0	1.439365E+0	1.324779E+0	1.395941E+0	1.424702E+0	1.383649E+0	1.390801E+0	1.342095E+0	1.378501E+0	1.349253E+0	1.400559E+0	1.383710E+0	1.380225E+0	1.380072E+0	1.334787E+0	1.350974E+0	1.340791E+0	1.349533E+0	1.439123E+0	1.415881E+0	1.375985E+0	1.319834E+0	1.415247E+0	1.404729E+0	1.352141E+0	1.424903E+0	1.380143E+0	1.341181E+0	1.429012E+0	1.396698E+0	1.330243E+0	1.451487E+0	1.401764E+0	1.440381E+0	1.325676E+0	1.354734E+0	1.349011E+0	1.343346E+0	1.339358E+0	1.395233E+0	1.398125E+0	1.377362E+0	1.307118E+0	1.359270E+0	1.361432E+0	1.436196E+0	1.363043E+0	1.347680E+0	1.426131E+0	1.458988E+0	1.392006E+0	1.353559E+0	1.429096E+0	1.465251E+0	1.328824E+0	1.388853E+0	1.443703E+0	1.413377E+0	1.317245E+0	1.343429E+0	1.395438E+0	1.370154E+0	1.407199E+0	1.402890E+0	1.398898E+0
5.457720E+2	1.361323E+0	1.356302E+0	1.357191E+0	1.259668E+0	1.339660E+0	1.276544E+0	1.326254E+0	1.297872E+0	1.298684E+0	1.337477E+0	1.280018E+0	1.329791E+0	1.332069E+0	1.397897E+0	1.326275E+0	1.282802E+0	1.329891E+0	1.300375E+0	1.259177E+0	1.307638E+0	1.312816E+0	1.259707E+0	1.290326E+0	1.263763E+0	1.270341E+0	1.326044E+0	1.262391E+0	1.318271E+0	1.336058E+0	1.360275E+0	1.298811E+0	1.272988E+0	1.285360E+0	1.396777E+0	1.327472E+0	1.335761E+0	1.324223E+0	1.263491E+0	1.312791E+0	1.316625E+0	1.286979E+0	1.361031E+0	1.274398E+0	1.319546E+0	1.264331E+0	1.268311E+0	1.293858E+0	1.316704E+0	1.307171E+0	1.283520E+0	1.305560E+0	1.278455E+0	1.273414E+0	1.316927E+0	1.307829E+0	1.316360E+0	1.312580E+0	1.349794E+0	1.300571E+0	1.284059E+0	1.328811E+0	1.232934E+0	1.310889E+0	1.261786E+0	1.299800E+0	1.313852E+0	1.301228E+0	1.310709E+0	1.343132E+0	1.328142E+0	1.329578E+0	1.257944E+0	1.288808E+0	1.370316E+0	1.290358E+0	1.339966E+0	1.315508E+0	1.276666E+0	1.261432E+0	1.301051E+0	1.285831E+0	1.286788E+0	1.343517E+0	1.287208E+0	1.350845E+0	1.324350E+0	1.211028E+0	1.310210E+0	1.342583E+0	1.280119E+0	1.284678E+0	1.219368E+0	1.268486E+0	1.312593E+0	1.258971E+0	1.316573E+0	1.314049E+0	1.259473E+0	1.288912E+0	1.308960E+0	1.279540E+0	1.318724E+0	1.315780E+0	1.309134E+0	1.257582E+0	1.307642E+0	1.296014E+0	1.260652E+0	1.361278E+0	1.344630E+0	1.249816E+0	1.277293E+0	1.351181E+0	1.320734E+0	1.309704E+0	1.264522E+0	1.263611E+0	1.224440E+0	1.313926E+0	1.294771E+0	1.318080E+0	1.247306E+0	1.338955E+0	1.248129E+0	1.288744E+0	1.368565E+0	1.212574E+0	1.272285E+0	1.356141E+0	1.332885E+0	1.243261E+0	1.294110E+0	1.300946E+0	1.308354E+0	1.276167E+0	1.311922E+0	1.291728E+0	1.324643E+0	1.280813E+0	1.325874E+0	1.268316E+0	1.293379E+0	1.309701E+0	1.315326E+0	1.325345E+0	1.369170E+0	1.274092E+0	1.268561E+0	1.336369E+0	1.270104E+0	1.310420E+0	1.281675E+0	1.278072E+0	1.347848E+0	1.267359E+0	1.314572E+0	1.378485E+0	1.284284E+0	1.286760E+0	1.278495E+0	1.360676E+0	1.291820E+0	1.293166E+0	1.172091E+0	1.348759E+0
5.460110E+2	1.254614E+0	1.176545E+0	1.298540E+0	1.206481E+0	1.259929E+0	1.244378E+0	1.186098E+0	1.238442E+0	1.293015E+0	1.273217E+0	1.252501E+0	1.234240E+0	1.253994E+0	1.192864E+0	1.254475E+0	1.298386E+0	1.251225E+0	1.248997E+0	1.298648E+0	1.211335E+0	1.224133E+0	1.231042E+0	1.269495E+0	1.250986E+0	1.251313E+0	1.257676E+0	1.196473E+0	1.234155E+0	1.272758E+0	1.277758E+0	1.215519E+0	1.271880E+0	1.240911E+0	1.267876E+0	1.271799E+0	1.219405E+0	1.237837E+0	1.294300E+0	1.264536E+0	1.198664E+0	1.305750E+0	1.281467E+0	1.236234E+0	1.289650E+0	1.276072E+0	1.270874E+0	1.271249E+0	1.238991E+0	1.263193E+0	1.237479E+0	1.260399E+0	1.257088E+0	1.193430E+0	1.290519E+0	1.270495E+0	1.271052E+0	1.197939E+0	1.257111E+0	1.236092E+0	1.271665E+0	1.212735E+0	1.270395E+0	1.236676E+0	1.254094E+0	1.290534E+0	1.258058E+0	1.277963E+0	1.247889E+0	1.262157E+0	1.270326E+0	1.245481E+0	1.235039E+0	1.239978E+0	1.242745E+0	1.298891E+0	1.265962E+0	1.240541E+0	1.237607E+0	1.313026E+0	1.184405E+0	1.242043E+0	1.243028E+0	1.251391E+0	1.239712E+0	1.219055E+0	1.266916E+0	1.219687E+0	1.230699E+0	1.151512E+0	1.251405E+0	1.236880E+0	1.209344E+0	1.253385E+0	1.275616E+0	1.199589E+0	1.264121E+0	1.273691E+0	1.265072E+0	1.219207E+0	1.216390E+0	1.235843E+0	1.271653E+0	1.221554E+0	1.243776E+0	1.245628E+0	1.236200E+0	1.260029E+0	1.218444E+0	1.278820E+0	1.279029E+0	1.223771E+0	1.231533E+0	1.231806E+0	1.213069E+0	1.266823E+0	1.194954E+0	1.263606E+0	1.239173E+0	1.217613E+0	1.257513E+0	1.212041E+0	1.236664E+0	1.207799E+0	1.195742E+0	1.275375E+0	1.275704E+0	1.224337E+0	1.215582E+0	1.251208E+0	1.252627E+0	1.235920E+0	1.240392E+0	1.224795E+0	1.275669E+0	1.246489E+0	1.254121E+0	1.184566E+0	1.198898E+0	1.223711E+0	1.230190E+0	1.164829E+0	1.269976E+0	1.226410E+0	1.211678E+0	1.261792E+0	1.253495E+0	1.204359E+0	1.251723E+0	1.274028E+0	1.290692E+0	1.261888E+0	1.224550E+0	1.270331E+0	1.286318E+0	1.219592E+0	1.217493E+0	1.278694E+0	1.246693E+0	1.225684E+0	1.264139E+0	1.167723E+0	1.276125E+0	1.259471E+0	1.213252E+0	1.356412E+0
5.467660E+2	1.169033E+0	1.176194E+0	1.166664E+0	1.137430E+0	1.069829E+0	1.056205E+0	1.067146E+0	1.184997E+0	1.145440E+0	1.131216E+0	1.198750E+0	1.134572E+0	1.154814E+0	1.162873E+0	1.167713E+0	1.110831E+0	1.202941E+0	1.135155E+0	1.151091E+0	1.084651E+0	1.176577E+0	1.097874E+0	1.159110E+0	1.151669E+0	1.090202E+0	1.120553E+0	1.138290E+0	1.121364E+0	1.133492E+0	1.103983E+0	1.173677E+0	1.151793E+0	1.152269E+0	1.199819E+0	1.136637E+0	1.145307E+0	1.068680E+0	1.134503E+0	1.175012E+0	1.201512E+0	1.150934E+0	1.172020E+0	1.144042E+0	1.159371E+0	1.117617E+0	1.167801E+0	1.137122E+0	1.135491E+0	1.129459E+0	1.119832E+0	1.104043E+0	1.145834E+0	1.122601E+0	1.162923E+0	1.139441E+0	1.137618E+0	1.103303E+0	1.087607E+0	1.128982E+0	1.185353E+0	1.170575E+0	1.122580E+0	1.126959E+0	1.136241E+0	1.147986E+0	1.141893E+0	1.179528E+0	1.150464E+0	1.152090E+0	1.157893E+0	1.193538E+0	1.178718E+0	1.125552E+0	1.148165E+0	1.104884E+0	1.130817E+0	1.148464E+0	1.189381E+0	1.175552E+0	1.112585E+0	1.159492E+0	1.154440E+0	1.140943E+0	1.105823E+0	1.134742E+0	1.154286E+0	1.146160E+0	1.171318E+0	1.088889E+0	1.154265E+0	1.166375E+0	1.176459E+0	1.109708E+0	1.111355E+0	1.122356E+0	1.154666E+0	1.109801E+0	1.150250E+0	1.066165E+0	1.110970E+0	1.165522E+0	1.162655E+0	1.116914E+0	1.125843E+0	1.162908E+0	1.153119E+0	1.193029E+0	1.134660E+0	1.196310E+0	1.186442E+0	1.093283E+0	1.129058E+0	1.128886E+0	1.123080E+0	1.103956E+0	1.116835E+0	1.137269E+0	1.104514E+0	1.162270E+0	1.083391E+0	1.093840E+0	1.110705E+0	1.178699E+0	1.174241E+0	1.113303E+0	1.135209E+0	1.150796E+0	1.147407E+0	1.135687E+0	1.175014E+0	1.126789E+0	1.182658E+0	1.149861E+0	1.112161E+0	1.155375E+0	1.162069E+0	1.151497E+0	1.151001E+0	1.113674E+0	1.176655E+0	1.187971E+0	1.155875E+0	1.105819E+0	1.105622E+0	1.196522E+0	1.138813E+0	1.127328E+0	1.116731E+0	1.160792E+0	1.137775E+0	1.144266E+0	1.163328E+0	1.132034E+0	1.157639E+0	1.152925E+0	1.103996E+0	1.139746E+0	1.191364E+0	1.074582E+0	1.183632E+0	1.131592E+0	1.135874E+0	1.149475E+0	1.155588E+0	1.285861E+0
5.475120E+2	1.268696E+0	1.313049E+0	1.330647E+0	1.285809E+0	1.248745E+0	1.253995E+0	1.263059E+0	1.304752E+0	1.260844E+0	1.239265E+0	1.237340E+0	1.273368E+0	1.298427E+0	1.308258E+0	1.262382E+0	1.216903E+0	1.209054E+0	1.325395E+0	1.303087E+0	1.324298E+0	1.248511E+0	1.282170E+0	1.207681E+0	1.204516E+0	1.220543E+0	1.342881E+0	1.248871E+0	1.274992E+0	1.295381E+0	1.299795E+0	1.290072E+0	1.319546E+0	1.288806E+0	1.382193E+0	1.283625E+0	1.229771E+0	1.307935E+0	1.266759E+0	1.268917E+0	1.272026E+0	1.292739E+0	1.262557E+0	1.318299E+0	1.288295E+0	1.258153E+0	1.279660E+0	1.281782E+0	1.236484E+0	1.319391E+0	1.250082E+0	1.276237E+0	1.317167E+0	1.252852E+0	1.336328E+0	1.271696E+0	1.255456E+0	1.280786E+0	1.301888E+0	1.278777E+0	1.248258E+0	1.264603E+0	1.281133E+0	1.285759E+0	1.275455E+0	1.319298E+0	1.250319E+0	1.292662E+0	1.291908E+0	1.269281E+0	1.256659E+0	1.247499E+0	1.273859E+0	1.245089E+0	1.305024E+0	1.222469E+0	1.279154E+0	1.287090E+0	1.327465E+0	1.254654E+0	1.272718E+0	1.299018E+0	1.251340E+0	1.288682E+0	1.215232E+0	1.234833E+0	1.284855E+0	1.264703E+0	1.236009E+0	1.252046E+0	1.275601E+0	1.184692E+0	1.245492E+0	1.255095E+0	1.270968E+0	1.286161E+0	1.254226E+0	1.236999E+0	1.307658E+0	1.253046E+0	1.255007E+0	1.302659E+0	1.287960E+0	1.265214E+0	1.278983E+0	1.293850E+0	1.296069E+0	1.289037E+0	1.248015E+0	1.253229E+0	1.304288E+0	1.214844E+0	1.231102E+0	1.264918E+0	1.262581E+0	1.258800E+0	1.278646E+0	1.235738E+0	1.201422E+0	1.257299E+0	1.262032E+0	1.224830E+0	1.255325E+0	1.276611E+0	1.197865E+0	1.270829E+0	1.272043E+0	1.237810E+0	1.254540E+0	1.246475E+0	1.311398E+0	1.212519E+0	1.244940E+0	1.245945E+0	1.230204E+0	1.300535E+0	1.301821E+0	1.275331E+0	1.290636E+0	1.253068E+0	1.311225E+0	1.256390E+0	1.260868E+0	1.222344E+0	1.258842E+0	1.231684E+0	1.290896E+0	1.278278E+0	1.227646E+0	1.217882E+0	1.320808E+0	1.295451E+0	1.265113E+0	1.298833E+0	1.283192E+0	1.258346E+0	1.269540E+0	1.282603E+0	1.291525E+0	1.239665E+0	1.265713E+0	1.237044E+0	1.205049E+0	1.271173E+0	1.215848E+0	1.275535E+0
5.482600E+2	1.426176E+0	1.379055E+0	1.337002E+0	1.290459E+0	1.320408E+0	1.297319E+0	1.298144E+0	1.371785E+0	1.235689E+0	1.305860E+0	1.341736E+0	1.322905E+0	1.390303E+0	1.397704E+0	1.365350E+0	1.363967E+0	1.351989E+0	1.350742E+0	1.328565E+0	1.332494E+0	1.332289E+0	1.335203E+0	1.305076E+0	1.366132E+0	1.331994E+0	1.275727E+0	1.384907E+0	1.342157E+0	1.365594E+0	1.383400E+0	1.327177E+0	1.301491E+0	1.347356E+0	1.362012E+0	1.348295E+0	1.257865E+0	1.307617E+0	1.360912E+0	1.328921E+0	1.315334E+0	1.332332E+0	1.408330E+0	1.333327E+0	1.337232E+0	1.349642E+0	1.370055E+0	1.248734E+0	1.318171E+0	1.302124E+0	1.393831E+0	1.329080E+0	1.374021E+0	1.350661E+0	1.342889E+0	1.282931E+0	1.300327E+0	1.352332E+0	1.302932E+0	1.312689E+0	1.297919E+0	1.406467E+0	1.370522E+0	1.288092E+0	1.352521E+0	1.353194E+0	1.331660E+0	1.326177E+0	1.402956E+0	1.314848E+0	1.320849E+0	1.347360E+0	1.326110E+0	1.352919E+0	1.323951E+0	1.262866E+0	1.317937E+0	1.307962E+0	1.393428E+0	1.306947E+0	1.300727E+0	1.275689E+0	1.352189E+0	1.263604E+0	1.327562E+0	1.344000E+0	1.292277E+0	1.296455E+0	1.368446E+0	1.274391E+0	1.336208E+0	1.331589E+0	1.270758E+0	1.309405E+0	1.358204E+0	1.315475E+0	1.340458E+0	1.329594E+0	1.370934E+0	1.346654E+0	1.361040E+0	1.289084E+0	1.373236E+0	1.359542E+0	1.337835E+0	1.333700E+0	1.369754E+0	1.343945E+0	1.367738E+0	1.362292E+0	1.307615E+0	1.280412E+0	1.247911E+0	1.293421E+0	1.338981E+0	1.289071E+0	1.321537E+0	1.316355E+0	1.353544E+0	1.322139E+0	1.322629E+0	1.327123E+0	1.302627E+0	1.348889E+0	1.332821E+0	1.336184E+0	1.374769E+0	1.310834E+0	1.336627E+0	1.323075E+0	1.333648E+0	1.291054E+0	1.352779E+0	1.275144E+0	1.314883E+0	1.330305E+0	1.347183E+0	1.263514E+0	1.395712E+0	1.274514E+0	1.371461E+0	1.311989E+0	1.341342E+0	1.308240E+0	1.303821E+0	1.357374E+0	1.369955E+0	1.309571E+0	1.344031E+0	1.278857E+0	1.329449E+0	1.299459E+0	1.294427E+0	1.354035E+0	1.389107E+0	1.265676E+0	1.345087E+0	1.322133E+0	1.343869E+0	1.273823E+0	1.323137E+0	1.322925E+0	1.334322E+0	1.312364E+0	1.227696E+0	1.269184E+0
5.490100E+2	1.389068E+0	1.422090E+0	1.402340E+0	1.397074E+0	1.442423E+0	1.403214E+0	1.368158E+0	1.440940E+0	1.305310E+0	1.431274E+0	1.362206E+0	1.366889E+0	1.463085E+0	1.475215E+0	1.412724E+0	1.401535E+0	1.446788E+0	1.427083E+0	1.412012E+0	1.413342E+0	1.418813E+0	1.417203E+0	1.412175E+0	1.362456E+0	1.406229E+0	1.403863E+0	1.409440E+0	1.332213E+0	1.364277E+0	1.398563E+0	1.393788E+0	1.365631E+0	1.386289E+0	1.505078E+0	1.368913E+0	1.390062E+0	1.334484E+0	1.411620E+0	1.419089E+0	1.418741E+0	1.392171E+0	1.414363E+0	1.435606E+0	1.405558E+0	1.361861E+0	1.395562E+0	1.355670E+0	1.393828E+0	1.398467E+0	1.292802E+0	1.380117E+0	1.426148E+0	1.309786E+0	1.400927E+0	1.371841E+0	1.410227E+0	1.432845E+0	1.400000E+0	1.388435E+0	1.402425E+0	1.413118E+0	1.404010E+0	1.351167E+0	1.356436E+0	1.351742E+0	1.466833E+0	1.442495E+0	1.419427E+0	1.360489E+0	1.402623E+0	1.367996E+0	1.387781E+0	1.362671E+0	1.405451E+0	1.397242E+0	1.399977E+0	1.383189E+0	1.396869E+0	1.323991E+0	1.352949E+0	1.381304E+0	1.378675E+0	1.368553E+0	1.357571E+0	1.364832E+0	1.418900E+0	1.358506E+0	1.406224E+0	1.351598E+0	1.415026E+0	1.407310E+0	1.379032E+0	1.353924E+0	1.396103E+0	1.417468E+0	1.372999E+0	1.400764E+0	1.407011E+0	1.354902E+0	1.317710E+0	1.365338E+0	1.401021E+0	1.359276E+0	1.353924E+0	1.340493E+0	1.424368E+0	1.386443E+0	1.307159E+0	1.426838E+0	1.402337E+0	1.373508E+0	1.338909E+0	1.316426E+0	1.477252E+0	1.313606E+0	1.344928E+0	1.371197E+0	1.349295E+0	1.366718E+0	1.330554E+0	1.399243E+0	1.410480E+0	1.371887E+0	1.355462E+0	1.420954E+0	1.367830E+0	1.342138E+0	1.375056E+0	1.373605E+0	1.431979E+0	1.317917E+0	1.434666E+0	1.335842E+0	1.393580E+0	1.397447E+0	1.313815E+0	1.388252E+0	1.428346E+0	1.334119E+0	1.409243E+0	1.322298E+0	1.382873E+0	1.382488E+0	1.396506E+0	1.350744E+0	1.454274E+0	1.376713E+0	1.388222E+0	1.316418E+0	1.363145E+0	1.348973E+0	1.367624E+0	1.326462E+0	1.441317E+0	1.326077E+0	1.386005E+0	1.396417E+0	1.397550E+0	1.316383E+0	1.339917E+0	1.391235E+0	1.478866E+0	1.331914E+0	1.385289E+0	1.363152E+0
5.497630E+2	1.292289E+0	1.256812E+0	1.299153E+0	1.241413E+0	1.254451E+0	1.194744E+0	1.235822E+0	1.244116E+0	1.232761E+0	1.260485E+0	1.291928E+0	1.235278E+0	1.283871E+0	1.225560E+0	1.291009E+0	1.269085E+0	1.281384E+0	1.288998E+0	1.247885E+0	1.298865E+0	1.224484E+0	1.228041E+0	1.265170E+0	1.268869E+0	1.340332E+0	1.233245E+0	1.269520E+0	1.230081E+0	1.258188E+0	1.271471E+0	1.223918E+0	1.255938E+0	1.264738E+0	1.373554E+0	1.288304E+0	1.218507E+0	1.241127E+0	1.265252E+0	1.231465E+0	1.282157E+0	1.244274E+0	1.317488E+0	1.227660E+0	1.249489E+0	1.266738E+0	1.297776E+0	1.256659E+0	1.307083E+0	1.336576E+0	1.278931E+0	1.251568E+0	1.289958E+0	1.210065E+0	1.259819E+0	1.235830E+0	1.296527E+0	1.232415E+0	1.275089E+0	1.267219E+0	1.275680E+0	1.256764E+0	1.334917E+0	1.236423E+0	1.265384E+0	1.214591E+0	1.347628E+0	1.291350E+0	1.243998E+0	1.271735E+0	1.250241E+0	1.250395E+0	1.251307E+0	1.269648E+0	1.291627E+0	1.263247E+0	1.279393E+0	1.279232E+0	1.281106E+0	1.252995E+0	1.218265E+0	1.223350E+0	1.261563E+0	1.214626E+0	1.333050E+0	1.284573E+0	1.259825E+0	1.287317E+0	1.230717E+0	1.274639E+0	1.325876E+0	1.302028E+0	1.256318E+0	1.276058E+0	1.265633E+0	1.217235E+0	1.287560E+0	1.223746E+0	1.265246E+0	1.223202E+0	1.158066E+0	1.264080E+0	1.227509E+0	1.289169E+0	1.226099E+0	1.257549E+0	1.270993E+0	1.244395E+0	1.222566E+0	1.272358E+0	1.288286E+0	1.249857E+0	1.236934E+0	1.227359E+0	1.275441E+0	1.253195E+0	1.193713E+0	1.266944E+0	1.245655E+0	1.244444E+0	1.293253E+0	1.237194E+0	1.385979E+0	1.274860E+0	1.234310E+0	1.259031E+0	1.262135E+0	1.249743E+0	1.213424E+0	1.248214E+0	1.312800E+0	1.209900E+0	1.300384E+0	1.202603E+0	1.264797E+0	1.244369E+0	1.240804E+0	1.268575E+0	1.289208E+0	1.238957E+0	1.236118E+0	1.215347E+0	1.259596E+0	1.228428E+0	1.242879E+0	1.246344E+0	1.245015E+0	1.345375E+0	1.216020E+0	1.229165E+0	1.277220E+0	1.297807E+0	1.212578E+0	1.277829E+0	1.277103E+0	1.247801E+0	1.255898E+0	1.234099E+0	1.275470E+0	1.231725E+0	1.298231E+0	1.277798E+0	1.270309E+0	1.271126E+0	1.083749E+0	1.318728E+0
5.505060E+2	1.314882E+0	1.364410E+0	1.273028E+0	1.299254E+0	1.275271E+0	1.304437E+0	1.310773E+0	1.263845E+0	1.275323E+0	1.285047E+0	1.278348E+0	1.278219E+0	1.285272E+0	1.300794E+0	1.319268E+0	1.230782E+0	1.316197E+0	1.355605E+0	1.291823E+0	1.265094E+0	1.272154E+0	1.320735E+0	1.299131E+0	1.300268E+0	1.229153E+0	1.329458E+0	1.289399E+0	1.344527E+0	1.279824E+0	1.327651E+0	1.324746E+0	1.276480E+0	1.323698E+0	1.324171E+0	1.332082E+0	1.248152E+0	1.227098E+0	1.284598E+0	1.252361E+0	1.292179E+0	1.310116E+0	1.348084E+0	1.321813E+0	1.315777E+0	1.281692E+0	1.333554E+0	1.260454E+0	1.320813E+0	1.343621E+0	1.335873E+0	1.316351E+0	1.305652E+0	1.243907E+0	1.256702E+0	1.214457E+0	1.272461E+0	1.269843E+0	1.302937E+0	1.264368E+0	1.283743E+0	1.315924E+0	1.284145E+0	1.220748E+0	1.292644E+0	1.227892E+0	1.321415E+0	1.300962E+0	1.304338E+0	1.258969E+0	1.305261E+0	1.357762E+0	1.273532E+0	1.277874E+0	1.308933E+0	1.318060E+0	1.343405E+0	1.285560E+0	1.328768E+0	1.244924E+0	1.226114E+0	1.308895E+0	1.321189E+0	1.278200E+0	1.252737E+0	1.286336E+0	1.285311E+0	1.283816E+0	1.323840E+0	1.341533E+0	1.275204E+0	1.294962E+0	1.352178E+0	1.243289E+0	1.322934E+0	1.321745E+0	1.286529E+0	1.267747E+0	1.347251E+0	1.272049E+0	1.272455E+0	1.295948E+0	1.275422E+0	1.275616E+0	1.286537E+0	1.310850E+0	1.308043E+0	1.283862E+0	1.260074E+0	1.286321E+0	1.271044E+0	1.287645E+0	1.285394E+0	1.273917E+0	1.264963E+0	1.322794E+0	1.260678E+0	1.239545E+0	1.267195E+0	1.274864E+0	1.287543E+0	1.279419E+0	1.256097E+0	1.299290E+0	1.251424E+0	1.281190E+0	1.314387E+0	1.237599E+0	1.300253E+0	1.348570E+0	1.325891E+0	1.319567E+0	1.346966E+0	1.258108E+0	1.287151E+0	1.285259E+0	1.244137E+0	1.261498E+0	1.290653E+0	1.366954E+0	1.272321E+0	1.301593E+0	1.312439E+0	1.234120E+0	1.286071E+0	1.246506E+0	1.379084E+0	1.233354E+0	1.240197E+0	1.303810E+0	1.234893E+0	1.288951E+0	1.242061E+0	1.286937E+0	1.345102E+0	1.251599E+0	1.300890E+0	1.243575E+0	1.330584E+0	1.231007E+0	1.269220E+0	1.255657E+0	1.307064E+0	1.251617E+0	1.249005E+0	1.195514E+0
5.512620E+2	1.302867E+0	1.254999E+0	1.295955E+0	1.358123E+0	1.300358E+0	1.261710E+0	1.325903E+0	1.247619E+0	1.309836E+0	1.263243E+0	1.315862E+0	1.287254E+0	1.289343E+0	1.296473E+0	1.291992E+0	1.283836E+0	1.280131E+0	1.248806E+0	1.296601E+0	1.254929E+0	1.256035E+0	1.269936E+0	1.224186E+0	1.356199E+0	1.331687E+0	1.332940E+0	1.306055E+0	1.288609E+0	1.325166E+0	1.313989E+0	1.245431E+0	1.268711E+0	1.232494E+0	1.334096E+0	1.228703E+0	1.235475E+0	1.280907E+0	1.258151E+0	1.287279E+0	1.293733E+0	1.232686E+0	1.279686E+0	1.246411E+0	1.237225E+0	1.277117E+0	1.402266E+0	1.309149E+0	1.278346E+0	1.323005E+0	1.291377E+0	1.221825E+0	1.274117E+0	1.239872E+0	1.370152E+0	1.245635E+0	1.311269E+0	1.241259E+0	1.301094E+0	1.231461E+0	1.297774E+0	1.263888E+0	1.303801E+0	1.234252E+0	1.327631E+0	1.287469E+0	1.279811E+0	1.270978E+0	1.276964E+0	1.274073E+0	1.257393E+0	1.307076E+0	1.259364E+0	1.297539E+0	1.311004E+0	1.300021E+0	1.222054E+0	1.256705E+0	1.288829E+0	1.290111E+0	1.269074E+0	1.276834E+0	1.353568E+0	1.242873E+0	1.210994E+0	1.208183E+0	1.295950E+0	1.279496E+0	1.277152E+0	1.291939E+0	1.335179E+0	1.275509E+0	1.307387E+0	1.247170E+0	1.297424E+0	1.257016E+0	1.252781E+0	1.199787E+0	1.367090E+0	1.191486E+0	1.281501E+0	1.262929E+0	1.245641E+0	1.270260E+0	1.283556E+0	1.280553E+0	1.298400E+0	1.257715E+0	1.251187E+0	1.250980E+0	1.271294E+0	1.223493E+0	1.279834E+0	1.264426E+0	1.311488E+0	1.276613E+0	1.278598E+0	1.255351E+0	1.243617E+0	1.274471E+0	1.269894E+0	1.227064E+0	1.326446E+0	1.300291E+0	1.292197E+0	1.268098E+0	1.322302E+0	1.233772E+0	1.271663E+0	1.264344E+0	1.277596E+0	1.287739E+0	1.356155E+0	1.282634E+0	1.276019E+0	1.276816E+0	1.307400E+0	1.249424E+0	1.309602E+0	1.267197E+0	1.286671E+0	1.308508E+0	1.269942E+0	1.240229E+0	1.290994E+0	1.278640E+0	1.304739E+0	1.262000E+0	1.258806E+0	1.278627E+0	1.277113E+0	1.201429E+0	1.251964E+0	1.264794E+0	1.251854E+0	1.270291E+0	1.278955E+0	1.272149E+0	1.298975E+0	1.239880E+0	1.298159E+0	1.235793E+0	1.223452E+0	1.256803E+0	1.222458E+0	1.321841E+0
5.520150E+2	1.325666E+0	1.238324E+0	1.225691E+0	1.269594E+0	1.228421E+0	1.217544E+0	1.298059E+0	1.258728E+0	1.227452E+0	1.245046E+0	1.274518E+0	1.236224E+0	1.231164E+0	1.240028E+0	1.272362E+0	1.245562E+0	1.295985E+0	1.305602E+0	1.277766E+0	1.213161E+0	1.243607E+0	1.255231E+0	1.237065E+0	1.296274E+0	1.253469E+0	1.251734E+0	1.257334E+0	1.228592E+0	1.264571E+0	1.252548E+0	1.246373E+0	1.228488E+0	1.223732E+0	1.256723E+0	1.312397E+0	1.194333E+0	1.246805E+0	1.265275E+0	1.269130E+0	1.259896E+0	1.264999E+0	1.298199E+0	1.245802E+0	1.208104E+0	1.213228E+0	1.281633E+0	1.209816E+0	1.320381E+0	1.234848E+0	1.258663E+0	1.265750E+0	1.234127E+0	1.257275E+0	1.275588E+0	1.247165E+0	1.322582E+0	1.223192E+0	1.301344E+0	1.260869E+0	1.268422E+0	1.268555E+0	1.317695E+0	1.214353E+0	1.279857E+0	1.297632E+0	1.227031E+0	1.219829E+0	1.276059E+0	1.289058E+0	1.252079E+0	1.272209E+0	1.232036E+0	1.214042E+0	1.283198E+0	1.277666E+0	1.283257E+0	1.185408E+0	1.261608E+0	1.238497E+0	1.264199E+0	1.201678E+0	1.219666E+0	1.274560E+0	1.217770E+0	1.281001E+0	1.302478E+0	1.240464E+0	1.253450E+0	1.269719E+0	1.267040E+0	1.274483E+0	1.249447E+0	1.221192E+0	1.283136E+0	1.245923E+0	1.253913E+0	1.247371E+0	1.342613E+0	1.239361E+0	1.276437E+0	1.217815E+0	1.241440E+0	1.231781E+0	1.206605E+0	1.231802E+0	1.272620E+0	1.281205E+0	1.175231E+0	1.274839E+0	1.224509E+0	1.255241E+0	1.238325E+0	1.282224E+0	1.295422E+0	1.283297E+0	1.241194E+0	1.259350E+0	1.210636E+0	1.265399E+0	1.251442E+0	1.181136E+0	1.246565E+0	1.228114E+0	1.270940E+0	1.241993E+0	1.243783E+0	1.243862E+0	1.186443E+0	1.216233E+0	1.274836E+0	1.195395E+0	1.293726E+0	1.232723E+0	1.288456E+0	1.248469E+0	1.258540E+0	1.215256E+0	1.299197E+0	1.239893E+0	1.304324E+0	1.227896E+0	1.247974E+0	1.241660E+0	1.235217E+0	1.260214E+0	1.288979E+0	1.287056E+0	1.259155E+0	1.239009E+0	1.316208E+0	1.229402E+0	1.229684E+0	1.246981E+0	1.231717E+0	1.269248E+0	1.306459E+0	1.249902E+0	1.289305E+0	1.212733E+0	1.250278E+0	1.200040E+0	1.246005E+0	1.192604E+0	1.283265E+0	1.170094E+0
5.527590E+2	1.304845E+0	1.218480E+0	1.246266E+0	1.265146E+0	1.236137E+0	1.225817E+0	1.183758E+0	1.235456E+0	1.200354E+0	1.267986E+0	1.257659E+0	1.176983E+0	1.200380E+0	1.259238E+0	1.265276E+0	1.220247E+0	1.161189E+0	1.266046E+0	1.203514E+0	1.213386E+0	1.209008E+0	1.200256E+0	1.206204E+0	1.212879E+0	1.203859E+0	1.188989E+0	1.202037E+0	1.236708E+0	1.268466E+0	1.275648E+0	1.225603E+0	1.220180E+0	1.256198E+0	1.248509E+0	1.274052E+0	1.206416E+0	1.218590E+0	1.255697E+0	1.252840E+0	1.224683E+0	1.230524E+0	1.255643E+0	1.188806E+0	1.230354E+0	1.231224E+0	1.229770E+0	1.203620E+0	1.215264E+0	1.261338E+0	1.189252E+0	1.279822E+0	1.230975E+0	1.189919E+0	1.240909E+0	1.214716E+0	1.214774E+0	1.242685E+0	1.194803E+0	1.197279E+0	1.256167E+0	1.245578E+0	1.218787E+0	1.238722E+0	1.249072E+0	1.202045E+0	1.251851E+0	1.317569E+0	1.247523E+0	1.217423E+0	1.246505E+0	1.241128E+0	1.268778E+0	1.186351E+0	1.200965E+0	1.205496E+0	1.246136E+0	1.260710E+0	1.194813E+0	1.186133E+0	1.237634E+0	1.250428E+0	1.195837E+0	1.230537E+0	1.163957E+0	1.163867E+0	1.234725E+0	1.262659E+0	1.222881E+0	1.253576E+0	1.255587E+0	1.211768E+0	1.180609E+0	1.270388E+0	1.223470E+0	1.230063E+0	1.266993E+0	1.245318E+0	1.236450E+0	1.255421E+0	1.223707E+0	1.171571E+0	1.229039E+0	1.230243E+0	1.194076E+0	1.190679E+0	1.234793E+0	1.226411E+0	1.217915E+0	1.267187E+0	1.260065E+0	1.156519E+0	1.223984E+0	1.191771E+0	1.207997E+0	1.276767E+0	1.234155E+0	1.212361E+0	1.239364E+0	1.170781E+0	1.273179E+0	1.197395E+0	1.220255E+0	1.224868E+0	1.245511E+0	1.232597E+0	1.263834E+0	1.215875E+0	1.255337E+0	1.201081E+0	1.233315E+0	1.142990E+0	1.200787E+0	1.225048E+0	1.240199E+0	1.205067E+0	1.228218E+0	1.151212E+0	1.265584E+0	1.224474E+0	1.270195E+0	1.177079E+0	1.236416E+0	1.195965E+0	1.234253E+0	1.278162E+0	1.233584E+0	1.241564E+0	1.203528E+0	1.219962E+0	1.269779E+0	1.241575E+0	1.256467E+0	1.198571E+0	1.261399E+0	1.179630E+0	1.221210E+0	1.216911E+0	1.233779E+0	1.250501E+0	1.161169E+0	1.210344E+0	1.257859E+0	1.205364E+0	1.212584E+0	1.249064E+0
5.535100E+2	1.149029E+0	1.219639E+0	1.192067E+0	1.150046E+0	1.191607E+0	1.134665E+0	1.155822E+0	1.184417E+0	1.143335E+0	1.197271E+0	1.163117E+0	1.186544E+0	1.202634E+0	1.225643E+0	1.189886E+0	1.182794E+0	1.159493E+0	1.195599E+0	1.147153E+0	1.216587E+0	1.165891E+0	1.176477E+0	1.130641E+0	1.173054E+0	1.184525E+0	1.170333E+0	1.144862E+0	1.166291E+0	1.224243E+0	1.192767E+0	1.190440E+0	1.142773E+0	1.171535E+0	1.176160E+0	1.141313E+0	1.134078E+0	1.139565E+0	1.193850E+0	1.229253E+0	1.229785E+0	1.218566E+0	1.195936E+0	1.189788E+0	1.166165E+0	1.188183E+0	1.210598E+0	1.213499E+0	1.224980E+0	1.200293E+0	1.195275E+0	1.247932E+0	1.162009E+0	1.178469E+0	1.181672E+0	1.143506E+0	1.184786E+0	1.188953E+0	1.153932E+0	1.155087E+0	1.168179E+0	1.204028E+0	1.211429E+0	1.183174E+0	1.186662E+0	1.185340E+0	1.180332E+0	1.170202E+0	1.185379E+0	1.209873E+0	1.169915E+0	1.189085E+0	1.186773E+0	1.153999E+0	1.216559E+0	1.184599E+0	1.250038E+0	1.178473E+0	1.161171E+0	1.181069E+0	1.160953E+0	1.174158E+0	1.126348E+0	1.141956E+0	1.133968E+0	1.154778E+0	1.153331E+0	1.146567E+0	1.198774E+0	1.163525E+0	1.178803E+0	1.122979E+0	1.182666E+0	1.216546E+0	1.146960E+0	1.182170E+0	1.185547E+0	1.156445E+0	1.228423E+0	1.133504E+0	1.167672E+0	1.163395E+0	1.188404E+0	1.135532E+0	1.181348E+0	1.135944E+0	1.191206E+0	1.212555E+0	1.151336E+0	1.203734E+0	1.154353E+0	1.219454E+0	1.148424E+0	1.148889E+0	1.266902E+0	1.145644E+0	1.146538E+0	1.190158E+0	1.180472E+0	1.178568E+0	1.244963E+0	1.183064E+0	1.157640E+0	1.168787E+0	1.205686E+0	1.184968E+0	1.218002E+0	1.187006E+0	1.179742E+0	1.232786E+0	1.202261E+0	1.166533E+0	1.184361E+0	1.152648E+0	1.239743E+0	1.136145E+0	1.185601E+0	1.181471E+0	1.147375E+0	1.154605E+0	1.174475E+0	1.155559E+0	1.199930E+0	1.155487E+0	1.167746E+0	1.205470E+0	1.236848E+0	1.267437E+0	1.157396E+0	1.221276E+0	1.190590E+0	1.176299E+0	1.167115E+0	1.204726E+0	1.258007E+0	1.186293E+0	1.173251E+0	1.176867E+0	1.188182E+0	1.081757E+0	1.186227E+0	1.153948E+0	1.208722E+0	1.127325E+0	1.156986E+0	1.157393E+0
5.542530E+2	1.169012E+0	1.160443E+0	1.144903E+0	1.129043E+0	1.190414E+0	1.075985E+0	1.137826E+0	1.108345E+0	1.166530E+0	1.154885E+0	1.140054E+0	1.170378E+0	1.140243E+0	1.098759E+0	1.174810E+0	1.141009E+0	1.161316E+0	1.137086E+0	1.101628E+0	1.155640E+0	1.131643E+0	1.123035E+0	1.168945E+0	1.136923E+0	1.169732E+0	1.166230E+0	1.160616E+0	1.174573E+0	1.170815E+0	1.161835E+0	1.176359E+0	1.162313E+0	1.113516E+0	1.118535E+0	1.135854E+0	1.169603E+0	1.168007E+0	1.124965E+0	1.135956E+0	1.138769E+0	1.135463E+0	1.173733E+0	1.133361E+0	1.134758E+0	1.121883E+0	1.113932E+0	1.143993E+0	1.188256E+0	1.142456E+0	1.133777E+0	1.147115E+0	1.208907E+0	1.140905E+0	1.162350E+0	1.151972E+0	1.178754E+0	1.178375E+0	1.162674E+0	1.184784E+0	1.192948E+0	1.175593E+0	1.113716E+0	1.145600E+0	1.149222E+0	1.175965E+0	1.173264E+0	1.162935E+0	1.184022E+0	1.176985E+0	1.160862E+0	1.148025E+0	1.173633E+0	1.106990E+0	1.111089E+0	1.145220E+0	1.196511E+0	1.157087E+0	1.198367E+0	1.150601E+0	1.139660E+0	1.137252E+0	1.115749E+0	1.136341E+0	1.144047E+0	1.183286E+0	1.172894E+0	1.124783E+0	1.132467E+0	1.124425E+0	1.157836E+0	1.192162E+0	1.162130E+0	1.112616E+0	1.140697E+0	1.131646E+0	1.211218E+0	1.139345E+0	1.168559E+0	1.143281E+0	1.107397E+0	1.129315E+0	1.162293E+0	1.143332E+0	1.152632E+0	1.109107E+0	1.212404E+0	1.179046E+0	1.142302E+0	1.184763E+0	1.202593E+0	1.142789E+0	1.128029E+0	1.146730E+0	1.147655E+0	1.170562E+0	1.212300E+0	1.104840E+0	1.174813E+0	1.139131E+0	1.130531E+0	1.107280E+0	1.109046E+0	1.163046E+0	1.130310E+0	1.178262E+0	1.154873E+0	1.155524E+0	1.154076E+0	1.102074E+0	1.185855E+0	1.141027E+0	1.140830E+0	1.126845E+0	1.166330E+0	1.168628E+0	1.146929E+0	1.169713E+0	1.169022E+0	1.188971E+0	1.186383E+0	1.105333E+0	1.170028E+0	1.144147E+0	1.176233E+0	1.142094E+0	1.172303E+0	1.178355E+0	1.128837E+0	1.146125E+0	1.127938E+0	1.136719E+0	1.086793E+0	1.187455E+0	1.162580E+0	1.135236E+0	1.126801E+0	1.142716E+0	1.131533E+0	1.132578E+0	1.164668E+0	1.101098E+0	1.182374E+0	1.063871E+0	1.118825E+0	1.188671E+0
5.550190E+2	9.945887E-1	1.014461E+0	1.063177E+0	1.036477E+0	1.052586E+0	1.041771E+0	1.025807E+0	1.086606E+0	1.040817E+0	1.006219E+0	1.042318E+0	1.057859E+0	1.059205E+0	1.038277E+0	1.060401E+0	1.054608E+0	1.039171E+0	1.025142E+0	1.031126E+0	1.067600E+0	1.035589E+0	9.580799E-1	1.048622E+0	1.037858E+0	1.029307E+0	1.006363E+0	1.003944E+0	1.032479E+0	1.054673E+0	1.059586E+0	1.075043E+0	1.037555E+0	1.019712E+0	1.025958E+0	1.033884E+0	1.048926E+0	1.038163E+0	9.661024E-1	1.049615E+0	1.053215E+0	1.083987E+0	1.033396E+0	1.029121E+0	1.055252E+0	1.008291E+0	1.056348E+0	1.063700E+0	1.031182E+0	1.030037E+0	1.031710E+0	1.037152E+0	1.056965E+0	9.957463E-1	1.018753E+0	1.029933E+0	1.060285E+0	1.039531E+0	1.034286E+0	1.027567E+0	1.072452E+0	1.033083E+0	1.040773E+0	1.050731E+0	1.004913E+0	1.042472E+0	1.035117E+0	1.057048E+0	1.065320E+0	1.055788E+0	1.061286E+0	1.051390E+0	1.040347E+0	1.027578E+0	1.050436E+0	1.080710E+0	1.019985E+0	1.041339E+0	1.066297E+0	1.055509E+0	1.054028E+0	1.068763E+0	1.068157E+0	1.033346E+0	9.804449E-1	1.030335E+0	1.039393E+0	1.048414E+0	1.021428E+0	1.017030E+0	9.902513E-1	1.070404E+0	1.040588E+0	1.081162E+0	1.032744E+0	1.062569E+0	1.054420E+0	9.988351E-1	1.036212E+0	9.969358E-1	1.043824E+0	1.003532E+0	1.053104E+0	1.045245E+0	1.017725E+0	1.029005E+0	1.043320E+0	1.073642E+0	1.049701E+0	1.075779E+0	1.048365E+0	9.588821E-1	1.023022E+0	9.797947E-1	9.830471E-1	1.045246E+0	1.078937E+0	1.006827E+0	9.917962E-1	1.026280E+0	1.045095E+0	1.035349E+0	1.083780E+0	1.029458E+0	1.033714E+0	1.020011E+0	1.064463E+0	1.036065E+0	9.955912E-1	1.102985E+0	1.088228E+0	1.001087E+0	1.054714E+0	1.026651E+0	1.060969E+0	1.019555E+0	1.036295E+0	1.019368E+0	1.097719E+0	1.003904E+0	1.023236E+0	1.022362E+0	1.039604E+0	1.012923E+0	9.999418E-1	1.025414E+0	1.055479E+0	1.053018E+0	1.004963E+0	1.060551E+0	1.069633E+0	1.073323E+0	9.948881E-1	9.724476E-1	1.023121E+0	1.053260E+0	1.052716E+0	1.044555E+0	1.039073E+0	1.025028E+0	1.026233E+0	1.068897E+0	1.092071E+0	1.050840E+0	1.000894E+0	1.036752E+0
5.557660E+2	1.016386E+0	1.013015E+0	1.026756E+0	1.007921E+0	1.014357E+0	1.008345E+0	1.001586E+0	1.072179E+0	9.843253E-1	9.843206E-1	9.763442E-1	9.960697E-1	9.995753E-1	1.019322E+0	9.944909E-1	9.812157E-1	1.022253E+0	1.047728E+0	1.008376E+0	1.027461E+0	1.032292E+0	1.003362E+0	1.028923E+0	1.038510E+0	1.032612E+0	1.007670E+0	9.936149E-1	1.004807E+0	1.016528E+0	9.828584E-1	1.037670E+0	1.029188E+0	9.500193E-1	1.034036E+0	1.017421E+0	9.940313E-1	1.053276E+0	9.917621E-1	1.010951E+0	9.849315E-1	1.019647E+0	1.027839E+0	1.019443E+0	1.054402E+0	9.953542E-1	1.012727E+0	1.003999E+0	1.031614E+0	1.057958E+0	1.027587E+0	1.052208E+0	1.030713E+0	1.032811E+0	1.023256E+0	1.054782E+0	9.990330E-1	1.030062E+0	9.918220E-1	1.014378E+0	9.488718E-1	1.011927E+0	1.006892E+0	1.011530E+0	1.029983E+0	1.046820E+0	9.989086E-1	1.082890E+0	1.070927E+0	9.980693E-1	9.481318E-1	9.711301E-1	1.018281E+0	1.004622E+0	1.039336E+0	1.017818E+0	9.739385E-1	9.907926E-1	1.034121E+0	9.760683E-1	9.927689E-1	1.019944E+0	1.010981E+0	1.001336E+0	1.023748E+0	9.812600E-1	9.878128E-1	1.019109E+0	9.799463E-1	1.013519E+0	1.029149E+0	1.010170E+0	9.893588E-1	1.034458E+0	9.846825E-1	9.991223E-1	1.029551E+0	1.017682E+0	1.021024E+0	1.049322E+0	1.007076E+0	1.047129E+0	1.026517E+0	1.025694E+0	1.025619E+0	1.027577E+0	1.015151E+0	9.945133E-1	9.996132E-1	1.028562E+0	1.021609E+0	9.994137E-1	9.674846E-1	9.872063E-1	1.023880E+0	1.051855E+0	9.592570E-1	1.000766E+0	9.921413E-1	1.001337E+0	9.867519E-1	1.008386E+0	9.931289E-1	1.040857E+0	1.058611E+0	9.959163E-1	1.047122E+0	1.016917E+0	1.032201E+0	9.936474E-1	1.000333E+0	1.017250E+0	1.011702E+0	9.834575E-1	1.014386E+0	9.902565E-1	1.027226E+0	1.019394E+0	1.010679E+0	9.978426E-1	1.020393E+0	9.446176E-1	1.018901E+0	1.017318E+0	1.008366E+0	1.010425E+0	1.001175E+0	9.920202E-1	9.462876E-1	1.012306E+0	1.018344E+0	1.058983E+0	9.478797E-1	1.032745E+0	1.013699E+0	1.024201E+0	1.041628E+0	9.701901E-1	1.014993E+0	9.734090E-1	9.926251E-1	9.878050E-1	1.045662E+0	9.907497E-1	1.024507E+0	1.011068E+0
5.560130E+2	9.451269E-1	9.368732E-1	1.011705E+0	9.293244E-1	9.646250E-1	1.031200E+0	9.985564E-1	9.851450E-1	9.866214E-1	9.640259E-1	1.009026E+0	9.650883E-1	1.023572E+0	1.054560E+0	9.635455E-1	9.734255E-1	1.009113E+0	9.803271E-1	9.903594E-1	9.594075E-1	9.819965E-1	9.512081E-1	1.007774E+0	9.898550E-1	1.016994E+0	9.912791E-1	1.013136E+0	9.551299E-1	9.831248E-1	9.755663E-1	1.016806E+0	9.923147E-1	9.865106E-1	9.560393E-1	9.746750E-1	9.477877E-1	9.172502E-1	9.877260E-1	9.921985E-1	9.872343E-1	9.901590E-1	1.029739E+0	9.835294E-1	9.808647E-1	9.597708E-1	9.626323E-1	1.008465E+0	1.023234E+0	1.070187E+0	9.661921E-1	9.436356E-1	1.043973E+0	9.288633E-1	9.954051E-1	9.408767E-1	1.008612E+0	1.008449E+0	1.002521E+0	9.654876E-1	1.015332E+0	9.673940E-1	9.850689E-1	9.881962E-1	9.002847E-1	1.019025E+0	9.952831E-1	9.267308E-1	9.692064E-1	9.833817E-1	1.034792E+0	9.973265E-1	1.012008E+0	9.429635E-1	1.024024E+0	1.002237E+0	1.034693E+0	9.906825E-1	9.982630E-1	9.926740E-1	9.519240E-1	9.631613E-1	9.997423E-1	9.636063E-1	9.721325E-1	9.444071E-1	1.028175E+0	9.590982E-1	1.016277E+0	9.969178E-1	1.046677E+0	9.856702E-1	9.783190E-1	1.025155E+0	9.602619E-1	9.671431E-1	1.019963E+0	9.639996E-1	9.948919E-1	9.908426E-1	9.838536E-1	1.000718E+0	9.737541E-1	9.577320E-1	9.577229E-1	9.776105E-1	9.659370E-1	9.577241E-1	9.835652E-1	9.987487E-1	9.947777E-1	1.043767E+0	9.979578E-1	9.328983E-1	9.442092E-1	9.586144E-1	1.008698E+0	9.387330E-1	9.787341E-1	1.002579E+0	9.370362E-1	9.471345E-1	9.840819E-1	9.958045E-1	1.009546E+0	1.004852E+0	9.719534E-1	1.032215E+0	9.556005E-1	1.024456E+0	9.570900E-1	9.075170E-1	1.024863E+0	9.396807E-1	9.540844E-1	9.619040E-1	9.646960E-1	9.633511E-1	9.537797E-1	9.696857E-1	1.030090E+0	9.672768E-1	9.859472E-1	9.426875E-1	1.009585E+0	9.759821E-1	1.005619E+0	9.873018E-1	9.630199E-1	1.007008E+0	9.341201E-1	9.582275E-1	9.895798E-1	9.997356E-1	1.004619E+0	1.067551E+0	9.687998E-1	9.715174E-1	9.817142E-1	1.016303E+0	9.866992E-1	1.003297E+0	9.550475E-1	1.044334E+0	1.008875E+0	1.047894E+0
5.565090E+2	9.319280E-1	9.651670E-1	1.009434E+0	9.208633E-1	1.003989E+0	9.516506E-1	9.612777E-1	9.570334E-1	9.811591E-1	9.387989E-1	9.810297E-1	9.263485E-1	9.913748E-1	9.237056E-1	9.940314E-1	9.325781E-1	9.819757E-1	9.339361E-1	9.438697E-1	9.796491E-1	9.444207E-1	9.501012E-1	9.406419E-1	9.535562E-1	9.486673E-1	9.069370E-1	9.681867E-1	1.016002E+0	9.394546E-1	9.325940E-1	9.337933E-1	9.334944E-1	9.727409E-1	9.561374E-1	9.255771E-1	9.120341E-1	9.119904E-1	9.244640E-1	9.663422E-1	9.661034E-1	9.338746E-1	9.533617E-1	9.819127E-1	9.746726E-1	9.724738E-1	9.196321E-1	9.412525E-1	9.454217E-1	9.806184E-1	9.009989E-1	9.486203E-1	9.860009E-1	9.269225E-1	9.272008E-1	9.831032E-1	9.848904E-1	9.069261E-1	9.509205E-1	9.798187E-1	9.977315E-1	9.430793E-1	9.457332E-1	9.679800E-1	9.650809E-1	9.531391E-1	9.309925E-1	9.689118E-1	9.363236E-1	9.593547E-1	1.003869E+0	9.638102E-1	9.610821E-1	9.761952E-1	9.928274E-1	9.375668E-1	9.962566E-1	9.514945E-1	9.556703E-1	9.397946E-1	9.854316E-1	9.589814E-1	9.615836E-1	1.006600E+0	9.797943E-1	9.620383E-1	9.675220E-1	9.485157E-1	9.795359E-1	9.725509E-1	9.524488E-1	9.213009E-1	9.801304E-1	9.311310E-1	9.076829E-1	9.658617E-1	9.649503E-1	9.605415E-1	9.398710E-1	9.530649E-1	9.837129E-1	9.925190E-1	9.528345E-1	9.710400E-1	9.063546E-1	9.609903E-1	9.341117E-1	9.583973E-1	9.642377E-1	9.208828E-1	9.380540E-1	9.484549E-1	9.149658E-1	9.873405E-1	9.511382E-1	9.461861E-1	8.988379E-1	9.300298E-1	9.468042E-1	9.422763E-1	9.779599E-1	9.098097E-1	9.417462E-1	9.300811E-1	9.529060E-1	9.614202E-1	9.353319E-1	9.070815E-1	9.481814E-1	9.587554E-1	1.000947E+0	9.711407E-1	9.497625E-1	9.610447E-1	9.616252E-1	9.874477E-1	9.627212E-1	9.411037E-1	9.105393E-1	9.676206E-1	9.407774E-1	9.284684E-1	9.479017E-1	9.467623E-1	9.519133E-1	9.943916E-1	8.930875E-1	9.154386E-1	9.072963E-1	9.493551E-1	9.250638E-1	9.368464E-1	9.499816E-1	9.677730E-1	1.032754E+0	9.753343E-1	9.636872E-1	9.197668E-1	9.622891E-1	9.491135E-1	9.233900E-1	9.645676E-1	9.633048E-1	1.007200E+0	9.910433E-1	8.446976E-1
5.570220E+2	9.800757E-1	9.252878E-1	1.020206E+0	8.997736E-1	9.637830E-1	9.273953E-1	9.400448E-1	9.140092E-1	9.524360E-1	9.907387E-1	1.014841E+0	9.217009E-1	9.789128E-1	9.409514E-1	1.012928E+0	9.355662E-1	9.745343E-1	9.679606E-1	9.735232E-1	9.663746E-1	9.789592E-1	9.633650E-1	1.011634E+0	9.538610E-1	9.288033E-1	9.569049E-1	1.003813E+0	9.542691E-1	9.708664E-1	1.007017E+0	9.909170E-1	9.531833E-1	9.481257E-1	1.009230E+0	9.942604E-1	9.593431E-1	9.546793E-1	9.783960E-1	9.764813E-1	9.819831E-1	9.774740E-1	9.286808E-1	9.630810E-1	1.015041E+0	9.478808E-1	9.651433E-1	9.298979E-1	9.614320E-1	9.876995E-1	9.234264E-1	9.377143E-1	1.015677E+0	9.641387E-1	9.877312E-1	9.775786E-1	9.588581E-1	1.002130E+0	9.168568E-1	9.470480E-1	9.283155E-1	9.434053E-1	9.756046E-1	9.818060E-1	9.707953E-1	9.488542E-1	9.467645E-1	9.221148E-1	9.458988E-1	9.474438E-1	9.908134E-1	9.379487E-1	9.765002E-1	9.867914E-1	9.639972E-1	9.461928E-1	9.598540E-1	9.065080E-1	9.787134E-1	9.783437E-1	9.384418E-1	9.791636E-1	9.745005E-1	9.691056E-1	9.584309E-1	9.586211E-1	9.471899E-1	9.627805E-1	1.001378E+0	9.673566E-1	9.805389E-1	9.754294E-1	9.575705E-1	9.770737E-1	9.840217E-1	9.582718E-1	9.525546E-1	9.777269E-1	9.913022E-1	1.029633E+0	9.364956E-1	9.768578E-1	9.435466E-1	9.333220E-1	1.015989E+0	9.803113E-1	9.271753E-1	9.499735E-1	9.726736E-1	9.528941E-1	9.231975E-1	9.349938E-1	9.900204E-1	9.450409E-1	9.919592E-1	9.352081E-1	9.421979E-1	9.838115E-1	9.478947E-1	9.912590E-1	9.655181E-1	9.618014E-1	9.696901E-1	9.734103E-1	9.833220E-1	9.865530E-1	9.840224E-1	9.798334E-1	9.487505E-1	9.936011E-1	9.355206E-1	9.374388E-1	9.861663E-1	9.559665E-1	9.575356E-1	9.324171E-1	9.667532E-1	9.441375E-1	9.461844E-1	9.841846E-1	9.673565E-1	9.396160E-1	9.820197E-1	9.862763E-1	9.474572E-1	9.568980E-1	9.707406E-1	9.355382E-1	9.991681E-1	9.813764E-1	9.494269E-1	9.485725E-1	9.010677E-1	9.837591E-1	9.437174E-1	9.824543E-1	1.004629E+0	9.878477E-1	9.539882E-1	1.003295E+0	9.506916E-1	9.455958E-1	9.334582E-1	9.210877E-1	9.861286E-1	1.055102E+0
5.575130E+2	9.289184E-1	9.317044E-1	9.548855E-1	9.705461E-1	9.756765E-1	9.222662E-1	9.442472E-1	9.731697E-1	9.472133E-1	9.455950E-1	9.508502E-1	9.262380E-1	9.774153E-1	9.614342E-1	9.660000E-1	1.007107E+0	9.445852E-1	9.545473E-1	9.473081E-1	9.844736E-1	9.274022E-1	9.580969E-1	9.596505E-1	9.276985E-1	9.181830E-1	9.008412E-1	9.542857E-1	9.581727E-1	9.489602E-1	9.658618E-1	9.641054E-1	9.856697E-1	9.820445E-1	9.727302E-1	9.574156E-1	9.711484E-1	9.551000E-1	9.620851E-1	9.227277E-1	9.867783E-1	9.256607E-1	9.629722E-1	9.206819E-1	9.983713E-1	9.169069E-1	9.790202E-1	9.706446E-1	9.630518E-1	9.714208E-1	9.594841E-1	9.463699E-1	9.585930E-1	9.417393E-1	9.606634E-1	9.353434E-1	9.282250E-1	9.691539E-1	9.783832E-1	9.474417E-1	9.759635E-1	9.117599E-1	9.315183E-1	9.548925E-1	9.548521E-1	9.441819E-1	9.385054E-1	9.731355E-1	9.230572E-1	9.703530E-1	9.306362E-1	9.625215E-1	9.596055E-1	9.881521E-1	9.291332E-1	9.436902E-1	9.647992E-1	9.251673E-1	9.165721E-1	9.446231E-1	9.631216E-1	9.377504E-1	9.763132E-1	9.120656E-1	9.334112E-1	9.227077E-1	9.708112E-1	9.309928E-1	9.371182E-1	9.421705E-1	9.893515E-1	1.002687E+0	1.007122E+0	9.759951E-1	9.650528E-1	9.576243E-1	9.796761E-1	9.416857E-1	9.482536E-1	9.390558E-1	9.520048E-1	9.601940E-1	1.000257E+0	9.894627E-1	9.370767E-1	9.562547E-1	9.319634E-1	9.619030E-1	9.494711E-1	9.393832E-1	9.573568E-1	9.340861E-1	9.795386E-1	9.569778E-1	9.693666E-1	9.594694E-1	9.484798E-1	9.616191E-1	9.442856E-1	9.795498E-1	9.503583E-1	9.854601E-1	9.327723E-1	9.403912E-1	9.469897E-1	9.698388E-1	9.407407E-1	9.577529E-1	9.395795E-1	9.136660E-1	9.714426E-1	1.021116E+0	9.548692E-1	9.562993E-1	9.302935E-1	9.267960E-1	9.699607E-1	9.610999E-1	9.377600E-1	9.160672E-1	9.843341E-1	9.176388E-1	9.538461E-1	9.839092E-1	9.320105E-1	9.731518E-1	9.739142E-1	9.501405E-1	1.010039E+0	9.169881E-1	9.366771E-1	9.486450E-1	9.525372E-1	9.720979E-1	9.592754E-1	9.140788E-1	9.582891E-1	9.249920E-1	9.364659E-1	8.998514E-1	9.538343E-1	9.967069E-1	9.304217E-1	9.763872E-1	8.817285E-1	9.482758E-1
5.580170E+2	1.031316E+0	9.832630E-1	1.012549E+0	1.033765E+0	1.039113E+0	1.034547E+0	9.870182E-1	9.745903E-1	1.021263E+0	1.024777E+0	1.015616E+0	1.021186E+0	9.782113E-1	1.015017E+0	1.037643E+0	1.009696E+0	1.014256E+0	1.007461E+0	9.931306E-1	9.912907E-1	1.005339E+0	1.047779E+0	9.862906E-1	1.041696E+0	1.040721E+0	9.946253E-1	9.960745E-1	1.002546E+0	9.221512E-1	9.984209E-1	1.019138E+0	9.988378E-1	1.042234E+0	9.754429E-1	1.002035E+0	9.786093E-1	1.012054E+0	9.811596E-1	1.058543E+0	1.034757E+0	9.929058E-1	1.053842E+0	9.954214E-1	9.560440E-1	9.937890E-1	9.929813E-1	1.012382E+0	9.677167E-1	1.000332E+0	1.038665E+0	1.012195E+0	9.754514E-1	1.026727E+0	1.026366E+0	1.037301E+0	1.042666E+0	1.034113E+0	1.002389E+0	9.913013E-1	9.950479E-1	1.010700E+0	9.822719E-1	1.004967E+0	1.011435E+0	1.033043E+0	1.000438E+0	1.006482E+0	9.801866E-1	9.836859E-1	1.038235E+0	9.901627E-1	9.943440E-1	9.663839E-1	9.771034E-1	9.839658E-1	1.048004E+0	9.608335E-1	1.059334E+0	1.036512E+0	1.039971E+0	1.031014E+0	9.917506E-1	1.005127E+0	1.026094E+0	1.021965E+0	1.001568E+0	1.027161E+0	1.009962E+0	1.023139E+0	1.045157E+0	1.021731E+0	9.898275E-1	1.018940E+0	1.017313E+0	1.010793E+0	1.015470E+0	1.007775E+0	9.660033E-1	1.030118E+0	9.666117E-1	9.908210E-1	1.068070E+0	1.027785E+0	1.033079E+0	9.990850E-1	1.010283E+0	1.013549E+0	1.004311E+0	1.047738E+0	1.014447E+0	1.043602E+0	9.795888E-1	9.873724E-1	9.679442E-1	1.053836E+0	1.098739E+0	1.056758E+0	9.996598E-1	9.762433E-1	1.039435E+0	1.019674E+0	9.915066E-1	1.025580E+0	1.002680E+0	1.031344E+0	1.023843E+0	1.022515E+0	9.929528E-1	9.712578E-1	1.035410E+0	1.023040E+0	1.024206E+0	9.947340E-1	1.022884E+0	1.004469E+0	9.982233E-1	1.050602E+0	9.949419E-1	9.566030E-1	1.011851E+0	1.034002E+0	9.765992E-1	9.971637E-1	9.794984E-1	9.957606E-1	1.026574E+0	1.032826E+0	9.699176E-1	1.056884E+0	1.018041E+0	1.022025E+0	1.023059E+0	9.954419E-1	9.726464E-1	1.028526E+0	9.857895E-1	1.018598E+0	1.006647E+0	1.028971E+0	1.071357E+0	1.009804E+0	9.943036E-1	9.743967E-1	1.007413E+0	1.017918E+0
5.585220E+2	9.742309E-1	1.007901E+0	9.883702E-1	9.666457E-1	9.821442E-1	1.008208E+0	1.004685E+0	1.056199E+0	1.009562E+0	9.960951E-1	9.841850E-1	9.818994E-1	9.537855E-1	1.030601E+0	1.042304E+0	9.747914E-1	9.976263E-1	1.006473E+0	1.020041E+0	9.912385E-1	9.925078E-1	9.934517E-1	1.005471E+0	1.004078E+0	9.672637E-1	9.784958E-1	1.004585E+0	9.845274E-1	1.033591E+0	9.681382E-1	1.034014E+0	9.914129E-1	9.858545E-1	1.051758E+0	9.967043E-1	1.016800E+0	9.647477E-1	9.856837E-1	9.774764E-1	9.770086E-1	1.004263E+0	1.040828E+0	1.034272E+0	9.714587E-1	1.017176E+0	1.005762E+0	1.036134E+0	1.013282E+0	1.011473E+0	1.016774E+0	1.039473E+0	9.992672E-1	1.018014E+0	9.668931E-1	9.916486E-1	9.705323E-1	9.678667E-1	1.008836E+0	1.012652E+0	1.020811E+0	1.023061E+0	1.006137E+0	1.041653E+0	1.019592E+0	9.588403E-1	9.880634E-1	1.023477E+0	1.027676E+0	1.030582E+0	1.002165E+0	9.978586E-1	1.021308E+0	1.024436E+0	9.531691E-1	9.789013E-1	9.351940E-1	1.052458E+0	9.888265E-1	9.858783E-1	9.743052E-1	9.954744E-1	9.608993E-1	9.849478E-1	1.042915E+0	9.735884E-1	9.645637E-1	9.683603E-1	1.012874E+0	9.724789E-1	9.680228E-1	9.982485E-1	9.729656E-1	9.787148E-1	1.036953E+0	1.001239E+0	9.974612E-1	1.004075E+0	9.841260E-1	9.850853E-1	9.951850E-1	9.843643E-1	9.777946E-1	1.005283E+0	1.013343E+0	1.036806E+0	1.088535E+0	1.053143E+0	9.900044E-1	1.009919E+0	9.823102E-1	1.028649E+0	1.047724E+0	1.047793E+0	9.995954E-1	1.017048E+0	9.964892E-1	9.856142E-1	9.472693E-1	9.661720E-1	9.418600E-1	1.003395E+0	9.959321E-1	9.691722E-1	9.601397E-1	9.956164E-1	9.849133E-1	1.031031E+0	9.631442E-1	1.009827E+0	9.505066E-1	9.758840E-1	9.821567E-1	1.008356E+0	1.043442E+0	1.012036E+0	1.011274E+0	9.749284E-1	1.020614E+0	1.002358E+0	1.000804E+0	1.015630E+0	9.933912E-1	9.643705E-1	1.011066E+0	9.726679E-1	9.836465E-1	9.825386E-1	1.042815E+0	9.687418E-1	9.785351E-1	9.919337E-1	9.681588E-1	1.004689E+0	1.013372E+0	1.022093E+0	9.640517E-1	1.046386E+0	9.671538E-1	9.619058E-1	9.879920E-1	9.763109E-1	9.984985E-1	1.003603E+0	9.634895E-1	1.085991E+0
5.590210E+2	1.093737E+0	1.071012E+0	1.038292E+0	1.084529E+0	1.018168E+0	1.049380E+0	1.067061E+0	1.060053E+0	1.070620E+0	1.043568E+0	1.054798E+0	1.046412E+0	1.095640E+0	1.080404E+0	9.981884E-1	1.022387E+0	1.074899E+0	1.044652E+0	1.065111E+0	1.088494E+0	1.069514E+0	1.023437E+0	1.057138E+0	1.022729E+0	1.098518E+0	1.007872E+0	1.016595E+0	1.087775E+0	1.056046E+0	1.054362E+0	1.033007E+0	1.041580E+0	1.038783E+0	1.097922E+0	1.026281E+0	1.046152E+0	1.060064E+0	1.047284E+0	1.062552E+0	1.013406E+0	1.046723E+0	1.004532E+0	1.031067E+0	1.040360E+0	1.086682E+0	1.050980E+0	1.024342E+0	1.051575E+0	1.003548E+0	1.050722E+0	1.018972E+0	1.020415E+0	1.008695E+0	1.055680E+0	1.029713E+0	1.033316E+0	1.041549E+0	1.080795E+0	1.089096E+0	1.026776E+0	1.081185E+0	1.016885E+0	1.067790E+0	1.004694E+0	1.048791E+0	1.096499E+0	1.021643E+0	1.051902E+0	1.066166E+0	1.000102E+0	1.018758E+0	1.053564E+0	1.031622E+0	1.039726E+0	1.093713E+0	1.015951E+0	1.048315E+0	1.032100E+0	1.036425E+0	1.015548E+0	1.070595E+0	1.032022E+0	1.076808E+0	1.056682E+0	1.053332E+0	1.055757E+0	1.098412E+0	9.777901E-1	1.076488E+0	1.005793E+0	1.036201E+0	1.084782E+0	1.024838E+0	1.060469E+0	1.020132E+0	1.112103E+0	1.033693E+0	1.076493E+0	9.881181E-1	1.008295E+0	1.026049E+0	9.749131E-1	1.003651E+0	1.080377E+0	1.009165E+0	1.048563E+0	1.019127E+0	1.097836E+0	1.013315E+0	1.048139E+0	1.012778E+0	9.835544E-1	1.048924E+0	1.102136E+0	1.047869E+0	1.027826E+0	1.069941E+0	1.058394E+0	1.051318E+0	1.057580E+0	1.046077E+0	1.060455E+0	1.021272E+0	1.047144E+0	1.021921E+0	1.007240E+0	1.063157E+0	1.047460E+0	1.079855E+0	1.039123E+0	1.048702E+0	1.003237E+0	1.055320E+0	1.037744E+0	1.075226E+0	1.016572E+0	1.067847E+0	1.024900E+0	1.089674E+0	1.005883E+0	1.052752E+0	1.051294E+0	1.016466E+0	1.067260E+0	1.035262E+0	1.052301E+0	1.091854E+0	1.055283E+0	1.073599E+0	1.077160E+0	1.077241E+0	1.030146E+0	1.025519E+0	1.058114E+0	1.069700E+0	1.030210E+0	1.023490E+0	1.074643E+0	1.023960E+0	1.013717E+0	1.040850E+0	1.091557E+0	1.053870E+0	1.066004E+0	1.013727E+0
5.595110E+2	1.041505E+0	1.061037E+0	1.027440E+0	1.035341E+0	1.033850E+0	1.079473E+0	1.037770E+0	1.023686E+0	1.048777E+0	1.011296E+0	1.007170E+0	1.048959E+0	1.032983E+0	1.025351E+0	9.828812E-1	1.061481E+0	1.072696E+0	1.036580E+0	1.037017E+0	1.019442E+0	9.998366E-1	1.016706E+0	1.060710E+0	1.048501E+0	1.053549E+0	1.054161E+0	1.006503E+0	1.019298E+0	1.073215E+0	1.012917E+0	1.039432E+0	1.011961E+0	1.004267E+0	9.826231E-1	1.042382E+0	1.070227E+0	1.094818E+0	1.091446E+0	1.023750E+0	1.057568E+0	1.035265E+0	9.999538E-1	1.001202E+0	1.038341E+0	1.059288E+0	1.024806E+0	1.060474E+0	1.020917E+0	1.013457E+0	1.037665E+0	1.070191E+0	1.015436E+0	1.076386E+0	1.002385E+0	1.054682E+0	1.070656E+0	1.031611E+0	1.016151E+0	1.031990E+0	9.863800E-1	1.017814E+0	1.038765E+0	1.018333E+0	1.002006E+0	1.030174E+0	1.037721E+0	1.043928E+0	1.026374E+0	1.010363E+0	1.012922E+0	1.033795E+0	1.026625E+0	1.009206E+0	1.056046E+0	1.033456E+0	1.037382E+0	1.020005E+0	1.040455E+0	1.041606E+0	1.014475E+0	1.029642E+0	1.072414E+0	1.026006E+0	1.036084E+0	1.057562E+0	1.054732E+0	1.029386E+0	1.057633E+0	9.863141E-1	1.009369E+0	1.016695E+0	1.014145E+0	9.966328E-1	1.067189E+0	1.080055E+0	1.012358E+0	1.060224E+0	1.056715E+0	9.950501E-1	1.061235E+0	1.052555E+0	1.059155E+0	1.001279E+0	9.721031E-1	1.051121E+0	1.044058E+0	9.920478E-1	9.917179E-1	1.053422E+0	1.041480E+0	1.017448E+0	9.908503E-1	1.010733E+0	9.871992E-1	1.005934E+0	1.020090E+0	9.791388E-1	1.021587E+0	1.030728E+0	1.044181E+0	9.982777E-1	1.050703E+0	1.064759E+0	1.004891E+0	9.822620E-1	1.032245E+0	1.002403E+0	1.080732E+0	1.038611E+0	1.026874E+0	1.001328E+0	1.029818E+0	1.011660E+0	1.073532E+0	1.036753E+0	1.029496E+0	1.022318E+0	1.018055E+0	1.052702E+0	1.032496E+0	1.048883E+0	1.042631E+0	1.026094E+0	1.054292E+0	1.057511E+0	1.083279E+0	1.005127E+0	1.024164E+0	1.017040E+0	1.012658E+0	1.032313E+0	1.066855E+0	1.051652E+0	1.017016E+0	9.938425E-1	1.040347E+0	1.012396E+0	1.050351E+0	1.100853E+0	1.038903E+0	1.025734E+0	1.008598E+0	9.887891E-1	1.006657E+0	9.571585E-1
5.600520E+2	1.008963E+0	1.032271E+0	9.639473E-1	1.026644E+0	1.002413E+0	9.906155E-1	1.018193E+0	1.020247E+0	9.782872E-1	9.931360E-1	9.591464E-1	1.018403E+0	9.642258E-1	1.000088E+0	9.747487E-1	9.974446E-1	9.603559E-1	9.779303E-1	9.446656E-1	9.865078E-1	9.830396E-1	9.877119E-1	1.005086E+0	9.940051E-1	1.025594E+0	1.023537E+0	9.723330E-1	9.713818E-1	1.006574E+0	9.927094E-1	9.669763E-1	1.038073E+0	9.920300E-1	9.483698E-1	9.825528E-1	1.009033E+0	9.986026E-1	1.001878E+0	9.967811E-1	9.926584E-1	1.021633E+0	1.031696E+0	1.018868E+0	9.430143E-1	9.704499E-1	9.777158E-1	9.658524E-1	1.044179E+0	9.768256E-1	1.001123E+0	1.018221E+0	1.026434E+0	9.442748E-1	9.972986E-1	9.741503E-1	1.003357E+0	1.027676E+0	9.915251E-1	9.849035E-1	9.837372E-1	1.042394E+0	1.053978E+0	1.027574E+0	9.564508E-1	9.890466E-1	1.028341E+0	9.922566E-1	1.004902E+0	1.049127E+0	1.000992E+0	1.017145E+0	9.800827E-1	1.000469E+0	1.038518E+0	1.000241E+0	1.003196E+0	1.018238E+0	9.918976E-1	1.037124E+0	9.999862E-1	1.026589E+0	9.692156E-1	1.031022E+0	9.286042E-1	9.703629E-1	9.557169E-1	9.823271E-1	9.750850E-1	9.750211E-1	1.006907E+0	9.485650E-1	9.597626E-1	1.015789E+0	9.692884E-1	1.015471E+0	9.291721E-1	9.877656E-1	9.812317E-1	1.001415E+0	1.008803E+0	9.651885E-1	1.020970E+0	9.900539E-1	9.990483E-1	9.650973E-1	9.691620E-1	9.441371E-1	9.820105E-1	9.803429E-1	9.812226E-1	1.033159E+0	9.797320E-1	9.436136E-1	9.929857E-1	1.012104E+0	9.887353E-1	9.521339E-1	1.044713E+0	1.038438E+0	9.974001E-1	9.986567E-1	1.025244E+0	9.583467E-1	9.768167E-1	9.717258E-1	1.024130E+0	1.040172E+0	1.007381E+0	9.912349E-1	9.824469E-1	1.002316E+0	1.030910E+0	9.655155E-1	9.769899E-1	9.714160E-1	1.026709E+0	1.013236E+0	1.033950E+0	1.020951E+0	9.955531E-1	9.738363E-1	1.008441E+0	9.917761E-1	9.837611E-1	9.937120E-1	9.491389E-1	1.012893E+0	1.005367E+0	9.948164E-1	1.022349E+0	1.001036E+0	1.008794E+0	9.792260E-1	9.984542E-1	1.013145E+0	1.039757E+0	1.002103E+0	9.645712E-1	9.881626E-1	9.766839E-1	9.875316E-1	1.054268E+0	1.064518E+0	1.044158E+0	9.879285E-1
5.605090E+2	9.759442E-1	1.077224E+0	9.760157E-1	1.055904E+0	9.949684E-1	1.036983E+0	9.975971E-1	1.014451E+0	9.866552E-1	1.027129E+0	1.022515E+0	1.051070E+0	1.047119E+0	1.010967E+0	9.960343E-1	1.036633E+0	1.001406E+0	1.041515E+0	1.017104E+0	1.023896E+0	1.044997E+0	1.052236E+0	1.008533E+0	1.036695E+0	1.010311E+0	1.101334E+0	1.056664E+0	1.019954E+0	1.035392E+0	1.038008E+0	1.038415E+0	1.042177E+0	1.051196E+0	1.004318E+0	1.038015E+0	1.008391E+0	1.029228E+0	1.034153E+0	9.876744E-1	9.920569E-1	1.035663E+0	1.017773E+0	1.030932E+0	1.032428E+0	1.041743E+0	1.046290E+0	1.034436E+0	1.033546E+0	1.049930E+0	1.051659E+0	9.972783E-1	9.987958E-1	1.052446E+0	1.029309E+0	1.034811E+0	9.850517E-1	1.039978E+0	1.013064E+0	1.015288E+0	1.035010E+0	1.015207E+0	1.070713E+0	9.818553E-1	1.031719E+0	1.056305E+0	1.016545E+0	1.022194E+0	1.042012E+0	9.790487E-1	1.015861E+0	1.076145E+0	1.028621E+0	1.031804E+0	9.949758E-1	1.050401E+0	1.042700E+0	1.084375E+0	1.014672E+0	9.946276E-1	1.057171E+0	9.798967E-1	1.011877E+0	9.877754E-1	9.882741E-1	1.057290E+0	1.076999E+0	1.038631E+0	9.795832E-1	1.021929E+0	1.016998E+0	1.006478E+0	1.069203E+0	1.014670E+0	9.935998E-1	1.018376E+0	9.998087E-1	1.020769E+0	1.047211E+0	1.038179E+0	1.053351E+0	1.010888E+0	1.000155E+0	1.038748E+0	1.053976E+0	1.045548E+0	1.008321E+0	1.085626E+0	1.035004E+0	1.071742E+0	1.072339E+0	1.054041E+0	1.063748E+0	1.071928E+0	1.023810E+0	1.022993E+0	1.069289E+0	1.043925E+0	1.070431E+0	1.021792E+0	9.947743E-1	1.043682E+0	1.051971E+0	1.055403E+0	1.075426E+0	1.023316E+0	1.047719E+0	1.020037E+0	1.033673E+0	1.072429E+0	1.028756E+0	1.023926E+0	1.019026E+0	1.023638E+0	1.003319E+0	1.047201E+0	1.032876E+0	1.016855E+0	1.073965E+0	1.023879E+0	1.033823E+0	1.046242E+0	1.023762E+0	1.055439E+0	9.978710E-1	9.692580E-1	1.047598E+0	1.062293E+0	1.006072E+0	1.050434E+0	1.044043E+0	1.015773E+0	1.069976E+0	1.009280E+0	9.887259E-1	9.821240E-1	1.017374E+0	1.011346E+0	1.032069E+0	1.073694E+0	9.977257E-1	1.026053E+0	9.797662E-1	1.026604E+0	1.080264E+0	1.024486E+0
5.610180E+2	1.033382E+0	9.451330E-1	1.008862E+0	1.005988E+0	9.858958E-1	9.994815E-1	1.042106E+0	1.006561E+0	1.004027E+0	1.028866E+0	1.009849E+0	1.057783E+0	9.803319E-1	1.011481E+0	9.952413E-1	1.022316E+0	9.776662E-1	1.028945E+0	1.058231E+0	9.686346E-1	1.053984E+0	1.007115E+0	9.648444E-1	1.017181E+0	1.008390E+0	1.075291E+0	1.020960E+0	9.860740E-1	1.013750E+0	1.029972E+0	9.802017E-1	1.003611E+0	9.827243E-1	1.001468E+0	1.034777E+0	1.028262E+0	1.018715E+0	9.934512E-1	1.027671E+0	9.976812E-1	1.026538E+0	1.006361E+0	1.022562E+0	1.030270E+0	9.936096E-1	1.037669E+0	1.024585E+0	9.988779E-1	1.004695E+0	1.019483E+0	1.010965E+0	1.003930E+0	1.040657E+0	1.046474E+0	9.816689E-1	1.022447E+0	9.789964E-1	1.041079E+0	1.000460E+0	1.050227E+0	1.011394E+0	9.783934E-1	9.531495E-1	1.083375E+0	1.037625E+0	1.016131E+0	1.025857E+0	1.061668E+0	1.003876E+0	1.004404E+0	1.001855E+0	9.982662E-1	9.849408E-1	1.054504E+0	1.031872E+0	9.966628E-1	1.032604E+0	1.021758E+0	1.005065E+0	1.011549E+0	9.908935E-1	1.049424E+0	1.000542E+0	1.049710E+0	1.022532E+0	1.005140E+0	1.013433E+0	1.069041E+0	1.062553E+0	1.025415E+0	1.072666E+0	9.644917E-1	1.066216E+0	9.984305E-1	9.721753E-1	1.036446E+0	1.005744E+0	1.008793E+0	1.040281E+0	1.034306E+0	1.040564E+0	1.002304E+0	1.039375E+0	9.886520E-1	9.956213E-1	1.037828E+0	1.022097E+0	1.012734E+0	1.010362E+0	1.041454E+0	9.927871E-1	1.070278E+0	1.000278E+0	1.013866E+0	9.993524E-1	1.009316E+0	1.037028E+0	1.018960E+0	1.002224E+0	1.030933E+0	1.033167E+0	9.799796E-1	1.061585E+0	1.049684E+0	1.056002E+0	1.019815E+0	9.760169E-1	1.038145E+0	9.707622E-1	1.028974E+0	9.951091E-1	1.019850E+0	1.067467E+0	9.926352E-1	1.006239E+0	9.854162E-1	1.007872E+0	1.039090E+0	9.859608E-1	1.027123E+0	1.042932E+0	1.020114E+0	1.031742E+0	1.074870E+0	1.051388E+0	1.019721E+0	1.011351E+0	9.798782E-1	9.907653E-1	1.036046E+0	1.025616E+0	1.029425E+0	1.010563E+0	1.015925E+0	1.018702E+0	9.958666E-1	1.053074E+0	1.051821E+0	9.701937E-1	1.085705E+0	1.026846E+0	1.045824E+0	9.835444E-1	9.731133E-1	1.064715E+0
