Photon Energy (eV)	#1	#2	#3	#4	#5	#6	#7	#8	#9	#10	#11	#12	#13	#14	#15	#16	#17	#18	#19	#20	#21	#22	#23	#24	#25	#26	#27	#28	#29	#30	#31	#32	#33	#34	#35	#36	#37	#38	#39	#40	#41	#42	#43	#44	#45	#46	#47	#48	#49	#50	#51	#52	#53	#54	#55	#56	#57	#58	#59	#60	#61	#62	#63	#64	#65	#66	#67	#68	#69	#70	#71	#72	#73	#74	#75	#76	#77	#78	#79	#80	#81	#82	#83	#84	#85	#86	#87	#88	#89	#90	#91	#92	#93	#94	#95	#96	#97	#98	#99	#100	#101	#102	#103	#104	#105	#106	#107	#108	#109	#110	#111	#112	#113	#114	#115	#116	#117	#118	#119	#120	#121	#122	#123	#124	#125	#126	#127	#128	#129	#130	#131	#132	#133	#134	#135	#136	#137	#138	#139	#140	#141	#142	#143	#144	#145	#146	#147	#148	#149	#150	#151	#152	#153	#154	#155	#156	#157	#158	#159	#160	#161	#162	#163	#164	#165	#166	#167	#168	#169	#170	
2.790040E+2	-1.626165E-2	-7.319522E-3	3.232831E-3	9.401339E-4	8.005275E-3	-1.520570E-2	-9.384098E-3	1.350574E-2	-8.208172E-3	4.657822E-3	-6.582262E-3	3.486844E-3	4.516230E-3	-9.025228E-5	-7.294895E-3	-1.480066E-2	7.452616E-3	-1.612064E-2	2.134304E-3	-3.435254E-3	-3.945656E-3	-4.305112E-3	-9.951415E-3	-1.917493E-2	6.098837E-3	-4.989811E-4	-5.126127E-3	-9.658376E-3	-1.592245E-3	-3.807525E-3	6.321686E-3	6.487125E-4	-7.023445E-5	-1.335686E-2	-3.700706E-3	-1.050756E-2	-4.031535E-3	-1.702509E-2	-4.934564E-3	5.626236E-3	-4.779400E-3	-1.467255E-2	-1.443916E-2	-1.344890E-2	-8.915246E-3	1.072481E-2	-3.106235E-3	-7.644216E-3	-1.164465E-2	-1.187239E-4	8.822198E-6	-1.158771E-2	-2.674851E-2	1.154460E-2	-5.312046E-3	1.441958E-4	-5.697191E-3	-4.736554E-3	-1.184296E-2	-3.800133E-3	-1.352103E-2	2.262466E-3	-9.594657E-3	-3.614798E-3	5.319842E-3	-1.106077E-3	-4.048069E-3	9.793303E-3	-1.695641E-2	-1.244989E-2	-2.680560E-3	-3.992762E-3	3.709589E-3	-4.341982E-3	-9.806986E-3	-1.206134E-2	1.103974E-3	-1.340165E-2	-9.591771E-3	-2.271582E-3	-2.052817E-2	1.590637E-3	-2.130559E-3	-3.010165E-3	6.518806E-3	-1.185687E-2	-4.468566E-3	-2.641658E-2	-1.368071E-2	-9.556286E-3	-4.970910E-3	-5.384296E-3	7.381980E-3	-1.124217E-2	8.041388E-4	-1.244782E-2	-5.534048E-3	-4.473847E-3	-9.052622E-3	3.698015E-3	-9.648135E-4	-5.745193E-5	5.648704E-3	-1.681136E-2	-1.224357E-2	-3.165584E-3	-4.280720E-3	3.501873E-5	-6.790712E-3	-8.175622E-3	-3.352068E-3	7.481969E-3	-1.714902E-2	1.871126E-2	8.857044E-4	3.401810E-3	-4.250187E-3	-5.632435E-3	-6.406502E-3	-5.876002E-3	-2.359078E-3	-1.025269E-2	4.478877E-3	5.711265E-3	-8.418391E-3	-2.983679E-3	-2.886863E-3	-1.089914E-3	-1.131029E-2	2.743060E-4	-2.499123E-3	1.520980E-3	3.949296E-3	5.440087E-3	-5.044200E-3	-8.960990E-3	-6.634550E-3	-8.877436E-3	1.356347E-3	-1.063542E-2	-8.419060E-3	-1.610654E-2	5.407405E-3	-2.349712E-3	-7.865630E-3	-9.832143E-3	-1.693842E-2	1.043549E-2	1.456709E-3	-1.009090E-3	-1.685801E-2	-9.773052E-3	-1.281632E-2	6.858324E-4	-8.336801E-3	-4.014888E-3	-9.577896E-3	2.393661E-3	-1.889423E-2	1.282223E-2	1.375428E-3	-1.954908E-3	-9.272757E-3	-7.100050E-3	-3.068141E-3	-8.504715E-3	1.327147E-2	1.845681E-3	3.098872E-3	6.481773E-3
2.794980E+2	6.586737E-3	-8.390351E-4	4.976200E-3	2.170877E-3	-4.123863E-3	3.629982E-3	-9.216849E-3	3.900643E-3	-2.225017E-3	-6.170883E-3	-3.937073E-3	9.029532E-3	-3.047197E-3	-1.297404E-2	-8.234800E-3	-9.814718E-4	3.058104E-4	-1.018195E-2	-1.066123E-2	-4.270960E-3	-6.329382E-3	-2.799418E-3	1.677707E-5	-6.308625E-3	-8.216885E-3	6.500656E-3	-2.517381E-3	5.950992E-3	1.422898E-3	-7.249027E-3	-8.819575E-3	-3.293804E-3	-3.989789E-3	-2.309610E-3	-4.746765E-3	-1.389777E-3	-7.446617E-3	-1.321414E-2	-1.608459E-3	-2.648889E-3	-3.133656E-3	1.071070E-2	-1.153909E-3	4.002254E-3	-1.222144E-2	1.142287E-3	-6.266236E-3	5.153432E-4	3.698107E-3	1.135587E-4	2.500177E-4	1.556336E-3	-9.845893E-3	2.532298E-3	-5.122441E-3	-1.754425E-3	-2.356354E-3	1.147309E-3	2.794344E-3	4.190662E-3	7.506181E-3	-1.147235E-2	-4.635190E-3	-7.750309E-3	-8.951095E-3	-2.308482E-3	-6.530988E-3	-7.498273E-3	-2.874137E-3	-4.020423E-3	-1.323397E-3	2.436743E-4	-9.140899E-3	-2.353886E-2	-5.925790E-3	1.249842E-3	-5.754829E-3	-1.240308E-4	-1.058138E-2	-3.332820E-3	-3.023971E-3	7.550839E-3	-1.978269E-3	-5.676946E-3	-1.057943E-2	2.255728E-3	-5.380157E-3	-1.079339E-2	5.364627E-3	4.054786E-3	-3.480893E-3	-3.652585E-3	7.243377E-4	5.928853E-3	-3.050414E-3	-7.390054E-4	-8.725762E-3	-4.285491E-3	-5.772267E-3	6.827856E-3	4.625289E-3	-4.869676E-3	-9.806019E-3	1.339519E-2	-1.663935E-3	-1.640943E-3	2.476356E-3	-1.991273E-2	-5.140807E-3	2.456604E-3	-1.941250E-3	-1.254881E-2	-3.546630E-3	-1.015970E-2	1.083898E-3	1.099278E-2	6.302923E-3	2.049379E-3	-1.091565E-2	5.343818E-3	-3.599208E-3	1.507327E-2	-5.352474E-3	4.358492E-3	9.684214E-3	-5.480463E-3	-7.648622E-3	4.265385E-4	-1.453860E-2	-1.745779E-2	-8.662402E-4	-5.746560E-3	7.033731E-3	-5.953770E-3	-1.102850E-2	-4.682464E-3	-3.449798E-3	-2.001839E-3	1.114394E-2	3.680666E-3	-1.189075E-3	-6.247895E-3	-4.919090E-3	1.900514E-3	1.356500E-2	-8.266607E-3	3.054838E-3	-1.495411E-2	-1.018903E-3	-9.652613E-3	-6.822981E-3	7.954890E-3	-2.316692E-2	-3.177068E-3	-8.136072E-3	-2.251353E-3	5.801130E-4	-1.097146E-3	-4.507959E-3	-2.270506E-2	-4.292200E-3	3.990665E-3	-6.163806E-3	-8.425422E-3	-2.758340E-3	2.305682E-3	-6.721040E-3	-4.515713E-4	-2.703021E-2	-1.688935E-2
2.800050E+2	-2.962226E-3	2.434278E-3	-2.353286E-3	-1.288676E-2	5.285923E-3	2.204750E-3	-4.973810E-3	-1.888572E-2	-1.222094E-2	-2.909201E-3	-8.750808E-3	-1.044773E-4	1.039424E-3	-8.519403E-3	3.297115E-3	4.862578E-3	-1.157892E-2	2.930077E-3	1.163144E-2	-6.868694E-3	-2.266395E-3	6.236249E-3	-6.400757E-3	6.499682E-3	2.309433E-3	-2.839827E-3	-4.783908E-3	-9.735876E-3	-6.362255E-3	-1.203304E-2	-9.537081E-4	-1.031018E-2	-1.390651E-2	7.347459E-3	5.186513E-4	4.016363E-3	1.347036E-2	1.618186E-2	1.012553E-2	-8.000008E-3	1.178692E-2	-7.788539E-3	1.342142E-3	5.612145E-3	-5.955868E-3	-1.606352E-2	-3.895478E-3	-1.328942E-4	-9.718261E-3	-5.688350E-3	-1.007930E-3	-8.545401E-3	-4.528173E-3	-1.061538E-2	4.729312E-3	9.130198E-3	6.740913E-3	-4.416640E-3	-3.609489E-3	-2.216560E-2	-1.571256E-2	-1.139948E-2	1.653026E-2	-9.694532E-3	-1.454504E-2	-7.931527E-4	-7.730739E-3	-2.710068E-4	6.237257E-3	8.685990E-4	6.830198E-3	-3.850892E-3	-1.175960E-2	-3.966878E-3	-8.280767E-3	-1.066363E-2	-5.404581E-3	-7.907050E-3	-1.042168E-2	1.544611E-3	-5.906069E-3	-2.264256E-3	9.973325E-3	-1.045903E-2	-4.657915E-3	2.401193E-3	-1.928296E-3	3.529973E-3	-4.598440E-3	8.284187E-3	-4.715777E-3	8.047870E-3	-4.565763E-3	2.429272E-3	-1.530899E-3	1.099158E-3	5.066945E-3	-8.381127E-3	-7.197044E-3	-9.689222E-3	2.068174E-3	-1.230544E-2	-1.797114E-3	2.621114E-3	-6.030276E-3	7.912552E-3	-5.273959E-3	-5.850162E-3	8.189494E-3	-7.862013E-3	-2.981306E-3	6.528667E-3	-1.520869E-2	-1.149378E-2	-5.609464E-3	-3.573466E-3	-5.393223E-3	-7.833130E-3	-1.433213E-2	-5.563455E-3	1.256779E-2	1.384824E-2	1.499257E-2	-9.803969E-3	-8.139085E-3	4.040494E-3	-1.126720E-2	9.749926E-3	2.732988E-4	-7.223383E-4	-3.607511E-3	3.443303E-3	-9.087444E-3	-5.809951E-3	-1.339580E-2	1.191035E-2	8.695254E-3	-8.607314E-3	-2.022618E-2	-2.509226E-3	-3.881073E-3	1.212293E-2	-1.670542E-2	-3.392742E-3	-1.510465E-2	-6.742938E-3	8.885928E-3	2.736584E-4	-2.252580E-3	9.543891E-3	8.171669E-3	-9.475475E-3	1.130763E-3	-3.373211E-4	-1.991463E-2	1.031232E-3	1.641198E-2	6.582997E-3	1.708727E-2	-2.671018E-3	-1.009180E-2	-1.309625E-2	-1.851724E-4	2.426716E-3	-8.177104E-3	-4.187948E-3	-1.845497E-2	-7.870427E-3	3.045278E-2	-8.885768E-3
2.805030E+2	-1.293326E-2	-7.161827E-3	-2.515770E-3	3.654218E-3	-5.698770E-3	-7.285390E-3	4.218350E-4	-6.108285E-3	1.502562E-2	-7.774281E-3	-3.928094E-3	-2.228542E-4	-4.373491E-3	5.915634E-3	-2.366310E-4	3.599524E-3	-8.688033E-3	2.771277E-3	-1.586663E-2	-4.272727E-3	-1.071747E-3	-2.787848E-3	1.746956E-2	-2.830755E-3	2.166651E-3	-5.655458E-3	-1.303948E-3	-1.114083E-2	6.675173E-3	1.289474E-3	2.255127E-3	-3.268764E-3	1.169832E-2	-1.319155E-2	-8.586649E-3	-1.527541E-2	-1.108177E-2	1.734764E-4	-7.849790E-3	-1.062454E-3	2.261936E-3	-1.232454E-3	-9.473829E-3	-2.606894E-3	-6.053122E-3	-6.813940E-5	4.134574E-3	7.463767E-3	7.275634E-4	1.595501E-3	-2.551370E-3	1.372167E-2	1.604825E-2	-1.336016E-2	1.065767E-2	-5.627147E-3	-2.179842E-3	4.051717E-3	-2.394658E-3	-5.533503E-3	-1.299733E-2	1.293673E-4	-8.088950E-3	-7.214656E-4	5.668028E-3	-7.797643E-3	1.370250E-2	-2.038425E-3	1.365345E-2	-7.537706E-3	4.413145E-3	1.512961E-3	1.136961E-2	6.825835E-5	-3.339872E-3	-4.865189E-3	-1.344708E-3	-1.514447E-3	-9.366067E-3	-8.156227E-3	5.108239E-3	-9.596758E-3	-4.547522E-3	-5.929414E-4	-1.781903E-2	7.363687E-3	6.787877E-3	3.274402E-3	-3.154873E-3	5.468717E-3	4.906562E-3	6.357872E-3	-1.557058E-2	-2.534767E-3	-5.693379E-3	-8.587216E-3	-5.042862E-3	-7.076549E-3	4.446462E-4	-2.687092E-3	-2.214442E-3	3.972545E-3	-1.501471E-2	3.887856E-3	1.039939E-2	-1.771700E-2	2.523949E-3	5.766960E-3	2.318965E-3	-9.265901E-3	7.614760E-3	-1.962992E-3	1.169297E-2	-1.161376E-2	1.107051E-3	-1.773475E-2	4.603326E-4	2.088166E-3	-9.691106E-3	-1.418708E-2	-4.482586E-4	-1.429908E-2	-2.471261E-4	-4.526516E-3	3.371101E-3	-8.590695E-5	-6.354437E-3	6.339449E-3	-1.169690E-3	8.230600E-3	-2.254545E-3	6.104159E-3	-8.777905E-4	5.746521E-4	1.769510E-4	-7.787866E-3	2.583205E-3	-3.322949E-3	1.604045E-3	-1.573881E-3	2.727090E-4	-1.105894E-2	3.026996E-3	2.952022E-3	1.483007E-3	8.758947E-3	-5.439755E-3	1.364756E-4	-9.219085E-3	3.066551E-3	-5.978002E-4	5.277610E-3	1.006741E-2	7.693139E-3	-4.135096E-3	-2.263590E-2	-9.341351E-3	-2.292377E-3	1.492780E-3	2.529716E-3	3.138663E-3	-6.017480E-3	-1.196987E-2	-6.883075E-3	1.438469E-3	-9.595645E-3	-1.513915E-2	2.074245E-3	-7.924313E-3	3.040429E-2
2.810050E+2	1.154136E-2	-1.173331E-2	2.174271E-3	-3.765300E-3	-2.417144E-2	-1.023374E-2	1.027498E-2	6.938410E-3	3.688063E-3	1.296437E-2	7.337250E-3	-1.065969E-2	-9.496241E-3	1.729031E-3	6.816282E-3	1.521995E-3	7.971193E-3	2.980133E-3	1.245858E-3	1.304021E-3	1.626147E-2	-8.945235E-3	1.007525E-2	-1.511263E-3	8.765725E-4	-8.201196E-3	-1.069381E-2	-1.769338E-3	8.176764E-3	2.691267E-3	-7.512867E-3	-9.059519E-3	6.177273E-3	-7.779341E-4	4.459497E-3	2.702086E-3	-6.027732E-3	5.264573E-3	-1.390155E-3	-4.404604E-3	-1.502514E-2	-3.727183E-3	-9.576948E-4	1.633943E-3	3.944966E-3	3.825346E-3	6.640034E-3	-5.096878E-3	9.206459E-4	4.750604E-3	1.465028E-2	1.991120E-3	1.239959E-2	-5.241897E-3	-1.276278E-3	4.317996E-3	-5.653417E-4	-4.338090E-3	1.098962E-2	2.348604E-3	3.829962E-3	6.747181E-3	3.778145E-3	2.880610E-3	8.983398E-5	-6.283469E-3	-9.260234E-4	-1.857949E-3	-5.169865E-3	9.258153E-3	-7.887397E-3	5.308043E-3	-1.177087E-2	7.218739E-3	-1.896230E-3	6.815128E-3	-2.586633E-3	1.321210E-3	8.137804E-3	1.258553E-3	5.291325E-3	1.065500E-2	-4.383387E-3	5.188610E-3	-3.225087E-3	2.466208E-3	-2.948839E-3	-1.133751E-2	-1.514234E-3	7.040400E-3	1.069664E-2	1.458121E-3	1.252198E-3	4.962209E-3	9.485830E-3	1.920783E-3	-1.170519E-2	-2.673191E-3	6.182845E-4	-7.103840E-3	1.167821E-2	-1.098584E-2	1.143017E-2	-1.083964E-2	-4.382806E-3	3.961285E-3	1.064467E-2	7.849492E-3	1.087444E-3	2.710161E-3	-5.250087E-3	-8.725541E-3	6.889530E-3	4.669258E-3	-6.909761E-3	-1.133775E-3	8.129980E-3	3.543951E-3	5.830746E-3	1.985910E-3	-8.915180E-3	4.092472E-3	-1.269230E-2	-1.132385E-2	-7.790467E-3	1.447839E-3	-4.911437E-3	-3.572025E-3	8.188744E-3	-5.918192E-4	-4.968678E-3	-1.182887E-2	-2.051238E-3	-1.091595E-2	4.147343E-3	2.041926E-3	-2.943718E-3	9.303785E-4	7.346447E-3	-2.313624E-3	-2.084469E-3	3.751915E-3	1.121987E-2	5.116567E-3	-1.082592E-3	6.137173E-3	4.513448E-4	6.404022E-3	2.025505E-3	8.394475E-3	9.552445E-3	1.651550E-3	1.061901E-2	-2.950762E-3	-1.717003E-2	6.834187E-3	-8.969693E-3	-8.004734E-4	-1.381930E-2	4.625656E-3	-8.398314E-3	-1.158512E-2	-4.461729E-3	2.354589E-3	-2.507603E-3	1.252254E-3	7.103890E-3	7.115616E-3	-3.070120E-2	-8.799460E-3
2.815020E+2	-1.134014E-2	1.314686E-2	-4.124618E-3	5.314148E-4	1.941299E-3	1.432944E-2	3.345019E-4	8.073172E-3	-6.627904E-3	-1.557616E-3	8.289538E-3	8.942895E-3	4.775095E-3	1.457791E-3	-2.565187E-3	-1.007986E-3	-2.792192E-3	-2.120205E-4	1.268949E-2	-1.242655E-2	6.721026E-3	1.106609E-2	-4.345256E-3	7.488785E-3	-1.573186E-2	-5.726633E-3	-1.445108E-2	5.873613E-3	-6.510020E-3	1.460885E-2	-4.415052E-3	9.721658E-3	-1.832773E-2	-1.036979E-3	1.058578E-2	-2.892212E-4	2.280673E-3	5.005346E-3	-6.809290E-3	8.083813E-5	-8.506161E-3	6.633283E-3	9.519798E-3	8.085921E-3	4.878773E-3	-1.123638E-2	4.044346E-3	2.273054E-3	5.102667E-3	-8.813866E-3	-1.534241E-2	1.710399E-3	-8.196432E-4	-1.073556E-2	2.164395E-3	-8.007991E-3	-1.110303E-2	5.384616E-3	-1.295868E-2	1.100753E-2	2.127592E-3	2.579456E-3	1.175846E-3	4.889163E-3	1.007959E-2	3.482864E-4	-2.511057E-3	-2.052216E-3	4.762058E-3	-1.347545E-2	-1.489599E-2	-4.462349E-3	1.133911E-2	2.780196E-3	-2.077261E-3	7.880109E-3	-2.756730E-3	-4.144540E-3	3.288067E-3	-1.271182E-3	9.787711E-3	-5.341620E-3	-4.567566E-3	2.190500E-3	9.552318E-3	-9.183656E-3	5.670538E-3	2.110575E-3	5.536179E-3	2.728168E-3	-3.462526E-3	-1.165013E-2	7.951994E-3	-1.108489E-2	-8.455450E-3	-6.322957E-3	2.142432E-3	1.154080E-4	-8.880263E-3	6.164077E-3	-1.375191E-2	9.004746E-3	-1.112305E-2	-2.026401E-3	5.871375E-3	3.711095E-3	-1.589967E-2	1.326263E-2	9.624369E-3	-1.467466E-3	4.702525E-4	-5.027415E-3	1.525928E-3	-1.604080E-2	-3.013934E-4	9.926429E-3	-9.935426E-3	-5.452873E-3	-2.966948E-4	-6.657261E-4	-7.663775E-3	-5.918641E-3	-7.826767E-3	2.146778E-3	-1.456501E-3	2.563786E-3	1.109646E-3	-5.016785E-3	1.859621E-3	8.145941E-3	2.026463E-3	3.792011E-3	-9.341781E-3	1.088444E-2	1.582428E-4	4.202790E-3	8.867138E-3	-3.331856E-3	-3.861593E-3	1.464916E-4	-2.314970E-3	4.704922E-3	-7.527499E-3	-9.865104E-3	-4.416680E-3	-4.034001E-3	2.144809E-4	-4.914895E-3	1.794773E-3	-5.847917E-3	-6.075420E-4	-3.908633E-3	7.457922E-3	9.287812E-4	6.464079E-3	-1.167307E-3	1.387150E-2	2.709995E-3	-5.619795E-3	-6.143382E-3	1.524164E-2	2.542868E-3	1.277600E-2	-5.112834E-3	1.400374E-2	-6.949975E-3	-6.686300E-3	8.257451E-3	7.762537E-3	-1.686648E-2
2.820060E+2	1.829268E-2	1.670887E-2	5.197993E-3	8.394261E-3	8.497742E-3	5.390081E-3	6.170409E-3	1.236098E-3	-6.009168E-4	3.485757E-3	7.399870E-3	-7.973725E-3	7.841144E-3	-1.166002E-3	1.605241E-2	7.315808E-3	5.569516E-4	1.025276E-2	-2.017964E-5	2.708952E-2	-6.095348E-3	-1.255533E-3	-6.262691E-3	5.496529E-3	3.890084E-3	1.217716E-2	1.450682E-2	1.807530E-2	-9.968651E-4	-1.439476E-2	-6.343914E-3	8.873692E-3	9.089728E-3	6.102002E-4	1.931404E-3	2.197791E-2	6.298554E-3	-5.619918E-3	1.036309E-2	6.296537E-3	6.556007E-3	4.277691E-3	2.679821E-3	-1.047641E-3	-3.379997E-3	1.450274E-4	-8.393010E-3	2.496336E-3	-7.146312E-4	6.210884E-3	-9.459760E-3	-2.507147E-3	-5.287185E-4	4.196728E-3	-6.046104E-3	-1.635854E-3	6.747545E-3	-1.490255E-3	4.436091E-3	3.648992E-3	1.634268E-2	-2.271499E-3	-2.034320E-3	6.327283E-3	-1.296690E-2	-3.416098E-3	-1.031826E-2	2.577326E-3	-2.477432E-3	1.415903E-2	8.224679E-3	-1.010968E-2	1.625902E-2	1.985956E-2	1.618890E-2	5.865021E-4	8.989328E-3	2.005011E-2	1.879833E-2	9.490557E-3	1.174387E-2	-6.432034E-3	-4.191040E-3	-2.040211E-4	1.582618E-2	1.406791E-2	2.706169E-3	1.966856E-2	-7.317065E-3	-6.377775E-3	-2.751596E-4	-3.546292E-3	-6.824148E-5	3.834196E-3	8.225891E-3	7.800102E-3	4.282069E-3	2.894606E-2	2.106060E-2	3.548209E-3	-1.229363E-4	1.068510E-2	1.944841E-2	3.482464E-3	1.744823E-4	-2.707572E-3	5.465864E-3	-1.072920E-2	-1.211327E-2	1.200169E-2	6.800453E-3	1.790589E-3	1.033326E-2	6.225663E-3	8.204833E-3	-9.598738E-3	2.246002E-3	6.146640E-3	2.133271E-2	4.508384E-3	-8.878984E-3	-6.999467E-3	1.148659E-2	5.235338E-3	-7.755747E-3	4.218362E-3	1.648063E-2	2.694057E-3	3.677961E-3	9.689054E-4	-3.459891E-3	2.707387E-3	1.221043E-2	7.355769E-3	1.299099E-2	-2.702117E-3	-1.047412E-2	9.954117E-4	3.297830E-3	1.784926E-3	-4.886425E-3	1.413383E-3	3.328381E-3	3.967311E-3	1.273141E-2	1.046662E-2	5.037036E-4	-6.080018E-3	3.507188E-3	-8.096901E-3	-8.986004E-3	2.264673E-3	-4.406542E-3	-5.603317E-3	1.481279E-2	1.494242E-2	-3.020440E-3	-5.734432E-3	9.018173E-3	2.625669E-3	1.115518E-2	1.871940E-2	8.790844E-3	1.271141E-2	6.035702E-3	9.369939E-3	4.035421E-4	-6.657342E-3	8.173133E-3	-7.754301E-4
2.825040E+2	7.076510E-3	-5.236315E-3	-6.587620E-3	9.611598E-4	1.026383E-2	7.170574E-3	6.373031E-3	-8.660063E-3	1.116927E-2	-2.695966E-3	1.715796E-4	-2.498527E-3	-1.254964E-3	1.364724E-2	-7.834296E-3	-5.097834E-4	6.772576E-3	7.580363E-3	-1.153045E-3	2.880646E-3	-3.273964E-3	2.790802E-3	-6.014731E-4	1.034058E-2	8.607164E-3	4.244281E-3	2.436943E-2	2.404511E-3	-8.134496E-4	1.889477E-2	1.946830E-2	6.688201E-3	9.328947E-3	2.271528E-2	-4.612081E-4	-1.234396E-3	6.538067E-3	9.233895E-3	2.103633E-3	4.112344E-3	1.083949E-2	5.799057E-3	1.248283E-2	-2.230825E-3	2.770193E-2	1.153056E-2	6.842006E-3	1.254891E-4	1.162856E-2	1.950393E-3	1.345235E-2	3.660733E-3	1.402310E-2	2.167936E-2	2.054973E-4	3.433026E-3	8.413301E-3	4.397896E-3	1.258573E-2	1.030344E-2	1.242450E-2	1.342486E-2	2.868868E-3	7.684047E-3	1.530574E-2	2.135663E-2	1.836264E-2	1.347241E-3	2.825075E-3	1.319769E-2	7.319319E-3	1.535100E-2	-1.000597E-2	1.920967E-3	1.513801E-2	1.105858E-2	7.754178E-3	5.720394E-3	9.736689E-3	2.738089E-3	-2.472933E-3	3.838189E-3	1.182502E-2	1.256400E-2	4.384149E-3	-7.514202E-3	-4.387248E-4	1.996396E-2	1.936451E-2	-1.164220E-2	1.302059E-3	8.369442E-3	2.894076E-3	7.707295E-3	2.142818E-4	1.727696E-2	1.951641E-2	-2.171265E-3	8.778663E-3	-7.580038E-4	-1.317564E-3	4.556019E-3	1.213607E-3	6.290774E-3	7.875340E-3	9.646168E-3	4.343511E-3	9.577996E-3	2.824519E-3	9.602550E-3	-1.360754E-3	1.246354E-2	5.462645E-3	1.970186E-2	1.539132E-3	7.719708E-3	2.439598E-3	5.090302E-3	1.447863E-2	1.445415E-2	1.929670E-2	4.455895E-3	-4.839366E-3	8.202461E-3	2.050488E-2	-3.720432E-3	1.547828E-2	-9.531246E-3	1.301896E-2	1.152195E-3	1.562952E-2	7.593611E-6	-1.835205E-3	-1.575278E-3	1.199497E-2	5.978376E-3	3.356584E-3	2.421560E-2	-6.608456E-4	1.142007E-2	2.250236E-2	1.142023E-2	6.169350E-3	1.671144E-3	6.901353E-4	3.512949E-3	9.267875E-3	8.699372E-3	3.706394E-3	3.601603E-3	1.614822E-2	6.008437E-3	1.111469E-2	2.760716E-3	3.641575E-2	7.261605E-3	4.578640E-5	-1.762224E-3	1.524307E-2	8.916196E-3	-8.128601E-3	7.400830E-3	1.048649E-2	1.002867E-2	-4.966726E-3	1.631041E-2	2.622255E-2	-4.313653E-3	1.616841E-2	1.533043E-2
2.830040E+2	2.791133E-2	1.808413E-2	2.022893E-2	6.334234E-3	1.283201E-2	-9.293712E-3	7.275371E-3	3.674732E-3	2.830029E-2	3.522555E-2	2.739970E-2	3.668119E-3	1.040982E-2	1.612974E-2	1.388440E-2	2.643921E-3	7.677073E-3	1.233393E-3	1.562192E-2	-3.204411E-3	2.310524E-2	-4.018276E-3	5.756920E-3	6.152723E-4	-1.001453E-3	1.481652E-2	2.189802E-2	7.256752E-3	2.410948E-2	1.235115E-3	3.636234E-3	1.120748E-2	2.486198E-2	7.158284E-3	1.484132E-2	2.052395E-2	1.248928E-2	3.111442E-4	2.010384E-2	1.461296E-2	2.150803E-2	2.158116E-2	2.078941E-2	2.688932E-3	3.402492E-2	2.512503E-2	1.127411E-2	1.789870E-2	2.044678E-2	4.052418E-2	2.472366E-2	-1.575606E-3	1.507345E-2	2.150976E-2	2.715957E-2	1.921478E-2	3.788977E-2	8.095626E-3	-1.183066E-3	1.128085E-2	1.492988E-2	1.584728E-2	1.340349E-2	1.569824E-2	-2.894097E-3	1.269342E-2	1.809079E-2	2.226167E-2	1.825329E-2	8.099681E-3	3.510261E-2	9.102789E-3	5.619796E-3	9.872445E-3	1.743433E-2	1.195479E-2	1.885019E-2	2.551421E-2	1.433000E-2	1.067947E-2	1.637751E-2	3.384857E-3	2.622958E-2	5.117889E-3	8.272081E-3	2.215628E-3	1.274469E-2	4.818797E-3	1.612566E-2	2.085204E-2	2.500184E-2	8.032990E-3	2.647446E-2	2.603090E-2	9.399716E-3	7.874181E-4	3.909523E-3	8.761195E-3	8.192813E-3	1.389052E-2	1.741026E-2	1.579892E-2	1.147920E-2	2.835001E-2	8.705851E-3	2.018812E-2	1.867771E-2	7.609901E-3	2.774755E-2	1.215592E-3	2.141535E-2	5.487646E-3	1.503525E-2	4.487717E-3	3.299897E-2	1.017173E-2	-2.763712E-3	9.796174E-3	1.187772E-2	1.922179E-2	-8.064785E-3	1.108597E-2	-2.808936E-3	6.346673E-3	1.323816E-2	1.482118E-2	1.525304E-2	2.644871E-2	-1.565442E-3	1.582475E-2	2.108010E-2	9.743716E-3	2.496776E-2	1.642603E-2	6.679274E-3	1.551342E-2	-5.046471E-3	1.021294E-2	2.898017E-3	9.599896E-3	1.635771E-2	1.493318E-2	2.999319E-2	3.687620E-3	-3.078920E-3	1.154218E-2	-3.802344E-5	-2.203933E-3	4.584570E-3	7.126197E-3	2.738376E-2	1.652280E-2	3.242031E-2	1.606118E-2	2.021808E-2	1.087976E-2	6.740531E-3	1.062767E-2	8.898818E-3	1.113019E-2	9.332365E-3	5.395932E-3	1.003631E-2	2.166537E-3	1.720369E-2	2.149889E-2	-3.761146E-3	4.087351E-2	2.132723E-2	8.378886E-3
2.835020E+2	4.332031E-2	3.627784E-2	-9.078385E-3	4.553734E-2	3.379986E-2	2.929059E-2	2.739997E-2	2.286382E-2	2.504447E-2	2.583979E-2	2.921066E-2	2.850366E-2	2.031272E-2	2.730741E-2	3.341530E-2	1.594777E-2	2.798041E-2	1.810126E-2	4.452145E-2	3.047366E-2	2.699096E-2	2.674803E-2	4.137795E-2	4.169286E-2	1.496024E-2	2.924401E-2	3.737315E-2	1.962237E-2	4.120350E-2	2.439967E-2	3.633577E-2	3.758332E-2	2.378557E-2	2.165652E-2	9.739622E-3	1.786774E-2	3.642577E-2	1.314083E-2	3.049073E-2	2.970653E-2	3.577761E-2	1.906280E-2	2.245519E-2	2.376996E-2	2.454957E-2	3.333832E-2	2.482843E-2	2.090132E-2	8.069727E-3	1.024345E-2	1.479680E-2	2.458551E-2	7.174850E-3	3.986386E-2	3.018870E-2	4.404337E-3	2.763259E-2	3.027835E-2	3.591010E-2	2.219695E-2	1.949189E-2	2.429567E-2	3.706828E-2	1.130854E-2	1.534693E-2	3.543866E-2	4.517031E-2	1.807072E-2	3.732811E-2	3.306667E-2	2.887379E-2	2.055088E-2	1.614705E-2	2.296999E-2	2.295972E-2	1.332414E-2	3.681039E-2	2.044273E-2	2.560819E-2	1.696340E-2	3.126326E-2	3.184749E-2	2.248612E-2	2.977235E-2	3.842660E-2	2.204514E-2	2.110876E-2	1.222307E-2	3.771642E-2	6.076830E-2	4.138854E-2	2.978602E-2	2.826423E-2	2.642310E-2	3.652402E-2	1.407596E-2	2.566384E-2	4.264204E-3	4.055584E-2	1.852153E-2	2.605292E-2	3.461664E-2	3.226867E-2	2.215671E-2	5.232873E-2	2.883631E-2	5.064515E-2	1.199179E-2	9.621198E-3	1.346898E-2	2.444945E-2	3.816576E-2	-4.478111E-3	3.352757E-2	2.488329E-2	4.292407E-3	3.416162E-2	3.351689E-2	2.445588E-2	2.217516E-2	4.055689E-2	1.257418E-2	1.688157E-2	1.632115E-2	5.085890E-2	3.315448E-2	2.204704E-2	3.343357E-2	6.465080E-2	2.372998E-2	2.121133E-2	1.581828E-2	3.262227E-2	2.478198E-2	3.942226E-2	9.502851E-3	2.374798E-3	3.979449E-2	3.572654E-2	2.921150E-2	1.791002E-2	2.802198E-2	5.811182E-2	1.649032E-2	1.417138E-2	1.288796E-2	1.596973E-2	3.242029E-2	3.044490E-2	1.929676E-2	2.667383E-2	1.574414E-2	1.054343E-2	2.625587E-2	2.610530E-2	2.335020E-2	4.571247E-2	3.071293E-2	2.146680E-2	2.655479E-2	3.418494E-2	3.389811E-2	3.298380E-2	2.945186E-2	3.205065E-2	2.329362E-2	4.538066E-2	1.794464E-2	3.122934E-3	-2.312996E-2
2.840050E+2	3.106552E-2	2.948154E-2	2.519076E-2	3.745825E-2	6.495298E-2	3.576743E-2	1.553917E-2	5.606614E-2	4.082532E-2	3.557240E-2	3.712534E-2	3.831170E-2	2.638396E-2	1.616123E-2	5.438185E-2	5.490046E-2	2.346297E-2	4.873444E-2	4.477446E-2	3.760946E-2	4.809687E-2	3.501731E-2	2.897717E-2	4.322226E-2	3.670717E-2	2.206585E-2	3.507810E-2	4.466070E-2	3.715507E-2	5.599534E-2	3.556572E-2	4.293111E-2	3.417645E-2	3.630264E-2	4.238093E-2	6.581394E-2	5.012939E-2	1.453527E-2	4.194039E-2	2.606377E-2	4.587459E-2	4.016087E-2	5.550277E-2	5.243173E-2	4.513789E-2	6.032884E-3	3.843379E-2	2.075381E-2	2.873242E-2	4.496261E-2	6.122435E-2	3.075873E-2	3.442006E-2	3.746793E-2	6.666698E-2	4.700043E-2	4.528005E-2	5.294277E-2	5.992391E-2	3.717928E-2	3.318888E-2	3.006555E-2	2.137897E-2	4.526690E-2	3.231795E-2	6.028786E-2	5.846970E-2	4.778645E-2	4.885865E-2	6.131548E-2	3.528377E-2	5.390510E-2	4.225329E-2	3.471497E-2	4.190162E-2	4.305018E-2	5.139741E-2	4.145298E-2	5.546630E-2	4.655472E-2	5.087505E-2	2.284921E-2	3.778713E-2	4.181276E-2	4.452105E-2	6.000239E-2	3.888539E-2	4.269126E-2	3.000563E-2	3.703423E-2	3.709771E-2	3.834012E-2	4.600992E-2	3.423922E-2	3.667821E-2	3.365498E-2	4.302088E-2	5.364640E-2	4.069053E-2	6.928955E-2	2.320747E-2	3.754934E-2	4.223840E-2	3.727667E-2	6.207297E-2	4.314108E-2	3.700234E-2	2.074557E-2	4.989585E-2	3.421565E-2	2.585894E-2	4.530932E-2	4.131872E-2	3.049768E-2	3.779691E-2	2.805854E-2	4.678839E-2	4.169447E-2	3.712599E-2	5.184465E-2	5.472175E-2	1.521572E-2	4.508184E-2	4.089779E-2	2.638922E-2	2.740412E-2	5.132861E-2	3.493628E-2	5.368337E-2	4.590658E-2	6.098323E-2	4.017912E-2	3.858317E-2	3.440302E-2	1.851832E-2	3.628936E-2	4.677452E-2	4.709497E-2	4.159327E-2	3.485832E-2	4.943814E-2	3.726970E-2	4.301797E-2	3.865052E-2	3.493730E-2	4.268910E-2	4.893559E-2	3.394503E-2	3.778672E-2	3.284150E-2	3.469068E-2	4.190679E-2	3.766839E-2	4.354714E-2	2.469469E-2	3.868328E-2	5.357173E-2	3.226054E-2	3.287998E-2	5.502532E-2	4.207368E-2	4.308788E-2	3.923005E-2	1.859322E-2	4.102090E-2	3.463379E-2	4.531482E-2	3.766756E-2	4.525923E-2	2.826598E-3
2.841030E+2	5.425140E-2	3.515170E-2	4.660760E-2	3.156355E-2	6.413526E-2	4.811612E-2	5.745281E-2	4.611193E-2	5.030201E-2	4.639335E-2	7.213894E-2	4.606711E-2	4.704154E-2	5.276711E-2	4.659070E-2	3.729203E-2	7.278253E-2	4.639434E-2	4.407731E-2	4.696227E-2	4.485539E-2	4.256303E-2	4.599759E-2	5.879765E-2	6.293747E-2	2.115688E-2	5.368789E-2	4.676850E-2	7.287856E-2	6.863831E-2	5.528525E-2	5.641050E-2	5.297252E-2	4.430263E-2	7.487528E-2	4.602940E-2	4.611158E-2	5.190104E-2	5.393327E-2	5.570944E-2	5.486208E-2	9.080383E-2	5.500199E-2	8.218927E-2	5.175910E-2	4.650606E-2	8.372690E-2	4.862926E-2	6.445472E-2	5.043498E-2	5.751910E-2	5.378618E-2	4.271441E-2	5.244079E-2	8.060303E-2	3.861357E-2	6.486614E-2	5.219328E-2	5.513806E-2	4.473020E-2	4.364236E-2	5.455140E-2	5.215519E-2	4.969488E-2	5.545600E-2	3.780413E-2	7.093527E-2	5.007411E-2	5.154303E-2	5.205747E-2	4.456030E-2	3.926061E-2	5.169007E-2	4.745624E-2	6.039600E-2	5.612731E-2	5.447696E-2	5.233719E-2	5.636414E-2	4.614190E-2	4.852348E-2	2.077332E-2	4.128100E-2	5.903197E-2	5.023611E-2	6.378040E-2	3.837028E-2	2.752353E-2	4.949844E-2	4.937222E-2	9.490311E-2	4.602773E-2	6.775160E-2	6.409567E-2	5.057200E-2	5.042792E-2	3.645261E-2	6.089696E-2	8.143392E-2	3.478579E-2	4.568949E-2	3.022030E-2	5.993281E-2	5.741294E-2	6.208355E-2	5.409251E-2	5.748904E-2	7.966125E-2	5.989279E-2	6.028174E-2	4.313812E-2	5.723372E-2	4.935703E-2	4.692530E-2	7.066061E-2	6.375321E-2	6.554303E-2	6.400330E-2	5.684471E-2	4.097146E-2	4.289625E-2	3.831675E-2	6.621432E-2	3.424207E-2	6.570486E-2	3.952386E-2	4.002564E-2	4.884100E-2	5.768163E-2	4.180444E-2	4.006966E-2	7.189165E-2	5.292704E-2	4.481261E-2	6.324030E-2	4.861763E-2	3.616624E-2	3.192282E-2	5.848798E-2	4.556729E-2	4.100649E-2	5.628768E-2	9.771992E-2	6.448619E-2	5.035533E-2	7.235189E-2	7.258621E-2	6.577704E-2	6.658501E-2	7.456115E-2	6.202252E-2	5.897811E-2	6.125910E-2	6.766096E-2	5.233385E-2	4.219616E-2	4.819890E-2	4.643066E-2	5.404430E-2	4.159553E-2	4.758995E-2	6.388566E-2	3.995240E-2	5.040927E-2	7.167672E-2	6.828200E-2	5.518646E-2	4.768074E-2	8.325292E-2	7.132210E-2
2.842070E+2	7.020079E-2	7.258059E-2	8.216794E-2	8.375752E-2	7.441762E-2	7.680834E-2	7.555241E-2	7.711468E-2	7.565851E-2	7.729021E-2	7.911929E-2	7.768032E-2	6.368640E-2	9.713905E-2	7.519748E-2	8.804445E-2	6.450021E-2	6.536960E-2	9.066922E-2	7.196450E-2	7.985636E-2	8.946321E-2	1.004279E-1	6.783219E-2	8.587656E-2	8.699143E-2	8.489213E-2	5.271150E-2	9.267279E-2	1.166040E-1	4.965010E-2	8.237938E-2	7.670073E-2	9.326889E-2	8.355716E-2	5.958038E-2	5.246524E-2	4.031405E-2	5.311330E-2	7.124579E-2	6.900786E-2	9.262773E-2	5.531319E-2	7.385210E-2	4.974745E-2	9.501758E-2	8.164432E-2	7.907771E-2	6.761736E-2	6.030394E-2	9.436357E-2	9.423271E-2	4.807343E-2	7.561974E-2	7.046935E-2	6.500111E-2	9.232162E-2	8.168253E-2	6.962303E-2	9.620507E-2	7.889810E-2	6.740689E-2	5.877571E-2	6.842141E-2	9.485602E-2	6.446388E-2	9.021454E-2	9.728902E-2	7.242017E-2	9.089144E-2	8.790721E-2	8.096594E-2	8.388135E-2	5.974197E-2	1.005616E-1	6.608402E-2	4.937596E-2	7.971688E-2	7.923501E-2	6.391980E-2	5.643189E-2	5.508292E-2	9.679057E-2	5.634329E-2	7.557010E-2	6.824771E-2	6.132651E-2	6.596889E-2	7.754352E-2	8.758439E-2	7.272816E-2	8.691020E-2	9.401507E-2	1.004793E-1	8.469855E-2	6.816033E-2	1.082833E-1	8.145639E-2	7.324925E-2	6.901533E-2	8.227525E-2	8.115361E-2	6.879061E-2	8.282772E-2	8.298166E-2	8.523485E-2	8.912113E-2	8.782635E-2	7.661521E-2	8.691534E-2	8.083071E-2	8.998900E-2	8.397509E-2	8.909929E-2	6.666316E-2	4.586291E-2	7.889495E-2	9.188256E-2	8.142295E-2	6.999573E-2	8.090781E-2	1.097160E-1	8.977869E-2	5.815186E-2	7.809295E-2	8.659912E-2	8.618728E-2	8.781421E-2	7.413484E-2	8.148662E-2	6.684223E-2	8.947204E-2	1.083580E-1	8.177549E-2	1.133390E-1	7.758806E-2	5.887910E-2	9.603745E-2	8.247582E-2	9.358394E-2	6.800446E-2	8.819372E-2	9.104388E-2	7.149555E-2	7.603985E-2	8.192433E-2	7.448629E-2	8.019130E-2	8.285223E-2	8.324781E-2	7.577065E-2	7.699951E-2	8.291794E-2	6.804417E-2	8.837686E-2	8.069872E-2	1.041748E-1	9.281321E-2	1.071920E-1	8.749042E-2	5.910537E-2	8.747180E-2	9.528181E-2	6.637580E-2	5.857195E-2	6.294387E-2	9.577328E-2	5.502757E-2	1.044143E-1	7.173206E-2
2.843010E+2	1.238297E-1	1.230839E-1	1.304745E-1	1.026269E-1	9.532592E-2	9.625756E-2	1.201128E-1	1.185182E-1	1.139393E-1	1.194363E-1	8.820125E-2	9.884404E-2	1.234366E-1	1.126135E-1	1.013346E-1	1.182034E-1	1.046722E-1	8.663356E-2	1.403952E-1	1.215567E-1	1.176233E-1	1.061465E-1	1.079629E-1	1.269838E-1	8.690787E-2	1.177341E-1	1.043936E-1	1.036237E-1	1.236540E-1	1.142180E-1	1.184308E-1	1.344071E-1	1.161119E-1	1.048724E-1	1.255493E-1	1.246648E-1	1.183349E-1	1.158686E-1	1.162071E-1	1.238051E-1	1.078059E-1	9.661249E-2	1.214034E-1	1.116469E-1	1.139127E-1	1.249162E-1	1.270974E-1	8.004174E-2	9.707737E-2	9.485623E-2	1.002155E-1	7.234675E-2	1.146690E-1	1.204084E-1	1.501619E-1	9.647841E-2	1.086525E-1	9.806058E-2	1.396543E-1	1.115726E-1	8.001684E-2	1.334210E-1	1.250463E-1	1.093626E-1	1.260481E-1	1.233636E-1	8.093788E-2	1.230599E-1	1.244423E-1	1.196175E-1	1.193251E-1	1.295279E-1	1.033976E-1	1.045293E-1	1.186549E-1	1.088551E-1	1.214251E-1	1.184740E-1	1.007510E-1	1.105098E-1	9.720893E-2	1.060421E-1	1.167468E-1	7.658092E-2	8.080782E-2	1.334307E-1	1.192534E-1	1.121260E-1	1.058282E-1	1.198932E-1	9.800786E-2	1.235788E-1	1.204004E-1	1.517291E-1	1.260885E-1	1.271923E-1	1.112626E-1	9.953307E-2	1.404538E-1	1.304217E-1	1.011930E-1	9.752736E-2	9.411445E-2	1.051566E-1	8.532688E-2	1.336217E-1	1.307420E-1	7.309626E-2	1.049165E-1	1.445000E-1	1.186928E-1	1.240426E-1	1.021706E-1	8.694828E-2	1.136544E-1	8.824844E-2	1.063950E-1	1.110603E-1	1.085015E-1	1.014521E-1	1.103572E-1	1.112553E-1	1.312935E-1	1.052957E-1	1.000586E-1	1.161017E-1	1.258401E-1	1.351781E-1	1.074568E-1	9.594393E-2	9.914412E-2	1.128075E-1	1.094292E-1	9.012538E-2	8.361223E-2	1.078144E-1	1.239734E-1	9.876613E-2	1.089701E-1	9.472528E-2	9.646721E-2	8.584605E-2	1.226931E-1	1.252244E-1	1.104998E-1	1.486821E-1	1.266999E-1	1.129483E-1	1.206828E-1	1.083667E-1	1.067481E-1	1.320862E-1	1.040093E-1	1.138723E-1	1.055831E-1	1.120319E-1	1.078084E-1	1.116656E-1	1.298851E-1	1.221166E-1	1.040929E-1	1.242381E-1	1.045625E-1	1.150683E-1	1.212992E-1	1.418491E-1	1.265293E-1	1.143383E-1	1.549181E-1	5.679355E-2
2.844010E+2	1.574801E-1	1.560578E-1	1.565870E-1	1.819802E-1	1.851008E-1	1.492158E-1	1.775123E-1	1.498239E-1	1.635251E-1	2.010304E-1	1.584575E-1	1.539849E-1	1.555150E-1	1.767676E-1	1.452994E-1	1.207706E-1	1.735297E-1	1.232080E-1	1.661787E-1	1.541462E-1	1.679557E-1	1.874562E-1	1.799550E-1	1.561921E-1	1.574797E-1	1.415656E-1	1.739101E-1	1.426094E-1	1.459707E-1	1.762067E-1	1.525612E-1	1.579581E-1	1.519301E-1	2.010256E-1	1.594332E-1	1.547332E-1	1.663765E-1	1.511180E-1	1.567475E-1	1.664707E-1	1.655995E-1	1.491161E-1	1.777703E-1	1.545358E-1	1.499130E-1	1.699506E-1	1.676679E-1	2.238467E-1	1.616057E-1	1.794855E-1	1.541018E-1	1.718187E-1	1.610188E-1	1.939176E-1	1.766941E-1	1.458569E-1	1.547368E-1	1.871498E-1	1.825304E-1	1.735578E-1	1.852665E-1	1.675118E-1	1.317434E-1	1.895086E-1	1.730486E-1	2.074413E-1	1.800394E-1	1.982733E-1	1.376211E-1	1.485345E-1	1.581118E-1	1.798216E-1	1.874183E-1	1.672237E-1	2.111622E-1	1.805233E-1	1.946385E-1	1.756137E-1	1.786499E-1	1.628127E-1	1.754755E-1	1.692393E-1	1.991132E-1	1.486699E-1	1.743471E-1	1.840674E-1	1.474059E-1	1.650186E-1	1.825438E-1	1.768971E-1	1.707520E-1	1.752441E-1	1.483346E-1	1.559316E-1	1.516495E-1	1.753586E-1	1.617471E-1	1.825137E-1	1.854354E-1	1.420009E-1	1.673477E-1	1.686933E-1	2.168883E-1	1.733398E-1	1.421247E-1	1.989976E-1	1.525922E-1	1.610902E-1	1.487157E-1	1.619869E-1	1.778189E-1	1.870961E-1	1.632258E-1	2.000208E-1	1.946053E-1	1.943562E-1	1.684480E-1	1.581863E-1	1.813520E-1	1.719474E-1	1.613182E-1	1.837327E-1	1.619785E-1	1.550232E-1	1.616574E-1	2.052481E-1	1.974006E-1	1.787060E-1	1.460696E-1	1.707238E-1	1.753837E-1	1.541012E-1	1.462897E-1	1.803229E-1	1.466585E-1	2.046620E-1	1.889674E-1	1.461521E-1	1.512064E-1	1.419159E-1	1.614294E-1	1.785189E-1	1.838418E-1	1.266633E-1	1.712886E-1	1.768500E-1	1.860990E-1	1.480417E-1	1.456138E-1	2.036703E-1	2.022214E-1	2.144056E-1	1.438886E-1	1.784841E-1	1.784138E-1	1.972087E-1	2.117201E-1	1.660349E-1	1.746700E-1	2.006380E-1	1.246051E-1	1.387276E-1	1.527073E-1	1.630417E-1	1.403377E-1	1.537798E-1	1.433747E-1	1.813323E-1	1.250611E-1	1.178979E-1
2.845030E+2	2.097187E-1	2.397833E-1	2.325978E-1	2.208346E-1	1.705174E-1	1.926571E-1	2.433861E-1	2.180057E-1	2.260319E-1	1.809973E-1	1.795239E-1	2.347469E-1	1.909512E-1	2.516132E-1	2.165002E-1	2.183166E-1	2.139301E-1	1.941286E-1	2.142435E-1	1.830563E-1	1.768844E-1	2.292080E-1	2.108731E-1	1.963721E-1	2.382183E-1	2.287931E-1	2.154952E-1	2.069825E-1	2.236104E-1	2.149084E-1	2.314733E-1	2.294780E-1	1.805359E-1	2.277331E-1	2.507711E-1	2.232713E-1	2.103554E-1	2.276789E-1	2.329447E-1	2.268634E-1	2.030887E-1	2.142920E-1	1.864542E-1	1.878604E-1	1.843143E-1	2.090543E-1	2.078501E-1	2.443805E-1	2.357030E-1	2.095605E-1	1.951618E-1	2.019408E-1	1.838414E-1	2.594168E-1	2.190361E-1	2.080959E-1	1.815150E-1	2.239889E-1	2.425384E-1	2.151920E-1	2.388301E-1	2.350651E-1	2.060055E-1	2.054620E-1	1.996221E-1	2.081897E-1	2.373451E-1	2.114800E-1	1.750911E-1	2.018409E-1	1.815291E-1	2.059066E-1	2.459054E-1	2.308465E-1	1.966000E-1	1.912605E-1	2.148529E-1	2.115116E-1	2.115133E-1	2.031674E-1	2.201651E-1	2.317357E-1	2.318437E-1	2.091549E-1	2.129399E-1	2.186354E-1	2.079802E-1	1.847185E-1	2.140144E-1	2.225475E-1	2.196169E-1	1.774557E-1	2.393090E-1	2.230559E-1	2.349493E-1	2.307155E-1	2.173746E-1	2.240955E-1	2.102260E-1	2.301714E-1	2.330235E-1	2.281978E-1	2.511373E-1	1.883504E-1	2.196724E-1	1.909184E-1	2.201532E-1	2.263958E-1	2.042325E-1	2.528576E-1	2.286759E-1	1.592229E-1	2.079016E-1	1.992465E-1	2.029448E-1	2.343173E-1	2.180890E-1	1.867009E-1	2.134899E-1	2.154242E-1	2.006887E-1	2.015546E-1	2.115780E-1	1.647971E-1	2.333958E-1	2.016481E-1	1.941544E-1	2.053864E-1	2.326834E-1	2.297613E-1	2.350701E-1	2.375532E-1	2.293099E-1	2.170123E-1	1.968465E-1	2.149011E-1	2.223679E-1	2.284617E-1	2.214171E-1	2.076206E-1	2.432213E-1	1.645278E-1	2.561180E-1	2.265928E-1	2.439173E-1	2.418764E-1	1.978571E-1	2.190197E-1	1.932380E-1	2.397167E-1	1.963089E-1	1.883158E-1	2.110341E-1	2.319393E-1	2.098981E-1	1.995210E-1	2.126793E-1	2.476403E-1	2.097571E-1	2.082168E-1	1.921047E-1	2.413574E-1	2.321807E-1	2.310373E-1	1.957602E-1	2.017337E-1	2.076652E-1	1.869340E-1	2.232753E-1	2.495303E-1
2.846010E+2	3.302082E-1	3.521500E-1	3.374971E-1	3.417835E-1	3.557199E-1	2.858226E-1	3.667919E-1	3.868387E-1	3.211505E-1	3.073131E-1	3.472482E-1	2.797310E-1	3.022512E-1	3.158228E-1	3.335285E-1	3.366680E-1	3.304785E-1	3.007035E-1	3.266211E-1	3.109946E-1	4.120673E-1	3.566518E-1	3.484288E-1	3.814221E-1	3.356020E-1	3.593814E-1	3.323026E-1	3.511979E-1	3.403809E-1	3.485952E-1	3.379612E-1	3.978507E-1	3.304390E-1	3.537386E-1	3.350560E-1	3.673718E-1	3.652100E-1	3.067964E-1	3.119581E-1	3.605974E-1	3.424825E-1	3.349577E-1	3.361344E-1	3.744890E-1	3.312414E-1	3.443312E-1	3.272357E-1	3.078627E-1	3.181804E-1	3.639480E-1	3.435486E-1	3.867735E-1	3.177327E-1	3.742586E-1	3.504821E-1	3.416697E-1	3.389228E-1	3.295597E-1	3.438634E-1	3.634153E-1	3.678885E-1	3.615013E-1	3.058183E-1	3.626894E-1	2.950906E-1	3.997611E-1	3.074778E-1	3.372569E-1	3.416231E-1	3.370619E-1	3.426741E-1	3.551159E-1	3.274100E-1	3.043737E-1	3.646663E-1	3.155787E-1	3.134699E-1	3.118908E-1	3.495187E-1	3.162647E-1	3.459827E-1	3.333108E-1	3.115054E-1	3.411777E-1	3.192874E-1	3.376024E-1	3.609109E-1	3.281557E-1	2.979664E-1	3.121009E-1	3.191272E-1	3.296169E-1	3.262887E-1	3.321293E-1	3.145728E-1	3.614683E-1	3.801940E-1	3.435523E-1	3.257008E-1	3.741289E-1	3.330311E-1	3.606104E-1	3.283123E-1	3.412751E-1	3.974749E-1	3.114820E-1	3.633941E-1	3.303993E-1	3.018626E-1	3.451135E-1	3.256409E-1	3.538666E-1	3.526519E-1	3.254997E-1	3.141767E-1	3.013512E-1	3.535088E-1	3.373786E-1	3.463075E-1	3.822982E-1	3.307271E-1	3.300923E-1	3.124881E-1	3.128480E-1	3.058203E-1	3.240305E-1	3.076836E-1	3.632061E-1	3.668235E-1	3.362497E-1	3.338164E-1	3.073513E-1	3.263574E-1	3.294971E-1	3.183883E-1	3.126954E-1	3.793187E-1	3.252191E-1	3.381836E-1	3.486767E-1	3.657582E-1	3.637873E-1	3.723205E-1	3.693056E-1	3.474466E-1	3.630175E-1	3.438016E-1	3.665099E-1	3.078439E-1	3.374685E-1	3.616543E-1	3.299342E-1	3.202201E-1	3.300087E-1	3.567924E-1	3.904237E-1	3.454158E-1	3.306225E-1	3.480409E-1	3.859390E-1	3.251197E-1	3.806761E-1	3.889412E-1	2.801371E-1	3.156080E-1	3.052140E-1	3.436885E-1	3.527727E-1	2.681218E-1	3.330772E-1
2.847020E+2	7.798815E-1	7.628842E-1	8.213810E-1	7.872696E-1	8.408693E-1	8.378298E-1	8.111791E-1	8.143400E-1	7.622799E-1	8.139913E-1	8.020369E-1	7.924867E-1	7.995291E-1	8.854449E-1	8.457420E-1	7.779373E-1	7.442258E-1	7.199751E-1	7.852062E-1	7.340777E-1	8.362635E-1	8.819821E-1	8.135823E-1	8.222674E-1	8.462686E-1	8.853460E-1	8.545282E-1	7.515943E-1	7.831061E-1	7.617128E-1	8.848933E-1	7.780766E-1	7.434179E-1	7.740289E-1	8.059970E-1	8.160557E-1	8.126815E-1	7.812127E-1	8.030066E-1	7.969435E-1	8.201480E-1	7.680093E-1	8.144427E-1	8.592271E-1	7.985340E-1	8.535645E-1	8.663120E-1	8.345735E-1	7.522626E-1	8.291259E-1	8.451434E-1	8.699937E-1	8.363374E-1	8.538530E-1	8.035094E-1	8.203548E-1	8.437764E-1	8.619268E-1	8.038607E-1	8.064736E-1	8.330237E-1	7.975616E-1	7.963870E-1	7.726615E-1	8.521351E-1	8.365975E-1	8.460419E-1	8.576893E-1	8.245569E-1	7.454748E-1	8.566097E-1	8.337839E-1	8.514108E-1	8.596339E-1	8.034035E-1	7.818133E-1	8.211304E-1	7.589250E-1	7.464924E-1	8.010983E-1	8.174018E-1	8.436959E-1	8.032715E-1	8.344464E-1	8.144375E-1	8.003421E-1	7.899918E-1	7.331821E-1	7.837463E-1	8.075637E-1	8.990481E-1	8.201648E-1	6.999076E-1	8.688219E-1	8.174233E-1	7.509468E-1	8.195687E-1	8.885057E-1	8.189040E-1	7.793331E-1	7.672453E-1	8.331276E-1	9.059246E-1	8.145275E-1	8.177600E-1	8.119323E-1	7.911319E-1	7.674909E-1	7.989441E-1	8.679147E-1	8.558014E-1	8.299931E-1	8.021137E-1	9.197560E-1	7.661231E-1	7.971425E-1	8.592632E-1	8.507346E-1	8.058714E-1	7.475804E-1	8.485206E-1	7.981020E-1	8.355999E-1	8.291526E-1	8.166773E-1	8.617249E-1	8.289512E-1	7.994632E-1	7.553192E-1	8.104866E-1	8.238475E-1	8.227188E-1	8.342837E-1	8.200910E-1	7.493081E-1	7.873989E-1	7.413866E-1	8.161426E-1	8.123421E-1	6.846611E-1	7.932999E-1	8.438006E-1	8.735438E-1	8.296853E-1	8.121719E-1	7.821899E-1	8.164011E-1	7.840863E-1	8.358654E-1	8.217543E-1	8.190686E-1	7.871290E-1	8.405998E-1	8.127122E-1	8.058570E-1	7.755460E-1	8.186017E-1	8.444755E-1	8.514006E-1	8.289610E-1	7.717739E-1	8.001082E-1	7.476219E-1	7.525100E-1	8.360689E-1	8.202751E-1	8.599425E-1	8.713123E-1	7.299906E-1	8.025906E-1
2.848000E+2	1.766417E+0	1.720271E+0	1.695332E+0	1.596805E+0	1.685803E+0	1.651317E+0	1.680308E+0	1.745030E+0	1.735072E+0	1.602413E+0	1.673713E+0	1.709979E+0	1.558843E+0	1.700176E+0	1.707708E+0	1.640967E+0	1.552262E+0	1.680864E+0	1.622003E+0	1.700730E+0	1.596076E+0	1.635567E+0	1.571873E+0	1.658657E+0	1.603678E+0	1.678361E+0	1.615158E+0	1.605361E+0	1.617520E+0	1.645539E+0	1.732572E+0	1.611381E+0	1.607285E+0	1.722393E+0	1.663531E+0	1.693702E+0	1.544727E+0	1.626649E+0	1.593075E+0	1.622289E+0	1.656406E+0	1.641980E+0	1.579372E+0	1.622552E+0	1.616944E+0	1.730417E+0	1.644162E+0	1.552364E+0	1.548364E+0	1.529507E+0	1.592243E+0	1.575421E+0	1.613354E+0	1.730737E+0	1.631002E+0	1.615193E+0	1.628328E+0	1.589688E+0	1.684624E+0	1.718347E+0	1.609181E+0	1.622725E+0	1.682251E+0	1.691163E+0	1.669007E+0	1.678375E+0	1.695755E+0	1.661623E+0	1.726251E+0	1.709748E+0	1.616570E+0	1.613421E+0	1.499653E+0	1.612997E+0	1.731147E+0	1.595560E+0	1.617606E+0	1.635075E+0	1.603578E+0	1.519575E+0	1.717166E+0	1.599423E+0	1.584092E+0	1.644355E+0	1.641646E+0	1.485717E+0	1.596688E+0	1.536643E+0	1.644345E+0	1.614632E+0	1.662905E+0	1.561176E+0	1.706604E+0	1.641841E+0	1.527570E+0	1.563212E+0	1.558418E+0	1.599298E+0	1.772513E+0	1.710934E+0	1.618931E+0	1.627028E+0	1.657745E+0	1.621748E+0	1.630390E+0	1.610473E+0	1.684135E+0	1.637043E+0	1.645842E+0	1.653016E+0	1.547828E+0	1.620111E+0	1.669090E+0	1.620249E+0	1.566013E+0	1.576091E+0	1.649973E+0	1.616601E+0	1.624366E+0	1.599988E+0	1.595986E+0	1.710187E+0	1.562675E+0	1.583105E+0	1.577741E+0	1.625509E+0	1.684674E+0	1.503705E+0	1.573348E+0	1.708453E+0	1.628296E+0	1.553809E+0	1.654450E+0	1.636134E+0	1.594472E+0	1.594014E+0	1.630880E+0	1.630767E+0	1.608526E+0	1.538401E+0	1.617370E+0	1.618422E+0	1.701802E+0	1.548706E+0	1.632826E+0	1.611864E+0	1.645676E+0	1.619929E+0	1.519777E+0	1.571096E+0	1.620820E+0	1.562772E+0	1.644749E+0	1.630782E+0	1.585083E+0	1.694273E+0	1.613007E+0	1.697713E+0	1.629666E+0	1.591789E+0	1.598870E+0	1.715508E+0	1.673899E+0	1.790258E+0	1.533396E+0	1.669573E+0	1.623227E+0	1.580159E+0	1.579381E+0	1.569051E+0
2.849020E+2	2.049961E+0	2.033046E+0	2.077982E+0	2.027836E+0	2.117271E+0	1.960466E+0	1.953765E+0	1.982051E+0	1.989002E+0	1.912037E+0	2.016189E+0	2.014672E+0	2.026703E+0	1.979783E+0	1.964711E+0	2.074363E+0	2.019367E+0	2.013893E+0	1.934122E+0	2.029832E+0	1.883550E+0	1.938099E+0	2.075801E+0	1.910614E+0	2.061345E+0	1.978042E+0	1.950095E+0	1.880737E+0	1.900511E+0	1.900201E+0	2.011840E+0	1.987550E+0	1.891675E+0	1.870034E+0	2.121868E+0	1.895099E+0	1.945888E+0	2.016347E+0	1.905558E+0	1.889588E+0	2.013965E+0	1.983336E+0	1.960291E+0	1.914476E+0	1.989893E+0	1.982530E+0	2.008922E+0	1.928027E+0	2.022520E+0	1.987657E+0	2.013860E+0	2.082584E+0	1.909414E+0	2.034484E+0	2.047343E+0	1.957414E+0	1.951656E+0	2.007014E+0	1.905586E+0	2.018064E+0	1.975711E+0	2.049822E+0	1.970563E+0	1.976669E+0	1.920858E+0	1.902163E+0	2.144918E+0	1.908234E+0	1.975172E+0	2.008550E+0	1.916506E+0	2.021104E+0	1.954926E+0	1.989113E+0	1.912593E+0	1.994091E+0	1.913756E+0	2.044236E+0	2.033050E+0	1.962565E+0	2.084074E+0	2.041512E+0	2.037278E+0	1.962318E+0	1.981571E+0	2.023531E+0	1.971976E+0	1.909079E+0	1.895906E+0	1.947474E+0	2.086299E+0	1.987163E+0	1.988545E+0	1.967747E+0	1.994113E+0	1.905764E+0	1.999897E+0	2.058252E+0	1.967110E+0	1.974085E+0	1.921768E+0	1.952117E+0	2.036588E+0	1.996661E+0	1.942700E+0	1.991755E+0	1.922635E+0	1.961899E+0	1.936346E+0	1.988456E+0	2.003391E+0	2.076837E+0	2.045056E+0	2.007761E+0	2.054313E+0	1.960316E+0	1.984280E+0	1.933360E+0	1.990085E+0	1.966542E+0	2.078575E+0	1.909828E+0	1.986899E+0	2.018311E+0	1.901999E+0	2.040105E+0	2.006534E+0	2.065689E+0	1.870716E+0	2.041274E+0	2.030918E+0	1.983105E+0	1.915168E+0	1.967784E+0	1.933239E+0	1.959889E+0	1.987831E+0	2.120718E+0	2.018465E+0	1.847616E+0	2.032467E+0	1.980640E+0	1.967909E+0	1.903317E+0	1.958262E+0	1.885765E+0	2.050022E+0	1.975127E+0	1.916356E+0	2.065423E+0	1.958649E+0	1.858814E+0	1.978980E+0	1.901488E+0	1.942546E+0	2.011148E+0	2.058365E+0	1.909876E+0	1.994876E+0	2.015624E+0	1.875697E+0	1.998826E+0	2.038652E+0	1.961483E+0	1.955855E+0	1.976366E+0	1.929798E+0	2.011430E+0	1.980191E+0	2.132045E+0
2.850030E+2	2.017702E+0	1.968546E+0	1.915362E+0	1.855233E+0	1.892511E+0	1.897100E+0	1.966727E+0	1.900704E+0	1.948518E+0	1.886032E+0	1.972916E+0	1.986666E+0	1.893199E+0	1.876373E+0	1.943225E+0	1.908504E+0	1.940852E+0	1.951896E+0	1.931515E+0	1.962423E+0	1.958048E+0	2.021715E+0	1.967609E+0	1.841950E+0	2.070938E+0	1.870185E+0	1.948198E+0	1.884231E+0	1.843306E+0	1.814875E+0	1.891209E+0	1.890142E+0	1.859233E+0	1.856626E+0	1.869591E+0	1.917533E+0	1.976150E+0	1.964030E+0	1.936055E+0	1.861712E+0	2.063465E+0	1.870088E+0	1.948876E+0	1.850754E+0	1.874172E+0	1.977478E+0	1.918502E+0	1.872667E+0	1.973037E+0	1.974750E+0	2.003027E+0	1.915023E+0	1.937573E+0	1.938107E+0	1.853750E+0	1.901825E+0	1.873383E+0	1.887010E+0	1.998453E+0	1.868748E+0	1.974504E+0	1.896693E+0	1.949328E+0	1.966553E+0	1.927826E+0	1.913498E+0	1.976109E+0	1.940701E+0	1.988808E+0	1.855710E+0	1.909107E+0	1.835440E+0	1.983266E+0	1.948853E+0	1.924902E+0	1.874239E+0	1.947765E+0	1.878602E+0	1.884102E+0	1.986972E+0	1.857057E+0	1.938626E+0	2.039917E+0	1.920602E+0	2.025239E+0	1.906790E+0	1.896076E+0	1.866208E+0	1.931139E+0	1.936235E+0	1.888791E+0	1.916778E+0	1.974385E+0	1.954705E+0	1.832339E+0	1.903746E+0	1.933134E+0	1.837486E+0	1.977301E+0	1.866898E+0	1.864402E+0	1.924742E+0	1.942477E+0	1.787728E+0	2.009825E+0	1.869309E+0	1.959544E+0	1.982886E+0	1.920458E+0	1.936272E+0	1.841337E+0	1.875384E+0	2.003493E+0	1.916316E+0	1.971746E+0	1.987168E+0	1.966970E+0	1.957727E+0	2.040098E+0	1.951749E+0	1.966999E+0	1.990761E+0	1.849543E+0	1.909758E+0	1.981710E+0	2.019656E+0	1.967899E+0	1.967738E+0	1.905014E+0	1.975816E+0	2.018184E+0	2.000769E+0	1.868783E+0	2.035139E+0	1.957570E+0	1.915615E+0	1.997850E+0	1.742181E+0	2.039462E+0	1.847658E+0	1.901430E+0	1.886835E+0	1.899735E+0	1.876490E+0	1.904808E+0	1.992222E+0	1.937557E+0	1.956008E+0	1.848188E+0	1.974696E+0	1.975815E+0	1.912623E+0	1.990255E+0	1.969943E+0	1.908206E+0	1.906596E+0	1.941719E+0	1.871267E+0	1.922781E+0	1.899641E+0	1.798158E+0	1.904255E+0	1.967291E+0	1.910264E+0	1.911399E+0	1.913634E+0	1.832798E+0	1.790821E+0	1.815948E+0	2.135952E+0
2.851020E+2	1.515855E+0	1.507014E+0	1.412446E+0	1.445823E+0	1.524693E+0	1.408018E+0	1.442286E+0	1.418636E+0	1.429711E+0	1.486233E+0	1.451132E+0	1.410581E+0	1.478769E+0	1.508814E+0	1.419976E+0	1.493586E+0	1.499898E+0	1.495073E+0	1.471279E+0	1.477633E+0	1.502337E+0	1.403778E+0	1.458031E+0	1.373153E+0	1.441363E+0	1.445103E+0	1.497543E+0	1.452832E+0	1.524623E+0	1.407415E+0	1.477979E+0	1.486679E+0	1.378257E+0	1.454134E+0	1.516195E+0	1.391547E+0	1.415375E+0	1.528801E+0	1.396345E+0	1.415673E+0	1.413977E+0	1.403661E+0	1.405018E+0	1.462306E+0	1.409863E+0	1.418928E+0	1.445172E+0	1.449585E+0	1.474006E+0	1.522707E+0	1.495069E+0	1.481324E+0	1.321545E+0	1.455512E+0	1.434370E+0	1.373609E+0	1.495166E+0	1.495240E+0	1.487955E+0	1.536438E+0	1.524157E+0	1.474131E+0	1.494029E+0	1.358634E+0	1.471409E+0	1.386193E+0	1.528610E+0	1.475207E+0	1.503212E+0	1.450494E+0	1.501705E+0	1.447843E+0	1.536050E+0	1.424984E+0	1.409335E+0	1.452690E+0	1.359166E+0	1.556102E+0	1.498901E+0	1.378633E+0	1.507737E+0	1.411628E+0	1.482550E+0	1.489887E+0	1.517092E+0	1.446451E+0	1.518999E+0	1.359915E+0	1.533561E+0	1.424065E+0	1.542261E+0	1.469423E+0	1.420211E+0	1.411979E+0	1.558231E+0	1.526361E+0	1.488562E+0	1.455940E+0	1.461030E+0	1.441784E+0	1.479444E+0	1.419810E+0	1.480589E+0	1.431566E+0	1.387270E+0	1.393822E+0	1.468231E+0	1.417221E+0	1.478688E+0	1.473509E+0	1.480599E+0	1.498055E+0	1.483528E+0	1.477897E+0	1.498146E+0	1.458366E+0	1.492781E+0	1.425957E+0	1.453929E+0	1.466790E+0	1.593171E+0	1.444171E+0	1.421825E+0	1.453820E+0	1.487836E+0	1.550519E+0	1.461429E+0	1.459801E+0	1.407949E+0	1.499667E+0	1.527452E+0	1.592871E+0	1.482092E+0	1.500375E+0	1.462016E+0	1.455536E+0	1.527493E+0	1.481983E+0	1.542984E+0	1.399904E+0	1.366624E+0	1.437506E+0	1.515588E+0	1.386507E+0	1.463063E+0	1.477849E+0	1.494334E+0	1.439493E+0	1.480983E+0	1.391763E+0	1.523854E+0	1.447433E+0	1.498174E+0	1.462156E+0	1.536307E+0	1.492108E+0	1.385559E+0	1.479212E+0	1.423062E+0	1.478980E+0	1.386139E+0	1.479274E+0	1.410937E+0	1.499420E+0	1.465479E+0	1.574539E+0	1.510299E+0	1.462772E+0	1.465003E+0	1.437106E+0
2.852010E+2	1.005056E+0	9.892610E-1	1.047091E+0	9.660107E-1	9.833359E-1	1.080268E+0	1.017919E+0	1.053472E+0	1.025656E+0	1.011145E+0	9.492557E-1	9.408974E-1	1.024768E+0	1.019068E+0	9.768997E-1	1.024290E+0	1.033741E+0	1.057966E+0	9.936927E-1	9.812975E-1	1.006930E+0	1.007260E+0	9.847257E-1	1.003325E+0	1.074874E+0	9.137397E-1	1.013237E+0	9.750522E-1	1.015163E+0	9.666571E-1	9.655598E-1	1.010020E+0	9.437891E-1	9.800516E-1	1.054118E+0	1.034030E+0	1.012119E+0	1.024266E+0	1.072123E+0	9.474185E-1	1.016720E+0	9.800315E-1	1.043551E+0	9.828873E-1	1.018346E+0	9.997023E-1	9.719384E-1	1.049236E+0	9.552677E-1	9.974694E-1	1.042287E+0	1.117185E+0	1.020836E+0	1.033798E+0	1.037830E+0	9.921552E-1	1.019022E+0	1.051210E+0	9.451952E-1	1.035920E+0	9.705050E-1	1.071378E+0	1.070734E+0	1.004177E+0	1.023573E+0	9.667380E-1	1.020505E+0	1.030338E+0	1.013129E+0	1.067153E+0	1.065554E+0	1.020710E+0	1.006178E+0	1.004629E+0	1.044812E+0	9.390159E-1	1.013850E+0	9.892351E-1	1.022114E+0	9.409358E-1	9.829444E-1	9.914344E-1	1.023710E+0	1.005625E+0	1.044274E+0	1.067635E+0	9.692172E-1	9.406417E-1	1.021163E+0	1.019426E+0	1.073997E+0	1.024454E+0	9.825847E-1	1.068429E+0	9.753839E-1	1.040695E+0	9.603779E-1	1.004426E+0	9.606938E-1	9.389061E-1	1.053266E+0	1.054663E+0	1.094632E+0	9.948772E-1	9.906249E-1	9.638788E-1	9.987731E-1	9.710962E-1	9.789913E-1	1.050533E+0	9.862284E-1	1.013855E+0	1.001412E+0	9.320943E-1	1.009649E+0	9.510175E-1	1.046021E+0	9.892116E-1	1.053940E+0	9.722596E-1	1.025784E+0	9.064814E-1	9.516159E-1	9.957771E-1	1.080141E+0	1.087815E+0	1.092060E+0	1.011277E+0	9.705223E-1	1.042957E+0	1.012154E+0	1.012456E+0	1.087868E+0	1.076958E+0	1.042918E+0	9.419641E-1	1.002591E+0	9.789741E-1	1.011086E+0	9.816565E-1	1.051684E+0	9.892597E-1	1.012038E+0	9.914780E-1	1.045719E+0	1.036162E+0	1.025106E+0	9.817358E-1	9.491084E-1	9.763921E-1	9.644184E-1	9.754605E-1	1.033216E+0	1.024251E+0	1.025883E+0	1.069824E+0	1.056496E+0	1.004587E+0	9.841143E-1	1.006219E+0	9.411698E-1	1.003610E+0	9.736979E-1	1.024012E+0	1.067371E+0	1.033165E+0	1.047607E+0	9.677209E-1	9.154613E-1	1.161525E+0
2.852990E+2	7.266998E-1	6.510653E-1	5.551399E-1	6.665356E-1	7.172547E-1	6.996837E-1	6.333451E-1	6.249307E-1	6.034020E-1	6.255116E-1	7.060347E-1	6.598141E-1	6.445096E-1	6.067898E-1	6.546115E-1	6.996373E-1	6.640618E-1	7.092227E-1	6.588525E-1	6.778771E-1	6.306612E-1	5.884708E-1	6.638559E-1	6.469334E-1	6.507726E-1	6.565605E-1	6.483571E-1	6.545658E-1	6.038032E-1	6.287251E-1	6.845153E-1	6.611394E-1	6.141745E-1	6.324268E-1	6.402448E-1	6.184563E-1	6.212894E-1	6.692258E-1	6.617870E-1	6.326775E-1	7.075977E-1	6.385301E-1	6.322553E-1	6.721547E-1	6.545833E-1	6.174841E-1	6.657617E-1	6.561188E-1	6.950378E-1	6.737426E-1	6.492474E-1	6.864275E-1	6.376828E-1	6.696241E-1	6.763281E-1	6.227573E-1	5.587190E-1	7.180958E-1	6.368351E-1	7.269964E-1	7.167889E-1	6.940090E-1	6.221486E-1	6.753164E-1	7.173084E-1	6.819194E-1	6.867508E-1	6.033829E-1	6.777413E-1	6.758305E-1	6.654627E-1	6.758407E-1	6.611855E-1	6.613596E-1	6.699308E-1	6.216761E-1	6.505611E-1	6.488371E-1	6.054295E-1	6.672578E-1	6.797845E-1	7.045803E-1	6.617909E-1	6.784569E-1	7.137257E-1	6.269066E-1	5.942961E-1	6.122636E-1	6.377192E-1	6.667597E-1	7.245079E-1	6.839136E-1	6.539664E-1	6.768264E-1	6.411279E-1	6.716989E-1	6.784296E-1	6.255825E-1	7.095283E-1	6.427450E-1	6.475783E-1	6.641206E-1	6.595222E-1	6.772100E-1	6.506192E-1	6.613993E-1	7.455286E-1	6.399245E-1	6.185297E-1	6.650064E-1	7.039770E-1	6.974817E-1	7.001859E-1	6.125702E-1	6.409010E-1	6.946224E-1	7.227325E-1	6.351848E-1	6.670612E-1	6.207672E-1	7.125397E-1	6.843294E-1	6.301123E-1	6.467805E-1	6.829957E-1	6.632181E-1	6.649307E-1	6.945922E-1	5.873938E-1	6.883304E-1	6.543015E-1	6.846326E-1	6.294038E-1	7.165479E-1	6.911775E-1	6.379957E-1	6.474199E-1	6.451728E-1	6.241410E-1	6.308871E-1	6.670951E-1	6.310281E-1	6.911953E-1	6.857811E-1	7.013331E-1	6.715203E-1	7.094002E-1	6.668253E-1	6.787868E-1	6.499209E-1	6.478070E-1	6.934960E-1	6.354614E-1	6.233657E-1	6.635612E-1	6.651483E-1	6.695821E-1	6.837606E-1	6.595410E-1	6.262144E-1	6.956944E-1	6.217962E-1	6.307214E-1	6.073955E-1	6.859997E-1	6.429476E-1	7.333890E-1	6.091872E-1	6.237749E-1	6.966848E-1
2.854050E+2	5.672807E-1	4.650683E-1	5.411176E-1	5.426577E-1	5.140371E-1	5.652151E-1	5.414236E-1	5.703702E-1	5.751914E-1	5.527898E-1	5.486288E-1	5.159166E-1	5.572356E-1	5.200572E-1	5.078872E-1	5.862613E-1	5.451514E-1	5.379360E-1	5.743671E-1	5.561888E-1	4.682878E-1	5.115439E-1	5.433073E-1	5.298127E-1	4.971014E-1	5.443910E-1	5.127010E-1	5.606469E-1	5.095083E-1	5.442659E-1	5.061890E-1	5.128544E-1	5.504312E-1	5.076572E-1	5.396899E-1	6.172698E-1	5.732160E-1	5.240925E-1	5.478219E-1	5.406291E-1	5.533855E-1	4.758000E-1	5.270213E-1	5.074657E-1	5.015106E-1	5.730140E-1	5.942111E-1	5.370725E-1	5.538046E-1	5.688373E-1	6.089889E-1	5.866140E-1	5.466033E-1	5.390699E-1	5.695925E-1	5.201381E-1	5.251954E-1	5.294984E-1	6.054513E-1	5.712718E-1	5.097979E-1	5.500735E-1	5.158718E-1	5.228426E-1	5.316775E-1	5.743824E-1	5.326484E-1	5.759264E-1	5.327848E-1	5.412220E-1	5.962117E-1	4.809989E-1	5.481423E-1	5.259820E-1	5.306065E-1	5.711334E-1	5.703968E-1	5.272133E-1	5.516158E-1	5.574004E-1	5.727627E-1	5.428322E-1	5.923095E-1	5.391090E-1	5.738875E-1	5.386217E-1	5.356357E-1	5.114719E-1	5.674590E-1	5.460533E-1	5.808380E-1	5.450404E-1	5.677766E-1	5.242473E-1	5.082308E-1	5.269124E-1	6.077909E-1	5.267075E-1	5.883088E-1	5.951952E-1	5.439731E-1	5.403402E-1	5.914921E-1	5.392428E-1	5.755244E-1	5.083008E-1	5.693532E-1	5.108548E-1	5.322928E-1	5.524503E-1	5.411251E-1	6.028045E-1	6.187482E-1	5.082601E-1	5.505669E-1	5.179585E-1	5.360484E-1	5.495858E-1	5.192174E-1	5.529776E-1	5.266083E-1	5.519791E-1	5.101699E-1	5.821659E-1	5.674722E-1	5.923427E-1	5.405209E-1	5.159586E-1	5.720182E-1	5.050529E-1	5.204214E-1	5.591897E-1	5.487008E-1	5.345471E-1	5.576865E-1	5.315997E-1	5.891109E-1	4.835040E-1	6.017791E-1	5.542745E-1	5.223560E-1	5.644320E-1	5.516296E-1	5.181527E-1	5.230935E-1	5.287052E-1	6.038361E-1	5.343275E-1	5.555219E-1	5.951350E-1	5.751819E-1	5.436457E-1	5.629526E-1	6.208027E-1	5.081398E-1	5.755484E-1	5.472871E-1	5.865256E-1	5.559037E-1	5.261646E-1	5.463395E-1	5.578878E-1	5.678748E-1	5.436789E-1	5.581487E-1	5.874710E-1	5.119510E-1	5.672638E-1	5.574031E-1	5.714845E-1
2.855030E+2	5.058245E-1	4.846752E-1	5.101873E-1	4.257504E-1	5.101794E-1	4.384089E-1	4.360495E-1	4.516720E-1	4.970384E-1	4.719761E-1	4.696929E-1	4.723446E-1	4.438122E-1	5.305558E-1	5.135254E-1	4.998401E-1	4.410787E-1	4.741888E-1	5.091453E-1	4.922414E-1	4.857554E-1	4.903795E-1	4.773588E-1	4.518047E-1	4.788322E-1	5.033330E-1	4.571179E-1	4.292399E-1	4.557759E-1	4.894721E-1	4.505469E-1	4.744606E-1	4.676562E-1	4.705913E-1	5.321153E-1	4.771193E-1	4.908672E-1	4.681338E-1	5.235110E-1	5.010822E-1	5.134742E-1	4.702510E-1	4.635224E-1	4.882252E-1	5.008431E-1	4.933792E-1	4.364103E-1	4.840717E-1	4.303768E-1	4.934564E-1	4.762119E-1	5.112838E-1	4.704810E-1	5.524756E-1	5.167039E-1	4.780137E-1	4.915374E-1	4.909165E-1	5.148790E-1	4.821417E-1	4.749109E-1	4.609838E-1	4.859620E-1	5.043787E-1	4.904243E-1	4.509345E-1	4.838236E-1	5.547722E-1	4.841478E-1	4.648019E-1	4.482857E-1	5.029212E-1	4.466929E-1	4.811414E-1	4.785643E-1	5.100945E-1	5.199655E-1	5.023863E-1	4.734405E-1	4.674347E-1	4.783509E-1	4.710244E-1	5.765102E-1	4.483262E-1	4.338119E-1	5.032895E-1	4.595106E-1	4.667661E-1	4.906074E-1	4.459325E-1	4.979612E-1	4.627686E-1	4.822198E-1	5.267651E-1	4.871316E-1	5.058384E-1	4.917694E-1	4.427274E-1	5.030830E-1	5.093828E-1	4.815112E-1	4.358146E-1	4.925241E-1	4.863340E-1	4.955400E-1	4.471728E-1	5.600069E-1	4.091872E-1	5.057451E-1	4.614272E-1	4.955637E-1	5.090019E-1	4.868549E-1	4.410978E-1	5.186698E-1	4.697318E-1	4.915192E-1	4.557071E-1	5.055851E-1	4.208460E-1	5.032387E-1	4.608140E-1	4.626245E-1	4.645541E-1	5.379284E-1	5.206987E-1	4.904101E-1	4.694217E-1	4.502878E-1	4.325789E-1	4.982841E-1	4.893672E-1	5.142283E-1	5.367608E-1	5.007957E-1	4.753191E-1	5.111064E-1	4.610132E-1	4.956065E-1	5.023801E-1	5.177093E-1	4.815610E-1	4.386931E-1	4.770034E-1	4.627191E-1	4.383442E-1	4.966607E-1	5.199415E-1	4.441032E-1	4.377304E-1	4.485820E-1	4.759893E-1	4.839774E-1	5.045437E-1	4.743970E-1	4.970965E-1	4.911253E-1	4.872135E-1	4.889376E-1	4.737083E-1	4.652339E-1	4.778566E-1	4.566936E-1	4.591901E-1	4.903162E-1	5.186492E-1	5.409532E-1	4.406502E-1	4.432955E-1	3.697349E-1
2.856030E+2	4.866232E-1	5.154857E-1	4.326099E-1	4.609409E-1	4.693080E-1	4.590716E-1	4.484154E-1	4.417649E-1	4.540305E-1	4.318939E-1	4.854275E-1	4.196387E-1	4.311619E-1	5.113583E-1	4.423273E-1	4.213232E-1	4.065211E-1	4.540674E-1	4.357879E-1	4.172715E-1	4.805223E-1	4.829197E-1	4.640054E-1	4.576410E-1	4.607370E-1	4.714819E-1	4.432191E-1	4.925525E-1	4.693667E-1	4.265524E-1	4.259409E-1	4.706887E-1	4.321293E-1	4.498324E-1	4.752992E-1	4.997412E-1	4.847361E-1	4.506484E-1	4.737758E-1	4.855715E-1	4.812334E-1	4.785127E-1	4.661399E-1	4.354126E-1	4.422746E-1	4.397168E-1	4.200450E-1	4.811462E-1	4.332761E-1	4.455515E-1	4.579824E-1	4.935990E-1	4.487594E-1	4.979586E-1	4.873517E-1	4.712765E-1	4.961798E-1	4.558403E-1	4.530936E-1	4.779964E-1	4.645973E-1	4.733145E-1	4.819328E-1	4.870570E-1	5.288658E-1	4.736684E-1	4.616484E-1	4.540890E-1	4.731098E-1	4.529072E-1	4.709637E-1	4.162491E-1	4.441611E-1	5.012364E-1	4.549550E-1	4.794294E-1	4.362819E-1	4.771803E-1	4.187755E-1	4.041448E-1	4.549563E-1	4.176887E-1	4.347657E-1	4.966421E-1	4.296062E-1	4.778773E-1	4.440105E-1	4.580894E-1	4.877043E-1	4.392506E-1	5.015477E-1	4.775533E-1	4.321941E-1	4.568103E-1	4.635585E-1	4.441474E-1	4.560310E-1	4.592337E-1	4.183395E-1	4.293420E-1	4.896572E-1	5.135279E-1	4.228316E-1	4.482953E-1	4.666626E-1	4.396952E-1	4.725088E-1	4.344115E-1	4.580817E-1	4.615017E-1	4.968730E-1	4.421028E-1	4.386934E-1	4.682890E-1	4.932852E-1	4.946968E-1	4.901482E-1	4.261997E-1	4.355077E-1	4.289738E-1	4.633966E-1	4.745531E-1	4.696141E-1	4.467354E-1	4.446740E-1	4.460983E-1	4.726236E-1	4.411173E-1	4.362664E-1	4.313139E-1	4.336008E-1	4.407071E-1	4.846767E-1	4.729012E-1	4.544286E-1	5.083793E-1	4.740907E-1	4.388176E-1	4.641498E-1	4.043401E-1	4.932882E-1	4.455461E-1	4.883960E-1	4.459688E-1	4.229217E-1	4.558336E-1	4.171235E-1	4.614340E-1	4.821691E-1	4.404244E-1	4.868229E-1	4.121573E-1	4.731037E-1	4.442387E-1	4.192347E-1	4.489707E-1	4.897327E-1	4.797667E-1	4.809766E-1	4.755634E-1	4.486068E-1	4.256337E-1	4.472225E-1	4.771106E-1	4.624283E-1	4.868478E-1	4.686846E-1	4.346262E-1	5.184062E-1	5.728392E-1
2.858010E+2	5.561177E-1	5.253475E-1	4.476913E-1	5.454031E-1	5.523641E-1	5.144421E-1	5.526685E-1	5.454419E-1	5.430745E-1	5.085387E-1	5.462465E-1	5.181396E-1	5.351394E-1	4.987761E-1	5.727465E-1	5.154702E-1	5.187588E-1	5.272395E-1	5.062342E-1	5.192877E-1	4.818378E-1	5.735231E-1	4.963411E-1	5.499976E-1	5.697527E-1	5.197255E-1	5.561507E-1	5.139830E-1	5.221522E-1	4.939434E-1	5.506057E-1	5.767600E-1	5.020130E-1	4.827654E-1	5.549708E-1	5.294172E-1	4.961821E-1	5.056669E-1	5.190496E-1	5.454210E-1	5.197665E-1	5.221622E-1	4.845691E-1	4.832463E-1	5.112928E-1	5.550780E-1	4.864415E-1	5.132881E-1	5.053713E-1	4.836446E-1	5.849145E-1	5.731708E-1	5.166338E-1	5.401291E-1	5.887989E-1	4.747571E-1	5.360578E-1	5.587394E-1	5.188399E-1	5.866861E-1	5.086925E-1	5.444463E-1	5.341139E-1	5.298043E-1	5.484391E-1	4.983774E-1	5.501587E-1	5.939798E-1	5.280529E-1	5.350976E-1	5.382004E-1	5.337192E-1	5.337135E-1	5.250119E-1	5.635065E-1	4.935468E-1	5.246577E-1	5.417154E-1	5.420401E-1	4.980063E-1	5.560456E-1	5.385669E-1	5.367450E-1	5.265390E-1	4.877545E-1	5.270059E-1	5.284613E-1	5.041684E-1	5.104765E-1	5.310042E-1	5.212844E-1	5.779427E-1	5.270849E-1	4.765051E-1	5.043239E-1	5.563536E-1	5.256609E-1	4.728888E-1	5.436461E-1	5.205709E-1	5.295969E-1	5.503149E-1	6.165845E-1	5.266006E-1	4.994403E-1	5.327011E-1	5.623930E-1	5.223157E-1	5.343532E-1	5.494241E-1	5.038125E-1	5.674558E-1	5.534841E-1	5.230449E-1	5.643256E-1	5.093454E-1	5.280593E-1	5.619764E-1	5.059694E-1	5.671486E-1	5.176846E-1	5.376714E-1	5.472610E-1	5.245127E-1	5.229232E-1	5.607611E-1	5.320381E-1	5.080858E-1	5.517804E-1	5.436728E-1	5.353186E-1	5.401950E-1	5.829993E-1	5.250149E-1	5.365523E-1	5.503242E-1	5.801983E-1	5.587989E-1	5.199428E-1	5.057163E-1	4.809405E-1	5.247668E-1	5.261837E-1	5.486657E-1	4.982498E-1	5.257736E-1	5.194317E-1	5.394588E-1	5.612928E-1	5.209475E-1	5.308461E-1	5.375653E-1	5.222954E-1	4.934452E-1	5.093482E-1	5.566169E-1	6.004362E-1	5.165692E-1	5.234438E-1	4.747239E-1	5.333693E-1	5.310506E-1	5.218262E-1	5.195453E-1	5.407513E-1	5.358317E-1	5.567099E-1	5.070961E-1	5.343541E-1	6.322435E-1
2.860070E+2	7.175959E-1	8.080221E-1	7.631415E-1	7.179500E-1	8.584061E-1	8.142144E-1	8.397736E-1	7.646030E-1	7.481720E-1	6.841980E-1	7.771543E-1	8.348986E-1	7.808178E-1	7.619520E-1	7.864254E-1	8.210908E-1	7.891080E-1	9.267994E-1	7.421666E-1	7.926472E-1	7.567093E-1	7.459330E-1	7.787507E-1	7.852272E-1	8.595146E-1	7.656728E-1	7.779661E-1	7.738028E-1	7.323278E-1	7.829224E-1	7.990575E-1	8.390917E-1	7.829198E-1	7.373484E-1	8.082785E-1	7.811504E-1	8.246671E-1	8.593268E-1	7.847918E-1	7.432477E-1	8.348157E-1	7.837495E-1	7.926790E-1	7.935626E-1	7.556931E-1	7.845936E-1	7.814545E-1	7.607599E-1	7.853926E-1	7.980785E-1	7.654247E-1	8.213235E-1	8.450631E-1	7.710907E-1	7.280063E-1	7.345902E-1	7.446399E-1	8.249499E-1	7.526614E-1	8.238452E-1	8.076399E-1	8.418661E-1	7.854932E-1	8.051443E-1	8.089426E-1	8.624680E-1	7.873928E-1	7.998842E-1	7.869082E-1	7.724543E-1	7.629536E-1	7.882402E-1	7.885407E-1	7.479681E-1	7.730527E-1	7.884092E-1	8.197382E-1	8.862697E-1	8.012705E-1	7.962195E-1	7.093543E-1	8.218639E-1	7.955025E-1	7.423934E-1	7.542447E-1	8.522843E-1	8.229747E-1	7.595515E-1	7.667288E-1	8.197467E-1	8.181917E-1	7.631303E-1	7.321454E-1	7.842563E-1	8.297991E-1	7.872781E-1	7.699724E-1	7.876969E-1	7.787569E-1	8.391255E-1	7.839888E-1	7.261571E-1	7.755729E-1	8.292215E-1	8.111971E-1	8.089771E-1	7.922819E-1	7.692425E-1	7.893896E-1	8.533334E-1	7.041903E-1	7.516426E-1	8.303426E-1	7.907884E-1	7.680251E-1	7.618524E-1	8.235646E-1	7.979817E-1	7.041613E-1	7.930289E-1	7.721076E-1	7.756177E-1	7.717716E-1	7.433456E-1	7.925376E-1	8.422755E-1	8.159050E-1	8.493840E-1	7.906547E-1	7.701079E-1	8.600291E-1	7.478479E-1	8.002899E-1	8.054449E-1	7.805413E-1	7.503117E-1	7.844847E-1	7.228116E-1	7.991431E-1	7.909865E-1	7.966967E-1	7.796084E-1	7.954650E-1	7.730776E-1	8.124682E-1	7.803191E-1	8.433088E-1	8.338123E-1	7.975651E-1	8.108173E-1	7.549381E-1	7.999337E-1	7.775277E-1	7.578428E-1	8.415396E-1	8.110752E-1	7.844590E-1	8.107727E-1	8.229309E-1	8.025102E-1	6.333480E-1	7.471465E-1	7.969437E-1	7.444695E-1	7.869891E-1	8.167662E-1	7.601843E-1	8.139333E-1	7.140409E-1	8.137203E-1
2.862050E+2	1.235132E+0	1.213842E+0	1.268346E+0	1.303998E+0	1.272323E+0	1.203647E+0	1.307217E+0	1.220817E+0	1.297261E+0	1.201621E+0	1.298898E+0	1.286220E+0	1.301103E+0	1.184950E+0	1.260565E+0	1.278236E+0	1.314647E+0	1.209424E+0	1.218428E+0	1.231902E+0	1.216399E+0	1.220304E+0	1.224998E+0	1.249838E+0	1.206564E+0	1.250693E+0	1.177355E+0	1.182794E+0	1.279650E+0	1.258265E+0	1.259007E+0	1.265735E+0	1.217835E+0	1.179234E+0	1.189988E+0	1.205280E+0	1.280779E+0	1.194741E+0	1.167487E+0	1.195218E+0	1.229050E+0	1.218539E+0	1.243607E+0	1.151324E+0	1.198322E+0	1.215223E+0	1.254973E+0	1.230740E+0	1.251187E+0	1.232692E+0	1.216017E+0	1.292784E+0	1.201942E+0	1.225031E+0	1.260246E+0	1.193838E+0	1.255011E+0	1.265092E+0	1.295364E+0	1.196828E+0	1.305913E+0	1.199903E+0	1.252865E+0	1.235176E+0	1.246270E+0	1.146362E+0	1.295579E+0	1.197658E+0	1.192969E+0	1.236092E+0	1.167006E+0	1.264739E+0	1.251208E+0	1.300684E+0	1.261793E+0	1.232944E+0	1.242171E+0	1.278435E+0	1.247110E+0	1.199277E+0	1.207820E+0	1.221399E+0	1.266946E+0	1.260938E+0	1.237769E+0	1.263749E+0	1.241988E+0	1.243034E+0	1.172694E+0	1.222541E+0	1.266916E+0	1.286792E+0	1.194305E+0	1.247537E+0	1.231178E+0	1.284410E+0	1.251136E+0	1.250661E+0	1.268019E+0	1.237830E+0	1.153558E+0	1.229612E+0	1.255303E+0	1.181549E+0	1.265181E+0	1.238825E+0	1.267031E+0	1.243929E+0	1.302581E+0	1.236785E+0	1.226325E+0	1.229905E+0	1.201164E+0	1.257425E+0	1.235267E+0	1.304666E+0	1.272664E+0	1.278720E+0	1.321262E+0	1.175435E+0	1.154189E+0	1.164742E+0	1.236131E+0	1.330648E+0	1.212191E+0	1.249652E+0	1.242615E+0	1.242248E+0	1.183513E+0	1.221786E+0	1.184497E+0	1.237876E+0	1.210860E+0	1.240532E+0	1.300310E+0	1.185830E+0	1.267754E+0	1.276808E+0	1.221437E+0	1.267300E+0	1.184587E+0	1.313909E+0	1.307199E+0	1.231575E+0	1.206707E+0	1.260188E+0	1.293855E+0	1.195524E+0	1.292640E+0	1.258953E+0	1.276125E+0	1.285979E+0	1.254470E+0	1.258754E+0	1.267100E+0	1.302035E+0	1.294556E+0	1.230982E+0	1.283215E+0	1.235980E+0	1.189866E+0	1.325855E+0	1.229337E+0	1.272261E+0	1.272650E+0	1.300202E+0	1.190391E+0	1.239019E+0	1.293952E+0	1.147190E+0
2.864180E+2	1.431802E+0	1.430966E+0	1.382560E+0	1.247281E+0	1.423659E+0	1.350034E+0	1.407800E+0	1.350583E+0	1.394234E+0	1.359717E+0	1.356947E+0	1.322644E+0	1.302230E+0	1.359138E+0	1.400653E+0	1.339812E+0	1.336059E+0	1.410548E+0	1.380712E+0	1.459728E+0	1.371490E+0	1.301868E+0	1.316574E+0	1.373279E+0	1.400358E+0	1.414039E+0	1.399614E+0	1.352908E+0	1.313103E+0	1.337642E+0	1.337033E+0	1.369119E+0	1.236828E+0	1.290457E+0	1.341683E+0	1.295805E+0	1.430886E+0	1.344836E+0	1.360385E+0	1.280702E+0	1.399517E+0	1.384456E+0	1.315639E+0	1.316884E+0	1.308032E+0	1.381891E+0	1.339519E+0	1.335683E+0	1.336957E+0	1.333294E+0	1.450963E+0	1.309924E+0	1.372677E+0	1.268434E+0	1.365761E+0	1.322783E+0	1.287902E+0	1.322190E+0	1.307670E+0	1.385911E+0	1.285000E+0	1.522453E+0	1.372535E+0	1.412861E+0	1.431964E+0	1.354454E+0	1.396835E+0	1.419107E+0	1.323988E+0	1.403750E+0	1.374001E+0	1.348047E+0	1.275716E+0	1.347962E+0	1.415954E+0	1.380822E+0	1.383653E+0	1.315398E+0	1.367718E+0	1.407477E+0	1.273654E+0	1.421981E+0	1.409854E+0	1.419131E+0	1.395635E+0	1.319452E+0	1.350916E+0	1.336809E+0	1.326241E+0	1.418806E+0	1.391428E+0	1.350088E+0	1.397569E+0	1.450530E+0	1.446144E+0	1.384670E+0	1.398180E+0	1.380990E+0	1.359422E+0	1.458780E+0	1.280772E+0	1.426039E+0	1.374562E+0	1.388563E+0	1.381805E+0	1.313709E+0	1.411473E+0	1.317182E+0	1.385357E+0	1.306554E+0	1.356221E+0	1.363426E+0	1.427020E+0	1.322291E+0	1.363740E+0	1.428076E+0	1.449316E+0	1.331161E+0	1.498843E+0	1.392825E+0	1.274827E+0	1.386470E+0	1.400997E+0	1.336643E+0	1.405125E+0	1.293113E+0	1.357809E+0	1.411404E+0	1.292759E+0	1.323701E+0	1.351960E+0	1.326604E+0	1.357116E+0	1.316159E+0	1.440435E+0	1.357959E+0	1.402477E+0	1.334973E+0	1.409495E+0	1.337478E+0	1.290554E+0	1.321133E+0	1.380060E+0	1.370927E+0	1.414927E+0	1.352987E+0	1.388880E+0	1.416487E+0	1.336132E+0	1.374116E+0	1.361047E+0	1.239251E+0	1.395845E+0	1.339940E+0	1.401017E+0	1.426026E+0	1.451831E+0	1.350740E+0	1.352318E+0	1.450335E+0	1.314342E+0	1.392185E+0	1.437690E+0	1.319803E+0	1.366382E+0	1.387042E+0	1.360526E+0	1.389563E+0	1.385216E+0	1.454654E+0
2.866200E+2	1.403985E+0	1.475077E+0	1.425491E+0	1.366570E+0	1.489177E+0	1.531251E+0	1.452999E+0	1.427806E+0	1.507871E+0	1.406438E+0	1.458875E+0	1.480266E+0	1.454301E+0	1.464433E+0	1.375899E+0	1.470996E+0	1.383125E+0	1.489923E+0	1.456251E+0	1.472417E+0	1.475435E+0	1.443007E+0	1.404896E+0	1.488287E+0	1.515099E+0	1.462212E+0	1.457317E+0	1.414857E+0	1.463305E+0	1.386386E+0	1.457811E+0	1.534997E+0	1.359967E+0	1.317499E+0	1.458103E+0	1.476225E+0	1.435945E+0	1.476128E+0	1.400499E+0	1.391749E+0	1.442890E+0	1.484389E+0	1.426455E+0	1.433650E+0	1.406683E+0	1.463484E+0	1.387652E+0	1.428820E+0	1.503982E+0	1.531335E+0	1.478353E+0	1.472359E+0	1.465998E+0	1.430608E+0	1.408715E+0	1.396198E+0	1.399468E+0	1.440296E+0	1.447165E+0	1.486215E+0	1.438344E+0	1.484494E+0	1.421550E+0	1.417823E+0	1.475327E+0	1.468761E+0	1.495654E+0	1.486491E+0	1.430883E+0	1.466430E+0	1.447593E+0	1.462727E+0	1.481348E+0	1.546930E+0	1.449235E+0	1.421855E+0	1.391731E+0	1.595226E+0	1.419874E+0	1.457747E+0	1.432754E+0	1.466394E+0	1.475683E+0	1.444586E+0	1.400843E+0	1.461004E+0	1.424147E+0	1.451280E+0	1.522078E+0	1.501226E+0	1.459716E+0	1.443745E+0	1.431276E+0	1.440341E+0	1.388067E+0	1.451312E+0	1.463464E+0	1.435265E+0	1.482407E+0	1.442720E+0	1.451049E+0	1.415115E+0	1.482553E+0	1.544446E+0	1.398543E+0	1.399896E+0	1.477591E+0	1.497765E+0	1.458577E+0	1.481139E+0	1.469147E+0	1.502704E+0	1.449806E+0	1.372556E+0	1.473038E+0	1.469864E+0	1.491035E+0	1.512097E+0	1.550704E+0	1.497811E+0	1.426279E+0	1.475005E+0	1.414750E+0	1.496681E+0	1.480891E+0	1.469119E+0	1.414417E+0	1.396238E+0	1.491129E+0	1.382762E+0	1.458911E+0	1.378566E+0	1.448986E+0	1.444630E+0	1.452063E+0	1.441591E+0	1.411186E+0	1.449524E+0	1.469893E+0	1.407138E+0	1.346883E+0	1.453713E+0	1.430284E+0	1.359827E+0	1.478136E+0	1.422357E+0	1.442952E+0	1.575426E+0	1.383361E+0	1.410842E+0	1.534390E+0	1.435576E+0	1.534823E+0	1.472677E+0	1.454378E+0	1.477857E+0	1.508786E+0	1.428762E+0	1.417162E+0	1.447748E+0	1.386247E+0	1.504190E+0	1.382368E+0	1.450053E+0	1.460951E+0	1.437040E+0	1.461772E+0	1.377528E+0	1.539626E+0	1.438912E+0
2.868020E+2	1.528301E+0	1.597220E+0	1.572810E+0	1.496472E+0	1.609282E+0	1.543077E+0	1.502826E+0	1.521891E+0	1.523684E+0	1.550373E+0	1.486992E+0	1.581098E+0	1.489449E+0	1.493412E+0	1.564800E+0	1.607107E+0	1.531137E+0	1.500877E+0	1.517189E+0	1.555273E+0	1.539182E+0	1.590188E+0	1.432891E+0	1.569610E+0	1.544498E+0	1.472292E+0	1.568120E+0	1.408177E+0	1.481305E+0	1.428658E+0	1.522454E+0	1.532515E+0	1.464890E+0	1.489146E+0	1.580641E+0	1.557764E+0	1.457351E+0	1.454623E+0	1.504193E+0	1.450554E+0	1.529060E+0	1.512029E+0	1.420358E+0	1.447819E+0	1.536329E+0	1.520061E+0	1.439086E+0	1.574045E+0	1.507350E+0	1.444494E+0	1.452625E+0	1.527763E+0	1.480035E+0	1.512169E+0	1.570137E+0	1.506566E+0	1.509840E+0	1.514274E+0	1.493283E+0	1.501302E+0	1.504294E+0	1.592656E+0	1.559583E+0	1.471412E+0	1.601604E+0	1.469033E+0	1.514774E+0	1.519135E+0	1.475243E+0	1.476260E+0	1.480191E+0	1.514805E+0	1.529281E+0	1.557384E+0	1.487314E+0	1.438150E+0	1.539719E+0	1.569799E+0	1.474962E+0	1.479238E+0	1.498461E+0	1.468179E+0	1.472158E+0	1.551998E+0	1.444369E+0	1.501358E+0	1.497144E+0	1.527891E+0	1.535758E+0	1.541053E+0	1.512071E+0	1.513028E+0	1.531336E+0	1.488382E+0	1.503088E+0	1.497607E+0	1.532255E+0	1.476451E+0	1.630161E+0	1.538212E+0	1.550670E+0	1.513591E+0	1.540110E+0	1.568250E+0	1.470415E+0	1.559910E+0	1.529432E+0	1.509889E+0	1.490681E+0	1.611606E+0	1.642213E+0	1.511197E+0	1.487106E+0	1.578044E+0	1.516937E+0	1.547916E+0	1.483328E+0	1.566641E+0	1.471954E+0	1.520582E+0	1.548545E+0	1.508254E+0	1.550230E+0	1.539366E+0	1.470284E+0	1.562767E+0	1.578589E+0	1.483621E+0	1.515586E+0	1.538010E+0	1.531601E+0	1.461346E+0	1.443106E+0	1.495916E+0	1.520707E+0	1.507777E+0	1.541948E+0	1.448892E+0	1.537147E+0	1.428597E+0	1.476821E+0	1.508662E+0	1.571972E+0	1.490173E+0	1.497693E+0	1.541895E+0	1.561119E+0	1.540237E+0	1.509451E+0	1.490523E+0	1.544359E+0	1.555214E+0	1.545758E+0	1.623560E+0	1.543139E+0	1.566192E+0	1.510526E+0	1.574437E+0	1.467180E+0	1.460754E+0	1.489149E+0	1.634464E+0	1.623876E+0	1.494337E+0	1.500702E+0	1.578035E+0	1.575864E+0	1.467028E+0	1.632386E+0	1.441872E+0
2.870040E+2	1.057258E+0	1.139119E+0	1.004306E+0	1.086119E+0	1.118341E+0	1.129506E+0	1.122054E+0	1.103380E+0	1.119754E+0	1.129686E+0	1.039098E+0	1.079689E+0	1.042687E+0	1.060185E+0	1.151100E+0	1.116790E+0	1.039130E+0	1.072494E+0	1.114741E+0	1.070330E+0	1.085559E+0	1.024184E+0	1.051307E+0	1.145997E+0	1.141230E+0	1.125182E+0	1.053150E+0	1.042678E+0	1.051081E+0	9.478339E-1	1.116299E+0	1.092640E+0	1.031466E+0	9.958323E-1	1.048047E+0	1.145682E+0	1.166293E+0	1.073869E+0	1.056700E+0	1.084209E+0	1.060059E+0	1.102927E+0	1.102432E+0	1.148927E+0	1.075150E+0	1.114291E+0	1.117478E+0	1.118740E+0	1.088862E+0	1.120373E+0	1.111182E+0	1.094703E+0	1.078609E+0	1.149341E+0	1.049793E+0	1.091005E+0	1.051724E+0	1.149892E+0	1.081860E+0	1.106674E+0	1.022374E+0	1.014099E+0	1.030500E+0	1.080220E+0	1.108000E+0	1.138979E+0	1.167701E+0	1.200085E+0	1.049362E+0	1.057733E+0	1.078439E+0	1.055242E+0	1.069692E+0	1.079851E+0	1.116131E+0	1.014406E+0	1.113896E+0	1.126845E+0	1.046192E+0	1.069616E+0	1.074632E+0	1.058620E+0	1.098081E+0	1.069852E+0	1.119899E+0	1.084693E+0	1.037839E+0	1.091547E+0	1.158062E+0	1.152990E+0	1.104750E+0	1.110361E+0	1.008766E+0	1.074731E+0	1.089520E+0	1.057192E+0	1.138356E+0	1.014547E+0	1.081758E+0	1.075314E+0	1.144077E+0	1.089820E+0	1.090388E+0	1.096316E+0	1.045224E+0	1.068994E+0	1.095470E+0	1.092551E+0	1.084676E+0	1.118109E+0	1.112800E+0	1.087859E+0	1.107885E+0	1.112955E+0	1.106695E+0	9.757184E-1	1.067635E+0	1.047666E+0	1.093202E+0	1.060683E+0	1.091077E+0	1.036060E+0	1.084629E+0	1.126064E+0	1.149847E+0	1.094903E+0	1.067785E+0	1.034469E+0	1.066400E+0	1.034367E+0	1.078894E+0	1.118996E+0	1.079574E+0	1.093317E+0	1.101961E+0	1.040295E+0	1.091806E+0	1.135710E+0	1.060217E+0	1.044905E+0	1.083671E+0	1.079163E+0	1.102765E+0	1.035531E+0	1.022516E+0	1.052969E+0	1.165613E+0	1.084194E+0	1.113214E+0	1.052830E+0	1.097285E+0	1.091791E+0	1.086132E+0	1.039755E+0	1.090159E+0	1.048479E+0	1.146282E+0	1.075553E+0	1.012500E+0	1.125865E+0	9.541915E-1	1.122077E+0	1.067584E+0	1.104750E+0	1.119014E+0	1.059896E+0	1.080405E+0	9.462264E-1	1.076186E+0	1.247649E+0
2.872040E+2	9.207046E-1	9.099954E-1	9.203588E-1	8.690608E-1	9.580625E-1	9.430988E-1	9.739365E-1	9.540364E-1	9.077432E-1	9.702813E-1	9.451475E-1	9.861011E-1	9.370166E-1	9.473058E-1	8.793958E-1	9.626591E-1	9.243813E-1	9.280316E-1	9.151145E-1	8.465043E-1	9.626949E-1	9.086715E-1	8.957452E-1	9.100307E-1	9.285421E-1	1.005318E+0	9.685039E-1	9.527622E-1	9.287011E-1	9.171958E-1	9.466130E-1	9.011018E-1	9.016797E-1	8.663353E-1	9.870769E-1	9.008698E-1	9.107476E-1	9.910705E-1	9.632526E-1	8.988026E-1	9.481031E-1	9.514974E-1	8.379092E-1	9.086938E-1	8.559367E-1	9.171208E-1	8.924201E-1	9.073382E-1	9.813918E-1	9.480093E-1	1.002638E+0	9.469708E-1	9.263277E-1	9.496891E-1	9.850477E-1	9.228276E-1	9.085799E-1	8.790922E-1	9.327574E-1	9.465818E-1	9.464691E-1	1.014759E+0	9.643713E-1	8.583394E-1	8.894128E-1	9.170869E-1	9.526722E-1	9.417217E-1	9.011931E-1	8.852324E-1	9.170593E-1	8.835993E-1	9.767542E-1	9.086071E-1	9.673744E-1	9.126688E-1	9.315100E-1	9.378839E-1	9.002368E-1	9.305033E-1	8.922482E-1	9.042991E-1	9.431813E-1	9.653638E-1	9.401892E-1	9.139205E-1	9.695616E-1	9.487003E-1	9.456162E-1	1.011922E+0	9.136886E-1	1.014422E+0	9.713077E-1	9.456220E-1	8.577611E-1	9.275846E-1	9.315052E-1	9.245411E-1	1.025146E+0	9.715590E-1	9.180725E-1	9.707350E-1	9.504665E-1	9.742780E-1	8.598969E-1	8.861470E-1	9.478691E-1	9.822696E-1	9.569646E-1	9.251641E-1	9.915298E-1	9.947056E-1	9.792989E-1	9.091773E-1	9.555899E-1	9.660849E-1	9.915426E-1	9.615403E-1	9.587724E-1	8.752654E-1	9.676292E-1	9.829378E-1	9.275082E-1	9.280527E-1	1.073286E+0	9.934751E-1	8.834631E-1	9.067068E-1	9.091438E-1	9.200363E-1	9.588391E-1	8.639207E-1	9.869817E-1	9.165129E-1	9.178143E-1	9.197500E-1	9.573529E-1	9.748054E-1	9.323430E-1	9.086316E-1	9.504722E-1	9.282782E-1	8.974979E-1	9.044341E-1	9.913633E-1	9.151207E-1	9.606736E-1	9.855309E-1	9.415996E-1	9.529212E-1	9.103421E-1	9.832331E-1	9.982230E-1	9.171851E-1	9.875103E-1	8.849884E-1	9.242352E-1	9.604586E-1	9.564020E-1	9.122369E-1	9.345259E-1	9.048397E-1	8.931102E-1	9.120025E-1	8.890494E-1	9.986570E-1	9.456725E-1	8.542807E-1	9.934524E-1	9.801568E-1
2.874050E+2	8.932923E-1	8.678870E-1	8.343343E-1	8.589358E-1	8.188055E-1	8.688090E-1	8.826331E-1	8.700723E-1	8.650870E-1	7.992549E-1	8.868414E-1	8.664164E-1	8.752938E-1	8.368365E-1	8.283175E-1	8.554518E-1	8.376102E-1	8.465941E-1	8.599998E-1	9.517031E-1	7.970504E-1	8.471291E-1	8.171404E-1	8.804391E-1	9.469782E-1	8.977767E-1	8.439287E-1	8.235410E-1	8.622885E-1	8.130745E-1	8.122679E-1	8.727737E-1	7.953327E-1	8.436312E-1	8.299846E-1	8.891716E-1	7.876388E-1	8.533568E-1	8.552471E-1	8.879661E-1	8.890025E-1	8.555957E-1	8.420396E-1	8.859622E-1	8.601400E-1	8.582971E-1	8.501400E-1	8.760630E-1	8.097938E-1	8.674331E-1	8.495592E-1	8.482549E-1	8.055235E-1	8.290713E-1	8.406192E-1	8.644453E-1	8.400922E-1	8.182683E-1	9.245702E-1	9.027579E-1	8.119745E-1	8.266568E-1	8.405194E-1	8.853388E-1	9.067306E-1	8.492090E-1	8.709274E-1	8.426016E-1	9.255225E-1	8.698647E-1	8.665312E-1	8.443631E-1	9.007485E-1	9.125191E-1	9.517269E-1	9.057229E-1	8.556342E-1	8.473256E-1	8.871865E-1	8.382290E-1	8.770331E-1	9.072304E-1	8.496437E-1	8.578811E-1	8.561605E-1	8.360588E-1	8.522332E-1	7.507588E-1	8.789447E-1	9.215421E-1	8.740798E-1	8.564960E-1	8.853413E-1	9.041795E-1	8.083820E-1	8.264406E-1	8.403916E-1	8.850595E-1	8.655398E-1	8.735585E-1	8.720780E-1	8.993465E-1	8.746886E-1	9.101630E-1	8.069101E-1	8.673059E-1	9.063430E-1	8.599601E-1	8.832771E-1	8.731495E-1	8.653023E-1	8.511304E-1	9.035110E-1	8.240105E-1	8.516460E-1	8.390624E-1	8.500862E-1	8.575920E-1	7.976864E-1	8.399404E-1	9.217485E-1	8.275043E-1	8.134247E-1	9.497189E-1	8.719944E-1	8.525852E-1	9.032515E-1	9.189334E-1	8.690097E-1	8.704953E-1	9.345039E-1	9.250991E-1	8.445554E-1	8.732308E-1	8.108681E-1	9.106247E-1	8.905291E-1	8.792907E-1	8.559836E-1	7.796799E-1	7.801122E-1	8.419461E-1	8.867060E-1	8.365677E-1	8.678366E-1	8.122638E-1	8.251040E-1	8.396746E-1	9.003402E-1	7.996794E-1	8.514937E-1	8.580053E-1	8.749363E-1	8.577005E-1	8.915704E-1	8.764721E-1	8.847048E-1	8.976548E-1	8.191763E-1	8.992676E-1	8.719153E-1	8.158417E-1	8.716188E-1	8.220775E-1	9.145911E-1	8.846058E-1	8.418162E-1	8.293113E-1	8.839556E-1	9.717925E-1
2.876020E+2	8.278502E-1	7.620954E-1	7.760781E-1	8.223208E-1	7.954334E-1	7.626174E-1	8.155890E-1	7.958163E-1	7.831778E-1	7.856400E-1	8.305273E-1	8.303850E-1	7.677735E-1	7.671241E-1	8.415121E-1	7.702550E-1	8.831532E-1	8.076006E-1	7.971130E-1	8.294837E-1	8.777103E-1	8.554197E-1	8.292662E-1	7.974473E-1	8.192069E-1	7.854671E-1	8.161343E-1	8.123532E-1	8.069831E-1	7.663380E-1	8.061735E-1	7.874514E-1	7.536141E-1	7.932905E-1	7.955275E-1	8.544932E-1	8.350062E-1	7.670293E-1	8.224867E-1	7.853269E-1	8.181748E-1	7.911220E-1	7.648607E-1	7.748877E-1	7.515742E-1	8.435969E-1	7.834635E-1	7.757175E-1	8.527138E-1	8.694657E-1	8.381277E-1	8.167071E-1	8.196113E-1	8.210016E-1	7.744062E-1	7.446527E-1	7.814612E-1	8.458820E-1	8.463227E-1	8.064397E-1	7.831601E-1	7.771471E-1	8.483981E-1	7.530348E-1	8.860398E-1	7.820117E-1	8.105677E-1	7.426285E-1	7.866667E-1	8.298088E-1	7.449224E-1	7.738564E-1	8.203736E-1	7.888504E-1	8.215717E-1	8.065081E-1	8.163305E-1	8.046389E-1	7.856135E-1	7.520376E-1	7.823940E-1	8.059646E-1	7.897478E-1	7.813217E-1	7.693032E-1	8.083447E-1	8.613703E-1	7.615736E-1	8.164802E-1	8.245040E-1	8.196938E-1	8.333289E-1	8.067550E-1	8.404219E-1	7.706405E-1	7.603419E-1	7.769693E-1	7.866333E-1	8.289187E-1	7.678662E-1	7.919074E-1	8.780327E-1	7.689155E-1	7.861047E-1	7.771094E-1	8.189256E-1	7.780808E-1	7.299489E-1	8.321530E-1	8.263621E-1	8.438625E-1	7.815778E-1	8.463424E-1	7.654921E-1	8.030603E-1	7.635811E-1	8.311280E-1	8.473194E-1	8.413071E-1	8.502678E-1	7.909154E-1	8.366247E-1	8.113603E-1	8.339796E-1	8.288853E-1	7.848064E-1	7.592263E-1	7.719200E-1	7.962668E-1	8.413268E-1	8.279300E-1	8.477147E-1	7.908035E-1	8.212850E-1	7.867518E-1	7.584673E-1	8.679870E-1	8.216078E-1	8.026495E-1	7.778265E-1	7.819863E-1	8.349645E-1	8.165978E-1	8.383324E-1	8.061893E-1	7.680958E-1	7.932313E-1	7.664221E-1	8.237988E-1	7.824673E-1	7.530048E-1	7.883815E-1	8.609523E-1	8.463188E-1	8.291392E-1	8.488828E-1	8.672780E-1	8.064985E-1	7.745795E-1	7.267568E-1	7.497675E-1	8.364404E-1	8.090878E-1	8.504856E-1	7.761011E-1	7.690496E-1	7.589447E-1	7.959978E-1	8.400682E-1	8.624906E-1
2.878030E+2	7.032503E-1	7.272988E-1	6.067710E-1	6.020358E-1	6.365360E-1	6.196593E-1	6.433572E-1	6.421484E-1	6.543945E-1	6.614846E-1	6.586128E-1	6.033704E-1	6.442066E-1	6.692953E-1	6.597654E-1	6.087001E-1	6.100675E-1	6.390933E-1	6.505699E-1	6.293382E-1	6.913182E-1	6.744882E-1	6.395242E-1	6.122192E-1	6.828413E-1	6.065470E-1	6.308214E-1	6.570844E-1	6.225864E-1	6.664238E-1	6.010280E-1	6.719454E-1	6.360290E-1	6.326820E-1	6.230901E-1	5.989462E-1	7.024416E-1	6.742768E-1	6.422495E-1	6.009754E-1	6.636855E-1	6.112645E-1	6.349633E-1	6.885850E-1	6.646008E-1	6.576384E-1	6.285031E-1	6.351568E-1	6.972658E-1	6.458873E-1	6.417422E-1	5.853021E-1	6.370800E-1	6.438402E-1	6.680518E-1	6.595794E-1	6.499539E-1	6.510813E-1	6.590667E-1	7.063786E-1	6.516420E-1	6.335021E-1	6.420483E-1	6.244953E-1	7.027256E-1	6.560608E-1	6.632325E-1	7.104692E-1	7.199927E-1	6.718224E-1	6.636838E-1	6.303019E-1	6.688759E-1	6.561427E-1	6.468793E-1	6.122487E-1	6.614861E-1	6.381114E-1	6.592890E-1	6.412760E-1	6.496060E-1	6.648534E-1	6.688108E-1	6.641703E-1	6.456416E-1	6.684832E-1	6.082925E-1	5.984162E-1	6.568549E-1	6.683633E-1	6.287991E-1	6.030596E-1	6.766797E-1	7.144199E-1	6.798630E-1	6.704141E-1	6.497048E-1	6.276543E-1	5.803344E-1	5.936097E-1	6.344679E-1	6.665324E-1	7.025431E-1	6.520643E-1	5.934585E-1	6.723883E-1	6.643553E-1	6.497172E-1	6.236602E-1	6.535869E-1	7.276561E-1	6.639998E-1	7.226882E-1	6.665601E-1	6.296107E-1	6.611188E-1	6.810770E-1	6.835827E-1	6.470072E-1	5.891132E-1	6.330233E-1	6.567528E-1	6.291576E-1	6.785771E-1	6.284493E-1	6.705916E-1	6.628822E-1	6.828492E-1	6.576351E-1	6.103361E-1	6.862602E-1	6.242454E-1	6.999496E-1	5.907215E-1	6.573828E-1	6.799152E-1	6.042938E-1	6.449089E-1	6.232004E-1	6.252782E-1	6.494366E-1	6.683457E-1	6.981330E-1	5.914069E-1	6.365903E-1	6.506000E-1	6.224626E-1	6.619355E-1	6.938914E-1	6.571655E-1	6.778661E-1	6.532351E-1	7.225239E-1	6.809896E-1	6.387942E-1	6.543011E-1	6.763671E-1	6.446501E-1	6.357807E-1	6.690215E-1	6.258249E-1	6.180214E-1	6.957070E-1	6.578276E-1	6.222599E-1	6.717787E-1	6.618003E-1	6.493386E-1	6.076426E-1	6.019955E-1
2.880040E+2	5.453627E-1	5.716341E-1	5.329556E-1	5.188168E-1	5.369438E-1	5.631332E-1	5.492375E-1	5.719668E-1	5.561797E-1	4.617564E-1	5.345843E-1	5.080219E-1	5.091128E-1	5.397853E-1	5.505014E-1	5.951230E-1	5.161397E-1	5.311687E-1	5.381997E-1	5.369365E-1	5.276939E-1	5.623689E-1	5.503760E-1	5.190054E-1	5.821772E-1	5.694604E-1	5.507925E-1	5.154834E-1	5.502617E-1	5.362875E-1	5.590904E-1	5.607173E-1	5.335129E-1	4.981481E-1	5.744425E-1	5.547740E-1	5.419935E-1	4.886774E-1	5.402978E-1	5.495577E-1	5.330030E-1	5.379326E-1	5.735610E-1	5.563399E-1	5.789462E-1	5.965394E-1	5.658307E-1	5.507244E-1	5.519645E-1	5.565348E-1	5.480896E-1	5.068278E-1	5.081200E-1	5.653491E-1	5.518549E-1	5.444220E-1	5.331196E-1	5.300920E-1	5.725171E-1	5.847913E-1	5.337860E-1	5.963481E-1	6.009588E-1	5.217165E-1	5.550442E-1	5.662491E-1	6.110599E-1	5.757604E-1	5.583518E-1	5.510427E-1	5.646592E-1	5.732339E-1	5.484784E-1	5.887669E-1	5.226083E-1	5.347693E-1	5.428742E-1	5.700770E-1	5.558586E-1	5.304970E-1	5.871957E-1	5.882326E-1	5.914704E-1	5.399056E-1	5.328811E-1	5.673910E-1	5.466528E-1	5.053685E-1	5.108718E-1	5.355690E-1	6.112486E-1	5.328295E-1	5.672467E-1	5.839040E-1	5.164478E-1	5.349641E-1	5.885350E-1	5.872922E-1	5.030135E-1	5.406302E-1	5.836202E-1	5.517735E-1	5.916063E-1	5.201384E-1	5.452391E-1	5.620575E-1	5.991819E-1	5.587806E-1	5.266052E-1	5.540425E-1	5.703318E-1	5.481644E-1	5.878454E-1	5.293979E-1	5.527686E-1	6.106519E-1	5.783703E-1	5.222993E-1	5.810240E-1	5.599645E-1	5.713552E-1	5.133170E-1	5.304910E-1	5.317581E-1	5.969126E-1	6.101024E-1	5.785000E-1	5.349561E-1	5.608808E-1	5.728797E-1	5.391303E-1	6.081991E-1	5.482618E-1	5.218101E-1	5.342838E-1	5.468607E-1	5.713529E-1	5.260425E-1	6.009210E-1	5.183643E-1	5.856640E-1	4.869798E-1	5.256596E-1	5.593671E-1	5.925476E-1	5.087544E-1	5.270045E-1	5.387713E-1	5.890474E-1	5.540175E-1	5.889632E-1	5.257069E-1	5.707455E-1	5.345244E-1	5.707542E-1	5.156080E-1	5.968853E-1	6.174092E-1	5.335020E-1	5.513815E-1	5.156245E-1	5.922480E-1	5.695239E-1	5.120245E-1	4.932687E-1	5.121870E-1	5.237030E-1	5.126263E-1	5.069580E-1	6.172547E-1
2.882180E+2	7.265943E-1	7.793849E-1	7.229129E-1	7.189169E-1	7.990564E-1	7.071698E-1	7.259523E-1	6.915779E-1	6.609154E-1	6.931735E-1	7.131055E-1	7.133440E-1	6.881679E-1	7.207190E-1	7.016176E-1	6.788182E-1	7.212131E-1	6.546277E-1	7.332124E-1	7.191879E-1	7.193255E-1	7.133397E-1	7.296933E-1	7.042824E-1	7.079141E-1	7.485956E-1	7.841348E-1	7.417099E-1	7.046929E-1	7.276803E-1	7.303044E-1	7.206121E-1	7.087827E-1	6.745598E-1	7.430366E-1	7.064652E-1	7.169705E-1	6.820780E-1	6.707651E-1	6.900446E-1	7.314219E-1	6.329006E-1	6.934045E-1	6.990092E-1	7.562633E-1	7.477517E-1	6.514108E-1	6.983268E-1	7.572945E-1	7.056643E-1	6.620026E-1	7.676185E-1	7.439855E-1	7.034030E-1	6.818530E-1	6.807606E-1	7.193899E-1	7.419778E-1	7.389983E-1	7.144051E-1	7.776151E-1	7.276357E-1	7.343851E-1	6.687391E-1	7.731482E-1	7.370634E-1	7.205635E-1	7.743624E-1	7.258233E-1	6.682261E-1	7.243901E-1	7.436781E-1	6.866574E-1	7.123910E-1	7.286689E-1	6.961155E-1	7.666462E-1	6.598395E-1	6.879844E-1	6.983125E-1	7.367777E-1	7.442776E-1	7.687099E-1	7.218588E-1	7.404437E-1	6.918478E-1	7.107659E-1	7.006661E-1	7.376831E-1	7.868028E-1	7.055241E-1	6.863724E-1	7.095904E-1	7.147271E-1	7.157933E-1	6.984321E-1	7.405395E-1	7.408650E-1	7.497854E-1	6.926926E-1	6.991816E-1	7.073702E-1	7.307704E-1	7.098621E-1	8.110658E-1	7.087543E-1	8.016073E-1	7.225420E-1	7.135682E-1	6.869997E-1	7.500051E-1	7.198567E-1	7.121945E-1	7.255583E-1	6.666167E-1	7.124949E-1	7.253812E-1	7.499492E-1	7.198507E-1	6.847765E-1	7.252826E-1	7.343480E-1	7.022710E-1	7.206674E-1	6.915084E-1	7.136851E-1	7.142239E-1	7.006768E-1	7.342855E-1	7.820098E-1	7.325788E-1	7.395800E-1	7.402036E-1	7.330180E-1	7.421869E-1	7.274431E-1	7.386134E-1	7.078842E-1	6.665898E-1	6.928514E-1	6.776616E-1	7.113773E-1	7.931766E-1	7.101341E-1	7.371387E-1	6.823792E-1	7.012978E-1	7.051699E-1	7.061280E-1	6.808405E-1	7.485915E-1	7.207628E-1	7.029005E-1	7.011624E-1	7.417531E-1	7.145653E-1	7.099731E-1	6.780417E-1	7.686296E-1	7.095665E-1	7.471794E-1	7.684365E-1	6.987593E-1	7.081746E-1	7.457183E-1	7.557260E-1	8.020569E-1	6.892348E-1	7.279133E-1	8.116919E-1
2.884090E+2	1.037850E+0	1.064963E+0	9.401178E-1	9.361228E-1	1.003327E+0	9.364483E-1	1.001292E+0	8.615955E-1	1.041432E+0	9.811997E-1	9.475036E-1	9.438457E-1	9.612155E-1	1.012191E+0	1.094110E+0	9.835168E-1	9.536214E-1	9.681152E-1	9.946503E-1	9.516074E-1	1.029941E+0	1.029271E+0	1.006100E+0	9.247497E-1	1.042378E+0	9.908195E-1	9.887706E-1	9.808417E-1	1.055096E+0	9.004622E-1	9.435183E-1	9.693726E-1	9.622012E-1	9.997583E-1	1.052611E+0	1.019589E+0	9.888967E-1	1.033624E+0	9.507606E-1	9.810425E-1	1.060338E+0	9.817579E-1	9.393446E-1	9.824346E-1	9.943574E-1	1.024509E+0	9.571276E-1	9.760529E-1	1.015929E+0	1.001835E+0	9.509080E-1	9.523809E-1	1.033515E+0	9.911359E-1	1.001682E+0	9.746357E-1	9.739035E-1	1.005047E+0	1.020353E+0	9.910393E-1	9.897688E-1	9.983421E-1	1.059894E+0	9.857860E-1	9.737677E-1	1.018427E+0	1.002527E+0	9.824533E-1	9.603513E-1	1.036513E+0	9.740943E-1	9.778327E-1	1.003289E+0	1.046706E+0	1.031691E+0	8.940092E-1	1.007457E+0	1.001380E+0	9.964870E-1	9.900645E-1	9.518773E-1	9.553754E-1	9.091962E-1	9.972108E-1	1.012291E+0	9.838597E-1	9.524633E-1	9.162287E-1	9.874781E-1	9.850643E-1	1.010709E+0	9.900627E-1	9.924258E-1	1.034357E+0	9.686374E-1	9.003532E-1	1.056683E+0	9.966574E-1	1.017874E+0	9.903408E-1	1.000810E+0	1.041224E+0	9.783562E-1	9.999679E-1	9.645851E-1	9.923595E-1	9.599247E-1	9.817600E-1	9.482726E-1	9.817825E-1	1.018652E+0	1.005894E+0	1.015565E+0	9.913538E-1	9.526596E-1	1.012615E+0	9.986549E-1	1.018075E+0	1.031894E+0	1.020567E+0	1.008319E+0	1.088284E+0	9.863093E-1	9.323134E-1	9.866763E-1	1.027140E+0	9.993734E-1	1.047303E+0	1.018033E+0	9.325469E-1	9.690659E-1	9.420063E-1	1.028325E+0	1.006019E+0	9.877393E-1	9.595677E-1	1.001441E+0	9.010725E-1	9.479136E-1	9.082325E-1	9.701127E-1	9.569285E-1	1.009490E+0	9.501005E-1	9.554948E-1	9.698822E-1	1.045166E+0	9.744599E-1	1.040448E+0	9.964524E-1	9.892366E-1	1.000475E+0	1.021322E+0	9.202611E-1	1.011200E+0	9.753971E-1	9.709287E-1	9.871655E-1	9.199285E-1	9.561245E-1	9.855039E-1	1.010469E+0	9.897023E-1	9.729201E-1	9.959997E-1	9.640859E-1	1.010961E+0	9.113151E-1	8.698488E-1	9.866552E-1
2.886030E+2	1.388315E+0	1.413468E+0	1.301189E+0	1.281575E+0	1.286305E+0	1.393743E+0	1.448688E+0	1.360286E+0	1.332819E+0	1.284157E+0	1.264616E+0	1.372281E+0	1.288754E+0	1.382666E+0	1.396089E+0	1.414933E+0	1.422541E+0	1.383664E+0	1.355223E+0	1.310279E+0	1.278698E+0	1.336900E+0	1.344201E+0	1.313512E+0	1.305258E+0	1.393659E+0	1.343453E+0	1.351343E+0	1.351940E+0	1.280868E+0	1.341261E+0	1.392680E+0	1.317973E+0	1.323683E+0	1.315063E+0	1.276226E+0	1.356961E+0	1.283059E+0	1.331364E+0	1.279323E+0	1.307538E+0	1.290431E+0	1.335873E+0	1.355991E+0	1.329030E+0	1.293042E+0	1.329900E+0	1.324521E+0	1.329633E+0	1.267898E+0	1.274949E+0	1.281998E+0	1.298272E+0	1.381597E+0	1.329046E+0	1.259992E+0	1.348465E+0	1.301393E+0	1.266180E+0	1.424144E+0	1.305179E+0	1.296023E+0	1.306763E+0	1.379948E+0	1.397708E+0	1.287626E+0	1.326138E+0	1.306257E+0	1.318903E+0	1.324296E+0	1.327717E+0	1.315666E+0	1.329963E+0	1.262455E+0	1.335263E+0	1.329771E+0	1.407491E+0	1.409023E+0	1.288638E+0	1.292906E+0	1.279300E+0	1.315012E+0	1.386491E+0	1.322393E+0	1.318461E+0	1.265753E+0	1.328041E+0	1.260905E+0	1.320243E+0	1.343329E+0	1.359714E+0	1.349892E+0	1.330917E+0	1.355998E+0	1.267418E+0	1.301252E+0	1.316992E+0	1.330899E+0	1.411732E+0	1.354217E+0	1.262123E+0	1.341341E+0	1.311398E+0	1.270405E+0	1.318089E+0	1.236627E+0	1.392821E+0	1.306911E+0	1.246414E+0	1.318904E+0	1.247845E+0	1.365049E+0	1.458631E+0	1.374161E+0	1.302180E+0	1.362064E+0	1.234861E+0	1.296650E+0	1.337255E+0	1.360146E+0	1.374138E+0	1.256489E+0	1.317345E+0	1.352882E+0	1.389835E+0	1.395399E+0	1.381978E+0	1.284264E+0	1.279079E+0	1.340186E+0	1.402288E+0	1.338963E+0	1.319487E+0	1.354100E+0	1.329076E+0	1.256135E+0	1.246226E+0	1.278298E+0	1.357559E+0	1.304434E+0	1.362409E+0	1.244224E+0	1.361931E+0	1.345874E+0	1.406228E+0	1.318978E+0	1.322265E+0	1.360337E+0	1.311753E+0	1.336066E+0	1.400346E+0	1.352337E+0	1.335162E+0	1.256519E+0	1.368286E+0	1.389563E+0	1.423888E+0	1.274400E+0	1.318770E+0	1.349108E+0	1.274047E+0	1.424427E+0	1.417231E+0	1.315939E+0	1.294284E+0	1.368099E+0	1.300638E+0	1.232791E+0	1.178586E+0	1.369600E+0
2.888240E+2	1.134515E+0	1.251114E+0	1.166629E+0	1.229758E+0	1.171147E+0	1.223448E+0	1.214504E+0	1.191829E+0	1.208841E+0	1.166346E+0	1.181652E+0	1.238421E+0	1.262838E+0	1.230847E+0	1.216443E+0	1.229080E+0	1.198788E+0	1.159530E+0	1.206020E+0	1.213492E+0	1.171422E+0	1.113728E+0	1.199759E+0	1.147911E+0	1.188233E+0	1.171768E+0	1.204238E+0	1.189341E+0	1.122744E+0	1.137251E+0	1.213621E+0	1.143338E+0	1.126771E+0	1.215610E+0	1.123071E+0	1.200869E+0	1.171117E+0	1.119478E+0	1.104801E+0	1.160497E+0	1.188798E+0	1.107614E+0	1.177759E+0	1.193139E+0	1.140152E+0	1.205378E+0	1.144501E+0	1.186221E+0	1.200909E+0	1.180239E+0	1.176834E+0	1.147722E+0	1.116375E+0	1.175528E+0	1.176358E+0	1.119509E+0	1.148369E+0	1.213433E+0	1.214469E+0	1.249434E+0	1.152363E+0	1.195515E+0	1.147473E+0	1.227733E+0	1.219767E+0	1.160633E+0	1.251385E+0	1.226007E+0	1.173249E+0	1.222788E+0	1.206470E+0	1.143408E+0	1.128979E+0	1.153284E+0	1.215460E+0	1.128296E+0	1.177364E+0	1.183799E+0	1.185084E+0	1.158096E+0	1.174460E+0	1.176965E+0	1.149515E+0	1.178740E+0	1.178260E+0	1.254305E+0	1.178031E+0	1.151832E+0	1.178687E+0	1.256654E+0	1.207719E+0	1.190612E+0	1.171293E+0	1.217450E+0	1.153982E+0	1.210140E+0	1.233379E+0	1.111372E+0	1.196879E+0	1.252213E+0	1.202626E+0	1.195557E+0	1.185263E+0	1.173257E+0	1.171968E+0	1.129084E+0	1.194431E+0	1.285450E+0	1.141189E+0	1.275369E+0	1.183845E+0	1.121137E+0	1.226515E+0	1.185551E+0	1.177464E+0	1.158424E+0	1.202011E+0	1.198582E+0	1.225775E+0	1.169972E+0	1.247249E+0	1.222892E+0	1.142811E+0	1.245724E+0	1.084420E+0	1.152248E+0	1.144541E+0	1.178266E+0	1.181088E+0	1.151480E+0	1.181585E+0	1.224525E+0	1.203222E+0	1.117714E+0	1.211988E+0	1.139673E+0	1.177863E+0	1.157837E+0	1.257856E+0	1.120410E+0	1.168200E+0	1.208992E+0	1.217439E+0	1.231603E+0	1.233133E+0	1.108811E+0	1.138465E+0	1.192654E+0	1.241537E+0	1.167309E+0	1.219269E+0	1.135777E+0	1.188383E+0	1.142547E+0	1.214182E+0	1.200406E+0	1.191529E+0	1.186178E+0	1.181193E+0	1.172567E+0	1.128716E+0	1.208749E+0	1.192003E+0	1.190466E+0	1.172891E+0	1.198802E+0	1.213388E+0	1.258148E+0	1.043839E+0	1.136550E+0
2.890080E+2	9.442778E-1	9.268093E-1	8.687513E-1	8.584953E-1	9.144414E-1	9.065763E-1	9.530160E-1	8.456737E-1	8.276785E-1	8.496945E-1	8.943274E-1	9.467368E-1	9.605750E-1	8.901884E-1	9.266548E-1	8.708430E-1	8.390763E-1	9.389207E-1	9.142706E-1	8.903625E-1	9.183596E-1	8.528694E-1	8.931110E-1	8.584315E-1	9.340386E-1	8.836333E-1	9.103654E-1	8.684259E-1	9.600511E-1	8.282013E-1	8.743306E-1	8.721141E-1	8.351442E-1	9.084734E-1	9.048993E-1	9.146489E-1	8.758036E-1	8.354748E-1	9.048321E-1	8.898845E-1	8.606495E-1	8.763660E-1	8.817681E-1	8.596939E-1	8.991770E-1	9.269435E-1	8.793084E-1	8.079696E-1	9.049170E-1	9.249421E-1	8.777348E-1	8.740864E-1	8.724100E-1	9.191471E-1	8.574577E-1	8.874120E-1	9.109586E-1	8.680449E-1	8.712986E-1	8.772727E-1	9.102537E-1	9.201013E-1	8.860311E-1	8.818573E-1	9.255694E-1	8.823127E-1	9.000998E-1	9.605939E-1	9.336194E-1	8.974640E-1	8.660122E-1	8.933777E-1	9.311667E-1	8.854026E-1	9.048751E-1	8.750930E-1	8.546983E-1	9.335347E-1	8.949640E-1	8.771101E-1	8.782837E-1	9.070524E-1	9.496327E-1	8.656594E-1	9.088331E-1	9.557499E-1	8.941975E-1	8.578599E-1	8.115376E-1	8.701349E-1	8.705268E-1	9.010449E-1	9.515909E-1	9.268868E-1	9.503907E-1	9.008232E-1	8.774393E-1	8.972879E-1	8.757683E-1	8.615926E-1	9.262084E-1	9.070335E-1	9.712037E-1	8.325941E-1	9.229699E-1	8.926301E-1	8.731245E-1	9.193811E-1	8.302524E-1	9.361302E-1	8.634195E-1	9.521334E-1	8.982151E-1	8.707544E-1	9.089652E-1	8.864448E-1	9.102631E-1	8.989293E-1	9.194951E-1	8.780150E-1	9.041970E-1	9.013919E-1	8.789455E-1	9.292980E-1	8.548854E-1	9.149892E-1	9.356576E-1	9.077673E-1	9.327724E-1	8.819207E-1	9.172383E-1	8.925768E-1	9.654875E-1	9.096956E-1	9.615520E-1	8.971402E-1	9.369947E-1	9.124566E-1	9.336279E-1	8.704057E-1	8.682532E-1	8.593433E-1	9.749012E-1	9.100045E-1	9.542573E-1	9.175416E-1	8.926546E-1	8.469655E-1	8.945014E-1	8.473955E-1	9.165852E-1	9.197884E-1	8.830948E-1	8.466255E-1	8.862702E-1	9.260361E-1	9.318388E-1	9.901201E-1	8.803660E-1	8.141266E-1	8.532077E-1	9.111151E-1	9.312206E-1	9.112751E-1	8.602478E-1	9.502955E-1	8.583127E-1	8.719115E-1	8.537448E-1	1.062934E+0
2.892050E+2	7.666758E-1	8.252926E-1	7.914555E-1	7.928679E-1	7.561860E-1	8.239107E-1	8.227916E-1	7.450275E-1	8.329517E-1	8.200367E-1	7.695332E-1	7.811061E-1	7.617599E-1	7.974911E-1	7.780970E-1	7.632716E-1	7.704809E-1	7.778473E-1	7.188793E-1	7.662938E-1	7.606100E-1	7.867651E-1	7.784500E-1	8.034254E-1	8.289862E-1	8.164043E-1	7.954806E-1	8.422440E-1	7.167559E-1	7.318137E-1	7.942655E-1	7.997302E-1	8.025652E-1	7.512317E-1	8.247381E-1	8.101295E-1	8.066834E-1	7.825688E-1	7.574271E-1	7.931255E-1	8.011644E-1	8.767163E-1	7.825805E-1	7.890910E-1	8.330607E-1	7.919617E-1	8.008593E-1	7.878973E-1	8.408562E-1	7.822321E-1	7.786537E-1	7.845558E-1	7.657689E-1	8.035071E-1	8.047250E-1	8.169050E-1	7.522306E-1	8.479162E-1	8.285716E-1	7.760886E-1	7.896306E-1	7.469523E-1	7.746673E-1	7.806401E-1	8.293599E-1	7.481571E-1	8.147918E-1	7.792024E-1	7.556357E-1	8.454638E-1	7.919222E-1	8.160332E-1	7.384064E-1	8.446017E-1	7.591622E-1	7.742240E-1	7.802606E-1	7.002196E-1	8.019212E-1	7.879966E-1	8.112981E-1	7.990284E-1	7.566317E-1	7.899651E-1	7.834661E-1	8.187452E-1	7.776482E-1	7.757893E-1	8.012141E-1	7.917585E-1	8.433137E-1	7.636023E-1	8.017910E-1	7.954255E-1	7.637073E-1	7.990115E-1	8.248610E-1	7.985411E-1	8.495254E-1	8.107061E-1	7.153304E-1	8.246609E-1	8.098161E-1	7.940857E-1	7.656404E-1	7.406630E-1	7.653758E-1	8.065001E-1	7.225669E-1	7.882610E-1	8.162838E-1	7.870970E-1	7.705444E-1	7.847849E-1	7.878694E-1	8.092323E-1	7.672211E-1	7.591276E-1	8.202928E-1	7.880840E-1	8.194158E-1	7.827435E-1	7.844891E-1	7.915506E-1	7.906644E-1	8.169247E-1	7.932545E-1	7.645661E-1	7.708656E-1	8.199874E-1	7.711075E-1	7.994685E-1	7.541032E-1	8.806543E-1	8.056874E-1	8.551104E-1	8.208340E-1	7.777879E-1	8.070987E-1	7.351501E-1	8.237928E-1	7.823253E-1	7.953823E-1	7.685748E-1	7.486373E-1	8.414429E-1	7.940835E-1	7.716164E-1	7.282943E-1	8.029309E-1	8.296674E-1	8.238156E-1	7.854620E-1	8.239695E-1	8.411841E-1	8.162114E-1	7.775876E-1	8.230029E-1	7.639319E-1	7.834624E-1	7.314709E-1	8.608421E-1	8.317086E-1	8.017089E-1	7.357449E-1	7.857451E-1	7.860609E-1	7.534059E-1	7.473609E-1	7.945795E-1
2.894050E+2	8.514672E-1	9.117735E-1	8.130448E-1	8.157335E-1	8.071089E-1	8.278975E-1	9.249341E-1	8.473586E-1	8.036417E-1	8.131827E-1	8.283463E-1	9.281902E-1	8.103997E-1	8.503802E-1	8.549383E-1	8.248176E-1	8.595373E-1	8.448319E-1	8.179300E-1	7.699160E-1	8.693998E-1	8.155495E-1	8.175415E-1	8.545116E-1	8.177029E-1	8.572638E-1	8.279033E-1	8.496784E-1	7.916129E-1	8.167744E-1	8.969112E-1	8.708591E-1	8.352362E-1	8.176595E-1	8.882006E-1	8.714430E-1	8.468369E-1	8.437639E-1	8.053634E-1	8.500952E-1	8.768745E-1	9.071292E-1	8.136264E-1	8.127416E-1	8.522960E-1	8.446730E-1	7.802787E-1	7.964859E-1	8.917016E-1	8.122617E-1	8.451899E-1	7.818415E-1	8.805156E-1	9.215968E-1	8.641965E-1	8.242609E-1	8.362346E-1	8.798454E-1	8.940543E-1	8.578798E-1	8.085740E-1	8.487725E-1	8.974294E-1	8.753808E-1	8.386925E-1	8.911258E-1	9.294297E-1	9.016971E-1	8.082961E-1	8.394974E-1	8.139660E-1	7.771222E-1	8.014787E-1	8.661626E-1	8.534554E-1	8.317221E-1	9.215962E-1	8.432280E-1	8.608271E-1	8.512388E-1	8.876999E-1	8.535243E-1	8.940526E-1	8.399917E-1	8.119217E-1	8.537712E-1	8.205139E-1	8.092546E-1	8.498606E-1	8.637552E-1	8.266472E-1	8.093702E-1	8.586388E-1	8.341729E-1	8.442317E-1	7.988480E-1	8.606077E-1	8.515647E-1	8.553527E-1	8.615416E-1	8.544218E-1	9.879967E-1	9.269865E-1	8.550279E-1	8.341614E-1	8.566201E-1	8.863751E-1	7.870411E-1	8.355236E-1	8.346287E-1	8.475704E-1	8.411014E-1	8.791042E-1	8.321080E-1	8.257077E-1	8.998455E-1	8.343201E-1	9.015827E-1	9.023042E-1	8.435663E-1	8.947465E-1	8.472148E-1	8.389297E-1	8.609928E-1	8.534525E-1	8.966845E-1	7.998493E-1	8.132439E-1	8.663372E-1	8.291830E-1	8.733938E-1	8.070735E-1	7.884585E-1	8.617676E-1	8.686692E-1	8.093286E-1	8.748322E-1	8.214218E-1	8.647626E-1	7.942765E-1	8.741303E-1	8.038697E-1	8.913414E-1	7.988926E-1	8.797925E-1	8.056089E-1	8.404605E-1	8.515846E-1	8.617641E-1	8.228058E-1	8.615715E-1	8.296343E-1	8.647484E-1	8.433819E-1	8.729202E-1	8.736050E-1	8.666127E-1	8.323030E-1	9.154421E-1	8.390555E-1	7.634299E-1	9.195971E-1	8.995673E-1	8.277202E-1	8.589909E-1	8.712921E-1	8.462818E-1	8.299536E-1	8.004781E-1	7.675439E-1
2.896030E+2	9.314782E-1	9.415781E-1	9.144934E-1	9.792482E-1	9.322880E-1	8.921373E-1	8.597479E-1	8.769639E-1	8.731263E-1	8.976359E-1	9.273827E-1	9.237704E-1	8.940670E-1	9.474040E-1	8.846086E-1	8.773727E-1	9.747867E-1	9.065513E-1	1.012557E+0	9.166073E-1	9.088229E-1	8.993614E-1	9.322199E-1	9.385613E-1	8.992950E-1	8.881052E-1	8.701974E-1	8.352748E-1	8.739717E-1	9.038504E-1	8.782892E-1	8.564427E-1	8.276563E-1	9.090349E-1	9.461209E-1	8.748304E-1	9.466446E-1	8.328318E-1	9.034908E-1	8.888267E-1	9.014705E-1	9.142626E-1	8.848308E-1	9.203236E-1	8.914012E-1	9.266085E-1	9.068633E-1	8.693193E-1	9.489426E-1	8.910464E-1	8.466642E-1	9.112473E-1	9.131161E-1	8.790031E-1	8.823375E-1	8.490160E-1	8.868457E-1	8.436744E-1	8.937679E-1	9.522829E-1	8.973318E-1	9.065845E-1	8.504841E-1	9.141688E-1	9.359894E-1	8.578803E-1	8.835287E-1	8.966389E-1	9.252811E-1	1.006678E+0	9.203504E-1	8.618686E-1	1.004511E+0	9.006824E-1	9.857105E-1	8.811211E-1	9.198626E-1	9.178841E-1	9.181668E-1	8.923135E-1	9.112481E-1	8.972594E-1	8.815934E-1	9.176818E-1	8.325831E-1	8.992326E-1	8.837840E-1	9.130390E-1	9.019281E-1	9.351951E-1	9.338413E-1	9.220602E-1	9.249787E-1	9.133285E-1	8.946929E-1	9.206878E-1	9.399080E-1	9.279071E-1	8.578471E-1	9.218695E-1	8.781053E-1	9.570886E-1	9.440950E-1	8.613984E-1	9.061548E-1	8.948762E-1	9.401857E-1	8.616152E-1	9.322898E-1	8.677492E-1	9.661672E-1	9.693769E-1	8.976958E-1	9.150424E-1	8.883128E-1	9.052812E-1	9.516077E-1	9.936346E-1	8.945206E-1	8.636663E-1	9.438202E-1	1.025406E+0	9.023424E-1	1.021496E+0	9.584451E-1	8.949181E-1	8.600833E-1	8.865553E-1	8.617526E-1	8.797386E-1	8.757005E-1	9.518857E-1	9.491815E-1	8.888002E-1	9.314138E-1	8.612449E-1	8.899857E-1	9.549055E-1	8.800164E-1	9.657914E-1	8.617406E-1	9.220620E-1	9.821359E-1	9.777615E-1	8.967537E-1	9.059386E-1	8.818052E-1	8.944327E-1	9.050854E-1	9.372688E-1	9.239738E-1	8.723684E-1	9.165062E-1	9.160839E-1	9.289214E-1	9.525919E-1	9.126906E-1	9.084447E-1	8.931851E-1	9.782936E-1	8.395407E-1	9.729543E-1	8.679154E-1	8.802845E-1	9.672617E-1	8.891480E-1	9.553334E-1	8.168300E-1	8.732355E-1	9.458343E-1
2.898050E+2	7.887517E-1	7.307125E-1	7.261978E-1	8.012825E-1	7.726339E-1	8.067304E-1	7.516688E-1	7.893538E-1	7.407773E-1	7.505737E-1	7.621744E-1	8.106578E-1	7.421684E-1	7.434666E-1	7.761770E-1	7.692953E-1	8.388221E-1	7.388723E-1	7.942044E-1	7.990650E-1	7.786470E-1	7.208288E-1	7.531585E-1	7.723915E-1	7.579901E-1	8.012185E-1	7.825165E-1	8.219827E-1	7.969709E-1	7.533072E-1	8.360163E-1	7.884303E-1	7.684883E-1	7.358368E-1	8.164226E-1	7.937342E-1	7.163267E-1	8.020232E-1	7.688363E-1	7.627688E-1	7.666018E-1	7.538245E-1	8.290747E-1	7.412449E-1	7.385932E-1	8.088790E-1	8.022786E-1	7.504536E-1	7.998286E-1	8.337893E-1	7.508258E-1	7.610674E-1	7.582475E-1	7.796365E-1	8.203752E-1	7.355582E-1	7.607175E-1	7.795136E-1	7.572005E-1	7.725365E-1	7.601740E-1	7.514524E-1	7.889296E-1	7.808901E-1	7.420490E-1	7.600656E-1	8.194494E-1	7.702915E-1	7.372514E-1	7.760781E-1	7.896247E-1	7.227856E-1	7.620165E-1	8.058098E-1	7.261714E-1	6.938105E-1	7.180750E-1	7.931017E-1	7.650685E-1	7.479035E-1	7.490460E-1	7.822747E-1	8.113803E-1	7.728774E-1	8.019320E-1	7.687347E-1	7.898204E-1	7.057509E-1	7.497856E-1	7.893095E-1	7.935001E-1	7.561561E-1	7.637978E-1	7.833208E-1	7.731306E-1	7.506407E-1	7.872126E-1	7.368034E-1	7.380949E-1	7.705821E-1	8.322422E-1	7.609732E-1	8.005776E-1	8.069142E-1	8.045841E-1	8.403493E-1	7.534140E-1	7.828711E-1	7.891174E-1	8.045236E-1	7.972930E-1	7.602693E-1	7.727367E-1	8.142408E-1	8.076731E-1	8.170038E-1	7.624562E-1	8.122628E-1	8.030426E-1	7.580271E-1	8.095022E-1	7.578105E-1	8.142802E-1	7.204806E-1	8.228004E-1	8.329078E-1	7.860765E-1	8.024643E-1	7.346481E-1	7.538216E-1	7.643657E-1	7.347995E-1	7.951743E-1	7.923086E-1	7.944519E-1	7.351105E-1	8.069811E-1	7.871393E-1	7.763720E-1	7.260571E-1	7.862494E-1	7.527870E-1	7.836089E-1	7.433584E-1	8.097396E-1	7.209560E-1	7.515666E-1	7.769137E-1	8.059491E-1	7.798202E-1	7.848761E-1	7.893220E-1	8.153974E-1	7.782927E-1	8.033128E-1	7.828428E-1	7.855358E-1	7.735788E-1	8.166025E-1	7.776808E-1	7.845010E-1	8.212413E-1	7.740291E-1	8.188733E-1	7.349039E-1	7.259957E-1	8.160489E-1	7.643865E-1	8.108040E-1	7.571233E-1
2.900030E+2	6.400814E-1	6.490010E-1	6.373011E-1	6.027099E-1	6.301297E-1	6.187950E-1	6.701175E-1	7.156215E-1	6.669564E-1	6.857522E-1	7.180014E-1	6.645765E-1	6.521300E-1	6.715834E-1	6.756846E-1	6.739937E-1	7.330736E-1	6.795605E-1	7.002449E-1	7.022213E-1	6.527084E-1	6.303942E-1	6.461856E-1	6.846085E-1	6.803459E-1	6.699036E-1	6.636732E-1	6.648255E-1	6.158533E-1	6.033824E-1	6.386849E-1	7.251298E-1	6.163054E-1	6.644236E-1	6.858650E-1	6.813478E-1	6.791832E-1	6.653878E-1	7.318063E-1	7.192106E-1	6.749746E-1	6.977972E-1	6.188399E-1	6.954886E-1	6.377773E-1	6.782041E-1	6.702789E-1	7.109800E-1	6.725952E-1	6.982467E-1	6.638084E-1	6.513734E-1	6.443677E-1	6.619640E-1	6.606558E-1	6.674484E-1	6.642623E-1	7.174547E-1	6.954766E-1	6.955600E-1	6.846236E-1	6.578762E-1	6.732386E-1	6.403240E-1	6.933524E-1	6.887085E-1	6.749966E-1	6.427297E-1	6.680645E-1	6.780446E-1	6.758612E-1	6.247592E-1	6.858344E-1	6.548735E-1	6.718338E-1	6.274934E-1	7.181339E-1	6.973263E-1	6.485903E-1	6.103248E-1	6.019489E-1	6.122549E-1	6.088945E-1	6.477831E-1	6.727446E-1	7.329736E-1	6.293575E-1	6.202146E-1	6.373825E-1	6.622564E-1	6.539535E-1	6.991872E-1	6.565685E-1	6.951794E-1	6.583079E-1	6.660834E-1	6.938922E-1	6.473256E-1	6.672360E-1	6.637733E-1	6.661051E-1	6.527839E-1	6.393644E-1	6.611438E-1	6.663450E-1	6.986945E-1	6.820738E-1	6.605300E-1	6.162013E-1	7.095216E-1	6.635835E-1	6.016329E-1	7.174337E-1	6.669909E-1	6.264028E-1	6.528398E-1	6.266137E-1	6.853352E-1	6.702695E-1	6.801350E-1	6.553176E-1	6.208146E-1	5.698216E-1	6.804406E-1	6.746356E-1	7.270441E-1	6.474897E-1	6.684424E-1	6.180226E-1	6.827821E-1	6.536508E-1	6.452285E-1	6.823746E-1	7.195557E-1	6.059153E-1	6.675708E-1	6.387709E-1	7.452449E-1	6.507238E-1	6.160095E-1	6.100347E-1	6.333111E-1	7.013165E-1	6.631869E-1	6.828994E-1	6.689610E-1	7.235233E-1	6.500893E-1	6.387051E-1	6.415334E-1	6.750012E-1	6.602074E-1	6.903731E-1	6.695588E-1	6.247629E-1	7.019387E-1	6.470823E-1	6.709940E-1	6.436637E-1	6.801781E-1	6.235606E-1	6.719122E-1	6.569955E-1	6.621915E-1	7.349886E-1	7.691476E-1	6.520964E-1	6.755053E-1	6.602687E-1	5.653942E-1
2.905220E+2	6.420172E-1	6.397260E-1	6.507538E-1	6.138863E-1	6.121144E-1	6.373879E-1	6.307489E-1	6.211799E-1	6.079660E-1	5.611113E-1	6.905004E-1	6.022685E-1	5.792549E-1	6.219422E-1	5.955446E-1	6.501742E-1	6.262341E-1	6.393043E-1	6.206352E-1	6.385734E-1	6.090650E-1	6.196589E-1	6.803698E-1	6.317000E-1	6.507684E-1	6.431784E-1	6.301332E-1	6.389719E-1	6.136642E-1	5.959348E-1	6.711899E-1	6.174244E-1	6.519354E-1	6.154421E-1	6.116267E-1	6.492755E-1	6.612314E-1	6.140530E-1	6.312673E-1	6.365981E-1	6.593986E-1	6.433098E-1	6.810517E-1	6.325921E-1	6.462833E-1	6.447403E-1	6.347526E-1	6.374409E-1	6.315758E-1	6.303311E-1	5.877764E-1	6.297053E-1	6.528487E-1	7.058321E-1	6.437326E-1	6.303960E-1	6.674449E-1	6.623245E-1	6.777887E-1	6.329029E-1	5.865492E-1	6.081642E-1	6.278189E-1	6.454666E-1	6.258195E-1	6.384985E-1	6.815759E-1	6.155364E-1	6.259918E-1	6.506988E-1	6.184302E-1	6.408289E-1	6.053335E-1	5.732834E-1	7.151280E-1	6.044924E-1	6.608436E-1	6.340200E-1	6.292190E-1	6.299637E-1	6.226546E-1	6.439101E-1	6.334282E-1	6.430027E-1	6.218581E-1	6.110701E-1	6.483745E-1	6.104780E-1	6.461398E-1	7.073043E-1	6.688747E-1	6.693643E-1	6.569689E-1	6.517485E-1	6.486143E-1	6.400994E-1	6.685903E-1	6.080733E-1	6.174128E-1	5.927314E-1	5.648711E-1	6.721658E-1	6.478754E-1	6.619837E-1	6.384049E-1	6.639879E-1	6.487812E-1	5.761506E-1	6.901873E-1	6.382657E-1	6.688936E-1	6.468305E-1	6.655669E-1	6.288461E-1	6.411027E-1	6.291520E-1	6.781306E-1	6.189818E-1	6.713603E-1	6.095478E-1	5.804444E-1	6.494336E-1	6.324954E-1	5.904158E-1	6.414443E-1	6.396668E-1	6.858672E-1	6.102931E-1	6.401598E-1	5.896331E-1	5.842444E-1	6.287887E-1	6.038654E-1	6.518858E-1	6.529592E-1	5.866922E-1	6.456330E-1	6.571221E-1	6.353326E-1	6.270253E-1	6.217068E-1	6.606804E-1	6.507232E-1	6.545753E-1	5.579597E-1	6.082449E-1	6.140353E-1	6.414650E-1	6.454073E-1	6.503215E-1	7.016218E-1	6.168515E-1	6.448786E-1	6.461699E-1	6.640267E-1	7.116067E-1	6.422255E-1	6.266247E-1	6.196875E-1	6.015164E-1	6.433973E-1	6.902883E-1	6.617313E-1	6.559867E-1	6.010429E-1	6.524666E-1	5.991077E-1	6.768410E-1	6.414511E-1	6.970203E-1
2.910040E+2	9.770116E-1	8.115938E-1	9.416740E-1	8.411029E-1	8.743353E-1	8.973126E-1	8.923202E-1	9.284288E-1	8.134990E-1	9.004664E-1	8.937129E-1	8.694108E-1	9.090840E-1	9.047229E-1	8.772422E-1	9.738551E-1	9.312051E-1	9.328826E-1	8.705873E-1	8.347923E-1	9.410216E-1	9.130771E-1	9.478333E-1	8.827215E-1	8.863059E-1	9.280478E-1	8.846288E-1	9.345939E-1	8.664589E-1	8.386116E-1	8.997219E-1	9.006132E-1	8.903360E-1	8.661535E-1	9.827792E-1	8.932190E-1	8.862526E-1	8.805545E-1	9.097633E-1	9.087601E-1	9.315680E-1	8.869909E-1	9.543543E-1	9.030421E-1	9.057265E-1	8.876976E-1	8.940952E-1	9.008606E-1	9.345811E-1	8.995691E-1	8.854948E-1	9.153357E-1	8.291347E-1	9.305016E-1	8.994951E-1	8.824698E-1	8.765473E-1	9.276351E-1	8.271378E-1	9.576118E-1	8.844659E-1	9.266241E-1	9.244255E-1	9.482734E-1	9.936723E-1	8.960654E-1	9.337028E-1	9.044343E-1	8.849291E-1	9.225304E-1	9.004874E-1	8.654917E-1	8.862536E-1	9.721756E-1	9.012669E-1	8.724856E-1	8.755602E-1	9.027333E-1	9.180961E-1	8.970532E-1	9.627931E-1	8.821291E-1	9.413100E-1	8.906895E-1	8.432425E-1	8.568060E-1	9.000748E-1	8.453835E-1	8.852027E-1	8.861062E-1	8.975593E-1	9.684998E-1	8.747503E-1	9.136452E-1	8.889229E-1	8.685815E-1	9.698160E-1	8.803723E-1	9.949954E-1	9.368124E-1	8.580323E-1	9.398722E-1	9.172653E-1	8.683971E-1	9.203697E-1	9.136901E-1	9.722966E-1	8.451014E-1	8.653125E-1	9.012102E-1	9.503438E-1	9.022702E-1	8.868357E-1	8.657738E-1	8.939165E-1	8.916085E-1	9.196985E-1	9.531298E-1	9.193194E-1	8.784648E-1	8.727239E-1	8.719573E-1	9.291167E-1	8.794167E-1	8.403827E-1	9.497263E-1	9.026486E-1	9.415487E-1	9.301216E-1	9.154648E-1	8.712375E-1	8.949033E-1	9.693144E-1	8.562953E-1	9.505321E-1	8.708188E-1	9.533941E-1	8.622965E-1	9.651341E-1	8.642320E-1	9.085219E-1	9.366943E-1	8.992668E-1	8.903706E-1	1.012848E+0	8.954103E-1	9.110248E-1	9.599838E-1	8.930936E-1	9.143988E-1	9.046770E-1	8.781650E-1	9.000762E-1	8.861829E-1	9.166308E-1	9.382466E-1	8.720952E-1	9.229213E-1	8.918604E-1	9.314765E-1	8.453122E-1	9.233004E-1	8.902328E-1	9.320460E-1	9.703491E-1	9.143248E-1	8.780825E-1	8.948295E-1	8.537662E-1	1.038044E+0
2.914980E+2	1.227704E+0	1.195171E+0	1.214192E+0	1.218644E+0	1.157615E+0	1.171057E+0	1.152099E+0	1.159475E+0	1.155816E+0	1.049609E+0	1.138867E+0	1.155312E+0	1.124908E+0	1.174862E+0	1.182425E+0	1.211349E+0	1.192409E+0	1.116024E+0	1.150951E+0	1.229421E+0	1.167154E+0	1.187468E+0	1.155552E+0	1.155745E+0	1.173616E+0	1.103500E+0	1.157996E+0	1.070128E+0	1.113890E+0	1.108088E+0	1.161552E+0	1.176396E+0	1.221812E+0	1.210595E+0	1.244443E+0	1.188075E+0	1.220745E+0	1.193544E+0	1.168702E+0	1.216763E+0	1.123431E+0	1.190768E+0	1.216784E+0	1.192707E+0	1.167790E+0	1.273624E+0	1.202077E+0	1.122980E+0	1.195422E+0	1.198608E+0	1.114473E+0	1.201047E+0	1.070359E+0	1.121464E+0	1.302065E+0	1.251051E+0	1.201151E+0	1.177694E+0	1.110104E+0	1.158529E+0	1.179698E+0	1.160344E+0	1.186808E+0	1.169744E+0	1.155285E+0	1.146994E+0	1.268163E+0	1.223239E+0	1.086600E+0	1.173938E+0	1.190070E+0	1.201466E+0	1.161482E+0	1.198974E+0	1.209862E+0	1.169622E+0	1.156315E+0	1.213571E+0	1.197388E+0	1.166750E+0	1.116453E+0	1.180460E+0	1.276703E+0	1.216391E+0	1.190230E+0	1.149447E+0	1.135048E+0	1.204097E+0	1.117414E+0	1.270246E+0	1.248524E+0	1.184521E+0	1.178521E+0	1.196749E+0	1.129481E+0	1.207288E+0	1.131419E+0	1.032952E+0	1.233496E+0	1.142976E+0	1.107052E+0	1.201465E+0	1.246438E+0	1.166238E+0	1.195132E+0	1.244314E+0	1.163225E+0	1.180655E+0	1.167389E+0	1.254405E+0	1.173727E+0	1.190196E+0	1.191393E+0	1.220450E+0	1.233797E+0	1.241588E+0	1.260605E+0	1.148881E+0	1.177011E+0	1.172947E+0	1.269024E+0	1.218109E+0	1.163975E+0	1.190430E+0	1.197779E+0	1.204039E+0	1.168023E+0	1.181817E+0	1.173040E+0	1.217354E+0	1.203894E+0	1.187269E+0	1.117223E+0	1.166682E+0	1.261881E+0	1.079250E+0	1.269565E+0	1.184706E+0	1.166759E+0	1.203983E+0	1.195437E+0	1.142082E+0	1.205673E+0	1.183074E+0	1.123825E+0	1.180789E+0	1.257812E+0	1.222410E+0	1.170707E+0	1.124597E+0	1.198313E+0	1.149135E+0	1.127219E+0	1.220007E+0	1.211169E+0	1.266271E+0	1.194747E+0	1.211698E+0	1.131427E+0	1.169944E+0	1.182708E+0	1.217583E+0	1.236514E+0	1.144591E+0	1.199728E+0	1.186044E+0	1.203657E+0	1.133218E+0	1.219925E+0	1.050395E+0
2.920030E+2	1.190661E+0	1.185640E+0	1.140330E+0	1.151698E+0	1.200182E+0	1.099681E+0	1.173638E+0	1.151197E+0	1.148792E+0	1.121914E+0	1.190309E+0	1.184493E+0	1.135392E+0	1.127773E+0	1.173636E+0	1.162205E+0	1.196248E+0	1.178201E+0	1.245781E+0	1.181275E+0	1.226241E+0	1.254980E+0	1.156861E+0	1.168331E+0	1.158416E+0	1.174384E+0	1.126444E+0	1.153042E+0	1.130865E+0	1.066050E+0	1.072564E+0	1.111485E+0	1.111071E+0	1.187722E+0	1.197130E+0	1.250895E+0	1.090176E+0	1.168147E+0	1.150137E+0	1.153032E+0	1.189932E+0	1.181273E+0	1.197675E+0	1.205115E+0	1.103532E+0	1.162751E+0	1.138832E+0	1.162353E+0	1.166514E+0	1.154906E+0	1.298426E+0	1.103911E+0	1.173892E+0	1.064809E+0	1.255691E+0	1.232935E+0	1.215003E+0	1.234790E+0	1.191068E+0	1.261058E+0	1.066983E+0	1.191337E+0	1.217668E+0	1.150669E+0	1.234119E+0	1.161247E+0	1.275471E+0	1.194621E+0	1.221443E+0	1.199873E+0	1.186318E+0	1.127299E+0	1.194096E+0	1.162175E+0	1.263613E+0	1.110528E+0	1.120549E+0	1.151006E+0	1.229634E+0	1.136400E+0	1.164850E+0	1.161740E+0	1.186904E+0	1.202913E+0	1.158394E+0	1.174443E+0	1.165397E+0	1.208098E+0	1.147325E+0	1.284576E+0	1.146384E+0	1.132089E+0	1.190616E+0	1.178503E+0	1.141906E+0	1.150414E+0	1.228145E+0	1.134476E+0	1.223082E+0	1.144382E+0	1.267142E+0	1.196710E+0	1.246965E+0	1.155019E+0	1.122486E+0	1.229968E+0	1.219982E+0	1.197054E+0	1.113660E+0	1.229618E+0	1.246472E+0	1.125113E+0	1.301253E+0	1.177474E+0	1.182723E+0	1.162842E+0	1.146083E+0	1.142768E+0	1.140457E+0	1.206702E+0	1.249849E+0	1.143494E+0	1.205894E+0	1.139033E+0	1.184016E+0	1.213666E+0	1.212717E+0	1.207644E+0	1.240678E+0	1.154926E+0	1.208263E+0	1.153214E+0	1.186849E+0	1.139836E+0	1.219890E+0	1.155173E+0	1.182173E+0	1.152451E+0	1.270847E+0	1.148220E+0	1.166950E+0	1.175515E+0	1.204582E+0	1.201713E+0	1.154862E+0	1.155770E+0	1.136225E+0	1.202696E+0	1.151216E+0	1.161749E+0	1.283876E+0	1.156654E+0	1.180696E+0	1.143855E+0	1.187908E+0	1.240668E+0	1.190232E+0	1.204875E+0	1.210973E+0	1.158759E+0	1.110920E+0	1.203637E+0	1.174602E+0	1.214740E+0	1.171716E+0	1.245688E+0	1.158791E+0	1.239807E+0	1.232489E+0	1.142806E+0
2.925000E+2	1.035454E+0	1.166921E+0	1.075939E+0	1.041329E+0	1.050842E+0	1.019396E+0	1.129228E+0	1.054756E+0	1.030489E+0	1.047693E+0	1.052140E+0	1.097795E+0	1.033015E+0	1.015772E+0	1.093457E+0	1.095233E+0	1.047009E+0	1.038134E+0	1.107416E+0	1.105359E+0	1.072538E+0	1.044002E+0	1.029569E+0	1.033678E+0	1.120956E+0	1.022540E+0	1.075904E+0	9.988352E-1	1.048046E+0	9.969106E-1	9.911541E-1	1.033474E+0	1.074753E+0	1.025863E+0	9.854761E-1	1.042874E+0	1.107912E+0	1.026133E+0	1.047010E+0	1.043748E+0	1.009489E+0	1.067563E+0	9.988441E-1	1.089241E+0	1.008326E+0	1.052571E+0	1.048232E+0	1.103282E+0	1.015121E+0	1.044413E+0	1.105373E+0	1.085709E+0	1.055702E+0	1.063551E+0	1.078515E+0	1.088699E+0	1.032946E+0	1.180528E+0	1.091584E+0	1.160396E+0	1.040067E+0	1.126794E+0	1.116706E+0	1.110903E+0	1.068892E+0	1.037484E+0	1.159366E+0	1.118182E+0	1.007843E+0	1.029749E+0	1.161243E+0	1.007579E+0	9.935665E-1	1.031681E+0	1.133374E+0	1.019761E+0	1.082461E+0	1.074386E+0	1.110591E+0	1.021937E+0	1.052435E+0	1.028125E+0	1.117219E+0	1.099164E+0	9.824541E-1	1.061363E+0	1.073252E+0	1.084761E+0	1.080684E+0	1.096187E+0	1.025849E+0	1.056445E+0	9.778134E-1	1.030399E+0	1.074378E+0	1.027308E+0	1.106654E+0	1.105619E+0	1.052417E+0	1.077250E+0	1.092605E+0	1.061974E+0	9.751543E-1	1.066521E+0	1.045214E+0	1.074857E+0	1.072307E+0	9.790042E-1	1.045265E+0	1.071384E+0	1.159749E+0	1.058230E+0	1.109001E+0	1.042496E+0	1.063045E+0	1.097923E+0	1.071287E+0	1.042614E+0	1.133004E+0	1.099552E+0	1.068177E+0	1.114821E+0	1.135460E+0	1.026285E+0	1.055554E+0	1.028660E+0	1.050168E+0	1.125240E+0	1.079349E+0	1.032483E+0	1.106160E+0	1.111089E+0	1.074504E+0	1.108465E+0	1.112066E+0	9.880742E-1	1.101401E+0	1.113491E+0	1.074634E+0	1.112618E+0	9.995978E-1	1.057912E+0	1.116848E+0	1.020719E+0	9.940054E-1	9.962353E-1	1.084108E+0	1.069085E+0	1.070717E+0	1.089808E+0	1.153948E+0	1.057415E+0	1.072302E+0	1.017031E+0	1.096620E+0	1.124169E+0	1.056251E+0	1.022321E+0	1.102172E+0	1.042136E+0	9.665693E-1	1.102349E+0	1.139167E+0	9.940278E-1	1.084764E+0	1.080344E+0	1.042868E+0	9.823580E-1	1.088701E+0	1.218844E+0
2.930050E+2	1.036631E+0	9.875906E-1	9.426184E-1	9.425132E-1	1.015239E+0	9.513567E-1	1.010866E+0	9.564778E-1	9.734233E-1	9.179437E-1	1.044801E+0	9.101188E-1	9.501696E-1	9.398623E-1	9.803367E-1	1.045966E+0	9.454873E-1	1.015815E+0	9.798626E-1	1.039736E+0	9.782756E-1	9.726402E-1	9.970084E-1	1.029310E+0	9.816640E-1	1.007914E+0	9.863915E-1	9.624281E-1	1.015574E+0	9.374795E-1	9.855532E-1	1.008424E+0	9.502517E-1	9.961770E-1	1.028526E+0	1.001673E+0	1.057209E+0	8.873477E-1	9.531005E-1	1.009535E+0	9.792355E-1	9.757461E-1	9.976624E-1	1.080787E+0	1.036391E+0	1.013051E+0	9.640701E-1	9.786114E-1	1.028173E+0	9.867114E-1	1.007721E+0	9.800447E-1	9.883997E-1	9.784168E-1	1.021120E+0	9.534601E-1	9.921995E-1	9.678178E-1	1.043073E+0	1.046157E+0	1.009753E+0	1.057724E+0	1.025119E+0	1.031533E+0	1.034282E+0	1.016156E+0	1.033788E+0	1.036602E+0	1.028597E+0	9.998857E-1	1.009318E+0	9.572028E-1	9.845392E-1	9.800776E-1	9.632406E-1	9.645858E-1	9.751234E-1	9.011042E-1	9.724140E-1	9.580210E-1	1.041832E+0	9.283195E-1	9.708635E-1	9.946823E-1	9.972847E-1	9.866959E-1	1.022801E+0	9.855872E-1	9.932861E-1	1.005622E+0	1.017006E+0	1.056890E+0	1.054203E+0	9.931233E-1	9.627136E-1	9.819942E-1	9.578161E-1	1.020062E+0	1.028863E+0	9.801922E-1	1.066424E+0	1.041903E+0	1.024718E+0	1.020477E+0	1.027325E+0	9.611931E-1	1.038182E+0	1.010179E+0	1.007703E+0	9.744994E-1	9.556332E-1	9.647546E-1	9.752260E-1	9.680402E-1	9.815447E-1	1.079226E+0	9.862204E-1	9.717521E-1	1.058303E+0	9.699504E-1	9.774249E-1	9.687769E-1	1.008113E+0	9.861092E-1	1.071320E+0	1.063232E+0	1.033397E+0	9.782901E-1	9.540862E-1	1.014510E+0	1.022379E+0	9.920804E-1	9.287065E-1	9.835013E-1	1.055430E+0	1.022141E+0	9.932143E-1	1.009256E+0	9.894429E-1	9.518092E-1	1.010715E+0	9.193351E-1	1.028942E+0	1.019279E+0	9.388977E-1	9.781598E-1	1.047182E+0	9.725921E-1	9.749002E-1	9.960621E-1	9.825680E-1	1.064839E+0	1.029944E+0	9.860049E-1	1.079588E+0	1.010844E+0	1.015668E+0	9.876144E-1	9.518272E-1	1.003100E+0	9.477077E-1	9.677574E-1	1.039223E+0	9.357202E-1	9.878493E-1	1.009800E+0	1.023798E+0	9.133776E-1	9.297067E-1	9.831670E-1
2.935090E+2	9.632839E-1	9.726609E-1	9.772805E-1	9.387642E-1	9.127240E-1	9.751560E-1	9.768244E-1	9.409935E-1	9.492418E-1	8.916554E-1	1.007803E+0	1.001949E+0	8.937985E-1	1.018512E+0	9.648039E-1	9.701854E-1	9.935163E-1	8.984683E-1	1.006788E+0	9.773114E-1	9.246329E-1	9.818769E-1	9.646624E-1	9.711981E-1	9.290944E-1	9.322297E-1	9.521638E-1	9.507263E-1	9.256377E-1	9.818350E-1	9.303917E-1	9.591111E-1	9.528174E-1	9.315936E-1	9.604571E-1	9.547120E-1	9.641425E-1	9.164876E-1	9.213944E-1	8.958727E-1	9.354846E-1	9.048830E-1	9.649911E-1	9.199810E-1	9.236391E-1	9.093354E-1	9.671059E-1	9.578513E-1	1.026187E+0	1.015377E+0	1.015748E+0	8.643136E-1	9.541716E-1	9.494101E-1	9.843134E-1	9.575762E-1	9.064106E-1	9.801463E-1	9.175221E-1	9.599956E-1	9.080972E-1	9.263880E-1	9.661546E-1	9.497712E-1	9.982560E-1	8.990301E-1	9.765557E-1	9.832176E-1	9.674834E-1	9.480806E-1	9.989682E-1	9.786045E-1	8.897347E-1	9.758679E-1	9.239775E-1	9.550764E-1	1.029585E+0	9.455022E-1	9.507983E-1	9.510773E-1	1.027196E+0	9.571021E-1	1.018276E+0	9.512072E-1	9.550568E-1	9.849124E-1	9.422244E-1	9.115683E-1	9.950140E-1	9.726516E-1	1.014312E+0	9.573745E-1	9.272370E-1	9.467461E-1	9.548555E-1	9.238127E-1	9.688852E-1	9.438828E-1	1.003097E+0	9.624428E-1	9.307018E-1	9.478536E-1	9.696540E-1	9.373765E-1	9.659582E-1	9.597676E-1	9.467836E-1	9.958040E-1	9.648011E-1	9.503864E-1	9.444380E-1	9.804831E-1	1.056372E+0	9.306336E-1	9.462300E-1	9.908254E-1	9.179098E-1	9.629696E-1	9.859513E-1	9.138486E-1	1.004224E+0	9.628238E-1	9.165888E-1	9.608783E-1	9.863210E-1	9.563202E-1	9.420814E-1	9.089058E-1	9.504145E-1	9.313815E-1	9.819022E-1	9.952447E-1	9.850873E-1	1.022817E+0	1.008116E+0	9.317888E-1	9.577193E-1	9.504463E-1	1.004432E+0	9.545095E-1	9.815053E-1	9.523186E-1	9.632255E-1	9.536152E-1	1.006638E+0	9.157747E-1	9.487035E-1	9.820971E-1	1.020311E+0	9.502509E-1	9.716386E-1	8.874175E-1	9.444989E-1	9.371861E-1	9.929602E-1	9.615311E-1	9.259519E-1	9.431556E-1	9.766517E-1	1.001528E+0	9.075691E-1	9.467203E-1	9.991750E-1	9.337486E-1	9.168158E-1	9.025630E-1	1.024780E+0	9.198110E-1	9.583656E-1	1.002714E+0
2.940070E+2	9.871988E-1	1.050561E+0	9.617381E-1	8.591922E-1	9.053709E-1	9.054740E-1	9.269874E-1	1.010740E+0	9.222325E-1	8.947623E-1	9.841068E-1	9.186725E-1	9.443980E-1	8.741130E-1	8.836679E-1	9.596651E-1	9.719299E-1	9.346357E-1	9.265928E-1	9.505873E-1	9.316028E-1	9.230037E-1	9.601019E-1	9.895043E-1	9.916120E-1	9.406107E-1	9.708637E-1	9.384948E-1	9.138186E-1	8.668238E-1	9.630439E-1	9.466719E-1	9.695447E-1	9.251968E-1	9.435989E-1	9.357947E-1	9.653698E-1	9.615774E-1	9.317157E-1	9.598177E-1	9.812344E-1	9.317259E-1	8.887432E-1	9.271491E-1	9.468872E-1	9.591138E-1	9.252504E-1	9.219919E-1	1.009016E+0	9.626954E-1	9.613095E-1	9.234817E-1	8.943712E-1	9.226038E-1	9.100955E-1	9.406324E-1	9.490783E-1	9.664104E-1	9.206507E-1	9.737297E-1	9.481706E-1	9.779253E-1	9.688792E-1	9.534566E-1	9.593068E-1	9.447677E-1	9.808506E-1	8.578406E-1	9.336907E-1	9.020408E-1	9.712978E-1	9.328391E-1	9.659328E-1	9.462877E-1	1.020785E+0	9.286930E-1	9.548158E-1	9.565208E-1	9.589175E-1	9.237306E-1	1.021378E+0	8.906736E-1	9.631801E-1	9.607007E-1	9.467940E-1	9.564765E-1	9.485324E-1	9.050378E-1	9.827176E-1	9.978794E-1	9.778950E-1	9.645327E-1	9.389256E-1	9.339850E-1	9.532538E-1	8.823791E-1	9.609543E-1	9.733436E-1	9.480756E-1	9.555623E-1	9.320403E-1	9.045697E-1	9.434313E-1	9.092463E-1	9.466648E-1	9.480186E-1	9.317740E-1	9.515879E-1	9.769118E-1	9.899768E-1	9.493447E-1	9.571275E-1	9.760168E-1	9.750554E-1	9.629001E-1	9.572021E-1	9.067947E-1	8.892597E-1	9.149066E-1	9.047979E-1	9.581918E-1	9.279006E-1	9.679117E-1	9.792719E-1	1.006249E+0	9.568958E-1	9.109321E-1	9.822691E-1	9.741331E-1	9.195191E-1	9.567871E-1	9.520306E-1	9.414707E-1	9.764361E-1	1.056197E+0	9.811659E-1	9.349322E-1	9.622983E-1	9.665985E-1	9.033669E-1	9.261328E-1	9.381751E-1	8.934450E-1	9.532708E-1	9.923689E-1	9.872450E-1	9.447291E-1	1.035244E+0	9.305887E-1	9.633580E-1	1.025670E+0	9.444448E-1	9.554607E-1	9.462181E-1	9.612823E-1	1.007054E+0	9.856634E-1	9.225447E-1	9.022223E-1	9.494341E-1	9.285469E-1	9.711407E-1	1.025221E+0	9.540492E-1	9.505354E-1	9.400660E-1	9.830564E-1	8.685385E-1	9.416957E-1	1.036326E+0
2.945040E+2	9.858564E-1	1.036845E+0	1.016075E+0	1.015378E+0	1.027965E+0	1.006310E+0	9.682923E-1	1.049663E+0	9.656635E-1	9.530671E-1	1.080742E+0	1.004737E+0	9.692161E-1	1.028244E+0	1.015523E+0	9.883471E-1	9.852560E-1	9.535610E-1	9.651741E-1	1.009131E+0	9.710123E-1	1.058747E+0	9.826766E-1	9.531475E-1	9.982285E-1	1.021978E+0	1.061742E+0	9.675233E-1	1.005999E+0	9.799831E-1	1.005225E+0	9.878054E-1	1.006696E+0	9.025052E-1	9.889488E-1	1.021471E+0	9.741799E-1	9.797504E-1	1.023293E+0	9.724874E-1	9.985728E-1	9.861618E-1	1.002457E+0	9.387687E-1	1.015037E+0	1.011856E+0	9.734305E-1	9.235217E-1	9.883255E-1	1.005445E+0	1.045016E+0	1.000146E+0	9.916719E-1	1.001471E+0	1.004170E+0	9.634635E-1	9.744784E-1	9.851813E-1	9.746899E-1	1.059189E+0	9.511972E-1	1.040194E+0	1.013106E+0	9.963270E-1	1.081287E+0	9.715385E-1	1.030620E+0	9.747263E-1	1.024313E+0	1.006490E+0	1.039426E+0	1.045330E+0	9.959247E-1	9.938104E-1	1.000784E+0	9.613393E-1	1.024112E+0	9.931786E-1	9.768404E-1	9.746821E-1	9.672459E-1	1.030586E+0	1.001440E+0	1.015000E+0	9.525389E-1	1.004977E+0	9.442857E-1	9.906833E-1	1.035458E+0	1.018321E+0	1.019224E+0	1.039500E+0	1.037551E+0	1.002544E+0	1.001131E+0	1.044150E+0	1.057104E+0	1.001019E+0	1.035038E+0	1.063500E+0	1.013792E+0	9.751601E-1	1.087873E+0	1.031639E+0	1.004082E+0	9.875917E-1	1.016774E+0	9.909487E-1	9.360822E-1	9.841580E-1	1.034920E+0	1.007416E+0	1.056279E+0	9.648018E-1	1.010908E+0	1.000303E+0	9.541687E-1	1.000330E+0	1.035173E+0	1.004618E+0	9.638107E-1	1.029523E+0	1.056102E+0	1.059073E+0	9.881456E-1	9.516618E-1	9.932823E-1	1.018612E+0	1.001998E+0	1.000019E+0	1.005126E+0	9.671365E-1	1.042271E+0	9.435331E-1	1.041982E+0	9.668177E-1	9.776691E-1	9.285069E-1	9.355849E-1	9.342298E-1	9.771884E-1	1.025068E+0	9.813837E-1	9.555436E-1	9.529114E-1	9.722744E-1	9.899232E-1	1.018123E+0	9.758719E-1	9.307068E-1	1.050989E+0	1.005614E+0	1.001509E+0	9.660288E-1	1.050770E+0	1.018249E+0	1.051344E+0	9.429705E-1	9.693190E-1	9.897776E-1	1.046571E+0	9.574530E-1	1.051141E+0	1.048056E+0	1.042841E+0	9.516320E-1	1.018199E+0	9.667713E-1	1.039187E+0	9.887027E-1
2.950070E+2	1.118458E+0	1.143374E+0	1.066658E+0	1.111728E+0	1.117150E+0	1.126927E+0	1.127227E+0	1.142360E+0	1.161867E+0	1.044151E+0	1.102584E+0	1.191996E+0	1.138003E+0	1.105314E+0	1.117148E+0	1.132514E+0	1.147667E+0	1.101072E+0	1.079903E+0	1.147089E+0	1.098376E+0	1.121811E+0	1.101939E+0	1.153650E+0	1.112872E+0	1.126483E+0	1.077118E+0	1.110815E+0	1.131410E+0	1.133677E+0	1.099897E+0	1.139781E+0	1.071512E+0	1.078610E+0	1.161790E+0	1.096892E+0	1.127083E+0	1.102438E+0	1.090459E+0	1.073175E+0	1.101882E+0	1.091272E+0	1.092350E+0	1.132049E+0	1.132258E+0	1.133443E+0	1.062222E+0	1.159341E+0	1.109760E+0	1.174301E+0	1.160523E+0	1.091789E+0	1.050099E+0	1.122737E+0	1.172578E+0	1.155935E+0	1.061360E+0	1.131663E+0	1.203574E+0	1.134758E+0	1.073402E+0	1.138809E+0	1.165718E+0	1.119104E+0	1.140034E+0	1.106643E+0	1.193401E+0	1.111882E+0	1.110323E+0	1.128882E+0	1.117906E+0	1.137182E+0	1.129684E+0	1.133762E+0	1.153432E+0	1.125359E+0	1.076335E+0	1.159099E+0	1.134667E+0	1.094449E+0	1.080450E+0	1.101533E+0	1.140425E+0	1.113490E+0	1.067098E+0	1.110945E+0	1.133679E+0	1.105522E+0	1.112542E+0	1.133127E+0	1.145672E+0	1.143575E+0	1.087833E+0	1.147721E+0	1.080806E+0	1.149558E+0	1.145584E+0	1.086169E+0	1.209716E+0	1.128332E+0	1.125585E+0	1.096654E+0	1.158021E+0	1.086652E+0	1.064313E+0	1.058930E+0	1.198755E+0	1.101539E+0	1.109297E+0	1.079423E+0	1.143391E+0	1.089984E+0	1.088515E+0	1.120106E+0	1.126985E+0	1.160488E+0	1.101788E+0	1.115623E+0	1.179653E+0	1.152650E+0	1.086001E+0	1.057659E+0	1.156730E+0	1.103295E+0	1.097990E+0	1.114894E+0	1.125669E+0	1.061477E+0	1.042939E+0	1.195911E+0	1.049111E+0	1.135064E+0	1.114410E+0	1.121083E+0	1.126952E+0	1.066472E+0	1.168288E+0	1.054279E+0	1.128574E+0	1.068443E+0	1.003309E+0	1.174821E+0	1.136099E+0	1.140988E+0	1.132410E+0	1.103856E+0	1.144790E+0	1.142363E+0	1.108327E+0	1.058944E+0	1.133346E+0	1.154337E+0	1.215871E+0	1.119751E+0	1.168313E+0	1.147857E+0	1.165644E+0	1.146179E+0	1.150439E+0	1.143948E+0	1.055472E+0	1.110667E+0	1.068046E+0	1.052614E+0	1.113897E+0	1.110825E+0	1.129652E+0	1.092593E+0	1.132265E+0	1.268204E+0
2.955050E+2	1.107108E+0	1.121641E+0	1.126500E+0	1.061320E+0	1.092014E+0	1.111146E+0	1.119537E+0	1.120294E+0	1.095898E+0	1.042545E+0	1.182178E+0	1.169502E+0	1.136779E+0	1.121602E+0	1.158905E+0	1.139377E+0	1.115073E+0	1.131523E+0	1.069155E+0	1.103914E+0	1.120457E+0	1.167505E+0	1.122781E+0	1.103175E+0	1.143618E+0	1.163018E+0	1.099112E+0	1.153659E+0	1.070544E+0	1.071342E+0	1.123984E+0	1.086879E+0	1.114538E+0	1.006331E+0	1.132494E+0	1.117719E+0	1.100143E+0	1.057482E+0	1.110745E+0	1.133077E+0	1.136689E+0	1.141916E+0	1.109792E+0	1.096995E+0	1.102886E+0	1.082840E+0	1.107520E+0	1.173024E+0	1.126682E+0	1.134993E+0	1.096513E+0	1.044448E+0	1.114729E+0	1.044841E+0	1.109817E+0	1.103795E+0	1.114456E+0	1.123687E+0	1.126920E+0	1.119233E+0	1.117153E+0	1.158672E+0	1.149059E+0	1.096625E+0	1.216909E+0	1.080115E+0	1.144219E+0	1.136547E+0	1.167227E+0	1.138141E+0	1.157954E+0	1.094593E+0	1.091537E+0	1.122351E+0	1.118040E+0	1.132053E+0	1.122868E+0	1.110223E+0	1.151288E+0	1.057277E+0	1.135071E+0	1.066922E+0	1.098691E+0	1.197083E+0	1.142455E+0	1.113729E+0	1.099091E+0	1.116550E+0	1.099445E+0	1.106360E+0	1.162501E+0	1.108527E+0	1.117191E+0	1.130193E+0	1.183830E+0	1.099737E+0	1.150901E+0	1.128567E+0	1.155843E+0	1.157493E+0	1.089737E+0	1.159479E+0	1.220889E+0	1.099860E+0	1.182279E+0	1.143438E+0	1.105716E+0	1.002788E+0	1.175172E+0	1.110569E+0	1.112600E+0	1.091759E+0	1.173872E+0	1.038285E+0	1.044063E+0	1.108194E+0	1.086987E+0	1.105123E+0	1.130907E+0	1.087603E+0	1.136351E+0	1.116878E+0	1.112182E+0	1.146391E+0	1.164332E+0	1.173616E+0	1.149924E+0	1.155964E+0	1.088940E+0	1.106877E+0	1.188802E+0	1.111731E+0	1.068967E+0	1.102898E+0	1.079565E+0	1.115472E+0	1.138238E+0	1.160193E+0	1.112389E+0	1.087621E+0	1.094635E+0	1.136331E+0	1.142624E+0	1.094585E+0	1.054458E+0	1.083394E+0	1.030802E+0	1.159738E+0	1.094420E+0	1.064899E+0	1.139579E+0	1.085848E+0	1.123834E+0	1.103803E+0	1.063038E+0	1.189750E+0	1.139229E+0	1.144251E+0	1.174058E+0	1.150026E+0	1.140344E+0	1.110682E+0	1.187372E+0	1.075762E+0	1.102533E+0	1.159562E+0	1.115640E+0	1.064977E+0	9.979044E-1	1.217718E+0
2.960060E+2	1.137658E+0	1.074179E+0	1.146795E+0	1.074935E+0	1.093130E+0	1.072480E+0	1.148790E+0	1.075829E+0	1.129375E+0	1.100750E+0	1.125493E+0	1.062202E+0	1.094503E+0	1.081283E+0	1.084702E+0	1.087908E+0	1.080372E+0	1.103134E+0	1.107395E+0	1.148696E+0	1.114154E+0	1.073176E+0	1.079244E+0	1.079238E+0	1.150441E+0	1.113485E+0	1.101025E+0	1.109963E+0	1.092896E+0	1.102729E+0	1.060128E+0	1.137613E+0	1.053646E+0	1.077543E+0	1.049601E+0	1.132738E+0	1.107540E+0	1.069213E+0	1.039599E+0	1.131187E+0	1.136217E+0	1.081649E+0	1.204435E+0	1.144341E+0	1.163448E+0	1.168656E+0	1.084469E+0	1.118600E+0	1.152043E+0	1.093705E+0	1.127555E+0	1.130043E+0	1.069529E+0	1.116609E+0	1.141071E+0	1.144130E+0	1.108505E+0	1.120266E+0	1.163118E+0	1.173794E+0	1.051491E+0	1.148545E+0	1.129221E+0	1.106654E+0	1.161333E+0	1.102632E+0	1.167654E+0	1.119691E+0	1.067758E+0	1.115383E+0	1.135539E+0	1.133650E+0	1.190340E+0	1.055310E+0	1.155090E+0	1.082280E+0	1.101560E+0	1.116298E+0	1.108573E+0	1.092920E+0	1.049082E+0	1.056265E+0	1.077989E+0	1.178325E+0	1.110850E+0	1.088378E+0	1.031443E+0	1.117765E+0	1.042474E+0	1.120236E+0	1.134230E+0	1.130855E+0	1.150843E+0	1.069187E+0	1.054189E+0	1.075513E+0	1.066603E+0	1.126282E+0	1.143922E+0	1.103844E+0	1.097442E+0	1.180459E+0	1.124815E+0	1.092720E+0	1.084197E+0	1.062089E+0	1.151115E+0	1.109492E+0	1.136754E+0	1.141421E+0	1.132766E+0	1.161041E+0	1.151069E+0	1.167585E+0	1.026836E+0	1.088274E+0	1.133675E+0	1.071964E+0	1.096146E+0	1.037135E+0	1.081908E+0	1.066895E+0	1.122305E+0	1.116824E+0	1.118965E+0	1.145885E+0	1.088436E+0	1.086169E+0	1.154883E+0	1.067067E+0	1.175437E+0	1.124806E+0	1.124559E+0	1.142583E+0	1.111174E+0	1.059311E+0	1.207472E+0	1.049622E+0	1.075770E+0	9.881820E-1	1.168604E+0	1.065104E+0	1.135592E+0	1.102820E+0	1.089105E+0	1.160806E+0	1.153334E+0	1.126226E+0	1.073643E+0	1.084657E+0	1.154521E+0	1.097528E+0	1.128571E+0	1.084042E+0	1.098351E+0	1.213816E+0	1.167437E+0	1.087020E+0	1.137185E+0	1.102525E+0	1.063780E+0	1.189719E+0	1.179176E+0	1.116229E+0	1.133819E+0	1.065761E+0	1.149237E+0	1.131316E+0	9.667200E-1	1.091371E+0
2.965090E+2	9.213690E-1	8.229731E-1	8.408018E-1	8.917039E-1	8.753817E-1	8.583390E-1	9.317810E-1	8.550207E-1	8.854718E-1	8.646772E-1	9.224138E-1	9.024276E-1	8.592037E-1	8.827541E-1	9.312566E-1	8.931762E-1	8.847279E-1	8.566113E-1	9.377729E-1	9.001057E-1	9.196350E-1	8.673923E-1	8.730263E-1	8.653077E-1	8.824899E-1	8.519959E-1	8.594954E-1	8.623119E-1	8.899690E-1	9.564709E-1	9.132915E-1	9.155693E-1	8.180261E-1	8.741587E-1	8.635261E-1	9.023641E-1	8.972922E-1	8.703191E-1	8.372560E-1	9.175981E-1	9.189981E-1	8.534338E-1	9.020758E-1	8.403010E-1	8.395858E-1	9.006435E-1	8.830473E-1	8.727261E-1	9.045497E-1	9.151659E-1	8.584136E-1	9.527631E-1	8.877394E-1	8.801283E-1	8.783620E-1	8.929052E-1	8.932636E-1	9.001995E-1	8.994089E-1	8.997213E-1	8.686676E-1	9.563971E-1	8.865821E-1	8.994036E-1	8.866035E-1	8.565161E-1	8.857185E-1	9.073764E-1	8.467072E-1	8.229331E-1	8.847846E-1	9.012259E-1	9.075139E-1	8.444558E-1	8.780376E-1	9.017459E-1	9.199467E-1	8.487489E-1	7.888528E-1	8.484391E-1	8.883143E-1	8.650581E-1	8.480407E-1	9.002575E-1	8.826758E-1	8.640458E-1	8.899727E-1	8.621527E-1	8.944699E-1	8.771794E-1	8.962545E-1	8.499945E-1	8.989562E-1	9.093897E-1	9.074956E-1	8.617112E-1	8.921359E-1	8.596336E-1	9.206119E-1	8.898601E-1	8.027495E-1	9.089817E-1	8.759801E-1	9.411842E-1	8.725509E-1	8.945022E-1	8.791067E-1	9.142595E-1	9.188774E-1	8.564448E-1	8.672913E-1	8.826847E-1	9.606598E-1	9.228887E-1	8.463183E-1	8.628411E-1	8.108950E-1	9.133949E-1	9.027776E-1	8.757322E-1	9.329287E-1	8.729750E-1	9.310980E-1	8.979649E-1	8.646343E-1	8.907254E-1	9.172609E-1	8.832120E-1	8.606983E-1	8.456881E-1	8.631194E-1	8.630296E-1	8.798519E-1	8.991215E-1	9.080660E-1	8.301373E-1	8.469676E-1	9.040096E-1	8.339942E-1	9.088522E-1	8.574332E-1	8.426436E-1	8.781996E-1	8.882367E-1	8.262191E-1	8.919765E-1	9.149738E-1	8.405557E-1	8.718513E-1	8.467610E-1	8.751319E-1	8.700851E-1	9.044168E-1	9.042632E-1	9.357276E-1	8.517249E-1	8.860900E-1	9.242067E-1	8.594720E-1	9.010516E-1	9.141283E-1	8.759430E-1	9.168720E-1	8.768751E-1	8.840778E-1	8.719729E-1	9.500973E-1	8.395881E-1	9.970436E-1	6.816225E-1
2.970020E+2	8.913432E-1	9.481816E-1	9.275377E-1	8.351269E-1	8.719561E-1	8.454025E-1	8.368987E-1	9.235327E-1	8.795447E-1	8.971278E-1	9.251193E-1	8.919262E-1	8.557535E-1	9.034272E-1	8.942382E-1	9.308667E-1	8.458554E-1	8.547072E-1	8.608114E-1	8.914558E-1	8.743525E-1	8.309887E-1	8.684975E-1	8.968281E-1	8.837512E-1	8.309215E-1	8.449618E-1	8.704547E-1	8.283217E-1	8.335189E-1	8.596772E-1	8.604016E-1	8.542136E-1	8.324196E-1	8.899306E-1	8.807230E-1	8.645697E-1	8.327228E-1	8.632125E-1	8.915784E-1	8.155930E-1	8.524806E-1	8.426618E-1	8.587100E-1	8.918574E-1	8.402798E-1	8.587839E-1	8.887317E-1	9.315047E-1	8.549828E-1	9.251609E-1	8.655776E-1	8.912926E-1	8.738533E-1	9.045897E-1	8.773098E-1	9.060907E-1	8.920012E-1	8.647804E-1	8.971550E-1	8.544010E-1	8.944121E-1	9.008279E-1	8.909535E-1	8.967178E-1	8.531300E-1	8.717712E-1	8.931458E-1	8.629106E-1	9.254158E-1	8.681805E-1	8.722103E-1	9.120814E-1	8.977671E-1	9.379584E-1	8.568938E-1	8.500206E-1	8.759823E-1	8.626297E-1	8.091327E-1	8.988415E-1	8.737231E-1	8.471672E-1	8.866530E-1	9.128549E-1	8.768234E-1	8.497552E-1	8.761820E-1	8.783811E-1	8.633070E-1	9.270539E-1	8.830752E-1	8.341138E-1	8.917688E-1	8.894059E-1	8.585751E-1	9.083097E-1	8.559066E-1	8.918325E-1	8.298383E-1	9.095008E-1	8.951975E-1	8.719397E-1	9.410088E-1	8.744153E-1	8.746305E-1	8.684989E-1	9.363250E-1	8.843064E-1	8.384884E-1	8.861601E-1	8.958077E-1	9.039243E-1	8.523436E-1	9.041528E-1	8.694380E-1	9.104526E-1	8.823297E-1	8.957324E-1	8.864393E-1	8.913996E-1	9.097960E-1	8.933699E-1	8.529660E-1	8.819422E-1	9.458610E-1	8.537190E-1	8.553090E-1	8.716874E-1	9.218847E-1	8.884752E-1	8.577351E-1	8.644782E-1	8.996542E-1	8.773417E-1	7.923236E-1	8.761284E-1	8.589149E-1	8.478967E-1	8.812761E-1	8.924441E-1	8.675197E-1	8.997996E-1	8.899031E-1	8.171083E-1	8.609614E-1	8.846172E-1	8.730268E-1	8.542084E-1	9.031498E-1	9.157618E-1	8.392283E-1	9.044500E-1	8.951228E-1	8.882978E-1	8.921355E-1	8.516598E-1	9.004591E-1	8.331118E-1	8.959249E-1	8.667071E-1	8.998299E-1	9.266756E-1	9.198465E-1	8.467935E-1	8.759020E-1	8.918108E-1	8.069339E-1	9.416335E-1	9.702966E-1
2.975040E+2	9.872063E-1	9.913669E-1	9.807597E-1	1.014776E+0	9.837547E-1	1.025906E+0	1.047067E+0	1.018639E+0	9.829882E-1	9.851388E-1	1.001923E+0	1.015580E+0	9.987550E-1	9.927075E-1	1.037589E+0	1.008180E+0	1.029222E+0	9.897766E-1	1.032850E+0	1.011351E+0	9.846822E-1	1.015344E+0	1.038448E+0	1.027041E+0	9.832802E-1	1.010318E+0	1.006541E+0	1.102281E+0	9.883858E-1	9.935245E-1	1.008301E+0	1.030446E+0	9.230315E-1	1.047753E+0	9.817247E-1	9.816149E-1	1.003576E+0	1.017669E+0	1.031606E+0	1.046169E+0	1.021637E+0	1.008115E+0	1.019147E+0	9.821369E-1	9.837255E-1	9.885711E-1	1.029172E+0	1.008331E+0	9.499701E-1	1.027749E+0	9.981028E-1	9.771599E-1	9.699859E-1	1.004220E+0	1.000268E+0	1.001569E+0	1.024958E+0	1.055158E+0	1.001292E+0	1.016079E+0	1.008532E+0	9.983642E-1	9.939458E-1	1.041219E+0	9.958301E-1	9.730334E-1	9.650731E-1	9.931952E-1	9.867167E-1	1.022200E+0	9.946156E-1	1.036723E+0	1.044465E+0	1.029579E+0	1.050686E+0	1.036101E+0	1.012381E+0	1.002799E+0	1.059017E+0	9.637174E-1	1.045085E+0	1.055920E+0	9.872831E-1	1.009163E+0	1.073294E+0	1.032734E+0	9.842414E-1	9.951947E-1	1.007866E+0	1.010481E+0	1.018674E+0	1.009383E+0	9.775251E-1	9.693346E-1	1.002285E+0	1.018002E+0	1.034880E+0	9.548208E-1	1.009517E+0	9.695109E-1	1.048717E+0	9.687976E-1	1.018788E+0	1.030009E+0	1.019725E+0	1.016089E+0	1.018640E+0	1.014067E+0	1.034344E+0	1.000324E+0	1.002455E+0	1.006087E+0	1.032636E+0	9.524208E-1	9.958407E-1	9.922749E-1	9.988872E-1	1.026066E+0	9.768441E-1	9.834055E-1	9.860193E-1	1.008846E+0	1.012920E+0	1.023991E+0	1.041881E+0	1.044446E+0	1.028431E+0	9.505130E-1	1.029493E+0	1.004677E+0	1.007167E+0	1.045698E+0	1.050965E+0	9.637716E-1	1.013361E+0	9.927937E-1	1.030505E+0	9.822436E-1	1.023000E+0	9.942296E-1	1.031969E+0	1.032359E+0	1.047531E+0	1.017655E+0	9.869993E-1	1.017215E+0	1.030145E+0	9.948186E-1	1.058922E+0	9.905515E-1	1.004546E+0	1.033036E+0	9.882087E-1	9.447067E-1	1.026528E+0	9.876363E-1	1.023821E+0	1.024618E+0	9.848209E-1	9.351848E-1	1.030061E+0	9.790633E-1	1.015600E+0	1.005499E+0	9.833123E-1	9.872544E-1	1.078686E+0	1.045795E+0	1.020286E+0	1.018380E+0
2.980020E+2	1.122909E+0	1.140339E+0	1.145635E+0	1.099239E+0	1.089292E+0	1.065096E+0	1.096522E+0	1.176800E+0	1.115391E+0	1.143840E+0	1.149317E+0	1.150048E+0	1.111744E+0	1.121092E+0	1.044770E+0	1.146798E+0	1.142197E+0	1.072039E+0	1.108634E+0	1.089586E+0	1.114302E+0	1.070655E+0	1.091256E+0	1.093013E+0	1.071473E+0	1.081999E+0	1.074904E+0	1.107518E+0	1.063003E+0	1.088461E+0	1.122169E+0	1.099802E+0	1.115350E+0	1.065154E+0	1.086467E+0	1.074231E+0	1.128175E+0	1.135245E+0	1.080718E+0	1.053411E+0	1.079404E+0	1.123003E+0	1.091260E+0	1.104230E+0	1.098613E+0	1.138649E+0	1.046629E+0	1.068175E+0	1.055942E+0	1.060333E+0	1.098088E+0	1.156588E+0	1.110928E+0	1.092841E+0	1.113773E+0	1.119322E+0	1.103274E+0	1.054973E+0	1.105109E+0	1.091336E+0	1.078887E+0	1.093752E+0	1.132954E+0	1.139411E+0	1.092227E+0	1.076928E+0	1.127513E+0	1.096835E+0	1.120107E+0	1.142510E+0	1.083455E+0	1.113301E+0	1.071237E+0	1.121979E+0	1.101167E+0	1.095114E+0	1.072917E+0	1.025365E+0	1.095708E+0	1.144784E+0	1.148519E+0	1.097190E+0	1.116219E+0	1.111915E+0	1.108825E+0	1.081234E+0	1.068163E+0	1.134287E+0	1.121912E+0	1.166173E+0	1.122777E+0	1.111323E+0	1.107819E+0	1.134855E+0	1.104820E+0	1.141865E+0	1.138603E+0	1.118004E+0	1.079213E+0	1.072095E+0	1.080823E+0	1.106309E+0	1.069872E+0	1.091102E+0	1.079478E+0	1.083530E+0	1.109561E+0	1.083323E+0	1.096744E+0	1.143530E+0	1.077787E+0	1.110818E+0	1.119216E+0	1.124321E+0	1.099724E+0	1.078807E+0	1.124566E+0	1.104115E+0	1.118085E+0	1.110149E+0	1.106163E+0	1.076148E+0	1.108875E+0	1.147129E+0	1.104189E+0	1.093110E+0	1.081162E+0	1.104466E+0	1.097223E+0	1.124576E+0	1.137470E+0	1.153198E+0	1.085335E+0	1.082914E+0	1.108497E+0	1.148306E+0	1.084308E+0	1.103625E+0	1.101152E+0	1.144117E+0	1.105776E+0	1.078853E+0	1.073120E+0	1.097526E+0	1.113178E+0	1.129335E+0	1.125335E+0	1.154299E+0	1.092662E+0	1.084640E+0	1.066011E+0	1.101088E+0	1.125962E+0	1.096031E+0	1.129169E+0	1.144139E+0	1.103857E+0	1.068370E+0	1.091258E+0	1.148564E+0	1.076907E+0	1.062633E+0	1.123335E+0	1.121917E+0	1.083777E+0	1.067455E+0	1.083421E+0	1.048228E+0	1.063113E+0	1.089528E+0
2.985020E+2	1.109713E+0	1.131006E+0	1.096640E+0	1.052284E+0	1.133826E+0	1.099346E+0	1.090697E+0	1.041946E+0	1.109014E+0	1.095174E+0	1.058244E+0	1.098808E+0	1.049913E+0	1.078505E+0	1.105761E+0	1.104161E+0	1.085523E+0	1.074265E+0	1.084922E+0	1.087967E+0	1.097339E+0	1.120574E+0	1.082229E+0	1.059912E+0	1.112368E+0	1.100084E+0	1.047036E+0	1.056541E+0	1.088105E+0	1.089854E+0	1.114030E+0	1.072235E+0	1.062034E+0	1.124675E+0	1.056465E+0	1.088459E+0	1.075234E+0	1.062484E+0	1.120403E+0	1.099518E+0	1.089630E+0	1.057761E+0	1.097303E+0	1.101140E+0	1.050876E+0	1.053106E+0	1.092297E+0	1.087583E+0	1.121574E+0	1.093643E+0	1.104211E+0	1.067100E+0	1.065341E+0	1.099599E+0	1.043230E+0	1.134326E+0	1.067718E+0	1.088237E+0	1.114023E+0	1.032965E+0	1.071582E+0	1.159610E+0	1.099404E+0	1.057715E+0	1.070245E+0	1.125793E+0	1.085030E+0	1.095723E+0	1.101432E+0	1.036349E+0	1.143093E+0	1.088298E+0	1.089617E+0	1.102173E+0	1.091807E+0	1.079073E+0	1.081477E+0	1.129232E+0	1.093737E+0	1.084246E+0	1.002403E+0	1.069280E+0	1.126710E+0	1.111255E+0	1.073652E+0	1.109040E+0	1.083366E+0	1.091067E+0	1.094332E+0	1.107752E+0	1.096582E+0	1.081040E+0	1.094493E+0	1.108335E+0	1.059945E+0	1.056542E+0	1.049752E+0	1.089433E+0	1.148158E+0	1.132943E+0	1.176286E+0	1.094943E+0	1.101357E+0	1.118585E+0	1.112653E+0	1.082489E+0	1.096660E+0	1.086954E+0	1.097012E+0	1.062599E+0	1.152153E+0	1.099878E+0	1.064193E+0	1.067122E+0	1.125219E+0	1.106387E+0	1.086068E+0	1.064493E+0	1.120106E+0	1.075646E+0	1.122350E+0	1.088887E+0	1.049010E+0	1.021894E+0	1.019459E+0	1.109456E+0	1.150025E+0	1.117978E+0	1.123126E+0	1.096293E+0	1.092943E+0	1.062379E+0	1.075741E+0	1.093648E+0	1.163421E+0	1.094006E+0	1.110053E+0	1.065132E+0	1.049949E+0	1.078411E+0	1.084781E+0	1.099627E+0	1.036597E+0	1.077332E+0	1.151355E+0	1.101609E+0	1.059103E+0	1.092466E+0	1.036964E+0	1.062177E+0	1.157965E+0	1.046393E+0	1.074678E+0	1.121464E+0	1.155944E+0	1.127591E+0	1.119660E+0	1.137039E+0	1.110484E+0	1.089931E+0	1.070620E+0	1.105665E+0	1.131054E+0	1.060110E+0	1.115550E+0	1.075460E+0	1.088136E+0	1.105178E+0	1.035344E+0	1.024702E+0
2.990020E+2	1.034350E+0	9.503119E-1	1.016673E+0	1.048377E+0	1.029024E+0	1.026331E+0	9.991568E-1	9.899805E-1	1.024368E+0	9.845450E-1	1.045810E+0	1.035403E+0	1.055400E+0	1.070235E+0	1.010832E+0	9.693178E-1	9.595310E-1	1.043025E+0	9.726555E-1	1.024119E+0	1.010236E+0	1.053635E+0	1.000100E+0	1.068658E+0	1.060557E+0	9.911127E-1	1.065152E+0	1.039484E+0	1.064806E+0	1.042810E+0	1.020525E+0	1.058943E+0	1.057405E+0	1.011345E+0	1.105785E+0	1.073870E+0	1.020470E+0	9.993121E-1	9.919448E-1	1.063614E+0	1.023287E+0	1.038065E+0	1.008097E+0	1.049483E+0	1.042223E+0	1.086927E+0	1.071288E+0	1.028980E+0	1.080010E+0	1.028635E+0	1.031740E+0	1.019782E+0	1.005874E+0	9.897219E-1	1.052340E+0	1.022759E+0	1.018596E+0	1.092264E+0	1.007472E+0	1.046264E+0	1.059233E+0	1.023671E+0	1.035632E+0	9.865599E-1	1.048764E+0	1.021032E+0	1.020197E+0	1.001905E+0	1.013193E+0	1.017895E+0	1.009677E+0	9.959443E-1	1.017339E+0	1.006435E+0	1.003169E+0	1.002501E+0	1.029624E+0	1.008712E+0	1.005599E+0	1.018170E+0	1.058318E+0	1.034373E+0	1.035639E+0	1.023920E+0	1.005458E+0	1.016114E+0	1.087376E+0	1.015710E+0	1.024787E+0	1.024247E+0	9.898942E-1	1.035284E+0	1.056766E+0	1.023647E+0	1.073951E+0	1.040760E+0	9.733403E-1	1.044413E+0	1.013843E+0	1.036697E+0	9.877476E-1	1.043366E+0	1.043399E+0	1.016179E+0	1.044745E+0	1.000588E+0	1.042050E+0	9.937663E-1	1.027970E+0	1.021075E+0	1.036630E+0	1.015358E+0	9.847350E-1	1.078241E+0	1.056648E+0	1.035803E+0	1.042868E+0	1.049823E+0	1.040271E+0	1.023979E+0	1.061728E+0	1.048619E+0	1.010342E+0	1.008963E+0	1.024069E+0	1.032674E+0	9.863191E-1	1.014557E+0	1.003672E+0	1.015430E+0	9.950654E-1	1.009438E+0	1.049619E+0	1.046449E+0	9.823059E-1	1.029062E+0	1.007976E+0	1.013344E+0	1.022672E+0	1.049567E+0	1.030189E+0	1.048644E+0	1.040750E+0	1.002647E+0	1.038076E+0	1.019029E+0	1.008246E+0	1.028522E+0	1.029449E+0	1.055420E+0	1.006705E+0	1.006680E+0	1.055126E+0	1.032504E+0	9.708176E-1	1.033400E+0	1.013043E+0	1.057787E+0	1.052069E+0	1.112670E+0	1.028486E+0	1.012105E+0	1.027810E+0	1.021083E+0	1.032018E+0	1.072239E+0	9.788616E-1	9.915191E-1	1.029131E+0	9.505046E-1
2.995040E+2	8.737242E-1	9.154612E-1	8.478715E-1	9.019791E-1	9.181928E-1	8.983982E-1	8.573745E-1	9.129653E-1	9.290904E-1	9.178437E-1	8.983945E-1	8.530241E-1	9.192721E-1	8.510499E-1	8.830628E-1	8.747951E-1	8.811524E-1	9.030536E-1	9.105180E-1	9.017690E-1	9.061145E-1	8.556032E-1	8.773012E-1	8.795187E-1	8.945714E-1	9.076753E-1	8.721145E-1	8.492618E-1	8.883461E-1	9.046845E-1	8.339168E-1	8.396825E-1	8.988944E-1	8.553728E-1	8.812811E-1	9.021356E-1	9.151839E-1	9.188703E-1	8.792035E-1	8.729795E-1	8.957472E-1	8.700193E-1	9.086300E-1	8.877484E-1	9.075911E-1	8.787782E-1	8.481507E-1	9.103622E-1	8.825869E-1	8.906029E-1	8.915954E-1	8.944430E-1	9.212238E-1	9.209699E-1	8.818703E-1	8.707776E-1	8.957022E-1	8.407633E-1	8.931139E-1	8.972156E-1	8.639157E-1	8.530474E-1	8.717407E-1	8.670962E-1	8.964495E-1	8.910880E-1	9.078195E-1	8.712867E-1	8.753025E-1	8.865250E-1	8.817625E-1	8.623891E-1	8.790017E-1	8.773023E-1	9.053813E-1	8.951071E-1	9.078168E-1	9.349435E-1	8.786240E-1	8.913713E-1	8.855581E-1	8.899493E-1	8.465986E-1	9.196628E-1	8.485941E-1	8.179605E-1	8.882549E-1	8.490587E-1	9.063550E-1	8.460302E-1	8.707875E-1	8.789837E-1	9.019814E-1	8.960370E-1	8.720729E-1	8.826545E-1	9.198348E-1	8.914450E-1	8.797358E-1	9.115253E-1	8.776045E-1	9.077814E-1	9.096464E-1	8.625280E-1	8.792575E-1	9.218161E-1	8.529145E-1	8.879108E-1	8.727051E-1	9.059487E-1	8.949085E-1	8.822678E-1	9.443921E-1	8.914886E-1	8.636447E-1	8.975166E-1	8.660952E-1	8.879969E-1	8.340325E-1	9.042908E-1	8.570752E-1	9.168468E-1	9.126364E-1	8.592526E-1	9.300724E-1	8.608081E-1	8.686088E-1	8.894801E-1	8.669987E-1	8.921782E-1	9.287994E-1	8.497073E-1	8.608632E-1	9.194825E-1	8.841760E-1	8.765386E-1	8.909473E-1	8.983564E-1	9.180944E-1	8.904103E-1	8.812083E-1	8.623199E-1	8.995782E-1	8.994745E-1	8.558733E-1	8.689348E-1	8.811907E-1	8.470203E-1	9.053084E-1	8.761175E-1	9.079973E-1	8.886111E-1	8.949117E-1	9.229461E-1	8.556950E-1	8.976324E-1	8.647223E-1	8.366086E-1	8.893186E-1	8.536408E-1	8.899468E-1	9.107644E-1	8.654353E-1	8.765446E-1	9.261806E-1	8.928784E-1	8.987244E-1	9.562674E-1	9.520525E-1	1.011031E+0
3.000060E+2	8.720970E-1	8.715150E-1	9.124206E-1	8.833442E-1	8.459106E-1	8.849232E-1	9.091829E-1	8.596696E-1	8.391486E-1	8.734583E-1	8.463110E-1	8.471351E-1	8.649159E-1	8.864103E-1	9.179858E-1	8.967485E-1	9.023747E-1	9.178415E-1	8.904201E-1	8.852086E-1	8.873257E-1	8.841890E-1	9.106657E-1	8.718578E-1	8.777513E-1	9.088114E-1	9.342523E-1	8.449137E-1	9.073541E-1	8.806655E-1	9.010591E-1	8.988910E-1	9.432853E-1	8.957004E-1	8.882770E-1	8.796890E-1	8.573615E-1	8.664203E-1	8.961243E-1	8.643081E-1	8.902947E-1	9.030374E-1	8.755631E-1	8.752618E-1	9.169707E-1	8.539686E-1	9.124627E-1	8.965681E-1	9.099168E-1	8.990372E-1	8.762630E-1	8.849267E-1	9.266474E-1	8.926479E-1	9.085187E-1	8.512464E-1	8.897518E-1	8.686047E-1	8.789909E-1	9.161406E-1	9.178496E-1	8.715553E-1	8.663233E-1	9.079990E-1	8.964837E-1	9.121258E-1	8.943667E-1	9.410553E-1	9.032482E-1	8.945219E-1	8.873969E-1	9.033443E-1	8.983409E-1	8.625316E-1	8.477888E-1	8.921047E-1	8.957831E-1	8.989489E-1	8.673156E-1	8.977110E-1	8.601173E-1	8.532882E-1	8.875504E-1	8.240838E-1	8.901770E-1	9.429172E-1	8.885985E-1	9.146826E-1	8.447486E-1	8.453163E-1	9.012850E-1	8.839868E-1	8.614154E-1	8.677918E-1	8.869259E-1	8.601766E-1	8.835890E-1	9.018831E-1	8.695338E-1	8.772293E-1	8.288213E-1	8.788022E-1	8.569378E-1	8.815968E-1	8.641413E-1	8.954872E-1	8.801747E-1	9.339789E-1	8.712263E-1	8.665228E-1	8.360657E-1	8.855908E-1	8.548288E-1	8.864069E-1	8.589228E-1	8.892120E-1	8.815160E-1	8.675057E-1	9.106623E-1	9.025284E-1	8.666638E-1	8.606537E-1	9.062168E-1	9.387699E-1	8.803293E-1	8.595050E-1	8.854537E-1	9.230055E-1	8.794881E-1	8.668450E-1	8.385554E-1	8.795796E-1	8.774779E-1	8.937341E-1	8.482392E-1	8.592946E-1	8.762108E-1	9.372996E-1	8.851320E-1	8.432648E-1	8.660774E-1	8.781969E-1	9.024230E-1	9.053651E-1	8.545191E-1	8.638772E-1	8.959809E-1	8.828742E-1	8.766943E-1	9.310931E-1	8.567752E-1	9.241914E-1	8.611134E-1	8.823473E-1	8.618461E-1	8.096010E-1	8.748960E-1	8.755780E-1	8.720500E-1	8.600090E-1	9.039788E-1	9.297693E-1	8.367656E-1	9.148462E-1	8.591622E-1	9.047134E-1	8.721707E-1	8.530126E-1	9.000751E-1	9.058545E-1
