Photon Energy (eV)	#1	#2	#3	#4	#5	#6	#7	#8	#9	#10	#11	#12	#13	#14	#15	#16	#17	#18	#19	#20	#21	#22	#23	#24	#25	#26	#27	#28	#29	#30	#31	#32	#33	#34	#35	#36	#37	#38	#39	#40	#41	#42	#43	#44	#45	#46	#47	#48	#49	#50	#51	#52	#53	#54	#55	#56	#57	#58	#59	#60	#61	#62	#63	#64	#65	#66	#67	#68	#69	#70	#71	#72	#73	#74	#75	#76	#77	#78	#79	#80	#81	#82	#83	#84	#85	#86	#87	#88	#89	#90	#91	#92	#93	#94	#95	#96	#97	#98	#99	#100	#101	#102	#103	#104	#105	#106	#107	#108	#109	#110	#111	#112	#113	#114	#115	#116	#117	#118	#119	#120	#121	#122	#123	#124	#125	#126	#127	#128	#129	#130	#131	#132	#133	#134	#135	#136	#137	#138	#139	#140	#141	#142	#143	#144	#145	#146	#147	#148	#149	#150	#151	#152	#153	#154	#155	#156	#157	#158	#159	#160	#161	#162	#163	#164	#165	#166	#167	#168	#169	#170	#171	
2.790040E+2	-7.305206E-3	-7.234049E-3	-2.850292E-3	2.227148E-3	1.272784E-3	-2.043310E-3	3.780522E-3	-2.579301E-3	-6.292013E-3	3.336023E-3	1.006307E-4	-7.132151E-3	-1.651278E-3	-8.254633E-3	2.985819E-3	5.241507E-3	5.968970E-4	-3.269429E-4	-1.202116E-3	-7.305508E-3	-4.594203E-3	-8.656391E-3	-7.619302E-4	-4.959973E-3	-3.646494E-8	-6.270931E-3	-1.406999E-3	-1.043197E-2	-2.423252E-3	-2.165177E-3	-2.826524E-3	-6.187952E-3	-2.260739E-3	9.455982E-3	-4.163642E-3	1.088962E-3	-3.739031E-4	1.829421E-3	-7.228915E-3	-1.323178E-2	-8.235180E-3	5.143513E-3	-1.855749E-4	-5.228817E-3	-3.155538E-3	9.885168E-3	-3.648339E-4	2.291496E-3	-1.522895E-3	-3.544346E-3	-4.573048E-3	-1.053154E-3	-7.786678E-3	-7.095600E-3	-4.499077E-3	-7.153876E-3	-2.417364E-3	3.045675E-3	-7.999489E-3	1.022605E-3	-2.219435E-4	-3.113086E-3	8.592818E-3	-6.433188E-3	-7.151335E-3	-1.492281E-3	-7.063579E-3	-3.877479E-3	-3.977923E-3	-2.978297E-3	5.095227E-4	-7.326776E-3	-5.741728E-3	-3.598381E-3	-5.143825E-3	-1.688600E-2	1.786767E-3	4.433474E-3	3.181332E-3	-6.347444E-3	-6.663898E-3	-2.154626E-3	-9.841277E-3	-4.222166E-3	3.310741E-4	1.765762E-3	4.267260E-4	1.831650E-3	5.710924E-3	-1.954938E-4	1.409296E-3	-2.814242E-3	1.079362E-2	6.696017E-3	-6.555586E-3	-2.520748E-3	-5.692107E-3	-4.025652E-3	3.475145E-3	8.200249E-4	-6.383850E-3	-3.371213E-3	-1.314552E-3	-5.750645E-3	-1.190988E-2	6.109122E-3	-3.506232E-3	-4.262613E-3	-1.567959E-3	-1.161686E-3	-1.232588E-3	-5.522861E-3	-2.477683E-3	-4.470572E-3	-6.142023E-3	-5.304142E-3	-3.891611E-3	-8.242762E-3	-4.939125E-3	-5.883162E-3	-4.231337E-3	-2.826341E-3	7.268409E-3	-6.360084E-3	-1.314392E-3	-3.181546E-3	2.325543E-3	-1.044155E-2	-2.373023E-3	-1.208815E-3	4.434162E-3	-8.717979E-3	2.852418E-3	3.960017E-3	-1.200438E-3	7.198352E-3	5.874081E-4	-6.944953E-3	1.293825E-3	-2.636296E-3	-1.683194E-3	3.629420E-3	8.579208E-3	-8.213534E-3	-3.489503E-3	1.726418E-3	2.051204E-3	-1.385926E-3	4.354770E-3	-9.108958E-4	2.735595E-3	-4.945597E-3	5.669148E-4	4.066706E-3	4.105315E-4	-9.617249E-3	-9.301984E-3	-5.758162E-3	-2.985918E-4	-1.274388E-2	-1.543161E-2	7.209353E-3	-4.836584E-3	1.705809E-3	7.028580E-4	-4.524873E-3	-8.754752E-3	7.118902E-4	3.698059E-3	-1.016781E-2	-2.233252E-2
2.794980E+2	2.435104E-3	-1.541700E-3	-1.140146E-4	-1.965132E-3	1.272820E-3	-2.043325E-3	4.696993E-3	-1.596752E-3	-2.169642E-4	-1.265375E-3	-1.509293E-3	-8.009979E-3	-1.699808E-8	-2.007859E-3	-2.985809E-3	-9.734166E-3	-7.043084E-3	1.416800E-3	2.003485E-3	-7.305535E-3	-1.398245E-3	-1.129127E-3	-4.148205E-3	-6.547185E-3	-5.313637E-3	1.692174E-3	8.441866E-4	3.477320E-3	-8.885279E-3	-7.676670E-3	1.130607E-2	-6.187892E-3	1.356428E-3	-3.003671E-3	2.180931E-3	-1.459166E-2	4.112671E-3	-6.643772E-3	-2.628696E-3	-6.816357E-3	-5.733332E-3	6.708537E-4	-6.866696E-3	-9.120026E-3	-3.155575E-3	-4.992889E-4	-4.742778E-3	-9.374354E-3	-5.857094E-4	4.687675E-3	4.369803E-3	1.755273E-3	6.719983E-3	3.084930E-4	-5.910548E-3	-4.628974E-3	-7.252233E-3	-7.028842E-4	-2.891285E-4	-5.340322E-3	-6.436335E-3	-5.603602E-3	-5.301969E-3	2.144369E-3	-1.787821E-3	-5.471734E-3	-5.449042E-3	-5.702125E-3	-6.306389E-3	-2.978244E-3	-8.491216E-4	-9.001488E-3	-4.841055E-3	6.350092E-4	-2.095628E-3	-3.843028E-3	5.360368E-3	3.092824E-4	-6.998910E-3	-1.660070E-3	-2.714935E-3	-6.690575E-3	-2.683982E-3	-9.418656E-3	-7.614501E-3	-3.438551E-3	3.157450E-3	2.645659E-3	-6.589552E-3	-1.759769E-3	-1.811946E-3	-9.380863E-3	-1.058220E-3	-4.017587E-3	4.248839E-8	-1.008397E-4	-5.692169E-3	-5.814822E-3	-5.791926E-3	-8.551701E-3	-2.127954E-3	-3.745412E-4	-2.816900E-3	-5.750645E-3	3.183869E-3	-1.607668E-3	-1.101941E-3	-1.291913E-4	2.239731E-4	5.597184E-3	-6.542183E-3	-2.923861E-3	-5.450941E-3	-4.470600E-3	-1.045219E-2	-1.072115E-2	-4.323983E-4	-1.498697E-3	-9.967977E-3	-8.404503E-3	-1.486687E-3	6.522374E-4	-3.378265E-3	-1.320940E-2	-3.226187E-3	-2.303874E-3	3.310078E-8	1.842634E-3	-3.322260E-3	-2.417535E-4	-2.487462E-3	2.151220E-3	-2.218521E-3	-4.163159E-3	-1.200429E-3	-9.738869E-3	-3.172122E-3	-1.894055E-3	1.293877E-3	-4.644930E-3	1.907611E-3	-5.787563E-3	-4.812733E-3	8.213342E-4	-1.146559E-2	-6.560524E-3	-1.595360E-3	4.619791E-4	-3.483846E-3	-9.108909E-4	-4.056218E-3	1.384742E-3	2.380994E-3	-2.088300E-3	-1.231665E-3	-8.690294E-3	3.927502E-3	-2.947971E-8	-2.687181E-3	-3.108099E-4	-6.751332E-3	-9.011654E-3	-4.396969E-4	-2.436861E-4	-7.731349E-3	-9.803912E-3	-3.367244E-3	-1.523421E-2	-6.743550E-3	1.735955E-3	-5.676177E-9
2.800050E+2	1.461057E-3	-4.387869E-3	-5.586608E-3	-7.205578E-3	-2.969877E-3	-4.086590E-4	5.613471E-3	5.281461E-3	-1.952699E-3	-7.707347E-3	-3.924193E-3	-3.620939E-3	8.256061E-4	2.454103E-3	3.732271E-3	6.739056E-3	-3.223134E-3	1.536673E-2	-5.209041E-3	4.727094E-3	6.591663E-3	1.091459E-2	3.301659E-3	-1.051516E-2	-4.428030E-3	-1.025250E-2	-4.408581E-3	-1.159133E-3	-8.885284E-3	-4.527249E-3	-4.946406E-3	2.189550E-3	-3.165026E-3	-2.113686E-3	5.948170E-4	8.058038E-3	-1.869385E-3	-3.562578E-3	-6.571585E-4	3.608689E-3	-5.733337E-3	-2.907216E-3	3.526161E-3	6.444813E-3	2.199348E-3	-9.286087E-3	7.661423E-3	3.124734E-3	-4.334422E-3	-4.459002E-3	-5.386022E-3	-1.053199E-3	-6.933337E-3	-6.272934E-3	-3.087577E-3	-2.104057E-3	-7.252227E-3	-3.514238E-3	-1.108363E-2	6.476573E-3	-1.109674E-3	-6.226303E-4	-4.570674E-3	-5.653393E-3	-8.939511E-4	-2.288157E-3	2.018011E-4	1.596588E-3	-9.702771E-5	-9.022994E-5	-1.528454E-3	-2.302721E-3	-6.642412E-3	-5.291722E-3	7.048959E-3	-1.048080E-3	-6.253687E-3	-1.340358E-3	2.726902E-4	2.245986E-3	1.234035E-3	2.381411E-3	2.882841E-3	5.304787E-3	-4.965988E-3	-1.951644E-3	-5.034850E-3	-5.494887E-3	-4.832334E-3	-1.759759E-3	-6.643868E-3	-4.690427E-3	-4.444430E-3	-2.487113E-3	-1.065282E-2	-7.360618E-3	-5.692175E-3	1.341855E-3	4.401867E-3	-2.928613E-3	-1.276814E-3	-4.869511E-3	-1.314502E-3	-2.278574E-3	-3.419661E-3	1.822018E-3	-4.307611E-3	-1.046286E-2	-4.255968E-3	-3.696230E-3	-2.749594E-3	-5.522856E-3	4.459849E-3	-1.719460E-3	2.478352E-3	7.335494E-3	4.324022E-4	-4.496051E-3	-2.065456E-3	-8.404549E-3	-7.890824E-3	-1.956651E-3	-5.835193E-3	-6.360090E-3	-3.226204E-3	-9.325293E-3	-1.550379E-3	-2.252109E-3	-2.373023E-3	1.692322E-3	3.569004E-3	-1.471856E-3	-2.218562E-3	-6.600083E-3	-5.632682E-3	-6.351449E-3	-6.931664E-3	1.473161E-3	-3.881529E-3	-1.632013E-3	-6.171702E-3	-6.572296E-3	-2.301728E-3	3.285373E-3	7.477561E-3	1.001343E-2	-6.837997E-4	-5.081624E-3	-5.225712E-3	-1.012578E-4	1.226284E-3	1.384747E-3	5.669480E-4	5.495284E-4	1.231745E-3	7.068089E-3	-8.475166E-3	8.225824E-4	-1.891002E-3	-1.139700E-3	8.680263E-3	-6.308213E-3	-2.198433E-3	-3.167875E-3	-1.171360E-3	-6.033183E-3	-5.676179E-3	-1.566117E-3	-1.522693E-3	9.671857E-3	-1.488830E-2
2.805030E+2	3.409158E-3	-3.439130E-3	-2.850314E-3	-6.157494E-3	-3.818421E-3	-4.495301E-3	-9.966784E-3	-1.044012E-2	-9.763499E-3	-3.451248E-4	-1.509318E-3	-3.620912E-3	-2.476901E-3	1.561658E-3	9.106743E-9	-6.739064E-3	1.551861E-3	-2.942576E-3	1.202083E-3	4.727152E-3	1.997416E-4	-1.016186E-2	-8.469425E-5	8.531168E-3	-1.771206E-3	6.470030E-3	-8.160565E-3	6.954493E-4	7.269803E-3	1.968382E-4	-4.239799E-3	-2.379963E-3	3.165008E-3	-3.003677E-3	-9.913456E-4	-2.395650E-3	4.112658E-3	-4.814121E-4	1.971487E-3	-2.806730E-3	6.775789E-3	1.565422E-3	2.041440E-3	8.390400E-3	-1.625601E-3	-1.248127E-2	-6.202109E-3	-4.374687E-3	4.100137E-3	-2.629674E-3	-2.947077E-3	-1.053125E-3	7.573283E-3	8.535297E-3	-1.676141E-3	-3.787354E-3	-4.351378E-3	-1.640004E-3	2.023946E-3	-6.249280E-3	3.329147E-3	-3.113086E-3	-1.828361E-4	-1.033208E-2	-1.787876E-3	3.283048E-3	-5.449018E-3	-9.351507E-3	1.455349E-3	-8.122501E-4	-1.698388E-4	-3.140043E-3	3.264888E-3	4.868395E-3	1.714590E-3	-2.911339E-3	-6.812092E-9	-1.041346E-2	-7.726088E-3	-4.003790E-3	-3.702168E-3	-2.154610E-3	-1.093511E-3	1.082283E-4	-3.200297E-3	3.252715E-3	-1.621387E-3	-6.308975E-3	-4.393004E-4	-5.670347E-3	-2.013104E-4	-8.442756E-3	1.481471E-3	-8.609138E-3	3.277797E-3	2.319113E-3	-5.692180E-3	-2.236465E-3	5.328582E-3	-6.677359E-3	-2.979157E-3	1.123724E-3	-1.314570E-3	2.929610E-3	3.537364E-4	1.821992E-3	-1.232177E-2	-2.195930E-3	-1.567949E-3	-6.230842E-3	-1.033467E-2	-3.248764E-4	-1.486666E-3	-5.387660E-3	4.202434E-3	-8.012650E-3	-1.297230E-3	8.992134E-3	5.118702E-3	1.680895E-3	1.257968E-3	-4.565540E-3	-9.213683E-4	3.424704E-3	5.974493E-4	5.595143E-3	-1.240309E-2	-3.071032E-3	9.017546E-3	4.593446E-3	-4.217884E-3	1.120879E-2	-5.599181E-3	-2.538453E-3	7.664180E-3	-5.504581E-3	-1.292325E-3	-3.577686E-3	3.018986E-3	-9.666481E-3	5.498406E-3	6.768531E-3	1.046209E-3	-5.749505E-3	2.492523E-3	-1.956661E-3	3.874487E-3	-9.701266E-3	4.354738E-3	-1.305625E-2	-2.546926E-3	-7.319493E-3	-2.154308E-3	1.428792E-3	-1.231695E-3	-1.274597E-3	-5.994622E-3	-2.467790E-3	4.976401E-4	-7.770668E-3	-1.928927E-3	-7.209371E-3	-1.319014E-3	-4.142694E-3	-1.171428E-3	1.206635E-2	3.559646E-3	-2.705141E-3	2.175366E-4	-1.016780E-2	1.861039E-2
2.810050E+2	-5.357183E-3	9.843091E-3	-1.139701E-4	2.227186E-3	-4.666955E-3	2.860673E-3	1.145897E-4	2.333686E-3	-2.169748E-4	3.336006E-3	-7.043361E-4	4.279292E-3	-1.651308E-3	-3.792666E-3	-5.225171E-3	2.246345E-3	1.551884E-3	-3.814429E-3	-2.003454E-3	4.297059E-4	-6.192170E-3	-7.150915E-3	-6.857231E-3	2.976014E-3	8.856023E-4	1.692111E-3	6.847374E-3	1.622743E-3	-1.615525E-3	-5.905193E-4	5.653024E-3	-3.903159E-3	2.260732E-3	-1.223691E-3	7.732471E-3	7.186945E-3	-4.112645E-3	1.829454E-3	-2.204819E-8	3.608660E-3	1.772127E-3	8.721578E-3	-9.279131E-4	-4.256005E-3	1.434333E-3	8.287578E-3	4.013124E-3	6.457863E-3	-1.522900E-3	1.029009E-3	-1.321081E-3	-1.989292E-3	-1.813294E-3	-1.336830E-3	1.852574E-3	1.304529E-2	1.402098E-2	1.054280E-2	1.252932E-3	1.136079E-4	-2.219489E-4	1.037685E-3	-7.495891E-3	-1.754500E-3	-1.567715E-8	2.487172E-3	5.045376E-3	7.982992E-3	5.336197E-3	-5.866276E-3	-8.491423E-4	7.745421E-3	-8.443731E-3	-7.831798E-3	-5.905892E-3	-6.637938E-3	-6.253752E-3	2.783808E-3	3.181337E-3	2.246053E-3	7.157531E-3	-1.247389E-3	-2.684012E-3	3.572638E-3	-3.200297E-3	-2.695082E-3	-9.386857E-4	1.831655E-3	7.468142E-3	5.279278E-3	2.214614E-3	8.442764E-3	6.349229E-4	1.339210E-3	9.833346E-3	-2.520797E-3	2.671849E-3	4.920245E-3	-5.791965E-3	1.112891E-2	2.979139E-3	1.123733E-3	1.070417E-2	-5.425143E-4	4.127186E-3	-7.609599E-3	3.706546E-3	2.970977E-3	2.911949E-3	-1.161702E-3	-4.740574E-4	4.006794E-3	-4.955336E-4	-8.024051E-4	7.542432E-4	2.821348E-3	-1.297178E-3	-7.493272E-4	-6.285956E-4	-1.680938E-3	3.431538E-4	4.130731E-3	-9.213583E-4	3.424632E-3	-5.137987E-3	-5.814594E-3	-2.325557E-3	3.480510E-3	-5.220695E-3	-7.011052E-3	-4.217879E-3	-6.906464E-3	-7.289517E-3	1.523098E-3	6.186734E-3	-1.270303E-3	-1.292343E-3	-6.944886E-3	-3.881550E-3	3.389532E-3	-1.683161E-3	-4.218034E-3	1.046239E-3	4.634496E-8	-5.483608E-3	8.057125E-4	-6.153630E-3	5.081649E-3	-7.838560E-3	4.756911E-3	-1.037652E-3	-1.780403E-3	-3.968404E-3	-3.846838E-3	4.105616E-4	-1.274529E-3	7.234864E-3	4.112995E-3	-4.279630E-3	5.179947E-4	1.470825E-9	-4.505880E-3	6.595303E-3	7.310733E-4	-5.857109E-3	3.016594E-3	8.177545E-3	1.850880E-3	7.178549E-3	5.703882E-3	-5.676177E-9
2.815020E+2	-4.870072E-4	-3.439165E-3	-1.026070E-3	2.227193E-3	7.212564E-3	4.086465E-4	-3.551420E-3	7.246697E-3	-1.952699E-3	3.336062E-3	1.710520E-3	-5.376567E-3	4.953872E-3	1.561685E-3	8.210985E-3	-5.990269E-3	2.506837E-3	-4.686325E-3	-3.606243E-3	-1.289241E-3	-3.795193E-3	1.693642E-2	-3.470948E-3	1.388787E-3	-9.741696E-3	-2.289383E-3	-6.566069E-4	-3.940953E-3	1.211631E-2	-2.952582E-3	-1.130608E-2	9.805486E-3	-8.590807E-3	1.446199E-3	-1.982594E-4	-6.533465E-4	-3.738666E-4	-2.022021E-3	-7.228903E-3	4.009600E-4	-5.733367E-3	-1.006335E-2	-9.279403E-4	-1.337559E-3	2.964317E-3	-2.096840E-3	3.283487E-3	5.624651E-3	-6.208798E-3	7.431642E-3	1.117859E-3	8.191006E-4	3.306655E-3	3.599204E-3	5.381228E-3	-5.470625E-3	-6.285268E-3	-3.514261E-3	-1.831185E-3	-7.158293E-3	-5.548572E-3	7.679022E-3	-1.115242E-2	2.924202E-3	1.787844E-3	4.078905E-3	2.623621E-3	-4.789749E-3	-9.703244E-5	-5.144261E-3	-2.207745E-3	5.233416E-3	4.165572E-3	9.948505E-3	2.476666E-3	-3.843006E-3	1.786745E-3	-2.165128E-3	-4.090317E-3	-9.769154E-5	2.221286E-3	-1.247389E-3	-5.069702E-3	-1.623905E-3	5.628153E-3	1.022293E-3	4.266428E-4	-1.424552E-3	-7.468150E-3	7.625624E-3	5.435856E-3	4.690423E-3	-8.677244E-3	1.339159E-3	3.277797E-3	3.932425E-3	-1.974856E-3	-4.920253E-3	1.621782E-3	-1.991508E-3	4.681525E-3	4.120328E-3	-2.816928E-3	9.005705E-3	-9.079823E-3	-5.894766E-3	5.008909E-4	9.042003E-4	-5.151945E-3	3.062645E-3	6.352516E-3	5.414641E-4	-7.433120E-3	3.782845E-3	-3.555899E-3	1.094685E-2	1.167482E-2	7.493067E-4	5.118711E-3	-3.361837E-3	-4.231315E-3	1.521832E-3	-1.023876E-4	5.381646E-3	-5.138028E-3	1.206788E-3	-6.201587E-3	1.023701E-3	-6.169904E-3	-1.208779E-3	5.299404E-3	1.245415E-3	6.233064E-3	8.833975E-3	-9.326216E-3	-7.198317E-3	3.407037E-3	3.156802E-3	5.606663E-3	7.406750E-3	-7.967102E-3	-7.357025E-3	-3.975729E-3	-4.106774E-3	8.474574E-3	7.251126E-3	2.051227E-3	9.701240E-3	1.741857E-3	1.518186E-3	1.226302E-3	2.967349E-3	-3.061342E-3	-1.209047E-3	4.105716E-4	5.214190E-3	4.754365E-3	-4.935545E-3	4.976644E-4	1.129339E-2	8.680281E-3	1.261636E-2	-9.233471E-3	3.655262E-3	9.137054E-3	3.016567E-3	9.716827E-3	9.823904E-3	2.175260E-4	-2.480143E-4	1.861043E-2
2.820060E+2	2.435057E-3	3.201946E-3	4.446435E-3	1.309858E-4	2.969862E-3	6.129944E-3	-9.050296E-3	-7.492330E-3	7.593857E-3	-5.866795E-3	-2.314304E-3	1.656855E-2	5.779551E-3	1.561675E-3	2.239357E-3	6.739015E-3	-3.581079E-4	-2.070697E-3	2.003490E-3	1.289185E-3	1.797743E-3	-2.634585E-3	3.978882E-3	6.943981E-3	5.313623E-3	-1.493055E-3	-4.408609E-3	4.404620E-3	-1.615515E-3	7.282998E-3	4.946425E-3	2.951143E-3	4.521679E-4	-3.893651E-3	-1.982546E-4	2.831197E-3	3.738289E-4	1.059117E-3	1.182916E-2	5.212504E-3	5.107900E-3	3.354465E-3	7.237825E-3	-4.256005E-3	-9.565489E-5	2.995305E-4	-7.661454E-3	2.291506E-3	2.225761E-3	-5.373657E-3	7.621736E-3	-4.797760E-3	2.453365E-3	4.421895E-3	-2.381872E-3	5.470643E-3	-3.384354E-3	-3.514221E-3	2.794993E-3	1.136135E-4	-1.109734E-3	-2.282976E-3	1.078678E-2	6.823033E-3	4.469618E-3	-3.084067E-3	-2.219940E-3	7.070610E-3	4.560013E-3	7.851789E-3	5.094522E-4	5.233416E-3	9.569578E-3	-1.905061E-3	5.524868E-3	1.106321E-2	-1.786764E-3	-1.340358E-3	5.362858E-3	4.589687E-3	-2.714910E-3	-2.154626E-3	1.083535E-2	-4.222161E-3	1.004228E-2	2.509186E-3	3.157416E-3	2.034968E-4	8.346772E-3	-2.541864E-3	3.825250E-3	9.380531E-4	-2.116513E-4	-1.721816E-3	1.638865E-3	-1.714118E-3	9.177117E-3	5.814836E-3	-1.042551E-2	9.254554E-3	8.086280E-3	3.745777E-4	-1.314552E-3	2.929557E-3	1.356079E-2	6.966517E-3	4.507940E-3	9.041751E-4	-7.839920E-3	-2.851427E-3	6.352548E-3	9.204779E-3	9.415299E-3	5.616875E-3	2.478383E-3	-1.692793E-3	-2.162005E-3	1.498704E-3	2.245077E-3	9.245009E-3	1.589598E-2	-4.565534E-3	-1.740264E-3	-3.424659E-3	7.288804E-3	2.084476E-3	3.875936E-3	5.118380E-3	4.271450E-3	1.136274E-2	-2.487499E-3	3.056975E-3	5.387875E-3	-7.412396E-3	1.754436E-3	1.143256E-2	-3.172099E-3	-1.052252E-3	-4.313055E-4	-1.631995E-3	5.498439E-3	2.059996E-3	-3.975724E-3	8.213551E-3	-3.489528E-3	-9.322836E-3	2.962921E-3	2.309822E-3	-8.709281E-4	-9.108514E-4	-4.810866E-3	5.341259E-3	-2.154253E-3	-3.297031E-4	-2.873946E-3	7.995038E-3	2.273796E-3	4.112990E-3	6.867253E-3	5.180300E-4	-1.928921E-3	2.703529E-3	4.836550E-3	4.630010E-3	4.451362E-3	7.541659E-4	-4.136873E-3	5.267883E-3	-5.003268E-3	-6.199886E-3	3.722091E-3
2.825040E+2	3.409021E-3	6.996876E-3	8.094834E-3	8.515692E-3	-1.272777E-3	-4.086689E-4	8.362925E-3	7.246661E-3	1.280099E-2	5.176551E-3	8.150293E-3	6.912709E-3	-5.779525E-3	6.916037E-3	-8.957460E-3	1.497577E-3	4.416847E-3	-2.942565E-3	6.811797E-3	4.727147E-3	7.390663E-3	1.881872E-3	8.042467E-3	2.182364E-3	1.505538E-2	1.045156E-2	1.134980E-2	5.331925E-3	4.038745E-3	1.043236E-2	1.413286E-3	3.712787E-3	6.782236E-3	2.336195E-3	-4.956718E-3	-1.524482E-3	-1.869358E-3	7.991791E-3	3.943053E-3	1.002405E-2	1.177940E-2	-6.485264E-3	-3.897302E-3	9.363200E-3	1.434371E-3	5.891212E-3	4.013142E-3	-6.041209E-3	7.848827E-3	2.858353E-3	1.117830E-3	7.372156E-3	-3.519977E-3	-2.159526E-3	1.032141E-2	4.628956E-3	1.692185E-2	-7.028671E-4	1.513156E-2	1.102150E-2	1.131906E-2	6.018672E-3	9.324189E-3	1.228155E-2	5.363537E-3	2.487114E-3	1.231078E-2	7.070671E-3	-8.731878E-4	1.001777E-2	4.585327E-3	3.558775E-3	8.668889E-3	3.175054E-3	-3.619738E-3	2.410618E-2	5.360330E-3	7.732735E-3	6.817099E-3	3.027270E-3	5.183058E-3	1.326781E-2	7.654294E-3	1.050124E-2	2.979581E-3	-4.646781E-4	4.266886E-4	6.715954E-3	-2.196502E-3	-9.776696E-4	-4.227890E-3	1.125705E-2	1.481528E-3	7.461268E-3	-8.194436E-4	7.965582E-3	1.289452E-2	4.920256E-3	7.182025E-3	-1.054305E-3	-2.979168E-3	1.872902E-3	1.878376E-4	-5.424931E-4	3.183789E-3	-1.607616E-3	1.252218E-2	1.227124E-2	1.724782E-2	6.442059E-3	8.628029E-3	5.414166E-4	3.468796E-3	7.450978E-3	1.023670E-2	4.627047E-3	-3.026805E-3	3.746693E-3	5.118663E-3	1.680909E-2	3.430589E-4	7.609266E-3	5.630427E-3	1.712325E-2	1.015655E-2	1.173890E-2	1.627910E-2	4.299467E-3	6.169908E-3	-7.978107E-3	1.081547E-4	-5.661059E-4	2.852424E-3	6.397001E-3	1.754414E-3	1.143260E-2	1.186611E-2	1.578387E-2	-3.018966E-3	9.415433E-3	4.600703E-3	1.147697E-2	4.394258E-3	5.749507E-3	5.483573E-3	-1.956661E-3	-2.507049E-3	-1.385875E-3	6.967682E-3	9.615045E-3	7.263480E-3	2.967397E-3	7.823451E-3	1.428862E-3	2.873896E-3	5.793526E-4	5.581244E-3	4.112960E-3	1.293848E-3	9.635639E-3	8.680240E-3	4.505873E-3	6.595346E-3	-3.167899E-3	1.639972E-3	1.508289E-3	4.810301E-4	1.850914E-3	1.957840E-3	9.671821E-3	-3.722079E-3
2.830040E+2	-4.383095E-3	6.048172E-3	1.356745E-2	2.227161E-3	4.242548E-4	3.677938E-3	2.863971E-3	3.684553E-4	1.019743E-2	-5.866756E-3	8.150244E-3	1.130171E-2	7.430858E-3	1.673239E-2	9.703881E-3	1.497577E-3	1.014679E-2	6.647998E-3	7.613194E-3	8.165046E-3	1.218460E-2	1.392550E-2	5.333424E-3	8.531217E-3	7.970464E-3	8.062642E-3	1.134974E-2	9.041006E-3	1.130853E-2	4.920954E-3	7.772992E-3	1.209024E-2	9.495054E-3	1.212591E-2	8.525528E-3	4.573468E-3	5.608190E-3	3.370058E-3	1.051479E-2	1.403369E-2	3.439996E-3	1.051059E-2	1.020728E-2	1.325442E-2	1.673409E-2	1.308040E-2	6.931817E-3	6.457812E-3	5.974485E-3	1.566370E-2	5.995744E-3	8.191406E-4	1.440000E-2	-1.336870E-3	1.102713E-2	5.470592E-3	6.285196E-3	4.919978E-3	8.963284E-3	2.192931E-2	2.441395E-3	2.594259E-2	8.592862E-3	1.773993E-2	8.045261E-3	8.058348E-3	4.238147E-3	3.421245E-3	7.664658E-3	7.129742E-3	6.623246E-3	2.700441E-2	1.227155E-2	4.021717E-3	1.390742E-2	1.478982E-2	1.250744E-2	2.783813E-3	6.817179E-3	8.495814E-3	-5.676671E-3	1.054620E-2	-2.982046E-4	1.483164E-2	-3.200319E-3	3.996125E-3	6.570954E-3	1.322838E-2	1.098256E-2	-3.323982E-3	1.107308E-2	1.782363E-2	6.349436E-4	5.930733E-3	1.393062E-2	8.772256E-3	3.601179E-3	1.476070E-2	7.182025E-3	8.317415E-3	1.149096E-2	1.985270E-2	9.953045E-3	1.768596E-2	2.016428E-2	5.251700E-3	4.507979E-3	2.970914E-3	-1.568003E-3	3.907551E-3	4.835524E-3	8.338455E-3	6.442041E-3	1.478739E-2	6.788568E-3	1.816949E-2	9.945240E-3	-5.245412E-3	1.302120E-2	1.344726E-2	1.681092E-2	-2.174204E-4	2.354560E-3	1.418785E-2	-3.226181E-3	4.717530E-3	6.976746E-3	1.576465E-2	9.017604E-3	1.232972E-2	9.734236E-4	6.679974E-3	1.299431E-2	-5.787770E-3	3.970560E-3	1.820749E-2	9.986305E-3	9.049462E-3	-5.606680E-3	6.402461E-3	1.447541E-2	5.983745E-3	7.742245E-3	1.889124E-2	6.480591E-3	1.277576E-2	7.521113E-3	2.448414E-2	4.354764E-3	1.518211E-3	1.330055E-2	1.167157E-2	2.233642E-2	1.198023E-2	6.979582E-3	1.170288E-2	4.754406E-3	1.233887E-2	2.040279E-2	4.662452E-3	9.644754E-3	-9.011919E-4	4.836593E-3	7.554246E-3	1.569696E-2	5.279041E-3	-1.058233E-3	1.437994E-2	8.918853E-3	1.165577E-2	1.488836E-2
2.835020E+2	8.279215E-3	-1.541682E-3	1.539159E-2	1.794841E-2	2.121359E-3	4.086864E-4	8.362869E-3	2.002047E-2	1.366888E-2	8.857699E-3	8.955260E-3	8.668326E-3	2.559520E-2	6.023598E-3	1.418261E-2	9.734204E-3	1.969673E-2	1.187927E-2	8.414571E-3	1.590034E-2	1.697842E-2	-1.881845E-3	2.091032E-2	6.943971E-3	1.859781E-2	8.858980E-3	1.660254E-2	1.182290E-2	4.038760E-3	1.200709E-2	2.190553E-2	1.970618E-2	1.582513E-2	5.896053E-3	2.200783E-2	1.938297E-2	2.205884E-2	1.107295E-2	9.200473E-3	1.202848E-3	1.678309E-2	9.616113E-3	7.237798E-3	1.228165E-2	2.514906E-2	9.885158E-3	1.203941E-2	2.229010E-2	1.815770E-2	1.657834E-2	1.819046E-2	9.244428E-3	1.951998E-2	2.005279E-2	1.667300E-2	2.230329E-2	1.885579E-2	1.054277E-2	1.513157E-2	1.283942E-2	2.441417E-3	1.016951E-2	-1.645400E-3	3.703958E-3	6.257423E-3	1.760903E-2	1.715433E-2	1.345700E-2	1.076941E-2	1.146176E-2	6.623233E-3	2.867907E-2	1.767553E-2	1.418194E-2	2.610022E-2	1.758470E-2	8.040550E-3	5.258284E-3	2.136043E-2	1.240195E-2	2.196624E-2	4.195792E-3	1.640217E-2	2.609069E-2	3.862392E-3	1.663520E-2	1.203242E-2	1.404247E-2	1.361837E-2	5.279317E-3	1.429434E-2	3.095688E-2	5.714270E-3	2.123588E-2	1.802790E-2	2.087186E-2	2.218781E-2	1.654987E-2	1.737590E-2	1.394038E-2	1.830050E-2	4.869543E-3	2.347421E-2	1.247783E-2	9.787359E-3	1.039623E-2	1.332355E-2	1.537135E-2	1.097591E-2	1.995987E-2	4.835496E-3	7.472151E-3	1.238845E-2	-2.636503E-3	2.478346E-3	2.448929E-2	1.426923E-2	1.049084E-2	1.589486E-2	1.596869E-2	1.040681E-2	1.717515E-2	8.906310E-3	2.397257E-2	3.465197E-3	2.402627E-2	2.093023E-2	1.985939E-2	1.756056E-2	1.909902E-2	8.760243E-3	1.302036E-2	1.806529E-2	1.533255E-2	3.231846E-3	1.905437E-2	9.046398E-3	6.524029E-3	1.423231E-2	2.648874E-2	1.447540E-2	1.147697E-2	1.109018E-2	1.560572E-2	5.483579E-3	1.369652E-2	1.481421E-2	2.171232E-2	1.654808E-2	-4.149635E-3	1.254601E-2	2.591496E-2	1.326584E-2	1.637661E-2	2.258104E-2	1.541073E-2	9.715443E-3	3.372636E-2	1.482934E-2	1.958213E-2	2.507635E-2	-3.604667E-3	8.354066E-3	1.242790E-2	8.199888E-3	1.583712E-2	1.972232E-2	2.463105E-2	1.065915E-2	2.554347E-2	1.116626E-2
2.840050E+2	6.331162E-3	2.217652E-2	3.910621E-2	2.318881E-2	2.248618E-2	1.920719E-2	2.944206E-2	3.082909E-2	2.408332E-2	1.345910E-2	3.310410E-2	2.007976E-2	2.476954E-2	2.833346E-2	2.388653E-2	2.021716E-2	3.784169E-2	1.798236E-2	2.524374E-2	1.332182E-2	2.177241E-2	2.145275E-2	2.497389E-2	2.757752E-2	2.922513E-2	5.673653E-3	2.260580E-2	4.149598E-2	2.342487E-2	2.302995E-2	9.186202E-3	2.046770E-2	3.119823E-2	2.547552E-2	2.755933E-2	2.635210E-2	2.654534E-2	2.493822E-2	1.248634E-2	2.927029E-2	1.261337E-2	1.229967E-2	1.837304E-2	2.200966E-2	1.979412E-2	2.426361E-2	2.444365E-2	2.895636E-2	4.252411E-2	2.572505E-2	1.168659E-2	3.077577E-2	2.378661E-2	1.429409E-2	2.231896E-2	2.819474E-2	1.982268E-2	3.397111E-2	1.821570E-2	4.556301E-2	3.706442E-2	3.092352E-2	2.906942E-2	1.228145E-2	3.307512E-2	2.238429E-2	2.199795E-2	2.166806E-2	1.775495E-2	2.445777E-2	2.224735E-2	2.198031E-2	1.857622E-2	2.518873E-2	2.305204E-2	2.131133E-2	2.590825E-2	1.928039E-2	1.481596E-2	1.630810E-2	1.999174E-2	1.326783E-2	2.117367E-2	1.916203E-2	6.510936E-3	2.406991E-2	6.570887E-3	2.299714E-2	1.976862E-2	3.715084E-3	2.234748E-2	2.251416E-2	3.026459E-2	2.582744E-2	1.966674E-2	2.087184E-2	3.519847E-2	2.907415E-2	2.200936E-2	3.080939E-2	2.681230E-2	1.385941E-2	1.521128E-2	2.202612E-2	3.337132E-2	3.268907E-2	1.332355E-2	3.500533E-2	1.814380E-2	1.911505E-2	1.773013E-2	2.219982E-2	1.833504E-2	1.111920E-2	5.926532E-3	2.990633E-2	2.118769E-2	9.741453E-3	2.451581E-2	2.353269E-2	1.040677E-2	3.456771E-2	2.037192E-2	2.788644E-2	2.067153E-2	2.402635E-2	3.255815E-2	1.248888E-2	2.230664E-2	2.586833E-2	3.212091E-2	1.120883E-2	2.567170E-2	3.239125E-2	1.357383E-2	3.260407E-2	1.938514E-2	2.420206E-2	2.544560E-2	2.146719E-2	2.255473E-2	2.481777E-2	1.527520E-2	3.531830E-2	1.944166E-2	2.014199E-2	1.663757E-2	3.187553E-2	2.090288E-2	2.095065E-2	3.065750E-2	3.145401E-2	2.505771E-2	1.901446E-2	2.750779E-2	2.097254E-2	2.542556E-2	1.891970E-2	1.801416E-2	2.787086E-2	2.314744E-2	2.703519E-2	3.033853E-2	9.503682E-3	2.319407E-2	2.488689E-2	3.049740E-2	2.007492E-2	3.850328E-2	1.760766E-2	3.722113E-3
2.841030E+2	1.996748E-2	1.553545E-2	2.177635E-2	4.310232E-2	3.436569E-2	3.146709E-2	3.127508E-2	3.967250E-2	3.623344E-2	1.529962E-2	2.827436E-2	5.168057E-2	2.642084E-2	3.011820E-2	3.508333E-2	2.470986E-2	3.306671E-2	2.146978E-2	3.966876E-2	2.707343E-2	3.615416E-2	3.274367E-2	2.497387E-2	3.630707E-2	3.099630E-2	2.239623E-2	1.810335E-2	2.387761E-2	3.150245E-2	2.775411E-2	1.766579E-2	1.894455E-2	3.391109E-2	2.992548E-2	2.676622E-2	2.548093E-2	2.729319E-2	2.031650E-2	2.431544E-2	3.648766E-2	2.595640E-2	3.019006E-2	2.134240E-2	3.368326E-2	2.897399E-2	2.905641E-2	3.392927E-2	3.395596E-2	3.596389E-2	3.487176E-2	1.737741E-2	3.452038E-2	3.829329E-2	3.157022E-2	2.655337E-2	4.502732E-2	5.560032E-2	3.959390E-2	3.749158E-2	3.101919E-2	3.085005E-2	3.092354E-2	2.614423E-2	3.333551E-2	3.396903E-2	2.158851E-2	2.280524E-2	2.896671E-2	3.560690E-2	2.734579E-2	2.088881E-2	2.784176E-2	2.488087E-2	3.450221E-2	3.219662E-2	2.690107E-2	4.020248E-2	2.422931E-2	2.281477E-2	2.646401E-2	3.085150E-2	3.231903E-2	3.787403E-2	2.349250E-2	3.476177E-2	2.109596E-2	2.636898E-2	4.660467E-2	2.504031E-2	2.952483E-2	3.764843E-2	3.377118E-2	3.534400E-2	1.894010E-2	2.376401E-2	3.619808E-2	3.798649E-2	3.801998E-2	2.942308E-2	2.518643E-2	3.872894E-2	2.434759E-2	2.798124E-2	3.678256E-2	3.337128E-2	3.783358E-2	2.774902E-2	4.120555E-2	2.889565E-2	3.685717E-2	2.607381E-2	2.999675E-2	2.130821E-2	2.028963E-2	1.713301E-2	3.532330E-2	2.724123E-2	3.372052E-2	3.313681E-2	2.269229E-2	2.504480E-2	3.108917E-2	3.347561E-2	3.962818E-2	2.736292E-2	3.982441E-2	2.558140E-2	4.033300E-2	2.515428E-2	3.650577E-2	2.606439E-2	3.385288E-2	3.074265E-2	3.564052E-2	2.908673E-2	4.446017E-2	3.724297E-2	2.756924E-2	3.062106E-2	4.456631E-2	2.883860E-2	2.717197E-2	1.862315E-2	3.613957E-2	1.844463E-2	3.303281E-2	2.575402E-2	2.633200E-2	1.654812E-2	2.095066E-2	2.763892E-2	4.648864E-2	2.233648E-2	3.660008E-2	1.847542E-2	3.209612E-2	3.369395E-2	3.454899E-2	2.756858E-2	3.781732E-2	2.218291E-2	3.514570E-2	2.154477E-2	3.289737E-2	2.694265E-2	3.092006E-2	1.664367E-2	3.146506E-2	3.850333E-2	1.959164E-2	1.861043E-2
2.842070E+2	4.724023E-2	3.166385E-2	3.454566E-2	4.310231E-2	3.182015E-2	2.983242E-2	5.235421E-2	4.065502E-2	4.230855E-2	4.014726E-2	5.000835E-2	5.255845E-2	4.293381E-2	4.439655E-2	5.225180E-2	4.567579E-2	5.598663E-2	3.280415E-2	3.325770E-2	5.371718E-2	5.532996E-2	3.876556E-2	4.800065E-2	5.376628E-2	3.896681E-2	4.230392E-2	5.112089E-2	2.944125E-2	5.411951E-2	3.169084E-2	3.815799E-2	4.636180E-2	6.194422E-2	3.793521E-2	4.817918E-2	5.422865E-2	4.000501E-2	3.957381E-2	4.600222E-2	5.412994E-2	3.346190E-2	4.718602E-2	5.103619E-2	5.313933E-2	4.427375E-2	4.343489E-2	5.508940E-2	4.562178E-2	5.283300E-2	3.944507E-2	3.445004E-2	4.013734E-2	5.109329E-2	3.979706E-2	4.843120E-2	6.186001E-2	4.979853E-2	5.083948E-2	3.903363E-2	6.192474E-2	4.327884E-2	4.918714E-2	4.662078E-2	6.530636E-2	5.095351E-2	4.307741E-2	4.137231E-2	4.082718E-2	4.336860E-2	4.034178E-2	4.330600E-2	5.045010E-2	2.938420E-2	2.942216E-2	3.067249E-2	3.808077E-2	5.092312E-2	4.732447E-2	5.044689E-2	3.427625E-2	4.960917E-2	3.685507E-2	4.185021E-2	4.081410E-2	3.829322E-2	3.968280E-2	4.207087E-2	5.230309E-2	5.403423E-2	3.108915E-2	4.489641E-2	4.690436E-2	5.058202E-2	5.184621E-2	4.670855E-2	2.651833E-2	4.820913E-2	4.875510E-2	3.683678E-2	5.611305E-2	5.575256E-2	4.157823E-2	5.051641E-2	3.417845E-2	4.657837E-2	3.869097E-2	3.816740E-2	6.393971E-2	5.219146E-2	7.149652E-2	6.096516E-2	3.866007E-2	7.086219E-2	4.963505E-2	4.213217E-2	4.254606E-2	4.194296E-2	3.971522E-2	3.744727E-2	4.202279E-2	3.785306E-2	4.587282E-2	3.347549E-2	4.158516E-2	4.648108E-2	5.474497E-2	3.798452E-2	5.261720E-2	3.939252E-2	4.037392E-2	4.336860E-2	5.559124E-2	4.088458E-2	4.051442E-2	4.607718E-2	4.107267E-2	4.100256E-2	4.188002E-2	3.493385E-2	6.264381E-2	4.948568E-2	4.365166E-2	4.791797E-2	3.942512E-2	4.137588E-2	3.855743E-2	3.760539E-2	4.850629E-2	3.658006E-2	4.281233E-2	4.197716E-2	4.174082E-2	3.594237E-2	4.627226E-2	4.393049E-2	6.083196E-2	4.278922E-2	4.771041E-2	4.986237E-2	6.019691E-2	4.533033E-2	3.694801E-2	4.089112E-2	5.239221E-2	4.568529E-2	4.751131E-2	3.588493E-2	6.563531E-2	3.154232E-2	3.149540E-2	3.349877E-2
2.843010E+2	5.892863E-2	6.297199E-2	4.822712E-2	5.148692E-2	5.388203E-2	6.661223E-2	5.235424E-2	6.915053E-2	8.136254E-2	4.842986E-2	6.852259E-2	6.045872E-2	5.696988E-2	4.618129E-2	6.867378E-2	7.038565E-2	7.126657E-2	6.070403E-2	6.851871E-2	4.856041E-2	7.690252E-2	5.156191E-2	6.290032E-2	6.567023E-2	7.261986E-2	5.663763E-2	7.438325E-2	6.931458E-2	7.027456E-2	6.082282E-2	7.136970E-2	4.636179E-2	6.827430E-2	6.908446E-2	6.404071E-2	5.161521E-2	7.365401E-2	5.960135E-2	6.506025E-2	6.295102E-2	5.681229E-2	7.938880E-2	5.845963E-2	6.967698E-2	7.640333E-2	5.781331E-2	5.654876E-2	7.228665E-2	6.689057E-2	8.060518E-2	6.209140E-2	8.132771E-2	8.095997E-2	7.434960E-2	5.690006E-2	6.354325E-2	7.010470E-2	5.552519E-2	5.908052E-2	7.192365E-2	6.280983E-2	6.911098E-2	4.954595E-2	7.076490E-2	6.346839E-2	6.377048E-2	6.074674E-2	6.181095E-2	4.336856E-2	5.983574E-2	5.553355E-2	7.222106E-2	6.270877E-2	6.159601E-2	8.325395E-2	7.441480E-2	8.040498E-2	6.134649E-2	7.517037E-2	6.786890E-2	6.935416E-2	8.130785E-2	6.252693E-2	5.813580E-2	5.153572E-2	4.042626E-2	5.777272E-2	6.695613E-2	6.809198E-2	7.723395E-2	5.375475E-2	6.191375E-2	8.359788E-2	7.556918E-2	4.916684E-2	8.056331E-2	6.214904E-2	6.217382E-2	5.815114E-2	7.485647E-2	6.766926E-2	6.255464E-2	5.802814E-2	6.455928E-2	5.789869E-2	5.841158E-2	4.778447E-2	5.050591E-2	8.713509E-2	7.065163E-2	6.324074E-2	6.465007E-2	8.176404E-2	6.339078E-2	5.075246E-2	5.067148E-2	7.739984E-2	5.919817E-2	6.474688E-2	7.900262E-2	5.706554E-2	6.065660E-2	5.313081E-2	9.050878E-2	7.229056E-2	5.474494E-2	7.984495E-2	7.227181E-2	6.502138E-2	5.004428E-2	5.288579E-2	7.551795E-2	7.469100E-2	7.219495E-2	6.011269E-2	6.901908E-2	7.765822E-2	6.124164E-2	6.512363E-2	7.067831E-2	5.666726E-2	7.896545E-2	6.716887E-2	6.981519E-2	6.231305E-2	7.078459E-2	6.768975E-2	7.160454E-2	6.009580E-2	5.819646E-2	5.405152E-2	6.073193E-2	6.768961E-2	5.066857E-2	6.363761E-2	9.698348E-2	7.090195E-2	7.567869E-2	5.623192E-2	4.610603E-2	9.451857E-2	5.947738E-2	6.991056E-2	5.824055E-2	6.067941E-2	6.259427E-2	4.973863E-2	7.930340E-2	8.375041E-2	6.323884E-2	4.466499E-2
2.844010E+2	8.620126E-2	9.143375E-2	1.029529E-1	8.816976E-2	8.188370E-2	7.968942E-2	1.137587E-1	9.273290E-2	8.570195E-2	1.054872E-1	8.542674E-2	8.064814E-2	1.337554E-1	8.187698E-2	1.022642E-1	9.359787E-2	1.180613E-1	9.034770E-2	1.029785E-1	1.113021E-1	9.128435E-2	8.167109E-2	8.389536E-2	1.021758E-1	9.830250E-2	9.326785E-2	1.013976E-1	8.878752E-2	1.155089E-1	8.759276E-2	1.038747E-1	8.977248E-2	1.270535E-1	7.175433E-2	9.100513E-2	9.343012E-2	9.384356E-2	9.580511E-2	7.951803E-2	7.979148E-2	1.035129E-1	9.549003E-2	9.409216E-2	9.691539E-2	1.070028E-1	9.855215E-2	1.032470E-1	9.228523E-2	9.406848E-2	8.975185E-2	8.241591E-2	7.009398E-2	1.057067E-1	7.681760E-2	8.512957E-2	1.047833E-1	1.281224E-1	8.457629E-2	9.146394E-2	1.273719E-1	1.222905E-1	9.235556E-2	8.611132E-2	9.259860E-2	9.475569E-2	7.093346E-2	9.788086E-2	8.097010E-2	1.101193E-1	8.943774E-2	8.610243E-2	9.901610E-2	9.693402E-2	8.106963E-2	8.630220E-2	9.397927E-2	1.054200E-1	8.196722E-2	9.044083E-2	9.755540E-2	9.995886E-2	9.673028E-2	8.797510E-2	1.040382E-1	8.773224E-2	8.206068E-2	8.985921E-2	1.166135E-1	8.917853E-2	7.958024E-2	8.677273E-2	1.191370E-1	9.629634E-2	8.475224E-2	9.341715E-2	9.508282E-2	1.114037E-1	9.706277E-2	9.985328E-2	1.104690E-1	1.136332E-1	8.877515E-2	8.657274E-2	9.928030E-2	1.050666E-1	1.004252E-1	9.907505E-2	9.287400E-2	1.086388E-1	1.078256E-1	8.372052E-2	1.027687E-1	1.144697E-1	1.046578E-1	8.523400E-2	8.949323E-2	9.815512E-2	8.542525E-2	9.923072E-2	1.269086E-1	9.823507E-2	1.050076E-1	8.261389E-2	8.268099E-2	9.714423E-2	1.056500E-1	9.689930E-2	9.356445E-2	1.248220E-1	8.098960E-2	9.614616E-2	8.910438E-2	1.093425E-1	9.169058E-2	9.039985E-2	1.045872E-1	8.611703E-2	1.168011E-1	8.582514E-2	1.068335E-1	9.347300E-2	8.445865E-2	9.144172E-2	9.856258E-2	9.820546E-2	1.011702E-1	8.045279E-2	9.562675E-2	1.114821E-1	8.005805E-2	8.423734E-2	1.042532E-1	9.127325E-2	1.324419E-1	8.662926E-2	8.956778E-2	1.056295E-1	1.135179E-1	1.087815E-1	1.124159E-1	1.089858E-1	1.018324E-1	8.925694E-2	9.625535E-2	1.178446E-1	6.787330E-2	1.043838E-1	9.980547E-2	8.375036E-2	9.101438E-2	1.004963E-1
2.845030E+2	1.125000E-1	1.056647E-1	1.084255E-1	1.164678E-1	9.970300E-2	9.848793E-2	1.275061E-1	1.359673E-1	1.186808E-1	1.128494E-1	1.240650E-1	1.254161E-1	1.684325E-1	1.193575E-1	1.261509E-1	1.138151E-1	1.428912E-1	1.147600E-1	1.125951E-1	1.052858E-1	1.032691E-1	1.110275E-1	1.170810E-1	1.307454E-1	1.363837E-1	1.219351E-1	1.164056E-1	1.221698E-1	1.389336E-1	1.175120E-1	1.165939E-1	1.225209E-1	1.297664E-1	1.331627E-1	1.147974E-1	1.003993E-1	1.387087E-1	1.150625E-1	1.038335E-1	1.471531E-1	1.051808E-1	1.285874E-1	1.052273E-1	1.659843E-1	1.506070E-1	1.049426E-1	1.317038E-1	1.131172E-1	1.418641E-1	8.792255E-2	9.217162E-2	1.271989E-1	1.466666E-1	1.163062E-1	1.246507E-1	1.325571E-1	1.097502E-1	1.295588E-1	9.763228E-2	1.291899E-1	1.444847E-1	1.463161E-1	1.190201E-1	1.409448E-1	1.314065E-1	8.366772E-2	1.188698E-1	1.129019E-1	1.132241E-1	9.665774E-2	9.697142E-2	1.316726E-1	1.356626E-1	1.200170E-1	1.129740E-1	1.312449E-1	1.241810E-1	1.017631E-1	1.253447E-1	1.272420E-1	1.503085E-1	1.148743E-1	1.118327E-1	1.170293E-1	1.292257E-1	1.281559E-1	1.089745E-1	1.377790E-1	1.225655E-1	1.014795E-1	1.061002E-1	1.322702E-1	1.200001E-1	1.161277E-1	1.229173E-1	1.386415E-1	1.188383E-1	1.426867E-1	1.100470E-1	1.076575E-1	1.238474E-1	1.127482E-1	1.008450E-1	1.366053E-1	1.314806E-1	1.261477E-1	1.287274E-1	1.579763E-1	1.131188E-1	1.061358E-1	1.186119E-1	1.365556E-1	1.323092E-1	1.321693E-1	1.248878E-1	1.102584E-1	1.405302E-1	9.891345E-2	1.179094E-1	1.487604E-1	1.238516E-1	1.363142E-1	1.235625E-1	1.423680E-1	1.019238E-1	1.038948E-1	1.217055E-1	1.205897E-1	1.608923E-1	1.264404E-1	1.195069E-1	1.334868E-1	1.194845E-1	1.363683E-1	1.014805E-1	1.325335E-1	1.133738E-1	1.100666E-1	1.203277E-1	1.419844E-1	1.446419E-1	1.244810E-1	1.190626E-1	1.281314E-1	1.470588E-1	1.177440E-1	9.777408E-2	1.168771E-1	1.280302E-1	1.205426E-1	9.329305E-2	1.446094E-1	1.420688E-1	1.166148E-1	1.244012E-1	1.424047E-1	1.535862E-1	1.118728E-1	1.151511E-1	1.207044E-1	1.485292E-1	1.414839E-1	1.024475E-1	1.352449E-1	1.600158E-1	1.297136E-1	1.043838E-1	1.510607E-1	1.516206E-1	9.895020E-2	1.042184E-1
2.846010E+2	1.719156E-1	1.976912E-1	1.768326E-1	1.982182E-1	1.548579E-1	1.507969E-1	1.934930E-1	1.959061E-1	1.794313E-1	1.754285E-1	1.707526E-1	2.017849E-1	1.981559E-1	1.952105E-1	2.314009E-1	1.856983E-1	2.097409E-1	1.609692E-1	1.791107E-1	1.869361E-1	1.879616E-1	1.893113E-1	1.773573E-1	1.974078E-1	1.877487E-1	1.625470E-1	1.764372E-1	1.935705E-1	2.124389E-1	1.757757E-1	1.992694E-1	1.918255E-1	2.084402E-1	2.025812E-1	1.718985E-1	1.770599E-1	1.873129E-1	1.882402E-1	1.833514E-1	1.912589E-1	2.069215E-1	2.144614E-1	1.764924E-1	1.903046E-1	2.056866E-1	1.912134E-1	1.827797E-1	2.131102E-1	2.027802E-1	1.931095E-1	1.612751E-1	1.665171E-1	1.807999E-1	1.944607E-1	1.712290E-1	2.125119E-1	2.151491E-1	1.745409E-1	1.585440E-1	1.582775E-1	2.243840E-1	1.894844E-1	1.745993E-1	1.791537E-1	2.091774E-1	1.576852E-1	1.818366E-1	2.196454E-1	1.877364E-1	1.659696E-1	1.750920E-1	2.145695E-1	1.933053E-1	1.860579E-1	1.861307E-1	2.048443E-1	2.162001E-1	1.801216E-1	1.864259E-1	1.952083E-1	2.095433E-1	1.738424E-1	1.675005E-1	1.915126E-1	2.033838E-1	1.787117E-1	2.011375E-1	2.037172E-1	1.902181E-1	1.749982E-1	1.624723E-1	2.073170E-1	1.944974E-1	1.712263E-1	1.835563E-1	2.152721E-1	2.340754E-1	1.802596E-1	1.647231E-1	1.545158E-1	2.123708E-1	1.929079E-1	1.774646E-1	2.043111E-1	2.097793E-1	1.655892E-1	1.808194E-1	1.817438E-1	1.901737E-1	1.804837E-1	2.043236E-1	1.694762E-1	2.234888E-1	1.972794E-1	1.869546E-1	2.131816E-1	1.967424E-1	1.536155E-1	1.753821E-1	1.848997E-1	1.979568E-1	2.006666E-1	1.858043E-1	2.343443E-1	2.032501E-1	1.907846E-1	1.713177E-1	2.082170E-1	2.064543E-1	1.854298E-1	1.679585E-1	1.579424E-1	1.947035E-1	2.046030E-1	1.834770E-1	2.070571E-1	1.791659E-1	1.816203E-1	2.083095E-1	2.132905E-1	2.200484E-1	2.006015E-1	2.086212E-1	2.258725E-1	1.799602E-1	1.978515E-1	1.798222E-1	1.898673E-1	1.698359E-1	1.764110E-1	1.846048E-1	1.873389E-1	1.783514E-1	1.966295E-1	1.835227E-1	2.193426E-1	2.296560E-1	1.916645E-1	1.868095E-1	1.878431E-1	1.919307E-1	2.027637E-1	1.675214E-1	2.171227E-1	2.031236E-1	1.787330E-1	1.682649E-1	1.954820E-1	2.421144E-1	1.564850E-1	1.377170E-1
2.847020E+2	4.105521E-1	4.121034E-1	4.258353E-1	4.885364E-1	3.678403E-1	3.534941E-1	4.931840E-1	4.769297E-1	4.562814E-1	4.736002E-1	4.887136E-1	4.686366E-1	4.929127E-1	4.673901E-1	4.545907E-1	4.687383E-1	5.096094E-1	4.260175E-1	4.467742E-1	4.336052E-1	4.732008E-1	4.264214E-1	4.150746E-1	4.902453E-1	4.605164E-1	4.141807E-1	4.743457E-1	4.884471E-1	5.161547E-1	4.261529E-1	4.494173E-1	4.355343E-1	5.086661E-1	4.686839E-1	4.439230E-1	4.575680E-1	4.744516E-1	4.439775E-1	4.100768E-1	4.919809E-1	4.320859E-1	4.658221E-1	4.489328E-1	4.656072E-1	4.757278E-1	4.508236E-1	4.374318E-1	4.705928E-1	5.073605E-1	4.766572E-1	4.141120E-1	4.670200E-1	5.246934E-1	4.404416E-1	4.281182E-1	4.910927E-1	4.975016E-1	4.866067E-1	4.523079E-1	5.427795E-1	5.351037E-1	4.294014E-1	4.283630E-1	4.871661E-1	5.354588E-1	4.075941E-1	4.813316E-1	4.860493E-1	4.850103E-1	4.143377E-1	4.162466E-1	4.758217E-1	4.544974E-1	4.358286E-1	4.597064E-1	5.234652E-1	5.092319E-1	4.556139E-1	4.656564E-1	4.725433E-1	5.116421E-1	4.532601E-1	4.347067E-1	4.409443E-1	4.805957E-1	3.943190E-1	4.079928E-1	5.301541E-1	4.713720E-1	4.448285E-1	4.080933E-1	5.375238E-1	4.713232E-1	4.383015E-1	4.302100E-1	4.975969E-1	4.812778E-1	4.951542E-1	4.316169E-1	4.684689E-1	4.736850E-1	4.581095E-1	4.073239E-1	4.786068E-1	4.965610E-1	3.936627E-1	4.452869E-1	5.144888E-1	5.270664E-1	4.238045E-1	4.402201E-1	4.510341E-1	5.455894E-1	4.714755E-1	4.421174E-1	4.668776E-1	4.734794E-1	4.406141E-1	4.677764E-1	4.992301E-1	4.943773E-1	4.806868E-1	4.585227E-1	4.965754E-1	4.737726E-1	4.821723E-1	4.286823E-1	4.448921E-1	5.282394E-1	4.620034E-1	4.439597E-1	4.260487E-1	4.812128E-1	4.564227E-1	4.449813E-1	4.839806E-1	4.507933E-1	4.728865E-1	4.774296E-1	5.045400E-1	4.848703E-1	4.634928E-1	4.672522E-1	4.952775E-1	5.000006E-1	4.390951E-1	4.533164E-1	4.716665E-1	4.790243E-1	4.363216E-1	4.374116E-1	5.006923E-1	4.849391E-1	4.568968E-1	4.306832E-1	4.844541E-1	5.165713E-1	4.721692E-1	4.869785E-1	4.472800E-1	5.198527E-1	4.604989E-1	4.427669E-1	4.413127E-1	5.198742E-1	4.276021E-1	4.284067E-1	5.064303E-1	5.309979E-1	4.104323E-1	4.019846E-1
2.848000E+2	9.141236E-1	8.978535E-1	8.636416E-1	9.696061E-1	7.895634E-1	7.768701E-1	1.025661E+0	9.888642E-1	9.006293E-1	9.282182E-1	9.749123E-1	9.619620E-1	1.028761E+0	1.033167E+0	9.144064E-1	9.517034E-1	9.995230E-1	9.726814E-1	9.420334E-1	9.587454E-1	9.342162E-1	9.585999E-1	9.236959E-1	9.727532E-1	9.431737E-1	9.254125E-1	8.900667E-1	9.928909E-1	1.024232E+0	9.568265E-1	9.164994E-1	8.833490E-1	1.064808E+0	9.715207E-1	8.912167E-1	9.192743E-1	9.283398E-1	9.308023E-1	8.306675E-1	9.803521E-1	9.374541E-1	9.846436E-1	8.824623E-1	1.005513E+0	1.005865E+0	9.420867E-1	9.328711E-1	9.230608E-1	9.825067E-1	9.156981E-1	8.636898E-1	8.733074E-1	1.029013E+0	8.929147E-1	8.847296E-1	1.010379E+0	9.539075E-1	9.617333E-1	8.432226E-1	1.013636E+0	1.049124E+0	9.640256E-1	9.227259E-1	9.729673E-1	1.021752E+0	8.294144E-1	9.253277E-1	9.632017E-1	9.491612E-1	8.648658E-1	8.577977E-1	1.042705E+0	9.282472E-1	8.989628E-1	8.856926E-1	1.038663E+0	9.318042E-1	9.414377E-1	9.710341E-1	9.451843E-1	1.021062E+0	9.295416E-1	8.927722E-1	8.609937E-1	8.822881E-1	7.705155E-1	8.981650E-1	9.949799E-1	9.036465E-1	9.133156E-1	8.494061E-1	1.042214E+0	1.022434E+0	8.997512E-1	8.440315E-1	1.000134E+0	9.784708E-1	8.735653E-1	8.551239E-1	9.258077E-1	1.015038E+0	9.076042E-1	8.234742E-1	9.577563E-1	9.842774E-1	9.261196E-1	8.500011E-1	9.877726E-1	1.088853E+0	9.053753E-1	9.499381E-1	1.001155E+0	1.044103E+0	9.199116E-1	9.102038E-1	1.007674E+0	9.119343E-1	8.752338E-1	8.923579E-1	9.984598E-1	9.399227E-1	9.259361E-1	9.048625E-1	1.035715E+0	1.058788E+0	9.113550E-1	9.434113E-1	9.272501E-1	1.072140E+0	9.551936E-1	8.635855E-1	9.115371E-1	9.671796E-1	9.202572E-1	8.364980E-1	9.539870E-1	9.432933E-1	9.291481E-1	8.793849E-1	1.042851E+0	9.759121E-1	9.586702E-1	8.824021E-1	9.092391E-1	1.046361E+0	9.160561E-1	9.538093E-1	9.160765E-1	9.475978E-1	9.318516E-1	8.841617E-1	9.738881E-1	9.321215E-1	9.290713E-1	9.167923E-1	1.040631E+0	9.589341E-1	9.599672E-1	9.670901E-1	9.810739E-1	1.047420E+0	8.993682E-1	9.044412E-1	9.764436E-1	1.094338E+0	8.906478E-1	8.494046E-1	1.025817E+0	1.126170E+0	7.992893E-1	8.151365E-1
2.849020E+2	1.019318E+0	1.084754E+0	1.051533E+0	1.186558E+0	9.940603E-1	9.468739E-1	1.186047E+0	1.195210E+0	1.154914E+0	1.058899E+0	1.151199E+0	1.171757E+0	1.236824E+0	1.284822E+0	1.157751E+0	1.163609E+0	1.253551E+0	1.249064E+0	1.049419E+0	1.152127E+0	1.109994E+0	1.122695E+0	1.099783E+0	1.201309E+0	1.156605E+0	1.087063E+0	1.106931E+0	1.205238E+0	1.256865E+0	1.269405E+0	1.151808E+0	1.122489E+0	1.270987E+0	1.315052E+0	1.106140E+0	1.122251E+0	1.161640E+0	1.215040E+0	1.138226E+0	1.213712E+0	1.154279E+0	1.360343E+0	1.068791E+0	1.221474E+0	1.226181E+0	1.301548E+0	1.148122E+0	1.182210E+0	1.309579E+0	1.305347E+0	1.075878E+0	1.098919E+0	1.277333E+0	1.221986E+0	9.687128E-1	1.234254E+0	1.311684E+0	1.240063E+0	1.025958E+0	1.174526E+0	1.333210E+0	1.187339E+0	1.155281E+0	1.184287E+0	1.229141E+0	1.135036E+0	1.032694E+0	1.163917E+0	1.141651E+0	1.097350E+0	1.037136E+0	1.180867E+0	1.132698E+0	1.100473E+0	1.024386E+0	1.328403E+0	1.258785E+0	1.084132E+0	1.086653E+0	1.155334E+0	1.247141E+0	1.112796E+0	1.043076E+0	1.097435E+0	1.110943E+0	1.010657E+0	1.121405E+0	1.283970E+0	1.097818E+0	1.054096E+0	1.041071E+0	1.241088E+0	1.251006E+0	1.124737E+0	1.082491E+0	1.206635E+0	1.267493E+0	1.129417E+0	1.021006E+0	1.072943E+0	1.232941E+0	1.036459E+0	1.026291E+0	1.232052E+0	1.148422E+0	1.098460E+0	1.139313E+0	1.168611E+0	1.311059E+0	1.158834E+0	1.130464E+0	1.228134E+0	1.221507E+0	1.102403E+0	1.163643E+0	1.103374E+0	1.174835E+0	1.082052E+0	1.047536E+0	1.229584E+0	1.183281E+0	1.062468E+0	1.095684E+0	1.298924E+0	1.256661E+0	1.153593E+0	1.059690E+0	1.175390E+0	1.228761E+0	1.112822E+0	1.066044E+0	1.110805E+0	1.174244E+0	1.089220E+0	1.082489E+0	1.203812E+0	1.177325E+0	1.055420E+0	1.144192E+0	1.300959E+0	1.231756E+0	1.125822E+0	1.072400E+0	1.172895E+0	1.266700E+0	1.103894E+0	1.158931E+0	1.183092E+0	1.173174E+0	1.107554E+0	1.070559E+0	1.174085E+0	1.138932E+0	1.054808E+0	1.099903E+0	1.194507E+0	1.274788E+0	1.172196E+0	1.143051E+0	1.160111E+0	1.281787E+0	1.148093E+0	1.046900E+0	1.202584E+0	1.273331E+0	1.104827E+0	1.014880E+0	1.243367E+0	1.378508E+0	1.037365E+0	1.101737E+0
2.850030E+2	1.052435E+0	1.117010E+0	1.080721E+0	1.181318E+0	9.541783E-1	9.525950E-1	1.209875E+0	1.160819E+0	1.065524E+0	1.088347E+0	1.156834E+0	1.188435E+0	1.215358E+0	1.241095E+0	1.162976E+0	1.126919E+0	1.300346E+0	1.263015E+0	1.034995E+0	1.103137E+0	1.099607E+0	1.118931E+0	1.036120E+0	1.130679E+0	1.138007E+0	1.102193E+0	1.014633E+0	1.181130E+0	1.197092E+0	1.252870E+0	1.104463E+0	1.124012E+0	1.283647E+0	1.280342E+0	1.045073E+0	1.084791E+0	1.157154E+0	1.150335E+0	1.083023E+0	1.228147E+0	1.117585E+0	1.202014E+0	1.052460E+0	1.248713E+0	1.204762E+0	1.287170E+0	1.037213E+0	1.092215E+0	1.227107E+0	1.242234E+0	1.031164E+0	1.064282E+0	1.226986E+0	1.155349E+0	9.877669E-1	1.208164E+0	1.195649E+0	1.230691E+0	1.034439E+0	1.245427E+0	1.299474E+0	1.272017E+0	1.127491E+0	1.234193E+0	1.216627E+0	1.178809E+0	1.093239E+0	1.121037E+0	1.104395E+0	1.143557E+0	9.997739E-1	1.267113E+0	1.082261E+0	1.147041E+0	1.111259E+0	1.175614E+0	1.164979E+0	1.240025E+0	1.129556E+0	1.206894E+0	1.156314E+0	1.256133E+0	1.055005E+0	1.115622E+0	1.110061E+0	1.110281E+0	1.067473E+0	1.208263E+0	1.124176E+0	9.868347E-1	9.379899E-1	1.264540E+0	1.171429E+0	1.114789E+0	1.044796E+0	1.137264E+0	1.252623E+0	1.166096E+0	1.032126E+0	1.023273E+0	1.152079E+0	1.085904E+0	1.018028E+0	1.170421E+0	1.108801E+0	1.078739E+0	1.064781E+0	1.182045E+0	1.258195E+0	1.099694E+0	1.101641E+0	1.220338E+0	1.237363E+0	1.070307E+0	1.057613E+0	1.136780E+0	1.078841E+0	1.016111E+0	1.066214E+0	1.214456E+0	1.204323E+0	1.050294E+0	1.107149E+0	1.223582E+0	1.184969E+0	1.172025E+0	1.097675E+0	1.127072E+0	1.260086E+0	1.127327E+0	1.010671E+0	1.052837E+0	1.106631E+0	1.046979E+0	1.038167E+0	1.198730E+0	1.150069E+0	1.047843E+0	1.135567E+0	1.280872E+0	1.201234E+0	1.096786E+0	1.119272E+0	1.152361E+0	1.224826E+0	1.126914E+0	1.129757E+0	1.143363E+0	1.109595E+0	1.127796E+0	1.056976E+0	1.166964E+0	1.099929E+0	1.118996E+0	1.149172E+0	1.234367E+0	1.160684E+0	1.084179E+0	1.113592E+0	1.147678E+0	1.203665E+0	1.062481E+0	1.101422E+0	1.172367E+0	1.256462E+0	1.046004E+0	9.933299E-1	1.138579E+0	1.296715E+0	1.017526E+0	1.064517E+0
2.851020E+2	7.465910E-1	7.536466E-1	8.070918E-1	9.392116E-1	7.301656E-1	6.550879E-1	8.735250E-1	8.955182E-1	8.676499E-1	8.297481E-1	8.348484E-1	8.768148E-1	9.239027E-1	9.590986E-1	8.838021E-1	8.528638E-1	9.613223E-1	8.959568E-1	7.761454E-1	8.091967E-1	8.543177E-1	8.178402E-1	7.882438E-1	8.513327E-1	7.881918E-1	8.290586E-1	7.782569E-1	8.287608E-1	9.095312E-1	9.158845E-1	8.338240E-1	8.285151E-1	9.418241E-1	9.644001E-1	7.976339E-1	8.339020E-1	8.460866E-1	8.830441E-1	8.247535E-1	9.418610E-1	8.865834E-1	9.103988E-1	8.238169E-1	9.695193E-1	9.477264E-1	9.796311E-1	8.124768E-1	8.305672E-1	9.647003E-1	9.833832E-1	7.531243E-1	8.190112E-1	9.889065E-1	8.830426E-1	7.513449E-1	9.009678E-1	9.800156E-1	8.858252E-1	8.177791E-1	8.936489E-1	9.603464E-1	1.024628E+0	8.049851E-1	9.105853E-1	8.992853E-1	8.644335E-1	8.324925E-1	8.181399E-1	8.599011E-1	8.453720E-1	8.116049E-1	8.501148E-1	8.327767E-1	8.837224E-1	7.790062E-1	9.268663E-1	9.407387E-1	9.084440E-1	8.408723E-1	8.600305E-1	8.986421E-1	9.957662E-1	8.371054E-1	8.263506E-1	7.931215E-1	7.846412E-1	7.745979E-1	9.559048E-1	8.034845E-1	8.491820E-1	7.576002E-1	1.007505E+0	9.335452E-1	8.546008E-1	8.153516E-1	9.662556E-1	9.440850E-1	9.388694E-1	8.347358E-1	8.189694E-1	8.924666E-1	8.424272E-1	8.016903E-1	8.240804E-1	8.267362E-1	8.721017E-1	7.971080E-1	9.092356E-1	9.266781E-1	9.062201E-1	8.543665E-1	8.850669E-1	9.122901E-1	8.868979E-1	7.826233E-1	8.550950E-1	8.513979E-1	8.355186E-1	7.917802E-1	9.152554E-1	8.594141E-1	8.120151E-1	8.680089E-1	9.290606E-1	9.249611E-1	8.815143E-1	8.286820E-1	8.740186E-1	9.800666E-1	8.536544E-1	8.185948E-1	8.445107E-1	8.235021E-1	8.487731E-1	7.700141E-1	8.853919E-1	8.605837E-1	8.264474E-1	7.827770E-1	9.343855E-1	8.610057E-1	8.205545E-1	8.539448E-1	8.377825E-1	8.918249E-1	8.746214E-1	8.298255E-1	8.153674E-1	8.404695E-1	8.346886E-1	7.588905E-1	8.203760E-1	8.096673E-1	8.270749E-1	8.149715E-1	9.136378E-1	8.944392E-1	8.867566E-1	8.285511E-1	8.849250E-1	9.519376E-1	8.101535E-1	8.165029E-1	8.653241E-1	9.762597E-1	8.009050E-1	7.855241E-1	9.346968E-1	9.991301E-1	7.913526E-1	8.486358E-1
2.852010E+2	5.819803E-1	5.392342E-1	5.626495E-1	6.268828E-1	4.747555E-1	4.924400E-1	6.159928E-1	6.105631E-1	5.977433E-1	5.223747E-1	5.692098E-1	5.985520E-1	6.258425E-1	6.895959E-1	6.023885E-1	6.162485E-1	7.101586E-1	6.082390E-1	5.637774E-1	5.479154E-1	5.794656E-1	5.987959E-1	5.363036E-1	5.529393E-1	5.402215E-1	5.583139E-1	5.628924E-1	6.460862E-1	5.936994E-1	6.214162E-1	5.433991E-1	5.939450E-1	6.569699E-1	6.609188E-1	5.367129E-1	5.803994E-1	6.561571E-1	6.072795E-1	5.980282E-1	5.657580E-1	5.880334E-1	6.670893E-1	5.528615E-1	6.893526E-1	6.440251E-1	6.904646E-1	5.439621E-1	5.747514E-1	6.994804E-1	6.376381E-1	5.157347E-1	5.428482E-1	6.706132E-1	6.189631E-1	4.923400E-1	6.274376E-1	6.270754E-1	6.074973E-1	5.332664E-1	6.636745E-1	6.975660E-1	6.826013E-1	5.351336E-1	5.721619E-1	6.364714E-1	6.264630E-1	5.693235E-1	6.137763E-1	5.742699E-1	5.609034E-1	5.330878E-1	6.097963E-1	5.841939E-1	5.679106E-1	5.724901E-1	6.585527E-1	6.128655E-1	6.494484E-1	5.783669E-1	6.014450E-1	6.261618E-1	6.673596E-1	5.547899E-1	5.881779E-1	6.086071E-1	5.764689E-1	5.889060E-1	6.416791E-1	5.583536E-1	6.075082E-1	5.143946E-1	6.585371E-1	6.321694E-1	6.464512E-1	5.293638E-1	6.516654E-1	6.587803E-1	6.311314E-1	5.585756E-1	5.649965E-1	6.030644E-1	5.839685E-1	5.057280E-1	5.923177E-1	6.125944E-1	5.737204E-1	5.759182E-1	6.508934E-1	6.274175E-1	6.561416E-1	5.539960E-1	6.364291E-1	6.387510E-1	6.686404E-1	5.946991E-1	6.149423E-1	5.850385E-1	5.500189E-1	5.582964E-1	6.395856E-1	5.584180E-1	5.919992E-1	5.936530E-1	6.560669E-1	5.837016E-1	6.094348E-1	5.457363E-1	5.751044E-1	6.298060E-1	6.467086E-1	5.374024E-1	5.591955E-1	5.386836E-1	5.839569E-1	5.424910E-1	6.338748E-1	6.227917E-1	5.663277E-1	5.222833E-1	6.983724E-1	6.105484E-1	6.424159E-1	5.434190E-1	6.193019E-1	6.674973E-1	6.784962E-1	5.845929E-1	5.538954E-1	6.227316E-1	5.699201E-1	5.536272E-1	6.288821E-1	6.064859E-1	5.835140E-1	5.538524E-1	6.429645E-1	6.232344E-1	6.136552E-1	6.127796E-1	6.188570E-1	6.818836E-1	6.136984E-1	5.931414E-1	5.855742E-1	6.829362E-1	5.686269E-1	5.269219E-1	6.317223E-1	7.572338E-1	5.393900E-1	5.806449E-1
2.852990E+2	3.413956E-1	3.447449E-1	3.528673E-1	3.858243E-1	3.169285E-1	3.183490E-1	4.097834E-1	3.599997E-1	4.007377E-1	4.008979E-1	3.752136E-1	3.738341E-1	4.342925E-1	4.156319E-1	3.874100E-1	3.751403E-1	4.733195E-1	4.286336E-1	3.746491E-1	3.717235E-1	3.613423E-1	3.692137E-1	3.446403E-1	3.886646E-1	3.648709E-1	3.664022E-1	3.903013E-1	3.845912E-1	4.353795E-1	4.222165E-1	3.589684E-1	3.928853E-1	4.363227E-1	4.402041E-1	3.812698E-1	3.730673E-1	3.720089E-1	3.738801E-1	3.542166E-1	4.013636E-1	3.295111E-1	3.808424E-1	3.798948E-1	4.140488E-1	3.854584E-1	4.540195E-1	3.469535E-1	3.814318E-1	4.361356E-1	4.080565E-1	3.466346E-1	3.724691E-1	4.001067E-1	4.067119E-1	3.589552E-1	4.161877E-1	3.775985E-1	3.910186E-1	3.921677E-1	4.382453E-1	4.259083E-1	4.501559E-1	3.420685E-1	3.842351E-1	4.308701E-1	4.083900E-1	3.400602E-1	3.537592E-1	4.035123E-1	4.150593E-1	3.877155E-1	3.945993E-1	3.941534E-1	3.994218E-1	3.545439E-1	4.228483E-1	4.511613E-1	4.514900E-1	3.725796E-1	3.936398E-1	4.208145E-1	4.260441E-1	3.345040E-1	4.054342E-1	3.790694E-1	4.054708E-1	3.670318E-1	4.267692E-1	3.624249E-1	3.720920E-1	3.549423E-1	4.090050E-1	3.798940E-1	3.954468E-1	3.523630E-1	3.790204E-1	4.487514E-1	3.895934E-1	4.075218E-1	3.438245E-1	4.004827E-1	3.712074E-1	3.449761E-1	3.787841E-1	4.531659E-1	4.022368E-1	3.354925E-1	4.080519E-1	4.285074E-1	4.635126E-1	3.681611E-1	4.051185E-1	4.504459E-1	4.265404E-1	3.998782E-1	3.738858E-1	4.103490E-1	3.379541E-1	3.319961E-1	4.219081E-1	3.644645E-1	3.511126E-1	3.897285E-1	4.349308E-1	4.355354E-1	4.031814E-1	3.844961E-1	3.777384E-1	4.361651E-1	3.807716E-1	3.634955E-1	3.952522E-1	3.595096E-1	3.686917E-1	3.659390E-1	3.789698E-1	3.690230E-1	3.828131E-1	3.644333E-1	4.573381E-1	4.112589E-1	4.281794E-1	3.827162E-1	4.032851E-1	3.983049E-1	4.409362E-1	3.703567E-1	3.940553E-1	3.962840E-1	3.893593E-1	3.438356E-1	3.922855E-1	3.915116E-1	4.085365E-1	3.502126E-1	4.260548E-1	4.272720E-1	4.219906E-1	3.786954E-1	4.373342E-1	4.696999E-1	4.280570E-1	3.627440E-1	4.159692E-1	4.345958E-1	4.313725E-1	3.491330E-1	4.631484E-1	4.492069E-1	3.469455E-1	3.163770E-1
2.854050E+2	2.995124E-1	2.859231E-1	2.689542E-1	3.407572E-1	2.685616E-1	2.603184E-1	3.566272E-1	3.472260E-1	3.096115E-1	3.300354E-1	3.164516E-1	3.062439E-1	3.764963E-1	3.281778E-1	3.366504E-1	3.406965E-1	3.472602E-1	3.492934E-1	2.969147E-1	3.175763E-1	3.221916E-1	3.105010E-1	3.033273E-1	3.069243E-1	3.400735E-1	3.058822E-1	3.167623E-1	3.493546E-1	3.659127E-1	3.497803E-1	3.285828E-1	3.334818E-1	3.513189E-1	3.494269E-1	3.321000E-1	3.016334E-1	3.159274E-1	2.999324E-1	3.101863E-1	3.067363E-1	2.986548E-1	3.352216E-1	2.952679E-1	3.469252E-1	3.349699E-1	3.421868E-1	3.177678E-1	3.122700E-1	3.724083E-1	3.769582E-1	2.580192E-1	3.172367E-1	3.463468E-1	3.145723E-1	2.975565E-1	3.379157E-1	3.263501E-1	3.104256E-1	2.803674E-1	3.237127E-1	3.637637E-1	3.596676E-1	2.967271E-1	3.249724E-1	3.504171E-1	3.335771E-1	3.013115E-1	3.418988E-1	3.398659E-1	3.349179E-1	3.075567E-1	3.334722E-1	3.211992E-1	3.393077E-1	3.339684E-1	3.548388E-1	3.618231E-1	3.492112E-1	2.933192E-1	3.350476E-1	3.112301E-1	3.462105E-1	2.923556E-1	3.110313E-1	3.384584E-1	3.065892E-1	3.103682E-1	3.469917E-1	3.176159E-1	3.439353E-1	2.897124E-1	3.808629E-1	3.570374E-1	3.495314E-1	2.966405E-1	3.467548E-1	3.279378E-1	4.056956E-1	3.111436E-1	3.419501E-1	3.153640E-1	3.457359E-1	2.871363E-1	3.267025E-1	3.484534E-1	2.873425E-1	3.114505E-1	3.419159E-1	3.720596E-1	3.477662E-1	3.226507E-1	3.271487E-1	3.473735E-1	3.458403E-1	3.360870E-1	2.890192E-1	3.117620E-1	3.102289E-1	3.327149E-1	3.605545E-1	3.022531E-1	3.485037E-1	3.143834E-1	3.635027E-1	3.495043E-1	3.865058E-1	2.914728E-1	3.130421E-1	3.336506E-1	3.401563E-1	3.141786E-1	3.354724E-1	3.349997E-1	3.053312E-1	3.046263E-1	3.273112E-1	3.342474E-1	3.222030E-1	2.971535E-1	3.980838E-1	2.990460E-1	3.858024E-1	3.040388E-1	3.342918E-1	3.115655E-1	4.059465E-1	3.147463E-1	3.330767E-1	3.231243E-1	3.043420E-1	3.264785E-1	3.139462E-1	3.652065E-1	3.223669E-1	2.878061E-1	3.620949E-1	3.454142E-1	3.421987E-1	3.635670E-1	3.685370E-1	3.636070E-1	3.640734E-1	3.055837E-1	3.136216E-1	3.408826E-1	3.288086E-1	3.206555E-1	3.458304E-1	4.004782E-1	3.171860E-1	2.679897E-1
2.855030E+2	2.790587E-1	2.527178E-1	2.634825E-1	3.124588E-1	2.363168E-1	2.112787E-1	2.768932E-1	2.794267E-1	2.757653E-1	2.775798E-1	2.609090E-1	2.737647E-1	2.823726E-1	3.183608E-1	2.702170E-1	2.620740E-1	3.128809E-1	2.769278E-1	2.864969E-1	2.445208E-1	2.718556E-1	3.089949E-1	2.545646E-1	3.029560E-1	2.922508E-1	2.915494E-1	2.657351E-1	2.964996E-1	3.085621E-1	3.300961E-1	2.713461E-1	2.794086E-1	3.097213E-1	3.191676E-1	2.765846E-1	2.728857E-1	2.845218E-1	2.660397E-1	2.359258E-1	2.802728E-1	2.686334E-1	3.244875E-1	2.744820E-1	3.012034E-1	3.372644E-1	3.158264E-1	2.455307E-1	2.897716E-1	3.143038E-1	3.184191E-1	2.189966E-1	2.545144E-1	3.045330E-1	2.545163E-1	2.530947E-1	2.756349E-1	3.060431E-1	3.038656E-1	2.634043E-1	3.391660E-1	3.282532E-1	3.015564E-1	2.601624E-1	2.625903E-1	3.468417E-1	3.049247E-1	2.746719E-1	2.780351E-1	2.932962E-1	2.952075E-1	2.729127E-1	2.949547E-1	2.896765E-1	3.054400E-1	2.417602E-1	3.334113E-1	3.251939E-1	2.791010E-1	2.736858E-1	2.920804E-1	2.924723E-1	3.189941E-1	2.541831E-1	2.556023E-1	2.828395E-1	2.865156E-1	2.721375E-1	2.851232E-1	2.947724E-1	2.876233E-1	2.655526E-1	3.320828E-1	3.248676E-1	2.898408E-1	2.376400E-1	2.854502E-1	3.047052E-1	3.260776E-1	2.805626E-1	2.857200E-1	3.034472E-1	2.962917E-1	2.646012E-1	2.754889E-1	3.144926E-1	2.599046E-1	2.521452E-1	3.150485E-1	3.505560E-1	3.097473E-1	2.687969E-1	3.072233E-1	3.057477E-1	3.174119E-1	2.662621E-1	3.152019E-1	2.944651E-1	2.944923E-1	2.730870E-1	2.941594E-1	3.022530E-1	2.771938E-1	2.644261E-1	3.214286E-1	2.997966E-1	2.855728E-1	2.596899E-1	2.843789E-1	3.061226E-1	2.860019E-1	2.761095E-1	2.711628E-1	2.809101E-1	2.687763E-1	2.595642E-1	3.298522E-1	2.722140E-1	2.615926E-1	2.824896E-1	3.287863E-1	2.819899E-1	3.167448E-1	2.872989E-1	2.882959E-1	3.275172E-1	3.276805E-1	3.238622E-1	2.868802E-1	2.638986E-1	2.760032E-1	2.547871E-1	2.767556E-1	2.953622E-1	2.722473E-1	3.173665E-1	3.444823E-1	2.916698E-1	3.092952E-1	2.911126E-1	2.931102E-1	3.192415E-1	2.856713E-1	2.554594E-1	2.882789E-1	3.033972E-1	2.850680E-1	2.459994E-1	3.207725E-1	3.326083E-1	2.695709E-1	2.754341E-1
2.856030E+2	2.586040E-1	2.498712E-1	2.452401E-1	3.040747E-1	2.456516E-1	2.292605E-1	2.713941E-1	2.941659E-1	2.488607E-1	2.223629E-1	2.890824E-1	2.983428E-1	3.195266E-1	3.183611E-1	2.843991E-1	2.336203E-1	2.899603E-1	3.074440E-1	2.889007E-1	2.599913E-1	3.118049E-1	2.728640E-1	2.356010E-1	2.727996E-1	2.798522E-1	2.445668E-1	2.604823E-1	2.454986E-1	2.689822E-1	3.009644E-1	2.310683E-1	3.083493E-1	3.259981E-1	3.111583E-1	2.448613E-1	2.397824E-1	2.792874E-1	2.467822E-1	2.700985E-1	2.842821E-1	2.844779E-1	3.101753E-1	2.314261E-1	2.943947E-1	2.814205E-1	3.174239E-1	2.615832E-1	2.731061E-1	2.955601E-1	2.836622E-1	2.677749E-1	2.498338E-1	2.439463E-1	2.964728E-1	2.552124E-1	2.781592E-1	2.605959E-1	3.151111E-1	2.564651E-1	3.291680E-1	3.176003E-1	2.907641E-1	2.506547E-1	2.774062E-1	2.851611E-1	2.794560E-1	2.649847E-1	2.981069E-1	2.676820E-1	2.771575E-1	2.437023E-1	3.184006E-1	2.392392E-1	2.800397E-1	2.486194E-1	3.101201E-1	3.001786E-1	3.236417E-1	2.504167E-1	2.663000E-1	2.865487E-1	2.990363E-1	2.820171E-1	2.530046E-1	2.704800E-1	2.411635E-1	2.345897E-1	2.900078E-1	2.622639E-1	2.586846E-1	2.373662E-1	3.001873E-1	2.859263E-1	2.791276E-1	2.310840E-1	2.886770E-1	2.981991E-1	3.019226E-1	2.601742E-1	2.866573E-1	2.583348E-1	2.880511E-1	2.180280E-1	2.980578E-1	2.795883E-1	2.616195E-1	2.409254E-1	3.150481E-1	2.851491E-1	3.131276E-1	2.877596E-1	3.037580E-1	3.027750E-1	3.192464E-1	2.429868E-1	2.628374E-1	2.633322E-1	2.487822E-1	2.759598E-1	2.865948E-1	3.013382E-1	2.441479E-1	3.012798E-1	3.028377E-1	3.064882E-1	2.952276E-1	2.798445E-1	2.450689E-1	3.127672E-1	2.685956E-1	2.432318E-1	2.784084E-1	2.809098E-1	2.777117E-1	2.721230E-1	2.621033E-1	2.637558E-1	2.641177E-1	2.557502E-1	2.956438E-1	2.766036E-1	3.293007E-1	2.546562E-1	3.047232E-1	2.796611E-1	3.018992E-1	2.518421E-1	2.222048E-1	2.839309E-1	2.808610E-1	2.479952E-1	2.886248E-1	2.645219E-1	2.968674E-1	2.574244E-1	3.250167E-1	2.982844E-1	2.829722E-1	3.014628E-1	2.806772E-1	3.221346E-1	3.082005E-1	2.660124E-1	2.765821E-1	3.015227E-1	2.805431E-1	2.467692E-1	3.219109E-1	3.239064E-1	2.854427E-1	2.493797E-1
2.858010E+2	2.926942E-1	3.096415E-1	2.634818E-1	3.617184E-1	2.906240E-1	2.619531E-1	3.163025E-1	3.079218E-1	3.391193E-1	3.088698E-1	3.212811E-1	3.194107E-1	3.525527E-1	3.254999E-1	3.441153E-1	3.481840E-1	3.978752E-1	3.710902E-1	3.482035E-1	3.330467E-1	3.102067E-1	3.406097E-1	3.304173E-1	3.434301E-1	3.197046E-1	2.931416E-1	2.972514E-1	3.113357E-1	3.497577E-1	3.277343E-1	3.540219E-1	3.014948E-1	3.712131E-1	3.307375E-1	3.852355E-1	3.033757E-1	3.391074E-1	3.176496E-1	3.417307E-1	3.203688E-1	2.744705E-1	3.352217E-1	3.271887E-1	3.537351E-1	3.456795E-1	3.925113E-1	3.564393E-1	3.056039E-1	3.649107E-1	3.531765E-1	3.051724E-1	2.872795E-1	3.326930E-1	3.112808E-1	3.166112E-1	3.135084E-1	3.234487E-1	3.376031E-1	3.119804E-1	3.373479E-1	3.486720E-1	3.903839E-1	2.938020E-1	3.202936E-1	3.602503E-1	3.335768E-1	2.948533E-1	3.528465E-1	3.266716E-1	3.305855E-1	2.844611E-1	3.334731E-1	2.959808E-1	3.240665E-1	2.890074E-1	3.548384E-1	3.368079E-1	3.459120E-1	2.904108E-1	3.194230E-1	3.635539E-1	3.552829E-1	3.527946E-1	3.534698E-1	3.190363E-1	3.274060E-1	3.083201E-1	3.632725E-1	3.351875E-1	3.024831E-1	2.840746E-1	3.302066E-1	3.578838E-1	3.258083E-1	2.925430E-1	3.475616E-1	3.455955E-1	3.752795E-1	3.194845E-1	3.241437E-1	3.255782E-1	3.472342E-1	3.066669E-1	3.570831E-1	3.446802E-1	3.267835E-1	2.793936E-1	3.450162E-1	3.837079E-1	3.883199E-1	3.272020E-1	3.548717E-1	3.384536E-1	3.485918E-1	3.093636E-1	3.025619E-1	3.022482E-1	3.237167E-1	3.104437E-1	3.445863E-1	3.489113E-1	3.198060E-1	3.037369E-1	3.576319E-1	3.351655E-1	3.540318E-1	2.937987E-1	3.097659E-1	3.279540E-1	3.227490E-1	3.020658E-1	2.992411E-1	3.392260E-1	3.004569E-1	2.846807E-1	3.764291E-1	3.530446E-1	3.137849E-1	3.299310E-1	3.488723E-1	3.286704E-1	3.395016E-1	3.065490E-1	3.252566E-1	3.344962E-1	3.470174E-1	3.256857E-1	3.266089E-1	3.187689E-1	3.326810E-1	2.925199E-1	3.361022E-1	3.334594E-1	3.074189E-1	3.206515E-1	3.509710E-1	3.206091E-1	3.347960E-1	2.950939E-1	3.179763E-1	3.288866E-1	3.577653E-1	3.187744E-1	3.360411E-1	3.596252E-1	3.054295E-1	2.975660E-1	3.492473E-1	3.691538E-1	2.735388E-1	3.275434E-1
2.860070E+2	4.173701E-1	4.775666E-1	5.060997E-1	5.346518E-1	4.017820E-1	4.319578E-1	5.362581E-1	5.024774E-1	4.692993E-1	4.837230E-1	4.734190E-1	4.475704E-1	5.259391E-1	5.735858E-1	5.777557E-1	4.822161E-1	5.439898E-1	4.765863E-1	5.229059E-1	4.611092E-1	4.420409E-1	4.986829E-1	4.882181E-1	5.156409E-1	4.516600E-1	4.954047E-1	5.238720E-1	4.977203E-1	5.088853E-1	5.237848E-1	5.158408E-1	4.736140E-1	5.593072E-1	5.327619E-1	5.517816E-1	4.776038E-1	5.140825E-1	4.732484E-1	5.139098E-1	4.582997E-1	5.138119E-1	5.051801E-1	4.942156E-1	5.278669E-1	4.979129E-1	5.378938E-1	4.987234E-1	4.880908E-1	5.326644E-1	5.452569E-1	5.279291E-1	4.735730E-1	5.332267E-1	5.087241E-1	4.521124E-1	5.079252E-1	5.603543E-1	5.278401E-1	4.584763E-1	5.582315E-1	5.501961E-1	5.730200E-1	5.278195E-1	4.957437E-1	5.238381E-1	4.951418E-1	5.547929E-1	4.878736E-1	4.656063E-1	5.045876E-1	4.685537E-1	4.942430E-1	4.671069E-1	4.299015E-1	4.307482E-1	5.579370E-1	5.128052E-1	5.364468E-1	5.027422E-1	4.694184E-1	4.928834E-1	5.222082E-1	5.015075E-1	4.695252E-1	4.417510E-1	4.671794E-1	4.632911E-1	5.553899E-1	4.458920E-1	4.549956E-1	4.652706E-1	5.225135E-1	5.678306E-1	5.462022E-1	5.031411E-1	4.709778E-1	5.305321E-1	5.372001E-1	5.066800E-1	4.797142E-1	5.085822E-1	4.873271E-1	4.704224E-1	4.603787E-1	4.710898E-1	4.588260E-1	4.484925E-1	5.475565E-1	5.888894E-1	5.277224E-1	4.781459E-1	5.021474E-1	5.138751E-1	5.090751E-1	4.740132E-1	4.686831E-1	4.579127E-1	4.623451E-1	4.670580E-1	4.883043E-1	5.181639E-1	4.659029E-1	4.912814E-1	4.897256E-1	4.871543E-1	4.883162E-1	4.651165E-1	4.776491E-1	5.424779E-1	5.122893E-1	4.612634E-1	4.740532E-1	5.217803E-1	4.946017E-1	4.302065E-1	5.093866E-1	5.363222E-1	4.855143E-1	4.757051E-1	5.296486E-1	5.189823E-1	5.984699E-1	4.706010E-1	4.763861E-1	4.950152E-1	5.495869E-1	4.624329E-1	4.670466E-1	4.737987E-1	4.508955E-1	4.600507E-1	4.959448E-1	4.867525E-1	5.272398E-1	4.651702E-1	5.530488E-1	4.925929E-1	5.503157E-1	5.204192E-1	5.028147E-1	5.208165E-1	5.100634E-1	4.304558E-1	4.715295E-1	5.461146E-1	4.954753E-1	4.199401E-1	4.984582E-1	6.040892E-1	4.620146E-1	4.578161E-1
2.862050E+2	7.417211E-1	7.119024E-1	7.104092E-1	8.941436E-1	6.495541E-1	6.935024E-1	7.543816E-1	8.159268E-1	7.982207E-1	6.852641E-1	8.259935E-1	8.092237E-1	8.025319E-1	8.698595E-1	9.144068E-1	7.375514E-1	8.944722E-1	8.436441E-1	8.001869E-1	7.455947E-1	7.712227E-1	7.824619E-1	7.740209E-1	8.624435E-1	7.979329E-1	7.008529E-1	7.422380E-1	8.584342E-1	8.570275E-1	8.521097E-1	8.620893E-1	7.767271E-1	8.812361E-1	8.264543E-1	8.341147E-1	7.711795E-1	8.034644E-1	7.813648E-1	7.702081E-1	8.271848E-1	7.606593E-1	8.612008E-1	7.918960E-1	8.041423E-1	8.237972E-1	8.510240E-1	8.985771E-1	7.122426E-1	8.578622E-1	8.562441E-1	7.767015E-1	7.581620E-1	9.146667E-1	7.974837E-1	7.188813E-1	8.159634E-1	8.088637E-1	8.595850E-1	7.237130E-1	8.545623E-1	8.671304E-1	8.826698E-1	8.861596E-1	8.528818E-1	8.206197E-1	7.959876E-1	8.002014E-1	7.898587E-1	7.628799E-1	7.500674E-1	7.375607E-1	8.409037E-1	7.273990E-1	7.550269E-1	7.881499E-1	8.206584E-1	7.861827E-1	8.705021E-1	8.161486E-1	7.717521E-1	7.969558E-1	8.524285E-1	8.140426E-1	7.042333E-1	7.357361E-1	7.400330E-1	8.094158E-1	8.362391E-1	7.261679E-1	6.990159E-1	7.302192E-1	8.677294E-1	8.463492E-1	8.790900E-1	7.924064E-1	8.226733E-1	8.743853E-1	9.057702E-1	8.393698E-1	7.608655E-1	7.681941E-1	7.877387E-1	7.536149E-1	8.553294E-1	8.286225E-1	7.409171E-1	8.187461E-1	8.048657E-1	8.272233E-1	8.386312E-1	8.232670E-1	8.322208E-1	8.349851E-1	8.217877E-1	8.662398E-1	8.081483E-1	7.311907E-1	6.863989E-1	7.810037E-1	8.009524E-1	7.715862E-1	7.311397E-1	8.172328E-1	8.488264E-1	8.274578E-1	8.314865E-1	8.108523E-1	7.929433E-1	8.300898E-1	7.888630E-1	8.038864E-1	7.439713E-1	8.049094E-1	7.512945E-1	7.493301E-1	8.379678E-1	7.882126E-1	7.936158E-1	7.594884E-1	9.092773E-1	8.268932E-1	8.378189E-1	7.543426E-1	7.490753E-1	8.449658E-1	8.644924E-1	7.723925E-1	7.885736E-1	7.760203E-1	8.314498E-1	7.973776E-1	8.092972E-1	7.652217E-1	7.919036E-1	7.566716E-1	8.543124E-1	8.084472E-1	9.048532E-1	7.680388E-1	8.559145E-1	8.767086E-1	8.714329E-1	7.004252E-1	7.775978E-1	8.459977E-1	7.835596E-1	6.593010E-1	7.513165E-1	8.668694E-1	7.437375E-1	8.263019E-1
2.864180E+2	8.439928E-1	7.536463E-1	8.016187E-1	1.003144E+0	7.895631E-1	8.692276E-1	9.056022E-1	9.151692E-1	8.485570E-1	8.297479E-1	9.555923E-1	8.408250E-1	9.618829E-1	9.590989E-1	9.651651E-1	9.225008E-1	9.546373E-1	9.543720E-1	9.292112E-1	8.375599E-1	8.583132E-1	8.328948E-1	8.261701E-1	8.997425E-1	8.484132E-1	8.338367E-1	8.735577E-1	9.112895E-1	8.974154E-1	9.363552E-1	9.546579E-1	8.643101E-1	9.481533E-1	9.635110E-1	9.657656E-1	8.521957E-1	8.632844E-1	8.591648E-1	8.812705E-1	8.993581E-1	9.024292E-1	9.551247E-1	8.126816E-1	9.451986E-1	9.523155E-1	9.293066E-1	9.657061E-1	9.155618E-1	9.422075E-1	9.824689E-1	9.506788E-1	8.733083E-1	9.470931E-1	9.060776E-1	8.233306E-1	9.043345E-1	8.311043E-1	9.495516E-1	8.293444E-1	9.627319E-1	9.559073E-1	1.027949E+0	9.234566E-1	8.778349E-1	8.903456E-1	8.700048E-1	9.390521E-1	9.148486E-1	8.909476E-1	8.511478E-1	8.795361E-1	9.413859E-1	8.345787E-1	8.574752E-1	8.049152E-1	9.240708E-1	9.452057E-1	9.711312E-1	9.266772E-1	8.529998E-1	9.697239E-1	1.026611E+0	9.285589E-1	8.410741E-1	8.054814E-1	8.641923E-1	8.210216E-1	9.339259E-1	7.955776E-1	8.186791E-1	8.228315E-1	9.559105E-1	9.767199E-1	8.989858E-1	9.087683E-1	9.065637E-1	9.831172E-1	9.809149E-1	8.653177E-1	8.274044E-1	9.009789E-1	8.731430E-1	8.527697E-1	9.082788E-1	9.267319E-1	8.515238E-1	8.604201E-1	8.761680E-1	1.010005E+0	9.256519E-1	9.613157E-1	9.223190E-1	9.717543E-1	9.281657E-1	8.964121E-1	8.614148E-1	8.496681E-1	8.242785E-1	8.715244E-1	9.362659E-1	8.539244E-1	8.789759E-1	9.097765E-1	9.388457E-1	8.857682E-1	8.902909E-1	9.705431E-1	8.666486E-1	9.705739E-1	9.435896E-1	9.656798E-1	8.345467E-1	8.125148E-1	8.642072E-1	8.771273E-1	9.378974E-1	8.887799E-1	8.685373E-1	8.500568E-1	9.936392E-1	8.735740E-1	9.610242E-1	9.158813E-1	8.665301E-1	8.698899E-1	9.998472E-1	9.738663E-1	8.089002E-1	8.526642E-1	9.342807E-1	8.494485E-1	8.971315E-1	8.568349E-1	8.991759E-1	8.864103E-1	9.414474E-1	8.911324E-1	9.747737E-1	9.814225E-1	9.114491E-1	9.654404E-1	8.975670E-1	9.167523E-1	8.526516E-1	9.818824E-1	8.589741E-1	8.509442E-1	9.198899E-1	1.035676E+0	8.607920E-1	8.560789E-1
2.866200E+2	8.303574E-1	8.788796E-1	9.074227E-1	1.049260E+0	8.031396E-1	8.381699E-1	9.514258E-1	9.574212E-1	9.110429E-1	8.849648E-1	9.789369E-1	9.470397E-1	9.932572E-1	1.082249E+0	1.048022E+0	9.502060E-1	9.890179E-1	9.613471E-1	9.556566E-1	8.461538E-1	9.206331E-1	9.164472E-1	9.270822E-1	9.505325E-1	8.900371E-1	9.270052E-1	9.245846E-1	9.975274E-1	9.878834E-1	9.694249E-1	9.857503E-1	9.001047E-1	1.047627E+0	1.001779E+0	9.935229E-1	8.835575E-1	9.201149E-1	9.269500E-1	8.865286E-1	9.482758E-1	9.274475E-1	9.962731E-1	8.876585E-1	1.001621E+0	9.362508E-1	1.057914E+0	1.006567E+0	9.238944E-1	1.021867E+0	1.082168E+0	9.084038E-1	9.210507E-1	1.025599E+0	9.406298E-1	8.586173E-1	9.396829E-1	9.626108E-1	9.636078E-1	9.172426E-1	1.034541E+0	1.044685E+0	1.103493E+0	1.033884E+0	9.222826E-1	9.895709E-1	9.822242E-1	1.005247E+0	9.422183E-1	9.018143E-1	9.132400E-1	8.747807E-1	9.924641E-1	8.769094E-1	9.226698E-1	9.131271E-1	9.790383E-1	9.577134E-1	1.026395E+0	1.024117E+0	8.967483E-1	9.766348E-1	1.047478E+0	1.004109E+0	8.644582E-1	9.758696E-1	8.604753E-1	9.200114E-1	9.738149E-1	9.115526E-1	9.008017E-1	8.824243E-1	1.020638E+0	1.011429E+0	9.234744E-1	9.841572E-1	9.864215E-1	1.011926E+0	9.997014E-1	9.440885E-1	8.686400E-1	9.843947E-1	8.881256E-1	8.715487E-1	8.778979E-1	1.022012E+0	9.484123E-1	8.660294E-1	1.014639E+0	1.039573E+0	9.856376E-1	9.999998E-1	9.006609E-1	1.020317E+0	1.048298E+0	9.800295E-1	9.137790E-1	8.635058E-1	8.445111E-1	9.527046E-1	9.623200E-1	9.326043E-1	9.120228E-1	8.983108E-1	1.015166E+0	9.612852E-1	9.455843E-1	9.627907E-1	9.206994E-1	9.838629E-1	9.648642E-1	1.079887E+0	8.490397E-1	9.333732E-1	8.975121E-1	9.591245E-1	1.022583E+0	9.310750E-1	9.081028E-1	9.380400E-1	1.007700E+0	9.786053E-1	1.014387E+0	9.686122E-1	9.429162E-1	9.237285E-1	1.005371E+0	9.875404E-1	9.040653E-1	8.796637E-1	9.496644E-1	9.483065E-1	9.224527E-1	9.393781E-1	9.554502E-1	9.833033E-1	1.053609E+0	1.001929E+0	1.027420E+0	1.042730E+0	1.002625E+0	1.003054E+0	1.007510E+0	9.914989E-1	9.091869E-1	1.031550E+0	9.004522E-1	8.547929E-1	9.962037E-1	1.159234E+0	7.794494E-1	9.193529E-1
2.868020E+2	9.443180E-1	8.836229E-1	8.928286E-1	1.092231E+0	8.209592E-1	8.798529E-1	1.047657E+0	1.058628E+0	9.353438E-1	9.815943E-1	9.845715E-1	9.777628E-1	1.101417E+0	1.022458E+0	1.116696E+0	9.831526E-1	1.095023E+0	1.110437E+0	1.026179E+0	9.527293E-1	9.789600E-1	1.006775E+0	9.358864E-1	1.048145E+0	9.352027E-1	9.389498E-1	9.568521E-1	1.019782E+0	1.038772E+0	1.085165E+0	1.066305E+0	9.640783E-1	1.110927E+0	1.086327E+0	1.074417E+0	9.227584E-1	9.634842E-1	9.839517E-1	1.023220E+0	9.795508E-1	9.799854E-1	1.040999E+0	9.359110E-1	1.063881E+0	1.011985E+0	1.139391E+0	1.128420E+0	9.297276E-1	1.066852E+0	1.143450E+0	9.742557E-1	9.173064E-1	1.066559E+0	1.010557E+0	9.482459E-1	9.834475E-1	1.016761E+0	1.074190E+0	9.295787E-1	1.064539E+0	1.038470E+0	1.093532E+0	1.063868E+0	9.963607E-1	1.066449E+0	1.041917E+0	1.024622E+0	1.015206E+0	9.926263E-1	9.709999E-1	1.018115E+0	1.006699E+0	9.651740E-1	9.954847E-1	9.474182E-1	1.054501E+0	1.046159E+0	1.103104E+0	1.090289E+0	9.819017E-1	1.045743E+0	1.106445E+0	1.063753E+0	9.320127E-1	9.961737E-1	9.117749E-1	9.746270E-1	1.013703E+0	9.071604E-1	9.383438E-1	9.549023E-1	1.094747E+0	1.048677E+0	1.067343E+0	1.015296E+0	1.050147E+0	1.081626E+0	1.069479E+0	1.008958E+0	9.145614E-1	9.877998E-1	9.525534E-1	9.211270E-1	1.028066E+0	1.036162E+0	9.775640E-1	9.710152E-1	1.109710E+0	1.069140E+0	1.117436E+0	1.094814E+0	9.829624E-1	1.012389E+0	1.101487E+0	1.096404E+0	9.787836E-1	9.586341E-1	9.381785E-1	1.050408E+0	1.069057E+0	9.463277E-1	8.711503E-1	1.008873E+0	1.137476E+0	1.052097E+0	1.040373E+0	1.037985E+0	9.960416E-1	1.049360E+0	1.048030E+0	1.040088E+0	9.667887E-1	1.008592E+0	9.551871E-1	9.753758E-1	9.726188E-1	9.705499E-1	9.678704E-1	9.872050E-1	1.071976E+0	1.032467E+0	1.102279E+0	1.042268E+0	9.856255E-1	1.028415E+0	1.084558E+0	1.087822E+0	9.696647E-1	9.310498E-1	1.031443E+0	9.332133E-1	1.025321E+0	9.738465E-1	1.016120E+0	9.783771E-1	1.095322E+0	9.796036E-1	1.114614E+0	1.114389E+0	9.761009E-1	1.103359E+0	1.038149E+0	1.097025E+0	1.061246E+0	1.142132E+0	9.057312E-1	9.094385E-1	1.020123E+0	1.140091E+0	9.262626E-1	8.709665E-1
2.870040E+2	6.891228E-1	6.065943E-1	6.611559E-1	7.390282E-1	6.436148E-1	6.436450E-1	7.323866E-1	7.569703E-1	6.749846E-1	6.733000E-1	7.076638E-1	6.942324E-1	7.571216E-1	7.360001E-1	7.987061E-1	6.963686E-1	7.712781E-1	7.372759E-1	7.160408E-1	7.155135E-1	6.993138E-1	6.567558E-1	6.710781E-1	7.235634E-1	6.978594E-1	6.522783E-1	7.122216E-1	6.794681E-1	7.261708E-1	7.513288E-1	7.539750E-1	6.914289E-1	7.555387E-1	7.241075E-1	7.460838E-1	7.006170E-1	6.987788E-1	6.789167E-1	7.327488E-1	7.189256E-1	6.630880E-1	7.288113E-1	6.783169E-1	7.759309E-1	7.266438E-1	7.735399E-1	7.716162E-1	6.639124E-1	7.491512E-1	7.949617E-1	7.262967E-1	6.860789E-1	7.303467E-1	7.201523E-1	7.019435E-1	7.149668E-1	7.469783E-1	7.565013E-1	7.044363E-1	7.609364E-1	8.014347E-1	7.888616E-1	7.252727E-1	7.125213E-1	7.866512E-1	6.813799E-1	7.477296E-1	6.931494E-1	7.209664E-1	7.139678E-1	6.689505E-1	7.295371E-1	6.778623E-1	6.889856E-1	6.685077E-1	6.986142E-1	8.076237E-1	7.937928E-1	7.361612E-1	7.115980E-1	7.308097E-1	7.544515E-1	7.281549E-1	6.574642E-1	6.456862E-1	6.827855E-1	7.397811E-1	7.255276E-1	6.347922E-1	6.348821E-1	6.206964E-1	8.395871E-1	7.523813E-1	7.711876E-1	7.735596E-1	7.258770E-1	7.647243E-1	8.002093E-1	7.476253E-1	6.568399E-1	7.222298E-1	7.270574E-1	6.604698E-1	7.259942E-1	7.682482E-1	6.363117E-1	6.993358E-1	7.614641E-1	7.483760E-1	7.659737E-1	7.967200E-1	7.083355E-1	6.783945E-1	8.052796E-1	7.067633E-1	6.970994E-1	6.326032E-1	6.286995E-1	6.991052E-1	7.337161E-1	6.901612E-1	6.580908E-1	6.886534E-1	7.920748E-1	7.615006E-1	7.375755E-1	7.930231E-1	7.061351E-1	7.380167E-1	7.066649E-1	7.658170E-1	6.642648E-1	7.068709E-1	6.546282E-1	7.219980E-1	6.956956E-1	6.660269E-1	7.035426E-1	6.999717E-1	8.048290E-1	7.200679E-1	7.554204E-1	7.183510E-1	6.644758E-1	7.522438E-1	7.862273E-1	7.395727E-1	7.072686E-1	6.932791E-1	7.375253E-1	7.053107E-1	7.467857E-1	6.844936E-1	6.969410E-1	7.024772E-1	7.625433E-1	7.414731E-1	7.798191E-1	8.197929E-1	7.199791E-1	7.812248E-1	7.344543E-1	7.479123E-1	7.054671E-1	8.094492E-1	7.322781E-1	6.377514E-1	8.094067E-1	8.233642E-1	7.020743E-1	6.662530E-1
2.872040E+2	6.384738E-1	5.695932E-1	5.507923E-1	6.017291E-1	5.154858E-1	5.365753E-1	6.123272E-1	6.488851E-1	5.717069E-1	5.803526E-1	6.360224E-1	6.406865E-1	6.712534E-1	6.217743E-1	6.956958E-1	6.551850E-1	6.795985E-1	6.204450E-1	6.326965E-1	6.673825E-1	6.313999E-1	5.701926E-1	6.019981E-1	6.410289E-1	5.969000E-1	5.766286E-1	6.867089E-1	6.497954E-1	6.615506E-1	6.907024E-1	6.338481E-1	6.624884E-1	6.515449E-1	6.876187E-1	6.509149E-1	7.093282E-1	6.082995E-1	6.365504E-1	6.000003E-1	7.004811E-1	5.780261E-1	6.044730E-1	5.922052E-1	6.348744E-1	6.218404E-1	6.680983E-1	6.220362E-1	6.705790E-1	6.573079E-1	6.541029E-1	6.311782E-1	6.430153E-1	6.313598E-1	5.868784E-1	5.699705E-1	6.855097E-1	6.570510E-1	6.543535E-1	5.872396E-1	6.518579E-1	6.771469E-1	7.149778E-1	6.660372E-1	5.674838E-1	6.623953E-1	6.200962E-1	6.516658E-1	6.010035E-1	5.975553E-1	6.172199E-1	5.392024E-1	6.131459E-1	6.427368E-1	5.873844E-1	6.235480E-1	6.455102E-1	6.521738E-1	6.543973E-1	6.612634E-1	5.709770E-1	6.774985E-1	6.954824E-1	6.494246E-1	5.751871E-1	6.289127E-1	5.853907E-1	6.121180E-1	6.433076E-1	5.627472E-1	6.168933E-1	5.377488E-1	6.641649E-1	6.084661E-1	6.724702E-1	6.653913E-1	6.653787E-1	6.448405E-1	6.060833E-1	6.262253E-1	5.771800E-1	6.643495E-1	6.011987E-1	6.296715E-1	6.678358E-1	6.201407E-1	5.951558E-1	5.839315E-1	6.643275E-1	6.587767E-1	6.612098E-1	6.526023E-1	6.442268E-1	6.684839E-1	6.264572E-1	6.671097E-1	5.977886E-1	5.910926E-1	5.597599E-1	6.229534E-1	6.387450E-1	6.142265E-1	5.998262E-1	6.599895E-1	6.678086E-1	6.152464E-1	6.331324E-1	6.744188E-1	5.726465E-1	6.744190E-1	6.293018E-1	7.164999E-1	5.818396E-1	5.902381E-1	5.742089E-1	5.727781E-1	6.143966E-1	5.992954E-1	5.831638E-1	5.973265E-1	6.833070E-1	6.249114E-1	6.997023E-1	6.932416E-1	5.897327E-1	6.266194E-1	6.923075E-1	6.402036E-1	6.315054E-1	6.296996E-1	6.257881E-1	5.913591E-1	6.423345E-1	5.810875E-1	6.072537E-1	6.137952E-1	6.717002E-1	6.397711E-1	6.523174E-1	6.780683E-1	6.171994E-1	6.674169E-1	6.173027E-1	6.476622E-1	6.099426E-1	6.482627E-1	6.319759E-1	5.492415E-1	6.841154E-1	7.206879E-1	5.651799E-1	6.066996E-1
2.874050E+2	6.189930E-1	5.563110E-1	5.261663E-1	6.562287E-1	4.798471E-1	5.439315E-1	5.591714E-1	6.046683E-1	5.022785E-1	5.242152E-1	5.659901E-1	5.476395E-1	6.398786E-1	6.324829E-1	6.038814E-1	6.177458E-1	5.755045E-1	6.675262E-1	5.557635E-1	6.097985E-1	5.451101E-1	5.747088E-1	5.742302E-1	5.989681E-1	5.375651E-1	5.431832E-1	5.831530E-1	5.561392E-1	6.042007E-1	6.277145E-1	6.126488E-1	6.289787E-1	5.990949E-1	6.769382E-1	5.731942E-1	6.239563E-1	5.701646E-1	5.826298E-1	5.362543E-1	6.154775E-1	5.955386E-1	6.053668E-1	5.454380E-1	6.825422E-1	6.134259E-1	6.545179E-1	6.351692E-1	6.097498E-1	6.141981E-1	6.476997E-1	5.921551E-1	6.186752E-1	6.057600E-1	6.041546E-1	5.339782E-1	6.686777E-1	5.922643E-1	6.009371E-1	5.116780E-1	6.282240E-1	5.928092E-1	6.369418E-1	5.541472E-1	6.711939E-1	5.408224E-1	5.389158E-1	5.725532E-1	5.918803E-1	5.478797E-1	5.544059E-1	5.269742E-1	6.290560E-1	5.238484E-1	5.416637E-1	5.122883E-1	6.175617E-1	5.985707E-1	5.983091E-1	5.870920E-1	6.264446E-1	6.074045E-1	6.483084E-1	6.231816E-1	6.669919E-1	5.485743E-1	5.779563E-1	5.820796E-1	6.286548E-1	5.144233E-1	5.347714E-1	5.361381E-1	6.566607E-1	6.143921E-1	6.158409E-1	5.752522E-1	6.008474E-1	5.862924E-1	5.917701E-1	5.418944E-1	5.790537E-1	5.732729E-1	5.232867E-1	5.635678E-1	6.400591E-1	5.833496E-1	5.685751E-1	5.638964E-1	5.682233E-1	5.745542E-1	5.961564E-1	6.594292E-1	5.549940E-1	6.169482E-1	6.411294E-1	6.274558E-1	5.797323E-1	5.383393E-1	5.560128E-1	5.676358E-1	6.345428E-1	5.428656E-1	5.459097E-1	5.608945E-1	5.817024E-1	5.760544E-1	5.655509E-1	5.914729E-1	5.554495E-1	6.317042E-1	6.051254E-1	6.066188E-1	5.537603E-1	5.902376E-1	5.270942E-1	5.269787E-1	6.000004E-1	5.306837E-1	5.747462E-1	6.025015E-1	6.089889E-1	5.809241E-1	6.329990E-1	6.564137E-1	5.420948E-1	5.967099E-1	6.168044E-1	5.845928E-1	5.649835E-1	5.243142E-1	5.707296E-1	5.664558E-1	5.370926E-1	5.520620E-1	5.668072E-1	5.801278E-1	6.058866E-1	5.868532E-1	5.815740E-1	6.780684E-1	5.807286E-1	6.413766E-1	5.992793E-1	5.500513E-1	5.748521E-1	6.510734E-1	5.573155E-1	5.400063E-1	6.055245E-1	5.919070E-1	5.195498E-1	5.397019E-1
2.876020E+2	4.962664E-1	5.629527E-1	5.188688E-1	5.241713E-1	4.773019E-1	4.605640E-1	5.179291E-1	5.506247E-1	5.074854E-1	4.699180E-1	5.402316E-1	5.204269E-1	5.969457E-1	5.485988E-1	5.770088E-1	5.421191E-1	5.382596E-1	5.053582E-1	5.413377E-1	5.651052E-1	4.843870E-1	4.828759E-1	5.058275E-1	5.457973E-1	4.977115E-1	4.651449E-1	4.773472E-1	5.162660E-1	5.484647E-1	5.639395E-1	6.013426E-1	6.076545E-1	5.999995E-1	5.879408E-1	5.874693E-1	5.577501E-1	5.395069E-1	5.271685E-1	5.401973E-1	5.537289E-1	5.288226E-1	5.883711E-1	5.016394E-1	5.696969E-1	5.805311E-1	5.938090E-1	5.600147E-1	5.914176E-1	5.485966E-1	5.845879E-1	4.750853E-1	5.587623E-1	5.963732E-1	5.309359E-1	4.972802E-1	6.139705E-1	5.758258E-1	5.390864E-1	5.109068E-1	5.464148E-1	5.892576E-1	5.838119E-1	5.951005E-1	5.994539E-1	5.274134E-1	5.588129E-1	5.297678E-1	5.918803E-1	5.176094E-1	5.067538E-1	5.249362E-1	5.947249E-1	5.058359E-1	4.967895E-1	5.046682E-1	6.026552E-1	5.574744E-1	5.281990E-1	5.703686E-1	5.811334E-1	5.471818E-1	6.292572E-1	5.603565E-1	5.847135E-1	5.035496E-1	4.939441E-1	5.076658E-1	5.928362E-1	5.126664E-1	5.105254E-1	5.296958E-1	5.966231E-1	5.534393E-1	6.035966E-1	5.670577E-1	6.395660E-1	5.491185E-1	5.676157E-1	5.650628E-1	5.996713E-1	5.588025E-1	5.225368E-1	5.372769E-1	6.226981E-1	5.135408E-1	4.888361E-1	5.286335E-1	5.320560E-1	5.781374E-1	5.581373E-1	5.608227E-1	6.269001E-1	6.318132E-1	5.622636E-1	5.903887E-1	5.995941E-1	5.080716E-1	5.387785E-1	5.130365E-1	6.000842E-1	4.943769E-1	5.154721E-1	5.191265E-1	5.944226E-1	5.196555E-1	5.620411E-1	5.891473E-1	6.004916E-1	6.003795E-1	5.674111E-1	5.702800E-1	5.899917E-1	5.133289E-1	5.254690E-1	5.129426E-1	5.779821E-1	5.250444E-1	5.570678E-1	5.076189E-1	5.477255E-1	5.171875E-1	5.780663E-1	5.400715E-1	4.952770E-1	5.837485E-1	5.928638E-1	5.517737E-1	5.344932E-1	5.199589E-1	5.310555E-1	4.992927E-1	5.600397E-1	5.257570E-1	5.360326E-1	5.021213E-1	5.697347E-1	5.372425E-1	5.741711E-1	5.880967E-1	5.508884E-1	5.806136E-1	5.596269E-1	5.412577E-1	5.407362E-1	5.770403E-1	5.331827E-1	4.815125E-1	5.531299E-1	6.458574E-1	4.719354E-1	5.024813E-1
2.878030E+2	4.280839E-1	4.453098E-1	3.592519E-1	4.759605E-1	3.839630E-1	3.902732E-1	4.171159E-1	4.179740E-1	4.493383E-1	3.889331E-1	4.058026E-1	4.335246E-1	4.466771E-1	4.343723E-1	4.650411E-1	4.664919E-1	4.265245E-1	4.495587E-1	4.587945E-1	4.593899E-1	4.276582E-1	4.038390E-1	4.015295E-1	4.886577E-1	3.994097E-1	4.038291E-1	4.375762E-1	4.819567E-1	4.644584E-1	4.741810E-1	4.480034E-1	4.477200E-1	4.851547E-1	4.766940E-1	4.613708E-1	4.924138E-1	4.034148E-1	4.293419E-1	4.186198E-1	4.703286E-1	4.020640E-1	4.291463E-1	4.162698E-1	4.685259E-1	4.443627E-1	4.915632E-1	4.965344E-1	4.747591E-1	4.633133E-1	4.876329E-1	4.149250E-1	4.791892E-1	4.632536E-1	4.157612E-1	3.808335E-1	4.767847E-1	4.443196E-1	4.875445E-1	3.898543E-1	4.655152E-1	5.191240E-1	4.576269E-1	4.539584E-1	4.871664E-1	4.550064E-1	4.426132E-1	4.748740E-1	4.860483E-1	4.112741E-1	4.085618E-1	4.264362E-1	4.414907E-1	3.932523E-1	4.002680E-1	3.812157E-1	4.480025E-1	4.350809E-1	4.564386E-1	4.707470E-1	4.444192E-1	4.287131E-1	4.841052E-1	4.689020E-1	4.851146E-1	4.364543E-1	4.129058E-1	4.141376E-1	5.277120E-1	3.958120E-1	3.986837E-1	4.105090E-1	4.624769E-1	4.637040E-1	4.773291E-1	4.547937E-1	5.040502E-1	4.468920E-1	4.727896E-1	4.418106E-1	5.031430E-1	4.251669E-1	4.184041E-1	3.960563E-1	4.612461E-1	4.418459E-1	3.868028E-1	4.388757E-1	4.731532E-1	4.311955E-1	4.533743E-1	4.212571E-1	4.778906E-1	4.534190E-1	4.531349E-1	4.628062E-1	4.759055E-1	3.973768E-1	4.361179E-1	4.210795E-1	4.866227E-1	4.138682E-1	4.172042E-1	4.429624E-1	5.132096E-1	4.517856E-1	4.400442E-1	4.689921E-1	4.882953E-1	4.504037E-1	4.678062E-1	4.690508E-1	5.392684E-1	4.152900E-1	3.873758E-1	4.191262E-1	4.966840E-1	4.225964E-1	4.063838E-1	4.265381E-1	4.894757E-1	4.085652E-1	4.477984E-1	4.580460E-1	4.772071E-1	4.142572E-1	4.372531E-1	4.815771E-1	4.855250E-1	3.901868E-1	4.460376E-1	4.208090E-1	4.358065E-1	3.987680E-1	3.944681E-1	4.454633E-1	4.816735E-1	4.405016E-1	4.442007E-1	5.068839E-1	4.721464E-1	4.407653E-1	4.559923E-1	4.410083E-1	5.046712E-1	5.180010E-1	4.185521E-1	3.837664E-1	4.836511E-1	4.561665E-1	4.084478E-1	4.019851E-1
2.880040E+2	3.423698E-1	3.883862E-1	3.346255E-1	4.130743E-1	3.067460E-1	3.583983E-1	3.502122E-1	3.727739E-1	3.408544E-1	3.512021E-1	3.993629E-1	3.466230E-1	3.599835E-1	3.638730E-1	3.799448E-1	4.065893E-1	3.921452E-1	3.946308E-1	3.618269E-1	3.777390E-1	3.421665E-1	3.330826E-1	3.581847E-1	3.815224E-1	3.639856E-1	3.321612E-1	3.700401E-1	3.502824E-1	3.772211E-1	3.726135E-1	4.098458E-1	3.814617E-1	4.028640E-1	4.037153E-1	3.995107E-1	3.486752E-1	3.787392E-1	3.746510E-1	3.469882E-1	4.005610E-1	3.328471E-1	3.504288E-1	3.821217E-1	3.624907E-1	3.954036E-1	3.885174E-1	3.892741E-1	3.964305E-1	3.920885E-1	4.080562E-1	3.547645E-1	4.042981E-1	3.728000E-1	3.573507E-1	3.483696E-1	4.246041E-1	4.114424E-1	4.041390E-1	3.721207E-1	3.955233E-1	4.037139E-1	4.053263E-1	3.925286E-1	4.208846E-1	3.691899E-1	3.773503E-1	3.852676E-1	4.285713E-1	3.499568E-1	3.688519E-1	3.435608E-1	4.121830E-1	3.347095E-1	3.740212E-1	3.895980E-1	3.902409E-1	3.323405E-1	4.028254E-1	4.162092E-1	4.241077E-1	3.921844E-1	4.151578E-1	3.718808E-1	3.941759E-1	3.543492E-1	3.400454E-1	3.567911E-1	3.933923E-1	3.694532E-1	3.462816E-1	3.283674E-1	4.305816E-1	3.722747E-1	3.778461E-1	3.384319E-1	4.346790E-1	3.827688E-1	4.164305E-1	3.621134E-1	4.253578E-1	3.919707E-1	3.667128E-1	3.419720E-1	3.909362E-1	4.088285E-1	3.533634E-1	3.707548E-1	4.214855E-1	4.240271E-1	3.950792E-1	3.681614E-1	4.120492E-1	3.671955E-1	4.081996E-1	3.981536E-1	3.892335E-1	3.748924E-1	3.304604E-1	3.621697E-1	4.000560E-1	3.278693E-1	3.528520E-1	3.405904E-1	3.566537E-1	3.906078E-1	4.137140E-1	4.000000E-1	3.908416E-1	4.171808E-1	3.991451E-1	3.851257E-1	3.916292E-1	3.721872E-1	3.646299E-1	3.304812E-1	3.916724E-1	3.586836E-1	3.634520E-1	3.627082E-1	4.272078E-1	3.753506E-1	3.826636E-1	3.986192E-1	4.410678E-1	4.302090E-1	4.013426E-1	3.812961E-1	4.310132E-1	3.509947E-1	4.071723E-1	3.596831E-1	4.065280E-1	3.416232E-1	3.381940E-1	3.576027E-1	3.667293E-1	3.801420E-1	4.071840E-1	4.049698E-1	4.282164E-1	3.992935E-1	3.811955E-1	3.996776E-1	4.227927E-1	4.242868E-1	3.461533E-1	3.706832E-1	4.210054E-1	4.126607E-1	3.290898E-1	3.722084E-1
2.882180E+2	4.339281E-1	5.022340E-1	4.367805E-1	4.780563E-1	4.323291E-1	4.180629E-1	5.096800E-1	4.690692E-1	4.380561E-1	4.469121E-1	4.718096E-1	4.572257E-1	4.871342E-1	5.468134E-1	5.255037E-1	4.829651E-1	5.191596E-1	5.009990E-1	4.868438E-1	5.307263E-1	4.476328E-1	4.791123E-1	4.787372E-1	4.910385E-1	4.817713E-1	4.340884E-1	4.315727E-1	5.144116E-1	4.749598E-1	4.765436E-1	4.769760E-1	5.078855E-1	4.905801E-1	4.971633E-1	5.462297E-1	5.028679E-1	4.751996E-1	4.840329E-1	4.652795E-1	5.168399E-1	4.571042E-1	4.962356E-1	4.519027E-1	5.006281E-1	5.315719E-1	5.019474E-1	4.979939E-1	5.480865E-1	4.970523E-1	5.159874E-1	4.710205E-1	5.091468E-1	4.905596E-1	4.659448E-1	4.464668E-1	5.154998E-1	4.975021E-1	5.025387E-1	4.075884E-1	4.755145E-1	4.889399E-1	5.315117E-1	5.036867E-1	5.362921E-1	4.898687E-1	4.847950E-1	5.031286E-1	5.289284E-1	4.609487E-1	4.627117E-1	4.386642E-1	4.984298E-1	4.544976E-1	4.442955E-1	4.711373E-1	5.085596E-1	5.011915E-1	5.257240E-1	5.012879E-1	4.920739E-1	5.432337E-1	5.231149E-1	5.086650E-1	5.370788E-1	4.293916E-1	4.515662E-1	4.325701E-1	5.228282E-1	4.450135E-1	4.416998E-1	4.298371E-1	5.487803E-1	5.068780E-1	4.888085E-1	4.703636E-1	5.661615E-1	4.989354E-1	4.879978E-1	5.289213E-1	5.331327E-1	4.532558E-1	4.116620E-1	4.200938E-1	5.115916E-1	4.673161E-1	4.845483E-1	4.364708E-1	5.144890E-1	4.768911E-1	5.108254E-1	4.880062E-1	5.610584E-1	4.613476E-1	5.035734E-1	5.128052E-1	5.679943E-1	4.596425E-1	4.353689E-1	4.792709E-1	5.614239E-1	4.312501E-1	4.563376E-1	4.634362E-1	5.200591E-1	5.100965E-1	4.970924E-1	5.224807E-1	5.341565E-1	5.510209E-1	5.016517E-1	5.079852E-1	4.985095E-1	4.626189E-1	4.580468E-1	4.427655E-1	5.237824E-1	4.855681E-1	4.695193E-1	4.524147E-1	5.567644E-1	4.920518E-1	4.901745E-1	5.132874E-1	5.190965E-1	4.920245E-1	5.109149E-1	4.761073E-1	5.215580E-1	4.659600E-1	4.662795E-1	4.381664E-1	5.125618E-1	4.386792E-1	4.586557E-1	4.725602E-1	5.029932E-1	4.892855E-1	4.919111E-1	5.538601E-1	5.169053E-1	5.246737E-1	4.911385E-1	4.849767E-1	5.319637E-1	5.386176E-1	4.954749E-1	4.191706E-1	5.656589E-1	5.449204E-1	4.223364E-1	4.466499E-1
2.884090E+2	6.862016E-1	7.014667E-1	5.735948E-1	7.002491E-1	7.131949E-1	6.223943E-1	6.709823E-1	6.518320E-1	6.472116E-1	6.116415E-1	6.722460E-1	6.512201E-1	7.018029E-1	6.797802E-1	7.442148E-1	6.941224E-1	6.805536E-1	6.779888E-1	6.375046E-1	6.579287E-1	5.922494E-1	6.703051E-1	5.606854E-1	6.759472E-1	6.332103E-1	5.614986E-1	6.034143E-1	6.674131E-1	6.211633E-1	6.702314E-1	7.002707E-1	6.693432E-1	6.750560E-1	7.178775E-1	6.731210E-1	7.075859E-1	6.352192E-1	6.203749E-1	5.901422E-1	6.515644E-1	6.689254E-1	6.500931E-1	6.367458E-1	6.728144E-1	6.715645E-1	6.728906E-1	6.366287E-1	7.547384E-1	6.488730E-1	7.190442E-1	6.474377E-1	6.982480E-1	6.671997E-1	6.995850E-1	5.664419E-1	6.922431E-1	6.454472E-1	6.318620E-1	6.003471E-1	7.318493E-1	6.620550E-1	7.133169E-1	6.536049E-1	7.125218E-1	6.445176E-1	6.264628E-1	6.605446E-1	7.296437E-1	6.208402E-1	6.258840E-1	6.227574E-1	7.563323E-1	6.049092E-1	6.517321E-1	5.679178E-1	7.405377E-1	6.521737E-1	6.502730E-1	6.750798E-1	7.248792E-1	7.061284E-1	6.991117E-1	7.074784E-1	7.371443E-1	6.642259E-1	6.002605E-1	6.278201E-1	7.597182E-1	5.952552E-1	6.098546E-1	5.764039E-1	7.091935E-1	6.651860E-1	6.510423E-1	6.662115E-1	7.073234E-1	6.662141E-1	6.633366E-1	6.466138E-1	7.111959E-1	5.792306E-1	6.011989E-1	6.071363E-1	7.407500E-1	6.512714E-1	6.543177E-1	6.568609E-1	6.839612E-1	6.937206E-1	6.916252E-1	6.776330E-1	7.022701E-1	6.506439E-1	6.457150E-1	6.696962E-1	7.187678E-1	6.014697E-1	5.552633E-1	6.545633E-1	6.866512E-1	6.572261E-1	6.250447E-1	6.927485E-1	7.010772E-1	6.706893E-1	7.235328E-1	6.891473E-1	7.315226E-1	7.095401E-1	6.757187E-1	6.792963E-1	7.140810E-1	6.282705E-1	6.521913E-1	6.008499E-1	6.948488E-1	6.096330E-1	6.218867E-1	6.344160E-1	7.204676E-1	6.276040E-1	6.855771E-1	6.907306E-1	7.441475E-1	6.605185E-1	6.904663E-1	7.368380E-1	7.442259E-1	6.410216E-1	6.201211E-1	6.245634E-1	7.404541E-1	5.647605E-1	6.846307E-1	6.326815E-1	6.828244E-1	6.290223E-1	6.704142E-1	7.107124E-1	7.266114E-1	7.204634E-1	6.704715E-1	6.423861E-1	7.522539E-1	7.016792E-1	5.874815E-1	6.277460E-1	7.148687E-1	7.398301E-1	5.473253E-1	5.397020E-1
2.886030E+2	9.394483E-1	9.462389E-1	7.742560E-1	9.213940E-1	1.009334E+0	8.022068E-1	8.716917E-1	9.269608E-1	9.396834E-1	7.772920E-1	9.113191E-1	8.724262E-1	1.013899E+0	9.608833E-1	9.136599E-1	9.135158E-1	1.036767E+0	9.064187E-1	9.227990E-1	8.951437E-1	9.214328E-1	7.809561E-1	8.850919E-1	8.902189E-1	9.476008E-1	8.171137E-1	8.450425E-1	8.714165E-1	9.806134E-1	9.206085E-1	9.094325E-1	9.526547E-1	9.888467E-1	9.519412E-1	9.411796E-1	9.506351E-1	9.253494E-1	8.868951E-1	8.812705E-1	9.338410E-1	8.815807E-1	9.211330E-1	8.297557E-1	9.442264E-1	9.240117E-1	9.820264E-1	9.314121E-1	9.888895E-1	9.262762E-1	9.714922E-1	8.596248E-1	1.032453E+0	9.283198E-1	8.962052E-1	8.226247E-1	9.632486E-1	8.900885E-1	9.139396E-1	8.301148E-1	1.014544E+0	9.630096E-1	1.042062E+0	9.249193E-1	1.000260E+0	9.618592E-1	8.851268E-1	9.358226E-1	9.312708E-1	7.993596E-1	8.121597E-1	8.088880E-1	9.313373E-1	8.336778E-1	7.999008E-1	8.102498E-1	9.352503E-1	9.273377E-1	9.356636E-1	9.084991E-1	9.772140E-1	8.581652E-1	9.821585E-1	8.848206E-1	9.458707E-1	8.434431E-1	8.180976E-1	8.292139E-1	9.029920E-1	8.166642E-1	8.116409E-1	7.809547E-1	9.990619E-1	8.869840E-1	9.403103E-1	8.850044E-1	9.598023E-1	9.924105E-1	9.209777E-1	8.986792E-1	9.529851E-1	8.303302E-1	8.109629E-1	7.723945E-1	9.429994E-1	8.805076E-1	8.335186E-1	8.900721E-1	9.753710E-1	9.060706E-1	9.146690E-1	9.211153E-1	9.890267E-1	9.331023E-1	9.061555E-1	9.093423E-1	1.020315E+0	8.323719E-1	8.475081E-1	8.506902E-1	9.917360E-1	8.292223E-1	8.111454E-1	8.811124E-1	8.791582E-1	9.048864E-1	8.595730E-1	8.813955E-1	9.518189E-1	9.231136E-1	9.203804E-1	9.059802E-1	9.278410E-1	8.547736E-1	8.325264E-1	8.431465E-1	9.768527E-1	7.835130E-1	8.449670E-1	8.250437E-1	9.464372E-1	8.663916E-1	9.060913E-1	9.317848E-1	9.429158E-1	8.918242E-1	9.031652E-1	9.200791E-1	9.742840E-1	8.613730E-1	8.719342E-1	8.109609E-1	1.013451E+0	7.969693E-1	8.253163E-1	8.001914E-1	9.896488E-1	8.654997E-1	9.023862E-1	9.782374E-1	1.026662E+0	9.567596E-1	9.534384E-1	8.842157E-1	9.939896E-1	9.350251E-1	8.107090E-1	8.347813E-1	9.665887E-1	9.295202E-1	7.496887E-1	8.374685E-1
2.888240E+2	8.488628E-1	8.285964E-1	7.623991E-1	8.679414E-1	8.727200E-1	6.747037E-1	7.507169E-1	8.326305E-1	8.607077E-1	7.644082E-1	7.656217E-1	7.574339E-1	8.421634E-1	8.653978E-1	8.815626E-1	8.498688E-1	9.145279E-1	8.636973E-1	7.825559E-1	8.435747E-1	8.934680E-1	7.568687E-1	7.658947E-1	8.187952E-1	8.740953E-1	7.295199E-1	7.655002E-1	8.454521E-1	8.626810E-1	8.017194E-1	8.161587E-1	8.589790E-1	9.020342E-1	8.825223E-1	7.770145E-1	9.070781E-1	9.208624E-1	7.759734E-1	7.268340E-1	8.600643E-1	8.457208E-1	8.272082E-1	7.161767E-1	8.809935E-1	8.390965E-1	8.486272E-1	8.059105E-1	8.913967E-1	8.859771E-1	8.617322E-1	7.628804E-1	8.639462E-1	9.189327E-1	8.147599E-1	7.379362E-1	8.311118E-1	8.910549E-1	8.202263E-1	7.576383E-1	8.618344E-1	9.008654E-1	8.768585E-1	8.188796E-1	9.230619E-1	8.733612E-1	8.079262E-1	7.808277E-1	8.856531E-1	8.560203E-1	7.572877E-1	7.613361E-1	8.660246E-1	8.688034E-1	6.822132E-1	7.599542E-1	7.964367E-1	8.281718E-1	8.366842E-1	8.277835E-1	8.444066E-1	8.631011E-1	8.533361E-1	8.275626E-1	9.060301E-1	7.436819E-1	7.043463E-1	7.315884E-1	8.720572E-1	7.569188E-1	7.248262E-1	7.535735E-1	8.658528E-1	8.192596E-1	8.500101E-1	7.694619E-1	8.896247E-1	8.567271E-1	8.601459E-1	7.893268E-1	8.461476E-1	7.733013E-1	7.495318E-1	7.130520E-1	8.961267E-1	8.276797E-1	8.043661E-1	7.418103E-1	8.813342E-1	8.146793E-1	8.504600E-1	8.323693E-1	9.006604E-1	7.933590E-1	8.548012E-1	8.308966E-1	9.210017E-1	7.597288E-1	7.500937E-1	7.651993E-1	8.564222E-1	7.798192E-1	7.546203E-1	8.254223E-1	9.085125E-1	7.968686E-1	8.262207E-1	8.736434E-1	8.535452E-1	8.073084E-1	8.217424E-1	8.358991E-1	8.200545E-1	7.271539E-1	8.081570E-1	7.456366E-1	8.294990E-1	7.600158E-1	7.506841E-1	7.879532E-1	8.630788E-1	7.766227E-1	8.550832E-1	7.978659E-1	8.566739E-1	8.030909E-1	8.525226E-1	8.398537E-1	8.911301E-1	7.603426E-1	7.763907E-1	7.362515E-1	8.670621E-1	7.262178E-1	7.866275E-1	7.591352E-1	8.867561E-1	7.604906E-1	8.250615E-1	8.795079E-1	8.907276E-1	8.728499E-1	8.272761E-1	7.742926E-1	9.316059E-1	8.066382E-1	7.466061E-1	7.493509E-1	9.073609E-1	8.947135E-1	6.981073E-1	7.034740E-1
2.890080E+2	6.248375E-1	6.046966E-1	5.945726E-1	6.740463E-1	6.707682E-1	5.120553E-1	5.683354E-1	6.380757E-1	6.428729E-1	5.803524E-1	5.893348E-1	6.231304E-1	6.258429E-1	6.628239E-1	6.695698E-1	6.087610E-1	6.757791E-1	6.431143E-1	6.110590E-1	6.398793E-1	7.041088E-1	5.506212E-1	5.694893E-1	5.989681E-1	6.526941E-1	5.137203E-1	5.576394E-1	6.433043E-1	6.688206E-1	6.056685E-1	5.963960E-1	6.647734E-1	7.401662E-1	6.262101E-1	6.152269E-1	6.770962E-1	6.464352E-1	5.957248E-1	5.894850E-1	6.082604E-1	5.972068E-1	6.134181E-1	5.936902E-1	6.494670E-1	6.991046E-1	6.649026E-1	6.242249E-1	6.397475E-1	6.020152E-1	6.650788E-1	5.986584E-1	6.420793E-1	6.987734E-1	5.893469E-1	5.812623E-1	6.560525E-1	6.174058E-1	6.243657E-1	5.656507E-1	6.718557E-1	6.540657E-1	6.311313E-1	5.709672E-1	6.743123E-1	6.114416E-1	6.360139E-1	6.169527E-1	6.210746E-1	6.689625E-1	5.782319E-1	5.921876E-1	6.324053E-1	6.292268E-1	5.865383E-1	5.511525E-1	6.306044E-1	6.682553E-1	6.263530E-1	6.001815E-1	6.248820E-1	5.876592E-1	6.573805E-1	6.096624E-1	6.514023E-1	7.118993E-1	5.586257E-1	5.588678E-1	6.913376E-1	6.910234E-1	5.332074E-1	5.280860E-1	6.613505E-1	6.838096E-1	6.097189E-1	6.096690E-1	6.573120E-1	6.318302E-1	6.472338E-1	6.429061E-1	6.605881E-1	6.609451E-1	5.592461E-1	5.921124E-1	6.791200E-1	6.003294E-1	5.771500E-1	5.855345E-1	6.405597E-1	6.166656E-1	6.062944E-1	6.427418E-1	6.762810E-1	6.357779E-1	6.145349E-1	6.041807E-1	6.329983E-1	6.057940E-1	5.455221E-1	5.899065E-1	6.269784E-1	6.279501E-1	5.711285E-1	5.993860E-1	6.795505E-1	6.181143E-1	6.814045E-1	6.348836E-1	6.365250E-1	6.392975E-1	6.438067E-1	6.273844E-1	6.479607E-1	5.792512E-1	5.872057E-1	5.757332E-1	6.609738E-1	5.570003E-1	5.688533E-1	5.757624E-1	6.501653E-1	5.988775E-1	5.961156E-1	6.555762E-1	6.505131E-1	6.316055E-1	6.453481E-1	6.310870E-1	6.527561E-1	6.218607E-1	6.209307E-1	5.898497E-1	6.193863E-1	5.801809E-1	6.134095E-1	6.113311E-1	6.253525E-1	5.959490E-1	6.843976E-1	6.931956E-1	6.544984E-1	6.461984E-1	6.037850E-1	6.195221E-1	6.859714E-1	6.201488E-1	5.633485E-1	5.646349E-1	6.693089E-1	6.562977E-1	5.552611E-1	5.583123E-1
2.892050E+2	5.624995E-1	5.363879E-1	5.316385E-1	5.356998E-1	5.876115E-1	4.474870E-1	5.252602E-1	4.739825E-1	6.151007E-1	4.653171E-1	5.136677E-1	5.221824E-1	5.622674E-1	5.753701E-1	6.038821E-1	5.548485E-1	5.344390E-1	5.402336E-1	5.445440E-1	5.642459E-1	5.706767E-1	5.287921E-1	4.739962E-1	5.362744E-1	6.163837E-1	5.057574E-1	4.931053E-1	5.385216E-1	5.646196E-1	5.521290E-1	5.412794E-1	5.749058E-1	5.611150E-1	5.656909E-1	5.375063E-1	5.629767E-1	5.626865E-1	4.994384E-1	4.895944E-1	5.633516E-1	5.671850E-1	5.481177E-1	4.838237E-1	5.677516E-1	5.522268E-1	5.354970E-1	5.585555E-1	5.789183E-1	5.917061E-1	5.553182E-1	5.206119E-1	5.503368E-1	5.613871E-1	5.589073E-1	4.895169E-1	5.769395E-1	5.729252E-1	5.390866E-1	4.947152E-1	5.827744E-1	5.661756E-1	5.705293E-1	5.007621E-1	5.900965E-1	5.783674E-1	5.357315E-1	5.184657E-1	5.471755E-1	5.703894E-1	4.684880E-1	4.767052E-1	5.545324E-1	5.850935E-1	4.671554E-1	4.680891E-1	5.542104E-1	5.413936E-1	5.521193E-1	5.129225E-1	5.514473E-1	6.508435E-1	5.875259E-1	5.730804E-1	5.786516E-1	5.362146E-1	5.132744E-1	4.865030E-1	5.993488E-1	5.794407E-1	5.042686E-1	4.717130E-1	5.469045E-1	5.796823E-1	5.224795E-1	5.006828E-1	6.000406E-1	5.890804E-1	5.604593E-1	5.187269E-1	5.818659E-1	5.571006E-1	5.023103E-1	4.884509E-1	5.949223E-1	6.003298E-1	5.034118E-1	4.933719E-1	5.723570E-1	6.103942E-1	5.302566E-1	5.866119E-1	5.801174E-1	5.802770E-1	5.338351E-1	5.929744E-1	5.806346E-1	5.798499E-1	4.810786E-1	5.015420E-1	6.227768E-1	5.794608E-1	4.459014E-1	4.880060E-1	5.435423E-1	5.731865E-1	5.313221E-1	5.286825E-1	5.636391E-1	5.481724E-1	5.277622E-1	5.650888E-1	5.582897E-1	5.386830E-1	4.775427E-1	4.501520E-1	5.364851E-1	5.833175E-1	5.006666E-1	5.317713E-1	5.738382E-1	5.638674E-1	5.545239E-1	5.668554E-1	5.798769E-1	5.458623E-1	5.431420E-1	5.116607E-1	5.649830E-1	5.129917E-1	5.415807E-1	5.189130E-1	5.450046E-1	5.429913E-1	4.762411E-1	5.095113E-1	5.280216E-1	5.455110E-1	5.667669E-1	5.466944E-1	5.790712E-1	5.757915E-1	5.370981E-1	5.368611E-1	5.943467E-1	5.433037E-1	4.607847E-1	4.892087E-1	5.622423E-1	6.006091E-1	4.897902E-1	4.540940E-1
2.894050E+2	5.829539E-1	6.113370E-1	5.927488E-1	5.902004E-1	5.935512E-1	5.365753E-1	5.454234E-1	5.358847E-1	6.159689E-1	4.892447E-1	5.587461E-1	5.292050E-1	6.250174E-1	5.610917E-1	6.195570E-1	6.080122E-1	6.347136E-1	5.559269E-1	5.733942E-1	6.115170E-1	6.146212E-1	5.822361E-1	5.322407E-1	6.259504E-1	6.075274E-1	5.153123E-1	5.073636E-1	5.644852E-1	6.631669E-1	6.174793E-1	6.055820E-1	6.106998E-1	6.813865E-1	6.315495E-1	5.930209E-1	6.056623E-1	5.911022E-1	5.749269E-1	5.474261E-1	6.034483E-1	6.330659E-1	5.284386E-1	5.090628E-1	5.998535E-1	6.241358E-1	6.377434E-1	5.673114E-1	6.122492E-1	6.170099E-1	6.120282E-1	5.783336E-1	5.905917E-1	6.697595E-1	5.284679E-1	5.360959E-1	5.693639E-1	5.777591E-1	5.765719E-1	5.394356E-1	6.391323E-1	6.158913E-1	6.112074E-1	6.016821E-1	6.735336E-1	6.320021E-1	5.874649E-1	5.895055E-1	6.137765E-1	6.115260E-1	5.110857E-1	5.262946E-1	5.855141E-1	6.211202E-1	5.247305E-1	5.191465E-1	5.402354E-1	6.289462E-1	6.197548E-1	5.790932E-1	5.905077E-1	5.629773E-1	6.147418E-1	5.993236E-1	6.384113E-1	6.598121E-1	5.437564E-1	5.131277E-1	6.017905E-1	6.101914E-1	5.199112E-1	4.910406E-1	6.285179E-1	6.101594E-1	5.760474E-1	5.629615E-1	5.879406E-1	6.132431E-1	5.828241E-1	5.771095E-1	5.874881E-1	5.724217E-1	5.480089E-1	5.545537E-1	6.114144E-1	5.899532E-1	5.188446E-1	5.358466E-1	6.529597E-1	6.283134E-1	6.062946E-1	6.260549E-1	6.866760E-1	6.318133E-1	5.732675E-1	5.886652E-1	6.429294E-1	6.343327E-1	5.110526E-1	5.669175E-1	6.185742E-1	6.480777E-1	4.998187E-1	5.453341E-1	6.423679E-1	6.152468E-1	5.734507E-1	5.759691E-1	6.201457E-1	6.478409E-1	6.196314E-1	6.204627E-1	6.244103E-1	6.088318E-1	5.652741E-1	5.314108E-1	6.262524E-1	6.049341E-1	5.351798E-1	4.886425E-1	5.457165E-1	6.536373E-1	6.314295E-1	6.070307E-1	6.217659E-1	5.997006E-1	6.048336E-1	5.991796E-1	6.157995E-1	6.044420E-1	5.602039E-1	5.030658E-1	6.130560E-1	6.473041E-1	5.184464E-1	5.538525E-1	6.123741E-1	6.480394E-1	6.432687E-1	6.191489E-1	6.951141E-1	6.018335E-1	5.992797E-1	6.151250E-1	6.499063E-1	6.360795E-1	5.444946E-1	5.384665E-1	6.351388E-1	6.058297E-1	5.294699E-1	4.764267E-1
2.896030E+2	6.112012E-1	6.236710E-1	6.310566E-1	6.426047E-1	6.945270E-1	5.210462E-1	6.104937E-1	6.194061E-1	6.498154E-1	6.134821E-1	6.014093E-1	5.994301E-1	6.382277E-1	6.306984E-1	6.307542E-1	6.184948E-1	6.261191E-1	6.256770E-1	5.830105E-1	6.235501E-1	6.457826E-1	5.777197E-1	5.437542E-1	6.005559E-1	6.739484E-1	5.455722E-1	5.741490E-1	6.451589E-1	6.413572E-1	6.096054E-1	6.712991E-1	6.373559E-1	6.687265E-1	6.039597E-1	6.564667E-1	6.884207E-1	6.688687E-1	5.903332E-1	5.658273E-1	6.563750E-1	7.222980E-1	6.241522E-1	5.417257E-1	6.591957E-1	6.417297E-1	6.577131E-1	6.103614E-1	6.505796E-1	6.694910E-1	6.632491E-1	6.043495E-1	6.139954E-1	6.484260E-1	6.107359E-1	5.360956E-1	6.930847E-1	6.783239E-1	5.746971E-1	5.610243E-1	6.473135E-1	6.682696E-1	6.801108E-1	6.060701E-1	6.961468E-1	6.337904E-1	5.938316E-1	6.266398E-1	6.904128E-1	6.534394E-1	5.847299E-1	5.697707E-1	6.525015E-1	6.751609E-1	5.899247E-1	5.808721E-1	6.222197E-1	7.057778E-1	6.477986E-1	6.583549E-1	6.412886E-1	6.281357E-1	6.219998E-1	6.096623E-1	6.713219E-1	6.651097E-1	5.526782E-1	6.230410E-1	6.807545E-1	6.857519E-1	5.543245E-1	5.635196E-1	6.923075E-1	6.550263E-1	6.181363E-1	6.342530E-1	6.581187E-1	6.578514E-1	6.463391E-1	5.650628E-1	6.812056E-1	7.077605E-1	5.809715E-1	5.688261E-1	6.756484E-1	6.342917E-1	5.728630E-1	6.039670E-1	6.911944E-1	6.417531E-1	6.383993E-1	6.397079E-1	6.381621E-1	6.843402E-1	6.099502E-1	6.412484E-1	6.546666E-1	6.403864E-1	5.162979E-1	6.085854E-1	6.647995E-1	6.727788E-1	5.450394E-1	6.403343E-1	7.206458E-1	6.420119E-1	5.962703E-1	6.410850E-1	6.463523E-1	6.079733E-1	6.534772E-1	6.204626E-1	6.814729E-1	6.020709E-1	5.709597E-1	5.668691E-1	6.779111E-1	7.214800E-1	5.696949E-1	6.163024E-1	6.461477E-1	6.563301E-1	6.510487E-1	6.597616E-1	6.702258E-1	6.365899E-1	6.775753E-1	6.201477E-1	6.749305E-1	6.445052E-1	6.079753E-1	5.928688E-1	6.336303E-1	6.119281E-1	6.072538E-1	5.497462E-1	6.846779E-1	7.050927E-1	6.416233E-1	6.525895E-1	6.917978E-1	6.211223E-1	6.082906E-1	6.291956E-1	7.181384E-1	6.407656E-1	5.573147E-1	5.407757E-1	6.556402E-1	6.180120E-1	5.651816E-1	5.769230E-1
2.898050E+2	5.400974E-1	5.287980E-1	5.434956E-1	5.157873E-1	5.434877E-1	4.295058E-1	5.344257E-1	5.516069E-1	5.508793E-1	4.947658E-1	5.096423E-1	5.046273E-1	5.498833E-1	5.343205E-1	5.404330E-1	5.331337E-1	5.907842E-1	5.079743E-1	4.916521E-1	5.625268E-1	5.443102E-1	4.843812E-1	4.530015E-1	5.077044E-1	5.676751E-1	4.723121E-1	5.013602E-1	5.171933E-1	5.460418E-1	5.198481E-1	5.144267E-1	5.254020E-1	5.909568E-1	5.176329E-1	5.026098E-1	5.716881E-1	5.380108E-1	4.717078E-1	4.619934E-1	5.184439E-1	5.705205E-1	5.615356E-1	5.008973E-1	5.482951E-1	5.736463E-1	5.386920E-1	5.614742E-1	5.422541E-1	5.551566E-1	5.717824E-1	5.051661E-1	5.269337E-1	5.289593E-1	4.692352E-1	4.655219E-1	5.062419E-1	5.429492E-1	5.119090E-1	5.016543E-1	5.673219E-1	5.626247E-1	5.780007E-1	5.431771E-1	5.074402E-1	5.443984E-1	5.333440E-1	5.241170E-1	5.298405E-1	5.579699E-1	4.692095E-1	4.991223E-1	5.335984E-1	5.814916E-1	4.925559E-1	4.718993E-1	5.495512E-1	5.351404E-1	5.207755E-1	5.100131E-1	5.389471E-1	5.511310E-1	5.838975E-1	5.444514E-1	5.604635E-1	5.609347E-1	4.642045E-1	4.946946E-1	5.448069E-1	5.513248E-1	4.557785E-1	4.725188E-1	5.637896E-1	5.822223E-1	5.064086E-1	5.113359E-1	5.290558E-1	5.323909E-1	4.969436E-1	4.853656E-1	5.387557E-1	5.860411E-1	4.783373E-1	4.869487E-1	5.289519E-1	5.578788E-1	4.691153E-1	4.765414E-1	5.578901E-1	5.315463E-1	5.539130E-1	5.198632E-1	5.653897E-1	5.574830E-1	4.980701E-1	5.076326E-1	5.562573E-1	5.634185E-1	4.503560E-1	5.022604E-1	5.614234E-1	5.401216E-1	4.606856E-1	4.699886E-1	5.484341E-1	5.578916E-1	5.295668E-1	5.100774E-1	5.783798E-1	5.576646E-1	4.716736E-1	5.131762E-1	5.564784E-1	5.260061E-1	4.694193E-1	4.664041E-1	5.856034E-1	5.400830E-1	4.476330E-1	4.860556E-1	5.678117E-1	5.351410E-1	5.035150E-1	5.308646E-1	5.609853E-1	5.269188E-1	5.394589E-1	5.153084E-1	5.723747E-1	5.739582E-1	5.367219E-1	5.075939E-1	5.260142E-1	5.692962E-1	4.903092E-1	4.988367E-1	5.113362E-1	5.678358E-1	5.379762E-1	5.403240E-1	5.251938E-1	5.352838E-1	5.001504E-1	5.060821E-1	5.865487E-1	5.095668E-1	4.562600E-1	4.892089E-1	6.021077E-1	5.658046E-1	4.342396E-1	3.945407E-1
2.900030E+2	4.271104E-1	4.604894E-1	4.568469E-1	4.675754E-1	4.815443E-1	4.908053E-1	4.226139E-1	4.671028E-1	4.849206E-1	4.459913E-1	4.468559E-1	4.300132E-1	4.689696E-1	4.798837E-1	4.620551E-1	4.545119E-1	4.761850E-1	4.591493E-1	4.780285E-1	4.464978E-1	4.867838E-1	4.490021E-1	3.954337E-1	4.989750E-1	4.817709E-1	4.229405E-1	4.368261E-1	4.318832E-1	4.434570E-1	4.560725E-1	4.352838E-1	4.644751E-1	4.824414E-1	4.606733E-1	4.740598E-1	4.706352E-1	5.297855E-1	4.131652E-1	4.179628E-1	4.270244E-1	4.762850E-1	4.694002E-1	3.798952E-1	4.432331E-1	4.267681E-1	4.763856E-1	4.498360E-1	4.905909E-1	4.605023E-1	4.263497E-1	4.360624E-1	5.025936E-1	4.675198E-1	3.844992E-1	3.758934E-1	4.944587E-1	4.578567E-1	4.641156E-1	4.392011E-1	4.682424E-1	4.658580E-1	4.767208E-1	4.210494E-1	4.824878E-1	4.979136E-1	4.052061E-1	4.183652E-1	4.577660E-1	4.788014E-1	4.381636E-1	4.019815E-1	4.121832E-1	4.599014E-1	3.977283E-1	3.949328E-1	4.768833E-1	4.511611E-1	4.745847E-1	4.365695E-1	4.756681E-1	4.405600E-1	4.841052E-1	4.673120E-1	5.015692E-1	5.053151E-1	3.794487E-1	4.148199E-1	4.902654E-1	4.678580E-1	4.002477E-1	3.927921E-1	5.084423E-1	4.899477E-1	4.275876E-1	4.261128E-1	4.766241E-1	4.831360E-1	4.495303E-1	4.408839E-1	4.628453E-1	4.421900E-1	4.169063E-1	4.095774E-1	4.621143E-1	4.493931E-1	4.048087E-1	3.988041E-1	5.041550E-1	4.974992E-1	4.018373E-1	4.106379E-1	5.445978E-1	4.762144E-1	4.265411E-1	4.447035E-1	4.596550E-1	4.484002E-1	4.181341E-1	4.404766E-1	4.756969E-1	4.797392E-1	3.502426E-1	4.118413E-1	4.554789E-1	4.900222E-1	4.435551E-1	4.558143E-1	5.013990E-1	5.121029E-1	4.581353E-1	4.128122E-1	4.776770E-1	4.981162E-1	3.922488E-1	4.117390E-1	4.450249E-1	4.808694E-1	4.148017E-1	4.179122E-1	4.442820E-1	4.543484E-1	4.760491E-1	4.563721E-1	4.706367E-1	4.511465E-1	4.436989E-1	4.642556E-1	4.753613E-1	4.737986E-1	4.047435E-1	4.230739E-1	4.809095E-1	4.958241E-1	4.173293E-1	3.994801E-1	4.668417E-1	4.686145E-1	4.392651E-1	4.471691E-1	4.887242E-1	4.590900E-1	4.397718E-1	4.278174E-1	5.036958E-1	4.777041E-1	4.095026E-1	3.783792E-1	4.870671E-1	5.083741E-1	3.945606E-1	4.466500E-1
2.905220E+2	4.689936E-1	4.272837E-1	4.057688E-1	3.973541E-1	4.493001E-1	4.638335E-1	3.859554E-1	4.219036E-1	4.458670E-1	4.588746E-1	3.864830E-1	4.186019E-1	4.549336E-1	4.379418E-1	4.441405E-1	4.253089E-1	4.408499E-1	4.155556E-1	4.307464E-1	4.284491E-1	4.516277E-1	4.286789E-1	4.103340E-1	4.283450E-1	4.215495E-1	4.149774E-1	4.000566E-1	3.929377E-1	4.507268E-1	4.560724E-1	4.041925E-1	4.134478E-1	4.372274E-1	4.419845E-1	4.201308E-1	4.410162E-1	4.363160E-1	4.408961E-1	4.002190E-1	4.125899E-1	4.420930E-1	4.506150E-1	3.932574E-1	4.743626E-1	4.061134E-1	4.324512E-1	4.118930E-1	4.405942E-1	4.455076E-1	4.226917E-1	3.864707E-1	4.183403E-1	4.325335E-1	4.083573E-1	4.027113E-1	4.422781E-1	4.568890E-1	4.350644E-1	3.297132E-1	4.382459E-1	4.294595E-1	4.509861E-1	4.020353E-1	4.692312E-1	4.022646E-1	4.115730E-1	4.014120E-1	4.386075E-1	4.508588E-1	3.984532E-1	3.551090E-1	4.155328E-1	4.725113E-1	4.078882E-1	3.964569E-1	3.902414E-1	4.145322E-1	4.333438E-1	4.023938E-1	4.366068E-1	4.385852E-1	4.387450E-1	4.084629E-1	4.149620E-1	4.567592E-1	3.675539E-1	3.738588E-1	4.064177E-1	4.494069E-1	3.775666E-1	3.766860E-1	4.202627E-1	4.603174E-1	4.023338E-1	3.826823E-1	4.306458E-1	4.338817E-1	4.164309E-1	4.195691E-1	4.412903E-1	4.583626E-1	3.562246E-1	3.667604E-1	4.360741E-1	4.484501E-1	3.859459E-1	3.931948E-1	4.049513E-1	4.670346E-1	4.238041E-1	4.258082E-1	4.441037E-1	4.831519E-1	4.201213E-1	4.248772E-1	4.867397E-1	4.380228E-1	3.327090E-1	4.239527E-1	4.135032E-1	4.403997E-1	3.728532E-1	3.807202E-1	4.496087E-1	4.307562E-1	4.066923E-1	4.077514E-1	4.473482E-1	4.722357E-1	3.769039E-1	4.370385E-1	4.432577E-1	4.085291E-1	3.711286E-1	3.607681E-1	4.501057E-1	4.583123E-1	3.903898E-1	3.773722E-1	4.573374E-1	4.525534E-1	4.368114E-1	4.036408E-1	4.279267E-1	4.142570E-1	4.105508E-1	4.332605E-1	4.725903E-1	4.720571E-1	4.063632E-1	3.611919E-1	3.986149E-1	4.604478E-1	3.786408E-1	3.690985E-1	4.520101E-1	4.115619E-1	4.228135E-1	4.232826E-1	4.646869E-1	4.696990E-1	4.127366E-1	3.952810E-1	4.354647E-1	4.055448E-1	4.087481E-1	3.506714E-1	4.517586E-1	4.126595E-1	3.608330E-1	3.982633E-1
2.910040E+2	6.228902E-1	6.597224E-1	5.644736E-1	5.828636E-1	6.088249E-1	6.477320E-1	5.875817E-1	6.076148E-1	6.046862E-1	6.447720E-1	5.659900E-1	5.432498E-1	6.035502E-1	6.190973E-1	6.315002E-1	5.780601E-1	6.089296E-1	5.934179E-1	5.637780E-1	5.865919E-1	6.306008E-1	6.146035E-1	5.586534E-1	5.783348E-1	6.199264E-1	5.814058E-1	5.478852E-1	5.895215E-1	6.470115E-1	6.040944E-1	5.850905E-1	5.863292E-1	6.452152E-1	6.529087E-1	5.668499E-1	6.161159E-1	6.060571E-1	6.080498E-1	5.263966E-1	6.018442E-1	6.138849E-1	6.438313E-1	5.409837E-1	6.669775E-1	6.073058E-1	6.305539E-1	5.724188E-1	6.030832E-1	5.870203E-1	6.156865E-1	5.466271E-1	6.102513E-1	6.586665E-1	6.370617E-1	4.958686E-1	6.207039E-1	6.067686E-1	6.281137E-1	5.201596E-1	5.973186E-1	6.043497E-1	6.195086E-1	5.980257E-1	6.134893E-1	6.427300E-1	5.747302E-1	5.620588E-1	6.484452E-1	6.192878E-1	6.143323E-1	5.228981E-1	6.164957E-1	6.220212E-1	6.153246E-1	5.564867E-1	5.849543E-1	6.611082E-1	6.469743E-1	6.256322E-1	6.373818E-1	6.261628E-1	6.419581E-1	5.897809E-1	6.288840E-1	6.545148E-1	6.426388E-1	5.424836E-1	6.156297E-1	6.787230E-1	6.403574E-1	5.401646E-1	6.885545E-1	6.262431E-1	6.112496E-1	6.162251E-1	6.629581E-1	6.569222E-1	6.132396E-1	5.882309E-1	6.305982E-1	6.175341E-1	5.854664E-1	5.500471E-1	6.062060E-1	6.182542E-1	5.960127E-1	5.214212E-1	6.643275E-1	6.856565E-1	6.299504E-1	6.002657E-1	6.251663E-1	6.466800E-1	5.751024E-1	6.102151E-1	6.194565E-1	6.360629E-1	5.350314E-1	5.338702E-1	6.379047E-1	6.581404E-1	5.163418E-1	5.731787E-1	6.091003E-1	6.458361E-1	5.848602E-1	6.534880E-1	6.455326E-1	6.165165E-1	6.109274E-1	5.676842E-1	6.814739E-1	6.688382E-1	5.140966E-1	5.181140E-1	5.898375E-1	6.180933E-1	5.343389E-1	5.610985E-1	6.712561E-1	6.222178E-1	5.953311E-1	5.542998E-1	5.733063E-1	6.236290E-1	6.342988E-1	5.918867E-1	6.065602E-1	6.079259E-1	5.780173E-1	5.249507E-1	5.853614E-1	5.856236E-1	5.474630E-1	5.727381E-1	6.735545E-1	6.017364E-1	5.807510E-1	6.095944E-1	6.603004E-1	6.394470E-1	5.695401E-1	5.764330E-1	6.703758E-1	6.023424E-1	5.339366E-1	5.246126E-1	6.453897E-1	6.058297E-1	5.135979E-1	5.285357E-1
2.914980E+2	7.076295E-1	7.726215E-1	7.405087E-1	7.400755E-1	7.208324E-1	7.973034E-1	6.893113E-1	7.166839E-1	7.791287E-1	7.165533E-1	7.108840E-1	7.073992E-1	7.711582E-1	8.448724E-1	7.748198E-1	7.600153E-1	7.856039E-1	7.582006E-1	7.376786E-1	7.309839E-1	7.224851E-1	7.719237E-1	6.731098E-1	7.211819E-1	7.625090E-1	7.446494E-1	6.709500E-1	7.499417E-1	7.350566E-1	7.623515E-1	7.228829E-1	7.523566E-1	7.962325E-1	7.890748E-1	7.119816E-1	7.424316E-1	7.488784E-1	7.359179E-1	6.538884E-1	7.397749E-1	7.689985E-1	7.556467E-1	6.805445E-1	7.486928E-1	7.801932E-1	8.102850E-1	7.365925E-1	7.422400E-1	7.407165E-1	7.391666E-1	6.978422E-1	7.225880E-1	7.943469E-1	7.596409E-1	6.229015E-1	7.873477E-1	8.059632E-1	8.249117E-1	6.697407E-1	7.863883E-1	7.961090E-1	8.013142E-1	6.996769E-1	7.951782E-1	7.580452E-1	7.299284E-1	7.218970E-1	7.880329E-1	7.388180E-1	7.637854E-1	6.377014E-1	7.889886E-1	7.742338E-1	7.694214E-1	6.768914E-1	7.424003E-1	7.611669E-1	7.360559E-1	7.274348E-1	7.506592E-1	7.791855E-1	8.252133E-1	7.019118E-1	7.501355E-1	7.692842E-1	8.054586E-1	6.735597E-1	7.816977E-1	7.367106E-1	7.639314E-1	6.561305E-1	7.729830E-1	7.760841E-1	7.290989E-1	6.907944E-1	7.468487E-1	7.572890E-1	7.724763E-1	6.994362E-1	7.608651E-1	7.852177E-1	7.128237E-1	6.138968E-1	7.659232E-1	7.559836E-1	7.512063E-1	6.801012E-1	7.717975E-1	7.779436E-1	7.980782E-1	7.269370E-1	7.637794E-1	8.062443E-1	7.484234E-1	7.412456E-1	7.747436E-1	7.657828E-1	7.500939E-1	6.674955E-1	7.622920E-1	7.596927E-1	8.154938E-1	6.943869E-1	7.421722E-1	7.643689E-1	7.305546E-1	7.550388E-1	7.470824E-1	7.437118E-1	6.776536E-1	7.216915E-1	7.919765E-1	7.854699E-1	7.058046E-1	6.400010E-1	7.998585E-1	7.985512E-1	7.085940E-1	6.956577E-1	8.028213E-1	8.017585E-1	7.695454E-1	6.915669E-1	7.753589E-1	7.462610E-1	8.018804E-1	6.967261E-1	7.525411E-1	7.751485E-1	7.156643E-1	6.426749E-1	8.433238E-1	7.652220E-1	7.057334E-1	6.540299E-1	7.069256E-1	7.877769E-1	7.502058E-1	7.576889E-1	8.012092E-1	7.956927E-1	7.182340E-1	7.215296E-1	7.717491E-1	7.541590E-1	6.357472E-1	5.815667E-1	7.752363E-1	7.415708E-1	6.643801E-1	6.476427E-1
2.920030E+2	6.676946E-1	7.356206E-1	6.666290E-1	7.285473E-1	6.962239E-1	6.910509E-1	6.773969E-1	6.410236E-1	6.897377E-1	7.358799E-1	6.303879E-1	6.310299E-1	7.075826E-1	7.449241E-1	7.300324E-1	7.098463E-1	7.283034E-1	6.989141E-1	6.992120E-1	6.880105E-1	6.817358E-1	7.229956E-1	5.850666E-1	7.727668E-1	7.084864E-1	7.096121E-1	6.341804E-1	6.757590E-1	7.116311E-1	7.725874E-1	6.720053E-1	6.998069E-1	7.474003E-1	7.178772E-1	6.731208E-1	7.215243E-1	7.638338E-1	6.958623E-1	5.888281E-1	6.836400E-1	6.864380E-1	7.672755E-1	6.411996E-1	7.360465E-1	6.830394E-1	7.655519E-1	7.095953E-1	7.472398E-1	7.510244E-1	7.190443E-1	6.702009E-1	7.422476E-1	7.474126E-1	7.094573E-1	6.123151E-1	7.343243E-1	7.527802E-1	7.555641E-1	6.196228E-1	7.009429E-1	6.993414E-1	7.050151E-1	7.033341E-1	7.975177E-1	6.632898E-1	7.561922E-1	6.879917E-1	7.351174E-1	7.062197E-1	7.536776E-1	6.193605E-1	7.328870E-1	7.210945E-1	7.380941E-1	5.938278E-1	7.442647E-1	7.468725E-1	7.294575E-1	7.172547E-1	7.280036E-1	6.804612E-1	7.063693E-1	6.883924E-1	7.163583E-1	7.578073E-1	7.400333E-1	6.189448E-1	7.784407E-1	6.743291E-1	7.130940E-1	5.949266E-1	7.467165E-1	7.134395E-1	7.137937E-1	6.653921E-1	7.557221E-1	7.349853E-1	7.519006E-1	7.012902E-1	7.158807E-1	6.873318E-1	6.768635E-1	5.928640E-1	7.121051E-1	7.597572E-1	7.546357E-1	6.448396E-1	6.973946E-1	7.125365E-1	7.854054E-1	7.003883E-1	7.412560E-1	7.200201E-1	7.236633E-1	6.696953E-1	7.250873E-1	7.182187E-1	7.860615E-1	6.401952E-1	7.648134E-1	7.532875E-1	7.398362E-1	6.403346E-1	7.274954E-1	7.299562E-1	7.209003E-1	6.542638E-1	7.110492E-1	7.180831E-1	7.598514E-1	6.792956E-1	7.004943E-1	7.178573E-1	7.244878E-1	6.429563E-1	7.287233E-1	7.026830E-1	7.313232E-1	6.033641E-1	6.983718E-1	7.137831E-1	7.295225E-1	7.007742E-1	7.071867E-1	6.954135E-1	6.674470E-1	7.104003E-1	7.756392E-1	7.638265E-1	7.132348E-1	5.830579E-1	7.333330E-1	7.225900E-1	7.532156E-1	5.899815E-1	6.883859E-1	7.241098E-1	6.556075E-1	6.820489E-1	7.340703E-1	7.407179E-1	7.281472E-1	6.599731E-1	7.736987E-1	7.269815E-1	6.440418E-1	5.823367E-1	7.444826E-1	7.485320E-1	6.604124E-1	5.955334E-1
2.925000E+2	6.891230E-1	7.460575E-1	6.812224E-1	7.285462E-1	6.868906E-1	7.000413E-1	6.948104E-1	6.773800E-1	6.888695E-1	7.045896E-1	6.650009E-1	6.152304E-1	7.513417E-1	7.110140E-1	7.188357E-1	6.716588E-1	7.474032E-1	7.207106E-1	6.559370E-1	7.103564E-1	7.104995E-1	6.891236E-1	6.358605E-1	7.076911E-1	7.014022E-1	7.231494E-1	6.611951E-1	6.692675E-1	7.027461E-1	7.056622E-1	6.875515E-1	7.165618E-1	7.256972E-1	7.490265E-1	6.532941E-1	7.319785E-1	7.414009E-1	6.781460E-1	6.512597E-1	6.539698E-1	6.872722E-1	7.314943E-1	5.929483E-1	6.903252E-1	7.113438E-1	7.104344E-1	7.066763E-1	7.114091E-1	6.835492E-1	7.034949E-1	6.506893E-1	7.169709E-1	7.175459E-1	7.250890E-1	5.699714E-1	7.107590E-1	6.947617E-1	7.030843E-1	5.810707E-1	6.882175E-1	7.011165E-1	6.917327E-1	6.550672E-1	6.914678E-1	7.196069E-1	7.100311E-1	6.694251E-1	6.566566E-1	7.132045E-1	7.125240E-1	5.819982E-1	6.742721E-1	6.931739E-1	7.169264E-1	6.113541E-1	6.911611E-1	6.995242E-1	7.080115E-1	5.914557E-1	6.967548E-1	6.834225E-1	7.544514E-1	6.573779E-1	7.120287E-1	7.330884E-1	7.088068E-1	6.428386E-1	7.051763E-1	6.883870E-1	7.271724E-1	5.941210E-1	7.166982E-1	6.821164E-1	7.069064E-1	7.055448E-1	6.815110E-1	6.950243E-1	7.026985E-1	6.540269E-1	6.858918E-1	6.796710E-1	7.203147E-1	5.981221E-1	6.869334E-1	6.946660E-1	7.117648E-1	5.991586E-1	6.622604E-1	6.982007E-1	7.524546E-1	6.768752E-1	6.910074E-1	6.635281E-1	6.934015E-1	6.990049E-1	6.564721E-1	6.784377E-1	7.133754E-1	6.387580E-1	7.488450E-1	7.002258E-1	7.172260E-1	6.542570E-1	6.727008E-1	6.850280E-1	7.173888E-1	6.294577E-1	7.266091E-1	7.000479E-1	6.824887E-1	6.377659E-1	7.032114E-1	7.068703E-1	6.700625E-1	6.621628E-1	7.482007E-1	7.243003E-1	7.439494E-1	6.326914E-1	6.943548E-1	7.380213E-1	7.130432E-1	6.882190E-1	7.121149E-1	7.362916E-1	7.328209E-1	6.821393E-1	7.100399E-1	7.037306E-1	6.792285E-1	6.343738E-1	7.562804E-1	6.962852E-1	6.907852E-1	6.236481E-1	7.273184E-1	7.208023E-1	7.148342E-1	7.186749E-1	7.150065E-1	6.693457E-1	7.353559E-1	6.573356E-1	7.152142E-1	6.951195E-1	7.254902E-1	5.992685E-1	7.535948E-1	6.980643E-1	6.981069E-1	5.694787E-1
2.930050E+2	7.056818E-1	7.318260E-1	6.456508E-1	6.729982E-1	6.597366E-1	6.689821E-1	6.224085E-1	6.085978E-1	6.880016E-1	6.788224E-1	6.279723E-1	6.064522E-1	6.885926E-1	6.824566E-1	7.218215E-1	6.806437E-1	7.158885E-1	6.806041E-1	6.655538E-1	6.433175E-1	6.857313E-1	6.981561E-1	5.606849E-1	6.497591E-1	6.863470E-1	6.506852E-1	6.071664E-1	6.247575E-1	7.116309E-1	6.592089E-1	6.493930E-1	6.891441E-1	7.220801E-1	7.143180E-1	6.540878E-1	7.067149E-1	7.122383E-1	7.235934E-1	6.243153E-1	6.531676E-1	6.772643E-1	7.306006E-1	6.025978E-1	6.757325E-1	6.937492E-1	6.840742E-1	6.358996E-1	7.314074E-1	6.854230E-1	7.016653E-1	6.238611E-1	6.851424E-1	7.090131E-1	7.201523E-1	5.727937E-1	6.897181E-1	6.551171E-1	7.049593E-1	5.903235E-1	6.927621E-1	6.904638E-1	6.967138E-1	6.543358E-1	7.000453E-1	6.883189E-1	6.726245E-1	6.831486E-1	6.685168E-1	6.860386E-1	7.067484E-1	6.010190E-1	6.181703E-1	7.093859E-1	7.033797E-1	5.785871E-1	6.846393E-1	7.379396E-1	7.129602E-1	6.183605E-1	6.873802E-1	6.863837E-1	6.827823E-1	5.865996E-1	7.475368E-1	7.401506E-1	7.169856E-1	5.827617E-1	6.921510E-1	6.936589E-1	6.810270E-1	5.772098E-1	7.429647E-1	6.617989E-1	6.908361E-1	6.317946E-1	6.944173E-1	6.504160E-1	7.000147E-1	6.475397E-1	6.933886E-1	6.720100E-1	6.626294E-1	5.830988E-1	6.851956E-1	6.833458E-1	6.911866E-1	6.111794E-1	6.746612E-1	7.044722E-1	7.119020E-1	6.639802E-1	6.866761E-1	6.952426E-1	6.713917E-1	6.386622E-1	7.395329E-1	7.052470E-1	6.774072E-1	6.330115E-1	7.421208E-1	6.892462E-1	7.502717E-1	6.182224E-1	6.863989E-1	6.659092E-1	7.305541E-1	6.643407E-1	6.717396E-1	6.772661E-1	6.853901E-1	6.749702E-1	6.959649E-1	6.958833E-1	7.041800E-1	5.557877E-1	6.838396E-1	7.252394E-1	7.102775E-1	6.275164E-1	7.325187E-1	7.110902E-1	7.240296E-1	6.430219E-1	6.381932E-1	6.964109E-1	7.484754E-1	6.338218E-1	6.989531E-1	6.985052E-1	6.954223E-1	6.253182E-1	6.684471E-1	6.672593E-1	7.057337E-1	6.055831E-1	6.726280E-1	7.067460E-1	6.819299E-1	6.502012E-1	7.688828E-1	7.542200E-1	7.083207E-1	6.054518E-1	7.191127E-1	6.557599E-1	7.262446E-1	5.877239E-1	6.431120E-1	6.023487E-1	6.504907E-1	5.880893E-1
2.935090E+2	6.745138E-1	7.308771E-1	6.611556E-1	6.499410E-1	6.656768E-1	6.665305E-1	5.939969E-1	6.537975E-1	6.984155E-1	7.248364E-1	6.633907E-1	6.942323E-1	6.869412E-1	7.038748E-1	7.046531E-1	7.180834E-1	6.557233E-1	7.006576E-1	6.294911E-1	7.146541E-1	7.033095E-1	7.079417E-1	6.365375E-1	6.941996E-1	7.625089E-1	6.506854E-1	6.281775E-1	6.395949E-1	6.833599E-1	7.174721E-1	6.536330E-1	6.853365E-1	7.021855E-1	7.169872E-1	6.651911E-1	6.831938E-1	6.890577E-1	6.527266E-1	6.138003E-1	6.411389E-1	7.289694E-1	6.653000E-1	5.892362E-1	7.000527E-1	6.991044E-1	7.000499E-1	6.534112E-1	7.072429E-1	7.191608E-1	6.797133E-1	6.262999E-1	6.682913E-1	7.593592E-1	7.209746E-1	6.052582E-1	6.905598E-1	7.141022E-1	7.330734E-1	5.641080E-1	6.682195E-1	6.753714E-1	7.033550E-1	6.609182E-1	7.070634E-1	6.445177E-1	6.917262E-1	6.524729E-1	6.940619E-1	6.813817E-1	6.959175E-1	5.874330E-1	6.516641E-1	7.418101E-1	7.076133E-1	5.999247E-1	7.023409E-1	7.048840E-1	7.047118E-1	5.834568E-1	7.053485E-1	6.972437E-1	7.326783E-1	6.454487E-1	7.215552E-1	7.269081E-1	7.467237E-1	5.861753E-1	7.068039E-1	6.796024E-1	6.818096E-1	5.876784E-1	7.082552E-1	7.024339E-1	6.632872E-1	6.481845E-1	6.919972E-1	6.968826E-1	7.313255E-1	6.271527E-1	6.633994E-1	7.162723E-1	6.768634E-1	5.823475E-1	6.678355E-1	6.899490E-1	7.331992E-1	5.967542E-1	6.725951E-1	7.089524E-1	7.372480E-1	6.890108E-1	7.455876E-1	6.932608E-1	6.961525E-1	6.317662E-1	6.971001E-1	6.810325E-1	7.006362E-1	6.136148E-1	7.320356E-1	7.194370E-1	7.215742E-1	6.133082E-1	6.717218E-1	6.735568E-1	6.682389E-1	6.178296E-1	6.799291E-1	6.905549E-1	6.950607E-1	6.628577E-1	7.050227E-1	6.553149E-1	7.309866E-1	5.971556E-1	6.584335E-1	7.421572E-1	6.665030E-1	6.361408E-1	6.973683E-1	6.491493E-1	6.698819E-1	6.823603E-1	7.178646E-1	7.063811E-1	7.392663E-1	6.657300E-1	7.266708E-1	7.228909E-1	6.792286E-1	5.906044E-1	6.898117E-1	7.262181E-1	6.520971E-1	5.998353E-1	7.041442E-1	6.554817E-1	6.868653E-1	6.820488E-1	7.017441E-1	7.117827E-1	6.957040E-1	6.564565E-1	6.879212E-1	7.016790E-1	7.541477E-1	6.138922E-1	7.125915E-1	6.980640E-1	6.425567E-1	4.987590E-1
2.940070E+2	6.462666E-1	7.156974E-1	6.848703E-1	6.939601E-1	7.496820E-1	7.049456E-1	6.508195E-1	6.695187E-1	7.114341E-1	7.211553E-1	6.633907E-1	6.556091E-1	7.001511E-1	7.306466E-1	7.270464E-1	7.240740E-1	7.244833E-1	7.268133E-1	6.711630E-1	6.691018E-1	7.144953E-1	6.876181E-1	6.033527E-1	6.672176E-1	7.465679E-1	7.207605E-1	6.101676E-1	6.720500E-1	7.116318E-1	7.269205E-1	6.727119E-1	6.967600E-1	7.636779E-1	7.792856E-1	6.953279E-1	7.162977E-1	7.122387E-1	7.205120E-1	6.157726E-1	6.579787E-1	6.906075E-1	7.484902E-1	6.137335E-1	7.671753E-1	7.067541E-1	7.304042E-1	7.110544E-1	7.447402E-1	6.816746E-1	7.519728E-1	6.864610E-1	6.963759E-1	7.875194E-1	6.913583E-1	6.059631E-1	7.402160E-1	7.653510E-1	7.761812E-1	6.234783E-1	7.391210E-1	7.277509E-1	7.523344E-1	7.223480E-1	7.226590E-1	7.365916E-1	7.100316E-1	7.194754E-1	7.570140E-1	7.698652E-1	7.688396E-1	6.451741E-1	7.194891E-1	7.274000E-1	7.634936E-1	6.220234E-1	7.060669E-1	7.147117E-1	7.368805E-1	7.048932E-1	7.209727E-1	7.485805E-1	7.526373E-1	6.852117E-1	7.284841E-1	7.233768E-1	7.192157E-1	6.230405E-1	7.719286E-1	7.665834E-1	7.115300E-1	6.432452E-1	7.504691E-1	7.244447E-1	6.916016E-1	6.948927E-1	7.315230E-1	6.885188E-1	7.545852E-1	6.948026E-1	7.177555E-1	6.873318E-1	7.555253E-1	6.018787E-1	7.173135E-1	7.578713E-1	7.494913E-1	6.448392E-1	7.180618E-1	6.990972E-1	7.406271E-1	6.950792E-1	7.611810E-1	7.279489E-1	7.245812E-1	6.972815E-1	7.404359E-1	7.355140E-1	6.991381E-1	6.179246E-1	7.337169E-1	7.981163E-1	7.520113E-1	6.419721E-1	7.627202E-1	7.452507E-1	7.419642E-1	6.775199E-1	7.560916E-1	7.342193E-1	7.772589E-1	7.035223E-1	7.167980E-1	7.677218E-1	7.131156E-1	6.038044E-1	7.083983E-1	7.440380E-1	7.161692E-1	6.197525E-1	7.425618E-1	7.030110E-1	7.577744E-1	6.731536E-1	7.359341E-1	7.033901E-1	7.254556E-1	6.903436E-1	7.497689E-1	7.594715E-1	6.857059E-1	6.675783E-1	7.159250E-1	7.207762E-1	7.294746E-1	6.589578E-1	6.837511E-1	7.232827E-1	7.197698E-1	7.393755E-1	7.357285E-1	7.011730E-1	7.479724E-1	6.977866E-1	7.853956E-1	7.185475E-1	7.209649E-1	6.131223E-1	7.444828E-1	6.876227E-1	7.953212E-1	6.439204E-1
2.945040E+2	7.573047E-1	7.821092E-1	7.414206E-1	7.337874E-1	7.641067E-1	7.785043E-1	7.708784E-1	6.822929E-1	8.034279E-1	7.984587E-1	7.994305E-1	6.924768E-1	7.860192E-1	7.931140E-1	7.830302E-1	7.645076E-1	8.037477E-1	7.433793E-1	7.360759E-1	7.421576E-1	7.848059E-1	7.568681E-1	7.984028E-1	7.219762E-1	8.059037E-1	7.223531E-1	7.685025E-1	7.304686E-1	7.940220E-1	7.450301E-1	7.214702E-1	7.447403E-1	7.202712E-1	7.463563E-1	7.286358E-1	8.112523E-1	7.795366E-1	7.844469E-1	6.466593E-1	7.285486E-1	7.931825E-1	8.137903E-1	6.760903E-1	7.642573E-1	7.319986E-1	7.655516E-1	7.300258E-1	7.397407E-1	7.285331E-1	7.803270E-1	6.929646E-1	7.750127E-1	7.499733E-1	7.653991E-1	6.525419E-1	7.461073E-1	7.421437E-1	7.546270E-1	6.859321E-1	7.854794E-1	7.668121E-1	8.096158E-1	6.996772E-1	7.655467E-1	7.982716E-1	8.055385E-1	7.283558E-1	7.980690E-1	8.102258E-1	7.767819E-1	6.241152E-1	7.638686E-1	7.661275E-1	7.745008E-1	6.578396E-1	7.628972E-1	8.192382E-1	7.451286E-1	7.143467E-1	7.873767E-1	7.752360E-1	7.553575E-1	7.289501E-1	7.484031E-1	8.019496E-1	8.024843E-1	6.913100E-1	7.694861E-1	7.903058E-1	7.873946E-1	6.577412E-1	7.973736E-1	7.989418E-1	7.444043E-1	7.022670E-1	8.057339E-1	7.340563E-1	8.037871E-1	6.790484E-1	7.992893E-1	7.979854E-1	7.555251E-1	6.732399E-1	7.667912E-1	7.739083E-1	7.400594E-1	6.881154E-1	7.325289E-1	8.254311E-1	8.065266E-1	7.838245E-1	7.707111E-1	7.705651E-1	7.484230E-1	7.550374E-1	7.964113E-1	7.830797E-1	7.643309E-1	6.825817E-1	7.833027E-1	8.520951E-1	7.537505E-1	6.755502E-1	8.087087E-1	7.490741E-1	7.867253E-1	7.263565E-1	7.970376E-1	7.607975E-1	7.559839E-1	7.935036E-1	7.611811E-1	7.930774E-1	7.756640E-1	6.244886E-1	8.032464E-1	7.891517E-1	7.574183E-1	6.542555E-1	7.957902E-1	7.873950E-1	7.648369E-1	7.350910E-1	7.564676E-1	7.253237E-1	8.175330E-1	7.696577E-1	7.830304E-1	7.490200E-1	7.990633E-1	6.804070E-1	7.998020E-1	8.078535E-1	7.453009E-1	6.893391E-1	7.653242E-1	7.662786E-1	7.633668E-1	7.338025E-1	8.144712E-1	7.542200E-1	8.209671E-1	7.048226E-1	8.331572E-1	7.682154E-1	8.144793E-1	6.485262E-1	8.094065E-1	7.572330E-1	7.179459E-1	6.662531E-1
2.950070E+2	8.556817E-1	8.760332E-1	9.037740E-1	8.616526E-1	8.761142E-1	8.479771E-1	9.376789E-1	8.041355E-1	8.502931E-1	8.536759E-1	8.799265E-1	8.645262E-1	8.561998E-1	8.966311E-1	8.778306E-1	8.618496E-1	8.476777E-1	8.506189E-1	8.779215E-1	8.203694E-1	8.375392E-1	8.818217E-1	8.898326E-1	8.402227E-1	8.926935E-1	8.298550E-1	8.577992E-1	8.241245E-1	9.079164E-1	9.182472E-1	9.094338E-1	8.292767E-1	8.532033E-1	9.038824E-1	9.150094E-1	8.870417E-1	8.617895E-1	8.545431E-1	8.871858E-1	8.640743E-1	9.241112E-1	9.273944E-1	8.416338E-1	8.381910E-1	8.176780E-1	8.701945E-1	8.365558E-1	8.405667E-1	7.969457E-1	8.754529E-1	8.441784E-1	8.611382E-1	8.993057E-1	8.410854E-1	7.901604E-1	8.614114E-1	8.436746E-1	8.727058E-1	7.645773E-1	9.109192E-1	9.257229E-1	9.158770E-1	8.503261E-1	8.965492E-1	8.447554E-1	8.604540E-1	8.599402E-1	9.002508E-1	8.847382E-1	8.547580E-1	7.450324E-1	8.476030E-1	8.507898E-1	8.523957E-1	7.340447E-1	8.523343E-1	8.719471E-1	9.133934E-1	8.285108E-1	8.319063E-1	8.976552E-1	9.331693E-1	8.005233E-1	8.367432E-1	8.399115E-1	8.768319E-1	7.711845E-1	8.769421E-1	8.693804E-1	9.227012E-1	6.988121E-1	8.480293E-1	8.539681E-1	8.630194E-1	7.850311E-1	8.767185E-1	8.911129E-1	8.789319E-1	8.245423E-1	8.002261E-1	8.771461E-1	8.738926E-1	7.476061E-1	8.275523E-1	8.550371E-1	8.918225E-1	7.730666E-1	9.340366E-1	8.827743E-1	8.969268E-1	8.369201E-1	9.145223E-1	8.597625E-1	8.731415E-1	8.188277E-1	8.704436E-1	8.868553E-1	8.594971E-1	7.537050E-1	9.076903E-1	9.133915E-1	8.207115E-1	7.599040E-1	9.036212E-1	8.905489E-1	8.604501E-1	8.519381E-1	8.363477E-1	9.145710E-1	8.188406E-1	8.073468E-1	8.608145E-1	8.691409E-1	9.267561E-1	7.485912E-1	8.676076E-1	9.235558E-1	8.820063E-1	7.974409E-1	8.801529E-1	8.690852E-1	8.801952E-1	7.886594E-1	8.870639E-1	8.060822E-1	8.525228E-1	8.425894E-1	8.449337E-1	7.943097E-1	9.059413E-1	7.581363E-1	8.631056E-1	8.595563E-1	8.508151E-1	7.427126E-1	8.506048E-1	8.522706E-1	8.900463E-1	8.412903E-1	8.642034E-1	8.776719E-1	8.236703E-1	7.654986E-1	9.705957E-1	8.750488E-1	9.102562E-1	7.108679E-1	8.754686E-1	9.016749E-1	8.568243E-1	7.890817E-1
2.955050E+2	8.926947E-1	8.760329E-1	9.028615E-1	9.454991E-1	9.041151E-1	8.733140E-1	9.074347E-1	8.709516E-1	9.119113E-1	8.941678E-1	8.485322E-1	7.872799E-1	8.925277E-1	9.269727E-1	9.435186E-1	8.566087E-1	8.820582E-1	8.706725E-1	8.378525E-1	9.054575E-1	8.679002E-1	8.998875E-1	8.661291E-1	8.426026E-1	9.183766E-1	8.680777E-1	8.848135E-1	8.231977E-1	8.586425E-1	8.914774E-1	8.854079E-1	8.490789E-1	9.481543E-1	9.199015E-1	9.039063E-1	8.757164E-1	8.887091E-1	9.123141E-1	9.174151E-1	8.696876E-1	8.090278E-1	8.674621E-1	8.616768E-1	8.858584E-1	8.773469E-1	9.189216E-1	8.883619E-1	8.980635E-1	8.709830E-1	8.836845E-1	8.661288E-1	8.817332E-1	8.873589E-1	9.217077E-1	8.826123E-1	9.228508E-1	8.581796E-1	8.445914E-1	9.326628E-1	8.691063E-1	9.026405E-1	9.524037E-1	8.598326E-1	9.183835E-1	8.760424E-1	8.333942E-1	9.293637E-1	9.358319E-1	8.645582E-1	8.612560E-1	8.401358E-1	8.660246E-1	9.147371E-1	8.744095E-1	8.658792E-1	8.448818E-1	8.862423E-1	8.416336E-1	8.365094E-1	8.740929E-1	8.581652E-1	8.914385E-1	8.402857E-1	8.800478E-1	8.911160E-1	9.266439E-1	8.162426E-1	9.111325E-1	9.054038E-1	8.929808E-1	8.043081E-1	8.780485E-1	8.480424E-1	8.576624E-1	8.022399E-1	9.259236E-1	8.678800E-1	9.218731E-1	8.115681E-1	8.161586E-1	8.439500E-1	8.903734E-1	7.476059E-1	8.631418E-1	9.069212E-1	9.492691E-1	7.874915E-1	9.361041E-1	9.042776E-1	9.079098E-1	8.285766E-1	8.790024E-1	8.577799E-1	8.823132E-1	8.265871E-1	8.596103E-1	8.773428E-1	8.804793E-1	7.996827E-1	8.984449E-1	8.941789E-1	9.302856E-1	8.401632E-1	8.302343E-1	8.475318E-1	8.946788E-1	8.689926E-1	8.609153E-1	9.012816E-1	9.097420E-1	8.082129E-1	9.323699E-1	8.902701E-1	9.080731E-1	7.958693E-1	8.777706E-1	9.066382E-1	8.702211E-1	7.862278E-1	8.942134E-1	9.139704E-1	8.998142E-1	8.179533E-1	8.648865E-1	8.958127E-1	8.589683E-1	8.252673E-1	9.022173E-1	9.101464E-1	8.946059E-1	7.362515E-1	8.417410E-1	8.423223E-1	8.877454E-1	7.640624E-1	8.552391E-1	9.010542E-1	9.056762E-1	8.627878E-1	8.932139E-1	8.757429E-1	8.948631E-1	8.402460E-1	9.238085E-1	8.722377E-1	9.517345E-1	7.401145E-1	8.709131E-1	8.616495E-1	9.123761E-1	7.779154E-1
2.960060E+2	8.732147E-1	8.969047E-1	8.590805E-1	8.700378E-1	8.642344E-1	8.332653E-1	9.166001E-1	8.797959E-1	8.294640E-1	8.757622E-1	9.072953E-1	8.022019E-1	8.471172E-1	8.805682E-1	8.397614E-1	8.925496E-1	9.212119E-1	8.593371E-1	9.292108E-1	8.435755E-1	9.046539E-1	8.690251E-1	8.600336E-1	8.410156E-1	8.829522E-1	8.386140E-1	8.885656E-1	9.149987E-1	8.594513E-1	8.812418E-1	9.051938E-1	8.650715E-1	9.029388E-1	9.261316E-1	9.395936E-1	8.661346E-1	9.141325E-1	8.714898E-1	9.088718E-1	8.552518E-1	8.348799E-1	9.336563E-1	8.691001E-1	8.946121E-1	8.895857E-1	9.356966E-1	9.095222E-1	8.239011E-1	8.803548E-1	8.791107E-1	8.685678E-1	9.416463E-1	9.104002E-1	9.225304E-1	9.073133E-1	8.950766E-1	8.717166E-1	9.589224E-1	9.288080E-1	8.236568E-1	9.203960E-1	9.125558E-1	9.154129E-1	9.082459E-1	8.992851E-1	8.397607E-1	8.873867E-1	9.349200E-1	8.614535E-1	9.312898E-1	8.951600E-1	8.509524E-1	8.913190E-1	8.820288E-1	9.085535E-1	8.309063E-1	9.058965E-1	9.241159E-1	8.968636E-1	8.912800E-1	8.808719E-1	9.068605E-1	9.110637E-1	9.086286E-1	8.346151E-1	9.407699E-1	8.920212E-1	9.111328E-1	8.764089E-1	8.890697E-1	8.630963E-1	8.705445E-1	9.073018E-1	9.234742E-1	8.972958E-1	8.936574E-1	9.059820E-1	9.173999E-1	8.801448E-1	8.320909E-1	8.737407E-1	8.963671E-1	8.084500E-1	9.004662E-1	8.993747E-1	9.003965E-1	8.099313E-1	9.557366E-1	8.765025E-1	8.960820E-1	9.067032E-1	9.448440E-1	8.538154E-1	8.933161E-1	9.024457E-1	9.246136E-1	9.136646E-1	9.127003E-1	7.335887E-1	9.665222E-1	8.703926E-1	8.807156E-1	8.180519E-1	8.869856E-1	8.991512E-1	9.139878E-1	8.356592E-1	9.575515E-1	9.079262E-1	9.232817E-1	8.635857E-1	8.879877E-1	9.063271E-1	9.291922E-1	7.818337E-1	9.040223E-1	9.216757E-1	8.474921E-1	7.465493E-1	8.500229E-1	8.816540E-1	8.786255E-1	8.832389E-1	9.240241E-1	8.499504E-1	8.635713E-1	8.763198E-1	9.317823E-1	8.970826E-1	9.367101E-1	8.011504E-1	8.211668E-1	9.021884E-1	8.982968E-1	7.476388E-1	9.043682E-1	8.754222E-1	8.859337E-1	8.540291E-1	9.313419E-1	8.641700E-1	8.281771E-1	8.033126E-1	8.818946E-1	8.497460E-1	9.132732E-1	7.508894E-1	9.085004E-1	9.678061E-1	9.103906E-1	7.965267E-1
2.965090E+2	7.865252E-1	7.972875E-1	7.578387E-1	7.914321E-1	7.827750E-1	7.082142E-1	8.038719E-1	7.274924E-1	7.921458E-1	8.095021E-1	7.656211E-1	7.021327E-1	7.521676E-1	7.511716E-1	8.151284E-1	7.997003E-1	8.152082E-1	7.791260E-1	7.801521E-1	7.842709E-1	8.039814E-1	8.133237E-1	7.746988E-1	7.592754E-1	8.289295E-1	7.223531E-1	8.007689E-1	7.072878E-1	7.827138E-1	7.221962E-1	7.575076E-1	7.394094E-1	8.107009E-1	7.810658E-1	8.023917E-1	7.528857E-1	7.683201E-1	7.474730E-1	7.656081E-1	7.750601E-1	7.639948E-1	7.959000E-1	7.815036E-1	7.448022E-1	7.664237E-1	7.695462E-1	7.738054E-1	7.722384E-1	7.566484E-1	8.297187E-1	7.815796E-1	7.778209E-1	7.576531E-1	8.476676E-1	7.661659E-1	7.654648E-1	8.011277E-1	8.258485E-1	8.092964E-1	7.718449E-1	7.810170E-1	8.029745E-1	7.786578E-1	7.546299E-1	7.946963E-1	8.174761E-1	7.993945E-1	7.679619E-1	8.009122E-1	8.013297E-1	7.932637E-1	7.111153E-1	8.030547E-1	7.406333E-1	7.759578E-1	7.694192E-1	8.379991E-1	7.113110E-1	7.201638E-1	8.147199E-1	7.821480E-1	8.097902E-1	8.045002E-1	7.674566E-1	7.754639E-1	8.210717E-1	7.793775E-1	8.175158E-1	7.806410E-1	7.873952E-1	7.326352E-1	7.879921E-1	7.769317E-1	7.352212E-1	7.719198E-1	7.944406E-1	7.888872E-1	7.876847E-1	8.180553E-1	7.739847E-1	7.639382E-1	7.495323E-1	8.031922E-1	8.032484E-1	7.908886E-1	7.734986E-1	7.666548E-1	7.934981E-1	7.806320E-1	8.318728E-1	7.883756E-1	8.148936E-1	7.874137E-1	7.731846E-1	8.438280E-1	7.783544E-1	7.614591E-1	7.231172E-1	7.673545E-1	7.858250E-1	8.237341E-1	7.946227E-1	7.377924E-1	7.470644E-1	7.509854E-1	7.928693E-1	7.728679E-1	8.338904E-1	7.541529E-1	7.530826E-1	7.511086E-1	7.575565E-1	7.161670E-1	7.902864E-1	7.212591E-1	7.939312E-1	7.242997E-1	7.397410E-1	7.232601E-1	7.686731E-1	7.676455E-1	7.177515E-1	7.618753E-1	7.655036E-1	7.681954E-1	7.733355E-1	7.231638E-1	7.663998E-1	7.821167E-1	7.634357E-1	6.456941E-1	8.132540E-1	7.815488E-1	7.804726E-1	6.786638E-1	7.922062E-1	7.943915E-1	7.781739E-1	7.497271E-1	8.012091E-1	7.889407E-1	8.038452E-1	7.646193E-1	8.117137E-1	7.316671E-1	7.895932E-1	6.223586E-1	8.230747E-1	7.815966E-1	6.862029E-1	5.918109E-1
2.970020E+2	7.349030E-1	7.896989E-1	7.997949E-1	8.606046E-1	8.311414E-1	7.932167E-1	8.139535E-1	8.159260E-1	7.878064E-1	7.920171E-1	8.002345E-1	6.942321E-1	8.495936E-1	8.332718E-1	8.188605E-1	7.787346E-1	8.438575E-1	8.628249E-1	8.154133E-1	7.971634E-1	7.848058E-1	7.922470E-1	8.031438E-1	8.021294E-1	8.289292E-1	7.852623E-1	8.698060E-1	8.111430E-1	8.150239E-1	8.095926E-1	7.970792E-1	7.858662E-1	8.685764E-1	8.442547E-1	7.873235E-1	7.912163E-1	8.161764E-1	8.114066E-1	8.116101E-1	8.087412E-1	7.906807E-1	8.549392E-1	8.230748E-1	8.372173E-1	7.870781E-1	8.366454E-1	8.073695E-1	8.289010E-1	7.922608E-1	8.452682E-1	8.189759E-1	7.918634E-1	8.062928E-1	8.715253E-1	7.880439E-1	7.873466E-1	8.175660E-1	8.530258E-1	8.170075E-1	8.218392E-1	8.502618E-1	8.444824E-1	8.086413E-1	8.505425E-1	8.796185E-1	8.230476E-1	8.696271E-1	7.925948E-1	7.877173E-1	8.410397E-1	7.980188E-1	8.283443E-1	8.471874E-1	7.651873E-1	8.102496E-1	7.750085E-1	8.219179E-1	8.490559E-1	7.921521E-1	8.061265E-1	7.752371E-1	8.633151E-1	8.625538E-1	8.263503E-1	8.522709E-1	8.195844E-1	8.387710E-1	8.085610E-1	8.324796E-1	8.163336E-1	7.833703E-1	8.302057E-1	8.387306E-1	8.186344E-1	7.997817E-1	8.242862E-1	7.879570E-1	8.189949E-1	8.328826E-1	7.880423E-1	8.260748E-1	8.386819E-1	7.671364E-1	8.232122E-1	8.673004E-1	8.360905E-1	8.347752E-1	8.296666E-1	8.397677E-1	8.774957E-1	8.695370E-1	8.538788E-1	8.221010E-1	8.153678E-1	8.826191E-1	7.891878E-1	8.453454E-1	8.864733E-1	7.960906E-1	8.110379E-1	8.603284E-1	8.337563E-1	8.311543E-1	8.116437E-1	7.681913E-1	7.937466E-1	8.519383E-1	8.543638E-1	7.693408E-1	7.724238E-1	8.384944E-1	8.146210E-1	8.530827E-1	8.374003E-1	8.497952E-1	7.600569E-1	8.652823E-1	8.163450E-1	8.690334E-1	8.068378E-1	8.439498E-1	8.346793E-1	7.970294E-1	8.295685E-1	8.120640E-1	8.276614E-1	8.425892E-1	7.987377E-1	8.779213E-1	8.460245E-1	7.853034E-1	8.077149E-1	8.114819E-1	8.253165E-1	8.437116E-1	8.181603E-1	8.043135E-1	8.077874E-1	8.747297E-1	8.467973E-1	8.738141E-1	7.957347E-1	8.209003E-1	8.243845E-1	8.178840E-1	8.280539E-1	6.993237E-1	7.797919E-1	8.198820E-1	8.865847E-1	7.518608E-1
2.975040E+2	9.764608E-1	1.020239E+0	9.849502E-1	9.517883E-1	9.465424E-1	9.158148E-1	9.816698E-1	9.073079E-1	9.474939E-1	9.852749E-1	1.015160E+0	9.645952E-1	1.003991E+0	9.903324E-1	1.022643E+0	9.172593E-1	1.017668E+0	9.822724E-1	9.652733E-1	9.673404E-1	9.693724E-1	1.003763E+0	9.778761E-1	9.425964E-1	9.901108E-1	9.700055E-1	9.936216E-1	9.826905E-1	9.975762E-1	9.599763E-1	1.002002E+0	9.633168E-1	9.888468E-1	9.937702E-1	1.049039E+0	9.375679E-1	1.012836E+0	9.801007E-1	9.647310E-1	9.723339E-1	1.060043E+0	9.703321E-1	9.782242E-1	9.617366E-1	9.836799E-1	1.018772E+0	1.000000E+0	1.003055E+0	1.022804E+0	9.888715E-1	1.005962E+0	1.012795E+0	1.006827E+0	1.002331E+0	9.983536E-1	9.464162E-1	9.655116E-1	9.570477E-1	1.028271E+0	1.033632E+0	9.789892E-1	9.739877E-1	9.951247E-1	9.721881E-1	9.725867E-1	9.949596E-1	9.834516E-1	9.367445E-1	9.662360E-1	1.004934E+0	9.889046E-1	9.531086E-1	1.019214E+0	9.997185E-1	9.977138E-1	9.846280E-1	9.684335E-1	9.884522E-1	9.615816E-1	1.008464E+0	9.983547E-1	9.739935E-1	9.874087E-1	1.020353E+0	9.776350E-1	9.675352E-1	1.016271E+0	1.011261E+0	1.005564E+0	1.007951E+0	9.871145E-1	9.727958E-1	9.809520E-1	9.931132E-1	9.472823E-1	1.002554E+0	1.013784E+0	9.236622E-1	9.978372E-1	9.848489E-1	9.724780E-1	9.682851E-1	9.496712E-1	9.751162E-1	9.880504E-1	9.758497E-1	1.018299E+0	9.330032E-1	9.911891E-1	1.003380E+0	9.605570E-1	1.006354E+0	1.012388E+0	9.758509E-1	9.395129E-1	9.769778E-1	1.001008E+0	9.404269E-1	9.620438E-1	9.883733E-1	9.399229E-1	1.015508E+0	9.826653E-1	1.015165E+0	1.000478E+0	9.447069E-1	1.002325E+0	1.021429E+0	9.629809E-1	9.822710E-1	1.003750E+0	9.686005E-1	9.553472E-1	9.673714E-1	1.017483E+0	9.827806E-1	9.677303E-1	9.527186E-1	9.621911E-1	1.012721E+0	9.588557E-1	9.979069E-1	1.009625E+0	9.971256E-1	1.006481E+0	9.593326E-1	9.939225E-1	9.761317E-1	9.650168E-1	9.950071E-1	1.008678E+0	9.509393E-1	9.502624E-1	1.008206E+0	9.578492E-1	9.674019E-1	9.804317E-1	9.500965E-1	9.607206E-1	1.021689E+0	9.731552E-1	9.741664E-1	1.004690E+0	9.725449E-1	9.500196E-1	1.006033E+0	1.019498E+0	9.950644E-1	9.730266E-1	1.055220E+0	9.677407E-1
2.980020E+2	1.040746E+0	1.058189E+0	1.073423E+0	1.132058E+0	1.094187E+0	1.138129E+0	1.048574E+0	9.731423E-1	1.102843E+0	1.087426E+0	1.076337E+0	9.777622E-1	1.121233E+0	1.063508E+0	1.068176E+0	1.085736E+0	1.099796E+0	1.086024E+0	1.087886E+0	1.086807E+0	1.072441E+0	1.140007E+0	1.097751E+0	1.009259E+0	1.122952E+0	1.131657E+0	1.073915E+0	1.058728E+0	1.078352E+0	1.028476E+0	1.097398E+0	1.137721E+0	1.118162E+0	1.059629E+0	1.059348E+0	1.123993E+0	1.107802E+0	1.098726E+0	1.106681E+0	1.098236E+0	1.037528E+0	1.128662E+0	1.120013E+0	1.109603E+0	1.073184E+0	1.107439E+0	1.076614E+0	1.124714E+0	1.109961E+0	1.105949E+0	1.085634E+0	1.071771E+0	1.090454E+0	1.058273E+0	1.120446E+0	1.044887E+0	1.147301E+0	1.121984E+0	1.114627E+0	1.070901E+0	1.088185E+0	1.057005E+0	1.068987E+0	1.095393E+0	1.130810E+0	1.088078E+0	1.103733E+0	1.122861E+0	1.112157E+0	1.091574E+0	1.054798E+0	1.087084E+0	1.124591E+0	1.112326E+0	1.035816E+0	1.046116E+0	1.120310E+0	1.085782E+0	1.091016E+0	1.099867E+0	1.049691E+0	1.091023E+0	1.058186E+0	1.105229E+0	1.112709E+0	1.132585E+0	1.097511E+0	1.047893E+0	1.123298E+0	1.061135E+0	1.079726E+0	1.045966E+0	1.131640E+0	1.061985E+0	1.113630E+0	1.096931E+0	1.165266E+0	1.071269E+0	1.115530E+0	1.101059E+0	1.113775E+0	1.127857E+0	1.100657E+0	1.120077E+0	1.088990E+0	1.069308E+0	1.078405E+0	1.113843E+0	1.096021E+0	1.103918E+0	1.114535E+0	1.099051E+0	1.026264E+0	1.095067E+0	1.110198E+0	1.141293E+0	1.064140E+0	1.114275E+0	1.074835E+0	1.156465E+0	1.064347E+0	1.083339E+0	1.065382E+0	1.044521E+0	1.083642E+0	1.050027E+0	1.114729E+0	1.113151E+0	1.076887E+0	1.117657E+0	1.092000E+0	1.074575E+0	1.134521E+0	1.099780E+0	1.125335E+0	1.085250E+0	1.126572E+0	1.132866E+0	1.088125E+0	1.132235E+0	1.086329E+0	1.038714E+0	1.094162E+0	1.069404E+0	1.102193E+0	1.135200E+0	1.107878E+0	1.042655E+0	1.058209E+0	1.122937E+0	1.078106E+0	1.079922E+0	1.072716E+0	1.079428E+0	1.125359E+0	1.103665E+0	1.115207E+0	1.105566E+0	1.114387E+0	1.087170E+0	1.092751E+0	1.069690E+0	1.075040E+0	1.074892E+0	1.065287E+0	1.089744E+0	1.048744E+0	1.070239E+0	1.108766E+0	1.067124E+0	1.090572E+0
2.985020E+2	1.047565E+0	1.056291E+0	1.068864E+0	1.032490E+0	1.095884E+0	1.061300E+0	1.059572E+0	9.947592E-1	1.047298E+0	1.049696E+0	1.105316E+0	1.000585E+0	1.044447E+0	1.089388E+0	1.030854E+0	1.078247E+0	1.064463E+0	1.020634E+0	1.063043E+0	1.047270E+0	1.026100E+0	1.034626E+0	1.070661E+0	1.044177E+0	1.080443E+0	1.073526E+0	1.096426E+0	9.808360E-1	1.071082E+0	1.092251E+0	1.076199E+0	1.035667E+0	1.044008E+0	1.090778E+0	1.044280E+0	1.049946E+0	1.036765E+0	1.085631E+0	1.019277E+0	1.048516E+0	1.102574E+0	1.057101E+0	1.050974E+0	1.059017E+0	1.099959E+0	1.085871E+0	1.096315E+0	1.025555E+0	1.039673E+0	1.083997E+0	1.113275E+0	1.083941E+0	1.057173E+0	1.033593E+0	1.100685E+0	1.057512E+0	1.073811E+0	1.027333E+0	1.048319E+0	1.029087E+0	1.073981E+0	1.118437E+0	1.062405E+0	1.144519E+0	1.044100E+0	1.130260E+0	1.081130E+0	1.079070E+0	1.041525E+0	1.055474E+0	1.059553E+0	1.061126E+0	1.057042E+0	1.011571E+0	1.049533E+0	1.028416E+0	1.079214E+0	1.071760E+0	1.143372E+0	1.070180E+0	1.039819E+0	1.085580E+0	1.051029E+0	1.047201E+0	1.053559E+0	1.003222E+0	1.049722E+0	1.044637E+0	1.077611E+0	1.048621E+0	1.079726E+0	1.070357E+0	1.031746E+0	1.029080E+0	1.038241E+0	1.069505E+0	1.053746E+0	1.059639E+0	1.026565E+0	1.066383E+0	1.014186E+0	1.061930E+0	1.057841E+0	1.066260E+0	1.098424E+0	1.088171E+0	1.061575E+0	1.071474E+0	1.111252E+0	1.005914E+0	1.069024E+0	1.078259E+0	1.062934E+0	1.103321E+0	1.023993E+0	1.041079E+0	1.036466E+0	1.070064E+0	1.095669E+0	1.012746E+0	1.093623E+0	1.066816E+0	1.046545E+0	1.065069E+0	1.057833E+0	1.080746E+0	1.020155E+0	1.082031E+0	1.033222E+0	1.048996E+0	1.059123E+0	1.122580E+0	1.107476E+0	1.086783E+0	1.060328E+0	1.068313E+0	1.072058E+0	1.080674E+0	1.063974E+0	1.060929E+0	1.080045E+0	1.142302E+0	1.012136E+0	1.052978E+0	1.091227E+0	1.003530E+0	1.044975E+0	1.099014E+0	1.042531E+0	1.054924E+0	1.057730E+0	1.094164E+0	1.087230E+0	1.019638E+0	1.062954E+0	1.054537E+0	1.074692E+0	1.095695E+0	1.038749E+0	1.079710E+0	1.069603E+0	1.057075E+0	1.055694E+0	1.023231E+0	1.112144E+0	1.031674E+0	1.064908E+0	1.086184E+0	1.075701E+0	1.067124E+0	1.083125E+0
2.990020E+2	9.852280E-1	1.019291E+0	9.940718E-1	9.926636E-1	9.813321E-1	9.754798E-1	1.004583E+0	9.927942E-1	1.016923E+0	1.036811E+0	1.010331E+0	9.961965E-1	9.759184E-1	9.733768E-1	1.006967E+0	9.606895E-1	9.851976E-1	1.018019E+0	1.014959E+0	1.023206E+0	1.018110E+0	9.653745E-1	1.008353E+0	9.846564E-1	9.945382E-1	9.986730E-1	9.831159E-1	9.567266E-1	9.903073E-1	1.030839E+0	9.808029E-1	9.945417E-1	9.915605E-1	9.875403E-1	9.705243E-1	1.045589E+0	1.012837E+0	1.015534E+0	1.020592E+0	9.410581E-1	9.516319E-1	9.542304E-1	1.027962E+0	9.831376E-1	1.024990E+0	9.956069E-1	9.992708E-1	9.697246E-1	1.077161E+0	9.934447E-1	9.815725E-1	9.669233E-1	1.039254E+0	1.036883E+0	1.008940E+0	1.028896E+0	9.732473E-1	1.013276E+0	1.000514E+0	9.772754E-1	1.002072E+0	9.831203E-1	1.004631E+0	9.667297E-1	1.050357E+0	9.694916E-1	9.987891E-1	1.040751E+0	1.016688E+0	9.883270E-1	1.004528E+0	1.017584E+0	9.876910E-1	9.582302E-1	9.870451E-1	1.030278E+0	1.005062E+0	9.488615E-1	9.681263E-1	1.002214E+0	9.795968E-1	1.013910E+0	1.015243E+0	1.015156E+0	9.767516E-1	9.757131E-1	9.698476E-1	1.008005E+0	1.009079E+0	9.852707E-1	1.043487E+0	1.042214E+0	9.521689E-1	1.013775E+0	1.039061E+0	1.014654E+0	9.663893E-1	1.042642E+0	9.709635E-1	9.661055E-1	1.061853E+0	1.027469E+0	1.010517E+0	9.942134E-1	9.663538E-1	1.014433E+0	1.011888E+0	1.023939E+0	9.822294E-1	1.006758E+0	9.886224E-1	1.018481E+0	1.032209E+0	9.859389E-1	1.017959E+0	9.860061E-1	1.008793E+0	1.007868E+0	9.857508E-1	9.673627E-1	9.884112E-1	1.018987E+0	1.035898E+0	9.652650E-1	1.076951E+0	1.030718E+0	9.666663E-1	9.362589E-1	1.042715E+0	1.015150E+0	1.019323E+0	9.794696E-1	9.697153E-1	1.001489E+0	9.805469E-1	9.878619E-1	1.003446E+0	9.813396E-1	9.742673E-1	9.815879E-1	9.777072E-1	1.001046E+0	1.027202E+0	1.009445E+0	9.695910E-1	1.009975E+0	1.005774E+0	1.008469E+0	1.014661E+0	9.626192E-1	9.852844E-1	1.018991E+0	1.010128E+0	1.030189E+0	1.026823E+0	1.024874E+0	9.820851E-1	1.001919E+0	9.981423E-1	9.910208E-1	1.009805E+0	1.035446E+0	1.021398E+0	1.023231E+0	1.016556E+0	9.638012E-1	1.031812E+0	1.034929E+0	1.026974E+0	1.033397E+0	1.019851E+0
2.995040E+2	9.589284E-1	9.016489E-1	9.274885E-1	9.088178E-1	9.499368E-1	9.583161E-1	9.514260E-1	1.031116E+0	8.902148E-1	8.794435E-1	9.080998E-1	1.016386E+0	8.974816E-1	9.314348E-1	9.248569E-1	9.621867E-1	9.240778E-1	9.430374E-1	9.155867E-1	9.037388E-1	9.046542E-1	8.584872E-1	8.905099E-1	9.687854E-1	8.519560E-1	8.832083E-1	9.290872E-1	9.622908E-1	9.386113E-1	9.119482E-1	8.847014E-1	9.153366E-1	8.794273E-1	9.110020E-1	9.078707E-1	8.731037E-1	8.767442E-1	8.522323E-1	9.121578E-1	8.849239E-1	8.849159E-1	9.121873E-1	8.935973E-1	8.955861E-1	8.827015E-1	8.821768E-1	9.197372E-1	9.005621E-1	8.634859E-1	9.184420E-1	8.937706E-1	9.116904E-1	8.489603E-1	9.274671E-1	8.494428E-1	8.967593E-1	8.804188E-1	9.111276E-1	9.064477E-1	8.963751E-1	9.079673E-1	9.449320E-1	9.300384E-1	9.176037E-1	8.992846E-1	8.851263E-1	8.857722E-1	8.856534E-1	9.646847E-1	9.305673E-1	9.264082E-1	8.836090E-1	8.697040E-1	9.531502E-1	9.458944E-1	9.138226E-1	9.050033E-1	9.414374E-1	8.903198E-1	9.069038E-1	9.203618E-1	9.277259E-1	9.548029E-1	8.817797E-1	9.467355E-1	9.355663E-1	9.056750E-1	9.054342E-1	8.693801E-1	9.492931E-1	8.808132E-1	9.090052E-1	9.496299E-1	9.341879E-1	8.784482E-1	8.863981E-1	8.678805E-1	9.326075E-1	8.912658E-1	9.276817E-1	8.856581E-1	9.031091E-1	9.046007E-1	9.030705E-1	9.257890E-1	9.689902E-1	9.125116E-1	9.020026E-1	8.603747E-1	9.104450E-1	9.180813E-1	8.833344E-1	8.964318E-1	9.107409E-1	9.464100E-1	9.219048E-1	9.223119E-1	9.486701E-1	8.823002E-1	9.303829E-1	9.179658E-1	8.615847E-1	9.196039E-1	9.476516E-1	8.781214E-1	9.534829E-1	9.038753E-1	8.813897E-1	9.468438E-1	8.778310E-1	8.679117E-1	8.590026E-1	9.122443E-1	9.113218E-1	8.593986E-1	8.964010E-1	9.038185E-1	9.266221E-1	9.233757E-1	8.992335E-1	9.355151E-1	8.786252E-1	9.175565E-1	9.215608E-1	8.848452E-1	9.427585E-1	9.155207E-1	9.216204E-1	9.415009E-1	9.237545E-1	9.052922E-1	8.773491E-1	9.221442E-1	9.308303E-1	8.814836E-1	9.340307E-1	9.481843E-1	9.237727E-1	9.232994E-1	8.882404E-1	9.123937E-1	9.119855E-1	8.824562E-1	9.033386E-1	9.106592E-1	9.215684E-1	9.540773E-1	8.845814E-1	8.738321E-1	8.548406E-1	9.193557E-1
3.000060E+2	9.910717E-1	9.443410E-1	9.512029E-1	9.821822E-1	9.321170E-1	9.509608E-1	9.541762E-1	1.100881E+0	9.952269E-1	9.613484E-1	8.847561E-1	1.044475E+0	9.569282E-1	9.519597E-1	9.465036E-1	9.958818E-1	9.087977E-1	9.500128E-1	9.532519E-1	9.716373E-1	1.009322E+0	9.977418E-1	9.548498E-1	1.050526E+0	9.599995E-1	9.429304E-1	9.238347E-1	1.058728E+0	9.240713E-1	9.765104E-1	9.588973E-1	9.534164E-1	9.779956E-1	9.572810E-1	9.689378E-1	9.698007E-1	9.530161E-1	9.677761E-1	9.765609E-1	1.054932E+0	9.633069E-1	9.774874E-1	9.292297E-1	9.909201E-1	9.354863E-1	9.101345E-1	9.080625E-1	9.763901E-1	8.869148E-1	9.092958E-1	9.197861E-1	9.528801E-1	9.573326E-1	9.414523E-1	9.221332E-1	1.025530E+0	9.597101E-1	9.692311E-1	9.018219E-1	9.927289E-1	9.488055E-1	9.225188E-1	9.388139E-1	9.035670E-1	9.028607E-1	9.320843E-1	9.471242E-1	9.349200E-1	8.987096E-1	9.291243E-1	9.658083E-1	9.974882E-1	9.417575E-1	9.650039E-1	9.839969E-1	9.967390E-1	9.219769E-1	9.637073E-1	9.455840E-1	9.123728E-1	1.012177E+0	9.077675E-1	9.333306E-1	9.302805E-1	9.326101E-1	9.853783E-1	9.609729E-1	9.827692E-1	9.150681E-1	9.477285E-1	9.291328E-1	9.596625E-1	9.538623E-1	9.678591E-1	9.833379E-1	9.299570E-1	9.329336E-1	9.701803E-1	9.978382E-1	9.539225E-1	9.520501E-1	9.113497E-1	9.767136E-1	9.412635E-1	9.323923E-1	8.832481E-1	9.173205E-1	9.557371E-1	9.589337E-1	9.695854E-1	9.491801E-1	9.145213E-1	9.697729E-1	9.290818E-1	9.619269E-1	9.327390E-1	9.672815E-1	9.186964E-1	9.994016E-1	9.446700E-1	9.957304E-1	9.537649E-1	9.499063E-1	9.623287E-1	9.029753E-1	9.403188E-1	9.922489E-1	9.657404E-1	9.373514E-1	9.580950E-1	9.578930E-1	9.957729E-1	9.206963E-1	9.332545E-1	9.569087E-1	9.793930E-1	9.263754E-1	9.257803E-1	9.880678E-1	9.132942E-1	9.615484E-1	9.414055E-1	9.393179E-1	9.494868E-1	9.456628E-1	9.492038E-1	9.319305E-1	9.521102E-1	9.780808E-1	9.407585E-1	9.649093E-1	9.786344E-1	9.575189E-1	9.317086E-1	9.455315E-1	9.154918E-1	8.994007E-1	9.229501E-1	9.647015E-1	9.321703E-1	9.422920E-1	9.516374E-1	9.607217E-1	1.002762E+0	9.453342E-1	9.871795E-1	8.809610E-1	9.290015E-1	9.417007E-1	9.222942E-1	9.193552E-1
