Photon Energy (eV)	#1	#2	#3	#4	#5	#6	#7	#8	#9	#10	#11	#12	#13	#14	#15	#16	#17	#18	#19	#20	#21	#22	#23	#24	#25	#26	#27	#28	#29	#30	#31	#32	#33	#34	#35	#36	#37	#38	#39	#40	#41	#42	#43	#44	#45	#46	#47	#48	#49	#50	#51	#52	#53	#54	#55	#56	#57	#58	#59	#60	#61	#62	#63	#64	#65	#66	#67	#68	#69	#70	#71	#72	#73	#74	#75	#76	#77	#78	#79	#80	#81	#82	#83	#84	#85	#86	#87	#88	#89	#90	#91	#92	#93	#94	#95	#96	#97	#98	#99	#100	#101	#102	#103	#104	#105	#106	#107	#108	#109	#110	#111	#112	#113	#114	#115	#116	#117	#118	#119	#120	#121	#122	#123	#124	#125	#126	#127	#128	#129	#130	#131	#132	#133	#134	#135	#136	#137	#138	#139	#140	#141	#142	#143	#144	#145	#146	#147	#148	#149	#150	#151	#152	#153	#154	#155	#156	#157	#158	#159	#160	#161	#162	#163	#164	#165	#166	#167	#168	#169	#170	
2.790010E+2	-7.022759E-3	-3.415771E-3	-1.363872E-2	-4.861932E-3	-6.229131E-3	3.826150E-3	-4.078076E-3	-9.477829E-3	3.102750E-3	-1.307543E-2	-6.294258E-3	-8.847068E-3	-5.518765E-3	-8.953223E-3	1.757072E-3	-1.185576E-3	-7.156535E-3	-3.141308E-3	-3.053417E-3	4.261258E-4	-6.979724E-3	-3.103973E-4	5.781101E-3	-7.992239E-3	-2.055810E-3	-1.901066E-3	-4.451651E-3	3.697672E-3	-4.650603E-3	-6.289523E-3	5.874932E-3	-4.882048E-3	-4.909718E-3	-7.452572E-3	-3.342575E-3	-8.452106E-3	1.277593E-4	5.653621E-3	3.934309E-3	-8.999152E-3	-2.456153E-3	-1.104087E-2	-9.383138E-3	-8.462994E-3	-9.249284E-3	4.133296E-3	-1.947945E-3	7.475493E-4	-4.133608E-3	2.621425E-3	-6.346026E-4	-2.917854E-3	-6.763745E-3	-2.190986E-3	-1.627430E-3	-7.997292E-3	-4.201634E-3	-8.105605E-4	-3.745606E-3	-1.044379E-3	4.724231E-3	1.000890E-3	-1.166135E-3	2.777599E-3	1.008931E-2	-8.717373E-3	-5.746809E-3	3.348360E-3	1.882353E-2	-9.391930E-3	-6.548574E-4	6.462467E-5	-3.848659E-3	1.134372E-3	9.883829E-4	8.558643E-3	4.113765E-3	-7.445789E-3	6.601714E-4	-1.197840E-3	-6.215264E-3	-2.571942E-3	-6.979295E-3	-8.000047E-3	2.018357E-3	7.832926E-4	1.980823E-3	-1.130559E-2	1.173184E-5	9.070111E-3	2.162796E-3	2.823630E-4	-3.966217E-4	2.815401E-3	-8.864523E-3	-1.602129E-2	-5.482579E-3	-7.094877E-3	-9.687203E-4	-1.096073E-2	2.134861E-3	-5.267625E-3	3.140618E-3	-1.361070E-2	-1.679458E-2	-6.259888E-3	-4.745480E-3	-1.489718E-2	4.930155E-3	9.798319E-4	-7.456205E-3	-3.683261E-3	-7.148203E-3	-1.039079E-2	5.226814E-3	-1.137074E-3	-1.174745E-2	-4.599277E-3	-6.277272E-3	6.856524E-3	3.237322E-3	-1.273007E-2	-1.814156E-3	1.273779E-3	1.134375E-2	1.023158E-2	-6.147101E-3	-3.770917E-3	-8.994352E-3	5.387069E-3	8.096392E-3	-1.122425E-2	-1.031077E-2	-8.164382E-3	5.231823E-3	-1.048507E-2	-1.252402E-2	-3.908877E-3	-2.745259E-3	-5.462190E-3	1.154651E-2	-3.518825E-3	2.612535E-4	7.688121E-3	3.784167E-3	4.249775E-3	-3.272568E-3	-1.117508E-2	-6.551934E-3	-8.170043E-3	4.453325E-4	-1.368348E-3	-6.167067E-3	-2.008853E-3	-1.948403E-3	-1.397240E-2	-6.448196E-3	-8.029262E-3	1.495075E-3	6.501642E-3	-1.151912E-3	-5.149311E-3	3.788369E-4	-3.627821E-3	5.351186E-3	-3.036116E-3	-8.343498E-4	3.588754E-3	-1.523562E-3	-2.629298E-2
2.795010E+2	-9.542617E-4	9.562150E-3	1.033466E-2	-2.464073E-3	-3.360354E-3	-8.143817E-3	-1.384679E-3	-9.064647E-3	-5.935277E-3	-8.723246E-3	2.445020E-3	5.798629E-3	-3.114532E-3	5.730372E-3	-2.892339E-3	1.488030E-4	-4.291641E-3	-1.127099E-2	-1.160164E-2	4.362714E-3	-5.848674E-4	-7.591663E-3	1.906886E-3	-5.446031E-3	3.173429E-3	-6.230595E-3	-7.425158E-3	-7.652416E-3	1.805749E-3	2.447080E-3	-4.841467E-3	-1.006812E-2	-8.495316E-3	-8.639873E-4	3.515183E-3	-2.113001E-3	8.038890E-3	3.498998E-3	-5.605197E-3	-9.728370E-3	-1.171231E-2	-7.125386E-3	9.503611E-3	-6.562454E-3	-6.679029E-3	-7.488217E-3	8.225027E-3	8.969360E-4	6.280709E-3	5.295876E-3	-4.869903E-3	-3.736222E-3	2.073393E-3	6.052010E-3	-1.387588E-2	8.720936E-3	-1.476097E-3	1.224515E-2	-2.405368E-3	-1.072177E-2	-4.658921E-3	-1.032995E-2	-2.001390E-3	-1.110430E-2	-6.926805E-3	-1.913584E-3	6.150482E-5	-1.367407E-3	-1.895843E-2	-4.433276E-3	9.961051E-3	-8.182740E-3	-7.104695E-3	2.735643E-3	-6.064853E-3	-9.601363E-3	-5.011685E-3	-1.428343E-2	-8.945200E-3	-8.838670E-3	1.255974E-2	-9.350230E-3	-3.241755E-3	-7.523046E-3	1.150736E-3	5.689008E-3	-1.701365E-3	8.205717E-3	-8.051931E-3	-5.860956E-3	-6.243100E-3	-1.280899E-2	-5.562013E-3	-5.881472E-3	-3.706319E-3	-5.310362E-3	-1.270904E-3	-7.819501E-3	-1.189700E-2	5.194357E-3	-9.795544E-3	4.816332E-3	-1.009658E-3	-1.948196E-3	-1.149935E-2	-4.662120E-3	-9.455193E-3	-9.861453E-3	-4.944533E-3	5.604295E-3	-6.431448E-3	-2.083629E-3	-2.584790E-3	-9.691829E-4	-9.802501E-3	-8.250910E-3	4.840361E-3	-8.654208E-3	7.458426E-4	-6.927431E-3	-6.419879E-3	-1.953875E-3	-5.236890E-3	1.686670E-3	-1.852054E-2	-9.412132E-3	-1.529663E-2	-6.783310E-3	-4.755567E-3	-9.031609E-3	-1.184050E-2	-6.890784E-3	8.930797E-3	8.598111E-4	-9.611157E-3	2.689257E-3	-8.260715E-3	5.986571E-3	2.784986E-3	5.092922E-4	-5.696389E-3	3.377641E-3	-1.402257E-2	6.011051E-4	5.451828E-3	-5.220581E-4	-7.824044E-3	-5.426048E-3	-1.589361E-2	-1.020127E-2	-1.392877E-2	-3.518717E-3	-8.335311E-3	6.558863E-4	1.041215E-3	1.464677E-3	1.136197E-3	3.536109E-3	-7.266404E-3	2.090335E-3	-1.157122E-2	-4.737444E-3	-1.032494E-2	-8.455072E-3	3.286629E-3	6.950734E-3	-8.200969E-3	-2.145812E-2	-1.280435E-2	-2.068360E-2
2.800050E+2	8.750335E-3	-8.358363E-3	1.852514E-3	2.643671E-4	1.649804E-3	-6.671377E-3	-5.015320E-5	3.790122E-3	3.360321E-3	-8.637754E-3	4.665149E-4	8.509768E-3	-4.057539E-3	1.482402E-3	-2.763590E-3	-4.089066E-3	1.758455E-3	-2.078987E-2	2.871778E-3	6.920186E-3	-1.475055E-3	9.962818E-4	-9.509975E-3	4.435041E-3	-1.009411E-2	3.126812E-3	3.446435E-3	-1.016704E-2	-1.040311E-2	6.797195E-3	1.498946E-4	-1.436575E-2	7.679851E-3	-1.281956E-2	-9.439196E-3	-3.177120E-3	-2.795580E-3	-1.059088E-2	5.036262E-3	6.329726E-3	2.740518E-3	-1.173988E-2	-5.863425E-3	-6.473887E-3	-5.478906E-3	-4.211741E-3	-5.728739E-3	-4.846344E-3	1.274506E-2	-1.403037E-2	3.218976E-3	-1.201721E-3	-1.905994E-2	-4.073427E-3	5.442641E-3	1.882610E-3	-1.351561E-3	-1.313936E-2	2.189841E-3	-8.104843E-3	-2.427561E-3	1.300247E-2	1.160275E-3	-2.326748E-3	-1.173557E-2	-3.051844E-3	-1.084227E-2	-3.742649E-3	-2.212662E-3	5.938873E-3	-1.416514E-3	-6.856745E-3	-1.193034E-2	-1.144921E-2	-9.071662E-3	-4.247896E-3	1.030110E-2	-3.133282E-3	8.258259E-4	3.745496E-3	-8.222427E-3	7.558996E-3	-4.248544E-3	9.555353E-4	-1.352819E-2	-9.123442E-3	-6.519752E-3	-3.929923E-3	-7.960777E-3	-1.151789E-2	-2.609695E-3	2.313432E-3	3.157684E-3	-3.541257E-3	-4.072199E-5	2.625852E-3	6.428911E-3	-3.954601E-3	2.827566E-4	-1.269829E-2	8.942273E-3	-2.663238E-3	-6.052549E-3	-1.059313E-2	-7.466304E-4	-9.169669E-3	5.511938E-3	-1.384535E-3	-1.039451E-2	1.326761E-3	9.250656E-3	-8.793008E-3	-5.090369E-3	4.229796E-3	-1.841444E-4	-8.061429E-3	-6.566845E-3	-4.157090E-3	-8.306286E-3	2.780844E-3	-5.023099E-3	-6.421468E-4	-7.319437E-3	-3.075404E-3	-5.898956E-3	3.885554E-3	-5.803383E-3	-5.425977E-3	-2.081133E-3	-1.254276E-2	-1.721444E-3	-1.296666E-2	-1.216317E-2	-2.245356E-3	-4.364118E-3	-7.500735E-3	-4.313431E-3	-9.238342E-3	-7.938396E-4	-5.496079E-4	-3.244835E-3	-8.646064E-3	8.127424E-3	-5.208077E-3	-3.980520E-3	-2.903421E-3	5.405090E-3	2.502033E-3	-2.363033E-3	-7.909496E-4	5.207765E-3	-5.647325E-3	-1.092964E-2	-5.060417E-3	-1.420789E-2	-1.033949E-2	-9.510300E-3	1.456957E-3	6.268072E-4	-3.479869E-3	8.110639E-4	-2.032643E-2	4.399740E-3	-3.058359E-3	3.417421E-3	-8.102067E-3	1.656276E-3	-8.210848E-3	-1.270110E-2	-2.062404E-2
2.805060E+2	3.274211E-3	4.155056E-3	-1.416296E-2	2.781907E-4	6.562080E-3	1.485535E-3	-1.228579E-3	1.018720E-2	-1.612430E-2	3.698468E-3	3.689112E-3	-6.918820E-3	-5.094846E-3	-5.056315E-3	8.636108E-5	-1.062505E-2	6.538960E-3	5.697588E-3	-1.527371E-3	-3.953954E-3	-3.504937E-3	-1.380104E-2	-1.758521E-3	2.289263E-3	6.987648E-3	1.124989E-2	2.538954E-4	1.199251E-2	4.449948E-3	-4.773109E-3	-4.686605E-3	8.755955E-3	-5.696831E-3	1.011670E-2	-6.156506E-3	7.595130E-3	-3.885244E-3	-1.710674E-2	1.254912E-3	-3.892966E-3	1.614141E-3	4.926739E-3	-8.910659E-3	2.870414E-3	1.908356E-2	-8.417258E-3	3.748007E-4	-3.649219E-3	-9.939680E-3	-5.476853E-3	4.374754E-3	-1.184046E-3	-6.277390E-3	1.706358E-3	-6.054362E-3	-8.621855E-3	8.013225E-3	-1.612705E-3	-4.462753E-3	7.073381E-3	1.129743E-2	-3.237162E-3	-1.088509E-2	2.031965E-3	-5.577236E-3	-1.194574E-2	-3.103419E-3	2.551925E-3	-1.108505E-2	4.832313E-3	-4.268224E-3	2.982299E-3	-6.984064E-3	4.206639E-3	1.281576E-2	2.361271E-3	-1.366816E-3	1.775800E-2	5.707309E-3	-1.898094E-3	3.579564E-3	-3.219507E-3	3.615246E-3	-2.604634E-3	-3.614424E-3	-9.102006E-3	-5.233917E-4	-1.664528E-3	2.953413E-3	8.000716E-5	-8.428856E-3	2.322878E-3	-7.556139E-3	-9.023317E-3	1.884011E-2	-9.648846E-3	-6.165813E-3	-5.187606E-3	-1.341736E-2	5.411272E-3	-5.257761E-3	-3.720875E-3	-2.923143E-3	-2.853984E-3	-7.164091E-4	-7.985312E-3	4.500686E-3	1.523222E-2	-2.554578E-3	-4.214358E-3	-2.930312E-3	-1.106487E-2	-6.384696E-3	-7.133565E-3	-1.048653E-2	-6.781424E-3	6.217175E-3	-3.031308E-3	-6.213192E-4	-1.250721E-2	-1.495687E-2	6.257149E-3	-1.811607E-2	4.771289E-3	1.643639E-3	-7.043696E-3	1.197744E-2	7.085191E-3	6.804090E-3	-3.368910E-4	3.538192E-3	8.275942E-3	-6.212828E-3	4.366485E-3	-5.045821E-3	-3.815717E-4	2.058475E-3	2.840829E-4	-2.209990E-2	-7.177301E-3	2.415012E-4	-6.381125E-3	1.830809E-3	-5.142892E-3	-6.698639E-3	5.979125E-3	4.460342E-3	-3.863060E-3	8.680729E-3	3.910058E-3	-6.172417E-4	-8.914283E-3	5.467641E-3	-2.870058E-4	3.699836E-3	3.310754E-3	-9.459753E-3	1.541050E-3	4.667879E-4	-5.596943E-3	1.178565E-2	-9.028894E-4	5.204215E-4	-6.921981E-3	-3.771098E-3	-1.349920E-2	-1.516537E-2	-8.055738E-3	-5.694792E-3	-8.825524E-3
2.810080E+2	-3.658682E-3	2.677470E-3	1.040886E-2	-2.380716E-3	4.032140E-3	-1.320063E-3	8.281735E-3	3.735106E-3	1.248231E-2	-6.378994E-5	-5.934992E-3	-6.952920E-3	4.417237E-3	-4.016251E-3	1.033355E-2	1.228283E-2	-6.607602E-3	1.641803E-2	-3.804475E-3	-7.626784E-3	9.810584E-3	1.259664E-2	-6.572442E-3	-4.289153E-3	-1.612388E-3	-3.823382E-4	1.266139E-3	5.393043E-3	-9.213665E-3	1.494410E-3	3.046413E-3	9.772541E-3	9.090326E-4	-6.827631E-3	2.514162E-3	-5.618184E-3	-6.463251E-4	-7.646846E-4	-8.307857E-3	4.079145E-3	-2.019484E-3	-1.125265E-3	7.543790E-3	-5.220558E-3	-4.430709E-3	-2.127202E-3	4.324176E-3	-1.073327E-2	-1.183091E-3	4.122655E-3	-5.928902E-3	-2.497758E-3	7.495290E-3	-1.785027E-3	-3.208190E-3	-1.718997E-3	-4.893180E-3	7.219535E-3	1.025058E-3	-3.091384E-3	-1.448160E-3	1.990578E-4	-4.847856E-3	-2.299173E-3	-3.125587E-3	3.269183E-3	-1.989567E-3	-1.159635E-3	8.448856E-6	-4.323008E-3	-6.226682E-3	5.640664E-4	1.885708E-2	5.436841E-3	-1.217075E-2	-2.861236E-3	-8.429106E-3	9.165564E-3	-5.855160E-3	7.131273E-3	-4.321729E-3	4.031184E-4	-5.377951E-3	-2.644528E-3	5.056266E-3	-6.832718E-3	-5.518039E-3	-6.186678E-3	-3.066067E-3	2.989803E-5	6.719593E-3	9.103947E-3	6.367031E-3	3.067916E-3	-3.589277E-3	7.083930E-3	-9.996352E-3	1.981410E-2	7.730687E-3	1.737738E-3	-3.112636E-3	-7.040401E-3	-5.020724E-3	-8.402484E-3	-5.496230E-3	8.839187E-5	4.456745E-3	-1.248337E-2	1.635952E-2	-4.263452E-3	1.110463E-3	1.516069E-3	1.187546E-2	2.931118E-3	-5.940970E-3	-5.415640E-4	-6.590284E-3	-8.532430E-3	-1.614931E-3	8.637462E-3	7.404868E-3	9.648078E-3	2.417387E-3	-1.353350E-2	-2.170300E-3	-3.798912E-3	-2.677121E-3	5.887884E-3	-5.916388E-3	-3.987936E-4	-1.319813E-3	8.204716E-3	2.003871E-3	4.310373E-3	-3.028793E-3	5.392708E-3	-5.599559E-3	-9.244368E-3	-5.239438E-3	-4.530727E-3	8.184562E-3	3.560744E-3	6.044232E-3	-5.196129E-3	-1.283865E-3	8.431040E-3	-7.361882E-3	-3.924902E-3	-1.160626E-3	-8.899866E-3	-1.012742E-2	-5.433255E-3	2.035080E-2	-3.869224E-3	-6.127250E-3	8.608941E-3	4.891539E-3	-4.132901E-3	4.381162E-3	-3.331072E-3	-1.941208E-3	2.667793E-3	-9.723810E-3	3.603320E-3	-1.102970E-2	1.717309E-3	3.494452E-3	1.846702E-2	-1.269336E-2	2.642545E-2
2.815030E+2	-5.286319E-3	2.362888E-3	3.950081E-3	-2.652947E-3	1.286963E-3	-1.637508E-3	-8.739329E-3	2.168582E-3	-2.692495E-3	7.018164E-3	-3.008495E-3	9.453003E-3	-3.264435E-3	6.624395E-3	-3.017922E-3	1.087629E-2	1.678334E-2	2.881853E-3	1.132416E-2	8.995704E-3	-9.953228E-3	6.981127E-3	4.714595E-3	-1.877702E-4	-1.861176E-3	2.790786E-3	4.190794E-3	1.274493E-3	2.800410E-3	-7.144127E-3	-5.938734E-3	-3.611511E-3	3.252793E-3	4.941989E-3	-6.402908E-3	9.341534E-5	2.005779E-4	1.416083E-2	6.694397E-3	-6.407323E-3	2.485667E-3	9.167923E-3	-9.884879E-4	7.697913E-3	-1.129856E-2	7.162891E-3	1.025363E-3	-3.467207E-4	4.780106E-3	-3.389512E-3	-2.749129E-3	3.207210E-3	3.002609E-3	4.801250E-3	1.383698E-3	-1.009845E-2	-2.809215E-3	-3.294410E-3	9.599671E-3	1.171568E-2	-6.909287E-3	-5.846327E-3	-1.089685E-3	-4.706853E-3	1.736737E-2	7.996912E-3	1.419775E-2	-3.903615E-3	3.079939E-3	4.478044E-3	-7.073884E-4	-3.374405E-3	-3.542254E-3	-1.041662E-2	2.156506E-3	8.615346E-3	-7.481257E-3	-4.605608E-3	4.483534E-3	-6.698628E-3	3.223305E-3	-1.062141E-3	1.553842E-2	-1.703318E-3	4.781344E-3	2.108393E-3	-9.688038E-3	4.682498E-3	3.886817E-3	-3.704738E-3	4.076794E-3	-3.457908E-3	-1.413531E-3	7.141934E-3	-5.019881E-3	3.461862E-3	6.063926E-3	6.972363E-3	4.923668E-3	-9.569611E-4	-1.100180E-2	-7.584876E-4	-6.254892E-3	2.095025E-2	1.420099E-2	1.018887E-2	-1.051681E-3	-5.863795E-3	1.577471E-3	1.022006E-3	-3.211679E-3	-2.195082E-3	-4.044617E-3	-6.155279E-3	-5.063545E-4	5.439896E-3	-2.237656E-3	6.446357E-3	1.619054E-2	2.485174E-3	4.594802E-3	-6.559504E-3	-6.493863E-3	-9.844882E-3	-9.904135E-3	-7.725070E-4	1.468066E-2	-7.924369E-3	3.865394E-3	1.730993E-3	-7.541739E-3	-7.709883E-4	5.215350E-3	1.835009E-3	-5.336723E-3	1.594091E-3	2.913889E-3	4.700750E-3	1.131022E-2	8.639770E-3	-9.231297E-3	1.319816E-2	-1.644012E-3	5.343346E-3	1.338560E-2	-1.321899E-2	-7.581053E-3	7.412909E-3	3.406339E-3	4.655979E-3	2.183099E-3	7.185395E-3	6.416009E-3	8.724999E-3	4.434956E-3	1.497681E-2	2.195849E-3	8.863347E-5	3.105161E-3	-1.262324E-3	8.615533E-3	1.319941E-2	7.313432E-3	1.245552E-2	4.342712E-3	3.604693E-3	4.634970E-3	-6.053477E-3	1.474730E-2	-9.032752E-3
2.820060E+2	-1.302933E-2	-1.177964E-3	-1.600775E-3	7.134483E-3	1.930197E-3	5.862057E-3	5.075964E-3	-6.157403E-3	3.694800E-3	1.138731E-2	1.042617E-2	1.129174E-3	5.859074E-3	6.120667E-3	-8.119786E-3	-1.557421E-3	8.187139E-4	2.375021E-3	-4.617949E-3	-9.796786E-3	6.100446E-3	3.465500E-3	4.405128E-3	2.582785E-3	-7.332617E-5	-3.539770E-3	-3.788477E-3	-7.506575E-4	1.471296E-2	8.197339E-3	7.344443E-3	6.920628E-3	-2.781451E-3	-2.963511E-3	-4.627282E-4	-1.656702E-3	6.293949E-3	-8.117008E-3	-5.125246E-3	-5.851545E-3	6.748635E-3	7.604015E-3	6.832567E-4	-2.245114E-3	8.228862E-3	8.944414E-3	-2.405578E-3	5.136833E-3	-9.716343E-3	4.480296E-3	5.811251E-3	2.359147E-4	7.907741E-3	-4.891506E-3	8.719364E-3	6.880963E-3	5.944033E-3	1.019486E-2	-8.633604E-4	-2.118307E-4	9.959304E-4	2.842780E-3	1.271280E-2	1.027746E-2	-1.026400E-2	3.651536E-3	1.174432E-2	-2.021867E-3	1.488335E-2	-5.156785E-3	3.835742E-3	-5.240507E-3	1.063393E-2	-5.980159E-3	4.857237E-3	-2.496245E-3	1.254842E-3	-2.791740E-3	-6.255268E-4	-2.719360E-3	1.245286E-3	5.575904E-3	5.037770E-3	3.810326E-3	5.383084E-3	6.188224E-3	8.099816E-4	-2.496890E-3	8.187672E-3	7.385561E-3	-1.049267E-2	-4.172241E-3	-4.052927E-3	1.348131E-2	-7.995718E-3	4.078057E-3	4.329859E-4	2.624308E-3	1.070093E-2	1.182481E-2	2.764607E-3	9.788880E-3	8.799523E-3	5.174659E-3	-4.138469E-4	7.434775E-3	-4.616197E-4	2.674148E-2	-1.148060E-3	5.786478E-4	2.532677E-3	1.576881E-2	-9.201299E-4	1.093102E-2	9.444751E-3	1.499619E-2	1.240275E-2	1.046055E-2	-3.194348E-3	1.913148E-3	-2.241772E-3	5.508079E-3	1.266321E-2	1.030437E-2	1.833412E-2	4.253819E-3	-2.051939E-4	1.083311E-2	7.649442E-4	1.185325E-3	7.465836E-3	7.331763E-3	4.786424E-3	-7.861830E-4	1.293283E-2	4.618872E-3	1.257086E-2	1.248269E-2	4.160753E-3	-1.982310E-4	-1.095700E-2	-6.125826E-3	-9.711674E-3	4.835716E-3	-7.841557E-3	-1.152602E-2	1.543678E-2	1.337745E-2	1.394115E-2	3.108308E-3	6.083727E-3	9.164953E-3	-1.205564E-2	1.163395E-3	1.716931E-2	6.234048E-3	4.055753E-3	1.314812E-2	2.802413E-3	4.542765E-4	-8.503670E-3	9.117412E-3	4.574446E-3	-2.668124E-3	-1.205060E-2	-2.284334E-3	5.325813E-3	1.447966E-2	3.308235E-2	2.693796E-2
2.825040E+2	1.792680E-2	-5.805466E-3	2.856341E-3	4.682627E-3	-5.871698E-3	6.599023E-3	2.123117E-3	4.818873E-3	2.111896E-3	8.396277E-3	-1.789075E-3	-2.171766E-3	1.077380E-2	-1.932047E-3	4.616657E-3	-5.850807E-3	-7.843686E-3	7.829687E-3	1.040891E-2	6.727940E-4	6.586782E-3	-2.336448E-3	1.033228E-3	8.608105E-3	5.535730E-3	-5.113717E-3	6.508024E-3	-3.787603E-3	4.983005E-4	-7.292635E-4	-9.488761E-4	7.478302E-3	1.004164E-2	1.586858E-2	1.977457E-2	1.332857E-2	-7.334027E-3	1.326587E-2	2.118420E-3	2.447048E-2	2.598983E-3	9.332723E-3	7.415053E-3	1.839668E-2	9.824068E-3	2.003817E-3	-3.867104E-3	1.279423E-2	1.166847E-3	6.376486E-3	7.775543E-4	8.094476E-3	1.162205E-2	3.813283E-4	9.220161E-3	1.095208E-2	7.744295E-4	-1.080252E-2	-1.337483E-3	4.385141E-3	-1.573658E-3	2.368245E-3	6.117083E-3	5.350046E-3	1.017251E-2	1.071091E-2	-4.321514E-3	6.294886E-3	-4.539124E-3	8.055768E-3	-5.231279E-4	2.004341E-2	3.919007E-3	1.433250E-2	6.489375E-3	-3.285203E-4	6.619159E-3	5.336290E-3	3.749047E-3	1.047582E-2	-1.848474E-3	2.665802E-3	-4.343897E-3	1.770971E-2	-1.247174E-3	1.028925E-2	2.115978E-2	1.269540E-2	4.039142E-3	4.518008E-3	1.481514E-2	6.416515E-3	9.456517E-3	-8.060515E-3	1.037633E-2	1.373080E-2	9.989824E-3	-5.354181E-3	2.645046E-3	4.478072E-4	1.532600E-2	4.845414E-3	9.320825E-3	1.128358E-2	2.146606E-2	1.036495E-2	1.244604E-3	2.516637E-3	-3.825462E-3	-1.033731E-3	7.135848E-3	1.053497E-2	1.429734E-2	6.556891E-3	1.224894E-2	4.336318E-3	3.681946E-3	1.206740E-2	3.077777E-3	-3.238507E-3	1.340462E-2	4.722894E-4	2.389982E-2	8.417674E-3	5.172423E-3	2.656296E-3	3.471329E-3	9.838854E-5	1.031301E-2	1.400667E-2	3.323074E-3	8.040254E-3	7.750324E-3	-1.757562E-4	9.221963E-3	4.072450E-3	1.315450E-2	-1.062506E-3	1.262248E-2	8.768996E-3	9.156943E-3	4.535291E-3	9.114538E-3	-2.921191E-3	-2.817010E-3	9.510549E-3	7.373323E-4	1.096706E-3	-5.900903E-5	1.638778E-2	1.075350E-2	8.531580E-3	5.253200E-3	6.812199E-4	-4.061766E-3	-1.028333E-2	1.313891E-2	-7.608706E-3	-5.611003E-3	4.623954E-3	1.955757E-3	6.131459E-3	2.861870E-3	8.672514E-3	1.045344E-2	1.464898E-2	9.089176E-3	7.242752E-3	-2.412484E-3	3.209548E-2
2.830040E+2	1.189292E-3	2.189078E-2	2.896357E-2	9.924656E-3	6.260653E-3	2.444642E-2	1.423422E-2	1.328820E-2	8.078226E-3	1.201518E-2	8.967251E-3	6.732063E-3	1.986196E-2	1.889657E-2	2.858795E-3	1.319186E-2	2.832506E-2	4.210088E-3	2.067569E-2	1.302044E-2	-2.705183E-3	5.136828E-3	3.992848E-3	1.633644E-2	1.675919E-2	1.673854E-3	1.429085E-2	9.524280E-3	4.404468E-3	2.064471E-2	1.297543E-2	1.596420E-2	-7.371079E-4	2.201149E-2	2.781715E-2	8.881105E-3	1.696363E-2	2.028099E-2	2.946649E-2	7.413815E-3	-3.538122E-3	-1.345611E-3	1.184627E-2	1.163935E-2	1.149803E-3	1.181208E-2	1.463630E-2	2.157406E-2	6.290287E-3	1.250617E-2	5.224253E-3	1.292164E-2	4.161339E-3	1.080537E-2	9.275915E-3	2.542613E-2	2.199203E-2	3.044958E-2	6.508860E-3	1.445120E-2	2.514303E-2	8.138344E-3	4.200290E-3	1.086334E-2	1.182307E-4	6.846783E-3	1.923111E-2	9.964993E-3	1.330434E-2	1.272852E-2	1.234261E-2	8.991763E-3	6.234719E-3	1.306539E-2	1.601230E-2	1.820564E-2	8.933557E-3	1.021632E-2	4.842636E-3	1.516331E-2	1.112321E-2	3.704323E-3	1.698620E-2	8.141213E-3	1.591739E-2	1.731200E-2	1.048753E-2	1.972818E-2	7.551951E-3	-3.765438E-3	-2.942144E-3	2.302014E-2	9.593500E-3	-1.527634E-3	2.606950E-2	1.610802E-2	9.963670E-3	5.709344E-3	3.701029E-3	1.627265E-2	7.850962E-3	9.336606E-3	1.362375E-2	2.819509E-2	-8.292387E-3	1.039886E-2	1.298717E-2	2.295283E-3	3.009612E-2	1.366976E-2	1.875490E-2	8.308823E-3	1.684825E-2	1.414835E-2	-9.743107E-3	1.576741E-3	8.387868E-3	7.778197E-3	1.680165E-2	2.403006E-2	5.870861E-3	4.950084E-3	6.795467E-3	5.619227E-3	1.654779E-2	2.720145E-2	1.740536E-2	1.609208E-2	3.908279E-3	2.988922E-3	1.785669E-2	1.678983E-2	-3.003982E-3	8.690822E-3	6.299582E-3	8.794059E-3	1.202396E-2	1.792934E-2	8.202250E-3	1.536491E-2	1.169968E-2	1.245828E-2	1.892568E-2	1.772783E-2	8.003643E-3	2.999014E-3	8.930358E-3	1.141087E-2	1.852360E-2	-1.160706E-2	1.391131E-3	7.443325E-3	2.318713E-2	4.062619E-3	2.013214E-2	1.354869E-2	7.178099E-3	2.068287E-2	6.438312E-3	1.156117E-2	9.964094E-3	3.568352E-3	1.581421E-2	-3.509759E-3	1.772621E-2	4.677653E-4	1.031539E-2	1.739165E-2	2.701903E-2	-2.026108E-2
2.835020E+2	1.792723E-2	1.183850E-2	4.085696E-2	1.642593E-2	2.144971E-2	7.260861E-4	3.142816E-3	1.578363E-2	2.253647E-2	4.142524E-2	1.574157E-2	1.131358E-2	3.692395E-2	2.698314E-2	2.348937E-2	1.653412E-2	1.369262E-2	1.165425E-2	2.674427E-2	1.784819E-2	1.762001E-2	1.845333E-2	1.521344E-2	1.286075E-2	3.597738E-2	1.837542E-2	1.227083E-2	2.891866E-2	1.084056E-2	2.756704E-2	1.224152E-2	1.676351E-2	2.273278E-2	1.959524E-2	2.932960E-2	4.386567E-3	1.255788E-2	2.173061E-2	3.225682E-2	1.688720E-2	1.501677E-2	1.834300E-2	2.068063E-2	-7.324669E-5	1.056082E-2	1.637845E-2	2.658889E-2	1.444830E-2	1.958665E-2	2.766047E-2	2.533083E-2	3.751980E-2	2.858388E-2	1.924590E-2	1.839591E-2	1.223627E-2	3.345766E-2	1.096805E-2	2.638293E-2	2.144623E-2	2.597616E-2	1.665219E-2	5.427873E-3	1.693123E-2	2.309085E-2	2.007043E-2	4.694741E-3	2.317800E-2	3.668155E-2	2.711918E-2	1.876921E-2	2.145281E-2	2.933154E-2	1.448192E-2	3.257685E-2	8.071614E-3	2.124794E-2	1.279937E-2	9.089254E-3	2.084906E-2	1.937809E-2	1.482233E-2	1.947506E-2	2.184619E-2	1.983415E-2	1.625407E-2	1.694908E-2	2.358850E-2	1.376778E-2	8.494166E-4	2.731904E-2	7.523483E-3	9.734582E-3	1.566874E-2	1.177244E-2	3.259975E-2	1.782624E-2	2.251226E-2	3.475919E-2	3.031922E-2	1.374382E-2	1.404390E-2	1.381475E-2	2.979991E-2	3.206899E-2	1.890186E-2	1.535170E-2	1.213153E-2	1.902314E-2	9.253090E-3	2.024038E-2	2.992239E-2	3.041934E-2	1.417181E-2	7.654630E-4	3.148614E-2	7.273427E-3	2.949487E-2	2.317431E-2	1.939673E-2	3.179603E-3	1.802967E-2	2.053014E-2	6.748185E-3	1.147214E-2	2.083802E-2	3.198198E-2	3.518825E-2	2.356769E-2	9.217735E-3	1.180699E-2	3.113923E-2	-7.009377E-4	1.795975E-2	1.615602E-2	1.250433E-2	1.873306E-2	2.666221E-2	2.002425E-2	3.630499E-2	1.076042E-2	2.769796E-2	2.807911E-2	1.163995E-2	1.930286E-2	2.777033E-2	1.749836E-2	3.437102E-2	1.237632E-2	1.589603E-2	3.659367E-2	1.490818E-2	4.847818E-3	2.352031E-2	1.370992E-2	1.751266E-2	1.590879E-2	2.452884E-2	1.698616E-2	6.733579E-3	2.685727E-2	2.233156E-2	4.508211E-2	2.085576E-2	2.276505E-2	-5.288238E-3	1.158443E-2	1.649268E-2	6.890451E-3	5.380496E-2
2.840030E+2	4.937506E-2	3.479141E-2	5.660232E-2	4.422570E-2	1.867304E-2	5.038201E-2	4.846471E-2	4.282274E-2	2.858586E-2	3.234548E-2	3.932352E-2	5.032107E-2	4.961763E-2	6.046130E-2	4.752523E-2	5.267393E-2	5.892517E-2	4.960000E-2	4.082575E-2	3.142168E-2	3.617981E-2	2.852783E-2	3.158922E-2	3.597867E-2	5.413580E-2	4.515089E-2	5.092145E-2	4.344082E-2	5.921405E-2	5.109958E-2	2.869997E-2	6.333617E-2	1.961924E-2	5.631523E-2	3.394051E-2	3.338891E-2	3.911086E-2	5.192585E-2	5.595805E-2	3.499447E-2	4.023861E-2	5.338541E-2	4.040179E-2	5.752107E-2	3.399663E-2	3.881228E-2	5.990164E-2	2.775818E-2	4.354547E-2	5.710573E-2	4.215988E-2	4.104099E-2	4.577689E-2	5.796472E-2	4.810843E-2	5.939602E-2	4.612092E-2	4.439930E-2	3.705234E-2	2.856870E-2	1.140605E-2	4.975734E-2	2.027134E-2	4.511972E-2	3.480169E-2	2.393830E-2	2.911422E-2	5.263264E-2	3.811296E-2	3.320960E-2	4.045446E-2	5.398967E-2	3.616475E-2	5.288900E-2	4.293137E-2	5.483469E-2	5.010377E-2	4.907747E-2	4.212188E-2	4.689558E-2	4.438885E-2	5.409998E-2	4.081845E-2	5.227986E-2	5.132031E-2	6.367955E-2	3.070950E-2	3.917865E-2	4.457088E-2	3.734755E-2	4.002970E-2	2.216111E-2	5.117719E-2	3.908660E-2	2.160333E-2	5.768356E-2	5.145497E-2	1.967389E-2	2.709336E-2	5.299506E-2	4.047034E-2	5.106009E-2	1.916586E-2	5.509615E-2	3.359288E-2	2.738852E-2	3.767410E-2	4.239666E-2	3.447180E-2	3.274691E-2	5.934440E-2	5.752535E-2	3.027975E-2	4.467256E-2	3.942552E-2	4.074808E-2	5.250891E-2	4.353754E-2	4.363209E-2	4.417028E-2	4.899574E-2	5.560983E-2	5.395340E-2	4.488573E-2	4.829556E-2	3.708902E-2	3.112774E-2	4.854913E-2	3.820831E-2	3.729347E-2	4.456763E-2	4.164139E-2	3.153358E-2	4.579703E-2	4.575469E-2	3.830476E-2	3.333581E-2	6.425778E-2	3.788412E-2	3.616333E-2	3.369553E-2	6.078659E-2	5.755603E-2	4.720125E-2	3.935809E-2	5.041999E-2	4.600708E-2	5.088799E-2	3.935515E-2	4.164874E-2	2.243166E-2	4.229006E-2	5.489938E-2	4.583584E-2	2.164236E-2	2.554882E-2	1.950151E-2	5.073704E-2	4.126839E-2	5.671307E-2	4.542460E-2	3.887411E-2	4.913520E-2	3.599838E-2	4.295066E-2	4.983216E-2	5.367230E-2	3.624292E-2	5.211859E-2	3.042554E-2
2.841030E+2	3.382038E-2	3.519121E-2	5.188145E-2	3.392189E-2	3.334426E-2	2.637537E-2	4.514718E-2	3.141149E-2	6.708692E-2	4.190922E-2	5.000319E-2	3.808978E-2	3.300132E-2	5.515738E-2	3.702115E-2	4.283596E-2	5.944867E-2	3.346198E-2	3.066514E-2	3.560873E-2	5.312390E-2	3.571822E-2	5.883653E-2	4.173096E-2	5.204511E-2	4.932928E-2	4.915201E-2	4.512564E-2	3.597598E-2	4.036008E-2	5.929168E-2	4.540291E-2	2.139809E-2	5.552597E-2	2.735348E-2	3.874936E-2	5.127367E-2	4.428533E-2	5.244468E-2	4.613084E-2	7.785182E-2	2.859704E-2	4.527794E-2	5.573303E-2	5.351403E-2	4.721586E-2	5.937953E-2	3.819946E-2	5.620335E-2	4.855097E-2	4.262454E-2	5.255307E-2	4.055446E-2	4.629609E-2	4.137527E-2	5.342753E-2	6.035075E-2	5.575201E-2	5.895397E-2	5.831222E-2	2.971175E-2	3.906399E-2	4.330748E-2	3.503632E-2	3.786362E-2	4.197471E-2	6.853973E-2	4.929744E-2	3.381264E-2	4.704719E-2	3.684125E-2	2.833221E-2	4.057569E-2	1.174255E-2	4.231716E-2	2.148174E-2	4.563107E-2	4.696438E-2	2.089948E-2	6.062536E-2	3.786432E-2	5.335735E-2	3.053338E-2	5.974344E-2	7.301836E-2	3.847139E-2	5.559712E-2	2.801432E-2	2.955968E-2	6.131462E-2	4.181476E-2	5.166866E-2	4.948579E-2	3.959465E-2	4.213535E-2	5.716221E-2	2.770932E-2	4.408401E-2	4.890242E-2	3.200094E-2	3.289194E-2	3.879370E-2	6.039290E-2	3.763395E-2	4.834979E-2	5.508745E-2	5.739152E-2	3.582675E-2	3.760759E-2	4.634356E-2	4.801726E-2	5.344823E-2	5.035583E-2	4.247129E-2	2.892146E-2	5.703958E-2	3.704609E-2	4.755027E-2	5.745528E-2	5.284059E-2	3.782387E-2	2.920449E-2	4.881703E-2	4.297644E-2	4.783556E-2	5.983932E-2	4.389754E-2	2.318008E-2	3.339266E-2	4.555449E-2	4.380994E-2	2.920247E-2	3.709620E-2	5.802730E-2	4.741826E-2	4.734933E-2	1.780057E-2	6.615211E-2	2.997717E-2	5.360055E-2	3.809626E-2	4.481602E-2	6.841725E-2	2.884218E-2	4.143212E-2	4.825929E-2	4.652736E-2	6.352354E-2	3.729670E-2	4.838139E-2	4.647197E-2	3.443733E-2	2.948133E-2	2.507175E-2	4.063716E-2	5.870447E-2	1.232981E-2	3.452762E-2	5.243313E-2	4.890998E-2	3.883281E-2	4.969220E-2	4.723690E-2	5.889650E-2	6.912933E-2	3.293129E-2	4.966368E-2	3.198504E-2	6.755017E-2	5.595046E-2
2.842040E+2	4.761382E-2	3.854814E-2	7.872136E-2	7.084814E-2	3.508663E-2	6.879624E-2	5.718548E-2	5.690906E-2	5.408955E-2	6.342407E-2	5.165224E-2	5.718870E-2	5.291125E-2	7.669263E-2	5.458057E-2	6.419113E-2	6.379552E-2	4.803515E-2	7.017841E-2	6.904004E-2	4.148480E-2	5.771630E-2	7.183307E-2	6.462003E-2	6.953981E-2	4.361073E-2	6.466008E-2	5.782577E-2	6.299603E-2	7.584450E-2	7.658617E-2	6.232634E-2	5.907631E-2	4.695067E-2	4.875303E-2	6.020774E-2	5.646151E-2	6.837442E-2	7.045751E-2	6.392291E-2	5.287629E-2	5.177143E-2	6.016287E-2	6.210751E-2	6.239239E-2	7.853311E-2	6.092244E-2	4.752039E-2	6.863920E-2	6.724578E-2	5.995904E-2	5.057909E-2	6.854230E-2	5.190933E-2	7.914954E-2	7.484301E-2	5.446140E-2	6.577060E-2	7.987726E-2	6.100011E-2	4.840692E-2	4.181943E-2	5.140312E-2	7.182156E-2	7.147414E-2	5.887534E-2	8.113894E-2	5.916421E-2	7.401349E-2	4.780362E-2	5.919451E-2	7.944500E-2	4.771410E-2	7.636076E-2	8.998009E-2	7.261374E-2	4.624694E-2	3.042133E-2	6.094538E-2	6.459902E-2	6.937829E-2	5.907399E-2	6.361176E-2	3.942228E-2	8.564694E-2	5.750413E-2	6.905686E-2	4.639465E-2	7.437608E-2	5.341554E-2	8.020511E-2	6.577950E-2	5.354279E-2	6.503468E-2	6.418025E-2	6.210605E-2	4.580461E-2	6.206499E-2	6.426966E-2	7.074161E-2	5.578578E-2	6.865960E-2	5.768173E-2	4.857560E-2	5.782962E-2	7.942193E-2	6.706930E-2	6.588474E-2	5.254498E-2	5.648191E-2	7.273945E-2	5.988102E-2	7.755315E-2	5.515968E-2	5.156933E-2	7.733974E-2	4.998027E-2	6.685608E-2	6.114812E-2	7.063800E-2	6.781028E-2	4.571270E-2	5.288834E-2	7.953059E-2	5.916794E-2	6.868515E-2	7.697505E-2	8.495262E-2	5.149671E-2	8.131641E-2	5.845465E-2	8.163220E-2	5.412089E-2	5.510735E-2	4.686191E-2	7.008344E-2	6.862459E-2	5.911540E-2	6.310025E-2	5.627205E-2	6.461872E-2	5.250185E-2	4.726761E-2	8.426335E-2	6.258429E-2	5.011222E-2	7.103323E-2	7.637250E-2	6.676057E-2	4.895294E-2	5.947952E-2	5.661607E-2	5.523598E-2	8.224142E-2	7.038842E-2	4.523808E-2	5.579490E-2	5.792440E-2	4.879671E-2	7.534239E-2	5.273823E-2	7.230886E-2	6.148622E-2	6.351117E-2	7.628689E-2	5.331320E-2	6.409543E-2	6.921896E-2	8.749845E-2	2.494730E-2
2.843030E+2	9.971835E-2	9.536313E-2	1.178835E-1	9.169380E-2	9.211872E-2	8.814839E-2	8.994123E-2	1.032299E-1	9.567042E-2	1.023622E-1	1.108947E-1	1.118832E-1	7.303445E-2	1.103662E-1	1.081243E-1	8.377730E-2	7.971273E-2	7.943599E-2	1.211117E-1	8.865517E-2	9.553368E-2	1.064124E-1	9.665510E-2	9.109281E-2	9.903476E-2	8.632742E-2	8.497482E-2	8.908265E-2	7.945639E-2	9.474337E-2	9.531570E-2	8.389218E-2	7.518393E-2	9.265497E-2	1.200218E-1	8.558001E-2	8.536682E-2	8.431895E-2	8.569818E-2	9.611240E-2	8.567736E-2	1.060133E-1	7.856424E-2	6.719394E-2	8.706249E-2	8.955469E-2	1.085798E-1	8.970470E-2	1.101414E-1	1.057688E-1	6.762923E-2	1.020244E-1	9.688003E-2	8.827851E-2	8.191793E-2	9.445792E-2	1.233973E-1	1.131682E-1	9.748360E-2	7.402989E-2	1.003605E-1	9.981852E-2	1.045633E-1	1.179744E-1	8.929684E-2	8.532655E-2	7.337234E-2	1.002794E-1	9.152545E-2	1.026607E-1	9.028761E-2	8.126250E-2	1.043172E-1	9.230232E-2	7.594166E-2	7.914837E-2	1.129763E-1	9.452769E-2	6.146867E-2	9.986451E-2	9.390125E-2	9.586967E-2	1.042554E-1	7.945197E-2	8.747634E-2	8.528377E-2	8.591422E-2	1.044586E-1	9.077210E-2	1.131050E-1	1.089001E-1	1.086485E-1	9.624487E-2	8.353117E-2	1.030239E-1	9.773127E-2	7.883699E-2	8.812140E-2	1.176384E-1	7.879517E-2	8.242675E-2	1.013186E-1	1.188878E-1	1.114680E-1	9.948961E-2	8.882463E-2	9.285655E-2	9.625259E-2	1.101846E-1	9.205640E-2	9.119691E-2	8.995437E-2	7.922946E-2	6.896290E-2	8.181745E-2	1.019522E-1	6.022830E-2	9.704836E-2	8.460379E-2	9.272538E-2	8.845603E-2	1.019819E-1	8.865621E-2	1.160551E-1	1.345190E-1	1.169439E-1	8.676939E-2	1.228350E-1	8.460627E-2	1.030326E-1	9.256787E-2	7.011758E-2	1.200862E-1	1.078676E-1	8.313578E-2	8.355720E-2	8.828256E-2	7.602695E-2	8.309966E-2	1.220561E-1	9.133581E-2	1.084008E-1	1.020446E-1	8.614173E-2	7.761817E-2	8.854276E-2	6.883945E-2	1.052934E-1	8.306544E-2	1.059404E-1	8.974504E-2	7.736605E-2	1.044747E-1	8.660332E-2	9.815241E-2	8.324361E-2	6.251149E-2	1.291632E-1	1.151955E-1	9.430716E-2	1.017854E-1	1.201045E-1	7.315888E-2	1.108301E-1	9.630359E-2	1.035220E-1	1.329250E-1	7.428143E-2	1.008675E-1	1.028112E-1
2.844010E+2	1.610778E-1	1.813211E-1	1.274760E-1	1.509615E-1	1.482330E-1	1.369217E-1	1.266726E-1	1.471640E-1	1.185010E-1	1.400640E-1	1.551879E-1	1.429221E-1	1.292701E-1	1.462264E-1	1.595588E-1	1.391811E-1	1.592956E-1	1.240648E-1	1.177390E-1	1.469199E-1	1.474777E-1	1.793147E-1	1.675440E-1	1.238955E-1	1.511385E-1	1.356122E-1	1.637965E-1	1.116805E-1	1.715842E-1	1.478094E-1	1.285065E-1	1.554089E-1	1.162658E-1	1.386915E-1	1.499767E-1	1.297470E-1	1.407085E-1	1.466494E-1	1.183517E-1	1.478244E-1	1.553781E-1	1.346179E-1	1.408376E-1	1.352934E-1	1.397566E-1	1.490083E-1	1.429208E-1	1.308057E-1	1.463573E-1	1.456239E-1	1.509327E-1	1.524087E-1	1.506697E-1	1.408117E-1	1.400964E-1	1.303664E-1	1.606937E-1	1.439848E-1	1.438807E-1	1.341294E-1	1.434358E-1	1.252972E-1	1.411475E-1	1.344851E-1	1.357759E-1	1.658264E-1	1.520325E-1	1.494030E-1	1.539360E-1	1.574468E-1	1.644719E-1	1.422571E-1	1.410696E-1	1.350639E-1	1.560086E-1	1.559782E-1	1.325487E-1	1.403169E-1	1.729896E-1	1.394637E-1	1.546749E-1	1.445470E-1	1.743324E-1	1.523694E-1	1.296766E-1	1.420030E-1	1.274417E-1	1.465123E-1	1.334097E-1	1.437820E-1	1.258050E-1	1.649654E-1	1.602481E-1	1.524429E-1	1.546907E-1	1.564029E-1	1.480425E-1	1.538401E-1	1.288204E-1	1.493803E-1	1.257564E-1	1.624447E-1	1.315670E-1	1.393789E-1	1.580476E-1	1.359086E-1	1.254003E-1	1.617578E-1	1.397962E-1	1.592938E-1	1.662189E-1	1.377819E-1	1.636172E-1	1.559000E-1	1.609506E-1	1.843116E-1	1.615766E-1	1.247022E-1	1.182991E-1	1.784796E-1	1.498753E-1	1.197304E-1	1.433430E-1	1.484907E-1	1.306579E-1	1.602967E-1	1.577083E-1	1.471408E-1	1.578807E-1	1.722058E-1	1.411172E-1	1.408651E-1	1.448779E-1	1.379783E-1	1.532760E-1	1.156085E-1	1.714555E-1	1.576357E-1	1.411054E-1	1.222773E-1	1.090923E-1	1.389384E-1	1.453677E-1	1.507455E-1	1.734790E-1	1.643553E-1	1.331570E-1	1.190996E-1	1.540320E-1	1.428351E-1	1.692822E-1	1.408982E-1	1.450479E-1	1.290630E-1	1.316300E-1	1.448508E-1	1.379266E-1	1.343142E-1	1.469289E-1	1.417756E-1	1.809672E-1	1.216481E-1	1.441296E-1	1.444876E-1	1.398565E-1	1.776223E-1	1.535677E-1	1.451303E-1	1.659347E-1	1.287011E-1
2.845030E+2	2.179840E-1	2.117302E-1	2.325325E-1	2.243359E-1	1.885379E-1	2.094854E-1	1.831272E-1	1.853020E-1	1.724118E-1	2.090998E-1	1.789253E-1	2.291337E-1	2.202918E-1	1.913285E-1	2.014423E-1	2.187905E-1	2.142974E-1	2.103791E-1	1.966890E-1	2.173457E-1	1.791549E-1	2.266594E-1	2.243658E-1	2.040137E-1	2.422434E-1	2.232274E-1	2.753481E-1	2.081969E-1	2.263790E-1	2.140841E-1	2.038144E-1	2.007605E-1	2.233779E-1	2.350703E-1	2.221406E-1	2.184596E-1	2.411154E-1	2.297939E-1	2.344563E-1	1.900612E-1	2.320126E-1	2.468193E-1	2.426621E-1	1.812758E-1	2.090480E-1	2.186460E-1	2.233440E-1	2.225473E-1	2.189544E-1	2.285301E-1	2.139323E-1	2.097292E-1	2.083102E-1	2.328405E-1	2.041768E-1	2.048684E-1	2.176624E-1	2.212587E-1	1.833701E-1	2.007136E-1	2.182654E-1	1.840849E-1	2.035375E-1	2.003095E-1	2.034680E-1	2.106662E-1	2.239556E-1	1.917480E-1	2.350946E-1	1.873237E-1	2.436516E-1	2.150335E-1	2.225603E-1	2.178091E-1	2.204771E-1	2.366858E-1	2.116580E-1	2.425462E-1	2.330998E-1	1.940051E-1	2.242578E-1	2.118605E-1	2.174550E-1	2.305008E-1	2.329738E-1	2.153816E-1	1.954525E-1	1.910804E-1	1.609514E-1	2.223491E-1	1.859774E-1	2.264012E-1	2.178577E-1	2.206270E-1	2.674634E-1	2.055639E-1	2.345552E-1	2.005482E-1	1.846445E-1	1.933918E-1	2.200412E-1	2.085295E-1	2.363087E-1	2.135440E-1	2.090940E-1	2.188653E-1	1.998440E-1	1.974590E-1	2.039807E-1	2.086716E-1	2.150271E-1	2.074920E-1	2.268743E-1	2.224996E-1	2.066520E-1	2.510416E-1	1.719924E-1	1.872029E-1	1.974812E-1	2.068102E-1	2.087961E-1	2.215521E-1	2.175227E-1	2.212581E-1	2.505005E-1	2.293206E-1	2.419759E-1	2.369822E-1	1.885327E-1	2.098497E-1	2.187749E-1	2.186469E-1	2.087217E-1	2.440543E-1	2.093181E-1	2.130598E-1	2.190259E-1	2.020566E-1	2.180651E-1	2.507191E-1	2.100633E-1	2.221263E-1	1.784274E-1	2.132403E-1	2.232450E-1	2.170550E-1	2.287994E-1	2.380642E-1	2.213863E-1	2.067367E-1	2.114592E-1	2.243607E-1	2.533454E-1	1.886123E-1	1.975370E-1	2.154944E-1	2.083823E-1	1.975747E-1	1.647712E-1	2.186430E-1	2.291009E-1	1.907341E-1	2.219142E-1	1.978244E-1	2.682438E-1	1.913102E-1	2.323792E-1	2.069537E-1	2.097404E-1	2.463909E-1
2.846060E+2	3.794674E-1	3.972465E-1	3.477079E-1	3.785767E-1	3.782692E-1	3.494747E-1	3.796113E-1	3.780325E-1	3.793763E-1	3.656210E-1	3.806432E-1	3.875599E-1	3.691741E-1	3.629590E-1	3.820399E-1	3.761344E-1	3.914901E-1	3.607463E-1	3.602503E-1	3.939906E-1	3.677446E-1	4.238250E-1	3.920710E-1	3.658634E-1	3.924239E-1	3.898168E-1	3.447909E-1	4.049348E-1	4.339307E-1	3.947041E-1	3.991036E-1	3.773161E-1	4.280235E-1	4.014425E-1	3.743164E-1	3.818688E-1	3.854916E-1	4.272438E-1	3.964997E-1	3.711060E-1	3.659640E-1	3.933325E-1	3.761846E-1	4.028502E-1	4.019505E-1	4.262914E-1	3.726386E-1	3.686824E-1	3.847784E-1	3.711883E-1	3.575124E-1	3.847475E-1	3.984671E-1	4.093491E-1	3.822959E-1	3.737116E-1	4.037461E-1	3.896118E-1	4.176783E-1	3.543085E-1	3.775024E-1	3.778643E-1	4.209389E-1	3.912774E-1	3.553774E-1	4.068009E-1	4.131659E-1	4.097012E-1	4.046186E-1	4.169659E-1	3.912829E-1	3.784544E-1	4.245163E-1	3.585849E-1	3.897811E-1	4.067272E-1	3.885634E-1	3.910883E-1	4.407486E-1	3.600771E-1	4.223164E-1	3.707360E-1	4.110492E-1	4.088086E-1	3.654987E-1	4.097350E-1	4.076094E-1	3.666973E-1	4.385417E-1	3.934372E-1	3.559709E-1	4.038536E-1	4.163914E-1	3.487859E-1	4.119075E-1	3.929355E-1	4.316922E-1	4.157044E-1	4.248622E-1	4.261991E-1	3.995736E-1	3.849210E-1	3.496281E-1	4.233611E-1	3.887053E-1	3.880752E-1	3.878075E-1	3.810057E-1	3.551152E-1	3.947866E-1	3.507617E-1	3.821950E-1	3.626409E-1	3.882837E-1	4.460412E-1	3.643570E-1	3.854514E-1	3.790162E-1	3.816926E-1	3.921299E-1	4.070566E-1	3.693334E-1	3.566147E-1	3.556107E-1	4.098093E-1	3.398020E-1	3.933849E-1	4.002270E-1	3.420096E-1	3.829630E-1	3.932887E-1	3.750002E-1	4.111730E-1	3.628132E-1	3.748853E-1	4.254989E-1	4.134291E-1	3.642972E-1	3.787113E-1	3.654305E-1	3.991379E-1	3.915609E-1	4.105677E-1	3.947771E-1	4.092912E-1	3.937503E-1	3.523577E-1	4.045806E-1	4.145557E-1	3.899803E-1	3.883997E-1	3.630637E-1	4.016655E-1	3.747744E-1	3.454232E-1	3.561110E-1	4.193156E-1	4.290311E-1	3.613164E-1	3.995853E-1	3.965161E-1	3.646454E-1	3.933566E-1	3.979463E-1	3.509958E-1	4.110329E-1	3.847690E-1	4.128086E-1	4.334983E-1	4.034546E-1
2.847000E+2	7.466976E-1	8.399654E-1	7.661102E-1	7.705364E-1	8.246059E-1	8.214750E-1	7.029869E-1	7.361785E-1	7.765623E-1	7.281681E-1	7.736638E-1	7.615639E-1	7.441051E-1	7.097652E-1	7.696509E-1	7.606309E-1	7.867141E-1	7.714821E-1	7.758677E-1	8.104130E-1	7.883967E-1	8.081438E-1	7.932597E-1	7.654744E-1	7.949352E-1	8.558215E-1	8.428770E-1	7.814670E-1	7.866694E-1	8.271989E-1	8.008535E-1	8.469547E-1	8.574494E-1	8.381525E-1	8.433481E-1	7.697625E-1	7.892662E-1	7.839043E-1	8.470153E-1	8.020310E-1	8.141661E-1	7.711701E-1	7.533773E-1	7.647297E-1	7.958101E-1	8.008977E-1	7.824834E-1	7.936784E-1	7.667677E-1	7.601373E-1	8.484909E-1	7.693801E-1	8.392595E-1	8.404669E-1	7.057293E-1	7.852522E-1	7.744596E-1	7.320936E-1	7.794466E-1	7.518056E-1	7.364133E-1	7.771798E-1	7.289167E-1	7.981834E-1	8.561677E-1	7.516076E-1	8.149647E-1	8.531267E-1	7.792696E-1	8.037518E-1	8.316127E-1	8.077336E-1	7.455220E-1	7.619735E-1	7.864824E-1	8.006913E-1	7.324829E-1	8.122093E-1	7.704160E-1	7.572591E-1	7.746865E-1	7.403444E-1	8.400967E-1	7.803673E-1	7.686194E-1	7.701939E-1	7.922062E-1	7.368138E-1	7.693707E-1	7.121114E-1	8.659644E-1	7.874785E-1	7.981194E-1	8.219756E-1	8.121353E-1	8.119058E-1	8.448956E-1	7.708295E-1	7.818350E-1	8.457261E-1	7.230790E-1	7.739378E-1	8.300366E-1	7.793144E-1	8.236786E-1	7.876510E-1	7.662931E-1	8.177577E-1	7.982176E-1	7.569330E-1	7.918061E-1	7.312456E-1	7.884241E-1	7.897966E-1	7.932473E-1	7.994673E-1	7.340289E-1	8.075658E-1	8.146683E-1	8.030965E-1	8.140016E-1	7.985723E-1	7.553960E-1	7.470070E-1	7.687468E-1	8.244768E-1	8.002210E-1	7.811545E-1	7.844771E-1	7.995299E-1	7.852248E-1	7.919086E-1	7.922409E-1	8.553000E-1	8.711731E-1	8.042313E-1	8.098554E-1	7.361411E-1	7.729372E-1	8.549073E-1	7.999138E-1	8.112902E-1	7.608117E-1	8.202758E-1	8.253415E-1	7.695887E-1	7.188268E-1	6.947973E-1	7.731350E-1	8.367840E-1	8.264868E-1	7.098085E-1	7.765409E-1	8.135518E-1	7.961110E-1	8.072335E-1	8.074588E-1	8.532785E-1	7.749429E-1	8.119635E-1	7.489552E-1	6.961953E-1	7.470719E-1	7.959938E-1	7.367523E-1	8.036076E-1	8.462016E-1	7.655281E-1	8.451830E-1	8.005030E-1
2.848020E+2	1.409790E+0	1.389508E+0	1.442514E+0	1.435642E+0	1.481127E+0	1.581977E+0	1.428922E+0	1.528856E+0	1.501073E+0	1.498236E+0	1.500195E+0	1.506529E+0	1.523614E+0	1.476531E+0	1.478545E+0	1.496977E+0	1.428698E+0	1.561639E+0	1.438106E+0	1.530510E+0	1.493391E+0	1.521156E+0	1.451424E+0	1.494100E+0	1.470064E+0	1.470550E+0	1.440128E+0	1.401261E+0	1.509101E+0	1.436811E+0	1.441203E+0	1.548711E+0	1.490618E+0	1.463038E+0	1.506304E+0	1.388268E+0	1.437769E+0	1.446761E+0	1.480539E+0	1.492439E+0	1.498592E+0	1.516854E+0	1.452421E+0	1.457914E+0	1.573791E+0	1.451455E+0	1.466867E+0	1.508650E+0	1.466006E+0	1.419617E+0	1.490932E+0	1.434145E+0	1.442997E+0	1.549747E+0	1.446735E+0	1.431648E+0	1.429111E+0	1.498004E+0	1.454142E+0	1.471678E+0	1.427614E+0	1.522429E+0	1.431468E+0	1.536124E+0	1.410702E+0	1.519011E+0	1.452600E+0	1.470466E+0	1.492221E+0	1.495162E+0	1.417921E+0	1.531332E+0	1.477003E+0	1.484391E+0	1.488609E+0	1.446221E+0	1.457788E+0	1.466886E+0	1.468892E+0	1.544780E+0	1.469650E+0	1.508749E+0	1.455222E+0	1.561435E+0	1.460628E+0	1.594736E+0	1.532604E+0	1.487468E+0	1.457090E+0	1.516909E+0	1.473687E+0	1.470776E+0	1.468560E+0	1.430703E+0	1.573475E+0	1.486548E+0	1.567885E+0	1.404552E+0	1.543046E+0	1.521452E+0	1.540628E+0	1.516680E+0	1.495747E+0	1.432464E+0	1.545253E+0	1.454667E+0	1.474889E+0	1.548747E+0	1.472317E+0	1.473715E+0	1.456795E+0	1.457152E+0	1.397136E+0	1.496143E+0	1.551815E+0	1.484900E+0	1.511226E+0	1.509290E+0	1.384624E+0	1.489952E+0	1.486172E+0	1.480760E+0	1.429173E+0	1.436742E+0	1.410993E+0	1.453395E+0	1.493534E+0	1.457079E+0	1.431589E+0	1.541734E+0	1.426311E+0	1.442711E+0	1.525486E+0	1.503502E+0	1.386835E+0	1.437114E+0	1.436182E+0	1.456012E+0	1.538987E+0	1.441458E+0	1.520925E+0	1.482742E+0	1.434650E+0	1.463174E+0	1.461610E+0	1.458198E+0	1.528492E+0	1.526336E+0	1.490631E+0	1.587317E+0	1.471400E+0	1.450172E+0	1.482610E+0	1.437035E+0	1.459695E+0	1.501230E+0	1.436163E+0	1.466018E+0	1.554868E+0	1.400087E+0	1.371230E+0	1.489433E+0	1.514980E+0	1.476862E+0	1.428133E+0	1.484786E+0	1.431008E+0	1.485419E+0	1.520255E+0	1.504127E+0
2.849010E+2	1.784590E+0	1.792144E+0	1.786290E+0	1.847232E+0	1.724173E+0	1.820075E+0	1.780531E+0	1.712632E+0	1.877326E+0	1.802299E+0	1.899384E+0	1.894918E+0	1.847411E+0	1.796821E+0	1.850059E+0	1.837138E+0	1.822842E+0	1.932405E+0	1.844637E+0	1.771333E+0	1.748772E+0	1.783541E+0	1.801867E+0	1.833765E+0	1.844590E+0	1.810276E+0	1.795609E+0	1.830540E+0	1.780235E+0	1.835685E+0	1.794660E+0	1.778875E+0	1.703311E+0	1.685306E+0	1.739697E+0	1.776749E+0	1.713456E+0	1.821041E+0	1.776370E+0	1.699564E+0	1.858460E+0	1.882144E+0	1.727092E+0	1.765679E+0	1.777713E+0	1.772493E+0	1.591801E+0	1.780846E+0	1.850324E+0	1.807633E+0	1.759861E+0	1.640257E+0	1.766495E+0	1.891920E+0	1.711184E+0	1.838942E+0	1.814242E+0	1.755843E+0	1.768016E+0	1.646411E+0	1.659408E+0	1.821678E+0	1.728729E+0	1.865647E+0	1.819304E+0	1.836212E+0	1.789789E+0	1.932217E+0	1.827996E+0	1.819180E+0	1.865567E+0	1.834116E+0	1.792893E+0	1.834815E+0	1.710165E+0	1.839230E+0	1.839757E+0	1.825603E+0	1.787830E+0	1.842705E+0	1.847948E+0	1.763906E+0	1.794004E+0	1.778238E+0	1.826328E+0	1.785649E+0	1.768839E+0	1.747632E+0	1.739549E+0	1.633105E+0	1.878347E+0	1.819628E+0	1.879429E+0	1.830437E+0	1.859011E+0	1.746768E+0	1.771614E+0	1.823827E+0	1.855042E+0	1.748394E+0	1.787061E+0	1.847575E+0	1.721481E+0	1.818891E+0	1.752997E+0	1.849563E+0	1.787770E+0	1.804931E+0	1.752835E+0	1.780369E+0	1.775964E+0	1.753353E+0	1.740939E+0	1.857526E+0	1.791757E+0	1.779544E+0	1.741116E+0	1.722188E+0	1.806261E+0	1.815807E+0	1.822859E+0	1.781673E+0	1.853538E+0	1.683063E+0	1.768172E+0	1.790434E+0	1.732910E+0	1.775829E+0	1.716668E+0	1.802653E+0	1.673200E+0	1.770573E+0	1.769329E+0	1.913764E+0	1.750907E+0	1.765652E+0	1.798439E+0	1.756216E+0	1.756905E+0	1.731757E+0	1.840315E+0	1.657621E+0	1.852378E+0	1.826935E+0	1.778794E+0	1.756793E+0	1.828688E+0	1.786246E+0	1.777367E+0	1.802463E+0	1.807714E+0	1.827428E+0	1.715677E+0	1.731181E+0	1.797591E+0	1.731078E+0	1.773112E+0	1.893134E+0	1.787354E+0	1.775555E+0	1.785605E+0	1.790661E+0	1.761477E+0	1.783777E+0	1.733854E+0	1.720784E+0	1.686280E+0	1.900232E+0	1.959195E+0	1.655975E+0
2.850030E+2	1.712864E+0	1.805658E+0	1.679281E+0	1.717873E+0	1.773495E+0	1.717089E+0	1.699386E+0	1.598400E+0	1.748222E+0	1.636394E+0	1.765371E+0	1.656741E+0	1.652185E+0	1.635542E+0	1.681789E+0	1.708412E+0	1.737491E+0	1.692985E+0	1.676790E+0	1.625553E+0	1.606348E+0	1.699196E+0	1.660455E+0	1.619304E+0	1.691184E+0	1.666572E+0	1.749843E+0	1.717937E+0	1.679263E+0	1.642876E+0	1.616355E+0	1.710127E+0	1.615945E+0	1.681582E+0	1.658787E+0	1.645107E+0	1.711002E+0	1.589660E+0	1.739089E+0	1.587891E+0	1.669298E+0	1.690348E+0	1.740991E+0	1.692774E+0	1.672526E+0	1.681575E+0	1.637469E+0	1.784993E+0	1.664920E+0	1.738626E+0	1.672750E+0	1.663529E+0	1.690474E+0	1.803717E+0	1.656344E+0	1.568930E+0	1.759173E+0	1.594111E+0	1.713349E+0	1.542239E+0	1.630948E+0	1.733750E+0	1.649658E+0	1.672582E+0	1.641724E+0	1.702547E+0	1.677881E+0	1.628097E+0	1.720440E+0	1.734928E+0	1.586793E+0	1.744938E+0	1.748823E+0	1.644205E+0	1.617039E+0	1.662421E+0	1.642288E+0	1.681365E+0	1.632892E+0	1.679622E+0	1.661540E+0	1.619600E+0	1.713601E+0	1.713581E+0	1.750671E+0	1.727601E+0	1.675099E+0	1.661745E+0	1.614078E+0	1.719484E+0	1.709352E+0	1.590731E+0	1.625025E+0	1.729677E+0	1.583030E+0	1.720546E+0	1.732390E+0	1.574343E+0	1.696543E+0	1.712267E+0	1.664471E+0	1.613355E+0	1.656043E+0	1.616929E+0	1.692819E+0	1.756332E+0	1.631865E+0	1.685406E+0	1.669920E+0	1.686789E+0	1.750777E+0	1.636292E+0	1.654674E+0	1.677530E+0	1.655437E+0	1.763890E+0	1.556507E+0	1.623408E+0	1.552906E+0	1.696255E+0	1.597444E+0	1.678912E+0	1.640239E+0	1.719729E+0	1.757616E+0	1.712280E+0	1.690377E+0	1.631602E+0	1.694536E+0	1.615629E+0	1.702249E+0	1.645643E+0	1.669715E+0	1.728218E+0	1.608186E+0	1.682786E+0	1.686996E+0	1.677612E+0	1.742141E+0	1.656859E+0	1.668134E+0	1.677615E+0	1.659369E+0	1.632555E+0	1.754386E+0	1.671459E+0	1.629621E+0	1.627970E+0	1.669876E+0	1.772736E+0	1.697072E+0	1.696126E+0	1.694061E+0	1.675370E+0	1.578737E+0	1.669308E+0	1.628932E+0	1.801721E+0	1.681890E+0	1.719377E+0	1.530159E+0	1.782055E+0	1.679312E+0	1.685297E+0	1.642772E+0	1.613401E+0	1.610770E+0	1.603502E+0	1.703587E+0	1.476784E+0
2.851000E+2	1.342418E+0	1.335533E+0	1.260555E+0	1.395454E+0	1.377522E+0	1.393822E+0	1.298491E+0	1.252304E+0	1.321245E+0	1.372420E+0	1.394794E+0	1.341098E+0	1.363772E+0	1.335730E+0	1.416873E+0	1.333955E+0	1.337449E+0	1.358384E+0	1.379915E+0	1.350278E+0	1.359395E+0	1.342495E+0	1.366319E+0	1.338892E+0	1.406274E+0	1.338661E+0	1.307630E+0	1.316913E+0	1.352611E+0	1.334930E+0	1.322261E+0	1.405339E+0	1.283890E+0	1.367603E+0	1.337065E+0	1.312822E+0	1.338884E+0	1.356842E+0	1.391485E+0	1.341898E+0	1.358241E+0	1.376429E+0	1.368882E+0	1.290844E+0	1.327159E+0	1.387732E+0	1.380969E+0	1.308879E+0	1.449299E+0	1.367473E+0	1.283469E+0	1.320024E+0	1.342817E+0	1.292425E+0	1.299104E+0	1.379984E+0	1.394963E+0	1.390747E+0	1.411563E+0	1.338198E+0	1.392366E+0	1.364956E+0	1.396625E+0	1.357729E+0	1.327130E+0	1.371395E+0	1.283649E+0	1.339679E+0	1.358675E+0	1.312945E+0	1.440179E+0	1.298097E+0	1.330495E+0	1.387538E+0	1.403029E+0	1.335219E+0	1.436228E+0	1.344910E+0	1.358328E+0	1.414563E+0	1.379600E+0	1.319231E+0	1.359387E+0	1.286406E+0	1.355534E+0	1.333640E+0	1.325602E+0	1.356671E+0	1.391706E+0	1.360108E+0	1.401083E+0	1.335195E+0	1.418289E+0	1.370924E+0	1.360551E+0	1.401197E+0	1.322308E+0	1.436744E+0	1.393803E+0	1.368222E+0	1.377498E+0	1.326732E+0	1.384565E+0	1.312248E+0	1.431170E+0	1.299508E+0	1.326375E+0	1.495097E+0	1.277915E+0	1.359360E+0	1.375000E+0	1.299549E+0	1.287709E+0	1.406499E+0	1.402672E+0	1.426444E+0	1.383420E+0	1.321468E+0	1.369077E+0	1.329337E+0	1.339181E+0	1.351945E+0	1.309117E+0	1.363805E+0	1.345549E+0	1.376797E+0	1.406160E+0	1.362652E+0	1.284404E+0	1.309076E+0	1.266279E+0	1.334773E+0	1.361017E+0	1.420085E+0	1.270535E+0	1.388292E+0	1.306911E+0	1.417107E+0	1.308953E+0	1.290493E+0	1.408637E+0	1.395269E+0	1.396011E+0	1.394902E+0	1.426403E+0	1.362233E+0	1.343057E+0	1.453856E+0	1.337985E+0	1.384082E+0	1.379112E+0	1.295623E+0	1.384873E+0	1.451838E+0	1.346340E+0	1.353334E+0	1.335755E+0	1.437149E+0	1.409652E+0	1.327538E+0	1.338766E+0	1.319339E+0	1.352697E+0	1.325287E+0	1.312245E+0	1.359357E+0	1.427330E+0	1.428338E+0	1.329379E+0	1.383253E+0
2.852010E+2	9.472306E-1	9.871701E-1	1.009710E+0	9.388401E-1	9.618050E-1	9.942942E-1	9.336290E-1	9.443118E-1	9.891900E-1	9.487113E-1	9.212191E-1	9.809371E-1	9.092206E-1	9.591483E-1	9.634420E-1	9.571750E-1	9.321600E-1	9.537515E-1	9.002496E-1	9.514302E-1	9.055420E-1	9.118155E-1	9.392119E-1	9.471640E-1	9.730929E-1	9.294461E-1	9.962551E-1	9.777167E-1	9.262754E-1	9.363789E-1	9.144785E-1	9.595534E-1	9.189653E-1	8.914544E-1	9.448186E-1	9.163106E-1	9.284264E-1	1.021281E+0	9.166874E-1	8.979927E-1	9.533198E-1	9.935535E-1	9.766506E-1	9.631934E-1	8.909749E-1	9.580775E-1	9.491911E-1	9.016408E-1	9.438563E-1	8.995827E-1	9.842759E-1	9.637682E-1	8.210324E-1	8.941942E-1	9.285673E-1	9.581975E-1	9.544119E-1	9.762038E-1	9.727204E-1	9.374233E-1	9.528463E-1	9.128159E-1	9.233515E-1	9.296630E-1	9.432375E-1	9.978064E-1	9.521505E-1	9.839150E-1	9.932390E-1	8.969604E-1	8.884878E-1	9.044181E-1	9.336100E-1	1.020283E+0	9.704904E-1	9.301446E-1	9.435716E-1	9.306119E-1	9.779282E-1	9.646388E-1	8.688793E-1	8.558423E-1	9.331428E-1	9.965471E-1	9.896439E-1	1.004470E+0	9.363069E-1	1.009193E+0	9.242431E-1	9.186737E-1	9.687943E-1	9.901835E-1	9.435200E-1	9.455839E-1	8.893509E-1	9.593378E-1	9.391009E-1	9.524284E-1	9.085611E-1	9.623413E-1	9.951009E-1	9.735723E-1	9.516196E-1	9.005532E-1	9.177360E-1	9.671888E-1	9.184112E-1	1.041407E+0	9.176144E-1	8.914930E-1	9.550462E-1	9.091864E-1	8.984603E-1	9.999499E-1	9.650149E-1	1.009490E+0	9.729945E-1	9.842762E-1	9.760044E-1	9.076713E-1	9.293108E-1	9.507862E-1	9.037129E-1	9.449657E-1	9.914224E-1	1.001898E+0	9.884789E-1	9.482784E-1	9.004950E-1	9.076708E-1	9.481846E-1	1.008802E+0	1.003137E+0	1.016100E+0	8.920440E-1	9.643788E-1	9.942214E-1	9.124806E-1	9.090283E-1	9.470036E-1	9.839478E-1	9.605106E-1	9.583930E-1	9.649550E-1	1.033941E+0	9.284720E-1	9.591066E-1	9.938280E-1	8.960496E-1	9.983220E-1	9.005554E-1	9.443530E-1	9.695257E-1	9.196373E-1	9.414332E-1	9.434724E-1	9.575708E-1	9.759898E-1	9.218807E-1	8.971247E-1	9.446067E-1	9.486215E-1	9.485117E-1	9.631822E-1	9.200369E-1	9.077849E-1	9.355241E-1	8.496832E-1	1.054093E+0	9.333731E-1
2.853000E+2	6.517931E-1	6.101962E-1	5.849669E-1	5.789889E-1	6.436274E-1	6.354065E-1	6.310834E-1	5.337759E-1	5.971941E-1	6.406830E-1	6.697045E-1	6.046830E-1	6.069414E-1	5.835546E-1	5.855078E-1	6.705244E-1	5.973582E-1	5.877306E-1	6.010674E-1	6.043759E-1	6.140818E-1	5.959461E-1	6.367456E-1	6.324104E-1	6.478514E-1	6.375408E-1	6.366131E-1	6.039685E-1	6.282165E-1	5.948599E-1	6.150278E-1	6.687074E-1	6.222411E-1	5.872394E-1	6.046920E-1	5.616679E-1	6.250500E-1	6.076940E-1	5.762419E-1	6.433924E-1	6.784674E-1	5.872275E-1	6.616826E-1	5.900617E-1	5.841070E-1	6.319168E-1	6.178301E-1	6.347540E-1	6.145196E-1	6.274308E-1	6.309305E-1	5.929775E-1	6.200776E-1	6.711661E-1	5.686653E-1	6.199421E-1	6.370786E-1	6.623734E-1	5.976315E-1	6.159483E-1	6.304142E-1	5.685430E-1	6.362698E-1	6.179505E-1	5.714389E-1	5.914787E-1	6.357149E-1	6.360929E-1	6.621139E-1	6.625017E-1	5.689859E-1	6.668683E-1	5.954246E-1	6.106551E-1	6.255476E-1	5.921502E-1	5.859192E-1	5.956300E-1	6.200418E-1	5.781939E-1	6.672791E-1	5.927323E-1	5.751406E-1	5.457401E-1	6.521990E-1	6.077541E-1	6.355981E-1	6.080575E-1	6.149408E-1	5.977636E-1	5.830642E-1	6.120841E-1	5.950363E-1	6.235831E-1	6.144024E-1	5.769186E-1	6.316528E-1	5.831749E-1	5.865507E-1	6.415600E-1	6.596263E-1	6.178033E-1	6.097719E-1	6.383458E-1	6.425506E-1	6.216986E-1	6.802338E-1	6.436412E-1	6.152796E-1	6.390175E-1	6.486414E-1	6.643941E-1	5.815975E-1	6.283306E-1	6.154305E-1	5.955242E-1	5.903372E-1	6.344190E-1	5.558044E-1	6.309478E-1	5.784419E-1	5.874679E-1	5.943227E-1	6.637653E-1	6.058400E-1	6.326308E-1	6.489790E-1	6.232385E-1	5.734249E-1	6.060298E-1	6.145607E-1	6.385819E-1	6.074118E-1	6.207666E-1	6.564761E-1	6.644680E-1	5.794858E-1	5.694754E-1	6.119180E-1	6.228075E-1	5.857544E-1	5.952957E-1	6.190673E-1	6.162495E-1	6.222175E-1	6.337566E-1	6.184038E-1	6.888728E-1	6.131465E-1	5.695569E-1	6.421829E-1	6.395190E-1	6.304931E-1	6.157385E-1	6.130659E-1	6.118689E-1	6.151291E-1	6.052994E-1	6.115072E-1	6.523272E-1	6.011260E-1	6.180797E-1	6.330532E-1	6.258904E-1	6.006888E-1	6.616348E-1	5.744788E-1	6.341102E-1	6.032308E-1	5.748354E-1
2.854050E+2	4.795923E-1	4.891614E-1	4.774770E-1	4.463854E-1	4.466919E-1	5.166558E-1	4.448233E-1	4.138848E-1	4.821542E-1	4.441257E-1	4.597245E-1	4.443817E-1	4.599355E-1	4.565787E-1	4.996471E-1	4.746689E-1	3.883620E-1	4.828743E-1	4.983300E-1	4.377135E-1	4.391438E-1	4.428589E-1	4.826726E-1	4.510184E-1	4.512699E-1	4.502786E-1	4.548621E-1	3.969462E-1	4.633489E-1	4.555433E-1	4.233301E-1	4.754306E-1	4.441312E-1	4.522747E-1	4.634118E-1	3.993618E-1	4.190873E-1	4.490948E-1	4.719050E-1	4.862564E-1	4.356939E-1	4.390163E-1	4.566697E-1	4.094702E-1	4.655814E-1	4.626550E-1	4.446432E-1	4.711860E-1	4.679375E-1	4.296240E-1	4.187879E-1	3.834319E-1	4.451317E-1	4.603917E-1	4.293094E-1	4.861984E-1	4.451212E-1	4.394980E-1	4.776897E-1	4.373802E-1	4.812682E-1	4.327549E-1	5.067527E-1	4.705302E-1	4.192003E-1	4.713929E-1	4.823749E-1	4.540792E-1	4.599095E-1	4.507886E-1	4.676866E-1	4.306759E-1	4.837686E-1	4.693975E-1	4.473149E-1	3.890940E-1	4.714866E-1	4.261410E-1	5.250631E-1	4.766154E-1	4.399213E-1	4.609086E-1	4.595918E-1	4.458018E-1	5.430278E-1	4.358976E-1	4.523483E-1	4.602947E-1	4.546391E-1	4.222749E-1	4.823817E-1	4.901260E-1	4.669298E-1	4.828363E-1	4.483320E-1	4.561660E-1	4.919216E-1	4.683216E-1	5.075806E-1	4.869517E-1	4.895859E-1	4.565515E-1	4.869152E-1	4.519379E-1	4.762285E-1	4.209273E-1	4.692413E-1	4.786984E-1	4.494465E-1	4.557888E-1	5.037928E-1	4.715904E-1	4.764955E-1	4.058627E-1	4.167938E-1	4.933860E-1	4.319235E-1	4.704960E-1	4.408879E-1	4.325410E-1	4.669751E-1	4.706981E-1	4.765131E-1	4.259331E-1	4.389216E-1	4.413236E-1	4.860244E-1	5.000325E-1	4.578163E-1	4.773879E-1	4.511112E-1	4.317119E-1	5.053072E-1	4.340374E-1	4.968782E-1	4.425954E-1	4.581410E-1	4.335943E-1	4.795830E-1	4.713781E-1	4.853702E-1	4.781825E-1	4.717728E-1	4.565578E-1	4.354022E-1	4.538193E-1	4.294256E-1	4.787680E-1	4.338661E-1	4.142182E-1	4.178982E-1	4.664424E-1	4.708185E-1	4.613450E-1	4.681034E-1	4.553704E-1	4.247081E-1	4.380345E-1	4.759806E-1	4.225104E-1	4.329666E-1	4.399495E-1	4.590602E-1	4.711216E-1	4.665869E-1	4.756279E-1	4.016513E-1	4.023258E-1	4.809188E-1	4.345545E-1
2.855020E+2	4.019590E-1	3.598461E-1	3.727934E-1	3.802177E-1	4.010849E-1	3.898648E-1	4.039656E-1	4.304462E-1	4.288970E-1	4.149534E-1	4.011097E-1	4.154587E-1	4.143362E-1	3.860594E-1	4.060546E-1	3.728982E-1	4.218585E-1	3.923195E-1	3.884712E-1	3.908182E-1	3.911361E-1	4.097034E-1	3.971649E-1	3.666834E-1	3.867439E-1	3.770533E-1	4.084713E-1	3.867435E-1	4.034363E-1	3.856383E-1	4.380073E-1	4.301170E-1	3.906511E-1	3.918032E-1	4.197964E-1	3.663718E-1	3.955228E-1	3.939918E-1	4.219801E-1	3.836566E-1	3.944411E-1	4.108304E-1	3.884560E-1	4.043871E-1	4.044624E-1	3.908484E-1	3.366755E-1	3.825849E-1	4.263197E-1	3.773602E-1	4.175039E-1	4.264366E-1	4.207750E-1	4.224045E-1	3.807203E-1	4.152199E-1	3.947893E-1	4.318237E-1	4.260599E-1	4.137069E-1	3.792200E-1	3.975167E-1	4.439101E-1	4.476669E-1	3.810241E-1	3.669586E-1	3.972773E-1	4.082178E-1	4.129365E-1	3.718038E-1	4.068856E-1	3.838238E-1	4.057501E-1	4.048354E-1	3.875030E-1	4.282749E-1	3.885235E-1	3.704100E-1	4.111117E-1	4.421011E-1	4.048786E-1	4.205258E-1	4.641373E-1	3.850769E-1	4.134559E-1	4.647593E-1	3.623013E-1	3.940967E-1	4.154701E-1	3.739551E-1	4.164227E-1	4.193315E-1	3.857201E-1	4.244379E-1	3.920888E-1	3.848047E-1	3.667927E-1	3.998202E-1	3.768961E-1	3.947554E-1	3.951742E-1	3.862947E-1	3.954727E-1	4.225431E-1	4.068779E-1	4.542346E-1	4.140983E-1	4.323661E-1	4.145648E-1	3.671410E-1	4.196935E-1	3.886840E-1	3.646939E-1	4.193873E-1	4.037826E-1	4.294623E-1	4.074281E-1	3.999211E-1	3.740466E-1	4.502262E-1	4.090462E-1	4.044084E-1	4.176361E-1	3.907481E-1	3.851504E-1	4.264331E-1	4.370401E-1	3.692229E-1	3.883594E-1	3.788539E-1	4.176890E-1	4.206460E-1	3.921402E-1	4.127732E-1	4.110474E-1	4.172664E-1	4.078996E-1	4.016397E-1	4.406973E-1	3.800833E-1	4.169458E-1	4.165652E-1	4.053931E-1	3.801357E-1	4.141295E-1	3.724969E-1	3.618240E-1	4.455432E-1	4.347595E-1	3.543076E-1	4.290588E-1	4.318087E-1	3.852214E-1	3.940611E-1	4.113234E-1	3.946014E-1	3.741181E-1	4.193864E-1	4.270295E-1	4.082087E-1	4.061829E-1	4.191189E-1	3.908951E-1	3.967336E-1	4.023984E-1	4.018686E-1	4.237800E-1	3.771644E-1	3.682508E-1	3.166811E-1
2.856010E+2	3.958590E-1	3.776590E-1	3.366853E-1	3.622690E-1	3.505220E-1	3.560748E-1	3.711713E-1	3.852653E-1	3.771902E-1	3.324545E-1	3.789064E-1	3.740179E-1	3.363261E-1	3.580390E-1	3.629142E-1	3.625586E-1	4.091732E-1	3.775546E-1	3.693686E-1	4.032731E-1	3.634926E-1	4.115150E-1	3.494972E-1	3.995571E-1	4.178949E-1	3.628580E-1	3.491687E-1	3.976772E-1	3.380363E-1	3.953626E-1	3.883542E-1	4.018269E-1	4.225474E-1	3.385370E-1	3.437618E-1	3.402134E-1	3.780711E-1	4.277530E-1	3.979052E-1	3.468187E-1	4.015208E-1	3.996002E-1	4.177917E-1	3.346827E-1	3.697076E-1	3.546246E-1	3.776101E-1	3.817655E-1	3.684110E-1	4.002140E-1	3.739464E-1	3.658682E-1	3.636916E-1	3.936690E-1	3.868103E-1	3.615919E-1	4.044900E-1	3.999860E-1	3.347835E-1	4.050537E-1	3.675542E-1	3.768867E-1	3.644541E-1	3.578011E-1	3.927226E-1	3.895472E-1	3.678065E-1	3.550776E-1	4.002308E-1	3.767909E-1	3.999669E-1	4.026436E-1	3.485121E-1	3.539557E-1	3.642630E-1	3.911710E-1	3.561146E-1	3.722613E-1	3.615309E-1	3.942816E-1	4.033225E-1	3.904840E-1	3.791946E-1	3.941203E-1	3.804559E-1	3.481735E-1	3.426077E-1	3.721455E-1	3.775116E-1	3.653970E-1	3.624415E-1	3.875631E-1	3.652246E-1	3.817047E-1	3.789306E-1	3.931859E-1	3.802430E-1	3.724745E-1	3.771207E-1	3.593561E-1	4.078130E-1	3.835661E-1	3.570356E-1	3.815268E-1	3.986276E-1	3.793284E-1	3.814831E-1	3.901100E-1	3.737105E-1	3.564529E-1	3.585100E-1	3.763941E-1	3.758568E-1	3.624705E-1	3.718970E-1	3.753192E-1	3.880448E-1	3.784676E-1	3.631677E-1	3.594987E-1	4.058530E-1	3.847454E-1	3.247299E-1	3.505786E-1	3.534946E-1	3.920367E-1	3.618964E-1	3.929408E-1	3.261979E-1	3.504773E-1	3.660974E-1	4.082955E-1	3.995392E-1	3.817474E-1	3.653144E-1	3.614466E-1	3.951565E-1	3.867550E-1	3.897030E-1	3.470836E-1	3.626754E-1	3.626046E-1	3.733380E-1	4.416070E-1	4.421281E-1	3.650655E-1	4.208421E-1	3.813496E-1	3.929817E-1	3.575276E-1	3.835127E-1	3.748291E-1	4.013658E-1	3.851717E-1	3.560835E-1	3.663330E-1	3.646244E-1	4.007895E-1	3.553518E-1	3.769667E-1	3.537986E-1	3.685215E-1	3.627212E-1	4.066824E-1	3.950846E-1	3.930378E-1	4.016021E-1	3.564062E-1	3.856861E-1	2.970997E-1
2.858030E+2	5.746130E-1	5.435662E-1	5.557432E-1	5.191901E-1	5.471080E-1	5.620978E-1	5.523442E-1	5.210835E-1	5.289661E-1	5.383175E-1	5.929201E-1	5.826126E-1	5.995001E-1	5.614422E-1	5.544275E-1	5.369738E-1	5.297332E-1	5.470632E-1	5.054030E-1	5.385697E-1	5.442905E-1	5.415048E-1	5.607625E-1	5.852013E-1	5.737098E-1	5.910484E-1	6.339627E-1	5.571979E-1	6.335206E-1	5.502950E-1	5.307199E-1	5.335166E-1	5.503092E-1	5.189654E-1	5.521644E-1	6.412952E-1	5.842270E-1	5.549455E-1	5.428837E-1	5.530035E-1	5.933950E-1	6.003587E-1	5.624609E-1	5.371373E-1	5.778302E-1	5.254897E-1	5.855303E-1	5.905415E-1	6.077926E-1	5.545306E-1	5.432889E-1	5.493666E-1	5.538668E-1	5.387104E-1	5.463656E-1	5.538949E-1	5.793637E-1	5.480371E-1	5.486283E-1	5.323269E-1	5.501860E-1	5.704264E-1	5.436802E-1	5.561008E-1	5.566048E-1	5.406273E-1	5.441028E-1	5.463209E-1	5.865503E-1	5.849786E-1	5.408338E-1	5.273675E-1	5.366874E-1	5.670316E-1	5.348612E-1	5.661429E-1	5.238589E-1	5.647462E-1	5.418091E-1	5.882847E-1	5.150764E-1	5.753775E-1	5.562806E-1	5.857769E-1	5.790285E-1	5.901426E-1	5.592269E-1	5.528157E-1	5.338954E-1	5.424056E-1	5.814883E-1	5.091354E-1	5.658645E-1	5.517382E-1	5.886281E-1	5.648992E-1	5.931102E-1	5.466127E-1	6.031321E-1	5.844350E-1	5.588247E-1	5.205313E-1	5.440854E-1	5.229731E-1	5.837384E-1	5.810566E-1	5.953519E-1	5.639591E-1	5.427412E-1	5.267887E-1	5.616956E-1	5.595796E-1	5.564490E-1	5.321068E-1	6.021849E-1	5.602381E-1	5.164920E-1	5.490511E-1	5.650804E-1	6.069540E-1	5.309948E-1	5.710803E-1	4.821694E-1	5.325719E-1	5.725591E-1	5.212843E-1	5.863846E-1	5.637255E-1	5.528148E-1	5.534912E-1	5.442440E-1	5.461909E-1	5.969893E-1	5.194816E-1	5.597591E-1	5.268783E-1	5.724977E-1	5.421493E-1	5.149024E-1	5.552041E-1	5.496638E-1	5.675738E-1	5.781968E-1	5.857044E-1	6.381660E-1	5.700207E-1	5.135885E-1	5.265436E-1	5.998744E-1	5.334894E-1	5.600543E-1	5.448178E-1	5.432462E-1	5.487666E-1	5.682284E-1	5.432395E-1	5.522432E-1	5.149391E-1	5.791575E-1	5.065013E-1	6.001118E-1	5.461445E-1	5.453574E-1	5.835811E-1	5.526787E-1	5.985064E-1	5.505574E-1	5.192950E-1	6.588647E-1	4.982794E-1
2.860040E+2	9.420624E-1	8.672820E-1	8.881752E-1	9.059168E-1	9.534533E-1	8.953953E-1	8.873238E-1	8.431189E-1	8.952631E-1	9.080673E-1	8.485812E-1	9.554837E-1	8.810672E-1	8.351631E-1	9.339834E-1	9.467666E-1	9.305118E-1	8.541648E-1	9.218783E-1	9.416275E-1	8.679559E-1	9.263828E-1	9.119746E-1	9.369570E-1	9.348854E-1	9.333390E-1	9.145884E-1	8.866779E-1	9.792267E-1	8.676280E-1	8.924180E-1	9.056993E-1	9.453893E-1	8.639913E-1	8.830791E-1	9.250434E-1	9.269466E-1	8.449763E-1	8.914614E-1	9.027192E-1	9.011763E-1	8.898753E-1	8.955099E-1	8.624928E-1	9.506496E-1	9.064345E-1	8.825972E-1	9.508608E-1	9.267864E-1	9.214748E-1	9.583408E-1	9.187464E-1	8.879422E-1	9.399639E-1	9.192509E-1	9.273407E-1	8.516082E-1	9.269310E-1	9.599243E-1	9.082822E-1	9.065502E-1	9.319750E-1	9.581955E-1	9.114982E-1	8.869874E-1	9.482718E-1	8.523645E-1	9.400393E-1	9.939292E-1	9.635696E-1	8.607369E-1	9.654796E-1	8.697142E-1	9.326314E-1	9.324701E-1	9.107742E-1	8.625034E-1	8.772387E-1	9.312833E-1	9.143810E-1	9.142668E-1	9.125106E-1	9.188740E-1	9.497709E-1	9.908829E-1	9.405594E-1	9.589104E-1	8.661336E-1	9.252067E-1	9.307189E-1	9.163523E-1	9.297477E-1	8.859879E-1	9.010371E-1	9.962950E-1	8.500026E-1	9.201173E-1	7.950639E-1	9.111345E-1	9.220236E-1	8.621191E-1	8.664637E-1	8.904003E-1	8.231462E-1	8.751046E-1	9.221647E-1	8.681340E-1	9.621289E-1	8.919558E-1	8.851263E-1	9.564543E-1	9.136881E-1	8.542982E-1	9.092860E-1	8.585917E-1	9.558303E-1	9.032060E-1	8.692536E-1	9.203404E-1	9.032209E-1	9.328132E-1	9.208629E-1	9.452493E-1	8.373227E-1	9.067436E-1	9.229845E-1	9.542071E-1	9.356479E-1	9.236739E-1	8.733246E-1	9.515282E-1	8.875064E-1	9.717387E-1	9.365610E-1	9.279893E-1	8.602365E-1	9.429237E-1	8.472731E-1	8.811821E-1	8.780133E-1	8.478684E-1	9.414411E-1	9.262118E-1	9.536317E-1	8.854557E-1	9.368356E-1	9.020631E-1	9.380376E-1	9.487295E-1	9.720424E-1	9.471662E-1	9.455913E-1	9.181183E-1	8.799501E-1	9.005230E-1	8.408523E-1	9.200721E-1	8.736200E-1	9.593616E-1	9.098464E-1	8.470482E-1	9.087983E-1	8.698957E-1	9.414524E-1	9.049063E-1	9.007481E-1	9.241498E-1	9.089324E-1	9.143629E-1	8.723085E-1
2.862060E+2	1.205004E+0	1.088349E+0	1.190234E+0	1.201224E+0	1.224019E+0	1.194882E+0	1.283263E+0	1.198371E+0	1.244580E+0	1.138889E+0	1.236145E+0	1.194510E+0	1.169827E+0	1.158298E+0	1.192237E+0	1.220003E+0	1.252551E+0	1.211909E+0	1.134087E+0	1.195891E+0	1.183890E+0	1.163914E+0	1.248962E+0	1.161832E+0	1.182383E+0	1.146271E+0	1.151132E+0	1.246320E+0	1.239972E+0	1.178425E+0	1.221204E+0	1.212738E+0	1.126291E+0	1.162220E+0	1.146718E+0	1.159197E+0	1.231252E+0	1.101880E+0	1.234681E+0	1.179896E+0	1.158927E+0	1.224217E+0	1.132844E+0	1.139423E+0	1.201091E+0	1.161173E+0	1.154409E+0	1.194203E+0	1.196511E+0	1.197193E+0	1.114980E+0	1.142200E+0	1.211657E+0	1.185903E+0	1.149700E+0	1.228989E+0	1.233408E+0	1.124890E+0	1.183081E+0	1.168001E+0	1.162311E+0	1.218905E+0	1.125682E+0	1.165751E+0	1.205196E+0	1.239203E+0	1.236761E+0	1.151658E+0	1.195670E+0	1.267002E+0	1.179289E+0	1.237846E+0	1.224349E+0	1.174372E+0	1.188849E+0	1.120394E+0	1.151100E+0	1.191291E+0	1.222015E+0	1.165923E+0	1.143273E+0	1.204353E+0	1.158124E+0	1.143898E+0	1.230278E+0	1.189116E+0	1.176665E+0	1.178658E+0	1.183902E+0	1.087446E+0	1.255173E+0	1.280804E+0	1.227202E+0	1.192549E+0	1.259681E+0	1.218960E+0	1.209939E+0	1.186104E+0	1.219190E+0	1.192835E+0	1.265004E+0	1.245813E+0	1.166905E+0	1.165781E+0	1.256649E+0	1.154784E+0	1.206411E+0	1.194921E+0	1.209194E+0	1.221826E+0	1.210204E+0	1.310498E+0	1.173397E+0	1.207744E+0	1.240543E+0	1.231029E+0	1.149606E+0	1.221338E+0	1.073700E+0	1.222920E+0	1.225475E+0	1.188474E+0	1.207938E+0	1.145997E+0	1.287234E+0	1.174097E+0	1.121424E+0	1.193613E+0	1.154851E+0	1.186084E+0	1.198681E+0	1.205584E+0	1.183328E+0	1.186115E+0	1.219430E+0	1.162986E+0	1.136626E+0	1.247233E+0	1.169651E+0	1.112884E+0	1.160594E+0	1.139817E+0	1.141659E+0	1.214335E+0	1.305051E+0	1.160059E+0	1.225940E+0	1.243791E+0	1.207106E+0	1.254907E+0	1.227254E+0	1.168608E+0	1.181540E+0	1.182996E+0	1.243372E+0	1.194317E+0	1.127450E+0	1.170792E+0	1.247005E+0	1.124391E+0	1.182755E+0	1.238546E+0	1.197351E+0	1.165835E+0	1.204356E+0	1.278591E+0	1.239463E+0	1.216475E+0	1.246690E+0	1.238785E+0
2.864060E+2	1.083298E+0	1.089850E+0	1.092545E+0	1.140535E+0	1.054992E+0	1.061422E+0	1.107410E+0	1.062380E+0	1.111630E+0	1.086547E+0	1.092831E+0	1.083489E+0	1.060377E+0	1.052518E+0	1.085685E+0	1.033720E+0	1.135674E+0	1.066063E+0	1.038666E+0	1.150916E+0	1.080237E+0	1.117675E+0	1.066009E+0	1.038099E+0	1.034156E+0	1.079250E+0	1.129803E+0	1.091993E+0	1.125448E+0	1.002980E+0	1.081729E+0	1.106188E+0	1.068557E+0	1.078551E+0	1.097511E+0	1.035112E+0	1.054055E+0	1.028590E+0	1.109067E+0	1.031063E+0	1.088655E+0	1.067639E+0	1.093433E+0	1.026326E+0	1.066250E+0	1.028888E+0	1.032599E+0	1.112185E+0	1.091373E+0	1.002464E+0	1.151689E+0	1.010845E+0	1.065912E+0	1.145134E+0	1.047774E+0	1.037826E+0	1.089878E+0	1.120153E+0	1.093393E+0	1.032094E+0	1.119796E+0	1.032906E+0	1.120729E+0	1.095663E+0	1.087720E+0	1.085122E+0	1.025323E+0	1.054086E+0	1.050929E+0	1.092545E+0	1.050650E+0	1.041508E+0	1.079727E+0	1.085157E+0	1.063492E+0	1.126417E+0	1.044103E+0	1.042229E+0	1.064230E+0	1.052346E+0	1.035397E+0	1.027910E+0	1.029077E+0	1.036745E+0	1.046263E+0	1.066097E+0	1.077192E+0	1.025546E+0	1.123980E+0	1.064908E+0	1.143447E+0	1.086992E+0	1.079030E+0	1.109701E+0	1.074598E+0	1.126431E+0	1.142392E+0	1.037851E+0	1.073218E+0	1.031114E+0	1.100678E+0	1.095411E+0	1.079401E+0	1.020213E+0	1.096978E+0	1.115875E+0	1.041835E+0	1.103938E+0	1.091748E+0	1.099994E+0	1.095287E+0	1.038154E+0	1.108055E+0	1.081061E+0	1.069554E+0	1.089817E+0	1.081434E+0	1.082734E+0	1.044744E+0	1.066482E+0	1.119647E+0	1.061489E+0	1.080236E+0	1.035443E+0	9.916087E-1	1.058730E+0	1.137047E+0	1.094946E+0	1.122747E+0	1.023272E+0	1.117383E+0	1.066087E+0	1.032944E+0	1.075032E+0	1.061777E+0	1.100802E+0	1.164603E+0	1.078896E+0	1.031043E+0	9.913924E-1	1.000203E+0	1.068024E+0	1.047117E+0	1.175292E+0	1.100539E+0	1.096133E+0	1.077016E+0	1.109853E+0	1.106810E+0	1.116110E+0	1.028009E+0	1.056160E+0	1.057502E+0	1.101030E+0	1.045809E+0	1.144368E+0	1.123932E+0	1.050060E+0	1.078446E+0	1.103835E+0	1.118464E+0	1.113648E+0	1.026935E+0	1.149670E+0	1.024043E+0	1.096625E+0	1.162138E+0	1.015070E+0	1.139729E+0	1.068655E+0
2.866110E+2	1.269650E+0	1.159436E+0	1.264674E+0	1.217994E+0	1.207389E+0	1.232630E+0	1.254824E+0	1.221003E+0	1.266133E+0	1.198408E+0	1.302961E+0	1.253564E+0	1.279929E+0	1.246220E+0	1.123864E+0	1.294113E+0	1.217286E+0	1.242879E+0	1.178074E+0	1.255857E+0	1.147743E+0	1.210979E+0	1.228033E+0	1.227672E+0	1.226092E+0	1.196082E+0	1.263654E+0	1.178684E+0	1.246259E+0	1.208861E+0	1.220108E+0	1.214283E+0	1.247293E+0	1.182424E+0	1.252932E+0	1.253482E+0	1.207893E+0	1.182106E+0	1.229425E+0	1.207012E+0	1.263837E+0	1.252509E+0	1.167793E+0	1.202042E+0	1.223356E+0	1.225571E+0	1.165848E+0	1.178191E+0	1.248292E+0	1.182681E+0	1.185877E+0	1.276725E+0	1.233406E+0	1.241937E+0	1.180164E+0	1.157699E+0	1.271169E+0	1.225797E+0	1.242213E+0	1.178682E+0	1.243780E+0	1.242884E+0	1.222882E+0	1.282787E+0	1.220033E+0	1.202144E+0	1.232508E+0	1.194840E+0	1.206778E+0	1.184666E+0	1.212597E+0	1.250654E+0	1.271391E+0	1.291755E+0	1.204851E+0	1.196872E+0	1.177522E+0	1.158572E+0	1.234668E+0	1.180483E+0	1.244463E+0	1.235648E+0	1.164289E+0	1.198565E+0	1.134304E+0	1.177329E+0	1.199368E+0	1.172466E+0	1.262449E+0	1.195086E+0	1.200411E+0	1.126148E+0	1.294956E+0	1.171774E+0	1.204112E+0	1.217679E+0	1.209324E+0	1.219188E+0	1.297039E+0	1.238450E+0	1.228535E+0	1.208314E+0	1.215907E+0	1.161809E+0	1.233236E+0	1.200197E+0	1.175703E+0	1.267652E+0	1.219085E+0	1.234577E+0	1.202846E+0	1.263154E+0	1.117974E+0	1.221486E+0	1.165560E+0	1.231840E+0	1.210953E+0	1.202774E+0	1.280611E+0	1.216218E+0	1.212204E+0	1.241954E+0	1.219650E+0	1.215253E+0	1.148943E+0	1.215031E+0	1.288883E+0	1.209053E+0	1.242341E+0	1.237259E+0	1.181001E+0	1.222690E+0	1.210927E+0	1.205558E+0	1.154121E+0	1.235437E+0	1.200006E+0	1.216451E+0	1.182625E+0	1.176026E+0	1.230456E+0	1.155647E+0	1.222557E+0	1.247382E+0	1.234345E+0	1.191568E+0	1.168194E+0	1.159635E+0	1.312456E+0	1.310948E+0	1.161690E+0	1.223120E+0	1.189124E+0	1.177704E+0	1.129798E+0	1.168165E+0	1.250939E+0	1.151858E+0	1.205765E+0	1.134525E+0	1.258873E+0	1.217866E+0	1.218993E+0	1.212224E+0	1.198439E+0	1.218052E+0	1.261285E+0	1.263538E+0	1.153708E+0	1.261670E+0
2.868020E+2	1.601332E+0	1.555462E+0	1.643618E+0	1.601864E+0	1.641889E+0	1.605498E+0	1.637842E+0	1.524764E+0	1.633706E+0	1.592268E+0	1.600942E+0	1.514807E+0	1.533539E+0	1.545041E+0	1.584327E+0	1.571316E+0	1.639996E+0	1.606150E+0	1.514695E+0	1.571604E+0	1.593466E+0	1.544064E+0	1.602637E+0	1.636556E+0	1.577120E+0	1.553057E+0	1.624565E+0	1.625063E+0	1.583379E+0	1.534473E+0	1.616064E+0	1.702618E+0	1.470330E+0	1.486698E+0	1.612610E+0	1.567608E+0	1.534395E+0	1.462026E+0	1.625267E+0	1.534312E+0	1.648937E+0	1.617674E+0	1.605553E+0	1.588835E+0	1.559023E+0	1.522820E+0	1.532184E+0	1.668035E+0	1.573414E+0	1.503674E+0	1.549253E+0	1.515697E+0	1.591071E+0	1.601610E+0	1.498998E+0	1.561221E+0	1.578562E+0	1.586581E+0	1.579921E+0	1.563563E+0	1.604983E+0	1.574340E+0	1.530370E+0	1.574890E+0	1.643053E+0	1.572369E+0	1.587395E+0	1.654345E+0	1.580004E+0	1.530196E+0	1.573474E+0	1.549515E+0	1.544692E+0	1.582822E+0	1.591452E+0	1.606972E+0	1.556988E+0	1.552864E+0	1.602214E+0	1.552787E+0	1.618675E+0	1.598379E+0	1.544358E+0	1.537760E+0	1.502656E+0	1.558079E+0	1.541005E+0	1.540032E+0	1.638354E+0	1.600622E+0	1.628654E+0	1.567612E+0	1.591828E+0	1.592785E+0	1.558923E+0	1.578683E+0	1.564469E+0	1.505689E+0	1.680210E+0	1.588261E+0	1.629714E+0	1.623340E+0	1.541044E+0	1.571235E+0	1.520306E+0	1.576331E+0	1.554842E+0	1.631353E+0	1.529809E+0	1.604855E+0	1.658701E+0	1.609099E+0	1.536539E+0	1.581403E+0	1.590997E+0	1.592816E+0	1.624124E+0	1.598913E+0	1.575242E+0	1.639718E+0	1.565775E+0	1.541928E+0	1.557972E+0	1.602510E+0	1.596450E+0	1.643738E+0	1.577884E+0	1.582502E+0	1.558107E+0	1.632093E+0	1.587243E+0	1.591730E+0	1.489192E+0	1.600162E+0	1.500171E+0	1.638961E+0	1.497160E+0	1.497251E+0	1.556713E+0	1.558383E+0	1.601719E+0	1.591213E+0	1.577239E+0	1.687885E+0	1.629539E+0	1.577946E+0	1.495860E+0	1.578040E+0	1.615943E+0	1.644708E+0	1.532736E+0	1.559261E+0	1.580960E+0	1.579203E+0	1.553564E+0	1.526534E+0	1.625586E+0	1.581450E+0	1.540509E+0	1.536348E+0	1.572990E+0	1.526535E+0	1.555243E+0	1.634364E+0	1.552216E+0	1.571707E+0	1.580836E+0	1.534933E+0	1.612321E+0	1.673366E+0
2.870030E+2	1.269381E+0	1.205659E+0	1.304832E+0	1.325779E+0	1.307835E+0	1.261868E+0	1.353563E+0	1.284377E+0	1.309687E+0	1.279640E+0	1.269453E+0	1.278342E+0	1.288222E+0	1.195279E+0	1.264524E+0	1.291785E+0	1.315926E+0	1.277261E+0	1.263610E+0	1.326950E+0	1.249369E+0	1.213837E+0	1.192270E+0	1.255815E+0	1.329315E+0	1.218343E+0	1.308243E+0	1.240997E+0	1.257653E+0	1.227580E+0	1.226409E+0	1.268247E+0	1.245385E+0	1.246459E+0	1.185126E+0	1.242027E+0	1.257726E+0	1.222569E+0	1.215903E+0	1.299452E+0	1.299988E+0	1.245236E+0	1.275869E+0	1.233645E+0	1.242440E+0	1.238293E+0	1.236847E+0	1.196428E+0	1.294731E+0	1.245650E+0	1.280325E+0	1.113933E+0	1.269392E+0	1.335595E+0	1.265986E+0	1.256747E+0	1.286454E+0	1.336622E+0	1.218265E+0	1.251386E+0	1.240181E+0	1.232029E+0	1.249235E+0	1.301647E+0	1.264852E+0	1.310660E+0	1.268843E+0	1.187696E+0	1.374566E+0	1.320983E+0	1.184929E+0	1.299482E+0	1.260668E+0	1.302322E+0	1.267793E+0	1.249619E+0	1.240751E+0	1.305245E+0	1.222643E+0	1.307894E+0	1.317377E+0	1.235244E+0	1.318092E+0	1.211587E+0	1.280499E+0	1.270050E+0	1.260220E+0	1.287872E+0	1.278439E+0	1.199477E+0	1.272116E+0	1.248528E+0	1.270737E+0	1.301185E+0	1.244290E+0	1.259196E+0	1.289944E+0	1.244978E+0	1.327241E+0	1.276367E+0	1.243335E+0	1.278774E+0	1.254872E+0	1.266203E+0	1.231671E+0	1.329561E+0	1.235519E+0	1.292354E+0	1.149072E+0	1.275700E+0	1.266131E+0	1.343824E+0	1.326671E+0	1.245299E+0	1.229399E+0	1.338273E+0	1.237137E+0	1.323107E+0	1.177912E+0	1.295220E+0	1.299276E+0	1.293834E+0	1.267269E+0	1.231084E+0	1.244799E+0	1.251955E+0	1.317047E+0	1.291252E+0	1.348010E+0	1.212215E+0	1.225047E+0	1.218883E+0	1.244977E+0	1.285407E+0	1.274390E+0	1.213050E+0	1.233340E+0	1.260374E+0	1.245887E+0	1.183413E+0	1.305238E+0	1.253231E+0	1.180686E+0	1.268070E+0	1.317509E+0	1.290475E+0	1.257349E+0	1.307924E+0	1.263701E+0	1.283926E+0	1.258473E+0	1.299190E+0	1.267313E+0	1.218114E+0	1.199981E+0	1.203086E+0	1.298942E+0	1.255008E+0	1.246604E+0	1.276349E+0	1.240357E+0	1.243835E+0	1.227789E+0	1.247303E+0	1.248380E+0	1.255622E+0	1.231098E+0	1.265608E+0	1.475246E+0	1.168454E+0
2.872040E+2	8.971032E-1	8.345324E-1	9.805394E-1	9.340976E-1	8.912249E-1	8.914027E-1	8.616440E-1	8.500408E-1	8.286938E-1	8.447119E-1	8.883956E-1	8.762840E-1	8.867159E-1	8.840852E-1	8.605300E-1	9.318886E-1	8.664748E-1	8.932043E-1	8.919850E-1	8.563418E-1	8.803175E-1	8.910138E-1	8.909437E-1	8.564387E-1	9.098447E-1	9.365198E-1	8.013464E-1	8.668938E-1	9.131033E-1	8.937185E-1	8.505137E-1	9.460582E-1	8.694384E-1	8.713148E-1	8.766170E-1	9.100754E-1	8.880868E-1	7.935735E-1	9.200125E-1	8.460015E-1	9.033833E-1	8.479804E-1	8.628289E-1	8.690433E-1	8.452283E-1	8.303100E-1	8.986549E-1	7.959335E-1	8.577439E-1	8.639662E-1	8.754704E-1	8.994969E-1	9.284716E-1	8.878824E-1	8.480742E-1	8.767659E-1	9.125751E-1	9.166972E-1	8.769568E-1	8.583237E-1	8.723618E-1	8.757157E-1	8.934489E-1	9.131650E-1	8.498416E-1	9.382095E-1	9.324613E-1	9.003385E-1	9.110432E-1	8.728989E-1	8.970899E-1	8.430538E-1	9.451911E-1	8.541004E-1	9.090974E-1	8.707458E-1	8.442317E-1	9.011277E-1	8.790025E-1	9.069026E-1	8.043751E-1	8.197350E-1	8.726336E-1	8.803915E-1	9.305544E-1	9.222893E-1	9.196930E-1	8.656216E-1	8.701734E-1	8.815282E-1	9.141673E-1	9.156395E-1	8.741057E-1	8.540770E-1	8.862162E-1	8.976473E-1	8.313454E-1	8.751350E-1	8.650384E-1	9.550190E-1	9.308771E-1	8.624628E-1	8.661263E-1	8.807008E-1	9.046833E-1	8.550977E-1	9.008752E-1	8.718083E-1	9.072700E-1	8.772740E-1	9.012378E-1	9.122002E-1	8.626496E-1	8.638074E-1	8.383423E-1	8.909755E-1	9.151403E-1	9.133448E-1	8.930507E-1	9.168476E-1	9.416786E-1	9.021774E-1	8.332212E-1	8.884533E-1	9.009433E-1	9.056053E-1	8.893321E-1	8.723042E-1	9.005009E-1	8.237988E-1	8.797004E-1	9.062008E-1	8.833415E-1	8.835965E-1	8.288609E-1	8.771720E-1	8.653502E-1	8.865625E-1	8.478730E-1	8.639411E-1	8.199279E-1	8.453217E-1	8.331222E-1	9.071518E-1	9.305845E-1	9.017381E-1	8.495862E-1	9.393208E-1	8.737939E-1	9.228152E-1	8.703667E-1	8.583268E-1	8.876715E-1	7.836087E-1	9.313366E-1	8.514597E-1	8.381495E-1	9.076408E-1	9.356581E-1	9.462810E-1	9.073818E-1	9.019366E-1	8.341026E-1	8.933189E-1	8.652416E-1	8.707787E-1	9.289067E-1	8.876616E-1	9.086922E-1	7.878223E-1
2.874030E+2	6.035572E-1	6.155873E-1	6.360781E-1	6.510274E-1	6.147105E-1	6.508964E-1	6.315362E-1	5.767653E-1	6.477450E-1	5.892550E-1	6.602886E-1	6.626585E-1	6.357660E-1	6.242086E-1	6.342416E-1	6.119559E-1	6.354307E-1	6.660878E-1	6.374488E-1	6.087940E-1	6.332723E-1	6.598332E-1	5.832238E-1	6.006750E-1	6.048793E-1	6.290014E-1	6.805843E-1	6.149546E-1	6.304870E-1	6.178015E-1	6.048810E-1	6.275159E-1	6.030430E-1	6.442222E-1	6.561106E-1	6.665556E-1	6.184640E-1	6.272136E-1	6.730998E-1	6.412407E-1	6.273794E-1	5.959786E-1	6.411513E-1	6.492829E-1	6.213236E-1	6.019164E-1	6.683534E-1	6.173798E-1	5.922564E-1	6.212749E-1	6.081301E-1	6.224995E-1	6.642170E-1	6.689165E-1	6.340797E-1	6.371360E-1	6.430936E-1	6.689500E-1	6.597688E-1	5.774389E-1	5.920808E-1	5.992623E-1	6.352550E-1	6.176881E-1	6.278824E-1	6.443087E-1	6.637315E-1	6.713159E-1	6.002214E-1	6.458642E-1	6.482772E-1	6.358827E-1	6.802102E-1	6.377240E-1	6.161036E-1	6.254717E-1	6.196565E-1	6.461875E-1	6.435499E-1	6.865926E-1	6.676635E-1	6.185575E-1	6.387016E-1	6.421265E-1	6.721754E-1	6.243020E-1	6.112407E-1	6.161428E-1	6.577829E-1	6.445997E-1	6.495275E-1	6.039852E-1	6.228795E-1	6.272203E-1	7.132232E-1	6.628691E-1	6.389266E-1	6.120246E-1	6.166209E-1	6.873665E-1	6.039369E-1	6.438007E-1	6.481898E-1	6.003917E-1	6.845392E-1	6.122778E-1	5.705215E-1	6.562045E-1	6.128025E-1	6.098991E-1	6.191572E-1	6.754614E-1	6.170937E-1	6.462823E-1	6.129973E-1	6.389140E-1	6.155860E-1	6.646304E-1	6.058020E-1	6.327765E-1	6.093713E-1	6.459419E-1	6.710802E-1	6.339662E-1	6.374860E-1	6.352156E-1	6.220141E-1	6.472680E-1	6.607452E-1	6.045319E-1	6.597429E-1	6.133770E-1	5.966978E-1	6.663907E-1	6.529179E-1	6.368937E-1	7.210122E-1	6.083199E-1	6.312015E-1	6.753029E-1	5.956565E-1	6.394613E-1	6.297248E-1	6.799742E-1	6.370953E-1	6.213224E-1	6.461883E-1	5.757250E-1	6.391065E-1	6.529809E-1	6.547115E-1	6.593160E-1	6.572433E-1	5.904456E-1	6.332603E-1	6.157014E-1	6.206112E-1	6.452117E-1	6.271625E-1	5.870926E-1	6.166343E-1	6.753050E-1	6.358280E-1	6.907705E-1	5.588189E-1	5.835904E-1	6.329068E-1	5.961905E-1	6.750617E-1	5.367381E-1
2.876020E+2	6.144228E-1	5.729738E-1	6.171213E-1	6.162345E-1	5.674226E-1	6.481053E-1	5.859455E-1	5.321284E-1	6.006195E-1	6.030079E-1	6.032572E-1	6.021876E-1	5.657594E-1	5.897362E-1	5.867972E-1	6.026809E-1	5.791210E-1	5.838225E-1	5.963066E-1	5.536327E-1	5.656047E-1	5.879500E-1	5.290436E-1	5.618355E-1	6.083189E-1	6.281197E-1	6.006571E-1	5.472372E-1	6.043809E-1	5.908843E-1	5.958205E-1	6.114223E-1	5.187545E-1	5.715112E-1	5.913777E-1	5.470576E-1	5.501228E-1	5.574532E-1	5.949060E-1	6.038480E-1	6.141793E-1	5.416608E-1	5.845017E-1	5.927575E-1	5.625250E-1	6.042844E-1	5.886819E-1	5.524938E-1	6.238258E-1	5.649560E-1	5.863053E-1	5.584033E-1	6.132777E-1	5.940292E-1	5.600829E-1	5.802291E-1	6.290106E-1	6.244204E-1	6.068591E-1	5.749579E-1	5.929585E-1	5.591172E-1	5.475918E-1	5.702022E-1	5.421995E-1	6.056138E-1	5.867489E-1	5.469841E-1	5.859953E-1	5.639548E-1	5.587500E-1	5.320069E-1	5.572132E-1	6.024499E-1	6.013953E-1	5.335554E-1	5.663925E-1	5.731468E-1	6.146962E-1	6.165286E-1	5.929570E-1	6.153188E-1	5.714958E-1	5.798930E-1	5.865178E-1	5.911580E-1	6.031820E-1	5.487718E-1	5.486075E-1	5.896086E-1	5.716915E-1	5.888340E-1	6.074023E-1	6.450997E-1	6.007865E-1	6.346187E-1	5.614715E-1	5.701172E-1	5.672658E-1	6.177809E-1	6.025306E-1	5.931038E-1	6.237265E-1	5.710250E-1	6.122098E-1	6.320025E-1	6.184020E-1	5.728916E-1	6.034498E-1	5.652156E-1	5.895582E-1	6.134635E-1	5.910953E-1	5.843402E-1	5.535409E-1	6.372198E-1	5.903951E-1	5.631770E-1	6.342555E-1	6.304546E-1	5.897760E-1	5.645367E-1	6.193695E-1	5.901140E-1	5.716391E-1	6.474704E-1	6.033891E-1	5.870132E-1	5.555314E-1	5.951508E-1	6.176021E-1	5.424960E-1	6.184013E-1	5.903284E-1	6.238042E-1	6.292505E-1	6.131925E-1	5.979945E-1	6.347526E-1	5.598873E-1	5.896563E-1	5.868303E-1	5.685846E-1	6.046169E-1	6.266533E-1	5.799860E-1	5.285409E-1	5.791343E-1	5.308179E-1	6.555754E-1	5.759992E-1	5.577604E-1	6.180980E-1	5.938046E-1	5.812555E-1	6.086950E-1	5.969749E-1	5.679739E-1	5.979004E-1	6.058595E-1	6.032800E-1	6.176199E-1	6.126824E-1	6.139343E-1	5.879504E-1	5.902282E-1	5.566957E-1	5.416992E-1	6.992734E-1	6.716426E-1
2.878050E+2	6.376007E-1	6.302183E-1	6.540970E-1	6.579832E-1	6.211465E-1	6.811052E-1	6.375973E-1	7.053062E-1	6.221196E-1	6.055932E-1	6.669183E-1	6.315355E-1	6.912867E-1	6.681484E-1	6.937365E-1	6.440543E-1	6.687732E-1	7.162367E-1	6.053707E-1	6.892254E-1	6.407575E-1	6.385654E-1	6.213362E-1	6.324183E-1	6.724935E-1	6.921484E-1	6.716652E-1	6.242332E-1	6.473322E-1	6.430904E-1	6.197460E-1	6.600355E-1	6.417469E-1	6.488688E-1	6.186754E-1	6.223142E-1	6.545680E-1	6.655952E-1	6.671536E-1	6.885743E-1	6.860074E-1	6.468524E-1	6.706481E-1	6.892236E-1	6.453105E-1	6.824469E-1	6.216512E-1	6.289618E-1	6.576828E-1	6.144203E-1	6.553010E-1	6.534737E-1	6.941147E-1	6.801911E-1	6.269135E-1	6.432559E-1	6.565181E-1	6.190259E-1	6.860982E-1	5.986481E-1	6.619967E-1	5.985049E-1	6.619621E-1	6.463643E-1	6.291160E-1	6.415531E-1	6.300349E-1	6.031702E-1	6.636734E-1	6.467584E-1	6.411344E-1	6.348920E-1	6.583870E-1	6.907182E-1	6.930775E-1	6.806878E-1	6.156667E-1	6.506757E-1	6.518160E-1	6.337427E-1	6.998911E-1	6.607373E-1	6.890086E-1	6.837265E-1	6.516246E-1	6.350599E-1	6.173079E-1	6.262080E-1	7.129168E-1	6.682329E-1	7.140584E-1	6.523039E-1	6.391222E-1	6.504908E-1	7.030992E-1	6.806357E-1	6.301326E-1	6.727158E-1	6.741641E-1	6.409498E-1	7.000408E-1	6.575717E-1	7.062899E-1	6.570381E-1	6.625908E-1	6.820946E-1	6.547008E-1	7.068956E-1	6.934002E-1	6.166423E-1	6.927314E-1	6.874477E-1	6.661818E-1	6.528248E-1	6.852147E-1	6.194150E-1	7.096795E-1	6.697790E-1	6.713663E-1	6.693890E-1	6.789102E-1	6.637582E-1	6.168306E-1	6.385773E-1	6.369342E-1	6.109062E-1	6.872214E-1	6.950157E-1	6.699628E-1	6.318701E-1	6.649775E-1	6.477578E-1	6.990063E-1	6.982670E-1	6.660236E-1	6.872298E-1	6.846543E-1	6.316724E-1	6.735858E-1	5.863332E-1	7.024785E-1	7.019840E-1	6.607704E-1	6.614616E-1	6.654663E-1	6.578927E-1	7.212384E-1	6.659226E-1	6.421422E-1	6.790210E-1	6.413981E-1	6.514889E-1	6.872147E-1	6.582897E-1	6.713087E-1	6.371020E-1	6.618522E-1	6.431375E-1	6.821028E-1	6.994951E-1	6.274779E-1	6.793376E-1	6.779331E-1	6.515785E-1	6.987642E-1	6.782448E-1	6.217290E-1	6.717599E-1	7.186669E-1	6.179293E-1
2.880040E+2	6.970799E-1	6.724217E-1	6.710982E-1	7.126076E-1	7.328768E-1	7.141209E-1	7.092420E-1	7.268135E-1	7.510590E-1	7.128558E-1	7.181398E-1	7.105211E-1	8.076855E-1	7.362663E-1	6.741675E-1	7.408285E-1	7.744315E-1	7.397875E-1	7.056425E-1	7.541803E-1	7.139899E-1	7.379704E-1	7.389865E-1	7.493262E-1	7.385980E-1	7.362792E-1	7.479889E-1	6.939176E-1	7.054778E-1	7.003738E-1	6.928163E-1	6.932107E-1	7.430786E-1	7.202655E-1	7.066622E-1	7.172868E-1	7.029856E-1	7.680139E-1	7.136123E-1	6.881759E-1	7.408423E-1	6.938698E-1	7.194137E-1	7.238297E-1	7.741046E-1	7.306430E-1	7.246659E-1	7.634906E-1	7.054569E-1	6.929419E-1	6.912870E-1	7.094545E-1	7.273498E-1	7.757537E-1	7.278890E-1	7.158052E-1	6.815362E-1	7.809330E-1	7.630079E-1	7.346928E-1	7.090754E-1	7.324227E-1	7.448155E-1	7.021253E-1	6.955256E-1	7.079458E-1	7.089283E-1	7.491362E-1	7.381302E-1	7.065234E-1	7.473940E-1	6.590224E-1	6.669260E-1	7.018149E-1	7.353168E-1	7.284472E-1	6.685474E-1	7.236365E-1	6.939463E-1	7.165291E-1	7.062457E-1	7.125576E-1	7.460608E-1	7.196095E-1	8.067282E-1	7.327362E-1	7.165253E-1	7.112179E-1	7.789258E-1	7.554340E-1	7.218381E-1	7.671011E-1	6.871888E-1	7.242318E-1	6.901423E-1	6.851633E-1	7.160547E-1	7.016654E-1	7.617352E-1	7.343181E-1	7.526735E-1	7.587632E-1	7.037165E-1	7.261484E-1	7.163648E-1	7.394558E-1	7.518895E-1	7.779506E-1	7.932279E-1	7.436901E-1	7.634037E-1	7.472863E-1	7.740123E-1	7.405301E-1	7.005650E-1	7.603364E-1	7.233039E-1	7.480110E-1	7.275142E-1	7.452179E-1	7.378190E-1	7.599376E-1	7.038980E-1	7.569264E-1	7.044127E-1	6.874267E-1	7.151454E-1	7.022208E-1	6.882213E-1	7.431987E-1	7.684938E-1	7.061074E-1	7.428767E-1	6.877661E-1	7.683765E-1	7.476923E-1	7.831914E-1	6.810583E-1	6.588262E-1	7.073025E-1	6.998852E-1	6.967034E-1	7.134075E-1	7.194573E-1	7.463016E-1	7.483108E-1	7.606954E-1	7.516366E-1	7.139208E-1	7.756844E-1	6.881789E-1	7.204056E-1	7.125729E-1	7.237693E-1	7.297420E-1	7.439647E-1	6.681161E-1	7.042579E-1	7.187425E-1	7.106403E-1	7.437320E-1	7.338250E-1	7.054148E-1	7.446095E-1	6.958566E-1	7.309365E-1	7.099715E-1	6.830973E-1	7.287865E-1	7.761048E-1
2.882020E+2	7.849068E-1	7.143917E-1	8.233481E-1	7.719304E-1	7.589293E-1	8.047393E-1	7.705564E-1	7.303438E-1	7.379218E-1	7.294598E-1	8.171849E-1	7.961196E-1	7.024940E-1	6.887653E-1	8.049262E-1	8.180093E-1	7.403367E-1	7.471991E-1	7.769901E-1	7.429327E-1	7.480441E-1	7.349992E-1	7.307392E-1	7.455935E-1	7.553661E-1	8.212692E-1	7.959423E-1	7.279399E-1	7.483895E-1	7.790548E-1	8.120122E-1	8.138661E-1	7.967472E-1	7.587114E-1	7.532716E-1	7.352565E-1	7.729592E-1	7.929816E-1	8.327098E-1	7.748052E-1	7.553300E-1	7.937263E-1	7.882841E-1	7.890125E-1	7.731578E-1	7.269330E-1	7.961550E-1	7.928223E-1	7.278934E-1	8.057487E-1	7.127914E-1	7.803787E-1	8.179912E-1	7.613721E-1	7.553046E-1	8.047743E-1	7.629447E-1	7.937995E-1	7.667249E-1	7.535195E-1	7.400594E-1	8.401554E-1	7.305618E-1	7.751991E-1	7.242415E-1	7.909448E-1	7.589477E-1	7.463839E-1	8.529441E-1	7.839737E-1	8.004185E-1	7.980442E-1	7.680406E-1	7.737071E-1	7.377995E-1	7.421598E-1	8.189944E-1	7.290263E-1	7.362450E-1	8.177192E-1	8.338673E-1	7.312858E-1	8.223050E-1	7.470651E-1	8.047053E-1	7.818808E-1	8.009942E-1	7.570851E-1	7.634430E-1	7.843961E-1	7.823031E-1	7.804100E-1	7.959725E-1	8.054853E-1	7.823930E-1	7.789338E-1	8.382689E-1	7.860474E-1	7.541519E-1	7.680097E-1	8.441301E-1	7.569932E-1	7.949728E-1	7.462051E-1	8.074476E-1	8.078283E-1	7.449195E-1	8.163080E-1	7.439083E-1	7.792643E-1	8.174214E-1	7.783969E-1	7.731165E-1	7.430211E-1	7.689933E-1	8.254103E-1	8.554082E-1	7.640581E-1	7.296612E-1	7.860870E-1	7.913587E-1	7.829692E-1	7.779600E-1	7.467583E-1	8.244831E-1	7.725183E-1	7.637449E-1	7.602550E-1	7.852242E-1	7.381771E-1	7.798972E-1	7.575015E-1	7.861200E-1	7.957108E-1	7.307533E-1	7.258719E-1	7.705251E-1	7.385879E-1	7.360959E-1	7.578522E-1	7.953135E-1	7.727523E-1	7.459923E-1	8.144871E-1	7.643384E-1	7.219147E-1	7.697094E-1	7.678265E-1	7.833768E-1	8.311141E-1	8.343728E-1	7.959934E-1	8.154671E-1	7.493748E-1	7.633147E-1	7.009444E-1	7.599576E-1	7.501295E-1	7.913078E-1	7.641369E-1	8.810370E-1	7.670367E-1	7.569323E-1	7.773898E-1	7.364739E-1	7.805798E-1	7.565442E-1	7.870070E-1	8.948287E-1	7.397180E-1
2.884040E+2	8.464396E-1	8.322515E-1	8.868600E-1	8.789614E-1	8.702864E-1	9.105435E-1	8.872525E-1	9.039324E-1	9.226618E-1	9.255388E-1	9.078864E-1	8.966400E-1	8.749241E-1	8.512987E-1	8.965809E-1	8.695382E-1	8.969166E-1	8.900662E-1	9.077131E-1	9.367824E-1	9.027502E-1	8.986624E-1	8.683017E-1	8.676840E-1	9.029827E-1	8.752373E-1	8.324256E-1	8.810088E-1	1.009816E+0	8.361735E-1	8.423868E-1	9.057669E-1	8.817100E-1	8.406074E-1	8.607964E-1	8.489965E-1	9.142325E-1	8.610057E-1	9.171434E-1	8.990743E-1	8.877273E-1	9.057984E-1	9.224770E-1	8.685296E-1	8.984483E-1	8.534944E-1	8.562940E-1	9.137087E-1	9.022018E-1	8.602028E-1	8.694524E-1	8.730804E-1	8.836513E-1	9.162249E-1	9.197292E-1	9.040197E-1	9.425915E-1	9.387887E-1	8.954830E-1	8.808145E-1	8.094818E-1	8.790488E-1	8.494335E-1	8.984848E-1	8.760562E-1	9.259807E-1	8.441602E-1	7.931377E-1	8.570090E-1	8.741631E-1	8.605688E-1	8.678715E-1	9.045733E-1	8.742218E-1	9.106724E-1	8.576894E-1	8.533711E-1	8.308487E-1	8.845268E-1	8.959592E-1	8.599760E-1	8.583135E-1	8.764675E-1	8.548823E-1	8.483001E-1	9.165001E-1	9.188405E-1	8.735858E-1	8.743281E-1	8.026598E-1	8.862875E-1	8.837580E-1	8.379232E-1	8.766373E-1	8.848995E-1	8.752264E-1	8.872474E-1	8.861638E-1	8.547319E-1	8.849204E-1	8.869394E-1	8.754692E-1	8.918352E-1	7.839894E-1	8.852051E-1	8.502780E-1	8.570557E-1	9.523958E-1	8.230422E-1	8.990029E-1	8.657600E-1	8.590151E-1	9.354680E-1	9.085836E-1	8.621425E-1	9.284306E-1	9.340550E-1	8.909607E-1	8.860106E-1	9.526023E-1	9.054598E-1	8.593583E-1	9.263191E-1	8.278983E-1	8.727454E-1	8.603453E-1	8.442601E-1	8.479549E-1	8.328214E-1	7.889928E-1	8.933250E-1	1.002103E+0	9.094178E-1	9.012969E-1	9.106000E-1	9.053132E-1	8.705252E-1	8.891406E-1	9.027479E-1	8.603148E-1	9.062305E-1	8.434830E-1	8.301354E-1	9.512799E-1	8.794507E-1	8.740747E-1	8.771300E-1	9.165980E-1	8.309334E-1	8.816872E-1	9.333082E-1	8.819663E-1	9.253148E-1	9.057026E-1	8.176713E-1	8.288690E-1	8.175219E-1	9.229558E-1	8.894293E-1	8.311568E-1	9.131657E-1	9.006991E-1	8.932584E-1	8.543652E-1	8.913286E-1	8.776329E-1	9.020763E-1	8.499023E-1	9.748517E-1	8.271161E-1
2.886030E+2	9.042809E-1	8.735347E-1	8.866119E-1	9.211300E-1	8.970204E-1	8.721899E-1	9.016935E-1	9.563397E-1	9.193931E-1	9.582859E-1	8.978285E-1	9.424723E-1	8.929573E-1	8.750494E-1	9.583641E-1	9.244668E-1	9.828628E-1	9.838374E-1	9.451148E-1	9.836601E-1	9.225532E-1	9.200173E-1	9.305372E-1	9.041639E-1	9.673018E-1	9.127595E-1	9.016303E-1	8.798936E-1	9.708344E-1	8.852144E-1	9.416434E-1	9.853721E-1	9.333839E-1	9.208880E-1	9.361532E-1	9.113079E-1	8.828352E-1	9.287621E-1	9.449641E-1	9.256904E-1	9.508123E-1	9.519463E-1	9.486508E-1	8.550490E-1	9.679279E-1	9.290245E-1	9.034030E-1	9.607823E-1	9.326903E-1	8.697628E-1	9.427286E-1	9.093513E-1	9.062394E-1	9.114087E-1	8.345883E-1	9.070312E-1	9.442792E-1	9.413634E-1	9.634589E-1	9.023325E-1	9.367310E-1	8.950640E-1	9.306604E-1	9.415790E-1	9.276286E-1	9.788892E-1	9.390048E-1	8.628984E-1	9.573756E-1	9.374933E-1	9.343061E-1	9.520394E-1	9.552091E-1	9.707267E-1	1.016000E+0	8.867794E-1	9.381883E-1	9.352527E-1	9.002248E-1	9.155848E-1	9.632900E-1	9.307947E-1	9.090857E-1	8.899297E-1	8.977076E-1	9.780763E-1	9.761716E-1	9.059882E-1	9.651602E-1	9.206473E-1	9.314601E-1	9.473066E-1	9.445522E-1	9.548033E-1	9.141720E-1	8.864128E-1	9.473488E-1	8.888059E-1	9.632853E-1	9.444459E-1	9.466350E-1	9.504746E-1	9.122056E-1	9.604697E-1	9.527004E-1	9.749370E-1	9.515274E-1	9.182646E-1	8.763265E-1	9.343188E-1	9.746606E-1	9.335998E-1	9.405722E-1	9.484389E-1	9.005423E-1	9.333594E-1	9.305885E-1	9.662343E-1	9.301276E-1	9.366474E-1	9.295055E-1	9.846583E-1	9.507731E-1	8.944459E-1	9.473033E-1	9.100331E-1	9.145501E-1	8.905769E-1	9.186749E-1	9.459141E-1	9.215732E-1	9.377937E-1	9.486429E-1	9.610654E-1	8.650536E-1	8.808693E-1	9.669612E-1	8.904241E-1	9.129928E-1	9.716371E-1	9.015685E-1	9.059700E-1	9.278289E-1	9.635685E-1	1.020469E+0	9.259954E-1	9.265814E-1	9.235996E-1	9.383392E-1	9.306006E-1	9.666992E-1	9.080993E-1	9.099776E-1	8.862845E-1	9.379093E-1	8.590049E-1	9.447784E-1	8.932374E-1	9.637486E-1	8.559962E-1	9.887450E-1	9.302426E-1	9.040724E-1	9.249099E-1	9.751072E-1	9.795542E-1	9.538357E-1	9.237563E-1	9.807655E-1	8.524327E-1
2.888230E+2	1.007215E+0	9.644788E-1	9.658740E-1	9.523033E-1	9.956032E-1	1.006120E+0	1.041497E+0	9.713691E-1	9.346212E-1	9.333928E-1	9.943903E-1	9.878190E-1	9.849437E-1	9.423170E-1	9.813238E-1	9.804084E-1	9.825399E-1	1.050725E+0	1.054742E+0	9.973725E-1	9.790368E-1	1.000477E+0	9.778156E-1	9.581434E-1	9.693383E-1	9.539876E-1	9.962329E-1	1.045654E+0	1.039705E+0	9.263964E-1	1.002776E+0	9.832396E-1	9.217598E-1	9.561364E-1	9.459551E-1	9.577182E-1	1.007012E+0	9.631708E-1	1.004049E+0	9.693073E-1	9.343451E-1	9.207915E-1	9.662938E-1	9.167474E-1	9.658697E-1	9.530868E-1	9.752809E-1	9.723423E-1	1.014049E+0	9.627068E-1	9.789942E-1	9.645506E-1	1.041626E+0	1.004853E+0	9.340360E-1	1.003597E+0	1.055224E+0	1.000862E+0	9.196867E-1	9.942655E-1	9.551903E-1	9.591457E-1	9.408385E-1	1.003266E+0	9.261699E-1	9.821173E-1	9.692681E-1	9.661102E-1	1.093228E+0	9.793767E-1	9.761751E-1	9.957135E-1	9.585746E-1	1.017600E+0	9.972952E-1	9.521050E-1	1.003024E+0	9.882286E-1	9.327103E-1	1.008318E+0	1.042488E+0	9.238690E-1	9.995897E-1	9.477074E-1	9.879457E-1	1.051526E+0	9.987795E-1	9.257822E-1	1.003655E+0	9.973819E-1	9.818732E-1	9.539328E-1	1.049088E+0	1.013678E+0	9.792806E-1	9.375917E-1	1.034639E+0	1.033130E+0	1.021628E+0	9.367873E-1	9.947258E-1	9.564342E-1	9.982613E-1	9.321527E-1	1.023294E+0	1.026917E+0	9.923075E-1	1.058231E+0	1.015176E+0	1.009601E+0	9.911893E-1	1.021991E+0	9.788255E-1	9.776815E-1	8.996456E-1	9.904296E-1	9.588655E-1	1.024181E+0	9.803678E-1	1.019264E+0	1.016466E+0	9.602655E-1	1.001266E+0	9.648948E-1	9.884464E-1	1.002566E+0	9.722164E-1	1.028053E+0	9.127841E-1	1.044943E+0	9.973767E-1	9.145387E-1	1.042134E+0	1.035637E+0	9.526896E-1	9.735336E-1	1.012491E+0	9.686475E-1	1.037734E+0	9.815973E-1	1.027267E+0	9.541496E-1	9.982030E-1	1.000458E+0	1.033455E+0	1.036671E+0	1.016474E+0	9.800012E-1	9.836903E-1	1.010707E+0	1.013564E+0	9.599303E-1	9.912619E-1	9.520500E-1	1.028087E+0	9.420848E-1	9.913291E-1	9.895932E-1	9.787234E-1	9.764395E-1	9.640572E-1	1.035331E+0	9.112279E-1	9.525152E-1	9.673732E-1	9.788545E-1	1.026704E+0	9.887660E-1	9.847019E-1	9.066730E-1
2.890080E+2	1.065155E+0	1.001248E+0	1.087664E+0	1.037049E+0	1.045523E+0	1.108816E+0	1.028454E+0	9.775835E-1	1.022855E+0	1.009976E+0	1.067159E+0	1.018916E+0	1.063376E+0	9.715603E-1	1.043378E+0	1.050474E+0	1.031372E+0	1.031596E+0	1.057781E+0	1.061590E+0	1.073539E+0	1.065661E+0	9.855589E-1	1.067433E+0	1.060685E+0	9.879773E-1	9.832871E-1	9.311689E-1	9.947276E-1	9.891817E-1	1.014058E+0	1.019942E+0	1.006818E+0	1.013749E+0	1.042632E+0	1.009180E+0	1.038252E+0	1.033706E+0	1.052404E+0	1.012038E+0	1.027705E+0	1.039632E+0	1.058435E+0	1.049749E+0	1.048716E+0	9.654427E-1	9.741200E-1	1.077148E+0	9.763312E-1	1.042810E+0	1.012919E+0	1.006958E+0	1.083607E+0	1.062037E+0	1.086984E+0	9.829498E-1	1.065905E+0	1.004036E+0	1.063036E+0	9.831803E-1	1.083862E+0	9.903945E-1	1.029380E+0	1.076451E+0	1.018793E+0	9.781439E-1	9.418729E-1	1.070112E+0	1.028129E+0	1.048559E+0	1.069636E+0	9.968716E-1	1.058175E+0	1.034554E+0	1.008413E+0	9.918984E-1	1.040105E+0	9.870420E-1	1.057032E+0	1.094643E+0	1.094255E+0	9.850433E-1	1.022895E+0	1.044711E+0	9.851675E-1	1.029978E+0	1.086003E+0	1.022388E+0	1.014884E+0	1.004384E+0	1.080473E+0	1.064162E+0	1.048007E+0	9.789780E-1	1.097640E+0	1.026610E+0	1.069502E+0	9.984440E-1	1.049254E+0	1.000902E+0	1.051802E+0	1.017144E+0	1.049470E+0	9.890652E-1	1.072318E+0	9.802852E-1	9.877753E-1	1.060803E+0	1.039163E+0	1.036088E+0	1.091491E+0	1.063771E+0	1.014882E+0	1.064982E+0	1.017916E+0	1.008179E+0	1.032310E+0	1.057363E+0	1.040485E+0	1.012667E+0	1.101713E+0	1.012402E+0	1.042743E+0	9.737282E-1	1.069574E+0	1.008613E+0	1.118668E+0	1.025084E+0	1.046518E+0	1.024443E+0	1.033050E+0	1.070692E+0	1.069884E+0	1.106803E+0	1.060300E+0	1.016290E+0	9.983668E-1	9.534653E-1	1.034823E+0	1.077828E+0	1.002211E+0	1.030827E+0	1.018657E+0	1.107384E+0	1.027541E+0	1.050936E+0	1.078386E+0	1.048474E+0	1.060859E+0	1.077459E+0	1.045661E+0	1.004433E+0	1.054105E+0	9.983636E-1	1.022973E+0	9.817307E-1	1.045823E+0	1.015605E+0	1.064025E+0	9.878464E-1	1.035534E+0	1.026404E+0	1.002016E+0	1.025733E+0	1.101533E+0	1.101143E+0	1.055519E+0	1.035418E+0	1.083072E+0	8.657481E-1
2.892050E+2	9.695045E-1	1.032659E+0	9.842722E-1	9.839487E-1	9.981048E-1	1.034778E+0	1.069590E+0	1.008117E+0	9.897913E-1	9.492786E-1	1.024330E+0	1.061073E+0	1.022425E+0	9.695481E-1	9.838763E-1	1.006692E+0	1.073722E+0	1.029401E+0	9.747701E-1	1.010519E+0	1.006743E+0	9.592602E-1	9.989516E-1	9.436287E-1	1.031224E+0	1.067411E+0	1.026313E+0	9.574925E-1	1.051555E+0	9.656208E-1	1.012720E+0	1.058928E+0	1.028204E+0	9.708880E-1	1.017405E+0	9.987630E-1	9.370074E-1	9.875045E-1	1.028396E+0	9.065284E-1	1.000119E+0	9.969445E-1	9.756473E-1	9.307534E-1	9.566741E-1	9.413294E-1	1.034780E+0	1.022244E+0	1.009988E+0	9.973007E-1	9.978640E-1	9.453526E-1	9.591302E-1	1.020830E+0	9.590715E-1	1.010519E+0	9.985954E-1	1.039064E+0	1.005420E+0	1.005961E+0	9.808580E-1	1.047897E+0	9.713591E-1	1.013986E+0	9.958784E-1	1.060279E+0	9.945480E-1	1.011569E+0	1.064437E+0	1.013930E+0	1.076561E+0	1.003675E+0	9.672047E-1	9.778820E-1	9.803892E-1	9.599324E-1	9.381419E-1	9.968926E-1	1.012840E+0	9.685655E-1	1.018489E+0	9.124485E-1	1.013659E+0	9.834656E-1	1.059995E+0	9.748443E-1	1.051438E+0	1.034917E+0	1.095467E+0	9.923024E-1	9.546894E-1	9.548419E-1	1.055625E+0	1.049466E+0	9.783739E-1	9.637532E-1	9.881614E-1	9.841273E-1	9.734070E-1	9.637699E-1	1.035762E+0	1.031079E+0	1.035126E+0	1.003874E+0	9.888110E-1	9.606048E-1	9.421296E-1	9.919458E-1	1.031031E+0	9.315207E-1	1.033386E+0	1.017245E+0	9.619984E-1	9.506491E-1	1.019017E+0	9.621686E-1	1.046306E+0	1.074285E+0	1.017363E+0	1.046175E+0	1.009412E+0	1.020125E+0	1.020026E+0	9.399532E-1	1.038475E+0	1.010005E+0	9.952073E-1	9.686668E-1	9.681238E-1	1.017135E+0	1.004024E+0	9.995919E-1	1.043951E+0	9.912282E-1	9.654616E-1	9.035006E-1	1.106251E+0	1.037889E+0	9.472121E-1	1.009385E+0	1.009232E+0	1.003569E+0	1.020925E+0	1.012830E+0	1.004543E+0	1.060787E+0	1.010423E+0	9.661918E-1	1.007520E+0	9.582083E-1	1.000079E+0	1.050660E+0	1.016213E+0	1.042317E+0	9.750189E-1	9.895627E-1	9.789905E-1	9.952147E-1	1.014340E+0	9.630188E-1	9.464845E-1	9.644159E-1	1.019640E+0	9.940049E-1	1.018850E+0	9.743539E-1	1.007991E+0	1.001882E+0	9.320661E-1	1.027881E+0
2.894050E+2	8.554943E-1	8.526155E-1	8.641087E-1	8.311268E-1	8.412594E-1	8.705774E-1	8.775316E-1	8.350968E-1	8.295290E-1	8.096676E-1	8.374595E-1	8.275145E-1	8.335019E-1	8.053460E-1	8.571262E-1	8.458492E-1	7.999759E-1	7.912288E-1	8.562329E-1	8.793688E-1	8.704995E-1	8.780704E-1	8.798082E-1	8.778632E-1	8.629038E-1	8.716548E-1	8.193149E-1	8.595828E-1	8.305683E-1	8.599071E-1	8.805316E-1	8.275489E-1	7.757100E-1	8.260064E-1	8.675932E-1	8.352692E-1	8.955200E-1	8.205036E-1	8.665174E-1	8.156203E-1	8.536931E-1	9.361501E-1	8.092605E-1	8.673199E-1	8.368756E-1	8.282908E-1	8.084586E-1	8.696411E-1	8.592407E-1	8.492955E-1	7.896749E-1	8.490020E-1	8.387472E-1	9.002240E-1	8.351244E-1	8.547324E-1	8.349605E-1	9.161586E-1	9.110461E-1	8.161869E-1	8.463524E-1	8.525181E-1	8.478568E-1	9.172080E-1	8.395450E-1	8.443724E-1	8.368472E-1	8.356124E-1	8.432080E-1	8.824459E-1	8.576026E-1	8.682310E-1	8.202459E-1	9.368935E-1	8.081006E-1	8.271472E-1	8.428073E-1	8.367375E-1	8.467069E-1	8.539790E-1	9.018804E-1	8.760064E-1	8.349345E-1	8.819084E-1	9.262668E-1	8.823524E-1	8.316577E-1	8.789793E-1	8.151997E-1	8.544680E-1	9.509354E-1	9.148379E-1	8.509938E-1	8.778354E-1	8.873445E-1	8.060020E-1	8.484839E-1	8.789320E-1	8.563392E-1	8.724074E-1	8.536590E-1	8.724793E-1	8.868234E-1	7.926237E-1	8.480343E-1	9.160897E-1	8.462077E-1	8.181242E-1	8.117172E-1	8.489380E-1	8.884066E-1	8.585683E-1	8.644533E-1	8.576056E-1	8.534823E-1	8.806327E-1	8.847487E-1	8.380789E-1	7.921146E-1	9.102850E-1	8.800306E-1	8.910430E-1	8.625375E-1	8.453319E-1	9.093345E-1	8.517809E-1	8.770818E-1	8.796268E-1	8.482780E-1	8.212197E-1	8.258950E-1	8.686841E-1	9.118075E-1	8.495570E-1	8.707212E-1	8.193501E-1	8.824631E-1	8.588104E-1	8.267642E-1	8.759098E-1	8.291541E-1	8.888499E-1	9.283429E-1	8.932304E-1	9.218674E-1	8.537245E-1	8.554788E-1	8.952910E-1	8.429386E-1	8.646671E-1	8.587339E-1	8.931424E-1	8.572630E-1	8.340078E-1	8.864286E-1	8.550743E-1	8.026936E-1	8.817222E-1	8.511237E-1	8.808313E-1	8.327074E-1	8.845106E-1	8.953229E-1	8.892522E-1	8.481581E-1	8.644158E-1	8.774246E-1	8.292245E-1	8.440926E-1	7.595889E-1
2.896060E+2	7.237359E-1	7.175330E-1	7.413425E-1	7.272400E-1	7.781238E-1	7.648883E-1	7.411304E-1	6.942886E-1	7.432456E-1	8.445062E-1	7.103044E-1	7.214533E-1	7.626865E-1	7.248071E-1	7.905531E-1	7.004188E-1	7.740308E-1	7.511348E-1	7.412833E-1	6.773523E-1	7.425466E-1	6.945981E-1	7.215300E-1	7.480857E-1	7.703470E-1	7.339679E-1	7.430196E-1	7.501156E-1	7.333026E-1	7.577627E-1	7.308572E-1	7.402737E-1	6.654867E-1	6.975076E-1	7.308814E-1	7.089547E-1	7.415380E-1	7.270639E-1	7.441641E-1	7.391801E-1	7.215728E-1	7.509125E-1	7.599852E-1	7.235432E-1	7.480284E-1	7.397361E-1	7.601821E-1	7.665393E-1	7.273902E-1	7.487777E-1	7.717831E-1	6.354708E-1	7.367047E-1	7.411669E-1	7.629100E-1	7.954218E-1	7.002318E-1	7.253983E-1	7.252879E-1	7.134717E-1	7.655296E-1	7.048955E-1	6.604817E-1	7.618886E-1	7.438444E-1	7.537971E-1	7.169426E-1	7.145003E-1	7.432244E-1	7.116919E-1	7.442201E-1	7.050606E-1	7.654452E-1	6.873414E-1	7.808530E-1	7.754332E-1	7.559345E-1	7.427404E-1	7.391126E-1	7.626905E-1	8.002242E-1	7.431243E-1	7.553339E-1	7.720396E-1	7.225686E-1	7.264226E-1	7.910223E-1	6.432092E-1	7.233871E-1	7.278421E-1	7.701910E-1	7.195045E-1	7.158197E-1	7.642300E-1	7.686595E-1	7.189944E-1	7.242231E-1	7.513597E-1	7.851802E-1	8.219386E-1	7.296555E-1	7.455286E-1	7.697172E-1	6.987161E-1	6.888431E-1	7.638278E-1	7.360600E-1	7.467774E-1	7.224531E-1	7.123278E-1	7.715488E-1	6.827119E-1	7.388384E-1	7.283862E-1	7.551178E-1	7.774795E-1	7.338714E-1	7.010670E-1	7.392678E-1	8.326577E-1	7.503833E-1	7.644573E-1	7.750678E-1	7.539405E-1	7.162310E-1	7.306881E-1	7.246685E-1	7.869929E-1	7.546658E-1	6.955285E-1	7.112138E-1	7.091900E-1	7.999872E-1	7.451010E-1	7.066284E-1	7.666163E-1	7.303446E-1	7.048802E-1	7.140452E-1	7.241424E-1	7.247264E-1	7.565697E-1	7.221587E-1	7.649380E-1	7.337729E-1	7.322742E-1	7.346939E-1	7.155969E-1	6.828442E-1	7.211463E-1	7.385676E-1	7.102170E-1	7.647739E-1	7.778314E-1	7.403965E-1	7.631447E-1	7.407247E-1	7.472445E-1	7.143312E-1	7.325016E-1	7.603684E-1	7.324066E-1	7.632000E-1	7.267594E-1	7.315328E-1	7.052108E-1	7.507172E-1	7.553799E-1	7.480510E-1	7.514584E-1
2.898050E+2	5.909690E-1	5.508854E-1	6.227043E-1	6.608015E-1	6.244086E-1	6.671450E-1	6.144671E-1	5.995969E-1	6.061711E-1	6.134545E-1	6.012688E-1	6.369154E-1	6.039486E-1	5.736713E-1	5.921264E-1	5.878941E-1	6.025605E-1	6.067056E-1	5.861169E-1	6.581114E-1	5.980662E-1	6.251367E-1	6.078534E-1	5.894759E-1	5.864952E-1	6.098163E-1	6.350288E-1	5.746108E-1	6.180207E-1	5.875242E-1	6.248056E-1	5.899180E-1	5.543842E-1	5.699579E-1	5.882484E-1	5.851936E-1	5.980226E-1	6.094494E-1	6.050571E-1	6.104512E-1	6.012372E-1	6.590095E-1	6.368197E-1	6.294030E-1	6.077513E-1	6.621760E-1	5.886843E-1	5.995474E-1	6.186028E-1	6.174789E-1	6.273931E-1	5.802950E-1	6.315575E-1	6.294909E-1	6.203229E-1	6.196761E-1	6.781376E-1	6.448586E-1	6.236640E-1	5.492721E-1	6.104868E-1	5.657848E-1	6.153700E-1	5.999830E-1	6.268482E-1	6.115156E-1	6.374340E-1	5.597964E-1	5.853998E-1	5.966076E-1	6.098625E-1	6.068464E-1	6.412146E-1	6.117054E-1	6.160097E-1	6.414346E-1	6.102026E-1	6.186917E-1	6.213600E-1	6.843178E-1	6.411289E-1	6.088164E-1	6.184982E-1	6.131828E-1	6.316493E-1	6.154889E-1	6.265132E-1	5.991742E-1	5.837424E-1	5.837677E-1	5.931092E-1	6.295957E-1	6.273403E-1	5.980648E-1	6.100538E-1	6.044801E-1	6.322696E-1	6.229828E-1	6.823986E-1	5.945768E-1	6.100059E-1	6.033093E-1	5.875271E-1	6.139620E-1	5.759301E-1	6.381006E-1	5.920063E-1	6.502385E-1	5.870802E-1	5.783372E-1	6.179735E-1	5.939408E-1	6.490290E-1	5.975844E-1	5.727546E-1	5.829653E-1	5.682166E-1	6.508747E-1	6.003257E-1	6.388140E-1	6.228945E-1	6.053998E-1	6.307573E-1	6.203065E-1	6.064159E-1	5.980274E-1	6.473238E-1	6.065345E-1	5.832464E-1	5.783760E-1	6.322265E-1	6.438036E-1	6.104723E-1	6.655069E-1	6.335381E-1	6.130766E-1	6.120884E-1	6.295805E-1	5.938239E-1	5.960113E-1	6.026826E-1	6.350473E-1	5.789583E-1	6.731598E-1	6.379955E-1	6.178564E-1	6.040400E-1	6.244367E-1	6.081379E-1	6.019060E-1	5.525783E-1	6.301987E-1	6.207549E-1	6.067943E-1	6.117915E-1	5.482372E-1	5.886107E-1	6.132160E-1	6.322769E-1	6.318064E-1	5.570629E-1	6.348539E-1	6.185704E-1	5.680157E-1	5.633885E-1	5.884700E-1	6.171427E-1	5.805399E-1	6.042001E-1	5.607549E-1
2.900020E+2	6.882524E-1	6.674610E-1	6.625416E-1	6.726649E-1	6.418806E-1	7.144265E-1	7.479883E-1	7.313403E-1	7.002542E-1	6.784810E-1	7.304629E-1	7.017431E-1	6.512626E-1	6.786127E-1	7.059085E-1	6.644936E-1	6.672525E-1	6.880375E-1	6.915905E-1	7.244930E-1	7.011222E-1	6.997508E-1	6.935407E-1	6.803519E-1	7.479732E-1	6.805560E-1	6.730136E-1	6.864215E-1	6.609319E-1	6.656479E-1	7.181105E-1	6.825225E-1	6.533509E-1	6.458686E-1	6.691924E-1	6.628129E-1	6.589674E-1	7.015441E-1	6.846944E-1	6.472538E-1	7.286659E-1	6.611018E-1	6.939746E-1	6.556650E-1	6.932785E-1	6.987293E-1	6.912542E-1	6.536754E-1	6.722769E-1	7.165855E-1	7.026950E-1	6.649784E-1	7.167890E-1	7.230900E-1	6.419229E-1	7.519790E-1	7.293908E-1	7.052715E-1	7.345701E-1	6.987007E-1	6.395380E-1	6.209419E-1	7.413315E-1	7.269902E-1	6.574580E-1	7.229212E-1	6.470383E-1	6.633167E-1	6.587092E-1	7.059410E-1	6.840558E-1	6.451882E-1	6.795724E-1	6.725623E-1	6.992921E-1	6.345511E-1	6.178111E-1	6.523476E-1	6.636608E-1	7.213716E-1	6.916504E-1	6.726832E-1	6.496724E-1	6.704361E-1	6.857462E-1	6.669107E-1	6.685462E-1	6.510461E-1	6.815224E-1	6.699100E-1	7.032729E-1	6.725985E-1	6.916583E-1	7.220875E-1	6.383058E-1	6.606394E-1	7.155540E-1	6.811018E-1	6.873888E-1	6.909944E-1	6.839347E-1	6.936820E-1	6.676332E-1	6.488382E-1	6.992317E-1	6.871578E-1	6.823243E-1	7.160717E-1	6.506417E-1	6.539861E-1	7.148544E-1	6.705026E-1	6.894595E-1	6.423094E-1	7.480480E-1	7.026867E-1	6.751378E-1	6.623187E-1	6.923236E-1	6.813103E-1	6.066237E-1	6.643257E-1	7.272585E-1	7.170284E-1	6.868829E-1	6.743569E-1	6.607242E-1	7.338123E-1	6.893918E-1	6.881108E-1	6.769787E-1	6.881405E-1	7.065079E-1	7.212455E-1	6.457593E-1	7.111975E-1	7.072684E-1	6.610799E-1	6.523282E-1	6.534242E-1	6.679870E-1	6.916990E-1	6.520408E-1	6.653904E-1	7.122138E-1	7.178623E-1	6.501039E-1	7.222937E-1	6.815664E-1	6.773219E-1	6.672096E-1	7.170543E-1	6.877155E-1	6.440466E-1	7.311076E-1	7.004109E-1	6.862614E-1	6.745401E-1	6.943670E-1	7.010029E-1	6.751166E-1	7.617228E-1	6.766082E-1	7.499331E-1	6.229173E-1	6.926574E-1	6.517948E-1	6.636999E-1	7.610174E-1	7.129867E-1
2.905110E+2	8.229685E-1	7.488168E-1	7.981609E-1	8.339417E-1	8.099294E-1	7.709998E-1	7.767874E-1	7.099487E-1	7.828754E-1	7.565197E-1	8.177552E-1	7.186118E-1	7.450707E-1	7.472256E-1	7.676494E-1	7.328331E-1	8.277053E-1	8.055396E-1	7.457460E-1	8.500957E-1	7.664431E-1	7.846356E-1	7.729814E-1	7.079411E-1	7.768714E-1	7.596706E-1	8.413805E-1	8.266948E-1	7.695135E-1	7.958409E-1	7.869683E-1	8.315617E-1	7.555765E-1	7.336478E-1	7.286511E-1	7.555067E-1	7.745907E-1	8.006722E-1	8.381944E-1	7.517018E-1	7.872336E-1	7.863614E-1	7.793644E-1	7.817788E-1	7.629214E-1	7.813985E-1	8.099588E-1	7.473193E-1	7.873286E-1	7.193784E-1	7.916471E-1	7.607859E-1	7.704973E-1	8.198039E-1	7.689214E-1	7.616458E-1	7.652739E-1	8.364091E-1	7.613348E-1	6.956589E-1	7.913474E-1	7.603510E-1	7.604905E-1	7.562698E-1	7.381781E-1	7.634074E-1	7.552492E-1	7.910537E-1	7.766251E-1	7.674255E-1	8.088741E-1	7.741873E-1	7.802736E-1	8.089596E-1	7.855173E-1	7.779379E-1	7.652099E-1	8.413685E-1	7.990582E-1	7.611682E-1	7.848127E-1	7.641760E-1	7.716348E-1	7.725002E-1	7.743426E-1	8.507989E-1	7.821669E-1	7.932255E-1	7.557495E-1	7.859479E-1	8.115563E-1	7.727830E-1	7.389797E-1	7.903950E-1	7.265099E-1	7.830225E-1	7.986032E-1	7.904706E-1	7.743526E-1	8.242253E-1	7.979372E-1	8.283665E-1	8.121317E-1	7.350820E-1	8.329178E-1	8.479065E-1	6.586243E-1	8.047264E-1	7.957725E-1	7.580549E-1	8.057290E-1	7.634026E-1	7.003432E-1	7.750422E-1	7.936383E-1	7.737326E-1	7.419567E-1	8.027853E-1	7.763278E-1	8.151242E-1	8.313793E-1	7.074200E-1	8.123272E-1	7.712549E-1	7.941885E-1	7.737675E-1	7.680768E-1	7.877120E-1	7.729230E-1	8.192476E-1	7.847297E-1	7.869452E-1	7.322229E-1	7.978000E-1	8.057825E-1	7.578966E-1	7.815130E-1	7.705234E-1	7.891772E-1	7.632303E-1	8.045528E-1	7.683670E-1	7.778872E-1	8.169038E-1	7.773622E-1	7.743123E-1	7.841753E-1	7.656402E-1	8.053926E-1	7.605553E-1	7.588524E-1	7.566837E-1	7.483086E-1	7.344475E-1	8.005768E-1	8.105631E-1	7.931529E-1	8.061014E-1	8.225269E-1	7.644778E-1	7.267723E-1	7.734810E-1	7.617776E-1	7.831381E-1	7.607972E-1	7.466803E-1	7.566838E-1	7.376169E-1	8.210217E-1	6.823344E-1
2.910040E+2	1.093264E+0	1.054357E+0	1.096251E+0	1.094212E+0	1.069364E+0	1.144736E+0	1.049193E+0	1.083377E+0	1.143228E+0	1.092479E+0	1.122004E+0	1.083162E+0	1.128798E+0	1.001552E+0	1.112235E+0	1.120183E+0	1.026172E+0	1.080732E+0	1.136336E+0	1.105891E+0	1.077005E+0	1.114939E+0	1.057314E+0	1.080539E+0	1.082549E+0	1.105651E+0	1.143966E+0	1.084433E+0	1.102957E+0	1.089190E+0	1.125821E+0	1.106395E+0	1.122878E+0	1.030723E+0	1.075442E+0	1.080453E+0	1.078061E+0	1.093269E+0	1.104647E+0	1.122574E+0	1.155259E+0	1.132687E+0	1.091980E+0	1.074620E+0	1.080487E+0	1.130545E+0	1.044761E+0	1.116192E+0	1.087613E+0	1.084592E+0	1.100863E+0	1.030125E+0	1.028515E+0	1.157283E+0	1.076670E+0	1.074626E+0	1.058591E+0	1.109856E+0	1.128194E+0	1.079076E+0	1.060630E+0	1.054329E+0	1.057654E+0	1.162520E+0	1.053798E+0	1.094091E+0	1.056114E+0	1.109120E+0	1.017309E+0	1.043920E+0	1.055741E+0	1.056245E+0	1.033062E+0	1.174950E+0	1.049416E+0	1.086480E+0	1.041359E+0	1.021181E+0	1.079156E+0	1.048123E+0	1.134133E+0	1.039878E+0	1.101791E+0	1.089262E+0	1.074801E+0	1.196899E+0	1.065284E+0	1.097885E+0	1.066302E+0	1.091132E+0	1.097249E+0	1.081514E+0	1.150526E+0	1.066119E+0	1.036363E+0	1.146233E+0	1.105325E+0	1.111305E+0	1.151370E+0	1.088641E+0	1.029237E+0	1.103032E+0	1.066396E+0	1.107124E+0	1.061894E+0	1.060073E+0	1.057374E+0	1.150625E+0	1.032977E+0	1.078965E+0	1.137693E+0	1.078325E+0	1.047560E+0	1.073031E+0	1.071116E+0	1.121437E+0	1.150055E+0	1.113055E+0	9.922214E-1	1.165866E+0	1.077635E+0	1.076950E+0	1.089856E+0	1.086422E+0	1.064082E+0	1.101007E+0	1.090746E+0	1.138407E+0	1.088640E+0	1.077727E+0	1.061658E+0	1.054689E+0	1.106493E+0	1.129346E+0	1.024076E+0	1.084786E+0	1.039298E+0	1.122331E+0	1.076329E+0	1.007478E+0	1.136589E+0	1.101706E+0	1.038924E+0	1.044171E+0	1.109076E+0	1.066772E+0	1.017245E+0	1.095274E+0	1.133398E+0	1.206927E+0	1.103654E+0	1.083610E+0	1.077780E+0	1.021496E+0	1.060539E+0	1.140258E+0	1.012904E+0	1.078139E+0	1.099518E+0	1.112287E+0	1.025651E+0	1.101555E+0	1.055774E+0	1.030908E+0	1.073639E+0	1.049367E+0	1.031879E+0	1.065614E+0	9.685141E-1	1.037284E+0
2.915140E+2	1.208431E+0	1.168787E+0	1.160835E+0	1.151386E+0	1.190798E+0	1.300608E+0	1.220760E+0	1.110322E+0	1.123236E+0	1.186313E+0	1.161411E+0	1.143237E+0	1.110600E+0	1.218181E+0	1.193655E+0	1.209753E+0	1.205366E+0	1.139019E+0	1.197556E+0	1.215863E+0	1.181586E+0	1.144531E+0	1.177424E+0	1.126411E+0	1.123175E+0	1.234765E+0	1.178079E+0	1.167893E+0	1.229594E+0	1.183961E+0	1.142336E+0	1.212784E+0	1.174813E+0	1.060086E+0	1.185428E+0	1.196326E+0	1.160794E+0	1.152019E+0	1.173673E+0	1.165917E+0	1.153714E+0	1.195909E+0	1.145149E+0	1.208878E+0	1.253907E+0	1.165595E+0	1.135915E+0	1.116844E+0	1.149080E+0	1.170359E+0	1.174110E+0	1.123588E+0	1.201471E+0	1.172651E+0	1.110726E+0	1.179482E+0	1.196867E+0	1.198067E+0	1.184083E+0	1.104511E+0	1.167983E+0	1.136480E+0	1.207354E+0	1.172794E+0	1.100682E+0	1.199512E+0	1.118591E+0	1.131548E+0	1.195248E+0	1.067051E+0	1.113697E+0	1.108851E+0	1.173394E+0	1.307011E+0	1.136240E+0	1.170149E+0	1.166697E+0	1.140451E+0	1.148392E+0	1.148406E+0	1.121478E+0	1.122204E+0	1.166586E+0	1.208267E+0	1.135526E+0	1.148601E+0	1.129222E+0	1.105974E+0	1.158896E+0	1.230698E+0	1.203940E+0	1.136189E+0	1.166621E+0	1.176445E+0	1.125024E+0	1.141562E+0	1.177992E+0	1.136496E+0	1.157205E+0	1.187872E+0	1.227654E+0	1.176902E+0	1.239113E+0	1.220342E+0	1.169267E+0	1.191436E+0	1.127381E+0	1.219899E+0	1.185333E+0	1.226162E+0	1.218622E+0	1.215330E+0	1.192958E+0	1.150679E+0	1.148058E+0	1.172166E+0	1.203499E+0	1.191834E+0	1.175590E+0	1.129594E+0	1.103956E+0	1.190331E+0	1.117849E+0	1.113201E+0	1.111715E+0	1.217852E+0	1.140809E+0	1.134874E+0	1.127890E+0	1.195610E+0	1.107116E+0	1.171248E+0	1.217046E+0	1.157786E+0	1.165433E+0	1.143445E+0	1.185726E+0	1.173988E+0	1.183735E+0	1.181239E+0	1.139719E+0	1.213371E+0	1.114644E+0	1.148861E+0	1.196051E+0	1.095819E+0	1.091223E+0	1.141138E+0	1.241772E+0	1.183962E+0	1.194731E+0	1.160609E+0	1.152775E+0	1.198000E+0	1.144567E+0	1.188822E+0	1.185317E+0	1.217792E+0	1.169846E+0	1.125212E+0	1.124972E+0	1.245527E+0	1.152632E+0	1.228914E+0	1.167003E+0	1.179839E+0	1.151059E+0	1.152901E+0	1.164819E+0	1.093940E+0
2.920030E+2	9.440636E-1	8.887728E-1	9.408067E-1	9.253887E-1	9.223629E-1	8.855466E-1	9.458477E-1	9.370058E-1	9.683747E-1	9.475694E-1	9.674274E-1	9.774252E-1	9.632663E-1	9.293929E-1	9.609706E-1	9.601232E-1	9.059731E-1	9.463555E-1	9.656798E-1	9.187076E-1	8.964058E-1	9.184488E-1	9.069168E-1	8.896467E-1	9.145175E-1	9.525198E-1	9.174291E-1	8.400175E-1	9.401325E-1	9.224971E-1	9.216016E-1	9.606057E-1	8.770093E-1	8.664973E-1	8.848467E-1	9.469918E-1	8.659059E-1	8.971868E-1	9.845437E-1	9.167530E-1	9.329820E-1	9.135885E-1	9.583042E-1	9.230720E-1	9.121764E-1	9.655383E-1	9.583552E-1	9.496366E-1	9.160382E-1	8.770237E-1	9.244037E-1	9.280515E-1	9.248410E-1	9.133524E-1	9.430578E-1	9.101447E-1	9.302316E-1	9.626480E-1	8.903963E-1	9.025980E-1	9.112622E-1	8.986891E-1	9.938583E-1	9.368576E-1	9.536680E-1	9.403897E-1	9.360054E-1	8.977248E-1	8.750140E-1	8.712844E-1	9.930139E-1	9.266722E-1	9.249390E-1	1.017799E+0	9.629395E-1	8.702593E-1	8.892386E-1	9.368848E-1	9.181601E-1	9.687675E-1	8.518009E-1	9.432035E-1	9.737022E-1	9.090016E-1	9.131194E-1	1.009710E+0	9.654865E-1	9.093477E-1	9.020302E-1	9.143268E-1	9.783243E-1	9.182512E-1	9.938721E-1	8.824409E-1	9.709696E-1	9.504987E-1	9.620217E-1	9.302198E-1	9.028799E-1	9.519399E-1	9.046783E-1	9.581434E-1	9.816051E-1	9.059567E-1	8.963078E-1	9.321704E-1	9.556632E-1	9.905408E-1	9.149566E-1	9.202102E-1	9.398609E-1	9.430276E-1	9.351621E-1	8.628022E-1	9.466242E-1	8.561403E-1	9.566018E-1	9.465094E-1	8.713705E-1	8.762764E-1	9.323376E-1	9.036592E-1	9.257054E-1	9.286116E-1	9.958030E-1	9.546559E-1	9.365421E-1	9.668530E-1	9.508639E-1	9.836517E-1	9.539879E-1	9.678479E-1	8.862809E-1	9.769925E-1	9.328207E-1	9.021619E-1	9.409722E-1	9.471891E-1	9.117881E-1	9.393142E-1	9.274762E-1	9.146633E-1	8.583816E-1	9.085254E-1	9.415004E-1	9.066473E-1	9.386495E-1	9.710481E-1	9.127445E-1	1.044441E+0	8.835988E-1	9.568186E-1	9.440611E-1	8.766830E-1	9.148199E-1	8.740680E-1	9.135746E-1	9.207612E-1	9.464453E-1	9.331230E-1	9.818963E-1	9.294315E-1	9.306699E-1	8.690320E-1	9.473223E-1	9.463403E-1	9.932108E-1	8.757759E-1	9.051156E-1	9.233205E-1
2.925020E+2	8.895570E-1	9.038566E-1	9.221331E-1	9.034763E-1	8.917324E-1	8.987278E-1	8.840500E-1	9.083934E-1	9.012603E-1	8.843611E-1	9.329362E-1	8.810542E-1	9.076797E-1	8.960816E-1	9.032091E-1	8.755194E-1	9.576302E-1	9.698113E-1	9.282143E-1	8.526678E-1	8.955222E-1	8.672853E-1	9.045573E-1	8.915010E-1	8.634309E-1	8.568631E-1	8.464657E-1	8.883689E-1	9.236385E-1	8.600758E-1	8.778335E-1	9.462002E-1	9.071605E-1	8.545692E-1	8.974786E-1	8.893789E-1	9.313652E-1	9.075744E-1	9.093178E-1	8.810087E-1	8.767704E-1	9.001199E-1	8.756140E-1	9.022177E-1	9.675218E-1	8.634796E-1	8.650326E-1	8.796670E-1	9.368642E-1	8.830644E-1	8.953885E-1	7.925150E-1	9.057653E-1	9.475052E-1	9.300781E-1	8.839771E-1	9.365712E-1	9.159042E-1	9.628433E-1	8.721514E-1	8.538955E-1	8.895944E-1	8.794299E-1	8.712713E-1	8.790604E-1	9.180608E-1	8.908824E-1	8.638637E-1	8.099941E-1	9.101707E-1	9.217373E-1	9.083137E-1	8.805759E-1	9.167096E-1	9.200147E-1	8.606349E-1	8.959549E-1	9.251084E-1	8.686737E-1	9.423148E-1	8.655060E-1	8.283028E-1	8.846171E-1	8.451784E-1	9.062436E-1	8.950175E-1	9.418021E-1	8.523343E-1	9.279842E-1	9.257201E-1	9.873394E-1	8.754225E-1	9.114413E-1	9.391749E-1	9.050159E-1	9.222076E-1	9.092829E-1	9.410265E-1	9.043685E-1	8.581608E-1	8.931962E-1	9.082054E-1	8.822326E-1	8.516723E-1	9.201178E-1	8.611161E-1	8.352919E-1	9.082896E-1	9.228462E-1	9.118979E-1	9.465411E-1	8.947489E-1	9.344923E-1	8.827604E-1	8.718087E-1	9.011805E-1	8.482580E-1	9.214161E-1	8.406852E-1	8.652880E-1	9.292758E-1	8.893935E-1	9.127131E-1	8.819572E-1	9.105032E-1	9.553300E-1	9.231328E-1	8.669154E-1	8.434403E-1	9.013435E-1	8.812761E-1	8.743189E-1	9.885765E-1	8.987664E-1	8.445259E-1	9.294257E-1	9.125328E-1	8.802781E-1	9.248864E-1	9.131838E-1	8.406821E-1	8.731385E-1	8.959166E-1	9.338460E-1	9.292062E-1	9.350974E-1	8.285715E-1	8.694691E-1	9.296975E-1	9.497168E-1	8.971834E-1	9.226928E-1	8.597686E-1	8.414455E-1	9.384584E-1	8.711798E-1	8.885965E-1	9.492406E-1	8.648771E-1	8.162862E-1	9.193690E-1	9.211183E-1	8.547803E-1	8.916682E-1	8.314533E-1	9.167114E-1	9.543132E-1	8.587019E-1	9.122471E-1	9.321305E-1
2.930050E+2	9.691655E-1	1.036485E+0	1.041341E+0	1.011438E+0	1.012588E+0	1.008820E+0	1.060185E+0	1.012089E+0	9.693595E-1	1.019020E+0	9.769794E-1	9.530513E-1	9.831118E-1	9.538004E-1	9.996003E-1	9.965845E-1	1.042282E+0	1.035628E+0	9.667918E-1	1.002270E+0	9.611806E-1	1.005002E+0	9.670054E-1	9.751649E-1	1.034657E+0	1.019239E+0	9.839743E-1	1.017719E+0	1.008668E+0	1.005913E+0	9.440786E-1	9.827384E-1	1.056188E+0	9.544636E-1	9.912956E-1	9.006825E-1	9.834958E-1	1.050783E+0	9.955373E-1	9.512379E-1	9.860923E-1	1.012129E+0	9.788154E-1	1.095462E+0	1.031613E+0	1.041040E+0	1.038086E+0	1.064831E+0	9.958579E-1	9.622672E-1	9.794154E-1	9.943120E-1	1.019044E+0	9.986375E-1	9.993927E-1	9.583429E-1	1.052336E+0	9.828292E-1	1.006584E+0	1.027116E+0	9.938772E-1	1.022567E+0	9.548118E-1	9.523043E-1	1.054151E+0	1.066938E+0	9.936933E-1	9.593933E-1	1.029895E+0	9.559742E-1	9.643998E-1	9.621818E-1	9.829423E-1	1.039160E+0	9.377657E-1	9.911627E-1	9.392452E-1	9.631052E-1	1.012144E+0	1.041644E+0	9.747604E-1	9.560042E-1	1.024747E+0	9.427794E-1	9.532536E-1	9.823596E-1	1.020227E+0	9.810292E-1	9.575331E-1	9.679617E-1	1.029303E+0	1.028090E+0	9.677457E-1	1.030817E+0	9.849840E-1	9.597727E-1	9.547726E-1	9.853293E-1	1.027709E+0	1.025931E+0	1.002802E+0	1.008860E+0	9.803266E-1	9.775338E-1	9.993399E-1	1.007814E+0	1.008340E+0	9.885092E-1	1.003648E+0	9.857245E-1	1.045670E+0	1.033422E+0	9.267096E-1	9.525063E-1	9.722117E-1	1.006206E+0	9.512677E-1	9.972746E-1	9.791172E-1	9.982274E-1	9.631053E-1	1.062592E+0	1.013001E+0	9.557998E-1	1.008199E+0	9.866297E-1	1.046716E+0	1.045754E+0	9.600396E-1	1.014173E+0	1.059726E+0	9.964177E-1	1.030975E+0	9.959630E-1	9.846037E-1	1.029928E+0	9.855874E-1	9.515709E-1	9.755206E-1	9.962582E-1	1.028840E+0	1.032099E+0	9.352615E-1	1.055007E+0	1.080236E+0	9.828948E-1	9.957172E-1	9.810637E-1	9.854347E-1	9.851168E-1	1.026827E+0	9.658861E-1	9.449597E-1	9.543769E-1	9.629326E-1	9.068999E-1	9.594683E-1	9.828267E-1	9.506200E-1	1.025297E+0	9.889078E-1	9.949953E-1	1.052563E+0	1.021423E+0	9.793645E-1	9.924074E-1	9.943856E-1	1.006422E+0	9.691016E-1	9.970340E-1
2.935140E+2	1.134109E+0	1.147062E+0	1.234056E+0	1.115755E+0	1.178981E+0	1.202410E+0	1.187982E+0	1.141326E+0	1.171315E+0	1.133541E+0	1.161141E+0	1.150720E+0	1.129721E+0	1.144165E+0	1.121118E+0	1.133796E+0	1.138543E+0	1.184357E+0	1.061750E+0	1.168680E+0	1.118057E+0	1.086665E+0	1.101937E+0	1.070254E+0	1.110544E+0	1.089761E+0	1.183618E+0	1.107965E+0	1.216473E+0	1.105315E+0	1.089457E+0	1.212597E+0	1.100310E+0	1.072278E+0	1.102959E+0	1.171109E+0	1.185355E+0	1.112510E+0	1.166045E+0	1.115645E+0	1.044534E+0	1.119735E+0	1.156798E+0	1.161274E+0	1.156980E+0	1.176131E+0	1.110295E+0	1.184213E+0	1.142278E+0	1.028319E+0	1.154163E+0	1.123495E+0	1.157519E+0	1.198448E+0	1.105367E+0	1.129452E+0	1.150234E+0	1.192066E+0	1.207413E+0	1.083479E+0	1.143033E+0	1.173902E+0	1.103861E+0	1.198699E+0	1.087473E+0	1.106734E+0	1.119283E+0	1.163281E+0	1.182121E+0	1.141778E+0	1.107255E+0	1.123416E+0	1.121074E+0	1.126002E+0	1.181566E+0	1.134744E+0	1.135674E+0	1.109571E+0	1.109319E+0	1.167156E+0	1.186705E+0	1.069415E+0	1.083240E+0	1.098443E+0	1.128447E+0	1.143893E+0	1.123074E+0	1.114585E+0	1.134758E+0	1.177356E+0	1.127910E+0	1.171778E+0	1.144470E+0	1.168765E+0	1.161998E+0	1.172829E+0	1.161934E+0	1.120406E+0	1.122310E+0	1.164762E+0	1.090177E+0	1.106566E+0	1.172397E+0	1.095098E+0	1.077238E+0	1.101430E+0	1.125589E+0	1.165805E+0	1.154078E+0	1.116258E+0	1.211815E+0	1.102918E+0	1.110256E+0	1.134312E+0	1.074844E+0	1.158359E+0	1.151616E+0	1.090264E+0	1.037221E+0	1.120048E+0	1.219275E+0	1.078781E+0	1.146306E+0	1.164919E+0	1.185155E+0	1.131629E+0	1.223455E+0	1.091973E+0	1.129537E+0	1.038622E+0	1.155655E+0	1.190258E+0	1.233405E+0	1.141832E+0	1.100629E+0	1.114629E+0	1.123224E+0	1.149802E+0	1.154480E+0	1.029243E+0	1.124513E+0	1.129257E+0	1.087890E+0	1.140436E+0	1.152344E+0	1.070903E+0	1.077022E+0	1.143525E+0	1.101797E+0	1.172578E+0	1.152646E+0	1.163990E+0	1.127718E+0	1.132391E+0	1.077845E+0	1.201255E+0	1.063113E+0	1.146597E+0	1.140231E+0	1.137736E+0	1.159964E+0	1.179027E+0	1.131337E+0	1.124333E+0	1.098703E+0	1.149273E+0	1.229476E+0	1.001093E+0	1.111258E+0	1.161544E+0
2.940080E+2	1.220015E+0	1.165192E+0	1.153729E+0	1.162665E+0	1.171417E+0	1.236041E+0	1.172334E+0	1.162035E+0	1.209436E+0	1.161440E+0	1.226437E+0	1.201809E+0	1.193180E+0	1.170208E+0	1.164565E+0	1.181351E+0	1.201842E+0	1.184960E+0	1.188505E+0	1.139796E+0	1.186271E+0	1.187637E+0	1.204491E+0	1.176852E+0	1.261893E+0	1.173129E+0	1.245838E+0	1.220685E+0	1.252776E+0	1.187458E+0	1.198965E+0	1.186836E+0	1.232918E+0	1.150717E+0	1.141995E+0	1.165184E+0	1.207856E+0	1.170324E+0	1.173313E+0	1.191492E+0	1.223488E+0	1.192478E+0	1.264339E+0	1.239094E+0	1.161387E+0	1.167268E+0	1.114436E+0	1.191180E+0	1.174051E+0	1.199518E+0	1.131924E+0	1.103267E+0	1.190050E+0	1.182395E+0	1.146859E+0	1.229573E+0	1.217038E+0	1.243045E+0	1.237601E+0	1.201597E+0	1.191727E+0	1.175867E+0	1.119104E+0	1.197678E+0	1.186615E+0	1.172489E+0	1.120423E+0	1.135004E+0	1.236681E+0	1.168958E+0	1.210718E+0	1.194986E+0	1.195167E+0	1.268394E+0	1.174303E+0	1.137921E+0	1.211860E+0	1.158140E+0	1.231814E+0	1.210816E+0	1.216014E+0	1.166399E+0	1.200817E+0	1.217856E+0	1.113159E+0	1.269371E+0	1.238240E+0	1.155705E+0	1.138729E+0	1.154691E+0	1.243301E+0	1.215237E+0	1.158601E+0	1.239990E+0	1.278045E+0	1.097997E+0	1.169284E+0	1.153087E+0	1.176853E+0	1.152102E+0	1.238027E+0	1.199614E+0	1.152821E+0	1.182171E+0	1.218211E+0	1.231277E+0	1.151696E+0	1.274141E+0	1.207699E+0	1.159878E+0	1.244937E+0	1.177057E+0	1.202181E+0	1.188313E+0	1.199634E+0	1.221133E+0	1.162987E+0	1.203907E+0	1.184900E+0	1.218492E+0	1.156536E+0	1.201435E+0	1.145049E+0	1.119426E+0	1.128588E+0	1.219978E+0	1.166465E+0	1.165126E+0	1.196856E+0	1.233634E+0	1.220206E+0	1.155452E+0	1.186034E+0	1.165805E+0	1.145276E+0	1.190409E+0	1.227203E+0	1.235402E+0	1.213366E+0	1.130270E+0	1.179335E+0	1.186776E+0	1.158334E+0	1.225206E+0	1.231156E+0	1.189766E+0	1.178953E+0	1.201465E+0	1.119053E+0	1.189905E+0	1.214197E+0	1.178033E+0	1.244811E+0	1.144764E+0	1.218909E+0	1.140862E+0	1.230471E+0	1.175788E+0	1.160241E+0	1.189947E+0	1.249055E+0	1.214469E+0	1.186493E+0	1.248885E+0	1.192578E+0	1.164108E+0	1.173558E+0	1.174813E+0	1.250184E+0	1.136607E+0
2.945030E+2	1.033793E+0	9.869952E-1	1.071172E+0	1.075835E+0	1.028472E+0	1.049959E+0	1.006015E+0	1.033373E+0	1.072129E+0	1.026664E+0	1.059022E+0	1.136065E+0	1.035887E+0	1.024604E+0	1.074123E+0	1.116979E+0	1.025879E+0	1.091333E+0	1.010817E+0	1.086166E+0	1.045079E+0	1.037906E+0	1.022393E+0	1.028982E+0	1.085883E+0	1.061853E+0	1.067874E+0	1.019512E+0	1.065972E+0	1.034258E+0	1.052267E+0	1.052967E+0	1.059696E+0	1.074616E+0	1.086073E+0	9.961719E-1	9.975612E-1	1.041868E+0	1.071506E+0	9.943926E-1	1.028138E+0	1.110201E+0	1.063609E+0	1.055147E+0	1.107588E+0	1.052042E+0	1.071829E+0	1.020884E+0	1.058704E+0	1.029658E+0	1.044680E+0	1.002703E+0	1.057554E+0	1.082947E+0	1.034425E+0	9.986625E-1	1.082196E+0	1.029196E+0	1.097834E+0	1.042265E+0	1.012011E+0	9.639190E-1	1.080459E+0	1.100356E+0	1.126225E+0	1.106438E+0	9.829636E-1	1.055313E+0	1.077221E+0	9.900452E-1	1.138091E+0	1.025519E+0	1.120359E+0	1.066119E+0	1.036283E+0	9.752379E-1	1.060240E+0	1.013828E+0	1.051502E+0	1.044364E+0	1.098464E+0	9.461452E-1	1.069268E+0	1.063453E+0	1.098111E+0	1.104348E+0	1.049343E+0	1.056662E+0	1.046728E+0	1.107680E+0	1.051154E+0	1.087169E+0	1.055911E+0	1.046572E+0	1.027088E+0	1.067120E+0	1.012645E+0	1.023416E+0	1.047294E+0	1.025905E+0	1.028417E+0	1.037523E+0	1.040164E+0	1.058651E+0	1.062525E+0	1.084130E+0	1.015513E+0	1.033676E+0	9.838663E-1	1.043177E+0	1.060787E+0	1.062076E+0	1.073560E+0	9.924740E-1	1.051306E+0	1.075136E+0	9.719571E-1	1.016847E+0	1.031941E+0	1.041986E+0	1.080256E+0	9.931479E-1	1.024321E+0	9.988241E-1	1.008420E+0	1.080138E+0	1.131564E+0	1.052113E+0	1.012537E+0	1.046654E+0	1.089620E+0	1.044080E+0	1.121933E+0	1.042445E+0	1.006800E+0	1.105511E+0	1.019478E+0	9.649958E-1	1.044064E+0	1.026833E+0	1.064879E+0	1.023784E+0	1.089506E+0	1.118258E+0	1.091997E+0	1.012301E+0	1.069646E+0	9.727739E-1	1.053609E+0	1.034981E+0	1.055214E+0	1.038463E+0	1.140445E+0	1.044908E+0	1.077791E+0	1.073702E+0	1.003052E+0	1.019227E+0	1.062186E+0	1.042743E+0	1.051728E+0	1.067705E+0	1.017099E+0	1.051303E+0	9.911791E-1	1.071332E+0	1.100712E+0	1.032975E+0	9.993778E-1	1.101220E+0
2.950070E+2	9.347861E-1	8.883211E-1	9.266794E-1	9.828295E-1	9.176842E-1	9.262585E-1	9.286889E-1	9.293118E-1	9.957370E-1	8.956551E-1	1.001914E+0	9.918353E-1	9.339535E-1	9.034505E-1	9.832686E-1	9.092498E-1	9.490863E-1	9.575646E-1	9.638375E-1	9.378469E-1	9.139818E-1	9.658350E-1	9.235167E-1	9.419931E-1	9.802964E-1	9.452501E-1	9.641479E-1	9.562322E-1	9.505854E-1	9.477654E-1	9.877135E-1	9.570917E-1	1.008175E+0	9.139238E-1	9.271803E-1	9.328511E-1	8.706741E-1	9.387808E-1	9.394040E-1	9.147469E-1	8.735424E-1	9.335918E-1	1.003103E+0	9.890645E-1	9.535036E-1	9.376353E-1	9.850918E-1	9.918340E-1	9.791884E-1	9.393675E-1	9.227521E-1	9.269410E-1	9.174358E-1	9.085391E-1	9.253570E-1	9.043985E-1	8.585185E-1	9.445069E-1	9.677733E-1	9.381439E-1	9.969340E-1	9.171286E-1	9.097277E-1	9.668458E-1	8.872276E-1	9.900532E-1	9.376203E-1	9.302057E-1	9.104686E-1	8.831722E-1	9.067512E-1	9.576363E-1	9.233037E-1	9.529438E-1	1.007838E+0	9.469466E-1	9.581224E-1	9.582674E-1	9.847583E-1	9.394451E-1	1.017601E+0	9.493681E-1	9.360026E-1	9.354120E-1	9.355214E-1	9.963842E-1	9.711281E-1	9.062854E-1	9.289204E-1	9.364887E-1	9.204555E-1	8.989182E-1	9.788663E-1	9.396470E-1	9.855591E-1	9.167779E-1	9.951309E-1	9.889449E-1	1.037539E+0	9.449997E-1	9.444117E-1	9.520539E-1	9.467570E-1	9.544392E-1	9.199783E-1	9.063328E-1	9.696899E-1	1.012397E+0	9.677495E-1	9.701643E-1	9.213322E-1	9.036590E-1	9.020701E-1	9.358411E-1	9.480221E-1	9.636488E-1	9.704306E-1	9.466799E-1	9.086943E-1	1.000715E+0	9.388205E-1	9.518003E-1	9.862786E-1	9.729930E-1	9.693833E-1	8.963370E-1	1.026167E+0	9.271157E-1	9.382321E-1	9.915890E-1	9.680165E-1	9.785512E-1	9.562828E-1	9.715594E-1	9.663507E-1	8.909284E-1	9.542647E-1	9.420943E-1	9.715707E-1	9.675825E-1	9.700267E-1	9.956561E-1	9.496858E-1	1.014053E+0	1.000360E+0	9.166446E-1	9.337202E-1	9.388624E-1	9.672549E-1	1.007929E+0	9.412728E-1	9.374867E-1	9.358222E-1	9.063340E-1	9.649848E-1	9.081136E-1	9.148459E-1	9.264081E-1	9.475561E-1	9.775902E-1	9.395963E-1	9.429879E-1	9.328207E-1	9.288542E-1	9.169593E-1	9.231107E-1	9.519695E-1	9.352635E-1	9.677894E-1	8.567384E-1
2.955050E+2	9.515038E-1	9.519456E-1	9.393664E-1	9.506172E-1	8.912059E-1	9.610736E-1	9.614862E-1	9.225836E-1	9.561690E-1	8.622456E-1	9.656073E-1	9.515829E-1	9.407614E-1	8.638226E-1	9.618872E-1	9.563262E-1	9.322776E-1	8.848996E-1	9.477915E-1	9.212654E-1	9.626609E-1	9.095712E-1	9.443815E-1	9.524878E-1	9.542364E-1	9.002603E-1	9.488270E-1	9.098197E-1	9.654140E-1	9.454450E-1	9.016234E-1	9.252242E-1	9.054862E-1	8.858414E-1	9.295458E-1	8.523454E-1	9.404752E-1	8.815490E-1	9.309020E-1	9.456754E-1	9.218931E-1	9.711827E-1	9.055798E-1	9.534462E-1	9.371269E-1	9.808169E-1	8.990639E-1	9.515809E-1	9.451459E-1	8.966668E-1	8.807031E-1	9.334166E-1	9.100474E-1	9.520746E-1	9.329948E-1	9.488077E-1	1.033599E+0	9.447918E-1	9.440661E-1	8.996116E-1	9.602135E-1	9.276680E-1	9.790488E-1	9.254664E-1	9.526910E-1	9.363937E-1	9.515821E-1	9.309353E-1	9.928828E-1	9.263640E-1	9.279681E-1	9.520578E-1	8.648480E-1	9.350776E-1	9.814150E-1	9.293658E-1	9.018416E-1	9.463183E-1	9.096903E-1	9.182782E-1	8.864071E-1	8.956641E-1	9.462377E-1	9.261577E-1	9.374155E-1	9.342711E-1	9.480784E-1	9.075353E-1	8.823361E-1	9.406296E-1	9.693775E-1	9.637334E-1	9.069271E-1	9.725508E-1	9.649507E-1	9.446144E-1	9.171323E-1	9.568724E-1	8.836447E-1	9.326691E-1	9.720112E-1	9.135505E-1	9.187088E-1	8.789449E-1	9.307339E-1	9.635689E-1	9.514789E-1	9.407074E-1	9.273343E-1	9.190591E-1	9.290459E-1	9.582710E-1	9.297490E-1	8.571721E-1	9.129298E-1	9.895648E-1	8.925585E-1	9.667811E-1	9.902694E-1	9.828214E-1	1.035712E+0	9.137367E-1	9.330226E-1	9.305803E-1	9.757284E-1	9.440974E-1	9.275823E-1	9.642354E-1	9.164417E-1	9.477948E-1	9.306221E-1	9.360065E-1	9.353970E-1	9.406207E-1	9.602496E-1	9.399917E-1	9.333301E-1	9.657407E-1	8.920837E-1	9.281271E-1	1.011334E+0	9.457549E-1	9.943212E-1	9.799681E-1	9.275334E-1	8.974454E-1	9.589462E-1	9.798891E-1	8.546222E-1	1.013241E+0	9.354520E-1	8.679233E-1	9.497906E-1	9.278578E-1	9.016465E-1	9.139916E-1	9.599078E-1	9.520933E-1	9.612715E-1	8.705819E-1	9.210225E-1	9.654263E-1	9.056495E-1	9.628858E-1	9.538836E-1	9.499449E-1	9.688970E-1	9.154345E-1	9.205915E-1	9.021015E-1
2.960060E+2	1.142085E+0	1.087244E+0	1.151844E+0	1.129249E+0	1.036663E+0	1.068772E+0	1.079604E+0	1.114594E+0	1.099030E+0	1.031935E+0	1.099035E+0	1.074785E+0	1.081928E+0	1.011457E+0	1.060822E+0	1.065947E+0	1.070182E+0	1.055483E+0	1.070005E+0	1.085499E+0	1.093644E+0	1.065085E+0	1.097251E+0	1.015663E+0	1.054629E+0	1.070755E+0	1.095363E+0	1.161370E+0	1.046552E+0	1.040189E+0	1.028690E+0	1.108181E+0	1.047235E+0	1.025823E+0	1.068078E+0	1.057903E+0	1.059501E+0	1.042335E+0	1.106312E+0	1.098551E+0	1.058177E+0	1.089331E+0	1.077958E+0	1.047404E+0	1.065012E+0	1.075402E+0	1.084595E+0	1.103264E+0	1.051401E+0	1.048800E+0	1.067643E+0	1.002833E+0	1.080854E+0	1.086276E+0	1.095370E+0	1.047068E+0	1.006313E+0	1.039634E+0	1.100597E+0	1.009875E+0	1.091842E+0	1.081464E+0	1.120568E+0	1.071662E+0	1.094672E+0	1.044278E+0	1.062244E+0	1.059362E+0	1.073194E+0	1.089705E+0	1.080460E+0	1.042419E+0	1.069846E+0	1.030989E+0	1.150936E+0	1.010269E+0	1.114052E+0	1.038003E+0	1.032814E+0	1.155898E+0	1.080712E+0	1.059288E+0	1.080818E+0	1.093173E+0	1.139289E+0	1.115170E+0	1.099412E+0	1.049845E+0	1.058517E+0	1.126181E+0	1.134229E+0	1.111748E+0	1.093125E+0	1.101502E+0	1.120054E+0	1.057026E+0	1.070376E+0	1.081565E+0	1.076996E+0	1.020892E+0	1.067720E+0	1.089020E+0	1.079633E+0	1.036143E+0	1.077743E+0	1.096080E+0	1.084927E+0	1.089766E+0	1.121661E+0	1.085327E+0	1.107546E+0	1.045167E+0	1.006676E+0	1.048983E+0	1.105413E+0	1.141415E+0	1.054459E+0	1.157726E+0	1.003665E+0	1.073454E+0	1.107681E+0	1.101641E+0	1.023042E+0	1.016822E+0	1.103696E+0	1.129470E+0	1.064288E+0	1.033669E+0	1.078029E+0	1.028815E+0	1.026349E+0	1.066902E+0	1.024539E+0	1.123189E+0	1.127297E+0	1.018529E+0	1.042357E+0	1.062275E+0	1.123498E+0	1.025583E+0	1.079477E+0	1.096140E+0	1.127987E+0	1.089515E+0	1.105669E+0	1.099928E+0	1.097556E+0	1.104830E+0	1.083376E+0	1.089770E+0	1.101799E+0	1.067020E+0	1.122157E+0	1.032188E+0	1.082509E+0	1.052531E+0	1.023317E+0	1.086450E+0	1.025950E+0	1.040650E+0	1.065657E+0	1.064734E+0	1.111242E+0	1.065246E+0	1.066786E+0	1.102543E+0	1.032969E+0	1.152757E+0	1.071806E+0	8.610561E-1
2.965110E+2	1.047271E+0	1.056709E+0	1.031099E+0	1.075644E+0	1.057285E+0	1.138556E+0	1.144457E+0	1.053917E+0	1.080660E+0	1.079995E+0	1.127712E+0	1.082300E+0	1.087152E+0	1.023841E+0	1.072998E+0	1.054814E+0	1.022076E+0	1.051894E+0	1.022451E+0	1.057508E+0	1.072051E+0	1.011662E+0	1.025063E+0	1.055999E+0	1.082450E+0	1.084184E+0	1.073514E+0	1.123912E+0	1.076526E+0	1.036686E+0	1.090576E+0	1.075483E+0	1.083521E+0	1.079358E+0	1.069208E+0	1.033598E+0	1.051762E+0	1.064398E+0	1.111232E+0	1.077474E+0	1.052167E+0	1.076929E+0	1.065041E+0	1.102216E+0	1.076086E+0	1.067411E+0	1.078827E+0	1.127194E+0	1.129305E+0	1.077944E+0	1.071008E+0	1.055977E+0	1.084474E+0	1.164129E+0	1.072202E+0	1.043367E+0	1.109222E+0	1.133351E+0	1.107158E+0	1.021546E+0	1.017990E+0	1.034742E+0	1.054649E+0	1.054760E+0	1.093470E+0	1.077561E+0	1.031967E+0	1.018688E+0	1.078529E+0	1.130078E+0	1.122236E+0	1.048467E+0	1.002630E+0	1.102659E+0	1.049939E+0	1.021621E+0	1.026405E+0	1.025285E+0	1.074055E+0	1.073955E+0	1.137202E+0	1.036810E+0	1.101086E+0	1.074606E+0	1.081570E+0	1.071317E+0	1.104800E+0	1.070915E+0	1.100161E+0	1.044257E+0	1.025763E+0	1.133342E+0	1.089730E+0	1.051290E+0	1.101345E+0	1.040733E+0	1.104859E+0	1.044417E+0	1.061016E+0	1.155708E+0	1.091214E+0	1.072803E+0	1.067686E+0	1.024785E+0	1.068631E+0	1.090655E+0	1.058524E+0	1.080077E+0	1.072438E+0	1.063162E+0	1.149241E+0	1.056842E+0	1.079714E+0	1.039039E+0	1.116181E+0	1.124355E+0	1.068696E+0	1.114545E+0	1.083397E+0	1.091225E+0	1.110015E+0	1.049093E+0	1.131604E+0	1.078102E+0	1.074608E+0	1.108460E+0	1.133992E+0	1.033019E+0	1.118905E+0	1.048525E+0	1.064517E+0	1.010595E+0	1.104264E+0	1.091098E+0	1.085883E+0	1.101069E+0	1.101048E+0	1.034630E+0	1.067084E+0	1.035381E+0	1.014503E+0	1.112958E+0	1.138308E+0	1.043387E+0	1.120116E+0	1.100326E+0	1.062230E+0	1.124808E+0	1.060407E+0	1.161637E+0	1.112536E+0	1.079784E+0	1.054777E+0	1.035712E+0	1.076696E+0	1.009760E+0	1.053531E+0	1.108105E+0	1.093939E+0	1.057526E+0	1.085146E+0	1.120909E+0	1.012035E+0	1.104940E+0	1.051301E+0	1.083856E+0	1.092210E+0	1.114419E+0	1.038666E+0	1.144756E+0
2.970020E+2	1.070782E+0	1.074200E+0	1.109622E+0	1.079934E+0	1.093505E+0	1.091977E+0	1.120449E+0	1.063703E+0	1.129335E+0	1.070837E+0	1.071803E+0	1.074530E+0	1.101032E+0	1.108728E+0	1.076186E+0	1.118187E+0	1.115571E+0	1.086450E+0	1.085195E+0	1.098079E+0	1.044500E+0	1.046370E+0	1.083799E+0	1.070243E+0	1.110302E+0	1.070401E+0	1.038032E+0	1.105867E+0	1.147507E+0	1.092904E+0	1.048207E+0	1.074242E+0	1.042276E+0	1.077910E+0	1.081134E+0	1.077621E+0	1.095523E+0	1.088622E+0	1.089752E+0	1.098700E+0	1.076654E+0	1.136771E+0	1.105412E+0	1.111613E+0	1.095859E+0	1.121813E+0	1.095629E+0	1.141232E+0	1.064996E+0	1.067385E+0	1.137970E+0	1.079407E+0	1.083747E+0	1.123612E+0	1.015403E+0	1.055886E+0	1.107109E+0	1.096738E+0	1.118988E+0	1.096481E+0	1.046767E+0	1.084811E+0	1.069280E+0	1.109460E+0	1.104579E+0	1.083959E+0	1.085508E+0	1.094381E+0	1.051763E+0	1.086304E+0	1.098820E+0	1.083044E+0	1.096065E+0	1.080547E+0	1.070907E+0	1.101560E+0	1.127736E+0	1.057770E+0	1.100131E+0	1.098690E+0	1.043797E+0	1.046291E+0	1.082734E+0	1.006152E+0	1.034914E+0	1.067315E+0	1.129086E+0	1.060088E+0	1.077401E+0	1.138006E+0	1.056541E+0	1.081884E+0	1.090637E+0	1.074071E+0	1.091789E+0	1.104625E+0	1.105090E+0	1.055765E+0	1.135280E+0	1.016252E+0	1.085313E+0	1.052945E+0	1.111851E+0	1.116392E+0	1.106790E+0	1.059194E+0	1.114574E+0	1.126302E+0	1.080341E+0	1.101608E+0	1.076560E+0	1.102823E+0	1.026968E+0	1.068605E+0	1.096991E+0	1.096118E+0	1.057728E+0	1.066616E+0	1.076307E+0	1.129648E+0	1.112436E+0	1.120261E+0	1.095560E+0	1.071132E+0	1.089602E+0	1.047136E+0	1.068668E+0	1.125871E+0	1.137641E+0	1.064019E+0	1.046015E+0	1.104739E+0	1.095303E+0	1.088157E+0	1.033759E+0	1.067067E+0	1.115940E+0	1.083224E+0	1.067799E+0	1.062301E+0	1.077129E+0	1.079195E+0	1.070509E+0	1.121561E+0	1.142336E+0	1.138221E+0	1.103265E+0	1.120769E+0	1.053715E+0	1.095645E+0	1.037682E+0	1.037165E+0	1.080355E+0	1.065146E+0	1.067415E+0	1.058112E+0	1.088341E+0	1.067290E+0	1.163352E+0	1.056951E+0	1.080411E+0	1.076171E+0	1.090973E+0	1.093155E+0	1.089883E+0	1.048031E+0	1.095060E+0	1.076467E+0	1.060152E+0	1.059831E+0
2.975040E+2	9.653382E-1	9.895970E-1	9.777389E-1	1.002136E+0	9.682851E-1	9.680724E-1	9.440581E-1	9.952745E-1	9.743127E-1	9.769848E-1	9.674379E-1	9.211236E-1	9.633367E-1	9.618115E-1	9.517449E-1	1.027931E+0	9.311626E-1	9.139237E-1	1.008004E+0	9.833554E-1	9.771549E-1	9.388583E-1	9.655110E-1	1.029387E+0	9.761134E-1	9.608559E-1	9.421537E-1	9.766042E-1	9.473465E-1	9.673599E-1	9.292306E-1	9.789244E-1	9.314390E-1	9.640865E-1	9.720414E-1	9.457044E-1	9.803347E-1	9.455098E-1	9.630808E-1	9.908164E-1	9.632504E-1	9.591378E-1	1.006795E+0	9.857413E-1	9.811586E-1	9.764108E-1	9.932571E-1	9.603693E-1	9.444582E-1	9.751028E-1	1.010904E+0	9.546510E-1	9.817832E-1	9.795726E-1	9.513202E-1	9.533293E-1	9.774410E-1	9.716016E-1	9.662588E-1	9.849715E-1	9.426344E-1	9.826132E-1	1.000245E+0	9.946311E-1	9.474960E-1	9.473044E-1	9.544115E-1	9.998466E-1	1.011932E+0	9.698304E-1	9.865492E-1	9.952835E-1	9.716383E-1	1.024134E+0	1.033209E+0	1.042727E+0	9.349633E-1	9.686264E-1	9.361431E-1	9.565392E-1	9.848408E-1	9.792665E-1	9.560365E-1	9.763604E-1	9.736043E-1	9.394740E-1	9.823635E-1	9.574216E-1	9.590736E-1	9.304753E-1	1.027148E+0	9.994874E-1	1.002580E+0	9.794410E-1	9.594946E-1	9.448504E-1	9.747212E-1	9.479787E-1	9.627175E-1	9.500333E-1	9.631404E-1	9.774982E-1	9.646622E-1	9.439914E-1	9.788079E-1	9.845644E-1	9.819916E-1	9.406383E-1	9.891256E-1	9.476872E-1	9.714881E-1	9.247638E-1	9.555376E-1	9.680750E-1	9.979628E-1	9.840801E-1	9.658245E-1	9.312390E-1	9.707462E-1	9.341531E-1	9.996215E-1	9.695019E-1	9.882631E-1	9.712631E-1	9.613779E-1	9.513095E-1	1.009158E+0	9.803085E-1	9.712535E-1	1.012019E+0	9.844286E-1	9.903239E-1	9.776613E-1	9.295635E-1	9.766883E-1	1.008438E+0	1.024404E+0	1.017880E+0	9.858131E-1	9.342448E-1	9.696993E-1	9.816871E-1	1.002852E+0	1.023751E+0	9.500612E-1	1.010569E+0	9.651640E-1	9.691440E-1	9.949061E-1	9.976251E-1	9.936393E-1	9.747447E-1	9.870857E-1	1.015163E+0	1.008382E+0	9.982007E-1	1.010981E+0	9.785630E-1	9.530676E-1	9.607676E-1	9.811387E-1	9.649566E-1	9.690816E-1	9.684258E-1	9.383967E-1	9.235347E-1	9.780546E-1	9.632902E-1	9.933690E-1	9.820263E-1
2.980020E+2	8.703575E-1	8.888661E-1	8.609162E-1	8.728851E-1	8.918251E-1	8.591835E-1	8.830311E-1	8.560785E-1	8.869174E-1	8.243283E-1	8.828064E-1	8.837796E-1	8.879100E-1	8.779041E-1	8.748632E-1	8.705534E-1	8.938993E-1	8.744304E-1	8.332945E-1	8.888198E-1	8.705281E-1	8.777993E-1	8.683816E-1	8.472190E-1	8.603435E-1	8.540665E-1	8.858947E-1	8.616556E-1	8.913901E-1	8.919079E-1	8.721440E-1	8.125021E-1	8.881649E-1	8.607894E-1	8.417862E-1	8.629372E-1	8.698460E-1	8.778389E-1	8.727356E-1	8.965389E-1	9.255035E-1	8.679129E-1	8.676749E-1	8.681679E-1	8.937924E-1	8.937104E-1	8.476898E-1	8.300378E-1	8.684938E-1	8.721003E-1	8.518701E-1	8.537833E-1	8.823441E-1	8.602280E-1	8.765092E-1	8.780064E-1	8.056818E-1	8.349739E-1	8.687048E-1	8.744902E-1	8.763031E-1	8.655641E-1	8.593749E-1	8.890591E-1	8.382850E-1	8.920745E-1	9.172909E-1	8.894151E-1	8.392980E-1	8.958820E-1	8.791164E-1	8.646467E-1	8.640362E-1	8.855372E-1	8.645281E-1	8.245257E-1	8.629853E-1	8.546081E-1	8.544756E-1	8.830772E-1	9.252263E-1	8.586849E-1	8.533819E-1	9.053547E-1	8.514019E-1	9.173225E-1	8.947290E-1	8.553252E-1	8.725156E-1	8.580828E-1	8.474040E-1	8.306386E-1	8.563126E-1	8.608633E-1	8.705765E-1	8.795800E-1	9.073929E-1	8.971884E-1	8.769544E-1	8.709365E-1	8.141373E-1	8.635712E-1	8.925485E-1	8.654524E-1	8.462008E-1	8.541973E-1	8.233995E-1	9.139870E-1	8.472280E-1	8.748814E-1	8.975238E-1	9.291242E-1	8.704834E-1	8.856053E-1	8.832169E-1	8.668868E-1	8.583219E-1	8.773323E-1	8.318496E-1	8.896863E-1	9.253771E-1	8.342449E-1	8.885030E-1	9.042556E-1	8.956401E-1	8.785545E-1	8.365861E-1	8.492359E-1	8.986724E-1	8.571606E-1	8.728510E-1	8.859254E-1	8.557072E-1	8.654791E-1	8.883929E-1	8.675686E-1	8.779584E-1	8.657955E-1	8.402512E-1	9.306358E-1	8.782731E-1	8.676988E-1	8.630259E-1	8.274318E-1	9.164931E-1	9.180349E-1	8.887720E-1	8.710416E-1	8.622341E-1	8.440478E-1	8.596756E-1	9.226795E-1	8.685503E-1	8.622438E-1	8.866600E-1	8.767984E-1	8.920271E-1	8.951463E-1	9.088688E-1	8.340581E-1	8.904376E-1	8.640326E-1	9.183511E-1	8.430330E-1	8.989678E-1	8.826014E-1	8.997102E-1	8.677699E-1	8.201698E-1	7.846582E-1
2.985010E+2	9.129509E-1	9.498179E-1	9.485637E-1	8.531965E-1	9.175138E-1	9.200019E-1	9.261148E-1	9.031415E-1	9.053632E-1	9.416723E-1	8.894868E-1	8.988513E-1	9.241071E-1	9.669556E-1	8.882934E-1	8.881927E-1	9.192609E-1	9.106791E-1	9.244100E-1	9.099050E-1	9.121257E-1	8.853743E-1	8.773892E-1	8.978928E-1	8.463288E-1	9.332327E-1	9.159831E-1	9.164079E-1	9.139737E-1	8.860570E-1	9.115656E-1	9.590270E-1	8.730299E-1	9.044413E-1	9.158741E-1	9.384592E-1	8.946605E-1	8.969445E-1	9.199851E-1	9.006538E-1	9.317329E-1	8.773620E-1	8.911919E-1	9.042204E-1	8.971394E-1	8.847579E-1	8.982202E-1	9.188986E-1	8.741023E-1	8.708479E-1	9.380367E-1	9.408369E-1	9.220432E-1	9.188455E-1	8.878944E-1	9.297703E-1	9.230658E-1	9.280612E-1	8.911504E-1	8.684251E-1	9.241711E-1	9.115811E-1	9.071048E-1	8.983969E-1	8.907300E-1	9.308960E-1	9.434888E-1	9.473212E-1	8.898807E-1	8.833240E-1	8.636255E-1	9.065515E-1	9.279432E-1	8.682097E-1	9.013928E-1	9.043813E-1	8.732589E-1	8.815868E-1	9.067760E-1	9.287846E-1	8.902672E-1	9.150101E-1	9.313183E-1	9.199457E-1	9.295684E-1	8.995823E-1	8.452179E-1	8.870002E-1	8.733369E-1	8.962897E-1	8.833385E-1	9.458979E-1	9.091326E-1	9.460647E-1	9.123363E-1	9.143962E-1	8.690655E-1	9.208601E-1	9.329123E-1	8.697081E-1	9.198282E-1	9.204171E-1	8.704259E-1	9.166508E-1	8.936556E-1	9.130028E-1	9.083158E-1	9.168487E-1	9.011423E-1	9.049619E-1	9.212207E-1	8.810791E-1	9.539117E-1	8.887703E-1	8.974097E-1	9.167535E-1	9.306806E-1	9.220252E-1	9.332314E-1	8.833867E-1	9.231340E-1	9.310493E-1	9.064662E-1	8.564209E-1	9.132375E-1	9.378224E-1	8.984129E-1	9.166216E-1	9.135708E-1	9.299994E-1	8.969820E-1	8.958882E-1	9.419048E-1	9.248175E-1	9.387840E-1	9.222108E-1	8.985578E-1	9.070253E-1	9.660805E-1	9.105470E-1	8.693332E-1	9.017123E-1	9.023639E-1	8.987261E-1	9.237577E-1	9.189518E-1	9.240405E-1	9.126221E-1	8.925895E-1	9.085750E-1	8.944326E-1	9.019534E-1	8.948712E-1	9.196370E-1	8.627926E-1	9.432171E-1	8.762944E-1	9.215968E-1	8.785207E-1	8.890384E-1	9.493434E-1	9.493552E-1	9.186903E-1	9.304999E-1	9.068928E-1	9.273597E-1	8.900103E-1	8.947399E-1	9.404707E-1	8.664428E-1
2.990020E+2	1.067988E+0	1.090489E+0	1.033722E+0	1.066179E+0	1.060403E+0	1.054341E+0	1.055817E+0	1.072890E+0	1.086068E+0	1.092514E+0	1.012448E+0	1.070548E+0	1.052058E+0	1.032104E+0	1.060520E+0	1.033703E+0	1.034404E+0	1.086233E+0	1.058401E+0	1.039782E+0	1.060194E+0	1.036705E+0	1.089064E+0	1.024245E+0	1.055398E+0	1.040863E+0	1.034570E+0	1.063827E+0	1.084567E+0	1.049092E+0	1.048792E+0	1.064745E+0	1.075743E+0	1.052229E+0	1.032866E+0	1.076549E+0	1.102421E+0	1.057154E+0	1.044772E+0	1.027508E+0	1.021250E+0	1.100564E+0	1.046797E+0	1.028538E+0	1.049537E+0	1.039934E+0	1.070854E+0	1.098891E+0	1.063510E+0	1.065366E+0	1.030093E+0	1.063807E+0	1.030066E+0	1.042812E+0	1.078621E+0	1.051890E+0	1.048119E+0	1.055197E+0	1.096791E+0	1.112539E+0	1.050629E+0	1.085101E+0	1.057983E+0	1.064403E+0	1.100131E+0	1.071008E+0	1.026563E+0	9.823426E-1	1.081646E+0	1.064404E+0	1.054773E+0	1.068635E+0	1.052171E+0	1.030212E+0	1.041415E+0	9.961226E-1	1.088171E+0	1.047215E+0	1.082062E+0	1.035364E+0	1.029561E+0	1.097765E+0	1.050447E+0	1.026315E+0	1.026573E+0	1.020356E+0	1.059261E+0	1.068544E+0	1.072593E+0	1.051312E+0	1.022898E+0	1.044553E+0	1.040613E+0	1.045287E+0	9.910616E-1	1.030850E+0	1.032580E+0	1.095788E+0	1.009024E+0	1.062522E+0	1.094365E+0	1.009017E+0	1.074091E+0	1.039425E+0	1.065864E+0	1.046623E+0	1.056290E+0	1.033249E+0	1.049585E+0	1.088277E+0	1.061282E+0	1.023064E+0	1.135670E+0	1.071951E+0	1.044052E+0	1.036567E+0	1.113998E+0	1.050988E+0	1.084259E+0	1.099416E+0	1.009123E+0	1.044270E+0	1.032750E+0	1.047354E+0	1.040208E+0	1.062428E+0	1.102393E+0	1.055603E+0	1.049363E+0	1.053467E+0	1.074313E+0	1.054958E+0	1.074056E+0	1.067387E+0	1.043874E+0	1.045882E+0	1.025672E+0	1.068026E+0	1.059069E+0	1.067004E+0	1.092152E+0	1.063107E+0	1.097554E+0	1.060965E+0	1.051195E+0	1.029242E+0	1.030468E+0	1.088083E+0	1.105366E+0	1.023188E+0	1.041505E+0	1.033875E+0	1.007947E+0	1.042242E+0	1.060682E+0	9.732370E-1	1.009828E+0	9.962400E-1	1.064677E+0	1.022566E+0	9.988752E-1	1.068306E+0	1.063868E+0	1.072176E+0	1.047783E+0	1.067587E+0	1.023089E+0	1.052936E+0	1.095323E+0	1.021317E+0
2.995040E+2	1.084907E+0	1.040618E+0	1.114446E+0	1.077636E+0	1.072354E+0	1.088532E+0	1.065314E+0	1.040505E+0	1.059664E+0	1.097047E+0	1.136526E+0	1.107218E+0	1.084029E+0	1.065578E+0	1.065355E+0	1.071588E+0	1.119995E+0	1.108287E+0	1.065807E+0	1.078025E+0	1.055124E+0	1.110673E+0	1.097838E+0	1.120512E+0	1.124028E+0	1.119469E+0	1.119777E+0	1.079372E+0	1.129204E+0	1.102256E+0	1.101718E+0	1.093609E+0	1.126566E+0	1.106239E+0	1.092647E+0	1.078858E+0	1.063127E+0	1.106764E+0	1.093370E+0	1.051401E+0	1.036867E+0	1.053686E+0	1.066288E+0	1.093256E+0	1.066172E+0	1.096203E+0	1.071331E+0	1.064542E+0	1.125034E+0	1.109930E+0	1.100260E+0	1.063368E+0	1.065372E+0	1.096198E+0	1.092817E+0	1.059419E+0	1.143099E+0	1.089766E+0	1.072399E+0	1.066606E+0	1.119145E+0	1.057367E+0	1.076484E+0	1.043330E+0	1.086837E+0	1.062885E+0	1.064018E+0	1.071774E+0	1.095821E+0	1.069371E+0	1.058906E+0	1.113655E+0	1.075005E+0	1.033218E+0	1.030071E+0	1.098355E+0	1.136474E+0	1.116865E+0	1.062704E+0	1.093573E+0	1.072899E+0	1.062046E+0	1.126151E+0	1.099907E+0	1.069069E+0	1.127362E+0	1.095892E+0	1.101560E+0	1.080787E+0	1.140596E+0	1.109086E+0	1.096586E+0	1.092362E+0	1.091885E+0	1.099250E+0	1.107986E+0	1.127794E+0	1.014359E+0	1.096275E+0	1.126176E+0	1.104425E+0	1.107446E+0	1.095204E+0	1.107170E+0	1.077152E+0	1.101354E+0	1.098539E+0	1.109437E+0	1.093102E+0	1.103428E+0	1.075249E+0	1.127362E+0	1.033594E+0	1.097593E+0	1.067010E+0	1.131684E+0	1.058514E+0	1.124018E+0	1.078341E+0	1.066283E+0	1.088714E+0	1.068078E+0	1.070654E+0	1.098323E+0	1.059318E+0	1.074093E+0	1.060659E+0	1.091979E+0	1.099907E+0	1.064548E+0	1.053565E+0	1.055005E+0	1.047689E+0	1.108716E+0	1.093719E+0	1.051298E+0	1.085777E+0	1.071859E+0	1.038727E+0	1.066784E+0	1.080403E+0	1.081006E+0	1.059420E+0	1.079596E+0	1.097366E+0	1.067479E+0	1.091803E+0	1.083795E+0	1.077185E+0	1.096583E+0	1.076567E+0	1.080309E+0	1.092322E+0	1.071797E+0	1.087938E+0	1.064755E+0	1.083379E+0	1.112417E+0	1.114748E+0	1.151737E+0	1.048586E+0	1.037524E+0	1.050401E+0	1.074009E+0	1.086834E+0	1.101926E+0	1.101485E+0	1.149520E+0	1.097355E+0	1.112738E+0
3.000080E+2	1.098458E+0	1.040612E+0	1.064613E+0	1.127967E+0	1.089620E+0	1.109869E+0	1.125665E+0	1.132110E+0	1.087674E+0	1.067453E+0	1.111295E+0	1.118480E+0	1.088558E+0	1.095647E+0	1.159224E+0	1.108031E+0	1.101279E+0	1.106446E+0	1.110083E+0	1.100112E+0	1.124873E+0	1.150591E+0	1.101817E+0	1.080744E+0	1.137789E+0	1.091513E+0	1.101622E+0	1.102134E+0	1.033518E+0	1.103327E+0	1.136551E+0	1.091193E+0	1.105058E+0	1.112215E+0	1.144785E+0	1.097492E+0	1.089611E+0	1.115789E+0	1.106056E+0	1.133082E+0	1.121395E+0	1.141337E+0	1.121254E+0	1.120077E+0	1.112201E+0	1.108984E+0	1.118648E+0	1.127261E+0	1.124402E+0	1.106653E+0	1.068836E+0	1.123555E+0	1.118392E+0	1.102344E+0	1.112839E+0	1.127585E+0	1.102594E+0	1.120399E+0	1.104696E+0	1.092968E+0	1.087117E+0	1.097774E+0	1.098809E+0	1.110180E+0	1.136521E+0	1.095832E+0	1.094228E+0	1.109301E+0	1.081422E+0	1.117189E+0	1.157030E+0	1.051228E+0	1.109206E+0	1.158689E+0	1.129384E+0	1.133889E+0	1.104147E+0	1.131098E+0	1.157839E+0	1.102662E+0	1.097205E+0	1.087227E+0	1.082665E+0	1.072117E+0	1.149783E+0	1.095903E+0	1.122537E+0	1.130149E+0	1.141694E+0	1.123245E+0	1.110126E+0	1.082837E+0	1.099000E+0	1.076459E+0	1.167281E+0	1.122337E+0	1.088446E+0	1.123826E+0	1.122117E+0	1.120624E+0	1.104103E+0	1.122051E+0	1.103068E+0	1.127310E+0	1.138319E+0	1.100259E+0	1.131464E+0	1.085839E+0	1.119817E+0	1.080765E+0	1.073237E+0	1.114608E+0	1.050803E+0	1.088005E+0	1.110349E+0	1.064028E+0	1.072661E+0	1.094397E+0	1.101573E+0	1.127075E+0	1.054030E+0	1.152857E+0	1.113364E+0	1.122383E+0	1.130218E+0	1.095793E+0	1.092790E+0	1.106253E+0	1.067234E+0	1.082806E+0	1.117860E+0	1.117899E+0	1.102982E+0	1.104038E+0	1.058542E+0	1.104603E+0	1.087632E+0	1.069415E+0	1.110059E+0	1.090785E+0	1.110139E+0	1.104790E+0	1.074785E+0	1.109531E+0	1.061127E+0	1.055723E+0	1.099752E+0	1.075314E+0	1.067719E+0	1.129982E+0	1.134181E+0	1.086438E+0	1.149224E+0	1.088917E+0	1.093546E+0	1.143792E+0	1.127491E+0	1.096036E+0	1.080118E+0	1.141833E+0	1.131619E+0	1.115826E+0	1.079609E+0	1.111856E+0	1.121126E+0	1.096991E+0	1.107651E+0	1.071744E+0	1.053313E+0	1.232817E+0
