Photon Energy (eV)	#1	#2	#3	#4	#5	#6	#7	#8	#9	#10	#11	#12	#13	#14	#15	#16	#17	#18	#19	#20	#21	#22	#23	#24	#25	#26	#27	#28	#29	#30	#31	#32	#33	#34	#35	#36	#37	#38	#39	#40	#41	#42	#43	#44	#45	#46	#47	#48	#49	#50	#51	#52	#53	#54	#55	#56	#57	#58	#59	#60	#61	#62	#63	#64	#65	#66	#67	#68	#69	#70	#71	#72	#73	#74	#75	#76	#77	#78	#79	#80	#81	#82	#83	#84	#85	#86	#87	#88	#89	#90	#91	#92	#93	#94	#95	#96	#97	#98	#99	#100	#101	#102	#103	#104	#105	#106	#107	#108	#109	#110	#111	#112	#113	#114	#115	#116	#117	#118	#119	#120	#121	#122	#123	#124	#125	#126	#127	#128	#129	#130	#131	#132	#133	#134	#135	#136	#137	#138	#139	#140	#141	#142	#143	#144	#145	#146	#147	#148	#149	#150	#151	#152	#153	#154	#155	#156	#157	#158	#159	#160	#161	#162	#163	#164	#165	#166	#167	#168	#169	#170	
5.300220E+2	-8.036291E-3	1.636440E-4	-1.191494E-2	-1.300820E-3	-9.599408E-3	-4.740333E-3	-5.472462E-3	-7.075486E-3	-1.006133E-2	-5.128052E-3	-2.421895E-3	-5.599435E-3	-2.162161E-3	-7.734620E-3	-2.054432E-3	-9.042485E-3	-7.284834E-3	-7.038448E-3	-5.007071E-3	-3.989614E-4	-6.834996E-3	-1.090374E-2	-3.631057E-3	-9.351844E-3	-8.210346E-3	-9.751148E-3	-4.603861E-3	-4.865973E-3	-4.678616E-3	-1.213957E-2	-9.561968E-3	-7.999937E-3	-1.090392E-2	-8.910834E-3	-1.004132E-2	-6.236138E-3	-5.832906E-3	-7.640219E-3	-1.317999E-2	-4.545283E-3	5.132505E-3	-7.711099E-3	-3.319268E-3	-1.592357E-3	-7.349144E-3	-4.513014E-3	-1.526524E-2	-5.642944E-3	-8.253811E-3	-2.323440E-3	-6.807140E-3	-1.239541E-2	-6.907135E-3	-8.536865E-3	-4.043769E-3	-1.477187E-2	-9.566596E-3	-3.113291E-3	-1.064348E-2	-9.335230E-3	-6.051682E-3	-6.193765E-3	-5.295144E-3	-8.700603E-3	-1.432514E-2	-1.269780E-2	-6.365104E-3	-1.074345E-2	-1.369996E-2	-8.001417E-3	-1.095170E-3	-1.168115E-2	-4.694705E-3	-1.169018E-3	-1.550882E-3	-1.829551E-3	-6.465758E-3	-5.171906E-3	-1.097603E-2	-9.135485E-3	-1.055458E-2	-6.350523E-3	-7.761750E-3	-9.523942E-3	-6.259421E-3	-8.268333E-3	-1.129474E-2	-8.838312E-3	-6.573161E-3	-1.301329E-2	-1.149204E-2	-6.575616E-3	-1.558598E-2	-1.340853E-2	-1.007417E-2	-1.048224E-2	-2.364184E-3	-8.413730E-3	-8.897986E-3	-3.479609E-3	-2.747455E-3	-1.107174E-2	-4.383787E-3	-1.277186E-2	-6.065694E-3	-1.166638E-2	-1.828347E-3	-5.995645E-3	-6.091769E-3	-2.715201E-3	-8.040244E-3	-4.125321E-3	-7.576131E-3	-7.222976E-3	-8.120739E-3	-6.837177E-3	-4.254605E-3	-2.807164E-3	-1.332426E-2	4.462173E-3	-1.093393E-2	1.859463E-3	-1.333280E-2	1.066276E-3	-1.077664E-2	-5.555645E-3	-5.490234E-3	-1.403715E-2	-3.540182E-3	-9.870504E-3	-1.318532E-2	-9.468102E-3	-1.116227E-2	-1.531591E-2	-8.853153E-3	-1.222672E-2	-7.018369E-3	-7.823936E-3	-1.797101E-2	-3.927646E-3	-1.134504E-2	-9.233876E-3	-8.212506E-3	-3.812897E-3	-1.060196E-2	-1.081610E-2	-3.707073E-3	-8.061672E-3	-8.928391E-3	-2.215316E-3	-1.330271E-2	-6.771166E-3	-1.088921E-2	-9.606691E-3	-5.531783E-3	-6.727674E-3	-3.339236E-3	-7.739494E-3	-2.160863E-3	-1.456172E-2	-4.362764E-4	-1.501604E-2	-8.511510E-3	-7.732230E-3	-1.015914E-2	-8.829519E-3	-1.235031E-2	-1.016880E-2	-8.017533E-3	-1.604516E-2
5.305230E+2	-7.191502E-3	-9.714770E-3	-6.042316E-3	-7.584009E-3	-8.309184E-3	-9.308185E-3	-1.023254E-2	-3.657760E-3	-4.529490E-3	-4.992431E-3	3.180987E-3	-6.846507E-3	-1.440444E-2	-6.541361E-3	-5.950166E-3	-3.637822E-3	-8.339656E-3	-5.784878E-3	-1.644052E-3	-1.216151E-2	-9.454711E-3	-4.800695E-3	-6.001877E-3	-1.035845E-2	-6.160517E-3	-2.596951E-3	-7.043053E-3	-8.787880E-4	-2.704876E-3	-5.702716E-3	-4.593593E-3	-7.403776E-3	-9.121738E-3	-1.113759E-3	-9.188820E-3	-1.077239E-2	-8.960677E-3	5.593478E-4	-7.762596E-3	4.918643E-4	-1.545565E-2	-3.772962E-3	-1.224663E-2	-9.359360E-3	-1.655541E-2	-1.075903E-3	-6.508964E-3	-7.752906E-3	-1.140218E-2	-3.478479E-3	-7.257354E-3	2.400348E-3	-3.635822E-3	-2.948724E-3	-8.149721E-3	-9.748372E-3	-6.367610E-3	-1.995098E-2	-4.240641E-3	6.486705E-4	2.001761E-3	7.484139E-4	-2.176666E-3	-9.135015E-3	-7.710530E-3	-2.905386E-3	-5.516417E-3	2.662340E-3	-5.479616E-3	-1.592728E-2	-7.625469E-3	-2.923977E-3	-6.935630E-3	-3.627574E-3	-1.210033E-2	-4.245727E-4	-1.050031E-2	-5.646247E-3	-1.820301E-3	-5.465915E-3	-8.930601E-3	-9.030151E-3	-1.382877E-3	-7.251692E-3	-1.281422E-2	-1.121007E-2	-6.752134E-3	-4.865857E-3	-9.102922E-3	-1.778143E-3	-1.479952E-3	-3.634876E-3	-1.660245E-2	-6.554260E-3	-4.257057E-3	-9.159052E-3	2.938331E-3	-9.514286E-3	-6.652752E-3	-2.622001E-3	-1.010320E-2	-6.530960E-3	-4.085344E-4	-4.085439E-3	3.097272E-3	-9.770251E-3	-9.464382E-3	-7.927375E-3	-3.031764E-3	-5.468220E-3	-4.272011E-3	-2.891717E-3	-6.760210E-3	-1.410826E-3	-9.289142E-3	-5.991125E-3	-8.776898E-3	-8.063414E-3	-8.516782E-3	-9.531743E-3	1.710974E-4	-1.437867E-2	-5.205697E-3	-5.282080E-3	-7.470627E-3	-6.575975E-3	-4.227678E-3	-9.196776E-3	-5.331224E-3	-5.205619E-3	-1.169441E-2	-3.766654E-3	-6.787089E-3	-4.200751E-3	-1.053389E-2	-7.116583E-3	-6.819950E-3	-7.648042E-3	-1.486867E-2	-1.542301E-2	-6.574994E-3	-1.208748E-3	-5.230429E-3	8.660496E-4	-3.742818E-3	-2.040792E-3	-6.252252E-3	-1.535936E-2	-7.234761E-3	-9.134776E-3	8.839208E-4	-2.246102E-3	-1.397920E-2	-1.318823E-3	-1.250122E-2	-1.067856E-2	-1.205482E-2	-4.826967E-3	-6.350720E-3	-1.272722E-2	-1.309995E-2	-7.570590E-3	-4.645702E-3	-1.698967E-3	-5.586625E-3	-2.616121E-3	-1.206416E-2	-3.653938E-3	-9.999037E-3	-8.044025E-3
5.310050E+2	-3.148109E-3	-1.120815E-2	-9.859704E-3	-3.217000E-3	-2.041907E-3	-6.426082E-3	-1.139004E-2	-6.963841E-3	-4.581637E-3	-5.041797E-3	-1.299390E-2	1.385933E-3	-2.799095E-3	-8.188297E-3	-5.522361E-3	-1.527943E-2	4.952009E-4	-9.724746E-3	-2.378690E-3	-6.638258E-3	-1.320282E-3	-4.853950E-3	-4.815168E-3	6.749443E-3	-4.986508E-3	-7.922823E-3	-2.059174E-3	-8.106611E-3	-1.139766E-2	-2.383339E-3	-5.204234E-3	-3.181870E-3	-7.701040E-3	-5.836979E-3	-9.931266E-3	1.849474E-3	-1.059774E-2	-1.014191E-2	-3.943674E-3	-6.480129E-3	-1.316129E-2	-5.501755E-3	-9.078975E-3	-6.162137E-3	-5.629942E-3	-8.486768E-3	8.245146E-4	-8.890812E-3	1.110243E-3	-1.116934E-2	-6.701681E-3	-4.990342E-3	-1.277313E-2	-6.862612E-3	-9.410098E-3	-5.616005E-3	1.510233E-3	-4.306335E-3	-9.454907E-4	-3.872064E-3	-7.109328E-3	-2.717602E-3	-7.600582E-3	-8.631117E-3	-7.761019E-3	3.552561E-5	-1.651366E-2	-1.252495E-2	-4.992169E-3	-3.037071E-3	-3.451113E-3	-4.810874E-3	6.343656E-4	-4.331446E-3	-4.542728E-3	-1.178412E-2	-6.403209E-3	-5.078557E-3	-2.001804E-4	-4.353183E-3	-3.502088E-3	-1.931881E-3	-4.551035E-3	-6.617680E-3	-2.920290E-3	-8.175141E-3	-1.176029E-2	-9.344100E-3	-1.272765E-3	-1.143640E-2	-1.052789E-2	-9.848016E-3	-7.752820E-3	-2.654804E-3	-5.590774E-4	5.251640E-3	-7.353217E-3	-3.726605E-4	-8.040594E-3	-4.791580E-3	-5.037943E-3	-1.265575E-2	-1.762831E-3	-9.306988E-3	-4.696414E-3	-8.093295E-3	-1.164635E-2	-5.114896E-3	-4.243558E-3	-1.167261E-2	-8.533144E-3	-4.633689E-3	-5.370744E-4	-1.466386E-2	-7.280452E-3	-6.698739E-3	-7.679764E-3	-4.394603E-3	-2.704869E-3	-1.149048E-2	-5.060486E-3	-5.659484E-3	-9.155356E-3	-7.511674E-3	-6.270241E-3	-8.929499E-3	-7.762758E-3	1.766596E-3	-8.042942E-3	-1.103781E-2	-6.702754E-3	-1.192371E-2	-4.707038E-3	-3.103176E-3	-4.984592E-3	-1.021359E-2	-9.988289E-3	-6.362021E-3	-6.570211E-3	-1.135988E-2	7.311703E-3	-6.124631E-3	-1.278815E-2	-1.853114E-2	-9.121608E-3	-2.710300E-3	-1.364685E-2	-1.708538E-3	-1.428936E-2	-3.829357E-3	-1.058208E-2	-5.387490E-3	-4.311718E-3	-1.008237E-2	-2.539220E-3	-5.179847E-3	-1.992470E-3	-9.923667E-3	-7.627278E-3	-9.950719E-3	-1.113922E-2	-2.420271E-3	-7.653400E-3	-5.661532E-3	-1.706392E-3	-7.765626E-3	-5.164056E-3	-4.337437E-3	-7.759112E-3	-9.016299E-3
5.315080E+2	-3.872846E-3	-2.747095E-3	-6.039623E-3	-3.891170E-3	-3.120801E-3	-2.910358E-3	2.518958E-4	-1.150236E-2	2.696499E-3	5.590700E-4	-5.587946E-4	-5.245180E-3	-1.048244E-2	3.382196E-3	6.341164E-4	5.995283E-4	-1.364312E-2	-6.955354E-3	-1.216715E-2	-4.555059E-3	-5.685757E-3	3.456831E-3	-3.003917E-3	6.030390E-4	-2.587570E-3	-8.591615E-4	-1.953122E-3	-4.245134E-3	3.475201E-3	-1.242256E-3	1.015962E-3	-7.982948E-3	1.116134E-3	-4.149875E-3	5.788145E-3	-5.530799E-3	-5.833851E-3	-6.505852E-3	-7.260493E-3	-3.977872E-3	-4.385178E-3	-9.149382E-4	2.553501E-3	-4.301808E-3	8.375799E-4	-1.646790E-3	3.239191E-3	-3.397394E-3	1.152840E-3	8.815287E-4	1.484256E-5	-5.652994E-3	-6.852409E-3	-1.184424E-2	1.509350E-3	4.055437E-3	-2.724019E-3	4.865002E-3	-5.802681E-3	-2.996114E-4	-1.290023E-2	7.539424E-4	-5.244550E-3	-4.734884E-3	-2.006408E-4	-6.570031E-3	-2.179739E-3	-1.380030E-3	-4.396044E-3	-4.917803E-3	-1.042358E-3	1.956500E-3	-5.848805E-3	-3.107798E-3	1.147517E-3	-1.268553E-2	-1.624299E-3	-3.253325E-3	-1.827348E-3	-3.805989E-3	-1.193180E-2	-4.885456E-3	-5.799424E-3	-4.548822E-3	-7.893988E-3	1.787002E-3	-6.207267E-3	-3.035039E-3	-2.544248E-3	-6.744203E-3	-7.909131E-4	3.145335E-3	5.517478E-4	2.694518E-3	-7.499130E-3	-5.164386E-3	-6.051982E-3	-1.061264E-3	-6.137903E-3	-2.748068E-3	7.655711E-4	8.035133E-3	-3.696073E-3	-3.579909E-3	-2.766173E-3	6.994699E-3	3.955326E-3	7.862157E-3	-1.016852E-2	-6.052347E-3	-1.296903E-3	-4.074175E-3	-4.359502E-3	-1.670680E-4	-4.102221E-4	-1.210139E-2	-3.612750E-3	1.030854E-3	-6.682326E-3	-3.862143E-3	-5.054430E-3	-5.706456E-3	-4.080563E-3	6.240150E-3	7.676053E-4	-6.676142E-3	5.156774E-3	-2.229682E-3	1.214705E-3	-7.205000E-4	3.474241E-3	6.317766E-3	-6.249347E-3	-4.194016E-3	-1.007455E-2	-2.300863E-3	-3.176670E-3	-3.690906E-3	5.345059E-3	-6.677081E-3	-6.738561E-4	-4.267338E-3	-3.474958E-3	-8.322978E-3	-5.852576E-3	-1.388044E-2	-2.963223E-4	3.479085E-3	3.709477E-3	-4.291635E-3	-7.497261E-3	-9.502637E-4	-4.286632E-3	2.217979E-3	1.014199E-3	3.201848E-3	-5.870604E-3	-1.109766E-2	4.690210E-3	9.038490E-3	-1.760318E-3	-3.102334E-3	1.172357E-3	9.154648E-4	-3.332707E-3	1.591669E-3	6.749848E-3	-2.386576E-3	1.911672E-3	4.686984E-3
5.320070E+2	2.628421E-3	-2.409279E-3	7.023857E-3	1.510559E-3	6.167854E-3	6.661719E-3	8.913662E-3	1.405385E-3	-4.368644E-3	-4.478585E-4	4.087268E-3	2.752601E-3	3.292649E-3	-4.180316E-3	3.035029E-4	-4.574340E-4	2.528181E-5	6.115553E-3	-4.794220E-4	5.149085E-3	6.201319E-4	-1.444688E-3	-7.649098E-5	-1.835832E-3	-2.265964E-3	4.711183E-3	6.852154E-3	-1.759107E-3	3.700121E-3	4.151344E-3	-2.093746E-3	6.892355E-3	1.482179E-3	-9.236578E-4	-1.674346E-3	4.219586E-3	3.452914E-3	8.602013E-4	1.786032E-2	-1.035327E-3	-1.060491E-2	-4.066634E-3	2.711458E-3	7.993830E-3	1.017566E-3	-1.223104E-2	-3.510151E-3	1.749654E-3	-1.923123E-3	-2.669321E-3	-9.753221E-4	7.821647E-4	-1.275431E-3	3.865856E-5	-2.532155E-3	-1.175656E-3	-2.503600E-3	-2.854633E-3	3.392311E-3	6.837658E-5	9.606162E-3	-4.195598E-3	9.387431E-3	-3.960951E-3	6.056460E-5	5.154705E-3	2.214634E-3	-1.097200E-3	1.176626E-4	8.235533E-3	-9.290276E-3	-2.735933E-3	6.795426E-3	1.074728E-3	1.326001E-4	2.619600E-3	2.163260E-3	-4.235424E-3	6.049550E-5	-1.799346E-3	-5.186231E-4	6.956115E-3	2.558571E-3	2.759433E-3	1.776989E-3	-2.362237E-3	-2.819269E-3	-5.950172E-3	9.906788E-4	-2.213777E-4	3.701653E-3	1.233638E-2	7.165148E-3	2.534121E-4	-9.659278E-3	2.638896E-3	-2.017116E-3	-6.731609E-3	2.288685E-3	-3.147498E-3	-1.356677E-3	-3.552182E-3	-5.375349E-3	-3.272873E-3	3.308115E-3	2.060247E-4	-7.182444E-3	-1.065470E-2	4.733524E-3	9.149404E-4	1.943675E-3	-2.144353E-3	1.591556E-3	3.833529E-3	5.464373E-4	5.312945E-3	1.759116E-3	-9.548023E-4	2.775010E-3	2.771938E-3	1.548667E-3	4.634515E-3	6.693599E-3	-7.660250E-4	4.108496E-3	8.668252E-3	1.204639E-3	-5.531908E-3	-2.518126E-3	4.648272E-3	4.889661E-4	2.487930E-3	5.149473E-3	-2.266964E-3	6.484717E-3	-3.287218E-3	7.133755E-3	-1.397485E-3	1.253966E-2	1.155860E-2	5.457362E-5	-2.224564E-3	1.890564E-4	8.590210E-3	1.772760E-3	1.821089E-3	-2.745226E-3	-2.601742E-3	5.458834E-4	-4.589781E-3	1.315541E-2	-6.972588E-3	1.482881E-2	1.229877E-2	3.440951E-3	-2.131394E-3	1.407658E-4	-3.515644E-3	-4.357489E-3	4.023858E-3	-3.535223E-3	-2.313796E-4	-5.226337E-3	-6.619196E-3	-1.488070E-3	-8.464044E-4	-5.680615E-3	-1.102402E-2	-6.076106E-3	5.364684E-4
5.325070E+2	7.128470E-4	-1.548695E-3	1.454922E-2	-5.415629E-4	4.044024E-3	3.923905E-3	-9.278218E-5	1.217740E-2	2.992865E-3	-2.167007E-3	-3.006316E-4	-7.726392E-3	2.273693E-3	9.635100E-3	3.626235E-3	1.499758E-2	1.166352E-2	3.440598E-3	3.627911E-3	-3.178914E-3	4.059157E-3	1.282373E-3	-9.560882E-4	1.110958E-2	1.239637E-2	4.297055E-3	6.359911E-6	1.002922E-3	2.622150E-3	6.597600E-3	-4.498744E-3	7.621546E-3	6.898667E-3	1.098734E-2	2.846282E-3	-4.289529E-3	6.850991E-3	4.648298E-3	-3.105180E-3	3.223606E-3	1.025922E-2	2.409222E-3	3.513683E-3	4.354763E-3	7.040489E-3	9.038575E-3	8.418217E-3	7.487020E-3	1.565973E-3	6.450747E-3	6.695971E-3	3.580540E-4	8.603272E-3	5.229664E-3	9.020694E-3	1.436576E-2	3.860194E-3	1.135998E-2	-2.560775E-3	-3.426087E-3	2.912929E-3	2.848930E-3	7.656861E-3	1.969995E-2	9.776401E-3	5.052703E-4	3.681223E-3	1.051663E-3	1.004897E-2	9.952240E-3	-1.867190E-3	6.640339E-3	-7.159610E-4	5.131934E-3	5.387141E-3	2.779737E-3	-1.253377E-3	6.552585E-3	2.467790E-3	9.472302E-3	1.415469E-2	2.091694E-3	2.310917E-4	4.367251E-3	8.371698E-4	7.144648E-3	1.864311E-2	3.121267E-3	-8.180282E-4	2.203264E-2	1.442275E-2	-1.936305E-3	9.917506E-3	5.744062E-3	4.813245E-3	6.902072E-3	3.419758E-4	9.967515E-3	8.548094E-3	6.182250E-3	4.545728E-3	9.433212E-3	5.132059E-3	1.510796E-2	2.180931E-3	1.194339E-2	8.162118E-4	1.118766E-2	-2.712406E-3	3.909900E-3	2.904290E-4	-8.569172E-4	-1.497204E-4	7.183131E-3	9.047959E-3	1.272580E-2	8.286856E-3	3.482830E-3	1.280846E-2	4.231750E-3	3.462401E-3	1.238804E-2	-1.007312E-3	-4.995591E-3	2.396872E-3	5.362240E-3	7.817399E-3	1.450426E-2	4.321728E-3	4.187273E-3	4.469379E-3	2.634660E-3	6.405806E-3	6.592049E-3	9.797778E-3	1.099758E-2	-2.486303E-4	1.572904E-2	3.630403E-3	6.922614E-3	8.449396E-3	5.291188E-3	1.201776E-2	5.321459E-3	1.534486E-2	8.152837E-3	7.493851E-3	5.725996E-3	2.901640E-3	6.865840E-3	6.974716E-3	8.233393E-3	-5.858132E-3	-1.543621E-3	2.895901E-3	-6.870810E-3	1.049877E-2	1.701102E-2	7.134915E-4	-9.152305E-4	1.623032E-2	3.212682E-3	7.497450E-3	4.040994E-3	6.006054E-3	1.414231E-3	9.914173E-3	1.918411E-2	8.452813E-3	1.007507E-2
5.330180E+2	1.890748E-2	2.746434E-2	1.228351E-2	1.502400E-2	1.285942E-2	1.279933E-2	1.802227E-2	1.561666E-2	1.785173E-2	1.721808E-2	9.006968E-3	2.127898E-2	2.428179E-2	1.362730E-2	8.963104E-3	1.282007E-2	1.708360E-2	1.994727E-2	1.804847E-2	2.178362E-2	1.861646E-2	1.726387E-2	1.848460E-2	3.084069E-3	1.181453E-2	1.212185E-2	8.800695E-3	1.885269E-2	8.983678E-3	1.071893E-2	2.493632E-2	1.205463E-2	1.822972E-2	9.947761E-3	2.220133E-2	2.075979E-2	2.092127E-2	1.822014E-2	1.739162E-2	1.232314E-2	2.821531E-2	1.955817E-2	1.586623E-2	9.067069E-3	2.063886E-2	1.891494E-2	1.280244E-2	1.644738E-2	1.775006E-2	1.230830E-2	1.503068E-2	1.949818E-2	2.284065E-2	2.492412E-2	1.360570E-2	1.289070E-2	1.579140E-2	1.400026E-2	2.080076E-2	1.621595E-2	1.154039E-2	8.755679E-3	3.272650E-3	1.546262E-2	2.016036E-2	1.647772E-2	2.467906E-2	2.203163E-2	1.840116E-2	1.369580E-2	2.437158E-2	1.355510E-2	1.076531E-2	6.029175E-3	1.152668E-2	2.132444E-2	2.408369E-2	1.683287E-2	1.229557E-2	1.508762E-2	2.128301E-2	1.315020E-2	1.670542E-2	2.081545E-2	2.727376E-2	2.108413E-2	2.019059E-2	2.891221E-2	1.932045E-2	1.116077E-2	6.166390E-3	6.513096E-3	2.230685E-2	1.392560E-2	2.723547E-2	1.001307E-2	1.450619E-2	1.612603E-2	1.889246E-2	1.060651E-2	1.393397E-2	1.634228E-2	1.049451E-2	1.790912E-2	4.941963E-3	1.038581E-2	2.534998E-2	1.064279E-2	2.151450E-2	2.108354E-2	1.990820E-2	1.872617E-2	1.779108E-2	1.244807E-2	1.550616E-2	1.358969E-2	1.427805E-2	1.170630E-2	1.564476E-2	1.341850E-2	1.586668E-2	6.862586E-3	2.608813E-2	1.124894E-2	1.724454E-2	1.370677E-2	3.301856E-3	1.472466E-2	1.389604E-2	1.799889E-2	2.314989E-2	1.371811E-2	1.735046E-2	2.248877E-2	1.816369E-2	2.414739E-2	2.011815E-2	1.119335E-2	1.789476E-2	1.890641E-2	2.778214E-3	1.776797E-2	1.749922E-2	1.588930E-2	1.220133E-2	1.947371E-2	1.915387E-2	1.852623E-2	2.329551E-2	1.719503E-2	1.036801E-2	1.409422E-2	2.449607E-2	8.034761E-3	1.322117E-2	2.838644E-2	1.261759E-2	2.009241E-2	1.509265E-2	2.509254E-2	1.374067E-2	2.512793E-2	1.736714E-2	1.675547E-2	1.626689E-2	1.705177E-2	1.859513E-2	1.238666E-2	2.148730E-2	1.780696E-2
5.331520E+2	1.742616E-2	2.087043E-2	2.695872E-2	3.031199E-2	2.258769E-2	2.990105E-2	1.618503E-2	2.154490E-2	1.708875E-2	1.839093E-2	2.958651E-2	1.968434E-2	1.077010E-2	1.094377E-2	2.376242E-2	2.403543E-2	1.312625E-2	1.649688E-2	2.555703E-2	1.815072E-2	1.871671E-2	2.865964E-2	2.260323E-2	1.819104E-2	1.633347E-2	1.862877E-2	2.133153E-2	1.746243E-2	3.135688E-2	2.506412E-2	2.333943E-2	6.671871E-3	1.446488E-2	4.291315E-2	1.444162E-2	9.987939E-3	2.585021E-2	1.661598E-2	1.305397E-2	2.376634E-2	1.449918E-2	2.536838E-2	2.412676E-2	2.304064E-2	1.127456E-2	1.546667E-2	1.126374E-2	1.693323E-2	1.838338E-2	1.362489E-2	1.509070E-2	1.405703E-2	2.277573E-2	1.092119E-2	2.175885E-2	2.257869E-2	2.190079E-2	3.347837E-2	2.266909E-2	2.678365E-2	9.334092E-3	1.847649E-2	1.630604E-2	2.716601E-2	1.625493E-2	1.458470E-2	1.759132E-2	1.728281E-2	2.595033E-2	7.089187E-3	1.238808E-2	1.473208E-2	2.435630E-2	2.686236E-2	2.195181E-2	1.404805E-2	2.401588E-2	1.802102E-2	2.333475E-2	1.149226E-2	1.842863E-2	2.395475E-2	1.528337E-2	2.939661E-2	1.995357E-2	2.291158E-2	2.289303E-2	1.318640E-2	1.929439E-2	2.085644E-2	1.623060E-2	2.400188E-2	2.160282E-2	1.990639E-2	2.410655E-2	1.704095E-2	2.327832E-2	2.337270E-2	1.947915E-2	2.615058E-2	1.560876E-2	2.300590E-2	1.632993E-2	2.535503E-2	1.988691E-2	2.372585E-2	2.985552E-2	2.463615E-2	2.439902E-2	2.671372E-2	1.887264E-2	2.048360E-2	1.899267E-2	1.939197E-2	1.115178E-2	1.154485E-2	1.711047E-2	1.702651E-2	3.071201E-2	2.940980E-2	2.110458E-2	1.626924E-2	2.402148E-2	2.288005E-2	6.023737E-4	3.172653E-2	2.672260E-2	1.290241E-2	1.584364E-2	2.440634E-2	1.223022E-2	2.389767E-2	3.233325E-2	1.893102E-2	2.059904E-2	2.160596E-2	2.572056E-2	9.751751E-3	1.076969E-2	1.604867E-2	2.858545E-2	2.013580E-2	2.618566E-2	1.987430E-2	2.018150E-2	3.608354E-2	1.368136E-2	2.098045E-2	1.667923E-2	2.215085E-2	1.029532E-2	1.402604E-2	1.325555E-2	2.559768E-2	2.036748E-2	4.447531E-3	2.149394E-2	2.115495E-2	3.846779E-2	1.297748E-2	8.238099E-3	3.030116E-2	2.454495E-4	1.601378E-2	1.633003E-2	1.810026E-2	1.518336E-2	3.669126E-2	2.390573E-2	1.508393E-2
5.333180E+2	1.425226E-2	1.609831E-2	2.107309E-2	2.397284E-2	2.517723E-2	2.610656E-2	3.139458E-2	2.809040E-2	3.915477E-2	2.240826E-2	2.591586E-2	2.684332E-2	2.336453E-2	1.890599E-2	3.834154E-2	3.263741E-2	2.030414E-2	2.734192E-2	2.974763E-2	2.771114E-2	3.445732E-2	2.956225E-2	3.867589E-2	3.313535E-2	3.823538E-2	3.935978E-2	3.764686E-2	1.779391E-2	2.670804E-2	2.719903E-2	2.745152E-2	1.844416E-2	2.906951E-2	2.850011E-2	1.153981E-2	1.434248E-2	2.296529E-2	3.714499E-2	3.112307E-2	1.896968E-2	1.964467E-2	1.943853E-2	1.904712E-2	2.748091E-2	2.346698E-2	2.973046E-2	2.078130E-2	2.222038E-2	1.956719E-2	3.211748E-2	1.910282E-2	2.739054E-2	3.018311E-2	1.961690E-2	3.033211E-2	3.208696E-2	2.534283E-2	3.027850E-2	4.090850E-2	3.331046E-2	3.374703E-2	1.654824E-2	2.689627E-2	2.807915E-2	3.706773E-2	2.222141E-2	1.662569E-2	1.556550E-2	2.193034E-2	2.506868E-2	3.264243E-2	1.125698E-2	2.945620E-2	2.929540E-2	3.944435E-2	2.443649E-2	2.314392E-2	3.157791E-2	2.790878E-2	2.948197E-2	2.637267E-2	2.960312E-2	2.390527E-2	2.692359E-2	1.858345E-2	1.507426E-2	2.708164E-2	4.059262E-2	2.630679E-2	1.770068E-2	1.845368E-2	2.989030E-2	3.805089E-2	1.887131E-2	1.465853E-2	2.145066E-2	2.358679E-2	1.567461E-2	2.518704E-2	2.728670E-2	3.556993E-2	3.459433E-2	2.502973E-2	2.479936E-2	1.829664E-2	1.887263E-2	2.782884E-2	2.019678E-2	3.240206E-2	3.222828E-2	2.182252E-2	3.474302E-2	3.076525E-2	2.035541E-2	3.245923E-2	2.123433E-2	2.383189E-2	2.273926E-2	2.987607E-2	2.493319E-2	2.205044E-2	3.186648E-2	4.348086E-2	2.640627E-2	2.964225E-2	3.562174E-2	3.409369E-2	3.568697E-2	4.378091E-2	2.215608E-2	2.267640E-2	3.584929E-2	2.460885E-2	3.500355E-2	3.099365E-2	2.127974E-2	3.870886E-2	2.843807E-2	2.302534E-2	3.511195E-2	2.480848E-2	2.783992E-2	1.303312E-2	3.697865E-2	3.667625E-2	4.017100E-2	1.530630E-2	3.712929E-2	2.904319E-2	3.333436E-2	1.375565E-2	3.516104E-2	3.131236E-2	3.063303E-2	3.881717E-2	2.017167E-2	2.114485E-2	1.690018E-2	3.017061E-2	1.039774E-2	2.209675E-2	2.864699E-2	1.828610E-2	3.085497E-2	2.515403E-2	3.667073E-2	2.246977E-2	3.124458E-2	2.417595E-2	1.624067E-2
5.334580E+2	3.123793E-2	4.025809E-2	5.032664E-2	3.027055E-2	2.778470E-2	3.185753E-2	2.936409E-2	3.904946E-2	4.277266E-2	3.628900E-2	3.311911E-2	3.265678E-2	2.780871E-2	3.294580E-2	3.221543E-2	4.004700E-2	3.794956E-2	3.827972E-2	4.369521E-2	2.672960E-2	3.525461E-2	3.877085E-2	3.372574E-2	3.698999E-2	3.682382E-2	3.315028E-2	3.805697E-2	2.826664E-2	3.078747E-2	3.329312E-2	3.237535E-2	3.142177E-2	2.878215E-2	3.890175E-2	3.180244E-2	3.781944E-2	4.482755E-2	3.173248E-2	2.659357E-2	3.859572E-2	4.812197E-2	2.787943E-2	3.949184E-2	3.535684E-2	2.616608E-2	3.294760E-2	3.804063E-2	3.467617E-2	3.344320E-2	4.354350E-2	4.720152E-2	2.356636E-2	3.103148E-2	4.062926E-2	3.782236E-2	2.755216E-2	2.278613E-2	2.893258E-2	1.809166E-2	3.689532E-2	3.649122E-2	4.126733E-2	3.692722E-2	5.141287E-2	2.208055E-2	3.296117E-2	3.745752E-2	2.736737E-2	2.716635E-2	2.585785E-2	4.187991E-2	3.350394E-2	4.526501E-2	4.356623E-2	4.803029E-2	2.993028E-2	4.152779E-2	4.453966E-2	3.456502E-2	3.748765E-2	3.027263E-2	2.136147E-2	3.787930E-2	3.797813E-2	3.852182E-2	3.238239E-2	2.465554E-2	3.771377E-2	1.470321E-2	3.153963E-2	2.206188E-2	3.587020E-2	2.811133E-2	2.331453E-2	3.329384E-2	4.880180E-2	4.102851E-2	2.743092E-2	2.170752E-2	4.261653E-2	2.723164E-2	4.888443E-2	2.997746E-2	2.984441E-2	3.957690E-2	3.844130E-2	2.758581E-2	3.606178E-2	3.744097E-2	3.537822E-2	3.927222E-2	3.447757E-2	4.320028E-2	3.411795E-2	4.667209E-2	3.970895E-2	3.637030E-2	3.599209E-2	4.471584E-2	3.471249E-2	3.763088E-2	3.862733E-2	3.656321E-2	4.927534E-2	2.874371E-2	3.071008E-2	4.839320E-2	3.020932E-2	4.145733E-2	5.439322E-2	2.823326E-2	4.591155E-2	4.215093E-2	4.231223E-2	3.670399E-2	3.776095E-2	3.093344E-2	4.191859E-2	2.246608E-2	2.557942E-2	2.929300E-2	3.748706E-2	3.810257E-2	5.075855E-2	3.705280E-2	4.052506E-2	2.694548E-2	2.746522E-2	4.903591E-2	4.610982E-2	3.068684E-2	3.529888E-2	3.306428E-2	2.986666E-2	4.002087E-2	3.788433E-2	4.270206E-2	4.457573E-2	3.141905E-2	4.423616E-2	3.746365E-2	4.027296E-2	3.711205E-2	3.456420E-2	2.437297E-2	3.073478E-2	3.281634E-2	3.548292E-2	2.926410E-2	4.898816E-2
5.336030E+2	3.637471E-2	3.694178E-2	4.514691E-2	5.994428E-2	5.411750E-2	4.574523E-2	4.181814E-2	4.867518E-2	4.641375E-2	4.154912E-2	4.836516E-2	4.668768E-2	3.697767E-2	4.483587E-2	5.212450E-2	4.926594E-2	4.466981E-2	3.409088E-2	3.660734E-2	4.696030E-2	5.947646E-2	4.279358E-2	4.140462E-2	4.198914E-2	4.670426E-2	3.703165E-2	5.048862E-2	5.039268E-2	5.482525E-2	4.627489E-2	5.233344E-2	4.490474E-2	4.188364E-2	4.514422E-2	4.948604E-2	5.379986E-2	4.141026E-2	4.452488E-2	5.654315E-2	5.244160E-2	5.270146E-2	3.282566E-2	2.363055E-2	3.702920E-2	3.118164E-2	4.192743E-2	4.442069E-2	4.441662E-2	5.129839E-2	5.230595E-2	4.759262E-2	3.197490E-2	4.985940E-2	4.380599E-2	4.075421E-2	4.071367E-2	3.869516E-2	4.034120E-2	4.339230E-2	3.946853E-2	5.473024E-2	5.728506E-2	5.786612E-2	4.730054E-2	4.738518E-2	5.406787E-2	4.357220E-2	4.843377E-2	4.442124E-2	3.832982E-2	4.875180E-2	5.133987E-2	4.025362E-2	5.314080E-2	5.285069E-2	6.416684E-2	3.829874E-2	4.426581E-2	5.668535E-2	4.846253E-2	3.404977E-2	4.280469E-2	4.715285E-2	4.899867E-2	4.224348E-2	4.589488E-2	4.037495E-2	5.873793E-2	3.704557E-2	3.606863E-2	3.388712E-2	3.409716E-2	5.294858E-2	4.843185E-2	3.969415E-2	4.211967E-2	3.544018E-2	4.306450E-2	4.083073E-2	3.371683E-2	3.216698E-2	3.804690E-2	5.157595E-2	4.738400E-2	3.861698E-2	5.339454E-2	5.281464E-2	3.491292E-2	5.194005E-2	4.027812E-2	4.738433E-2	4.573901E-2	4.226932E-2	4.913320E-2	4.893982E-2	4.470537E-2	4.895230E-2	4.389225E-2	5.115251E-2	5.263563E-2	5.379377E-2	4.405935E-2	5.280318E-2	4.000394E-2	5.851642E-2	3.981198E-2	3.390027E-2	4.352384E-2	4.785150E-2	4.762727E-2	3.040751E-2	3.800825E-2	3.982081E-2	4.794474E-2	3.811586E-2	5.244232E-2	4.963688E-2	4.159467E-2	4.118163E-2	3.426359E-2	4.498541E-2	4.770738E-2	3.677698E-2	4.008668E-2	3.401585E-2	4.893615E-2	4.188816E-2	5.137052E-2	4.232942E-2	4.217036E-2	3.149573E-2	4.893197E-2	4.140178E-2	4.741993E-2	5.954389E-2	4.441898E-2	3.730658E-2	5.530362E-2	3.904955E-2	3.905295E-2	4.735329E-2	3.998425E-2	4.681970E-2	3.624053E-2	3.659075E-2	4.306259E-2	3.205840E-2	4.381265E-2	4.259870E-2	3.331755E-2
5.337740E+2	5.379748E-2	6.233190E-2	5.016488E-2	7.250971E-2	5.182733E-2	5.577137E-2	6.147310E-2	7.265816E-2	5.319397E-2	5.530586E-2	6.840779E-2	6.974310E-2	6.096976E-2	6.743391E-2	6.579750E-2	6.758481E-2	5.703880E-2	6.502615E-2	5.950768E-2	6.694024E-2	6.390412E-2	6.851458E-2	5.919694E-2	5.080056E-2	5.436566E-2	6.087755E-2	7.179922E-2	6.624643E-2	4.553822E-2	6.871377E-2	5.794939E-2	6.776380E-2	4.958368E-2	6.587604E-2	5.401517E-2	6.874205E-2	6.728812E-2	5.745137E-2	6.349012E-2	4.994102E-2	6.101984E-2	6.382233E-2	6.937337E-2	6.253572E-2	4.715613E-2	5.515313E-2	5.687078E-2	4.280977E-2	5.675813E-2	5.304364E-2	6.789294E-2	6.736971E-2	5.150251E-2	5.557970E-2	6.852845E-2	6.216881E-2	7.280823E-2	6.735871E-2	5.293436E-2	6.385255E-2	7.251860E-2	6.819645E-2	6.639328E-2	6.416093E-2	6.155562E-2	5.531780E-2	5.133116E-2	5.390069E-2	5.209379E-2	5.752886E-2	6.468589E-2	6.759170E-2	5.581301E-2	7.085812E-2	5.894978E-2	6.996877E-2	5.999785E-2	6.702563E-2	7.040676E-2	6.208305E-2	6.750755E-2	4.006972E-2	5.549664E-2	7.176832E-2	6.076252E-2	5.537345E-2	5.742321E-2	6.970744E-2	6.181564E-2	5.847342E-2	4.553819E-2	6.343549E-2	6.202146E-2	6.457684E-2	7.016980E-2	5.629083E-2	6.441770E-2	6.712976E-2	8.817537E-2	7.358081E-2	5.647454E-2	4.876837E-2	4.796060E-2	7.458885E-2	6.417462E-2	6.796690E-2	6.409503E-2	5.492484E-2	6.258799E-2	6.136747E-2	6.895558E-2	7.219775E-2	7.033680E-2	6.639292E-2	5.529096E-2	7.002637E-2	6.812863E-2	5.524193E-2	5.554634E-2	6.567976E-2	6.608448E-2	7.015524E-2	6.700718E-2	5.351673E-2	6.492685E-2	5.162511E-2	5.212399E-2	6.303113E-2	8.495965E-2	5.227970E-2	5.172245E-2	7.306569E-2	6.141007E-2	5.207953E-2	5.196791E-2	6.122287E-2	7.249825E-2	6.286523E-2	6.939568E-2	6.376260E-2	5.152604E-2	5.269727E-2	5.922873E-2	6.450152E-2	5.502463E-2	5.707690E-2	6.161257E-2	5.336152E-2	7.023707E-2	6.767729E-2	5.988336E-2	6.815268E-2	5.082396E-2	7.044719E-2	5.546700E-2	7.081849E-2	7.396128E-2	6.441362E-2	6.327602E-2	6.619112E-2	7.053516E-2	5.792288E-2	4.974418E-2	6.283074E-2	6.493866E-2	6.746069E-2	7.457265E-2	6.554520E-2	5.428523E-2	6.494679E-2
5.339090E+2	1.002409E-1	8.747611E-2	8.514222E-2	8.488448E-2	9.796819E-2	6.261659E-2	8.446266E-2	9.935276E-2	8.879763E-2	8.873876E-2	6.200855E-2	8.968530E-2	8.922889E-2	6.577634E-2	9.267165E-2	7.104756E-2	7.550171E-2	8.629592E-2	9.939632E-2	1.094903E-1	8.659098E-2	7.879705E-2	8.377304E-2	1.057190E-1	9.018740E-2	8.281222E-2	7.782537E-2	8.061700E-2	1.054473E-1	8.589546E-2	7.302515E-2	7.595992E-2	8.534953E-2	7.757569E-2	8.141539E-2	7.942824E-2	9.099862E-2	7.814229E-2	7.853333E-2	9.466102E-2	8.894446E-2	7.221201E-2	9.393819E-2	8.910133E-2	8.409091E-2	7.578017E-2	8.441102E-2	7.414516E-2	6.999219E-2	7.544029E-2	7.636313E-2	8.031655E-2	6.608600E-2	8.014671E-2	7.627242E-2	8.712236E-2	9.316892E-2	8.074453E-2	9.207111E-2	8.018305E-2	8.446814E-2	8.725830E-2	9.260824E-2	8.940322E-2	7.932184E-2	8.939020E-2	1.055177E-1	9.581964E-2	9.679978E-2	7.877543E-2	8.919557E-2	9.683869E-2	8.308819E-2	8.648935E-2	9.099982E-2	7.982851E-2	8.088541E-2	1.041216E-1	9.694747E-2	7.732230E-2	6.938771E-2	9.878593E-2	9.872911E-2	8.509337E-2	8.819752E-2	7.903942E-2	7.441039E-2	8.506572E-2	8.234566E-2	7.908714E-2	9.845682E-2	8.965178E-2	1.031334E-1	1.005972E-1	9.259771E-2	9.737254E-2	8.854615E-2	6.761834E-2	7.903419E-2	9.187012E-2	8.873826E-2	7.730400E-2	9.350678E-2	9.564717E-2	8.950471E-2	8.540812E-2	8.653906E-2	7.960005E-2	7.899808E-2	9.433906E-2	8.389672E-2	8.769906E-2	7.849495E-2	9.753921E-2	1.022623E-1	7.320151E-2	9.135813E-2	7.946191E-2	8.237577E-2	8.767466E-2	9.294270E-2	8.021740E-2	7.603283E-2	7.983672E-2	8.400117E-2	6.086334E-2	7.739199E-2	8.894114E-2	9.090474E-2	8.203922E-2	9.396899E-2	8.659862E-2	8.784045E-2	9.108153E-2	8.805210E-2	8.664500E-2	8.380129E-2	7.498876E-2	7.607840E-2	7.684721E-2	7.857820E-2	9.015398E-2	8.948273E-2	1.050667E-1	8.782709E-2	9.476604E-2	8.750195E-2	7.855221E-2	8.177048E-2	8.724839E-2	8.475111E-2	7.951570E-2	8.700672E-2	9.107417E-2	8.231866E-2	8.626582E-2	9.507099E-2	9.175571E-2	8.068635E-2	7.020309E-2	8.194067E-2	9.274434E-2	7.783576E-2	6.861071E-2	8.361296E-2	9.197929E-2	1.178402E-1	7.771821E-2	9.064566E-2	8.343441E-2
5.340640E+2	1.275304E-1	1.049685E-1	1.406775E-1	1.098844E-1	1.309605E-1	1.216487E-1	1.256017E-1	1.322509E-1	1.174359E-1	1.412371E-1	1.349717E-1	1.067768E-1	1.190667E-1	1.357982E-1	1.345194E-1	1.166640E-1	1.417459E-1	1.297582E-1	1.418499E-1	1.407883E-1	1.273181E-1	1.228443E-1	1.236591E-1	1.242647E-1	1.212737E-1	1.090378E-1	1.166901E-1	1.475247E-1	1.323397E-1	1.365210E-1	1.195797E-1	1.227040E-1	1.169519E-1	1.237572E-1	1.070733E-1	1.236957E-1	1.369417E-1	1.295296E-1	1.221984E-1	1.255054E-1	1.217286E-1	1.193647E-1	1.268422E-1	1.405690E-1	1.235349E-1	1.213246E-1	1.355054E-1	1.189710E-1	1.406234E-1	1.477918E-1	1.519009E-1	1.286706E-1	1.242969E-1	1.283910E-1	1.371873E-1	1.165270E-1	1.284567E-1	1.170080E-1	1.260728E-1	1.262301E-1	1.265198E-1	1.207614E-1	1.481057E-1	1.294067E-1	1.235833E-1	1.260332E-1	1.375426E-1	1.493766E-1	1.225247E-1	1.107460E-1	1.452676E-1	1.212351E-1	1.439561E-1	1.238581E-1	1.259723E-1	1.331709E-1	1.073662E-1	1.388785E-1	1.299346E-1	1.211011E-1	1.277832E-1	1.367325E-1	1.088785E-1	1.128072E-1	1.269995E-1	1.299089E-1	1.146317E-1	1.244641E-1	1.378260E-1	1.110268E-1	1.247363E-1	1.147169E-1	1.257389E-1	1.146919E-1	1.298026E-1	1.250920E-1	1.543602E-1	1.289783E-1	1.355524E-1	1.252843E-1	1.338824E-1	1.099613E-1	1.314418E-1	1.155470E-1	1.372641E-1	9.888204E-2	1.334595E-1	1.229467E-1	1.244877E-1	1.269007E-1	1.155522E-1	1.338388E-1	1.033860E-1	1.314167E-1	1.394191E-1	1.464197E-1	1.129737E-1	1.054490E-1	1.175909E-1	1.404576E-1	1.205183E-1	1.324223E-1	1.101954E-1	1.323725E-1	1.410131E-1	1.389521E-1	1.496826E-1	1.262209E-1	1.246657E-1	1.146562E-1	1.158653E-1	1.380819E-1	1.219674E-1	1.191936E-1	1.173997E-1	1.515837E-1	1.314442E-1	1.269778E-1	1.264722E-1	1.328767E-1	1.436341E-1	1.216569E-1	1.187500E-1	1.208123E-1	1.256135E-1	1.432474E-1	1.313571E-1	1.427229E-1	1.224591E-1	1.330108E-1	1.183088E-1	1.544062E-1	1.345993E-1	1.224789E-1	1.328035E-1	1.318343E-1	1.285331E-1	1.552010E-1	1.410685E-1	1.153775E-1	1.486816E-1	1.350811E-1	1.338875E-1	1.070462E-1	1.392156E-1	1.363471E-1	1.266543E-1	1.257742E-1	1.449220E-1	1.450591E-1
5.342040E+2	2.006595E-1	1.887841E-1	2.127779E-1	2.114582E-1	1.962554E-1	1.874070E-1	2.053420E-1	2.127429E-1	2.094607E-1	2.021597E-1	2.198648E-1	2.055691E-1	1.959581E-1	1.987444E-1	1.839262E-1	1.982590E-1	1.862100E-1	2.053848E-1	2.129543E-1	1.927217E-1	2.144066E-1	1.872299E-1	2.008843E-1	2.024099E-1	2.013785E-1	2.132251E-1	2.023814E-1	2.157734E-1	2.280149E-1	2.299289E-1	1.982199E-1	1.955467E-1	2.132786E-1	1.945415E-1	2.017388E-1	1.965395E-1	2.062345E-1	2.070801E-1	2.172469E-1	2.193636E-1	1.884192E-1	1.814743E-1	1.879349E-1	2.001371E-1	2.190181E-1	2.012841E-1	2.026168E-1	1.933223E-1	2.082187E-1	1.911425E-1	1.978869E-1	1.950435E-1	2.125947E-1	2.210989E-1	2.044891E-1	1.940926E-1	2.070980E-1	1.969131E-1	1.738382E-1	1.839038E-1	2.130822E-1	2.033428E-1	1.775525E-1	1.966533E-1	1.768322E-1	2.003328E-1	2.018453E-1	1.992639E-1	1.841947E-1	1.802301E-1	1.950256E-1	2.085089E-1	1.998386E-1	1.894965E-1	2.114815E-1	2.132958E-1	2.034838E-1	2.125329E-1	2.114316E-1	2.085256E-1	2.001689E-1	2.126193E-1	1.882777E-1	1.938342E-1	2.056847E-1	1.809134E-1	2.039138E-1	2.211273E-1	2.001957E-1	2.070142E-1	2.180776E-1	2.242916E-1	1.982738E-1	1.946297E-1	2.008631E-1	2.045195E-1	1.971781E-1	1.911121E-1	1.961777E-1	2.229349E-1	1.974409E-1	2.130170E-1	1.938992E-1	2.286840E-1	1.924293E-1	2.045568E-1	1.962315E-1	1.763595E-1	2.094401E-1	2.125394E-1	2.060532E-1	1.919020E-1	1.838615E-1	1.949422E-1	2.033661E-1	1.951869E-1	2.156010E-1	2.012164E-1	2.017783E-1	1.974162E-1	2.119212E-1	2.015150E-1	2.246577E-1	2.272772E-1	1.931898E-1	2.146974E-1	2.066636E-1	2.024156E-1	2.085695E-1	1.898286E-1	1.936009E-1	1.985761E-1	1.983305E-1	2.015758E-1	2.070788E-1	1.949701E-1	2.003261E-1	2.231380E-1	1.876118E-1	1.924487E-1	1.985576E-1	2.178562E-1	2.053805E-1	1.962301E-1	1.891272E-1	2.264520E-1	1.849494E-1	2.066321E-1	2.033358E-1	2.160134E-1	1.932561E-1	2.188765E-1	2.116415E-1	1.957030E-1	2.120527E-1	1.995249E-1	1.956367E-1	2.038005E-1	2.173867E-1	2.086312E-1	2.157319E-1	1.947987E-1	2.339572E-1	1.926638E-1	2.154731E-1	1.875562E-1	2.069970E-1	2.163786E-1	1.864442E-1	2.032982E-1
5.343600E+2	3.408681E-1	3.260287E-1	3.451784E-1	3.715392E-1	3.378579E-1	3.490357E-1	3.282340E-1	3.473977E-1	3.608096E-1	3.635074E-1	3.505796E-1	3.758270E-1	3.500652E-1	3.643036E-1	3.763227E-1	3.498596E-1	3.511948E-1	3.402348E-1	3.740946E-1	3.764131E-1	3.537391E-1	3.487269E-1	3.371652E-1	3.222638E-1	3.706608E-1	3.429237E-1	3.368941E-1	3.666295E-1	3.691134E-1	3.360782E-1	3.462962E-1	3.268769E-1	3.687582E-1	3.300178E-1	3.517984E-1	3.233814E-1	3.623907E-1	3.502511E-1	3.555867E-1	3.302063E-1	3.318439E-1	3.207999E-1	3.421144E-1	3.744319E-1	3.600167E-1	3.185865E-1	3.371347E-1	3.901145E-1	3.520110E-1	3.581315E-1	3.559640E-1	3.399823E-1	3.670662E-1	3.864958E-1	3.354705E-1	3.294398E-1	3.966368E-1	3.644797E-1	3.437352E-1	3.250001E-1	3.676764E-1	3.457887E-1	3.768398E-1	3.660365E-1	3.939289E-1	3.529861E-1	3.495341E-1	3.823217E-1	3.560309E-1	3.353993E-1	3.351210E-1	3.661656E-1	3.609450E-1	3.592546E-1	3.533300E-1	3.676698E-1	3.707727E-1	3.226642E-1	3.494517E-1	3.567354E-1	3.661878E-1	3.698498E-1	3.445509E-1	3.487757E-1	3.877911E-1	3.422505E-1	3.619299E-1	3.538529E-1	3.362784E-1	3.600898E-1	3.388109E-1	3.729902E-1	3.497919E-1	3.487373E-1	3.402927E-1	3.765507E-1	3.418942E-1	3.524181E-1	3.441508E-1	3.562124E-1	3.442717E-1	3.670206E-1	3.454605E-1	3.655988E-1	3.493251E-1	3.510885E-1	3.505324E-1	3.165218E-1	3.492291E-1	3.532407E-1	3.618565E-1	3.428356E-1	3.585615E-1	3.532457E-1	3.459909E-1	3.748895E-1	3.581737E-1	3.242392E-1	3.362588E-1	3.791606E-1	3.635492E-1	3.643709E-1	3.500684E-1	3.548362E-1	3.428747E-1	3.430162E-1	3.322436E-1	3.679028E-1	3.574779E-1	3.441760E-1	3.646834E-1	3.321528E-1	3.769080E-1	3.605140E-1	3.641205E-1	3.553135E-1	3.455426E-1	3.726260E-1	3.348788E-1	3.666770E-1	3.563190E-1	3.873836E-1	3.671465E-1	3.507867E-1	3.407022E-1	3.321695E-1	3.385816E-1	3.346157E-1	3.581731E-1	3.962091E-1	3.478151E-1	3.702837E-1	3.613327E-1	3.517996E-1	3.726359E-1	3.401345E-1	3.510536E-1	3.602454E-1	3.723343E-1	3.891934E-1	3.556331E-1	3.486720E-1	3.476307E-1	3.494908E-1	3.692159E-1	3.723911E-1	3.605325E-1	3.671977E-1	3.472310E-1	3.478480E-1
5.345050E+2	5.845184E-1	6.034139E-1	5.846371E-1	6.299443E-1	6.207470E-1	5.909009E-1	5.570870E-1	6.154568E-1	6.145401E-1	6.065943E-1	5.991160E-1	6.178612E-1	5.919165E-1	6.079375E-1	6.479466E-1	5.853674E-1	6.161026E-1	6.320695E-1	6.304210E-1	6.229457E-1	6.264738E-1	6.045534E-1	6.133159E-1	6.057429E-1	6.195775E-1	5.760674E-1	5.880932E-1	6.369575E-1	6.546450E-1	5.755836E-1	6.172130E-1	5.904671E-1	6.393813E-1	5.757932E-1	6.058851E-1	6.303781E-1	6.315245E-1	5.989460E-1	6.250684E-1	6.228002E-1	5.856795E-1	5.955088E-1	6.007997E-1	6.525159E-1	6.089035E-1	6.443664E-1	6.054152E-1	5.926052E-1	5.935399E-1	6.324936E-1	6.039386E-1	6.103358E-1	6.162286E-1	6.375914E-1	5.837359E-1	6.674239E-1	6.296801E-1	6.091452E-1	6.374192E-1	6.141684E-1	5.955384E-1	6.488094E-1	6.356725E-1	6.241623E-1	6.116276E-1	5.949751E-1	6.296221E-1	6.089143E-1	6.245459E-1	5.772442E-1	6.423638E-1	6.260678E-1	6.246263E-1	6.152968E-1	5.897862E-1	5.993415E-1	5.833155E-1	6.152851E-1	6.207264E-1	5.760096E-1	6.150463E-1	6.271157E-1	5.842286E-1	6.290762E-1	5.933515E-1	5.887949E-1	5.867913E-1	5.926487E-1	6.055165E-1	5.866669E-1	6.150575E-1	6.268835E-1	6.365853E-1	5.970309E-1	6.402595E-1	6.158452E-1	6.369082E-1	5.992569E-1	6.155895E-1	6.077818E-1	6.158423E-1	6.154880E-1	6.038357E-1	6.408542E-1	6.057723E-1	6.189122E-1	6.100859E-1	6.363644E-1	5.983583E-1	6.315693E-1	6.669309E-1	6.040450E-1	6.245803E-1	6.145992E-1	6.422673E-1	6.552816E-1	5.988704E-1	5.715666E-1	6.218207E-1	6.307360E-1	5.790145E-1	6.055812E-1	5.912927E-1	6.233001E-1	6.451624E-1	6.298448E-1	5.959667E-1	5.899167E-1	6.779430E-1	5.969787E-1	6.387772E-1	5.847969E-1	6.353487E-1	6.286854E-1	6.470521E-1	6.083726E-1	6.117769E-1	6.510239E-1	6.299187E-1	6.309730E-1	6.537483E-1	6.397521E-1	6.205296E-1	6.184848E-1	6.021113E-1	6.021260E-1	6.178638E-1	6.277573E-1	6.371844E-1	6.335101E-1	6.086502E-1	6.464134E-1	6.398621E-1	6.222281E-1	5.918272E-1	6.451249E-1	6.213210E-1	6.251466E-1	5.953046E-1	6.607965E-1	6.500020E-1	6.345758E-1	6.382747E-1	5.774794E-1	6.263437E-1	6.193314E-1	5.920402E-1	6.320190E-1	6.041915E-1	6.144132E-1
5.346560E+2	9.928513E-1	9.448570E-1	9.580770E-1	9.539549E-1	1.015232E+0	9.509632E-1	9.408227E-1	9.498215E-1	1.045445E+0	8.864686E-1	9.532078E-1	9.337650E-1	9.440666E-1	9.311341E-1	9.054647E-1	9.524709E-1	9.114928E-1	1.010767E+0	9.704542E-1	1.032884E+0	9.431074E-1	9.229755E-1	9.188096E-1	9.128882E-1	9.365416E-1	9.279929E-1	9.178860E-1	9.658714E-1	9.958553E-1	8.792598E-1	9.254484E-1	9.469737E-1	9.823750E-1	8.873448E-1	8.857559E-1	9.790126E-1	9.265700E-1	9.155199E-1	9.449796E-1	9.299920E-1	9.519240E-1	9.296581E-1	9.104634E-1	9.267810E-1	9.626234E-1	9.178004E-1	8.934070E-1	9.534979E-1	9.755256E-1	9.958552E-1	9.060851E-1	9.471835E-1	9.610836E-1	9.357949E-1	9.279468E-1	9.173671E-1	9.604411E-1	9.204449E-1	9.006005E-1	9.809382E-1	9.431439E-1	9.527420E-1	9.534116E-1	9.423474E-1	9.209485E-1	9.214093E-1	9.154534E-1	9.385475E-1	9.646906E-1	9.105629E-1	9.047027E-1	9.109598E-1	9.249099E-1	9.507822E-1	9.240431E-1	9.804914E-1	9.167263E-1	9.232789E-1	9.803403E-1	9.291422E-1	9.526384E-1	9.310306E-1	9.295404E-1	9.455094E-1	8.802676E-1	9.115458E-1	9.376979E-1	9.364917E-1	8.848905E-1	9.646292E-1	8.963684E-1	9.329475E-1	9.611604E-1	9.139015E-1	9.345184E-1	9.297356E-1	9.234535E-1	9.331746E-1	9.508114E-1	9.579952E-1	9.639646E-1	9.363066E-1	9.174190E-1	9.105921E-1	9.521668E-1	9.550838E-1	9.691650E-1	9.774660E-1	9.531197E-1	9.695109E-1	9.232057E-1	8.795437E-1	9.459270E-1	9.340186E-1	9.568656E-1	9.509253E-1	9.606321E-1	9.252964E-1	8.986208E-1	9.306995E-1	9.573664E-1	9.005813E-1	9.865177E-1	9.900715E-1	9.473142E-1	8.753962E-1	9.666385E-1	9.329971E-1	9.416563E-1	9.096167E-1	9.732362E-1	8.819620E-1	9.768453E-1	9.158849E-1	9.433996E-1	9.641029E-1	9.138534E-1	9.520436E-1	9.434126E-1	9.539712E-1	9.309753E-1	9.378641E-1	9.411311E-1	9.522862E-1	9.849280E-1	9.208891E-1	9.091675E-1	9.599988E-1	9.314008E-1	9.540258E-1	8.879854E-1	9.688797E-1	9.500649E-1	9.432955E-1	9.387613E-1	9.402566E-1	9.459895E-1	9.479524E-1	9.004535E-1	9.340039E-1	9.497837E-1	9.403630E-1	9.253012E-1	9.588380E-1	9.203099E-1	9.057071E-1	9.101195E-1	9.616008E-1	9.166065E-1	9.262746E-1
5.348020E+2	1.286735E+0	1.259742E+0	1.343968E+0	1.329670E+0	1.354529E+0	1.275986E+0	1.291685E+0	1.255712E+0	1.337110E+0	1.328348E+0	1.308701E+0	1.256031E+0	1.289402E+0	1.264668E+0	1.262054E+0	1.236935E+0	1.288515E+0	1.295446E+0	1.342652E+0	1.374181E+0	1.349414E+0	1.315080E+0	1.277281E+0	1.275875E+0	1.263341E+0	1.290068E+0	1.266317E+0	1.366431E+0	1.335767E+0	1.288166E+0	1.248510E+0	1.333858E+0	1.365064E+0	1.274519E+0	1.288056E+0	1.281085E+0	1.306392E+0	1.307492E+0	1.289847E+0	1.273910E+0	1.252982E+0	1.363677E+0	1.282423E+0	1.269749E+0	1.304825E+0	1.348441E+0	1.293119E+0	1.245503E+0	1.291499E+0	1.361278E+0	1.303275E+0	1.281493E+0	1.300453E+0	1.307396E+0	1.243921E+0	1.256108E+0	1.333331E+0	1.340235E+0	1.284810E+0	1.295560E+0	1.272386E+0	1.330461E+0	1.318242E+0	1.269218E+0	1.267158E+0	1.274684E+0	1.244820E+0	1.371053E+0	1.276785E+0	1.242509E+0	1.337275E+0	1.293326E+0	1.307627E+0	1.275608E+0	1.281604E+0	1.301752E+0	1.294040E+0	1.242608E+0	1.318476E+0	1.255227E+0	1.275026E+0	1.318974E+0	1.225255E+0	1.284564E+0	1.259591E+0	1.284531E+0	1.228507E+0	1.324649E+0	1.247571E+0	1.302320E+0	1.278497E+0	1.246939E+0	1.325670E+0	1.299451E+0	1.240946E+0	1.271962E+0	1.283528E+0	1.242852E+0	1.263275E+0	1.308758E+0	1.285357E+0	1.340908E+0	1.299758E+0	1.337713E+0	1.318986E+0	1.313783E+0	1.306985E+0	1.298906E+0	1.312804E+0	1.264330E+0	1.261694E+0	1.294777E+0	1.326314E+0	1.294861E+0	1.230424E+0	1.234555E+0	1.280804E+0	1.286731E+0	1.360651E+0	1.309641E+0	1.289109E+0	1.326335E+0	1.290473E+0	1.295019E+0	1.328919E+0	1.283355E+0	1.278035E+0	1.300756E+0	1.254651E+0	1.256291E+0	1.243163E+0	1.273697E+0	1.229427E+0	1.252714E+0	1.270141E+0	1.305717E+0	1.279010E+0	1.353478E+0	1.258013E+0	1.321902E+0	1.299045E+0	1.263088E+0	1.294179E+0	1.317105E+0	1.311451E+0	1.261861E+0	1.309442E+0	1.309932E+0	1.328793E+0	1.254710E+0	1.223400E+0	1.386016E+0	1.263106E+0	1.292216E+0	1.237205E+0	1.290340E+0	1.332278E+0	1.292732E+0	1.294783E+0	1.339726E+0	1.335184E+0	1.262583E+0	1.289656E+0	1.260869E+0	1.340224E+0	1.252363E+0	1.268816E+0	1.298760E+0	1.220712E+0	1.307417E+0
5.349580E+2	1.728269E+0	1.756492E+0	1.702875E+0	1.684254E+0	1.695061E+0	1.660062E+0	1.661860E+0	1.609425E+0	1.742063E+0	1.690947E+0	1.737828E+0	1.679832E+0	1.682612E+0	1.729082E+0	1.699314E+0	1.659971E+0	1.703944E+0	1.654622E+0	1.628355E+0	1.702143E+0	1.720879E+0	1.648831E+0	1.656720E+0	1.635165E+0	1.754112E+0	1.735605E+0	1.716257E+0	1.746967E+0	1.692250E+0	1.660112E+0	1.665208E+0	1.681553E+0	1.739391E+0	1.699436E+0	1.659612E+0	1.751801E+0	1.699447E+0	1.622759E+0	1.677448E+0	1.677486E+0	1.678512E+0	1.643000E+0	1.617508E+0	1.643990E+0	1.715338E+0	1.733016E+0	1.654979E+0	1.655982E+0	1.696105E+0	1.694172E+0	1.626301E+0	1.648243E+0	1.660498E+0	1.711185E+0	1.606435E+0	1.677798E+0	1.729693E+0	1.693138E+0	1.629404E+0	1.646715E+0	1.670986E+0	1.697849E+0	1.640632E+0	1.611887E+0	1.677111E+0	1.641037E+0	1.620483E+0	1.629035E+0	1.669657E+0	1.531778E+0	1.627496E+0	1.627867E+0	1.671736E+0	1.679198E+0	1.659819E+0	1.665725E+0	1.680565E+0	1.703597E+0	1.691980E+0	1.579879E+0	1.679884E+0	1.698731E+0	1.656972E+0	1.693217E+0	1.654741E+0	1.642910E+0	1.649315E+0	1.664716E+0	1.626053E+0	1.645941E+0	1.674216E+0	1.620621E+0	1.716449E+0	1.605665E+0	1.641657E+0	1.657006E+0	1.648434E+0	1.627690E+0	1.654115E+0	1.669274E+0	1.661407E+0	1.715038E+0	1.607355E+0	1.675783E+0	1.649290E+0	1.675311E+0	1.611803E+0	1.724972E+0	1.594454E+0	1.680193E+0	1.635137E+0	1.664963E+0	1.669670E+0	1.623825E+0	1.701003E+0	1.700273E+0	1.601774E+0	1.643987E+0	1.666764E+0	1.709059E+0	1.595620E+0	1.534680E+0	1.611901E+0	1.703745E+0	1.725922E+0	1.640294E+0	1.554117E+0	1.633039E+0	1.727132E+0	1.657409E+0	1.644775E+0	1.590930E+0	1.602407E+0	1.641510E+0	1.595927E+0	1.644704E+0	1.612263E+0	1.703027E+0	1.591877E+0	1.669582E+0	1.641773E+0	1.630581E+0	1.620750E+0	1.568899E+0	1.682377E+0	1.617069E+0	1.626047E+0	1.629091E+0	1.645217E+0	1.612151E+0	1.536665E+0	1.639020E+0	1.651909E+0	1.673542E+0	1.697446E+0	1.671551E+0	1.610060E+0	1.601866E+0	1.626040E+0	1.618051E+0	1.658349E+0	1.616075E+0	1.656131E+0	1.604171E+0	1.633741E+0	1.596462E+0	1.583738E+0	1.600836E+0	1.533949E+0	1.647587E+0
5.351090E+2	1.919725E+0	1.893748E+0	1.810406E+0	1.924407E+0	1.902359E+0	1.817170E+0	1.822043E+0	1.886279E+0	1.892492E+0	1.841377E+0	1.909224E+0	1.899533E+0	1.861607E+0	1.812975E+0	1.936267E+0	1.812065E+0	1.884811E+0	1.829427E+0	1.899041E+0	1.866005E+0	1.949787E+0	1.858043E+0	1.865369E+0	1.853852E+0	1.867444E+0	1.878999E+0	1.813620E+0	1.881815E+0	1.931139E+0	1.763873E+0	1.816879E+0	1.845583E+0	1.911556E+0	1.801189E+0	1.897801E+0	1.864168E+0	1.852956E+0	1.826429E+0	1.876198E+0	1.802597E+0	1.781936E+0	1.840012E+0	1.812391E+0	1.884690E+0	1.834154E+0	1.825196E+0	1.860522E+0	1.827759E+0	1.865810E+0	1.854950E+0	1.708118E+0	1.837552E+0	1.908402E+0	1.853628E+0	1.841643E+0	1.774193E+0	1.820319E+0	1.821037E+0	1.849092E+0	1.784972E+0	1.868534E+0	1.867548E+0	1.826634E+0	1.865106E+0	1.855674E+0	1.854174E+0	1.808250E+0	1.881459E+0	1.767488E+0	1.770478E+0	1.815021E+0	1.812130E+0	1.885937E+0	1.854357E+0	1.832788E+0	1.861222E+0	1.849246E+0	1.821717E+0	1.843635E+0	1.873632E+0	1.841990E+0	1.866658E+0	1.814393E+0	1.886412E+0	1.869814E+0	1.788141E+0	1.792170E+0	1.815774E+0	1.842151E+0	1.854694E+0	1.811884E+0	1.829668E+0	1.882919E+0	1.836395E+0	1.845870E+0	1.799755E+0	1.871319E+0	1.828765E+0	1.856676E+0	1.789558E+0	1.811656E+0	1.808911E+0	1.779948E+0	1.839013E+0	1.821222E+0	1.774804E+0	1.792955E+0	1.875106E+0	1.806893E+0	1.822395E+0	1.825983E+0	1.729351E+0	1.772136E+0	1.834608E+0	1.861145E+0	1.825624E+0	1.831976E+0	1.729264E+0	1.764235E+0	1.842319E+0	1.800236E+0	1.790850E+0	1.833895E+0	1.832407E+0	1.824207E+0	1.769690E+0	1.788890E+0	1.749465E+0	1.759689E+0	1.843282E+0	1.758659E+0	1.795807E+0	1.827841E+0	1.811582E+0	1.807991E+0	1.846218E+0	1.817321E+0	1.843757E+0	1.728548E+0	1.776228E+0	1.815881E+0	1.779797E+0	1.795826E+0	1.770999E+0	1.861913E+0	1.789976E+0	1.780185E+0	1.802365E+0	1.828151E+0	1.801777E+0	1.730714E+0	1.842242E+0	1.798752E+0	1.774237E+0	1.746387E+0	1.814067E+0	1.781245E+0	1.798479E+0	1.855595E+0	1.762225E+0	1.784160E+0	1.817191E+0	1.853002E+0	1.760681E+0	1.882416E+0	1.717376E+0	1.715879E+0	1.818731E+0	1.775699E+0	1.769394E+0
5.352550E+2	1.974422E+0	1.903678E+0	1.816651E+0	1.953537E+0	1.920525E+0	1.838080E+0	1.849240E+0	1.874436E+0	1.966234E+0	1.945331E+0	1.921609E+0	1.884925E+0	1.910201E+0	1.894857E+0	1.855850E+0	1.919607E+0	1.883015E+0	1.895616E+0	1.971621E+0	1.924595E+0	1.906469E+0	1.900238E+0	1.901265E+0	1.874022E+0	1.862867E+0	1.849502E+0	1.901051E+0	1.952349E+0	1.918245E+0	1.849152E+0	1.921275E+0	1.833897E+0	1.871624E+0	1.841115E+0	1.899980E+0	1.888535E+0	1.857574E+0	1.909806E+0	1.856205E+0	1.893722E+0	1.856060E+0	1.860512E+0	1.826733E+0	1.828809E+0	1.908280E+0	1.911342E+0	1.924230E+0	1.844257E+0	1.898902E+0	1.937552E+0	1.873150E+0	1.863775E+0	1.957240E+0	1.914628E+0	1.847971E+0	1.810351E+0	1.937202E+0	1.842247E+0	1.837827E+0	1.823338E+0	1.905360E+0	1.897781E+0	1.932713E+0	1.862658E+0	1.866445E+0	1.869592E+0	1.885069E+0	1.863973E+0	1.839330E+0	1.726704E+0	1.858644E+0	1.860605E+0	1.862375E+0	1.847239E+0	1.855152E+0	1.857615E+0	1.867162E+0	1.890983E+0	1.865737E+0	1.772492E+0	1.846240E+0	1.904949E+0	1.844555E+0	1.902535E+0	1.794317E+0	1.900732E+0	1.887037E+0	1.865774E+0	1.822181E+0	1.795759E+0	1.819948E+0	1.837978E+0	1.891076E+0	1.891253E+0	1.806274E+0	1.840535E+0	1.912672E+0	1.775156E+0	1.878854E+0	1.869471E+0	1.867906E+0	1.889342E+0	1.887170E+0	1.820598E+0	1.859102E+0	1.896172E+0	1.817089E+0	1.849759E+0	1.898515E+0	1.918285E+0	1.788584E+0	1.813873E+0	1.873649E+0	1.916661E+0	1.833832E+0	1.853774E+0	1.952568E+0	1.776834E+0	1.922702E+0	1.857737E+0	1.853992E+0	1.821995E+0	1.742138E+0	1.904549E+0	1.913050E+0	1.794104E+0	1.824177E+0	1.795757E+0	1.834678E+0	1.817329E+0	1.854806E+0	1.829372E+0	1.784427E+0	1.776780E+0	1.810980E+0	1.790991E+0	1.787010E+0	1.935275E+0	1.795864E+0	1.859389E+0	1.897837E+0	1.844900E+0	1.821933E+0	1.851983E+0	1.915844E+0	1.757022E+0	1.846397E+0	1.859063E+0	1.808261E+0	1.849978E+0	1.778258E+0	1.833172E+0	1.865878E+0	1.811956E+0	1.873092E+0	1.838458E+0	1.871340E+0	1.850847E+0	1.835101E+0	1.873749E+0	1.857159E+0	1.781222E+0	1.814731E+0	1.806282E+0	1.822025E+0	1.792831E+0	1.756026E+0	1.987028E+0	1.789276E+0	1.786085E+0
5.354060E+2	1.772129E+0	1.760697E+0	1.759737E+0	1.726716E+0	1.747606E+0	1.700160E+0	1.705062E+0	1.710624E+0	1.791985E+0	1.721165E+0	1.729734E+0	1.754190E+0	1.700990E+0	1.656380E+0	1.740232E+0	1.672659E+0	1.822454E+0	1.726620E+0	1.782443E+0	1.740908E+0	1.722508E+0	1.734705E+0	1.687955E+0	1.738704E+0	1.755852E+0	1.677371E+0	1.679920E+0	1.759487E+0	1.787265E+0	1.670205E+0	1.692028E+0	1.742533E+0	1.725943E+0	1.642094E+0	1.683080E+0	1.715057E+0	1.732475E+0	1.737705E+0	1.801165E+0	1.704837E+0	1.712703E+0	1.684319E+0	1.666573E+0	1.687182E+0	1.697561E+0	1.787751E+0	1.781632E+0	1.667105E+0	1.778451E+0	1.706777E+0	1.676726E+0	1.726360E+0	1.741560E+0	1.736188E+0	1.711765E+0	1.679138E+0	1.847626E+0	1.658990E+0	1.736369E+0	1.653974E+0	1.674098E+0	1.773244E+0	1.718293E+0	1.701830E+0	1.672315E+0	1.698883E+0	1.683354E+0	1.735512E+0	1.769630E+0	1.646184E+0	1.681226E+0	1.628827E+0	1.697264E+0	1.630345E+0	1.730549E+0	1.697201E+0	1.704473E+0	1.726380E+0	1.717422E+0	1.724884E+0	1.732278E+0	1.726317E+0	1.696313E+0	1.689607E+0	1.638225E+0	1.679238E+0	1.689440E+0	1.667395E+0	1.669825E+0	1.627053E+0	1.633287E+0	1.698619E+0	1.766765E+0	1.687516E+0	1.679821E+0	1.691058E+0	1.740963E+0	1.669265E+0	1.651141E+0	1.640033E+0	1.691986E+0	1.630083E+0	1.649343E+0	1.679891E+0	1.684496E+0	1.707891E+0	1.668567E+0	1.741284E+0	1.690680E+0	1.702332E+0	1.670500E+0	1.691156E+0	1.683519E+0	1.663600E+0	1.714910E+0	1.700094E+0	1.699180E+0	1.704432E+0	1.735490E+0	1.681651E+0	1.675261E+0	1.675990E+0	1.629938E+0	1.689491E+0	1.641382E+0	1.691200E+0	1.694307E+0	1.705627E+0	1.704050E+0	1.648947E+0	1.654425E+0	1.628500E+0	1.693513E+0	1.633283E+0	1.651755E+0	1.603255E+0	1.712424E+0	1.715691E+0	1.645409E+0	1.665398E+0	1.702143E+0	1.723982E+0	1.728955E+0	1.648091E+0	1.707936E+0	1.647925E+0	1.675047E+0	1.667050E+0	1.717461E+0	1.627656E+0	1.598209E+0	1.740258E+0	1.731750E+0	1.738180E+0	1.635074E+0	1.740532E+0	1.694762E+0	1.649645E+0	1.689519E+0	1.674964E+0	1.715168E+0	1.716460E+0	1.623407E+0	1.671530E+0	1.697472E+0	1.621460E+0	1.672617E+0	1.757343E+0	1.669436E+0	1.565835E+0
5.355630E+2	1.588328E+0	1.577265E+0	1.553275E+0	1.528961E+0	1.571646E+0	1.489598E+0	1.516989E+0	1.514756E+0	1.578306E+0	1.513422E+0	1.563927E+0	1.502983E+0	1.502511E+0	1.543575E+0	1.508019E+0	1.519608E+0	1.508043E+0	1.516907E+0	1.535240E+0	1.568953E+0	1.568896E+0	1.508341E+0	1.537996E+0	1.476365E+0	1.552434E+0	1.528561E+0	1.542045E+0	1.537878E+0	1.584853E+0	1.532925E+0	1.498940E+0	1.517466E+0	1.569085E+0	1.442815E+0	1.481160E+0	1.510576E+0	1.524386E+0	1.561902E+0	1.512753E+0	1.538012E+0	1.495674E+0	1.488957E+0	1.541169E+0	1.505493E+0	1.611092E+0	1.511714E+0	1.527704E+0	1.513768E+0	1.532892E+0	1.559577E+0	1.540638E+0	1.568118E+0	1.500105E+0	1.571502E+0	1.538884E+0	1.509936E+0	1.568030E+0	1.502253E+0	1.542014E+0	1.528709E+0	1.527129E+0	1.511371E+0	1.498396E+0	1.484265E+0	1.466419E+0	1.536140E+0	1.516104E+0	1.527975E+0	1.487983E+0	1.482239E+0	1.484276E+0	1.491745E+0	1.493580E+0	1.459978E+0	1.565247E+0	1.519088E+0	1.482701E+0	1.544047E+0	1.530191E+0	1.453797E+0	1.450963E+0	1.451176E+0	1.509315E+0	1.557294E+0	1.486219E+0	1.490854E+0	1.465469E+0	1.496978E+0	1.498433E+0	1.510660E+0	1.469827E+0	1.539501E+0	1.553040E+0	1.510621E+0	1.486904E+0	1.570419E+0	1.537757E+0	1.487335E+0	1.464409E+0	1.496563E+0	1.501819E+0	1.498687E+0	1.499193E+0	1.477728E+0	1.461067E+0	1.477605E+0	1.504275E+0	1.556756E+0	1.474139E+0	1.535169E+0	1.515970E+0	1.513240E+0	1.530527E+0	1.477516E+0	1.528310E+0	1.524057E+0	1.488313E+0	1.463359E+0	1.528178E+0	1.500996E+0	1.499638E+0	1.421237E+0	1.529423E+0	1.545672E+0	1.539849E+0	1.428282E+0	1.448111E+0	1.515291E+0	1.471177E+0	1.495356E+0	1.489190E+0	1.498451E+0	1.524123E+0	1.494120E+0	1.472873E+0	1.476165E+0	1.479117E+0	1.591554E+0	1.489435E+0	1.464307E+0	1.575997E+0	1.465958E+0	1.505741E+0	1.446182E+0	1.541037E+0	1.436953E+0	1.465813E+0	1.510233E+0	1.519658E+0	1.510794E+0	1.443308E+0	1.508551E+0	1.559215E+0	1.473067E+0	1.480725E+0	1.530882E+0	1.527946E+0	1.476197E+0	1.468473E+0	1.484497E+0	1.537370E+0	1.486797E+0	1.540220E+0	1.421409E+0	1.528241E+0	1.509376E+0	1.484344E+0	1.501391E+0	1.446013E+0	1.433494E+0
5.357140E+2	1.305255E+0	1.334130E+0	1.285729E+0	1.319558E+0	1.301302E+0	1.241554E+0	1.280916E+0	1.274867E+0	1.358916E+0	1.282231E+0	1.306098E+0	1.359199E+0	1.368616E+0	1.336567E+0	1.279594E+0	1.342150E+0	1.352496E+0	1.339329E+0	1.348289E+0	1.422846E+0	1.337362E+0	1.357047E+0	1.259667E+0	1.339636E+0	1.342850E+0	1.279713E+0	1.266160E+0	1.345348E+0	1.361191E+0	1.294889E+0	1.284283E+0	1.306704E+0	1.300328E+0	1.321175E+0	1.333995E+0	1.363028E+0	1.338391E+0	1.321486E+0	1.401484E+0	1.283258E+0	1.260119E+0	1.313195E+0	1.288098E+0	1.309664E+0	1.331833E+0	1.340173E+0	1.365931E+0	1.300902E+0	1.344254E+0	1.341063E+0	1.296633E+0	1.273469E+0	1.387934E+0	1.288700E+0	1.288341E+0	1.296093E+0	1.346996E+0	1.312495E+0	1.359296E+0	1.297216E+0	1.343440E+0	1.393093E+0	1.354252E+0	1.229949E+0	1.268437E+0	1.259792E+0	1.217053E+0	1.371211E+0	1.271019E+0	1.280162E+0	1.332731E+0	1.266728E+0	1.266788E+0	1.347578E+0	1.322801E+0	1.319002E+0	1.339130E+0	1.337905E+0	1.308073E+0	1.325138E+0	1.332221E+0	1.336624E+0	1.302753E+0	1.344370E+0	1.339226E+0	1.303880E+0	1.319572E+0	1.273000E+0	1.305940E+0	1.286543E+0	1.291844E+0	1.264893E+0	1.306738E+0	1.332797E+0	1.319279E+0	1.333836E+0	1.336632E+0	1.254270E+0	1.326952E+0	1.294694E+0	1.301503E+0	1.286532E+0	1.309175E+0	1.308012E+0	1.286847E+0	1.309730E+0	1.284093E+0	1.328152E+0	1.340020E+0	1.376115E+0	1.277578E+0	1.282508E+0	1.333491E+0	1.364145E+0	1.343746E+0	1.322267E+0	1.366878E+0	1.309352E+0	1.324034E+0	1.312194E+0	1.276970E+0	1.286362E+0	1.308472E+0	1.337753E+0	1.354133E+0	1.268769E+0	1.227410E+0	1.319221E+0	1.275677E+0	1.330688E+0	1.329029E+0	1.305270E+0	1.298581E+0	1.264410E+0	1.316713E+0	1.281922E+0	1.326728E+0	1.326344E+0	1.314706E+0	1.362931E+0	1.325383E+0	1.281519E+0	1.313326E+0	1.251032E+0	1.379271E+0	1.288962E+0	1.353696E+0	1.327474E+0	1.329836E+0	1.350654E+0	1.227952E+0	1.300524E+0	1.322410E+0	1.303022E+0	1.330837E+0	1.356650E+0	1.324503E+0	1.337049E+0	1.314202E+0	1.331919E+0	1.412237E+0	1.341225E+0	1.310980E+0	1.224765E+0	1.290062E+0	1.285477E+0	1.306908E+0	1.252656E+0	1.340995E+0	1.325064E+0
5.358600E+2	1.182935E+0	1.169105E+0	1.123583E+0	1.161550E+0	1.144065E+0	1.095928E+0	1.091264E+0	1.124466E+0	1.154347E+0	1.124040E+0	1.160690E+0	1.112979E+0	1.147948E+0	1.131154E+0	1.125606E+0	1.095555E+0	1.139171E+0	1.141161E+0	1.166924E+0	1.172473E+0	1.162580E+0	1.102411E+0	1.162243E+0	1.124743E+0	1.166698E+0	1.169959E+0	1.084602E+0	1.216985E+0	1.157053E+0	1.049986E+0	1.136427E+0	1.117072E+0	1.162316E+0	1.101384E+0	1.148199E+0	1.132120E+0	1.131268E+0	1.113271E+0	1.154035E+0	1.142475E+0	1.152599E+0	1.093524E+0	1.118684E+0	1.125126E+0	1.133426E+0	1.174743E+0	1.141055E+0	1.117042E+0	1.153738E+0	1.163303E+0	1.130163E+0	1.196182E+0	1.121468E+0	1.089028E+0	1.126177E+0	1.122108E+0	1.146299E+0	1.169503E+0	1.118373E+0	1.146413E+0	1.151711E+0	1.124101E+0	1.136561E+0	1.093079E+0	1.130652E+0	1.176979E+0	1.140931E+0	1.172633E+0	1.143445E+0	1.085471E+0	1.160127E+0	1.124396E+0	1.175793E+0	1.129583E+0	1.149815E+0	1.115333E+0	1.192525E+0	1.124788E+0	1.136836E+0	1.126993E+0	1.174057E+0	1.205217E+0	1.157923E+0	1.186021E+0	1.113981E+0	1.136541E+0	1.142882E+0	1.177944E+0	1.166343E+0	1.120417E+0	1.077717E+0	1.152896E+0	1.125054E+0	1.066550E+0	1.130867E+0	1.118459E+0	1.165093E+0	1.123678E+0	1.139998E+0	1.130026E+0	1.145189E+0	1.117401E+0	1.125672E+0	1.152442E+0	1.123102E+0	1.159212E+0	1.109412E+0	1.156890E+0	1.184973E+0	1.147607E+0	1.116436E+0	1.116083E+0	1.160937E+0	1.148650E+0	1.168798E+0	1.114421E+0	1.131083E+0	1.137135E+0	1.112221E+0	1.171971E+0	1.102175E+0	1.102447E+0	1.154903E+0	1.156854E+0	1.157248E+0	1.155295E+0	1.111519E+0	1.158839E+0	1.188248E+0	1.165801E+0	1.147076E+0	1.176562E+0	1.199280E+0	1.094408E+0	1.129240E+0	1.122558E+0	1.207568E+0	1.131723E+0	1.103129E+0	1.101273E+0	1.153013E+0	1.181423E+0	1.146892E+0	1.109248E+0	1.152137E+0	1.099796E+0	1.142393E+0	1.106961E+0	1.153845E+0	1.174070E+0	1.053868E+0	1.127843E+0	1.191389E+0	1.128251E+0	1.111457E+0	1.154941E+0	1.131555E+0	1.132835E+0	1.154641E+0	1.110117E+0	1.195757E+0	1.130687E+0	1.146785E+0	1.131620E+0	1.197845E+0	1.170064E+0	1.111066E+0	1.110849E+0	1.194546E+0	1.184857E+0
5.360120E+2	9.728259E-1	9.619441E-1	9.611099E-1	9.784672E-1	9.399381E-1	9.500985E-1	9.022744E-1	8.822100E-1	9.674026E-1	9.610786E-1	9.330241E-1	9.466415E-1	9.337793E-1	9.404990E-1	9.512096E-1	9.495069E-1	9.372789E-1	9.296539E-1	9.531326E-1	9.255861E-1	9.452795E-1	9.213277E-1	9.026395E-1	9.446389E-1	1.003507E+0	9.619626E-1	9.171133E-1	9.604642E-1	9.799575E-1	9.497947E-1	9.807222E-1	1.012602E+0	9.697519E-1	9.754949E-1	9.649582E-1	1.000767E+0	9.422480E-1	9.365584E-1	9.592917E-1	9.427825E-1	9.348064E-1	9.208622E-1	9.167556E-1	9.497522E-1	9.333089E-1	9.154596E-1	9.430284E-1	9.614373E-1	9.762150E-1	9.333789E-1	9.010003E-1	9.409296E-1	9.684254E-1	9.199796E-1	9.074835E-1	9.388516E-1	9.750235E-1	9.735033E-1	9.424052E-1	9.367786E-1	9.693524E-1	9.491755E-1	9.943466E-1	9.474230E-1	9.458187E-1	9.650850E-1	9.456703E-1	9.672516E-1	9.656488E-1	8.969284E-1	8.687667E-1	9.169334E-1	9.233445E-1	9.772176E-1	9.530839E-1	9.559062E-1	9.006448E-1	9.633167E-1	1.001146E+0	9.482382E-1	9.199247E-1	9.910159E-1	9.234131E-1	1.008851E+0	9.522187E-1	1.007387E+0	9.248617E-1	9.154254E-1	9.422598E-1	9.245393E-1	9.455570E-1	9.752902E-1	1.027014E+0	9.803170E-1	9.727146E-1	9.473941E-1	9.773850E-1	9.125882E-1	9.413982E-1	9.193503E-1	9.589595E-1	9.087393E-1	9.393816E-1	9.678551E-1	9.586431E-1	9.530827E-1	9.669030E-1	9.816094E-1	9.622418E-1	9.478504E-1	9.818589E-1	9.192039E-1	9.105430E-1	9.998071E-1	9.892711E-1	9.326234E-1	9.785051E-1	9.596026E-1	9.493911E-1	9.239718E-1	9.683399E-1	9.247652E-1	9.468563E-1	9.576258E-1	9.780344E-1	9.166520E-1	9.674358E-1	9.593085E-1	9.351740E-1	9.369991E-1	8.937676E-1	9.455528E-1	9.535356E-1	9.663255E-1	9.259422E-1	9.424135E-1	9.549705E-1	9.780278E-1	9.346388E-1	9.624072E-1	9.189299E-1	9.600752E-1	1.019934E+0	9.577168E-1	9.755898E-1	9.283398E-1	9.677124E-1	9.461989E-1	9.779777E-1	9.562471E-1	9.011102E-1	1.007414E+0	1.036106E+0	9.554757E-1	8.913022E-1	8.915235E-1	9.505746E-1	9.908974E-1	9.650435E-1	9.862240E-1	1.008640E+0	9.699832E-1	9.322365E-1	9.555224E-1	9.867087E-1	9.660470E-1	9.863303E-1	9.499927E-1	9.825424E-1	9.195597E-1
5.362630E+2	7.873581E-1	7.351914E-1	7.109372E-1	7.183745E-1	7.460569E-1	7.174835E-1	7.437314E-1	7.160576E-1	7.512505E-1	7.084588E-1	7.435053E-1	7.068731E-1	7.630745E-1	7.206642E-1	7.082380E-1	7.229775E-1	7.113385E-1	7.306371E-1	7.189919E-1	7.390687E-1	7.302827E-1	6.849645E-1	6.980779E-1	6.865925E-1	7.476696E-1	7.279411E-1	7.395850E-1	7.390170E-1	7.182921E-1	7.155794E-1	7.297253E-1	7.363546E-1	7.178295E-1	7.134848E-1	7.590321E-1	7.411346E-1	7.368299E-1	7.264516E-1	7.106384E-1	6.931675E-1	7.230024E-1	7.037867E-1	7.247851E-1	7.197694E-1	7.474487E-1	7.138612E-1	7.435910E-1	7.077395E-1	7.909226E-1	7.485380E-1	7.258428E-1	7.609014E-1	7.585663E-1	7.540123E-1	7.612752E-1	7.413287E-1	7.902624E-1	7.317239E-1	7.505725E-1	7.201290E-1	7.660317E-1	7.410090E-1	7.364638E-1	7.177396E-1	7.383031E-1	7.263812E-1	7.330841E-1	7.072983E-1	7.214247E-1	7.328656E-1	7.451832E-1	7.162293E-1	7.169386E-1	7.107625E-1	7.015650E-1	7.112300E-1	7.517821E-1	7.245592E-1	7.345299E-1	7.172816E-1	7.020082E-1	7.460945E-1	7.307388E-1	7.075296E-1	6.927764E-1	7.206667E-1	7.199192E-1	7.288116E-1	7.405757E-1	7.089856E-1	7.308381E-1	7.027176E-1	7.340751E-1	7.204062E-1	7.731691E-1	7.111814E-1	7.371245E-1	7.155182E-1	7.697355E-1	7.309147E-1	7.511939E-1	7.332908E-1	7.138635E-1	7.731197E-1	7.171436E-1	7.056729E-1	7.493473E-1	7.207531E-1	7.184382E-1	7.409329E-1	7.362022E-1	6.837611E-1	7.419277E-1	7.728234E-1	7.277779E-1	7.172482E-1	7.422519E-1	7.322354E-1	7.151309E-1	7.718669E-1	7.177418E-1	7.294263E-1	7.320565E-1	7.372610E-1	7.579265E-1	7.286044E-1	8.005776E-1	7.674046E-1	7.056779E-1	7.288337E-1	7.674116E-1	7.457021E-1	7.319939E-1	7.529414E-1	7.415053E-1	7.279976E-1	7.435966E-1	7.122498E-1	7.002910E-1	7.222822E-1	7.742598E-1	7.250532E-1	7.241455E-1	7.353885E-1	7.905658E-1	7.414398E-1	7.290493E-1	7.493728E-1	7.017878E-1	7.457530E-1	7.376935E-1	7.373750E-1	7.511459E-1	7.674977E-1	7.430909E-1	7.415999E-1	7.443771E-1	7.312481E-1	7.500927E-1	7.575080E-1	7.526137E-1	7.120290E-1	7.746270E-1	7.218224E-1	7.576034E-1	7.352102E-1	7.293694E-1	7.140576E-1	7.402139E-1	7.385589E-1
5.365040E+2	6.119210E-1	5.902873E-1	5.915227E-1	6.028134E-1	5.614626E-1	5.669218E-1	5.351087E-1	5.757156E-1	5.831052E-1	5.692181E-1	5.931474E-1	5.685884E-1	5.766645E-1	5.777982E-1	5.912879E-1	5.666100E-1	5.943566E-1	6.167528E-1	5.967156E-1	5.610826E-1	5.604733E-1	5.959021E-1	5.953118E-1	5.803490E-1	5.959483E-1	5.557240E-1	5.721455E-1	6.007277E-1	5.507473E-1	5.579523E-1	5.628929E-1	6.001013E-1	6.072617E-1	5.736873E-1	5.718272E-1	5.962626E-1	6.097956E-1	6.078366E-1	5.803395E-1	5.484470E-1	5.563804E-1	5.646560E-1	5.701455E-1	5.691286E-1	6.192774E-1	5.473686E-1	6.057936E-1	5.766990E-1	6.268194E-1	5.768140E-1	6.245302E-1	5.773220E-1	5.941560E-1	6.068462E-1	6.046819E-1	6.158557E-1	6.276546E-1	6.074937E-1	5.847471E-1	5.907900E-1	6.097161E-1	6.063077E-1	5.620475E-1	5.922473E-1	5.697090E-1	5.890585E-1	5.682739E-1	5.932272E-1	5.799343E-1	5.774993E-1	5.823129E-1	5.922780E-1	6.026187E-1	6.130194E-1	6.018351E-1	6.130986E-1	5.723424E-1	6.105147E-1	6.242084E-1	5.451752E-1	6.251511E-1	6.247637E-1	6.091535E-1	6.497409E-1	5.715065E-1	5.784756E-1	5.813642E-1	5.760838E-1	5.553323E-1	5.757993E-1	6.196155E-1	5.648545E-1	6.288049E-1	5.859956E-1	6.091670E-1	5.583222E-1	5.967317E-1	6.123656E-1	5.956270E-1	5.628678E-1	5.909441E-1	5.936143E-1	5.658988E-1	6.009034E-1	5.878931E-1	5.737663E-1	5.756619E-1	6.015257E-1	5.687118E-1	5.993413E-1	5.914706E-1	5.544543E-1	5.883819E-1	5.791388E-1	5.984049E-1	5.793319E-1	5.944477E-1	6.104395E-1	5.912478E-1	5.961651E-1	5.844785E-1	5.667803E-1	5.960888E-1	5.673917E-1	5.908793E-1	5.620824E-1	6.084068E-1	5.570777E-1	6.080295E-1	6.171897E-1	5.825652E-1	5.641910E-1	5.973226E-1	5.724214E-1	6.336547E-1	5.458842E-1	5.739464E-1	6.360645E-1	5.716698E-1	6.022707E-1	5.827216E-1	5.767898E-1	6.060715E-1	5.985623E-1	6.461742E-1	5.833066E-1	5.950178E-1	5.767905E-1	5.968994E-1	5.821771E-1	6.087929E-1	5.870013E-1	6.076265E-1	5.913789E-1	5.897484E-1	5.895784E-1	6.147971E-1	5.820907E-1	5.662191E-1	6.012872E-1	6.133438E-1	6.013607E-1	5.870926E-1	5.704468E-1	5.651502E-1	5.445521E-1	6.267420E-1	5.622335E-1	6.148378E-1	5.694906E-1
5.367810E+2	5.386782E-1	5.031741E-1	5.365560E-1	5.002922E-1	5.310109E-1	4.974409E-1	4.743549E-1	4.856330E-1	4.917467E-1	4.971531E-1	4.807386E-1	4.886575E-1	5.040676E-1	4.902604E-1	4.929317E-1	4.965791E-1	4.773559E-1	5.096651E-1	5.134665E-1	5.087029E-1	5.170939E-1	5.201152E-1	5.324775E-1	4.718475E-1	5.120516E-1	5.070671E-1	4.966152E-1	5.357768E-1	5.141373E-1	5.000575E-1	5.008673E-1	5.011310E-1	5.226712E-1	4.897367E-1	5.033865E-1	4.944662E-1	4.873268E-1	4.824063E-1	5.031851E-1	4.960733E-1	4.753025E-1	5.160206E-1	4.936750E-1	4.988639E-1	5.166396E-1	5.361674E-1	4.839483E-1	5.048938E-1	4.906378E-1	5.213605E-1	4.989943E-1	4.982551E-1	5.000279E-1	5.112682E-1	4.985136E-1	4.774363E-1	4.922672E-1	4.982302E-1	4.930972E-1	4.863528E-1	5.249073E-1	4.839675E-1	4.838733E-1	5.080919E-1	5.028192E-1	4.929813E-1	5.266031E-1	4.850836E-1	5.065214E-1	4.710972E-1	5.103324E-1	4.979863E-1	4.885290E-1	4.988671E-1	5.199097E-1	5.002340E-1	5.118373E-1	4.700834E-1	5.176187E-1	4.849838E-1	5.455537E-1	5.419799E-1	4.989570E-1	5.275990E-1	5.031171E-1	5.109504E-1	5.283666E-1	5.031783E-1	4.689596E-1	4.761138E-1	5.454454E-1	4.966633E-1	4.950050E-1	5.185565E-1	5.144667E-1	5.077305E-1	4.957045E-1	5.085546E-1	4.991788E-1	4.798259E-1	4.979581E-1	5.164725E-1	4.898648E-1	4.850939E-1	5.076149E-1	5.104757E-1	5.183927E-1	5.004957E-1	4.947940E-1	5.205619E-1	5.084180E-1	5.091327E-1	5.108571E-1	5.083686E-1	5.190190E-1	4.912670E-1	4.880981E-1	4.963287E-1	5.003901E-1	5.056054E-1	5.242888E-1	5.062181E-1	4.798276E-1	5.098247E-1	5.102357E-1	5.169700E-1	5.393013E-1	5.397526E-1	5.337880E-1	5.534309E-1	5.141893E-1	4.600514E-1	5.459407E-1	5.134692E-1	5.079294E-1	4.840354E-1	5.141772E-1	5.124005E-1	4.675359E-1	4.760290E-1	4.969657E-1	5.285782E-1	5.379210E-1	5.081390E-1	5.060218E-1	4.794882E-1	4.908638E-1	4.872674E-1	4.940555E-1	5.013546E-1	5.240606E-1	5.057444E-1	5.236523E-1	4.664871E-1	5.133091E-1	4.957199E-1	5.484215E-1	5.149785E-1	5.223642E-1	5.138787E-1	5.304615E-1	5.288877E-1	5.159571E-1	5.022760E-1	5.143904E-1	4.768696E-1	4.854676E-1	4.968929E-1	4.819445E-1	5.059416E-1
5.370070E+2	4.675165E-1	4.879560E-1	4.842029E-1	4.758245E-1	4.756382E-1	4.602540E-1	4.313230E-1	4.309091E-1	4.655153E-1	4.994611E-1	4.636297E-1	5.001972E-1	4.726651E-1	4.612883E-1	4.863110E-1	4.639279E-1	4.918606E-1	4.511531E-1	4.890923E-1	4.575667E-1	4.876050E-1	4.855566E-1	4.392450E-1	4.814612E-1	4.800778E-1	4.680262E-1	4.794384E-1	4.697962E-1	4.992636E-1	4.552014E-1	4.989406E-1	4.640714E-1	4.762483E-1	4.836163E-1	4.604310E-1	4.580478E-1	4.645353E-1	4.909871E-1	4.893160E-1	4.514895E-1	4.797676E-1	4.571622E-1	4.799508E-1	4.652331E-1	4.975527E-1	4.776679E-1	5.030491E-1	4.852126E-1	4.977170E-1	4.829567E-1	4.514705E-1	5.116265E-1	4.780122E-1	4.809807E-1	4.798735E-1	4.772486E-1	4.858323E-1	4.570109E-1	4.819957E-1	5.125287E-1	5.208390E-1	4.834723E-1	4.774792E-1	4.854762E-1	4.583203E-1	4.611777E-1	4.892615E-1	4.974227E-1	4.567912E-1	4.655918E-1	4.770383E-1	4.994053E-1	4.615549E-1	4.845526E-1	4.799837E-1	4.998559E-1	4.935630E-1	4.682745E-1	4.945000E-1	4.506430E-1	4.732513E-1	5.115591E-1	4.749239E-1	5.278162E-1	4.548399E-1	4.999605E-1	4.638669E-1	4.641014E-1	4.719433E-1	4.922849E-1	4.777105E-1	4.494753E-1	4.738033E-1	4.743892E-1	4.859040E-1	4.950325E-1	5.154132E-1	4.549101E-1	4.611379E-1	4.666884E-1	4.909893E-1	4.742155E-1	4.771040E-1	4.690140E-1	4.834488E-1	4.695406E-1	4.636729E-1	5.219738E-1	5.106298E-1	5.167164E-1	4.842231E-1	4.728018E-1	4.855183E-1	4.844305E-1	4.750068E-1	4.913869E-1	4.938510E-1	4.750419E-1	4.787204E-1	4.718211E-1	4.904633E-1	4.923739E-1	4.884668E-1	4.870846E-1	4.799053E-1	4.821429E-1	4.781472E-1	4.564849E-1	5.034512E-1	4.970118E-1	4.697911E-1	4.748358E-1	5.092482E-1	5.120221E-1	4.752153E-1	4.896649E-1	4.893912E-1	5.126195E-1	5.000087E-1	4.757448E-1	5.116124E-1	4.847739E-1	5.300298E-1	4.688636E-1	5.394999E-1	4.932673E-1	4.683960E-1	4.727544E-1	4.885492E-1	4.845665E-1	4.800962E-1	4.761124E-1	4.983690E-1	4.826556E-1	4.535210E-1	5.051157E-1	4.872687E-1	5.015058E-1	4.969692E-1	4.571877E-1	4.925316E-1	4.769519E-1	4.495801E-1	4.867491E-1	4.805743E-1	4.683075E-1	4.740676E-1	4.931894E-1	5.037673E-1	4.739130E-1
5.372690E+2	5.163448E-1	4.734637E-1	5.249582E-1	4.894580E-1	5.091241E-1	4.605223E-1	4.612042E-1	4.902024E-1	5.243011E-1	5.027497E-1	5.058050E-1	5.218480E-1	5.308019E-1	5.084818E-1	5.180210E-1	5.266838E-1	5.022283E-1	5.274915E-1	5.442516E-1	5.152974E-1	5.149763E-1	5.311447E-1	4.986467E-1	5.091545E-1	5.199992E-1	4.769504E-1	4.992812E-1	5.159993E-1	4.864023E-1	5.317526E-1	4.897349E-1	5.229434E-1	5.236357E-1	4.945657E-1	5.236660E-1	5.074799E-1	4.996286E-1	5.101576E-1	5.643961E-1	4.934290E-1	5.371347E-1	5.029568E-1	5.150153E-1	5.041660E-1	5.137593E-1	5.218481E-1	5.311322E-1	5.330235E-1	5.347019E-1	5.296303E-1	5.018076E-1	4.927965E-1	5.401926E-1	5.327307E-1	5.415143E-1	5.490682E-1	4.971717E-1	5.146080E-1	4.817464E-1	4.808590E-1	5.142291E-1	5.647607E-1	5.153883E-1	5.481314E-1	5.274579E-1	5.151669E-1	4.907946E-1	5.186058E-1	4.804758E-1	4.800222E-1	5.106785E-1	5.121567E-1	5.198497E-1	5.224715E-1	5.318473E-1	4.770228E-1	5.286708E-1	5.129590E-1	5.106811E-1	4.950049E-1	5.117586E-1	5.159024E-1	4.951132E-1	5.219848E-1	5.006165E-1	4.924836E-1	5.212064E-1	5.156302E-1	5.078027E-1	5.183759E-1	5.189875E-1	4.995362E-1	5.225362E-1	5.015187E-1	5.161287E-1	5.412010E-1	5.237820E-1	5.029212E-1	5.193863E-1	5.326655E-1	5.471353E-1	5.275287E-1	5.050265E-1	5.229484E-1	5.157657E-1	5.543347E-1	5.344570E-1	5.327888E-1	5.146151E-1	5.090367E-1	5.117499E-1	5.285016E-1	5.034052E-1	5.143161E-1	5.169334E-1	5.118599E-1	5.185057E-1	5.047403E-1	5.434850E-1	5.085202E-1	5.193134E-1	5.358842E-1	5.173229E-1	5.215481E-1	5.690959E-1	5.125926E-1	5.287084E-1	5.301263E-1	5.421458E-1	5.703736E-1	5.336368E-1	4.940756E-1	4.991346E-1	5.171697E-1	5.570248E-1	5.237289E-1	5.382255E-1	5.239361E-1	5.119460E-1	4.998320E-1	5.393749E-1	5.239876E-1	5.160381E-1	5.454292E-1	5.357418E-1	5.307379E-1	4.968284E-1	5.330226E-1	5.223339E-1	4.810101E-1	4.658289E-1	5.072412E-1	5.451222E-1	5.339267E-1	5.228882E-1	4.828047E-1	5.332758E-1	5.387156E-1	5.480504E-1	4.879144E-1	5.267163E-1	5.301952E-1	5.385870E-1	4.911158E-1	4.951657E-1	4.821823E-1	5.121297E-1	5.193529E-1	5.345176E-1	5.043802E-1
5.375060E+2	5.391827E-1	5.045773E-1	5.287671E-1	5.087634E-1	5.492743E-1	5.472068E-1	5.326278E-1	5.110731E-1	5.535507E-1	5.767710E-1	5.463916E-1	5.278812E-1	5.591400E-1	5.441781E-1	5.238797E-1	5.331231E-1	4.932468E-1	5.256511E-1	5.668425E-1	5.661070E-1	5.627704E-1	5.245838E-1	5.348206E-1	5.524109E-1	5.464368E-1	5.217717E-1	5.746717E-1	5.422515E-1	5.232611E-1	5.505984E-1	5.516453E-1	5.338881E-1	5.789018E-1	5.569329E-1	5.506843E-1	5.144579E-1	5.555867E-1	5.593476E-1	5.338922E-1	5.476765E-1	5.496468E-1	5.009766E-1	5.437895E-1	5.111209E-1	5.629535E-1	5.679033E-1	5.581982E-1	5.194455E-1	5.330352E-1	5.708333E-1	5.626639E-1	5.356583E-1	5.484654E-1	5.289893E-1	5.236385E-1	5.594888E-1	5.606934E-1	5.462195E-1	5.361020E-1	5.378405E-1	5.748523E-1	5.560265E-1	5.498904E-1	4.985713E-1	5.610964E-1	5.369784E-1	5.201174E-1	5.719798E-1	5.507421E-1	5.257257E-1	5.502112E-1	5.508247E-1	5.603297E-1	5.378815E-1	5.246949E-1	5.532198E-1	5.453610E-1	5.639547E-1	5.390465E-1	5.310274E-1	5.259913E-1	5.657874E-1	5.381969E-1	5.742880E-1	5.470258E-1	5.036590E-1	5.424507E-1	5.457111E-1	5.253683E-1	5.238250E-1	5.283771E-1	5.775767E-1	5.340522E-1	5.273152E-1	5.526063E-1	5.530423E-1	5.808334E-1	5.347933E-1	5.370801E-1	5.597786E-1	5.426493E-1	5.764475E-1	5.421265E-1	5.828979E-1	5.904698E-1	5.534687E-1	5.408923E-1	5.448618E-1	5.746813E-1	5.230345E-1	5.446631E-1	5.523859E-1	5.448603E-1	5.283587E-1	5.222568E-1	5.455106E-1	5.383515E-1	5.505915E-1	5.786483E-1	5.302769E-1	5.425128E-1	5.444946E-1	5.509550E-1	5.255584E-1	5.746350E-1	5.607652E-1	5.581026E-1	5.424080E-1	5.668287E-1	5.534231E-1	5.350483E-1	5.641692E-1	5.456574E-1	5.505280E-1	5.709843E-1	5.528071E-1	5.630470E-1	5.774957E-1	5.661791E-1	5.583840E-1	5.583578E-1	5.448289E-1	6.009482E-1	5.538299E-1	5.683425E-1	5.614971E-1	5.653914E-1	5.900092E-1	5.505677E-1	5.742106E-1	5.106241E-1	5.427008E-1	5.485437E-1	5.622578E-1	5.761532E-1	5.357858E-1	5.734491E-1	5.414686E-1	5.312384E-1	5.628177E-1	5.666257E-1	5.349826E-1	5.276149E-1	5.119143E-1	5.689591E-1	5.217588E-1	5.471922E-1	5.146669E-1	5.276019E-1	5.618514E-1
5.377690E+2	6.281170E-1	6.520793E-1	6.553963E-1	6.517010E-1	6.792620E-1	6.742135E-1	6.415912E-1	6.474509E-1	6.912078E-1	6.202534E-1	6.319837E-1	6.527786E-1	6.159958E-1	6.262117E-1	6.226765E-1	6.465994E-1	6.221376E-1	6.673788E-1	6.371689E-1	6.394043E-1	6.627485E-1	6.871151E-1	6.403457E-1	5.988362E-1	6.657130E-1	6.290638E-1	6.344838E-1	6.381739E-1	6.497084E-1	6.756816E-1	6.489575E-1	6.110845E-1	6.362686E-1	6.128214E-1	6.363588E-1	6.396642E-1	6.565945E-1	6.586174E-1	6.457638E-1	6.750920E-1	6.175570E-1	6.563684E-1	6.383584E-1	6.123373E-1	6.398214E-1	6.992339E-1	6.426635E-1	6.268379E-1	6.045622E-1	6.348083E-1	6.324160E-1	6.602727E-1	6.661393E-1	6.626701E-1	6.464017E-1	6.013732E-1	6.393058E-1	6.526859E-1	6.227862E-1	6.176441E-1	6.397289E-1	6.860979E-1	6.163336E-1	6.236469E-1	6.675424E-1	6.333604E-1	6.454962E-1	6.458958E-1	6.514714E-1	6.127440E-1	6.598534E-1	6.811234E-1	6.563239E-1	6.167101E-1	6.769309E-1	6.214608E-1	6.906849E-1	6.535856E-1	6.403679E-1	6.413533E-1	6.129818E-1	6.788159E-1	6.681160E-1	6.278726E-1	6.350179E-1	6.500740E-1	6.646028E-1	6.424653E-1	6.483704E-1	6.706886E-1	6.539549E-1	6.465995E-1	6.675845E-1	5.758379E-1	6.754844E-1	6.682851E-1	6.793934E-1	6.103961E-1	6.463787E-1	6.345705E-1	6.446104E-1	6.158293E-1	6.203916E-1	6.673458E-1	6.539642E-1	6.725027E-1	6.380049E-1	6.744851E-1	6.673971E-1	6.571644E-1	6.143490E-1	6.224022E-1	6.943903E-1	6.488341E-1	6.137875E-1	6.588269E-1	6.637011E-1	6.404553E-1	6.933381E-1	6.197082E-1	6.390004E-1	6.269230E-1	6.397245E-1	6.438605E-1	6.310220E-1	6.231398E-1	6.601915E-1	6.611135E-1	6.180128E-1	6.908572E-1	6.792922E-1	6.355699E-1	6.668100E-1	6.634070E-1	6.654261E-1	6.645222E-1	6.612991E-1	6.798702E-1	6.546946E-1	6.033022E-1	6.248791E-1	6.661961E-1	6.755252E-1	6.451412E-1	6.605156E-1	6.351548E-1	6.587477E-1	6.387408E-1	6.797288E-1	6.327551E-1	6.395100E-1	6.419772E-1	6.508523E-1	6.173150E-1	6.250651E-1	6.393542E-1	6.447522E-1	6.183106E-1	6.456617E-1	6.557759E-1	6.882500E-1	6.841440E-1	6.306585E-1	6.256367E-1	6.814964E-1	6.656814E-1	6.545952E-1	6.259704E-1	6.270295E-1	6.142662E-1
5.380270E+2	7.477991E-1	6.940604E-1	7.119008E-1	7.491193E-1	7.969936E-1	7.354489E-1	7.658772E-1	7.228874E-1	7.472004E-1	7.884856E-1	7.746299E-1	7.516866E-1	7.370607E-1	7.467806E-1	7.293774E-1	7.207248E-1	7.670910E-1	7.590716E-1	7.267714E-1	7.638262E-1	7.210460E-1	7.191101E-1	7.352618E-1	7.573414E-1	7.203503E-1	7.386450E-1	7.379140E-1	7.296706E-1	7.472864E-1	7.475263E-1	7.656162E-1	7.656198E-1	7.493717E-1	7.661722E-1	6.973328E-1	7.730935E-1	7.238664E-1	7.266576E-1	7.404271E-1	7.737078E-1	7.029906E-1	7.424805E-1	7.214786E-1	7.197323E-1	7.538198E-1	7.826432E-1	7.640239E-1	7.025794E-1	7.379874E-1	8.043029E-1	7.141005E-1	7.327159E-1	7.794811E-1	6.976819E-1	7.252903E-1	7.104525E-1	7.796151E-1	7.608471E-1	7.276269E-1	7.554291E-1	7.450341E-1	7.686607E-1	7.251383E-1	7.045976E-1	7.305487E-1	7.472691E-1	7.530131E-1	7.758294E-1	7.195935E-1	7.454795E-1	7.477988E-1	6.883768E-1	7.568961E-1	7.381122E-1	7.402287E-1	7.285755E-1	7.406949E-1	7.976178E-1	7.399103E-1	7.836662E-1	7.002633E-1	7.549971E-1	7.254560E-1	7.947554E-1	7.492742E-1	7.954225E-1	7.184419E-1	7.358642E-1	7.187212E-1	7.257862E-1	7.327157E-1	7.374227E-1	7.420146E-1	7.087204E-1	7.295654E-1	7.584891E-1	7.722057E-1	7.491286E-1	7.466864E-1	7.324739E-1	7.446061E-1	7.570164E-1	7.268973E-1	7.393174E-1	7.029451E-1	7.412497E-1	7.587827E-1	7.524375E-1	7.345242E-1	7.471182E-1	7.506049E-1	7.649231E-1	7.370355E-1	7.198854E-1	7.281624E-1	7.773963E-1	7.505333E-1	7.340212E-1	7.291008E-1	8.034648E-1	7.507897E-1	7.627599E-1	7.455857E-1	7.696356E-1	7.561046E-1	7.476487E-1	7.233052E-1	7.235040E-1	7.625954E-1	7.282440E-1	7.620849E-1	7.649403E-1	7.681838E-1	7.469377E-1	7.537686E-1	7.587901E-1	7.978027E-1	7.753927E-1	7.420960E-1	7.002284E-1	7.752688E-1	7.520416E-1	7.751058E-1	7.145729E-1	7.893462E-1	7.529446E-1	7.436058E-1	7.477722E-1	7.788495E-1	7.825900E-1	7.135371E-1	7.855182E-1	8.015505E-1	8.064276E-1	7.155054E-1	7.270877E-1	7.744541E-1	7.431543E-1	7.741422E-1	7.676378E-1	7.612326E-1	7.458743E-1	7.578772E-1	7.039956E-1	7.844317E-1	7.379951E-1	7.573687E-1	8.069661E-1	7.071035E-1	7.688741E-1
5.382690E+2	9.539668E-1	9.060148E-1	9.385690E-1	9.206030E-1	9.125752E-1	9.132770E-1	8.789366E-1	8.492418E-1	9.332043E-1	9.676914E-1	9.119739E-1	9.096770E-1	9.074456E-1	9.135847E-1	9.078763E-1	9.201223E-1	8.830535E-1	9.522095E-1	9.224316E-1	9.467956E-1	9.081556E-1	9.417888E-1	9.012369E-1	9.284302E-1	9.143401E-1	9.295709E-1	9.397827E-1	9.161843E-1	9.044456E-1	8.936728E-1	9.432152E-1	9.237838E-1	8.981583E-1	8.553733E-1	9.546748E-1	8.965397E-1	8.884547E-1	9.334229E-1	8.965183E-1	9.285292E-1	8.522475E-1	8.576218E-1	9.248040E-1	8.685786E-1	9.016546E-1	9.287129E-1	9.070149E-1	8.734601E-1	8.982326E-1	9.703250E-1	8.955701E-1	9.265083E-1	8.832738E-1	9.482169E-1	9.124387E-1	9.008508E-1	9.425251E-1	9.254159E-1	9.113039E-1	8.902317E-1	8.966550E-1	9.304810E-1	8.990508E-1	8.949164E-1	9.253010E-1	9.353387E-1	9.202813E-1	8.532224E-1	9.052421E-1	8.873267E-1	9.526854E-1	9.002269E-1	9.424875E-1	9.491090E-1	9.498940E-1	9.013617E-1	9.046238E-1	8.853077E-1	9.340286E-1	8.932445E-1	8.863468E-1	9.295209E-1	9.374336E-1	9.302361E-1	8.382017E-1	9.006354E-1	9.181241E-1	9.319259E-1	8.753587E-1	8.845705E-1	9.026774E-1	9.091784E-1	9.429525E-1	9.242310E-1	9.394405E-1	9.378102E-1	9.184249E-1	8.733282E-1	9.087729E-1	9.207220E-1	9.034784E-1	9.803808E-1	9.002220E-1	9.275815E-1	9.595393E-1	8.891280E-1	9.362355E-1	9.304012E-1	9.108940E-1	8.643085E-1	8.989974E-1	8.759199E-1	9.185869E-1	9.408236E-1	9.084244E-1	8.919373E-1	8.917543E-1	9.481184E-1	9.219764E-1	9.139426E-1	9.459977E-1	9.161506E-1	9.125500E-1	9.190215E-1	9.336338E-1	9.239043E-1	9.026194E-1	8.770855E-1	9.181708E-1	9.084009E-1	9.241142E-1	9.129793E-1	9.060737E-1	9.196876E-1	8.997078E-1	8.695490E-1	9.399806E-1	9.079430E-1	8.585975E-1	9.237128E-1	9.054526E-1	9.131922E-1	9.648098E-1	9.028105E-1	9.111723E-1	9.021794E-1	8.960352E-1	9.365145E-1	9.181987E-1	8.955027E-1	8.570518E-1	9.434691E-1	9.381030E-1	9.214701E-1	8.834849E-1	8.877375E-1	9.273460E-1	8.806526E-1	9.535903E-1	9.331622E-1	9.184716E-1	9.553279E-1	8.960302E-1	8.937618E-1	9.696343E-1	8.956984E-1	8.442474E-1	9.078307E-1	9.192950E-1	9.559171E-1
5.385170E+2	1.124772E+0	1.093924E+0	1.102149E+0	1.055649E+0	1.078074E+0	1.098594E+0	1.131653E+0	1.102149E+0	1.107216E+0	1.097992E+0	1.111936E+0	1.084281E+0	1.060821E+0	1.078475E+0	1.156965E+0	1.074450E+0	1.061609E+0	1.143698E+0	1.124437E+0	1.130637E+0	1.078564E+0	1.072909E+0	1.062327E+0	1.052924E+0	1.108662E+0	1.099380E+0	1.093260E+0	1.123815E+0	1.062537E+0	1.116975E+0	1.049973E+0	1.128489E+0	1.074407E+0	1.036908E+0	1.164859E+0	1.121341E+0	1.101847E+0	1.085236E+0	1.111990E+0	1.102678E+0	1.027474E+0	1.028666E+0	1.104681E+0	1.088202E+0	1.089387E+0	1.150419E+0	1.076387E+0	1.078415E+0	1.063187E+0	1.075006E+0	1.080260E+0	1.112529E+0	1.071425E+0	1.075657E+0	1.066116E+0	1.060616E+0	1.108644E+0	1.144357E+0	1.063855E+0	1.079904E+0	1.104315E+0	1.081057E+0	1.092596E+0	1.099402E+0	1.046601E+0	1.079037E+0	1.068023E+0	1.124639E+0	1.113232E+0	1.052905E+0	1.065794E+0	1.110489E+0	1.131316E+0	1.105350E+0	1.089967E+0	1.129066E+0	1.065469E+0	1.101251E+0	1.075625E+0	1.084779E+0	1.129559E+0	1.068932E+0	1.040759E+0	1.107511E+0	1.079918E+0	1.093309E+0	1.083317E+0	1.087141E+0	1.088137E+0	1.053193E+0	1.080747E+0	1.060759E+0	1.096417E+0	1.094163E+0	1.076885E+0	1.102121E+0	1.087260E+0	1.053476E+0	1.107235E+0	1.078326E+0	1.128725E+0	1.079858E+0	1.088248E+0	1.081795E+0	1.058313E+0	1.070144E+0	1.090849E+0	1.066622E+0	1.074632E+0	1.108677E+0	1.067002E+0	1.081566E+0	1.072203E+0	1.118835E+0	1.102750E+0	1.160931E+0	1.076336E+0	1.071254E+0	1.079639E+0	1.077925E+0	1.089556E+0	1.083100E+0	1.036709E+0	1.121556E+0	1.085895E+0	1.055886E+0	1.080971E+0	1.061108E+0	1.079784E+0	1.145309E+0	1.109508E+0	1.047904E+0	1.071016E+0	1.077203E+0	1.031551E+0	1.058609E+0	1.118058E+0	1.121854E+0	1.051417E+0	1.054269E+0	1.055807E+0	1.168468E+0	1.116274E+0	1.092927E+0	1.185562E+0	1.093090E+0	1.123045E+0	1.085674E+0	1.101745E+0	1.082582E+0	1.022971E+0	1.121285E+0	1.130494E+0	1.100058E+0	1.144062E+0	1.039180E+0	1.038815E+0	1.111763E+0	1.083248E+0	1.087437E+0	1.166372E+0	1.031394E+0	1.062100E+0	1.055757E+0	1.126217E+0	1.061385E+0	1.100116E+0	1.102126E+0	1.101764E+0	1.070150E+0
5.387860E+2	1.332158E+0	1.283869E+0	1.349299E+0	1.274717E+0	1.303148E+0	1.246578E+0	1.265295E+0	1.282023E+0	1.332431E+0	1.339610E+0	1.267224E+0	1.204054E+0	1.292035E+0	1.319258E+0	1.291421E+0	1.281570E+0	1.300236E+0	1.334890E+0	1.375724E+0	1.307064E+0	1.290244E+0	1.277450E+0	1.297006E+0	1.254426E+0	1.255730E+0	1.267671E+0	1.307957E+0	1.321135E+0	1.340453E+0	1.323214E+0	1.290906E+0	1.300699E+0	1.279496E+0	1.230052E+0	1.294274E+0	1.332295E+0	1.313176E+0	1.292405E+0	1.342973E+0	1.268149E+0	1.235873E+0	1.286065E+0	1.265948E+0	1.291179E+0	1.292041E+0	1.374071E+0	1.318080E+0	1.266683E+0	1.244522E+0	1.319433E+0	1.296804E+0	1.351171E+0	1.285515E+0	1.333060E+0	1.291085E+0	1.223255E+0	1.298285E+0	1.309322E+0	1.278218E+0	1.256544E+0	1.294089E+0	1.313959E+0	1.344255E+0	1.317191E+0	1.270080E+0	1.341830E+0	1.329014E+0	1.348925E+0	1.289694E+0	1.265827E+0	1.284002E+0	1.254638E+0	1.290593E+0	1.319511E+0	1.307777E+0	1.339981E+0	1.321178E+0	1.313402E+0	1.332356E+0	1.255026E+0	1.260226E+0	1.304830E+0	1.252673E+0	1.339568E+0	1.280747E+0	1.266535E+0	1.319252E+0	1.297723E+0	1.310966E+0	1.319908E+0	1.279289E+0	1.258412E+0	1.297402E+0	1.334018E+0	1.306289E+0	1.318734E+0	1.295625E+0	1.209507E+0	1.313315E+0	1.336573E+0	1.339833E+0	1.237173E+0	1.255731E+0	1.301373E+0	1.293992E+0	1.242142E+0	1.281683E+0	1.232906E+0	1.273303E+0	1.310508E+0	1.277372E+0	1.281415E+0	1.269120E+0	1.334590E+0	1.308071E+0	1.302881E+0	1.285914E+0	1.257567E+0	1.336069E+0	1.270648E+0	1.309455E+0	1.233400E+0	1.265061E+0	1.339482E+0	1.297932E+0	1.323402E+0	1.283208E+0	1.248860E+0	1.311027E+0	1.315981E+0	1.334171E+0	1.254394E+0	1.286968E+0	1.272755E+0	1.323931E+0	1.292812E+0	1.303496E+0	1.320860E+0	1.239851E+0	1.232306E+0	1.327977E+0	1.331317E+0	1.285070E+0	1.309046E+0	1.311595E+0	1.316899E+0	1.313957E+0	1.326945E+0	1.308214E+0	1.309627E+0	1.242491E+0	1.306210E+0	1.411208E+0	1.280766E+0	1.266953E+0	1.279882E+0	1.290443E+0	1.320939E+0	1.277005E+0	1.282947E+0	1.272281E+0	1.289049E+0	1.364130E+0	1.285948E+0	1.316719E+0	1.259946E+0	1.276892E+0	1.299660E+0	1.312253E+0	1.243883E+0
5.390080E+2	1.586791E+0	1.521977E+0	1.528715E+0	1.510073E+0	1.579630E+0	1.456518E+0	1.463468E+0	1.487310E+0	1.491875E+0	1.549103E+0	1.534041E+0	1.534566E+0	1.521248E+0	1.513241E+0	1.543579E+0	1.468207E+0	1.527185E+0	1.531402E+0	1.525111E+0	1.567369E+0	1.538826E+0	1.510597E+0	1.561111E+0	1.521510E+0	1.540896E+0	1.507334E+0	1.549080E+0	1.517782E+0	1.515648E+0	1.529913E+0	1.510613E+0	1.548469E+0	1.478351E+0	1.494033E+0	1.603991E+0	1.526997E+0	1.468594E+0	1.515706E+0	1.541580E+0	1.466450E+0	1.476296E+0	1.537248E+0	1.492888E+0	1.504470E+0	1.510564E+0	1.557748E+0	1.592455E+0	1.561510E+0	1.523753E+0	1.576263E+0	1.544360E+0	1.536834E+0	1.515847E+0	1.508730E+0	1.494526E+0	1.450721E+0	1.585831E+0	1.531911E+0	1.524388E+0	1.538429E+0	1.498931E+0	1.539927E+0	1.501708E+0	1.505607E+0	1.470836E+0	1.485372E+0	1.519687E+0	1.556178E+0	1.507591E+0	1.419272E+0	1.466637E+0	1.505890E+0	1.568340E+0	1.523847E+0	1.516095E+0	1.468271E+0	1.524011E+0	1.531163E+0	1.504783E+0	1.477389E+0	1.477695E+0	1.556210E+0	1.495335E+0	1.576598E+0	1.464900E+0	1.474739E+0	1.477066E+0	1.496615E+0	1.474750E+0	1.543342E+0	1.447181E+0	1.497309E+0	1.483775E+0	1.506369E+0	1.521231E+0	1.476732E+0	1.459616E+0	1.460118E+0	1.498706E+0	1.509541E+0	1.509894E+0	1.554714E+0	1.513697E+0	1.478393E+0	1.504139E+0	1.576891E+0	1.530727E+0	1.523977E+0	1.484403E+0	1.501003E+0	1.497577E+0	1.455387E+0	1.485269E+0	1.475764E+0	1.550382E+0	1.528149E+0	1.471653E+0	1.549620E+0	1.511676E+0	1.473032E+0	1.456971E+0	1.464541E+0	1.473960E+0	1.478035E+0	1.535241E+0	1.469619E+0	1.461932E+0	1.476017E+0	1.464387E+0	1.530160E+0	1.467605E+0	1.468548E+0	1.490709E+0	1.518160E+0	1.482200E+0	1.456096E+0	1.501336E+0	1.595260E+0	1.410688E+0	1.452964E+0	1.437679E+0	1.497831E+0	1.490356E+0	1.429303E+0	1.507823E+0	1.492749E+0	1.471041E+0	1.506699E+0	1.477632E+0	1.514993E+0	1.471408E+0	1.451954E+0	1.487174E+0	1.509212E+0	1.454886E+0	1.418966E+0	1.431795E+0	1.486802E+0	1.450860E+0	1.518019E+0	1.485774E+0	1.465861E+0	1.517854E+0	1.517939E+0	1.561624E+0	1.467559E+0	1.531670E+0	1.484964E+0	1.509243E+0	1.506411E+0
5.392930E+2	1.795535E+0	1.707139E+0	1.699017E+0	1.727349E+0	1.695109E+0	1.605565E+0	1.685108E+0	1.632721E+0	1.698157E+0	1.737278E+0	1.715073E+0	1.701847E+0	1.644685E+0	1.755112E+0	1.710506E+0	1.692755E+0	1.703916E+0	1.712304E+0	1.704037E+0	1.703826E+0	1.698910E+0	1.742537E+0	1.693967E+0	1.662008E+0	1.695914E+0	1.708820E+0	1.667487E+0	1.780965E+0	1.709303E+0	1.728414E+0	1.695022E+0	1.689342E+0	1.625320E+0	1.654569E+0	1.725856E+0	1.692775E+0	1.717889E+0	1.699314E+0	1.742069E+0	1.655893E+0	1.678215E+0	1.685168E+0	1.696920E+0	1.677333E+0	1.760265E+0	1.666108E+0	1.728296E+0	1.678261E+0	1.695054E+0	1.733817E+0	1.636972E+0	1.748756E+0	1.690576E+0	1.656142E+0	1.673614E+0	1.626351E+0	1.711079E+0	1.676546E+0	1.721352E+0	1.620556E+0	1.662864E+0	1.692660E+0	1.685511E+0	1.682540E+0	1.638569E+0	1.649875E+0	1.663549E+0	1.676762E+0	1.698066E+0	1.616490E+0	1.628810E+0	1.631530E+0	1.717147E+0	1.694424E+0	1.666707E+0	1.709458E+0	1.716170E+0	1.714598E+0	1.688750E+0	1.692370E+0	1.592942E+0	1.689591E+0	1.642876E+0	1.780407E+0	1.648522E+0	1.666746E+0	1.714361E+0	1.673068E+0	1.638433E+0	1.673318E+0	1.667852E+0	1.639196E+0	1.640406E+0	1.690149E+0	1.630968E+0	1.706524E+0	1.669339E+0	1.639445E+0	1.697262E+0	1.704403E+0	1.639157E+0	1.681382E+0	1.606825E+0	1.698071E+0	1.621969E+0	1.649705E+0	1.710905E+0	1.716815E+0	1.594835E+0	1.693244E+0	1.661708E+0	1.640107E+0	1.662804E+0	1.666956E+0	1.636348E+0	1.680924E+0	1.738176E+0	1.699896E+0	1.693786E+0	1.682672E+0	1.616930E+0	1.638987E+0	1.542873E+0	1.690045E+0	1.697837E+0	1.602999E+0	1.624624E+0	1.661004E+0	1.663263E+0	1.717413E+0	1.632348E+0	1.692082E+0	1.655056E+0	1.686683E+0	1.615352E+0	1.642143E+0	1.715565E+0	1.756848E+0	1.639025E+0	1.688404E+0	1.618009E+0	1.682847E+0	1.614900E+0	1.603745E+0	1.600471E+0	1.652451E+0	1.652963E+0	1.618565E+0	1.625447E+0	1.661979E+0	1.592137E+0	1.721236E+0	1.692843E+0	1.653880E+0	1.632170E+0	1.659224E+0	1.724561E+0	1.670289E+0	1.725135E+0	1.692549E+0	1.631624E+0	1.700009E+0	1.644234E+0	1.649008E+0	1.676138E+0	1.609818E+0	1.644219E+0	1.624851E+0	1.585270E+0	1.570150E+0
5.395210E+2	1.765550E+0	1.665816E+0	1.757712E+0	1.739377E+0	1.756783E+0	1.678409E+0	1.671926E+0	1.661616E+0	1.755457E+0	1.764781E+0	1.713238E+0	1.710955E+0	1.752400E+0	1.789101E+0	1.734770E+0	1.696257E+0	1.752866E+0	1.755971E+0	1.804996E+0	1.760544E+0	1.806011E+0	1.668776E+0	1.764477E+0	1.695627E+0	1.713602E+0	1.744972E+0	1.733427E+0	1.856406E+0	1.761255E+0	1.685511E+0	1.759149E+0	1.691763E+0	1.713885E+0	1.731913E+0	1.756221E+0	1.784980E+0	1.774489E+0	1.718992E+0	1.767321E+0	1.683523E+0	1.701651E+0	1.766929E+0	1.698224E+0	1.753255E+0	1.732709E+0	1.806455E+0	1.755819E+0	1.708628E+0	1.645203E+0	1.770024E+0	1.723721E+0	1.741965E+0	1.700165E+0	1.746704E+0	1.738288E+0	1.680773E+0	1.753034E+0	1.733527E+0	1.770268E+0	1.746837E+0	1.722027E+0	1.750187E+0	1.718642E+0	1.794772E+0	1.697216E+0	1.740893E+0	1.719558E+0	1.740915E+0	1.729857E+0	1.701873E+0	1.796706E+0	1.722467E+0	1.708432E+0	1.740032E+0	1.696207E+0	1.676642E+0	1.697679E+0	1.753707E+0	1.749797E+0	1.685330E+0	1.711631E+0	1.726614E+0	1.756066E+0	1.743575E+0	1.693496E+0	1.624214E+0	1.701719E+0	1.697439E+0	1.693093E+0	1.682538E+0	1.672034E+0	1.705331E+0	1.720605E+0	1.749404E+0	1.707923E+0	1.681238E+0	1.716900E+0	1.701385E+0	1.758413E+0	1.706988E+0	1.725492E+0	1.711695E+0	1.706023E+0	1.738027E+0	1.676642E+0	1.709373E+0	1.705292E+0	1.781012E+0	1.653993E+0	1.766744E+0	1.669886E+0	1.716958E+0	1.697208E+0	1.748522E+0	1.670878E+0	1.718843E+0	1.703723E+0	1.685703E+0	1.734477E+0	1.676568E+0	1.715396E+0	1.705523E+0	1.623529E+0	1.758021E+0	1.717983E+0	1.719557E+0	1.632897E+0	1.710720E+0	1.721041E+0	1.675985E+0	1.739502E+0	1.575526E+0	1.663377E+0	1.740782E+0	1.691576E+0	1.618491E+0	1.675580E+0	1.798391E+0	1.653057E+0	1.700180E+0	1.714215E+0	1.755803E+0	1.691869E+0	1.701671E+0	1.678523E+0	1.721964E+0	1.657392E+0	1.699671E+0	1.658488E+0	1.776307E+0	1.627218E+0	1.692309E+0	1.689126E+0	1.710142E+0	1.764638E+0	1.683069E+0	1.676682E+0	1.630027E+0	1.676414E+0	1.710348E+0	1.683468E+0	1.750173E+0	1.708713E+0	1.683819E+0	1.652063E+0	1.596647E+0	1.692600E+0	1.683244E+0	1.656872E+0	1.573044E+0
5.397650E+2	2.047610E+0	2.037807E+0	2.015801E+0	1.980630E+0	2.013280E+0	1.894512E+0	1.897336E+0	1.888316E+0	2.016235E+0	1.899816E+0	1.964964E+0	1.914687E+0	1.918233E+0	1.917694E+0	1.931293E+0	1.965180E+0	1.897983E+0	1.964260E+0	1.986393E+0	1.893958E+0	1.982960E+0	1.921224E+0	1.931427E+0	2.010635E+0	2.076619E+0	1.919629E+0	1.997946E+0	2.019252E+0	1.938679E+0	1.974990E+0	1.957460E+0	1.981266E+0	1.980904E+0	1.898509E+0	2.019496E+0	1.975331E+0	1.975411E+0	1.949201E+0	1.944591E+0	1.936883E+0	1.930808E+0	1.884980E+0	1.948661E+0	1.942847E+0	1.875780E+0	1.964706E+0	1.954527E+0	1.940883E+0	1.941175E+0	2.036594E+0	1.943705E+0	1.986808E+0	1.953095E+0	2.018614E+0	1.912589E+0	1.894283E+0	2.008884E+0	1.919991E+0	1.954358E+0	1.917420E+0	1.947178E+0	1.972002E+0	2.014111E+0	1.921243E+0	1.863926E+0	1.943966E+0	1.893792E+0	2.025216E+0	1.893760E+0	1.882975E+0	1.950921E+0	1.902921E+0	1.907812E+0	2.000709E+0	1.893965E+0	1.933591E+0	1.951602E+0	2.031194E+0	1.926060E+0	1.917148E+0	1.883004E+0	1.940810E+0	1.932792E+0	1.919719E+0	1.862634E+0	1.879025E+0	1.894716E+0	1.854817E+0	1.896471E+0	1.927622E+0	1.906484E+0	1.888205E+0	1.924357E+0	1.955762E+0	1.871194E+0	1.889242E+0	1.928140E+0	1.881128E+0	1.909371E+0	1.908151E+0	1.894034E+0	1.911307E+0	1.921850E+0	1.897134E+0	1.880312E+0	1.880657E+0	1.941504E+0	1.873218E+0	1.953679E+0	1.920664E+0	1.823658E+0	1.884846E+0	1.891984E+0	1.906063E+0	1.936963E+0	1.906133E+0	1.895097E+0	1.855953E+0	1.917949E+0	1.885774E+0	1.899403E+0	1.907826E+0	1.875092E+0	1.934713E+0	1.954669E+0	1.897259E+0	1.883128E+0	1.942609E+0	1.879673E+0	1.909485E+0	1.884862E+0	1.907914E+0	1.862100E+0	1.981767E+0	1.930591E+0	1.860295E+0	1.891941E+0	2.008028E+0	1.879650E+0	1.804615E+0	1.858259E+0	1.897364E+0	1.905773E+0	1.950550E+0	1.920685E+0	1.902114E+0	1.842970E+0	1.866703E+0	1.889606E+0	1.858488E+0	1.853061E+0	1.883964E+0	1.986515E+0	1.867650E+0	1.887898E+0	1.863659E+0	1.902704E+0	1.922395E+0	1.941249E+0	1.821544E+0	1.925054E+0	1.897189E+0	1.941185E+0	1.863797E+0	1.958810E+0	1.890343E+0	1.854849E+0	1.891520E+0	1.857922E+0	1.888960E+0
5.400190E+2	2.005742E+0	1.953389E+0	1.911599E+0	1.972349E+0	2.063715E+0	1.862054E+0	1.934843E+0	1.911760E+0	2.000941E+0	2.002365E+0	2.002393E+0	1.878711E+0	1.922795E+0	1.981425E+0	1.950831E+0	1.924220E+0	1.872181E+0	1.910570E+0	1.910015E+0	1.982042E+0	1.940657E+0	1.915383E+0	1.900869E+0	1.954224E+0	1.937832E+0	1.996117E+0	1.976998E+0	1.946973E+0	1.959263E+0	1.883807E+0	1.916091E+0	1.893618E+0	1.900478E+0	1.926926E+0	1.942731E+0	1.961766E+0	1.906615E+0	1.931319E+0	1.994606E+0	1.928637E+0	1.902873E+0	1.892420E+0	1.931853E+0	1.930234E+0	1.888013E+0	1.944927E+0	1.985762E+0	1.862876E+0	1.912739E+0	1.924401E+0	1.923409E+0	1.990024E+0	1.910509E+0	1.942072E+0	1.916764E+0	1.846626E+0	1.950591E+0	1.870460E+0	1.899254E+0	1.796118E+0	1.869397E+0	2.018892E+0	1.906217E+0	1.942085E+0	1.894160E+0	1.935893E+0	1.866003E+0	1.919364E+0	1.830803E+0	1.865869E+0	1.950319E+0	1.929556E+0	1.896867E+0	1.959412E+0	1.894589E+0	1.898727E+0	1.881510E+0	1.965741E+0	1.910111E+0	1.887517E+0	1.862541E+0	1.866517E+0	1.934468E+0	1.920330E+0	1.848065E+0	1.947114E+0	1.853229E+0	1.919142E+0	1.861007E+0	1.965543E+0	1.890517E+0	1.831621E+0	1.908550E+0	1.938009E+0	1.919359E+0	1.945627E+0	1.828376E+0	1.911242E+0	1.939341E+0	1.886177E+0	1.888897E+0	1.919345E+0	1.902260E+0	1.848410E+0	1.848637E+0	1.891190E+0	1.867185E+0	1.946169E+0	1.895989E+0	1.983928E+0	1.888866E+0	1.831040E+0	1.829873E+0	1.879144E+0	1.929047E+0	1.943288E+0	1.898176E+0	1.875107E+0	1.956032E+0	1.997073E+0	1.843750E+0	1.858975E+0	1.872703E+0	1.943487E+0	1.868145E+0	1.879898E+0	1.846873E+0	1.882849E+0	1.856911E+0	1.905899E+0	1.906609E+0	1.893722E+0	1.839935E+0	1.864264E+0	1.790866E+0	1.857864E+0	1.860942E+0	1.838414E+0	1.940331E+0	1.868819E+0	1.862597E+0	1.883937E+0	1.950688E+0	1.894669E+0	1.886412E+0	1.887735E+0	1.852646E+0	1.913473E+0	1.852940E+0	1.917267E+0	1.830170E+0	1.812563E+0	1.868381E+0	1.864221E+0	1.807851E+0	1.836326E+0	1.821866E+0	1.816816E+0	1.907831E+0	1.858752E+0	1.769536E+0	1.842849E+0	1.853278E+0	1.845912E+0	1.883156E+0	1.775902E+0	1.882832E+0	1.866037E+0	1.828463E+0	1.968586E+0
5.402740E+2	1.910212E+0	1.794106E+0	1.850648E+0	1.898844E+0	1.893796E+0	1.779386E+0	1.839151E+0	1.817028E+0	1.837864E+0	1.885731E+0	1.881976E+0	1.873532E+0	1.773365E+0	1.809117E+0	1.861103E+0	1.828078E+0	1.871018E+0	1.879168E+0	1.835924E+0	1.927147E+0	1.808437E+0	1.844264E+0	1.844481E+0	1.843051E+0	1.799907E+0	1.865557E+0	1.880834E+0	1.869542E+0	1.825246E+0	1.871248E+0	1.848602E+0	1.812123E+0	1.826589E+0	1.766531E+0	1.837892E+0	1.834741E+0	1.836957E+0	1.823291E+0	1.777929E+0	1.775438E+0	1.816101E+0	1.769843E+0	1.830395E+0	1.837855E+0	1.817105E+0	1.844734E+0	1.814400E+0	1.822156E+0	1.818354E+0	1.912486E+0	1.789549E+0	1.840405E+0	1.882660E+0	1.852015E+0	1.812267E+0	1.810738E+0	1.876918E+0	1.787720E+0	1.847845E+0	1.751295E+0	1.801377E+0	1.892203E+0	1.802440E+0	1.852643E+0	1.779134E+0	1.852231E+0	1.790507E+0	1.842498E+0	1.767593E+0	1.745817E+0	1.758948E+0	1.799946E+0	1.823799E+0	1.783890E+0	1.880861E+0	1.788015E+0	1.841717E+0	1.839721E+0	1.826791E+0	1.752574E+0	1.753843E+0	1.865902E+0	1.810190E+0	1.887970E+0	1.728629E+0	1.734929E+0	1.781013E+0	1.748626E+0	1.755000E+0	1.799907E+0	1.791486E+0	1.768480E+0	1.836783E+0	1.813192E+0	1.740299E+0	1.776653E+0	1.756210E+0	1.816855E+0	1.855626E+0	1.830856E+0	1.726095E+0	1.816367E+0	1.761066E+0	1.813344E+0	1.748321E+0	1.737757E+0	1.835487E+0	1.835284E+0	1.769748E+0	1.814711E+0	1.776676E+0	1.794031E+0	1.808457E+0	1.804180E+0	1.771324E+0	1.775736E+0	1.800103E+0	1.783172E+0	1.773041E+0	1.775911E+0	1.850029E+0	1.760562E+0	1.717045E+0	1.842752E+0	1.771206E+0	1.755476E+0	1.769036E+0	1.744268E+0	1.785815E+0	1.790272E+0	1.789779E+0	1.686662E+0	1.762349E+0	1.803967E+0	1.799737E+0	1.815316E+0	1.793579E+0	1.824269E+0	1.770068E+0	1.733908E+0	1.745068E+0	1.824155E+0	1.804709E+0	1.800194E+0	1.810259E+0	1.734279E+0	1.776283E+0	1.770713E+0	1.810652E+0	1.747880E+0	1.735661E+0	1.752058E+0	1.843429E+0	1.768104E+0	1.775932E+0	1.761777E+0	1.777263E+0	1.782523E+0	1.796650E+0	1.760108E+0	1.808049E+0	1.771308E+0	1.841912E+0	1.764008E+0	1.794892E+0	1.815696E+0	1.729954E+0	1.767367E+0	1.743767E+0	1.736061E+0
5.405130E+2	1.834039E+0	1.817667E+0	1.818539E+0	1.711956E+0	1.841249E+0	1.692302E+0	1.660904E+0	1.745942E+0	1.789898E+0	1.833868E+0	1.757466E+0	1.820213E+0	1.776414E+0	1.762661E+0	1.788694E+0	1.714412E+0	1.804308E+0	1.814467E+0	1.806265E+0	1.916078E+0	1.820253E+0	1.748189E+0	1.778724E+0	1.860837E+0	1.815453E+0	1.784508E+0	1.754035E+0	1.839002E+0	1.786605E+0	1.838477E+0	1.750757E+0	1.781623E+0	1.775236E+0	1.743619E+0	1.760149E+0	1.743484E+0	1.720657E+0	1.771215E+0	1.785822E+0	1.842689E+0	1.799410E+0	1.714231E+0	1.704071E+0	1.691014E+0	1.789929E+0	1.770427E+0	1.840663E+0	1.737727E+0	1.724289E+0	1.879877E+0	1.730110E+0	1.819742E+0	1.741742E+0	1.742995E+0	1.678587E+0	1.705260E+0	1.825255E+0	1.774850E+0	1.760341E+0	1.691048E+0	1.788949E+0	1.806525E+0	1.756056E+0	1.694912E+0	1.703703E+0	1.815865E+0	1.806780E+0	1.792271E+0	1.731030E+0	1.755138E+0	1.767672E+0	1.729628E+0	1.762739E+0	1.714889E+0	1.763808E+0	1.771969E+0	1.750319E+0	1.846449E+0	1.803388E+0	1.681652E+0	1.770557E+0	1.804596E+0	1.759085E+0	1.842610E+0	1.755769E+0	1.786706E+0	1.788700E+0	1.820955E+0	1.652099E+0	1.773441E+0	1.771149E+0	1.676312E+0	1.713617E+0	1.771691E+0	1.764079E+0	1.812471E+0	1.707606E+0	1.842165E+0	1.817365E+0	1.724164E+0	1.748466E+0	1.776296E+0	1.724237E+0	1.698554E+0	1.766503E+0	1.753965E+0	1.726583E+0	1.768587E+0	1.721664E+0	1.776408E+0	1.750572E+0	1.711880E+0	1.673978E+0	1.733487E+0	1.764831E+0	1.764911E+0	1.779885E+0	1.675753E+0	1.798930E+0	1.827810E+0	1.687807E+0	1.654855E+0	1.700770E+0	1.766723E+0	1.768822E+0	1.712449E+0	1.717139E+0	1.723785E+0	1.663357E+0	1.764541E+0	1.763890E+0	1.766723E+0	1.671578E+0	1.721618E+0	1.714708E+0	1.750245E+0	1.761766E+0	1.861895E+0	1.705704E+0	1.740806E+0	1.779449E+0	1.822810E+0	1.728423E+0	1.700719E+0	1.710283E+0	1.767444E+0	1.698423E+0	1.699171E+0	1.764344E+0	1.777105E+0	1.699062E+0	1.722784E+0	1.767721E+0	1.794942E+0	1.735382E+0	1.687444E+0	1.727350E+0	1.757093E+0	1.718533E+0	1.747241E+0	1.751096E+0	1.744584E+0	1.735107E+0	1.702631E+0	1.704857E+0	1.696182E+0	1.677570E+0	1.706721E+0	1.711822E+0	1.737907E+0
5.407680E+2	1.813445E+0	1.699551E+0	1.715931E+0	1.692398E+0	1.750726E+0	1.721658E+0	1.692325E+0	1.724592E+0	1.731918E+0	1.712371E+0	1.726286E+0	1.688593E+0	1.682681E+0	1.651993E+0	1.747701E+0	1.716631E+0	1.704152E+0	1.767345E+0	1.699398E+0	1.806408E+0	1.790015E+0	1.659776E+0	1.703787E+0	1.751471E+0	1.702062E+0	1.713226E+0	1.736912E+0	1.748852E+0	1.703131E+0	1.698592E+0	1.674169E+0	1.669068E+0	1.648375E+0	1.668802E+0	1.764843E+0	1.737876E+0	1.741708E+0	1.710785E+0	1.699195E+0	1.736489E+0	1.644674E+0	1.709968E+0	1.688517E+0	1.678101E+0	1.719087E+0	1.760795E+0	1.735243E+0	1.726223E+0	1.667691E+0	1.752140E+0	1.627490E+0	1.698047E+0	1.712404E+0	1.748967E+0	1.690599E+0	1.651118E+0	1.734345E+0	1.731949E+0	1.698176E+0	1.678393E+0	1.755000E+0	1.737609E+0	1.704168E+0	1.712304E+0	1.644660E+0	1.714615E+0	1.770458E+0	1.752612E+0	1.647167E+0	1.631807E+0	1.671937E+0	1.702056E+0	1.639719E+0	1.707117E+0	1.692350E+0	1.721825E+0	1.666165E+0	1.723947E+0	1.676768E+0	1.665535E+0	1.657425E+0	1.707489E+0	1.725041E+0	1.681054E+0	1.689114E+0	1.738478E+0	1.701596E+0	1.748979E+0	1.711690E+0	1.737985E+0	1.646356E+0	1.661032E+0	1.714211E+0	1.633859E+0	1.704919E+0	1.652644E+0	1.690557E+0	1.692125E+0	1.628893E+0	1.624328E+0	1.694326E+0	1.614523E+0	1.685027E+0	1.700453E+0	1.721253E+0	1.689412E+0	1.670398E+0	1.727790E+0	1.711120E+0	1.758894E+0	1.701573E+0	1.622348E+0	1.611813E+0	1.681109E+0	1.657532E+0	1.715522E+0	1.698634E+0	1.729661E+0	1.671990E+0	1.697979E+0	1.676165E+0	1.642582E+0	1.632078E+0	1.722736E+0	1.691391E+0	1.747084E+0	1.672683E+0	1.659046E+0	1.665497E+0	1.676540E+0	1.673858E+0	1.613236E+0	1.617499E+0	1.677605E+0	1.696727E+0	1.643440E+0	1.727211E+0	1.677901E+0	1.576391E+0	1.618137E+0	1.645731E+0	1.680234E+0	1.665683E+0	1.670502E+0	1.675635E+0	1.675173E+0	1.645048E+0	1.619204E+0	1.651856E+0	1.658423E+0	1.627461E+0	1.683674E+0	1.694098E+0	1.673292E+0	1.683168E+0	1.669216E+0	1.604442E+0	1.728911E+0	1.648813E+0	1.698430E+0	1.726133E+0	1.714950E+0	1.638852E+0	1.640310E+0	1.657734E+0	1.678509E+0	1.677992E+0	1.689696E+0	1.582153E+0	1.640940E+0
5.410190E+2	1.655645E+0	1.575286E+0	1.587142E+0	1.683612E+0	1.639314E+0	1.600147E+0	1.607157E+0	1.583814E+0	1.702728E+0	1.570328E+0	1.647520E+0	1.650353E+0	1.588837E+0	1.538680E+0	1.604821E+0	1.597413E+0	1.539440E+0	1.560824E+0	1.627809E+0	1.568402E+0	1.596887E+0	1.586118E+0	1.650709E+0	1.567644E+0	1.609829E+0	1.674320E+0	1.611519E+0	1.652532E+0	1.602901E+0	1.571558E+0	1.542091E+0	1.654884E+0	1.605517E+0	1.600437E+0	1.559046E+0	1.560429E+0	1.599899E+0	1.560707E+0	1.590078E+0	1.545873E+0	1.567736E+0	1.607859E+0	1.609077E+0	1.569736E+0	1.591142E+0	1.677192E+0	1.580141E+0	1.576011E+0	1.600624E+0	1.647220E+0	1.563443E+0	1.557534E+0	1.623961E+0	1.633793E+0	1.596174E+0	1.540454E+0	1.605318E+0	1.586424E+0	1.621282E+0	1.513669E+0	1.603634E+0	1.656830E+0	1.554621E+0	1.570880E+0	1.558953E+0	1.623198E+0	1.554879E+0	1.614039E+0	1.582291E+0	1.535996E+0	1.643392E+0	1.623560E+0	1.573634E+0	1.633685E+0	1.627185E+0	1.599389E+0	1.582451E+0	1.554705E+0	1.653808E+0	1.536853E+0	1.593131E+0	1.602721E+0	1.595694E+0	1.669874E+0	1.555043E+0	1.585252E+0	1.583061E+0	1.529273E+0	1.560256E+0	1.541863E+0	1.569492E+0	1.556470E+0	1.581021E+0	1.570162E+0	1.575980E+0	1.546980E+0	1.544222E+0	1.604436E+0	1.560002E+0	1.608101E+0	1.609999E+0	1.649625E+0	1.632060E+0	1.610019E+0	1.577710E+0	1.562074E+0	1.602263E+0	1.530212E+0	1.576513E+0	1.561242E+0	1.572984E+0	1.537108E+0	1.542629E+0	1.601575E+0	1.610891E+0	1.619635E+0	1.576745E+0	1.547250E+0	1.639973E+0	1.601582E+0	1.535374E+0	1.515796E+0	1.589902E+0	1.552363E+0	1.533936E+0	1.535505E+0	1.576500E+0	1.545753E+0	1.503943E+0	1.610722E+0	1.619630E+0	1.572244E+0	1.559093E+0	1.605953E+0	1.553979E+0	1.568832E+0	1.604316E+0	1.624414E+0	1.596308E+0	1.572027E+0	1.561905E+0	1.644701E+0	1.565689E+0	1.541856E+0	1.573514E+0	1.532597E+0	1.556351E+0	1.521186E+0	1.554087E+0	1.604814E+0	1.494617E+0	1.569966E+0	1.592640E+0	1.601029E+0	1.552774E+0	1.541466E+0	1.545764E+0	1.645748E+0	1.646504E+0	1.553260E+0	1.543928E+0	1.583832E+0	1.628700E+0	1.486973E+0	1.588064E+0	1.511191E+0	1.560649E+0	1.565212E+0	1.548963E+0	1.537176E+0
5.412580E+2	1.597712E+0	1.554252E+0	1.572381E+0	1.522507E+0	1.594264E+0	1.542095E+0	1.495604E+0	1.496728E+0	1.509680E+0	1.513381E+0	1.528446E+0	1.519652E+0	1.477981E+0	1.502055E+0	1.570308E+0	1.571151E+0	1.524081E+0	1.521904E+0	1.540378E+0	1.544224E+0	1.576423E+0	1.476807E+0	1.551987E+0	1.493066E+0	1.557974E+0	1.490992E+0	1.562105E+0	1.571175E+0	1.559015E+0	1.544811E+0	1.533512E+0	1.527997E+0	1.551744E+0	1.563603E+0	1.553729E+0	1.570049E+0	1.519587E+0	1.524703E+0	1.600623E+0	1.517529E+0	1.507820E+0	1.495408E+0	1.502735E+0	1.469240E+0	1.526269E+0	1.540015E+0	1.584189E+0	1.498984E+0	1.548848E+0	1.589080E+0	1.570479E+0	1.560554E+0	1.558071E+0	1.502113E+0	1.501199E+0	1.525175E+0	1.571435E+0	1.536280E+0	1.527140E+0	1.496027E+0	1.490227E+0	1.531074E+0	1.492426E+0	1.495150E+0	1.425386E+0	1.599535E+0	1.511742E+0	1.539496E+0	1.538846E+0	1.464055E+0	1.604233E+0	1.545523E+0	1.529681E+0	1.480729E+0	1.545998E+0	1.544429E+0	1.530161E+0	1.589503E+0	1.560922E+0	1.440977E+0	1.522366E+0	1.488648E+0	1.500736E+0	1.587131E+0	1.591167E+0	1.548724E+0	1.580208E+0	1.538733E+0	1.493031E+0	1.524428E+0	1.525921E+0	1.522487E+0	1.506971E+0	1.554906E+0	1.555102E+0	1.581282E+0	1.507407E+0	1.538459E+0	1.572158E+0	1.491050E+0	1.517019E+0	1.567804E+0	1.506279E+0	1.533011E+0	1.512295E+0	1.409705E+0	1.525520E+0	1.576664E+0	1.542431E+0	1.581858E+0	1.520840E+0	1.561577E+0	1.447677E+0	1.520344E+0	1.557000E+0	1.543004E+0	1.528977E+0	1.588046E+0	1.514823E+0	1.569985E+0	1.529654E+0	1.466298E+0	1.446197E+0	1.580459E+0	1.523016E+0	1.505456E+0	1.505036E+0	1.479193E+0	1.515116E+0	1.500242E+0	1.569487E+0	1.549647E+0	1.546530E+0	1.515834E+0	1.540421E+0	1.480075E+0	1.520445E+0	1.519489E+0	1.561590E+0	1.501218E+0	1.553757E+0	1.572765E+0	1.547887E+0	1.467338E+0	1.544303E+0	1.511948E+0	1.492160E+0	1.475608E+0	1.570368E+0	1.503251E+0	1.494839E+0	1.566097E+0	1.481811E+0	1.537751E+0	1.493025E+0	1.542801E+0	1.529059E+0	1.546195E+0	1.523472E+0	1.548669E+0	1.498925E+0	1.502488E+0	1.594528E+0	1.520525E+0	1.509620E+0	1.497277E+0	1.537335E+0	1.533764E+0	1.458891E+0	1.526447E+0
5.415190E+2	1.455852E+0	1.413908E+0	1.423627E+0	1.398989E+0	1.458478E+0	1.414506E+0	1.371237E+0	1.313918E+0	1.445630E+0	1.425062E+0	1.371842E+0	1.402881E+0	1.410524E+0	1.421216E+0	1.445658E+0	1.461302E+0	1.420013E+0	1.371845E+0	1.444914E+0	1.416480E+0	1.386541E+0	1.449079E+0	1.396880E+0	1.382150E+0	1.434366E+0	1.444973E+0	1.419986E+0	1.430435E+0	1.437468E+0	1.386640E+0	1.397779E+0	1.386242E+0	1.382890E+0	1.421481E+0	1.437129E+0	1.476360E+0	1.404236E+0	1.420925E+0	1.464678E+0	1.410683E+0	1.414511E+0	1.391602E+0	1.415356E+0	1.370148E+0	1.363452E+0	1.422433E+0	1.462603E+0	1.384526E+0	1.379097E+0	1.370708E+0	1.417683E+0	1.477028E+0	1.409233E+0	1.380892E+0	1.448741E+0	1.429444E+0	1.473925E+0	1.403071E+0	1.387834E+0	1.372679E+0	1.407122E+0	1.435068E+0	1.404687E+0	1.404917E+0	1.378607E+0	1.444824E+0	1.369490E+0	1.403319E+0	1.417123E+0	1.357649E+0	1.432828E+0	1.359772E+0	1.418305E+0	1.415879E+0	1.434053E+0	1.448461E+0	1.364921E+0	1.489198E+0	1.450154E+0	1.377389E+0	1.325106E+0	1.403078E+0	1.456586E+0	1.454633E+0	1.414838E+0	1.333043E+0	1.398002E+0	1.458348E+0	1.382167E+0	1.395874E+0	1.417824E+0	1.366838E+0	1.372044E+0	1.454149E+0	1.385358E+0	1.404654E+0	1.365731E+0	1.441059E+0	1.415826E+0	1.384742E+0	1.396918E+0	1.382401E+0	1.377379E+0	1.377082E+0	1.381245E+0	1.379643E+0	1.393488E+0	1.442717E+0	1.399424E+0	1.390427E+0	1.408773E+0	1.386657E+0	1.381360E+0	1.442260E+0	1.456513E+0	1.408146E+0	1.409449E+0	1.352529E+0	1.415078E+0	1.437044E+0	1.396635E+0	1.342403E+0	1.327495E+0	1.486146E+0	1.365629E+0	1.388794E+0	1.390014E+0	1.400185E+0	1.343719E+0	1.405122E+0	1.396223E+0	1.442841E+0	1.405313E+0	1.413775E+0	1.397686E+0	1.318963E+0	1.410954E+0	1.437491E+0	1.375093E+0	1.377551E+0	1.395624E+0	1.423363E+0	1.433866E+0	1.346539E+0	1.407471E+0	1.402342E+0	1.443265E+0	1.365472E+0	1.418219E+0	1.357958E+0	1.356157E+0	1.381354E+0	1.454700E+0	1.326979E+0	1.410556E+0	1.430096E+0	1.351946E+0	1.409827E+0	1.449136E+0	1.382280E+0	1.387334E+0	1.356880E+0	1.389549E+0	1.354583E+0	1.421509E+0	1.373304E+0	1.388835E+0	1.387971E+0	1.357197E+0	1.373833E+0
5.417600E+2	1.348652E+0	1.289276E+0	1.317103E+0	1.338340E+0	1.368506E+0	1.261362E+0	1.289140E+0	1.253606E+0	1.281444E+0	1.327880E+0	1.339300E+0	1.256951E+0	1.274468E+0	1.243289E+0	1.318147E+0	1.302477E+0	1.268314E+0	1.323419E+0	1.331726E+0	1.348387E+0	1.292722E+0	1.281522E+0	1.308258E+0	1.272032E+0	1.290146E+0	1.314772E+0	1.298311E+0	1.377780E+0	1.299911E+0	1.249651E+0	1.272957E+0	1.327849E+0	1.331233E+0	1.288757E+0	1.344766E+0	1.308133E+0	1.267472E+0	1.340729E+0	1.366624E+0	1.326792E+0	1.255162E+0	1.290527E+0	1.289486E+0	1.302538E+0	1.320983E+0	1.332837E+0	1.372150E+0	1.315095E+0	1.283940E+0	1.293139E+0	1.324092E+0	1.319630E+0	1.306695E+0	1.334133E+0	1.325910E+0	1.317070E+0	1.258707E+0	1.316271E+0	1.275529E+0	1.322066E+0	1.257147E+0	1.295566E+0	1.331062E+0	1.323231E+0	1.292027E+0	1.310154E+0	1.332623E+0	1.258015E+0	1.258813E+0	1.262542E+0	1.267639E+0	1.314649E+0	1.277796E+0	1.277157E+0	1.277795E+0	1.292080E+0	1.312409E+0	1.290253E+0	1.342070E+0	1.300510E+0	1.273465E+0	1.322505E+0	1.333851E+0	1.343664E+0	1.310819E+0	1.340697E+0	1.345558E+0	1.315339E+0	1.290913E+0	1.329740E+0	1.318146E+0	1.291795E+0	1.341865E+0	1.356567E+0	1.268296E+0	1.321023E+0	1.377021E+0	1.317689E+0	1.245983E+0	1.299095E+0	1.346341E+0	1.255843E+0	1.318211E+0	1.303622E+0	1.342347E+0	1.295550E+0	1.310663E+0	1.348104E+0	1.326335E+0	1.386813E+0	1.304438E+0	1.281136E+0	1.274043E+0	1.315984E+0	1.348111E+0	1.370097E+0	1.293190E+0	1.305979E+0	1.298374E+0	1.297376E+0	1.280436E+0	1.308954E+0	1.301986E+0	1.296357E+0	1.323068E+0	1.347568E+0	1.326019E+0	1.282474E+0	1.321225E+0	1.388884E+0	1.260299E+0	1.278033E+0	1.315875E+0	1.339936E+0	1.310677E+0	1.282999E+0	1.255704E+0	1.360012E+0	1.301126E+0	1.267816E+0	1.302594E+0	1.391084E+0	1.298590E+0	1.286672E+0	1.269858E+0	1.313978E+0	1.326071E+0	1.327269E+0	1.264014E+0	1.292225E+0	1.213383E+0	1.266829E+0	1.304715E+0	1.256332E+0	1.281523E+0	1.290271E+0	1.329359E+0	1.285643E+0	1.320878E+0	1.245366E+0	1.345653E+0	1.284495E+0	1.280966E+0	1.255592E+0	1.260421E+0	1.329256E+0	1.325327E+0	1.305501E+0	1.304506E+0	1.290964E+0
5.420050E+2	1.165984E+0	1.137519E+0	1.175718E+0	1.173898E+0	1.184669E+0	1.187426E+0	1.175754E+0	1.143698E+0	1.175536E+0	1.137448E+0	1.162414E+0	1.174349E+0	1.144778E+0	1.121234E+0	1.173896E+0	1.126455E+0	1.142668E+0	1.132756E+0	1.182579E+0	1.172083E+0	1.176915E+0	1.156644E+0	1.123693E+0	1.128496E+0	1.166315E+0	1.181750E+0	1.150883E+0	1.207226E+0	1.181257E+0	1.161603E+0	1.147595E+0	1.150658E+0	1.186846E+0	1.111045E+0	1.161880E+0	1.200535E+0	1.147482E+0	1.159157E+0	1.123853E+0	1.144634E+0	1.105059E+0	1.106410E+0	1.138245E+0	1.136976E+0	1.161117E+0	1.145846E+0	1.143936E+0	1.106729E+0	1.167848E+0	1.182280E+0	1.148442E+0	1.167519E+0	1.136199E+0	1.164111E+0	1.168453E+0	1.154518E+0	1.165067E+0	1.131790E+0	1.172130E+0	1.122612E+0	1.157064E+0	1.132030E+0	1.179531E+0	1.123714E+0	1.110619E+0	1.167204E+0	1.177977E+0	1.132691E+0	1.116024E+0	1.141213E+0	1.165893E+0	1.181626E+0	1.139583E+0	1.121666E+0	1.133193E+0	1.123893E+0	1.173815E+0	1.097245E+0	1.121746E+0	1.184576E+0	1.137473E+0	1.156560E+0	1.176567E+0	1.180604E+0	1.137775E+0	1.157506E+0	1.127590E+0	1.168122E+0	1.094887E+0	1.118743E+0	1.161938E+0	1.102928E+0	1.127582E+0	1.087158E+0	1.148997E+0	1.149764E+0	1.133350E+0	1.177572E+0	1.154772E+0	1.219960E+0	1.140522E+0	1.149234E+0	1.148150E+0	1.128088E+0	1.134001E+0	1.146234E+0	1.175927E+0	1.152759E+0	1.162455E+0	1.128130E+0	1.184986E+0	1.113903E+0	1.108393E+0	1.172462E+0	1.158954E+0	1.184756E+0	1.120290E+0	1.149804E+0	1.145397E+0	1.174962E+0	1.150879E+0	1.078380E+0	1.147622E+0	1.188381E+0	1.105190E+0	1.176296E+0	1.094340E+0	1.100622E+0	1.099412E+0	1.153104E+0	1.140168E+0	1.067985E+0	1.159365E+0	1.115741E+0	1.129208E+0	1.155132E+0	1.104365E+0	1.213164E+0	1.127388E+0	1.127251E+0	1.138102E+0	1.171210E+0	1.149779E+0	1.147307E+0	1.136809E+0	1.190149E+0	1.152705E+0	1.167082E+0	1.110219E+0	1.147993E+0	1.111014E+0	1.137379E+0	1.141933E+0	1.124567E+0	1.125380E+0	1.071808E+0	1.164613E+0	1.226136E+0	1.140742E+0	1.173705E+0	1.181353E+0	1.139850E+0	1.179120E+0	1.138503E+0	1.135945E+0	1.185681E+0	1.144655E+0	1.138007E+0	1.181652E+0	1.117812E+0
5.422730E+2	9.868027E-1	1.033867E+0	1.051952E+0	9.879833E-1	9.732784E-1	9.915792E-1	9.951255E-1	9.900785E-1	1.037145E+0	1.031887E+0	1.038312E+0	1.031369E+0	1.030340E+0	1.018435E+0	1.007301E+0	1.006318E+0	1.028361E+0	1.012481E+0	1.058326E+0	1.052033E+0	1.015321E+0	1.021285E+0	9.895723E-1	1.011353E+0	1.029125E+0	1.036850E+0	1.006478E+0	1.054165E+0	1.014518E+0	1.016211E+0	9.619224E-1	9.990871E-1	1.027587E+0	1.013489E+0	9.719405E-1	1.029468E+0	1.031205E+0	1.006927E+0	1.007577E+0	1.016232E+0	9.281489E-1	9.749093E-1	9.978711E-1	1.041530E+0	1.067855E+0	1.024959E+0	1.056627E+0	1.008494E+0	1.001763E+0	1.001977E+0	1.019461E+0	1.014799E+0	1.060241E+0	1.035558E+0	1.023532E+0	9.769530E-1	1.030462E+0	1.030372E+0	1.016155E+0	9.930037E-1	1.017542E+0	1.024219E+0	1.032422E+0	1.008826E+0	9.842802E-1	1.019516E+0	1.021626E+0	9.947598E-1	1.020633E+0	9.602466E-1	1.065600E+0	1.045858E+0	1.045478E+0	9.908677E-1	1.000148E+0	9.850339E-1	9.953132E-1	1.068067E+0	1.047805E+0	9.218732E-1	9.552127E-1	9.886771E-1	1.056618E+0	1.055803E+0	1.021069E+0	1.017964E+0	9.931152E-1	1.034854E+0	9.834759E-1	1.012498E+0	1.022668E+0	9.910113E-1	1.031868E+0	9.980259E-1	1.015396E+0	1.030168E+0	9.879377E-1	9.526405E-1	1.000926E+0	1.007183E+0	1.015555E+0	9.711758E-1	9.900896E-1	1.000853E+0	9.890009E-1	9.783633E-1	9.988909E-1	1.025638E+0	1.002186E+0	9.944429E-1	1.004067E+0	1.018655E+0	1.034202E+0	9.808504E-1	1.067486E+0	1.008125E+0	1.016307E+0	1.001351E+0	1.058797E+0	1.006615E+0	1.009032E+0	9.839474E-1	1.009591E+0	1.036152E+0	1.053847E+0	9.644352E-1	9.913126E-1	1.032354E+0	1.039652E+0	1.028314E+0	1.045676E+0	9.558090E-1	1.021852E+0	9.609623E-1	1.023075E+0	9.898525E-1	1.001437E+0	1.009445E+0	9.811312E-1	9.734665E-1	1.000784E+0	1.018051E+0	1.047320E+0	9.899844E-1	1.000033E+0	9.584944E-1	9.931511E-1	1.050722E+0	1.041231E+0	1.027921E+0	9.931587E-1	1.041848E+0	1.061928E+0	1.037509E+0	9.847010E-1	1.026041E+0	9.990003E-1	9.962947E-1	1.057388E+0	1.022805E+0	9.902295E-1	9.579121E-1	1.017585E+0	9.980163E-1	1.043232E+0	9.849186E-1	1.032482E+0	9.985164E-1	1.049680E+0	1.001667E+0
5.425460E+2	9.687164E-1	9.716738E-1	9.037014E-1	9.701932E-1	9.150096E-1	8.967095E-1	9.283591E-1	8.818094E-1	9.160117E-1	9.232055E-1	9.560307E-1	9.345745E-1	8.789809E-1	8.422340E-1	9.254347E-1	9.054431E-1	9.002504E-1	8.814307E-1	9.157214E-1	9.354919E-1	9.023621E-1	9.284340E-1	8.957520E-1	9.243164E-1	9.281864E-1	8.611109E-1	9.564531E-1	1.002863E+0	9.773002E-1	9.308893E-1	9.104691E-1	9.376045E-1	8.812429E-1	9.204301E-1	9.270815E-1	9.799332E-1	9.244132E-1	9.313902E-1	9.039386E-1	9.100386E-1	8.984227E-1	8.823303E-1	9.153503E-1	8.976917E-1	9.163840E-1	9.306740E-1	9.292313E-1	9.195028E-1	9.420160E-1	9.203550E-1	9.428206E-1	9.228816E-1	9.402146E-1	9.004589E-1	9.378754E-1	8.997840E-1	9.135560E-1	9.297177E-1	9.453275E-1	8.898043E-1	9.437145E-1	9.239079E-1	9.345800E-1	9.234362E-1	8.898341E-1	9.166704E-1	9.215020E-1	9.578759E-1	9.109537E-1	9.056984E-1	9.747666E-1	9.219436E-1	9.056271E-1	9.421275E-1	9.308033E-1	9.411548E-1	9.547794E-1	8.851674E-1	9.202314E-1	9.057759E-1	9.433720E-1	9.193126E-1	9.377940E-1	9.420268E-1	8.784431E-1	9.648906E-1	9.204809E-1	9.378997E-1	9.352635E-1	9.229309E-1	9.238809E-1	9.486560E-1	9.514617E-1	9.374732E-1	9.768504E-1	9.336945E-1	9.487304E-1	9.491130E-1	9.598023E-1	9.235095E-1	9.876431E-1	8.965852E-1	9.432462E-1	9.392003E-1	9.190713E-1	8.677151E-1	8.672267E-1	9.300001E-1	9.219921E-1	9.340235E-1	9.202978E-1	8.706194E-1	9.603580E-1	9.042114E-1	9.986994E-1	9.115736E-1	9.273762E-1	9.314919E-1	9.722670E-1	9.651954E-1	9.387500E-1	8.754478E-1	9.022942E-1	8.993477E-1	9.302589E-1	9.016405E-1	9.321708E-1	9.358936E-1	9.434590E-1	8.828124E-1	9.301435E-1	8.950852E-1	9.076776E-1	9.456930E-1	9.515354E-1	8.805287E-1	9.186922E-1	9.534266E-1	8.946717E-1	9.018680E-1	8.934254E-1	9.528790E-1	9.631727E-1	9.540729E-1	9.156186E-1	8.910605E-1	9.274623E-1	9.512927E-1	9.479232E-1	9.818865E-1	8.957650E-1	9.503195E-1	9.562187E-1	8.801521E-1	9.521977E-1	9.234465E-1	9.723381E-1	9.567562E-1	8.880004E-1	9.349741E-1	9.229823E-1	8.958936E-1	8.958714E-1	8.941055E-1	9.786080E-1	9.333550E-1	9.231944E-1	9.330301E-1	8.357844E-1	8.972237E-1
5.427600E+2	9.355782E-1	8.895082E-1	8.984762E-1	9.764622E-1	9.632234E-1	8.805987E-1	8.793697E-1	9.423948E-1	9.448623E-1	9.343262E-1	9.242904E-1	9.256110E-1	9.442919E-1	8.950873E-1	9.404306E-1	9.366366E-1	9.350274E-1	9.361026E-1	9.534227E-1	9.284218E-1	9.553137E-1	9.349448E-1	9.523545E-1	9.035300E-1	8.887223E-1	9.502918E-1	9.167205E-1	9.850260E-1	9.197700E-1	9.182789E-1	9.549633E-1	8.819812E-1	9.289591E-1	9.566582E-1	9.387673E-1	9.309556E-1	9.366068E-1	9.307264E-1	9.506057E-1	8.953687E-1	9.528677E-1	9.293896E-1	9.209440E-1	9.547392E-1	9.436698E-1	9.042630E-1	1.008729E+0	9.065809E-1	9.875021E-1	9.707009E-1	9.421478E-1	9.550141E-1	9.008567E-1	9.109106E-1	9.075175E-1	9.286930E-1	9.268177E-1	9.284528E-1	9.509194E-1	8.966771E-1	9.323628E-1	9.315843E-1	9.258388E-1	9.333720E-1	9.357578E-1	9.268946E-1	9.353138E-1	9.062219E-1	9.299935E-1	9.120169E-1	8.885064E-1	9.546670E-1	9.261027E-1	9.293659E-1	9.561083E-1	9.191164E-1	9.706457E-1	9.692870E-1	9.135288E-1	9.363168E-1	9.932295E-1	9.672482E-1	9.143752E-1	9.552398E-1	9.033691E-1	8.807102E-1	9.060385E-1	9.369041E-1	9.243894E-1	9.593677E-1	8.915185E-1	9.585942E-1	9.637663E-1	9.648454E-1	9.489753E-1	9.420542E-1	9.264973E-1	9.330020E-1	9.731570E-1	9.465249E-1	9.024428E-1	9.375838E-1	9.219647E-1	9.380765E-1	9.122374E-1	9.089057E-1	9.625924E-1	9.994746E-1	9.131073E-1	9.271183E-1	9.936194E-1	9.406924E-1	9.358049E-1	9.153563E-1	9.275793E-1	9.326948E-1	9.370108E-1	9.390694E-1	9.642044E-1	9.249628E-1	9.153731E-1	8.721285E-1	9.244663E-1	9.915165E-1	9.440586E-1	9.286977E-1	9.355111E-1	9.220566E-1	8.755411E-1	9.392778E-1	9.130195E-1	9.163046E-1	9.488678E-1	9.264739E-1	9.293351E-1	8.679130E-1	9.492032E-1	9.296598E-1	9.319146E-1	9.012075E-1	9.195432E-1	9.246840E-1	9.754918E-1	9.248309E-1	9.410343E-1	9.453101E-1	9.112604E-1	9.193238E-1	9.423067E-1	9.703936E-1	9.179605E-1	9.424944E-1	9.239025E-1	1.013031E+0	9.123994E-1	9.593140E-1	9.137660E-1	9.326818E-1	9.663267E-1	9.269801E-1	9.434369E-1	9.452669E-1	9.377966E-1	9.745630E-1	9.058270E-1	9.050812E-1	9.740361E-1	9.090919E-1	9.329315E-1	9.370058E-1
5.430120E+2	1.011909E+0	1.017205E+0	1.051729E+0	1.029754E+0	1.068665E+0	9.626913E-1	1.060537E+0	9.882930E-1	1.067677E+0	9.729539E-1	1.025546E+0	1.032757E+0	1.033746E+0	1.024896E+0	1.005494E+0	9.908216E-1	9.967426E-1	9.936139E-1	1.058137E+0	1.002008E+0	1.012953E+0	1.011837E+0	9.984154E-1	9.803628E-1	1.029379E+0	1.040788E+0	1.059487E+0	1.034922E+0	1.014350E+0	9.935851E-1	1.022637E+0	1.028679E+0	1.023105E+0	9.977619E-1	1.047870E+0	1.011042E+0	1.000632E+0	1.011437E+0	1.004578E+0	1.053551E+0	1.019495E+0	1.001755E+0	1.005802E+0	1.007817E+0	1.029676E+0	1.036784E+0	1.052960E+0	1.018011E+0	1.017507E+0	1.039521E+0	1.030301E+0	1.061771E+0	1.019330E+0	9.684385E-1	1.018899E+0	1.016344E+0	1.030010E+0	1.008394E+0	1.002705E+0	1.008003E+0	1.026190E+0	1.054003E+0	1.034798E+0	1.003278E+0	9.972561E-1	1.010337E+0	1.015148E+0	1.025979E+0	9.959008E-1	9.728172E-1	1.008900E+0	1.018423E+0	1.040493E+0	1.063227E+0	1.054049E+0	1.055052E+0	1.009989E+0	9.966149E-1	1.008151E+0	9.755961E-1	1.023140E+0	9.791536E-1	1.076275E+0	1.076152E+0	1.026069E+0	1.003523E+0	1.026817E+0	1.019565E+0	1.019072E+0	1.030269E+0	9.608338E-1	1.005039E+0	1.062436E+0	1.012784E+0	1.059285E+0	1.048680E+0	1.031931E+0	9.790512E-1	1.072801E+0	1.032155E+0	1.027343E+0	1.022285E+0	1.038591E+0	1.033242E+0	1.016266E+0	1.028479E+0	1.017233E+0	1.038600E+0	1.033734E+0	1.027178E+0	1.002464E+0	9.822182E-1	9.697131E-1	9.860813E-1	1.035367E+0	1.025278E+0	1.005952E+0	1.017939E+0	1.057676E+0	1.089652E+0	1.041712E+0	1.013316E+0	1.013533E+0	1.018173E+0	1.002280E+0	1.006453E+0	1.025518E+0	9.969531E-1	1.008447E+0	1.024319E+0	1.054718E+0	9.879806E-1	1.019773E+0	1.019110E+0	1.027836E+0	9.927568E-1	9.788573E-1	1.055064E+0	1.034792E+0	9.909707E-1	1.029710E+0	1.044426E+0	1.069763E+0	1.044792E+0	1.008939E+0	1.008697E+0	1.008141E+0	1.009402E+0	1.031692E+0	1.049429E+0	9.990686E-1	1.059972E+0	1.028055E+0	1.030187E+0	1.042462E+0	9.881188E-1	9.899914E-1	9.718482E-1	1.001363E+0	1.018885E+0	1.017339E+0	1.056055E+0	1.054208E+0	1.044205E+0	1.012204E+0	9.751845E-1	1.037327E+0	1.031595E+0	1.012158E+0	1.046541E+0
5.432910E+2	1.229440E+0	1.229971E+0	1.155278E+0	1.191180E+0	1.207210E+0	1.198539E+0	1.125688E+0	1.139695E+0	1.197911E+0	1.158096E+0	1.184015E+0	1.142939E+0	1.140848E+0	1.195484E+0	1.163419E+0	1.171158E+0	1.227643E+0	1.161810E+0	1.142706E+0	1.158328E+0	1.183965E+0	1.216243E+0	1.114843E+0	1.199392E+0	1.209230E+0	1.147992E+0	1.143625E+0	1.185025E+0	1.155524E+0	1.144270E+0	1.191975E+0	1.140351E+0	1.222525E+0	1.118643E+0	1.153847E+0	1.214076E+0	1.104731E+0	1.126499E+0	1.198913E+0	1.188955E+0	1.123021E+0	1.180881E+0	1.171664E+0	1.148143E+0	1.175387E+0	1.159587E+0	1.219807E+0	1.194196E+0	1.140456E+0	1.213370E+0	1.158278E+0	1.219238E+0	1.190361E+0	1.204813E+0	1.164062E+0	1.157875E+0	1.222074E+0	1.187802E+0	1.204925E+0	1.158194E+0	1.189147E+0	1.200272E+0	1.143868E+0	1.153269E+0	1.136409E+0	1.207299E+0	1.143584E+0	1.207519E+0	1.171663E+0	1.182547E+0	1.171249E+0	1.198858E+0	1.223209E+0	1.214962E+0	1.170407E+0	1.179527E+0	1.177435E+0	1.202570E+0	1.200584E+0	1.183906E+0	1.187757E+0	1.143435E+0	1.209507E+0	1.182059E+0	1.155052E+0	1.150706E+0	1.168746E+0	1.184192E+0	1.167685E+0	1.140666E+0	1.139690E+0	1.132776E+0	1.154401E+0	1.131891E+0	1.212445E+0	1.151521E+0	1.150054E+0	1.185534E+0	1.216811E+0	1.137990E+0	1.185396E+0	1.193815E+0	1.161020E+0	1.110868E+0	1.139797E+0	1.168154E+0	1.181468E+0	1.185071E+0	1.129416E+0	1.168400E+0	1.177072E+0	1.167777E+0	1.170729E+0	1.126096E+0	1.142993E+0	1.203922E+0	1.192752E+0	1.148422E+0	1.168203E+0	1.231981E+0	1.160411E+0	1.138547E+0	1.111048E+0	1.217306E+0	1.190308E+0	1.156071E+0	1.195305E+0	1.156288E+0	1.170519E+0	1.131797E+0	1.225713E+0	1.135649E+0	1.207391E+0	1.180404E+0	1.169778E+0	1.202991E+0	1.205127E+0	1.218484E+0	1.190470E+0	1.137025E+0	1.174113E+0	1.198712E+0	1.204476E+0	1.184446E+0	1.188642E+0	1.140828E+0	1.155424E+0	1.173106E+0	1.192308E+0	1.192023E+0	1.128763E+0	1.197685E+0	1.197346E+0	1.199721E+0	1.191181E+0	1.186187E+0	1.131537E+0	1.150456E+0	1.150567E+0	1.183432E+0	1.165650E+0	1.168670E+0	1.193340E+0	1.125529E+0	1.192207E+0	1.140937E+0	1.188392E+0	1.185092E+0	1.157906E+0	1.175912E+0
5.435270E+2	1.288031E+0	1.276049E+0	1.282464E+0	1.295800E+0	1.377058E+0	1.294750E+0	1.241914E+0	1.292334E+0	1.301224E+0	1.346263E+0	1.316457E+0	1.304854E+0	1.334612E+0	1.289780E+0	1.294449E+0	1.369472E+0	1.267567E+0	1.339246E+0	1.362052E+0	1.288491E+0	1.338436E+0	1.280408E+0	1.316854E+0	1.340302E+0	1.366483E+0	1.363710E+0	1.356704E+0	1.398095E+0	1.309382E+0	1.286352E+0	1.323822E+0	1.314970E+0	1.290980E+0	1.287468E+0	1.316289E+0	1.311444E+0	1.253712E+0	1.308064E+0	1.317022E+0	1.294337E+0	1.285222E+0	1.291532E+0	1.298686E+0	1.342955E+0	1.296135E+0	1.273225E+0	1.400969E+0	1.293400E+0	1.314384E+0	1.314114E+0	1.308971E+0	1.333939E+0	1.375996E+0	1.298509E+0	1.282316E+0	1.333411E+0	1.363988E+0	1.298227E+0	1.339166E+0	1.349671E+0	1.336725E+0	1.313757E+0	1.317039E+0	1.281936E+0	1.278671E+0	1.261408E+0	1.361004E+0	1.303602E+0	1.353834E+0	1.281823E+0	1.360624E+0	1.290001E+0	1.305758E+0	1.310793E+0	1.296084E+0	1.372520E+0	1.301847E+0	1.309966E+0	1.343428E+0	1.245195E+0	1.323945E+0	1.338493E+0	1.315980E+0	1.340494E+0	1.301544E+0	1.293630E+0	1.283590E+0	1.299369E+0	1.230565E+0	1.269978E+0	1.302454E+0	1.270810E+0	1.317268E+0	1.320109E+0	1.332163E+0	1.351313E+0	1.268008E+0	1.288742E+0	1.334834E+0	1.326880E+0	1.291514E+0	1.258296E+0	1.270615E+0	1.305703E+0	1.279368E+0	1.279834E+0	1.320309E+0	1.296967E+0	1.332750E+0	1.363771E+0	1.317153E+0	1.314219E+0	1.306781E+0	1.311230E+0	1.379002E+0	1.317729E+0	1.343760E+0	1.329612E+0	1.287764E+0	1.334100E+0	1.324702E+0	1.277719E+0	1.267954E+0	1.318715E+0	1.282258E+0	1.280828E+0	1.349986E+0	1.270212E+0	1.324916E+0	1.279960E+0	1.296559E+0	1.262396E+0	1.297895E+0	1.324010E+0	1.306102E+0	1.302407E+0	1.320807E+0	1.295800E+0	1.281961E+0	1.282138E+0	1.259117E+0	1.320780E+0	1.338098E+0	1.281936E+0	1.269081E+0	1.310910E+0	1.317042E+0	1.312126E+0	1.344390E+0	1.337043E+0	1.297569E+0	1.329944E+0	1.350109E+0	1.312918E+0	1.289444E+0	1.328590E+0	1.258399E+0	1.256721E+0	1.350195E+0	1.307909E+0	1.270781E+0	1.321279E+0	1.282042E+0	1.266003E+0	1.219577E+0	1.272290E+0	1.283515E+0	1.295930E+0	1.322268E+0	1.283174E+0
5.437850E+2	1.411591E+0	1.474235E+0	1.426906E+0	1.473566E+0	1.431845E+0	1.384360E+0	1.379063E+0	1.420194E+0	1.447162E+0	1.415498E+0	1.426099E+0	1.362189E+0	1.422365E+0	1.368421E+0	1.455926E+0	1.414974E+0	1.369118E+0	1.419102E+0	1.463373E+0	1.419574E+0	1.484920E+0	1.426363E+0	1.415336E+0	1.418415E+0	1.456042E+0	1.411796E+0	1.436757E+0	1.472855E+0	1.406106E+0	1.416610E+0	1.457542E+0	1.404250E+0	1.429592E+0	1.406430E+0	1.386866E+0	1.386172E+0	1.440219E+0	1.441061E+0	1.392056E+0	1.409614E+0	1.360985E+0	1.385603E+0	1.398862E+0	1.436189E+0	1.462419E+0	1.403445E+0	1.505686E+0	1.416188E+0	1.413831E+0	1.413620E+0	1.437075E+0	1.413387E+0	1.433708E+0	1.414410E+0	1.359951E+0	1.402957E+0	1.428817E+0	1.439154E+0	1.426837E+0	1.436518E+0	1.412314E+0	1.446431E+0	1.391528E+0	1.451876E+0	1.378940E+0	1.420204E+0	1.434735E+0	1.434299E+0	1.415997E+0	1.411328E+0	1.408308E+0	1.415269E+0	1.454050E+0	1.347911E+0	1.409337E+0	1.416833E+0	1.447522E+0	1.399258E+0	1.408000E+0	1.416373E+0	1.425246E+0	1.420357E+0	1.491540E+0	1.470534E+0	1.421451E+0	1.394291E+0	1.459645E+0	1.373814E+0	1.383984E+0	1.427189E+0	1.462718E+0	1.361258E+0	1.436662E+0	1.425156E+0	1.471204E+0	1.424000E+0	1.440958E+0	1.400383E+0	1.426363E+0	1.370113E+0	1.391789E+0	1.367406E+0	1.421674E+0	1.396925E+0	1.439102E+0	1.388233E+0	1.429691E+0	1.420453E+0	1.430509E+0	1.393392E+0	1.415783E+0	1.416803E+0	1.384207E+0	1.391489E+0	1.462915E+0	1.449371E+0	1.411879E+0	1.413344E+0	1.428035E+0	1.486228E+0	1.405525E+0	1.371204E+0	1.355422E+0	1.411918E+0	1.365648E+0	1.387524E+0	1.383408E+0	1.444406E+0	1.377792E+0	1.441560E+0	1.464225E+0	1.367874E+0	1.376528E+0	1.453466E+0	1.424472E+0	1.333554E+0	1.447791E+0	1.446330E+0	1.379579E+0	1.369746E+0	1.413024E+0	1.447847E+0	1.391861E+0	1.375367E+0	1.376769E+0	1.402650E+0	1.364083E+0	1.409135E+0	1.477225E+0	1.379256E+0	1.402508E+0	1.464007E+0	1.468693E+0	1.395553E+0	1.380515E+0	1.334733E+0	1.382516E+0	1.418927E+0	1.404841E+0	1.438468E+0	1.383559E+0	1.384735E+0	1.447734E+0	1.380795E+0	1.429741E+0	1.356466E+0	1.378940E+0	1.427238E+0	1.378681E+0	1.394097E+0
5.440060E+2	1.519539E+0	1.553816E+0	1.567706E+0	1.526801E+0	1.606218E+0	1.536410E+0	1.491170E+0	1.487674E+0	1.506705E+0	1.540660E+0	1.554015E+0	1.504769E+0	1.542326E+0	1.457871E+0	1.531143E+0	1.495040E+0	1.483718E+0	1.520138E+0	1.644325E+0	1.533037E+0	1.587416E+0	1.531254E+0	1.506063E+0	1.504559E+0	1.487701E+0	1.510446E+0	1.519555E+0	1.536103E+0	1.471954E+0	1.494656E+0	1.512031E+0	1.477400E+0	1.492921E+0	1.477793E+0	1.582190E+0	1.590768E+0	1.492369E+0	1.530515E+0	1.551319E+0	1.542615E+0	1.482140E+0	1.480559E+0	1.527770E+0	1.501276E+0	1.564108E+0	1.545616E+0	1.573192E+0	1.498527E+0	1.501506E+0	1.478086E+0	1.545803E+0	1.542160E+0	1.552146E+0	1.534442E+0	1.509970E+0	1.490136E+0	1.581928E+0	1.482585E+0	1.614145E+0	1.516929E+0	1.529478E+0	1.474884E+0	1.525573E+0	1.537690E+0	1.517498E+0	1.544601E+0	1.573906E+0	1.553733E+0	1.516884E+0	1.485506E+0	1.555567E+0	1.455814E+0	1.505378E+0	1.464568E+0	1.500440E+0	1.548311E+0	1.486023E+0	1.596527E+0	1.505162E+0	1.488422E+0	1.510759E+0	1.530834E+0	1.506342E+0	1.601506E+0	1.529659E+0	1.512473E+0	1.552727E+0	1.481119E+0	1.462600E+0	1.484562E+0	1.553396E+0	1.515925E+0	1.522167E+0	1.447874E+0	1.528461E+0	1.536801E+0	1.522022E+0	1.490937E+0	1.509088E+0	1.565040E+0	1.535207E+0	1.500714E+0	1.498745E+0	1.511312E+0	1.545897E+0	1.508537E+0	1.553768E+0	1.594787E+0	1.547428E+0	1.501116E+0	1.523355E+0	1.465939E+0	1.569970E+0	1.493307E+0	1.563375E+0	1.447810E+0	1.499098E+0	1.511434E+0	1.538621E+0	1.485856E+0	1.521328E+0	1.443194E+0	1.515263E+0	1.529504E+0	1.562328E+0	1.443157E+0	1.537942E+0	1.475014E+0	1.521039E+0	1.447200E+0	1.528878E+0	1.473432E+0	1.488199E+0	1.488454E+0	1.587644E+0	1.471765E+0	1.555032E+0	1.544419E+0	1.547195E+0	1.516369E+0	1.522649E+0	1.467332E+0	1.524901E+0	1.466783E+0	1.504950E+0	1.433336E+0	1.478742E+0	1.489452E+0	1.516975E+0	1.454135E+0	1.467176E+0	1.520463E+0	1.480455E+0	1.511346E+0	1.517306E+0	1.450425E+0	1.496718E+0	1.475838E+0	1.551566E+0	1.468162E+0	1.488077E+0	1.506370E+0	1.465423E+0	1.476428E+0	1.488229E+0	1.439301E+0	1.432928E+0	1.514020E+0	1.496134E+0	1.471004E+0
5.442750E+2	1.533232E+0	1.569700E+0	1.607425E+0	1.554308E+0	1.637174E+0	1.503240E+0	1.518898E+0	1.484263E+0	1.614171E+0	1.615602E+0	1.614708E+0	1.533473E+0	1.540081E+0	1.536425E+0	1.551434E+0	1.518426E+0	1.532250E+0	1.528245E+0	1.598840E+0	1.589150E+0	1.540220E+0	1.534353E+0	1.519827E+0	1.538230E+0	1.531342E+0	1.572830E+0	1.540804E+0	1.579660E+0	1.520924E+0	1.576599E+0	1.551660E+0	1.577276E+0	1.505191E+0	1.613539E+0	1.593595E+0	1.567323E+0	1.554647E+0	1.607757E+0	1.538404E+0	1.542502E+0	1.507571E+0	1.487984E+0	1.542119E+0	1.527028E+0	1.585730E+0	1.506336E+0	1.556714E+0	1.528676E+0	1.472363E+0	1.539378E+0	1.587190E+0	1.632813E+0	1.584545E+0	1.559128E+0	1.578548E+0	1.506928E+0	1.599255E+0	1.501035E+0	1.516575E+0	1.494538E+0	1.523349E+0	1.563613E+0	1.562387E+0	1.518425E+0	1.523158E+0	1.577703E+0	1.566947E+0	1.543702E+0	1.544628E+0	1.510274E+0	1.559681E+0	1.521771E+0	1.615083E+0	1.535069E+0	1.548627E+0	1.534800E+0	1.521009E+0	1.538945E+0	1.626149E+0	1.583729E+0	1.582359E+0	1.549016E+0	1.587235E+0	1.638003E+0	1.517853E+0	1.543564E+0	1.569880E+0	1.564598E+0	1.493767E+0	1.490737E+0	1.585043E+0	1.554922E+0	1.528033E+0	1.512259E+0	1.552082E+0	1.545774E+0	1.515413E+0	1.502926E+0	1.573182E+0	1.467495E+0	1.526752E+0	1.549092E+0	1.544959E+0	1.566692E+0	1.531234E+0	1.502552E+0	1.502106E+0	1.528775E+0	1.555632E+0	1.508366E+0	1.548600E+0	1.524384E+0	1.567785E+0	1.534667E+0	1.548451E+0	1.520978E+0	1.521240E+0	1.485018E+0	1.561189E+0	1.525213E+0	1.537295E+0	1.524118E+0	1.511626E+0	1.535441E+0	1.538692E+0	1.518550E+0	1.505470E+0	1.501061E+0	1.496978E+0	1.480571E+0	1.586424E+0	1.506059E+0	1.552620E+0	1.537989E+0	1.492351E+0	1.504642E+0	1.530317E+0	1.525763E+0	1.476551E+0	1.526808E+0	1.526511E+0	1.468364E+0	1.508702E+0	1.545013E+0	1.539386E+0	1.512202E+0	1.531327E+0	1.545822E+0	1.520024E+0	1.493292E+0	1.559696E+0	1.524726E+0	1.484359E+0	1.532589E+0	1.538276E+0	1.491898E+0	1.500393E+0	1.535827E+0	1.560003E+0	1.548980E+0	1.519573E+0	1.516535E+0	1.542935E+0	1.536440E+0	1.577702E+0	1.465937E+0	1.554328E+0	1.507286E+0	1.496848E+0	1.481486E+0
5.445240E+2	1.521172E+0	1.566290E+0	1.587393E+0	1.566176E+0	1.576589E+0	1.486326E+0	1.520891E+0	1.502057E+0	1.676932E+0	1.559504E+0	1.574389E+0	1.510199E+0	1.528285E+0	1.525028E+0	1.549747E+0	1.539058E+0	1.523172E+0	1.560064E+0	1.580612E+0	1.625496E+0	1.544944E+0	1.529752E+0	1.474358E+0	1.537728E+0	1.533095E+0	1.530204E+0	1.550609E+0	1.567684E+0	1.552558E+0	1.510842E+0	1.534712E+0	1.573231E+0	1.511654E+0	1.567091E+0	1.549393E+0	1.561908E+0	1.525336E+0	1.533623E+0	1.554201E+0	1.528517E+0	1.540185E+0	1.529108E+0	1.510927E+0	1.562928E+0	1.508321E+0	1.534891E+0	1.527461E+0	1.505162E+0	1.492700E+0	1.523497E+0	1.556672E+0	1.491670E+0	1.554958E+0	1.557325E+0	1.495116E+0	1.488089E+0	1.503789E+0	1.534261E+0	1.544182E+0	1.563405E+0	1.521208E+0	1.537163E+0	1.504514E+0	1.494593E+0	1.520456E+0	1.535644E+0	1.574734E+0	1.516455E+0	1.536800E+0	1.503192E+0	1.553306E+0	1.510608E+0	1.560234E+0	1.547628E+0	1.545028E+0	1.466240E+0	1.543915E+0	1.467814E+0	1.574239E+0	1.517156E+0	1.550221E+0	1.534231E+0	1.516211E+0	1.633239E+0	1.504543E+0	1.529231E+0	1.545355E+0	1.542209E+0	1.532927E+0	1.517686E+0	1.523654E+0	1.477824E+0	1.460408E+0	1.477272E+0	1.531722E+0	1.591935E+0	1.519343E+0	1.498391E+0	1.613118E+0	1.543344E+0	1.515098E+0	1.497932E+0	1.463345E+0	1.559844E+0	1.451219E+0	1.541911E+0	1.524047E+0	1.568461E+0	1.493299E+0	1.467553E+0	1.563232E+0	1.494039E+0	1.522445E+0	1.532132E+0	1.618386E+0	1.531938E+0	1.477123E+0	1.540397E+0	1.553039E+0	1.543431E+0	1.530507E+0	1.470559E+0	1.480627E+0	1.531527E+0	1.527776E+0	1.467367E+0	1.455351E+0	1.523528E+0	1.516112E+0	1.587055E+0	1.575297E+0	1.481716E+0	1.482812E+0	1.487455E+0	1.497283E+0	1.473834E+0	1.480558E+0	1.540860E+0	1.471804E+0	1.493128E+0	1.486063E+0	1.556304E+0	1.635967E+0	1.493719E+0	1.493726E+0	1.463055E+0	1.515694E+0	1.496154E+0	1.499877E+0	1.514649E+0	1.462417E+0	1.525084E+0	1.600228E+0	1.483412E+0	1.511611E+0	1.473801E+0	1.479910E+0	1.513472E+0	1.516766E+0	1.491971E+0	1.464337E+0	1.466775E+0	1.509165E+0	1.436117E+0	1.524539E+0	1.463691E+0	1.489211E+0	1.469179E+0	1.473914E+0	1.494285E+0
5.447610E+2	1.453804E+0	1.472151E+0	1.449903E+0	1.451715E+0	1.496186E+0	1.369347E+0	1.452801E+0	1.442260E+0	1.472667E+0	1.472895E+0	1.464546E+0	1.423584E+0	1.428340E+0	1.445027E+0	1.434466E+0	1.412534E+0	1.455193E+0	1.422987E+0	1.468259E+0	1.508348E+0	1.502187E+0	1.430312E+0	1.412172E+0	1.443845E+0	1.489180E+0	1.418187E+0	1.492927E+0	1.519011E+0	1.471643E+0	1.397378E+0	1.459810E+0	1.464831E+0	1.461265E+0	1.426188E+0	1.433775E+0	1.479373E+0	1.414942E+0	1.467804E+0	1.427749E+0	1.445169E+0	1.351955E+0	1.365746E+0	1.496013E+0	1.399177E+0	1.451377E+0	1.478038E+0	1.466316E+0	1.429377E+0	1.445969E+0	1.475837E+0	1.479393E+0	1.460422E+0	1.484970E+0	1.416083E+0	1.456550E+0	1.443076E+0	1.432116E+0	1.440956E+0	1.463068E+0	1.460135E+0	1.459291E+0	1.468668E+0	1.503413E+0	1.436447E+0	1.455120E+0	1.451080E+0	1.434420E+0	1.461910E+0	1.416499E+0	1.471050E+0	1.444584E+0	1.450295E+0	1.427723E+0	1.478915E+0	1.448994E+0	1.498973E+0	1.432153E+0	1.464751E+0	1.409350E+0	1.429523E+0	1.454149E+0	1.448458E+0	1.476195E+0	1.499988E+0	1.432392E+0	1.459686E+0	1.462716E+0	1.458418E+0	1.414865E+0	1.400719E+0	1.412038E+0	1.460903E+0	1.404826E+0	1.429939E+0	1.500833E+0	1.474556E+0	1.435367E+0	1.479161E+0	1.473505E+0	1.437351E+0	1.438865E+0	1.459647E+0	1.485037E+0	1.434748E+0	1.436518E+0	1.434049E+0	1.421870E+0	1.439334E+0	1.443474E+0	1.443085E+0	1.481336E+0	1.427408E+0	1.454810E+0	1.424682E+0	1.461885E+0	1.481317E+0	1.505531E+0	1.424979E+0	1.428145E+0	1.473331E+0	1.479200E+0	1.399118E+0	1.411664E+0	1.412833E+0	1.474301E+0	1.387090E+0	1.421307E+0	1.438444E+0	1.440856E+0	1.396615E+0	1.473446E+0	1.366813E+0	1.427368E+0	1.437214E+0	1.427708E+0	1.422174E+0	1.433628E+0	1.468795E+0	1.444606E+0	1.442874E+0	1.465059E+0	1.424253E+0	1.451681E+0	1.392940E+0	1.429184E+0	1.444958E+0	1.437892E+0	1.491639E+0	1.489115E+0	1.432262E+0	1.393516E+0	1.413700E+0	1.451637E+0	1.426018E+0	1.490325E+0	1.454227E+0	1.421381E+0	1.443289E+0	1.441910E+0	1.430189E+0	1.423199E+0	1.387054E+0	1.414930E+0	1.435231E+0	1.428318E+0	1.383021E+0	1.455864E+0	1.407120E+0	1.344302E+0	1.442522E+0
5.450150E+2	1.370202E+0	1.350471E+0	1.380467E+0	1.352286E+0	1.362186E+0	1.311035E+0	1.332397E+0	1.348816E+0	1.408677E+0	1.342896E+0	1.341453E+0	1.321654E+0	1.357724E+0	1.373596E+0	1.299598E+0	1.343709E+0	1.340438E+0	1.302655E+0	1.417880E+0	1.354346E+0	1.345077E+0	1.372352E+0	1.339810E+0	1.324213E+0	1.337262E+0	1.313405E+0	1.320170E+0	1.331624E+0	1.338417E+0	1.313751E+0	1.315396E+0	1.395061E+0	1.354932E+0	1.362946E+0	1.334403E+0	1.348621E+0	1.327533E+0	1.313974E+0	1.343796E+0	1.322815E+0	1.334964E+0	1.329262E+0	1.292827E+0	1.305075E+0	1.313842E+0	1.309199E+0	1.400079E+0	1.311988E+0	1.346013E+0	1.358964E+0	1.339533E+0	1.341526E+0	1.397657E+0	1.397793E+0	1.303241E+0	1.299233E+0	1.400656E+0	1.373445E+0	1.421197E+0	1.314037E+0	1.358518E+0	1.314322E+0	1.350328E+0	1.360105E+0	1.314802E+0	1.324667E+0	1.352114E+0	1.351216E+0	1.390240E+0	1.337749E+0	1.348128E+0	1.366400E+0	1.328647E+0	1.318550E+0	1.352547E+0	1.304938E+0	1.342404E+0	1.276910E+0	1.351368E+0	1.312859E+0	1.252536E+0	1.346374E+0	1.385822E+0	1.355638E+0	1.267243E+0	1.327800E+0	1.340279E+0	1.357971E+0	1.308333E+0	1.308157E+0	1.366700E+0	1.360976E+0	1.374229E+0	1.338481E+0	1.398812E+0	1.367847E+0	1.324771E+0	1.308334E+0	1.352233E+0	1.287034E+0	1.343932E+0	1.322745E+0	1.349587E+0	1.320366E+0	1.345497E+0	1.301792E+0	1.344467E+0	1.357098E+0	1.340435E+0	1.354416E+0	1.366090E+0	1.330243E+0	1.264458E+0	1.341186E+0	1.364340E+0	1.329415E+0	1.290644E+0	1.326823E+0	1.284344E+0	1.336671E+0	1.282962E+0	1.273945E+0	1.307688E+0	1.334315E+0	1.414408E+0	1.315187E+0	1.294812E+0	1.315130E+0	1.309582E+0	1.352327E+0	1.356406E+0	1.331754E+0	1.324468E+0	1.341599E+0	1.298994E+0	1.302802E+0	1.351372E+0	1.336586E+0	1.343848E+0	1.321228E+0	1.333227E+0	1.393679E+0	1.297346E+0	1.294900E+0	1.346104E+0	1.268560E+0	1.265513E+0	1.275126E+0	1.387733E+0	1.302842E+0	1.302071E+0	1.354236E+0	1.311280E+0	1.380229E+0	1.378402E+0	1.334331E+0	1.302236E+0	1.316606E+0	1.354594E+0	1.311895E+0	1.327946E+0	1.341703E+0	1.360376E+0	1.354969E+0	1.344877E+0	1.359528E+0	1.338697E+0	1.343462E+0	1.297251E+0	1.346750E+0
5.452580E+2	1.400800E+0	1.306106E+0	1.361176E+0	1.364544E+0	1.379280E+0	1.333451E+0	1.336197E+0	1.277825E+0	1.329332E+0	1.329220E+0	1.349969E+0	1.319944E+0	1.297616E+0	1.271861E+0	1.303003E+0	1.362539E+0	1.297507E+0	1.345296E+0	1.328901E+0	1.345965E+0	1.306447E+0	1.341197E+0	1.353638E+0	1.321601E+0	1.332582E+0	1.350995E+0	1.367388E+0	1.398381E+0	1.317499E+0	1.269084E+0	1.293538E+0	1.329512E+0	1.305046E+0	1.247964E+0	1.323481E+0	1.383047E+0	1.361691E+0	1.295812E+0	1.355536E+0	1.323582E+0	1.318178E+0	1.340343E+0	1.347634E+0	1.301816E+0	1.338626E+0	1.300929E+0	1.319596E+0	1.328567E+0	1.356370E+0	1.365675E+0	1.278470E+0	1.309311E+0	1.326979E+0	1.329550E+0	1.302239E+0	1.337330E+0	1.397719E+0	1.323219E+0	1.303424E+0	1.258758E+0	1.345873E+0	1.318723E+0	1.322334E+0	1.321377E+0	1.281502E+0	1.297970E+0	1.326910E+0	1.285963E+0	1.308322E+0	1.267318E+0	1.343760E+0	1.311403E+0	1.296807E+0	1.314371E+0	1.293894E+0	1.319053E+0	1.348096E+0	1.343747E+0	1.358373E+0	1.319039E+0	1.304506E+0	1.299879E+0	1.310038E+0	1.393624E+0	1.353525E+0	1.290350E+0	1.338644E+0	1.302865E+0	1.299911E+0	1.288932E+0	1.287572E+0	1.315076E+0	1.301752E+0	1.342436E+0	1.376677E+0	1.340782E+0	1.319943E+0	1.285182E+0	1.329678E+0	1.338827E+0	1.334244E+0	1.287289E+0	1.293195E+0	1.275677E+0	1.284563E+0	1.299329E+0	1.316854E+0	1.392646E+0	1.302920E+0	1.322463E+0	1.379633E+0	1.297414E+0	1.342683E+0	1.325307E+0	1.376114E+0	1.293089E+0	1.344046E+0	1.324361E+0	1.297175E+0	1.336497E+0	1.288404E+0	1.311172E+0	1.258372E+0	1.318289E+0	1.335697E+0	1.275807E+0	1.382261E+0	1.346762E+0	1.282040E+0	1.340754E+0	1.317674E+0	1.285972E+0	1.315311E+0	1.347966E+0	1.278404E+0	1.254365E+0	1.270956E+0	1.327436E+0	1.352021E+0	1.302446E+0	1.290020E+0	1.289055E+0	1.356716E+0	1.318996E+0	1.330686E+0	1.322733E+0	1.313142E+0	1.301004E+0	1.331805E+0	1.294210E+0	1.246975E+0	1.347278E+0	1.406174E+0	1.301188E+0	1.299839E+0	1.362989E+0	1.285292E+0	1.286579E+0	1.292888E+0	1.334772E+0	1.290684E+0	1.294067E+0	1.329519E+0	1.286687E+0	1.324471E+0	1.291110E+0	1.306142E+0	1.282323E+0	1.242704E+0	1.318285E+0
5.455290E+2	1.265789E+0	1.244922E+0	1.288097E+0	1.292874E+0	1.337043E+0	1.221565E+0	1.314909E+0	1.293945E+0	1.309323E+0	1.354849E+0	1.340194E+0	1.206244E+0	1.291617E+0	1.259650E+0	1.254600E+0	1.264767E+0	1.284662E+0	1.313303E+0	1.281964E+0	1.315610E+0	1.291082E+0	1.267032E+0	1.295719E+0	1.300582E+0	1.324579E+0	1.292052E+0	1.238427E+0	1.361641E+0	1.202307E+0	1.253594E+0	1.222410E+0	1.333045E+0	1.261297E+0	1.204810E+0	1.251504E+0	1.343283E+0	1.273942E+0	1.260128E+0	1.301321E+0	1.270144E+0	1.233628E+0	1.240500E+0	1.280052E+0	1.322327E+0	1.242102E+0	1.331448E+0	1.265746E+0	1.262439E+0	1.261888E+0	1.289797E+0	1.216724E+0	1.279281E+0	1.314641E+0	1.292661E+0	1.305439E+0	1.246927E+0	1.314199E+0	1.326120E+0	1.230466E+0	1.217322E+0	1.286333E+0	1.320040E+0	1.294911E+0	1.246248E+0	1.259907E+0	1.294332E+0	1.286346E+0	1.286568E+0	1.259198E+0	1.213980E+0	1.232197E+0	1.264605E+0	1.266692E+0	1.245511E+0	1.268704E+0	1.282483E+0	1.284287E+0	1.245090E+0	1.302506E+0	1.259030E+0	1.231270E+0	1.230892E+0	1.267207E+0	1.397837E+0	1.270689E+0	1.270776E+0	1.294106E+0	1.278704E+0	1.227554E+0	1.292701E+0	1.302307E+0	1.235755E+0	1.271252E+0	1.257804E+0	1.268928E+0	1.270175E+0	1.287469E+0	1.244468E+0	1.314335E+0	1.283664E+0	1.250554E+0	1.246309E+0	1.235261E+0	1.281636E+0	1.307675E+0	1.268554E+0	1.235788E+0	1.291233E+0	1.248248E+0	1.222665E+0	1.251857E+0	1.272455E+0	1.216508E+0	1.241927E+0	1.280444E+0	1.212563E+0	1.211697E+0	1.240151E+0	1.278474E+0	1.350114E+0	1.256734E+0	1.217031E+0	1.204876E+0	1.218838E+0	1.276628E+0	1.257827E+0	1.272941E+0	1.278160E+0	1.314895E+0	1.300426E+0	1.267901E+0	1.279744E+0	1.278570E+0	1.272284E+0	1.223612E+0	1.222395E+0	1.278049E+0	1.306046E+0	1.211869E+0	1.271011E+0	1.271172E+0	1.248046E+0	1.307071E+0	1.239806E+0	1.246589E+0	1.200310E+0	1.281001E+0	1.273547E+0	1.294716E+0	1.283116E+0	1.255216E+0	1.300754E+0	1.294727E+0	1.289455E+0	1.263101E+0	1.290190E+0	1.234364E+0	1.231352E+0	1.329528E+0	1.242120E+0	1.234245E+0	1.274283E+0	1.262101E+0	1.243904E+0	1.257271E+0	1.273403E+0	1.243302E+0	1.274851E+0	1.215720E+0	1.192909E+0
5.457620E+2	1.224736E+0	1.186750E+0	1.186715E+0	1.255982E+0	1.251709E+0	1.214182E+0	1.219895E+0	1.189598E+0	1.247759E+0	1.259933E+0	1.223646E+0	1.191399E+0	1.144814E+0	1.190927E+0	1.157616E+0	1.156412E+0	1.212759E+0	1.196617E+0	1.184788E+0	1.280336E+0	1.215305E+0	1.213560E+0	1.211809E+0	1.214842E+0	1.202496E+0	1.185572E+0	1.226512E+0	1.233178E+0	1.210739E+0	1.176218E+0	1.184621E+0	1.234798E+0	1.181054E+0	1.182306E+0	1.207545E+0	1.278840E+0	1.218180E+0	1.177895E+0	1.220739E+0	1.203258E+0	1.201809E+0	1.211248E+0	1.224512E+0	1.202076E+0	1.239960E+0	1.180742E+0	1.228850E+0	1.210556E+0	1.259996E+0	1.208212E+0	1.202753E+0	1.217814E+0	1.241734E+0	1.264220E+0	1.194518E+0	1.236013E+0	1.275039E+0	1.148644E+0	1.211519E+0	1.166194E+0	1.180767E+0	1.227951E+0	1.224974E+0	1.223482E+0	1.126546E+0	1.222267E+0	1.211204E+0	1.213024E+0	1.189031E+0	1.192805E+0	1.210096E+0	1.224493E+0	1.224137E+0	1.226490E+0	1.187670E+0	1.248543E+0	1.215804E+0	1.197468E+0	1.211192E+0	1.182223E+0	1.246413E+0	1.183903E+0	1.197049E+0	1.259249E+0	1.202124E+0	1.181107E+0	1.157807E+0	1.215971E+0	1.156618E+0	1.218038E+0	1.190440E+0	1.173080E+0	1.237617E+0	1.197795E+0	1.201135E+0	1.216535E+0	1.182722E+0	1.215274E+0	1.188685E+0	1.184341E+0	1.235690E+0	1.257727E+0	1.225689E+0	1.203213E+0	1.171159E+0	1.141329E+0	1.175802E+0	1.255948E+0	1.197399E+0	1.284456E+0	1.170510E+0	1.231148E+0	1.212545E+0	1.235538E+0	1.209368E+0	1.204999E+0	1.189060E+0	1.158051E+0	1.222135E+0	1.179096E+0	1.209724E+0	1.147340E+0	1.219349E+0	1.196930E+0	1.180092E+0	1.140431E+0	1.217543E+0	1.207223E+0	1.165679E+0	1.137616E+0	1.197419E+0	1.184864E+0	1.213775E+0	1.236037E+0	1.173538E+0	1.150423E+0	1.156845E+0	1.233566E+0	1.174398E+0	1.201910E+0	1.155815E+0	1.238277E+0	1.243362E+0	1.236554E+0	1.231802E+0	1.200049E+0	1.185298E+0	1.275044E+0	1.180874E+0	1.254928E+0	1.221116E+0	1.240478E+0	1.247300E+0	1.144440E+0	1.201799E+0	1.231772E+0	1.194696E+0	1.217401E+0	1.216629E+0	1.236231E+0	1.196721E+0	1.231605E+0	1.201535E+0	1.214916E+0	1.191659E+0	1.145968E+0	1.196404E+0	1.164590E+0	1.185043E+0	1.182404E+0
5.460060E+2	1.058066E+0	1.131521E+0	1.121358E+0	1.141310E+0	1.160725E+0	1.077207E+0	1.079372E+0	1.112671E+0	1.146837E+0	1.148343E+0	1.143184E+0	1.147273E+0	1.090598E+0	1.076278E+0	1.116476E+0	1.092154E+0	1.073999E+0	1.069172E+0	1.075396E+0	1.202722E+0	1.147147E+0	1.146817E+0	1.067584E+0	1.089959E+0	1.129052E+0	1.099216E+0	1.186093E+0	1.149675E+0	1.121584E+0	1.099620E+0	1.104532E+0	1.134220E+0	1.100990E+0	1.125425E+0	1.095706E+0	1.130789E+0	1.117306E+0	1.123388E+0	1.177994E+0	1.148977E+0	1.096986E+0	1.162229E+0	1.106889E+0	1.105294E+0	1.109066E+0	1.195777E+0	1.162530E+0	1.115708E+0	1.120320E+0	1.133101E+0	1.138985E+0	1.150695E+0	1.085331E+0	1.154471E+0	1.121993E+0	1.092077E+0	1.154739E+0	1.123959E+0	1.095300E+0	1.096127E+0	1.141539E+0	1.119053E+0	1.067881E+0	1.106347E+0	1.099926E+0	1.146248E+0	1.069311E+0	1.157815E+0	1.100936E+0	1.089876E+0	1.074892E+0	1.126741E+0	1.138934E+0	1.076756E+0	1.107426E+0	1.143856E+0	1.124276E+0	1.113397E+0	1.114248E+0	1.083107E+0	1.090393E+0	1.128938E+0	1.136877E+0	1.129420E+0	1.115867E+0	1.120445E+0	1.142523E+0	1.118784E+0	1.060294E+0	1.053108E+0	1.092065E+0	1.092314E+0	1.134482E+0	1.066090E+0	1.135172E+0	1.102604E+0	1.114415E+0	1.088815E+0	1.154789E+0	1.158029E+0	1.137955E+0	1.133122E+0	1.113072E+0	1.090144E+0	1.131697E+0	1.144954E+0	1.147842E+0	1.099962E+0	1.084989E+0	1.088137E+0	1.076780E+0	1.075067E+0	1.149258E+0	1.054604E+0	1.074012E+0	1.125869E+0	1.144125E+0	1.081337E+0	1.127540E+0	1.144459E+0	1.119432E+0	1.070240E+0	1.040930E+0	1.188298E+0	1.160954E+0	1.081504E+0	1.082584E+0	1.138247E+0	1.064754E+0	1.131335E+0	1.137066E+0	1.129335E+0	1.126044E+0	1.099590E+0	1.073044E+0	1.110084E+0	1.154368E+0	1.164120E+0	1.046654E+0	1.097782E+0	1.131106E+0	1.119428E+0	1.133291E+0	1.127842E+0	1.083721E+0	1.073653E+0	1.065839E+0	1.187942E+0	1.115004E+0	1.129386E+0	1.066580E+0	1.170822E+0	1.190173E+0	1.158581E+0	1.077186E+0	1.093557E+0	1.117794E+0	1.128157E+0	1.117547E+0	1.203900E+0	1.089460E+0	1.088636E+0	1.118863E+0	1.144867E+0	1.156016E+0	1.109777E+0	1.104476E+0	1.119784E+0	1.134048E+0	1.131390E+0
5.467660E+2	1.181252E+0	1.197338E+0	1.205899E+0	1.182079E+0	1.226135E+0	1.150450E+0	1.136778E+0	1.158974E+0	1.203722E+0	1.166047E+0	1.180642E+0	1.137621E+0	1.154051E+0	1.124591E+0	1.177753E+0	1.158056E+0	1.153795E+0	1.199895E+0	1.164674E+0	1.258389E+0	1.184193E+0	1.194536E+0	1.133245E+0	1.218830E+0	1.198084E+0	1.189600E+0	1.193031E+0	1.152772E+0	1.148721E+0	1.120447E+0	1.179446E+0	1.203570E+0	1.162370E+0	1.109711E+0	1.159759E+0	1.163999E+0	1.210712E+0	1.161627E+0	1.155224E+0	1.137559E+0	1.205730E+0	1.109879E+0	1.150117E+0	1.152650E+0	1.183859E+0	1.202951E+0	1.173440E+0	1.191341E+0	1.172022E+0	1.224078E+0	1.179283E+0	1.183697E+0	1.164115E+0	1.198050E+0	1.149613E+0	1.195546E+0	1.189126E+0	1.074453E+0	1.186969E+0	1.173839E+0	1.152315E+0	1.191230E+0	1.194669E+0	1.140864E+0	1.143780E+0	1.204173E+0	1.190175E+0	1.144168E+0	1.143435E+0	1.103058E+0	1.203484E+0	1.153932E+0	1.197235E+0	1.190353E+0	1.179209E+0	1.179487E+0	1.115519E+0	1.143960E+0	1.135499E+0	1.221482E+0	1.175818E+0	1.181452E+0	1.162623E+0	1.242873E+0	1.167988E+0	1.162314E+0	1.179787E+0	1.155928E+0	1.142238E+0	1.150563E+0	1.154754E+0	1.135634E+0	1.219994E+0	1.204069E+0	1.169871E+0	1.199184E+0	1.145045E+0	1.152857E+0	1.153817E+0	1.126276E+0	1.177698E+0	1.125155E+0	1.187218E+0	1.153057E+0	1.216092E+0	1.158278E+0	1.182987E+0	1.200105E+0	1.198475E+0	1.182018E+0	1.189743E+0	1.144970E+0	1.178471E+0	1.117760E+0	1.194733E+0	1.183404E+0	1.165898E+0	1.184036E+0	1.171896E+0	1.201165E+0	1.154073E+0	1.119700E+0	1.114296E+0	1.219428E+0	1.162414E+0	1.104488E+0	1.136937E+0	1.163337E+0	1.177715E+0	1.141529E+0	1.143983E+0	1.152710E+0	1.166153E+0	1.190568E+0	1.170571E+0	1.152823E+0	1.211970E+0	1.202754E+0	1.194052E+0	1.125113E+0	1.171538E+0	1.145362E+0	1.223194E+0	1.173279E+0	1.177786E+0	1.106523E+0	1.193676E+0	1.189363E+0	1.178433E+0	1.187970E+0	1.128129E+0	1.168013E+0	1.183229E+0	1.165572E+0	1.159032E+0	1.164672E+0	1.146010E+0	1.172482E+0	1.184415E+0	1.135913E+0	1.208141E+0	1.131750E+0	1.162845E+0	1.179319E+0	1.181491E+0	1.105723E+0	1.193476E+0	1.154197E+0	1.234853E+0	1.166648E+0
5.475180E+2	1.301672E+0	1.291172E+0	1.287701E+0	1.289109E+0	1.255731E+0	1.205206E+0	1.256530E+0	1.271866E+0	1.308388E+0	1.272720E+0	1.289646E+0	1.298427E+0	1.199052E+0	1.215132E+0	1.230499E+0	1.244698E+0	1.269644E+0	1.240273E+0	1.272356E+0	1.310725E+0	1.309462E+0	1.240090E+0	1.286800E+0	1.198592E+0	1.283003E+0	1.263041E+0	1.249346E+0	1.313351E+0	1.233358E+0	1.253975E+0	1.179587E+0	1.284695E+0	1.264506E+0	1.237207E+0	1.213088E+0	1.268925E+0	1.226984E+0	1.256720E+0	1.226729E+0	1.272867E+0	1.295841E+0	1.218796E+0	1.264003E+0	1.259069E+0	1.262993E+0	1.244670E+0	1.245679E+0	1.238483E+0	1.190632E+0	1.270913E+0	1.227253E+0	1.286052E+0	1.282025E+0	1.289599E+0	1.218246E+0	1.286442E+0	1.297385E+0	1.294256E+0	1.243441E+0	1.237321E+0	1.262481E+0	1.265809E+0	1.295078E+0	1.273571E+0	1.227721E+0	1.254006E+0	1.224519E+0	1.288900E+0	1.232693E+0	1.217645E+0	1.241534E+0	1.216540E+0	1.228225E+0	1.275866E+0	1.292306E+0	1.268915E+0	1.255974E+0	1.249952E+0	1.236956E+0	1.217360E+0	1.190664E+0	1.220466E+0	1.260593E+0	1.263313E+0	1.198329E+0	1.266124E+0	1.207492E+0	1.221905E+0	1.240924E+0	1.240173E+0	1.243675E+0	1.208696E+0	1.268123E+0	1.299097E+0	1.216558E+0	1.239044E+0	1.282759E+0	1.237809E+0	1.246154E+0	1.265599E+0	1.253270E+0	1.300993E+0	1.262533E+0	1.219129E+0	1.187599E+0	1.266336E+0	1.203270E+0	1.306758E+0	1.247626E+0	1.268115E+0	1.277203E+0	1.288607E+0	1.260211E+0	1.227798E+0	1.264618E+0	1.239758E+0	1.256045E+0	1.249041E+0	1.226968E+0	1.266293E+0	1.305354E+0	1.179611E+0	1.226369E+0	1.258621E+0	1.291111E+0	1.262903E+0	1.271525E+0	1.246511E+0	1.260557E+0	1.256836E+0	1.216239E+0	1.215505E+0	1.198314E+0	1.269810E+0	1.272346E+0	1.196839E+0	1.285403E+0	1.194685E+0	1.216041E+0	1.201841E+0	1.255174E+0	1.220487E+0	1.191608E+0	1.228816E+0	1.278151E+0	1.195438E+0	1.241630E+0	1.245546E+0	1.244261E+0	1.248263E+0	1.226457E+0	1.269238E+0	1.227286E+0	1.237440E+0	1.220791E+0	1.219850E+0	1.195410E+0	1.270103E+0	1.273232E+0	1.266700E+0	1.168239E+0	1.282077E+0	1.219105E+0	1.245682E+0	1.282089E+0	1.223949E+0	1.244496E+0	1.245448E+0	1.224887E+0	1.239651E+0
5.482550E+2	1.377249E+0	1.342217E+0	1.447831E+0	1.369646E+0	1.398304E+0	1.337648E+0	1.264865E+0	1.398512E+0	1.392913E+0	1.343105E+0	1.369077E+0	1.343206E+0	1.339421E+0	1.376630E+0	1.333157E+0	1.348950E+0	1.340105E+0	1.340128E+0	1.357283E+0	1.414445E+0	1.343240E+0	1.415867E+0	1.341484E+0	1.349178E+0	1.403555E+0	1.393553E+0	1.357120E+0	1.460836E+0	1.391818E+0	1.333572E+0	1.323234E+0	1.348943E+0	1.393559E+0	1.351932E+0	1.302135E+0	1.404958E+0	1.309473E+0	1.416108E+0	1.376577E+0	1.396982E+0	1.369115E+0	1.343947E+0	1.319568E+0	1.386348E+0	1.331788E+0	1.356816E+0	1.355997E+0	1.318948E+0	1.370778E+0	1.412691E+0	1.336541E+0	1.425562E+0	1.383355E+0	1.395199E+0	1.344157E+0	1.381184E+0	1.362614E+0	1.352603E+0	1.361086E+0	1.354288E+0	1.328426E+0	1.396004E+0	1.360473E+0	1.384042E+0	1.343682E+0	1.330189E+0	1.335018E+0	1.346840E+0	1.361759E+0	1.339373E+0	1.431146E+0	1.387852E+0	1.375555E+0	1.414055E+0	1.302122E+0	1.347852E+0	1.376246E+0	1.323813E+0	1.372975E+0	1.364069E+0	1.367972E+0	1.362782E+0	1.365045E+0	1.449378E+0	1.354998E+0	1.285278E+0	1.353238E+0	1.400587E+0	1.387305E+0	1.347552E+0	1.316586E+0	1.332948E+0	1.365904E+0	1.301253E+0	1.379972E+0	1.351157E+0	1.281771E+0	1.345834E+0	1.313379E+0	1.333124E+0	1.418596E+0	1.370806E+0	1.394603E+0	1.355817E+0	1.390632E+0	1.353218E+0	1.365506E+0	1.415372E+0	1.355672E+0	1.344122E+0	1.316007E+0	1.371821E+0	1.366113E+0	1.329464E+0	1.394531E+0	1.395486E+0	1.307724E+0	1.292708E+0	1.368525E+0	1.336411E+0	1.327233E+0	1.324928E+0	1.355842E+0	1.344873E+0	1.395887E+0	1.362834E+0	1.395173E+0	1.385518E+0	1.367343E+0	1.395910E+0	1.361884E+0	1.347620E+0	1.306937E+0	1.343052E+0	1.338520E+0	1.329815E+0	1.338306E+0	1.368967E+0	1.302299E+0	1.367789E+0	1.339150E+0	1.361761E+0	1.376694E+0	1.362170E+0	1.360121E+0	1.399765E+0	1.321329E+0	1.318299E+0	1.343625E+0	1.356615E+0	1.338435E+0	1.377505E+0	1.334236E+0	1.374190E+0	1.357608E+0	1.384524E+0	1.402439E+0	1.349605E+0	1.361687E+0	1.300125E+0	1.351404E+0	1.314620E+0	1.338820E+0	1.321970E+0	1.390266E+0	1.328217E+0	1.321732E+0	1.349923E+0	1.273982E+0	1.379638E+0
5.490380E+2	1.341504E+0	1.296819E+0	1.379828E+0	1.396620E+0	1.359475E+0	1.355820E+0	1.311015E+0	1.343908E+0	1.322467E+0	1.304071E+0	1.330605E+0	1.316418E+0	1.316799E+0	1.292113E+0	1.320662E+0	1.358208E+0	1.346105E+0	1.292059E+0	1.355019E+0	1.319834E+0	1.326418E+0	1.315115E+0	1.317090E+0	1.282945E+0	1.321111E+0	1.376420E+0	1.343077E+0	1.351182E+0	1.377121E+0	1.289710E+0	1.264199E+0	1.337102E+0	1.313015E+0	1.323141E+0	1.318624E+0	1.420408E+0	1.294756E+0	1.263842E+0	1.328067E+0	1.324067E+0	1.333254E+0	1.314088E+0	1.307474E+0	1.308830E+0	1.340906E+0	1.343504E+0	1.342512E+0	1.332523E+0	1.301637E+0	1.386272E+0	1.303734E+0	1.334989E+0	1.356828E+0	1.336479E+0	1.261543E+0	1.267168E+0	1.381696E+0	1.317828E+0	1.313207E+0	1.283842E+0	1.260029E+0	1.330755E+0	1.278611E+0	1.319724E+0	1.282639E+0	1.292568E+0	1.303431E+0	1.403590E+0	1.341567E+0	1.242735E+0	1.319742E+0	1.318294E+0	1.277758E+0	1.307323E+0	1.344214E+0	1.292608E+0	1.303674E+0	1.337543E+0	1.323310E+0	1.363162E+0	1.304250E+0	1.301199E+0	1.331659E+0	1.363670E+0	1.285697E+0	1.322794E+0	1.346682E+0	1.362133E+0	1.286465E+0	1.294247E+0	1.327690E+0	1.281688E+0	1.355075E+0	1.328783E+0	1.316198E+0	1.304663E+0	1.313816E+0	1.278224E+0	1.314505E+0	1.368692E+0	1.307547E+0	1.290096E+0	1.277879E+0	1.338404E+0	1.338954E+0	1.304314E+0	1.307051E+0	1.292463E+0	1.325403E+0	1.338917E+0	1.336111E+0	1.294485E+0	1.296150E+0	1.303515E+0	1.320348E+0	1.253334E+0	1.340941E+0	1.319036E+0	1.354455E+0	1.287269E+0	1.326310E+0	1.285533E+0	1.359350E+0	1.280714E+0	1.308515E+0	1.269430E+0	1.308272E+0	1.358521E+0	1.377363E+0	1.315282E+0	1.375944E+0	1.289444E+0	1.333401E+0	1.310458E+0	1.352456E+0	1.286013E+0	1.334410E+0	1.320162E+0	1.301748E+0	1.244262E+0	1.336162E+0	1.304732E+0	1.300556E+0	1.304217E+0	1.316218E+0	1.319600E+0	1.348819E+0	1.300072E+0	1.359193E+0	1.330537E+0	1.315052E+0	1.310481E+0	1.343744E+0	1.290893E+0	1.342906E+0	1.271452E+0	1.353478E+0	1.332467E+0	1.291299E+0	1.336401E+0	1.332302E+0	1.314194E+0	1.328577E+0	1.367271E+0	1.314707E+0	1.258907E+0	1.267946E+0	1.326454E+0	1.309993E+0	1.287817E+0
5.497790E+2	1.331345E+0	1.322480E+0	1.298604E+0	1.275567E+0	1.283428E+0	1.214169E+0	1.279409E+0	1.259248E+0	1.330266E+0	1.298455E+0	1.269388E+0	1.308814E+0	1.250664E+0	1.261123E+0	1.269203E+0	1.268680E+0	1.253325E+0	1.336052E+0	1.295020E+0	1.368381E+0	1.301862E+0	1.288939E+0	1.278792E+0	1.246872E+0	1.295384E+0	1.285988E+0	1.325478E+0	1.331394E+0	1.321304E+0	1.264714E+0	1.310679E+0	1.295724E+0	1.309738E+0	1.271463E+0	1.267335E+0	1.252724E+0	1.254128E+0	1.294283E+0	1.321557E+0	1.238796E+0	1.232012E+0	1.218493E+0	1.266117E+0	1.335457E+0	1.275856E+0	1.280786E+0	1.285947E+0	1.299921E+0	1.309189E+0	1.255146E+0	1.237576E+0	1.190386E+0	1.337961E+0	1.318432E+0	1.282361E+0	1.251895E+0	1.357662E+0	1.309763E+0	1.322784E+0	1.279814E+0	1.266396E+0	1.297624E+0	1.314947E+0	1.276979E+0	1.251597E+0	1.266716E+0	1.320038E+0	1.274389E+0	1.305290E+0	1.229211E+0	1.285199E+0	1.321641E+0	1.267241E+0	1.258581E+0	1.266500E+0	1.291124E+0	1.294661E+0	1.309678E+0	1.234181E+0	1.257133E+0	1.270437E+0	1.291627E+0	1.248481E+0	1.302920E+0	1.261523E+0	1.248592E+0	1.286488E+0	1.270812E+0	1.242153E+0	1.280411E+0	1.275323E+0	1.301001E+0	1.284390E+0	1.273362E+0	1.271214E+0	1.260388E+0	1.262665E+0	1.249546E+0	1.291605E+0	1.272619E+0	1.317216E+0	1.260700E+0	1.234337E+0	1.226751E+0	1.287632E+0	1.236782E+0	1.198952E+0	1.354321E+0	1.288150E+0	1.276516E+0	1.253844E+0	1.315972E+0	1.262310E+0	1.286522E+0	1.286404E+0	1.268681E+0	1.287459E+0	1.237677E+0	1.325839E+0	1.286373E+0	1.276568E+0	1.263207E+0	1.247725E+0	1.307900E+0	1.319616E+0	1.278955E+0	1.297447E+0	1.292388E+0	1.254606E+0	1.234614E+0	1.296326E+0	1.241186E+0	1.237011E+0	1.316727E+0	1.200142E+0	1.241377E+0	1.329846E+0	1.296001E+0	1.213305E+0	1.286141E+0	1.320716E+0	1.251303E+0	1.270683E+0	1.306670E+0	1.260447E+0	1.280470E+0	1.292464E+0	1.293624E+0	1.311337E+0	1.281914E+0	1.286258E+0	1.277237E+0	1.301200E+0	1.260025E+0	1.257619E+0	1.255600E+0	1.307975E+0	1.259030E+0	1.273869E+0	1.301453E+0	1.259354E+0	1.216191E+0	1.274156E+0	1.315010E+0	1.286421E+0	1.261750E+0	1.262372E+0	1.261760E+0	1.285181E+0	1.213186E+0
5.505060E+2	1.253194E+0	1.170566E+0	1.237070E+0	1.289594E+0	1.280564E+0	1.183703E+0	1.205906E+0	1.244585E+0	1.229340E+0	1.214074E+0	1.257571E+0	1.235129E+0	1.186708E+0	1.208976E+0	1.214629E+0	1.164591E+0	1.296471E+0	1.260738E+0	1.233750E+0	1.218543E+0	1.300016E+0	1.260801E+0	1.221736E+0	1.264403E+0	1.267155E+0	1.245340E+0	1.272431E+0	1.272932E+0	1.259244E+0	1.200368E+0	1.217397E+0	1.257209E+0	1.270066E+0	1.250162E+0	1.230744E+0	1.245020E+0	1.210523E+0	1.218423E+0	1.264435E+0	1.241184E+0	1.228436E+0	1.208555E+0	1.166448E+0	1.233465E+0	1.234656E+0	1.285846E+0	1.271523E+0	1.234409E+0	1.261113E+0	1.274313E+0	1.233917E+0	1.237618E+0	1.260055E+0	1.204411E+0	1.229721E+0	1.260042E+0	1.241488E+0	1.229141E+0	1.271797E+0	1.225133E+0	1.255626E+0	1.255450E+0	1.252037E+0	1.238877E+0	1.237259E+0	1.201841E+0	1.277282E+0	1.232376E+0	1.243861E+0	1.210364E+0	1.239143E+0	1.276174E+0	1.298978E+0	1.221494E+0	1.259124E+0	1.211479E+0	1.230868E+0	1.221132E+0	1.250077E+0	1.255490E+0	1.237139E+0	1.177648E+0	1.262993E+0	1.276740E+0	1.261310E+0	1.265380E+0	1.212296E+0	1.230541E+0	1.228643E+0	1.132650E+0	1.213936E+0	1.202528E+0	1.249122E+0	1.238951E+0	1.284458E+0	1.215970E+0	1.233373E+0	1.225864E+0	1.275260E+0	1.248773E+0	1.187618E+0	1.211701E+0	1.247233E+0	1.203077E+0	1.234861E+0	1.194798E+0	1.236253E+0	1.310625E+0	1.240982E+0	1.259038E+0	1.199459E+0	1.202875E+0	1.252627E+0	1.237911E+0	1.214590E+0	1.225958E+0	1.264814E+0	1.189178E+0	1.303727E+0	1.242053E+0	1.187957E+0	1.201317E+0	1.183455E+0	1.266591E+0	1.305794E+0	1.227983E+0	1.199747E+0	1.251826E+0	1.212326E+0	1.257354E+0	1.255555E+0	1.208707E+0	1.238078E+0	1.247423E+0	1.248248E+0	1.188423E+0	1.212362E+0	1.248387E+0	1.255198E+0	1.238679E+0	1.233794E+0	1.233776E+0	1.281128E+0	1.235074E+0	1.236898E+0	1.185228E+0	1.230446E+0	1.237825E+0	1.229337E+0	1.206825E+0	1.185722E+0	1.248775E+0	1.292438E+0	1.250318E+0	1.219180E+0	1.255826E+0	1.220262E+0	1.247737E+0	1.206575E+0	1.280893E+0	1.208379E+0	1.175206E+0	1.232141E+0	1.212945E+0	1.264690E+0	1.204767E+0	1.220403E+0	1.237642E+0	1.248783E+0	1.210532E+0
5.512570E+2	1.228920E+0	1.225317E+0	1.241220E+0	1.263483E+0	1.251321E+0	1.178299E+0	1.222441E+0	1.197431E+0	1.247647E+0	1.182109E+0	1.289501E+0	1.234966E+0	1.187797E+0	1.212278E+0	1.205766E+0	1.241791E+0	1.214361E+0	1.259147E+0	1.240543E+0	1.208065E+0	1.220338E+0	1.220578E+0	1.213648E+0	1.181572E+0	1.251545E+0	1.228477E+0	1.263712E+0	1.225133E+0	1.240397E+0	1.195966E+0	1.214249E+0	1.223654E+0	1.255951E+0	1.193844E+0	1.260309E+0	1.248180E+0	1.253577E+0	1.247112E+0	1.265611E+0	1.179327E+0	1.244891E+0	1.223034E+0	1.205234E+0	1.209066E+0	1.214372E+0	1.197541E+0	1.201546E+0	1.252915E+0	1.196958E+0	1.263343E+0	1.239885E+0	1.289689E+0	1.245757E+0	1.281712E+0	1.227479E+0	1.231701E+0	1.271916E+0	1.247531E+0	1.250843E+0	1.235777E+0	1.217023E+0	1.225600E+0	1.246317E+0	1.205527E+0	1.206719E+0	1.241183E+0	1.198798E+0	1.244415E+0	1.237824E+0	1.184105E+0	1.249809E+0	1.227045E+0	1.270093E+0	1.240698E+0	1.231798E+0	1.187344E+0	1.187845E+0	1.228660E+0	1.200495E+0	1.225568E+0	1.185783E+0	1.189777E+0	1.221669E+0	1.220818E+0	1.250922E+0	1.255071E+0	1.242382E+0	1.210471E+0	1.194843E+0	1.157302E+0	1.246792E+0	1.195225E+0	1.269730E+0	1.213151E+0	1.237747E+0	1.275233E+0	1.226354E+0	1.243435E+0	1.190113E+0	1.220087E+0	1.241114E+0	1.267748E+0	1.237185E+0	1.235079E+0	1.236251E+0	1.241528E+0	1.236136E+0	1.261803E+0	1.286134E+0	1.219135E+0	1.176474E+0	1.252813E+0	1.216770E+0	1.230913E+0	1.226576E+0	1.214134E+0	1.223437E+0	1.198873E+0	1.235969E+0	1.270118E+0	1.284854E+0	1.195706E+0	1.281106E+0	1.261089E+0	1.236832E+0	1.191505E+0	1.208191E+0	1.225503E+0	1.210311E+0	1.226307E+0	1.195910E+0	1.162631E+0	1.199369E+0	1.224499E+0	1.256959E+0	1.220048E+0	1.262180E+0	1.244744E+0	1.244515E+0	1.217370E+0	1.187199E+0	1.188290E+0	1.260612E+0	1.207282E+0	1.275252E+0	1.223475E+0	1.233806E+0	1.248320E+0	1.237640E+0	1.252396E+0	1.201640E+0	1.244974E+0	1.255066E+0	1.242922E+0	1.218361E+0	1.201542E+0	1.226702E+0	1.212901E+0	1.210644E+0	1.229758E+0	1.222032E+0	1.217033E+0	1.206261E+0	1.249804E+0	1.211346E+0	1.200015E+0	1.180757E+0	1.240620E+0	1.201282E+0	1.181736E+0
5.520100E+2	1.293572E+0	1.263397E+0	1.226459E+0	1.276107E+0	1.315242E+0	1.247251E+0	1.223601E+0	1.227271E+0	1.206577E+0	1.261454E+0	1.280104E+0	1.245636E+0	1.275598E+0	1.227514E+0	1.254280E+0	1.238176E+0	1.254942E+0	1.239850E+0	1.216268E+0	1.263291E+0	1.314398E+0	1.205152E+0	1.232837E+0	1.226694E+0	1.226975E+0	1.292710E+0	1.267023E+0	1.259801E+0	1.290875E+0	1.247127E+0	1.218115E+0	1.316833E+0	1.269872E+0	1.199732E+0	1.263838E+0	1.295749E+0	1.250936E+0	1.275047E+0	1.292076E+0	1.277267E+0	1.226065E+0	1.261228E+0	1.242933E+0	1.216445E+0	1.262444E+0	1.263205E+0	1.233991E+0	1.225257E+0	1.260979E+0	1.250382E+0	1.224843E+0	1.262471E+0	1.279178E+0	1.240748E+0	1.237831E+0	1.206288E+0	1.269022E+0	1.245770E+0	1.251950E+0	1.175781E+0	1.218263E+0	1.307738E+0	1.271071E+0	1.305227E+0	1.248915E+0	1.283785E+0	1.217671E+0	1.227916E+0	1.257606E+0	1.259981E+0	1.249257E+0	1.251044E+0	1.279516E+0	1.236787E+0	1.281070E+0	1.219853E+0	1.257376E+0	1.250770E+0	1.280979E+0	1.263495E+0	1.240965E+0	1.239349E+0	1.281896E+0	1.276962E+0	1.210409E+0	1.262724E+0	1.253303E+0	1.248705E+0	1.241884E+0	1.203025E+0	1.268503E+0	1.309460E+0	1.284574E+0	1.263874E+0	1.223602E+0	1.286380E+0	1.268608E+0	1.263500E+0	1.269456E+0	1.243637E+0	1.247472E+0	1.241807E+0	1.206752E+0	1.263942E+0	1.259662E+0	1.251528E+0	1.257657E+0	1.284532E+0	1.249690E+0	1.250735E+0	1.279820E+0	1.209019E+0	1.292036E+0	1.228455E+0	1.217153E+0	1.263955E+0	1.241241E+0	1.238895E+0	1.278390E+0	1.282051E+0	1.280109E+0	1.204217E+0	1.273914E+0	1.261206E+0	1.240961E+0	1.249596E+0	1.262918E+0	1.254914E+0	1.282770E+0	1.205719E+0	1.249485E+0	1.245153E+0	1.236069E+0	1.238659E+0	1.239894E+0	1.204611E+0	1.269250E+0	1.291483E+0	1.297966E+0	1.294488E+0	1.248401E+0	1.201530E+0	1.286243E+0	1.245070E+0	1.288308E+0	1.228870E+0	1.236931E+0	1.236757E+0	1.232584E+0	1.240979E+0	1.184702E+0	1.223966E+0	1.248934E+0	1.274131E+0	1.259136E+0	1.240967E+0	1.243550E+0	1.218478E+0	1.248186E+0	1.254267E+0	1.271561E+0	1.249548E+0	1.285849E+0	1.259732E+0	1.220470E+0	1.179976E+0	1.166951E+0	1.196407E+0	1.214466E+0	1.187915E+0
5.527590E+2	1.308260E+0	1.221101E+0	1.192234E+0	1.292359E+0	1.247230E+0	1.214890E+0	1.169561E+0	1.175428E+0	1.188047E+0	1.187571E+0	1.240569E+0	1.217626E+0	1.224136E+0	1.227915E+0	1.203969E+0	1.232159E+0	1.263550E+0	1.259815E+0	1.218047E+0	1.220544E+0	1.275695E+0	1.292787E+0	1.264487E+0	1.222904E+0	1.252829E+0	1.234015E+0	1.253634E+0	1.222561E+0	1.276865E+0	1.189380E+0	1.207525E+0	1.292197E+0	1.257935E+0	1.195584E+0	1.226230E+0	1.223944E+0	1.255414E+0	1.240698E+0	1.274841E+0	1.252144E+0	1.232366E+0	1.204569E+0	1.199110E+0	1.235432E+0	1.224429E+0	1.238908E+0	1.250160E+0	1.192892E+0	1.270902E+0	1.315407E+0	1.239528E+0	1.236761E+0	1.252895E+0	1.221299E+0	1.243159E+0	1.226061E+0	1.252924E+0	1.222565E+0	1.216385E+0	1.235168E+0	1.243693E+0	1.235207E+0	1.213978E+0	1.211130E+0	1.169291E+0	1.215034E+0	1.238316E+0	1.216850E+0	1.219397E+0	1.190963E+0	1.192514E+0	1.263932E+0	1.236268E+0	1.240879E+0	1.199696E+0	1.229174E+0	1.256094E+0	1.232290E+0	1.237674E+0	1.193611E+0	1.242877E+0	1.208844E+0	1.232542E+0	1.257252E+0	1.253174E+0	1.220296E+0	1.208125E+0	1.258283E+0	1.196017E+0	1.178819E+0	1.156313E+0	1.265010E+0	1.276391E+0	1.162660E+0	1.232771E+0	1.228083E+0	1.230183E+0	1.224428E+0	1.305361E+0	1.236323E+0	1.211707E+0	1.245210E+0	1.208983E+0	1.252075E+0	1.233590E+0	1.242482E+0	1.215065E+0	1.234622E+0	1.207228E+0	1.286895E+0	1.211491E+0	1.221285E+0	1.194855E+0	1.195241E+0	1.246223E+0	1.271464E+0	1.266987E+0	1.248426E+0	1.255372E+0	1.226072E+0	1.220214E+0	1.192548E+0	1.202840E+0	1.262304E+0	1.246112E+0	1.214633E+0	1.228010E+0	1.271442E+0	1.245733E+0	1.250371E+0	1.214409E+0	1.226870E+0	1.240601E+0	1.247297E+0	1.201937E+0	1.195698E+0	1.195979E+0	1.329576E+0	1.178851E+0	1.242115E+0	1.214206E+0	1.216935E+0	1.247574E+0	1.195133E+0	1.207880E+0	1.198339E+0	1.242695E+0	1.220966E+0	1.254653E+0	1.214405E+0	1.238757E+0	1.214150E+0	1.276901E+0	1.238732E+0	1.261240E+0	1.227193E+0	1.227789E+0	1.240331E+0	1.262408E+0	1.269366E+0	1.204776E+0	1.151008E+0	1.220342E+0	1.241937E+0	1.312646E+0	1.225355E+0	1.265481E+0	1.209578E+0	1.198897E+0	1.243745E+0
5.534940E+2	1.183949E+0	1.146542E+0	1.161565E+0	1.173052E+0	1.216290E+0	1.168476E+0	1.099103E+0	1.135652E+0	1.223044E+0	1.186186E+0	1.194924E+0	1.131527E+0	1.162089E+0	1.170207E+0	1.123299E+0	1.177621E+0	1.107064E+0	1.158447E+0	1.177408E+0	1.153369E+0	1.165840E+0	1.127526E+0	1.125955E+0	1.137412E+0	1.159664E+0	1.163512E+0	1.151914E+0	1.167162E+0	1.135969E+0	1.125883E+0	1.150096E+0	1.180577E+0	1.147956E+0	1.179396E+0	1.112792E+0	1.157244E+0	1.179269E+0	1.133100E+0	1.176821E+0	1.142131E+0	1.159147E+0	1.196100E+0	1.157151E+0	1.180387E+0	1.168594E+0	1.135627E+0	1.130539E+0	1.149952E+0	1.158065E+0	1.131147E+0	1.113059E+0	1.179339E+0	1.202306E+0	1.229909E+0	1.114723E+0	1.129128E+0	1.194949E+0	1.147758E+0	1.210243E+0	1.120453E+0	1.129233E+0	1.147964E+0	1.164202E+0	1.188511E+0	1.106258E+0	1.202779E+0	1.149651E+0	1.174272E+0	1.121507E+0	1.146238E+0	1.163005E+0	1.170145E+0	1.159269E+0	1.196446E+0	1.173583E+0	1.164807E+0	1.129772E+0	1.148997E+0	1.133609E+0	1.088978E+0	1.188606E+0	1.088003E+0	1.156381E+0	1.135388E+0	1.181651E+0	1.065252E+0	1.167703E+0	1.184973E+0	1.169839E+0	1.126264E+0	1.111743E+0	1.134571E+0	1.198173E+0	1.142672E+0	1.184947E+0	1.097800E+0	1.137832E+0	1.124394E+0	1.164794E+0	1.218130E+0	1.111889E+0	1.181499E+0	1.140593E+0	1.160845E+0	1.129751E+0	1.137542E+0	1.153494E+0	1.166579E+0	1.155682E+0	1.115312E+0	1.154721E+0	1.153869E+0	1.180002E+0	1.143723E+0	1.186758E+0	1.196059E+0	1.162731E+0	1.107880E+0	1.154104E+0	1.175344E+0	1.133414E+0	1.137645E+0	1.130158E+0	1.162285E+0	1.172737E+0	1.130734E+0	1.149824E+0	1.119213E+0	1.200230E+0	1.140923E+0	1.111197E+0	1.166646E+0	1.151236E+0	1.115124E+0	1.173680E+0	1.175921E+0	1.135900E+0	1.187599E+0	1.088046E+0	1.180442E+0	1.161970E+0	1.185262E+0	1.163419E+0	1.131407E+0	1.178480E+0	1.113339E+0	1.187983E+0	1.133699E+0	1.144042E+0	1.169589E+0	1.118293E+0	1.203748E+0	1.143929E+0	1.171307E+0	1.147340E+0	1.104263E+0	1.153260E+0	1.155738E+0	1.230923E+0	1.136630E+0	1.135558E+0	1.144606E+0	1.094044E+0	1.063219E+0	1.181715E+0	1.134650E+0	1.141558E+0	1.176606E+0	1.122203E+0	1.133604E+0
5.542580E+2	1.089302E+0	1.079891E+0	1.161967E+0	1.064981E+0	1.162372E+0	1.121803E+0	1.087695E+0	1.088538E+0	1.105791E+0	1.088985E+0	1.083292E+0	1.109706E+0	1.078193E+0	1.073853E+0	1.081453E+0	1.077694E+0	1.037082E+0	1.085621E+0	1.082930E+0	1.095601E+0	1.156029E+0	1.075345E+0	1.112288E+0	1.106617E+0	1.139429E+0	1.106634E+0	1.087482E+0	1.208570E+0	1.065925E+0	1.099084E+0	1.088999E+0	1.077392E+0	1.085316E+0	1.066510E+0	1.130668E+0	1.158381E+0	1.139146E+0	1.068781E+0	1.137305E+0	1.092357E+0	1.107818E+0	1.070714E+0	1.080964E+0	1.099370E+0	1.065196E+0	1.108254E+0	1.131914E+0	1.094883E+0	1.125614E+0	1.125216E+0	1.022023E+0	1.125031E+0	1.100994E+0	1.117734E+0	1.148547E+0	1.133862E+0	1.072413E+0	1.079852E+0	1.110858E+0	1.141436E+0	1.116904E+0	1.135389E+0	1.125957E+0	1.057708E+0	1.115241E+0	1.099739E+0	1.121172E+0	1.122458E+0	1.108335E+0	1.048468E+0	1.100618E+0	1.081596E+0	1.100975E+0	1.150382E+0	1.119722E+0	1.096402E+0	1.104959E+0	1.079139E+0	1.118900E+0	1.093766E+0	1.104257E+0	1.102470E+0	1.099829E+0	1.124096E+0	1.108078E+0	1.059193E+0	1.086256E+0	1.118056E+0	1.101025E+0	1.094792E+0	1.083042E+0	1.068811E+0	1.055196E+0	1.103100E+0	1.085546E+0	1.082811E+0	1.095258E+0	1.103061E+0	1.130133E+0	1.028472E+0	1.153516E+0	1.134128E+0	1.123758E+0	1.037774E+0	1.113123E+0	1.120141E+0	1.070062E+0	1.117925E+0	1.138546E+0	1.128230E+0	1.108637E+0	1.097940E+0	1.141099E+0	1.110962E+0	1.107749E+0	1.099818E+0	1.101921E+0	1.069066E+0	1.082277E+0	1.107422E+0	1.122107E+0	1.097957E+0	1.072522E+0	1.140360E+0	1.108107E+0	1.117121E+0	1.087781E+0	1.126750E+0	1.084948E+0	1.125495E+0	1.045880E+0	1.093798E+0	1.074678E+0	1.075533E+0	1.110198E+0	1.031283E+0	1.057283E+0	1.133849E+0	1.085043E+0	1.108516E+0	1.171788E+0	1.099916E+0	1.136885E+0	1.110672E+0	1.049014E+0	1.084571E+0	1.119690E+0	1.054270E+0	1.110046E+0	1.121559E+0	1.064523E+0	1.109365E+0	1.147931E+0	1.135171E+0	1.095987E+0	1.153413E+0	1.062754E+0	1.062750E+0	1.075409E+0	1.058131E+0	1.091878E+0	1.072124E+0	1.064719E+0	1.152107E+0	1.108411E+0	1.125384E+0	1.090426E+0	1.113522E+0	1.079585E+0	1.082960E+0
5.550140E+2	1.039073E+0	9.987792E-1	9.858805E-1	1.006067E+0	1.034548E+0	9.781852E-1	9.436910E-1	9.966490E-1	9.934818E-1	9.676163E-1	1.030664E+0	1.001889E+0	9.797302E-1	9.414848E-1	9.769496E-1	9.834275E-1	9.937878E-1	1.036286E+0	9.754188E-1	9.952687E-1	1.039355E+0	1.062154E+0	1.009518E+0	9.837575E-1	1.016112E+0	1.023148E+0	1.005476E+0	1.051614E+0	1.032733E+0	1.004752E+0	9.662459E-1	9.678366E-1	1.047002E+0	9.580887E-1	9.653994E-1	1.002607E+0	1.013295E+0	1.042609E+0	1.052868E+0	9.714444E-1	9.715742E-1	9.518192E-1	1.005651E+0	1.031723E+0	1.008325E+0	9.577866E-1	1.034779E+0	9.529185E-1	1.007733E+0	1.031652E+0	1.003826E+0	1.002915E+0	1.045770E+0	1.023094E+0	9.660210E-1	9.711604E-1	1.016960E+0	9.750003E-1	9.824055E-1	9.720516E-1	9.764597E-1	1.030835E+0	9.909600E-1	1.024162E+0	9.945315E-1	1.048940E+0	9.875595E-1	1.036215E+0	9.832474E-1	9.754084E-1	9.937938E-1	1.044013E+0	9.949590E-1	9.967189E-1	9.876074E-1	1.016394E+0	9.833932E-1	1.031038E+0	1.037542E+0	9.916258E-1	9.555859E-1	1.008844E+0	1.019025E+0	9.573147E-1	1.023191E+0	1.012188E+0	1.020352E+0	1.016410E+0	9.623255E-1	9.480860E-1	1.008959E+0	9.881876E-1	1.001205E+0	9.894273E-1	1.021143E+0	1.013799E+0	1.007086E+0	9.925804E-1	9.694875E-1	9.992988E-1	1.038817E+0	1.006190E+0	1.003878E+0	1.036540E+0	1.027856E+0	9.907472E-1	9.967329E-1	9.985440E-1	9.602630E-1	9.996527E-1	1.025726E+0	9.850872E-1	1.009154E+0	1.014517E+0	1.004302E+0	1.007386E+0	9.930668E-1	9.948690E-1	1.017429E+0	1.007230E+0	1.027687E+0	1.015312E+0	9.690138E-1	1.068988E+0	9.793313E-1	9.535756E-1	9.640496E-1	1.010785E+0	9.496541E-1	9.821286E-1	9.968655E-1	9.416077E-1	9.761838E-1	9.820740E-1	1.007597E+0	9.886135E-1	1.021389E+0	9.801604E-1	1.043471E+0	9.871205E-1	1.004589E+0	1.015842E+0	1.032789E+0	1.016421E+0	1.009951E+0	9.876712E-1	1.045418E+0	9.678561E-1	1.053944E+0	9.871174E-1	9.632875E-1	1.041141E+0	1.036697E+0	9.905626E-1	9.890630E-1	9.920051E-1	1.012179E+0	9.888135E-1	1.038513E+0	1.012383E+0	9.855923E-1	9.674170E-1	1.017536E+0	9.961459E-1	1.077647E+0	9.709110E-1	1.003101E+0	1.040639E+0	9.874597E-1	9.878282E-1
5.557600E+2	9.756205E-1	9.218285E-1	9.176024E-1	9.622157E-1	1.001314E+0	8.966414E-1	9.204891E-1	8.919085E-1	9.401152E-1	9.431791E-1	9.620501E-1	9.300001E-1	9.447239E-1	9.158858E-1	9.117508E-1	9.530957E-1	9.138329E-1	9.614038E-1	9.648327E-1	9.708720E-1	9.756005E-1	9.527706E-1	9.259308E-1	9.428508E-1	9.921642E-1	9.351422E-1	9.843541E-1	9.646775E-1	9.666068E-1	9.338089E-1	9.458238E-1	9.893457E-1	9.824329E-1	9.587890E-1	9.672819E-1	9.675456E-1	9.481375E-1	9.349519E-1	9.983441E-1	9.664074E-1	9.240303E-1	9.876606E-1	9.437457E-1	9.655056E-1	9.583322E-1	9.328714E-1	9.483555E-1	9.735782E-1	9.827568E-1	9.375991E-1	9.732154E-1	9.655892E-1	9.839101E-1	9.846380E-1	9.776164E-1	9.472238E-1	9.949248E-1	9.879143E-1	9.557493E-1	9.544493E-1	9.714735E-1	9.307486E-1	9.379941E-1	9.617819E-1	9.699445E-1	9.551910E-1	1.039995E+0	9.353803E-1	9.606584E-1	9.399005E-1	9.760168E-1	9.624079E-1	1.003940E+0	9.459439E-1	9.182352E-1	9.793713E-1	9.369541E-1	9.858211E-1	9.334891E-1	9.321455E-1	9.339195E-1	9.672668E-1	9.635281E-1	9.760316E-1	9.473566E-1	9.030410E-1	9.736519E-1	9.915196E-1	9.713616E-1	8.856283E-1	9.681231E-1	9.497175E-1	9.577360E-1	9.516147E-1	1.002227E+0	1.000896E+0	1.009308E+0	9.440179E-1	9.640164E-1	9.655216E-1	1.021056E+0	9.412686E-1	9.642930E-1	9.502036E-1	9.939590E-1	9.435390E-1	9.776023E-1	9.392828E-1	9.302441E-1	9.524511E-1	9.324149E-1	9.423953E-1	9.481139E-1	9.204891E-1	1.021042E+0	9.744431E-1	9.296529E-1	9.902470E-1	9.629507E-1	9.525123E-1	9.758746E-1	9.191237E-1	9.620653E-1	9.976540E-1	9.734778E-1	9.338885E-1	9.337694E-1	9.386046E-1	9.815844E-1	1.009433E+0	9.103375E-1	9.324537E-1	9.588361E-1	9.458562E-1	9.383331E-1	9.589559E-1	9.489540E-1	9.163502E-1	9.598643E-1	9.744875E-1	9.857991E-1	9.589233E-1	9.439369E-1	9.516068E-1	9.732773E-1	9.123875E-1	9.663591E-1	9.193515E-1	9.504075E-1	9.274329E-1	9.086819E-1	9.328552E-1	9.525605E-1	9.146917E-1	9.482511E-1	9.556455E-1	9.498199E-1	9.998525E-1	9.447217E-1	8.887966E-1	9.233409E-1	9.821277E-1	9.676720E-1	9.795714E-1	9.920303E-1	9.799794E-1	9.827567E-1	9.784974E-1	9.662287E-1	9.284136E-1
5.560190E+2	9.505139E-1	9.347070E-1	9.520680E-1	9.459257E-1	9.901734E-1	9.818739E-1	9.293712E-1	9.100645E-1	9.662372E-1	9.680115E-1	9.700825E-1	9.626328E-1	9.026176E-1	9.345210E-1	9.415017E-1	9.583168E-1	9.041467E-1	9.487705E-1	9.359472E-1	9.557664E-1	9.462621E-1	9.124441E-1	9.067030E-1	9.088876E-1	9.574849E-1	9.650528E-1	8.625849E-1	1.005144E+0	9.660678E-1	9.606291E-1	9.431398E-1	9.664819E-1	9.220412E-1	9.908358E-1	9.059432E-1	9.440907E-1	9.204851E-1	9.936410E-1	9.540615E-1	9.529278E-1	9.540178E-1	9.465693E-1	9.337529E-1	9.756379E-1	9.534748E-1	9.618852E-1	9.585168E-1	9.254631E-1	9.520678E-1	9.477910E-1	9.325290E-1	9.683159E-1	9.813876E-1	9.701236E-1	9.571573E-1	9.834947E-1	9.958249E-1	9.618709E-1	9.939680E-1	9.399795E-1	9.763747E-1	9.920470E-1	9.722832E-1	8.950557E-1	9.707045E-1	9.506671E-1	9.613870E-1	9.458237E-1	9.292688E-1	9.371765E-1	9.551923E-1	9.757207E-1	9.777796E-1	9.796549E-1	9.535453E-1	9.594262E-1	9.855803E-1	9.394118E-1	9.550139E-1	9.323804E-1	9.353248E-1	9.507036E-1	9.412040E-1	9.570490E-1	9.229441E-1	9.743761E-1	9.589302E-1	9.470949E-1	9.553067E-1	9.521097E-1	9.905601E-1	9.612595E-1	9.548626E-1	9.791465E-1	1.001469E+0	9.210997E-1	9.384734E-1	9.182456E-1	1.009104E+0	9.001317E-1	9.571020E-1	9.680116E-1	9.864869E-1	9.758411E-1	9.149874E-1	9.436279E-1	9.727994E-1	9.777514E-1	9.553038E-1	9.326056E-1	9.077472E-1	9.489985E-1	9.352699E-1	9.662090E-1	9.600864E-1	9.331271E-1	9.585452E-1	9.361418E-1	9.880500E-1	9.414497E-1	9.706937E-1	9.465142E-1	9.286188E-1	1.024836E+0	9.780098E-1	9.405512E-1	9.702970E-1	9.547827E-1	9.274729E-1	9.486221E-1	9.376260E-1	8.920675E-1	8.992613E-1	9.610255E-1	9.587355E-1	8.990401E-1	9.957888E-1	9.727474E-1	8.818196E-1	8.986748E-1	9.350742E-1	9.287018E-1	9.443367E-1	9.192997E-1	9.965332E-1	9.494003E-1	9.065276E-1	9.395271E-1	9.392866E-1	9.852439E-1	9.188782E-1	9.578205E-1	9.283209E-1	9.379324E-1	8.931693E-1	9.407521E-1	9.853640E-1	9.703452E-1	9.693877E-1	9.738751E-1	9.581992E-1	9.154732E-1	9.134990E-1	9.285462E-1	9.806641E-1	9.011969E-1	9.493484E-1	9.642168E-1	9.670343E-1	9.964838E-1
5.565140E+2	9.579574E-1	9.618413E-1	1.013729E+0	9.211823E-1	9.519882E-1	9.641984E-1	8.985767E-1	9.178161E-1	9.520140E-1	9.651660E-1	9.962244E-1	1.003684E+0	9.632432E-1	9.559828E-1	1.000114E+0	9.231529E-1	8.824509E-1	9.789593E-1	9.838820E-1	9.963679E-1	9.919531E-1	9.595307E-1	9.108129E-1	9.287146E-1	1.002382E+0	9.607805E-1	9.865091E-1	9.864812E-1	9.366808E-1	9.503729E-1	9.461080E-1	9.858872E-1	9.717717E-1	9.297762E-1	9.527830E-1	9.820917E-1	9.493599E-1	9.245134E-1	9.965070E-1	9.807296E-1	9.506687E-1	9.881324E-1	9.605034E-1	9.624408E-1	9.929732E-1	9.490777E-1	9.368744E-1	9.367453E-1	9.429447E-1	9.758278E-1	9.732167E-1	1.000612E+0	9.842765E-1	9.787578E-1	9.606798E-1	9.632101E-1	9.828269E-1	9.764138E-1	1.000837E+0	9.491996E-1	9.512086E-1	9.320417E-1	9.508839E-1	9.044598E-1	9.564870E-1	1.016391E+0	9.694647E-1	9.324778E-1	9.603333E-1	9.507805E-1	9.960439E-1	9.497205E-1	9.452757E-1	9.449925E-1	9.410810E-1	1.007127E+0	9.547165E-1	9.589585E-1	9.690509E-1	8.901706E-1	9.568036E-1	9.829592E-1	1.000830E+0	9.816741E-1	9.593246E-1	9.508304E-1	9.688607E-1	9.825823E-1	9.644635E-1	9.806039E-1	1.004162E+0	9.576520E-1	9.952697E-1	9.496642E-1	9.833855E-1	9.438748E-1	1.005865E+0	9.551181E-1	9.716668E-1	9.301817E-1	9.322062E-1	9.725035E-1	9.383954E-1	9.645922E-1	1.010339E+0	9.629002E-1	9.609109E-1	1.021687E+0	9.596242E-1	9.816159E-1	9.559945E-1	9.872050E-1	9.353571E-1	9.484756E-1	9.517098E-1	9.367648E-1	9.789797E-1	9.123431E-1	9.729543E-1	1.035750E+0	9.730914E-1	9.703760E-1	9.720939E-1	1.005935E+0	9.744787E-1	9.758946E-1	9.965662E-1	9.466282E-1	9.903415E-1	9.599453E-1	9.899627E-1	9.726980E-1	9.533855E-1	9.399893E-1	9.686486E-1	9.810330E-1	1.016733E+0	9.704905E-1	9.282994E-1	9.519089E-1	9.679074E-1	9.639319E-1	1.018579E+0	9.163012E-1	9.989802E-1	9.546313E-1	9.520223E-1	9.714257E-1	9.752892E-1	9.556623E-1	9.357983E-1	9.632089E-1	1.055813E+0	9.913568E-1	9.497874E-1	9.536138E-1	9.767764E-1	9.211838E-1	9.656265E-1	1.053001E+0	9.408430E-1	9.424687E-1	9.318770E-1	9.279092E-1	9.762877E-1	9.375460E-1	9.440198E-1	9.806850E-1	9.421317E-1	1.015042E+0
5.570050E+2	9.907688E-1	9.597220E-1	9.300405E-1	9.289903E-1	9.475512E-1	9.296249E-1	9.354317E-1	8.848411E-1	9.693971E-1	9.415292E-1	9.557482E-1	9.894164E-1	8.883101E-1	9.230379E-1	9.363746E-1	9.208212E-1	9.306315E-1	9.641945E-1	9.274656E-1	9.218383E-1	9.915132E-1	9.216138E-1	9.564722E-1	9.214748E-1	9.023245E-1	9.548968E-1	8.857244E-1	9.750593E-1	9.317323E-1	9.173447E-1	9.219567E-1	9.412006E-1	9.375468E-1	9.470284E-1	8.914627E-1	9.586114E-1	8.976506E-1	9.414228E-1	9.870466E-1	9.675341E-1	9.268299E-1	9.693558E-1	9.276039E-1	9.258479E-1	9.566157E-1	9.376164E-1	9.448758E-1	9.305716E-1	9.069624E-1	9.856074E-1	9.198846E-1	9.683525E-1	9.404462E-1	9.597675E-1	9.315781E-1	8.856259E-1	9.621219E-1	9.854864E-1	9.786300E-1	9.028743E-1	9.680145E-1	9.788014E-1	9.626535E-1	9.269779E-1	9.194229E-1	9.540083E-1	9.643459E-1	9.476275E-1	9.476617E-1	9.655847E-1	9.441869E-1	9.335593E-1	9.606696E-1	9.332665E-1	9.470510E-1	9.629044E-1	9.605174E-1	9.708214E-1	9.272292E-1	9.521117E-1	9.049554E-1	8.619965E-1	9.291273E-1	9.836034E-1	8.680697E-1	9.187693E-1	9.190128E-1	9.585615E-1	9.381851E-1	9.357910E-1	9.384066E-1	9.201367E-1	9.628432E-1	9.386232E-1	9.827966E-1	9.376835E-1	9.334295E-1	9.401130E-1	9.387838E-1	9.265578E-1	9.229770E-1	9.403436E-1	9.017340E-1	8.906421E-1	9.150225E-1	9.568140E-1	9.690711E-1	9.692996E-1	9.143508E-1	9.701895E-1	9.564995E-1	9.382513E-1	9.353476E-1	9.696028E-1	8.974069E-1	9.220400E-1	9.174361E-1	9.679279E-1	9.794772E-1	9.736548E-1	9.445973E-1	8.991839E-1	9.281322E-1	9.477910E-1	9.552398E-1	9.235406E-1	9.645300E-1	9.609275E-1	9.051709E-1	9.953690E-1	9.546735E-1	9.529749E-1	9.100698E-1	9.353823E-1	9.513611E-1	8.703876E-1	9.050923E-1	9.841472E-1	9.245169E-1	9.392071E-1	9.598835E-1	9.845013E-1	9.656793E-1	9.115734E-1	9.338205E-1	8.914130E-1	9.476921E-1	9.140725E-1	9.631740E-1	9.587971E-1	8.793930E-1	9.326366E-1	9.621170E-1	1.006404E+0	9.560007E-1	9.225693E-1	9.693303E-1	9.631210E-1	9.194824E-1	9.765013E-1	9.792751E-1	9.015151E-1	9.274132E-1	9.854912E-1	9.731606E-1	9.444723E-1	9.806138E-1	9.225410E-1	9.236226E-1	9.542003E-1
5.575080E+2	9.300135E-1	9.519242E-1	9.472771E-1	8.843821E-1	9.909436E-1	8.906963E-1	9.722076E-1	9.320865E-1	9.681793E-1	9.190815E-1	1.002568E+0	9.498946E-1	9.112660E-1	9.357197E-1	9.001804E-1	9.035401E-1	9.760880E-1	9.734859E-1	9.309565E-1	9.761959E-1	9.714598E-1	9.586785E-1	9.157137E-1	9.845987E-1	9.532917E-1	9.458126E-1	9.678613E-1	9.311000E-1	9.259668E-1	9.680706E-1	8.899035E-1	9.677131E-1	9.699836E-1	9.541053E-1	9.547702E-1	9.504521E-1	9.735673E-1	9.579733E-1	9.990530E-1	9.179784E-1	9.218468E-1	9.313434E-1	9.175945E-1	1.010031E+0	9.471430E-1	9.638781E-1	9.798330E-1	9.157886E-1	9.309741E-1	9.982951E-1	9.368243E-1	9.419111E-1	9.273991E-1	1.012495E+0	9.455873E-1	9.690479E-1	9.799591E-1	9.560654E-1	9.437525E-1	9.248374E-1	9.604230E-1	9.929374E-1	9.994811E-1	9.196943E-1	9.517008E-1	9.778700E-1	9.235529E-1	9.460114E-1	9.279434E-1	9.287637E-1	9.422542E-1	9.434564E-1	9.557761E-1	9.362954E-1	9.563752E-1	9.452873E-1	9.453264E-1	9.405081E-1	9.612657E-1	9.238757E-1	9.335162E-1	9.608245E-1	9.488194E-1	9.629356E-1	9.445203E-1	9.653899E-1	9.757641E-1	9.688194E-1	9.162645E-1	9.558762E-1	9.591294E-1	9.529281E-1	9.917272E-1	9.456816E-1	9.766827E-1	9.331503E-1	9.979188E-1	9.610495E-1	9.501417E-1	9.420041E-1	9.623223E-1	9.367208E-1	9.803794E-1	9.328995E-1	9.332180E-1	9.006469E-1	9.336992E-1	1.000882E+0	9.412728E-1	9.526975E-1	9.083852E-1	9.092963E-1	9.418905E-1	9.817652E-1	9.864485E-1	9.486113E-1	9.523338E-1	9.382945E-1	9.654367E-1	9.776771E-1	8.892174E-1	9.472446E-1	9.778854E-1	9.334058E-1	9.215499E-1	9.362062E-1	9.465293E-1	9.246398E-1	9.457423E-1	9.339284E-1	9.740258E-1	9.266566E-1	9.108587E-1	9.832740E-1	9.414130E-1	9.553542E-1	9.171964E-1	9.667066E-1	9.017192E-1	9.512396E-1	9.748740E-1	9.909441E-1	9.624586E-1	9.620672E-1	9.677947E-1	9.329809E-1	9.192265E-1	9.671491E-1	9.379973E-1	9.325698E-1	9.858003E-1	9.574713E-1	9.564935E-1	9.747353E-1	9.789347E-1	9.251057E-1	9.430263E-1	9.371298E-1	9.403269E-1	9.854691E-1	9.446854E-1	8.949621E-1	9.185469E-1	9.733474E-1	9.385499E-1	9.093597E-1	9.333985E-1	9.120939E-1	8.678672E-1	9.033990E-1
5.580000E+2	1.042066E+0	1.033591E+0	9.839317E-1	9.580260E-1	9.742227E-1	9.845170E-1	9.759726E-1	1.016460E+0	9.935175E-1	1.022852E+0	1.018245E+0	9.822286E-1	9.701364E-1	1.002174E+0	1.032496E+0	1.049376E+0	9.978385E-1	1.022168E+0	1.014415E+0	1.007452E+0	1.004667E+0	9.867200E-1	9.973596E-1	9.563732E-1	1.023214E+0	1.010980E+0	1.011158E+0	9.969567E-1	9.983099E-1	1.002832E+0	9.713642E-1	1.002124E+0	9.669974E-1	1.019219E+0	9.607841E-1	1.012695E+0	9.843366E-1	1.021235E+0	9.992528E-1	1.003124E+0	1.031646E+0	9.727798E-1	1.029102E+0	1.005295E+0	1.007767E+0	9.999252E-1	1.018643E+0	1.003873E+0	1.007343E+0	1.021875E+0	1.022642E+0	9.765086E-1	9.933388E-1	1.003295E+0	9.872373E-1	1.004611E+0	9.947537E-1	9.546066E-1	9.958247E-1	1.011555E+0	9.925277E-1	9.807504E-1	1.021166E+0	9.717896E-1	9.873833E-1	1.016520E+0	9.405994E-1	1.043963E+0	9.920030E-1	9.946145E-1	1.010070E+0	9.749740E-1	9.922998E-1	1.033777E+0	9.998241E-1	1.009070E+0	9.966057E-1	1.012833E+0	9.737390E-1	1.020482E+0	9.890613E-1	9.930421E-1	1.008680E+0	1.016935E+0	9.904287E-1	9.835901E-1	1.020443E+0	9.842793E-1	9.795997E-1	1.030095E+0	9.841438E-1	1.054492E+0	1.003150E+0	9.633255E-1	9.868294E-1	1.004985E+0	9.925759E-1	1.016462E+0	1.006275E+0	1.046800E+0	9.776965E-1	9.540838E-1	1.030428E+0	1.044855E+0	9.675126E-1	1.020251E+0	9.912097E-1	1.056008E+0	9.858767E-1	1.042983E+0	9.945173E-1	1.001691E+0	1.010555E+0	1.020900E+0	9.842007E-1	1.007339E+0	9.853608E-1	1.005018E+0	9.960482E-1	1.027494E+0	9.749360E-1	1.003974E+0	1.031019E+0	1.006254E+0	9.894463E-1	1.038669E+0	1.026977E+0	1.024375E+0	9.979978E-1	1.046406E+0	1.019378E+0	9.791179E-1	9.865127E-1	9.595484E-1	1.004472E+0	9.669636E-1	1.018985E+0	1.036425E+0	9.904377E-1	9.767341E-1	9.942270E-1	9.836261E-1	9.895720E-1	9.852523E-1	1.035893E+0	9.972062E-1	1.027959E+0	1.029582E+0	9.811267E-1	1.018694E+0	1.008280E+0	9.978029E-1	1.033872E+0	1.028009E+0	1.021863E+0	9.692528E-1	1.003471E+0	9.932228E-1	9.950118E-1	9.887560E-1	1.030546E+0	9.852630E-1	9.999459E-1	9.856764E-1	1.006329E+0	9.770967E-1	1.009098E+0	9.749623E-1	9.980656E-1	1.029191E+0
5.585160E+2	1.029626E+0	9.767167E-1	9.271691E-1	1.016190E+0	9.692311E-1	9.858631E-1	1.017973E+0	1.025880E+0	1.033561E+0	1.027576E+0	1.008346E+0	9.935140E-1	9.553839E-1	1.018407E+0	9.889897E-1	9.430793E-1	9.955041E-1	1.032002E+0	9.980170E-1	1.017503E+0	9.858656E-1	9.962264E-1	1.005718E+0	9.939829E-1	9.949714E-1	1.005631E+0	1.005532E+0	9.860374E-1	1.011741E+0	1.005489E+0	9.776911E-1	1.008377E+0	1.081532E+0	1.000504E+0	1.003756E+0	1.033005E+0	9.894553E-1	1.031346E+0	1.018943E+0	1.020610E+0	9.513533E-1	1.040356E+0	1.022401E+0	1.034068E+0	1.003752E+0	9.875260E-1	9.908800E-1	1.004375E+0	1.048878E+0	9.877376E-1	9.808871E-1	1.033290E+0	1.013750E+0	9.529387E-1	1.008711E+0	1.008285E+0	9.840117E-1	1.019179E+0	9.617326E-1	9.727724E-1	9.892049E-1	1.018425E+0	1.009674E+0	1.008293E+0	9.857916E-1	1.014224E+0	1.001554E+0	1.004484E+0	9.710261E-1	1.028234E+0	9.897032E-1	1.013994E+0	9.889421E-1	1.039473E+0	1.027112E+0	1.008356E+0	1.020684E+0	1.018055E+0	9.901071E-1	1.025519E+0	9.963989E-1	9.896682E-1	9.790772E-1	9.846350E-1	1.024949E+0	9.699322E-1	9.736057E-1	1.018646E+0	1.018733E+0	9.920227E-1	1.013213E+0	1.021475E+0	9.615635E-1	9.847215E-1	9.960764E-1	1.058439E+0	1.013749E+0	1.028529E+0	9.859357E-1	9.838243E-1	9.828555E-1	1.019263E+0	9.652341E-1	1.014793E+0	9.862861E-1	9.941275E-1	9.744872E-1	9.819991E-1	9.754451E-1	1.009926E+0	1.026168E+0	1.006916E+0	9.883049E-1	1.006647E+0	1.022508E+0	1.073108E+0	9.968386E-1	9.889470E-1	9.818222E-1	9.865322E-1	1.046498E+0	1.028775E+0	9.910340E-1	1.018819E+0	1.020493E+0	9.232070E-1	9.861467E-1	1.008229E+0	9.979854E-1	9.566199E-1	1.024062E+0	9.800300E-1	1.013240E+0	1.046175E+0	1.016980E+0	9.817943E-1	1.016942E+0	9.773648E-1	1.049603E+0	9.801443E-1	9.848701E-1	9.853243E-1	9.706212E-1	9.929570E-1	1.024206E+0	9.989201E-1	9.903418E-1	9.969839E-1	1.004081E+0	1.012355E+0	9.740953E-1	9.871986E-1	1.015672E+0	1.038383E+0	9.790221E-1	9.728028E-1	9.814119E-1	9.565952E-1	1.000558E+0	1.024271E+0	9.867598E-1	1.007432E+0	1.004183E+0	9.738960E-1	9.924058E-1	9.835902E-1	1.010489E+0	9.891671E-1	1.031060E+0	1.048983E+0
5.590100E+2	9.398326E-1	9.774933E-1	9.994209E-1	9.751145E-1	9.583461E-1	1.006945E+0	1.000836E+0	9.770264E-1	9.939751E-1	9.456456E-1	9.318188E-1	9.389102E-1	1.001308E+0	9.797082E-1	9.549643E-1	9.452771E-1	9.911149E-1	9.699026E-1	1.002946E+0	9.422168E-1	1.002217E+0	1.011124E+0	9.879518E-1	1.022560E+0	9.860700E-1	1.012893E+0	9.704331E-1	9.920790E-1	9.990693E-1	9.860268E-1	1.033987E+0	9.767847E-1	1.016158E+0	9.682896E-1	9.800708E-1	9.706728E-1	9.921973E-1	9.977599E-1	1.016752E+0	9.697995E-1	9.787336E-1	9.849251E-1	9.746860E-1	9.993221E-1	9.684334E-1	9.491164E-1	9.923214E-1	1.000449E+0	9.170050E-1	1.015927E+0	9.525504E-1	9.775457E-1	9.546011E-1	1.020312E+0	9.420857E-1	9.841432E-1	9.919294E-1	9.342094E-1	1.037962E+0	9.489317E-1	9.983445E-1	9.644412E-1	9.786333E-1	1.018613E+0	1.020685E+0	1.027442E+0	9.946708E-1	9.982384E-1	9.669989E-1	9.867752E-1	9.802895E-1	1.042098E+0	9.959289E-1	1.051462E+0	1.027812E+0	9.362678E-1	9.530071E-1	9.643715E-1	1.001914E+0	9.427741E-1	1.011123E+0	9.725277E-1	9.632645E-1	9.663355E-1	9.881088E-1	9.941126E-1	9.758918E-1	1.020521E+0	9.588659E-1	9.592569E-1	9.807359E-1	9.560085E-1	1.021881E+0	1.006648E+0	9.522909E-1	9.848697E-1	9.721044E-1	9.842412E-1	1.016960E+0	1.027897E+0	1.008729E+0	9.765899E-1	9.933275E-1	9.657967E-1	9.941470E-1	1.028309E+0	9.876824E-1	9.842223E-1	9.454526E-1	9.674087E-1	9.583561E-1	9.978646E-1	1.014628E+0	9.800659E-1	1.005664E+0	9.787498E-1	9.889894E-1	1.000338E+0	9.925305E-1	9.808175E-1	9.308683E-1	9.794911E-1	9.700102E-1	9.705616E-1	1.009472E+0	9.579567E-1	1.018024E+0	9.375930E-1	1.001433E+0	9.845570E-1	9.724902E-1	9.706489E-1	9.954158E-1	9.779606E-1	1.011403E+0	9.755458E-1	9.442337E-1	9.615029E-1	9.432076E-1	1.018499E+0	1.007472E+0	9.632308E-1	9.502442E-1	1.027461E+0	9.827948E-1	9.655935E-1	9.191789E-1	9.680834E-1	9.889876E-1	9.389542E-1	9.990432E-1	9.810516E-1	9.889492E-1	9.656514E-1	9.676656E-1	9.952296E-1	1.009290E+0	9.951150E-1	1.007562E+0	9.609781E-1	1.000071E+0	9.993643E-1	9.687841E-1	9.472101E-1	9.674106E-1	9.833896E-1	9.841268E-1	9.999542E-1	1.014459E+0	9.408347E-1
5.595110E+2	1.038127E+0	1.057685E+0	9.938234E-1	1.008938E+0	1.071826E+0	1.076472E+0	9.914970E-1	9.961859E-1	9.818850E-1	1.033643E+0	1.062147E+0	9.963718E-1	1.035737E+0	9.957001E-1	1.004765E+0	1.030447E+0	1.041652E+0	9.808795E-1	9.897680E-1	9.848288E-1	1.021968E+0	1.002101E+0	9.571871E-1	1.070368E+0	9.920364E-1	9.948959E-1	1.025737E+0	1.000663E+0	9.438570E-1	1.013772E+0	9.950826E-1	9.453337E-1	9.479372E-1	1.027336E+0	9.642141E-1	9.812169E-1	9.983246E-1	9.893825E-1	9.977318E-1	9.937112E-1	1.006984E+0	9.811944E-1	9.976217E-1	1.036734E+0	1.027434E+0	1.013214E+0	1.019162E+0	9.631343E-1	9.937081E-1	9.991280E-1	1.039532E+0	1.015451E+0	1.004542E+0	1.017347E+0	1.016782E+0	9.873375E-1	9.901824E-1	1.041105E+0	9.687883E-1	1.029907E+0	9.813181E-1	1.011630E+0	1.017659E+0	9.692089E-1	1.001643E+0	1.004277E+0	1.020183E+0	9.663290E-1	1.015532E+0	9.624310E-1	1.033581E+0	9.823582E-1	1.020547E+0	9.908470E-1	9.901680E-1	9.984430E-1	1.003887E+0	1.015616E+0	1.035569E+0	1.018470E+0	9.919472E-1	1.055203E+0	1.058496E+0	1.014722E+0	1.018030E+0	1.029665E+0	9.825012E-1	1.012064E+0	9.955422E-1	9.982485E-1	1.036246E+0	9.290096E-1	9.939859E-1	1.068061E+0	9.986703E-1	1.006909E+0	1.005981E+0	1.015684E+0	1.007164E+0	9.720712E-1	1.038113E+0	9.977977E-1	1.021256E+0	9.943200E-1	1.010345E+0	1.015952E+0	1.012700E+0	1.008236E+0	1.033323E+0	9.951906E-1	9.995694E-1	9.177437E-1	9.612503E-1	1.035161E+0	1.023134E+0	9.592823E-1	1.016208E+0	1.004768E+0	1.008017E+0	1.002843E+0	1.015410E+0	1.011603E+0	1.022001E+0	1.031143E+0	9.993811E-1	1.028074E+0	1.011743E+0	1.014201E+0	1.010761E+0	9.840906E-1	9.779199E-1	1.006331E+0	1.046290E+0	9.903653E-1	1.014096E+0	9.720397E-1	1.017520E+0	1.003079E+0	9.909687E-1	1.001163E+0	9.609333E-1	1.028050E+0	1.031133E+0	9.697418E-1	1.017966E+0	9.731473E-1	1.022674E+0	9.748302E-1	1.005092E+0	9.722210E-1	1.015578E+0	1.056226E+0	9.812380E-1	9.873017E-1	9.952650E-1	1.030315E+0	1.019303E+0	1.004134E+0	1.013322E+0	9.963845E-1	1.005205E+0	9.972152E-1	9.952773E-1	1.038512E+0	1.003671E+0	1.011270E+0	1.011804E+0	1.006375E+0	9.841578E-1	1.016167E+0
5.600520E+2	9.721811E-1	1.011637E+0	1.058735E+0	1.056274E+0	1.005061E+0	9.845690E-1	9.989659E-1	9.829677E-1	1.012937E+0	1.003205E+0	9.994312E-1	1.051050E+0	9.982416E-1	1.017990E+0	1.046132E+0	1.000796E+0	1.008497E+0	9.945910E-1	9.859216E-1	1.009865E+0	1.023637E+0	1.013396E+0	1.030001E+0	1.007620E+0	1.017566E+0	1.015972E+0	9.856703E-1	1.029542E+0	1.088443E+0	9.891967E-1	9.997489E-1	1.032411E+0	1.045692E+0	1.012579E+0	1.032851E+0	1.010915E+0	1.009775E+0	9.946814E-1	1.027237E+0	9.861457E-1	9.953953E-1	1.005176E+0	9.923292E-1	9.965520E-1	9.843141E-1	1.029563E+0	9.980032E-1	9.996145E-1	1.011407E+0	9.991167E-1	9.974153E-1	1.017233E+0	9.869803E-1	9.952841E-1	9.859681E-1	1.009046E+0	9.717194E-1	1.040947E+0	1.025993E+0	1.007596E+0	1.013366E+0	1.014866E+0	1.022030E+0	1.005007E+0	9.691217E-1	9.649378E-1	1.020614E+0	1.018712E+0	1.014274E+0	1.000239E+0	1.002322E+0	1.039287E+0	1.006325E+0	9.829601E-1	9.800148E-1	1.005626E+0	1.007383E+0	9.900195E-1	1.013064E+0	9.974918E-1	9.929141E-1	9.904448E-1	1.023735E+0	9.790740E-1	1.001033E+0	9.455329E-1	1.042677E+0	9.462518E-1	9.750721E-1	1.040624E+0	1.016051E+0	1.029775E+0	1.039547E+0	9.526505E-1	1.040684E+0	1.019237E+0	1.057342E+0	9.953531E-1	1.030600E+0	9.976185E-1	9.856238E-1	1.041264E+0	9.957523E-1	9.819178E-1	1.045585E+0	9.967442E-1	1.017409E+0	1.031283E+0	9.749622E-1	1.008541E+0	1.027285E+0	1.019569E+0	1.035621E+0	1.016472E+0	9.872539E-1	9.747674E-1	1.005227E+0	9.971667E-1	1.004817E+0	1.009586E+0	1.021122E+0	1.025370E+0	9.979440E-1	9.988727E-1	9.993377E-1	1.033317E+0	9.920071E-1	9.722859E-1	1.016402E+0	1.015264E+0	1.033457E+0	1.021543E+0	9.930676E-1	1.043134E+0	9.859416E-1	1.041312E+0	1.027198E+0	1.004824E+0	9.883139E-1	9.774209E-1	9.816974E-1	1.008015E+0	1.039722E+0	1.011133E+0	1.027188E+0	1.076798E+0	1.035149E+0	9.852264E-1	9.985892E-1	1.030901E+0	1.030206E+0	1.021523E+0	9.395095E-1	1.009323E+0	1.046640E+0	1.005758E+0	1.023094E+0	1.046087E+0	1.036356E+0	1.022786E+0	1.008614E+0	9.922933E-1	1.055535E+0	1.025458E+0	1.008561E+0	1.018781E+0	1.005265E+0	9.897837E-1	1.002270E+0	9.845235E-1
5.605150E+2	1.000973E+0	9.439050E-1	1.047352E+0	9.996996E-1	1.021056E+0	9.791603E-1	1.012052E+0	9.884797E-1	1.005766E+0	1.035079E+0	9.979865E-1	1.035425E+0	9.999224E-1	9.817183E-1	9.838954E-1	1.012182E+0	1.002817E+0	1.004112E+0	1.010402E+0	9.953003E-1	9.434484E-1	9.910174E-1	9.979269E-1	9.750010E-1	9.885516E-1	9.892779E-1	1.012554E+0	1.014761E+0	9.743582E-1	1.030459E+0	1.033574E+0	1.060119E+0	9.619588E-1	9.968180E-1	1.033882E+0	1.004801E+0	1.025320E+0	1.003604E+0	9.968964E-1	9.976585E-1	1.008308E+0	1.030432E+0	9.704838E-1	9.946143E-1	1.013571E+0	1.024207E+0	9.987061E-1	1.007097E+0	1.004667E+0	1.007337E+0	1.015583E+0	1.005367E+0	1.025490E+0	1.012942E+0	1.024710E+0	1.003018E+0	1.022648E+0	9.662636E-1	1.004728E+0	9.926996E-1	1.019071E+0	1.023351E+0	1.011356E+0	1.014678E+0	1.018432E+0	1.023494E+0	1.017790E+0	9.760815E-1	1.019959E+0	1.017332E+0	9.610565E-1	9.694287E-1	1.009384E+0	9.674235E-1	1.016798E+0	1.058980E+0	1.043479E+0	1.003272E+0	1.036727E+0	9.946628E-1	1.009824E+0	1.028436E+0	1.013715E+0	1.029466E+0	9.667545E-1	1.038846E+0	1.013036E+0	9.717233E-1	1.020611E+0	1.028368E+0	9.575405E-1	1.007786E+0	9.841229E-1	1.009635E+0	1.016020E+0	9.344409E-1	9.988987E-1	9.744496E-1	9.922624E-1	1.019549E+0	1.025669E+0	1.011429E+0	1.008983E+0	1.050846E+0	1.001012E+0	9.310387E-1	1.022447E+0	9.634284E-1	1.079468E+0	1.017133E+0	1.010428E+0	1.023400E+0	1.040233E+0	9.739028E-1	9.947286E-1	1.012134E+0	1.027038E+0	1.035944E+0	1.010574E+0	1.019865E+0	1.012115E+0	9.734004E-1	9.953032E-1	1.016699E+0	9.915185E-1	1.016507E+0	9.213452E-1	1.014630E+0	9.921635E-1	1.002309E+0	9.916222E-1	1.022274E+0	1.016961E+0	1.018321E+0	9.787211E-1	1.031624E+0	9.931349E-1	1.037942E+0	1.050211E+0	1.023767E+0	1.047923E+0	9.844445E-1	1.025636E+0	1.022390E+0	9.564202E-1	1.004557E+0	9.947278E-1	1.021091E+0	1.029643E+0	1.016727E+0	9.782821E-1	9.978826E-1	1.021805E+0	9.933288E-1	9.741900E-1	1.012463E+0	1.007923E+0	1.006095E+0	9.880709E-1	1.012259E+0	9.968570E-1	9.902529E-1	9.775162E-1	1.029052E+0	1.002300E+0	1.036012E+0	9.804415E-1	1.002840E+0	9.663673E-1	1.032662E+0
5.609950E+2	9.771936E-1	9.989722E-1	9.895683E-1	9.857578E-1	1.000257E+0	9.824730E-1	1.002703E+0	1.013000E+0	9.783588E-1	9.319992E-1	9.820259E-1	1.002501E+0	1.039270E+0	1.004303E+0	9.887568E-1	1.018843E+0	9.625759E-1	9.963452E-1	9.985298E-1	1.042834E+0	1.018197E+0	9.994151E-1	1.023856E+0	9.740955E-1	9.975907E-1	9.703496E-1	9.889152E-1	9.799612E-1	9.842217E-1	9.722246E-1	9.885527E-1	9.748497E-1	9.797252E-1	9.752531E-1	1.024442E+0	9.866942E-1	1.000591E+0	9.619913E-1	9.431881E-1	1.028951E+0	1.027580E+0	9.851367E-1	1.013376E+0	9.334149E-1	9.947298E-1	9.964482E-1	9.822844E-1	1.021457E+0	1.016992E+0	9.688788E-1	9.913907E-1	9.746048E-1	1.021298E+0	9.978808E-1	1.034507E+0	1.003560E+0	1.044755E+0	1.043690E+0	1.004972E+0	1.036538E+0	1.006168E+0	9.865363E-1	9.394824E-1	1.012411E+0	1.016943E+0	9.491052E-1	1.004589E+0	9.921919E-1	1.020207E+0	1.010374E+0	1.022978E+0	9.778602E-1	9.865733E-1	9.340564E-1	9.582712E-1	9.832576E-1	9.749537E-1	9.958331E-1	9.488808E-1	1.000600E+0	1.008731E+0	9.706782E-1	9.530326E-1	1.008833E+0	1.010695E+0	1.038321E+0	9.918446E-1	1.046515E+0	1.051576E+0	9.513854E-1	1.012070E+0	1.001454E+0	9.957499E-1	1.014958E+0	1.009429E+0	9.911191E-1	9.593486E-1	9.852813E-1	9.608025E-1	9.522408E-1	9.813126E-1	9.995727E-1	9.850200E-1	9.474705E-1	9.951121E-1	1.013577E+0	9.940647E-1	9.748224E-1	1.005472E+0	9.588174E-1	9.836767E-1	1.032816E+0	9.494072E-1	9.668513E-1	9.825108E-1	9.946188E-1	9.803385E-1	9.678174E-1	1.006191E+0	9.728622E-1	9.990508E-1	9.773855E-1	9.926892E-1	9.576502E-1	9.903516E-1	1.002270E+0	1.043756E+0	1.028687E+0	9.832573E-1	1.010753E+0	9.810705E-1	1.020055E+0	9.485132E-1	9.644958E-1	9.883864E-1	1.030721E+0	9.819864E-1	9.788621E-1	9.872581E-1	1.022271E+0	1.022877E+0	1.047309E+0	9.930712E-1	9.910650E-1	9.555315E-1	9.837775E-1	1.009970E+0	1.024203E+0	9.924807E-1	1.010147E+0	9.945166E-1	9.583153E-1	1.018954E+0	9.780028E-1	1.015355E+0	1.014178E+0	9.555065E-1	9.987514E-1	9.591193E-1	9.945650E-1	9.719470E-1	1.028179E+0	9.987591E-1	1.000195E+0	1.019323E+0	9.898607E-1	9.987765E-1	1.036917E+0	1.003619E+0	9.476379E-1
