Photon Energy (eV)	#1	#2	#3	#4	#5	#6	#7	#8	#9	#10	#11	#12	#13	#14	#15	#16	#17	#18	#19	#20	#21	#22	#23	#24	#25	#26	#27	#28	#29	#30	#31	#32	#33	#34	#35	#36	#37	#38	#39	#40	#41	#42	#43	#44	#45	#46	#47	#48	#49	#50	#51	#52	#53	#54	#55	#56	#57	#58	#59	#60	#61	#62	#63	#64	#65	#66	#67	#68	#69	#70	#71	#72	#73	#74	#75	#76	#77	#78	#79	#80	#81	#82	#83	#84	#85	#86	#87	#88	#89	#90	#91	#92	#93	#94	#95	#96	#97	#98	#99	#100	#101	#102	#103	#104	#105	#106	#107	#108	#109	#110	#111	#112	#113	#114	#115	#116	#117	#118	#119	#120	#121	#122	#123	#124	#125	#126	#127	#128	#129	#130	#131	#132	#133	#134	#135	#136	#137	#138	#139	#140	#141	#142	#143	#144	#145	#146	#147	#148	#149	#150	#151	#152	#153	#154	#155	#156	#157	#158	#159	#160	#161	#162	#163	#164	#165	#166	#167	#168	#169	
5.300220E+2	-5.405650E-3	7.722765E-4	-1.785373E-2	-9.026153E-3	-8.639873E-3	-2.938003E-3	4.965727E-4	-9.015428E-3	-5.968418E-3	-1.018231E-2	-1.494043E-2	-5.568865E-3	-9.142373E-3	-1.161086E-2	-6.824834E-3	-8.830933E-3	-1.310405E-2	6.876338E-3	-8.909980E-3	-6.476106E-3	-5.199586E-3	-9.146152E-3	-1.541635E-2	-1.835039E-2	-1.333296E-3	-4.694827E-3	-1.003600E-2	-7.695077E-3	-4.939071E-3	-1.088110E-2	-1.151113E-2	-1.221153E-2	-7.441829E-3	-7.664259E-3	-1.569065E-2	-1.085374E-2	-6.625842E-3	-1.779178E-2	-7.282516E-3	-2.302262E-3	-9.734901E-3	-4.897625E-3	-1.293211E-2	-1.174498E-2	-9.366428E-3	7.215591E-4	-1.006189E-2	-1.294460E-2	-4.645304E-3	-8.662345E-3	-8.339782E-3	-1.251005E-2	-1.023002E-2	-2.700015E-3	-1.671943E-2	-7.061386E-3	-1.047691E-2	-3.540652E-3	-7.521386E-3	-1.079800E-3	-9.820914E-3	-1.127006E-2	-9.052305E-3	4.146595E-3	-1.191552E-3	-1.163351E-2	-6.438494E-3	-8.596677E-3	-8.146254E-3	-1.012059E-2	-9.076263E-4	-9.650934E-3	-8.148120E-3	-8.206255E-3	-5.455865E-3	-9.298574E-3	-1.295141E-2	-8.777862E-3	-1.031917E-2	-7.065507E-3	-1.183642E-2	-9.497617E-3	-7.494628E-3	-6.866993E-3	3.340267E-3	-9.159083E-3	-4.860842E-3	1.649423E-3	-1.130725E-2	-6.691653E-3	-1.144164E-2	-5.690690E-3	-8.844405E-3	-4.031155E-3	-9.873988E-3	1.313863E-3	-6.396459E-3	3.273733E-4	-8.424252E-3	-1.326374E-2	-8.152876E-3	-2.081447E-2	-7.894262E-3	-5.895157E-3	-1.414136E-2	-3.925334E-3	-6.203351E-3	-9.121742E-3	-9.799138E-3	-9.804705E-3	-1.383019E-2	-8.602161E-3	-7.561744E-3	1.590356E-3	-2.157262E-3	-2.424270E-3	-9.123078E-3	-1.005217E-2	-1.919351E-3	-1.180805E-2	-1.068406E-2	-2.877715E-3	-9.820263E-3	-4.516347E-3	-1.530325E-2	-5.734390E-3	-1.072194E-2	-1.086918E-2	1.814784E-4	-3.364081E-3	-1.141933E-2	-1.304485E-2	-5.533110E-3	-3.195743E-3	-5.235880E-3	-1.206058E-2	7.534191E-3	-2.379804E-3	-2.551204E-3	-1.419079E-2	-1.795223E-2	-5.340175E-3	-1.036122E-2	-3.734680E-3	-3.489649E-3	-1.090466E-2	-7.519606E-3	-9.611374E-3	-2.787420E-3	-4.960111E-3	-5.317378E-3	1.511384E-4	-7.582000E-3	-8.690579E-3	-5.598685E-3	-8.788556E-3	-9.690455E-3	-2.630211E-3	-8.516553E-3	-1.073109E-2	-1.055869E-2	-9.522156E-3	-7.767165E-3	-1.179635E-2	-5.017655E-3	-6.893141E-3	2.151991E-3	-8.608136E-3	-8.782966E-3
5.305230E+2	-9.349051E-3	-2.059471E-3	-1.041291E-2	-1.049244E-2	-1.146288E-3	-6.452476E-3	-1.424891E-2	-1.040453E-2	-6.710352E-3	-1.031576E-2	-3.870877E-3	-1.080055E-2	-6.475822E-3	-1.752514E-3	-1.017555E-2	-4.813643E-3	-1.005061E-2	-5.797726E-3	-1.214591E-3	-8.524394E-4	-6.132856E-3	-5.878311E-3	-1.024057E-2	-1.778299E-2	-7.483902E-3	-6.862738E-3	-1.154450E-2	-3.382951E-3	-4.047655E-3	1.007509E-3	-3.327442E-3	-7.109196E-3	-8.686803E-3	-2.205037E-3	-8.044314E-3	-2.883670E-3	-1.072754E-2	-1.027129E-2	-1.243742E-2	-4.443160E-3	-1.123491E-2	-6.524253E-3	-6.598185E-3	-3.933705E-3	-5.598322E-3	-8.380346E-3	-6.500232E-3	-7.321633E-3	-2.427900E-3	-3.694953E-3	-8.528713E-3	-8.897194E-3	-7.669034E-3	-1.427067E-2	4.999372E-4	7.677079E-4	-8.772012E-3	8.097955E-4	-1.502944E-3	-9.927174E-3	-5.465100E-3	-5.463087E-3	-7.339693E-4	-8.965335E-3	1.049627E-3	-2.565665E-3	-9.520127E-3	-6.026165E-3	3.426457E-3	-9.250943E-3	-4.943232E-3	-7.364460E-3	-1.080575E-2	-7.659147E-3	-1.252370E-2	-1.650459E-2	-3.468972E-4	-3.337400E-3	-8.978127E-3	-1.051448E-2	-1.052496E-2	-7.633610E-3	-8.950786E-3	-3.653491E-3	-1.367092E-2	-2.098790E-3	-1.284749E-2	-5.808882E-4	-4.812802E-3	-6.189440E-3	-1.071356E-2	-2.635342E-3	-5.945310E-3	-9.869313E-3	-9.407781E-3	-8.082148E-3	-1.004757E-2	-8.992383E-3	2.122030E-3	-2.001185E-3	3.680987E-5	-4.503940E-3	-8.656023E-3	-6.805505E-3	-6.405328E-3	-2.904430E-3	-6.419364E-3	-3.591630E-3	-3.724786E-4	-1.411956E-2	-4.069204E-3	-1.014618E-2	-9.231384E-3	-1.315186E-2	-1.295196E-2	-1.293626E-2	-3.629613E-3	-1.035913E-2	-1.059103E-2	-7.301416E-3	-4.659427E-3	-9.661238E-4	-1.134388E-2	-1.311991E-2	-1.010100E-4	-1.723054E-3	-5.417983E-3	-3.299893E-3	-3.425389E-3	-1.237314E-2	-6.207456E-3	-2.925821E-3	-8.929979E-3	-1.073910E-2	-6.780706E-3	-4.149228E-3	3.356077E-3	-4.735558E-4	-1.478655E-2	-6.714888E-3	-3.398737E-3	9.900038E-4	-9.988619E-3	-4.084145E-4	-3.803354E-3	-2.206727E-3	-1.077609E-2	-2.950192E-3	-3.711110E-3	-1.040403E-2	-5.542198E-3	-8.163529E-3	-1.424493E-2	-6.272842E-3	-4.394267E-3	-6.178838E-3	-4.903335E-3	-9.125985E-3	2.408068E-4	-5.926131E-3	-4.336369E-3	-6.961322E-3	-1.989139E-2	-1.467066E-2	-5.470447E-3	-5.495127E-3	-6.227716E-3	1.976596E-3	-7.396168E-3
5.310050E+2	-1.063030E-2	-1.287142E-4	-2.905294E-3	-1.161578E-3	2.434696E-3	-7.103239E-3	-1.282039E-2	-7.853034E-3	-2.215714E-3	-3.642019E-3	-1.242527E-2	-7.601826E-3	-9.904217E-3	-1.115606E-2	-6.548462E-3	-1.558863E-2	-1.256030E-2	-1.186508E-2	-1.350237E-2	-4.072095E-3	-1.067298E-2	-4.077676E-3	-7.329218E-3	-3.379489E-3	-6.841749E-3	-6.862789E-3	-5.200270E-3	-1.038122E-2	-3.474606E-3	-5.037544E-3	-5.950410E-3	-7.109180E-3	-1.610047E-3	1.299088E-2	-7.404730E-3	-2.883704E-3	-7.997143E-3	-1.381042E-3	-5.263112E-3	-6.807377E-3	-4.806211E-3	-1.148686E-2	-8.336640E-4	-2.624545E-3	5.705979E-3	-1.122862E-2	-8.135678E-3	-5.580551E-3	-1.172443E-2	-1.011831E-2	-1.988925E-3	-5.202244E-3	-9.874665E-3	-4.388257E-3	7.061602E-3	-2.301200E-3	-1.434046E-2	-6.440935E-3	-1.528558E-2	-3.335554E-3	-6.033203E-3	-7.248819E-3	-1.419008E-2	-7.824049E-3	-2.141833E-3	-1.443151E-2	-8.075606E-3	-5.337656E-3	-1.067895E-2	-4.434357E-3	-6.141941E-3	1.010268E-3	-4.059447E-3	-9.065955E-3	-5.083853E-3	-6.592415E-3	-4.394245E-3	-3.337394E-3	-3.491954E-3	-4.927120E-3	-2.193138E-3	-2.662885E-3	-9.568975E-3	1.702423E-3	-1.306093E-2	3.174376E-3	-6.395089E-3	-1.098447E-2	-9.927197E-3	-6.189430E-3	-5.616805E-3	-1.175787E-2	-3.472204E-3	-2.919089E-3	-8.054294E-3	-4.498922E-3	-7.985242E-3	-5.554736E-3	-8.647575E-3	-1.112668E-2	-1.338669E-2	-4.503940E-3	-7.409541E-3	-7.445623E-3	-1.635168E-2	-4.198537E-3	-7.715564E-3	-5.682832E-3	-1.300825E-2	-1.592585E-3	-6.387131E-3	-8.317739E-3	-9.908244E-3	4.929817E-4	-7.059962E-3	-6.446368E-3	-1.054545E-3	-2.166110E-2	-2.247359E-3	9.654859E-3	-9.645333E-3	-2.411852E-3	1.969575E-3	-7.010846E-3	-1.233895E-2	-2.959432E-3	-6.026849E-3	-3.952412E-3	-1.065372E-2	-1.438009E-2	-1.476219E-3	-1.166864E-2	-7.735759E-3	5.518191E-3	-4.229591E-3	-9.692642E-3	-1.438143E-2	-1.091630E-2	-7.366153E-3	2.819173E-3	-5.224708E-3	9.899624E-4	-4.829503E-3	-6.593578E-3	1.330251E-3	-5.383762E-3	-4.943652E-3	-1.387510E-2	-7.697012E-3	1.561404E-3	-6.806767E-3	-8.390241E-4	6.174814E-4	-1.329219E-2	1.859612E-3	-2.009636E-3	-6.144966E-3	-1.629925E-2	-2.973526E-3	-5.926152E-3	-2.444457E-3	-1.295626E-2	-6.047093E-3	-4.126219E-3	-5.470409E-3	-9.855244E-3	-9.162220E-3	-5.338787E-3	-1.779700E-2
5.315080E+2	-3.803189E-4	-1.415879E-3	3.100734E-3	-1.828100E-3	-8.905162E-3	5.578584E-5	-4.963535E-3	-9.128799E-3	9.947236E-4	-9.724622E-4	-3.212842E-3	5.193122E-3	-1.333284E-3	-1.752522E-3	1.223826E-3	-7.806673E-3	6.262236E-3	-3.370756E-3	3.253680E-3	-7.291742E-3	-2.727685E-3	1.238387E-4	-6.164689E-3	-3.379513E-3	-1.005261E-2	-5.570591E-3	-1.154453E-2	-1.474380E-3	-4.047637E-3	-4.433081E-3	1.393934E-3	-5.320029E-3	-3.968941E-3	-1.360191E-2	2.828339E-3	2.479343E-3	-7.997108E-3	-7.307876E-3	-2.140536E-2	-5.625267E-3	-1.591864E-3	-9.005576E-3	-5.957702E-3	-1.315384E-3	-3.902684E-3	-1.544391E-3	-2.139019E-3	5.446070E-3	1.290714E-3	-5.621991E-3	-5.912828E-3	1.571851E-3	5.075686E-5	-6.241212E-3	-7.254730E-3	-3.528695E-3	-1.099983E-4	1.506773E-4	-7.705144E-3	-4.653838E-3	-2.056174E-3	-9.034554E-3	-8.073681E-3	-1.410105E-2	-1.235478E-2	-1.179460E-2	2.758353E-3	-9.468760E-3	2.862272E-3	2.790547E-3	-6.141897E-3	-3.177100E-3	-7.739275E-3	2.188335E-3	-1.983965E-3	-4.468340E-3	-4.394231E-3	-1.022488E-2	-6.783657E-3	-4.306311E-3	-8.044947E-4	1.162792E-2	-4.005377E-3	-9.755586E-4	-1.471670E-3	-1.066779E-2	-5.104631E-3	-6.088671E-3	-1.159735E-3	-2.765342E-3	-9.257324E-3	-1.983755E-3	-2.235635E-3	3.336120E-3	-4.670590E-3	-3.304543E-3	9.514773E-4	-7.617385E-3	2.839977E-3	1.047413E-4	-6.064787E-3	-1.270480E-2	-3.046879E-3	-1.044494E-3	-2.142638E-3	-4.198534E-3	-6.419352E-3	-1.195654E-2	-9.999720E-3	-7.856040E-3	-1.751320E-3	-1.004178E-3	-5.170100E-3	-2.755792E-3	-3.786663E-3	-4.283111E-3	-9.423492E-3	2.826503E-3	-5.456495E-3	-5.944920E-3	-2.166499E-3	-3.857586E-3	-4.687185E-3	-1.381756E-4	1.734708E-3	-9.759440E-3	-7.244584E-3	4.530374E-3	-4.739638E-3	4.351604E-3	3.254980E-3	1.018840E-2	-1.764758E-3	-4.886464E-3	-4.229574E-3	-1.069577E-3	-1.225295E-2	-1.091626E-2	4.506402E-3	-4.671883E-3	8.617978E-4	-1.280307E-2	-4.829509E-3	-4.084088E-4	-1.278715E-2	8.595069E-3	-7.130813E-3	4.638931E-4	1.413581E-3	-1.355283E-2	3.310082E-3	-3.280526E-3	-4.552067E-3	7.464795E-4	-5.089171E-3	3.549400E-3	6.306804E-5	-1.151712E-2	-1.068798E-2	-5.926157E-3	-1.813846E-3	7.026908E-3	-8.564279E-3	-6.235115E-3	9.333141E-4	-6.740829E-3	1.842200E-3	-6.964464E-3	-1.779699E-2
5.320070E+2	-8.067793E-3	-5.277378E-3	-7.409863E-3	-3.161095E-3	-4.727292E-3	4.611573E-3	6.464590E-3	-8.363455E-4	-1.573622E-3	7.036087E-3	-3.212827E-3	-1.844090E-3	1.523730E-3	5.438408E-3	-3.306157E-4	2.968341E-3	-1.194398E-5	2.696790E-4	2.695156E-3	3.011149E-3	2.379981E-3	1.324282E-3	8.974408E-3	8.405151E-3	2.790928E-3	2.182327E-3	1.002592E-2	-2.019233E-4	-2.328559E-3	-2.015017E-3	2.443116E-3	1.197485E-2	3.697482E-3	-2.204999E-3	-1.009081E-3	-5.565186E-3	-1.444098E-3	9.897150E-4	-4.665248E-3	-8.968940E-4	8.694003E-3	1.022457E-2	-5.317231E-3	5.230419E-3	1.184290E-3	3.012883E-3	-1.593949E-3	1.647274E-2	-8.005816E-3	1.172112E-2	2.588926E-3	3.419277E-3	6.022000E-4	-3.152966E-3	-1.321987E-2	7.677107E-4	-7.286764E-4	-5.084803E-4	-6.326861E-3	-2.676389E-3	-6.601388E-3	2.275177E-3	1.712596E-3	3.588697E-3	-2.780186E-3	-5.880776E-4	2.036106E-3	2.236029E-3	4.122476E-5	3.822669E-4	4.047065E-3	2.206683E-3	9.433155E-3	1.062905E-2	-5.083871E-3	1.110795E-2	-3.469211E-4	1.356824E-2	-2.394729E-3	1.281070E-3	9.610220E-3	-7.988493E-4	5.885400E-3	-1.302627E-2	-1.471642E-3	-1.213502E-4	4.574072E-3	1.866987E-3	2.493387E-3	-1.029828E-2	6.032883E-3	-1.332192E-3	-9.990690E-4	-8.479307E-3	6.157297E-3	-8.679390E-3	9.515406E-4	-2.804673E-3	-3.189199E-5	-1.299175E-3	3.680987E-5	-4.503940E-3	6.924656E-4	4.716510E-3	4.961900E-3	-4.845610E-3	7.838996E-3	1.034994E-2	1.432633E-3	8.087463E-3	-1.287294E-5	5.699930E-3	3.629357E-3	-8.603562E-3	-2.477314E-3	-4.283098E-3	1.520491E-3	1.036111E-2	1.603545E-3	-5.189431E-4	1.572927E-3	-7.471930E-3	-6.931381E-4	3.680001E-3	-5.608082E-3	3.222385E-3	4.323968E-3	-6.898131E-4	3.145870E-3	4.351604E-3	1.227316E-3	-7.297249E-3	-2.361892E-3	-8.137930E-3	1.510456E-3	1.622849E-4	4.065530E-3	4.747737E-3	8.958623E-3	-1.266905E-3	-1.572836E-3	-2.608210E-3	-2.249940E-3	5.158238E-3	-1.878222E-3	-2.206756E-3	-4.214586E-3	4.638868E-4	-7.127571E-3	-3.278658E-4	-1.116049E-3	2.212854E-3	4.494605E-3	1.448448E-3	-2.309650E-3	-7.568650E-3	6.305947E-5	4.622774E-3	4.740939E-3	4.146554E-4	1.079890E-2	-3.002988E-4	1.094354E-2	-2.017401E-3	-4.306140E-3	1.568252E-2	3.749836E-4	-5.338768E-3	1.224988E-2
5.325070E+2	7.947808E-3	-1.287142E-4	4.602244E-3	1.016875E-2	9.596696E-3	3.309873E-3	7.505360E-4	9.369782E-3	-9.315623E-4	-9.724499E-4	1.586998E-2	7.516384E-5	8.951920E-3	1.484198E-2	6.923514E-3	1.194758E-2	-4.403864E-3	2.089876E-3	3.812248E-3	1.009439E-2	8.055224E-3	9.127100E-3	1.246799E-2	2.084447E-2	7.928322E-3	9.289098E-3	1.129476E-2	3.615239E-3	1.027833E-2	7.657092E-3	-1.798763E-4	7.800236E-3	7.825605E-3	3.493439E-3	9.863490E-3	5.831222E-3	1.493847E-2	5.731141E-3	1.745568E-2	7.377773E-3	5.479722E-3	-3.210068E-4	1.261693E-2	7.848653E-3	6.271201E-3	5.291487E-3	5.492992E-3	-9.062645E-3	1.182673E-2	9.151748E-3	1.959238E-2	1.327249E-2	5.013474E-3	9.200098E-3	3.482519E-3	3.222815E-3	1.350174E-2	-2.485953E-3	1.090140E-2	1.248429E-2	3.625344E-3	1.001343E-2	8.440652E-3	9.865661E-3	2.964583E-3	1.523300E-2	7.814224E-3	1.049829E-2	3.426520E-3	9.843557E-4	-1.946483E-3	9.385084E-3	8.206514E-3	4.298523E-3	9.795768E-3	3.319841E-3	4.856771E-3	8.559168E-3	1.516090E-2	8.110042E-3	5.444288E-3	2.929171E-3	3.412710E-3	1.702417E-3	1.133756E-2	9.106765E-3	9.090774E-3	-2.416822E-3	6.146538E-3	7.506871E-3	1.040150E-2	9.093492E-3	4.565487E-3	8.896297E-3	1.157121E-2	6.847951E-3	5.076144E-3	-5.457908E-5	-3.621758E-3	9.230263E-3	-5.733621E-4	2.009854E-2	2.562181E-3	-5.525264E-3	1.277685E-2	1.133027E-2	9.135258E-3	5.908510E-4	4.441130E-3	9.795662E-3	1.563301E-2	1.433716E-3	-3.816294E-3	1.088906E-2	1.192524E-2	1.085999E-2	6.026886E-3	7.849580E-3	7.379887E-3	2.194097E-3	1.029823E-2	6.262569E-3	6.629255E-3	2.152720E-3	4.182248E-3	1.986019E-3	1.223924E-2	-4.604930E-3	-2.111123E-3	9.034595E-3	4.606771E-3	5.816959E-3	1.077435E-2	1.332170E-2	5.337090E-3	9.401261E-3	6.903521E-3	4.001862E-3	5.990447E-3	2.819126E-3	8.774181E-3	7.586675E-3	1.193763E-2	5.776735E-3	-5.948486E-4	-9.359734E-4	2.276024E-2	3.877909E-3	7.107728E-3	5.969733E-3	6.471560E-3	4.654341E-3	8.371777E-3	7.765804E-3	8.113520E-3	6.328890E-3	6.838677E-4	1.657824E-2	7.312418E-3	2.950963E-3	7.807164E-5	9.691318E-3	1.094354E-2	1.977436E-2	4.426224E-3	5.716616E-3	6.977646E-3	1.254319E-2	2.265073E-2
5.330180E+2	2.588530E-2	8.237880E-3	3.087882E-2	1.550062E-2	1.138722E-2	8.516486E-3	2.432113E-2	2.786835E-2	1.640495E-2	1.904891E-2	2.179227E-2	2.054704E-2	1.638005E-2	5.991574E-3	1.573212E-2	2.212396E-2	3.386853E-2	1.179767E-2	1.386586E-2	5.586849E-3	1.429790E-2	8.526917E-3	1.770843E-2	1.364276E-2	1.499231E-2	1.251952E-2	1.700461E-2	1.952031E-2	8.559194E-3	1.370214E-2	1.713181E-2	1.197485E-2	1.018453E-2	9.191894E-3	1.945694E-2	1.387573E-2	1.985326E-2	3.003113E-2	3.359797E-2	1.269719E-2	1.319416E-2	2.201075E-2	1.902196E-2	6.539544E-3	5.705964E-3	1.212743E-2	2.293778E-2	1.299062E-2	1.368600E-2	7.224724E-3	2.588947E-3	8.345869E-3	2.210729E-2	2.155302E-2	2.614998E-2	8.133047E-3	2.092632E-2	1.201555E-2	2.744052E-2	9.188466E-3	2.635143E-2	2.072792E-2	2.189679E-2	1.328948E-2	1.445414E-2	2.578037E-2	1.142554E-2	1.669494E-2	9.068732E-3	1.964872E-2	1.603411E-2	7.590458E-3	1.311293E-2	7.815449E-3	2.033548E-2	2.243613E-2	1.757693E-2	3.550129E-3	1.680673E-2	1.742230E-2	1.030450E-2	6.035868E-3	2.072165E-2	2.111747E-2	1.499734E-2	9.765874E-3	1.554321E-2	1.655444E-2	1.856706E-2	2.462727E-2	2.059495E-2	1.430636E-2	1.693113E-2	1.306645E-2	1.427815E-2	1.640319E-2	1.745011E-2	2.469638E-2	1.576347E-2	1.835578E-2	2.810409E-2	2.693255E-2	2.375206E-2	2.199953E-2	2.130225E-2	8.742180E-3	9.783377E-3	1.941195E-2	2.730582E-2	1.548976E-2	1.041770E-2	2.093661E-2	3.205841E-2	1.153881E-2	1.650792E-2	1.951312E-2	1.568335E-2	2.103520E-2	1.123080E-2	1.372437E-2	1.528416E-2	1.132264E-2	1.794564E-2	1.895256E-2	2.743433E-2	1.496791E-2	1.284815E-2	1.888586E-2	1.760252E-2	1.237951E-2	1.001394E-2	1.893121E-2	1.555114E-2	8.119351E-3	1.362821E-2	1.740848E-2	4.775058E-3	1.593632E-2	5.248437E-3	2.120616E-2	1.851253E-2	1.118481E-2	2.032116E-2	2.101081E-4	2.122297E-2	1.304281E-2	1.182451E-2	2.163098E-2	1.280180E-2	2.171370E-2	9.000750E-3	5.264745E-3	1.289514E-2	1.829488E-2	7.418641E-3	1.466739E-2	1.992876E-2	1.837155E-2	9.883893E-3	2.514392E-2	8.276383E-3	1.302181E-2	2.038284E-2	1.907138E-2	1.490511E-2	7.585207E-3	4.043115E-3	1.173037E-2	1.687251E-2
5.331520E+2	1.499471E-2	2.497104E-2	2.787577E-2	1.883307E-2	1.556506E-2	2.543789E-2	2.074983E-2	2.148953E-2	3.117313E-2	2.572266E-2	3.100470E-2	1.734831E-2	1.752283E-2	2.977700E-2	2.972225E-2	1.913090E-2	8.144465E-3	4.456154E-2	2.671217E-2	1.717764E-2	1.543296E-2	3.493647E-2	2.527795E-2	2.411800E-2	2.141405E-2	1.574989E-2	2.144554E-2	2.333754E-2	1.772781E-2	2.095626E-2	2.709914E-2	1.078212E-2	1.549206E-2	1.552352E-2	1.178223E-2	1.789802E-2	1.712283E-2	1.817751E-2	1.506419E-2	9.150957E-3	1.126551E-2	2.077017E-2	2.927003E-2	2.486771E-2	2.548852E-2	-4.050874E-4	2.729896E-2	1.821377E-2	1.244649E-2	1.043645E-2	2.678614E-2	2.989976E-2	1.879881E-2	9.817717E-3	3.808021E-2	2.347754E-2	2.216378E-2	1.860711E-2	2.675139E-2	9.847695E-3	1.726095E-2	1.834693E-2	2.373170E-2	1.842517E-2	2.402872E-2	1.259618E-2	4.176064E-2	1.600646E-2	3.953660E-2	1.121961E-2	4.839918E-2	2.134900E-2	2.844543E-2	3.032396E-2	2.839532E-2	1.960411E-2	2.278059E-2	2.296033E-2	1.461224E-2	2.238886E-2	1.377611E-2	1.224924E-2	1.886706E-2	1.777005E-2	7.677774E-3	1.108421E-2	3.231949E-2	3.062989E-2	3.098760E-2	2.188800E-2	3.442894E-2	1.430637E-2	1.569457E-2	1.946065E-3	2.645951E-2	1.461156E-2	9.200804E-3	2.194619E-2	1.719943E-2	2.958713E-2	1.346029E-2	1.531473E-2	2.936113E-2	2.007925E-2	2.059179E-2	1.780067E-2	1.691256E-2	2.150313E-2	1.828026E-2	1.093446E-2	2.026885E-2	2.520288E-2	3.408908E-2	1.998560E-2	1.978125E-2	2.311863E-2	2.533980E-2	2.919772E-2	1.251447E-2	1.101137E-2	9.051821E-3	2.650288E-2	6.629233E-3	4.186148E-2	1.458450E-2	2.918611E-2	2.563437E-2	1.301316E-2	2.023104E-2	2.709730E-2	2.758708E-2	2.840258E-2	1.495404E-2	1.722345E-2	2.765938E-2	2.787933E-2	1.896501E-2	2.115767E-2	2.454134E-2	1.439616E-2	2.033850E-2	2.377852E-2	2.096609E-2	1.505451E-2	1.737277E-2	1.621982E-2	1.182446E-2	2.982467E-2	3.443947E-2	2.549225E-2	2.038222E-2	2.723817E-2	2.775752E-2	1.197745E-2	2.895981E-2	2.161611E-2	8.133521E-3	1.358935E-2	2.852721E-2	2.197346E-2	2.971807E-2	1.901679E-2	2.038284E-2	3.664532E-2	2.421961E-2	1.256819E-2	2.311755E-2	2.148418E-2	2.842894E-2
5.333180E+2	3.101026E-2	2.690176E-2	4.138943E-2	3.082985E-2	1.437139E-2	3.585104E-2	2.503535E-2	1.383496E-2	4.144664E-2	3.306385E-2	1.916013E-2	2.054703E-2	2.037984E-2	2.479863E-2	2.661331E-2	1.853228E-2	2.445728E-2	2.575266E-2	3.285608E-2	2.619264E-2	3.416113E-2	4.754098E-2	3.925250E-2	2.215390E-2	2.269840E-2	4.288506E-2	3.159636E-2	2.651857E-2	2.116610E-2	2.276981E-2	3.864028E-2	1.972775E-2	1.962014E-2	2.818678E-2	2.968999E-2	2.460174E-2	3.132107E-2	2.647508E-2	2.881509E-2	2.806448E-2	2.990874E-2	3.379696E-2	4.143964E-2	2.683141E-2	2.153200E-2	2.693863E-2	2.675381E-2	2.459762E-2	2.979994E-2	2.071379E-2	2.874808E-2	2.497316E-2	3.203274E-2	2.340598E-2	3.509764E-2	2.347754E-2	3.082577E-2	4.167766E-2	4.811441E-2	2.764494E-2	3.203289E-2	2.668044E-2	2.434333E-2	2.755536E-2	2.977348E-2	2.709879E-2	2.659313E-2	2.426870E-2	3.050904E-2	4.252758E-2	3.101794E-2	3.331293E-2	3.641829E-2	3.313756E-2	4.141497E-2	2.314419E-2	1.931147E-2	2.108188E-2	2.503590E-2	1.183499E-2	2.419083E-2	1.721995E-2	2.937608E-2	2.781229E-2	2.414678E-2	1.701658E-2	4.974106E-2	3.001792E-2	2.368140E-2	3.284505E-2	4.025378E-2	2.668688E-2	3.300645E-2	2.418680E-2	2.984322E-2	2.775007E-2	-4.233588E-4	2.950903E-2	2.653303E-2	2.186559E-2	3.697783E-3	2.214879E-2	5.304394E-2	1.815891E-2	3.622175E-2	3.850580E-2	2.987471E-2	2.289731E-2	2.489902E-2	3.086385E-2	4.286848E-2	3.495433E-2	3.070465E-2	3.038170E-2	2.632787E-2	3.681946E-2	2.855860E-2	3.359293E-2	2.920179E-2	8.976607E-3	2.837221E-2	2.867145E-2	3.791575E-2	1.360713E-2	2.437482E-2	2.238613E-2	2.685208E-2	3.193633E-2	2.285954E-2	3.111122E-2	2.893886E-2	3.131692E-2	3.585264E-2	3.673220E-2	2.574609E-2	3.342273E-2	1.399851E-2	4.278898E-2	2.899357E-2	3.210222E-2	4.164115E-2	2.737666E-2	2.161097E-2	3.113599E-2	2.892338E-2	2.702162E-2	2.567645E-2	3.665281E-2	2.703713E-2	2.864103E-2	3.618981E-2	1.686182E-2	1.871086E-2	3.373742E-2	2.687518E-2	2.925975E-2	2.675762E-2	3.391363E-2	3.045585E-2	2.260752E-2	3.413252E-2	3.300503E-2	1.346068E-2	3.805130E-2	2.945905E-2	2.876293E-2	3.338837E-2	3.205079E-2	1.571681E-2
5.334580E+2	3.741658E-2	2.175312E-2	4.214016E-2	2.883039E-2	4.122888E-2	3.454944E-2	4.574892E-2	3.998808E-2	4.337291E-2	2.038362E-2	4.284919E-2	2.822402E-2	5.066392E-2	3.973369E-2	2.039548E-2	2.092671E-2	3.261367E-2	5.487605E-2	5.408043E-2	2.490477E-2	3.472866E-2	4.273930E-2	4.856881E-2	3.721209E-2	3.168888E-2	5.128401E-2	3.667176E-2	4.305983E-2	4.236858E-2	4.332304E-2	3.654189E-2	2.628789E-2	3.495300E-2	3.515158E-2	2.393391E-2	3.935003E-2	3.842018E-2	5.314592E-2	4.615313E-2	2.510922E-2	5.112347E-2	3.503762E-2	3.055102E-2	3.075888E-2	3.340147E-2	3.833183E-2	2.184748E-2	4.026707E-2	2.732087E-2	3.356046E-2	3.136399E-2	2.989976E-2	4.250963E-2	2.896489E-2	6.194073E-2	4.741494E-2	3.948779E-2	3.508605E-2	5.982957E-2	2.764495E-2	3.714622E-2	3.263294E-2	3.412960E-2	2.983788E-2	3.424161E-2	3.698695E-2	3.959393E-2	4.217022E-2	2.599530E-2	4.373176E-2	5.079658E-2	2.852735E-2	3.948480E-2	3.806134E-2	4.699486E-2	3.305634E-2	3.260979E-2	3.172617E-2	4.204294E-2	2.735543E-2	4.640882E-2	4.083081E-2	3.493968E-2	3.986305E-2	4.732536E-2	4.865583E-2	4.457916E-2	2.695804E-2	3.171825E-2	2.736652E-2	5.700022E-2	1.756446E-2	2.496878E-2	3.391714E-2	4.608498E-2	3.431940E-2	3.807333E-2	2.744643E-2	5.309799E-2	4.643430E-2	3.237528E-2	3.650023E-2	4.930455E-2	4.504359E-2	3.266948E-2	4.238802E-2	3.830012E-2	2.847394E-2	4.415350E-2	2.801677E-2	4.402747E-2	3.068810E-2	2.596648E-2	4.337672E-2	4.465848E-2	2.960851E-2	4.980288E-2	4.301121E-2	6.257643E-2	4.017623E-2	3.585100E-2	3.951444E-2	4.324111E-2	3.346156E-2	2.315103E-2	2.547702E-2	4.938029E-2	4.041912E-2	5.440138E-2	4.582901E-2	3.164237E-2	3.787393E-2	5.436274E-2	3.933334E-2	7.166620E-2	3.280684E-2	3.883099E-2	4.055128E-2	5.348075E-2	3.346417E-2	4.042389E-2	4.296881E-2	5.385540E-2	4.536191E-2	4.945780E-2	4.163589E-2	2.130215E-2	5.235739E-2	4.298070E-2	4.942312E-2	3.935132E-2	3.334192E-2	4.649706E-2	5.128576E-2	4.077271E-2	3.203925E-2	5.469377E-2	3.391366E-2	4.074178E-2	5.431167E-2	3.161000E-2	3.367109E-2	2.667573E-2	4.156606E-2	2.538396E-2	3.499161E-2	3.632291E-2	3.774056E-2	2.149517E-2
5.336030E+2	4.766648E-2	3.076328E-2	4.063864E-2	3.682824E-2	4.660041E-2	4.366096E-2	5.432004E-2	4.636693E-2	4.080455E-2	5.441995E-2	4.153316E-2	2.118678E-2	2.152262E-2	5.245618E-2	4.112159E-2	4.666709E-2	4.767170E-2	6.155019E-2	4.793651E-2	4.357883E-2	4.210644E-2	4.754104E-2	7.069515E-2	3.852151E-2	3.682628E-2	5.903698E-2	5.697336E-2	4.624086E-2	3.491905E-2	6.024940E-2	4.073864E-2	3.821542E-2	3.023524E-2	4.021685E-2	3.736472E-2	5.677983E-2	3.623596E-2	5.373848E-2	4.196805E-2	4.224959E-2	4.276615E-2	3.689862E-2	4.848516E-2	3.141346E-2	4.131453E-2	4.915537E-2	5.455644E-2	4.142779E-2	4.839291E-2	5.861155E-2	5.163732E-2	5.391692E-2	5.243511E-2	4.687676E-2	5.657215E-2	5.355273E-2	4.196268E-2	4.761011E-2	5.569484E-2	3.753236E-2	4.566855E-2	3.620448E-2	6.654668E-2	4.581569E-2	5.339085E-2	4.819355E-2	5.981730E-2	4.010465E-2	4.799993E-2	4.734423E-2	6.578045E-2	3.989315E-2	4.745771E-2	4.579859E-2	5.939456E-2	3.730441E-2	4.764262E-2	4.487503E-2	4.917492E-2	3.232196E-2	5.404631E-2	3.896679E-2	3.926688E-2	4.990532E-2	4.427556E-2	4.404174E-2	5.103156E-2	4.715325E-2	4.267756E-2	5.065025E-2	6.355314E-2	5.144795E-2	5.340988E-2	4.781763E-2	5.623612E-2	3.849981E-2	3.532353E-2	4.807219E-2	5.094410E-2	4.362639E-2	4.945968E-2	5.836908E-2	6.488539E-2	3.352155E-2	5.895620E-2	5.403462E-2	5.515092E-2	4.729504E-2	5.137386E-2	4.851553E-2	4.866326E-2	3.922059E-2	4.356540E-2	5.247330E-2	4.465847E-2	5.412583E-2	6.203443E-2	5.242952E-2	4.460545E-2	4.628051E-2	4.769256E-2	4.891177E-2	6.054869E-2	5.026144E-2	5.252211E-2	3.969526E-2	4.755370E-2	5.281706E-2	5.505848E-2	3.780109E-2	5.462269E-2	5.535962E-2	4.779469E-2	5.494034E-2	5.763502E-2	4.450957E-2	6.366348E-2	4.428083E-2	3.418783E-2	4.980825E-2	5.564005E-2	4.956546E-2	6.739800E-2	5.278403E-2	5.779995E-2	4.290665E-2	5.410941E-2	5.372305E-2	6.177122E-2	4.312549E-2	6.970177E-2	4.493903E-2	3.486564E-2	5.058380E-2	5.467023E-2	5.149576E-2	4.414013E-2	4.646689E-2	5.874224E-2	5.177533E-2	4.359213E-2	4.499494E-2	3.611497E-2	5.632818E-2	5.041689E-2	5.679219E-2	6.493452E-2	5.887380E-2	4.576368E-2
5.337740E+2	6.047899E-2	4.299136E-2	7.892735E-2	4.949160E-2	5.973073E-2	6.383654E-2	7.646209E-2	5.210786E-2	6.199363E-2	7.110443E-2	8.035702E-2	5.573312E-2	4.952113E-2	6.960374E-2	6.392038E-2	7.180872E-2	5.331842E-2	6.094346E-2	7.362909E-2	5.130594E-2	7.275267E-2	5.774473E-2	1.050490E-1	7.583961E-2	7.599912E-2	6.226736E-2	8.488812E-2	5.960115E-2	5.211036E-2	8.201152E-2	5.857502E-2	7.340151E-2	5.559352E-2	7.567385E-2	6.166817E-2	8.292450E-2	6.681663E-2	6.499954E-2	7.126329E-2	4.816009E-2	5.369497E-2	6.481339E-2	8.243189E-2	5.301449E-2	7.353178E-2	6.795408E-2	6.545934E-2	6.464181E-2	5.954873E-2	6.503504E-2	7.452669E-2	5.761197E-2	6.787452E-2	6.293567E-2	8.043263E-2	6.153187E-2	8.094194E-2	6.936231E-2	6.051875E-2	5.467055E-2	6.612207E-2	6.477652E-2	5.737204E-2	6.065223E-2	5.913557E-2	7.851713E-2	7.281804E-2	7.521918E-2	6.944039E-2	6.420217E-2	9.095325E-2	5.963366E-2	5.665724E-2	6.901059E-2	7.117430E-2	6.704097E-2	7.134835E-2	8.494767E-2	6.398743E-2	7.950414E-2	6.376671E-2	6.816980E-2	5.843034E-2	8.739633E-2	6.379435E-2	6.447552E-2	7.232462E-2	5.388495E-2	7.920863E-2	5.818320E-2	6.428128E-2	4.688666E-2	5.155510E-2	6.727827E-2	8.127557E-2	6.955449E-2	6.282123E-2	5.082233E-2	7.966308E-2	5.906962E-2	5.800197E-2	7.955470E-2	8.482866E-2	6.616731E-2	6.961296E-2	7.991605E-2	7.329796E-2	6.332779E-2	6.280627E-2	6.730612E-2	6.083235E-2	7.517911E-2	6.454881E-2	6.806737E-2	6.822637E-2	5.989460E-2	7.233471E-2	8.131237E-2	8.439841E-2	7.680184E-2	7.573830E-2	6.264629E-2	8.850691E-2	7.317037E-2	5.374590E-2	7.555005E-2	6.947320E-2	5.868977E-2	6.557231E-2	6.656774E-2	6.205748E-2	8.304517E-2	6.570756E-2	7.574970E-2	7.804397E-2	5.621231E-2	7.075852E-2	6.516624E-2	9.058242E-2	6.751436E-2	5.503152E-2	6.815616E-2	6.352878E-2	8.185445E-2	4.432422E-2	6.768711E-2	6.796132E-2	7.557293E-2	5.835481E-2	6.264819E-2	9.246478E-2	6.019835E-2	7.428335E-2	7.444973E-2	9.358340E-2	7.373172E-2	5.903939E-2	7.097551E-2	8.638598E-2	7.967499E-2	8.269175E-2	6.564421E-2	4.681280E-2	8.163472E-2	7.777808E-2	8.046127E-2	8.914422E-2	6.375064E-2	7.696627E-2
5.339090E+2	8.866649E-2	8.418081E-2	1.202191E-1	6.015537E-2	1.056869E-1	8.466292E-2	9.074731E-2	9.612157E-2	9.152997E-2	8.712138E-2	1.000979E-1	8.324238E-2	7.523399E-2	8.121977E-2	9.397316E-2	9.216181E-2	8.970858E-2	8.217943E-2	8.759250E-2	7.384362E-2	8.977807E-2	8.895592E-2	1.533779E-1	1.210142E-1	1.023285E-1	1.223525E-1	1.210499E-1	9.459230E-2	8.763868E-2	8.563865E-2	9.791940E-2	8.532928E-2	6.797771E-2	1.016336E-1	9.044847E-2	1.030359E-1	9.739734E-2	8.692872E-2	1.131138E-1	7.002889E-2	8.776706E-2	1.045142E-1	1.086926E-1	7.527010E-2	7.522747E-2	9.472808E-2	8.672022E-2	8.843609E-2	7.876154E-2	9.586685E-2	1.033015E-1	1.013355E-1	1.048192E-1	1.049359E-1	1.150303E-1	1.051102E-1	1.137337E-1	1.010020E-1	9.773198E-2	7.708195E-2	8.657539E-2	1.100156E-1	7.816788E-2	8.176570E-2	7.254005E-2	9.829378E-2	1.053199E-1	1.000060E-1	7.903181E-2	1.063476E-1	1.029404E-1	7.698146E-2	9.284197E-2	9.222251E-2	9.783389E-2	8.898943E-2	8.580300E-2	9.559211E-2	9.964745E-2	8.571239E-2	8.390181E-2	7.873259E-2	1.029390E-1	8.137109E-2	8.026311E-2	8.886424E-2	1.084582E-1	9.794744E-2	1.077030E-1	8.489115E-2	1.035988E-1	8.728623E-2	7.999622E-2	8.812911E-2	1.002244E-1	7.672087E-2	7.175794E-2	7.969840E-2	8.397077E-2	7.451278E-2	9.339124E-2	1.150917E-1	1.091349E-1	9.177204E-2	1.108191E-1	1.103269E-1	9.857424E-2	7.796640E-2	9.168779E-2	8.552718E-2	1.147237E-1	7.822636E-2	9.568555E-2	7.586446E-2	8.524765E-2	9.234408E-2	1.019480E-1	1.183577E-1	1.338182E-1	1.018973E-1	1.069003E-1	9.011528E-2	1.257845E-1	1.006612E-1	8.434071E-2	1.039863E-1	1.114852E-1	1.037140E-1	9.120013E-2	9.867931E-2	8.301016E-2	1.107310E-1	1.003395E-1	9.265719E-2	1.112088E-1	7.777019E-2	1.012671E-1	1.002237E-1	1.195219E-1	9.203036E-2	8.485509E-2	7.895052E-2	1.028670E-1	8.494703E-2	9.245181E-2	8.293684E-2	1.095173E-1	1.028852E-1	1.039078E-1	9.602529E-2	1.196539E-1	1.035348E-1	8.526872E-2	1.004213E-1	1.248526E-1	1.015268E-1	8.387172E-2	9.548423E-2	1.101722E-1	9.996543E-2	7.701608E-2	1.049443E-1	7.198420E-2	7.319922E-2	1.028113E-1	9.727897E-2	1.082187E-1	8.813513E-2	8.736711E-2
5.340640E+2	1.194166E-1	1.266573E-1	1.532521E-1	1.268042E-1	1.307538E-1	1.412846E-1	1.650305E-1	1.076037E-1	1.390447E-1	1.511897E-1	1.455018E-1	1.395400E-1	1.106608E-1	1.227060E-1	1.048546E-1	1.358601E-1	1.242163E-1	1.282916E-1	1.205464E-1	1.144109E-1	1.419900E-1	1.303709E-1	2.051996E-1	1.688075E-1	1.569133E-1	1.546563E-1	1.686325E-1	1.308556E-1	1.231673E-1	1.587841E-1	1.288708E-1	1.574905E-1	1.216430E-1	1.408894E-1	1.243454E-1	1.539846E-1	1.421769E-1	1.645703E-1	1.549642E-1	1.184947E-1	1.469113E-1	1.448354E-1	1.605733E-1	1.191268E-1	1.300535E-1	1.289078E-1	1.417803E-1	1.278998E-1	1.122290E-1	1.498231E-1	1.588901E-1	1.296633E-1	1.384556E-1	1.432301E-1	1.675238E-1	1.247511E-1	1.298205E-1	1.557121E-1	1.659554E-1	1.186090E-1	1.371407E-1	1.314447E-1	1.405551E-1	1.279872E-1	1.261578E-1	1.576226E-1	1.515449E-1	1.316776E-1	1.489951E-1	1.575239E-1	1.820547E-1	1.284264E-1	1.461991E-1	1.499002E-1	1.362729E-1	1.151862E-1	1.164470E-1	1.268988E-1	1.523142E-1	1.192366E-1	1.304211E-1	1.178769E-1	1.282843E-1	1.135065E-1	1.473592E-1	1.317091E-1	1.652397E-1	1.248744E-1	1.493482E-1	1.150228E-1	1.807780E-1	1.055313E-1	1.331683E-1	1.374755E-1	1.563938E-1	1.328582E-1	1.116296E-1	1.347007E-1	1.550503E-1	1.433051E-1	1.177976E-1	1.745476E-1	1.614861E-1	1.308187E-1	1.427897E-1	1.368549E-1	1.497748E-1	1.253676E-1	1.470446E-1	1.179835E-1	1.199391E-1	1.300309E-1	1.484824E-1	1.187482E-1	1.402394E-1	1.247934E-1	1.489427E-1	1.579144E-1	1.620584E-1	1.337751E-1	1.399316E-1	1.399932E-1	1.377664E-1	1.434246E-1	1.100402E-1	1.330410E-1	1.498439E-1	1.500427E-1	1.148567E-1	1.401567E-1	1.377571E-1	1.639162E-1	1.570639E-1	1.648397E-1	1.481999E-1	1.239651E-1	1.530604E-1	1.479620E-1	1.684962E-1	1.172275E-1	1.505890E-1	1.257269E-1	1.551032E-1	1.350468E-1	1.168365E-1	1.318628E-1	1.328471E-1	1.581931E-1	1.614186E-1	1.482955E-1	1.892072E-1	1.273395E-1	1.266247E-1	1.741241E-1	1.602914E-1	1.077805E-1	1.298112E-1	1.433061E-1	1.481018E-1	1.380105E-1	1.268366E-1	1.315888E-1	1.084828E-1	1.512275E-1	1.406513E-1	1.608118E-1	1.551712E-1	1.442196E-1	1.439941E-1
5.342040E+2	1.886037E-1	1.665597E-1	2.253250E-1	1.847890E-1	2.274409E-1	1.979063E-1	2.400276E-1	1.841493E-1	2.096750E-1	2.105864E-1	2.402580E-1	1.708880E-1	1.895136E-1	1.918497E-1	1.893130E-1	2.208633E-1	1.819389E-1	2.126281E-1	2.115873E-1	1.717212E-1	2.066876E-1	2.318078E-1	3.350463E-1	2.945105E-1	2.442496E-1	2.741800E-1	2.771188E-1	2.301034E-1	2.102690E-1	2.349523E-1	2.091339E-1	2.391941E-1	1.853335E-1	2.111703E-1	2.330716E-1	2.384518E-1	2.158982E-1	2.475458E-1	2.500240E-1	2.160176E-1	2.459131E-1	2.608366E-1	2.534466E-1	2.192775E-1	2.120096E-1	1.955580E-1	2.366361E-1	2.097294E-1	2.058136E-1	2.140571E-1	2.399832E-1	2.004833E-1	2.255790E-1	2.457601E-1	2.599833E-1	2.088388E-1	2.405705E-1	2.400842E-1	2.334902E-1	1.845250E-1	2.036149E-1	2.260893E-1	2.267970E-1	2.124411E-1	2.129676E-1	2.248619E-1	2.346056E-1	2.280704E-1	2.234722E-1	2.376000E-1	2.437884E-1	2.079867E-1	2.148888E-1	2.321974E-1	2.503502E-1	2.065192E-1	2.118480E-1	2.070439E-1	2.318633E-1	2.061510E-1	2.102674E-1	1.887095E-1	2.142108E-1	2.112511E-1	2.168949E-1	2.101478E-1	2.452500E-1	2.093268E-1	2.333697E-1	2.019946E-1	2.368420E-1	1.921947E-1	2.017975E-1	2.153181E-1	2.484306E-1	2.134807E-1	1.948098E-1	2.144534E-1	2.325911E-1	2.296466E-1	2.154228E-1	2.763742E-1	2.512318E-1	2.242750E-1	2.166762E-1	2.319692E-1	2.256030E-1	2.138962E-1	2.102231E-1	1.777716E-1	2.271424E-1	2.080426E-1	2.195547E-1	2.019166E-1	2.240367E-1	2.243052E-1	2.442198E-1	2.389119E-1	2.730936E-1	2.151655E-1	2.471286E-1	2.332433E-1	2.635778E-1	2.320056E-1	1.944821E-1	2.183504E-1	2.466541E-1	2.263883E-1	1.989683E-1	2.344838E-1	2.195400E-1	2.134588E-1	2.334931E-1	2.597822E-1	2.814957E-1	2.120435E-1	2.197534E-1	2.456756E-1	2.478939E-1	1.962235E-1	2.248442E-1	2.054866E-1	2.531264E-1	2.105061E-1	1.951240E-1	2.297144E-1	2.436623E-1	2.271571E-1	2.496774E-1	2.414997E-1	2.853172E-1	2.243888E-1	2.138610E-1	2.653757E-1	2.686919E-1	2.140968E-1	1.881667E-1	2.018877E-1	2.503184E-1	2.318547E-1	1.930531E-1	2.108551E-1	1.871435E-1	2.123848E-1	2.134211E-1	2.280825E-1	2.461416E-1	2.100578E-1	2.237339E-1
5.343600E+2	3.148065E-1	3.351785E-1	3.904917E-1	2.994250E-1	3.760532E-1	3.697234E-1	4.471627E-1	3.614805E-1	3.380935E-1	3.647510E-1	3.527813E-1	3.353025E-1	3.426479E-1	3.351152E-1	3.509772E-1	3.519597E-1	2.967563E-1	3.964697E-1	3.623918E-1	3.346355E-1	3.508375E-1	3.980684E-1	5.248666E-1	5.007419E-1	4.266276E-1	4.544354E-1	4.725212E-1	4.037868E-1	3.919227E-1	3.987738E-1	3.901196E-1	3.930592E-1	3.192020E-1	3.979531E-1	3.840088E-1	3.778905E-1	3.562425E-1	4.650607E-1	4.329700E-1	3.484124E-1	4.201310E-1	3.954474E-1	4.603292E-1	3.816123E-1	3.674438E-1	3.744312E-1	3.614750E-1	3.693253E-1	3.694321E-1	4.048303E-1	4.132872E-1	3.729141E-1	3.783206E-1	3.970849E-1	4.311826E-1	3.868345E-1	3.748317E-1	4.075105E-1	4.271363E-1	3.097654E-1	3.797414E-1	3.975212E-1	3.888820E-1	3.659419E-1	3.878634E-1	4.094411E-1	4.267282E-1	3.919387E-1	4.034582E-1	4.495309E-1	4.355811E-1	3.497593E-1	3.706668E-1	3.834270E-1	4.344852E-1	4.019310E-1	3.523475E-1	4.117904E-1	3.766973E-1	3.712886E-1	3.942608E-1	3.409373E-1	3.656636E-1	3.471566E-1	4.078129E-1	3.775726E-1	4.497923E-1	3.280505E-1	4.255231E-1	3.355334E-1	4.618267E-1	3.570515E-1	3.810993E-1	3.473727E-1	4.440088E-1	3.902531E-1	3.556712E-1	3.911473E-1	4.300332E-1	3.489798E-1	3.777249E-1	4.602098E-1	4.774645E-1	3.337345E-1	4.021039E-1	4.267268E-1	4.096662E-1	3.519174E-1	3.528266E-1	3.491642E-1	3.807041E-1	3.921017E-1	3.576390E-1	4.033403E-1	3.877023E-1	3.923205E-1	3.974357E-1	4.341846E-1	4.637141E-1	3.847280E-1	4.241283E-1	4.240804E-1	4.366523E-1	4.053499E-1	3.786629E-1	3.537331E-1	3.946095E-1	4.123570E-1	3.586489E-1	3.555713E-1	3.885125E-1	3.905010E-1	4.239682E-1	4.152018E-1	4.492319E-1	3.395421E-1	4.028040E-1	3.739713E-1	4.244985E-1	3.467246E-1	3.751798E-1	3.596089E-1	4.375646E-1	3.985356E-1	3.574741E-1	3.764916E-1	4.390478E-1	3.746434E-1	4.034185E-1	4.354655E-1	4.623618E-1	3.379186E-1	3.792863E-1	4.499847E-1	4.104466E-1	3.579357E-1	3.489546E-1	3.943708E-1	4.219658E-1	3.960822E-1	3.595422E-1	3.494050E-1	3.161471E-1	3.789862E-1	3.688572E-1	4.267788E-1	4.009379E-1	3.531133E-1	4.167270E-1
5.345050E+2	5.499157E-1	5.469173E-1	7.005555E-1	6.173401E-1	6.201578E-1	6.664994E-1	7.207241E-1	6.816971E-1	5.936468E-1	6.310351E-1	7.054849E-1	6.743686E-1	5.632071E-1	5.773946E-1	5.800002E-1	6.716185E-1	5.809757E-1	6.652544E-1	5.835719E-1	5.677387E-1	6.221122E-1	6.927744E-1	8.491914E-1	7.888118E-1	7.207450E-1	7.671362E-1	7.776798E-1	6.792628E-1	6.154080E-1	6.629439E-1	6.204177E-1	7.395540E-1	5.144018E-1	6.632481E-1	6.276821E-1	6.326334E-1	6.784333E-1	6.885026E-1	7.229332E-1	6.185211E-1	6.843505E-1	6.727330E-1	7.536803E-1	6.120235E-1	6.562686E-1	6.205244E-1	6.923802E-1	6.618218E-1	6.136198E-1	6.238669E-1	6.938442E-1	6.531145E-1	6.722239E-1	7.077630E-1	7.568781E-1	6.378704E-1	6.365485E-1	6.916079E-1	7.255293E-1	6.571431E-1	6.280235E-1	6.814559E-1	6.647327E-1	6.307169E-1	5.768030E-1	6.553267E-1	7.141891E-1	6.398055E-1	6.505867E-1	7.300982E-1	7.478440E-1	5.872437E-1	6.533979E-1	7.041732E-1	7.109987E-1	6.525678E-1	6.269862E-1	6.202936E-1	6.630729E-1	6.481738E-1	6.226898E-1	5.596490E-1	6.679515E-1	6.022305E-1	6.768069E-1	6.827595E-1	7.124060E-1	5.783485E-1	7.097350E-1	6.306885E-1	6.970046E-1	6.183449E-1	6.383049E-1	6.413677E-1	6.720708E-1	6.291350E-1	5.790893E-1	6.194059E-1	6.332192E-1	6.353805E-1	6.663302E-1	7.110183E-1	7.579190E-1	6.192246E-1	6.791807E-1	7.146575E-1	7.129806E-1	6.244749E-1	6.446518E-1	6.532291E-1	6.420486E-1	6.261364E-1	6.778041E-1	6.314041E-1	6.875385E-1	6.829231E-1	7.051552E-1	6.985247E-1	7.384129E-1	6.716288E-1	6.590886E-1	7.399741E-1	7.228911E-1	6.718570E-1	6.252575E-1	6.448974E-1	7.148748E-1	7.340509E-1	6.254403E-1	6.773556E-1	7.021254E-1	6.520572E-1	7.052024E-1	7.318945E-1	7.100837E-1	6.431979E-1	6.752525E-1	7.141048E-1	7.502520E-1	5.986956E-1	6.119437E-1	6.306720E-1	7.367929E-1	6.849092E-1	5.762940E-1	6.547966E-1	7.292103E-1	6.689347E-1	6.232118E-1	7.138196E-1	7.627059E-1	6.266257E-1	6.313011E-1	7.609409E-1	7.203618E-1	6.212931E-1	6.003798E-1	6.400550E-1	7.434017E-1	6.921982E-1	6.237793E-1	5.978627E-1	5.873687E-1	6.714169E-1	6.529505E-1	6.915001E-1	7.193338E-1	6.124026E-1	6.779046E-1
5.346560E+2	8.926495E-1	8.101430E-1	1.117977E+0	9.459194E-1	1.003922E+0	1.003626E+0	1.134281E+0	1.096958E+0	8.967146E-1	9.673939E-1	1.087142E+0	1.122832E+0	8.666190E-1	8.926896E-1	9.442621E-1	1.044554E+0	8.670776E-1	9.728703E-1	8.695420E-1	8.459167E-1	9.836231E-1	1.064309E+0	1.223009E+0	1.127948E+0	1.077153E+0	1.093404E+0	1.206549E+0	9.146575E-1	9.437590E-1	1.014767E+0	9.650764E-1	1.043706E+0	7.774201E-1	1.012753E+0	9.896754E-1	1.018100E+0	1.004446E+0	1.124123E+0	1.115131E+0	1.054124E+0	1.041786E+0	9.866182E-1	1.084821E+0	1.065645E+0	9.597886E-1	9.702960E-1	1.007477E+0	1.029183E+0	8.429337E-1	9.867859E-1	1.012332E+0	9.992076E-1	1.030643E+0	1.047471E+0	1.097487E+0	1.060151E+0	9.582810E-1	9.921841E-1	1.093525E+0	1.001224E+0	9.450514E-1	9.445565E-1	1.056796E+0	9.867938E-1	9.438290E-1	9.836137E-1	1.094823E+0	1.054983E+0	1.002095E+0	1.070873E+0	1.169787E+0	9.461621E-1	9.778332E-1	1.060793E+0	1.056330E+0	9.357730E-1	9.195493E-1	9.458836E-1	9.812675E-1	9.952109E-1	9.726244E-1	8.243387E-1	1.025257E+0	9.255914E-1	1.075112E+0	9.998112E-1	1.131814E+0	9.216672E-1	1.032670E+0	9.724117E-1	1.065425E+0	9.076583E-1	8.831447E-1	1.033361E+0	1.065257E+0	9.856661E-1	8.375675E-1	9.686686E-1	1.113542E+0	9.456481E-1	1.024493E+0	1.121060E+0	1.189195E+0	9.303189E-1	1.017355E+0	1.079585E+0	1.022128E+0	9.681332E-1	9.828086E-1	9.259769E-1	9.775660E-1	9.601234E-1	1.023014E+0	9.653774E-1	9.788641E-1	1.016070E+0	1.074677E+0	1.149975E+0	1.099757E+0	9.931205E-1	9.831728E-1	1.065264E+0	1.094335E+0	9.849458E-1	9.844406E-1	9.638800E-1	1.018092E+0	1.135353E+0	9.448017E-1	9.723802E-1	1.084679E+0	9.667980E-1	1.061672E+0	1.027126E+0	1.185229E+0	9.499332E-1	1.076828E+0	1.060951E+0	1.142789E+0	9.276193E-1	9.704376E-1	9.347184E-1	1.073425E+0	1.033753E+0	8.984276E-1	9.572470E-1	1.099567E+0	1.027410E+0	9.529015E-1	1.086636E+0	1.176232E+0	9.452406E-1	9.537513E-1	1.153322E+0	1.090036E+0	9.687305E-1	9.008490E-1	1.031596E+0	1.084767E+0	1.049820E+0	9.113499E-1	9.555620E-1	8.277558E-1	1.036955E+0	9.731377E-1	1.133741E+0	1.049468E+0	9.708547E-1	9.645058E-1
5.348020E+2	1.275102E+0	1.159609E+0	1.575188E+0	1.324487E+0	1.308905E+0	1.373947E+0	1.538552E+0	1.528165E+0	1.271055E+0	1.366484E+0	1.406944E+0	1.486846E+0	1.184887E+0	1.245600E+0	1.259817E+0	1.366607E+0	1.254821E+0	1.399406E+0	1.309668E+0	1.174321E+0	1.308809E+0	1.444847E+0	1.437284E+0	1.448097E+0	1.369985E+0	1.433241E+0	1.546604E+0	1.253753E+0	1.206787E+0	1.313999E+0	1.329672E+0	1.490989E+0	1.026285E+0	1.314771E+0	1.288990E+0	1.309712E+0	1.300425E+0	1.506997E+0	1.512110E+0	1.424120E+0	1.378007E+0	1.342065E+0	1.492180E+0	1.498318E+0	1.241831E+0	1.301270E+0	1.340018E+0	1.428465E+0	1.234627E+0	1.286758E+0	1.345208E+0	1.387795E+0	1.325099E+0	1.448943E+0	1.494168E+0	1.547492E+0	1.360448E+0	1.341538E+0	1.473233E+0	1.582599E+0	1.258102E+0	1.368375E+0	1.389530E+0	1.468410E+0	1.248938E+0	1.412761E+0	1.443676E+0	1.344161E+0	1.301132E+0	1.509186E+0	1.541987E+0	1.370882E+0	1.304109E+0	1.389981E+0	1.447541E+0	1.359163E+0	1.236976E+0	1.289008E+0	1.344999E+0	1.385085E+0	1.271875E+0	1.128173E+0	1.302817E+0	1.324603E+0	1.369727E+0	1.355093E+0	1.501539E+0	1.218474E+0	1.377525E+0	1.258664E+0	1.409820E+0	1.211957E+0	1.215163E+0	1.269669E+0	1.409718E+0	1.305769E+0	1.217721E+0	1.258117E+0	1.489757E+0	1.317688E+0	1.364964E+0	1.490100E+0	1.559398E+0	1.236294E+0	1.381815E+0	1.355225E+0	1.347479E+0	1.234417E+0	1.333602E+0	1.268193E+0	1.333367E+0	1.308737E+0	1.362807E+0	1.267513E+0	1.348748E+0	1.470363E+0	1.413297E+0	1.465175E+0	1.562507E+0	1.330211E+0	1.318475E+0	1.425974E+0	1.522364E+0	1.345379E+0	1.213903E+0	1.321191E+0	1.416900E+0	1.449868E+0	1.263506E+0	1.302194E+0	1.373960E+0	1.304854E+0	1.373358E+0	1.317156E+0	1.471593E+0	1.250510E+0	1.393974E+0	1.455537E+0	1.487837E+0	1.283783E+0	1.327714E+0	1.292138E+0	1.482285E+0	1.319509E+0	1.213504E+0	1.289562E+0	1.453155E+0	1.405005E+0	1.312202E+0	1.512984E+0	1.565730E+0	1.211974E+0	1.252937E+0	1.507099E+0	1.464574E+0	1.225834E+0	1.265879E+0	1.310160E+0	1.464064E+0	1.388423E+0	1.197029E+0	1.261305E+0	1.124150E+0	1.384218E+0	1.302640E+0	1.471959E+0	1.404548E+0	1.274036E+0	1.348181E+0
5.349580E+2	1.564024E+0	1.496204E+0	2.001621E+0	1.649066E+0	1.768467E+0	1.802189E+0	1.949966E+0	1.973409E+0	1.592743E+0	1.769583E+0	1.937317E+0	1.844466E+0	1.522582E+0	1.670418E+0	1.641694E+0	1.866447E+0	1.608055E+0	1.811381E+0	1.673277E+0	1.552311E+0	1.664646E+0	1.871002E+0	1.863511E+0	1.831757E+0	1.738593E+0	1.789874E+0	1.913299E+0	1.651379E+0	1.567229E+0	1.700887E+0	1.618199E+0	1.811840E+0	1.348867E+0	1.690869E+0	1.720697E+0	1.695852E+0	1.638453E+0	1.885724E+0	1.793705E+0	1.867996E+0	1.757303E+0	1.758925E+0	1.816916E+0	1.851791E+0	1.585481E+0	1.633381E+0	1.630581E+0	1.801047E+0	1.515381E+0	1.667018E+0	1.671544E+0	1.785002E+0	1.721565E+0	1.833121E+0	1.844918E+0	1.942764E+0	1.702595E+0	1.775925E+0	1.880511E+0	1.938548E+0	1.583653E+0	1.726121E+0	1.798720E+0	1.788536E+0	1.651075E+0	1.832678E+0	1.892204E+0	1.703569E+0	1.663361E+0	1.848753E+0	1.996894E+0	1.910457E+0	1.638970E+0	1.755041E+0	1.901987E+0	1.980803E+0	1.587935E+0	1.618355E+0	1.681300E+0	1.875533E+0	1.625280E+0	1.400940E+0	1.695976E+0	1.729643E+0	1.750952E+0	1.720265E+0	1.955791E+0	1.825556E+0	1.758907E+0	1.564093E+0	1.822654E+0	1.710435E+0	1.569438E+0	1.740895E+0	1.792075E+0	1.727395E+0	1.533947E+0	1.647943E+0	1.809975E+0	1.649013E+0	1.687736E+0	2.002646E+0	1.977586E+0	1.594755E+0	1.757644E+0	1.808147E+0	1.744769E+0	1.572500E+0	1.617003E+0	1.567133E+0	1.610357E+0	1.639068E+0	1.731710E+0	1.636574E+0	1.632218E+0	1.689574E+0	1.766080E+0	1.932319E+0	1.953377E+0	1.733774E+0	1.686184E+0	1.862591E+0	1.835895E+0	1.699704E+0	1.577368E+0	1.634612E+0	1.779786E+0	1.812672E+0	1.592066E+0	1.667462E+0	1.770031E+0	1.677152E+0	1.776998E+0	1.849748E+0	1.954395E+0	1.620070E+0	1.762915E+0	1.772547E+0	1.910797E+0	1.542562E+0	1.730030E+0	1.567401E+0	1.842779E+0	1.695569E+0	1.589544E+0	1.592645E+0	1.844657E+0	1.720461E+0	1.700538E+0	1.846128E+0	1.903383E+0	1.576978E+0	1.608341E+0	1.911411E+0	1.862043E+0	1.555900E+0	1.609186E+0	1.689146E+0	1.864573E+0	1.764430E+0	1.470726E+0	1.587696E+0	1.382157E+0	1.707578E+0	1.711312E+0	1.840702E+0	1.810980E+0	1.639802E+0	1.613981E+0
5.351090E+2	1.736354E+0	1.653238E+0	2.334955E+0	1.859007E+0	1.988696E+0	1.959683E+0	2.188526E+0	2.104173E+0	1.832886E+0	1.940431E+0	2.109062E+0	2.164338E+0	1.767712E+0	1.748411E+0	1.769682E+0	2.005328E+0	1.774949E+0	1.955786E+0	1.830780E+0	1.706853E+0	1.849661E+0	2.056468E+0	1.931635E+0	1.875620E+0	1.868958E+0	1.947515E+0	1.981183E+0	1.741085E+0	1.680118E+0	1.903998E+0	1.808629E+0	1.845234E+0	1.693857E+0	1.859923E+0	1.812156E+0	1.856739E+0	1.886374E+0	2.030933E+0	2.038826E+0	2.015165E+0	1.949520E+0	1.900980E+0	2.071839E+0	2.048165E+0	1.707566E+0	1.828777E+0	1.800120E+0	1.978056E+0	1.779402E+0	1.801269E+0	1.895202E+0	1.928490E+0	1.821924E+0	1.992476E+0	2.069207E+0	2.145927E+0	1.833763E+0	1.944669E+0	2.044524E+0	2.096749E+0	1.718873E+0	1.886242E+0	1.957746E+0	2.010515E+0	1.774906E+0	1.911785E+0	1.986096E+0	1.848846E+0	1.846733E+0	2.035999E+0	2.116764E+0	2.131789E+0	1.791071E+0	1.990678E+0	1.926168E+0	2.185416E+0	1.715134E+0	1.754851E+0	1.831618E+0	2.017076E+0	1.774560E+0	1.556894E+0	1.852995E+0	1.958607E+0	1.863795E+0	1.844844E+0	2.116453E+0	2.107064E+0	1.869962E+0	1.710645E+0	2.028710E+0	2.023859E+0	1.744412E+0	1.903528E+0	1.989007E+0	1.969860E+0	1.689994E+0	1.767573E+0	1.960028E+0	1.771156E+0	1.870175E+0	2.121561E+0	2.117184E+0	1.883447E+0	1.915366E+0	1.972497E+0	1.857543E+0	1.929401E+0	1.778258E+0	1.816533E+0	1.798689E+0	1.842018E+0	1.863024E+0	1.821102E+0	1.858730E+0	1.888601E+0	1.995905E+0	1.978158E+0	2.050932E+0	1.859929E+0	1.822675E+0	1.978972E+0	1.927090E+0	1.933375E+0	1.717491E+0	1.816975E+0	1.888776E+0	1.909243E+0	1.726121E+0	1.888897E+0	1.964687E+0	1.810481E+0	1.921496E+0	1.948587E+0	2.107458E+0	1.713077E+0	2.006275E+0	2.061213E+0	2.107437E+0	1.735970E+0	1.863933E+0	1.724518E+0	1.999486E+0	1.842775E+0	1.669752E+0	1.775007E+0	1.948181E+0	1.875461E+0	1.805883E+0	1.956966E+0	2.088644E+0	1.725296E+0	1.737582E+0	2.063734E+0	2.025341E+0	1.744210E+0	1.609807E+0	1.818264E+0	1.984787E+0	1.897587E+0	1.640999E+0	1.769543E+0	1.499828E+0	1.794042E+0	1.855691E+0	2.031923E+0	1.961374E+0	1.751158E+0	1.800040E+0
5.352550E+2	1.783117E+0	1.612050E+0	2.304172E+0	1.932992E+0	1.916482E+0	1.998735E+0	2.264956E+0	2.198577E+0	1.817478E+0	1.986483E+0	2.072215E+0	2.076058E+0	1.771142E+0	1.891124E+0	1.801285E+0	2.046030E+0	1.813848E+0	2.007359E+0	1.846980E+0	1.768667E+0	1.955217E+0	2.088879E+0	1.963659E+0	2.017690E+0	1.871526E+0	1.955271E+0	2.125196E+0	1.755717E+0	1.704755E+0	1.934830E+0	1.821217E+0	1.967494E+0	1.741035E+0	1.877654E+0	1.862680E+0	1.835291E+0	1.944265E+0	2.059973E+0	2.026273E+0	2.032305E+0	1.936662E+0	1.885473E+0	2.027003E+0	2.093984E+0	1.766917E+0	1.756997E+0	1.834466E+0	1.963548E+0	1.669703E+0	1.832740E+0	1.883431E+0	1.959897E+0	1.884231E+0	1.977653E+0	2.037592E+0	2.140398E+0	1.904917E+0	1.938736E+0	2.135490E+0	2.148163E+0	1.758076E+0	1.908267E+0	1.870890E+0	1.985407E+0	1.779375E+0	1.986935E+0	1.965153E+0	1.896354E+0	1.869302E+0	2.056472E+0	2.122760E+0	2.107863E+0	1.848109E+0	1.943550E+0	1.980727E+0	2.144350E+0	1.700683E+0	1.744834E+0	1.925984E+0	2.066744E+0	1.823853E+0	1.587342E+0	1.865975E+0	1.940531E+0	1.989449E+0	1.903509E+0	2.072575E+0	2.090543E+0	1.929874E+0	1.783920E+0	2.106617E+0	2.022556E+0	1.772853E+0	1.864609E+0	1.991718E+0	2.015246E+0	1.702369E+0	1.785447E+0	2.050491E+0	1.934008E+0	1.866513E+0	2.172812E+0	2.145856E+0	2.206703E+0	1.904000E+0	1.997727E+0	1.933368E+0	2.094608E+0	1.807743E+0	1.786354E+0	1.831137E+0	2.096169E+0	1.889422E+0	1.811355E+0	1.947114E+0	1.988833E+0	1.946977E+0	2.119432E+0	2.059920E+0	1.912830E+0	1.840749E+0	1.959452E+0	2.031601E+0	2.005920E+0	1.749310E+0	1.843556E+0	1.934443E+0	1.958182E+0	1.782632E+0	1.854111E+0	1.938325E+0	1.868036E+0	1.981206E+0	1.934937E+0	2.143176E+0	1.746951E+0	1.945256E+0	2.013472E+0	2.082946E+0	1.774782E+0	1.795764E+0	1.801283E+0	2.104601E+0	1.895965E+0	1.776920E+0	1.801694E+0	2.013795E+0	1.854292E+0	1.889013E+0	2.057725E+0	2.189811E+0	1.743001E+0	1.731766E+0	2.126905E+0	2.041322E+0	1.745600E+0	1.794806E+0	1.853534E+0	2.005359E+0	2.004750E+0	1.675683E+0	1.743565E+0	1.575347E+0	1.841142E+0	1.863838E+0	2.084244E+0	1.976778E+0	1.745472E+0	1.815063E+0
5.354060E+2	1.633211E+0	1.546403E+0	2.086455E+0	1.664396E+0	1.745786E+0	1.841886E+0	2.076389E+0	1.999558E+0	1.642186E+0	1.855676E+0	1.946527E+0	1.879650E+0	1.614580E+0	1.729051E+0	1.630817E+0	1.875429E+0	1.599898E+0	1.835047E+0	1.689471E+0	1.584504E+0	1.746937E+0	1.922022E+0	1.780243E+0	1.774139E+0	1.655113E+0	1.778246E+0	1.934235E+0	1.566762E+0	1.524247E+0	1.691815E+0	1.641807E+0	1.850005E+0	1.537578E+0	1.688337E+0	1.626040E+0	1.628143E+0	1.738933E+0	1.835344E+0	1.857079E+0	1.897547E+0	1.708444E+0	1.770715E+0	1.932211E+0	1.860300E+0	1.634658E+0	1.622557E+0	1.624584E+0	1.827746E+0	1.531495E+0	1.665735E+0	1.680700E+0	1.815176E+0	1.656498E+0	1.825710E+0	1.852074E+0	2.022555E+0	1.675373E+0	1.742967E+0	1.915657E+0	1.957666E+0	1.606950E+0	1.791597E+0	1.776088E+0	1.860436E+0	1.662562E+0	1.810263E+0	1.889315E+0	1.761405E+0	1.701163E+0	1.849358E+0	1.999291E+0	1.920027E+0	1.643879E+0	1.734641E+0	1.870370E+0	1.999211E+0	1.559603E+0	1.613968E+0	1.626438E+0	1.878637E+0	1.606533E+0	1.482336E+0	1.724414E+0	1.775837E+0	1.768031E+0	1.700489E+0	1.890621E+0	1.876350E+0	1.751603E+0	1.577790E+0	1.862700E+0	1.772991E+0	1.606538E+0	1.735337E+0	1.741320E+0	1.802043E+0	1.532570E+0	1.683697E+0	1.812844E+0	1.752205E+0	1.674921E+0	1.980781E+0	1.933955E+0	2.011468E+0	1.786772E+0	1.766091E+0	1.822542E+0	1.987958E+0	1.653705E+0	1.707776E+0	1.679315E+0	1.816423E+0	1.751339E+0	1.682056E+0	1.747440E+0	1.712649E+0	1.892259E+0	1.893390E+0	2.026545E+0	1.956241E+0	1.753495E+0	1.802590E+0	1.845878E+0	1.882209E+0	1.581038E+0	1.700756E+0	1.813882E+0	1.832247E+0	1.576950E+0	1.636015E+0	1.793010E+0	1.862208E+0	1.800881E+0	1.851044E+0	1.930794E+0	2.011806E+0	1.799099E+0	1.809843E+0	1.867757E+0	1.921880E+0	1.676471E+0	1.619571E+0	1.917585E+0	1.849579E+0	1.647293E+0	1.658728E+0	1.847574E+0	1.787378E+0	1.736414E+0	1.963262E+0	1.970406E+0	1.756428E+0	1.569572E+0	1.877719E+0	1.914158E+0	1.692789E+0	1.596772E+0	1.692135E+0	1.872286E+0	1.810723E+0	1.507936E+0	1.664965E+0	1.403551E+0	1.697737E+0	1.699091E+0	1.909840E+0	1.835184E+0	1.578029E+0	1.706433E+0
5.355630E+2	1.405149E+0	1.332089E+0	1.843210E+0	1.481108E+0	1.529137E+0	1.607593E+0	1.799259E+0	1.780131E+0	1.463681E+0	1.563362E+0	1.691872E+0	1.730591E+0	1.434015E+0	1.454136E+0	1.430288E+0	1.668310E+0	1.417947E+0	1.634217E+0	1.468849E+0	1.424809E+0	1.568170E+0	1.653121E+0	1.573538E+0	1.612427E+0	1.464386E+0	1.619308E+0	1.606238E+0	1.449707E+0	1.381563E+0	1.487493E+0	1.473411E+0	1.680036E+0	1.388968E+0	1.499656E+0	1.459117E+0	1.539652E+0	1.513944E+0	1.639758E+0	1.629291E+0	1.658173E+0	1.551583E+0	1.542433E+0	1.709951E+0	1.691419E+0	1.428916E+0	1.489255E+0	1.495928E+0	1.610694E+0	1.365397E+0	1.451195E+0	1.532246E+0	1.626118E+0	1.459642E+0	1.619416E+0	1.688034E+0	1.779500E+0	1.517599E+0	1.575540E+0	1.660679E+0	1.777714E+0	1.416050E+0	1.632072E+0	1.538768E+0	1.613351E+0	1.419366E+0	1.638211E+0	1.672636E+0	1.532127E+0	1.407206E+0	1.660305E+0	1.753556E+0	1.700490E+0	1.517538E+0	1.596780E+0	1.639116E+0	1.759194E+0	1.442809E+0	1.404840E+0	1.575965E+0	1.629688E+0	1.481556E+0	1.318925E+0	1.511763E+0	1.567628E+0	1.617977E+0	1.569977E+0	1.684785E+0	1.699487E+0	1.579175E+0	1.433291E+0	1.672665E+0	1.692194E+0	1.404973E+0	1.533085E+0	1.607329E+0	1.607955E+0	1.382018E+0	1.487063E+0	1.667818E+0	1.510028E+0	1.588892E+0	1.790795E+0	1.793109E+0	1.749023E+0	1.611296E+0	1.649623E+0	1.548390E+0	1.710521E+0	1.487638E+0	1.436739E+0	1.513585E+0	1.645773E+0	1.528647E+0	1.500126E+0	1.520269E+0	1.548962E+0	1.596770E+0	1.641612E+0	1.798058E+0	1.740553E+0	1.503576E+0	1.611028E+0	1.690776E+0	1.691303E+0	1.394411E+0	1.541880E+0	1.589821E+0	1.676946E+0	1.438959E+0	1.484826E+0	1.615252E+0	1.561311E+0	1.562639E+0	1.616291E+0	1.756680E+0	1.799305E+0	1.597601E+0	1.612175E+0	1.669633E+0	1.794535E+0	1.546217E+0	1.461852E+0	1.646732E+0	1.657837E+0	1.393182E+0	1.487804E+0	1.684993E+0	1.643305E+0	1.521178E+0	1.676720E+0	1.727600E+0	1.708820E+0	1.488800E+0	1.718380E+0	1.770322E+0	1.744212E+0	1.380730E+0	1.514002E+0	1.656281E+0	1.709267E+0	1.297933E+0	1.439155E+0	1.250005E+0	1.576125E+0	1.509885E+0	1.681245E+0	1.692864E+0	1.581279E+0	1.530773E+0
5.357140E+2	1.208477E+0	1.153173E+0	1.593957E+0	1.250506E+0	1.360231E+0	1.429264E+0	1.566409E+0	1.594505E+0	1.272983E+0	1.376499E+0	1.500382E+0	1.459339E+0	1.270024E+0	1.304234E+0	1.243754E+0	1.440235E+0	1.247921E+0	1.376959E+0	1.246554E+0	1.165307E+0	1.279868E+0	1.444247E+0	1.362173E+0	1.404888E+0	1.278799E+0	1.426133E+0	1.523129E+0	1.224488E+0	1.195899E+0	1.306142E+0	1.275113E+0	1.394972E+0	1.237407E+0	1.288180E+0	1.297305E+0	1.300329E+0	1.370326E+0	1.416317E+0	1.409280E+0	1.448353E+0	1.343292E+0	1.337722E+0	1.424927E+0	1.458389E+0	1.258786E+0	1.246582E+0	1.264241E+0	1.412214E+0	1.209216E+0	1.298318E+0	1.354364E+0	1.327442E+0	1.293115E+0	1.462534E+0	1.430937E+0	1.557924E+0	1.333224E+0	1.375154E+0	1.473923E+0	1.507458E+0	1.226286E+0	1.342187E+0	1.328363E+0	1.413629E+0	1.259793E+0	1.332337E+0	1.370729E+0	1.365505E+0	1.294362E+0	1.469448E+0	1.554575E+0	1.468390E+0	1.312081E+0	1.368175E+0	1.427080E+0	1.508556E+0	1.190718E+0	1.218877E+0	1.333480E+0	1.462686E+0	1.260764E+0	1.146814E+0	1.326926E+0	1.352052E+0	1.309338E+0	1.315546E+0	1.471212E+0	1.478567E+0	1.410399E+0	1.292907E+0	1.405451E+0	1.399622E+0	1.207125E+0	1.271753E+0	1.438143E+0	1.419833E+0	1.183349E+0	1.284931E+0	1.487605E+0	1.321197E+0	1.291134E+0	1.518117E+0	1.547553E+0	1.486576E+0	1.370448E+0	1.351340E+0	1.393494E+0	1.512552E+0	1.287268E+0	1.253958E+0	1.289905E+0	1.432460E+0	1.305950E+0	1.336386E+0	1.295066E+0	1.381667E+0	1.407504E+0	1.463919E+0	1.493835E+0	1.533689E+0	1.345895E+0	1.388385E+0	1.437155E+0	1.536284E+0	1.262854E+0	1.312536E+0	1.431514E+0	1.442038E+0	1.252334E+0	1.296172E+0	1.348953E+0	1.425066E+0	1.371565E+0	1.436809E+0	1.521340E+0	1.525215E+0	1.416678E+0	1.404814E+0	1.565005E+0	1.508514E+0	1.305192E+0	1.245962E+0	1.415863E+0	1.472901E+0	1.148051E+0	1.288926E+0	1.437119E+0	1.384521E+0	1.308216E+0	1.398997E+0	1.494912E+0	1.495190E+0	1.322079E+0	1.494464E+0	1.477083E+0	1.448194E+0	1.237943E+0	1.271900E+0	1.384988E+0	1.539334E+0	1.183785E+0	1.222668E+0	1.143658E+0	1.410228E+0	1.343390E+0	1.488155E+0	1.414814E+0	1.469924E+0	1.341247E+0
5.358600E+2	1.063696E+0	9.626718E-1	1.320681E+0	1.162528E+0	1.172231E+0	1.217746E+0	1.364986E+0	1.339992E+0	1.132363E+0	1.218994E+0	1.268101E+0	1.247581E+0	1.062609E+0	1.116160E+0	1.111625E+0	1.209172E+0	1.085418E+0	1.199791E+0	1.120881E+0	1.070005E+0	1.156717E+0	1.259981E+0	1.224755E+0	1.213058E+0	1.073300E+0	1.207758E+0	1.207821E+0	1.086433E+0	1.065816E+0	1.114510E+0	1.069471E+0	1.173715E+0	1.027464E+0	1.190040E+0	1.116308E+0	1.172957E+0	1.129500E+0	1.297187E+0	1.282532E+0	1.243848E+0	1.125360E+0	1.197529E+0	1.227011E+0	1.208344E+0	1.097137E+0	1.084799E+0	1.102876E+0	1.220118E+0	1.027004E+0	1.110115E+0	1.133972E+0	1.186417E+0	1.138719E+0	1.188913E+0	1.259740E+0	1.357833E+0	1.108629E+0	1.146427E+0	1.299576E+0	1.318279E+0	1.089931E+0	1.150515E+0	1.175452E+0	1.209340E+0	1.092554E+0	1.242025E+0	1.260222E+0	1.196818E+0	1.125660E+0	1.271965E+0	1.298051E+0	1.306279E+0	1.116438E+0	1.198658E+0	1.247905E+0	1.316684E+0	1.092429E+0	1.086138E+0	1.114034E+0	1.209394E+0	1.123985E+0	1.012604E+0	1.134674E+0	1.191377E+0	1.177587E+0	1.163940E+0	1.294414E+0	1.259478E+0	1.145185E+0	1.026512E+0	1.283857E+0	1.208050E+0	1.095833E+0	1.107728E+0	1.256099E+0	1.174384E+0	1.098108E+0	1.067672E+0	1.219801E+0	1.166064E+0	1.168491E+0	1.306263E+0	1.310101E+0	1.359197E+0	1.226228E+0	1.227753E+0	1.202950E+0	1.332705E+0	1.091715E+0	1.129825E+0	1.120698E+0	1.244743E+0	1.150268E+0	1.141460E+0	1.147112E+0	1.263407E+0	1.136478E+0	1.302551E+0	1.283318E+0	1.301725E+0	1.161419E+0	1.235863E+0	1.276731E+0	1.319416E+0	1.048078E+0	1.164791E+0	1.184313E+0	1.255415E+0	1.061769E+0	1.103502E+0	1.192148E+0	1.228354E+0	1.215126E+0	1.226114E+0	1.307683E+0	1.363840E+0	1.237886E+0	1.245190E+0	1.258547E+0	1.313749E+0	1.116512E+0	1.070250E+0	1.266249E+0	1.312703E+0	1.094789E+0	1.106567E+0	1.227150E+0	1.234983E+0	1.152765E+0	1.282494E+0	1.345057E+0	1.370062E+0	1.081697E+0	1.380048E+0	1.302669E+0	1.303660E+0	1.044255E+0	1.132022E+0	1.253842E+0	1.282530E+0	1.026757E+0	1.078125E+0	9.693447E-1	1.318139E+0	1.171655E+0	1.301916E+0	1.216736E+0	1.342312E+0	1.208347E+0
5.360120E+2	8.625405E-1	8.223712E-1	1.113472E+0	9.705795E-1	9.418508E-1	1.036167E+0	1.113567E+0	1.116733E+0	8.928622E-1	9.587177E-1	1.031209E+0	1.058217E+0	8.740475E-1	9.186877E-1	8.981465E-1	9.942704E-1	8.928014E-1	1.006241E+0	9.175763E-1	8.613709E-1	9.700019E-1	1.019292E+0	1.000582E+0	1.006173E+0	9.410115E-1	1.003600E+0	1.058730E+0	9.025698E-1	8.377470E-1	9.325541E-1	8.968789E-1	1.009116E+0	8.841604E-1	9.405731E-1	9.525810E-1	9.792182E-1	9.842415E-1	1.006773E+0	1.029637E+0	1.045847E+0	1.023143E+0	9.828968E-1	1.000275E+0	1.053862E+0	8.812238E-1	8.654785E-1	9.447842E-1	9.798534E-1	8.739220E-1	8.846548E-1	9.508583E-1	9.604109E-1	9.462765E-1	1.029559E+0	1.051556E+0	1.113548E+0	9.360073E-1	9.895475E-1	1.050799E+0	1.107349E+0	8.842597E-1	9.433662E-1	9.601558E-1	1.028449E+0	9.023392E-1	1.002072E+0	1.030542E+0	9.585905E-1	9.586514E-1	1.046188E+0	1.111051E+0	1.102293E+0	9.134373E-1	9.672418E-1	1.042071E+0	1.051180E+0	8.761855E-1	9.114465E-1	9.554839E-1	1.032460E+0	9.177731E-1	8.168830E-1	9.578761E-1	1.006599E+0	9.952077E-1	9.299416E-1	1.091164E+0	1.121784E+0	1.026824E+0	9.169414E-1	1.051592E+0	1.030812E+0	8.967467E-1	9.708088E-1	1.023300E+0	1.009555E+0	8.753769E-1	8.813526E-1	9.742556E-1	9.554757E-1	9.860534E-1	1.106025E+0	1.113162E+0	1.130674E+0	1.028012E+0	9.870594E-1	9.929632E-1	1.106852E+0	9.100022E-1	9.020608E-1	9.833612E-1	1.024727E+0	9.627717E-1	9.237930E-1	9.677349E-1	1.030492E+0	1.045064E+0	1.012468E+0	1.081786E+0	1.096214E+0	1.022437E+0	1.026230E+0	1.079025E+0	1.051381E+0	9.079535E-1	9.212254E-1	1.034531E+0	1.113819E+0	9.040601E-1	9.650215E-1	9.961377E-1	1.037469E+0	1.023459E+0	1.016071E+0	1.038540E+0	1.097141E+0	1.063349E+0	1.013959E+0	1.096783E+0	1.150307E+0	9.126153E-1	9.041340E-1	1.072781E+0	1.075813E+0	8.855940E-1	9.153103E-1	1.109775E+0	1.031507E+0	9.449298E-1	1.101751E+0	1.054830E+0	1.125911E+0	8.904243E-1	1.053647E+0	1.069189E+0	1.072267E+0	9.151272E-1	9.467130E-1	1.035909E+0	1.085330E+0	8.798190E-1	9.335799E-1	8.176872E-1	1.032036E+0	9.603300E-1	1.089516E+0	1.059005E+0	1.136669E+0	9.991753E-1
5.362630E+2	6.568998E-1	6.434544E-1	8.784847E-1	7.133147E-1	7.317658E-1	7.888540E-1	8.557193E-1	8.169282E-1	7.117922E-1	7.464913E-1	8.311688E-1	7.978398E-1	6.712014E-1	7.195541E-1	6.753408E-1	7.608116E-1	6.945379E-1	7.380630E-1	6.885766E-1	6.379273E-1	7.401563E-1	8.014140E-1	7.717493E-1	7.423279E-1	6.950578E-1	7.425851E-1	7.979814E-1	6.913512E-1	6.612514E-1	6.907510E-1	7.143199E-1	7.962095E-1	6.783459E-1	6.949064E-1	6.967550E-1	7.278271E-1	6.975462E-1	7.951851E-1	7.857089E-1	7.792860E-1	7.422086E-1	7.273223E-1	7.568832E-1	7.920315E-1	7.173116E-1	6.757815E-1	7.190926E-1	7.511951E-1	6.346923E-1	7.125094E-1	7.383151E-1	7.565729E-1	7.080656E-1	7.781750E-1	8.135467E-1	8.631272E-1	6.879021E-1	7.291797E-1	8.213184E-1	8.410480E-1	7.177916E-1	7.528862E-1	7.625953E-1	7.739468E-1	6.782933E-1	7.720072E-1	8.051949E-1	6.900676E-1	7.103935E-1	7.981329E-1	8.419419E-1	7.990060E-1	7.331270E-1	7.224617E-1	8.015161E-1	8.847962E-1	6.946348E-1	6.547313E-1	7.140942E-1	7.940658E-1	7.101733E-1	5.894731E-1	7.056602E-1	7.321102E-1	7.487827E-1	7.440605E-1	8.472619E-1	8.543497E-1	7.206946E-1	6.793108E-1	8.069480E-1	7.493177E-1	6.364500E-1	7.268553E-1	7.593699E-1	7.796308E-1	6.904551E-1	6.867835E-1	8.062501E-1	7.617338E-1	7.267360E-1	8.948534E-1	8.514041E-1	8.362229E-1	7.551986E-1	7.722437E-1	7.382569E-1	8.705425E-1	7.120425E-1	6.725892E-1	7.701131E-1	8.132426E-1	7.136788E-1	7.366642E-1	7.660981E-1	7.478218E-1	7.965705E-1	8.385436E-1	8.558657E-1	8.744268E-1	7.419793E-1	8.100924E-1	7.847982E-1	8.138921E-1	6.999085E-1	7.957345E-1	7.392293E-1	8.123531E-1	6.720958E-1	7.670002E-1	7.453821E-1	7.693559E-1	7.661069E-1	7.845673E-1	8.255216E-1	8.095004E-1	7.930289E-1	8.073429E-1	8.392965E-1	8.193400E-1	7.501069E-1	6.630557E-1	8.277222E-1	7.943871E-1	6.725490E-1	7.431169E-1	7.765979E-1	7.693076E-1	7.296918E-1	8.126911E-1	8.657711E-1	8.811515E-1	6.965665E-1	8.086723E-1	8.308476E-1	8.561610E-1	7.083999E-1	7.386879E-1	8.031888E-1	8.475484E-1	6.881044E-1	6.718001E-1	6.408580E-1	8.056821E-1	7.303775E-1	7.942738E-1	7.596835E-1	8.936372E-1	7.692003E-1
5.365040E+2	5.422282E-1	5.108764E-1	6.802846E-1	5.573560E-1	5.819603E-1	6.046712E-1	6.564412E-1	6.663879E-1	5.121015E-1	5.869880E-1	6.094126E-1	6.596542E-1	5.397802E-1	5.348019E-1	5.323304E-1	6.129545E-1	5.634078E-1	6.409850E-1	5.550866E-1	5.258828E-1	5.954389E-1	6.633637E-1	6.541305E-1	6.545971E-1	5.704753E-1	6.101394E-1	6.660204E-1	5.520218E-1	5.495089E-1	5.746856E-1	5.312360E-1	6.023871E-1	5.421190E-1	5.581434E-1	5.694820E-1	5.635847E-1	5.801377E-1	6.126384E-1	6.141223E-1	6.386165E-1	6.354926E-1	5.722406E-1	6.511992E-1	6.650439E-1	5.358779E-1	5.584318E-1	5.888022E-1	6.165543E-1	5.380085E-1	5.891807E-1	6.049031E-1	6.130860E-1	6.137742E-1	5.885565E-1	6.333999E-1	6.624213E-1	5.907638E-1	5.531844E-1	6.517925E-1	6.439591E-1	5.445054E-1	5.677632E-1	6.054035E-1	6.067508E-1	5.646747E-1	5.847911E-1	6.730203E-1	5.867893E-1	5.146097E-1	6.530320E-1	6.537454E-1	6.590278E-1	6.135336E-1	5.571648E-1	6.347408E-1	6.815961E-1	5.367893E-1	5.445315E-1	5.368921E-1	6.338947E-1	5.379835E-1	4.900588E-1	5.708980E-1	6.296792E-1	6.273998E-1	5.838870E-1	6.640125E-1	6.511738E-1	6.045250E-1	5.670007E-1	6.096316E-1	6.235577E-1	5.536006E-1	5.739502E-1	6.294363E-1	6.124133E-1	5.460929E-1	5.334650E-1	6.533223E-1	6.227457E-1	5.784674E-1	7.294701E-1	6.943492E-1	6.966779E-1	6.131082E-1	6.221314E-1	5.982657E-1	6.635112E-1	5.844820E-1	5.809141E-1	5.725111E-1	6.200416E-1	5.708566E-1	5.417374E-1	5.736268E-1	6.216298E-1	6.375601E-1	6.438986E-1	6.421398E-1	6.967247E-1	5.568776E-1	6.250384E-1	6.683060E-1	6.680391E-1	5.622320E-1	5.886428E-1	6.235445E-1	6.185541E-1	5.472430E-1	5.937322E-1	6.210185E-1	6.658993E-1	6.741535E-1	6.519083E-1	6.743681E-1	7.023277E-1	6.355195E-1	5.641781E-1	6.797589E-1	6.885875E-1	5.882065E-1	5.665044E-1	6.297415E-1	6.391390E-1	5.410008E-1	5.378830E-1	6.628665E-1	6.573269E-1	5.565906E-1	6.791826E-1	6.982105E-1	6.663001E-1	5.647432E-1	6.619684E-1	6.946510E-1	6.754933E-1	5.587858E-1	5.527808E-1	6.508279E-1	6.782486E-1	5.253999E-1	5.665556E-1	5.162596E-1	6.348634E-1	5.737771E-1	6.647163E-1	6.041531E-1	6.749894E-1	5.554056E-1
5.367810E+2	4.448535E-1	4.201319E-1	5.729263E-1	4.673803E-1	5.330200E-1	5.246202E-1	5.635874E-1	5.732573E-1	4.819224E-1	5.235876E-1	5.508477E-1	5.125126E-1	4.740694E-1	5.071446E-1	4.551254E-1	5.477057E-1	4.536103E-1	5.014351E-1	5.070527E-1	4.621339E-1	4.983931E-1	5.139100E-1	5.516512E-1	5.858537E-1	4.953406E-1	5.616841E-1	5.664163E-1	5.100328E-1	4.371928E-1	5.214884E-1	4.908421E-1	5.409604E-1	4.772488E-1	5.233193E-1	4.805825E-1	4.952065E-1	4.867570E-1	5.006218E-1	5.555315E-1	5.351830E-1	5.043469E-1	5.250955E-1	5.378308E-1	5.367467E-1	4.369646E-1	4.615895E-1	5.244744E-1	5.503946E-1	4.121958E-1	5.056771E-1	5.113845E-1	5.096270E-1	4.886031E-1	5.335859E-1	5.188697E-1	5.832439E-1	4.936256E-1	5.142944E-1	5.773666E-1	5.444265E-1	4.683731E-1	5.368100E-1	5.417924E-1	5.474042E-1	4.836098E-1	4.997533E-1	5.704585E-1	4.986590E-1	5.067104E-1	5.464648E-1	5.584481E-1	5.531468E-1	4.718610E-1	5.022999E-1	5.498026E-1	5.598185E-1	4.616252E-1	4.681426E-1	5.028783E-1	5.196640E-1	4.761894E-1	4.074206E-1	4.967168E-1	5.192141E-1	4.828387E-1	4.863322E-1	5.485141E-1	5.960956E-1	5.300021E-1	4.314073E-1	5.710424E-1	5.518812E-1	4.583845E-1	4.822071E-1	5.103291E-1	5.276105E-1	4.835353E-1	4.908384E-1	5.319850E-1	4.914786E-1	5.089091E-1	5.770714E-1	5.603544E-1	5.744169E-1	4.951735E-1	4.972535E-1	5.172518E-1	5.582522E-1	4.894127E-1	4.812672E-1	5.029741E-1	5.389825E-1	5.031683E-1	5.034023E-1	5.147070E-1	5.242814E-1	5.512954E-1	5.804824E-1	5.959284E-1	6.085518E-1	4.870751E-1	5.874488E-1	5.338405E-1	5.603669E-1	4.465834E-1	5.058058E-1	5.565684E-1	5.369887E-1	4.841589E-1	5.201426E-1	5.324770E-1	5.689997E-1	5.505536E-1	5.485117E-1	5.825279E-1	6.160965E-1	5.227095E-1	5.552267E-1	5.810681E-1	6.048243E-1	4.841278E-1	4.885440E-1	5.626731E-1	5.760497E-1	4.396120E-1	4.959465E-1	5.381989E-1	5.426150E-1	5.116071E-1	5.633065E-1	5.534138E-1	5.820683E-1	4.742763E-1	5.398318E-1	5.813865E-1	5.691775E-1	4.507661E-1	4.959919E-1	5.903981E-1	5.641137E-1	4.528766E-1	4.946160E-1	4.313058E-1	5.631612E-1	5.190537E-1	5.619425E-1	5.271223E-1	6.351612E-1	5.230467E-1
5.370070E+2	4.320409E-1	4.362209E-1	5.158685E-1	4.627146E-1	4.954196E-1	5.011899E-1	5.600160E-1	5.107448E-1	5.127433E-1	4.661928E-1	5.357133E-1	5.572949E-1	5.500651E-1	4.285977E-1	4.525349E-1	5.309446E-1	5.075682E-1	4.765590E-1	4.472896E-1	4.189905E-1	5.057703E-1	5.115089E-1	5.434996E-1	5.367508E-1	4.934143E-1	5.132281E-1	5.524588E-1	4.877653E-1	4.108332E-1	4.652694E-1	4.672354E-1	5.129311E-1	4.347884E-1	4.182147E-1	4.658731E-1	4.750949E-1	4.823881E-1	5.486291E-1	5.124857E-1	4.908545E-1	5.274902E-1	4.940795E-1	5.474381E-1	5.688207E-1	4.386607E-1	4.137377E-1	4.459729E-1	5.074487E-1	4.202529E-1	4.889763E-1	4.871873E-1	4.757569E-1	4.946684E-1	4.996149E-1	5.057462E-1	5.022251E-1	4.905315E-1	5.189089E-1	5.635835E-1	5.246518E-1	4.416698E-1	4.576419E-1	5.112105E-1	5.017536E-1	4.689286E-1	5.076639E-1	5.162886E-1	4.828230E-1	4.739857E-1	5.476693E-1	5.872171E-1	5.340042E-1	5.215384E-1	4.987830E-1	5.436029E-1	5.555702E-1	4.448578E-1	5.007018E-1	4.825793E-1	5.221478E-1	4.324475E-1	4.074203E-1	4.590079E-1	5.085025E-1	4.883284E-1	4.935839E-1	5.117353E-1	5.446899E-1	4.613240E-1	4.560608E-1	5.135220E-1	5.277720E-1	4.132500E-1	4.703919E-1	5.286015E-1	5.043190E-1	4.161661E-1	4.784631E-1	5.262415E-1	4.493607E-1	4.802319E-1	5.429016E-1	5.516292E-1	5.507325E-1	5.015675E-1	5.386635E-1	4.893833E-1	5.763768E-1	4.653453E-1	4.442556E-1	5.052916E-1	5.164325E-1	4.950460E-1	4.540214E-1	4.819738E-1	4.615461E-1	4.991508E-1	5.252282E-1	5.599868E-1	5.692131E-1	4.839591E-1	5.180532E-1	5.085448E-1	5.710581E-1	4.832974E-1	4.798422E-1	5.431734E-1	5.656997E-1	4.854737E-1	5.087702E-1	5.311249E-1	4.910429E-1	5.272670E-1	5.192484E-1	5.780630E-1	5.637420E-1	5.674080E-1	5.291199E-1	5.669693E-1	5.700935E-1	4.969097E-1	4.507633E-1	5.007639E-1	5.240947E-1	4.883813E-1	4.838737E-1	5.389274E-1	5.262275E-1	4.945246E-1	5.431547E-1	5.856610E-1	5.674191E-1	4.503676E-1	5.384278E-1	5.640145E-1	5.469417E-1	4.768401E-1	4.941989E-1	5.588971E-1	5.469934E-1	4.806246E-1	4.786299E-1	3.885147E-1	5.512110E-1	4.637487E-1	5.557138E-1	5.454630E-1	5.685103E-1	5.380702E-1
5.372690E+2	4.647126E-1	4.182006E-1	5.706736E-1	4.867083E-1	5.007911E-1	5.304773E-1	5.807300E-1	5.764468E-1	5.178801E-1	5.202500E-1	5.659825E-1	5.643319E-1	5.740640E-1	4.933160E-1	4.670434E-1	5.297474E-1	5.634083E-1	5.360195E-1	4.685140E-1	4.666412E-1	5.233639E-1	5.559249E-1	5.522336E-1	5.459167E-1	5.370820E-1	5.539307E-1	5.987721E-1	5.125778E-1	5.592504E-1	4.864276E-1	4.950393E-1	5.833031E-1	5.686565E-1	5.233192E-1	4.837806E-1	5.206804E-1	5.566556E-1	5.551486E-1	5.627063E-1	5.812850E-1	5.229902E-1	5.133093E-1	5.647312E-1	5.446018E-1	4.623998E-1	4.917814E-1	4.977623E-1	5.382072E-1	4.351272E-1	5.063192E-1	5.316578E-1	5.527350E-1	4.996316E-1	5.632324E-1	5.719592E-1	6.010436E-1	4.682584E-1	5.248403E-1	5.842572E-1	5.813394E-1	4.723501E-1	5.118095E-1	5.350645E-1	5.188727E-1	4.855247E-1	5.360102E-1	5.473462E-1	5.021018E-1	5.123527E-1	5.530875E-1	5.650413E-1	5.800654E-1	4.933268E-1	5.536481E-1	5.622023E-1	6.015911E-1	4.916907E-1	4.769081E-1	5.456701E-1	5.531884E-1	5.067389E-1	4.366233E-1	5.344255E-1	5.346122E-1	5.212666E-1	5.331324E-1	5.859381E-1	5.777365E-1	5.665330E-1	4.553762E-1	5.848761E-1	5.681715E-1	4.837343E-1	5.190436E-1	5.184502E-1	5.765815E-1	4.697867E-1	4.605875E-1	5.413185E-1	4.879685E-1	5.308752E-1	6.160252E-1	6.008643E-1	6.211448E-1	5.392212E-1	5.477226E-1	5.412317E-1	6.147153E-1	5.068621E-1	4.920861E-1	5.128251E-1	5.542189E-1	4.997840E-1	4.780618E-1	5.179803E-1	5.365401E-1	5.358457E-1	5.855052E-1	6.081231E-1	5.563265E-1	5.450362E-1	5.823888E-1	5.697866E-1	5.817481E-1	4.936994E-1	5.169335E-1	5.255165E-1	5.245912E-1	4.710170E-1	5.308470E-1	5.588366E-1	4.917722E-1	5.380146E-1	5.582663E-1	6.061255E-1	6.222562E-1	5.170336E-1	5.805879E-1	5.981349E-1	5.898421E-1	5.139514E-1	4.843462E-1	5.781502E-1	5.896578E-1	4.485958E-1	5.105609E-1	5.250759E-1	5.610505E-1	4.950943E-1	5.626767E-1	6.077913E-1	5.887828E-1	5.027090E-1	5.854579E-1	5.813866E-1	5.747366E-1	4.693903E-1	4.930034E-1	6.154703E-1	5.939155E-1	4.673812E-1	4.919518E-1	4.564772E-1	5.399636E-1	4.852887E-1	5.463702E-1	5.667382E-1	6.327231E-1	5.634956E-1
5.375060E+2	4.967441E-1	4.671126E-1	6.059595E-1	5.600224E-1	5.282449E-1	5.903530E-1	6.207281E-1	6.376833E-1	5.621842E-1	5.622951E-1	6.127028E-1	6.046360E-1	6.226328E-1	5.259515E-1	5.250764E-1	5.596779E-1	5.753286E-1	5.627157E-1	5.081695E-1	4.737250E-1	5.630902E-1	5.979403E-1	5.906636E-1	5.910909E-1	5.839610E-1	6.120773E-1	6.152669E-1	5.278465E-1	6.308803E-1	5.196754E-1	5.280885E-1	5.785321E-1	6.087581E-1	5.714397E-1	5.253523E-1	5.434735E-1	5.746766E-1	5.918948E-1	6.129264E-1	6.078824E-1	5.847056E-1	5.672779E-1	6.518400E-1	6.290423E-1	5.709207E-1	4.991871E-1	5.331967E-1	5.788317E-1	5.863500E-1	5.474286E-1	5.584709E-1	5.810631E-1	5.525668E-1	5.749682E-1	6.155049E-1	6.255948E-1	4.973377E-1	5.498889E-1	6.076882E-1	6.195706E-1	5.121205E-1	5.249049E-1	5.405694E-1	5.656643E-1	5.148868E-1	5.604005E-1	6.058492E-1	5.330853E-1	5.326645E-1	6.054683E-1	6.111912E-1	6.362958E-1	5.656966E-1	5.824868E-1	5.994010E-1	6.341592E-1	5.078800E-1	5.144764E-1	5.709061E-1	5.960247E-1	4.803551E-1	4.478078E-1	5.183530E-1	5.955354E-1	5.395654E-1	5.463150E-1	5.846475E-1	6.187388E-1	5.278099E-1	5.457718E-1	5.681297E-1	6.020551E-1	5.350515E-1	5.134832E-1	5.854475E-1	5.735952E-1	4.883470E-1	5.128390E-1	6.088080E-1	5.750120E-1	5.662641E-1	6.262766E-1	6.419978E-1	6.499503E-1	5.719025E-1	5.884856E-1	6.144683E-1	6.614201E-1	5.080660E-1	5.547213E-1	5.557067E-1	6.145563E-1	5.403966E-1	5.397889E-1	5.755908E-1	5.891804E-1	5.789779E-1	6.376196E-1	6.241686E-1	6.105863E-1	5.263395E-1	6.394951E-1	6.310282E-1	5.916758E-1	5.616200E-1	5.577332E-1	6.253711E-1	6.100714E-1	4.986155E-1	5.341917E-1	5.710029E-1	5.704570E-1	5.045768E-1	5.699711E-1	6.220704E-1	6.585964E-1	5.695367E-1	5.917760E-1	6.626923E-1	6.068668E-1	5.072563E-1	5.269245E-1	5.994319E-1	6.057392E-1	5.166161E-1	5.436015E-1	6.008970E-1	5.719756E-1	5.446329E-1	6.067602E-1	6.305543E-1	6.205220E-1	5.233872E-1	5.973904E-1	6.084867E-1	6.199035E-1	4.929813E-1	5.390316E-1	5.942551E-1	6.173767E-1	5.317060E-1	5.279219E-1	4.363404E-1	5.898741E-1	5.539838E-1	6.348185E-1	6.041535E-1	6.627964E-1	5.681178E-1
5.377690E+2	5.595250E-1	5.436993E-1	7.013057E-1	5.993449E-1	6.135928E-1	6.385140E-1	7.557234E-1	7.754654E-1	6.482241E-1	6.570634E-1	6.890337E-1	7.044368E-1	6.963430E-1	6.188805E-1	6.100532E-1	6.752103E-1	7.296731E-1	6.409847E-1	6.271374E-1	5.812611E-1	6.453808E-1	7.173834E-1	6.774218E-1	6.591804E-1	6.481788E-1	6.896072E-1	7.745074E-1	6.175511E-1	7.374659E-1	6.514577E-1	5.989089E-1	6.775309E-1	6.930889E-1	6.442534E-1	6.078562E-1	6.406778E-1	7.445094E-1	6.659803E-1	6.990187E-1	6.888552E-1	6.734217E-1	6.460591E-1	6.966754E-1	6.971182E-1	7.438767E-1	6.000167E-1	6.356848E-1	6.577596E-1	7.412918E-1	6.328592E-1	6.644156E-1	6.832901E-1	6.777378E-1	6.620567E-1	7.389825E-1	7.287094E-1	6.414983E-1	6.573317E-1	7.269077E-1	7.283318E-1	7.427899E-1	6.005016E-1	6.372086E-1	7.031879E-1	7.376560E-1	6.632372E-1	7.011888E-1	6.666580E-1	7.053155E-1	7.078215E-1	7.442476E-1	7.667027E-1	6.576913E-1	6.865886E-1	6.899192E-1	7.679740E-1	6.402850E-1	6.221722E-1	5.994339E-1	6.922518E-1	6.553231E-1	5.211257E-1	6.555884E-1	6.363744E-1	6.951059E-1	6.610078E-1	7.033725E-1	7.264468E-1	6.352114E-1	5.827520E-1	7.195755E-1	6.795964E-1	5.968799E-1	6.643031E-1	6.436477E-1	6.834804E-1	5.660276E-1	5.994675E-1	6.913744E-1	6.838167E-1	6.101961E-1	7.609065E-1	7.572959E-1	7.472471E-1	6.564461E-1	6.952463E-1	6.695572E-1	7.889844E-1	5.886934E-1	5.871779E-1	6.206081E-1	6.883018E-1	6.277152E-1	6.314038E-1	6.593878E-1	6.742698E-1	6.948551E-1	6.884785E-1	7.249344E-1	7.292806E-1	6.752934E-1	6.850360E-1	6.916048E-1	7.245475E-1	6.130191E-1	6.739519E-1	6.710360E-1	7.262201E-1	6.011267E-1	6.418987E-1	7.176706E-1	7.066994E-1	7.016202E-1	6.668649E-1	7.432484E-1	7.651530E-1	6.795090E-1	7.111215E-1	7.383798E-1	7.342149E-1	6.271602E-1	6.048852E-1	7.006795E-1	7.207835E-1	6.154380E-1	6.541607E-1	6.767187E-1	7.003442E-1	6.437106E-1	7.440478E-1	7.247676E-1	7.322200E-1	6.338857E-1	7.216326E-1	7.648343E-1	7.852835E-1	6.438362E-1	6.472282E-1	6.958290E-1	7.131227E-1	5.960313E-1	6.458221E-1	5.319913E-1	6.826646E-1	6.296641E-1	7.500500E-1	7.252029E-1	7.969117E-1	6.490120E-1
5.380270E+2	6.684308E-1	6.267213E-1	8.912479E-1	6.879881E-1	7.216195E-1	7.309311E-1	8.507198E-1	8.475463E-1	7.708645E-1	7.418196E-1	7.995830E-1	8.272681E-1	8.134793E-1	7.178948E-1	6.618686E-1	7.620089E-1	8.444903E-1	7.489838E-1	6.790814E-1	6.707674E-1	7.452641E-1	8.242222E-1	8.020276E-1	8.104167E-1	7.753299E-1	7.929787E-1	8.277989E-1	7.015301E-1	8.566581E-1	7.590599E-1	7.583864E-1	7.956129E-1	8.387515E-1	7.265645E-1	7.300126E-1	7.063751E-1	7.876506E-1	7.910364E-1	8.090255E-1	7.934711E-1	7.711381E-1	7.577181E-1	7.760979E-1	8.182149E-1	8.682242E-1	6.700850E-1	6.956509E-1	8.011058E-1	7.958318E-1	7.382021E-1	7.370071E-1	7.898276E-1	8.166945E-1	7.639691E-1	7.896867E-1	8.655821E-1	8.066958E-1	7.687295E-1	8.495727E-1	8.660963E-1	8.734649E-1	7.891965E-1	7.552559E-1	7.773705E-1	8.148910E-1	7.462978E-1	8.073615E-1	7.430833E-1	8.136460E-1	7.884994E-1	8.353493E-1	8.486562E-1	7.693120E-1	7.238685E-1	7.946969E-1	8.239071E-1	8.981564E-1	7.173446E-1	7.349412E-1	8.251066E-1	8.372330E-1	6.161907E-1	7.155511E-1	7.716101E-1	7.963596E-1	7.644949E-1	8.485522E-1	8.200790E-1	7.236165E-1	7.067038E-1	8.229662E-1	7.968853E-1	7.817464E-1	7.442313E-1	7.965908E-1	7.951579E-1	7.213899E-1	7.376602E-1	8.170197E-1	7.483965E-1	7.529730E-1	8.832358E-1	8.869275E-1	8.791100E-1	7.715394E-1	7.780667E-1	7.790872E-1	8.510247E-1	7.337039E-1	7.295303E-1	7.289702E-1	7.693607E-1	7.481999E-1	7.470602E-1	7.523498E-1	7.593594E-1	7.991453E-1	8.517292E-1	8.488054E-1	8.737483E-1	7.463423E-1	8.086460E-1	7.941178E-1	7.993833E-1	7.054156E-1	7.623522E-1	7.660199E-1	8.110485E-1	7.312374E-1	7.348891E-1	7.555208E-1	8.108842E-1	7.726751E-1	7.696109E-1	8.070267E-1	8.901874E-1	7.689056E-1	8.252442E-1	8.600729E-1	8.554326E-1	6.953286E-1	6.930405E-1	8.341716E-1	8.506720E-1	6.789661E-1	7.431173E-1	8.261738E-1	7.945716E-1	7.331086E-1	8.328440E-1	8.531250E-1	8.774893E-1	7.062594E-1	8.206050E-1	8.906068E-1	8.902098E-1	6.711516E-1	7.362972E-1	8.038320E-1	8.272579E-1	6.647705E-1	7.164293E-1	6.389706E-1	8.014649E-1	7.792787E-1	8.166976E-1	7.992995E-1	8.928245E-1	7.980915E-1
5.382690E+2	8.138530E-1	8.140044E-1	1.000858E+0	8.546101E-1	8.099506E-1	9.216223E-1	1.019285E+0	1.047203E+0	9.140514E-1	9.326898E-1	9.818572E-1	9.558571E-1	1.032325E+0	8.196734E-1	8.224961E-1	9.511706E-1	9.768752E-1	8.691181E-1	8.589299E-1	7.783041E-1	9.030350E-1	9.736761E-1	1.050658E+0	9.452855E-1	9.692676E-1	9.725879E-1	1.044773E+0	8.147738E-1	1.074413E+0	9.047465E-1	8.134690E-1	9.387437E-1	1.002106E+0	8.785232E-1	8.835083E-1	9.282696E-1	9.793255E-1	9.978835E-1	9.638724E-1	1.002111E+0	9.955000E-1	9.351316E-1	9.849019E-1	1.023097E+0	1.063789E+0	8.455403E-1	8.744601E-1	8.980240E-1	9.755634E-1	8.852975E-1	9.253527E-1	8.994444E-1	9.170516E-1	9.745877E-1	9.775881E-1	1.133805E+0	9.001216E-1	9.170401E-1	9.894656E-1	1.046706E+0	1.001300E+0	9.016987E-1	9.350784E-1	9.377191E-1	9.897872E-1	9.710894E-1	9.171460E-1	9.344923E-1	9.479301E-1	9.829700E-1	1.036132E+0	1.026322E+0	9.134375E-1	9.707586E-1	9.484526E-1	1.002326E+0	1.004543E+0	8.444502E-1	9.115954E-1	9.697575E-1	1.039279E+0	8.522988E-1	8.602041E-1	9.650910E-1	1.004356E+0	9.220315E-1	9.937320E-1	1.033659E+0	9.910238E-1	8.676349E-1	1.016642E+0	9.897599E-1	1.064921E+0	9.020013E-1	9.461508E-1	9.384871E-1	9.991161E-1	9.026660E-1	9.613318E-1	9.407343E-1	1.022663E+0	1.019232E+0	1.036504E+0	1.051940E+0	9.868056E-1	9.728244E-1	9.573173E-1	1.081757E+0	8.486287E-1	8.456897E-1	9.033932E-1	9.308697E-1	9.059135E-1	8.438738E-1	9.101240E-1	9.389127E-1	9.658806E-1	9.867245E-1	1.054188E+0	1.031103E+0	9.239654E-1	9.438226E-1	9.884934E-1	1.009382E+0	8.014834E-1	8.884617E-1	9.480720E-1	9.670013E-1	8.350626E-1	8.840735E-1	9.096237E-1	9.580549E-1	9.547908E-1	1.005016E+0	1.038540E+0	1.049099E+0	9.661469E-1	9.430977E-1	1.021837E+0	1.059053E+0	8.724448E-1	8.627546E-1	9.650843E-1	9.700458E-1	8.381085E-1	8.905298E-1	9.508406E-1	1.005560E+0	9.181672E-1	1.082858E+0	1.097826E+0	1.018486E+0	8.219274E-1	1.051542E+0	9.990075E-1	1.048641E+0	8.431142E-1	8.737844E-1	9.651927E-1	9.623172E-1	7.997272E-1	8.802910E-1	7.459484E-1	9.772041E-1	8.764991E-1	1.034080E+0	9.130124E-1	1.039944E+0	9.252140E-1
5.385170E+2	1.018212E+0	9.163342E-1	1.218578E+0	1.079217E+0	1.091060E+0	1.118822E+0	1.259990E+0	1.220071E+0	1.156763E+0	1.086855E+0	1.183215E+0	1.172732E+0	1.247743E+0	1.010509E+0	9.950419E-1	1.140332E+0	1.197098E+0	1.142758E+0	1.016996E+0	9.360671E-1	1.196444E+0	1.152540E+0	1.164202E+0	1.167231E+0	1.186323E+0	1.190317E+0	1.271897E+0	1.047625E+0	1.252628E+0	1.124183E+0	1.020684E+0	1.176102E+0	1.216767E+0	1.102030E+0	1.028050E+0	1.119327E+0	1.192848E+0	1.141905E+0	1.195245E+0	1.182380E+0	1.176790E+0	1.123710E+0	1.209078E+0	1.220781E+0	1.237875E+0	1.059732E+0	1.016198E+0	1.073289E+0	1.168311E+0	1.073502E+0	1.077076E+0	1.097124E+0	1.116663E+0	1.119736E+0	1.170858E+0	1.210525E+0	1.122242E+0	1.076556E+0	1.227906E+0	1.197653E+0	1.240491E+0	1.065391E+0	1.104504E+0	1.124889E+0	1.197875E+0	1.123368E+0	1.154770E+0	1.138294E+0	1.178696E+0	1.193698E+0	1.287262E+0	1.238682E+0	1.150783E+0	1.098073E+0	1.149329E+0	1.220393E+0	1.224833E+0	1.052952E+0	1.064656E+0	1.175247E+0	1.226744E+0	1.101456E+0	1.069147E+0	1.104344E+0	1.198935E+0	1.108571E+0	1.199565E+0	1.192772E+0	1.185369E+0	1.053220E+0	1.227065E+0	1.142237E+0	1.251023E+0	1.028496E+0	1.177598E+0	1.106899E+0	1.224596E+0	1.086236E+0	1.150877E+0	1.109908E+0	1.191677E+0	1.276874E+0	1.250271E+0	1.293902E+0	1.149499E+0	1.123584E+0	1.101844E+0	1.237902E+0	1.208448E+0	1.020499E+0	1.105631E+0	1.176484E+0	1.158390E+0	1.026455E+0	1.094084E+0	1.103323E+0	1.198925E+0	1.129882E+0	1.246091E+0	1.226440E+0	1.167028E+0	1.128877E+0	1.135607E+0	1.230071E+0	1.139861E+0	1.080099E+0	1.074108E+0	1.182335E+0	1.090683E+0	1.093467E+0	1.100225E+0	1.147483E+0	1.179301E+0	1.164988E+0	1.219670E+0	1.261594E+0	1.153454E+0	1.106452E+0	1.195473E+0	1.268121E+0	1.118340E+0	1.049261E+0	1.184346E+0	1.190237E+0	1.056286E+0	1.041755E+0	1.171014E+0	1.170800E+0	1.077035E+0	1.237150E+0	1.230611E+0	1.243102E+0	1.051973E+0	1.164553E+0	1.206775E+0	1.162602E+0	9.573420E-1	1.060289E+0	1.146483E+0	1.221656E+0	9.737836E-1	1.026168E+0	9.051573E-1	1.131152E+0	1.058133E+0	1.204123E+0	1.137503E+0	1.170807E+0	1.043089E+0
5.387860E+2	1.141211E+0	1.082378E+0	1.437799E+0	1.332481E+0	1.286822E+0	1.334896E+0	1.429269E+0	1.463738E+0	1.326275E+0	1.387174E+0	1.427343E+0	1.399204E+0	1.425446E+0	1.173689E+0	1.204375E+0	1.397735E+0	1.427990E+0	1.272598E+0	1.219744E+0	1.136972E+0	1.385429E+0	1.411233E+0	1.336554E+0	1.431074E+0	1.337875E+0	1.374446E+0	1.433675E+0	1.168501E+0	1.458349E+0	1.254756E+0	1.227900E+0	1.402130E+0	1.404300E+0	1.276781E+0	1.230152E+0	1.287592E+0	1.430941E+0	1.300743E+0	1.412866E+0	1.355557E+0	1.368364E+0	1.302365E+0	1.351270E+0	1.423696E+0	1.423267E+0	1.242025E+0	1.244616E+0	1.366947E+0	1.373453E+0	1.235367E+0	1.242534E+0	1.296036E+0	1.332266E+0	1.363090E+0	1.379042E+0	1.492253E+0	1.280630E+0	1.321105E+0	1.421548E+0	1.411883E+0	1.431389E+0	1.304090E+0	1.276985E+0	1.413629E+0	1.404687E+0	1.324425E+0	1.416231E+0	1.298030E+0	1.346833E+0	1.375522E+0	1.461674E+0	1.432500E+0	1.365439E+0	1.287989E+0	1.369420E+0	1.471740E+0	1.384410E+0	1.178181E+0	1.295623E+0	1.368942E+0	1.451702E+0	1.265490E+0	1.301582E+0	1.284436E+0	1.360576E+0	1.333344E+0	1.413786E+0	1.411858E+0	1.374600E+0	1.177172E+0	1.366133E+0	1.352053E+0	1.502046E+0	1.263412E+0	1.320390E+0	1.306961E+0	1.390959E+0	1.194177E+0	1.363397E+0	1.274870E+0	1.385097E+0	1.476429E+0	1.467777E+0	1.500019E+0	1.359792E+0	1.337105E+0	1.326739E+0	1.442144E+0	1.445516E+0	1.178796E+0	1.268464E+0	1.360542E+0	1.413576E+0	1.216182E+0	1.312088E+0	1.300183E+0	1.438404E+0	1.368479E+0	1.405904E+0	1.455011E+0	1.332810E+0	1.397062E+0	1.350618E+0	1.368289E+0	1.459884E+0	1.279154E+0	1.301825E+0	1.379395E+0	1.492184E+0	1.236632E+0	1.312454E+0	1.348569E+0	1.472478E+0	1.334063E+0	1.427588E+0	1.472246E+0	1.402488E+0	1.404066E+0	1.449249E+0	1.409084E+0	1.322845E+0	1.179394E+0	1.419731E+0	1.411667E+0	1.226337E+0	1.268594E+0	1.345988E+0	1.370180E+0	1.242732E+0	1.451896E+0	1.470254E+0	1.459176E+0	1.201888E+0	1.386362E+0	1.404119E+0	1.393299E+0	1.158482E+0	1.271902E+0	1.336130E+0	1.418223E+0	1.106848E+0	1.216010E+0	1.088280E+0	1.321654E+0	1.284009E+0	1.419640E+0	1.314310E+0	1.462610E+0	1.247640E+0
5.390080E+2	1.330196E+0	1.293475E+0	1.715577E+0	1.483773E+0	1.538685E+0	1.529491E+0	1.766401E+0	1.720807E+0	1.533670E+0	1.539339E+0	1.613564E+0	1.617356E+0	1.735142E+0	1.396607E+0	1.333397E+0	1.518653E+0	1.638169E+0	1.527431E+0	1.368316E+0	1.277349E+0	1.599949E+0	1.617109E+0	1.552575E+0	1.607845E+0	1.572274E+0	1.568918E+0	1.659533E+0	1.370179E+0	1.645735E+0	1.428247E+0	1.406786E+0	1.565536E+0	1.664958E+0	1.443306E+0	1.425217E+0	1.503454E+0	1.620430E+0	1.589972E+0	1.564722E+0	1.548831E+0	1.599798E+0	1.541192E+0	1.594022E+0	1.631199E+0	1.749393E+0	1.404375E+0	1.473033E+0	1.516677E+0	1.607725E+0	1.470464E+0	1.541403E+0	1.553449E+0	1.562207E+0	1.586683E+0	1.584241E+0	1.698481E+0	1.497802E+0	1.466777E+0	1.596589E+0	1.655768E+0	1.720012E+0	1.485045E+0	1.520422E+0	1.518626E+0	1.654901E+0	1.527465E+0	1.550571E+0	1.497704E+0	1.640228E+0	1.624182E+0	1.682235E+0	1.643063E+0	1.594199E+0	1.461726E+0	1.546119E+0	1.604846E+0	1.715138E+0	1.423627E+0	1.460757E+0	1.548359E+0	1.737064E+0	1.480469E+0	1.462308E+0	1.528125E+0	1.585652E+0	1.508677E+0	1.607360E+0	1.689086E+0	1.698995E+0	1.399735E+0	1.594756E+0	1.545580E+0	1.710404E+0	1.404504E+0	1.607325E+0	1.523150E+0	1.620564E+0	1.426560E+0	1.516322E+0	1.447553E+0	1.590722E+0	1.673248E+0	1.719564E+0	1.708057E+0	1.545930E+0	1.558391E+0	1.530243E+0	1.644298E+0	1.692817E+0	1.398588E+0	1.434194E+0	1.579950E+0	1.636271E+0	1.444893E+0	1.500631E+0	1.563381E+0	1.614796E+0	1.613355E+0	1.624122E+0	1.680870E+0	1.569639E+0	1.585731E+0	1.620882E+0	1.521778E+0	1.704031E+0	1.474499E+0	1.538067E+0	1.592770E+0	1.665662E+0	1.409900E+0	1.485482E+0	1.520510E+0	1.578761E+0	1.529152E+0	1.664842E+0	1.671809E+0	1.662876E+0	1.574137E+0	1.625853E+0	1.617472E+0	1.665513E+0	1.382690E+0	1.658985E+0	1.594129E+0	1.594671E+0	1.429984E+0	1.669686E+0	1.499229E+0	1.537119E+0	1.615636E+0	1.646666E+0	1.614213E+0	1.468122E+0	1.674156E+0	1.724460E+0	1.619132E+0	1.574420E+0	1.426128E+0	1.569494E+0	1.577377E+0	1.529375E+0	1.431827E+0	1.238050E+0	1.541682E+0	1.524441E+0	1.599023E+0	1.483776E+0	1.627610E+0	1.474147E+0
5.392930E+2	1.480102E+0	1.434419E+0	1.975345E+0	1.650397E+0	1.665811E+0	1.761186E+0	1.919967E+0	1.921741E+0	1.768678E+0	1.745558E+0	1.887966E+0	1.784968E+0	1.911706E+0	1.603487E+0	1.566561E+0	1.855673E+0	1.854003E+0	1.636642E+0	1.557102E+0	1.478256E+0	1.797450E+0	1.798973E+0	1.733079E+0	1.761698E+0	1.728965E+0	1.695547E+0	1.839706E+0	1.605572E+0	1.837702E+0	1.685773E+0	1.591971E+0	1.761743E+0	1.874905E+0	1.644651E+0	1.587667E+0	1.652950E+0	1.854700E+0	1.808079E+0	1.751257E+0	1.749192E+0	1.748943E+0	1.629277E+0	1.772724E+0	1.765385E+0	1.912177E+0	1.575275E+0	1.600599E+0	1.785959E+0	1.769485E+0	1.607284E+0	1.666964E+0	1.706790E+0	1.782770E+0	1.726269E+0	1.770950E+0	1.936016E+0	1.690840E+0	1.675731E+0	1.832960E+0	1.819899E+0	1.901250E+0	1.657666E+0	1.747339E+0	1.717206E+0	1.814479E+0	1.650076E+0	1.755694E+0	1.675340E+0	1.787488E+0	1.830091E+0	1.861437E+0	1.814745E+0	1.807627E+0	1.646722E+0	1.797211E+0	1.913539E+0	1.875294E+0	1.567634E+0	1.622048E+0	1.768130E+0	1.867593E+0	1.678678E+0	1.632922E+0	1.633240E+0	1.759491E+0	1.729493E+0	1.816418E+0	1.838408E+0	1.793976E+0	1.520949E+0	1.781883E+0	1.748230E+0	1.873632E+0	1.544898E+0	1.766364E+0	1.727994E+0	1.797237E+0	1.562690E+0	1.748947E+0	1.660247E+0	1.718855E+0	1.829748E+0	1.928973E+0	1.912892E+0	1.716440E+0	1.702035E+0	1.780412E+0	1.872940E+0	1.807142E+0	1.562579E+0	1.578484E+0	1.803015E+0	1.823087E+0	1.629428E+0	1.579844E+0	1.726350E+0	1.776381E+0	1.792302E+0	1.788431E+0	1.883669E+0	1.756611E+0	1.728135E+0	1.736710E+0	1.827995E+0	1.868632E+0	1.632138E+0	1.677499E+0	1.770910E+0	1.812861E+0	1.553064E+0	1.736913E+0	1.741994E+0	1.780583E+0	1.747648E+0	1.867653E+0	1.918796E+0	1.818258E+0	1.756134E+0	1.793555E+0	1.877615E+0	1.827411E+0	1.488237E+0	1.807953E+0	1.745666E+0	1.739697E+0	1.524025E+0	1.721447E+0	1.743678E+0	1.726164E+0	1.851796E+0	1.906543E+0	1.814415E+0	1.672318E+0	1.874207E+0	1.850228E+0	1.776179E+0	1.887927E+0	1.623391E+0	1.778426E+0	1.843693E+0	1.835235E+0	1.549729E+0	1.343771E+0	1.668210E+0	1.754394E+0	1.815161E+0	1.691394E+0	1.830005E+0	1.698343E+0
5.395210E+2	1.572351E+0	1.455013E+0	1.937803E+0	1.730379E+0	1.726091E+0	1.754675E+0	2.042106E+0	1.910893E+0	1.729508E+0	1.747557E+0	1.851773E+0	1.845749E+0	1.900849E+0	1.615103E+0	1.551537E+0	1.816763E+0	1.870945E+0	1.752528E+0	1.610161E+0	1.478901E+0	1.765667E+0	1.851794E+0	1.777915E+0	1.825862E+0	1.761714E+0	1.791811E+0	1.901245E+0	1.627206E+0	1.899018E+0	1.688794E+0	1.585676E+0	1.790368E+0	1.778189E+0	1.633250E+0	1.636277E+0	1.628142E+0	1.849790E+0	1.824675E+0	1.751856E+0	1.823664E+0	1.902591E+0	1.667739E+0	1.766956E+0	1.829535E+0	1.852830E+0	1.621417E+0	1.582061E+0	1.738953E+0	1.776920E+0	1.595722E+0	1.666966E+0	1.708639E+0	1.700055E+0	1.759005E+0	1.808532E+0	1.892433E+0	1.722394E+0	1.760761E+0	1.790924E+0	1.900982E+0	1.889320E+0	1.642785E+0	1.669047E+0	1.742318E+0	1.856608E+0	1.735114E+0	1.871981E+0	1.694619E+0	1.814009E+0	1.763258E+0	1.908189E+0	1.783640E+0	1.776962E+0	1.727608E+0	1.733973E+0	1.878848E+0	1.818630E+0	1.549481E+0	1.669232E+0	1.812210E+0	1.966882E+0	1.697320E+0	1.718851E+0	1.732319E+0	1.868064E+0	1.764428E+0	1.864166E+0	1.831063E+0	1.879457E+0	1.566147E+0	1.823383E+0	1.739107E+0	1.939170E+0	1.608838E+0	1.718312E+0	1.731575E+0	1.806175E+0	1.582628E+0	1.772641E+0	1.689729E+0	1.818919E+0	1.888519E+0	1.925233E+0	1.905208E+0	1.694416E+0	1.728563E+0	1.760972E+0	1.888274E+0	1.852267E+0	1.596174E+0	1.646281E+0	1.764010E+0	1.817676E+0	1.595635E+0	1.646623E+0	1.710488E+0	1.814363E+0	1.811139E+0	1.852612E+0	1.898587E+0	1.710490E+0	1.779461E+0	1.829237E+0	1.747812E+0	1.890657E+0	1.640174E+0	1.699415E+0	1.838769E+0	1.869374E+0	1.596548E+0	1.728129E+0	1.776966E+0	1.806854E+0	1.754802E+0	1.839590E+0	1.960068E+0	1.884949E+0	1.714365E+0	1.835110E+0	1.906215E+0	1.894362E+0	1.570998E+0	1.786029E+0	1.737007E+0	1.778198E+0	1.647289E+0	1.799456E+0	1.753920E+0	1.677765E+0	1.795747E+0	1.829402E+0	1.846155E+0	1.725950E+0	1.820861E+0	1.873161E+0	1.855392E+0	1.855023E+0	1.644914E+0	1.810570E+0	1.829108E+0	1.724244E+0	1.560388E+0	1.412990E+0	1.797557E+0	1.712478E+0	1.852535E+0	1.770626E+0	1.821875E+0	1.704122E+0
5.397650E+2	1.791444E+0	1.620413E+0	2.225342E+0	1.797693E+0	1.920061E+0	2.008501E+0	2.212813E+0	2.096517E+0	2.024873E+0	1.910401E+0	2.128803E+0	2.056219E+0	2.171690E+0	1.853509E+0	1.776416E+0	1.991557E+0	2.140733E+0	1.938189E+0	1.800621E+0	1.664351E+0	2.069856E+0	2.048064E+0	2.034696E+0	1.888060E+0	1.899783E+0	1.964960E+0	2.017349E+0	1.715637E+0	2.080668E+0	1.851407E+0	1.844301E+0	1.975243E+0	2.014669E+0	1.866890E+0	1.853089E+0	1.821881E+0	2.090064E+0	2.081306E+0	1.953935E+0	2.023442E+0	2.048521E+0	1.855694E+0	2.047498E+0	2.004964E+0	2.185175E+0	1.749023E+0	1.801211E+0	1.877076E+0	2.077508E+0	1.856511E+0	1.802338E+0	1.903240E+0	1.967495E+0	2.013478E+0	1.995836E+0	2.135491E+0	1.974831E+0	1.907754E+0	2.040388E+0	2.059837E+0	2.155782E+0	1.910052E+0	1.935113E+0	1.926632E+0	2.062139E+0	1.912440E+0	1.973098E+0	1.899110E+0	1.999636E+0	2.037206E+0	2.079605E+0	2.064791E+0	1.979968E+0	1.918229E+0	2.012966E+0	2.077798E+0	2.111771E+0	1.759862E+0	1.848628E+0	1.972378E+0	2.107830E+0	1.866945E+0	1.816522E+0	1.924462E+0	2.027268E+0	1.929216E+0	2.028059E+0	2.100331E+0	2.055537E+0	1.731188E+0	1.984296E+0	1.911785E+0	2.218016E+0	1.834720E+0	1.930133E+0	1.980012E+0	2.015155E+0	1.737322E+0	1.970801E+0	1.963497E+0	1.970847E+0	2.133862E+0	2.164550E+0	2.131810E+0	1.967228E+0	1.956964E+0	1.925593E+0	2.069515E+0	2.076701E+0	1.751053E+0	1.786519E+0	1.954163E+0	2.018708E+0	1.800311E+0	1.757915E+0	1.905904E+0	1.945047E+0	2.111898E+0	1.977768E+0	2.102062E+0	1.968512E+0	1.994873E+0	1.958373E+0	2.012027E+0	2.118285E+0	1.791011E+0	1.896692E+0	1.987545E+0	2.106591E+0	1.758441E+0	1.903858E+0	2.000634E+0	1.991955E+0	1.916726E+0	2.044318E+0	2.170717E+0	2.030396E+0	1.960514E+0	2.046589E+0	2.050591E+0	2.041659E+0	1.720922E+0	2.056879E+0	1.976991E+0	1.974562E+0	1.763567E+0	1.991923E+0	1.956715E+0	1.848588E+0	1.989711E+0	2.125322E+0	2.079318E+0	1.901716E+0	2.008276E+0	2.035067E+0	2.043703E+0	2.067957E+0	1.805713E+0	2.044575E+0	2.009186E+0	1.989110E+0	1.763548E+0	1.554579E+0	1.962752E+0	1.896440E+0	2.097946E+0	1.936425E+0	2.145377E+0	1.842799E+0
5.400190E+2	1.703039E+0	1.536749E+0	2.176545E+0	1.793692E+0	1.858589E+0	1.886143E+0	2.068535E+0	2.095241E+0	1.899667E+0	1.904393E+0	2.011014E+0	2.024236E+0	2.081981E+0	1.723520E+0	1.713199E+0	1.934092E+0	2.019014E+0	1.856284E+0	1.810116E+0	1.666289E+0	1.934786E+0	1.971837E+0	1.896115E+0	1.973822E+0	1.855471E+0	1.942348E+0	1.978644E+0	1.709274E+0	2.085830E+0	1.835085E+0	1.753545E+0	1.897121E+0	2.037078E+0	1.828265E+0	1.814072E+0	1.795065E+0	2.056210E+0	1.940842E+0	2.012520E+0	1.960197E+0	2.058166E+0	1.872446E+0	1.977040E+0	2.060598E+0	2.086829E+0	1.776937E+0	1.787041E+0	1.871850E+0	1.985784E+0	1.782639E+0	1.863160E+0	1.825646E+0	1.885333E+0	1.933184E+0	1.971976E+0	2.129352E+0	1.888828E+0	1.845795E+0	1.990771E+0	2.090815E+0	2.114873E+0	1.781479E+0	1.840309E+0	1.906088E+0	2.030865E+0	1.853771E+0	1.996932E+0	1.898421E+0	1.959575E+0	1.977598E+0	2.097588E+0	1.996000E+0	1.924155E+0	1.821864E+0	1.913148E+0	2.067180E+0	2.092116E+0	1.707889E+0	1.747682E+0	1.902849E+0	2.064778E+0	1.875023E+0	1.763360E+0	1.834081E+0	1.987008E+0	1.883073E+0	2.011925E+0	1.982833E+0	2.029967E+0	1.714066E+0	1.947160E+0	1.966518E+0	2.171645E+0	1.749237E+0	1.849598E+0	1.905360E+0	1.945723E+0	1.804699E+0	1.883926E+0	1.737462E+0	1.973294E+0	2.077137E+0	2.014353E+0	2.101726E+0	1.908261E+0	1.887732E+0	1.878926E+0	2.130856E+0	2.030974E+0	1.758452E+0	1.821866E+0	1.942583E+0	1.967943E+0	1.730137E+0	1.807670E+0	1.924651E+0	1.917367E+0	1.910976E+0	2.058635E+0	2.057974E+0	1.929245E+0	1.873433E+0	1.953050E+0	2.015844E+0	2.066884E+0	1.815121E+0	1.880251E+0	1.981674E+0	1.982396E+0	1.734359E+0	1.896422E+0	1.886979E+0	1.999718E+0	1.923228E+0	2.050699E+0	2.062312E+0	2.043168E+0	1.985872E+0	2.031005E+0	2.037650E+0	2.023399E+0	1.702931E+0	1.979496E+0	1.993690E+0	1.909748E+0	1.748953E+0	1.985363E+0	1.932136E+0	1.829227E+0	1.941849E+0	2.074734E+0	2.003016E+0	1.793800E+0	1.997047E+0	1.985735E+0	1.907504E+0	2.155495E+0	1.780605E+0	1.897356E+0	2.045333E+0	1.902083E+0	1.724249E+0	1.508643E+0	1.917763E+0	1.863840E+0	1.946590E+0	1.904882E+0	2.037270E+0	1.890180E+0
5.402740E+2	1.669729E+0	1.487193E+0	2.135254E+0	1.760369E+0	1.749365E+0	1.817156E+0	2.122101E+0	2.066538E+0	1.877834E+0	1.770250E+0	1.942580E+0	1.924435E+0	2.071697E+0	1.703052E+0	1.654648E+0	1.853879E+0	1.959407E+0	1.865381E+0	1.665454E+0	1.648900E+0	1.880306E+0	1.921420E+0	1.844875E+0	1.882164E+0	1.806025E+0	1.878388E+0	1.957077E+0	1.609392E+0	2.014201E+0	1.757104E+0	1.698986E+0	1.845830E+0	1.916772E+0	1.779512E+0	1.691277E+0	1.731382E+0	1.955180E+0	1.882164E+0	1.862457E+0	1.907597E+0	1.897447E+0	1.792424E+0	1.888654E+0	1.876668E+0	2.038786E+0	1.655027E+0	1.652933E+0	1.826002E+0	1.863068E+0	1.677297E+0	1.676122E+0	1.798547E+0	1.836257E+0	1.925770E+0	1.917693E+0	2.044652E+0	1.818296E+0	1.787129E+0	1.907387E+0	1.877247E+0	2.055219E+0	1.728500E+0	1.785261E+0	1.846741E+0	1.958736E+0	1.828061E+0	1.888590E+0	1.737305E+0	1.940392E+0	1.862601E+0	2.007083E+0	1.934382E+0	1.905755E+0	1.785991E+0	1.862930E+0	2.044519E+0	1.968961E+0	1.625242E+0	1.730675E+0	1.856286E+0	1.971741E+0	1.742677E+0	1.752847E+0	1.812661E+0	1.894903E+0	1.736744E+0	1.944820E+0	1.965699E+0	1.913798E+0	1.592170E+0	1.848865E+0	1.824467E+0	2.013983E+0	1.751321E+0	1.866516E+0	1.778156E+0	1.947098E+0	1.753823E+0	1.897565E+0	1.757818E+0	1.851869E+0	1.956175E+0	1.962627E+0	1.988423E+0	1.839347E+0	1.817853E+0	1.779766E+0	1.921039E+0	1.947938E+0	1.642863E+0	1.722775E+0	1.871887E+0	1.905668E+0	1.626830E+0	1.729762E+0	1.759524E+0	1.895478E+0	1.949275E+0	1.893045E+0	1.993541E+0	1.846980E+0	1.766446E+0	1.889146E+0	1.915048E+0	2.100539E+0	1.707554E+0	1.818756E+0	1.839423E+0	1.950856E+0	1.688201E+0	1.789633E+0	1.894267E+0	1.891046E+0	1.789267E+0	1.932067E+0	2.055535E+0	1.903394E+0	1.868022E+0	1.927121E+0	1.921883E+0	1.950359E+0	1.578795E+0	1.915654E+0	1.847103E+0	1.820552E+0	1.723539E+0	1.869444E+0	1.858389E+0	1.773425E+0	1.904062E+0	1.933098E+0	1.952357E+0	1.863588E+0	1.924745E+0	1.841892E+0	1.925575E+0	2.012085E+0	1.717243E+0	1.814428E+0	1.953389E+0	1.905237E+0	1.662299E+0	1.407957E+0	1.871365E+0	1.802714E+0	1.852536E+0	1.814646E+0	1.913723E+0	1.737635E+0
5.405130E+2	1.548006E+0	1.496846E+0	2.017386E+0	1.682391E+0	1.727881E+0	1.780709E+0	1.969249E+0	1.940241E+0	1.728870E+0	1.773587E+0	1.889277E+0	1.877736E+0	2.009414E+0	1.615102E+0	1.622524E+0	1.806589E+0	1.919881E+0	1.713697E+0	1.703435E+0	1.513030E+0	1.844552E+0	1.901611E+0	1.745888E+0	1.730274E+0	1.786114E+0	1.767262E+0	1.870159E+0	1.576946E+0	1.919647E+0	1.691211E+0	1.599838E+0	1.756970E+0	1.837749E+0	1.692138E+0	1.578075E+0	1.652276E+0	1.862894E+0	1.806302E+0	1.827786E+0	1.873317E+0	1.792660E+0	1.773810E+0	1.868795E+0	1.785026E+0	1.955133E+0	1.599772E+0	1.690001E+0	1.790603E+0	1.776302E+0	1.626553E+0	1.665658E+0	1.720338E+0	1.740311E+0	1.834977E+0	1.841934E+0	1.897956E+0	1.767560E+0	1.698803E+0	1.859835E+0	1.876590E+0	1.930793E+0	1.756478E+0	1.745506E+0	1.759436E+0	1.928736E+0	1.731818E+0	1.799028E+0	1.689800E+0	1.841653E+0	1.853570E+0	1.936958E+0	1.841666E+0	1.762243E+0	1.766294E+0	1.831313E+0	1.881679E+0	1.939474E+0	1.596439E+0	1.701598E+0	1.828970E+0	1.931472E+0	1.721551E+0	1.651467E+0	1.735666E+0	1.865015E+0	1.786178E+0	1.859649E+0	1.859216E+0	1.875810E+0	1.576418E+0	1.894739E+0	1.771690E+0	1.929279E+0	1.680428E+0	1.745384E+0	1.762628E+0	1.771802E+0	1.585379E+0	1.760434E+0	1.669374E+0	1.836617E+0	1.931575E+0	1.865404E+0	1.971144E+0	1.827980E+0	1.791968E+0	1.743475E+0	1.923826E+0	1.846851E+0	1.544357E+0	1.676997E+0	1.829223E+0	1.861671E+0	1.636576E+0	1.725837E+0	1.728518E+0	1.811787E+0	1.869533E+0	1.887269E+0	1.943353E+0	1.781543E+0	1.757772E+0	1.773321E+0	1.823413E+0	1.943282E+0	1.608644E+0	1.717076E+0	1.770257E+0	1.908143E+0	1.630668E+0	1.720691E+0	1.806111E+0	1.883283E+0	1.784065E+0	1.900819E+0	2.006260E+0	1.859408E+0	1.852358E+0	1.991678E+0	1.830628E+0	1.921754E+0	1.625568E+0	1.822143E+0	1.813085E+0	1.796809E+0	1.655551E+0	1.809664E+0	1.837904E+0	1.771149E+0	1.831640E+0	1.917290E+0	1.864463E+0	1.696870E+0	1.941595E+0	1.853704E+0	1.841493E+0	1.897860E+0	1.633554E+0	1.840145E+0	1.863985E+0	1.765864E+0	1.575706E+0	1.414251E+0	1.699844E+0	1.729358E+0	1.816406E+0	1.773561E+0	1.845446E+0	1.751503E+0
5.407680E+2	1.524305E+0	1.358474E+0	1.988859E+0	1.594413E+0	1.624629E+0	1.731248E+0	1.949964E+0	1.846468E+0	1.809771E+0	1.722868E+0	1.787940E+0	1.786246E+0	1.869994E+0	1.545958E+0	1.579516E+0	1.723978E+0	1.837692E+0	1.679114E+0	1.616862E+0	1.575490E+0	1.759990E+0	1.893809E+0	1.715613E+0	1.776762E+0	1.698780E+0	1.778245E+0	1.765480E+0	1.520959E+0	1.860052E+0	1.631367E+0	1.592494E+0	1.719996E+0	1.825367E+0	1.567403E+0	1.473824E+0	1.666353E+0	1.741116E+0	1.744070E+0	1.732126E+0	1.752152E+0	1.761800E+0	1.671459E+0	1.747101E+0	1.764077E+0	1.862437E+0	1.486978E+0	1.582610E+0	1.685559E+0	1.750272E+0	1.562321E+0	1.687892E+0	1.645210E+0	1.663666E+0	1.743562E+0	1.810321E+0	1.883229E+0	1.665474E+0	1.686278E+0	1.798505E+0	1.858128E+0	1.849548E+0	1.591593E+0	1.659264E+0	1.681826E+0	1.847033E+0	1.671829E+0	1.752809E+0	1.681537E+0	1.710757E+0	1.781324E+0	1.869832E+0	1.813548E+0	1.757337E+0	1.643905E+0	1.771791E+0	1.844862E+0	1.907672E+0	1.498135E+0	1.615466E+0	1.727779E+0	1.889120E+0	1.666252E+0	1.614379E+0	1.660687E+0	1.740581E+0	1.630619E+0	1.741570E+0	1.796182E+0	1.878726E+0	1.553820E+0	1.748388E+0	1.756699E+0	1.889091E+0	1.592161E+0	1.654023E+0	1.708283E+0	1.778674E+0	1.591569E+0	1.762589E+0	1.591453E+0	1.707260E+0	1.847516E+0	1.841718E+0	1.896890E+0	1.732069E+0	1.654801E+0	1.733102E+0	1.843662E+0	1.776451E+0	1.516456E+0	1.588917E+0	1.743287E+0	1.819030E+0	1.567701E+0	1.676081E+0	1.688132E+0	1.748054E+0	1.794186E+0	1.829505E+0	1.841612E+0	1.716722E+0	1.700667E+0	1.728718E+0	1.808903E+0	1.854557E+0	1.576500E+0	1.673235E+0	1.714794E+0	1.796433E+0	1.567111E+0	1.712583E+0	1.742723E+0	1.819993E+0	1.706030E+0	1.795585E+0	1.799922E+0	1.760077E+0	1.700191E+0	1.794298E+0	1.790446E+0	1.854195E+0	1.505031E+0	1.788607E+0	1.781539E+0	1.753174E+0	1.514493E+0	1.706135E+0	1.748458E+0	1.657266E+0	1.805193E+0	1.809798E+0	1.777180E+0	1.660687E+0	1.775236E+0	1.764760E+0	1.778952E+0	1.792942E+0	1.526554E+0	1.684568E+0	1.780920E+0	1.702801E+0	1.481783E+0	1.331186E+0	1.692816E+0	1.653098E+0	1.825131E+0	1.733215E+0	1.890153E+0	1.712210E+0
5.410190E+2	1.442946E+0	1.314712E+0	1.844711E+0	1.479775E+0	1.527943E+0	1.582208E+0	1.812825E+0	1.742497E+0	1.498999E+0	1.654794E+0	1.683314E+0	1.670454E+0	1.660862E+0	1.767770E+0	1.433399E+0	1.637779E+0	1.651348E+0	1.751922E+0	1.474992E+0	1.621207E+0	1.639111E+0	1.702341E+0	1.612549E+0	1.643202E+0	1.547228E+0	1.629000E+0	1.684274E+0	1.415349E+0	1.692724E+0	1.668239E+0	1.435640E+0	1.612649E+0	1.720396E+0	1.601592E+0	1.421382E+0	1.501442E+0	1.665756E+0	1.671764E+0	1.599400E+0	1.599071E+0	1.657654E+0	1.556079E+0	1.627328E+0	1.632508E+0	1.751090E+0	1.464760E+0	1.464856E+0	1.556721E+0	1.603389E+0	1.433850E+0	1.526360E+0	1.570077E+0	1.609075E+0	1.621887E+0	1.666560E+0	1.746968E+0	1.588753E+0	1.584110E+0	1.644828E+0	1.741463E+0	1.715464E+0	1.511829E+0	1.541831E+0	1.567699E+0	1.706607E+0	1.574923E+0	1.639411E+0	1.520424E+0	1.669568E+0	1.662113E+0	1.722989E+0	1.675964E+0	1.637132E+0	1.536287E+0	1.590758E+0	1.720959E+0	1.719759E+0	1.404842E+0	1.455817E+0	1.594302E+0	1.689851E+0	1.496627E+0	1.433253E+0	1.573654E+0	1.725331E+0	1.559430E+0	1.655109E+0	1.675624E+0	1.690230E+0	1.374399E+0	1.623880E+0	1.512350E+0	1.720920E+0	1.485821E+0	1.544389E+0	1.555398E+0	1.648063E+0	1.456812E+0	1.579507E+0	1.594260E+0	1.609637E+0	1.783275E+0	1.659110E+0	1.729822E+0	1.646816E+0	1.548687E+0	1.552926E+0	1.688909E+0	1.702446E+0	1.412824E+0	1.511266E+0	1.601279E+0	1.602424E+0	1.454644E+0	1.544491E+0	1.549683E+0	1.625738E+0	1.582588E+0	1.683171E+0	1.701217E+0	1.539722E+0	1.596572E+0	1.597582E+0	1.692831E+0	1.742582E+0	1.492428E+0	1.547199E+0	1.658021E+0	1.731378E+0	1.467432E+0	1.513194E+0	1.611582E+0	1.651608E+0	1.577922E+0	1.660376E+0	1.684125E+0	1.628109E+0	1.678560E+0	1.653308E+0	1.700554E+0	1.684379E+0	1.468448E+0	1.688650E+0	1.621965E+0	1.611998E+0	1.412826E+0	1.587301E+0	1.609163E+0	1.550217E+0	1.619413E+0	1.671324E+0	1.669757E+0	1.491381E+0	1.611683E+0	1.683459E+0	1.662910E+0	1.691133E+0	1.454818E+0	1.626708E+0	1.693414E+0	1.637844E+0	1.388531E+0	1.181413E+0	1.661887E+0	1.517456E+0	1.643873E+0	1.598224E+0	1.712146E+0	1.592023E+0
5.412580E+2	1.392978E+0	1.257433E+0	1.748612E+0	1.399131E+0	1.555995E+0	1.526239E+0	1.629264E+0	1.669137E+0	1.542662E+0	1.584051E+0	1.602377E+0	1.624394E+0	1.686576E+0	1.743434E+0	1.379512E+0	1.568937E+0	1.668288E+0	1.700958E+0	1.418582E+0	1.531060E+0	1.568168E+0	1.696938E+0	1.531029E+0	1.574455E+0	1.475946E+0	1.696192E+0	1.618291E+0	1.283655E+0	1.664071E+0	1.702696E+0	1.348556E+0	1.499336E+0	1.623678E+0	1.692137E+0	1.391960E+0	1.447811E+0	1.588214E+0	1.612495E+0	1.551569E+0	1.554741E+0	1.625512E+0	1.621836E+0	1.602991E+0	1.607635E+0	1.691741E+0	1.703448E+0	1.427240E+0	1.531185E+0	1.538310E+0	1.651604E+0	1.424338E+0	1.493099E+0	1.481699E+0	1.675002E+0	1.640315E+0	1.632806E+0	1.536165E+0	1.512921E+0	1.639315E+0	1.623473E+0	1.639334E+0	1.455875E+0	1.540605E+0	1.548870E+0	1.660008E+0	1.548558E+0	1.561403E+0	1.499076E+0	1.597910E+0	1.558553E+0	1.672046E+0	1.581448E+0	1.511404E+0	1.549652E+0	1.537439E+0	1.615468E+0	1.593715E+0	1.384179E+0	1.463500E+0	1.529114E+0	1.650969E+0	1.473016E+0	1.411617E+0	1.517413E+0	1.603951E+0	1.515928E+0	1.599615E+0	1.615648E+0	1.652236E+0	1.347690E+0	1.577283E+0	1.554054E+0	1.683821E+0	1.412148E+0	1.605972E+0	1.521358E+0	1.621938E+0	1.432748E+0	1.537143E+0	1.478436E+0	1.561433E+0	1.655480E+0	1.641038E+0	1.637645E+0	1.511122E+0	1.501451E+0	1.503675E+0	1.594806E+0	1.609180E+0	1.398586E+0	1.419711E+0	1.542773E+0	1.676204E+0	1.437748E+0	1.479680E+0	1.520838E+0	1.590974E+0	1.595145E+0	1.616422E+0	1.711392E+0	1.474906E+0	1.545972E+0	1.548320E+0	1.638613E+0	1.714435E+0	1.453482E+0	1.459523E+0	1.604515E+0	1.605210E+0	1.451376E+0	1.490212E+0	1.554751E+0	1.596673E+0	1.514194E+0	1.649532E+0	1.628690E+0	1.609664E+0	1.521922E+0	1.573172E+0	1.605219E+0	1.639341E+0	1.374897E+0	1.519690E+0	1.571245E+0	1.468902E+0	1.419820E+0	1.562512E+0	1.511522E+0	1.484162E+0	1.648383E+0	1.654884E+0	1.683793E+0	1.502370E+0	1.556935E+0	1.636904E+0	1.651099E+0	1.596146E+0	1.422540E+0	1.562420E+0	1.594497E+0	1.611990E+0	1.417174E+0	1.204697E+0	1.550114E+0	1.594882E+0	1.580338E+0	1.529260E+0	1.612166E+0	1.471836E+0
5.415190E+2	1.253321E+0	1.163470E+0	1.551912E+0	1.314487E+0	1.371572E+0	1.371993E+0	1.599264E+0	1.565800E+0	1.408464E+0	1.488618E+0	1.481960E+0	1.453580E+0	1.520299E+0	1.560894E+0	1.260336E+0	1.448616E+0	1.503278E+0	1.503765E+0	1.309110E+0	1.381025E+0	1.412668E+0	1.543284E+0	1.356348E+0	1.514877E+0	1.424570E+0	1.440348E+0	1.490773E+0	1.213037E+0	1.534565E+0	1.541898E+0	1.254655E+0	1.392584E+0	1.450298E+0	1.471161E+0	1.303700E+0	1.343904E+0	1.501386E+0	1.528926E+0	1.416455E+0	1.446577E+0	1.426866E+0	1.476059E+0	1.472324E+0	1.428280E+0	1.564567E+0	1.576982E+0	1.275689E+0	1.366365E+0	1.434190E+0	1.451838E+0	1.298123E+0	1.405651E+0	1.388512E+0	1.513795E+0	1.419008E+0	1.553015E+0	1.366633E+0	1.526102E+0	1.447049E+0	1.547008E+0	1.509225E+0	1.523734E+0	1.316131E+0	1.385097E+0	1.568094E+0	1.531418E+0	1.402509E+0	1.335900E+0	1.463063E+0	1.510390E+0	1.470664E+0	1.486932E+0	1.387518E+0	1.371691E+0	1.448782E+0	1.472448E+0	1.496002E+0	1.407974E+0	1.307692E+0	1.411160E+0	1.532935E+0	1.443814E+0	1.347324E+0	1.327952E+0	1.487446E+0	1.405850E+0	1.507993E+0	1.476118E+0	1.490040E+0	1.247708E+0	1.424380E+0	1.413303E+0	1.572529E+0	1.357242E+0	1.440850E+0	1.363098E+0	1.490639E+0	1.271866E+0	1.377039E+0	1.334534E+0	1.433910E+0	1.532466E+0	1.505799E+0	1.468653E+0	1.430839E+0	1.442574E+0	1.436269E+0	1.480486E+0	1.503880E+0	1.313175E+0	1.346695E+0	1.427585E+0	1.460279E+0	1.317544E+0	1.351367E+0	1.374456E+0	1.498274E+0	1.412431E+0	1.511162E+0	1.500453E+0	1.393263E+0	1.420917E+0	1.444478E+0	1.471379E+0	1.502107E+0	1.319335E+0	1.369410E+0	1.492283E+0	1.543440E+0	1.279448E+0	1.359767E+0	1.416326E+0	1.482627E+0	1.416001E+0	1.446084E+0	1.521520E+0	1.431578E+0	1.457776E+0	1.499706E+0	1.498299E+0	1.459789E+0	1.260355E+0	1.477127E+0	1.455583E+0	1.436173E+0	1.302269E+0	1.389730E+0	1.447337E+0	1.423237E+0	1.505428E+0	1.532851E+0	1.510447E+0	1.349868E+0	1.517624E+0	1.469437E+0	1.477379E+0	1.578765E+0	1.346625E+0	1.398489E+0	1.465145E+0	1.439826E+0	1.281288E+0	1.130441E+0	1.421473E+0	1.381812E+0	1.452028E+0	1.446363E+0	1.508940E+0	1.365515E+0
5.417600E+2	1.237306E+0	1.072725E+0	1.381493E+0	1.171859E+0	1.243250E+0	1.314720E+0	1.467124E+0	1.404417E+0	1.304446E+0	1.355808E+0	1.379305E+0	1.289166E+0	1.381447E+0	1.371164E+0	1.134942E+0	1.318719E+0	1.416693E+0	1.449765E+0	1.156630E+0	1.315342E+0	1.327541E+0	1.446647E+0	1.274249E+0	1.308646E+0	1.289072E+0	1.399644E+0	1.396243E+0	1.198403E+0	1.405632E+0	1.453641E+0	1.153405E+0	1.328776E+0	1.439094E+0	1.435071E+0	1.223757E+0	1.269492E+0	1.381247E+0	1.395572E+0	1.332752E+0	1.365604E+0	1.378649E+0	1.395414E+0	1.396106E+0	1.341877E+0	1.413090E+0	1.436281E+0	1.187375E+0	1.294984E+0	1.331308E+0	1.406874E+0	1.313163E+0	1.251696E+0	1.300835E+0	1.413738E+0	1.311634E+0	1.360289E+0	1.255882E+0	1.437776E+0	1.340233E+0	1.394742E+0	1.428546E+0	1.473732E+0	1.206647E+0	1.258988E+0	1.373408E+0	1.425286E+0	1.338226E+0	1.302849E+0	1.358683E+0	1.347828E+0	1.390350E+0	1.371481E+0	1.259952E+0	1.358329E+0	1.304323E+0	1.446252E+0	1.347408E+0	1.444287E+0	1.236374E+0	1.337284E+0	1.410738E+0	1.402184E+0	1.209472E+0	1.269706E+0	1.334956E+0	1.332025E+0	1.388622E+0	1.394722E+0	1.393596E+0	1.125811E+0	1.393073E+0	1.306441E+0	1.421052E+0	1.260633E+0	1.315651E+0	1.281282E+0	1.322214E+0	1.221679E+0	1.282983E+0	1.264341E+0	1.336287E+0	1.464814E+0	1.392991E+0	1.400803E+0	1.320006E+0	1.332578E+0	1.330629E+0	1.386379E+0	1.364287E+0	1.162282E+0	1.177487E+0	1.346527E+0	1.328964E+0	1.275309E+0	1.225017E+0	1.253312E+0	1.299351E+0	1.335200E+0	1.376382E+0	1.421776E+0	1.332808E+0	1.266945E+0	1.335973E+0	1.376689E+0	1.434796E+0	1.265554E+0	1.309742E+0	1.319363E+0	1.312790E+0	1.209872E+0	1.284067E+0	1.311409E+0	1.369776E+0	1.259279E+0	1.400798E+0	1.523371E+0	1.362046E+0	1.325748E+0	1.370592E+0	1.453352E+0	1.396489E+0	1.126622E+0	1.348794E+0	1.360951E+0	1.379062E+0	1.161845E+0	1.313907E+0	1.290976E+0	1.296826E+0	1.353023E+0	1.413980E+0	1.351749E+0	1.268447E+0	1.364604E+0	1.383273E+0	1.303661E+0	1.431635E+0	1.231852E+0	1.345130E+0	1.365594E+0	1.349013E+0	1.188699E+0	1.070030E+0	1.293535E+0	1.302637E+0	1.419016E+0	1.300369E+0	1.401648E+0	1.219904E+0
5.420050E+2	1.192461E+0	9.761872E-1	1.305666E+0	1.041227E+0	1.122095E+0	1.052438E+0	1.239991E+0	1.282582E+0	1.168962E+0	1.226336E+0	1.241778E+0	1.155458E+0	1.229457E+0	1.253895E+0	1.017320E+0	1.159489E+0	1.258585E+0	1.253788E+0	1.049949E+0	1.124739E+0	1.170905E+0	1.302596E+0	1.211363E+0	1.190144E+0	1.132380E+0	1.245231E+0	1.207818E+0	1.012633E+0	1.226842E+0	1.259591E+0	1.061078E+0	1.137337E+0	1.225023E+0	1.233094E+0	1.071540E+0	1.104579E+0	1.202674E+0	1.223695E+0	1.184481E+0	1.183563E+0	1.235935E+0	1.175199E+0	1.180897E+0	1.235180E+0	1.272352E+0	1.259112E+0	1.057085E+0	1.136547E+0	1.185046E+0	1.239222E+0	1.122854E+0	1.188881E+0	1.142028E+0	1.267352E+0	1.151770E+0	1.282339E+0	1.141421E+0	1.211025E+0	1.228595E+0	1.289935E+0	1.233105E+0	1.254681E+0	1.118572E+0	1.118040E+0	1.236811E+0	1.271031E+0	1.198107E+0	1.162393E+0	1.161769E+0	1.243669E+0	1.255495E+0	1.237482E+0	1.188195E+0	1.233124E+0	1.222485E+0	1.220396E+0	1.230036E+0	1.267717E+0	1.080021E+0	1.118752E+0	1.255210E+0	1.238150E+0	1.062966E+0	1.070870E+0	1.180025E+0	1.221946E+0	1.208598E+0	1.206847E+0	1.242358E+0	1.066916E+0	1.141148E+0	1.141584E+0	1.281936E+0	1.245342E+0	1.178273E+0	1.139743E+0	1.178538E+0	1.199677E+0	1.163082E+0	1.066386E+0	1.197169E+0	1.258422E+0	1.240924E+0	1.251656E+0	1.142395E+0	1.236814E+0	1.182859E+0	1.228840E+0	1.266211E+0	1.291539E+0	1.089985E+0	1.184407E+0	1.213219E+0	1.250619E+0	1.050222E+0	1.124235E+0	1.199567E+0	1.292503E+0	1.226195E+0	1.206771E+0	1.117791E+0	1.170081E+0	1.176212E+0	1.184253E+0	1.306298E+0	1.054135E+0	1.137430E+0	1.208436E+0	1.229994E+0	1.071391E+0	1.137399E+0	1.171526E+0	1.209158E+0	1.130523E+0	1.217757E+0	1.317646E+0	1.235048E+0	1.187755E+0	1.188795E+0	1.261309E+0	1.226679E+0	1.022273E+0	1.230133E+0	1.203228E+0	1.168585E+0	1.047473E+0	1.154247E+0	1.163289E+0	1.156182E+0	1.202512E+0	1.254004E+0	1.240051E+0	1.153424E+0	1.187015E+0	1.274872E+0	1.201512E+0	1.231738E+0	1.122458E+0	1.177984E+0	1.169029E+0	1.200183E+0	1.014179E+0	9.252952E-1	1.167003E+0	1.168743E+0	1.158032E+0	1.157311E+0	1.300045E+0	1.126296E+0
5.422730E+2	1.069462E+0	8.107863E-1	1.153262E+0	8.939329E-1	9.710963E-1	9.814981E-1	1.089283E+0	1.061874E+0	9.962396E-1	1.036134E+0	1.031210E+0	1.031348E+0	1.094607E+0	1.069698E+0	8.680934E-1	1.011630E+0	1.090439E+0	1.096038E+0	8.997024E-1	1.002391E+0	1.040375E+0	1.092518E+0	1.048328E+0	1.072953E+0	1.025136E+0	1.075960E+0	1.018761E+0	9.280181E-1	1.070975E+0	1.138689E+0	8.932073E-1	9.918200E-1	1.022157E+0	1.032381E+0	9.174048E-1	9.356439E-1	1.074344E+0	1.089747E+0	9.865904E-1	9.879254E-1	1.083573E+0	1.054854E+0	1.055998E+0	1.000842E+0	1.116919E+0	1.076823E+0	9.142556E-1	9.833360E-1	1.018328E+0	1.106904E+0	9.835572E-1	9.825805E-1	9.970064E-1	1.133941E+0	1.076013E+0	1.139942E+0	1.024484E+0	1.082489E+0	1.050798E+0	1.131079E+0	1.062659E+0	1.099322E+0	9.766697E-1	1.038722E+0	1.104684E+0	1.141825E+0	1.070266E+0	1.022623E+0	1.046104E+0	1.070271E+0	1.052315E+0	1.059222E+0	9.821268E-1	1.072047E+0	1.004252E+0	1.086580E+0	1.101679E+0	1.083006E+0	9.307964E-1	9.796907E-1	1.099684E+0	1.090272E+0	9.492216E-1	9.429978E-1	1.017167E+0	1.078250E+0	1.042125E+0	1.095470E+0	1.053857E+0	9.231050E-1	1.039942E+0	1.017779E+0	1.161371E+0	1.053517E+0	9.623928E-1	9.838746E-1	1.068547E+0	1.024358E+0	9.843073E-1	9.891697E-1	1.051951E+0	1.086890E+0	1.133729E+0	1.090348E+0	1.022329E+0	1.117760E+0	1.035738E+0	1.106852E+0	1.065242E+0	1.069468E+0	9.312079E-1	1.047887E+0	1.063627E+0	1.088831E+0	9.893384E-1	9.915531E-1	1.061157E+0	1.127371E+0	1.072801E+0	1.068407E+0	1.021814E+0	1.112974E+0	1.056392E+0	1.077345E+0	1.093970E+0	1.098644E+0	9.584225E-1	1.041388E+0	1.077540E+0	1.092129E+0	1.025201E+0	1.089926E+0	1.079585E+0	1.085652E+0	1.071705E+0	1.128554E+0	1.023616E+0	1.130321E+0	1.108656E+0	1.089697E+0	1.064778E+0	9.832938E-1	1.070201E+0	1.079524E+0	1.080029E+0	1.015068E+0	1.066031E+0	1.002828E+0	1.029771E+0	1.068373E+0	1.109208E+0	1.049004E+0	1.014493E+0	1.043118E+0	1.039309E+0	1.064623E+0	1.075915E+0	9.389421E-1	1.018551E+0	1.040944E+0	1.055766E+0	9.175932E-1	7.899982E-1	1.039064E+0	9.993348E-1	1.039687E+0	1.034061E+0	1.096028E+0	1.001487E+0
5.425460E+2	9.695248E-1	7.593000E-1	1.031639E+0	8.726057E-1	9.478197E-1	8.838742E-1	1.019999E+0	1.050393E+0	9.737660E-1	9.840784E-1	9.015777E-1	9.590563E-1	9.774693E-1	1.030977E+0	7.960699E-1	8.805337E-1	9.787577E-1	1.019589E+0	7.969326E-1	9.070899E-1	9.444637E-1	9.502673E-1	9.784564E-1	9.714737E-1	9.422963E-1	1.046241E+0	1.020664E+0	8.370407E-1	1.032008E+0	1.058896E+0	7.987800E-1	8.922262E-1	1.002106E+0	9.836288E-1	8.662398E-1	9.101691E-1	9.787811E-1	9.966977E-1	9.268045E-1	9.418239E-1	9.717139E-1	9.698698E-1	9.522366E-1	9.524031E-1	1.036659E+0	1.039794E+0	8.526537E-1	9.479347E-1	9.489137E-1	1.007341E+0	8.632248E-1	9.185348E-1	9.082290E-1	1.002383E+0	9.567100E-1	9.846556E-1	9.230141E-1	9.684549E-1	1.017721E+0	9.985872E-1	1.028569E+0	1.017178E+0	8.824771E-1	9.354369E-1	9.508506E-1	1.026463E+0	9.460367E-1	9.014432E-1	8.999715E-1	9.998279E-1	1.057109E+0	9.856434E-1	9.508486E-1	1.022810E+0	9.348135E-1	9.959542E-1	1.010325E+0	1.022898E+0	8.869073E-1	9.082959E-1	9.684584E-1	1.062311E+0	8.589675E-1	9.269303E-1	9.701988E-1	9.839918E-1	9.614698E-1	9.645056E-1	9.764115E-1	8.614717E-1	9.773245E-1	9.571804E-1	1.045134E+0	9.958296E-1	9.745740E-1	9.313205E-1	9.661188E-1	9.267294E-1	9.484083E-1	8.824715E-1	9.262579E-1	1.029484E+0	1.010951E+0	1.018655E+0	9.143397E-1	1.000647E+0	9.203752E-1	9.737107E-1	1.014097E+0	1.089965E+0	8.182099E-1	9.259937E-1	1.034521E+0	1.081682E+0	8.551324E-1	8.942041E-1	1.014163E+0	1.044491E+0	1.013753E+0	9.890511E-1	9.233416E-1	1.008158E+0	9.578728E-1	9.895274E-1	1.008306E+0	1.013953E+0	8.908381E-1	9.467727E-1	9.461157E-1	9.763938E-1	9.021890E-1	9.828268E-1	9.416545E-1	1.036230E+0	1.016218E+0	1.087288E+0	9.931074E-1	1.027385E+0	1.023321E+0	1.007977E+0	1.017303E+0	1.036067E+0	1.010226E+0	9.434497E-1	9.998170E-1	1.008079E+0	9.129307E-1	9.441071E-1	9.551787E-1	1.048221E+0	1.063682E+0	1.014824E+0	9.279029E-1	1.033292E+0	1.056682E+0	9.993052E-1	1.028113E+0	9.634502E-1	9.144058E-1	9.902171E-1	9.781978E-1	9.169271E-1	7.597932E-1	9.518976E-1	9.254002E-1	1.020999E+0	9.628993E-1	1.077334E+0	9.159677E-1
5.427600E+2	9.131493E-1	7.702406E-1	9.880951E-1	8.659407E-1	9.149935E-1	8.994944E-1	1.002857E+0	1.005103E+0	9.423034E-1	9.573827E-1	1.001598E+0	9.660932E-1	9.843272E-1	1.038169E+0	8.421858E-1	9.104647E-1	1.018912E+0	1.009881E+0	8.270935E-1	9.128857E-1	9.166557E-1	9.676741E-1	9.592409E-1	1.029087E+0	9.403691E-1	9.616046E-1	9.699104E-1	8.135016E-1	1.030289E+0	1.028670E+0	7.935341E-1	9.536529E-1	9.531591E-1	9.893266E-1	8.675184E-1	8.853656E-1	9.121580E-1	1.002624E+0	8.963131E-1	9.938362E-1	9.549991E-1	1.003988E+0	9.592825E-1	9.903686E-1	1.014050E+0	1.019857E+0	8.651922E-1	8.928009E-1	9.538715E-1	1.031107E+0	9.044254E-1	9.265405E-1	9.628180E-1	9.968227E-1	9.829565E-1	1.021482E+0	8.970281E-1	1.001413E+0	1.000492E+0	9.999060E-1	1.002436E+0	1.045154E+0	8.879819E-1	9.371482E-1	9.846806E-1	1.069312E+0	9.669818E-1	9.289841E-1	9.281826E-1	1.016687E+0	9.947772E-1	9.670996E-1	9.483953E-1	9.939708E-1	9.298534E-1	9.945385E-1	9.738989E-1	1.032917E+0	8.534418E-1	9.517535E-1	1.012895E+0	1.027516E+0	9.139857E-1	9.563878E-1	9.909372E-1	9.655355E-1	1.009218E+0	1.042838E+0	1.016595E+0	9.005059E-1	9.278133E-1	9.167802E-1	1.019167E+0	9.819294E-1	9.251715E-1	8.966826E-1	1.052049E+0	9.315423E-1	9.433828E-1	8.417580E-1	9.689691E-1	9.905305E-1	9.498743E-1	9.789679E-1	9.114979E-1	1.025235E+0	9.521325E-1	9.751044E-1	1.025530E+0	1.039290E+0	8.576144E-1	9.272125E-1	1.027075E+0	1.034251E+0	8.950669E-1	9.403547E-1	9.214608E-1	1.008073E+0	1.009260E+0	1.014825E+0	8.878173E-1	1.077553E+0	9.405657E-1	9.872365E-1	1.056033E+0	1.023226E+0	8.951003E-1	9.513402E-1	9.691152E-1	9.991400E-1	8.934021E-1	9.179840E-1	9.601648E-1	9.985131E-1	1.011753E+0	1.060801E+0	1.023616E+0	1.007246E+0	9.817670E-1	9.977623E-1	1.016086E+0	9.952879E-1	9.728228E-1	9.483977E-1	9.427054E-1	1.022692E+0	9.450091E-1	9.523010E-1	9.289862E-1	1.060187E+0	9.707331E-1	9.983434E-1	9.136867E-1	1.015041E+0	9.628735E-1	1.004169E+0	1.021906E+0	1.085993E+0	9.459066E-1	9.864125E-1	9.718916E-1	1.040823E+0	7.018986E-1	9.722834E-1	9.411189E-1	1.031588E+0	9.834409E-1	1.066767E+0	8.743644E-1
5.430120E+2	1.055368E+0	8.107866E-1	1.114974E+0	9.352556E-1	9.746773E-1	1.016643E+0	1.118567E+0	1.137145E+0	1.007155E+0	1.032797E+0	1.063453E+0	1.074211E+0	1.118605E+0	1.132757E+0	8.846742E-1	1.000257E+0	1.095456E+0	1.070555E+0	9.220443E-1	9.965962E-1	9.904344E-1	1.099122E+0	1.055896E+0	1.102414E+0	1.030274E+0	1.145090E+0	1.105677E+0	9.337436E-1	1.088741E+0	1.168918E+0	9.204859E-1	1.087838E+0	1.100002E+0	1.064673E+0	8.886244E-1	9.705036E-1	1.094006E+0	1.089157E+0	1.048766E+0	1.074810E+0	1.080359E+0	1.072843E+0	1.072651E+0	1.090519E+0	1.133876E+0	1.122966E+0	9.306105E-1	1.034406E+0	1.080924E+0	1.129385E+0	1.006446E+0	1.025073E+0	1.004725E+0	1.122206E+0	1.031870E+0	1.129509E+0	9.867423E-1	1.075897E+0	1.083877E+0	1.061867E+0	1.109816E+0	1.108845E+0	1.022543E+0	1.046709E+0	1.073406E+0	1.118754E+0	1.072433E+0	1.008164E+0	1.029178E+0	1.070271E+0	1.102062E+0	1.132799E+0	1.015245E+0	1.072751E+0	1.024711E+0	1.080208E+0	1.076817E+0	1.129967E+0	9.483524E-1	1.071571E+0	1.122596E+0	1.132523E+0	9.516939E-1	9.791500E-1	1.045223E+0	1.130983E+0	1.121490E+0	1.129739E+0	1.088927E+0	1.000489E+0	1.051591E+0	1.039934E+0	1.129838E+0	1.083403E+0	9.982597E-1	1.012541E+0	1.012178E+0	1.027796E+0	9.728198E-1	9.667068E-1	1.070255E+0	1.168216E+0	1.098203E+0	1.148598E+0	1.071350E+0	1.132642E+0	1.006573E+0	1.150071E+0	1.049597E+0	1.116157E+0	9.978484E-1	1.064343E+0	1.094087E+0	1.123918E+0	1.001122E+0	1.037703E+0	1.081758E+0	1.123605E+0	1.118370E+0	1.126736E+0	1.041757E+0	1.172972E+0	1.056392E+0	1.080399E+0	1.112940E+0	1.136354E+0	1.005306E+0	1.023770E+0	1.100539E+0	1.166387E+0	1.054941E+0	1.013426E+0	1.089735E+0	1.111664E+0	1.097855E+0	1.154423E+0	1.101661E+0	1.110927E+0	1.101976E+0	1.150306E+0	1.084255E+0	1.185991E+0	1.021834E+0	1.039939E+0	1.032543E+0	1.129441E+0	1.099567E+0	1.069744E+0	1.005857E+0	1.114977E+0	1.116164E+0	1.110653E+0	1.028709E+0	1.120331E+0	1.085172E+0	1.066014E+0	1.051083E+0	1.159519E+0	1.050695E+0	1.103716E+0	1.051352E+0	1.115427E+0	8.699178E-1	1.063668E+0	1.068028E+0	1.125644E+0	1.083948E+0	1.136669E+0	1.018820E+0
5.432910E+2	1.220008E+0	9.543055E-1	1.284644E+0	1.091880E+0	1.112546E+0	1.189111E+0	1.318559E+0	1.308099E+0	1.158689E+0	1.224334E+0	1.220064E+0	1.252061E+0	1.231172E+0	1.231218E+0	1.018875E+0	1.198400E+0	1.246664E+0	1.253182E+0	1.077876E+0	1.179472E+0	1.127208E+0	1.256979E+0	1.233489E+0	1.224188E+0	1.181186E+0	1.284644E+0	1.276338E+0	1.090886E+0	1.283572E+0	1.322463E+0	1.023307E+0	1.214865E+0	1.220895E+0	1.261584E+0	1.058111E+0	1.070390E+0	1.212506E+0	1.218952E+0	1.163557E+0	1.216070E+0	1.232075E+0	1.234750E+0	1.229575E+0	1.150085E+0	1.320395E+0	1.327472E+0	1.078344E+0	1.159181E+0	1.204877E+0	1.246932E+0	1.129395E+0	1.140848E+0	1.171804E+0	1.307502E+0	1.173243E+0	1.295842E+0	1.151938E+0	1.206411E+0	1.249957E+0	1.233248E+0	1.329120E+0	1.296349E+0	1.164444E+0	1.185374E+0	1.284684E+0	1.287510E+0	1.198107E+0	1.136917E+0	1.175312E+0	1.288221E+0	1.281868E+0	1.224922E+0	1.228059E+0	1.213430E+0	1.182188E+0	1.217562E+0	1.293060E+0	1.287129E+0	1.066853E+0	1.213117E+0	1.292704E+0	1.334457E+0	1.095730E+0	1.097649E+0	1.227603E+0	1.219308E+0	1.208598E+0	1.242343E+0	1.289848E+0	1.061437E+0	1.203765E+0	1.176770E+0	1.316560E+0	1.226577E+0	1.210757E+0	1.207229E+0	1.267218E+0	1.185927E+0	1.181031E+0	1.079723E+0	1.182525E+0	1.302162E+0	1.269591E+0	1.293262E+0	1.196389E+0	1.284696E+0	1.157582E+0	1.239297E+0	1.268015E+0	1.278443E+0	1.136923E+0	1.177703E+0	1.220664E+0	1.305849E+0	1.101940E+0	1.228794E+0	1.227248E+0	1.301298E+0	1.240957E+0	1.288838E+0	1.142098E+0	1.356579E+0	1.225471E+0	1.239234E+0	1.338117E+0	1.337883E+0	1.201360E+0	1.196037E+0	1.256277E+0	1.255364E+0	1.114419E+0	1.156955E+0	1.264688E+0	1.246274E+0	1.263039E+0	1.345981E+0	1.231500E+0	1.269059E+0	1.288227E+0	1.255182E+0	1.276586E+0	1.284942E+0	1.197242E+0	1.215597E+0	1.175642E+0	1.314975E+0	1.184137E+0	1.159192E+0	1.182944E+0	1.291307E+0	1.237566E+0	1.295595E+0	1.163762E+0	1.256507E+0	1.303364E+0	1.223055E+0	1.288849E+0	1.326899E+0	1.179270E+0	1.180443E+0	1.180004E+0	1.278624E+0	1.202181E+0	1.161379E+0	1.201344E+0	1.361713E+0	1.225539E+0	1.304110E+0	1.159810E+0
5.435270E+2	1.357103E+0	1.069507E+0	1.472336E+0	1.164528E+0	1.295179E+0	1.363532E+0	1.404985E+0	1.389107E+0	1.271054E+0	1.377833E+0	1.359567E+0	1.330752E+0	1.419162E+0	1.448051E+0	1.203858E+0	1.401324E+0	1.377795E+0	1.483137E+0	1.194050E+0	1.250948E+0	1.330378E+0	1.421438E+0	1.285314E+0	1.351202E+0	1.312833E+0	1.411272E+0	1.414009E+0	1.158324E+0	1.389584E+0	1.390769E+0	1.204293E+0	1.322807E+0	1.364789E+0	1.414178E+0	1.209686E+0	1.229939E+0	1.335921E+0	1.345788E+0	1.334546E+0	1.341961E+0	1.370293E+0	1.386110E+0	1.308998E+0	1.388350E+0	1.458309E+0	1.464761E+0	1.214087E+0	1.282795E+0	1.281108E+0	1.486521E+0	1.235995E+0	1.291109E+0	1.355427E+0	1.413737E+0	1.349812E+0	1.466474E+0	1.337552E+0	1.363949E+0	1.414660E+0	1.434293E+0	1.426843E+0	1.436233E+0	1.273929E+0	1.353714E+0	1.442346E+0	1.400236E+0	1.306446E+0	1.275309E+0	1.351913E+0	1.400208E+0	1.425114E+0	1.436087E+0	1.348880E+0	1.418115E+0	1.308662E+0	1.416515E+0	1.357237E+0	1.484359E+0	1.247346E+0	1.311828E+0	1.405181E+0	1.464938E+0	1.237290E+0	1.299162E+0	1.301410E+0	1.337956E+0	1.393781E+0	1.414309E+0	1.367294E+0	1.218259E+0	1.348657E+0	1.388544E+0	1.434652E+0	1.442033E+0	1.317683E+0	1.266353E+0	1.313278E+0	1.256053E+0	1.293034E+0	1.274868E+0	1.363130E+0	1.503767E+0	1.403586E+0	1.396963E+0	1.280932E+0	1.375281E+0	1.304704E+0	1.414262E+0	1.383542E+0	1.390616E+0	1.222108E+0	1.321539E+0	1.348592E+0	1.485831E+0	1.180500E+0	1.324699E+0	1.355356E+0	1.430012E+0	1.365469E+0	1.362769E+0	1.276718E+0	1.470795E+0	1.331312E+0	1.344616E+0	1.415827E+0	1.395374E+0	1.302433E+0	1.348727E+0	1.465901E+0	1.393177E+0	1.222560E+0	1.463681E+0	1.383509E+0	1.412099E+0	1.418021E+0	1.471014E+0	1.389719E+0	1.422716E+0	1.411406E+0	1.387297E+0	1.439704E+0	1.472048E+0	1.397159E+0	1.406720E+0	1.315533E+0	1.487171E+0	1.341612E+0	1.320334E+0	1.280882E+0	1.475197E+0	1.392480E+0	1.406682E+0	1.283311E+0	1.391278E+0	1.430523E+0	1.327285E+0	1.385075E+0	1.414171E+0	1.304629E+0	1.367496E+0	1.331355E+0	1.374542E+0	1.306012E+0	1.355398E+0	1.320684E+0	1.445798E+0	1.405279E+0	1.378076E+0	1.237238E+0
5.437850E+2	1.416040E+0	1.175055E+0	1.557170E+0	1.296492E+0	1.404397E+0	1.479378E+0	1.536410E+0	1.528806E+0	1.440567E+0	1.477271E+0	1.442478E+0	1.479172E+0	1.586008E+0	1.538769E+0	1.230802E+0	1.403123E+0	1.519590E+0	1.530462E+0	1.316368E+0	1.388107E+0	1.395076E+0	1.563091E+0	1.437866E+0	1.429767E+0	1.364847E+0	1.580546E+0	1.423524E+0	1.271569E+0	1.482991E+0	1.528599E+0	1.343835E+0	1.414053E+0	1.533452E+0	1.519915E+0	1.287712E+0	1.352618E+0	1.450053E+0	1.501662E+0	1.423032E+0	1.427665E+0	1.426225E+0	1.432635E+0	1.417242E+0	1.486537E+0	1.531218E+0	1.526853E+0	1.287684E+0	1.357083E+0	1.434190E+0	1.487807E+0	1.362212E+0	1.409346E+0	1.388509E+0	1.556413E+0	1.454800E+0	1.528467E+0	1.404993E+0	1.552468E+0	1.474616E+0	1.413858E+0	1.501841E+0	1.540402E+0	1.365674E+0	1.417055E+0	1.528520E+0	1.501097E+0	1.422008E+0	1.354488E+0	1.375046E+0	1.433924E+0	1.503028E+0	1.477360E+0	1.437810E+0	1.524325E+0	1.391122E+0	1.461826E+0	1.528956E+0	1.500641E+0	1.283554E+0	1.465793E+0	1.555850E+0	1.565595E+0	1.313327E+0	1.354061E+0	1.460610E+0	1.485605E+0	1.484761E+0	1.495090E+0	1.509765E+0	1.338789E+0	1.435300E+0	1.395058E+0	1.529248E+0	1.467750E+0	1.411072E+0	1.358919E+0	1.436328E+0	1.334431E+0	1.468220E+0	1.351385E+0	1.421096E+0	1.512649E+0	1.462174E+0	1.523064E+0	1.398156E+0	1.505335E+0	1.384417E+0	1.542524E+0	1.424457E+0	1.487986E+0	1.340898E+0	1.448307E+0	1.471108E+0	1.510522E+0	1.350712E+0	1.388877E+0	1.478963E+0	1.562496E+0	1.475864E+0	1.432630E+0	1.414454E+0	1.499707E+0	1.411197E+0	1.451525E+0	1.558398E+0	1.501699E+0	1.352361E+0	1.459654E+0	1.451445E+0	1.532994E+0	1.392885E+0	1.351482E+0	1.500543E+0	1.490785E+0	1.512412E+0	1.523368E+0	1.430160E+0	1.536839E+0	1.518259E+0	1.513958E+0	1.471962E+0	1.470848E+0	1.435209E+0	1.432078E+0	1.423981E+0	1.497972E+0	1.441491E+0	1.398858E+0	1.399889E+0	1.519284E+0	1.512616E+0	1.501904E+0	1.331128E+0	1.549913E+0	1.502099E+0	1.516292E+0	1.488130E+0	1.618013E+0	1.390773E+0	1.463877E+0	1.398203E+0	1.428496E+0	1.360760E+0	1.398276E+0	1.378899E+0	1.628922E+0	1.518993E+0	1.528446E+0	1.431388E+0
5.440060E+2	1.610790E+0	1.209163E+0	1.699062E+0	1.447119E+0	1.514214E+0	1.481332E+0	1.688544E+0	1.687638E+0	1.500281E+0	1.521984E+0	1.667522E+0	1.554663E+0	1.676290E+0	1.678712E+0	1.425624E+0	1.518058E+0	1.633152E+0	1.632394E+0	1.357700E+0	1.561324E+0	1.559090E+0	1.643520E+0	1.560145E+0	1.576417E+0	1.516401E+0	1.622541E+0	1.626538E+0	1.362545E+0	1.634847E+0	1.673079E+0	1.332297E+0	1.470712E+0	1.579447E+0	1.632621E+0	1.391962E+0	1.447813E+0	1.598590E+0	1.609531E+0	1.541408E+0	1.545874E+0	1.613296E+0	1.601363E+0	1.570962E+0	1.594542E+0	1.658960E+0	1.629393E+0	1.371634E+0	1.465607E+0	1.504845E+0	1.656099E+0	1.467500E+0	1.431516E+0	1.515337E+0	1.663887E+0	1.613472E+0	1.624216E+0	1.499659E+0	1.597291E+0	1.631734E+0	1.582601E+0	1.588769E+0	1.645165E+0	1.449468E+0	1.503219E+0	1.637668E+0	1.659304E+0	1.568627E+0	1.469472E+0	1.518357E+0	1.553737E+0	1.606115E+0	1.547948E+0	1.542684E+0	1.623506E+0	1.521940E+0	1.678482E+0	1.656739E+0	1.608964E+0	1.421256E+0	1.522286E+0	1.630835E+0	1.619651E+0	1.407291E+0	1.514734E+0	1.569182E+0	1.530430E+0	1.571870E+0	1.622379E+0	1.613512E+0	1.388094E+0	1.626794E+0	1.527335E+0	1.647343E+0	1.629000E+0	1.478746E+0	1.504639E+0	1.630187E+0	1.502188E+0	1.535707E+0	1.441937E+0	1.545570E+0	1.703319E+0	1.629195E+0	1.610116E+0	1.487675E+0	1.661270E+0	1.454416E+0	1.658240E+0	1.553222E+0	1.649697E+0	1.375090E+0	1.570200E+0	1.599040E+0	1.623579E+0	1.398505E+0	1.451613E+0	1.502137E+0	1.693097E+0	1.606152E+0	1.637463E+0	1.471789E+0	1.663076E+0	1.629536E+0	1.625633E+0	1.662422E+0	1.683447E+0	1.515541E+0	1.530126E+0	1.594037E+0	1.658095E+0	1.471963E+0	1.451295E+0	1.561444E+0	1.637751E+0	1.586394E+0	1.700140E+0	1.583412E+0	1.674086E+0	1.612495E+0	1.597725E+0	1.612559E+0	1.593787E+0	1.545486E+0	1.524237E+0	1.569646E+0	1.589469E+0	1.520227E+0	1.581853E+0	1.479038E+0	1.698764E+0	1.601141E+0	1.583084E+0	1.493323E+0	1.686793E+0	1.531285E+0	1.582998E+0	1.537793E+0	1.717836E+0	1.486565E+0	1.596400E+0	1.536945E+0	1.554392E+0	1.509900E+0	1.489662E+0	1.541907E+0	1.662561E+0	1.528528E+0	1.604038E+0	1.390940E+0
5.442750E+2	1.618479E+0	1.252283E+0	1.737353E+0	1.373140E+0	1.496312E+0	1.530141E+0	1.724258E+0	1.692101E+0	1.576050E+0	1.628098E+0	1.687923E+0	1.628233E+0	1.687717E+0	1.689225E+0	1.360338E+0	1.530626E+0	1.600526E+0	1.665155E+0	1.375016E+0	1.494999E+0	1.496661E+0	1.734753E+0	1.521714E+0	1.598681E+0	1.517045E+0	1.566330E+0	1.581496E+0	1.416620E+0	1.617081E+0	1.746828E+0	1.379506E+0	1.496951E+0	1.598913E+0	1.645914E+0	1.370217E+0	1.439766E+0	1.566368E+0	1.649833E+0	1.550374E+0	1.609116E+0	1.583725E+0	1.613768E+0	1.574808E+0	1.665892E+0	1.660090E+0	1.667559E+0	1.408704E+0	1.496366E+0	1.516618E+0	1.647108E+0	1.465541E+0	1.514655E+0	1.463504E+0	1.687973E+0	1.594382E+0	1.711982E+0	1.501514E+0	1.609817E+0	1.624845E+0	1.635336E+0	1.681375E+0	1.691596E+0	1.492285E+0	1.530609E+0	1.661923E+0	1.654031E+0	1.541906E+0	1.445374E+0	1.485630E+0	1.663916E+0	1.643878E+0	1.635881E+0	1.546364E+0	1.617878E+0	1.518220E+0	1.645202E+0	1.649221E+0	1.709145E+0	1.430584E+0	1.511732E+0	1.682908E+0	1.655070E+0	1.470342E+0	1.484612E+0	1.559424E+0	1.547568E+0	1.637684E+0	1.693368E+0	1.698267E+0	1.416860E+0	1.521216E+0	1.523423E+0	1.735754E+0	1.652628E+0	1.479423E+0	1.515983E+0	1.611624E+0	1.518690E+0	1.485449E+0	1.514240E+0	1.568146E+0	1.657530E+0	1.595544E+0	1.699732E+0	1.582166E+0	1.637328E+0	1.562650E+0	1.664516E+0	1.582102E+0	1.715748E+0	1.444627E+0	1.551303E+0	1.578056E+0	1.680107E+0	1.380171E+0	1.516510E+0	1.610290E+0	1.623403E+0	1.624122E+0	1.639494E+0	1.531621E+0	1.673194E+0	1.624873E+0	1.653883E+0	1.623874E+0	1.674174E+0	1.535630E+0	1.575804E+0	1.574322E+0	1.630668E+0	1.471289E+0	1.534350E+0	1.573391E+0	1.639702E+0	1.622747E+0	1.679816E+0	1.496143E+0	1.610687E+0	1.614725E+0	1.591595E+0	1.700206E+0	1.639966E+0	1.626095E+0	1.562587E+0	1.534353E+0	1.638397E+0	1.588031E+0	1.564781E+0	1.533135E+0	1.674835E+0	1.771228E+0	1.624586E+0	1.481043E+0	1.682583E+0	1.625093E+0	1.597595E+0	1.618498E+0	1.750118E+0	1.649211E+0	1.560257E+0	1.506043E+0	1.639653E+0	1.539477E+0	1.551519E+0	1.598374E+0	1.658199E+0	1.598226E+0	1.541452E+0	1.478769E+0
5.445240E+2	1.619117E+0	1.538038E+0	1.701316E+0	1.419126E+0	1.511234E+0	1.552923E+0	1.717829E+0	1.754613E+0	1.486796E+0	1.571372E+0	1.657654E+0	1.526512E+0	1.680862E+0	1.636674E+0	1.311632E+0	1.497702E+0	1.599271E+0	1.657875E+0	1.383950E+0	1.517538E+0	1.497229E+0	1.633315E+0	1.518223E+0	1.524698E+0	1.506129E+0	1.634172E+0	1.575785E+0	1.356819E+0	1.662353E+0	1.700277E+0	1.331769E+0	1.500530E+0	1.555858E+0	1.570571E+0	1.363820E+0	1.429711E+0	1.570191E+0	1.585824E+0	1.518689E+0	1.541735E+0	1.599154E+0	1.609425E+0	1.590820E+0	1.591271E+0	1.662352E+0	1.635658E+0	1.377088E+0	1.542214E+0	1.560622E+0	1.597649E+0	1.461617E+0	1.488790E+0	1.481697E+0	1.669442E+0	1.541890E+0	1.665951E+0	1.509556E+0	1.619703E+0	1.554552E+0	1.584580E+0	1.581951E+0	1.676714E+0	1.432347E+0	1.499794E+0	1.564262E+0	1.581520E+0	1.594629E+0	1.481864E+0	1.548260E+0	1.600700E+0	1.612112E+0	1.594609E+0	1.590520E+0	1.667116E+0	1.536198E+0	1.631749E+0	1.606435E+0	1.696621E+0	1.339513E+0	1.503662E+0	1.599588E+0	1.631456E+0	1.419034E+0	1.508042E+0	1.585041E+0	1.533724E+0	1.553801E+0	1.588109E+0	1.636894E+0	1.362755E+0	1.614417E+0	1.513651E+0	1.622611E+0	1.628994E+0	1.460472E+0	1.496871E+0	1.537381E+0	1.462999E+0	1.521350E+0	1.448255E+0	1.528485E+0	1.712889E+0	1.608629E+0	1.566593E+0	1.511827E+0	1.636036E+0	1.476450E+0	1.607354E+0	1.529155E+0	1.628629E+0	1.402325E+0	1.545817E+0	1.527291E+0	1.666461E+0	1.458077E+0	1.504973E+0	1.545268E+0	1.649773E+0	1.590106E+0	1.629322E+0	1.459948E+0	1.682595E+0	1.550319E+0	1.553850E+0	1.661197E+0	1.637084E+0	1.462567E+0	1.518385E+0	1.573667E+0	1.724993E+0	1.466557E+0	1.494280E+0	1.609812E+0	1.628645E+0	1.607439E+0	1.688439E+0	1.599728E+0	1.636046E+0	1.630304E+0	1.629734E+0	1.617430E+0	1.645358E+0	1.609972E+0	1.562587E+0	1.538844E+0	1.606623E+0	1.537724E+0	1.543616E+0	1.481316E+0	1.634526E+0	1.562570E+0	1.565992E+0	1.470057E+0	1.648185E+0	1.570196E+0	1.626779E+0	1.620983E+0	1.657463E+0	1.585567E+0	1.630640E+0	1.495323E+0	1.542400E+0	1.496057E+0	1.517077E+0	1.493004E+0	1.695571E+0	1.546136E+0	1.599161E+0	1.400186E+0
5.447610E+2	1.549287E+0	1.463380E+0	1.603715E+0	1.335815E+0	1.433641E+0	1.487190E+0	1.608547E+0	1.595782E+0	1.438642E+0	1.473266E+0	1.676078E+0	1.534188E+0	1.608292E+0	1.505024E+0	1.560863E+0	1.496506E+0	1.500766E+0	1.546238E+0	1.614628E+0	1.368144E+0	1.482473E+0	1.543881E+0	1.599158E+0	1.501784E+0	1.445761E+0	1.486219E+0	1.549141E+0	1.295744E+0	1.536284E+0	1.581796E+0	1.374261E+0	1.384832E+0	1.513990E+0	1.538912E+0	1.422022E+0	1.373399E+0	1.438040E+0	1.570417E+0	1.543798E+0	1.503319E+0	1.482153E+0	1.484118E+0	1.469765E+0	1.461663E+0	1.551004E+0	1.531409E+0	1.322028E+0	1.451678E+0	1.491830E+0	1.502580E+0	1.366135E+0	1.381637E+0	1.396781E+0	1.532945E+0	1.511466E+0	1.542579E+0	1.422317E+0	1.522147E+0	1.555244E+0	1.509435E+0	1.541610E+0	1.607070E+0	1.363229E+0	1.476970E+0	1.564900E+0	1.571631E+0	1.513015E+0	1.414391E+0	1.439930E+0	1.495338E+0	1.556371E+0	1.480355E+0	1.462955E+0	1.552461E+0	1.440103E+0	1.551744E+0	1.541678E+0	1.540086E+0	1.296172E+0	1.490003E+0	1.581535E+0	1.581751E+0	1.340525E+0	1.388205E+0	1.466099E+0	1.486265E+0	1.419594E+0	1.518954E+0	1.503920E+0	1.366180E+0	1.456418E+0	1.471294E+0	1.573146E+0	1.521962E+0	1.363700E+0	1.425805E+0	1.487198E+0	1.454747E+0	1.406475E+0	1.375249E+0	1.474182E+0	1.535885E+0	1.502681E+0	1.558268E+0	1.506144E+0	1.595920E+0	1.441455E+0	1.527188E+0	1.500273E+0	1.568272E+0	1.343215E+0	1.421491E+0	1.510372E+0	1.581993E+0	1.399815E+0	1.439353E+0	1.511794E+0	1.580704E+0	1.554167E+0	1.590662E+0	1.420684E+0	1.582838E+0	1.511043E+0	1.516432E+0	1.595112E+0	1.564136E+0	1.395592E+0	1.466179E+0	1.500070E+0	1.682178E+0	1.370582E+0	1.435266E+0	1.471284E+0	1.515496E+0	1.475419E+0	1.508588E+0	1.497562E+0	1.592035E+0	1.501933E+0	1.545968E+0	1.450049E+0	1.554808E+0	1.494540E+0	1.411665E+0	1.459915E+0	1.564052E+0	1.493983E+0	1.426170E+0	1.444302E+0	1.517391E+0	1.584065E+0	1.559887E+0	1.391869E+0	1.566062E+0	1.529201E+0	1.483632E+0	1.610428E+0	1.582146E+0	1.476275E+0	1.466414E+0	1.440456E+0	1.561719E+0	1.440051E+0	1.445376E+0	1.403934E+0	1.564770E+0	1.520458E+0	1.472363E+0	1.355115E+0
5.450150E+2	1.347492E+0	1.356545E+0	1.512122E+0	1.227178E+0	1.313680E+0	1.370689E+0	1.485695E+0	1.460553E+0	1.334620E+0	1.351134E+0	1.478011E+0	1.323714E+0	1.412302E+0	1.454138E+0	1.482104E+0	1.364811E+0	1.394732E+0	1.443093E+0	1.506832E+0	1.285078E+0	1.387700E+0	1.428639E+0	1.459993E+0	1.389175E+0	1.362921E+0	1.386723E+0	1.480624E+0	1.176773E+0	1.505910E+0	1.489910E+0	1.506462E+0	1.278678E+0	1.344149E+0	1.366059E+0	1.475106E+0	1.250051E+0	1.356125E+0	1.376607E+0	1.509719E+0	1.336645E+0	1.367077E+0	1.355715E+0	1.386500E+0	1.393588E+0	1.418178E+0	1.350829E+0	1.290409E+0	1.322260E+0	1.356099E+0	1.406875E+0	1.418454E+0	1.345302E+0	1.251760E+0	1.463769E+0	1.341462E+0	1.438239E+0	1.273827E+0	1.477325E+0	1.449117E+0	1.408586E+0	1.462639E+0	1.490995E+0	1.265977E+0	1.320614E+0	1.452558E+0	1.395621E+0	1.349062E+0	1.320063E+0	1.319189E+0	1.408036E+0	1.418519E+0	1.400792E+0	1.367279E+0	1.394904E+0	1.365082E+0	1.385362E+0	1.417370E+0	1.441155E+0	1.252832E+0	1.338523E+0	1.456563E+0	1.456863E+0	1.292308E+0	1.279748E+0	1.358136E+0	1.366300E+0	1.401528E+0	1.347602E+0	1.363642E+0	1.175116E+0	1.391618E+0	1.385938E+0	1.496479E+0	1.367667E+0	1.348813E+0	1.260979E+0	1.415706E+0	1.281493E+0	1.280827E+0	1.275570E+0	1.360080E+0	1.446358E+0	1.462795E+0	1.439847E+0	1.329952E+0	1.391456E+0	1.335162E+0	1.433083E+0	1.422652E+0	1.438448E+0	1.242969E+0	1.322146E+0	1.392594E+0	1.456591E+0	1.244003E+0	1.312440E+0	1.365659E+0	1.479613E+0	1.339156E+0	1.423134E+0	1.302895E+0	1.434648E+0	1.337970E+0	1.352251E+0	1.432350E+0	1.431226E+0	1.318874E+0	1.326542E+0	1.394273E+0	1.439334E+0	1.309075E+0	1.333995E+0	1.388286E+0	1.485583E+0	1.391871E+0	1.476556E+0	1.406747E+0	1.467470E+0	1.412146E+0	1.390020E+0	1.437269E+0	1.391687E+0	1.390711E+0	1.347961E+0	1.344410E+0	1.438246E+0	1.332136E+0	1.329895E+0	1.345227E+0	1.449379E+0	1.396274E+0	1.440254E+0	1.294293E+0	1.469893E+0	1.411764E+0	1.409281E+0	1.461436E+0	1.438082E+0	1.340629E+0	1.416319E+0	1.326310E+0	1.416507E+0	1.338105E+0	1.309002E+0	1.328836E+0	1.445178E+0	1.362728E+0	1.441474E+0	1.279997E+0
5.452580E+2	1.417960E+0	1.307632E+0	1.473834E+0	1.228511E+0	1.273693E+0	1.319927E+0	1.414271E+0	1.419726E+0	1.301232E+0	1.377832E+0	1.467481E+0	1.394083E+0	1.436874E+0	1.466859E+0	1.406973E+0	1.323506E+0	1.399756E+0	1.395161E+0	1.418581E+0	1.243222E+0	1.329810E+0	1.427442E+0	1.414578E+0	1.322394E+0	1.328244E+0	1.448100E+0	1.440020E+0	1.162140E+0	1.388440E+0	1.404675E+0	1.402066E+0	1.310288E+0	1.309944E+0	1.371124E+0	1.440570E+0	1.268819E+0	1.381247E+0	1.314377E+0	1.431997E+0	1.265127E+0	1.298292E+0	1.395414E+0	1.423648E+0	1.332709E+0	1.377483E+0	1.397543E+0	1.480119E+0	1.276414E+0	1.309618E+0	1.378611E+0	1.394910E+0	1.324365E+0	1.238525E+0	1.371737E+0	1.445850E+0	1.436395E+0	1.314660E+0	1.384382E+0	1.433264E+0	1.396060E+0	1.334804E+0	1.451711E+0	1.380354E+0	1.313767E+0	1.362559E+0	1.402872E+0	1.351225E+0	1.212655E+0	1.278564E+0	1.345419E+0	1.423313E+0	1.379856E+0	1.312694E+0	1.415301E+0	1.362601E+0	1.381822E+0	1.337001E+0	1.513163E+0	1.274228E+0	1.368324E+0	1.383658E+0	1.438223E+0	1.194636E+0	1.265021E+0	1.375215E+0	1.347845E+0	1.327322E+0	1.365961E+0	1.423551E+0	1.212098E+0	1.326815E+0	1.327943E+0	1.461857E+0	1.367666E+0	1.295351E+0	1.321297E+0	1.368960E+0	1.296618E+0	1.282983E+0	1.208183E+0	1.330183E+0	1.450460E+0	1.377413E+0	1.476335E+0	1.380398E+0	1.424456E+0	1.291740E+0	1.407294E+0	1.322769E+0	1.456099E+0	1.208776E+0	1.285577E+0	1.372285E+0	1.421504E+0	1.188356E+0	1.309556E+0	1.320597E+0	1.438177E+0	1.361620E+0	1.408210E+0	1.314736E+0	1.487419E+0	1.316004E+0	1.372871E+0	1.444590E+0	1.420101E+0	1.275032E+0	1.314142E+0	1.392959E+0	1.431307E+0	1.247570E+0	1.331082E+0	1.354251E+0	1.399745E+0	1.408453E+0	1.417428E+0	1.425901E+0	1.439871E+0	1.390628E+0	1.437010E+0	1.391012E+0	1.369498E+0	1.393290E+0	1.365898E+0	1.337352E+0	1.410285E+0	1.323385E+0	1.312824E+0	1.248426E+0	1.407815E+0	1.413347E+0	1.381660E+0	1.280723E+0	1.396895E+0	1.348529E+0	1.419706E+0	1.391905E+0	1.396237E+0	1.335488E+0	1.366227E+0	1.313699E+0	1.365882E+0	1.331812E+0	1.320250E+0	1.327670E+0	1.435834E+0	1.408213E+0	1.380515E+0	1.312356E+0
5.455290E+2	1.296885E+0	1.304414E+0	1.372482E+0	1.169193E+0	1.210426E+0	1.286735E+0	1.405700E+0	1.343182E+0	1.238310E+0	1.260372E+0	1.372728E+0	1.339066E+0	1.346593E+0	1.408226E+0	1.356711E+0	1.255267E+0	1.315052E+0	1.436417E+0	1.365520E+0	1.280570E+0	1.321862E+0	1.363215E+0	1.410504E+0	1.300791E+0	1.219717E+0	1.367339E+0	1.384825E+0	1.127787E+0	1.381564E+0	1.389562E+0	1.378984E+0	1.201744E+0	1.348868E+0	1.350228E+0	1.397079E+0	1.173627E+0	1.343020E+0	1.332749E+0	1.410473E+0	1.263946E+0	1.306651E+0	1.332763E+0	1.374970E+0	1.308490E+0	1.368441E+0	1.356525E+0	1.423426E+0	1.259583E+0	1.297842E+0	1.365766E+0	1.383136E+0	1.217208E+0	1.251759E+0	1.347649E+0	1.322370E+0	1.330827E+0	1.263308E+0	1.375814E+0	1.317493E+0	1.293232E+0	1.331394E+0	1.396351E+0	1.385246E+0	1.273823E+0	1.315325E+0	1.401554E+0	1.369283E+0	1.261538E+0	1.276872E+0	1.301469E+0	1.341803E+0	1.356524E+0	1.270991E+0	1.323160E+0	1.384302E+0	1.341463E+0	1.303468E+0	1.361638E+0	1.447042E+0	1.272715E+0	1.384353E+0	1.356204E+0	1.391217E+0	1.267029E+0	1.308118E+0	1.266766E+0	1.444113E+0	1.318226E+0	1.336609E+0	1.127180E+0	1.323902E+0	1.210004E+0	1.362314E+0	1.390601E+0	1.272340E+0	1.264560E+0	1.302965E+0	1.210677E+0	1.301650E+0	1.168170E+0	1.224017E+0	1.381436E+0	1.335030E+0	1.386080E+0	1.318586E+0	1.332575E+0	1.228226E+0	1.372438E+0	1.319761E+0	1.352464E+0	1.123593E+0	1.211225E+0	1.291059E+0	1.386420E+0	1.202760E+0	1.186249E+0	1.327033E+0	1.440057E+0	1.330813E+0	1.323428E+0	1.238701E+0	1.438989E+0	1.295369E+0	1.294216E+0	1.369324E+0	1.420717E+0	1.193448E+0	1.280865E+0	1.346959E+0	1.367753E+0	1.227291E+0	1.282996E+0	1.381123E+0	1.322358E+0	1.330642E+0	1.344747E+0	1.297482E+0	1.340666E+0	1.297874E+0	1.351203E+0	1.424489E+0	1.344312E+0	1.308165E+0	1.255801E+0	1.312326E+0	1.365810E+0	1.257042E+0	1.227473E+0	1.229636E+0	1.365621E+0	1.353275E+0	1.318788E+0	1.242599E+0	1.362499E+0	1.299192E+0	1.359946E+0	1.333549E+0	1.401616E+0	1.319413E+0	1.297747E+0	1.256307E+0	1.302603E+0	1.292168E+0	1.256279E+0	1.243259E+0	1.356105E+0	1.273225E+0	1.378076E+0	1.328536E+0
5.457620E+2	1.237305E+0	1.221394E+0	1.291402E+0	1.079217E+0	1.187149E+0	1.221654E+0	1.316417E+0	1.278754E+0	1.168962E+0	1.237015E+0	1.306922E+0	1.219433E+0	1.271170E+0	1.290956E+0	1.281061E+0	1.225935E+0	1.260467E+0	1.317499E+0	1.321956E+0	1.200079E+0	1.232762E+0	1.295991E+0	1.310350E+0	1.201273E+0	1.170910E+0	1.248461E+0	1.260474E+0	1.087705E+0	1.309934E+0	1.298888E+0	1.255704E+0	1.165962E+0	1.249792E+0	1.217266E+0	1.270445E+0	1.135416E+0	1.208683E+0	1.220731E+0	1.241279E+0	1.198340E+0	1.192220E+0	1.287476E+0	1.309639E+0	1.265944E+0	1.289873E+0	1.287596E+0	1.322574E+0	1.132485E+0	1.171408E+0	1.340715E+0	1.310547E+0	1.155011E+0	1.149748E+0	1.292062E+0	1.288968E+0	1.298296E+0	1.181018E+0	1.276281E+0	1.318869E+0	1.194357E+0	1.276851E+0	1.320752E+0	1.307567E+0	1.133445E+0	1.289790E+0	1.327061E+0	1.277554E+0	1.143114E+0	1.173052E+0	1.262331E+0	1.275871E+0	1.281748E+0	1.192488E+0	1.279548E+0	1.318585E+0	1.255796E+0	1.278604E+0	1.270223E+0	1.326897E+0	1.217464E+0	1.308671E+0	1.298419E+0	1.278709E+0	1.169955E+0	1.248950E+0	1.239743E+0	1.357649E+0	1.268044E+0	1.269391E+0	1.113484E+0	1.257646E+0	1.208700E+0	1.226290E+0	1.250208E+0	1.331218E+0	1.152884E+0	1.236283E+0	1.164614E+0	1.328214E+0	1.123245E+0	1.229508E+0	1.308996E+0	1.293899E+0	1.265738E+0	1.150210E+0	1.280813E+0	1.333866E+0	1.218384E+0	1.230712E+0	1.299511E+0	1.293960E+0	1.188673E+0	1.210511E+0	1.311697E+0	1.293755E+0	1.152357E+0	1.182829E+0	1.235993E+0	1.271765E+0	1.263742E+0	1.215017E+0	1.351520E+0	1.240116E+0	1.285053E+0	1.311805E+0	1.276062E+0	1.234240E+0	1.216264E+0	1.244448E+0	1.305539E+0	1.212424E+0	1.204311E+0	1.234831E+0	1.263833E+0	1.227961E+0	1.289932E+0	1.259880E+0	1.325002E+0	1.169502E+0	1.268119E+0	1.280239E+0	1.286143E+0	1.226265E+0	1.192713E+0	1.190401E+0	1.330862E+0	1.192156E+0	1.178993E+0	1.117464E+0	1.306424E+0	1.257800E+0	1.258363E+0	1.132102E+0	1.293008E+0	1.256112E+0	1.202209E+0	1.246016E+0	1.283856E+0	1.199843E+0	1.250824E+0	1.190722E+0	1.331245E+0	1.192740E+0	1.205666E+0	1.169906E+0	1.310013E+0	1.226273E+0	1.279726E+0	1.134386E+0
5.460060E+2	1.103415E+0	1.134509E+0	1.241851E+0	1.011902E+0	1.085688E+0	1.123377E+0	1.153566E+0	1.181159E+0	1.027702E+0	1.104206E+0	1.195059E+0	1.132428E+0	1.174032E+0	1.211854E+0	1.179503E+0	1.106212E+0	1.160707E+0	1.197364E+0	1.147135E+0	1.098337E+0	1.114153E+0	1.180749E+0	1.211365E+0	1.061822E+0	1.064951E+0	1.114078E+0	1.175463E+0	1.003090E+0	1.135155E+0	1.226948E+0	1.243113E+0	1.050862E+0	1.154846E+0	1.200168E+0	1.219919E+0	1.037541E+0	1.138238E+0	1.222510E+0	1.179698E+0	1.093723E+0	1.093216E+0	1.174579E+0	1.259677E+0	1.143539E+0	1.203395E+0	1.164549E+0	1.251159E+0	1.070388E+0	1.105094E+0	1.180129E+0	1.259535E+0	1.087271E+0	1.112251E+0	1.213619E+0	1.157138E+0	1.212369E+0	1.065938E+0	1.199161E+0	1.234796E+0	1.154808E+0	1.163222E+0	1.195754E+0	1.190133E+0	1.132305E+0	1.224046E+0	1.217635E+0	1.178606E+0	1.039147E+0	1.098013E+0	1.176836E+0	1.165594E+0	1.171683E+0	1.099879E+0	1.211318E+0	1.254105E+0	1.219687E+0	1.137527E+0	1.166284E+0	1.205653E+0	1.117511E+0	1.151063E+0	1.239393E+0	1.185364E+0	1.147861E+0	1.102561E+0	1.201513E+0	1.193758E+0	1.193383E+0	1.157605E+0	1.032675E+0	1.176098E+0	1.106398E+0	1.229383E+0	1.181401E+0	1.235794E+0	1.063302E+0	1.113919E+0	1.098611E+0	1.144415E+0	1.066385E+0	1.130659E+0	1.190766E+0	1.194803E+0	1.180605E+0	1.086980E+0	1.148818E+0	1.226282E+0	1.143100E+0	1.138649E+0	1.204417E+0	1.150250E+0	1.152105E+0	1.148914E+0	1.222029E+0	1.147767E+0	1.044914E+0	1.130040E+0	1.195810E+0	1.178699E+0	1.177604E+0	1.092862E+0	1.281402E+0	1.176879E+0	1.185017E+0	1.187591E+0	1.216717E+0	1.242157E+0	1.109904E+0	1.081483E+0	1.168395E+0	1.157677E+0	1.094298E+0	1.099289E+0	1.155884E+0	1.184592E+0	1.175982E+0	1.180416E+0	1.167615E+0	1.177664E+0	1.161203E+0	1.178593E+0	1.214775E+0	1.188215E+0	1.101171E+0	1.144200E+0	1.238728E+0	1.159349E+0	1.076572E+0	1.085576E+0	1.187398E+0	1.168645E+0	1.162535E+0	1.042926E+0	1.182804E+0	1.155354E+0	1.122298E+0	1.154758E+0	1.225872E+0	1.174770E+0	1.161418E+0	1.122615E+0	1.152063E+0	1.126038E+0	1.081242E+0	1.109361E+0	1.250217E+0	1.171984E+0	1.209010E+0	1.106651E+0
5.467660E+2	1.184774E+0	1.164113E+0	1.282392E+0	1.063888E+0	1.116724E+0	1.181952E+0	1.230706E+0	1.244945E+0	1.161901E+0	1.138242E+0	1.229934E+0	1.195124E+0	1.198601E+0	1.273810E+0	1.247899E+0	1.111599E+0	1.205883E+0	1.241655E+0	1.172267E+0	1.110572E+0	1.113585E+0	1.213762E+0	1.245717E+0	1.168539E+0	1.109905E+0	1.181918E+0	1.275068E+0	9.916377E-1	1.248617E+0	1.309766E+0	1.293997E+0	1.109306E+0	1.157795E+0	1.159012E+0	1.194976E+0	1.087819E+0	1.182469E+0	1.183984E+0	1.262804E+0	1.194790E+0	1.159432E+0	1.237850E+0	1.244306E+0	1.193942E+0	1.231656E+0	1.247722E+0	1.266422E+0	1.112174E+0	1.142280E+0	1.255925E+0	1.277192E+0	1.115599E+0	1.051045E+0	1.229061E+0	1.228125E+0	1.241829E+0	1.099348E+0	1.216298E+0	1.252024E+0	1.208861E+0	1.209244E+0	1.232658E+0	1.261696E+0	1.159126E+0	1.229790E+0	1.187309E+0	1.200996E+0	1.130032E+0	1.142022E+0	1.240057E+0	1.222533E+0	1.223724E+0	1.142810E+0	1.219758E+0	1.270846E+0	1.242344E+0	1.232347E+0	1.329707E+0	1.264904E+0	1.099507E+0	1.209384E+0	1.239392E+0	1.232343E+0	1.083590E+0	1.219674E+0	1.198216E+0	1.269249E+0	1.250912E+0	1.236512E+0	1.013501E+0	1.193572E+0	1.163739E+0	1.290592E+0	1.213373E+0	1.243239E+0	1.135564E+0	1.174414E+0	1.075235E+0	1.275803E+0	1.079021E+0	1.106254E+0	1.248856E+0	1.197921E+0	1.244616E+0	1.118950E+0	1.253636E+0	1.254152E+0	1.235811E+0	1.197616E+0	1.220362E+0	1.247605E+0	1.146010E+0	1.171251E+0	1.270111E+0	1.240728E+0	1.078084E+0	1.166735E+0	1.221554E+0	1.282036E+0	1.216943E+0	1.050482E+0	1.264775E+0	1.288045E+0	1.168217E+0	1.187591E+0	1.243916E+0	1.221455E+0	1.136657E+0	1.191880E+0	1.237969E+0	1.179980E+0	1.172983E+0	1.135115E+0	1.211808E+0	1.252832E+0	1.262211E+0	1.227952E+0	1.218338E+0	1.264482E+0	1.219769E+0	1.226070E+0	1.212979E+0	1.228844E+0	1.162404E+0	1.132648E+0	1.269227E+0	1.273810E+0	1.071793E+0	1.081018E+0	1.271156E+0	1.237564E+0	1.170471E+0	1.088805E+0	1.271949E+0	1.238045E+0	1.197345E+0	1.262776E+0	1.304778E+0	1.299486E+0	1.170295E+0	1.166128E+0	1.210015E+0	1.241823E+0	1.158568E+0	1.165249E+0	1.256446E+0	1.214535E+0	1.184626E+0	1.110117E+0
5.475180E+2	1.254602E+0	1.238126E+0	1.321432E+0	1.160529E+0	1.182375E+0	1.213192E+0	1.375702E+0	1.351473E+0	1.191434E+0	1.335117E+0	1.318767E+0	1.270613E+0	1.314024E+0	1.337422E+0	1.271218E+0	1.249277E+0	1.278035E+0	1.281092E+0	1.296266E+0	1.187199E+0	1.203820E+0	1.315799E+0	1.345287E+0	1.305372E+0	1.205590E+0	1.322115E+0	1.378481E+0	1.073073E+0	1.318530E+0	1.350873E+0	1.328095E+0	1.205322E+0	1.225025E+0	1.274882E+0	1.371497E+0	1.131392E+0	1.256738E+0	1.313782E+0	1.338732E+0	1.286997E+0	1.273220E+0	1.267625E+0	1.356394E+0	1.252198E+0	1.306830E+0	1.318358E+0	1.346011E+0	1.194002E+0	1.214793E+0	1.315661E+0	1.379868E+0	1.176566E+0	1.190552E+0	1.326650E+0	1.315810E+0	1.353538E+0	1.164314E+0	1.315171E+0	1.289238E+0	1.311687E+0	1.313215E+0	1.394565E+0	1.295337E+0	1.217902E+0	1.240003E+0	1.315855E+0	1.280445E+0	1.188556E+0	1.227221E+0	1.237648E+0	1.347796E+0	1.311662E+0	1.266084E+0	1.293616E+0	1.334083E+0	1.307480E+0	1.302309E+0	1.364769E+0	1.317021E+0	1.235469E+0	1.332974E+0	1.309604E+0	1.285509E+0	1.179325E+0	1.284940E+0	1.264791E+0	1.342807E+0	1.284571E+0	1.255507E+0	1.105266E+0	1.374141E+0	1.198276E+0	1.314706E+0	1.262023E+0	1.339338E+0	1.198271E+0	1.232157E+0	1.175614E+0	1.267907E+0	1.135880E+0	1.247810E+0	1.357517E+0	1.361829E+0	1.291982E+0	1.207046E+0	1.341636E+0	1.353962E+0	1.273454E+0	1.244548E+0	1.300079E+0	1.298018E+0	1.234382E+0	1.267369E+0	1.329888E+0	1.304231E+0	1.233120E+0	1.278104E+0	1.386061E+0	1.330172E+0	1.299692E+0	1.175754E+0	1.339953E+0	1.353948E+0	1.246107E+0	1.339951E+0	1.313155E+0	1.347492E+0	1.262592E+0	1.292418E+0	1.281453E+0	1.293530E+0	1.235640E+0	1.286181E+0	1.280089E+0	1.308320E+0	1.343516E+0	1.244270E+0	1.268313E+0	1.375046E+0	1.294680E+0	1.269889E+0	1.301731E+0	1.346858E+0	1.286727E+0	1.248156E+0	1.310530E+0	1.327033E+0	1.228154E+0	1.193762E+0	1.346729E+0	1.331145E+0	1.279116E+0	1.180564E+0	1.290199E+0	1.324208E+0	1.241817E+0	1.267743E+0	1.364556E+0	1.372774E+0	1.290139E+0	1.244958E+0	1.334576E+0	1.338735E+0	1.156459E+0	1.199597E+0	1.367941E+0	1.284964E+0	1.295169E+0	1.209503E+0
5.482550E+2	1.364791E+0	1.289613E+0	1.430291E+0	1.210515E+0	1.268915E+0	1.375245E+0	1.451413E+0	1.380816E+0	1.319213E+0	1.408532E+0	1.514860E+0	1.252060E+0	1.434016E+0	1.422053E+0	1.431845E+0	1.281007E+0	1.387834E+0	1.459475E+0	1.434782E+0	1.299244E+0	1.288379E+0	1.417238E+0	1.475134E+0	1.302753E+0	1.323107E+0	1.417733E+0	1.462860E+0	1.150689E+0	1.410214E+0	1.433692E+0	1.451905E+0	1.258402E+0	1.406070E+0	1.341998E+0	1.425858E+0	1.220554E+0	1.310800E+0	1.349346E+0	1.414060E+0	1.308863E+0	1.345863E+0	1.381767E+0	1.455672E+0	1.375914E+0	1.461697E+0	1.400958E+0	1.420698E+0	1.308914E+0	1.350521E+0	1.401735E+0	1.504778E+0	1.281872E+0	1.291460E+0	1.406943E+0	1.390374E+0	1.386067E+0	1.276920E+0	1.387679E+0	1.398809E+0	1.364423E+0	1.417186E+0	1.446352E+0	1.487392E+0	1.320615E+0	1.338941E+0	1.424624E+0	1.391674E+0	1.287014E+0	1.346833E+0	1.372512E+0	1.437099E+0	1.350542E+0	1.309628E+0	1.354106E+0	1.422743E+0	1.394565E+0	1.375739E+0	1.484361E+0	1.498064E+0	1.291340E+0	1.428094E+0	1.440085E+0	1.430162E+0	1.258326E+0	1.345327E+0	1.386076E+0	1.402170E+0	1.427159E+0	1.435241E+0	1.212782E+0	1.394529E+0	1.247796E+0	1.411776E+0	1.405893E+0	1.395507E+0	1.268742E+0	1.382020E+0	1.238866E+0	1.400730E+0	1.258022E+0	1.307609E+0	1.375287E+0	1.416052E+0	1.416803E+0	1.269566E+0	1.381103E+0	1.407103E+0	1.348738E+0	1.326379E+0	1.400864E+0	1.402324E+0	1.267296E+0	1.396653E+0	1.415656E+0	1.357260E+0	1.243216E+0	1.353427E+0	1.435663E+0	1.398204E+0	1.350559E+0	1.284821E+0	1.481638E+0	1.427837E+0	1.365233E+0	1.466001E+0	1.457193E+0	1.398025E+0	1.322626E+0	1.351561E+0	1.354373E+0	1.407755E+0	1.288097E+0	1.395452E+0	1.419903E+0	1.395057E+0	1.455001E+0	1.364175E+0	1.445837E+0	1.412149E+0	1.366184E+0	1.406836E+0	1.342514E+0	1.331382E+0	1.318892E+0	1.373928E+0	1.407111E+0	1.383168E+0	1.324433E+0	1.247288E+0	1.433005E+0	1.366556E+0	1.382879E+0	1.230320E+0	1.413039E+0	1.429829E+0	1.365503E+0	1.381970E+0	1.354395E+0	1.445418E+0	1.406174E+0	1.261353E+0	1.434492E+0	1.433127E+0	1.346962E+0	1.310207E+0	1.443311E+0	1.464704E+0	1.386204E+0	1.292710E+0
5.490380E+2	1.310335E+0	1.338523E+0	1.438549E+0	1.175192E+0	1.313083E+0	1.297147E+0	1.354986E+0	1.398676E+0	1.233170E+0	1.339123E+0	1.412868E+0	1.289165E+0	1.365449E+0	1.397161E+0	1.372772E+0	1.377382E+0	1.357717E+0	1.432778E+0	1.381163E+0	1.285724E+0	1.308812E+0	1.346409E+0	1.417487E+0	1.315846E+0	1.223570E+0	1.391244E+0	1.412103E+0	1.144326E+0	1.364943E+0	1.360546E+0	1.385277E+0	1.232160E+0	1.357712E+0	1.355927E+0	1.326086E+0	1.195080E+0	1.326636E+0	1.372460E+0	1.375801E+0	1.240892E+0	1.270005E+0	1.268248E+0	1.458234E+0	1.348421E+0	1.331701E+0	1.371904E+0	1.380357E+0	1.239850E+0	1.248261E+0	1.395954E+0	1.426300E+0	1.237532E+0	1.236320E+0	1.404473E+0	1.393954E+0	1.360903E+0	1.203912E+0	1.363292E+0	1.394674E+0	1.355851E+0	1.392185E+0	1.444568E+0	1.410935E+0	1.213337E+0	1.320431E+0	1.389687E+0	1.394563E+0	1.173409E+0	1.303954E+0	1.344817E+0	1.387353E+0	1.311663E+0	1.278963E+0	1.386464E+0	1.408480E+0	1.345004E+0	1.288434E+0	1.405466E+0	1.420160E+0	1.243540E+0	1.357274E+0	1.368008E+0	1.350415E+0	1.263011E+0	1.271521E+0	1.343230E+0	1.440239E+0	1.376368E+0	1.338799E+0	1.273731E+0	1.401084E+0	1.253008E+0	1.403122E+0	1.380178E+0	1.419191E+0	1.271729E+0	1.307777E+0	1.229240E+0	1.415807E+0	1.165363E+0	1.324081E+0	1.432009E+0	1.371803E+0	1.348954E+0	1.291591E+0	1.361693E+0	1.431732E+0	1.296457E+0	1.299302E+0	1.326844E+0	1.402901E+0	1.259373E+0	1.260599E+0	1.388366E+0	1.386064E+0	1.265570E+0	1.278749E+0	1.376016E+0	1.382799E+0	1.369551E+0	1.255529E+0	1.388386E+0	1.387228E+0	1.378979E+0	1.323430E+0	1.372499E+0	1.374889E+0	1.248890E+0	1.329876E+0	1.387822E+0	1.354361E+0	1.259682E+0	1.362611E+0	1.353572E+0	1.390596E+0	1.382935E+0	1.298901E+0	1.389895E+0	1.322361E+0	1.293997E+0	1.341712E+0	1.408478E+0	1.338474E+0	1.349199E+0	1.320668E+0	1.363268E+0	1.385356E+0	1.342185E+0	1.232484E+0	1.373175E+0	1.372248E+0	1.396307E+0	1.228385E+0	1.329510E+0	1.377714E+0	1.320337E+0	1.319894E+0	1.381293E+0	1.392702E+0	1.328182E+0	1.294778E+0	1.396521E+0	1.355726E+0	1.271744E+0	1.260723E+0	1.388494E+0	1.386940E+0	1.368323E+0	1.218748E+0
5.497790E+2	1.266135E+0	1.264512E+0	1.362723E+0	1.139201E+0	1.185956E+0	1.269814E+0	1.378559E+0	1.293423E+0	1.220331E+0	1.220330E+0	1.340485E+0	1.335867E+0	1.320308E+0	1.356783E+0	1.316814E+0	1.405518E+0	1.296230E+0	1.349653E+0	1.377249E+0	1.374585E+0	1.261139E+0	1.346410E+0	1.365667E+0	1.346621E+0	1.184395E+0	1.308547E+0	1.330263E+0	1.160232E+0	1.316809E+0	1.291029E+0	1.337015E+0	1.357995E+0	1.296380E+0	1.311608E+0	1.281957E+0	1.380774E+0	1.264930E+0	1.291853E+0	1.320198E+0	1.285815E+0	1.280291E+0	1.262042E+0	1.355114E+0	1.332057E+0	1.344133E+0	1.286456E+0	1.362370E+0	1.271187E+0	1.229667E+0	1.340716E+0	1.368099E+0	1.319439E+0	1.225292E+0	1.297619E+0	1.333110E+0	1.289703E+0	1.204530E+0	1.294080E+0	1.367107E+0	1.246433E+0	1.309807E+0	1.312421E+0	1.397478E+0	1.220184E+0	1.345963E+0	1.303992E+0	1.308612E+0	1.149311E+0	1.295491E+0	1.276181E+0	1.329217E+0	1.307473E+0	1.210274E+0	1.302760E+0	1.284484E+0	1.309604E+0	1.300577E+0	1.307163E+0	1.347741E+0	1.232984E+0	1.318392E+0	1.338187E+0	1.271289E+0	1.232216E+0	1.308118E+0	1.263473E+0	1.349263E+0	1.258865E+0	1.289118E+0	1.294958E+0	1.301332E+0	1.149404E+0	1.340057E+0	1.300249E+0	1.366406E+0	1.186924E+0	1.265843E+0	1.218927E+0	1.287292E+0	1.180104E+0	1.273438E+0	1.300796E+0	1.317579E+0	1.274699E+0	1.226228E+0	1.351987E+0	1.382476E+0	1.322250E+0	1.243344E+0	1.300649E+0	1.331048E+0	1.224022E+0	1.302565E+0	1.361727E+0	1.275426E+0	1.227350E+0	1.258792E+0	1.423734E+0	1.371245E+0	1.332244E+0	1.210030E+0	1.342122E+0	1.317335E+0	1.298798E+0	1.317310E+0	1.311299E+0	1.294521E+0	1.220832E+0	1.277306E+0	1.317580E+0	1.332732E+0	1.266968E+0	1.264686E+0	1.306101E+0	1.325543E+0	1.350292E+0	1.298903E+0	1.342157E+0	1.352042E+0	1.249734E+0	1.256502E+0	1.378495E+0	1.335253E+0	1.250852E+0	1.232755E+0	1.317518E+0	1.294952E+0	1.181725E+0	1.209708E+0	1.355545E+0	1.319133E+0	1.275451E+0	1.224505E+0	1.377943E+0	1.347834E+0	1.328675E+0	1.302506E+0	1.332873E+0	1.365058E+0	1.294576E+0	1.220364E+0	1.329914E+0	1.305381E+0	1.199339E+0	1.209493E+0	1.294440E+0	1.320910E+0	1.321179E+0	1.184078E+0
5.505060E+2	1.207197E+0	1.262584E+0	1.371732E+0	1.091880E+0	1.189540E+0	1.217747E+0	1.267848E+0	1.248135E+0	1.136857E+0	1.261040E+0	1.299026E+0	1.286604E+0	1.239170E+0	1.283212E+0	1.296604E+0	1.288190E+0	1.227842E+0	1.333880E+0	1.251580E+0	1.332727E+0	1.226523E+0	1.310396E+0	1.316754E+0	1.271326E+0	1.127886E+0	1.283998E+0	1.309961E+0	1.117607E+0	1.305347E+0	1.223925E+0	1.288753E+0	1.324598E+0	1.278689E+0	1.272982E+0	1.242303E+0	1.218543E+0	1.217966E+0	1.285336E+0	1.262205E+0	1.301772E+0	1.208288E+0	1.228545E+0	1.285301E+0	1.307836E+0	1.300614E+0	1.317788E+0	1.372181E+0	1.268288E+0	1.217892E+0	1.271982E+0	1.296158E+0	1.366857E+0	1.186141E+0	1.276002E+0	1.333707E+0	1.308117E+0	1.163075E+0	1.240688E+0	1.350569E+0	1.287958E+0	1.255831E+0	1.316589E+0	1.306344E+0	1.293796E+0	1.234260E+0	1.290146E+0	1.299226E+0	1.294589E+0	1.171926E+0	1.245475E+0	1.286064E+0	1.300295E+0	1.189422E+0	1.285174E+0	1.291925E+0	1.316686E+0	1.244492E+0	1.295268E+0	1.219916E+0	1.300034E+0	1.255210E+0	1.305877E+0	1.341762E+0	1.194056E+0	1.253221E+0	1.210740E+0	1.313128E+0	1.234998E+0	1.252587E+0	1.227849E+0	1.307157E+0	1.164390E+0	1.294302E+0	1.314847E+0	1.313622E+0	1.149301E+0	1.230783E+0	1.148113E+0	1.281549E+0	1.109206E+0	1.193508E+0	1.293276E+0	1.282679E+0	1.260618E+0	1.187153E+0	1.299578E+0	1.256742E+0	1.290879E+0	1.196410E+0	1.304635E+0	1.297437E+0	1.187455E+0	1.264660E+0	1.348083E+0	1.307505E+0	1.117745E+0	1.159010E+0	1.298155E+0	1.299362E+0	1.237291E+0	1.220627E+0	1.305258E+0	1.283387E+0	1.236180E+0	1.289778E+0	1.329845E+0	1.323745E+0	1.199951E+0	1.246423E+0	1.296171E+0	1.330703E+0	1.219611E+0	1.256925E+0	1.272286E+0	1.304496E+0	1.289313E+0	1.218019E+0	1.283232E+0	1.318650E+0	1.274929E+0	1.262588E+0	1.294536E+0	1.266892E+0	1.186528E+0	1.228263E+0	1.256518E+0	1.274540E+0	1.193332E+0	1.158461E+0	1.310833E+0	1.264755E+0	1.271791E+0	1.152132E+0	1.274055E+0	1.355480E+0	1.210546E+0	1.289469E+0	1.316137E+0	1.282772E+0	1.252727E+0	1.199552E+0	1.260638E+0	1.280842E+0	1.169111E+0	1.177476E+0	1.308768E+0	1.218936E+0	1.288667E+0	1.169055E+0
5.512570E+2	1.212961E+0	1.210452E+0	1.292903E+0	1.112542E+0	1.149550E+0	1.211239E+0	1.282133E+0	1.271737E+0	1.181163E+0	1.208985E+0	1.288499E+0	1.275732E+0	1.242598E+0	1.316954E+0	1.261371E+0	1.318721E+0	1.250430E+0	1.250756E+0	1.252695E+0	1.233564E+0	1.208928E+0	1.278588E+0	1.278326E+0	1.267398E+0	1.147793E+0	1.279474E+0	1.271896E+0	1.099793E+0	1.278413E+0	1.319439E+0	1.310261E+0	1.288218E+0	1.230330E+0	1.229929E+0	1.251258E+0	1.266810E+0	1.219059E+0	1.247401E+0	1.336340E+0	1.295271E+0	1.170359E+0	1.240333E+0	1.301311E+0	1.320275E+0	1.288742E+0	1.320637E+0	1.273509E+0	1.317039E+0	1.220370E+0	1.218671E+0	1.346518E+0	1.305890E+0	1.156916E+0	1.279707E+0	1.254966E+0	1.298911E+0	1.103061E+0	1.235413E+0	1.283724E+0	1.320257E+0	1.259805E+0	1.242777E+0	1.302677E+0	1.299503E+0	1.197237E+0	1.305309E+0	1.266000E+0	1.241573E+0	1.146534E+0	1.237646E+0	1.236317E+0	1.320631E+0	1.239713E+0	1.264776E+0	1.319824E+0	1.355626E+0	1.269353E+0	1.243924E+0	1.275875E+0	1.323002E+0	1.230215E+0	1.305257E+0	1.270673E+0	1.296487E+0	1.192835E+0	1.245017E+0	1.280865E+0	1.231328E+0	1.261354E+0	1.201139E+0	1.266383E+0	1.215868E+0	1.275753E+0	1.255073E+0	1.238502E+0	1.305169E+0	1.332526E+0	1.143988E+0	1.318165E+0	1.271360E+0	1.249034E+0	1.234504E+0	1.268347E+0	1.267657E+0	1.210598E+0	1.300225E+0	1.272297E+0	1.254634E+0	1.240337E+0	1.287553E+0	1.211674E+0	1.177702E+0	1.182758E+0	1.272063E+0	1.244003E+0	1.175433E+0	1.178323E+0	1.330179E+0	1.278825E+0	1.248143E+0	1.234960E+0	1.240922E+0	1.290043E+0	1.252216E+0	1.284271E+0	1.254428E+0	1.312176E+0	1.181030E+0	1.225393E+0	1.309551E+0	1.263113E+0	1.145297E+0	1.221694E+0	1.296347E+0	1.321714E+0	1.246199E+0	1.198863E+0	1.330223E+0	1.306035E+0	1.215683E+0	1.264415E+0	1.301732E+0	1.254639E+0	1.234772E+0	1.175000E+0	1.229196E+0	1.258501E+0	1.206306E+0	1.180665E+0	1.322798E+0	1.309016E+0	1.247985E+0	1.144378E+0	1.297219E+0	1.270705E+0	1.250849E+0	1.195730E+0	1.317329E+0	1.303345E+0	1.190588E+0	1.146579E+0	1.264634E+0	1.294685E+0	1.149429E+0	1.144874E+0	1.301294E+0	1.277625E+0	1.259405E+0	1.117051E+0
5.520100E+2	1.233462E+0	1.218175E+0	1.358219E+0	1.098545E+0	1.171036E+0	1.194968E+0	1.384985E+0	1.288960E+0	1.162541E+0	1.238350E+0	1.310872E+0	1.313477E+0	1.276882E+0	1.317508E+0	1.306451E+0	1.324705E+0	1.276154E+0	1.346015E+0	1.312460E+0	1.355908E+0	1.152744E+0	1.324201E+0	1.309184E+0	1.315849E+0	1.175406E+0	1.322761E+0	1.325822E+0	1.088976E+0	1.270966E+0	1.338179E+0	1.315507E+0	1.267348E+0	1.293431E+0	1.263485E+0	1.297308E+0	1.252731E+0	1.256736E+0	1.305485E+0	1.314817E+0	1.285812E+0	1.240433E+0	1.299883E+0	1.288503E+0	1.300636E+0	1.313612E+0	1.248859E+0	1.352557E+0	1.300788E+0	1.144140E+0	1.288682E+0	1.311856E+0	1.385331E+0	1.134309E+0	1.311208E+0	1.281214E+0	1.344942E+0	1.174830E+0	1.253211E+0	1.397431E+0	1.411220E+0	1.299009E+0	1.315399E+0	1.284328E+0	1.262981E+0	1.237450E+0	1.289487E+0	1.245777E+0	1.379276E+0	1.187159E+0	1.298455E+0	1.282466E+0	1.308072E+0	1.155691E+0	1.292913E+0	1.326644E+0	1.328721E+0	1.234085E+0	1.290883E+0	1.325798E+0	1.264026E+0	1.341306E+0	1.327002E+0	1.271910E+0	1.333308E+0	1.209913E+0	1.208762E+0	1.361521E+0	1.332917E+0	1.298615E+0	1.268252E+0	1.277304E+0	1.253010E+0	1.280081E+0	1.288436E+0	1.332571E+0	1.298005E+0	1.259658E+0	1.137800E+0	1.265752E+0	1.316283E+0	1.239269E+0	1.222203E+0	1.271460E+0	1.350874E+0	1.168682E+0	1.351340E+0	1.289148E+0	1.304822E+0	1.240337E+0	1.346768E+0	1.270202E+0	1.344695E+0	1.250445E+0	1.324041E+0	1.271500E+0	1.334075E+0	1.244632E+0	1.348386E+0	1.318616E+0	1.332246E+0	1.198814E+0	1.313207E+0	1.308015E+0	1.306434E+0	1.261629E+0	1.302027E+0	1.299999E+0	1.321973E+0	1.296363E+0	1.303531E+0	1.297585E+0	1.265511E+0	1.253939E+0	1.263181E+0	1.286639E+0	1.355219E+0	1.239305E+0	1.303371E+0	1.278580E+0	1.305576E+0	1.299108E+0	1.348508E+0	1.326868E+0	1.249614E+0	1.140350E+0	1.354369E+0	1.311720E+0	1.261613E+0	1.166432E+0	1.310201E+0	1.319134E+0	1.266909E+0	1.154717E+0	1.345650E+0	1.313785E+0	1.251543E+0	1.265261E+0	1.301194E+0	1.326486E+0	1.293943E+0	1.219103E+0	1.275293E+0	1.306644E+0	1.192310E+0	1.162921E+0	1.326829E+0	1.291564E+0	1.306548E+0	1.096250E+0
5.527590E+2	1.247556E+0	1.201442E+0	1.359720E+0	1.092546E+0	1.140000E+0	1.212541E+0	1.227849E+0	1.290872E+0	1.179236E+0	1.190965E+0	1.283893E+0	1.314754E+0	1.294597E+0	1.248916E+0	1.242718E+0	1.287591E+0	1.261094E+0	1.236193E+0	1.227003E+0	1.322426E+0	1.206659E+0	1.301395E+0	1.268429E+0	1.235318E+0	1.183112E+0	1.254922E+0	1.275704E+0	1.083886E+0	1.237730E+0	1.285587E+0	1.255178E+0	1.279872E+0	1.199074E+0	1.248924E+0	1.256374E+0	1.277537E+0	1.226703E+0	1.260443E+0	1.289109E+0	1.227298E+0	1.171645E+0	1.257700E+0	1.289142E+0	1.209653E+0	1.231656E+0	1.255128E+0	1.317666E+0	1.321098E+0	1.198059E+0	1.279690E+0	1.322319E+0	1.265244E+0	1.132101E+0	1.289591E+0	1.292546E+0	1.340650E+0	1.153176E+0	1.241345E+0	1.353326E+0	1.279388E+0	1.266057E+0	1.328492E+0	1.282490E+0	1.296078E+0	1.270003E+0	1.325745E+0	1.251553E+0	1.310424E+0	1.200136E+0	1.237048E+0	1.261489E+0	1.244065E+0	1.205367E+0	1.241563E+0	1.319207E+0	1.291903E+0	1.232926E+0	1.242047E+0	1.296173E+0	1.277063E+0	1.269791E+0	1.280399E+0	1.270672E+0	1.257657E+0	1.225771E+0	1.215355E+0	1.315707E+0	1.268047E+0	1.308114E+0	1.207988E+0	1.264926E+0	1.277118E+0	1.280082E+0	1.259243E+0	1.253390E+0	1.346380E+0	1.188850E+0	1.204489E+0	1.266470E+0	1.292418E+0	1.156288E+0	1.313779E+0	1.224095E+0	1.275980E+0	1.188574E+0	1.344870E+0	1.261928E+0	1.285303E+0	1.195813E+0	1.246556E+0	1.234854E+0	1.233164E+0	1.247738E+0	1.285056E+0	1.229599E+0	1.215093E+0	1.175105E+0	1.232229E+0	1.243525E+0	1.280023E+0	1.142722E+0	1.321882E+0	1.308017E+0	1.260615E+0	1.232869E+0	1.297701E+0	1.234240E+0	1.296526E+0	1.222107E+0	1.236632E+0	1.298261E+0	1.332541E+0	1.255131E+0	1.306754E+0	1.220307E+0	1.305942E+0	1.229372E+0	1.283232E+0	1.267451E+0	1.274929E+0	1.296063E+0	1.293336E+0	1.267537E+0	1.317654E+0	1.199384E+0	1.210771E+0	1.265062E+0	1.302582E+0	1.172126E+0	1.276823E+0	1.231876E+0	1.212582E+0	1.126284E+0	1.270544E+0	1.283908E+0	1.264748E+0	1.280780E+0	1.342436E+0	1.303988E+0	1.304086E+0	1.186938E+0	1.237991E+0	1.241194E+0	1.288616E+0	1.165250E+0	1.299425E+0	1.282030E+0	1.258592E+0	1.156343E+0
5.534940E+2	1.169399E+0	1.128073E+0	1.227587E+0	1.023898E+0	1.096431E+0	1.175443E+0	1.199278E+0	1.172866E+0	1.045680E+0	1.158264E+0	1.226645E+0	1.216234E+0	1.177460E+0	1.163731E+0	1.211112E+0	1.263646E+0	1.134985E+0	1.171881E+0	1.192934E+0	1.215533E+0	1.115287E+0	1.160342E+0	1.172934E+0	1.207820E+0	1.139445E+0	1.152196E+0	1.198303E+0	1.034264E+0	1.147761E+0	1.205188E+0	1.177014E+0	1.169540E+0	1.138922E+0	1.165979E+0	1.251897E+0	1.174298E+0	1.121854E+0	1.145462E+0	1.199431E+0	1.166422E+0	1.120859E+0	1.165273E+0	1.211640E+0	1.254819E+0	1.171746E+0	1.186196E+0	1.202639E+0	1.177174E+0	1.072247E+0	1.221880E+0	1.215066E+0	1.213515E+0	1.053802E+0	1.208678E+0	1.178016E+0	1.207458E+0	1.094399E+0	1.121379E+0	1.225149E+0	1.211497E+0	1.172313E+0	1.198728E+0	1.222550E+0	1.224178E+0	1.170429E+0	1.205109E+0	1.171383E+0	1.187179E+0	1.156126E+0	1.154560E+0	1.191365E+0	1.205183E+0	1.099880E+0	1.173336E+0	1.220627E+0	1.249422E+0	1.193032E+0	1.167535E+0	1.202359E+0	1.182699E+0	1.171893E+0	1.184093E+0	1.189691E+0	1.238909E+0	1.142209E+0	1.148122E+0	1.204726E+0	1.184206E+0	1.183908E+0	1.137453E+0	1.214687E+0	1.185893E+0	1.228146E+0	1.174450E+0	1.207374E+0	1.208424E+0	1.120106E+0	1.091736E+0	1.172416E+0	1.183613E+0	1.124561E+0	1.186666E+0	1.205399E+0	1.201727E+0	1.046484E+0	1.137173E+0	1.216562E+0	1.180045E+0	1.174753E+0	1.211821E+0	1.165317E+0	1.209395E+0	1.117101E+0	1.159655E+0	1.198830E+0	1.171827E+0	1.167378E+0	1.198948E+0	1.227480E+0	1.183709E+0	1.112808E+0	1.248151E+0	1.216153E+0	1.192653E+0	1.162503E+0	1.201883E+0	1.179443E+0	1.205172E+0	1.185309E+0	1.194485E+0	1.201607E+0	1.191197E+0	1.149447E+0	1.219612E+0	1.190331E+0	1.227105E+0	1.120817E+0	1.236239E+0	1.173954E+0	1.209552E+0	1.193810E+0	1.195587E+0	1.190152E+0	1.183434E+0	1.154468E+0	1.187894E+0	1.211112E+0	1.194015E+0	1.051980E+0	1.211959E+0	1.176865E+0	1.193662E+0	1.063604E+0	1.212987E+0	1.269315E+0	1.185532E+0	1.190764E+0	1.209135E+0	1.221055E+0	1.183612E+0	1.118830E+0	1.173378E+0	1.165681E+0	1.209180E+0	1.070358E+0	1.197274E+0	1.162447E+0	1.164305E+0	1.022288E+0
5.542580E+2	1.102134E+0	1.089458E+0	1.174283E+0	9.412540E-1	1.044507E+0	1.060898E+0	1.124996E+0	1.156919E+0	1.026418E+0	1.074174E+0	1.121360E+0	1.150980E+0	1.162032E+0	1.193603E+0	1.147377E+0	1.180440E+0	1.128082E+0	1.152464E+0	1.131495E+0	1.140837E+0	1.056266E+0	1.171749E+0	1.147898E+0	1.105687E+0	1.047613E+0	1.106972E+0	1.223044E+0	9.929106E-1	1.153494E+0	1.146551E+0	1.167045E+0	1.143299E+0	1.096462E+0	1.139386E+0	1.117589E+0	1.099216E+0	1.095096E+0	1.140719E+0	1.159372E+0	1.151645E+0	1.094501E+0	1.071603E+0	1.145668E+0	1.142884E+0	1.158179E+0	1.113851E+0	1.147580E+0	1.168469E+0	1.031343E+0	1.166639E+0	1.177134E+0	1.100204E+0	1.066485E+0	1.133942E+0	1.156543E+0	1.234464E+0	1.085735E+0	1.180045E+0	1.203786E+0	1.181835E+0	1.088227E+0	1.132060E+0	1.136308E+0	1.126030E+0	1.060639E+0	1.127322E+0	1.169217E+0	1.131409E+0	1.047232E+0	1.119040E+0	1.072095E+0	1.146558E+0	1.034872E+0	1.121988E+0	1.174747E+0	1.165170E+0	1.103412E+0	1.153134E+0	1.142013E+0	1.183939E+0	1.182307E+0	1.162967E+0	1.158163E+0	1.165938E+0	1.098901E+0	1.123073E+0	1.180207E+0	1.161563E+0	1.070662E+0	1.106636E+0	1.130227E+0	1.133113E+0	1.158900E+0	1.129969E+0	1.134284E+0	1.133773E+0	1.070610E+0	1.011296E+0	1.143697E+0	1.189931E+0	1.072694E+0	1.146346E+0	1.107551E+0	1.121072E+0	1.072060E+0	1.144289E+0	1.222392E+0	1.158435E+0	1.141657E+0	1.208404E+0	1.149670E+0	1.114928E+0	1.090026E+0	1.142761E+0	1.135983E+0	1.173270E+0	1.106221E+0	1.157512E+0	1.122862E+0	1.155223E+0	1.037394E+0	1.173695E+0	1.149585E+0	1.124690E+0	1.139861E+0	1.172208E+0	1.195881E+0	1.099463E+0	1.053227E+0	1.148326E+0	1.119149E+0	1.129997E+0	1.147056E+0	1.168890E+0	1.199896E+0	1.156886E+0	1.073282E+0	1.195214E+0	1.191021E+0	1.157798E+0	1.149378E+0	1.170999E+0	1.130176E+0	1.176014E+0	1.053078E+0	1.106565E+0	1.144769E+0	1.096374E+0	1.028633E+0	1.126941E+0	1.178129E+0	1.066096E+0	9.905839E-1	1.157534E+0	1.178285E+0	1.101452E+0	1.101368E+0	1.174465E+0	1.207556E+0	1.173466E+0	1.103695E+0	1.175377E+0	1.149949E+0	1.158568E+0	1.027279E+0	1.104465E+0	1.116228E+0	1.114724E+0	1.058113E+0
5.550140E+2	9.951495E-1	9.568799E-1	1.062420E+0	9.379214E-1	9.400611E-1	9.574172E-1	1.031428E+0	9.942592E-1	9.166198E-1	9.874147E-1	1.068059E+0	9.699317E-1	1.023182E+0	1.018807E+0	9.934866E-1	1.053533E+0	1.006991E+0	1.018375E+0	1.027609E+0	1.024930E+0	9.433288E-1	1.038499E+0	1.038430E+0	1.020576E+0	9.236724E-1	1.032673E+0	1.073322E+0	8.841198E-1	9.804345E-1	1.032298E+0	1.010193E+0	1.052650E+0	9.384157E-1	9.804626E-1	1.035724E+0	1.032178E+0	9.389159E-1	1.019220E+0	1.021266E+0	9.879247E-1	9.620703E-1	1.007088E+0	1.061123E+0	1.052553E+0	1.051353E+0	9.970696E-1	1.034734E+0	1.014675E+0	9.235033E-1	9.919246E-1	1.054187E+0	1.071260E+0	9.170515E-1	1.033265E+0	1.005624E+0	1.052171E+0	9.261079E-1	1.021846E+0	1.083188E+0	1.059889E+0	1.013799E+0	1.027296E+0	1.004194E+0	9.936417E-1	1.007660E+0	9.842730E-1	1.030541E+0	1.062557E+0	9.389028E-1	1.011869E+0	1.012757E+0	1.064606E+0	9.496215E-1	9.848269E-1	1.038971E+0	1.073836E+0	9.900885E-1	1.038552E+0	1.021868E+0	1.052326E+0	1.028170E+0	1.014468E+0	1.021548E+0	1.022667E+0	9.897175E-1	9.628989E-1	1.031802E+0	1.045287E+0	1.002714E+0	1.025827E+0	1.066153E+0	1.008657E+0	1.074194E+0	1.038921E+0	9.975828E-1	1.019110E+0	9.420587E-1	8.834156E-1	1.024513E+0	1.029884E+0	9.640878E-1	1.028801E+0	1.040867E+0	1.079466E+0	9.519940E-1	1.017470E+0	1.041571E+0	1.047600E+0	9.785963E-1	9.834873E-1	1.029719E+0	1.049715E+0	9.593868E-1	1.032952E+0	1.056114E+0	9.699198E-1	9.839058E-1	1.037584E+0	1.034933E+0	9.822683E-1	9.688380E-1	1.078276E+0	1.064380E+0	1.004036E+0	9.789333E-1	1.029408E+0	1.018701E+0	1.042694E+0	9.934292E-1	1.004492E+0	1.023173E+0	1.035284E+0	9.846459E-1	1.036881E+0	1.011753E+0	1.009063E+0	1.000203E+0	1.002770E+0	1.050034E+0	1.019555E+0	1.051387E+0	1.001286E+0	1.016031E+0	1.020764E+0	9.465559E-1	1.034130E+0	1.004791E+0	1.054039E+0	9.454990E-1	1.094823E+0	1.033964E+0	9.977330E-1	9.253183E-1	1.045926E+0	1.050428E+0	1.034049E+0	1.007627E+0	1.052518E+0	1.032694E+0	1.034603E+0	9.845044E-1	1.006851E+0	1.047376E+0	1.064371E+0	9.265646E-1	9.985766E-1	1.062673E+0	1.011495E+0	9.806842E-1
5.557600E+2	9.509464E-1	9.176216E-1	9.843417E-1	8.492782E-1	9.579663E-1	9.131615E-1	9.607157E-1	9.521590E-1	9.423035E-1	9.306880E-1	1.019365E+0	9.718513E-1	9.648996E-1	9.574081E-1	9.940062E-1	9.858897E-1	9.536610E-1	9.783307E-1	1.013645E+0	9.392867E-1	9.019000E-1	9.940833E-1	1.034936E+0	9.878413E-1	9.185352E-1	9.473912E-1	9.825985E-1	8.739409E-1	9.724114E-1	9.700333E-1	9.656026E-1	9.667733E-1	9.018531E-1	9.696990E-1	9.551389E-1	9.698330E-1	9.192572E-1	9.415780E-1	9.907756E-1	9.802419E-1	9.389274E-1	9.723509E-1	9.791379E-1	1.026370E+0	9.705292E-1	9.748538E-1	1.013474E+0	9.943630E-1	9.675066E-1	9.694430E-1	9.711318E-1	1.010908E+0	8.867236E-1	9.733528E-1	9.871321E-1	9.791314E-1	9.217765E-1	9.651587E-1	9.942901E-1	9.801311E-1	9.728906E-1	1.007653E+0	9.895144E-1	1.007908E+0	9.655315E-1	9.829550E-1	9.756491E-1	9.647869E-1	9.174623E-1	9.594888E-1	9.899822E-1	9.832509E-1	9.171169E-1	9.813099E-1	1.002391E+0	1.038435E+0	9.860405E-1	9.790692E-1	9.878522E-1	1.001419E+0	9.434625E-1	1.019439E+0	1.017220E+0	1.010616E+0	9.189622E-1	9.464204E-1	9.859888E-1	9.944924E-1	9.639910E-1	9.724117E-1	9.438323E-1	1.005398E+0	9.474464E-1	9.687235E-1	1.031420E+0	1.021500E+0	9.324343E-1	8.985409E-1	9.957947E-1	1.001805E+0	9.189361E-1	1.012399E+0	9.448884E-1	9.680860E-1	9.022625E-1	9.521193E-1	9.722241E-1	9.946226E-1	9.755880E-1	9.504605E-1	9.596029E-1	9.875494E-1	9.695405E-1	1.023855E+0	9.801733E-1	1.034819E+0	9.362671E-1	9.760509E-1	9.880809E-1	9.524259E-1	9.002823E-1	9.944242E-1	9.552103E-1	9.528730E-1	1.029108E+0	1.018899E+0	9.846039E-1	9.820090E-1	9.526873E-1	1.003823E+0	9.562603E-1	9.704405E-1	9.631505E-1	9.503922E-1	1.008565E+0	9.868891E-1	9.867221E-1	9.893445E-1	9.802838E-1	9.984430E-1	9.838274E-1	9.695010E-1	9.373535E-1	1.009631E+0	8.862354E-1	9.972768E-1	9.719834E-1	9.980488E-1	8.691980E-1	1.002249E+0	1.007407E+0	9.714869E-1	9.453506E-1	9.988964E-1	1.017769E+0	9.624772E-1	1.010731E+0	9.945348E-1	1.010194E+0	9.857783E-1	8.962147E-1	1.022172E+0	9.813012E-1	9.511948E-1	8.893068E-1	1.007297E+0	9.973799E-1	1.061077E+0	9.344582E-1
5.560190E+2	9.772118E-1	9.530186E-1	1.010618E+0	7.892943E-1	9.919852E-1	8.962399E-1	1.009285E+0	9.674681E-1	9.686290E-1	9.193427E-1	9.548777E-1	9.616151E-1	9.500439E-1	9.557486E-1	9.525529E-1	9.763119E-1	1.000717E+0	9.686229E-1	9.566732E-1	9.560287E-1	1.027321E+0	9.802787E-1	1.033771E+0	9.937338E-1	9.519286E-1	9.635428E-1	1.042235E+0	8.408582E-1	9.964799E-1	1.051641E+0	1.025405E+0	9.769118E-1	9.425437E-1	9.981907E-1	9.596159E-1	9.188844E-1	9.744104E-1	9.563950E-1	1.027245E+0	9.577819E-1	1.025715E+0	9.345113E-1	1.005398E+0	9.425842E-1	9.846584E-1	9.748522E-1	9.987539E-1	9.804335E-1	9.563505E-1	9.688008E-1	9.959829E-1	9.905864E-1	9.699872E-1	9.548230E-1	9.555183E-1	9.508976E-1	1.044901E+0	9.493390E-1	1.003249E+0	9.761760E-1	9.825505E-1	9.796767E-1	1.017650E+0	1.003342E+0	9.559573E-1	9.203301E-1	9.496480E-1	1.019869E+0	9.061780E-1	9.486517E-1	9.558191E-1	9.509479E-1	9.827401E-1	9.756827E-1	9.800710E-1	1.021443E+0	9.883539E-1	9.627895E-1	9.478033E-1	1.036805E+0	9.184677E-1	9.566840E-1	9.343853E-1	9.945487E-1	9.012731E-1	9.193954E-1	9.982487E-1	9.981641E-1	9.289208E-1	9.231048E-1	9.234453E-1	9.415414E-1	9.561022E-1	1.001390E+0	9.786339E-1	9.832771E-1	9.118107E-1	8.621024E-1	9.828710E-1	1.046029E+0	9.213766E-1	9.631938E-1	9.997327E-1	9.808881E-1	9.001307E-1	9.760595E-1	1.074625E+0	9.946220E-1	9.671643E-1	9.681130E-1	9.549670E-1	1.018632E+0	9.431420E-1	9.556312E-1	1.007668E+0	1.000927E+0	9.278978E-1	9.942592E-1	9.784532E-1	9.592081E-1	8.946734E-1	9.893635E-1	9.498845E-1	9.582184E-1	1.001573E+0	9.774802E-1	9.797332E-1	9.885342E-1	9.625439E-1	9.543176E-1	9.981651E-1	9.857412E-1	9.518058E-1	9.803053E-1	9.658330E-1	1.005367E+0	9.292528E-1	9.803931E-1	9.869615E-1	9.793753E-1	9.807840E-1	1.027072E+0	9.889450E-1	9.972604E-1	9.375720E-1	9.674130E-1	1.025204E+0	9.536664E-1	9.033631E-1	1.013585E+0	9.821154E-1	9.690452E-1	9.046404E-1	9.560786E-1	1.001787E+0	9.527486E-1	1.000176E+0	9.951325E-1	9.536214E-1	9.667558E-1	8.918008E-1	9.908647E-1	1.014024E+0	9.729864E-1	9.026970E-1	9.842504E-1	9.944457E-1	1.002555E+0	8.824542E-1
5.565140E+2	9.951496E-1	9.491571E-1	9.986056E-1	1.016567E+0	9.848233E-1	9.268291E-1	1.044284E+0	1.005103E+0	1.007155E+0	9.754023E-1	1.024629E+0	9.776088E-1	1.020324E+0	9.939169E-1	9.789784E-1	1.049942E+0	1.000717E+0	9.431404E-1	1.005266E+0	1.010763E+0	9.490038E-1	9.496676E-1	1.020379E+0	9.937337E-1	1.012293E+0	9.771106E-1	1.033987E+0	8.325876E-1	1.034299E+0	1.013558E+0	9.965539E-1	1.014483E+0	9.920808E-1	9.595682E-1	9.960713E-1	9.570960E-1	9.989862E-1	9.836581E-1	9.543060E-1	9.973824E-1	1.013500E+0	9.363719E-1	9.964311E-1	1.004114E+0	9.874851E-1	9.691552E-1	9.878498E-1	1.003648E+0	9.557314E-1	9.790783E-1	1.044377E+0	1.020146E+0	9.804639E-1	1.003618E+0	9.531312E-1	9.779043E-1	1.036241E+0	9.730685E-1	1.061136E+0	9.946325E-1	1.045046E+0	1.023725E+0	9.919611E-1	9.571202E-1	1.007660E+0	9.170333E-1	1.005984E+0	9.778687E-1	9.868622E-1	9.245687E-1	9.660083E-1	1.009571E+0	1.004819E+0	1.027734E+0	1.055711E+0	1.012239E+0	9.958699E-1	9.709295E-1	1.008699E+0	1.009490E+0	1.021921E+0	1.017575E+0	9.572577E-1	9.791502E-1	9.683701E-1	1.017609E+0	1.014380E+0	9.987757E-1	9.859099E-1	9.100937E-1	1.015186E+0	9.832447E-1	9.876343E-1	9.777594E-1	9.941995E-1	1.010153E+0	1.001179E+0	8.779147E-1	1.052514E+0	9.912756E-1	9.616475E-1	1.013082E+0	9.716875E-1	1.035298E+0	9.782806E-1	9.941765E-1	9.689834E-1	1.042024E+0	1.023122E+0	9.994296E-1	9.850984E-1	9.936445E-1	9.675098E-1	1.047247E+0	9.605331E-1	9.857839E-1	9.723183E-1	1.014980E+0	9.694681E-1	9.829470E-1	9.108772E-1	1.051530E+0	9.325771E-1	9.719637E-1	9.985138E-1	1.025081E+0	9.979993E-1	1.028338E+0	9.816003E-1	9.817463E-1	9.373356E-1	1.033827E+0	9.673299E-1	9.640483E-1	9.626445E-1	9.881214E-1	9.491186E-1	1.046779E+0	1.034452E+0	1.018873E+0	9.838271E-1	9.766974E-1	1.024413E+0	1.017672E+0	9.273046E-1	9.470803E-1	9.603184E-1	9.625425E-1	8.743230E-1	1.007287E+0	9.991867E-1	9.666039E-1	9.291959E-1	1.005214E+0	9.851100E-1	1.009728E+0	9.933482E-1	1.029206E+0	1.018552E+0	9.692922E-1	9.018905E-1	9.462353E-1	1.002697E+0	1.014461E+0	8.852317E-1	1.047783E+0	1.006183E+0	1.051324E+0	8.708974E-1
5.570050E+2	9.772119E-1	8.996004E-1	9.910984E-1	8.952663E-1	9.943728E-1	8.246495E-1	9.614303E-1	9.311088E-1	9.795451E-1	9.059951E-1	9.219768E-1	8.822866E-1	9.763280E-1	9.607267E-1	9.473708E-1	9.439869E-1	9.919334E-1	9.364660E-1	9.226035E-1	9.508772E-1	9.365188E-1	9.328617E-1	9.982528E-1	9.636170E-1	9.429380E-1	9.467450E-1	9.458024E-1	8.154105E-1	9.523556E-1	9.295319E-1	9.414695E-1	1.018658E+0	9.561074E-1	9.291762E-1	9.660118E-1	9.014544E-1	9.492918E-1	9.688405E-1	1.002734E+0	9.577823E-1	9.453560E-1	9.562225E-1	1.031659E+0	9.831682E-1	9.445282E-1	9.321287E-1	9.611383E-1	9.548981E-1	8.974732E-1	9.655891E-1	9.672070E-1	1.002287E+0	9.357992E-1	9.887942E-1	9.781849E-1	9.815868E-1	9.539500E-1	9.236317E-1	9.756838E-1	9.564008E-1	9.297118E-1	1.004677E+0	9.363016E-1	9.337246E-1	9.495736E-1	9.486757E-1	9.222022E-1	9.427546E-1	9.174623E-1	9.384163E-1	9.492265E-1	9.653041E-1	9.667944E-1	9.208177E-1	9.819320E-1	1.048347E+0	1.002808E+0	9.659206E-1	9.565811E-1	9.393372E-1	9.587383E-1	9.964497E-1	9.096584E-1	9.443369E-1	9.823984E-1	9.068711E-1	9.588888E-1	9.498179E-1	9.143088E-1	8.977670E-1	9.569380E-1	9.526195E-1	9.635211E-1	9.423127E-1	9.556249E-1	9.360985E-1	9.441209E-1	8.346011E-1	9.627679E-1	9.905739E-1	9.689692E-1	1.004198E+0	9.716876E-1	9.642450E-1	1.023749E+0	9.534133E-1	9.404664E-1	9.562835E-1	9.449010E-1	9.618496E-1	8.981778E-1	9.333071E-1	9.749558E-1	9.198951E-1	9.539865E-1	9.223273E-1	9.774683E-1	9.503072E-1	9.572731E-1	9.605644E-1	8.946730E-1	9.669548E-1	9.671925E-1	9.177459E-1	9.520101E-1	9.521344E-1	9.584230E-1	9.872291E-1	9.599153E-1	1.003823E+0	9.535564E-1	9.551410E-1	9.344898E-1	9.373858E-1	9.103466E-1	9.955126E-1	9.363480E-1	1.027385E+0	9.439232E-1	1.007977E+0	9.680026E-1	9.784964E-1	9.444479E-1	9.434498E-1	1.007517E+0	9.419971E-1	9.224082E-1	1.007609E+0	9.318331E-1	9.795775E-1	9.979222E-1	9.574482E-1	9.860601E-1	9.343191E-1	9.642633E-1	9.569179E-1	9.914863E-1	9.616572E-1	9.330491E-1	9.597809E-1	9.208100E-1	9.169276E-1	9.624225E-1	9.279968E-1	9.545090E-1	9.580893E-1	9.401571E-1	9.505343E-1	9.136567E-1
5.575080E+2	9.925869E-1	8.860856E-1	9.798369E-1	9.399210E-1	9.394638E-1	9.183682E-1	9.271453E-1	9.527965E-1	9.821134E-1	9.587178E-1	9.673807E-1	9.712113E-1	1.003754E+0	9.623865E-1	9.484076E-1	9.972636E-1	9.649540E-1	9.388930E-1	9.471795E-1	9.483016E-1	9.325469E-1	9.214568E-1	9.976706E-1	9.747469E-1	9.673407E-1	9.118567E-1	9.515121E-1	9.407422E-1	9.626702E-1	9.688245E-1	9.425189E-1	9.733334E-1	9.443129E-1	9.279096E-1	9.768844E-1	9.550847E-1	9.645820E-1	9.232048E-1	9.465336E-1	9.258661E-1	9.511417E-1	9.177622E-1	9.881044E-1	9.857868E-1	1.009527E+0	9.469398E-1	1.024921E+0	1.026862E+0	9.675067E-1	9.720125E-1	1.022795E+0	9.727279E-1	9.771566E-1	9.424700E-1	9.620791E-1	1.011662E+0	9.626124E-1	9.407699E-1	9.432941E-1	9.333306E-1	9.916405E-1	9.522950E-1	9.711649E-1	9.502735E-1	9.744679E-1	9.862515E-1	9.850385E-1	9.338036E-1	9.789620E-1	9.673160E-1	9.348417E-1	9.814557E-1	9.594347E-1	9.376995E-1	9.366734E-1	1.017903E+0	9.825718E-1	1.021020E+0	9.549362E-1	9.722408E-1	9.844278E-1	9.237533E-1	9.436574E-1	9.798197E-1	9.976474E-1	9.457612E-1	9.556625E-1	9.859244E-1	9.727585E-1	9.100936E-1	9.198043E-1	9.610896E-1	9.573383E-1	9.249369E-1	9.549482E-1	9.313207E-1	9.448085E-1	8.160382E-1	1.017334E+0	9.351189E-1	9.402918E-1	9.481590E-1	9.623393E-1	9.892096E-1	9.924894E-1	9.644127E-1	9.443549E-1	1.000896E+0	1.007478E+0	1.003986E+0	9.149827E-1	9.765792E-1	9.350189E-1	9.406868E-1	9.474403E-1	1.014628E+0	9.401299E-1	9.854690E-1	9.707511E-1	9.992254E-1	9.464018E-1	9.749061E-1	9.998102E-1	9.498187E-1	9.465025E-1	9.861350E-1	9.955638E-1	9.395950E-1	9.546586E-1	9.937881E-1	9.515290E-1	9.507699E-1	9.649420E-1	9.640483E-1	9.473375E-1	1.001056E+0	1.006588E+0	9.453358E-1	9.669263E-1	9.487305E-1	9.217451E-1	9.623044E-1	9.805614E-1	9.935494E-1	9.670901E-1	9.439031E-1	9.391762E-1	9.666395E-1	9.973157E-1	9.657230E-1	9.751595E-1	9.513446E-1	9.770144E-1	9.995986E-1	1.014295E+0	9.590027E-1	9.927276E-1	1.010075E+0	9.979800E-1	9.502697E-1	9.517115E-1	9.475682E-1	9.435438E-1	9.800161E-1	9.975880E-1	9.612036E-1	9.320870E-1	1.008244E+0	9.899290E-1
5.580000E+2	1.052165E+0	9.748999E-1	1.045153E+0	1.049891E+0	1.007503E+0	9.222733E-1	1.027142E+0	1.018499E+0	1.001376E+0	9.860799E-1	1.029893E+0	1.052459E+0	1.004328E+0	9.828525E-1	1.001259E+0	9.864885E-1	1.015148E+0	1.003814E+0	1.016995E+0	9.920888E-1	1.013135E+0	9.958841E-1	9.749627E-1	9.662362E-1	1.032843E+0	1.008768E+0	1.039063E+0	1.003726E+0	1.017110E+0	1.024440E+0	1.011242E+0	1.003748E+0	9.814662E-1	9.899600E-1	9.973505E-1	1.008044E+0	1.038851E+0	1.002032E+0	1.030832E+0	1.063581E+0	1.018643E+0	9.996455E-1	1.041266E+0	9.844774E-1	9.835267E-1	1.042074E+0	9.883950E-1	1.013514E+0	1.015229E+0	9.848591E-1	1.001869E+0	9.979766E-1	9.986610E-1	1.031412E+0	1.049766E+0	1.028234E+0	1.031288E+0	9.915253E-1	9.970466E-1	1.038137E+0	9.939123E-1	1.032059E+0	1.004194E+0	9.770919E-1	9.948936E-1	1.013278E+0	1.039931E+0	1.008164E+0	1.013945E+0	9.986239E-1	9.821908E-1	1.026918E+0	9.974593E-1	9.426233E-1	9.682919E-1	1.030647E+0	1.034031E+0	9.815739E-1	1.026803E+0	9.902445E-1	1.044139E+0	9.660038E-1	1.020312E+0	1.031370E+0	9.988670E-1	9.806962E-1	1.001475E+0	1.043450E+0	1.015134E+0	9.826841E-1	1.014458E+0	1.009309E+0	1.021021E+0	9.972198E-1	1.020592E+0	9.826815E-1	9.537449E-1	9.164166E-1	1.000103E+0	1.006017E+0	1.008018E+0	9.727616E-1	1.047098E+0	9.968907E-1	1.018066E+0	1.023940E+0	1.001389E+0	1.000199E+0	1.040573E+0	9.908894E-1	1.061010E+0	1.002786E+0	1.038582E+0	1.032952E+0	1.024690E+0	9.901101E-1	1.037338E+0	9.528189E-1	1.063815E+0	9.822687E-1	9.894048E-1	1.029121E+0	1.017117E+0	1.017781E+0	1.064598E+0	9.830444E-1	9.882574E-1	1.029643E+0	1.005257E+0	1.032590E+0	1.030608E+0	1.035283E+0	1.002559E+0	1.006317E+0	1.020682E+0	1.012143E+0	1.015811E+0	1.030369E+0	9.698950E-1	1.004573E+0	1.031911E+0	1.016877E+0	1.059883E+0	1.039320E+0	1.021635E+0	1.028411E+0	9.851066E-1	1.028093E+0	1.005288E+0	1.004768E+0	1.004878E+0	1.009941E+0	1.005446E+0	1.045927E+0	1.040005E+0	1.045167E+0	1.038667E+0	9.825793E-1	1.010837E+0	1.051723E+0	1.004685E+0	1.010848E+0	9.938868E-1	1.016569E+0	1.020875E+0	1.004805E+0	9.841742E-1	9.822340E-1	1.047712E+0
5.585160E+2	9.778526E-1	9.594542E-1	1.022630E+0	1.027897E+0	1.019440E+0	9.457026E-1	1.023571E+0	1.022964E+0	1.057238E+0	9.406985E-1	1.031209E+0	1.053739E+0	1.019182E+0	1.010510E+0	1.035974E+0	1.025398E+0	9.944431E-1	1.008061E+0	1.044923E+0	9.920890E-1	9.972434E-1	1.019293E+0	1.002329E+0	1.037598E+0	1.012935E+0	9.254246E-1	1.009245E+0	1.071801E+0	1.041177E+0	1.014162E+0	9.834376E-1	9.781042E-1	1.057541E+0	1.010855E+0	1.014618E+0	1.012737E+0	1.031205E+0	1.000846E+0	1.018875E+0	1.040528E+0	1.034715E+0	9.934422E-1	1.016928E+0	1.008042E+0	1.043442E+0	9.611816E-1	1.029829E+0	1.025121E+0	9.817612E-1	9.957788E-1	9.985984E-1	1.017683E+0	1.014100E+0	9.572937E-1	1.005028E+0	1.001228E+0	9.749867E-1	9.921845E-1	1.001181E+0	1.007816E+0	1.025729E+0	9.969376E-1	1.030495E+0	1.036438E+0	1.035107E+0	1.006686E+0	1.018985E+0	9.937050E-1	1.045540E+0	9.907965E-1	1.015155E+0	1.020339E+0	1.038550E+0	9.391064E-1	1.073690E+0	1.041975E+0	1.006278E+0	9.991055E-1	1.004861E+0	1.038047E+0	9.858163E-1	9.952069E-1	9.931118E-1	9.958875E-1	1.022046E+0	1.011676E+0	1.049223E+0	1.035494E+0	9.954075E-1	1.047741E+0	1.018827E+0	1.021037E+0	1.040188E+0	1.020156E+0	1.007734E+0	9.964162E-1	1.014927E+0	9.473552E-1	9.692292E-1	1.019354E+0	1.000697E+0	1.022650E+0	9.891379E-1	1.070504E+0	9.988836E-1	1.036881E+0	1.053886E+0	1.029477E+0	9.846135E-1	1.019929E+0	1.018709E+0	1.027774E+0	9.986466E-1	9.913672E-1	1.007014E+0	1.005254E+0	1.042488E+0	1.031305E+0	9.970659E-1	1.041955E+0	9.837956E-1	1.011773E+0	1.003804E+0	9.490546E-1	1.025438E+0	1.028171E+0	1.039403E+0	1.021812E+0	1.009200E+0	1.011851E+0	1.015739E+0	1.003226E+0	1.037190E+0	9.718516E-1	1.043642E+0	9.671797E-1	1.042773E+0	1.001279E+0	1.042614E+0	1.037942E+0	1.028867E+0	9.976868E-1	9.799161E-1	9.954051E-1	1.001100E+0	9.953707E-1	9.960419E-1	9.953177E-1	1.044577E+0	9.814673E-1	9.682039E-1	1.030692E+0	1.025478E+0	9.883681E-1	1.003176E+0	9.895766E-1	1.002040E+0	9.927413E-1	1.012123E+0	1.025092E+0	9.756753E-1	9.568933E-1	1.051152E+0	1.006728E+0	1.010395E+0	1.032835E+0	1.043599E+0	1.013934E+0	1.003797E+0
5.590100E+2	1.003478E+0	9.510880E-1	1.018125E+0	9.799101E-1	1.016456E+0	8.916842E-1	9.971432E-1	9.834152E-1	9.795449E-1	9.220124E-1	9.680384E-1	9.635342E-1	9.614712E-1	9.977875E-1	9.810510E-1	9.781077E-1	9.831497E-1	1.011701E+0	9.868337E-1	9.734149E-1	1.016540E+0	9.892816E-1	9.802024E-1	1.006173E+0	9.866059E-1	1.008122E+0	9.584903E-1	9.814593E-1	9.724116E-1	9.664063E-1	9.839618E-1	1.047880E+0	9.620046E-1	9.393070E-1	9.992687E-1	1.005363E+0	1.005539E+0	9.350587E-1	9.662635E-1	9.211372E-1	9.659279E-1	9.090774E-1	9.791378E-1	9.818587E-1	9.733537E-1	9.782720E-1	9.486003E-1	9.415501E-1	9.966354E-1	9.064941E-1	9.698237E-1	9.856598E-1	9.992120E-1	9.974414E-1	9.644647E-1	9.539668E-1	9.954037E-1	9.460430E-1	9.777509E-1	1.005839E+0	1.026297E+0	9.594378E-1	9.962425E-1	9.588327E-1	1.008936E+0	9.697706E-1	9.951505E-1	1.006098E+0	9.343888E-1	9.558765E-1	1.028939E+0	1.010170E+0	9.864198E-1	9.651317E-1	9.726319E-1	9.102845E-1	1.008012E+0	9.596590E-1	9.494491E-1	9.709986E-1	9.455456E-1	9.703531E-1	9.949664E-1	9.784809E-1	9.915481E-1	1.009699E+0	9.253361E-1	9.834766E-1	9.844482E-1	9.580306E-1	9.795094E-1	1.020386E+0	9.931988E-1	1.025021E+0	9.698366E-1	1.011347E+0	1.007365E+0	8.999159E-1	9.598959E-1	1.057260E+0	1.015952E+0	9.693444E-1	9.978631E-1	9.488823E-1	9.519938E-1	9.560018E-1	9.806494E-1	9.723161E-1	9.822069E-1	9.538776E-1	1.015811E+0	9.973008E-1	9.648025E-1	1.018657E+0	9.703527E-1	9.728042E-1	9.736058E-1	9.785621E-1	9.771694E-1	1.020929E+0	9.569966E-1	1.004544E+0	9.745140E-1	9.482912E-1	1.008304E+0	9.910806E-1	9.760800E-1	9.807040E-1	9.756866E-1	9.790700E-1	9.832960E-1	9.296412E-1	9.888257E-1	1.010869E+0	9.836915E-1	9.696433E-1	9.909793E-1	9.684589E-1	1.007738E+0	9.534974E-1	9.972176E-1	9.724994E-1	9.715329E-1	9.817979E-1	9.754321E-1	1.008714E+0	9.522995E-1	1.013071E+0	9.477764E-1	9.770585E-1	1.017524E+0	1.020928E+0	1.016432E+0	9.469543E-1	9.781610E-1	9.548334E-1	1.008868E+0	1.030999E+0	1.007622E+0	1.025092E+0	1.024866E+0	9.409073E-1	9.636812E-1	9.603333E-1	9.964238E-1	9.624498E-1	1.000315E+0	9.643519E-1	1.004952E+0
5.595110E+2	9.913057E-1	9.498006E-1	9.790859E-1	1.006570E+0	9.848233E-1	9.730372E-1	1.012856E+0	1.015947E+0	9.943129E-1	9.840781E-1	9.647486E-1	9.699318E-1	1.000898E+0	1.007743E+0	1.025093E+0	9.469804E-1	9.881684E-1	9.928924E-1	9.778978E-1	1.015270E+0	9.637598E-1	9.700749E-1	1.059392E+0	9.812943E-1	1.011009E+0	9.344694E-1	1.000362E+0	1.002454E+0	9.861648E-1	1.026857E+0	9.897331E-1	9.798943E-1	9.897219E-1	1.003889E+0	9.909550E-1	1.022793E+0	9.847870E-1	1.011514E+0	1.031431E+0	9.920628E-1	9.768569E-1	9.711108E-1	1.003477E+0	9.851313E-1	9.688329E-1	1.015299E+0	1.024920E+0	1.032086E+0	9.941567E-1	1.008625E+0	1.024758E+0	9.819653E-1	1.030643E+0	9.653235E-1	9.907111E-1	9.723799E-1	1.001591E+0	1.004049E+0	1.053555E+0	9.722209E-1	1.017207E+0	1.000510E+0	1.006029E+0	1.027881E+0	1.001277E+0	9.783407E-1	9.575930E-1	9.964589E-1	1.017895E+0	9.618974E-1	1.008562E+0	9.682959E-1	1.060015E+0	9.855303E-1	9.937116E-1	1.024275E+0	9.704290E-1	1.012254E+0	1.038323E+0	1.016319E+0	1.078855E+0	9.815376E-1	1.041329E+0	9.965568E-1	1.007407E+0	9.101671E-1	9.963133E-1	9.926563E-1	1.046551E+0	1.007337E+0	1.006449E+0	1.006051E+0	1.024731E+0	9.735892E-1	1.005704E+0	1.034042E+0	9.984291E-1	1.069735E+0	9.943589E-1	1.009527E+0	1.026935E+0	1.007615E+0	1.002849E+0	9.860089E-1	1.059272E+0	9.935294E-1	1.003981E+0	1.025991E+0	1.039970E+0	9.777930E-1	9.874169E-1	9.717034E-1	1.010830E+0	1.001114E+0	1.027309E+0	9.966001E-1	9.871247E-1	1.015607E+0	9.688257E-1	1.014824E+0	9.956371E-1	9.814118E-1	9.871619E-1	9.818912E-1	9.642480E-1	1.064645E+0	1.033923E+0	1.008762E+0	9.671436E-1	1.003823E+0	9.805920E-1	1.038927E+0	1.015099E+0	1.023875E+0	9.951709E-1	1.008447E+0	1.000912E+0	1.034098E+0	9.647004E-1	1.035898E+0	9.759148E-1	1.023474E+0	9.870102E-1	9.867461E-1	1.010084E+0	1.004266E+0	1.035411E+0	9.632260E-1	1.029203E+0	1.092305E+0	1.020053E+0	9.720973E-1	1.022247E+0	1.037503E+0	9.990074E-1	1.029185E+0	1.024389E+0	1.010674E+0	9.780498E-1	1.005435E+0	1.001532E+0	1.023504E+0	1.032273E+0	1.008134E+0	9.737197E-1	1.024737E+0	1.001048E+0	1.045634E+0	1.018821E+0
5.600520E+2	9.765715E-1	1.083022E+0	1.010618E+0	9.945733E-1	9.716930E-1	1.118822E+0	9.878574E-1	1.006379E+0	1.017428E+0	1.061494E+0	9.890956E-1	9.891247E-1	1.016326E+0	9.983403E-1	1.000223E+0	1.033180E+0	9.956976E-1	9.904657E-1	1.005825E+0	9.862934E-1	1.007459E+0	1.021093E+0	9.947589E-1	9.996258E-1	9.923856E-1	1.055285E+0	9.933839E-1	9.458314E-1	9.775697E-1	9.887737E-1	1.023830E+0	9.781041E-1	1.003285E+0	1.024783E+0	9.973505E-1	9.269293E-1	9.569378E-1	1.010330E+0	9.824057E-1	1.016887E+0	1.034072E+0	1.030042E+0	9.868237E-1	1.028334E+0	1.020832E+0	9.999180E-1	1.014564E+0	9.990042E-1	9.842402E-1	1.018261E+0	1.003176E+0	9.967451E-1	9.644733E-1	9.863235E-1	1.014573E+0	1.012275E+0	9.650871E-1	9.724099E-1	9.880879E-1	9.919956E-1	9.808452E-1	1.029677E+0	9.791167E-1	9.616874E-1	1.019149E+0	9.724073E-1	9.814274E-1	1.013673E+0	9.919406E-1	9.853780E-1	9.720015E-1	1.026918E+0	9.943928E-1	9.651315E-1	1.000532E+0	1.068172E+0	9.918235E-1	9.909655E-1	9.916917E-1	9.784486E-1	1.012200E+0	1.015090E+0	9.955844E-1	1.040074E+0	9.884977E-1	1.006403E+0	1.019542E+0	1.022643E+0	9.756809E-1	9.607702E-1	9.809654E-1	9.956249E-1	9.969093E-1	9.798444E-1	1.011118E+0	1.036430E+0	9.771181E-1	1.022295E+0	1.014462E+0	9.800443E-1	1.008019E+0	1.004198E+0	1.018430E+0	9.655258E-1	9.988836E-1	9.961178E-1	9.845382E-1	9.834691E-1	9.978509E-1	1.019929E+0	9.937916E-1	9.796265E-1	9.857858E-1	1.018657E+0	1.043675E+0	1.018955E+0	1.019957E+0	1.041978E+0	1.007977E+0	1.016181E+0	1.023060E+0	9.532199E-1	1.011126E+0	1.016254E+0	9.862759E-1	9.805713E-1	9.718180E-1	1.000932E+0	1.042713E+0	9.770631E-1	9.947860E-1	9.682554E-1	1.006738E+0	9.868083E-1	9.594552E-1	9.936645E-1	9.916886E-1	9.774099E-1	1.032225E+0	1.000486E+0	9.795669E-1	9.940888E-1	9.773367E-1	1.003446E+0	1.015217E+0	9.890165E-1	9.938556E-1	1.021265E+0	1.013827E+0	9.493495E-1	1.027641E+0	9.623313E-1	1.004154E+0	1.000301E+0	1.001092E+0	9.881873E-1	9.585835E-1	1.001708E+0	1.064839E+0	9.490018E-1	1.056397E+0	1.035494E+0	1.008990E+0	1.041876E+0	9.958421E-1	9.686781E-1	1.024524E+0	1.034254E+0	9.980192E-1
5.605150E+2	1.015009E+0	1.081735E+0	9.513083E-1	9.759111E-1	1.002728E+0	1.071963E+0	1.007143E+0	9.827772E-1	1.000092E+0	1.043475E+0	1.008178E+0	1.011516E+0	1.009468E+0	9.894906E-1	9.836395E-1	1.023003E+0	9.938156E-1	1.005027E+0	9.806895E-1	1.033301E+0	1.043779E+0	1.034899E+0	1.029696E+0	1.022541E+0	9.930280E-1	1.052702E+0	1.002266E+0	9.980006E-1	1.007941E+0	1.037134E+0	1.018587E+0	9.703515E-1	9.950290E-1	1.020985E+0	1.051074E+0	1.018100E+0	9.918865E-1	1.021592E+0	9.931682E-1	1.021616E+0	1.024429E+0	1.055475E+0	9.938693E-1	9.942961E-1	1.011789E+0	1.015299E+0	9.780381E-1	1.022220E+0	1.049315E+0	1.066437E+0	1.022796E+0	1.060791E+0	9.925953E-1	1.024618E+0	1.026502E+0	9.957029E-1	1.049232E+0	1.065350E+0	1.006005E+0	1.006497E+0	9.575515E-1	9.677715E-1	9.913495E-1	1.035298E+0	1.001276E+0	1.033714E+0	1.050043E+0	1.027442E+0	1.004352E+0	1.072077E+0	9.887843E-1	1.014955E+0	9.974592E-1	1.112141E+0	1.011691E+0	1.012238E+0	1.014951E+0	1.041057E+0	9.829140E-1	1.018802E+0	9.517946E-1	9.747029E-1	9.714755E-1	9.791503E-1	1.017166E+0	1.012995E+0	9.943771E-1	9.485943E-1	1.014403E+0	1.011446E+0	9.926149E-1	9.799867E-1	9.424999E-1	9.680289E-1	9.786342E-1	9.605839E-1	1.023177E+0	1.052547E+0	1.013027E+0	9.596872E-1	9.701891E-1	9.823293E-1	9.885148E-1	1.015454E+0	9.988836E-1	9.786477E-1	9.884266E-1	1.036447E+0	9.791982E-1	1.014805E+0	9.758276E-1	1.007662E+0	9.925540E-1	9.679762E-1	9.677347E-1	9.980430E-1	9.620178E-1	9.904922E-1	1.007335E+0	9.687033E-1	1.010595E+0	1.037796E+0	1.016452E+0	9.589824E-1	9.979023E-1	9.620256E-1	1.032705E+0	9.865767E-1	1.023656E+0	1.010513E+0	1.018443E+0	1.003226E+0	9.870343E-1	9.972133E-1	9.964468E-1	1.017686E+0	9.916888E-1	1.032607E+0	9.743468E-1	1.004572E+0	1.030084E+0	9.976869E-1	1.039891E+0	1.027569E+0	9.889076E-1	1.009350E+0	1.017185E+0	1.015119E+0	9.785254E-1	1.025550E+0	9.934962E-1	1.044121E+0	9.492277E-1	1.041013E+0	9.892790E-1	9.902715E-1	9.896242E-1	9.891542E-1	9.639071E-1	9.559764E-1	1.000270E+0	1.006185E+0	9.957751E-1	9.807188E-1	1.023785E+0	1.037817E+0	9.783053E-1	9.936136E-1	9.772167E-1
5.609950E+2	9.836182E-1	1.000000E+0	9.730799E-1	9.652473E-1	9.973569E-1	1.076518E+0	9.442877E-1	9.700196E-1	9.500085E-1	1.062162E+0	1.008837E+0	9.596960E-1	9.883278E-1	1.013276E+0	9.727604E-1	1.006841E+0	1.029578E+0	9.880383E-1	9.868358E-1	1.007543E+0	9.580843E-1	9.694745E-1	9.586589E-1	9.865320E-1	9.711938E-1	1.015229E+0	9.971903E-1	9.967280E-1	9.976260E-1	9.422260E-1	9.892079E-1	1.041917E+0	1.010952E+0	1.010221E+0	9.493831E-1	1.006033E+0	9.907944E-1	1.018627E+0	9.770249E-1	9.441881E-1	9.453559E-1	1.041207E+0	9.784976E-1	1.017861E+0	9.982235E-1	9.879556E-1	1.015654E+0	9.665055E-1	9.786623E-1	1.019545E+0	9.789794E-1	9.591792E-1	1.000315E+0	1.037588E+0	9.489557E-1	1.036213E+0	9.824111E-1	1.028438E+0	9.763726E-1	9.774943E-1	9.984579E-1	1.013607E+0	9.925730E-1	1.002771E+0	9.393607E-1	1.025803E+0	9.568700E-1	9.544595E-1	9.919391E-1	1.035351E+0	1.004367E+0	9.324037E-1	9.257034E-1	1.090336E+0	9.794519E-1	9.124089E-1	9.744764E-1	1.015385E+0	1.005958E+0	9.871400E-1	9.816505E-1	1.097106E+0	9.832208E-1	9.784809E-1	9.744685E-1	1.068363E+0	1.013734E+0	9.736848E-1	9.683747E-1	1.031991E+0	1.007177E+0	9.676061E-1	9.814517E-1	1.036141E+0	1.006381E+0	9.784997E-1	1.025239E+0	1.091735E+0	1.048925E+0	9.681110E-1	9.701893E-1	1.041102E+0	9.561067E-1	1.016735E+0	9.740174E-1	1.014882E+0	9.871301E-1	9.521007E-1	9.755881E-1	1.022777E+0	9.474337E-1	1.013147E+0	1.008799E+0	9.692761E-1	9.592239E-1	1.018234E+0	9.774682E-1	9.892360E-1	9.778119E-1	9.551387E-1	1.040511E+0	9.821350E-1	9.898253E-1	1.127745E+0	9.532340E-1	9.904622E-1	9.578139E-1	9.715687E-1	9.763436E-1	9.850907E-1	9.765370E-1	1.021441E+0	9.625534E-1	1.003066E+0	1.000911E+0	1.031236E+0	9.661468E-1	9.557782E-1	1.008480E+0	9.630315E-1	9.564385E-1	9.976868E-1	9.844306E-1	9.657167E-1	9.876245E-1	9.648715E-1	1.020101E+0	9.639088E-1	9.808030E-1	9.695015E-1	9.682046E-1	9.598898E-1	9.770141E-1	9.399341E-1	9.892790E-1	1.002780E+0	9.778285E-1	9.921438E-1	9.626213E-1	9.876808E-1	9.365760E-1	1.026168E+0	9.542418E-1	9.856395E-1	9.789596E-1	9.686780E-1	9.680349E-1	9.659782E-1	9.494819E-1
