Photon Energy (eV)	#1	#2	#3	#4	#5	#6	#7	#8	#9	#10	#11	#12	#13	#14	#15	#16	#17	#18	#19	#20	#21	#22	#23	#24	#25	#26	#27	#28	#29	#30	#31	#32	#33	#34	#35	#36	#37	#38	#39	#40	#41	#42	#43	#44	#45	#46	#47	#48	#49	#50	#51	#52	#53	#54	#55	#56	#57	#58	#59	#60	#61	#62	#63	#64	#65	#66	#67	#68	#69	#70	#71	#72	#73	#74	#75	#76	#77	#78	#79	#80	#81	#82	#83	#84	#85	#86	#87	#88	#89	#90	#91	#92	#93	#94	#95	#96	#97	#98	#99	#100	#101	#102	#103	#104	#105	#106	#107	#108	#109	#110	#111	#112	#113	#114	#115	#116	#117	#118	#119	#120	#121	#122	#123	#124	#125	#126	#127	#128	#129	#130	#131	#132	#133	#134	#135	#136	#137	#138	#139	#140	#141	#142	#143	#144	#145	#146	#147	#148	#149	#150	#151	#152	#153	#154	#155	#156	#157	#158	#159	#160	#161	#162	#163	#164	#165	#166	#167	#168	#169	#170	
5.300160E+2	-6.820744E-3	-1.085547E-2	-8.303894E-3	-3.544064E-3	-3.028454E-3	-5.192417E-3	-4.895216E-3	-1.094344E-2	3.667993E-3	-8.274883E-3	-1.060782E-2	-3.039124E-3	-7.746952E-3	-5.546566E-3	-1.163098E-2	-9.463719E-3	-5.633360E-3	-7.991149E-3	-9.942964E-3	-1.417405E-2	4.952252E-3	-2.231301E-3	-2.448391E-4	-1.057294E-2	-9.786041E-3	-1.466058E-2	-1.255167E-2	-4.173663E-3	2.988398E-4	-8.515855E-3	-6.620056E-3	4.448182E-5	-9.922832E-3	-1.001373E-2	7.152175E-5	-4.161331E-3	-2.791459E-3	-8.545560E-3	-9.190178E-3	-6.910148E-3	-6.046226E-3	-3.670360E-3	-3.327316E-3	-6.026064E-3	-2.269574E-3	-3.999347E-3	-1.035685E-2	-5.324125E-3	-1.221300E-2	-7.325945E-3	-1.278999E-2	-5.578098E-3	-6.194788E-3	-6.260445E-3	-5.936483E-3	-6.668096E-3	-1.278773E-2	-1.567671E-2	-3.076873E-3	-1.103483E-2	-8.321124E-3	-1.236711E-2	-1.882587E-2	-3.443573E-4	-1.010685E-2	-1.532617E-4	-7.902787E-3	6.342205E-3	-4.233881E-3	-7.481288E-3	-4.950787E-4	-1.145798E-2	-6.821049E-3	-2.473274E-3	-9.792807E-3	-5.413648E-3	-7.695814E-3	-1.254350E-2	-1.605943E-3	-1.017296E-3	-7.529080E-3	-7.146779E-4	-1.334379E-2	-5.991658E-3	-3.581495E-3	-1.922157E-3	-4.971148E-3	-1.256544E-2	9.213654E-4	-1.031851E-2	-7.569846E-3	-1.445744E-2	-1.101394E-2	-1.166115E-2	-1.431209E-3	-3.652702E-3	-4.466366E-3	-8.171607E-3	-9.567634E-3	3.348777E-3	-1.502437E-2	-6.231400E-3	-1.737463E-2	-9.890010E-3	-2.589209E-3	-3.739564E-3	-8.038421E-3	-6.092118E-3	-1.125295E-2	-2.461851E-3	-1.219689E-2	-1.121161E-2	2.934642E-4	9.785906E-4	2.286678E-3	-1.106270E-2	-5.369421E-3	-9.645731E-3	-9.375778E-3	-1.489772E-2	-7.701495E-3	-9.807631E-3	-2.800998E-4	-8.453233E-3	-1.205661E-2	-8.512802E-3	-1.284104E-2	-1.398586E-2	-8.455679E-3	-1.164147E-2	-1.071045E-2	-1.305790E-3	-5.448753E-4	2.141206E-3	-1.370786E-2	-5.495203E-3	-1.762322E-2	2.206882E-3	-1.139164E-2	-1.309623E-2	-9.619663E-3	-1.220155E-3	-1.328445E-3	-4.085883E-3	1.001037E-3	-1.186037E-2	6.133643E-3	-1.113941E-2	-9.834717E-3	-1.191529E-2	-3.959621E-3	-8.488946E-3	-4.902822E-3	-9.490670E-3	-5.623712E-3	-4.618653E-3	-9.624604E-3	-1.352625E-2	1.842199E-3	-4.833305E-3	-8.151667E-3	-1.033780E-2	-1.839536E-3	-1.633326E-2	-1.249935E-2	-1.257794E-2	-3.601526E-3	-1.976451E-3	2.088753E-3	-1.769058E-3
5.305130E+2	-4.346483E-3	-2.261187E-3	2.650275E-3	-5.942957E-3	7.732385E-3	-5.987852E-3	-1.398198E-3	-8.199094E-3	-3.420443E-3	1.816063E-4	1.604932E-3	-5.469658E-3	-7.472690E-3	-5.804459E-3	-1.802631E-3	-4.816781E-3	-9.592563E-3	-1.533936E-3	-1.076876E-2	-1.854790E-3	-8.069769E-3	-4.872470E-3	1.146570E-3	8.114603E-4	4.750328E-4	-1.389439E-2	-4.405916E-3	-9.530624E-3	-4.061490E-4	9.385085E-4	-1.730479E-4	4.996004E-3	-1.048165E-3	-7.988583E-3	-9.242952E-3	-1.643365E-3	6.066532E-4	1.858390E-3	-5.523541E-4	-1.202316E-3	1.017672E-3	-8.403564E-3	-7.493493E-4	1.385342E-3	-2.472858E-3	-1.191879E-2	-7.010160E-4	-4.529596E-3	4.314099E-3	5.665512E-5	-1.143574E-2	-1.149216E-2	-7.392971E-3	-1.321619E-4	-2.425503E-3	-3.944994E-3	1.901219E-3	-6.139407E-3	-2.736234E-3	-9.098208E-3	7.183040E-3	-6.239803E-3	6.066647E-5	-9.561791E-3	-1.823333E-3	-5.209421E-3	-7.023790E-3	-8.429138E-3	-4.475520E-3	-7.167627E-3	-7.006121E-4	-1.163425E-2	-2.179621E-3	-1.177239E-2	-1.642140E-2	-1.457345E-4	4.052429E-4	2.965659E-3	-6.653199E-3	-1.460462E-4	-4.842226E-3	-4.837519E-3	-1.258530E-3	-4.671849E-3	-2.741645E-3	-8.378882E-3	3.820355E-4	-2.275963E-3	-3.456157E-3	2.327382E-3	1.506713E-3	-1.566624E-3	-3.049599E-3	-9.467547E-5	-8.738041E-3	-6.816483E-3	-6.885856E-3	6.685021E-3	-3.044472E-4	-5.314754E-3	3.281552E-4	2.536421E-3	9.316987E-3	-5.284599E-3	2.822553E-3	-2.259023E-3	-6.545331E-5	-4.454338E-3	-6.029308E-3	-8.478751E-3	-1.308105E-2	-6.071143E-3	-5.305223E-3	-7.113195E-3	3.735718E-3	-1.016203E-2	-6.278192E-4	-6.510035E-3	-5.070582E-3	5.382638E-3	5.950866E-3	-9.493512E-3	6.583946E-3	-1.067897E-2	6.363364E-3	-7.622586E-3	-7.334521E-3	-8.760097E-4	-3.313186E-3	-8.414689E-3	-8.096959E-3	2.371550E-3	-1.280628E-2	-2.395165E-3	2.240383E-3	-3.017139E-3	-3.085990E-3	-2.616401E-3	-5.385268E-3	7.849855E-3	1.287058E-3	-8.147180E-3	-2.720689E-3	3.499994E-3	-4.288270E-3	-1.724212E-3	-9.861006E-3	-1.611019E-3	-6.475550E-4	-5.438859E-3	5.188890E-4	8.538608E-4	-1.110083E-2	-2.164600E-3	-3.133822E-3	-2.665503E-3	-8.298623E-3	-3.558021E-3	-6.533273E-3	-1.058961E-2	2.256258E-3	-5.965974E-3	-6.175150E-3	-2.552111E-3	-2.385398E-3	-8.434696E-4	-8.629206E-3	-1.388475E-2	-1.053792E-2	3.117284E-2
5.310100E+2	-3.709116E-3	1.541818E-3	-3.377248E-3	1.761681E-3	-2.728359E-3	1.218963E-2	-5.075212E-3	-1.155286E-3	-2.348817E-3	-5.680466E-3	-1.089575E-2	-2.107522E-3	-2.922714E-3	4.388294E-4	2.819292E-3	-1.471340E-3	1.909189E-3	-4.416574E-3	5.138453E-3	8.773309E-3	-6.457422E-3	-9.311860E-3	7.712620E-4	6.373652E-3	-2.243824E-3	3.935422E-3	-2.239934E-3	6.986195E-3	-2.420844E-3	-1.175515E-2	-7.391690E-3	-7.309277E-3	-5.609473E-3	1.492934E-3	-3.404727E-5	-6.552526E-3	-7.051705E-3	-5.042377E-3	7.021407E-4	-2.791576E-3	-8.420026E-3	-2.670564E-3	-5.858815E-3	-1.283794E-3	-3.274689E-4	-3.620526E-3	-2.890048E-3	-1.965216E-3	-7.604485E-3	-7.002037E-3	9.718646E-3	4.055037E-4	-7.815699E-3	-1.559707E-3	3.086335E-3	3.044102E-3	-2.437076E-3	-1.681173E-3	-9.181118E-3	3.674304E-3	-5.474877E-3	3.151065E-4	1.954183E-3	-4.911040E-3	-9.313101E-3	-1.050322E-3	3.119867E-3	-1.221677E-2	-8.814043E-3	-8.602849E-3	-2.788412E-3	-2.211415E-4	-2.060296E-3	7.134044E-3	9.082679E-4	-9.005464E-3	-3.123571E-3	-2.016020E-4	-6.012456E-3	-6.634432E-3	3.806827E-3	4.170169E-3	-4.827704E-4	-4.530192E-3	-4.396433E-3	-5.068035E-3	5.109229E-3	-1.364280E-2	-6.989032E-3	-5.928685E-3	-8.515888E-3	1.135710E-2	-1.031193E-2	-2.930267E-3	-1.413834E-2	-1.381135E-2	2.062125E-3	-7.371555E-3	-1.868466E-3	-9.516172E-3	-3.969508E-3	-4.282082E-3	-5.943554E-3	1.668551E-4	-9.199462E-3	-2.783413E-3	-7.741757E-3	-6.523580E-3	-1.442492E-3	-9.083389E-3	-1.452013E-3	1.255976E-3	-8.030782E-3	-9.560738E-3	1.629519E-3	5.133938E-3	-4.423052E-3	3.828224E-3	-4.251918E-4	3.486485E-3	-9.525649E-3	-1.622447E-3	-4.114543E-3	-4.944379E-3	-5.469549E-3	-8.791018E-3	1.454563E-3	-4.108849E-3	5.593084E-4	-2.509978E-3	4.759578E-3	5.091641E-3	1.986552E-3	-5.098146E-3	2.363426E-3	-1.304440E-3	-5.650936E-3	-7.253976E-3	7.953739E-3	1.446633E-3	-8.778723E-3	-3.257738E-3	3.197386E-3	5.742430E-3	-5.980424E-3	-2.392625E-3	-1.265804E-3	4.238868E-3	-7.869734E-3	4.264211E-3	-1.437458E-2	-9.635547E-3	9.868741E-4	-7.451142E-3	-5.886530E-3	2.861979E-3	4.097274E-3	-1.714905E-3	-1.543784E-3	1.813785E-3	-3.674424E-3	-7.714326E-5	-1.138065E-2	5.475635E-3	-8.198050E-3	-2.205408E-3	-8.695695E-3	6.592689E-4	-7.004260E-3	-1.201594E-2
5.315180E+2	2.790648E-4	-4.114028E-3	8.817003E-4	3.009165E-3	-8.187942E-3	-4.196098E-3	5.302483E-3	1.001418E-2	5.848897E-3	-3.766340E-3	3.635490E-3	3.626239E-3	9.834547E-3	3.428019E-3	1.309361E-4	-1.330809E-3	-1.777595E-3	4.515738E-3	-4.107650E-3	-1.608396E-3	-3.706437E-3	5.408716E-3	-6.486309E-3	-3.002618E-4	-1.054599E-2	6.906075E-3	4.861591E-3	-2.024618E-3	-3.340842E-3	-6.399820E-3	3.161029E-3	-4.162609E-4	1.490525E-3	-1.603039E-4	-9.159272E-3	-5.864676E-3	7.146209E-3	-3.826394E-3	-2.810217E-3	-7.174455E-3	2.841600E-3	9.256425E-4	1.758033E-3	-8.360435E-3	-3.854975E-3	4.212046E-4	-5.149708E-4	1.153210E-3	-2.524584E-3	3.941961E-3	2.610137E-3	4.560833E-3	-2.505788E-3	-8.899048E-3	2.723876E-3	-2.221383E-3	-2.783105E-3	-9.723516E-4	5.787331E-3	5.164809E-4	-3.876141E-3	5.914890E-3	-1.194559E-2	2.403482E-3	8.613380E-3	-4.857902E-3	3.882140E-3	-4.931116E-3	-7.048096E-3	1.212659E-2	-4.838315E-3	2.798635E-3	-8.124940E-4	-1.006505E-2	5.736249E-3	6.239680E-3	2.827726E-3	2.739574E-3	-4.209274E-3	-1.113639E-2	-3.066543E-4	-3.968526E-3	7.800824E-4	2.893478E-3	-7.765016E-4	-1.198379E-3	-1.073390E-2	2.126412E-3	-1.023953E-3	-1.595347E-3	-6.425756E-4	-3.954518E-3	2.139768E-3	-3.949713E-3	1.041863E-3	-2.375630E-3	5.025604E-3	1.124233E-3	-2.860827E-3	4.580994E-3	-1.530144E-3	-7.783288E-3	2.804912E-4	2.512072E-3	-7.802006E-4	2.723506E-3	-6.449307E-3	-4.369359E-3	-1.178940E-3	-3.064113E-3	-3.066128E-3	5.103672E-3	2.008176E-3	4.143669E-3	-8.146614E-3	-4.407339E-3	-3.643886E-4	3.422255E-3	3.279180E-3	-1.669963E-3	5.858609E-3	5.239850E-3	-5.182617E-3	1.035977E-3	2.047965E-3	5.334607E-3	-1.485114E-4	1.017073E-2	-1.995552E-3	8.387557E-3	-5.055986E-3	-8.616488E-5	1.644420E-3	-6.615026E-3	-2.960069E-3	-7.114949E-3	-2.273921E-3	-3.593586E-3	-2.391455E-3	-7.812817E-4	1.154621E-3	-8.661035E-3	-3.734007E-3	-1.143738E-2	-6.416347E-3	3.376037E-3	3.495872E-3	4.394462E-3	-2.094677E-3	4.389950E-4	5.063035E-3	-4.910012E-3	1.150542E-3	1.222164E-2	1.035537E-2	2.488420E-3	-1.394061E-3	-1.567682E-3	-5.276892E-3	4.363873E-4	-4.131898E-3	6.678210E-4	-2.205336E-3	-6.380639E-3	1.330668E-3	-1.538315E-3	-9.420304E-5	3.183964E-3	5.182787E-3	-6.073823E-3
5.320120E+2	3.342208E-3	8.544432E-3	4.806752E-3	-7.624587E-3	-3.325252E-3	-2.659557E-3	-3.495944E-3	4.806288E-3	-3.875417E-3	5.549278E-3	8.642171E-3	-2.689163E-3	6.730642E-4	1.579217E-3	2.338033E-3	3.461775E-3	4.301897E-3	-2.583559E-3	1.117673E-2	-5.123570E-3	7.077833E-3	1.134218E-3	-1.891595E-3	-3.896387E-3	5.594958E-3	-2.669479E-3	5.465250E-3	7.575851E-3	1.304343E-3	5.558388E-3	-3.011645E-3	-5.747386E-3	2.513527E-3	3.178411E-3	3.640246E-3	1.744974E-3	-2.381385E-3	8.453553E-4	-2.975013E-3	6.317826E-3	9.036903E-3	3.007116E-3	2.847893E-3	1.490068E-3	1.782929E-3	6.011928E-3	2.261867E-3	1.991103E-3	3.369445E-3	5.192747E-3	1.927247E-3	9.508412E-3	8.658449E-3	2.420974E-3	-1.755189E-3	5.938128E-4	5.132899E-3	8.824157E-3	-7.415351E-3	3.111883E-3	6.063197E-3	3.565833E-3	1.044746E-2	3.240469E-3	-1.211394E-3	4.976742E-3	7.280382E-3	4.236109E-3	1.357229E-2	6.281663E-3	-3.880984E-3	7.513049E-4	6.135973E-3	6.045810E-3	6.725709E-3	4.748358E-4	2.124512E-3	9.838468E-4	1.149278E-3	7.988705E-3	7.527808E-4	5.904471E-3	-4.319605E-3	1.602193E-3	2.534092E-3	3.925366E-3	1.025083E-2	5.350158E-3	-1.282408E-4	6.043954E-3	9.771524E-4	-3.691614E-4	4.250607E-3	4.950136E-3	4.194804E-3	3.646288E-3	-2.335298E-3	-1.976136E-3	6.696589E-3	-4.573646E-4	3.411185E-3	1.244310E-2	5.365324E-3	-9.497333E-4	6.614532E-3	-4.497242E-3	1.549545E-2	4.049738E-3	4.142321E-3	8.468848E-3	3.204553E-3	-3.663027E-3	-3.682568E-4	7.598474E-3	-4.991320E-3	3.787747E-3	-5.539133E-4	-4.260661E-3	-1.947881E-3	-2.736772E-4	2.951577E-3	1.969033E-3	4.319210E-5	1.049647E-2	5.011456E-3	1.441773E-2	7.312266E-3	3.180044E-3	4.341387E-3	-2.544480E-3	6.259372E-4	-8.307399E-3	4.531034E-3	3.712255E-3	-2.582541E-3	1.329503E-2	1.359997E-2	3.247539E-3	9.425930E-4	2.610558E-3	5.384697E-3	7.164977E-3	-1.550907E-3	2.579244E-3	3.733917E-3	1.311727E-3	-1.288719E-3	4.789378E-3	5.026735E-3	8.183500E-4	-3.207448E-4	9.651498E-3	-5.088978E-3	2.255454E-3	1.892840E-3	-4.205981E-4	2.038577E-3	1.477908E-2	-2.664654E-3	3.345220E-3	4.101439E-3	9.897677E-3	6.621276E-3	-8.288056E-4	9.325927E-3	-2.007267E-4	3.446814E-3	1.429431E-3	2.010101E-3	-1.011888E-2
5.325120E+2	1.125507E-2	7.144432E-3	3.342415E-3	1.234076E-2	9.537623E-3	5.846298E-3	9.562087E-3	5.477358E-3	1.277872E-4	1.199081E-2	7.620979E-3	9.679229E-3	7.634745E-3	5.904959E-3	8.145346E-3	1.362087E-2	1.079243E-2	1.200948E-2	8.504195E-3	1.398749E-2	6.203543E-3	9.872697E-3	6.704911E-3	7.584480E-3	1.650587E-2	2.038295E-2	8.870678E-3	1.166859E-3	4.564652E-3	2.017393E-2	1.403541E-2	8.432438E-3	1.257642E-2	1.349127E-2	1.472450E-2	1.647692E-2	4.471686E-3	1.471059E-2	1.482562E-2	1.176067E-2	1.570077E-3	1.081173E-2	5.329554E-3	1.279488E-2	7.141948E-3	1.310553E-2	1.220101E-2	8.674623E-3	1.465852E-2	5.136620E-3	9.969702E-3	2.595505E-3	1.525080E-2	1.443039E-2	4.306963E-3	9.196558E-3	1.097379E-2	1.564549E-2	1.662224E-2	1.283037E-2	4.425905E-3	8.811088E-3	1.830915E-2	9.173238E-3	1.384129E-2	6.294164E-3	6.441878E-4	1.499871E-2	1.099925E-2	4.843508E-3	1.270340E-2	1.976343E-2	5.737488E-3	1.113086E-2	1.284398E-2	7.850330E-3	5.461905E-3	6.056019E-3	1.733159E-2	1.094546E-2	8.118352E-3	-5.539167E-4	1.862462E-2	1.069803E-2	8.961983E-3	1.264209E-2	-3.704917E-5	2.100763E-2	1.067602E-2	9.471209E-3	1.424444E-2	8.990646E-3	1.798510E-2	1.368567E-2	1.907092E-2	2.300988E-2	6.599792E-3	9.710044E-3	7.904785E-3	7.358520E-3	1.678468E-2	3.317244E-3	8.355379E-3	1.344542E-2	3.131786E-3	1.055574E-2	6.799484E-3	1.738966E-2	1.576137E-2	1.461926E-2	2.659153E-2	1.458613E-2	1.140262E-2	3.953200E-3	5.486020E-3	1.671038E-2	1.133859E-2	1.316595E-2	1.354025E-2	7.972238E-3	2.466094E-3	1.371471E-2	2.950121E-3	1.254414E-2	4.103374E-3	5.174068E-3	1.155724E-2	5.619940E-3	8.863722E-3	1.672306E-2	1.847788E-2	2.236163E-3	5.189150E-3	8.254875E-3	1.464666E-2	3.636703E-3	1.503409E-2	8.009542E-3	1.027203E-2	1.970470E-3	1.057201E-2	1.412113E-2	6.136662E-3	3.701596E-3	1.195009E-2	1.128944E-2	2.786015E-3	-6.722842E-4	1.541995E-2	1.183259E-2	1.307302E-2	1.252915E-2	1.895522E-2	4.629314E-3	2.395852E-3	2.354355E-3	1.318144E-2	5.587778E-3	1.417640E-2	9.827521E-3	9.600292E-3	5.815417E-3	1.497940E-2	2.061918E-2	1.242621E-2	1.736586E-2	1.757382E-2	1.058854E-2	8.260535E-3	-1.195144E-3
5.330280E+2	1.207934E-2	2.775959E-2	1.827698E-2	2.214168E-2	2.401922E-2	3.509673E-2	2.843182E-2	2.961202E-2	2.749407E-2	1.938697E-2	2.664381E-2	2.358106E-2	2.524322E-2	1.717655E-2	2.351891E-2	2.120054E-2	1.982002E-2	1.638977E-2	3.066633E-2	2.611158E-2	3.779399E-2	2.695819E-2	2.151489E-2	1.432357E-2	2.765315E-2	1.714401E-2	2.718909E-2	2.539548E-2	1.403189E-2	1.840854E-2	3.456995E-2	2.615853E-2	2.762119E-2	1.886979E-2	1.971530E-2	1.451403E-2	1.428551E-2	2.636413E-2	2.578109E-2	1.568642E-2	3.472515E-2	1.827840E-2	1.800279E-2	2.099558E-2	1.864647E-2	2.111661E-2	2.971049E-2	2.352482E-2	2.891412E-2	2.311456E-2	3.703523E-2	3.137703E-2	2.649912E-2	2.651030E-2	2.985659E-2	1.698943E-2	1.790645E-2	2.516049E-2	3.138868E-2	1.707305E-2	2.571924E-2	2.649649E-2	2.362518E-2	2.709645E-2	1.514845E-2	1.652755E-2	1.806551E-2	9.703079E-3	3.297963E-2	2.127528E-2	2.188414E-2	2.238030E-2	2.719696E-2	1.544593E-2	3.167799E-2	2.922322E-2	2.291789E-2	1.655330E-2	3.129145E-2	5.428488E-3	2.300602E-2	2.097848E-2	3.300618E-2	2.350632E-2	3.816515E-2	2.503924E-2	3.170595E-2	1.481986E-2	1.633951E-2	1.762544E-2	3.309068E-2	2.394852E-2	4.222548E-2	1.544957E-2	3.007824E-2	3.720455E-2	2.325225E-2	1.810966E-2	2.945211E-2	2.253626E-2	1.598364E-2	2.587437E-2	2.941109E-2	2.765776E-2	3.363975E-2	2.607543E-2	1.465549E-2	2.292761E-2	2.947001E-2	1.522604E-2	1.716276E-2	2.913432E-2	2.914699E-2	1.887460E-2	2.728158E-2	1.777108E-2	1.791618E-2	3.007751E-2	2.203348E-2	1.911579E-2	2.484806E-2	1.796862E-2	4.553393E-2	1.952321E-2	2.525446E-2	2.418046E-2	3.000838E-2	2.198564E-2	2.299194E-2	2.660064E-2	1.468878E-2	1.556167E-2	2.942584E-2	3.192515E-2	3.615070E-2	2.491577E-2	2.188108E-2	3.276270E-2	2.428142E-2	3.333262E-2	2.526188E-2	1.885875E-2	2.747825E-2	1.896488E-2	1.986140E-2	2.500931E-2	2.821848E-2	2.715203E-2	1.232052E-2	2.434529E-2	2.925768E-2	2.522530E-2	2.095004E-2	2.423572E-2	1.630848E-2	2.592355E-2	2.393852E-2	3.149975E-2	2.575053E-2	2.898732E-2	3.074487E-2	3.255753E-2	1.474401E-2	7.018051E-3	3.302276E-2	3.148473E-2	2.287821E-2	2.934756E-2	1.315175E-2	1.229900E-2
5.331580E+2	2.599431E-2	1.996737E-2	3.138892E-2	3.894111E-2	3.765114E-2	2.705078E-2	2.193194E-2	2.815063E-2	4.286483E-2	3.236783E-2	2.318593E-2	4.117377E-2	3.902070E-2	3.091051E-2	2.530490E-2	3.245756E-2	2.621131E-2	3.453600E-2	3.407427E-2	3.010478E-2	2.512411E-2	3.363988E-2	1.565303E-2	2.282783E-2	4.540100E-2	3.118686E-2	4.415820E-2	4.989066E-2	2.806977E-2	3.752875E-2	4.794673E-2	3.307876E-2	2.000703E-2	3.297182E-2	2.761206E-2	2.414939E-2	2.911997E-2	4.318711E-2	1.835166E-2	2.454380E-2	3.478470E-2	2.812053E-2	4.092495E-2	2.104092E-2	3.574584E-2	3.234768E-2	3.606113E-2	3.162879E-2	2.672921E-2	2.600364E-2	3.366983E-2	2.851983E-2	2.551580E-2	3.515781E-2	3.046075E-2	3.258612E-2	2.821465E-2	3.124182E-2	3.745760E-2	3.684022E-2	2.775189E-2	3.211328E-2	2.988329E-2	2.974768E-2	3.481654E-2	2.909362E-2	3.817780E-2	3.485589E-2	3.636618E-2	1.768901E-2	3.026001E-2	2.629956E-2	3.170364E-2	3.916361E-2	3.588156E-2	1.449126E-2	2.511314E-2	3.761634E-2	2.732714E-2	3.776028E-2	2.364195E-2	2.993358E-2	4.314117E-2	3.719844E-2	3.939334E-2	3.142631E-2	3.581563E-2	1.439391E-2	3.303470E-2	3.633628E-2	2.947767E-2	3.427669E-2	2.739970E-2	3.683121E-2	3.249600E-2	4.090967E-2	3.901494E-2	3.114566E-2	4.295957E-2	3.182849E-2	2.992015E-2	3.137438E-2	2.531921E-2	3.384658E-2	4.108980E-2	3.277767E-2	5.101789E-2	3.182723E-2	3.317737E-2	2.877993E-2	3.429116E-2	1.730129E-2	3.990631E-2	2.304969E-2	2.632474E-2	4.402259E-2	4.121405E-2	2.333825E-2	3.954911E-2	2.352802E-2	2.658362E-2	2.381100E-2	2.881438E-2	2.094480E-2	3.394484E-2	4.801194E-2	2.221347E-2	4.333755E-2	3.201033E-2	1.777752E-2	3.226637E-2	1.493943E-2	2.589881E-2	3.487020E-2	2.456422E-2	3.657155E-2	1.652114E-2	2.972538E-2	3.653781E-2	2.739149E-2	3.039460E-2	2.589806E-2	2.444490E-2	3.189889E-2	2.409534E-2	3.601302E-2	3.090603E-2	3.498432E-2	2.500094E-2	2.561616E-2	2.941979E-2	2.842255E-2	3.506560E-2	3.796130E-2	3.392880E-2	2.989428E-2	3.190151E-2	2.882405E-2	3.832567E-2	2.069389E-2	2.961015E-2	3.007565E-2	2.943972E-2	2.217377E-2	3.250426E-2	4.659839E-2	4.513938E-2	4.213244E-2	4.279351E-2	1.432127E-2
5.333130E+2	2.749762E-2	3.799294E-2	2.445131E-2	3.433802E-2	3.693948E-2	5.705929E-2	4.096349E-2	3.315527E-2	3.459952E-2	3.985956E-2	4.119014E-2	3.708134E-2	4.176514E-2	4.341968E-2	3.092778E-2	4.076036E-2	3.981937E-2	3.084007E-2	4.518468E-2	2.259595E-2	3.671951E-2	4.225641E-2	5.217225E-2	3.920066E-2	4.070885E-2	4.162797E-2	3.913223E-2	2.990364E-2	4.306415E-2	3.495517E-2	3.931583E-2	4.464469E-2	3.161794E-2	4.580733E-2	3.377344E-2	2.963463E-2	4.119481E-2	3.983149E-2	2.948898E-2	3.843931E-2	4.600207E-2	2.905716E-2	4.196034E-2	3.782390E-2	3.027887E-2	2.985420E-2	4.108304E-2	3.255053E-2	4.002289E-2	3.782910E-2	2.893386E-2	4.813477E-2	2.959624E-2	3.343666E-2	4.190414E-2	4.508758E-2	4.098028E-2	4.928184E-2	4.999890E-2	3.559689E-2	3.358461E-2	1.937155E-2	3.590908E-2	3.642529E-2	4.354154E-2	4.158492E-2	3.249016E-2	4.258574E-2	4.682551E-2	3.061122E-2	3.957550E-2	4.411634E-2	3.211789E-2	4.788318E-2	4.883750E-2	3.365870E-2	3.034385E-2	3.519741E-2	2.152386E-2	3.271771E-2	5.846561E-2	4.596341E-2	4.236611E-2	5.008764E-2	4.395021E-2	3.859432E-2	2.748664E-2	3.000389E-2	3.883769E-2	3.511445E-2	6.158086E-2	3.580291E-2	4.150563E-2	4.097227E-2	4.597292E-2	5.235329E-2	3.884660E-2	4.223104E-2	4.990420E-2	4.335286E-2	3.018038E-2	4.478085E-2	3.248314E-2	3.993616E-2	2.227624E-2	3.059149E-2	3.850165E-2	3.740622E-2	5.168004E-2	3.686609E-2	4.867869E-2	3.270713E-2	4.716108E-2	2.810440E-2	3.577186E-2	4.385585E-2	4.287765E-2	3.762925E-2	2.771930E-2	4.411636E-2	4.140022E-2	2.312333E-2	3.786286E-2	4.446567E-2	4.732098E-2	3.027472E-2	4.384542E-2	3.696867E-2	4.081070E-2	3.333503E-2	3.872835E-2	4.803627E-2	4.830273E-2	2.476263E-2	3.338253E-2	3.539201E-2	4.101158E-2	4.268623E-2	3.233286E-2	3.640442E-2	3.787292E-2	3.879693E-2	3.356196E-2	2.646308E-2	3.100158E-2	4.571330E-2	4.974311E-2	4.142143E-2	4.269248E-2	4.799803E-2	5.389935E-2	3.146877E-2	3.947701E-2	4.989872E-2	5.408095E-2	3.929958E-2	4.139165E-2	4.051629E-2	3.672907E-2	2.592592E-2	3.695480E-2	5.398596E-2	4.275936E-2	3.425327E-2	3.660298E-2	3.022628E-2	3.893088E-2	3.948461E-2	4.333510E-2	2.637540E-2
5.334630E+2	5.423305E-2	4.942481E-2	4.863792E-2	5.899323E-2	5.273243E-2	5.460725E-2	5.247073E-2	5.414556E-2	4.373605E-2	6.644604E-2	5.936165E-2	4.543569E-2	4.871795E-2	5.212968E-2	4.883398E-2	4.510479E-2	6.297379E-2	5.429050E-2	5.699590E-2	4.338814E-2	4.625397E-2	6.129758E-2	5.381223E-2	4.467985E-2	4.105434E-2	5.674064E-2	6.549002E-2	5.786357E-2	5.437394E-2	5.313620E-2	6.073701E-2	5.953132E-2	3.726115E-2	5.418314E-2	5.744796E-2	6.369316E-2	5.231614E-2	5.556336E-2	6.297155E-2	3.845602E-2	6.331359E-2	5.707995E-2	5.597285E-2	5.471687E-2	5.162683E-2	4.449556E-2	6.640717E-2	5.280900E-2	5.001736E-2	6.532957E-2	6.092819E-2	5.323874E-2	5.598054E-2	3.868227E-2	4.677177E-2	6.486875E-2	5.388209E-2	4.918457E-2	5.347102E-2	6.167732E-2	6.976364E-2	4.112579E-2	5.006217E-2	5.263212E-2	4.713045E-2	6.999799E-2	3.765819E-2	5.717107E-2	7.259205E-2	5.262872E-2	5.793772E-2	4.804225E-2	4.710118E-2	4.262513E-2	5.948144E-2	5.411839E-2	5.401998E-2	6.663766E-2	4.454101E-2	5.723020E-2	6.324203E-2	6.548577E-2	4.713159E-2	5.497383E-2	4.482480E-2	4.959576E-2	4.707368E-2	5.183498E-2	6.032948E-2	4.601809E-2	6.146442E-2	5.601109E-2	6.326417E-2	5.789537E-2	5.094621E-2	4.975930E-2	5.610236E-2	6.529447E-2	6.559334E-2	4.850601E-2	3.686842E-2	4.957211E-2	5.243730E-2	5.444699E-2	5.154486E-2	5.758201E-2	6.472573E-2	4.248451E-2	4.601801E-2	5.527511E-2	5.276575E-2	4.455430E-2	6.410463E-2	4.645793E-2	5.661993E-2	5.078234E-2	4.734479E-2	6.951991E-2	5.461602E-2	5.178091E-2	4.684309E-2	5.962886E-2	4.686330E-2	3.949831E-2	4.784293E-2	5.569202E-2	6.199759E-2	3.737793E-2	3.673354E-2	5.354062E-2	5.606192E-2	4.566660E-2	5.728030E-2	6.717374E-2	6.087721E-2	5.479278E-2	5.363646E-2	5.812829E-2	4.888576E-2	6.017924E-2	5.651208E-2	5.714234E-2	5.470507E-2	5.981784E-2	5.559350E-2	5.705711E-2	4.429226E-2	5.445448E-2	5.298812E-2	5.362002E-2	6.312834E-2	4.390989E-2	5.466772E-2	5.150260E-2	4.881253E-2	3.406773E-2	5.888427E-2	3.999251E-2	5.437561E-2	6.248975E-2	6.709642E-2	5.783239E-2	4.653851E-2	4.574692E-2	5.203852E-2	4.935515E-2	4.674473E-2	5.899291E-2	7.022461E-2	6.372344E-2
5.336080E+2	8.231539E-2	5.902270E-2	6.783976E-2	6.984332E-2	6.554125E-2	8.164286E-2	7.140783E-2	7.627700E-2	6.558774E-2	8.381031E-2	6.487851E-2	7.196748E-2	8.522542E-2	7.824553E-2	6.434743E-2	7.191926E-2	6.742856E-2	6.791393E-2	6.581049E-2	4.538617E-2	6.998407E-2	7.985511E-2	6.759205E-2	7.091519E-2	7.418028E-2	8.255555E-2	7.388287E-2	9.035130E-2	5.998830E-2	7.248074E-2	7.010196E-2	7.031358E-2	6.729563E-2	6.122125E-2	6.618580E-2	6.781209E-2	8.547153E-2	7.920553E-2	4.855318E-2	7.917847E-2	7.376802E-2	5.666725E-2	8.400725E-2	6.913783E-2	7.170760E-2	7.156399E-2	7.410640E-2	7.473597E-2	7.388881E-2	6.776751E-2	8.240382E-2	8.271428E-2	8.248233E-2	7.842863E-2	6.584397E-2	7.755096E-2	8.344575E-2	6.818944E-2	6.950624E-2	7.032446E-2	7.416290E-2	7.742039E-2	6.294085E-2	6.533223E-2	7.751283E-2	7.301769E-2	7.728181E-2	6.240866E-2	7.548124E-2	6.800565E-2	6.708566E-2	6.126848E-2	7.033568E-2	7.653599E-2	6.630630E-2	5.894991E-2	7.846586E-2	7.721721E-2	5.669231E-2	7.704981E-2	5.788030E-2	6.716572E-2	8.055885E-2	5.181500E-2	7.598872E-2	6.518675E-2	6.252722E-2	5.988507E-2	5.882371E-2	6.619781E-2	5.378904E-2	7.752273E-2	7.953064E-2	6.272861E-2	6.490659E-2	5.569895E-2	6.529582E-2	8.584766E-2	6.041919E-2	8.403356E-2	8.254021E-2	6.818105E-2	7.473449E-2	7.472956E-2	5.538725E-2	8.028463E-2	6.715211E-2	8.285887E-2	7.098633E-2	6.355513E-2	6.825932E-2	8.279000E-2	8.174941E-2	7.384581E-2	6.309476E-2	7.826804E-2	8.585495E-2	6.097940E-2	7.695230E-2	6.125782E-2	5.875868E-2	5.868946E-2	5.839709E-2	6.976543E-2	8.524581E-2	6.771274E-2	7.562495E-2	6.889261E-2	5.492108E-2	5.884688E-2	7.560122E-2	7.824017E-2	7.212856E-2	7.901733E-2	6.837316E-2	7.721678E-2	6.098041E-2	8.956551E-2	7.927359E-2	7.636680E-2	8.824988E-2	6.248507E-2	7.023671E-2	7.880802E-2	7.702748E-2	7.671299E-2	7.708032E-2	7.340620E-2	5.556060E-2	7.938117E-2	6.268110E-2	8.479800E-2	8.313986E-2	7.429459E-2	7.426299E-2	6.457492E-2	6.905459E-2	5.639503E-2	8.725145E-2	7.369012E-2	7.717975E-2	6.448028E-2	6.643421E-2	7.827289E-2	7.455626E-2	8.323919E-2	8.317701E-2	6.762428E-2	5.795197E-2	6.623040E-2
5.337630E+2	1.055728E-1	1.023568E-1	7.851132E-2	8.625478E-2	9.360541E-2	9.633480E-2	8.973768E-2	1.032676E-1	9.103411E-2	1.011760E-1	1.063553E-1	9.208809E-2	1.153025E-1	1.083665E-1	9.251889E-2	9.242219E-2	8.733174E-2	1.105545E-1	1.101732E-1	8.348258E-2	1.040153E-1	1.007436E-1	9.767644E-2	9.481307E-2	1.119888E-1	1.005482E-1	1.094158E-1	1.088017E-1	1.244636E-1	1.037250E-1	1.113198E-1	1.020169E-1	9.353235E-2	1.130562E-1	9.281568E-2	9.298892E-2	8.405625E-2	1.045908E-1	1.159610E-1	1.124634E-1	1.110033E-1	1.048235E-1	1.055491E-1	1.000358E-1	1.053249E-1	9.592189E-2	9.103417E-2	1.060810E-1	1.051091E-1	1.035542E-1	1.092241E-1	1.127948E-1	8.803616E-2	9.985848E-2	8.208229E-2	1.032235E-1	9.203642E-2	9.326712E-2	9.758420E-2	7.838368E-2	9.628642E-2	1.104387E-1	1.033022E-1	9.072890E-2	1.143891E-1	9.761043E-2	1.070918E-1	1.014944E-1	9.978587E-2	1.003933E-1	1.032166E-1	1.039576E-1	1.082520E-1	1.044093E-1	1.144715E-1	9.519809E-2	1.074465E-1	9.592403E-2	7.377851E-2	9.441221E-2	8.681158E-2	1.012237E-1	9.266187E-2	1.034113E-1	1.231595E-1	9.733531E-2	1.078492E-1	9.304876E-2	8.605289E-2	9.070058E-2	9.666847E-2	7.928357E-2	1.096238E-1	8.291579E-2	1.145170E-1	9.837303E-2	1.141246E-1	1.071305E-1	1.035839E-1	1.034550E-1	1.014205E-1	1.059236E-1	1.017810E-1	1.036262E-1	1.040142E-1	9.836503E-2	1.125210E-1	9.369490E-2	9.869949E-2	1.006426E-1	1.079534E-1	9.927338E-2	1.160158E-1	9.721718E-2	1.144113E-1	9.939663E-2	1.027107E-1	9.126620E-2	1.068533E-1	9.486522E-2	1.000495E-1	1.074036E-1	1.129853E-1	9.095209E-2	1.115666E-1	1.059750E-1	9.399533E-2	1.062174E-1	1.042780E-1	9.285631E-2	9.198514E-2	1.084171E-1	1.018864E-1	9.994530E-2	1.210703E-1	9.245768E-2	1.075157E-1	1.251871E-1	9.559839E-2	9.922324E-2	9.870918E-2	1.046722E-1	1.119231E-1	1.066306E-1	1.150418E-1	9.517216E-2	1.051069E-1	1.060506E-1	1.013599E-1	8.405356E-2	9.671437E-2	1.018911E-1	1.003791E-1	1.195435E-1	9.616499E-2	8.651347E-2	1.091323E-1	1.165643E-1	1.076033E-1	1.026630E-1	1.169592E-1	1.004907E-1	9.348245E-2	9.069735E-2	1.060182E-1	9.723192E-2	1.163964E-1	1.034558E-1	1.202025E-1	5.680523E-2
5.339140E+2	1.379818E-1	1.614018E-1	1.603296E-1	1.523579E-1	1.519684E-1	1.671491E-1	1.617644E-1	1.433859E-1	1.615352E-1	1.473794E-1	1.300886E-1	1.507426E-1	1.713517E-1	1.756936E-1	1.628930E-1	1.750085E-1	1.427689E-1	1.473398E-1	1.651531E-1	1.550659E-1	1.692608E-1	1.660440E-1	1.395458E-1	1.346404E-1	1.917688E-1	1.871086E-1	1.836811E-1	1.754688E-1	1.671266E-1	1.588463E-1	1.649239E-1	1.847685E-1	1.602915E-1	1.803923E-1	1.539079E-1	1.529158E-1	1.569223E-1	1.771643E-1	1.632860E-1	1.431338E-1	1.689161E-1	1.587486E-1	1.511417E-1	1.421171E-1	1.588606E-1	1.636926E-1	1.595157E-1	1.572217E-1	1.536868E-1	1.862111E-1	1.599530E-1	1.845535E-1	1.497065E-1	1.521011E-1	1.634804E-1	1.387903E-1	1.603271E-1	1.701100E-1	1.584972E-1	1.566829E-1	1.626295E-1	1.473338E-1	1.592273E-1	1.550666E-1	1.621401E-1	1.505139E-1	1.668077E-1	1.489208E-1	1.543435E-1	1.623777E-1	1.776975E-1	1.436451E-1	1.562015E-1	1.598524E-1	1.649636E-1	1.550453E-1	1.536162E-1	1.489083E-1	1.714375E-1	1.556251E-1	1.652784E-1	1.650492E-1	1.745148E-1	1.645368E-1	1.371691E-1	1.481865E-1	1.590429E-1	1.715953E-1	1.475785E-1	1.401111E-1	1.605256E-1	1.758730E-1	1.701969E-1	1.693565E-1	1.479021E-1	1.566187E-1	1.469205E-1	1.579604E-1	1.384213E-1	1.718925E-1	1.551024E-1	1.527251E-1	1.644911E-1	1.639853E-1	1.721731E-1	1.600154E-1	1.785966E-1	1.581202E-1	1.611720E-1	1.670244E-1	1.522687E-1	1.566826E-1	1.522316E-1	1.505876E-1	1.432436E-1	1.600881E-1	1.519991E-1	1.447463E-1	1.631714E-1	1.564653E-1	1.732844E-1	1.388910E-1	1.869544E-1	1.498159E-1	1.675703E-1	1.576999E-1	1.593410E-1	1.532153E-1	1.705750E-1	1.603666E-1	1.701270E-1	1.526295E-1	1.745105E-1	1.764811E-1	1.777380E-1	1.573377E-1	1.371881E-1	1.324660E-1	1.588553E-1	1.514041E-1	1.672217E-1	1.631702E-1	1.657330E-1	1.543110E-1	1.455807E-1	1.757338E-1	1.848542E-1	1.682128E-1	1.552349E-1	1.386735E-1	1.440353E-1	1.630343E-1	1.537410E-1	1.736084E-1	1.512240E-1	1.700214E-1	1.511595E-1	1.589481E-1	1.716108E-1	1.518040E-1	1.507608E-1	1.549110E-1	1.667520E-1	1.631074E-1	1.577895E-1	1.428814E-1	1.511010E-1	1.671766E-1	1.758831E-1	1.578697E-1
5.340800E+2	2.539998E-1	2.809516E-1	2.569774E-1	2.634528E-1	2.790588E-1	2.679867E-1	2.571093E-1	2.689233E-1	2.767557E-1	2.517822E-1	2.579909E-1	2.627044E-1	2.775780E-1	2.540220E-1	2.720690E-1	2.784037E-1	2.530207E-1	2.770873E-1	2.889474E-1	2.548863E-1	2.749593E-1	2.587812E-1	2.854216E-1	2.659763E-1	3.230983E-1	2.989830E-1	2.882304E-1	2.878191E-1	3.119809E-1	2.493068E-1	3.046846E-1	2.826543E-1	2.952807E-1	2.823425E-1	2.864818E-1	2.661517E-1	2.880540E-1	2.817287E-1	2.673850E-1	2.972720E-1	2.645565E-1	2.930529E-1	2.972271E-1	2.612462E-1	2.640941E-1	2.860060E-1	2.847046E-1	2.787050E-1	2.753787E-1	2.869657E-1	2.708173E-1	2.692134E-1	2.659203E-1	2.558220E-1	2.729502E-1	2.548118E-1	2.856380E-1	2.569313E-1	2.942739E-1	2.719247E-1	3.074120E-1	2.872316E-1	2.812457E-1	2.431889E-1	2.904293E-1	2.810212E-1	2.780471E-1	2.869426E-1	3.064785E-1	2.704790E-1	2.883202E-1	2.910327E-1	2.784841E-1	2.919383E-1	2.675189E-1	2.730037E-1	2.899712E-1	2.774341E-1	2.701876E-1	2.534280E-1	2.995139E-1	2.812240E-1	2.892624E-1	2.688220E-1	2.856904E-1	2.764607E-1	2.646365E-1	2.856373E-1	2.814820E-1	2.663316E-1	2.988238E-1	2.607946E-1	3.279074E-1	2.818563E-1	2.919251E-1	2.790883E-1	2.730964E-1	3.160065E-1	2.893525E-1	2.646948E-1	2.947052E-1	3.114634E-1	2.841647E-1	2.658104E-1	2.868099E-1	2.864154E-1	2.872648E-1	2.817579E-1	2.616922E-1	3.004016E-1	2.870708E-1	2.732579E-1	2.650036E-1	2.800598E-1	2.943567E-1	3.059153E-1	2.672408E-1	2.877109E-1	2.879469E-1	3.016286E-1	2.712031E-1	2.677854E-1	2.833341E-1	2.759217E-1	2.769220E-1	2.858670E-1	2.598767E-1	2.950655E-1	2.757501E-1	2.575595E-1	2.818943E-1	2.863166E-1	2.975574E-1	2.783771E-1	2.774630E-1	2.684151E-1	2.971929E-1	2.779257E-1	2.940344E-1	2.676053E-1	2.819486E-1	2.866453E-1	3.066196E-1	2.816396E-1	2.853263E-1	2.591404E-1	2.806590E-1	2.693722E-1	2.664058E-1	2.831420E-1	2.758944E-1	2.872854E-1	2.683780E-1	3.006399E-1	2.804551E-1	2.647912E-1	2.846789E-1	2.887576E-1	2.778944E-1	2.864984E-1	3.034105E-1	2.486991E-1	2.992417E-1	2.837233E-1	3.045373E-1	2.921399E-1	3.099098E-1	2.615889E-1	2.813235E-1	2.775533E-1
5.342090E+2	4.342610E-1	4.387115E-1	4.341241E-1	4.324398E-1	4.625141E-1	4.476665E-1	4.281428E-1	4.569900E-1	4.261785E-1	4.387899E-1	4.451109E-1	4.405560E-1	4.508804E-1	4.825991E-1	4.464211E-1	4.823975E-1	4.501482E-1	4.455345E-1	4.306711E-1	4.543939E-1	4.590271E-1	4.611921E-1	4.459638E-1	4.371780E-1	4.874467E-1	4.944180E-1	5.040340E-1	4.608198E-1	5.065178E-1	4.791084E-1	4.855595E-1	4.848248E-1	5.038893E-1	5.207245E-1	4.464642E-1	4.903816E-1	4.685837E-1	5.132498E-1	5.094315E-1	4.610706E-1	5.156448E-1	4.681390E-1	4.632377E-1	5.032832E-1	4.307545E-1	4.295839E-1	4.843046E-1	4.713829E-1	4.672960E-1	4.955117E-1	4.938396E-1	4.595998E-1	4.965873E-1	4.571840E-1	4.975055E-1	4.431485E-1	4.726260E-1	4.669286E-1	4.638843E-1	4.537987E-1	4.768260E-1	4.768698E-1	4.601793E-1	4.737904E-1	4.720046E-1	4.479820E-1	4.786438E-1	4.779918E-1	4.699260E-1	4.576434E-1	4.649242E-1	4.363699E-1	4.888897E-1	4.835069E-1	4.706536E-1	4.838038E-1	4.807055E-1	4.614408E-1	5.008195E-1	4.664829E-1	4.459181E-1	4.679464E-1	4.384338E-1	4.737849E-1	4.634625E-1	4.603295E-1	4.496661E-1	4.905075E-1	4.858117E-1	4.829555E-1	4.827351E-1	4.630132E-1	5.007897E-1	4.686350E-1	4.753325E-1	4.403057E-1	4.519445E-1	4.585921E-1	4.407326E-1	4.333115E-1	4.900359E-1	4.781222E-1	4.592528E-1	4.829419E-1	4.990489E-1	4.364339E-1	4.690978E-1	4.526756E-1	4.409190E-1	4.624036E-1	4.909920E-1	4.652234E-1	4.885012E-1	4.606262E-1	4.645938E-1	4.801230E-1	4.383506E-1	4.697038E-1	4.638595E-1	4.980505E-1	4.607294E-1	4.847513E-1	4.427001E-1	4.754872E-1	4.527056E-1	4.783230E-1	5.106323E-1	4.476879E-1	4.496025E-1	4.619954E-1	4.257585E-1	4.484869E-1	4.545405E-1	4.531878E-1	4.472519E-1	4.757419E-1	4.826357E-1	4.629375E-1	4.916189E-1	5.040840E-1	4.769241E-1	4.909315E-1	4.434494E-1	4.819441E-1	4.629710E-1	4.623714E-1	4.493572E-1	4.764169E-1	5.248160E-1	4.181760E-1	4.428325E-1	4.699395E-1	4.755803E-1	4.687467E-1	5.067851E-1	4.644911E-1	4.764364E-1	4.696755E-1	4.322260E-1	4.982860E-1	4.314305E-1	4.235824E-1	4.648234E-1	4.296541E-1	4.821083E-1	4.478584E-1	4.407544E-1	4.767028E-1	4.597022E-1	4.649695E-1
5.343550E+2	7.833182E-1	7.651370E-1	7.844825E-1	7.402052E-1	7.687471E-1	7.940212E-1	7.695587E-1	8.152490E-1	7.665988E-1	8.229262E-1	7.925963E-1	7.828629E-1	7.575563E-1	7.801278E-1	7.490105E-1	8.031458E-1	7.748570E-1	7.822155E-1	7.576853E-1	8.353110E-1	8.101576E-1	8.136321E-1	8.214950E-1	7.590657E-1	8.632185E-1	8.716069E-1	8.058533E-1	8.200766E-1	8.502032E-1	8.141414E-1	7.975173E-1	8.377042E-1	8.270410E-1	8.322064E-1	7.977501E-1	8.146060E-1	8.271641E-1	7.995953E-1	8.125700E-1	7.807011E-1	8.249917E-1	8.101798E-1	7.915543E-1	8.042816E-1	8.121517E-1	8.115842E-1	7.994911E-1	8.056303E-1	7.706499E-1	8.453108E-1	7.928044E-1	7.974897E-1	8.284032E-1	8.493907E-1	8.156683E-1	8.175929E-1	8.247006E-1	8.264967E-1	7.953821E-1	8.468520E-1	8.053862E-1	8.031922E-1	7.712644E-1	8.038899E-1	7.859491E-1	8.174597E-1	7.870028E-1	8.012614E-1	7.929869E-1	7.763982E-1	7.535061E-1	7.855542E-1	7.989248E-1	8.448896E-1	8.042575E-1	7.975337E-1	8.086340E-1	8.142646E-1	7.761004E-1	7.829314E-1	8.307306E-1	7.593451E-1	8.296383E-1	7.784908E-1	7.691521E-1	7.997334E-1	7.914205E-1	8.075716E-1	7.926940E-1	7.987042E-1	8.232681E-1	8.087360E-1	8.011477E-1	7.971623E-1	7.809321E-1	8.155555E-1	7.803024E-1	7.420094E-1	7.909374E-1	7.825135E-1	7.591245E-1	7.946312E-1	7.964471E-1	7.976416E-1	8.053397E-1	8.083178E-1	8.001354E-1	7.712401E-1	7.462486E-1	7.737525E-1	7.570612E-1	7.734011E-1	8.001167E-1	7.947195E-1	7.787987E-1	7.901529E-1	8.436456E-1	7.998377E-1	8.155781E-1	7.693142E-1	7.969902E-1	7.712573E-1	7.930336E-1	8.514807E-1	7.967894E-1	7.841349E-1	7.967424E-1	7.601180E-1	8.042672E-1	7.624083E-1	8.035238E-1	8.095620E-1	8.171993E-1	7.797303E-1	8.065680E-1	8.061064E-1	7.863795E-1	7.790480E-1	8.078268E-1	8.192770E-1	8.117586E-1	7.866189E-1	8.091431E-1	7.689826E-1	7.878563E-1	8.044827E-1	8.096114E-1	7.803551E-1	8.297887E-1	7.746189E-1	7.550308E-1	7.811659E-1	7.696866E-1	7.979135E-1	8.260448E-1	7.946204E-1	7.624118E-1	7.975171E-1	8.228180E-1	7.835054E-1	7.940775E-1	8.050807E-1	7.566912E-1	7.662292E-1	8.262956E-1	7.949266E-1	7.864905E-1	8.407093E-1	8.012607E-1	8.058523E-1
5.345110E+2	1.231959E+0	1.213521E+0	1.237823E+0	1.141932E+0	1.260267E+0	1.247922E+0	1.195184E+0	1.215173E+0	1.219011E+0	1.183345E+0	1.250633E+0	1.248108E+0	1.208945E+0	1.228396E+0	1.244840E+0	1.217371E+0	1.222289E+0	1.236882E+0	1.222245E+0	1.231341E+0	1.195406E+0	1.235063E+0	1.218806E+0	1.232226E+0	1.284861E+0	1.292872E+0	1.291893E+0	1.271644E+0	1.289755E+0	1.251887E+0	1.278353E+0	1.261748E+0	1.345335E+0	1.260694E+0	1.199827E+0	1.229477E+0	1.260712E+0	1.226273E+0	1.327943E+0	1.252037E+0	1.243403E+0	1.215990E+0	1.280738E+0	1.256236E+0	1.219290E+0	1.172713E+0	1.251577E+0	1.271000E+0	1.230953E+0	1.270991E+0	1.211528E+0	1.244250E+0	1.253498E+0	1.234766E+0	1.254823E+0	1.238675E+0	1.209913E+0	1.253416E+0	1.259330E+0	1.258677E+0	1.252611E+0	1.256476E+0	1.233090E+0	1.239055E+0	1.257352E+0	1.246398E+0	1.221153E+0	1.220612E+0	1.196417E+0	1.234996E+0	1.229211E+0	1.259531E+0	1.227330E+0	1.240829E+0	1.234577E+0	1.265656E+0	1.248817E+0	1.208352E+0	1.230729E+0	1.213030E+0	1.220679E+0	1.205231E+0	1.216629E+0	1.214804E+0	1.234925E+0	1.255056E+0	1.184103E+0	1.268335E+0	1.211665E+0	1.229317E+0	1.273501E+0	1.244278E+0	1.246655E+0	1.232844E+0	1.258030E+0	1.271126E+0	1.217599E+0	1.216441E+0	1.295649E+0	1.269757E+0	1.244625E+0	1.156988E+0	1.232185E+0	1.178189E+0	1.246449E+0	1.248687E+0	1.233682E+0	1.211348E+0	1.259687E+0	1.231197E+0	1.234320E+0	1.288854E+0	1.208499E+0	1.227818E+0	1.185578E+0	1.224865E+0	1.270667E+0	1.223638E+0	1.215786E+0	1.259870E+0	1.185888E+0	1.189051E+0	1.235100E+0	1.276513E+0	1.222147E+0	1.198607E+0	1.268085E+0	1.257537E+0	1.194967E+0	1.257490E+0	1.207707E+0	1.196204E+0	1.229098E+0	1.272945E+0	1.170749E+0	1.224088E+0	1.187095E+0	1.204628E+0	1.172564E+0	1.218908E+0	1.211414E+0	1.248586E+0	1.268194E+0	1.259798E+0	1.230069E+0	1.215754E+0	1.219193E+0	1.245917E+0	1.240289E+0	1.340119E+0	1.215690E+0	1.238833E+0	1.200334E+0	1.240288E+0	1.200456E+0	1.184668E+0	1.260562E+0	1.204224E+0	1.217447E+0	1.240445E+0	1.213567E+0	1.231985E+0	1.226551E+0	1.196003E+0	1.276614E+0	1.207422E+0	1.221436E+0	1.271943E+0	1.290638E+0	1.103524E+0
5.346620E+2	1.692478E+0	1.686395E+0	1.685846E+0	1.597860E+0	1.711372E+0	1.681621E+0	1.706424E+0	1.645913E+0	1.658981E+0	1.708441E+0	1.684428E+0	1.671315E+0	1.661447E+0	1.641138E+0	1.634782E+0	1.715554E+0	1.633137E+0	1.679846E+0	1.633373E+0	1.650566E+0	1.674816E+0	1.641155E+0	1.699702E+0	1.620162E+0	1.713823E+0	1.729410E+0	1.658591E+0	1.705591E+0	1.655376E+0	1.656282E+0	1.670442E+0	1.682032E+0	1.701306E+0	1.649909E+0	1.626238E+0	1.675921E+0	1.714313E+0	1.644472E+0	1.660225E+0	1.666867E+0	1.716332E+0	1.647814E+0	1.678566E+0	1.641783E+0	1.689877E+0	1.653159E+0	1.676458E+0	1.654917E+0	1.666438E+0	1.639549E+0	1.681356E+0	1.661448E+0	1.696936E+0	1.710226E+0	1.682866E+0	1.674839E+0	1.654691E+0	1.631135E+0	1.635781E+0	1.651295E+0	1.665093E+0	1.712590E+0	1.664051E+0	1.639736E+0	1.664329E+0	1.630240E+0	1.644745E+0	1.636326E+0	1.672025E+0	1.706841E+0	1.670740E+0	1.641176E+0	1.629277E+0	1.665640E+0	1.662448E+0	1.632425E+0	1.609542E+0	1.667680E+0	1.646592E+0	1.622567E+0	1.602725E+0	1.605208E+0	1.657293E+0	1.650543E+0	1.680204E+0	1.656541E+0	1.582354E+0	1.647797E+0	1.609203E+0	1.634937E+0	1.641050E+0	1.692946E+0	1.673130E+0	1.601929E+0	1.624186E+0	1.614230E+0	1.573622E+0	1.655487E+0	1.550626E+0	1.607565E+0	1.641569E+0	1.628805E+0	1.666838E+0	1.712102E+0	1.677255E+0	1.631576E+0	1.648079E+0	1.650809E+0	1.558701E+0	1.713311E+0	1.666626E+0	1.645965E+0	1.598620E+0	1.639378E+0	1.640052E+0	1.628047E+0	1.729889E+0	1.616732E+0	1.625838E+0	1.639388E+0	1.649303E+0	1.612568E+0	1.657549E+0	1.608297E+0	1.662622E+0	1.676936E+0	1.670489E+0	1.651046E+0	1.640367E+0	1.617820E+0	1.600531E+0	1.689694E+0	1.635825E+0	1.628806E+0	1.634384E+0	1.614400E+0	1.628276E+0	1.633497E+0	1.609560E+0	1.653219E+0	1.615813E+0	1.640719E+0	1.654137E+0	1.616558E+0	1.617363E+0	1.647142E+0	1.643199E+0	1.705102E+0	1.681075E+0	1.599782E+0	1.654191E+0	1.624211E+0	1.589766E+0	1.663715E+0	1.591469E+0	1.667849E+0	1.677801E+0	1.678267E+0	1.590941E+0	1.690748E+0	1.693262E+0	1.590258E+0	1.629166E+0	1.674066E+0	1.645280E+0	1.600091E+0	1.582749E+0	1.632759E+0	1.544646E+0	1.625173E+0
5.348120E+2	2.091509E+0	1.993829E+0	2.013998E+0	2.028863E+0	2.067165E+0	2.070080E+0	2.023788E+0	2.040409E+0	2.016284E+0	1.949860E+0	1.989214E+0	1.993147E+0	2.004545E+0	2.054322E+0	2.051495E+0	2.007900E+0	1.946382E+0	1.987204E+0	2.024640E+0	2.046531E+0	1.999180E+0	2.005010E+0	2.085073E+0	2.103256E+0	1.997348E+0	2.105925E+0	2.048733E+0	2.052136E+0	2.060125E+0	2.059548E+0	2.052100E+0	1.999866E+0	1.948552E+0	2.084897E+0	1.972677E+0	1.998240E+0	2.003955E+0	2.026465E+0	2.033008E+0	2.003483E+0	2.010218E+0	1.992428E+0	2.011860E+0	2.012034E+0	2.013128E+0	1.982558E+0	2.028127E+0	2.054034E+0	2.059852E+0	1.967538E+0	1.998967E+0	1.987658E+0	2.053440E+0	2.036857E+0	2.026521E+0	1.990915E+0	1.997880E+0	2.046664E+0	1.983867E+0	1.965689E+0	1.997244E+0	2.051695E+0	1.981765E+0	2.035682E+0	1.997997E+0	2.072365E+0	1.990162E+0	1.988611E+0	1.955511E+0	2.027371E+0	2.053110E+0	2.004720E+0	2.005977E+0	2.053250E+0	2.006407E+0	1.989501E+0	2.005733E+0	1.976797E+0	1.974526E+0	2.003380E+0	2.016765E+0	1.918864E+0	2.000086E+0	1.989441E+0	1.931373E+0	1.988579E+0	1.991464E+0	1.989589E+0	1.940026E+0	1.992990E+0	2.024641E+0	2.003748E+0	2.026689E+0	1.997936E+0	2.025466E+0	2.009365E+0	1.911991E+0	1.955405E+0	1.982988E+0	2.005337E+0	1.947009E+0	1.934821E+0	2.035166E+0	2.002643E+0	1.950738E+0	1.980158E+0	2.046483E+0	2.080018E+0	2.007297E+0	1.994511E+0	1.957812E+0	2.012906E+0	2.018176E+0	2.001042E+0	1.993437E+0	2.018765E+0	2.066169E+0	1.975789E+0	1.946476E+0	1.962446E+0	1.937989E+0	1.965557E+0	1.988270E+0	1.947041E+0	2.022768E+0	1.972380E+0	2.018150E+0	2.020923E+0	1.895768E+0	1.968709E+0	1.953296E+0	1.938110E+0	1.963739E+0	1.993534E+0	1.885363E+0	1.957337E+0	1.927212E+0	1.912153E+0	1.922027E+0	2.025508E+0	2.016083E+0	1.957008E+0	1.925143E+0	1.985847E+0	1.889700E+0	1.897354E+0	1.937562E+0	2.001311E+0	1.973926E+0	1.973018E+0	1.965419E+0	1.877544E+0	1.916900E+0	1.935266E+0	1.955874E+0	1.950941E+0	1.893244E+0	1.930587E+0	1.903132E+0	2.002964E+0	1.966142E+0	1.910502E+0	1.925272E+0	1.977149E+0	1.996961E+0	1.899887E+0	1.932928E+0	1.977559E+0	1.894422E+0	1.903726E+0
5.349530E+2	2.224222E+0	2.181937E+0	2.184006E+0	2.258901E+0	2.255069E+0	2.244144E+0	2.235506E+0	2.201185E+0	2.194481E+0	2.188134E+0	2.274456E+0	2.262371E+0	2.181051E+0	2.189389E+0	2.248007E+0	2.216167E+0	2.179645E+0	2.206377E+0	2.238460E+0	2.234808E+0	2.217867E+0	2.286346E+0	2.232899E+0	2.175130E+0	2.175348E+0	2.241425E+0	2.217841E+0	2.248677E+0	2.248894E+0	2.189942E+0	2.149530E+0	2.191823E+0	2.215910E+0	2.194784E+0	2.126236E+0	2.220763E+0	2.217346E+0	2.176905E+0	2.278084E+0	2.176122E+0	2.197425E+0	2.168488E+0	2.168123E+0	2.196588E+0	2.116811E+0	2.185639E+0	2.168580E+0	2.238135E+0	2.297370E+0	2.152194E+0	2.154370E+0	2.204412E+0	2.258511E+0	2.220882E+0	2.189079E+0	2.217221E+0	2.167141E+0	2.278182E+0	2.095477E+0	2.114194E+0	2.124911E+0	2.206985E+0	2.154487E+0	2.179125E+0	2.101083E+0	2.196673E+0	2.174739E+0	2.161251E+0	2.168188E+0	2.152623E+0	2.168583E+0	2.169201E+0	2.187979E+0	2.111448E+0	2.205692E+0	2.099820E+0	2.164718E+0	2.159561E+0	2.233558E+0	2.177539E+0	2.253943E+0	2.162089E+0	2.166678E+0	2.106285E+0	2.146499E+0	2.133403E+0	2.196346E+0	2.156071E+0	2.182875E+0	2.179509E+0	2.219308E+0	2.252202E+0	2.178564E+0	2.122579E+0	2.194053E+0	2.129398E+0	2.167716E+0	2.112695E+0	2.122166E+0	2.193172E+0	2.186302E+0	2.119717E+0	2.185928E+0	2.194990E+0	2.137684E+0	2.166451E+0	2.145610E+0	2.211301E+0	2.132293E+0	2.115088E+0	2.141562E+0	2.211478E+0	2.106098E+0	2.166408E+0	2.071427E+0	2.183666E+0	2.169780E+0	2.180850E+0	2.109713E+0	2.111000E+0	2.114627E+0	2.173332E+0	2.112729E+0	2.130925E+0	2.161208E+0	2.157430E+0	2.188832E+0	2.213327E+0	2.093349E+0	2.097436E+0	2.168228E+0	2.143782E+0	2.148886E+0	2.158025E+0	2.135995E+0	2.107358E+0	2.171067E+0	2.034381E+0	2.204496E+0	2.160074E+0	2.139058E+0	2.129219E+0	2.154287E+0	2.147626E+0	2.104067E+0	2.134592E+0	2.118791E+0	2.195717E+0	2.165735E+0	2.151362E+0	2.107577E+0	2.084699E+0	2.101395E+0	2.143885E+0	2.107859E+0	2.159582E+0	2.111085E+0	2.100443E+0	2.018000E+0	2.192139E+0	2.157517E+0	2.038473E+0	2.113282E+0	2.080629E+0	2.161440E+0	2.077986E+0	2.022038E+0	2.176388E+0	2.130936E+0	2.110053E+0
5.351140E+2	2.321917E+0	2.168445E+0	2.179786E+0	2.227774E+0	2.247738E+0	2.281481E+0	2.126261E+0	2.200457E+0	2.167047E+0	2.161263E+0	2.190929E+0	2.224862E+0	2.162352E+0	2.184286E+0	2.191581E+0	2.194999E+0	2.173617E+0	2.181240E+0	2.205175E+0	2.208830E+0	2.184769E+0	2.178680E+0	2.183578E+0	2.175647E+0	2.213556E+0	2.142555E+0	2.173057E+0	2.202972E+0	2.165531E+0	2.186547E+0	2.131255E+0	2.168157E+0	2.241767E+0	2.234434E+0	2.149351E+0	2.216595E+0	2.157462E+0	2.157330E+0	2.228345E+0	2.181058E+0	2.171451E+0	2.203064E+0	2.216282E+0	2.180775E+0	2.126003E+0	2.077300E+0	2.178053E+0	2.193867E+0	2.215879E+0	2.133945E+0	2.198229E+0	2.192644E+0	2.188643E+0	2.179594E+0	2.136856E+0	2.148106E+0	2.147315E+0	2.258066E+0	2.171436E+0	2.157542E+0	2.150577E+0	2.210192E+0	2.086792E+0	2.058705E+0	2.071523E+0	2.175592E+0	2.174211E+0	2.149641E+0	2.174426E+0	2.140860E+0	2.192461E+0	2.209358E+0	2.164727E+0	2.129001E+0	2.145195E+0	2.145303E+0	2.134808E+0	2.102839E+0	2.172997E+0	2.170723E+0	2.225670E+0	2.145732E+0	2.095786E+0	2.103525E+0	2.203524E+0	2.103334E+0	2.139143E+0	2.195634E+0	2.130692E+0	2.171911E+0	2.191124E+0	2.171643E+0	2.235133E+0	2.127161E+0	2.192031E+0	2.157997E+0	2.146856E+0	2.086177E+0	2.086636E+0	2.220323E+0	2.186097E+0	2.137963E+0	2.166105E+0	2.134742E+0	2.141498E+0	2.117596E+0	2.179965E+0	2.083118E+0	2.175560E+0	2.133309E+0	2.156793E+0	2.211128E+0	2.078231E+0	2.194520E+0	2.112967E+0	2.096885E+0	2.197479E+0	2.180371E+0	2.117058E+0	2.132185E+0	2.079116E+0	2.092321E+0	2.117974E+0	2.123910E+0	2.157032E+0	2.143880E+0	2.225494E+0	2.152763E+0	2.090109E+0	2.102862E+0	2.103552E+0	2.174352E+0	2.123381E+0	2.175695E+0	2.126771E+0	2.116396E+0	2.147860E+0	2.143071E+0	2.158409E+0	2.140342E+0	2.107141E+0	2.208178E+0	2.112125E+0	2.132116E+0	2.117738E+0	2.081640E+0	2.109151E+0	2.194680E+0	2.108621E+0	2.167386E+0	2.124308E+0	2.130784E+0	2.102981E+0	2.178796E+0	2.165956E+0	2.159900E+0	2.082617E+0	2.159925E+0	2.082999E+0	2.127230E+0	2.190710E+0	2.043106E+0	2.103966E+0	2.096237E+0	2.105970E+0	2.047907E+0	2.102988E+0	2.171417E+0	2.035689E+0	2.019824E+0
5.352550E+2	2.024042E+0	1.911066E+0	1.988511E+0	1.936101E+0	1.991520E+0	1.970310E+0	1.987442E+0	1.953526E+0	1.925268E+0	1.954714E+0	1.947598E+0	1.956962E+0	1.926453E+0	1.912205E+0	1.957222E+0	1.943126E+0	1.886321E+0	1.913041E+0	1.988461E+0	1.893543E+0	1.963675E+0	1.962583E+0	2.001116E+0	1.920694E+0	1.911990E+0	1.962946E+0	1.898209E+0	1.925736E+0	1.954583E+0	1.953165E+0	1.887171E+0	1.852889E+0	1.948047E+0	1.987676E+0	1.907287E+0	1.929086E+0	1.966966E+0	1.909257E+0	1.941432E+0	1.887650E+0	1.913000E+0	1.907508E+0	2.009569E+0	1.931566E+0	1.908482E+0	1.874642E+0	1.928915E+0	1.911287E+0	1.983025E+0	1.900127E+0	1.933546E+0	1.879184E+0	1.977924E+0	1.925475E+0	1.907307E+0	1.861927E+0	1.906846E+0	1.950191E+0	1.873008E+0	1.913082E+0	1.940923E+0	1.943018E+0	1.914078E+0	1.828141E+0	1.900030E+0	1.926696E+0	1.946185E+0	1.952280E+0	1.904945E+0	1.836573E+0	1.927677E+0	1.946416E+0	1.938181E+0	1.924761E+0	1.952630E+0	1.964152E+0	1.950780E+0	1.913862E+0	1.889944E+0	1.917743E+0	1.936401E+0	1.919014E+0	1.831934E+0	1.872367E+0	1.936022E+0	1.903342E+0	1.911540E+0	1.949362E+0	1.859357E+0	1.878170E+0	1.965755E+0	1.894526E+0	1.880992E+0	1.921044E+0	1.951398E+0	1.830572E+0	1.924320E+0	1.918673E+0	1.907648E+0	1.926398E+0	1.939147E+0	1.946948E+0	2.006540E+0	1.914567E+0	1.898757E+0	1.903181E+0	1.967703E+0	1.973222E+0	1.877756E+0	1.891759E+0	1.897665E+0	1.985557E+0	1.877621E+0	1.944200E+0	1.861505E+0	1.907335E+0	1.968344E+0	1.913089E+0	1.895606E+0	1.934947E+0	1.869679E+0	1.857426E+0	1.918857E+0	1.923006E+0	1.913836E+0	1.869798E+0	1.887099E+0	1.938967E+0	1.918218E+0	1.855700E+0	1.897811E+0	1.878427E+0	1.880218E+0	1.975726E+0	1.838741E+0	1.926523E+0	1.809102E+0	1.860665E+0	1.875988E+0	1.900073E+0	1.948063E+0	1.855718E+0	1.812956E+0	1.873963E+0	1.887525E+0	1.942935E+0	1.840134E+0	1.904500E+0	1.894668E+0	1.830114E+0	1.851186E+0	1.923020E+0	1.840314E+0	1.985742E+0	1.877711E+0	1.941342E+0	1.761149E+0	1.879615E+0	1.894958E+0	1.923698E+0	1.860041E+0	1.860555E+0	1.857587E+0	1.904820E+0	1.897976E+0	1.831926E+0	1.818978E+0	1.938061E+0	1.831893E+0	1.859142E+0
5.354110E+2	1.722032E+0	1.630801E+0	1.519149E+0	1.595653E+0	1.728626E+0	1.687668E+0	1.703295E+0	1.640452E+0	1.629559E+0	1.598289E+0	1.632027E+0	1.652909E+0	1.655824E+0	1.683501E+0	1.631696E+0	1.601991E+0	1.687357E+0	1.616480E+0	1.589919E+0	1.632621E+0	1.663104E+0	1.688631E+0	1.669433E+0	1.635313E+0	1.624004E+0	1.630576E+0	1.592454E+0	1.634529E+0	1.645124E+0	1.656794E+0	1.619799E+0	1.596161E+0	1.627875E+0	1.642734E+0	1.586433E+0	1.658971E+0	1.598756E+0	1.608830E+0	1.670121E+0	1.584940E+0	1.680623E+0	1.736772E+0	1.566586E+0	1.573669E+0	1.589229E+0	1.595922E+0	1.655060E+0	1.571226E+0	1.592125E+0	1.647327E+0	1.626361E+0	1.582051E+0	1.622899E+0	1.668795E+0	1.638576E+0	1.660400E+0	1.663897E+0	1.677693E+0	1.543396E+0	1.586087E+0	1.681036E+0	1.660334E+0	1.621717E+0	1.548676E+0	1.624306E+0	1.651017E+0	1.639948E+0	1.624854E+0	1.604087E+0	1.579136E+0	1.652642E+0	1.588724E+0	1.628395E+0	1.627903E+0	1.656019E+0	1.648052E+0	1.629173E+0	1.651787E+0	1.593145E+0	1.658533E+0	1.672348E+0	1.638789E+0	1.623394E+0	1.627795E+0	1.660529E+0	1.603971E+0	1.631030E+0	1.640430E+0	1.586810E+0	1.610215E+0	1.614623E+0	1.578372E+0	1.666829E+0	1.609293E+0	1.687724E+0	1.610356E+0	1.587453E+0	1.591962E+0	1.611928E+0	1.632320E+0	1.635278E+0	1.606720E+0	1.700681E+0	1.621926E+0	1.632602E+0	1.609585E+0	1.677195E+0	1.661675E+0	1.620614E+0	1.646716E+0	1.556873E+0	1.684642E+0	1.584781E+0	1.598947E+0	1.579483E+0	1.681205E+0	1.622708E+0	1.656619E+0	1.632946E+0	1.587707E+0	1.599760E+0	1.591337E+0	1.615507E+0	1.611097E+0	1.634582E+0	1.648750E+0	1.666691E+0	1.605505E+0	1.651322E+0	1.578132E+0	1.602293E+0	1.578825E+0	1.625500E+0	1.613318E+0	1.630940E+0	1.636302E+0	1.622216E+0	1.589212E+0	1.641567E+0	1.614640E+0	1.635257E+0	1.597049E+0	1.633047E+0	1.585489E+0	1.586497E+0	1.631456E+0	1.668105E+0	1.636897E+0	1.600686E+0	1.565355E+0	1.618159E+0	1.642719E+0	1.616002E+0	1.678451E+0	1.606538E+0	1.588864E+0	1.607350E+0	1.609556E+0	1.548956E+0	1.665325E+0	1.663192E+0	1.568441E+0	1.613400E+0	1.641847E+0	1.586942E+0	1.614757E+0	1.578303E+0	1.636248E+0	1.622501E+0	1.628594E+0
5.355580E+2	1.397336E+0	1.410074E+0	1.339029E+0	1.352340E+0	1.427625E+0	1.426174E+0	1.344400E+0	1.399830E+0	1.344141E+0	1.411533E+0	1.397813E+0	1.397652E+0	1.382684E+0	1.369135E+0	1.373781E+0	1.339219E+0	1.393427E+0	1.388741E+0	1.377823E+0	1.376505E+0	1.461509E+0	1.415390E+0	1.435061E+0	1.375554E+0	1.323019E+0	1.387951E+0	1.386977E+0	1.326007E+0	1.404170E+0	1.356301E+0	1.354134E+0	1.331708E+0	1.379865E+0	1.387410E+0	1.358199E+0	1.352192E+0	1.356798E+0	1.355881E+0	1.428578E+0	1.339528E+0	1.368430E+0	1.357361E+0	1.432190E+0	1.387808E+0	1.362263E+0	1.358731E+0	1.348958E+0	1.371263E+0	1.412447E+0	1.378089E+0	1.402360E+0	1.409308E+0	1.355334E+0	1.437093E+0	1.378906E+0	1.388507E+0	1.399692E+0	1.368709E+0	1.359146E+0	1.382471E+0	1.392556E+0	1.346635E+0	1.351250E+0	1.342786E+0	1.406389E+0	1.433107E+0	1.386645E+0	1.322649E+0	1.341523E+0	1.363057E+0	1.385375E+0	1.357183E+0	1.419392E+0	1.347567E+0	1.359509E+0	1.320861E+0	1.337061E+0	1.393702E+0	1.406128E+0	1.351539E+0	1.391407E+0	1.398729E+0	1.336930E+0	1.382978E+0	1.414460E+0	1.392017E+0	1.336371E+0	1.394807E+0	1.360626E+0	1.423901E+0	1.344664E+0	1.367493E+0	1.395183E+0	1.365254E+0	1.381092E+0	1.339533E+0	1.406682E+0	1.362559E+0	1.396720E+0	1.371796E+0	1.418895E+0	1.364019E+0	1.405301E+0	1.363248E+0	1.386790E+0	1.376729E+0	1.309524E+0	1.386601E+0	1.430493E+0	1.435110E+0	1.369893E+0	1.351366E+0	1.349176E+0	1.389980E+0	1.338603E+0	1.363319E+0	1.354158E+0	1.321429E+0	1.359891E+0	1.368666E+0	1.372482E+0	1.375842E+0	1.384193E+0	1.343739E+0	1.382509E+0	1.356620E+0	1.378594E+0	1.411911E+0	1.316297E+0	1.332266E+0	1.376840E+0	1.349893E+0	1.356357E+0	1.412307E+0	1.369720E+0	1.364252E+0	1.345473E+0	1.380684E+0	1.383545E+0	1.412769E+0	1.390364E+0	1.402601E+0	1.391372E+0	1.349168E+0	1.376686E+0	1.339551E+0	1.398167E+0	1.378745E+0	1.348911E+0	1.365383E+0	1.413029E+0	1.341136E+0	1.353610E+0	1.391892E+0	1.345861E+0	1.360367E+0	1.353894E+0	1.342459E+0	1.313524E+0	1.422628E+0	1.402357E+0	1.367042E+0	1.327347E+0	1.342854E+0	1.332185E+0	1.328086E+0	1.319689E+0	1.355551E+0	1.317972E+0	1.322722E+0
5.357090E+2	1.199186E+0	1.184286E+0	1.160713E+0	1.192426E+0	1.214017E+0	1.264688E+0	1.240812E+0	1.204423E+0	1.124757E+0	1.215784E+0	1.204426E+0	1.244775E+0	1.185434E+0	1.156525E+0	1.191250E+0	1.180149E+0	1.171788E+0	1.186701E+0	1.196162E+0	1.178255E+0	1.220167E+0	1.176601E+0	1.244053E+0	1.177813E+0	1.144133E+0	1.176252E+0	1.178039E+0	1.189732E+0	1.183219E+0	1.204515E+0	1.222693E+0	1.127116E+0	1.199116E+0	1.211507E+0	1.136054E+0	1.132573E+0	1.151184E+0	1.167019E+0	1.192008E+0	1.157403E+0	1.200177E+0	1.116820E+0	1.195308E+0	1.189959E+0	1.191041E+0	1.180728E+0	1.195246E+0	1.153373E+0	1.234069E+0	1.162192E+0	1.189451E+0	1.130544E+0	1.252282E+0	1.187555E+0	1.244073E+0	1.156998E+0	1.159479E+0	1.214761E+0	1.128070E+0	1.166625E+0	1.205504E+0	1.203228E+0	1.137069E+0	1.161316E+0	1.180606E+0	1.223533E+0	1.201891E+0	1.163567E+0	1.186626E+0	1.149446E+0	1.197944E+0	1.169470E+0	1.201400E+0	1.212689E+0	1.167389E+0	1.188170E+0	1.166800E+0	1.177260E+0	1.276959E+0	1.163259E+0	1.187265E+0	1.177254E+0	1.155625E+0	1.170954E+0	1.210875E+0	1.222260E+0	1.203365E+0	1.183472E+0	1.124209E+0	1.151444E+0	1.218781E+0	1.195428E+0	1.188732E+0	1.156699E+0	1.184827E+0	1.193588E+0	1.187905E+0	1.128710E+0	1.175623E+0	1.176155E+0	1.243345E+0	1.172998E+0	1.240143E+0	1.168136E+0	1.172506E+0	1.164027E+0	1.156199E+0	1.200213E+0	1.181431E+0	1.207219E+0	1.151465E+0	1.208806E+0	1.147712E+0	1.186414E+0	1.213859E+0	1.187693E+0	1.213995E+0	1.157891E+0	1.201630E+0	1.176402E+0	1.170322E+0	1.229232E+0	1.215804E+0	1.170545E+0	1.202886E+0	1.204301E+0	1.202042E+0	1.187056E+0	1.165915E+0	1.181715E+0	1.192584E+0	1.191820E+0	1.192983E+0	1.214248E+0	1.176019E+0	1.171836E+0	1.241779E+0	1.168318E+0	1.222656E+0	1.163031E+0	1.162464E+0	1.203318E+0	1.219253E+0	1.187707E+0	1.188535E+0	1.203175E+0	1.201685E+0	1.225309E+0	1.198676E+0	1.203454E+0	1.164883E+0	1.157462E+0	1.186049E+0	1.179975E+0	1.233143E+0	1.234778E+0	1.165491E+0	1.157102E+0	1.152607E+0	1.158317E+0	1.187071E+0	1.154211E+0	1.180562E+0	1.239007E+0	1.208627E+0	1.160523E+0	1.169009E+0	1.237722E+0	1.225283E+0	1.189955E+0
5.358600E+2	1.041893E+0	9.890278E-1	1.005264E+0	1.062860E+0	1.030840E+0	1.028918E+0	1.026633E+0	1.057262E+0	9.857948E-1	9.961900E-1	1.039984E+0	1.027754E+0	9.915103E-1	1.019543E+0	1.004805E+0	1.000873E+0	1.025649E+0	1.071316E+0	1.033279E+0	1.037362E+0	1.041810E+0	1.065742E+0	1.053019E+0	1.026529E+0	1.012199E+0	9.950524E-1	1.016052E+0	1.005171E+0	1.028718E+0	1.001400E+0	9.836967E-1	9.833586E-1	1.070815E+0	1.039129E+0	1.035019E+0	9.661590E-1	1.015498E+0	1.014757E+0	1.025283E+0	1.042146E+0	1.032015E+0	9.879579E-1	1.023161E+0	1.034846E+0	1.046492E+0	9.822581E-1	1.014559E+0	1.001153E+0	1.048961E+0	1.008677E+0	1.015301E+0	1.001408E+0	1.067147E+0	1.045634E+0	9.906953E-1	1.008764E+0	1.076653E+0	1.026701E+0	1.041391E+0	1.026341E+0	1.052396E+0	1.040296E+0	1.014526E+0	9.797043E-1	1.017484E+0	1.024737E+0	1.014599E+0	1.009089E+0	1.001965E+0	1.038787E+0	1.063511E+0	1.027433E+0	9.730599E-1	1.025655E+0	1.021097E+0	1.048581E+0	1.022771E+0	1.020459E+0	1.034751E+0	1.015422E+0	1.013809E+0	1.052257E+0	1.021874E+0	1.014568E+0	1.011958E+0	1.043816E+0	1.056702E+0	1.064356E+0	1.001688E+0	1.008401E+0	1.064561E+0	1.046943E+0	1.060614E+0	1.050374E+0	9.974288E-1	1.015454E+0	1.010505E+0	1.015202E+0	1.044909E+0	1.053142E+0	1.026498E+0	1.034106E+0	1.034272E+0	1.005329E+0	1.019962E+0	1.026399E+0	1.052665E+0	1.051068E+0	1.054830E+0	1.019283E+0	1.003844E+0	1.045708E+0	1.044657E+0	1.059789E+0	1.028444E+0	1.031050E+0	1.035553E+0	1.025368E+0	1.025235E+0	9.937833E-1	9.922062E-1	9.808873E-1	1.031189E+0	1.023007E+0	1.042429E+0	1.007590E+0	1.076760E+0	1.063494E+0	1.041290E+0	1.007398E+0	1.053605E+0	1.028426E+0	1.042735E+0	1.019807E+0	1.046710E+0	1.071791E+0	9.868017E-1	1.019111E+0	1.026863E+0	9.867197E-1	1.019546E+0	1.042265E+0	1.054800E+0	1.026888E+0	1.055809E+0	1.011045E+0	1.053819E+0	1.022046E+0	1.034123E+0	1.021400E+0	1.032420E+0	1.049659E+0	1.036154E+0	1.049499E+0	1.065933E+0	1.009498E+0	1.029920E+0	9.790162E-1	1.019141E+0	1.045858E+0	1.026478E+0	1.039408E+0	9.950987E-1	9.942974E-1	1.072843E+0	1.009649E+0	1.028951E+0	9.912746E-1	9.841737E-1	9.862029E-1
5.360120E+2	8.353483E-1	8.223692E-1	8.394511E-1	8.587104E-1	8.629547E-1	8.994237E-1	8.660141E-1	8.336728E-1	8.497284E-1	8.678192E-1	8.660431E-1	8.119374E-1	8.754255E-1	8.568480E-1	8.525758E-1	8.627412E-1	8.797159E-1	8.401196E-1	8.421674E-1	8.649319E-1	8.485133E-1	8.640808E-1	8.343315E-1	8.615085E-1	8.428287E-1	8.680779E-1	8.634454E-1	8.313208E-1	8.503583E-1	8.810081E-1	8.599789E-1	8.429443E-1	8.742118E-1	8.520930E-1	8.778957E-1	8.774558E-1	8.616695E-1	8.673913E-1	8.610633E-1	8.477631E-1	8.550754E-1	8.593239E-1	8.582673E-1	8.625431E-1	8.248843E-1	8.404908E-1	8.513843E-1	8.540641E-1	8.257087E-1	8.848510E-1	8.623822E-1	8.527963E-1	9.275868E-1	9.124567E-1	8.329369E-1	8.384720E-1	8.202902E-1	8.572758E-1	8.481719E-1	8.865169E-1	8.663585E-1	8.571867E-1	8.467373E-1	8.509451E-1	8.792842E-1	8.535044E-1	8.369423E-1	8.812228E-1	8.396108E-1	8.903371E-1	8.513913E-1	8.379184E-1	8.264703E-1	8.818437E-1	8.770951E-1	8.568840E-1	8.422903E-1	8.662641E-1	8.671507E-1	8.527896E-1	8.261928E-1	8.462675E-1	8.352500E-1	8.552789E-1	8.298429E-1	8.309341E-1	8.546800E-1	8.395228E-1	8.698193E-1	8.421730E-1	8.427653E-1	8.279808E-1	9.352068E-1	8.493705E-1	8.358000E-1	8.343813E-1	8.445102E-1	8.544844E-1	8.577531E-1	8.744837E-1	8.714166E-1	8.190238E-1	9.151712E-1	8.198957E-1	8.686679E-1	8.912950E-1	8.662093E-1	8.540049E-1	8.241375E-1	8.735586E-1	8.418037E-1	8.413281E-1	9.120190E-1	8.473456E-1	8.464215E-1	8.395923E-1	8.544796E-1	8.414603E-1	8.551011E-1	8.231258E-1	8.530458E-1	8.598922E-1	8.726455E-1	8.400719E-1	9.049119E-1	8.825143E-1	8.715369E-1	8.812077E-1	8.602199E-1	8.579291E-1	8.689177E-1	8.135305E-1	8.654701E-1	8.563766E-1	8.331792E-1	8.397348E-1	8.710447E-1	8.836309E-1	8.579142E-1	8.470576E-1	8.768853E-1	8.673932E-1	8.907094E-1	8.233137E-1	8.321148E-1	8.431282E-1	8.917815E-1	8.706304E-1	8.704901E-1	8.933222E-1	8.691764E-1	8.843120E-1	8.820655E-1	8.822853E-1	8.767378E-1	8.246491E-1	8.453443E-1	8.824660E-1	8.503193E-1	8.557503E-1	8.799758E-1	8.834922E-1	8.861205E-1	8.414665E-1	8.467492E-1	8.357764E-1	8.722261E-1	9.107318E-1	9.024099E-1	8.469268E-1
5.362730E+2	6.522169E-1	6.973196E-1	6.251014E-1	6.433433E-1	6.827673E-1	6.904956E-1	6.323579E-1	6.475776E-1	6.776069E-1	6.926834E-1	6.237730E-1	6.411665E-1	6.488282E-1	6.771593E-1	6.445396E-1	6.502913E-1	6.649659E-1	6.257063E-1	6.292355E-1	6.477521E-1	6.720887E-1	6.636169E-1	6.744693E-1	6.589968E-1	6.634415E-1	6.574054E-1	6.334013E-1	6.829527E-1	6.720544E-1	6.597314E-1	6.544444E-1	6.280378E-1	6.648263E-1	6.738431E-1	6.533692E-1	6.253366E-1	6.353227E-1	6.225961E-1	6.333719E-1	6.495199E-1	6.346009E-1	6.461916E-1	6.439335E-1	6.320168E-1	6.351212E-1	6.233809E-1	6.431126E-1	6.343978E-1	6.696826E-1	6.723332E-1	6.370257E-1	6.408092E-1	6.718471E-1	6.741330E-1	6.929900E-1	6.564035E-1	6.713155E-1	6.991346E-1	6.309280E-1	6.512180E-1	6.773522E-1	6.613266E-1	6.402596E-1	6.374290E-1	6.495347E-1	6.527273E-1	6.615238E-1	6.447425E-1	6.669171E-1	6.499486E-1	6.397529E-1	6.423669E-1	6.527043E-1	6.921610E-1	6.634831E-1	6.384568E-1	6.322076E-1	6.315587E-1	6.458231E-1	6.387840E-1	6.872655E-1	6.438086E-1	6.506154E-1	6.428513E-1	6.356745E-1	6.390120E-1	6.504318E-1	6.902653E-1	6.547240E-1	6.381885E-1	6.970446E-1	6.339293E-1	7.013066E-1	6.712937E-1	6.249918E-1	6.490978E-1	6.507962E-1	6.879738E-1	6.498240E-1	6.640343E-1	6.842958E-1	6.770050E-1	6.937411E-1	6.621432E-1	6.569354E-1	6.648460E-1	6.511360E-1	6.682657E-1	6.477928E-1	6.415447E-1	6.324127E-1	6.494874E-1	6.452649E-1	6.362593E-1	6.707285E-1	6.485980E-1	6.637734E-1	6.630935E-1	6.428876E-1	6.359690E-1	6.615696E-1	7.004365E-1	6.370951E-1	6.466415E-1	6.803092E-1	6.467148E-1	7.125138E-1	6.355712E-1	6.823977E-1	6.170733E-1	6.341790E-1	6.570815E-1	6.969808E-1	6.990735E-1	6.935341E-1	6.455052E-1	6.486727E-1	6.530395E-1	6.722859E-1	6.788437E-1	6.503813E-1	6.303209E-1	6.599987E-1	6.701982E-1	6.754333E-1	6.411697E-1	6.893699E-1	6.364894E-1	7.179499E-1	6.730758E-1	6.658455E-1	6.541919E-1	6.477629E-1	6.710600E-1	6.708671E-1	6.588206E-1	6.296535E-1	6.852366E-1	6.598520E-1	6.658786E-1	6.897007E-1	6.722741E-1	6.512481E-1	6.636208E-1	6.643385E-1	6.187366E-1	6.359106E-1	6.337054E-1	6.834667E-1	7.492978E-1
5.365140E+2	5.682110E-1	5.508038E-1	5.902441E-1	5.307788E-1	5.852659E-1	5.608183E-1	5.424470E-1	5.686409E-1	5.373451E-1	5.175481E-1	5.626423E-1	5.379539E-1	5.562101E-1	5.651587E-1	5.130353E-1	5.534363E-1	5.522669E-1	5.523900E-1	5.595272E-1	5.801076E-1	5.858852E-1	5.531702E-1	5.513870E-1	5.558997E-1	5.351254E-1	5.686200E-1	5.554288E-1	5.440508E-1	5.940351E-1	5.519274E-1	5.673118E-1	5.463441E-1	5.425201E-1	5.876087E-1	5.384664E-1	5.476866E-1	5.903220E-1	5.846981E-1	5.434532E-1	5.499771E-1	5.201968E-1	5.274597E-1	5.548777E-1	5.707777E-1	5.556510E-1	5.337768E-1	5.638698E-1	5.598897E-1	5.738990E-1	5.777161E-1	5.428657E-1	5.274717E-1	5.951438E-1	5.594151E-1	5.359674E-1	5.413856E-1	5.787556E-1	5.496208E-1	5.377884E-1	5.504186E-1	5.540208E-1	5.504371E-1	5.388469E-1	5.474733E-1	5.759386E-1	5.384019E-1	5.656190E-1	5.489742E-1	5.517385E-1	5.362607E-1	5.566977E-1	5.669015E-1	5.383165E-1	5.754835E-1	5.406661E-1	5.706087E-1	5.853711E-1	5.583761E-1	5.452194E-1	5.729835E-1	5.449278E-1	5.659066E-1	5.427957E-1	5.544836E-1	5.517456E-1	5.133105E-1	5.307126E-1	5.355164E-1	5.648951E-1	5.486547E-1	5.992734E-1	5.547075E-1	5.683086E-1	5.569997E-1	5.698820E-1	5.633821E-1	5.621241E-1	5.008021E-1	5.484338E-1	5.466660E-1	5.750602E-1	5.401910E-1	5.588959E-1	5.938888E-1	5.893106E-1	5.732891E-1	5.805287E-1	5.610134E-1	6.039391E-1	5.517108E-1	5.752052E-1	5.710089E-1	5.663457E-1	5.927198E-1	5.600615E-1	5.663460E-1	6.294322E-1	5.676280E-1	5.556951E-1	5.506786E-1	5.436501E-1	5.477586E-1	5.959395E-1	5.429142E-1	5.673338E-1	5.610099E-1	5.665577E-1	5.532549E-1	5.510402E-1	5.525557E-1	5.433717E-1	5.760164E-1	5.636714E-1	5.888426E-1	5.559446E-1	5.688112E-1	5.914813E-1	5.588437E-1	5.670381E-1	5.341549E-1	6.002144E-1	5.579651E-1	5.611219E-1	5.658436E-1	6.292516E-1	5.847516E-1	5.638016E-1	5.630912E-1	5.420452E-1	5.682576E-1	5.700110E-1	5.712817E-1	5.710562E-1	6.128309E-1	5.521696E-1	5.549738E-1	5.468392E-1	5.554121E-1	5.322278E-1	5.538806E-1	6.121985E-1	5.305226E-1	5.542890E-1	5.777581E-1	5.369686E-1	5.695011E-1	5.584883E-1	5.780096E-1	5.423540E-1	5.696411E-1
5.367710E+2	5.369524E-1	5.142722E-1	5.397014E-1	5.133430E-1	5.287724E-1	5.560455E-1	5.723913E-1	5.247851E-1	5.697192E-1	5.578021E-1	4.978752E-1	5.403324E-1	5.360415E-1	5.630185E-1	5.577751E-1	5.387429E-1	5.426205E-1	5.650910E-1	5.216813E-1	5.275937E-1	5.527526E-1	5.628571E-1	5.675556E-1	5.488790E-1	5.106397E-1	5.571255E-1	5.319643E-1	5.345946E-1	5.458826E-1	5.436954E-1	5.788982E-1	5.210495E-1	4.971602E-1	5.539588E-1	5.856584E-1	5.410155E-1	5.428824E-1	5.500320E-1	5.281580E-1	5.796527E-1	5.528456E-1	5.706171E-1	5.289988E-1	5.250570E-1	5.385452E-1	5.551528E-1	5.651668E-1	5.518516E-1	5.410854E-1	5.749857E-1	5.178594E-1	5.103335E-1	5.553658E-1	5.279352E-1	5.193005E-1	5.260564E-1	5.483738E-1	5.713015E-1	5.661401E-1	5.104704E-1	5.626894E-1	5.459635E-1	5.721456E-1	4.991188E-1	5.428698E-1	5.806543E-1	5.704349E-1	5.318521E-1	5.508433E-1	5.255451E-1	5.654390E-1	5.247973E-1	5.434590E-1	5.289879E-1	5.239858E-1	5.754552E-1	5.796466E-1	5.318040E-1	5.261404E-1	5.525455E-1	5.650763E-1	5.371999E-1	5.808759E-1	5.590176E-1	5.694056E-1	5.670745E-1	5.667950E-1	5.663371E-1	5.308399E-1	5.102871E-1	5.384803E-1	5.496440E-1	5.351630E-1	5.113315E-1	5.634024E-1	5.455904E-1	5.409307E-1	5.141803E-1	5.296970E-1	5.128064E-1	5.307494E-1	5.314088E-1	5.277307E-1	5.549675E-1	5.428938E-1	5.720711E-1	5.505475E-1	5.490789E-1	5.678465E-1	5.454400E-1	5.237664E-1	5.422586E-1	5.515425E-1	5.619159E-1	5.321152E-1	5.457870E-1	5.445015E-1	5.580469E-1	5.500611E-1	5.546640E-1	5.306159E-1	5.485652E-1	5.396043E-1	5.156421E-1	5.857958E-1	5.784809E-1	5.436608E-1	5.434836E-1	5.193201E-1	5.237877E-1	5.417938E-1	5.401253E-1	5.404274E-1	5.596784E-1	5.532240E-1	5.541462E-1	5.263299E-1	5.913599E-1	5.398938E-1	5.458660E-1	5.421322E-1	5.537914E-1	5.373086E-1	5.423649E-1	5.477458E-1	5.566988E-1	5.586554E-1	5.605197E-1	5.519654E-1	5.291512E-1	5.411931E-1	5.550546E-1	5.676740E-1	5.819999E-1	5.485910E-1	5.398308E-1	5.560434E-1	5.593528E-1	5.576379E-1	5.398587E-1	5.914187E-1	5.381505E-1	5.560749E-1	5.063465E-1	5.542671E-1	5.521651E-1	5.425111E-1	5.451769E-1	5.599893E-1	5.854007E-1
5.370120E+2	5.765705E-1	5.794985E-1	5.398279E-1	5.881042E-1	5.687441E-1	5.841150E-1	5.681396E-1	5.869138E-1	5.463114E-1	5.608439E-1	5.653577E-1	5.908186E-1	6.128807E-1	5.998593E-1	5.910874E-1	5.756261E-1	5.922215E-1	5.887526E-1	5.869686E-1	5.487107E-1	5.881060E-1	5.683035E-1	5.948926E-1	5.752288E-1	5.932870E-1	6.077544E-1	6.083134E-1	5.755075E-1	6.273946E-1	6.009545E-1	5.606991E-1	5.558101E-1	5.651868E-1	5.957895E-1	5.732187E-1	5.696993E-1	5.730638E-1	6.002075E-1	5.612981E-1	5.840853E-1	5.816357E-1	5.888552E-1	5.714367E-1	5.637572E-1	5.761926E-1	5.726242E-1	5.916769E-1	5.552664E-1	5.637589E-1	5.769539E-1	6.138108E-1	5.616284E-1	5.810680E-1	6.114062E-1	5.903824E-1	5.679254E-1	5.877658E-1	6.013104E-1	5.133128E-1	5.504950E-1	5.878052E-1	5.773741E-1	5.860365E-1	5.710549E-1	5.812329E-1	5.881082E-1	5.668757E-1	5.775612E-1	5.800186E-1	5.691257E-1	6.041436E-1	5.873683E-1	5.867342E-1	5.605615E-1	5.441044E-1	5.788079E-1	5.918089E-1	5.782323E-1	5.924092E-1	5.761187E-1	5.851682E-1	5.855250E-1	5.712274E-1	5.921188E-1	5.833312E-1	5.772459E-1	5.926111E-1	6.044739E-1	5.341259E-1	5.582697E-1	5.945166E-1	5.972380E-1	5.862972E-1	5.778259E-1	5.773004E-1	5.873700E-1	6.111004E-1	5.576832E-1	5.737926E-1	6.036270E-1	5.769326E-1	5.679131E-1	6.312933E-1	6.015511E-1	5.579199E-1	5.902543E-1	5.757044E-1	5.762274E-1	5.533460E-1	5.759832E-1	5.969429E-1	5.777672E-1	6.035984E-1	5.835722E-1	5.774704E-1	6.005913E-1	6.006586E-1	5.894941E-1	6.148849E-1	5.782332E-1	5.820440E-1	5.769437E-1	6.308589E-1	5.743668E-1	6.084561E-1	5.850969E-1	6.199035E-1	5.614440E-1	5.623037E-1	5.799570E-1	5.797388E-1	6.370458E-1	6.057250E-1	5.849908E-1	5.999540E-1	6.341758E-1	6.024454E-1	6.183353E-1	5.853613E-1	5.898585E-1	5.890230E-1	5.842629E-1	5.953963E-1	5.533797E-1	5.910638E-1	5.702430E-1	6.068376E-1	5.886485E-1	6.245437E-1	6.046439E-1	5.862212E-1	5.913499E-1	5.669001E-1	6.429895E-1	5.907679E-1	5.787730E-1	6.008317E-1	6.136268E-1	5.686976E-1	6.050365E-1	5.948489E-1	5.897382E-1	5.987147E-1	6.226893E-1	5.906499E-1	5.724923E-1	6.111403E-1	6.196594E-1	5.999469E-1	5.841999E-1
5.372590E+2	6.434163E-1	7.047721E-1	6.197946E-1	6.527456E-1	6.303984E-1	6.948159E-1	6.845615E-1	6.497492E-1	6.456831E-1	6.904729E-1	6.608342E-1	6.724711E-1	6.299386E-1	6.431412E-1	6.650541E-1	6.503712E-1	6.453605E-1	6.379625E-1	6.508569E-1	6.529585E-1	6.367001E-1	6.714694E-1	6.658371E-1	6.467784E-1	6.642829E-1	6.752639E-1	6.892277E-1	6.425931E-1	6.476571E-1	6.641028E-1	6.413227E-1	6.591896E-1	6.607603E-1	6.467044E-1	6.376148E-1	6.480484E-1	6.761227E-1	6.426130E-1	6.653971E-1	6.426949E-1	6.157779E-1	6.639434E-1	6.442047E-1	6.826854E-1	6.728642E-1	6.143281E-1	6.857087E-1	6.388570E-1	6.792270E-1	7.031333E-1	6.493511E-1	6.661187E-1	6.961716E-1	6.593874E-1	6.676645E-1	6.480934E-1	6.648977E-1	6.775859E-1	6.355814E-1	6.269913E-1	6.593706E-1	6.726103E-1	6.463698E-1	6.318582E-1	6.759183E-1	6.509781E-1	6.994144E-1	6.152065E-1	6.433853E-1	6.607758E-1	6.640354E-1	6.742426E-1	6.719741E-1	6.401593E-1	6.906283E-1	6.787916E-1	6.473248E-1	6.625172E-1	6.535679E-1	6.849845E-1	6.725457E-1	6.671983E-1	6.403050E-1	6.336321E-1	6.558075E-1	6.632437E-1	6.275659E-1	6.684482E-1	6.471818E-1	6.649602E-1	6.694631E-1	6.751615E-1	6.737485E-1	6.402880E-1	6.663313E-1	6.596236E-1	7.114384E-1	6.142763E-1	6.525524E-1	6.720308E-1	6.710644E-1	6.632588E-1	7.101898E-1	6.747059E-1	6.783869E-1	6.714099E-1	6.836030E-1	6.664432E-1	6.883629E-1	6.762583E-1	6.604695E-1	6.587808E-1	6.436310E-1	7.026864E-1	6.397607E-1	6.486836E-1	6.930893E-1	6.523994E-1	6.738888E-1	6.411222E-1	6.890928E-1	6.607037E-1	6.599877E-1	6.730414E-1	6.804156E-1	6.896768E-1	6.739574E-1	6.735178E-1	6.551569E-1	6.382439E-1	6.550048E-1	6.496467E-1	7.055283E-1	6.986124E-1	6.449270E-1	6.880681E-1	6.729576E-1	6.741485E-1	6.476528E-1	7.046162E-1	6.581449E-1	6.584463E-1	6.811974E-1	6.469372E-1	6.792901E-1	6.391022E-1	6.572715E-1	6.846972E-1	6.530406E-1	7.252351E-1	6.744553E-1	6.614602E-1	6.511318E-1	6.503296E-1	6.753363E-1	6.603680E-1	6.464016E-1	6.288926E-1	6.767042E-1	6.513674E-1	6.907649E-1	5.968126E-1	6.606166E-1	6.364700E-1	6.942524E-1	6.492300E-1	6.806957E-1	6.649633E-1	6.020340E-1	6.501168E-1
5.375110E+2	7.492243E-1	8.090387E-1	7.528262E-1	7.656127E-1	7.543376E-1	8.110580E-1	7.351262E-1	7.707843E-1	7.385613E-1	7.366987E-1	7.844024E-1	7.717589E-1	7.649924E-1	6.931876E-1	7.469396E-1	7.241978E-1	7.202763E-1	7.339542E-1	7.764139E-1	7.822509E-1	7.272111E-1	7.628609E-1	7.550908E-1	7.273081E-1	7.283869E-1	7.616824E-1	7.809708E-1	7.662225E-1	7.806533E-1	7.411005E-1	7.720409E-1	7.631377E-1	7.776687E-1	7.512270E-1	7.502813E-1	7.714253E-1	7.502701E-1	7.478204E-1	8.044233E-1	7.364858E-1	7.463390E-1	7.679101E-1	7.589903E-1	7.766415E-1	7.211123E-1	7.437978E-1	7.722536E-1	7.631631E-1	7.276939E-1	7.433623E-1	7.528300E-1	7.234726E-1	7.809934E-1	7.610549E-1	7.613640E-1	7.317830E-1	7.065009E-1	7.617992E-1	7.652593E-1	7.482713E-1	7.725856E-1	7.831044E-1	7.766422E-1	7.408122E-1	7.373208E-1	7.861474E-1	7.664209E-1	7.691159E-1	7.608051E-1	7.373360E-1	7.863879E-1	7.664701E-1	7.768256E-1	7.874663E-1	7.751780E-1	6.982865E-1	7.354293E-1	7.459671E-1	7.492456E-1	7.594244E-1	7.595592E-1	7.456376E-1	7.634060E-1	7.340671E-1	7.616763E-1	7.656855E-1	7.903478E-1	7.690963E-1	7.131754E-1	7.329590E-1	7.373431E-1	7.673387E-1	7.588041E-1	7.408181E-1	7.509094E-1	7.428177E-1	7.618690E-1	7.626257E-1	7.380756E-1	7.706445E-1	7.251386E-1	7.575822E-1	7.492718E-1	7.143194E-1	7.737438E-1	7.201451E-1	7.573789E-1	7.480116E-1	7.670604E-1	7.656887E-1	7.831348E-1	7.648829E-1	7.580896E-1	7.672402E-1	7.675490E-1	7.572676E-1	8.489013E-1	7.829203E-1	7.562179E-1	7.495876E-1	7.389546E-1	7.719158E-1	8.064299E-1	7.404528E-1	7.806875E-1	7.840303E-1	7.620038E-1	7.606891E-1	7.383883E-1	7.400849E-1	7.576918E-1	7.774512E-1	8.051474E-1	7.801291E-1	7.655646E-1	7.467834E-1	7.885050E-1	7.750277E-1	7.825734E-1	7.590600E-1	7.598876E-1	7.445605E-1	7.271431E-1	7.290129E-1	7.839771E-1	7.324478E-1	7.076255E-1	7.633800E-1	7.719908E-1	7.840380E-1	7.046351E-1	7.636839E-1	7.433476E-1	7.395143E-1	7.654454E-1	7.469180E-1	7.984186E-1	7.914459E-1	7.294806E-1	7.723152E-1	8.232204E-1	7.807100E-1	7.623093E-1	7.829528E-1	7.801733E-1	7.782005E-1	7.561334E-1	7.720844E-1	7.909665E-1	7.786310E-1
5.377630E+2	8.839314E-1	8.686316E-1	8.177146E-1	8.767839E-1	8.870087E-1	9.161482E-1	8.933769E-1	9.009245E-1	8.487690E-1	8.738529E-1	8.530895E-1	9.052331E-1	8.768063E-1	8.308478E-1	8.821801E-1	8.400373E-1	8.409778E-1	8.943993E-1	8.741118E-1	8.784900E-1	8.711629E-1	9.230085E-1	8.785225E-1	8.575331E-1	8.658426E-1	9.395636E-1	8.514920E-1	8.784599E-1	8.857115E-1	8.762118E-1	8.912479E-1	8.415403E-1	8.864375E-1	8.851770E-1	8.791490E-1	8.537288E-1	8.870853E-1	8.646754E-1	8.731245E-1	8.768783E-1	8.759502E-1	8.993871E-1	8.734933E-1	8.325613E-1	8.855958E-1	8.508015E-1	9.159451E-1	8.224833E-1	8.890302E-1	8.921052E-1	8.704520E-1	9.051531E-1	8.790796E-1	9.154094E-1	9.049144E-1	8.915927E-1	8.896831E-1	9.190042E-1	8.886520E-1	8.733899E-1	8.974691E-1	8.597977E-1	8.755527E-1	8.730009E-1	8.861921E-1	9.100790E-1	8.766971E-1	8.707446E-1	8.827575E-1	8.836366E-1	8.908045E-1	8.848188E-1	8.312543E-1	8.697091E-1	8.808055E-1	8.411368E-1	8.887332E-1	8.915706E-1	8.870623E-1	9.129722E-1	8.421358E-1	8.662789E-1	8.576512E-1	8.585340E-1	9.338547E-1	8.756034E-1	8.708979E-1	8.947301E-1	8.737482E-1	9.014246E-1	8.738146E-1	8.623588E-1	9.500906E-1	8.828175E-1	8.377762E-1	8.814228E-1	8.876286E-1	8.854347E-1	9.153509E-1	8.874410E-1	9.121003E-1	8.765133E-1	9.135313E-1	9.299243E-1	8.742849E-1	9.091427E-1	9.155687E-1	8.853139E-1	8.437883E-1	9.249849E-1	9.167574E-1	8.964374E-1	8.945718E-1	8.491675E-1	9.085835E-1	8.669054E-1	9.312013E-1	9.034142E-1	8.773039E-1	8.791666E-1	8.455817E-1	8.963492E-1	9.193585E-1	8.682812E-1	9.192183E-1	8.732024E-1	8.802001E-1	9.015797E-1	9.107812E-1	8.768282E-1	9.030571E-1	8.473156E-1	9.014652E-1	8.999381E-1	8.652660E-1	8.926108E-1	8.801317E-1	8.681811E-1	8.564219E-1	8.817040E-1	9.019379E-1	8.866863E-1	8.824326E-1	8.715955E-1	9.062416E-1	8.630870E-1	8.762462E-1	8.779241E-1	9.097190E-1	8.811074E-1	8.692995E-1	9.209161E-1	8.486796E-1	9.107189E-1	8.850159E-1	8.938819E-1	8.482182E-1	9.014752E-1	8.541906E-1	8.930056E-1	9.477373E-1	8.649234E-1	9.154881E-1	8.825023E-1	9.392852E-1	8.533639E-1	8.934085E-1	9.183813E-1	8.339542E-1	8.851651E-1
5.380110E+2	1.005750E+0	9.882809E-1	9.954393E-1	9.331374E-1	9.737069E-1	9.865963E-1	9.735422E-1	9.644211E-1	9.587143E-1	9.934357E-1	9.636230E-1	9.712736E-1	1.018629E+0	1.018408E+0	9.990954E-1	9.700722E-1	9.791888E-1	9.597723E-1	1.004203E+0	9.480649E-1	9.990191E-1	1.019396E+0	9.904761E-1	9.525704E-1	9.706414E-1	9.661267E-1	1.015614E+0	1.020338E+0	9.954952E-1	1.045239E+0	1.002223E+0	9.341857E-1	9.982511E-1	1.016308E+0	9.481249E-1	9.713303E-1	9.946299E-1	9.860560E-1	1.014079E+0	9.577605E-1	1.031383E+0	9.789925E-1	9.878875E-1	9.864231E-1	9.643206E-1	9.581198E-1	9.973821E-1	9.681619E-1	1.033063E+0	9.685935E-1	1.011444E+0	9.912828E-1	9.963451E-1	1.042587E+0	1.004336E+0	9.239774E-1	1.012787E+0	1.004647E+0	9.523848E-1	9.806287E-1	9.556001E-1	9.832077E-1	9.936914E-1	9.576047E-1	9.768777E-1	1.000797E+0	1.001914E+0	9.627672E-1	9.735866E-1	1.017852E+0	9.976191E-1	9.962697E-1	9.772134E-1	1.024620E+0	9.845966E-1	1.020344E+0	1.004034E+0	9.742455E-1	9.821444E-1	9.671814E-1	1.034713E+0	9.827489E-1	9.682337E-1	9.840312E-1	9.980521E-1	9.571831E-1	9.597496E-1	1.048558E+0	9.418457E-1	1.019287E+0	1.039414E+0	9.813174E-1	1.005843E+0	9.678301E-1	9.942501E-1	9.965931E-1	1.004638E+0	9.349842E-1	9.808561E-1	9.981792E-1	1.065872E+0	9.593664E-1	1.018472E+0	9.523656E-1	9.937980E-1	9.771452E-1	9.829114E-1	1.010411E+0	9.780277E-1	9.884407E-1	1.010358E+0	9.461094E-1	1.007526E+0	1.001109E+0	9.695511E-1	9.906982E-1	1.022460E+0	9.289941E-1	1.002613E+0	1.005822E+0	1.006270E+0	9.521808E-1	9.488243E-1	1.010960E+0	1.020405E+0	9.796394E-1	9.897701E-1	9.942211E-1	9.584664E-1	9.807473E-1	9.777257E-1	9.821816E-1	9.743888E-1	1.004205E+0	9.938245E-1	9.715455E-1	9.737194E-1	9.190242E-1	1.002503E+0	9.651260E-1	9.477845E-1	9.950055E-1	1.023360E+0	9.895841E-1	9.992004E-1	9.652659E-1	9.782991E-1	1.014787E+0	9.732625E-1	9.749697E-1	9.592161E-1	9.575105E-1	9.919590E-1	1.029552E+0	1.002189E+0	1.013307E+0	9.794848E-1	9.506016E-1	9.888929E-1	1.013952E+0	1.053340E+0	9.902719E-1	1.001671E+0	9.689948E-1	1.030353E+0	1.002295E+0	1.013512E+0	1.012082E+0	9.477649E-1	9.831855E-1
5.382690E+2	1.170342E+0	1.156881E+0	1.210806E+0	1.161305E+0	1.200671E+0	1.187437E+0	1.194108E+0	1.228632E+0	1.176410E+0	1.232657E+0	1.201666E+0	1.213564E+0	1.177713E+0	1.172233E+0	1.221733E+0	1.195357E+0	1.207733E+0	1.210170E+0	1.168883E+0	1.236529E+0	1.170723E+0	1.215639E+0	1.270650E+0	1.218252E+0	1.190142E+0	1.201744E+0	1.205300E+0	1.215488E+0	1.196879E+0	1.219923E+0	1.247862E+0	1.145653E+0	1.220216E+0	1.153534E+0	1.183562E+0	1.213358E+0	1.228143E+0	1.245180E+0	1.226742E+0	1.217063E+0	1.196443E+0	1.204205E+0	1.220245E+0	1.162960E+0	1.176351E+0	1.167344E+0	1.197600E+0	1.200646E+0	1.210645E+0	1.197912E+0	1.166381E+0	1.168427E+0	1.194743E+0	1.178046E+0	1.214514E+0	1.176473E+0	1.143337E+0	1.238028E+0	1.192861E+0	1.172971E+0	1.206045E+0	1.207958E+0	1.203939E+0	1.140363E+0	1.192571E+0	1.176830E+0	1.203046E+0	1.167038E+0	1.154266E+0	1.236967E+0	1.221845E+0	1.160639E+0	1.175800E+0	1.232886E+0	1.224846E+0	1.193971E+0	1.234467E+0	1.151471E+0	1.186548E+0	1.167964E+0	1.190574E+0	1.141802E+0	1.122258E+0	1.233165E+0	1.179658E+0	1.204317E+0	1.194718E+0	1.207140E+0	1.163297E+0	1.189319E+0	1.197803E+0	1.177905E+0	1.220852E+0	1.201781E+0	1.184254E+0	1.144427E+0	1.172359E+0	1.212214E+0	1.184134E+0	1.150689E+0	1.204581E+0	1.225714E+0	1.209053E+0	1.218769E+0	1.149744E+0	1.178079E+0	1.180994E+0	1.207973E+0	1.189486E+0	1.198713E+0	1.191836E+0	1.196321E+0	1.208282E+0	1.224891E+0	1.190967E+0	1.186322E+0	1.200583E+0	1.180662E+0	1.188254E+0	1.141337E+0	1.188797E+0	1.140096E+0	1.180872E+0	1.193586E+0	1.199283E+0	1.185894E+0	1.220293E+0	1.183794E+0	1.200151E+0	1.187888E+0	1.215539E+0	1.144232E+0	1.187145E+0	1.202071E+0	1.188485E+0	1.155046E+0	1.153956E+0	1.226352E+0	1.153813E+0	1.179064E+0	1.164817E+0	1.178664E+0	1.166686E+0	1.166625E+0	1.139454E+0	1.224799E+0	1.212893E+0	1.181863E+0	1.194225E+0	1.156405E+0	1.183132E+0	1.181603E+0	1.164317E+0	1.255867E+0	1.216674E+0	1.209252E+0	1.179514E+0	1.180344E+0	1.196077E+0	1.234181E+0	1.156466E+0	1.147949E+0	1.192274E+0	1.224482E+0	1.220443E+0	1.146029E+0	1.162994E+0	1.228613E+0	1.217517E+0	1.236743E+0
5.385010E+2	1.372198E+0	1.417912E+0	1.386785E+0	1.381490E+0	1.400949E+0	1.426117E+0	1.402720E+0	1.441756E+0	1.367353E+0	1.409541E+0	1.465781E+0	1.413189E+0	1.445593E+0	1.442002E+0	1.415796E+0	1.417850E+0	1.409813E+0	1.388162E+0	1.475368E+0	1.466014E+0	1.424075E+0	1.461347E+0	1.454001E+0	1.423495E+0	1.380256E+0	1.521681E+0	1.448971E+0	1.382346E+0	1.463420E+0	1.431082E+0	1.412677E+0	1.351186E+0	1.438327E+0	1.411953E+0	1.375550E+0	1.370714E+0	1.393251E+0	1.394087E+0	1.425542E+0	1.418189E+0	1.406766E+0	1.479368E+0	1.427473E+0	1.386341E+0	1.402519E+0	1.385806E+0	1.397544E+0	1.431941E+0	1.401788E+0	1.394582E+0	1.429375E+0	1.388285E+0	1.423754E+0	1.481193E+0	1.418190E+0	1.381506E+0	1.381656E+0	1.460078E+0	1.466674E+0	1.357675E+0	1.452763E+0	1.434781E+0	1.370460E+0	1.402712E+0	1.372115E+0	1.436513E+0	1.415737E+0	1.425980E+0	1.388066E+0	1.412142E+0	1.404192E+0	1.403875E+0	1.405557E+0	1.402892E+0	1.390826E+0	1.403541E+0	1.399294E+0	1.408022E+0	1.403513E+0	1.350678E+0	1.403983E+0	1.451038E+0	1.384506E+0	1.306737E+0	1.364135E+0	1.393070E+0	1.402306E+0	1.406579E+0	1.373807E+0	1.451825E+0	1.406123E+0	1.418988E+0	1.436032E+0	1.348029E+0	1.445389E+0	1.352490E+0	1.402807E+0	1.427371E+0	1.391071E+0	1.403715E+0	1.395139E+0	1.408391E+0	1.450331E+0	1.409579E+0	1.429017E+0	1.427987E+0	1.416867E+0	1.431460E+0	1.390752E+0	1.415835E+0	1.393773E+0	1.367577E+0	1.416905E+0	1.355422E+0	1.388735E+0	1.425187E+0	1.414339E+0	1.430066E+0	1.383326E+0	1.392019E+0	1.379752E+0	1.405588E+0	1.396814E+0	1.415029E+0	1.474820E+0	1.399316E+0	1.484528E+0	1.396547E+0	1.402750E+0	1.375589E+0	1.381256E+0	1.402409E+0	1.443562E+0	1.518405E+0	1.399479E+0	1.441863E+0	1.439666E+0	1.390494E+0	1.427871E+0	1.436185E+0	1.387957E+0	1.460006E+0	1.404263E+0	1.355947E+0	1.308891E+0	1.425033E+0	1.357791E+0	1.437314E+0	1.422069E+0	1.408359E+0	1.405983E+0	1.410297E+0	1.378311E+0	1.413263E+0	1.435857E+0	1.401471E+0	1.364806E+0	1.380715E+0	1.380223E+0	1.374720E+0	1.457382E+0	1.401314E+0	1.442248E+0	1.376067E+0	1.398289E+0	1.351195E+0	1.396176E+0	1.416533E+0	1.432540E+0	1.358043E+0
5.387600E+2	1.726847E+0	1.697839E+0	1.651641E+0	1.729944E+0	1.678673E+0	1.672203E+0	1.734094E+0	1.652818E+0	1.632847E+0	1.649118E+0	1.670747E+0	1.684935E+0	1.663711E+0	1.661037E+0	1.703120E+0	1.717607E+0	1.610935E+0	1.666727E+0	1.659345E+0	1.598645E+0	1.697036E+0	1.708834E+0	1.720822E+0	1.652927E+0	1.620305E+0	1.785574E+0	1.700341E+0	1.712289E+0	1.726179E+0	1.672497E+0	1.631047E+0	1.638306E+0	1.676210E+0	1.684779E+0	1.666017E+0	1.632690E+0	1.701045E+0	1.684689E+0	1.739684E+0	1.651602E+0	1.706990E+0	1.681763E+0	1.638494E+0	1.708095E+0	1.686562E+0	1.628446E+0	1.642700E+0	1.649781E+0	1.628311E+0	1.700988E+0	1.670994E+0	1.627919E+0	1.657893E+0	1.660087E+0	1.693652E+0	1.664837E+0	1.625728E+0	1.653814E+0	1.686606E+0	1.648408E+0	1.665929E+0	1.672765E+0	1.658122E+0	1.660225E+0	1.663712E+0	1.684623E+0	1.690108E+0	1.618968E+0	1.642532E+0	1.647604E+0	1.659525E+0	1.685066E+0	1.648063E+0	1.742697E+0	1.678523E+0	1.616485E+0	1.638111E+0	1.647134E+0	1.754261E+0	1.596140E+0	1.613591E+0	1.639889E+0	1.636829E+0	1.580928E+0	1.644142E+0	1.688263E+0	1.605327E+0	1.650008E+0	1.604759E+0	1.669929E+0	1.690510E+0	1.679417E+0	1.658724E+0	1.642222E+0	1.651402E+0	1.699444E+0	1.650910E+0	1.609524E+0	1.600486E+0	1.698822E+0	1.704813E+0	1.632458E+0	1.714644E+0	1.711571E+0	1.649734E+0	1.670452E+0	1.693228E+0	1.621893E+0	1.627089E+0	1.655410E+0	1.699623E+0	1.677574E+0	1.712085E+0	1.643852E+0	1.685419E+0	1.658237E+0	1.660896E+0	1.692057E+0	1.640623E+0	1.633576E+0	1.665349E+0	1.654331E+0	1.668582E+0	1.651776E+0	1.757297E+0	1.686229E+0	1.695292E+0	1.612915E+0	1.663749E+0	1.535203E+0	1.644191E+0	1.645373E+0	1.653238E+0	1.730351E+0	1.646384E+0	1.667001E+0	1.647518E+0	1.664448E+0	1.665008E+0	1.687992E+0	1.636699E+0	1.637800E+0	1.654851E+0	1.565944E+0	1.656902E+0	1.653676E+0	1.645010E+0	1.680988E+0	1.677630E+0	1.673756E+0	1.606441E+0	1.631559E+0	1.600930E+0	1.611507E+0	1.647153E+0	1.582926E+0	1.633693E+0	1.653561E+0	1.585185E+0	1.681219E+0	1.614845E+0	1.590142E+0	1.676852E+0	1.625821E+0	1.601895E+0	1.659124E+0	1.646457E+0	1.655387E+0	1.613998E+0	1.634076E+0
5.390290E+2	1.918699E+0	1.850578E+0	1.839624E+0	1.895829E+0	1.846527E+0	1.970996E+0	1.885687E+0	1.936342E+0	1.923547E+0	1.889407E+0	1.902698E+0	1.901413E+0	1.899734E+0	1.850430E+0	1.899759E+0	1.833291E+0	1.850527E+0	1.902020E+0	1.902720E+0	1.920693E+0	1.907383E+0	1.943761E+0	1.920536E+0	1.923449E+0	1.870597E+0	1.933233E+0	1.942866E+0	1.873329E+0	1.934928E+0	1.893624E+0	1.922058E+0	1.847020E+0	1.889803E+0	1.915758E+0	1.894142E+0	1.915442E+0	1.882118E+0	1.912123E+0	1.903718E+0	1.815843E+0	1.894047E+0	1.854451E+0	1.921728E+0	1.881022E+0	1.896727E+0	1.865590E+0	1.873863E+0	1.845600E+0	1.885149E+0	1.898599E+0	1.922330E+0	1.837356E+0	1.856681E+0	1.923526E+0	1.924155E+0	1.892384E+0	1.876269E+0	1.912094E+0	1.863102E+0	1.873464E+0	1.876209E+0	1.911859E+0	1.846654E+0	1.897276E+0	1.845630E+0	1.930220E+0	1.893589E+0	1.881484E+0	1.880976E+0	1.867596E+0	1.866502E+0	1.918297E+0	1.955205E+0	1.936788E+0	1.800454E+0	1.826578E+0	1.808494E+0	1.813023E+0	1.833787E+0	1.869993E+0	1.903598E+0	1.849604E+0	1.853763E+0	1.870145E+0	1.922482E+0	1.942607E+0	1.800694E+0	1.898775E+0	1.844677E+0	1.858513E+0	1.876602E+0	1.853957E+0	1.911823E+0	1.868349E+0	1.864420E+0	1.843476E+0	1.852153E+0	1.887667E+0	1.856755E+0	1.830206E+0	1.906441E+0	1.878898E+0	1.835042E+0	1.944662E+0	1.861391E+0	1.867448E+0	1.894910E+0	1.845532E+0	1.796610E+0	1.882800E+0	1.806268E+0	1.919448E+0	1.829333E+0	1.893018E+0	1.841547E+0	1.894577E+0	1.890963E+0	1.838788E+0	1.863760E+0	1.872698E+0	1.774845E+0	1.845426E+0	1.815703E+0	1.794348E+0	1.886259E+0	1.840344E+0	1.924022E+0	1.855116E+0	1.814235E+0	1.845323E+0	1.852663E+0	1.853231E+0	1.882434E+0	1.879965E+0	1.875555E+0	1.856866E+0	1.843993E+0	1.834280E+0	1.853575E+0	1.841062E+0	1.801585E+0	1.872105E+0	1.831262E+0	1.823797E+0	1.775176E+0	1.886416E+0	1.898278E+0	1.861406E+0	1.852127E+0	1.910961E+0	1.865777E+0	1.837684E+0	1.786442E+0	1.885327E+0	1.826539E+0	1.874549E+0	1.877634E+0	1.907201E+0	1.823928E+0	1.897526E+0	1.889862E+0	1.830266E+0	1.850273E+0	1.774859E+0	1.790136E+0	1.853696E+0	1.785623E+0	1.914806E+0	1.781898E+0	1.778503E+0
5.392720E+2	2.081331E+0	2.048466E+0	2.031501E+0	2.096232E+0	2.042546E+0	2.129598E+0	2.026308E+0	2.130755E+0	2.045189E+0	2.034710E+0	2.073660E+0	2.110657E+0	2.019828E+0	2.117709E+0	2.047420E+0	2.050102E+0	2.029575E+0	2.128864E+0	2.020505E+0	2.026448E+0	2.058456E+0	2.165879E+0	2.097641E+0	2.023962E+0	1.981596E+0	2.072215E+0	2.070792E+0	2.029678E+0	2.012088E+0	2.007559E+0	2.046228E+0	1.997223E+0	2.111121E+0	2.084816E+0	1.982006E+0	2.012068E+0	2.001383E+0	2.024707E+0	2.107795E+0	2.011143E+0	2.079122E+0	2.089666E+0	2.061229E+0	2.033732E+0	2.055673E+0	2.005476E+0	2.083595E+0	2.029589E+0	2.045732E+0	2.099790E+0	1.997600E+0	2.019623E+0	2.088858E+0	2.127154E+0	1.995801E+0	1.962376E+0	1.952897E+0	2.104680E+0	1.986161E+0	2.008574E+0	2.078803E+0	1.995642E+0	2.074749E+0	1.973140E+0	2.039965E+0	2.015459E+0	2.059030E+0	2.079631E+0	1.981570E+0	2.047769E+0	2.046472E+0	2.033896E+0	2.061420E+0	2.046276E+0	2.016752E+0	1.976404E+0	1.998023E+0	2.024796E+0	2.088430E+0	2.085993E+0	2.040411E+0	2.018985E+0	1.979464E+0	2.025205E+0	2.031657E+0	1.970497E+0	1.967169E+0	2.019792E+0	1.934885E+0	1.976391E+0	2.044954E+0	2.010768E+0	2.112005E+0	2.034918E+0	2.006849E+0	2.019930E+0	2.051562E+0	1.997862E+0	2.036406E+0	2.072069E+0	2.025254E+0	2.038042E+0	2.084154E+0	2.059551E+0	1.966714E+0	2.000160E+0	1.993171E+0	2.072582E+0	1.993690E+0	2.064031E+0	1.985537E+0	2.058057E+0	1.973146E+0	2.104495E+0	2.001032E+0	2.049512E+0	2.000171E+0	2.030338E+0	1.968388E+0	1.960728E+0	1.957278E+0	1.957828E+0	2.002969E+0	2.081863E+0	2.070213E+0	2.024645E+0	2.095515E+0	2.026759E+0	2.059447E+0	1.939603E+0	1.989936E+0	1.977410E+0	1.965010E+0	2.021160E+0	1.929639E+0	1.994082E+0	1.981694E+0	2.072936E+0	2.037188E+0	1.971175E+0	1.962023E+0	1.998129E+0	2.026704E+0	1.973975E+0	1.999420E+0	2.028538E+0	1.958674E+0	1.958617E+0	1.943988E+0	2.068714E+0	2.023248E+0	1.937040E+0	2.037106E+0	2.099475E+0	2.030115E+0	1.968418E+0	1.982028E+0	1.982559E+0	1.960614E+0	1.964495E+0	2.051475E+0	1.937412E+0	1.992461E+0	1.953796E+0	1.992522E+0	1.999688E+0	1.960788E+0	2.036842E+0	1.942898E+0	1.905858E+0
5.395320E+2	2.138611E+0	2.106621E+0	2.103356E+0	2.146490E+0	2.133427E+0	2.215654E+0	2.168937E+0	2.175050E+0	2.098193E+0	2.072003E+0	2.169238E+0	2.178166E+0	2.100503E+0	2.171959E+0	2.200815E+0	2.134294E+0	2.009919E+0	2.144456E+0	2.132873E+0	2.145443E+0	2.109191E+0	2.197559E+0	2.101972E+0	2.082292E+0	2.094102E+0	2.185037E+0	2.177307E+0	2.085549E+0	2.177327E+0	2.150082E+0	2.050989E+0	2.138490E+0	2.157916E+0	2.127055E+0	2.086942E+0	2.156357E+0	2.122225E+0	2.100099E+0	2.122668E+0	2.099699E+0	2.123412E+0	2.094850E+0	2.173121E+0	2.173578E+0	2.069531E+0	2.096968E+0	2.114489E+0	2.111829E+0	2.116799E+0	2.140582E+0	2.097789E+0	2.056226E+0	2.091496E+0	2.190352E+0	2.137307E+0	2.041645E+0	2.046459E+0	2.191118E+0	2.024886E+0	2.106611E+0	2.080303E+0	2.154841E+0	2.165898E+0	2.042265E+0	2.075270E+0	2.130718E+0	2.152898E+0	2.136874E+0	2.047505E+0	2.063179E+0	2.097628E+0	2.115227E+0	2.065069E+0	2.072612E+0	2.102947E+0	2.069751E+0	2.101767E+0	2.115057E+0	2.118176E+0	2.116213E+0	2.128955E+0	2.112751E+0	2.092659E+0	2.057415E+0	2.098357E+0	2.102913E+0	2.168343E+0	2.168233E+0	2.031708E+0	2.123233E+0	2.061287E+0	2.082868E+0	2.156932E+0	2.108630E+0	2.115143E+0	2.072578E+0	2.056602E+0	2.040790E+0	2.094836E+0	2.109559E+0	2.106633E+0	2.109535E+0	2.087195E+0	2.127444E+0	2.102039E+0	2.087407E+0	2.034573E+0	2.081847E+0	2.108124E+0	2.123742E+0	2.063067E+0	2.061218E+0	2.145093E+0	2.112200E+0	2.112622E+0	2.068360E+0	2.074898E+0	2.072229E+0	2.112100E+0	2.063688E+0	2.097477E+0	2.081179E+0	2.054433E+0	2.070839E+0	2.172028E+0	2.072942E+0	2.132476E+0	2.024140E+0	1.974130E+0	2.002445E+0	2.091703E+0	2.082675E+0	2.081649E+0	2.075073E+0	2.101803E+0	2.032395E+0	2.049464E+0	2.036158E+0	2.097478E+0	2.085034E+0	2.097117E+0	2.082281E+0	2.055723E+0	2.028528E+0	2.057690E+0	2.068068E+0	2.141963E+0	2.083371E+0	2.051506E+0	2.078461E+0	2.067052E+0	2.078259E+0	2.015100E+0	2.085809E+0	2.100231E+0	2.059361E+0	2.038749E+0	2.048713E+0	2.008378E+0	1.993432E+0	2.110730E+0	2.066164E+0	2.102919E+0	2.053688E+0	2.034515E+0	2.066616E+0	2.058211E+0	2.083265E+0	1.979109E+0	1.996989E+0
5.397860E+2	2.243051E+0	2.170280E+0	2.165864E+0	2.160862E+0	2.151190E+0	2.163371E+0	2.145785E+0	2.123152E+0	2.092067E+0	2.066240E+0	2.218366E+0	2.224520E+0	2.151642E+0	2.179532E+0	2.200908E+0	2.179882E+0	2.064662E+0	2.165923E+0	2.158887E+0	2.164979E+0	2.153922E+0	2.162332E+0	2.234775E+0	2.179847E+0	2.077652E+0	2.183651E+0	2.158480E+0	2.150742E+0	2.124613E+0	2.161835E+0	2.141577E+0	2.058459E+0	2.189801E+0	2.154452E+0	2.151906E+0	2.108951E+0	2.118554E+0	2.102278E+0	2.261085E+0	2.098937E+0	2.131823E+0	2.144644E+0	2.097406E+0	2.117854E+0	2.119303E+0	2.174093E+0	2.141398E+0	2.031107E+0	2.168512E+0	2.145223E+0	2.150623E+0	2.078484E+0	2.120493E+0	2.135638E+0	2.129334E+0	2.172006E+0	2.192269E+0	2.090382E+0	2.144720E+0	2.134084E+0	2.138464E+0	2.110720E+0	2.128481E+0	2.000212E+0	2.106216E+0	2.138429E+0	2.103956E+0	2.065451E+0	2.067795E+0	2.163633E+0	2.125226E+0	2.148196E+0	2.058663E+0	2.159679E+0	2.181174E+0	2.168093E+0	2.029361E+0	2.103042E+0	2.115564E+0	2.030483E+0	2.062956E+0	2.082189E+0	2.112571E+0	2.061450E+0	2.057774E+0	2.089581E+0	2.012403E+0	2.069893E+0	2.054848E+0	2.086703E+0	2.202121E+0	2.102772E+0	2.166639E+0	2.082976E+0	2.120268E+0	2.048999E+0	2.083284E+0	2.093768E+0	2.094297E+0	2.036917E+0	2.107281E+0	2.128387E+0	2.126652E+0	2.067894E+0	2.066410E+0	2.085363E+0	2.120972E+0	2.094946E+0	2.097824E+0	2.198297E+0	2.009044E+0	2.096657E+0	2.101604E+0	2.098445E+0	2.007475E+0	1.985590E+0	2.110332E+0	2.092885E+0	1.985070E+0	2.047945E+0	2.018882E+0	2.083741E+0	2.065157E+0	2.046988E+0	2.176412E+0	2.096095E+0	2.092419E+0	2.074401E+0	2.072579E+0	2.076283E+0	2.078090E+0	2.097497E+0	2.035248E+0	2.088043E+0	2.025786E+0	2.048894E+0	2.061416E+0	2.089422E+0	2.026301E+0	2.042119E+0	2.050127E+0	2.080787E+0	2.023150E+0	1.984706E+0	2.063435E+0	2.064370E+0	2.114271E+0	2.085235E+0	2.038946E+0	2.104787E+0	2.030890E+0	2.039771E+0	1.954562E+0	2.132966E+0	2.138876E+0	2.060100E+0	1.999190E+0	2.081679E+0	1.998762E+0	2.068105E+0	2.118575E+0	2.029854E+0	2.086355E+0	2.081679E+0	2.046517E+0	2.049683E+0	2.047113E+0	2.136930E+0	1.942991E+0	2.080962E+0
5.400140E+2	2.154398E+0	2.090217E+0	2.163297E+0	2.151201E+0	2.070229E+0	2.141789E+0	2.117641E+0	2.122481E+0	2.129320E+0	2.118930E+0	2.096076E+0	2.122445E+0	2.080266E+0	2.139753E+0	2.171771E+0	2.120797E+0	2.058680E+0	2.145802E+0	2.112750E+0	2.116328E+0	2.113034E+0	2.096270E+0	2.257045E+0	2.084489E+0	2.071969E+0	2.163755E+0	2.136772E+0	2.133339E+0	2.113154E+0	2.123996E+0	2.048244E+0	2.041469E+0	2.142877E+0	2.128726E+0	2.022862E+0	2.024766E+0	2.063263E+0	2.057568E+0	2.130866E+0	2.061337E+0	2.052646E+0	2.119679E+0	2.164987E+0	2.079824E+0	2.068933E+0	2.040911E+0	2.068800E+0	2.047622E+0	2.135084E+0	2.070392E+0	2.132660E+0	2.112804E+0	2.100721E+0	2.121343E+0	2.130728E+0	2.056254E+0	2.039438E+0	2.113425E+0	2.069144E+0	2.056299E+0	2.103985E+0	2.119075E+0	2.117622E+0	2.078563E+0	2.076542E+0	2.051668E+0	2.086677E+0	2.028861E+0	2.073219E+0	2.049998E+0	2.181478E+0	2.059267E+0	2.081081E+0	2.059667E+0	2.111585E+0	2.060045E+0	2.043528E+0	2.062507E+0	2.027168E+0	2.007250E+0	2.104236E+0	2.043938E+0	2.018830E+0	2.054548E+0	2.078586E+0	2.055281E+0	2.028866E+0	2.103203E+0	2.061337E+0	2.080219E+0	2.028824E+0	2.071199E+0	2.077269E+0	2.062496E+0	2.055370E+0	2.058964E+0	2.040474E+0	2.109069E+0	2.146427E+0	2.039918E+0	2.062586E+0	2.070672E+0	2.130415E+0	2.051104E+0	2.088942E+0	2.140782E+0	2.069294E+0	2.111110E+0	2.099726E+0	2.100614E+0	2.125029E+0	2.065058E+0	2.044810E+0	2.037917E+0	2.092837E+0	2.012002E+0	2.058280E+0	2.085652E+0	2.085275E+0	2.028993E+0	1.996727E+0	2.055338E+0	2.075873E+0	2.092460E+0	2.072045E+0	1.998813E+0	2.115606E+0	2.098699E+0	2.060217E+0	2.009976E+0	2.039363E+0	1.997648E+0	2.060991E+0	2.120498E+0	2.019974E+0	2.039352E+0	2.003573E+0	2.092790E+0	2.055676E+0	2.018251E+0	1.996210E+0	2.084064E+0	2.066935E+0	1.982341E+0	2.016872E+0	2.059334E+0	2.061798E+0	2.118633E+0	2.102866E+0	2.054730E+0	2.050527E+0	2.015274E+0	2.076587E+0	1.995781E+0	2.046494E+0	2.089071E+0	2.031733E+0	2.057004E+0	2.015422E+0	2.035498E+0	2.082641E+0	2.000340E+0	2.089714E+0	1.975585E+0	2.039854E+0	2.000771E+0	2.045436E+0	2.122230E+0	2.001948E+0	2.051061E+0
5.402630E+2	2.104765E+0	2.010082E+0	2.014645E+0	2.023525E+0	2.023772E+0	2.110118E+0	2.034135E+0	2.076318E+0	2.029841E+0	1.996976E+0	2.088891E+0	2.020396E+0	2.014290E+0	2.052165E+0	2.083137E+0	2.080800E+0	2.000942E+0	2.062616E+0	2.027399E+0	2.035153E+0	2.036752E+0	2.019169E+0	2.123684E+0	2.063630E+0	2.008815E+0	2.084843E+0	2.063270E+0	2.030231E+0	2.105409E+0	1.988801E+0	1.991498E+0	2.022383E+0	1.999836E+0	2.010825E+0	2.060058E+0	1.973997E+0	1.986588E+0	2.026552E+0	2.124958E+0	2.048780E+0	2.018887E+0	1.984547E+0	2.067020E+0	2.070650E+0	1.991391E+0	1.955860E+0	2.013559E+0	2.027553E+0	2.062036E+0	2.055537E+0	2.074267E+0	1.911435E+0	2.063128E+0	2.040649E+0	2.076077E+0	2.018279E+0	1.960682E+0	2.038444E+0	2.043144E+0	1.996773E+0	1.969351E+0	2.024654E+0	2.044537E+0	1.963397E+0	2.038130E+0	2.049148E+0	2.036335E+0	2.029881E+0	1.976180E+0	1.995569E+0	2.016403E+0	1.996198E+0	2.027279E+0	2.029020E+0	2.008792E+0	1.948051E+0	2.021368E+0	2.007317E+0	2.101952E+0	1.983300E+0	1.996999E+0	2.047433E+0	2.027369E+0	2.010165E+0	1.952128E+0	2.010330E+0	2.017182E+0	2.059206E+0	1.986923E+0	1.981913E+0	2.082437E+0	1.971847E+0	2.037035E+0	1.960026E+0	2.013457E+0	2.058385E+0	2.010191E+0	1.965477E+0	1.993806E+0	1.971601E+0	2.033612E+0	2.015879E+0	2.055011E+0	1.968791E+0	1.978398E+0	1.980567E+0	2.028607E+0	1.975111E+0	2.010684E+0	2.014777E+0	2.036225E+0	2.021297E+0	2.007390E+0	2.063585E+0	1.938574E+0	1.970118E+0	1.961005E+0	1.983089E+0	1.968391E+0	1.962279E+0	1.911655E+0	1.970195E+0	2.028482E+0	1.963349E+0	2.129371E+0	1.998027E+0	2.004702E+0	1.982829E+0	1.980332E+0	1.962573E+0	2.029035E+0	2.015427E+0	1.932139E+0	2.063523E+0	1.949328E+0	1.949730E+0	1.934144E+0	1.998126E+0	1.953224E+0	1.983195E+0	2.002945E+0	1.991228E+0	1.993034E+0	1.942516E+0	1.947966E+0	1.975374E+0	2.042386E+0	1.915657E+0	1.999439E+0	2.021064E+0	1.969533E+0	1.911891E+0	1.959177E+0	2.045298E+0	1.950700E+0	2.008947E+0	1.900117E+0	2.078851E+0	1.923704E+0	1.971481E+0	2.063410E+0	1.992220E+0	1.940073E+0	1.942018E+0	1.974568E+0	2.007456E+0	1.967878E+0	1.970517E+0	1.937800E+0	1.816923E+0
5.405080E+2	2.008902E+0	1.922240E+0	1.912861E+0	1.989446E+0	1.942272E+0	1.897867E+0	2.026267E+0	1.905510E+0	1.928423E+0	1.915604E+0	1.979799E+0	2.014631E+0	1.999509E+0	1.932522E+0	1.985602E+0	1.900038E+0	1.908113E+0	1.947889E+0	1.956092E+0	1.925915E+0	1.948504E+0	1.985914E+0	2.057153E+0	1.870858E+0	1.876504E+0	1.955902E+0	1.889639E+0	2.034556E+0	1.943480E+0	2.031319E+0	1.919991E+0	1.945485E+0	1.978809E+0	1.948661E+0	1.901564E+0	1.935747E+0	1.857450E+0	1.879859E+0	2.022026E+0	1.965750E+0	1.918297E+0	1.900946E+0	1.879372E+0	1.941528E+0	1.906712E+0	1.886194E+0	1.937871E+0	1.901347E+0	1.983858E+0	1.862547E+0	1.906504E+0	1.935793E+0	1.919722E+0	1.929315E+0	1.941708E+0	1.913010E+0	1.897653E+0	1.975792E+0	1.940859E+0	1.853791E+0	1.885247E+0	1.900373E+0	1.856839E+0	1.875449E+0	1.898814E+0	1.880623E+0	1.907261E+0	1.928036E+0	1.893073E+0	1.908088E+0	1.911802E+0	1.903417E+0	1.912564E+0	1.908414E+0	1.905251E+0	1.832988E+0	1.954658E+0	1.903231E+0	1.891004E+0	1.857930E+0	1.884566E+0	1.834986E+0	1.915503E+0	1.851996E+0	1.876699E+0	1.885637E+0	1.874735E+0	1.987294E+0	1.837285E+0	1.917344E+0	1.933897E+0	1.952722E+0	1.934304E+0	1.947118E+0	1.948971E+0	1.858507E+0	1.914536E+0	1.891504E+0	1.950921E+0	1.867350E+0	1.890277E+0	1.807026E+0	2.029542E+0	1.929001E+0	1.853657E+0	1.885736E+0	1.986511E+0	1.891175E+0	1.921794E+0	1.891400E+0	1.827094E+0	1.913693E+0	1.845560E+0	1.941567E+0	1.878908E+0	1.919453E+0	1.976793E+0	1.921645E+0	1.938113E+0	1.863652E+0	1.920389E+0	1.895042E+0	1.887385E+0	1.901328E+0	2.000908E+0	1.872235E+0	1.941811E+0	1.929266E+0	1.867022E+0	1.854115E+0	1.888894E+0	1.895996E+0	1.884227E+0	1.827011E+0	1.926335E+0	1.886484E+0	1.851479E+0	1.890385E+0	1.882441E+0	1.834835E+0	1.880655E+0	1.868316E+0	1.894071E+0	1.810177E+0	1.873017E+0	1.887841E+0	1.865371E+0	1.857259E+0	1.874948E+0	1.932514E+0	1.962427E+0	1.867083E+0	1.863125E+0	1.904770E+0	1.921520E+0	1.939388E+0	1.861413E+0	1.889737E+0	1.828035E+0	1.889929E+0	1.935248E+0	1.849895E+0	1.901396E+0	1.824518E+0	1.920154E+0	1.812940E+0	1.882642E+0	1.817249E+0	1.816819E+0	1.848052E+0
5.407790E+2	1.771797E+0	1.832602E+0	1.847935E+0	1.865933E+0	1.757092E+0	1.767143E+0	1.817903E+0	1.847039E+0	1.799417E+0	1.779923E+0	1.818052E+0	1.884033E+0	1.794262E+0	1.794605E+0	1.836567E+0	1.768198E+0	1.781396E+0	1.849889E+0	1.841038E+0	1.846225E+0	1.855589E+0	1.812311E+0	1.876261E+0	1.843301E+0	1.766326E+0	1.763834E+0	1.804367E+0	1.793586E+0	1.830126E+0	1.794273E+0	1.787791E+0	1.755585E+0	1.803774E+0	1.774959E+0	1.741813E+0	1.796423E+0	1.749354E+0	1.741287E+0	1.873093E+0	1.824368E+0	1.803853E+0	1.788879E+0	1.864243E+0	1.755008E+0	1.787950E+0	1.781471E+0	1.841612E+0	1.804500E+0	1.792201E+0	1.811360E+0	1.855588E+0	1.724701E+0	1.822169E+0	1.796805E+0	1.778448E+0	1.729355E+0	1.802155E+0	1.852506E+0	1.741322E+0	1.780336E+0	1.851027E+0	1.752154E+0	1.799393E+0	1.742972E+0	1.787543E+0	1.807345E+0	1.844183E+0	1.813327E+0	1.757460E+0	1.784718E+0	1.828786E+0	1.819053E+0	1.862204E+0	1.776364E+0	1.813661E+0	1.727490E+0	1.856136E+0	1.771529E+0	1.884631E+0	1.769747E+0	1.810726E+0	1.745080E+0	1.791533E+0	1.790856E+0	1.874120E+0	1.844376E+0	1.796609E+0	1.840715E+0	1.727779E+0	1.748729E+0	1.862983E+0	1.800102E+0	1.838013E+0	1.811093E+0	1.742188E+0	1.730819E+0	1.764583E+0	1.728881E+0	1.782581E+0	1.767581E+0	1.819394E+0	1.789681E+0	1.874779E+0	1.775402E+0	1.800855E+0	1.734980E+0	1.799116E+0	1.764240E+0	1.791101E+0	1.815868E+0	1.772420E+0	1.806067E+0	1.850545E+0	1.701780E+0	1.799855E+0	1.805877E+0	1.813064E+0	1.794821E+0	1.822833E+0	1.736190E+0	1.762846E+0	1.739406E+0	1.777351E+0	1.776449E+0	1.789682E+0	1.736272E+0	1.781249E+0	1.755152E+0	1.778705E+0	1.785545E+0	1.788236E+0	1.797545E+0	1.776394E+0	1.736169E+0	1.836424E+0	1.764586E+0	1.714753E+0	1.720612E+0	1.755276E+0	1.736767E+0	1.790727E+0	1.759007E+0	1.741736E+0	1.749251E+0	1.737253E+0	1.733812E+0	1.813361E+0	1.806927E+0	1.787194E+0	1.804962E+0	1.785270E+0	1.804887E+0	1.669021E+0	1.774094E+0	1.784216E+0	1.766474E+0	1.768629E+0	1.786262E+0	1.738161E+0	1.787519E+0	1.775693E+0	1.736178E+0	1.779521E+0	1.789236E+0	1.731499E+0	1.745761E+0	1.709289E+0	1.819315E+0	1.710579E+0	1.722728E+0
5.410240E+2	1.705068E+0	1.697340E+0	1.733108E+0	1.792791E+0	1.709896E+0	1.773445E+0	1.732627E+0	1.738821E+0	1.710540E+0	1.683081E+0	1.748255E+0	1.688274E+0	1.700798E+0	1.697632E+0	1.748247E+0	1.762507E+0	1.726051E+0	1.731921E+0	1.722030E+0	1.664753E+0	1.766948E+0	1.720864E+0	1.744549E+0	1.726303E+0	1.648516E+0	1.712115E+0	1.717795E+0	1.737654E+0	1.689646E+0	1.703713E+0	1.689302E+0	1.701530E+0	1.774355E+0	1.678777E+0	1.666503E+0	1.705970E+0	1.642389E+0	1.684019E+0	1.802225E+0	1.708565E+0	1.728843E+0	1.688906E+0	1.774919E+0	1.738670E+0	1.719397E+0	1.697303E+0	1.717921E+0	1.715230E+0	1.743123E+0	1.729800E+0	1.762412E+0	1.698941E+0	1.739720E+0	1.726664E+0	1.732325E+0	1.683916E+0	1.712368E+0	1.714643E+0	1.675772E+0	1.690868E+0	1.697785E+0	1.671522E+0	1.685936E+0	1.651246E+0	1.695108E+0	1.747678E+0	1.694492E+0	1.704337E+0	1.590477E+0	1.689772E+0	1.720471E+0	1.707105E+0	1.715066E+0	1.678189E+0	1.732613E+0	1.636695E+0	1.723066E+0	1.697335E+0	1.675569E+0	1.685814E+0	1.671562E+0	1.717307E+0	1.691347E+0	1.658073E+0	1.678684E+0	1.643212E+0	1.712215E+0	1.782482E+0	1.647876E+0	1.629553E+0	1.695568E+0	1.715439E+0	1.775120E+0	1.710054E+0	1.652552E+0	1.711698E+0	1.688325E+0	1.651383E+0	1.724476E+0	1.643854E+0	1.714514E+0	1.663323E+0	1.771685E+0	1.724254E+0	1.616511E+0	1.683697E+0	1.686808E+0	1.750953E+0	1.680138E+0	1.655896E+0	1.684548E+0	1.644913E+0	1.643059E+0	1.673351E+0	1.698015E+0	1.666508E+0	1.774683E+0	1.660834E+0	1.721383E+0	1.658545E+0	1.676541E+0	1.704217E+0	1.753691E+0	1.656831E+0	1.700372E+0	1.621333E+0	1.725831E+0	1.655226E+0	1.667717E+0	1.624429E+0	1.639836E+0	1.618498E+0	1.681118E+0	1.709507E+0	1.736514E+0	1.661864E+0	1.648702E+0	1.686066E+0	1.697775E+0	1.658339E+0	1.660756E+0	1.697693E+0	1.745985E+0	1.689664E+0	1.607859E+0	1.692130E+0	1.694337E+0	1.687997E+0	1.710294E+0	1.716822E+0	1.736531E+0	1.633687E+0	1.597368E+0	1.646831E+0	1.696792E+0	1.663140E+0	1.661886E+0	1.695173E+0	1.645357E+0	1.701770E+0	1.687759E+0	1.620848E+0	1.757078E+0	1.669942E+0	1.711937E+0	1.653569E+0	1.618624E+0	1.680155E+0	1.743240E+0	1.649283E+0
5.412850E+2	1.573266E+0	1.537801E+0	1.605847E+0	1.557271E+0	1.532773E+0	1.607945E+0	1.611633E+0	1.600995E+0	1.580440E+0	1.601566E+0	1.618697E+0	1.561006E+0	1.588287E+0	1.536138E+0	1.603346E+0	1.593468E+0	1.588607E+0	1.598702E+0	1.577588E+0	1.613673E+0	1.600933E+0	1.603771E+0	1.699540E+0	1.529671E+0	1.529842E+0	1.572962E+0	1.627634E+0	1.577365E+0	1.586429E+0	1.614281E+0	1.612465E+0	1.561512E+0	1.622835E+0	1.553622E+0	1.573448E+0	1.597471E+0	1.540753E+0	1.507976E+0	1.663764E+0	1.578462E+0	1.566329E+0	1.588807E+0	1.501691E+0	1.572999E+0	1.526342E+0	1.561877E+0	1.586546E+0	1.565948E+0	1.569827E+0	1.603639E+0	1.642528E+0	1.560315E+0	1.589878E+0	1.609818E+0	1.639852E+0	1.508209E+0	1.495295E+0	1.556423E+0	1.555054E+0	1.557952E+0	1.555855E+0	1.621402E+0	1.596084E+0	1.528630E+0	1.569816E+0	1.546621E+0	1.594597E+0	1.600919E+0	1.526043E+0	1.555021E+0	1.613536E+0	1.572432E+0	1.523607E+0	1.512937E+0	1.603310E+0	1.616094E+0	1.641508E+0	1.530522E+0	1.537342E+0	1.551470E+0	1.541741E+0	1.539622E+0	1.571265E+0	1.517537E+0	1.561028E+0	1.587289E+0	1.538834E+0	1.559948E+0	1.545402E+0	1.541881E+0	1.620890E+0	1.627334E+0	1.564857E+0	1.553245E+0	1.564706E+0	1.541727E+0	1.553664E+0	1.573447E+0	1.640835E+0	1.551403E+0	1.556988E+0	1.516134E+0	1.594128E+0	1.543260E+0	1.562230E+0	1.583939E+0	1.612352E+0	1.628999E+0	1.521387E+0	1.578406E+0	1.594936E+0	1.562380E+0	1.549826E+0	1.586442E+0	1.512159E+0	1.604616E+0	1.571457E+0	1.543001E+0	1.557687E+0	1.582995E+0	1.532229E+0	1.531344E+0	1.553009E+0	1.521677E+0	1.616257E+0	1.511445E+0	1.576058E+0	1.522574E+0	1.556929E+0	1.560571E+0	1.522593E+0	1.505127E+0	1.506788E+0	1.551426E+0	1.610088E+0	1.543416E+0	1.510800E+0	1.563085E+0	1.524235E+0	1.584615E+0	1.501037E+0	1.522864E+0	1.566399E+0	1.506240E+0	1.569734E+0	1.573457E+0	1.560046E+0	1.546067E+0	1.544591E+0	1.579580E+0	1.590398E+0	1.602017E+0	1.533111E+0	1.506745E+0	1.494644E+0	1.534663E+0	1.590295E+0	1.504143E+0	1.538408E+0	1.587903E+0	1.556366E+0	1.526893E+0	1.594831E+0	1.517858E+0	1.556442E+0	1.538430E+0	1.539366E+0	1.615840E+0	1.549143E+0	1.527543E+0
5.415190E+2	1.398279E+0	1.422345E+0	1.433884E+0	1.453249E+0	1.442103E+0	1.476978E+0	1.487136E+0	1.459322E+0	1.397316E+0	1.425947E+0	1.428445E+0	1.453844E+0	1.412631E+0	1.459294E+0	1.459238E+0	1.420515E+0	1.374128E+0	1.459571E+0	1.444369E+0	1.392566E+0	1.449695E+0	1.446758E+0	1.508061E+0	1.432799E+0	1.414556E+0	1.461774E+0	1.456198E+0	1.470698E+0	1.510054E+0	1.426886E+0	1.457691E+0	1.463164E+0	1.491720E+0	1.446789E+0	1.437383E+0	1.389808E+0	1.383485E+0	1.427089E+0	1.480679E+0	1.448555E+0	1.483415E+0	1.457116E+0	1.469545E+0	1.406384E+0	1.402618E+0	1.439859E+0	1.463684E+0	1.472139E+0	1.471020E+0	1.428649E+0	1.464195E+0	1.454156E+0	1.446870E+0	1.463691E+0	1.451892E+0	1.415767E+0	1.393191E+0	1.442397E+0	1.400150E+0	1.424706E+0	1.515527E+0	1.438787E+0	1.445733E+0	1.419946E+0	1.429432E+0	1.448803E+0	1.488490E+0	1.398341E+0	1.410672E+0	1.395803E+0	1.504836E+0	1.415112E+0	1.429124E+0	1.450366E+0	1.469376E+0	1.475129E+0	1.464209E+0	1.445937E+0	1.450435E+0	1.465890E+0	1.414197E+0	1.403376E+0	1.464907E+0	1.445674E+0	1.447110E+0	1.447989E+0	1.480043E+0	1.475644E+0	1.420985E+0	1.427170E+0	1.465391E+0	1.414619E+0	1.522753E+0	1.476797E+0	1.414744E+0	1.403025E+0	1.395412E+0	1.391490E+0	1.457987E+0	1.388838E+0	1.453057E+0	1.456220E+0	1.514351E+0	1.467250E+0	1.444110E+0	1.399803E+0	1.447405E+0	1.455185E+0	1.462682E+0	1.430025E+0	1.477453E+0	1.475125E+0	1.385275E+0	1.435389E+0	1.414940E+0	1.472481E+0	1.425383E+0	1.442078E+0	1.414539E+0	1.434249E+0	1.448902E+0	1.407887E+0	1.447507E+0	1.403750E+0	1.471365E+0	1.434680E+0	1.477801E+0	1.444104E+0	1.491752E+0	1.397775E+0	1.396388E+0	1.453327E+0	1.413091E+0	1.461990E+0	1.466139E+0	1.426248E+0	1.343995E+0	1.443318E+0	1.461070E+0	1.479529E+0	1.451249E+0	1.435698E+0	1.386795E+0	1.387802E+0	1.380139E+0	1.450427E+0	1.441494E+0	1.497460E+0	1.389624E+0	1.436524E+0	1.495670E+0	1.424215E+0	1.427401E+0	1.418764E+0	1.452906E+0	1.404651E+0	1.432888E+0	1.445147E+0	1.419996E+0	1.396992E+0	1.500210E+0	1.483503E+0	1.481268E+0	1.383588E+0	1.433164E+0	1.426963E+0	1.418908E+0	1.374511E+0	1.374878E+0	1.437847E+0
5.417810E+2	1.313787E+0	1.291117E+0	1.264667E+0	1.316401E+0	1.268210E+0	1.298974E+0	1.218274E+0	1.284968E+0	1.228608E+0	1.242023E+0	1.278917E+0	1.262240E+0	1.252217E+0	1.260583E+0	1.250946E+0	1.247886E+0	1.299633E+0	1.281001E+0	1.297665E+0	1.230495E+0	1.274680E+0	1.280005E+0	1.287901E+0	1.317507E+0	1.234772E+0	1.273371E+0	1.308461E+0	1.284319E+0	1.242781E+0	1.307366E+0	1.235510E+0	1.253099E+0	1.331198E+0	1.238515E+0	1.301736E+0	1.269527E+0	1.296462E+0	1.196231E+0	1.329738E+0	1.231731E+0	1.266325E+0	1.285403E+0	1.319814E+0	1.262308E+0	1.305801E+0	1.273635E+0	1.261202E+0	1.213166E+0	1.277080E+0	1.278213E+0	1.278816E+0	1.247509E+0	1.328323E+0	1.266900E+0	1.285202E+0	1.289194E+0	1.252641E+0	1.351352E+0	1.258245E+0	1.262151E+0	1.301533E+0	1.267961E+0	1.205620E+0	1.215421E+0	1.270479E+0	1.312937E+0	1.296808E+0	1.288385E+0	1.227720E+0	1.266843E+0	1.302308E+0	1.253343E+0	1.256065E+0	1.230734E+0	1.305961E+0	1.300328E+0	1.292327E+0	1.266152E+0	1.295491E+0	1.248307E+0	1.303333E+0	1.278739E+0	1.266356E+0	1.238198E+0	1.297785E+0	1.259062E+0	1.253185E+0	1.271418E+0	1.220457E+0	1.243652E+0	1.296254E+0	1.258279E+0	1.322875E+0	1.290905E+0	1.240758E+0	1.268491E+0	1.266071E+0	1.238631E+0	1.312242E+0	1.234502E+0	1.252507E+0	1.262398E+0	1.331179E+0	1.266619E+0	1.266740E+0	1.221855E+0	1.283760E+0	1.258118E+0	1.264564E+0	1.289136E+0	1.264413E+0	1.252869E+0	1.225127E+0	1.294203E+0	1.271845E+0	1.308881E+0	1.300985E+0	1.243631E+0	1.266319E+0	1.280413E+0	1.238792E+0	1.289338E+0	1.291585E+0	1.246071E+0	1.272485E+0	1.195041E+0	1.282138E+0	1.263043E+0	1.246835E+0	1.244263E+0	1.286796E+0	1.210404E+0	1.245418E+0	1.249872E+0	1.296179E+0	1.297249E+0	1.245485E+0	1.268271E+0	1.275774E+0	1.263471E+0	1.326889E+0	1.321094E+0	1.330427E+0	1.244688E+0	1.274145E+0	1.229995E+0	1.335201E+0	1.254606E+0	1.275698E+0	1.237861E+0	1.301285E+0	1.239866E+0	1.243934E+0	1.270049E+0	1.281972E+0	1.265649E+0	1.264950E+0	1.281371E+0	1.226841E+0	1.292214E+0	1.274763E+0	1.188407E+0	1.289459E+0	1.249091E+0	1.215463E+0	1.267808E+0	1.250121E+0	1.279501E+0	1.215528E+0	1.220828E+0
5.420160E+2	1.121431E+0	1.103132E+0	1.079419E+0	1.097338E+0	1.145022E+0	1.092199E+0	1.104749E+0	1.085442E+0	1.061713E+0	1.057681E+0	1.112330E+0	1.098853E+0	1.065806E+0	1.055690E+0	1.126622E+0	1.073808E+0	1.123287E+0	1.107189E+0	1.114632E+0	1.106941E+0	1.157755E+0	1.091627E+0	1.101831E+0	1.104184E+0	1.063703E+0	1.101910E+0	1.113899E+0	1.083491E+0	1.126286E+0	1.094668E+0	1.118773E+0	1.068411E+0	1.127503E+0	1.090199E+0	1.079548E+0	1.090148E+0	1.095535E+0	1.073841E+0	1.137902E+0	1.108438E+0	1.103559E+0	1.126737E+0	1.102479E+0	1.066871E+0	1.115285E+0	1.061560E+0	1.092090E+0	1.053189E+0	1.104349E+0	1.082261E+0	1.122896E+0	1.081063E+0	1.112297E+0	1.056218E+0	1.065940E+0	1.098575E+0	1.122798E+0	1.100129E+0	1.081349E+0	1.068321E+0	1.072607E+0	1.093074E+0	1.057839E+0	1.096957E+0	1.056731E+0	1.067267E+0	1.076933E+0	1.084175E+0	1.114455E+0	1.103678E+0	1.099666E+0	1.143760E+0	1.124744E+0	1.112893E+0	1.098948E+0	1.059811E+0	1.103298E+0	1.072479E+0	1.091283E+0	1.080438E+0	1.107465E+0	1.093600E+0	1.077403E+0	1.076841E+0	1.088777E+0	1.071907E+0	1.153093E+0	1.139952E+0	1.088938E+0	1.090159E+0	1.113683E+0	1.132753E+0	1.089460E+0	1.107162E+0	1.093721E+0	1.115291E+0	1.108007E+0	1.095857E+0	1.108174E+0	1.115776E+0	1.131677E+0	1.073373E+0	1.098556E+0	1.113589E+0	1.082550E+0	1.073680E+0	1.126328E+0	1.079789E+0	1.091666E+0	1.125306E+0	1.074585E+0	1.115951E+0	1.078556E+0	1.152211E+0	1.081105E+0	1.117621E+0	1.115795E+0	1.105533E+0	1.162453E+0	1.079066E+0	1.090980E+0	1.104590E+0	1.140846E+0	1.100831E+0	1.163282E+0	1.094944E+0	1.066072E+0	1.083281E+0	1.139108E+0	1.052376E+0	1.077084E+0	1.100586E+0	1.109418E+0	1.099948E+0	1.116210E+0	1.077131E+0	1.102325E+0	1.143097E+0	1.117802E+0	1.051699E+0	1.106908E+0	1.130562E+0	1.136852E+0	1.048972E+0	1.062682E+0	1.104457E+0	1.143530E+0	1.082559E+0	1.088198E+0	1.116106E+0	1.119615E+0	1.113616E+0	1.087836E+0	1.086143E+0	1.117776E+0	1.119203E+0	1.138407E+0	1.053586E+0	1.129814E+0	1.157111E+0	1.189391E+0	1.067639E+0	1.140961E+0	1.078199E+0	1.091142E+0	1.076046E+0	1.086440E+0	1.203131E+0	1.080916E+0	1.050610E+0
5.422670E+2	1.038598E+0	1.008668E+0	9.496845E-1	1.001598E+0	1.016102E+0	9.867962E-1	1.006160E+0	1.002895E+0	9.911904E-1	9.960227E-1	1.023744E+0	1.015305E+0	1.000527E+0	9.827752E-1	9.976519E-1	9.596651E-1	9.566102E-1	9.962968E-1	9.995575E-1	9.827483E-1	1.010181E+0	9.966773E-1	1.037427E+0	9.833505E-1	9.683965E-1	1.017027E+0	9.971264E-1	1.026751E+0	1.015900E+0	9.675554E-1	1.030460E+0	1.026981E+0	1.001349E+0	9.748008E-1	1.039033E+0	9.793238E-1	9.870354E-1	9.689212E-1	1.054839E+0	9.812646E-1	1.012781E+0	1.005767E+0	9.596632E-1	1.012350E+0	9.689074E-1	9.980399E-1	9.185276E-1	9.346252E-1	1.003175E+0	9.905579E-1	9.600245E-1	9.956481E-1	9.934087E-1	1.015483E+0	9.812295E-1	9.852832E-1	9.708017E-1	9.928062E-1	9.785884E-1	1.048636E+0	1.021105E+0	1.017786E+0	9.854988E-1	9.766829E-1	9.826708E-1	1.002214E+0	1.007484E+0	1.044607E+0	1.022739E+0	9.741158E-1	1.018339E+0	9.942065E-1	9.898422E-1	1.030426E+0	9.860326E-1	1.018919E+0	9.797577E-1	1.016181E+0	1.012976E+0	9.648574E-1	1.007741E+0	1.002199E+0	1.015240E+0	9.940174E-1	9.674015E-1	9.843262E-1	1.010557E+0	1.026409E+0	9.843339E-1	1.054767E+0	1.006239E+0	1.046605E+0	1.026039E+0	9.616844E-1	1.042075E+0	9.531549E-1	1.035435E+0	9.761440E-1	9.883128E-1	9.867605E-1	1.017925E+0	1.005151E+0	1.016794E+0	1.044324E+0	1.008541E+0	1.012245E+0	9.965971E-1	9.841617E-1	9.627763E-1	1.037822E+0	1.017365E+0	1.002543E+0	1.035349E+0	9.853498E-1	1.013544E+0	9.850429E-1	9.846608E-1	1.051539E+0	9.966002E-1	1.023344E+0	9.916261E-1	9.558047E-1	9.968109E-1	9.985388E-1	1.027835E+0	1.020734E+0	1.003601E+0	9.410184E-1	9.786361E-1	9.598746E-1	9.725713E-1	9.893652E-1	9.863656E-1	9.952007E-1	1.047862E+0	9.858959E-1	9.983521E-1	1.006933E+0	1.026597E+0	1.005641E+0	9.677350E-1	1.038425E+0	9.830388E-1	9.504969E-1	1.022910E+0	9.984722E-1	1.053634E+0	9.620902E-1	9.845301E-1	1.015515E+0	1.019397E+0	1.038723E+0	9.730210E-1	1.016806E+0	1.041957E+0	1.003289E+0	1.005082E+0	1.017581E+0	9.729738E-1	9.747523E-1	9.887937E-1	1.007794E+0	1.002104E+0	9.841550E-1	1.023847E+0	9.881357E-1	9.647910E-1	1.001116E+0	1.005878E+0	9.347163E-1
5.425460E+2	9.856323E-1	9.328768E-1	9.772459E-1	9.971615E-1	9.911872E-1	9.743459E-1	9.325633E-1	1.021120E+0	9.733963E-1	9.838275E-1	9.591451E-1	9.902679E-1	9.708201E-1	9.723861E-1	9.530575E-1	9.374946E-1	9.617985E-1	9.467381E-1	9.525117E-1	9.605276E-1	9.749498E-1	1.017186E+0	9.800269E-1	9.976390E-1	9.515490E-1	1.033019E+0	1.005568E+0	9.717183E-1	9.805091E-1	1.001282E+0	9.654905E-1	9.771682E-1	1.013789E+0	9.444490E-1	9.856891E-1	9.696127E-1	9.617544E-1	9.603203E-1	1.031903E+0	1.006868E+0	9.654790E-1	9.944330E-1	9.793173E-1	9.699028E-1	9.786635E-1	9.298670E-1	9.842994E-1	9.641949E-1	9.925432E-1	9.711954E-1	9.716926E-1	1.013523E+0	9.668354E-1	9.649310E-1	9.540258E-1	9.932075E-1	9.283296E-1	9.584421E-1	9.079086E-1	9.445794E-1	9.497490E-1	9.902988E-1	9.620653E-1	9.558548E-1	9.731680E-1	9.642690E-1	1.006456E+0	9.876400E-1	9.809094E-1	9.802362E-1	9.612297E-1	9.682660E-1	1.016642E+0	1.005078E+0	9.627056E-1	9.528462E-1	9.281604E-1	9.580870E-1	9.741691E-1	9.495613E-1	9.827761E-1	9.968861E-1	9.582195E-1	9.906581E-1	9.413374E-1	1.003175E+0	9.547318E-1	9.620516E-1	9.771184E-1	9.064768E-1	9.924425E-1	9.561473E-1	1.037472E+0	9.778259E-1	9.711185E-1	9.758518E-1	1.021613E+0	9.738985E-1	9.841496E-1	1.004882E+0	9.928105E-1	9.488556E-1	1.013573E+0	9.982135E-1	9.293340E-1	9.510209E-1	9.815354E-1	9.926476E-1	9.815462E-1	9.851429E-1	9.840788E-1	9.878655E-1	9.757216E-1	9.825325E-1	1.005742E+0	9.951025E-1	9.827258E-1	9.915262E-1	9.348913E-1	9.762839E-1	9.219160E-1	9.269221E-1	1.026292E+0	9.699604E-1	9.456069E-1	9.855685E-1	9.837947E-1	9.666516E-1	9.719705E-1	9.087284E-1	9.326267E-1	1.009343E+0	1.007602E+0	9.888460E-1	9.922153E-1	9.817597E-1	1.003999E+0	9.578911E-1	9.687487E-1	9.409743E-1	9.595473E-1	9.733536E-1	9.531538E-1	9.675831E-1	9.541217E-1	9.401844E-1	9.544550E-1	9.762415E-1	9.733573E-1	9.851044E-1	9.982370E-1	9.984369E-1	1.005190E+0	9.909618E-1	9.334877E-1	9.862672E-1	9.875225E-1	9.875292E-1	9.704920E-1	9.619108E-1	9.820424E-1	9.407556E-1	1.000589E+0	9.518912E-1	9.443225E-1	9.513552E-1	9.581806E-1	1.020385E+0	9.604677E-1	9.480735E-1
5.427710E+2	1.074502E+0	1.030957E+0	1.055535E+0	1.048614E+0	1.057571E+0	1.048146E+0	1.034122E+0	1.158585E+0	1.008582E+0	1.060592E+0	1.075008E+0	1.050852E+0	1.095085E+0	1.061650E+0	1.063680E+0	1.063286E+0	1.066677E+0	1.080906E+0	1.055245E+0	1.044736E+0	1.050689E+0	1.030048E+0	1.041568E+0	1.052447E+0	1.067228E+0	1.112388E+0	1.064769E+0	1.077254E+0	1.093361E+0	1.032893E+0	1.051664E+0	1.065356E+0	1.093937E+0	1.080460E+0	1.040128E+0	1.040392E+0	1.048133E+0	1.057754E+0	1.066209E+0	1.055938E+0	1.073073E+0	1.059323E+0	1.069030E+0	1.048704E+0	1.054150E+0	1.036010E+0	1.052581E+0	1.086903E+0	1.074032E+0	1.070659E+0	1.064511E+0	1.055371E+0	1.120416E+0	1.090075E+0	1.055043E+0	1.052763E+0	1.075475E+0	1.031779E+0	1.019462E+0	1.057868E+0	1.066257E+0	1.064201E+0	1.028834E+0	1.015806E+0	1.064969E+0	1.078396E+0	1.084208E+0	1.039065E+0	1.045518E+0	1.011808E+0	1.093404E+0	1.106043E+0	1.070944E+0	1.099795E+0	1.055630E+0	1.063665E+0	1.086371E+0	1.057968E+0	1.052825E+0	1.059927E+0	1.051510E+0	1.079541E+0	1.041068E+0	1.011214E+0	1.084649E+0	1.058246E+0	1.022079E+0	1.081794E+0	1.068308E+0	1.082543E+0	1.083542E+0	1.070483E+0	1.089967E+0	1.086058E+0	1.090459E+0	1.031141E+0	1.034181E+0	1.067212E+0	1.056092E+0	1.038522E+0	1.071891E+0	1.065053E+0	1.039909E+0	1.088034E+0	1.003092E+0	1.050172E+0	1.050416E+0	1.059050E+0	1.069099E+0	1.058911E+0	1.003863E+0	1.054151E+0	1.053968E+0	1.080697E+0	1.049568E+0	1.079696E+0	1.101078E+0	1.005441E+0	1.070945E+0	1.043809E+0	1.052322E+0	1.050365E+0	1.090232E+0	1.050562E+0	1.072824E+0	1.073883E+0	1.084770E+0	1.057142E+0	1.091399E+0	1.062861E+0	1.082219E+0	1.081565E+0	1.038237E+0	1.043735E+0	1.007934E+0	1.097471E+0	1.064638E+0	1.058153E+0	1.050579E+0	1.036575E+0	1.050448E+0	1.106997E+0	1.031317E+0	1.063537E+0	1.017441E+0	1.016810E+0	1.072078E+0	1.022993E+0	1.044165E+0	1.080390E+0	1.019838E+0	1.065803E+0	1.071864E+0	1.065340E+0	1.041951E+0	1.074991E+0	1.092292E+0	1.015432E+0	1.038646E+0	1.077555E+0	1.053914E+0	1.062146E+0	1.102304E+0	1.045783E+0	1.084766E+0	1.058803E+0	1.043983E+0	1.053204E+0	1.058845E+0	1.058418E+0
5.430120E+2	1.177167E+0	1.231162E+0	1.225515E+0	1.247402E+0	1.163955E+0	1.178501E+0	1.216879E+0	1.182111E+0	1.167965E+0	1.218491E+0	1.209031E+0	1.244748E+0	1.198131E+0	1.204425E+0	1.271235E+0	1.149480E+0	1.199442E+0	1.220980E+0	1.203318E+0	1.186377E+0	1.153798E+0	1.181673E+0	1.231759E+0	1.224925E+0	1.154640E+0	1.205363E+0	1.204123E+0	1.209264E+0	1.208116E+0	1.213105E+0	1.177842E+0	1.194889E+0	1.214472E+0	1.187451E+0	1.172550E+0	1.208461E+0	1.145435E+0	1.220276E+0	1.270274E+0	1.212369E+0	1.252451E+0	1.208090E+0	1.195140E+0	1.189832E+0	1.127340E+0	1.187975E+0	1.195626E+0	1.178776E+0	1.225383E+0	1.247493E+0	1.165449E+0	1.156271E+0	1.261796E+0	1.224512E+0	1.166774E+0	1.189675E+0	1.206761E+0	1.242138E+0	1.156704E+0	1.182997E+0	1.231150E+0	1.175924E+0	1.204144E+0	1.199113E+0	1.175092E+0	1.218991E+0	1.190873E+0	1.233660E+0	1.169367E+0	1.201163E+0	1.201611E+0	1.147018E+0	1.190350E+0	1.168732E+0	1.202482E+0	1.138294E+0	1.216502E+0	1.193639E+0	1.192806E+0	1.157670E+0	1.245533E+0	1.184528E+0	1.180018E+0	1.188654E+0	1.236006E+0	1.139961E+0	1.174069E+0	1.227192E+0	1.178247E+0	1.173707E+0	1.190047E+0	1.184577E+0	1.218309E+0	1.217609E+0	1.232887E+0	1.157320E+0	1.196879E+0	1.142933E+0	1.219302E+0	1.203722E+0	1.237781E+0	1.168665E+0	1.237840E+0	1.230052E+0	1.216343E+0	1.176438E+0	1.192646E+0	1.182449E+0	1.253273E+0	1.201896E+0	1.178274E+0	1.206161E+0	1.187639E+0	1.217020E+0	1.201391E+0	1.174828E+0	1.222415E+0	1.199249E+0	1.248212E+0	1.216356E+0	1.192200E+0	1.180381E+0	1.193659E+0	1.180031E+0	1.200847E+0	1.224947E+0	1.199197E+0	1.192770E+0	1.201767E+0	1.167017E+0	1.185897E+0	1.208560E+0	1.181220E+0	1.172993E+0	1.174223E+0	1.210500E+0	1.132535E+0	1.190693E+0	1.198017E+0	1.256988E+0	1.230692E+0	1.254859E+0	1.209218E+0	1.189892E+0	1.189570E+0	1.276540E+0	1.226377E+0	1.185421E+0	1.236024E+0	1.184449E+0	1.209408E+0	1.188955E+0	1.153311E+0	1.215183E+0	1.203972E+0	1.211455E+0	1.235762E+0	1.165757E+0	1.177069E+0	1.212399E+0	1.231450E+0	1.247410E+0	1.245158E+0	1.231591E+0	1.169102E+0	1.150783E+0	1.209153E+0	1.281367E+0	1.176493E+0	1.228489E+0
5.433020E+2	1.394436E+0	1.371588E+0	1.372964E+0	1.396450E+0	1.476036E+0	1.370159E+0	1.397084E+0	1.424302E+0	1.358669E+0	1.373627E+0	1.414820E+0	1.382031E+0	1.401172E+0	1.383346E+0	1.468758E+0	1.426631E+0	1.369225E+0	1.391218E+0	1.387040E+0	1.380247E+0	1.417627E+0	1.387600E+0	1.438992E+0	1.401893E+0	1.406396E+0	1.436944E+0	1.356320E+0	1.357109E+0	1.426756E+0	1.393587E+0	1.370712E+0	1.371981E+0	1.366679E+0	1.413809E+0	1.399619E+0	1.405424E+0	1.368613E+0	1.383363E+0	1.425891E+0	1.411788E+0	1.399313E+0	1.397977E+0	1.407686E+0	1.413138E+0	1.351075E+0	1.420622E+0	1.350246E+0	1.378283E+0	1.364565E+0	1.387605E+0	1.358604E+0	1.346287E+0	1.422648E+0	1.387623E+0	1.414651E+0	1.414650E+0	1.386542E+0	1.467587E+0	1.371427E+0	1.418785E+0	1.412825E+0	1.387725E+0	1.370434E+0	1.333707E+0	1.366851E+0	1.372212E+0	1.425497E+0	1.427629E+0	1.307465E+0	1.410944E+0	1.375665E+0	1.425807E+0	1.391561E+0	1.429001E+0	1.381000E+0	1.408226E+0	1.419892E+0	1.376643E+0	1.419238E+0	1.385817E+0	1.343678E+0	1.404069E+0	1.402037E+0	1.401774E+0	1.381775E+0	1.401417E+0	1.368005E+0	1.425700E+0	1.355939E+0	1.381499E+0	1.378647E+0	1.382188E+0	1.359438E+0	1.399011E+0	1.419866E+0	1.388662E+0	1.387792E+0	1.327595E+0	1.390114E+0	1.330674E+0	1.381101E+0	1.409726E+0	1.338829E+0	1.443161E+0	1.398284E+0	1.381599E+0	1.372792E+0	1.427537E+0	1.410633E+0	1.362882E+0	1.371631E+0	1.363612E+0	1.400500E+0	1.378177E+0	1.357900E+0	1.415980E+0	1.412885E+0	1.380927E+0	1.342676E+0	1.367227E+0	1.346860E+0	1.347697E+0	1.398603E+0	1.402914E+0	1.444757E+0	1.359453E+0	1.398583E+0	1.349152E+0	1.409287E+0	1.396928E+0	1.376557E+0	1.408601E+0	1.410509E+0	1.406873E+0	1.362385E+0	1.378370E+0	1.346270E+0	1.378543E+0	1.397496E+0	1.391137E+0	1.379346E+0	1.384168E+0	1.331259E+0	1.313068E+0	1.403696E+0	1.334772E+0	1.437092E+0	1.360395E+0	1.407932E+0	1.341921E+0	1.394332E+0	1.364600E+0	1.374534E+0	1.389846E+0	1.398760E+0	1.454131E+0	1.453107E+0	1.363465E+0	1.351240E+0	1.409936E+0	1.408936E+0	1.345306E+0	1.411790E+0	1.388225E+0	1.414275E+0	1.319296E+0	1.387087E+0	1.420214E+0	1.396205E+0	1.399858E+0
5.435270E+2	1.489789E+0	1.480141E+0	1.505469E+0	1.529724E+0	1.496815E+0	1.525385E+0	1.487318E+0	1.485691E+0	1.500805E+0	1.551875E+0	1.543030E+0	1.577280E+0	1.484767E+0	1.474665E+0	1.516487E+0	1.510529E+0	1.507683E+0	1.462515E+0	1.509372E+0	1.548109E+0	1.481278E+0	1.521120E+0	1.552446E+0	1.558318E+0	1.523296E+0	1.485822E+0	1.526549E+0	1.490531E+0	1.542700E+0	1.589619E+0	1.534743E+0	1.525293E+0	1.541347E+0	1.490548E+0	1.493235E+0	1.483445E+0	1.462480E+0	1.474710E+0	1.547551E+0	1.529504E+0	1.506139E+0	1.503146E+0	1.528994E+0	1.464509E+0	1.468791E+0	1.441893E+0	1.524534E+0	1.511547E+0	1.529606E+0	1.537986E+0	1.532123E+0	1.520244E+0	1.529758E+0	1.570719E+0	1.495757E+0	1.531033E+0	1.491428E+0	1.534571E+0	1.455552E+0	1.514719E+0	1.520779E+0	1.534992E+0	1.504068E+0	1.439268E+0	1.483793E+0	1.496053E+0	1.521277E+0	1.538305E+0	1.486530E+0	1.476535E+0	1.506729E+0	1.562388E+0	1.562477E+0	1.500669E+0	1.502102E+0	1.478445E+0	1.555755E+0	1.501495E+0	1.532599E+0	1.461949E+0	1.583359E+0	1.499349E+0	1.489486E+0	1.489471E+0	1.523282E+0	1.494680E+0	1.509656E+0	1.546848E+0	1.539307E+0	1.479344E+0	1.511881E+0	1.537078E+0	1.546523E+0	1.546092E+0	1.538583E+0	1.508309E+0	1.465466E+0	1.458513E+0	1.497909E+0	1.498462E+0	1.524690E+0	1.434960E+0	1.510921E+0	1.548624E+0	1.488857E+0	1.517222E+0	1.506476E+0	1.522045E+0	1.500122E+0	1.582044E+0	1.528446E+0	1.457366E+0	1.527504E+0	1.535592E+0	1.473923E+0	1.520830E+0	1.534176E+0	1.515942E+0	1.530513E+0	1.494289E+0	1.460401E+0	1.443872E+0	1.508482E+0	1.515993E+0	1.499767E+0	1.507882E+0	1.507223E+0	1.495635E+0	1.494830E+0	1.509242E+0	1.468572E+0	1.447678E+0	1.497481E+0	1.500165E+0	1.467298E+0	1.525732E+0	1.503333E+0	1.505270E+0	1.523545E+0	1.522686E+0	1.522597E+0	1.468438E+0	1.505420E+0	1.440076E+0	1.447924E+0	1.501106E+0	1.522266E+0	1.520140E+0	1.487107E+0	1.458842E+0	1.483837E+0	1.442644E+0	1.475666E+0	1.510807E+0	1.516683E+0	1.507011E+0	1.449162E+0	1.536626E+0	1.438339E+0	1.516535E+0	1.538864E+0	1.469112E+0	1.519892E+0	1.477836E+0	1.499708E+0	1.484689E+0	1.526840E+0	1.537590E+0	1.505129E+0	1.582839E+0
5.437590E+2	1.661175E+0	1.608743E+0	1.586554E+0	1.624915E+0	1.618767E+0	1.596051E+0	1.595755E+0	1.670382E+0	1.602705E+0	1.611859E+0	1.624264E+0	1.649349E+0	1.668561E+0	1.582480E+0	1.635228E+0	1.628145E+0	1.606867E+0	1.638900E+0	1.596856E+0	1.580277E+0	1.578893E+0	1.646818E+0	1.574896E+0	1.657305E+0	1.550512E+0	1.676376E+0	1.585141E+0	1.618291E+0	1.601619E+0	1.613260E+0	1.627918E+0	1.572589E+0	1.602596E+0	1.644778E+0	1.518511E+0	1.568394E+0	1.580776E+0	1.570754E+0	1.667269E+0	1.616111E+0	1.626155E+0	1.571403E+0	1.623932E+0	1.612311E+0	1.570449E+0	1.574653E+0	1.645757E+0	1.605147E+0	1.620057E+0	1.570552E+0	1.650567E+0	1.627138E+0	1.660964E+0	1.578919E+0	1.570296E+0	1.586613E+0	1.545311E+0	1.595127E+0	1.615106E+0	1.632056E+0	1.639153E+0	1.609759E+0	1.638602E+0	1.619043E+0	1.605940E+0	1.574005E+0	1.612716E+0	1.574892E+0	1.594151E+0	1.579680E+0	1.585222E+0	1.614010E+0	1.604092E+0	1.598153E+0	1.593492E+0	1.611013E+0	1.635596E+0	1.622766E+0	1.600059E+0	1.611427E+0	1.646667E+0	1.684627E+0	1.612201E+0	1.614245E+0	1.620956E+0	1.619589E+0	1.530922E+0	1.644164E+0	1.593154E+0	1.598079E+0	1.622236E+0	1.558468E+0	1.654354E+0	1.557589E+0	1.639179E+0	1.648477E+0	1.574069E+0	1.597742E+0	1.651347E+0	1.631635E+0	1.628359E+0	1.556320E+0	1.539333E+0	1.702211E+0	1.558620E+0	1.565440E+0	1.626921E+0	1.602203E+0	1.579535E+0	1.596274E+0	1.602931E+0	1.580079E+0	1.591943E+0	1.644508E+0	1.593448E+0	1.648177E+0	1.648646E+0	1.600528E+0	1.623062E+0	1.588104E+0	1.585738E+0	1.604856E+0	1.570873E+0	1.563850E+0	1.628248E+0	1.590072E+0	1.677057E+0	1.666148E+0	1.585768E+0	1.605452E+0	1.574936E+0	1.623354E+0	1.556861E+0	1.565221E+0	1.580072E+0	1.603787E+0	1.541019E+0	1.595283E+0	1.563683E+0	1.627233E+0	1.636836E+0	1.582092E+0	1.626436E+0	1.536818E+0	1.613377E+0	1.571290E+0	1.611929E+0	1.601155E+0	1.538656E+0	1.601563E+0	1.626879E+0	1.623604E+0	1.539813E+0	1.635890E+0	1.571080E+0	1.595369E+0	1.586431E+0	1.567505E+0	1.577036E+0	1.590008E+0	1.608878E+0	1.600765E+0	1.574787E+0	1.588844E+0	1.635479E+0	1.549126E+0	1.588071E+0	1.645399E+0	1.521887E+0	1.637493E+0
5.440280E+2	1.695585E+0	1.671637E+0	1.611971E+0	1.627972E+0	1.700643E+0	1.700528E+0	1.691963E+0	1.674258E+0	1.607770E+0	1.588407E+0	1.644268E+0	1.674543E+0	1.620570E+0	1.730088E+0	1.730411E+0	1.633319E+0	1.658462E+0	1.740341E+0	1.706121E+0	1.646643E+0	1.687445E+0	1.642008E+0	1.675551E+0	1.606471E+0	1.663507E+0	1.661342E+0	1.600754E+0	1.646743E+0	1.745355E+0	1.654875E+0	1.659664E+0	1.627145E+0	1.670790E+0	1.689073E+0	1.624440E+0	1.618131E+0	1.636790E+0	1.558216E+0	1.666424E+0	1.667900E+0	1.718947E+0	1.655617E+0	1.607587E+0	1.668451E+0	1.690680E+0	1.666040E+0	1.691087E+0	1.638854E+0	1.621487E+0	1.671931E+0	1.636206E+0	1.593379E+0	1.663190E+0	1.671764E+0	1.663346E+0	1.676312E+0	1.599343E+0	1.650511E+0	1.641052E+0	1.681386E+0	1.703668E+0	1.629526E+0	1.588345E+0	1.573170E+0	1.635565E+0	1.720002E+0	1.690422E+0	1.636024E+0	1.562980E+0	1.663911E+0	1.623588E+0	1.640052E+0	1.645621E+0	1.645876E+0	1.631954E+0	1.700979E+0	1.639443E+0	1.675422E+0	1.641831E+0	1.633110E+0	1.642152E+0	1.648655E+0	1.639742E+0	1.623556E+0	1.651454E+0	1.603850E+0	1.682638E+0	1.622367E+0	1.681415E+0	1.702054E+0	1.605933E+0	1.590442E+0	1.689401E+0	1.662185E+0	1.676414E+0	1.668899E+0	1.597243E+0	1.638210E+0	1.688569E+0	1.702650E+0	1.652712E+0	1.665022E+0	1.617451E+0	1.660320E+0	1.651990E+0	1.624209E+0	1.704160E+0	1.671040E+0	1.623284E+0	1.622059E+0	1.615866E+0	1.608367E+0	1.663779E+0	1.692663E+0	1.666626E+0	1.618233E+0	1.647019E+0	1.659290E+0	1.654456E+0	1.662933E+0	1.603298E+0	1.626060E+0	1.641569E+0	1.617431E+0	1.718733E+0	1.678829E+0	1.613172E+0	1.678918E+0	1.637511E+0	1.565559E+0	1.650236E+0	1.619630E+0	1.631822E+0	1.625852E+0	1.603203E+0	1.597369E+0	1.581876E+0	1.649371E+0	1.660979E+0	1.662165E+0	1.645766E+0	1.599891E+0	1.650068E+0	1.620748E+0	1.583376E+0	1.655956E+0	1.630020E+0	1.607943E+0	1.659874E+0	1.648008E+0	1.614339E+0	1.591176E+0	1.611789E+0	1.605422E+0	1.582888E+0	1.618224E+0	1.608041E+0	1.643742E+0	1.587168E+0	1.704939E+0	1.648561E+0	1.620499E+0	1.640197E+0	1.625044E+0	1.635640E+0	1.615633E+0	1.612393E+0	1.671525E+0	1.599145E+0	1.675195E+0
5.442650E+2	1.686676E+0	1.638439E+0	1.684919E+0	1.723506E+0	1.623622E+0	1.639751E+0	1.645535E+0	1.652353E+0	1.648548E+0	1.675910E+0	1.652852E+0	1.657555E+0	1.650880E+0	1.666562E+0	1.744025E+0	1.665137E+0	1.660651E+0	1.632476E+0	1.709638E+0	1.656454E+0	1.665630E+0	1.701735E+0	1.717205E+0	1.632780E+0	1.600560E+0	1.697227E+0	1.653180E+0	1.590993E+0	1.716887E+0	1.606366E+0	1.625406E+0	1.588853E+0	1.617210E+0	1.703710E+0	1.583813E+0	1.702219E+0	1.624600E+0	1.629528E+0	1.701651E+0	1.560930E+0	1.634270E+0	1.642370E+0	1.691139E+0	1.648996E+0	1.655107E+0	1.589161E+0	1.611383E+0	1.646031E+0	1.657258E+0	1.653351E+0	1.668487E+0	1.576590E+0	1.631594E+0	1.632140E+0	1.663491E+0	1.600291E+0	1.637038E+0	1.672782E+0	1.635370E+0	1.611762E+0	1.693743E+0	1.596819E+0	1.630987E+0	1.583336E+0	1.660574E+0	1.680762E+0	1.620443E+0	1.670586E+0	1.555668E+0	1.604668E+0	1.711919E+0	1.645557E+0	1.660232E+0	1.621701E+0	1.593193E+0	1.669610E+0	1.679317E+0	1.638671E+0	1.675123E+0	1.615424E+0	1.633366E+0	1.675853E+0	1.618042E+0	1.646861E+0	1.653441E+0	1.580850E+0	1.530754E+0	1.694004E+0	1.556818E+0	1.646267E+0	1.670719E+0	1.637218E+0	1.698346E+0	1.609401E+0	1.703685E+0	1.612505E+0	1.626860E+0	1.667245E+0	1.672411E+0	1.634701E+0	1.641013E+0	1.655792E+0	1.570494E+0	1.686509E+0	1.567945E+0	1.645450E+0	1.586714E+0	1.685483E+0	1.611997E+0	1.638793E+0	1.561896E+0	1.625499E+0	1.689705E+0	1.617427E+0	1.621830E+0	1.702931E+0	1.639861E+0	1.609189E+0	1.613285E+0	1.625224E+0	1.628229E+0	1.592030E+0	1.605578E+0	1.624935E+0	1.640679E+0	1.566874E+0	1.675550E+0	1.636793E+0	1.633229E+0	1.629618E+0	1.580440E+0	1.604702E+0	1.621287E+0	1.612757E+0	1.576754E+0	1.682582E+0	1.569652E+0	1.639408E+0	1.654222E+0	1.688450E+0	1.670613E+0	1.631727E+0	1.616857E+0	1.554541E+0	1.631053E+0	1.629158E+0	1.643714E+0	1.609426E+0	1.619579E+0	1.619213E+0	1.555079E+0	1.651982E+0	1.646958E+0	1.586528E+0	1.584590E+0	1.644911E+0	1.632017E+0	1.581870E+0	1.621285E+0	1.563459E+0	1.764995E+0	1.596696E+0	1.644154E+0	1.609489E+0	1.643328E+0	1.616201E+0	1.632940E+0	1.715502E+0	1.606395E+0	1.431251E+0
5.445240E+2	1.627846E+0	1.666129E+0	1.600964E+0	1.663897E+0	1.676829E+0	1.646154E+0	1.659052E+0	1.641730E+0	1.604407E+0	1.600654E+0	1.632888E+0	1.624344E+0	1.687119E+0	1.644471E+0	1.651351E+0	1.600468E+0	1.582040E+0	1.649679E+0	1.653229E+0	1.574254E+0	1.629769E+0	1.678670E+0	1.661273E+0	1.649300E+0	1.604249E+0	1.637553E+0	1.604510E+0	1.648252E+0	1.666303E+0	1.655638E+0	1.627918E+0	1.583992E+0	1.582745E+0	1.632911E+0	1.613029E+0	1.606359E+0	1.636111E+0	1.585647E+0	1.614501E+0	1.569711E+0	1.689646E+0	1.597603E+0	1.607068E+0	1.620630E+0	1.663142E+0	1.595222E+0	1.601004E+0	1.635488E+0	1.678684E+0	1.647108E+0	1.554808E+0	1.619999E+0	1.630258E+0	1.631680E+0	1.628289E+0	1.553500E+0	1.615244E+0	1.669157E+0	1.591122E+0	1.606690E+0	1.615256E+0	1.658060E+0	1.551416E+0	1.546059E+0	1.637388E+0	1.592078E+0	1.601303E+0	1.626750E+0	1.595058E+0	1.574002E+0	1.643449E+0	1.584239E+0	1.683093E+0	1.621297E+0	1.637638E+0	1.609461E+0	1.671562E+0	1.558092E+0	1.610486E+0	1.571522E+0	1.597942E+0	1.606682E+0	1.625738E+0	1.592119E+0	1.663112E+0	1.590868E+0	1.580290E+0	1.633427E+0	1.606039E+0	1.584303E+0	1.653998E+0	1.523754E+0	1.646431E+0	1.660122E+0	1.585279E+0	1.572467E+0	1.636389E+0	1.532501E+0	1.680129E+0	1.606796E+0	1.654979E+0	1.612933E+0	1.630161E+0	1.675116E+0	1.550167E+0	1.606944E+0	1.571679E+0	1.592595E+0	1.555423E+0	1.591687E+0	1.562601E+0	1.590645E+0	1.644135E+0	1.568808E+0	1.618498E+0	1.603664E+0	1.593245E+0	1.587383E+0	1.663687E+0	1.622490E+0	1.582399E+0	1.602195E+0	1.606579E+0	1.619204E+0	1.642144E+0	1.628892E+0	1.630536E+0	1.559277E+0	1.609858E+0	1.587994E+0	1.588089E+0	1.587070E+0	1.579946E+0	1.595592E+0	1.589471E+0	1.670077E+0	1.659803E+0	1.597633E+0	1.544703E+0	1.568376E+0	1.634353E+0	1.634259E+0	1.578533E+0	1.540097E+0	1.567496E+0	1.572438E+0	1.644105E+0	1.592135E+0	1.587535E+0	1.627751E+0	1.592988E+0	1.541593E+0	1.639346E+0	1.612559E+0	1.567834E+0	1.584346E+0	1.569666E+0	1.548445E+0	1.590706E+0	1.636180E+0	1.619118E+0	1.607765E+0	1.596386E+0	1.572222E+0	1.563580E+0	1.587914E+0	1.594734E+0	1.701238E+0	1.616113E+0	1.602775E+0
5.447660E+2	1.547223E+0	1.545337E+0	1.497129E+0	1.534243E+0	1.566871E+0	1.552101E+0	1.597368E+0	1.548209E+0	1.559470E+0	1.520098E+0	1.520585E+0	1.531138E+0	1.572390E+0	1.545295E+0	1.571677E+0	1.516161E+0	1.538810E+0	1.545762E+0	1.573463E+0	1.518771E+0	1.529408E+0	1.552550E+0	1.549313E+0	1.499432E+0	1.539792E+0	1.545003E+0	1.498950E+0	1.579479E+0	1.576327E+0	1.487835E+0	1.523046E+0	1.529022E+0	1.603360E+0	1.553868E+0	1.542521E+0	1.551207E+0	1.471633E+0	1.482875E+0	1.526162E+0	1.554359E+0	1.521195E+0	1.529893E+0	1.513473E+0	1.546864E+0	1.529750E+0	1.480052E+0	1.541793E+0	1.485932E+0	1.596005E+0	1.558771E+0	1.576888E+0	1.553016E+0	1.560787E+0	1.530362E+0	1.550775E+0	1.467166E+0	1.525300E+0	1.544129E+0	1.526675E+0	1.489622E+0	1.560473E+0	1.530740E+0	1.476269E+0	1.523826E+0	1.520728E+0	1.517396E+0	1.551480E+0	1.531622E+0	1.486178E+0	1.561204E+0	1.504370E+0	1.455732E+0	1.504572E+0	1.534881E+0	1.577519E+0	1.533769E+0	1.509095E+0	1.550407E+0	1.500257E+0	1.502710E+0	1.617980E+0	1.505257E+0	1.501539E+0	1.459535E+0	1.551803E+0	1.538372E+0	1.463787E+0	1.493785E+0	1.511405E+0	1.491836E+0	1.540397E+0	1.454554E+0	1.555454E+0	1.533143E+0	1.527364E+0	1.477170E+0	1.513816E+0	1.526630E+0	1.554598E+0	1.511762E+0	1.563644E+0	1.472213E+0	1.508530E+0	1.532153E+0	1.509468E+0	1.510034E+0	1.558762E+0	1.515926E+0	1.509307E+0	1.489643E+0	1.518524E+0	1.562051E+0	1.497477E+0	1.553243E+0	1.490996E+0	1.464049E+0	1.593861E+0	1.527361E+0	1.499102E+0	1.532826E+0	1.513333E+0	1.536095E+0	1.576251E+0	1.492828E+0	1.587170E+0	1.499525E+0	1.544811E+0	1.485206E+0	1.503310E+0	1.513735E+0	1.460040E+0	1.533400E+0	1.525637E+0	1.519636E+0	1.484248E+0	1.537859E+0	1.505800E+0	1.566071E+0	1.433510E+0	1.547171E+0	1.504307E+0	1.533250E+0	1.495888E+0	1.468639E+0	1.563480E+0	1.541193E+0	1.520223E+0	1.557893E+0	1.551801E+0	1.523064E+0	1.480833E+0	1.575245E+0	1.465133E+0	1.502401E+0	1.575476E+0	1.513557E+0	1.528317E+0	1.471348E+0	1.496919E+0	1.485744E+0	1.597279E+0	1.529310E+0	1.529071E+0	1.493788E+0	1.483371E+0	1.519004E+0	1.460686E+0	1.608962E+0	1.507205E+0	1.409859E+0
5.450200E+2	1.440473E+0	1.417191E+0	1.409699E+0	1.429791E+0	1.405826E+0	1.452157E+0	1.416551E+0	1.409751E+0	1.414823E+0	1.428550E+0	1.379137E+0	1.440237E+0	1.443929E+0	1.416235E+0	1.464613E+0	1.406675E+0	1.421383E+0	1.429829E+0	1.384471E+0	1.430304E+0	1.433871E+0	1.431176E+0	1.410113E+0	1.401788E+0	1.457704E+0	1.443217E+0	1.365643E+0	1.405911E+0	1.435336E+0	1.393811E+0	1.428418E+0	1.420888E+0	1.386038E+0	1.439699E+0	1.404128E+0	1.419642E+0	1.410778E+0	1.374528E+0	1.439656E+0	1.411191E+0	1.456727E+0	1.455776E+0	1.414790E+0	1.387179E+0	1.404092E+0	1.385037E+0	1.417439E+0	1.389568E+0	1.429099E+0	1.402288E+0	1.432626E+0	1.362812E+0	1.442842E+0	1.426660E+0	1.403940E+0	1.406937E+0	1.395257E+0	1.422512E+0	1.430329E+0	1.401113E+0	1.441649E+0	1.464681E+0	1.453741E+0	1.349299E+0	1.413742E+0	1.443314E+0	1.396519E+0	1.365481E+0	1.409294E+0	1.374495E+0	1.373368E+0	1.391444E+0	1.424549E+0	1.413999E+0	1.394021E+0	1.397348E+0	1.429512E+0	1.393506E+0	1.456174E+0	1.398303E+0	1.385754E+0	1.394164E+0	1.399103E+0	1.365054E+0	1.442021E+0	1.418786E+0	1.337563E+0	1.376169E+0	1.425750E+0	1.453488E+0	1.463079E+0	1.405989E+0	1.471927E+0	1.392331E+0	1.426839E+0	1.362724E+0	1.389915E+0	1.384704E+0	1.447192E+0	1.417898E+0	1.462702E+0	1.404135E+0	1.419637E+0	1.424730E+0	1.397093E+0	1.416203E+0	1.395933E+0	1.399989E+0	1.397859E+0	1.421802E+0	1.428677E+0	1.424451E+0	1.352332E+0	1.393015E+0	1.356503E+0	1.447103E+0	1.410834E+0	1.412708E+0	1.403072E+0	1.443525E+0	1.413251E+0	1.425300E+0	1.370529E+0	1.408692E+0	1.429634E+0	1.436534E+0	1.371308E+0	1.400077E+0	1.359253E+0	1.371787E+0	1.358661E+0	1.441631E+0	1.366237E+0	1.445431E+0	1.374037E+0	1.421430E+0	1.437972E+0	1.399937E+0	1.447765E+0	1.416947E+0	1.359705E+0	1.479607E+0	1.434650E+0	1.367567E+0	1.390532E+0	1.349343E+0	1.452386E+0	1.412035E+0	1.383963E+0	1.419941E+0	1.395703E+0	1.403593E+0	1.418288E+0	1.394724E+0	1.433247E+0	1.381880E+0	1.340544E+0	1.409790E+0	1.365304E+0	1.409261E+0	1.440196E+0	1.389607E+0	1.409979E+0	1.433427E+0	1.413817E+0	1.380010E+0	1.394937E+0	1.475683E+0	1.438012E+0	1.388037E+0
5.452690E+2	1.364728E+0	1.367536E+0	1.313714E+0	1.386675E+0	1.302122E+0	1.356433E+0	1.337074E+0	1.352083E+0	1.339998E+0	1.337866E+0	1.352300E+0	1.347704E+0	1.365845E+0	1.335490E+0	1.346363E+0	1.319794E+0	1.305371E+0	1.347474E+0	1.367809E+0	1.294519E+0	1.361039E+0	1.386613E+0	1.382313E+0	1.326353E+0	1.356451E+0	1.363626E+0	1.323208E+0	1.300689E+0	1.384551E+0	1.326386E+0	1.357272E+0	1.326619E+0	1.341706E+0	1.380030E+0	1.244686E+0	1.325660E+0	1.310048E+0	1.312517E+0	1.319561E+0	1.323741E+0	1.328590E+0	1.314895E+0	1.360154E+0	1.372178E+0	1.341567E+0	1.262821E+0	1.337887E+0	1.377416E+0	1.418042E+0	1.380688E+0	1.420709E+0	1.324787E+0	1.381374E+0	1.361381E+0	1.338781E+0	1.316009E+0	1.333791E+0	1.356600E+0	1.385755E+0	1.294965E+0	1.356114E+0	1.373110E+0	1.323791E+0	1.314692E+0	1.332397E+0	1.377118E+0	1.303314E+0	1.341088E+0	1.307457E+0	1.321754E+0	1.354585E+0	1.365259E+0	1.373130E+0	1.393166E+0	1.370777E+0	1.291216E+0	1.413130E+0	1.353959E+0	1.366996E+0	1.294857E+0	1.352369E+0	1.344600E+0	1.322224E+0	1.283805E+0	1.329669E+0	1.318453E+0	1.309887E+0	1.349319E+0	1.307765E+0	1.328320E+0	1.369512E+0	1.350314E+0	1.403721E+0	1.325403E+0	1.321983E+0	1.316259E+0	1.354072E+0	1.308356E+0	1.292465E+0	1.335123E+0	1.409186E+0	1.358075E+0	1.332585E+0	1.316860E+0	1.348635E+0	1.342021E+0	1.366362E+0	1.312473E+0	1.363036E+0	1.345986E+0	1.376042E+0	1.297305E+0	1.360459E+0	1.365242E+0	1.341775E+0	1.333293E+0	1.323815E+0	1.307279E+0	1.336754E+0	1.331538E+0	1.363280E+0	1.340624E+0	1.361563E+0	1.297197E+0	1.336455E+0	1.265386E+0	1.337577E+0	1.302220E+0	1.346782E+0	1.330618E+0	1.300630E+0	1.288098E+0	1.344948E+0	1.340392E+0	1.310132E+0	1.345292E+0	1.300094E+0	1.345917E+0	1.380341E+0	1.315766E+0	1.338377E+0	1.354812E+0	1.318740E+0	1.351904E+0	1.343347E+0	1.358696E+0	1.380424E+0	1.326833E+0	1.366886E+0	1.315546E+0	1.372109E+0	1.335395E+0	1.403388E+0	1.359384E+0	1.337853E+0	1.296203E+0	1.312581E+0	1.337609E+0	1.301877E+0	1.384180E+0	1.366630E+0	1.308717E+0	1.336451E+0	1.297874E+0	1.316443E+0	1.318374E+0	1.328809E+0	1.414889E+0	1.326607E+0	1.348012E+0
5.455390E+2	1.282911E+0	1.263928E+0	1.241774E+0	1.307363E+0	1.315944E+0	1.281827E+0	1.274236E+0	1.242184E+0	1.264196E+0	1.277376E+0	1.287863E+0	1.245699E+0	1.325535E+0	1.302882E+0	1.262891E+0	1.249031E+0	1.292285E+0	1.298350E+0	1.293248E+0	1.254667E+0	1.309987E+0	1.258593E+0	1.280691E+0	1.271719E+0	1.316533E+0	1.345274E+0	1.268415E+0	1.261797E+0	1.330116E+0	1.297295E+0	1.264790E+0	1.262017E+0	1.278110E+0	1.278811E+0	1.267102E+0	1.260585E+0	1.266509E+0	1.261855E+0	1.281995E+0	1.269612E+0	1.264374E+0	1.238610E+0	1.278407E+0	1.282954E+0	1.283911E+0	1.243631E+0	1.305695E+0	1.273223E+0	1.286269E+0	1.214368E+0	1.247723E+0	1.282927E+0	1.300936E+0	1.254133E+0	1.237186E+0	1.214754E+0	1.313348E+0	1.279888E+0	1.254581E+0	1.246531E+0	1.289759E+0	1.258621E+0	1.277220E+0	1.285938E+0	1.265444E+0	1.309803E+0	1.318737E+0	1.247588E+0	1.238569E+0	1.241720E+0	1.306311E+0	1.211500E+0	1.300116E+0	1.223558E+0	1.255506E+0	1.259151E+0	1.230808E+0	1.307837E+0	1.216719E+0	1.291357E+0	1.274288E+0	1.258376E+0	1.278750E+0	1.235882E+0	1.293688E+0	1.254052E+0	1.245191E+0	1.267135E+0	1.234413E+0	1.275184E+0	1.301854E+0	1.273975E+0	1.396298E+0	1.231719E+0	1.264908E+0	1.268665E+0	1.299954E+0	1.206677E+0	1.272691E+0	1.264408E+0	1.278768E+0	1.253389E+0	1.274495E+0	1.242811E+0	1.312590E+0	1.282081E+0	1.263507E+0	1.341080E+0	1.276503E+0	1.229736E+0	1.300519E+0	1.258344E+0	1.304509E+0	1.250900E+0	1.262080E+0	1.263180E+0	1.281310E+0	1.272777E+0	1.240883E+0	1.267302E+0	1.240823E+0	1.260775E+0	1.235178E+0	1.314933E+0	1.351798E+0	1.247374E+0	1.281909E+0	1.276009E+0	1.238079E+0	1.259644E+0	1.264470E+0	1.230730E+0	1.327613E+0	1.289865E+0	1.270136E+0	1.251242E+0	1.279754E+0	1.261723E+0	1.303545E+0	1.292000E+0	1.288671E+0	1.241000E+0	1.273826E+0	1.305077E+0	1.318725E+0	1.281227E+0	1.273639E+0	1.238746E+0	1.289127E+0	1.332339E+0	1.245833E+0	1.265977E+0	1.282111E+0	1.295146E+0	1.262366E+0	1.256696E+0	1.239807E+0	1.304902E+0	1.223775E+0	1.253399E+0	1.255578E+0	1.232114E+0	1.262375E+0	1.278734E+0	1.213774E+0	1.230225E+0	1.252337E+0	1.288434E+0	1.307257E+0	1.296743E+0
5.457780E+2	1.219096E+0	1.222163E+0	1.194363E+0	1.227911E+0	1.197466E+0	1.210856E+0	1.245846E+0	1.184496E+0	1.240988E+0	1.193895E+0	1.221470E+0	1.178378E+0	1.218530E+0	1.258655E+0	1.185309E+0	1.219490E+0	1.253221E+0	1.254125E+0	1.239150E+0	1.193231E+0	1.239929E+0	1.215330E+0	1.185858E+0	1.258964E+0	1.213946E+0	1.231064E+0	1.247660E+0	1.207889E+0	1.278730E+0	1.196580E+0	1.218820E+0	1.202064E+0	1.272183E+0	1.218314E+0	1.169380E+0	1.247790E+0	1.194905E+0	1.184506E+0	1.222999E+0	1.230365E+0	1.185981E+0	1.233435E+0	1.203211E+0	1.233048E+0	1.219557E+0	1.192351E+0	1.215133E+0	1.219508E+0	1.273467E+0	1.235696E+0	1.267280E+0	1.195716E+0	1.211649E+0	1.261783E+0	1.226019E+0	1.207831E+0	1.240875E+0	1.210351E+0	1.186191E+0	1.153921E+0	1.268745E+0	1.197410E+0	1.183547E+0	1.243017E+0	1.171046E+0	1.251788E+0	1.172445E+0	1.232734E+0	1.210051E+0	1.237355E+0	1.200834E+0	1.275222E+0	1.222208E+0	1.226305E+0	1.230370E+0	1.200487E+0	1.214026E+0	1.159399E+0	1.239366E+0	1.262651E+0	1.266718E+0	1.235958E+0	1.217528E+0	1.218268E+0	1.226467E+0	1.186373E+0	1.175031E+0	1.230659E+0	1.227996E+0	1.290325E+0	1.276355E+0	1.196058E+0	1.291694E+0	1.256566E+0	1.280149E+0	1.213082E+0	1.242082E+0	1.213623E+0	1.205759E+0	1.193320E+0	1.252905E+0	1.179479E+0	1.201360E+0	1.206989E+0	1.242142E+0	1.219651E+0	1.259853E+0	1.191298E+0	1.243456E+0	1.208515E+0	1.205123E+0	1.266920E+0	1.223305E+0	1.188768E+0	1.224423E+0	1.220545E+0	1.231583E+0	1.223896E+0	1.216702E+0	1.206950E+0	1.175324E+0	1.181543E+0	1.246775E+0	1.245415E+0	1.198893E+0	1.194435E+0	1.184797E+0	1.189147E+0	1.167344E+0	1.242812E+0	1.216875E+0	1.201884E+0	1.222428E+0	1.220628E+0	1.205300E+0	1.227482E+0	1.175410E+0	1.271197E+0	1.178656E+0	1.265069E+0	1.230513E+0	1.258099E+0	1.213096E+0	1.184508E+0	1.199808E+0	1.214550E+0	1.227007E+0	1.237092E+0	1.232920E+0	1.169130E+0	1.209384E+0	1.245450E+0	1.215811E+0	1.215270E+0	1.198062E+0	1.178764E+0	1.213952E+0	1.220278E+0	1.200537E+0	1.243484E+0	1.341130E+0	1.180698E+0	1.210090E+0	1.189717E+0	1.216372E+0	1.202699E+0	1.175059E+0	1.247818E+0	1.229046E+0	1.192693E+0
5.460110E+2	1.279891E+0	1.255571E+0	1.189125E+0	1.226103E+0	1.206164E+0	1.220969E+0	1.227578E+0	1.249933E+0	1.267241E+0	1.238195E+0	1.250329E+0	1.272158E+0	1.229689E+0	1.265159E+0	1.229360E+0	1.226790E+0	1.281976E+0	1.248748E+0	1.278987E+0	1.216875E+0	1.245583E+0	1.235538E+0	1.291960E+0	1.228595E+0	1.248690E+0	1.260606E+0	1.228801E+0	1.223660E+0	1.297804E+0	1.260348E+0	1.222849E+0	1.240493E+0	1.241052E+0	1.246393E+0	1.221677E+0	1.228535E+0	1.199269E+0	1.255339E+0	1.213051E+0	1.249500E+0	1.252835E+0	1.253412E+0	1.262977E+0	1.237728E+0	1.254258E+0	1.222296E+0	1.239911E+0	1.229418E+0	1.256286E+0	1.235507E+0	1.239662E+0	1.231132E+0	1.245166E+0	1.241284E+0	1.243517E+0	1.205158E+0	1.222963E+0	1.251964E+0	1.224136E+0	1.216225E+0	1.303772E+0	1.234565E+0	1.305879E+0	1.201972E+0	1.210990E+0	1.191793E+0	1.246727E+0	1.221705E+0	1.231723E+0	1.229558E+0	1.255221E+0	1.240638E+0	1.285946E+0	1.263500E+0	1.168911E+0	1.283870E+0	1.241267E+0	1.234517E+0	1.178612E+0	1.224839E+0	1.261073E+0	1.196697E+0	1.261407E+0	1.280248E+0	1.223783E+0	1.213918E+0	1.245500E+0	1.256086E+0	1.205999E+0	1.220922E+0	1.236214E+0	1.208347E+0	1.266668E+0	1.280663E+0	1.227564E+0	1.219749E+0	1.210896E+0	1.186224E+0	1.229747E+0	1.261212E+0	1.216312E+0	1.199641E+0	1.244756E+0	1.233917E+0	1.237188E+0	1.229888E+0	1.271581E+0	1.206312E+0	1.252013E+0	1.252482E+0	1.210029E+0	1.190230E+0	1.246832E+0	1.263471E+0	1.176750E+0	1.180336E+0	1.323561E+0	1.234253E+0	1.236220E+0	1.190290E+0	1.216237E+0	1.219660E+0	1.214864E+0	1.212483E+0	1.280722E+0	1.245765E+0	1.256901E+0	1.231626E+0	1.197097E+0	1.132454E+0	1.225383E+0	1.223827E+0	1.168812E+0	1.253784E+0	1.221809E+0	1.210122E+0	1.248143E+0	1.189021E+0	1.243437E+0	1.228665E+0	1.218118E+0	1.197912E+0	1.212400E+0	1.227057E+0	1.207628E+0	1.239131E+0	1.249754E+0	1.221767E+0	1.225238E+0	1.208603E+0	1.256306E+0	1.234548E+0	1.224045E+0	1.276150E+0	1.223024E+0	1.249278E+0	1.306152E+0	1.244415E+0	1.203812E+0	1.220018E+0	1.278618E+0	1.191163E+0	1.216280E+0	1.247883E+0	1.185537E+0	1.214333E+0	1.227561E+0	1.234836E+0	1.173562E+0	1.193482E+0
5.467600E+2	1.294580E+0	1.316216E+0	1.289778E+0	1.294994E+0	1.294865E+0	1.305050E+0	1.261521E+0	1.299831E+0	1.305530E+0	1.253571E+0	1.357618E+0	1.275784E+0	1.298266E+0	1.341998E+0	1.318639E+0	1.312009E+0	1.322688E+0	1.295681E+0	1.269779E+0	1.222320E+0	1.306744E+0	1.303722E+0	1.331090E+0	1.304312E+0	1.286863E+0	1.313449E+0	1.322253E+0	1.297472E+0	1.260384E+0	1.317768E+0	1.313620E+0	1.302171E+0	1.299428E+0	1.312496E+0	1.250627E+0	1.317680E+0	1.327544E+0	1.302053E+0	1.327860E+0	1.308315E+0	1.300436E+0	1.334133E+0	1.335205E+0	1.229058E+0	1.269548E+0	1.329638E+0	1.297301E+0	1.287998E+0	1.294383E+0	1.297144E+0	1.291041E+0	1.346992E+0	1.341100E+0	1.313312E+0	1.301682E+0	1.239686E+0	1.293042E+0	1.385983E+0	1.273944E+0	1.295089E+0	1.302269E+0	1.321786E+0	1.249094E+0	1.319109E+0	1.277700E+0	1.314690E+0	1.316495E+0	1.297604E+0	1.266615E+0	1.281745E+0	1.280585E+0	1.282289E+0	1.273042E+0	1.277406E+0	1.315035E+0	1.267891E+0	1.344786E+0	1.339470E+0	1.276129E+0	1.208192E+0	1.338630E+0	1.289266E+0	1.295694E+0	1.270912E+0	1.325637E+0	1.253915E+0	1.333981E+0	1.260757E+0	1.305448E+0	1.317530E+0	1.322706E+0	1.307712E+0	1.298184E+0	1.365380E+0	1.280284E+0	1.316167E+0	1.320792E+0	1.278008E+0	1.328646E+0	1.252730E+0	1.325485E+0	1.287197E+0	1.257438E+0	1.319871E+0	1.289203E+0	1.298129E+0	1.302127E+0	1.304801E+0	1.307339E+0	1.286879E+0	1.262512E+0	1.285311E+0	1.307638E+0	1.294701E+0	1.316077E+0	1.301556E+0	1.333247E+0	1.319027E+0	1.311094E+0	1.282720E+0	1.252592E+0	1.264434E+0	1.235334E+0	1.274368E+0	1.354412E+0	1.352973E+0	1.306120E+0	1.311977E+0	1.317344E+0	1.303843E+0	1.287857E+0	1.320319E+0	1.291641E+0	1.372826E+0	1.302939E+0	1.246041E+0	1.328163E+0	1.312151E+0	1.339571E+0	1.282366E+0	1.287155E+0	1.288284E+0	1.334736E+0	1.220983E+0	1.299616E+0	1.279088E+0	1.340425E+0	1.288400E+0	1.303209E+0	1.298215E+0	1.275704E+0	1.292774E+0	1.272227E+0	1.274890E+0	1.289837E+0	1.298890E+0	1.283395E+0	1.298413E+0	1.288877E+0	1.304184E+0	1.345636E+0	1.307003E+0	1.281339E+0	1.319597E+0	1.250385E+0	1.267318E+0	1.309370E+0	1.238106E+0	1.296002E+0	1.342605E+0
5.475070E+2	1.429070E+0	1.405930E+0	1.339050E+0	1.374279E+0	1.351995E+0	1.400527E+0	1.390284E+0	1.449397E+0	1.328976E+0	1.333867E+0	1.367516E+0	1.342401E+0	1.360011E+0	1.385003E+0	1.395499E+0	1.364647E+0	1.359505E+0	1.413288E+0	1.395401E+0	1.327246E+0	1.376378E+0	1.365710E+0	1.425283E+0	1.398541E+0	1.328467E+0	1.425100E+0	1.379649E+0	1.402489E+0	1.373516E+0	1.362823E+0	1.394572E+0	1.383423E+0	1.422767E+0	1.460201E+0	1.353113E+0	1.334205E+0	1.338941E+0	1.355011E+0	1.390114E+0	1.370989E+0	1.400321E+0	1.342699E+0	1.415607E+0	1.317726E+0	1.353919E+0	1.385541E+0	1.394895E+0	1.376715E+0	1.430173E+0	1.343295E+0	1.436545E+0	1.347685E+0	1.343826E+0	1.420524E+0	1.383621E+0	1.356646E+0	1.396369E+0	1.434232E+0	1.369878E+0	1.326704E+0	1.387722E+0	1.440161E+0	1.394581E+0	1.345685E+0	1.302083E+0	1.373888E+0	1.369812E+0	1.370750E+0	1.318436E+0	1.358209E+0	1.387603E+0	1.428789E+0	1.378328E+0	1.356641E+0	1.363900E+0	1.419322E+0	1.373405E+0	1.363748E+0	1.418718E+0	1.394045E+0	1.372399E+0	1.355039E+0	1.397516E+0	1.316791E+0	1.372905E+0	1.321155E+0	1.322835E+0	1.398426E+0	1.347976E+0	1.357208E+0	1.343322E+0	1.343570E+0	1.370135E+0	1.463238E+0	1.364671E+0	1.359664E+0	1.352696E+0	1.355978E+0	1.315977E+0	1.355443E+0	1.384657E+0	1.353239E+0	1.414569E+0	1.369433E+0	1.359061E+0	1.311686E+0	1.394905E+0	1.358433E+0	1.347274E+0	1.383024E+0	1.428343E+0	1.414989E+0	1.407533E+0	1.411651E+0	1.421351E+0	1.364793E+0	1.431509E+0	1.295390E+0	1.313811E+0	1.389268E+0	1.360844E+0	1.392601E+0	1.373083E+0	1.342402E+0	1.402521E+0	1.349009E+0	1.425919E+0	1.377929E+0	1.338499E+0	1.370678E+0	1.332201E+0	1.423964E+0	1.345421E+0	1.377689E+0	1.384280E+0	1.301662E+0	1.371559E+0	1.363940E+0	1.331815E+0	1.345059E+0	1.358831E+0	1.355690E+0	1.365843E+0	1.353312E+0	1.338690E+0	1.356550E+0	1.381206E+0	1.386388E+0	1.371353E+0	1.376977E+0	1.319302E+0	1.381794E+0	1.374864E+0	1.387815E+0	1.419487E+0	1.407284E+0	1.368447E+0	1.343111E+0	1.337275E+0	1.359527E+0	1.374680E+0	1.371743E+0	1.343412E+0	1.341520E+0	1.371360E+0	1.344818E+0	1.358523E+0	1.358277E+0	1.349374E+0	1.358882E+0
5.482600E+2	1.492519E+0	1.492388E+0	1.432929E+0	1.512747E+0	1.443452E+0	1.453679E+0	1.439299E+0	1.489241E+0	1.475293E+0	1.470972E+0	1.442800E+0	1.514914E+0	1.449178E+0	1.509219E+0	1.483028E+0	1.431227E+0	1.457069E+0	1.459585E+0	1.478673E+0	1.457470E+0	1.429296E+0	1.513515E+0	1.476115E+0	1.417681E+0	1.470980E+0	1.502132E+0	1.517029E+0	1.445073E+0	1.462401E+0	1.454156E+0	1.369596E+0	1.432359E+0	1.473676E+0	1.520321E+0	1.409045E+0	1.443623E+0	1.454328E+0	1.441972E+0	1.467047E+0	1.458697E+0	1.460768E+0	1.405437E+0	1.501293E+0	1.409116E+0	1.450081E+0	1.372983E+0	1.443266E+0	1.429806E+0	1.450523E+0	1.504007E+0	1.454036E+0	1.479715E+0	1.475873E+0	1.515433E+0	1.429353E+0	1.461683E+0	1.465792E+0	1.508790E+0	1.428107E+0	1.509741E+0	1.474484E+0	1.493777E+0	1.440279E+0	1.489817E+0	1.426974E+0	1.451597E+0	1.516195E+0	1.433143E+0	1.433101E+0	1.475358E+0	1.479180E+0	1.417865E+0	1.416011E+0	1.466302E+0	1.479104E+0	1.399391E+0	1.484252E+0	1.403076E+0	1.466863E+0	1.433285E+0	1.456981E+0	1.498601E+0	1.405593E+0	1.447502E+0	1.457548E+0	1.435713E+0	1.402569E+0	1.455383E+0	1.434006E+0	1.438412E+0	1.484581E+0	1.431381E+0	1.463771E+0	1.461335E+0	1.436092E+0	1.476996E+0	1.443785E+0	1.461426E+0	1.480954E+0	1.448657E+0	1.444497E+0	1.411953E+0	1.430326E+0	1.505805E+0	1.486251E+0	1.409310E+0	1.522230E+0	1.504898E+0	1.400890E+0	1.503885E+0	1.438701E+0	1.457753E+0	1.457953E+0	1.444277E+0	1.485936E+0	1.488350E+0	1.461034E+0	1.432354E+0	1.439806E+0	1.418107E+0	1.427280E+0	1.412872E+0	1.463555E+0	1.417995E+0	1.459340E+0	1.439365E+0	1.476980E+0	1.408947E+0	1.383573E+0	1.432223E+0	1.459033E+0	1.425790E+0	1.455709E+0	1.471104E+0	1.426258E+0	1.443106E+0	1.399771E+0	1.502414E+0	1.455707E+0	1.406076E+0	1.463370E+0	1.493210E+0	1.457356E+0	1.437169E+0	1.426867E+0	1.488839E+0	1.442523E+0	1.444637E+0	1.462156E+0	1.435348E+0	1.450181E+0	1.419049E+0	1.485114E+0	1.408093E+0	1.467817E+0	1.414981E+0	1.405725E+0	1.445353E+0	1.435967E+0	1.535943E+0	1.497886E+0	1.430741E+0	1.462227E+0	1.418452E+0	1.433459E+0	1.487048E+0	1.465187E+0	1.497394E+0	1.468149E+0	1.531902E+0
5.490160E+2	1.402569E+0	1.394222E+0	1.377570E+0	1.393040E+0	1.428259E+0	1.413101E+0	1.420062E+0	1.433589E+0	1.432564E+0	1.422061E+0	1.455391E+0	1.466154E+0	1.415063E+0	1.446704E+0	1.495895E+0	1.357359E+0	1.404593E+0	1.457369E+0	1.418985E+0	1.449036E+0	1.410149E+0	1.416947E+0	1.432249E+0	1.402235E+0	1.402359E+0	1.493780E+0	1.453694E+0	1.428203E+0	1.435563E+0	1.469909E+0	1.363712E+0	1.407024E+0	1.380420E+0	1.412190E+0	1.427702E+0	1.433045E+0	1.417697E+0	1.383016E+0	1.446554E+0	1.437007E+0	1.394020E+0	1.413894E+0	1.456859E+0	1.371270E+0	1.417207E+0	1.399486E+0	1.468078E+0	1.428681E+0	1.444184E+0	1.435045E+0	1.362374E+0	1.423061E+0	1.482439E+0	1.422670E+0	1.410639E+0	1.414681E+0	1.395249E+0	1.452392E+0	1.420126E+0	1.425428E+0	1.418595E+0	1.457540E+0	1.438276E+0	1.397882E+0	1.415942E+0	1.438285E+0	1.407012E+0	1.424774E+0	1.382802E+0	1.406455E+0	1.417923E+0	1.446287E+0	1.426167E+0	1.410068E+0	1.391600E+0	1.350252E+0	1.404341E+0	1.445289E+0	1.449320E+0	1.418336E+0	1.375810E+0	1.375441E+0	1.415603E+0	1.421511E+0	1.407857E+0	1.391922E+0	1.416175E+0	1.399395E+0	1.471890E+0	1.395498E+0	1.439161E+0	1.417548E+0	1.426501E+0	1.414230E+0	1.445442E+0	1.419175E+0	1.378411E+0	1.394363E+0	1.423141E+0	1.390958E+0	1.442964E+0	1.380689E+0	1.420016E+0	1.372410E+0	1.429064E+0	1.440066E+0	1.431255E+0	1.457082E+0	1.367200E+0	1.462449E+0	1.348514E+0	1.419563E+0	1.385664E+0	1.455746E+0	1.419373E+0	1.390135E+0	1.443851E+0	1.389931E+0	1.392495E+0	1.358072E+0	1.371806E+0	1.350917E+0	1.471605E+0	1.374087E+0	1.408120E+0	1.421932E+0	1.460832E+0	1.390561E+0	1.382351E+0	1.398519E+0	1.387039E+0	1.325256E+0	1.402754E+0	1.409919E+0	1.461659E+0	1.390470E+0	1.417023E+0	1.396606E+0	1.395967E+0	1.422922E+0	1.413266E+0	1.455296E+0	1.468868E+0	1.364870E+0	1.342897E+0	1.373691E+0	1.414517E+0	1.362541E+0	1.421675E+0	1.433286E+0	1.439452E+0	1.468906E+0	1.378490E+0	1.410807E+0	1.428788E+0	1.412509E+0	1.334237E+0	1.410299E+0	1.396264E+0	1.430317E+0	1.430455E+0	1.411574E+0	1.472878E+0	1.463835E+0	1.374635E+0	1.373848E+0	1.376317E+0	1.439424E+0	1.407804E+0	1.428178E+0
5.497740E+2	1.361200E+0	1.425845E+0	1.414659E+0	1.422674E+0	1.370397E+0	1.452156E+0	1.421571E+0	1.455857E+0	1.403964E+0	1.422136E+0	1.428180E+0	1.360524E+0	1.418022E+0	1.494958E+0	1.402368E+0	1.418106E+0	1.438792E+0	1.494552E+0	1.401050E+0	1.402698E+0	1.408865E+0	1.505428E+0	1.454169E+0	1.398663E+0	1.407106E+0	1.483208E+0	1.409322E+0	1.404278E+0	1.431133E+0	1.383051E+0	1.398972E+0	1.402222E+0	1.418370E+0	1.429092E+0	1.358351E+0	1.428367E+0	1.412185E+0	1.400067E+0	1.428386E+0	1.405118E+0	1.407349E+0	1.414341E+0	1.417853E+0	1.370159E+0	1.398457E+0	1.407961E+0	1.415616E+0	1.455072E+0	1.415022E+0	1.410910E+0	1.421956E+0	1.365887E+0	1.411270E+0	1.435841E+0	1.427137E+0	1.378299E+0	1.411698E+0	1.436319E+0	1.384756E+0	1.332123E+0	1.368759E+0	1.383993E+0	1.415437E+0	1.392060E+0	1.426151E+0	1.457709E+0	1.437549E+0	1.403791E+0	1.378851E+0	1.439344E+0	1.402492E+0	1.376253E+0	1.425987E+0	1.399114E+0	1.361773E+0	1.386151E+0	1.419815E+0	1.467325E+0	1.410343E+0	1.406605E+0	1.402820E+0	1.408145E+0	1.436310E+0	1.409397E+0	1.418382E+0	1.416513E+0	1.394040E+0	1.445501E+0	1.442870E+0	1.388092E+0	1.454949E+0	1.454347E+0	1.394974E+0	1.497906E+0	1.404061E+0	1.391248E+0	1.331523E+0	1.436134E+0	1.385377E+0	1.396173E+0	1.424079E+0	1.343320E+0	1.388872E+0	1.444562E+0	1.408159E+0	1.393571E+0	1.401093E+0	1.375539E+0	1.463096E+0	1.429147E+0	1.420910E+0	1.401025E+0	1.455126E+0	1.468062E+0	1.364104E+0	1.364462E+0	1.406015E+0	1.427031E+0	1.452744E+0	1.399829E+0	1.366452E+0	1.436033E+0	1.405312E+0	1.372992E+0	1.432368E+0	1.414158E+0	1.482008E+0	1.434158E+0	1.406275E+0	1.389360E+0	1.391670E+0	1.445456E+0	1.434775E+0	1.402921E+0	1.332531E+0	1.367399E+0	1.449969E+0	1.387152E+0	1.390421E+0	1.426352E+0	1.378320E+0	1.446481E+0	1.431711E+0	1.388841E+0	1.416942E+0	1.378267E+0	1.483207E+0	1.413041E+0	1.353570E+0	1.383310E+0	1.397513E+0	1.347725E+0	1.376642E+0	1.405678E+0	1.363248E+0	1.347704E+0	1.336271E+0	1.396983E+0	1.386523E+0	1.426353E+0	1.433393E+0	1.425186E+0	1.417741E+0	1.404835E+0	1.369790E+0	1.351627E+0	1.415326E+0	1.451663E+0	1.370415E+0	1.412051E+0
5.505170E+2	1.428786E+0	1.384076E+0	1.359496E+0	1.412318E+0	1.335797E+0	1.449348E+0	1.465896E+0	1.411664E+0	1.391257E+0	1.392086E+0	1.473092E+0	1.398638E+0	1.406014E+0	1.456397E+0	1.416304E+0	1.362784E+0	1.382438E+0	1.421253E+0	1.417562E+0	1.321579E+0	1.390115E+0	1.391179E+0	1.391452E+0	1.379382E+0	1.401959E+0	1.372151E+0	1.384689E+0	1.372581E+0	1.443858E+0	1.395451E+0	1.372861E+0	1.399025E+0	1.353617E+0	1.428263E+0	1.367649E+0	1.361001E+0	1.395676E+0	1.304970E+0	1.455484E+0	1.395341E+0	1.422545E+0	1.402397E+0	1.387485E+0	1.369969E+0	1.384052E+0	1.414282E+0	1.424114E+0	1.407696E+0	1.428986E+0	1.404478E+0	1.412936E+0	1.347383E+0	1.368526E+0	1.431193E+0	1.373524E+0	1.333431E+0	1.363342E+0	1.411066E+0	1.381894E+0	1.404093E+0	1.386854E+0	1.482239E+0	1.410564E+0	1.384302E+0	1.332475E+0	1.372449E+0	1.352637E+0	1.423646E+0	1.352185E+0	1.357088E+0	1.401952E+0	1.345674E+0	1.401185E+0	1.492721E+0	1.381497E+0	1.404499E+0	1.362459E+0	1.368369E+0	1.412640E+0	1.350201E+0	1.340624E+0	1.415768E+0	1.364867E+0	1.343723E+0	1.406832E+0	1.358031E+0	1.359450E+0	1.391106E+0	1.399930E+0	1.413420E+0	1.390895E+0	1.373882E+0	1.407628E+0	1.413900E+0	1.392787E+0	1.413074E+0	1.328851E+0	1.376795E+0	1.365640E+0	1.382907E+0	1.423135E+0	1.370336E+0	1.413136E+0	1.411951E+0	1.356800E+0	1.422419E+0	1.394330E+0	1.365192E+0	1.368136E+0	1.438574E+0	1.371550E+0	1.417611E+0	1.433784E+0	1.391592E+0	1.353827E+0	1.326806E+0	1.437412E+0	1.380221E+0	1.391995E+0	1.327109E+0	1.375922E+0	1.419447E+0	1.443081E+0	1.344561E+0	1.372877E+0	1.400494E+0	1.445940E+0	1.398476E+0	1.424365E+0	1.396649E+0	1.397062E+0	1.408849E+0	1.383603E+0	1.395307E+0	1.382558E+0	1.437691E+0	1.344147E+0	1.388026E+0	1.374407E+0	1.445865E+0	1.374589E+0	1.408065E+0	1.350724E+0	1.341267E+0	1.370457E+0	1.398395E+0	1.418833E+0	1.418745E+0	1.401258E+0	1.398011E+0	1.358179E+0	1.426727E+0	1.317444E+0	1.340689E+0	1.352790E+0	1.356545E+0	1.363425E+0	1.459944E+0	1.373547E+0	1.398370E+0	1.400576E+0	1.344738E+0	1.413751E+0	1.369868E+0	1.353775E+0	1.349783E+0	1.378402E+0	1.406955E+0	1.288139E+0	1.405639E+0
5.512570E+2	1.357409E+0	1.358219E+0	1.359284E+0	1.402746E+0	1.383505E+0	1.395982E+0	1.397483E+0	1.351449E+0	1.392493E+0	1.425563E+0	1.368115E+0	1.357395E+0	1.405863E+0	1.424375E+0	1.384360E+0	1.443946E+0	1.364308E+0	1.407066E+0	1.401151E+0	1.399642E+0	1.396663E+0	1.338851E+0	1.349343E+0	1.350201E+0	1.357267E+0	1.373361E+0	1.362741E+0	1.363039E+0	1.336391E+0	1.395097E+0	1.388926E+0	1.415472E+0	1.366322E+0	1.428765E+0	1.378399E+0	1.372565E+0	1.325122E+0	1.373771E+0	1.343296E+0	1.351728E+0	1.382859E+0	1.423228E+0	1.410916E+0	1.348074E+0	1.390825E+0	1.346256E+0	1.370020E+0	1.360411E+0	1.420902E+0	1.392157E+0	1.386307E+0	1.358858E+0	1.419398E+0	1.369069E+0	1.412174E+0	1.314055E+0	1.391583E+0	1.402693E+0	1.372593E+0	1.374368E+0	1.434745E+0	1.394974E+0	1.394235E+0	1.329775E+0	1.381970E+0	1.440602E+0	1.358378E+0	1.326186E+0	1.350528E+0	1.407218E+0	1.414375E+0	1.349196E+0	1.406711E+0	1.405704E+0	1.428684E+0	1.311441E+0	1.411296E+0	1.402949E+0	1.411442E+0	1.359328E+0	1.405063E+0	1.389662E+0	1.323905E+0	1.320480E+0	1.358080E+0	1.386432E+0	1.333848E+0	1.336122E+0	1.406872E+0	1.367387E+0	1.438493E+0	1.345499E+0	1.361425E+0	1.378158E+0	1.412671E+0	1.314236E+0	1.318324E+0	1.359953E+0	1.356318E+0	1.380314E+0	1.366208E+0	1.337759E+0	1.389795E+0	1.382122E+0	1.368866E+0	1.382689E+0	1.445502E+0	1.359215E+0	1.394707E+0	1.379272E+0	1.400257E+0	1.392704E+0	1.380109E+0	1.393168E+0	1.393278E+0	1.361860E+0	1.420133E+0	1.378932E+0	1.355068E+0	1.366060E+0	1.337322E+0	1.338642E+0	1.369055E+0	1.367605E+0	1.365428E+0	1.402219E+0	1.422221E+0	1.399256E+0	1.362092E+0	1.360785E+0	1.374677E+0	1.370280E+0	1.353077E+0	1.367545E+0	1.341939E+0	1.379290E+0	1.336485E+0	1.380397E+0	1.411966E+0	1.377811E+0	1.339000E+0	1.373501E+0	1.370679E+0	1.339968E+0	1.324176E+0	1.357509E+0	1.359818E+0	1.334020E+0	1.341350E+0	1.382789E+0	1.455996E+0	1.339566E+0	1.383279E+0	1.386578E+0	1.355718E+0	1.428977E+0	1.351524E+0	1.400677E+0	1.382791E+0	1.348099E+0	1.461357E+0	1.327503E+0	1.347974E+0	1.364020E+0	1.357468E+0	1.379936E+0	1.362808E+0	1.432518E+0	1.328897E+0	1.376672E+0
5.520210E+2	1.275252E+0	1.213382E+0	1.252123E+0	1.314877E+0	1.256681E+0	1.295086E+0	1.275821E+0	1.281482E+0	1.313183E+0	1.258841E+0	1.303851E+0	1.304772E+0	1.333888E+0	1.329926E+0	1.279376E+0	1.258463E+0	1.299570E+0	1.269350E+0	1.272949E+0	1.303841E+0	1.306898E+0	1.277562E+0	1.257480E+0	1.295233E+0	1.239681E+0	1.330723E+0	1.302156E+0	1.324109E+0	1.293369E+0	1.310632E+0	1.296836E+0	1.307304E+0	1.306561E+0	1.334956E+0	1.256054E+0	1.293122E+0	1.293745E+0	1.276643E+0	1.392600E+0	1.311360E+0	1.321456E+0	1.312094E+0	1.303245E+0	1.258632E+0	1.248825E+0	1.239085E+0	1.302485E+0	1.312013E+0	1.297057E+0	1.254770E+0	1.301219E+0	1.278230E+0	1.271093E+0	1.315937E+0	1.274214E+0	1.258253E+0	1.267890E+0	1.270924E+0	1.258464E+0	1.298320E+0	1.238696E+0	1.243810E+0	1.269742E+0	1.266045E+0	1.291118E+0	1.289007E+0	1.332440E+0	1.324177E+0	1.265865E+0	1.229974E+0	1.257815E+0	1.285686E+0	1.290027E+0	1.277363E+0	1.253662E+0	1.264094E+0	1.273407E+0	1.272440E+0	1.261265E+0	1.300782E+0	1.306353E+0	1.349391E+0	1.259352E+0	1.300023E+0	1.289534E+0	1.257221E+0	1.240556E+0	1.315098E+0	1.276634E+0	1.285394E+0	1.319712E+0	1.281770E+0	1.291894E+0	1.343025E+0	1.270320E+0	1.289946E+0	1.260768E+0	1.318739E+0	1.315528E+0	1.264588E+0	1.312406E+0	1.298284E+0	1.323800E+0	1.272889E+0	1.233460E+0	1.321646E+0	1.324842E+0	1.277886E+0	1.253014E+0	1.260223E+0	1.310898E+0	1.255131E+0	1.235401E+0	1.322606E+0	1.286274E+0	1.253694E+0	1.327267E+0	1.331983E+0	1.272715E+0	1.216096E+0	1.224452E+0	1.332770E+0	1.279221E+0	1.230374E+0	1.248322E+0	1.253457E+0	1.302711E+0	1.274259E+0	1.280134E+0	1.257997E+0	1.231633E+0	1.305874E+0	1.236026E+0	1.295348E+0	1.311006E+0	1.297409E+0	1.288549E+0	1.289226E+0	1.260394E+0	1.255800E+0	1.280148E+0	1.295445E+0	1.262557E+0	1.278973E+0	1.212716E+0	1.300062E+0	1.245589E+0	1.298719E+0	1.280045E+0	1.282067E+0	1.275820E+0	1.275795E+0	1.274470E+0	1.272532E+0	1.268402E+0	1.312566E+0	1.264543E+0	1.300067E+0	1.308799E+0	1.286550E+0	1.324975E+0	1.292866E+0	1.307990E+0	1.291094E+0	1.275934E+0	1.227324E+0	1.269853E+0	1.300900E+0	1.309179E+0	1.301982E+0
5.527590E+2	1.345688E+0	1.294690E+0	1.320021E+0	1.274406E+0	1.269987E+0	1.259001E+0	1.264672E+0	1.320585E+0	1.303595E+0	1.266963E+0	1.313129E+0	1.294169E+0	1.370462E+0	1.281759E+0	1.310154E+0	1.300410E+0	1.311799E+0	1.312837E+0	1.297444E+0	1.253750E+0	1.314646E+0	1.294755E+0	1.322233E+0	1.296783E+0	1.313890E+0	1.338754E+0	1.303626E+0	1.314140E+0	1.291816E+0	1.271453E+0	1.296509E+0	1.282167E+0	1.274717E+0	1.330246E+0	1.302187E+0	1.285227E+0	1.293788E+0	1.277667E+0	1.297178E+0	1.289340E+0	1.279829E+0	1.258934E+0	1.334879E+0	1.331701E+0	1.320489E+0	1.286718E+0	1.338173E+0	1.252805E+0	1.323438E+0	1.313229E+0	1.271359E+0	1.315082E+0	1.319380E+0	1.294477E+0	1.249206E+0	1.324957E+0	1.230887E+0	1.276799E+0	1.337395E+0	1.270480E+0	1.310444E+0	1.350871E+0	1.303825E+0	1.260009E+0	1.315598E+0	1.257075E+0	1.306920E+0	1.242288E+0	1.297521E+0	1.277655E+0	1.252335E+0	1.253045E+0	1.288411E+0	1.303880E+0	1.313902E+0	1.285185E+0	1.296191E+0	1.280950E+0	1.308063E+0	1.319225E+0	1.295100E+0	1.272987E+0	1.286924E+0	1.267886E+0	1.301679E+0	1.264328E+0	1.296751E+0	1.233575E+0	1.290603E+0	1.284474E+0	1.365499E+0	1.294985E+0	1.273500E+0	1.296896E+0	1.339546E+0	1.264770E+0	1.272820E+0	1.302727E+0	1.308525E+0	1.307639E+0	1.318348E+0	1.236105E+0	1.292785E+0	1.284130E+0	1.314998E+0	1.295555E+0	1.344473E+0	1.305697E+0	1.300057E+0	1.287545E+0	1.219141E+0	1.257086E+0	1.279008E+0	1.307052E+0	1.224299E+0	1.281000E+0	1.274906E+0	1.264612E+0	1.269874E+0	1.260592E+0	1.323411E+0	1.291763E+0	1.352167E+0	1.273936E+0	1.320927E+0	1.309910E+0	1.315009E+0	1.303242E+0	1.253626E+0	1.283094E+0	1.294551E+0	1.299247E+0	1.316506E+0	1.271718E+0	1.293671E+0	1.224093E+0	1.296427E+0	1.273864E+0	1.279027E+0	1.268322E+0	1.290063E+0	1.322980E+0	1.321482E+0	1.281988E+0	1.280170E+0	1.245548E+0	1.278327E+0	1.287944E+0	1.276387E+0	1.305176E+0	1.321466E+0	1.331435E+0	1.360261E+0	1.319902E+0	1.297056E+0	1.298957E+0	1.287963E+0	1.291146E+0	1.272424E+0	1.316476E+0	1.325653E+0	1.255227E+0	1.302153E+0	1.258498E+0	1.309086E+0	1.263648E+0	1.256921E+0	1.320186E+0	1.368798E+0	1.311105E+0
5.535220E+2	1.193806E+0	1.199741E+0	1.128798E+0	1.175651E+0	1.255312E+0	1.221545E+0	1.224561E+0	1.245317E+0	1.158626E+0	1.167045E+0	1.226657E+0	1.270633E+0	1.220783E+0	1.250807E+0	1.241824E+0	1.167119E+0	1.186766E+0	1.126157E+0	1.240433E+0	1.171013E+0	1.232922E+0	1.227446E+0	1.263908E+0	1.219159E+0	1.137566E+0	1.218002E+0	1.279716E+0	1.224682E+0	1.185859E+0	1.231005E+0	1.236796E+0	1.153656E+0	1.129268E+0	1.163347E+0	1.197453E+0	1.213413E+0	1.168145E+0	1.201737E+0	1.195589E+0	1.230862E+0	1.225747E+0	1.226615E+0	1.252064E+0	1.199106E+0	1.196497E+0	1.211849E+0	1.229777E+0	1.170444E+0	1.190230E+0	1.221089E+0	1.188594E+0	1.247531E+0	1.204315E+0	1.244015E+0	1.165499E+0	1.175917E+0	1.168865E+0	1.226157E+0	1.188232E+0	1.173931E+0	1.220525E+0	1.233869E+0	1.165050E+0	1.206719E+0	1.203004E+0	1.189790E+0	1.201252E+0	1.165952E+0	1.154346E+0	1.217148E+0	1.195117E+0	1.174134E+0	1.224211E+0	1.215691E+0	1.200689E+0	1.204835E+0	1.133712E+0	1.196051E+0	1.270436E+0	1.186200E+0	1.229391E+0	1.264529E+0	1.268080E+0	1.171553E+0	1.200465E+0	1.174664E+0	1.204795E+0	1.199796E+0	1.181250E+0	1.192168E+0	1.189874E+0	1.193975E+0	1.184216E+0	1.197010E+0	1.204073E+0	1.163766E+0	1.172825E+0	1.159637E+0	1.275335E+0	1.226850E+0	1.203704E+0	1.168783E+0	1.213986E+0	1.228471E+0	1.213187E+0	1.222644E+0	1.238213E+0	1.209018E+0	1.173666E+0	1.189480E+0	1.185965E+0	1.192545E+0	1.165103E+0	1.220135E+0	1.181572E+0	1.156611E+0	1.223532E+0	1.174242E+0	1.203645E+0	1.126735E+0	1.186022E+0	1.184125E+0	1.162088E+0	1.170696E+0	1.179455E+0	1.226523E+0	1.215557E+0	1.238531E+0	1.184078E+0	1.203986E+0	1.247933E+0	1.244363E+0	1.192968E+0	1.135725E+0	1.160698E+0	1.205974E+0	1.169705E+0	1.161675E+0	1.253605E+0	1.141494E+0	1.198840E+0	1.194934E+0	1.242686E+0	1.110001E+0	1.198126E+0	1.159747E+0	1.202143E+0	1.163295E+0	1.222767E+0	1.181280E+0	1.194347E+0	1.188664E+0	1.220168E+0	1.220889E+0	1.188132E+0	1.212302E+0	1.172078E+0	1.172301E+0	1.190156E+0	1.162348E+0	1.246315E+0	1.193767E+0	1.234581E+0	1.209775E+0	1.188104E+0	1.198424E+0	1.235984E+0	1.275035E+0	1.129013E+0	1.255970E+0
5.542580E+2	1.134326E+0	1.132810E+0	1.125111E+0	1.172665E+0	1.197028E+0	1.185146E+0	1.152448E+0	1.151781E+0	1.162085E+0	1.166368E+0	1.159496E+0	1.158313E+0	1.160852E+0	1.150673E+0	1.194281E+0	1.124330E+0	1.214897E+0	1.143881E+0	1.164279E+0	1.118622E+0	1.160606E+0	1.161236E+0	1.191293E+0	1.113634E+0	1.152640E+0	1.120102E+0	1.152781E+0	1.143512E+0	1.178526E+0	1.143714E+0	1.117880E+0	1.129393E+0	1.105745E+0	1.182639E+0	1.082641E+0	1.140229E+0	1.147397E+0	1.139884E+0	1.189464E+0	1.108805E+0	1.143776E+0	1.164065E+0	1.131945E+0	1.177740E+0	1.135092E+0	1.141457E+0	1.162401E+0	1.125764E+0	1.157967E+0	1.138389E+0	1.148317E+0	1.130224E+0	1.167482E+0	1.115310E+0	1.160022E+0	1.150894E+0	1.118746E+0	1.183195E+0	1.104110E+0	1.133384E+0	1.138475E+0	1.165150E+0	1.138922E+0	1.102791E+0	1.143193E+0	1.137206E+0	1.140537E+0	1.106003E+0	1.107315E+0	1.123816E+0	1.116157E+0	1.113293E+0	1.155706E+0	1.163947E+0	1.146996E+0	1.130927E+0	1.149120E+0	1.133991E+0	1.162011E+0	1.132271E+0	1.125333E+0	1.122005E+0	1.116801E+0	1.129268E+0	1.084365E+0	1.129287E+0	1.131663E+0	1.160736E+0	1.115815E+0	1.109361E+0	1.191045E+0	1.158908E+0	1.119062E+0	1.165705E+0	1.190053E+0	1.155435E+0	1.100885E+0	1.100779E+0	1.176998E+0	1.158592E+0	1.144268E+0	1.151693E+0	1.148295E+0	1.125133E+0	1.160266E+0	1.157740E+0	1.119677E+0	1.188412E+0	1.113708E+0	1.110894E+0	1.189690E+0	1.160834E+0	1.125766E+0	1.157393E+0	1.140883E+0	1.088839E+0	1.157775E+0	1.085572E+0	1.205994E+0	1.122176E+0	1.135730E+0	1.121782E+0	1.167843E+0	1.058881E+0	1.117220E+0	1.151891E+0	1.177394E+0	1.155055E+0	1.106472E+0	1.183949E+0	1.102482E+0	1.152643E+0	1.166897E+0	1.157850E+0	1.127567E+0	1.135433E+0	1.155125E+0	1.190979E+0	1.187255E+0	1.184794E+0	1.111355E+0	1.136303E+0	1.132548E+0	1.100163E+0	1.062574E+0	1.152873E+0	1.155653E+0	1.150989E+0	1.105551E+0	1.118670E+0	1.166386E+0	1.132321E+0	1.126863E+0	1.152425E+0	1.114697E+0	1.117923E+0	1.100941E+0	1.147315E+0	1.155702E+0	1.175209E+0	1.168711E+0	1.117001E+0	1.148669E+0	1.130876E+0	1.191239E+0	1.119840E+0	1.188412E+0	1.183359E+0	1.131208E+0	1.074690E+0
5.550140E+2	1.078028E+0	1.036695E+0	1.072234E+0	1.040986E+0	1.043145E+0	1.064350E+0	1.044202E+0	1.054776E+0	1.003716E+0	1.071103E+0	1.067077E+0	1.069846E+0	1.048865E+0	1.037945E+0	1.060389E+0	1.101352E+0	1.036830E+0	1.031341E+0	1.072362E+0	1.047213E+0	1.049183E+0	1.075687E+0	1.074394E+0	1.059582E+0	1.020172E+0	1.074923E+0	1.091509E+0	1.010107E+0	1.055474E+0	1.048057E+0	1.036086E+0	1.031597E+0	1.004934E+0	1.088784E+0	1.059468E+0	1.014875E+0	1.043237E+0	1.062434E+0	1.097170E+0	1.044034E+0	1.103203E+0	9.978911E-1	1.081878E+0	1.041029E+0	1.062026E+0	1.016102E+0	1.061602E+0	1.067367E+0	1.045579E+0	1.070595E+0	1.102813E+0	1.034692E+0	1.069201E+0	1.071847E+0	1.062548E+0	1.025248E+0	1.020274E+0	9.834005E-1	1.041013E+0	1.026270E+0	1.057937E+0	1.044172E+0	1.050607E+0	1.021808E+0	1.047379E+0	1.085147E+0	1.061341E+0	1.068390E+0	1.072011E+0	1.040144E+0	1.017562E+0	1.021387E+0	1.013724E+0	1.033704E+0	1.067683E+0	1.083926E+0	1.060742E+0	1.010275E+0	1.045692E+0	1.043716E+0	1.072071E+0	1.092012E+0	1.044821E+0	1.056487E+0	1.107590E+0	1.039014E+0	1.042661E+0	1.046479E+0	1.049178E+0	1.028636E+0	1.078730E+0	1.068504E+0	1.062154E+0	1.053701E+0	1.071797E+0	1.049135E+0	1.099331E+0	1.062725E+0	1.032913E+0	1.039183E+0	1.117158E+0	1.037716E+0	1.095699E+0	1.054581E+0	1.084082E+0	9.991544E-1	1.045797E+0	1.039487E+0	1.050884E+0	1.030721E+0	1.047620E+0	1.105166E+0	1.008343E+0	1.029214E+0	1.061217E+0	1.058545E+0	1.090703E+0	1.037396E+0	1.048054E+0	1.029247E+0	1.024655E+0	1.041127E+0	1.014362E+0	1.064963E+0	1.084316E+0	1.023694E+0	1.103870E+0	1.074596E+0	1.027362E+0	9.806430E-1	1.030889E+0	1.110599E+0	1.020587E+0	1.052468E+0	1.077069E+0	1.055203E+0	1.029390E+0	1.066326E+0	1.047348E+0	1.041353E+0	1.033243E+0	1.104963E+0	1.059804E+0	1.067593E+0	1.070241E+0	1.057449E+0	1.072289E+0	1.087805E+0	1.073287E+0	1.044822E+0	1.079555E+0	1.051198E+0	9.853157E-1	1.052649E+0	1.042469E+0	1.054761E+0	1.003511E+0	1.005821E+0	1.056161E+0	1.034241E+0	1.037837E+0	1.052808E+0	1.098271E+0	1.046833E+0	1.061467E+0	1.013574E+0	1.078506E+0	1.062238E+0	1.017713E+0	1.122105E+0
5.557600E+2	1.016318E+0	1.017094E+0	1.048832E+0	1.068480E+0	1.021314E+0	1.040935E+0	1.017629E+0	1.048995E+0	1.057767E+0	9.839517E-1	1.011789E+0	9.836277E-1	1.021425E+0	1.068062E+0	1.062669E+0	1.020841E+0	1.012452E+0	1.005422E+0	1.012657E+0	1.042709E+0	1.027056E+0	1.008675E+0	1.012311E+0	1.036070E+0	1.011655E+0	1.008440E+0	1.017534E+0	9.931462E-1	1.032703E+0	9.711763E-1	1.000376E+0	1.040935E+0	9.674958E-1	1.006702E+0	9.692229E-1	9.609101E-1	1.018096E+0	9.987528E-1	1.048469E+0	1.045426E+0	1.037441E+0	1.002689E+0	1.067331E+0	9.754268E-1	1.008985E+0	1.052224E+0	9.861620E-1	9.707357E-1	1.027593E+0	9.990298E-1	1.059995E+0	9.667303E-1	1.033812E+0	1.020269E+0	1.014029E+0	1.007459E+0	1.000535E+0	1.016777E+0	9.956552E-1	9.942388E-1	1.004797E+0	9.931917E-1	1.032302E+0	9.578250E-1	1.008005E+0	9.898940E-1	1.036874E+0	9.984913E-1	9.652062E-1	1.041438E+0	1.014654E+0	1.019521E+0	1.006080E+0	1.009175E+0	1.005427E+0	1.031479E+0	9.649027E-1	1.001298E+0	1.016690E+0	1.001105E+0	1.007585E+0	1.055054E+0	1.043104E+0	1.002474E+0	9.795698E-1	1.021796E+0	1.024561E+0	1.066691E+0	1.016158E+0	9.945285E-1	1.019808E+0	1.040002E+0	1.025921E+0	1.008998E+0	1.015955E+0	1.012009E+0	9.972860E-1	1.017413E+0	9.734254E-1	1.022144E+0	1.027656E+0	1.011636E+0	1.005525E+0	1.052359E+0	9.916748E-1	1.045948E+0	9.958780E-1	9.936005E-1	1.011315E+0	1.037333E+0	1.025371E+0	9.997047E-1	9.899184E-1	1.004864E+0	1.073413E+0	1.013911E+0	1.040144E+0	1.018567E+0	1.034554E+0	1.010578E+0	9.811289E-1	9.729647E-1	1.062223E+0	1.057764E+0	1.034199E+0	1.017605E+0	1.063014E+0	1.005765E+0	1.054822E+0	1.015630E+0	1.072227E+0	1.015721E+0	1.026423E+0	1.004050E+0	1.041733E+0	9.789596E-1	9.988935E-1	1.009616E+0	1.034301E+0	1.037657E+0	1.012106E+0	1.006095E+0	9.953514E-1	1.049910E+0	9.945752E-1	9.818140E-1	1.063168E+0	1.018042E+0	1.015248E+0	9.826098E-1	1.007690E+0	1.022956E+0	1.011377E+0	1.021976E+0	1.012265E+0	9.930931E-1	1.003291E+0	9.839156E-1	1.029697E+0	1.035968E+0	1.064134E+0	1.008728E+0	1.042820E+0	9.776729E-1	1.013266E+0	1.006828E+0	9.851559E-1	1.005602E+0	1.055364E+0	1.050585E+0
5.560130E+2	9.456386E-1	9.457594E-1	9.581198E-1	9.647793E-1	9.947848E-1	9.311451E-1	9.614164E-1	9.603049E-1	9.789395E-1	9.552087E-1	9.803486E-1	9.544425E-1	9.109833E-1	9.644850E-1	9.693459E-1	9.355073E-1	9.017647E-1	9.171942E-1	8.959350E-1	9.290385E-1	9.565571E-1	9.625462E-1	9.427571E-1	9.273102E-1	9.107282E-1	9.644186E-1	9.409680E-1	9.272546E-1	9.059153E-1	9.252406E-1	9.071889E-1	9.460193E-1	9.202331E-1	9.511144E-1	9.286533E-1	9.906814E-1	9.694407E-1	9.190407E-1	9.317869E-1	9.142731E-1	9.447266E-1	9.719099E-1	9.507346E-1	9.358822E-1	9.753062E-1	9.393132E-1	9.469397E-1	9.600313E-1	8.938702E-1	9.554692E-1	9.592500E-1	9.355059E-1	9.243332E-1	9.511508E-1	9.413503E-1	9.361812E-1	9.391426E-1	9.655042E-1	9.168023E-1	8.558915E-1	9.172905E-1	9.444233E-1	9.473359E-1	9.321946E-1	9.804281E-1	9.716868E-1	9.620120E-1	9.339516E-1	9.469440E-1	9.261328E-1	9.543165E-1	9.455920E-1	9.577011E-1	9.493807E-1	9.714008E-1	9.480549E-1	9.225556E-1	9.357797E-1	9.753102E-1	9.269029E-1	9.026174E-1	1.000953E+0	9.313851E-1	9.771936E-1	9.124121E-1	9.203678E-1	9.219340E-1	9.190557E-1	9.772528E-1	9.243334E-1	9.403885E-1	9.433662E-1	9.588519E-1	9.541965E-1	9.590362E-1	9.411755E-1	9.076517E-1	9.490220E-1	9.741147E-1	9.269719E-1	9.614679E-1	9.292621E-1	9.774046E-1	9.264720E-1	9.090929E-1	9.338495E-1	9.744996E-1	9.408199E-1	9.441632E-1	9.505195E-1	9.710920E-1	9.113454E-1	9.765322E-1	9.445894E-1	9.482210E-1	9.535042E-1	9.652131E-1	9.159321E-1	9.584857E-1	9.824845E-1	9.957834E-1	9.676272E-1	9.346604E-1	9.317737E-1	9.248968E-1	9.370780E-1	1.012049E+0	9.577234E-1	8.869144E-1	9.397676E-1	9.538557E-1	9.548857E-1	9.311835E-1	9.355311E-1	9.542231E-1	9.758492E-1	9.279242E-1	9.380495E-1	9.431970E-1	9.494009E-1	9.673323E-1	9.575073E-1	9.476089E-1	9.675170E-1	9.573951E-1	9.445551E-1	9.403927E-1	9.302953E-1	9.918245E-1	9.653363E-1	9.221055E-1	1.002276E+0	9.304484E-1	9.751599E-1	9.724911E-1	9.533040E-1	9.244541E-1	9.481177E-1	9.501571E-1	9.676968E-1	1.000561E+0	9.110797E-1	9.415865E-1	9.386205E-1	9.660840E-1	9.200582E-1	9.348133E-1	9.416349E-1	9.437506E-1	9.110185E-1
5.565090E+2	1.008006E+0	9.951641E-1	9.923837E-1	1.024765E+0	1.000998E+0	9.811341E-1	9.952926E-1	9.970024E-1	1.035694E+0	9.834038E-1	1.008731E+0	9.932175E-1	9.862268E-1	1.011145E+0	1.098237E+0	9.712764E-1	9.970419E-1	9.948019E-1	1.025549E+0	1.059524E+0	9.915153E-1	1.003539E+0	1.017070E+0	1.022962E+0	1.035238E+0	9.997729E-1	1.043963E+0	1.018240E+0	9.891489E-1	1.007012E+0	1.017832E+0	9.964562E-1	1.005378E+0	1.023282E+0	1.023005E+0	9.930118E-1	1.000998E+0	9.689027E-1	1.025043E+0	9.957687E-1	1.012880E+0	9.851616E-1	9.843040E-1	9.750274E-1	1.027493E+0	1.041685E+0	1.019048E+0	9.824431E-1	1.006504E+0	9.915251E-1	1.005085E+0	1.023037E+0	9.787453E-1	1.015775E+0	9.977063E-1	9.727123E-1	1.011160E+0	1.003387E+0	1.030592E+0	1.019557E+0	9.911520E-1	1.034640E+0	1.017790E+0	1.001128E+0	9.974265E-1	9.764075E-1	9.985043E-1	1.007288E+0	1.033187E+0	9.836702E-1	1.001647E+0	9.859134E-1	9.694817E-1	9.711433E-1	9.971969E-1	1.025792E+0	1.001177E+0	1.009870E+0	1.038963E+0	9.589448E-1	9.846541E-1	1.021787E+0	9.970524E-1	9.869146E-1	9.828460E-1	1.022353E+0	9.969037E-1	1.002709E+0	9.963231E-1	1.007835E+0	9.854304E-1	9.860078E-1	1.012314E+0	9.900615E-1	1.014966E+0	1.006823E+0	1.023378E+0	1.040785E+0	1.000719E+0	9.576437E-1	1.022911E+0	1.033430E+0	1.045514E+0	1.017657E+0	1.037167E+0	9.907923E-1	1.026612E+0	1.016539E+0	1.002144E+0	1.019875E+0	1.016879E+0	9.968563E-1	1.025247E+0	9.534297E-1	1.022835E+0	1.003591E+0	9.854157E-1	1.024335E+0	1.053000E+0	1.012336E+0	9.797238E-1	1.035475E+0	9.385725E-1	1.023447E+0	1.001208E+0	1.023642E+0	9.783860E-1	9.919426E-1	1.025341E+0	9.834921E-1	1.022821E+0	1.013860E+0	1.003062E+0	1.013303E+0	9.594648E-1	1.011457E+0	9.993599E-1	1.020586E+0	1.046316E+0	1.001888E+0	1.004346E+0	9.904671E-1	1.047404E+0	1.000426E+0	1.015156E+0	9.891778E-1	1.015766E+0	1.001090E+0	9.927841E-1	1.016418E+0	9.953499E-1	1.037339E+0	9.685953E-1	1.016990E+0	1.000675E+0	9.939554E-1	9.841175E-1	9.938772E-1	1.046343E+0	1.009716E+0	1.005343E+0	9.974940E-1	1.044852E+0	9.976491E-1	1.005723E+0	9.922703E-1	9.909027E-1	1.026718E+0	9.440624E-1	1.042005E+0
5.570270E+2	9.969936E-1	9.803451E-1	1.016476E+0	9.849992E-1	9.695781E-1	9.483631E-1	9.699540E-1	9.834989E-1	1.018856E+0	9.754888E-1	9.672724E-1	9.699549E-1	1.005196E+0	9.951644E-1	9.735991E-1	1.002373E+0	9.669842E-1	9.959729E-1	1.019546E+0	1.017905E+0	9.648126E-1	9.590909E-1	1.025120E+0	9.706855E-1	1.020064E+0	9.859723E-1	9.967307E-1	9.850299E-1	9.693563E-1	9.719725E-1	9.743690E-1	9.734657E-1	9.977881E-1	1.005804E+0	9.905182E-1	9.818045E-1	1.004108E+0	9.893055E-1	9.743290E-1	9.747361E-1	9.805011E-1	9.527248E-1	1.018439E+0	9.960923E-1	9.737482E-1	1.008468E+0	9.547311E-1	9.610844E-1	9.698083E-1	1.050606E+0	9.955421E-1	9.617539E-1	1.010419E+0	9.421445E-1	9.567301E-1	9.949963E-1	9.536197E-1	1.006849E+0	9.998894E-1	9.790746E-1	1.006856E+0	9.512115E-1	1.007487E+0	1.003304E+0	1.005867E+0	9.784164E-1	1.027821E+0	9.691668E-1	9.991545E-1	9.708886E-1	9.931801E-1	9.593032E-1	9.747182E-1	9.757163E-1	9.876518E-1	9.941628E-1	9.878084E-1	9.720414E-1	1.035201E+0	9.991299E-1	9.449137E-1	1.026915E+0	9.738800E-1	9.803104E-1	9.643081E-1	9.770618E-1	1.015346E+0	9.824713E-1	1.003029E+0	9.675020E-1	9.722035E-1	9.614734E-1	1.005914E+0	1.000325E+0	1.003983E+0	9.805436E-1	9.734617E-1	9.557891E-1	1.012401E+0	1.008957E+0	9.524610E-1	9.737358E-1	9.901035E-1	9.877248E-1	1.009038E+0	9.745651E-1	9.904967E-1	9.914426E-1	9.590376E-1	9.814803E-1	1.014101E+0	9.685909E-1	9.784193E-1	9.624623E-1	9.694585E-1	9.615890E-1	9.744558E-1	9.930352E-1	9.815192E-1	9.673812E-1	1.016341E+0	9.589378E-1	1.031772E+0	9.675064E-1	9.735464E-1	9.963159E-1	1.056863E+0	9.635367E-1	9.861680E-1	1.015595E+0	1.007464E+0	1.004016E+0	9.444727E-1	9.481628E-1	9.751197E-1	1.009343E+0	9.796041E-1	9.677234E-1	1.016436E+0	9.937229E-1	9.891041E-1	9.804704E-1	9.776648E-1	9.996424E-1	9.822682E-1	1.013309E+0	9.952963E-1	1.026832E+0	9.942400E-1	9.625972E-1	1.016034E+0	1.000521E+0	9.606518E-1	9.917705E-1	1.006868E+0	1.015410E+0	1.042862E+0	9.986465E-1	9.979907E-1	9.604946E-1	1.014893E+0	1.003071E+0	9.806989E-1	9.944003E-1	9.639756E-1	1.003300E+0	1.035555E+0	9.744433E-1	9.398972E-1	1.007209E+0
5.575470E+2	9.744418E-1	1.025746E+0	1.019747E+0	1.031370E+0	1.001804E+0	1.012232E+0	9.901119E-1	1.040926E+0	9.615031E-1	1.019827E+0	9.855965E-1	1.020921E+0	1.007985E+0	1.012303E+0	1.033369E+0	1.038048E+0	1.021002E+0	1.035125E+0	1.001442E+0	1.040813E+0	1.028725E+0	1.023102E+0	1.067691E+0	1.052565E+0	1.008957E+0	1.017833E+0	1.010613E+0	1.027903E+0	1.036083E+0	1.036700E+0	1.047005E+0	1.041667E+0	1.041229E+0	9.799605E-1	1.019495E+0	1.044512E+0	9.975426E-1	9.916812E-1	1.053251E+0	1.078497E+0	1.032149E+0	1.044959E+0	1.026589E+0	1.056506E+0	1.033635E+0	1.006557E+0	1.054245E+0	1.069927E+0	1.064393E+0	1.035167E+0	9.852795E-1	1.008415E+0	1.044812E+0	1.098513E+0	1.039131E+0	1.019861E+0	1.050988E+0	1.027557E+0	1.018059E+0	1.050884E+0	1.024587E+0	9.830872E-1	1.013553E+0	1.005263E+0	1.024707E+0	1.025539E+0	1.038685E+0	1.022512E+0	1.018404E+0	1.035336E+0	1.002123E+0	1.050082E+0	1.053165E+0	1.014278E+0	1.031067E+0	1.035765E+0	1.069108E+0	1.008741E+0	1.017454E+0	1.048391E+0	1.069295E+0	1.025237E+0	1.041428E+0	1.010862E+0	1.035546E+0	1.047675E+0	1.010499E+0	9.938415E-1	1.056303E+0	1.026953E+0	1.062260E+0	1.021451E+0	1.009148E+0	1.047120E+0	1.070639E+0	1.019359E+0	1.054031E+0	1.013660E+0	1.051682E+0	1.000571E+0	1.025595E+0	1.008017E+0	1.007265E+0	1.052102E+0	1.038632E+0	1.042743E+0	1.039185E+0	1.031995E+0	1.040427E+0	1.046816E+0	1.032603E+0	1.033147E+0	1.028006E+0	1.008336E+0	1.067846E+0	1.043767E+0	1.051973E+0	1.014427E+0	1.025328E+0	1.025963E+0	1.046430E+0	9.965732E-1	1.071175E+0	1.033956E+0	1.009822E+0	1.026598E+0	1.050972E+0	1.028781E+0	1.049165E+0	1.012200E+0	1.018765E+0	1.046038E+0	1.040289E+0	9.656102E-1	1.046841E+0	1.008845E+0	1.025020E+0	1.024225E+0	1.032917E+0	1.034003E+0	9.820421E-1	1.035994E+0	1.035164E+0	1.007272E+0	1.062411E+0	1.041386E+0	1.073775E+0	1.043582E+0	1.036080E+0	9.681084E-1	9.940851E-1	1.070898E+0	1.010890E+0	1.020436E+0	1.022466E+0	1.059198E+0	1.006501E+0	1.024322E+0	1.033722E+0	9.918668E-1	1.024504E+0	1.031581E+0	1.050575E+0	1.033580E+0	1.020952E+0	1.022136E+0	9.860883E-1	1.031082E+0	9.852320E-1	1.021547E+0
5.580110E+2	1.009801E+0	1.015570E+0	9.692502E-1	1.009222E+0	9.966903E-1	1.000604E+0	1.003085E+0	9.867199E-1	1.003805E+0	1.037400E+0	9.936319E-1	1.039602E+0	9.556050E-1	9.985770E-1	9.996616E-1	9.730953E-1	9.857760E-1	1.045901E+0	9.727351E-1	9.645212E-1	1.021371E+0	1.014128E+0	9.668713E-1	1.027328E+0	1.010791E+0	1.029768E+0	1.006368E+0	1.010153E+0	9.984892E-1	1.026639E+0	9.709777E-1	1.007320E+0	1.003776E+0	1.034004E+0	9.727987E-1	9.987716E-1	1.005310E+0	1.030392E+0	9.970824E-1	1.029272E+0	1.005054E+0	9.930215E-1	1.034694E+0	1.011194E+0	1.036542E+0	9.768349E-1	9.690569E-1	9.832789E-1	9.793226E-1	1.020216E+0	1.007870E+0	1.005898E+0	9.759690E-1	9.757244E-1	1.002872E+0	1.024455E+0	9.910925E-1	1.011823E+0	9.959501E-1	9.824459E-1	1.011098E+0	1.029133E+0	9.643244E-1	1.013164E+0	9.772985E-1	1.009766E+0	9.926223E-1	1.013771E+0	9.491686E-1	9.606230E-1	9.844516E-1	1.046851E+0	9.733247E-1	1.011336E+0	9.984194E-1	1.031780E+0	9.957038E-1	1.011949E+0	9.891199E-1	9.904645E-1	1.011905E+0	9.640361E-1	9.969167E-1	9.951855E-1	1.042231E+0	1.013238E+0	1.009365E+0	1.031199E+0	9.966196E-1	1.030991E+0	9.911716E-1	9.545463E-1	9.904281E-1	1.053080E+0	9.550542E-1	1.038027E+0	9.788549E-1	9.944755E-1	9.714178E-1	1.007052E+0	9.993992E-1	1.008746E+0	9.688187E-1	9.689861E-1	1.005366E+0	1.000848E+0	9.679071E-1	1.004448E+0	1.005917E+0	9.920578E-1	9.748174E-1	9.996607E-1	1.032795E+0	9.789622E-1	9.947843E-1	9.863625E-1	1.004429E+0	9.746404E-1	1.002555E+0	1.007773E+0	1.013360E+0	1.012107E+0	9.965712E-1	9.549289E-1	1.044124E+0	9.690439E-1	9.652862E-1	9.863929E-1	9.816136E-1	1.058664E+0	1.036463E+0	9.840114E-1	1.025064E+0	9.995490E-1	1.006749E+0	1.032514E+0	1.030966E+0	9.993752E-1	9.541318E-1	9.817409E-1	9.924564E-1	1.016298E+0	1.025212E+0	9.810841E-1	9.654202E-1	9.861584E-1	1.040960E+0	1.010832E+0	1.002788E+0	1.025204E+0	1.015966E+0	9.891056E-1	9.902004E-1	9.867550E-1	1.058035E+0	9.787834E-1	9.763359E-1	9.948397E-1	1.015666E+0	1.015259E+0	1.017421E+0	1.029150E+0	9.882054E-1	9.975472E-1	1.021911E+0	9.440501E-1	1.013202E+0	9.670614E-1	1.027396E+0	9.591899E-1
5.585100E+2	9.540782E-1	9.648345E-1	9.924952E-1	9.559686E-1	9.603226E-1	9.641468E-1	1.005016E+0	9.878105E-1	9.701656E-1	9.616685E-1	9.599959E-1	9.483351E-1	9.670787E-1	9.642925E-1	9.554072E-1	9.684617E-1	9.528441E-1	9.401566E-1	9.681436E-1	9.748600E-1	1.004864E+0	9.358715E-1	9.143944E-1	9.625447E-1	9.744707E-1	9.911633E-1	9.521451E-1	9.695768E-1	1.006449E+0	9.556014E-1	9.387932E-1	9.780803E-1	9.547642E-1	9.329457E-1	9.539428E-1	9.538029E-1	9.858332E-1	9.519457E-1	9.223262E-1	9.616012E-1	9.770369E-1	9.486154E-1	9.436521E-1	9.573266E-1	1.003427E+0	9.733903E-1	9.827726E-1	9.614519E-1	9.469173E-1	9.950763E-1	9.460296E-1	9.343479E-1	9.521879E-1	9.440158E-1	9.634531E-1	9.330725E-1	9.801069E-1	9.847229E-1	9.433818E-1	9.548060E-1	9.341089E-1	9.773715E-1	9.952246E-1	9.444490E-1	9.947945E-1	9.531009E-1	9.027341E-1	9.516537E-1	1.014127E+0	9.776558E-1	9.561884E-1	9.319524E-1	9.968498E-1	9.712934E-1	9.303744E-1	9.563947E-1	9.386380E-1	9.846493E-1	9.434747E-1	9.750126E-1	9.713012E-1	9.602741E-1	9.625496E-1	9.637909E-1	9.737979E-1	9.276807E-1	9.232062E-1	9.671509E-1	9.337325E-1	9.686600E-1	9.652932E-1	9.870417E-1	9.777641E-1	9.608885E-1	9.396696E-1	9.872569E-1	9.444566E-1	9.397241E-1	9.878408E-1	9.775013E-1	9.605074E-1	9.904622E-1	9.545649E-1	1.001149E+0	9.624445E-1	9.859226E-1	9.446272E-1	9.803417E-1	9.456306E-1	9.440289E-1	9.825449E-1	9.882476E-1	9.851935E-1	9.988023E-1	9.325594E-1	9.729732E-1	9.667063E-1	1.002783E+0	9.803317E-1	9.733240E-1	9.601154E-1	9.915845E-1	9.518652E-1	9.981647E-1	9.527758E-1	9.547045E-1	9.594258E-1	9.464460E-1	9.738496E-1	9.611879E-1	9.485763E-1	9.774395E-1	9.536106E-1	9.637018E-1	9.638913E-1	9.597362E-1	9.666712E-1	9.646802E-1	9.793286E-1	9.908769E-1	1.002630E+0	9.594607E-1	9.230581E-1	9.981361E-1	9.338263E-1	9.721722E-1	9.426308E-1	9.751012E-1	9.564105E-1	9.487222E-1	9.778294E-1	9.051203E-1	1.017344E+0	9.977900E-1	9.656987E-1	9.722739E-1	9.562576E-1	9.560377E-1	9.684210E-1	9.950961E-1	9.264748E-1	1.045646E+0	9.617203E-1	9.664434E-1	9.196283E-1	9.757610E-1	9.605294E-1	9.532261E-1	9.102873E-1	9.665858E-1
5.590040E+2	1.086933E+0	1.046982E+0	1.057102E+0	1.027380E+0	1.044014E+0	1.049670E+0	1.051158E+0	1.018140E+0	1.019650E+0	1.043347E+0	1.043665E+0	1.039620E+0	1.074872E+0	1.017488E+0	9.967719E-1	1.002474E+0	1.033694E+0	1.027761E+0	1.049849E+0	9.952330E-1	1.040791E+0	1.014770E+0	1.025305E+0	1.009267E+0	1.016180E+0	1.036445E+0	1.024521E+0	1.002468E+0	1.004267E+0	1.068680E+0	1.036078E+0	1.022298E+0	1.026857E+0	1.033063E+0	1.051916E+0	1.046771E+0	1.018603E+0	1.037082E+0	1.052966E+0	1.069995E+0	1.010002E+0	1.038208E+0	1.024460E+0	1.054766E+0	1.028416E+0	1.050370E+0	1.037475E+0	1.002643E+0	1.084900E+0	1.012527E+0	9.946481E-1	1.040839E+0	1.034976E+0	1.073102E+0	1.041004E+0	1.014300E+0	9.953552E-1	1.056564E+0	1.025203E+0	1.048214E+0	1.075309E+0	1.044444E+0	1.003472E+0	9.935551E-1	1.007128E+0	1.029027E+0	1.060217E+0	1.026884E+0	1.001576E+0	1.031515E+0	1.045193E+0	1.031869E+0	1.012231E+0	1.039379E+0	1.034414E+0	9.807052E-1	1.013028E+0	1.030059E+0	9.800056E-1	1.052623E+0	1.000723E+0	1.035890E+0	1.048108E+0	1.089049E+0	1.026124E+0	9.956342E-1	1.061335E+0	1.039605E+0	1.046486E+0	1.058804E+0	1.013046E+0	1.025923E+0	1.052621E+0	1.038152E+0	1.047238E+0	1.035841E+0	1.007539E+0	1.017968E+0	1.036157E+0	1.016425E+0	1.038448E+0	1.016845E+0	1.044343E+0	1.031280E+0	9.973839E-1	1.035023E+0	1.073819E+0	1.007756E+0	1.067070E+0	1.001372E+0	1.040449E+0	1.034920E+0	1.004957E+0	1.095828E+0	1.044019E+0	9.916433E-1	1.070909E+0	1.053416E+0	1.060451E+0	1.021295E+0	1.016659E+0	1.040518E+0	1.001976E+0	1.027902E+0	1.036179E+0	1.009890E+0	1.021731E+0	1.073619E+0	1.022705E+0	1.009258E+0	9.725830E-1	1.012370E+0	1.036647E+0	1.035443E+0	9.738333E-1	1.016381E+0	1.006652E+0	1.043851E+0	1.032301E+0	1.026407E+0	1.050840E+0	1.013145E+0	1.017227E+0	1.056089E+0	1.044453E+0	1.074640E+0	1.009512E+0	9.744196E-1	1.056386E+0	1.037148E+0	1.081212E+0	1.035654E+0	1.060850E+0	1.017855E+0	1.003893E+0	1.033577E+0	1.027967E+0	1.038300E+0	1.042452E+0	1.032053E+0	1.004088E+0	9.832918E-1	1.046048E+0	1.033535E+0	1.036972E+0	1.013097E+0	1.045080E+0	1.052107E+0	1.102730E+0	9.516189E-1
5.595110E+2	1.024883E+0	1.065093E+0	1.054705E+0	1.065131E+0	1.068988E+0	1.048313E+0	1.047656E+0	1.066790E+0	1.056965E+0	1.041854E+0	1.056715E+0	1.052473E+0	1.049133E+0	1.014782E+0	1.008547E+0	1.061999E+0	1.041861E+0	1.026602E+0	1.042877E+0	1.027392E+0	1.039153E+0	1.069178E+0	1.028686E+0	1.022667E+0	1.041778E+0	1.029230E+0	1.055555E+0	1.088564E+0	1.030620E+0	9.987386E-1	1.057745E+0	1.073472E+0	9.965295E-1	1.051069E+0	1.067672E+0	1.034535E+0	1.032930E+0	1.063949E+0	1.023770E+0	9.955904E-1	9.730214E-1	1.030627E+0	1.024936E+0	1.007593E+0	1.019858E+0	1.020423E+0	1.027448E+0	1.051415E+0	9.788373E-1	1.059067E+0	1.071389E+0	1.037720E+0	1.034735E+0	1.033078E+0	1.024822E+0	1.035840E+0	1.040223E+0	1.010947E+0	1.048921E+0	1.043187E+0	1.014024E+0	1.033448E+0	1.027552E+0	1.080308E+0	1.025338E+0	1.025331E+0	1.051083E+0	1.043283E+0	1.029363E+0	1.063018E+0	1.033780E+0	1.057643E+0	1.050808E+0	1.040520E+0	1.017496E+0	1.015244E+0	1.057901E+0	1.010740E+0	1.054821E+0	1.033256E+0	1.093595E+0	1.008987E+0	1.079316E+0	1.044319E+0	1.038488E+0	1.082203E+0	1.043628E+0	1.034611E+0	1.025647E+0	1.024082E+0	1.063275E+0	1.041311E+0	1.014364E+0	1.057314E+0	1.009148E+0	1.023607E+0	1.045461E+0	1.041519E+0	1.031448E+0	1.075743E+0	1.049115E+0	1.037607E+0	1.026173E+0	1.032022E+0	1.020904E+0	1.042618E+0	1.012588E+0	1.056428E+0	1.028545E+0	1.077019E+0	1.028736E+0	9.926782E-1	1.040668E+0	1.073009E+0	1.060097E+0	1.013482E+0	1.078132E+0	1.030665E+0	1.004777E+0	1.043490E+0	1.034370E+0	1.072096E+0	1.077150E+0	1.064606E+0	1.007802E+0	1.070873E+0	1.056701E+0	1.041019E+0	1.032636E+0	1.056359E+0	1.014557E+0	1.014049E+0	1.053303E+0	1.068554E+0	1.067914E+0	9.970761E-1	9.883131E-1	1.074506E+0	1.015041E+0	1.033488E+0	1.014457E+0	1.026378E+0	1.007904E+0	1.033610E+0	1.023228E+0	1.035128E+0	1.010755E+0	1.020031E+0	1.068108E+0	1.049897E+0	1.045654E+0	1.030776E+0	1.042052E+0	1.039421E+0	1.024444E+0	1.009045E+0	1.073761E+0	1.029901E+0	1.031685E+0	1.038179E+0	1.064114E+0	1.051508E+0	1.032764E+0	1.050066E+0	1.058450E+0	1.104270E+0	1.036662E+0	1.033669E+0	1.022116E+0	1.083670E+0
5.600300E+2	9.507676E-1	9.088263E-1	9.364479E-1	8.813968E-1	9.664102E-1	9.461949E-1	9.236388E-1	9.138882E-1	9.220565E-1	9.137959E-1	9.560923E-1	9.419812E-1	9.387256E-1	9.576549E-1	9.212528E-1	9.552529E-1	9.631294E-1	9.702215E-1	9.348184E-1	9.359841E-1	9.127729E-1	9.363584E-1	9.513477E-1	9.449177E-1	9.064572E-1	8.877583E-1	9.247962E-1	9.315737E-1	9.257166E-1	9.187432E-1	9.291136E-1	9.314334E-1	9.429196E-1	9.163750E-1	8.887378E-1	9.320475E-1	9.528093E-1	9.213106E-1	9.194859E-1	8.967425E-1	9.826611E-1	9.745326E-1	9.503760E-1	9.143649E-1	9.403660E-1	9.265243E-1	9.381724E-1	9.587552E-1	9.424790E-1	8.936930E-1	9.546545E-1	9.587114E-1	9.315273E-1	9.375923E-1	9.302632E-1	9.436569E-1	9.686843E-1	9.200247E-1	9.291171E-1	9.767797E-1	9.361499E-1	9.200585E-1	9.270269E-1	9.337623E-1	9.268099E-1	9.156834E-1	9.404470E-1	9.586684E-1	9.893511E-1	9.460271E-1	9.708473E-1	9.659306E-1	9.516670E-1	9.121602E-1	9.554393E-1	9.726910E-1	9.393943E-1	9.316920E-1	9.517416E-1	9.289695E-1	9.467923E-1	9.367328E-1	9.422163E-1	9.457278E-1	9.771564E-1	9.344089E-1	9.349146E-1	9.501587E-1	9.010677E-1	9.125023E-1	9.433095E-1	9.487584E-1	9.150601E-1	9.205883E-1	9.248532E-1	9.343853E-1	9.300639E-1	9.554638E-1	9.481731E-1	9.293828E-1	9.435675E-1	9.118211E-1	9.474788E-1	9.250836E-1	9.382369E-1	9.172246E-1	8.997441E-1	9.263140E-1	9.501906E-1	9.703462E-1	9.214686E-1	9.519296E-1	9.011734E-1	9.226546E-1	9.066775E-1	9.411818E-1	8.828091E-1	9.249649E-1	9.362713E-1	9.666717E-1	9.165200E-1	9.494714E-1	9.674172E-1	9.103656E-1	9.527675E-1	9.597983E-1	9.459033E-1	9.588402E-1	9.028713E-1	9.104418E-1	9.524399E-1	9.135072E-1	9.242118E-1	9.697301E-1	9.500937E-1	9.626242E-1	9.167276E-1	9.454985E-1	9.223910E-1	8.997124E-1	8.868455E-1	9.589727E-1	9.443008E-1	9.185649E-1	9.290561E-1	9.285339E-1	9.242239E-1	9.325207E-1	8.854071E-1	9.531681E-1	9.070420E-1	9.218570E-1	9.331415E-1	9.300682E-1	9.119490E-1	9.523267E-1	9.350103E-1	9.444752E-1	8.728417E-1	9.541165E-1	9.410656E-1	8.908148E-1	9.277198E-1	9.265592E-1	9.247028E-1	9.199632E-1	9.211559E-1	9.304924E-1	9.759842E-1	9.468061E-1
5.605090E+2	1.012471E+0	9.715684E-1	9.557686E-1	1.018387E+0	9.952532E-1	9.976597E-1	9.947256E-1	9.915017E-1	9.977044E-1	1.036852E+0	1.015141E+0	9.758289E-1	9.977624E-1	9.996313E-1	9.730409E-1	1.023317E+0	1.043187E+0	9.831696E-1	9.953289E-1	9.685819E-1	9.909551E-1	9.904912E-1	9.988080E-1	1.002832E+0	9.864107E-1	9.781474E-1	9.756607E-1	1.004631E+0	1.006358E+0	1.024471E+0	1.021200E+0	9.905517E-1	9.837409E-1	9.932419E-1	1.016181E+0	9.941142E-1	1.020640E+0	1.005975E+0	1.003496E+0	1.001569E+0	9.839559E-1	9.899287E-1	9.707939E-1	1.022395E+0	9.607676E-1	9.869827E-1	1.013074E+0	9.981019E-1	9.882801E-1	9.648421E-1	1.005077E+0	9.904451E-1	1.002529E+0	9.863612E-1	9.927411E-1	1.037717E+0	9.714788E-1	9.993465E-1	1.001165E+0	9.850057E-1	9.891249E-1	1.004186E+0	1.008870E+0	1.002137E+0	9.837250E-1	1.060749E+0	9.726088E-1	1.028345E+0	9.779835E-1	9.820474E-1	9.950188E-1	9.979803E-1	9.905932E-1	1.046048E+0	1.007686E+0	9.856535E-1	9.806059E-1	1.003331E+0	9.665005E-1	1.020334E+0	9.505517E-1	1.022682E+0	9.237778E-1	9.929457E-1	9.849982E-1	1.015897E+0	9.947455E-1	9.717814E-1	1.001636E+0	9.838759E-1	1.016673E+0	1.050909E+0	9.969932E-1	9.453762E-1	9.724000E-1	9.441566E-1	9.909025E-1	9.904797E-1	9.610177E-1	9.920524E-1	1.002110E+0	1.001062E+0	1.007348E+0	9.670215E-1	1.009428E+0	9.789218E-1	9.986118E-1	9.763388E-1	1.016252E+0	9.678358E-1	9.819169E-1	1.021958E+0	1.003642E+0	9.759373E-1	9.714864E-1	1.019872E+0	9.926914E-1	1.025867E+0	9.997485E-1	9.622802E-1	9.884564E-1	9.429125E-1	9.812285E-1	9.721112E-1	1.003405E+0	9.781375E-1	9.977959E-1	1.001568E+0	9.900517E-1	9.758025E-1	1.044467E+0	1.013390E+0	1.017578E+0	1.019005E+0	1.006381E+0	9.519053E-1	1.026008E+0	9.405388E-1	9.816043E-1	1.024943E+0	1.024525E+0	9.979941E-1	1.025268E+0	9.894012E-1	1.012571E+0	9.741021E-1	9.869591E-1	1.019289E+0	1.000181E+0	1.032343E+0	9.578584E-1	1.001032E+0	1.005296E+0	9.775061E-1	1.009862E+0	9.665331E-1	9.864488E-1	1.019202E+0	9.751166E-1	1.016113E+0	1.007265E+0	1.014195E+0	9.758177E-1	1.010880E+0	1.012387E+0	9.937869E-1	9.984203E-1	9.983281E-1	1.038088E+0	9.631672E-1
5.610070E+2	9.816254E-1	1.025871E+0	1.005625E+0	1.001380E+0	9.959414E-1	1.051683E+0	1.019362E+0	1.013723E+0	1.013600E+0	9.863623E-1	1.013158E+0	1.018067E+0	1.017416E+0	1.028961E+0	1.040113E+0	1.003702E+0	9.944803E-1	9.802883E-1	9.897115E-1	1.015186E+0	1.005041E+0	1.053471E+0	1.004707E+0	9.842312E-1	9.996526E-1	1.043910E+0	1.009648E+0	9.618598E-1	1.033513E+0	9.914425E-1	1.006886E+0	9.852560E-1	1.047018E+0	1.030255E+0	1.015734E+0	1.020630E+0	9.812265E-1	1.039457E+0	1.028251E+0	9.962282E-1	1.042738E+0	1.042221E+0	1.021756E+0	1.004735E+0	9.757468E-1	1.008764E+0	1.003976E+0	1.030901E+0	1.038558E+0	9.772817E-1	1.034425E+0	1.038833E+0	1.034100E+0	9.936934E-1	1.051278E+0	1.023389E+0	1.037293E+0	9.787781E-1	1.007722E+0	9.600462E-1	1.017591E+0	1.022421E+0	1.034700E+0	1.022930E+0	1.056905E+0	1.025981E+0	1.015277E+0	9.784284E-1	9.876847E-1	1.049219E+0	1.017570E+0	9.724754E-1	1.027161E+0	1.018126E+0	1.040255E+0	1.001812E+0	1.016635E+0	1.036928E+0	1.022719E+0	9.928751E-1	1.026269E+0	9.974577E-1	1.034755E+0	9.908948E-1	9.745041E-1	9.838491E-1	1.010057E+0	1.026472E+0	1.039156E+0	1.018794E+0	9.873386E-1	1.022579E+0	1.025393E+0	9.870948E-1	1.062049E+0	1.030000E+0	1.051851E+0	1.050136E+0	9.991426E-1	1.034671E+0	1.005885E+0	1.018273E+0	1.008391E+0	1.016973E+0	9.813999E-1	1.031342E+0	1.046410E+0	1.008398E+0	9.847861E-1	9.991698E-1	1.006485E+0	1.012011E+0	9.998984E-1	1.030580E+0	1.030237E+0	1.065538E+0	9.924794E-1	9.558651E-1	9.560185E-1	1.019486E+0	1.028024E+0	1.000326E+0	9.822724E-1	1.047012E+0	1.018369E+0	1.010997E+0	9.669352E-1	1.007854E+0	1.035599E+0	1.017000E+0	9.818647E-1	1.021320E+0	1.001763E+0	1.016941E+0	1.049713E+0	1.050118E+0	1.060678E+0	1.019015E+0	1.019533E+0	1.013219E+0	1.052754E+0	1.020820E+0	9.967967E-1	1.015774E+0	1.031611E+0	9.853933E-1	1.000122E+0	9.963015E-1	1.007615E+0	1.006394E+0	1.008970E+0	1.007698E+0	1.010979E+0	1.021408E+0	9.961101E-1	1.018897E+0	1.010737E+0	1.000398E+0	1.015762E+0	9.871061E-1	9.948324E-1	9.532491E-1	9.915991E-1	9.893403E-1	1.035299E+0	1.031366E+0	1.012404E+0	1.032873E+0	1.054207E+0	1.058200E+0
