Photon Energy (eV)	#1	#2	#3	#4	#5	#6	#7	#8	#9	#10	#11	#12	#13	#14	#15	#16	#17	#18	#19	#20	#21	#22	#23	#24	#25	#26	#27	#28	#29	#30	#31	#32	#33	#34	#35	#36	#37	#38	#39	#40	#41	#42	#43	#44	#45	#46	#47	#48	#49	#50	#51	#52	#53	#54	#55	#56	#57	#58	#59	#60	#61	#62	#63	#64	#65	#66	#67	#68	#69	#70	#71	#72	#73	#74	#75	#76	#77	#78	#79	#80	#81	#82	#83	#84	#85	#86	#87	#88	#89	#90	#91	#92	#93	#94	#95	#96	#97	#98	#99	#100	#101	#102	#103	#104	#105	#106	#107	#108	#109	#110	#111	#112	#113	#114	#115	#116	#117	#118	#119	#120	#121	#122	#123	#124	#125	#126	#127	#128	#129	#130	#131	#132	#133	#134	#135	#136	#137	#138	#139	#140	#141	#142	#143	#144	#145	#146	#147	#148	#149	#150	#151	#152	#153	#154	#155	#156	#157	#158	#159	#160	#161	#162	#163	#164	#165	#166	#167	#168	#169	#170	#171	
5.300160E+2	-1.367481E-2	7.574828E-5	-3.816575E-3	-1.113392E-2	1.128957E-3	-5.477224E-3	-4.075672E-3	-5.171129E-3	4.409430E-3	-5.968922E-3	-7.550282E-3	9.344961E-4	3.308841E-4	-8.840964E-3	-1.540978E-3	6.404727E-3	-1.103518E-2	-9.954359E-3	-2.418297E-3	-6.643757E-3	-7.713364E-3	-1.306668E-2	-6.591007E-3	-5.352531E-4	-1.243397E-3	-8.237807E-3	-1.498474E-2	-3.315576E-3	-7.859326E-3	-8.651702E-3	-3.584687E-3	-6.090003E-3	6.267172E-4	1.009797E-3	-6.543111E-3	-3.955940E-3	-5.174491E-3	-9.005513E-3	-2.901196E-3	-1.475468E-2	-1.518502E-2	-1.187403E-2	-4.114804E-3	-7.032362E-3	-1.000161E-2	-4.467234E-3	-3.898859E-3	-9.347713E-3	6.504305E-4	-4.898101E-3	-4.940659E-4	-7.992688E-3	-6.179492E-3	-3.255359E-3	-7.840205E-3	-4.037615E-3	-1.885214E-3	-8.643056E-3	-1.370357E-2	-9.055988E-3	-8.777001E-3	5.598996E-3	-1.751262E-3	-5.826511E-4	-8.214357E-3	-7.668626E-3	-4.029498E-3	-4.691949E-3	-4.960931E-3	3.742445E-3	-7.598945E-3	-3.073486E-3	-1.101830E-2	3.234438E-3	7.121848E-5	-6.513357E-3	-7.688962E-3	-6.972345E-3	-1.360651E-2	-4.849119E-3	-4.175769E-3	-9.275439E-3	-1.541967E-2	-1.289323E-2	-2.669195E-3	-8.824366E-3	-7.295271E-3	-4.204462E-3	-7.456625E-3	-7.717254E-3	4.866665E-3	-1.320871E-2	-1.015262E-2	-3.448072E-3	-2.906865E-3	-1.140137E-2	-1.003060E-2	-9.847117E-3	-6.681701E-3	-1.772676E-3	-5.051096E-3	-1.198981E-2	-9.889744E-3	1.932201E-3	-5.241802E-3	-7.591073E-3	-4.750446E-3	-5.156633E-3	-5.079677E-3	-6.870585E-3	-7.425784E-3	-3.349263E-3	-7.354440E-3	-9.204486E-3	-2.689600E-3	-5.734905E-3	-1.172811E-2	2.025205E-3	-1.436913E-2	4.220371E-4	-8.210201E-4	-1.606800E-3	-8.085757E-3	-8.821238E-3	-3.118360E-3	-9.107610E-3	-8.657048E-3	-4.941469E-3	-5.643856E-3	-7.728154E-3	-1.235739E-2	-9.025947E-3	-3.775854E-3	-4.019028E-3	-8.403838E-3	-1.009606E-2	-4.604925E-3	2.068195E-3	-1.050590E-2	-1.667180E-3	-4.144783E-3	-8.648402E-3	-4.675495E-3	-3.151060E-3	6.883080E-4	-8.141741E-3	-5.378386E-3	9.481852E-3	-8.810311E-3	-6.162364E-3	-3.447953E-3	-7.919530E-3	-1.216715E-2	1.506525E-3	-6.319890E-3	-1.342051E-2	-1.079627E-2	-1.417724E-2	-1.256384E-3	-4.256793E-3	-8.096415E-3	-5.605003E-3	-7.103581E-3	-1.632518E-2	-4.171133E-3	-2.994596E-3	-4.932543E-3	-1.250659E-3	-1.128363E-2	-3.405850E-3	-2.315177E-2
5.305130E+2	-1.911796E-3	-3.955631E-3	3.112472E-3	-4.245588E-3	3.679763E-4	-7.350271E-3	-4.814319E-3	-6.833491E-3	2.735275E-4	-5.684694E-3	-7.276069E-3	5.746956E-3	-1.059993E-2	-8.546518E-3	-2.320029E-3	-9.077774E-3	-1.541426E-4	7.921529E-3	-8.144672E-3	3.681315E-3	2.368674E-3	-5.943848E-3	-8.339808E-3	-1.769464E-2	3.992239E-3	-4.081157E-3	-3.258541E-3	-6.419139E-3	-2.798144E-3	-1.068165E-2	-3.763598E-3	-3.207606E-3	-9.442811E-3	-9.688799E-3	-8.297677E-3	-3.090576E-3	-4.300915E-3	5.860103E-4	-6.153636E-3	-1.918097E-3	1.218435E-4	2.080926E-3	-1.122037E-2	-4.511171E-3	-7.081871E-3	5.865525E-3	-9.030489E-3	-1.247213E-2	-6.242398E-5	-5.208487E-3	-5.125723E-3	6.977105E-4	1.256849E-3	-1.233659E-2	-9.140456E-3	-2.179929E-3	-6.578505E-3	-5.051933E-3	-4.234620E-4	-8.766549E-3	-4.695731E-4	-3.592938E-3	-5.072991E-3	-4.292986E-3	2.123757E-3	-4.868374E-3	-5.499349E-3	-2.741250E-3	-1.063300E-2	-8.521514E-3	-3.563790E-3	5.656491E-4	-6.423642E-3	-8.099141E-3	-1.893941E-3	-1.697889E-3	-5.327092E-3	3.290019E-3	-1.116020E-2	-1.234827E-2	1.264799E-2	-4.071098E-3	-4.898640E-3	-1.117384E-3	-5.250711E-3	7.783374E-4	-5.379281E-3	-4.865324E-3	-5.644672E-3	-8.608935E-3	-8.212848E-3	1.200829E-4	-3.755183E-3	-6.052614E-3	-6.991287E-3	-2.584700E-3	-7.570275E-3	-6.980893E-4	-8.137762E-3	-1.279513E-2	-8.085255E-3	-1.170470E-2	-1.073293E-2	-2.501682E-3	2.122821E-3	-3.821856E-3	-8.758617E-3	-4.187627E-3	-3.268691E-3	-4.846606E-3	4.581641E-3	-9.506376E-3	-5.969185E-3	-7.706445E-3	9.656710E-4	1.066788E-3	-2.183787E-3	-6.786935E-3	-1.724052E-3	-6.598435E-3	-5.336692E-3	-4.235274E-3	4.951710E-3	-2.744722E-3	-4.291516E-3	-1.111412E-2	-6.668002E-3	-1.070747E-2	-4.259773E-3	-8.482459E-4	-5.679755E-3	-5.439375E-3	1.678235E-3	-8.532421E-3	-3.150703E-3	-1.110186E-3	-4.290226E-3	-1.157739E-2	-2.467800E-4	-1.057579E-2	-1.060324E-2	-1.013231E-2	-3.143903E-4	-1.019120E-2	-1.272716E-2	6.396377E-3	-6.311512E-4	-4.468461E-3	-9.057511E-3	-6.952593E-3	3.037599E-3	-8.075390E-3	-5.921848E-3	-1.284004E-2	-9.293679E-3	-1.583419E-2	-5.360155E-3	6.304743E-3	-3.114480E-3	-7.448196E-3	-3.715991E-3	-1.292550E-2	-1.295468E-2	3.564667E-3	-6.793732E-3	-4.663039E-3	-6.088232E-3	-9.926932E-3	-1.203029E-2	-1.729339E-2	8.413074E-3
5.310100E+2	-8.514158E-3	-2.704509E-3	-5.046812E-3	-3.623371E-3	-1.234402E-3	-6.170057E-3	-1.067721E-2	2.673027E-3	-5.157257E-3	4.826653E-3	-1.052014E-3	-3.076868E-3	-1.102756E-2	1.376712E-2	-2.272686E-3	-4.656100E-3	-3.415773E-3	-9.699228E-4	-9.883477E-3	-2.381614E-3	2.032847E-3	8.782183E-5	7.672474E-3	4.858271E-3	2.956253E-3	-5.695993E-3	3.948560E-5	2.324146E-3	-9.050137E-3	1.152951E-3	-4.702537E-3	-4.240836E-3	-9.237360E-5	-3.795872E-3	4.925952E-4	-5.830258E-3	-4.249200E-4	-3.076308E-3	-9.442057E-4	-1.172370E-2	2.352411E-3	1.031324E-3	-1.073586E-2	2.272303E-3	-3.308931E-3	-1.029166E-2	-2.007614E-2	-1.295596E-2	5.481639E-5	5.528712E-3	-1.729716E-3	-9.110609E-4	-3.196218E-3	-2.276342E-3	6.259037E-3	-5.512513E-3	-8.250157E-4	1.309994E-5	2.661194E-3	-4.260291E-3	-4.538263E-3	-6.146254E-3	1.009110E-3	4.968984E-3	-1.400871E-2	8.332421E-4	-7.917432E-3	-4.868549E-3	-2.972322E-3	1.253580E-3	2.461566E-3	1.721269E-3	-9.235251E-4	-8.556497E-3	-8.859602E-3	-5.587205E-3	-7.366459E-3	-4.963966E-3	3.691069E-3	7.322340E-3	-9.314410E-3	-5.594418E-3	-2.498303E-3	-4.260154E-3	2.964286E-3	2.051408E-3	-3.086890E-3	-9.021032E-3	7.933749E-4	-1.317839E-3	3.575189E-3	-3.458375E-3	2.464568E-4	3.446605E-3	-1.805429E-2	-2.411690E-3	5.388508E-3	2.429498E-3	-4.098160E-3	-5.602440E-3	-2.410488E-3	-3.004662E-3	-1.255923E-3	-6.249540E-3	-6.821414E-3	-1.463586E-3	-8.817933E-3	-3.297595E-4	-1.120663E-2	2.699827E-3	-6.648757E-4	-1.319086E-2	1.651554E-3	-2.316248E-3	-2.807997E-3	5.685219E-3	-1.022903E-3	-1.030574E-2	-2.128928E-3	-9.749349E-3	-4.194163E-3	-2.445501E-3	-1.479262E-2	3.048158E-3	-7.814973E-3	1.512456E-3	-2.112493E-3	4.971705E-3	-2.617240E-3	-2.079629E-3	-4.500804E-3	4.588589E-4	-6.901659E-3	7.561393E-4	-5.787809E-3	-3.174848E-3	1.098300E-3	-3.776482E-4	-1.392560E-3	-6.696395E-5	-3.685057E-3	-6.501528E-3	-3.741406E-3	2.248240E-3	-6.606010E-4	-2.869358E-3	-3.899828E-3	-2.154997E-3	-1.302806E-3	-2.871023E-3	6.237164E-4	-3.844497E-3	-5.360447E-3	-3.319637E-3	-1.498152E-3	1.412776E-3	5.121657E-3	1.477452E-3	-8.663593E-3	-1.759167E-3	-1.786318E-4	5.793789E-4	-8.803608E-3	-5.416586E-3	1.504700E-3	-6.611684E-3	-1.319603E-3	-3.247861E-3	1.335175E-2	-5.859033E-3	1.549280E-2
5.315180E+2	3.854364E-3	2.629922E-3	-6.479960E-3	-2.367433E-3	-5.032882E-3	-3.172703E-3	-4.612647E-3	1.835544E-3	-2.461333E-3	-8.553821E-3	2.303316E-4	-6.875409E-3	7.411019E-3	-7.860073E-3	-8.330180E-3	-8.410562E-3	5.045538E-3	2.234014E-3	7.615757E-4	1.156724E-3	-1.033972E-2	-2.738717E-3	-4.054694E-3	-8.881410E-4	-2.382417E-4	-1.069363E-3	-2.430780E-3	-6.239699E-3	4.975162E-3	1.022443E-2	-3.939091E-4	-3.058366E-3	-7.587734E-3	-3.072907E-3	-8.174780E-3	4.360627E-3	-1.099292E-2	-4.021479E-3	-6.487873E-3	-3.370079E-3	-1.173169E-3	-4.599948E-3	9.444425E-4	-3.783177E-3	5.653377E-4	-6.779092E-3	4.893168E-3	8.440029E-3	1.830672E-3	1.498364E-3	-5.513585E-3	-3.035069E-3	6.775732E-3	6.914094E-3	-4.970236E-4	5.295698E-3	-4.246599E-3	1.787286E-4	4.308410E-4	8.346295E-3	-7.725263E-3	-5.425412E-3	-1.921936E-3	-3.066497E-3	6.528603E-3	-9.817801E-4	6.534521E-3	-5.280295E-3	-7.424608E-5	-4.218297E-3	-6.476552E-4	-5.006717E-4	9.103345E-3	-8.347933E-4	2.430992E-3	-4.878812E-3	-1.982688E-3	-8.736927E-3	-3.848269E-3	1.724538E-3	-5.387303E-3	8.041855E-4	1.203044E-2	-1.867417E-3	2.140670E-4	2.225971E-3	-3.503443E-3	-3.010929E-3	3.600150E-3	2.505595E-3	-6.345565E-3	4.133494E-3	-3.560342E-3	6.764515E-4	1.795831E-3	7.036195E-3	5.610621E-3	-5.192336E-3	6.397252E-3	1.027188E-2	-3.941563E-3	7.704102E-3	-9.746475E-4	-6.903595E-4	4.624461E-3	-2.326769E-3	2.344564E-3	-1.591741E-4	6.149755E-3	-1.057572E-2	-4.670735E-3	2.443458E-3	7.232164E-4	5.124674E-3	-6.551019E-3	-1.112515E-2	7.922386E-4	1.253872E-2	1.041240E-3	1.667156E-3	3.181322E-3	-3.517138E-3	1.749400E-3	-3.986276E-3	9.991010E-3	5.149172E-3	-4.850971E-3	-5.551336E-3	-8.301101E-4	3.531277E-3	7.428558E-3	-4.707612E-3	-6.749039E-3	9.228404E-4	-2.304903E-3	8.410354E-4	-3.575208E-3	-7.337108E-3	5.469499E-4	7.152511E-3	2.399440E-3	1.622927E-3	-2.431125E-3	5.135513E-3	-3.426806E-3	-1.024940E-2	2.410986E-3	-7.842013E-3	-5.908672E-4	1.345312E-3	-5.960737E-3	8.215586E-3	-4.118531E-3	-3.182654E-3	8.957668E-4	1.570893E-2	1.639786E-3	2.257440E-3	-2.336246E-3	-1.088739E-3	5.628100E-4	-3.439731E-3	-7.620989E-3	-1.862343E-3	-4.314599E-3	-1.864991E-3	-1.139394E-3	-3.082316E-3	1.505500E-3	-6.927563E-3	-3.408601E-3
5.320120E+2	6.413956E-3	5.006596E-3	-4.334589E-4	2.998476E-3	-1.568321E-4	2.328999E-3	4.358368E-3	-1.830507E-3	1.934951E-3	1.294357E-2	4.650257E-3	6.463857E-3	1.298576E-3	8.191818E-3	-3.884309E-3	4.728883E-3	-9.786626E-4	-6.457321E-4	2.832741E-3	9.611723E-4	2.519747E-3	5.442176E-3	3.522816E-3	9.276352E-3	-3.738896E-3	5.132969E-3	5.578007E-3	-5.626543E-4	5.891717E-3	4.760086E-3	-2.897527E-3	-1.600689E-3	2.854601E-3	1.857346E-2	1.610595E-2	-3.069979E-3	9.747333E-3	5.016076E-3	2.157447E-3	1.149584E-2	2.356520E-3	1.951998E-4	1.532499E-2	8.470950E-3	2.536274E-3	5.702889E-3	6.520083E-3	1.073360E-2	-5.883427E-3	-2.270452E-3	1.341230E-2	4.167472E-3	5.049633E-3	1.676276E-3	-3.828989E-3	2.584236E-3	5.339300E-3	5.566854E-4	-4.527849E-3	-3.142837E-4	2.609476E-3	-7.260663E-4	-2.695925E-3	-5.771956E-3	-1.800317E-3	-3.672742E-3	4.561852E-3	1.747775E-3	-5.183242E-3	7.551512E-4	3.002423E-3	-1.599705E-3	-1.481593E-3	-1.543573E-3	5.039563E-4	4.638319E-3	2.053248E-3	4.651354E-3	4.307626E-4	5.004226E-4	3.118649E-3	7.948425E-3	-8.483356E-4	1.195802E-2	6.247249E-4	-2.680718E-3	1.099358E-2	5.995209E-3	-2.882164E-3	-6.144434E-3	-7.081615E-3	4.495457E-3	3.091758E-3	-6.436427E-4	5.547411E-3	6.414222E-3	-6.301360E-3	3.706403E-3	4.688451E-4	-1.969503E-4	4.311990E-3	7.509073E-3	-1.834963E-3	2.373015E-3	-2.236428E-3	5.533249E-3	1.603920E-3	3.595973E-3	1.437657E-3	9.212198E-4	-7.001828E-4	1.474490E-2	8.152923E-3	4.914023E-3	7.163659E-3	-4.799436E-3	-1.046231E-3	-1.623541E-3	-1.640588E-3	1.270250E-2	1.888503E-3	6.520125E-3	2.709797E-3	-1.558042E-3	9.840914E-4	-2.561089E-3	1.109911E-2	6.067176E-3	6.655752E-3	5.163667E-3	6.624077E-3	7.033447E-3	1.060727E-2	4.004075E-3	6.335988E-3	5.573656E-3	4.297999E-3	1.839293E-4	-4.383643E-3	-1.854136E-3	8.138425E-3	1.915560E-2	2.623544E-3	-7.984561E-3	4.532117E-3	5.210484E-3	-6.713236E-3	-3.930988E-3	7.554601E-3	3.446449E-3	-8.171704E-3	6.969835E-3	5.616433E-3	4.390410E-3	5.215545E-3	3.560891E-3	4.279191E-4	-2.898900E-3	5.914377E-3	8.452016E-3	2.736971E-3	5.877972E-3	1.512827E-2	3.647504E-3	8.708756E-4	2.549673E-3	-1.991565E-4	3.465225E-3	2.086882E-3	1.475902E-2	7.678247E-4
5.325120E+2	1.383244E-2	-1.052126E-3	1.266434E-2	1.837183E-2	4.927182E-3	1.984126E-2	1.982148E-2	9.326556E-3	1.000682E-3	2.437211E-3	1.099778E-2	-3.193032E-3	1.258701E-2	3.288614E-3	1.834818E-2	1.101083E-2	1.053822E-2	1.414470E-3	1.685213E-2	3.226160E-3	1.113182E-2	1.621924E-2	7.790219E-3	4.983415E-3	-1.727958E-3	1.395135E-2	1.505657E-2	1.421292E-2	8.840728E-3	3.195880E-3	1.534226E-2	1.819750E-2	1.364160E-2	-3.025675E-3	6.417026E-3	1.158613E-2	1.114591E-2	1.050121E-2	1.432946E-2	2.027071E-2	1.152741E-2	1.316653E-2	9.801599E-3	4.583457E-3	1.729080E-2	9.969573E-3	2.159224E-2	1.560218E-2	3.409932E-3	5.349964E-3	-5.492081E-4	7.073634E-3	-3.706504E-3	9.277919E-3	1.504764E-2	3.850123E-3	8.196034E-3	1.294648E-2	1.556285E-2	1.405082E-2	1.890062E-2	1.029167E-2	1.043300E-2	8.745106E-3	1.537103E-2	1.635828E-2	6.349906E-3	1.583427E-2	2.382374E-2	6.988635E-3	6.346400E-3	2.886945E-3	1.074371E-2	1.579957E-2	7.747376E-3	1.403894E-2	2.031195E-2	1.273186E-2	2.449314E-2	7.650092E-3	3.110845E-3	1.018835E-2	1.163450E-2	8.180165E-3	4.116829E-3	6.449368E-3	8.271302E-3	1.510654E-2	1.158994E-2	2.128287E-2	1.319817E-2	7.918049E-3	1.412993E-2	6.021272E-3	2.060920E-2	2.947341E-3	1.290311E-2	9.601641E-3	1.205153E-2	1.009532E-2	1.517641E-2	1.148600E-2	2.468821E-2	5.136365E-3	7.552361E-3	9.670037E-3	1.837851E-2	6.237220E-3	1.196759E-2	1.867186E-2	8.879936E-3	8.858146E-3	2.795932E-3	9.188482E-3	3.919286E-3	1.490749E-2	1.518879E-2	4.152290E-3	1.882145E-2	1.556093E-3	5.282050E-3	5.284588E-3	1.346747E-2	1.406212E-2	4.249747E-3	1.612119E-2	1.118941E-2	1.016140E-2	6.695226E-3	1.961084E-3	8.485314E-3	1.168063E-2	5.141042E-3	6.868394E-3	1.331127E-2	7.966402E-3	7.074060E-3	1.704002E-2	1.598193E-2	7.011557E-3	7.895211E-3	4.503716E-3	8.538872E-3	1.394307E-2	1.159414E-2	9.653637E-3	1.421161E-2	8.914607E-3	1.220689E-2	1.119422E-2	1.391908E-2	4.653996E-3	2.195154E-2	1.344540E-2	1.100041E-2	8.572102E-3	8.967065E-3	7.036508E-3	9.456327E-3	6.100880E-3	8.691256E-3	1.551288E-2	2.135459E-2	1.639194E-2	1.290389E-2	1.358464E-2	1.367893E-2	1.404254E-2	6.369792E-3	1.872681E-2	1.886669E-3
5.330280E+2	2.594630E-2	1.713219E-2	1.977778E-2	2.938000E-2	1.382312E-2	1.142562E-2	1.297885E-2	2.074089E-2	1.733204E-2	1.742665E-2	2.176465E-2	3.263893E-2	3.557675E-2	2.018558E-2	2.035976E-2	2.144486E-2	1.080368E-2	1.803759E-2	2.504063E-2	3.333249E-2	2.463762E-2	2.099663E-2	2.801798E-2	2.229247E-2	1.730218E-2	1.767742E-2	1.424746E-2	1.570894E-2	1.454825E-2	3.005691E-2	2.252629E-2	1.847967E-2	1.992780E-2	1.461216E-2	2.885321E-2	3.059696E-2	1.360504E-2	2.129819E-2	1.093476E-2	1.538450E-2	1.396438E-2	2.489853E-2	2.311015E-2	1.638951E-2	1.486309E-2	1.859344E-2	1.566628E-2	2.438192E-2	3.340207E-2	2.219671E-2	3.345170E-2	1.317833E-2	2.124390E-2	1.648307E-2	2.290682E-2	1.646382E-2	1.889663E-2	2.303708E-2	1.284344E-2	1.723801E-2	2.057329E-2	1.840275E-2	2.207770E-2	2.931028E-2	3.222068E-2	1.150646E-2	2.549853E-2	3.128314E-2	3.303290E-2	2.183334E-2	2.376232E-2	3.090328E-2	3.610182E-2	1.304180E-2	2.209353E-3	2.709902E-2	2.645831E-2	1.751104E-2	2.157870E-2	1.822803E-2	1.619054E-2	8.652946E-3	8.124421E-3	1.362473E-2	1.987424E-2	2.798145E-2	3.040204E-2	2.565102E-2	1.883574E-2	1.698526E-2	2.288786E-2	1.900947E-2	3.571978E-2	2.570903E-2	2.197520E-2	2.447310E-2	3.032024E-2	1.787771E-2	3.479498E-2	3.254717E-2	2.408550E-2	2.669584E-2	2.575223E-2	1.868394E-2	2.707466E-2	2.155252E-2	2.559692E-2	2.064495E-2	3.452912E-2	3.458408E-2	2.416188E-2	2.553450E-2	2.482429E-2	3.201690E-2	2.875374E-2	2.786541E-2	1.441515E-2	3.825901E-2	3.137440E-2	2.314217E-2	3.468918E-2	1.873843E-2	1.568013E-2	3.171391E-2	2.882392E-2	3.816357E-2	2.572676E-2	2.534677E-2	2.316762E-2	3.726909E-2	2.621521E-2	2.018425E-2	2.852319E-2	1.311096E-2	2.376337E-2	2.948481E-2	3.030608E-2	2.279512E-2	3.144580E-2	7.980953E-3	1.570922E-2	2.230136E-2	1.836140E-2	2.406898E-2	2.610841E-2	3.354133E-2	1.397861E-2	2.819570E-2	1.649554E-2	2.210601E-2	2.371998E-2	3.798715E-2	2.561703E-2	2.830575E-2	1.757991E-2	3.260334E-2	1.671595E-2	2.315314E-2	2.749386E-2	1.785451E-2	2.766506E-2	2.070494E-2	3.540598E-2	2.828254E-2	3.143986E-2	3.461666E-2	2.498332E-2	1.815950E-2	3.527576E-2	1.845586E-2	1.247393E-2
5.331580E+2	3.217876E-2	3.689400E-2	3.610114E-2	2.038681E-2	3.097995E-2	1.842313E-2	2.068587E-2	1.978194E-2	2.927436E-2	2.856883E-2	2.064714E-2	2.410963E-2	2.590059E-2	3.128074E-2	2.784540E-2	2.599418E-2	2.524646E-2	3.595074E-2	2.958572E-2	3.223953E-2	4.163666E-2	2.759673E-2	3.488950E-2	3.085865E-2	2.581606E-2	2.270701E-2	2.130751E-2	2.875609E-2	2.598252E-2	3.217536E-2	2.257503E-2	3.139800E-2	2.414574E-2	3.082402E-2	3.839615E-2	3.858014E-2	2.727482E-2	3.849727E-2	3.619863E-2	3.907199E-2	4.237550E-2	1.453911E-2	3.435245E-2	3.992685E-2	3.001279E-2	1.718093E-2	2.982247E-2	2.795716E-2	1.476786E-2	2.621770E-2	2.722559E-2	3.108729E-2	2.759268E-2	2.503837E-2	3.215011E-2	2.218150E-2	3.668397E-2	1.814442E-2	1.957895E-2	2.359629E-2	2.888461E-2	2.757246E-2	4.901266E-2	3.976441E-2	3.176184E-2	3.327048E-2	3.159307E-2	3.582498E-2	4.258978E-2	2.397325E-2	4.477499E-2	3.974289E-2	3.226043E-2	2.387515E-2	2.793414E-2	2.541219E-2	2.224418E-2	3.260816E-2	3.056736E-2	3.605021E-2	3.767370E-2	2.987930E-2	3.629404E-2	3.132653E-2	3.174935E-2	3.808048E-2	3.502768E-2	2.278283E-2	2.745142E-2	2.485567E-2	3.741581E-2	3.898001E-2	3.512823E-2	1.957033E-2	4.973870E-2	2.868548E-2	3.437850E-2	2.938659E-2	3.838185E-2	3.997290E-2	2.586617E-2	3.231255E-2	3.438580E-2	3.305580E-2	3.137278E-2	3.278075E-2	2.467495E-2	3.826410E-2	4.135686E-2	3.975443E-2	3.538406E-2	2.912674E-2	4.102396E-2	2.180412E-2	2.950128E-2	2.396278E-2	3.693232E-2	4.012806E-2	3.148264E-2	4.175306E-2	2.975332E-2	4.394395E-2	2.796403E-2	3.514301E-2	2.264193E-2	3.169767E-2	3.105218E-2	2.320219E-2	3.947452E-2	3.478453E-2	4.148904E-2	3.709491E-2	2.496894E-2	2.112900E-2	3.062323E-2	2.957197E-2	2.930930E-2	2.764477E-2	5.066243E-2	3.015575E-2	4.394217E-2	2.541042E-2	2.126624E-2	2.421265E-2	4.103556E-2	2.707236E-2	3.421880E-2	3.182804E-2	3.638534E-2	2.280722E-2	2.650484E-2	2.288816E-2	3.299682E-2	3.408859E-2	2.963308E-2	2.994662E-2	3.061609E-2	3.106690E-2	2.367397E-2	3.043224E-2	2.954945E-2	3.448300E-2	2.706640E-2	3.586932E-2	3.636097E-2	3.025127E-2	3.245622E-2	3.629837E-2	3.233998E-2	2.717263E-2	3.844883E-2
5.333130E+2	4.672763E-2	2.873039E-2	3.757814E-2	3.779720E-2	3.311286E-2	3.220051E-2	4.800081E-2	4.354467E-2	4.059587E-2	5.595364E-2	2.681792E-2	3.599829E-2	4.216333E-2	3.224972E-2	4.606077E-2	3.543388E-2	4.459519E-2	3.382535E-2	3.731853E-2	5.164825E-2	2.615666E-2	4.216472E-2	5.692976E-2	4.837460E-2	4.434372E-2	3.807558E-2	2.331221E-2	3.569704E-2	4.110295E-2	2.645763E-2	5.452765E-2	5.605054E-2	3.471965E-2	3.739800E-2	3.618660E-2	4.187064E-2	3.426315E-2	4.119013E-2	4.349222E-2	2.418529E-2	4.444915E-2	4.210669E-2	4.956524E-2	3.922730E-2	1.688907E-2	3.880729E-2	3.645976E-2	3.896263E-2	4.381651E-2	4.315294E-2	4.882289E-2	3.438640E-2	4.853339E-2	4.357729E-2	3.581228E-2	3.549835E-2	4.552827E-2	3.893623E-2	3.339795E-2	4.360214E-2	4.003027E-2	3.410050E-2	4.822964E-2	3.706931E-2	3.633650E-2	3.320221E-2	4.536079E-2	4.246118E-2	4.864942E-2	4.263878E-2	3.969203E-2	3.384269E-2	5.448404E-2	3.871553E-2	3.973107E-2	4.151173E-2	4.458484E-2	3.548490E-2	3.607536E-2	3.793768E-2	3.413061E-2	4.182653E-2	3.493006E-2	4.765620E-2	5.710607E-2	3.943004E-2	4.407219E-2	3.437051E-2	4.288980E-2	3.310835E-2	4.025775E-2	3.346637E-2	3.844563E-2	3.434267E-2	3.107200E-2	4.527359E-2	5.184836E-2	2.685296E-2	3.002199E-2	4.903656E-2	4.097373E-2	2.891246E-2	5.258854E-2	3.300221E-2	4.171307E-2	2.786035E-2	3.352523E-2	4.274303E-2	4.603231E-2	4.429744E-2	4.867556E-2	5.707360E-2	4.710514E-2	3.980571E-2	4.307139E-2	3.571344E-2	4.249814E-2	4.062714E-2	4.375080E-2	2.913276E-2	4.761098E-2	3.061444E-2	3.381142E-2	5.157708E-2	4.322578E-2	4.201630E-2	3.503878E-2	4.774460E-2	4.834771E-2	4.382396E-2	4.500732E-2	4.230978E-2	3.648693E-2	4.353574E-2	2.148704E-2	3.002828E-2	4.288988E-2	3.490123E-2	4.831896E-2	4.742164E-2	4.146705E-2	4.025726E-2	5.065222E-2	2.468830E-2	5.225783E-2	5.569847E-2	4.054239E-2	3.642888E-2	4.540577E-2	3.918210E-2	4.341319E-2	5.392434E-2	5.032526E-2	3.957304E-2	3.901219E-2	4.374818E-2	4.501674E-2	3.586556E-2	3.519310E-2	3.044252E-2	4.582764E-2	4.335682E-2	4.707667E-2	4.738344E-2	4.053323E-2	4.803383E-2	2.509463E-2	4.179925E-2	5.906503E-2	3.489782E-2	4.355706E-2
5.334630E+2	5.455074E-2	3.885665E-2	5.771593E-2	4.330328E-2	3.223080E-2	5.016526E-2	5.850286E-2	5.942503E-2	3.997184E-2	6.234279E-2	5.581219E-2	5.316285E-2	4.970388E-2	6.055911E-2	6.332226E-2	2.546489E-2	4.758708E-2	5.126371E-2	7.650193E-2	3.933545E-2	5.276878E-2	5.742396E-2	5.591679E-2	5.395233E-2	6.303569E-2	5.061837E-2	5.037759E-2	5.339545E-2	5.197770E-2	4.961228E-2	4.858051E-2	5.926209E-2	5.377501E-2	5.415088E-2	4.829957E-2	4.568900E-2	3.408387E-2	5.285906E-2	5.350948E-2	4.708608E-2	4.214683E-2	5.098667E-2	5.891601E-2	6.512825E-2	3.622435E-2	4.823766E-2	4.593633E-2	3.836571E-2	6.430845E-2	5.504629E-2	3.653213E-2	4.344570E-2	5.542620E-2	5.641475E-2	6.247584E-2	3.487033E-2	5.818497E-2	6.385000E-2	3.674318E-2	5.914280E-2	4.739950E-2	4.735257E-2	4.984827E-2	5.431148E-2	4.933283E-2	4.947129E-2	5.429460E-2	5.196895E-2	5.133623E-2	4.992926E-2	5.010850E-2	5.201601E-2	5.270929E-2	4.906420E-2	5.035812E-2	4.188341E-2	4.338367E-2	6.053477E-2	5.071058E-2	5.418873E-2	3.493838E-2	4.864553E-2	4.593051E-2	5.427274E-2	5.632253E-2	5.416434E-2	5.596597E-2	4.514016E-2	5.133092E-2	5.044084E-2	5.832782E-2	5.515111E-2	4.523489E-2	6.386567E-2	5.345071E-2	5.050154E-2	4.817942E-2	5.130074E-2	5.681517E-2	5.547816E-2	5.458047E-2	4.756033E-2	5.367612E-2	6.073220E-2	6.683452E-2	5.401041E-2	4.862886E-2	5.453849E-2	5.279563E-2	5.803624E-2	5.833667E-2	6.823182E-2	6.389722E-2	5.911424E-2	5.329420E-2	4.070013E-2	6.514078E-2	4.688201E-2	5.045096E-2	5.105712E-2	5.432116E-2	4.827826E-2	3.836397E-2	6.674716E-2	4.639398E-2	4.200034E-2	5.989544E-2	6.329776E-2	5.500762E-2	4.884221E-2	4.541766E-2	5.424432E-2	5.450464E-2	5.177025E-2	4.744614E-2	5.075141E-2	5.825650E-2	7.478498E-2	5.427893E-2	4.724770E-2	6.131442E-2	5.173875E-2	5.292462E-2	4.503868E-2	4.730323E-2	6.202951E-2	3.976847E-2	5.113918E-2	4.412379E-2	5.871542E-2	6.479993E-2	5.242627E-2	6.729088E-2	6.359621E-2	6.428646E-2	6.490139E-2	6.005209E-2	4.505764E-2	4.606209E-2	5.301213E-2	6.330273E-2	6.077194E-2	5.028165E-2	6.658719E-2	6.423995E-2	6.139002E-2	4.517912E-2	4.975836E-2	5.559034E-2	5.366054E-2	5.576951E-2
5.336080E+2	8.989286E-2	5.786724E-2	8.490283E-2	6.746444E-2	7.915919E-2	7.083870E-2	7.465960E-2	6.617073E-2	6.783092E-2	7.376350E-2	7.593435E-2	5.917919E-2	7.652112E-2	7.681979E-2	6.011349E-2	5.992019E-2	8.021888E-2	5.758359E-2	8.467628E-2	7.023070E-2	5.186591E-2	5.955467E-2	7.305464E-2	8.031694E-2	7.121371E-2	6.127357E-2	5.818800E-2	5.783573E-2	5.706489E-2	5.698007E-2	7.139042E-2	7.888227E-2	7.984807E-2	7.287273E-2	5.768938E-2	6.938426E-2	6.347766E-2	6.474892E-2	7.333490E-2	7.333559E-2	6.021860E-2	6.167718E-2	5.860358E-2	5.722412E-2	6.803409E-2	5.186574E-2	6.786555E-2	6.341197E-2	6.110975E-2	7.822040E-2	6.684745E-2	6.757979E-2	6.613384E-2	6.567536E-2	6.701520E-2	6.050676E-2	7.141327E-2	7.778592E-2	6.229101E-2	8.305129E-2	7.585437E-2	6.484200E-2	9.178891E-2	6.181969E-2	7.199533E-2	5.218746E-2	6.011196E-2	7.201028E-2	7.072911E-2	6.165625E-2	6.703076E-2	7.813715E-2	6.809000E-2	4.456425E-2	4.766909E-2	7.545184E-2	6.998256E-2	5.717317E-2	5.322657E-2	5.490549E-2	7.345121E-2	7.122440E-2	6.655898E-2	7.225385E-2	6.849362E-2	6.234537E-2	7.864319E-2	7.194128E-2	6.227491E-2	6.585885E-2	5.192806E-2	8.142277E-2	7.740250E-2	7.786631E-2	7.276936E-2	6.061349E-2	5.242995E-2	8.372631E-2	7.816632E-2	7.416300E-2	6.458370E-2	6.989738E-2	5.275893E-2	7.963552E-2	7.366508E-2	7.373689E-2	7.769353E-2	6.916484E-2	6.805540E-2	6.879506E-2	8.373316E-2	5.316160E-2	8.416697E-2	7.296862E-2	7.011095E-2	6.184256E-2	6.529761E-2	7.820096E-2	7.383506E-2	6.446417E-2	7.086435E-2	8.466342E-2	6.648239E-2	7.109354E-2	7.376436E-2	7.634593E-2	7.324640E-2	7.441323E-2	7.097189E-2	7.383020E-2	6.510014E-2	7.774626E-2	8.693382E-2	6.689010E-2	5.111337E-2	5.717820E-2	8.208814E-2	7.802143E-2	6.746170E-2	6.983274E-2	9.227558E-2	6.900414E-2	7.847378E-2	5.796542E-2	7.744650E-2	8.391326E-2	8.558414E-2	7.767873E-2	7.521938E-2	8.188773E-2	7.181726E-2	7.690437E-2	6.631044E-2	9.612109E-2	9.374116E-2	7.673057E-2	8.055760E-2	7.128749E-2	6.090771E-2	6.158634E-2	9.079778E-2	6.149590E-2	7.087848E-2	7.491343E-2	8.646074E-2	6.301065E-2	6.234578E-2	6.833712E-2	6.940078E-2	7.161352E-2	8.547321E-2
5.337630E+2	8.833890E-2	7.822675E-2	9.681528E-2	9.438839E-2	1.041161E-1	8.201103E-2	1.047395E-1	9.246259E-2	1.046804E-1	1.033768E-1	9.710907E-2	1.020883E-1	1.088963E-1	9.598208E-2	1.001321E-1	1.009820E-1	9.809564E-2	1.052516E-1	9.618952E-2	9.518174E-2	9.265004E-2	9.384605E-2	8.808043E-2	1.135923E-1	1.062689E-1	1.002446E-1	8.994902E-2	9.370612E-2	8.513621E-2	8.247340E-2	9.153056E-2	1.078391E-1	7.805013E-2	9.667226E-2	8.980617E-2	9.926295E-2	8.728934E-2	9.117963E-2	1.044304E-1	9.857920E-2	9.118678E-2	1.008936E-1	1.212913E-1	9.665918E-2	9.330069E-2	8.136149E-2	9.714887E-2	9.769001E-2	9.787869E-2	1.128708E-1	1.022916E-1	1.108318E-1	1.183939E-1	1.056724E-1	9.565166E-2	1.097146E-1	1.107767E-1	1.013602E-1	9.555189E-2	1.129268E-1	9.533293E-2	9.065606E-2	1.230883E-1	9.245519E-2	1.073811E-1	1.116907E-1	8.466199E-2	9.770205E-2	9.967835E-2	7.646231E-2	1.023801E-1	9.967791E-2	1.229383E-1	6.951776E-2	1.001904E-1	1.001971E-1	9.712657E-2	9.817117E-2	1.218386E-1	9.150027E-2	1.021137E-1	9.601234E-2	9.570374E-2	1.201237E-1	9.182761E-2	1.062716E-1	9.441308E-2	1.104462E-1	8.999621E-2	9.987900E-2	8.353701E-2	9.197264E-2	9.902361E-2	9.104295E-2	8.391291E-2	1.128159E-1	9.600901E-2	1.105353E-1	1.114645E-1	9.405618E-2	9.979106E-2	1.179171E-1	1.122942E-1	9.544847E-2	1.001480E-1	9.742387E-2	8.458010E-2	1.105493E-1	9.905266E-2	9.850644E-2	8.128182E-2	1.068292E-1	1.046139E-1	1.022725E-1	1.001160E-1	8.985274E-2	1.126000E-1	1.136081E-1	8.903285E-2	1.005043E-1	9.866812E-2	1.145449E-1	9.676834E-2	1.254011E-1	9.591302E-2	1.000180E-1	1.001973E-1	9.478980E-2	1.026585E-1	9.697566E-2	1.100659E-1	1.042916E-1	1.069565E-1	1.119722E-1	7.843723E-2	9.964627E-2	1.110546E-1	1.058304E-1	8.833327E-2	8.858458E-2	1.008097E-1	1.047543E-1	1.069829E-1	1.102966E-1	1.044688E-1	1.002067E-1	1.129883E-1	9.450024E-2	1.114738E-1	8.550550E-2	1.089864E-1	9.259789E-2	1.004246E-1	1.087602E-1	1.148293E-1	9.981416E-2	1.185574E-1	9.001647E-2	8.717804E-2	9.022580E-2	8.966213E-2	1.036997E-1	1.077714E-1	1.072263E-1	1.105262E-1	1.005730E-1	9.342942E-2	1.144472E-1	1.018348E-1	1.030753E-1	9.997234E-2
5.339140E+2	1.607907E-1	1.544051E-1	1.629926E-1	1.474603E-1	1.589430E-1	1.612906E-1	1.484503E-1	1.567357E-1	1.693167E-1	1.630381E-1	1.600220E-1	1.679418E-1	1.586773E-1	1.666394E-1	1.698769E-1	1.747673E-1	1.470257E-1	1.467236E-1	1.579876E-1	1.415980E-1	1.403284E-1	1.336057E-1	1.609443E-1	1.507320E-1	1.451897E-1	1.497442E-1	1.406493E-1	1.594911E-1	1.439407E-1	1.599898E-1	1.449873E-1	1.616729E-1	1.613794E-1	1.439612E-1	1.362036E-1	1.559877E-1	1.513395E-1	1.528535E-1	1.443116E-1	1.538464E-1	1.393609E-1	1.522087E-1	1.563398E-1	1.446776E-1	1.661963E-1	1.413634E-1	1.629786E-1	1.713539E-1	1.411528E-1	1.826937E-1	1.583567E-1	1.515028E-1	1.491990E-1	1.688707E-1	1.671029E-1	1.394305E-1	1.424842E-1	1.649740E-1	1.614766E-1	1.582692E-1	1.575878E-1	1.570524E-1	1.474250E-1	1.653712E-1	1.563270E-1	1.641290E-1	1.718414E-1	1.677785E-1	1.642838E-1	1.509132E-1	1.707474E-1	1.502430E-1	1.493387E-1	1.429930E-1	1.563671E-1	1.629922E-1	1.419299E-1	1.629440E-1	1.480365E-1	1.427673E-1	1.599601E-1	1.653283E-1	1.717188E-1	1.349932E-1	1.480271E-1	1.594033E-1	1.535905E-1	1.630112E-1	1.530024E-1	1.370898E-1	1.525350E-1	1.642675E-1	1.630443E-1	1.654903E-1	1.586134E-1	1.615999E-1	1.510989E-1	1.562924E-1	1.458082E-1	1.527770E-1	1.486580E-1	1.859934E-1	1.502880E-1	1.472794E-1	1.547246E-1	1.404090E-1	1.607254E-1	1.635199E-1	1.635382E-1	1.674839E-1	1.550308E-1	1.497427E-1	1.597317E-1	1.381254E-1	1.390239E-1	1.688157E-1	1.718445E-1	1.569966E-1	1.617904E-1	1.519033E-1	1.403679E-1	1.615223E-1	1.578314E-1	1.653058E-1	1.457184E-1	1.499343E-1	1.629614E-1	1.561733E-1	1.602384E-1	1.639635E-1	1.591203E-1	1.592247E-1	1.452811E-1	1.591548E-1	1.445488E-1	1.453689E-1	1.569275E-1	1.534191E-1	1.683367E-1	1.769983E-1	1.632178E-1	1.455402E-1	1.503113E-1	1.368167E-1	1.643182E-1	1.617843E-1	1.457798E-1	1.615469E-1	1.723330E-1	1.595722E-1	1.675400E-1	1.674940E-1	1.640130E-1	1.565084E-1	1.516890E-1	1.729646E-1	1.677352E-1	1.534026E-1	1.549339E-1	1.485137E-1	1.891390E-1	1.545843E-1	1.591371E-1	1.551471E-1	1.414700E-1	1.472593E-1	1.505880E-1	1.514403E-1	1.722889E-1	1.482925E-1	1.766181E-1
5.340800E+2	2.744591E-1	2.810115E-1	2.520398E-1	2.355922E-1	2.753491E-1	2.369538E-1	2.495734E-1	2.715529E-1	2.764779E-1	2.822885E-1	2.777822E-1	2.453521E-1	2.595397E-1	2.592222E-1	2.643022E-1	2.640914E-1	2.674512E-1	2.560057E-1	2.734907E-1	2.929056E-1	2.696132E-1	2.484483E-1	2.526898E-1	2.762996E-1	2.549620E-1	2.716930E-1	2.740667E-1	2.777576E-1	2.893052E-1	2.705398E-1	2.517283E-1	2.631087E-1	2.779185E-1	2.729841E-1	2.504087E-1	2.702701E-1	2.570788E-1	2.625860E-1	2.780730E-1	2.687629E-1	2.596706E-1	2.839026E-1	2.524031E-1	2.722419E-1	2.776675E-1	2.471971E-1	2.941692E-1	2.783013E-1	2.659564E-1	2.827882E-1	2.515131E-1	2.857933E-1	2.740759E-1	2.645055E-1	2.678638E-1	2.489574E-1	2.656839E-1	2.801203E-1	2.551988E-1	2.968925E-1	2.821690E-1	2.709482E-1	2.663063E-1	2.828705E-1	2.824827E-1	2.709986E-1	2.832059E-1	2.676004E-1	2.721666E-1	2.806431E-1	2.676988E-1	2.554636E-1	2.768061E-1	2.721278E-1	2.656131E-1	2.565090E-1	2.597341E-1	2.806101E-1	2.984318E-1	2.864422E-1	2.937258E-1	2.610493E-1	2.566477E-1	2.697615E-1	2.603863E-1	2.673600E-1	2.694839E-1	2.632593E-1	2.744366E-1	2.677981E-1	2.820994E-1	2.685041E-1	2.751878E-1	2.691596E-1	2.549210E-1	2.708021E-1	2.667239E-1	2.798123E-1	2.706282E-1	2.827611E-1	2.957227E-1	2.593776E-1	2.700372E-1	2.655756E-1	2.588000E-1	2.891536E-1	2.758470E-1	2.933236E-1	2.721833E-1	2.681117E-1	2.612022E-1	2.634854E-1	2.737234E-1	2.605598E-1	2.799981E-1	2.932352E-1	2.653446E-1	2.874911E-1	2.590409E-1	3.057930E-1	2.792010E-1	2.499867E-1	2.579480E-1	2.674502E-1	2.645432E-1	2.750349E-1	2.794316E-1	2.584559E-1	2.815373E-1	2.670283E-1	2.883903E-1	3.038114E-1	2.752813E-1	2.402808E-1	2.590080E-1	2.583705E-1	2.935633E-1	2.662143E-1	2.850365E-1	2.855139E-1	2.763409E-1	2.530392E-1	2.759660E-1	2.847786E-1	2.973100E-1	2.708618E-1	2.935575E-1	2.691418E-1	2.636844E-1	2.691868E-1	2.831562E-1	2.483650E-1	2.842031E-1	2.745040E-1	2.845770E-1	2.816034E-1	2.617381E-1	2.778630E-1	2.793291E-1	2.843425E-1	2.842997E-1	2.870922E-1	2.794932E-1	2.698585E-1	2.795835E-1	2.914665E-1	2.645894E-1	2.677445E-1	2.933369E-1	2.665823E-1	2.319552E-1
5.342090E+2	4.780255E-1	4.642336E-1	4.359463E-1	4.428733E-1	4.532391E-1	4.396940E-1	4.717985E-1	4.575356E-1	4.547411E-1	4.442064E-1	4.406998E-1	4.580712E-1	4.623834E-1	4.689233E-1	4.498859E-1	4.625924E-1	4.601012E-1	4.406043E-1	4.708879E-1	4.691683E-1	4.738015E-1	4.335494E-1	4.759419E-1	4.563485E-1	4.691411E-1	4.711417E-1	4.420946E-1	4.436982E-1	4.575657E-1	4.288992E-1	4.476523E-1	4.584237E-1	4.501345E-1	4.637258E-1	4.416390E-1	4.454891E-1	4.639257E-1	4.529101E-1	4.567058E-1	4.749914E-1	4.415554E-1	4.952699E-1	4.308050E-1	4.413243E-1	4.099200E-1	4.416124E-1	4.398603E-1	4.743941E-1	4.503045E-1	4.399622E-1	4.477418E-1	4.129582E-1	4.373587E-1	4.427012E-1	4.585997E-1	4.642486E-1	4.590946E-1	4.428719E-1	4.448733E-1	4.658179E-1	4.450545E-1	4.383531E-1	4.615083E-1	4.223393E-1	4.902613E-1	4.337581E-1	4.613655E-1	4.637828E-1	4.525979E-1	4.807716E-1	4.372360E-1	4.723517E-1	4.799046E-1	4.563963E-1	4.588720E-1	4.427613E-1	4.338740E-1	4.625953E-1	4.639868E-1	4.631240E-1	4.694070E-1	4.453098E-1	4.427389E-1	4.308819E-1	4.589965E-1	4.985625E-1	4.421129E-1	4.652261E-1	4.288487E-1	4.230935E-1	4.539735E-1	4.495166E-1	4.508548E-1	4.520618E-1	4.363327E-1	4.849402E-1	4.455295E-1	4.512750E-1	4.431469E-1	4.976691E-1	4.343290E-1	4.621173E-1	4.452416E-1	4.709945E-1	4.505729E-1	4.496123E-1	4.508473E-1	4.852818E-1	4.843513E-1	4.516429E-1	4.502280E-1	4.353001E-1	4.537360E-1	4.864909E-1	4.350869E-1	4.883197E-1	4.457861E-1	4.543982E-1	4.638143E-1	4.554954E-1	4.469744E-1	4.329079E-1	4.524620E-1	4.951964E-1	4.349292E-1	4.777153E-1	4.673757E-1	4.282512E-1	4.691221E-1	4.426206E-1	4.669793E-1	4.783207E-1	4.244216E-1	4.299002E-1	4.832782E-1	4.524136E-1	4.473120E-1	4.490412E-1	4.660265E-1	4.370425E-1	4.734785E-1	4.340752E-1	4.909707E-1	4.739367E-1	4.571933E-1	4.644968E-1	4.241460E-1	4.593765E-1	4.485359E-1	4.503708E-1	4.531780E-1	4.643883E-1	4.899367E-1	4.977491E-1	4.399203E-1	4.438410E-1	4.893343E-1	4.710995E-1	4.766437E-1	4.561070E-1	4.536770E-1	4.426393E-1	4.661452E-1	4.529315E-1	4.472065E-1	4.303244E-1	4.451258E-1	4.705073E-1	4.692426E-1	4.624609E-1	4.779057E-1
5.343550E+2	7.942771E-1	7.312078E-1	7.531804E-1	7.593202E-1	8.060067E-1	7.398812E-1	7.908504E-1	7.972397E-1	7.857166E-1	7.878002E-1	7.767098E-1	7.825045E-1	7.594582E-1	7.640571E-1	8.012131E-1	7.882370E-1	7.553812E-1	7.532251E-1	8.088994E-1	7.572855E-1	7.647072E-1	7.649519E-1	7.448923E-1	7.987880E-1	7.869272E-1	7.489738E-1	7.194447E-1	8.405099E-1	7.817903E-1	7.742407E-1	7.523197E-1	7.760695E-1	8.206428E-1	7.550619E-1	7.438371E-1	7.792873E-1	8.160868E-1	7.373654E-1	8.304859E-1	7.518931E-1	7.761169E-1	7.782137E-1	7.828441E-1	7.838573E-1	7.992827E-1	8.192444E-1	7.907397E-1	7.922406E-1	7.359301E-1	7.983668E-1	7.368794E-1	7.778117E-1	7.690364E-1	8.099772E-1	7.776695E-1	8.010195E-1	8.082229E-1	7.585804E-1	7.893263E-1	8.159081E-1	7.657022E-1	7.745310E-1	7.790564E-1	7.647800E-1	8.313672E-1	7.931930E-1	7.657275E-1	7.287391E-1	7.827656E-1	7.935804E-1	7.605666E-1	7.662995E-1	7.923782E-1	7.462304E-1	7.703075E-1	7.529121E-1	7.399043E-1	7.729816E-1	7.623193E-1	8.008832E-1	7.876152E-1	7.911271E-1	7.886820E-1	7.980345E-1	8.246720E-1	7.634822E-1	7.610874E-1	7.947776E-1	7.578244E-1	7.946434E-1	7.739181E-1	7.896599E-1	7.675918E-1	7.443829E-1	8.049251E-1	7.590563E-1	7.786783E-1	7.620814E-1	7.769505E-1	7.666139E-1	7.562897E-1	7.724816E-1	8.448849E-1	8.090623E-1	7.608549E-1	7.721931E-1	7.486171E-1	8.185218E-1	8.086553E-1	7.757828E-1	8.244570E-1	7.651538E-1	7.517850E-1	7.863934E-1	8.200258E-1	7.761211E-1	7.666470E-1	7.536143E-1	7.512527E-1	7.947670E-1	7.763128E-1	7.471745E-1	8.014045E-1	8.386931E-1	7.731855E-1	7.626642E-1	7.810604E-1	7.743334E-1	7.966823E-1	7.666576E-1	7.855750E-1	7.731968E-1	7.878764E-1	7.476914E-1	7.889785E-1	7.692904E-1	7.813543E-1	7.656337E-1	7.965870E-1	7.586660E-1	8.029467E-1	7.224561E-1	7.350490E-1	8.018624E-1	8.066203E-1	7.711707E-1	7.678499E-1	7.910150E-1	7.374604E-1	7.649641E-1	8.001740E-1	8.129407E-1	7.698686E-1	7.566635E-1	7.803777E-1	7.899165E-1	7.754577E-1	7.859148E-1	7.564723E-1	7.755282E-1	7.797355E-1	7.598762E-1	7.528700E-1	7.707147E-1	7.862814E-1	7.669014E-1	7.507576E-1	7.555384E-1	8.217507E-1	7.792471E-1	7.994132E-1
5.345110E+2	1.270794E+0	1.271322E+0	1.138140E+0	1.226657E+0	1.231354E+0	1.219146E+0	1.235415E+0	1.227113E+0	1.207334E+0	1.231423E+0	1.203165E+0	1.264682E+0	1.197705E+0	1.263779E+0	1.224527E+0	1.279855E+0	1.218491E+0	1.218707E+0	1.223491E+0	1.266243E+0	1.243333E+0	1.237549E+0	1.207085E+0	1.227532E+0	1.210613E+0	1.216016E+0	1.228101E+0	1.182662E+0	1.207249E+0	1.248475E+0	1.232886E+0	1.270259E+0	1.187745E+0	1.181625E+0	1.188818E+0	1.231135E+0	1.249585E+0	1.223555E+0	1.203244E+0	1.217767E+0	1.224893E+0	1.189690E+0	1.216700E+0	1.258988E+0	1.174570E+0	1.253690E+0	1.202056E+0	1.204366E+0	1.212432E+0	1.224455E+0	1.204270E+0	1.228296E+0	1.233797E+0	1.219755E+0	1.259000E+0	1.237428E+0	1.258818E+0	1.282610E+0	1.174232E+0	1.211534E+0	1.224009E+0	1.252364E+0	1.192978E+0	1.205537E+0	1.245220E+0	1.225190E+0	1.182724E+0	1.248630E+0	1.202268E+0	1.212935E+0	1.181813E+0	1.206880E+0	1.196838E+0	1.186891E+0	1.225498E+0	1.242522E+0	1.221688E+0	1.206927E+0	1.247249E+0	1.248939E+0	1.214663E+0	1.182932E+0	1.182274E+0	1.202598E+0	1.208114E+0	1.241528E+0	1.212136E+0	1.187789E+0	1.224716E+0	1.224600E+0	1.200609E+0	1.201052E+0	1.224595E+0	1.180318E+0	1.205494E+0	1.225267E+0	1.193496E+0	1.230442E+0	1.244183E+0	1.237960E+0	1.258774E+0	1.210976E+0	1.272529E+0	1.201345E+0	1.210699E+0	1.196921E+0	1.194668E+0	1.236688E+0	1.247242E+0	1.205889E+0	1.216119E+0	1.230197E+0	1.202821E+0	1.196448E+0	1.245574E+0	1.203257E+0	1.243963E+0	1.238367E+0	1.212269E+0	1.194827E+0	1.198868E+0	1.166818E+0	1.196054E+0	1.234392E+0	1.212219E+0	1.219135E+0	1.185953E+0	1.209088E+0	1.230624E+0	1.217352E+0	1.203267E+0	1.210926E+0	1.267103E+0	1.179771E+0	1.255624E+0	1.252680E+0	1.232204E+0	1.207512E+0	1.236229E+0	1.198916E+0	1.258612E+0	1.203040E+0	1.232471E+0	1.203448E+0	1.242156E+0	1.189155E+0	1.200615E+0	1.249940E+0	1.277497E+0	1.195799E+0	1.210929E+0	1.264563E+0	1.213114E+0	1.243713E+0	1.203417E+0	1.230668E+0	1.232851E+0	1.211944E+0	1.239866E+0	1.193913E+0	1.215855E+0	1.178388E+0	1.178203E+0	1.179413E+0	1.280569E+0	1.224778E+0	1.267101E+0	1.232886E+0	1.243787E+0	1.240789E+0	1.267640E+0
5.346620E+2	1.669571E+0	1.688288E+0	1.638806E+0	1.643063E+0	1.663396E+0	1.712324E+0	1.669616E+0	1.683013E+0	1.672043E+0	1.652029E+0	1.657273E+0	1.700817E+0	1.648849E+0	1.642184E+0	1.653673E+0	1.667915E+0	1.643678E+0	1.642481E+0	1.684824E+0	1.668626E+0	1.706734E+0	1.674342E+0	1.680755E+0	1.713584E+0	1.582852E+0	1.672301E+0	1.638115E+0	1.671019E+0	1.731367E+0	1.671319E+0	1.621954E+0	1.715228E+0	1.688059E+0	1.649421E+0	1.644605E+0	1.689894E+0	1.646370E+0	1.658545E+0	1.629995E+0	1.572399E+0	1.603280E+0	1.724180E+0	1.637774E+0	1.702199E+0	1.648883E+0	1.651561E+0	1.629540E+0	1.637938E+0	1.662314E+0	1.662857E+0	1.653334E+0	1.682044E+0	1.605733E+0	1.618221E+0	1.615620E+0	1.690725E+0	1.658222E+0	1.663951E+0	1.640689E+0	1.682878E+0	1.667584E+0	1.663687E+0	1.672743E+0	1.641315E+0	1.702279E+0	1.645796E+0	1.711229E+0	1.640889E+0	1.603516E+0	1.649383E+0	1.700505E+0	1.694805E+0	1.575752E+0	1.652389E+0	1.658603E+0	1.694999E+0	1.654883E+0	1.649294E+0	1.678343E+0	1.700422E+0	1.639020E+0	1.632688E+0	1.639417E+0	1.624774E+0	1.621268E+0	1.566474E+0	1.581947E+0	1.608291E+0	1.605575E+0	1.686013E+0	1.654756E+0	1.640269E+0	1.590381E+0	1.611734E+0	1.685193E+0	1.642008E+0	1.607622E+0	1.633064E+0	1.609885E+0	1.634737E+0	1.635178E+0	1.662809E+0	1.616011E+0	1.621555E+0	1.668853E+0	1.646674E+0	1.636610E+0	1.646927E+0	1.660601E+0	1.606612E+0	1.621325E+0	1.673983E+0	1.650685E+0	1.617280E+0	1.644850E+0	1.678182E+0	1.649614E+0	1.626400E+0	1.660313E+0	1.637410E+0	1.586773E+0	1.570270E+0	1.610907E+0	1.665008E+0	1.595708E+0	1.627283E+0	1.642206E+0	1.621066E+0	1.668747E+0	1.645348E+0	1.644485E+0	1.592447E+0	1.636478E+0	1.644758E+0	1.602886E+0	1.623794E+0	1.700293E+0	1.691669E+0	1.641839E+0	1.577994E+0	1.676052E+0	1.639094E+0	1.608895E+0	1.701732E+0	1.614866E+0	1.680023E+0	1.611139E+0	1.615483E+0	1.624305E+0	1.643178E+0	1.615944E+0	1.608651E+0	1.690197E+0	1.562073E+0	1.668513E+0	1.637529E+0	1.633700E+0	1.591737E+0	1.633350E+0	1.685155E+0	1.662851E+0	1.628961E+0	1.601432E+0	1.611745E+0	1.661834E+0	1.602141E+0	1.589637E+0	1.626130E+0	1.727804E+0	1.560584E+0	1.604381E+0
5.348120E+2	2.042629E+0	2.033400E+0	1.987511E+0	1.988302E+0	2.060819E+0	2.023355E+0	1.996795E+0	1.984155E+0	2.022633E+0	1.969784E+0	2.002889E+0	1.962913E+0	2.050193E+0	1.992183E+0	1.980450E+0	2.064080E+0	2.042622E+0	1.982663E+0	2.023915E+0	2.034000E+0	1.988037E+0	2.008404E+0	1.983694E+0	2.035521E+0	2.003640E+0	2.001648E+0	1.974916E+0	2.053537E+0	2.046187E+0	1.996582E+0	2.008662E+0	1.997249E+0	2.055643E+0	2.012905E+0	1.970768E+0	2.032366E+0	2.053725E+0	1.984342E+0	2.027236E+0	1.931479E+0	1.960384E+0	2.025573E+0	2.009672E+0	1.958389E+0	1.992796E+0	1.981135E+0	1.974952E+0	2.035956E+0	1.927554E+0	2.038384E+0	1.953079E+0	2.040657E+0	2.067230E+0	1.992590E+0	1.957172E+0	2.051992E+0	1.992532E+0	2.059237E+0	1.958386E+0	1.966374E+0	1.972742E+0	2.009590E+0	2.011053E+0	1.971584E+0	1.975347E+0	2.017629E+0	1.985165E+0	1.950426E+0	2.018981E+0	2.005370E+0	1.992089E+0	1.963459E+0	1.946325E+0	2.043784E+0	2.004386E+0	2.020050E+0	2.039468E+0	2.043402E+0	2.019213E+0	1.997138E+0	2.064343E+0	1.981960E+0	2.039843E+0	1.951215E+0	1.984156E+0	1.996362E+0	1.977056E+0	1.961222E+0	1.939776E+0	1.955898E+0	1.997166E+0	1.954212E+0	1.998044E+0	1.942644E+0	2.044049E+0	2.007821E+0	1.955717E+0	1.930949E+0	1.963063E+0	1.885120E+0	1.993078E+0	2.060306E+0	2.069314E+0	1.975164E+0	1.943753E+0	1.964976E+0	2.011616E+0	2.026365E+0	1.946257E+0	1.965001E+0	1.931681E+0	1.940085E+0	1.960832E+0	1.977845E+0	1.977296E+0	1.941496E+0	2.009441E+0	1.924832E+0	1.937393E+0	1.929061E+0	1.945940E+0	1.947464E+0	1.923569E+0	1.989354E+0	1.944777E+0	1.880747E+0	1.959748E+0	1.968479E+0	1.962391E+0	2.035638E+0	1.988786E+0	1.903744E+0	2.030994E+0	1.914379E+0	1.928997E+0	1.962393E+0	1.903435E+0	1.988315E+0	1.933173E+0	1.970702E+0	1.946408E+0	1.947305E+0	1.840632E+0	1.980627E+0	1.973479E+0	1.947372E+0	1.914554E+0	1.903686E+0	1.997038E+0	2.039351E+0	1.940712E+0	1.956269E+0	1.921730E+0	1.954863E+0	1.932529E+0	1.948210E+0	1.979159E+0	1.964455E+0	2.010062E+0	1.932505E+0	1.966926E+0	1.880434E+0	1.979248E+0	1.936280E+0	1.941097E+0	1.922927E+0	1.931384E+0	1.902360E+0	1.996840E+0	1.891024E+0	1.861544E+0
5.349530E+2	2.320038E+0	2.246162E+0	2.272899E+0	2.151954E+0	2.200694E+0	2.191904E+0	2.227520E+0	2.220397E+0	2.286471E+0	2.119700E+0	2.176194E+0	2.205370E+0	2.205089E+0	2.208842E+0	2.203876E+0	2.263918E+0	2.218111E+0	2.127207E+0	2.160674E+0	2.278128E+0	2.245045E+0	2.209356E+0	2.171923E+0	2.223458E+0	2.085150E+0	2.284966E+0	2.071628E+0	2.278789E+0	2.204878E+0	2.150537E+0	2.239180E+0	2.235063E+0	2.314112E+0	2.174844E+0	2.205868E+0	2.191181E+0	2.218642E+0	2.140893E+0	2.177835E+0	2.173894E+0	2.179712E+0	2.196254E+0	2.271590E+0	2.255284E+0	2.147937E+0	2.220606E+0	2.142970E+0	2.218771E+0	2.178195E+0	2.192969E+0	2.152956E+0	2.180782E+0	2.246419E+0	2.214388E+0	2.191423E+0	2.181760E+0	2.184621E+0	2.259505E+0	2.170197E+0	2.223830E+0	2.200316E+0	2.167896E+0	2.187911E+0	2.125399E+0	2.115875E+0	2.211042E+0	2.149840E+0	2.201123E+0	2.202936E+0	2.189068E+0	2.175784E+0	2.268341E+0	2.169796E+0	2.177849E+0	2.142763E+0	2.201642E+0	2.113337E+0	2.225621E+0	2.150942E+0	2.276190E+0	2.190396E+0	2.115401E+0	2.088839E+0	2.130171E+0	2.229586E+0	2.188952E+0	2.152061E+0	2.213462E+0	2.149250E+0	2.169936E+0	2.152065E+0	2.130008E+0	2.201228E+0	2.106934E+0	2.196421E+0	2.073477E+0	2.150886E+0	2.171946E+0	2.084940E+0	2.112054E+0	2.161037E+0	2.204872E+0	2.213319E+0	2.133733E+0	2.168926E+0	2.202410E+0	2.121642E+0	2.208224E+0	2.151172E+0	2.196198E+0	2.080356E+0	2.118022E+0	2.103632E+0	2.201141E+0	2.146084E+0	2.244534E+0	2.195187E+0	2.197575E+0	2.140718E+0	2.201114E+0	2.187023E+0	2.107147E+0	2.180132E+0	2.158918E+0	2.153558E+0	2.160204E+0	2.116430E+0	2.171219E+0	2.136571E+0	2.155566E+0	2.066392E+0	2.189968E+0	2.126312E+0	2.167174E+0	2.159588E+0	2.141158E+0	2.104927E+0	2.189407E+0	2.141498E+0	2.090358E+0	2.157318E+0	2.145275E+0	2.170403E+0	2.159576E+0	2.145248E+0	2.103221E+0	2.054584E+0	2.121538E+0	2.044342E+0	2.177600E+0	2.085506E+0	2.175296E+0	2.116976E+0	2.094782E+0	2.119250E+0	2.098570E+0	2.114629E+0	2.065646E+0	2.108355E+0	2.130538E+0	2.118800E+0	2.094302E+0	2.091469E+0	2.141518E+0	2.160325E+0	2.183244E+0	2.092606E+0	2.091530E+0	2.111370E+0	2.041797E+0	2.137557E+0
5.351140E+2	2.302196E+0	2.172222E+0	2.213338E+0	2.273055E+0	2.253337E+0	2.169612E+0	2.220257E+0	2.179245E+0	2.206901E+0	2.142443E+0	2.198133E+0	2.194426E+0	2.222330E+0	2.245568E+0	2.177853E+0	2.322736E+0	2.196983E+0	2.193962E+0	2.251995E+0	2.230544E+0	2.188545E+0	2.196945E+0	2.204058E+0	2.267012E+0	2.119128E+0	2.217936E+0	2.111359E+0	2.220693E+0	2.229993E+0	2.274498E+0	2.128114E+0	2.222279E+0	2.281787E+0	2.156245E+0	2.155289E+0	2.213977E+0	2.234643E+0	2.208461E+0	2.296153E+0	2.198131E+0	2.241157E+0	2.231781E+0	2.242574E+0	2.130008E+0	2.166257E+0	2.198489E+0	2.144536E+0	2.217698E+0	2.132498E+0	2.178439E+0	2.107586E+0	2.043965E+0	2.200405E+0	2.227720E+0	2.169625E+0	2.129222E+0	2.240308E+0	2.176986E+0	2.137276E+0	2.206612E+0	2.225690E+0	2.197263E+0	2.237341E+0	2.156256E+0	2.145055E+0	2.227619E+0	2.182494E+0	2.205393E+0	2.193064E+0	2.130970E+0	2.141940E+0	2.136993E+0	2.232625E+0	2.164748E+0	2.165771E+0	2.130995E+0	2.178807E+0	2.188379E+0	2.189153E+0	2.206257E+0	2.162947E+0	2.112889E+0	2.225550E+0	2.090777E+0	2.158611E+0	2.096488E+0	2.098443E+0	2.092752E+0	2.092117E+0	2.224015E+0	2.127368E+0	2.148332E+0	2.241032E+0	2.076879E+0	2.127147E+0	2.178642E+0	2.143096E+0	2.187283E+0	2.164378E+0	2.145044E+0	2.133658E+0	2.173006E+0	2.199220E+0	2.124819E+0	2.185264E+0	2.119946E+0	2.121076E+0	2.142021E+0	2.133484E+0	2.171280E+0	2.124692E+0	2.189249E+0	2.110738E+0	2.132124E+0	2.114867E+0	2.215072E+0	2.237552E+0	2.175352E+0	2.145545E+0	2.169853E+0	2.115771E+0	2.075653E+0	2.054073E+0	2.179190E+0	2.158929E+0	2.192359E+0	2.080616E+0	2.129703E+0	2.085807E+0	2.150482E+0	2.159562E+0	2.157318E+0	2.137287E+0	2.092405E+0	2.165871E+0	2.152599E+0	2.070026E+0	2.129615E+0	2.152075E+0	2.077088E+0	2.133514E+0	2.091335E+0	2.131700E+0	2.207730E+0	2.172671E+0	2.148789E+0	2.062706E+0	2.088245E+0	2.126325E+0	2.155850E+0	2.086817E+0	2.144563E+0	2.062718E+0	2.053554E+0	2.118202E+0	2.098069E+0	2.182068E+0	2.193173E+0	2.089479E+0	2.106437E+0	2.098829E+0	2.090692E+0	2.092374E+0	2.135597E+0	2.114438E+0	2.124747E+0	2.133823E+0	2.083519E+0	2.082940E+0	2.089209E+0	2.048916E+0
5.352550E+2	2.034866E+0	1.924229E+0	1.930832E+0	1.956329E+0	2.021814E+0	1.965090E+0	1.964094E+0	1.987378E+0	1.906053E+0	1.912864E+0	1.956364E+0	1.974480E+0	1.964624E+0	1.971857E+0	1.949195E+0	1.908460E+0	1.959113E+0	1.937369E+0	1.929575E+0	1.962581E+0	1.995252E+0	1.937333E+0	1.887247E+0	1.964443E+0	1.911728E+0	1.927084E+0	1.942964E+0	1.955510E+0	1.978143E+0	1.970487E+0	1.886202E+0	1.950126E+0	1.948776E+0	1.924680E+0	1.911407E+0	1.938340E+0	1.957214E+0	1.943362E+0	1.970410E+0	1.931937E+0	1.953856E+0	1.940742E+0	1.939259E+0	1.940150E+0	1.915207E+0	1.927065E+0	1.945134E+0	1.881362E+0	1.906492E+0	1.953907E+0	1.899507E+0	1.911039E+0	1.967679E+0	1.955277E+0	1.910108E+0	1.947016E+0	1.922962E+0	1.925907E+0	1.997759E+0	1.972490E+0	1.912297E+0	1.938206E+0	1.953187E+0	1.882486E+0	1.945517E+0	2.004113E+0	1.943084E+0	1.906741E+0	1.922002E+0	1.912517E+0	1.920428E+0	1.965489E+0	1.883067E+0	1.870568E+0	1.864465E+0	1.944983E+0	1.924363E+0	1.910694E+0	1.950524E+0	2.001965E+0	1.968132E+0	1.846008E+0	1.929244E+0	1.888209E+0	1.888810E+0	1.930276E+0	1.894812E+0	1.943638E+0	1.834846E+0	1.928748E+0	1.920310E+0	1.940200E+0	1.937588E+0	1.841728E+0	1.928590E+0	1.870864E+0	1.935888E+0	1.897404E+0	1.894423E+0	1.885875E+0	1.956341E+0	1.923476E+0	1.938591E+0	1.866591E+0	1.947111E+0	1.903149E+0	1.816724E+0	1.912110E+0	1.896934E+0	1.919978E+0	1.897084E+0	1.893573E+0	1.885530E+0	1.983770E+0	1.865465E+0	1.931947E+0	1.917281E+0	1.924535E+0	1.955055E+0	1.897387E+0	1.894491E+0	1.860172E+0	1.862215E+0	1.915174E+0	1.898290E+0	1.872346E+0	1.879281E+0	1.933199E+0	1.830434E+0	1.904144E+0	1.871778E+0	1.873260E+0	1.899827E+0	1.892208E+0	1.912933E+0	1.886297E+0	1.872829E+0	1.935685E+0	1.940558E+0	1.846838E+0	1.904214E+0	1.909682E+0	1.893773E+0	1.957512E+0	1.885368E+0	1.862378E+0	1.798730E+0	1.887314E+0	1.907935E+0	1.956364E+0	1.884263E+0	1.929287E+0	1.923771E+0	1.911030E+0	1.941038E+0	1.909604E+0	1.957203E+0	1.900882E+0	1.858298E+0	1.947293E+0	1.872585E+0	1.877726E+0	1.868008E+0	1.807580E+0	1.891996E+0	1.938303E+0	1.900861E+0	1.949542E+0	1.901947E+0	1.886707E+0	1.826597E+0
5.354110E+2	1.711061E+0	1.644317E+0	1.685986E+0	1.680038E+0	1.683475E+0	1.683415E+0	1.676119E+0	1.669783E+0	1.655071E+0	1.636362E+0	1.671283E+0	1.591623E+0	1.653047E+0	1.671535E+0	1.605398E+0	1.601730E+0	1.670300E+0	1.631663E+0	1.705927E+0	1.648830E+0	1.632806E+0	1.670274E+0	1.572705E+0	1.707704E+0	1.643698E+0	1.625069E+0	1.634346E+0	1.611038E+0	1.653918E+0	1.694540E+0	1.538206E+0	1.638671E+0	1.682924E+0	1.667571E+0	1.600553E+0	1.587959E+0	1.705641E+0	1.655791E+0	1.588176E+0	1.627670E+0	1.603372E+0	1.632801E+0	1.659890E+0	1.664059E+0	1.638226E+0	1.613149E+0	1.609569E+0	1.619845E+0	1.608223E+0	1.661477E+0	1.618301E+0	1.595214E+0	1.685213E+0	1.610250E+0	1.595296E+0	1.635054E+0	1.672083E+0	1.663690E+0	1.650136E+0	1.672041E+0	1.586882E+0	1.608249E+0	1.628504E+0	1.597998E+0	1.638355E+0	1.670975E+0	1.668148E+0	1.685246E+0	1.656155E+0	1.583265E+0	1.561570E+0	1.618593E+0	1.668963E+0	1.574599E+0	1.670488E+0	1.633552E+0	1.621907E+0	1.675443E+0	1.640872E+0	1.639857E+0	1.659118E+0	1.626032E+0	1.654238E+0	1.649244E+0	1.672966E+0	1.644626E+0	1.603524E+0	1.599260E+0	1.610548E+0	1.633963E+0	1.699754E+0	1.610161E+0	1.668053E+0	1.634492E+0	1.645298E+0	1.574171E+0	1.638944E+0	1.683729E+0	1.599543E+0	1.650412E+0	1.619102E+0	1.610029E+0	1.659756E+0	1.605581E+0	1.595831E+0	1.578877E+0	1.641084E+0	1.635979E+0	1.592730E+0	1.646095E+0	1.625193E+0	1.604416E+0	1.613804E+0	1.633807E+0	1.602372E+0	1.635520E+0	1.661684E+0	1.654466E+0	1.621940E+0	1.608377E+0	1.550748E+0	1.543692E+0	1.593225E+0	1.668991E+0	1.573181E+0	1.607610E+0	1.580546E+0	1.642276E+0	1.661970E+0	1.562685E+0	1.631707E+0	1.599146E+0	1.653980E+0	1.580961E+0	1.677695E+0	1.657667E+0	1.608871E+0	1.644772E+0	1.689806E+0	1.659351E+0	1.609419E+0	1.559825E+0	1.575731E+0	1.627107E+0	1.627518E+0	1.548957E+0	1.535612E+0	1.564550E+0	1.593108E+0	1.648511E+0	1.619322E+0	1.614221E+0	1.649329E+0	1.594706E+0	1.649713E+0	1.622613E+0	1.654876E+0	1.630558E+0	1.647261E+0	1.622738E+0	1.597530E+0	1.623737E+0	1.557396E+0	1.564915E+0	1.677952E+0	1.555527E+0	1.612866E+0	1.543021E+0	1.658371E+0	1.589486E+0	1.663061E+0
5.355580E+2	1.421826E+0	1.358969E+0	1.412465E+0	1.363508E+0	1.412594E+0	1.374672E+0	1.351250E+0	1.362832E+0	1.401095E+0	1.399910E+0	1.396871E+0	1.445945E+0	1.388881E+0	1.402685E+0	1.397385E+0	1.405710E+0	1.433541E+0	1.395726E+0	1.410506E+0	1.393864E+0	1.379446E+0	1.372395E+0	1.364487E+0	1.361542E+0	1.358893E+0	1.362544E+0	1.369269E+0	1.387497E+0	1.414047E+0	1.411785E+0	1.375982E+0	1.421520E+0	1.420004E+0	1.347592E+0	1.355231E+0	1.392024E+0	1.398597E+0	1.379955E+0	1.425063E+0	1.368483E+0	1.399426E+0	1.402885E+0	1.410784E+0	1.370527E+0	1.400747E+0	1.354676E+0	1.388847E+0	1.362255E+0	1.399764E+0	1.400212E+0	1.376334E+0	1.292068E+0	1.355059E+0	1.360094E+0	1.354653E+0	1.391242E+0	1.376013E+0	1.367642E+0	1.390539E+0	1.394094E+0	1.352671E+0	1.397806E+0	1.361779E+0	1.321221E+0	1.363212E+0	1.397121E+0	1.433103E+0	1.341275E+0	1.429139E+0	1.345848E+0	1.414974E+0	1.392727E+0	1.402372E+0	1.354364E+0	1.361624E+0	1.349432E+0	1.371756E+0	1.388785E+0	1.388899E+0	1.393851E+0	1.423847E+0	1.399955E+0	1.371773E+0	1.321143E+0	1.367180E+0	1.424752E+0	1.334942E+0	1.367197E+0	1.332690E+0	1.384356E+0	1.391068E+0	1.392962E+0	1.424561E+0	1.349475E+0	1.413134E+0	1.308174E+0	1.412138E+0	1.343444E+0	1.401611E+0	1.373915E+0	1.373396E+0	1.357517E+0	1.467702E+0	1.348870E+0	1.389956E+0	1.372633E+0	1.435075E+0	1.352522E+0	1.371872E+0	1.312868E+0	1.361655E+0	1.355275E+0	1.323132E+0	1.385520E+0	1.355192E+0	1.409369E+0	1.472928E+0	1.343706E+0	1.361751E+0	1.383461E+0	1.410365E+0	1.402574E+0	1.326762E+0	1.410156E+0	1.349053E+0	1.342853E+0	1.379136E+0	1.368039E+0	1.391679E+0	1.369877E+0	1.339281E+0	1.402601E+0	1.338965E+0	1.345536E+0	1.409637E+0	1.393089E+0	1.395305E+0	1.362040E+0	1.413300E+0	1.384845E+0	1.404426E+0	1.330204E+0	1.373543E+0	1.377883E+0	1.409624E+0	1.322857E+0	1.312542E+0	1.367091E+0	1.388044E+0	1.415108E+0	1.349276E+0	1.468205E+0	1.349389E+0	1.370943E+0	1.361064E+0	1.379881E+0	1.388507E+0	1.379205E+0	1.350742E+0	1.346489E+0	1.355072E+0	1.416133E+0	1.368746E+0	1.342975E+0	1.377925E+0	1.400840E+0	1.341819E+0	1.320412E+0	1.317342E+0	1.420903E+0	1.354455E+0
5.357090E+2	1.227813E+0	1.246033E+0	1.246684E+0	1.204708E+0	1.218692E+0	1.247649E+0	1.201162E+0	1.196499E+0	1.215296E+0	1.157845E+0	1.210625E+0	1.183452E+0	1.224960E+0	1.180182E+0	1.174400E+0	1.172772E+0	1.215191E+0	1.202744E+0	1.196581E+0	1.158958E+0	1.191310E+0	1.181173E+0	1.195567E+0	1.218112E+0	1.168959E+0	1.233753E+0	1.234008E+0	1.249870E+0	1.221089E+0	1.242665E+0	1.173562E+0	1.176845E+0	1.215635E+0	1.185970E+0	1.220257E+0	1.156397E+0	1.201404E+0	1.232620E+0	1.185339E+0	1.177261E+0	1.158216E+0	1.193872E+0	1.205112E+0	1.170430E+0	1.221318E+0	1.147814E+0	1.142008E+0	1.162795E+0	1.212091E+0	1.235801E+0	1.236612E+0	1.167050E+0	1.204533E+0	1.209111E+0	1.181464E+0	1.267361E+0	1.188974E+0	1.220207E+0	1.179230E+0	1.208492E+0	1.187174E+0	1.267947E+0	1.258478E+0	1.137592E+0	1.248923E+0	1.255078E+0	1.179907E+0	1.243584E+0	1.194757E+0	1.172927E+0	1.198080E+0	1.177180E+0	1.215172E+0	1.212335E+0	1.196140E+0	1.199099E+0	1.213502E+0	1.213723E+0	1.171253E+0	1.188285E+0	1.159368E+0	1.207480E+0	1.176979E+0	1.168957E+0	1.256049E+0	1.203842E+0	1.183309E+0	1.190731E+0	1.184333E+0	1.168353E+0	1.238736E+0	1.153363E+0	1.243450E+0	1.176957E+0	1.214622E+0	1.137841E+0	1.223424E+0	1.228280E+0	1.196762E+0	1.143742E+0	1.215042E+0	1.210614E+0	1.145818E+0	1.156237E+0	1.141955E+0	1.234566E+0	1.159046E+0	1.192446E+0	1.235200E+0	1.205907E+0	1.179462E+0	1.189650E+0	1.173953E+0	1.199732E+0	1.181562E+0	1.212483E+0	1.209300E+0	1.145381E+0	1.194822E+0	1.192099E+0	1.215255E+0	1.173363E+0	1.172478E+0	1.144899E+0	1.188888E+0	1.161665E+0	1.176451E+0	1.179283E+0	1.209021E+0	1.131068E+0	1.172598E+0	1.154536E+0	1.155702E+0	1.202485E+0	1.235225E+0	1.215475E+0	1.152948E+0	1.231012E+0	1.180947E+0	1.199173E+0	1.192589E+0	1.215740E+0	1.183389E+0	1.203063E+0	1.192534E+0	1.142753E+0	1.133391E+0	1.221744E+0	1.197017E+0	1.238554E+0	1.165223E+0	1.181118E+0	1.194999E+0	1.154641E+0	1.202464E+0	1.209857E+0	1.177917E+0	1.186611E+0	1.163244E+0	1.214819E+0	1.223179E+0	1.160657E+0	1.182879E+0	1.164140E+0	1.233895E+0	1.154035E+0	1.146877E+0	1.183518E+0	1.196232E+0	1.099665E+0	1.186278E+0
5.358600E+2	1.061168E+0	1.029112E+0	9.845498E-1	1.032292E+0	1.012919E+0	9.912993E-1	9.940983E-1	1.000109E+0	1.012654E+0	1.049653E+0	1.008513E+0	1.045720E+0	1.075806E+0	1.038707E+0	1.054213E+0	1.042257E+0	1.074181E+0	1.000087E+0	1.007435E+0	1.080460E+0	9.982927E-1	1.017293E+0	1.018524E+0	1.031257E+0	1.049095E+0	1.021875E+0	1.012205E+0	1.051508E+0	9.775325E-1	1.011909E+0	9.975050E-1	1.020170E+0	1.039657E+0	9.608847E-1	1.020559E+0	1.007157E+0	1.007620E+0	1.074172E+0	1.048666E+0	1.009362E+0	9.722673E-1	1.071020E+0	1.009712E+0	1.029228E+0	1.040286E+0	1.022019E+0	1.016967E+0	1.017413E+0	1.006363E+0	1.039292E+0	1.013967E+0	9.979222E-1	1.049265E+0	1.048149E+0	9.903346E-1	1.033994E+0	1.063790E+0	1.028245E+0	1.026695E+0	1.016153E+0	1.037438E+0	1.059082E+0	1.058217E+0	1.000577E+0	1.046552E+0	1.006246E+0	9.752151E-1	1.056770E+0	1.046061E+0	1.014634E+0	1.052682E+0	1.049914E+0	1.008247E+0	9.903503E-1	1.062055E+0	9.962924E-1	1.024699E+0	1.019929E+0	1.017402E+0	1.029766E+0	1.037756E+0	1.065046E+0	9.954892E-1	1.000304E+0	1.080820E+0	1.008381E+0	1.024255E+0	1.005956E+0	1.006894E+0	1.052517E+0	1.043985E+0	1.023484E+0	1.067633E+0	1.001534E+0	1.036844E+0	1.025965E+0	1.049552E+0	1.011756E+0	9.881162E-1	1.002333E+0	1.049509E+0	1.040991E+0	1.060541E+0	1.031247E+0	1.003452E+0	1.057269E+0	1.056069E+0	1.083361E+0	1.068045E+0	1.021956E+0	1.028409E+0	9.918629E-1	1.044947E+0	1.071682E+0	1.023498E+0	1.000178E+0	1.001235E+0	1.048478E+0	1.081610E+0	9.927893E-1	9.961539E-1	1.046979E+0	9.815821E-1	1.013753E+0	1.057143E+0	1.049212E+0	1.011638E+0	9.834247E-1	1.005485E+0	1.016704E+0	9.620275E-1	9.998932E-1	1.036820E+0	1.015597E+0	1.038932E+0	1.026995E+0	9.889682E-1	1.005254E+0	1.027828E+0	1.006182E+0	1.027304E+0	1.023452E+0	1.076904E+0	9.781680E-1	1.039334E+0	1.032416E+0	1.012374E+0	1.034636E+0	1.030989E+0	1.036177E+0	9.969906E-1	1.042304E+0	1.032323E+0	9.935869E-1	1.039297E+0	9.873407E-1	1.024383E+0	1.016652E+0	1.022566E+0	1.039642E+0	1.044027E+0	1.048501E+0	1.025649E+0	1.007664E+0	1.035034E+0	1.062128E+0	1.046202E+0	1.037781E+0	1.051601E+0	1.024135E+0	1.026155E+0
5.360120E+2	8.668013E-1	8.603626E-1	8.398549E-1	8.518664E-1	8.838884E-1	9.024211E-1	8.366910E-1	8.959767E-1	8.486550E-1	8.281262E-1	8.497637E-1	8.682167E-1	8.868080E-1	8.760689E-1	8.650724E-1	8.640931E-1	8.663746E-1	8.700488E-1	9.326455E-1	8.524280E-1	8.494652E-1	8.570148E-1	8.319059E-1	8.894350E-1	8.470413E-1	8.875704E-1	8.533633E-1	8.512831E-1	9.100030E-1	8.181848E-1	8.560017E-1	8.406479E-1	8.490261E-1	8.331636E-1	8.575516E-1	8.735197E-1	8.661841E-1	8.805720E-1	8.110338E-1	8.465017E-1	8.531069E-1	8.731244E-1	9.242184E-1	8.296496E-1	8.072427E-1	9.128220E-1	8.552786E-1	8.528931E-1	8.541745E-1	8.681552E-1	8.487684E-1	8.528625E-1	8.798252E-1	8.933142E-1	8.148664E-1	8.671058E-1	8.624365E-1	8.749886E-1	8.622116E-1	8.662930E-1	8.496560E-1	8.618475E-1	8.697615E-1	8.269126E-1	8.646633E-1	8.631279E-1	8.580108E-1	8.386198E-1	8.889935E-1	8.370798E-1	8.169129E-1	8.703317E-1	8.638746E-1	8.667278E-1	8.725560E-1	8.546457E-1	8.861814E-1	8.702028E-1	8.787837E-1	8.753441E-1	8.412089E-1	8.813807E-1	8.651175E-1	8.219182E-1	8.849946E-1	8.748617E-1	8.183919E-1	8.624841E-1	8.635637E-1	8.310153E-1	8.416814E-1	8.777473E-1	8.760250E-1	8.653589E-1	8.241793E-1	8.619511E-1	8.957875E-1	8.603562E-1	8.819053E-1	8.535656E-1	8.809159E-1	8.783057E-1	8.648993E-1	8.491545E-1	8.401408E-1	9.107334E-1	8.734044E-1	8.731560E-1	8.545662E-1	8.744763E-1	8.617470E-1	8.551478E-1	8.694035E-1	8.193073E-1	8.456327E-1	8.223646E-1	8.979763E-1	8.518545E-1	8.986448E-1	8.311066E-1	8.604099E-1	8.026872E-1	8.484011E-1	8.705499E-1	8.834348E-1	8.656449E-1	8.607690E-1	8.563670E-1	8.682547E-1	8.540268E-1	8.421744E-1	8.951863E-1	8.627520E-1	8.372524E-1	8.728942E-1	8.475157E-1	9.035060E-1	8.630916E-1	8.779404E-1	8.192230E-1	8.713228E-1	8.789259E-1	8.891164E-1	8.698630E-1	8.921441E-1	8.417853E-1	8.849604E-1	8.709366E-1	8.768087E-1	8.669545E-1	8.592277E-1	8.674878E-1	8.556746E-1	8.598563E-1	9.142505E-1	8.270754E-1	8.712857E-1	8.648569E-1	8.464024E-1	8.536002E-1	9.085887E-1	8.644672E-1	8.603340E-1	8.593784E-1	8.906388E-1	8.431910E-1	8.473767E-1	8.550151E-1	8.288862E-1	8.473681E-1	9.063999E-1
5.362730E+2	6.516219E-1	6.864270E-1	6.504218E-1	6.564756E-1	6.538439E-1	6.661343E-1	6.408627E-1	6.331530E-1	6.398462E-1	6.180173E-1	6.571387E-1	6.462485E-1	6.692239E-1	6.681784E-1	6.657304E-1	5.931152E-1	6.494064E-1	6.334529E-1	6.431976E-1	6.474825E-1	6.600394E-1	6.260042E-1	6.652058E-1	6.842523E-1	6.332021E-1	6.416936E-1	6.255664E-1	6.262652E-1	6.674270E-1	6.598504E-1	6.487110E-1	6.866676E-1	6.581797E-1	6.669415E-1	6.446100E-1	6.334711E-1	6.861813E-1	6.449236E-1	6.424903E-1	6.865868E-1	6.576792E-1	6.557032E-1	6.477987E-1	6.321769E-1	6.565758E-1	6.398201E-1	6.686683E-1	6.376186E-1	6.830564E-1	6.242787E-1	6.354029E-1	6.745514E-1	6.949647E-1	6.313373E-1	6.378709E-1	6.730650E-1	6.528116E-1	6.395189E-1	6.579872E-1	6.236212E-1	6.751634E-1	6.391736E-1	6.038769E-1	6.503999E-1	6.769433E-1	6.712706E-1	6.664344E-1	6.269596E-1	6.618885E-1	6.547372E-1	6.355562E-1	6.358518E-1	5.998053E-1	6.432253E-1	6.639222E-1	6.242662E-1	6.746843E-1	6.511927E-1	6.528616E-1	6.935784E-1	6.264610E-1	6.444940E-1	6.560677E-1	6.643010E-1	6.783648E-1	6.490256E-1	6.619057E-1	6.579676E-1	6.417740E-1	6.443752E-1	6.888345E-1	6.261055E-1	6.604842E-1	6.365623E-1	6.505573E-1	6.546559E-1	6.143635E-1	6.497906E-1	6.823106E-1	6.741408E-1	6.457843E-1	6.678146E-1	6.884468E-1	6.318199E-1	6.416281E-1	6.368167E-1	6.760600E-1	6.673215E-1	6.937124E-1	6.349938E-1	6.576355E-1	6.094012E-1	6.278293E-1	6.348858E-1	6.820870E-1	6.596475E-1	6.534003E-1	6.671307E-1	6.454932E-1	6.388995E-1	6.600935E-1	6.724194E-1	6.371068E-1	6.795821E-1	6.671193E-1	6.489113E-1	6.533943E-1	6.653502E-1	6.420610E-1	6.536859E-1	6.463009E-1	6.689801E-1	6.527990E-1	6.468582E-1	6.932034E-1	6.820289E-1	6.576319E-1	7.045176E-1	6.806706E-1	6.445391E-1	6.625220E-1	6.494233E-1	6.543230E-1	6.412252E-1	6.785134E-1	7.039744E-1	6.635199E-1	6.388407E-1	6.396015E-1	6.771220E-1	6.904974E-1	6.996862E-1	6.338506E-1	7.026021E-1	6.988656E-1	6.799105E-1	6.652472E-1	6.807801E-1	6.243110E-1	6.344528E-1	6.462394E-1	6.635715E-1	6.860495E-1	6.538099E-1	6.642224E-1	6.601368E-1	6.493263E-1	6.399851E-1	6.498502E-1	6.662240E-1	6.525018E-1
5.365140E+2	5.303454E-1	5.621020E-1	5.417615E-1	5.616531E-1	5.898681E-1	5.452125E-1	5.196688E-1	5.833017E-1	5.654852E-1	5.533476E-1	5.737232E-1	5.543646E-1	5.375472E-1	5.534451E-1	5.301524E-1	5.515108E-1	5.462627E-1	5.373302E-1	5.698678E-1	5.541257E-1	5.729111E-1	5.482281E-1	5.401606E-1	5.513186E-1	5.438019E-1	5.292398E-1	5.266372E-1	5.475679E-1	5.985921E-1	5.683562E-1	5.473892E-1	5.638654E-1	5.724615E-1	5.667208E-1	5.429314E-1	5.475686E-1	5.802420E-1	5.577503E-1	5.770602E-1	5.797783E-1	5.614640E-1	5.724101E-1	5.548993E-1	5.312895E-1	5.824258E-1	5.218863E-1	5.920632E-1	5.310324E-1	5.613153E-1	5.525819E-1	5.388282E-1	5.707946E-1	5.470358E-1	5.632110E-1	5.548310E-1	5.438921E-1	5.614140E-1	5.522849E-1	5.431308E-1	5.816793E-1	5.591506E-1	5.622715E-1	5.340523E-1	5.447044E-1	5.515672E-1	5.703719E-1	5.078601E-1	5.173844E-1	5.833604E-1	5.621468E-1	5.890943E-1	5.480373E-1	5.654113E-1	5.626718E-1	5.826266E-1	5.492740E-1	5.477589E-1	5.938353E-1	5.569324E-1	5.342545E-1	5.493223E-1	5.973720E-1	5.636500E-1	5.211083E-1	5.659499E-1	5.415392E-1	5.278887E-1	5.779778E-1	5.821532E-1	5.568107E-1	5.848805E-1	5.824685E-1	5.865630E-1	5.346716E-1	5.537892E-1	5.465243E-1	5.789849E-1	5.860731E-1	5.498017E-1	5.486358E-1	5.531048E-1	5.750069E-1	5.985570E-1	5.579713E-1	5.852592E-1	5.808272E-1	5.732525E-1	5.274100E-1	5.682932E-1	5.686883E-1	5.735770E-1	5.781493E-1	4.968243E-1	5.554591E-1	5.500421E-1	5.390383E-1	5.541330E-1	5.500021E-1	5.579823E-1	5.575141E-1	5.705856E-1	5.506542E-1	5.578502E-1	5.556635E-1	5.448052E-1	5.646227E-1	5.608518E-1	5.365156E-1	5.461604E-1	5.547852E-1	5.784711E-1	5.762654E-1	5.757906E-1	6.040183E-1	5.872011E-1	5.694019E-1	5.523620E-1	5.640492E-1	5.690082E-1	5.315613E-1	5.702174E-1	5.534185E-1	5.534004E-1	5.733405E-1	5.641654E-1	5.644337E-1	5.665224E-1	5.698836E-1	5.878750E-1	5.799584E-1	5.334058E-1	5.677706E-1	5.643843E-1	5.559301E-1	5.392858E-1	5.621379E-1	5.693695E-1	5.705598E-1	5.392109E-1	5.411702E-1	5.404983E-1	5.421225E-1	5.459036E-1	5.667274E-1	5.707432E-1	5.358181E-1	5.482935E-1	5.563056E-1	5.722627E-1	6.207053E-1	5.503060E-1
5.367710E+2	5.683275E-1	5.582560E-1	5.247824E-1	5.647548E-1	5.395331E-1	5.179368E-1	5.658135E-1	5.262062E-1	5.273981E-1	5.681398E-1	5.577741E-1	5.369280E-1	5.584882E-1	5.635160E-1	5.313974E-1	5.633495E-1	5.348704E-1	5.579695E-1	5.372852E-1	5.484179E-1	5.331455E-1	5.493053E-1	5.494714E-1	5.605971E-1	5.308719E-1	5.844559E-1	5.050261E-1	5.414565E-1	5.506507E-1	5.815731E-1	5.776490E-1	5.321594E-1	5.607558E-1	5.563049E-1	5.285858E-1	5.197537E-1	5.636822E-1	5.410046E-1	5.147533E-1	5.237799E-1	5.362430E-1	5.253077E-1	5.346271E-1	5.164439E-1	5.445583E-1	5.013994E-1	5.173360E-1	5.285407E-1	5.833542E-1	5.288994E-1	5.550160E-1	5.047839E-1	5.767403E-1	5.337077E-1	5.233809E-1	5.521349E-1	5.415601E-1	5.815435E-1	5.310855E-1	5.449849E-1	5.260447E-1	5.556286E-1	5.589925E-1	5.311724E-1	5.465929E-1	5.584156E-1	5.293509E-1	5.445461E-1	5.640947E-1	5.409867E-1	5.600190E-1	5.248960E-1	5.646678E-1	5.656216E-1	5.526959E-1	5.618862E-1	5.595971E-1	5.606305E-1	5.671860E-1	5.532856E-1	5.775441E-1	5.536950E-1	5.677544E-1	5.620640E-1	5.587352E-1	5.596757E-1	4.899848E-1	5.525582E-1	4.827844E-1	5.494859E-1	5.566077E-1	5.179925E-1	5.780290E-1	5.694059E-1	5.456155E-1	5.583147E-1	5.442266E-1	5.471041E-1	5.363916E-1	5.120455E-1	5.377332E-1	5.544514E-1	5.521209E-1	5.308636E-1	5.297722E-1	5.562395E-1	5.803814E-1	5.883549E-1	5.412739E-1	5.416692E-1	5.585075E-1	5.593297E-1	5.083345E-1	5.556225E-1	5.403738E-1	5.511484E-1	5.639160E-1	5.875569E-1	5.577457E-1	5.199621E-1	5.650053E-1	5.403762E-1	5.195150E-1	5.122953E-1	5.568589E-1	5.528100E-1	5.257622E-1	5.415648E-1	5.702055E-1	5.459962E-1	4.988930E-1	5.263504E-1	5.354741E-1	5.276605E-1	5.475325E-1	5.673290E-1	6.011087E-1	5.721339E-1	5.803883E-1	5.306271E-1	5.442754E-1	5.345237E-1	5.238224E-1	5.382934E-1	5.997240E-1	5.543930E-1	5.147432E-1	5.366398E-1	5.387273E-1	5.035449E-1	5.574567E-1	5.352286E-1	5.343366E-1	5.216622E-1	5.599027E-1	5.486766E-1	5.163297E-1	5.616243E-1	5.369433E-1	5.433060E-1	5.787082E-1	5.589476E-1	5.690599E-1	5.462544E-1	5.799411E-1	5.590414E-1	5.603131E-1	5.503024E-1	5.591582E-1	5.555793E-1	4.856193E-1
5.370120E+2	5.774895E-1	6.091865E-1	5.498198E-1	5.934738E-1	5.828316E-1	5.524787E-1	5.870520E-1	5.515191E-1	5.682157E-1	6.060030E-1	5.619253E-1	5.696047E-1	5.832665E-1	5.666123E-1	5.651416E-1	5.757149E-1	5.783027E-1	5.878095E-1	5.892169E-1	5.694316E-1	5.756087E-1	5.873225E-1	5.690198E-1	5.990284E-1	5.503042E-1	5.790370E-1	5.766799E-1	6.047543E-1	5.732241E-1	5.654680E-1	5.848195E-1	5.856893E-1	5.610131E-1	5.593012E-1	5.921356E-1	5.701695E-1	6.380498E-1	5.998079E-1	5.937867E-1	5.776325E-1	5.636464E-1	5.920841E-1	6.032650E-1	5.680107E-1	5.608343E-1	5.926469E-1	5.756876E-1	5.655762E-1	5.737404E-1	5.582326E-1	5.671400E-1	5.798976E-1	6.020916E-1	5.819361E-1	5.632488E-1	5.511794E-1	5.809331E-1	5.871744E-1	5.588936E-1	5.889091E-1	5.511326E-1	5.823623E-1	5.673492E-1	5.798324E-1	5.778584E-1	5.959060E-1	6.034859E-1	5.927329E-1	5.815745E-1	5.563457E-1	5.717506E-1	5.528995E-1	5.772469E-1	5.926260E-1	5.381054E-1	5.710154E-1	5.669468E-1	5.991778E-1	5.826934E-1	5.970451E-1	5.703419E-1	5.946829E-1	5.679195E-1	5.585365E-1	5.799831E-1	5.505873E-1	6.061969E-1	6.004998E-1	5.818581E-1	5.927792E-1	6.101566E-1	5.584606E-1	5.920026E-1	5.812224E-1	5.665945E-1	5.789343E-1	5.896400E-1	5.763135E-1	6.046126E-1	5.690275E-1	5.748929E-1	5.790090E-1	5.925994E-1	5.796933E-1	5.904365E-1	5.668404E-1	5.812180E-1	5.647311E-1	5.850617E-1	5.870168E-1	5.677259E-1	5.666778E-1	5.786895E-1	5.684962E-1	6.353423E-1	5.597433E-1	6.028813E-1	6.102193E-1	5.795518E-1	5.556039E-1	5.619788E-1	5.630940E-1	5.696684E-1	5.919723E-1	6.052250E-1	6.254770E-1	5.935939E-1	5.820317E-1	5.742209E-1	5.984079E-1	5.419396E-1	5.932622E-1	5.887687E-1	5.758420E-1	5.916796E-1	5.570889E-1	6.108242E-1	5.991881E-1	5.788831E-1	5.677916E-1	5.942309E-1	5.630239E-1	5.671892E-1	5.822360E-1	5.732987E-1	5.685877E-1	6.045206E-1	6.036407E-1	5.637104E-1	5.913217E-1	6.001999E-1	5.918579E-1	5.775320E-1	5.637883E-1	5.863407E-1	5.986329E-1	5.898680E-1	5.822469E-1	5.695255E-1	5.650083E-1	5.982733E-1	5.919262E-1	5.895445E-1	5.992922E-1	6.248619E-1	5.704004E-1	5.744212E-1	5.555243E-1	5.948663E-1	5.497416E-1	5.830395E-1
5.372590E+2	6.645475E-1	6.286998E-1	6.452975E-1	6.714978E-1	6.403269E-1	6.551918E-1	6.897623E-1	6.275632E-1	6.536072E-1	6.408969E-1	6.706460E-1	6.692950E-1	6.571670E-1	6.466627E-1	6.371807E-1	6.370577E-1	6.427897E-1	6.457030E-1	6.760693E-1	6.396098E-1	7.017448E-1	6.608640E-1	6.519182E-1	6.478522E-1	6.727674E-1	6.588468E-1	5.992039E-1	6.723582E-1	6.719617E-1	6.959793E-1	6.341191E-1	6.508118E-1	6.380853E-1	6.406632E-1	6.523135E-1	6.424066E-1	6.761037E-1	6.661756E-1	6.201755E-1	6.758367E-1	6.264573E-1	6.987247E-1	6.625462E-1	6.782432E-1	6.408283E-1	6.597613E-1	6.577748E-1	6.500456E-1	6.761797E-1	6.690408E-1	6.187687E-1	6.320379E-1	7.066350E-1	6.912567E-1	6.219229E-1	6.365709E-1	6.911811E-1	6.471770E-1	6.575362E-1	6.476255E-1	6.646984E-1	6.420803E-1	6.740385E-1	6.546872E-1	6.762669E-1	6.707303E-1	6.641748E-1	6.509643E-1	6.134869E-1	6.800444E-1	6.539867E-1	6.507420E-1	6.636771E-1	6.556784E-1	6.467564E-1	6.793723E-1	6.931168E-1	6.274792E-1	6.793604E-1	6.500343E-1	6.593655E-1	6.812034E-1	6.144787E-1	6.488079E-1	6.935523E-1	6.530110E-1	6.157080E-1	6.885786E-1	6.501291E-1	6.859051E-1	6.588774E-1	6.443782E-1	6.691769E-1	6.321629E-1	6.671249E-1	6.584289E-1	6.624282E-1	6.557280E-1	6.823586E-1	6.295291E-1	6.653363E-1	6.587782E-1	6.977857E-1	6.572741E-1	6.517427E-1	6.516697E-1	6.100451E-1	6.688149E-1	6.672377E-1	6.812609E-1	6.405900E-1	6.254854E-1	6.776599E-1	6.520094E-1	6.180869E-1	6.684826E-1	6.684639E-1	6.451619E-1	6.867530E-1	6.883824E-1	6.399846E-1	6.381923E-1	6.075369E-1	6.743315E-1	6.494843E-1	6.642207E-1	6.553618E-1	6.774529E-1	6.677274E-1	6.400837E-1	6.468236E-1	5.976241E-1	6.329833E-1	6.494469E-1	6.921539E-1	6.816182E-1	6.778709E-1	6.669955E-1	6.567886E-1	6.318976E-1	6.666404E-1	6.472437E-1	6.976428E-1	6.468412E-1	6.676361E-1	6.711406E-1	6.408740E-1	6.412855E-1	6.890172E-1	6.761441E-1	6.482316E-1	6.830833E-1	6.850791E-1	6.668311E-1	6.931084E-1	6.705971E-1	6.911044E-1	6.553099E-1	6.894499E-1	6.638290E-1	6.684301E-1	6.547810E-1	6.580999E-1	6.465478E-1	6.489379E-1	6.474144E-1	6.291005E-1	6.382874E-1	6.821680E-1	6.262684E-1	6.150850E-1
5.375110E+2	7.416144E-1	8.051713E-1	7.364009E-1	7.591835E-1	7.349119E-1	7.388230E-1	7.847672E-1	7.628627E-1	7.059809E-1	7.336224E-1	7.611255E-1	7.208787E-1	7.711285E-1	7.720059E-1	7.626878E-1	7.709899E-1	7.123969E-1	7.695301E-1	7.513590E-1	7.638955E-1	7.689320E-1	7.620220E-1	7.505655E-1	7.242623E-1	7.200212E-1	7.613141E-1	7.182780E-1	7.601598E-1	7.757327E-1	7.465251E-1	7.338436E-1	7.408145E-1	7.377267E-1	7.645828E-1	7.610638E-1	7.496756E-1	7.422213E-1	7.821294E-1	7.802787E-1	7.432094E-1	7.474516E-1	7.621136E-1	7.512017E-1	7.761150E-1	7.127725E-1	7.471859E-1	7.314667E-1	7.164759E-1	7.301504E-1	8.000546E-1	7.559177E-1	7.527175E-1	7.323674E-1	7.676653E-1	7.688579E-1	7.666967E-1	7.394049E-1	7.426366E-1	7.557645E-1	7.612815E-1	7.623560E-1	7.533834E-1	7.437210E-1	7.200079E-1	7.675990E-1	7.903005E-1	7.564062E-1	7.748105E-1	7.248448E-1	7.610308E-1	7.612891E-1	7.475290E-1	7.260227E-1	7.354911E-1	7.588921E-1	7.385171E-1	7.373457E-1	7.341348E-1	7.541189E-1	7.927885E-1	7.440182E-1	7.393127E-1	7.762306E-1	7.462279E-1	7.567210E-1	7.867106E-1	7.339473E-1	7.563417E-1	6.947522E-1	7.747719E-1	7.800320E-1	7.887578E-1	7.685910E-1	7.490341E-1	7.648748E-1	7.306892E-1	7.471216E-1	7.536867E-1	7.969555E-1	7.062445E-1	7.370475E-1	7.896668E-1	7.799377E-1	7.559505E-1	7.738131E-1	7.703861E-1	7.641612E-1	7.505536E-1	7.548237E-1	7.679385E-1	7.406525E-1	7.284825E-1	8.096942E-1	7.658463E-1	7.723331E-1	7.604904E-1	7.701482E-1	7.513051E-1	7.448898E-1	7.565605E-1	7.660465E-1	7.274473E-1	7.125326E-1	7.962929E-1	7.256419E-1	7.464976E-1	7.224857E-1	7.489258E-1	7.382663E-1	7.822582E-1	7.606562E-1	7.481346E-1	7.795183E-1	7.569951E-1	7.480705E-1	7.528462E-1	7.741423E-1	7.924805E-1	7.918484E-1	7.601497E-1	8.093196E-1	7.384155E-1	7.200955E-1	7.764868E-1	7.384584E-1	7.469250E-1	7.501770E-1	7.520532E-1	7.408877E-1	8.170916E-1	7.356025E-1	7.569152E-1	7.579612E-1	7.661619E-1	7.681412E-1	8.213015E-1	7.832009E-1	7.606665E-1	7.481874E-1	7.550560E-1	7.848356E-1	7.782497E-1	7.605969E-1	7.289141E-1	7.766638E-1	7.745535E-1	7.703371E-1	7.610685E-1	7.567702E-1	7.514017E-1	7.061779E-1
5.377630E+2	9.171874E-1	9.408806E-1	8.677902E-1	8.938824E-1	8.666324E-1	9.125833E-1	9.059363E-1	8.786223E-1	8.482477E-1	8.935485E-1	9.044582E-1	9.046739E-1	9.022956E-1	8.865692E-1	9.121690E-1	8.842758E-1	8.659708E-1	8.770090E-1	8.965221E-1	8.682557E-1	9.081456E-1	8.861911E-1	8.355600E-1	8.915693E-1	8.527881E-1	9.009475E-1	8.727153E-1	8.835474E-1	8.719539E-1	9.066955E-1	8.833359E-1	9.044005E-1	9.550631E-1	8.717428E-1	8.524537E-1	8.831335E-1	8.983207E-1	9.275679E-1	8.895100E-1	8.678487E-1	8.649911E-1	8.668420E-1	9.263818E-1	8.720060E-1	8.809842E-1	8.883279E-1	8.791693E-1	8.445978E-1	8.634093E-1	8.730244E-1	8.665618E-1	8.617796E-1	8.707430E-1	8.975733E-1	8.861453E-1	8.841723E-1	8.969728E-1	8.938190E-1	8.811698E-1	8.414549E-1	8.916560E-1	9.046914E-1	8.784955E-1	8.780031E-1	8.993733E-1	9.164365E-1	8.969400E-1	8.717361E-1	8.454418E-1	8.908646E-1	9.089681E-1	9.031479E-1	8.786927E-1	8.637968E-1	9.014658E-1	8.911140E-1	8.794390E-1	9.045385E-1	8.489721E-1	8.737098E-1	8.824518E-1	9.113882E-1	8.927077E-1	9.299375E-1	9.156021E-1	9.291529E-1	8.760076E-1	8.811605E-1	8.702711E-1	9.050335E-1	9.040061E-1	8.777135E-1	9.407329E-1	8.747264E-1	8.908754E-1	8.406730E-1	9.165274E-1	8.910789E-1	8.841358E-1	8.759649E-1	8.876255E-1	9.093526E-1	9.249934E-1	8.898345E-1	8.721878E-1	8.960403E-1	8.882685E-1	8.695911E-1	8.889129E-1	8.927630E-1	8.620249E-1	8.859557E-1	9.064401E-1	9.094014E-1	8.708444E-1	9.326324E-1	8.971810E-1	8.896258E-1	8.803913E-1	8.735071E-1	9.273788E-1	8.470308E-1	8.443786E-1	8.936456E-1	8.779734E-1	9.076665E-1	9.229130E-1	8.677739E-1	8.974418E-1	9.056254E-1	8.950202E-1	8.731419E-1	9.074084E-1	9.129361E-1	9.114339E-1	9.273830E-1	9.301438E-1	9.465825E-1	9.323056E-1	8.846414E-1	8.838514E-1	9.007705E-1	8.901590E-1	8.950984E-1	8.732246E-1	8.862284E-1	9.045227E-1	8.972404E-1	9.177546E-1	9.080642E-1	9.292198E-1	8.985916E-1	8.756861E-1	8.878073E-1	9.184289E-1	8.795306E-1	9.128504E-1	9.101003E-1	9.201433E-1	8.474903E-1	9.195377E-1	8.920482E-1	9.069396E-1	8.611168E-1	8.950334E-1	8.945220E-1	9.153985E-1	9.100819E-1	8.564761E-1	9.194398E-1	9.212874E-1
5.380110E+2	9.979323E-1	9.722521E-1	1.016195E+0	9.861594E-1	1.028659E+0	1.016660E+0	1.021053E+0	9.962291E-1	9.519328E-1	9.918545E-1	9.675795E-1	9.702157E-1	9.780019E-1	9.789659E-1	9.827383E-1	9.762603E-1	1.003368E+0	9.695731E-1	9.833927E-1	1.010238E+0	1.007741E+0	9.915850E-1	9.898423E-1	9.520333E-1	9.830277E-1	9.872431E-1	1.003462E+0	9.729789E-1	1.016116E+0	9.753964E-1	9.510698E-1	1.010748E+0	1.008492E+0	9.825214E-1	1.005002E+0	9.766425E-1	9.774994E-1	1.003718E+0	9.510372E-1	1.019262E+0	9.716238E-1	1.012792E+0	1.038244E+0	9.511095E-1	9.922036E-1	9.633127E-1	9.506020E-1	9.195159E-1	9.924687E-1	9.928675E-1	9.600906E-1	9.447804E-1	1.019733E+0	9.534597E-1	9.744096E-1	1.035860E+0	9.865500E-1	1.022186E+0	9.936181E-1	9.756525E-1	9.635629E-1	9.998697E-1	9.567995E-1	9.702196E-1	1.016271E+0	1.017270E+0	1.010105E+0	9.831445E-1	9.767184E-1	9.915095E-1	1.001536E+0	1.008313E+0	9.895830E-1	9.944328E-1	9.838980E-1	1.003286E+0	9.476988E-1	1.052747E+0	1.007620E+0	9.862923E-1	9.916849E-1	9.614933E-1	1.002519E+0	9.782510E-1	9.785336E-1	1.019948E+0	9.331367E-1	9.956838E-1	9.224799E-1	1.021853E+0	9.759482E-1	9.911947E-1	9.894365E-1	9.732026E-1	1.023370E+0	9.930659E-1	1.005676E+0	9.833350E-1	1.055092E+0	9.938061E-1	1.000015E+0	1.008445E+0	1.056719E+0	9.868664E-1	9.431933E-1	1.018402E+0	1.031739E+0	9.956274E-1	9.694094E-1	9.734442E-1	9.791126E-1	9.160571E-1	9.647101E-1	9.731975E-1	9.887261E-1	9.843860E-1	1.028657E+0	1.020253E+0	9.795569E-1	9.815589E-1	9.819531E-1	9.690459E-1	9.082943E-1	1.005884E+0	1.003600E+0	9.638778E-1	1.018292E+0	1.013880E+0	9.519371E-1	9.388884E-1	9.594877E-1	9.799823E-1	9.941221E-1	9.587946E-1	9.890099E-1	1.044935E+0	9.940125E-1	9.907273E-1	9.869982E-1	9.847961E-1	1.025071E+0	1.039978E+0	1.006335E+0	9.893671E-1	1.004820E+0	9.906575E-1	9.379545E-1	9.924437E-1	1.018107E+0	1.036011E+0	9.949840E-1	9.567810E-1	9.143612E-1	1.000201E+0	9.961583E-1	9.251919E-1	1.009958E+0	9.955018E-1	9.594026E-1	9.891732E-1	9.628211E-1	9.568345E-1	9.536833E-1	9.875692E-1	1.062468E+0	9.725907E-1	9.877054E-1	9.763690E-1	9.486812E-1	9.587133E-1	9.131938E-1
5.382690E+2	1.231932E+0	1.173076E+0	1.188222E+0	1.194545E+0	1.221748E+0	1.188345E+0	1.211474E+0	1.173499E+0	1.147537E+0	1.145897E+0	1.175864E+0	1.207087E+0	1.223076E+0	1.232706E+0	1.187851E+0	1.198554E+0	1.223686E+0	1.177589E+0	1.213555E+0	1.176998E+0	1.180025E+0	1.201349E+0	1.171242E+0	1.221597E+0	1.183651E+0	1.217853E+0	1.181922E+0	1.164457E+0	1.194972E+0	1.163813E+0	1.152681E+0	1.185243E+0	1.240773E+0	1.171477E+0	1.175746E+0	1.136461E+0	1.221396E+0	1.178801E+0	1.161355E+0	1.180006E+0	1.184796E+0	1.234609E+0	1.200432E+0	1.164552E+0	1.175144E+0	1.177498E+0	1.172757E+0	1.157746E+0	1.195102E+0	1.239287E+0	1.186190E+0	1.152623E+0	1.176808E+0	1.200976E+0	1.169036E+0	1.213201E+0	1.224714E+0	1.247852E+0	1.221129E+0	1.193538E+0	1.165198E+0	1.217091E+0	1.239887E+0	1.144766E+0	1.138938E+0	1.232280E+0	1.218577E+0	1.249284E+0	1.190503E+0	1.211870E+0	1.214578E+0	1.174090E+0	1.190433E+0	1.231112E+0	1.218492E+0	1.184922E+0	1.194504E+0	1.209210E+0	1.186154E+0	1.211876E+0	1.147258E+0	1.160180E+0	1.176067E+0	1.219707E+0	1.191822E+0	1.187848E+0	1.158292E+0	1.169136E+0	1.131426E+0	1.212919E+0	1.183197E+0	1.178895E+0	1.250477E+0	1.159162E+0	1.213396E+0	1.206202E+0	1.221518E+0	1.219374E+0	1.222271E+0	1.168566E+0	1.217276E+0	1.186818E+0	1.270884E+0	1.122949E+0	1.211760E+0	1.202192E+0	1.212791E+0	1.225095E+0	1.217310E+0	1.153929E+0	1.145416E+0	1.169123E+0	1.144177E+0	1.220711E+0	1.167320E+0	1.164183E+0	1.156398E+0	1.180745E+0	1.174032E+0	1.209219E+0	1.140740E+0	1.167406E+0	1.185971E+0	1.213257E+0	1.139759E+0	1.244003E+0	1.221908E+0	1.195671E+0	1.161976E+0	1.191620E+0	1.191256E+0	1.204817E+0	1.188131E+0	1.191802E+0	1.201576E+0	1.162063E+0	1.231568E+0	1.192412E+0	1.174162E+0	1.098077E+0	1.185519E+0	1.216587E+0	1.128573E+0	1.175765E+0	1.235206E+0	1.198738E+0	1.185523E+0	1.204673E+0	1.189394E+0	1.215447E+0	1.175499E+0	1.208856E+0	1.143822E+0	1.149243E+0	1.218048E+0	1.198770E+0	1.222567E+0	1.178160E+0	1.229629E+0	1.167760E+0	1.227551E+0	1.141237E+0	1.196670E+0	1.148347E+0	1.189305E+0	1.187590E+0	1.183799E+0	1.225327E+0	1.156730E+0	1.156804E+0	1.239105E+0
5.385010E+2	1.424198E+0	1.388011E+0	1.459498E+0	1.408141E+0	1.428686E+0	1.412529E+0	1.474059E+0	1.432975E+0	1.421992E+0	1.370707E+0	1.433807E+0	1.439039E+0	1.434547E+0	1.415128E+0	1.356454E+0	1.411599E+0	1.426017E+0	1.383705E+0	1.381487E+0	1.421642E+0	1.419771E+0	1.384560E+0	1.418727E+0	1.422496E+0	1.364040E+0	1.444562E+0	1.375985E+0	1.425383E+0	1.403936E+0	1.396767E+0	1.351020E+0	1.413364E+0	1.454680E+0	1.431901E+0	1.346780E+0	1.438725E+0	1.466565E+0	1.459181E+0	1.412063E+0	1.432561E+0	1.402695E+0	1.401555E+0	1.413868E+0	1.393438E+0	1.412687E+0	1.374943E+0	1.425721E+0	1.367599E+0	1.361815E+0	1.404404E+0	1.391801E+0	1.338721E+0	1.413351E+0	1.401536E+0	1.380593E+0	1.395676E+0	1.416180E+0	1.461532E+0	1.443077E+0	1.381212E+0	1.387637E+0	1.436361E+0	1.392566E+0	1.376867E+0	1.445731E+0	1.394244E+0	1.419773E+0	1.396814E+0	1.345342E+0	1.440590E+0	1.366962E+0	1.405869E+0	1.369531E+0	1.385652E+0	1.398812E+0	1.402636E+0	1.422679E+0	1.420281E+0	1.434955E+0	1.432512E+0	1.407356E+0	1.433341E+0	1.399169E+0	1.375602E+0	1.441121E+0	1.424549E+0	1.428179E+0	1.442763E+0	1.349091E+0	1.387705E+0	1.463313E+0	1.434719E+0	1.426048E+0	1.342734E+0	1.426707E+0	1.381127E+0	1.429101E+0	1.418370E+0	1.396624E+0	1.382494E+0	1.449343E+0	1.438353E+0	1.402464E+0	1.402335E+0	1.372179E+0	1.426604E+0	1.412931E+0	1.396282E+0	1.447894E+0	1.408298E+0	1.419652E+0	1.326724E+0	1.399657E+0	1.342645E+0	1.403139E+0	1.371471E+0	1.462712E+0	1.417692E+0	1.353731E+0	1.454668E+0	1.391882E+0	1.351587E+0	1.391112E+0	1.407682E+0	1.387687E+0	1.389174E+0	1.406507E+0	1.439627E+0	1.351414E+0	1.382161E+0	1.378756E+0	1.376033E+0	1.357851E+0	1.395717E+0	1.395302E+0	1.405157E+0	1.352536E+0	1.389771E+0	1.415592E+0	1.380021E+0	1.400422E+0	1.404466E+0	1.414046E+0	1.423687E+0	1.371402E+0	1.399859E+0	1.397644E+0	1.346972E+0	1.357689E+0	1.394749E+0	1.387762E+0	1.422227E+0	1.369570E+0	1.370273E+0	1.364184E+0	1.419538E+0	1.396281E+0	1.348657E+0	1.379946E+0	1.380597E+0	1.410216E+0	1.444502E+0	1.398427E+0	1.371578E+0	1.387415E+0	1.394091E+0	1.398988E+0	1.435256E+0	1.402853E+0	1.323067E+0	1.382974E+0
5.387600E+2	1.690290E+0	1.632452E+0	1.681379E+0	1.696421E+0	1.676812E+0	1.711445E+0	1.681340E+0	1.668706E+0	1.635501E+0	1.758923E+0	1.706583E+0	1.755335E+0	1.766411E+0	1.740030E+0	1.685483E+0	1.620743E+0	1.675597E+0	1.640969E+0	1.715144E+0	1.679390E+0	1.656642E+0	1.634717E+0	1.685917E+0	1.660756E+0	1.599337E+0	1.746602E+0	1.658328E+0	1.680896E+0	1.700428E+0	1.684770E+0	1.647826E+0	1.720477E+0	1.697414E+0	1.691165E+0	1.682514E+0	1.621646E+0	1.675324E+0	1.690787E+0	1.651026E+0	1.682070E+0	1.592967E+0	1.666981E+0	1.619205E+0	1.689090E+0	1.632773E+0	1.658792E+0	1.650822E+0	1.659618E+0	1.666322E+0	1.694480E+0	1.735782E+0	1.631059E+0	1.700589E+0	1.656978E+0	1.634752E+0	1.672977E+0	1.668144E+0	1.692324E+0	1.665134E+0	1.722220E+0	1.632454E+0	1.677253E+0	1.685250E+0	1.636822E+0	1.681245E+0	1.740010E+0	1.653988E+0	1.703005E+0	1.617811E+0	1.699855E+0	1.664631E+0	1.579987E+0	1.718515E+0	1.611651E+0	1.676392E+0	1.666023E+0	1.683395E+0	1.659419E+0	1.660312E+0	1.686353E+0	1.628095E+0	1.697162E+0	1.652389E+0	1.598486E+0	1.667554E+0	1.610506E+0	1.687650E+0	1.659372E+0	1.626621E+0	1.677032E+0	1.631262E+0	1.711730E+0	1.725743E+0	1.618909E+0	1.688387E+0	1.641509E+0	1.701933E+0	1.695367E+0	1.622905E+0	1.658594E+0	1.597564E+0	1.692458E+0	1.691476E+0	1.667904E+0	1.616758E+0	1.631878E+0	1.644665E+0	1.698448E+0	1.672551E+0	1.698476E+0	1.666331E+0	1.608939E+0	1.627593E+0	1.652301E+0	1.669323E+0	1.639945E+0	1.610650E+0	1.621163E+0	1.673982E+0	1.592872E+0	1.630584E+0	1.612808E+0	1.663123E+0	1.691878E+0	1.682022E+0	1.653223E+0	1.651538E+0	1.627197E+0	1.697237E+0	1.679168E+0	1.660817E+0	1.602092E+0	1.692260E+0	1.666456E+0	1.649174E+0	1.664702E+0	1.606097E+0	1.752707E+0	1.662848E+0	1.540320E+0	1.660390E+0	1.579760E+0	1.622283E+0	1.633959E+0	1.623720E+0	1.615539E+0	1.587787E+0	1.662692E+0	1.638983E+0	1.642721E+0	1.604434E+0	1.624527E+0	1.636155E+0	1.637355E+0	1.668018E+0	1.688225E+0	1.606578E+0	1.699740E+0	1.653110E+0	1.617114E+0	1.684453E+0	1.676961E+0	1.676103E+0	1.660023E+0	1.681433E+0	1.655539E+0	1.628296E+0	1.644879E+0	1.624781E+0	1.646133E+0	1.589668E+0
5.390290E+2	1.950328E+0	1.858625E+0	1.874878E+0	1.865986E+0	1.881001E+0	1.904871E+0	1.928818E+0	1.912875E+0	1.869514E+0	1.889124E+0	1.913764E+0	1.905368E+0	1.966820E+0	1.976756E+0	1.849631E+0	1.909141E+0	1.888435E+0	1.876600E+0	1.904578E+0	1.865264E+0	1.919917E+0	1.911526E+0	1.887050E+0	1.899887E+0	1.889051E+0	1.942891E+0	1.845453E+0	1.880308E+0	1.845968E+0	2.021902E+0	1.915789E+0	1.919040E+0	1.911133E+0	1.845517E+0	1.854296E+0	1.862435E+0	1.913955E+0	1.926271E+0	1.924679E+0	1.849493E+0	1.835052E+0	1.920899E+0	1.911373E+0	1.869656E+0	1.870984E+0	1.881411E+0	1.868421E+0	1.849066E+0	1.865500E+0	1.906219E+0	1.844590E+0	1.861057E+0	1.851107E+0	1.979891E+0	1.879687E+0	1.903033E+0	1.909633E+0	1.924300E+0	1.867274E+0	1.841826E+0	1.867108E+0	1.877709E+0	1.912469E+0	1.820442E+0	1.840971E+0	1.906290E+0	1.837612E+0	1.942685E+0	1.824777E+0	1.888035E+0	1.894181E+0	1.868902E+0	1.868896E+0	1.830917E+0	1.926053E+0	1.880095E+0	1.814056E+0	1.917471E+0	1.912194E+0	1.859099E+0	1.845652E+0	1.815338E+0	1.865980E+0	1.810972E+0	1.868372E+0	1.822915E+0	1.789331E+0	1.920088E+0	1.774735E+0	1.932721E+0	1.866607E+0	1.864818E+0	1.897291E+0	1.857218E+0	1.872315E+0	1.835655E+0	1.904704E+0	1.864412E+0	1.881390E+0	1.866297E+0	1.866110E+0	1.885576E+0	1.847956E+0	1.945193E+0	1.794932E+0	1.897350E+0	1.883039E+0	1.885170E+0	1.787653E+0	1.861093E+0	1.882406E+0	1.815626E+0	1.825782E+0	1.771763E+0	1.861012E+0	1.833172E+0	1.858965E+0	1.877428E+0	1.833193E+0	1.897024E+0	1.851743E+0	1.830621E+0	1.876258E+0	1.869676E+0	1.823523E+0	1.856273E+0	1.838262E+0	1.822880E+0	1.804681E+0	1.809754E+0	1.825679E+0	1.845204E+0	1.909915E+0	1.910839E+0	1.912455E+0	1.832721E+0	1.848503E+0	1.911753E+0	1.901115E+0	1.824073E+0	1.892812E+0	1.837572E+0	1.800989E+0	1.811012E+0	1.816062E+0	1.853549E+0	1.828132E+0	1.781013E+0	1.815449E+0	1.870441E+0	1.885056E+0	1.813100E+0	1.833909E+0	1.803700E+0	1.849027E+0	1.793896E+0	1.859496E+0	1.900405E+0	1.892304E+0	1.856428E+0	1.915328E+0	1.834809E+0	1.790656E+0	1.796595E+0	1.827889E+0	1.822120E+0	1.844645E+0	1.854519E+0	1.915527E+0	1.811945E+0	1.756540E+0
5.392720E+2	2.042177E+0	2.019779E+0	2.007334E+0	2.079719E+0	2.103311E+0	2.121572E+0	2.034052E+0	2.059858E+0	2.028474E+0	2.097460E+0	2.008845E+0	2.111687E+0	2.092411E+0	2.066848E+0	2.044145E+0	2.011431E+0	2.057690E+0	2.076572E+0	2.067448E+0	2.078217E+0	2.032201E+0	2.057566E+0	2.057752E+0	2.091831E+0	1.987718E+0	2.173579E+0	2.067902E+0	2.093024E+0	2.079673E+0	2.068782E+0	2.036804E+0	2.029841E+0	2.111701E+0	2.111522E+0	2.025545E+0	2.073487E+0	2.072150E+0	2.078269E+0	2.063872E+0	2.017934E+0	1.995959E+0	2.050746E+0	2.011393E+0	2.091248E+0	2.017885E+0	1.995726E+0	2.040205E+0	2.003383E+0	1.948825E+0	2.108500E+0	2.061538E+0	2.049114E+0	2.038664E+0	2.122459E+0	2.007681E+0	2.033763E+0	2.036473E+0	2.087890E+0	2.019693E+0	2.040429E+0	2.018757E+0	2.080958E+0	2.038981E+0	2.005734E+0	2.036600E+0	2.091672E+0	2.039584E+0	2.032835E+0	1.985700E+0	2.003757E+0	2.067218E+0	2.014198E+0	1.932611E+0	2.046507E+0	2.070634E+0	2.116428E+0	2.011905E+0	2.027635E+0	1.986041E+0	2.004300E+0	2.026202E+0	2.013797E+0	1.987821E+0	1.989565E+0	2.019756E+0	1.978249E+0	1.924412E+0	2.002702E+0	1.926305E+0	2.021085E+0	1.993329E+0	2.016747E+0	2.083698E+0	1.923924E+0	2.079074E+0	1.983291E+0	2.031261E+0	1.965531E+0	2.034260E+0	1.997199E+0	2.017198E+0	1.997931E+0	2.076919E+0	2.069566E+0	2.018461E+0	2.044524E+0	2.046313E+0	1.958243E+0	2.029776E+0	1.993173E+0	1.965586E+0	1.920571E+0	1.965429E+0	1.992573E+0	2.054954E+0	2.031400E+0	2.057111E+0	2.101840E+0	2.026582E+0	1.922539E+0	1.967244E+0	1.958627E+0	1.974010E+0	2.006941E+0	1.979603E+0	2.011166E+0	1.978081E+0	1.972311E+0	2.060071E+0	1.976315E+0	2.013125E+0	2.013967E+0	2.014442E+0	2.038967E+0	1.964014E+0	2.000876E+0	1.956363E+0	1.999230E+0	2.066598E+0	1.913285E+0	2.012688E+0	2.048361E+0	1.954448E+0	1.894302E+0	1.976854E+0	2.055237E+0	1.934138E+0	1.961286E+0	1.984201E+0	2.080032E+0	1.994823E+0	2.045532E+0	1.942706E+0	1.995594E+0	1.992364E+0	1.961080E+0	1.975539E+0	2.021177E+0	1.989866E+0	1.979946E+0	2.021957E+0	2.027759E+0	1.953532E+0	1.966242E+0	2.012582E+0	1.992619E+0	1.930395E+0	2.009801E+0	1.971742E+0	1.936095E+0	1.895230E+0
5.395320E+2	2.320748E+0	2.150649E+0	2.134742E+0	2.101773E+0	2.140744E+0	2.151735E+0	2.241733E+0	2.122762E+0	2.108769E+0	2.064418E+0	2.183917E+0	2.160682E+0	2.212128E+0	2.218712E+0	2.134176E+0	2.143966E+0	2.154649E+0	2.128434E+0	2.177601E+0	2.170931E+0	2.126124E+0	2.132363E+0	2.080504E+0	2.115739E+0	2.097406E+0	2.193452E+0	2.145284E+0	2.101761E+0	2.139251E+0	2.227993E+0	2.060859E+0	2.128196E+0	2.152105E+0	2.165190E+0	2.078020E+0	2.131604E+0	2.099120E+0	2.120735E+0	2.219936E+0	2.180484E+0	2.106668E+0	2.154206E+0	2.117288E+0	2.161062E+0	2.133675E+0	2.153515E+0	2.138428E+0	2.093615E+0	2.085698E+0	2.157340E+0	2.142621E+0	2.127400E+0	2.148587E+0	2.130620E+0	2.094945E+0	2.122215E+0	2.171759E+0	2.169141E+0	2.133672E+0	2.114104E+0	2.091533E+0	2.070955E+0	2.112392E+0	2.027861E+0	2.127871E+0	2.128565E+0	2.116469E+0	2.048933E+0	2.040068E+0	2.155393E+0	2.103498E+0	2.075337E+0	2.044221E+0	2.091364E+0	2.084356E+0	2.116927E+0	2.074418E+0	2.132136E+0	2.153652E+0	2.129214E+0	2.056703E+0	2.131822E+0	2.081710E+0	2.062224E+0	2.026143E+0	2.160148E+0	2.098535E+0	2.109414E+0	2.023385E+0	2.196711E+0	2.130117E+0	2.064212E+0	2.182889E+0	1.996765E+0	2.142906E+0	2.075895E+0	2.095889E+0	2.083458E+0	2.049744E+0	2.071802E+0	2.089922E+0	2.142173E+0	2.131103E+0	2.125015E+0	1.977588E+0	2.119701E+0	2.085576E+0	2.160878E+0	2.121300E+0	2.060230E+0	2.124618E+0	2.059786E+0	2.075747E+0	2.054650E+0	2.104238E+0	2.121929E+0	2.076457E+0	2.140864E+0	2.107597E+0	2.089786E+0	2.104410E+0	2.037741E+0	2.002209E+0	2.080141E+0	2.116569E+0	2.029032E+0	2.035345E+0	2.060584E+0	2.036369E+0	2.047805E+0	2.080786E+0	2.033381E+0	2.057188E+0	2.108533E+0	2.078453E+0	1.996011E+0	2.040735E+0	2.084973E+0	2.089083E+0	2.072637E+0	2.095132E+0	2.071472E+0	2.032290E+0	2.037742E+0	2.096734E+0	2.104162E+0	2.043506E+0	1.987603E+0	2.001948E+0	2.128300E+0	2.055083E+0	2.108286E+0	2.054099E+0	2.091868E+0	2.057195E+0	2.099867E+0	2.098367E+0	2.072983E+0	2.080062E+0	2.023878E+0	2.069249E+0	2.079947E+0	2.002365E+0	2.093198E+0	2.073111E+0	2.083745E+0	2.020354E+0	2.032077E+0	1.959556E+0	2.052490E+0	2.026302E+0
5.397860E+2	2.201120E+0	2.165804E+0	2.188420E+0	2.128020E+0	2.179430E+0	2.226094E+0	2.194419E+0	2.169710E+0	2.161975E+0	2.136548E+0	2.105798E+0	2.240188E+0	2.196762E+0	2.164255E+0	2.131705E+0	2.217029E+0	2.168248E+0	2.069767E+0	2.107032E+0	2.157157E+0	2.163130E+0	2.115067E+0	2.204867E+0	2.157036E+0	2.102320E+0	2.088129E+0	2.145722E+0	2.216917E+0	2.168532E+0	2.189887E+0	2.148480E+0	2.150626E+0	2.153242E+0	2.122791E+0	2.092901E+0	2.124987E+0	2.198467E+0	2.101051E+0	2.162043E+0	2.087421E+0	2.130638E+0	2.144757E+0	2.177374E+0	2.186751E+0	2.086383E+0	2.112849E+0	2.077816E+0	2.088262E+0	2.102516E+0	2.104388E+0	2.169640E+0	2.083144E+0	2.165020E+0	2.193930E+0	2.100247E+0	2.153286E+0	2.045271E+0	2.142552E+0	2.087041E+0	2.157391E+0	2.095187E+0	2.147819E+0	2.061077E+0	2.066307E+0	2.079251E+0	2.113676E+0	2.145796E+0	2.052671E+0	2.068331E+0	2.110870E+0	2.139951E+0	2.117348E+0	2.127882E+0	2.098262E+0	2.092556E+0	2.108188E+0	2.055921E+0	2.100880E+0	2.168557E+0	2.097071E+0	2.124932E+0	2.210073E+0	2.053602E+0	2.001362E+0	2.076717E+0	2.152089E+0	2.099866E+0	2.139049E+0	2.073932E+0	2.071846E+0	2.108507E+0	2.124484E+0	2.197858E+0	2.116404E+0	2.176673E+0	1.970973E+0	2.147754E+0	2.138654E+0	2.071649E+0	2.072084E+0	2.103431E+0	2.146016E+0	2.131944E+0	2.094266E+0	2.041636E+0	2.128525E+0	2.115446E+0	2.148119E+0	2.160033E+0	2.095324E+0	2.048613E+0	2.040300E+0	2.094525E+0	2.057621E+0	2.080554E+0	2.117343E+0	2.127268E+0	2.055274E+0	2.071419E+0	2.090851E+0	2.126224E+0	2.060143E+0	2.096610E+0	2.092573E+0	2.067197E+0	2.064210E+0	2.118204E+0	2.057198E+0	2.119955E+0	2.041092E+0	2.112892E+0	2.033356E+0	2.098838E+0	2.064056E+0	2.064919E+0	2.124086E+0	2.015289E+0	2.175224E+0	2.092236E+0	2.082004E+0	2.100793E+0	2.185084E+0	2.053954E+0	2.021899E+0	2.112797E+0	2.075621E+0	2.095208E+0	2.120276E+0	2.023313E+0	2.139351E+0	2.102611E+0	2.095084E+0	2.054895E+0	2.122854E+0	2.064473E+0	2.081057E+0	2.049955E+0	2.065774E+0	2.047824E+0	1.973500E+0	2.136269E+0	2.043366E+0	2.027527E+0	2.094859E+0	2.126966E+0	2.020864E+0	1.987595E+0	2.077894E+0	2.038644E+0	2.076171E+0	2.163933E+0
5.400140E+2	2.179975E+0	2.122832E+0	2.129849E+0	2.142278E+0	2.068082E+0	2.132010E+0	2.153632E+0	2.126722E+0	2.172347E+0	2.103053E+0	2.096600E+0	2.241801E+0	2.141339E+0	2.079345E+0	2.089997E+0	2.102546E+0	2.164988E+0	2.102107E+0	2.213478E+0	2.128297E+0	2.122894E+0	2.107227E+0	2.102999E+0	2.122482E+0	2.055881E+0	2.050324E+0	2.074646E+0	2.070464E+0	2.149503E+0	2.079401E+0	2.035703E+0	2.124371E+0	2.184714E+0	2.108633E+0	2.051402E+0	2.035494E+0	2.091896E+0	2.046678E+0	2.151138E+0	2.016690E+0	2.065944E+0	2.077191E+0	2.138512E+0	2.131096E+0	2.103651E+0	2.009691E+0	2.075022E+0	2.081845E+0	2.038060E+0	2.059940E+0	2.119284E+0	2.081776E+0	2.110342E+0	2.075941E+0	2.106303E+0	2.042634E+0	2.064157E+0	2.065365E+0	2.160941E+0	2.059846E+0	2.046226E+0	2.082614E+0	2.121171E+0	2.063389E+0	2.114463E+0	2.081113E+0	2.140972E+0	2.078958E+0	2.098529E+0	2.098977E+0	2.101457E+0	2.135081E+0	2.065916E+0	2.074740E+0	2.144659E+0	2.099202E+0	2.116813E+0	2.065215E+0	2.094280E+0	2.071072E+0	2.088906E+0	2.121525E+0	2.021594E+0	2.012116E+0	2.115231E+0	1.989892E+0	2.016500E+0	2.101389E+0	2.012569E+0	2.059506E+0	2.102969E+0	2.003972E+0	2.149053E+0	2.048126E+0	2.093366E+0	2.019803E+0	2.094211E+0	2.015246E+0	2.119303E+0	2.080704E+0	2.054807E+0	2.154753E+0	2.170396E+0	2.081497E+0	2.071858E+0	2.034010E+0	2.061293E+0	2.050856E+0	2.047132E+0	2.074528E+0	2.065411E+0	2.077976E+0	2.073355E+0	2.078781E+0	2.070566E+0	2.096995E+0	2.079475E+0	2.116964E+0	2.079658E+0	2.034105E+0	2.097207E+0	2.077917E+0	2.050430E+0	2.064313E+0	2.029519E+0	2.045563E+0	2.023848E+0	2.023711E+0	2.033041E+0	2.000469E+0	1.989422E+0	2.034182E+0	2.097052E+0	2.058812E+0	2.073882E+0	2.094240E+0	1.984293E+0	2.049412E+0	2.112582E+0	1.981491E+0	2.068931E+0	2.062940E+0	2.044579E+0	2.056575E+0	2.050755E+0	2.021856E+0	1.996831E+0	2.027215E+0	2.000232E+0	2.145474E+0	2.035617E+0	2.061895E+0	2.053931E+0	2.009104E+0	2.034139E+0	2.021544E+0	2.050180E+0	2.121001E+0	2.084126E+0	2.002584E+0	2.060641E+0	1.991314E+0	2.038786E+0	1.960839E+0	2.027707E+0	2.057268E+0	2.006439E+0	2.094452E+0	1.937088E+0	2.060621E+0	1.899318E+0
5.402630E+2	2.126795E+0	2.011373E+0	2.101489E+0	2.074714E+0	2.035387E+0	2.070442E+0	2.092608E+0	2.040888E+0	2.016403E+0	2.014115E+0	2.030495E+0	2.103816E+0	2.064246E+0	2.054159E+0	2.083497E+0	2.126356E+0	2.102268E+0	1.970413E+0	2.006661E+0	2.068805E+0	2.015134E+0	1.979116E+0	2.055962E+0	2.095091E+0	1.979688E+0	2.043641E+0	1.998094E+0	2.103967E+0	2.133542E+0	2.041137E+0	2.001736E+0	2.021703E+0	2.076086E+0	1.954232E+0	1.979572E+0	2.042301E+0	2.103648E+0	1.998790E+0	2.092498E+0	2.026063E+0	2.029085E+0	2.016938E+0	2.031555E+0	2.041485E+0	1.994446E+0	1.972548E+0	2.012845E+0	2.061913E+0	2.018378E+0	2.023403E+0	1.966035E+0	1.962251E+0	2.017112E+0	2.009057E+0	2.005274E+0	2.018666E+0	1.959896E+0	2.045704E+0	2.017819E+0	2.020930E+0	2.058453E+0	2.026372E+0	2.012119E+0	2.013399E+0	2.054194E+0	2.048800E+0	2.073503E+0	2.031122E+0	1.962375E+0	1.974012E+0	2.037667E+0	2.030919E+0	2.065375E+0	2.068691E+0	2.013088E+0	2.016574E+0	1.950672E+0	2.047130E+0	2.000577E+0	2.056158E+0	1.993966E+0	1.995553E+0	2.119159E+0	1.938170E+0	2.012636E+0	2.047731E+0	1.980715E+0	2.081178E+0	1.911683E+0	2.102926E+0	1.997681E+0	1.986829E+0	2.081186E+0	1.914619E+0	2.072870E+0	1.954641E+0	2.027754E+0	1.975621E+0	2.010338E+0	1.892288E+0	2.015965E+0	2.011990E+0	2.079827E+0	1.950277E+0	1.957559E+0	1.988464E+0	2.065415E+0	2.021248E+0	2.090512E+0	2.004857E+0	1.959558E+0	1.966185E+0	1.962082E+0	2.011234E+0	1.982853E+0	1.967264E+0	2.029537E+0	2.038561E+0	1.979522E+0	1.964016E+0	1.999682E+0	1.923233E+0	1.992564E+0	2.068461E+0	2.020140E+0	1.986333E+0	1.956948E+0	2.012492E+0	1.924839E+0	1.976836E+0	1.991403E+0	1.943066E+0	1.986879E+0	2.009764E+0	2.024853E+0	2.013547E+0	1.951714E+0	1.983835E+0	2.045871E+0	2.003595E+0	2.000908E+0	1.948155E+0	1.928547E+0	1.966509E+0	2.001456E+0	1.969451E+0	1.956561E+0	1.913853E+0	1.980733E+0	2.059685E+0	1.969548E+0	1.997168E+0	1.950983E+0	2.016213E+0	1.952206E+0	2.011218E+0	2.027668E+0	1.959974E+0	1.947048E+0	1.934138E+0	1.953700E+0	1.964313E+0	1.930474E+0	1.968619E+0	1.938495E+0	2.032876E+0	1.971036E+0	1.931111E+0	2.040799E+0	1.884443E+0	2.003117E+0
5.405080E+2	1.999381E+0	1.941760E+0	1.923737E+0	1.918214E+0	1.970043E+0	1.962286E+0	1.989038E+0	1.974307E+0	1.969469E+0	1.917137E+0	1.977818E+0	1.998227E+0	1.957363E+0	1.914278E+0	1.889320E+0	1.955502E+0	1.979504E+0	1.941571E+0	1.989025E+0	1.965130E+0	1.904798E+0	1.856864E+0	1.987008E+0	1.986958E+0	1.848738E+0	1.920485E+0	1.889995E+0	1.940099E+0	1.924014E+0	1.943718E+0	1.901350E+0	1.925576E+0	1.948927E+0	1.925758E+0	1.864436E+0	1.879450E+0	1.922300E+0	1.942019E+0	1.910847E+0	1.907800E+0	1.837018E+0	1.938046E+0	2.002162E+0	1.935982E+0	1.944827E+0	1.950622E+0	1.901632E+0	1.916977E+0	1.926812E+0	1.876150E+0	1.943112E+0	1.846191E+0	1.959685E+0	1.902203E+0	1.920583E+0	1.951657E+0	1.891062E+0	1.969803E+0	1.928726E+0	1.921936E+0	1.890418E+0	1.944085E+0	1.997568E+0	1.895303E+0	1.857478E+0	2.008494E+0	1.925667E+0	1.871348E+0	1.921414E+0	1.874238E+0	2.022793E+0	1.883421E+0	1.911164E+0	1.905556E+0	1.919792E+0	1.917215E+0	1.926946E+0	1.981537E+0	1.962074E+0	1.908703E+0	1.919825E+0	1.902835E+0	1.901420E+0	1.845121E+0	1.931142E+0	1.931100E+0	1.895076E+0	1.925570E+0	1.854961E+0	1.929938E+0	1.917843E+0	1.903478E+0	1.997260E+0	1.904777E+0	1.980002E+0	1.848628E+0	1.924541E+0	1.854793E+0	1.932141E+0	1.908933E+0	1.872989E+0	1.899432E+0	1.972301E+0	1.894056E+0	1.824411E+0	1.911853E+0	1.938583E+0	1.918831E+0	1.966159E+0	1.847255E+0	1.865193E+0	1.847339E+0	1.802319E+0	1.846056E+0	1.929347E+0	1.858209E+0	1.864532E+0	1.913252E+0	1.933372E+0	1.846670E+0	1.873104E+0	1.824237E+0	1.886841E+0	1.917776E+0	1.859649E+0	1.929137E+0	1.935476E+0	1.920852E+0	1.804969E+0	1.862014E+0	1.863946E+0	1.903835E+0	1.872131E+0	1.851820E+0	1.906722E+0	1.877058E+0	1.857597E+0	1.924427E+0	1.939980E+0	1.838766E+0	1.879215E+0	1.891903E+0	1.834311E+0	1.864524E+0	1.839592E+0	1.854208E+0	1.879605E+0	1.862855E+0	1.816173E+0	1.915587E+0	1.941944E+0	1.927429E+0	1.876050E+0	1.873528E+0	1.865995E+0	1.918831E+0	1.877466E+0	1.872625E+0	1.881189E+0	1.877404E+0	1.949197E+0	1.894299E+0	1.873639E+0	1.838533E+0	1.889928E+0	1.875943E+0	1.897771E+0	1.867710E+0	1.857657E+0	1.770998E+0	1.860123E+0
5.407790E+2	1.907364E+0	1.821230E+0	1.812276E+0	1.831256E+0	1.856886E+0	1.865103E+0	1.762004E+0	1.760091E+0	1.813800E+0	1.752953E+0	1.859509E+0	1.872696E+0	1.824906E+0	1.874000E+0	1.844517E+0	1.792100E+0	1.799652E+0	1.756716E+0	1.837198E+0	1.846500E+0	1.799199E+0	1.752444E+0	1.792655E+0	1.848001E+0	1.698044E+0	1.871644E+0	1.776695E+0	1.816765E+0	1.823335E+0	1.831187E+0	1.805443E+0	1.809405E+0	1.864658E+0	1.810637E+0	1.773300E+0	1.777317E+0	1.810797E+0	1.803384E+0	1.798612E+0	1.819957E+0	1.794464E+0	1.863263E+0	1.839304E+0	1.818081E+0	1.842979E+0	1.730653E+0	1.805722E+0	1.826540E+0	1.750044E+0	1.790803E+0	1.751483E+0	1.780755E+0	1.765941E+0	1.770976E+0	1.763788E+0	1.785165E+0	1.801783E+0	1.782345E+0	1.866995E+0	1.834923E+0	1.788636E+0	1.810658E+0	1.860890E+0	1.824221E+0	1.789316E+0	1.820239E+0	1.823596E+0	1.805415E+0	1.828701E+0	1.723265E+0	1.830297E+0	1.799097E+0	1.796297E+0	1.811980E+0	1.818663E+0	1.794949E+0	1.768220E+0	1.778494E+0	1.850957E+0	1.760024E+0	1.733907E+0	1.882235E+0	1.781390E+0	1.768619E+0	1.778789E+0	1.771473E+0	1.778089E+0	1.776720E+0	1.782752E+0	1.837340E+0	1.812035E+0	1.764175E+0	1.836332E+0	1.767793E+0	1.837506E+0	1.744193E+0	1.872660E+0	1.836095E+0	1.830894E+0	1.751159E+0	1.791189E+0	1.805303E+0	1.844986E+0	1.736550E+0	1.782934E+0	1.795240E+0	1.801616E+0	1.719752E+0	1.854790E+0	1.833585E+0	1.803272E+0	1.694547E+0	1.782450E+0	1.786735E+0	1.753759E+0	1.747516E+0	1.839292E+0	1.822254E+0	1.789255E+0	1.827602E+0	1.797614E+0	1.708559E+0	1.714613E+0	1.765575E+0	1.853638E+0	1.756602E+0	1.759838E+0	1.733600E+0	1.793171E+0	1.805275E+0	1.789260E+0	1.730895E+0	1.840243E+0	1.807068E+0	1.885395E+0	1.777660E+0	1.721886E+0	1.854272E+0	1.805106E+0	1.761799E+0	1.756181E+0	1.758948E+0	1.734657E+0	1.765781E+0	1.763495E+0	1.754888E+0	1.743519E+0	1.769107E+0	1.781214E+0	1.791873E+0	1.790825E+0	1.801518E+0	1.739216E+0	1.698358E+0	1.779500E+0	1.823155E+0	1.731883E+0	1.745788E+0	1.787857E+0	1.791276E+0	1.713602E+0	1.775154E+0	1.746361E+0	1.685436E+0	1.768910E+0	1.757244E+0	1.757217E+0	1.825915E+0	1.728054E+0	1.724744E+0	1.782457E+0
5.410240E+2	1.750473E+0	1.674945E+0	1.700497E+0	1.729607E+0	1.713765E+0	1.736441E+0	1.756662E+0	1.710225E+0	1.734816E+0	1.708944E+0	1.738266E+0	1.792098E+0	1.751848E+0	1.701046E+0	1.710205E+0	1.719188E+0	1.736905E+0	1.668923E+0	1.759864E+0	1.733405E+0	1.715699E+0	1.687975E+0	1.660113E+0	1.686053E+0	1.725047E+0	1.685028E+0	1.664508E+0	1.667515E+0	1.779695E+0	1.724924E+0	1.705780E+0	1.741962E+0	1.760879E+0	1.667501E+0	1.721022E+0	1.735067E+0	1.736848E+0	1.719829E+0	1.741906E+0	1.696306E+0	1.684729E+0	1.684418E+0	1.744256E+0	1.746060E+0	1.702239E+0	1.679832E+0	1.657274E+0	1.727379E+0	1.661761E+0	1.681359E+0	1.704491E+0	1.662522E+0	1.679373E+0	1.717626E+0	1.682032E+0	1.727974E+0	1.657033E+0	1.664285E+0	1.764184E+0	1.719355E+0	1.709751E+0	1.727666E+0	1.729082E+0	1.692044E+0	1.720631E+0	1.701865E+0	1.730619E+0	1.673532E+0	1.692265E+0	1.688882E+0	1.763334E+0	1.781664E+0	1.701707E+0	1.737306E+0	1.720092E+0	1.684146E+0	1.664512E+0	1.702337E+0	1.717440E+0	1.730619E+0	1.706477E+0	1.696506E+0	1.725135E+0	1.602716E+0	1.713776E+0	1.693476E+0	1.642483E+0	1.666417E+0	1.683972E+0	1.724571E+0	1.735117E+0	1.653166E+0	1.787518E+0	1.560123E+0	1.744773E+0	1.676737E+0	1.753746E+0	1.684509E+0	1.699411E+0	1.686337E+0	1.669872E+0	1.718030E+0	1.749708E+0	1.704510E+0	1.695925E+0	1.658716E+0	1.636989E+0	1.692194E+0	1.738994E+0	1.701583E+0	1.702336E+0	1.606605E+0	1.635221E+0	1.737205E+0	1.743415E+0	1.707743E+0	1.741114E+0	1.773680E+0	1.764490E+0	1.648178E+0	1.684565E+0	1.644910E+0	1.666144E+0	1.748753E+0	1.700823E+0	1.668768E+0	1.688183E+0	1.714136E+0	1.671475E+0	1.778263E+0	1.666330E+0	1.707572E+0	1.640590E+0	1.695936E+0	1.756162E+0	1.683082E+0	1.682807E+0	1.693435E+0	1.665417E+0	1.720675E+0	1.667785E+0	1.661265E+0	1.643468E+0	1.669772E+0	1.726221E+0	1.655019E+0	1.662998E+0	1.661421E+0	1.611953E+0	1.704766E+0	1.663548E+0	1.669308E+0	1.627091E+0	1.668478E+0	1.657304E+0	1.670680E+0	1.686731E+0	1.733357E+0	1.714144E+0	1.701454E+0	1.715416E+0	1.661562E+0	1.674578E+0	1.639212E+0	1.622791E+0	1.643604E+0	1.669810E+0	1.665000E+0	1.774274E+0	1.661839E+0	1.685972E+0
5.412850E+2	1.646510E+0	1.574368E+0	1.546839E+0	1.635950E+0	1.587121E+0	1.593342E+0	1.613878E+0	1.563270E+0	1.610921E+0	1.532658E+0	1.573832E+0	1.611642E+0	1.608376E+0	1.551052E+0	1.645782E+0	1.554726E+0	1.589217E+0	1.589584E+0	1.603037E+0	1.597512E+0	1.560718E+0	1.535080E+0	1.606522E+0	1.534315E+0	1.492312E+0	1.600933E+0	1.533472E+0	1.604020E+0	1.580692E+0	1.595791E+0	1.536086E+0	1.574183E+0	1.697370E+0	1.525852E+0	1.597225E+0	1.591887E+0	1.610819E+0	1.541366E+0	1.602616E+0	1.533200E+0	1.496055E+0	1.611617E+0	1.583672E+0	1.570302E+0	1.616075E+0	1.549101E+0	1.553246E+0	1.588470E+0	1.587323E+0	1.560637E+0	1.549972E+0	1.573136E+0	1.587232E+0	1.519582E+0	1.503532E+0	1.583938E+0	1.555556E+0	1.586174E+0	1.583562E+0	1.601038E+0	1.520222E+0	1.549045E+0	1.559544E+0	1.519300E+0	1.579777E+0	1.559277E+0	1.611540E+0	1.581400E+0	1.524188E+0	1.568877E+0	1.596002E+0	1.598032E+0	1.599307E+0	1.635453E+0	1.601637E+0	1.606526E+0	1.573001E+0	1.547312E+0	1.621699E+0	1.573807E+0	1.590060E+0	1.641247E+0	1.589649E+0	1.572381E+0	1.549080E+0	1.595451E+0	1.528825E+0	1.609702E+0	1.558964E+0	1.617890E+0	1.585083E+0	1.516748E+0	1.608081E+0	1.544715E+0	1.587245E+0	1.493972E+0	1.614287E+0	1.588435E+0	1.594190E+0	1.582541E+0	1.546773E+0	1.580964E+0	1.589067E+0	1.554994E+0	1.535728E+0	1.505330E+0	1.585434E+0	1.533489E+0	1.544307E+0	1.547103E+0	1.568583E+0	1.483112E+0	1.553874E+0	1.588776E+0	1.547637E+0	1.577736E+0	1.550324E+0	1.521133E+0	1.576886E+0	1.598722E+0	1.566518E+0	1.531933E+0	1.542930E+0	1.583343E+0	1.538297E+0	1.554367E+0	1.549280E+0	1.600941E+0	1.580860E+0	1.580366E+0	1.548662E+0	1.546902E+0	1.634934E+0	1.533867E+0	1.577947E+0	1.555524E+0	1.541448E+0	1.566309E+0	1.597973E+0	1.488380E+0	1.540993E+0	1.597649E+0	1.525244E+0	1.521482E+0	1.519337E+0	1.559458E+0	1.598519E+0	1.566035E+0	1.512058E+0	1.612683E+0	1.573025E+0	1.572064E+0	1.507636E+0	1.516901E+0	1.554483E+0	1.508283E+0	1.662568E+0	1.592645E+0	1.588600E+0	1.551220E+0	1.547649E+0	1.577943E+0	1.557260E+0	1.511036E+0	1.545129E+0	1.500545E+0	1.557946E+0	1.579733E+0	1.507526E+0	1.550925E+0	1.575765E+0
5.415190E+2	1.531451E+0	1.466385E+0	1.480258E+0	1.476179E+0	1.448147E+0	1.439685E+0	1.477914E+0	1.448521E+0	1.433378E+0	1.430131E+0	1.484653E+0	1.451202E+0	1.497019E+0	1.461219E+0	1.397347E+0	1.462079E+0	1.487198E+0	1.477469E+0	1.477273E+0	1.440309E+0	1.415321E+0	1.412822E+0	1.419531E+0	1.468214E+0	1.421332E+0	1.437129E+0	1.428709E+0	1.433671E+0	1.406625E+0	1.495284E+0	1.444551E+0	1.441825E+0	1.466374E+0	1.392499E+0	1.389760E+0	1.414751E+0	1.500445E+0	1.398467E+0	1.476344E+0	1.463403E+0	1.431117E+0	1.472516E+0	1.452808E+0	1.504709E+0	1.467619E+0	1.488415E+0	1.434804E+0	1.453242E+0	1.403238E+0	1.425427E+0	1.465537E+0	1.441691E+0	1.418172E+0	1.364521E+0	1.389014E+0	1.416115E+0	1.412544E+0	1.485639E+0	1.457118E+0	1.503785E+0	1.428231E+0	1.466139E+0	1.417430E+0	1.422686E+0	1.428105E+0	1.439646E+0	1.471787E+0	1.488687E+0	1.448619E+0	1.412377E+0	1.381796E+0	1.478154E+0	1.435308E+0	1.451353E+0	1.494880E+0	1.415012E+0	1.425472E+0	1.452297E+0	1.480380E+0	1.459683E+0	1.419461E+0	1.483086E+0	1.456901E+0	1.421318E+0	1.437462E+0	1.420307E+0	1.424904E+0	1.484009E+0	1.411074E+0	1.453049E+0	1.449093E+0	1.470776E+0	1.420332E+0	1.421094E+0	1.494758E+0	1.387813E+0	1.375928E+0	1.405056E+0	1.473872E+0	1.435203E+0	1.414035E+0	1.435537E+0	1.464439E+0	1.424000E+0	1.350604E+0	1.473983E+0	1.469874E+0	1.424538E+0	1.453394E+0	1.420711E+0	1.393647E+0	1.431112E+0	1.409472E+0	1.415484E+0	1.426113E+0	1.460348E+0	1.432934E+0	1.405508E+0	1.443909E+0	1.450226E+0	1.384113E+0	1.460559E+0	1.411106E+0	1.452985E+0	1.400992E+0	1.443121E+0	1.418606E+0	1.448558E+0	1.424627E+0	1.440693E+0	1.466899E+0	1.436521E+0	1.466445E+0	1.403417E+0	1.448307E+0	1.435161E+0	1.402597E+0	1.442383E+0	1.491437E+0	1.393365E+0	1.457084E+0	1.435289E+0	1.387933E+0	1.466652E+0	1.420189E+0	1.408321E+0	1.378892E+0	1.365799E+0	1.407543E+0	1.507366E+0	1.476898E+0	1.449302E+0	1.383103E+0	1.495326E+0	1.492577E+0	1.425785E+0	1.453991E+0	1.412092E+0	1.384133E+0	1.418000E+0	1.459562E+0	1.474510E+0	1.465829E+0	1.494123E+0	1.427733E+0	1.491348E+0	1.420731E+0	1.393094E+0	1.499832E+0	1.434085E+0	1.431742E+0
5.417810E+2	1.296673E+0	1.282071E+0	1.257998E+0	1.295864E+0	1.292174E+0	1.298495E+0	1.285949E+0	1.295876E+0	1.272921E+0	1.272231E+0	1.185601E+0	1.246880E+0	1.257861E+0	1.261828E+0	1.284700E+0	1.318259E+0	1.295595E+0	1.289311E+0	1.288771E+0	1.326080E+0	1.300111E+0	1.242518E+0	1.242321E+0	1.264649E+0	1.294308E+0	1.243410E+0	1.233119E+0	1.347270E+0	1.311103E+0	1.302124E+0	1.262946E+0	1.289828E+0	1.367858E+0	1.227736E+0	1.240629E+0	1.281158E+0	1.320351E+0	1.244299E+0	1.301281E+0	1.299188E+0	1.250827E+0	1.306071E+0	1.231817E+0	1.315509E+0	1.268863E+0	1.245676E+0	1.231198E+0	1.259227E+0	1.238898E+0	1.284911E+0	1.272704E+0	1.324076E+0	1.268487E+0	1.273826E+0	1.241969E+0	1.281869E+0	1.246505E+0	1.258928E+0	1.261570E+0	1.262450E+0	1.263676E+0	1.255717E+0	1.291344E+0	1.220813E+0	1.251052E+0	1.315312E+0	1.264145E+0	1.276700E+0	1.224986E+0	1.243205E+0	1.272591E+0	1.286018E+0	1.309295E+0	1.277210E+0	1.308033E+0	1.257288E+0	1.193775E+0	1.310460E+0	1.310174E+0	1.286739E+0	1.263305E+0	1.343239E+0	1.233880E+0	1.259138E+0	1.284888E+0	1.302774E+0	1.289129E+0	1.298217E+0	1.222912E+0	1.284430E+0	1.278097E+0	1.243692E+0	1.249143E+0	1.272254E+0	1.273654E+0	1.248249E+0	1.291090E+0	1.295631E+0	1.251042E+0	1.248941E+0	1.268032E+0	1.257655E+0	1.284005E+0	1.261158E+0	1.244013E+0	1.299904E+0	1.253498E+0	1.252057E+0	1.303549E+0	1.263932E+0	1.261512E+0	1.214093E+0	1.241243E+0	1.290105E+0	1.322717E+0	1.312348E+0	1.288083E+0	1.268351E+0	1.299896E+0	1.267467E+0	1.269459E+0	1.237173E+0	1.267395E+0	1.237099E+0	1.279594E+0	1.268145E+0	1.259456E+0	1.270062E+0	1.238747E+0	1.300239E+0	1.302235E+0	1.282995E+0	1.300942E+0	1.267723E+0	1.280937E+0	1.322427E+0	1.230146E+0	1.293446E+0	1.257232E+0	1.255437E+0	1.295219E+0	1.236756E+0	1.253955E+0	1.253548E+0	1.302061E+0	1.294177E+0	1.258725E+0	1.255673E+0	1.235605E+0	1.251282E+0	1.255405E+0	1.349776E+0	1.237205E+0	1.292888E+0	1.239693E+0	1.279270E+0	1.242960E+0	1.239826E+0	1.278828E+0	1.264301E+0	1.222871E+0	1.265968E+0	1.254345E+0	1.302249E+0	1.271378E+0	1.214311E+0	1.254863E+0	1.286164E+0	1.211721E+0	1.162454E+0	1.360094E+0
5.420160E+2	1.083034E+0	1.078985E+0	1.114222E+0	1.127030E+0	1.101838E+0	1.101525E+0	1.091662E+0	1.091107E+0	1.089435E+0	1.085962E+0	1.075555E+0	1.139303E+0	1.106369E+0	1.115401E+0	1.108719E+0	1.111066E+0	1.043644E+0	1.045583E+0	1.088696E+0	1.124008E+0	1.159130E+0	1.055970E+0	1.125670E+0	1.113488E+0	1.052183E+0	1.075040E+0	1.099224E+0	1.120134E+0	1.051466E+0	1.124851E+0	1.124844E+0	1.107725E+0	1.160868E+0	1.088958E+0	1.086873E+0	1.108972E+0	1.116961E+0	1.118540E+0	1.084076E+0	1.126681E+0	1.049598E+0	1.105051E+0	1.098138E+0	1.087925E+0	1.102706E+0	1.082597E+0	1.112198E+0	1.068150E+0	1.076447E+0	1.111694E+0	1.063339E+0	1.054167E+0	1.090859E+0	1.120023E+0	1.050957E+0	1.091442E+0	1.067531E+0	1.114015E+0	1.099419E+0	1.090924E+0	1.062652E+0	1.076495E+0	1.112741E+0	1.088859E+0	1.085189E+0	1.090740E+0	1.079518E+0	1.106425E+0	1.089898E+0	1.089702E+0	1.072659E+0	1.111655E+0	1.116685E+0	1.085563E+0	1.119332E+0	1.165758E+0	1.084497E+0	1.134016E+0	1.107725E+0	1.108179E+0	1.083865E+0	1.098704E+0	1.081907E+0	1.066924E+0	1.124542E+0	1.062848E+0	1.100809E+0	1.127893E+0	1.071834E+0	1.103003E+0	1.088047E+0	1.099687E+0	1.147951E+0	1.095835E+0	1.134174E+0	1.100454E+0	1.122738E+0	1.067455E+0	1.137734E+0	1.036377E+0	1.103041E+0	1.083330E+0	1.062088E+0	1.123085E+0	1.115995E+0	1.108444E+0	1.121696E+0	1.090297E+0	1.119524E+0	1.084035E+0	1.080031E+0	1.126011E+0	1.092389E+0	1.072151E+0	1.069840E+0	1.071108E+0	1.128454E+0	1.087217E+0	1.075467E+0	1.109462E+0	1.125232E+0	1.059172E+0	1.071517E+0	1.093122E+0	1.112799E+0	1.086031E+0	1.116508E+0	1.094847E+0	1.102879E+0	1.083381E+0	1.093757E+0	1.096023E+0	1.107938E+0	1.066404E+0	1.139757E+0	1.084130E+0	1.093099E+0	1.141847E+0	1.152727E+0	1.102428E+0	1.123163E+0	1.084080E+0	1.112900E+0	1.137075E+0	1.096510E+0	1.106489E+0	1.136560E+0	1.139675E+0	1.067607E+0	1.171011E+0	1.089696E+0	1.131896E+0	1.064511E+0	1.073133E+0	1.090135E+0	1.080459E+0	1.070761E+0	1.093892E+0	1.062905E+0	1.137202E+0	1.099103E+0	1.064024E+0	1.096999E+0	1.116727E+0	1.094045E+0	1.064325E+0	1.110735E+0	1.110834E+0	1.110659E+0	1.067192E+0	1.093910E+0
5.422670E+2	1.005094E+0	9.620612E-1	9.766868E-1	1.020714E+0	1.027918E+0	9.785641E-1	9.790169E-1	1.009385E+0	1.034009E+0	9.760684E-1	9.795509E-1	1.040337E+0	1.004060E+0	9.389701E-1	9.927374E-1	1.001193E+0	1.033035E+0	1.005531E+0	9.664528E-1	1.027108E+0	1.004341E+0	1.009883E+0	9.813826E-1	1.023286E+0	9.427306E-1	1.019081E+0	9.571777E-1	1.030179E+0	1.009443E+0	1.025802E+0	9.654516E-1	9.879857E-1	1.015456E+0	9.429906E-1	9.558389E-1	9.994329E-1	1.009384E+0	9.606931E-1	1.025142E+0	9.488214E-1	9.872405E-1	9.942068E-1	1.024994E+0	1.009292E+0	9.888453E-1	1.012294E+0	9.889326E-1	9.359202E-1	9.699870E-1	1.002701E+0	1.007253E+0	9.686279E-1	1.008752E+0	9.796963E-1	9.783582E-1	9.959251E-1	9.598509E-1	1.035418E+0	9.743388E-1	1.016137E+0	9.880190E-1	1.031410E+0	9.768694E-1	9.916693E-1	9.724246E-1	1.006149E+0	9.550153E-1	9.636374E-1	9.710960E-1	9.554339E-1	9.991503E-1	1.014225E+0	9.862228E-1	9.317221E-1	9.878365E-1	1.001910E+0	9.614030E-1	1.019781E+0	1.020761E+0	9.763365E-1	9.834538E-1	1.003394E+0	9.970573E-1	9.879079E-1	9.447988E-1	1.016420E+0	9.971525E-1	1.023242E+0	9.851795E-1	1.033337E+0	1.049080E+0	9.837354E-1	1.013987E+0	9.650990E-1	1.056770E+0	9.915684E-1	9.714494E-1	9.914581E-1	1.013582E+0	9.745133E-1	9.875822E-1	1.010533E+0	9.993582E-1	9.889380E-1	9.832184E-1	1.008787E+0	9.980206E-1	1.030846E+0	9.570877E-1	1.036682E+0	9.711619E-1	1.028035E+0	1.002077E+0	9.808213E-1	9.860814E-1	9.837022E-1	1.001778E+0	9.869695E-1	1.038640E+0	9.493180E-1	9.436947E-1	9.854213E-1	9.469246E-1	1.005037E+0	9.865978E-1	9.877463E-1	1.038986E+0	9.884374E-1	1.050266E+0	1.001133E+0	1.016360E+0	9.412336E-1	9.576774E-1	1.007424E+0	1.010222E+0	1.027548E+0	9.823691E-1	1.035138E+0	1.027857E+0	9.625459E-1	9.878638E-1	9.849296E-1	9.396468E-1	9.791617E-1	1.036070E+0	1.003376E+0	9.985977E-1	9.708307E-1	9.761038E-1	9.922064E-1	1.015684E+0	9.640245E-1	1.006153E+0	1.002410E+0	9.420336E-1	9.824488E-1	9.895957E-1	9.598868E-1	9.716587E-1	9.977909E-1	1.012996E+0	9.949629E-1	9.896671E-1	1.000414E+0	1.012251E+0	9.753517E-1	1.042338E+0	9.935369E-1	1.018213E+0	1.030143E+0	1.071925E+0
5.425460E+2	1.005275E+0	9.691805E-1	9.541233E-1	1.004157E+0	9.840790E-1	9.487531E-1	9.776538E-1	9.693151E-1	9.771798E-1	9.551015E-1	1.006508E+0	9.311621E-1	1.024344E+0	9.805866E-1	9.476071E-1	9.712136E-1	1.012779E+0	9.630233E-1	9.941164E-1	1.017821E+0	9.641215E-1	9.401891E-1	9.721722E-1	9.403936E-1	9.161164E-1	9.820569E-1	9.327219E-1	1.016143E+0	9.557998E-1	1.007077E+0	9.498454E-1	1.025185E+0	1.008970E+0	9.378463E-1	9.918333E-1	9.748870E-1	9.893146E-1	9.497946E-1	9.337652E-1	9.350566E-1	9.745686E-1	9.725194E-1	9.557738E-1	9.673579E-1	9.746025E-1	9.962025E-1	9.383582E-1	9.406744E-1	9.796118E-1	9.763828E-1	9.297881E-1	9.498304E-1	9.758600E-1	9.574177E-1	9.789040E-1	1.006926E+0	9.208857E-1	1.013343E+0	9.665823E-1	1.008401E+0	9.543699E-1	9.905396E-1	9.527110E-1	8.943543E-1	9.775143E-1	9.798134E-1	1.001253E+0	9.739905E-1	9.637016E-1	9.394056E-1	9.156236E-1	9.896249E-1	9.698098E-1	9.426008E-1	9.308246E-1	1.034618E+0	9.871862E-1	9.834373E-1	9.813189E-1	9.876215E-1	9.642942E-1	9.778395E-1	1.006787E+0	9.372113E-1	9.620460E-1	9.885785E-1	9.735196E-1	9.571218E-1	9.431825E-1	1.013669E+0	1.015491E+0	9.790392E-1	1.042397E+0	9.786809E-1	9.826428E-1	9.658026E-1	1.032294E+0	9.636788E-1	9.701548E-1	9.293002E-1	9.452941E-1	9.437060E-1	9.581883E-1	9.924232E-1	9.372614E-1	9.755900E-1	9.904245E-1	9.936915E-1	9.776864E-1	9.754018E-1	9.612778E-1	9.660290E-1	9.458979E-1	9.605836E-1	9.579059E-1	1.001782E+0	9.658188E-1	9.548593E-1	9.571426E-1	9.541640E-1	1.000680E+0	9.368934E-1	9.234384E-1	9.853085E-1	9.827386E-1	9.727446E-1	1.034741E+0	9.888730E-1	9.790212E-1	9.635604E-1	9.122465E-1	9.455484E-1	9.805133E-1	9.751124E-1	1.004691E+0	1.026693E+0	8.993867E-1	9.928277E-1	9.967209E-1	9.460542E-1	9.790748E-1	1.021455E+0	9.765914E-1	9.677967E-1	9.744114E-1	9.859387E-1	9.426546E-1	9.754618E-1	9.409399E-1	9.671110E-1	9.647821E-1	9.999623E-1	9.230993E-1	9.415460E-1	9.718025E-1	9.311638E-1	9.634520E-1	9.606858E-1	9.975286E-1	1.008999E+0	9.567640E-1	9.650557E-1	9.744054E-1	9.883188E-1	1.011844E+0	9.918392E-1	9.876559E-1	9.563820E-1	1.002771E+0	9.131506E-1	9.253465E-1
5.427710E+2	1.063608E+0	1.047033E+0	1.054581E+0	1.076557E+0	1.085791E+0	1.042189E+0	1.057823E+0	1.062570E+0	1.030921E+0	1.030203E+0	1.097687E+0	1.084818E+0	1.036762E+0	1.069450E+0	1.052769E+0	1.106376E+0	1.043129E+0	1.043866E+0	1.040271E+0	1.059644E+0	1.095920E+0	1.042925E+0	1.062732E+0	1.071347E+0	1.010236E+0	1.040218E+0	9.967749E-1	1.077692E+0	1.075476E+0	1.118529E+0	1.014032E+0	1.096239E+0	1.151300E+0	1.054928E+0	1.054707E+0	1.110950E+0	1.066928E+0	1.073513E+0	1.066797E+0	1.103686E+0	1.008762E+0	1.068126E+0	1.069402E+0	1.070098E+0	1.048589E+0	1.037800E+0	1.052397E+0	1.037459E+0	1.045427E+0	1.041426E+0	1.027811E+0	9.662994E-1	1.079841E+0	1.066921E+0	1.035223E+0	1.050095E+0	1.059823E+0	1.032725E+0	1.073774E+0	1.046004E+0	1.012275E+0	1.044673E+0	1.049072E+0	1.061654E+0	1.055566E+0	1.092790E+0	1.043279E+0	1.026883E+0	1.060920E+0	1.055340E+0	1.090750E+0	1.115979E+0	1.065072E+0	1.010885E+0	1.074592E+0	1.039840E+0	1.062257E+0	1.052478E+0	1.090381E+0	1.064005E+0	1.038317E+0	1.088631E+0	1.048899E+0	1.051261E+0	1.057361E+0	1.031558E+0	1.074242E+0	1.057469E+0	1.048840E+0	1.087411E+0	1.073816E+0	1.001026E+0	1.114233E+0	1.046808E+0	1.073514E+0	1.023027E+0	1.076897E+0	1.062497E+0	1.041078E+0	1.024807E+0	1.040245E+0	1.069059E+0	1.040206E+0	1.086365E+0	1.053391E+0	1.056661E+0	1.040626E+0	1.096727E+0	1.090534E+0	1.053712E+0	1.048570E+0	1.033325E+0	1.094640E+0	1.056141E+0	1.051008E+0	1.078180E+0	1.070286E+0	1.070807E+0	1.052076E+0	1.059806E+0	1.040913E+0	1.039956E+0	1.003591E+0	1.085504E+0	1.064071E+0	1.095974E+0	1.072843E+0	1.051826E+0	1.091632E+0	1.039944E+0	1.031313E+0	1.056036E+0	1.071435E+0	1.056545E+0	1.079122E+0	1.104650E+0	1.049166E+0	1.058605E+0	1.063567E+0	1.080042E+0	1.034896E+0	1.056409E+0	1.069611E+0	1.021731E+0	1.109149E+0	1.084350E+0	1.102405E+0	1.021256E+0	1.010388E+0	1.113928E+0	1.056928E+0	1.127262E+0	1.077255E+0	1.077046E+0	1.091530E+0	1.039569E+0	1.054285E+0	1.080710E+0	1.022404E+0	1.061130E+0	1.086481E+0	1.087811E+0	1.039940E+0	1.043606E+0	1.053816E+0	1.036356E+0	1.044111E+0	1.035154E+0	1.037710E+0	1.134365E+0	1.083558E+0
5.430120E+2	1.191628E+0	1.145085E+0	1.209092E+0	1.184530E+0	1.169970E+0	1.231880E+0	1.208520E+0	1.211868E+0	1.177946E+0	1.218267E+0	1.207418E+0	1.208923E+0	1.216266E+0	1.136772E+0	1.214731E+0	1.171703E+0	1.233392E+0	1.186345E+0	1.251702E+0	1.211619E+0	1.131341E+0	1.209840E+0	1.194240E+0	1.236154E+0	1.146236E+0	1.205929E+0	1.143966E+0	1.243628E+0	1.222259E+0	1.266690E+0	1.191639E+0	1.220766E+0	1.188151E+0	1.179943E+0	1.205782E+0	1.235893E+0	1.252825E+0	1.239657E+0	1.192270E+0	1.172216E+0	1.184708E+0	1.211733E+0	1.241570E+0	1.199088E+0	1.169228E+0	1.163047E+0	1.187239E+0	1.187280E+0	1.218532E+0	1.199342E+0	1.238400E+0	1.182811E+0	1.215807E+0	1.219959E+0	1.199190E+0	1.196840E+0	1.168511E+0	1.246410E+0	1.210415E+0	1.218417E+0	1.167432E+0	1.179501E+0	1.161277E+0	1.198001E+0	1.180795E+0	1.219939E+0	1.203734E+0	1.206617E+0	1.165207E+0	1.210509E+0	1.164586E+0	1.198811E+0	1.155432E+0	1.173285E+0	1.178357E+0	1.189416E+0	1.154584E+0	1.202187E+0	1.247578E+0	1.230119E+0	1.212941E+0	1.227332E+0	1.179794E+0	1.212964E+0	1.167647E+0	1.198499E+0	1.192250E+0	1.224338E+0	1.150740E+0	1.213314E+0	1.200681E+0	1.164700E+0	1.249026E+0	1.185205E+0	1.203434E+0	1.213992E+0	1.250011E+0	1.167173E+0	1.140496E+0	1.232738E+0	1.152503E+0	1.129093E+0	1.201370E+0	1.221990E+0	1.149916E+0	1.223323E+0	1.216650E+0	1.201446E+0	1.192048E+0	1.188425E+0	1.185354E+0	1.177410E+0	1.177626E+0	1.163872E+0	1.173263E+0	1.154794E+0	1.198452E+0	1.186321E+0	1.170117E+0	1.174614E+0	1.206331E+0	1.116971E+0	1.152359E+0	1.231450E+0	1.164439E+0	1.187053E+0	1.214382E+0	1.247055E+0	1.212163E+0	1.185031E+0	1.199302E+0	1.177610E+0	1.144307E+0	1.147521E+0	1.191292E+0	1.185760E+0	1.152810E+0	1.210555E+0	1.182672E+0	1.240911E+0	1.248047E+0	1.202723E+0	1.153629E+0	1.209190E+0	1.197986E+0	1.150260E+0	1.201581E+0	1.142526E+0	1.118315E+0	1.225827E+0	1.233197E+0	1.207853E+0	1.189233E+0	1.244971E+0	1.195676E+0	1.218847E+0	1.201337E+0	1.190688E+0	1.198945E+0	1.213920E+0	1.233868E+0	1.221217E+0	1.177636E+0	1.177140E+0	1.156880E+0	1.190161E+0	1.178070E+0	1.210211E+0	1.160956E+0	1.179072E+0	1.288874E+0
5.433020E+2	1.444068E+0	1.409500E+0	1.366154E+0	1.384340E+0	1.426792E+0	1.410059E+0	1.389019E+0	1.432569E+0	1.383934E+0	1.380706E+0	1.396315E+0	1.464613E+0	1.376530E+0	1.469738E+0	1.450602E+0	1.374180E+0	1.421655E+0	1.377362E+0	1.411292E+0	1.405709E+0	1.432719E+0	1.336519E+0	1.362472E+0	1.390942E+0	1.325125E+0	1.385591E+0	1.376917E+0	1.356059E+0	1.369617E+0	1.458756E+0	1.358258E+0	1.429753E+0	1.441000E+0	1.384702E+0	1.364739E+0	1.385478E+0	1.456689E+0	1.416204E+0	1.378482E+0	1.408164E+0	1.391132E+0	1.429706E+0	1.387022E+0	1.416565E+0	1.433409E+0	1.370430E+0	1.368604E+0	1.387607E+0	1.428952E+0	1.354407E+0	1.369749E+0	1.391064E+0	1.382493E+0	1.389012E+0	1.359598E+0	1.417665E+0	1.439216E+0	1.361249E+0	1.399523E+0	1.401129E+0	1.424074E+0	1.443342E+0	1.383240E+0	1.438713E+0	1.391358E+0	1.448367E+0	1.415554E+0	1.413730E+0	1.407113E+0	1.398690E+0	1.394309E+0	1.439997E+0	1.417793E+0	1.388819E+0	1.352880E+0	1.401477E+0	1.387795E+0	1.451747E+0	1.439825E+0	1.404947E+0	1.379492E+0	1.389094E+0	1.394760E+0	1.370480E+0	1.416952E+0	1.361763E+0	1.378417E+0	1.367672E+0	1.375746E+0	1.395162E+0	1.331813E+0	1.356362E+0	1.467384E+0	1.331325E+0	1.434874E+0	1.334009E+0	1.315926E+0	1.383688E+0	1.372598E+0	1.389150E+0	1.396762E+0	1.380201E+0	1.384412E+0	1.417947E+0	1.361774E+0	1.404694E+0	1.379265E+0	1.378731E+0	1.399954E+0	1.457142E+0	1.458690E+0	1.333123E+0	1.378440E+0	1.379011E+0	1.380372E+0	1.451271E+0	1.434907E+0	1.330322E+0	1.457526E+0	1.364818E+0	1.329035E+0	1.305778E+0	1.333031E+0	1.407987E+0	1.443358E+0	1.413814E+0	1.349642E+0	1.367923E+0	1.361928E+0	1.331688E+0	1.346397E+0	1.356840E+0	1.403303E+0	1.406579E+0	1.319422E+0	1.416845E+0	1.365023E+0	1.416336E+0	1.397184E+0	1.361674E+0	1.413764E+0	1.363452E+0	1.412103E+0	1.423985E+0	1.363400E+0	1.334771E+0	1.352481E+0	1.383424E+0	1.366092E+0	1.387109E+0	1.397139E+0	1.387863E+0	1.348200E+0	1.375128E+0	1.416296E+0	1.403572E+0	1.380450E+0	1.424390E+0	1.380529E+0	1.374428E+0	1.317106E+0	1.319012E+0	1.344320E+0	1.345302E+0	1.390363E+0	1.427760E+0	1.375678E+0	1.386892E+0	1.404347E+0	1.393886E+0	1.331493E+0
5.435270E+2	1.551310E+0	1.575594E+0	1.492965E+0	1.556982E+0	1.543383E+0	1.578246E+0	1.544910E+0	1.592601E+0	1.500985E+0	1.496022E+0	1.489539E+0	1.562605E+0	1.543166E+0	1.554520E+0	1.535031E+0	1.567127E+0	1.530507E+0	1.499471E+0	1.501841E+0	1.533140E+0	1.550749E+0	1.484429E+0	1.513138E+0	1.579110E+0	1.494004E+0	1.477612E+0	1.540342E+0	1.594637E+0	1.530906E+0	1.555166E+0	1.482373E+0	1.499024E+0	1.515780E+0	1.522447E+0	1.478114E+0	1.501808E+0	1.516464E+0	1.542980E+0	1.487404E+0	1.527541E+0	1.536869E+0	1.547056E+0	1.597261E+0	1.568685E+0	1.518780E+0	1.543240E+0	1.510971E+0	1.486103E+0	1.490679E+0	1.502657E+0	1.556640E+0	1.443086E+0	1.516545E+0	1.507915E+0	1.477068E+0	1.548563E+0	1.502080E+0	1.532820E+0	1.508436E+0	1.556634E+0	1.540451E+0	1.540217E+0	1.513172E+0	1.483705E+0	1.537500E+0	1.536837E+0	1.546705E+0	1.500653E+0	1.482572E+0	1.461091E+0	1.477863E+0	1.549519E+0	1.523300E+0	1.558696E+0	1.549518E+0	1.529270E+0	1.485945E+0	1.509949E+0	1.524662E+0	1.483958E+0	1.564065E+0	1.536160E+0	1.500446E+0	1.508309E+0	1.433151E+0	1.517791E+0	1.438336E+0	1.518600E+0	1.509764E+0	1.516606E+0	1.508885E+0	1.425391E+0	1.544960E+0	1.498882E+0	1.563856E+0	1.488215E+0	1.542745E+0	1.529398E+0	1.498286E+0	1.494101E+0	1.481409E+0	1.521640E+0	1.495716E+0	1.501393E+0	1.485638E+0	1.525854E+0	1.493530E+0	1.546171E+0	1.513222E+0	1.472322E+0	1.531817E+0	1.461308E+0	1.473218E+0	1.489735E+0	1.478815E+0	1.488996E+0	1.525576E+0	1.482472E+0	1.516175E+0	1.595617E+0	1.451759E+0	1.482624E+0	1.520261E+0	1.498544E+0	1.520538E+0	1.499770E+0	1.444460E+0	1.510468E+0	1.542947E+0	1.495237E+0	1.481667E+0	1.447914E+0	1.496522E+0	1.510787E+0	1.489747E+0	1.513004E+0	1.456772E+0	1.558242E+0	1.514260E+0	1.450104E+0	1.537370E+0	1.505799E+0	1.497196E+0	1.473046E+0	1.524725E+0	1.483686E+0	1.502496E+0	1.445408E+0	1.487258E+0	1.458055E+0	1.471492E+0	1.516784E+0	1.477655E+0	1.501343E+0	1.497087E+0	1.511741E+0	1.555437E+0	1.526517E+0	1.481878E+0	1.494193E+0	1.518814E+0	1.489812E+0	1.458155E+0	1.474204E+0	1.542733E+0	1.483040E+0	1.440797E+0	1.525480E+0	1.506224E+0	1.444370E+0	1.459010E+0
5.437590E+2	1.681477E+0	1.636181E+0	1.621978E+0	1.645368E+0	1.619067E+0	1.581085E+0	1.653628E+0	1.611974E+0	1.619825E+0	1.626483E+0	1.622508E+0	1.646136E+0	1.735549E+0	1.575036E+0	1.617824E+0	1.628213E+0	1.645362E+0	1.582501E+0	1.583659E+0	1.661861E+0	1.616887E+0	1.616970E+0	1.617037E+0	1.627927E+0	1.591164E+0	1.642360E+0	1.570204E+0	1.670438E+0	1.656407E+0	1.614178E+0	1.552670E+0	1.651875E+0	1.631247E+0	1.576734E+0	1.601025E+0	1.568008E+0	1.711256E+0	1.627158E+0	1.600414E+0	1.655753E+0	1.682452E+0	1.653578E+0	1.644495E+0	1.629730E+0	1.608874E+0	1.584148E+0	1.620552E+0	1.612304E+0	1.622774E+0	1.666205E+0	1.676512E+0	1.597193E+0	1.662159E+0	1.622501E+0	1.587387E+0	1.664769E+0	1.640731E+0	1.654093E+0	1.550785E+0	1.702161E+0	1.535094E+0	1.636607E+0	1.652374E+0	1.564939E+0	1.577567E+0	1.624914E+0	1.553266E+0	1.617241E+0	1.611912E+0	1.636297E+0	1.558306E+0	1.686038E+0	1.610991E+0	1.630004E+0	1.644226E+0	1.627074E+0	1.589264E+0	1.664406E+0	1.607616E+0	1.602622E+0	1.651594E+0	1.566942E+0	1.559992E+0	1.560810E+0	1.642929E+0	1.594372E+0	1.587747E+0	1.645247E+0	1.605879E+0	1.625222E+0	1.614827E+0	1.624336E+0	1.720350E+0	1.562310E+0	1.640079E+0	1.596654E+0	1.617543E+0	1.552818E+0	1.577828E+0	1.590931E+0	1.629752E+0	1.601958E+0	1.602284E+0	1.591295E+0	1.587984E+0	1.582588E+0	1.618413E+0	1.593293E+0	1.628152E+0	1.619253E+0	1.565388E+0	1.558685E+0	1.560290E+0	1.587907E+0	1.563766E+0	1.558456E+0	1.648737E+0	1.620242E+0	1.601394E+0	1.617926E+0	1.637806E+0	1.539394E+0	1.551283E+0	1.630742E+0	1.642715E+0	1.572783E+0	1.598020E+0	1.585901E+0	1.597599E+0	1.570840E+0	1.575387E+0	1.619642E+0	1.599930E+0	1.573520E+0	1.570071E+0	1.626821E+0	1.582018E+0	1.595071E+0	1.620037E+0	1.624348E+0	1.626439E+0	1.579961E+0	1.541903E+0	1.608455E+0	1.650571E+0	1.550898E+0	1.503680E+0	1.616465E+0	1.567131E+0	1.646163E+0	1.542813E+0	1.619338E+0	1.552639E+0	1.587703E+0	1.630913E+0	1.634031E+0	1.611405E+0	1.628684E+0	1.616748E+0	1.575189E+0	1.576746E+0	1.631849E+0	1.583315E+0	1.542300E+0	1.596138E+0	1.609809E+0	1.610149E+0	1.646083E+0	1.561980E+0	1.537267E+0	1.639529E+0
5.440280E+2	1.713404E+0	1.616564E+0	1.672282E+0	1.627835E+0	1.649385E+0	1.639051E+0	1.674814E+0	1.635254E+0	1.702446E+0	1.689437E+0	1.658956E+0	1.643341E+0	1.665357E+0	1.618246E+0	1.675854E+0	1.674728E+0	1.665771E+0	1.651811E+0	1.689910E+0	1.656215E+0	1.644009E+0	1.666183E+0	1.645684E+0	1.664136E+0	1.614314E+0	1.622442E+0	1.554747E+0	1.695802E+0	1.767421E+0	1.740308E+0	1.640087E+0	1.690326E+0	1.686854E+0	1.668849E+0	1.600729E+0	1.672923E+0	1.689394E+0	1.705177E+0	1.680166E+0	1.669027E+0	1.648254E+0	1.708223E+0	1.698774E+0	1.671211E+0	1.671363E+0	1.628507E+0	1.614711E+0	1.613461E+0	1.675189E+0	1.727828E+0	1.629421E+0	1.628816E+0	1.695860E+0	1.689497E+0	1.560708E+0	1.640028E+0	1.671677E+0	1.707295E+0	1.609996E+0	1.651128E+0	1.662013E+0	1.644722E+0	1.687019E+0	1.634773E+0	1.658702E+0	1.648936E+0	1.618438E+0	1.683690E+0	1.634970E+0	1.615243E+0	1.708556E+0	1.685599E+0	1.634527E+0	1.606813E+0	1.635114E+0	1.684896E+0	1.624061E+0	1.675955E+0	1.654312E+0	1.674333E+0	1.684810E+0	1.700597E+0	1.664216E+0	1.634609E+0	1.640476E+0	1.651312E+0	1.632222E+0	1.667422E+0	1.588393E+0	1.687295E+0	1.662084E+0	1.639775E+0	1.689677E+0	1.628018E+0	1.693173E+0	1.639004E+0	1.668453E+0	1.669167E+0	1.643607E+0	1.605575E+0	1.567319E+0	1.600422E+0	1.599719E+0	1.674377E+0	1.619287E+0	1.619492E+0	1.665297E+0	1.662370E+0	1.736114E+0	1.609591E+0	1.644317E+0	1.632654E+0	1.699946E+0	1.705899E+0	1.648055E+0	1.695450E+0	1.648886E+0	1.637581E+0	1.697869E+0	1.640749E+0	1.658309E+0	1.595883E+0	1.631755E+0	1.635375E+0	1.650707E+0	1.609322E+0	1.651477E+0	1.630082E+0	1.609966E+0	1.675081E+0	1.693858E+0	1.626466E+0	1.667024E+0	1.640259E+0	1.681957E+0	1.638259E+0	1.665421E+0	1.677026E+0	1.628176E+0	1.590451E+0	1.628334E+0	1.617109E+0	1.634848E+0	1.646188E+0	1.624722E+0	1.632452E+0	1.606529E+0	1.604675E+0	1.670130E+0	1.694558E+0	1.621483E+0	1.672266E+0	1.591553E+0	1.625457E+0	1.630167E+0	1.661430E+0	1.704755E+0	1.732519E+0	1.659209E+0	1.619364E+0	1.527422E+0	1.646447E+0	1.601533E+0	1.576786E+0	1.603144E+0	1.634961E+0	1.559912E+0	1.622593E+0	1.606479E+0	1.577581E+0	1.607728E+0
5.442650E+2	1.702084E+0	1.686542E+0	1.660564E+0	1.690781E+0	1.658389E+0	1.731460E+0	1.677659E+0	1.686549E+0	1.675027E+0	1.673465E+0	1.655854E+0	1.680796E+0	1.692960E+0	1.633109E+0	1.643189E+0	1.638017E+0	1.675018E+0	1.600328E+0	1.683507E+0	1.695461E+0	1.689826E+0	1.659793E+0	1.648247E+0	1.646338E+0	1.625390E+0	1.657111E+0	1.639091E+0	1.629750E+0	1.686444E+0	1.666468E+0	1.648595E+0	1.663595E+0	1.709669E+0	1.699352E+0	1.589699E+0	1.656459E+0	1.664397E+0	1.589706E+0	1.647223E+0	1.682656E+0	1.695225E+0	1.670175E+0	1.656754E+0	1.680442E+0	1.625451E+0	1.627490E+0	1.609807E+0	1.619050E+0	1.643203E+0	1.640786E+0	1.641395E+0	1.623634E+0	1.626772E+0	1.646131E+0	1.656122E+0	1.625314E+0	1.690879E+0	1.693608E+0	1.584846E+0	1.674645E+0	1.703994E+0	1.665797E+0	1.670640E+0	1.628702E+0	1.608776E+0	1.674543E+0	1.634615E+0	1.559784E+0	1.630839E+0	1.598887E+0	1.654631E+0	1.710104E+0	1.708773E+0	1.654944E+0	1.606100E+0	1.655937E+0	1.686720E+0	1.624278E+0	1.740371E+0	1.617322E+0	1.652439E+0	1.697102E+0	1.644775E+0	1.620452E+0	1.657910E+0	1.632554E+0	1.610702E+0	1.669770E+0	1.607267E+0	1.610916E+0	1.682469E+0	1.625843E+0	1.664727E+0	1.589205E+0	1.702786E+0	1.628908E+0	1.647044E+0	1.656792E+0	1.606507E+0	1.599462E+0	1.654335E+0	1.624039E+0	1.623825E+0	1.619800E+0	1.647798E+0	1.636401E+0	1.628903E+0	1.624058E+0	1.673451E+0	1.640524E+0	1.661035E+0	1.592875E+0	1.668444E+0	1.634127E+0	1.677351E+0	1.580810E+0	1.639044E+0	1.605312E+0	1.638628E+0	1.679214E+0	1.606154E+0	1.602153E+0	1.662392E+0	1.679624E+0	1.673373E+0	1.622263E+0	1.627522E+0	1.628718E+0	1.598533E+0	1.594360E+0	1.597666E+0	1.587164E+0	1.642427E+0	1.612541E+0	1.591886E+0	1.702909E+0	1.649058E+0	1.654968E+0	1.675981E+0	1.606568E+0	1.591057E+0	1.580737E+0	1.590962E+0	1.642788E+0	1.666053E+0	1.660943E+0	1.642452E+0	1.601884E+0	1.647475E+0	1.640443E+0	1.653704E+0	1.683745E+0	1.595423E+0	1.630555E+0	1.600678E+0	1.626296E+0	1.635864E+0	1.600633E+0	1.628187E+0	1.621100E+0	1.668317E+0	1.627868E+0	1.620869E+0	1.593829E+0	1.582550E+0	1.592635E+0	1.545523E+0	1.670101E+0	1.623016E+0	1.612858E+0	1.634937E+0
5.445240E+2	1.721855E+0	1.548795E+0	1.644085E+0	1.618502E+0	1.685184E+0	1.611357E+0	1.646041E+0	1.617938E+0	1.662765E+0	1.611933E+0	1.627800E+0	1.640923E+0	1.653374E+0	1.625891E+0	1.649368E+0	1.623312E+0	1.683044E+0	1.586804E+0	1.652327E+0	1.592975E+0	1.628097E+0	1.664234E+0	1.580181E+0	1.627873E+0	1.632118E+0	1.647204E+0	1.631838E+0	1.613769E+0	1.645887E+0	1.626453E+0	1.607324E+0	1.695984E+0	1.654632E+0	1.637775E+0	1.587164E+0	1.672893E+0	1.632985E+0	1.619483E+0	1.619766E+0	1.595715E+0	1.677019E+0	1.610079E+0	1.575574E+0	1.615775E+0	1.654004E+0	1.572218E+0	1.604894E+0	1.575233E+0	1.594170E+0	1.687525E+0	1.593260E+0	1.604717E+0	1.626414E+0	1.663074E+0	1.548045E+0	1.639985E+0	1.675968E+0	1.672278E+0	1.651681E+0	1.595837E+0	1.632361E+0	1.640934E+0	1.617203E+0	1.605805E+0	1.599856E+0	1.630125E+0	1.657082E+0	1.658997E+0	1.638049E+0	1.588916E+0	1.604981E+0	1.630300E+0	1.583055E+0	1.606923E+0	1.606957E+0	1.587751E+0	1.625072E+0	1.636522E+0	1.620213E+0	1.641818E+0	1.621150E+0	1.640590E+0	1.623643E+0	1.643189E+0	1.697372E+0	1.638324E+0	1.542532E+0	1.600775E+0	1.602611E+0	1.635306E+0	1.643196E+0	1.568855E+0	1.663008E+0	1.619477E+0	1.664059E+0	1.568282E+0	1.561459E+0	1.636046E+0	1.621060E+0	1.605521E+0	1.639441E+0	1.660438E+0	1.576920E+0	1.599080E+0	1.623470E+0	1.661529E+0	1.554752E+0	1.556499E+0	1.619030E+0	1.594901E+0	1.589327E+0	1.613761E+0	1.578669E+0	1.613394E+0	1.646888E+0	1.586687E+0	1.658997E+0	1.572228E+0	1.591647E+0	1.585350E+0	1.634121E+0	1.552873E+0	1.591975E+0	1.634047E+0	1.675538E+0	1.644103E+0	1.624456E+0	1.621621E+0	1.575475E+0	1.596227E+0	1.566732E+0	1.588279E+0	1.611646E+0	1.575973E+0	1.561914E+0	1.629800E+0	1.571654E+0	1.617838E+0	1.645429E+0	1.600727E+0	1.621394E+0	1.619575E+0	1.650255E+0	1.606398E+0	1.553938E+0	1.624551E+0	1.583293E+0	1.580509E+0	1.551154E+0	1.588898E+0	1.530453E+0	1.650662E+0	1.591185E+0	1.553956E+0	1.618894E+0	1.578006E+0	1.680434E+0	1.609867E+0	1.565065E+0	1.559208E+0	1.630577E+0	1.613777E+0	1.618209E+0	1.659715E+0	1.635928E+0	1.552782E+0	1.537352E+0	1.597328E+0	1.573972E+0	1.560852E+0	1.525263E+0
5.447660E+2	1.596634E+0	1.552001E+0	1.520973E+0	1.597699E+0	1.577678E+0	1.563272E+0	1.544001E+0	1.533901E+0	1.552857E+0	1.528961E+0	1.527538E+0	1.500738E+0	1.545509E+0	1.550658E+0	1.556066E+0	1.529711E+0	1.513569E+0	1.540308E+0	1.541934E+0	1.538198E+0	1.603283E+0	1.520192E+0	1.473642E+0	1.548262E+0	1.483255E+0	1.569185E+0	1.503878E+0	1.587621E+0	1.553275E+0	1.535962E+0	1.518738E+0	1.531855E+0	1.581758E+0	1.603210E+0	1.545489E+0	1.562241E+0	1.583195E+0	1.527145E+0	1.532199E+0	1.548735E+0	1.535073E+0	1.550285E+0	1.554542E+0	1.541180E+0	1.578181E+0	1.485307E+0	1.530283E+0	1.495734E+0	1.521432E+0	1.545565E+0	1.494051E+0	1.448027E+0	1.548320E+0	1.558874E+0	1.498498E+0	1.559253E+0	1.546258E+0	1.560159E+0	1.472182E+0	1.528524E+0	1.523798E+0	1.598835E+0	1.528274E+0	1.497313E+0	1.501538E+0	1.585655E+0	1.549054E+0	1.451782E+0	1.545867E+0	1.530665E+0	1.481196E+0	1.531607E+0	1.515047E+0	1.537793E+0	1.519546E+0	1.557072E+0	1.529452E+0	1.516531E+0	1.560562E+0	1.615802E+0	1.520721E+0	1.530903E+0	1.585853E+0	1.488822E+0	1.509132E+0	1.535541E+0	1.457410E+0	1.470735E+0	1.492334E+0	1.521505E+0	1.563426E+0	1.540859E+0	1.577277E+0	1.514940E+0	1.546587E+0	1.481588E+0	1.508176E+0	1.526769E+0	1.525030E+0	1.500605E+0	1.505677E+0	1.528592E+0	1.547315E+0	1.484372E+0	1.482698E+0	1.480101E+0	1.484941E+0	1.462804E+0	1.575225E+0	1.526438E+0	1.509037E+0	1.484206E+0	1.556730E+0	1.529604E+0	1.500432E+0	1.540790E+0	1.528194E+0	1.499334E+0	1.486243E+0	1.526742E+0	1.540002E+0	1.506864E+0	1.498128E+0	1.588072E+0	1.547852E+0	1.507563E+0	1.547412E+0	1.514012E+0	1.513298E+0	1.541819E+0	1.477634E+0	1.512231E+0	1.552830E+0	1.539305E+0	1.500717E+0	1.511397E+0	1.482991E+0	1.585921E+0	1.579570E+0	1.489860E+0	1.521263E+0	1.545069E+0	1.505615E+0	1.537975E+0	1.440353E+0	1.508142E+0	1.531315E+0	1.528589E+0	1.486944E+0	1.562652E+0	1.461054E+0	1.582842E+0	1.456067E+0	1.536445E+0	1.551415E+0	1.480877E+0	1.557366E+0	1.515452E+0	1.523142E+0	1.518300E+0	1.560095E+0	1.519067E+0	1.491752E+0	1.471376E+0	1.519217E+0	1.482306E+0	1.481450E+0	1.552787E+0	1.478568E+0	1.505376E+0	1.513369E+0
5.450200E+2	1.421121E+0	1.424511E+0	1.399193E+0	1.405792E+0	1.456916E+0	1.459292E+0	1.426320E+0	1.480570E+0	1.407381E+0	1.465383E+0	1.401259E+0	1.452113E+0	1.456463E+0	1.382530E+0	1.446422E+0	1.423313E+0	1.452843E+0	1.407219E+0	1.482611E+0	1.449932E+0	1.453179E+0	1.456773E+0	1.436658E+0	1.452453E+0	1.354447E+0	1.424105E+0	1.400419E+0	1.470556E+0	1.465192E+0	1.400496E+0	1.416828E+0	1.446678E+0	1.426378E+0	1.389244E+0	1.357147E+0	1.441987E+0	1.501627E+0	1.451562E+0	1.409261E+0	1.392335E+0	1.441805E+0	1.475244E+0	1.390521E+0	1.418774E+0	1.411673E+0	1.419099E+0	1.402485E+0	1.371819E+0	1.413502E+0	1.474492E+0	1.374871E+0	1.460684E+0	1.423659E+0	1.372435E+0	1.393752E+0	1.452702E+0	1.440241E+0	1.418679E+0	1.409139E+0	1.444682E+0	1.470701E+0	1.407758E+0	1.396956E+0	1.420294E+0	1.442905E+0	1.380164E+0	1.412483E+0	1.411661E+0	1.416987E+0	1.352283E+0	1.421614E+0	1.423059E+0	1.411276E+0	1.419481E+0	1.438382E+0	1.418065E+0	1.470494E+0	1.423390E+0	1.416441E+0	1.448418E+0	1.436636E+0	1.473269E+0	1.382898E+0	1.427597E+0	1.423805E+0	1.425071E+0	1.408643E+0	1.413500E+0	1.405043E+0	1.430196E+0	1.508917E+0	1.396309E+0	1.473384E+0	1.413786E+0	1.466133E+0	1.393614E+0	1.397893E+0	1.366206E+0	1.392545E+0	1.400506E+0	1.377836E+0	1.385078E+0	1.437877E+0	1.383524E+0	1.421930E+0	1.410146E+0	1.389661E+0	1.391344E+0	1.501234E+0	1.374732E+0	1.447980E+0	1.378769E+0	1.360909E+0	1.420141E+0	1.421434E+0	1.450822E+0	1.438765E+0	1.449942E+0	1.393722E+0	1.407117E+0	1.408513E+0	1.369589E+0	1.388121E+0	1.442861E+0	1.412391E+0	1.388172E+0	1.397922E+0	1.411479E+0	1.414425E+0	1.392043E+0	1.388600E+0	1.366360E+0	1.379109E+0	1.414860E+0	1.354853E+0	1.430018E+0	1.380241E+0	1.487632E+0	1.448367E+0	1.364900E+0	1.457231E+0	1.391767E+0	1.434073E+0	1.440830E+0	1.489970E+0	1.431475E+0	1.384139E+0	1.390124E+0	1.349723E+0	1.473598E+0	1.410663E+0	1.424379E+0	1.395007E+0	1.391995E+0	1.391596E+0	1.398803E+0	1.454935E+0	1.424994E+0	1.401673E+0	1.428764E+0	1.424660E+0	1.398406E+0	1.374153E+0	1.375791E+0	1.403295E+0	1.357836E+0	1.361594E+0	1.402708E+0	1.360576E+0	1.342552E+0	1.375561E+0
5.452690E+2	1.389320E+0	1.314269E+0	1.314223E+0	1.341054E+0	1.327040E+0	1.372595E+0	1.339808E+0	1.342671E+0	1.392258E+0	1.393199E+0	1.359670E+0	1.362801E+0	1.353815E+0	1.356788E+0	1.346961E+0	1.321466E+0	1.381633E+0	1.354570E+0	1.366458E+0	1.336172E+0	1.350022E+0	1.317319E+0	1.324269E+0	1.334993E+0	1.327609E+0	1.351954E+0	1.316839E+0	1.318512E+0	1.302904E+0	1.332264E+0	1.275810E+0	1.390243E+0	1.383337E+0	1.371704E+0	1.326488E+0	1.365824E+0	1.406776E+0	1.289042E+0	1.360454E+0	1.271700E+0	1.327571E+0	1.379270E+0	1.415620E+0	1.386788E+0	1.377990E+0	1.332366E+0	1.308106E+0	1.328305E+0	1.320151E+0	1.337243E+0	1.321729E+0	1.322778E+0	1.391478E+0	1.313267E+0	1.309894E+0	1.341199E+0	1.354244E+0	1.368243E+0	1.347605E+0	1.307572E+0	1.374396E+0	1.315024E+0	1.342099E+0	1.354353E+0	1.363611E+0	1.355928E+0	1.276511E+0	1.375690E+0	1.287975E+0	1.347588E+0	1.326118E+0	1.343781E+0	1.355573E+0	1.333664E+0	1.321134E+0	1.388474E+0	1.357230E+0	1.332072E+0	1.353808E+0	1.357114E+0	1.322872E+0	1.395199E+0	1.347631E+0	1.260989E+0	1.365106E+0	1.342275E+0	1.329841E+0	1.379556E+0	1.332561E+0	1.326402E+0	1.342367E+0	1.336853E+0	1.388847E+0	1.333828E+0	1.380285E+0	1.315409E+0	1.343091E+0	1.320614E+0	1.330446E+0	1.304760E+0	1.325798E+0	1.324802E+0	1.323222E+0	1.400137E+0	1.305995E+0	1.340328E+0	1.351270E+0	1.319725E+0	1.338585E+0	1.320736E+0	1.330739E+0	1.334217E+0	1.342157E+0	1.347970E+0	1.354243E+0	1.314561E+0	1.388279E+0	1.302257E+0	1.315230E+0	1.390698E+0	1.366264E+0	1.270576E+0	1.298019E+0	1.349488E+0	1.338852E+0	1.338905E+0	1.377458E+0	1.341689E+0	1.324461E+0	1.363778E+0	1.272993E+0	1.340840E+0	1.403414E+0	1.308742E+0	1.334785E+0	1.352918E+0	1.293708E+0	1.322637E+0	1.356899E+0	1.332878E+0	1.350477E+0	1.327351E+0	1.357757E+0	1.272381E+0	1.298410E+0	1.337604E+0	1.311378E+0	1.347970E+0	1.320656E+0	1.380140E+0	1.251247E+0	1.288220E+0	1.287862E+0	1.363596E+0	1.415084E+0	1.345138E+0	1.378260E+0	1.363101E+0	1.367188E+0	1.286132E+0	1.391087E+0	1.337122E+0	1.330006E+0	1.339312E+0	1.317388E+0	1.306608E+0	1.296835E+0	1.403517E+0	1.310515E+0	1.318762E+0	1.272159E+0
5.455390E+2	1.322275E+0	1.296026E+0	1.233148E+0	1.290481E+0	1.272755E+0	1.281438E+0	1.272033E+0	1.333270E+0	1.281517E+0	1.284357E+0	1.286834E+0	1.335835E+0	1.293648E+0	1.267608E+0	1.288139E+0	1.281398E+0	1.228144E+0	1.261198E+0	1.244356E+0	1.303553E+0	1.286300E+0	1.286730E+0	1.273492E+0	1.238455E+0	1.224115E+0	1.310367E+0	1.263835E+0	1.290340E+0	1.335598E+0	1.309603E+0	1.289520E+0	1.238407E+0	1.323705E+0	1.294746E+0	1.259010E+0	1.317768E+0	1.295406E+0	1.301498E+0	1.288905E+0	1.266239E+0	1.328436E+0	1.315159E+0	1.232574E+0	1.289837E+0	1.284912E+0	1.233011E+0	1.276337E+0	1.251987E+0	1.242371E+0	1.268008E+0	1.275227E+0	1.222677E+0	1.306434E+0	1.327164E+0	1.251319E+0	1.267032E+0	1.284831E+0	1.323494E+0	1.283062E+0	1.329806E+0	1.299269E+0	1.281659E+0	1.304521E+0	1.275237E+0	1.272100E+0	1.319630E+0	1.304252E+0	1.349526E+0	1.191246E+0	1.316706E+0	1.293855E+0	1.289673E+0	1.288408E+0	1.323150E+0	1.233222E+0	1.252080E+0	1.243380E+0	1.292903E+0	1.292770E+0	1.302424E+0	1.297167E+0	1.263722E+0	1.268397E+0	1.222113E+0	1.317582E+0	1.278407E+0	1.279560E+0	1.264184E+0	1.250884E+0	1.269703E+0	1.291497E+0	1.268268E+0	1.336181E+0	1.260078E+0	1.259642E+0	1.259043E+0	1.266464E+0	1.275720E+0	1.270276E+0	1.249963E+0	1.288233E+0	1.263724E+0	1.290413E+0	1.249902E+0	1.288657E+0	1.276089E+0	1.279152E+0	1.280434E+0	1.269852E+0	1.285359E+0	1.203688E+0	1.268831E+0	1.300848E+0	1.285565E+0	1.259591E+0	1.240381E+0	1.253378E+0	1.253813E+0	1.255406E+0	1.251170E+0	1.296240E+0	1.263073E+0	1.265115E+0	1.293901E+0	1.254944E+0	1.268599E+0	1.228581E+0	1.245684E+0	1.297182E+0	1.258671E+0	1.265169E+0	1.290062E+0	1.240719E+0	1.273208E+0	1.285898E+0	1.279401E+0	1.202484E+0	1.270478E+0	1.265408E+0	1.280389E+0	1.302118E+0	1.245233E+0	1.279116E+0	1.289443E+0	1.317384E+0	1.222214E+0	1.261220E+0	1.280685E+0	1.264608E+0	1.284379E+0	1.282763E+0	1.258434E+0	1.266550E+0	1.261158E+0	1.283613E+0	1.279181E+0	1.279263E+0	1.253977E+0	1.273783E+0	1.208774E+0	1.280323E+0	1.317244E+0	1.249152E+0	1.244111E+0	1.237835E+0	1.293357E+0	1.262448E+0	1.297121E+0	1.264009E+0	1.306434E+0	1.203191E+0
5.457780E+2	1.247965E+0	1.273339E+0	1.229342E+0	1.225029E+0	1.237347E+0	1.223136E+0	1.239949E+0	1.211443E+0	1.230366E+0	1.223524E+0	1.216496E+0	1.299700E+0	1.231644E+0	1.210346E+0	1.251308E+0	1.248774E+0	1.246495E+0	1.249092E+0	1.216083E+0	1.199833E+0	1.214130E+0	1.193924E+0	1.192491E+0	1.242581E+0	1.234486E+0	1.258554E+0	1.212944E+0	1.231484E+0	1.241745E+0	1.265720E+0	1.208480E+0	1.244189E+0	1.281562E+0	1.206691E+0	1.273653E+0	1.199296E+0	1.210243E+0	1.298803E+0	1.185153E+0	1.216319E+0	1.268247E+0	1.207319E+0	1.233264E+0	1.243221E+0	1.264241E+0	1.226480E+0	1.276526E+0	1.160417E+0	1.215344E+0	1.246074E+0	1.218038E+0	1.188401E+0	1.249208E+0	1.238071E+0	1.151263E+0	1.237312E+0	1.232481E+0	1.196835E+0	1.240687E+0	1.208692E+0	1.252535E+0	1.230188E+0	1.232711E+0	1.216152E+0	1.209194E+0	1.265057E+0	1.182834E+0	1.225427E+0	1.187583E+0	1.195775E+0	1.192119E+0	1.185197E+0	1.292167E+0	1.222259E+0	1.226234E+0	1.214068E+0	1.212419E+0	1.238853E+0	1.262933E+0	1.247430E+0	1.224057E+0	1.211942E+0	1.233078E+0	1.231557E+0	1.240755E+0	1.248060E+0	1.178489E+0	1.207978E+0	1.200671E+0	1.270656E+0	1.222593E+0	1.185213E+0	1.313073E+0	1.211256E+0	1.266381E+0	1.202180E+0	1.253094E+0	1.193493E+0	1.253780E+0	1.189387E+0	1.198043E+0	1.213654E+0	1.232624E+0	1.185959E+0	1.234510E+0	1.269039E+0	1.264967E+0	1.214942E+0	1.222658E+0	1.198220E+0	1.246267E+0	1.207821E+0	1.224492E+0	1.205589E+0	1.210312E+0	1.221769E+0	1.272512E+0	1.255548E+0	1.210640E+0	1.200051E+0	1.241300E+0	1.188538E+0	1.217263E+0	1.243262E+0	1.256425E+0	1.174179E+0	1.206698E+0	1.258605E+0	1.188312E+0	1.221985E+0	1.268775E+0	1.218099E+0	1.218461E+0	1.199828E+0	1.226166E+0	1.234879E+0	1.185775E+0	1.198097E+0	1.209127E+0	1.217258E+0	1.212855E+0	1.223650E+0	1.167674E+0	1.175492E+0	1.246598E+0	1.252151E+0	1.184934E+0	1.179297E+0	1.213019E+0	1.213798E+0	1.191773E+0	1.220016E+0	1.226484E+0	1.200207E+0	1.210373E+0	1.225930E+0	1.217276E+0	1.189095E+0	1.234369E+0	1.232801E+0	1.201028E+0	1.267906E+0	1.194452E+0	1.211809E+0	1.213463E+0	1.201116E+0	1.242433E+0	1.205578E+0	1.245579E+0	1.210892E+0	1.212580E+0
5.460110E+2	1.238972E+0	1.200010E+0	1.251057E+0	1.209397E+0	1.272845E+0	1.305400E+0	1.209053E+0	1.282895E+0	1.252717E+0	1.220786E+0	1.255880E+0	1.269693E+0	1.258972E+0	1.271615E+0	1.211007E+0	1.263385E+0	1.196385E+0	1.250111E+0	1.223915E+0	1.203969E+0	1.226438E+0	1.224988E+0	1.208145E+0	1.269795E+0	1.221778E+0	1.259410E+0	1.280605E+0	1.272219E+0	1.207846E+0	1.284394E+0	1.262379E+0	1.238852E+0	1.246922E+0	1.241706E+0	1.213134E+0	1.261860E+0	1.259033E+0	1.187064E+0	1.226021E+0	1.226808E+0	1.258972E+0	1.289476E+0	1.233960E+0	1.251122E+0	1.219743E+0	1.228240E+0	1.215782E+0	1.243774E+0	1.213568E+0	1.265010E+0	1.196151E+0	1.229800E+0	1.261439E+0	1.229532E+0	1.239944E+0	1.239340E+0	1.210197E+0	1.320525E+0	1.205872E+0	1.285226E+0	1.247975E+0	1.262365E+0	1.212179E+0	1.207829E+0	1.218009E+0	1.271538E+0	1.231273E+0	1.218356E+0	1.182858E+0	1.195228E+0	1.232257E+0	1.231709E+0	1.268659E+0	1.230714E+0	1.241290E+0	1.198071E+0	1.243953E+0	1.246609E+0	1.320997E+0	1.264886E+0	1.257969E+0	1.278734E+0	1.222997E+0	1.206202E+0	1.217507E+0	1.229949E+0	1.176805E+0	1.226619E+0	1.275459E+0	1.223180E+0	1.289512E+0	1.184721E+0	1.288877E+0	1.197196E+0	1.259367E+0	1.182041E+0	1.269373E+0	1.195463E+0	1.247059E+0	1.194256E+0	1.248062E+0	1.201639E+0	1.286291E+0	1.204051E+0	1.225507E+0	1.206608E+0	1.239423E+0	1.233734E+0	1.270517E+0	1.234668E+0	1.243527E+0	1.228962E+0	1.226417E+0	1.237482E+0	1.218835E+0	1.247215E+0	1.262522E+0	1.218747E+0	1.227088E+0	1.186759E+0	1.273375E+0	1.197848E+0	1.228933E+0	1.256287E+0	1.183600E+0	1.242553E+0	1.213860E+0	1.226137E+0	1.250015E+0	1.235402E+0	1.215710E+0	1.201313E+0	1.195571E+0	1.211143E+0	1.230679E+0	1.248812E+0	1.205639E+0	1.243299E+0	1.219169E+0	1.267254E+0	1.217403E+0	1.198229E+0	1.198181E+0	1.207520E+0	1.235140E+0	1.249277E+0	1.195159E+0	1.240091E+0	1.233668E+0	1.211015E+0	1.214161E+0	1.247312E+0	1.227731E+0	1.186942E+0	1.200752E+0	1.223873E+0	1.277204E+0	1.236603E+0	1.242005E+0	1.193177E+0	1.302577E+0	1.220263E+0	1.205560E+0	1.223712E+0	1.231848E+0	1.231774E+0	1.246539E+0	1.256658E+0	1.198702E+0	1.225535E+0	1.308317E+0
5.467600E+2	1.347858E+0	1.313107E+0	1.315247E+0	1.323352E+0	1.308679E+0	1.340589E+0	1.367301E+0	1.340157E+0	1.319968E+0	1.274388E+0	1.258552E+0	1.296582E+0	1.346801E+0	1.339100E+0	1.293751E+0	1.301307E+0	1.285117E+0	1.319961E+0	1.369435E+0	1.369522E+0	1.281150E+0	1.245955E+0	1.346794E+0	1.322736E+0	1.255490E+0	1.320163E+0	1.291675E+0	1.319268E+0	1.278780E+0	1.379462E+0	1.274144E+0	1.288381E+0	1.263822E+0	1.264736E+0	1.321763E+0	1.261839E+0	1.310170E+0	1.295050E+0	1.297793E+0	1.294864E+0	1.298892E+0	1.358241E+0	1.366402E+0	1.313702E+0	1.277556E+0	1.336441E+0	1.279376E+0	1.288905E+0	1.240217E+0	1.321105E+0	1.316486E+0	1.308127E+0	1.299133E+0	1.364885E+0	1.288877E+0	1.315511E+0	1.360688E+0	1.310795E+0	1.299208E+0	1.288719E+0	1.285185E+0	1.341753E+0	1.325115E+0	1.269109E+0	1.324904E+0	1.273481E+0	1.328955E+0	1.303129E+0	1.278873E+0	1.295044E+0	1.291894E+0	1.255987E+0	1.304872E+0	1.286379E+0	1.273441E+0	1.290249E+0	1.314645E+0	1.290572E+0	1.294235E+0	1.309238E+0	1.328698E+0	1.327414E+0	1.326152E+0	1.327322E+0	1.354249E+0	1.346293E+0	1.284926E+0	1.316728E+0	1.193471E+0	1.295424E+0	1.354891E+0	1.250366E+0	1.342986E+0	1.311579E+0	1.317033E+0	1.278451E+0	1.286820E+0	1.361514E+0	1.292066E+0	1.302906E+0	1.277228E+0	1.274122E+0	1.312940E+0	1.288132E+0	1.300161E+0	1.296990E+0	1.312375E+0	1.319277E+0	1.309925E+0	1.284746E+0	1.322143E+0	1.271713E+0	1.321935E+0	1.306851E+0	1.313414E+0	1.274006E+0	1.358094E+0	1.287771E+0	1.302912E+0	1.285303E+0	1.308998E+0	1.215696E+0	1.274003E+0	1.267918E+0	1.255221E+0	1.293304E+0	1.292981E+0	1.330680E+0	1.304290E+0	1.335894E+0	1.348084E+0	1.267056E+0	1.296510E+0	1.311992E+0	1.299490E+0	1.277673E+0	1.298694E+0	1.308557E+0	1.291923E+0	1.236922E+0	1.304143E+0	1.279050E+0	1.296118E+0	1.303272E+0	1.271453E+0	1.335405E+0	1.297049E+0	1.255027E+0	1.270123E+0	1.328634E+0	1.297868E+0	1.318135E+0	1.298691E+0	1.246994E+0	1.277548E+0	1.372212E+0	1.349811E+0	1.317150E+0	1.307097E+0	1.291976E+0	1.287572E+0	1.306550E+0	1.261246E+0	1.281690E+0	1.341372E+0	1.323932E+0	1.309928E+0	1.321883E+0	1.302914E+0	1.239364E+0	1.148275E+0
5.475070E+2	1.384287E+0	1.365285E+0	1.360688E+0	1.350231E+0	1.370789E+0	1.412693E+0	1.447308E+0	1.368106E+0	1.356339E+0	1.421164E+0	1.438615E+0	1.386708E+0	1.430236E+0	1.395026E+0	1.327575E+0	1.420388E+0	1.347919E+0	1.344051E+0	1.373417E+0	1.373061E+0	1.364275E+0	1.376145E+0	1.383186E+0	1.382358E+0	1.369821E+0	1.418625E+0	1.414941E+0	1.335830E+0	1.408043E+0	1.379857E+0	1.385614E+0	1.390978E+0	1.351421E+0	1.367877E+0	1.366216E+0	1.411744E+0	1.376747E+0	1.399655E+0	1.397330E+0	1.361231E+0	1.330150E+0	1.398531E+0	1.345659E+0	1.397207E+0	1.389165E+0	1.396508E+0	1.360367E+0	1.306933E+0	1.378962E+0	1.405980E+0	1.369998E+0	1.339508E+0	1.396489E+0	1.416500E+0	1.361763E+0	1.407684E+0	1.416217E+0	1.373689E+0	1.374403E+0	1.364392E+0	1.373354E+0	1.388047E+0	1.381969E+0	1.361435E+0	1.336494E+0	1.430283E+0	1.332731E+0	1.360434E+0	1.357626E+0	1.380769E+0	1.362736E+0	1.416795E+0	1.334048E+0	1.367758E+0	1.305858E+0	1.349325E+0	1.336026E+0	1.419368E+0	1.380001E+0	1.359501E+0	1.388238E+0	1.405894E+0	1.393870E+0	1.419226E+0	1.366423E+0	1.339086E+0	1.371945E+0	1.382239E+0	1.366651E+0	1.361763E+0	1.413585E+0	1.361633E+0	1.382486E+0	1.329029E+0	1.381388E+0	1.358793E+0	1.390260E+0	1.428472E+0	1.400894E+0	1.380333E+0	1.424752E+0	1.392428E+0	1.348387E+0	1.332399E+0	1.349762E+0	1.397427E+0	1.360383E+0	1.391748E+0	1.359317E+0	1.373148E+0	1.396824E+0	1.354599E+0	1.362286E+0	1.324410E+0	1.320766E+0	1.378894E+0	1.355596E+0	1.379520E+0	1.344131E+0	1.338175E+0	1.359192E+0	1.297999E+0	1.315369E+0	1.342906E+0	1.371124E+0	1.360867E+0	1.371704E+0	1.351803E+0	1.336788E+0	1.387378E+0	1.399788E+0	1.314713E+0	1.417799E+0	1.388767E+0	1.319880E+0	1.371528E+0	1.380964E+0	1.435091E+0	1.367420E+0	1.348055E+0	1.367562E+0	1.318892E+0	1.352068E+0	1.340151E+0	1.363303E+0	1.306042E+0	1.371165E+0	1.356864E+0	1.355272E+0	1.360885E+0	1.342430E+0	1.390056E+0	1.361441E+0	1.380344E+0	1.379634E+0	1.314264E+0	1.406082E+0	1.371222E+0	1.320913E+0	1.387192E+0	1.390377E+0	1.325168E+0	1.337085E+0	1.311590E+0	1.364253E+0	1.348555E+0	1.358922E+0	1.339378E+0	1.363531E+0	1.397648E+0	1.413156E+0
5.482600E+2	1.492024E+0	1.440810E+0	1.431472E+0	1.446181E+0	1.528847E+0	1.496091E+0	1.473826E+0	1.487889E+0	1.449990E+0	1.455734E+0	1.477669E+0	1.528114E+0	1.483157E+0	1.525390E+0	1.495750E+0	1.424516E+0	1.497822E+0	1.480927E+0	1.489151E+0	1.472892E+0	1.473245E+0	1.449345E+0	1.469762E+0	1.521258E+0	1.448132E+0	1.447799E+0	1.413471E+0	1.472616E+0	1.466537E+0	1.471126E+0	1.471013E+0	1.492899E+0	1.518635E+0	1.456263E+0	1.474905E+0	1.439266E+0	1.494690E+0	1.428561E+0	1.439475E+0	1.462363E+0	1.495655E+0	1.504210E+0	1.507335E+0	1.476704E+0	1.502658E+0	1.455119E+0	1.441803E+0	1.392099E+0	1.409346E+0	1.453873E+0	1.485913E+0	1.493634E+0	1.450619E+0	1.491480E+0	1.510418E+0	1.478601E+0	1.481774E+0	1.432105E+0	1.488972E+0	1.520834E+0	1.454759E+0	1.439179E+0	1.439501E+0	1.447280E+0	1.471850E+0	1.484625E+0	1.417203E+0	1.432698E+0	1.445303E+0	1.400570E+0	1.443805E+0	1.447794E+0	1.517959E+0	1.459556E+0	1.461661E+0	1.421260E+0	1.365140E+0	1.504709E+0	1.487867E+0	1.522724E+0	1.401732E+0	1.458937E+0	1.456173E+0	1.459328E+0	1.440012E+0	1.481613E+0	1.450354E+0	1.485264E+0	1.442999E+0	1.455192E+0	1.492058E+0	1.406668E+0	1.422596E+0	1.448472E+0	1.421820E+0	1.444848E+0	1.453559E+0	1.436081E+0	1.424260E+0	1.358899E+0	1.456832E+0	1.500980E+0	1.428903E+0	1.445154E+0	1.439431E+0	1.367370E+0	1.411373E+0	1.441535E+0	1.426774E+0	1.459724E+0	1.484138E+0	1.410780E+0	1.446593E+0	1.457767E+0	1.535205E+0	1.455602E+0	1.492120E+0	1.401077E+0	1.495592E+0	1.441529E+0	1.431486E+0	1.506302E+0	1.454913E+0	1.448515E+0	1.434792E+0	1.437603E+0	1.475881E+0	1.445232E+0	1.412709E+0	1.476053E+0	1.455755E+0	1.465185E+0	1.478692E+0	1.454064E+0	1.457293E+0	1.442480E+0	1.427053E+0	1.459911E+0	1.541165E+0	1.410696E+0	1.459237E+0	1.474264E+0	1.427285E+0	1.439022E+0	1.408225E+0	1.450905E+0	1.482302E+0	1.442417E+0	1.440093E+0	1.473959E+0	1.406898E+0	1.460786E+0	1.426011E+0	1.441725E+0	1.445048E+0	1.450152E+0	1.443497E+0	1.480614E+0	1.412425E+0	1.414766E+0	1.468258E+0	1.447792E+0	1.419057E+0	1.416819E+0	1.449575E+0	1.470736E+0	1.413463E+0	1.455134E+0	1.456625E+0	1.408239E+0	1.394332E+0
5.490160E+2	1.476492E+0	1.395231E+0	1.385870E+0	1.450047E+0	1.406662E+0	1.455119E+0	1.399434E+0	1.373833E+0	1.448086E+0	1.415233E+0	1.416834E+0	1.422399E+0	1.443210E+0	1.419761E+0	1.442479E+0	1.447962E+0	1.376609E+0	1.407959E+0	1.469114E+0	1.429212E+0	1.373863E+0	1.460726E+0	1.422449E+0	1.421428E+0	1.387247E+0	1.440363E+0	1.395624E+0	1.442868E+0	1.445879E+0	1.472560E+0	1.440228E+0	1.454626E+0	1.457697E+0	1.388264E+0	1.365105E+0	1.436136E+0	1.485790E+0	1.424687E+0	1.439541E+0	1.431354E+0	1.390893E+0	1.409348E+0	1.454511E+0	1.381605E+0	1.411411E+0	1.441251E+0	1.416439E+0	1.421935E+0	1.428219E+0	1.421901E+0	1.388910E+0	1.415074E+0	1.405706E+0	1.431501E+0	1.402155E+0	1.406211E+0	1.444439E+0	1.460391E+0	1.423296E+0	1.443088E+0	1.396802E+0	1.455517E+0	1.446826E+0	1.382810E+0	1.413290E+0	1.411391E+0	1.472224E+0	1.432710E+0	1.304659E+0	1.326590E+0	1.423990E+0	1.418842E+0	1.452840E+0	1.427603E+0	1.406526E+0	1.447734E+0	1.379957E+0	1.427386E+0	1.468680E+0	1.422861E+0	1.380772E+0	1.440898E+0	1.423859E+0	1.395370E+0	1.422558E+0	1.444816E+0	1.426306E+0	1.429430E+0	1.370562E+0	1.395397E+0	1.423305E+0	1.390164E+0	1.389323E+0	1.422407E+0	1.515229E+0	1.401308E+0	1.379704E+0	1.389998E+0	1.392793E+0	1.411128E+0	1.417656E+0	1.469490E+0	1.445509E+0	1.420710E+0	1.416042E+0	1.405916E+0	1.416610E+0	1.410066E+0	1.393459E+0	1.401503E+0	1.455273E+0	1.366851E+0	1.401506E+0	1.381785E+0	1.368846E+0	1.412277E+0	1.394262E+0	1.420909E+0	1.406891E+0	1.432800E+0	1.422720E+0	1.441555E+0	1.379801E+0	1.394803E+0	1.367963E+0	1.382232E+0	1.429451E+0	1.413106E+0	1.431831E+0	1.453256E+0	1.399725E+0	1.372159E+0	1.441121E+0	1.403296E+0	1.405384E+0	1.363412E+0	1.372038E+0	1.450463E+0	1.403512E+0	1.371921E+0	1.405114E+0	1.380944E+0	1.430642E+0	1.388399E+0	1.386553E+0	1.359158E+0	1.392724E+0	1.359882E+0	1.407752E+0	1.368149E+0	1.341935E+0	1.406254E+0	1.370972E+0	1.402000E+0	1.398741E+0	1.402495E+0	1.404847E+0	1.476896E+0	1.398483E+0	1.378847E+0	1.432255E+0	1.376871E+0	1.380964E+0	1.348424E+0	1.430381E+0	1.422272E+0	1.436020E+0	1.359455E+0	1.467724E+0	1.351645E+0	1.392949E+0
5.497740E+2	1.469189E+0	1.406592E+0	1.458062E+0	1.446195E+0	1.421887E+0	1.426108E+0	1.423948E+0	1.408375E+0	1.440702E+0	1.387192E+0	1.422609E+0	1.398208E+0	1.361703E+0	1.472341E+0	1.407713E+0	1.440319E+0	1.466669E+0	1.438489E+0	1.441743E+0	1.446531E+0	1.435998E+0	1.385406E+0	1.347362E+0	1.383662E+0	1.352399E+0	1.413880E+0	1.424904E+0	1.396734E+0	1.441941E+0	1.453732E+0	1.378591E+0	1.403798E+0	1.454823E+0	1.409817E+0	1.353310E+0	1.404765E+0	1.477862E+0	1.423424E+0	1.430990E+0	1.356778E+0	1.466164E+0	1.450864E+0	1.435731E+0	1.402296E+0	1.355687E+0	1.407612E+0	1.383970E+0	1.369536E+0	1.392480E+0	1.452954E+0	1.376034E+0	1.428341E+0	1.452549E+0	1.416871E+0	1.384447E+0	1.364291E+0	1.445880E+0	1.421058E+0	1.432197E+0	1.391946E+0	1.366224E+0	1.466738E+0	1.459082E+0	1.376003E+0	1.407156E+0	1.428202E+0	1.429625E+0	1.433121E+0	1.401152E+0	1.354382E+0	1.445060E+0	1.392876E+0	1.434354E+0	1.429205E+0	1.385171E+0	1.431619E+0	1.347199E+0	1.464997E+0	1.447866E+0	1.426357E+0	1.381863E+0	1.455416E+0	1.414664E+0	1.367915E+0	1.413838E+0	1.416533E+0	1.403771E+0	1.374906E+0	1.380163E+0	1.436116E+0	1.423545E+0	1.354017E+0	1.352003E+0	1.380979E+0	1.448169E+0	1.397335E+0	1.372245E+0	1.426089E+0	1.401853E+0	1.375496E+0	1.341087E+0	1.414015E+0	1.395533E+0	1.368891E+0	1.446489E+0	1.423269E+0	1.481329E+0	1.367972E+0	1.446882E+0	1.406921E+0	1.393469E+0	1.393476E+0	1.414417E+0	1.386379E+0	1.405763E+0	1.448111E+0	1.436666E+0	1.450791E+0	1.442929E+0	1.432702E+0	1.350332E+0	1.415754E+0	1.408684E+0	1.428588E+0	1.381003E+0	1.442838E+0	1.431350E+0	1.404359E+0	1.374449E+0	1.414309E+0	1.361634E+0	1.396807E+0	1.435662E+0	1.407162E+0	1.392010E+0	1.408298E+0	1.356016E+0	1.429474E+0	1.452315E+0	1.360365E+0	1.398079E+0	1.453577E+0	1.367219E+0	1.411890E+0	1.395921E+0	1.382399E+0	1.359278E+0	1.372434E+0	1.387333E+0	1.381690E+0	1.417328E+0	1.435620E+0	1.402471E+0	1.359198E+0	1.380867E+0	1.418535E+0	1.357271E+0	1.401826E+0	1.397134E+0	1.405961E+0	1.377875E+0	1.432806E+0	1.389154E+0	1.410962E+0	1.492120E+0	1.394967E+0	1.353519E+0	1.403423E+0	1.449046E+0	1.359476E+0	1.398450E+0
5.505170E+2	1.407317E+0	1.422561E+0	1.417601E+0	1.446159E+0	1.366037E+0	1.423210E+0	1.411887E+0	1.409007E+0	1.470129E+0	1.381685E+0	1.381423E+0	1.391339E+0	1.443226E+0	1.454951E+0	1.378873E+0	1.364013E+0	1.396121E+0	1.354544E+0	1.363422E+0	1.397560E+0	1.439310E+0	1.428652E+0	1.394544E+0	1.353033E+0	1.364335E+0	1.423358E+0	1.382911E+0	1.396210E+0	1.362092E+0	1.435553E+0	1.372615E+0	1.385622E+0	1.417387E+0	1.428780E+0	1.324446E+0	1.392320E+0	1.401987E+0	1.407191E+0	1.383404E+0	1.414296E+0	1.413828E+0	1.429684E+0	1.417523E+0	1.420536E+0	1.397460E+0	1.364683E+0	1.374192E+0	1.408526E+0	1.357538E+0	1.392589E+0	1.349671E+0	1.360398E+0	1.434823E+0	1.388793E+0	1.357062E+0	1.389409E+0	1.438003E+0	1.411206E+0	1.335083E+0	1.401680E+0	1.444810E+0	1.417678E+0	1.423074E+0	1.356266E+0	1.359675E+0	1.431672E+0	1.421772E+0	1.362262E+0	1.345250E+0	1.349910E+0	1.355886E+0	1.398269E+0	1.369607E+0	1.407778E+0	1.337272E+0	1.442611E+0	1.346547E+0	1.449471E+0	1.411832E+0	1.388017E+0	1.380788E+0	1.387017E+0	1.419888E+0	1.301969E+0	1.416090E+0	1.443287E+0	1.325093E+0	1.324061E+0	1.348569E+0	1.467125E+0	1.390146E+0	1.393136E+0	1.394105E+0	1.435302E+0	1.385977E+0	1.383198E+0	1.388623E+0	1.379139E+0	1.371159E+0	1.383293E+0	1.311495E+0	1.402244E+0	1.370891E+0	1.370461E+0	1.381424E+0	1.417481E+0	1.417537E+0	1.362069E+0	1.388487E+0	1.363263E+0	1.451213E+0	1.362718E+0	1.390219E+0	1.360974E+0	1.413303E+0	1.382817E+0	1.383336E+0	1.420971E+0	1.379418E+0	1.362425E+0	1.460497E+0	1.419080E+0	1.371596E+0	1.348986E+0	1.415871E+0	1.436965E+0	1.345616E+0	1.396727E+0	1.388536E+0	1.394074E+0	1.354576E+0	1.353045E+0	1.400845E+0	1.404299E+0	1.441046E+0	1.362616E+0	1.375477E+0	1.404122E+0	1.485099E+0	1.393755E+0	1.378475E+0	1.390733E+0	1.373881E+0	1.416655E+0	1.381005E+0	1.385820E+0	1.398189E+0	1.357075E+0	1.406741E+0	1.391973E+0	1.387440E+0	1.451642E+0	1.383726E+0	1.455856E+0	1.356648E+0	1.346695E+0	1.432463E+0	1.443044E+0	1.368580E+0	1.347065E+0	1.380218E+0	1.414901E+0	1.393016E+0	1.364957E+0	1.359701E+0	1.374096E+0	1.353125E+0	1.421046E+0	1.394636E+0	1.401092E+0	1.352092E+0
5.512570E+2	1.399884E+0	1.414486E+0	1.393534E+0	1.356086E+0	1.362222E+0	1.354131E+0	1.385614E+0	1.350487E+0	1.327264E+0	1.346253E+0	1.377376E+0	1.354623E+0	1.381187E+0	1.349159E+0	1.400594E+0	1.357421E+0	1.408112E+0	1.368543E+0	1.432609E+0	1.364508E+0	1.409459E+0	1.330250E+0	1.327005E+0	1.406563E+0	1.357988E+0	1.413247E+0	1.328914E+0	1.386494E+0	1.374636E+0	1.403011E+0	1.386470E+0	1.381034E+0	1.353599E+0	1.415464E+0	1.372435E+0	1.327859E+0	1.391309E+0	1.404229E+0	1.372313E+0	1.319076E+0	1.403255E+0	1.353370E+0	1.424103E+0	1.336285E+0	1.377864E+0	1.384351E+0	1.357104E+0	1.370315E+0	1.419305E+0	1.410706E+0	1.388653E+0	1.330792E+0	1.412093E+0	1.379981E+0	1.403647E+0	1.379894E+0	1.414716E+0	1.333798E+0	1.424053E+0	1.367944E+0	1.408758E+0	1.366639E+0	1.352077E+0	1.312608E+0	1.373191E+0	1.423108E+0	1.384766E+0	1.357859E+0	1.413190E+0	1.386852E+0	1.340231E+0	1.400769E+0	1.365306E+0	1.373922E+0	1.365849E+0	1.400212E+0	1.365149E+0	1.407732E+0	1.353472E+0	1.427990E+0	1.366164E+0	1.419023E+0	1.376029E+0	1.336787E+0	1.380929E+0	1.380166E+0	1.372787E+0	1.411318E+0	1.349084E+0	1.372006E+0	1.361421E+0	1.365381E+0	1.352688E+0	1.442687E+0	1.396163E+0	1.337762E+0	1.405442E+0	1.370977E+0	1.357565E+0	1.355388E+0	1.382411E+0	1.405023E+0	1.388339E+0	1.346328E+0	1.367403E+0	1.414695E+0	1.402699E+0	1.342926E+0	1.408199E+0	1.379564E+0	1.379133E+0	1.362488E+0	1.381232E+0	1.355531E+0	1.408304E+0	1.380460E+0	1.388699E+0	1.329746E+0	1.349506E+0	1.346663E+0	1.415799E+0	1.322460E+0	1.296259E+0	1.387074E+0	1.375420E+0	1.363857E+0	1.332719E+0	1.373837E+0	1.349598E+0	1.363048E+0	1.327127E+0	1.325079E+0	1.419781E+0	1.385293E+0	1.386650E+0	1.355102E+0	1.371033E+0	1.401769E+0	1.409863E+0	1.385685E+0	1.337175E+0	1.354545E+0	1.370896E+0	1.317747E+0	1.392134E+0	1.364824E+0	1.352996E+0	1.342285E+0	1.355089E+0	1.419104E+0	1.389323E+0	1.382337E+0	1.358819E+0	1.345230E+0	1.358447E+0	1.395407E+0	1.396483E+0	1.418820E+0	1.368994E+0	1.353058E+0	1.306428E+0	1.398592E+0	1.341161E+0	1.344378E+0	1.341881E+0	1.381282E+0	1.352477E+0	1.375726E+0	1.316260E+0	1.276089E+0	1.362547E+0
5.520210E+2	1.307554E+0	1.309175E+0	1.261011E+0	1.274166E+0	1.290861E+0	1.340729E+0	1.263691E+0	1.288371E+0	1.282225E+0	1.294569E+0	1.297016E+0	1.322194E+0	1.325296E+0	1.321152E+0	1.285152E+0	1.313881E+0	1.319086E+0	1.302772E+0	1.266179E+0	1.272628E+0	1.275641E+0	1.249612E+0	1.269434E+0	1.237876E+0	1.273621E+0	1.283736E+0	1.245281E+0	1.265640E+0	1.281336E+0	1.307731E+0	1.297200E+0	1.299156E+0	1.283458E+0	1.302076E+0	1.274419E+0	1.229301E+0	1.321945E+0	1.309914E+0	1.302978E+0	1.310668E+0	1.308459E+0	1.314837E+0	1.284410E+0	1.306202E+0	1.223679E+0	1.232306E+0	1.264766E+0	1.309924E+0	1.254717E+0	1.270358E+0	1.293916E+0	1.248733E+0	1.296335E+0	1.312513E+0	1.284730E+0	1.276651E+0	1.293993E+0	1.290418E+0	1.264018E+0	1.306969E+0	1.229755E+0	1.324624E+0	1.306189E+0	1.293181E+0	1.254484E+0	1.265377E+0	1.277501E+0	1.247407E+0	1.258414E+0	1.285725E+0	1.247133E+0	1.256742E+0	1.266718E+0	1.296395E+0	1.268980E+0	1.289391E+0	1.273990E+0	1.334552E+0	1.283948E+0	1.261124E+0	1.285299E+0	1.255023E+0	1.309396E+0	1.274788E+0	1.277076E+0	1.277474E+0	1.297667E+0	1.326414E+0	1.286209E+0	1.309151E+0	1.324726E+0	1.267522E+0	1.292784E+0	1.258696E+0	1.228761E+0	1.232596E+0	1.260535E+0	1.325312E+0	1.260634E+0	1.219618E+0	1.282238E+0	1.330911E+0	1.348783E+0	1.307343E+0	1.281784E+0	1.292698E+0	1.308834E+0	1.297764E+0	1.305555E+0	1.288388E+0	1.289517E+0	1.282363E+0	1.243220E+0	1.277541E+0	1.248255E+0	1.273688E+0	1.299981E+0	1.357300E+0	1.288576E+0	1.279915E+0	1.283778E+0	1.234106E+0	1.203969E+0	1.281274E+0	1.295472E+0	1.256014E+0	1.255261E+0	1.280942E+0	1.214026E+0	1.362022E+0	1.284761E+0	1.300627E+0	1.260967E+0	1.305472E+0	1.312991E+0	1.308330E+0	1.255604E+0	1.317928E+0	1.292245E+0	1.246461E+0	1.250972E+0	1.307147E+0	1.268495E+0	1.285951E+0	1.324085E+0	1.311841E+0	1.255997E+0	1.262543E+0	1.298966E+0	1.269930E+0	1.317874E+0	1.284980E+0	1.242156E+0	1.263215E+0	1.264889E+0	1.269712E+0	1.309420E+0	1.315934E+0	1.305144E+0	1.285279E+0	1.279065E+0	1.345008E+0	1.260688E+0	1.278869E+0	1.296225E+0	1.298570E+0	1.316095E+0	1.268355E+0	1.271601E+0	1.274216E+0	1.214727E+0
5.527590E+2	1.382619E+0	1.316036E+0	1.253919E+0	1.316365E+0	1.273434E+0	1.303383E+0	1.310039E+0	1.307484E+0	1.271432E+0	1.367479E+0	1.291236E+0	1.339423E+0	1.273269E+0	1.313465E+0	1.305462E+0	1.299811E+0	1.313108E+0	1.298944E+0	1.323298E+0	1.263591E+0	1.303666E+0	1.254128E+0	1.275713E+0	1.290637E+0	1.293772E+0	1.294481E+0	1.318007E+0	1.333995E+0	1.335202E+0	1.290132E+0	1.308487E+0	1.297179E+0	1.285618E+0	1.328758E+0	1.288003E+0	1.298764E+0	1.341086E+0	1.322961E+0	1.324121E+0	1.270461E+0	1.302704E+0	1.307786E+0	1.363504E+0	1.334478E+0	1.288717E+0	1.293500E+0	1.279042E+0	1.258841E+0	1.250789E+0	1.236390E+0	1.253349E+0	1.320185E+0	1.274629E+0	1.250742E+0	1.222280E+0	1.316232E+0	1.317965E+0	1.284362E+0	1.324124E+0	1.330994E+0	1.306446E+0	1.285946E+0	1.270408E+0	1.239572E+0	1.248912E+0	1.288484E+0	1.272185E+0	1.285417E+0	1.285322E+0	1.290116E+0	1.299177E+0	1.299319E+0	1.235158E+0	1.275727E+0	1.318550E+0	1.303102E+0	1.312293E+0	1.338528E+0	1.313061E+0	1.293731E+0	1.297822E+0	1.338746E+0	1.269390E+0	1.347628E+0	1.309813E+0	1.289148E+0	1.265721E+0	1.282700E+0	1.265975E+0	1.315301E+0	1.269696E+0	1.299842E+0	1.311352E+0	1.282021E+0	1.343407E+0	1.291427E+0	1.312934E+0	1.309074E+0	1.284715E+0	1.260033E+0	1.257350E+0	1.305940E+0	1.304535E+0	1.304678E+0	1.282669E+0	1.292280E+0	1.308375E+0	1.266979E+0	1.272715E+0	1.305897E+0	1.315600E+0	1.262403E+0	1.268735E+0	1.350980E+0	1.335102E+0	1.284673E+0	1.347789E+0	1.263379E+0	1.280572E+0	1.260100E+0	1.254082E+0	1.212165E+0	1.252219E+0	1.261732E+0	1.248779E+0	1.243759E+0	1.322651E+0	1.290947E+0	1.289862E+0	1.260288E+0	1.279715E+0	1.297648E+0	1.307967E+0	1.294091E+0	1.312087E+0	1.298971E+0	1.289520E+0	1.284438E+0	1.312495E+0	1.235232E+0	1.255015E+0	1.323413E+0	1.299186E+0	1.297327E+0	1.300764E+0	1.237925E+0	1.240046E+0	1.296050E+0	1.293700E+0	1.309270E+0	1.276739E+0	1.284281E+0	1.297228E+0	1.317885E+0	1.322422E+0	1.247180E+0	1.269957E+0	1.309334E+0	1.308601E+0	1.273047E+0	1.298264E+0	1.234035E+0	1.245483E+0	1.306205E+0	1.336578E+0	1.271072E+0	1.265166E+0	1.298204E+0	1.340655E+0	1.272185E+0	1.259259E+0
5.535220E+2	1.234087E+0	1.180080E+0	1.234634E+0	1.252117E+0	1.229244E+0	1.192838E+0	1.247052E+0	1.209174E+0	1.202595E+0	1.167181E+0	1.212309E+0	1.195334E+0	1.206587E+0	1.211605E+0	1.239128E+0	1.215788E+0	1.208420E+0	1.206470E+0	1.229813E+0	1.199957E+0	1.150928E+0	1.216481E+0	1.188826E+0	1.190863E+0	1.146039E+0	1.172569E+0	1.215565E+0	1.245551E+0	1.191176E+0	1.180764E+0	1.217934E+0	1.192494E+0	1.197692E+0	1.180759E+0	1.136532E+0	1.176222E+0	1.224811E+0	1.213645E+0	1.151893E+0	1.172678E+0	1.269961E+0	1.214695E+0	1.211517E+0	1.219229E+0	1.192521E+0	1.177052E+0	1.162891E+0	1.251409E+0	1.138164E+0	1.195278E+0	1.220363E+0	1.128959E+0	1.238100E+0	1.206956E+0	1.161146E+0	1.231823E+0	1.219576E+0	1.188215E+0	1.181418E+0	1.228695E+0	1.211782E+0	1.206021E+0	1.154013E+0	1.195330E+0	1.168899E+0	1.237329E+0	1.217722E+0	1.203181E+0	1.178276E+0	1.166507E+0	1.191667E+0	1.164207E+0	1.176535E+0	1.206161E+0	1.177146E+0	1.181943E+0	1.165916E+0	1.187983E+0	1.264551E+0	1.215241E+0	1.258184E+0	1.286403E+0	1.229847E+0	1.147584E+0	1.189233E+0	1.200921E+0	1.162932E+0	1.197378E+0	1.191262E+0	1.236553E+0	1.225037E+0	1.143628E+0	1.225848E+0	1.202391E+0	1.180777E+0	1.180593E+0	1.210830E+0	1.238304E+0	1.270905E+0	1.202313E+0	1.227497E+0	1.175749E+0	1.194887E+0	1.222961E+0	1.193060E+0	1.202567E+0	1.236556E+0	1.162603E+0	1.191568E+0	1.217196E+0	1.240797E+0	1.139589E+0	1.218356E+0	1.227528E+0	1.193279E+0	1.202745E+0	1.184043E+0	1.152900E+0	1.214594E+0	1.157040E+0	1.236902E+0	1.196217E+0	1.136985E+0	1.212978E+0	1.211687E+0	1.155406E+0	1.189498E+0	1.194111E+0	1.196734E+0	1.197599E+0	1.184973E+0	1.158792E+0	1.159367E+0	1.204990E+0	1.177472E+0	1.209858E+0	1.190556E+0	1.240345E+0	1.222098E+0	1.192412E+0	1.172598E+0	1.214235E+0	1.198556E+0	1.186068E+0	1.176229E+0	1.247541E+0	1.220924E+0	1.140678E+0	1.183551E+0	1.196809E+0	1.139898E+0	1.201231E+0	1.192788E+0	1.199782E+0	1.240334E+0	1.139921E+0	1.182955E+0	1.197192E+0	1.266055E+0	1.234736E+0	1.207022E+0	1.214474E+0	1.183251E+0	1.168613E+0	1.190418E+0	1.220044E+0	1.188180E+0	1.223164E+0	1.139625E+0	1.221588E+0	1.114950E+0
5.542580E+2	1.173378E+0	1.148753E+0	1.194106E+0	1.165004E+0	1.212699E+0	1.167993E+0	1.161664E+0	1.148800E+0	1.165105E+0	1.152143E+0	1.128447E+0	1.189378E+0	1.144638E+0	1.126873E+0	1.173140E+0	1.134569E+0	1.165865E+0	1.152565E+0	1.158938E+0	1.146268E+0	1.143259E+0	1.128847E+0	1.158063E+0	1.133014E+0	1.160581E+0	1.199947E+0	1.122718E+0	1.178040E+0	1.159793E+0	1.129866E+0	1.159752E+0	1.132443E+0	1.135588E+0	1.134343E+0	1.112214E+0	1.193845E+0	1.211598E+0	1.133276E+0	1.152379E+0	1.126880E+0	1.150905E+0	1.152640E+0	1.158965E+0	1.179249E+0	1.120729E+0	1.089947E+0	1.103140E+0	1.082090E+0	1.121571E+0	1.169780E+0	1.130771E+0	1.076979E+0	1.136871E+0	1.111834E+0	1.106244E+0	1.173870E+0	1.138402E+0	1.104033E+0	1.110178E+0	1.125542E+0	1.134706E+0	1.198434E+0	1.175459E+0	1.120694E+0	1.160043E+0	1.148324E+0	1.165686E+0	1.165935E+0	1.126724E+0	1.120208E+0	1.126662E+0	1.147871E+0	1.154416E+0	1.155100E+0	1.110202E+0	1.136654E+0	1.096373E+0	1.160047E+0	1.174569E+0	1.120614E+0	1.163998E+0	1.157196E+0	1.164084E+0	1.124286E+0	1.091515E+0	1.133363E+0	1.188217E+0	1.113950E+0	1.122558E+0	1.115806E+0	1.175914E+0	1.097101E+0	1.172732E+0	1.132383E+0	1.235728E+0	1.087242E+0	1.162923E+0	1.182327E+0	1.118996E+0	1.171496E+0	1.099038E+0	1.191798E+0	1.159767E+0	1.172777E+0	1.134897E+0	1.171058E+0	1.115043E+0	1.132341E+0	1.150747E+0	1.122329E+0	1.125181E+0	1.119374E+0	1.145370E+0	1.117562E+0	1.104960E+0	1.163014E+0	1.199948E+0	1.166738E+0	1.118787E+0	1.103284E+0	1.128368E+0	1.132379E+0	1.138044E+0	1.140685E+0	1.171385E+0	1.154813E+0	1.133413E+0	1.150532E+0	1.123198E+0	1.146727E+0	1.187124E+0	1.166808E+0	1.157223E+0	1.152012E+0	1.158401E+0	1.165861E+0	1.123985E+0	1.111021E+0	1.140126E+0	1.128306E+0	1.186119E+0	1.220222E+0	1.133841E+0	1.138344E+0	1.136453E+0	1.162184E+0	1.157848E+0	1.155853E+0	1.130130E+0	1.179420E+0	1.123442E+0	1.132860E+0	1.128244E+0	1.128293E+0	1.173132E+0	1.182318E+0	1.135675E+0	1.178325E+0	1.120640E+0	1.108063E+0	1.115833E+0	1.134126E+0	1.115503E+0	1.159917E+0	1.133958E+0	1.145583E+0	1.175675E+0	1.143401E+0	1.115107E+0	1.112805E+0	1.164842E+0
5.550140E+2	1.045545E+0	1.048718E+0	1.068123E+0	1.061702E+0	1.034842E+0	1.027384E+0	1.052092E+0	1.034859E+0	1.030276E+0	1.055092E+0	1.095182E+0	1.074103E+0	1.071525E+0	1.052664E+0	1.125304E+0	1.049194E+0	1.044405E+0	1.045203E+0	1.117092E+0	1.038424E+0	9.894968E-1	1.012750E+0	1.050288E+0	1.059793E+0	1.032481E+0	1.089254E+0	1.052208E+0	1.063834E+0	1.086050E+0	1.089274E+0	1.058287E+0	1.065158E+0	1.076360E+0	1.058360E+0	1.033058E+0	1.078035E+0	1.090157E+0	1.077714E+0	1.067658E+0	1.042468E+0	1.043182E+0	1.094177E+0	1.035714E+0	1.035577E+0	1.033229E+0	1.061121E+0	1.052327E+0	1.015547E+0	1.020599E+0	1.070122E+0	1.044639E+0	1.031680E+0	1.074129E+0	1.027924E+0	1.041266E+0	1.044994E+0	1.075254E+0	1.109141E+0	1.070287E+0	1.020663E+0	9.948703E-1	1.048770E+0	1.101800E+0	1.031115E+0	1.035718E+0	1.067632E+0	1.082436E+0	1.048996E+0	1.060257E+0	1.025059E+0	1.049547E+0	1.068598E+0	1.032821E+0	1.053488E+0	1.046541E+0	1.100419E+0	1.003595E+0	1.039438E+0	1.097526E+0	1.085483E+0	1.077634E+0	1.095863E+0	1.078126E+0	1.010654E+0	1.093215E+0	1.031549E+0	1.029874E+0	1.123458E+0	1.044469E+0	1.059801E+0	1.045605E+0	1.058183E+0	1.075208E+0	1.068629E+0	1.071368E+0	1.033364E+0	1.068152E+0	1.056668E+0	1.073118E+0	1.025923E+0	1.036308E+0	1.081522E+0	1.061570E+0	1.049796E+0	1.048628E+0	1.040252E+0	1.046058E+0	1.076977E+0	1.034616E+0	1.056455E+0	1.069194E+0	1.036527E+0	1.046527E+0	1.059027E+0	1.096823E+0	1.034847E+0	1.068627E+0	1.048136E+0	1.037771E+0	1.069599E+0	1.014456E+0	1.055487E+0	1.029941E+0	1.065967E+0	1.033586E+0	1.068097E+0	1.057565E+0	1.030450E+0	1.020453E+0	1.068389E+0	1.127368E+0	1.077616E+0	1.050618E+0	1.020715E+0	1.051333E+0	1.121736E+0	1.039611E+0	1.091007E+0	1.084912E+0	9.935904E-1	1.068146E+0	1.023668E+0	1.051432E+0	1.065901E+0	1.069605E+0	1.012451E+0	1.032571E+0	1.055260E+0	1.078038E+0	1.065303E+0	1.078599E+0	1.086755E+0	1.031602E+0	1.073001E+0	1.058096E+0	1.053745E+0	1.017244E+0	1.108053E+0	1.042317E+0	1.015921E+0	1.058933E+0	1.059325E+0	1.032843E+0	1.014441E+0	1.084783E+0	1.097882E+0	1.065312E+0	1.035506E+0	1.024322E+0	1.085810E+0	1.030335E+0
5.557600E+2	1.059967E+0	1.002145E+0	1.014489E+0	1.034723E+0	1.012140E+0	1.004760E+0	9.955592E-1	1.003134E+0	1.000980E+0	9.962934E-1	1.002575E+0	1.012901E+0	1.009611E+0	9.990187E-1	1.019001E+0	1.030150E+0	9.716208E-1	1.001891E+0	9.549035E-1	9.729062E-1	9.884174E-1	1.016594E+0	1.024417E+0	1.049502E+0	9.887859E-1	1.062833E+0	9.984642E-1	1.060111E+0	1.027586E+0	9.972860E-1	1.031381E+0	9.721254E-1	1.001762E+0	9.574196E-1	1.008182E+0	1.001538E+0	1.014230E+0	1.051343E+0	1.000389E+0	1.042378E+0	1.005398E+0	1.032159E+0	1.043551E+0	1.014389E+0	9.964955E-1	1.011272E+0	9.865944E-1	1.022123E+0	1.019791E+0	1.002353E+0	1.018301E+0	9.891955E-1	1.029633E+0	1.009520E+0	9.609189E-1	1.013209E+0	9.662505E-1	1.031513E+0	1.002949E+0	1.086761E+0	9.954669E-1	1.028822E+0	1.058019E+0	1.034431E+0	1.016463E+0	1.067108E+0	1.002825E+0	1.030579E+0	9.929551E-1	1.024608E+0	1.022154E+0	1.015574E+0	1.023591E+0	9.990330E-1	1.058083E+0	1.008057E+0	9.915975E-1	1.053069E+0	1.085652E+0	1.041697E+0	9.695938E-1	9.797591E-1	9.480496E-1	9.506355E-1	1.036751E+0	9.820650E-1	9.921470E-1	1.006213E+0	1.007829E+0	1.003796E+0	1.000474E+0	1.009236E+0	1.032852E+0	1.009650E+0	1.047453E+0	9.991982E-1	9.813211E-1	9.817015E-1	1.048656E+0	1.006979E+0	1.017190E+0	1.009645E+0	1.070406E+0	9.880243E-1	1.020782E+0	1.032356E+0	1.043432E+0	1.024832E+0	1.062987E+0	1.027061E+0	1.029205E+0	9.812153E-1	1.032984E+0	9.853478E-1	1.035106E+0	1.019837E+0	1.038668E+0	1.016272E+0	1.097187E+0	1.024991E+0	9.931972E-1	9.950274E-1	1.020875E+0	1.021773E+0	9.972926E-1	1.012815E+0	1.006931E+0	1.046806E+0	1.053751E+0	1.011808E+0	1.045333E+0	1.035217E+0	9.643327E-1	1.045221E+0	9.753587E-1	1.042662E+0	1.021161E+0	1.091910E+0	9.912665E-1	1.005225E+0	1.023960E+0	1.023124E+0	1.062999E+0	1.013860E+0	9.940495E-1	9.931736E-1	1.004827E+0	1.008091E+0	1.023095E+0	1.037585E+0	9.846194E-1	1.050801E+0	1.038132E+0	1.010937E+0	1.020732E+0	1.031175E+0	1.029859E+0	1.008234E+0	1.065983E+0	1.016447E+0	9.756964E-1	1.031899E+0	1.037928E+0	9.747157E-1	1.067575E+0	1.024686E+0	1.043758E+0	9.930046E-1	1.018932E+0	9.821024E-1	9.890399E-1
5.560130E+2	9.751430E-1	9.662993E-1	9.826018E-1	9.547612E-1	9.528143E-1	9.372913E-1	9.781425E-1	9.213283E-1	9.160299E-1	9.032577E-1	9.048079E-1	9.596532E-1	9.586705E-1	9.226075E-1	9.235260E-1	9.593255E-1	9.548292E-1	9.298250E-1	9.672756E-1	9.391807E-1	9.686797E-1	9.428632E-1	9.260005E-1	9.409621E-1	9.399063E-1	9.929383E-1	9.466027E-1	9.620143E-1	9.354078E-1	9.386700E-1	9.441471E-1	9.410352E-1	9.944308E-1	9.531951E-1	9.161784E-1	9.329294E-1	9.469878E-1	9.602066E-1	9.644048E-1	9.440595E-1	9.102939E-1	9.529490E-1	9.505966E-1	9.316231E-1	8.911455E-1	9.366931E-1	9.145190E-1	9.237817E-1	9.421226E-1	9.288301E-1	9.509817E-1	9.362746E-1	9.206631E-1	9.258327E-1	9.038135E-1	9.439714E-1	9.626539E-1	9.166630E-1	9.214167E-1	9.652547E-1	9.395863E-1	9.404884E-1	9.560330E-1	9.244252E-1	9.324981E-1	1.037113E+0	9.541851E-1	9.224306E-1	9.305018E-1	9.694333E-1	9.347606E-1	8.943374E-1	9.483786E-1	9.244135E-1	9.372289E-1	9.650541E-1	9.571832E-1	9.448884E-1	1.001070E+0	9.909941E-1	9.440188E-1	9.146462E-1	9.974257E-1	9.052317E-1	9.415412E-1	9.383175E-1	8.904975E-1	9.016905E-1	8.986870E-1	9.148290E-1	9.700057E-1	9.713756E-1	9.782000E-1	9.504518E-1	9.921684E-1	9.613792E-1	9.587422E-1	9.758802E-1	9.466350E-1	9.318761E-1	9.339104E-1	9.674373E-1	9.830143E-1	9.305889E-1	9.365493E-1	9.198273E-1	8.971364E-1	9.890619E-1	9.487876E-1	9.625639E-1	9.522940E-1	9.146332E-1	9.642739E-1	9.394965E-1	9.415122E-1	9.489037E-1	9.712742E-1	9.378694E-1	9.660775E-1	9.690386E-1	9.210901E-1	9.248364E-1	9.589636E-1	9.486096E-1	9.497564E-1	9.273235E-1	9.754944E-1	9.542650E-1	9.471941E-1	9.746783E-1	9.635207E-1	9.628612E-1	9.669716E-1	9.240944E-1	9.477690E-1	9.785919E-1	9.375308E-1	9.313391E-1	9.458893E-1	9.394535E-1	9.818435E-1	9.382593E-1	9.653150E-1	9.649439E-1	9.517283E-1	9.852716E-1	9.621558E-1	9.424735E-1	9.717143E-1	9.621189E-1	9.429306E-1	9.598443E-1	9.524591E-1	9.065154E-1	9.600169E-1	9.393678E-1	9.913431E-1	9.698414E-1	9.239891E-1	9.328382E-1	9.880507E-1	9.447821E-1	9.120050E-1	9.279529E-1	9.605693E-1	9.448620E-1	9.280788E-1	9.485998E-1	9.620900E-1	9.191666E-1	8.927002E-1
5.565090E+2	1.017410E+0	1.005021E+0	1.039955E+0	9.950993E-1	1.001668E+0	9.858185E-1	9.589126E-1	9.865204E-1	9.962292E-1	1.014655E+0	1.026372E+0	1.011312E+0	1.018467E+0	1.024606E+0	1.004795E+0	9.992572E-1	1.012490E+0	9.957771E-1	1.025974E+0	1.007304E+0	9.650219E-1	9.733406E-1	9.905584E-1	1.033314E+0	1.022490E+0	1.007998E+0	9.629462E-1	9.871577E-1	1.011858E+0	1.020480E+0	1.031307E+0	9.845417E-1	1.005592E+0	9.748632E-1	1.040677E+0	1.010991E+0	1.017978E+0	9.759762E-1	9.901810E-1	9.940935E-1	1.035917E+0	1.008612E+0	1.021767E+0	1.029532E+0	9.906820E-1	1.012773E+0	9.831109E-1	9.953611E-1	1.048835E+0	9.354261E-1	9.741329E-1	1.039452E+0	1.017503E+0	1.013886E+0	9.877127E-1	9.807847E-1	1.027244E+0	1.015825E+0	1.001065E+0	1.007313E+0	1.046423E+0	9.913176E-1	1.015815E+0	9.986504E-1	1.056486E+0	9.855198E-1	1.010047E+0	1.024207E+0	9.561102E-1	9.936477E-1	9.751223E-1	1.017245E+0	1.007128E+0	9.436815E-1	1.045739E+0	1.005254E+0	1.010001E+0	9.839800E-1	9.954043E-1	9.955259E-1	1.030648E+0	1.018252E+0	9.692733E-1	9.748362E-1	1.019447E+0	9.957522E-1	9.872746E-1	9.951429E-1	1.002905E+0	1.003235E+0	1.012446E+0	1.026909E+0	1.027916E+0	1.036993E+0	1.045840E+0	1.022075E+0	9.902263E-1	9.807057E-1	1.012784E+0	1.004095E+0	1.001145E+0	1.050975E+0	1.002408E+0	1.012194E+0	1.032091E+0	9.987834E-1	1.019229E+0	1.001887E+0	1.007681E+0	1.025742E+0	1.026739E+0	1.006801E+0	1.012501E+0	1.026996E+0	1.064612E+0	1.022046E+0	9.745809E-1	9.961646E-1	9.853433E-1	9.597783E-1	1.007042E+0	1.006172E+0	1.055733E+0	1.022648E+0	9.896508E-1	9.906359E-1	1.011176E+0	9.698127E-1	9.526768E-1	9.568431E-1	9.970350E-1	9.804747E-1	1.009808E+0	1.026613E+0	9.868206E-1	1.055142E+0	1.029731E+0	1.007554E+0	9.967951E-1	1.024896E+0	9.764205E-1	1.022931E+0	1.016285E+0	9.984550E-1	9.587185E-1	9.617568E-1	1.000560E+0	9.727037E-1	1.001532E+0	1.018872E+0	1.005433E+0	9.688810E-1	1.005500E+0	1.034941E+0	9.738700E-1	9.977951E-1	9.970011E-1	1.005100E+0	1.031243E+0	9.989493E-1	9.648761E-1	1.033224E+0	9.894994E-1	1.014846E+0	9.830832E-1	1.006226E+0	1.024419E+0	1.046139E+0	9.576932E-1	9.233759E-1	1.015992E+0
5.570270E+2	9.322741E-1	1.007613E+0	9.590656E-1	9.635986E-1	9.611416E-1	9.662763E-1	9.942668E-1	9.947081E-1	9.711259E-1	1.018348E+0	9.829418E-1	9.679038E-1	9.909784E-1	1.031810E+0	9.945723E-1	9.840307E-1	9.578415E-1	9.674935E-1	9.905950E-1	9.935849E-1	9.510974E-1	9.912639E-1	9.593233E-1	9.791770E-1	9.388407E-1	9.678853E-1	9.745408E-1	1.001853E+0	9.681674E-1	9.996894E-1	9.941552E-1	1.015363E+0	9.753770E-1	9.686454E-1	1.020840E+0	9.220750E-1	9.776433E-1	9.818374E-1	9.689647E-1	1.004934E+0	1.010603E+0	9.576537E-1	9.937183E-1	9.991399E-1	9.745102E-1	1.008845E+0	1.015065E+0	9.479166E-1	9.738903E-1	9.678908E-1	9.958293E-1	9.914083E-1	9.701721E-1	9.702129E-1	9.694017E-1	1.004723E+0	1.021420E+0	9.800300E-1	1.020242E+0	9.450466E-1	9.927473E-1	9.800795E-1	1.002987E+0	1.008871E+0	9.773323E-1	9.746882E-1	1.024684E+0	9.964371E-1	1.019779E+0	9.557302E-1	9.732047E-1	9.699721E-1	1.006063E+0	9.701476E-1	9.940318E-1	9.761088E-1	9.567159E-1	9.981858E-1	9.991547E-1	9.918264E-1	1.003318E+0	9.493538E-1	1.005822E+0	9.737194E-1	9.702753E-1	9.894963E-1	1.017659E+0	9.855691E-1	9.687185E-1	9.971664E-1	9.624405E-1	1.027709E+0	9.911318E-1	9.409154E-1	9.553900E-1	9.994399E-1	9.965730E-1	9.709088E-1	1.016266E+0	9.656891E-1	9.901707E-1	9.933939E-1	1.012804E+0	9.847766E-1	9.782389E-1	9.495590E-1	9.663846E-1	1.022281E+0	1.002656E+0	9.720831E-1	9.824203E-1	9.531274E-1	9.550932E-1	9.863014E-1	9.984184E-1	9.716012E-1	9.800227E-1	9.898966E-1	9.807672E-1	9.395884E-1	9.610817E-1	9.665969E-1	9.904699E-1	9.311318E-1	1.028768E+0	9.677510E-1	1.000792E+0	9.622252E-1	9.997736E-1	9.732488E-1	1.018722E+0	1.000605E+0	9.878500E-1	9.814543E-1	1.031916E+0	9.517801E-1	9.708969E-1	9.895290E-1	9.650138E-1	9.959096E-1	9.847751E-1	1.008279E+0	9.736325E-1	9.976446E-1	9.796965E-1	1.009230E+0	9.767207E-1	9.641705E-1	9.654669E-1	9.900511E-1	1.023784E+0	1.032437E+0	9.734693E-1	9.765700E-1	9.980111E-1	9.882448E-1	9.730880E-1	9.738339E-1	9.857316E-1	9.915618E-1	9.903872E-1	9.591095E-1	9.705584E-1	9.919824E-1	9.706437E-1	1.002872E+0	1.027526E+0	9.886049E-1	9.746422E-1	9.768906E-1	9.951650E-1
5.575470E+2	1.027850E+0	1.011209E+0	1.028743E+0	1.043424E+0	1.037100E+0	1.028250E+0	1.013583E+0	1.047839E+0	1.032106E+0	1.029098E+0	1.039561E+0	9.991555E-1	1.039769E+0	1.034836E+0	1.037617E+0	1.076153E+0	1.010901E+0	1.036807E+0	9.814994E-1	1.013892E+0	1.032643E+0	1.043385E+0	1.075387E+0	1.008345E+0	1.039157E+0	1.018729E+0	1.021533E+0	1.044858E+0	1.044855E+0	9.923730E-1	1.013995E+0	1.015448E+0	1.044511E+0	1.020994E+0	1.012359E+0	1.009777E+0	9.954158E-1	1.024460E+0	1.005312E+0	1.032347E+0	9.871728E-1	1.009496E+0	1.022682E+0	1.041675E+0	1.033847E+0	1.018114E+0	1.070318E+0	1.030416E+0	1.019896E+0	1.037161E+0	1.005218E+0	1.016158E+0	9.812335E-1	1.066870E+0	1.083782E+0	1.009747E+0	1.028077E+0	1.044880E+0	1.016506E+0	1.023750E+0	9.893821E-1	1.020307E+0	1.027774E+0	1.007010E+0	9.981446E-1	1.036218E+0	1.052589E+0	1.027103E+0	1.019160E+0	1.029620E+0	1.037380E+0	1.027575E+0	1.016809E+0	1.050162E+0	1.021319E+0	1.011809E+0	1.025305E+0	1.049197E+0	1.069338E+0	1.005954E+0	1.013458E+0	1.074012E+0	1.037207E+0	1.014804E+0	1.034312E+0	1.044000E+0	1.050654E+0	1.029446E+0	1.003826E+0	1.043556E+0	9.872343E-1	9.955001E-1	1.083393E+0	1.047868E+0	1.068614E+0	1.003711E+0	1.041809E+0	1.077852E+0	1.013273E+0	9.989645E-1	1.003079E+0	9.833925E-1	1.038312E+0	1.042458E+0	1.018670E+0	1.066677E+0	1.016275E+0	9.765448E-1	1.046768E+0	1.027154E+0	1.068743E+0	1.047120E+0	1.020768E+0	1.004290E+0	1.030224E+0	1.014564E+0	1.031669E+0	1.043467E+0	1.025630E+0	1.074159E+0	1.026037E+0	1.013256E+0	9.642668E-1	1.074749E+0	1.037835E+0	1.011825E+0	1.031750E+0	1.007959E+0	1.028323E+0	1.027670E+0	1.079942E+0	1.013369E+0	1.016990E+0	1.043424E+0	1.047382E+0	1.034489E+0	1.024892E+0	1.022319E+0	1.031142E+0	1.017201E+0	1.044874E+0	9.899223E-1	1.068623E+0	9.936324E-1	1.064929E+0	9.925930E-1	1.091905E+0	1.025925E+0	1.054911E+0	1.027066E+0	1.031620E+0	1.045075E+0	9.981980E-1	1.092292E+0	1.018415E+0	1.033321E+0	1.022917E+0	9.961527E-1	1.074610E+0	1.060794E+0	1.033631E+0	1.025980E+0	1.130817E+0	9.956072E-1	9.904948E-1	1.066345E+0	1.006266E+0	1.007443E+0	9.786806E-1	9.950994E-1	1.011766E+0
5.580110E+2	9.974969E-1	9.830195E-1	9.878305E-1	9.881092E-1	9.801881E-1	1.029112E+0	1.018946E+0	9.847141E-1	1.036333E+0	9.606373E-1	9.905484E-1	1.025216E+0	9.571488E-1	1.025269E+0	9.919527E-1	1.016536E+0	1.007027E+0	9.894604E-1	9.927137E-1	1.007466E+0	9.997650E-1	1.015785E+0	1.042338E+0	1.020147E+0	1.010547E+0	9.913554E-1	9.617520E-1	9.920764E-1	1.017971E+0	9.884296E-1	1.011606E+0	9.789336E-1	1.002851E+0	1.028882E+0	9.815672E-1	1.012581E+0	1.013930E+0	9.932532E-1	9.875113E-1	9.985897E-1	9.768717E-1	1.042897E+0	1.027497E+0	9.738712E-1	1.028490E+0	1.011061E+0	9.906149E-1	1.027888E+0	9.936185E-1	1.011482E+0	1.009877E+0	9.766652E-1	1.016931E+0	9.775499E-1	1.020801E+0	9.919026E-1	9.968721E-1	9.913510E-1	1.009885E+0	1.010824E+0	9.699315E-1	9.710522E-1	9.526215E-1	9.997964E-1	1.031849E+0	1.028703E+0	1.033834E+0	9.935238E-1	1.025368E+0	1.026967E+0	1.005072E+0	9.773791E-1	1.027711E+0	1.039439E+0	1.033090E+0	9.850641E-1	1.011072E+0	1.008223E+0	9.816330E-1	1.017236E+0	1.005107E+0	9.948893E-1	9.951898E-1	9.817793E-1	9.609743E-1	9.848201E-1	9.540557E-1	9.806639E-1	1.009448E+0	1.003329E+0	9.973480E-1	9.751737E-1	9.980231E-1	9.905401E-1	9.805862E-1	9.758782E-1	1.011106E+0	9.872000E-1	9.819591E-1	9.828598E-1	9.841874E-1	9.597631E-1	9.814600E-1	1.001790E+0	9.786606E-1	1.011878E+0	1.004624E+0	9.668644E-1	1.006972E+0	1.022784E+0	9.971133E-1	9.868602E-1	1.016915E+0	9.976261E-1	9.416673E-1	1.018554E+0	1.014369E+0	1.017270E+0	1.030593E+0	1.028619E+0	9.763321E-1	1.002641E+0	9.907550E-1	1.015715E+0	9.976982E-1	1.027369E+0	9.793688E-1	9.923144E-1	9.869949E-1	9.982058E-1	1.016781E+0	9.738615E-1	9.833672E-1	1.028783E+0	1.020186E+0	9.751691E-1	9.762678E-1	9.925787E-1	1.029904E+0	9.929609E-1	1.027941E+0	9.738958E-1	1.053803E+0	9.785930E-1	9.955871E-1	9.904184E-1	9.752745E-1	1.029458E+0	9.795878E-1	1.007738E+0	1.005138E+0	9.781517E-1	1.014750E+0	9.765133E-1	9.861148E-1	1.010206E+0	9.799445E-1	1.010857E+0	1.011982E+0	9.871681E-1	1.015218E+0	1.004503E+0	1.018591E+0	1.041204E+0	1.006402E+0	9.467072E-1	1.026998E+0	9.876379E-1	1.033831E+0	1.033479E+0	9.348363E-1
5.585100E+2	9.472971E-1	9.744175E-1	9.628125E-1	9.310467E-1	1.006578E+0	9.352811E-1	9.428062E-1	9.915936E-1	9.472348E-1	1.006219E+0	9.364329E-1	9.925526E-1	9.397965E-1	9.562981E-1	9.457649E-1	9.656768E-1	9.533227E-1	9.771377E-1	9.728641E-1	9.581328E-1	9.503222E-1	9.629319E-1	9.620976E-1	9.849738E-1	9.690856E-1	9.446622E-1	9.677304E-1	9.569629E-1	9.515921E-1	9.429289E-1	9.526077E-1	9.568847E-1	9.768320E-1	9.763385E-1	9.593526E-1	9.517729E-1	9.522410E-1	9.713915E-1	9.919705E-1	9.897754E-1	9.490923E-1	1.007694E+0	9.349364E-1	9.668948E-1	9.378893E-1	9.722173E-1	9.729963E-1	9.477276E-1	9.319333E-1	9.952494E-1	9.860919E-1	9.693040E-1	9.366961E-1	9.637046E-1	9.523254E-1	9.542434E-1	9.180731E-1	9.780860E-1	9.374710E-1	9.795439E-1	9.702565E-1	9.662013E-1	9.643074E-1	9.504750E-1	9.634569E-1	9.441503E-1	9.179408E-1	9.564609E-1	9.576135E-1	9.844200E-1	9.995187E-1	9.685843E-1	9.576396E-1	9.584446E-1	9.763913E-1	9.574697E-1	9.757132E-1	9.475868E-1	9.561747E-1	9.643485E-1	9.582811E-1	9.440967E-1	9.808169E-1	9.860405E-1	9.704565E-1	9.709991E-1	9.280009E-1	9.723467E-1	9.479276E-1	9.811530E-1	9.704218E-1	9.487367E-1	9.402309E-1	9.816074E-1	9.286679E-1	9.769697E-1	9.412937E-1	1.005166E+0	9.541060E-1	9.926427E-1	9.934419E-1	9.677895E-1	9.553919E-1	9.764882E-1	9.764601E-1	9.903647E-1	9.736270E-1	9.905383E-1	9.541551E-1	9.616023E-1	9.767685E-1	9.506557E-1	9.838082E-1	9.558486E-1	9.603053E-1	9.439532E-1	9.496853E-1	9.487214E-1	9.277632E-1	9.200210E-1	9.383637E-1	1.004296E+0	1.024328E+0	9.382675E-1	9.255242E-1	9.755782E-1	9.298688E-1	9.597753E-1	9.646195E-1	9.583007E-1	9.415453E-1	9.442950E-1	9.496033E-1	9.536928E-1	9.761843E-1	9.537485E-1	9.860655E-1	9.675621E-1	9.943519E-1	9.869835E-1	9.407866E-1	9.762821E-1	9.451096E-1	1.015601E+0	9.592941E-1	9.883036E-1	9.399137E-1	1.017438E+0	9.513583E-1	9.320590E-1	9.911188E-1	9.285877E-1	9.749566E-1	9.094845E-1	9.976830E-1	9.377064E-1	1.001511E+0	9.599718E-1	9.587816E-1	9.688572E-1	9.511753E-1	9.890051E-1	9.553631E-1	9.880107E-1	9.336863E-1	9.584562E-1	9.468827E-1	9.662624E-1	1.012024E+0	9.771625E-1	9.118651E-1
5.590040E+2	1.068345E+0	1.032873E+0	1.010384E+0	1.016558E+0	1.031436E+0	1.047610E+0	1.030777E+0	9.848780E-1	1.066727E+0	1.038936E+0	1.042981E+0	9.905326E-1	1.000369E+0	1.009902E+0	1.038341E+0	9.949133E-1	1.039982E+0	1.064902E+0	1.039168E+0	1.049826E+0	1.042937E+0	1.022183E+0	1.041994E+0	9.984521E-1	1.034859E+0	1.039734E+0	1.025454E+0	1.060798E+0	9.950416E-1	1.033345E+0	1.011920E+0	1.051159E+0	1.011928E+0	1.029617E+0	1.036574E+0	1.070424E+0	1.121536E+0	1.046226E+0	1.006493E+0	1.023383E+0	1.059912E+0	1.047112E+0	1.055145E+0	1.045638E+0	1.069291E+0	1.033884E+0	1.022494E+0	1.046172E+0	1.023966E+0	1.060777E+0	1.032165E+0	1.047559E+0	1.046913E+0	1.032009E+0	1.015834E+0	1.022330E+0	1.012340E+0	9.888190E-1	1.002555E+0	1.056199E+0	1.033549E+0	1.052748E+0	1.030599E+0	1.040233E+0	1.033278E+0	9.999503E-1	1.055341E+0	1.004958E+0	1.059264E+0	1.029090E+0	1.023646E+0	1.005032E+0	1.020023E+0	1.020154E+0	1.002909E+0	1.013893E+0	1.038067E+0	1.019371E+0	1.029715E+0	1.083872E+0	1.001094E+0	1.027032E+0	1.031045E+0	1.055461E+0	1.064948E+0	1.055931E+0	1.021302E+0	1.041340E+0	1.048600E+0	1.011316E+0	1.019031E+0	1.024222E+0	1.014601E+0	1.029828E+0	1.058717E+0	1.007168E+0	9.898705E-1	1.046093E+0	9.798896E-1	1.024412E+0	1.067106E+0	1.048128E+0	1.030956E+0	1.039616E+0	1.029549E+0	1.017671E+0	1.030793E+0	1.023055E+0	1.003656E+0	9.837809E-1	9.769013E-1	1.061354E+0	1.000359E+0	1.045761E+0	9.955703E-1	1.058657E+0	1.080822E+0	1.023665E+0	1.031284E+0	1.036398E+0	1.045147E+0	1.001353E+0	1.050515E+0	1.031426E+0	1.029647E+0	1.002391E+0	1.010040E+0	1.037523E+0	1.081676E+0	1.055402E+0	9.774174E-1	1.017047E+0	1.030559E+0	9.948787E-1	1.013800E+0	1.041972E+0	1.081901E+0	1.023380E+0	1.002949E+0	1.047071E+0	1.020619E+0	1.006052E+0	9.871664E-1	1.026935E+0	1.060335E+0	1.023299E+0	1.041224E+0	1.029606E+0	9.933080E-1	1.051314E+0	1.011884E+0	1.065991E+0	1.039985E+0	1.019167E+0	1.037846E+0	1.039661E+0	1.064639E+0	1.045216E+0	9.973399E-1	1.013497E+0	1.024495E+0	1.056205E+0	9.856682E-1	1.028473E+0	1.023608E+0	1.025137E+0	1.018501E+0	1.027181E+0	1.040205E+0	1.031297E+0	1.125836E+0
5.595110E+2	1.036395E+0	1.035430E+0	1.049712E+0	1.055335E+0	1.045920E+0	1.060761E+0	1.034050E+0	1.059785E+0	1.033224E+0	9.899428E-1	1.034474E+0	1.033049E+0	1.063813E+0	9.781958E-1	1.049611E+0	1.024686E+0	1.037871E+0	1.012988E+0	1.034305E+0	1.062560E+0	1.071805E+0	1.046037E+0	1.006181E+0	1.026981E+0	1.051652E+0	1.054299E+0	1.104247E+0	1.026709E+0	1.068649E+0	1.047166E+0	1.049613E+0	1.056683E+0	1.058300E+0	1.080966E+0	1.059390E+0	1.057568E+0	9.936470E-1	1.058643E+0	1.089380E+0	1.028343E+0	1.051424E+0	1.024187E+0	1.051581E+0	9.874621E-1	1.001400E+0	1.035568E+0	1.061624E+0	1.050170E+0	1.042495E+0	1.029354E+0	1.046407E+0	1.027026E+0	1.067730E+0	1.043773E+0	1.041418E+0	1.044943E+0	1.043896E+0	1.059929E+0	1.054642E+0	1.070886E+0	1.043361E+0	1.051686E+0	1.065178E+0	1.071870E+0	1.045894E+0	1.087667E+0	1.073194E+0	1.051595E+0	1.071911E+0	1.024522E+0	1.058394E+0	1.037497E+0	1.030373E+0	1.042691E+0	1.023910E+0	1.063449E+0	1.022614E+0	1.039113E+0	1.031456E+0	1.059155E+0	1.035322E+0	1.034897E+0	1.010783E+0	9.944993E-1	1.055491E+0	1.059607E+0	1.077065E+0	1.060606E+0	1.072604E+0	1.042469E+0	1.046930E+0	1.059182E+0	1.061599E+0	1.045449E+0	1.057336E+0	1.032151E+0	1.045759E+0	1.035473E+0	1.056563E+0	1.065430E+0	1.086279E+0	1.039944E+0	9.938450E-1	1.003072E+0	1.027688E+0	1.043515E+0	1.034360E+0	1.062303E+0	1.017298E+0	1.046517E+0	1.032158E+0	1.065557E+0	1.045571E+0	1.036255E+0	9.979615E-1	1.023447E+0	1.058274E+0	1.015990E+0	1.038834E+0	1.038249E+0	1.077853E+0	1.034343E+0	1.013931E+0	1.038151E+0	1.052469E+0	1.034801E+0	1.063751E+0	1.038894E+0	1.060661E+0	1.096230E+0	1.028102E+0	1.058257E+0	1.059378E+0	1.032811E+0	1.033756E+0	1.023682E+0	9.985875E-1	1.015787E+0	1.086707E+0	1.030288E+0	1.049179E+0	1.053039E+0	1.032041E+0	1.041521E+0	1.042518E+0	1.028677E+0	1.014913E+0	1.017568E+0	1.092020E+0	1.020628E+0	1.027436E+0	1.068147E+0	1.040629E+0	1.049291E+0	1.037487E+0	1.042838E+0	1.040296E+0	1.035651E+0	1.037617E+0	1.032591E+0	1.048666E+0	1.037129E+0	1.036071E+0	1.018983E+0	1.077990E+0	1.016973E+0	1.026019E+0	1.026705E+0	1.068039E+0	1.124287E+0	1.109045E+0
5.600300E+2	9.467981E-1	9.324506E-1	9.506026E-1	9.579446E-1	9.459949E-1	9.059496E-1	9.343040E-1	9.450910E-1	9.294031E-1	9.285681E-1	9.283618E-1	9.607361E-1	9.743674E-1	9.382550E-1	9.173934E-1	9.145384E-1	9.328224E-1	9.034675E-1	9.338619E-1	9.264979E-1	9.403170E-1	9.226603E-1	9.500962E-1	9.269242E-1	9.153259E-1	9.377252E-1	9.663345E-1	9.602718E-1	9.336480E-1	9.642177E-1	9.081620E-1	8.908490E-1	9.040581E-1	9.302396E-1	8.780051E-1	9.869540E-1	9.226535E-1	9.597115E-1	9.286091E-1	9.514795E-1	9.117331E-1	9.249198E-1	9.309606E-1	9.249506E-1	9.292547E-1	9.256867E-1	9.072458E-1	9.782863E-1	9.067924E-1	9.493177E-1	8.980574E-1	9.276747E-1	9.288283E-1	9.515300E-1	9.477999E-1	9.388125E-1	9.168302E-1	8.974450E-1	9.128464E-1	9.166222E-1	9.023871E-1	9.212006E-1	9.465875E-1	9.702849E-1	9.148967E-1	9.609129E-1	8.871127E-1	9.384760E-1	8.671804E-1	9.637148E-1	9.091789E-1	9.921991E-1	9.125459E-1	9.775604E-1	9.186805E-1	9.269778E-1	9.164161E-1	8.973333E-1	9.425714E-1	9.541035E-1	9.170989E-1	9.352378E-1	9.628748E-1	9.750248E-1	9.492019E-1	9.090997E-1	9.192906E-1	9.494861E-1	9.511637E-1	9.109952E-1	9.687776E-1	9.255775E-1	8.947513E-1	9.278585E-1	9.313073E-1	9.493089E-1	9.544378E-1	9.529812E-1	9.580327E-1	9.345700E-1	9.158767E-1	9.636884E-1	9.668153E-1	9.776919E-1	9.673530E-1	9.622009E-1	9.232670E-1	9.009809E-1	9.632761E-1	9.253041E-1	9.278016E-1	9.247983E-1	9.277867E-1	9.679605E-1	9.667880E-1	9.450124E-1	9.478861E-1	9.614942E-1	9.603564E-1	9.567664E-1	9.337520E-1	9.388721E-1	9.431905E-1	9.251751E-1	9.138132E-1	9.475428E-1	9.157944E-1	9.421164E-1	9.282999E-1	8.978103E-1	1.007104E+0	9.396325E-1	9.528719E-1	9.514638E-1	9.112919E-1	9.075935E-1	9.316164E-1	9.171090E-1	9.247387E-1	9.305267E-1	9.300005E-1	9.553689E-1	9.093624E-1	9.304922E-1	9.521198E-1	9.351981E-1	9.428248E-1	9.427221E-1	9.602838E-1	9.270296E-1	8.997022E-1	9.037219E-1	9.425363E-1	9.176381E-1	9.431223E-1	9.628521E-1	9.151354E-1	9.594645E-1	9.338044E-1	9.284000E-1	9.522146E-1	8.861813E-1	8.826818E-1	8.984402E-1	9.406897E-1	9.716129E-1	9.430185E-1	9.473681E-1	9.577516E-1	9.330177E-1	9.074259E-1
5.605090E+2	1.025557E+0	9.921212E-1	1.000098E+0	1.048101E+0	9.681567E-1	1.026161E+0	1.061124E+0	9.856900E-1	1.017705E+0	1.016385E+0	1.006127E+0	1.012490E+0	9.966573E-1	9.938675E-1	1.014883E+0	1.019502E+0	1.023272E+0	1.011157E+0	1.016747E+0	9.790987E-1	1.004592E+0	1.022631E+0	9.865801E-1	1.042238E+0	9.964882E-1	1.001444E+0	9.968639E-1	1.004223E+0	9.929954E-1	9.709763E-1	1.007631E+0	1.042476E+0	1.028808E+0	9.965515E-1	1.035713E+0	9.686993E-1	9.815875E-1	9.973200E-1	1.035858E+0	1.008689E+0	1.001384E+0	9.939150E-1	9.826731E-1	9.994566E-1	1.016080E+0	9.896667E-1	9.672926E-1	9.953265E-1	1.033318E+0	9.810527E-1	1.028948E+0	9.971220E-1	9.915951E-1	9.792668E-1	9.965357E-1	1.022794E+0	1.031058E+0	1.000830E+0	1.034308E+0	9.492210E-1	9.874981E-1	1.026348E+0	9.938556E-1	9.586001E-1	9.747522E-1	9.707095E-1	9.814731E-1	9.901110E-1	1.015615E+0	1.008611E+0	1.003151E+0	9.983646E-1	1.010172E+0	1.034057E+0	9.805624E-1	1.066766E+0	1.013454E+0	1.030742E+0	9.626438E-1	9.661396E-1	1.043966E+0	9.924805E-1	1.009331E+0	1.057822E+0	9.968567E-1	1.005629E+0	1.045087E+0	1.006401E+0	9.793775E-1	9.859640E-1	1.007348E+0	9.919940E-1	9.931816E-1	9.535778E-1	9.850432E-1	9.784990E-1	1.021963E+0	9.453561E-1	9.755427E-1	1.016763E+0	9.595156E-1	9.701983E-1	1.021740E+0	9.661422E-1	9.780814E-1	9.610110E-1	1.011746E+0	1.035573E+0	9.820716E-1	9.709604E-1	9.881861E-1	9.976595E-1	9.810460E-1	9.901247E-1	1.015935E+0	1.021207E+0	9.597759E-1	9.729211E-1	1.012363E+0	1.005134E+0	1.006794E+0	1.044613E+0	9.781637E-1	1.001281E+0	1.029101E+0	1.009925E+0	1.019075E+0	1.039776E+0	1.026410E+0	1.004486E+0	1.000315E+0	1.022680E+0	1.007754E+0	9.846532E-1	9.951181E-1	1.017829E+0	9.894931E-1	1.046065E+0	9.435615E-1	9.970139E-1	9.826545E-1	1.039938E+0	1.011567E+0	9.897594E-1	9.576260E-1	1.018216E+0	9.939424E-1	9.979413E-1	9.912767E-1	1.026086E+0	9.961316E-1	9.881344E-1	9.649198E-1	1.016317E+0	9.655669E-1	9.711763E-1	1.000383E+0	9.775674E-1	1.003213E+0	9.935648E-1	9.922396E-1	1.007109E+0	1.011991E+0	1.031040E+0	1.025380E+0	1.029196E+0	1.004946E+0	9.806073E-1	9.870691E-1	1.018266E+0	1.012759E+0
5.610070E+2	1.000576E+0	1.025845E+0	1.010797E+0	1.000783E+0	1.021816E+0	1.014781E+0	1.011230E+0	1.019181E+0	9.699118E-1	9.972101E-1	1.012201E+0	1.007053E+0	1.018634E+0	1.006961E+0	1.005070E+0	1.004707E+0	1.024471E+0	1.040810E+0	1.012272E+0	1.001637E+0	1.041498E+0	9.997824E-1	9.854440E-1	9.794476E-1	1.021554E+0	1.036168E+0	1.018598E+0	9.650907E-1	1.015222E+0	1.040394E+0	1.019002E+0	1.007662E+0	9.917439E-1	9.929027E-1	9.755218E-1	1.009158E+0	1.023368E+0	9.911816E-1	9.957202E-1	9.683666E-1	1.015889E+0	9.835120E-1	9.790391E-1	1.031380E+0	1.018556E+0	9.921841E-1	1.009239E+0	9.807356E-1	1.025255E+0	1.032289E+0	1.023274E+0	1.007631E+0	1.042398E+0	1.001197E+0	9.843904E-1	1.029720E+0	1.004190E+0	1.042805E+0	1.010478E+0	1.040594E+0	1.064464E+0	1.019060E+0	1.000276E+0	9.942098E-1	1.003911E+0	1.011480E+0	9.637846E-1	1.017129E+0	1.008000E+0	9.836777E-1	1.015332E+0	1.006153E+0	1.011535E+0	9.636641E-1	1.003367E+0	9.932076E-1	1.030642E+0	1.026269E+0	1.031910E+0	9.618389E-1	9.917068E-1	1.029748E+0	9.976577E-1	9.860128E-1	9.780372E-1	9.846663E-1	9.996112E-1	9.789985E-1	1.015430E+0	1.020816E+0	1.028023E+0	1.024997E+0	9.951723E-1	1.045363E+0	9.884978E-1	1.054800E+0	1.006962E+0	9.982638E-1	1.051584E+0	1.014573E+0	9.991988E-1	1.022727E+0	9.962675E-1	9.957718E-1	1.013209E+0	9.983395E-1	1.019695E+0	1.019973E+0	1.015466E+0	1.064072E+0	1.023168E+0	1.006068E+0	1.056151E+0	9.888368E-1	1.028519E+0	9.809589E-1	1.002916E+0	1.030411E+0	1.007066E+0	1.041288E+0	1.027597E+0	9.878577E-1	9.886466E-1	1.021454E+0	9.954941E-1	1.032181E+0	1.038385E+0	1.049603E+0	9.705652E-1	1.031803E+0	9.330355E-1	1.049780E+0	1.001819E+0	1.002226E+0	9.835460E-1	1.038594E+0	1.010548E+0	1.018116E+0	1.024837E+0	9.771488E-1	1.042749E+0	9.742925E-1	1.002409E+0	1.027367E+0	1.029176E+0	1.052308E+0	1.022721E+0	1.002468E+0	1.010256E+0	9.991577E-1	1.007754E+0	1.020873E+0	1.045056E+0	1.007785E+0	1.041884E+0	1.016200E+0	1.005084E+0	1.036186E+0	9.656781E-1	1.024616E+0	1.027098E+0	1.001555E+0	1.018759E+0	9.914138E-1	1.048023E+0	9.764741E-1	9.754250E-1	1.022051E+0	9.900643E-1	9.871251E-1	9.753096E-1
