Photon Energy (eV)	#1	#2	#3	#4	#5	#6	#7	#8	#9	#10	#11	#12	#13	#14	#15	#16	#17	#18	#19	#20	#21	#22	#23	#24	#25	#26	#27	#28	#29	#30	#31	#32	#33	#34	#35	#36	#37	#38	#39	#40	#41	#42	#43	#44	#45	#46	#47	#48	#49	#50	#51	#52	#53	#54	#55	#56	#57	#58	#59	#60	#61	#62	#63	#64	#65	#66	#67	#68	#69	#70	#71	#72	#73	#74	#75	#76	#77	#78	#79	#80	#81	#82	#83	#84	#85	#86	#87	#88	#89	#90	#91	#92	#93	#94	#95	#96	#97	#98	#99	#100	#101	#102	#103	#104	#105	#106	#107	#108	#109	#110	#111	#112	#113	#114	#115	#116	#117	#118	#119	#120	#121	#122	#123	#124	#125	#126	#127	#128	#129	#130	#131	#132	#133	#134	#135	#136	#137	#138	#139	#140	#141	#142	#143	#144	#145	#146	#147	#148	#149	#150	#151	#152	#153	#154	#155	#156	#157	#158	#159	#160	#161	#162	#163	#164	#165	#166	#167	#168	#169	#170	
5.300160E+2	-6.466062E-3	-1.078458E-2	-8.118684E-3	-3.068033E-3	-2.596452E-3	-4.844428E-3	-4.501497E-3	-1.085851E-2	4.438085E-3	-8.072099E-3	-1.047922E-2	-2.547174E-3	-7.547218E-3	-5.198154E-3	-1.156288E-2	-9.283104E-3	-5.298825E-3	-7.692221E-3	-9.826307E-3	-1.421043E-2	5.855304E-3	-1.717758E-3	3.791866E-4	-1.047171E-2	-9.645754E-3	-1.477323E-2	-1.257978E-2	-3.790022E-3	9.278478E-4	-8.315135E-3	-6.357186E-3	6.527763E-4	-9.756282E-3	-9.895845E-3	6.842589E-4	-3.705802E-3	-2.314767E-3	-8.375887E-3	-8.934808E-3	-6.601191E-3	-5.799563E-3	-3.168074E-3	-2.884386E-3	-5.701791E-3	-1.791873E-3	-3.542493E-3	-1.026897E-2	-4.966906E-3	-1.219377E-2	-7.060457E-3	-1.279609E-2	-5.251664E-3	-5.825677E-3	-5.905069E-3	-5.582010E-3	-6.391549E-3	-1.280086E-2	-1.581604E-2	-2.528983E-3	-1.089552E-2	-8.102826E-3	-1.232569E-2	-1.911569E-2	3.148136E-4	-9.985736E-3	5.002868E-4	-7.672955E-3	7.363857E-3	-3.839000E-3	-7.200650E-3	1.138057E-4	-1.134234E-2	-6.510010E-3	-1.952939E-3	-9.627124E-3	-5.066267E-3	-7.447914E-3	-1.255976E-2	-9.664691E-4	-3.973954E-4	-7.305736E-3	-1.597575E-4	-1.334913E-2	-5.660622E-3	-3.152341E-3	-1.359871E-3	-4.604755E-3	-1.249347E-2	1.610633E-3	-1.020687E-2	-7.322902E-3	-1.454334E-2	-1.097363E-2	-1.157170E-2	-7.787422E-4	-3.153660E-3	-4.018584E-3	-7.985151E-3	-9.433859E-3	4.138517E-3	-1.510099E-2	-5.953834E-3	-1.761627E-2	-9.756670E-3	-2.091857E-3	-3.264350E-3	-7.805101E-3	-5.707216E-3	-1.115212E-2	-1.899069E-3	-1.211428E-2	-1.105571E-2	9.577834E-4	1.745181E-3	2.999231E-3	-1.098145E-2	-4.970121E-3	-9.478465E-3	-9.152662E-3	-1.496942E-2	-7.473923E-3	-9.597464E-3	3.051062E-4	-8.167230E-3	-1.203829E-2	-8.284676E-3	-1.283533E-2	-1.398385E-2	-8.228083E-3	-1.154597E-2	-1.056277E-2	-6.788907E-4	6.802459E-5	2.883868E-3	-1.375717E-2	-5.136312E-3	-1.784327E-2	2.971167E-3	-1.136628E-2	-1.312334E-2	-9.478549E-3	-5.789390E-4	-7.435982E-4	-3.685105E-3	1.715852E-3	-1.183917E-2	7.136956E-3	-1.112823E-2	-9.670386E-3	-1.185206E-2	-3.464174E-3	-8.273494E-3	-4.458199E-3	-9.379510E-3	-5.315290E-3	-4.206694E-3	-9.438178E-3	-1.356177E-2	2.600396E-3	-4.393229E-3	-7.916510E-3	-1.021031E-2	-1.229287E-3	-1.649724E-2	-1.247791E-2	-1.254703E-2	-3.129485E-3	-1.361980E-3	2.843378E-3	-1.184613E-3
5.305130E+2	-4.086186E-3	-1.947035E-3	3.183422E-3	-5.791013E-3	8.490671E-3	-5.869154E-3	-1.036757E-3	-8.157990E-3	-3.219047E-3	6.127206E-4	2.135049E-3	-5.305755E-3	-7.430392E-3	-5.665866E-3	-1.436898E-3	-4.596762E-3	-9.638681E-3	-1.129837E-3	-1.086558E-2	-1.463185E-3	-8.052632E-3	-4.695090E-3	1.613451E-3	1.288404E-3	9.361631E-4	-1.410932E-2	-4.196809E-3	-9.601547E-3	-3.249850E-5	1.419375E-3	2.265760E-4	5.630342E-3	-6.393646E-4	-7.941912E-3	-9.288767E-3	-1.276301E-3	1.040420E-3	2.361016E-3	-8.412134E-5	-8.170804E-4	1.430621E-3	-8.354616E-3	-3.849924E-4	1.876300E-3	-2.204180E-3	-1.205489E-2	-3.122513E-4	-4.329811E-3	4.967609E-3	4.845815E-4	-1.154000E-2	-1.164485E-2	-7.291058E-3	3.151250E-4	-2.106916E-3	-3.721223E-3	2.433772E-3	-5.972245E-3	-2.397009E-3	-9.056900E-3	7.958945E-3	-6.079974E-3	5.414064E-4	-9.585173E-3	-1.473029E-3	-5.036531E-3	-6.944074E-3	-8.395501E-3	-4.289050E-3	-7.073117E-3	-3.184140E-4	-1.170891E-2	-1.847853E-3	-1.191545E-2	-1.675961E-2	2.620595E-4	8.532184E-4	3.536304E-3	-6.499103E-3	2.823721E-4	-4.666531E-3	-4.694886E-3	-8.453405E-4	-4.470588E-3	-2.470239E-3	-8.349679E-3	8.021285E-4	-1.889853E-3	-3.207571E-3	2.872983E-3	2.008960E-3	-1.189589E-3	-2.777942E-3	3.707959E-4	-8.682587E-3	-6.683639E-3	-6.772327E-3	7.415845E-3	1.007409E-4	-5.176565E-3	8.277154E-4	3.048839E-3	1.021961E-2	-5.101076E-3	3.365683E-3	-1.925899E-3	3.589194E-4	-4.200892E-3	-5.855112E-3	-8.435758E-3	-1.321642E-2	-5.863163E-3	-5.138750E-3	-7.002031E-3	4.295841E-3	-1.020501E-2	-2.087410E-4	-6.371298E-3	-4.836734E-3	6.120352E-3	6.651100E-3	-9.467121E-3	7.285376E-3	-1.071320E-2	7.101206E-3	-7.550570E-3	-7.233087E-3	-4.271871E-4	-3.029509E-3	-8.341904E-3	-8.008249E-3	2.935769E-3	-1.301101E-2	-2.106372E-3	2.803280E-3	-2.745566E-3	-2.756390E-3	-2.327112E-3	-5.226855E-3	8.666945E-3	1.777891E-3	-8.082016E-3	-2.428448E-3	4.066327E-3	-4.067249E-3	-1.375599E-3	-9.910772E-3	-1.298229E-3	-2.232690E-4	-5.239276E-3	1.007172E-3	1.333487E-3	-1.116502E-2	-1.866894E-3	-2.892084E-3	-2.369569E-3	-8.236845E-3	-3.284002E-3	-6.417516E-3	-1.064546E-2	2.803444E-3	-5.813043E-3	-6.011854E-3	-2.198675E-3	-2.047075E-3	-4.157421E-4	-8.606204E-3	-1.408822E-2	-1.063005E-2	3.312555E-2
5.310100E+2	-3.966198E-3	1.494722E-3	-3.631963E-3	1.738142E-3	-2.951769E-3	1.255777E-2	-5.376891E-3	-1.296530E-3	-2.573103E-3	-6.001258E-3	-1.144157E-2	-2.292931E-3	-3.118731E-3	3.473476E-4	2.824140E-3	-1.618810E-3	1.893923E-3	-4.696174E-3	5.246139E-3	9.033230E-3	-6.847897E-3	-9.777464E-3	6.685141E-4	6.518346E-3	-2.421547E-3	4.061339E-3	-2.411529E-3	7.139190E-3	-2.648670E-3	-1.229228E-2	-7.759364E-3	-7.715303E-3	-5.928180E-3	1.476454E-3	-1.260423E-4	-6.908643E-3	-7.448164E-3	-5.323261E-3	6.246578E-4	-3.013133E-3	-8.867594E-3	-2.884521E-3	-6.208318E-3	-1.438977E-3	-4.525652E-4	-3.853134E-3	-3.089313E-3	-2.145603E-3	-7.993994E-3	-7.397102E-3	1.002139E-2	3.118554E-4	-8.219112E-3	-1.729161E-3	3.084576E-3	3.064604E-3	-2.631070E-3	-1.818155E-3	-9.636489E-3	3.728024E-3	-5.828860E-3	2.328805E-4	1.953464E-3	-5.218837E-3	-9.753710E-3	-1.225258E-3	3.119648E-3	-1.281856E-2	-9.264546E-3	-9.050898E-3	-3.005060E-3	-2.897019E-4	-2.265834E-3	7.309002E-3	8.725614E-4	-9.465422E-3	-3.364907E-3	-3.157949E-4	-6.354141E-3	-7.028764E-3	3.859996E-3	4.195037E-3	-5.698295E-4	-4.802651E-3	-4.674138E-3	-5.368528E-3	5.159149E-3	-1.425270E-2	-7.377714E-3	-6.269209E-3	-8.941230E-3	1.170531E-2	-1.077188E-2	-3.145770E-3	-1.479198E-2	-1.442579E-2	2.029208E-3	-7.763204E-3	-2.049547E-3	-1.000506E-2	-4.208669E-3	-4.583857E-3	-6.286027E-3	9.606908E-5	-9.703513E-3	-3.000431E-3	-8.174512E-3	-6.874860E-3	-1.579620E-3	-9.545005E-3	-1.549701E-3	1.217024E-3	-8.452812E-3	-1.008576E-2	1.557740E-3	5.268320E-3	-4.707530E-3	3.898569E-3	-5.345391E-4	3.506183E-3	-1.003023E-2	-1.773340E-3	-4.420714E-3	-5.240847E-3	-5.808417E-3	-9.252763E-3	1.424709E-3	-4.388595E-3	4.717957E-4	-2.674185E-3	4.871465E-3	5.140320E-3	1.949259E-3	-5.427471E-3	2.372563E-3	-1.492215E-3	-5.956362E-3	-7.670866E-3	8.182966E-3	1.369648E-3	-9.222783E-3	-3.501786E-3	3.194199E-3	5.828676E-3	-6.335798E-3	-2.569773E-3	-1.462661E-3	4.290510E-3	-8.270256E-3	4.342391E-3	-1.505088E-2	-1.012182E-2	9.530627E-4	-7.838134E-3	-6.227446E-3	2.844349E-3	4.169772E-3	-1.896971E-3	-1.710953E-3	1.778594E-3	-3.934453E-3	-1.920105E-4	-1.193922E-2	5.630285E-3	-8.612045E-3	-2.369667E-3	-9.115373E-3	5.771121E-4	-7.389855E-3	-1.269844E-2
5.315180E+2	1.370275E-4	-4.411986E-3	7.551636E-4	2.996122E-3	-8.649085E-3	-4.489603E-3	5.361100E-3	1.026148E-2	5.902446E-3	-4.045833E-3	3.611284E-3	3.623829E-3	1.008861E-2	3.414210E-3	-6.039641E-6	-1.508428E-3	-1.967609E-3	4.540481E-3	-4.387739E-3	-1.787552E-3	-4.024926E-3	5.472532E-3	-6.902611E-3	-4.495485E-4	-1.107234E-2	7.108876E-3	4.926110E-3	-2.251157E-3	-3.637234E-3	-6.760810E-3	3.164466E-3	-5.908987E-4	1.408641E-3	-2.743073E-4	-9.629105E-3	-6.226978E-3	7.257062E-3	-4.091391E-3	-3.062755E-3	-7.598407E-3	2.793143E-3	8.123248E-4	1.666360E-3	-8.818841E-3	-4.146642E-3	3.084244E-4	-6.565131E-4	1.057385E-3	-2.751813E-3	3.930761E-3	2.602353E-3	4.589772E-3	-2.739354E-3	-9.384803E-3	2.668883E-3	-2.436694E-3	-3.024673E-3	-1.117326E-3	5.870238E-3	4.091346E-4	-4.203366E-3	6.007679E-3	-1.251298E-2	2.339780E-3	8.823424E-3	-5.214836E-3	3.872440E-3	-5.285463E-3	-7.460282E-3	1.243506E-2	-5.165835E-3	2.807857E-3	-1.006865E-3	-1.058230E-2	5.847502E-3	6.329433E-3	2.778422E-3	2.701454E-3	-4.517339E-3	-1.173607E-2	-4.452560E-4	-4.289780E-3	7.048800E-4	2.869566E-3	-9.487208E-4	-1.384597E-3	-1.132672E-2	2.086481E-3	-1.216713E-3	-1.803679E-3	-7.987770E-4	-4.231361E-3	2.123953E-3	-4.240277E-3	9.393105E-4	-2.583659E-3	5.066655E-3	1.025179E-3	-3.113644E-3	4.597122E-3	-1.711896E-3	-8.250086E-3	1.414499E-4	2.495332E-3	-9.940200E-4	2.680706E-3	-6.864961E-3	-4.672321E-3	-1.341838E-3	-3.328322E-3	-3.260388E-3	5.171010E-3	1.936901E-3	4.106684E-3	-8.624899E-3	-4.672652E-3	-5.291765E-4	3.439021E-3	3.272711E-3	-1.888639E-3	5.909554E-3	5.311919E-3	-5.561824E-3	9.313509E-4	1.961603E-3	5.378754E-3	-2.766959E-4	1.039842E-2	-2.217862E-3	8.601701E-3	-5.358157E-3	-2.792164E-4	1.557116E-3	-7.034327E-3	-3.190382E-3	-7.560218E-3	-2.484671E-3	-3.903551E-3	-2.592208E-3	-9.820245E-4	1.057380E-3	-9.147874E-3	-4.040593E-3	-1.204170E-2	-6.821351E-3	3.384091E-3	3.443214E-3	4.415484E-3	-2.307355E-3	3.324537E-4	5.096888E-3	-5.246264E-3	1.085637E-3	1.254965E-2	1.059968E-2	2.417526E-3	-1.569653E-3	-1.780666E-3	-5.621214E-3	3.098385E-4	-4.443937E-3	5.441316E-4	-2.444958E-3	-6.714585E-3	1.247628E-3	-1.712416E-3	-2.176964E-4	3.158639E-3	5.227658E-3	-6.561767E-3
5.320120E+2	3.696914E-3	9.104782E-3	5.182960E-3	-7.761525E-3	-3.315913E-3	-2.598427E-3	-3.463429E-3	5.215448E-3	-3.905801E-3	5.978499E-3	9.215185E-3	-2.619867E-3	8.856637E-4	1.830098E-3	2.642383E-3	3.822220E-3	4.680678E-3	-2.485353E-3	1.186123E-2	-5.123433E-3	7.551322E-3	1.362631E-3	-1.811162E-3	-3.875845E-3	6.039835E-3	-2.547429E-3	5.898542E-3	8.071306E-3	1.516024E-3	6.003277E-3	-2.958976E-3	-5.843249E-3	2.830447E-3	3.522411E-3	3.979663E-3	2.020042E-3	-2.321979E-3	1.068326E-3	-2.884237E-3	6.789088E-3	9.577491E-3	3.341489E-3	3.136738E-3	1.739388E-3	2.022801E-3	6.478309E-3	2.552768E-3	2.261495E-3	3.717280E-3	5.598295E-3	2.226648E-3	1.010019E-2	9.249710E-3	2.726824E-3	-1.649074E-3	8.032891E-4	5.554754E-3	9.435458E-3	-7.530507E-3	3.474931E-3	6.499656E-3	3.934144E-3	1.113590E-2	3.573030E-3	-1.061826E-3	5.370230E-3	7.778599E-3	4.609317E-3	1.434042E-2	6.750147E-3	-3.874071E-3	1.026356E-3	6.590061E-3	6.502181E-3	7.243314E-3	6.717720E-4	2.398012E-3	1.211869E-3	1.413697E-3	8.518618E-3	9.681946E-4	6.310269E-3	-4.281822E-3	1.862305E-3	2.817501E-3	4.291175E-3	1.085666E-2	5.821277E-3	4.068377E-5	6.496546E-3	1.210757E-3	-1.787096E-4	4.637457E-3	5.379834E-3	4.599171E-3	4.024315E-3	-2.243894E-3	-1.890481E-3	7.172203E-3	-3.162948E-4	3.787552E-3	1.314291E-2	5.796383E-3	-7.857957E-4	7.062347E-3	-4.503400E-3	1.635636E-2	4.441768E-3	4.544258E-3	9.044117E-3	3.601374E-3	-3.589245E-3	-2.027810E-4	8.116542E-3	-5.066376E-3	4.172996E-3	-3.840370E-4	-4.234497E-3	-1.813052E-3	-7.900468E-5	3.244497E-3	2.283381E-3	1.862005E-4	1.118170E-2	5.408870E-3	1.524417E-2	7.847287E-3	3.535599E-3	4.727729E-3	-2.423431E-3	8.854587E-4	-8.500467E-3	4.908693E-3	4.037144E-3	-2.485930E-3	1.405042E-2	1.442649E-2	3.556979E-3	1.178839E-3	2.902561E-3	5.808443E-3	7.683006E-3	-1.444946E-3	2.847981E-3	4.079067E-3	1.567234E-3	-1.175697E-3	5.163730E-3	5.454454E-3	1.069119E-3	-1.362871E-4	1.026802E-2	-5.085729E-3	2.529388E-3	2.140074E-3	-2.646141E-4	2.344545E-3	1.562572E-2	-2.593670E-3	3.696927E-3	4.468398E-3	1.052700E-2	7.116732E-3	-6.299408E-4	9.943062E-3	1.073236E-5	3.802275E-3	1.704303E-3	2.276268E-3	-1.043926E-2
5.325120E+2	1.068451E-2	6.544102E-3	2.629102E-3	1.188631E-2	9.022547E-3	5.243838E-3	9.017475E-3	4.836101E-3	-6.425810E-4	1.152797E-2	6.959272E-3	9.141898E-3	7.122070E-3	5.272365E-3	7.539290E-3	1.318488E-2	1.033051E-2	1.146310E-2	7.972255E-3	1.355137E-2	5.518830E-3	9.355148E-3	6.052621E-3	6.990349E-3	1.616364E-2	2.025976E-2	8.363464E-3	4.322294E-4	3.874530E-3	1.994558E-2	1.368448E-2	7.866332E-3	1.208474E-2	1.311320E-2	1.437999E-2	1.609768E-2	3.787428E-3	1.436120E-2	1.434126E-2	1.124072E-2	8.659033E-4	1.025340E-2	4.674598E-3	1.234392E-2	6.572459E-3	1.266378E-2	1.177427E-2	8.123439E-3	1.425469E-2	4.443922E-3	9.485694E-3	1.894700E-3	1.482549E-2	1.397708E-2	3.584541E-3	8.681574E-3	1.046808E-2	1.528831E-2	1.622275E-2	1.234033E-2	3.676450E-3	8.230963E-3	1.799790E-2	8.576386E-3	1.345088E-2	5.606108E-3	-1.536580E-4	1.452635E-2	1.051246E-2	4.139455E-3	1.224957E-2	1.950674E-2	5.040502E-3	1.063950E-2	1.242335E-2	7.268425E-3	4.783168E-3	5.425929E-3	1.692335E-2	1.036124E-2	7.589333E-3	-1.360883E-3	1.834125E-2	1.020199E-2	8.427939E-3	1.217150E-2	-8.864709E-4	2.072827E-2	1.015068E-2	8.910228E-3	1.384319E-2	8.437694E-3	1.776204E-2	1.320711E-2	1.871483E-2	2.282243E-2	5.938941E-3	9.197812E-3	7.324106E-3	6.762279E-3	1.640629E-2	2.596028E-3	7.744850E-3	1.305214E-2	2.361359E-3	1.001338E-2	6.129292E-3	1.701352E-2	1.538443E-2	1.416404E-2	2.653942E-2	1.412008E-2	1.089966E-2	3.119388E-3	4.838464E-3	1.641779E-2	1.079961E-2	1.274667E-2	1.306428E-2	7.310534E-3	1.699000E-3	1.324263E-2	2.205855E-3	1.200822E-2	3.375032E-3	4.465084E-3	1.107312E-2	4.865615E-3	8.275929E-3	1.638379E-2	1.817225E-2	1.382485E-3	4.527916E-3	7.647158E-3	1.425764E-2	2.883891E-3	1.461420E-2	7.373383E-3	9.823534E-3	1.166206E-3	1.005762E-2	1.362761E-2	5.463386E-3	2.983818E-3	1.142948E-2	1.083322E-2	1.968960E-3	-1.443268E-3	1.501681E-2	1.134737E-2	1.254729E-2	1.204007E-2	1.867024E-2	4.005504E-3	1.695065E-3	1.579001E-3	1.273036E-2	4.897685E-3	1.374296E-2	9.253326E-3	9.023058E-3	5.144234E-3	1.450859E-2	2.041015E-2	1.194634E-2	1.703412E-2	1.726648E-2	1.001015E-2	7.672604E-3	-2.241469E-3
5.330280E+2	1.197235E-2	2.819510E-2	1.839202E-2	2.241231E-2	2.433846E-2	3.578239E-2	2.888449E-2	3.011363E-2	2.790993E-2	1.956353E-2	2.700078E-2	2.388322E-2	2.564326E-2	1.727312E-2	2.380867E-2	2.143424E-2	2.003212E-2	1.642718E-2	3.121810E-2	2.650531E-2	3.850610E-2	2.737491E-2	2.172131E-2	1.433025E-2	2.810234E-2	1.734859E-2	2.764011E-2	2.575874E-2	1.400341E-2	1.857534E-2	3.526934E-2	2.653382E-2	2.804373E-2	1.906618E-2	1.993137E-2	1.451929E-2	1.427341E-2	2.679049E-2	2.611975E-2	1.571519E-2	3.539283E-2	1.838467E-2	1.811455E-2	2.121867E-2	1.880173E-2	2.134991E-2	3.023912E-2	2.383205E-2	2.939659E-2	2.337416E-2	3.780500E-2	3.193446E-2	2.688418E-2	2.688851E-2	3.033160E-2	1.710181E-2	1.802927E-2	2.554269E-2	3.192693E-2	1.715914E-2	2.603669E-2	2.688753E-2	2.394625E-2	2.748400E-2	1.521235E-2	1.655966E-2	1.817067E-2	9.513506E-3	3.358553E-2	2.147875E-2	2.213204E-2	2.267732E-2	2.757810E-2	1.549425E-2	3.227484E-2	2.970496E-2	2.317748E-2	1.663002E-2	3.181057E-2	5.093395E-3	2.331782E-2	2.117919E-2	3.363918E-2	2.381514E-2	3.893928E-2	2.538544E-2	3.221871E-2	1.483637E-2	1.639800E-2	1.772504E-2	3.371069E-2	2.427105E-2	4.318875E-2	1.547144E-2	3.056549E-2	3.795792E-2	2.352176E-2	1.824749E-2	2.994127E-2	2.279503E-2	1.604094E-2	2.622422E-2	2.987950E-2	2.812686E-2	3.421630E-2	2.644294E-2	1.463098E-2	2.319514E-2	2.997522E-2	1.523682E-2	1.731643E-2	2.959963E-2	2.962018E-2	1.892937E-2	2.768727E-2	1.794012E-2	1.801164E-2	3.061419E-2	2.227488E-2	1.923170E-2	2.515629E-2	1.808014E-2	4.650220E-2	1.966187E-2	2.557732E-2	2.446851E-2	3.052937E-2	2.217723E-2	2.326119E-2	2.702696E-2	1.472588E-2	1.552676E-2	2.990694E-2	3.246193E-2	3.687765E-2	2.521736E-2	2.213065E-2	3.331637E-2	2.465546E-2	3.390414E-2	2.561737E-2	1.897031E-2	2.787626E-2	1.909037E-2	2.001724E-2	2.538533E-2	2.860515E-2	2.758117E-2	1.226014E-2	2.467909E-2	2.969833E-2	2.556807E-2	2.119050E-2	2.458048E-2	1.638487E-2	2.626760E-2	2.426011E-2	3.202982E-2	2.611684E-2	2.944259E-2	3.125429E-2	3.312780E-2	1.472385E-2	6.838096E-3	3.362706E-2	3.205698E-2	2.318072E-2	2.980568E-2	1.310727E-2	1.207710E-2
5.331580E+2	2.647783E-2	2.027751E-2	3.206583E-2	3.990677E-2	3.855332E-2	2.761244E-2	2.230510E-2	2.874436E-2	4.392864E-2	3.310314E-2	2.356874E-2	4.219931E-2	4.000771E-2	3.158927E-2	2.578989E-2	3.319975E-2	2.675810E-2	3.531634E-2	3.488039E-2	3.077355E-2	2.556604E-2	3.441588E-2	1.578923E-2	2.323748E-2	4.658512E-2	3.197215E-2	4.531215E-2	5.120668E-2	2.862813E-2	3.845869E-2	4.923770E-2	3.381875E-2	2.031350E-2	3.376015E-2	2.821050E-2	2.459812E-2	2.972125E-2	4.430701E-2	1.858269E-2	2.499383E-2	3.559601E-2	2.868784E-2	4.192911E-2	2.139080E-2	3.659178E-2	3.308674E-2	3.694059E-2	3.233842E-2	2.727817E-2	2.649322E-2	3.447818E-2	2.912188E-2	2.600810E-2	3.596965E-2	3.110163E-2	3.333942E-2	2.880732E-2	3.196292E-2	3.835196E-2	3.772161E-2	2.827789E-2	3.283359E-2	3.054990E-2	3.036613E-2	3.565671E-2	2.967504E-2	3.908600E-2	3.563229E-2	3.722938E-2	1.790215E-2	3.091605E-2	2.686040E-2	3.237913E-2	4.012721E-2	3.676453E-2	1.461457E-2	2.557893E-2	3.852160E-2	2.786440E-2	3.862726E-2	2.409964E-2	3.055932E-2	4.426361E-2	3.809651E-2	4.036069E-2	3.212299E-2	3.661442E-2	1.451922E-2	3.377669E-2	3.718954E-2	3.012125E-2	3.508050E-2	2.802022E-2	3.769975E-2	3.321626E-2	4.194386E-2	3.995445E-2	3.184015E-2	4.404384E-2	3.252593E-2	3.057232E-2	3.204270E-2	2.579399E-2	3.465876E-2	4.206982E-2	3.350969E-2	5.234690E-2	3.253151E-2	3.395099E-2	2.937157E-2	3.514346E-2	1.751495E-2	4.088337E-2	2.338198E-2	2.683140E-2	4.519401E-2	4.222325E-2	2.378957E-2	4.051832E-2	2.392592E-2	2.708518E-2	2.424801E-2	2.938533E-2	2.126529E-2	3.469845E-2	4.924394E-2	2.261466E-2	4.439603E-2	3.271821E-2	1.804463E-2	3.301777E-2	1.501088E-2	2.640138E-2	3.565162E-2	2.505257E-2	3.740440E-2	1.672208E-2	3.032600E-2	3.744949E-2	2.791422E-2	3.105640E-2	2.637903E-2	2.488038E-2	3.258237E-2	2.452243E-2	3.688915E-2	3.153081E-2	3.580887E-2	2.548337E-2	2.612749E-2	3.001441E-2	2.900990E-2	3.590917E-2	3.889361E-2	3.471229E-2	3.051090E-2	3.262601E-2	2.941260E-2	3.925287E-2	2.101436E-2	3.022743E-2	3.071167E-2	3.004217E-2	2.260648E-2	3.324068E-2	4.782683E-2	4.631911E-2	4.317352E-2	4.386019E-2	1.429598E-2
5.333130E+2	2.781185E-2	3.867720E-2	2.469704E-2	3.492394E-2	3.759484E-2	5.835178E-2	4.173473E-2	3.369547E-2	3.516883E-2	4.061088E-2	4.192924E-2	3.773729E-2	4.261197E-2	4.427351E-2	3.138161E-2	4.153884E-2	4.059125E-2	3.126590E-2	4.611617E-2	2.280870E-2	3.731798E-2	4.308113E-2	5.327418E-2	3.992524E-2	4.149509E-2	4.253216E-2	3.988677E-2	3.034119E-2	4.388302E-2	3.557613E-2	4.009033E-2	4.552743E-2	3.209357E-2	4.677916E-2	3.436593E-2	3.005237E-2	4.196191E-2	4.060896E-2	2.987056E-2	3.911934E-2	4.694792E-2	2.943605E-2	4.275774E-2	3.850826E-2	3.073553E-2	3.029527E-2	4.189552E-2	3.307362E-2	4.078106E-2	3.848084E-2	2.937505E-2	4.914166E-2	3.000691E-2	3.396061E-2	4.268225E-2	4.601506E-2	4.176089E-2	5.034669E-2	5.104365E-2	3.619812E-2	3.407751E-2	1.946957E-2	3.654567E-2	3.703285E-2	4.443073E-2	4.233959E-2	3.298373E-2	4.336812E-2	4.778845E-2	3.103986E-2	4.030925E-2	4.502382E-2	3.258095E-2	4.888203E-2	4.989596E-2	3.420821E-2	3.076888E-2	3.579473E-2	2.165861E-2	3.318356E-2	5.981388E-2	4.688051E-2	4.321496E-2	5.115564E-2	4.482664E-2	3.929568E-2	2.779294E-2	3.043209E-2	3.953958E-2	3.569751E-2	6.301402E-2	3.642742E-2	4.236852E-2	4.172959E-2	4.688396E-2	5.349913E-2	3.953669E-2	4.305946E-2	5.095921E-2	4.419384E-2	3.061862E-2	4.565205E-2	3.297408E-2	4.071843E-2	2.242019E-2	3.102998E-2	3.916408E-2	3.805785E-2	5.280505E-2	3.749211E-2	4.975211E-2	3.320838E-2	4.812479E-2	2.837953E-2	3.637462E-2	4.477722E-2	4.368917E-2	3.832880E-2	2.807017E-2	4.494848E-2	4.215781E-2	2.333044E-2	3.850724E-2	4.531885E-2	4.826380E-2	3.068394E-2	4.472525E-2	3.755948E-2	4.157024E-2	3.390089E-2	3.945683E-2	4.896011E-2	4.930082E-2	2.500292E-2	3.394590E-2	3.595199E-2	4.179310E-2	4.347359E-2	3.289315E-2	3.699470E-2	3.855325E-2	3.946752E-2	3.407942E-2	2.675990E-2	3.144192E-2	4.666589E-2	5.073315E-2	4.222800E-2	4.352205E-2	4.899961E-2	5.503481E-2	3.193830E-2	4.022772E-2	5.097525E-2	5.527416E-2	3.999219E-2	4.218906E-2	4.125272E-2	3.736950E-2	2.621207E-2	3.758419E-2	5.514890E-2	4.355558E-2	3.486847E-2	3.724316E-2	3.068501E-2	3.966702E-2	4.018520E-2	4.417168E-2	2.653463E-2
5.334630E+2	5.452506E-2	4.968538E-2	4.886359E-2	5.949331E-2	5.309423E-2	5.502015E-2	5.279307E-2	5.451922E-2	4.387501E-2	6.711950E-2	5.977930E-2	4.560009E-2	4.903778E-2	5.245550E-2	4.905355E-2	4.526131E-2	6.359773E-2	5.459210E-2	5.746726E-2	4.349475E-2	4.637909E-2	6.185206E-2	5.414301E-2	4.482611E-2	4.113734E-2	5.731214E-2	6.617725E-2	5.834198E-2	5.473037E-2	5.352385E-2	6.134012E-2	6.003139E-2	3.720424E-2	5.461567E-2	5.796165E-2	6.427159E-2	5.262924E-2	5.602508E-2	6.347197E-2	3.842108E-2	6.394447E-2	5.746820E-2	5.638227E-2	5.510967E-2	5.197139E-2	4.464598E-2	6.711254E-2	5.316255E-2	5.029821E-2	6.592461E-2	6.150107E-2	5.360705E-2	5.636267E-2	3.864928E-2	4.692219E-2	6.552759E-2	5.424494E-2	4.946325E-2	5.378275E-2	6.218796E-2	7.042775E-2	4.116528E-2	5.033883E-2	5.291936E-2	4.737726E-2	7.068250E-2	3.761418E-2	5.753886E-2	7.341014E-2	5.291942E-2	5.840181E-2	4.828693E-2	4.724611E-2	4.273323E-2	6.001354E-2	5.449368E-2	5.435793E-2	6.730175E-2	4.461337E-2	5.759312E-2	6.387347E-2	6.612127E-2	4.735771E-2	5.537497E-2	4.499757E-2	4.985113E-2	4.721668E-2	5.211057E-2	6.083708E-2	4.617827E-2	6.202648E-2	5.642572E-2	6.395036E-2	5.830634E-2	5.117996E-2	5.003075E-2	5.647835E-2	6.595320E-2	6.623516E-2	4.874355E-2	3.680347E-2	4.981626E-2	5.272786E-2	5.487224E-2	5.179409E-2	5.800483E-2	6.529195E-2	4.253933E-2	4.619900E-2	5.562558E-2	5.315185E-2	4.463807E-2	6.470053E-2	4.648939E-2	5.705197E-2	5.114095E-2	4.750809E-2	7.027588E-2	5.495609E-2	5.201109E-2	4.700054E-2	6.008127E-2	4.703094E-2	3.944520E-2	4.801705E-2	5.604273E-2	6.255713E-2	3.723322E-2	3.666500E-2	5.391050E-2	5.648268E-2	4.571463E-2	5.771660E-2	6.781159E-2	6.142666E-2	5.511994E-2	5.397483E-2	5.853434E-2	4.921005E-2	6.062596E-2	5.693697E-2	5.751142E-2	5.504890E-2	6.029351E-2	5.596056E-2	5.753418E-2	4.433199E-2	5.486977E-2	5.331634E-2	5.397000E-2	6.362877E-2	4.401790E-2	5.505810E-2	5.185455E-2	4.908433E-2	3.391661E-2	5.935902E-2	3.998065E-2	5.474144E-2	6.301014E-2	6.773586E-2	5.825270E-2	4.665714E-2	4.596584E-2	5.234580E-2	4.961803E-2	4.696734E-2	5.941259E-2	7.095455E-2	6.410194E-2
5.336080E+2	8.483449E-2	6.075175E-2	6.985462E-2	7.196551E-2	6.748525E-2	8.416044E-2	7.356015E-2	7.861371E-2	6.752127E-2	8.640319E-2	6.678457E-2	7.414609E-2	8.788300E-2	8.064199E-2	6.626835E-2	7.411026E-2	6.946966E-2	6.994333E-2	6.779176E-2	4.666633E-2	7.205671E-2	8.231006E-2	6.960223E-2	7.306492E-2	7.645156E-2	8.517984E-2	7.615109E-2	9.315762E-2	6.172750E-2	7.470247E-2	7.224721E-2	7.241871E-2	6.931883E-2	6.306175E-2	6.818613E-2	6.985010E-2	8.809824E-2	8.165211E-2	4.991305E-2	8.160494E-2	7.600275E-2	5.830632E-2	8.659010E-2	7.122421E-2	7.387320E-2	7.374128E-2	7.638160E-2	7.701746E-2	7.614988E-2	6.978143E-2	8.497523E-2	8.526453E-2	8.503285E-2	8.083177E-2	6.779511E-2	7.993722E-2	8.602993E-2	7.026796E-2	7.160364E-2	7.245687E-2	7.638256E-2	7.979286E-2	6.483382E-2	6.726679E-2	7.991040E-2	7.520760E-2	7.963397E-2	6.422910E-2	7.777662E-2	7.003431E-2	6.909144E-2	6.311631E-2	7.243559E-2	7.887833E-2	6.832615E-2	6.067706E-2	8.086144E-2	7.957804E-2	5.833391E-2	7.937245E-2	5.958778E-2	6.915718E-2	8.306546E-2	5.330037E-2	7.830271E-2	6.713506E-2	6.433770E-2	6.165685E-2	6.054203E-2	6.817023E-2	5.535002E-2	7.990715E-2	8.201545E-2	6.458397E-2	6.684436E-2	5.733323E-2	6.723938E-2	8.851102E-2	6.219640E-2	8.661163E-2	8.510077E-2	7.020178E-2	7.700216E-2	7.703422E-2	5.695391E-2	8.274728E-2	6.914199E-2	8.541969E-2	7.315231E-2	6.543523E-2	7.036972E-2	8.535748E-2	8.426423E-2	7.602586E-2	6.494795E-2	8.071339E-2	8.850500E-2	6.280251E-2	7.931176E-2	6.304596E-2	6.045374E-2	6.041088E-2	6.006885E-2	7.186193E-2	8.786410E-2	6.972633E-2	7.794986E-2	7.093969E-2	5.650687E-2	6.060423E-2	7.794068E-2	8.059702E-2	7.430663E-2	8.140716E-2	7.045205E-2	7.954823E-2	6.279764E-2	9.232070E-2	8.174105E-2	7.867275E-2	9.099204E-2	6.431881E-2	7.234111E-2	8.119375E-2	7.937254E-2	7.907571E-2	7.940267E-2	7.563970E-2	5.717759E-2	8.182829E-2	6.451240E-2	8.742767E-2	8.572748E-2	7.656226E-2	7.651991E-2	6.647693E-2	7.114723E-2	5.802083E-2	8.996355E-2	7.591963E-2	7.952963E-2	6.638903E-2	6.840770E-2	8.071629E-2	7.683412E-2	8.583070E-2	8.576178E-2	6.964692E-2	5.963174E-2	6.810176E-2
5.337630E+2	1.077864E-1	1.045310E-1	8.000437E-2	8.799935E-2	9.554118E-2	9.835949E-2	9.155148E-2	1.054742E-1	9.288795E-2	1.033275E-1	1.085907E-1	9.397609E-2	1.178806E-1	1.107118E-1	9.441558E-2	9.432738E-2	8.912258E-2	1.129213E-1	1.125883E-1	8.514153E-2	1.061890E-1	1.028846E-1	9.970336E-2	9.678350E-2	1.144503E-1	1.027808E-1	1.118236E-1	1.111618E-1	1.272347E-1	1.059719E-1	1.137990E-1	1.041759E-1	9.545404E-2	1.155731E-1	9.477010E-2	9.489762E-2	8.570531E-2	1.068632E-1	1.184855E-1	1.149074E-1	1.134403E-1	1.070404E-1	1.078063E-1	1.021564E-1	1.075953E-1	9.792782E-2	9.293066E-2	1.083729E-1	1.073761E-1	1.057351E-1	1.116257E-1	1.152696E-1	8.980051E-2	1.019488E-1	8.366305E-2	1.054496E-1	9.392820E-2	9.521605E-2	9.960900E-2	7.987551E-2	9.823911E-2	1.128278E-1	1.055199E-1	9.255030E-2	1.169330E-1	9.961356E-2	1.093840E-1	1.035976E-1	1.018942E-1	1.024863E-1	1.054150E-1	1.062049E-1	1.105532E-1	1.066481E-1	1.170223E-1	9.717933E-2	1.097490E-1	9.792088E-2	7.511796E-2	9.631067E-2	8.858672E-2	1.033598E-1	9.459039E-2	1.056193E-1	1.259172E-1	9.937193E-2	1.101300E-1	9.494849E-2	8.777122E-2	9.253900E-2	9.870215E-2	8.082271E-2	1.120722E-1	8.452285E-2	1.170142E-1	1.004473E-1	1.166135E-1	1.094554E-1	1.057944E-1	1.056498E-1	1.035629E-1	1.081767E-1	1.039187E-1	1.058755E-1	1.061944E-1	1.004132E-1	1.149487E-1	9.561062E-2	1.007842E-1	1.027455E-1	1.103372E-1	1.013399E-1	1.185675E-1	9.913639E-2	1.169195E-1	1.015492E-1	1.048675E-1	9.315609E-2	1.091380E-1	9.678060E-2	1.021319E-1	1.096937E-1	1.154251E-1	9.276828E-2	1.139660E-1	1.082168E-1	9.595009E-2	1.084323E-1	1.064977E-1	9.478931E-2	9.389275E-2	1.106896E-1	1.040427E-1	1.020157E-1	1.237905E-1	9.431477E-2	1.098402E-1	1.279527E-1	9.764372E-2	1.012680E-1	1.007818E-1	1.068720E-1	1.143453E-1	1.088955E-1	1.175548E-1	9.717573E-2	1.073019E-1	1.083533E-1	1.035045E-1	8.571895E-2	9.867730E-2	1.040521E-1	1.025100E-1	1.222199E-1	9.818234E-2	8.821595E-2	1.114991E-1	1.191093E-1	1.099242E-1	1.048169E-1	1.195222E-1	1.025903E-1	9.537044E-2	9.259313E-2	1.082953E-1	9.927696E-2	1.189814E-1	1.056299E-1	1.228558E-1	5.753421E-2
5.339140E+2	1.401426E-1	1.641710E-1	1.630543E-1	1.549410E-1	1.545317E-1	1.700707E-1	1.645261E-1	1.457480E-1	1.643088E-1	1.498399E-1	1.320721E-1	1.532656E-1	1.744018E-1	1.787976E-1	1.656966E-1	1.780955E-1	1.451519E-1	1.497329E-1	1.680348E-1	1.576983E-1	1.721592E-1	1.689365E-1	1.418005E-1	1.368026E-1	1.952554E-1	1.905781E-1	1.870037E-1	1.785730E-1	1.700130E-1	1.615969E-1	1.678442E-1	1.880712E-1	1.630273E-1	1.836461E-1	1.565625E-1	1.554835E-1	1.595729E-1	1.803343E-1	1.660546E-1	1.454670E-1	1.718972E-1	1.614222E-1	1.536750E-1	1.444597E-1	1.615935E-1	1.665244E-1	1.622862E-1	1.599149E-1	1.562978E-1	1.895215E-1	1.627262E-1	1.878690E-1	1.521920E-1	1.546386E-1	1.662681E-1	1.410777E-1	1.630771E-1	1.731032E-1	1.611754E-1	1.593193E-1	1.653705E-1	1.497600E-1	1.619589E-1	1.576561E-1	1.649660E-1	1.529911E-1	1.696889E-1	1.513456E-1	1.569607E-1	1.651363E-1	1.808409E-1	1.460276E-1	1.588062E-1	1.625943E-1	1.678559E-1	1.576813E-1	1.561934E-1	1.513936E-1	1.743974E-1	1.581996E-1	1.681747E-1	1.679067E-1	1.776010E-1	1.673794E-1	1.393956E-1	1.506556E-1	1.617100E-1	1.745682E-1	1.500358E-1	1.423783E-1	1.632963E-1	1.789786E-1	1.732513E-1	1.722744E-1	1.503315E-1	1.592828E-1	1.493379E-1	1.606772E-1	1.406680E-1	1.748934E-1	1.577103E-1	1.552796E-1	1.673063E-1	1.668577E-1	1.751535E-1	1.627339E-1	1.817324E-1	1.607884E-1	1.639433E-1	1.698929E-1	1.548776E-1	1.593062E-1	1.547884E-1	1.529696E-1	1.456064E-1	1.628963E-1	1.545166E-1	1.471551E-1	1.659549E-1	1.590559E-1	1.763032E-1	1.410996E-1	1.902851E-1	1.522635E-1	1.704460E-1	1.603433E-1	1.620743E-1	1.557056E-1	1.735475E-1	1.631287E-1	1.731181E-1	1.551129E-1	1.775776E-1	1.795533E-1	1.809077E-1	1.599705E-1	1.393987E-1	1.345188E-1	1.616373E-1	1.538962E-1	1.701237E-1	1.659309E-1	1.685852E-1	1.568899E-1	1.479695E-1	1.788612E-1	1.881100E-1	1.711780E-1	1.578562E-1	1.409131E-1	1.463340E-1	1.658465E-1	1.563355E-1	1.766899E-1	1.537855E-1	1.729606E-1	1.536903E-1	1.616281E-1	1.746173E-1	1.543110E-1	1.532631E-1	1.575015E-1	1.695988E-1	1.659591E-1	1.604735E-1	1.452333E-1	1.536549E-1	1.700382E-1	1.789633E-1	1.603872E-1
5.340800E+2	2.597929E-1	2.874828E-1	2.628621E-1	2.695585E-1	2.855227E-1	2.741856E-1	2.630016E-1	2.751545E-1	2.831583E-1	2.575642E-1	2.638891E-1	2.687612E-1	2.840399E-1	2.598643E-1	2.784059E-1	2.848869E-1	2.588518E-1	2.835121E-1	2.957001E-1	2.607786E-1	2.813002E-1	2.647513E-1	2.920922E-1	2.721409E-1	3.307482E-1	3.060532E-1	2.949799E-1	2.945266E-1	3.193111E-1	2.550517E-1	3.118786E-1	2.892194E-1	3.022137E-1	2.889429E-1	2.931886E-1	2.723107E-1	2.947520E-1	2.882937E-1	2.735808E-1	3.042501E-1	2.706817E-1	2.999011E-1	3.041836E-1	2.672894E-1	2.701885E-1	2.926859E-1	2.913675E-1	2.852027E-1	2.818006E-1	2.936422E-1	2.771136E-1	2.754491E-1	2.720779E-1	2.617141E-1	2.792719E-1	2.606933E-1	2.923085E-1	2.628661E-1	3.011675E-1	2.782282E-1	3.146150E-1	2.939230E-1	2.878175E-1	2.487274E-1	2.972423E-1	2.875499E-1	2.845100E-1	2.936117E-1	3.136679E-1	2.767273E-1	2.950390E-1	2.978593E-1	2.849356E-1	2.987642E-1	2.737493E-1	2.793484E-1	2.967528E-1	2.838809E-1	2.764469E-1	2.592152E-1	3.065444E-1	2.877689E-1	2.960280E-1	2.750297E-1	2.923377E-1	2.828978E-1	2.707159E-1	2.922889E-1	2.880544E-1	2.724817E-1	3.058421E-1	2.668154E-1	3.356984E-1	2.884071E-1	2.987803E-1	2.855829E-1	2.794452E-1	3.234682E-1	2.961090E-1	2.707855E-1	3.016074E-1	3.187751E-1	2.907821E-1	2.719851E-1	2.934898E-1	2.930903E-1	2.939681E-1	2.883166E-1	2.677432E-1	3.074432E-1	2.938171E-1	2.796001E-1	2.711289E-1	2.864838E-1	3.012503E-1	3.131620E-1	2.734047E-1	2.944337E-1	2.946681E-1	3.086819E-1	2.774789E-1	2.739520E-1	2.899086E-1	2.823169E-1	2.833352E-1	2.925178E-1	2.658846E-1	3.019403E-1	2.821671E-1	2.635099E-1	2.884985E-1	2.929767E-1	3.045250E-1	2.847984E-1	2.839368E-1	2.746040E-1	3.041896E-1	2.843438E-1	3.009576E-1	2.737780E-1	2.885075E-1	2.933216E-1	3.138408E-1	2.881620E-1	2.919938E-1	2.651250E-1	2.871835E-1	2.756358E-1	2.725702E-1	2.897289E-1	2.822562E-1	2.940240E-1	2.745824E-1	3.076948E-1	2.869900E-1	2.709001E-1	2.913170E-1	2.954903E-1	2.843667E-1	2.931512E-1	3.105341E-1	2.543786E-1	3.062542E-1	2.903698E-1	3.117033E-1	2.989799E-1	3.172061E-1	2.676182E-1	2.878435E-1	2.839220E-1
5.342090E+2	4.464137E-1	4.509876E-1	4.462356E-1	4.445731E-1	4.754322E-1	4.601850E-1	4.400816E-1	4.698243E-1	4.380422E-1	4.510710E-1	4.575798E-1	4.528880E-1	4.634817E-1	4.961831E-1	4.590136E-1	4.959930E-1	4.627626E-1	4.580638E-1	4.427107E-1	4.672192E-1	4.718886E-1	4.741411E-1	4.585171E-1	4.494525E-1	5.011788E-1	5.083366E-1	5.182330E-1	4.737224E-1	5.207853E-1	4.925994E-1	4.992270E-1	4.984299E-1	5.181609E-1	5.354089E-1	4.589706E-1	5.042187E-1	4.817161E-1	5.276784E-1	5.239144E-1	4.740691E-1	5.301653E-1	4.813273E-1	4.762397E-1	5.174955E-1	4.427697E-1	4.416180E-1	4.979389E-1	4.846511E-1	4.804719E-1	5.094709E-1	5.077453E-1	4.724885E-1	5.106338E-1	4.700702E-1	5.115530E-1	4.555758E-1	4.859318E-1	4.800644E-1	4.769642E-1	4.665675E-1	4.902517E-1	4.902841E-1	4.731460E-1	4.871292E-1	4.852880E-1	4.605730E-1	4.921298E-1	4.914549E-1	4.830969E-1	4.704969E-1	4.779587E-1	4.486251E-1	5.026670E-1	4.971078E-1	4.839272E-1	4.974369E-1	4.942696E-1	4.743970E-1	5.150129E-1	4.796036E-1	4.583996E-1	4.810921E-1	4.507218E-1	4.870626E-1	4.764349E-1	4.732896E-1	4.622671E-1	5.043423E-1	4.995308E-1	4.965478E-1	4.963275E-1	4.760298E-1	5.148785E-1	4.818272E-1	4.888073E-1	4.526490E-1	4.646867E-1	4.714644E-1	4.530782E-1	4.453963E-1	5.038705E-1	4.915462E-1	4.721712E-1	4.965406E-1	5.131457E-1	4.486690E-1	4.823273E-1	4.654093E-1	4.532988E-1	4.754208E-1	5.048670E-1	4.783575E-1	5.022659E-1	4.735312E-1	4.776487E-1	4.936790E-1	4.506386E-1	4.828986E-1	4.769260E-1	5.121159E-1	4.736852E-1	4.983846E-1	4.550838E-1	4.889082E-1	4.654100E-1	4.917982E-1	5.250678E-1	4.602786E-1	4.622610E-1	4.749970E-1	4.377360E-1	4.611275E-1	4.672955E-1	4.658431E-1	4.598226E-1	4.891314E-1	4.962983E-1	4.759130E-1	5.054749E-1	5.183296E-1	4.903265E-1	5.048044E-1	4.559269E-1	4.954634E-1	4.760319E-1	4.753427E-1	4.620272E-1	4.898261E-1	5.396620E-1	4.298569E-1	4.552329E-1	4.832270E-1	4.889321E-1	4.818909E-1	5.210637E-1	4.775663E-1	4.898469E-1	4.829000E-1	4.443560E-1	5.123134E-1	4.435313E-1	4.354252E-1	4.779333E-1	4.417076E-1	4.957087E-1	4.604331E-1	4.530966E-1	4.901688E-1	4.725717E-1	4.780789E-1
5.343550E+2	8.101417E-1	7.912447E-1	8.112156E-1	7.655146E-1	7.948608E-1	8.210607E-1	7.957754E-1	8.431271E-1	7.926612E-1	8.510216E-1	8.197305E-1	8.095884E-1	7.832846E-1	8.067870E-1	7.747437E-1	8.306359E-1	8.012666E-1	8.090765E-1	7.835050E-1	8.640256E-1	8.378534E-1	8.414266E-1	8.497068E-1	7.850458E-1	8.927468E-1	9.012860E-1	8.333420E-1	8.480223E-1	8.792689E-1	8.419630E-1	8.247128E-1	8.662724E-1	8.554550E-1	8.605917E-1	8.249310E-1	8.425168E-1	8.553901E-1	8.267973E-1	8.406011E-1	8.074949E-1	8.531104E-1	8.379784E-1	8.185897E-1	8.318065E-1	8.397969E-1	8.393413E-1	8.267852E-1	8.331862E-1	7.970503E-1	8.742513E-1	8.198587E-1	8.246989E-1	8.568513E-1	8.785794E-1	8.436387E-1	8.455196E-1	8.529321E-1	8.547628E-1	8.226905E-1	8.759174E-1	8.330030E-1	8.306697E-1	7.976921E-1	8.314369E-1	8.127984E-1	8.455160E-1	8.139534E-1	8.287394E-1	8.200064E-1	8.029717E-1	7.791908E-1	8.124428E-1	8.262966E-1	8.737658E-1	8.317975E-1	8.248164E-1	8.363689E-1	8.420948E-1	8.027950E-1	8.097728E-1	8.590461E-1	7.852736E-1	8.579935E-1	8.050045E-1	7.953303E-1	8.271356E-1	8.184966E-1	8.352480E-1	8.198666E-1	8.260193E-1	8.514131E-1	8.364016E-1	8.284099E-1	8.244865E-1	8.078514E-1	8.434410E-1	8.071125E-1	7.673204E-1	8.179540E-1	8.091598E-1	7.851347E-1	8.217578E-1	8.237443E-1	8.248801E-1	8.329670E-1	8.359956E-1	8.276105E-1	7.976802E-1	7.717740E-1	8.002787E-1	7.829687E-1	7.999859E-1	8.274889E-1	8.219572E-1	8.054100E-1	8.171878E-1	8.725584E-1	8.271415E-1	8.435637E-1	7.957072E-1	8.242951E-1	7.976258E-1	8.201162E-1	8.807654E-1	8.240661E-1	8.110082E-1	8.240233E-1	7.862430E-1	8.318714E-1	7.884879E-1	8.311156E-1	8.374642E-1	8.451409E-1	8.062912E-1	8.341729E-1	8.337264E-1	8.134080E-1	8.056637E-1	8.353989E-1	8.473951E-1	8.394879E-1	8.136345E-1	8.369301E-1	7.952009E-1	8.149129E-1	8.319193E-1	8.374999E-1	8.070060E-1	8.582160E-1	8.010759E-1	7.808651E-1	8.080120E-1	7.959386E-1	8.250946E-1	8.542455E-1	8.218641E-1	7.884803E-1	8.248559E-1	8.510183E-1	8.102895E-1	8.212954E-1	8.326263E-1	7.826809E-1	7.924162E-1	8.546213E-1	8.221167E-1	8.133251E-1	8.696270E-1	8.285903E-1	8.336718E-1
5.345110E+2	1.266200E+0	1.247122E+0	1.272054E+0	1.173600E+0	1.295012E+0	1.282396E+0	1.228197E+0	1.248872E+0	1.252643E+0	1.216084E+0	1.285396E+0	1.282691E+0	1.242233E+0	1.262471E+0	1.279615E+0	1.251171E+0	1.256083E+0	1.271378E+0	1.256038E+0	1.265688E+0	1.228552E+0	1.269294E+0	1.252795E+0	1.266482E+0	1.320518E+0	1.328539E+0	1.327662E+0	1.306808E+0	1.325553E+0	1.286596E+0	1.313736E+0	1.296657E+0	1.382914E+0	1.295561E+0	1.232970E+0	1.263661E+0	1.295619E+0	1.260091E+0	1.365209E+0	1.286955E+0	1.277790E+0	1.249847E+0	1.316273E+0	1.291144E+0	1.252941E+0	1.205218E+0	1.286250E+0	1.306302E+0	1.265199E+0	1.306310E+0	1.245044E+0	1.278701E+0	1.288443E+0	1.269200E+0	1.289765E+0	1.273000E+0	1.243502E+0	1.288182E+0	1.294449E+0	1.293725E+0	1.287504E+0	1.291357E+0	1.267389E+0	1.273524E+0	1.292215E+0	1.281143E+0	1.255107E+0	1.254592E+0	1.229469E+0	1.269319E+0	1.263224E+0	1.294515E+0	1.261466E+0	1.275218E+0	1.268876E+0	1.300821E+0	1.283606E+0	1.241844E+0	1.265122E+0	1.246800E+0	1.254403E+0	1.238654E+0	1.250324E+0	1.248353E+0	1.269029E+0	1.289978E+0	1.216976E+0	1.303611E+0	1.245389E+0	1.263435E+0	1.308838E+0	1.278813E+0	1.281049E+0	1.267141E+0	1.293290E+0	1.306389E+0	1.251582E+0	1.250134E+0	1.331599E+0	1.304860E+0	1.279256E+0	1.189010E+0	1.266470E+0	1.210796E+0	1.281193E+0	1.283394E+0	1.268097E+0	1.245058E+0	1.294685E+0	1.265476E+0	1.268591E+0	1.324864E+0	1.242043E+0	1.261980E+0	1.218460E+0	1.258867E+0	1.306011E+0	1.257505E+0	1.249627E+0	1.294992E+0	1.218860E+0	1.222008E+0	1.269351E+0	1.312154E+0	1.256108E+0	1.231946E+0	1.303337E+0	1.292673E+0	1.228249E+0	1.292409E+0	1.241352E+0	1.229689E+0	1.263194E+0	1.308154E+0	1.203225E+0	1.258139E+0	1.220205E+0	1.238027E+0	1.204996E+0	1.252866E+0	1.244971E+0	1.283425E+0	1.303589E+0	1.294687E+0	1.264391E+0	1.249368E+0	1.253319E+0	1.280475E+0	1.274760E+0	1.377310E+0	1.249461E+0	1.273436E+0	1.233517E+0	1.274562E+0	1.233687E+0	1.217629E+0	1.295560E+0	1.237723E+0	1.251302E+0	1.274857E+0	1.247333E+0	1.266188E+0	1.260786E+0	1.229145E+0	1.312144E+0	1.240910E+0	1.255233E+0	1.307471E+0	1.326378E+0	1.134427E+0
5.346620E+2	1.752469E+0	1.745942E+0	1.745300E+0	1.654386E+0	1.771538E+0	1.740842E+0	1.766586E+0	1.704097E+0	1.717363E+0	1.768744E+0	1.744115E+0	1.730338E+0	1.719799E+0	1.699151E+0	1.692910E+0	1.776273E+0	1.690691E+0	1.739544E+0	1.690946E+0	1.709194E+0	1.734068E+0	1.699115E+0	1.760081E+0	1.677534E+0	1.774392E+0	1.790168E+0	1.717065E+0	1.765694E+0	1.713886E+0	1.714775E+0	1.729312E+0	1.741343E+0	1.761738E+0	1.708042E+0	1.683508E+0	1.735297E+0	1.774818E+0	1.702298E+0	1.719460E+0	1.726060E+0	1.776819E+0	1.706291E+0	1.737882E+0	1.699878E+0	1.749358E+0	1.711608E+0	1.735620E+0	1.713445E+0	1.725489E+0	1.697584E+0	1.740662E+0	1.720072E+0	1.757185E+0	1.770981E+0	1.742560E+0	1.733971E+0	1.713245E+0	1.688769E+0	1.693868E+0	1.709864E+0	1.724186E+0	1.773185E+0	1.723017E+0	1.697861E+0	1.723107E+0	1.688120E+0	1.703020E+0	1.694392E+0	1.730953E+0	1.767309E+0	1.729684E+0	1.699238E+0	1.687033E+0	1.724472E+0	1.721276E+0	1.690176E+0	1.666634E+0	1.726616E+0	1.705202E+0	1.680151E+0	1.659168E+0	1.661944E+0	1.715815E+0	1.708689E+0	1.739375E+0	1.715239E+0	1.638382E+0	1.706184E+0	1.666256E+0	1.692769E+0	1.699035E+0	1.752824E+0	1.731948E+0	1.658718E+0	1.682106E+0	1.671272E+0	1.629552E+0	1.713932E+0	1.605394E+0	1.664199E+0	1.699760E+0	1.686338E+0	1.725939E+0	1.772537E+0	1.736805E+0	1.689351E+0	1.706636E+0	1.709366E+0	1.613847E+0	1.774105E+0	1.725574E+0	1.704499E+0	1.655174E+0	1.697574E+0	1.698043E+0	1.685601E+0	1.791194E+0	1.673773E+0	1.683515E+0	1.697610E+0	1.707773E+0	1.669604E+0	1.716139E+0	1.665468E+0	1.721518E+0	1.736417E+0	1.729628E+0	1.709815E+0	1.698592E+0	1.675041E+0	1.657327E+0	1.749983E+0	1.693658E+0	1.686236E+0	1.692198E+0	1.671632E+0	1.686145E+0	1.691270E+0	1.666315E+0	1.711918E+0	1.672879E+0	1.699030E+0	1.712898E+0	1.673612E+0	1.674828E+0	1.705205E+0	1.701778E+0	1.765341E+0	1.740609E+0	1.656290E+0	1.712806E+0	1.681952E+0	1.645830E+0	1.722313E+0	1.647624E+0	1.727022E+0	1.737151E+0	1.737790E+0	1.647302E+0	1.750558E+0	1.753314E+0	1.646527E+0	1.687097E+0	1.733208E+0	1.703579E+0	1.656664E+0	1.638574E+0	1.690818E+0	1.599126E+0	1.683321E+0
5.348120E+2	2.150434E+0	2.049736E+0	2.070396E+0	2.085909E+0	2.124853E+0	2.127969E+0	2.080430E+0	2.097720E+0	2.072620E+0	2.004495E+0	2.045210E+0	2.049045E+0	2.060408E+0	2.112035E+0	2.109532E+0	2.064355E+0	2.000832E+0	2.043338E+0	2.081311E+0	2.104340E+0	2.055369E+0	2.061263E+0	2.144005E+0	2.162485E+0	2.053410E+0	2.164645E+0	2.106101E+0	2.109563E+0	2.117999E+0	2.117338E+0	2.109545E+0	2.055861E+0	2.003559E+0	2.143242E+0	2.027831E+0	2.054496E+0	2.060117E+0	2.083027E+0	2.090732E+0	2.060053E+0	2.066479E+0	2.048629E+0	2.068342E+0	2.068618E+0	2.069380E+0	2.038235E+0	2.084978E+0	2.111771E+0	2.117885E+0	2.022868E+0	2.054945E+0	2.043355E+0	2.111410E+0	2.094393E+0	2.083666E+0	2.046744E+0	2.054052E+0	2.104116E+0	2.039867E+0	2.021083E+0	2.053591E+0	2.109366E+0	2.037560E+0	2.093046E+0	2.054042E+0	2.130898E+0	2.046207E+0	2.044703E+0	2.010215E+0	2.084444E+0	2.110645E+0	2.061057E+0	2.062499E+0	2.110867E+0	2.062819E+0	2.045432E+0	2.062305E+0	2.032283E+0	2.030414E+0	2.059908E+0	2.073166E+0	1.972742E+0	2.056164E+0	2.045070E+0	1.985342E+0	2.044579E+0	2.047517E+0	2.045591E+0	1.994698E+0	2.048999E+0	2.081480E+0	2.060041E+0	2.083240E+0	2.054227E+0	2.082952E+0	2.065765E+0	1.966020E+0	2.010228E+0	2.038636E+0	2.061438E+0	2.001837E+0	1.989098E+0	2.092529E+0	2.058776E+0	2.005794E+0	2.035873E+0	2.104326E+0	2.138684E+0	2.063732E+0	2.050752E+0	2.012798E+0	2.069821E+0	2.074922E+0	2.057495E+0	2.049457E+0	2.075474E+0	2.124364E+0	2.031135E+0	2.001341E+0	2.017834E+0	1.992587E+0	2.020759E+0	2.044109E+0	2.002055E+0	2.079718E+0	2.027974E+0	2.074921E+0	2.078128E+0	1.949235E+0	2.024012E+0	2.008386E+0	1.993111E+0	2.018888E+0	2.049344E+0	1.938315E+0	2.012486E+0	1.981655E+0	1.965853E+0	1.975836E+0	2.082697E+0	2.072648E+0	2.012296E+0	1.979506E+0	2.041515E+0	1.943067E+0	1.950426E+0	1.992509E+0	2.057484E+0	2.029458E+0	2.028359E+0	2.020738E+0	1.930601E+0	1.970541E+0	1.989363E+0	2.010691E+0	2.005949E+0	1.946403E+0	1.984982E+0	1.956697E+0	2.059235E+0	2.021551E+0	1.964188E+0	1.979689E+0	2.032611E+0	2.053196E+0	1.953218E+0	1.987050E+0	2.033469E+0	1.947461E+0	1.957931E+0
5.349530E+2	2.289620E+0	2.245812E+0	2.247856E+0	2.325211E+0	2.320774E+0	2.309657E+0	2.300838E+0	2.265720E+0	2.258497E+0	2.252162E+0	2.341331E+0	2.328635E+0	2.244510E+0	2.253582E+0	2.314384E+0	2.281220E+0	2.243321E+0	2.271449E+0	2.303879E+0	2.300694E+0	2.282958E+0	2.353336E+0	2.298753E+0	2.239031E+0	2.239088E+0	2.306654E+0	2.282666E+0	2.314373E+0	2.314845E+0	2.254070E+0	2.212320E+0	2.255897E+0	2.281234E+0	2.258881E+0	2.188293E+0	2.286039E+0	2.282233E+0	2.240333E+0	2.345608E+0	2.240255E+0	2.261630E+0	2.232339E+0	2.231660E+0	2.261072E+0	2.178544E+0	2.249724E+0	2.232025E+0	2.303803E+0	2.364939E+0	2.215382E+0	2.217346E+0	2.268909E+0	2.325066E+0	2.286361E+0	2.253508E+0	2.282139E+0	2.230744E+0	2.344950E+0	2.157202E+0	2.176382E+0	2.187477E+0	2.271736E+0	2.217804E+0	2.243213E+0	2.162588E+0	2.261414E+0	2.238671E+0	2.224888E+0	2.231526E+0	2.215865E+0	2.232007E+0	2.232831E+0	2.252337E+0	2.173267E+0	2.270429E+0	2.161424E+0	2.228444E+0	2.222843E+0	2.299572E+0	2.241677E+0	2.319762E+0	2.225488E+0	2.230095E+0	2.167762E+0	2.209138E+0	2.196107E+0	2.260890E+0	2.219424E+0	2.247109E+0	2.243454E+0	2.284350E+0	2.318272E+0	2.242017E+0	2.184993E+0	2.259037E+0	2.191778E+0	2.231683E+0	2.174528E+0	2.184328E+0	2.257234E+0	2.250593E+0	2.181803E+0	2.250232E+0	2.259220E+0	2.200669E+0	2.230088E+0	2.208884E+0	2.276386E+0	2.194859E+0	2.177330E+0	2.204351E+0	2.276752E+0	2.167890E+0	2.230216E+0	2.132165E+0	2.247689E+0	2.233550E+0	2.244637E+0	2.171789E+0	2.173192E+0	2.176821E+0	2.237069E+0	2.174657E+0	2.193782E+0	2.224715E+0	2.220913E+0	2.253102E+0	2.278728E+0	2.154990E+0	2.158932E+0	2.232070E+0	2.207297E+0	2.211891E+0	2.221102E+0	2.198649E+0	2.169337E+0	2.235107E+0	2.094020E+0	2.268953E+0	2.223721E+0	2.201695E+0	2.192012E+0	2.217806E+0	2.210478E+0	2.166110E+0	2.196952E+0	2.181511E+0	2.260052E+0	2.229343E+0	2.214363E+0	2.169500E+0	2.146206E+0	2.162799E+0	2.206465E+0	2.169528E+0	2.223158E+0	2.172986E+0	2.162226E+0	2.077280E+0	2.256438E+0	2.220994E+0	2.098268E+0	2.175640E+0	2.141539E+0	2.224973E+0	2.138888E+0	2.081129E+0	2.240623E+0	2.193252E+0	2.172786E+0
5.351140E+2	2.385675E+0	2.227685E+0	2.239253E+0	2.288812E+0	2.308845E+0	2.343645E+0	2.184215E+0	2.260671E+0	2.226028E+0	2.220276E+0	2.251036E+0	2.285673E+0	2.221046E+0	2.244061E+0	2.251989E+0	2.255134E+0	2.232873E+0	2.241290E+0	2.265309E+0	2.269624E+0	2.244606E+0	2.238234E+0	2.243695E+0	2.235311E+0	2.274103E+0	2.200708E+0	2.232321E+0	2.263023E+0	2.224784E+0	2.246306E+0	2.189349E+0	2.227300E+0	2.303477E+0	2.295340E+0	2.207895E+0	2.277414E+0	2.216365E+0	2.215974E+0	2.290015E+0	2.241071E+0	2.230656E+0	2.263632E+0	2.276916E+0	2.240529E+0	2.183857E+0	2.134114E+0	2.237526E+0	2.253940E+0	2.276701E+0	2.192417E+0	2.258206E+0	2.252514E+0	2.248838E+0	2.239580E+0	2.195551E+0	2.206788E+0	2.206133E+0	2.319830E+0	2.231169E+0	2.216793E+0	2.209696E+0	2.270717E+0	2.144016E+0	2.115184E+0	2.128105E+0	2.235448E+0	2.233876E+0	2.208723E+0	2.233703E+0	2.199564E+0	2.252308E+0	2.269857E+0	2.224157E+0	2.187177E+0	2.203949E+0	2.204063E+0	2.193468E+0	2.160332E+0	2.232946E+0	2.230408E+0	2.286316E+0	2.204455E+0	2.153009E+0	2.160809E+0	2.263542E+0	2.161030E+0	2.197805E+0	2.255861E+0	2.189210E+0	2.231385E+0	2.251053E+0	2.231082E+0	2.295892E+0	2.185544E+0	2.252660E+0	2.217003E+0	2.205999E+0	2.143150E+0	2.143666E+0	2.280851E+0	2.246103E+0	2.196411E+0	2.225582E+0	2.193024E+0	2.200406E+0	2.175639E+0	2.239997E+0	2.140313E+0	2.235153E+0	2.191915E+0	2.215815E+0	2.272060E+0	2.135131E+0	2.254861E+0	2.170807E+0	2.154245E+0	2.257773E+0	2.239884E+0	2.175204E+0	2.190828E+0	2.136185E+0	2.149560E+0	2.175917E+0	2.182393E+0	2.216195E+0	2.202763E+0	2.286500E+0	2.212133E+0	2.147562E+0	2.160403E+0	2.161355E+0	2.234521E+0	2.181479E+0	2.235041E+0	2.184993E+0	2.174500E+0	2.207004E+0	2.201737E+0	2.217297E+0	2.199211E+0	2.164714E+0	2.269000E+0	2.170254E+0	2.190341E+0	2.176042E+0	2.138371E+0	2.167449E+0	2.254703E+0	2.166410E+0	2.226621E+0	2.182565E+0	2.189493E+0	2.160318E+0	2.238152E+0	2.225112E+0	2.219259E+0	2.139598E+0	2.219248E+0	2.140130E+0	2.185442E+0	2.250888E+0	2.099036E+0	2.161922E+0	2.153509E+0	2.163735E+0	2.103909E+0	2.160354E+0	2.231251E+0	2.091209E+0	2.075867E+0
5.352550E+2	2.077224E+0	1.961024E+0	2.040445E+0	1.986863E+0	2.043331E+0	2.021674E+0	2.039313E+0	2.004691E+0	1.975412E+0	2.005807E+0	1.998732E+0	2.008148E+0	1.976497E+0	1.962279E+0	2.008871E+0	1.994077E+0	1.935522E+0	1.963438E+0	2.040369E+0	1.943407E+0	2.015153E+0	2.013939E+0	2.053879E+0	1.971106E+0	1.962028E+0	2.013958E+0	1.947745E+0	1.975964E+0	2.005778E+0	2.004263E+0	1.936403E+0	1.901230E+0	1.999365E+0	2.039536E+0	1.957007E+0	1.979735E+0	2.018376E+0	1.958922E+0	1.992853E+0	1.937347E+0	1.962915E+0	1.957683E+0	2.062206E+0	1.982224E+0	1.958187E+0	1.923718E+0	1.979326E+0	1.961367E+0	2.035135E+0	1.949954E+0	1.984032E+0	1.928268E+0	2.030008E+0	1.976195E+0	1.957451E+0	1.910592E+0	1.956835E+0	2.001232E+0	1.922302E+0	1.963363E+0	1.991999E+0	1.993934E+0	1.964334E+0	1.876133E+0	1.949718E+0	1.977429E+0	1.997308E+0	2.003649E+0	1.954632E+0	1.884740E+0	1.978028E+0	1.997427E+0	1.989113E+0	1.975107E+0	2.003836E+0	2.015665E+0	2.002106E+0	1.963955E+0	1.939835E+0	1.968203E+0	1.986888E+0	1.969284E+0	1.879788E+0	1.921157E+0	1.986479E+0	1.953325E+0	1.961710E+0	2.000538E+0	1.908222E+0	1.927372E+0	2.017223E+0	1.944142E+0	1.929901E+0	1.971515E+0	2.003070E+0	1.878441E+0	1.975070E+0	1.968843E+0	1.957563E+0	1.976639E+0	1.990090E+0	1.997903E+0	2.059305E+0	1.964600E+0	1.948744E+0	1.953113E+0	2.019582E+0	2.025119E+0	1.926964E+0	1.941495E+0	1.947365E+0	2.037940E+0	1.926829E+0	1.995350E+0	1.910268E+0	1.957290E+0	2.020039E+0	1.963055E+0	1.945438E+0	1.985893E+0	1.918800E+0	1.906044E+0	1.969107E+0	1.973697E+0	1.964072E+0	1.918932E+0	1.936583E+0	1.990155E+0	1.968707E+0	1.904290E+0	1.947736E+0	1.928158E+0	1.929449E+0	2.027311E+0	1.886899E+0	1.977159E+0	1.856747E+0	1.909387E+0	1.924964E+0	1.950088E+0	1.999028E+0	1.904599E+0	1.860686E+0	1.922925E+0	1.937267E+0	1.993640E+0	1.888800E+0	1.954341E+0	1.944369E+0	1.877945E+0	1.899748E+0	1.973752E+0	1.888314E+0	2.037534E+0	1.926777E+0	1.992415E+0	1.807223E+0	1.929007E+0	1.944717E+0	1.974085E+0	1.908912E+0	1.909307E+0	1.906553E+0	1.954641E+0	1.947811E+0	1.879867E+0	1.866442E+0	1.989180E+0	1.879703E+0	1.908532E+0
5.354110E+2	1.778170E+0	1.683736E+0	1.568366E+0	1.647558E+0	1.784501E+0	1.742313E+0	1.758507E+0	1.693775E+0	1.682274E+0	1.650140E+0	1.685193E+0	1.706578E+0	1.709282E+0	1.738235E+0	1.685064E+0	1.654110E+0	1.742042E+0	1.669300E+0	1.641431E+0	1.685955E+0	1.717205E+0	1.743480E+0	1.723982E+0	1.688570E+0	1.676766E+0	1.683229E+0	1.644060E+0	1.687473E+0	1.698592E+0	1.710597E+0	1.672280E+0	1.647890E+0	1.681047E+0	1.695948E+0	1.637789E+0	1.713021E+0	1.650614E+0	1.660828E+0	1.724943E+0	1.636690E+0	1.735081E+0	1.793479E+0	1.617466E+0	1.624863E+0	1.640637E+0	1.647793E+0	1.708764E+0	1.622306E+0	1.643996E+0	1.700948E+0	1.679095E+0	1.633360E+0	1.675881E+0	1.723318E+0	1.692023E+0	1.714305E+0	1.718044E+0	1.732209E+0	1.593776E+0	1.637806E+0	1.735910E+0	1.714345E+0	1.674556E+0	1.599135E+0	1.677048E+0	1.704934E+0	1.693385E+0	1.677875E+0	1.656049E+0	1.630554E+0	1.706248E+0	1.640394E+0	1.681478E+0	1.680765E+0	1.709910E+0	1.701673E+0	1.682324E+0	1.705462E+0	1.645291E+0	1.712673E+0	1.726508E+0	1.692061E+0	1.676093E+0	1.680507E+0	1.714288E+0	1.656229E+0	1.684146E+0	1.693876E+0	1.638545E+0	1.662582E+0	1.667077E+0	1.629681E+0	1.720701E+0	1.661753E+0	1.743108E+0	1.662674E+0	1.639348E+0	1.643627E+0	1.664284E+0	1.685191E+0	1.688583E+0	1.658897E+0	1.756148E+0	1.674555E+0	1.685908E+0	1.661990E+0	1.732016E+0	1.715884E+0	1.673344E+0	1.700442E+0	1.607487E+0	1.739752E+0	1.636329E+0	1.651124E+0	1.630829E+0	1.735872E+0	1.675571E+0	1.710363E+0	1.686219E+0	1.639547E+0	1.651907E+0	1.643075E+0	1.668007E+0	1.663765E+0	1.687824E+0	1.702528E+0	1.720953E+0	1.658052E+0	1.705235E+0	1.629444E+0	1.654583E+0	1.630621E+0	1.678342E+0	1.665607E+0	1.683991E+0	1.689653E+0	1.675244E+0	1.640880E+0	1.694797E+0	1.667356E+0	1.688361E+0	1.649240E+0	1.686403E+0	1.636927E+0	1.638336E+0	1.684328E+0	1.722820E+0	1.690068E+0	1.652798E+0	1.616178E+0	1.670873E+0	1.696444E+0	1.668393E+0	1.732809E+0	1.658662E+0	1.640690E+0	1.659617E+0	1.662041E+0	1.599406E+0	1.719487E+0	1.717437E+0	1.619460E+0	1.666161E+0	1.695177E+0	1.638641E+0	1.667252E+0	1.629477E+0	1.689762E+0	1.675124E+0	1.682204E+0
5.355580E+2	1.440687E+0	1.453662E+0	1.380336E+0	1.394226E+0	1.471552E+0	1.470143E+0	1.385859E+0	1.443158E+0	1.385522E+0	1.455149E+0	1.441167E+0	1.440860E+0	1.425184E+0	1.411503E+0	1.416567E+0	1.380696E+0	1.436420E+0	1.431951E+0	1.420334E+0	1.419325E+0	1.506792E+0	1.459164E+0	1.479724E+0	1.418207E+0	1.363928E+0	1.430635E+0	1.429785E+0	1.366878E+0	1.447625E+0	1.398229E+0	1.395908E+0	1.372786E+0	1.422783E+0	1.430205E+0	1.400065E+0	1.394123E+0	1.398693E+0	1.397601E+0	1.473241E+0	1.381168E+0	1.410637E+0	1.399527E+0	1.476511E+0	1.430811E+0	1.404217E+0	1.400780E+0	1.390624E+0	1.413721E+0	1.456286E+0	1.420790E+0	1.445665E+0	1.452846E+0	1.397458E+0	1.481814E+0	1.421726E+0	1.431427E+0	1.443063E+0	1.411046E+0	1.401401E+0	1.425402E+0	1.435826E+0	1.388323E+0	1.393165E+0	1.384444E+0	1.449883E+0	1.477682E+0	1.429665E+0	1.363716E+0	1.382887E+0	1.405316E+0	1.428154E+0	1.399213E+0	1.463457E+0	1.389220E+0	1.401629E+0	1.361757E+0	1.378580E+0	1.436822E+0	1.449970E+0	1.393523E+0	1.434308E+0	1.442025E+0	1.378239E+0	1.425615E+0	1.458062E+0	1.435211E+0	1.377784E+0	1.438076E+0	1.402869E+0	1.468010E+0	1.386250E+0	1.409826E+0	1.438121E+0	1.407624E+0	1.424239E+0	1.380959E+0	1.450490E+0	1.404666E+0	1.439924E+0	1.414092E+0	1.462947E+0	1.406190E+0	1.448934E+0	1.405365E+0	1.429903E+0	1.419410E+0	1.350242E+0	1.429666E+0	1.474830E+0	1.479708E+0	1.412314E+0	1.393437E+0	1.390959E+0	1.433162E+0	1.380032E+0	1.405523E+0	1.396149E+0	1.362222E+0	1.402125E+0	1.411216E+0	1.415082E+0	1.418433E+0	1.427022E+0	1.385553E+0	1.425381E+0	1.398735E+0	1.421323E+0	1.455922E+0	1.357190E+0	1.373507E+0	1.419634E+0	1.392056E+0	1.398329E+0	1.455894E+0	1.412142E+0	1.406591E+0	1.387345E+0	1.423425E+0	1.426268E+0	1.456701E+0	1.433355E+0	1.446258E+0	1.434662E+0	1.390835E+0	1.419528E+0	1.380871E+0	1.441832E+0	1.421390E+0	1.390719E+0	1.407597E+0	1.456863E+0	1.382889E+0	1.395383E+0	1.434806E+0	1.387431E+0	1.402617E+0	1.395806E+0	1.384126E+0	1.354253E+0	1.466684E+0	1.445907E+0	1.409386E+0	1.368659E+0	1.384375E+0	1.373500E+0	1.369181E+0	1.360419E+0	1.397752E+0	1.358644E+0	1.364139E+0
5.357090E+2	1.235310E+0	1.219829E+0	1.195484E+0	1.228308E+0	1.250291E+0	1.302576E+0	1.278006E+0	1.240632E+0	1.158366E+0	1.252274E+0	1.240700E+0	1.282168E+0	1.220824E+0	1.191273E+0	1.227289E+0	1.215658E+0	1.206895E+0	1.222555E+0	1.232011E+0	1.213853E+0	1.256865E+0	1.211930E+0	1.281665E+0	1.213282E+0	1.178492E+0	1.211393E+0	1.213350E+0	1.225364E+0	1.218769E+0	1.240698E+0	1.259355E+0	1.160866E+0	1.235344E+0	1.247813E+0	1.170054E+0	1.166666E+0	1.185693E+0	1.201895E+0	1.228187E+0	1.192344E+0	1.236140E+0	1.150485E+0	1.231219E+0	1.225771E+0	1.226673E+0	1.216221E+0	1.231118E+0	1.188046E+0	1.271284E+0	1.197151E+0	1.225122E+0	1.164432E+0	1.290121E+0	1.223429E+0	1.281618E+0	1.191720E+0	1.194355E+0	1.251272E+0	1.162109E+0	1.201798E+0	1.241881E+0	1.239419E+0	1.171314E+0	1.196303E+0	1.216060E+0	1.260490E+0	1.238109E+0	1.198656E+0	1.222171E+0	1.184039E+0	1.233872E+0	1.204647E+0	1.237613E+0	1.249115E+0	1.202519E+0	1.223919E+0	1.201992E+0	1.212626E+0	1.315659E+0	1.198344E+0	1.222817E+0	1.212634E+0	1.190305E+0	1.206006E+0	1.247126E+0	1.259107E+0	1.239599E+0	1.219119E+0	1.158085E+0	1.186055E+0	1.255415E+0	1.231376E+0	1.224269E+0	1.191551E+0	1.220776E+0	1.229453E+0	1.223826E+0	1.162568E+0	1.210930E+0	1.211368E+0	1.280848E+0	1.208213E+0	1.277553E+0	1.203189E+0	1.207893E+0	1.199062E+0	1.191120E+0	1.236418E+0	1.216980E+0	1.243644E+0	1.186092E+0	1.245373E+0	1.182222E+0	1.222189E+0	1.250371E+0	1.223416E+0	1.250572E+0	1.192614E+0	1.237885E+0	1.211913E+0	1.205593E+0	1.266204E+0	1.252347E+0	1.205920E+0	1.239116E+0	1.240623E+0	1.238235E+0	1.222973E+0	1.201104E+0	1.217257E+0	1.228592E+0	1.227980E+0	1.228846E+0	1.250638E+0	1.211395E+0	1.207149E+0	1.279350E+0	1.203426E+0	1.259344E+0	1.198128E+0	1.197357E+0	1.239690E+0	1.256107E+0	1.223335E+0	1.224458E+0	1.239240E+0	1.238129E+0	1.262137E+0	1.234772E+0	1.239599E+0	1.199948E+0	1.192459E+0	1.221604E+0	1.215303E+0	1.270167E+0	1.272049E+0	1.200530E+0	1.191976E+0	1.187323E+0	1.193122E+0	1.222864E+0	1.188918E+0	1.216258E+0	1.276252E+0	1.245057E+0	1.195403E+0	1.204061E+0	1.275175E+0	1.262040E+0	1.226149E+0
5.358600E+2	1.058210E+0	1.004428E+0	1.020891E+0	1.079581E+0	1.046838E+0	1.044937E+0	1.042601E+0	1.073848E+0	1.001075E+0	1.011711E+0	1.056274E+0	1.043806E+0	1.006863E+0	1.035502E+0	1.020665E+0	1.016530E+0	1.041651E+0	1.088230E+0	1.049400E+0	1.053741E+0	1.058115E+0	1.082464E+0	1.069681E+0	1.042654E+0	1.028027E+0	1.010506E+0	1.031907E+0	1.020810E+0	1.044820E+0	1.017048E+0	9.990308E-1	9.986386E-1	1.087754E+0	1.055354E+0	1.051181E+0	9.812516E-1	1.031321E+0	1.030517E+0	1.041532E+0	1.058594E+0	1.048146E+0	1.003437E+0	1.039170E+0	1.051103E+0	1.062800E+0	9.975839E-1	1.030417E+0	1.016827E+0	1.065491E+0	1.024455E+0	1.031135E+0	1.017022E+0	1.084002E+0	1.062141E+0	1.006220E+0	1.024533E+0	1.093597E+0	1.042763E+0	1.057803E+0	1.042454E+0	1.068967E+0	1.056580E+0	1.030448E+0	9.950192E-1	1.033402E+0	1.040867E+0	1.030523E+0	1.024912E+0	1.017548E+0	1.055082E+0	1.080144E+0	1.043528E+0	9.882557E-1	1.041687E+0	1.037125E+0	1.065063E+0	1.038869E+0	1.036417E+0	1.051100E+0	1.031358E+0	1.029599E+0	1.068786E+0	1.037822E+0	1.030332E+0	1.027685E+0	1.060246E+0	1.073303E+0	1.081071E+0	1.017436E+0	1.024167E+0	1.081275E+0	1.063358E+0	1.077167E+0	1.066881E+0	1.013210E+0	1.031311E+0	1.026442E+0	1.031074E+0	1.061276E+0	1.069563E+0	1.042606E+0	1.050282E+0	1.050526E+0	1.021028E+0	1.036021E+0	1.042490E+0	1.069301E+0	1.067610E+0	1.071394E+0	1.035290E+0	1.019555E+0	1.062210E+0	1.061057E+0	1.076402E+0	1.044586E+0	1.047250E+0	1.051796E+0	1.041365E+0	1.041337E+0	1.009348E+0	1.007761E+0	9.961304E-1	1.047329E+0	1.039104E+0	1.058792E+0	1.023387E+0	1.093715E+0	1.080285E+0	1.057715E+0	1.023150E+0	1.070243E+0	1.044715E+0	1.059081E+0	1.035656E+0	1.063151E+0	1.088679E+0	1.002331E+0	1.035024E+0	1.042935E+0	1.002193E+0	1.035469E+0	1.058698E+0	1.071481E+0	1.042904E+0	1.072517E+0	1.026795E+0	1.070550E+0	1.038071E+0	1.050351E+0	1.037335E+0	1.048573E+0	1.066294E+0	1.052292E+0	1.065884E+0	1.082653E+0	1.025355E+0	1.046040E+0	9.943309E-1	1.035151E+0	1.062212E+0	1.042613E+0	1.055690E+0	1.010744E+0	1.009820E+0	1.089752E+0	1.025428E+0	1.045008E+0	1.006854E+0	9.994534E-1	1.001780E+0
5.360120E+2	8.687408E-1	8.551189E-1	8.728361E-1	8.929812E-1	8.971731E-1	9.351580E-1	9.004572E-1	8.669171E-1	8.834486E-1	9.023684E-1	9.006470E-1	8.442788E-1	9.101254E-1	8.910093E-1	8.867545E-1	8.971827E-1	9.146981E-1	8.737851E-1	8.756624E-1	8.995855E-1	8.823535E-1	8.985007E-1	8.677265E-1	8.959165E-1	8.764260E-1	9.025190E-1	8.977916E-1	8.643550E-1	8.842425E-1	9.161103E-1	8.941709E-1	8.764602E-1	9.092237E-1	8.859751E-1	9.127778E-1	9.125146E-1	8.959608E-1	9.018122E-1	8.956977E-1	8.817029E-1	8.890473E-1	8.937131E-1	8.924627E-1	8.969638E-1	8.576306E-1	8.740133E-1	8.852783E-1	8.881272E-1	8.587050E-1	9.201700E-1	8.967101E-1	8.867339E-1	9.647247E-1	9.490011E-1	8.662436E-1	8.718611E-1	8.530282E-1	8.914607E-1	8.821403E-1	9.219897E-1	9.010134E-1	8.913986E-1	8.805882E-1	8.849589E-1	9.143197E-1	8.876623E-1	8.703748E-1	9.164814E-1	8.729864E-1	9.259036E-1	8.852713E-1	8.713779E-1	8.595033E-1	9.169790E-1	9.121137E-1	8.910686E-1	8.759753E-1	9.007924E-1	9.019530E-1	8.869091E-1	8.590234E-1	8.799876E-1	8.685392E-1	8.892765E-1	8.628069E-1	8.641357E-1	8.887975E-1	8.730895E-1	9.045894E-1	8.757706E-1	8.763555E-1	8.610143E-1	9.723153E-1	8.833376E-1	8.694027E-1	8.676550E-1	8.783560E-1	8.885063E-1	8.919322E-1	9.092372E-1	9.062681E-1	8.516384E-1	9.517637E-1	8.525472E-1	9.034211E-1	9.268929E-1	9.008981E-1	8.881726E-1	8.570434E-1	9.085079E-1	8.754159E-1	8.750765E-1	9.484120E-1	8.812564E-1	8.801572E-1	8.730850E-1	8.886221E-1	8.749680E-1	8.893222E-1	8.560909E-1	8.871332E-1	8.942180E-1	9.074148E-1	8.737533E-1	9.410557E-1	9.178079E-1	9.063428E-1	9.165755E-1	8.946482E-1	8.921776E-1	9.037069E-1	8.462265E-1	8.999783E-1	8.904330E-1	8.664305E-1	8.732940E-1	9.059617E-1	9.188719E-1	8.920499E-1	8.809579E-1	9.118224E-1	9.021521E-1	9.263749E-1	8.560796E-1	8.654412E-1	8.766655E-1	9.276031E-1	9.053088E-1	9.052609E-1	9.289346E-1	9.039124E-1	9.197536E-1	9.171851E-1	9.173423E-1	9.116319E-1	8.576265E-1	8.790810E-1	9.177569E-1	8.842938E-1	8.898967E-1	9.151605E-1	9.187580E-1	9.216488E-1	8.750201E-1	8.805907E-1	8.691250E-1	9.069473E-1	9.472522E-1	9.383261E-1	8.810385E-1
5.362730E+2	6.706822E-1	7.170620E-1	6.427008E-1	6.615660E-1	7.019958E-1	7.099948E-1	6.501667E-1	6.658984E-1	6.967037E-1	7.122886E-1	6.413997E-1	6.592738E-1	6.670842E-1	6.963430E-1	6.628825E-1	6.687121E-1	6.837510E-1	6.434549E-1	6.469776E-1	6.661762E-1	6.911041E-1	6.823917E-1	6.936616E-1	6.776879E-1	6.822257E-1	6.759544E-1	6.512777E-1	7.022385E-1	6.910715E-1	6.784061E-1	6.729394E-1	6.457301E-1	6.837380E-1	6.928892E-1	6.718114E-1	6.430405E-1	6.532353E-1	6.401082E-1	6.514275E-1	6.679738E-1	6.524942E-1	6.645249E-1	6.621318E-1	6.499067E-1	6.529990E-1	6.410001E-1	6.612897E-1	6.523477E-1	6.887045E-1	6.913821E-1	6.550137E-1	6.588991E-1	6.909530E-1	6.933141E-1	7.126867E-1	6.749711E-1	6.903493E-1	7.189641E-1	6.488330E-1	6.696963E-1	6.965849E-1	6.800500E-1	6.584184E-1	6.554828E-1	6.679126E-1	6.712566E-1	6.802853E-1	6.630189E-1	6.857393E-1	6.683546E-1	6.578009E-1	6.605635E-1	6.712006E-1	7.117657E-1	6.823101E-1	6.565281E-1	6.501338E-1	6.494017E-1	6.642013E-1	6.568846E-1	7.066855E-1	6.620125E-1	6.690118E-1	6.609636E-1	6.535729E-1	6.571259E-1	6.688373E-1	7.098648E-1	6.733121E-1	6.562355E-1	7.168087E-1	6.518587E-1	7.211205E-1	6.903456E-1	6.428024E-1	6.674581E-1	6.693090E-1	7.074556E-1	6.681962E-1	6.827582E-1	7.037373E-1	6.961537E-1	7.134553E-1	6.808790E-1	6.755855E-1	6.836919E-1	6.696372E-1	6.872438E-1	6.661434E-1	6.597376E-1	6.503304E-1	6.679607E-1	6.635294E-1	6.542468E-1	6.897291E-1	6.669877E-1	6.825892E-1	6.818396E-1	6.611247E-1	6.540006E-1	6.803358E-1	7.202898E-1	6.550837E-1	6.650144E-1	6.996029E-1	6.650472E-1	7.327660E-1	6.536204E-1	7.018126E-1	6.345241E-1	6.521951E-1	6.758115E-1	7.167410E-1	7.188148E-1	7.132234E-1	6.637919E-1	6.671317E-1	6.714948E-1	6.913149E-1	6.981372E-1	6.687623E-1	6.482080E-1	6.787647E-1	6.891262E-1	6.946612E-1	6.592630E-1	7.090515E-1	6.544873E-1	7.383578E-1	6.921209E-1	6.847044E-1	6.728179E-1	6.660445E-1	6.900048E-1	6.898416E-1	6.775188E-1	6.474581E-1	7.047024E-1	6.785745E-1	6.847189E-1	7.093011E-1	6.913185E-1	6.697636E-1	6.824210E-1	6.831928E-1	6.362236E-1	6.538594E-1	6.517081E-1	7.027786E-1	7.707762E-1
5.365140E+2	5.859108E-1	5.679075E-1	6.085694E-1	5.472923E-1	6.033857E-1	5.782043E-1	5.592518E-1	5.863414E-1	5.539557E-1	5.335910E-1	5.801566E-1	5.546511E-1	5.734217E-1	5.827442E-1	5.290494E-1	5.706711E-1	5.694065E-1	5.696374E-1	5.768958E-1	5.982684E-1	6.041140E-1	5.703612E-1	5.686012E-1	5.732240E-1	5.517562E-1	5.862704E-1	5.726777E-1	5.609055E-1	6.125238E-1	5.690933E-1	5.849419E-1	5.632756E-1	5.594595E-1	6.058765E-1	5.551606E-1	5.647481E-1	6.086642E-1	6.028293E-1	5.604859E-1	5.671467E-1	5.363010E-1	5.438897E-1	5.721195E-1	5.885654E-1	5.728600E-1	5.503693E-1	5.814032E-1	5.773204E-1	5.918153E-1	5.957084E-1	5.597242E-1	5.438260E-1	6.137618E-1	5.768922E-1	5.526588E-1	5.582042E-1	5.967957E-1	5.667214E-1	5.545685E-1	5.675867E-1	5.712839E-1	5.675601E-1	5.556451E-1	5.645238E-1	5.938709E-1	5.551812E-1	5.832489E-1	5.660798E-1	5.688419E-1	5.529399E-1	5.739749E-1	5.845779E-1	5.550680E-1	5.933856E-1	5.575118E-1	5.883838E-1	6.036566E-1	5.757383E-1	5.622687E-1	5.908576E-1	5.618216E-1	5.835055E-1	5.596654E-1	5.716694E-1	5.688366E-1	5.292785E-1	5.471952E-1	5.521900E-1	5.825235E-1	5.657164E-1	6.179486E-1	5.719713E-1	5.859375E-1	5.743635E-1	5.877677E-1	5.809137E-1	5.797030E-1	5.163198E-1	5.654742E-1	5.635944E-1	5.930118E-1	5.569490E-1	5.763205E-1	6.123844E-1	6.077187E-1	5.911563E-1	5.986769E-1	5.785186E-1	6.227919E-1	5.689149E-1	5.931576E-1	5.888801E-1	5.839810E-1	6.111983E-1	5.774820E-1	5.840082E-1	6.490990E-1	5.852743E-1	5.730344E-1	5.678541E-1	5.605769E-1	5.647879E-1	6.144818E-1	5.598657E-1	5.850035E-1	5.784998E-1	5.842220E-1	5.705413E-1	5.682404E-1	5.697668E-1	5.603461E-1	5.940709E-1	5.812065E-1	6.071117E-1	5.732634E-1	5.865387E-1	6.100143E-1	5.762064E-1	5.846739E-1	5.507956E-1	6.189012E-1	5.753921E-1	5.786501E-1	5.834027E-1	6.489758E-1	6.029267E-1	5.814576E-1	5.806082E-1	5.589213E-1	5.859317E-1	5.877620E-1	5.891645E-1	5.887989E-1	6.318785E-1	5.693162E-1	5.722766E-1	5.638536E-1	5.727257E-1	5.487991E-1	5.710991E-1	6.313337E-1	5.470061E-1	5.716090E-1	5.957635E-1	5.536949E-1	5.872405E-1	5.758371E-1	5.960967E-1	5.591658E-1	5.874922E-1
5.367710E+2	5.561783E-1	5.326187E-1	5.589315E-1	5.317042E-1	5.475563E-1	5.758561E-1	5.928055E-1	5.435406E-1	5.899891E-1	5.777172E-1	5.156723E-1	5.596252E-1	5.550961E-1	5.831500E-1	5.778315E-1	5.580259E-1	5.619719E-1	5.853940E-1	5.402789E-1	5.465474E-1	5.725019E-1	5.829669E-1	5.879288E-1	5.685370E-1	5.288808E-1	5.769812E-1	5.509400E-1	5.536328E-1	5.653741E-1	5.631265E-1	5.995619E-1	5.396055E-1	5.149919E-1	5.737237E-1	6.065473E-1	5.603930E-1	5.622407E-1	5.696094E-1	5.471938E-1	6.004715E-1	5.725414E-1	5.910951E-1	5.478819E-1	5.438362E-1	5.577087E-1	5.750119E-1	5.853567E-1	5.715904E-1	5.604762E-1	5.955641E-1	5.363416E-1	5.285263E-1	5.753042E-1	5.468813E-1	5.378985E-1	5.448365E-1	5.679992E-1	5.917466E-1	5.864758E-1	5.287685E-1	5.828593E-1	5.654975E-1	5.926727E-1	5.169765E-1	5.622727E-1	6.014932E-1	5.908709E-1	5.509091E-1	5.704744E-1	5.443491E-1	5.856172E-1	5.435907E-1	5.629211E-1	5.478772E-1	5.427487E-1	5.960511E-1	6.004417E-1	5.508009E-1	5.450583E-1	5.723518E-1	5.852225E-1	5.563802E-1	6.016545E-1	5.789433E-1	5.896921E-1	5.874006E-1	5.870717E-1	5.866464E-1	5.498573E-1	5.285189E-1	5.577241E-1	5.693095E-1	5.542174E-1	5.296449E-1	5.837198E-1	5.651015E-1	5.603637E-1	5.325240E-1	5.486119E-1	5.310537E-1	5.497760E-1	5.503646E-1	5.466340E-1	5.747984E-1	5.623503E-1	5.925618E-1	5.703069E-1	5.687736E-1	5.881891E-1	5.649985E-1	5.425308E-1	5.617588E-1	5.712731E-1	5.820501E-1	5.511186E-1	5.653285E-1	5.639988E-1	5.779822E-1	5.697981E-1	5.745719E-1	5.496084E-1	5.681932E-1	5.588608E-1	5.341572E-1	6.067781E-1	5.992262E-1	5.631318E-1	5.630217E-1	5.379422E-1	5.425364E-1	5.612533E-1	5.595671E-1	5.597402E-1	5.796219E-1	5.730311E-1	5.739916E-1	5.452451E-1	6.125068E-1	5.591682E-1	5.654397E-1	5.614934E-1	5.736815E-1	5.565870E-1	5.617022E-1	5.674118E-1	5.765635E-1	5.787637E-1	5.805471E-1	5.717355E-1	5.480572E-1	5.605652E-1	5.750053E-1	5.879504E-1	6.027510E-1	5.681674E-1	5.591745E-1	5.759459E-1	5.794058E-1	5.776194E-1	5.591603E-1	6.126336E-1	5.573976E-1	5.760596E-1	5.244511E-1	5.741335E-1	5.719268E-1	5.618772E-1	5.647703E-1	5.799671E-1	6.065154E-1
5.370120E+2	5.925217E-1	5.955089E-1	5.546661E-1	6.044128E-1	5.843752E-1	6.002253E-1	5.837887E-1	6.031638E-1	5.613136E-1	5.763197E-1	5.809815E-1	6.071563E-1	6.297869E-1	6.164801E-1	6.075557E-1	5.915694E-1	6.085904E-1	6.051124E-1	6.031829E-1	5.639436E-1	6.043637E-1	5.840077E-1	6.114425E-1	5.911741E-1	6.097219E-1	6.245608E-1	6.251522E-1	5.913746E-1	6.447893E-1	6.176106E-1	5.761831E-1	5.711151E-1	5.808812E-1	6.122646E-1	5.890408E-1	5.854822E-1	5.888689E-1	6.167669E-1	5.769340E-1	6.003182E-1	5.976936E-1	6.052038E-1	5.872265E-1	5.793629E-1	5.920660E-1	5.884685E-1	6.080555E-1	5.706200E-1	5.793901E-1	5.929158E-1	6.308123E-1	5.771243E-1	5.972107E-1	6.284324E-1	6.067666E-1	5.836243E-1	6.040566E-1	6.179797E-1	5.274963E-1	5.657356E-1	6.041065E-1	5.933477E-1	6.023083E-1	5.868698E-1	5.973236E-1	6.044377E-1	5.825736E-1	5.935681E-1	5.960170E-1	5.848724E-1	6.208475E-1	6.036582E-1	6.029954E-1	5.760399E-1	5.591635E-1	5.948403E-1	6.082478E-1	5.942235E-1	6.089095E-1	5.920827E-1	6.013234E-1	6.017283E-1	5.870175E-1	6.084548E-1	5.994116E-1	5.932556E-1	6.090200E-1	6.212515E-1	5.489027E-1	5.736939E-1	6.109858E-1	6.137913E-1	6.024817E-1	5.938408E-1	5.934058E-1	6.036289E-1	6.281339E-1	5.730810E-1	5.896528E-1	6.202869E-1	5.929320E-1	5.835864E-1	6.488554E-1	6.182167E-1	5.733737E-1	6.066149E-1	5.916921E-1	5.922100E-1	5.686513E-1	5.919568E-1	6.135213E-1	5.938330E-1	6.203376E-1	5.997095E-1	5.934510E-1	6.172755E-1	6.173185E-1	6.057963E-1	6.319868E-1	5.942705E-1	5.981804E-1	5.928906E-1	6.483463E-1	5.903174E-1	6.253346E-1	6.013218E-1	6.371319E-1	5.770174E-1	5.779038E-1	5.960272E-1	5.958614E-1	6.548581E-1	6.225108E-1	6.011094E-1	6.166036E-1	6.518083E-1	6.192379E-1	6.354611E-1	6.015641E-1	6.062350E-1	6.053136E-1	6.004953E-1	6.119593E-1	5.686161E-1	6.075086E-1	5.859822E-1	6.237703E-1	6.049522E-1	6.419003E-1	6.213842E-1	6.024454E-1	6.078253E-1	5.825373E-1	6.607948E-1	6.071078E-1	5.948253E-1	6.174879E-1	6.306791E-1	5.844588E-1	6.217891E-1	6.113635E-1	6.060664E-1	6.153772E-1	6.399805E-1	6.070442E-1	5.883360E-1	6.280580E-1	6.369324E-1	6.165191E-1	6.004684E-1
5.372590E+2	6.608289E-1	7.238740E-1	6.364781E-1	6.704440E-1	6.473370E-1	7.135964E-1	7.030549E-1	6.673372E-1	6.630643E-1	7.091727E-1	6.787340E-1	6.906701E-1	6.468792E-1	6.605430E-1	6.831845E-1	6.679964E-1	6.627871E-1	6.552828E-1	6.684331E-1	6.707328E-1	6.538967E-1	6.896543E-1	6.839603E-1	6.643186E-1	6.822797E-1	6.935107E-1	7.078911E-1	6.599196E-1	6.651683E-1	6.820946E-1	6.586545E-1	6.769849E-1	6.787410E-1	6.641719E-1	6.548215E-1	6.656217E-1	6.944000E-1	6.599220E-1	6.835777E-1	6.601576E-1	6.323713E-1	6.819817E-1	6.616224E-1	7.012247E-1	6.910205E-1	6.309267E-1	7.042929E-1	6.561546E-1	6.976987E-1	7.222257E-1	6.669037E-1	6.841338E-1	7.151398E-1	6.773250E-1	6.857989E-1	6.656271E-1	6.829300E-1	6.959586E-1	6.528388E-1	6.439843E-1	6.772644E-1	6.908391E-1	6.639131E-1	6.489698E-1	6.942416E-1	6.686554E-1	7.184330E-1	6.318539E-1	6.607361E-1	6.786877E-1	6.819799E-1	6.925448E-1	6.902111E-1	6.574620E-1	7.094065E-1	6.972146E-1	6.648999E-1	6.804540E-1	6.713678E-1	7.036023E-1	6.907194E-1	6.852724E-1	6.576146E-1	6.506995E-1	6.734909E-1	6.812553E-1	6.445287E-1	6.865865E-1	6.647554E-1	6.829758E-1	6.876047E-1	6.934699E-1	6.919463E-1	6.576411E-1	6.845419E-1	6.774827E-1	7.308662E-1	6.308553E-1	6.702058E-1	6.901681E-1	6.892941E-1	6.811959E-1	7.295189E-1	6.929854E-1	6.968371E-1	6.896254E-1	7.022219E-1	6.845489E-1	7.070584E-1	6.946402E-1	6.783973E-1	6.767147E-1	6.610584E-1	7.217624E-1	6.570735E-1	6.662831E-1	7.119158E-1	6.700352E-1	6.922077E-1	6.585127E-1	7.078246E-1	6.785822E-1	6.778386E-1	6.913620E-1	6.988794E-1	7.084252E-1	6.922570E-1	6.918539E-1	6.729673E-1	6.555285E-1	6.728273E-1	6.673536E-1	7.246792E-1	7.174885E-1	6.624050E-1	7.067618E-1	6.913045E-1	6.923956E-1	6.651755E-1	7.238053E-1	6.759470E-1	6.763496E-1	6.997530E-1	6.643940E-1	6.977995E-1	6.563534E-1	6.751945E-1	7.032701E-1	6.707467E-1	7.449191E-1	6.927372E-1	6.794889E-1	6.687127E-1	6.678786E-1	6.936191E-1	6.783012E-1	6.639015E-1	6.459296E-1	6.950929E-1	6.689820E-1	7.095517E-1	6.129104E-1	6.785941E-1	6.536975E-1	7.131347E-1	6.668109E-1	6.991188E-1	6.830671E-1	6.182298E-1	6.678394E-1
5.375110E+2	7.710134E-1	8.325520E-1	7.746257E-1	7.878964E-1	7.761204E-1	8.345738E-1	7.563955E-1	7.931935E-1	7.598981E-1	7.580555E-1	8.072376E-1	7.941663E-1	7.870962E-1	7.132826E-1	7.687724E-1	7.452423E-1	7.411284E-1	7.553570E-1	7.989310E-1	8.051237E-1	7.483040E-1	7.850155E-1	7.771340E-1	7.484629E-1	7.495307E-1	7.837295E-1	8.036358E-1	7.884165E-1	8.033392E-1	7.626190E-1	7.944436E-1	7.852492E-1	8.003910E-1	7.729992E-1	7.720152E-1	7.938990E-1	7.720117E-1	7.694392E-1	8.280471E-1	7.579654E-1	7.679561E-1	7.903070E-1	7.810309E-1	7.992542E-1	7.419467E-1	7.654082E-1	7.946823E-1	7.853606E-1	7.488791E-1	7.649646E-1	7.746673E-1	7.444320E-1	8.038016E-1	7.832760E-1	7.835524E-1	7.530136E-1	7.270153E-1	7.839415E-1	7.875990E-1	7.700745E-1	7.951085E-1	8.058866E-1	7.992888E-1	7.623708E-1	7.587275E-1	8.090983E-1	7.887439E-1	7.915360E-1	7.828423E-1	7.587730E-1	8.092074E-1	7.887808E-1	7.994573E-1	8.103511E-1	7.977616E-1	7.185535E-1	7.568543E-1	7.676257E-1	7.711514E-1	7.815546E-1	7.815619E-1	7.672912E-1	7.855762E-1	7.552996E-1	7.837210E-1	7.879975E-1	8.133560E-1	7.914959E-1	7.339331E-1	7.542448E-1	7.587525E-1	7.896544E-1	7.807637E-1	7.623826E-1	7.729197E-1	7.643874E-1	7.841359E-1	7.847679E-1	7.594940E-1	7.929598E-1	7.462415E-1	7.795653E-1	7.710927E-1	7.350304E-1	7.963196E-1	7.410706E-1	7.794882E-1	7.698072E-1	7.893866E-1	7.880133E-1	8.059503E-1	7.872412E-1	7.801363E-1	7.895715E-1	7.898666E-1	7.793095E-1	8.736797E-1	8.056537E-1	7.782634E-1	7.714392E-1	7.604620E-1	7.943513E-1	8.298791E-1	7.620610E-1	8.034190E-1	8.068915E-1	7.841886E-1	7.829148E-1	7.599188E-1	7.616016E-1	7.798144E-1	8.002385E-1	8.285784E-1	8.027277E-1	7.878454E-1	7.685182E-1	8.115769E-1	7.975449E-1	8.053065E-1	7.811954E-1	7.819473E-1	7.662852E-1	7.483480E-1	7.501214E-1	8.068958E-1	7.536629E-1	7.283012E-1	7.855645E-1	7.944718E-1	8.068196E-1	7.250841E-1	7.860177E-1	7.648863E-1	7.609184E-1	7.876621E-1	7.686790E-1	8.216625E-1	8.145312E-1	7.507084E-1	7.947598E-1	8.472595E-1	8.034240E-1	7.845817E-1	8.057295E-1	8.029172E-1	8.008405E-1	7.780643E-1	7.946533E-1	8.139138E-1	8.014811E-1
5.377630E+2	9.147802E-1	8.988372E-1	8.460889E-1	9.073477E-1	9.177208E-1	9.479428E-1	9.244010E-1	9.323073E-1	8.781713E-1	9.042324E-1	8.828389E-1	9.367301E-1	9.071542E-1	8.597630E-1	9.130796E-1	8.693123E-1	8.701724E-1	9.257032E-1	9.044704E-1	9.092357E-1	9.014975E-1	9.551354E-1	9.092470E-1	8.874422E-1	8.959834E-1	9.721347E-1	8.810663E-1	9.089456E-1	9.165385E-1	9.067037E-1	9.222066E-1	8.707481E-1	9.174509E-1	9.159184E-1	9.096600E-1	8.835117E-1	9.179143E-1	8.946341E-1	9.038003E-1	9.075439E-1	9.063505E-1	9.308269E-1	9.038877E-1	8.615682E-1	9.163008E-1	8.804286E-1	9.478066E-1	8.511193E-1	9.200691E-1	9.232046E-1	9.007076E-1	9.366216E-1	9.098192E-1	9.474448E-1	9.365285E-1	9.226098E-1	9.206999E-1	9.510188E-1	9.197385E-1	9.039049E-1	9.288274E-1	8.897542E-1	9.061229E-1	9.034732E-1	9.170357E-1	9.419036E-1	9.072866E-1	9.011636E-1	9.134023E-1	9.144610E-1	9.217632E-1	9.156744E-1	8.602521E-1	8.999669E-1	9.115244E-1	8.704364E-1	9.197850E-1	9.226100E-1	9.181599E-1	9.448837E-1	8.713511E-1	8.964282E-1	8.874914E-1	8.883230E-1	9.662652E-1	9.061638E-1	9.012557E-1	9.259685E-1	9.042599E-1	9.328379E-1	9.042326E-1	8.923997E-1	9.830360E-1	9.136471E-1	8.671888E-1	9.121162E-1	9.187090E-1	9.162304E-1	9.472175E-1	9.182379E-1	9.439653E-1	9.069985E-1	9.454414E-1	9.622847E-1	9.048368E-1	9.408619E-1	9.476108E-1	9.162482E-1	8.731998E-1	9.573189E-1	9.487360E-1	9.278459E-1	9.257525E-1	8.788159E-1	9.402312E-1	8.971142E-1	9.637107E-1	9.348346E-1	9.079630E-1	9.099113E-1	8.750842E-1	9.275881E-1	9.513643E-1	8.986774E-1	9.512933E-1	9.036956E-1	9.109014E-1	9.331813E-1	9.426339E-1	9.073942E-1	9.346478E-1	8.770526E-1	9.328641E-1	9.311891E-1	8.954232E-1	9.237719E-1	9.109520E-1	8.984074E-1	8.861838E-1	9.125250E-1	9.333256E-1	9.177198E-1	9.133007E-1	9.018839E-1	9.379617E-1	8.930630E-1	9.069922E-1	9.084736E-1	9.414632E-1	9.117753E-1	8.996238E-1	9.531787E-1	8.781686E-1	9.423311E-1	9.157840E-1	9.251118E-1	8.777682E-1	9.329661E-1	8.839944E-1	9.241186E-1	9.808575E-1	8.950641E-1	9.475582E-1	9.132356E-1	9.720925E-1	8.830904E-1	9.244685E-1	9.505570E-1	8.629165E-1	9.163070E-1
5.380110E+2	1.033094E+0	1.015056E+0	1.022366E+0	9.584547E-1	9.999478E-1	1.013254E+0	9.998505E-1	9.905748E-1	9.845729E-1	1.020348E+0	9.897853E-1	9.975809E-1	1.046106E+0	1.046065E+0	1.026397E+0	9.964136E-1	1.005677E+0	9.859227E-1	1.031383E+0	9.739070E-1	1.026129E+0	1.047056E+0	1.017499E+0	9.784503E-1	9.969631E-1	9.921919E-1	1.043124E+0	1.047946E+0	1.022501E+0	1.073623E+0	1.029364E+0	9.594194E-1	1.025486E+0	1.043820E+0	9.737413E-1	9.977349E-1	1.021558E+0	1.012666E+0	1.041884E+0	9.838553E-1	1.059314E+0	1.005650E+0	1.014679E+0	1.013227E+0	9.903476E-1	9.841042E-1	1.024417E+0	9.944408E-1	1.061211E+0	9.948857E-1	1.038846E+0	1.018131E+0	1.023509E+0	1.071061E+0	1.031688E+0	9.489851E-1	1.040317E+0	1.031913E+0	9.783230E-1	1.007318E+0	9.815932E-1	1.009891E+0	1.020734E+0	9.836312E-1	1.003365E+0	1.028080E+0	1.029175E+0	9.889591E-1	9.999029E-1	1.045536E+0	1.024630E+0	1.023338E+0	1.003784E+0	1.052420E+0	1.011359E+0	1.048085E+0	1.031394E+0	1.000661E+0	1.008979E+0	9.934999E-1	1.062719E+0	1.009415E+0	9.944619E-1	1.010620E+0	1.025021E+0	9.832058E-1	9.858032E-1	1.077107E+0	9.674643E-1	1.046979E+0	1.067647E+0	1.007951E+0	1.033011E+0	9.941456E-1	1.021495E+0	1.023629E+0	1.032080E+0	9.602924E-1	1.007449E+0	1.025162E+0	1.094928E+0	9.853482E-1	1.046209E+0	9.781553E-1	1.020884E+0	1.003694E+0	1.009720E+0	1.037936E+0	1.004592E+0	1.015354E+0	1.037823E+0	9.719062E-1	1.034904E+0	1.028341E+0	9.958626E-1	1.017617E+0	1.050280E+0	9.541145E-1	1.029924E+0	1.033238E+0	1.033666E+0	9.779830E-1	9.745270E-1	1.038557E+0	1.048162E+0	1.006294E+0	1.016675E+0	1.021369E+0	9.845717E-1	1.007376E+0	1.004377E+0	1.009071E+0	1.000820E+0	1.031361E+0	1.020827E+0	9.979636E-1	1.000295E+0	9.439000E-1	1.029673E+0	9.914060E-1	9.734466E-1	1.022150E+0	1.051303E+0	1.016375E+0	1.026477E+0	9.913700E-1	1.005069E+0	1.042338E+0	9.997074E-1	1.001386E+0	9.852539E-1	9.836464E-1	1.018801E+0	1.057412E+0	1.029353E+0	1.040919E+0	1.006068E+0	9.764462E-1	1.015799E+0	1.041474E+0	1.082059E+0	1.017161E+0	1.029022E+0	9.952720E-1	1.058414E+0	1.029510E+0	1.040970E+0	1.039726E+0	9.733830E-1	1.010155E+0
5.382690E+2	1.202786E+0	1.188836E+0	1.244226E+0	1.193473E+0	1.233694E+0	1.220161E+0	1.227042E+0	1.262661E+0	1.208796E+0	1.266736E+0	1.234990E+0	1.247122E+0	1.210079E+0	1.204673E+0	1.255799E+0	1.228486E+0	1.241068E+0	1.243856E+0	1.201126E+0	1.270972E+0	1.203121E+0	1.249272E+0	1.306063E+0	1.252061E+0	1.223074E+0	1.234811E+0	1.238582E+0	1.249021E+0	1.230002E+0	1.253680E+0	1.282337E+0	1.177242E+0	1.254187E+0	1.185339E+0	1.216199E+0	1.247034E+0	1.262080E+0	1.279478E+0	1.261064E+0	1.250937E+0	1.229459E+0	1.237678E+0	1.254021E+0	1.195180E+0	1.208747E+0	1.199650E+0	1.230702E+0	1.233910E+0	1.244265E+0	1.231112E+0	1.198578E+0	1.200692E+0	1.227970E+0	1.210819E+0	1.248262E+0	1.208995E+0	1.174995E+0	1.272308E+0	1.226042E+0	1.205539E+0	1.239564E+0	1.241418E+0	1.237362E+0	1.171985E+0	1.225558E+0	1.209547E+0	1.236437E+0	1.199447E+0	1.186084E+0	1.271295E+0	1.255600E+0	1.192779E+0	1.208424E+0	1.267001E+0	1.258820E+0	1.227059E+0	1.268798E+0	1.183309E+0	1.219632E+0	1.200405E+0	1.223403E+0	1.173384E+0	1.153245E+0	1.267180E+0	1.212160E+0	1.237751E+0	1.227843E+0	1.240631E+0	1.195601E+0	1.222256E+0	1.230952E+0	1.210515E+0	1.254472E+0	1.235147E+0	1.217356E+0	1.176065E+0	1.205006E+0	1.245739E+0	1.216885E+0	1.182392E+0	1.238027E+0	1.259627E+0	1.242632E+0	1.252470E+0	1.181691E+0	1.210737E+0	1.213861E+0	1.241537E+0	1.222449E+0	1.232020E+0	1.224857E+0	1.229647E+0	1.241771E+0	1.258920E+0	1.223953E+0	1.219186E+0	1.233890E+0	1.213269E+0	1.221264E+0	1.173040E+0	1.221804E+0	1.171621E+0	1.213541E+0	1.226817E+0	1.232546E+0	1.218824E+0	1.254142E+0	1.216776E+0	1.233531E+0	1.220790E+0	1.249357E+0	1.176182E+0	1.220007E+0	1.235233E+0	1.221414E+0	1.187090E+0	1.186076E+0	1.260316E+0	1.185670E+0	1.211841E+0	1.197010E+0	1.211464E+0	1.199145E+0	1.198836E+0	1.171151E+0	1.258618E+0	1.246789E+0	1.214563E+0	1.227342E+0	1.188360E+0	1.215931E+0	1.214527E+0	1.196437E+0	1.290527E+0	1.250312E+0	1.242862E+0	1.212171E+0	1.213116E+0	1.229277E+0	1.268366E+0	1.188564E+0	1.179726E+0	1.225483E+0	1.258378E+0	1.254331E+0	1.177735E+0	1.195097E+0	1.262857E+0	1.251144E+0	1.271429E+0
5.385010E+2	1.413819E+0	1.460778E+0	1.428638E+0	1.423346E+0	1.443093E+0	1.469114E+0	1.445042E+0	1.485414E+0	1.408526E+0	1.452135E+0	1.510268E+0	1.455919E+0	1.489064E+0	1.485670E+0	1.458938E+0	1.460824E+0	1.452358E+0	1.430403E+0	1.519918E+0	1.510650E+0	1.467212E+0	1.505565E+0	1.498269E+0	1.466681E+0	1.422015E+0	1.567483E+0	1.492728E+0	1.424033E+0	1.507734E+0	1.474373E+0	1.455315E+0	1.391951E+0	1.482103E+0	1.454552E+0	1.417021E+0	1.412290E+0	1.435335E+0	1.436047E+0	1.469133E+0	1.461336E+0	1.449213E+0	1.524362E+0	1.470673E+0	1.428353E+0	1.444773E+0	1.427756E+0	1.439775E+0	1.475324E+0	1.444337E+0	1.436849E+0	1.472549E+0	1.430221E+0	1.467058E+0	1.526292E+0	1.461277E+0	1.423266E+0	1.423519E+0	1.504277E+0	1.511311E+0	1.398898E+0	1.496935E+0	1.478251E+0	1.412041E+0	1.445294E+0	1.413602E+0	1.480215E+0	1.458704E+0	1.469325E+0	1.429937E+0	1.454976E+0	1.446602E+0	1.446409E+0	1.448228E+0	1.445318E+0	1.432978E+0	1.446070E+0	1.441815E+0	1.450630E+0	1.446311E+0	1.391710E+0	1.446320E+0	1.494986E+0	1.426357E+0	1.346104E+0	1.405238E+0	1.435347E+0	1.444832E+0	1.449255E+0	1.415527E+0	1.495820E+0	1.448673E+0	1.461966E+0	1.479264E+0	1.388935E+0	1.489581E+0	1.393396E+0	1.445534E+0	1.470532E+0	1.433150E+0	1.446050E+0	1.437491E+0	1.450990E+0	1.494389E+0	1.452184E+0	1.472485E+0	1.471301E+0	1.459999E+0	1.474957E+0	1.432896E+0	1.458858E+0	1.435990E+0	1.409222E+0	1.459844E+0	1.396585E+0	1.430788E+0	1.468357E+0	1.457253E+0	1.473278E+0	1.425349E+0	1.434350E+0	1.421638E+0	1.448149E+0	1.439086E+0	1.458121E+0	1.519584E+0	1.441817E+0	1.529567E+0	1.439115E+0	1.445405E+0	1.417247E+0	1.423245E+0	1.445275E+0	1.487282E+0	1.564273E+0	1.441878E+0	1.485658E+0	1.483521E+0	1.432592E+0	1.471005E+0	1.479873E+0	1.429925E+0	1.504475E+0	1.447000E+0	1.396900E+0	1.348701E+0	1.468049E+0	1.399248E+0	1.480812E+0	1.465201E+0	1.450955E+0	1.448633E+0	1.453266E+0	1.419915E+0	1.455882E+0	1.479262E+0	1.444056E+0	1.406128E+0	1.422641E+0	1.422103E+0	1.416334E+0	1.501666E+0	1.443775E+0	1.486197E+0	1.417688E+0	1.440725E+0	1.392090E+0	1.438342E+0	1.459687E+0	1.475816E+0	1.399651E+0
5.387600E+2	1.769236E+0	1.739331E+0	1.691914E+0	1.772361E+0	1.719458E+0	1.712923E+0	1.776390E+0	1.693254E+0	1.672563E+0	1.689379E+0	1.711723E+0	1.726113E+0	1.704091E+0	1.701685E+0	1.745140E+0	1.759714E+0	1.650184E+0	1.707762E+0	1.699799E+0	1.637970E+0	1.738603E+0	1.750629E+0	1.763235E+0	1.693467E+0	1.659914E+0	1.828979E+0	1.741831E+0	1.754040E+0	1.768448E+0	1.713384E+0	1.670810E+0	1.678251E+0	1.717479E+0	1.725848E+0	1.706608E+0	1.672731E+0	1.742588E+0	1.725649E+0	1.782787E+0	1.692246E+0	1.748636E+0	1.723116E+0	1.678559E+0	1.749980E+0	1.727617E+0	1.668281E+0	1.682810E+0	1.690177E+0	1.668268E+0	1.742693E+0	1.711765E+0	1.667648E+0	1.698674E+0	1.700953E+0	1.735282E+0	1.705521E+0	1.665541E+0	1.694249E+0	1.728117E+0	1.688888E+0	1.706888E+0	1.713719E+0	1.698809E+0	1.700981E+0	1.704379E+0	1.726087E+0	1.731603E+0	1.658738E+0	1.682556E+0	1.688001E+0	1.700022E+0	1.726337E+0	1.688516E+0	1.785330E+0	1.719662E+0	1.656069E+0	1.678369E+0	1.687413E+0	1.797601E+0	1.635347E+0	1.652876E+0	1.680023E+0	1.676796E+0	1.619389E+0	1.684163E+0	1.729716E+0	1.644667E+0	1.690466E+0	1.644167E+0	1.710824E+0	1.731873E+0	1.720533E+0	1.699039E+0	1.682527E+0	1.692261E+0	1.741016E+0	1.691597E+0	1.648829E+0	1.639591E+0	1.740230E+0	1.746680E+0	1.672355E+0	1.756777E+0	1.753396E+0	1.690323E+0	1.711414E+0	1.734952E+0	1.661717E+0	1.666930E+0	1.696086E+0	1.741249E+0	1.718921E+0	1.754055E+0	1.684226E+0	1.726711E+0	1.698835E+0	1.701638E+0	1.733366E+0	1.680923E+0	1.673743E+0	1.706256E+0	1.694800E+0	1.709415E+0	1.692457E+0	1.800450E+0	1.727664E+0	1.736863E+0	1.652664E+0	1.704679E+0	1.572724E+0	1.684618E+0	1.686089E+0	1.693696E+0	1.772570E+0	1.686701E+0	1.707943E+0	1.688104E+0	1.705189E+0	1.705649E+0	1.729535E+0	1.676688E+0	1.678123E+0	1.695604E+0	1.604133E+0	1.697722E+0	1.693991E+0	1.685692E+0	1.722117E+0	1.718770E+0	1.714662E+0	1.645803E+0	1.671778E+0	1.639935E+0	1.650739E+0	1.687380E+0	1.621795E+0	1.673669E+0	1.694173E+0	1.624056E+0	1.722367E+0	1.654490E+0	1.629055E+0	1.718190E+0	1.665549E+0	1.641179E+0	1.699723E+0	1.686625E+0	1.696182E+0	1.653355E+0	1.674646E+0
5.390290E+2	1.968267E+0	1.898157E+0	1.886843E+0	1.944727E+0	1.893743E+0	2.021556E+0	1.934075E+0	1.986240E+0	1.972841E+0	1.937979E+0	1.951836E+0	1.950329E+0	1.948281E+0	1.898088E+0	1.949073E+0	1.880552E+0	1.898006E+0	1.951325E+0	1.951564E+0	1.970478E+0	1.956563E+0	1.993805E+0	1.970339E+0	1.973129E+0	1.918754E+0	1.982658E+0	1.992773E+0	1.921387E+0	1.984792E+0	1.942351E+0	1.971411E+0	1.894433E+0	1.938772E+0	1.964916E+0	1.942724E+0	1.964925E+0	1.930491E+0	1.961065E+0	1.953325E+0	1.862858E+0	1.942669E+0	1.902430E+0	1.971228E+0	1.929547E+0	1.945329E+0	1.913645E+0	1.922032E+0	1.893161E+0	1.933862E+0	1.947590E+0	1.971715E+0	1.884562E+0	1.904747E+0	1.973388E+0	1.973943E+0	1.941065E+0	1.924659E+0	1.961324E+0	1.911350E+0	1.921902E+0	1.924768E+0	1.961146E+0	1.894340E+0	1.946317E+0	1.893103E+0	1.980239E+0	1.942518E+0	1.930172E+0	1.929243E+0	1.915808E+0	1.914451E+0	1.967757E+0	2.005772E+0	1.986644E+0	1.846861E+0	1.873666E+0	1.855263E+0	1.859678E+0	1.881402E+0	1.918392E+0	1.952424E+0	1.897254E+0	1.901419E+0	1.918094E+0	1.971778E+0	1.992824E+0	1.847153E+0	1.947807E+0	1.892377E+0	1.906414E+0	1.924918E+0	1.901718E+0	1.960747E+0	1.916631E+0	1.912970E+0	1.890916E+0	1.900193E+0	1.936226E+0	1.904541E+0	1.877135E+0	1.955713E+0	1.927260E+0	1.882462E+0	1.994681E+0	1.909599E+0	1.915645E+0	1.944047E+0	1.893247E+0	1.842907E+0	1.931507E+0	1.852784E+0	1.969255E+0	1.876490E+0	1.942003E+0	1.889008E+0	1.943401E+0	1.939803E+0	1.886016E+0	1.911960E+0	1.921192E+0	1.820691E+0	1.892950E+0	1.862450E+0	1.840840E+0	1.934970E+0	1.887919E+0	1.973683E+0	1.903273E+0	1.861185E+0	1.892864E+0	1.900607E+0	1.901504E+0	1.930937E+0	1.928225E+0	1.923906E+0	1.904864E+0	1.891798E+0	1.881532E+0	1.901184E+0	1.888726E+0	1.847908E+0	1.920638E+0	1.878713E+0	1.870664E+0	1.821166E+0	1.934837E+0	1.947712E+0	1.909325E+0	1.899919E+0	1.960137E+0	1.913945E+0	1.885360E+0	1.832266E+0	1.933677E+0	1.873485E+0	1.923052E+0	1.926019E+0	1.956531E+0	1.871029E+0	1.946422E+0	1.938738E+0	1.877444E+0	1.898266E+0	1.820490E+0	1.836345E+0	1.901439E+0	1.831456E+0	1.964499E+0	1.827636E+0	1.824959E+0
5.392720E+2	2.140264E+0	2.106215E+0	2.088686E+0	2.155493E+0	2.099831E+0	2.189474E+0	2.083312E+0	2.190938E+0	2.102635E+0	2.092041E+0	2.132360E+0	2.170190E+0	2.076409E+0	2.177527E+0	2.105635E+0	2.108050E+0	2.086668E+0	2.189355E+0	2.077349E+0	2.083974E+0	2.116627E+0	2.227006E+0	2.157233E+0	2.081223E+0	2.037495E+0	2.130283E+0	2.129080E+0	2.086760E+0	2.068886E+0	2.064162E+0	2.103799E+0	2.053428E+0	2.171076E+0	2.143457E+0	2.037707E+0	2.069006E+0	2.057759E+0	2.081508E+0	2.167970E+0	2.068220E+0	2.137630E+0	2.148943E+0	2.119408E+0	2.091225E+0	2.113419E+0	2.062091E+0	2.142315E+0	2.086922E+0	2.103656E+0	2.159186E+0	2.053825E+0	2.076515E+0	2.148139E+0	2.187576E+0	2.052356E+0	2.017677E+0	2.008070E+0	2.164079E+0	2.042512E+0	2.065480E+0	2.137778E+0	2.052005E+0	2.133489E+0	2.029004E+0	2.097491E+0	2.072654E+0	2.117333E+0	2.138621E+0	2.037296E+0	2.105716E+0	2.104112E+0	2.091353E+0	2.119819E+0	2.103988E+0	2.073747E+0	2.032246E+0	2.054661E+0	2.081934E+0	2.147882E+0	2.145180E+0	2.097772E+0	2.075997E+0	2.035241E+0	2.082135E+0	2.088751E+0	2.026265E+0	2.022812E+0	2.076944E+0	1.989688E+0	2.032212E+0	2.102662E+0	2.067548E+0	2.171260E+0	2.092556E+0	2.064088E+0	2.076919E+0	2.109879E+0	2.054175E+0	2.093862E+0	2.130354E+0	2.082601E+0	2.095541E+0	2.143213E+0	2.117591E+0	2.022509E+0	2.056731E+0	2.049775E+0	2.131334E+0	2.050024E+0	2.122553E+0	2.041594E+0	2.116560E+0	2.028894E+0	2.164208E+0	2.057554E+0	2.107386E+0	2.056773E+0	2.087520E+0	2.024160E+0	2.016349E+0	2.012708E+0	2.013092E+0	2.059512E+0	2.141034E+0	2.128811E+0	2.082020E+0	2.154787E+0	2.084422E+0	2.117884E+0	1.994357E+0	2.046357E+0	2.033826E+0	2.020477E+0	2.078042E+0	1.984126E+0	2.050566E+0	2.037979E+0	2.131507E+0	2.094546E+0	2.027093E+0	2.017335E+0	2.054880E+0	2.084262E+0	2.029589E+0	2.056211E+0	2.085612E+0	2.014509E+0	2.013858E+0	1.998947E+0	2.127066E+0	2.080506E+0	1.992077E+0	2.094443E+0	2.158514E+0	2.087327E+0	2.024208E+0	2.037994E+0	2.038722E+0	2.016098E+0	2.019954E+0	2.109612E+0	1.992142E+0	2.049088E+0	2.008876E+0	2.048916E+0	2.056140E+0	2.015979E+0	2.094741E+0	1.997589E+0	1.960399E+0
5.395320E+2	2.205138E+0	2.171878E+0	2.168427E+0	2.213146E+0	2.199203E+0	2.284113E+0	2.236018E+0	2.242534E+0	2.162963E+0	2.136151E+0	2.236709E+0	2.245669E+0	2.165188E+0	2.239352E+0	2.269555E+0	2.200578E+0	2.072036E+0	2.211364E+0	2.198829E+0	2.212350E+0	2.174675E+0	2.265682E+0	2.167531E+0	2.147010E+0	2.159027E+0	2.252343E+0	2.244659E+0	2.150006E+0	2.244884E+0	2.216711E+0	2.114384E+0	2.204649E+0	2.225213E+0	2.192795E+0	2.151409E+0	2.223416E+0	2.187935E+0	2.164861E+0	2.189188E+0	2.165159E+0	2.189063E+0	2.160107E+0	2.240522E+0	2.241099E+0	2.133413E+0	2.162021E+0	2.179954E+0	2.177374E+0	2.182637E+0	2.207093E+0	2.162687E+0	2.119870E+0	2.156672E+0	2.258675E+0	2.203862E+0	2.104873E+0	2.109995E+0	2.259062E+0	2.087990E+0	2.172189E+0	2.145111E+0	2.221741E+0	2.233263E+0	2.105794E+0	2.139565E+0	2.197148E+0	2.219868E+0	2.203452E+0	2.110791E+0	2.127308E+0	2.162548E+0	2.180886E+0	2.129320E+0	2.136833E+0	2.168244E+0	2.134010E+0	2.167224E+0	2.180645E+0	2.184383E+0	2.182157E+0	2.194734E+0	2.178304E+0	2.157476E+0	2.120976E+0	2.163168E+0	2.168316E+0	2.235770E+0	2.235665E+0	2.094936E+0	2.189148E+0	2.125187E+0	2.147496E+0	2.223433E+0	2.174247E+0	2.181399E+0	2.136830E+0	2.120789E+0	2.103993E+0	2.159776E+0	2.174765E+0	2.172172E+0	2.174931E+0	2.152146E+0	2.193320E+0	2.167565E+0	2.152278E+0	2.098031E+0	2.146658E+0	2.173588E+0	2.189883E+0	2.127072E+0	2.125557E+0	2.211713E+0	2.178023E+0	2.178195E+0	2.132515E+0	2.139412E+0	2.136361E+0	2.177870E+0	2.128017E+0	2.162755E+0	2.145760E+0	2.118155E+0	2.135464E+0	2.239577E+0	2.137472E+0	2.198729E+0	2.087378E+0	2.035616E+0	2.064567E+0	2.156859E+0	2.147939E+0	2.146231E+0	2.139257E+0	2.167045E+0	2.095634E+0	2.113402E+0	2.099343E+0	2.162367E+0	2.150025E+0	2.162106E+0	2.147251E+0	2.119834E+0	2.091336E+0	2.121881E+0	2.132007E+0	2.209052E+0	2.147949E+0	2.115247E+0	2.142871E+0	2.131322E+0	2.143137E+0	2.077417E+0	2.150245E+0	2.165267E+0	2.123489E+0	2.102006E+0	2.112476E+0	2.070817E+0	2.055271E+0	2.176435E+0	2.130324E+0	2.168579E+0	2.117321E+0	2.097772E+0	2.130725E+0	2.121894E+0	2.148302E+0	2.040338E+0	2.059761E+0
5.397860E+2	2.293470E+0	2.218803E+0	2.214202E+0	2.209323E+0	2.198984E+0	2.211560E+0	2.193626E+0	2.170684E+0	2.138610E+0	2.112368E+0	2.268211E+0	2.274289E+0	2.199388E+0	2.228363E+0	2.250644E+0	2.228777E+0	2.110671E+0	2.214770E+0	2.207040E+0	2.213793E+0	2.202205E+0	2.210710E+0	2.285229E+0	2.228808E+0	2.124123E+0	2.232124E+0	2.206644E+0	2.198692E+0	2.172188E+0	2.210191E+0	2.189346E+0	2.104357E+0	2.239185E+0	2.202476E+0	2.199860E+0	2.156302E+0	2.165866E+0	2.148987E+0	2.312427E+0	2.146227E+0	2.179376E+0	2.192922E+0	2.144339E+0	2.165351E+0	2.166467E+0	2.222797E+0	2.189242E+0	2.076583E+0	2.217256E+0	2.193351E+0	2.198619E+0	2.124887E+0	2.168247E+0	2.183783E+0	2.177236E+0	2.220581E+0	2.241452E+0	2.137127E+0	2.193045E+0	2.182068E+0	2.186613E+0	2.157996E+0	2.176284E+0	2.045106E+0	2.153303E+0	2.186619E+0	2.151216E+0	2.111908E+0	2.113869E+0	2.212218E+0	2.172670E+0	2.196331E+0	2.104902E+0	2.207987E+0	2.230102E+0	2.216728E+0	2.074993E+0	2.150097E+0	2.163376E+0	2.076151E+0	2.108888E+0	2.128819E+0	2.159764E+0	2.107337E+0	2.103565E+0	2.136513E+0	2.057532E+0	2.116325E+0	2.101046E+0	2.133447E+0	2.251434E+0	2.149858E+0	2.214793E+0	2.129766E+0	2.168332E+0	2.094803E+0	2.130290E+0	2.140563E+0	2.141141E+0	2.082273E+0	2.154616E+0	2.176008E+0	2.174461E+0	2.114065E+0	2.112949E+0	2.132144E+0	2.168814E+0	2.142047E+0	2.144837E+0	2.247788E+0	2.053987E+0	2.143954E+0	2.148713E+0	2.145648E+0	2.052422E+0	2.030006E+0	2.157711E+0	2.139591E+0	2.029654E+0	2.094036E+0	2.064234E+0	2.130370E+0	2.111380E+0	2.093124E+0	2.225303E+0	2.143223E+0	2.139339E+0	2.121237E+0	2.119236E+0	2.122767E+0	2.124850E+0	2.145059E+0	2.080792E+0	2.134597E+0	2.071142E+0	2.094928E+0	2.107892E+0	2.136214E+0	2.071493E+0	2.088086E+0	2.095937E+0	2.127696E+0	2.068733E+0	2.028987E+0	2.109962E+0	2.110378E+0	2.162188E+0	2.131889E+0	2.084659E+0	2.151832E+0	2.076433E+0	2.085795E+0	1.998075E+0	2.180488E+0	2.186680E+0	2.106436E+0	2.043913E+0	2.128471E+0	2.043611E+0	2.114389E+0	2.166218E+0	2.075316E+0	2.133432E+0	2.128209E+0	2.092452E+0	2.095542E+0	2.092769E+0	2.185167E+0	1.986283E+0	2.128340E+0
5.400140E+2	2.199223E+0	2.133468E+0	2.208012E+0	2.195895E+0	2.112781E+0	2.185961E+0	2.161351E+0	2.166497E+0	2.173203E+0	2.162767E+0	2.139653E+0	2.166387E+0	2.122976E+0	2.184149E+0	2.217253E+0	2.164842E+0	2.101160E+0	2.190640E+0	2.156374E+0	2.160528E+0	2.156893E+0	2.139686E+0	2.304294E+0	2.127828E+0	2.114893E+0	2.208221E+0	2.180924E+0	2.177381E+0	2.156983E+0	2.167990E+0	2.090521E+0	2.083614E+0	2.187645E+0	2.172661E+0	2.064557E+0	2.066843E+0	2.105912E+0	2.099876E+0	2.175666E+0	2.104357E+0	2.095021E+0	2.163883E+0	2.209896E+0	2.123022E+0	2.111547E+0	2.083205E+0	2.111582E+0	2.090096E+0	2.179541E+0	2.113389E+0	2.176733E+0	2.156507E+0	2.144551E+0	2.165656E+0	2.175144E+0	2.098803E+0	2.081760E+0	2.157209E+0	2.112310E+0	2.099099E+0	2.147866E+0	2.163044E+0	2.161681E+0	2.121821E+0	2.119530E+0	2.094472E+0	2.130097E+0	2.071121E+0	2.115999E+0	2.092592E+0	2.226610E+0	2.101970E+0	2.124396E+0	2.102297E+0	2.155441E+0	2.102812E+0	2.086110E+0	2.105235E+0	2.069584E+0	2.049063E+0	2.147640E+0	2.086324E+0	2.060555E+0	2.096889E+0	2.121424E+0	2.098034E+0	2.071021E+0	2.146922E+0	2.104282E+0	2.123381E+0	2.070837E+0	2.114145E+0	2.119984E+0	2.105407E+0	2.098531E+0	2.101596E+0	2.083121E+0	2.152738E+0	2.190922E+0	2.081979E+0	2.105488E+0	2.113561E+0	2.174793E+0	2.093512E+0	2.132551E+0	2.185300E+0	2.112527E+0	2.155094E+0	2.143317E+0	2.144391E+0	2.169113E+0	2.108209E+0	2.087245E+0	2.080349E+0	2.136286E+0	2.053701E+0	2.101066E+0	2.128753E+0	2.128712E+0	2.071289E+0	2.038270E+0	2.097919E+0	2.118916E+0	2.136182E+0	2.115122E+0	2.040401E+0	2.159566E+0	2.142622E+0	2.103187E+0	2.051624E+0	2.081864E+0	2.039585E+0	2.103722E+0	2.164294E+0	2.061862E+0	2.081796E+0	2.045404E+0	2.136204E+0	2.098150E+0	2.060331E+0	2.037494E+0	2.127602E+0	2.110111E+0	2.023295E+0	2.058993E+0	2.101832E+0	2.105089E+0	2.162561E+0	2.146572E+0	2.097241E+0	2.093129E+0	2.057404E+0	2.119446E+0	2.036899E+0	2.088821E+0	2.132622E+0	2.073842E+0	2.099830E+0	2.057325E+0	2.077672E+0	2.126020E+0	2.041820E+0	2.133413E+0	2.016434E+0	2.082267E+0	2.042208E+0	2.087680E+0	2.166621E+0	2.043275E+0	2.094340E+0
5.402630E+2	2.147689E+0	2.050833E+0	2.055411E+0	2.064697E+0	2.064539E+0	2.152781E+0	2.075267E+0	2.118525E+0	2.070817E+0	2.037434E+0	2.131479E+0	2.061368E+0	2.054813E+0	2.093882E+0	2.125885E+0	2.123163E+0	2.041404E+0	2.104846E+0	2.068412E+0	2.076803E+0	2.078174E+0	2.060145E+0	2.167230E+0	2.105700E+0	2.049597E+0	2.126825E+0	2.105046E+0	2.071286E+0	2.148233E+0	2.029138E+0	2.031783E+0	2.063318E+0	2.040743E+0	2.051471E+0	2.101714E+0	2.014203E+0	2.026819E+0	2.067400E+0	2.168779E+0	2.090711E+0	2.059743E+0	2.025068E+0	2.109025E+0	2.112826E+0	2.031576E+0	1.995567E+0	2.054370E+0	2.068791E+0	2.104113E+0	2.097396E+0	2.116279E+0	1.950113E+0	2.105328E+0	2.082418E+0	2.118495E+0	2.059218E+0	2.000545E+0	2.079824E+0	2.084936E+0	2.037502E+0	2.009563E+0	2.065806E+0	2.086222E+0	2.003411E+0	2.079490E+0	2.091077E+0	2.077868E+0	2.071349E+0	2.016122E+0	2.036204E+0	2.057237E+0	2.036763E+0	2.068634E+0	2.070189E+0	2.049661E+0	1.987658E+0	2.062667E+0	2.048071E+0	2.145132E+0	2.023806E+0	2.037344E+0	2.089076E+0	2.068463E+0	2.050766E+0	1.991520E+0	2.051320E+0	2.058281E+0	2.101164E+0	2.027485E+0	2.022193E+0	2.124755E+0	2.011895E+0	2.078094E+0	1.999965E+0	2.054907E+0	2.100181E+0	2.051383E+0	2.005320E+0	2.034267E+0	2.011431E+0	2.075081E+0	2.056800E+0	2.096958E+0	2.008671E+0	2.018849E+0	2.020881E+0	2.070156E+0	2.015400E+0	2.051578E+0	2.055913E+0	2.077612E+0	2.062700E+0	2.048227E+0	2.105739E+0	1.977971E+0	2.010142E+0	2.000931E+0	2.023228E+0	2.008544E+0	2.002360E+0	1.950617E+0	2.010178E+0	2.069708E+0	2.003516E+0	2.172819E+0	2.038797E+0	2.045502E+0	2.023465E+0	2.020801E+0	2.002429E+0	2.070503E+0	2.056939E+0	1.971360E+0	2.105289E+0	1.988936E+0	1.989480E+0	1.973712E+0	2.038727E+0	1.992755E+0	2.023730E+0	2.043571E+0	2.031979E+0	2.033830E+0	1.981850E+0	1.987831E+0	2.015310E+0	2.084439E+0	1.954517E+0	2.040143E+0	2.062052E+0	2.009618E+0	1.951039E+0	1.998772E+0	2.086644E+0	1.990220E+0	2.049982E+0	1.938669E+0	2.121311E+0	1.962881E+0	2.011504E+0	2.105552E+0	2.032729E+0	1.979784E+0	1.981379E+0	2.014800E+0	2.048231E+0	2.007695E+0	2.010865E+0	1.976995E+0	1.854381E+0
5.405080E+2	2.055066E+0	1.966176E+0	1.956502E+0	2.035090E+0	1.986411E+0	1.941082E+0	2.072513E+0	1.949130E+0	1.972320E+0	1.959364E+0	2.025273E+0	2.060731E+0	2.044924E+0	1.976784E+0	2.031479E+0	1.943589E+0	1.951622E+0	1.992799E+0	2.000721E+0	1.970302E+0	1.993167E+0	2.031369E+0	2.104659E+0	1.913784E+0	1.919427E+0	2.000318E+0	1.932740E+0	2.080991E+0	1.987993E+0	2.077825E+0	1.963792E+0	1.989890E+0	2.024439E+0	1.993093E+0	1.944892E+0	1.980205E+0	1.899844E+0	1.922576E+0	2.068953E+0	2.011067E+0	1.962060E+0	1.944681E+0	1.922371E+0	1.986069E+0	1.950110E+0	1.929371E+0	1.982156E+0	1.944912E+0	2.029471E+0	1.905239E+0	1.950007E+0	1.980019E+0	1.963927E+0	1.973784E+0	1.986379E+0	1.956746E+0	1.941153E+0	2.021019E+0	1.985573E+0	1.896375E+0	1.928621E+0	1.943897E+0	1.899453E+0	1.918523E+0	1.942229E+0	1.923927E+0	1.951070E+0	1.972405E+0	1.936226E+0	1.951877E+0	1.955447E+0	1.947018E+0	1.956511E+0	1.952052E+0	1.948932E+0	1.874979E+0	1.999658E+0	1.946782E+0	1.934684E+0	1.900663E+0	1.927493E+0	1.876986E+0	1.959270E+0	1.894155E+0	1.919420E+0	1.928942E+0	1.917749E+0	2.032938E+0	1.879511E+0	1.961279E+0	1.978164E+0	1.997463E+0	1.978276E+0	1.991872E+0	1.994152E+0	1.900997E+0	1.958718E+0	1.934739E+0	1.995574E+0	1.909888E+0	1.933687E+0	1.848316E+0	2.076248E+0	1.973080E+0	1.896331E+0	1.928993E+0	2.032358E+0	1.934649E+0	1.965850E+0	1.934893E+0	1.868901E+0	1.957839E+0	1.887839E+0	1.986238E+0	1.921958E+0	1.963423E+0	2.022209E+0	1.965519E+0	1.982695E+0	1.906539E+0	1.964545E+0	1.938412E+0	1.930592E+0	1.945166E+0	2.046886E+0	1.915263E+0	1.986364E+0	1.973824E+0	1.909992E+0	1.896555E+0	1.932360E+0	1.939940E+0	1.927366E+0	1.868638E+0	1.970487E+0	1.929836E+0	1.894152E+0	1.933674E+0	1.925407E+0	1.877053E+0	1.923644E+0	1.911370E+0	1.937733E+0	1.851485E+0	1.916200E+0	1.930884E+0	1.908560E+0	1.899743E+0	1.917948E+0	1.976703E+0	2.007491E+0	1.910166E+0	1.905593E+0	1.948167E+0	1.965438E+0	1.984026E+0	1.904021E+0	1.933172E+0	1.869988E+0	1.933190E+0	1.979757E+0	1.892268E+0	1.945265E+0	1.866202E+0	1.964260E+0	1.854402E+0	1.925601E+0	1.859130E+0	1.858246E+0	1.891026E+0
5.407790E+2	1.816116E+0	1.878281E+0	1.893927E+0	1.912590E+0	1.800614E+0	1.811018E+0	1.863104E+0	1.893158E+0	1.844079E+0	1.824246E+0	1.863543E+0	1.931025E+0	1.838678E+0	1.839400E+0	1.882777E+0	1.812370E+0	1.825685E+0	1.896370E+0	1.886839E+0	1.892605E+0	1.901961E+0	1.857505E+0	1.923432E+0	1.889439E+0	1.810375E+0	1.807499E+0	1.849257E+0	1.838167E+0	1.875818E+0	1.839004E+0	1.832254E+0	1.799242E+0	1.849065E+0	1.819068E+0	1.785071E+0	1.841378E+0	1.792891E+0	1.784434E+0	1.920421E+0	1.870180E+0	1.848719E+0	1.833732E+0	1.910785E+0	1.798860E+0	1.832328E+0	1.825932E+0	1.887503E+0	1.849577E+0	1.837073E+0	1.856647E+0	1.901785E+0	1.767619E+0	1.867900E+0	1.841922E+0	1.823011E+0	1.772428E+0	1.847194E+0	1.898731E+0	1.784997E+0	1.824931E+0	1.897475E+0	1.795886E+0	1.844431E+0	1.786593E+0	1.832103E+0	1.852713E+0	1.890373E+0	1.858801E+0	1.801136E+0	1.829357E+0	1.874322E+0	1.864493E+0	1.908870E+0	1.820639E+0	1.858995E+0	1.770631E+0	1.902706E+0	1.815713E+0	1.932113E+0	1.814119E+0	1.855722E+0	1.788630E+0	1.836164E+0	1.835341E+0	1.920696E+0	1.890573E+0	1.841555E+0	1.886782E+0	1.771055E+0	1.792385E+0	1.909489E+0	1.845046E+0	1.883591E+0	1.856452E+0	1.786134E+0	1.773958E+0	1.808931E+0	1.771942E+0	1.827035E+0	1.811497E+0	1.864957E+0	1.834311E+0	1.921776E+0	1.819618E+0	1.846060E+0	1.778343E+0	1.844319E+0	1.808435E+0	1.835852E+0	1.861393E+0	1.816665E+0	1.851468E+0	1.896813E+0	1.744386E+0	1.844819E+0	1.850973E+0	1.858439E+0	1.839500E+0	1.868529E+0	1.779726E+0	1.806997E+0	1.782789E+0	1.821705E+0	1.821074E+0	1.834457E+0	1.779750E+0	1.825775E+0	1.799289E+0	1.823327E+0	1.830125E+0	1.833086E+0	1.842931E+0	1.820731E+0	1.779318E+0	1.882316E+0	1.808776E+0	1.757808E+0	1.763536E+0	1.798953E+0	1.780323E+0	1.835366E+0	1.803179E+0	1.785464E+0	1.792801E+0	1.780882E+0	1.776902E+0	1.859124E+0	1.852013E+0	1.831885E+0	1.849956E+0	1.829924E+0	1.850286E+0	1.710475E+0	1.818164E+0	1.828663E+0	1.810751E+0	1.812776E+0	1.831013E+0	1.781650E+0	1.832134E+0	1.820177E+0	1.779531E+0	1.824253E+0	1.833844E+0	1.774813E+0	1.789314E+0	1.751794E+0	1.865062E+0	1.753116E+0	1.766340E+0
5.410240E+2	1.731820E+0	1.723843E+0	1.760128E+0	1.820982E+0	1.736398E+0	1.801070E+0	1.759604E+0	1.766067E+0	1.737121E+0	1.709339E+0	1.775721E+0	1.714633E+0	1.727127E+0	1.724216E+0	1.775964E+0	1.790189E+0	1.752957E+0	1.759273E+0	1.748867E+0	1.691012E+0	1.794673E+0	1.747790E+0	1.772165E+0	1.753447E+0	1.674272E+0	1.738648E+0	1.744587E+0	1.764734E+0	1.716093E+0	1.730357E+0	1.715640E+0	1.728050E+0	1.802426E+0	1.704898E+0	1.692427E+0	1.732779E+0	1.667966E+0	1.710128E+0	1.830972E+0	1.735544E+0	1.755825E+0	1.715498E+0	1.802754E+0	1.765990E+0	1.746128E+0	1.723876E+0	1.744767E+0	1.742135E+0	1.770580E+0	1.756955E+0	1.789929E+0	1.725460E+0	1.767186E+0	1.753947E+0	1.759624E+0	1.710230E+0	1.739234E+0	1.741463E+0	1.702181E+0	1.717452E+0	1.724531E+0	1.697666E+0	1.712420E+0	1.677167E+0	1.721609E+0	1.775290E+0	1.721133E+0	1.731176E+0	1.615159E+0	1.716287E+0	1.747316E+0	1.733848E+0	1.742041E+0	1.704401E+0	1.759822E+0	1.662330E+0	1.750242E+0	1.723889E+0	1.702082E+0	1.712358E+0	1.697554E+0	1.744241E+0	1.717737E+0	1.683815E+0	1.704762E+0	1.669012E+0	1.739112E+0	1.810510E+0	1.673806E+0	1.655031E+0	1.722100E+0	1.742312E+0	1.802715E+0	1.736938E+0	1.678794E+0	1.738464E+0	1.715023E+0	1.677164E+0	1.751467E+0	1.669387E+0	1.741466E+0	1.689309E+0	1.799610E+0	1.751199E+0	1.641960E+0	1.710112E+0	1.713455E+0	1.778544E+0	1.706459E+0	1.681929E+0	1.710920E+0	1.670854E+0	1.668785E+0	1.699624E+0	1.724654E+0	1.692612E+0	1.802609E+0	1.686702E+0	1.748487E+0	1.684643E+0	1.702917E+0	1.730856E+0	1.781193E+0	1.682954E+0	1.727075E+0	1.646782E+0	1.752932E+0	1.681355E+0	1.694000E+0	1.649809E+0	1.665645E+0	1.644169E+0	1.707432E+0	1.736120E+0	1.763765E+0	1.687980E+0	1.674724E+0	1.712447E+0	1.724280E+0	1.684461E+0	1.686679E+0	1.724498E+0	1.773616E+0	1.716027E+0	1.633211E+0	1.718481E+0	1.721268E+0	1.714428E+0	1.737145E+0	1.743642E+0	1.763796E+0	1.659508E+0	1.622150E+0	1.672421E+0	1.723304E+0	1.689316E+0	1.687874E+0	1.721841E+0	1.671192E+0	1.728387E+0	1.714316E+0	1.646185E+0	1.784902E+0	1.696025E+0	1.738856E+0	1.679413E+0	1.643800E+0	1.706696E+0	1.770443E+0	1.675585E+0
5.412850E+2	1.607734E+0	1.571337E+0	1.640843E+0	1.591356E+0	1.565998E+0	1.642933E+0	1.646730E+0	1.636011E+0	1.614788E+0	1.636518E+0	1.654187E+0	1.595068E+0	1.622720E+0	1.569705E+0	1.638716E+0	1.628362E+0	1.623213E+0	1.633892E+0	1.611947E+0	1.649210E+0	1.635965E+0	1.638818E+0	1.737043E+0	1.563177E+0	1.563247E+0	1.607076E+0	1.663131E+0	1.611703E+0	1.621119E+0	1.649562E+0	1.647623E+0	1.595524E+0	1.658574E+0	1.587433E+0	1.607695E+0	1.632510E+0	1.574329E+0	1.540675E+0	1.700646E+0	1.613193E+0	1.600452E+0	1.623720E+0	1.534467E+0	1.607452E+0	1.559492E+0	1.596021E+0	1.621174E+0	1.600213E+0	1.604271E+0	1.638771E+0	1.678364E+0	1.594340E+0	1.624844E+0	1.645265E+0	1.675902E+0	1.541102E+0	1.527984E+0	1.590414E+0	1.589238E+0	1.592134E+0	1.590025E+0	1.656889E+0	1.631099E+0	1.562134E+0	1.604099E+0	1.580618E+0	1.629587E+0	1.636099E+0	1.559238E+0	1.589081E+0	1.648732E+0	1.606832E+0	1.556997E+0	1.545936E+0	1.638439E+0	1.651508E+0	1.677620E+0	1.563941E+0	1.571231E+0	1.585541E+0	1.575271E+0	1.573283E+0	1.605545E+0	1.550509E+0	1.594964E+0	1.622119E+0	1.572533E+0	1.594116E+0	1.579333E+0	1.575594E+0	1.656342E+0	1.662955E+0	1.598827E+0	1.587302E+0	1.599324E+0	1.575384E+0	1.587887E+0	1.607801E+0	1.676722E+0	1.585148E+0	1.591126E+0	1.549216E+0	1.629124E+0	1.576918E+0	1.596585E+0	1.618647E+0	1.647878E+0	1.664796E+0	1.554656E+0	1.613071E+0	1.629837E+0	1.596782E+0	1.583740E+0	1.621262E+0	1.545222E+0	1.639747E+0	1.605898E+0	1.576621E+0	1.591877E+0	1.617795E+0	1.565839E+0	1.564777E+0	1.586949E+0	1.555139E+0	1.651707E+0	1.544582E+0	1.610580E+0	1.556094E+0	1.591154E+0	1.594696E+0	1.556032E+0	1.538388E+0	1.539697E+0	1.585187E+0	1.645349E+0	1.577269E+0	1.544038E+0	1.597255E+0	1.557451E+0	1.619465E+0	1.533766E+0	1.556351E+0	1.600882E+0	1.539051E+0	1.604307E+0	1.607726E+0	1.594542E+0	1.579850E+0	1.578413E+0	1.614061E+0	1.625245E+0	1.637358E+0	1.566469E+0	1.539493E+0	1.527219E+0	1.568354E+0	1.625083E+0	1.537115E+0	1.572134E+0	1.622618E+0	1.590523E+0	1.560277E+0	1.629979E+0	1.550978E+0	1.590567E+0	1.572043E+0	1.572899E+0	1.651463E+0	1.582889E+0	1.561431E+0
5.415190E+2	1.431726E+0	1.456257E+0	1.468016E+0	1.488022E+0	1.476307E+0	1.512112E+0	1.522544E+0	1.494195E+0	1.430486E+0	1.459935E+0	1.462629E+0	1.488532E+0	1.446098E+0	1.494174E+0	1.494384E+0	1.454482E+0	1.406804E+0	1.494659E+0	1.478756E+0	1.426013E+0	1.484346E+0	1.481294E+0	1.544368E+0	1.467111E+0	1.448323E+0	1.496455E+0	1.490890E+0	1.505709E+0	1.546168E+0	1.460938E+0	1.492419E+0	1.498018E+0	1.527603E+0	1.481224E+0	1.471581E+0	1.423068E+0	1.416421E+0	1.460954E+0	1.516483E+0	1.483369E+0	1.518763E+0	1.492095E+0	1.504657E+0	1.440020E+0	1.435926E+0	1.474264E+0	1.498604E+0	1.507360E+0	1.506301E+0	1.462820E+0	1.499089E+0	1.488830E+0	1.481623E+0	1.498885E+0	1.486725E+0	1.449537E+0	1.426491E+0	1.476836E+0	1.433758E+0	1.458858E+0	1.551945E+0	1.473171E+0	1.480377E+0	1.453963E+0	1.463545E+0	1.483609E+0	1.524187E+0	1.431864E+0	1.444225E+0	1.429190E+0	1.540728E+0	1.448931E+0	1.463366E+0	1.484983E+0	1.504554E+0	1.510441E+0	1.499367E+0	1.480469E+0	1.485382E+0	1.501086E+0	1.447823E+0	1.436898E+0	1.499856E+0	1.480050E+0	1.481514E+0	1.482696E+0	1.515501E+0	1.510993E+0	1.455070E+0	1.461280E+0	1.500403E+0	1.448411E+0	1.558944E+0	1.512211E+0	1.448906E+0	1.436499E+0	1.428964E+0	1.424665E+0	1.492806E+0	1.421843E+0	1.487885E+0	1.490988E+0	1.550702E+0	1.502259E+0	1.478803E+0	1.433286E+0	1.482214E+0	1.490095E+0	1.497680E+0	1.464324E+0	1.512796E+0	1.510632E+0	1.418377E+0	1.469795E+0	1.448763E+0	1.507709E+0	1.459507E+0	1.476444E+0	1.448453E+0	1.468680E+0	1.483651E+0	1.441489E+0	1.482090E+0	1.437478E+0	1.506615E+0	1.469081E+0	1.513191E+0	1.478866E+0	1.527613E+0	1.431162E+0	1.429895E+0	1.488447E+0	1.446842E+0	1.496794E+0	1.501218E+0	1.460431E+0	1.376269E+0	1.477803E+0	1.495910E+0	1.515087E+0	1.485885E+0	1.470211E+0	1.420108E+0	1.420852E+0	1.413301E+0	1.484964E+0	1.476301E+0	1.533264E+0	1.422858E+0	1.470793E+0	1.531503E+0	1.458498E+0	1.461372E+0	1.452500E+0	1.487568E+0	1.438337E+0	1.467128E+0	1.479804E+0	1.454015E+0	1.430334E+0	1.536226E+0	1.519004E+0	1.516934E+0	1.416585E+0	1.467500E+0	1.461050E+0	1.452702E+0	1.407539E+0	1.407588E+0	1.472691E+0
5.417810E+2	1.332905E+0	1.309824E+0	1.282911E+0	1.335595E+0	1.286425E+0	1.317727E+0	1.235776E+0	1.303625E+0	1.246259E+0	1.259965E+0	1.297495E+0	1.280501E+0	1.270185E+0	1.278872E+0	1.269283E+0	1.265996E+0	1.318441E+0	1.299723E+0	1.316434E+0	1.248462E+0	1.293167E+0	1.298575E+0	1.306794E+0	1.336746E+0	1.252648E+0	1.291697E+0	1.327421E+0	1.302871E+0	1.260784E+0	1.326365E+0	1.253362E+0	1.271184E+0	1.350740E+0	1.256372E+0	1.320574E+0	1.288011E+0	1.315229E+0	1.213369E+0	1.349387E+0	1.249707E+0	1.284646E+0	1.304169E+0	1.339012E+0	1.280671E+0	1.324652E+0	1.292122E+0	1.279468E+0	1.230746E+0	1.295717E+0	1.296792E+0	1.297310E+0	1.265541E+0	1.347794E+0	1.285429E+0	1.303961E+0	1.307907E+0	1.270833E+0	1.371023E+0	1.276612E+0	1.280525E+0	1.320553E+0	1.286342E+0	1.223112E+0	1.233058E+0	1.288905E+0	1.332170E+0	1.315733E+0	1.307184E+0	1.245396E+0	1.285255E+0	1.321163E+0	1.271521E+0	1.274334E+0	1.248522E+0	1.325002E+0	1.319278E+0	1.311228E+0	1.284509E+0	1.314515E+0	1.266485E+0	1.322177E+0	1.297334E+0	1.284669E+0	1.256001E+0	1.316513E+0	1.277405E+0	1.271391E+0	1.289885E+0	1.238238E+0	1.261678E+0	1.315090E+0	1.276527E+0	1.341980E+0	1.309714E+0	1.259003E+0	1.286864E+0	1.284624E+0	1.256558E+0	1.331310E+0	1.252264E+0	1.270718E+0	1.280686E+0	1.350641E+0	1.284963E+0	1.285258E+0	1.239570E+0	1.302570E+0	1.276439E+0	1.282929E+0	1.307953E+0	1.282773E+0	1.271174E+0	1.242888E+0	1.313024E+0	1.290351E+0	1.327964E+0	1.319936E+0	1.261580E+0	1.284769E+0	1.299094E+0	1.256828E+0	1.308011E+0	1.310347E+0	1.264253E+0	1.290995E+0	1.212371E+0	1.300799E+0	1.281503E+0	1.265038E+0	1.262294E+0	1.305622E+0	1.228149E+0	1.263469E+0	1.267862E+0	1.315047E+0	1.316181E+0	1.263705E+0	1.286649E+0	1.294267E+0	1.281916E+0	1.346165E+0	1.340465E+0	1.349978E+0	1.262656E+0	1.292821E+0	1.247721E+0	1.354931E+0	1.272824E+0	1.294256E+0	1.255732E+0	1.320204E+0	1.258038E+0	1.261841E+0	1.288380E+0	1.300562E+0	1.284119E+0	1.283293E+0	1.300056E+0	1.244680E+0	1.310949E+0	1.293358E+0	1.205566E+0	1.308355E+0	1.267177E+0	1.233110E+0	1.286194E+0	1.268169E+0	1.298237E+0	1.233019E+0	1.238785E+0
5.420160E+2	1.146126E+0	1.127337E+0	1.103034E+0	1.121494E+0	1.170041E+0	1.116084E+0	1.128924E+0	1.109287E+0	1.084883E+0	1.080846E+0	1.136815E+0	1.122963E+0	1.089031E+0	1.078860E+0	1.151606E+0	1.097417E+0	1.147917E+0	1.131659E+0	1.139060E+0	1.131432E+0	1.183245E+0	1.115596E+0	1.126211E+0	1.128521E+0	1.087048E+0	1.125986E+0	1.138330E+0	1.107197E+0	1.151057E+0	1.118713E+0	1.143323E+0	1.091788E+0	1.152458E+0	1.114072E+0	1.103177E+0	1.114162E+0	1.119543E+0	1.097278E+0	1.163224E+0	1.132949E+0	1.127750E+0	1.151627E+0	1.126703E+0	1.090337E+0	1.139683E+0	1.084865E+0	1.116057E+0	1.076326E+0	1.128715E+0	1.106056E+0	1.147532E+0	1.104760E+0	1.136882E+0	1.079531E+0	1.089425E+0	1.122702E+0	1.147529E+0	1.124299E+0	1.105223E+0	1.091851E+0	1.096248E+0	1.117092E+0	1.081124E+0	1.121130E+0	1.079911E+0	1.090813E+0	1.100652E+0	1.108075E+0	1.138866E+0	1.127978E+0	1.123768E+0	1.168958E+0	1.149551E+0	1.137338E+0	1.123152E+0	1.083108E+0	1.127662E+0	1.096017E+0	1.115451E+0	1.104258E+0	1.131717E+0	1.117647E+0	1.101024E+0	1.100373E+0	1.112578E+0	1.095520E+0	1.178524E+0	1.165082E+0	1.112973E+0	1.114122E+0	1.138171E+0	1.157686E+0	1.113267E+0	1.131567E+0	1.118022E+0	1.139798E+0	1.132544E+0	1.119918E+0	1.132522E+0	1.140200E+0	1.156648E+0	1.096916E+0	1.122777E+0	1.138046E+0	1.106452E+0	1.097295E+0	1.151263E+0	1.103588E+0	1.115681E+0	1.150156E+0	1.098211E+0	1.140652E+0	1.102272E+0	1.177629E+0	1.104881E+0	1.142243E+0	1.140380E+0	1.129777E+0	1.188152E+0	1.102863E+0	1.115035E+0	1.128845E+0	1.165947E+0	1.125167E+0	1.188953E+0	1.119084E+0	1.089519E+0	1.107227E+0	1.164313E+0	1.075481E+0	1.100868E+0	1.125029E+0	1.133814E+0	1.124013E+0	1.140790E+0	1.100856E+0	1.126727E+0	1.168244E+0	1.142351E+0	1.074880E+0	1.131211E+0	1.155583E+0	1.162033E+0	1.071923E+0	1.086166E+0	1.128657E+0	1.168962E+0	1.106350E+0	1.112150E+0	1.140610E+0	1.144262E+0	1.138303E+0	1.111644E+0	1.109908E+0	1.142327E+0	1.143923E+0	1.163466E+0	1.076779E+0	1.154752E+0	1.182573E+0	1.215708E+0	1.091088E+0	1.166243E+0	1.101871E+0	1.115187E+0	1.099679E+0	1.110245E+0	1.229845E+0	1.104578E+0	1.073940E+0
5.422670E+2	1.061082E+0	1.030420E+0	9.700635E-1	1.023267E+0	1.037901E+0	1.007996E+0	1.027793E+0	1.024556E+0	1.012465E+0	1.017487E+0	1.045891E+0	1.037208E+0	1.021981E+0	1.003988E+0	1.019366E+0	9.803768E-1	9.771690E-1	1.017915E+0	1.021074E+0	1.004090E+0	1.031992E+0	1.018184E+0	1.060015E+0	1.004627E+0	9.892787E-1	1.038886E+0	1.018607E+0	1.048863E+0	1.037846E+0	9.884161E-1	1.052699E+0	1.049110E+0	1.023103E+0	9.957650E-1	1.061435E+0	1.000505E+0	1.008277E+0	9.896943E-1	1.077920E+0	1.002557E+0	1.034609E+0	1.027577E+0	9.803409E-1	1.034268E+0	9.896966E-1	1.019597E+0	9.382707E-1	9.547737E-1	1.024924E+0	1.011958E+0	9.806720E-1	1.017104E+0	1.014963E+0	1.037555E+0	1.002475E+0	1.006535E+0	9.917677E-1	1.014233E+0	9.998056E-1	1.071401E+0	1.043256E+0	1.039779E+0	1.006833E+0	9.978041E-1	1.003871E+0	1.023964E+0	1.029310E+0	1.067285E+0	1.044762E+0	9.951558E-1	1.040287E+0	1.015692E+0	1.011257E+0	1.052683E+0	1.007363E+0	1.040978E+0	1.000991E+0	1.038132E+0	1.035032E+0	9.857289E-1	1.029430E+0	1.023858E+0	1.037142E+0	1.015372E+0	9.881593E-1	1.005638E+0	1.032418E+0	1.048631E+0	1.005674E+0	1.077607E+0	1.027976E+0	1.069259E+0	1.048109E+0	9.824636E-1	1.064868E+0	9.736779E-1	1.057990E+0	9.971859E-1	1.009631E+0	1.007959E+0	1.039984E+0	1.026837E+0	1.038835E+0	1.066893E+0	1.030439E+0	1.034151E+0	1.018246E+0	1.005471E+0	9.835572E-1	1.060352E+0	1.039382E+0	1.024330E+0	1.057769E+0	1.006630E+0	1.035474E+0	1.006347E+0	1.005945E+0	1.074241E+0	1.018193E+0	1.045551E+0	1.013105E+0	9.763718E-1	1.018323E+0	1.020218E+0	1.050095E+0	1.042864E+0	1.025320E+0	9.613948E-1	9.998602E-1	9.805797E-1	9.936643E-1	1.010932E+0	1.007656E+0	1.016584E+0	1.070568E+0	1.007231E+0	1.020062E+0	1.028665E+0	1.048768E+0	1.027461E+0	9.885756E-1	1.061013E+0	1.004385E+0	9.709182E-1	1.045172E+0	1.019967E+0	1.076669E+0	9.828467E-1	1.005815E+0	1.037421E+0	1.041440E+0	1.061376E+0	9.939274E-1	1.038695E+0	1.064471E+0	1.025046E+0	1.026795E+0	1.039643E+0	9.940269E-1	9.957536E-1	1.010211E+0	1.029572E+0	1.023883E+0	1.005391E+0	1.046044E+0	1.009466E+0	9.855412E-1	1.022874E+0	1.027531E+0	9.550582E-1
5.425460E+2	1.007141E+0	9.531349E-1	9.984660E-1	1.018956E+0	1.012653E+0	9.954873E-1	9.527567E-1	1.043423E+0	9.944930E-1	1.005240E+0	9.800481E-1	1.011833E+0	9.918302E-1	9.935849E-1	9.739736E-1	9.579193E-1	9.826916E-1	9.674455E-1	9.731888E-1	9.815834E-1	9.961871E-1	1.039385E+0	1.001533E+0	1.019465E+0	9.722680E-1	1.055467E+0	1.027465E+0	9.928155E-1	1.001880E+0	1.023128E+0	9.864916E-1	9.983994E-1	1.036056E+0	9.649472E-1	1.007118E+0	9.907953E-1	9.826462E-1	9.811186E-1	1.054695E+0	1.028970E+0	9.864641E-1	1.016212E+0	1.000660E+0	9.910819E-1	9.998926E-1	9.500987E-1	1.005743E+0	9.852293E-1	1.014276E+0	9.923783E-1	9.928224E-1	1.035610E+0	9.880069E-1	9.860744E-1	9.748720E-1	1.014863E+0	9.485479E-1	9.793127E-1	9.277284E-1	9.652020E-1	9.704959E-1	1.011897E+0	9.830883E-1	9.767220E-1	9.943750E-1	9.853757E-1	1.028486E+0	1.009250E+0	1.002215E+0	1.001638E+0	9.821116E-1	9.893870E-1	1.038895E+0	1.026992E+0	9.837285E-1	9.736296E-1	9.484354E-1	9.789460E-1	9.955629E-1	9.703020E-1	1.004128E+0	1.018651E+0	9.790573E-1	1.012162E+0	9.617248E-1	1.025141E+0	9.755466E-1	9.830367E-1	9.985172E-1	9.261755E-1	1.014093E+0	9.769780E-1	1.060030E+0	9.991936E-1	9.925111E-1	9.971078E-1	1.044086E+0	9.951106E-1	1.005597E+0	1.026714E+0	1.014526E+0	9.694885E-1	1.035772E+0	1.019973E+0	9.496431E-1	9.717592E-1	1.003066E+0	1.014375E+0	1.002974E+0	1.006703E+0	1.005569E+0	1.009544E+0	9.970157E-1	1.003973E+0	1.027723E+0	1.016859E+0	1.004190E+0	1.013105E+0	9.552987E-1	9.976444E-1	9.420245E-1	9.470492E-1	1.048702E+0	9.912109E-1	9.662211E-1	1.007126E+0	1.005289E+0	9.878341E-1	9.932645E-1	9.284876E-1	9.530269E-1	1.031597E+0	1.029600E+0	1.010311E+0	1.013892E+0	1.003224E+0	1.026066E+0	9.787332E-1	9.898412E-1	9.615402E-1	9.804216E-1	9.946822E-1	9.740377E-1	9.886088E-1	9.750370E-1	9.605853E-1	9.754394E-1	9.975377E-1	9.946108E-1	1.006550E+0	1.020029E+0	1.020399E+0	1.027046E+0	1.012496E+0	9.537741E-1	1.007862E+0	1.009064E+0	1.009134E+0	9.917095E-1	9.828414E-1	1.003530E+0	9.612332E-1	1.022562E+0	9.726174E-1	9.649359E-1	9.720727E-1	9.790000E-1	1.042814E+0	9.813178E-1	9.689410E-1
5.427710E+2	1.100909E+0	1.056185E+0	1.081335E+0	1.074367E+0	1.083336E+0	1.073736E+0	1.059367E+0	1.187083E+0	1.033152E+0	1.086561E+0	1.101424E+0	1.076586E+0	1.121786E+0	1.087699E+0	1.089969E+0	1.089405E+0	1.092771E+0	1.107576E+0	1.081048E+0	1.070507E+0	1.076450E+0	1.055275E+0	1.067258E+0	1.078322E+0	1.093410E+0	1.139555E+0	1.090829E+0	1.103594E+0	1.120200E+0	1.058201E+0	1.077399E+0	1.091412E+0	1.120950E+0	1.106897E+0	1.065543E+0	1.065961E+0	1.073770E+0	1.083552E+0	1.092642E+0	1.081977E+0	1.099332E+0	1.085412E+0	1.095251E+0	1.074466E+0	1.079878E+0	1.061413E+0	1.078365E+0	1.113614E+0	1.100479E+0	1.096959E+0	1.090569E+0	1.081207E+0	1.148084E+0	1.116988E+0	1.081011E+0	1.078563E+0	1.101904E+0	1.057062E+0	1.044562E+0	1.083903E+0	1.092516E+0	1.090316E+0	1.054124E+0	1.040755E+0	1.091086E+0	1.104990E+0	1.110896E+0	1.064627E+0	1.071062E+0	1.036631E+0	1.120183E+0	1.133238E+0	1.097291E+0	1.126777E+0	1.081574E+0	1.089798E+0	1.113156E+0	1.083910E+0	1.078841E+0	1.086024E+0	1.077203E+0	1.106049E+0	1.066557E+0	1.035874E+0	1.111151E+0	1.084283E+0	1.047157E+0	1.108396E+0	1.094630E+0	1.109130E+0	1.110138E+0	1.096762E+0	1.116586E+0	1.112793E+0	1.117513E+0	1.056400E+0	1.059701E+0	1.093372E+0	1.081980E+0	1.063874E+0	1.098269E+0	1.091156E+0	1.065481E+0	1.114713E+0	1.027770E+0	1.075970E+0	1.076326E+0	1.085120E+0	1.095364E+0	1.084981E+0	1.028479E+0	1.080169E+0	1.079847E+0	1.107279E+0	1.075331E+0	1.106237E+0	1.128174E+0	1.030013E+0	1.097320E+0	1.069508E+0	1.078214E+0	1.076106E+0	1.116989E+0	1.076471E+0	1.099198E+0	1.100321E+0	1.111448E+0	1.083236E+0	1.118330E+0	1.088956E+0	1.108920E+0	1.108377E+0	1.063694E+0	1.069220E+0	1.032652E+0	1.124501E+0	1.090932E+0	1.084098E+0	1.076307E+0	1.062099E+0	1.076180E+0	1.134342E+0	1.056743E+0	1.089568E+0	1.042523E+0	1.041649E+0	1.098638E+0	1.048067E+0	1.069815E+0	1.106873E+0	1.044850E+0	1.092148E+0	1.098080E+0	1.091378E+0	1.067463E+0	1.101478E+0	1.119122E+0	1.040386E+0	1.064184E+0	1.103990E+0	1.079852E+0	1.088219E+0	1.129551E+0	1.071422E+0	1.111471E+0	1.084782E+0	1.069521E+0	1.079198E+0	1.084742E+0	1.084690E+0
5.430120E+2	1.205656E+0	1.260899E+0	1.255057E+0	1.277635E+0	1.191873E+0	1.206847E+0	1.246189E+0	1.210678E+0	1.196024E+0	1.247905E+0	1.238311E+0	1.274827E+0	1.226882E+0	1.233551E+0	1.302253E+0	1.177270E+0	1.228346E+0	1.250675E+0	1.232317E+0	1.215223E+0	1.181658E+0	1.210206E+0	1.261748E+0	1.254630E+0	1.182517E+0	1.234323E+0	1.233158E+0	1.238392E+0	1.237323E+0	1.242424E+0	1.206230E+0	1.223680E+0	1.244013E+0	1.216052E+0	1.200776E+0	1.237757E+0	1.173019E+0	1.249611E+0	1.301372E+0	1.241851E+0	1.282674E+0	1.237425E+0	1.224018E+0	1.218639E+0	1.154407E+0	1.216694E+0	1.224487E+0	1.207288E+0	1.255125E+0	1.277722E+0	1.193531E+0	1.184138E+0	1.292500E+0	1.254304E+0	1.195063E+0	1.218402E+0	1.235979E+0	1.272184E+0	1.184781E+0	1.211684E+0	1.261058E+0	1.204343E+0	1.233344E+0	1.228185E+0	1.203466E+0	1.248624E+0	1.219738E+0	1.263625E+0	1.197511E+0	1.230256E+0	1.230587E+0	1.174738E+0	1.219200E+0	1.196936E+0	1.231608E+0	1.165810E+0	1.246055E+0	1.222481E+0	1.221865E+0	1.185738E+0	1.275555E+0	1.213168E+0	1.208488E+0	1.217251E+0	1.265768E+0	1.167564E+0	1.202482E+0	1.256937E+0	1.206839E+0	1.202080E+0	1.218805E+0	1.213215E+0	1.247606E+0	1.247142E+0	1.263040E+0	1.185252E+0	1.226015E+0	1.170497E+0	1.248775E+0	1.232700E+0	1.267820E+0	1.196868E+0	1.267891E+0	1.259768E+0	1.245911E+0	1.204914E+0	1.221651E+0	1.211128E+0	1.283646E+0	1.231067E+0	1.206774E+0	1.235517E+0	1.216376E+0	1.246533E+0	1.230465E+0	1.203250E+0	1.252047E+0	1.228175E+0	1.278538E+0	1.245908E+0	1.221117E+0	1.208887E+0	1.222504E+0	1.208714E+0	1.229936E+0	1.254681E+0	1.228241E+0	1.221798E+0	1.230972E+0	1.195227E+0	1.214705E+0	1.238090E+0	1.209769E+0	1.201218E+0	1.202627E+0	1.239864E+0	1.160053E+0	1.219465E+0	1.226929E+0	1.287567E+0	1.260432E+0	1.285415E+0	1.238639E+0	1.218585E+0	1.218511E+0	1.307353E+0	1.256344E+0	1.214072E+0	1.265988E+0	1.213033E+0	1.238694E+0	1.217911E+0	1.181066E+0	1.244452E+0	1.233039E+0	1.240873E+0	1.265674E+0	1.194012E+0	1.205597E+0	1.241708E+0	1.261352E+0	1.277624E+0	1.275496E+0	1.261373E+0	1.197426E+0	1.178576E+0	1.238318E+0	1.312612E+0	1.204835E+0	1.258601E+0
5.433020E+2	1.427125E+0	1.403610E+0	1.404960E+0	1.429170E+0	1.510368E+0	1.402046E+0	1.429635E+0	1.457645E+0	1.390255E+0	1.405686E+0	1.447997E+0	1.414308E+0	1.433699E+0	1.415711E+0	1.503444E+0	1.460072E+0	1.401133E+0	1.423958E+0	1.419373E+0	1.412734E+0	1.450819E+0	1.420033E+0	1.472914E+0	1.434781E+0	1.439298E+0	1.470347E+0	1.387936E+0	1.388710E+0	1.460155E+0	1.426165E+0	1.402674E+0	1.403961E+0	1.398830E+0	1.446773E+0	1.432237E+0	1.438401E+0	1.400538E+0	1.415512E+0	1.459657E+0	1.445025E+0	1.431950E+0	1.430835E+0	1.440617E+0	1.446271E+0	1.382489E+0	1.453883E+0	1.381759E+0	1.410552E+0	1.396584E+0	1.420110E+0	1.390280E+0	1.377689E+0	1.456128E+0	1.420283E+0	1.447896E+0	1.447723E+0	1.419021E+0	1.501948E+0	1.403674E+0	1.452118E+0	1.446041E+0	1.420199E+0	1.402578E+0	1.364969E+0	1.398788E+0	1.404478E+0	1.458970E+0	1.461195E+0	1.337882E+0	1.444033E+0	1.407752E+0	1.459212E+0	1.424218E+0	1.462419E+0	1.413358E+0	1.441231E+0	1.453286E+0	1.408827E+0	1.452739E+0	1.418380E+0	1.374952E+0	1.436944E+0	1.434787E+0	1.434417E+0	1.413934E+0	1.434316E+0	1.400060E+0	1.459145E+0	1.387781E+0	1.413834E+0	1.410885E+0	1.414531E+0	1.391026E+0	1.431848E+0	1.453480E+0	1.421126E+0	1.420498E+0	1.358579E+0	1.422614E+0	1.361631E+0	1.413505E+0	1.442690E+0	1.370226E+0	1.476900E+0	1.431184E+0	1.413979E+0	1.405108E+0	1.461089E+0	1.443687E+0	1.394881E+0	1.403734E+0	1.395717E+0	1.433312E+0	1.410514E+0	1.389682E+0	1.449156E+0	1.446032E+0	1.413147E+0	1.374183E+0	1.399356E+0	1.378460E+0	1.379183E+0	1.431325E+0	1.435954E+0	1.478668E+0	1.391355E+0	1.431368E+0	1.380921E+0	1.442448E+0	1.429632E+0	1.408922E+0	1.441939E+0	1.443529E+0	1.439666E+0	1.394277E+0	1.410721E+0	1.377960E+0	1.410785E+0	1.430126E+0	1.423854E+0	1.411570E+0	1.416750E+0	1.362568E+0	1.343668E+0	1.436773E+0	1.365858E+0	1.471108E+0	1.392203E+0	1.440948E+0	1.373238E+0	1.427011E+0	1.396763E+0	1.406564E+0	1.422221E+0	1.431438E+0	1.488346E+0	1.487154E+0	1.395464E+0	1.382929E+0	1.442926E+0	1.442038E+0	1.376777E+0	1.445068E+0	1.420678E+0	1.447477E+0	1.350121E+0	1.419447E+0	1.453695E+0	1.428775E+0	1.433085E+0
5.435270E+2	1.519938E+0	1.509973E+0	1.535767E+0	1.560700E+0	1.526807E+0	1.556052E+0	1.517212E+0	1.515696E+0	1.530938E+0	1.583191E+0	1.574296E+0	1.609143E+0	1.514489E+0	1.504449E+0	1.547413E+0	1.541096E+0	1.538030E+0	1.492226E+0	1.539751E+0	1.579640E+0	1.511200E+0	1.551839E+0	1.584090E+0	1.589934E+0	1.554076E+0	1.515591E+0	1.557306E+0	1.520504E+0	1.573898E+0	1.621766E+0	1.565675E+0	1.556015E+0	1.572730E+0	1.520527E+0	1.523266E+0	1.513494E+0	1.491918E+0	1.504271E+0	1.579255E+0	1.560633E+0	1.536472E+0	1.533669E+0	1.559897E+0	1.494134E+0	1.498268E+0	1.470990E+0	1.555296E+0	1.542130E+0	1.560652E+0	1.569135E+0	1.562998E+0	1.550900E+0	1.560870E+0	1.602723E+0	1.526111E+0	1.561951E+0	1.521601E+0	1.565574E+0	1.485106E+0	1.545453E+0	1.551675E+0	1.566035E+0	1.534557E+0	1.468402E+0	1.513733E+0	1.526463E+0	1.552135E+0	1.569560E+0	1.516423E+0	1.506416E+0	1.537082E+0	1.594019E+0	1.594199E+0	1.530950E+0	1.532510E+0	1.508353E+0	1.587396E+0	1.531818E+0	1.563877E+0	1.491606E+0	1.615251E+0	1.529666E+0	1.519506E+0	1.519391E+0	1.553900E+0	1.524985E+0	1.540236E+0	1.578197E+0	1.570596E+0	1.509239E+0	1.542426E+0	1.568168E+0	1.577578E+0	1.577467E+0	1.570094E+0	1.538758E+0	1.495296E+0	1.487917E+0	1.528149E+0	1.528587E+0	1.555613E+0	1.463880E+0	1.541574E+0	1.579887E+0	1.519123E+0	1.547954E+0	1.537145E+0	1.552943E+0	1.530467E+0	1.614215E+0	1.559366E+0	1.487002E+0	1.558429E+0	1.566749E+0	1.503728E+0	1.551607E+0	1.565276E+0	1.546489E+0	1.561591E+0	1.524637E+0	1.490007E+0	1.472976E+0	1.538966E+0	1.546849E+0	1.530143E+0	1.538480E+0	1.537740E+0	1.526094E+0	1.525212E+0	1.539754E+0	1.498395E+0	1.477256E+0	1.527743E+0	1.530335E+0	1.496957E+0	1.556699E+0	1.533948E+0	1.535684E+0	1.554272E+0	1.553650E+0	1.553332E+0	1.498290E+0	1.536067E+0	1.469056E+0	1.477372E+0	1.531316E+0	1.553415E+0	1.550873E+0	1.517208E+0	1.488234E+0	1.513855E+0	1.472017E+0	1.505333E+0	1.541192E+0	1.547288E+0	1.537620E+0	1.478412E+0	1.567827E+0	1.467462E+0	1.547171E+0	1.570119E+0	1.498798E+0	1.550858E+0	1.507651E+0	1.530109E+0	1.514675E+0	1.557610E+0	1.568928E+0	1.535437E+0	1.615409E+0
5.437590E+2	1.696668E+0	1.642942E+0	1.620203E+0	1.659584E+0	1.652975E+0	1.629854E+0	1.629576E+0	1.705994E+0	1.636628E+0	1.646112E+0	1.658941E+0	1.684442E+0	1.703819E+0	1.616175E+0	1.670376E+0	1.662880E+0	1.640955E+0	1.674052E+0	1.630725E+0	1.614145E+0	1.612517E+0	1.681882E+0	1.608666E+0	1.692731E+0	1.583485E+0	1.711822E+0	1.618774E+0	1.652612E+0	1.635726E+0	1.647588E+0	1.662485E+0	1.605942E+0	1.636951E+0	1.679678E+0	1.550656E+0	1.601870E+0	1.614336E+0	1.603945E+0	1.703266E+0	1.650759E+0	1.660680E+0	1.605013E+0	1.658517E+0	1.646718E+0	1.603678E+0	1.608175E+0	1.680763E+0	1.639369E+0	1.654697E+0	1.604031E+0	1.685632E+0	1.661722E+0	1.696578E+0	1.612753E+0	1.603866E+0	1.620350E+0	1.578233E+0	1.629066E+0	1.649714E+0	1.666968E+0	1.674261E+0	1.644054E+0	1.673629E+0	1.653653E+0	1.640107E+0	1.607710E+0	1.647183E+0	1.608572E+0	1.627950E+0	1.613383E+0	1.618869E+0	1.648411E+0	1.638372E+0	1.632142E+0	1.627480E+0	1.645382E+0	1.670631E+0	1.657321E+0	1.634446E+0	1.645924E+0	1.681593E+0	1.720579E+0	1.646468E+0	1.648446E+0	1.655296E+0	1.654212E+0	1.563556E+0	1.679279E+0	1.627244E+0	1.632134E+0	1.656783E+0	1.591641E+0	1.689364E+0	1.590842E+0	1.674545E+0	1.683579E+0	1.607845E+0	1.631721E+0	1.686519E+0	1.666235E+0	1.663166E+0	1.589405E+0	1.572200E+0	1.738449E+0	1.591992E+0	1.598826E+0	1.661838E+0	1.636467E+0	1.613199E+0	1.630419E+0	1.637086E+0	1.613967E+0	1.625885E+0	1.679692E+0	1.627420E+0	1.683336E+0	1.683876E+0	1.634513E+0	1.657790E+0	1.622099E+0	1.619641E+0	1.639013E+0	1.604308E+0	1.597362E+0	1.663028E+0	1.624067E+0	1.712886E+0	1.701967E+0	1.619728E+0	1.639658E+0	1.608647E+0	1.658373E+0	1.589997E+0	1.598387E+0	1.613745E+0	1.638076E+0	1.574048E+0	1.629255E+0	1.596881E+0	1.662107E+0	1.671668E+0	1.616005E+0	1.661340E+0	1.569428E+0	1.648007E+0	1.604604E+0	1.646675E+0	1.635252E+0	1.571454E+0	1.635611E+0	1.661609E+0	1.658497E+0	1.572431E+0	1.670581E+0	1.604462E+0	1.629510E+0	1.620215E+0	1.601001E+0	1.610722E+0	1.623850E+0	1.643292E+0	1.634887E+0	1.608569E+0	1.622637E+0	1.670442E+0	1.582084E+0	1.621778E+0	1.680740E+0	1.554142E+0	1.672957E+0
5.440280E+2	1.721298E+0	1.696853E+0	1.636175E+0	1.652610E+0	1.726115E+0	1.726086E+0	1.717400E+0	1.699576E+0	1.631847E+0	1.612293E+0	1.669162E+0	1.699809E+0	1.644764E+0	1.756308E+0	1.756933E+0	1.658029E+0	1.683409E+0	1.766928E+0	1.731815E+0	1.671746E+0	1.712985E+0	1.666791E+0	1.701153E+0	1.630807E+0	1.688645E+0	1.686197E+0	1.624809E+0	1.671488E+0	1.771813E+0	1.679862E+0	1.684659E+0	1.651606E+0	1.696277E+0	1.714488E+0	1.648838E+0	1.642651E+0	1.661427E+0	1.581478E+0	1.692030E+0	1.693339E+0	1.744879E+0	1.680798E+0	1.631844E+0	1.693751E+0	1.716070E+0	1.691235E+0	1.716619E+0	1.663655E+0	1.646097E+0	1.697264E+0	1.660816E+0	1.617347E+0	1.688524E+0	1.697268E+0	1.688640E+0	1.701633E+0	1.623520E+0	1.675424E+0	1.666032E+0	1.706940E+0	1.729627E+0	1.654133E+0	1.612395E+0	1.596983E+0	1.660244E+0	1.746263E+0	1.716119E+0	1.660881E+0	1.586402E+0	1.689136E+0	1.648007E+0	1.664843E+0	1.670593E+0	1.670704E+0	1.656663E+0	1.726789E+0	1.664385E+0	1.700747E+0	1.666928E+0	1.657931E+0	1.666814E+0	1.673607E+0	1.664437E+0	1.647893E+0	1.676233E+0	1.628168E+0	1.708173E+0	1.646911E+0	1.707028E+0	1.727841E+0	1.630162E+0	1.614436E+0	1.714736E+0	1.687413E+0	1.702183E+0	1.694097E+0	1.621597E+0	1.662926E+0	1.714096E+0	1.728260E+0	1.677786E+0	1.690173E+0	1.641987E+0	1.685361E+0	1.677169E+0	1.648799E+0	1.730211E+0	1.696442E+0	1.647828E+0	1.646689E+0	1.640273E+0	1.632862E+0	1.688982E+0	1.718375E+0	1.691885E+0	1.642707E+0	1.671982E+0	1.684272E+0	1.679593E+0	1.688238E+0	1.627630E+0	1.650569E+0	1.666378E+0	1.642055E+0	1.744847E+0	1.704356E+0	1.637582E+0	1.704567E+0	1.662443E+0	1.589158E+0	1.675359E+0	1.644476E+0	1.656480E+0	1.650254E+0	1.627432E+0	1.621588E+0	1.605966E+0	1.674291E+0	1.686024E+0	1.687486E+0	1.670589E+0	1.624238E+0	1.675250E+0	1.645141E+0	1.607499E+0	1.680859E+0	1.655026E+0	1.632229E+0	1.685033E+0	1.672845E+0	1.638746E+0	1.615463E+0	1.635969E+0	1.629506E+0	1.606716E+0	1.642816E+0	1.632309E+0	1.668706E+0	1.611218E+0	1.730722E+0	1.673614E+0	1.644988E+0	1.665224E+0	1.649548E+0	1.660451E+0	1.640015E+0	1.636630E+0	1.697052E+0	1.623161E+0	1.701061E+0
5.442650E+2	1.720056E+0	1.670696E+0	1.718053E+0	1.757616E+0	1.655373E+0	1.671915E+0	1.677840E+0	1.684957E+0	1.680866E+0	1.708915E+0	1.685537E+0	1.690207E+0	1.683152E+0	1.699465E+0	1.778822E+0	1.698049E+0	1.693289E+0	1.664895E+0	1.743267E+0	1.689379E+0	1.698522E+0	1.735314E+0	1.751405E+0	1.665083E+0	1.632096E+0	1.730451E+0	1.685686E+0	1.622204E+0	1.750810E+0	1.638004E+0	1.657354E+0	1.620048E+0	1.649324E+0	1.737205E+0	1.614878E+0	1.735945E+0	1.656549E+0	1.661424E+0	1.735714E+0	1.591884E+0	1.666394E+0	1.674942E+0	1.724525E+0	1.681602E+0	1.687566E+0	1.620484E+0	1.643092E+0	1.678547E+0	1.690095E+0	1.686032E+0	1.701307E+0	1.607577E+0	1.663975E+0	1.664562E+0	1.696481E+0	1.631797E+0	1.669382E+0	1.705774E+0	1.667833E+0	1.643670E+0	1.727375E+0	1.628299E+0	1.663264E+0	1.614648E+0	1.693313E+0	1.714165E+0	1.652515E+0	1.703730E+0	1.586165E+0	1.636376E+0	1.745632E+0	1.678045E+0	1.693119E+0	1.653640E+0	1.624653E+0	1.702627E+0	1.712659E+0	1.670983E+0	1.708518E+0	1.647446E+0	1.665424E+0	1.708967E+0	1.649876E+0	1.679169E+0	1.685878E+0	1.612116E+0	1.560955E+0	1.727532E+0	1.587641E+0	1.678774E+0	1.703688E+0	1.669526E+0	1.731635E+0	1.641242E+0	1.737785E+0	1.644267E+0	1.659224E+0	1.700110E+0	1.705402E+0	1.666784E+0	1.673497E+0	1.688440E+0	1.601555E+0	1.719742E+0	1.599036E+0	1.677990E+0	1.618225E+0	1.718913E+0	1.643820E+0	1.671278E+0	1.592678E+0	1.657810E+0	1.723122E+0	1.649440E+0	1.653863E+0	1.736600E+0	1.672300E+0	1.640816E+0	1.645238E+0	1.657459E+0	1.660490E+0	1.623379E+0	1.637234E+0	1.657217E+0	1.673134E+0	1.597870E+0	1.708695E+0	1.669360E+0	1.665650E+0	1.661773E+0	1.611766E+0	1.636755E+0	1.653270E+0	1.644409E+0	1.607857E+0	1.715945E+0	1.600823E+0	1.671753E+0	1.686784E+0	1.722002E+0	1.703545E+0	1.664149E+0	1.648988E+0	1.585076E+0	1.663490E+0	1.661159E+0	1.676559E+0	1.641162E+0	1.651588E+0	1.651083E+0	1.585757E+0	1.684888E+0	1.679307E+0	1.617638E+0	1.615763E+0	1.677540E+0	1.664217E+0	1.613173E+0	1.653378E+0	1.594237E+0	1.800060E+0	1.628198E+0	1.676863E+0	1.641187E+0	1.675862E+0	1.648069E+0	1.665044E+0	1.749677E+0	1.637953E+0	1.459801E+0
5.445240E+2	1.660798E+0	1.699741E+0	1.633154E+0	1.697581E+0	1.710448E+0	1.679229E+0	1.692419E+0	1.674897E+0	1.636594E+0	1.632891E+0	1.665942E+0	1.657092E+0	1.720920E+0	1.677706E+0	1.685025E+0	1.632821E+0	1.613837E+0	1.683239E+0	1.686500E+0	1.606241E+0	1.662705E+0	1.712576E+0	1.695112E+0	1.682725E+0	1.636623E+0	1.670353E+0	1.636792E+0	1.681405E+0	1.699986E+0	1.689063E+0	1.660688E+0	1.615841E+0	1.614905E+0	1.665748E+0	1.645450E+0	1.638889E+0	1.669071E+0	1.617410E+0	1.647529E+0	1.601594E+0	1.723693E+0	1.630017E+0	1.639505E+0	1.653427E+0	1.696552E+0	1.627427E+0	1.633263E+0	1.668565E+0	1.712758E+0	1.680445E+0	1.586062E+0	1.652637E+0	1.663387E+0	1.664870E+0	1.661333E+0	1.584793E+0	1.647911E+0	1.702869E+0	1.623435E+0	1.639260E+0	1.648046E+0	1.691578E+0	1.582805E+0	1.577345E+0	1.670432E+0	1.624417E+0	1.633745E+0	1.659769E+0	1.627112E+0	1.605833E+0	1.676551E+0	1.616232E+0	1.717250E+0	1.653998E+0	1.670783E+0	1.642015E+0	1.705539E+0	1.589504E+0	1.643315E+0	1.603392E+0	1.630042E+0	1.639148E+0	1.658501E+0	1.624076E+0	1.696534E+0	1.623097E+0	1.612258E+0	1.666494E+0	1.638635E+0	1.616299E+0	1.687411E+0	1.554475E+0	1.679454E+0	1.693793E+0	1.617685E+0	1.604163E+0	1.669729E+0	1.563356E+0	1.714074E+0	1.639077E+0	1.688538E+0	1.645474E+0	1.663222E+0	1.708912E+0	1.581632E+0	1.639461E+0	1.603630E+0	1.624881E+0	1.586832E+0	1.623965E+0	1.594141E+0	1.622998E+0	1.677403E+0	1.600571E+0	1.651231E+0	1.636075E+0	1.625488E+0	1.619323E+0	1.697466E+0	1.655442E+0	1.614474E+0	1.634515E+0	1.639019E+0	1.652141E+0	1.675411E+0	1.661936E+0	1.663538E+0	1.590989E+0	1.642565E+0	1.620058E+0	1.620329E+0	1.619516E+0	1.611838E+0	1.627654E+0	1.621590E+0	1.703978E+0	1.693618E+0	1.629885E+0	1.575778E+0	1.600209E+0	1.667323E+0	1.667512E+0	1.610627E+0	1.571072E+0	1.599373E+0	1.604036E+0	1.677741E+0	1.624276E+0	1.619646E+0	1.660570E+0	1.625203E+0	1.572961E+0	1.672320E+0	1.644960E+0	1.599411E+0	1.616486E+0	1.601341E+0	1.579801E+0	1.622930E+0	1.669222E+0	1.651964E+0	1.640259E+0	1.628873E+0	1.603910E+0	1.595227E+0	1.619961E+0	1.626821E+0	1.735929E+0	1.648637E+0	1.635675E+0
5.447660E+2	1.574970E+0	1.572938E+0	1.523771E+0	1.561747E+0	1.594681E+0	1.579720E+0	1.625841E+0	1.575920E+0	1.587204E+0	1.547219E+0	1.547834E+0	1.558479E+0	1.600279E+0	1.572963E+0	1.600111E+0	1.543317E+0	1.566232E+0	1.573622E+0	1.601523E+0	1.546145E+0	1.556777E+0	1.580319E+0	1.577288E+0	1.526324E+0	1.567338E+0	1.572413E+0	1.525652E+0	1.607638E+0	1.604568E+0	1.514400E+0	1.550202E+0	1.556270E+0	1.632320E+0	1.581556E+0	1.569999E+0	1.579067E+0	1.497836E+0	1.509161E+0	1.553846E+0	1.582393E+0	1.548313E+0	1.557412E+0	1.540532E+0	1.574618E+0	1.556942E+0	1.506500E+0	1.569335E+0	1.512523E+0	1.624737E+0	1.586729E+0	1.605033E+0	1.580750E+0	1.588917E+0	1.557949E+0	1.578675E+0	1.493340E+0	1.552632E+0	1.571741E+0	1.554166E+0	1.516352E+0	1.588571E+0	1.558128E+0	1.502733E+0	1.551187E+0	1.547904E+0	1.544720E+0	1.579363E+0	1.559165E+0	1.512609E+0	1.589226E+0	1.531176E+0	1.481738E+0	1.531570E+0	1.562308E+0	1.605839E+0	1.561270E+0	1.536241E+0	1.578148E+0	1.527347E+0	1.529719E+0	1.646842E+0	1.532200E+0	1.528315E+0	1.485436E+0	1.579411E+0	1.566015E+0	1.489992E+0	1.520534E+0	1.538591E+0	1.518518E+0	1.567958E+0	1.480528E+0	1.583091E+0	1.560672E+0	1.555071E+0	1.503528E+0	1.541137E+0	1.553909E+0	1.582410E+0	1.538649E+0	1.591742E+0	1.498485E+0	1.535617E+0	1.559513E+0	1.536651E+0	1.537098E+0	1.586906E+0	1.543161E+0	1.536329E+0	1.516395E+0	1.545703E+0	1.590252E+0	1.524288E+0	1.581143E+0	1.517692E+0	1.490236E+0	1.622505E+0	1.554594E+0	1.526022E+0	1.560409E+0	1.540527E+0	1.563548E+0	1.604492E+0	1.519707E+0	1.615689E+0	1.526449E+0	1.572521E+0	1.511970E+0	1.530368E+0	1.540817E+0	1.486277E+0	1.561219E+0	1.552940E+0	1.546676E+0	1.510806E+0	1.565499E+0	1.532955E+0	1.594115E+0	1.459033E+0	1.575046E+0	1.531161E+0	1.560893E+0	1.522849E+0	1.494795E+0	1.591727E+0	1.568657E+0	1.547781E+0	1.585800E+0	1.579647E+0	1.550249E+0	1.507329E+0	1.603752E+0	1.491166E+0	1.529123E+0	1.603651E+0	1.540777E+0	1.555664E+0	1.497744E+0	1.523785E+0	1.512270E+0	1.626048E+0	1.556695E+0	1.556664E+0	1.520459E+0	1.509972E+0	1.546170E+0	1.486678E+0	1.638059E+0	1.534050E+0	1.435415E+0
5.450200E+2	1.462989E+0	1.439240E+0	1.431567E+0	1.452151E+0	1.427528E+0	1.474689E+0	1.438503E+0	1.431729E+0	1.436725E+0	1.450779E+0	1.400639E+0	1.462668E+0	1.466239E+0	1.438332E+0	1.487752E+0	1.428638E+0	1.443459E+0	1.452298E+0	1.405934E+0	1.452812E+0	1.456247E+0	1.453490E+0	1.432311E+0	1.423717E+0	1.480467E+0	1.465544E+0	1.386822E+0	1.427715E+0	1.457740E+0	1.415515E+0	1.450640E+0	1.442957E+0	1.407802E+0	1.462063E+0	1.425914E+0	1.441862E+0	1.432697E+0	1.395748E+0	1.462467E+0	1.433371E+0	1.479407E+0	1.478644E+0	1.436850E+0	1.408848E+0	1.425829E+0	1.406614E+0	1.439509E+0	1.411255E+0	1.451511E+0	1.424179E+0	1.454898E+0	1.383965E+0	1.465526E+0	1.449101E+0	1.425938E+0	1.428850E+0	1.417038E+0	1.444681E+0	1.452803E+0	1.423040E+0	1.464284E+0	1.487561E+0	1.476533E+0	1.370358E+0	1.435771E+0	1.466013E+0	1.418373E+0	1.386834E+0	1.431153E+0	1.395940E+0	1.394669E+0	1.413135E+0	1.446855E+0	1.436015E+0	1.415799E+0	1.419177E+0	1.451965E+0	1.415206E+0	1.479167E+0	1.420212E+0	1.407224E+0	1.415920E+0	1.420845E+0	1.386151E+0	1.464380E+0	1.441016E+0	1.358402E+0	1.397627E+0	1.448142E+0	1.476206E+0	1.485935E+0	1.427912E+0	1.494751E+0	1.414096E+0	1.449439E+0	1.383898E+0	1.411785E+0	1.406250E+0	1.469772E+0	1.439879E+0	1.485635E+0	1.426001E+0	1.441877E+0	1.446914E+0	1.419032E+0	1.438341E+0	1.417879E+0	1.421909E+0	1.419672E+0	1.444096E+0	1.450988E+0	1.446860E+0	1.373402E+0	1.414764E+0	1.377656E+0	1.469746E+0	1.432888E+0	1.434656E+0	1.425044E+0	1.466190E+0	1.435405E+0	1.447490E+0	1.391863E+0	1.430821E+0	1.452003E+0	1.459059E+0	1.392704E+0	1.422082E+0	1.380555E+0	1.393148E+0	1.379948E+0	1.464471E+0	1.387508E+0	1.467864E+0	1.395463E+0	1.443703E+0	1.460630E+0	1.421741E+0	1.470327E+0	1.439197E+0	1.380822E+0	1.502926E+0	1.457247E+0	1.388782E+0	1.412405E+0	1.370233E+0	1.475402E+0	1.434076E+0	1.405569E+0	1.442029E+0	1.417471E+0	1.425721E+0	1.440279E+0	1.416340E+0	1.455581E+0	1.403529E+0	1.361380E+0	1.431871E+0	1.386647E+0	1.431202E+0	1.462795E+0	1.411268E+0	1.432161E+0	1.455773E+0	1.435951E+0	1.401494E+0	1.416591E+0	1.498960E+0	1.460357E+0	1.410048E+0
5.452690E+2	1.381932E+0	1.384722E+0	1.330112E+0	1.404219E+0	1.318281E+0	1.373390E+0	1.353761E+0	1.369105E+0	1.356717E+0	1.354644E+0	1.369339E+0	1.364621E+0	1.382857E+0	1.352298E+0	1.363531E+0	1.336405E+0	1.321683E+0	1.364562E+0	1.384955E+0	1.310917E+0	1.378175E+0	1.404094E+0	1.399953E+0	1.343100E+0	1.373531E+0	1.380641E+0	1.339777E+0	1.316919E+0	1.402022E+0	1.343054E+0	1.374323E+0	1.343214E+0	1.358749E+0	1.397342E+0	1.260179E+0	1.342389E+0	1.326428E+0	1.328845E+0	1.336419E+0	1.340534E+0	1.345247E+0	1.331509E+0	1.377288E+0	1.389538E+0	1.358317E+0	1.278631E+0	1.354693E+0	1.394828E+0	1.436077E+0	1.398131E+0	1.438588E+0	1.341393E+0	1.398937E+0	1.378694E+0	1.355723E+0	1.332533E+0	1.350603E+0	1.373665E+0	1.403375E+0	1.311275E+0	1.373299E+0	1.390406E+0	1.340501E+0	1.331271E+0	1.349144E+0	1.394629E+0	1.319753E+0	1.358050E+0	1.323775E+0	1.338399E+0	1.371568E+0	1.382470E+0	1.390509E+0	1.410719E+0	1.388114E+0	1.307463E+0	1.431128E+0	1.370998E+0	1.384433E+0	1.311189E+0	1.369297E+0	1.361559E+0	1.338780E+0	1.299765E+0	1.346257E+0	1.335108E+0	1.326378E+0	1.366322E+0	1.324319E+0	1.345030E+0	1.386775E+0	1.367316E+0	1.421298E+0	1.342118E+0	1.338885E+0	1.332761E+0	1.371324E+0	1.324772E+0	1.308663E+0	1.351796E+0	1.427054E+0	1.375162E+0	1.349424E+0	1.333375E+0	1.365765E+0	1.358949E+0	1.383761E+0	1.329036E+0	1.380232E+0	1.363021E+0	1.393410E+0	1.313725E+0	1.377634E+0	1.382463E+0	1.358716E+0	1.350116E+0	1.340494E+0	1.323620E+0	1.353651E+0	1.348373E+0	1.380564E+0	1.357431E+0	1.378720E+0	1.313599E+0	1.353313E+0	1.281299E+0	1.354450E+0	1.318700E+0	1.363881E+0	1.347352E+0	1.317088E+0	1.304509E+0	1.361883E+0	1.357127E+0	1.326618E+0	1.362307E+0	1.316587E+0	1.362835E+0	1.397724E+0	1.332418E+0	1.355178E+0	1.372021E+0	1.335488E+0	1.368858E+0	1.360446E+0	1.375721E+0	1.398129E+0	1.343548E+0	1.384157E+0	1.332011E+0	1.389410E+0	1.352422E+0	1.420981E+0	1.376406E+0	1.354663E+0	1.312575E+0	1.329059E+0	1.354519E+0	1.318305E+0	1.401601E+0	1.383954E+0	1.325152E+0	1.353430E+0	1.314141E+0	1.333054E+0	1.334929E+0	1.345442E+0	1.432952E+0	1.343189E+0	1.365322E+0
5.455390E+2	1.294494E+0	1.275291E+0	1.252859E+0	1.319264E+0	1.327712E+0	1.293311E+0	1.285624E+0	1.253364E+0	1.275488E+0	1.288877E+0	1.299509E+0	1.256876E+0	1.337403E+0	1.314703E+0	1.274484E+0	1.260308E+0	1.303920E+0	1.310211E+0	1.304880E+0	1.266122E+0	1.321849E+0	1.269941E+0	1.292452E+0	1.283276E+0	1.328481E+0	1.357375E+0	1.279823E+0	1.273104E+0	1.342209E+0	1.309046E+0	1.276188E+0	1.273336E+0	1.289804E+0	1.290301E+0	1.278487E+0	1.272014E+0	1.277876E+0	1.273107E+0	1.293831E+0	1.281216E+0	1.275763E+0	1.249831E+0	1.289967E+0	1.294618E+0	1.295414E+0	1.254833E+0	1.317518E+0	1.284769E+0	1.298005E+0	1.225279E+0	1.258904E+0	1.294494E+0	1.312842E+0	1.265573E+0	1.248395E+0	1.225660E+0	1.325299E+0	1.291441E+0	1.265994E+0	1.257807E+0	1.301516E+0	1.269948E+0	1.288826E+0	1.297624E+0	1.276867E+0	1.321806E+0	1.330787E+0	1.258887E+0	1.249633E+0	1.252918E+0	1.318087E+0	1.222369E+0	1.311944E+0	1.234526E+0	1.266884E+0	1.270564E+0	1.241986E+0	1.319687E+0	1.227793E+0	1.303122E+0	1.285723E+0	1.269769E+0	1.290250E+0	1.246878E+0	1.305284E+0	1.265440E+0	1.256438E+0	1.278571E+0	1.245642E+0	1.286713E+0	1.313658E+0	1.285484E+0	1.408936E+0	1.242826E+0	1.276578E+0	1.280085E+0	1.311911E+0	1.217497E+0	1.284177E+0	1.275714E+0	1.290370E+0	1.264673E+0	1.286076E+0	1.253983E+0	1.324639E+0	1.293706E+0	1.275061E+0	1.353353E+0	1.288055E+0	1.240860E+0	1.312318E+0	1.269810E+0	1.316368E+0	1.262142E+0	1.273531E+0	1.274643E+0	1.292923E+0	1.284208E+0	1.252109E+0	1.278805E+0	1.252082E+0	1.272073E+0	1.246293E+0	1.326976E+0	1.364151E+0	1.258670E+0	1.293542E+0	1.287644E+0	1.249344E+0	1.271004E+0	1.276007E+0	1.242014E+0	1.339685E+0	1.301412E+0	1.281641E+0	1.262583E+0	1.291487E+0	1.273076E+0	1.315354E+0	1.303805E+0	1.300300E+0	1.252280E+0	1.285500E+0	1.316844E+0	1.330879E+0	1.292738E+0	1.285389E+0	1.249942E+0	1.300829E+0	1.344384E+0	1.257029E+0	1.277615E+0	1.293582E+0	1.306792E+0	1.273751E+0	1.268127E+0	1.250952E+0	1.316801E+0	1.234848E+0	1.264643E+0	1.266981E+0	1.243186E+0	1.273902E+0	1.290278E+0	1.224725E+0	1.241272E+0	1.263560E+0	1.300231E+0	1.319017E+0	1.308770E+0
5.457780E+2	1.255148E+0	1.258180E+0	1.229493E+0	1.264193E+0	1.232573E+0	1.246436E+0	1.282500E+0	1.219436E+0	1.277437E+0	1.229054E+0	1.257584E+0	1.213091E+0	1.254246E+0	1.295819E+0	1.220503E+0	1.255520E+0	1.290107E+0	1.291348E+0	1.275618E+0	1.228622E+0	1.276541E+0	1.251162E+0	1.221023E+0	1.296213E+0	1.249757E+0	1.267179E+0	1.284394E+0	1.243401E+0	1.316485E+0	1.231855E+0	1.254688E+0	1.237426E+0	1.309944E+0	1.254150E+0	1.203742E+0	1.284712E+0	1.230080E+0	1.219254E+0	1.259449E+0	1.266858E+0	1.220854E+0	1.269986E+0	1.238694E+0	1.269490E+0	1.255377E+0	1.227534E+0	1.250935E+0	1.255521E+0	1.311179E+0	1.272214E+0	1.304614E+0	1.230923E+0	1.247566E+0	1.299231E+0	1.262327E+0	1.243430E+0	1.277546E+0	1.246054E+0	1.221348E+0	1.188059E+0	1.306354E+0	1.232756E+0	1.218551E+0	1.279811E+0	1.205557E+0	1.288914E+0	1.207108E+0	1.269255E+0	1.245636E+0	1.273947E+0	1.236181E+0	1.312915E+0	1.258376E+0	1.262463E+0	1.266737E+0	1.235942E+0	1.249988E+0	1.193573E+0	1.276217E+0	1.300080E+0	1.303981E+0	1.272443E+0	1.253414E+0	1.254078E+0	1.262510E+0	1.221462E+0	1.209741E+0	1.267062E+0	1.264367E+0	1.328459E+0	1.314035E+0	1.231359E+0	1.329633E+0	1.293774E+0	1.318322E+0	1.248864E+0	1.278974E+0	1.249392E+0	1.241313E+0	1.228391E+0	1.290002E+0	1.214234E+0	1.236911E+0	1.242553E+0	1.278974E+0	1.255706E+0	1.297255E+0	1.226564E+0	1.280206E+0	1.244304E+0	1.240714E+0	1.304565E+0	1.259443E+0	1.223948E+0	1.260578E+0	1.256591E+0	1.268011E+0	1.259945E+0	1.252739E+0	1.242723E+0	1.210092E+0	1.216398E+0	1.283570E+0	1.282393E+0	1.234331E+0	1.229786E+0	1.219802E+0	1.224461E+0	1.201924E+0	1.279526E+0	1.252948E+0	1.237681E+0	1.258509E+0	1.256532E+0	1.240897E+0	1.263814E+0	1.210286E+0	1.308740E+0	1.213352E+0	1.302592E+0	1.266795E+0	1.295451E+0	1.249084E+0	1.219378E+0	1.235407E+0	1.250286E+0	1.263546E+0	1.273592E+0	1.269377E+0	1.203577E+0	1.245135E+0	1.282456E+0	1.251594E+0	1.250995E+0	1.233352E+0	1.213660E+0	1.249793E+0	1.256407E+0	1.236049E+0	1.280197E+0	1.380897E+0	1.215554E+0	1.246016E+0	1.224799E+0	1.252360E+0	1.238195E+0	1.209641E+0	1.284884E+0	1.265232E+0	1.228302E+0
5.460110E+2	1.289866E+0	1.265308E+0	1.198209E+0	1.235658E+0	1.215344E+0	1.230337E+0	1.236981E+0	1.259658E+0	1.277012E+0	1.247775E+0	1.260044E+0	1.282044E+0	1.239087E+0	1.275039E+0	1.239086E+0	1.236326E+0	1.291936E+0	1.258548E+0	1.288906E+0	1.226435E+0	1.255247E+0	1.245133E+0	1.302253E+0	1.238194E+0	1.258409E+0	1.270316E+0	1.238298E+0	1.233076E+0	1.307974E+0	1.270176E+0	1.232323E+0	1.250069E+0	1.250829E+0	1.256026E+0	1.231104E+0	1.238119E+0	1.208473E+0	1.264988E+0	1.222655E+0	1.259356E+0	1.262573E+0	1.263244E+0	1.272829E+0	1.247404E+0	1.263924E+0	1.231775E+0	1.249542E+0	1.239004E+0	1.266168E+0	1.245116E+0	1.249239E+0	1.240658E+0	1.254955E+0	1.251061E+0	1.253262E+0	1.214486E+0	1.232476E+0	1.261692E+0	1.233722E+0	1.225684E+0	1.314073E+0	1.244124E+0	1.316178E+0	1.211303E+0	1.220368E+0	1.201090E+0	1.256497E+0	1.231227E+0	1.241205E+0	1.239116E+0	1.264933E+0	1.250280E+0	1.296045E+0	1.273326E+0	1.177955E+0	1.293963E+0	1.251026E+0	1.244097E+0	1.187827E+0	1.234398E+0	1.270829E+0	1.205985E+0	1.271179E+0	1.290124E+0	1.233167E+0	1.223395E+0	1.255218E+0	1.265859E+0	1.215448E+0	1.230388E+0	1.245826E+0	1.217693E+0	1.276453E+0	1.290703E+0	1.237322E+0	1.229166E+0	1.220425E+0	1.195377E+0	1.239282E+0	1.270939E+0	1.225765E+0	1.208897E+0	1.254495E+0	1.243484E+0	1.246924E+0	1.239458E+0	1.281656E+0	1.215693E+0	1.261773E+0	1.262300E+0	1.219409E+0	1.199509E+0	1.256563E+0	1.273284E+0	1.185874E+0	1.189498E+0	1.333987E+0	1.243773E+0	1.245873E+0	1.199515E+0	1.225742E+0	1.229029E+0	1.224276E+0	1.221951E+0	1.290763E+0	1.255510E+0	1.266731E+0	1.241270E+0	1.206458E+0	1.141106E+0	1.235004E+0	1.233524E+0	1.177808E+0	1.263423E+0	1.231314E+0	1.219543E+0	1.258008E+0	1.198157E+0	1.253111E+0	1.238292E+0	1.227525E+0	1.207260E+0	1.221936E+0	1.236516E+0	1.217129E+0	1.248693E+0	1.259709E+0	1.231290E+0	1.234770E+0	1.217890E+0	1.266062E+0	1.244337E+0	1.233418E+0	1.286041E+0	1.232506E+0	1.259094E+0	1.316377E+0	1.254151E+0	1.213196E+0	1.229414E+0	1.288689E+0	1.200343E+0	1.225820E+0	1.257578E+0	1.194733E+0	1.223722E+0	1.237023E+0	1.244546E+0	1.182508E+0	1.202913E+0
5.467600E+2	1.309176E+0	1.331041E+0	1.304221E+0	1.309648E+0	1.309293E+0	1.319667E+0	1.275588E+0	1.314496E+0	1.320137E+0	1.267619E+0	1.373013E+0	1.290108E+0	1.312737E+0	1.357202E+0	1.333754E+0	1.326854E+0	1.337567E+0	1.310408E+0	1.283994E+0	1.236169E+0	1.321482E+0	1.318430E+0	1.346340E+0	1.319108E+0	1.301368E+0	1.328140E+0	1.337142E+0	1.312022E+0	1.274565E+0	1.332655E+0	1.328426E+0	1.316791E+0	1.314241E+0	1.327241E+0	1.264622E+0	1.332633E+0	1.342486E+0	1.316599E+0	1.343148E+0	1.323238E+0	1.315075E+0	1.349323E+0	1.350313E+0	1.242903E+0	1.283724E+0	1.344680E+0	1.311920E+0	1.302561E+0	1.309084E+0	1.311800E+0	1.305534E+0	1.362203E+0	1.356411E+0	1.328298E+0	1.316464E+0	1.253605E+0	1.307660E+0	1.401700E+0	1.288404E+0	1.309759E+0	1.317060E+0	1.336707E+0	1.263196E+0	1.334079E+0	1.292089E+0	1.329674E+0	1.331451E+0	1.312321E+0	1.280780E+0	1.296217E+0	1.294945E+0	1.296745E+0	1.287429E+0	1.291768E+0	1.329949E+0	1.282216E+0	1.360142E+0	1.354620E+0	1.290682E+0	1.221791E+0	1.353686E+0	1.303842E+0	1.310250E+0	1.285091E+0	1.340499E+0	1.268096E+0	1.349117E+0	1.274944E+0	1.320320E+0	1.332427E+0	1.337662E+0	1.322478E+0	1.312711E+0	1.380916E+0	1.294978E+0	1.331004E+0	1.335911E+0	1.292398E+0	1.343659E+0	1.266704E+0	1.340525E+0	1.301691E+0	1.271648E+0	1.334761E+0	1.303879E+0	1.312812E+0	1.316988E+0	1.319605E+0	1.322120E+0	1.301469E+0	1.276735E+0	1.299932E+0	1.322438E+0	1.309300E+0	1.331006E+0	1.316304E+0	1.348368E+0	1.333861E+0	1.325976E+0	1.297251E+0	1.266765E+0	1.278595E+0	1.249202E+0	1.288834E+0	1.369804E+0	1.368382E+0	1.320910E+0	1.326925E+0	1.332370E+0	1.318562E+0	1.302508E+0	1.335505E+0	1.306215E+0	1.388270E+0	1.317680E+0	1.260109E+0	1.343362E+0	1.326947E+0	1.354716E+0	1.296931E+0	1.301632E+0	1.302937E+0	1.350018E+0	1.234609E+0	1.314465E+0	1.293420E+0	1.355873E+0	1.302966E+0	1.317958E+0	1.312801E+0	1.290060E+0	1.307574E+0	1.286432E+0	1.289162E+0	1.304368E+0	1.313655E+0	1.297849E+0	1.313138E+0	1.303495E+0	1.318860E+0	1.360970E+0	1.321760E+0	1.295928E+0	1.334493E+0	1.264505E+0	1.281572E+0	1.324085E+0	1.252145E+0	1.310530E+0	1.358131E+0
5.475070E+2	1.444517E+0	1.421048E+0	1.353321E+0	1.389119E+0	1.366336E+0	1.415503E+0	1.405129E+0	1.465078E+0	1.343097E+0	1.348131E+0	1.382235E+0	1.356768E+0	1.374444E+0	1.399934E+0	1.410771E+0	1.379352E+0	1.374045E+0	1.428673E+0	1.410353E+0	1.341639E+0	1.391182E+0	1.380390E+0	1.440890E+0	1.413699E+0	1.342713E+0	1.440321E+0	1.394442E+0	1.417517E+0	1.388303E+0	1.377474E+0	1.409564E+0	1.398241E+0	1.438303E+0	1.475914E+0	1.367580E+0	1.348585E+0	1.353243E+0	1.369417E+0	1.405383E+0	1.385901E+0	1.415377E+0	1.357211E+0	1.430891E+0	1.331908E+0	1.368343E+0	1.400470E+0	1.409908E+0	1.391580E+0	1.445739E+0	1.357743E+0	1.451996E+0	1.362119E+0	1.358385E+0	1.436032E+0	1.398625E+0	1.371223E+0	1.411461E+0	1.449712E+0	1.384746E+0	1.340994E+0	1.402779E+0	1.455717E+0	1.409688E+0	1.360201E+0	1.316014E+0	1.388815E+0	1.384636E+0	1.385586E+0	1.332472E+0	1.372844E+0	1.402477E+0	1.444233E+0	1.393231E+0	1.371194E+0	1.378627E+0	1.434708E+0	1.388320E+0	1.378406E+0	1.434250E+0	1.409170E+0	1.387072E+0	1.369644E+0	1.412518E+0	1.330766E+0	1.387549E+0	1.335406E+0	1.337058E+0	1.413517E+0	1.362594E+0	1.371808E+0	1.357751E+0	1.357998E+0	1.384745E+0	1.479148E+0	1.379642E+0	1.374247E+0	1.367427E+0	1.370544E+0	1.330065E+0	1.369893E+0	1.399628E+0	1.367764E+0	1.429925E+0	1.384137E+0	1.373825E+0	1.325772E+0	1.410123E+0	1.373116E+0	1.361765E+0	1.398013E+0	1.443792E+0	1.430422E+0	1.422758E+0	1.426899E+0	1.436765E+0	1.379531E+0	1.447025E+0	1.309176E+0	1.327957E+0	1.404330E+0	1.375582E+0	1.407544E+0	1.387866E+0	1.356942E+0	1.417698E+0	1.363578E+0	1.441372E+0	1.392907E+0	1.353008E+0	1.385427E+0	1.346630E+0	1.439643E+0	1.359879E+0	1.392389E+0	1.399227E+0	1.315667E+0	1.386505E+0	1.378585E+0	1.346088E+0	1.359627E+0	1.373404E+0	1.370401E+0	1.380720E+0	1.367789E+0	1.353250E+0	1.371046E+0	1.396366E+0	1.401362E+0	1.386153E+0	1.391736E+0	1.333431E+0	1.396912E+0	1.389533E+0	1.402669E+0	1.434797E+0	1.422591E+0	1.383160E+0	1.357612E+0	1.351718E+0	1.374097E+0	1.389576E+0	1.386507E+0	1.357998E+0	1.355904E+0	1.386193E+0	1.359249E+0	1.373053E+0	1.373040E+0	1.363775E+0	1.373820E+0
5.482600E+2	1.504374E+0	1.504193E+0	1.444140E+0	1.524840E+0	1.454672E+0	1.465058E+0	1.450534E+0	1.501067E+0	1.486852E+0	1.482581E+0	1.454211E+0	1.526923E+0	1.460446E+0	1.521243E+0	1.495040E+0	1.442556E+0	1.468527E+0	1.471268E+0	1.490311E+0	1.469183E+0	1.440568E+0	1.525553E+0	1.488041E+0	1.428939E+0	1.482641E+0	1.513899E+0	1.529041E+0	1.456405E+0	1.473995E+0	1.465663E+0	1.380315E+0	1.443592E+0	1.485533E+0	1.532332E+0	1.420077E+0	1.455106E+0	1.465766E+0	1.453208E+0	1.478971E+0	1.470416E+0	1.472301E+0	1.416600E+0	1.513235E+0	1.420285E+0	1.461424E+0	1.383762E+0	1.454658E+0	1.441144E+0	1.462113E+0	1.515999E+0	1.465468E+0	1.491411E+0	1.487721E+0	1.527675E+0	1.440739E+0	1.473257E+0	1.477448E+0	1.520769E+0	1.439508E+0	1.521828E+0	1.486289E+0	1.505624E+0	1.451735E+0	1.501722E+0	1.438233E+0	1.463230E+0	1.528364E+0	1.444548E+0	1.444322E+0	1.487097E+0	1.490839E+0	1.429048E+0	1.427235E+0	1.477892E+0	1.490901E+0	1.410466E+0	1.496179E+0	1.414115E+0	1.478698E+0	1.444701E+0	1.468418E+0	1.510564E+0	1.416596E+0	1.458805E+0	1.468953E+0	1.447153E+0	1.413657E+0	1.466909E+0	1.445483E+0	1.449790E+0	1.496372E+0	1.442685E+0	1.475230E+0	1.472962E+0	1.447739E+0	1.488673E+0	1.455407E+0	1.472995E+0	1.492694E+0	1.459995E+0	1.455972E+0	1.423067E+0	1.441701E+0	1.517750E+0	1.498222E+0	1.420452E+0	1.534558E+0	1.516956E+0	1.411935E+0	1.515948E+0	1.450085E+0	1.469447E+0	1.469538E+0	1.455694E+0	1.497805E+0	1.500231E+0	1.472646E+0	1.443587E+0	1.451263E+0	1.429373E+0	1.438658E+0	1.423931E+0	1.475161E+0	1.429303E+0	1.470946E+0	1.450822E+0	1.488745E+0	1.420177E+0	1.394587E+0	1.443532E+0	1.470734E+0	1.437323E+0	1.467245E+0	1.482629E+0	1.437552E+0	1.454602E+0	1.410971E+0	1.514339E+0	1.467216E+0	1.417276E+0	1.474927E+0	1.505229E+0	1.469092E+0	1.448459E+0	1.438332E+0	1.500569E+0	1.454220E+0	1.456108E+0	1.473782E+0	1.446618E+0	1.461646E+0	1.430482E+0	1.496762E+0	1.419094E+0	1.479438E+0	1.426255E+0	1.416784E+0	1.456867E+0	1.447409E+0	1.548144E+0	1.509902E+0	1.442039E+0	1.473984E+0	1.429617E+0	1.444859E+0	1.498842E+0	1.476716E+0	1.509474E+0	1.479685E+0	1.544505E+0
5.490160E+2	1.408024E+0	1.399619E+0	1.382826E+0	1.398527E+0	1.433703E+0	1.418532E+0	1.425502E+0	1.439235E+0	1.438084E+0	1.427604E+0	1.461143E+0	1.471924E+0	1.420446E+0	1.452438E+0	1.502103E+0	1.362630E+0	1.410028E+0	1.463246E+0	1.424477E+0	1.454926E+0	1.415654E+0	1.422507E+0	1.438096E+0	1.407796E+0	1.407846E+0	1.499589E+0	1.459398E+0	1.433742E+0	1.441233E+0	1.475750E+0	1.368988E+0	1.412464E+0	1.385934E+0	1.417654E+0	1.433265E+0	1.438753E+0	1.423194E+0	1.388262E+0	1.452534E+0	1.442829E+0	1.399451E+0	1.419521E+0	1.462640E+0	1.376660E+0	1.422659E+0	1.404959E+0	1.473896E+0	1.434356E+0	1.449999E+0	1.440722E+0	1.367587E+0	1.428621E+0	1.488475E+0	1.428411E+0	1.416256E+0	1.420237E+0	1.400733E+0	1.458114E+0	1.425815E+0	1.431082E+0	1.424254E+0	1.463283E+0	1.444014E+0	1.403396E+0	1.421500E+0	1.444091E+0	1.412605E+0	1.430445E+0	1.388099E+0	1.411983E+0	1.423420E+0	1.451997E+0	1.431826E+0	1.415567E+0	1.397090E+0	1.355527E+0	1.409964E+0	1.450991E+0	1.455235E+0	1.423983E+0	1.381081E+0	1.380841E+0	1.421087E+0	1.426957E+0	1.413251E+0	1.397443E+0	1.421774E+0	1.404849E+0	1.477892E+0	1.400953E+0	1.444849E+0	1.423110E+0	1.432004E+0	1.419811E+0	1.451436E+0	1.424705E+0	1.383951E+0	1.399812E+0	1.428727E+0	1.396274E+0	1.448702E+0	1.386051E+0	1.425664E+0	1.377721E+0	1.434842E+0	1.445782E+0	1.437063E+0	1.462923E+0	1.372513E+0	1.468333E+0	1.353728E+0	1.425258E+0	1.391099E+0	1.461480E+0	1.425026E+0	1.395628E+0	1.449582E+0	1.395276E+0	1.397984E+0	1.363374E+0	1.377231E+0	1.356038E+0	1.477466E+0	1.379518E+0	1.413673E+0	1.427586E+0	1.466667E+0	1.396079E+0	1.387867E+0	1.403975E+0	1.392572E+0	1.330556E+0	1.408253E+0	1.415310E+0	1.467492E+0	1.395965E+0	1.422758E+0	1.402026E+0	1.401424E+0	1.428631E+0	1.418774E+0	1.461187E+0	1.474894E+0	1.370096E+0	1.348249E+0	1.378953E+0	1.420330E+0	1.367880E+0	1.427296E+0	1.438858E+0	1.445103E+0	1.474984E+0	1.383714E+0	1.416257E+0	1.434412E+0	1.418158E+0	1.339345E+0	1.415895E+0	1.401808E+0	1.435885E+0	1.436180E+0	1.417099E+0	1.478891E+0	1.469620E+0	1.380040E+0	1.379165E+0	1.381596E+0	1.445249E+0	1.413220E+0	1.434097E+0
5.497740E+2	1.373688E+0	1.438963E+0	1.427605E+0	1.435859E+0	1.382807E+0	1.465466E+0	1.434556E+0	1.469332E+0	1.416767E+0	1.435213E+0	1.441380E+0	1.372969E+0	1.430913E+0	1.508856E+0	1.415519E+0	1.431222E+0	1.452013E+0	1.508569E+0	1.413873E+0	1.415793E+0	1.421844E+0	1.519408E+0	1.467844E+0	1.411628E+0	1.420078E+0	1.496790E+0	1.422258E+0	1.417128E+0	1.444363E+0	1.395774E+0	1.411827E+0	1.415065E+0	1.431625E+0	1.442203E+0	1.370752E+0	1.441630E+0	1.425139E+0	1.412808E+0	1.441872E+0	1.418233E+0	1.420287E+0	1.427491E+0	1.430942E+0	1.382815E+0	1.411214E+0	1.420947E+0	1.428657E+0	1.468589E+0	1.428188E+0	1.423950E+0	1.435007E+0	1.378394E+0	1.424422E+0	1.449278E+0	1.440421E+0	1.390971E+0	1.424758E+0	1.449572E+0	1.397623E+0	1.344378E+0	1.381434E+0	1.396706E+0	1.428569E+0	1.404943E+0	1.439315E+0	1.471357E+0	1.450929E+0	1.416816E+0	1.391435E+0	1.452688E+0	1.415344E+0	1.388911E+0	1.439221E+0	1.411976E+0	1.374337E+0	1.398967E+0	1.433058E+0	1.480912E+0	1.423553E+0	1.419669E+0	1.415653E+0	1.421176E+0	1.449518E+0	1.422251E+0	1.431339E+0	1.429681E+0	1.406926E+0	1.458883E+0	1.456365E+0	1.400880E+0	1.468423E+0	1.467811E+0	1.407692E+0	1.511881E+0	1.417301E+0	1.404021E+0	1.343900E+0	1.449400E+0	1.398114E+0	1.408914E+0	1.437285E+0	1.355619E+0	1.401736E+0	1.457892E+0	1.421302E+0	1.406445E+0	1.414184E+0	1.388263E+0	1.476671E+0	1.442445E+0	1.434041E+0	1.414082E+0	1.468638E+0	1.481678E+0	1.376698E+0	1.377056E+0	1.419016E+0	1.440131E+0	1.466274E+0	1.412814E+0	1.379109E+0	1.449235E+0	1.418274E+0	1.385736E+0	1.445653E+0	1.427287E+0	1.495807E+0	1.447558E+0	1.419391E+0	1.402149E+0	1.404624E+0	1.459123E+0	1.448046E+0	1.415718E+0	1.344768E+0	1.380041E+0	1.463582E+0	1.399894E+0	1.403207E+0	1.439659E+0	1.390961E+0	1.460013E+0	1.445134E+0	1.401559E+0	1.430220E+0	1.390858E+0	1.497281E+0	1.426120E+0	1.366029E+0	1.395970E+0	1.410379E+0	1.360312E+0	1.389169E+0	1.418541E+0	1.375756E+0	1.360175E+0	1.348499E+0	1.409934E+0	1.399378E+0	1.439477E+0	1.446743E+0	1.438349E+0	1.430996E+0	1.417764E+0	1.382450E+0	1.364014E+0	1.428307E+0	1.465272E+0	1.382913E+0	1.425418E+0
5.505170E+2	1.440366E+0	1.395202E+0	1.370341E+0	1.423804E+0	1.346350E+0	1.461000E+0	1.477685E+0	1.423090E+0	1.402365E+0	1.403285E+0	1.485097E+0	1.409899E+0	1.417204E+0	1.468255E+0	1.428003E+0	1.373786E+0	1.393525E+0	1.432890E+0	1.428958E+0	1.332325E+0	1.401330E+0	1.402412E+0	1.402896E+0	1.390589E+0	1.413298E+0	1.383070E+0	1.395814E+0	1.383560E+0	1.455594E+0	1.406729E+0	1.383905E+0	1.410260E+0	1.364659E+0	1.439759E+0	1.378606E+0	1.372023E+0	1.406886E+0	1.315273E+0	1.467613E+0	1.406777E+0	1.434041E+0	1.413836E+0	1.398695E+0	1.381077E+0	1.395105E+0	1.425740E+0	1.435640E+0	1.419136E+0	1.440687E+0	1.415866E+0	1.424303E+0	1.358180E+0	1.379681E+0	1.442966E+0	1.384693E+0	1.344137E+0	1.374360E+0	1.422467E+0	1.393168E+0	1.415514E+0	1.398151E+0	1.494301E+0	1.422054E+0	1.395539E+0	1.343169E+0	1.383647E+0	1.363601E+0	1.435271E+0	1.362972E+0	1.368039E+0	1.413219E+0	1.356493E+0	1.412576E+0	1.504870E+0	1.392706E+0	1.415923E+0	1.373561E+0	1.379389E+0	1.424275E+0	1.361143E+0	1.351312E+0	1.427284E+0	1.375798E+0	1.354388E+0	1.418087E+0	1.369055E+0	1.370438E+0	1.402346E+0	1.411396E+0	1.424876E+0	1.402139E+0	1.384961E+0	1.418893E+0	1.425398E+0	1.404330E+0	1.424477E+0	1.339696E+0	1.387898E+0	1.376632E+0	1.393954E+0	1.434722E+0	1.381369E+0	1.424658E+0	1.423356E+0	1.367869E+0	1.433987E+0	1.405774E+0	1.376262E+0	1.379180E+0	1.450346E+0	1.382622E+0	1.429239E+0	1.445458E+0	1.402824E+0	1.364788E+0	1.337514E+0	1.449118E+0	1.391284E+0	1.403314E+0	1.337822E+0	1.387125E+0	1.430872E+0	1.454811E+0	1.355480E+0	1.383989E+0	1.411896E+0	1.457734E+0	1.409911E+0	1.436062E+0	1.407937E+0	1.408495E+0	1.420528E+0	1.394783E+0	1.406452E+0	1.393754E+0	1.449448E+0	1.355123E+0	1.399209E+0	1.385483E+0	1.457745E+0	1.385640E+0	1.419599E+0	1.361766E+0	1.351980E+0	1.381696E+0	1.409617E+0	1.430615E+0	1.430287E+0	1.412632E+0	1.409245E+0	1.369095E+0	1.438539E+0	1.327874E+0	1.351377E+0	1.363666E+0	1.367574E+0	1.374395E+0	1.471908E+0	1.384715E+0	1.409624E+0	1.412000E+0	1.355543E+0	1.425364E+0	1.380891E+0	1.364738E+0	1.360625E+0	1.389450E+0	1.418500E+0	1.298332E+0	1.417340E+0
5.512570E+2	1.377212E+0	1.377970E+0	1.378995E+0	1.423287E+0	1.403493E+0	1.416233E+0	1.417757E+0	1.371142E+0	1.412672E+0	1.446351E+0	1.388092E+0	1.377135E+0	1.426185E+0	1.445215E+0	1.404803E+0	1.465114E+0	1.384116E+0	1.427775E+0	1.421520E+0	1.420268E+0	1.417056E+0	1.358336E+0	1.369206E+0	1.369954E+0	1.377049E+0	1.393217E+0	1.382542E+0	1.382810E+0	1.355854E+0	1.415459E+0	1.409147E+0	1.436071E+0	1.386418E+0	1.449557E+0	1.398420E+0	1.392662E+0	1.344335E+0	1.393638E+0	1.363164E+0	1.371592E+0	1.402981E+0	1.444160E+0	1.431534E+0	1.367777E+0	1.410988E+0	1.365875E+0	1.389973E+0	1.380286E+0	1.441789E+0	1.412518E+0	1.406465E+0	1.378618E+0	1.440301E+0	1.389208E+0	1.432927E+0	1.333157E+0	1.411943E+0	1.423164E+0	1.392759E+0	1.394503E+0	1.455860E+0	1.415337E+0	1.414676E+0	1.349205E+0	1.402126E+0	1.461845E+0	1.378269E+0	1.345582E+0	1.370104E+0	1.427827E+0	1.434968E+0	1.368868E+0	1.427343E+0	1.426210E+0	1.449639E+0	1.330567E+0	1.432065E+0	1.423434E+0	1.432302E+0	1.379253E+0	1.425479E+0	1.409987E+0	1.343113E+0	1.339555E+0	1.377739E+0	1.406770E+0	1.353318E+0	1.355603E+0	1.427575E+0	1.387343E+0	1.459541E+0	1.365106E+0	1.381124E+0	1.398335E+0	1.433647E+0	1.333322E+0	1.337704E+0	1.379763E+0	1.376074E+0	1.400331E+0	1.386201E+0	1.357221E+0	1.410178E+0	1.402257E+0	1.388993E+0	1.402918E+0	1.466862E+0	1.379124E+0	1.415102E+0	1.399506E+0	1.420730E+0	1.413216E+0	1.400289E+0	1.413550E+0	1.413678E+0	1.381769E+0	1.440950E+0	1.398977E+0	1.374911E+0	1.386091E+0	1.356904E+0	1.358086E+0	1.389026E+0	1.387705E+0	1.385394E+0	1.422800E+0	1.443069E+0	1.419872E+0	1.382107E+0	1.380632E+0	1.394884E+0	1.390570E+0	1.372806E+0	1.387360E+0	1.361522E+0	1.399511E+0	1.356139E+0	1.400526E+0	1.432566E+0	1.398057E+0	1.358466E+0	1.393700E+0	1.390867E+0	1.359418E+0	1.343642E+0	1.377206E+0	1.379941E+0	1.353473E+0	1.360935E+0	1.402912E+0	1.477339E+0	1.359311E+0	1.403342E+0	1.406708E+0	1.375454E+0	1.450012E+0	1.371217E+0	1.421235E+0	1.403071E+0	1.367707E+0	1.482879E+0	1.346834E+0	1.367796E+0	1.383890E+0	1.377338E+0	1.400068E+0	1.382602E+0	1.453670E+0	1.348148E+0	1.397134E+0
5.520210E+2	1.292704E+0	1.229874E+0	1.269132E+0	1.332957E+0	1.273677E+0	1.312706E+0	1.293152E+0	1.299021E+0	1.331051E+0	1.276000E+0	1.321734E+0	1.322610E+0	1.352004E+0	1.348192E+0	1.297097E+0	1.275692E+0	1.317301E+0	1.286830E+0	1.290280E+0	1.321876E+0	1.324802E+0	1.295034E+0	1.274849E+0	1.313050E+0	1.256603E+0	1.348826E+0	1.319940E+0	1.342180E+0	1.311087E+0	1.328596E+0	1.314561E+0	1.325144E+0	1.324629E+0	1.353196E+0	1.273148E+0	1.310899E+0	1.311396E+0	1.293959E+0	1.412090E+0	1.329498E+0	1.339536E+0	1.330188E+0	1.321106E+0	1.275893E+0	1.265764E+0	1.256005E+0	1.320312E+0	1.330044E+0	1.314930E+0	1.271939E+0	1.318981E+0	1.295679E+0	1.288607E+0	1.334144E+0	1.291741E+0	1.275443E+0	1.285265E+0	1.288292E+0	1.275786E+0	1.316180E+0	1.255696E+0	1.260780E+0	1.287180E+0	1.283421E+0	1.308793E+0	1.306791E+0	1.350817E+0	1.342438E+0	1.283081E+0	1.246785E+0	1.274937E+0	1.303298E+0	1.307755E+0	1.294815E+0	1.270848E+0	1.281430E+0	1.290952E+0	1.289838E+0	1.278696E+0	1.318702E+0	1.324163E+0	1.367970E+0	1.276510E+0	1.317702E+0	1.307066E+0	1.274490E+0	1.257531E+0	1.333154E+0	1.294234E+0	1.303003E+0	1.337818E+0	1.299317E+0	1.309457E+0	1.361534E+0	1.287975E+0	1.307581E+0	1.278188E+0	1.336816E+0	1.333557E+0	1.281766E+0	1.330463E+0	1.316053E+0	1.342048E+0	1.290275E+0	1.250428E+0	1.339822E+0	1.343198E+0	1.295454E+0	1.270157E+0	1.277537E+0	1.328892E+0	1.272425E+0	1.252295E+0	1.340771E+0	1.303939E+0	1.270880E+0	1.345527E+0	1.350194E+0	1.290205E+0	1.232749E+0	1.241244E+0	1.351011E+0	1.296730E+0	1.247280E+0	1.265415E+0	1.270658E+0	1.320611E+0	1.291832E+0	1.297795E+0	1.275196E+0	1.248569E+0	1.324049E+0	1.252904E+0	1.312968E+0	1.329017E+0	1.315264E+0	1.306374E+0	1.306859E+0	1.277606E+0	1.273079E+0	1.297635E+0	1.313333E+0	1.279990E+0	1.296411E+0	1.229414E+0	1.317792E+0	1.262856E+0	1.316546E+0	1.297607E+0	1.299558E+0	1.293277E+0	1.293472E+0	1.291790E+0	1.289847E+0	1.285731E+0	1.330681E+0	1.281828E+0	1.317964E+0	1.326833E+0	1.304126E+0	1.343257E+0	1.310580E+0	1.326090E+0	1.308760E+0	1.293465E+0	1.244058E+0	1.287152E+0	1.318890E+0	1.327035E+0	1.320154E+0
5.527590E+2	1.367912E+0	1.315954E+0	1.341669E+0	1.295410E+0	1.290679E+0	1.279570E+0	1.285337E+0	1.342347E+0	1.324914E+0	1.287741E+0	1.334786E+0	1.315427E+0	1.392874E+0	1.302856E+0	1.331960E+0	1.321854E+0	1.333323E+0	1.334606E+0	1.318713E+0	1.274513E+0	1.336300E+0	1.316053E+0	1.344222E+0	1.318206E+0	1.335532E+0	1.360653E+0	1.325025E+0	1.335687E+0	1.313079E+0	1.292351E+0	1.317800E+0	1.303176E+0	1.295842E+0	1.352080E+0	1.323540E+0	1.306444E+0	1.315012E+0	1.298520E+0	1.318830E+0	1.310719E+0	1.300823E+0	1.279728E+0	1.356887E+0	1.353716E+0	1.342110E+0	1.307897E+0	1.360209E+0	1.273425E+0	1.345356E+0	1.334894E+0	1.292194E+0	1.336698E+0	1.341265E+0	1.315948E+0	1.269824E+0	1.346780E+0	1.251125E+0	1.297783E+0	1.359595E+0	1.291450E+0	1.332141E+0	1.373155E+0	1.325374E+0	1.280787E+0	1.337261E+0	1.277868E+0	1.328530E+0	1.262776E+0	1.318779E+0	1.298711E+0	1.272838E+0	1.273647E+0	1.309683E+0	1.325322E+0	1.335605E+0	1.306382E+0	1.317661E+0	1.302013E+0	1.329824E+0	1.341073E+0	1.316316E+0	1.293951E+0	1.308045E+0	1.288598E+0	1.322978E+0	1.285201E+0	1.318147E+0	1.253848E+0	1.311978E+0	1.305621E+0	1.388042E+0	1.316308E+0	1.294303E+0	1.318313E+0	1.361955E+0	1.285534E+0	1.293947E+0	1.324160E+0	1.330062E+0	1.329054E+0	1.340142E+0	1.256376E+0	1.314150E+0	1.305225E+0	1.336819E+0	1.316928E+0	1.366839E+0	1.327294E+0	1.321490E+0	1.308833E+0	1.239161E+0	1.277902E+0	1.300082E+0	1.328616E+0	1.244432E+0	1.302123E+0	1.295921E+0	1.285331E+0	1.290843E+0	1.281411E+0	1.345330E+0	1.312979E+0	1.374481E+0	1.295031E+0	1.342749E+0	1.331577E+0	1.336725E+0	1.324871E+0	1.274366E+0	1.304213E+0	1.316005E+0	1.320928E+0	1.338206E+0	1.292507E+0	1.315001E+0	1.244254E+0	1.317960E+0	1.294796E+0	1.300036E+0	1.289303E+0	1.311261E+0	1.344944E+0	1.343449E+0	1.303013E+0	1.301421E+0	1.265922E+0	1.299635E+0	1.309163E+0	1.297428E+0	1.326617E+0	1.343262E+0	1.353624E+0	1.382592E+0	1.341545E+0	1.318382E+0	1.320463E+0	1.309158E+0	1.312486E+0	1.293438E+0	1.338137E+0	1.347609E+0	1.275861E+0	1.323775E+0	1.279166E+0	1.330729E+0	1.284416E+0	1.277505E+0	1.342124E+0	1.391304E+0	1.333064E+0
5.535220E+2	1.204447E+0	1.210430E+0	1.138713E+0	1.186176E+0	1.266451E+0	1.232400E+0	1.235425E+0	1.256512E+0	1.168831E+0	1.177401E+0	1.237650E+0	1.282047E+0	1.231581E+0	1.262074E+0	1.253178E+0	1.177533E+0	1.197311E+0	1.136196E+0	1.251509E+0	1.181577E+0	1.243970E+0	1.238457E+0	1.275476E+0	1.230154E+0	1.147660E+0	1.228811E+0	1.291221E+0	1.235593E+0	1.196450E+0	1.242061E+0	1.247893E+0	1.163852E+0	1.139389E+0	1.173648E+0	1.208115E+0	1.224335E+0	1.178489E+0	1.212366E+0	1.206489E+0	1.242043E+0	1.236725E+0	1.237694E+0	1.263335E+0	1.209887E+0	1.207097E+0	1.222706E+0	1.240808E+0	1.180915E+0	1.200954E+0	1.232052E+0	1.199156E+0	1.258719E+0	1.215195E+0	1.255332E+0	1.175945E+0	1.186409E+0	1.179308E+0	1.237141E+0	1.198935E+0	1.184434E+0	1.231541E+0	1.244924E+0	1.175478E+0	1.217565E+0	1.213771E+0	1.200520E+0	1.212065E+0	1.176382E+0	1.164536E+0	1.228074E+0	1.205739E+0	1.184602E+0	1.235232E+0	1.226560E+0	1.211484E+0	1.215670E+0	1.143862E+0	1.206735E+0	1.282058E+0	1.196848E+0	1.240353E+0	1.275968E+0	1.279452E+0	1.181877E+0	1.211097E+0	1.185212E+0	1.215605E+0	1.210517E+0	1.191909E+0	1.202824E+0	1.200512E+0	1.204644E+0	1.194703E+0	1.207740E+0	1.215081E+0	1.174092E+0	1.183431E+0	1.169958E+0	1.286832E+0	1.237756E+0	1.214509E+0	1.179180E+0	1.224921E+0	1.239480E+0	1.224178E+0	1.233636E+0	1.249485E+0	1.219898E+0	1.184141E+0	1.200167E+0	1.196571E+0	1.203303E+0	1.175506E+0	1.231037E+0	1.192176E+0	1.166964E+0	1.234528E+0	1.184650E+0	1.214466E+0	1.136751E+0	1.196693E+0	1.194616E+0	1.172432E+0	1.181208E+0	1.190003E+0	1.237585E+0	1.226487E+0	1.249752E+0	1.194763E+0	1.214757E+0	1.259281E+0	1.255774E+0	1.203636E+0	1.145681E+0	1.171059E+0	1.216827E+0	1.180269E+0	1.171977E+0	1.264888E+0	1.151707E+0	1.209530E+0	1.205713E+0	1.254015E+0	1.119751E+0	1.208998E+0	1.170005E+0	1.213116E+0	1.173701E+0	1.233765E+0	1.191758E+0	1.204992E+0	1.199474E+0	1.230990E+0	1.231764E+0	1.198741E+0	1.223252E+0	1.182509E+0	1.182801E+0	1.200863E+0	1.172637E+0	1.257604E+0	1.204425E+0	1.245798E+0	1.220596E+0	1.198772E+0	1.209128E+0	1.247023E+0	1.286673E+0	1.138933E+0	1.267539E+0
5.542580E+2	1.129394E+0	1.127949E+0	1.120222E+0	1.167791E+0	1.191946E+0	1.180137E+0	1.147462E+0	1.146903E+0	1.157130E+0	1.161440E+0	1.154535E+0	1.153387E+0	1.155887E+0	1.145823E+0	1.189462E+0	1.119525E+0	1.209861E+0	1.139029E+0	1.159339E+0	1.113911E+0	1.155667E+0	1.156359E+0	1.186484E+0	1.108902E+0	1.147777E+0	1.115287E+0	1.147908E+0	1.138628E+0	1.173606E+0	1.138890E+0	1.113142E+0	1.124539E+0	1.101055E+0	1.177675E+0	1.077951E+0	1.135410E+0	1.142483E+0	1.134976E+0	1.184633E+0	1.104112E+0	1.138974E+0	1.159183E+0	1.127136E+0	1.172873E+0	1.130215E+0	1.136608E+0	1.157534E+0	1.121005E+0	1.153166E+0	1.133538E+0	1.143419E+0	1.125400E+0	1.162634E+0	1.110594E+0	1.155168E+0	1.146060E+0	1.113971E+0	1.178232E+0	1.099375E+0	1.128538E+0	1.133652E+0	1.160191E+0	1.134107E+0	1.098029E+0	1.138365E+0	1.132425E+0	1.135741E+0	1.101222E+0	1.102501E+0	1.118986E+0	1.111324E+0	1.108487E+0	1.150820E+0	1.159032E+0	1.142192E+0	1.126162E+0	1.144335E+0	1.129155E+0	1.157185E+0	1.127443E+0	1.120503E+0	1.117267E+0	1.111948E+0	1.124349E+0	1.079585E+0	1.124528E+0	1.126839E+0	1.155775E+0	1.111135E+0	1.104576E+0	1.186105E+0	1.154007E+0	1.114263E+0	1.160778E+0	1.185254E+0	1.150507E+0	1.096228E+0	1.096057E+0	1.172067E+0	1.153630E+0	1.139399E+0	1.146820E+0	1.143450E+0	1.120335E+0	1.155465E+0	1.152854E+0	1.114967E+0	1.183465E+0	1.108915E+0	1.106125E+0	1.184739E+0	1.155962E+0	1.120978E+0	1.152360E+0	1.136122E+0	1.084202E+0	1.152869E+0	1.080801E+0	1.201001E+0	1.117336E+0	1.130957E+0	1.116846E+0	1.162946E+0	1.054202E+0	1.112422E+0	1.147026E+0	1.172487E+0	1.150148E+0	1.101780E+0	1.178983E+0	1.097797E+0	1.147876E+0	1.162000E+0	1.152844E+0	1.122782E+0	1.130620E+0	1.150344E+0	1.185960E+0	1.182358E+0	1.179897E+0	1.106549E+0	1.131492E+0	1.127833E+0	1.095356E+0	1.058011E+0	1.147962E+0	1.150913E+0	1.146209E+0	1.100786E+0	1.113794E+0	1.161388E+0	1.127655E+0	1.121925E+0	1.147531E+0	1.109946E+0	1.113179E+0	1.096148E+0	1.142466E+0	1.150884E+0	1.170189E+0	1.163846E+0	1.112168E+0	1.143852E+0	1.126045E+0	1.186314E+0	1.115011E+0	1.183409E+0	1.178466E+0	1.126299E+0	1.070039E+0
5.550140E+2	1.077148E+0	1.035823E+0	1.071359E+0	1.040191E+0	1.042221E+0	1.063487E+0	1.043266E+0	1.053951E+0	1.002785E+0	1.070280E+0	1.066204E+0	1.069008E+0	1.047976E+0	1.037121E+0	1.059706E+0	1.100595E+0	1.035979E+0	1.030491E+0	1.071527E+0	1.046468E+0	1.048309E+0	1.074907E+0	1.073732E+0	1.058819E+0	1.019322E+0	1.074106E+0	1.090730E+0	1.009207E+0	1.054663E+0	1.047257E+0	1.035295E+0	1.030717E+0	1.004125E+0	1.087985E+0	1.058667E+0	1.014030E+0	1.042354E+0	1.061562E+0	1.096520E+0	1.043280E+0	1.102479E+0	9.970092E-1	1.081105E+0	1.040249E+0	1.061170E+0	1.015236E+0	1.060817E+0	1.066612E+0	1.044825E+0	1.069784E+0	1.102017E+0	1.033846E+0	1.068453E+0	1.071123E+0	1.061769E+0	1.024428E+0	1.019433E+0	9.824827E-1	1.040210E+0	1.025401E+0	1.057137E+0	1.043287E+0	1.049811E+0	1.020948E+0	1.046574E+0	1.084422E+0	1.060575E+0	1.067582E+0	1.071166E+0	1.039287E+0	1.016657E+0	1.020511E+0	1.012842E+0	1.032845E+0	1.066934E+0	1.083196E+0	1.060003E+0	1.009398E+0	1.044921E+0	1.042882E+0	1.071249E+0	1.091295E+0	1.043936E+0	1.055577E+0	1.106761E+0	1.038232E+0	1.041826E+0	1.045586E+0	1.048454E+0	1.027775E+0	1.077958E+0	1.067689E+0	1.061335E+0	1.052857E+0	1.071139E+0	1.048266E+0	1.098673E+0	1.061944E+0	1.032066E+0	1.038277E+0	1.116407E+0	1.036871E+0	1.094950E+0	1.053773E+0	1.083379E+0	9.982633E-1	1.045050E+0	1.038651E+0	1.050055E+0	1.029883E+0	1.046804E+0	1.104435E+0	1.007489E+0	1.028218E+0	1.060482E+0	1.057815E+0	1.089909E+0	1.036509E+0	1.047220E+0	1.028363E+0	1.023851E+0	1.040171E+0	1.013499E+0	1.064159E+0	1.083531E+0	1.022838E+0	1.103133E+0	1.073779E+0	1.026582E+0	9.797170E-1	1.030115E+0	1.109960E+0	1.019733E+0	1.051533E+0	1.076306E+0	1.054402E+0	1.028626E+0	1.065463E+0	1.046575E+0	1.040552E+0	1.032373E+0	1.104239E+0	1.059097E+0	1.066735E+0	1.069554E+0	1.056600E+0	1.071621E+0	1.087105E+0	1.072495E+0	1.043918E+0	1.078679E+0	1.050524E+0	9.843063E-1	1.051807E+0	1.041665E+0	1.053991E+0	1.002597E+0	1.004948E+0	1.055400E+0	1.033308E+0	1.037033E+0	1.051950E+0	1.097557E+0	1.046001E+0	1.060686E+0	1.012680E+0	1.077672E+0	1.061469E+0	1.016772E+0	1.121469E+0
5.557600E+2	1.008351E+0	1.009224E+0	1.040750E+0	1.060406E+0	1.013385E+0	1.032931E+0	1.009682E+0	1.040976E+0	1.049672E+0	9.762757E-1	1.003874E+0	9.759297E-1	1.013534E+0	1.059966E+0	1.054697E+0	1.012976E+0	1.004643E+0	9.975993E-1	1.004819E+0	1.034793E+0	1.019100E+0	1.000902E+0	1.004610E+0	1.028172E+0	1.003856E+0	1.000675E+0	1.009712E+0	9.854237E-1	1.024789E+0	9.636198E-1	9.927064E-1	1.032944E+0	9.599623E-1	9.989222E-1	9.616877E-1	9.533743E-1	1.010203E+0	9.909826E-1	1.040517E+0	1.037496E+0	1.029567E+0	9.949055E-1	1.059241E+0	9.678636E-1	1.001171E+0	1.044192E+0	9.785320E-1	9.631940E-1	1.019766E+0	9.912592E-1	1.051901E+0	9.591702E-1	1.025910E+0	1.012456E+0	1.006212E+0	9.997179E-1	9.927959E-1	1.008920E+0	9.879263E-1	9.864725E-1	9.970054E-1	9.854066E-1	1.024392E+0	9.502716E-1	1.000245E+0	9.822186E-1	1.028963E+0	9.907058E-1	9.576173E-1	1.033429E+0	1.006790E+0	1.011637E+0	9.982623E-1	1.001364E+0	9.977008E-1	1.023618E+0	9.573896E-1	9.935369E-1	1.008865E+0	9.933133E-1	9.997992E-1	1.047080E+0	1.035064E+0	9.946285E-1	9.718860E-1	1.013977E+0	1.016665E+0	1.058493E+0	1.008417E+0	9.867891E-1	1.011977E+0	1.032019E+0	1.018065E+0	1.001145E+0	1.008206E+0	1.004145E+0	9.896171E-1	1.009613E+0	9.658184E-1	1.014219E+0	1.019720E+0	1.003823E+0	9.977385E-1	1.044352E+0	9.840211E-1	1.037937E+0	9.882047E-1	9.858558E-1	1.003488E+0	1.029373E+0	1.017491E+0	9.919228E-1	9.822389E-1	9.968841E-1	1.065360E+0	1.006184E+0	1.032138E+0	1.010672E+0	1.026584E+0	1.002697E+0	9.735171E-1	9.652075E-1	1.054149E+0	1.049667E+0	1.026247E+0	1.009739E+0	1.054941E+0	9.978918E-1	1.046841E+0	1.007767E+0	1.064154E+0	1.007924E+0	1.018537E+0	9.961652E-1	1.033788E+0	9.713145E-1	9.912067E-1	1.001741E+0	1.026448E+0	1.029717E+0	1.004266E+0	9.982950E-1	9.877060E-1	1.041842E+0	9.869389E-1	9.741459E-1	1.055174E+0	1.010296E+0	1.007406E+0	9.748698E-1	9.997727E-1	1.015215E+0	1.003448E+0	1.014112E+0	1.004497E+0	9.854052E-1	9.954771E-1	9.762326E-1	1.021836E+0	1.027916E+0	1.056066E+0	1.000877E+0	1.034849E+0	9.700411E-1	1.005459E+0	9.990061E-1	9.774528E-1	9.978162E-1	1.047237E+0	1.042567E+0
5.560130E+2	9.491004E-1	9.492714E-1	9.616601E-1	9.684675E-1	9.985081E-1	9.345557E-1	9.649504E-1	9.639248E-1	9.826074E-1	9.587833E-1	9.840290E-1	9.579998E-1	9.142754E-1	9.681462E-1	9.731439E-1	9.389968E-1	9.050486E-1	9.205732E-1	8.991664E-1	9.325626E-1	9.601150E-1	9.661939E-1	9.463956E-1	9.307913E-1	9.140806E-1	9.680503E-1	9.444833E-1	9.306606E-1	9.092326E-1	9.286911E-1	9.105579E-1	9.495269E-1	9.236967E-1	9.546718E-1	9.321096E-1	9.945054E-1	9.730675E-1	9.223799E-1	9.353430E-1	9.177030E-1	9.482955E-1	9.756182E-1	9.543139E-1	9.394174E-1	9.789678E-1	9.428190E-1	9.505115E-1	9.636973E-1	8.971824E-1	9.590555E-1	9.628420E-1	9.389840E-1	9.277991E-1	9.547900E-1	9.448934E-1	9.396969E-1	9.426655E-1	9.691468E-1	9.202082E-1	8.589045E-1	9.206775E-1	9.479120E-1	9.509158E-1	9.356595E-1	9.841868E-1	9.754263E-1	9.656869E-1	9.374180E-1	9.504488E-1	9.295441E-1	9.578661E-1	9.491235E-1	9.613045E-1	9.529286E-1	9.751403E-1	9.516567E-1	9.260269E-1	9.392593E-1	9.790857E-1	9.303334E-1	9.058991E-1	1.004856E+0	9.348000E-1	9.808261E-1	9.157065E-1	9.238142E-1	9.253338E-1	9.223922E-1	9.810679E-1	9.277435E-1	9.439167E-1	9.468851E-1	9.624584E-1	9.577688E-1	9.627834E-1	9.446559E-1	9.110594E-1	9.526051E-1	9.778140E-1	9.303419E-1	9.650938E-1	9.327008E-1	9.811453E-1	9.299166E-1	9.124853E-1	9.373216E-1	9.782859E-1	9.443388E-1	9.476946E-1	9.541028E-1	9.747940E-1	9.147062E-1	9.802691E-1	9.479973E-1	9.518400E-1	9.571685E-1	9.688495E-1	9.192644E-1	9.621007E-1	9.862183E-1	9.996629E-1	9.711899E-1	9.381378E-1	9.352380E-1	9.283134E-1	9.405733E-1	1.015991E+0	9.613159E-1	8.901817E-1	9.432635E-1	9.575181E-1	9.585675E-1	9.346458E-1	9.389100E-1	9.578415E-1	9.795804E-1	9.314467E-1	9.414924E-1	9.467729E-1	9.529961E-1	9.709719E-1	9.611430E-1	9.512547E-1	9.711302E-1	9.611049E-1	9.480603E-1	9.440134E-1	9.338183E-1	9.956367E-1	9.689256E-1	9.254319E-1	1.006287E+0	9.338059E-1	9.788440E-1	9.762062E-1	9.569328E-1	9.278475E-1	9.516835E-1	9.537750E-1	9.712859E-1	1.004455E+0	9.143899E-1	9.451448E-1	9.421227E-1	9.697718E-1	9.234337E-1	9.382570E-1	9.451911E-1	9.472075E-1	9.144033E-1
5.565090E+2	1.002179E+0	9.894722E-1	9.866608E-1	1.019042E+0	9.952468E-1	9.754854E-1	9.895281E-1	9.913253E-1	1.029854E+0	9.777668E-1	1.002929E+0	9.875255E-1	9.805665E-1	1.005445E+0	1.092352E+0	9.656901E-1	9.913771E-1	9.891051E-1	1.019759E+0	1.053715E+0	9.858045E-1	9.978688E-1	1.011450E+0	1.017250E+0	1.029452E+0	9.941161E-1	1.038149E+0	1.012482E+0	9.835147E-1	1.001344E+0	1.012165E+0	9.907661E-1	9.997355E-1	1.017523E+0	1.017284E+0	9.873677E-1	9.952685E-1	9.632999E-1	1.019342E+0	9.901619E-1	1.007226E+0	9.795179E-1	9.786951E-1	9.694871E-1	1.021696E+0	1.035863E+0	1.013344E+0	9.768737E-1	1.000873E+0	9.858513E-1	9.993678E-1	1.017286E+0	9.731634E-1	1.010093E+0	9.920451E-1	9.671706E-1	1.005459E+0	9.976796E-1	1.024821E+0	1.013776E+0	9.854912E-1	1.028779E+0	1.012066E+0	9.954273E-1	9.917870E-1	9.708317E-1	9.928643E-1	1.001550E+0	1.027361E+0	9.780079E-1	9.959262E-1	9.802555E-1	9.638720E-1	9.655490E-1	9.915795E-1	1.020081E+0	9.955514E-1	1.004153E+0	1.033183E+0	9.533688E-1	9.790282E-1	1.016099E+0	9.913266E-1	9.811975E-1	9.771770E-1	1.016648E+0	9.912206E-1	9.969323E-1	9.907498E-1	1.002113E+0	9.798238E-1	9.803576E-1	1.006618E+0	9.843668E-1	1.009333E+0	1.001073E+0	1.017698E+0	1.035006E+0	9.950378E-1	9.520527E-1	1.017123E+0	1.027637E+0	1.039684E+0	1.011939E+0	1.031427E+0	9.851284E-1	1.020910E+0	1.010785E+0	9.964432E-1	1.014121E+0	1.011150E+0	9.911655E-1	1.019501E+0	9.477087E-1	1.017162E+0	9.979931E-1	9.797441E-1	1.018528E+0	1.047117E+0	1.006552E+0	9.741526E-1	1.029535E+0	9.331038E-1	1.017655E+0	9.955061E-1	1.017868E+0	9.727909E-1	9.862099E-1	1.019637E+0	9.778419E-1	1.017126E+0	1.008183E+0	9.973764E-1	1.007466E+0	9.539483E-1	1.005740E+0	9.937470E-1	1.014768E+0	1.040553E+0	9.962131E-1	9.986269E-1	9.848091E-1	1.041659E+0	9.946948E-1	1.009518E+0	9.835158E-1	1.010122E+0	9.955022E-1	9.871205E-1	1.010603E+0	9.895682E-1	1.031672E+0	9.629094E-1	1.011252E+0	9.950360E-1	9.883262E-1	9.784488E-1	9.882070E-1	1.040559E+0	1.003899E+0	9.996670E-1	9.917729E-1	1.039039E+0	9.919760E-1	1.000041E+0	9.865843E-1	9.852200E-1	1.020958E+0	9.384959E-1	1.036201E+0
5.570270E+2	9.935209E-1	9.769728E-1	1.013018E+0	9.816891E-1	9.661776E-1	9.450233E-1	9.665243E-1	9.801448E-1	1.015422E+0	9.721358E-1	9.638557E-1	9.665890E-1	1.001781E+0	9.918193E-1	9.703682E-1	9.990042E-1	9.636588E-1	9.925887E-1	1.016129E+0	1.014589E+0	9.614300E-1	9.557917E-1	1.021845E+0	9.673964E-1	1.016686E+0	9.826362E-1	9.933808E-1	9.816621E-1	9.660328E-1	9.686725E-1	9.711006E-1	9.701054E-1	9.944846E-1	1.002426E+0	9.871939E-1	9.784739E-1	1.000689E+0	9.859118E-1	9.710534E-1	9.714596E-1	9.772192E-1	9.494027E-1	1.015067E+0	9.927854E-1	9.703873E-1	1.005090E+0	9.514563E-1	9.578121E-1	9.665454E-1	1.047165E+0	9.921586E-1	9.584376E-1	1.007078E+0	9.388901E-1	9.534250E-1	9.916760E-1	9.503225E-1	1.003459E+0	9.965384E-1	9.757012E-1	1.003480E+0	9.478399E-1	1.004131E+0	9.999223E-1	1.002522E+0	9.751064E-1	1.024462E+0	9.658056E-1	9.957534E-1	9.675232E-1	9.897844E-1	9.559623E-1	9.713558E-1	9.723653E-1	9.843522E-1	9.908563E-1	9.845160E-1	9.687029E-1	1.031836E+0	9.957453E-1	9.416121E-1	1.023578E+0	9.704908E-1	9.768842E-1	9.609338E-1	9.737695E-1	1.011953E+0	9.790458E-1	9.997539E-1	9.641584E-1	9.688918E-1	9.581361E-1	1.002556E+0	9.969193E-1	1.000718E+0	9.771555E-1	9.702012E-1	9.525114E-1	1.009020E+0	1.005518E+0	9.491195E-1	9.703965E-1	9.867507E-1	9.843922E-1	1.005724E+0	9.712160E-1	9.872067E-1	9.880725E-1	9.557073E-1	9.781308E-1	1.010728E+0	9.652466E-1	9.750959E-1	9.589609E-1	9.662057E-1	9.583580E-1	9.710836E-1	9.896327E-1	9.781497E-1	9.639940E-1	1.013002E+0	9.554859E-1	1.028373E+0	9.641460E-1	9.701943E-1	9.929420E-1	1.053448E+0	9.601426E-1	9.828778E-1	1.012188E+0	1.004154E+0	1.000705E+0	9.411747E-1	9.447487E-1	9.718097E-1	1.005973E+0	9.763297E-1	9.643275E-1	1.013117E+0	9.903812E-1	9.857253E-1	9.771250E-1	9.744097E-1	9.962251E-1	9.790142E-1	1.009902E+0	9.920282E-1	1.023522E+0	9.908762E-1	9.591993E-1	1.012544E+0	9.972887E-1	9.572227E-1	9.884082E-1	1.003531E+0	1.012064E+0	1.039408E+0	9.952777E-1	9.946756E-1	9.570746E-1	1.011537E+0	9.996564E-1	9.773698E-1	9.910390E-1	9.606689E-1	9.999005E-1	1.032109E+0	9.711162E-1	9.365264E-1	1.003856E+0
5.575470E+2	9.617517E-1	1.012669E+0	1.006691E+0	1.018304E+0	9.889515E-1	9.992983E-1	9.773218E-1	1.027713E+0	9.490957E-1	1.006829E+0	9.728284E-1	1.007883E+0	9.951142E-1	9.994088E-1	1.020335E+0	1.024865E+0	1.008020E+0	1.021916E+0	9.886278E-1	1.027658E+0	1.015575E+0	1.010108E+0	1.054336E+0	1.039287E+0	9.960925E-1	1.004916E+0	9.977503E-1	1.014832E+0	1.022942E+0	1.023584E+0	1.033839E+0	1.028443E+0	1.028064E+0	9.673965E-1	1.006572E+0	1.031277E+0	9.847359E-1	9.789678E-1	1.039948E+0	1.064969E+0	1.019133E+0	1.031684E+0	1.013555E+0	1.043206E+0	1.020502E+0	9.936966E-1	1.040960E+0	1.056488E+0	1.051024E+0	1.021991E+0	9.726279E-1	9.955596E-1	1.031584E+0	1.084771E+0	1.025945E+0	1.006929E+0	1.037696E+0	1.014469E+0	1.005070E+0	1.037520E+0	1.011520E+0	9.703858E-1	1.000627E+0	9.923843E-1	1.011707E+0	1.012504E+0	1.025535E+0	1.009435E+0	1.005408E+0	1.022138E+0	9.892827E-1	1.036748E+0	1.039794E+0	1.001333E+0	1.018017E+0	1.022675E+0	1.055676E+0	9.958597E-1	1.004475E+0	1.035065E+0	1.055816E+0	1.012270E+0	1.028155E+0	9.978844E-1	1.022358E+0	1.034448E+0	9.975794E-1	9.809951E-1	1.043043E+0	1.013869E+0	1.048869E+0	1.008420E+0	9.963275E-1	1.033785E+0	1.057211E+0	1.006318E+0	1.040758E+0	1.000786E+0	1.038373E+0	9.877286E-1	1.012491E+0	9.951501E-1	9.943819E-1	1.038815E+0	1.025503E+0	1.029497E+0	1.026049E+0	1.018840E+0	1.027205E+0	1.033527E+0	1.019484E+0	1.019967E+0	1.014950E+0	9.952200E-1	1.054470E+0	1.030640E+0	1.038602E+0	1.001448E+0	1.012227E+0	1.012812E+0	1.033211E+0	9.836473E-1	1.057677E+0	1.020751E+0	9.969015E-1	1.013503E+0	1.037674E+0	1.015577E+0	1.035928E+0	9.992503E-1	1.005830E+0	1.032798E+0	1.027097E+0	9.530563E-1	1.033604E+0	9.959512E-1	1.012024E+0	1.011109E+0	1.019893E+0	1.020864E+0	9.694101E-1	1.022806E+0	1.022097E+0	9.943604E-1	1.049078E+0	1.028165E+0	1.060312E+0	1.030467E+0	1.022907E+0	9.555517E-1	9.812043E-1	1.057524E+0	9.978658E-1	1.007459E+0	1.009509E+0	1.045834E+0	9.935918E-1	1.011259E+0	1.020635E+0	9.790325E-1	1.011475E+0	1.018408E+0	1.037259E+0	1.020448E+0	1.007956E+0	1.009081E+0	9.734111E-1	1.017954E+0	9.725133E-1	1.008480E+0
5.580110E+2	1.011636E+0	1.017477E+0	9.709412E-1	1.011176E+0	9.984661E-1	1.002433E+0	1.004876E+0	9.885438E-1	1.005640E+0	1.039399E+0	9.954227E-1	1.041596E+0	9.572617E-1	1.000465E+0	1.001664E+0	9.748775E-1	9.875891E-1	1.047971E+0	9.744792E-1	9.663429E-1	1.023287E+0	1.016073E+0	9.687409E-1	1.029362E+0	1.012721E+0	1.031737E+0	1.008271E+0	1.012037E+0	1.000368E+0	1.028645E+0	9.727937E-1	1.009190E+0	1.005746E+0	1.035993E+0	9.745879E-1	1.000671E+0	1.007160E+0	1.032322E+0	9.990537E-1	1.031346E+0	1.006989E+0	9.948884E-1	1.036717E+0	1.013170E+0	1.038510E+0	9.786264E-1	9.708447E-1	9.851398E-1	9.811950E-1	1.022163E+0	1.009751E+0	1.007794E+0	9.778052E-1	9.775770E-1	1.004792E+0	1.026456E+0	9.929578E-1	1.013734E+0	9.978490E-1	9.842482E-1	1.013036E+0	1.031076E+0	9.660945E-1	1.015098E+0	9.791141E-1	1.011734E+0	9.945155E-1	1.015700E+0	9.508141E-1	9.623317E-1	9.862309E-1	1.048898E+0	9.750924E-1	1.013243E+0	1.000345E+0	1.033832E+0	9.976359E-1	1.013869E+0	9.910168E-1	9.923072E-1	1.013807E+0	9.658288E-1	9.987345E-1	9.969582E-1	1.044202E+0	1.015223E+0	1.011280E+0	1.033145E+0	9.985824E-1	1.032981E+0	9.930354E-1	9.562416E-1	9.922644E-1	1.055149E+0	9.568806E-1	1.040013E+0	9.807457E-1	9.963590E-1	9.731856E-1	1.008889E+0	1.001268E+0	1.010651E+0	9.705924E-1	9.707601E-1	1.007339E+0	1.002730E+0	9.697390E-1	1.006351E+0	1.007817E+0	9.939210E-1	9.766154E-1	1.001561E+0	1.034822E+0	9.806261E-1	9.967127E-1	9.882715E-1	1.006308E+0	9.763796E-1	1.004443E+0	1.009659E+0	1.015344E+0	1.013922E+0	9.984392E-1	9.566322E-1	1.046173E+0	9.708065E-1	9.670530E-1	9.881961E-1	9.834937E-1	1.060753E+0	1.038562E+0	9.859163E-1	1.027044E+0	1.001318E+0	1.008684E+0	1.034539E+0	1.033059E+0	1.001197E+0	9.558910E-1	9.835831E-1	9.942820E-1	1.018270E+0	1.027292E+0	9.828396E-1	9.672673E-1	9.879545E-1	1.043129E+0	1.012827E+0	1.004684E+0	1.027112E+0	1.017826E+0	9.910849E-1	9.919379E-1	9.885637E-1	1.060158E+0	9.806258E-1	9.780957E-1	9.967106E-1	1.017661E+0	1.017115E+0	1.019405E+0	1.031109E+0	9.900815E-1	9.994160E-1	1.023906E+0	9.456938E-1	1.015091E+0	9.688492E-1	1.029302E+0	9.609605E-1
5.585100E+2	9.626416E-1	9.735327E-1	1.001444E+0	9.646421E-1	9.688970E-1	9.728051E-1	1.014075E+0	9.967836E-1	9.788750E-1	9.703387E-1	9.686356E-1	9.568557E-1	9.757443E-1	9.730281E-1	9.641691E-1	9.772441E-1	9.614202E-1	9.486549E-1	9.768661E-1	9.837971E-1	1.013989E+0	9.442973E-1	9.227002E-1	9.713002E-1	9.833104E-1	1.000125E+0	9.607268E-1	9.783097E-1	1.015624E+0	9.642497E-1	9.472667E-1	9.869048E-1	9.634742E-1	9.413101E-1	9.625448E-1	9.624475E-1	9.947348E-1	9.604637E-1	9.307274E-1	9.703847E-1	9.859036E-1	9.572055E-1	9.521607E-1	9.660250E-1	1.012500E+0	9.822148E-1	9.917036E-1	9.701849E-1	9.555287E-1	1.004130E+0	9.545283E-1	9.427382E-1	9.608490E-1	9.526044E-1	9.722109E-1	9.414816E-1	9.890237E-1	9.936557E-1	9.519361E-1	9.634439E-1	9.425378E-1	9.862037E-1	1.004323E+0	9.529774E-1	1.003857E+0	9.617676E-1	9.108416E-1	9.602584E-1	1.023324E+0	9.865218E-1	9.647810E-1	9.403313E-1	1.005936E+0	9.800759E-1	9.387875E-1	9.650789E-1	9.471602E-1	9.935850E-1	9.520624E-1	9.838758E-1	9.800616E-1	9.689931E-1	9.712130E-1	9.724194E-1	9.825477E-1	9.360687E-1	9.314937E-1	9.758793E-1	9.422211E-1	9.774279E-1	9.740410E-1	9.960056E-1	9.865930E-1	9.695795E-1	9.482828E-1	9.961968E-1	9.530754E-1	9.481989E-1	9.968105E-1	9.862893E-1	9.692040E-1	9.994526E-1	9.632152E-1	1.010267E+0	9.712282E-1	9.948896E-1	9.532306E-1	9.892661E-1	9.541627E-1	9.525677E-1	9.914852E-1	9.972893E-1	9.941635E-1	1.007819E+0	9.409977E-1	9.818597E-1	9.754556E-1	1.011872E+0	9.892519E-1	9.821550E-1	9.688503E-1	1.000519E+0	9.604533E-1	1.007297E+0	9.613840E-1	9.633482E-1	9.681258E-1	9.549993E-1	9.827609E-1	9.698758E-1	9.572189E-1	9.864339E-1	9.622248E-1	9.723154E-1	9.726414E-1	9.684400E-1	9.755277E-1	9.733650E-1	9.882404E-1	9.999423E-1	1.011738E+0	9.681858E-1	9.314413E-1	1.007168E+0	9.423337E-1	9.809397E-1	9.512594E-1	9.839942E-1	9.650664E-1	9.572254E-1	9.866481E-1	9.133487E-1	1.026536E+0	1.006829E+0	9.744471E-1	9.811417E-1	9.648788E-1	9.647009E-1	9.772469E-1	1.004089E+0	9.348376E-1	1.055223E+0	9.704872E-1	9.751907E-1	9.279114E-1	9.845951E-1	9.691725E-1	9.618987E-1	9.183646E-1	9.754533E-1
5.590040E+2	1.094917E+0	1.054622E+0	1.064786E+0	1.034920E+0	1.051545E+0	1.057297E+0	1.058765E+0	1.025554E+0	1.027002E+0	1.050960E+0	1.051272E+0	1.047192E+0	1.082689E+0	1.024912E+0	1.004135E+0	1.009763E+0	1.041219E+0	1.035303E+0	1.057500E+0	1.002543E+0	1.048375E+0	1.022162E+0	1.032919E+0	1.016656E+0	1.023586E+0	1.043973E+0	1.031979E+0	1.009699E+0	1.011562E+0	1.076562E+0	1.043672E+0	1.029704E+0	1.034447E+0	1.040579E+0	1.059616E+0	1.054480E+0	1.025971E+0	1.044583E+0	1.060851E+0	1.077977E+0	1.017358E+0	1.045844E+0	1.031940E+0	1.062562E+0	1.035858E+0	1.058077E+0	1.045074E+0	1.009962E+0	1.092996E+0	1.019892E+0	1.001822E+0	1.048441E+0	1.042616E+0	1.081108E+0	1.048673E+0	1.021701E+0	1.002592E+0	1.064311E+0	1.032743E+0	1.055918E+0	1.083281E+0	1.052061E+0	1.010798E+0	1.000769E+0	1.014461E+0	1.036611E+0	1.068063E+0	1.034399E+0	1.008790E+0	1.039050E+0	1.052802E+0	1.039406E+0	1.019606E+0	1.046967E+0	1.042029E+0	9.878343E-1	1.020479E+0	1.037576E+0	9.871674E-1	1.060378E+0	1.007947E+0	1.043508E+0	1.055744E+0	1.096995E+0	1.033533E+0	1.002909E+0	1.069150E+0	1.047185E+0	1.054260E+0	1.066582E+0	1.020431E+0	1.033405E+0	1.060299E+0	1.045752E+0	1.055091E+0	1.043383E+0	1.014975E+0	1.025397E+0	1.043728E+0	1.023748E+0	1.046060E+0	1.024238E+0	1.052029E+0	1.038815E+0	1.004697E+0	1.042602E+0	1.081843E+0	1.015106E+0	1.074932E+0	1.008672E+0	1.048083E+0	1.042547E+0	1.012279E+0	1.103866E+0	1.051726E+0	9.988959E-1	1.078800E+0	1.061098E+0	1.068273E+0	1.028749E+0	1.024123E+0	1.048047E+0	1.009247E+0	1.035449E+0	1.043767E+0	1.017257E+0	1.029208E+0	1.081570E+0	1.030251E+0	1.016590E+0	9.796783E-1	1.019866E+0	1.044234E+0	1.042904E+0	9.808845E-1	1.023814E+0	1.014075E+0	1.051454E+0	1.039872E+0	1.033955E+0	1.058522E+0	1.020572E+0	1.024750E+0	1.063789E+0	1.052231E+0	1.082512E+0	1.017001E+0	9.815049E-1	1.064163E+0	1.044674E+0	1.089144E+0	1.043388E+0	1.068543E+0	1.025229E+0	1.011194E+0	1.041194E+0	1.035453E+0	1.045929E+0	1.050148E+0	1.039529E+0	1.011428E+0	9.903746E-1	1.053794E+0	1.041086E+0	1.044600E+0	1.020454E+0	1.052691E+0	1.059906E+0	1.110820E+0	9.585358E-1
5.595110E+2	1.032661E+0	1.073258E+0	1.062729E+0	1.073373E+0	1.077102E+0	1.056286E+0	1.055591E+0	1.075004E+0	1.065006E+0	1.049810E+0	1.064804E+0	1.060521E+0	1.057085E+0	1.022530E+0	1.016365E+0	1.070186E+0	1.049814E+0	1.034488E+0	1.050824E+0	1.035348E+0	1.047080E+0	1.077420E+0	1.036684E+0	1.030528E+0	1.049770E+0	1.037048E+0	1.063648E+0	1.096925E+0	1.038504E+0	1.006343E+0	1.065892E+0	1.081699E+0	1.004187E+0	1.059103E+0	1.075875E+0	1.042489E+0	1.040779E+0	1.072048E+0	1.031738E+0	1.003239E+0	9.803842E-1	1.038549E+0	1.032772E+0	1.015313E+0	1.027574E+0	1.028214E+0	1.035310E+0	1.059531E+0	9.863149E-1	1.067214E+0	1.079608E+0	1.045650E+0	1.042730E+0	1.041075E+0	1.032697E+0	1.043786E+0	1.048219E+0	1.018636E+0	1.057038E+0	1.051205E+0	1.021788E+0	1.041323E+0	1.035449E+0	1.088677E+0	1.033184E+0	1.033235E+0	1.059208E+0	1.051306E+0	1.037175E+0	1.071202E+0	1.041642E+0	1.065774E+0	1.058893E+0	1.048476E+0	1.025309E+0	1.023032E+0	1.066122E+0	1.018432E+0	1.063033E+0	1.041191E+0	1.102009E+0	1.016710E+0	1.087599E+0	1.052229E+0	1.046361E+0	1.090629E+0	1.051642E+0	1.042503E+0	1.033584E+0	1.031901E+0	1.071471E+0	1.049288E+0	1.022055E+0	1.065451E+0	1.016998E+0	1.031392E+0	1.053604E+0	1.049514E+0	1.039332E+0	1.083957E+0	1.057184E+0	1.045542E+0	1.034049E+0	1.039917E+0	1.028783E+0	1.050624E+0	1.020402E+0	1.064582E+0	1.036416E+0	1.085374E+0	1.036619E+0	1.000263E+0	1.048667E+0	1.081209E+0	1.068311E+0	1.021277E+0	1.086459E+0	1.038499E+0	1.012442E+0	1.051506E+0	1.042349E+0	1.080276E+0	1.085463E+0	1.072854E+0	1.015482E+0	1.079160E+0	1.064855E+0	1.049031E+0	1.040628E+0	1.064474E+0	1.022381E+0	1.021911E+0	1.061400E+0	1.076675E+0	1.076172E+0	1.004678E+0	9.959098E-1	1.082752E+0	1.022807E+0	1.041457E+0	1.022164E+0	1.034280E+0	1.015689E+0	1.041465E+0	1.031164E+0	1.043007E+0	1.018605E+0	1.027872E+0	1.076357E+0	1.057898E+0	1.053625E+0	1.038819E+0	1.049938E+0	1.047340E+0	1.032278E+0	1.016788E+0	1.082025E+0	1.037809E+0	1.039639E+0	1.046067E+0	1.072363E+0	1.059564E+0	1.040745E+0	1.058124E+0	1.066635E+0	1.112818E+0	1.044554E+0	1.041656E+0	1.029842E+0	1.092207E+0
5.600300E+2	9.557711E-1	9.135703E-1	9.413482E-1	8.860085E-1	9.714999E-1	9.511827E-1	9.284249E-1	9.186935E-1	9.268649E-1	9.185844E-1	9.611507E-1	9.469590E-1	9.436479E-1	9.627911E-1	9.262309E-1	9.603681E-1	9.682742E-1	9.754539E-1	9.397446E-1	9.410351E-1	9.175293E-1	9.413385E-1	9.565435E-1	9.499963E-1	9.112224E-1	8.923763E-1	9.296826E-1	9.364752E-1	9.306126E-1	9.236109E-1	9.340699E-1	9.363315E-1	9.480127E-1	9.211880E-1	8.933777E-1	9.370119E-1	9.578487E-1	9.261169E-1	9.244354E-1	9.014965E-1	9.879867E-1	9.798015E-1	9.554553E-1	9.192257E-1	9.453175E-1	9.314256E-1	9.431767E-1	9.639287E-1	9.475641E-1	8.983449E-1	9.597292E-1	9.638333E-1	9.365152E-1	9.426409E-1	9.352190E-1	9.487050E-1	9.739082E-1	9.248685E-1	9.340728E-1	9.820438E-1	9.411345E-1	9.248698E-1	9.319614E-1	9.387191E-1	9.317322E-1	9.205503E-1	9.454874E-1	9.638015E-1	9.946520E-1	9.510543E-1	9.760227E-1	9.711076E-1	9.567454E-1	9.169431E-1	9.605987E-1	9.779698E-1	9.444532E-1	9.366237E-1	9.568911E-1	9.338896E-1	9.518130E-1	9.417497E-1	9.471848E-1	9.506804E-1	9.823512E-1	9.394174E-1	9.398722E-1	9.551847E-1	9.058705E-1	9.172930E-1	9.483460E-1	9.538107E-1	9.198701E-1	9.254304E-1	9.298688E-1	9.393086E-1	9.350816E-1	9.605913E-1	9.532246E-1	9.342361E-1	9.485885E-1	9.166051E-1	9.525491E-1	9.299836E-1	9.432887E-1	9.220577E-1	9.045220E-1	9.312215E-1	9.552621E-1	9.755836E-1	9.263507E-1	9.570447E-1	9.059090E-1	9.274075E-1	9.114940E-1	9.462633E-1	8.873758E-1	9.298131E-1	9.412457E-1	9.718492E-1	9.213935E-1	9.544391E-1	9.726098E-1	9.151561E-1	9.578554E-1	9.649484E-1	9.509653E-1	9.639674E-1	9.076674E-1	9.152168E-1	9.576043E-1	9.183971E-1	9.290986E-1	9.748344E-1	9.551920E-1	9.678039E-1	9.216425E-1	9.504833E-1	9.273067E-1	9.044488E-1	8.914374E-1	9.641409E-1	9.494247E-1	9.233565E-1	9.340740E-1	9.334179E-1	9.292192E-1	9.375285E-1	8.900164E-1	9.581988E-1	9.117271E-1	9.268567E-1	9.379938E-1	9.349700E-1	9.167650E-1	9.574595E-1	9.399472E-1	9.495191E-1	8.774016E-1	9.591418E-1	9.461066E-1	8.954263E-1	9.326731E-1	9.314612E-1	9.296194E-1	9.247982E-1	9.259817E-1	9.354642E-1	9.811650E-1	9.519257E-1
5.605090E+2	1.007911E+0	9.671828E-1	9.513783E-1	1.013968E+0	9.907734E-1	9.932079E-1	9.902173E-1	9.870938E-1	9.932513E-1	1.032336E+0	1.010601E+0	9.714275E-1	9.933126E-1	9.952291E-1	9.687822E-1	1.018848E+0	1.038671E+0	9.787565E-1	9.908966E-1	9.642911E-1	9.864980E-1	9.861126E-1	9.945069E-1	9.984516E-1	9.820334E-1	9.737971E-1	9.713118E-1	1.000183E+0	1.001933E+0	1.020032E+0	1.016802E+0	9.861287E-1	9.794123E-1	9.888375E-1	1.011758E+0	9.897218E-1	1.016128E+0	1.001504E+0	9.991326E-1	9.972085E-1	9.796378E-1	9.855224E-1	9.664548E-1	1.017984E+0	9.564137E-1	9.825898E-1	1.008664E+0	9.937372E-1	9.839556E-1	9.604767E-1	1.000625E+0	9.860523E-1	9.981381E-1	9.820209E-1	9.883508E-1	1.033257E+0	9.671367E-1	9.949131E-1	9.967548E-1	9.805844E-1	9.847220E-1	9.996944E-1	1.004449E+0	9.976990E-1	9.793714E-1	1.056241E+0	9.682825E-1	1.023839E+0	9.735806E-1	9.776326E-1	9.905740E-1	9.935423E-1	9.861679E-1	1.041515E+0	1.003303E+0	9.813190E-1	9.762861E-1	9.988995E-1	9.621735E-1	1.015851E+0	9.462426E-1	1.018276E+0	9.194725E-1	9.884586E-1	9.805616E-1	1.011493E+0	9.903256E-1	9.673386E-1	9.973085E-1	9.794762E-1	1.012240E+0	1.046363E+0	9.926031E-1	9.410266E-1	9.681309E-1	9.398136E-1	9.865786E-1	9.861190E-1	9.566833E-1	9.875914E-1	9.976572E-1	9.966383E-1	1.002915E+0	9.626965E-1	1.005050E+0	9.745345E-1	9.942599E-1	9.719519E-1	1.011786E+0	9.634765E-1	9.775456E-1	1.017482E+0	9.992336E-1	9.713862E-1	9.672092E-1	1.015502E+0	9.882513E-1	1.021346E+0	9.953035E-1	9.578774E-1	9.841050E-1	9.384790E-1	9.768546E-1	9.677156E-1	9.989631E-1	9.737484E-1	9.933956E-1	9.970772E-1	9.857126E-1	9.714116E-1	1.040018E+0	1.008999E+0	1.013126E+0	1.014432E+0	1.001975E+0	9.475873E-1	1.021606E+0	9.361782E-1	9.772991E-1	1.020489E+0	1.020027E+0	9.935763E-1	1.020887E+0	9.849545E-1	1.008220E+0	9.697198E-1	9.826533E-1	1.014920E+0	9.957558E-1	1.027776E+0	9.534148E-1	9.967432E-1	1.000752E+0	9.731353E-1	1.005461E+0	9.622152E-1	9.820187E-1	1.014737E+0	9.707975E-1	1.011558E+0	1.002854E+0	1.009698E+0	9.714597E-1	1.006435E+0	1.007961E+0	9.893505E-1	9.939694E-1	9.939222E-1	1.033507E+0	9.588171E-1
5.610070E+2	9.770111E-1	1.021243E+0	1.001003E+0	9.968771E-1	9.913410E-1	1.046981E+0	1.014676E+0	1.009145E+0	1.008990E+0	9.818399E-1	1.008501E+0	1.013451E+0	1.012798E+0	1.024373E+0	1.035599E+0	9.991539E-1	9.899562E-1	9.757628E-1	9.851735E-1	1.010680E+0	1.000433E+0	1.048829E+0	1.000274E+0	9.797716E-1	9.951267E-1	1.039275E+0	1.005102E+0	9.573945E-1	1.028907E+0	9.869577E-1	1.002400E+0	9.807270E-1	1.042437E+0	1.025643E+0	1.011191E+0	1.016060E+0	9.766847E-1	1.034783E+0	1.023719E+0	9.917592E-1	1.038162E+0	1.037584E+0	1.017184E+0	1.000242E+0	9.712417E-1	1.004203E+0	9.994658E-1	1.026342E+0	1.034004E+0	9.727727E-1	1.029783E+0	1.034209E+0	1.029521E+0	9.892190E-1	1.046642E+0	1.018838E+0	1.032686E+0	9.742725E-1	1.003177E+0	9.555602E-1	1.013009E+0	1.017768E+0	1.030101E+0	1.018326E+0	1.052264E+0	1.021419E+0	1.010741E+0	9.739048E-1	9.831415E-1	1.044538E+0	1.012954E+0	9.679755E-1	1.022538E+0	1.013532E+0	1.035678E+0	9.973227E-1	1.012120E+0	1.032300E+0	1.018161E+0	9.883278E-1	1.021664E+0	9.929868E-1	1.030079E+0	9.862937E-1	9.699749E-1	9.793940E-1	1.005484E+0	1.021792E+0	1.034627E+0	1.014198E+0	9.828515E-1	1.017972E+0	1.020814E+0	9.825406E-1	1.057486E+0	1.025347E+0	1.047281E+0	1.045518E+0	9.946055E-1	1.029990E+0	1.001304E+0	1.013690E+0	1.003834E+0	1.012415E+0	9.769598E-1	1.026721E+0	1.041838E+0	1.003824E+0	9.802693E-1	9.946267E-1	1.001939E+0	1.007432E+0	9.953781E-1	1.025797E+0	1.025711E+0	1.060941E+0	9.879205E-1	9.513856E-1	9.515474E-1	1.014847E+0	1.023469E+0	9.956491E-1	9.777786E-1	1.042344E+0	1.013773E+0	1.006419E+0	9.624842E-1	1.003230E+0	1.031044E+0	1.012398E+0	9.774262E-1	1.016791E+0	9.972244E-1	1.012251E+0	1.045089E+0	1.045474E+0	1.056080E+0	1.014366E+0	1.015020E+0	1.008667E+0	1.048069E+0	1.016234E+0	9.923516E-1	1.011148E+0	1.027099E+0	9.808674E-1	9.956714E-1	9.918631E-1	1.003053E+0	1.001762E+0	1.004299E+0	1.003275E+0	1.006301E+0	1.016815E+0	9.916207E-1	1.014351E+0	1.006133E+0	9.958509E-1	1.011236E+0	9.824942E-1	9.903277E-1	9.487670E-1	9.870910E-1	9.848245E-1	1.030701E+0	1.026724E+0	1.007801E+0	1.028276E+0	1.049463E+0	1.053565E+0
