Photon Energy (eV)	#1	#2	#3	#4	#5	#6	#7	#8	#9	#10	#11	#12	#13	#14	#15	#16	#17	#18	#19	#20	#21	#22	#23	#24	#25	#26	#27	#28	#29	#30	#31	#32	#33	#34	#35	#36	#37	#38	#39	#40	#41	#42	#43	#44	#45	#46	#47	#48	#49	#50	#51	#52	#53	#54	#55	#56	#57	#58	#59	#60	#61	#62	#63	#64	#65	#66	#67	#68	#69	#70	#71	#72	#73	#74	#75	#76	#77	#78	#79	#80	#81	#82	#83	#84	#85	#86	#87	#88	#89	#90	#91	#92	#93	#94	#95	#96	#97	#98	#99	#100	#101	#102	#103	#104	#105	#106	#107	#108	#109	#110	#111	#112	#113	#114	#115	#116	#117	#118	#119	#120	#121	#122	#123	#124	#125	#126	#127	#128	#129	#130	#131	#132	#133	#134	#135	#136	#137	#138	#139	#140	#141	#142	#143	#144	#145	#146	#147	#148	#149	#150	#151	#152	#153	#154	#155	#156	#157	#158	#159	#160	#161	#162	#163	#164	#165	
5.300520E+2	-1.064387E-2	-9.269983E-3	-1.095083E-2	-5.415928E-3	-1.371491E-2	-1.027284E-2	-5.026245E-3	-4.759553E-4	-7.866200E-3	-1.039921E-2	-5.146270E-3	-6.402609E-3	-6.549963E-3	-6.977399E-3	-1.180701E-3	-6.712954E-3	4.095190E-3	-1.144089E-2	1.774498E-3	-9.241852E-4	-2.821409E-3	5.004048E-3	-4.035785E-3	-6.595819E-3	-8.141559E-3	-1.409049E-2	-6.491454E-3	-9.751878E-3	-9.534634E-3	-4.890557E-3	-4.418578E-3	-5.498935E-6	-4.391522E-3	-5.749108E-3	-2.005724E-3	-8.542117E-3	-1.355842E-2	-6.120010E-3	-2.717946E-3	-7.149284E-3	-4.663705E-3	-2.414212E-2	-1.053130E-2	-6.059928E-3	-3.245243E-3	1.041029E-3	-7.181798E-3	-1.615705E-2	-9.472816E-3	-3.617501E-3	-1.058590E-2	-2.565544E-3	-9.438500E-3	-9.888763E-3	-1.025045E-2	-7.498466E-3	-2.264446E-3	-1.375273E-2	-1.275039E-2	-6.187634E-3	-1.307221E-2	-9.757346E-3	-1.300136E-2	-5.410759E-3	-8.120068E-3	-1.877339E-2	-1.159523E-2	-9.770495E-3	-8.689813E-3	-7.438751E-3	-5.099660E-3	-9.703981E-3	-7.313887E-3	-1.678920E-2	-3.069688E-3	-2.103194E-3	-9.226932E-3	-8.094315E-3	-2.381728E-3	-9.488891E-3	-8.468491E-3	-1.125632E-2	-9.030817E-3	-2.932947E-3	-5.563903E-3	-7.605077E-3	-3.979968E-3	-1.012604E-2	-8.194569E-3	-5.142191E-3	-5.056545E-3	-4.325745E-3	-6.521550E-3	-7.029088E-3	-2.169741E-3	-1.014367E-2	-1.175504E-2	-1.172055E-2	-7.917414E-3	-1.110683E-2	-7.779542E-3	-1.198359E-2	-5.244789E-3	-1.247214E-2	-1.118928E-2	-8.482513E-3	-7.487344E-3	-7.252620E-3	-1.130760E-2	-8.106238E-3	-5.015154E-3	-4.304671E-3	-1.283840E-2	3.440662E-3	-1.273822E-3	1.789339E-3	-4.714033E-3	-7.484985E-3	-1.192845E-2	-1.804487E-3	-2.244144E-3	-1.245325E-2	-3.388807E-3	-7.680487E-3	2.551176E-3	-1.159578E-3	-1.106224E-2	-1.447222E-2	-1.218957E-2	-2.018601E-3	-4.905263E-3	-7.292916E-3	-8.969038E-3	-1.373319E-2	-2.673504E-3	-5.700074E-3	-2.747924E-3	-1.257495E-2	-3.217921E-3	-1.258728E-2	-1.267851E-2	-8.404313E-3	-7.004267E-3	-8.393428E-3	-1.076079E-2	-9.069527E-3	-8.976608E-3	-1.392668E-2	-5.441717E-3	-4.920792E-3	-2.915774E-3	-3.155538E-3	-9.120219E-3	-1.145631E-2	-3.840707E-3	-4.551809E-3	-7.494524E-3	-7.903011E-3	-5.058021E-3	-4.104005E-3	-7.574936E-3	-8.684278E-3	-3.292326E-3	-8.598165E-3	1.861742E-4
5.305180E+2	-7.351187E-3	1.529271E-3	-7.416425E-3	-1.646877E-3	-6.674670E-3	-1.518501E-2	-1.449486E-2	-1.082392E-2	-3.864017E-3	-4.259487E-3	-8.379961E-3	-1.460976E-3	1.383379E-3	-8.963161E-3	-7.252960E-3	-1.426776E-2	-1.178078E-2	-9.626831E-3	7.024580E-4	1.400445E-3	1.759445E-4	-1.009681E-2	-3.946286E-3	-6.445407E-3	-1.085446E-2	-2.954970E-3	-9.947472E-3	-7.680141E-3	-4.589908E-3	-9.152873E-3	-1.541737E-2	-1.057246E-2	-7.064337E-3	-9.841876E-3	-2.495676E-3	-1.271241E-2	-6.291924E-3	-1.259151E-2	-3.207735E-3	-6.479778E-3	3.742214E-3	-2.612186E-3	-1.359442E-2	5.593526E-3	-1.435308E-2	-2.749918E-3	-1.145989E-2	-6.452850E-3	-5.027520E-3	-7.698679E-3	-3.750322E-3	-1.674916E-2	-9.962225E-3	-9.222296E-3	4.587809E-3	-6.245089E-3	-3.465319E-3	5.362745E-4	-1.387010E-2	-1.327375E-3	-8.527568E-3	-1.240240E-2	-9.221642E-3	-2.871716E-3	-1.067159E-2	-2.153707E-4	-6.244646E-3	-6.855217E-3	-8.606473E-3	-7.346939E-3	-1.037625E-3	-7.299698E-3	-4.458086E-3	-7.490969E-3	-8.147702E-3	-9.866274E-3	-2.597465E-3	-7.432186E-3	-2.273435E-3	-1.124248E-2	-3.891696E-3	-3.740279E-3	-1.377136E-2	-8.651324E-3	-1.228862E-2	-3.824887E-3	-1.426410E-2	-8.209061E-3	-1.005034E-2	-3.750171E-3	-7.403969E-3	-1.023144E-2	-1.164251E-2	-3.250133E-3	-2.591784E-3	-6.131961E-3	-1.489823E-2	5.928149E-3	-3.060110E-4	-6.866717E-3	-5.600882E-4	-6.068360E-3	-8.179840E-3	-1.651127E-2	-1.302276E-2	-5.770697E-3	-3.115282E-5	-1.560983E-2	-7.830958E-3	-1.081117E-2	1.500012E-3	-4.804838E-3	-3.377348E-3	-6.885045E-3	-4.727173E-3	-1.116478E-2	-1.995511E-3	-5.063036E-3	2.282554E-3	6.896648E-3	-1.280600E-2	-4.489442E-3	-2.680056E-3	-1.423824E-2	-1.102105E-2	-1.461706E-2	-5.771200E-3	-6.179342E-3	-1.147023E-2	-5.137108E-3	-3.575296E-3	1.762888E-3	-5.809060E-3	-6.198632E-3	-7.450098E-3	-1.137598E-2	-6.608416E-3	-9.150298E-3	-1.268166E-3	-3.534794E-3	-7.906749E-3	-1.054261E-2	-2.959127E-3	-9.568188E-3	-8.664934E-3	-4.011638E-3	-1.979351E-3	-1.017170E-2	-1.030702E-2	-6.783101E-3	-2.172498E-3	-7.397054E-3	-8.385634E-3	-5.030138E-3	-1.246120E-2	2.490993E-3	-1.420498E-2	-4.222723E-3	-6.699331E-3	-3.350451E-3	-5.244204E-3	-6.143256E-3	-2.177676E-3	4.149128E-3	-8.871101E-3
5.310250E+2	-8.380276E-4	2.767903E-4	1.670636E-3	1.366499E-3	-8.691038E-3	1.304146E-3	2.797091E-3	-8.746361E-3	-7.015386E-3	4.628387E-3	-1.052391E-2	-1.362186E-3	-7.623722E-4	-1.607209E-3	1.065409E-3	-7.386352E-5	-1.042074E-3	-9.539296E-3	-4.469946E-3	-6.581647E-3	-1.021749E-2	-1.219246E-2	2.150993E-4	-5.744352E-3	-3.116093E-3	-9.023903E-3	-3.476768E-3	-4.454270E-3	-6.311033E-3	2.922815E-3	-5.401856E-3	-9.732665E-3	-1.479382E-3	-7.380687E-3	-3.510676E-5	-8.138608E-3	-6.813658E-3	-1.757423E-3	-4.886699E-3	-1.107699E-3	-5.784933E-3	-1.205758E-3	-3.401968E-3	-9.644290E-3	-1.147049E-2	-8.796737E-3	-1.540407E-3	-4.558776E-3	5.684180E-3	-5.231129E-3	-4.229526E-3	2.358512E-3	-7.398996E-3	-1.029396E-2	8.242356E-3	-1.196326E-2	-1.119630E-2	-6.713192E-4	-1.198314E-2	-2.591488E-3	-1.177850E-3	2.565612E-4	5.144183E-3	-1.551789E-3	-1.353529E-3	-7.797720E-3	7.932857E-3	-1.032870E-2	1.705638E-3	-7.263016E-3	-1.057819E-2	-3.154687E-3	-5.742128E-3	6.765042E-3	-1.001191E-2	-6.001387E-4	-9.067977E-3	6.868852E-4	-1.474847E-2	-9.944315E-3	-5.846720E-4	3.796645E-3	7.471431E-3	-4.213220E-3	-5.992921E-3	-6.814485E-3	-6.665294E-3	-6.894930E-3	-2.886232E-3	-1.211560E-2	-5.473964E-3	-2.137110E-3	6.432010E-3	-2.615422E-3	-1.119223E-2	-2.108292E-3	3.921406E-3	-4.280863E-3	-5.859241E-3	1.559791E-3	7.325659E-4	-2.471283E-3	3.984881E-4	-2.862612E-3	-1.487566E-3	-2.389376E-3	-8.652825E-3	-6.444474E-3	-1.503895E-3	-7.917529E-3	-1.013771E-2	-2.926386E-3	6.118431E-3	-7.407246E-3	-7.595325E-3	-8.014822E-3	-7.175074E-3	-9.066738E-3	-6.112570E-3	-1.157353E-2	-1.313175E-3	5.932868E-3	-6.278348E-3	-1.342212E-2	-1.224392E-2	-3.208789E-3	1.215311E-4	2.477706E-4	-8.807655E-3	3.944154E-3	3.973741E-3	-1.127802E-2	-4.501838E-3	-3.540692E-3	-1.472608E-2	2.670017E-3	-5.794205E-3	-1.039833E-2	-6.245210E-3	-8.598945E-3	3.797151E-4	-5.413797E-3	1.090539E-3	-1.070632E-2	-1.683683E-2	-5.159917E-3	-1.002002E-2	-2.737683E-3	-3.170561E-3	-5.416068E-3	-2.075823E-3	-9.161322E-3	2.180435E-3	-1.838074E-2	-2.197398E-3	-9.249068E-3	-3.856343E-3	-1.129732E-2	-8.898399E-3	-6.547027E-3	-9.693971E-3	-6.861642E-3	-8.532956E-3	-8.402521E-3	-1.184382E-2
5.315130E+2	3.753290E-3	-7.030042E-3	-5.895758E-3	-3.689115E-3	-4.430536E-3	-3.619125E-3	-1.578990E-3	7.896311E-3	-4.261288E-3	5.394104E-3	2.355246E-3	-6.132409E-3	-5.165193E-3	-4.773154E-4	-7.616884E-3	-2.562166E-3	4.380989E-3	-2.465306E-3	-4.375372E-3	-5.830348E-3	-8.390395E-3	-4.463175E-3	-7.268983E-3	-2.640518E-3	1.846328E-3	2.162346E-3	-1.051806E-2	3.913324E-3	-1.955016E-3	1.927615E-3	-1.802745E-3	-7.104047E-3	-1.035338E-2	-6.705989E-3	6.575538E-4	4.847129E-3	1.192189E-2	-2.859252E-3	-1.284745E-3	-6.239794E-3	-1.856759E-3	1.236630E-2	1.131289E-3	1.396552E-3	-1.254989E-3	-5.369325E-3	-7.478682E-3	6.443530E-3	-6.107134E-3	1.425912E-3	8.853568E-3	-5.668575E-3	-6.689878E-3	3.095874E-3	-7.044113E-3	-1.360050E-3	-6.561919E-3	6.539958E-3	7.466433E-3	-3.836798E-3	3.957033E-3	-1.976150E-4	1.551436E-3	-2.684694E-3	-1.929332E-3	-6.846847E-4	-3.134558E-3	-2.945263E-4	5.181241E-4	-5.395363E-3	-8.402366E-4	-1.001222E-2	-2.889711E-3	-1.107203E-3	-7.348152E-3	-3.136451E-3	3.552341E-3	-4.385001E-3	7.967079E-4	1.098321E-2	1.523691E-4	-2.335913E-3	3.128052E-4	-6.320510E-3	2.185389E-3	-1.793116E-3	-1.359461E-3	-2.518196E-3	-3.452130E-3	-4.221120E-3	-3.541088E-3	-1.376721E-3	2.470887E-3	-5.678014E-3	-1.109750E-2	-5.311864E-3	-1.022093E-2	-3.588948E-3	5.167147E-4	7.919564E-3	-3.610702E-4	-3.575175E-5	-1.165649E-2	4.327270E-3	-7.626125E-4	-9.539058E-3	4.874354E-3	-5.097215E-4	1.999737E-3	-5.332705E-4	6.656012E-4	-1.179935E-2	-5.892745E-3	-3.627496E-3	-5.723626E-3	-9.482313E-3	1.487233E-3	3.330676E-3	-9.182374E-4	-2.862679E-3	-8.832741E-3	-1.767856E-2	-7.430717E-3	1.032936E-2	-6.285164E-3	4.261011E-3	-4.428876E-3	2.872684E-3	1.623696E-3	-4.685257E-4	-7.132672E-3	-4.976823E-3	-3.181070E-3	-4.011134E-3	-2.928332E-3	-4.725205E-3	-5.647915E-3	-3.605951E-3	-1.100043E-3	-2.053181E-3	-4.198262E-3	3.088345E-3	-5.021328E-4	-4.730860E-4	4.695473E-4	-3.842682E-3	-6.738370E-3	-1.519246E-2	-3.124873E-3	-2.813501E-3	-3.905742E-3	4.470336E-3	9.370350E-4	-5.582806E-3	-3.559685E-3	-2.908125E-3	3.629576E-4	-4.035470E-3	-1.191720E-3	-3.157066E-3	-1.867133E-3	-2.598832E-4	-4.054363E-3	8.391088E-4	6.513985E-3
5.320120E+2	3.207061E-3	3.823697E-3	-1.277827E-2	-1.241438E-2	1.255501E-3	-1.069054E-2	-5.967798E-3	-4.599732E-3	6.908308E-3	-8.725041E-3	1.354685E-3	1.887780E-3	3.944537E-3	1.505283E-4	-1.323278E-3	1.108016E-2	-2.064841E-3	-5.877230E-3	-4.841427E-3	3.079337E-3	-2.449817E-3	1.139708E-3	-1.673824E-4	4.130557E-3	2.646641E-3	5.418923E-3	1.701731E-3	1.481242E-3	6.223953E-4	5.328591E-3	2.419328E-3	4.376988E-3	-3.381183E-3	4.776136E-3	-8.719839E-3	-7.247391E-4	1.795796E-3	1.447449E-3	-2.947352E-3	8.499270E-4	-7.549793E-3	3.061217E-3	-5.687545E-3	2.149361E-3	-5.714596E-4	5.924488E-3	1.399541E-3	-5.543092E-3	-2.876168E-3	5.131257E-3	-6.886063E-3	9.491357E-3	5.223484E-3	-2.585761E-3	-1.109923E-2	-2.987720E-3	-3.197664E-3	-1.096490E-3	4.003615E-3	-2.978984E-3	-1.530716E-3	2.658711E-3	-1.000894E-2	-4.372472E-3	-1.159496E-3	-2.513574E-3	1.086127E-3	8.480085E-3	-2.587964E-3	3.647552E-3	-2.441533E-3	5.253226E-3	4.134689E-3	-1.084005E-2	-2.076187E-3	9.416770E-4	1.865014E-3	3.199428E-3	1.009843E-2	-4.864935E-3	-1.026618E-3	3.364208E-3	-8.683151E-3	-5.484018E-3	-2.065262E-3	3.875019E-3	6.295708E-3	6.203438E-3	-5.952416E-3	-2.110037E-4	-6.514337E-3	7.400368E-4	-3.348704E-4	9.227531E-3	-2.255006E-3	-4.563635E-3	4.132017E-3	-6.539147E-3	-8.888822E-6	-4.546315E-3	-8.622833E-3	-6.392803E-3	5.467346E-3	4.446365E-3	3.804518E-3	-3.511632E-3	-1.454911E-2	1.393588E-2	7.230119E-3	-2.640328E-3	-2.971376E-3	5.624955E-3	-5.808924E-3	2.027266E-3	1.530319E-3	8.324611E-3	-8.339513E-3	1.401430E-2	-3.665887E-3	1.222921E-3	8.032948E-3	3.117777E-3	1.309806E-3	8.217234E-3	-3.582214E-3	-1.324545E-2	2.646955E-3	2.332442E-3	2.367374E-3	-1.026623E-3	-2.688949E-3	1.349173E-3	-3.705097E-3	7.986304E-3	2.578874E-4	6.160389E-4	5.046775E-3	-3.511586E-3	-4.055081E-4	1.095508E-2	4.679437E-3	2.639853E-3	-9.736718E-4	8.518995E-3	1.210121E-3	5.594372E-4	2.785971E-3	1.214713E-2	3.243841E-3	-4.058823E-3	-1.089632E-2	-1.089062E-2	-6.918257E-3	1.428503E-2	-6.436795E-3	-9.811205E-3	3.899731E-3	8.042896E-3	-9.200673E-3	-8.361634E-3	-6.410647E-3	3.932713E-3	-3.979832E-3	9.997021E-3	3.562648E-3
5.325070E+2	-1.885364E-3	-6.863438E-3	1.029943E-2	1.121385E-2	1.396797E-2	1.450318E-2	3.734365E-3	6.037511E-3	-4.089710E-3	-5.941984E-3	7.598030E-3	1.384326E-3	-4.974080E-3	3.384033E-3	9.133117E-3	-6.241901E-3	-1.384804E-3	2.056375E-2	-7.362759E-5	4.577554E-4	4.669421E-3	-4.323526E-4	1.104824E-2	4.845384E-3	5.541853E-3	9.187433E-3	1.823262E-2	7.303350E-3	1.605561E-2	-1.047288E-2	-4.170329E-4	1.146081E-2	6.365738E-3	9.683951E-3	5.049652E-3	1.654818E-2	3.099394E-3	4.561442E-3	-2.265845E-3	9.713802E-3	-3.807942E-4	1.827839E-3	1.152102E-2	-2.919821E-3	5.193505E-3	-6.941473E-4	4.808611E-3	8.516098E-3	6.012122E-3	-1.630702E-4	4.552387E-3	-2.742783E-3	9.081338E-3	9.146182E-3	2.866005E-4	1.583663E-2	1.327864E-2	2.612296E-4	7.113860E-3	-8.419205E-3	8.226109E-4	2.220521E-3	9.770019E-3	8.079021E-3	9.566121E-3	1.557560E-2	1.169458E-5	4.313906E-3	2.014610E-3	1.273122E-2	5.080946E-3	5.971344E-3	1.188698E-2	5.390394E-3	1.298602E-2	1.029501E-2	3.775953E-3	-7.064524E-3	2.179432E-3	5.738046E-3	2.320195E-3	3.436091E-4	1.147905E-2	1.593872E-2	6.165221E-3	3.367047E-3	6.017865E-4	1.379288E-2	2.553594E-3	5.125979E-3	1.591183E-3	4.233692E-3	4.446453E-3	-3.348415E-3	6.079033E-3	1.271779E-2	5.556686E-3	2.706556E-3	4.516617E-3	6.074210E-3	1.063221E-2	6.051017E-3	8.020292E-3	-1.940070E-3	1.543595E-2	5.530778E-4	1.590073E-2	3.449647E-4	3.932924E-3	8.182893E-3	9.522999E-3	4.542912E-3	6.441292E-3	5.854634E-3	3.442560E-3	1.485816E-3	9.644302E-3	-5.722717E-4	7.258110E-3	-6.009027E-3	-3.339566E-3	5.687056E-3	5.761251E-3	1.056707E-2	3.075557E-3	4.503874E-3	8.012718E-3	3.712161E-3	8.320056E-3	4.239032E-3	-3.213566E-3	-6.193449E-3	1.055293E-2	2.456154E-3	7.182137E-3	8.317048E-3	1.180092E-2	7.389893E-3	2.875192E-3	5.250230E-3	5.385445E-3	5.118520E-4	-2.957269E-4	8.664991E-3	1.722523E-2	6.500160E-4	7.950474E-3	6.338797E-3	7.573004E-3	1.065173E-2	3.242973E-3	6.505009E-3	8.946440E-3	1.016841E-2	9.769897E-3	1.125615E-2	1.087889E-2	1.655210E-2	7.840223E-3	1.770969E-2	8.336723E-3	-2.515197E-3	-5.926252E-4	-8.631833E-4	2.814915E-2
5.330280E+2	1.375810E-2	1.753370E-2	2.507122E-2	1.058596E-2	1.828768E-2	2.396018E-2	2.053644E-2	1.071214E-2	2.018829E-2	1.930323E-2	1.274218E-2	1.208607E-2	1.212369E-2	1.449052E-2	7.175296E-3	1.877849E-2	7.796320E-3	1.838581E-2	1.128342E-2	8.398643E-3	1.903375E-2	2.104104E-2	4.155100E-3	1.245015E-2	1.207729E-2	9.300659E-3	1.049940E-2	9.188374E-3	5.712589E-3	1.433729E-2	2.503825E-2	1.157686E-2	2.030407E-2	1.521757E-2	7.549141E-3	8.722560E-3	9.846922E-3	1.731930E-2	1.731032E-2	1.041283E-2	1.649377E-2	1.070471E-2	2.056293E-2	9.484599E-3	2.570176E-2	1.064461E-2	2.145262E-2	1.775214E-2	1.178734E-2	1.015321E-2	1.204585E-2	1.587619E-2	1.918478E-2	1.974873E-2	1.527703E-2	1.421796E-2	1.340700E-2	8.183074E-3	2.001973E-2	2.534148E-2	1.952870E-2	1.722156E-2	1.576630E-2	8.812410E-3	1.366790E-2	1.440914E-2	1.194376E-2	1.445495E-2	1.564588E-2	1.106530E-2	1.491630E-2	1.894602E-2	4.382146E-3	2.407199E-2	1.766762E-2	4.469375E-3	1.169907E-2	2.308971E-2	6.329068E-3	1.881936E-2	1.149891E-2	9.828053E-3	1.222204E-2	1.166330E-2	1.756010E-2	1.279550E-2	1.937133E-2	7.751904E-3	2.798209E-2	2.031410E-2	2.639872E-2	1.309729E-2	5.149578E-3	1.269354E-2	2.322722E-2	1.554164E-2	2.326409E-2	1.749480E-2	9.058223E-3	6.966298E-3	5.958755E-3	2.090077E-2	1.119499E-2	2.501245E-2	7.221758E-3	2.914020E-2	9.945348E-3	1.553580E-2	7.479671E-3	2.182565E-2	6.435632E-3	1.366738E-2	1.535769E-2	6.597224E-3	1.434707E-2	1.706215E-2	1.109259E-2	4.842052E-3	1.308448E-2	1.413015E-2	2.050268E-2	1.988355E-2	1.270687E-2	6.227183E-3	2.750561E-2	2.346599E-2	1.048111E-2	1.148650E-2	2.015633E-2	4.676724E-4	1.754200E-2	2.662915E-2	1.561317E-2	1.704119E-2	2.033799E-2	1.019816E-2	3.950769E-3	3.185123E-2	9.361657E-3	1.056890E-2	1.433893E-2	1.812067E-2	1.064439E-2	1.195704E-2	1.735766E-2	2.087431E-2	1.697790E-2	2.354259E-2	1.122733E-2	1.334055E-2	1.872319E-2	1.962919E-2	1.236020E-2	1.599655E-2	1.872589E-2	1.277307E-2	1.041427E-2	2.863527E-3	2.320792E-2	7.810493E-3	2.245417E-2	2.053154E-2	2.262978E-2	2.878611E-3	-1.769703E-2
5.331680E+2	4.119580E-3	1.088657E-2	2.029877E-2	8.477988E-3	9.977481E-3	8.966054E-3	9.086388E-3	1.482619E-2	2.096337E-2	2.080129E-2	1.398879E-2	1.550648E-2	1.572430E-2	1.830448E-2	3.331768E-2	1.079779E-2	2.314695E-2	1.502948E-2	1.147457E-2	7.551929E-3	1.463868E-2	2.119744E-2	1.077278E-2	2.205961E-2	1.941150E-2	3.056292E-2	1.494696E-2	6.592346E-3	2.808701E-2	2.108155E-2	1.635064E-2	9.684942E-3	3.459156E-2	2.082874E-2	9.522320E-3	1.126178E-2	1.687191E-2	1.203632E-2	1.925934E-2	1.555030E-2	2.969226E-2	2.222065E-2	1.370180E-2	2.895918E-2	1.168828E-2	9.081891E-3	2.105942E-2	2.703232E-2	3.084526E-2	2.714770E-2	2.584541E-2	2.216916E-2	1.870758E-2	1.055459E-2	1.540856E-2	9.059422E-3	1.420012E-2	2.920729E-2	1.283998E-2	8.287591E-3	1.178421E-2	1.073285E-2	1.591644E-2	2.443086E-2	1.646764E-2	1.775262E-2	2.451039E-2	1.601198E-2	4.161344E-3	2.019322E-2	1.219309E-2	1.852103E-2	2.430848E-3	-1.941418E-3	2.498528E-2	1.718240E-2	1.664977E-2	9.925786E-3	5.299538E-3	4.106973E-3	1.422772E-2	1.809412E-2	1.662936E-2	3.090039E-2	9.560944E-3	-1.380867E-3	1.719600E-2	1.283853E-2	2.163686E-2	2.112217E-2	1.357441E-2	1.322867E-2	6.447977E-3	1.390024E-2	1.680226E-2	9.708546E-3	1.298466E-2	1.457913E-2	2.315002E-2	2.890476E-2	3.495996E-2	2.401350E-2	1.378541E-2	1.086276E-2	1.698271E-2	1.272225E-2	2.091167E-2	3.010927E-2	1.563824E-2	2.873755E-2	1.174210E-3	1.440512E-2	2.906224E-2	3.343862E-2	2.410924E-2	2.263373E-2	1.987339E-2	4.964249E-3	2.695322E-2	2.229934E-2	1.604720E-2	1.451357E-2	1.781815E-2	-1.852942E-3	3.029511E-2	2.020513E-2	2.760493E-2	2.697609E-2	2.422278E-2	2.522032E-2	2.960799E-2	2.190082E-2	1.761427E-2	1.781373E-2	9.916838E-3	1.385050E-2	1.740396E-2	1.577214E-2	1.523877E-2	1.982271E-2	1.153969E-2	1.093818E-2	2.107208E-2	5.111378E-3	1.541940E-2	1.160450E-2	1.718701E-2	1.627441E-2	1.704910E-2	1.218787E-2	1.637544E-2	1.046389E-2	2.311847E-2	2.613581E-2	1.374465E-2	1.499925E-2	1.760612E-2	1.321061E-2	2.337179E-2	1.728229E-2	1.652553E-2	2.722238E-2	1.394407E-2	4.799639E-3	4.699124E-2
5.333080E+2	1.202909E-2	1.642133E-2	2.884019E-2	1.006788E-2	2.066790E-2	3.288731E-2	9.854374E-3	1.892612E-2	3.022791E-2	2.572402E-2	2.986459E-2	1.390963E-2	2.723602E-2	2.791765E-2	2.098122E-2	1.146991E-2	3.230832E-2	3.753689E-2	2.766299E-2	1.892890E-2	2.188225E-2	1.364058E-2	2.445629E-2	2.110741E-2	2.945652E-2	2.885568E-2	2.512950E-2	2.464311E-2	2.148570E-2	3.063263E-2	2.598521E-2	2.792916E-2	1.611067E-2	1.072668E-2	2.593434E-2	2.373546E-2	3.065872E-2	1.521651E-2	2.477878E-2	2.312325E-2	2.736265E-2	2.701161E-2	1.833579E-2	2.119872E-2	2.225331E-2	1.430995E-2	2.402205E-2	3.159987E-2	2.010255E-2	1.770685E-2	3.294961E-2	1.870369E-2	2.923684E-3	2.885477E-2	1.502323E-2	1.585649E-2	3.104878E-2	1.432384E-2	1.729739E-2	2.964178E-2	2.664861E-2	2.139767E-2	4.072423E-2	3.454087E-2	3.063128E-2	3.018193E-2	1.339368E-2	2.405667E-2	3.533998E-2	2.395815E-2	1.693143E-2	1.926588E-2	2.001742E-2	8.766401E-3	2.580599E-2	2.264385E-2	2.345543E-2	2.807501E-2	1.643670E-2	2.840993E-2	4.106038E-2	3.206775E-2	1.800497E-2	1.339366E-2	8.455461E-3	1.682563E-2	1.853406E-2	2.912230E-2	2.376418E-2	2.918473E-2	1.373018E-2	2.824200E-2	2.598974E-2	2.313158E-2	1.642388E-2	2.047925E-2	2.033159E-2	1.472623E-2	1.951019E-2	1.567677E-2	1.768804E-2	2.182678E-2	1.393761E-2	1.222137E-2	2.744806E-2	2.353179E-2	1.157091E-2	3.356849E-2	1.930163E-2	3.680143E-2	1.213715E-2	1.817013E-2	3.468014E-2	6.868841E-3	1.707516E-2	2.046752E-2	2.671374E-2	2.939557E-2	2.770839E-2	2.045366E-2	1.159046E-2	1.466270E-2	8.004289E-3	2.217120E-2	1.657962E-2	1.408006E-2	1.546880E-2	2.715534E-2	1.786577E-2	3.384491E-2	1.408236E-2	1.577664E-2	2.211814E-2	3.374717E-2	2.066118E-2	3.515508E-2	1.622489E-2	2.339969E-2	2.948627E-2	2.913953E-2	1.465164E-2	2.243499E-2	2.411734E-2	2.436388E-2	2.462864E-2	2.822362E-2	3.273929E-2	1.496044E-2	2.867709E-2	3.796717E-2	2.494692E-2	2.429218E-2	2.071825E-2	2.700463E-2	1.977857E-2	9.511865E-3	3.235162E-2	1.940721E-2	2.824127E-2	1.544178E-2	1.594952E-2	2.658528E-2	9.693688E-3	2.518234E-2	2.254574E-2
5.334580E+2	2.712132E-2	1.789367E-2	2.264935E-2	2.795276E-2	2.008237E-2	3.446984E-2	4.290852E-2	3.305422E-2	2.980964E-2	2.927664E-2	2.101206E-2	2.803808E-2	2.169230E-2	2.807324E-2	3.000339E-2	2.074107E-2	5.363325E-2	2.176967E-2	3.019655E-2	3.596808E-2	2.736024E-2	3.032698E-2	3.404307E-2	4.129999E-2	3.313403E-2	2.775296E-2	2.527308E-2	3.215486E-2	2.287266E-2	3.632079E-2	2.198432E-2	3.394272E-2	2.811943E-2	3.568480E-2	2.186167E-2	2.813272E-2	2.161958E-2	3.899194E-2	2.372982E-2	1.611413E-2	3.335908E-2	2.175204E-2	2.744360E-2	2.222401E-2	3.676038E-2	3.651396E-2	2.695770E-2	2.966239E-2	3.318364E-2	3.663195E-2	3.772883E-2	3.547902E-2	1.516949E-2	2.257933E-2	3.617314E-2	3.386119E-2	2.664387E-2	2.297669E-2	1.928676E-2	3.263178E-2	2.408870E-2	3.100031E-2	2.162479E-2	3.594082E-2	2.459718E-2	3.428822E-2	2.610434E-2	3.051173E-2	2.817920E-2	2.957528E-2	3.498272E-2	2.667621E-2	1.404846E-2	2.948963E-2	2.203955E-2	1.735070E-2	2.665715E-2	2.009225E-2	3.342607E-2	3.335226E-2	3.745846E-2	2.972064E-2	2.798211E-2	3.975524E-2	3.452790E-2	3.134649E-2	2.573826E-2	2.598962E-2	3.639361E-2	2.869035E-2	2.257894E-2	3.377825E-2	3.912810E-2	1.100695E-2	1.990029E-2	2.594294E-2	4.276650E-2	3.886396E-2	2.728466E-2	2.568690E-2	2.568854E-2	2.909774E-2	2.882432E-2	3.333672E-2	3.535724E-2	3.035481E-2	1.306078E-2	3.702678E-2	2.752625E-2	3.073681E-2	2.748164E-2	3.220889E-2	3.076647E-2	2.757507E-2	3.048589E-2	2.682237E-2	2.954509E-2	3.491116E-2	1.982198E-2	2.933857E-2	3.563307E-2	1.849144E-2	3.872970E-2	3.354208E-2	2.927858E-2	2.054540E-2	3.796478E-2	1.895702E-2	2.324331E-2	2.684410E-2	3.816112E-2	3.622461E-2	2.537975E-2	2.306554E-2	2.955830E-2	2.588290E-2	2.298545E-2	2.150945E-2	2.837786E-2	2.081638E-2	2.842321E-2	5.384046E-2	3.518656E-2	3.591480E-2	2.828162E-2	2.021706E-2	2.965920E-2	3.301917E-2	1.460752E-2	3.309689E-2	3.027019E-2	3.441797E-2	2.887482E-2	4.505394E-2	1.772413E-2	3.500444E-2	3.671496E-2	4.677234E-2	3.311534E-2	2.427116E-2	3.868036E-2	4.241636E-2	3.200684E-2	1.611957E-2	4.122058E-2
5.336080E+2	3.375792E-2	3.567842E-2	3.049361E-2	4.217198E-2	3.574591E-2	2.953783E-2	3.853361E-2	3.251481E-2	3.063554E-2	4.106689E-2	4.878406E-2	2.993751E-2	2.353449E-2	2.875070E-2	4.219315E-2	3.757864E-2	4.776024E-2	3.137308E-2	3.454290E-2	3.954266E-2	3.820267E-2	3.987664E-2	3.714912E-2	3.310515E-2	4.675934E-2	4.914324E-2	3.479076E-2	5.015657E-2	3.231839E-2	3.537890E-2	4.412060E-2	3.580013E-2	3.736313E-2	4.131550E-2	3.829710E-2	2.280710E-2	4.260864E-2	2.943985E-2	3.935537E-2	3.777531E-2	3.481291E-2	3.828199E-2	3.532712E-2	5.837740E-2	3.521696E-2	3.441076E-2	3.823048E-2	3.239552E-2	5.061615E-2	3.375466E-2	3.501684E-2	3.274838E-2	3.999040E-2	3.563968E-2	4.595522E-2	4.171973E-2	3.608154E-2	3.690981E-2	3.600166E-2	3.425650E-2	3.108176E-2	3.004116E-2	3.414956E-2	4.114545E-2	4.437624E-2	3.183884E-2	3.880047E-2	4.102719E-2	2.838700E-2	3.758293E-2	3.689016E-2	2.243130E-2	3.386031E-2	2.527322E-2	2.611576E-2	2.916226E-2	4.150010E-2	3.191948E-2	3.827668E-2	3.031176E-2	4.218837E-2	5.647099E-2	3.131302E-2	3.396833E-2	4.857763E-2	2.027776E-2	4.538880E-2	4.441955E-2	3.620248E-2	2.688749E-2	3.148984E-2	3.162421E-2	5.062050E-2	3.739648E-2	3.170686E-2	5.848044E-2	5.177049E-2	3.476087E-2	4.536038E-2	4.095564E-2	3.445498E-2	2.926372E-2	3.270302E-2	3.265413E-2	4.724608E-2	1.315832E-2	2.410438E-2	4.307166E-2	2.538909E-2	2.691765E-2	3.799795E-2	4.568899E-2	5.208621E-2	3.523573E-2	4.212979E-2	3.085029E-2	3.036877E-2	4.162558E-2	4.585904E-2	5.171478E-2	4.818212E-2	1.925337E-2	4.329159E-2	3.295136E-2	3.408691E-2	2.588152E-2	4.344854E-2	4.613133E-2	4.635911E-2	4.199367E-2	3.958261E-2	2.164424E-2	4.792258E-2	3.522782E-2	4.097563E-2	4.129485E-2	3.388824E-2	3.666495E-2	4.531256E-2	4.526358E-2	4.346991E-2	4.268342E-2	3.594259E-2	3.026890E-2	3.684016E-2	2.930347E-2	3.562242E-2	4.287950E-2	3.699141E-2	3.204006E-2	3.758716E-2	4.398108E-2	2.777218E-2	5.740372E-2	4.373540E-2	5.282129E-2	2.921446E-2	4.940511E-2	3.744579E-2	4.795870E-2	5.129293E-2	3.846240E-2	2.326962E-2	7.722956E-2	6.926104E-2
5.337580E+2	2.737875E-2	4.605547E-2	3.345668E-2	2.970747E-2	2.740944E-2	4.273633E-2	4.129894E-2	3.285106E-2	4.071024E-2	4.816369E-2	4.617207E-2	4.064994E-2	4.484669E-2	4.638563E-2	4.816615E-2	5.396609E-2	6.435169E-2	3.569843E-2	4.555799E-2	4.886707E-2	4.970234E-2	6.118041E-2	5.095311E-2	3.495801E-2	2.701420E-2	4.873206E-2	4.432518E-2	3.760637E-2	3.619874E-2	4.999112E-2	3.479066E-2	4.662364E-2	5.227199E-2	4.574117E-2	4.633471E-2	4.613325E-2	4.217038E-2	5.698397E-2	4.490415E-2	5.289185E-2	4.085454E-2	5.087681E-2	4.538524E-2	4.254497E-2	4.056989E-2	4.821603E-2	4.287175E-2	4.593981E-2	5.786491E-2	4.303128E-2	4.036459E-2	4.853640E-2	3.763756E-2	5.052618E-2	5.096473E-2	4.961951E-2	5.353406E-2	4.761443E-2	4.855407E-2	4.233949E-2	4.721897E-2	4.246538E-2	3.756035E-2	2.945932E-2	4.725049E-2	5.801121E-2	4.734887E-2	4.866559E-2	4.751763E-2	3.109739E-2	4.978753E-2	5.508694E-2	3.542854E-2	3.235976E-2	6.247421E-2	5.532576E-2	5.262439E-2	4.551532E-2	4.311626E-2	4.106696E-2	4.367363E-2	5.032626E-2	4.811540E-2	3.723237E-2	4.877004E-2	3.108404E-2	4.734724E-2	3.439945E-2	4.886872E-2	5.947163E-2	4.412647E-2	4.656530E-2	5.806618E-2	5.746014E-2	5.133025E-2	3.438316E-2	2.724135E-2	5.969870E-2	3.793244E-2	5.285653E-2	4.213414E-2	4.908264E-2	4.462733E-2	4.512046E-2	6.180441E-2	5.142161E-2	4.747466E-2	4.964612E-2	4.196793E-2	5.333856E-2	3.169102E-2	6.663846E-2	5.031841E-2	4.864623E-2	3.576415E-2	4.439177E-2	4.863732E-2	4.543658E-2	4.729143E-2	5.968926E-2	3.168991E-2	4.843903E-2	4.477623E-2	4.336634E-2	3.491623E-2	4.161992E-2	5.546121E-2	5.017402E-2	4.390438E-2	4.216403E-2	4.797062E-2	5.408951E-2	5.496939E-2	5.705654E-2	4.929430E-2	4.806268E-2	5.022560E-2	3.817516E-2	5.316465E-2	5.785477E-2	4.720925E-2	5.827722E-2	4.879261E-2	3.751330E-2	5.658121E-2	3.761058E-2	4.799596E-2	3.632991E-2	5.707541E-2	5.655396E-2	5.001829E-2	4.538990E-2	5.454164E-2	6.337986E-2	4.466026E-2	5.160698E-2	3.498290E-2	5.687908E-2	5.299567E-2	4.474742E-2	5.230462E-2	5.849379E-2	5.903467E-2	6.260225E-2	4.777623E-2
5.339140E+2	5.368517E-2	6.189473E-2	8.013876E-2	6.556197E-2	6.582566E-2	6.756885E-2	6.222852E-2	6.115269E-2	6.598053E-2	4.637621E-2	6.956906E-2	6.017688E-2	5.991410E-2	6.301162E-2	6.254892E-2	6.120540E-2	1.010957E-1	6.499412E-2	7.282552E-2	7.583995E-2	7.494805E-2	8.147290E-2	7.192136E-2	5.641164E-2	6.561513E-2	7.223428E-2	6.768816E-2	8.157074E-2	7.187738E-2	8.246169E-2	6.658801E-2	6.175833E-2	6.651114E-2	7.090633E-2	6.227615E-2	7.749083E-2	6.020001E-2	5.658282E-2	6.241862E-2	6.806712E-2	8.095216E-2	6.742815E-2	5.974205E-2	4.453051E-2	6.720293E-2	8.084269E-2	6.036765E-2	8.374355E-2	5.998332E-2	7.914687E-2	7.224084E-2	9.047391E-2	6.640250E-2	7.136048E-2	7.469235E-2	5.644380E-2	6.837859E-2	5.504317E-2	6.180035E-2	6.695067E-2	5.884022E-2	6.163050E-2	6.205471E-2	6.264280E-2	5.420770E-2	8.101349E-2	6.791911E-2	5.384116E-2	6.212444E-2	6.762304E-2	6.272823E-2	5.980654E-2	6.378185E-2	6.461671E-2	7.587166E-2	7.713856E-2	6.379028E-2	5.390114E-2	5.907362E-2	7.203067E-2	7.290928E-2	6.382617E-2	5.818886E-2	7.584903E-2	5.853593E-2	7.085901E-2	6.586007E-2	5.050494E-2	7.280297E-2	7.161437E-2	5.306915E-2	7.043041E-2	5.887005E-2	6.307223E-2	5.821841E-2	5.712982E-2	7.515003E-2	6.919895E-2	5.990193E-2	6.970064E-2	5.573116E-2	5.942355E-2	8.751392E-2	5.110692E-2	6.005493E-2	6.033038E-2	6.476364E-2	7.665292E-2	5.034761E-2	6.098501E-2	5.483231E-2	7.490954E-2	6.103128E-2	7.648536E-2	8.090433E-2	6.265820E-2	6.319377E-2	9.285479E-2	7.469715E-2	6.445427E-2	5.660469E-2	4.913866E-2	5.637270E-2	5.166079E-2	6.326693E-2	6.275027E-2	7.110448E-2	6.207719E-2	6.984527E-2	6.404441E-2	6.666755E-2	7.161136E-2	7.191963E-2	5.401977E-2	7.283794E-2	5.768326E-2	6.866018E-2	6.574085E-2	6.374004E-2	6.603105E-2	7.307465E-2	7.510021E-2	4.902420E-2	6.693444E-2	6.526894E-2	4.363159E-2	6.691520E-2	5.103922E-2	6.893008E-2	5.882477E-2	7.104909E-2	8.580352E-2	7.828878E-2	6.932987E-2	6.190216E-2	6.946588E-2	6.596130E-2	6.687390E-2	6.149859E-2	7.404179E-2	7.606125E-2	6.290545E-2	7.379865E-2	5.725087E-2	5.423013E-2
5.340640E+2	7.681704E-2	9.967062E-2	9.024212E-2	8.656685E-2	1.001092E-1	8.593999E-2	8.780296E-2	8.484930E-2	1.046419E-1	7.957332E-2	8.116905E-2	1.085785E-1	9.285405E-2	9.352968E-2	9.754865E-2	8.690035E-2	1.316906E-1	1.003370E-1	1.198991E-1	9.824751E-2	9.676302E-2	1.084932E-1	7.393158E-2	9.479435E-2	9.579199E-2	8.636224E-2	9.399420E-2	1.010597E-1	1.063967E-1	1.161845E-1	8.184098E-2	1.042017E-1	9.563629E-2	9.616632E-2	9.656937E-2	9.799900E-2	8.817245E-2	9.344163E-2	1.039793E-1	1.071813E-1	1.041467E-1	8.544345E-2	9.686226E-2	9.732124E-2	1.008680E-1	9.821430E-2	1.008885E-1	9.590946E-2	8.980062E-2	1.007483E-1	8.750206E-2	8.551769E-2	8.574084E-2	9.877802E-2	9.971827E-2	9.643921E-2	1.039671E-1	8.705450E-2	9.173626E-2	9.961357E-2	9.571513E-2	9.207862E-2	9.260633E-2	9.435166E-2	6.729220E-2	1.178247E-1	8.497157E-2	8.087122E-2	1.004420E-1	8.364319E-2	8.732595E-2	9.492114E-2	8.587291E-2	8.500658E-2	1.124600E-1	1.003093E-1	1.177577E-1	8.578204E-2	9.030011E-2	8.345796E-2	1.141838E-1	1.002426E-1	1.091429E-1	8.294060E-2	9.007422E-2	8.621292E-2	1.134240E-1	1.202343E-1	1.007977E-1	8.845730E-2	8.208555E-2	1.046323E-1	9.717967E-2	9.027064E-2	1.002468E-1	8.865823E-2	8.602387E-2	9.797792E-2	8.837719E-2	1.039324E-1	9.872433E-2	9.193770E-2	1.051413E-1	8.668863E-2	8.240966E-2	9.344188E-2	1.102113E-1	9.406622E-2	7.674779E-2	8.756057E-2	8.846159E-2	1.039892E-1	7.922277E-2	1.025233E-1	9.333294E-2	8.672010E-2	9.189935E-2	9.013973E-2	9.232845E-2	9.949843E-2	8.796388E-2	8.703987E-2	8.814599E-2	9.058175E-2	1.055431E-1	7.984577E-2	8.736528E-2	9.964714E-2	9.799227E-2	7.015313E-2	7.705861E-2	8.699446E-2	9.984996E-2	1.031717E-1	1.001715E-1	9.466755E-2	9.854843E-2	9.542146E-2	8.918209E-2	9.492488E-2	9.517463E-2	1.046266E-1	1.065965E-1	8.494517E-2	9.204738E-2	9.437760E-2	8.531214E-2	1.182831E-1	8.551950E-2	8.110525E-2	8.711778E-2	9.213399E-2	1.085691E-1	1.070797E-1	9.566051E-2	1.113095E-1	8.659394E-2	1.159090E-1	8.255699E-2	9.975243E-2	9.451867E-2	8.799781E-2	8.860495E-2	1.017501E-1	8.885553E-2
5.342090E+2	1.243391E-1	1.362156E-1	1.513535E-1	1.354009E-1	1.473214E-1	1.167734E-1	1.382229E-1	1.315144E-1	1.546661E-1	1.319454E-1	1.178089E-1	1.283167E-1	1.443125E-1	1.486505E-1	1.300408E-1	1.414547E-1	2.353072E-1	1.519017E-1	1.637975E-1	1.567693E-1	1.508946E-1	1.663408E-1	1.438967E-1	1.400816E-1	1.518061E-1	1.363181E-1	1.582627E-1	1.428654E-1	1.548716E-1	1.343769E-1	1.533332E-1	1.419831E-1	1.593820E-1	1.263952E-1	1.503134E-1	1.534546E-1	1.588955E-1	1.316598E-1	1.456994E-1	1.292118E-1	1.563321E-1	1.398201E-1	1.509769E-1	1.515442E-1	1.450521E-1	1.590708E-1	1.415673E-1	1.412038E-1	1.693801E-1	1.627778E-1	1.502659E-1	1.445788E-1	1.344814E-1	1.582643E-1	1.339303E-1	1.194421E-1	1.463758E-1	1.421807E-1	1.652232E-1	1.396417E-1	1.378999E-1	1.428333E-1	1.357712E-1	1.299904E-1	1.715376E-1	1.462391E-1	1.592683E-1	1.267442E-1	1.632480E-1	1.392702E-1	1.422524E-1	1.532867E-1	1.384460E-1	1.250470E-1	1.524820E-1	1.031608E-1	1.541892E-1	1.283644E-1	1.228350E-1	1.402270E-1	1.456665E-1	1.590777E-1	1.447924E-1	1.411036E-1	1.556708E-1	1.256067E-1	1.416154E-1	1.445503E-1	1.580315E-1	1.745932E-1	1.494785E-1	1.370389E-1	1.571055E-1	1.575591E-1	1.497216E-1	1.551929E-1	1.442216E-1	1.361990E-1	1.575236E-1	1.267232E-1	1.559571E-1	1.605300E-1	1.545028E-1	1.380998E-1	1.400713E-1	1.522316E-1	1.455230E-1	1.416480E-1	1.639190E-1	1.440650E-1	1.354140E-1	1.326949E-1	1.522439E-1	1.482127E-1	1.363140E-1	1.057270E-1	1.180013E-1	1.294148E-1	1.501241E-1	1.471503E-1	1.366865E-1	1.398871E-1	1.338920E-1	1.335244E-1	1.338936E-1	1.603167E-1	1.577801E-1	1.461713E-1	1.780758E-1	1.400892E-1	1.518119E-1	1.547997E-1	1.467220E-1	1.407735E-1	1.351802E-1	1.404336E-1	1.497778E-1	1.485601E-1	1.374023E-1	1.573323E-1	1.560793E-1	1.474196E-1	1.475121E-1	1.350851E-1	1.394369E-1	1.360290E-1	1.417561E-1	1.336240E-1	1.183977E-1	1.453841E-1	1.389156E-1	1.615054E-1	1.579580E-1	1.399087E-1	1.496160E-1	1.383670E-1	1.511057E-1	1.273272E-1	1.371071E-1	1.607421E-1	1.308489E-1	1.460106E-1	1.271164E-1	1.417873E-1	1.588254E-1
5.343550E+2	2.174482E-1	2.291229E-1	2.480980E-1	2.366631E-1	1.948967E-1	2.170121E-1	2.292818E-1	2.302152E-1	2.131584E-1	2.266650E-1	2.200863E-1	2.218352E-1	2.225256E-1	2.290680E-1	2.192670E-1	2.261470E-1	3.315665E-1	2.933372E-1	2.840570E-1	2.689303E-1	2.844919E-1	2.492207E-1	2.367665E-1	2.627010E-1	2.769632E-1	2.469597E-1	2.503198E-1	2.457277E-1	2.670614E-1	2.533903E-1	2.425070E-1	2.411936E-1	2.452952E-1	2.192674E-1	2.329190E-1	2.447516E-1	2.298752E-1	2.258178E-1	2.344760E-1	2.137634E-1	2.574215E-1	2.143783E-1	2.494753E-1	2.448060E-1	2.246930E-1	2.459249E-1	2.380389E-1	2.452958E-1	2.337300E-1	2.360657E-1	2.521455E-1	2.307124E-1	2.153373E-1	2.339943E-1	2.447227E-1	2.334918E-1	2.297793E-1	2.114593E-1	2.290532E-1	2.355983E-1	2.429298E-1	2.449195E-1	2.356298E-1	2.365747E-1	2.448121E-1	2.337657E-1	2.549629E-1	2.216294E-1	2.447576E-1	2.505806E-1	2.480924E-1	2.356340E-1	2.166943E-1	2.272088E-1	2.238306E-1	2.159547E-1	2.226443E-1	2.311677E-1	2.101040E-1	2.484935E-1	2.469851E-1	2.117564E-1	2.184677E-1	2.450360E-1	2.247417E-1	2.347305E-1	2.317087E-1	2.250529E-1	2.672455E-1	2.336941E-1	2.353756E-1	2.223083E-1	2.351898E-1	2.283894E-1	2.335238E-1	2.295521E-1	2.312980E-1	2.106965E-1	2.172519E-1	2.623042E-1	2.422668E-1	2.287890E-1	2.246213E-1	2.409647E-1	2.476516E-1	2.321388E-1	2.346089E-1	2.318965E-1	2.204905E-1	2.295751E-1	2.106052E-1	2.085528E-1	2.463638E-1	2.559591E-1	2.289417E-1	2.205505E-1	2.735970E-1	2.325802E-1	2.314304E-1	2.399428E-1	2.381252E-1	2.393185E-1	2.336276E-1	2.414639E-1	2.695521E-1	1.957010E-1	2.350540E-1	2.169123E-1	2.118153E-1	2.162148E-1	2.230147E-1	2.496679E-1	2.379195E-1	2.408655E-1	2.234166E-1	2.519697E-1	2.179832E-1	2.142691E-1	2.339178E-1	2.336868E-1	2.304643E-1	2.352693E-1	2.118711E-1	2.169216E-1	2.322654E-1	2.100662E-1	2.264848E-1	2.293064E-1	2.569318E-1	2.237193E-1	2.574700E-1	2.210840E-1	2.412700E-1	2.451223E-1	2.663487E-1	2.624066E-1	2.360943E-1	2.262181E-1	2.413524E-1	2.055302E-1	2.292258E-1	2.363801E-1	2.576921E-1	2.085985E-1	2.849787E-1
5.345050E+2	3.730380E-1	3.774885E-1	3.589072E-1	3.872878E-1	3.654239E-1	3.840445E-1	3.789253E-1	3.873260E-1	3.745780E-1	4.018903E-1	3.978813E-1	3.957118E-1	3.948400E-1	3.816838E-1	4.008214E-1	3.817949E-1	5.562002E-1	5.147956E-1	4.720618E-1	4.559670E-1	4.655932E-1	4.710285E-1	4.248085E-1	4.244606E-1	4.361911E-1	4.372254E-1	4.188299E-1	4.194278E-1	3.931276E-1	3.928183E-1	4.353441E-1	3.883857E-1	4.271211E-1	4.031728E-1	3.668169E-1	3.828523E-1	4.343586E-1	4.158370E-1	4.473752E-1	3.972301E-1	4.345172E-1	4.067627E-1	4.252152E-1	4.050098E-1	3.997404E-1	4.194973E-1	4.050028E-1	4.124881E-1	3.853794E-1	3.848025E-1	4.157138E-1	4.214916E-1	3.929520E-1	4.006079E-1	4.091034E-1	4.206147E-1	4.044503E-1	4.128233E-1	4.066771E-1	4.393399E-1	4.276797E-1	4.259721E-1	3.726830E-1	3.979359E-1	4.162120E-1	3.973512E-1	4.449857E-1	3.968378E-1	4.351964E-1	4.103048E-1	3.914428E-1	3.820291E-1	4.275537E-1	3.927605E-1	4.087699E-1	4.038073E-1	4.059156E-1	4.049007E-1	4.074908E-1	3.933985E-1	4.002130E-1	3.958548E-1	4.022774E-1	4.153163E-1	4.307327E-1	3.762303E-1	3.885388E-1	4.145803E-1	4.170251E-1	3.948782E-1	3.905300E-1	4.171355E-1	4.138591E-1	3.697550E-1	4.127726E-1	4.101240E-1	4.038575E-1	4.187709E-1	3.892771E-1	3.980627E-1	4.189683E-1	4.011077E-1	4.081881E-1	3.900357E-1	4.069968E-1	4.415766E-1	4.090689E-1	4.078944E-1	3.835769E-1	3.955362E-1	4.220326E-1	3.927916E-1	3.779721E-1	3.973487E-1	3.901967E-1	4.035349E-1	4.355427E-1	3.846230E-1	3.949808E-1	4.053014E-1	3.823298E-1	3.965999E-1	4.304157E-1	4.114548E-1	3.981971E-1	3.814965E-1	3.994924E-1	4.114628E-1	4.121968E-1	3.965570E-1	3.919253E-1	4.027570E-1	4.143873E-1	4.210570E-1	4.282328E-1	4.065306E-1	4.442655E-1	3.645035E-1	4.215475E-1	3.935720E-1	4.084935E-1	3.930148E-1	4.160032E-1	3.982798E-1	4.018561E-1	4.017528E-1	3.891397E-1	4.006769E-1	4.231896E-1	4.071465E-1	4.119661E-1	4.062727E-1	4.115021E-1	4.160349E-1	4.195945E-1	3.705510E-1	4.423823E-1	4.252963E-1	3.886482E-1	3.950539E-1	4.095353E-1	3.505358E-1	4.072347E-1	4.158270E-1	3.773166E-1
5.346870E+2	6.545581E-1	6.796898E-1	7.453057E-1	6.934294E-1	7.324864E-1	6.699871E-1	6.750753E-1	6.750469E-1	6.912587E-1	7.173938E-1	6.886667E-1	6.899855E-1	6.929867E-1	6.926133E-1	7.060102E-1	6.665123E-1	8.802017E-1	8.441737E-1	7.766259E-1	7.836793E-1	7.842744E-1	7.738972E-1	7.898507E-1	6.955197E-1	7.618577E-1	7.098401E-1	7.657501E-1	7.439986E-1	7.518828E-1	7.251341E-1	7.343134E-1	6.985850E-1	7.723053E-1	6.853746E-1	6.946881E-1	6.714947E-1	6.926746E-1	7.394556E-1	6.719454E-1	7.074947E-1	7.381007E-1	7.279175E-1	7.313221E-1	7.041218E-1	7.241796E-1	7.347157E-1	7.217185E-1	7.184447E-1	7.293675E-1	7.507562E-1	7.442096E-1	6.925715E-1	6.966035E-1	7.256471E-1	7.544432E-1	7.264906E-1	7.166834E-1	7.179370E-1	6.576753E-1	6.875107E-1	6.797886E-1	6.696807E-1	7.221706E-1	6.895480E-1	7.161762E-1	6.819200E-1	6.906979E-1	6.680672E-1	7.461608E-1	7.192473E-1	6.972607E-1	7.201049E-1	7.200326E-1	6.910920E-1	7.366470E-1	7.333723E-1	6.773335E-1	7.073868E-1	6.956835E-1	7.067284E-1	7.211145E-1	7.065407E-1	7.101117E-1	7.313971E-1	7.268313E-1	7.339583E-1	7.295462E-1	7.000724E-1	7.215806E-1	6.821871E-1	7.379526E-1	7.273287E-1	7.082012E-1	6.523222E-1	6.818901E-1	6.958084E-1	7.126637E-1	7.374666E-1	6.963391E-1	7.183697E-1	7.229957E-1	7.577497E-1	7.346782E-1	7.330552E-1	6.866269E-1	7.535530E-1	7.142799E-1	7.140807E-1	7.243332E-1	7.166600E-1	7.274053E-1	6.715152E-1	6.948899E-1	6.966370E-1	6.823651E-1	6.828029E-1	7.418029E-1	7.004700E-1	6.750578E-1	6.849030E-1	7.294508E-1	7.052425E-1	6.903607E-1	7.323778E-1	7.223672E-1	6.734603E-1	7.184680E-1	7.545698E-1	7.350906E-1	6.907484E-1	6.998912E-1	6.718011E-1	7.505386E-1	7.483084E-1	7.221546E-1	6.871780E-1	7.483254E-1	6.955093E-1	6.464368E-1	6.860115E-1	7.316513E-1	6.907412E-1	7.238033E-1	7.038341E-1	7.106370E-1	7.196085E-1	6.983042E-1	7.160010E-1	7.400646E-1	7.008516E-1	7.219897E-1	7.443635E-1	7.525497E-1	6.649650E-1	7.107724E-1	7.208244E-1	7.082938E-1	6.920293E-1	7.431007E-1	7.033773E-1	7.547784E-1	6.917569E-1	7.126316E-1	7.864829E-1	6.938730E-1
5.348070E+2	9.647275E-1	9.595035E-1	9.804176E-1	9.742939E-1	1.034586E+0	9.833193E-1	1.019004E+0	1.004838E+0	1.003112E+0	9.997840E-1	9.911886E-1	1.010120E+0	9.700428E-1	9.928233E-1	9.942067E-1	9.845750E-1	1.129092E+0	1.100615E+0	1.058033E+0	1.057426E+0	1.093402E+0	1.127164E+0	1.067922E+0	1.028882E+0	1.121222E+0	1.087172E+0	1.097207E+0	1.054123E+0	1.134121E+0	1.001317E+0	1.003593E+0	9.840266E-1	1.099712E+0	1.014479E+0	1.023014E+0	1.001280E+0	1.068346E+0	1.067621E+0	1.013768E+0	1.001214E+0	1.098772E+0	9.985536E-1	1.054844E+0	1.018615E+0	1.019188E+0	1.021341E+0	1.087539E+0	1.040654E+0	9.509116E-1	1.059695E+0	1.008212E+0	1.031533E+0	1.115621E+0	1.049282E+0	9.920275E-1	1.029575E+0	1.075622E+0	1.016573E+0	1.023837E+0	1.034720E+0	1.020618E+0	1.026336E+0	9.755107E-1	1.016358E+0	1.057825E+0	1.047836E+0	1.048468E+0	1.032882E+0	9.925282E-1	9.905722E-1	1.003067E+0	1.047660E+0	1.067801E+0	9.846051E-1	1.029583E+0	1.023494E+0	1.019634E+0	9.797512E-1	1.002879E+0	9.574001E-1	1.044116E+0	1.022408E+0	1.026023E+0	9.945949E-1	1.030447E+0	1.041499E+0	1.030662E+0	1.017158E+0	9.827576E-1	1.014704E+0	9.884367E-1	1.018620E+0	1.044062E+0	9.974222E-1	9.612712E-1	9.821915E-1	1.006447E+0	1.043185E+0	9.656079E-1	9.729969E-1	1.053359E+0	9.798839E-1	1.051859E+0	1.001894E+0	1.058439E+0	1.041659E+0	1.089285E+0	1.035253E+0	1.007593E+0	1.035544E+0	1.044449E+0	1.029607E+0	9.993558E-1	9.917371E-1	1.032667E+0	1.012451E+0	1.064644E+0	1.010146E+0	9.825007E-1	9.974855E-1	1.013216E+0	1.046976E+0	9.950428E-1	1.012652E+0	1.009433E+0	1.006397E+0	1.014638E+0	1.019621E+0	1.026192E+0	9.950614E-1	9.857595E-1	1.039548E+0	1.039070E+0	9.999650E-1	1.026672E+0	1.008892E+0	1.054812E+0	1.020052E+0	9.544027E-1	1.023462E+0	1.048979E+0	9.988610E-1	1.034610E+0	9.820279E-1	1.026453E+0	1.026379E+0	1.025494E+0	9.835018E-1	9.831700E-1	1.059591E+0	1.061464E+0	1.004533E+0	1.009384E+0	9.964892E-1	1.005041E+0	1.004514E+0	9.865890E-1	9.764580E-1	1.011221E+0	9.996429E-1	1.032339E+0	1.014207E+0	1.055157E+0	1.040312E+0	1.047547E+0
5.349630E+2	1.395645E+0	1.394415E+0	1.443585E+0	1.349408E+0	1.425617E+0	1.425072E+0	1.427303E+0	1.386929E+0	1.401909E+0	1.474556E+0	1.459368E+0	1.336087E+0	1.455489E+0	1.393303E+0	1.447289E+0	1.493094E+0	1.603532E+0	1.484490E+0	1.506230E+0	1.505345E+0	1.508288E+0	1.468382E+0	1.448379E+0	1.453201E+0	1.526672E+0	1.517360E+0	1.456786E+0	1.537578E+0	1.495499E+0	1.430834E+0	1.475673E+0	1.451778E+0	1.469295E+0	1.424529E+0	1.529869E+0	1.448439E+0	1.453098E+0	1.417902E+0	1.451967E+0	1.479481E+0	1.465492E+0	1.503178E+0	1.514461E+0	1.512418E+0	1.464368E+0	1.485004E+0	1.471878E+0	1.423416E+0	1.485091E+0	1.407528E+0	1.503914E+0	1.395107E+0	1.455745E+0	1.419584E+0	1.484620E+0	1.451935E+0	1.498671E+0	1.443851E+0	1.417631E+0	1.492763E+0	1.517421E+0	1.434976E+0	1.413891E+0	1.429238E+0	1.457049E+0	1.483041E+0	1.474301E+0	1.460904E+0	1.451663E+0	1.403774E+0	1.463197E+0	1.515977E+0	1.446131E+0	1.416432E+0	1.447278E+0	1.490250E+0	1.428128E+0	1.417131E+0	1.434552E+0	1.450954E+0	1.455463E+0	1.407306E+0	1.458490E+0	1.456649E+0	1.518232E+0	1.402385E+0	1.447041E+0	1.478197E+0	1.504785E+0	1.399030E+0	1.463945E+0	1.404346E+0	1.417057E+0	1.428327E+0	1.321432E+0	1.431464E+0	1.476029E+0	1.456367E+0	1.422718E+0	1.471196E+0	1.457544E+0	1.448004E+0	1.444373E+0	1.514909E+0	1.428039E+0	1.412203E+0	1.423001E+0	1.438411E+0	1.416661E+0	1.382507E+0	1.427738E+0	1.407108E+0	1.468683E+0	1.414782E+0	1.500384E+0	1.449090E+0	1.443431E+0	1.432002E+0	1.399181E+0	1.415661E+0	1.459742E+0	1.460767E+0	1.436208E+0	1.509894E+0	1.423329E+0	1.380258E+0	1.376276E+0	1.434830E+0	1.444004E+0	1.421543E+0	1.392361E+0	1.449247E+0	1.427146E+0	1.454438E+0	1.454701E+0	1.452776E+0	1.472233E+0	1.372938E+0	1.417525E+0	1.406021E+0	1.457805E+0	1.392742E+0	1.378418E+0	1.380225E+0	1.442363E+0	1.485392E+0	1.430216E+0	1.428224E+0	1.450020E+0	1.442212E+0	1.435969E+0	1.456714E+0	1.543964E+0	1.439324E+0	1.501708E+0	1.459908E+0	1.469853E+0	1.385445E+0	1.416756E+0	1.413880E+0	1.468937E+0	1.425355E+0	1.465871E+0	1.462639E+0	1.434960E+0
5.351090E+2	1.863285E+0	1.846670E+0	1.827865E+0	1.814733E+0	1.779144E+0	1.807674E+0	1.786056E+0	1.755673E+0	1.804469E+0	1.815339E+0	1.854164E+0	1.759862E+0	1.780025E+0	1.801795E+0	1.789973E+0	1.776136E+0	1.832968E+0	1.883329E+0	1.789755E+0	1.819960E+0	1.787818E+0	1.814732E+0	1.770246E+0	1.751361E+0	1.847870E+0	1.858464E+0	1.896376E+0	1.761556E+0	1.806273E+0	1.804341E+0	1.770454E+0	1.782352E+0	1.786632E+0	1.766626E+0	1.764916E+0	1.736499E+0	1.780176E+0	1.822801E+0	1.831842E+0	1.744754E+0	1.879226E+0	1.786320E+0	1.806455E+0	1.817815E+0	1.828330E+0	1.813409E+0	1.804350E+0	1.740656E+0	1.891796E+0	1.803427E+0	1.792400E+0	1.754123E+0	1.754457E+0	1.801693E+0	1.808516E+0	1.872593E+0	1.796660E+0	1.819215E+0	1.792494E+0	1.852974E+0	1.775748E+0	1.762675E+0	1.759975E+0	1.745317E+0	1.792643E+0	1.766023E+0	1.788141E+0	1.764214E+0	1.834636E+0	1.702718E+0	1.722807E+0	1.820791E+0	1.818877E+0	1.805183E+0	1.765101E+0	1.826555E+0	1.729821E+0	1.760837E+0	1.759602E+0	1.734219E+0	1.833598E+0	1.701857E+0	1.794042E+0	1.734959E+0	1.819209E+0	1.738740E+0	1.854351E+0	1.797502E+0	1.786798E+0	1.763645E+0	1.753296E+0	1.790673E+0	1.793675E+0	1.765757E+0	1.698989E+0	1.723480E+0	1.808527E+0	1.755172E+0	1.782541E+0	1.794869E+0	1.870471E+0	1.756424E+0	1.826776E+0	1.760797E+0	1.749442E+0	1.729385E+0	1.788840E+0	1.709864E+0	1.750100E+0	1.749318E+0	1.729980E+0	1.655912E+0	1.801173E+0	1.738907E+0	1.800799E+0	1.763087E+0	1.798647E+0	1.829761E+0	1.676507E+0	1.782299E+0	1.757676E+0	1.867879E+0	1.818584E+0	1.791128E+0	1.758543E+0	1.706157E+0	1.766063E+0	1.740208E+0	1.724090E+0	1.712696E+0	1.753895E+0	1.751792E+0	1.749546E+0	1.750307E+0	1.760645E+0	1.762091E+0	1.781870E+0	1.737675E+0	1.680705E+0	1.755114E+0	1.788260E+0	1.758546E+0	1.726841E+0	1.761202E+0	1.783156E+0	1.714104E+0	1.738528E+0	1.742512E+0	1.755383E+0	1.730927E+0	1.728602E+0	1.711561E+0	1.807252E+0	1.729731E+0	1.772802E+0	1.840557E+0	1.763055E+0	1.703761E+0	1.670201E+0	1.752556E+0	1.751312E+0	1.730078E+0	1.813912E+0	1.782641E+0	1.638237E+0
5.352650E+2	2.106117E+0	1.992917E+0	2.080515E+0	2.041313E+0	2.030566E+0	2.055489E+0	2.062984E+0	2.045176E+0	1.982472E+0	2.114441E+0	2.017714E+0	2.011378E+0	2.072401E+0	2.028399E+0	2.028181E+0	2.063558E+0	1.963472E+0	1.959133E+0	1.992202E+0	1.969927E+0	1.980631E+0	2.033124E+0	2.004649E+0	1.962418E+0	2.018725E+0	2.011860E+0	2.136550E+0	2.028188E+0	2.046700E+0	2.046325E+0	2.009889E+0	2.038382E+0	2.013612E+0	2.017891E+0	1.960756E+0	1.946884E+0	1.985515E+0	2.026687E+0	2.010569E+0	1.973371E+0	2.026132E+0	1.982457E+0	2.049319E+0	2.036172E+0	2.033393E+0	1.945722E+0	1.959053E+0	1.992658E+0	2.031847E+0	1.960737E+0	2.056734E+0	1.983867E+0	2.014442E+0	2.006145E+0	2.014379E+0	2.026280E+0	2.028951E+0	1.970938E+0	2.037414E+0	2.048943E+0	1.989046E+0	1.966983E+0	1.994484E+0	1.991187E+0	2.033152E+0	1.976561E+0	2.030469E+0	1.983920E+0	1.994209E+0	2.008185E+0	1.958251E+0	2.021403E+0	2.040308E+0	1.968153E+0	2.003667E+0	2.024052E+0	1.973711E+0	1.926805E+0	2.018413E+0	1.945831E+0	2.046033E+0	1.944264E+0	2.045838E+0	2.049443E+0	2.021556E+0	2.055968E+0	1.957401E+0	2.002248E+0	1.944063E+0	1.974498E+0	2.027490E+0	1.936581E+0	1.974779E+0	1.947574E+0	1.938489E+0	1.944677E+0	1.997364E+0	1.989003E+0	1.961161E+0	2.004082E+0	1.987239E+0	1.979601E+0	2.055320E+0	1.989028E+0	1.970104E+0	1.980408E+0	2.054025E+0	1.921467E+0	1.930746E+0	1.997187E+0	1.934231E+0	1.863938E+0	1.953975E+0	1.985595E+0	2.013641E+0	2.015490E+0	1.982185E+0	1.951005E+0	1.920440E+0	1.993774E+0	2.008623E+0	1.974763E+0	1.985429E+0	2.066620E+0	1.927920E+0	1.922457E+0	1.929569E+0	1.955710E+0	1.961111E+0	1.895809E+0	1.942971E+0	1.997591E+0	1.987862E+0	1.986491E+0	1.943081E+0	1.944399E+0	1.972847E+0	1.941970E+0	1.894140E+0	1.940693E+0	2.013071E+0	1.970445E+0	2.011100E+0	1.941966E+0	1.975867E+0	1.876386E+0	1.963140E+0	1.968437E+0	1.969104E+0	1.897484E+0	1.979779E+0	1.958850E+0	2.055948E+0	1.936141E+0	2.014271E+0	1.989805E+0	1.969534E+0	1.873129E+0	1.987845E+0	1.913320E+0	2.016204E+0	1.944842E+0	1.979426E+0	2.018518E+0	1.942467E+0
5.354170E+2	2.084144E+0	2.022129E+0	2.042338E+0	1.936496E+0	2.011060E+0	2.106104E+0	2.094846E+0	2.015621E+0	2.026519E+0	2.075294E+0	2.056516E+0	2.070894E+0	2.071868E+0	1.964546E+0	2.094585E+0	1.999791E+0	1.936453E+0	1.970755E+0	1.971432E+0	1.948863E+0	1.983174E+0	1.940245E+0	2.007950E+0	1.975605E+0	2.039624E+0	2.066064E+0	2.095925E+0	2.019133E+0	2.011807E+0	1.996823E+0	2.032012E+0	1.927468E+0	2.105518E+0	1.967274E+0	1.945970E+0	2.003069E+0	1.968241E+0	2.036269E+0	2.023737E+0	2.019161E+0	1.982874E+0	1.972584E+0	2.013074E+0	1.984471E+0	2.000685E+0	2.021250E+0	1.992090E+0	1.938239E+0	1.969508E+0	1.983219E+0	1.961218E+0	1.986206E+0	2.050218E+0	2.066229E+0	2.035095E+0	1.964715E+0	1.968962E+0	2.055175E+0	2.044540E+0	2.108039E+0	2.066034E+0	1.937772E+0	2.048179E+0	1.944467E+0	2.019380E+0	1.968799E+0	1.977307E+0	1.968714E+0	2.028371E+0	1.939892E+0	1.945738E+0	2.020511E+0	1.977172E+0	1.992122E+0	1.984928E+0	1.986824E+0	1.998159E+0	1.934711E+0	1.962054E+0	1.971719E+0	2.017567E+0	1.970369E+0	1.983412E+0	2.024273E+0	2.045773E+0	1.996456E+0	2.018863E+0	1.927195E+0	1.987229E+0	1.995029E+0	1.982001E+0	1.929907E+0	1.993189E+0	1.974728E+0	1.944690E+0	1.948117E+0	2.057138E+0	1.960488E+0	2.017298E+0	1.971272E+0	1.967936E+0	1.959821E+0	2.001774E+0	2.037364E+0	1.884046E+0	2.026721E+0	2.001424E+0	1.954767E+0	1.944528E+0	1.968366E+0	1.994418E+0	1.902418E+0	1.994682E+0	1.966441E+0	2.002940E+0	1.900172E+0	1.951896E+0	2.016674E+0	1.971561E+0	1.977413E+0	1.971312E+0	1.897709E+0	1.924114E+0	1.949227E+0	1.967565E+0	1.909427E+0	1.963585E+0	1.962849E+0	1.965413E+0	1.919449E+0	1.951507E+0	1.916582E+0	1.893519E+0	1.990635E+0	1.939907E+0	1.980239E+0	2.045463E+0	1.979501E+0	1.926954E+0	1.980236E+0	1.983057E+0	1.956175E+0	2.025427E+0	1.917123E+0	1.996895E+0	1.895104E+0	1.934939E+0	1.962233E+0	1.909099E+0	1.967169E+0	1.999101E+0	1.974470E+0	1.946488E+0	1.866588E+0	2.055841E+0	1.976093E+0	1.943177E+0	1.973402E+0	1.903279E+0	2.010585E+0	1.985437E+0	1.970892E+0	1.979778E+0	1.836814E+0	1.921269E+0
5.355630E+2	1.862547E+0	1.939174E+0	1.914034E+0	1.896414E+0	1.897600E+0	1.959768E+0	1.909836E+0	1.864727E+0	1.918288E+0	1.887053E+0	1.916334E+0	1.894828E+0	1.940550E+0	1.896121E+0	1.906814E+0	1.922882E+0	1.802960E+0	1.883391E+0	1.893397E+0	1.832772E+0	1.809870E+0	1.933928E+0	1.843220E+0	1.827915E+0	1.961247E+0	1.930226E+0	1.876334E+0	1.895923E+0	1.861250E+0	1.864232E+0	1.895229E+0	1.816576E+0	1.921076E+0	1.853603E+0	1.930568E+0	1.874229E+0	1.872572E+0	1.956607E+0	1.921274E+0	1.874290E+0	1.878707E+0	1.912890E+0	1.895883E+0	1.893384E+0	1.865898E+0	1.864084E+0	1.852159E+0	1.809053E+0	1.887952E+0	1.932277E+0	1.852823E+0	1.887519E+0	1.834095E+0	1.987510E+0	1.942568E+0	1.941053E+0	1.874181E+0	1.917404E+0	1.848276E+0	1.936622E+0	1.871022E+0	1.837030E+0	1.882271E+0	1.891673E+0	1.915239E+0	1.874234E+0	1.889756E+0	1.821419E+0	1.876712E+0	1.791203E+0	1.869739E+0	1.846654E+0	1.875359E+0	1.825049E+0	1.853779E+0	1.864861E+0	1.867271E+0	1.814738E+0	1.847677E+0	1.831735E+0	1.880574E+0	1.887048E+0	1.860165E+0	1.876470E+0	1.945999E+0	1.925380E+0	1.880489E+0	1.874244E+0	1.861537E+0	1.850764E+0	1.790374E+0	1.907512E+0	1.872084E+0	1.771791E+0	1.830305E+0	1.862438E+0	1.879624E+0	1.913498E+0	1.883758E+0	1.890979E+0	1.840320E+0	1.880908E+0	1.915004E+0	1.862584E+0	1.794324E+0	1.866609E+0	1.827009E+0	1.801321E+0	1.814569E+0	1.911579E+0	1.849115E+0	1.838955E+0	1.865825E+0	1.797449E+0	1.901496E+0	1.867685E+0	1.870377E+0	1.882400E+0	1.784658E+0	1.924819E+0	1.813042E+0	1.835309E+0	1.830091E+0	1.921640E+0	1.844646E+0	1.773473E+0	1.867899E+0	1.829151E+0	1.818896E+0	1.796092E+0	1.802406E+0	1.827019E+0	1.832308E+0	1.810149E+0	1.893327E+0	1.889735E+0	1.883753E+0	1.865809E+0	1.753052E+0	1.837017E+0	1.880249E+0	1.770006E+0	1.817626E+0	1.865375E+0	1.869819E+0	1.840545E+0	1.786940E+0	1.790452E+0	1.878529E+0	1.799864E+0	1.850186E+0	1.862088E+0	1.794036E+0	1.829602E+0	1.924012E+0	1.880489E+0	1.841980E+0	1.819985E+0	1.854516E+0	1.846170E+0	1.915809E+0	1.798461E+0	1.806032E+0	1.767702E+0	1.843816E+0
5.357090E+2	1.669479E+0	1.660167E+0	1.781768E+0	1.708673E+0	1.679040E+0	1.778281E+0	1.712523E+0	1.735195E+0	1.692097E+0	1.719485E+0	1.721449E+0	1.717860E+0	1.717420E+0	1.721182E+0	1.709448E+0	1.717799E+0	1.611577E+0	1.679177E+0	1.635534E+0	1.659215E+0	1.666038E+0	1.779713E+0	1.675637E+0	1.648604E+0	1.663610E+0	1.770430E+0	1.700161E+0	1.732416E+0	1.660043E+0	1.719769E+0	1.659742E+0	1.650405E+0	1.732298E+0	1.620867E+0	1.698762E+0	1.690874E+0	1.744265E+0	1.665067E+0	1.696645E+0	1.676660E+0	1.691900E+0	1.692898E+0	1.638727E+0	1.685310E+0	1.699561E+0	1.680142E+0	1.701278E+0	1.646388E+0	1.727666E+0	1.768822E+0	1.651091E+0	1.673953E+0	1.713808E+0	1.764297E+0	1.679445E+0	1.640477E+0	1.729250E+0	1.646699E+0	1.689970E+0	1.668437E+0	1.651865E+0	1.699159E+0	1.653042E+0	1.679335E+0	1.710554E+0	1.641953E+0	1.725198E+0	1.728386E+0	1.689419E+0	1.634799E+0	1.726218E+0	1.714689E+0	1.686823E+0	1.623023E+0	1.727575E+0	1.700233E+0	1.650105E+0	1.633086E+0	1.658565E+0	1.674455E+0	1.724613E+0	1.670067E+0	1.703133E+0	1.628629E+0	1.669452E+0	1.684752E+0	1.723892E+0	1.699421E+0	1.685892E+0	1.704495E+0	1.697438E+0	1.685528E+0	1.636773E+0	1.644253E+0	1.676349E+0	1.701375E+0	1.741414E+0	1.629831E+0	1.670925E+0	1.690300E+0	1.648941E+0	1.710156E+0	1.702106E+0	1.721659E+0	1.652453E+0	1.720193E+0	1.659428E+0	1.651849E+0	1.661292E+0	1.657038E+0	1.673226E+0	1.633065E+0	1.651969E+0	1.683213E+0	1.682335E+0	1.723285E+0	1.686285E+0	1.649515E+0	1.634194E+0	1.658533E+0	1.604135E+0	1.647991E+0	1.735485E+0	1.692821E+0	1.724791E+0	1.670902E+0	1.699543E+0	1.654051E+0	1.629954E+0	1.642966E+0	1.696086E+0	1.634467E+0	1.692232E+0	1.678782E+0	1.607016E+0	1.702916E+0	1.607284E+0	1.613482E+0	1.645894E+0	1.686505E+0	1.690454E+0	1.671284E+0	1.643247E+0	1.614615E+0	1.630484E+0	1.656716E+0	1.669446E+0	1.648151E+0	1.632058E+0	1.665681E+0	1.654000E+0	1.628710E+0	1.624891E+0	1.725046E+0	1.693040E+0	1.672477E+0	1.614601E+0	1.690348E+0	1.635031E+0	1.607681E+0	1.738201E+0	1.654436E+0	1.672494E+0	1.654882E+0	1.762890E+0
5.358550E+2	1.579188E+0	1.524980E+0	1.485042E+0	1.477516E+0	1.498016E+0	1.564649E+0	1.554690E+0	1.475463E+0	1.447138E+0	1.442451E+0	1.497890E+0	1.444224E+0	1.481883E+0	1.585197E+0	1.489281E+0	1.463780E+0	1.509057E+0	1.454594E+0	1.427265E+0	1.437265E+0	1.458643E+0	1.504162E+0	1.451585E+0	1.417441E+0	1.486289E+0	1.551993E+0	1.530167E+0	1.535806E+0	1.515265E+0	1.462244E+0	1.525276E+0	1.489621E+0	1.546429E+0	1.472644E+0	1.503670E+0	1.551408E+0	1.482685E+0	1.493219E+0	1.524660E+0	1.514007E+0	1.554039E+0	1.440395E+0	1.532509E+0	1.505285E+0	1.511516E+0	1.459483E+0	1.503554E+0	1.468928E+0	1.523233E+0	1.479624E+0	1.560399E+0	1.429907E+0	1.462993E+0	1.483991E+0	1.512654E+0	1.456210E+0	1.522176E+0	1.462968E+0	1.421681E+0	1.515277E+0	1.524412E+0	1.413703E+0	1.460058E+0	1.441096E+0	1.483246E+0	1.480694E+0	1.492250E+0	1.490123E+0	1.520137E+0	1.470075E+0	1.490290E+0	1.516812E+0	1.467419E+0	1.429679E+0	1.492509E+0	1.497371E+0	1.448480E+0	1.478840E+0	1.524515E+0	1.504701E+0	1.485996E+0	1.434947E+0	1.450122E+0	1.443482E+0	1.511244E+0	1.455977E+0	1.501041E+0	1.527255E+0	1.491382E+0	1.527277E+0	1.447237E+0	1.521691E+0	1.446084E+0	1.414509E+0	1.493068E+0	1.453121E+0	1.471308E+0	1.489732E+0	1.450266E+0	1.452112E+0	1.479163E+0	1.469936E+0	1.444475E+0	1.493574E+0	1.389370E+0	1.503219E+0	1.433748E+0	1.471031E+0	1.500803E+0	1.487505E+0	1.474505E+0	1.444800E+0	1.447107E+0	1.510961E+0	1.520731E+0	1.484214E+0	1.528262E+0	1.465494E+0	1.399445E+0	1.481502E+0	1.474295E+0	1.460847E+0	1.482901E+0	1.493310E+0	1.445349E+0	1.482599E+0	1.469882E+0	1.469396E+0	1.485448E+0	1.446157E+0	1.485874E+0	1.484866E+0	1.461391E+0	1.473292E+0	1.439217E+0	1.467504E+0	1.468553E+0	1.525387E+0	1.488215E+0	1.497391E+0	1.538801E+0	1.448869E+0	1.465013E+0	1.427138E+0	1.487520E+0	1.462307E+0	1.454422E+0	1.488616E+0	1.494301E+0	1.456769E+0	1.497890E+0	1.517605E+0	1.476375E+0	1.453168E+0	1.495950E+0	1.450289E+0	1.451062E+0	1.477514E+0	1.456094E+0	1.488516E+0	1.468643E+0	1.428658E+0	1.490896E+0	1.453612E+0	1.568230E+0
5.360170E+2	1.281400E+0	1.250121E+0	1.260787E+0	1.255151E+0	1.249598E+0	1.300152E+0	1.263594E+0	1.229432E+0	1.235711E+0	1.288950E+0	1.228517E+0	1.191530E+0	1.253033E+0	1.197560E+0	1.258233E+0	1.193962E+0	1.262478E+0	1.222215E+0	1.219920E+0	1.176561E+0	1.223276E+0	1.269681E+0	1.235805E+0	1.191558E+0	1.249434E+0	1.285476E+0	1.224923E+0	1.276452E+0	1.230607E+0	1.231771E+0	1.284841E+0	1.199696E+0	1.281219E+0	1.228734E+0	1.269591E+0	1.173780E+0	1.266921E+0	1.242306E+0	1.253436E+0	1.215533E+0	1.203224E+0	1.262465E+0	1.254832E+0	1.300171E+0	1.240154E+0	1.265239E+0	1.261740E+0	1.179045E+0	1.180831E+0	1.179755E+0	1.272614E+0	1.237517E+0	1.270098E+0	1.268797E+0	1.179592E+0	1.180589E+0	1.219591E+0	1.235272E+0	1.252500E+0	1.239220E+0	1.239189E+0	1.198621E+0	1.193077E+0	1.259387E+0	1.245645E+0	1.280377E+0	1.245077E+0	1.165791E+0	1.222564E+0	1.239613E+0	1.215319E+0	1.239215E+0	1.268467E+0	1.182173E+0	1.195993E+0	1.274619E+0	1.206168E+0	1.209334E+0	1.224113E+0	1.192956E+0	1.273984E+0	1.182543E+0	1.229306E+0	1.213351E+0	1.257169E+0	1.189675E+0	1.223299E+0	1.180069E+0	1.213043E+0	1.203228E+0	1.219367E+0	1.188111E+0	1.242550E+0	1.177906E+0	1.173942E+0	1.237866E+0	1.242830E+0	1.241603E+0	1.263253E+0	1.220258E+0	1.232727E+0	1.249293E+0	1.276867E+0	1.261943E+0	1.227238E+0	1.257671E+0	1.186967E+0	1.192523E+0	1.272416E+0	1.220102E+0	1.212966E+0	1.226629E+0	1.223205E+0	1.229909E+0	1.256022E+0	1.254921E+0	1.237933E+0	1.224775E+0	1.201029E+0	1.245455E+0	1.205363E+0	1.239225E+0	1.229321E+0	1.236195E+0	1.232558E+0	1.223656E+0	1.152778E+0	1.252687E+0	1.258319E+0	1.196497E+0	1.212043E+0	1.210706E+0	1.204389E+0	1.268759E+0	1.196145E+0	1.235191E+0	1.229652E+0	1.235485E+0	1.220647E+0	1.252508E+0	1.257073E+0	1.256381E+0	1.252563E+0	1.262055E+0	1.194125E+0	1.190719E+0	1.237563E+0	1.217076E+0	1.218939E+0	1.205890E+0	1.227454E+0	1.247588E+0	1.238054E+0	1.242022E+0	1.263902E+0	1.280460E+0	1.264049E+0	1.211292E+0	1.219874E+0	1.196319E+0	1.265622E+0	1.217560E+0	1.287406E+0	1.203713E+0	1.197780E+0
5.362580E+2	8.722918E-1	9.218708E-1	9.136404E-1	8.945311E-1	9.152438E-1	9.331977E-1	9.005892E-1	9.318924E-1	9.521253E-1	9.592687E-1	9.164079E-1	9.375538E-1	9.628614E-1	9.436380E-1	9.423115E-1	9.228576E-1	9.305376E-1	9.108084E-1	9.001774E-1	9.027707E-1	8.946984E-1	9.370341E-1	8.829147E-1	8.963033E-1	9.982590E-1	9.648736E-1	9.079537E-1	9.295323E-1	9.537795E-1	9.303528E-1	9.436923E-1	9.540969E-1	9.357515E-1	9.116095E-1	9.500218E-1	8.996153E-1	9.343904E-1	9.873558E-1	9.490667E-1	9.309960E-1	9.843053E-1	9.300164E-1	9.352143E-1	9.385456E-1	9.488324E-1	9.593622E-1	9.434862E-1	9.234473E-1	9.112353E-1	9.451750E-1	9.192786E-1	9.264714E-1	9.476851E-1	9.523401E-1	9.480056E-1	9.377066E-1	9.375468E-1	9.479066E-1	9.883631E-1	9.468255E-1	9.451418E-1	8.944790E-1	9.216622E-1	9.260545E-1	9.570955E-1	9.401543E-1	9.199493E-1	9.202141E-1	9.723380E-1	9.073102E-1	9.044915E-1	9.348590E-1	9.392525E-1	9.020437E-1	9.284904E-1	9.693488E-1	9.091022E-1	9.324872E-1	9.235882E-1	9.206259E-1	9.392769E-1	9.035331E-1	9.723538E-1	9.217323E-1	9.562733E-1	9.315542E-1	9.345983E-1	9.550241E-1	9.509082E-1	8.950994E-1	9.419670E-1	8.961555E-1	9.291966E-1	9.178196E-1	9.343139E-1	9.187510E-1	9.516862E-1	9.401928E-1	9.492763E-1	9.132202E-1	9.099970E-1	9.333403E-1	9.679071E-1	9.612481E-1	9.543376E-1	9.453238E-1	9.738819E-1	9.508916E-1	9.199005E-1	8.879526E-1	9.756249E-1	8.950289E-1	9.281274E-1	9.468330E-1	9.453375E-1	9.503892E-1	9.380026E-1	9.684382E-1	9.240446E-1	9.482165E-1	9.277297E-1	9.748844E-1	9.177219E-1	9.653280E-1	9.146615E-1	8.717244E-1	8.994068E-1	9.549833E-1	9.281529E-1	9.367274E-1	9.210924E-1	9.173844E-1	9.697715E-1	9.350707E-1	9.296613E-1	9.767462E-1	9.491996E-1	9.597542E-1	9.316526E-1	9.581252E-1	9.479810E-1	9.424015E-1	9.926593E-1	9.347181E-1	9.397958E-1	9.076758E-1	9.295296E-1	9.405988E-1	9.359214E-1	9.435582E-1	9.399637E-1	9.724424E-1	9.415938E-1	9.621559E-1	1.042908E+0	9.219214E-1	9.247118E-1	9.469744E-1	9.194588E-1	9.568683E-1	9.743498E-1	8.775272E-1	9.089786E-1	9.981287E-1	9.476876E-1
5.365090E+2	7.065886E-1	6.853309E-1	7.347139E-1	7.045823E-1	7.403820E-1	7.294257E-1	7.051584E-1	7.348901E-1	6.962468E-1	7.161297E-1	7.656779E-1	6.858640E-1	7.385131E-1	7.185173E-1	7.405219E-1	7.651733E-1	7.050469E-1	7.073946E-1	7.411735E-1	7.046377E-1	7.315416E-1	7.434487E-1	7.005526E-1	7.136888E-1	7.132343E-1	7.647480E-1	7.793088E-1	7.640918E-1	7.414988E-1	7.036439E-1	7.656318E-1	7.193210E-1	7.373759E-1	6.757035E-1	7.096030E-1	6.866586E-1	7.348459E-1	7.123747E-1	7.419728E-1	7.019107E-1	7.134967E-1	7.345166E-1	7.756171E-1	6.909579E-1	7.406256E-1	7.481780E-1	7.095405E-1	6.743194E-1	7.406939E-1	7.102286E-1	7.312866E-1	7.360702E-1	7.170604E-1	7.190696E-1	7.162371E-1	7.577493E-1	7.275458E-1	7.193806E-1	7.578456E-1	7.481045E-1	7.597086E-1	7.448710E-1	7.093654E-1	7.076007E-1	7.440781E-1	7.837390E-1	7.169368E-1	6.894092E-1	7.254070E-1	7.104847E-1	7.111844E-1	7.047518E-1	7.302260E-1	6.737039E-1	7.113158E-1	7.613680E-1	7.264419E-1	7.241652E-1	7.712578E-1	7.085844E-1	7.449950E-1	7.532031E-1	7.504447E-1	7.618067E-1	7.356679E-1	7.301318E-1	7.473356E-1	7.148041E-1	7.589395E-1	7.306043E-1	6.946871E-1	6.981815E-1	6.912806E-1	7.043635E-1	7.475485E-1	7.700648E-1	7.362461E-1	6.906638E-1	7.460001E-1	6.981366E-1	7.268309E-1	7.462353E-1	7.586994E-1	7.184001E-1	6.859853E-1	7.432394E-1	7.365706E-1	7.598634E-1	6.941379E-1	7.241150E-1	6.981053E-1	7.211619E-1	7.198355E-1	7.314680E-1	7.211033E-1	7.202013E-1	7.182329E-1	7.348514E-1	7.385572E-1	7.543913E-1	7.510823E-1	7.265398E-1	7.166874E-1	7.955977E-1	7.167012E-1	7.233903E-1	7.920971E-1	7.626145E-1	6.992324E-1	7.265578E-1	6.888727E-1	7.304015E-1	7.141404E-1	7.924516E-1	7.072573E-1	7.065099E-1	7.550703E-1	7.593596E-1	7.213441E-1	7.378742E-1	7.484970E-1	7.160843E-1	7.275033E-1	7.348075E-1	7.361430E-1	7.271903E-1	7.175916E-1	7.172905E-1	7.359175E-1	7.181813E-1	7.534810E-1	7.470769E-1	7.233636E-1	7.355968E-1	7.793477E-1	7.144716E-1	7.052629E-1	7.121540E-1	7.570980E-1	7.439698E-1	7.537970E-1	7.626505E-1	6.995336E-1	7.197147E-1	7.103364E-1
5.367600E+2	5.587510E-1	6.113439E-1	5.964353E-1	5.413166E-1	6.155412E-1	5.811430E-1	5.888302E-1	5.585593E-1	5.732158E-1	5.758228E-1	5.753682E-1	5.732249E-1	5.990628E-1	5.958929E-1	6.165501E-1	5.785934E-1	6.213300E-1	5.828866E-1	5.700036E-1	6.067080E-1	5.764674E-1	6.203457E-1	5.783956E-1	5.634326E-1	5.970714E-1	5.965653E-1	5.848113E-1	6.511684E-1	6.143494E-1	5.827983E-1	5.910012E-1	5.899796E-1	6.249135E-1	5.863420E-1	5.635666E-1	5.754231E-1	6.171094E-1	5.750512E-1	6.195648E-1	5.792354E-1	6.319252E-1	5.890691E-1	5.781243E-1	6.007899E-1	6.083661E-1	5.715373E-1	5.813103E-1	6.279982E-1	6.051336E-1	5.984631E-1	5.628808E-1	5.781550E-1	6.186483E-1	5.844492E-1	6.216709E-1	6.103940E-1	5.916931E-1	6.119799E-1	5.847689E-1	6.296578E-1	5.967641E-1	5.808312E-1	5.959754E-1	5.877712E-1	6.172438E-1	5.888706E-1	6.080199E-1	6.363920E-1	5.676463E-1	5.911157E-1	6.089550E-1	5.996716E-1	5.613277E-1	5.771317E-1	6.373127E-1	6.001795E-1	6.206921E-1	5.754730E-1	6.050334E-1	5.766903E-1	5.757885E-1	6.151950E-1	6.106574E-1	6.162668E-1	6.170507E-1	5.662178E-1	6.339310E-1	5.841607E-1	6.058283E-1	6.326938E-1	5.818012E-1	5.653509E-1	6.288135E-1	5.863556E-1	5.764643E-1	5.957081E-1	6.114598E-1	5.867056E-1	5.714665E-1	5.910072E-1	5.975827E-1	6.106949E-1	6.166644E-1	6.083429E-1	6.341800E-1	6.241838E-1	6.329919E-1	5.582040E-1	6.135279E-1	6.083887E-1	6.131554E-1	5.672760E-1	6.084599E-1	5.942083E-1	5.451288E-1	6.201295E-1	6.348577E-1	6.331314E-1	5.823736E-1	5.570129E-1	5.832815E-1	6.374884E-1	6.228227E-1	5.639419E-1	5.976853E-1	5.827975E-1	6.126449E-1	6.375922E-1	6.134906E-1	6.365805E-1	6.100295E-1	5.769069E-1	6.203115E-1	6.117100E-1	6.133775E-1	5.672540E-1	6.067343E-1	5.996078E-1	6.061913E-1	5.895016E-1	6.256538E-1	5.892397E-1	5.931980E-1	6.025248E-1	6.150814E-1	5.752020E-1	6.334558E-1	5.721627E-1	6.278722E-1	5.984224E-1	6.641576E-1	6.035377E-1	6.194159E-1	6.132244E-1	6.355499E-1	6.117359E-1	6.210057E-1	5.904867E-1	6.473787E-1	6.035452E-1	6.012789E-1	6.081734E-1	6.409949E-1	6.845411E-1	5.052889E-1
5.370280E+2	5.193703E-1	5.194107E-1	5.572198E-1	4.816303E-1	5.072944E-1	5.065643E-1	5.341018E-1	4.942001E-1	4.930972E-1	5.129255E-1	4.931542E-1	5.053290E-1	5.161129E-1	5.015612E-1	5.502863E-1	5.390996E-1	5.418598E-1	5.312180E-1	5.393614E-1	5.404368E-1	5.371026E-1	5.458042E-1	5.170556E-1	5.014189E-1	5.358114E-1	5.491724E-1	4.971104E-1	5.180165E-1	5.164285E-1	5.450283E-1	5.035631E-1	5.029687E-1	5.591545E-1	5.105687E-1	5.457427E-1	5.051541E-1	5.151773E-1	5.213758E-1	5.385388E-1	5.104091E-1	5.436028E-1	4.967662E-1	5.317633E-1	5.177202E-1	5.157002E-1	5.227528E-1	5.119910E-1	5.097608E-1	5.386613E-1	5.143221E-1	5.273713E-1	5.170441E-1	5.357502E-1	5.212859E-1	5.071883E-1	5.321793E-1	5.226286E-1	4.895307E-1	5.065139E-1	5.180615E-1	5.099733E-1	5.376171E-1	5.312410E-1	4.912021E-1	5.463959E-1	5.302390E-1	5.168016E-1	5.151072E-1	5.478177E-1	5.290154E-1	5.286626E-1	5.428912E-1	5.650588E-1	5.052000E-1	5.231906E-1	5.159508E-1	5.314680E-1	5.428870E-1	5.374397E-1	5.158045E-1	5.545926E-1	5.273831E-1	5.437128E-1	5.625695E-1	5.578164E-1	5.202983E-1	5.255991E-1	5.307342E-1	5.240454E-1	5.509322E-1	5.289704E-1	5.051611E-1	5.442473E-1	5.329782E-1	5.724692E-1	5.353131E-1	5.306581E-1	5.084329E-1	5.164496E-1	5.274322E-1	5.025172E-1	5.555129E-1	5.262683E-1	5.201082E-1	5.163202E-1	5.361712E-1	5.416841E-1	4.967609E-1	5.313032E-1	5.388550E-1	5.093520E-1	4.959430E-1	5.399143E-1	5.409564E-1	5.203416E-1	5.442877E-1	5.238617E-1	5.283061E-1	5.485590E-1	5.135133E-1	5.450269E-1	5.472575E-1	4.974801E-1	5.672684E-1	5.164923E-1	5.464170E-1	5.088635E-1	5.528622E-1	5.425813E-1	5.576550E-1	5.147474E-1	5.357802E-1	5.340250E-1	5.523950E-1	5.438661E-1	5.083030E-1	5.336959E-1	5.242094E-1	4.836286E-1	4.719370E-1	5.268881E-1	5.251871E-1	5.365140E-1	5.128642E-1	5.161598E-1	5.450487E-1	5.373196E-1	5.452354E-1	5.405033E-1	5.397920E-1	5.512512E-1	4.690066E-1	5.304627E-1	5.514679E-1	5.720940E-1	5.447534E-1	4.960094E-1	5.439208E-1	5.180277E-1	5.419708E-1	5.839188E-1	5.023340E-1	5.459289E-1	5.227169E-1	5.679568E-1
5.372640E+2	5.141044E-1	4.906049E-1	5.083556E-1	5.159515E-1	5.233430E-1	5.114283E-1	5.350080E-1	5.535691E-1	5.062161E-1	5.084333E-1	5.363010E-1	5.463649E-1	5.228096E-1	4.980209E-1	5.202024E-1	5.465654E-1	5.577784E-1	5.454914E-1	5.141461E-1	4.822270E-1	5.308893E-1	5.295557E-1	5.088607E-1	4.890051E-1	5.562138E-1	5.327088E-1	5.280695E-1	5.177468E-1	4.936924E-1	5.426131E-1	5.448433E-1	5.227274E-1	5.444795E-1	5.000771E-1	5.147104E-1	5.069571E-1	5.220764E-1	5.070510E-1	4.997438E-1	5.166996E-1	5.111040E-1	5.519358E-1	5.209556E-1	5.408637E-1	5.189926E-1	5.412016E-1	5.225230E-1	5.033889E-1	5.132869E-1	5.090205E-1	5.972397E-1	5.053905E-1	5.363634E-1	5.056236E-1	4.981680E-1	5.258532E-1	5.401154E-1	5.249673E-1	5.364553E-1	5.416802E-1	4.866130E-1	5.341229E-1	5.143464E-1	4.985273E-1	5.501619E-1	5.360522E-1	5.260475E-1	5.135786E-1	5.164025E-1	5.466515E-1	5.395352E-1	5.482172E-1	4.703408E-1	5.195989E-1	5.360298E-1	5.177501E-1	5.472239E-1	5.188878E-1	5.257759E-1	5.041740E-1	5.231730E-1	5.218206E-1	5.358598E-1	4.885866E-1	5.311706E-1	4.958147E-1	5.601100E-1	5.283599E-1	5.414118E-1	5.218774E-1	5.248830E-1	4.568310E-1	5.399480E-1	5.174570E-1	5.044060E-1	4.813058E-1	5.361542E-1	5.122184E-1	5.449668E-1	5.405673E-1	5.107188E-1	5.572962E-1	5.144594E-1	4.951587E-1	5.053613E-1	5.125789E-1	5.227967E-1	4.843283E-1	5.202398E-1	5.068413E-1	5.276734E-1	5.224131E-1	5.238331E-1	5.209802E-1	5.233250E-1	4.882224E-1	5.338670E-1	5.488817E-1	5.478634E-1	5.424533E-1	5.112576E-1	5.103492E-1	5.313634E-1	5.446627E-1	5.390209E-1	5.804000E-1	5.298193E-1	5.337908E-1	5.369331E-1	4.989522E-1	5.469677E-1	5.242289E-1	5.412769E-1	5.014078E-1	5.311006E-1	5.051609E-1	5.557402E-1	5.137079E-1	5.087726E-1	5.208341E-1	5.481767E-1	5.430708E-1	5.279210E-1	5.232157E-1	5.171095E-1	5.386351E-1	5.175841E-1	5.094311E-1	4.820780E-1	5.447760E-1	5.494243E-1	5.338368E-1	5.093433E-1	5.139294E-1	5.123457E-1	5.533899E-1	5.099347E-1	5.276522E-1	4.900345E-1	5.388619E-1	5.250296E-1	5.502844E-1	5.398231E-1	5.032034E-1	5.052368E-1
5.375060E+2	5.049076E-1	5.267229E-1	5.198890E-1	5.302386E-1	5.030986E-1	5.433387E-1	5.663457E-1	5.142773E-1	5.362558E-1	5.462813E-1	5.473771E-1	5.498628E-1	5.448628E-1	5.433605E-1	5.501048E-1	5.057730E-1	5.420479E-1	5.864028E-1	5.678362E-1	5.479893E-1	5.248244E-1	5.542765E-1	5.695293E-1	5.144876E-1	5.567763E-1	5.712702E-1	5.262345E-1	5.501113E-1	5.013360E-1	5.583913E-1	5.260318E-1	5.399845E-1	5.378482E-1	5.184477E-1	5.903453E-1	5.387294E-1	5.074262E-1	5.661549E-1	5.762603E-1	5.223375E-1	5.405098E-1	5.507428E-1	5.267352E-1	5.602399E-1	5.366877E-1	5.451475E-1	5.107605E-1	5.531378E-1	5.662647E-1	5.405933E-1	5.628966E-1	5.537514E-1	5.630463E-1	5.488571E-1	5.459093E-1	5.344762E-1	5.411471E-1	5.295701E-1	5.363450E-1	5.444977E-1	5.418158E-1	5.604533E-1	5.330452E-1	5.439183E-1	5.798232E-1	5.377360E-1	5.290012E-1	5.679392E-1	5.694531E-1	5.273085E-1	5.412714E-1	5.210740E-1	5.340507E-1	5.412434E-1	5.453538E-1	5.394300E-1	5.617181E-1	5.261246E-1	5.207676E-1	5.258492E-1	5.580607E-1	5.433279E-1	5.414742E-1	5.570751E-1	5.505487E-1	5.199023E-1	5.390310E-1	5.265258E-1	5.815869E-1	5.374815E-1	5.501362E-1	5.519727E-1	5.708498E-1	5.191379E-1	5.515948E-1	5.254008E-1	5.542649E-1	5.413103E-1	5.480773E-1	5.215481E-1	5.528812E-1	5.597601E-1	5.440528E-1	5.782625E-1	5.343210E-1	5.347805E-1	5.509631E-1	5.500654E-1	5.583844E-1	5.501124E-1	5.087447E-1	5.327358E-1	5.586280E-1	5.338945E-1	5.390609E-1	5.539133E-1	5.326933E-1	5.525515E-1	5.423479E-1	5.077434E-1	5.543437E-1	5.703757E-1	5.588202E-1	5.405202E-1	5.573745E-1	5.444274E-1	5.526935E-1	5.403300E-1	5.138914E-1	5.226506E-1	5.407773E-1	5.804401E-1	5.530180E-1	5.688544E-1	5.354829E-1	5.253909E-1	5.315998E-1	5.319775E-1	5.449267E-1	5.446093E-1	5.552901E-1	5.725713E-1	5.243820E-1	5.453820E-1	5.653033E-1	4.915773E-1	5.507402E-1	5.393705E-1	5.574635E-1	5.315195E-1	5.820230E-1	5.781129E-1	5.579325E-1	5.679939E-1	5.879309E-1	5.510170E-1	5.277129E-1	5.350946E-1	5.193839E-1	5.502247E-1	5.606591E-1	5.310689E-1	5.926946E-1	5.222715E-1	5.858393E-1
5.377630E+2	6.169547E-1	5.675080E-1	6.136898E-1	6.206860E-1	6.269590E-1	5.968888E-1	5.863081E-1	6.289160E-1	6.238617E-1	5.984867E-1	5.973922E-1	5.429418E-1	6.174943E-1	6.129737E-1	6.396462E-1	5.805677E-1	6.295361E-1	6.391748E-1	6.330889E-1	6.375757E-1	6.344955E-1	6.305470E-1	6.150388E-1	6.036740E-1	6.232157E-1	6.297954E-1	6.692965E-1	6.245946E-1	6.143716E-1	6.359121E-1	6.549808E-1	6.197909E-1	6.792220E-1	5.740492E-1	6.077215E-1	5.992201E-1	6.257527E-1	6.044016E-1	6.157549E-1	6.026674E-1	6.269764E-1	5.983628E-1	6.347333E-1	6.004104E-1	6.268160E-1	6.307951E-1	5.926872E-1	6.108427E-1	6.148473E-1	5.901407E-1	5.943075E-1	6.461603E-1	6.155726E-1	6.458984E-1	6.354715E-1	6.236823E-1	5.910157E-1	6.213275E-1	6.384049E-1	6.453610E-1	6.138749E-1	5.861665E-1	6.188904E-1	6.281660E-1	6.254577E-1	6.097250E-1	6.144353E-1	6.284611E-1	6.143021E-1	6.420269E-1	5.984073E-1	6.632995E-1	5.875171E-1	6.039782E-1	6.259376E-1	6.205111E-1	6.141343E-1	6.184413E-1	6.543034E-1	6.359711E-1	6.569845E-1	5.903157E-1	6.320260E-1	6.017846E-1	6.479546E-1	6.063283E-1	6.412539E-1	6.036054E-1	6.394380E-1	6.159689E-1	6.351202E-1	5.966598E-1	6.237756E-1	6.036717E-1	6.083356E-1	6.432161E-1	6.260309E-1	6.330970E-1	6.445981E-1	6.635580E-1	6.205480E-1	6.442315E-1	6.166763E-1	6.196624E-1	5.662793E-1	6.305167E-1	6.473197E-1	5.968158E-1	6.168814E-1	6.473093E-1	6.007250E-1	6.048508E-1	6.213413E-1	6.016279E-1	6.281141E-1	6.670151E-1	6.523937E-1	6.049104E-1	6.327960E-1	6.456235E-1	6.515809E-1	6.195478E-1	6.245960E-1	6.713326E-1	6.360664E-1	6.493698E-1	6.390921E-1	6.162298E-1	6.448111E-1	6.498336E-1	5.990336E-1	5.982292E-1	6.122572E-1	6.321596E-1	6.157388E-1	5.805011E-1	6.588983E-1	5.955959E-1	6.177174E-1	6.223832E-1	6.143482E-1	6.045135E-1	6.392177E-1	6.105516E-1	6.248466E-1	5.884249E-1	6.467962E-1	6.003184E-1	5.845472E-1	6.856742E-1	6.432062E-1	6.280828E-1	6.142800E-1	6.173131E-1	6.256276E-1	6.279237E-1	6.427406E-1	5.973512E-1	6.240005E-1	6.030704E-1	6.662378E-1	6.169179E-1	6.244352E-1	6.665333E-1	5.126324E-1
5.380110E+2	7.036465E-1	6.978369E-1	7.308876E-1	7.216236E-1	6.644591E-1	6.814848E-1	7.383089E-1	7.063233E-1	7.263673E-1	7.118209E-1	6.854652E-1	6.996603E-1	6.940096E-1	6.983438E-1	7.336013E-1	6.824973E-1	7.437753E-1	7.323676E-1	7.308327E-1	6.878358E-1	7.270050E-1	7.057625E-1	6.859077E-1	7.222050E-1	7.470558E-1	6.898490E-1	7.437633E-1	7.189999E-1	7.141131E-1	7.372022E-1	6.539965E-1	6.916625E-1	7.224606E-1	7.062714E-1	6.736357E-1	7.033387E-1	7.224684E-1	7.133537E-1	7.008719E-1	6.850796E-1	7.128458E-1	7.141511E-1	7.171819E-1	7.139144E-1	7.510982E-1	6.852163E-1	7.112232E-1	6.845529E-1	7.105485E-1	7.119756E-1	7.413357E-1	6.967037E-1	7.201001E-1	7.190751E-1	7.235070E-1	7.075894E-1	6.946715E-1	7.234369E-1	6.993120E-1	6.848916E-1	7.355862E-1	6.872529E-1	7.292882E-1	7.066594E-1	7.160965E-1	7.186283E-1	7.040255E-1	6.912833E-1	6.813088E-1	7.219935E-1	7.052743E-1	7.713747E-1	7.064325E-1	7.183990E-1	7.058219E-1	7.346614E-1	7.341980E-1	7.003434E-1	7.210617E-1	6.944825E-1	7.101517E-1	7.393376E-1	7.198494E-1	7.015303E-1	7.629794E-1	7.346415E-1	7.453938E-1	7.110274E-1	7.243357E-1	7.311025E-1	6.890433E-1	6.796528E-1	7.116423E-1	6.927227E-1	7.240264E-1	7.183213E-1	7.303785E-1	7.507894E-1	7.753420E-1	7.275018E-1	7.209713E-1	7.404629E-1	7.103933E-1	7.398876E-1	6.859801E-1	7.662340E-1	7.475701E-1	7.318883E-1	7.143513E-1	7.418221E-1	7.270654E-1	7.157218E-1	7.233912E-1	7.125718E-1	7.283470E-1	6.932373E-1	7.403875E-1	6.934126E-1	7.028388E-1	7.460285E-1	7.141724E-1	7.129926E-1	7.078550E-1	6.992805E-1	7.143386E-1	7.564967E-1	7.331703E-1	7.127226E-1	7.200825E-1	7.262253E-1	7.273622E-1	6.960268E-1	6.970971E-1	6.953975E-1	7.483268E-1	7.313265E-1	7.364260E-1	7.417103E-1	7.042440E-1	7.303124E-1	7.171308E-1	7.386594E-1	7.677688E-1	7.383252E-1	7.115349E-1	6.713769E-1	7.131385E-1	7.068336E-1	7.213776E-1	6.924060E-1	7.249854E-1	7.593931E-1	7.154903E-1	6.920193E-1	7.297174E-1	7.089953E-1	7.185782E-1	7.116764E-1	7.088587E-1	7.312709E-1	7.433727E-1	6.997847E-1	7.394052E-1	7.551043E-1	6.975621E-1
5.382900E+2	8.565114E-1	8.100675E-1	9.016266E-1	8.496792E-1	8.658840E-1	8.690451E-1	9.149162E-1	8.254147E-1	8.292232E-1	8.490100E-1	8.516465E-1	8.506103E-1	8.339101E-1	8.322974E-1	8.660357E-1	8.126848E-1	9.274952E-1	8.738090E-1	8.606081E-1	8.721114E-1	8.415227E-1	8.999613E-1	8.988011E-1	8.917173E-1	9.048855E-1	8.667327E-1	8.542348E-1	8.676820E-1	8.728178E-1	8.723683E-1	9.113189E-1	8.652959E-1	8.682769E-1	8.213213E-1	8.783618E-1	8.349865E-1	8.674029E-1	8.472650E-1	8.716159E-1	8.628264E-1	8.957418E-1	8.731436E-1	8.553298E-1	8.612715E-1	8.339581E-1	9.222618E-1	8.696006E-1	8.612016E-1	9.320271E-1	8.600112E-1	8.938856E-1	8.434224E-1	8.519238E-1	8.265299E-1	8.731566E-1	8.743505E-1	8.766792E-1	8.639056E-1	8.655002E-1	8.909774E-1	8.783265E-1	8.546769E-1	8.420667E-1	8.726492E-1	9.232275E-1	8.471338E-1	9.106158E-1	9.014336E-1	8.724310E-1	8.389517E-1	8.602839E-1	8.324307E-1	8.936462E-1	8.646766E-1	8.700387E-1	9.152855E-1	8.503504E-1	8.441691E-1	8.403326E-1	8.506275E-1	8.540295E-1	8.576030E-1	8.488317E-1	8.743490E-1	8.671153E-1	8.594742E-1	8.574913E-1	8.829839E-1	8.779422E-1	8.625253E-1	8.203118E-1	8.498614E-1	8.809428E-1	8.698607E-1	9.007442E-1	8.461005E-1	8.998547E-1	8.649288E-1	8.365619E-1	8.483956E-1	9.011801E-1	8.932709E-1	8.682208E-1	9.024416E-1	8.385829E-1	8.737446E-1	9.212649E-1	8.457410E-1	8.807560E-1	9.006291E-1	8.252042E-1	8.695797E-1	8.813008E-1	8.361062E-1	8.705931E-1	8.488654E-1	8.287256E-1	8.646030E-1	8.614931E-1	8.937663E-1	8.151138E-1	9.035336E-1	8.701734E-1	8.783702E-1	8.373789E-1	8.725558E-1	8.583791E-1	9.254391E-1	8.766827E-1	8.436433E-1	8.648853E-1	8.488731E-1	8.896913E-1	8.671452E-1	8.628875E-1	8.344267E-1	8.717436E-1	8.967673E-1	8.263654E-1	8.711774E-1	8.812472E-1	8.352129E-1	8.669846E-1	8.713906E-1	8.974505E-1	8.890711E-1	9.157528E-1	8.406768E-1	8.827972E-1	8.664053E-1	8.610597E-1	8.730986E-1	9.053984E-1	8.131128E-1	9.360361E-1	8.645376E-1	8.685622E-1	8.374990E-1	8.954543E-1	8.346713E-1	8.674858E-1	8.853979E-1	9.065804E-1	8.263435E-1	8.221408E-1
5.385060E+2	1.003991E+0	1.048869E+0	1.109248E+0	1.037840E+0	1.010729E+0	1.036360E+0	1.058790E+0	1.035575E+0	1.000812E+0	1.035108E+0	1.056116E+0	1.057594E+0	1.021060E+0	1.026810E+0	1.021123E+0	1.007959E+0	1.061827E+0	1.093110E+0	1.030532E+0	1.073363E+0	1.026822E+0	1.006721E+0	1.048501E+0	1.088928E+0	1.047148E+0	1.073075E+0	1.058751E+0	1.064497E+0	1.068616E+0	1.061535E+0	1.053499E+0	1.032334E+0	1.053688E+0	1.059942E+0	1.044764E+0	1.034297E+0	1.115022E+0	1.019832E+0	1.073542E+0	1.057103E+0	1.025868E+0	9.824701E-1	1.032863E+0	1.072217E+0	1.014941E+0	1.003970E+0	1.032674E+0	1.046820E+0	1.122570E+0	1.069677E+0	1.043314E+0	1.027422E+0	1.050143E+0	1.056168E+0	1.093807E+0	1.082572E+0	1.058131E+0	1.053025E+0	1.042721E+0	1.088126E+0	1.013613E+0	1.044277E+0	1.020652E+0	1.001479E+0	1.060402E+0	1.020723E+0	1.029356E+0	1.019849E+0	1.075891E+0	1.069243E+0	1.060146E+0	1.053897E+0	1.046279E+0	9.899939E-1	1.033740E+0	1.088532E+0	1.011721E+0	1.041182E+0	1.022085E+0	1.019823E+0	1.071567E+0	9.992643E-1	1.063416E+0	1.001068E+0	1.063933E+0	1.011080E+0	1.086344E+0	1.027965E+0	1.063419E+0	1.031860E+0	9.911684E-1	9.525004E-1	1.072469E+0	1.030040E+0	1.016862E+0	1.034313E+0	1.048216E+0	1.043682E+0	1.023621E+0	1.017884E+0	1.014954E+0	1.046197E+0	1.069801E+0	1.081877E+0	1.019768E+0	1.026982E+0	1.079137E+0	1.027443E+0	1.029562E+0	1.038486E+0	1.022478E+0	1.017060E+0	1.038085E+0	1.023890E+0	1.031419E+0	1.080243E+0	1.056271E+0	1.080200E+0	9.929066E-1	1.046230E+0	9.937651E-1	1.012827E+0	1.050793E+0	1.074265E+0	1.035690E+0	1.044204E+0	1.067764E+0	9.822855E-1	1.041821E+0	1.014140E+0	1.056636E+0	1.058239E+0	1.027890E+0	1.020604E+0	1.037077E+0	1.040188E+0	1.043439E+0	1.077912E+0	1.015918E+0	1.056570E+0	1.031826E+0	1.053517E+0	1.072062E+0	1.035085E+0	9.956905E-1	1.008177E+0	9.989804E-1	1.004505E+0	1.017820E+0	1.050903E+0	1.049346E+0	1.029714E+0	1.060184E+0	1.017390E+0	1.094366E+0	1.030741E+0	1.045283E+0	9.925255E-1	1.003151E+0	9.745852E-1	1.060479E+0	1.057772E+0	9.912833E-1	9.915735E-1	1.007360E+0
5.387600E+2	1.268873E+0	1.187481E+0	1.266961E+0	1.218179E+0	1.258223E+0	1.231157E+0	1.241276E+0	1.192575E+0	1.242896E+0	1.253007E+0	1.282286E+0	1.249090E+0	1.234026E+0	1.183630E+0	1.239636E+0	1.260368E+0	1.312459E+0	1.286733E+0	1.275650E+0	1.274247E+0	1.192555E+0	1.247335E+0	1.281536E+0	1.228628E+0	1.241840E+0	1.185918E+0	1.272945E+0	1.269097E+0	1.281872E+0	1.204190E+0	1.245036E+0	1.223673E+0	1.211616E+0	1.243824E+0	1.213070E+0	1.248744E+0	1.240026E+0	1.225570E+0	1.223776E+0	1.211586E+0	1.267984E+0	1.231851E+0	1.272457E+0	1.205434E+0	1.246137E+0	1.238020E+0	1.272668E+0	1.160420E+0	1.201427E+0	1.277159E+0	1.260539E+0	1.217566E+0	1.281227E+0	1.234876E+0	1.210598E+0	1.268725E+0	1.207719E+0	1.231689E+0	1.265746E+0	1.283211E+0	1.234676E+0	1.234528E+0	1.213644E+0	1.277124E+0	1.286906E+0	1.209657E+0	1.224514E+0	1.225985E+0	1.250672E+0	1.199539E+0	1.241655E+0	1.261295E+0	1.270111E+0	1.197568E+0	1.245369E+0	1.295245E+0	1.242558E+0	1.242002E+0	1.221157E+0	1.247084E+0	1.233622E+0	1.236249E+0	1.298943E+0	1.242126E+0	1.286582E+0	1.222665E+0	1.226117E+0	1.250721E+0	1.192930E+0	1.242841E+0	1.241378E+0	1.213249E+0	1.235275E+0	1.154057E+0	1.215959E+0	1.290477E+0	1.218032E+0	1.221644E+0	1.213787E+0	1.243011E+0	1.207757E+0	1.247048E+0	1.298048E+0	1.243005E+0	1.182146E+0	1.261564E+0	1.257679E+0	1.197715E+0	1.205502E+0	1.192924E+0	1.227536E+0	1.210337E+0	1.231744E+0	1.221070E+0	1.257176E+0	1.253942E+0	1.174695E+0	1.195279E+0	1.165325E+0	1.219426E+0	1.252174E+0	1.245205E+0	1.206660E+0	1.276672E+0	1.221689E+0	1.235935E+0	1.213878E+0	1.259213E+0	1.210014E+0	1.187461E+0	1.292765E+0	1.207572E+0	1.162447E+0	1.231454E+0	1.235678E+0	1.212662E+0	1.232043E+0	1.240228E+0	1.200940E+0	1.258930E+0	1.230305E+0	1.250409E+0	1.257396E+0	1.233528E+0	1.283030E+0	1.255762E+0	1.238142E+0	1.237255E+0	1.170288E+0	1.194892E+0	1.265036E+0	1.205732E+0	1.209241E+0	1.198655E+0	1.326275E+0	1.215343E+0	1.181539E+0	1.247098E+0	1.203537E+0	1.251145E+0	1.296724E+0	1.243447E+0	1.270099E+0	1.133898E+0	1.241600E+0
5.390390E+2	1.469796E+0	1.465324E+0	1.433390E+0	1.452131E+0	1.451198E+0	1.457678E+0	1.496831E+0	1.428305E+0	1.531847E+0	1.481090E+0	1.474991E+0	1.449353E+0	1.457535E+0	1.441282E+0	1.466347E+0	1.408554E+0	1.480553E+0	1.543434E+0	1.504547E+0	1.446862E+0	1.480761E+0	1.433046E+0	1.484989E+0	1.474526E+0	1.482216E+0	1.460656E+0	1.469245E+0	1.494102E+0	1.540378E+0	1.442411E+0	1.450451E+0	1.440757E+0	1.475763E+0	1.459136E+0	1.500917E+0	1.463719E+0	1.486287E+0	1.412233E+0	1.473611E+0	1.422412E+0	1.473058E+0	1.512658E+0	1.480695E+0	1.505766E+0	1.473740E+0	1.455991E+0	1.406782E+0	1.426658E+0	1.464321E+0	1.458005E+0	1.466263E+0	1.433576E+0	1.493122E+0	1.432834E+0	1.538694E+0	1.434007E+0	1.458246E+0	1.478428E+0	1.501382E+0	1.420836E+0	1.413270E+0	1.394378E+0	1.446338E+0	1.430772E+0	1.548579E+0	1.483921E+0	1.446329E+0	1.472484E+0	1.485581E+0	1.412881E+0	1.489273E+0	1.425974E+0	1.463666E+0	1.382249E+0	1.464738E+0	1.498585E+0	1.413849E+0	1.411106E+0	1.489641E+0	1.463843E+0	1.480642E+0	1.429383E+0	1.477003E+0	1.461825E+0	1.427081E+0	1.361678E+0	1.551538E+0	1.386085E+0	1.479169E+0	1.462160E+0	1.405591E+0	1.453315E+0	1.429440E+0	1.437562E+0	1.485124E+0	1.438411E+0	1.455997E+0	1.403392E+0	1.480292E+0	1.440509E+0	1.514761E+0	1.447099E+0	1.445183E+0	1.479787E+0	1.418476E+0	1.471222E+0	1.548147E+0	1.410808E+0	1.447443E+0	1.473062E+0	1.451572E+0	1.451422E+0	1.432732E+0	1.432304E+0	1.510031E+0	1.464687E+0	1.422560E+0	1.428246E+0	1.421833E+0	1.478336E+0	1.471706E+0	1.473334E+0	1.499303E+0	1.526732E+0	1.468414E+0	1.418055E+0	1.449042E+0	1.424826E+0	1.404389E+0	1.379203E+0	1.472310E+0	1.443294E+0	1.444187E+0	1.477640E+0	1.474282E+0	1.443775E+0	1.474255E+0	1.382337E+0	1.404782E+0	1.451462E+0	1.477024E+0	1.441730E+0	1.473262E+0	1.456668E+0	1.465933E+0	1.438349E+0	1.437187E+0	1.468258E+0	1.403665E+0	1.384558E+0	1.460923E+0	1.397353E+0	1.411750E+0	1.399038E+0	1.534111E+0	1.436491E+0	1.479740E+0	1.444552E+0	1.379104E+0	1.421526E+0	1.446987E+0	1.407410E+0	1.521764E+0	1.448195E+0	1.414963E+0
5.392720E+2	1.649782E+0	1.639741E+0	1.706992E+0	1.675450E+0	1.717345E+0	1.684066E+0	1.683096E+0	1.689050E+0	1.663185E+0	1.675170E+0	1.714675E+0	1.690982E+0	1.735570E+0	1.659151E+0	1.689103E+0	1.675080E+0	1.703216E+0	1.732535E+0	1.631180E+0	1.735029E+0	1.710397E+0	1.654319E+0	1.670222E+0	1.679836E+0	1.635167E+0	1.693687E+0	1.667599E+0	1.752392E+0	1.727491E+0	1.637871E+0	1.707269E+0	1.721494E+0	1.743288E+0	1.656872E+0	1.702161E+0	1.672386E+0	1.679196E+0	1.613769E+0	1.631391E+0	1.645248E+0	1.697210E+0	1.653946E+0	1.695329E+0	1.640614E+0	1.689242E+0	1.625062E+0	1.628744E+0	1.700044E+0	1.646668E+0	1.611423E+0	1.650562E+0	1.662056E+0	1.702291E+0	1.704543E+0	1.759593E+0	1.681345E+0	1.673131E+0	1.641759E+0	1.715991E+0	1.755428E+0	1.663099E+0	1.654519E+0	1.670651E+0	1.648791E+0	1.688485E+0	1.682405E+0	1.689147E+0	1.683926E+0	1.682452E+0	1.635765E+0	1.649194E+0	1.637663E+0	1.658916E+0	1.642144E+0	1.683024E+0	1.699643E+0	1.634824E+0	1.642381E+0	1.735772E+0	1.652449E+0	1.728685E+0	1.631527E+0	1.680315E+0	1.679954E+0	1.765100E+0	1.636438E+0	1.657607E+0	1.657748E+0	1.645644E+0	1.608232E+0	1.588456E+0	1.563018E+0	1.676171E+0	1.581222E+0	1.609551E+0	1.656474E+0	1.686013E+0	1.675146E+0	1.694638E+0	1.651054E+0	1.651639E+0	1.699552E+0	1.684208E+0	1.644082E+0	1.692041E+0	1.720229E+0	1.672542E+0	1.658338E+0	1.603364E+0	1.636602E+0	1.665731E+0	1.618230E+0	1.650966E+0	1.589712E+0	1.689242E+0	1.605645E+0	1.673049E+0	1.581674E+0	1.643166E+0	1.675845E+0	1.637290E+0	1.649889E+0	1.625661E+0	1.793584E+0	1.663425E+0	1.603460E+0	1.694717E+0	1.655442E+0	1.600226E+0	1.576469E+0	1.565679E+0	1.652886E+0	1.654382E+0	1.642000E+0	1.578179E+0	1.646695E+0	1.605749E+0	1.590319E+0	1.717891E+0	1.646264E+0	1.595500E+0	1.657871E+0	1.575009E+0	1.624769E+0	1.669756E+0	1.586987E+0	1.692327E+0	1.623552E+0	1.574802E+0	1.601356E+0	1.656613E+0	1.650082E+0	1.650440E+0	1.576807E+0	1.726638E+0	1.713532E+0	1.616808E+0	1.590406E+0	1.666204E+0	1.653921E+0	1.646801E+0	1.571477E+0	1.664979E+0	1.643777E+0	1.545575E+0
5.395260E+2	1.846647E+0	1.842195E+0	1.911611E+0	1.865565E+0	1.900040E+0	1.838407E+0	1.908670E+0	1.924848E+0	1.921867E+0	1.808224E+0	1.915510E+0	1.863801E+0	1.952091E+0	1.909215E+0	1.932822E+0	1.812566E+0	1.918575E+0	1.899496E+0	1.938223E+0	1.891480E+0	1.890887E+0	1.927931E+0	1.939259E+0	1.822318E+0	1.832074E+0	1.879748E+0	1.928440E+0	1.945935E+0	1.891476E+0	1.894063E+0	1.870774E+0	1.879467E+0	1.826814E+0	1.770758E+0	1.910426E+0	1.881661E+0	1.930775E+0	1.879940E+0	1.952033E+0	1.847046E+0	1.863044E+0	1.816496E+0	1.854644E+0	1.852418E+0	1.930362E+0	1.885032E+0	1.820598E+0	1.826546E+0	1.864430E+0	1.837217E+0	1.877631E+0	1.887078E+0	1.909445E+0	1.872605E+0	1.885858E+0	1.866168E+0	1.900627E+0	1.851309E+0	1.862735E+0	1.922363E+0	1.860505E+0	1.830533E+0	1.809367E+0	1.894246E+0	1.915127E+0	1.901092E+0	1.918468E+0	1.844170E+0	1.841655E+0	1.881162E+0	1.852598E+0	1.808339E+0	1.833164E+0	1.897641E+0	1.896149E+0	1.845121E+0	1.832150E+0	1.769998E+0	1.915534E+0	1.833433E+0	1.876964E+0	1.761237E+0	1.864960E+0	1.831303E+0	1.977355E+0	1.786042E+0	1.878924E+0	1.876688E+0	1.856242E+0	1.802350E+0	1.854368E+0	1.860698E+0	1.852642E+0	1.801336E+0	1.766986E+0	1.822688E+0	1.866085E+0	1.835272E+0	1.860860E+0	1.844366E+0	1.840193E+0	1.885927E+0	1.898665E+0	1.859540E+0	1.817647E+0	1.835102E+0	1.928825E+0	1.859906E+0	1.854170E+0	1.770518E+0	1.829203E+0	1.742786E+0	1.870673E+0	1.781124E+0	1.882047E+0	1.836133E+0	1.789219E+0	1.778712E+0	1.845039E+0	1.789789E+0	1.866867E+0	1.815777E+0	1.828671E+0	1.889044E+0	1.871867E+0	1.812915E+0	1.835433E+0	1.850613E+0	1.920462E+0	1.858831E+0	1.867500E+0	1.809460E+0	1.821816E+0	1.823506E+0	1.799427E+0	1.847459E+0	1.833334E+0	1.796381E+0	1.858336E+0	1.857761E+0	1.775252E+0	1.844592E+0	1.813339E+0	1.848242E+0	1.838582E+0	1.815309E+0	1.906162E+0	1.823497E+0	1.803647E+0	1.834052E+0	1.906258E+0	1.855996E+0	1.817929E+0	1.789347E+0	1.920119E+0	1.840727E+0	1.836136E+0	1.762370E+0	1.835110E+0	1.789908E+0	1.801664E+0	1.879359E+0	1.844576E+0	1.812613E+0	1.781078E+0
5.397910E+2	1.970580E+0	2.033741E+0	2.035204E+0	2.051395E+0	2.033552E+0	2.040357E+0	2.083570E+0	1.993357E+0	2.034681E+0	2.106778E+0	2.090670E+0	1.997408E+0	2.019642E+0	2.029103E+0	2.062054E+0	2.022869E+0	2.034099E+0	2.011937E+0	2.133785E+0	1.976252E+0	2.067465E+0	2.018392E+0	2.075918E+0	2.016737E+0	2.056591E+0	2.103719E+0	2.114360E+0	2.041195E+0	2.053636E+0	2.011820E+0	2.050480E+0	1.997681E+0	2.074344E+0	1.963782E+0	2.025393E+0	2.006708E+0	2.021644E+0	2.056935E+0	2.082127E+0	2.030940E+0	2.144986E+0	2.069001E+0	2.099848E+0	2.015796E+0	2.083472E+0	2.092497E+0	2.045343E+0	1.968872E+0	2.023842E+0	1.995132E+0	2.053094E+0	1.961288E+0	2.115725E+0	1.999678E+0	2.016686E+0	2.049425E+0	1.979172E+0	2.060114E+0	2.029724E+0	2.114908E+0	1.953027E+0	1.890063E+0	1.967287E+0	2.002198E+0	2.011096E+0	1.997194E+0	2.001184E+0	1.988575E+0	2.101203E+0	2.008009E+0	1.998731E+0	2.047674E+0	2.076103E+0	1.994111E+0	2.022534E+0	2.081294E+0	1.989576E+0	1.908720E+0	2.003602E+0	1.948556E+0	2.129481E+0	1.931629E+0	2.116290E+0	2.046754E+0	2.010978E+0	1.948513E+0	2.038441E+0	1.968553E+0	2.023484E+0	2.012613E+0	2.045559E+0	1.901110E+0	2.030177E+0	1.968486E+0	2.059673E+0	2.108478E+0	2.019012E+0	1.993334E+0	2.008325E+0	2.018236E+0	2.022756E+0	2.013678E+0	1.949671E+0	2.014339E+0	1.869884E+0	1.976923E+0	2.078113E+0	2.034644E+0	1.957983E+0	1.992036E+0	1.956245E+0	1.969986E+0	2.031119E+0	2.014150E+0	1.985241E+0	2.015930E+0	2.017138E+0	1.916707E+0	1.933792E+0	2.028170E+0	1.919975E+0	1.986387E+0	1.990982E+0	2.042318E+0	2.026110E+0	1.950147E+0	2.066975E+0	2.076768E+0	1.970482E+0	1.976508E+0	1.896449E+0	1.942251E+0	1.973056E+0	2.007251E+0	1.988976E+0	1.946472E+0	1.979919E+0	1.933781E+0	1.892366E+0	1.963118E+0	2.043925E+0	1.937642E+0	2.004041E+0	1.954016E+0	1.950277E+0	1.934651E+0	1.996801E+0	2.010888E+0	2.017495E+0	1.960473E+0	1.997627E+0	1.986633E+0	1.913641E+0	1.911370E+0	2.113598E+0	1.996632E+0	1.927065E+0	1.933703E+0	1.972221E+0	1.954578E+0	2.038464E+0	1.856050E+0	2.081589E+0	2.130535E+0	1.895926E+0
5.400140E+2	2.145825E+0	2.025543E+0	2.111081E+0	2.081536E+0	2.082070E+0	2.073728E+0	2.117345E+0	2.135190E+0	2.113256E+0	2.178763E+0	2.120014E+0	2.105201E+0	2.092751E+0	2.071855E+0	2.087895E+0	2.020192E+0	2.042807E+0	2.017605E+0	2.066562E+0	2.085979E+0	2.047855E+0	2.080926E+0	2.095749E+0	2.050830E+0	2.109118E+0	2.057214E+0	2.094106E+0	2.049481E+0	2.108752E+0	2.053116E+0	2.091984E+0	2.106374E+0	2.100360E+0	2.005973E+0	2.066293E+0	2.035695E+0	2.097397E+0	2.050648E+0	2.063075E+0	2.110702E+0	2.089190E+0	2.083851E+0	2.155271E+0	2.039690E+0	2.115511E+0	2.102135E+0	2.093199E+0	1.965037E+0	2.043363E+0	2.045632E+0	2.143578E+0	2.040682E+0	1.993113E+0	2.055081E+0	2.091957E+0	2.113914E+0	2.091535E+0	2.040490E+0	2.009805E+0	2.157563E+0	2.070806E+0	2.028303E+0	2.022058E+0	2.037307E+0	2.096601E+0	2.111315E+0	2.119110E+0	2.074441E+0	2.020885E+0	1.981852E+0	2.019249E+0	2.077583E+0	1.990804E+0	2.008871E+0	2.056400E+0	2.044107E+0	1.964881E+0	2.062625E+0	2.019965E+0	2.048583E+0	2.048439E+0	2.068741E+0	2.136194E+0	2.026808E+0	2.080769E+0	1.986999E+0	2.032794E+0	2.045368E+0	2.068446E+0	1.963075E+0	1.976560E+0	2.052785E+0	2.046630E+0	1.998722E+0	2.050249E+0	1.970440E+0	2.039628E+0	2.018642E+0	1.968854E+0	2.004210E+0	2.074936E+0	2.065484E+0	2.044475E+0	2.082246E+0	2.044469E+0	2.052242E+0	2.025452E+0	2.015677E+0	2.046863E+0	2.008845E+0	2.017343E+0	1.965391E+0	2.001506E+0	1.998252E+0	2.008621E+0	2.036977E+0	2.029803E+0	2.003341E+0	2.008541E+0	2.040749E+0	2.028424E+0	1.955570E+0	2.015641E+0	2.076274E+0	2.009016E+0	2.043758E+0	1.991218E+0	1.997111E+0	2.056003E+0	2.034935E+0	1.981462E+0	1.986733E+0	2.004924E+0	2.017794E+0	1.991451E+0	2.027449E+0	2.078391E+0	2.019375E+0	1.962548E+0	2.001388E+0	1.988042E+0	1.988904E+0	1.986934E+0	1.940564E+0	2.014553E+0	1.988988E+0	1.988821E+0	1.964568E+0	1.958358E+0	1.965764E+0	2.090434E+0	1.993047E+0	1.990680E+0	1.948975E+0	2.189136E+0	2.018990E+0	1.924123E+0	1.909472E+0	1.980278E+0	1.981118E+0	2.039837E+0	1.930250E+0	1.965879E+0	1.989908E+0	1.881243E+0
5.402630E+2	2.048918E+0	2.053434E+0	2.128121E+0	2.069123E+0	2.048320E+0	1.982925E+0	2.067551E+0	2.042920E+0	2.110575E+0	2.138632E+0	2.162931E+0	2.097843E+0	2.069777E+0	2.066176E+0	2.074644E+0	2.081238E+0	1.989661E+0	2.013502E+0	2.097240E+0	2.050227E+0	2.018338E+0	2.106832E+0	2.094701E+0	1.991210E+0	2.049844E+0	1.991537E+0	2.027305E+0	2.060939E+0	2.044151E+0	2.091566E+0	2.092791E+0	2.040349E+0	2.152023E+0	1.992011E+0	2.051708E+0	1.991952E+0	2.109606E+0	2.016954E+0	2.129086E+0	1.920429E+0	2.049201E+0	1.980837E+0	2.049668E+0	2.022575E+0	2.085285E+0	2.056636E+0	2.016230E+0	2.045724E+0	2.050906E+0	1.979986E+0	2.131477E+0	1.980009E+0	2.074768E+0	1.985890E+0	2.055664E+0	2.068823E+0	2.020918E+0	2.056630E+0	2.007814E+0	2.074554E+0	2.013595E+0	2.003144E+0	2.048807E+0	2.020457E+0	2.062816E+0	2.035145E+0	2.030485E+0	2.004554E+0	2.082210E+0	2.034519E+0	1.994809E+0	2.066824E+0	2.044431E+0	1.939151E+0	2.021840E+0	2.051265E+0	1.949264E+0	1.967654E+0	2.066121E+0	2.063908E+0	2.050564E+0	2.011705E+0	2.112498E+0	1.917267E+0	2.047607E+0	2.004502E+0	2.029097E+0	1.987220E+0	1.995032E+0	2.012718E+0	2.060377E+0	1.954324E+0	2.044137E+0	2.007259E+0	1.978687E+0	1.983532E+0	2.023599E+0	1.995937E+0	2.015489E+0	1.875918E+0	2.038555E+0	1.958630E+0	2.083806E+0	2.028693E+0	1.977083E+0	2.044971E+0	2.046069E+0	2.056871E+0	1.978333E+0	1.989376E+0	1.986325E+0	1.928317E+0	2.010800E+0	1.937693E+0	2.059138E+0	2.027438E+0	1.961761E+0	2.003926E+0	2.027192E+0	1.992534E+0	1.965920E+0	1.943457E+0	2.023107E+0	2.020037E+0	2.055893E+0	1.998585E+0	2.006874E+0	2.010482E+0	2.023665E+0	1.904373E+0	1.946051E+0	1.979956E+0	1.923281E+0	1.975830E+0	2.071522E+0	1.988971E+0	1.987620E+0	1.991581E+0	1.897705E+0	2.008187E+0	2.008907E+0	1.960449E+0	1.968221E+0	1.946668E+0	2.005944E+0	1.948320E+0	1.972048E+0	1.981423E+0	1.966938E+0	2.003175E+0	1.950529E+0	1.945010E+0	1.951977E+0	1.909342E+0	2.137870E+0	2.005580E+0	1.993475E+0	1.901534E+0	2.032442E+0	2.009424E+0	2.010907E+0	1.943044E+0	1.995973E+0	1.994142E+0	1.974473E+0
5.405080E+2	2.029737E+0	1.989274E+0	2.017972E+0	1.998289E+0	1.958938E+0	2.006658E+0	1.969515E+0	1.941810E+0	1.962961E+0	2.015527E+0	2.009756E+0	1.942790E+0	2.025504E+0	1.908985E+0	1.992673E+0	1.963115E+0	1.946999E+0	1.909960E+0	1.945887E+0	1.956314E+0	1.899652E+0	1.919558E+0	1.990805E+0	1.960374E+0	2.011665E+0	1.941252E+0	2.008227E+0	1.933794E+0	2.065508E+0	1.911618E+0	1.904791E+0	1.880147E+0	1.949243E+0	1.946176E+0	1.935524E+0	1.946735E+0	1.935556E+0	1.927242E+0	1.971304E+0	1.947124E+0	1.989806E+0	1.939935E+0	2.005064E+0	1.993673E+0	1.952863E+0	1.923206E+0	1.965639E+0	1.917592E+0	1.958730E+0	1.867149E+0	2.027800E+0	1.936606E+0	1.944051E+0	1.899735E+0	1.983995E+0	1.943748E+0	1.990543E+0	1.944719E+0	2.009701E+0	2.016470E+0	1.942895E+0	1.853776E+0	1.893184E+0	1.942127E+0	1.969899E+0	1.981689E+0	1.987060E+0	1.923309E+0	1.905825E+0	1.959419E+0	1.912460E+0	1.966430E+0	1.991045E+0	1.950195E+0	1.974635E+0	1.998478E+0	1.991442E+0	1.897066E+0	1.954068E+0	1.903599E+0	2.025619E+0	1.947922E+0	1.998811E+0	1.969913E+0	2.047623E+0	1.851530E+0	1.983893E+0	1.902006E+0	1.924575E+0	1.877510E+0	1.872288E+0	1.907125E+0	1.921078E+0	1.851973E+0	1.964596E+0	1.915103E+0	1.981277E+0	1.838895E+0	1.947454E+0	1.964506E+0	1.968803E+0	1.930120E+0	2.010040E+0	1.927570E+0	1.956183E+0	1.976562E+0	2.049542E+0	1.963588E+0	1.973824E+0	1.891546E+0	1.864169E+0	1.935778E+0	1.927475E+0	1.912880E+0	1.967797E+0	1.983894E+0	1.914405E+0	1.926766E+0	1.961325E+0	1.917218E+0	1.890721E+0	1.902368E+0	1.914734E+0	1.973855E+0	1.929217E+0	1.934497E+0	1.905370E+0	1.936068E+0	1.879491E+0	1.846948E+0	1.867632E+0	1.924817E+0	1.928852E+0	1.886123E+0	1.963417E+0	1.889964E+0	1.907010E+0	1.826620E+0	1.879708E+0	1.920600E+0	1.914561E+0	1.915623E+0	1.950393E+0	1.889354E+0	1.928246E+0	1.907982E+0	1.964489E+0	1.901282E+0	1.936741E+0	1.962494E+0	1.991012E+0	1.884430E+0	1.854547E+0	1.821477E+0	2.035288E+0	1.935942E+0	1.885543E+0	1.874412E+0	1.884095E+0	1.928644E+0	1.958245E+0	1.861361E+0	1.976122E+0	1.864117E+0	1.873992E+0
5.407630E+2	1.955034E+0	1.845276E+0	1.891491E+0	1.837928E+0	1.900214E+0	1.882842E+0	1.894080E+0	1.860208E+0	1.965429E+0	1.907687E+0	1.912380E+0	1.881002E+0	1.979881E+0	1.845313E+0	1.919828E+0	1.810234E+0	1.922074E+0	1.867539E+0	1.839053E+0	1.874098E+0	1.801969E+0	1.899439E+0	1.838245E+0	1.827089E+0	1.884472E+0	1.886278E+0	1.864813E+0	1.866750E+0	1.929972E+0	1.923191E+0	1.856053E+0	1.842107E+0	1.959633E+0	1.874738E+0	1.879101E+0	1.857513E+0	1.872933E+0	1.838738E+0	1.860921E+0	1.833444E+0	1.870914E+0	1.834414E+0	1.851494E+0	1.839490E+0	1.907899E+0	1.850893E+0	1.829202E+0	1.844980E+0	1.865636E+0	1.840650E+0	1.841947E+0	1.837153E+0	1.900637E+0	1.871749E+0	1.906744E+0	1.897939E+0	1.856596E+0	1.819937E+0	1.857487E+0	1.917552E+0	1.865058E+0	1.812497E+0	1.917357E+0	1.897251E+0	1.883417E+0	1.829769E+0	1.885324E+0	1.810527E+0	1.871748E+0	1.768866E+0	1.851895E+0	1.920422E+0	1.816150E+0	1.842855E+0	1.898355E+0	1.890225E+0	1.828006E+0	1.826615E+0	1.838042E+0	1.813269E+0	1.927323E+0	1.799941E+0	1.879782E+0	1.891252E+0	1.935117E+0	1.797472E+0	1.861435E+0	1.863179E+0	1.891720E+0	1.843012E+0	1.760872E+0	1.824016E+0	1.862721E+0	1.806946E+0	1.785681E+0	1.869983E+0	1.913055E+0	1.799439E+0	1.826384E+0	1.922414E+0	1.875255E+0	1.864328E+0	1.843529E+0	1.838147E+0	1.826647E+0	1.864680E+0	1.881106E+0	1.833599E+0	1.827456E+0	1.802025E+0	1.788336E+0	1.797412E+0	1.838494E+0	1.834918E+0	1.859375E+0	1.881598E+0	1.836512E+0	1.799572E+0	1.806410E+0	1.849089E+0	1.867889E+0	1.872814E+0	1.828438E+0	1.957987E+0	1.793397E+0	1.821463E+0	1.837931E+0	1.866391E+0	1.863694E+0	1.764409E+0	1.767065E+0	1.841689E+0	1.812599E+0	1.844216E+0	1.825756E+0	1.846648E+0	1.896430E+0	1.875827E+0	1.831148E+0	1.821504E+0	1.860780E+0	1.868355E+0	1.899631E+0	1.833953E+0	1.841878E+0	1.847511E+0	1.884248E+0	1.813297E+0	1.834599E+0	1.750152E+0	1.838627E+0	1.782694E+0	1.835405E+0	1.834476E+0	1.985157E+0	1.846513E+0	1.858158E+0	1.802379E+0	1.766669E+0	1.818853E+0	1.878567E+0	1.788098E+0	1.824999E+0	1.835276E+0	1.782449E+0
5.410190E+2	1.777350E+0	1.781957E+0	1.833530E+0	1.805512E+0	1.838454E+0	1.780277E+0	1.814895E+0	1.806139E+0	1.794556E+0	1.847201E+0	1.823512E+0	1.813363E+0	1.849688E+0	1.835662E+0	1.873228E+0	1.794969E+0	1.831415E+0	1.780612E+0	1.740800E+0	1.765397E+0	1.762412E+0	1.753930E+0	1.882532E+0	1.819028E+0	1.808863E+0	1.819320E+0	1.782205E+0	1.849291E+0	1.825772E+0	1.780416E+0	1.851597E+0	1.809750E+0	1.850312E+0	1.779440E+0	1.730732E+0	1.716313E+0	1.804412E+0	1.809829E+0	1.784032E+0	1.775986E+0	1.805485E+0	1.699914E+0	1.806533E+0	1.755742E+0	1.830378E+0	1.806697E+0	1.795149E+0	1.764859E+0	1.840258E+0	1.790042E+0	1.740097E+0	1.788430E+0	1.814656E+0	1.831792E+0	1.858190E+0	1.778923E+0	1.775375E+0	1.783418E+0	1.795027E+0	1.879408E+0	1.782705E+0	1.720139E+0	1.755215E+0	1.780383E+0	1.834973E+0	1.811014E+0	1.795355E+0	1.820733E+0	1.803463E+0	1.811793E+0	1.771072E+0	1.736685E+0	1.792877E+0	1.742884E+0	1.761443E+0	1.820946E+0	1.785875E+0	1.730220E+0	1.766177E+0	1.786593E+0	1.818598E+0	1.691710E+0	1.773595E+0	1.850327E+0	1.807035E+0	1.745266E+0	1.772229E+0	1.740593E+0	1.792216E+0	1.755393E+0	1.733770E+0	1.797860E+0	1.763960E+0	1.700965E+0	1.774151E+0	1.814463E+0	1.764762E+0	1.775520E+0	1.714345E+0	1.785131E+0	1.738233E+0	1.758313E+0	1.836812E+0	1.825312E+0	1.691323E+0	1.770777E+0	1.803729E+0	1.762480E+0	1.805570E+0	1.733299E+0	1.714054E+0	1.749693E+0	1.719378E+0	1.761638E+0	1.821283E+0	1.803281E+0	1.751543E+0	1.760584E+0	1.722955E+0	1.769272E+0	1.760967E+0	1.754432E+0	1.806272E+0	1.816148E+0	1.745489E+0	1.703793E+0	1.784206E+0	1.754311E+0	1.760458E+0	1.810864E+0	1.728884E+0	1.758677E+0	1.751328E+0	1.720664E+0	1.843573E+0	1.770963E+0	1.780162E+0	1.692214E+0	1.700533E+0	1.738117E+0	1.799003E+0	1.780683E+0	1.836579E+0	1.777155E+0	1.755732E+0	1.742571E+0	1.760824E+0	1.741228E+0	1.703919E+0	1.757568E+0	1.778443E+0	1.758991E+0	1.795384E+0	1.706744E+0	1.731457E+0	1.793514E+0	1.671752E+0	1.677832E+0	1.774869E+0	1.746937E+0	1.889651E+0	1.757923E+0	1.840577E+0	1.676513E+0	1.660334E+0
5.412640E+2	1.732483E+0	1.639646E+0	1.791596E+0	1.756058E+0	1.761427E+0	1.771048E+0	1.773517E+0	1.730358E+0	1.622415E+0	1.648972E+0	1.678760E+0	1.760886E+0	1.669674E+0	1.668881E+0	1.714415E+0	1.701604E+0	1.786185E+0	1.739311E+0	1.684547E+0	1.716747E+0	1.745791E+0	1.683973E+0	1.711287E+0	1.701563E+0	1.705967E+0	1.797466E+0	1.697603E+0	1.777515E+0	1.794751E+0	1.695608E+0	1.747087E+0	1.675764E+0	1.772757E+0	1.658860E+0	1.664921E+0	1.742905E+0	1.728561E+0	1.669209E+0	1.684447E+0	1.683406E+0	1.779639E+0	1.674976E+0	1.682338E+0	1.747444E+0	1.688869E+0	1.729315E+0	1.722184E+0	1.722099E+0	1.675448E+0	1.677881E+0	1.709697E+0	1.670309E+0	1.752650E+0	1.658358E+0	1.762908E+0	1.730760E+0	1.693807E+0	1.732315E+0	1.747960E+0	1.749835E+0	1.652768E+0	1.729908E+0	1.686596E+0	1.684006E+0	1.782650E+0	1.687651E+0	1.732817E+0	1.714731E+0	1.746052E+0	1.692790E+0	1.758778E+0	1.769137E+0	1.676698E+0	1.676746E+0	1.748006E+0	1.724512E+0	1.765356E+0	1.652012E+0	1.746601E+0	1.724938E+0	1.716322E+0	1.633006E+0	1.789438E+0	1.737407E+0	1.733015E+0	1.619250E+0	1.768477E+0	1.722691E+0	1.694981E+0	1.678783E+0	1.696271E+0	1.663866E+0	1.707386E+0	1.646086E+0	1.663201E+0	1.765223E+0	1.751971E+0	1.716513E+0	1.736878E+0	1.648799E+0	1.735693E+0	1.716173E+0	1.690949E+0	1.676893E+0	1.693413E+0	1.640335E+0	1.701272E+0	1.698034E+0	1.720957E+0	1.736775E+0	1.721021E+0	1.697069E+0	1.640164E+0	1.642859E+0	1.730628E+0	1.683881E+0	1.702994E+0	1.710775E+0	1.722371E+0	1.655511E+0	1.685296E+0	1.712183E+0	1.698137E+0	1.732866E+0	1.733093E+0	1.672808E+0	1.692825E+0	1.720207E+0	1.620719E+0	1.641916E+0	1.636153E+0	1.665362E+0	1.736511E+0	1.716479E+0	1.751864E+0	1.621940E+0	1.700089E+0	1.671163E+0	1.669947E+0	1.724644E+0	1.654505E+0	1.659925E+0	1.689657E+0	1.618456E+0	1.752327E+0	1.714803E+0	1.719372E+0	1.733643E+0	1.579392E+0	1.666688E+0	1.715755E+0	1.701952E+0	1.640776E+0	1.625164E+0	1.723143E+0	1.764519E+0	1.664626E+0	1.619644E+0	1.693849E+0	1.614123E+0	1.773634E+0	1.679026E+0	1.734087E+0	1.627818E+0	1.616474E+0
5.415140E+2	1.651700E+0	1.562606E+0	1.702659E+0	1.668517E+0	1.659632E+0	1.667698E+0	1.636106E+0	1.655134E+0	1.661998E+0	1.658073E+0	1.652749E+0	1.735628E+0	1.660766E+0	1.640727E+0	1.693490E+0	1.638484E+0	1.658376E+0	1.618020E+0	1.631331E+0	1.618759E+0	1.645244E+0	1.671518E+0	1.531971E+0	1.645257E+0	1.681281E+0	1.651946E+0	1.662609E+0	1.688914E+0	1.730527E+0	1.653574E+0	1.669480E+0	1.582644E+0	1.633744E+0	1.625517E+0	1.645195E+0	1.605826E+0	1.663547E+0	1.625705E+0	1.628687E+0	1.663692E+0	1.613091E+0	1.601907E+0	1.609721E+0	1.635163E+0	1.654715E+0	1.638717E+0	1.565939E+0	1.589641E+0	1.643599E+0	1.660526E+0	1.604360E+0	1.630808E+0	1.592259E+0	1.676600E+0	1.629575E+0	1.666224E+0	1.609871E+0	1.605599E+0	1.643488E+0	1.707320E+0	1.652857E+0	1.568776E+0	1.622474E+0	1.650476E+0	1.679203E+0	1.644010E+0	1.676462E+0	1.549465E+0	1.653329E+0	1.562326E+0	1.596101E+0	1.719451E+0	1.707154E+0	1.618221E+0	1.596850E+0	1.678721E+0	1.600106E+0	1.648148E+0	1.682914E+0	1.653726E+0	1.632084E+0	1.590383E+0	1.605140E+0	1.644610E+0	1.653773E+0	1.581516E+0	1.638822E+0	1.609649E+0	1.672844E+0	1.605274E+0	1.613838E+0	1.647748E+0	1.656800E+0	1.550643E+0	1.589654E+0	1.662041E+0	1.616113E+0	1.648887E+0	1.587369E+0	1.660623E+0	1.680518E+0	1.633118E+0	1.663806E+0	1.590048E+0	1.634605E+0	1.600993E+0	1.636053E+0	1.600941E+0	1.573464E+0	1.579788E+0	1.679239E+0	1.557210E+0	1.615252E+0	1.594924E+0	1.722607E+0	1.692689E+0	1.619498E+0	1.606232E+0	1.565689E+0	1.597531E+0	1.631649E+0	1.631541E+0	1.601724E+0	1.620320E+0	1.621705E+0	1.614359E+0	1.626170E+0	1.601010E+0	1.665201E+0	1.537359E+0	1.648478E+0	1.679914E+0	1.530966E+0	1.654941E+0	1.654910E+0	1.581856E+0	1.566359E+0	1.621610E+0	1.590920E+0	1.592977E+0	1.606762E+0	1.617948E+0	1.641492E+0	1.645353E+0	1.630989E+0	1.593999E+0	1.584379E+0	1.619473E+0	1.618399E+0	1.580488E+0	1.622494E+0	1.601254E+0	1.645834E+0	1.581005E+0	1.612905E+0	1.640664E+0	1.617060E+0	1.600665E+0	1.620159E+0	1.580037E+0	1.641277E+0	1.570227E+0	1.587043E+0	1.540865E+0	1.634387E+0
5.417650E+2	1.529071E+0	1.481800E+0	1.523974E+0	1.533497E+0	1.535912E+0	1.536220E+0	1.506785E+0	1.535193E+0	1.593103E+0	1.531432E+0	1.511516E+0	1.511044E+0	1.481176E+0	1.471257E+0	1.543503E+0	1.491999E+0	1.478436E+0	1.519798E+0	1.460553E+0	1.514230E+0	1.513358E+0	1.478490E+0	1.523929E+0	1.518336E+0	1.544147E+0	1.528381E+0	1.586145E+0	1.578675E+0	1.562736E+0	1.494402E+0	1.523635E+0	1.444645E+0	1.552150E+0	1.502236E+0	1.468771E+0	1.486439E+0	1.571953E+0	1.485674E+0	1.518396E+0	1.515749E+0	1.528228E+0	1.538415E+0	1.445472E+0	1.540655E+0	1.539287E+0	1.485757E+0	1.532150E+0	1.480533E+0	1.539296E+0	1.476426E+0	1.497664E+0	1.534304E+0	1.507653E+0	1.506589E+0	1.529489E+0	1.528668E+0	1.454173E+0	1.485063E+0	1.506824E+0	1.572527E+0	1.498309E+0	1.478580E+0	1.450285E+0	1.507517E+0	1.511786E+0	1.486026E+0	1.526726E+0	1.535112E+0	1.508479E+0	1.457402E+0	1.514638E+0	1.590626E+0	1.528889E+0	1.563421E+0	1.522159E+0	1.602860E+0	1.523815E+0	1.541035E+0	1.467876E+0	1.494907E+0	1.514685E+0	1.494401E+0	1.544215E+0	1.490006E+0	1.511019E+0	1.466545E+0	1.471002E+0	1.543597E+0	1.534441E+0	1.490383E+0	1.454736E+0	1.468441E+0	1.503951E+0	1.434301E+0	1.490599E+0	1.554269E+0	1.455802E+0	1.463166E+0	1.512309E+0	1.481188E+0	1.519943E+0	1.465809E+0	1.536085E+0	1.508927E+0	1.457695E+0	1.479622E+0	1.498472E+0	1.525155E+0	1.494911E+0	1.502361E+0	1.466886E+0	1.440918E+0	1.532909E+0	1.483872E+0	1.493996E+0	1.477336E+0	1.488953E+0	1.479941E+0	1.512594E+0	1.610184E+0	1.406436E+0	1.493025E+0	1.504379E+0	1.463886E+0	1.472049E+0	1.426129E+0	1.507352E+0	1.504498E+0	1.522578E+0	1.465048E+0	1.486890E+0	1.542779E+0	1.460018E+0	1.506293E+0	1.538722E+0	1.489185E+0	1.460255E+0	1.438516E+0	1.578429E+0	1.448260E+0	1.544190E+0	1.504036E+0	1.504639E+0	1.508648E+0	1.470334E+0	1.467635E+0	1.469359E+0	1.523326E+0	1.442079E+0	1.483360E+0	1.530439E+0	1.511908E+0	1.506972E+0	1.462574E+0	1.524180E+0	1.577145E+0	1.535760E+0	1.416577E+0	1.464938E+0	1.500467E+0	1.511564E+0	1.450724E+0	1.554688E+0	1.430011E+0	1.391806E+0
5.420110E+2	1.396750E+0	1.355954E+0	1.366166E+0	1.312457E+0	1.390621E+0	1.339466E+0	1.378470E+0	1.343720E+0	1.351268E+0	1.354912E+0	1.358842E+0	1.354060E+0	1.376171E+0	1.390194E+0	1.348261E+0	1.372857E+0	1.382313E+0	1.366465E+0	1.328056E+0	1.385275E+0	1.343234E+0	1.371625E+0	1.351050E+0	1.334830E+0	1.341421E+0	1.366126E+0	1.393536E+0	1.391478E+0	1.372094E+0	1.367540E+0	1.355113E+0	1.353504E+0	1.397538E+0	1.298289E+0	1.355815E+0	1.330588E+0	1.332731E+0	1.354441E+0	1.344456E+0	1.357799E+0	1.429971E+0	1.376951E+0	1.292354E+0	1.385015E+0	1.370703E+0	1.361577E+0	1.356444E+0	1.299275E+0	1.321684E+0	1.346716E+0	1.345724E+0	1.326031E+0	1.364055E+0	1.311308E+0	1.357484E+0	1.398769E+0	1.405858E+0	1.353603E+0	1.327535E+0	1.390900E+0	1.368838E+0	1.327354E+0	1.264041E+0	1.364245E+0	1.348233E+0	1.363975E+0	1.353851E+0	1.326944E+0	1.376189E+0	1.298812E+0	1.320903E+0	1.382034E+0	1.360421E+0	1.350362E+0	1.359401E+0	1.382223E+0	1.356473E+0	1.360152E+0	1.368134E+0	1.316617E+0	1.381577E+0	1.309190E+0	1.394258E+0	1.399412E+0	1.397604E+0	1.252803E+0	1.326521E+0	1.310903E+0	1.356959E+0	1.350587E+0	1.314781E+0	1.330712E+0	1.333481E+0	1.333297E+0	1.375234E+0	1.335352E+0	1.390369E+0	1.391767E+0	1.400878E+0	1.308325E+0	1.363951E+0	1.341238E+0	1.354215E+0	1.368484E+0	1.323622E+0	1.409604E+0	1.361004E+0	1.350411E+0	1.319248E+0	1.320648E+0	1.341811E+0	1.277548E+0	1.326595E+0	1.345004E+0	1.351583E+0	1.379941E+0	1.397919E+0	1.384346E+0	1.372956E+0	1.336377E+0	1.297446E+0	1.318441E+0	1.307951E+0	1.405540E+0	1.341154E+0	1.339495E+0	1.374024E+0	1.329449E+0	1.377039E+0	1.304680E+0	1.330837E+0	1.364943E+0	1.356578E+0	1.331355E+0	1.359770E+0	1.325679E+0	1.339957E+0	1.368684E+0	1.318401E+0	1.356917E+0	1.316790E+0	1.348214E+0	1.324567E+0	1.367629E+0	1.377479E+0	1.378872E+0	1.385792E+0	1.308288E+0	1.295823E+0	1.305795E+0	1.380375E+0	1.320679E+0	1.340940E+0	1.276376E+0	1.300171E+0	1.338395E+0	1.275094E+0	1.258643E+0	1.300342E+0	1.339554E+0	1.360141E+0	1.342830E+0	1.363323E+0	1.404360E+0	1.395016E+0
5.422670E+2	1.175942E+0	1.133546E+0	1.213441E+0	1.196865E+0	1.196125E+0	1.124149E+0	1.281188E+0	1.186733E+0	1.163479E+0	1.140993E+0	1.204340E+0	1.213698E+0	1.190337E+0	1.185238E+0	1.174612E+0	1.188219E+0	1.176103E+0	1.206405E+0	1.188779E+0	1.209227E+0	1.139019E+0	1.187884E+0	1.191141E+0	1.197381E+0	1.244270E+0	1.209969E+0	1.188596E+0	1.228585E+0	1.225132E+0	1.180775E+0	1.203584E+0	1.195157E+0	1.182740E+0	1.139692E+0	1.214509E+0	1.161932E+0	1.214575E+0	1.148418E+0	1.207789E+0	1.130786E+0	1.218866E+0	1.175096E+0	1.234456E+0	1.185795E+0	1.178352E+0	1.147926E+0	1.204306E+0	1.162851E+0	1.148017E+0	1.118894E+0	1.180288E+0	1.190336E+0	1.220424E+0	1.140655E+0	1.156522E+0	1.213804E+0	1.178580E+0	1.195146E+0	1.213923E+0	1.197709E+0	1.193156E+0	1.183468E+0	1.167075E+0	1.184216E+0	1.221455E+0	1.190415E+0	1.200975E+0	1.217436E+0	1.162384E+0	1.192138E+0	1.171888E+0	1.256369E+0	1.181117E+0	1.199547E+0	1.173005E+0	1.249441E+0	1.185139E+0	1.182892E+0	1.185038E+0	1.201363E+0	1.203677E+0	1.119211E+0	1.206862E+0	1.176471E+0	1.217755E+0	1.194617E+0	1.186148E+0	1.168454E+0	1.205345E+0	1.222678E+0	1.165569E+0	1.146805E+0	1.213736E+0	1.208801E+0	1.155305E+0	1.182403E+0	1.166550E+0	1.163556E+0	1.162377E+0	1.175032E+0	1.227043E+0	1.187771E+0	1.155855E+0	1.268007E+0	1.182944E+0	1.208366E+0	1.220087E+0	1.167321E+0	1.194234E+0	1.154928E+0	1.197542E+0	1.173828E+0	1.184353E+0	1.166260E+0	1.172513E+0	1.211911E+0	1.180896E+0	1.194824E+0	1.138738E+0	1.188004E+0	1.220184E+0	1.180421E+0	1.182688E+0	1.239456E+0	1.220111E+0	1.145071E+0	1.165678E+0	1.216042E+0	1.158857E+0	1.135674E+0	1.146144E+0	1.231199E+0	1.194995E+0	1.161687E+0	1.161336E+0	1.171983E+0	1.193512E+0	1.245305E+0	1.144900E+0	1.160498E+0	1.158047E+0	1.181654E+0	1.190923E+0	1.145695E+0	1.157680E+0	1.181398E+0	1.172249E+0	1.138369E+0	1.166000E+0	1.120848E+0	1.208852E+0	1.224634E+0	1.162399E+0	1.141739E+0	1.226731E+0	1.167182E+0	1.158936E+0	1.151435E+0	1.180240E+0	1.205563E+0	1.178950E+0	1.102688E+0	1.226330E+0	1.156464E+0	1.195946E+0
5.425080E+2	1.041359E+0	1.033631E+0	1.038161E+0	1.056940E+0	1.031835E+0	1.024372E+0	1.091423E+0	1.060391E+0	1.017327E+0	1.049375E+0	1.058662E+0	1.040405E+0	1.069090E+0	1.069725E+0	1.063568E+0	1.019745E+0	1.096464E+0	1.032764E+0	1.009122E+0	1.027466E+0	1.029568E+0	1.011930E+0	1.037177E+0	1.081570E+0	1.095397E+0	1.083850E+0	1.035770E+0	1.063927E+0	1.034657E+0	1.046663E+0	1.004298E+0	1.013192E+0	1.030869E+0	1.038961E+0	1.025196E+0	1.130913E+0	1.057366E+0	1.032248E+0	1.022546E+0	1.071141E+0	1.058781E+0	1.052720E+0	1.073129E+0	1.065703E+0	1.080737E+0	1.025814E+0	1.027615E+0	1.037754E+0	1.061033E+0	1.054531E+0	1.050159E+0	1.002242E+0	1.078259E+0	1.016723E+0	1.026887E+0	1.034266E+0	1.062586E+0	1.066107E+0	1.061996E+0	1.075230E+0	1.091645E+0	1.058893E+0	1.060991E+0	1.084637E+0	1.123848E+0	1.054795E+0	1.053848E+0	1.058821E+0	1.073511E+0	1.077770E+0	1.074978E+0	1.072855E+0	1.082198E+0	1.014674E+0	1.075801E+0	1.109950E+0	1.064034E+0	1.034506E+0	1.048316E+0	1.011272E+0	1.023015E+0	1.058179E+0	1.027633E+0	1.098768E+0	1.071416E+0	1.045190E+0	1.047943E+0	1.054243E+0	1.036406E+0	1.013734E+0	1.003113E+0	1.074048E+0	1.048115E+0	1.039081E+0	1.057882E+0	1.083994E+0	1.046492E+0	1.116915E+0	1.025985E+0	1.040880E+0	1.063183E+0	1.032444E+0	9.850811E-1	1.054884E+0	1.057862E+0	1.043448E+0	1.038574E+0	1.057393E+0	1.007419E+0	1.086974E+0	1.051566E+0	1.010107E+0	1.057292E+0	1.036952E+0	1.090164E+0	9.854794E-1	1.114642E+0	1.027985E+0	1.034774E+0	1.087795E+0	1.028641E+0	1.043150E+0	9.712949E-1	1.115487E+0	1.055553E+0	9.946929E-1	1.051521E+0	1.068142E+0	1.107963E+0	1.034519E+0	1.044651E+0	1.069205E+0	1.045826E+0	1.092205E+0	1.018478E+0	1.038518E+0	1.063704E+0	1.054172E+0	1.007031E+0	1.094064E+0	1.041593E+0	1.069661E+0	1.074693E+0	1.054396E+0	1.040596E+0	1.065358E+0	1.044775E+0	1.038949E+0	1.031705E+0	1.084936E+0	1.098234E+0	1.086304E+0	1.016269E+0	1.008200E+0	1.088417E+0	1.091355E+0	1.056544E+0	1.024465E+0	1.061037E+0	1.043438E+0	1.063954E+0	1.035240E+0	1.074032E+0	1.059595E+0	9.978386E-1
5.427600E+2	9.623176E-1	9.740072E-1	9.990057E-1	9.677027E-1	9.753806E-1	9.754803E-1	9.651494E-1	1.026707E+0	1.040237E+0	9.968177E-1	9.712274E-1	9.515928E-1	1.019040E+0	9.504771E-1	1.007586E+0	9.568092E-1	1.048249E+0	1.015526E+0	1.012907E+0	1.013289E+0	1.020430E+0	9.915628E-1	9.916906E-1	9.271636E-1	1.018289E+0	9.847084E-1	9.827594E-1	9.779286E-1	1.014029E+0	9.711113E-1	9.585323E-1	1.007981E+0	9.589350E-1	9.308360E-1	9.181711E-1	9.841641E-1	9.503680E-1	9.760762E-1	9.664761E-1	1.005766E+0	9.747387E-1	1.014064E+0	9.835998E-1	9.930366E-1	9.737620E-1	1.019680E+0	9.337829E-1	9.586179E-1	1.008505E+0	9.514268E-1	1.025895E+0	9.877616E-1	9.815989E-1	9.927049E-1	9.722000E-1	9.864821E-1	9.816335E-1	9.759099E-1	9.813741E-1	9.660998E-1	9.588551E-1	9.776140E-1	9.160968E-1	9.343159E-1	9.608870E-1	9.986502E-1	1.011535E+0	1.011914E+0	9.887580E-1	9.722269E-1	9.618286E-1	1.058249E+0	9.869487E-1	9.706941E-1	9.649014E-1	1.071637E+0	9.733883E-1	9.396420E-1	9.523908E-1	9.521364E-1	9.713821E-1	9.816089E-1	9.576470E-1	1.005335E+0	1.009551E+0	9.680457E-1	9.691712E-1	9.773212E-1	9.596636E-1	1.031943E+0	9.602910E-1	1.002471E+0	9.634056E-1	9.645586E-1	9.527540E-1	9.897436E-1	9.941432E-1	9.499641E-1	9.096539E-1	9.428650E-1	9.848903E-1	1.027936E+0	9.571488E-1	9.444303E-1	9.577386E-1	9.091421E-1	9.657307E-1	9.565854E-1	9.514979E-1	9.665430E-1	9.918070E-1	9.538589E-1	9.773147E-1	9.797777E-1	1.016554E+0	1.018862E+0	9.884380E-1	9.864007E-1	9.003546E-1	9.711209E-1	1.046401E+0	9.945749E-1	9.707572E-1	1.057729E+0	9.934969E-1	9.727820E-1	9.589277E-1	1.013955E+0	9.531578E-1	9.406470E-1	9.674960E-1	9.841563E-1	9.672660E-1	9.824047E-1	9.333523E-1	9.763134E-1	9.934971E-1	9.471886E-1	9.295187E-1	1.004946E+0	9.671394E-1	1.048172E+0	9.681453E-1	9.973965E-1	1.042286E+0	9.598783E-1	9.492553E-1	9.252600E-1	9.700931E-1	9.523025E-1	1.017251E+0	1.031774E+0	9.569784E-1	9.451650E-1	9.792840E-1	9.588177E-1	9.882633E-1	9.637693E-1	9.811310E-1	9.869402E-1	9.790423E-1	9.034584E-1	9.410138E-1	9.560304E-1	9.781050E-1
5.430330E+2	1.032826E+0	1.015185E+0	1.072536E+0	9.862979E-1	1.021585E+0	1.005991E+0	1.042194E+0	1.063528E+0	1.045604E+0	1.031789E+0	1.061227E+0	9.995962E-1	1.016899E+0	1.015900E+0	1.053072E+0	1.013973E+0	1.080659E+0	1.050130E+0	1.038128E+0	1.039552E+0	1.006339E+0	1.052593E+0	1.059207E+0	1.027975E+0	1.036285E+0	1.074601E+0	1.025216E+0	1.068673E+0	1.081812E+0	1.011485E+0	1.017134E+0	1.024645E+0	1.056358E+0	9.891107E-1	1.033312E+0	1.012898E+0	1.036127E+0	1.031385E+0	1.023009E+0	1.044957E+0	1.049573E+0	9.742633E-1	1.053220E+0	1.024801E+0	1.041375E+0	1.076932E+0	9.927251E-1	1.012776E+0	1.002793E+0	1.034921E+0	1.022755E+0	1.079901E+0	1.092303E+0	9.832110E-1	1.006022E+0	1.006867E+0	1.080211E+0	1.046559E+0	1.048107E+0	1.048937E+0	1.026790E+0	1.003124E+0	9.748741E-1	1.045158E+0	1.067086E+0	9.858451E-1	1.004522E+0	1.017359E+0	1.053949E+0	1.055105E+0	1.016966E+0	1.043742E+0	1.013419E+0	1.001311E+0	9.803221E-1	1.100907E+0	9.912378E-1	1.027847E+0	1.063936E+0	1.017815E+0	1.004346E+0	1.016303E+0	9.989172E-1	1.030463E+0	1.036408E+0	9.325260E-1	1.031643E+0	1.039060E+0	1.051154E+0	1.011881E+0	9.970619E-1	1.023980E+0	1.028176E+0	1.002481E+0	9.921238E-1	1.036249E+0	9.975170E-1	9.917552E-1	1.054492E+0	1.072246E+0	1.038568E+0	1.085148E+0	1.042958E+0	1.062931E+0	1.002147E+0	1.042784E+0	1.047268E+0	1.008292E+0	1.070261E+0	1.012424E+0	1.049938E+0	1.022880E+0	1.014396E+0	1.032145E+0	1.003954E+0	1.055454E+0	1.048054E+0	1.025501E+0	9.939526E-1	1.008587E+0	1.006475E+0	9.621121E-1	9.686817E-1	1.099992E+0	1.057809E+0	1.000585E+0	1.042344E+0	1.019262E+0	1.065062E+0	1.012344E+0	1.034404E+0	1.010475E+0	1.066949E+0	1.015516E+0	1.000345E+0	1.033822E+0	1.034306E+0	1.025949E+0	9.617098E-1	1.047806E+0	1.083034E+0	1.038079E+0	1.030683E+0	1.030045E+0	1.002414E+0	1.052295E+0	1.069142E+0	9.925983E-1	9.971439E-1	9.915333E-1	1.017382E+0	1.043009E+0	9.627376E-1	9.804705E-1	1.044160E+0	1.079052E+0	9.764457E-1	1.022124E+0	1.017504E+0	1.068046E+0	1.039987E+0	1.013651E+0	1.009069E+0	9.831498E-1	1.078292E+0
5.432640E+2	1.016867E+0	1.103227E+0	1.098280E+0	1.103660E+0	1.080385E+0	1.069258E+0	1.094522E+0	1.157426E+0	1.058019E+0	1.097996E+0	1.108323E+0	1.074629E+0	1.084099E+0	1.076635E+0	1.094477E+0	1.111816E+0	1.156998E+0	1.121795E+0	1.098955E+0	1.125969E+0	1.117959E+0	1.114274E+0	1.160977E+0	1.111571E+0	1.081564E+0	1.099606E+0	1.125386E+0	1.128704E+0	1.131922E+0	1.076229E+0	1.129316E+0	1.115004E+0	1.176608E+0	1.126682E+0	1.129533E+0	1.121630E+0	1.053073E+0	1.149189E+0	1.133017E+0	1.115115E+0	1.123480E+0	1.126451E+0	1.142471E+0	1.136154E+0	1.140426E+0	1.140519E+0	1.091653E+0	1.090162E+0	1.071366E+0	1.115301E+0	1.087234E+0	1.054885E+0	1.091967E+0	1.136974E+0	1.089894E+0	1.034742E+0	1.081285E+0	1.117783E+0	1.076362E+0	1.120599E+0	1.118167E+0	1.106255E+0	1.085414E+0	1.104800E+0	1.117665E+0	1.148843E+0	1.081974E+0	1.082167E+0	1.120818E+0	1.098315E+0	1.057863E+0	1.135024E+0	1.131011E+0	1.113072E+0	1.115615E+0	1.139470E+0	1.072386E+0	1.076879E+0	1.033290E+0	1.122692E+0	1.112349E+0	1.068614E+0	1.053018E+0	1.118339E+0	1.104320E+0	1.080203E+0	1.064771E+0	1.153460E+0	1.058701E+0	1.093891E+0	1.036492E+0	1.069523E+0	1.095204E+0	1.052738E+0	1.121063E+0	1.082394E+0	1.120001E+0	1.076668E+0	1.127468E+0	1.091211E+0	1.122559E+0	1.102978E+0	1.066884E+0	1.137051E+0	1.055384E+0	1.109527E+0	1.050957E+0	1.055460E+0	1.105031E+0	1.086539E+0	1.108483E+0	1.070693E+0	1.147444E+0	1.093749E+0	1.046354E+0	1.120359E+0	1.160699E+0	1.059655E+0	1.062085E+0	1.122108E+0	1.098113E+0	1.071039E+0	1.070175E+0	1.160149E+0	1.052283E+0	1.082508E+0	1.069761E+0	1.082729E+0	1.084718E+0	1.031731E+0	1.087642E+0	1.094739E+0	1.148090E+0	1.112999E+0	1.055201E+0	1.124394E+0	1.079676E+0	1.093147E+0	1.094732E+0	1.056559E+0	1.102749E+0	1.096664E+0	1.092214E+0	1.049398E+0	1.090214E+0	1.060428E+0	1.078385E+0	1.068300E+0	1.047929E+0	1.103550E+0	1.087056E+0	1.104455E+0	1.135438E+0	1.044274E+0	1.084562E+0	1.159123E+0	1.094221E+0	1.085533E+0	1.079656E+0	1.093454E+0	1.161946E+0	1.080657E+0	1.115138E+0	1.126334E+0	1.169826E+0
5.435110E+2	1.275474E+0	1.242978E+0	1.333951E+0	1.277937E+0	1.231053E+0	1.270336E+0	1.308143E+0	1.295196E+0	1.304629E+0	1.233272E+0	1.287916E+0	1.303611E+0	1.318279E+0	1.242649E+0	1.251454E+0	1.274315E+0	1.345941E+0	1.251889E+0	1.283562E+0	1.333901E+0	1.329927E+0	1.247654E+0	1.253925E+0	1.317851E+0	1.341059E+0	1.352527E+0	1.283718E+0	1.346787E+0	1.302235E+0	1.268701E+0	1.267944E+0	1.315276E+0	1.353241E+0	1.279273E+0	1.329278E+0	1.309421E+0	1.336169E+0	1.260031E+0	1.282036E+0	1.296793E+0	1.256160E+0	1.269749E+0	1.255248E+0	1.337039E+0	1.288739E+0	1.266470E+0	1.275125E+0	1.268287E+0	1.305188E+0	1.274643E+0	1.300307E+0	1.257491E+0	1.320865E+0	1.279384E+0	1.270662E+0	1.298139E+0	1.294087E+0	1.304048E+0	1.230598E+0	1.374670E+0	1.197948E+0	1.237299E+0	1.244371E+0	1.237541E+0	1.295543E+0	1.288002E+0	1.302999E+0	1.302205E+0	1.307806E+0	1.228331E+0	1.273980E+0	1.352442E+0	1.294279E+0	1.238019E+0	1.312878E+0	1.317016E+0	1.279708E+0	1.279236E+0	1.268694E+0	1.255513E+0	1.334517E+0	1.239636E+0	1.247419E+0	1.306295E+0	1.333851E+0	1.230963E+0	1.267131E+0	1.262647E+0	1.251394E+0	1.320594E+0	1.266753E+0	1.249458E+0	1.295142E+0	1.220421E+0	1.281073E+0	1.288431E+0	1.249212E+0	1.336047E+0	1.291724E+0	1.315332E+0	1.313067E+0	1.251364E+0	1.307029E+0	1.305607E+0	1.321965E+0	1.312216E+0	1.247324E+0	1.283782E+0	1.255026E+0	1.311006E+0	1.257056E+0	1.235142E+0	1.272686E+0	1.259680E+0	1.293500E+0	1.289577E+0	1.309016E+0	1.303732E+0	1.220012E+0	1.271804E+0	1.293650E+0	1.272830E+0	1.261731E+0	1.299238E+0	1.265030E+0	1.297894E+0	1.270859E+0	1.276852E+0	1.289581E+0	1.270223E+0	1.237745E+0	1.266136E+0	1.323973E+0	1.268289E+0	1.276354E+0	1.346413E+0	1.289266E+0	1.277182E+0	1.312572E+0	1.349563E+0	1.303783E+0	1.250821E+0	1.249506E+0	1.250982E+0	1.266170E+0	1.266873E+0	1.257892E+0	1.283500E+0	1.274210E+0	1.266332E+0	1.317231E+0	1.360663E+0	1.247353E+0	1.253377E+0	1.299790E+0	1.293760E+0	1.262523E+0	1.254271E+0	1.220772E+0	1.289144E+0	1.364077E+0	1.261122E+0	1.276318E+0	1.342529E+0	1.330806E+0
5.437640E+2	1.516016E+0	1.430823E+0	1.414515E+0	1.454185E+0	1.425312E+0	1.481273E+0	1.491596E+0	1.490247E+0	1.427780E+0	1.495250E+0	1.408323E+0	1.464275E+0	1.469980E+0	1.451083E+0	1.429751E+0	1.413386E+0	1.495842E+0	1.450945E+0	1.518710E+0	1.453202E+0	1.456335E+0	1.494828E+0	1.498814E+0	1.500727E+0	1.485715E+0	1.392098E+0	1.436210E+0	1.516104E+0	1.467057E+0	1.423657E+0	1.491212E+0	1.435099E+0	1.484844E+0	1.454451E+0	1.534401E+0	1.536617E+0	1.435834E+0	1.428632E+0	1.370623E+0	1.421911E+0	1.529337E+0	1.427127E+0	1.434500E+0	1.410848E+0	1.492965E+0	1.474001E+0	1.417689E+0	1.423548E+0	1.453426E+0	1.453182E+0	1.496893E+0	1.383649E+0	1.483674E+0	1.484221E+0	1.397846E+0	1.496894E+0	1.466748E+0	1.414697E+0	1.443155E+0	1.510435E+0	1.429055E+0	1.409348E+0	1.408474E+0	1.443190E+0	1.421775E+0	1.446489E+0	1.396978E+0	1.477562E+0	1.430647E+0	1.451801E+0	1.365832E+0	1.463931E+0	1.484092E+0	1.448262E+0	1.445068E+0	1.486026E+0	1.432130E+0	1.369462E+0	1.448027E+0	1.506935E+0	1.527534E+0	1.452329E+0	1.374199E+0	1.386332E+0	1.497051E+0	1.483105E+0	1.427199E+0	1.439915E+0	1.469911E+0	1.435775E+0	1.401451E+0	1.420707E+0	1.391850E+0	1.420149E+0	1.458112E+0	1.466311E+0	1.513368E+0	1.387734E+0	1.400377E+0	1.461873E+0	1.425229E+0	1.446984E+0	1.456684E+0	1.514010E+0	1.444465E+0	1.529486E+0	1.503807E+0	1.524972E+0	1.476802E+0	1.438910E+0	1.438455E+0	1.376196E+0	1.450814E+0	1.406862E+0	1.415757E+0	1.464232E+0	1.418510E+0	1.439717E+0	1.425832E+0	1.424448E+0	1.435436E+0	1.421412E+0	1.419133E+0	1.509385E+0	1.439816E+0	1.422832E+0	1.422161E+0	1.464656E+0	1.438261E+0	1.427651E+0	1.379691E+0	1.462385E+0	1.432971E+0	1.429721E+0	1.436806E+0	1.411740E+0	1.469486E+0	1.391329E+0	1.382656E+0	1.438080E+0	1.428315E+0	1.405954E+0	1.436044E+0	1.425482E+0	1.493354E+0	1.498512E+0	1.418419E+0	1.423693E+0	1.400432E+0	1.472129E+0	1.441757E+0	1.431344E+0	1.444613E+0	1.453682E+0	1.507698E+0	1.521896E+0	1.450832E+0	1.391759E+0	1.427611E+0	1.461216E+0	1.501924E+0	1.400842E+0	1.426880E+0	1.570655E+0	1.288859E+0
5.440280E+2	1.618822E+0	1.521884E+0	1.614941E+0	1.554452E+0	1.544770E+0	1.581259E+0	1.552035E+0	1.575820E+0	1.601047E+0	1.560565E+0	1.564453E+0	1.554709E+0	1.573613E+0	1.570761E+0	1.599121E+0	1.584631E+0	1.606897E+0	1.572723E+0	1.592499E+0	1.550579E+0	1.563172E+0	1.560881E+0	1.627975E+0	1.522734E+0	1.579633E+0	1.603708E+0	1.563134E+0	1.601652E+0	1.578270E+0	1.557249E+0	1.533085E+0	1.532726E+0	1.601718E+0	1.524136E+0	1.568820E+0	1.581072E+0	1.541371E+0	1.583018E+0	1.559512E+0	1.516228E+0	1.602054E+0	1.551434E+0	1.570697E+0	1.585321E+0	1.590202E+0	1.512366E+0	1.528613E+0	1.543239E+0	1.509914E+0	1.524502E+0	1.518202E+0	1.591796E+0	1.547109E+0	1.589837E+0	1.524152E+0	1.592505E+0	1.517028E+0	1.532127E+0	1.537785E+0	1.578760E+0	1.542661E+0	1.533419E+0	1.534400E+0	1.573375E+0	1.619295E+0	1.462224E+0	1.573935E+0	1.591387E+0	1.540845E+0	1.511097E+0	1.499475E+0	1.569590E+0	1.554835E+0	1.476960E+0	1.515026E+0	1.578920E+0	1.530257E+0	1.561829E+0	1.536169E+0	1.587697E+0	1.548020E+0	1.491259E+0	1.553190E+0	1.564976E+0	1.551830E+0	1.497464E+0	1.564745E+0	1.570508E+0	1.566906E+0	1.504855E+0	1.463029E+0	1.623091E+0	1.547212E+0	1.470125E+0	1.531592E+0	1.511395E+0	1.520896E+0	1.548754E+0	1.538818E+0	1.546322E+0	1.555091E+0	1.516107E+0	1.526659E+0	1.579443E+0	1.528974E+0	1.569517E+0	1.557409E+0	1.540645E+0	1.503496E+0	1.571698E+0	1.513168E+0	1.499006E+0	1.589575E+0	1.509886E+0	1.513959E+0	1.524535E+0	1.486837E+0	1.526323E+0	1.474250E+0	1.582671E+0	1.580574E+0	1.563568E+0	1.539013E+0	1.576772E+0	1.588667E+0	1.527363E+0	1.560594E+0	1.564520E+0	1.566258E+0	1.487208E+0	1.475304E+0	1.596414E+0	1.550121E+0	1.461690E+0	1.527852E+0	1.580355E+0	1.506135E+0	1.518614E+0	1.471739E+0	1.553827E+0	1.572253E+0	1.531444E+0	1.577578E+0	1.551769E+0	1.480758E+0	1.530098E+0	1.549708E+0	1.577679E+0	1.492374E+0	1.559161E+0	1.497038E+0	1.479398E+0	1.527817E+0	1.556015E+0	1.566128E+0	1.582671E+0	1.519407E+0	1.443561E+0	1.498504E+0	1.517284E+0	1.614297E+0	1.495854E+0	1.466692E+0	1.503072E+0	1.575570E+0
5.442810E+2	1.591228E+0	1.596508E+0	1.587747E+0	1.678812E+0	1.630827E+0	1.579650E+0	1.655639E+0	1.649325E+0	1.655128E+0	1.697206E+0	1.642488E+0	1.617024E+0	1.653695E+0	1.607617E+0	1.623290E+0	1.577549E+0	1.620318E+0	1.616984E+0	1.568446E+0	1.593730E+0	1.601423E+0	1.581712E+0	1.574050E+0	1.570678E+0	1.669433E+0	1.627038E+0	1.569544E+0	1.615011E+0	1.638684E+0	1.607168E+0	1.625164E+0	1.644984E+0	1.623863E+0	1.599515E+0	1.583234E+0	1.611335E+0	1.626369E+0	1.575996E+0	1.596134E+0	1.624881E+0	1.619401E+0	1.587484E+0	1.606838E+0	1.587404E+0	1.601627E+0	1.609520E+0	1.593924E+0	1.604310E+0	1.651621E+0	1.541169E+0	1.646904E+0	1.595473E+0	1.614388E+0	1.660590E+0	1.634852E+0	1.643325E+0	1.607646E+0	1.640774E+0	1.605501E+0	1.684683E+0	1.580873E+0	1.583215E+0	1.552918E+0	1.579698E+0	1.630730E+0	1.634437E+0	1.598352E+0	1.646078E+0	1.598678E+0	1.542673E+0	1.554772E+0	1.633388E+0	1.700403E+0	1.616188E+0	1.639795E+0	1.680261E+0	1.549175E+0	1.624042E+0	1.563795E+0	1.554765E+0	1.591062E+0	1.579406E+0	1.563141E+0	1.656847E+0	1.620468E+0	1.557204E+0	1.603468E+0	1.609368E+0	1.595257E+0	1.630733E+0	1.572074E+0	1.604242E+0	1.631464E+0	1.579361E+0	1.617241E+0	1.645256E+0	1.636732E+0	1.665805E+0	1.567501E+0	1.647703E+0	1.545924E+0	1.593571E+0	1.622101E+0	1.618076E+0	1.574266E+0	1.576946E+0	1.599784E+0	1.601070E+0	1.575310E+0	1.527853E+0	1.591874E+0	1.547993E+0	1.636849E+0	1.574507E+0	1.621071E+0	1.579160E+0	1.623602E+0	1.604271E+0	1.565301E+0	1.653807E+0	1.615261E+0	1.584889E+0	1.540398E+0	1.656628E+0	1.651278E+0	1.599658E+0	1.599625E+0	1.554288E+0	1.625342E+0	1.522974E+0	1.488103E+0	1.608291E+0	1.559840E+0	1.548334E+0	1.614173E+0	1.562977E+0	1.610601E+0	1.583418E+0	1.518943E+0	1.558572E+0	1.603046E+0	1.527983E+0	1.534800E+0	1.605356E+0	1.601777E+0	1.587735E+0	1.601339E+0	1.667977E+0	1.607774E+0	1.585278E+0	1.584247E+0	1.646615E+0	1.605702E+0	1.542793E+0	1.529332E+0	1.668086E+0	1.568606E+0	1.557418E+0	1.552324E+0	1.569335E+0	1.681434E+0	1.664464E+0	1.628245E+0	1.621317E+0	1.604790E+0
5.445400E+2	1.607804E+0	1.639059E+0	1.630551E+0	1.640188E+0	1.661959E+0	1.711531E+0	1.667968E+0	1.643806E+0	1.650936E+0	1.674486E+0	1.663846E+0	1.659437E+0	1.599310E+0	1.692603E+0	1.616902E+0	1.614758E+0	1.556032E+0	1.590253E+0	1.594349E+0	1.610104E+0	1.610912E+0	1.675578E+0	1.612500E+0	1.603719E+0	1.659501E+0	1.633910E+0	1.593417E+0	1.680189E+0	1.668541E+0	1.634945E+0	1.657224E+0	1.613949E+0	1.622677E+0	1.561964E+0	1.637260E+0	1.587306E+0	1.617079E+0	1.630881E+0	1.633829E+0	1.587869E+0	1.671794E+0	1.591375E+0	1.597793E+0	1.606314E+0	1.612027E+0	1.600931E+0	1.648125E+0	1.621877E+0	1.623605E+0	1.607459E+0	1.668192E+0	1.595196E+0	1.644047E+0	1.626608E+0	1.579908E+0	1.638971E+0	1.615326E+0	1.627267E+0	1.607627E+0	1.741883E+0	1.628181E+0	1.564117E+0	1.572819E+0	1.582915E+0	1.628111E+0	1.611808E+0	1.596336E+0	1.652483E+0	1.681807E+0	1.587589E+0	1.612359E+0	1.679544E+0	1.684427E+0	1.587356E+0	1.572101E+0	1.699028E+0	1.682884E+0	1.509260E+0	1.645578E+0	1.592411E+0	1.665447E+0	1.544928E+0	1.589447E+0	1.695095E+0	1.641909E+0	1.571953E+0	1.570976E+0	1.654294E+0	1.679011E+0	1.600472E+0	1.580754E+0	1.585838E+0	1.649604E+0	1.563169E+0	1.596881E+0	1.660633E+0	1.568447E+0	1.598315E+0	1.571422E+0	1.614322E+0	1.642053E+0	1.609136E+0	1.556415E+0	1.619631E+0	1.543301E+0	1.620853E+0	1.627202E+0	1.560712E+0	1.558659E+0	1.561225E+0	1.636070E+0	1.594635E+0	1.635339E+0	1.584995E+0	1.573262E+0	1.633809E+0	1.645318E+0	1.603768E+0	1.513583E+0	1.621917E+0	1.564001E+0	1.588831E+0	1.612312E+0	1.691293E+0	1.602970E+0	1.581414E+0	1.587785E+0	1.569077E+0	1.549107E+0	1.543928E+0	1.562665E+0	1.624323E+0	1.643600E+0	1.609312E+0	1.533620E+0	1.621923E+0	1.664379E+0	1.558474E+0	1.540374E+0	1.550875E+0	1.643265E+0	1.566913E+0	1.553385E+0	1.545072E+0	1.649910E+0	1.622951E+0	1.582004E+0	1.577919E+0	1.544203E+0	1.600211E+0	1.598361E+0	1.591297E+0	1.636854E+0	1.606946E+0	1.620524E+0	1.704623E+0	1.608435E+0	1.588613E+0	1.656985E+0	1.563729E+0	1.621200E+0	1.559452E+0	1.586273E+0	1.515356E+0	1.508693E+0
5.447610E+2	1.601430E+0	1.607322E+0	1.610337E+0	1.636316E+0	1.607424E+0	1.615005E+0	1.622163E+0	1.645554E+0	1.564216E+0	1.659703E+0	1.612216E+0	1.608282E+0	1.634618E+0	1.602654E+0	1.611172E+0	1.627139E+0	1.581620E+0	1.613142E+0	1.546365E+0	1.575064E+0	1.586005E+0	1.622858E+0	1.606291E+0	1.570322E+0	1.662612E+0	1.555563E+0	1.620849E+0	1.632538E+0	1.569557E+0	1.589260E+0	1.632850E+0	1.590798E+0	1.657307E+0	1.558275E+0	1.595520E+0	1.541298E+0	1.618046E+0	1.586148E+0	1.519394E+0	1.575199E+0	1.605179E+0	1.661669E+0	1.588275E+0	1.618224E+0	1.640207E+0	1.603236E+0	1.574918E+0	1.583541E+0	1.603176E+0	1.625642E+0	1.553945E+0	1.530455E+0	1.624415E+0	1.579948E+0	1.604386E+0	1.650080E+0	1.615922E+0	1.586442E+0	1.558574E+0	1.605588E+0	1.568869E+0	1.555580E+0	1.559083E+0	1.587757E+0	1.650121E+0	1.582625E+0	1.589690E+0	1.595407E+0	1.591063E+0	1.545809E+0	1.576168E+0	1.592247E+0	1.559267E+0	1.536728E+0	1.614001E+0	1.668079E+0	1.585900E+0	1.603658E+0	1.583392E+0	1.618227E+0	1.622246E+0	1.589445E+0	1.568556E+0	1.666691E+0	1.606238E+0	1.521244E+0	1.571957E+0	1.612357E+0	1.601209E+0	1.579892E+0	1.557192E+0	1.624561E+0	1.604081E+0	1.497968E+0	1.587179E+0	1.600230E+0	1.616296E+0	1.582698E+0	1.606669E+0	1.579937E+0	1.571327E+0	1.607275E+0	1.616082E+0	1.628962E+0	1.583661E+0	1.624998E+0	1.607569E+0	1.580965E+0	1.634917E+0	1.628585E+0	1.559550E+0	1.559870E+0	1.563385E+0	1.555495E+0	1.567787E+0	1.633803E+0	1.632788E+0	1.578205E+0	1.538223E+0	1.536667E+0	1.591609E+0	1.569568E+0	1.609388E+0	1.634341E+0	1.648931E+0	1.557123E+0	1.595158E+0	1.585955E+0	1.580283E+0	1.553338E+0	1.552799E+0	1.608904E+0	1.605306E+0	1.529986E+0	1.511451E+0	1.596830E+0	1.618507E+0	1.588716E+0	1.556693E+0	1.561280E+0	1.538561E+0	1.579097E+0	1.605155E+0	1.562575E+0	1.573199E+0	1.562339E+0	1.523558E+0	1.494798E+0	1.579340E+0	1.618901E+0	1.563164E+0	1.548076E+0	1.620295E+0	1.582784E+0	1.641933E+0	1.613283E+0	1.544137E+0	1.516583E+0	1.541425E+0	1.546166E+0	1.631899E+0	1.496393E+0	1.620955E+0	1.546110E+0	1.701382E+0
5.450150E+2	1.576686E+0	1.525289E+0	1.498264E+0	1.526172E+0	1.488265E+0	1.531178E+0	1.601271E+0	1.489517E+0	1.555438E+0	1.522100E+0	1.527392E+0	1.518870E+0	1.582373E+0	1.485040E+0	1.531924E+0	1.549761E+0	1.554576E+0	1.487502E+0	1.521523E+0	1.469701E+0	1.520029E+0	1.518114E+0	1.475846E+0	1.507927E+0	1.539925E+0	1.516037E+0	1.519869E+0	1.489017E+0	1.544734E+0	1.558151E+0	1.526605E+0	1.515203E+0	1.500211E+0	1.507829E+0	1.521481E+0	1.486964E+0	1.518854E+0	1.528127E+0	1.575074E+0	1.496372E+0	1.512385E+0	1.507970E+0	1.563107E+0	1.505651E+0	1.578824E+0	1.533116E+0	1.497074E+0	1.489940E+0	1.511828E+0	1.547657E+0	1.479759E+0	1.515143E+0	1.513683E+0	1.512550E+0	1.546887E+0	1.527548E+0	1.486906E+0	1.526246E+0	1.509764E+0	1.566497E+0	1.522143E+0	1.497585E+0	1.490891E+0	1.504845E+0	1.525797E+0	1.550782E+0	1.405349E+0	1.521559E+0	1.493527E+0	1.463660E+0	1.448530E+0	1.507200E+0	1.535246E+0	1.520168E+0	1.539276E+0	1.519909E+0	1.568507E+0	1.517348E+0	1.511952E+0	1.493091E+0	1.522140E+0	1.533404E+0	1.515664E+0	1.584992E+0	1.572207E+0	1.547964E+0	1.554978E+0	1.559130E+0	1.522191E+0	1.527826E+0	1.531479E+0	1.505966E+0	1.496419E+0	1.486462E+0	1.582236E+0	1.449396E+0	1.540290E+0	1.503850E+0	1.479421E+0	1.530144E+0	1.585718E+0	1.537667E+0	1.471188E+0	1.521401E+0	1.501762E+0	1.544287E+0	1.473956E+0	1.492887E+0	1.504637E+0	1.536921E+0	1.497723E+0	1.498948E+0	1.480318E+0	1.486467E+0	1.496539E+0	1.558561E+0	1.498885E+0	1.476828E+0	1.454093E+0	1.482353E+0	1.558450E+0	1.513146E+0	1.503133E+0	1.567810E+0	1.512654E+0	1.475376E+0	1.467691E+0	1.512760E+0	1.514225E+0	1.473494E+0	1.465069E+0	1.468709E+0	1.536684E+0	1.514203E+0	1.444570E+0	1.530478E+0	1.510598E+0	1.484390E+0	1.473795E+0	1.486719E+0	1.525030E+0	1.510734E+0	1.486018E+0	1.535192E+0	1.517993E+0	1.502047E+0	1.498199E+0	1.534429E+0	1.518859E+0	1.537513E+0	1.483147E+0	1.529721E+0	1.500707E+0	1.491024E+0	1.482048E+0	1.544446E+0	1.454425E+0	1.504553E+0	1.469362E+0	1.517106E+0	1.500091E+0	1.505774E+0	1.556102E+0	1.469430E+0	1.511296E+0
5.452640E+2	1.441903E+0	1.415051E+0	1.494636E+0	1.466033E+0	1.465169E+0	1.448881E+0	1.490997E+0	1.539193E+0	1.478374E+0	1.420146E+0	1.416787E+0	1.442432E+0	1.485583E+0	1.473612E+0	1.447964E+0	1.473803E+0	1.441559E+0	1.439960E+0	1.446764E+0	1.421238E+0	1.420210E+0	1.491116E+0	1.417727E+0	1.412798E+0	1.528040E+0	1.474492E+0	1.427783E+0	1.410059E+0	1.454671E+0	1.444681E+0	1.446489E+0	1.394955E+0	1.488429E+0	1.385920E+0	1.483747E+0	1.387674E+0	1.391275E+0	1.358729E+0	1.408892E+0	1.443935E+0	1.485387E+0	1.418004E+0	1.504002E+0	1.422083E+0	1.470751E+0	1.387445E+0	1.402494E+0	1.503953E+0	1.479177E+0	1.410103E+0	1.449615E+0	1.420528E+0	1.476647E+0	1.483100E+0	1.444655E+0	1.414867E+0	1.487062E+0	1.391836E+0	1.429813E+0	1.464703E+0	1.449866E+0	1.408742E+0	1.435018E+0	1.438488E+0	1.464044E+0	1.502118E+0	1.430003E+0	1.452669E+0	1.423660E+0	1.467638E+0	1.380935E+0	1.456818E+0	1.521477E+0	1.435791E+0	1.416300E+0	1.446014E+0	1.443249E+0	1.410182E+0	1.411505E+0	1.447999E+0	1.484701E+0	1.407477E+0	1.434497E+0	1.485344E+0	1.522013E+0	1.387976E+0	1.439669E+0	1.386563E+0	1.393876E+0	1.468017E+0	1.387487E+0	1.469458E+0	1.478388E+0	1.424065E+0	1.424470E+0	1.414187E+0	1.466725E+0	1.452586E+0	1.455795E+0	1.483851E+0	1.428784E+0	1.454921E+0	1.401211E+0	1.494400E+0	1.461819E+0	1.490785E+0	1.450264E+0	1.443490E+0	1.446251E+0	1.400073E+0	1.410457E+0	1.406708E+0	1.483342E+0	1.420065E+0	1.399764E+0	1.445285E+0	1.528640E+0	1.451300E+0	1.352057E+0	1.426067E+0	1.439740E+0	1.459380E+0	1.414353E+0	1.575373E+0	1.389078E+0	1.471595E+0	1.444468E+0	1.442014E+0	1.394130E+0	1.432688E+0	1.387246E+0	1.462273E+0	1.398880E+0	1.453446E+0	1.388977E+0	1.432838E+0	1.438031E+0	1.403519E+0	1.395838E+0	1.397679E+0	1.418683E+0	1.421954E+0	1.402706E+0	1.400676E+0	1.456212E+0	1.431350E+0	1.497210E+0	1.431486E+0	1.461083E+0	1.435905E+0	1.434902E+0	1.474454E+0	1.462269E+0	1.444027E+0	1.504221E+0	1.514681E+0	1.481869E+0	1.384402E+0	1.455446E+0	1.401885E+0	1.451896E+0	1.386878E+0	1.376550E+0	1.441023E+0	1.389280E+0
5.455070E+2	1.456277E+0	1.361687E+0	1.383617E+0	1.389692E+0	1.382393E+0	1.382004E+0	1.365569E+0	1.347445E+0	1.399508E+0	1.374224E+0	1.359547E+0	1.386538E+0	1.473140E+0	1.363995E+0	1.412680E+0	1.350958E+0	1.397207E+0	1.379323E+0	1.389911E+0	1.362253E+0	1.418874E+0	1.398529E+0	1.373465E+0	1.351549E+0	1.481858E+0	1.399272E+0	1.411147E+0	1.412016E+0	1.437648E+0	1.430898E+0	1.378302E+0	1.355167E+0	1.359815E+0	1.324746E+0	1.371946E+0	1.357366E+0	1.431932E+0	1.435163E+0	1.347612E+0	1.421336E+0	1.421718E+0	1.353564E+0	1.374424E+0	1.357946E+0	1.402795E+0	1.393802E+0	1.391007E+0	1.366529E+0	1.394428E+0	1.402838E+0	1.405088E+0	1.420992E+0	1.377013E+0	1.431962E+0	1.395498E+0	1.408105E+0	1.370318E+0	1.402272E+0	1.370866E+0	1.446083E+0	1.339484E+0	1.344678E+0	1.362649E+0	1.387877E+0	1.454443E+0	1.461250E+0	1.353028E+0	1.421456E+0	1.445124E+0	1.381125E+0	1.338555E+0	1.407736E+0	1.445752E+0	1.359297E+0	1.362897E+0	1.439286E+0	1.423932E+0	1.374433E+0	1.400003E+0	1.348210E+0	1.356807E+0	1.350146E+0	1.388471E+0	1.365500E+0	1.433008E+0	1.402512E+0	1.404315E+0	1.375117E+0	1.370981E+0	1.379853E+0	1.406699E+0	1.374715E+0	1.417535E+0	1.307270E+0	1.393129E+0	1.459893E+0	1.427933E+0	1.388627E+0	1.421261E+0	1.374867E+0	1.392381E+0	1.365650E+0	1.379094E+0	1.408304E+0	1.364875E+0	1.410428E+0	1.404158E+0	1.422000E+0	1.363596E+0	1.396567E+0	1.412346E+0	1.329988E+0	1.428995E+0	1.402120E+0	1.376934E+0	1.420934E+0	1.429978E+0	1.376267E+0	1.330765E+0	1.401523E+0	1.374001E+0	1.415724E+0	1.315309E+0	1.434631E+0	1.440728E+0	1.406038E+0	1.449000E+0	1.392893E+0	1.374446E+0	1.352112E+0	1.340220E+0	1.402456E+0	1.335524E+0	1.403840E+0	1.380134E+0	1.413526E+0	1.394357E+0	1.345249E+0	1.358217E+0	1.399046E+0	1.377589E+0	1.391799E+0	1.346848E+0	1.310383E+0	1.397314E+0	1.355450E+0	1.373821E+0	1.417976E+0	1.388852E+0	1.360140E+0	1.383381E+0	1.386231E+0	1.415115E+0	1.381840E+0	1.442675E+0	1.425541E+0	1.429465E+0	1.337983E+0	1.358237E+0	1.385514E+0	1.411690E+0	1.385407E+0	1.360848E+0	1.377300E+0	1.312405E+0
5.457670E+2	1.328080E+0	1.318958E+0	1.318478E+0	1.312147E+0	1.327750E+0	1.322740E+0	1.329105E+0	1.316965E+0	1.296911E+0	1.332605E+0	1.301242E+0	1.320763E+0	1.316145E+0	1.337585E+0	1.329992E+0	1.294987E+0	1.318369E+0	1.376931E+0	1.307347E+0	1.286863E+0	1.314315E+0	1.317116E+0	1.272960E+0	1.270835E+0	1.346001E+0	1.325314E+0	1.322636E+0	1.283059E+0	1.361447E+0	1.391106E+0	1.274917E+0	1.374600E+0	1.318489E+0	1.291631E+0	1.338608E+0	1.274124E+0	1.299661E+0	1.261622E+0	1.340613E+0	1.275750E+0	1.386351E+0	1.322764E+0	1.328676E+0	1.340617E+0	1.305085E+0	1.377189E+0	1.269833E+0	1.329410E+0	1.369982E+0	1.324627E+0	1.301123E+0	1.286559E+0	1.344345E+0	1.335708E+0	1.326948E+0	1.313380E+0	1.329586E+0	1.316400E+0	1.289713E+0	1.381259E+0	1.315591E+0	1.307086E+0	1.298148E+0	1.311170E+0	1.368073E+0	1.267350E+0	1.309843E+0	1.306674E+0	1.331331E+0	1.299186E+0	1.280572E+0	1.294346E+0	1.297560E+0	1.279381E+0	1.293432E+0	1.330760E+0	1.294542E+0	1.279471E+0	1.300089E+0	1.311395E+0	1.375544E+0	1.347793E+0	1.325362E+0	1.349443E+0	1.399735E+0	1.290762E+0	1.290419E+0	1.275217E+0	1.346588E+0	1.285993E+0	1.240232E+0	1.348681E+0	1.343729E+0	1.306489E+0	1.298114E+0	1.300497E+0	1.328058E+0	1.326851E+0	1.333132E+0	1.330912E+0	1.263358E+0	1.317531E+0	1.310631E+0	1.320424E+0	1.306781E+0	1.303932E+0	1.318976E+0	1.309990E+0	1.332722E+0	1.316876E+0	1.338895E+0	1.306794E+0	1.303921E+0	1.275708E+0	1.301844E+0	1.418818E+0	1.328491E+0	1.351688E+0	1.328360E+0	1.315997E+0	1.335593E+0	1.331018E+0	1.326857E+0	1.307417E+0	1.354416E+0	1.297920E+0	1.284640E+0	1.308815E+0	1.309284E+0	1.311091E+0	1.267727E+0	1.318214E+0	1.303045E+0	1.359071E+0	1.302328E+0	1.274682E+0	1.316835E+0	1.360702E+0	1.275775E+0	1.307083E+0	1.344140E+0	1.266413E+0	1.330646E+0	1.278780E+0	1.381954E+0	1.281882E+0	1.217980E+0	1.370406E+0	1.284715E+0	1.305047E+0	1.275690E+0	1.364059E+0	1.334989E+0	1.286682E+0	1.303855E+0	1.362649E+0	1.290296E+0	1.325768E+0	1.268223E+0	1.309560E+0	1.347136E+0	1.226426E+0	1.334661E+0	1.308383E+0	1.366314E+0
5.460060E+2	1.265081E+0	1.234152E+0	1.318911E+0	1.270392E+0	1.274393E+0	1.322786E+0	1.265730E+0	1.264085E+0	1.272816E+0	1.266875E+0	1.250884E+0	1.205397E+0	1.301914E+0	1.270183E+0	1.250914E+0	1.266206E+0	1.334236E+0	1.243333E+0	1.264618E+0	1.286909E+0	1.298427E+0	1.227800E+0	1.239071E+0	1.235249E+0	1.327059E+0	1.232162E+0	1.313978E+0	1.259887E+0	1.324174E+0	1.289637E+0	1.309481E+0	1.216761E+0	1.251863E+0	1.227333E+0	1.288977E+0	1.234485E+0	1.313205E+0	1.254871E+0	1.335367E+0	1.199742E+0	1.304452E+0	1.261551E+0	1.242425E+0	1.230425E+0	1.285976E+0	1.259267E+0	1.272237E+0	1.240027E+0	1.276320E+0	1.303370E+0	1.278449E+0	1.232928E+0	1.310571E+0	1.305895E+0	1.252734E+0	1.248309E+0	1.257488E+0	1.246217E+0	1.232736E+0	1.308853E+0	1.221135E+0	1.198306E+0	1.226353E+0	1.216344E+0	1.356784E+0	1.241817E+0	1.256755E+0	1.287345E+0	1.281517E+0	1.334009E+0	1.204708E+0	1.245663E+0	1.340178E+0	1.237834E+0	1.267495E+0	1.258606E+0	1.287201E+0	1.274283E+0	1.238463E+0	1.226173E+0	1.270770E+0	1.258634E+0	1.247667E+0	1.255103E+0	1.358344E+0	1.243834E+0	1.233672E+0	1.239424E+0	1.248584E+0	1.273780E+0	1.207387E+0	1.200519E+0	1.286524E+0	1.219427E+0	1.174393E+0	1.247456E+0	1.275489E+0	1.287414E+0	1.268773E+0	1.238765E+0	1.241070E+0	1.303143E+0	1.248841E+0	1.293025E+0	1.246307E+0	1.288015E+0	1.253083E+0	1.210108E+0	1.267180E+0	1.212130E+0	1.271080E+0	1.224362E+0	1.314117E+0	1.224605E+0	1.271395E+0	1.245033E+0	1.214774E+0	1.269464E+0	1.208322E+0	1.242862E+0	1.239516E+0	1.221319E+0	1.237741E+0	1.274147E+0	1.286332E+0	1.292344E+0	1.276554E+0	1.279083E+0	1.277954E+0	1.219441E+0	1.265986E+0	1.266970E+0	1.290639E+0	1.250873E+0	1.238085E+0	1.253013E+0	1.253062E+0	1.225229E+0	1.218412E+0	1.254697E+0	1.299035E+0	1.257422E+0	1.246580E+0	1.245948E+0	1.290831E+0	1.292899E+0	1.261801E+0	1.277961E+0	1.253424E+0	1.271478E+0	1.222702E+0	1.210797E+0	1.256796E+0	1.206545E+0	1.281475E+0	1.274796E+0	1.344563E+0	1.225720E+0	1.246478E+0	1.250723E+0	1.285396E+0	1.208844E+0	1.181925E+0	1.300648E+0	1.300094E+0
5.467660E+2	1.215813E+0	1.235717E+0	1.192361E+0	1.135170E+0	1.220228E+0	1.198925E+0	1.222500E+0	1.211290E+0	1.214697E+0	1.184270E+0	1.188040E+0	1.197581E+0	1.240081E+0	1.202248E+0	1.216678E+0	1.179408E+0	1.164520E+0	1.206107E+0	1.230147E+0	1.188861E+0	1.204831E+0	1.240494E+0	1.218876E+0	1.215405E+0	1.272660E+0	1.281957E+0	1.211360E+0	1.252587E+0	1.258399E+0	1.197938E+0	1.239490E+0	1.236820E+0	1.196428E+0	1.191230E+0	1.210030E+0	1.197940E+0	1.213978E+0	1.214594E+0	1.238340E+0	1.181391E+0	1.254693E+0	1.161751E+0	1.214932E+0	1.185645E+0	1.238815E+0	1.215162E+0	1.245455E+0	1.187946E+0	1.249653E+0	1.253731E+0	1.250145E+0	1.240922E+0	1.285201E+0	1.243212E+0	1.201279E+0	1.193942E+0	1.171305E+0	1.199434E+0	1.145142E+0	1.201436E+0	1.250651E+0	1.203731E+0	1.239739E+0	1.214969E+0	1.226601E+0	1.208108E+0	1.126497E+0	1.242024E+0	1.149678E+0	1.182272E+0	1.187253E+0	1.230310E+0	1.231937E+0	1.166221E+0	1.247046E+0	1.224861E+0	1.197753E+0	1.207585E+0	1.230705E+0	1.210797E+0	1.262410E+0	1.247322E+0	1.199079E+0	1.225326E+0	1.218870E+0	1.201132E+0	1.196404E+0	1.207744E+0	1.279817E+0	1.233522E+0	1.220752E+0	1.241936E+0	1.182868E+0	1.265367E+0	1.195004E+0	1.236928E+0	1.257928E+0	1.220758E+0	1.214218E+0	1.192589E+0	1.264862E+0	1.186362E+0	1.205215E+0	1.127432E+0	1.249619E+0	1.202372E+0	1.236923E+0	1.255441E+0	1.237978E+0	1.162336E+0	1.214365E+0	1.193617E+0	1.240508E+0	1.196016E+0	1.217249E+0	1.256468E+0	1.214375E+0	1.188996E+0	1.152182E+0	1.221809E+0	1.123144E+0	1.245036E+0	1.190236E+0	1.259176E+0	1.216941E+0	1.205398E+0	1.177762E+0	1.259613E+0	1.222236E+0	1.188403E+0	1.207975E+0	1.196600E+0	1.203349E+0	1.223301E+0	1.211587E+0	1.182712E+0	1.169371E+0	1.203715E+0	1.203454E+0	1.213516E+0	1.224265E+0	1.257924E+0	1.219975E+0	1.241328E+0	1.211347E+0	1.158954E+0	1.246828E+0	1.242346E+0	1.183219E+0	1.223368E+0	1.229073E+0	1.237291E+0	1.220516E+0	1.150547E+0	1.263913E+0	1.205194E+0	1.212476E+0	1.200050E+0	1.197337E+0	1.214579E+0	1.230787E+0	1.166695E+0	1.133993E+0	1.165895E+0	1.193850E+0
5.475340E+2	1.355825E+0	1.289611E+0	1.332289E+0	1.370926E+0	1.347412E+0	1.327201E+0	1.365477E+0	1.303263E+0	1.309237E+0	1.370182E+0	1.336592E+0	1.319504E+0	1.335961E+0	1.290612E+0	1.381771E+0	1.314860E+0	1.335330E+0	1.335785E+0	1.297940E+0	1.335197E+0	1.330285E+0	1.365261E+0	1.320318E+0	1.322020E+0	1.374126E+0	1.299655E+0	1.362965E+0	1.335866E+0	1.324286E+0	1.315996E+0	1.333341E+0	1.285269E+0	1.319558E+0	1.330432E+0	1.350230E+0	1.301911E+0	1.349235E+0	1.313189E+0	1.384620E+0	1.373449E+0	1.354250E+0	1.367226E+0	1.322934E+0	1.326714E+0	1.381192E+0	1.269319E+0	1.356183E+0	1.303192E+0	1.382515E+0	1.304741E+0	1.358064E+0	1.310817E+0	1.339132E+0	1.278591E+0	1.317637E+0	1.315468E+0	1.339331E+0	1.357159E+0	1.313829E+0	1.327199E+0	1.311734E+0	1.270487E+0	1.316074E+0	1.312675E+0	1.443711E+0	1.293851E+0	1.282335E+0	1.357215E+0	1.345130E+0	1.323423E+0	1.319642E+0	1.316546E+0	1.339575E+0	1.317007E+0	1.372578E+0	1.370768E+0	1.333095E+0	1.291543E+0	1.380229E+0	1.302539E+0	1.300435E+0	1.330064E+0	1.328850E+0	1.264741E+0	1.372226E+0	1.303108E+0	1.304090E+0	1.302255E+0	1.349524E+0	1.334619E+0	1.298211E+0	1.223245E+0	1.367541E+0	1.290260E+0	1.318299E+0	1.365153E+0	1.300201E+0	1.316967E+0	1.281858E+0	1.352233E+0	1.359734E+0	1.375321E+0	1.291903E+0	1.339168E+0	1.294209E+0	1.405333E+0	1.358132E+0	1.306648E+0	1.351604E+0	1.332605E+0	1.310566E+0	1.264329E+0	1.403253E+0	1.366188E+0	1.292508E+0	1.350705E+0	1.361243E+0	1.369603E+0	1.335830E+0	1.318848E+0	1.277051E+0	1.306886E+0	1.330420E+0	1.339844E+0	1.346213E+0	1.304228E+0	1.311168E+0	1.284357E+0	1.322815E+0	1.276912E+0	1.318995E+0	1.322925E+0	1.310849E+0	1.289165E+0	1.322621E+0	1.364708E+0	1.337996E+0	1.267196E+0	1.268830E+0	1.311466E+0	1.343896E+0	1.270886E+0	1.305136E+0	1.315766E+0	1.320634E+0	1.320990E+0	1.334321E+0	1.296032E+0	1.285717E+0	1.363989E+0	1.349151E+0	1.250977E+0	1.394293E+0	1.277743E+0	1.354131E+0	1.378321E+0	1.342062E+0	1.342999E+0	1.344548E+0	1.302226E+0	1.400351E+0	1.317157E+0	1.292979E+0	1.297906E+0	1.307153E+0
5.482660E+2	1.481592E+0	1.384271E+0	1.448647E+0	1.377561E+0	1.391681E+0	1.366846E+0	1.451733E+0	1.464615E+0	1.418167E+0	1.369310E+0	1.385648E+0	1.441801E+0	1.445543E+0	1.396217E+0	1.431863E+0	1.394963E+0	1.369854E+0	1.401632E+0	1.397161E+0	1.449749E+0	1.411670E+0	1.447409E+0	1.421009E+0	1.427895E+0	1.465420E+0	1.378619E+0	1.428625E+0	1.432063E+0	1.405590E+0	1.472110E+0	1.408151E+0	1.414538E+0	1.345991E+0	1.402720E+0	1.473866E+0	1.353664E+0	1.419516E+0	1.381924E+0	1.408831E+0	1.402846E+0	1.480709E+0	1.462515E+0	1.434785E+0	1.437731E+0	1.428499E+0	1.400466E+0	1.379092E+0	1.387470E+0	1.416263E+0	1.406992E+0	1.380205E+0	1.406670E+0	1.438752E+0	1.411068E+0	1.408696E+0	1.410171E+0	1.411115E+0	1.345211E+0	1.339150E+0	1.452257E+0	1.406970E+0	1.340447E+0	1.371187E+0	1.418326E+0	1.463289E+0	1.426751E+0	1.390396E+0	1.411150E+0	1.445625E+0	1.385150E+0	1.405643E+0	1.391202E+0	1.444795E+0	1.400546E+0	1.411641E+0	1.445759E+0	1.410966E+0	1.453014E+0	1.404465E+0	1.349600E+0	1.463927E+0	1.367667E+0	1.407943E+0	1.429205E+0	1.473877E+0	1.415987E+0	1.357398E+0	1.412936E+0	1.427899E+0	1.356684E+0	1.358128E+0	1.409197E+0	1.458701E+0	1.356429E+0	1.387456E+0	1.386261E+0	1.419273E+0	1.413036E+0	1.369619E+0	1.431396E+0	1.445660E+0	1.446587E+0	1.426743E+0	1.402299E+0	1.391183E+0	1.439847E+0	1.389867E+0	1.400812E+0	1.414213E+0	1.479909E+0	1.401576E+0	1.369197E+0	1.458596E+0	1.400502E+0	1.366269E+0	1.402816E+0	1.373158E+0	1.417229E+0	1.386537E+0	1.408828E+0	1.397150E+0	1.401807E+0	1.357582E+0	1.510722E+0	1.323048E+0	1.409198E+0	1.413036E+0	1.399826E+0	1.408452E+0	1.336095E+0	1.391863E+0	1.381030E+0	1.372966E+0	1.411536E+0	1.400908E+0	1.378322E+0	1.443767E+0	1.422017E+0	1.389336E+0	1.412559E+0	1.418268E+0	1.405319E+0	1.407319E+0	1.439985E+0	1.382722E+0	1.344455E+0	1.392962E+0	1.430621E+0	1.416063E+0	1.346897E+0	1.423416E+0	1.395684E+0	1.407334E+0	1.330131E+0	1.448606E+0	1.391223E+0	1.421773E+0	1.383427E+0	1.373197E+0	1.405432E+0	1.436611E+0	1.425726E+0	1.379403E+0	1.394493E+0	1.339099E+0
5.490160E+2	1.442554E+0	1.366637E+0	1.489908E+0	1.425934E+0	1.416592E+0	1.426708E+0	1.378631E+0	1.459676E+0	1.425985E+0	1.439640E+0	1.433738E+0	1.385358E+0	1.409424E+0	1.379758E+0	1.459365E+0	1.390582E+0	1.398706E+0	1.398765E+0	1.392298E+0	1.396997E+0	1.403289E+0	1.371593E+0	1.372854E+0	1.384977E+0	1.422491E+0	1.444759E+0	1.444876E+0	1.487580E+0	1.445578E+0	1.381295E+0	1.431166E+0	1.397171E+0	1.393510E+0	1.336742E+0	1.453764E+0	1.386320E+0	1.449274E+0	1.406255E+0	1.370539E+0	1.352916E+0	1.499606E+0	1.385486E+0	1.415786E+0	1.437999E+0	1.456216E+0	1.390352E+0	1.460726E+0	1.389748E+0	1.435255E+0	1.465271E+0	1.438857E+0	1.444253E+0	1.439008E+0	1.360196E+0	1.413459E+0	1.464113E+0	1.420498E+0	1.400605E+0	1.397989E+0	1.451534E+0	1.416594E+0	1.425219E+0	1.421825E+0	1.416772E+0	1.421319E+0	1.401184E+0	1.360289E+0	1.427736E+0	1.447209E+0	1.403223E+0	1.398827E+0	1.380230E+0	1.489989E+0	1.399823E+0	1.423351E+0	1.428761E+0	1.428252E+0	1.431807E+0	1.398835E+0	1.350995E+0	1.387163E+0	1.419343E+0	1.412670E+0	1.468396E+0	1.444007E+0	1.360870E+0	1.425473E+0	1.415882E+0	1.428438E+0	1.444176E+0	1.400418E+0	1.373487E+0	1.426246E+0	1.393358E+0	1.366635E+0	1.435126E+0	1.430296E+0	1.455610E+0	1.408071E+0	1.390555E+0	1.404215E+0	1.384778E+0	1.384219E+0	1.399190E+0	1.412855E+0	1.404056E+0	1.476320E+0	1.327418E+0	1.400712E+0	1.421061E+0	1.390077E+0	1.408915E+0	1.425111E+0	1.336297E+0	1.386522E+0	1.314312E+0	1.423482E+0	1.427451E+0	1.367734E+0	1.392868E+0	1.396720E+0	1.369520E+0	1.391757E+0	1.395245E+0	1.418404E+0	1.383005E+0	1.412859E+0	1.359911E+0	1.417337E+0	1.317856E+0	1.428518E+0	1.385812E+0	1.438848E+0	1.371463E+0	1.361571E+0	1.407632E+0	1.404736E+0	1.405546E+0	1.367314E+0	1.334193E+0	1.403296E+0	1.368515E+0	1.457854E+0	1.458857E+0	1.427857E+0	1.374661E+0	1.430375E+0	1.483547E+0	1.424938E+0	1.397629E+0	1.362573E+0	1.406207E+0	1.443994E+0	1.345423E+0	1.450818E+0	1.346146E+0	1.398492E+0	1.451254E+0	1.426204E+0	1.366936E+0	1.508679E+0	1.374105E+0	1.383209E+0	1.320375E+0	1.333060E+0
5.497570E+2	1.315236E+0	1.395530E+0	1.395831E+0	1.332519E+0	1.383278E+0	1.387168E+0	1.365979E+0	1.335882E+0	1.389613E+0	1.389494E+0	1.382450E+0	1.373899E+0	1.383972E+0	1.344648E+0	1.376756E+0	1.350026E+0	1.339619E+0	1.353475E+0	1.411304E+0	1.342300E+0	1.358374E+0	1.386907E+0	1.418347E+0	1.306573E+0	1.388971E+0	1.351909E+0	1.405511E+0	1.385587E+0	1.433918E+0	1.353178E+0	1.376752E+0	1.317085E+0	1.404246E+0	1.361517E+0	1.375204E+0	1.378080E+0	1.386862E+0	1.296348E+0	1.393211E+0	1.378981E+0	1.385090E+0	1.378510E+0	1.385328E+0	1.357297E+0	1.436267E+0	1.427465E+0	1.337943E+0	1.343247E+0	1.391076E+0	1.378205E+0	1.386879E+0	1.347462E+0	1.391187E+0	1.368339E+0	1.327922E+0	1.382114E+0	1.414728E+0	1.359863E+0	1.363803E+0	1.334706E+0	1.379030E+0	1.351872E+0	1.333450E+0	1.398427E+0	1.429455E+0	1.327639E+0	1.313771E+0	1.366014E+0	1.398319E+0	1.375345E+0	1.344266E+0	1.350643E+0	1.394074E+0	1.348140E+0	1.333232E+0	1.405089E+0	1.387482E+0	1.313375E+0	1.368580E+0	1.328427E+0	1.347453E+0	1.387637E+0	1.335643E+0	1.372654E+0	1.388453E+0	1.335175E+0	1.375682E+0	1.302863E+0	1.390233E+0	1.345030E+0	1.310083E+0	1.319014E+0	1.454623E+0	1.378576E+0	1.340320E+0	1.354607E+0	1.438553E+0	1.378838E+0	1.324638E+0	1.381873E+0	1.405438E+0	1.369223E+0	1.414393E+0	1.318621E+0	1.390419E+0	1.357082E+0	1.397535E+0	1.294612E+0	1.401193E+0	1.309919E+0	1.340366E+0	1.330185E+0	1.290027E+0	1.337620E+0	1.371428E+0	1.430601E+0	1.368537E+0	1.362378E+0	1.313382E+0	1.335993E+0	1.361807E+0	1.381962E+0	1.330645E+0	1.333637E+0	1.334260E+0	1.355962E+0	1.359217E+0	1.402852E+0	1.443510E+0	1.303690E+0	1.332275E+0	1.386510E+0	1.354813E+0	1.417556E+0	1.378162E+0	1.353550E+0	1.382917E+0	1.348218E+0	1.339274E+0	1.393508E+0	1.454932E+0	1.340642E+0	1.381373E+0	1.339598E+0	1.373575E+0	1.330011E+0	1.336387E+0	1.386787E+0	1.366903E+0	1.307651E+0	1.348161E+0	1.380493E+0	1.395389E+0	1.351910E+0	1.367313E+0	1.365638E+0	1.358628E+0	1.362488E+0	1.386397E+0	1.339415E+0	1.377702E+0	1.354104E+0	1.336922E+0	1.279041E+0	1.315340E+0
5.505110E+2	1.332718E+0	1.368498E+0	1.437547E+0	1.437958E+0	1.337834E+0	1.325518E+0	1.378238E+0	1.397756E+0	1.371247E+0	1.337991E+0	1.366741E+0	1.391612E+0	1.369353E+0	1.345475E+0	1.337970E+0	1.391315E+0	1.359613E+0	1.345854E+0	1.346930E+0	1.369965E+0	1.319089E+0	1.353154E+0	1.353452E+0	1.361950E+0	1.403466E+0	1.361327E+0	1.379316E+0	1.382867E+0	1.369599E+0	1.360744E+0	1.395144E+0	1.335755E+0	1.357488E+0	1.339952E+0	1.361873E+0	1.300840E+0	1.386746E+0	1.327299E+0	1.397842E+0	1.386377E+0	1.377871E+0	1.295745E+0	1.400036E+0	1.335666E+0	1.457522E+0	1.342217E+0	1.322896E+0	1.345008E+0	1.365787E+0	1.335272E+0	1.413063E+0	1.350984E+0	1.383128E+0	1.371249E+0	1.337123E+0	1.373017E+0	1.357571E+0	1.266064E+0	1.330738E+0	1.364966E+0	1.299107E+0	1.366182E+0	1.312959E+0	1.338838E+0	1.442359E+0	1.418598E+0	1.303462E+0	1.369411E+0	1.402620E+0	1.374462E+0	1.318107E+0	1.407316E+0	1.428419E+0	1.301148E+0	1.339102E+0	1.338023E+0	1.332961E+0	1.330348E+0	1.333951E+0	1.319149E+0	1.423470E+0	1.367759E+0	1.309310E+0	1.355276E+0	1.325275E+0	1.319353E+0	1.337134E+0	1.320919E+0	1.373644E+0	1.369574E+0	1.318327E+0	1.319682E+0	1.313720E+0	1.339070E+0	1.398177E+0	1.316178E+0	1.319605E+0	1.340394E+0	1.321914E+0	1.342084E+0	1.363420E+0	1.389673E+0	1.360710E+0	1.391820E+0	1.383182E+0	1.382601E+0	1.343693E+0	1.391197E+0	1.316036E+0	1.314050E+0	1.312228E+0	1.318712E+0	1.365475E+0	1.341068E+0	1.308567E+0	1.355970E+0	1.352838E+0	1.334832E+0	1.305142E+0	1.357213E+0	1.361937E+0	1.325167E+0	1.359325E+0	1.396382E+0	1.302284E+0	1.302933E+0	1.339337E+0	1.331042E+0	1.381219E+0	1.340477E+0	1.315716E+0	1.357587E+0	1.317639E+0	1.343913E+0	1.343305E+0	1.305468E+0	1.383059E+0	1.375083E+0	1.338853E+0	1.358249E+0	1.298437E+0	1.406150E+0	1.373820E+0	1.357905E+0	1.336622E+0	1.333445E+0	1.336468E+0	1.371450E+0	1.336345E+0	1.287717E+0	1.348247E+0	1.354700E+0	1.357779E+0	1.286536E+0	1.423896E+0	1.343727E+0	1.372089E+0	1.302078E+0	1.352857E+0	1.290676E+0	1.401191E+0	1.397789E+0	1.320322E+0	1.452499E+0	1.312147E+0
5.512570E+2	1.377886E+0	1.269962E+0	1.419251E+0	1.380049E+0	1.349252E+0	1.318815E+0	1.375584E+0	1.329447E+0	1.337017E+0	1.295052E+0	1.365124E+0	1.394786E+0	1.352548E+0	1.336962E+0	1.321836E+0	1.327052E+0	1.365171E+0	1.374770E+0	1.349850E+0	1.315343E+0	1.332447E+0	1.338531E+0	1.326336E+0	1.361402E+0	1.364909E+0	1.291302E+0	1.316160E+0	1.362262E+0	1.390315E+0	1.360613E+0	1.305133E+0	1.329856E+0	1.325516E+0	1.288767E+0	1.389786E+0	1.315495E+0	1.397283E+0	1.344708E+0	1.365008E+0	1.298778E+0	1.375314E+0	1.307864E+0	1.347994E+0	1.333588E+0	1.399130E+0	1.353167E+0	1.301787E+0	1.361751E+0	1.313343E+0	1.361353E+0	1.328315E+0	1.332207E+0	1.332165E+0	1.327082E+0	1.329814E+0	1.312206E+0	1.358126E+0	1.355175E+0	1.368903E+0	1.424621E+0	1.357177E+0	1.232358E+0	1.284857E+0	1.361904E+0	1.370574E+0	1.372616E+0	1.310458E+0	1.369450E+0	1.304248E+0	1.304871E+0	1.326502E+0	1.333068E+0	1.410489E+0	1.337684E+0	1.326766E+0	1.328998E+0	1.342463E+0	1.349489E+0	1.290708E+0	1.361742E+0	1.435110E+0	1.277594E+0	1.314614E+0	1.318499E+0	1.397282E+0	1.355646E+0	1.323818E+0	1.332745E+0	1.367162E+0	1.371919E+0	1.277443E+0	1.383161E+0	1.275455E+0	1.330271E+0	1.340314E+0	1.301718E+0	1.415453E+0	1.337980E+0	1.317268E+0	1.337306E+0	1.367678E+0	1.335144E+0	1.345197E+0	1.348867E+0	1.337455E+0	1.330565E+0	1.351292E+0	1.307146E+0	1.345491E+0	1.373890E+0	1.301219E+0	1.262124E+0	1.266703E+0	1.329555E+0	1.337779E+0	1.351072E+0	1.303114E+0	1.332642E+0	1.292417E+0	1.346214E+0	1.324516E+0	1.350056E+0	1.373190E+0	1.382862E+0	1.364198E+0	1.343466E+0	1.369799E+0	1.378110E+0	1.313630E+0	1.300294E+0	1.341502E+0	1.327431E+0	1.369579E+0	1.335783E+0	1.293901E+0	1.299996E+0	1.279225E+0	1.355680E+0	1.267746E+0	1.294054E+0	1.339435E+0	1.361436E+0	1.329664E+0	1.332777E+0	1.357817E+0	1.310073E+0	1.367432E+0	1.327169E+0	1.332744E+0	1.344950E+0	1.323238E+0	1.323955E+0	1.333864E+0	1.278187E+0	1.367722E+0	1.309902E+0	1.366702E+0	1.331828E+0	1.334250E+0	1.291289E+0	1.340117E+0	1.280969E+0	1.368307E+0	1.314947E+0	1.373558E+0
5.520150E+2	1.384241E+0	1.356926E+0	1.378408E+0	1.342657E+0	1.315499E+0	1.370832E+0	1.352158E+0	1.341914E+0	1.382855E+0	1.442294E+0	1.316355E+0	1.337506E+0	1.341327E+0	1.384965E+0	1.362799E+0	1.329013E+0	1.365163E+0	1.356214E+0	1.345847E+0	1.330304E+0	1.356896E+0	1.330148E+0	1.313586E+0	1.332254E+0	1.377856E+0	1.358803E+0	1.325800E+0	1.378634E+0	1.392830E+0	1.357102E+0	1.341710E+0	1.289403E+0	1.334766E+0	1.283429E+0	1.394710E+0	1.298219E+0	1.322054E+0	1.397511E+0	1.322849E+0	1.371284E+0	1.404440E+0	1.386462E+0	1.401935E+0	1.370166E+0	1.375420E+0	1.372085E+0	1.297465E+0	1.344082E+0	1.349703E+0	1.391355E+0	1.354125E+0	1.347738E+0	1.377316E+0	1.382430E+0	1.308731E+0	1.362533E+0	1.354623E+0	1.378449E+0	1.314560E+0	1.305145E+0	1.333518E+0	1.281091E+0	1.352357E+0	1.356450E+0	1.408472E+0	1.397728E+0	1.336138E+0	1.331239E+0	1.402371E+0	1.300512E+0	1.304073E+0	1.375410E+0	1.349453E+0	1.340747E+0	1.319207E+0	1.330525E+0	1.345613E+0	1.336431E+0	1.351277E+0	1.334506E+0	1.326715E+0	1.408659E+0	1.322467E+0	1.335622E+0	1.359742E+0	1.313195E+0	1.321577E+0	1.355169E+0	1.450620E+0	1.336598E+0	1.308337E+0	1.347768E+0	1.385353E+0	1.332009E+0	1.310259E+0	1.368174E+0	1.355370E+0	1.358183E+0	1.368517E+0	1.342782E+0	1.328095E+0	1.319224E+0	1.393567E+0	1.362767E+0	1.298912E+0	1.358633E+0	1.348695E+0	1.365895E+0	1.352133E+0	1.336160E+0	1.392421E+0	1.364122E+0	1.386115E+0	1.342119E+0	1.328648E+0	1.375331E+0	1.330089E+0	1.373998E+0	1.290392E+0	1.326885E+0	1.371963E+0	1.369403E+0	1.311108E+0	1.351335E+0	1.372334E+0	1.345726E+0	1.361758E+0	1.330535E+0	1.318300E+0	1.363563E+0	1.329042E+0	1.366132E+0	1.316712E+0	1.311376E+0	1.367510E+0	1.325776E+0	1.377266E+0	1.356590E+0	1.293352E+0	1.318315E+0	1.394024E+0	1.303371E+0	1.276994E+0	1.359650E+0	1.333398E+0	1.350987E+0	1.380564E+0	1.295643E+0	1.323828E+0	1.343290E+0	1.354544E+0	1.309415E+0	1.408734E+0	1.288944E+0	1.385714E+0	1.318344E+0	1.338095E+0	1.310487E+0	1.335582E+0	1.341007E+0	1.322466E+0	1.362211E+0	1.350173E+0	1.280959E+0	1.297683E+0
5.527650E+2	1.272135E+0	1.308108E+0	1.315685E+0	1.302411E+0	1.289805E+0	1.300334E+0	1.275576E+0	1.243365E+0	1.313924E+0	1.300919E+0	1.311805E+0	1.313313E+0	1.341128E+0	1.299751E+0	1.304018E+0	1.302658E+0	1.293695E+0	1.312531E+0	1.308790E+0	1.327164E+0	1.299116E+0	1.363953E+0	1.315861E+0	1.249428E+0	1.321423E+0	1.292605E+0	1.321924E+0	1.275450E+0	1.301472E+0	1.350097E+0	1.307861E+0	1.356560E+0	1.206309E+0	1.237762E+0	1.311233E+0	1.265972E+0	1.291874E+0	1.249982E+0	1.271973E+0	1.292001E+0	1.353709E+0	1.311449E+0	1.317162E+0	1.288484E+0	1.292447E+0	1.319423E+0	1.325120E+0	1.335637E+0	1.269026E+0	1.295159E+0	1.324425E+0	1.188489E+0	1.340862E+0	1.326583E+0	1.299228E+0	1.284900E+0	1.293665E+0	1.276294E+0	1.285733E+0	1.337199E+0	1.355954E+0	1.270079E+0	1.254861E+0	1.317524E+0	1.350457E+0	1.350541E+0	1.302762E+0	1.317741E+0	1.359122E+0	1.313743E+0	1.255661E+0	1.282963E+0	1.385991E+0	1.357962E+0	1.239383E+0	1.398938E+0	1.313875E+0	1.313960E+0	1.295137E+0	1.257800E+0	1.304553E+0	1.246450E+0	1.270258E+0	1.349531E+0	1.285981E+0	1.272099E+0	1.263104E+0	1.311505E+0	1.264277E+0	1.288846E+0	1.249425E+0	1.267125E+0	1.357992E+0	1.238485E+0	1.276841E+0	1.311388E+0	1.285091E+0	1.281831E+0	1.276955E+0	1.304332E+0	1.303764E+0	1.267036E+0	1.276274E+0	1.359364E+0	1.342634E+0	1.275962E+0	1.310717E+0	1.255450E+0	1.282615E+0	1.256696E+0	1.310234E+0	1.332716E+0	1.249846E+0	1.282287E+0	1.289343E+0	1.320122E+0	1.337892E+0	1.268574E+0	1.271922E+0	1.282992E+0	1.306901E+0	1.324142E+0	1.337553E+0	1.328947E+0	1.317281E+0	1.252027E+0	1.352279E+0	1.274204E+0	1.340462E+0	1.261251E+0	1.270935E+0	1.336637E+0	1.322224E+0	1.291883E+0	1.278614E+0	1.290430E+0	1.301402E+0	1.235043E+0	1.255274E+0	1.326721E+0	1.284887E+0	1.289465E+0	1.334464E+0	1.279261E+0	1.334537E+0	1.313490E+0	1.282648E+0	1.256194E+0	1.324814E+0	1.237076E+0	1.267819E+0	1.316706E+0	1.320877E+0	1.281330E+0	1.317441E+0	1.306613E+0	1.239617E+0	1.304432E+0	1.296774E+0	1.329172E+0	1.340520E+0	1.360464E+0	1.345558E+0	1.324202E+0	1.229622E+0
5.535550E+2	1.295753E+0	1.212607E+0	1.283893E+0	1.222660E+0	1.241106E+0	1.241252E+0	1.253416E+0	1.218908E+0	1.275782E+0	1.223052E+0	1.221128E+0	1.278924E+0	1.207314E+0	1.271594E+0	1.285029E+0	1.249471E+0	1.260113E+0	1.252968E+0	1.263166E+0	1.232426E+0	1.223185E+0	1.221861E+0	1.209983E+0	1.193111E+0	1.338791E+0	1.299405E+0	1.255547E+0	1.228301E+0	1.246252E+0	1.211470E+0	1.285572E+0	1.241464E+0	1.227984E+0	1.193146E+0	1.297178E+0	1.265120E+0	1.247872E+0	1.283744E+0	1.265155E+0	1.236563E+0	1.282592E+0	1.279230E+0	1.238622E+0	1.237287E+0	1.255395E+0	1.239100E+0	1.230154E+0	1.250559E+0	1.231042E+0	1.193066E+0	1.267542E+0	1.162199E+0	1.255740E+0	1.247411E+0	1.248967E+0	1.215076E+0	1.277692E+0	1.247182E+0	1.282549E+0	1.290113E+0	1.243642E+0	1.247696E+0	1.189054E+0	1.212256E+0	1.247279E+0	1.269867E+0	1.238076E+0	1.184870E+0	1.258316E+0	1.192796E+0	1.200443E+0	1.279010E+0	1.262642E+0	1.231340E+0	1.203374E+0	1.254886E+0	1.249532E+0	1.213378E+0	1.241568E+0	1.274017E+0	1.303109E+0	1.216174E+0	1.209803E+0	1.220083E+0	1.247229E+0	1.223814E+0	1.200099E+0	1.216321E+0	1.320067E+0	1.251534E+0	1.228066E+0	1.172965E+0	1.216988E+0	1.148457E+0	1.252463E+0	1.241775E+0	1.222327E+0	1.232118E+0	1.230739E+0	1.259982E+0	1.246760E+0	1.266488E+0	1.235328E+0	1.192241E+0	1.242863E+0	1.298442E+0	1.243485E+0	1.229537E+0	1.221194E+0	1.227107E+0	1.206050E+0	1.213099E+0	1.257530E+0	1.227211E+0	1.230254E+0	1.246587E+0	1.304493E+0	1.232826E+0	1.229832E+0	1.270535E+0	1.220681E+0	1.265932E+0	1.231442E+0	1.219174E+0	1.257926E+0	1.221568E+0	1.250244E+0	1.215599E+0	1.281634E+0	1.204493E+0	1.172321E+0	1.204235E+0	1.253084E+0	1.275026E+0	1.238946E+0	1.227476E+0	1.268895E+0	1.215591E+0	1.216602E+0	1.249233E+0	1.304027E+0	1.271377E+0	1.273056E+0	1.223744E+0	1.298767E+0	1.204502E+0	1.221128E+0	1.250562E+0	1.251902E+0	1.286900E+0	1.223929E+0	1.226415E+0	1.287541E+0	1.223830E+0	1.242923E+0	1.242521E+0	1.274954E+0	1.244207E+0	1.231278E+0	1.291935E+0	1.262568E+0	1.193955E+0	1.290326E+0	1.279741E+0	1.307251E+0
5.542640E+2	1.221894E+0	1.099261E+0	1.170719E+0	1.119274E+0	1.195000E+0	1.198095E+0	1.147503E+0	1.179492E+0	1.165569E+0	1.170448E+0	1.160509E+0	1.194473E+0	1.168923E+0	1.166312E+0	1.206263E+0	1.185044E+0	1.167030E+0	1.146091E+0	1.132727E+0	1.171432E+0	1.209436E+0	1.166468E+0	1.161201E+0	1.198418E+0	1.134915E+0	1.204851E+0	1.139714E+0	1.215999E+0	1.157343E+0	1.153118E+0	1.239487E+0	1.134557E+0	1.154528E+0	1.170666E+0	1.190835E+0	1.170349E+0	1.125458E+0	1.122880E+0	1.187108E+0	1.148431E+0	1.157525E+0	1.180504E+0	1.165360E+0	1.160494E+0	1.166681E+0	1.202160E+0	1.179310E+0	1.134298E+0	1.140891E+0	1.151404E+0	1.160885E+0	1.142815E+0	1.174475E+0	1.216995E+0	1.188689E+0	1.174826E+0	1.188307E+0	1.161229E+0	1.175056E+0	1.261888E+0	1.151669E+0	1.204974E+0	1.163230E+0	1.164400E+0	1.169954E+0	1.202914E+0	1.153020E+0	1.141820E+0	1.202911E+0	1.145703E+0	1.188506E+0	1.181204E+0	1.195921E+0	1.206549E+0	1.184771E+0	1.179606E+0	1.156930E+0	1.161823E+0	1.198795E+0	1.176363E+0	1.169949E+0	1.171531E+0	1.200564E+0	1.170295E+0	1.212971E+0	1.148780E+0	1.148738E+0	1.112025E+0	1.190084E+0	1.157791E+0	1.143406E+0	1.103390E+0	1.180708E+0	1.198766E+0	1.151696E+0	1.156743E+0	1.180647E+0	1.167896E+0	1.145947E+0	1.152786E+0	1.223565E+0	1.184721E+0	1.174081E+0	1.190259E+0	1.162062E+0	1.144893E+0	1.187911E+0	1.128146E+0	1.174034E+0	1.161521E+0	1.111735E+0	1.146023E+0	1.190291E+0	1.196837E+0	1.122799E+0	1.202798E+0	1.146361E+0	1.143488E+0	1.153761E+0	1.157003E+0	1.224273E+0	1.185348E+0	1.175375E+0	1.206370E+0	1.177654E+0	1.101354E+0	1.194172E+0	1.142091E+0	1.194899E+0	1.140905E+0	1.185530E+0	1.218775E+0	1.181352E+0	1.165934E+0	1.192303E+0	1.200756E+0	1.180400E+0	1.166343E+0	1.168537E+0	1.148800E+0	1.206475E+0	1.193954E+0	1.184315E+0	1.171382E+0	1.262912E+0	1.154575E+0	1.174566E+0	1.144420E+0	1.147155E+0	1.173710E+0	1.153219E+0	1.134082E+0	1.118873E+0	1.188242E+0	1.219229E+0	1.182082E+0	1.190544E+0	1.153614E+0	1.149248E+0	1.193166E+0	1.195171E+0	1.166340E+0	1.192850E+0	1.259639E+0	1.259208E+0
5.550360E+2	1.083328E+0	1.068148E+0	1.138806E+0	1.070590E+0	1.118370E+0	1.080135E+0	1.087731E+0	1.090935E+0	1.095263E+0	1.069476E+0	1.090688E+0	1.047370E+0	1.071374E+0	1.090643E+0	1.075044E+0	1.084745E+0	1.082727E+0	1.059575E+0	1.061247E+0	1.009030E+0	1.066499E+0	1.034070E+0	1.065102E+0	1.044254E+0	1.059525E+0	1.061023E+0	1.058681E+0	1.091233E+0	1.089111E+0	1.093388E+0	1.064796E+0	1.089346E+0	1.069261E+0	1.034927E+0	1.073851E+0	1.048873E+0	1.058809E+0	1.092675E+0	1.053019E+0	1.089732E+0	1.071183E+0	1.057173E+0	1.144549E+0	1.112466E+0	1.044695E+0	1.081388E+0	1.071352E+0	1.018177E+0	1.102019E+0	1.125104E+0	1.040872E+0	1.119691E+0	1.070381E+0	1.068925E+0	1.063564E+0	1.066693E+0	1.069241E+0	1.024360E+0	1.081085E+0	1.065925E+0	1.048510E+0	1.089061E+0	1.045138E+0	1.051515E+0	1.146803E+0	1.148192E+0	1.089572E+0	1.058144E+0	1.129521E+0	1.096053E+0	1.099121E+0	1.077011E+0	1.030745E+0	1.076243E+0	1.057837E+0	1.127339E+0	1.036894E+0	1.056809E+0	1.082970E+0	1.071006E+0	1.101906E+0	1.075682E+0	1.076883E+0	1.083162E+0	1.100349E+0	1.010462E+0	1.104452E+0	1.100687E+0	1.132132E+0	1.010816E+0	1.036566E+0	1.082797E+0	1.091947E+0	1.064319E+0	1.044703E+0	1.059185E+0	1.105029E+0	1.085980E+0	1.067033E+0	1.129938E+0	1.120605E+0	1.063943E+0	1.071740E+0	1.135130E+0	1.071795E+0	1.072338E+0	1.087662E+0	1.056325E+0	1.085557E+0	1.038174E+0	1.039676E+0	1.089728E+0	1.052818E+0	1.051335E+0	1.028518E+0	1.109283E+0	1.099902E+0	1.045443E+0	1.024563E+0	1.075949E+0	1.074796E+0	1.094378E+0	1.101770E+0	1.120372E+0	1.086717E+0	1.057502E+0	1.107320E+0	1.024767E+0	1.075296E+0	1.073447E+0	1.091723E+0	1.098071E+0	1.062094E+0	1.065486E+0	1.064909E+0	1.040960E+0	1.053380E+0	1.079257E+0	1.052687E+0	1.084861E+0	1.121519E+0	1.092880E+0	1.084738E+0	1.110818E+0	1.104528E+0	1.109004E+0	1.046476E+0	1.158468E+0	1.136786E+0	1.059244E+0	1.068126E+0	1.070998E+0	1.112084E+0	1.068897E+0	1.050753E+0	1.110659E+0	1.118750E+0	1.074515E+0	1.049963E+0	1.073573E+0	1.097156E+0	1.023915E+0	1.035429E+0	1.042000E+0	1.091149E+0
5.557600E+2	1.003910E+0	1.009817E+0	9.553184E-1	1.018629E+0	1.011288E+0	1.025108E+0	9.880730E-1	1.004777E+0	9.614580E-1	9.608540E-1	9.615671E-1	1.011684E+0	1.013119E+0	9.689062E-1	9.875295E-1	9.629343E-1	9.696280E-1	9.779013E-1	9.752982E-1	1.041303E+0	9.888107E-1	1.032330E+0	9.928529E-1	9.662368E-1	1.026274E+0	1.039219E+0	1.012721E+0	1.016426E+0	9.317099E-1	9.847112E-1	9.811895E-1	1.005622E+0	9.579182E-1	1.014397E+0	1.023870E+0	1.027497E+0	9.397879E-1	9.800335E-1	9.714489E-1	9.959732E-1	1.027635E+0	9.915554E-1	1.024221E+0	1.002573E+0	1.003019E+0	9.669569E-1	9.831787E-1	9.797400E-1	1.002587E+0	9.939906E-1	1.072627E+0	1.025012E+0	1.033857E+0	1.002821E+0	1.041750E+0	9.925813E-1	1.021621E+0	9.717523E-1	1.003907E+0	1.021223E+0	9.935149E-1	9.782454E-1	9.735720E-1	9.894401E-1	9.954359E-1	9.932374E-1	9.831053E-1	1.025046E+0	1.013791E+0	9.708845E-1	1.013885E+0	1.033740E+0	1.017066E+0	9.678061E-1	1.022905E+0	1.018763E+0	1.002575E+0	1.029382E+0	9.734790E-1	1.002287E+0	9.969067E-1	9.774067E-1	9.847700E-1	9.822719E-1	9.785897E-1	1.020639E+0	9.580839E-1	1.007121E+0	1.003847E+0	1.002351E+0	1.000393E+0	1.018660E+0	1.012790E+0	1.007816E+0	1.007070E+0	1.031587E+0	9.992181E-1	9.599195E-1	9.902870E-1	1.010827E+0	1.012399E+0	9.985350E-1	9.862462E-1	9.678679E-1	9.870829E-1	9.783704E-1	1.004662E+0	1.003284E+0	1.015552E+0	1.028855E+0	1.008264E+0	9.642105E-1	1.001779E+0	1.007600E+0	1.003381E+0	9.950426E-1	1.001767E+0	9.670342E-1	9.639267E-1	1.011129E+0	1.004370E+0	1.018062E+0	1.024558E+0	1.052037E+0	9.739456E-1	1.020502E+0	1.014196E+0	9.934626E-1	9.938929E-1	9.511720E-1	9.448841E-1	1.025915E+0	1.016507E+0	1.017798E+0	9.506458E-1	9.883705E-1	1.011449E+0	9.743246E-1	9.402162E-1	1.004158E+0	1.004295E+0	1.009501E+0	9.589845E-1	1.025214E+0	1.037128E+0	1.013706E+0	9.777970E-1	9.438282E-1	1.069499E+0	9.950285E-1	1.006066E+0	9.478457E-1	9.946317E-1	1.009799E+0	1.007511E+0	9.840437E-1	1.034335E+0	9.934497E-1	9.823354E-1	1.026005E+0	9.822549E-1	9.928800E-1	1.062637E+0	9.327659E-1	1.019400E+0
5.560190E+2	1.032294E+0	9.579155E-1	1.013308E+0	1.049171E+0	9.539499E-1	1.030530E+0	1.088893E+0	1.010667E+0	1.022232E+0	1.009733E+0	9.625197E-1	9.656694E-1	9.997078E-1	1.019078E+0	9.793883E-1	1.009477E+0	9.711114E-1	1.006350E+0	1.060373E+0	1.022325E+0	9.565212E-1	9.757335E-1	9.354014E-1	9.683633E-1	9.647385E-1	1.024324E+0	9.824417E-1	1.025403E+0	9.981549E-1	1.009941E+0	9.938188E-1	9.605683E-1	9.732402E-1	1.003007E+0	1.005182E+0	9.785984E-1	9.711303E-1	9.615248E-1	9.918240E-1	9.914486E-1	1.025256E+0	1.015140E+0	1.012907E+0	1.002771E+0	9.664828E-1	1.047420E+0	9.970944E-1	1.005309E+0	1.030997E+0	9.959786E-1	1.024589E+0	9.829611E-1	9.924780E-1	1.003822E+0	1.017590E+0	1.021886E+0	9.607029E-1	9.669709E-1	1.005174E+0	1.041824E+0	9.907499E-1	9.958026E-1	1.021596E+0	9.886758E-1	1.030802E+0	1.064095E+0	9.723425E-1	1.043065E+0	9.738340E-1	9.949637E-1	9.948796E-1	1.003760E+0	1.009964E+0	1.038495E+0	9.629908E-1	1.043949E+0	1.004325E+0	9.799601E-1	9.393189E-1	9.480820E-1	1.017780E+0	1.022086E+0	9.815096E-1	9.554348E-1	1.018751E+0	9.457382E-1	9.751025E-1	1.065106E+0	9.659810E-1	9.760398E-1	1.000077E+0	1.012540E+0	9.890469E-1	9.542862E-1	9.794791E-1	1.012527E+0	9.761623E-1	1.013160E+0	9.720322E-1	1.005285E+0	9.736085E-1	1.033296E+0	1.047369E+0	9.862665E-1	1.020024E+0	1.048466E+0	9.885727E-1	1.046617E+0	1.008290E+0	1.025973E+0	1.017578E+0	1.010672E+0	9.710599E-1	9.798081E-1	9.997849E-1	9.936231E-1	1.011238E+0	9.745717E-1	9.827312E-1	9.890180E-1	1.009076E+0	1.019702E+0	9.708043E-1	1.056022E+0	1.003326E+0	1.006509E+0	9.884117E-1	9.756139E-1	9.463045E-1	1.052077E+0	1.014931E+0	1.010336E+0	9.961794E-1	1.022728E+0	9.724836E-1	9.750690E-1	9.778957E-1	9.747224E-1	9.484733E-1	1.004087E+0	1.082923E+0	9.781141E-1	1.006273E+0	1.025383E+0	9.985403E-1	9.998268E-1	1.012002E+0	1.010731E+0	9.597675E-1	9.846726E-1	9.809727E-1	9.742397E-1	1.071897E+0	9.593105E-1	1.049324E+0	1.004435E+0	9.833500E-1	9.807889E-1	1.002818E+0	1.023991E+0	9.728282E-1	1.022831E+0	1.028691E+0	1.042396E+0	9.747938E-1
5.565030E+2	9.916999E-1	9.320048E-1	9.509897E-1	1.008706E+0	9.377830E-1	9.826660E-1	1.005448E+0	9.835493E-1	9.801840E-1	9.630239E-1	9.493135E-1	9.767448E-1	1.006640E+0	1.003664E+0	9.642508E-1	1.007924E+0	9.810101E-1	9.619670E-1	1.007654E+0	9.243290E-1	9.855467E-1	9.993456E-1	1.028783E+0	1.031389E+0	9.978508E-1	9.884082E-1	9.678716E-1	1.005770E+0	1.032826E+0	1.015516E+0	9.896505E-1	1.029463E+0	1.043737E+0	1.010966E+0	1.002668E+0	9.355210E-1	9.819491E-1	9.991239E-1	9.991803E-1	9.816386E-1	1.035634E+0	1.005598E+0	1.012097E+0	9.709779E-1	9.520827E-1	9.894029E-1	9.463520E-1	9.964842E-1	9.631067E-1	1.019974E+0	9.900246E-1	9.618489E-1	1.006537E+0	9.828289E-1	9.909635E-1	9.733032E-1	9.891889E-1	1.005250E+0	1.006924E+0	1.026758E+0	1.007982E+0	9.958777E-1	1.005654E+0	9.684780E-1	9.789500E-1	1.000617E+0	9.853556E-1	1.020521E+0	9.956399E-1	9.969313E-1	9.947497E-1	1.001741E+0	9.772301E-1	9.570650E-1	9.937343E-1	1.015266E+0	9.514328E-1	9.838075E-1	9.812898E-1	9.835137E-1	1.044294E+0	9.886960E-1	1.014993E+0	9.565606E-1	9.651548E-1	9.609025E-1	9.961919E-1	1.002418E+0	9.980512E-1	1.055254E+0	1.025306E+0	9.602625E-1	9.956704E-1	9.811285E-1	9.845415E-1	9.815752E-1	9.723333E-1	9.907440E-1	9.867874E-1	9.928243E-1	1.003411E+0	1.018261E+0	1.018303E+0	1.011738E+0	9.746517E-1	9.830687E-1	1.000680E+0	1.029692E+0	9.870669E-1	1.001478E+0	9.587080E-1	1.006645E+0	1.002429E+0	9.323354E-1	9.714982E-1	1.014739E+0	9.938024E-1	9.961899E-1	1.015289E+0	9.823557E-1	9.799747E-1	9.699831E-1	9.850878E-1	9.697494E-1	1.004667E+0	9.981278E-1	9.865908E-1	9.550378E-1	9.644963E-1	9.731367E-1	1.013187E+0	1.006315E+0	9.888120E-1	9.723263E-1	9.797593E-1	1.025188E+0	1.006992E+0	9.703913E-1	9.928099E-1	9.861574E-1	9.744978E-1	9.782702E-1	1.001858E+0	1.008930E+0	9.703634E-1	1.035694E+0	9.878040E-1	9.628325E-1	1.010151E+0	9.888293E-1	1.002463E+0	9.919216E-1	9.905097E-1	9.870327E-1	9.596829E-1	9.854253E-1	9.498131E-1	1.013813E+0	9.995629E-1	9.865809E-1	9.583599E-1	1.033755E+0	9.741059E-1	1.000698E+0	1.046757E+0
5.570440E+2	1.038436E+0	1.001518E+0	1.008366E+0	1.016814E+0	1.044860E+0	9.907240E-1	1.034317E+0	1.028742E+0	1.001627E+0	9.774584E-1	9.951660E-1	1.021453E+0	9.835446E-1	9.986017E-1	1.030643E+0	9.576551E-1	9.830195E-1	1.051581E+0	9.827672E-1	9.867171E-1	1.001377E+0	9.735705E-1	1.006507E+0	1.047813E+0	9.880479E-1	1.024452E+0	1.003597E+0	9.941051E-1	9.984276E-1	9.985225E-1	9.527253E-1	1.008229E+0	1.016653E+0	9.832942E-1	1.008512E+0	1.017368E+0	9.993415E-1	9.742183E-1	9.816475E-1	1.016504E+0	9.923886E-1	1.038224E+0	1.016501E+0	1.014848E+0	1.005052E+0	9.274315E-1	9.967764E-1	1.032383E+0	1.047067E+0	1.019368E+0	9.589991E-1	1.003825E+0	9.936825E-1	1.042456E+0	9.619551E-1	1.004238E+0	9.785912E-1	9.672808E-1	1.017836E+0	9.964009E-1	9.587265E-1	1.011665E+0	9.710322E-1	1.023977E+0	1.012570E+0	1.022635E+0	9.327996E-1	1.017929E+0	9.760247E-1	1.024390E+0	1.012694E+0	9.796713E-1	1.037077E+0	1.053060E+0	9.630735E-1	1.009560E+0	1.006650E+0	9.300822E-1	1.056766E+0	9.976325E-1	9.850829E-1	1.004936E+0	9.867746E-1	9.929366E-1	9.941841E-1	9.654781E-1	9.719213E-1	9.660606E-1	1.005335E+0	9.882548E-1	1.033038E+0	9.629980E-1	1.004095E+0	1.014266E+0	9.843580E-1	1.026392E+0	1.016546E+0	9.458476E-1	1.034162E+0	1.012706E+0	9.791386E-1	1.031207E+0	9.755778E-1	1.015262E+0	1.015858E+0	1.004404E+0	9.724772E-1	9.973527E-1	1.000403E+0	9.774085E-1	9.542691E-1	1.019199E+0	1.011422E+0	9.960359E-1	9.970302E-1	1.003242E+0	1.022480E+0	9.702320E-1	1.004417E+0	1.020976E+0	1.016443E+0	9.754029E-1	1.005181E+0	1.019271E+0	9.376109E-1	1.023188E+0	9.906390E-1	1.009325E+0	1.040732E+0	1.003651E+0	9.760305E-1	1.023058E+0	1.012598E+0	9.553059E-1	1.018329E+0	1.018337E+0	9.519137E-1	1.021083E+0	1.002300E+0	9.706968E-1	9.784819E-1	9.995191E-1	9.428029E-1	9.348630E-1	1.004548E+0	9.889021E-1	9.689335E-1	1.002563E+0	9.777963E-1	1.009562E+0	9.473438E-1	9.921380E-1	9.783006E-1	9.868929E-1	9.990058E-1	9.849549E-1	9.931972E-1	1.032220E+0	9.769696E-1	1.039018E+0	1.004749E+0	1.005008E+0	9.639000E-1	1.024862E+0	1.007007E+0
5.575190E+2	1.053000E+0	9.835654E-1	9.952198E-1	9.463639E-1	9.576392E-1	9.942359E-1	1.013546E+0	1.012180E+0	9.845189E-1	1.011423E+0	9.661228E-1	9.866621E-1	1.044162E+0	1.032379E+0	9.458432E-1	9.807012E-1	9.711938E-1	9.844680E-1	9.938590E-1	9.795516E-1	1.042879E+0	9.623738E-1	9.591116E-1	1.012700E+0	9.862267E-1	9.956666E-1	9.517081E-1	1.010997E+0	9.508078E-1	1.020782E+0	9.741624E-1	1.007325E+0	9.634475E-1	9.932507E-1	1.026170E+0	9.770424E-1	1.009091E+0	9.924061E-1	9.878543E-1	9.932266E-1	9.678184E-1	1.006434E+0	9.729901E-1	1.019315E+0	9.772873E-1	1.044216E+0	9.886183E-1	9.568799E-1	1.011126E+0	9.972301E-1	1.000862E+0	1.041499E+0	1.005409E+0	9.763487E-1	1.013726E+0	9.939690E-1	1.026570E+0	9.813441E-1	1.018016E+0	1.031605E+0	9.867333E-1	1.023623E+0	1.008121E+0	9.819747E-1	9.799902E-1	1.024436E+0	1.006079E+0	1.008509E+0	1.040912E+0	1.016567E+0	9.844807E-1	1.027987E+0	1.016078E+0	1.020549E+0	1.004217E+0	1.013545E+0	9.803734E-1	9.977188E-1	9.809545E-1	1.023605E+0	9.977836E-1	9.897816E-1	1.005167E+0	1.034348E+0	9.968415E-1	9.673676E-1	9.993690E-1	9.836966E-1	9.809541E-1	9.942701E-1	9.475434E-1	1.020621E+0	1.011303E+0	1.027842E+0	9.642310E-1	9.655176E-1	1.002713E+0	9.985935E-1	9.540102E-1	9.552457E-1	1.011804E+0	9.658628E-1	9.870395E-1	1.003959E+0	9.700740E-1	1.005671E+0	1.065523E+0	9.851574E-1	1.006841E+0	9.597199E-1	9.729861E-1	9.846868E-1	9.644164E-1	9.985399E-1	1.025609E+0	9.673865E-1	9.862811E-1	1.018727E+0	9.816080E-1	9.853662E-1	1.022055E+0	9.931015E-1	9.955185E-1	9.832911E-1	9.988653E-1	9.581219E-1	9.501902E-1	1.000783E+0	1.003240E+0	1.033488E+0	1.007401E+0	1.042826E+0	1.007768E+0	9.717709E-1	9.930565E-1	9.296073E-1	9.841292E-1	1.001858E+0	9.990754E-1	9.621465E-1	9.869149E-1	1.033497E+0	1.004297E+0	1.019721E+0	1.030158E+0	1.004184E+0	9.859803E-1	1.016233E+0	1.024845E+0	9.584993E-1	9.661846E-1	9.695439E-1	9.976982E-1	9.526186E-1	9.826299E-1	9.699650E-1	1.014473E+0	1.024940E+0	9.995878E-1	9.612237E-1	1.025461E+0	1.049559E+0	1.010807E+0	9.558461E-1	9.556055E-1
5.580230E+2	1.028204E+0	1.029792E+0	1.005756E+0	1.002426E+0	1.007790E+0	9.909149E-1	9.388514E-1	9.898823E-1	1.025244E+0	1.025594E+0	1.002362E+0	9.808553E-1	9.884989E-1	1.001252E+0	1.033460E+0	1.009205E+0	1.055189E+0	1.053478E+0	9.970116E-1	1.014738E+0	1.026885E+0	1.036233E+0	1.054227E+0	1.015893E+0	1.027780E+0	1.035530E+0	1.047054E+0	1.012496E+0	1.059051E+0	1.008502E+0	1.010535E+0	1.045775E+0	1.009426E+0	1.041532E+0	9.882635E-1	1.031934E+0	1.027769E+0	1.032858E+0	9.952458E-1	1.032272E+0	1.006145E+0	9.955527E-1	1.037765E+0	9.993960E-1	1.035529E+0	1.002126E+0	1.034424E+0	9.993098E-1	1.022766E+0	9.835363E-1	1.026646E+0	9.746749E-1	1.014833E+0	9.891588E-1	9.985601E-1	1.010415E+0	9.627934E-1	1.009764E+0	1.025838E+0	1.027353E+0	1.019168E+0	1.000646E+0	1.019058E+0	1.031200E+0	1.002898E+0	1.041207E+0	1.038778E+0	9.700567E-1	1.007255E+0	9.774073E-1	1.013885E+0	1.032547E+0	1.020181E+0	1.008072E+0	1.006244E+0	1.022438E+0	1.054850E+0	1.029965E+0	1.015774E+0	9.814845E-1	9.949013E-1	1.047771E+0	1.039532E+0	1.044085E+0	1.044208E+0	1.018873E+0	1.027001E+0	1.017233E+0	1.011879E+0	1.051763E+0	1.009067E+0	9.850914E-1	1.006006E+0	1.067224E+0	1.019205E+0	1.055095E+0	1.038166E+0	1.015809E+0	1.004808E+0	1.019949E+0	1.038429E+0	1.003171E+0	1.045023E+0	9.933177E-1	1.004328E+0	9.864167E-1	1.025735E+0	9.903295E-1	1.055860E+0	9.961164E-1	1.033497E+0	1.021783E+0	1.013150E+0	1.085590E+0	1.053172E+0	9.946784E-1	1.020496E+0	9.981416E-1	1.005713E+0	1.044421E+0	9.613724E-1	1.030071E+0	1.036230E+0	9.976945E-1	1.019380E+0	1.031677E+0	1.005518E+0	1.029313E+0	1.017034E+0	1.032107E+0	1.028090E+0	1.040530E+0	1.028506E+0	1.071840E+0	1.031559E+0	1.034088E+0	1.009044E+0	1.035833E+0	1.008126E+0	1.046694E+0	1.032098E+0	1.001665E+0	1.051658E+0	9.944383E-1	1.012574E+0	1.021946E+0	1.025469E+0	1.010543E+0	1.005534E+0	1.026648E+0	1.031304E+0	1.018364E+0	9.972352E-1	1.073746E+0	1.066451E+0	1.010139E+0	9.908765E-1	9.781499E-1	1.015924E+0	1.028788E+0	9.831004E-1	1.005859E+0	1.014773E+0	1.066990E+0	9.565521E-1
5.585220E+2	1.013678E+0	1.021745E+0	1.003354E+0	1.039063E+0	1.049374E+0	1.018810E+0	1.034965E+0	1.020941E+0	1.019938E+0	9.765530E-1	1.051071E+0	1.024845E+0	1.018772E+0	9.936538E-1	9.851033E-1	1.034256E+0	1.047010E+0	1.036873E+0	1.031304E+0	1.035290E+0	1.033747E+0	1.048685E+0	9.957099E-1	1.000808E+0	1.008462E+0	1.001352E+0	1.019522E+0	9.840781E-1	1.048445E+0	1.050335E+0	9.925320E-1	1.035500E+0	1.014336E+0	1.031510E+0	1.002091E+0	1.023067E+0	1.014971E+0	9.632879E-1	1.024043E+0	1.034363E+0	1.006812E+0	9.746220E-1	9.971561E-1	9.647699E-1	1.017927E+0	1.000433E+0	1.040396E+0	9.979154E-1	1.034315E+0	1.022411E+0	1.002372E+0	9.929117E-1	9.909289E-1	1.036106E+0	1.031415E+0	1.026741E+0	1.009664E+0	1.055317E+0	1.017890E+0	1.014044E+0	1.053145E+0	9.963251E-1	9.870438E-1	1.026812E+0	1.036548E+0	1.023939E+0	1.050974E+0	1.005634E+0	1.009095E+0	1.031764E+0	1.024502E+0	9.882074E-1	1.009795E+0	1.034273E+0	1.039664E+0	9.689882E-1	1.007066E+0	1.049604E+0	1.045517E+0	1.052105E+0	9.926965E-1	9.969732E-1	1.033664E+0	1.014781E+0	1.043789E+0	1.049912E+0	1.005781E+0	1.044025E+0	1.008272E+0	1.014647E+0	9.944704E-1	1.043690E+0	9.902249E-1	9.958511E-1	1.024482E+0	9.687969E-1	1.035483E+0	1.019716E+0	9.894602E-1	1.033496E+0	1.000008E+0	1.042731E+0	9.899761E-1	9.952201E-1	1.029191E+0	9.935966E-1	1.004690E+0	1.004828E+0	1.028608E+0	1.047055E+0	1.040886E+0	1.021389E+0	1.025412E+0	1.004752E+0	9.689894E-1	1.051901E+0	1.024153E+0	1.032078E+0	1.004722E+0	1.066311E+0	1.002030E+0	1.029496E+0	1.017491E+0	1.020724E+0	1.018689E+0	1.041178E+0	1.020241E+0	1.020611E+0	9.595313E-1	1.007042E+0	1.044574E+0	1.000481E+0	1.027075E+0	1.057749E+0	9.983516E-1	1.043884E+0	1.009815E+0	1.054698E+0	1.009212E+0	1.052185E+0	1.031737E+0	1.031865E+0	1.024248E+0	1.024310E+0	1.008040E+0	9.880896E-1	1.087154E+0	1.056335E+0	1.003799E+0	1.002363E+0	1.071880E+0	1.042120E+0	1.035578E+0	1.026456E+0	1.030881E+0	9.903302E-1	1.051596E+0	1.041798E+0	9.988482E-1	1.050542E+0	9.833753E-1	1.005350E+0	1.072505E+0	1.022569E+0	1.016134E+0
5.590210E+2	9.744804E-1	9.947730E-1	1.043754E+0	9.785513E-1	1.003480E+0	9.497387E-1	9.757964E-1	9.689289E-1	9.853068E-1	9.872844E-1	1.005996E+0	1.019698E+0	9.615921E-1	9.742853E-1	1.011754E+0	9.873686E-1	9.811889E-1	1.012405E+0	9.729534E-1	1.009622E+0	9.486456E-1	9.895056E-1	9.896547E-1	9.747231E-1	9.551921E-1	9.639590E-1	9.740080E-1	9.743253E-1	9.839271E-1	9.413012E-1	9.404252E-1	1.014182E+0	1.003176E+0	9.617235E-1	9.451978E-1	9.449160E-1	1.005961E+0	9.903481E-1	9.789578E-1	9.421420E-1	1.024585E+0	1.005707E+0	1.001601E+0	1.004087E+0	9.727941E-1	9.927996E-1	9.798290E-1	9.711898E-1	9.244888E-1	1.001787E+0	9.687664E-1	9.572770E-1	9.966961E-1	9.789420E-1	9.801854E-1	9.465487E-1	9.862704E-1	9.538780E-1	1.005938E+0	9.616101E-1	9.879678E-1	1.007665E+0	9.669758E-1	9.799016E-1	9.632529E-1	9.487530E-1	1.020668E+0	9.826122E-1	1.002261E+0	9.975774E-1	1.007915E+0	9.456988E-1	1.005743E+0	9.691926E-1	9.751092E-1	9.832853E-1	9.660199E-1	9.753389E-1	1.013023E+0	9.961466E-1	9.897286E-1	1.003988E+0	1.000566E+0	9.898115E-1	9.878210E-1	9.584150E-1	9.865102E-1	9.672185E-1	9.865620E-1	9.678890E-1	9.965577E-1	1.015644E+0	9.865257E-1	9.575360E-1	9.983258E-1	9.700752E-1	9.918427E-1	1.011683E+0	9.784195E-1	1.002898E+0	9.595325E-1	9.717113E-1	9.723683E-1	1.012725E+0	1.004472E+0	9.896018E-1	9.652802E-1	9.875779E-1	9.583523E-1	9.624013E-1	1.014667E+0	9.919378E-1	9.936228E-1	9.397228E-1	9.811727E-1	9.879031E-1	9.910123E-1	9.773619E-1	9.878021E-1	9.779456E-1	9.682811E-1	9.700467E-1	9.498141E-1	9.715963E-1	9.697023E-1	9.739748E-1	9.993924E-1	1.012212E+0	9.443877E-1	9.879821E-1	1.010526E+0	9.661001E-1	9.945428E-1	9.870126E-1	9.918671E-1	9.535391E-1	1.027565E+0	9.944143E-1	1.014451E+0	9.944245E-1	1.003065E+0	9.684226E-1	1.005119E+0	1.025791E+0	9.620127E-1	1.023646E+0	9.871489E-1	9.527722E-1	1.007051E+0	9.600398E-1	9.887195E-1	9.868144E-1	1.015344E+0	9.992393E-1	9.863505E-1	9.990117E-1	9.806256E-1	9.417607E-1	9.539181E-1	9.340723E-1	1.024198E+0	9.934682E-1	9.344779E-1	9.553182E-1	9.452043E-1
5.595050E+2	9.575397E-1	9.880550E-1	1.012481E+0	1.029604E+0	9.809629E-1	1.020316E+0	9.665026E-1	9.993972E-1	9.619653E-1	1.064934E+0	1.006960E+0	1.003184E+0	1.001469E+0	9.820814E-1	1.034646E+0	1.040897E+0	1.032187E+0	9.414099E-1	9.992793E-1	9.832600E-1	1.018707E+0	9.854768E-1	9.840692E-1	9.936053E-1	9.710173E-1	9.858084E-1	1.003567E+0	1.017080E+0	9.878994E-1	9.909204E-1	1.032957E+0	9.708073E-1	9.617609E-1	1.009063E+0	9.966093E-1	1.046613E+0	9.866700E-1	1.048987E+0	1.003792E+0	9.882279E-1	1.016240E+0	9.831058E-1	9.951894E-1	9.820928E-1	1.003688E+0	1.003527E+0	9.992994E-1	1.023091E+0	9.813730E-1	9.998546E-1	9.569159E-1	9.781978E-1	9.613312E-1	1.025960E+0	1.006196E+0	1.004562E+0	9.725200E-1	9.824377E-1	1.005253E+0	9.591134E-1	1.011614E+0	9.934224E-1	1.004903E+0	9.932813E-1	9.887747E-1	1.010129E+0	9.576508E-1	9.556957E-1	9.804750E-1	9.862168E-1	9.959106E-1	1.007496E+0	9.619628E-1	1.013385E+0	9.719879E-1	9.909006E-1	1.034029E+0	1.015899E+0	9.766318E-1	9.827625E-1	9.915687E-1	9.729851E-1	9.440269E-1	1.008614E+0	9.896742E-1	9.973959E-1	9.931157E-1	9.891529E-1	1.016184E+0	9.758447E-1	9.861574E-1	1.012722E+0	9.582325E-1	9.853947E-1	1.058944E+0	9.633942E-1	9.562049E-1	9.593633E-1	1.019139E+0	1.017830E+0	1.008234E+0	1.002229E+0	1.017859E+0	9.681720E-1	9.617560E-1	1.042466E+0	9.439210E-1	1.000662E+0	1.016193E+0	9.995630E-1	1.021420E+0	9.920714E-1	9.831389E-1	9.604232E-1	1.004638E+0	9.654636E-1	9.996848E-1	1.003892E+0	1.001271E+0	9.677378E-1	9.934084E-1	1.009642E+0	9.779853E-1	9.940543E-1	9.904463E-1	1.018501E+0	1.029189E+0	1.013371E+0	9.658354E-1	1.019006E+0	9.551518E-1	9.984809E-1	9.958332E-1	9.894871E-1	1.009565E+0	9.567860E-1	9.669714E-1	9.833300E-1	9.594775E-1	1.006542E+0	1.021012E+0	9.731999E-1	1.002382E+0	1.011191E+0	1.023660E+0	9.738615E-1	9.342185E-1	1.010183E+0	1.004571E+0	9.977829E-1	1.022019E+0	9.863005E-1	9.799324E-1	9.699605E-1	9.736041E-1	1.033064E+0	1.003472E+0	9.646051E-1	9.731352E-1	1.019853E+0	9.879658E-1	9.462628E-1	9.951911E-1	1.007820E+0	9.960232E-1
5.600410E+2	9.371447E-1	9.813562E-1	9.789176E-1	1.013335E+0	1.003745E+0	1.007796E+0	9.844455E-1	9.616959E-1	1.025812E+0	1.007828E+0	9.616883E-1	9.894477E-1	9.823396E-1	9.979846E-1	9.703434E-1	9.968452E-1	9.530033E-1	9.832704E-1	9.468812E-1	1.048319E+0	9.783706E-1	1.011627E+0	9.603981E-1	9.544962E-1	1.005766E+0	9.992829E-1	9.791131E-1	9.564461E-1	9.452013E-1	1.029914E+0	1.038791E+0	9.421689E-1	9.935566E-1	9.823939E-1	9.696127E-1	1.015796E+0	9.678508E-1	9.680332E-1	9.994991E-1	9.828787E-1	9.646576E-1	1.006965E+0	1.009802E+0	9.815869E-1	1.008619E+0	9.892042E-1	9.975133E-1	9.786597E-1	1.008849E+0	9.562439E-1	9.946346E-1	1.008496E+0	9.979389E-1	9.440785E-1	1.017685E+0	1.013947E+0	1.008801E+0	9.624918E-1	9.490713E-1	9.971973E-1	9.684603E-1	9.953431E-1	1.037741E+0	9.710435E-1	1.004780E+0	9.730222E-1	9.940882E-1	1.029167E+0	1.002698E+0	9.710002E-1	9.502322E-1	9.999344E-1	9.506248E-1	9.946327E-1	1.007669E+0	9.807593E-1	9.651499E-1	9.921468E-1	9.475445E-1	9.321833E-1	1.009514E+0	9.901319E-1	1.011885E+0	9.864677E-1	9.848267E-1	9.788956E-1	9.790049E-1	9.949046E-1	9.724474E-1	1.010562E+0	9.926357E-1	1.007135E+0	1.014781E+0	9.837215E-1	1.001436E+0	1.009836E+0	9.803923E-1	9.916342E-1	1.018375E+0	9.598898E-1	9.909561E-1	9.257803E-1	9.959665E-1	9.702387E-1	1.001411E+0	9.786098E-1	1.021377E+0	9.339636E-1	1.003942E+0	9.965703E-1	9.816915E-1	9.491362E-1	1.027248E+0	1.014353E+0	1.032954E+0	9.741680E-1	9.867826E-1	9.550803E-1	9.823900E-1	9.679288E-1	1.007064E+0	1.017660E+0	1.020144E+0	1.018160E+0	1.001029E+0	9.860280E-1	1.020717E+0	9.639523E-1	1.040372E+0	9.745676E-1	9.784282E-1	9.757607E-1	9.403124E-1	9.559017E-1	9.746321E-1	9.904467E-1	1.009900E+0	9.704213E-1	9.791396E-1	1.015056E+0	1.012827E+0	1.009511E+0	9.535997E-1	9.822713E-1	9.680377E-1	9.960390E-1	1.034472E+0	1.019444E+0	9.694292E-1	1.004419E+0	9.911403E-1	9.964979E-1	1.017320E+0	9.956716E-1	9.876150E-1	1.015095E+0	9.788823E-1	9.873941E-1	1.011963E+0	9.790426E-1	1.017297E+0	9.924550E-1	9.914574E-1	9.162951E-1	1.077469E+0
5.604980E+2	1.021917E+0	9.881432E-1	1.007703E+0	9.810533E-1	1.002941E+0	1.032340E+0	1.039184E+0	1.053760E+0	9.864252E-1	1.019437E+0	1.023635E+0	9.908700E-1	1.006015E+0	1.036149E+0	1.061008E+0	1.006137E+0	9.953830E-1	9.752805E-1	1.054570E+0	1.027862E+0	9.710302E-1	1.001066E+0	1.017721E+0	1.011744E+0	1.059287E+0	9.826858E-1	1.020903E+0	1.032064E+0	9.824695E-1	9.681383E-1	1.017489E+0	9.681535E-1	9.756748E-1	1.019744E+0	1.030477E+0	1.002198E+0	9.929018E-1	1.017820E+0	1.009064E+0	1.013900E+0	9.856411E-1	1.002476E+0	9.987524E-1	1.040740E+0	1.020317E+0	1.037110E+0	1.012547E+0	1.021594E+0	9.860898E-1	9.521124E-1	1.008706E+0	1.013096E+0	1.024553E+0	1.032538E+0	9.925406E-1	9.849609E-1	1.052632E+0	1.039082E+0	9.959860E-1	1.005832E+0	1.017344E+0	9.845888E-1	1.006908E+0	1.004059E+0	1.000392E+0	9.933579E-1	9.786553E-1	9.968908E-1	1.009159E+0	9.814137E-1	1.024880E+0	1.017130E+0	9.865152E-1	9.884019E-1	1.030728E+0	1.008044E+0	1.033974E+0	1.040370E+0	1.013748E+0	1.034267E+0	1.026156E+0	1.005264E+0	1.004647E+0	1.006285E+0	9.811007E-1	1.080535E+0	1.064641E+0	1.036719E+0	1.010192E+0	9.536602E-1	9.984249E-1	1.008410E+0	1.019886E+0	9.875439E-1	9.848043E-1	1.040102E+0	9.813837E-1	1.021822E+0	1.005320E+0	9.987632E-1	1.021226E+0	1.020844E+0	9.764794E-1	1.052641E+0	9.893842E-1	1.033726E+0	1.011814E+0	1.033546E+0	9.838484E-1	1.015582E+0	1.021391E+0	1.009574E+0	9.953001E-1	1.032785E+0	9.662814E-1	1.042417E+0	9.850554E-1	1.007236E+0	1.007021E+0	1.010881E+0	1.018624E+0	1.018996E+0	9.870423E-1	1.038159E+0	1.032764E+0	9.666666E-1	1.024050E+0	9.676970E-1	1.034487E+0	9.972872E-1	1.026466E+0	9.656078E-1	1.000579E+0	1.048094E+0	1.013059E+0	1.048866E+0	1.004198E+0	1.020665E+0	1.016012E+0	9.971985E-1	1.011515E+0	9.942725E-1	9.786319E-1	1.025540E+0	1.013683E+0	9.664332E-1	1.006196E+0	9.869262E-1	1.030861E+0	1.042887E+0	1.012325E+0	9.916775E-1	1.011554E+0	9.995146E-1	9.916897E-1	1.018844E+0	9.917874E-1	9.935721E-1	1.021944E+0	1.035638E+0	1.005808E+0	9.920831E-1	1.065111E+0	1.075296E+0	9.781877E-1
5.610070E+2	9.839015E-1	1.079047E+0	9.934598E-1	9.840843E-1	1.011425E+0	1.012458E+0	1.006943E+0	9.809239E-1	1.028979E+0	9.664647E-1	1.037685E+0	1.006241E+0	1.006968E+0	9.799486E-1	9.629478E-1	9.790102E-1	1.000815E+0	9.992679E-1	1.013721E+0	9.903109E-1	9.928117E-1	9.921161E-1	1.003819E+0	9.568269E-1	1.000369E+0	1.022855E+0	1.032657E+0	1.012639E+0	1.010946E+0	9.760689E-1	1.050733E+0	9.783964E-1	1.018232E+0	9.665228E-1	1.030400E+0	1.005546E+0	1.013495E+0	1.012917E+0	1.020716E+0	1.014846E+0	1.000078E+0	9.813146E-1	9.581456E-1	1.022186E+0	1.006705E+0	1.013749E+0	1.004244E+0	1.022493E+0	1.020817E+0	1.047482E+0	1.092073E+0	1.068174E+0	1.008089E+0	9.915836E-1	1.006773E+0	1.041316E+0	1.012969E+0	1.043154E+0	9.572492E-1	9.800859E-1	9.888589E-1	9.908435E-1	9.925629E-1	1.019272E+0	1.031844E+0	9.619029E-1	1.034951E+0	1.012986E+0	9.764786E-1	1.016732E+0	9.907514E-1	9.995868E-1	1.034793E+0	9.613689E-1	1.007573E+0	1.007213E+0	1.000455E+0	9.850679E-1	9.687512E-1	1.016301E+0	9.682739E-1	9.994724E-1	9.587449E-1	9.661107E-1	1.012399E+0	1.022225E+0	9.764635E-1	9.985725E-1	1.010123E+0	9.878544E-1	1.016799E+0	9.834261E-1	1.013277E+0	9.994922E-1	9.796729E-1	1.019216E+0	1.024936E+0	1.044788E+0	1.009519E+0	1.006397E+0	9.872605E-1	1.018202E+0	1.021407E+0	9.767267E-1	1.048875E+0	9.824392E-1	9.885024E-1	1.036891E+0	9.588854E-1	1.044105E+0	1.000485E+0	1.003579E+0	9.838618E-1	1.035463E+0	9.986562E-1	9.981016E-1	9.902517E-1	1.041061E+0	1.009767E+0	9.760766E-1	1.030747E+0	9.856013E-1	1.025507E+0	9.872995E-1	1.026846E+0	1.002537E+0	9.734719E-1	1.027698E+0	1.029884E+0	9.717324E-1	9.601448E-1	9.808419E-1	1.003973E+0	9.905130E-1	9.898211E-1	9.992575E-1	1.029471E+0	9.473067E-1	1.019397E+0	9.688992E-1	9.478508E-1	1.009777E+0	1.035404E+0	9.729451E-1	1.006922E+0	1.001205E+0	9.826245E-1	9.821676E-1	9.659618E-1	1.008969E+0	9.666209E-1	1.024622E+0	9.765293E-1	1.008868E+0	1.022091E+0	9.931694E-1	1.045276E+0	1.021747E+0	1.048147E+0	9.652424E-1	1.009686E+0	9.761993E-1	9.776712E-1	9.743056E-1	1.021060E+0
