Photon Energy (eV)	#1	#2	#3	#4	#5	#6	#7	#8	#9	#10	#11	#12	#13	#14	#15	#16	#17	#18	#19	#20	#21	#22	#23	#24	#25	#26	#27	#28	#29	#30	#31	#32	#33	#34	#35	#36	#37	#38	#39	#40	#41	#42	#43	#44	#45	#46	#47	#48	#49	#50	#51	#52	#53	#54	#55	#56	#57	#58	#59	#60	#61	#62	#63	#64	#65	#66	#67	#68	#69	#70	#71	#72	#73	#74	#75	#76	#77	#78	#79	#80	#81	#82	#83	#84	#85	#86	#87	#88	#89	#90	#91	#92	#93	#94	#95	#96	#97	#98	#99	#100	#101	#102	#103	#104	#105	#106	#107	#108	#109	#110	#111	#112	#113	#114	#115	#116	#117	#118	#119	#120	#121	#122	#123	#124	#125	#126	#127	#128	#129	#130	#131	#132	#133	#134	#135	#136	#137	#138	#139	#140	#141	#142	#143	#144	#145	#146	#147	#148	#149	#150	#151	#152	#153	#154	#155	#156	#157	#158	#159	#160	#161	#162	#163	#164	#165	
5.300520E+2	-1.064351E-2	-9.322126E-3	-1.092212E-2	-5.610031E-3	-1.361741E-2	-1.028899E-2	-5.230585E-3	-8.296135E-4	-7.976544E-3	-1.038502E-2	-5.335613E-3	-6.573568E-3	-6.690789E-3	-7.085419E-3	-1.486970E-3	-6.866499E-3	3.601660E-3	-1.139121E-2	1.327874E-3	-1.268530E-3	-3.104035E-3	4.442960E-3	-4.266117E-3	-6.740875E-3	-8.214979E-3	-1.395793E-2	-6.637949E-3	-9.779656E-3	-9.573856E-3	-5.081761E-3	-4.658331E-3	-3.846058E-4	-4.600385E-3	-5.906568E-3	-2.314276E-3	-8.620386E-3	-1.342269E-2	-6.293061E-3	-2.981772E-3	-7.271255E-3	-4.861233E-3	-2.365203E-2	-1.055805E-2	-6.207005E-3	-3.537004E-3	6.343024E-4	-7.285346E-3	-1.593578E-2	-9.501057E-3	-3.854142E-3	-1.053826E-2	-2.834836E-3	-9.522138E-3	-9.914095E-3	-1.026166E-2	-7.615543E-3	-2.579996E-3	-1.361477E-2	-1.268280E-2	-6.386515E-3	-1.296841E-2	-9.770141E-3	-1.290581E-2	-5.602526E-3	-8.210001E-3	-1.843859E-2	-1.153684E-2	-9.813774E-3	-8.756399E-3	-7.561353E-3	-5.300666E-3	-9.766310E-3	-7.489551E-3	-1.659211E-2	-3.325107E-3	-2.421482E-3	-9.250526E-3	-8.191843E-3	-2.694270E-3	-9.510684E-3	-8.550923E-3	-1.119517E-2	-9.093773E-3	-3.220394E-3	-5.768500E-3	-7.719088E-3	-4.249571E-3	-1.015513E-2	-8.255238E-3	-5.351901E-3	-5.281369E-3	-4.575850E-3	-6.658217E-3	-7.173464E-3	-2.512182E-3	-1.016098E-2	-1.173853E-2	-1.166634E-2	-8.011456E-3	-1.106400E-2	-7.874061E-3	-1.191683E-2	-5.442870E-3	-1.241939E-2	-1.115779E-2	-8.588027E-3	-7.609414E-3	-7.362794E-3	-1.127892E-2	-8.176202E-3	-5.239243E-3	-4.534043E-3	-1.276256E-2	2.904427E-3	-1.630932E-3	1.308224E-3	-4.922666E-3	-7.587670E-3	-1.185109E-2	-2.135356E-3	-2.568541E-3	-1.241563E-2	-3.656863E-3	-7.820304E-3	2.061769E-3	-1.517064E-3	-1.103733E-2	-1.431753E-2	-1.213431E-2	-2.318646E-3	-5.104796E-3	-7.423326E-3	-9.031382E-3	-1.362835E-2	-2.972600E-3	-5.881574E-3	-3.044738E-3	-1.254259E-2	-3.457110E-3	-1.253495E-2	-1.259442E-2	-8.501263E-3	-7.122484E-3	-8.502291E-3	-1.076751E-2	-9.151508E-3	-9.046743E-3	-1.383684E-2	-5.660991E-3	-5.119030E-3	-3.227329E-3	-3.410852E-3	-9.178050E-3	-1.143225E-2	-4.128552E-3	-4.764199E-3	-7.634693E-3	-8.007715E-3	-5.275705E-3	-4.342788E-3	-7.730050E-3	-8.745119E-3	-3.568516E-3	-8.671988E-3	-1.649446E-4
5.305180E+2	-7.168820E-3	1.430607E-3	-7.229020E-3	-1.631264E-3	-6.519495E-3	-1.475303E-2	-1.407968E-2	-1.051335E-2	-3.792721E-3	-4.166886E-3	-8.155005E-3	-1.460341E-3	1.295942E-3	-8.723911E-3	-7.058714E-3	-1.386925E-2	-1.143531E-2	-9.372386E-3	6.502606E-4	1.320240E-3	1.301329E-4	-9.811657E-3	-3.860529E-3	-6.288728E-3	-1.055670E-2	-2.913389E-3	-9.679467E-3	-7.482694E-3	-4.490602E-3	-8.907944E-3	-1.497476E-2	-1.028042E-2	-6.885030E-3	-9.578954E-3	-2.447809E-3	-1.235401E-2	-6.139177E-3	-1.223970E-2	-3.142632E-3	-6.320538E-3	3.588699E-3	-2.590352E-3	-1.321561E-2	5.378410E-3	-1.394389E-2	-2.698035E-3	-1.114695E-2	-6.299209E-3	-4.914879E-3	-7.495376E-3	-3.669464E-3	-1.626432E-2	-9.702285E-3	-8.978739E-3	4.399101E-3	-6.091356E-3	-3.394225E-3	4.745279E-4	-1.348810E-2	-1.333198E-3	-8.308769E-3	-1.206105E-2	-8.976959E-3	-2.819954E-3	-1.037997E-2	-2.614401E-4	-6.095709E-3	-6.690386E-3	-8.380087E-3	-7.162479E-3	-1.044867E-3	-7.124905E-3	-4.364699E-3	-7.311147E-3	-7.930863E-3	-9.592668E-3	-2.558330E-3	-7.247823E-3	-2.242130E-3	-1.092997E-2	-3.813076E-3	-3.669090E-3	-1.338148E-2	-8.417442E-3	-1.194403E-2	-3.749701E-3	-1.386046E-2	-7.999745E-3	-9.780126E-3	-3.677077E-3	-7.214698E-3	-9.949968E-3	-1.131459E-2	-3.197249E-3	-2.554542E-3	-5.985778E-3	-1.448786E-2	5.694422E-3	-3.382910E-4	-6.690942E-3	-5.797138E-4	-5.925084E-3	-7.968971E-3	-1.604648E-2	-1.265992E-2	-5.640992E-3	-6.544371E-5	-1.516870E-2	-7.634574E-3	-1.051490E-2	1.414181E-3	-4.699599E-3	-3.321108E-3	-6.699586E-3	-4.618086E-3	-1.085496E-2	-1.967634E-3	-4.948606E-3	2.166393E-3	6.642463E-3	-1.244844E-2	-4.407857E-3	-2.636983E-3	-1.383295E-2	-1.070950E-2	-1.419089E-2	-5.638174E-3	-6.035373E-3	-1.116048E-2	-5.008023E-3	-3.504849E-3	1.658859E-3	-5.672113E-3	-6.060694E-3	-7.257213E-3	-1.106128E-2	-6.439091E-3	-8.920140E-3	-1.262947E-3	-3.478867E-3	-7.711166E-3	-1.025799E-2	-2.906585E-3	-9.316005E-3	-8.442125E-3	-3.935925E-3	-1.967066E-3	-9.918051E-3	-1.002741E-2	-6.608376E-3	-2.142067E-3	-7.197154E-3	-8.163638E-3	-4.929024E-3	-1.210974E-2	2.377018E-3	-1.380198E-2	-4.136210E-3	-6.528355E-3	-3.280696E-3	-5.125081E-3	-5.998934E-3	-2.150001E-3	3.974094E-3	-8.614776E-3
5.310250E+2	-7.804475E-4	2.998735E-4	1.651232E-3	1.371926E-3	-8.400400E-3	1.297381E-3	2.750424E-3	-8.436755E-3	-6.772836E-3	4.524910E-3	-1.016814E-2	-1.282383E-3	-7.043397E-4	-1.526455E-3	1.071698E-3	-4.288871E-5	-9.639092E-4	-9.225182E-3	-4.285956E-3	-6.340297E-3	-9.872455E-3	-1.178295E-2	2.487757E-4	-5.538627E-3	-2.990038E-3	-8.724055E-3	-3.339534E-3	-4.284659E-3	-6.085758E-3	2.869756E-3	-5.204037E-3	-9.404180E-3	-1.402149E-3	-7.130994E-3	1.550103E-5	-7.855122E-3	-6.578345E-3	-1.669590E-3	-4.700520E-3	-1.039892E-3	-5.569518E-3	-1.145511E-3	-3.264074E-3	-9.314090E-3	-1.108583E-2	-8.491266E-3	-1.467547E-3	-4.393113E-3	5.546590E-3	-5.037134E-3	-4.067136E-3	2.316047E-3	-7.143016E-3	-9.951238E-3	8.032326E-3	-1.156447E-2	-1.081367E-2	-6.177720E-4	-1.159579E-2	-2.473102E-3	-1.114121E-3	2.763201E-4	5.023056E-3	-1.462261E-3	-1.278141E-3	-7.545398E-3	7.722176E-3	-9.986451E-3	1.689481E-3	-7.010415E-3	-1.021923E-2	-3.029949E-3	-5.523675E-3	6.593160E-3	-9.675710E-3	-5.380849E-4	-8.762890E-3	6.963207E-4	-1.426398E-2	-9.609994E-3	-5.290826E-4	3.709734E-3	7.285981E-3	-4.043717E-3	-5.771745E-3	-6.572710E-3	-6.427541E-3	-6.654303E-3	-2.771578E-3	-1.171578E-2	-5.269146E-3	-2.031230E-3	6.277088E-3	-2.503909E-3	-1.081239E-2	-2.011247E-3	3.827373E-3	-4.117235E-3	-5.643762E-3	1.549663E-3	7.538607E-4	-2.367081E-3	4.190173E-4	-2.750142E-3	-1.413203E-3	-2.284657E-3	-8.342631E-3	-6.225867E-3	-1.428441E-3	-7.648630E-3	-9.782199E-3	-2.805668E-3	5.966681E-3	-7.131937E-3	-7.323848E-3	-7.732850E-3	-6.914348E-3	-8.761316E-3	-5.897648E-3	-1.118109E-2	-1.239870E-3	5.779083E-3	-6.050064E-3	-1.297480E-2	-1.183161E-2	-3.064162E-3	1.476870E-4	2.681217E-4	-8.514063E-3	3.871836E-3	3.891073E-3	-1.090801E-2	-4.331355E-3	-3.409694E-3	-1.424399E-2	2.626442E-3	-5.577211E-3	-1.005588E-2	-6.018013E-3	-8.310785E-3	3.934108E-4	-5.215535E-3	1.095285E-3	-1.034782E-2	-1.629741E-2	-4.969691E-3	-9.686075E-3	-2.637790E-3	-3.035051E-3	-5.213852E-3	-1.964015E-3	-8.841653E-3	2.153818E-3	-1.780463E-2	-2.086208E-3	-8.924817E-3	-3.701985E-3	-1.092304E-2	-8.586762E-3	-6.304720E-3	-9.356709E-3	-6.627205E-3	-8.235059E-3	-8.114102E-3	-1.143867E-2
5.315130E+2	3.541282E-3	-6.893978E-3	-5.792916E-3	-3.649789E-3	-4.387635E-3	-3.594178E-3	-1.613185E-3	7.569903E-3	-4.217279E-3	5.136589E-3	2.196343E-3	-6.023235E-3	-5.083640E-3	-5.443474E-4	-7.443197E-3	-2.574659E-3	4.178060E-3	-2.474267E-3	-4.305357E-3	-5.717820E-3	-8.202241E-3	-4.392532E-3	-7.114279E-3	-2.642967E-3	1.700999E-3	1.998378E-3	-1.026541E-2	3.698550E-3	-1.979970E-3	1.783427E-3	-1.835551E-3	-6.955800E-3	-1.010237E-2	-6.575711E-3	5.626914E-4	4.602311E-3	1.145109E-2	-2.856807E-3	-1.319121E-3	-6.125115E-3	-1.873088E-3	1.186027E-2	9.986569E-4	1.272251E-3	-1.304710E-3	-5.270076E-3	-7.324788E-3	6.143000E-3	-5.996890E-3	1.300423E-3	8.490143E-3	-5.568348E-3	-6.575303E-3	2.905666E-3	-6.901948E-3	-1.403200E-3	-6.430803E-3	6.241956E-3	7.128061E-3	-3.806811E-3	3.737573E-3	-2.804156E-4	1.411629E-3	-2.679863E-3	-1.955384E-3	-7.543017E-4	-3.121815E-3	-3.808792E-4	4.137227E-4	-5.311349E-3	-8.957327E-4	-9.788908E-3	-2.892877E-3	-1.174549E-3	-7.190581E-3	-3.116201E-3	3.354922E-3	-4.336410E-3	6.871424E-4	1.054455E-2	5.972775E-5	-2.345486E-3	2.151098E-4	-6.198375E-3	2.025283E-3	-1.824237E-3	-1.408603E-3	-2.531063E-3	-3.426120E-3	-4.173139E-3	-3.516135E-3	-1.420173E-3	2.309270E-3	-5.587697E-3	-1.082726E-2	-5.230327E-3	-9.995002E-3	-3.559647E-3	4.153672E-4	7.582036E-3	-4.291915E-4	-1.232970E-4	-1.136871E-2	4.085766E-3	-8.290990E-4	-9.327513E-3	4.636296E-3	-5.849065E-4	1.843550E-3	-6.017833E-4	5.603426E-4	-1.150616E-2	-5.796047E-3	-3.587090E-3	-5.622327E-3	-9.262491E-3	1.361750E-3	3.135946E-3	-9.728147E-4	-2.850806E-3	-8.637606E-3	-1.721008E-2	-7.274361E-3	9.899241E-3	-6.161273E-3	4.043918E-3	-4.376644E-3	2.686874E-3	1.474361E-3	-5.272730E-4	-6.985971E-3	-4.908400E-3	-3.167445E-3	-3.982662E-3	-2.918962E-3	-4.659124E-3	-5.548021E-3	-3.594700E-3	-1.138512E-3	-2.087307E-3	-4.157726E-3	2.894832E-3	-5.682011E-4	-5.548651E-4	3.590258E-4	-3.814592E-3	-6.613866E-3	-1.481304E-2	-3.115909E-3	-2.803653E-3	-3.863420E-3	4.250714E-3	8.194300E-4	-5.502505E-3	-3.534977E-3	-2.890865E-3	2.567956E-4	-3.994796E-3	-1.239220E-3	-3.134020E-3	-1.902153E-3	-3.410553E-4	-4.007427E-3	7.247363E-4	6.241613E-3
5.320120E+2	3.324438E-3	3.923124E-3	-1.223874E-2	-1.185890E-2	1.427791E-3	-1.019638E-2	-5.600221E-3	-4.265552E-3	6.925541E-3	-8.291142E-3	1.521600E-3	2.053021E-3	4.039989E-3	3.377184E-4	-1.097632E-3	1.098180E-2	-1.812466E-3	-5.529524E-3	-4.494534E-3	3.203372E-3	-2.177448E-3	1.313997E-3	4.282811E-5	4.222659E-3	2.770548E-3	5.471645E-3	1.855116E-3	1.647118E-3	8.130726E-4	5.381109E-3	2.560757E-3	4.461838E-3	-3.098104E-3	4.836129E-3	-8.265698E-3	-4.940801E-4	1.939455E-3	1.615784E-3	-2.670049E-3	1.029213E-3	-7.142542E-3	3.181059E-3	-5.317584E-3	2.294240E-3	-3.406226E-4	5.963990E-3	1.546340E-3	-5.199602E-3	-2.601945E-3	5.191431E-3	-6.512301E-3	9.418760E-3	5.300691E-3	-2.312534E-3	-1.058813E-2	-2.696637E-3	-2.893206E-3	-8.691417E-4	4.099441E-3	-2.672717E-3	-1.295987E-3	2.775719E-3	-9.535507E-3	-4.039608E-3	-9.237469E-4	-2.271521E-3	1.246210E-3	8.457338E-3	-2.314086E-3	3.755751E-3	-2.164475E-3	5.322057E-3	4.262774E-3	-1.033140E-2	-1.825941E-3	1.133105E-3	2.007417E-3	3.314043E-3	1.004398E-2	-4.534930E-3	-7.876931E-4	3.454609E-3	-8.237507E-3	-5.121112E-3	-1.790267E-3	3.977826E-3	6.341178E-3	6.244101E-3	-5.608201E-3	4.694269E-6	-6.119999E-3	9.397139E-4	-1.214475E-4	9.187102E-3	-1.970019E-3	-4.235722E-3	4.223158E-3	-6.160253E-3	2.003460E-4	-4.224573E-3	-8.178137E-3	-6.027556E-3	5.521036E-3	4.528721E-3	3.897803E-3	-3.203320E-3	-1.392878E-2	1.374723E-2	7.235956E-3	-2.378566E-3	-2.661086E-3	5.673581E-3	-5.445433E-3	2.201534E-3	1.706932E-3	8.317163E-3	-7.900996E-3	1.383389E-2	-3.376347E-3	1.409340E-3	8.022667E-3	3.240546E-3	1.484502E-3	8.221322E-3	-3.273634E-3	-1.266560E-2	2.772535E-3	2.463783E-3	2.502833E-3	-7.883151E-4	-2.415671E-3	1.518121E-3	-3.398613E-3	7.969121E-3	4.621632E-4	8.061575E-4	5.124796E-3	-3.200856E-3	-1.981739E-4	1.086772E-2	4.744678E-3	2.780863E-3	-7.446526E-4	8.504753E-3	1.385686E-3	7.601213E-4	2.917237E-3	1.201724E-2	3.378672E-3	-3.744270E-3	-1.036830E-2	-1.038960E-2	-6.518254E-3	1.409445E-2	-6.030483E-3	-9.332586E-3	4.013228E-3	8.034567E-3	-8.731825E-3	-7.919274E-3	-6.002507E-3	4.021277E-3	-3.658769E-3	9.936973E-3	3.670246E-3
5.325070E+2	-1.793155E-3	-6.621088E-3	1.002413E-2	1.092716E-2	1.357857E-2	1.410230E-2	3.663149E-3	5.907374E-3	-3.932179E-3	-5.724643E-3	7.410184E-3	1.384844E-3	-4.786540E-3	3.318724E-3	8.901363E-3	-6.022140E-3	-1.293455E-3	1.998264E-2	-1.866868E-5	4.897742E-4	4.572671E-3	-3.726768E-4	1.076114E-2	4.738987E-3	5.411329E-3	8.944369E-3	1.772019E-2	7.122933E-3	1.561509E-2	-1.012359E-2	-3.669429E-4	1.116163E-2	6.211687E-3	9.427892E-3	4.950895E-3	1.609174E-2	3.040823E-3	4.462343E-3	-2.155421E-3	9.460833E-3	-3.243163E-4	1.800502E-3	1.121447E-2	-2.789202E-3	5.078580E-3	-6.297283E-4	4.694410E-3	8.292209E-3	5.868418E-3	-1.178393E-4	4.453476E-3	-2.628673E-3	8.842985E-3	8.908886E-3	3.201416E-4	1.540121E-2	1.292466E-2	2.900293E-4	6.933609E-3	-8.122320E-3	8.296578E-4	2.184832E-3	9.513639E-3	7.882612E-3	9.316455E-3	1.513770E-2	4.271078E-5	4.218682E-3	1.992712E-3	1.238686E-2	4.972927E-3	5.825017E-3	1.157628E-2	5.263933E-3	1.263492E-2	1.003348E-2	3.699121E-3	-6.818344E-3	2.160062E-3	5.604771E-3	2.292059E-3	3.631143E-4	1.117763E-2	1.550734E-2	6.023859E-3	3.304288E-3	6.238081E-4	1.341390E-2	2.508504E-3	5.013686E-3	1.586591E-3	4.150658E-3	4.354923E-3	-3.211631E-3	5.941038E-3	1.237225E-2	5.417373E-3	2.662418E-3	4.423027E-3	5.932240E-3	1.036019E-2	5.903625E-3	7.815604E-3	-1.851950E-3	1.500425E-2	5.725747E-4	1.547618E-2	3.628531E-4	3.849474E-3	7.970574E-3	9.286635E-3	4.443340E-3	6.283762E-3	5.732911E-3	3.385412E-3	1.485014E-3	9.404311E-3	-5.192664E-4	7.075657E-3	-5.780286E-3	-3.201746E-3	5.544728E-3	5.631137E-3	1.029268E-2	3.028607E-3	4.420512E-3	7.805021E-3	3.631930E-3	8.100839E-3	4.161484E-3	-3.077874E-3	-5.972302E-3	1.027562E-2	2.410216E-3	7.009392E-3	8.107825E-3	1.148941E-2	7.201735E-3	2.831896E-3	5.125031E-3	5.252615E-3	5.351482E-4	-2.459605E-4	8.441773E-3	1.674334E-2	6.688872E-4	7.747519E-3	6.169605E-3	7.388670E-3	1.037416E-2	3.198058E-3	6.357093E-3	8.719843E-3	9.889862E-3	9.523518E-3	1.096549E-2	1.059115E-2	1.609513E-2	7.649237E-3	1.722953E-2	8.130122E-3	-2.407438E-3	-5.303897E-4	-7.972164E-4	2.735866E-2
5.330280E+2	1.352021E-2	1.718359E-2	2.450743E-2	1.045090E-2	1.791858E-2	2.343289E-2	2.011010E-2	1.056800E-2	1.976602E-2	1.890619E-2	1.253063E-2	1.190166E-2	1.192938E-2	1.422369E-2	7.113451E-3	1.839364E-2	7.725421E-3	1.800992E-2	1.112638E-2	8.313260E-3	1.865338E-2	2.060286E-2	4.188183E-3	1.224955E-2	1.187884E-2	9.180981E-3	1.034705E-2	9.078408E-3	5.702027E-3	1.407900E-2	2.447886E-2	1.140154E-2	1.987636E-2	1.492821E-2	7.498696E-3	8.629545E-3	9.708844E-3	1.698103E-2	1.696951E-2	1.026675E-2	1.618200E-2	1.054606E-2	2.014219E-2	9.365396E-3	2.513348E-2	1.049081E-2	2.098388E-2	1.739249E-2	1.159976E-2	1.001264E-2	1.184355E-2	1.556137E-2	1.879907E-2	1.934205E-2	1.500018E-2	1.397000E-2	1.318724E-2	8.095175E-3	1.960558E-2	2.479466E-2	1.912005E-2	1.687474E-2	1.546995E-2	8.721600E-3	1.343079E-2	1.413355E-2	1.174326E-2	1.419547E-2	1.535466E-2	1.090299E-2	1.465205E-2	1.856300E-2	4.431752E-3	2.355212E-2	1.731328E-2	4.501849E-3	1.151029E-2	2.258406E-2	6.309196E-3	1.843626E-2	1.132899E-2	9.682287E-3	1.203404E-2	1.149370E-2	1.722540E-2	1.258362E-2	1.898119E-2	7.682243E-3	2.733276E-2	1.989951E-2	2.581476E-2	1.288685E-2	5.152970E-3	1.248685E-2	2.273535E-2	1.525180E-2	2.275349E-2	1.714664E-2	8.954768E-3	6.915574E-3	5.947049E-3	2.045622E-2	1.102489E-2	2.445348E-2	7.157957E-3	2.847193E-2	9.833794E-3	1.523218E-2	7.412959E-3	2.134951E-2	6.421369E-3	1.342855E-2	1.507470E-2	6.579741E-3	1.410285E-2	1.673990E-2	1.093958E-2	4.847022E-3	1.285585E-2	1.389574E-2	2.007353E-2	1.946922E-2	1.250263E-2	6.214810E-3	2.688564E-2	2.297328E-2	1.032690E-2	1.130219E-2	1.973082E-2	6.089388E-4	1.719809E-2	2.603506E-2	1.532528E-2	1.670206E-2	1.992121E-2	1.006155E-2	3.994851E-3	3.111243E-2	9.242861E-3	1.041917E-2	1.407261E-2	1.776394E-2	1.049260E-2	1.177446E-2	1.701899E-2	2.044271E-2	1.664899E-2	2.301888E-2	1.107201E-2	1.311502E-2	1.836707E-2	1.923145E-2	1.216685E-2	1.568410E-2	1.836644E-2	1.256996E-2	1.027748E-2	2.932065E-3	2.271263E-2	7.751968E-3	2.198638E-2	2.009848E-2	2.215016E-2	2.947503E-3	-1.705213E-2
5.331680E+2	4.633588E-3	1.126728E-2	2.047172E-2	8.933409E-3	1.039509E-2	9.390368E-3	9.503222E-3	1.512235E-2	2.114993E-2	2.096723E-2	1.429587E-2	1.582372E-2	1.599908E-2	1.850256E-2	3.320663E-2	1.117854E-2	2.323901E-2	1.529890E-2	1.184854E-2	7.987892E-3	1.494474E-2	2.135770E-2	1.114784E-2	2.221925E-2	1.959903E-2	3.055132E-2	1.523453E-2	7.058928E-3	2.813890E-2	2.123539E-2	1.662978E-2	1.007277E-2	3.447606E-2	2.097466E-2	9.943497E-3	1.164780E-2	1.710297E-2	1.240214E-2	1.944367E-2	1.583243E-2	2.968953E-2	2.239528E-2	1.406579E-2	2.896641E-2	1.207924E-2	9.466777E-3	2.119358E-2	2.707597E-2	3.081856E-2	2.718354E-2	2.587591E-2	2.227077E-2	1.898359E-2	1.094207E-2	1.571217E-2	9.486927E-3	1.453573E-2	2.920797E-2	1.319241E-2	8.776846E-3	1.212613E-2	1.108040E-2	1.619705E-2	2.456099E-2	1.673753E-2	1.794098E-2	2.458783E-2	1.630379E-2	4.672084E-3	2.039806E-2	1.255628E-2	1.878158E-2	3.071338E-3	-1.260440E-3	2.505487E-2	1.745809E-2	1.688230E-2	1.032278E-2	5.811116E-3	4.601268E-3	1.455720E-2	1.827484E-2	1.691626E-2	3.090661E-2	1.000189E-2	-7.505193E-4	1.748263E-2	1.319587E-2	2.175814E-2	2.131722E-2	1.393538E-2	1.359567E-2	6.905761E-3	1.423435E-2	1.711234E-2	1.011518E-2	1.334093E-2	1.487707E-2	2.329329E-2	2.891271E-2	3.487730E-2	2.411506E-2	1.410145E-2	1.125454E-2	1.722567E-2	1.309882E-2	2.113892E-2	3.007400E-2	1.591976E-2	2.873031E-2	1.796685E-3	1.470487E-2	2.909877E-2	3.341389E-2	2.425458E-2	2.281040E-2	2.008776E-2	5.440760E-3	2.698384E-2	2.248153E-2	1.633442E-2	1.485032E-2	1.806937E-2	-1.163689E-3	3.029648E-2	2.043551E-2	2.764195E-2	2.702226E-2	2.433783E-2	2.531773E-2	2.961047E-2	2.207472E-2	1.787036E-2	1.805954E-2	1.032776E-2	1.417587E-2	1.767099E-2	1.610671E-2	1.549645E-2	2.005082E-2	1.188484E-2	1.134110E-2	2.124025E-2	5.643323E-3	1.572764E-2	1.200697E-2	1.745449E-2	1.656358E-2	1.735392E-2	1.253436E-2	1.670830E-2	1.084229E-2	2.327552E-2	2.620767E-2	1.413416E-2	1.530328E-2	1.789274E-2	1.355480E-2	2.353460E-2	1.755812E-2	1.686741E-2	2.726366E-2	1.428028E-2	5.305741E-3	4.662743E-2
5.333080E+2	1.188288E-2	1.614933E-2	2.822422E-2	9.990513E-3	2.028279E-2	3.216700E-2	9.769164E-3	1.859948E-2	2.957991E-2	2.519850E-2	2.922593E-2	1.372028E-2	2.667226E-2	2.732837E-2	2.058027E-2	1.133329E-2	3.160899E-2	3.668724E-2	2.710012E-2	1.859432E-2	2.147211E-2	1.345190E-2	2.397386E-2	2.071575E-2	2.882554E-2	2.824409E-2	2.461834E-2	2.415209E-2	2.108541E-2	2.997589E-2	2.545249E-2	2.735317E-2	1.584381E-2	1.060220E-2	2.542130E-2	2.327294E-2	2.999382E-2	1.498347E-2	2.427858E-2	2.267258E-2	2.679952E-2	2.645140E-2	1.802745E-2	2.079907E-2	2.183383E-2	1.409603E-2	2.353045E-2	3.090803E-2	1.973102E-2	1.740082E-2	3.221476E-2	1.835432E-2	3.037008E-3	2.824825E-2	1.479956E-2	1.560909E-2	3.038871E-2	1.410769E-2	1.700692E-2	2.903304E-2	2.609323E-2	2.098224E-2	3.979087E-2	3.378812E-2	2.997416E-2	2.952307E-2	1.319514E-2	2.358037E-2	3.455677E-2	2.348690E-2	1.665765E-2	1.892446E-2	1.968032E-2	8.719327E-3	2.527437E-2	2.221869E-2	2.298732E-2	2.748373E-2	1.618213E-2	2.781171E-2	4.012645E-2	3.135654E-2	1.770388E-2	1.322064E-2	8.419203E-3	1.654732E-2	1.821714E-2	2.850858E-2	2.328095E-2	2.857868E-2	1.354839E-2	2.766090E-2	2.546126E-2	2.268539E-2	1.617239E-2	2.010029E-2	1.995393E-2	1.450083E-2	1.916195E-2	1.542720E-2	1.739562E-2	2.140515E-2	1.373518E-2	1.206565E-2	2.686944E-2	2.307467E-2	1.145882E-2	3.281658E-2	1.895415E-2	3.596333E-2	1.200788E-2	1.785252E-2	3.391532E-2	6.885414E-3	1.680239E-2	2.010022E-2	2.617764E-2	2.876654E-2	2.712336E-2	2.009274E-2	1.145591E-2	1.444286E-2	7.972652E-3	2.176299E-2	1.631336E-2	1.389590E-2	1.521991E-2	2.658532E-2	1.755229E-2	3.311301E-2	1.387863E-2	1.553059E-2	2.169910E-2	3.299846E-2	2.028499E-2	3.437982E-2	1.596991E-2	2.295185E-2	2.885755E-2	2.852569E-2	1.442093E-2	2.200913E-2	2.363890E-2	2.388604E-2	2.413923E-2	2.764246E-2	3.202692E-2	1.472448E-2	2.808908E-2	3.711138E-2	2.447087E-2	2.381425E-2	2.034039E-2	2.643759E-2	1.944174E-2	9.441927E-3	3.165537E-2	1.906265E-2	2.765988E-2	1.521667E-2	1.571643E-2	2.603594E-2	9.619183E-3	2.468209E-2	2.211367E-2
5.334580E+2	2.677609E-2	1.776856E-2	2.239666E-2	2.760253E-2	1.991183E-2	3.393759E-2	4.217016E-2	3.256300E-2	2.939247E-2	2.886446E-2	2.080716E-2	2.767959E-2	2.147266E-2	2.768302E-2	2.955985E-2	2.054541E-2	5.261840E-2	2.153736E-2	2.978010E-2	3.539446E-2	2.701002E-2	2.989471E-2	3.352412E-2	4.060696E-2	3.262241E-2	2.738276E-2	2.496068E-2	3.168183E-2	2.263469E-2	3.573625E-2	2.176129E-2	3.342625E-2	2.773026E-2	3.510646E-2	2.165626E-2	2.776496E-2	2.138925E-2	3.834995E-2	2.345040E-2	1.603399E-2	3.285299E-2	2.153861E-2	2.710669E-2	2.198819E-2	3.618371E-2	3.591739E-2	2.658571E-2	2.923684E-2	3.267781E-2	3.603767E-2	3.708703E-2	3.488982E-2	1.513856E-2	2.234263E-2	3.560539E-2	3.334992E-2	2.631732E-2	2.271856E-2	1.913545E-2	3.217870E-2	2.380152E-2	3.053631E-2	2.140990E-2	3.538478E-2	2.430878E-2	3.373496E-2	2.575843E-2	3.008166E-2	2.780375E-2	2.916884E-2	3.444695E-2	2.634968E-2	1.407279E-2	2.910571E-2	2.179884E-2	1.725715E-2	2.630205E-2	1.991221E-2	3.293868E-2	3.284038E-2	3.686274E-2	2.927674E-2	2.762490E-2	3.910803E-2	3.401396E-2	3.089157E-2	2.543759E-2	2.567345E-2	3.578981E-2	2.831426E-2	2.236011E-2	3.327930E-2	3.847825E-2	1.106224E-2	1.975478E-2	2.562251E-2	4.203283E-2	3.821378E-2	2.693413E-2	2.536503E-2	2.538394E-2	2.868857E-2	2.842840E-2	3.283446E-2	3.479052E-2	2.993774E-2	1.308864E-2	3.640891E-2	2.716552E-2	3.027623E-2	2.714979E-2	3.172947E-2	3.033215E-2	2.724021E-2	3.006925E-2	2.649587E-2	2.914772E-2	3.435716E-2	1.963446E-2	2.895471E-2	3.507318E-2	1.836365E-2	3.809904E-2	3.306068E-2	2.887877E-2	2.038231E-2	3.733603E-2	1.879678E-2	2.298366E-2	2.650796E-2	3.753734E-2	3.565928E-2	2.507876E-2	2.281167E-2	2.915712E-2	2.556759E-2	2.274639E-2	2.132230E-2	2.798194E-2	2.063147E-2	2.802714E-2	5.284010E-2	3.463284E-2	3.536201E-2	2.791022E-2	2.005630E-2	2.925106E-2	3.252283E-2	1.459290E-2	3.259686E-2	2.987814E-2	3.388742E-2	2.849150E-2	4.425092E-2	1.764366E-2	3.446449E-2	3.614327E-2	4.594501E-2	3.263151E-2	2.401022E-2	3.807611E-2	4.168285E-2	3.154703E-2	1.604815E-2	4.051273E-2
5.336080E+2	3.361461E-2	3.548406E-2	3.038965E-2	4.187529E-2	3.556905E-2	2.947805E-2	3.828663E-2	3.238726E-2	3.055245E-2	4.074921E-2	4.830989E-2	2.988990E-2	2.358587E-2	2.867200E-2	4.182530E-2	3.734788E-2	4.728586E-2	3.124838E-2	3.438230E-2	3.926148E-2	3.796545E-2	3.958710E-2	3.692607E-2	3.297100E-2	4.631977E-2	4.867264E-2	3.460665E-2	4.967076E-2	3.220756E-2	3.517570E-2	4.375599E-2	3.560166E-2	3.711215E-2	4.097919E-2	3.806736E-2	2.289379E-2	4.225015E-2	2.938446E-2	3.906240E-2	3.753863E-2	3.463000E-2	3.805339E-2	3.518082E-2	5.770338E-2	3.505833E-2	3.421851E-2	3.794712E-2	3.225520E-2	5.010882E-2	3.358302E-2	3.478942E-2	3.256630E-2	3.975309E-2	3.545282E-2	4.556314E-2	4.141403E-2	3.589892E-2	3.667659E-2	3.581858E-2	3.414996E-2	3.096870E-2	2.993718E-2	3.399018E-2	4.085845E-2	4.400581E-2	3.168118E-2	3.851389E-2	4.073732E-2	2.834701E-2	3.736132E-2	3.668494E-2	2.254106E-2	3.378881E-2	2.534271E-2	2.609230E-2	2.912517E-2	4.116158E-2	3.180351E-2	3.805788E-2	3.021644E-2	4.187923E-2	5.580754E-2	3.123292E-2	3.383235E-2	4.815271E-2	2.040953E-2	4.502447E-2	4.406176E-2	3.595995E-2	2.689472E-2	3.141606E-2	3.154518E-2	5.011504E-2	3.718615E-2	3.163951E-2	5.782245E-2	5.126408E-2	3.457800E-2	4.497433E-2	4.064204E-2	3.430050E-2	2.918772E-2	3.256851E-2	3.253583E-2	4.680004E-2	1.346111E-2	2.419413E-2	4.269536E-2	2.540808E-2	2.687429E-2	3.780031E-2	4.528673E-2	5.157084E-2	3.509065E-2	4.183047E-2	3.078472E-2	3.030010E-2	4.129497E-2	4.543088E-2	5.122378E-2	4.773875E-2	1.942542E-2	4.295260E-2	3.286593E-2	3.393209E-2	2.592517E-2	4.308457E-2	4.571021E-2	4.594434E-2	4.167671E-2	3.930559E-2	2.175265E-2	4.749092E-2	3.504769E-2	4.068894E-2	4.099469E-2	3.374625E-2	3.650109E-2	4.489370E-2	4.489662E-2	4.310181E-2	4.237004E-2	3.573709E-2	3.022152E-2	3.664141E-2	2.927749E-2	3.544369E-2	4.255386E-2	3.681547E-2	3.191791E-2	3.741215E-2	4.361270E-2	2.776073E-2	5.675868E-2	4.343581E-2	5.228046E-2	2.919035E-2	4.894514E-2	3.724297E-2	4.754079E-2	5.083743E-2	3.820169E-2	2.335025E-2	7.620147E-2	6.835221E-2
5.337580E+2	2.688504E-2	4.505279E-2	3.278698E-2	2.916527E-2	2.691038E-2	4.182849E-2	4.043447E-2	3.221694E-2	3.985594E-2	4.710995E-2	4.516942E-2	3.980873E-2	4.388539E-2	4.537615E-2	4.710740E-2	5.275872E-2	6.287821E-2	3.497250E-2	4.458907E-2	4.779614E-2	4.862358E-2	5.979072E-2	4.983693E-2	3.426621E-2	2.651657E-2	4.766521E-2	4.337090E-2	3.683851E-2	3.547480E-2	4.889557E-2	3.409117E-2	4.562536E-2	5.110918E-2	4.474888E-2	4.534850E-2	4.514263E-2	4.127097E-2	5.570011E-2	4.393496E-2	5.171967E-2	4.000209E-2	4.975519E-2	4.442507E-2	4.164068E-2	3.972950E-2	4.715715E-2	4.194512E-2	4.493955E-2	5.655978E-2	4.211519E-2	3.950214E-2	4.745348E-2	3.687808E-2	4.941695E-2	4.984516E-2	4.853494E-2	5.234742E-2	4.657197E-2	4.750220E-2	4.146966E-2	4.618707E-2	4.155610E-2	3.679120E-2	2.891692E-2	4.622405E-2	5.669317E-2	4.630522E-2	4.760375E-2	4.648781E-2	3.050378E-2	4.870459E-2	5.385971E-2	3.474979E-2	3.174568E-2	6.103711E-2	5.410093E-2	5.144894E-2	4.453069E-2	4.221863E-2	4.020214E-2	4.275201E-2	4.920325E-2	4.708161E-2	3.648684E-2	4.771880E-2	3.048603E-2	4.632811E-2	3.371746E-2	4.778567E-2	5.813966E-2	4.319696E-2	4.556767E-2	5.675446E-2	5.617477E-2	5.021262E-2	3.369865E-2	2.674573E-2	5.833271E-2	3.715750E-2	5.168189E-2	4.125596E-2	4.800533E-2	4.366989E-2	4.415036E-2	6.038144E-2	5.029083E-2	4.646860E-2	4.854086E-2	4.108610E-2	5.213626E-2	3.109831E-2	6.510248E-2	4.921561E-2	4.760365E-2	3.505747E-2	4.345424E-2	4.759048E-2	4.445166E-2	4.625601E-2	5.835753E-2	3.107681E-2	4.738172E-2	4.382339E-2	4.246163E-2	3.422156E-2	4.076634E-2	5.420955E-2	4.906249E-2	4.296028E-2	4.128604E-2	4.693044E-2	5.289623E-2	5.374746E-2	5.576518E-2	4.822403E-2	4.702182E-2	4.912392E-2	3.740628E-2	5.197749E-2	5.655197E-2	4.617578E-2	5.696699E-2	4.772566E-2	3.675462E-2	5.531268E-2	3.685304E-2	4.695390E-2	3.558886E-2	5.580666E-2	5.528238E-2	4.894602E-2	4.441796E-2	5.332987E-2	6.191848E-2	4.372758E-2	5.047121E-2	3.429274E-2	5.560773E-2	5.182572E-2	4.380886E-2	5.116189E-2	5.717302E-2	5.770674E-2	6.118323E-2	4.673812E-2
5.339140E+2	5.296800E-2	6.097469E-2	7.880614E-2	6.459547E-2	6.483581E-2	6.653218E-2	6.131325E-2	6.026270E-2	6.497969E-2	4.579631E-2	6.847447E-2	5.932222E-2	5.904396E-2	6.205648E-2	6.159238E-2	6.030807E-2	9.930357E-2	6.400338E-2	7.168037E-2	7.460794E-2	7.376151E-2	8.012378E-2	7.079279E-2	5.563353E-2	6.460564E-2	7.109367E-2	6.663796E-2	8.022701E-2	7.076108E-2	8.109383E-2	6.556641E-2	6.085649E-2	6.548230E-2	6.977945E-2	6.137169E-2	7.624277E-2	5.930801E-2	5.579317E-2	6.147585E-2	6.702081E-2	7.961704E-2	6.640664E-2	5.891113E-2	4.399181E-2	6.618999E-2	7.948843E-2	5.945858E-2	8.233447E-2	5.910974E-2	7.784327E-2	7.105755E-2	8.888552E-2	6.542171E-2	7.024515E-2	7.350487E-2	5.566078E-2	6.733299E-2	5.426940E-2	6.090832E-2	6.597591E-2	5.798453E-2	6.070545E-2	6.113990E-2	6.173048E-2	5.346609E-2	7.966057E-2	6.684766E-2	5.311673E-2	6.121127E-2	6.659362E-2	6.181026E-2	5.896294E-2	6.289302E-2	6.368556E-2	7.462928E-2	7.590952E-2	6.281692E-2	5.316318E-2	5.825129E-2	7.088566E-2	7.176928E-2	6.283717E-2	5.738175E-2	7.465010E-2	5.772596E-2	6.974547E-2	6.488147E-2	4.985608E-2	7.162090E-2	7.051213E-2	5.237883E-2	6.934850E-2	5.802110E-2	6.215234E-2	5.742148E-2	5.632585E-2	7.395687E-2	6.811163E-2	5.903844E-2	6.860857E-2	5.496931E-2	5.855769E-2	8.603401E-2	5.044223E-2	5.916861E-2	5.947362E-2	6.382689E-2	7.538838E-2	4.969627E-2	6.006562E-2	5.410932E-2	7.371034E-2	6.015030E-2	7.527863E-2	7.959389E-2	6.175147E-2	6.227040E-2	9.124374E-2	7.348314E-2	6.351626E-2	5.581308E-2	4.852616E-2	5.559253E-2	5.101490E-2	6.232594E-2	6.185223E-2	6.997714E-2	6.114940E-2	6.875173E-2	6.309550E-2	6.565185E-2	7.050585E-2	7.079906E-2	5.328264E-2	7.169800E-2	5.687292E-2	6.760373E-2	6.478494E-2	6.276645E-2	6.504467E-2	7.190416E-2	7.391395E-2	4.839164E-2	6.593294E-2	6.429591E-2	4.315293E-2	6.590222E-2	5.037744E-2	6.789737E-2	5.797734E-2	6.998006E-2	8.436030E-2	7.702655E-2	6.824719E-2	6.103694E-2	6.838937E-2	6.498102E-2	6.586655E-2	6.061318E-2	7.288982E-2	7.487537E-2	6.196823E-2	7.263828E-2	5.645709E-2	5.346877E-2
5.340640E+2	7.564894E-2	9.797353E-2	8.874691E-2	8.519652E-2	9.842396E-2	8.455541E-2	8.638247E-2	8.349606E-2	1.028514E-1	7.831586E-2	7.987390E-2	1.067181E-1	9.131969E-2	9.196546E-2	9.588499E-2	8.549464E-2	1.293051E-1	9.863657E-2	1.177855E-1	9.658163E-2	9.516192E-2	1.066168E-1	7.281315E-2	9.324091E-2	9.417921E-2	8.497010E-2	9.242392E-2	9.935122E-2	1.045899E-1	1.141507E-1	8.053696E-2	1.024399E-1	9.403018E-2	9.454929E-2	9.496999E-2	9.636154E-2	8.672406E-2	9.189672E-2	1.021840E-1	1.053415E-1	1.023672E-1	8.408426E-2	9.527682E-2	9.567573E-2	9.917349E-2	9.653872E-2	9.915087E-2	9.429506E-2	8.833255E-2	9.903415E-2	8.603886E-2	8.409700E-2	8.439115E-2	9.712303E-2	9.804134E-2	9.483298E-2	1.021959E-1	8.563141E-2	9.024986E-2	9.798462E-2	9.410948E-2	9.054542E-2	9.107770E-2	9.280131E-2	6.631253E-2	1.157433E-1	8.358114E-2	7.960603E-2	9.874860E-2	8.231904E-2	8.592521E-2	9.336409E-2	8.455456E-2	8.368668E-2	1.104792E-1	9.863453E-2	1.156672E-1	8.439670E-2	8.885280E-2	8.211880E-2	1.122038E-1	9.851841E-2	1.072837E-1	8.164434E-2	8.862766E-2	8.481739E-2	1.114614E-1	1.181129E-1	9.906415E-2	8.704682E-2	8.081064E-2	1.028570E-1	9.554713E-2	8.881442E-2	9.858240E-2	8.721652E-2	8.465123E-2	9.631436E-2	8.694322E-2	1.021522E-1	9.707876E-2	9.041869E-2	1.033400E-1	8.529722E-2	8.108526E-2	9.191309E-2	1.083396E-1	9.247958E-2	7.557334E-2	8.611177E-2	8.704937E-2	1.022171E-1	7.799694E-2	1.008050E-1	9.181125E-2	8.534090E-2	9.040573E-2	8.865004E-2	9.078749E-2	9.785541E-2	8.653584E-2	8.564630E-2	8.672408E-2	8.913184E-2	1.037298E-1	7.862830E-2	8.593790E-2	9.795428E-2	9.633908E-2	6.912258E-2	7.587014E-2	8.561268E-2	9.817974E-2	1.014138E-1	9.849388E-2	9.310476E-2	9.689097E-2	9.387594E-2	8.770695E-2	9.336315E-2	9.358048E-2	1.028548E-1	1.047588E-1	8.360359E-2	9.054457E-2	9.283928E-2	8.395231E-2	1.162087E-1	8.418023E-2	7.982186E-2	8.575395E-2	9.061275E-2	1.067051E-1	1.052314E-1	9.410963E-2	1.093738E-1	8.521481E-2	1.138939E-1	8.126143E-2	9.810095E-2	9.298518E-2	8.657115E-2	8.717831E-2	1.000448E-1	8.738965E-2
5.342090E+2	1.223521E-1	1.339350E-1	1.487619E-1	1.331876E-1	1.448376E-1	1.149114E-1	1.359262E-1	1.293615E-1	1.520245E-1	1.297612E-1	1.159078E-1	1.262355E-1	1.418888E-1	1.461243E-1	1.278791E-1	1.390866E-1	2.310173E-1	1.493238E-1	1.609766E-1	1.540639E-1	1.483599E-1	1.634605E-1	1.414909E-1	1.377774E-1	1.492110E-1	1.340609E-1	1.555350E-1	1.404730E-1	1.522568E-1	1.321635E-1	1.506971E-1	1.396325E-1	1.566408E-1	1.243299E-1	1.477787E-1	1.508469E-1	1.561580E-1	1.294939E-1	1.432224E-1	1.271029E-1	1.536606E-1	1.375038E-1	1.484549E-1	1.489504E-1	1.426220E-1	1.563098E-1	1.391679E-1	1.388268E-1	1.664485E-1	1.599669E-1	1.476637E-1	1.420951E-1	1.322858E-1	1.555626E-1	1.317226E-1	1.175327E-1	1.439055E-1	1.397808E-1	1.624047E-1	1.373702E-1	1.355979E-1	1.404259E-1	1.335204E-1	1.278761E-1	1.685472E-1	1.437742E-1	1.565040E-1	1.246886E-1	1.604406E-1	1.369604E-1	1.398845E-1	1.506994E-1	1.362044E-1	1.230683E-1	1.498647E-1	1.016036E-1	1.515441E-1	1.262597E-1	1.208875E-1	1.378767E-1	1.432317E-1	1.563237E-1	1.423903E-1	1.387707E-1	1.530385E-1	1.235539E-1	1.392637E-1	1.421269E-1	1.552987E-1	1.715891E-1	1.469705E-1	1.347748E-1	1.544106E-1	1.548920E-1	1.472132E-1	1.525423E-1	1.418132E-1	1.339154E-1	1.548258E-1	1.246528E-1	1.533108E-1	1.577736E-1	1.518681E-1	1.358122E-1	1.377108E-1	1.496579E-1	1.431141E-1	1.392500E-1	1.611170E-1	1.416098E-1	1.331913E-1	1.305140E-1	1.496687E-1	1.457287E-1	1.340767E-1	1.041180E-1	1.161385E-1	1.272788E-1	1.475628E-1	1.447085E-1	1.344129E-1	1.375649E-1	1.316913E-1	1.313535E-1	1.316748E-1	1.576013E-1	1.550618E-1	1.436959E-1	1.749425E-1	1.377695E-1	1.492443E-1	1.521988E-1	1.442668E-1	1.384212E-1	1.329592E-1	1.381011E-1	1.472316E-1	1.460988E-1	1.350967E-1	1.546571E-1	1.534058E-1	1.449486E-1	1.450141E-1	1.328666E-1	1.371262E-1	1.338050E-1	1.393948E-1	1.314332E-1	1.165430E-1	1.429297E-1	1.366461E-1	1.587221E-1	1.552612E-1	1.375689E-1	1.471233E-1	1.360594E-1	1.485504E-1	1.252720E-1	1.348376E-1	1.580192E-1	1.287330E-1	1.435632E-1	1.250600E-1	1.394414E-1	1.560823E-1
5.343550E+2	2.137475E-1	2.251038E-1	2.437159E-1	2.325630E-1	1.915974E-1	2.132609E-1	2.253018E-1	2.262316E-1	2.094895E-1	2.227216E-1	2.162528E-1	2.180068E-1	2.186832E-1	2.250871E-1	2.154618E-1	2.222238E-1	3.255721E-1	2.881109E-1	2.789864E-1	2.641201E-1	2.794594E-1	2.448434E-1	2.326550E-1	2.581206E-1	2.720196E-1	2.426358E-1	2.458986E-1	2.414200E-1	2.623693E-1	2.489635E-1	2.382151E-1	2.370280E-1	2.409988E-1	2.154948E-1	2.288762E-1	2.404615E-1	2.258736E-1	2.218955E-1	2.303662E-1	2.101016E-1	2.528866E-1	2.107102E-1	2.451351E-1	2.404886E-1	2.208037E-1	2.415723E-1	2.338567E-1	2.409781E-1	2.296761E-1	2.319477E-1	2.476451E-1	2.266431E-1	2.116494E-1	2.299323E-1	2.404283E-1	2.294216E-1	2.257697E-1	2.078099E-1	2.251232E-1	2.315525E-1	2.386729E-1	2.406252E-1	2.315173E-1	2.324626E-1	2.405118E-1	2.297248E-1	2.504352E-1	2.178042E-1	2.404773E-1	2.461889E-1	2.437541E-1	2.315455E-1	2.130154E-1	2.233241E-1	2.199322E-1	2.122610E-1	2.187808E-1	2.271338E-1	2.065497E-1	2.441229E-1	2.426708E-1	2.081033E-1	2.147411E-1	2.407723E-1	2.208738E-1	2.306079E-1	2.276891E-1	2.211563E-1	2.624922E-1	2.296781E-1	2.312908E-1	2.184633E-1	2.310817E-1	2.244637E-1	2.294768E-1	2.255592E-1	2.272905E-1	2.070465E-1	2.135044E-1	2.576665E-1	2.380484E-1	2.248266E-1	2.207332E-1	2.367593E-1	2.432731E-1	2.281061E-1	2.305616E-1	2.278368E-1	2.167198E-1	2.255470E-1	2.069986E-1	2.049957E-1	2.420546E-1	2.514532E-1	2.249885E-1	2.167593E-1	2.687672E-1	2.285127E-1	2.273942E-1	2.358014E-1	2.339494E-1	2.351389E-1	2.295697E-1	2.372555E-1	2.647437E-1	1.924277E-1	2.309370E-1	2.131646E-1	2.081638E-1	2.125204E-1	2.191780E-1	2.453403E-1	2.337916E-1	2.366511E-1	2.195696E-1	2.475552E-1	2.142046E-1	2.106415E-1	2.298243E-1	2.296331E-1	2.264572E-1	2.311834E-1	2.082274E-1	2.131914E-1	2.282364E-1	2.064963E-1	2.225693E-1	2.253401E-1	2.524302E-1	2.198379E-1	2.529610E-1	2.172590E-1	2.370530E-1	2.408209E-1	2.616558E-1	2.577481E-1	2.319706E-1	2.223258E-1	2.371199E-1	2.020660E-1	2.252499E-1	2.322881E-1	2.531573E-1	2.050641E-1	2.798748E-1
5.345050E+2	3.657688E-1	3.699787E-1	3.518321E-1	3.796677E-1	3.582135E-1	3.764348E-1	3.714564E-1	3.797135E-1	3.671792E-1	3.939280E-1	3.899576E-1	3.878703E-1	3.870519E-1	3.741784E-1	3.928983E-1	3.742570E-1	5.450713E-1	5.045397E-1	4.626261E-1	4.468125E-1	4.563756E-1	4.616373E-1	4.164126E-1	4.161416E-1	4.275092E-1	4.285478E-1	4.104918E-1	4.111034E-1	3.854145E-1	3.851283E-1	4.265901E-1	3.808143E-1	4.186700E-1	3.952488E-1	3.596106E-1	3.752885E-1	4.257359E-1	4.075614E-1	4.384461E-1	3.894011E-1	4.258986E-1	3.987192E-1	4.168111E-1	3.969575E-1	3.918084E-1	4.111280E-1	3.969747E-1	4.042948E-1	3.778134E-1	3.772257E-1	4.074029E-1	4.130665E-1	3.851667E-1	3.927024E-1	4.009769E-1	4.122457E-1	3.963905E-1	4.046137E-1	3.986968E-1	4.306551E-1	4.191919E-1	4.175369E-1	3.653368E-1	3.900769E-1	4.079386E-1	3.895919E-1	4.360896E-1	3.889847E-1	4.265571E-1	4.021896E-1	3.837306E-1	3.745013E-1	4.190611E-1	3.850535E-1	4.006555E-1	3.958371E-1	3.978828E-1	3.968570E-1	3.994853E-1	3.856250E-1	3.923147E-1	3.880473E-1	3.943712E-1	4.071185E-1	4.221795E-1	3.687577E-1	3.808578E-1	4.063440E-1	4.087581E-1	3.871517E-1	3.828187E-1	4.088217E-1	4.056445E-1	3.625307E-1	4.045809E-1	4.019813E-1	3.958700E-1	4.103921E-1	3.815743E-1	3.902026E-1	4.106847E-1	3.932056E-1	4.001086E-1	3.823357E-1	3.988942E-1	4.327618E-1	4.009970E-1	3.997996E-1	3.760771E-1	3.876741E-1	4.136043E-1	3.850634E-1	3.705314E-1	3.894733E-1	3.825056E-1	3.955499E-1	4.269263E-1	3.770132E-1	3.871804E-1	3.973453E-1	3.747506E-1	3.887361E-1	4.218720E-1	4.032785E-1	3.902795E-1	3.740171E-1	3.915636E-1	4.033006E-1	4.039912E-1	3.887697E-1	3.842283E-1	3.948758E-1	4.062079E-1	4.126911E-1	4.197456E-1	3.985059E-1	4.353532E-1	3.573904E-1	4.131772E-1	3.857990E-1	4.004149E-1	3.852531E-1	4.077471E-1	3.903746E-1	3.939078E-1	3.938198E-1	3.814621E-1	3.927611E-1	4.148009E-1	3.990692E-1	4.038102E-1	3.982237E-1	4.033352E-1	4.077801E-1	4.112630E-1	3.632295E-1	4.335210E-1	4.168928E-1	3.809332E-1	3.873107E-1	4.013598E-1	3.437226E-1	3.991757E-1	4.076432E-1	3.698789E-1
5.346870E+2	6.425828E-1	6.669640E-1	7.313939E-1	6.805925E-1	7.187989E-1	6.575181E-1	6.625666E-1	6.625992E-1	6.783951E-1	7.040579E-1	6.758037E-1	6.771405E-1	6.801655E-1	6.798267E-1	6.929417E-1	6.541584E-1	8.638460E-1	8.285217E-1	7.621337E-1	7.689578E-1	7.697775E-1	7.595067E-1	7.751921E-1	6.827980E-1	7.476675E-1	6.966944E-1	7.514374E-1	7.301478E-1	7.379850E-1	7.118052E-1	7.204889E-1	6.858046E-1	7.579899E-1	6.727836E-1	6.818009E-1	6.590279E-1	6.798613E-1	7.256418E-1	6.594803E-1	6.944076E-1	7.244119E-1	7.143994E-1	7.177736E-1	6.909984E-1	7.106581E-1	7.209839E-1	7.083151E-1	7.050764E-1	7.158920E-1	7.368280E-1	7.302687E-1	6.796511E-1	6.836149E-1	7.121946E-1	7.403456E-1	7.129409E-1	7.032598E-1	7.045611E-1	6.456232E-1	6.748312E-1	6.672126E-1	6.573322E-1	7.087318E-1	6.767680E-1	7.028383E-1	6.694813E-1	6.778457E-1	6.556801E-1	7.323002E-1	7.059050E-1	6.843531E-1	7.067178E-1	7.066104E-1	6.783442E-1	7.229324E-1	7.197617E-1	6.648063E-1	6.942059E-1	6.828762E-1	6.936170E-1	7.077389E-1	6.934887E-1	6.970108E-1	7.178520E-1	7.133145E-1	7.201829E-1	7.159432E-1	6.870459E-1	7.082040E-1	6.696712E-1	7.242055E-1	7.137186E-1	6.950376E-1	6.403421E-1	6.692134E-1	6.828694E-1	6.994325E-1	7.236277E-1	6.833868E-1	7.050538E-1	7.096021E-1	7.437175E-1	7.210288E-1	7.194231E-1	6.738325E-1	7.394629E-1	7.010420E-1	7.008108E-1	7.110024E-1	7.032876E-1	7.137660E-1	6.591398E-1	6.820055E-1	6.836533E-1	6.697286E-1	6.701359E-1	7.280707E-1	6.874431E-1	6.625800E-1	6.723081E-1	7.158074E-1	6.920966E-1	6.775694E-1	7.186866E-1	7.088587E-1	6.610417E-1	7.050791E-1	7.405168E-1	7.213567E-1	6.780291E-1	6.869910E-1	6.595059E-1	7.366285E-1	7.343642E-1	7.087620E-1	6.744782E-1	7.342737E-1	6.826741E-1	6.344914E-1	6.732897E-1	7.180840E-1	6.779248E-1	7.103446E-1	6.906982E-1	6.974375E-1	7.062474E-1	6.853522E-1	7.027162E-1	7.262937E-1	6.878226E-1	7.085531E-1	7.305067E-1	7.385050E-1	6.526541E-1	6.975300E-1	7.073648E-1	6.950371E-1	6.792588E-1	7.291707E-1	6.904242E-1	7.405630E-1	6.790571E-1	6.993966E-1	7.719266E-1	6.810133E-1
5.348070E+2	9.464356E-1	9.409351E-1	9.615735E-1	9.556422E-1	1.014615E+0	9.643706E-1	9.994395E-1	9.856492E-1	9.838013E-1	9.806019E-1	9.720502E-1	9.906484E-1	9.515020E-1	9.738856E-1	9.752162E-1	9.656753E-1	1.107545E+0	1.079632E+0	1.037682E+0	1.036968E+0	1.072554E+0	1.105527E+0	1.047502E+0	1.009399E+0	1.099656E+0	1.066323E+0	1.076042E+0	1.033859E+0	1.112433E+0	9.823267E-1	9.841041E-1	9.654236E-1	1.078685E+0	9.952015E-1	1.003368E+0	9.820180E-1	1.047883E+0	1.047013E+0	9.942992E-1	9.820778E-1	1.077705E+0	9.794103E-1	1.034629E+0	9.989939E-1	9.995250E-1	1.001655E+0	1.066663E+0	1.020646E+0	9.328155E-1	1.039411E+0	9.887627E-1	1.011644E+0	1.094013E+0	1.029176E+0	9.729308E-1	1.009737E+0	1.054766E+0	9.970173E-1	1.004357E+0	1.014920E+0	1.001070E+0	1.006733E+0	9.567865E-1	9.968533E-1	1.037448E+0	1.028050E+0	1.028280E+0	1.013013E+0	9.735271E-1	9.716015E-1	9.838610E-1	1.027508E+0	1.047163E+0	9.658012E-1	1.009812E+0	1.003876E+0	1.000115E+0	9.609026E-1	9.837706E-1	9.390786E-1	1.024088E+0	1.002905E+0	1.006439E+0	9.755856E-1	1.010637E+0	1.021312E+0	1.010803E+0	9.975757E-1	9.639790E-1	9.954138E-1	9.694419E-1	9.989273E-1	1.023992E+0	9.784110E-1	9.427775E-1	9.633150E-1	9.871336E-1	1.022979E+0	9.470556E-1	9.543970E-1	1.033179E+0	9.612084E-1	1.031674E+0	9.826679E-1	1.038011E+0	1.021554E+0	1.068357E+0	1.015381E+0	9.884455E-1	1.015590E+0	1.024194E+0	1.009940E+0	9.801872E-1	9.726134E-1	1.012840E+0	9.929902E-1	1.044278E+0	9.907310E-1	9.637215E-1	9.784883E-1	9.936531E-1	1.026767E+0	9.759704E-1	9.930939E-1	9.899432E-1	9.871537E-1	9.951144E-1	1.000052E+0	1.006404E+0	9.761091E-1	9.669872E-1	1.019806E+0	1.019196E+0	9.807594E-1	1.006996E+0	9.895910E-1	1.034363E+0	1.000545E+0	9.361467E-1	1.003796E+0	1.028891E+0	9.796788E-1	1.014739E+0	9.630826E-1	1.006734E+0	1.006670E+0	1.005808E+0	9.646593E-1	9.642982E-1	1.039200E+0	1.041005E+0	9.852564E-1	9.899623E-1	9.773773E-1	9.856664E-1	9.851483E-1	9.675052E-1	9.578270E-1	9.916628E-1	9.806034E-1	1.012264E+0	9.949447E-1	1.034875E+0	1.020479E+0	1.027462E+0
5.349630E+2	1.375415E+0	1.373651E+0	1.422270E+0	1.329630E+0	1.404505E+0	1.403971E+0	1.406297E+0	1.366668E+0	1.381208E+0	1.452832E+0	1.437689E+0	1.316369E+0	1.434137E+0	1.372972E+0	1.426101E+0	1.471061E+0	1.580103E+0	1.462876E+0	1.483989E+0	1.482950E+0	1.486302E+0	1.446828E+0	1.427201E+0	1.432192E+0	1.504174E+0	1.495068E+0	1.435257E+0	1.514879E+0	1.473654E+0	1.410097E+0	1.453590E+0	1.430798E+0	1.447825E+0	1.403846E+0	1.507284E+0	1.427039E+0	1.431804E+0	1.396932E+0	1.430572E+0	1.457793E+0	1.443999E+0	1.481041E+0	1.492206E+0	1.490015E+0	1.442658E+0	1.463004E+0	1.450251E+0	1.402452E+0	1.463397E+0	1.386935E+0	1.481593E+0	1.374489E+0	1.434139E+0	1.398774E+0	1.462636E+0	1.430461E+0	1.476332E+0	1.422537E+0	1.397027E+0	1.470863E+0	1.495114E+0	1.414005E+0	1.393063E+0	1.408210E+0	1.435527E+0	1.461685E+0	1.452522E+0	1.439345E+0	1.430344E+0	1.383174E+0	1.441703E+0	1.493587E+0	1.424693E+0	1.395710E+0	1.425969E+0	1.468329E+0	1.407193E+0	1.396196E+0	1.413630E+0	1.429626E+0	1.434073E+0	1.386785E+0	1.437177E+0	1.435298E+0	1.495804E+0	1.381521E+0	1.425643E+0	1.456335E+0	1.482709E+0	1.378719E+0	1.442324E+0	1.383504E+0	1.396191E+0	1.407489E+0	1.301948E+0	1.410337E+0	1.454287E+0	1.434688E+0	1.401716E+0	1.449604E+0	1.436162E+0	1.426856E+0	1.423147E+0	1.492567E+0	1.406909E+0	1.391307E+0	1.402094E+0	1.417259E+0	1.396091E+0	1.362101E+0	1.406466E+0	1.386558E+0	1.447056E+0	1.393820E+0	1.478268E+0	1.427711E+0	1.422314E+0	1.410890E+0	1.378697E+0	1.395032E+0	1.438078E+0	1.439127E+0	1.415091E+0	1.487440E+0	1.402218E+0	1.360067E+0	1.355990E+0	1.413723E+0	1.422631E+0	1.400820E+0	1.372081E+0	1.428229E+0	1.406264E+0	1.432996E+0	1.433331E+0	1.431473E+0	1.450291E+0	1.352877E+0	1.396715E+0	1.385326E+0	1.436433E+0	1.372243E+0	1.358160E+0	1.359783E+0	1.421118E+0	1.463500E+0	1.409177E+0	1.407241E+0	1.428639E+0	1.420943E+0	1.414755E+0	1.435258E+0	1.521097E+0	1.418150E+0	1.479427E+0	1.438271E+0	1.447953E+0	1.365211E+0	1.395702E+0	1.393277E+0	1.446938E+0	1.404674E+0	1.444271E+0	1.441309E+0	1.413890E+0
5.351090E+2	1.835958E+0	1.818861E+0	1.800624E+0	1.787799E+0	1.752545E+0	1.780643E+0	1.759523E+0	1.729772E+0	1.777544E+0	1.788371E+0	1.826360E+0	1.733576E+0	1.753692E+0	1.775237E+0	1.763552E+0	1.749730E+0	1.806041E+0	1.855657E+0	1.763132E+0	1.792675E+0	1.761566E+0	1.787867E+0	1.744142E+0	1.725836E+0	1.820432E+0	1.830937E+0	1.868065E+0	1.735391E+0	1.779675E+0	1.777947E+0	1.743752E+0	1.756373E+0	1.760318E+0	1.740754E+0	1.738693E+0	1.710638E+0	1.753874E+0	1.795563E+0	1.804605E+0	1.718993E+0	1.851398E+0	1.759813E+0	1.779700E+0	1.790686E+0	1.800969E+0	1.786331E+0	1.777626E+0	1.714803E+0	1.863900E+0	1.776781E+0	1.765615E+0	1.727967E+0	1.728194E+0	1.775019E+0	1.781513E+0	1.844612E+0	1.769669E+0	1.792112E+0	1.766180E+0	1.825530E+0	1.749468E+0	1.736699E+0	1.733807E+0	1.719414E+0	1.765934E+0	1.740411E+0	1.761520E+0	1.737964E+0	1.807435E+0	1.677515E+0	1.697314E+0	1.793684E+0	1.791627E+0	1.778488E+0	1.738903E+0	1.799456E+0	1.704261E+0	1.734585E+0	1.733707E+0	1.708533E+0	1.806391E+0	1.676848E+0	1.767591E+0	1.709328E+0	1.792121E+0	1.712633E+0	1.826643E+0	1.770694E+0	1.760403E+0	1.737782E+0	1.727190E+0	1.763817E+0	1.767009E+0	1.739758E+0	1.673646E+0	1.697836E+0	1.781655E+0	1.728840E+0	1.755978E+0	1.768312E+0	1.842754E+0	1.730565E+0	1.799674E+0	1.734652E+0	1.723337E+0	1.703560E+0	1.762292E+0	1.684537E+0	1.724458E+0	1.723254E+0	1.703978E+0	1.631549E+0	1.774419E+0	1.712903E+0	1.774043E+0	1.736850E+0	1.772087E+0	1.802522E+0	1.651774E+0	1.756066E+0	1.731380E+0	1.839924E+0	1.791583E+0	1.764283E+0	1.732227E+0	1.680956E+0	1.739764E+0	1.714399E+0	1.698373E+0	1.687524E+0	1.728101E+0	1.726172E+0	1.723719E+0	1.724296E+0	1.734565E+0	1.736037E+0	1.755095E+0	1.712007E+0	1.655852E+0	1.729028E+0	1.761824E+0	1.732399E+0	1.701221E+0	1.734835E+0	1.756651E+0	1.688669E+0	1.712734E+0	1.716685E+0	1.729273E+0	1.705200E+0	1.702842E+0	1.686173E+0	1.780301E+0	1.704083E+0	1.746293E+0	1.813022E+0	1.736572E+0	1.678648E+0	1.645189E+0	1.726777E+0	1.724867E+0	1.704768E+0	1.786941E+0	1.756423E+0	1.614038E+0
5.352650E+2	2.094634E+0	1.981327E+0	2.068660E+0	2.029845E+0	2.018933E+0	2.043695E+0	2.051326E+0	2.033811E+0	1.971207E+0	2.102462E+0	2.006081E+0	1.999884E+0	2.060805E+0	2.017181E+0	2.016901E+0	2.051873E+0	1.952741E+0	1.948476E+0	1.980945E+0	1.958589E+0	1.969831E+0	2.021756E+0	1.993563E+0	1.951928E+0	2.007376E+0	2.000649E+0	2.124324E+0	2.016742E+0	2.035428E+0	2.035232E+0	1.998106E+0	2.027439E+0	2.002503E+0	2.006912E+0	1.949725E+0	1.935864E+0	1.974484E+0	2.015105E+0	1.999213E+0	1.962431E+0	2.014833E+0	1.971361E+0	2.037876E+0	2.024545E+0	2.021737E+0	1.934640E+0	1.948119E+0	1.981417E+0	2.020651E+0	1.949868E+0	2.044901E+0	1.972549E+0	2.002879E+0	1.994958E+0	2.002892E+0	2.014727E+0	2.017179E+0	1.959779E+0	2.026293E+0	2.037538E+0	1.977953E+0	1.956135E+0	1.983220E+0	1.979992E+0	2.021598E+0	1.966110E+0	2.018935E+0	1.972713E+0	1.983067E+0	1.996942E+0	1.947334E+0	2.009987E+0	2.028608E+0	1.957275E+0	1.992377E+0	2.012706E+0	1.962722E+0	1.915891E+0	2.007314E+0	1.934958E+0	2.034551E+0	1.933590E+0	2.034533E+0	2.038017E+0	2.010127E+0	2.044003E+0	1.946295E+0	1.990874E+0	1.933287E+0	1.963773E+0	2.015987E+0	1.925464E+0	1.963649E+0	1.936900E+0	1.927475E+0	1.933687E+0	1.986147E+0	1.977496E+0	1.950052E+0	1.992904E+0	1.976174E+0	1.968706E+0	2.043771E+0	1.977851E+0	1.958874E+0	1.969110E+0	2.042473E+0	1.910725E+0	1.920297E+0	1.985816E+0	1.923038E+0	1.853725E+0	1.943027E+0	1.974217E+0	2.002309E+0	2.004081E+0	1.971219E+0	1.940000E+0	1.909799E+0	1.982834E+0	1.997088E+0	1.963511E+0	1.974294E+0	2.054700E+0	1.916883E+0	1.911818E+0	1.918665E+0	1.944746E+0	1.949947E+0	1.885456E+0	1.932333E+0	1.986798E+0	1.976850E+0	1.975295E+0	1.932253E+0	1.933613E+0	1.961422E+0	1.931251E+0	1.883591E+0	1.929797E+0	2.001869E+0	1.959346E+0	1.999767E+0	1.930858E+0	1.964754E+0	1.865923E+0	1.952133E+0	1.957443E+0	1.958013E+0	1.886815E+0	1.968550E+0	1.947838E+0	2.044238E+0	1.925310E+0	2.002752E+0	1.978421E+0	1.958150E+0	1.862849E+0	1.976368E+0	1.902873E+0	2.004368E+0	1.934331E+0	1.968289E+0	2.007443E+0	1.931617E+0
5.354170E+2	2.065835E+0	2.003593E+0	2.023908E+0	1.919203E+0	1.992825E+0	2.086955E+0	2.075995E+0	1.997710E+0	2.008201E+0	2.056639E+0	2.037771E+0	2.052097E+0	2.053360E+0	1.947162E+0	2.075922E+0	1.981823E+0	1.919427E+0	1.953445E+0	1.953718E+0	1.931148E+0	1.965730E+0	1.922973E+0	1.990137E+0	1.958432E+0	2.021338E+0	2.047617E+0	2.076963E+0	2.000998E+0	1.994025E+0	1.979363E+0	2.013295E+0	1.910747E+0	2.086827E+0	1.950034E+0	1.928524E+0	1.984997E+0	1.950745E+0	2.017822E+0	2.005549E+0	2.001192E+0	1.965222E+0	1.954946E+0	1.995120E+0	1.966544E+0	1.982545E+0	2.002947E+0	1.974304E+0	1.920862E+0	1.952114E+0	1.965592E+0	1.943450E+0	1.968249E+0	2.031560E+0	2.047767E+0	2.016676E+0	1.946981E+0	1.950992E+0	2.036627E+0	2.026540E+0	2.089211E+0	2.047567E+0	1.920630E+0	2.029735E+0	1.927060E+0	2.001166E+0	1.951824E+0	1.959506E+0	1.951017E+0	2.010239E+0	1.922585E+0	1.928391E+0	2.002339E+0	1.959246E+0	1.974418E+0	1.967130E+0	1.969067E+0	1.980351E+0	1.917275E+0	1.944737E+0	1.954098E+0	1.999519E+0	1.952964E+0	1.965858E+0	2.006238E+0	2.027349E+0	1.978202E+0	2.000610E+0	1.909846E+0	1.969558E+0	1.977506E+0	1.964153E+0	1.912369E+0	1.975285E+0	1.957280E+0	1.927120E+0	1.930589E+0	2.038665E+0	1.942612E+0	1.999092E+0	1.953714E+0	1.950412E+0	1.942499E+0	1.983870E+0	2.019072E+0	1.867059E+0	2.008344E+0	1.983505E+0	1.937289E+0	1.927492E+0	1.950606E+0	1.976156E+0	1.885604E+0	1.976806E+0	1.948604E+0	1.984977E+0	1.883128E+0	1.934590E+0	1.998522E+0	1.954022E+0	1.959958E+0	1.953422E+0	1.880588E+0	1.906925E+0	1.931531E+0	1.949697E+0	1.892474E+0	1.945904E+0	1.945281E+0	1.947648E+0	1.902533E+0	1.934294E+0	1.899864E+0	1.876752E+0	1.972755E+0	1.922608E+0	1.962609E+0	2.026734E+0	1.961913E+0	1.909767E+0	1.962461E+0	1.965416E+0	1.938618E+0	2.007242E+0	1.899750E+0	1.978969E+0	1.878169E+0	1.917632E+0	1.944706E+0	1.891987E+0	1.949488E+0	1.981053E+0	1.956765E+0	1.928959E+0	1.849941E+0	2.037171E+0	1.958192E+0	1.925454E+0	1.955900E+0	1.885973E+0	1.992817E+0	1.967148E+0	1.953638E+0	1.962017E+0	1.820699E+0	1.904138E+0
5.355630E+2	1.841491E+0	1.916439E+0	1.891892E+0	1.874602E+0	1.875553E+0	1.936970E+0	1.887819E+0	1.843425E+0	1.896055E+0	1.865319E+0	1.893998E+0	1.872830E+0	1.918279E+0	1.874489E+0	1.885004E+0	1.900683E+0	1.782530E+0	1.862036E+0	1.871541E+0	1.811445E+0	1.789369E+0	1.911729E+0	1.822198E+0	1.807383E+0	1.938650E+0	1.908083E+0	1.854630E+0	1.874066E+0	1.840073E+0	1.843191E+0	1.872953E+0	1.796186E+0	1.899163E+0	1.832638E+0	1.908285E+0	1.852549E+0	1.851147E+0	1.933875E+0	1.899108E+0	1.852850E+0	1.857190E+0	1.890875E+0	1.874138E+0	1.871445E+0	1.844233E+0	1.842480E+0	1.830919E+0	1.788231E+0	1.866451E+0	1.910148E+0	1.831317E+0	1.865642E+0	1.812781E+0	1.964667E+0	1.920022E+0	1.918535E+0	1.852288E+0	1.895226E+0	1.827333E+0	1.914414E+0	1.849571E+0	1.816092E+0	1.860550E+0	1.869882E+0	1.893077E+0	1.853291E+0	1.867916E+0	1.800419E+0	1.855171E+0	1.770675E+0	1.848283E+0	1.825367E+0	1.853558E+0	1.804202E+0	1.832445E+0	1.843445E+0	1.845881E+0	1.793759E+0	1.826658E+0	1.810711E+0	1.858968E+0	1.865560E+0	1.838963E+0	1.854986E+0	1.923502E+0	1.902845E+0	1.858704E+0	1.852557E+0	1.840248E+0	1.829806E+0	1.769729E+0	1.885260E+0	1.850501E+0	1.751666E+0	1.809099E+0	1.840917E+0	1.857984E+0	1.891138E+0	1.861967E+0	1.869301E+0	1.819248E+0	1.859472E+0	1.892982E+0	1.841143E+0	1.773560E+0	1.844948E+0	1.806027E+0	1.780646E+0	1.794054E+0	1.889434E+0	1.827485E+0	1.817987E+0	1.844354E+0	1.776592E+0	1.879587E+0	1.846122E+0	1.849008E+0	1.860671E+0	1.764272E+0	1.902886E+0	1.791990E+0	1.814037E+0	1.809067E+0	1.899239E+0	1.823199E+0	1.753217E+0	1.846310E+0	1.808128E+0	1.797836E+0	1.775692E+0	1.781934E+0	1.806409E+0	1.811381E+0	1.789311E+0	1.871578E+0	1.868081E+0	1.861729E+0	1.844468E+0	1.732983E+0	1.815858E+0	1.858724E+0	1.749646E+0	1.796723E+0	1.843674E+0	1.848272E+0	1.819366E+0	1.766419E+0	1.769923E+0	1.856848E+0	1.779129E+0	1.828781E+0	1.840647E+0	1.773326E+0	1.808576E+0	1.901639E+0	1.858652E+0	1.820473E+0	1.799224E+0	1.832886E+0	1.825176E+0	1.893243E+0	1.778164E+0	1.785259E+0	1.747660E+0	1.822664E+0
5.357090E+2	1.641726E+0	1.631914E+0	1.751666E+0	1.679930E+0	1.650608E+0	1.748137E+0	1.683679E+0	1.706127E+0	1.663502E+0	1.690535E+0	1.692240E+0	1.688770E+0	1.688597E+0	1.692399E+0	1.680828E+0	1.688839E+0	1.584762E+0	1.651221E+0	1.607991E+0	1.631081E+0	1.638284E+0	1.749819E+0	1.647609E+0	1.621312E+0	1.635649E+0	1.740695E+0	1.671451E+0	1.703221E+0	1.632329E+0	1.691201E+0	1.631427E+0	1.623095E+0	1.703338E+0	1.593940E+0	1.670143E+0	1.662317E+0	1.715015E+0	1.636912E+0	1.668077E+0	1.648569E+0	1.663532E+0	1.664417E+0	1.611237E+0	1.656836E+0	1.670772E+0	1.651744E+0	1.672715E+0	1.618672E+0	1.698795E+0	1.739160E+0	1.623169E+0	1.645674E+0	1.684725E+0	1.734656E+0	1.651055E+0	1.612770E+0	1.699832E+0	1.618935E+0	1.661812E+0	1.640455E+0	1.624158E+0	1.670741E+0	1.625193E+0	1.651068E+0	1.681673E+0	1.614901E+0	1.696085E+0	1.699215E+0	1.661044E+0	1.607348E+0	1.697207E+0	1.685765E+0	1.658218E+0	1.595839E+0	1.698491E+0	1.671651E+0	1.622448E+0	1.605515E+0	1.630871E+0	1.646322E+0	1.695610E+0	1.642193E+0	1.674644E+0	1.601345E+0	1.641307E+0	1.656097E+0	1.694731E+0	1.670707E+0	1.657653E+0	1.676104E+0	1.668778E+0	1.656911E+0	1.609223E+0	1.616793E+0	1.647981E+0	1.672654E+0	1.712072E+0	1.602163E+0	1.642721E+0	1.661946E+0	1.621291E+0	1.681569E+0	1.673493E+0	1.692655E+0	1.624522E+0	1.691052E+0	1.631525E+0	1.624093E+0	1.633655E+0	1.629066E+0	1.644739E+0	1.605768E+0	1.624179E+0	1.654685E+0	1.654015E+0	1.694198E+0	1.658051E+0	1.621726E+0	1.606825E+0	1.630846E+0	1.576981E+0	1.620111E+0	1.706273E+0	1.664092E+0	1.695535E+0	1.642880E+0	1.670854E+0	1.626238E+0	1.602409E+0	1.615553E+0	1.667765E+0	1.607332E+0	1.663879E+0	1.650494E+0	1.580051E+0	1.674346E+0	1.579982E+0	1.586457E+0	1.618272E+0	1.658081E+0	1.662115E+0	1.643116E+0	1.615607E+0	1.587262E+0	1.603040E+0	1.628826E+0	1.641354E+0	1.620451E+0	1.604557E+0	1.637611E+0	1.626058E+0	1.601320E+0	1.597477E+0	1.696007E+0	1.664356E+0	1.644173E+0	1.587169E+0	1.662044E+0	1.607273E+0	1.580867E+0	1.708462E+0	1.626947E+0	1.644331E+0	1.627276E+0	1.733266E+0
5.358550E+2	1.560590E+0	1.506449E+0	1.467235E+0	1.459910E+0	1.479977E+0	1.545763E+0	1.536070E+0	1.457973E+0	1.429789E+0	1.425245E+0	1.479794E+0	1.426883E+0	1.464265E+0	1.566367E+0	1.471600E+0	1.446286E+0	1.491249E+0	1.437490E+0	1.410223E+0	1.419934E+0	1.441482E+0	1.486255E+0	1.434412E+0	1.400934E+0	1.468551E+0	1.533501E+0	1.511779E+0	1.517419E+0	1.497350E+0	1.445113E+0	1.506680E+0	1.472228E+0	1.528095E+0	1.455341E+0	1.485684E+0	1.532755E+0	1.465074E+0	1.475262E+0	1.506400E+0	1.496017E+0	1.535527E+0	1.423253E+0	1.514263E+0	1.487187E+0	1.493303E+0	1.441943E+0	1.485632E+0	1.451368E+0	1.505207E+0	1.462061E+0	1.541548E+0	1.412741E+0	1.445376E+0	1.466344E+0	1.494463E+0	1.438741E+0	1.503723E+0	1.445443E+0	1.404996E+0	1.497275E+0	1.506248E+0	1.397002E+0	1.442602E+0	1.423917E+0	1.465464E+0	1.463497E+0	1.474355E+0	1.472281E+0	1.502015E+0	1.452571E+0	1.472544E+0	1.498651E+0	1.449772E+0	1.412767E+0	1.474668E+0	1.479524E+0	1.431275E+0	1.461088E+0	1.506485E+0	1.486748E+0	1.468292E+0	1.418007E+0	1.432994E+0	1.426368E+0	1.493148E+0	1.438354E+0	1.483009E+0	1.508904E+0	1.473663E+0	1.509290E+0	1.429925E+0	1.503286E+0	1.428813E+0	1.397841E+0	1.475116E+0	1.435724E+0	1.453755E+0	1.471696E+0	1.432895E+0	1.434863E+0	1.461582E+0	1.452558E+0	1.427284E+0	1.475733E+0	1.372720E+0	1.485124E+0	1.416693E+0	1.453483E+0	1.483152E+0	1.469636E+0	1.456635E+0	1.427714E+0	1.429859E+0	1.492738E+0	1.502551E+0	1.466447E+0	1.510117E+0	1.447959E+0	1.382866E+0	1.464014E+0	1.456527E+0	1.443297E+0	1.465212E+0	1.475294E+0	1.427938E+0	1.464992E+0	1.452265E+0	1.451863E+0	1.467587E+0	1.429100E+0	1.468323E+0	1.467459E+0	1.444073E+0	1.455680E+0	1.422109E+0	1.450077E+0	1.450773E+0	1.507268E+0	1.470474E+0	1.479484E+0	1.520487E+0	1.431565E+0	1.447522E+0	1.409971E+0	1.469742E+0	1.444864E+0	1.437080E+0	1.470874E+0	1.476422E+0	1.439345E+0	1.479916E+0	1.499448E+0	1.458674E+0	1.435845E+0	1.477947E+0	1.432852E+0	1.433518E+0	1.460009E+0	1.438506E+0	1.470939E+0	1.450769E+0	1.411919E+0	1.473077E+0	1.436482E+0	1.549490E+0
5.360170E+2	1.268409E+0	1.236977E+0	1.247694E+0	1.242227E+0	1.236591E+0	1.286568E+0	1.250531E+0	1.216855E+0	1.222892E+0	1.275597E+0	1.215684E+0	1.179191E+0	1.240156E+0	1.185347E+0	1.245305E+0	1.181663E+0	1.249602E+0	1.209818E+0	1.207320E+0	1.164308E+0	1.210871E+0	1.256606E+0	1.223175E+0	1.179620E+0	1.236538E+0	1.272247E+0	1.212225E+0	1.263243E+0	1.218085E+0	1.219326E+0	1.271253E+0	1.187666E+0	1.268097E+0	1.216282E+0	1.256456E+0	1.161671E+0	1.253898E+0	1.229392E+0	1.240457E+0	1.203098E+0	1.190903E+0	1.249457E+0	1.241962E+0	1.286606E+0	1.227253E+0	1.252043E+0	1.248726E+0	1.166903E+0	1.168837E+0	1.167704E+0	1.259296E+0	1.224624E+0	1.256850E+0	1.255748E+0	1.167395E+0	1.168385E+0	1.206834E+0	1.222469E+0	1.239794E+0	1.226554E+0	1.226452E+0	1.186393E+0	1.180780E+0	1.246385E+0	1.232732E+0	1.267532E+0	1.232157E+0	1.153800E+0	1.210009E+0	1.226864E+0	1.202849E+0	1.226426E+0	1.255273E+0	1.170151E+0	1.183667E+0	1.261483E+0	1.193797E+0	1.196806E+0	1.211669E+0	1.180703E+0	1.260854E+0	1.170503E+0	1.216781E+0	1.200944E+0	1.244173E+0	1.177241E+0	1.210629E+0	1.167889E+0	1.200608E+0	1.191072E+0	1.206773E+0	1.175751E+0	1.229702E+0	1.165961E+0	1.161818E+0	1.225044E+0	1.230024E+0	1.228588E+0	1.250137E+0	1.207737E+0	1.220085E+0	1.236531E+0	1.263690E+0	1.248913E+0	1.214478E+0	1.244586E+0	1.174810E+0	1.180255E+0	1.259500E+0	1.207432E+0	1.200273E+0	1.214102E+0	1.210614E+0	1.217112E+0	1.243064E+0	1.241936E+0	1.225274E+0	1.212106E+0	1.188725E+0	1.232780E+0	1.192825E+0	1.226353E+0	1.216666E+0	1.223322E+0	1.219700E+0	1.211137E+0	1.140896E+0	1.239752E+0	1.245221E+0	1.184341E+0	1.199715E+0	1.198510E+0	1.192095E+0	1.255628E+0	1.183886E+0	1.222526E+0	1.216769E+0	1.222868E+0	1.208081E+0	1.239573E+0	1.244163E+0	1.243394E+0	1.239617E+0	1.248887E+0	1.181844E+0	1.178498E+0	1.224809E+0	1.204581E+0	1.206379E+0	1.193437E+0	1.214762E+0	1.234695E+0	1.225226E+0	1.229216E+0	1.250757E+0	1.267092E+0	1.250796E+0	1.198935E+0	1.207135E+0	1.184183E+0	1.252272E+0	1.205254E+0	1.274080E+0	1.191502E+0	1.185466E+0
5.362580E+2	8.619304E-1	9.105029E-1	9.024990E-1	8.837328E-1	9.040656E-1	9.217720E-1	8.896718E-1	9.206390E-1	9.404779E-1	9.475676E-1	9.051581E-1	9.260914E-1	9.511726E-1	9.322338E-1	9.308856E-1	9.116356E-1	9.193385E-1	8.998984E-1	8.892478E-1	8.916980E-1	8.840087E-1	9.256720E-1	8.723136E-1	8.856805E-1	9.860570E-1	9.531654E-1	8.968862E-1	9.182315E-1	9.422956E-1	9.192321E-1	9.319987E-1	9.427243E-1	9.244603E-1	9.006980E-1	9.384526E-1	8.886762E-1	9.230744E-1	9.752264E-1	9.374798E-1	9.197456E-1	9.723382E-1	9.187465E-1	9.239217E-1	9.270551E-1	9.372091E-1	9.475758E-1	9.320118E-1	9.122060E-1	9.002842E-1	9.337256E-1	9.079862E-1	9.151075E-1	9.360777E-1	9.407944E-1	9.364078E-1	9.262487E-1	9.260048E-1	9.363174E-1	9.764749E-1	9.354072E-1	9.336726E-1	8.837129E-1	9.104494E-1	9.148155E-1	9.453941E-1	9.289941E-1	9.087197E-1	9.090243E-1	9.605145E-1	8.963393E-1	8.935646E-1	9.234988E-1	9.277952E-1	8.912186E-1	9.171829E-1	9.575675E-1	8.981006E-1	9.210945E-1	9.125061E-1	9.094560E-1	9.278897E-1	8.926516E-1	9.606162E-1	9.106118E-1	9.446266E-1	9.200759E-1	9.231965E-1	9.433518E-1	9.393671E-1	8.844303E-1	9.304922E-1	8.851992E-1	9.178839E-1	9.068023E-1	9.229109E-1	9.075608E-1	9.401183E-1	9.286016E-1	9.376760E-1	9.021735E-1	8.990128E-1	9.220895E-1	9.561266E-1	9.495453E-1	9.426282E-1	9.337595E-1	9.620461E-1	9.393043E-1	9.089023E-1	8.771232E-1	9.635716E-1	8.842698E-1	9.168658E-1	9.352310E-1	9.338516E-1	9.388080E-1	9.266831E-1	9.565915E-1	9.128558E-1	9.368174E-1	9.163597E-1	9.629303E-1	9.065984E-1	9.534794E-1	9.034541E-1	8.612663E-1	8.884576E-1	9.433491E-1	9.168022E-1	9.254559E-1	9.100214E-1	9.064553E-1	9.580302E-1	9.236912E-1	9.184029E-1	9.648896E-1	9.374919E-1	9.481700E-1	9.203294E-1	9.464584E-1	9.364927E-1	9.309352E-1	9.805221E-1	9.232710E-1	9.283695E-1	8.966944E-1	9.182473E-1	9.291951E-1	9.245524E-1	9.320453E-1	9.285165E-1	9.605691E-1	9.301025E-1	9.504368E-1	1.030060E+0	9.106401E-1	9.133533E-1	9.355422E-1	9.081767E-1	9.453531E-1	9.622749E-1	8.670799E-1	8.979576E-1	9.860780E-1	9.361537E-1
5.365090E+2	6.963482E-1	6.751530E-1	7.238365E-1	6.942607E-1	7.294044E-1	7.186148E-1	6.947932E-1	7.241145E-1	6.859855E-1	7.055791E-1	7.542510E-1	6.757670E-1	7.276552E-1	7.079954E-1	7.296235E-1	7.538472E-1	6.947620E-1	6.970992E-1	7.302255E-1	6.941817E-1	7.208811E-1	7.325043E-1	6.903260E-1	7.033766E-1	7.027361E-1	7.534816E-1	7.677237E-1	7.527914E-1	7.306624E-1	6.934400E-1	7.541405E-1	7.089162E-1	7.265669E-1	6.659080E-1	6.991701E-1	6.765617E-1	7.240431E-1	7.018466E-1	7.309973E-1	6.916460E-1	7.030345E-1	7.237140E-1	7.642039E-1	6.807607E-1	7.296467E-1	7.370547E-1	6.991033E-1	6.644211E-1	7.298508E-1	6.998200E-1	7.204007E-1	7.251261E-1	7.064608E-1	7.085235E-1	7.056562E-1	7.465105E-1	7.167226E-1	7.087500E-1	7.467876E-1	7.371498E-1	7.485051E-1	7.339336E-1	6.989193E-1	6.972099E-1	7.330653E-1	7.723574E-1	7.063357E-1	6.792840E-1	7.147493E-1	7.000626E-1	7.007577E-1	6.944030E-1	7.194511E-1	6.639267E-1	7.008310E-1	7.501479E-1	7.157586E-1	7.134551E-1	7.599622E-1	6.981710E-1	7.340316E-1	7.421366E-1	7.394606E-1	7.506080E-1	7.248271E-1	7.192520E-1	7.362755E-1	7.042597E-1	7.477488E-1	7.199800E-1	6.844844E-1	6.878552E-1	6.811196E-1	6.941089E-1	7.364829E-1	7.586433E-1	7.254062E-1	6.804146E-1	7.349560E-1	6.879079E-1	7.161694E-1	7.352950E-1	7.475033E-1	7.078356E-1	6.758589E-1	7.322284E-1	7.257508E-1	7.486216E-1	6.840755E-1	7.133832E-1	6.877576E-1	7.106102E-1	7.092529E-1	7.206343E-1	7.105052E-1	7.095960E-1	7.077317E-1	7.239855E-1	7.276896E-1	7.433648E-1	7.399132E-1	7.157961E-1	7.061557E-1	7.837384E-1	7.060725E-1	7.128043E-1	7.803133E-1	7.513364E-1	6.889068E-1	7.159482E-1	6.788496E-1	7.198027E-1	7.036977E-1	7.806955E-1	6.968921E-1	6.961693E-1	7.437976E-1	7.482282E-1	7.107208E-1	7.269991E-1	7.374838E-1	7.055503E-1	7.167765E-1	7.239133E-1	7.252940E-1	7.165019E-1	7.070426E-1	7.067637E-1	7.250806E-1	7.075863E-1	7.423475E-1	7.360399E-1	7.126865E-1	7.247537E-1	7.677773E-1	7.038962E-1	6.948076E-1	7.017509E-1	7.458168E-1	7.331042E-1	7.425275E-1	7.515190E-1	6.892650E-1	7.092285E-1	6.998871E-1
5.367600E+2	5.494249E-1	6.008361E-1	5.862734E-1	5.322210E-1	6.050245E-1	5.712466E-1	5.788438E-1	5.491671E-1	5.634808E-1	5.660612E-1	5.655466E-1	5.634906E-1	5.889188E-1	5.858225E-1	6.060833E-1	5.687829E-1	6.108287E-1	5.730923E-1	5.603506E-1	5.963140E-1	5.668012E-1	6.098118E-1	5.686525E-1	5.540533E-1	5.869305E-1	5.864699E-1	5.748611E-1	6.400510E-1	6.039869E-1	5.730335E-1	5.808459E-1	5.801230E-1	6.143292E-1	5.764903E-1	5.540424E-1	5.656592E-1	6.066369E-1	5.652753E-1	6.089989E-1	5.694626E-1	6.211912E-1	5.790992E-1	5.683868E-1	5.905387E-1	5.979841E-1	5.618024E-1	5.714548E-1	6.172836E-1	5.949195E-1	5.883332E-1	5.532763E-1	5.682860E-1	6.080801E-1	5.745735E-1	6.110547E-1	5.999848E-1	5.815726E-1	6.015398E-1	5.749645E-1	6.190086E-1	5.866509E-1	5.710291E-1	5.858470E-1	5.778158E-1	6.067165E-1	5.790440E-1	5.976430E-1	6.255333E-1	5.580650E-1	5.811104E-1	5.986337E-1	5.894957E-1	5.518398E-1	5.674322E-1	6.264308E-1	5.900173E-1	6.101448E-1	5.656925E-1	5.948468E-1	5.669277E-1	5.660647E-1	6.047758E-1	6.003563E-1	6.058362E-1	6.065601E-1	5.565491E-1	6.231046E-1	5.742371E-1	5.955503E-1	6.220370E-1	5.719400E-1	5.557340E-1	6.180902E-1	5.764949E-1	5.666845E-1	5.855748E-1	6.010763E-1	5.766611E-1	5.617705E-1	5.810028E-1	5.874773E-1	6.003720E-1	6.061865E-1	5.980101E-1	6.233132E-1	6.135206E-1	6.222434E-1	5.487570E-1	6.032069E-1	5.979912E-1	6.026454E-1	5.577308E-1	5.981299E-1	5.840862E-1	5.359521E-1	6.095745E-1	6.241014E-1	6.223162E-1	5.725213E-1	5.476939E-1	5.733363E-1	6.265824E-1	6.122348E-1	5.543730E-1	5.874722E-1	5.729781E-1	6.021923E-1	6.267185E-1	6.030087E-1	6.258137E-1	5.997344E-1	5.672670E-1	6.098105E-1	6.013008E-1	6.029754E-1	5.576952E-1	5.963312E-1	5.895010E-1	5.958893E-1	5.795097E-1	6.150303E-1	5.792496E-1	5.831257E-1	5.922423E-1	6.046246E-1	5.654847E-1	6.226714E-1	5.625004E-1	6.171916E-1	5.882429E-1	6.528031E-1	5.932789E-1	6.088554E-1	6.027972E-1	6.246960E-1	6.012822E-1	6.103568E-1	5.805304E-1	6.362524E-1	5.933867E-1	5.909656E-1	5.979486E-1	6.300699E-1	6.729246E-1	4.968082E-1
5.370280E+2	5.108852E-1	5.107213E-1	5.479135E-1	4.737428E-1	4.988840E-1	4.981589E-1	5.252459E-1	4.860962E-1	4.849482E-1	5.044354E-1	4.849602E-1	4.969648E-1	5.076002E-1	4.933159E-1	5.411522E-1	5.301456E-1	5.329200E-1	5.224867E-1	5.304043E-1	5.313913E-1	5.282823E-1	5.367561E-1	5.085514E-1	4.932770E-1	5.269167E-1	5.400750E-1	4.888820E-1	5.094468E-1	5.079619E-1	5.360791E-1	4.951445E-1	4.947938E-1	5.498955E-1	5.022041E-1	5.366837E-1	4.967998E-1	5.066743E-1	5.127130E-1	5.295780E-1	5.020104E-1	5.346020E-1	4.885990E-1	5.230041E-1	5.091122E-1	5.071429E-1	5.140395E-1	5.035183E-1	5.013200E-1	5.297812E-1	5.058410E-1	5.185480E-1	5.084173E-1	5.268379E-1	5.126871E-1	4.987876E-1	5.233314E-1	5.139083E-1	4.814389E-1	4.982467E-1	5.095678E-1	5.015591E-1	5.287311E-1	5.224249E-1	4.831257E-1	5.372969E-1	5.215884E-1	5.082118E-1	5.065850E-1	5.387373E-1	5.202714E-1	5.199306E-1	5.338887E-1	5.556513E-1	4.969345E-1	5.145073E-1	5.074479E-1	5.226662E-1	5.338401E-1	5.286097E-1	5.072763E-1	5.453968E-1	5.186744E-1	5.347592E-1	5.532547E-1	5.485473E-1	5.116057E-1	5.168827E-1	5.219208E-1	5.153746E-1	5.418853E-1	5.202084E-1	4.967774E-1	5.351971E-1	5.242174E-1	5.629117E-1	5.264160E-1	5.218782E-1	4.999507E-1	5.078879E-1	5.187115E-1	4.942602E-1	5.463256E-1	5.175617E-1	5.115107E-1	5.077302E-1	5.272531E-1	5.327325E-1	4.885532E-1	5.225935E-1	5.298583E-1	5.008798E-1	4.878113E-1	5.309671E-1	5.319478E-1	5.117507E-1	5.352524E-1	5.152427E-1	5.195274E-1	5.394578E-1	5.051117E-1	5.359214E-1	5.381392E-1	4.892914E-1	5.577872E-1	5.078945E-1	5.373977E-1	5.004268E-1	5.436642E-1	5.335306E-1	5.484507E-1	5.062978E-1	5.270161E-1	5.252194E-1	5.432051E-1	5.348627E-1	4.999414E-1	5.247685E-1	5.156042E-1	4.756637E-1	4.642037E-1	5.181817E-1	5.164973E-1	5.276071E-1	5.043544E-1	5.076324E-1	5.360213E-1	5.284169E-1	5.362034E-1	5.315522E-1	5.308156E-1	5.420981E-1	4.613058E-1	5.216577E-1	5.423016E-1	5.625486E-1	5.356609E-1	4.877809E-1	5.349457E-1	5.094028E-1	5.330612E-1	5.740781E-1	4.941330E-1	5.368695E-1	5.141447E-1	5.584925E-1
5.372640E+2	5.059802E-1	4.826926E-1	5.001877E-1	5.077200E-1	5.149173E-1	5.032024E-1	5.264135E-1	5.446958E-1	4.980962E-1	5.002875E-1	5.276086E-1	5.375469E-1	5.144490E-1	4.900968E-1	5.118697E-1	5.377612E-1	5.488432E-1	5.367894E-1	5.059075E-1	4.744805E-1	5.224543E-1	5.210706E-1	5.007667E-1	4.813372E-1	5.472419E-1	5.241811E-1	5.195606E-1	5.094513E-1	4.858875E-1	5.339864E-1	5.359598E-1	5.144761E-1	5.357611E-1	4.921570E-1	5.064746E-1	4.988353E-1	5.137211E-1	4.989102E-1	4.917347E-1	5.084576E-1	5.029466E-1	5.430695E-1	5.126621E-1	5.321204E-1	5.106472E-1	5.324366E-1	5.141328E-1	4.953241E-1	5.051231E-1	5.008976E-1	5.874692E-1	4.972335E-1	5.277207E-1	4.975676E-1	4.901899E-1	5.173925E-1	5.313600E-1	5.165135E-1	5.279369E-1	5.330480E-1	4.788688E-1	5.255747E-1	5.061005E-1	4.905807E-1	5.412801E-1	5.275760E-1	5.175644E-1	5.053520E-1	5.081508E-1	5.378762E-1	5.308891E-1	5.394046E-1	4.628949E-1	5.113493E-1	5.273940E-1	5.094849E-1	5.384237E-1	5.105413E-1	5.174268E-1	4.961152E-1	5.148107E-1	5.134793E-1	5.273245E-1	4.808460E-1	5.226562E-1	4.878235E-1	5.510643E-1	5.198644E-1	5.327114E-1	5.136166E-1	5.164685E-1	4.495611E-1	5.312539E-1	5.092417E-1	4.963383E-1	4.736287E-1	5.275554E-1	5.039345E-1	5.361764E-1	5.318922E-1	5.025817E-1	5.483645E-1	5.062311E-1	4.872671E-1	4.972310E-1	5.043539E-1	5.144561E-1	4.765946E-1	5.119961E-1	4.986804E-1	5.191454E-1	5.140826E-1	5.154465E-1	5.126036E-1	5.149536E-1	4.804486E-1	5.253470E-1	5.400185E-1	5.390567E-1	5.338197E-1	5.030266E-1	5.021625E-1	5.228455E-1	5.358739E-1	5.302971E-1	5.710746E-1	5.212821E-1	5.252097E-1	5.282625E-1	4.910485E-1	5.382297E-1	5.159417E-1	5.326231E-1	4.933925E-1	5.226010E-1	4.971189E-1	5.467025E-1	5.055601E-1	5.006235E-1	5.124974E-1	5.393750E-1	5.343432E-1	5.194411E-1	5.147931E-1	5.088352E-1	5.300036E-1	5.093042E-1	5.013058E-1	4.744292E-1	5.359920E-1	5.405906E-1	5.252543E-1	5.011832E-1	5.057011E-1	5.041467E-1	5.444283E-1	5.017219E-1	5.192409E-1	4.821723E-1	5.302873E-1	5.165358E-1	5.415214E-1	5.311533E-1	4.952399E-1	4.971496E-1
5.375060E+2	4.949258E-1	5.160804E-1	5.094579E-1	5.196471E-1	4.930103E-1	5.323982E-1	5.549703E-1	5.040423E-1	5.254805E-1	5.353212E-1	5.363278E-1	5.387982E-1	5.339654E-1	5.325135E-1	5.390984E-1	4.956598E-1	5.312562E-1	5.746977E-1	5.564240E-1	5.369268E-1	5.144098E-1	5.431799E-1	5.581436E-1	5.043362E-1	5.456010E-1	5.598204E-1	5.156697E-1	5.390745E-1	4.913957E-1	5.472968E-1	5.153860E-1	5.293041E-1	5.271221E-1	5.081618E-1	5.784696E-1	5.279127E-1	4.973106E-1	5.547423E-1	5.646622E-1	5.119231E-1	5.297080E-1	5.397077E-1	5.162348E-1	5.489519E-1	5.258950E-1	5.341665E-1	5.005520E-1	5.420237E-1	5.549568E-1	5.297914E-1	5.515204E-1	5.425787E-1	5.516920E-1	5.378775E-1	5.349311E-1	5.237407E-1	5.302238E-1	5.189388E-1	5.256953E-1	5.336412E-1	5.309723E-1	5.492457E-1	5.223573E-1	5.330236E-1	5.681393E-1	5.271146E-1	5.183751E-1	5.565170E-1	5.580339E-1	5.167713E-1	5.304487E-1	5.106498E-1	5.233356E-1	5.304542E-1	5.344077E-1	5.286456E-1	5.504593E-1	5.155598E-1	5.104286E-1	5.153311E-1	5.468817E-1	5.324812E-1	5.306903E-1	5.459406E-1	5.395069E-1	5.094166E-1	5.282062E-1	5.159636E-1	5.699160E-1	5.268162E-1	5.390927E-1	5.408375E-1	5.593702E-1	5.088230E-1	5.405032E-1	5.148644E-1	5.431485E-1	5.303727E-1	5.370621E-1	5.111355E-1	5.418253E-1	5.485800E-1	5.331567E-1	5.666380E-1	5.235683E-1	5.240320E-1	5.399412E-1	5.390240E-1	5.472782E-1	5.390309E-1	4.985092E-1	5.221157E-1	5.474220E-1	5.231635E-1	5.282718E-1	5.427939E-1	5.220793E-1	5.414442E-1	5.314983E-1	4.976802E-1	5.431612E-1	5.588738E-1	5.476150E-1	5.296435E-1	5.461261E-1	5.335628E-1	5.415739E-1	5.294970E-1	5.035748E-1	5.122646E-1	5.300074E-1	5.688971E-1	5.419705E-1	5.574148E-1	5.247800E-1	5.149094E-1	5.208722E-1	5.213812E-1	5.340069E-1	5.336901E-1	5.441735E-1	5.610624E-1	5.138840E-1	5.343965E-1	5.539500E-1	4.817871E-1	5.396988E-1	5.285744E-1	5.462799E-1	5.208602E-1	5.703095E-1	5.664888E-1	5.467132E-1	5.565829E-1	5.760716E-1	5.399177E-1	5.170772E-1	5.244281E-1	5.089310E-1	5.392728E-1	5.492950E-1	5.205331E-1	5.807692E-1	5.119002E-1	5.740677E-1
5.377630E+2	6.048078E-1	5.561543E-1	6.014504E-1	6.083613E-1	6.144229E-1	5.849788E-1	5.746710E-1	6.164524E-1	6.114076E-1	5.865915E-1	5.854468E-1	5.321711E-1	6.052413E-1	6.008383E-1	6.269409E-1	5.690387E-1	6.170926E-1	6.265424E-1	6.204738E-1	6.247907E-1	6.219657E-1	6.180220E-1	6.028668E-1	5.918357E-1	6.108138E-1	6.172886E-1	6.558989E-1	6.121600E-1	6.022363E-1	6.233782E-1	6.417705E-1	6.076230E-1	6.657277E-1	5.627624E-1	5.956436E-1	5.872903E-1	6.133306E-1	5.923447E-1	6.034924E-1	5.907340E-1	6.145327E-1	5.864888E-1	6.221369E-1	5.884375E-1	6.142875E-1	6.181790E-1	5.809231E-1	5.986802E-1	6.026905E-1	5.784612E-1	5.824286E-1	6.332160E-1	6.032726E-1	6.330581E-1	6.227749E-1	6.112335E-1	5.791951E-1	6.089328E-1	6.257993E-1	6.325610E-1	6.016869E-1	5.745796E-1	6.065635E-1	6.156691E-1	6.129808E-1	5.977821E-1	6.021781E-1	6.159336E-1	6.021073E-1	6.292545E-1	5.865472E-1	6.500583E-1	5.758289E-1	5.920366E-1	6.134683E-1	6.081913E-1	6.019431E-1	6.060975E-1	6.413496E-1	6.233142E-1	6.439048E-1	5.786482E-1	6.195183E-1	5.898753E-1	6.350352E-1	5.941745E-1	6.284443E-1	5.915811E-1	6.267288E-1	6.038338E-1	6.224562E-1	5.847395E-1	6.113510E-1	5.917532E-1	5.962093E-1	6.303716E-1	6.135742E-1	6.203868E-1	6.317227E-1	6.503494E-1	6.082404E-1	6.314606E-1	6.044222E-1	6.073343E-1	5.550058E-1	6.179151E-1	6.344456E-1	5.849545E-1	6.047232E-1	6.343556E-1	5.886986E-1	5.928862E-1	6.089843E-1	5.896267E-1	6.156214E-1	6.536921E-1	6.394496E-1	5.928649E-1	6.202241E-1	6.328531E-1	6.385182E-1	6.071742E-1	6.121771E-1	6.578651E-1	6.233256E-1	6.364786E-1	6.263253E-1	6.039692E-1	6.319065E-1	6.369673E-1	5.872094E-1	5.864773E-1	6.001342E-1	6.195583E-1	6.035174E-1	5.690216E-1	6.456492E-1	5.838263E-1	6.054383E-1	6.099948E-1	6.021606E-1	5.924952E-1	6.264794E-1	5.983519E-1	6.124089E-1	5.767562E-1	6.339096E-1	5.884044E-1	5.729513E-1	6.719563E-1	6.303738E-1	6.155772E-1	6.020384E-1	6.050324E-1	6.131396E-1	6.153696E-1	6.298377E-1	5.855430E-1	6.114991E-1	5.911771E-1	6.528019E-1	6.047632E-1	6.120100E-1	6.533296E-1	5.025314E-1
5.380110E+2	6.911138E-1	6.851383E-1	7.176552E-1	7.086350E-1	6.524682E-1	6.691664E-1	7.249753E-1	6.936576E-1	7.132173E-1	6.989823E-1	6.730407E-1	6.870114E-1	6.815491E-1	6.858281E-1	7.203990E-1	6.702081E-1	7.304435E-1	7.192638E-1	7.176304E-1	6.753648E-1	7.140083E-1	6.930762E-1	6.736328E-1	7.093675E-1	7.335594E-1	6.774692E-1	7.302845E-1	7.060288E-1	7.013358E-1	7.240436E-1	6.421126E-1	6.793933E-1	7.094998E-1	6.936649E-1	6.615285E-1	6.906377E-1	7.094736E-1	7.004406E-1	6.882284E-1	6.728022E-1	7.000351E-1	7.012932E-1	7.043026E-1	7.009904E-1	7.374618E-1	6.728232E-1	6.984107E-1	6.722185E-1	6.978245E-1	6.991855E-1	7.278533E-1	6.840828E-1	7.070482E-1	7.061437E-1	7.104094E-1	6.947967E-1	6.820616E-1	7.103491E-1	6.868425E-1	6.726419E-1	7.223316E-1	6.749416E-1	7.161100E-1	6.939347E-1	7.031525E-1	7.058822E-1	6.912991E-1	6.788247E-1	6.690798E-1	7.089937E-1	6.925982E-1	7.574113E-1	6.936685E-1	7.055176E-1	6.930904E-1	7.214280E-1	7.209712E-1	6.876843E-1	7.081599E-1	6.819888E-1	6.973787E-1	7.260561E-1	7.069553E-1	6.889491E-1	7.491761E-1	7.212548E-1	7.318901E-1	6.981779E-1	7.113003E-1	7.180454E-1	6.766298E-1	6.673519E-1	6.988013E-1	6.803436E-1	7.109243E-1	7.053376E-1	7.172038E-1	7.370993E-1	7.612735E-1	7.144063E-1	7.080117E-1	7.271679E-1	6.976040E-1	7.265280E-1	6.735748E-1	7.523156E-1	7.340947E-1	7.186723E-1	7.016038E-1	7.283641E-1	7.138324E-1	7.028843E-1	7.103497E-1	6.996680E-1	7.152158E-1	6.807488E-1	7.270874E-1	6.809027E-1	6.902081E-1	7.326615E-1	7.012195E-1	7.000878E-1	6.951124E-1	6.866243E-1	7.013783E-1	7.428821E-1	7.198958E-1	6.998715E-1	7.070360E-1	7.132187E-1	7.143297E-1	6.836486E-1	6.846041E-1	6.828646E-1	7.348355E-1	7.181718E-1	7.230109E-1	7.283869E-1	6.915640E-1	7.171293E-1	7.042366E-1	7.253151E-1	7.538746E-1	7.249194E-1	6.987089E-1	6.593257E-1	7.002898E-1	6.941160E-1	7.083679E-1	6.799208E-1	7.118894E-1	7.456579E-1	7.025607E-1	6.795634E-1	7.165060E-1	6.961550E-1	7.055151E-1	6.989164E-1	6.959898E-1	7.181798E-1	7.297919E-1	6.873140E-1	7.260543E-1	7.415656E-1	6.850114E-1
5.382900E+2	8.310237E-1	7.856443E-1	8.745893E-1	8.242363E-1	8.398371E-1	8.429215E-1	8.875049E-1	8.007836E-1	8.043233E-1	8.235938E-1	8.260383E-1	8.250380E-1	8.089847E-1	8.074835E-1	8.402114E-1	7.883211E-1	8.999167E-1	8.478029E-1	8.348221E-1	8.458877E-1	8.164616E-1	8.730723E-1	8.719772E-1	8.652435E-1	8.778077E-1	8.408153E-1	8.286077E-1	8.416816E-1	8.467814E-1	8.464511E-1	8.837984E-1	8.396261E-1	8.423933E-1	7.969041E-1	8.520462E-1	8.099245E-1	8.415003E-1	8.218102E-1	8.455267E-1	8.370483E-1	8.689845E-1	8.469735E-1	8.297218E-1	8.354329E-1	8.088789E-1	8.945928E-1	8.436111E-1	8.353978E-1	9.042352E-1	8.343380E-1	8.670643E-1	8.181314E-1	8.262598E-1	8.018114E-1	8.469317E-1	8.480937E-1	8.502659E-1	8.380041E-1	8.397076E-1	8.643046E-1	8.520643E-1	8.291820E-1	8.168221E-1	8.465051E-1	8.955263E-1	8.220699E-1	8.833197E-1	8.743850E-1	8.463293E-1	8.138382E-1	8.345461E-1	8.074476E-1	8.667148E-1	8.387962E-1	8.440028E-1	8.878855E-1	8.249503E-1	8.188241E-1	8.152619E-1	8.251826E-1	8.284621E-1	8.320582E-1	8.234893E-1	8.482095E-1	8.410977E-1	8.335733E-1	8.317241E-1	8.564665E-1	8.517367E-1	8.368358E-1	7.956861E-1	8.242667E-1	8.545517E-1	8.438975E-1	8.736538E-1	8.207140E-1	8.728707E-1	8.388874E-1	8.114622E-1	8.230450E-1	8.742351E-1	8.666282E-1	8.422364E-1	8.753845E-1	8.134016E-1	8.474606E-1	8.936612E-1	8.204370E-1	8.545367E-1	8.736169E-1	8.003103E-1	8.436249E-1	8.548891E-1	8.109572E-1	8.445038E-1	8.233950E-1	8.039806E-1	8.386923E-1	8.357661E-1	8.671038E-1	7.905966E-1	8.763505E-1	8.441173E-1	8.519082E-1	8.122006E-1	8.464612E-1	8.326307E-1	8.977269E-1	8.503421E-1	8.185000E-1	8.391043E-1	8.236210E-1	8.631043E-1	8.411386E-1	8.370634E-1	8.094810E-1	8.454741E-1	8.699198E-1	8.016727E-1	8.450399E-1	8.549115E-1	8.101590E-1	8.410240E-1	8.451516E-1	8.705376E-1	8.624042E-1	8.883085E-1	8.154792E-1	8.562982E-1	8.404388E-1	8.351838E-1	8.469599E-1	8.782168E-1	7.887563E-1	9.078585E-1	8.385662E-1	8.423673E-1	8.124806E-1	8.684759E-1	8.097791E-1	8.412349E-1	8.590654E-1	8.794077E-1	8.017060E-1	7.975896E-1
5.385060E+2	9.835454E-1	1.027072E+0	1.086333E+0	1.016500E+0	9.898354E-1	1.014929E+0	1.036982E+0	1.014358E+0	9.801642E-1	1.013805E+0	1.034234E+0	1.035720E+0	1.000107E+0	1.005794E+0	1.000204E+0	9.872057E-1	1.040143E+0	1.070776E+0	1.009305E+0	1.051114E+0	1.005865E+0	9.860705E-1	1.027022E+0	1.066778E+0	1.025605E+0	1.051028E+0	1.036892E+0	1.042564E+0	1.046745E+0	1.039911E+0	1.031561E+0	1.011370E+0	1.032118E+0	1.038323E+0	1.023249E+0	1.012954E+0	1.092115E+0	9.987660E-1	1.051421E+0	1.035413E+0	1.004826E+0	9.622845E-1	1.011655E+0	1.050062E+0	9.939601E-1	9.832479E-1	1.011460E+0	1.025252E+0	1.099566E+0	1.047729E+0	1.021739E+0	1.006205E+0	1.028389E+0	1.034472E+0	1.071186E+0	1.060193E+0	1.036167E+0	1.031300E+0	1.021433E+0	1.065770E+0	9.928073E-1	1.022887E+0	9.996276E-1	9.808856E-1	1.038515E+0	1.000062E+0	1.008132E+0	9.988308E-1	1.053766E+0	1.047247E+0	1.038355E+0	1.032167E+0	1.024620E+0	9.697103E-1	1.012467E+0	1.066132E+0	9.909676E-1	1.019681E+0	1.001189E+0	9.988663E-1	1.049522E+0	9.788420E-1	1.041632E+0	9.805483E-1	1.041992E+0	9.901050E-1	1.063881E+0	1.006750E+0	1.041597E+0	1.010810E+0	9.707475E-1	9.328056E-1	1.050363E+0	1.008967E+0	9.958553E-1	1.012978E+0	1.026630E+0	1.022031E+0	1.002508E+0	9.969990E-1	9.941325E-1	1.024782E+0	1.047791E+0	1.059579E+0	9.987026E-1	1.005750E+0	1.056922E+0	1.006314E+0	1.008566E+0	1.017047E+0	1.001248E+0	9.962377E-1	1.016719E+0	1.002712E+0	1.010194E+0	1.057950E+0	1.034616E+0	1.057917E+0	9.725562E-1	1.024832E+0	9.732164E-1	9.918960E-1	1.029172E+0	1.051994E+0	1.014252E+0	1.022774E+0	1.045720E+0	9.620987E-1	1.020287E+0	9.934161E-1	1.035020E+0	1.036675E+0	1.006819E+0	9.995812E-1	1.015765E+0	1.018837E+0	1.021779E+0	1.055774E+0	9.950547E-1	1.034790E+0	1.010656E+0	1.031799E+0	1.049978E+0	1.013651E+0	9.752034E-1	9.874341E-1	9.784384E-1	9.838571E-1	9.968521E-1	1.029239E+0	1.027677E+0	1.008524E+0	1.038294E+0	9.964622E-1	1.071701E+0	1.009434E+0	1.023583E+0	9.722070E-1	9.823674E-1	9.546905E-1	1.038371E+0	1.036205E+0	9.708958E-1	9.713281E-1	9.866836E-1
5.387600E+2	1.236252E+0	1.156499E+0	1.234093E+0	1.186642E+0	1.225481E+0	1.199142E+0	1.209117E+0	1.161813E+0	1.210611E+0	1.220561E+0	1.248907E+0	1.216603E+0	1.202136E+0	1.153134E+0	1.207671E+0	1.227686E+0	1.278713E+0	1.253635E+0	1.242579E+0	1.241077E+0	1.161875E+0	1.215108E+0	1.248468E+0	1.197132E+0	1.209705E+0	1.155274E+0	1.239904E+0	1.236204E+0	1.248820E+0	1.173291E+0	1.212487E+0	1.192324E+0	1.180400E+0	1.211871E+0	1.181642E+0	1.216321E+0	1.208012E+0	1.193719E+0	1.192092E+0	1.180300E+0	1.235229E+0	1.199937E+0	1.239523E+0	1.174151E+0	1.213714E+0	1.205882E+0	1.239771E+0	1.130365E+0	1.170476E+0	1.244188E+0	1.227801E+0	1.185976E+0	1.247833E+0	1.202948E+0	1.179151E+0	1.235762E+0	1.176233E+0	1.199746E+0	1.233158E+0	1.250005E+0	1.202761E+0	1.202697E+0	1.182181E+0	1.244028E+0	1.253501E+0	1.178762E+0	1.192768E+0	1.194177E+0	1.218318E+0	1.168501E+0	1.209535E+0	1.228560E+0	1.237002E+0	1.166605E+0	1.213133E+0	1.261710E+0	1.210464E+0	1.209745E+0	1.189677E+0	1.214822E+0	1.201691E+0	1.204420E+0	1.265415E+0	1.210025E+0	1.253189E+0	1.190778E+0	1.194252E+0	1.218233E+0	1.162153E+0	1.210862E+0	1.209146E+0	1.181637E+0	1.203269E+0	1.124310E+0	1.184334E+0	1.256976E+0	1.186462E+0	1.189813E+0	1.182288E+0	1.210895E+0	1.176544E+0	1.214901E+0	1.264446E+0	1.210785E+0	1.151445E+0	1.228735E+0	1.225096E+0	1.166733E+0	1.174508E+0	1.161979E+0	1.195485E+0	1.179118E+0	1.199829E+0	1.189292E+0	1.224595E+0	1.221399E+0	1.144384E+0	1.164304E+0	1.135250E+0	1.187996E+0	1.219582E+0	1.212806E+0	1.175423E+0	1.243392E+0	1.189902E+0	1.203984E+0	1.182387E+0	1.226606E+0	1.178572E+0	1.156881E+0	1.259451E+0	1.176552E+0	1.132438E+0	1.199521E+0	1.203705E+0	1.181325E+0	1.199910E+0	1.208147E+0	1.169907E+0	1.226269E+0	1.198525E+0	1.217970E+0	1.224830E+0	1.201397E+0	1.249754E+0	1.223196E+0	1.206061E+0	1.205202E+0	1.139929E+0	1.163924E+0	1.232150E+0	1.174516E+0	1.177848E+0	1.167617E+0	1.291727E+0	1.183756E+0	1.150717E+0	1.214896E+0	1.172167E+0	1.218895E+0	1.262747E+0	1.211500E+0	1.237174E+0	1.104704E+0	1.209523E+0
5.390390E+2	1.436076E+0	1.431129E+0	1.400175E+0	1.418546E+0	1.417456E+0	1.423800E+0	1.462177E+0	1.395401E+0	1.496273E+0	1.446824E+0	1.440674E+0	1.415670E+0	1.423893E+0	1.408116E+0	1.432575E+0	1.375942E+0	1.446572E+0	1.507984E+0	1.469690E+0	1.413203E+0	1.446740E+0	1.399982E+0	1.450774E+0	1.440794E+0	1.447947E+0	1.426936E+0	1.435171E+0	1.459503E+0	1.504907E+0	1.409376E+0	1.416544E+0	1.407825E+0	1.441804E+0	1.425680E+0	1.466157E+0	1.429760E+0	1.452010E+0	1.379444E+0	1.439516E+0	1.389614E+0	1.439074E+0	1.477640E+0	1.446471E+0	1.470823E+0	1.439469E+0	1.422211E+0	1.374320E+0	1.393638E+0	1.430630E+0	1.424396E+0	1.432225E+0	1.400336E+0	1.458342E+0	1.399754E+0	1.502946E+0	1.400726E+0	1.424251E+0	1.444161E+0	1.466874E+0	1.388025E+0	1.380652E+0	1.362290E+0	1.412836E+0	1.397665E+0	1.512648E+0	1.450105E+0	1.412823E+0	1.438346E+0	1.451251E+0	1.380231E+0	1.454855E+0	1.392927E+0	1.429576E+0	1.350352E+0	1.430864E+0	1.463929E+0	1.381244E+0	1.378371E+0	1.455343E+0	1.430015E+0	1.446404E+0	1.396529E+0	1.442972E+0	1.428084E+0	1.394010E+0	1.329951E+0	1.515478E+0	1.353937E+0	1.445072E+0	1.428580E+0	1.372999E+0	1.419462E+0	1.396356E+0	1.404467E+0	1.450594E+0	1.405063E+0	1.422286E+0	1.370712E+0	1.445955E+0	1.407272E+0	1.479775E+0	1.413796E+0	1.411781E+0	1.445519E+0	1.385552E+0	1.437010E+0	1.512298E+0	1.378211E+0	1.414224E+0	1.438901E+0	1.417684E+0	1.417989E+0	1.399577E+0	1.398991E+0	1.475061E+0	1.430727E+0	1.389777E+0	1.395175E+0	1.389054E+0	1.444308E+0	1.437468E+0	1.439077E+0	1.464613E+0	1.491151E+0	1.434256E+0	1.385325E+0	1.415450E+0	1.391879E+0	1.371786E+0	1.347501E+0	1.438443E+0	1.410205E+0	1.410882E+0	1.443404E+0	1.440204E+0	1.410453E+0	1.439872E+0	1.350433E+0	1.372361E+0	1.417831E+0	1.442944E+0	1.408323E+0	1.439172E+0	1.422756E+0	1.431977E+0	1.405039E+0	1.403929E+0	1.434284E+0	1.371135E+0	1.352507E+0	1.426994E+0	1.365041E+0	1.379008E+0	1.366686E+0	1.498397E+0	1.403122E+0	1.445211E+0	1.411250E+0	1.346985E+0	1.388825E+0	1.413099E+0	1.375152E+0	1.486511E+0	1.414888E+0	1.382316E+0
5.392720E+2	1.607111E+0	1.596685E+0	1.662438E+0	1.631790E+0	1.672374E+0	1.639997E+0	1.639216E+0	1.645191E+0	1.619717E+0	1.631527E+0	1.669770E+0	1.646723E+0	1.690428E+0	1.616128E+0	1.645280E+0	1.631380E+0	1.659165E+0	1.687700E+0	1.588639E+0	1.689584E+0	1.666099E+0	1.611314E+0	1.626866E+0	1.636499E+0	1.592599E+0	1.649632E+0	1.624055E+0	1.706685E+0	1.682673E+0	1.595579E+0	1.662355E+0	1.677103E+0	1.698081E+0	1.614050E+0	1.657767E+0	1.628691E+0	1.635576E+0	1.571572E+0	1.588895E+0	1.602494E+0	1.653098E+0	1.610829E+0	1.651174E+0	1.597768E+0	1.645012E+0	1.582623E+0	1.586401E+0	1.655716E+0	1.603977E+0	1.569583E+0	1.607442E+0	1.618669E+0	1.657646E+0	1.660190E+0	1.713576E+0	1.637393E+0	1.629225E+0	1.598921E+0	1.671533E+0	1.709707E+0	1.619843E+0	1.611599E+0	1.627063E+0	1.605806E+0	1.644392E+0	1.639167E+0	1.645081E+0	1.639957E+0	1.638658E+0	1.593168E+0	1.606266E+0	1.594902E+0	1.615399E+0	1.599407E+0	1.639192E+0	1.655369E+0	1.592344E+0	1.599466E+0	1.690723E+0	1.609440E+0	1.683648E+0	1.589270E+0	1.636683E+0	1.636260E+0	1.718995E+0	1.593493E+0	1.614254E+0	1.614422E+0	1.602920E+0	1.566599E+0	1.546962E+0	1.522043E+0	1.632468E+0	1.540197E+0	1.567423E+0	1.613219E+0	1.642032E+0	1.631222E+0	1.650374E+0	1.608134E+0	1.608678E+0	1.655468E+0	1.640352E+0	1.601205E+0	1.647809E+0	1.675180E+0	1.628936E+0	1.615171E+0	1.561884E+0	1.593882E+0	1.621956E+0	1.576230E+0	1.607922E+0	1.548082E+0	1.645186E+0	1.563723E+0	1.629586E+0	1.540434E+0	1.600482E+0	1.632367E+0	1.594416E+0	1.606696E+0	1.583310E+0	1.746520E+0	1.619869E+0	1.561750E+0	1.650470E+0	1.612318E+0	1.558388E+0	1.535614E+0	1.525107E+0	1.610152E+0	1.611384E+0	1.599159E+0	1.537098E+0	1.603871E+0	1.563614E+0	1.548931E+0	1.673210E+0	1.603295E+0	1.554041E+0	1.614595E+0	1.533980E+0	1.582184E+0	1.626189E+0	1.545586E+0	1.648200E+0	1.581236E+0	1.533682E+0	1.559594E+0	1.613278E+0	1.607088E+0	1.607318E+0	1.535729E+0	1.681386E+0	1.668702E+0	1.574354E+0	1.549094E+0	1.622490E+0	1.611022E+0	1.603392E+0	1.530867E+0	1.621554E+0	1.601162E+0	1.505414E+0
5.395260E+2	1.814264E+0	1.809162E+0	1.877604E+0	1.832490E+0	1.866114E+0	1.805618E+0	1.874781E+0	1.890855E+0	1.887619E+0	1.776172E+0	1.881265E+0	1.830553E+0	1.917538E+0	1.875557E+0	1.898702E+0	1.780390E+0	1.884865E+0	1.866133E+0	1.903765E+0	1.857667E+0	1.857648E+0	1.893816E+0	1.905025E+0	1.790489E+0	1.799619E+0	1.846499E+0	1.894106E+0	1.911363E+0	1.858152E+0	1.860887E+0	1.837138E+0	1.846638E+0	1.794650E+0	1.739740E+0	1.876490E+0	1.848162E+0	1.896650E+0	1.846422E+0	1.917369E+0	1.814421E+0	1.830118E+0	1.784299E+0	1.821814E+0	1.819442E+0	1.895881E+0	1.851452E+0	1.788405E+0	1.794132E+0	1.831598E+0	1.804786E+0	1.844159E+0	1.853480E+0	1.875289E+0	1.839471E+0	1.852247E+0	1.832925E+0	1.866567E+0	1.818400E+0	1.830002E+0	1.888327E+0	1.827593E+0	1.798275E+0	1.777241E+0	1.860620E+0	1.881041E+0	1.868019E+0	1.884352E+0	1.811390E+0	1.809055E+0	1.847827E+0	1.819799E+0	1.776216E+0	1.800404E+0	1.864072E+0	1.862515E+0	1.812435E+0	1.799776E+0	1.738514E+0	1.881768E+0	1.800969E+0	1.843701E+0	1.730276E+0	1.832070E+0	1.798937E+0	1.942160E+0	1.754064E+0	1.845435E+0	1.843268E+0	1.823472E+0	1.770716E+0	1.821373E+0	1.827407E+0	1.819754E+0	1.769613E+0	1.735500E+0	1.790280E+0	1.832964E+0	1.802430E+0	1.827749E+0	1.811761E+0	1.807651E+0	1.852692E+0	1.865016E+0	1.826535E+0	1.785272E+0	1.802363E+0	1.894589E+0	1.826954E+0	1.821628E+0	1.739045E+0	1.796393E+0	1.712090E+0	1.837478E+0	1.749339E+0	1.848638E+0	1.803492E+0	1.757659E+0	1.747145E+0	1.812449E+0	1.758292E+0	1.833521E+0	1.783397E+0	1.796260E+0	1.855246E+0	1.838426E+0	1.780867E+0	1.802798E+0	1.817804E+0	1.886209E+0	1.826107E+0	1.834624E+0	1.777766E+0	1.789651E+0	1.791128E+0	1.767579E+0	1.814795E+0	1.800492E+0	1.764636E+0	1.825449E+0	1.824755E+0	1.743912E+0	1.811818E+0	1.781187E+0	1.815209E+0	1.805939E+0	1.783093E+0	1.872325E+0	1.791182E+0	1.771599E+0	1.801477E+0	1.872274E+0	1.823071E+0	1.785585E+0	1.757641E+0	1.885806E+0	1.807902E+0	1.803233E+0	1.731293E+0	1.802264E+0	1.758412E+0	1.769235E+0	1.846405E+0	1.811833E+0	1.780728E+0	1.749594E+0
5.397910E+2	1.928503E+0	1.989495E+0	1.991251E+0	2.007177E+0	1.989478E+0	1.996157E+0	2.038623E+0	1.950578E+0	1.990670E+0	2.061357E+0	2.045322E+0	1.954144E+0	1.976219E+0	1.985614E+0	2.017820E+0	1.979213E+0	1.990635E+0	1.968942E+0	2.087709E+0	1.933406E+0	2.023229E+0	1.975005E+0	2.031367E+0	1.973797E+0	2.012296E+0	2.058463E+0	2.068651E+0	1.997161E+0	2.009613E+0	1.968924E+0	2.005776E+0	1.955177E+0	2.029889E+0	1.921878E+0	1.981697E+0	1.963327E+0	1.978229E+0	2.012401E+0	2.037237E+0	1.987307E+0	2.098867E+0	2.024384E+0	2.054618E+0	1.972221E+0	2.038302E+0	2.047240E+0	2.001362E+0	1.926418E+0	1.980482E+0	1.952304E+0	2.008678E+0	1.918923E+0	2.069771E+0	1.956668E+0	1.973049E+0	2.005082E+0	1.936166E+0	2.015622E+0	1.986297E+0	2.069363E+0	1.911042E+0	1.849568E+0	1.924836E+0	1.959023E+0	1.967645E+0	1.954861E+0	1.957993E+0	1.945628E+0	2.055959E+0	1.964765E+0	1.955712E+0	2.003434E+0	2.031005E+0	1.951218E+0	1.978962E+0	2.036448E+0	1.946833E+0	1.867469E+0	1.960650E+0	1.906628E+0	2.083584E+0	1.890302E+0	2.070856E+0	2.002740E+0	1.967538E+0	1.906170E+0	1.994314E+0	1.925991E+0	1.980051E+0	1.969575E+0	2.001327E+0	1.859854E+0	1.986385E+0	1.926284E+0	2.015034E+0	2.062898E+0	1.975457E+0	1.950052E+0	1.964923E+0	1.974854E+0	1.979251E+0	1.970521E+0	1.907705E+0	1.970887E+0	1.829463E+0	1.934090E+0	2.033289E+0	1.990837E+0	1.916155E+0	1.949004E+0	1.913673E+0	1.927733E+0	1.987315E+0	1.970470E+0	1.942427E+0	1.972374E+0	1.973824E+0	1.875371E+0	1.892277E+0	1.984693E+0	1.878371E+0	1.943354E+0	1.948083E+0	1.997961E+0	1.982181E+0	1.908215E+0	2.022314E+0	2.032007E+0	1.927845E+0	1.934179E+0	1.855857E+0	1.900807E+0	1.930677E+0	1.963929E+0	1.946156E+0	1.904635E+0	1.936884E+0	1.892194E+0	1.851694E+0	1.920745E+0	2.000003E+0	1.895819E+0	1.960846E+0	1.911626E+0	1.908202E+0	1.892915E+0	1.953747E+0	1.967546E+0	1.973900E+0	1.918175E+0	1.954388E+0	1.943818E+0	1.872291E+0	1.870200E+0	2.067731E+0	1.953401E+0	1.885171E+0	1.892196E+0	1.929380E+0	1.912702E+0	1.993926E+0	1.816467E+0	2.036663E+0	2.084872E+0	1.855191E+0
5.400140E+2	2.106493E+0	1.987649E+0	2.071891E+0	2.043003E+0	2.043278E+0	2.035113E+0	2.078104E+0	2.095825E+0	2.073960E+0	2.138393E+0	2.080470E+0	2.065989E+0	2.054107E+0	2.033739E+0	2.049441E+0	1.982751E+0	2.005361E+0	1.980629E+0	2.028242E+0	2.047072E+0	2.010279E+0	2.042508E+0	2.057143E+0	2.013402E+0	2.070093E+0	2.019234E+0	2.055211E+0	2.011509E+0	2.069954E+0	2.015576E+0	2.052735E+0	2.067939E+0	2.061726E+0	1.969262E+0	2.027996E+0	1.997884E+0	2.058715E+0	2.012500E+0	2.024872E+0	2.071758E+0	2.050637E+0	2.045262E+0	2.115400E+0	2.001800E+0	2.076083E+0	2.063055E+0	2.054540E+0	1.928654E+0	2.005800E+0	2.007930E+0	2.103691E+0	2.002786E+0	1.955941E+0	2.017125E+0	2.053043E+0	2.074596E+0	2.052429E+0	2.002636E+0	1.972938E+0	2.117667E+0	2.032562E+0	1.990985E+0	1.984573E+0	1.999574E+0	2.057664E+0	2.072953E+0	2.079789E+0	2.035939E+0	1.983546E+0	1.945222E+0	1.981936E+0	2.039026E+0	1.953672E+0	1.971793E+0	2.018344E+0	2.006300E+0	1.928656E+0	2.024291E+0	1.982817E+0	2.010712E+0	2.010551E+0	2.030735E+0	2.096832E+0	1.989405E+0	2.042148E+0	1.949869E+0	1.994992E+0	2.007361E+0	2.030324E+0	1.927097E+0	1.939872E+0	2.014456E+0	2.008709E+0	1.961960E+0	2.012072E+0	1.933884E+0	2.001844E+0	1.980953E+0	1.932317E+0	1.967234E+0	2.036614E+0	2.027490E+0	2.006671E+0	2.043657E+0	2.006454E+0	2.014018E+0	1.987956E+0	1.978416E+0	2.009349E+0	1.971558E+0	1.979581E+0	1.929228E+0	1.964451E+0	1.961016E+0	1.971423E+0	1.999172E+0	1.992398E+0	1.966216E+0	1.971516E+0	2.003220E+0	1.990625E+0	1.919185E+0	1.978348E+0	2.037507E+0	1.971582E+0	2.006019E+0	1.954277E+0	1.960168E+0	2.017758E+0	1.997535E+0	1.945066E+0	1.950388E+0	1.967966E+0	1.980394E+0	1.954649E+0	1.990029E+0	2.039521E+0	1.982093E+0	1.926324E+0	1.964286E+0	1.951389E+0	1.952031E+0	1.950164E+0	1.904398E+0	1.977219E+0	1.952139E+0	1.952006E+0	1.928234E+0	1.922039E+0	1.929340E+0	2.051538E+0	1.956161E+0	1.953715E+0	1.912930E+0	2.148282E+0	1.981419E+0	1.888174E+0	1.874321E+0	1.943303E+0	1.944709E+0	2.001500E+0	1.894951E+0	1.929475E+0	1.953357E+0	1.846556E+0
5.402630E+2	2.011640E+0	2.015259E+0	2.088868E+0	2.031074E+0	2.010416E+0	1.946270E+0	2.029499E+0	2.005531E+0	2.071586E+0	2.099277E+0	2.122836E+0	2.059026E+0	2.031814E+0	2.028417E+0	2.036689E+0	2.042899E+0	1.953444E+0	1.976847E+0	2.058596E+0	2.012246E+0	1.981557E+0	2.068183E+0	2.056369E+0	1.955131E+0	2.012181E+0	1.955031E+0	1.989917E+0	2.023001E+0	2.006810E+0	2.053565E+0	2.053780E+0	2.003385E+0	2.112685E+0	1.955801E+0	2.013935E+0	1.955209E+0	2.070951E+0	1.979688E+0	2.089899E+0	1.885286E+0	2.011646E+0	1.944429E+0	2.012033E+0	1.985253E+0	2.046682E+0	2.018664E+0	1.979258E+0	2.008071E+0	2.013450E+0	1.943754E+0	2.092077E+0	1.943497E+0	2.036298E+0	1.949475E+0	2.017686E+0	2.030608E+0	1.983399E+0	2.018722E+0	1.971228E+0	2.036472E+0	1.976669E+0	1.966539E+0	2.011066E+0	1.983287E+0	2.024766E+0	1.998434E+0	1.993079E+0	1.967615E+0	2.043970E+0	1.997145E+0	1.958198E+0	2.028721E+0	2.006529E+0	1.903620E+0	1.984678E+0	2.013572E+0	1.913568E+0	1.931354E+0	2.028360E+0	2.025999E+0	2.012884E+0	1.975006E+0	2.073836E+0	1.882154E+0	2.009861E+0	1.967282E+0	1.991611E+0	1.950553E+0	1.958526E+0	1.976058E+0	2.022354E+0	1.918104E+0	2.006510E+0	1.970581E+0	1.942107E+0	1.946970E+0	1.986363E+0	1.958921E+0	1.978316E+0	1.841576E+0	2.001164E+0	1.922870E+0	2.045516E+0	1.991359E+0	1.940581E+0	2.007133E+0	2.008433E+0	2.019085E+0	1.942336E+0	1.952698E+0	1.949395E+0	1.893081E+0	1.973815E+0	1.901842E+0	2.021237E+0	1.990060E+0	1.925870E+0	1.967033E+0	1.990063E+0	1.956149E+0	1.929544E+0	1.907538E+0	1.985918E+0	1.982584E+0	2.017820E+0	1.961938E+0	1.969881E+0	1.973532E+0	1.986276E+0	1.869644E+0	1.910553E+0	1.943978E+0	1.888087E+0	1.939461E+0	2.033466E+0	1.952515E+0	1.950718E+0	1.955064E+0	1.862927E+0	1.971201E+0	1.972106E+0	1.924351E+0	1.932042E+0	1.910623E+0	1.969017E+0	1.912475E+0	1.935789E+0	1.945013E+0	1.930696E+0	1.966289E+0	1.914520E+0	1.909264E+0	1.915981E+0	1.874275E+0	2.098250E+0	1.968506E+0	1.956448E+0	1.866763E+0	1.994722E+0	1.972728E+0	1.973368E+0	1.907742E+0	1.959244E+0	1.957755E+0	1.938276E+0
5.405080E+2	1.994738E+0	1.954197E+0	1.982694E+0	1.963462E+0	1.924578E+0	1.971459E+0	1.935166E+0	1.908143E+0	1.928606E+0	1.980381E+0	1.974448E+0	1.908736E+0	1.990286E+0	1.875953E+0	1.958124E+0	1.928851E+0	1.913413E+0	1.877032E+0	1.911924E+0	1.921956E+0	1.866875E+0	1.886219E+0	1.956292E+0	1.926722E+0	1.976619E+0	1.907525E+0	1.973099E+0	1.900072E+0	2.029727E+0	1.878751E+0	1.871152E+0	1.847918E+0	1.915514E+0	1.912655E+0	1.901763E+0	1.912688E+0	1.901975E+0	1.893491E+0	1.936932E+0	1.913330E+0	1.955242E+0	1.906135E+0	1.970167E+0	1.958782E+0	1.918609E+0	1.889559E+0	1.931470E+0	1.884154E+0	1.924842E+0	1.834787E+0	1.992261E+0	1.902739E+0	1.909897E+0	1.866730E+0	1.949246E+0	1.909728E+0	1.955486E+0	1.910750E+0	1.974987E+0	1.981390E+0	1.909129E+0	1.821704E+0	1.860155E+0	1.908267E+0	1.935461E+0	1.947832E+0	1.952349E+0	1.889720E+0	1.872688E+0	1.925308E+0	1.879203E+0	1.932078E+0	1.956047E+0	1.916312E+0	1.940224E+0	1.963667E+0	1.956846E+0	1.863892E+0	1.920246E+0	1.870488E+0	1.990326E+0	1.914249E+0	1.964161E+0	1.935686E+0	2.011818E+0	1.818959E+0	1.949140E+0	1.868746E+0	1.891202E+0	1.845141E+0	1.839578E+0	1.873607E+0	1.887577E+0	1.819944E+0	1.930148E+0	1.881643E+0	1.946715E+0	1.806588E+0	1.913405E+0	1.930374E+0	1.934580E+0	1.896720E+0	1.975032E+0	1.893961E+0	1.921927E+0	1.941890E+0	2.013785E+0	1.929403E+0	1.939783E+0	1.858494E+0	1.831327E+0	1.902240E+0	1.893880E+0	1.879314E+0	1.933475E+0	1.949216E+0	1.881213E+0	1.893144E+0	1.927279E+0	1.884054E+0	1.857557E+0	1.869032E+0	1.881389E+0	1.939151E+0	1.895360E+0	1.900883E+0	1.872087E+0	1.902344E+0	1.846597E+0	1.815040E+0	1.835363E+0	1.891686E+0	1.895386E+0	1.853225E+0	1.929243E+0	1.857149E+0	1.873442E+0	1.794926E+0	1.847047E+0	1.887081E+0	1.881334E+0	1.882185E+0	1.916396E+0	1.856188E+0	1.894606E+0	1.874708E+0	1.930235E+0	1.868179E+0	1.902907E+0	1.928230E+0	1.956133E+0	1.851605E+0	1.822143E+0	1.789784E+0	1.999536E+0	1.902014E+0	1.852352E+0	1.841926E+0	1.850968E+0	1.895281E+0	1.923571E+0	1.829336E+0	1.941639E+0	1.831915E+0	1.841443E+0
5.407630E+2	1.909398E+0	1.801494E+0	1.846908E+0	1.794695E+0	1.855270E+0	1.838338E+0	1.849491E+0	1.816613E+0	1.919018E+0	1.862805E+0	1.867132E+0	1.836535E+0	1.933383E+0	1.802130E+0	1.874860E+0	1.767605E+0	1.877211E+0	1.823943E+0	1.795742E+0	1.829758E+0	1.759879E+0	1.854856E+0	1.795184E+0	1.784587E+0	1.840171E+0	1.841989E+0	1.820838E+0	1.822799E+0	1.884784E+0	1.878379E+0	1.811932E+0	1.799279E+0	1.913765E+0	1.831023E+0	1.834851E+0	1.813688E+0	1.829016E+0	1.795311E+0	1.817145E+0	1.790443E+0	1.827022E+0	1.791247E+0	1.807974E+0	1.796103E+0	1.862772E+0	1.807230E+0	1.786274E+0	1.801550E+0	1.821985E+0	1.797507E+0	1.798481E+0	1.793842E+0	1.855611E+0	1.827789E+0	1.861712E+0	1.853126E+0	1.812580E+0	1.777058E+0	1.814078E+0	1.872476E+0	1.821268E+0	1.770071E+0	1.872176E+0	1.852582E+0	1.839001E+0	1.787379E+0	1.840907E+0	1.767853E+0	1.827765E+0	1.727297E+0	1.808378E+0	1.875131E+0	1.773130E+0	1.799570E+0	1.853710E+0	1.845773E+0	1.785131E+0	1.783515E+0	1.795012E+0	1.770669E+0	1.881989E+0	1.757878E+0	1.835731E+0	1.846848E+0	1.889476E+0	1.754861E+0	1.817468E+0	1.819203E+0	1.847381E+0	1.799963E+0	1.719345E+0	1.780811E+0	1.818869E+0	1.764639E+0	1.743478E+0	1.825885E+0	1.867995E+0	1.756824E+0	1.783315E+0	1.877288E+0	1.831220E+0	1.820692E+0	1.800197E+0	1.794868E+0	1.783529E+0	1.820584E+0	1.836826E+0	1.790512E+0	1.784802E+0	1.759551E+0	1.745886E+0	1.755316E+0	1.795220E+0	1.791506E+0	1.815597E+0	1.837223E+0	1.793457E+0	1.757202E+0	1.764061E+0	1.805805E+0	1.823702E+0	1.828529E+0	1.785434E+0	1.911576E+0	1.750990E+0	1.778694E+0	1.794607E+0	1.822493E+0	1.819677E+0	1.723152E+0	1.725749E+0	1.798741E+0	1.770088E+0	1.800771E+0	1.782846E+0	1.803299E+0	1.851451E+0	1.831752E+0	1.788162E+0	1.778584E+0	1.817126E+0	1.824317E+0	1.854929E+0	1.790535E+0	1.798492E+0	1.803988E+0	1.839890E+0	1.770637E+0	1.791337E+0	1.708949E+0	1.795196E+0	1.740768E+0	1.792101E+0	1.791321E+0	1.938149E+0	1.802888E+0	1.814070E+0	1.760126E+0	1.724815E+0	1.776289E+0	1.833808E+0	1.746415E+0	1.782030E+0	1.792346E+0	1.740631E+0
5.410190E+2	1.733141E+0	1.736930E+0	1.787489E+0	1.760250E+0	1.792134E+0	1.735458E+0	1.769375E+0	1.761028E+0	1.749432E+0	1.800897E+0	1.777563E+0	1.767698E+0	1.803411E+0	1.789870E+0	1.826471E+0	1.749921E+0	1.785857E+0	1.736306E+0	1.697126E+0	1.720917E+0	1.718523E+0	1.710075E+0	1.835515E+0	1.773899E+0	1.763555E+0	1.773799E+0	1.737435E+0	1.802892E+0	1.780216E+0	1.736202E+0	1.804717E+0	1.764880E+0	1.804163E+0	1.735213E+0	1.687323E+0	1.673185E+0	1.759325E+0	1.764287E+0	1.739321E+0	1.731593E+0	1.760348E+0	1.657298E+0	1.761276E+0	1.711628E+0	1.784263E+0	1.761292E+0	1.750251E+0	1.720597E+0	1.794359E+0	1.745327E+0	1.696364E+0	1.743513E+0	1.768867E+0	1.785942E+0	1.811438E+0	1.734187E+0	1.730550E+0	1.738647E+0	1.750309E+0	1.832323E+0	1.738105E+0	1.677229E+0	1.711166E+0	1.735730E+0	1.788869E+0	1.766263E+0	1.750298E+0	1.774995E+0	1.758306E+0	1.766399E+0	1.726726E+0	1.693066E+0	1.747625E+0	1.699259E+0	1.717318E+0	1.775317E+0	1.741234E+0	1.686730E+0	1.722105E+0	1.741860E+0	1.773025E+0	1.649578E+0	1.729304E+0	1.804027E+0	1.761639E+0	1.701198E+0	1.727637E+0	1.696835E+0	1.747457E+0	1.711686E+0	1.690196E+0	1.752491E+0	1.719720E+0	1.658520E+0	1.729468E+0	1.768874E+0	1.720485E+0	1.730727E+0	1.671282E+0	1.740491E+0	1.694748E+0	1.714456E+0	1.790797E+0	1.779509E+0	1.648803E+0	1.726172E+0	1.758489E+0	1.718351E+0	1.760636E+0	1.689774E+0	1.670721E+0	1.706014E+0	1.676264E+0	1.717242E+0	1.775588E+0	1.757974E+0	1.707783E+0	1.716414E+0	1.679911E+0	1.725129E+0	1.716600E+0	1.710246E+0	1.760996E+0	1.770310E+0	1.701520E+0	1.661166E+0	1.739395E+0	1.710352E+0	1.716170E+0	1.765708E+0	1.685789E+0	1.714955E+0	1.707551E+0	1.677484E+0	1.797387E+0	1.726661E+0	1.735205E+0	1.649860E+0	1.658006E+0	1.694480E+0	1.754026E+0	1.735967E+0	1.790531E+0	1.732334E+0	1.711669E+0	1.698835E+0	1.716665E+0	1.697575E+0	1.661118E+0	1.713466E+0	1.733686E+0	1.714903E+0	1.750251E+0	1.663972E+0	1.687817E+0	1.748374E+0	1.629526E+0	1.635919E+0	1.730065E+0	1.703362E+0	1.841694E+0	1.714226E+0	1.794387E+0	1.634726E+0	1.618835E+0
5.412640E+2	1.701665E+0	1.609865E+0	1.759271E+0	1.724480E+0	1.729540E+0	1.738997E+0	1.741586E+0	1.699389E+0	1.593160E+0	1.619344E+0	1.648366E+0	1.729025E+0	1.639754E+0	1.639078E+0	1.683747E+0	1.670969E+0	1.754352E+0	1.708335E+0	1.654223E+0	1.685644E+0	1.714671E+0	1.653793E+0	1.680683E+0	1.671417E+0	1.675319E+0	1.765205E+0	1.666989E+0	1.745502E+0	1.762670E+0	1.665507E+0	1.715237E+0	1.646100E+0	1.741073E+0	1.629383E+0	1.634973E+0	1.711445E+0	1.697599E+0	1.639062E+0	1.654158E+0	1.653265E+0	1.747725E+0	1.644877E+0	1.652159E+0	1.715892E+0	1.658323E+0	1.698085E+0	1.691289E+0	1.691100E+0	1.645547E+0	1.647855E+0	1.678802E+0	1.640180E+0	1.720873E+0	1.628633E+0	1.731046E+0	1.699500E+0	1.663060E+0	1.701085E+0	1.716803E+0	1.718435E+0	1.623147E+0	1.698980E+0	1.656229E+0	1.653723E+0	1.750476E+0	1.657894E+0	1.701586E+0	1.683826E+0	1.714698E+0	1.662394E+0	1.727188E+0	1.737236E+0	1.646335E+0	1.646704E+0	1.716567E+0	1.693531E+0	1.733699E+0	1.622214E+0	1.715391E+0	1.693958E+0	1.685490E+0	1.603893E+0	1.757413E+0	1.706255E+0	1.701777E+0	1.589874E+0	1.736510E+0	1.691594E+0	1.664644E+0	1.648900E+0	1.665680E+0	1.633711E+0	1.676657E+0	1.616701E+0	1.633146E+0	1.733371E+0	1.720433E+0	1.685365E+0	1.705538E+0	1.619265E+0	1.704558E+0	1.685514E+0	1.660586E+0	1.646733E+0	1.662828E+0	1.610692E+0	1.670688E+0	1.667536E+0	1.690325E+0	1.705435E+0	1.689718E+0	1.666726E+0	1.610690E+0	1.613142E+0	1.699484E+0	1.653539E+0	1.672517E+0	1.679966E+0	1.691514E+0	1.625971E+0	1.654794E+0	1.681217E+0	1.667618E+0	1.701444E+0	1.701703E+0	1.642829E+0	1.662309E+0	1.689280E+0	1.591469E+0	1.612634E+0	1.606979E+0	1.635785E+0	1.705403E+0	1.685567E+0	1.720391E+0	1.592897E+0	1.669214E+0	1.641218E+0	1.639997E+0	1.693576E+0	1.624883E+0	1.630043E+0	1.659276E+0	1.589171E+0	1.720763E+0	1.683935E+0	1.688442E+0	1.702473E+0	1.550980E+0	1.636686E+0	1.684765E+0	1.671345E+0	1.611198E+0	1.595978E+0	1.691950E+0	1.732593E+0	1.634403E+0	1.590690E+0	1.663117E+0	1.585341E+0	1.741230E+0	1.649190E+0	1.702868E+0	1.598802E+0	1.587512E+0
5.415140E+2	1.618812E+0	1.530903E+0	1.668331E+0	1.634972E+0	1.626069E+0	1.633984E+0	1.603195E+0	1.621998E+0	1.628454E+0	1.624732E+0	1.619300E+0	1.700519E+0	1.627456E+0	1.607930E+0	1.659591E+0	1.605499E+0	1.625325E+0	1.585785E+0	1.598493E+0	1.586004E+0	1.612431E+0	1.637992E+0	1.501355E+0	1.612607E+0	1.647492E+0	1.618812E+0	1.629082E+0	1.654915E+0	1.695916E+0	1.620699E+0	1.635500E+0	1.551274E+0	1.601101E+0	1.593169E+0	1.612086E+0	1.573450E+0	1.630217E+0	1.592877E+0	1.595938E+0	1.630351E+0	1.580771E+0	1.569711E+0	1.577417E+0	1.602181E+0	1.621252E+0	1.605653E+0	1.534551E+0	1.557670E+0	1.610761E+0	1.627267E+0	1.571978E+0	1.597921E+0	1.560032E+0	1.642951E+0	1.596682E+0	1.632586E+0	1.577229E+0	1.573262E+0	1.610710E+0	1.673038E+0	1.619697E+0	1.537427E+0	1.589811E+0	1.617274E+0	1.645341E+0	1.611525E+0	1.642685E+0	1.518276E+0	1.620134E+0	1.530970E+0	1.564073E+0	1.684781E+0	1.672556E+0	1.585774E+0	1.564767E+0	1.644985E+0	1.568046E+0	1.614891E+0	1.649262E+0	1.620514E+0	1.599300E+0	1.558645E+0	1.573040E+0	1.611634E+0	1.620448E+0	1.549448E+0	1.605733E+0	1.577183E+0	1.639338E+0	1.573286E+0	1.581303E+0	1.614358E+0	1.623456E+0	1.519670E+0	1.557544E+0	1.628531E+0	1.583605E+0	1.615463E+0	1.555381E+0	1.627321E+0	1.646797E+0	1.600478E+0	1.630380E+0	1.558072E+0	1.601605E+0	1.568639E+0	1.603159E+0	1.568796E+0	1.542139E+0	1.547956E+0	1.645113E+0	1.526082E+0	1.582771E+0	1.562670E+0	1.687923E+0	1.658558E+0	1.587077E+0	1.573905E+0	1.534344E+0	1.565622E+0	1.598642E+0	1.598564E+0	1.569542E+0	1.587503E+0	1.588901E+0	1.581988E+0	1.593398E+0	1.568841E+0	1.631564E+0	1.506686E+0	1.615551E+0	1.646475E+0	1.500331E+0	1.621614E+0	1.621671E+0	1.550154E+0	1.534605E+0	1.589088E+0	1.559014E+0	1.560913E+0	1.574572E+0	1.585368E+0	1.608482E+0	1.612038E+0	1.598160E+0	1.561931E+0	1.552530E+0	1.586924E+0	1.585792E+0	1.548684E+0	1.589743E+0	1.569067E+0	1.612635E+0	1.549238E+0	1.580287E+0	1.607513E+0	1.584248E+0	1.568625E+0	1.587318E+0	1.548486E+0	1.607819E+0	1.539000E+0	1.555124E+0	1.510126E+0	1.601605E+0
5.417650E+2	1.494378E+0	1.447607E+0	1.489037E+0	1.498412E+0	1.500582E+0	1.500901E+0	1.472295E+0	1.500201E+0	1.556511E+0	1.496391E+0	1.476737E+0	1.476309E+0	1.447373E+0	1.437780E+0	1.508340E+0	1.457825E+0	1.444892E+0	1.485297E+0	1.427113E+0	1.479384E+0	1.478978E+0	1.444756E+0	1.489209E+0	1.483990E+0	1.508837E+0	1.493483E+0	1.549747E+0	1.542512E+0	1.527156E+0	1.460556E+0	1.488400E+0	1.412004E+0	1.516822E+0	1.468175E+0	1.435152E+0	1.452339E+0	1.536092E+0	1.451551E+0	1.483653E+0	1.481174E+0	1.493359E+0	1.503199E+0	1.412455E+0	1.505298E+0	1.503880E+0	1.451669E+0	1.497166E+0	1.446642E+0	1.504267E+0	1.442777E+0	1.463283E+0	1.499106E+0	1.472929E+0	1.472183E+0	1.494362E+0	1.493566E+0	1.420657E+0	1.451032E+0	1.472588E+0	1.536582E+0	1.464100E+0	1.444922E+0	1.417073E+0	1.473010E+0	1.477116E+0	1.452552E+0	1.491740E+0	1.499910E+0	1.474011E+0	1.424095E+0	1.480026E+0	1.554135E+0	1.493665E+0	1.527701E+0	1.487343E+0	1.566186E+0	1.489046E+0	1.505657E+0	1.434473E+0	1.460747E+0	1.480049E+0	1.460430E+0	1.509024E+0	1.456001E+0	1.476378E+0	1.432731E+0	1.437225E+0	1.508158E+0	1.499459E+0	1.456540E+0	1.421375E+0	1.434620E+0	1.469519E+0	1.401662E+0	1.456334E+0	1.518612E+0	1.422480E+0	1.429463E+0	1.477619E+0	1.447391E+0	1.485236E+0	1.432458E+0	1.500963E+0	1.474374E+0	1.424235E+0	1.445604E+0	1.464183E+0	1.490289E+0	1.460984E+0	1.467909E+0	1.433025E+0	1.408110E+0	1.497813E+0	1.449736E+0	1.459797E+0	1.443470E+0	1.455014E+0	1.446050E+0	1.478096E+0	1.573508E+0	1.374106E+0	1.458698E+0	1.469967E+0	1.430175E+0	1.438194E+0	1.393588E+0	1.472790E+0	1.470085E+0	1.487600E+0	1.431735E+0	1.453075E+0	1.507789E+0	1.426728E+0	1.471782E+0	1.503543E+0	1.455195E+0	1.426589E+0	1.405679E+0	1.542368E+0	1.415087E+0	1.508950E+0	1.469565E+0	1.470211E+0	1.473909E+0	1.436663E+0	1.434026E+0	1.435736E+0	1.488465E+0	1.409029E+0	1.449386E+0	1.495279E+0	1.477313E+0	1.472393E+0	1.429122E+0	1.489103E+0	1.540885E+0	1.500314E+0	1.384302E+0	1.431182E+0	1.466323E+0	1.476544E+0	1.417845E+0	1.519073E+0	1.397505E+0	1.360067E+0
5.420110E+2	1.361148E+0	1.320864E+0	1.331030E+0	1.278770E+0	1.354737E+0	1.304931E+0	1.343056E+0	1.309347E+0	1.316469E+0	1.320130E+0	1.323778E+0	1.319143E+0	1.340906E+0	1.354664E+0	1.313795E+0	1.337563E+0	1.347085E+0	1.331627E+0	1.293931E+0	1.349522E+0	1.308966E+0	1.336488E+0	1.316496E+0	1.300908E+0	1.307008E+0	1.331112E+0	1.357672E+0	1.355719E+0	1.337024E+0	1.332741E+0	1.319986E+0	1.319124E+0	1.361828E+0	1.265235E+0	1.320980E+0	1.296339E+0	1.298622E+0	1.319537E+0	1.309943E+0	1.323031E+0	1.393340E+0	1.341577E+0	1.259209E+0	1.349363E+0	1.335340E+0	1.326530E+0	1.321689E+0	1.265904E+0	1.287925E+0	1.312256E+0	1.311076E+0	1.291921E+0	1.328810E+0	1.277700E+0	1.322513E+0	1.362733E+0	1.369498E+0	1.318796E+0	1.293659E+0	1.355216E+0	1.333753E+0	1.293428E+0	1.231562E+0	1.329198E+0	1.313545E+0	1.329435E+0	1.319048E+0	1.292812E+0	1.340890E+0	1.265494E+0	1.287031E+0	1.346470E+0	1.325262E+0	1.315737E+0	1.324514E+0	1.346747E+0	1.321737E+0	1.325127E+0	1.333158E+0	1.282856E+0	1.346115E+0	1.275780E+0	1.358582E+0	1.363544E+0	1.361640E+0	1.220422E+0	1.292342E+0	1.277153E+0	1.322240E+0	1.316135E+0	1.280941E+0	1.296331E+0	1.299228E+0	1.299208E+0	1.339758E+0	1.300995E+0	1.354628E+0	1.355799E+0	1.364818E+0	1.274819E+0	1.328992E+0	1.306964E+0	1.319470E+0	1.333312E+0	1.289533E+0	1.373227E+0	1.326046E+0	1.315770E+0	1.285621E+0	1.286679E+0	1.307070E+0	1.244887E+0	1.292520E+0	1.310293E+0	1.316857E+0	1.344430E+0	1.362132E+0	1.348762E+0	1.337806E+0	1.302225E+0	1.263976E+0	1.284436E+0	1.274382E+0	1.369208E+0	1.306552E+0	1.305163E+0	1.338673E+0	1.295326E+0	1.341550E+0	1.271367E+0	1.296850E+0	1.330173E+0	1.321838E+0	1.297129E+0	1.324884E+0	1.291714E+0	1.305306E+0	1.333579E+0	1.284623E+0	1.322018E+0	1.283072E+0	1.313540E+0	1.290562E+0	1.332302E+0	1.342062E+0	1.343416E+0	1.350185E+0	1.274693E+0	1.262488E+0	1.272241E+0	1.344794E+0	1.286777E+0	1.306420E+0	1.243615E+0	1.266619E+0	1.303902E+0	1.242114E+0	1.226441E+0	1.266738E+0	1.305325E+0	1.324812E+0	1.308630E+0	1.328286E+0	1.368477E+0	1.359275E+0
5.422670E+2	1.153717E+0	1.111695E+0	1.190190E+0	1.174015E+0	1.173144E+0	1.102593E+0	1.256655E+0	1.164166E+0	1.141183E+0	1.119215E+0	1.181166E+0	1.190384E+0	1.167657E+0	1.162724E+0	1.152277E+0	1.165491E+0	1.153835E+0	1.183557E+0	1.166040E+0	1.185953E+0	1.117470E+0	1.165252E+0	1.168500E+0	1.174816E+0	1.220487E+0	1.186905E+0	1.165821E+0	1.205078E+0	1.201863E+0	1.158481E+0	1.180297E+0	1.172643E+0	1.160285E+0	1.118161E+0	1.191278E+0	1.139681E+0	1.191441E+0	1.126400E+0	1.184693E+0	1.109291E+0	1.195641E+0	1.152662E+0	1.210902E+0	1.163061E+0	1.155723E+0	1.125925E+0	1.181335E+0	1.140625E+0	1.126247E+0	1.097636E+0	1.157627E+0	1.167505E+0	1.196935E+0	1.118940E+0	1.134356E+0	1.190515E+0	1.155870E+0	1.172257E+0	1.190922E+0	1.174893E+0	1.170410E+0	1.160980E+0	1.144756E+0	1.161591E+0	1.198043E+0	1.168067E+0	1.177973E+0	1.194117E+0	1.140228E+0	1.169388E+0	1.149548E+0	1.232293E+0	1.158418E+0	1.176703E+0	1.150601E+0	1.225570E+0	1.162563E+0	1.160214E+0	1.162550E+0	1.178432E+0	1.180701E+0	1.098001E+0	1.183925E+0	1.154075E+0	1.194438E+0	1.171577E+0	1.163401E+0	1.146068E+0	1.182395E+0	1.199518E+0	1.143257E+0	1.124751E+0	1.190515E+0	1.185839E+0	1.133147E+0	1.159759E+0	1.144267E+0	1.141149E+0	1.140121E+0	1.152652E+0	1.203646E+0	1.165216E+0	1.133813E+0	1.243729E+0	1.160245E+0	1.185149E+0	1.196777E+0	1.145043E+0	1.171636E+0	1.132806E+0	1.174428E+0	1.151524E+0	1.161726E+0	1.143858E+0	1.150117E+0	1.188700E+0	1.158441E+0	1.171958E+0	1.117078E+0	1.165464E+0	1.196710E+0	1.157758E+0	1.160108E+0	1.215583E+0	1.196636E+0	1.123285E+0	1.143360E+0	1.192800E+0	1.136631E+0	1.114154E+0	1.124419E+0	1.207918E+0	1.172252E+0	1.139478E+0	1.139197E+0	1.149666E+0	1.170497E+0	1.221562E+0	1.123084E+0	1.138315E+0	1.136008E+0	1.159050E+0	1.168164E+0	1.123684E+0	1.135559E+0	1.158820E+0	1.149859E+0	1.116659E+0	1.143700E+0	1.099434E+0	1.185668E+0	1.201215E+0	1.140139E+0	1.119951E+0	1.203147E+0	1.144782E+0	1.136606E+0	1.129554E+0	1.157510E+0	1.182681E+0	1.156130E+0	1.081884E+0	1.202868E+0	1.134547E+0	1.173140E+0
5.425080E+2	1.022121E+0	1.014132E+0	1.018724E+0	1.037216E+0	1.012468E+0	1.005152E+0	1.071004E+0	1.040671E+0	9.982755E-1	1.029770E+0	1.038743E+0	1.020885E+0	1.049163E+0	1.049843E+0	1.043777E+0	1.000691E+0	1.076133E+0	1.013657E+0	9.902751E-1	1.008148E+0	1.010518E+0	9.930992E-1	1.017912E+0	1.061633E+0	1.074920E+0	1.063641E+0	1.016372E+0	1.044034E+0	1.015472E+0	1.027341E+0	9.853296E-1	9.945590E-1	1.011739E+0	1.019755E+0	1.006051E+0	1.109679E+0	1.037679E+0	1.012891E+0	1.003446E+0	1.051196E+0	1.039063E+0	1.033066E+0	1.053124E+0	1.045713E+0	1.060423E+0	1.006583E+0	1.008464E+0	1.018355E+0	1.041338E+0	1.034907E+0	1.030433E+0	9.834641E-1	1.057971E+0	9.977990E-1	1.007644E+0	1.014884E+0	1.042555E+0	1.046135E+0	1.042332E+0	1.055202E+0	1.071275E+0	1.039212E+0	1.041138E+0	1.064356E+0	1.102757E+0	1.035432E+0	1.034111E+0	1.039001E+0	1.053481E+0	1.057648E+0	1.054922E+0	1.052775E+0	1.061850E+0	9.958181E-1	1.055685E+0	1.089212E+0	1.044204E+0	1.015121E+0	1.028872E+0	9.924250E-1	1.003949E+0	1.038534E+0	1.008565E+0	1.078287E+0	1.051363E+0	1.025484E+0	1.028298E+0	1.034485E+0	1.017121E+0	9.950021E-1	9.843616E-1	1.053821E+0	1.028519E+0	1.019803E+0	1.038029E+0	1.063674E+0	1.026943E+0	1.095831E+0	1.006781E+0	1.021494E+0	1.043373E+0	1.013284E+0	9.667382E-1	1.035170E+0	1.038005E+0	1.023864E+0	1.019202E+0	1.037645E+0	9.888114E-1	1.066576E+0	1.031728E+0	9.913589E-1	1.037540E+0	1.017480E+0	1.069777E+0	9.670789E-1	1.093882E+0	1.008762E+0	1.015515E+0	1.067599E+0	1.009318E+0	1.023573E+0	9.532096E-1	1.094470E+0	1.035705E+0	9.762107E-1	1.031824E+0	1.048181E+0	1.087138E+0	1.015341E+0	1.025277E+0	1.049451E+0	1.026374E+0	1.071753E+0	9.995043E-1	1.019185E+0	1.043642E+0	1.034554E+0	9.882716E-1	1.073581E+0	1.022203E+0	1.049644E+0	1.054599E+0	1.034570E+0	1.021150E+0	1.045444E+0	1.025262E+0	1.019564E+0	1.012420E+0	1.064618E+0	1.077627E+0	1.065986E+0	9.972516E-1	9.893930E-1	1.067960E+0	1.070841E+0	1.036625E+0	1.005433E+0	1.041048E+0	1.024092E+0	1.043811E+0	1.016116E+0	1.053946E+0	1.039946E+0	9.792613E-1
5.427600E+2	9.466412E-1	9.577469E-1	9.824491E-1	9.517661E-1	9.591935E-1	9.592899E-1	9.492241E-1	1.009814E+0	1.022955E+0	9.803436E-1	9.550723E-1	9.358315E-1	1.002241E+0	9.348993E-1	9.910008E-1	9.410135E-1	1.031052E+0	9.989043E-1	9.961418E-1	9.964003E-1	1.003726E+0	9.752314E-1	9.754080E-1	9.121414E-1	1.001458E+0	9.685025E-1	9.664781E-1	9.617793E-1	9.974000E-1	9.552929E-1	9.425052E-1	9.915897E-1	9.432217E-1	9.156719E-1	9.030555E-1	9.678668E-1	9.347564E-1	9.598902E-1	9.505108E-1	9.892160E-1	9.587080E-1	9.973185E-1	9.674226E-1	9.765625E-1	9.576050E-1	1.002730E+0	9.184204E-1	9.427872E-1	9.919586E-1	9.358049E-1	1.008810E+0	9.713586E-1	9.652931E-1	9.763583E-1	9.560913E-1	9.701298E-1	9.652727E-1	9.597561E-1	9.653458E-1	9.502454E-1	9.430793E-1	9.615670E-1	9.009992E-1	9.189325E-1	9.449948E-1	9.824659E-1	9.947622E-1	9.951576E-1	9.724650E-1	9.562127E-1	9.460031E-1	1.040706E+0	9.705747E-1	9.547660E-1	9.489721E-1	1.053914E+0	9.573673E-1	9.240995E-1	9.368209E-1	9.364556E-1	9.553845E-1	9.655085E-1	9.419681E-1	9.887926E-1	9.928494E-1	9.519078E-1	9.531248E-1	9.611390E-1	9.438890E-1	1.015061E+0	9.444239E-1	9.857764E-1	9.474965E-1	9.487698E-1	9.369825E-1	9.733551E-1	9.777281E-1	9.341498E-1	8.946453E-1	9.273715E-1	9.686852E-1	1.011046E+0	9.413860E-1	9.288677E-1	9.418607E-1	8.941152E-1	9.498304E-1	9.408116E-1	9.359882E-1	9.505253E-1	9.752557E-1	9.382238E-1	9.611911E-1	9.635096E-1	9.997542E-1	1.001989E+0	9.722058E-1	9.700794E-1	8.855942E-1	9.552348E-1	1.028961E+0	9.780662E-1	9.547539E-1	1.040092E+0	9.769691E-1	9.568002E-1	9.430636E-1	9.971931E-1	9.373647E-1	9.252718E-1	9.516590E-1	9.681230E-1	9.513878E-1	9.661677E-1	9.180140E-1	9.602580E-1	9.769203E-1	9.316629E-1	9.142270E-1	9.883291E-1	9.512391E-1	1.030803E+0	9.521659E-1	9.808100E-1	1.025027E+0	9.440569E-1	9.336146E-1	9.100502E-1	9.540775E-1	9.365734E-1	1.000389E+0	1.014697E+0	9.411533E-1	9.295917E-1	9.630460E-1	9.429167E-1	9.717879E-1	9.479613E-1	9.647936E-1	9.707820E-1	9.626632E-1	8.887758E-1	9.255068E-1	9.404050E-1	9.619825E-1
5.430330E+2	1.008700E+0	9.910767E-1	1.047211E+0	9.630955E-1	9.974093E-1	9.822001E-1	1.017633E+0	1.038566E+0	1.020893E+0	1.007488E+0	1.036084E+0	9.759626E-1	9.930055E-1	9.920938E-1	1.028365E+0	9.900678E-1	1.055387E+0	1.025574E+0	1.013653E+0	1.014928E+0	9.828096E-1	1.027854E+0	1.034355E+0	1.004032E+0	1.011891E+0	1.049327E+0	1.001013E+0	1.043473E+0	1.056447E+0	9.878957E-1	9.929368E-1	1.000792E+0	1.031598E+0	9.660248E-1	1.008961E+0	9.889852E-1	1.011796E+0	1.006999E+0	9.989132E-1	1.020413E+0	1.024915E+0	9.513323E-1	1.028438E+0	1.000599E+0	1.016727E+0	1.051476E+0	9.693982E-1	9.889087E-1	9.793099E-1	1.010627E+0	9.985809E-1	1.054381E+0	1.066393E+0	9.601122E-1	9.822556E-1	9.830843E-1	1.054563E+0	1.021860E+0	1.023581E+0	1.024269E+0	1.002652E+0	9.796119E-1	9.519029E-1	1.020530E+0	1.041884E+0	9.629741E-1	9.808320E-1	9.933559E-1	1.029149E+0	1.030265E+0	9.930503E-1	1.019109E+0	9.894149E-1	9.777875E-1	9.572546E-1	1.074974E+0	9.679642E-1	1.003565E+0	1.038993E+0	9.938723E-1	9.807179E-1	9.925085E-1	9.755020E-1	1.006253E+0	1.011954E+0	9.104269E-1	1.007258E+0	1.014511E+0	1.026472E+0	9.882289E-1	9.735331E-1	9.997075E-1	1.003944E+0	9.789907E-1	9.686694E-1	1.011786E+0	9.740162E-1	9.682481E-1	1.029588E+0	1.047036E+0	1.014157E+0	1.059697E+0	1.018408E+0	1.037865E+0	9.784677E-1	1.018102E+0	1.022600E+0	9.845657E-1	1.045233E+0	9.885249E-1	1.024989E+0	9.988904E-1	9.904999E-1	1.007710E+0	9.803088E-1	1.030538E+0	1.023453E+0	1.001320E+0	9.706223E-1	9.849666E-1	9.826516E-1	9.393696E-1	9.458954E-1	1.073893E+0	1.032754E+0	9.770821E-1	1.017736E+0	9.952607E-1	1.039867E+0	9.886428E-1	1.010177E+0	9.868917E-1	1.041882E+0	9.915695E-1	9.768196E-1	1.009526E+0	1.009757E+0	1.001833E+0	9.391215E-1	1.023085E+0	1.057573E+0	1.013589E+0	1.006405E+0	1.005640E+0	9.787888E-1	1.027478E+0	1.043937E+0	9.692303E-1	9.736268E-1	9.681653E-1	9.933454E-1	1.018439E+0	9.400265E-1	9.573913E-1	1.019437E+0	1.053516E+0	9.532838E-1	9.981349E-1	9.933759E-1	1.043013E+0	1.015202E+0	9.899859E-1	9.852940E-1	9.601434E-1	1.052934E+0
5.432640E+2	9.980453E-1	1.082320E+0	1.077629E+0	1.082982E+0	1.060023E+0	1.049117E+0	1.073991E+0	1.135790E+0	1.038128E+0	1.077401E+0	1.087387E+0	1.054393E+0	1.063831E+0	1.056569E+0	1.074041E+0	1.090932E+0	1.135458E+0	1.100936E+0	1.078321E+0	1.104687E+0	1.097167E+0	1.093424E+0	1.139284E+0	1.091010E+0	1.061301E+0	1.079040E+0	1.104203E+0	1.107507E+0	1.110821E+0	1.056292E+0	1.107854E+0	1.094384E+0	1.154635E+0	1.105752E+0	1.108321E+0	1.100520E+0	1.033417E+0	1.127513E+0	1.111736E+0	1.094272E+0	1.102465E+0	1.105321E+0	1.121075E+0	1.114748E+0	1.118900E+0	1.119016E+0	1.071220E+0	1.069700E+0	1.051420E+0	1.094458E+0	1.066739E+0	1.035040E+0	1.071359E+0	1.115683E+0	1.069378E+0	1.015301E+0	1.060838E+0	1.096760E+0	1.056371E+0	1.099644E+0	1.097234E+0	1.085614E+0	1.065037E+0	1.084076E+0	1.096639E+0	1.127649E+0	1.061643E+0	1.061843E+0	1.099823E+0	1.077745E+0	1.038085E+0	1.113687E+0	1.109658E+0	1.092269E+0	1.094680E+0	1.118108E+0	1.052344E+0	1.056622E+0	1.014083E+0	1.101648E+0	1.091508E+0	1.048718E+0	1.033411E+0	1.097427E+0	1.083578E+0	1.059764E+0	1.044748E+0	1.131727E+0	1.038938E+0	1.073575E+0	1.017045E+0	1.049332E+0	1.074648E+0	1.033147E+0	1.099930E+0	1.062052E+0	1.098980E+0	1.056313E+0	1.106248E+0	1.070806E+0	1.101554E+0	1.082415E+0	1.046915E+0	1.115697E+0	1.035524E+0	1.088607E+0	1.031294E+0	1.035697E+0	1.084508E+0	1.066096E+0	1.087481E+0	1.050732E+0	1.125897E+0	1.073120E+0	1.026761E+0	1.099297E+0	1.138999E+0	1.039771E+0	1.042250E+0	1.101201E+0	1.077390E+0	1.050868E+0	1.050133E+0	1.138207E+0	1.032447E+0	1.062284E+0	1.049659E+0	1.062434E+0	1.064290E+0	1.012556E+0	1.067393E+0	1.074445E+0	1.126620E+0	1.092091E+0	1.035470E+0	1.103357E+0	1.059251E+0	1.072725E+0	1.074236E+0	1.036748E+0	1.082132E+0	1.076072E+0	1.071729E+0	1.029618E+0	1.069757E+0	1.040557E+0	1.058172E+0	1.048297E+0	1.028280E+0	1.082819E+0	1.066613E+0	1.083734E+0	1.114061E+0	1.024721E+0	1.064126E+0	1.137240E+0	1.073515E+0	1.065277E+0	1.059253E+0	1.073097E+0	1.139827E+0	1.060616E+0	1.094205E+0	1.105353E+0	1.147892E+0
5.435110E+2	1.243643E+0	1.211476E+0	1.300335E+0	1.245803E+0	1.199954E+0	1.238253E+0	1.275223E+0	1.262740E+0	1.271713E+0	1.202271E+0	1.255360E+0	1.270678E+0	1.285186E+0	1.211556E+0	1.220123E+0	1.242230E+0	1.312336E+0	1.220638E+0	1.251251E+0	1.300170E+0	1.296686E+0	1.216358E+0	1.222521E+0	1.285042E+0	1.307346E+0	1.318561E+0	1.251362E+0	1.312879E+0	1.269636E+0	1.237089E+0	1.235748E+0	1.282551E+0	1.319365E+0	1.247365E+0	1.295814E+0	1.276397E+0	1.302658E+0	1.228229E+0	1.249797E+0	1.264267E+0	1.224659E+0	1.237805E+0	1.223712E+0	1.303318E+0	1.256172E+0	1.234541E+0	1.243123E+0	1.236372E+0	1.272526E+0	1.242696E+0	1.267504E+0	1.225802E+0	1.287428E+0	1.247261E+0	1.238601E+0	1.265384E+0	1.261307E+0	1.271196E+0	1.199852E+0	1.340115E+0	1.167893E+0	1.206329E+0	1.213045E+0	1.206414E+0	1.262888E+0	1.256061E+0	1.270183E+0	1.269386E+0	1.274948E+0	1.197470E+0	1.241978E+0	1.318343E+0	1.261516E+0	1.206939E+0	1.279868E+0	1.283906E+0	1.247610E+0	1.246970E+0	1.236935E+0	1.223977E+0	1.300960E+0	1.208650E+0	1.216174E+0	1.273506E+0	1.300228E+0	1.199787E+0	1.235149E+0	1.230801E+0	1.220038E+0	1.287594E+0	1.234814E+0	1.217839E+0	1.262548E+0	1.189872E+0	1.248709E+0	1.255955E+0	1.217772E+0	1.302217E+0	1.259161E+0	1.282322E+0	1.280100E+0	1.220048E+0	1.274177E+0	1.272737E+0	1.288600E+0	1.279048E+0	1.215955E+0	1.251523E+0	1.223695E+0	1.277960E+0	1.225178E+0	1.204210E+0	1.240663E+0	1.227841E+0	1.260946E+0	1.257075E+0	1.276197E+0	1.270906E+0	1.189434E+0	1.239973E+0	1.260945E+0	1.240669E+0	1.230008E+0	1.266347E+0	1.233061E+0	1.265306E+0	1.238836E+0	1.244747E+0	1.257027E+0	1.238451E+0	1.206792E+0	1.234555E+0	1.290757E+0	1.236351E+0	1.244282E+0	1.312605E+0	1.256601E+0	1.245104E+0	1.279619E+0	1.315551E+0	1.271072E+0	1.219317E+0	1.218087E+0	1.219340E+0	1.234291E+0	1.234974E+0	1.226246E+0	1.251210E+0	1.242095E+0	1.234452E+0	1.283972E+0	1.326426E+0	1.215906E+0	1.221857E+0	1.266921E+0	1.261093E+0	1.230525E+0	1.222830E+0	1.189873E+0	1.256879E+0	1.329351E+0	1.229668E+0	1.244194E+0	1.308928E+0	1.297404E+0
5.437640E+2	1.477255E+0	1.393691E+0	1.378037E+0	1.416738E+0	1.388435E+0	1.442960E+0	1.453159E+0	1.452002E+0	1.390905E+0	1.456744E+0	1.371884E+0	1.426400E+0	1.432200E+0	1.413895E+0	1.393096E+0	1.376952E+0	1.457606E+0	1.413846E+0	1.479550E+0	1.415591E+0	1.419067E+0	1.456416E+0	1.460358E+0	1.462462E+0	1.447479E+0	1.356325E+0	1.399148E+0	1.477023E+0	1.429449E+0	1.387330E+0	1.452436E+0	1.398540E+0	1.446793E+0	1.417301E+0	1.494843E+0	1.496926E+0	1.398976E+0	1.391711E+0	1.335346E+0	1.385398E+0	1.490044E+0	1.390363E+0	1.397587E+0	1.374436E+0	1.454328E+0	1.435946E+0	1.381263E+0	1.386871E+0	1.416185E+0	1.415885E+0	1.458232E+0	1.347959E+0	1.445219E+0	1.446054E+0	1.361738E+0	1.458216E+0	1.428707E+0	1.378218E+0	1.406214E+0	1.471562E+0	1.392326E+0	1.373221E+0	1.372164E+0	1.406007E+0	1.385089E+0	1.409754E+0	1.360969E+0	1.439432E+0	1.393850E+0	1.414434E+0	1.330711E+0	1.426150E+0	1.445615E+0	1.411013E+0	1.407875E+0	1.447771E+0	1.395352E+0	1.334109E+0	1.410900E+0	1.468162E+0	1.488200E+0	1.415148E+0	1.338953E+0	1.350714E+0	1.458412E+0	1.444628E+0	1.390314E+0	1.402725E+0	1.432189E+0	1.399042E+0	1.365272E+0	1.383891E+0	1.355997E+0	1.383732E+0	1.420388E+0	1.428466E+0	1.474346E+0	1.351782E+0	1.364241E+0	1.424312E+0	1.388597E+0	1.409896E+0	1.419199E+0	1.474974E+0	1.407148E+0	1.489894E+0	1.465055E+0	1.485726E+0	1.439034E+0	1.401786E+0	1.401099E+0	1.340905E+0	1.413431E+0	1.370452E+0	1.379279E+0	1.426441E+0	1.382101E+0	1.402608E+0	1.389229E+0	1.387936E+0	1.398286E+0	1.384640E+0	1.382597E+0	1.470251E+0	1.402558E+0	1.386255E+0	1.385473E+0	1.426944E+0	1.401091E+0	1.391082E+0	1.344360E+0	1.425020E+0	1.396169E+0	1.392856E+0	1.399836E+0	1.375462E+0	1.431365E+0	1.355549E+0	1.347132E+0	1.400985E+0	1.391629E+0	1.369693E+0	1.399064E+0	1.388559E+0	1.454841E+0	1.459860E+0	1.381877E+0	1.387021E+0	1.364294E+0	1.434174E+0	1.404489E+0	1.394488E+0	1.407311E+0	1.416242E+0	1.468648E+0	1.482539E+0	1.413176E+0	1.356034E+0	1.390600E+0	1.423761E+0	1.462786E+0	1.365065E+0	1.390107E+0	1.530392E+0	1.255775E+0
5.440280E+2	1.591149E+0	1.495308E+0	1.586942E+0	1.527618E+0	1.517922E+0	1.553770E+0	1.525210E+0	1.548725E+0	1.573255E+0	1.533600E+0	1.537217E+0	1.527700E+0	1.546501E+0	1.543794E+0	1.571619E+0	1.557206E+0	1.579387E+0	1.545822E+0	1.564930E+0	1.523585E+0	1.536420E+0	1.533994E+0	1.599978E+0	1.496842E+0	1.552354E+0	1.576065E+0	1.536039E+0	1.573941E+0	1.551193E+0	1.530693E+0	1.506244E+0	1.506672E+0	1.574218E+0	1.498119E+0	1.541687E+0	1.553652E+0	1.514858E+0	1.555520E+0	1.532554E+0	1.490158E+0	1.574456E+0	1.524643E+0	1.543618E+0	1.557812E+0	1.562543E+0	1.486141E+0	1.502278E+0	1.516556E+0	1.484039E+0	1.498295E+0	1.491846E+0	1.564169E+0	1.520180E+0	1.562428E+0	1.497716E+0	1.564859E+0	1.490576E+0	1.505602E+0	1.511484E+0	1.551558E+0	1.516085E+0	1.507098E+0	1.507858E+0	1.546177E+0	1.591210E+0	1.437496E+0	1.546674E+0	1.563817E+0	1.514283E+0	1.485045E+0	1.473644E+0	1.542417E+0	1.527778E+0	1.451575E+0	1.488871E+0	1.551666E+0	1.503919E+0	1.534737E+0	1.509829E+0	1.560291E+0	1.521312E+0	1.465719E+0	1.526521E+0	1.538029E+0	1.524969E+0	1.471349E+0	1.537587E+0	1.543267E+0	1.539950E+0	1.479145E+0	1.437721E+0	1.594776E+0	1.520460E+0	1.444938E+0	1.504997E+0	1.485229E+0	1.494626E+0	1.521748E+0	1.512156E+0	1.519695E+0	1.528303E+0	1.490109E+0	1.500330E+0	1.552131E+0	1.502443E+0	1.542234E+0	1.530513E+0	1.514059E+0	1.477822E+0	1.544443E+0	1.486746E+0	1.473281E+0	1.562093E+0	1.483642E+0	1.487814E+0	1.498150E+0	1.461307E+0	1.499923E+0	1.448912E+0	1.555518E+0	1.553065E+0	1.536396E+0	1.512445E+0	1.549300E+0	1.561009E+0	1.501073E+0	1.533554E+0	1.537494E+0	1.539059E+0	1.461740E+0	1.450047E+0	1.569155E+0	1.523460E+0	1.436444E+0	1.501512E+0	1.553128E+0	1.479868E+0	1.492486E+0	1.446399E+0	1.526944E+0	1.545184E+0	1.504953E+0	1.550307E+0	1.524758E+0	1.455183E+0	1.503655E+0	1.522932E+0	1.550430E+0	1.466568E+0	1.532177E+0	1.471096E+0	1.453866E+0	1.501344E+0	1.529138E+0	1.538893E+0	1.555161E+0	1.492900E+0	1.418795E+0	1.472400E+0	1.491284E+0	1.585952E+0	1.470341E+0	1.441374E+0	1.477337E+0	1.548404E+0
5.442810E+2	1.552248E+0	1.556767E+0	1.548481E+0	1.637346E+0	1.590355E+0	1.540479E+0	1.614729E+0	1.608743E+0	1.614123E+0	1.655289E+0	1.601715E+0	1.576914E+0	1.612941E+0	1.568120E+0	1.583385E+0	1.538556E+0	1.580619E+0	1.577351E+0	1.529686E+0	1.554172E+0	1.562142E+0	1.542756E+0	1.535346E+0	1.532311E+0	1.628233E+0	1.586939E+0	1.530710E+0	1.575104E+0	1.598411E+0	1.567856E+0	1.584633E+0	1.604812E+0	1.583974E+0	1.560357E+0	1.544115E+0	1.571438E+0	1.586337E+0	1.536939E+0	1.556729E+0	1.584869E+0	1.579522E+0	1.548275E+0	1.567193E+0	1.548114E+0	1.561887E+0	1.569674E+0	1.554656E+0	1.564673E+0	1.611044E+0	1.503259E+0	1.606112E+0	1.555998E+0	1.574266E+0	1.619645E+0	1.594339E+0	1.602607E+0	1.567658E+0	1.600190E+0	1.566109E+0	1.643112E+0	1.541919E+0	1.544306E+0	1.514535E+0	1.540677E+0	1.590372E+0	1.594656E+0	1.558839E+0	1.605344E+0	1.559253E+0	1.504617E+0	1.516435E+0	1.592965E+0	1.658111E+0	1.576335E+0	1.599320E+0	1.638780E+0	1.511040E+0	1.583818E+0	1.525367E+0	1.516428E+0	1.551797E+0	1.540650E+0	1.524699E+0	1.616011E+0	1.580370E+0	1.518472E+0	1.563724E+0	1.569507E+0	1.556014E+0	1.590733E+0	1.533155E+0	1.564366E+0	1.591151E+0	1.540537E+0	1.577116E+0	1.604533E+0	1.596273E+0	1.624391E+0	1.528711E+0	1.607108E+0	1.507836E+0	1.554417E+0	1.582077E+0	1.578084E+0	1.535271E+0	1.537821E+0	1.560267E+0	1.561576E+0	1.536705E+0	1.490065E+0	1.552223E+0	1.509934E+0	1.596402E+0	1.535424E+0	1.581012E+0	1.540087E+0	1.583639E+0	1.564619E+0	1.526778E+0	1.613155E+0	1.575166E+0	1.545570E+0	1.502381E+0	1.615437E+0	1.610287E+0	1.560227E+0	1.560050E+0	1.515928E+0	1.585056E+0	1.485589E+0	1.451581E+0	1.568907E+0	1.521440E+0	1.510062E+0	1.574347E+0	1.524471E+0	1.570530E+0	1.544374E+0	1.481529E+0	1.520031E+0	1.563570E+0	1.490203E+0	1.496914E+0	1.565473E+0	1.562177E+0	1.548481E+0	1.561779E+0	1.626768E+0	1.567981E+0	1.546093E+0	1.544980E+0	1.605949E+0	1.565942E+0	1.504708E+0	1.491373E+0	1.626718E+0	1.529566E+0	1.519091E+0	1.513733E+0	1.530782E+0	1.639400E+0	1.623698E+0	1.587999E+0	1.581494E+0	1.565259E+0
5.445400E+2	1.570946E+0	1.600829E+0	1.592781E+0	1.602267E+0	1.623326E+0	1.671754E+0	1.629373E+0	1.605945E+0	1.612633E+0	1.635763E+0	1.625152E+0	1.620880E+0	1.562423E+0	1.653658E+0	1.579691E+0	1.577381E+0	1.520363E+0	1.553781E+0	1.557453E+0	1.572669E+0	1.573931E+0	1.636922E+0	1.575379E+0	1.567063E+0	1.621155E+0	1.596210E+0	1.556495E+0	1.641300E+0	1.630153E+0	1.597517E+0	1.618494E+0	1.577077E+0	1.585367E+0	1.526187E+0	1.599372E+0	1.550510E+0	1.579819E+0	1.593021E+0	1.596052E+0	1.551276E+0	1.633240E+0	1.554579E+0	1.560894E+0	1.569077E+0	1.574567E+0	1.563814E+0	1.610099E+0	1.584353E+0	1.586274E+0	1.570432E+0	1.629484E+0	1.558233E+0	1.605775E+0	1.589067E+0	1.543257E+0	1.600942E+0	1.577689E+0	1.589579E+0	1.570715E+0	1.701632E+0	1.590611E+0	1.528142E+0	1.536417E+0	1.546308E+0	1.590380E+0	1.575112E+0	1.559382E+0	1.614190E+0	1.642959E+0	1.550917E+0	1.575128E+0	1.640616E+0	1.645195E+0	1.550728E+0	1.535781E+0	1.659751E+0	1.644072E+0	1.474283E+0	1.607713E+0	1.555644E+0	1.626952E+0	1.509452E+0	1.552859E+0	1.655974E+0	1.603863E+0	1.535328E+0	1.534524E+0	1.615915E+0	1.640327E+0	1.563742E+0	1.544113E+0	1.548924E+0	1.611432E+0	1.527211E+0	1.559786E+0	1.622139E+0	1.532165E+0	1.561107E+0	1.535010E+0	1.577093E+0	1.604160E+0	1.572127E+0	1.520476E+0	1.582152E+0	1.507510E+0	1.583186E+0	1.589567E+0	1.524677E+0	1.522921E+0	1.525061E+0	1.597888E+0	1.557930E+0	1.597506E+0	1.548149E+0	1.536874E+0	1.595946E+0	1.607405E+0	1.566651E+0	1.478726E+0	1.584610E+0	1.527654E+0	1.551920E+0	1.575043E+0	1.651898E+0	1.565710E+0	1.544930E+0	1.551005E+0	1.532820E+0	1.513167E+0	1.508455E+0	1.526759E+0	1.587101E+0	1.605707E+0	1.572055E+0	1.498217E+0	1.584506E+0	1.625577E+0	1.522514E+0	1.504849E+0	1.514975E+0	1.605374E+0	1.530634E+0	1.517483E+0	1.509140E+0	1.611708E+0	1.585378E+0	1.545419E+0	1.541442E+0	1.508437E+0	1.563172E+0	1.561264E+0	1.554511E+0	1.598894E+0	1.569795E+0	1.582840E+0	1.665020E+0	1.570933E+0	1.552015E+0	1.618378E+0	1.527779E+0	1.583245E+0	1.523732E+0	1.549573E+0	1.480548E+0	1.473920E+0
5.447610E+2	1.568337E+0	1.573470E+0	1.576672E+0	1.602182E+0	1.573707E+0	1.581142E+0	1.588301E+0	1.611361E+0	1.531483E+0	1.625065E+0	1.578372E+0	1.574563E+0	1.600596E+0	1.569410E+0	1.577720E+0	1.593146E+0	1.548919E+0	1.579777E+0	1.514086E+0	1.542007E+0	1.553184E+0	1.589088E+0	1.572940E+0	1.537986E+0	1.627939E+0	1.523207E+0	1.586943E+0	1.598448E+0	1.537018E+0	1.556473E+0	1.598382E+0	1.558051E+0	1.622924E+0	1.526099E+0	1.562212E+0	1.509068E+0	1.584410E+0	1.552922E+0	1.487720E+0	1.542459E+0	1.571797E+0	1.626983E+0	1.555195E+0	1.584357E+0	1.605791E+0	1.569678E+0	1.542148E+0	1.550488E+0	1.569937E+0	1.591856E+0	1.521414E+0	1.498457E+0	1.590283E+0	1.547065E+0	1.570786E+0	1.615516E+0	1.581923E+0	1.553289E+0	1.526328E+0	1.572156E+0	1.536225E+0	1.523313E+0	1.526526E+0	1.554626E+0	1.615597E+0	1.550167E+0	1.556477E+0	1.562058E+0	1.557925E+0	1.513609E+0	1.543344E+0	1.558968E+0	1.526526E+0	1.504768E+0	1.580340E+0	1.633289E+0	1.552922E+0	1.570091E+0	1.550555E+0	1.584506E+0	1.588426E+0	1.556517E+0	1.536002E+0	1.631995E+0	1.572661E+0	1.489257E+0	1.539040E+0	1.578605E+0	1.567941E+0	1.547212E+0	1.524629E+0	1.590408E+0	1.570593E+0	1.466921E+0	1.553905E+0	1.566765E+0	1.582549E+0	1.549431E+0	1.573060E+0	1.547075E+0	1.538634E+0	1.573936E+0	1.582398E+0	1.594946E+0	1.550499E+0	1.590909E+0	1.574030E+0	1.548024E+0	1.601101E+0	1.594514E+0	1.526706E+0	1.527498E+0	1.530771E+0	1.522864E+0	1.535075E+0	1.599632E+0	1.598853E+0	1.545249E+0	1.506264E+0	1.504821E+0	1.558210E+0	1.536665E+0	1.575823E+0	1.599986E+0	1.614311E+0	1.524730E+0	1.561806E+0	1.552885E+0	1.547184E+0	1.521156E+0	1.520630E+0	1.575674E+0	1.571932E+0	1.498048E+0	1.479987E+0	1.563605E+0	1.584441E+0	1.555651E+0	1.524298E+0	1.528672E+0	1.506586E+0	1.546105E+0	1.571665E+0	1.529770E+0	1.540351E+0	1.529723E+0	1.491789E+0	1.463654E+0	1.546327E+0	1.585077E+0	1.530437E+0	1.515795E+0	1.586384E+0	1.549774E+0	1.607461E+0	1.579466E+0	1.511650E+0	1.485096E+0	1.509030E+0	1.514123E+0	1.597387E+0	1.465516E+0	1.587105E+0	1.514084E+0	1.665945E+0
5.450150E+2	1.549282E+0	1.498197E+0	1.471890E+0	1.499384E+0	1.461982E+0	1.504126E+0	1.573097E+0	1.463500E+0	1.527995E+0	1.495363E+0	1.500362E+0	1.492047E+0	1.554636E+0	1.459138E+0	1.505149E+0	1.522492E+0	1.527521E+0	1.461652E+0	1.494761E+0	1.443712E+0	1.493582E+0	1.491530E+0	1.450089E+0	1.481844E+0	1.512891E+0	1.489491E+0	1.493091E+0	1.462859E+0	1.517787E+0	1.531116E+0	1.499425E+0	1.489003E+0	1.474049E+0	1.481649E+0	1.494735E+0	1.460775E+0	1.492285E+0	1.501152E+0	1.547373E+0	1.470207E+0	1.485919E+0	1.481500E+0	1.535696E+0	1.479110E+0	1.550898E+0	1.506067E+0	1.470850E+0	1.463758E+0	1.485469E+0	1.520582E+0	1.453647E+0	1.488428E+0	1.486900E+0	1.486057E+0	1.519585E+0	1.500603E+0	1.460550E+0	1.499372E+0	1.483504E+0	1.539044E+0	1.495476E+0	1.471449E+0	1.464677E+0	1.478414E+0	1.498919E+0	1.524058E+0	1.380659E+0	1.494776E+0	1.467356E+0	1.438011E+0	1.423168E+0	1.480685E+0	1.508079E+0	1.493563E+0	1.512234E+0	1.493247E+0	1.541028E+0	1.490595E+0	1.485588E+0	1.466913E+0	1.495436E+0	1.506668E+0	1.489205E+0	1.557219E+0	1.544515E+0	1.520484E+0	1.527530E+0	1.531627E+0	1.495570E+0	1.501257E+0	1.504496E+0	1.479298E+0	1.470121E+0	1.460544E+0	1.554265E+0	1.423899E+0	1.513217E+0	1.477199E+0	1.453374E+0	1.503346E+0	1.557917E+0	1.510831E+0	1.445402E+0	1.494664E+0	1.475267E+0	1.516994E+0	1.448101E+0	1.466701E+0	1.478495E+0	1.509826E+0	1.471131E+0	1.472778E+0	1.454331E+0	1.460198E+0	1.470256E+0	1.531106E+0	1.472696E+0	1.450866E+0	1.428678E+0	1.456524E+0	1.530872E+0	1.486423E+0	1.476753E+0	1.540032E+0	1.485901E+0	1.449565E+0	1.441863E+0	1.486200E+0	1.487502E+0	1.447829E+0	1.439556E+0	1.443248E+0	1.509802E+0	1.487573E+0	1.419273E+0	1.503677E+0	1.483800E+0	1.458424E+0	1.447980E+0	1.460585E+0	1.498340E+0	1.484160E+0	1.459927E+0	1.508019E+0	1.491304E+0	1.475654E+0	1.471890E+0	1.507489E+0	1.492128E+0	1.510455E+0	1.457009E+0	1.502842E+0	1.474268E+0	1.464853E+0	1.455873E+0	1.517158E+0	1.428648E+0	1.478262E+0	1.443341E+0	1.490657E+0	1.473358E+0	1.479639E+0	1.528733E+0	1.443847E+0	1.484816E+0
5.452640E+2	1.409129E+0	1.382336E+0	1.460295E+0	1.432427E+0	1.431402E+0	1.415511E+0	1.456788E+0	1.504022E+0	1.444362E+0	1.387600E+0	1.384132E+0	1.409211E+0	1.451594E+0	1.439998E+0	1.414918E+0	1.439967E+0	1.408780E+0	1.407209E+0	1.413561E+0	1.388476E+0	1.387890E+0	1.457006E+0	1.385374E+0	1.380787E+0	1.493015E+0	1.440754E+0	1.394978E+0	1.377721E+0	1.421498E+0	1.411892E+0	1.412976E+0	1.363371E+0	1.454483E+0	1.354447E+0	1.449697E+0	1.355789E+0	1.359501E+0	1.327480E+0	1.376603E+0	1.410934E+0	1.451422E+0	1.385496E+0	1.469544E+0	1.389398E+0	1.436856E+0	1.355560E+0	1.370422E+0	1.469435E+0	1.445447E+0	1.377903E+0	1.416267E+0	1.387887E+0	1.442562E+0	1.449153E+0	1.411417E+0	1.382329E+0	1.452695E+0	1.359887E+0	1.397266E+0	1.431170E+0	1.416694E+0	1.376611E+0	1.402079E+0	1.405498E+0	1.430398E+0	1.468193E+0	1.397176E+0	1.419297E+0	1.391072E+0	1.434012E+0	1.349336E+0	1.423350E+0	1.486339E+0	1.402941E+0	1.383852E+0	1.412888E+0	1.410256E+0	1.377761E+0	1.379321E+0	1.414841E+0	1.450676E+0	1.375422E+0	1.401755E+0	1.451362E+0	1.487029E+0	1.355917E+0	1.406539E+0	1.354692E+0	1.362053E+0	1.434605E+0	1.355608E+0	1.435529E+0	1.444464E+0	1.391580E+0	1.391664E+0	1.381700E+0	1.433066E+0	1.419047E+0	1.422334E+0	1.449908E+0	1.396103E+0	1.421738E+0	1.369128E+0	1.460099E+0	1.428180E+0	1.456423E+0	1.417010E+0	1.410428E+0	1.413359E+0	1.367913E+0	1.377834E+0	1.374608E+0	1.449310E+0	1.387334E+0	1.367669E+0	1.412080E+0	1.493698E+0	1.417990E+0	1.321184E+0	1.393553E+0	1.406553E+0	1.425754E+0	1.381945E+0	1.538970E+0	1.357075E+0	1.437919E+0	1.411282E+0	1.408964E+0	1.362057E+0	1.400039E+0	1.355645E+0	1.429047E+0	1.366922E+0	1.420078E+0	1.357183E+0	1.400068E+0	1.404801E+0	1.371411E+0	1.363914E+0	1.365599E+0	1.386258E+0	1.389307E+0	1.370558E+0	1.368374E+0	1.422785E+0	1.398502E+0	1.462857E+0	1.398670E+0	1.427509E+0	1.402949E+0	1.401883E+0	1.440643E+0	1.428645E+0	1.410922E+0	1.469524E+0	1.479787E+0	1.447597E+0	1.352791E+0	1.421828E+0	1.369933E+0	1.418194E+0	1.355384E+0	1.344986E+0	1.408182E+0	1.357520E+0
5.455070E+2	1.426796E+0	1.333617E+0	1.355299E+0	1.361324E+0	1.354009E+0	1.353639E+0	1.337676E+0	1.320062E+0	1.370821E+0	1.346163E+0	1.331614E+0	1.358082E+0	1.443099E+0	1.336303E+0	1.383954E+0	1.323347E+0	1.368915E+0	1.351400E+0	1.361490E+0	1.334260E+0	1.390116E+0	1.370039E+0	1.345556E+0	1.324314E+0	1.451582E+0	1.370762E+0	1.382240E+0	1.383149E+0	1.408447E+0	1.401982E+0	1.349825E+0	1.327870E+0	1.332219E+0	1.297978E+0	1.343912E+0	1.329574E+0	1.402775E+0	1.405707E+0	1.320097E+0	1.392396E+0	1.392761E+0	1.325935E+0	1.346407E+0	1.330134E+0	1.373985E+0	1.365233E+0	1.362657E+0	1.338605E+0	1.366123E+0	1.374294E+0	1.376262E+0	1.391867E+0	1.348702E+0	1.402763E+0	1.366884E+0	1.379233E+0	1.342101E+0	1.373570E+0	1.343100E+0	1.416592E+0	1.312205E+0	1.317373E+0	1.334789E+0	1.359523E+0	1.424639E+0	1.431881E+0	1.325357E+0	1.392353E+0	1.415635E+0	1.352949E+0	1.311279E+0	1.378924E+0	1.416003E+0	1.331622E+0	1.335077E+0	1.409900E+0	1.394924E+0	1.346271E+0	1.371576E+0	1.320723E+0	1.329134E+0	1.322768E+0	1.360255E+0	1.337701E+0	1.403669E+0	1.373607E+0	1.375513E+0	1.346945E+0	1.343096E+0	1.351914E+0	1.377884E+0	1.346435E+0	1.388550E+0	1.280751E+0	1.364534E+0	1.429975E+0	1.398737E+0	1.360041E+0	1.392142E+0	1.346869E+0	1.364012E+0	1.337928E+0	1.350960E+0	1.379515E+0	1.336894E+0	1.381461E+0	1.375479E+0	1.392970E+0	1.336007E+0	1.367960E+0	1.383205E+0	1.302978E+0	1.399785E+0	1.373307E+0	1.348804E+0	1.391839E+0	1.400878E+0	1.348126E+0	1.303698E+0	1.373070E+0	1.345775E+0	1.386650E+0	1.288484E+0	1.405102E+0	1.411104E+0	1.377388E+0	1.419312E+0	1.364450E+0	1.346259E+0	1.324690E+0	1.313044E+0	1.374102E+0	1.308366E+0	1.375124E+0	1.351986E+0	1.384723E+0	1.365625E+0	1.317862E+0	1.330541E+0	1.370427E+0	1.349546E+0	1.363326E+0	1.319352E+0	1.283473E+0	1.368742E+0	1.327755E+0	1.345760E+0	1.389011E+0	1.360428E+0	1.332333E+0	1.355022E+0	1.357917E+0	1.386116E+0	1.353622E+0	1.413019E+0	1.396273E+0	1.399987E+0	1.310786E+0	1.330286E+0	1.357395E+0	1.382464E+0	1.357395E+0	1.333044E+0	1.349363E+0	1.285689E+0
5.457670E+2	1.298122E+0	1.288688E+0	1.288425E+0	1.282307E+0	1.297386E+0	1.292506E+0	1.298851E+0	1.287125E+0	1.267316E+0	1.302286E+0	1.271475E+0	1.290577E+0	1.286272E+0	1.307306E+0	1.299865E+0	1.265497E+0	1.288618E+0	1.345835E+0	1.277577E+0	1.257427E+0	1.284630E+0	1.287227E+0	1.244140E+0	1.242269E+0	1.315394E+0	1.295226E+0	1.292471E+0	1.253860E+0	1.330627E+0	1.359753E+0	1.245617E+0	1.343686E+0	1.288657E+0	1.262516E+0	1.308127E+0	1.245070E+0	1.270196E+0	1.232823E+0	1.310105E+0	1.246829E+0	1.354882E+0	1.292664E+0	1.298482E+0	1.310025E+0	1.275249E+0	1.345746E+0	1.241018E+0	1.299139E+0	1.338973E+0	1.294598E+0	1.271420E+0	1.257220E+0	1.313552E+0	1.305372E+0	1.296648E+0	1.283401E+0	1.299100E+0	1.286398E+0	1.260586E+0	1.349867E+0	1.285722E+0	1.277494E+0	1.268581E+0	1.281331E+0	1.336862E+0	1.238969E+0	1.280000E+0	1.276891E+0	1.301080E+0	1.269659E+0	1.251489E+0	1.264850E+0	1.267856E+0	1.250347E+0	1.264023E+0	1.300505E+0	1.265179E+0	1.250283E+0	1.270671E+0	1.281596E+0	1.344254E+0	1.317312E+0	1.295339E+0	1.318809E+0	1.367804E+0	1.261168E+0	1.260959E+0	1.246129E+0	1.316056E+0	1.256966E+0	1.211967E+0	1.317777E+0	1.313130E+0	1.276914E+0	1.268449E+0	1.270847E+0	1.297818E+0	1.296446E+0	1.302723E+0	1.300705E+0	1.234696E+0	1.287713E+0	1.280842E+0	1.290360E+0	1.276945E+0	1.274123E+0	1.288967E+0	1.280215E+0	1.302641E+0	1.286844E+0	1.308149E+0	1.277196E+0	1.274248E+0	1.246539E+0	1.272217E+0	1.386439E+0	1.298375E+0	1.320891E+0	1.298231E+0	1.286220E+0	1.305034E+0	1.300584E+0	1.296676E+0	1.277476E+0	1.323422E+0	1.268462E+0	1.255360E+0	1.279048E+0	1.279382E+0	1.281440E+0	1.239070E+0	1.288497E+0	1.273498E+0	1.328097E+0	1.272736E+0	1.245763E+0	1.286636E+0	1.329790E+0	1.246819E+0	1.277304E+0	1.313638E+0	1.237571E+0	1.300367E+0	1.249517E+0	1.350458E+0	1.252698E+0	1.190290E+0	1.339211E+0	1.255437E+0	1.275324E+0	1.246575E+0	1.333011E+0	1.304525E+0	1.257418E+0	1.274033E+0	1.331500E+0	1.260703E+0	1.295710E+0	1.239173E+0	1.279934E+0	1.316099E+0	1.198802E+0	1.304267E+0	1.278796E+0	1.335286E+0
5.460060E+2	1.238055E+0	1.207311E+0	1.290399E+0	1.243016E+0	1.246772E+0	1.294109E+0	1.238431E+0	1.236948E+0	1.245280E+0	1.239563E+0	1.223759E+0	1.179312E+0	1.273901E+0	1.242943E+0	1.224071E+0	1.238875E+0	1.305686E+0	1.216756E+0	1.237325E+0	1.258987E+0	1.270635E+0	1.201411E+0	1.212490E+0	1.208953E+0	1.298448E+0	1.205671E+0	1.285560E+0	1.232709E+0	1.295769E+0	1.262116E+0	1.280918E+0	1.190878E+0	1.225031E+0	1.201131E+0	1.261161E+0	1.207807E+0	1.284973E+0	1.227709E+0	1.306547E+0	1.173985E+0	1.276400E+0	1.234354E+0	1.215691E+0	1.203831E+0	1.258101E+0	1.232030E+0	1.244862E+0	1.213281E+0	1.248961E+0	1.275361E+0	1.250772E+0	1.206278E+0	1.282113E+0	1.277784E+0	1.225631E+0	1.221309E+0	1.230163E+0	1.219305E+0	1.206371E+0	1.280677E+0	1.194879E+0	1.172623E+0	1.199893E+0	1.190132E+0	1.327430E+0	1.215476E+0	1.229616E+0	1.259528E+0	1.253923E+0	1.305250E+0	1.178797E+0	1.218766E+0	1.311069E+0	1.211225E+0	1.240175E+0	1.231500E+0	1.259520E+0	1.246717E+0	1.211923E+0	1.199783E+0	1.243395E+0	1.231673E+0	1.220902E+0	1.228122E+0	1.328971E+0	1.216799E+0	1.206986E+0	1.212628E+0	1.221771E+0	1.246536E+0	1.181311E+0	1.174478E+0	1.258760E+0	1.193293E+0	1.148992E+0	1.220505E+0	1.247969E+0	1.259441E+0	1.241348E+0	1.212137E+0	1.214386E+0	1.275187E+0	1.221949E+0	1.265119E+0	1.219340E+0	1.260097E+0	1.226078E+0	1.184058E+0	1.240092E+0	1.185946E+0	1.243416E+0	1.198101E+0	1.285758E+0	1.198071E+0	1.243972E+0	1.218145E+0	1.188707E+0	1.242059E+0	1.182375E+0	1.216232E+0	1.212649E+0	1.194875E+0	1.211076E+0	1.246487E+0	1.258433E+0	1.264539E+0	1.248965E+0	1.251507E+0	1.250284E+0	1.193331E+0	1.238860E+0	1.239920E+0	1.262899E+0	1.223874E+0	1.211436E+0	1.226071E+0	1.225826E+0	1.198891E+0	1.192210E+0	1.227612E+0	1.271098E+0	1.230274E+0	1.219708E+0	1.218922E+0	1.262962E+0	1.264989E+0	1.234591E+0	1.250408E+0	1.226353E+0	1.244027E+0	1.196264E+0	1.184712E+0	1.229626E+0	1.180554E+0	1.253690E+0	1.247185E+0	1.315292E+0	1.199410E+0	1.219408E+0	1.223924E+0	1.257325E+0	1.183048E+0	1.156458E+0	1.272772E+0	1.272115E+0
5.467660E+2	1.198633E+0	1.217753E+0	1.175224E+0	1.118985E+0	1.202620E+0	1.181638E+0	1.204965E+0	1.194033E+0	1.197209E+0	1.167308E+0	1.170871E+0	1.180330E+0	1.222352E+0	1.185143E+0	1.199320E+0	1.162505E+0	1.148032E+0	1.189027E+0	1.212475E+0	1.171675E+0	1.187768E+0	1.222752E+0	1.201520E+0	1.198305E+0	1.254388E+0	1.263605E+0	1.193930E+0	1.234595E+0	1.240497E+0	1.181035E+0	1.221419E+0	1.219406E+0	1.179421E+0	1.174389E+0	1.192678E+0	1.180720E+0	1.196652E+0	1.197088E+0	1.220550E+0	1.164564E+0	1.236753E+0	1.145160E+0	1.197590E+0	1.168583E+0	1.220925E+0	1.197638E+0	1.227615E+0	1.170911E+0	1.231870E+0	1.235820E+0	1.232062E+0	1.223008E+0	1.266589E+0	1.225435E+0	1.183986E+0	1.176764E+0	1.154358E+0	1.182196E+0	1.128978E+0	1.184321E+0	1.232752E+0	1.186598E+0	1.221921E+0	1.197558E+0	1.208953E+0	1.191182E+0	1.110352E+0	1.224166E+0	1.133284E+0	1.165383E+0	1.170300E+0	1.212646E+0	1.214159E+0	1.149643E+0	1.229137E+0	1.207335E+0	1.180651E+0	1.190202E+0	1.213219E+0	1.193467E+0	1.244319E+0	1.229562E+0	1.182041E+0	1.207839E+0	1.201375E+0	1.183716E+0	1.179195E+0	1.190372E+0	1.261508E+0	1.216055E+0	1.203207E+0	1.223949E+0	1.165912E+0	1.247353E+0	1.177802E+0	1.219128E+0	1.239874E+0	1.203057E+0	1.196753E+0	1.175566E+0	1.246767E+0	1.169508E+0	1.187973E+0	1.111334E+0	1.231576E+0	1.185045E+0	1.219209E+0	1.237425E+0	1.220448E+0	1.145626E+0	1.196744E+0	1.176639E+0	1.222717E+0	1.178764E+0	1.199806E+0	1.238395E+0	1.197078E+0	1.171931E+0	1.135770E+0	1.204460E+0	1.106982E+0	1.227067E+0	1.173209E+0	1.240951E+0	1.199349E+0	1.188209E+0	1.160845E+0	1.241530E+0	1.204612E+0	1.171542E+0	1.190822E+0	1.179723E+0	1.186206E+0	1.205739E+0	1.194265E+0	1.165851E+0	1.152442E+0	1.186572E+0	1.186236E+0	1.196110E+0	1.206784E+0	1.239842E+0	1.202477E+0	1.223376E+0	1.193977E+0	1.142389E+0	1.228940E+0	1.224550E+0	1.166266E+0	1.205789E+0	1.211389E+0	1.219531E+0	1.202957E+0	1.134105E+0	1.245656E+0	1.187811E+0	1.194903E+0	1.182969E+0	1.180011E+0	1.197337E+0	1.212849E+0	1.150235E+0	1.117790E+0	1.149385E+0	1.176778E+0
5.475340E+2	1.332482E+0	1.266931E+0	1.309033E+0	1.347063E+0	1.323808E+0	1.303968E+0	1.341680E+0	1.280705E+0	1.286369E+0	1.346307E+0	1.313146E+0	1.296419E+0	1.312772E+0	1.268305E+0	1.357810E+0	1.291950E+0	1.312302E+0	1.312761E+0	1.275332E+0	1.311772E+0	1.307347E+0	1.341547E+0	1.297469E+0	1.299360E+0	1.350201E+0	1.277115E+0	1.339146E+0	1.312593E+0	1.301406E+0	1.293385E+0	1.309814E+0	1.263265E+0	1.296747E+0	1.307530E+0	1.326699E+0	1.279190E+0	1.325831E+0	1.290228E+0	1.360475E+0	1.349616E+0	1.330747E+0	1.343420E+0	1.299969E+0	1.303530E+0	1.356979E+0	1.247152E+0	1.332613E+0	1.280496E+0	1.358595E+0	1.282139E+0	1.334276E+0	1.287909E+0	1.315647E+0	1.256421E+0	1.294608E+0	1.292483E+0	1.315786E+0	1.333461E+0	1.291189E+0	1.304179E+0	1.288966E+0	1.248529E+0	1.293136E+0	1.289831E+0	1.418450E+0	1.271776E+0	1.259982E+0	1.333526E+0	1.321752E+0	1.300421E+0	1.296721E+0	1.293599E+0	1.316097E+0	1.294179E+0	1.348662E+0	1.346919E+0	1.309960E+0	1.268993E+0	1.356351E+0	1.279908E+0	1.277845E+0	1.307079E+0	1.305862E+0	1.242839E+0	1.348276E+0	1.280206E+0	1.281308E+0	1.279520E+0	1.326119E+0	1.311622E+0	1.275569E+0	1.201834E+0	1.343693E+0	1.267974E+0	1.295240E+0	1.341305E+0	1.277578E+0	1.293834E+0	1.259500E+0	1.328754E+0	1.336120E+0	1.351515E+0	1.269461E+0	1.315842E+0	1.271588E+0	1.380691E+0	1.334493E+0	1.283929E+0	1.328315E+0	1.309321E+0	1.287511E+0	1.242477E+0	1.378786E+0	1.342231E+0	1.270026E+0	1.327132E+0	1.337649E+0	1.345701E+0	1.312658E+0	1.296069E+0	1.254696E+0	1.284025E+0	1.307274E+0	1.316338E+0	1.322605E+0	1.281616E+0	1.288288E+0	1.262027E+0	1.299679E+0	1.254880E+0	1.296214E+0	1.300183E+0	1.288141E+0	1.266715E+0	1.299641E+0	1.341010E+0	1.314465E+0	1.245256E+0	1.246811E+0	1.288619E+0	1.320579E+0	1.248763E+0	1.282423E+0	1.292704E+0	1.297630E+0	1.297988E+0	1.311090E+0	1.273508E+0	1.263322E+0	1.340187E+0	1.325568E+0	1.229235E+0	1.369909E+0	1.255531E+0	1.330407E+0	1.354169E+0	1.318458E+0	1.319730E+0	1.320924E+0	1.279744E+0	1.375577E+0	1.294500E+0	1.270476E+0	1.275511E+0	1.284457E+0
5.482660E+2	1.454748E+0	1.358685E+0	1.422060E+0	1.352393E+0	1.366080E+0	1.341721E+0	1.425142E+0	1.437925E+0	1.392119E+0	1.344274E+0	1.360127E+0	1.415269E+0	1.419156E+0	1.370834E+0	1.405785E+0	1.369416E+0	1.345041E+0	1.376238E+0	1.371571E+0	1.423013E+0	1.386074E+0	1.420987E+0	1.395146E+0	1.402138E+0	1.438605E+0	1.353482E+0	1.402400E+0	1.405835E+0	1.380054E+0	1.445479E+0	1.382054E+0	1.389040E+0	1.321553E+0	1.377336E+0	1.446851E+0	1.328845E+0	1.393641E+0	1.356535E+0	1.383044E+0	1.377284E+0	1.453681E+0	1.435742E+0	1.408582E+0	1.411318E+0	1.402204E+0	1.374741E+0	1.353929E+0	1.362071E+0	1.390527E+0	1.381361E+0	1.354836E+0	1.380837E+0	1.412225E+0	1.385317E+0	1.382815E+0	1.384269E+0	1.385056E+0	1.320571E+0	1.314906E+0	1.425745E+0	1.381293E+0	1.316092E+0	1.346080E+0	1.392367E+0	1.436420E+0	1.401123E+0	1.364911E+0	1.385278E+0	1.419208E+0	1.359851E+0	1.379975E+0	1.365714E+0	1.418163E+0	1.375015E+0	1.385816E+0	1.419324E+0	1.385232E+0	1.426311E+0	1.378947E+0	1.324967E+0	1.437151E+0	1.342842E+0	1.382334E+0	1.403135E+0	1.446833E+0	1.389823E+0	1.332485E+0	1.386994E+0	1.401875E+0	1.332127E+0	1.333236E+0	1.383206E+0	1.431967E+0	1.331796E+0	1.361952E+0	1.360842E+0	1.393292E+0	1.386953E+0	1.344505E+0	1.405276E+0	1.419269E+0	1.420273E+0	1.400663E+0	1.376633E+0	1.365622E+0	1.413343E+0	1.364461E+0	1.375208E+0	1.388599E+0	1.452713E+0	1.375661E+0	1.344300E+0	1.431884E+0	1.374719E+0	1.341286E+0	1.377099E+0	1.348170E+0	1.391257E+0	1.361271E+0	1.383235E+0	1.371426E+0	1.376025E+0	1.332781E+0	1.482824E+0	1.298719E+0	1.383496E+0	1.387113E+0	1.374226E+0	1.382563E+0	1.311861E+0	1.366591E+0	1.356070E+0	1.347967E+0	1.385676E+0	1.375321E+0	1.353196E+0	1.417079E+0	1.396080E+0	1.363974E+0	1.386679E+0	1.392406E+0	1.379570E+0	1.381567E+0	1.413436E+0	1.357412E+0	1.319872E+0	1.367481E+0	1.404452E+0	1.390103E+0	1.322244E+0	1.397267E+0	1.370151E+0	1.381505E+0	1.305835E+0	1.421925E+0	1.365643E+0	1.395499E+0	1.358246E+0	1.347871E+0	1.379903E+0	1.409937E+0	1.399924E+0	1.354162E+0	1.369180E+0	1.314684E+0
5.490160E+2	1.419815E+0	1.344593E+0	1.466028E+0	1.403203E+0	1.393847E+0	1.403799E+0	1.356646E+0	1.436491E+0	1.403133E+0	1.416654E+0	1.410665E+0	1.363146E+0	1.387014E+0	1.357911E+0	1.436179E+0	1.368380E+0	1.376625E+0	1.376699E+0	1.370063E+0	1.374529E+0	1.381139E+0	1.349801E+0	1.351107E+0	1.363262E+0	1.399808E+0	1.421770E+0	1.421727E+0	1.463791E+0	1.422684E+0	1.359579E+0	1.407986E+0	1.375265E+0	1.371449E+0	1.315712E+0	1.430530E+0	1.364140E+0	1.426232E+0	1.383706E+0	1.348678E+0	1.331461E+0	1.475727E+0	1.363414E+0	1.393265E+0	1.414944E+0	1.432812E+0	1.368070E+0	1.437450E+0	1.367563E+0	1.412525E+0	1.441977E+0	1.415744E+0	1.421086E+0	1.415859E+0	1.338589E+0	1.390803E+0	1.440624E+0	1.397593E+0	1.378205E+0	1.375933E+0	1.428447E+0	1.394054E+0	1.402620E+0	1.399099E+0	1.394165E+0	1.398570E+0	1.379301E+0	1.338556E+0	1.404901E+0	1.424152E+0	1.380877E+0	1.376567E+0	1.358194E+0	1.466005E+0	1.377599E+0	1.400634E+0	1.405995E+0	1.405535E+0	1.408859E+0	1.376705E+0	1.329503E+0	1.365081E+0	1.396873E+0	1.390287E+0	1.445032E+0	1.420912E+0	1.338945E+0	1.402623E+0	1.393207E+0	1.405742E+0	1.421378E+0	1.378020E+0	1.351401E+0	1.403461E+0	1.371308E+0	1.344740E+0	1.412151E+0	1.407465E+0	1.432128E+0	1.385535E+0	1.368454E+0	1.381891E+0	1.362860E+0	1.362181E+0	1.376868E+0	1.390196E+0	1.381526E+0	1.452752E+0	1.306299E+0	1.378633E+0	1.398294E+0	1.367649E+0	1.386579E+0	1.402369E+0	1.314872E+0	1.364414E+0	1.293354E+0	1.400890E+0	1.404628E+0	1.346022E+0	1.370842E+0	1.374281E+0	1.347570E+0	1.369580E+0	1.372816E+0	1.395599E+0	1.361040E+0	1.390248E+0	1.338249E+0	1.394603E+0	1.297055E+0	1.405908E+0	1.364016E+0	1.415991E+0	1.349576E+0	1.339919E+0	1.385258E+0	1.382083E+0	1.383224E+0	1.345563E+0	1.312927E+0	1.381001E+0	1.346675E+0	1.434565E+0	1.435375E+0	1.405049E+0	1.352743E+0	1.407546E+0	1.459865E+0	1.402158E+0	1.375298E+0	1.340780E+0	1.383768E+0	1.420859E+0	1.324000E+0	1.427506E+0	1.324576E+0	1.375947E+0	1.428208E+0	1.403221E+0	1.345335E+0	1.484172E+0	1.352480E+0	1.361144E+0	1.299547E+0	1.311878E+0
5.497570E+2	1.288200E+0	1.366261E+0	1.366770E+0	1.304874E+0	1.354390E+0	1.358209E+0	1.337598E+0	1.308270E+0	1.360646E+0	1.360630E+0	1.353554E+0	1.345226E+0	1.355297E+0	1.316885E+0	1.348292E+0	1.321961E+0	1.312045E+0	1.325611E+0	1.381944E+0	1.314254E+0	1.330390E+0	1.358173E+0	1.389012E+0	1.279803E+0	1.360139E+0	1.323907E+0	1.376230E+0	1.356785E+0	1.404291E+0	1.325385E+0	1.347826E+0	1.290109E+0	1.375241E+0	1.333516E+0	1.346620E+0	1.349372E+0	1.358154E+0	1.269337E+0	1.364261E+0	1.350435E+0	1.356407E+0	1.349878E+0	1.356598E+0	1.329024E+0	1.406252E+0	1.397695E+0	1.310226E+0	1.315336E+0	1.362354E+0	1.349689E+0	1.357949E+0	1.319398E+0	1.362089E+0	1.339982E+0	1.300253E+0	1.353301E+0	1.385083E+0	1.331568E+0	1.335704E+0	1.307061E+0	1.350449E+0	1.323946E+0	1.305731E+0	1.369363E+0	1.399672E+0	1.300534E+0	1.286457E+0	1.337588E+0	1.369312E+0	1.346807E+0	1.316400E+0	1.322547E+0	1.364919E+0	1.320222E+0	1.305562E+0	1.375922E+0	1.358744E+0	1.286027E+0	1.340323E+0	1.300886E+0	1.319502E+0	1.359001E+0	1.308053E+0	1.344224E+0	1.359556E+0	1.307215E+0	1.346995E+0	1.275741E+0	1.361464E+0	1.317338E+0	1.282824E+0	1.291438E+0	1.424358E+0	1.350098E+0	1.312360E+0	1.326410E+0	1.408631E+0	1.349974E+0	1.297070E+0	1.353245E+0	1.376306E+0	1.340947E+0	1.385030E+0	1.291236E+0	1.361418E+0	1.328755E+0	1.368504E+0	1.267773E+0	1.372338E+0	1.282659E+0	1.312269E+0	1.302704E+0	1.263257E+0	1.309689E+0	1.342933E+0	1.400802E+0	1.340230E+0	1.334049E+0	1.286215E+0	1.308427E+0	1.333359E+0	1.353109E+0	1.303034E+0	1.305759E+0	1.306398E+0	1.327877E+0	1.330924E+0	1.373711E+0	1.413375E+0	1.276812E+0	1.304797E+0	1.357999E+0	1.326780E+0	1.388058E+0	1.349572E+0	1.325517E+0	1.353940E+0	1.320294E+0	1.311522E+0	1.364514E+0	1.424777E+0	1.312765E+0	1.352675E+0	1.311604E+0	1.345016E+0	1.302379E+0	1.308636E+0	1.357985E+0	1.338457E+0	1.280478E+0	1.320065E+0	1.351815E+0	1.366312E+0	1.323840E+0	1.338756E+0	1.337144E+0	1.330162E+0	1.334306E+0	1.357368E+0	1.311779E+0	1.348709E+0	1.326263E+0	1.309147E+0	1.252686E+0	1.288103E+0
5.505110E+2	1.306608E+0	1.341131E+0	1.408990E+0	1.409473E+0	1.311210E+0	1.299154E+0	1.350932E+0	1.370193E+0	1.343997E+0	1.311510E+0	1.339501E+0	1.363910E+0	1.342310E+0	1.318995E+0	1.311613E+0	1.363723E+0	1.332932E+0	1.319451E+0	1.320236E+0	1.342655E+0	1.293207E+0	1.326439E+0	1.326793E+0	1.335343E+0	1.375683E+0	1.334444E+0	1.351924E+0	1.355461E+0	1.342651E+0	1.334108E+0	1.367174E+0	1.309682E+0	1.330777E+0	1.313697E+0	1.334890E+0	1.275033E+0	1.359380E+0	1.300918E+0	1.370143E+0	1.359017E+0	1.350672E+0	1.270123E+0	1.372352E+0	1.309143E+0	1.428466E+0	1.315552E+0	1.296775E+0	1.318361E+0	1.338917E+0	1.308951E+0	1.384939E+0	1.324149E+0	1.355545E+0	1.344158E+0	1.310555E+0	1.345726E+0	1.330460E+0	1.240983E+0	1.304623E+0	1.338008E+0	1.273469E+0	1.339276E+0	1.286946E+0	1.312333E+0	1.413696E+0	1.390973E+0	1.277627E+0	1.342240E+0	1.374878E+0	1.347274E+0	1.292071E+0	1.379383E+0	1.399918E+0	1.275490E+0	1.312602E+0	1.311570E+0	1.306660E+0	1.303929E+0	1.307717E+0	1.293080E+0	1.395289E+0	1.340859E+0	1.283546E+0	1.328527E+0	1.299004E+0	1.293011E+0	1.310565E+0	1.294696E+0	1.346549E+0	1.342694E+0	1.292174E+0	1.293374E+0	1.287708E+0	1.312721E+0	1.370341E+0	1.290072E+0	1.293482E+0	1.313646E+0	1.295686E+0	1.315593E+0	1.336494E+0	1.362310E+0	1.333798E+0	1.364234E+0	1.355672E+0	1.355072E+0	1.317106E+0	1.363663E+0	1.290241E+0	1.287973E+0	1.286007E+0	1.292750E+0	1.338432E+0	1.314364E+0	1.282672E+0	1.329069E+0	1.326172E+0	1.308377E+0	1.279412E+0	1.330517E+0	1.334805E+0	1.298810E+0	1.332424E+0	1.368520E+0	1.276364E+0	1.277232E+0	1.312762E+0	1.304707E+0	1.353743E+0	1.314124E+0	1.289860E+0	1.330996E+0	1.291667E+0	1.317277E+0	1.316753E+0	1.279715E+0	1.355418E+0	1.347928E+0	1.312404E+0	1.331320E+0	1.272837E+0	1.378247E+0	1.346610E+0	1.330839E+0	1.310142E+0	1.307035E+0	1.310011E+0	1.344302E+0	1.309846E+0	1.262214E+0	1.321459E+0	1.327877E+0	1.330816E+0	1.261096E+0	1.395514E+0	1.316999E+0	1.344667E+0	1.276432E+0	1.325855E+0	1.265318E+0	1.373055E+0	1.370384E+0	1.294180E+0	1.423902E+0	1.286245E+0
5.512570E+2	1.351339E+0	1.245038E+0	1.391545E+0	1.353204E+0	1.322855E+0	1.293035E+0	1.348799E+0	1.303709E+0	1.310916E+0	1.269878E+0	1.338380E+0	1.367494E+0	1.326303E+0	1.311106E+0	1.296249E+0	1.301211E+0	1.338840E+0	1.348255E+0	1.323556E+0	1.289591E+0	1.306750E+0	1.312565E+0	1.300672E+0	1.335267E+0	1.338366E+0	1.266270E+0	1.290495E+0	1.335735E+0	1.363423E+0	1.334441E+0	1.279448E+0	1.304352E+0	1.299896E+0	1.263972E+0	1.362710E+0	1.289838E+0	1.370178E+0	1.318431E+0	1.338435E+0	1.273623E+0	1.348632E+0	1.282443E+0	1.321820E+0	1.307560E+0	1.371736E+0	1.326737E+0	1.276532E+0	1.335228E+0	1.287972E+0	1.334968E+0	1.302358E+0	1.306202E+0	1.306075E+0	1.301332E+0	1.303846E+0	1.286596E+0	1.331466E+0	1.328750E+0	1.342488E+0	1.396942E+0	1.330829E+0	1.208558E+0	1.259850E+0	1.335395E+0	1.343830E+0	1.346367E+0	1.284926E+0	1.342744E+0	1.278935E+0	1.279532E+0	1.300748E+0	1.307094E+0	1.382835E+0	1.311744E+0	1.300965E+0	1.303179E+0	1.316425E+0	1.323140E+0	1.265782E+0	1.335275E+0	1.407181E+0	1.252935E+0	1.289190E+0	1.292940E+0	1.370027E+0	1.329023E+0	1.297970E+0	1.306736E+0	1.340660E+0	1.345458E+0	1.252555E+0	1.356028E+0	1.250650E+0	1.304552E+0	1.314113E+0	1.276348E+0	1.387871E+0	1.311736E+0	1.291582E+0	1.311365E+0	1.341131E+0	1.309329E+0	1.319055E+0	1.322609E+0	1.311326E+0	1.304548E+0	1.325010E+0	1.281751E+0	1.319563E+0	1.347068E+0	1.275667E+0	1.237730E+0	1.242089E+0	1.303539E+0	1.311749E+0	1.324730E+0	1.277893E+0	1.306684E+0	1.267381E+0	1.320196E+0	1.298596E+0	1.323652E+0	1.346475E+0	1.355746E+0	1.337481E+0	1.317405E+0	1.343072E+0	1.351291E+0	1.287973E+0	1.275189E+0	1.315583E+0	1.301895E+0	1.343026E+0	1.309765E+0	1.268787E+0	1.274796E+0	1.254139E+0	1.329378E+0	1.243160E+0	1.268867E+0	1.313464E+0	1.334902E+0	1.303798E+0	1.306677E+0	1.331369E+0	1.284582E+0	1.340814E+0	1.301368E+0	1.306773E+0	1.318746E+0	1.297410E+0	1.298203E+0	1.307839E+0	1.253351E+0	1.340950E+0	1.284306E+0	1.339855E+0	1.306035E+0	1.308082E+0	1.266359E+0	1.313692E+0	1.256335E+0	1.341658E+0	1.289560E+0	1.346883E+0
5.520150E+2	1.340394E+0	1.313410E+0	1.334437E+0	1.299865E+0	1.273401E+0	1.326996E+0	1.309055E+0	1.299288E+0	1.338677E+0	1.396355E+0	1.274246E+0	1.294721E+0	1.298661E+0	1.341024E+0	1.319556E+0	1.286618E+0	1.321961E+0	1.313257E+0	1.302932E+0	1.287749E+0	1.313880E+0	1.287856E+0	1.271863E+0	1.290147E+0	1.333991E+0	1.315568E+0	1.283483E+0	1.334678E+0	1.348610E+0	1.314186E+0	1.298620E+0	1.248676E+0	1.292422E+0	1.242815E+0	1.350243E+0	1.256755E+0	1.280044E+0	1.352842E+0	1.280719E+0	1.327686E+0	1.359797E+0	1.342250E+0	1.357267E+0	1.326433E+0	1.331411E+0	1.328297E+0	1.256208E+0	1.301236E+0	1.306875E+0	1.347156E+0	1.310908E+0	1.304749E+0	1.333174E+0	1.338433E+0	1.266908E+0	1.319000E+0	1.311204E+0	1.334481E+0	1.272861E+0	1.263557E+0	1.291093E+0	1.240423E+0	1.309218E+0	1.313203E+0	1.363516E+0	1.353710E+0	1.293534E+0	1.288740E+0	1.357727E+0	1.259081E+0	1.262550E+0	1.331487E+0	1.306178E+0	1.298037E+0	1.277203E+0	1.288138E+0	1.302843E+0	1.293743E+0	1.308361E+0	1.292027E+0	1.284445E+0	1.364014E+0	1.280439E+0	1.293123E+0	1.316327E+0	1.271098E+0	1.279321E+0	1.311871E+0	1.404554E+0	1.294220E+0	1.266538E+0	1.304583E+0	1.341195E+0	1.289694E+0	1.268329E+0	1.324497E+0	1.312129E+0	1.314687E+0	1.324827E+0	1.300084E+0	1.285835E+0	1.277352E+0	1.349190E+0	1.319298E+0	1.257416E+0	1.315151E+0	1.305688E+0	1.322419E+0	1.309291E+0	1.293532E+0	1.347727E+0	1.320792E+0	1.341916E+0	1.299158E+0	1.286275E+0	1.331418E+0	1.287812E+0	1.330190E+0	1.249385E+0	1.284749E+0	1.328061E+0	1.325578E+0	1.269329E+0	1.308020E+0	1.328432E+0	1.302889E+0	1.318301E+0	1.288147E+0	1.276163E+0	1.320303E+0	1.286876E+0	1.322870E+0	1.274836E+0	1.269531E+0	1.323957E+0	1.283593E+0	1.333117E+0	1.313368E+0	1.252224E+0	1.276229E+0	1.349701E+0	1.261764E+0	1.236305E+0	1.316094E+0	1.290852E+0	1.307869E+0	1.336545E+0	1.254322E+0	1.281540E+0	1.300454E+0	1.311223E+0	1.267700E+0	1.363739E+0	1.247861E+0	1.341333E+0	1.276205E+0	1.295164E+0	1.268819E+0	1.292775E+0	1.298430E+0	1.279893E+0	1.319092E+0	1.307113E+0	1.240301E+0	1.256437E+0
5.527650E+2	1.239233E+0	1.273753E+0	1.281342E+0	1.268473E+0	1.256035E+0	1.266306E+0	1.242325E+0	1.211090E+0	1.279578E+0	1.267024E+0	1.277450E+0	1.278939E+0	1.306242E+0	1.266040E+0	1.270181E+0	1.268671E+0	1.260236E+0	1.278564E+0	1.274651E+0	1.292403E+0	1.265473E+0	1.328480E+0	1.281699E+0	1.217203E+0	1.287010E+0	1.258983E+0	1.287399E+0	1.242195E+0	1.267711E+0	1.315218E+0	1.273456E+0	1.321572E+0	1.175045E+0	1.205775E+0	1.277038E+0	1.232902E+0	1.258313E+0	1.217299E+0	1.238836E+0	1.258424E+0	1.318516E+0	1.277255E+0	1.282858E+0	1.254831E+0	1.258611E+0	1.284953E+0	1.290655E+0	1.300803E+0	1.236125E+0	1.261520E+0	1.289813E+0	1.157476E+0	1.305694E+0	1.292062E+0	1.265260E+0	1.251315E+0	1.259720E+0	1.242989E+0	1.252427E+0	1.302378E+0	1.320672E+0	1.237130E+0	1.222127E+0	1.283170E+0	1.315182E+0	1.315816E+0	1.268772E+0	1.283331E+0	1.323733E+0	1.279524E+0	1.222982E+0	1.249463E+0	1.349621E+0	1.322607E+0	1.207112E+0	1.362483E+0	1.279724E+0	1.279619E+0	1.261534E+0	1.225065E+0	1.270571E+0	1.214165E+0	1.237280E+0	1.314424E+0	1.252406E+0	1.238716E+0	1.230075E+0	1.277224E+0	1.231451E+0	1.255475E+0	1.216789E+0	1.233901E+0	1.322573E+0	1.206352E+0	1.243421E+0	1.277139E+0	1.251571E+0	1.248222E+0	1.243607E+0	1.270418E+0	1.269849E+0	1.234175E+0	1.243044E+0	1.323896E+0	1.307527E+0	1.242558E+0	1.276546E+0	1.222771E+0	1.249425E+0	1.223891E+0	1.275803E+0	1.298112E+0	1.217265E+0	1.248704E+0	1.255722E+0	1.285644E+0	1.303129E+0	1.235489E+0	1.238878E+0	1.249712E+0	1.272672E+0	1.289469E+0	1.302694E+0	1.294088E+0	1.282784E+0	1.219462E+0	1.316963E+0	1.241009E+0	1.305397E+0	1.228560E+0	1.237992E+0	1.302069E+0	1.287852E+0	1.258172E+0	1.245324E+0	1.256868E+0	1.267245E+0	1.202905E+0	1.222634E+0	1.292084E+0	1.251488E+0	1.255807E+0	1.299681E+0	1.245732E+0	1.299709E+0	1.279212E+0	1.249208E+0	1.223452E+0	1.290207E+0	1.204816E+0	1.234665E+0	1.282392E+0	1.286359E+0	1.247937E+0	1.282921E+0	1.272433E+0	1.207075E+0	1.270537E+0	1.262754E+0	1.294689E+0	1.305178E+0	1.325280E+0	1.310455E+0	1.289863E+0	1.197667E+0
5.535550E+2	1.260655E+0	1.179295E+0	1.248822E+0	1.189321E+0	1.207102E+0	1.207265E+0	1.219217E+0	1.185786E+0	1.240883E+0	1.189707E+0	1.187675E+0	1.243895E+0	1.174458E+0	1.237072E+0	1.250128E+0	1.215355E+0	1.225998E+0	1.219026E+0	1.228686E+0	1.198659E+0	1.190028E+0	1.188620E+0	1.177112E+0	1.160890E+0	1.302295E+0	1.264021E+0	1.221236E+0	1.194783E+0	1.212411E+0	1.178718E+0	1.250189E+0	1.207951E+0	1.194658E+0	1.160865E+0	1.261771E+0	1.230528E+0	1.213941E+0	1.248606E+0	1.230658E+0	1.202927E+0	1.247699E+0	1.244319E+0	1.204862E+0	1.203472E+0	1.221001E+0	1.205234E+0	1.196677E+0	1.216434E+0	1.197630E+0	1.160642E+0	1.232885E+0	1.130459E+0	1.221282E+0	1.213441E+0	1.214797E+0	1.181843E+0	1.242610E+0	1.213121E+0	1.247761E+0	1.254949E+0	1.209784E+0	1.213811E+0	1.156595E+0	1.179184E+0	1.213195E+0	1.235685E+0	1.204276E+0	1.152502E+0	1.224034E+0	1.160289E+0	1.167744E+0	1.244050E+0	1.227983E+0	1.197796E+0	1.170580E+0	1.220678E+0	1.215542E+0	1.180200E+0	1.207847E+0	1.239305E+0	1.267576E+0	1.183197E+0	1.176926E+0	1.186875E+0	1.213147E+0	1.190211E+0	1.167260E+0	1.183058E+0	1.284180E+0	1.217608E+0	1.194489E+0	1.140791E+0	1.183786E+0	1.117269E+0	1.218153E+0	1.207840E+0	1.188959E+0	1.198317E+0	1.197104E+0	1.225695E+0	1.212817E+0	1.232098E+0	1.201663E+0	1.159702E+0	1.208865E+0	1.262859E+0	1.209559E+0	1.196038E+0	1.188113E+0	1.193585E+0	1.172899E+0	1.180140E+0	1.223211E+0	1.193581E+0	1.196682E+0	1.212519E+0	1.269014E+0	1.199177E+0	1.196391E+0	1.236029E+0	1.187233E+0	1.231245E+0	1.197864E+0	1.185721E+0	1.223460E+0	1.188308E+0	1.216085E+0	1.182457E+0	1.246555E+0	1.171814E+0	1.140518E+0	1.171642E+0	1.218992E+0	1.240202E+0	1.205183E+0	1.194064E+0	1.234049E+0	1.182472E+0	1.183492E+0	1.215105E+0	1.268540E+0	1.236641E+0	1.238334E+0	1.190181E+0	1.263294E+0	1.171613E+0	1.187810E+0	1.216439E+0	1.217681E+0	1.251763E+0	1.190431E+0	1.192974E+0	1.252329E+0	1.190451E+0	1.208847E+0	1.208514E+0	1.239917E+0	1.210368E+0	1.197482E+0	1.256850E+0	1.227749E+0	1.161646E+0	1.255099E+0	1.245002E+0	1.271677E+0
5.542640E+2	1.194823E+0	1.074516E+0	1.144517E+0	1.094307E+0	1.168165E+0	1.171200E+0	1.121871E+0	1.153252E+0	1.139452E+0	1.144306E+0	1.134442E+0	1.167664E+0	1.142876E+0	1.140397E+0	1.179425E+0	1.158538E+0	1.141174E+0	1.120703E+0	1.107416E+0	1.145113E+0	1.182606E+0	1.140481E+0	1.135383E+0	1.171954E+0	1.109595E+0	1.177987E+0	1.114205E+0	1.188805E+0	1.131641E+0	1.127628E+0	1.211478E+0	1.109538E+0	1.128887E+0	1.144752E+0	1.164213E+0	1.144136E+0	1.100418E+0	1.097717E+0	1.160583E+0	1.122868E+0	1.131751E+0	1.154131E+0	1.139371E+0	1.134502E+0	1.140494E+0	1.175213E+0	1.153018E+0	1.108954E+0	1.115563E+0	1.125786E+0	1.134859E+0	1.117225E+0	1.148073E+0	1.189849E+0	1.162037E+0	1.148495E+0	1.161553E+0	1.135247E+0	1.148998E+0	1.233723E+0	1.126004E+0	1.178176E+0	1.137216E+0	1.138388E+0	1.143762E+0	1.176445E+0	1.127229E+0	1.116278E+0	1.176069E+0	1.120145E+0	1.161991E+0	1.154769E+0	1.169033E+0	1.179649E+0	1.158309E+0	1.153279E+0	1.131163E+0	1.135793E+0	1.172153E+0	1.150115E+0	1.143839E+0	1.145523E+0	1.173859E+0	1.144225E+0	1.185815E+0	1.122920E+0	1.122994E+0	1.087132E+0	1.163590E+0	1.132135E+0	1.117813E+0	1.078602E+0	1.154314E+0	1.172115E+0	1.125863E+0	1.130851E+0	1.154254E+0	1.141622E+0	1.120297E+0	1.127108E+0	1.196278E+0	1.158393E+0	1.147879E+0	1.163647E+0	1.136011E+0	1.119205E+0	1.161377E+0	1.102981E+0	1.148024E+0	1.135513E+0	1.086702E+0	1.120547E+0	1.163688E+0	1.169950E+0	1.097729E+0	1.175867E+0	1.120863E+0	1.117925E+0	1.128076E+0	1.131311E+0	1.196755E+0	1.158739E+0	1.149129E+0	1.179233E+0	1.151202E+0	1.076840E+0	1.167431E+0	1.116596E+0	1.168094E+0	1.115586E+0	1.159203E+0	1.191789E+0	1.155047E+0	1.139858E+0	1.165695E+0	1.173989E+0	1.153819E+0	1.140350E+0	1.142485E+0	1.123112E+0	1.179590E+0	1.167237E+0	1.157854E+0	1.145056E+0	1.234640E+0	1.128769E+0	1.148321E+0	1.118870E+0	1.121493E+0	1.147459E+0	1.127378E+0	1.108764E+0	1.093832E+0	1.161694E+0	1.191832E+0	1.155560E+0	1.163721E+0	1.127947E+0	1.123397E+0	1.166660E+0	1.168139E+0	1.140527E+0	1.166180E+0	1.231643E+0	1.231114E+0
5.550360E+2	1.054299E+0	1.039108E+0	1.108017E+0	1.041704E+0	1.088042E+0	1.050868E+0	1.058363E+0	1.061598E+0	1.065617E+0	1.040622E+0	1.061114E+0	1.018994E+0	1.042520E+0	1.061343E+0	1.046156E+0	1.055436E+0	1.053723E+0	1.031177E+0	1.032589E+0	9.816841E-1	1.037895E+0	1.006238E+0	1.036469E+0	1.016351E+0	1.030957E+0	1.032443E+0	1.030056E+0	1.061764E+0	1.059847E+0	1.064133E+0	1.035801E+0	1.060248E+0	1.040546E+0	1.007221E+0	1.044857E+0	1.020503E+0	1.030323E+0	1.063082E+0	1.024612E+0	1.060398E+0	1.042353E+0	1.028632E+0	1.113669E+0	1.082372E+0	1.016382E+0	1.052140E+0	1.042498E+0	9.906932E-1	1.072417E+0	1.094832E+0	1.012716E+0	1.089411E+0	1.041322E+0	1.040124E+0	1.034775E+0	1.037823E+0	1.040196E+0	9.966863E-1	1.052075E+0	1.037188E+0	1.020268E+0	1.059791E+0	1.016906E+0	1.023131E+0	1.115781E+0	1.117601E+0	1.060132E+0	1.029537E+0	1.099063E+0	1.066487E+0	1.069487E+0	1.047886E+0	1.002765E+0	1.047232E+0	1.029309E+0	1.096924E+0	1.008990E+0	1.028214E+0	1.053867E+0	1.042136E+0	1.072178E+0	1.046815E+0	1.047923E+0	1.053988E+0	1.070594E+0	9.830161E-1	1.074536E+0	1.070894E+0	1.101673E+0	9.837179E-1	1.008529E+0	1.053397E+0	1.062463E+0	1.035710E+0	1.016394E+0	1.030546E+0	1.075172E+0	1.056495E+0	1.038178E+0	1.099504E+0	1.090410E+0	1.035361E+0	1.042839E+0	1.104457E+0	1.042783E+0	1.043267E+0	1.058300E+0	1.027846E+0	1.056456E+0	1.010112E+0	1.011402E+0	1.060425E+0	1.024394E+0	1.022831E+0	1.000754E+0	1.079282E+0	1.070308E+0	1.017210E+0	9.970014E-1	1.047042E+0	1.045652E+0	1.064705E+0	1.072038E+0	1.089942E+0	1.057254E+0	1.029015E+0	1.077376E+0	9.971254E-1	1.046176E+0	1.044626E+0	1.062406E+0	1.068656E+0	1.033507E+0	1.036695E+0	1.036195E+0	1.012928E+0	1.024762E+0	1.050160E+0	1.024339E+0	1.055534E+0	1.091317E+0	1.063335E+0	1.055464E+0	1.080663E+0	1.074679E+0	1.079030E+0	1.018225E+0	1.127175E+0	1.106029E+0	1.030634E+0	1.039202E+0	1.042101E+0	1.081990E+0	1.040047E+0	1.022256E+0	1.080573E+0	1.088325E+0	1.045600E+0	1.021450E+0	1.044733E+0	1.067216E+0	9.965024E-1	1.007472E+0	1.014024E+0	1.061772E+0
5.557600E+2	9.836359E-1	9.890216E-1	9.358141E-1	9.978667E-1	9.905535E-1	1.004088E+0	9.679239E-1	9.843761E-1	9.418063E-1	9.412777E-1	9.418532E-1	9.909550E-1	9.925046E-1	9.492672E-1	9.674804E-1	9.432945E-1	9.500313E-1	9.581382E-1	9.554032E-1	1.019909E+0	9.688160E-1	1.011316E+0	9.727083E-1	9.468042E-1	1.005344E+0	1.018060E+0	9.920058E-1	9.956789E-1	9.128658E-1	9.648549E-1	9.609596E-1	9.853834E-1	9.385154E-1	9.938981E-1	1.002969E+0	1.006473E+0	9.207162E-1	9.599765E-1	9.516428E-1	9.757357E-1	1.006729E+0	9.713467E-1	1.003368E+0	9.820595E-1	9.824614E-1	9.471801E-1	9.631710E-1	9.597514E-1	9.822648E-1	9.737985E-1	1.050613E+0	1.004019E+0	1.012625E+0	9.824162E-1	1.020407E+0	9.722749E-1	1.000607E+0	9.519075E-1	9.836013E-1	1.000449E+0	9.732997E-1	9.584046E-1	9.537061E-1	9.692686E-1	9.750904E-1	9.733124E-1	9.630226E-1	1.004092E+0	9.931446E-1	9.511248E-1	9.932389E-1	1.012611E+0	9.962024E-1	9.481547E-1	1.002033E+0	9.980059E-1	9.821827E-1	1.008305E+0	9.537673E-1	9.818691E-1	9.766037E-1	9.576063E-1	9.648038E-1	9.623145E-1	9.586191E-1	9.996331E-1	9.385007E-1	9.865175E-1	9.834436E-1	9.820884E-1	9.799474E-1	9.977322E-1	9.921141E-1	9.873795E-1	9.864419E-1	1.010484E+0	9.788355E-1	9.402094E-1	9.700462E-1	9.902616E-1	9.918020E-1	9.782865E-1	9.661620E-1	9.481392E-1	9.668758E-1	9.583354E-1	9.841888E-1	9.828323E-1	9.950205E-1	1.007793E+0	9.875087E-1	9.446603E-1	9.813480E-1	9.869384E-1	9.829180E-1	9.747196E-1	9.814265E-1	9.473015E-1	9.443474E-1	9.906384E-1	9.837666E-1	9.971933E-1	1.003664E+0	1.030417E+0	9.539813E-1	9.997443E-1	9.934547E-1	9.732085E-1	9.735419E-1	9.319286E-1	9.257684E-1	1.005199E+0	9.958475E-1	9.970069E-1	9.313158E-1	9.682774E-1	9.906415E-1	9.545338E-1	9.211027E-1	9.836560E-1	9.838732E-1	9.888845E-1	9.394461E-1	1.004165E+0	1.015942E+0	9.930179E-1	9.578679E-1	9.246206E-1	1.047620E+0	9.747116E-1	9.854861E-1	9.285415E-1	9.742968E-1	9.892022E-1	9.868615E-1	9.638928E-1	1.013043E+0	9.732803E-1	9.621611E-1	1.005206E+0	9.619883E-1	9.728346E-1	1.040923E+0	9.139109E-1	9.986428E-1
5.560190E+2	1.009661E+0	9.365675E-1	9.908533E-1	1.025971E+0	9.327762E-1	1.007629E+0	1.064773E+0	9.884116E-1	9.995498E-1	9.874058E-1	9.411324E-1	9.442438E-1	9.776589E-1	9.966543E-1	9.578342E-1	9.871301E-1	9.498240E-1	9.842744E-1	1.036883E+0	9.995798E-1	9.355515E-1	9.542266E-1	9.148430E-1	9.472222E-1	9.434381E-1	1.001719E+0	9.606747E-1	1.002709E+0	9.762143E-1	9.878350E-1	9.716135E-1	9.396098E-1	9.518509E-1	9.810281E-1	9.829473E-1	9.569163E-1	9.497407E-1	9.402013E-1	9.698942E-1	9.696035E-1	1.002646E+0	9.926916E-1	9.905474E-1	9.805356E-1	9.450285E-1	1.024168E+0	9.750908E-1	9.830621E-1	1.008320E+0	9.740394E-1	1.001834E+0	9.611675E-1	9.704059E-1	9.816729E-1	9.950069E-1	9.992103E-1	9.393195E-1	9.455661E-1	9.831137E-1	1.018827E+0	9.688929E-1	9.738913E-1	9.989722E-1	9.668207E-1	1.007948E+0	1.040901E+0	9.508178E-1	1.019943E+0	9.523478E-1	9.729910E-1	9.729214E-1	9.815317E-1	9.875039E-1	1.015579E+0	9.417187E-1	1.020875E+0	9.821772E-1	9.582352E-1	9.186979E-1	9.271666E-1	9.952935E-1	9.996140E-1	9.599222E-1	9.343918E-1	9.961861E-1	9.246840E-1	9.534809E-1	1.041460E+0	9.447107E-1	9.546437E-1	9.779160E-1	9.899994E-1	9.671708E-1	9.333191E-1	9.577423E-1	9.900864E-1	9.545802E-1	9.905911E-1	9.505030E-1	9.831131E-1	9.521477E-1	1.010556E+0	1.024214E+0	9.644551E-1	9.973784E-1	1.025154E+0	9.667341E-1	1.023472E+0	9.861795E-1	1.003217E+0	9.948752E-1	9.884227E-1	9.496001E-1	9.580443E-1	9.776778E-1	9.716200E-1	9.889661E-1	9.530087E-1	9.610768E-1	9.672868E-1	9.866406E-1	9.970434E-1	9.493643E-1	1.032502E+0	9.810213E-1	9.843125E-1	9.665147E-1	9.540577E-1	9.253230E-1	1.028937E+0	9.926214E-1	9.882075E-1	9.742320E-1	1.000078E+0	9.510242E-1	9.535771E-1	9.561138E-1	9.532391E-1	9.275613E-1	9.818586E-1	1.059013E+0	9.564704E-1	9.840214E-1	1.002566E+0	9.764450E-1	9.777077E-1	9.896189E-1	9.883850E-1	9.385337E-1	9.628827E-1	9.592274E-1	9.527118E-1	1.048104E+0	9.381183E-1	1.025987E+0	9.821327E-1	9.614402E-1	9.591965E-1	9.804867E-1	1.001477E+0	9.510789E-1	1.000415E+0	1.005924E+0	1.019476E+0	9.532988E-1
5.565030E+2	9.787268E-1	9.194981E-1	9.383351E-1	9.953215E-1	9.252940E-1	9.695286E-1	9.920717E-1	9.705676E-1	9.671124E-1	9.502408E-1	9.366074E-1	9.637111E-1	9.933000E-1	9.904062E-1	9.515087E-1	9.944995E-1	9.681107E-1	9.493629E-1	9.942281E-1	9.119763E-1	9.726198E-1	9.860989E-1	1.015178E+0	1.017922E+0	9.845863E-1	9.753313E-1	9.549744E-1	9.923862E-1	1.019205E+0	1.002211E+0	9.762783E-1	1.016020E+0	1.029927E+0	9.976900E-1	9.893295E-1	9.230993E-1	9.689608E-1	9.857664E-1	9.858670E-1	9.686729E-1	1.021889E+0	9.922525E-1	9.987054E-1	9.580182E-1	9.393905E-1	9.761617E-1	9.338263E-1	9.832142E-1	9.504472E-1	1.006458E+0	9.767409E-1	9.489899E-1	9.930611E-1	9.698284E-1	9.777327E-1	9.603281E-1	9.758951E-1	9.918288E-1	9.937135E-1	1.013184E+0	9.946104E-1	9.827255E-1	9.922553E-1	9.556391E-1	9.659091E-1	9.876167E-1	9.722098E-1	1.006911E+0	9.824429E-1	9.837128E-1	9.815704E-1	9.884192E-1	9.642084E-1	9.444836E-1	9.805077E-1	1.001793E+0	9.388582E-1	9.706800E-1	9.684001E-1	9.704652E-1	1.030408E+0	9.756534E-1	1.001609E+0	9.439545E-1	9.523510E-1	9.479994E-1	9.829020E-1	9.890419E-1	9.848291E-1	1.041375E+0	1.011628E+0	9.474169E-1	9.824158E-1	9.682305E-1	9.714105E-1	9.685011E-1	9.594463E-1	9.774177E-1	9.736324E-1	9.796728E-1	9.901259E-1	1.004815E+0	1.004770E+0	9.982841E-1	9.616282E-1	9.699444E-1	9.874149E-1	1.015972E+0	9.741388E-1	9.880799E-1	9.458475E-1	9.933512E-1	9.891126E-1	9.199205E-1	9.586225E-1	1.001218E+0	9.806872E-1	9.829110E-1	1.001823E+0	9.694555E-1	9.668576E-1	9.570487E-1	9.720209E-1	9.567954E-1	9.911869E-1	9.849381E-1	9.734332E-1	9.423775E-1	9.516276E-1	9.603475E-1	9.998335E-1	9.931542E-1	9.757599E-1	9.594103E-1	9.667903E-1	1.011599E+0	9.934327E-1	9.576198E-1	9.796250E-1	9.730594E-1	9.616177E-1	9.652778E-1	9.885270E-1	9.954094E-1	9.574899E-1	1.021910E+0	9.746931E-1	9.500986E-1	9.967130E-1	9.756600E-1	9.891063E-1	9.787299E-1	9.773072E-1	9.739272E-1	9.469072E-1	9.722449E-1	9.370942E-1	1.000420E+0	9.861378E-1	9.736187E-1	9.454642E-1	1.020182E+0	9.611793E-1	9.875402E-1	1.032812E+0
5.570440E+2	1.023467E+0	9.867151E-1	9.935928E-1	1.001998E+0	1.029487E+0	9.761869E-1	1.019195E+0	1.013796E+0	9.869515E-1	9.632061E-1	9.805169E-1	1.006456E+0	9.692570E-1	9.841255E-1	1.015642E+0	9.437012E-1	9.688252E-1	1.036369E+0	9.684220E-1	9.721954E-1	9.869322E-1	9.594281E-1	9.919135E-1	1.032763E+0	9.736445E-1	1.009541E+0	9.888931E-1	9.795994E-1	9.839967E-1	9.841639E-1	9.386478E-1	9.937780E-1	1.001912E+0	9.691340E-1	9.937852E-1	1.002462E+0	9.848174E-1	9.599519E-1	9.673142E-1	1.001732E+0	9.779703E-1	1.023071E+0	1.001728E+0	9.999534E-1	9.902977E-1	9.138705E-1	9.822532E-1	1.017271E+0	1.031878E+0	1.004546E+0	9.449188E-1	9.890759E-1	9.790973E-1	1.027266E+0	9.478888E-1	9.895203E-1	9.641796E-1	9.531461E-1	1.003154E+0	9.819603E-1	9.448080E-1	9.969849E-1	9.568662E-1	1.009025E+0	9.977405E-1	1.008013E+0	9.191906E-1	1.003037E+0	9.618398E-1	1.009457E+0	9.979501E-1	9.653895E-1	1.021845E+0	1.037754E+0	9.490351E-1	9.948591E-1	9.919984E-1	9.165107E-1	1.041448E+0	9.830945E-1	9.707572E-1	9.903714E-1	9.725078E-1	9.785290E-1	9.796757E-1	9.512559E-1	9.577141E-1	9.519475E-1	9.907143E-1	9.740322E-1	1.017910E+0	9.488605E-1	9.894223E-1	9.995881E-1	9.699491E-1	1.011352E+0	1.001712E+0	9.319374E-1	1.018996E+0	9.979664E-1	9.649274E-1	1.016248E+0	9.613853E-1	1.000441E+0	1.000934E+0	9.896701E-1	9.583483E-1	9.828011E-1	9.859932E-1	9.630894E-1	9.402295E-1	1.004411E+0	9.966667E-1	9.814154E-1	9.824986E-1	9.885825E-1	1.007638E+0	9.560651E-1	9.898080E-1	1.006210E+0	1.001488E+0	9.611218E-1	9.905278E-1	1.004281E+0	9.238721E-1	1.008318E+0	9.761414E-1	9.945915E-1	1.025431E+0	9.891360E-1	9.619343E-1	1.008339E+0	9.978987E-1	9.413901E-1	1.003496E+0	1.003527E+0	9.379086E-1	1.006266E+0	9.876880E-1	9.565562E-1	9.642786E-1	9.849273E-1	9.290860E-1	9.211851E-1	9.898856E-1	9.744984E-1	9.548318E-1	9.879639E-1	9.635471E-1	9.947928E-1	9.335396E-1	9.776602E-1	9.640021E-1	9.725101E-1	9.843659E-1	9.705053E-1	9.785629E-1	1.017231E+0	9.625997E-1	1.023974E+0	9.898721E-1	9.905367E-1	9.498666E-1	1.010039E+0	9.923250E-1
5.575190E+2	1.044193E+0	9.750252E-1	9.866878E-1	9.384080E-1	9.494659E-1	9.856913E-1	1.004897E+0	1.003623E+0	9.760996E-1	1.002778E+0	9.577966E-1	9.782172E-1	1.035268E+0	1.023630E+0	9.378696E-1	9.723586E-1	9.630542E-1	9.762488E-1	9.853776E-1	9.710890E-1	1.034122E+0	9.542468E-1	9.510759E-1	1.004329E+0	9.778345E-1	9.872478E-1	9.435977E-1	1.002371E+0	9.428997E-1	1.012265E+0	9.656805E-1	9.989948E-1	9.553647E-1	9.849562E-1	1.017397E+0	9.687099E-1	1.000530E+0	9.838941E-1	9.794110E-1	9.848443E-1	9.596544E-1	9.978980E-1	9.648270E-1	1.010527E+0	9.689221E-1	1.035160E+0	9.802086E-1	9.487505E-1	1.002617E+0	9.887896E-1	9.921846E-1	1.032456E+0	9.967776E-1	9.681139E-1	1.005017E+0	9.854559E-1	1.017646E+0	9.729504E-1	1.009519E+0	1.022909E+0	9.783761E-1	1.014957E+0	9.995050E-1	9.736465E-1	9.716242E-1	1.015979E+0	9.974349E-1	9.998965E-1	1.032040E+0	1.007929E+0	9.761578E-1	1.019215E+0	1.007387E+0	1.011966E+0	9.956262E-1	1.004941E+0	9.720680E-1	9.891644E-1	9.727700E-1	1.014868E+0	9.893315E-1	9.814357E-1	9.967318E-1	1.025583E+0	9.883653E-1	9.590068E-1	9.908241E-1	9.753017E-1	9.726480E-1	9.860047E-1	9.395280E-1	1.011795E+0	1.002652E+0	1.019200E+0	9.560262E-1	9.572980E-1	9.941996E-1	9.899250E-1	9.458939E-1	9.471924E-1	1.003235E+0	9.577704E-1	9.786688E-1	9.954220E-1	9.617552E-1	9.970448E-1	1.056428E+0	9.767670E-1	9.984471E-1	9.514994E-1	9.645933E-1	9.764087E-1	9.562651E-1	9.899611E-1	1.016869E+0	9.591815E-1	9.779899E-1	1.009986E+0	9.732998E-1	9.771439E-1	1.013221E+0	9.846020E-1	9.870649E-1	9.748692E-1	9.902423E-1	9.500970E-1	9.421004E-1	9.922540E-1	9.946156E-1	1.024778E+0	9.989367E-1	1.034135E+0	9.992673E-1	9.635205E-1	9.846513E-1	9.218293E-1	9.756107E-1	9.934540E-1	9.905600E-1	9.540115E-1	9.785754E-1	1.024662E+0	9.957253E-1	1.010932E+0	1.021361E+0	9.956640E-1	9.776179E-1	1.007610E+0	1.016109E+0	9.503475E-1	9.579942E-1	9.613033E-1	9.891692E-1	9.445672E-1	9.742512E-1	9.616473E-1	1.005686E+0	1.016287E+0	9.909508E-1	9.532265E-1	1.016517E+0	1.040764E+0	1.002193E+0	9.479007E-1	9.475023E-1
5.580230E+2	1.016379E+0	1.017540E+0	9.939442E-1	9.907510E-1	9.959298E-1	9.792615E-1	9.279408E-1	9.784075E-1	1.013185E+0	1.013575E+0	9.905128E-1	9.693515E-1	9.770101E-1	9.896393E-1	1.021404E+0	9.973921E-1	1.042943E+0	1.041287E+0	9.853454E-1	1.002727E+0	1.015034E+0	1.024132E+0	1.041959E+0	1.004280E+0	1.015746E+0	1.023456E+0	1.034715E+0	1.000651E+0	1.046768E+0	9.969175E-1	9.984939E-1	1.033787E+0	9.977220E-1	1.029503E+0	9.767263E-1	1.019803E+0	1.015789E+0	1.020685E+0	9.835900E-1	1.020255E+0	9.944363E-1	9.839613E-1	1.025688E+0	9.876423E-1	1.023316E+0	9.903166E-1	1.022318E+0	9.876112E-1	1.010917E+0	9.721182E-1	1.014488E+0	9.632021E-1	1.002883E+0	9.776670E-1	9.868345E-1	9.985419E-1	9.514381E-1	9.979055E-1	1.014019E+0	1.015435E+0	1.007280E+0	9.890385E-1	1.007113E+0	1.019135E+0	9.911355E-1	1.029318E+0	1.026544E+0	9.587362E-1	9.955195E-1	9.660461E-1	1.002071E+0	1.020457E+0	1.008200E+0	9.964038E-1	9.944593E-1	1.010513E+0	1.042511E+0	1.017840E+0	1.004040E+0	9.700479E-1	9.833229E-1	1.035582E+0	1.027480E+0	1.031925E+0	1.031965E+0	1.006781E+0	1.014932E+0	1.005289E+0	1.000089E+0	1.039628E+0	9.972524E-1	9.734850E-1	9.942264E-1	1.054834E+0	1.007228E+0	1.042674E+0	1.026021E+0	1.003761E+0	9.930185E-1	1.008057E+0	1.026323E+0	9.915540E-1	1.032795E+0	9.817319E-1	9.925005E-1	9.748432E-1	1.013773E+0	9.787609E-1	1.043669E+0	9.843987E-1	1.021230E+0	1.009922E+0	1.001318E+0	1.072729E+0	1.040835E+0	9.830522E-1	1.008651E+0	9.864440E-1	9.940012E-1	1.032332E+0	9.500782E-1	1.017943E+0	1.024108E+0	9.859576E-1	1.007333E+0	1.019678E+0	9.937127E-1	1.017259E+0	1.005058E+0	1.020151E+0	1.016182E+0	1.028570E+0	1.016553E+0	1.059236E+0	1.019520E+0	1.022040E+0	9.970845E-1	1.023812E+0	9.963457E-1	1.034425E+0	1.020068E+0	9.899607E-1	1.039313E+0	9.827369E-1	1.000738E+0	1.010012E+0	1.013479E+0	9.987678E-1	9.937911E-1	1.014595E+0	1.019205E+0	1.006437E+0	9.855491E-1	1.061140E+0	1.053869E+0	9.982353E-1	9.791725E-1	9.668413E-1	1.003906E+0	1.016892E+0	9.714443E-1	9.942958E-1	1.002907E+0	1.054620E+0	9.454195E-1
5.585220E+2	1.007729E+0	1.015334E+0	9.972009E-1	1.032762E+0	1.042881E+0	1.012526E+0	1.028644E+0	1.014798E+0	1.013677E+0	9.706384E-1	1.044485E+0	1.018545E+0	1.012617E+0	9.877040E-1	9.791632E-1	1.027931E+0	1.040706E+0	1.030694E+0	1.024985E+0	1.028815E+0	1.027608E+0	1.042294E+0	9.897668E-1	9.950036E-1	1.002325E+0	9.953360E-1	1.013252E+0	9.781287E-1	1.042176E+0	1.044107E+0	9.863071E-1	1.029439E+0	1.008251E+0	1.025375E+0	9.960097E-1	1.016798E+0	1.008836E+0	9.574298E-1	1.017754E+0	1.028121E+0	1.000741E+0	9.687944E-1	9.912163E-1	9.588769E-1	1.011666E+0	9.942488E-1	1.034031E+0	9.918367E-1	1.028117E+0	1.016230E+0	9.961275E-1	9.867644E-1	9.848843E-1	1.029836E+0	1.025064E+0	1.020428E+0	1.003385E+0	1.048787E+0	1.011894E+0	1.008016E+0	1.046727E+0	9.903574E-1	9.810556E-1	1.020569E+0	1.030173E+0	1.017986E+0	1.044464E+0	9.995205E-1	1.003004E+0	1.025510E+0	1.018307E+0	9.822556E-1	1.003661E+0	1.028103E+0	1.033272E+0	9.631982E-1	1.000969E+0	1.043117E+0	1.039280E+0	1.045666E+0	9.867331E-1	9.909949E-1	1.027493E+0	1.008695E+0	1.037420E+0	1.043312E+0	9.996475E-1	1.037604E+0	1.002170E+0	1.008680E+0	9.884468E-1	1.037199E+0	9.842062E-1	9.899617E-1	1.018208E+0	9.629280E-1	1.029196E+0	1.013339E+0	9.834298E-1	1.027222E+0	9.940059E-1	1.036458E+0	9.840068E-1	9.892150E-1	1.022818E+0	9.875353E-1	9.986543E-1	9.987076E-1	1.022529E+0	1.040547E+0	1.034380E+0	1.015263E+0	1.019188E+0	9.985827E-1	9.631823E-1	1.045456E+0	1.018010E+0	1.025733E+0	9.986511E-1	1.059930E+0	9.958522E-1	1.023172E+0	1.011321E+0	1.014449E+0	1.012369E+0	1.034909E+0	1.013973E+0	1.014391E+0	9.536934E-1	1.001050E+0	1.038311E+0	9.946460E-1	1.020909E+0	1.051259E+0	9.923473E-1	1.037568E+0	1.003523E+0	1.048380E+0	1.003066E+0	1.045761E+0	1.025494E+0	1.025579E+0	1.017991E+0	1.017995E+0	1.001934E+0	9.821598E-1	1.080475E+0	1.049918E+0	9.977399E-1	9.962442E-1	1.065291E+0	1.035728E+0	1.029221E+0	1.020209E+0	1.024567E+0	9.842446E-1	1.045026E+0	1.035537E+0	9.926749E-1	1.044268E+0	9.772812E-1	9.994335E-1	1.065920E+0	1.016498E+0	1.009932E+0
5.590210E+2	9.838011E-1	1.003851E+0	1.053273E+0	9.877592E-1	1.012771E+0	9.586022E-1	9.849103E-1	9.780377E-1	9.944563E-1	9.964338E-1	1.015169E+0	1.029114E+0	9.706325E-1	9.834065E-1	1.021071E+0	9.965665E-1	9.903469E-1	1.021903E+0	9.820125E-1	1.018810E+0	9.577137E-1	9.987086E-1	9.989430E-1	9.840844E-1	9.641135E-1	9.730441E-1	9.830360E-1	9.834313E-1	9.932523E-1	9.503037E-1	9.490942E-1	1.023807E+0	1.012529E+0	9.708308E-1	9.540905E-1	9.537909E-1	1.015295E+0	9.995170E-1	9.879967E-1	9.510698E-1	1.034069E+0	1.015131E+0	1.011062E+0	1.013290E+0	9.818612E-1	1.001872E+0	9.889099E-1	9.802247E-1	9.333107E-1	1.011097E+0	9.775930E-1	9.660543E-1	1.005991E+0	9.881402E-1	9.892925E-1	9.554169E-1	9.953405E-1	9.627519E-1	1.015493E+0	9.708344E-1	9.971829E-1	1.017045E+0	9.760104E-1	9.890773E-1	9.722381E-1	9.578655E-1	1.029997E+0	9.917939E-1	1.011607E+0	1.006905E+0	1.017315E+0	9.546751E-1	1.015196E+0	9.784777E-1	9.841323E-1	9.925173E-1	9.750340E-1	9.843995E-1	1.022588E+0	1.005388E+0	9.990097E-1	1.013303E+0	1.010019E+0	9.991284E-1	9.970838E-1	9.672601E-1	9.957205E-1	9.762688E-1	9.957174E-1	9.771598E-1	1.005865E+0	1.024985E+0	9.956753E-1	9.666799E-1	1.007635E+0	9.791235E-1	1.001153E+0	1.020881E+0	9.875131E-1	1.012213E+0	9.685914E-1	9.808663E-1	9.814738E-1	1.022161E+0	1.013686E+0	9.988238E-1	9.744248E-1	9.967178E-1	9.675195E-1	9.712782E-1	1.023979E+0	1.001249E+0	1.002918E+0	9.485514E-1	9.903821E-1	9.971413E-1	1.000333E+0	9.864195E-1	9.969867E-1	9.872545E-1	9.772632E-1	9.791374E-1	9.587670E-1	9.807013E-1	9.786581E-1	9.831997E-1	1.008612E+0	1.021572E+0	9.532144E-1	9.972884E-1	1.019997E+0	9.753847E-1	1.003898E+0	9.962257E-1	1.001158E+0	9.625590E-1	1.036911E+0	1.003887E+0	1.023775E+0	1.003741E+0	1.012413E+0	9.775323E-1	1.014412E+0	1.035250E+0	9.710748E-1	1.033207E+0	9.963905E-1	9.618251E-1	1.016484E+0	9.689880E-1	9.980048E-1	9.959637E-1	1.024736E+0	1.008541E+0	9.956057E-1	1.008197E+0	9.897151E-1	9.507433E-1	9.627980E-1	9.430443E-1	1.033594E+0	1.002874E+0	9.433207E-1	9.644414E-1	9.539999E-1
5.595050E+2	9.610963E-1	9.912783E-1	1.015842E+0	1.033138E+0	9.843135E-1	1.023696E+0	9.698648E-1	1.002872E+0	9.652824E-1	1.068426E+0	1.010237E+0	1.006579E+0	1.004927E+0	9.855074E-1	1.038098E+0	1.044381E+0	1.035709E+0	9.448452E-1	1.002666E+0	9.864911E-1	1.022323E+0	9.888738E-1	9.875402E-1	9.972751E-1	9.743564E-1	9.892613E-1	1.006923E+0	1.020529E+0	9.914465E-1	9.944901E-1	1.036215E+0	9.744056E-1	9.651650E-1	1.012623E+0	1.000022E+0	1.050083E+0	9.900799E-1	1.052428E+0	1.007138E+0	9.916917E-1	1.019712E+0	9.865728E-1	9.987383E-1	9.853770E-1	1.007071E+0	1.006805E+0	1.002676E+0	1.026509E+0	9.848570E-1	1.003295E+0	9.600549E-1	9.814033E-1	9.646907E-1	1.029484E+0	1.009579E+0	1.007945E+0	9.757677E-1	9.857540E-1	1.008893E+0	9.626478E-1	1.015074E+0	9.968766E-1	1.008312E+0	9.967154E-1	9.921350E-1	1.013808E+0	9.609024E-1	9.590496E-1	9.838996E-1	9.896624E-1	9.993730E-1	1.010986E+0	9.654021E-1	1.017018E+0	9.752911E-1	9.943618E-1	1.037500E+0	1.019290E+0	9.801785E-1	9.861409E-1	9.950323E-1	9.763753E-1	9.474964E-1	1.012144E+0	9.931208E-1	1.000656E+0	9.965243E-1	9.925402E-1	1.019618E+0	9.794314E-1	9.895802E-1	1.016085E+0	9.615450E-1	9.889461E-1	1.062464E+0	9.667241E-1	9.596139E-1	9.625484E-1	1.022547E+0	1.021296E+0	1.011731E+0	1.005736E+0	1.021328E+0	9.715802E-1	9.650108E-1	1.045938E+0	9.473361E-1	1.004038E+0	1.019831E+0	1.002856E+0	1.024770E+0	9.955611E-1	9.865718E-1	9.637348E-1	1.008110E+0	9.688489E-1	1.003200E+0	1.007258E+0	1.004693E+0	9.712719E-1	9.967294E-1	1.013070E+0	9.813928E-1	9.974528E-1	9.937332E-1	1.022066E+0	1.032595E+0	1.016799E+0	9.691321E-1	1.022573E+0	9.585980E-1	1.002140E+0	9.993459E-1	9.928985E-1	1.013056E+0	9.601981E-1	9.701963E-1	9.869139E-1	9.627750E-1	1.010022E+0	1.024510E+0	9.766093E-1	1.005778E+0	1.014592E+0	1.027154E+0	9.773171E-1	9.375637E-1	1.013708E+0	1.008067E+0	1.001152E+0	1.025523E+0	9.896610E-1	9.833022E-1	9.733432E-1	9.770144E-1	1.036440E+0	1.006812E+0	9.680764E-1	9.764171E-1	1.023471E+0	9.912704E-1	9.497517E-1	9.986233E-1	1.011414E+0	9.993702E-1
5.600410E+2	9.459843E-1	9.901283E-1	9.877576E-1	1.022577E+0	1.012822E+0	1.016859E+0	9.934106E-1	9.705448E-1	1.035033E+0	1.016911E+0	9.703377E-1	9.984342E-1	9.913211E-1	1.007068E+0	9.791459E-1	1.005897E+0	9.617463E-1	9.923397E-1	9.555478E-1	1.057559E+0	9.874495E-1	1.020775E+0	9.692642E-1	9.634994E-1	1.014841E+0	1.008412E+0	9.879676E-1	9.652164E-1	9.540364E-1	1.039363E+0	1.047927E+0	9.510467E-1	1.002625E+0	9.914457E-1	9.784736E-1	1.024963E+0	9.766967E-1	9.768337E-1	1.008474E+0	9.918946E-1	9.734939E-1	1.016181E+0	1.019105E+0	9.904171E-1	1.017725E+0	9.980388E-1	1.006511E+0	9.875387E-1	1.018080E+0	9.650129E-1	1.003435E+0	1.017428E+0	1.007027E+0	9.528183E-1	1.026842E+0	1.023081E+0	1.017814E+0	9.712212E-1	9.579993E-1	1.006465E+0	9.773243E-1	1.004418E+0	1.047066E+0	9.799458E-1	1.013849E+0	9.821122E-1	1.003012E+0	1.038463E+0	1.011832E+0	9.799249E-1	9.590069E-1	1.009086E+0	9.594817E-1	1.003889E+0	1.016714E+0	9.897619E-1	9.739505E-1	1.001115E+0	9.564214E-1	9.407568E-1	1.018722E+0	9.991318E-1	1.021204E+0	9.955479E-1	9.938556E-1	9.876751E-1	9.879503E-1	1.003940E+0	9.812901E-1	1.019933E+0	1.001701E+0	1.016199E+0	1.023918E+0	9.928468E-1	1.010551E+0	1.018954E+0	9.894077E-1	1.000476E+0	1.027538E+0	9.686833E-1	1.000032E+0	9.343958E-1	1.005030E+0	9.791575E-1	1.010389E+0	9.875423E-1	1.030709E+0	9.425105E-1	1.013234E+0	1.005481E+0	9.905604E-1	9.579271E-1	1.036566E+0	1.023494E+0	1.042316E+0	9.830972E-1	9.958604E-1	9.637709E-1	9.913241E-1	9.769552E-1	1.016107E+0	1.026872E+0	1.029389E+0	1.027375E+0	1.009994E+0	9.951285E-1	1.029872E+0	9.727531E-1	1.049665E+0	9.835651E-1	9.874509E-1	9.849075E-1	9.490669E-1	9.646835E-1	9.835876E-1	9.995240E-1	1.018904E+0	9.795095E-1	9.879950E-1	1.024303E+0	1.022030E+0	1.018700E+0	9.623132E-1	9.912091E-1	9.769347E-1	1.005186E+0	1.043835E+0	1.028762E+0	9.783820E-1	1.013473E+0	1.000229E+0	1.005504E+0	1.026507E+0	1.004733E+0	9.966659E-1	1.024178E+0	9.877482E-1	9.964996E-1	1.021036E+0	9.881360E-1	1.026425E+0	1.001640E+0	1.000500E+0	9.249315E-1	1.087005E+0
5.604980E+2	1.033733E+0	9.992484E-1	1.019070E+0	9.923416E-1	1.014336E+0	1.043957E+0	1.050933E+0	1.065693E+0	9.976543E-1	1.030952E+0	1.035075E+0	1.002163E+0	1.017487E+0	1.047890E+0	1.072897E+0	1.017581E+0	1.006723E+0	9.865440E-1	1.066423E+0	1.039329E+0	9.823030E-1	1.012448E+0	1.029346E+0	1.023504E+0	1.071179E+0	9.939704E-1	1.032406E+0	1.043750E+0	9.938470E-1	9.793707E-1	1.028832E+0	9.794602E-1	9.868660E-1	1.031416E+0	1.042144E+0	1.013588E+0	1.004217E+0	1.029320E+0	1.020430E+0	1.025478E+0	9.969028E-1	1.013984E+0	1.010294E+0	1.052381E+0	1.031865E+0	1.048666E+0	1.023983E+0	1.033133E+0	9.974345E-1	9.630522E-1	1.019924E+0	1.024391E+0	1.036201E+0	1.044290E+0	1.003820E+0	9.961736E-1	1.064376E+0	1.050744E+0	1.007559E+0	1.017497E+0	1.028903E+0	9.958584E-1	1.018343E+0	1.015516E+0	1.011742E+0	1.004887E+0	9.897287E-1	1.008269E+0	1.020670E+0	9.926847E-1	1.036551E+0	1.028759E+0	9.979178E-1	9.999110E-1	1.042309E+0	1.019571E+0	1.045646E+0	1.052076E+0	1.025445E+0	1.045948E+0	1.037854E+0	1.016686E+0	1.016240E+0	1.017834E+0	9.923798E-1	1.092503E+0	1.076642E+0	1.048442E+0	1.021631E+0	9.648320E-1	1.009845E+0	1.019819E+0	1.031411E+0	9.989841E-1	9.960911E-1	1.051833E+0	9.926829E-1	1.033230E+0	1.016715E+0	1.010138E+0	1.032876E+0	1.032498E+0	9.876640E-1	1.064572E+0	1.000563E+0	1.045433E+0	1.023422E+0	1.045181E+0	9.952701E-1	1.026966E+0	1.032897E+0	1.021129E+0	1.006698E+0	1.044443E+0	9.774159E-1	1.054234E+0	9.963996E-1	1.018618E+0	1.018451E+0	1.022554E+0	1.030101E+0	1.030578E+0	9.983375E-1	1.049918E+0	1.044332E+0	9.778723E-1	1.035591E+0	9.787628E-1	1.046127E+0	1.008751E+0	1.038202E+0	9.769190E-1	1.012078E+0	1.059945E+0	1.024629E+0	1.060778E+0	1.015486E+0	1.032478E+0	1.027468E+0	1.008632E+0	1.023043E+0	1.005659E+0	9.897840E-1	1.037152E+0	1.025247E+0	9.776176E-1	1.017687E+0	9.983041E-1	1.042632E+0	1.054615E+0	1.023909E+0	1.002939E+0	1.023040E+0	1.010914E+0	1.003074E+0	1.030305E+0	1.003043E+0	1.005021E+0	1.033450E+0	1.047530E+0	1.017197E+0	1.003557E+0	1.077129E+0	1.087555E+0	9.892688E-1
5.610070E+2	1.004891E+0	1.101381E+0	1.014296E+0	1.004945E+0	1.032701E+0	1.033692E+0	1.028132E+0	1.001660E+0	1.050549E+0	9.868387E-1	1.059262E+0	1.027429E+0	1.028180E+0	1.000623E+0	9.832009E-1	9.996913E-1	1.021835E+0	1.020406E+0	1.034992E+0	1.011007E+0	1.013895E+0	1.012995E+0	1.025014E+0	9.773395E-1	1.021373E+0	1.044399E+0	1.054236E+0	1.033938E+0	1.032372E+0	9.968084E-1	1.072525E+0	9.992617E-1	1.039639E+0	9.870266E-1	1.052022E+0	1.026703E+0	1.034778E+0	1.034174E+0	1.042025E+0	1.036240E+0	1.021132E+0	1.002155E+0	9.786364E-1	1.043517E+0	1.027887E+0	1.034860E+0	1.025283E+0	1.043911E+0	1.042342E+0	1.069402E+0	1.114533E+0	1.090235E+0	1.029386E+0	1.012556E+0	1.027929E+0	1.063109E+0	1.034159E+0	1.064911E+0	9.777555E-1	1.001051E+0	1.009714E+0	1.011739E+0	1.013473E+0	1.040731E+0	1.053453E+0	9.824146E-1	1.056517E+0	1.034322E+0	9.971445E-1	1.038167E+0	1.011699E+0	1.020758E+0	1.056702E+0	9.819945E-1	1.028654E+0	1.028484E+0	1.021465E+0	1.005807E+0	9.894286E-1	1.037624E+0	9.888298E-1	1.020466E+0	9.792185E-1	9.866590E-1	1.033782E+0	1.043550E+0	9.971430E-1	1.019624E+0	1.031293E+0	1.008923E+0	1.038244E+0	1.004155E+0	1.034528E+0	1.020728E+0	1.000438E+0	1.040612E+0	1.046567E+0	1.066485E+0	1.030717E+0	1.027560E+0	1.008153E+0	1.039659E+0	1.042878E+0	9.974356E-1	1.070715E+0	1.003224E+0	1.009491E+0	1.058545E+0	9.793679E-1	1.065805E+0	1.021514E+0	1.024778E+0	1.004696E+0	1.057168E+0	1.019769E+0	1.019189E+0	1.011230E+0	1.062794E+0	1.030961E+0	9.968925E-1	1.052303E+0	1.006455E+0	1.047071E+0	1.008201E+0	1.048279E+0	1.023793E+0	9.939706E-1	1.049241E+0	1.051437E+0	9.923601E-1	9.805543E-1	1.001806E+0	1.025223E+0	1.011432E+0	1.010764E+0	1.020378E+0	1.050943E+0	9.676795E-1	1.040702E+0	9.894885E-1	9.679699E-1	1.031093E+0	1.057071E+0	9.935395E-1	1.028181E+0	1.022429E+0	1.003427E+0	1.003042E+0	9.865355E-1	1.030132E+0	9.871984E-1	1.046074E+0	9.971670E-1	1.030115E+0	1.043680E+0	1.014004E+0	1.067140E+0	1.043343E+0	1.070029E+0	9.858391E-1	1.030934E+0	9.969652E-1	9.983610E-1	9.950610E-1	1.042365E+0
