Photon Energy (eV)	#1	#2	#3	#4	#5	#6	#7	#8	#9	#10	#11	#12	#13	#14	#15	#16	#17	#18	#19	#20	#21	#22	#23	#24	#25	#26	#27	#28	#29	#30	#31	#32	#33	#34	#35	#36	#37	#38	#39	#40	#41	#42	#43	#44	#45	#46	#47	#48	#49	#50	#51	#52	#53	#54	#55	#56	#57	#58	#59	#60	#61	#62	#63	#64	#65	#66	#67	#68	#69	#70	#71	#72	#73	#74	#75	#76	#77	#78	#79	#80	#81	#82	#83	#84	#85	#86	#87	#88	#89	#90	#91	#92	#93	#94	#95	#96	#97	#98	#99	#100	#101	#102	#103	#104	#105	#106	#107	#108	#109	#110	#111	#112	#113	#114	#115	#116	#117	#118	#119	#120	#121	#122	#123	#124	#125	#126	#127	#128	#129	#130	#131	#132	#133	#134	#135	#136	#137	#138	#139	#140	#141	#142	#143	#144	#145	#146	#147	#148	#149	#150	#151	#152	#153	#154	#155	#156	#157	#158	#159	#160	#161	#162	#163	#164	#165	#166	
5.300520E+2	-3.983713E-3	-8.629420E-3	-2.116304E-3	-6.359856E-3	-1.218567E-2	-5.238792E-3	2.331086E-3	-2.464978E-3	-8.645106E-3	-5.138567E-3	-2.331659E-3	-1.127183E-2	-7.361975E-3	-9.484322E-3	-1.101841E-2	-8.828119E-3	-3.802654E-3	-6.054115E-3	-5.320557E-3	-5.428622E-3	-7.513006E-3	4.409230E-4	-2.361945E-3	-1.490658E-2	-1.458275E-2	-6.715794E-3	-8.976009E-3	-1.889885E-2	-6.142666E-3	-3.836665E-3	-8.701009E-3	-2.180530E-3	2.503655E-3	-1.077959E-2	-7.896997E-3	-7.536780E-3	-2.429171E-3	-1.894439E-3	-1.033126E-2	-4.838194E-3	-1.015363E-2	-1.218015E-2	-9.771338E-3	-1.227665E-2	-6.923525E-3	-7.752272E-3	-6.383136E-3	-9.929814E-3	-5.790877E-3	-6.481816E-4	-2.413655E-3	-4.952505E-3	-1.094863E-2	-5.074031E-3	-1.469791E-2	-1.134025E-2	2.645900E-3	1.614470E-4	-3.057694E-3	-1.377101E-2	-3.089332E-3	-1.033582E-2	-4.745813E-3	8.978356E-4	3.590263E-3	-4.886059E-4	-1.512220E-2	-1.635529E-3	6.831299E-4	3.547419E-4	1.946061E-3	-6.702310E-3	-7.816494E-3	-1.127142E-2	-2.291326E-3	-1.062072E-3	-7.542163E-3	8.226523E-4	-5.492278E-3	1.779687E-3	-7.551941E-4	-7.516176E-3	-4.318327E-3	-9.073812E-3	-2.244576E-3	-1.021433E-3	-7.446188E-3	-6.057424E-3	-1.867117E-3	-1.321104E-2	-2.784080E-3	-2.309446E-4	-2.233381E-3	-9.708650E-3	-1.236672E-2	-9.050503E-3	-7.178158E-3	-1.333469E-2	-1.257536E-2	-3.951095E-3	7.516982E-4	-8.174199E-3	3.490214E-3	-3.032536E-3	-7.443913E-3	-1.192971E-2	-5.512755E-3	-3.571874E-3	-9.411924E-3	-7.388908E-3	-1.022702E-2	-1.414549E-3	-4.870459E-4	-1.320429E-2	-5.163437E-3	-1.221332E-2	-3.568517E-3	-1.731474E-3	-8.698639E-3	-9.065839E-3	-1.779427E-2	-1.742149E-2	1.262840E-3	-1.390933E-2	-8.789838E-3	-4.197198E-3	4.557091E-3	1.961484E-3	-8.994001E-4	-9.158492E-3	-1.147811E-2	-4.198616E-3	-1.107239E-2	-5.070796E-3	-9.555907E-3	8.178981E-4	-8.383878E-4	-4.396870E-3	-8.525916E-3	-5.104160E-3	-9.584437E-3	7.588916E-4	-6.180086E-3	-1.096438E-2	-7.916604E-3	-3.481636E-3	-1.600503E-3	-7.352158E-3	-1.435620E-2	1.404578E-3	-3.655618E-4	-1.113587E-2	2.091096E-3	-1.091424E-2	-8.141314E-3	-6.558722E-3	-1.475811E-2	6.584011E-4	-5.654483E-3	-8.410465E-3	-8.582204E-4	-3.387331E-3	5.461374E-4	-1.066186E-2	-1.462152E-2	-2.008989E-2
5.305180E+2	-1.424661E-2	-4.464156E-3	-6.865024E-3	-2.587702E-3	1.591469E-3	-3.024204E-3	-1.158790E-2	-6.928291E-3	-6.626164E-3	-7.708968E-3	-9.909770E-3	8.824350E-4	-8.929913E-3	-6.807121E-3	-8.860703E-3	-9.985956E-3	-3.108433E-3	-8.857125E-3	-9.904971E-3	-5.840864E-3	-3.957837E-3	1.084620E-3	-6.318187E-3	-2.534057E-3	-6.074944E-3	-5.419219E-3	-6.742821E-3	-2.769465E-3	-6.678913E-3	-8.636740E-3	-2.896615E-3	-7.783953E-3	-1.266264E-2	-8.276758E-3	-1.901660E-3	-4.616944E-3	-4.728925E-3	-1.128355E-2	-1.455694E-3	-9.955496E-3	-1.701908E-2	-6.649494E-3	1.550574E-3	6.057874E-4	-9.067312E-3	-1.209335E-2	-7.230847E-4	-1.405199E-2	-8.248502E-3	-9.580980E-3	-5.696510E-3	-5.643368E-5	-6.556666E-3	-3.805730E-4	3.642013E-3	-9.524035E-3	-1.402706E-2	-1.062979E-2	-5.957186E-3	-9.026656E-3	-3.552713E-3	-5.901445E-3	-7.266414E-3	-9.619086E-3	-8.670119E-3	-1.510105E-2	-3.856680E-3	-1.426945E-2	-4.822515E-4	-1.036700E-2	-1.055627E-2	2.516371E-4	-5.062405E-3	-4.453751E-3	-1.265607E-2	-6.780349E-3	-3.286812E-3	-6.990443E-3	-6.537114E-3	-1.839965E-3	4.473074E-3	-3.017120E-3	-6.409187E-4	-4.072433E-3	-5.812069E-3	-4.673013E-3	-6.785716E-3	-9.030429E-3	-6.272865E-3	-9.461054E-4	-1.193530E-2	-1.298309E-2	-1.657745E-2	-6.998034E-3	-1.172556E-2	5.303235E-5	-9.691808E-3	-1.909933E-3	1.307704E-3	-1.226136E-2	-6.804514E-3	2.929705E-3	-9.172412E-3	-9.852557E-3	-9.917008E-3	4.161992E-4	-4.765139E-3	-4.784963E-3	6.018123E-3	-1.119871E-2	-1.173108E-2	-5.640354E-3	-2.414227E-3	-1.367229E-3	-1.034434E-2	-3.024573E-3	-7.407087E-3	1.142809E-4	2.416850E-3	-1.370355E-2	-3.356700E-3	-8.843809E-3	-8.470670E-3	-8.058382E-3	-1.199603E-2	-5.802218E-3	-3.448910E-3	-7.492465E-3	-8.009700E-3	-1.249491E-3	-3.837477E-3	6.902430E-4	5.583125E-4	-1.493062E-2	8.339202E-3	-1.551209E-2	2.494903E-3	-5.652894E-3	-6.524472E-3	-7.671355E-3	-1.847269E-3	-1.343939E-2	-1.402591E-2	-8.404345E-3	-9.256633E-3	-1.651866E-2	-1.161794E-2	6.073775E-3	-5.108771E-3	3.956068E-3	-7.880158E-3	-2.417378E-3	-3.682753E-3	-6.534363E-3	-9.468053E-3	-5.096660E-3	-6.420758E-3	-1.463636E-2	-2.693157E-3	-5.070487E-3	5.008717E-3	-1.291781E-2	-9.635536E-3	4.306354E-3	-1.905975E-2	-1.490221E-2
5.310250E+2	7.251369E-4	4.477408E-3	1.490807E-3	-3.241595E-3	-1.076827E-3	-6.517815E-3	-1.726186E-2	-1.937581E-4	-1.100791E-2	1.025062E-3	-8.741347E-3	-5.063662E-3	1.140467E-3	4.704560E-3	-2.572374E-3	-5.360929E-3	-6.590435E-3	-6.867883E-4	-6.890704E-3	-5.731280E-3	-3.875842E-3	-4.771514E-3	-7.395537E-3	-7.939383E-3	-8.105060E-3	-1.696803E-3	-3.088395E-3	3.470252E-3	-1.686487E-3	-2.550248E-3	-3.390283E-3	-1.819913E-3	6.051241E-4	-5.158719E-3	-6.552086E-3	-8.535509E-3	-3.447144E-3	-1.725401E-3	3.881147E-4	-8.079319E-3	-3.038794E-3	-1.873355E-3	-1.398656E-2	8.010985E-4	4.434984E-3	-7.586594E-3	-1.286426E-2	6.462334E-3	-4.896785E-4	1.949272E-3	-4.482378E-3	-4.787613E-3	-4.620051E-3	2.920470E-4	-1.218560E-2	-4.230684E-3	-1.681701E-3	3.440326E-4	-1.671080E-3	-8.286629E-3	-8.011249E-3	-8.553169E-3	-1.925373E-3	4.861584E-3	-7.940927E-3	-6.072056E-3	1.552042E-3	-3.595010E-3	-1.434927E-2	-7.273445E-3	-5.873423E-3	-1.372821E-3	-1.637330E-3	5.474030E-4	-9.301003E-3	-8.693739E-4	-7.364832E-3	-6.342012E-3	-1.618610E-2	-5.477397E-3	-5.709571E-3	-3.547135E-3	-8.334891E-3	-6.809690E-3	-8.781437E-3	-3.332230E-3	3.660642E-3	2.128708E-3	-7.474458E-3	-4.710019E-3	-1.124367E-2	-4.779258E-3	-1.452539E-3	-1.637405E-2	-1.249985E-3	5.314632E-3	-8.961431E-3	3.567329E-3	-7.397057E-3	-3.763076E-3	-1.616251E-2	7.138762E-4	1.280539E-3	5.238923E-3	-4.066018E-3	-1.241795E-2	-1.663633E-2	1.842248E-3	-8.664545E-3	1.758992E-3	1.687318E-3	-1.050842E-2	-1.647086E-3	-1.267591E-3	-5.567105E-3	-7.505220E-3	-2.735594E-3	-1.030764E-2	5.431147E-3	3.926814E-3	-9.902776E-4	-5.103780E-3	-5.308083E-3	2.163480E-3	7.886268E-3	-1.739042E-3	-1.148696E-2	-7.401649E-3	-8.570510E-3	-1.029414E-2	-1.319993E-2	-4.715311E-3	-2.385502E-3	8.210904E-4	-7.477914E-3	-1.242557E-3	-1.103031E-2	4.725666E-4	8.289677E-5	-1.607259E-2	-1.110565E-2	-1.391161E-2	-8.754062E-4	-1.917962E-4	-1.192402E-2	1.088310E-3	-2.628002E-3	-4.228531E-3	-1.211129E-2	-1.039908E-2	-7.798946E-3	-2.322077E-3	-7.521260E-3	9.337909E-3	1.916813E-3	3.247268E-3	-1.321096E-2	-7.435751E-3	-7.185948E-3	-8.233702E-3	-1.672925E-2	1.361713E-3	-7.084198E-3	-8.154550E-3	-1.000024E-2	-1.987926E-3
5.315130E+2	-4.386572E-3	5.249479E-3	1.565604E-3	-2.435646E-3	-9.257426E-3	-2.167554E-3	5.186976E-3	-1.341702E-3	-1.914310E-3	-2.879026E-3	1.784061E-3	-8.010813E-3	-9.894949E-4	2.203375E-3	6.840048E-3	-5.281118E-3	6.357802E-4	1.129328E-3	7.265513E-3	-3.190681E-4	-8.455991E-3	-6.290470E-3	-2.099168E-3	-7.856312E-3	1.846474E-3	-1.192524E-2	1.292495E-3	-6.937929E-5	-1.606601E-3	-5.736388E-3	1.281449E-3	-4.244056E-3	-2.101599E-3	1.017336E-2	3.610240E-3	3.027018E-3	5.047277E-3	1.429883E-4	4.757159E-4	-1.591840E-3	-9.289928E-3	1.633429E-3	-5.141346E-3	-1.642080E-2	4.540215E-3	-5.285894E-3	-6.091523E-3	-3.643406E-3	7.941721E-3	-1.245535E-2	-9.488531E-3	8.920157E-4	2.876885E-3	-1.288500E-2	2.664640E-3	-6.092084E-4	-7.432483E-3	-2.145870E-3	-1.060286E-2	-5.513707E-3	-1.654692E-3	-6.842624E-3	1.854260E-3	-3.809208E-3	-3.295829E-3	-9.205008E-3	-4.255532E-3	-2.103992E-3	-2.839201E-3	-1.152458E-3	-3.482285E-3	-5.304090E-3	-4.914150E-3	6.666390E-4	-2.655678E-3	-5.317913E-3	2.867614E-3	-5.912905E-4	3.982058E-3	-2.886035E-3	-6.273834E-3	-9.274608E-4	-5.858470E-3	3.213304E-4	-7.311269E-4	-4.502433E-3	-4.884355E-3	-6.390904E-3	3.410826E-4	3.098816E-3	-3.748342E-3	-1.979608E-3	7.346400E-3	1.084918E-3	1.601683E-3	2.434593E-4	1.132913E-2	6.621944E-4	2.129080E-3	-8.629846E-4	1.070506E-3	1.396378E-3	-6.555835E-3	9.390782E-3	-1.039682E-2	-6.782089E-4	-1.931516E-3	-5.265618E-3	-4.587171E-3	-7.087002E-3	7.237924E-4	-4.697440E-4	-5.617823E-3	6.896842E-3	3.331554E-3	-1.334416E-3	-5.278647E-3	-4.371451E-3	-9.574115E-3	-3.351007E-5	-8.482950E-3	-3.191098E-3	-1.016176E-2	4.428175E-3	-1.116779E-2	-7.330863E-3	-6.758262E-3	-2.209924E-3	-3.874609E-3	-2.365096E-3	7.776303E-4	-5.079138E-4	-7.766675E-3	-2.134112E-3	-6.160006E-3	-5.816406E-3	4.798873E-3	-7.900538E-4	-1.135275E-3	3.619737E-3	-6.902442E-3	1.623808E-3	-7.606745E-3	-2.512398E-3	4.029476E-3	-7.607689E-3	1.148174E-2	-1.602360E-2	-9.238034E-3	4.785048E-3	-3.906994E-3	-9.945169E-4	-9.218538E-4	-8.541582E-3	-2.243667E-3	-9.783785E-3	2.719167E-3	-1.383354E-3	-4.729981E-3	-9.670562E-4	-4.898127E-3	8.097607E-4	-1.172198E-2	-1.608236E-2	-9.191673E-4	-1.825004E-3
5.320120E+2	6.111179E-3	-4.225026E-3	-1.812233E-3	6.493996E-3	8.030117E-3	4.361321E-3	5.295557E-3	-3.283097E-3	-2.473501E-3	-7.423926E-3	5.749870E-3	3.010100E-3	7.928009E-4	-4.985085E-3	1.060897E-2	7.832612E-3	-4.555987E-4	-4.560607E-3	3.655618E-4	-2.319789E-4	5.049540E-3	4.190953E-3	-2.563248E-4	8.865208E-3	-1.147762E-2	-2.055451E-3	-3.614164E-3	-1.235747E-2	-5.170793E-3	-2.343467E-3	-3.794755E-3	1.604564E-3	5.653526E-3	1.335025E-2	2.589146E-3	1.040141E-3	-6.874019E-3	-5.717004E-3	-1.777875E-3	6.093432E-3	3.243555E-4	3.080840E-3	2.536019E-3	1.673269E-3	-9.562461E-4	-1.768632E-4	1.281561E-3	9.762556E-3	3.749900E-4	-3.297788E-3	-7.133115E-3	-1.056204E-3	3.615759E-3	-8.179222E-3	1.597183E-3	1.057667E-2	-4.751862E-3	-1.363320E-3	5.806463E-3	6.738671E-3	7.605258E-3	2.013404E-3	-1.399808E-4	-5.041832E-4	-7.773580E-3	-7.672197E-4	5.913453E-3	5.899750E-3	-2.741782E-3	-2.861703E-3	-4.532392E-3	-3.436309E-3	2.557784E-3	-1.030342E-3	3.356448E-3	6.519325E-4	-7.786478E-3	-4.924673E-4	-3.953401E-3	4.117243E-3	2.208260E-3	1.076946E-3	-2.161189E-3	-5.927273E-3	-5.541865E-3	-4.411377E-3	1.563688E-3	4.831912E-3	-1.247907E-2	-5.187960E-3	-2.417203E-3	4.923063E-3	-4.159797E-3	2.776569E-3	-3.217456E-3	-5.481085E-3	-8.806294E-3	4.366051E-3	-5.971935E-3	3.463289E-3	-1.782121E-3	-1.307394E-2	-2.790633E-3	-5.554843E-3	2.545234E-3	3.319557E-3	4.161835E-3	1.385046E-3	-3.918042E-3	4.281715E-3	-6.661284E-3	-9.884765E-4	5.600821E-4	-4.568342E-4	2.846580E-3	1.037544E-3	7.241778E-4	-2.519958E-3	-7.386918E-4	4.128734E-3	8.322494E-3	2.409163E-3	-2.669494E-3	8.952065E-4	6.131751E-3	7.249955E-4	-1.423725E-3	6.207243E-3	1.139020E-2	6.902333E-3	6.575252E-3	-5.940237E-3	2.472772E-4	-8.309328E-3	7.132014E-4	-2.163744E-3	-2.959263E-3	-2.478526E-5	2.194283E-3	-2.397953E-4	4.372559E-3	1.726767E-3	-5.809534E-3	2.002240E-3	4.082882E-3	4.952183E-3	-1.823853E-3	-9.322860E-3	1.419260E-3	-8.429890E-3	3.126781E-3	-2.173938E-3	7.611726E-3	-4.188894E-3	-2.913510E-3	3.413933E-3	7.651698E-3	-1.277855E-3	6.236894E-4	1.292237E-2	1.023493E-3	-4.902187E-3	9.709500E-3	2.086814E-2	1.573042E-2	8.530128E-3
5.325070E+2	5.560623E-3	-3.453999E-3	3.129082E-3	2.171903E-3	5.373962E-4	-2.721232E-3	8.607064E-3	1.430146E-3	7.894773E-3	4.001869E-3	1.026674E-2	2.507173E-3	8.151341E-3	-7.176752E-4	-3.281446E-3	1.378136E-2	-9.587717E-4	8.280782E-3	6.295583E-3	1.326037E-2	-7.044059E-4	9.947117E-4	1.439378E-2	1.207217E-2	1.125872E-2	1.262447E-2	-2.092955E-3	2.121371E-2	2.900303E-3	-4.703104E-5	1.479330E-3	5.553183E-3	1.606405E-4	-6.218136E-4	-9.343012E-4	-1.781834E-3	5.865484E-3	5.705705E-3	-2.275382E-3	7.375691E-3	1.187968E-2	2.513263E-3	6.991677E-5	1.339210E-2	2.523297E-3	1.777797E-2	8.682226E-3	-1.016216E-3	1.120265E-3	4.677340E-3	3.745393E-3	6.668127E-3	7.448178E-3	1.566120E-2	7.055116E-3	-2.135113E-3	5.083414E-3	-1.308547E-3	1.131344E-2	1.284701E-2	6.012533E-3	1.584800E-2	1.027301E-3	-4.801477E-3	8.050536E-3	1.543281E-2	1.289826E-3	3.105057E-4	7.570784E-3	6.338294E-3	5.397496E-3	1.300478E-4	8.044104E-3	1.558224E-3	8.083890E-3	1.411303E-3	1.389122E-2	-2.667153E-3	1.229411E-2	-2.617963E-3	-3.496674E-3	-1.969696E-3	3.435540E-4	5.612993E-3	5.635511E-3	-3.688804E-3	-6.488489E-4	4.405898E-3	9.600898E-3	4.596489E-3	1.320114E-2	-1.061396E-2	1.185520E-3	1.347932E-2	1.340540E-2	-3.417918E-3	1.759972E-3	8.608295E-4	7.395846E-3	-6.149189E-4	1.080266E-2	2.780547E-3	6.506439E-3	-5.443888E-3	1.296322E-2	9.281451E-3	1.963895E-2	-1.782005E-3	1.164870E-2	1.034172E-3	1.115119E-2	-2.470398E-4	-2.726061E-3	1.520447E-3	4.729513E-3	1.184546E-2	-1.808968E-3	5.225141E-3	4.055762E-3	-1.272363E-2	7.662641E-3	8.651377E-3	7.341168E-3	9.732522E-3	1.089806E-2	1.110784E-2	-3.071816E-3	-3.299027E-3	6.240792E-3	-1.990178E-4	3.531038E-3	7.279660E-3	4.026799E-3	3.728221E-3	8.250040E-4	1.396945E-2	-2.206555E-3	-3.287121E-3	-3.049455E-4	9.054602E-3	1.512087E-2	5.167487E-3	1.488328E-2	7.151226E-3	4.887542E-3	8.193400E-3	3.353213E-3	7.139422E-3	5.762652E-3	3.014722E-3	-2.515221E-3	6.653322E-3	-4.089826E-3	1.685740E-3	3.333246E-5	-2.022072E-3	1.120686E-2	5.988153E-3	3.640344E-3	-9.636312E-5	7.023104E-3	2.327977E-3	7.448581E-3	8.282128E-3	1.586149E-2	8.654181E-3
5.330280E+2	1.021996E-2	1.104571E-2	4.608068E-3	5.958899E-3	1.236095E-2	1.530827E-2	7.429082E-3	1.278168E-2	2.277222E-2	1.812356E-2	3.182101E-3	1.794659E-2	7.196774E-3	1.508627E-2	8.283917E-3	7.842149E-3	1.428011E-2	1.074852E-2	8.189574E-3	4.291448E-3	1.945754E-2	4.350776E-3	4.037387E-3	1.229895E-2	2.713518E-2	1.518803E-2	2.322185E-2	9.411196E-3	1.838516E-2	2.315054E-2	1.602188E-2	8.870704E-3	5.841288E-3	1.313273E-3	1.108566E-2	1.840391E-2	6.566499E-3	1.477170E-2	1.497638E-2	1.099573E-2	2.729740E-2	1.347547E-2	2.474274E-2	1.222519E-2	5.448586E-3	1.511701E-2	1.609821E-2	1.241653E-2	5.092081E-3	1.935569E-2	2.546880E-2	3.292613E-3	8.184529E-3	1.056558E-2	1.192456E-2	1.726262E-2	2.016379E-2	1.494205E-2	4.168916E-3	1.701232E-2	2.690194E-3	1.377165E-2	1.119602E-2	1.297453E-2	1.603966E-2	1.620113E-2	1.447909E-2	1.539373E-2	1.215859E-2	1.496157E-2	1.710081E-2	1.643385E-2	8.828492E-3	1.398324E-2	1.546374E-2	1.196647E-2	9.221448E-3	1.626071E-2	1.589272E-2	6.924430E-3	9.553940E-3	1.590064E-2	2.097024E-2	1.994888E-2	1.747556E-2	2.162929E-2	1.454078E-2	1.011224E-2	1.815153E-2	1.635982E-2	1.892745E-2	2.566380E-2	1.589125E-2	1.573993E-2	1.355265E-2	1.233838E-2	2.154859E-2	5.788217E-3	1.511172E-2	1.799014E-2	1.212428E-2	1.342763E-2	7.241688E-3	9.254120E-3	1.631531E-2	1.200866E-2	5.044955E-3	1.217717E-2	8.914854E-3	1.859974E-2	1.505709E-2	1.926858E-2	1.233216E-2	7.878659E-3	1.016723E-2	1.119453E-2	2.007464E-2	1.359111E-2	7.107685E-3	2.747098E-2	1.463906E-2	2.349964E-2	1.800599E-2	4.748330E-3	7.037583E-3	7.236485E-3	2.163258E-2	1.223434E-2	3.723229E-3	1.636390E-2	1.763159E-2	7.392175E-3	1.639218E-2	2.589554E-2	1.331642E-2	9.947456E-3	9.740743E-3	1.367916E-2	1.421343E-2	1.641356E-2	9.946368E-3	1.807404E-2	1.961439E-2	1.291945E-2	1.609736E-2	1.337409E-2	2.835342E-3	2.371396E-2	3.363239E-2	5.668557E-3	1.934010E-2	1.239046E-2	6.512871E-3	1.915543E-2	2.081640E-2	1.680004E-2	1.281210E-2	1.808677E-2	1.599954E-2	9.855708E-3	9.430287E-3	1.670787E-2	1.073749E-2	1.442148E-3	1.300876E-2	2.162072E-2
5.331680E+2	9.021449E-3	3.178025E-2	1.584342E-2	3.344060E-2	2.561785E-2	2.188667E-2	5.612185E-3	2.026130E-2	2.289301E-2	1.156079E-2	2.822180E-2	7.926796E-3	2.085592E-2	1.155467E-2	5.298583E-3	1.564721E-2	1.705377E-2	1.790337E-2	1.842039E-2	1.738438E-2	2.921257E-2	2.801948E-2	2.173537E-2	1.631167E-2	1.606701E-2	4.311000E-3	1.689866E-2	1.658060E-2	2.291807E-2	5.124886E-3	2.079752E-2	1.854005E-2	2.370692E-2	2.237409E-2	2.561769E-2	-2.933058E-3	1.902722E-2	2.988533E-2	1.810910E-2	1.107250E-2	8.400782E-3	1.554383E-2	1.353487E-2	1.806274E-2	2.139700E-2	2.029568E-2	3.886232E-3	1.557886E-2	1.231317E-2	2.314376E-2	1.706908E-2	1.869142E-2	-4.039711E-4	1.824559E-2	1.621974E-2	2.324851E-2	2.813371E-2	3.190838E-2	2.307390E-2	1.037605E-2	1.259631E-2	6.729192E-3	5.494683E-3	1.690766E-2	2.210032E-2	2.666868E-2	1.401232E-2	1.765361E-2	2.189740E-2	8.403547E-3	2.131128E-2	1.425483E-2	1.976722E-2	1.280936E-2	1.890833E-2	2.714246E-2	1.657782E-2	1.696906E-2	1.024606E-2	1.146239E-2	1.616903E-2	2.303407E-2	1.687848E-2	1.866100E-2	2.628145E-2	2.620838E-2	1.119333E-2	2.268966E-2	2.025008E-2	2.752934E-2	2.093889E-2	1.486895E-2	2.598674E-2	2.225843E-2	2.530939E-2	1.182101E-2	2.104376E-2	2.404064E-2	1.398853E-2	1.317810E-2	2.062789E-2	1.885409E-2	7.994611E-3	1.055202E-2	2.034008E-2	2.259195E-2	1.387520E-2	8.345437E-3	1.308775E-2	2.437154E-2	1.466925E-2	3.510557E-2	2.405078E-2	1.927921E-2	2.630782E-2	2.591189E-2	2.948259E-2	2.022789E-2	7.247271E-3	9.239475E-3	1.860343E-2	2.672164E-2	1.441833E-2	3.042294E-2	5.160359E-3	1.595975E-2	2.296642E-2	1.430707E-2	4.519552E-3	1.453466E-2	2.351902E-2	2.138438E-2	1.408706E-2	2.416704E-2	2.214139E-2	3.511451E-2	1.382853E-2	1.922260E-2	1.239036E-2	8.655844E-3	1.483700E-2	2.435950E-2	1.231322E-2	1.622556E-2	1.137356E-2	1.353616E-2	1.963644E-2	1.340717E-2	2.026008E-2	2.226940E-2	2.340229E-2	1.753388E-2	1.853575E-2	7.003818E-3	3.882154E-2	1.900842E-2	1.655245E-2	1.282464E-2	2.548120E-2	1.854294E-2	2.073290E-2	3.374154E-2	2.110179E-3	8.491204E-3	4.044917E-2	1.140853E-2
5.333080E+2	1.633592E-2	3.123809E-2	3.341088E-2	1.209218E-2	3.061183E-2	7.601304E-3	2.380002E-2	2.172452E-2	2.361773E-2	1.168884E-2	2.172057E-2	5.735433E-3	2.719806E-2	2.693187E-2	2.164759E-2	1.039010E-2	2.684645E-2	2.618127E-2	2.804230E-2	1.974667E-2	3.232293E-2	2.709788E-2	3.243826E-2	1.194895E-2	1.548975E-2	1.607415E-2	2.714200E-2	4.796084E-3	1.690262E-2	2.127925E-2	2.849938E-2	2.495326E-2	2.121481E-2	1.701031E-2	2.283240E-2	1.888746E-2	2.913854E-2	2.285855E-2	3.910549E-2	2.264992E-2	1.888132E-2	1.831515E-2	2.570573E-2	1.861634E-2	2.058615E-2	2.833253E-2	2.773329E-2	2.422602E-2	1.942399E-2	2.885523E-2	1.156941E-2	2.622910E-2	9.417609E-3	3.125018E-2	2.300831E-2	2.832107E-2	2.457946E-2	2.494946E-2	1.840169E-2	2.728879E-2	3.119094E-2	2.177466E-2	1.733596E-2	1.579786E-2	2.356904E-2	3.331354E-2	2.312624E-2	2.995985E-2	2.206164E-2	1.585591E-2	6.937265E-3	3.240359E-2	2.805273E-2	2.039836E-2	3.034164E-2	3.189738E-2	3.666141E-2	2.744305E-2	2.605814E-2	2.297837E-2	2.152950E-2	1.620276E-2	2.672009E-2	1.880576E-2	1.469533E-2	1.751479E-2	2.124021E-2	2.660584E-2	3.084754E-2	3.420457E-2	2.984765E-2	1.844320E-2	1.738017E-2	2.456313E-2	3.048417E-2	1.327132E-2	2.252506E-2	1.390458E-2	2.622903E-2	1.689010E-2	1.422982E-2	1.961604E-2	2.479687E-2	4.113730E-2	1.986469E-2	1.296118E-2	3.081635E-2	2.038505E-2	2.657162E-2	2.223587E-2	2.130446E-2	1.143036E-2	2.353786E-2	2.195235E-2	1.698405E-2	4.300762E-2	2.768417E-2	1.921042E-2	1.504335E-2	1.620911E-2	3.257261E-2	1.826716E-2	2.266840E-2	1.450752E-2	2.060776E-2	2.933439E-2	2.196738E-2	1.252727E-2	1.464209E-2	1.006956E-2	2.179500E-2	2.989432E-2	3.147480E-2	1.673913E-2	1.361186E-2	2.098627E-2	2.454958E-2	1.328505E-2	1.846297E-2	3.126238E-2	2.748616E-2	2.398674E-2	3.090667E-2	2.331036E-2	3.660859E-2	6.794972E-3	1.921269E-2	3.157440E-2	1.977905E-2	3.136534E-2	1.975653E-2	3.023561E-2	3.066414E-2	1.510712E-2	3.041587E-2	3.238638E-2	2.088907E-2	3.884368E-2	1.101852E-2	1.936963E-2	2.538093E-2	1.895208E-2	1.900874E-2	2.495824E-2	2.397452E-2	2.191476E-2
5.334580E+2	2.693673E-2	3.137471E-2	3.773637E-2	1.887841E-2	3.004194E-2	2.284826E-2	3.298111E-2	2.121218E-2	2.253965E-2	3.264886E-2	3.799293E-2	2.328822E-2	3.411588E-2	2.550586E-2	2.809241E-2	1.757823E-2	2.519676E-2	1.932147E-2	3.353370E-2	2.931785E-2	2.358963E-2	1.570084E-2	2.789067E-2	3.131739E-2	1.847165E-2	1.742612E-2	2.222263E-2	2.766537E-2	3.193128E-2	2.695830E-2	3.969426E-2	3.422992E-2	2.981875E-2	2.515514E-2	3.137943E-2	1.902553E-2	3.112038E-2	3.622960E-2	3.092692E-2	2.776359E-2	2.801048E-2	1.845401E-2	4.106489E-2	1.124880E-2	3.273966E-2	3.356415E-2	2.000136E-2	2.770439E-2	1.843489E-2	4.676650E-2	3.866579E-2	2.293941E-2	2.602793E-2	3.492946E-2	2.916869E-2	2.917022E-2	2.084270E-2	1.143847E-2	3.073345E-2	2.607435E-2	3.612141E-2	2.137388E-2	1.430330E-2	2.851297E-2	2.420494E-2	3.419052E-2	2.695553E-2	3.558220E-2	2.003897E-2	2.703499E-2	3.919741E-2	1.719776E-2	3.790053E-2	2.987206E-2	4.049980E-2	4.217852E-2	3.929488E-2	2.989317E-2	3.089113E-2	1.758385E-2	3.482785E-2	1.700122E-2	4.147371E-2	1.719572E-2	2.858982E-2	2.907926E-2	3.891678E-2	2.899099E-2	2.519730E-2	2.329650E-2	2.313434E-2	1.580250E-2	4.045869E-2	3.060125E-2	1.845943E-2	1.405239E-2	3.125776E-2	4.134863E-2	4.294633E-2	1.915938E-2	2.036652E-2	3.508735E-2	1.629526E-2	3.311226E-2	3.365832E-2	2.686630E-2	3.366991E-2	2.251749E-2	2.559621E-2	2.919705E-2	2.471141E-2	4.304800E-2	2.505417E-2	4.536367E-2	2.723989E-2	3.623620E-2	3.050017E-2	3.656259E-2	3.640395E-2	2.797613E-2	2.506590E-2	2.704422E-2	3.155263E-2	2.416848E-2	3.948086E-2	3.525854E-2	2.270743E-2	2.495172E-2	1.678520E-2	3.999065E-2	3.090898E-2	2.795740E-2	1.685720E-2	2.881595E-2	2.434222E-2	1.991172E-2	1.933548E-2	2.494910E-2	2.192803E-2	3.938478E-2	3.956715E-2	3.254377E-2	3.339675E-2	1.958890E-2	2.353450E-2	3.297063E-2	3.666669E-2	2.574466E-2	3.573683E-2	2.587158E-2	2.377192E-2	2.725954E-2	3.285507E-2	2.469719E-2	2.054692E-2	2.556721E-2	3.083644E-2	3.480791E-2	2.930896E-2	2.278850E-2	2.628689E-2	1.582843E-2	3.036586E-2	1.113410E-2	2.260515E-2	2.460874E-2
5.336080E+2	3.492770E-2	2.390011E-2	3.156547E-2	5.319066E-2	4.407634E-2	2.873876E-2	3.571209E-2	3.205169E-2	3.953858E-2	3.077407E-2	3.368963E-2	2.749993E-2	3.539735E-2	4.148576E-2	3.245269E-2	4.379872E-2	3.566157E-2	4.348885E-2	2.656909E-2	3.282158E-2	4.151025E-2	4.391440E-2	3.861788E-2	4.451763E-2	4.657042E-2	3.354932E-2	2.235612E-2	4.524938E-2	4.327385E-2	3.543041E-2	4.160699E-2	3.611158E-2	2.782466E-2	2.901259E-2	4.778303E-2	3.134513E-2	2.942647E-2	4.964188E-2	4.122536E-2	2.680937E-2	3.137716E-2	4.872786E-2	3.554560E-2	3.170921E-2	4.088368E-2	4.330866E-2	3.090307E-2	3.349088E-2	4.278641E-2	5.123110E-2	4.227681E-2	2.249536E-2	3.877614E-2	4.796375E-2	3.352197E-2	4.466666E-2	2.887154E-2	3.695275E-2	4.675597E-2	4.193187E-2	3.515082E-2	5.147795E-2	3.099790E-2	2.788982E-2	4.373655E-2	3.824615E-2	3.192096E-2	4.357482E-2	4.875914E-2	3.821408E-2	3.353965E-2	4.241880E-2	3.330870E-2	2.752818E-2	4.466849E-2	4.224138E-2	4.022217E-2	3.467585E-2	3.224625E-2	2.652862E-2	4.017210E-2	2.041100E-2	3.688309E-2	4.550657E-2	3.549001E-2	4.327536E-2	2.570987E-2	3.462727E-2	3.153142E-2	4.043777E-2	4.026289E-2	3.823759E-2	3.424587E-2	4.361637E-2	2.363820E-2	3.231400E-2	4.622566E-2	4.034680E-2	4.381880E-2	4.823808E-2	3.566875E-2	3.290702E-2	2.450688E-2	3.305612E-2	3.585383E-2	4.016399E-2	4.666339E-2	4.185447E-2	3.735696E-2	4.129496E-2	3.627246E-2	2.936035E-2	3.755260E-2	2.980658E-2	4.230151E-2	3.252023E-2	3.531394E-2	3.970549E-2	2.949389E-2	3.360649E-2	3.446813E-2	3.647500E-2	3.984834E-2	5.295378E-2	4.838888E-2	3.139751E-2	3.289653E-2	2.834455E-2	3.362203E-2	2.690022E-2	4.003482E-2	3.298455E-2	3.676270E-2	2.896217E-2	4.071515E-2	2.359460E-2	4.404282E-2	2.987368E-2	3.467256E-2	3.033032E-2	3.501788E-2	4.617467E-2	4.687951E-2	3.989215E-2	3.629073E-2	3.003236E-2	3.815744E-2	3.942211E-2	6.475813E-2	2.991929E-2	4.592578E-2	3.184693E-2	4.704214E-2	4.231249E-2	3.863540E-2	5.297970E-2	3.799715E-2	2.473010E-2	3.536393E-2	3.421458E-2	4.350557E-2	4.084346E-2	2.891214E-2	1.716261E-2	4.409631E-2	2.999738E-2
5.337580E+2	5.876583E-2	6.626164E-2	6.607503E-2	4.220650E-2	4.005569E-2	3.611933E-2	6.377341E-2	4.114698E-2	4.296620E-2	3.233182E-2	4.615540E-2	4.400502E-2	5.029385E-2	4.750054E-2	2.844405E-2	2.550721E-2	5.167984E-2	5.778847E-2	4.944585E-2	4.421646E-2	4.941571E-2	3.366611E-2	4.763637E-2	4.245169E-2	5.249783E-2	4.174945E-2	5.009317E-2	4.923284E-2	5.402787E-2	3.449944E-2	5.696856E-2	3.844356E-2	6.912738E-2	5.272802E-2	4.254565E-2	4.249524E-2	4.675681E-2	4.741211E-2	3.542056E-2	5.409127E-2	3.734543E-2	4.222214E-2	4.803707E-2	3.505709E-2	6.565157E-2	3.954388E-2	5.888379E-2	4.699188E-2	4.035118E-2	5.448914E-2	4.419173E-2	4.255221E-2	3.958431E-2	4.639907E-2	6.074371E-2	4.706100E-2	3.956832E-2	5.474201E-2	4.762568E-2	4.598803E-2	4.229473E-2	5.000336E-2	4.829470E-2	3.964623E-2	3.989686E-2	5.861797E-2	4.772014E-2	5.489104E-2	5.349067E-2	5.925077E-2	3.957145E-2	3.261108E-2	4.915474E-2	4.956987E-2	4.351525E-2	3.678785E-2	4.647742E-2	3.483228E-2	4.058613E-2	5.958578E-2	6.143407E-2	3.209124E-2	4.864530E-2	4.509589E-2	3.377189E-2	5.619402E-2	4.052058E-2	3.138824E-2	5.272985E-2	4.975640E-2	5.300415E-2	4.743143E-2	4.398798E-2	4.113925E-2	4.668020E-2	4.902263E-2	6.081389E-2	4.543766E-2	6.136313E-2	2.979626E-2	4.269839E-2	3.840015E-2	3.647827E-2	6.054765E-2	5.766165E-2	4.363010E-2	5.023587E-2	4.149391E-2	4.533300E-2	5.177361E-2	4.845895E-2	4.640356E-2	3.839803E-2	4.709201E-2	5.934243E-2	4.241579E-2	5.351457E-2	4.350640E-2	5.638836E-2	4.295532E-2	4.738643E-2	4.346526E-2	4.445537E-2	3.818962E-2	3.180636E-2	5.063204E-2	5.083119E-2	3.823137E-2	3.177967E-2	5.030934E-2	4.470425E-2	4.569053E-2	4.003012E-2	4.826311E-2	5.401542E-2	5.565298E-2	6.156240E-2	3.953980E-2	4.867430E-2	4.172395E-2	5.550744E-2	5.704589E-2	4.301872E-2	3.758572E-2	4.063845E-2	3.199459E-2	4.736247E-2	5.544281E-2	4.033687E-2	5.426579E-2	3.894728E-2	5.343460E-2	4.515330E-2	4.324109E-2	2.944561E-2	4.827170E-2	4.801576E-2	4.906797E-2	4.258583E-2	5.029187E-2	4.445665E-2	4.297469E-2	3.069071E-2	4.531515E-2	4.886985E-2	5.872612E-2
5.339140E+2	4.971444E-2	6.713353E-2	6.133248E-2	5.353536E-2	5.694593E-2	7.469022E-2	6.396252E-2	5.410937E-2	7.691694E-2	5.966324E-2	6.759278E-2	6.288772E-2	7.372509E-2	6.411884E-2	5.918193E-2	4.257872E-2	4.764376E-2	7.271614E-2	4.791646E-2	6.014687E-2	6.625887E-2	5.768388E-2	6.081243E-2	7.052410E-2	7.715114E-2	6.673174E-2	6.995492E-2	6.627568E-2	7.296353E-2	5.861074E-2	6.828187E-2	7.525015E-2	6.932266E-2	7.341796E-2	5.118158E-2	4.879574E-2	6.660157E-2	6.392934E-2	7.453551E-2	7.205102E-2	4.462122E-2	5.267028E-2	6.160357E-2	5.447074E-2	5.098233E-2	7.028073E-2	6.137966E-2	5.746588E-2	8.191264E-2	6.945117E-2	6.398069E-2	5.271229E-2	6.695472E-2	5.069874E-2	4.951715E-2	4.836012E-2	6.879887E-2	6.604036E-2	7.183161E-2	7.404063E-2	4.946098E-2	5.910148E-2	5.064480E-2	5.807444E-2	6.414918E-2	6.338094E-2	5.514473E-2	7.988726E-2	6.409410E-2	6.438036E-2	7.789342E-2	5.447544E-2	8.284794E-2	4.356425E-2	6.440129E-2	6.956494E-2	4.605483E-2	7.544547E-2	7.588119E-2	5.443076E-2	5.172083E-2	6.502513E-2	6.167574E-2	6.572273E-2	8.297006E-2	6.022209E-2	6.245208E-2	6.583088E-2	8.916429E-2	5.649122E-2	5.509254E-2	6.060641E-2	6.253830E-2	6.013680E-2	4.967694E-2	5.094169E-2	7.037069E-2	6.455495E-2	5.065662E-2	6.805532E-2	6.527016E-2	7.118102E-2	6.277675E-2	6.812979E-2	7.160010E-2	4.908432E-2	7.954153E-2	6.070537E-2	8.294646E-2	5.712932E-2	6.121444E-2	7.100205E-2	8.798546E-2	4.856109E-2	6.197790E-2	6.692824E-2	6.665374E-2	5.981916E-2	6.968903E-2	6.948777E-2	7.167588E-2	6.406842E-2	6.232847E-2	6.538309E-2	7.640100E-2	5.500269E-2	6.293487E-2	7.608718E-2	6.013157E-2	7.791365E-2	5.080472E-2	8.044890E-2	6.114241E-2	8.594417E-2	6.748086E-2	5.184652E-2	7.649817E-2	6.636657E-2	6.681696E-2	6.263670E-2	6.653436E-2	4.940138E-2	6.531219E-2	5.850873E-2	6.475031E-2	4.886578E-2	5.471745E-2	4.989905E-2	6.157169E-2	6.870882E-2	8.523356E-2	7.148197E-2	5.145384E-2	5.656496E-2	7.643696E-2	6.945830E-2	5.735151E-2	5.961471E-2	7.165557E-2	7.188157E-2	8.129157E-2	7.476081E-2	7.994862E-2	7.243475E-2	7.208527E-2	4.597106E-2
5.340640E+2	7.956837E-2	8.886285E-2	8.472723E-2	8.876034E-2	1.046532E-1	9.159322E-2	1.006205E-1	7.387088E-2	8.628040E-2	8.687490E-2	9.811434E-2	6.545123E-2	1.001123E-1	9.515139E-2	8.477354E-2	8.267814E-2	9.844019E-2	8.650264E-2	1.001589E-1	9.733288E-2	8.680053E-2	1.067345E-1	9.119513E-2	8.388840E-2	8.387062E-2	8.931088E-2	1.175576E-1	8.166313E-2	9.755158E-2	6.943714E-2	9.554043E-2	7.658077E-2	9.163091E-2	9.356371E-2	8.171394E-2	8.150320E-2	9.698961E-2	9.687830E-2	8.318120E-2	9.619352E-2	9.207717E-2	9.139557E-2	1.104969E-1	7.274850E-2	1.022577E-1	8.186725E-2	9.066611E-2	7.776478E-2	1.038884E-1	8.754804E-2	9.310395E-2	9.641293E-2	9.317517E-2	1.074121E-1	8.169770E-2	8.714379E-2	9.416510E-2	9.321041E-2	1.016087E-1	9.767304E-2	8.173569E-2	9.281939E-2	7.020842E-2	8.822519E-2	8.982256E-2	9.958357E-2	8.856014E-2	7.889696E-2	8.191444E-2	9.047712E-2	7.638665E-2	8.646047E-2	8.581614E-2	7.826055E-2	8.737925E-2	8.864616E-2	9.080179E-2	9.248193E-2	9.020502E-2	8.931748E-2	9.229122E-2	8.391960E-2	8.088995E-2	9.186380E-2	9.330380E-2	9.689032E-2	8.857905E-2	9.640500E-2	7.291638E-2	8.688984E-2	1.045279E-1	1.017839E-1	8.710518E-2	1.007528E-1	8.572755E-2	8.933613E-2	8.197659E-2	8.558354E-2	9.264873E-2	7.734912E-2	9.278867E-2	8.924289E-2	9.104481E-2	9.275891E-2	1.209934E-1	1.040989E-1	8.588785E-2	7.633959E-2	9.724907E-2	9.968139E-2	9.203594E-2	8.574596E-2	9.309939E-2	6.777447E-2	9.102784E-2	8.757092E-2	8.575147E-2	8.755242E-2	9.847029E-2	9.439338E-2	1.008230E-1	8.521423E-2	9.031464E-2	8.402769E-2	1.032652E-1	9.243399E-2	8.396977E-2	7.657243E-2	7.727169E-2	8.882483E-2	1.045570E-1	8.306686E-2	7.950304E-2	8.294384E-2	9.033676E-2	9.061209E-2	9.540772E-2	7.752219E-2	8.894308E-2	9.721123E-2	8.751543E-2	7.616866E-2	9.530261E-2	9.084577E-2	8.161684E-2	8.564809E-2	9.392376E-2	1.082058E-1	9.417574E-2	9.086166E-2	9.417409E-2	9.286410E-2	1.022767E-1	1.014957E-1	9.336991E-2	9.629707E-2	8.510096E-2	9.446919E-2	9.084924E-2	8.968429E-2	9.217618E-2	8.217527E-2	9.474859E-2	8.493169E-2	5.405051E-2	8.273496E-2
5.342090E+2	1.471801E-1	1.440644E-1	1.187892E-1	1.279709E-1	1.098156E-1	1.202141E-1	1.452241E-1	1.309107E-1	1.530516E-1	1.431380E-1	1.461472E-1	1.173163E-1	1.556201E-1	1.369390E-1	1.316280E-1	1.398978E-1	1.190351E-1	1.186444E-1	1.282173E-1	1.291517E-1	1.461614E-1	1.521080E-1	1.181521E-1	1.327319E-1	1.317854E-1	1.378849E-1	1.303351E-1	1.400568E-1	1.423474E-1	1.272357E-1	1.527095E-1	1.292675E-1	1.489006E-1	1.175090E-1	1.371031E-1	1.387933E-1	1.410543E-1	1.384519E-1	1.430058E-1	1.321377E-1	1.215376E-1	1.398871E-1	1.230098E-1	1.436350E-1	1.433817E-1	1.463427E-1	1.457496E-1	1.239012E-1	1.430828E-1	1.316430E-1	1.698018E-1	1.338152E-1	1.378977E-1	1.413428E-1	1.327510E-1	1.404472E-1	1.580885E-1	1.334219E-1	1.303051E-1	1.337146E-1	1.304972E-1	1.501698E-1	1.302644E-1	1.440271E-1	1.437944E-1	1.378611E-1	1.408577E-1	1.426181E-1	1.422510E-1	1.277795E-1	1.302447E-1	1.381224E-1	1.485137E-1	1.294598E-1	1.459662E-1	1.405392E-1	1.277734E-1	1.542556E-1	1.357346E-1	1.352103E-1	1.535699E-1	1.273967E-1	1.413123E-1	1.356087E-1	1.434264E-1	1.343316E-1	1.242540E-1	1.288052E-1	1.485442E-1	1.292373E-1	1.484496E-1	1.418163E-1	1.355585E-1	1.275083E-1	1.202559E-1	1.576015E-1	1.251543E-1	1.392023E-1	1.348135E-1	1.313981E-1	1.416657E-1	1.329620E-1	1.219048E-1	1.532973E-1	1.259005E-1	1.308552E-1	1.500223E-1	1.513335E-1	1.274308E-1	1.498360E-1	1.394212E-1	1.467596E-1	1.226169E-1	1.474297E-1	1.352569E-1	1.249315E-1	1.366956E-1	1.567479E-1	1.244021E-1	1.396887E-1	1.345849E-1	1.281560E-1	1.366699E-1	1.226115E-1	1.286380E-1	1.398703E-1	1.551313E-1	1.428999E-1	1.363790E-1	1.191746E-1	1.223270E-1	1.346392E-1	1.316494E-1	1.205255E-1	1.422316E-1	1.411964E-1	1.306935E-1	1.387433E-1	1.271041E-1	1.283071E-1	1.263816E-1	1.510716E-1	1.521813E-1	1.310193E-1	1.589294E-1	1.395396E-1	1.357075E-1	1.388476E-1	1.644852E-1	1.205915E-1	1.563932E-1	1.354113E-1	1.233027E-1	1.282362E-1	1.421661E-1	1.227843E-1	1.548442E-1	1.465911E-1	1.599456E-1	1.556083E-1	1.411385E-1	1.315016E-1	1.363908E-1	1.284149E-1	1.011332E-1	1.222952E-1
5.343550E+2	2.077605E-1	2.322191E-1	2.037762E-1	2.002037E-1	2.316577E-1	2.218113E-1	2.239369E-1	2.030296E-1	2.151373E-1	2.266798E-1	2.067369E-1	2.081608E-1	2.142455E-1	2.348760E-1	2.200371E-1	2.094217E-1	2.036258E-1	2.195970E-1	2.131186E-1	1.985773E-1	2.224359E-1	2.095904E-1	2.021976E-1	2.092044E-1	2.502435E-1	2.163903E-1	2.235768E-1	2.266252E-1	2.377711E-1	2.300580E-1	1.959923E-1	2.228933E-1	2.328306E-1	2.015386E-1	2.109450E-1	2.042800E-1	2.038173E-1	2.331269E-1	2.295659E-1	2.245661E-1	2.187065E-1	2.266064E-1	2.133461E-1	2.274727E-1	2.082854E-1	2.002485E-1	2.016229E-1	2.203736E-1	2.002454E-1	2.272522E-1	1.951871E-1	2.286159E-1	2.196684E-1	2.215025E-1	2.167128E-1	2.100121E-1	2.169155E-1	2.145661E-1	2.134545E-1	2.383564E-1	2.233595E-1	2.077478E-1	2.234845E-1	2.395402E-1	2.026553E-1	2.189905E-1	1.860879E-1	2.315262E-1	1.838416E-1	2.264357E-1	2.303651E-1	2.353492E-1	2.134909E-1	2.098689E-1	2.249199E-1	2.411860E-1	2.347396E-1	2.342911E-1	2.191008E-1	2.198969E-1	2.655327E-1	2.110920E-1	2.376475E-1	2.261041E-1	2.000770E-1	2.252165E-1	2.239363E-1	2.061656E-1	2.290947E-1	2.284019E-1	2.286690E-1	2.335484E-1	2.253203E-1	1.965646E-1	2.218272E-1	2.432968E-1	2.134877E-1	2.397211E-1	2.236145E-1	2.109747E-1	2.345735E-1	2.001064E-1	2.229713E-1	2.328889E-1	2.400498E-1	2.041275E-1	2.382211E-1	2.006311E-1	2.211802E-1	2.289325E-1	2.100427E-1	1.967386E-1	2.248101E-1	2.070142E-1	2.110148E-1	2.181652E-1	2.562003E-1	2.136094E-1	2.256505E-1	2.086665E-1	2.324313E-1	2.209120E-1	2.300316E-1	1.955490E-1	2.479873E-1	2.254284E-1	2.385418E-1	2.221790E-1	2.126497E-1	2.206439E-1	2.068671E-1	2.225778E-1	2.077996E-1	2.040525E-1	1.848479E-1	2.266210E-1	2.337214E-1	2.194046E-1	2.234268E-1	2.445674E-1	2.234126E-1	2.166631E-1	2.403007E-1	2.040649E-1	2.169633E-1	2.252753E-1	2.195230E-1	2.135762E-1	2.225925E-1	2.080218E-1	2.161489E-1	2.216378E-1	2.291503E-1	2.138189E-1	2.330973E-1	2.394683E-1	2.048025E-1	1.999835E-1	1.900775E-1	2.319780E-1	2.319784E-1	2.176312E-1	2.201229E-1	2.199923E-1	2.515811E-1	2.226000E-1
5.345050E+2	3.940346E-1	3.941708E-1	3.352421E-1	3.900345E-1	3.644137E-1	3.345687E-1	4.018235E-1	3.596319E-1	3.830486E-1	3.729778E-1	3.575549E-1	3.731937E-1	3.779402E-1	3.825987E-1	3.818636E-1	3.790476E-1	3.698982E-1	3.746427E-1	4.122390E-1	3.990551E-1	3.925366E-1	3.657071E-1	3.963608E-1	3.825758E-1	3.848988E-1	3.924724E-1	4.002683E-1	3.738471E-1	3.986719E-1	3.616374E-1	3.659887E-1	3.975176E-1	4.014527E-1	3.883219E-1	3.730372E-1	3.460256E-1	3.879034E-1	3.497462E-1	3.825067E-1	3.612009E-1	3.941041E-1	4.035084E-1	3.652678E-1	3.694669E-1	4.305292E-1	4.093035E-1	3.978263E-1	3.511880E-1	3.432912E-1	3.910866E-1	3.929930E-1	4.044784E-1	3.843786E-1	3.715056E-1	3.771228E-1	3.972064E-1	3.741405E-1	4.003194E-1	3.943431E-1	3.822259E-1	4.102150E-1	3.719922E-1	3.920383E-1	4.132311E-1	3.839531E-1	4.092191E-1	4.017854E-1	3.741521E-1	3.851495E-1	3.834112E-1	3.743596E-1	4.045330E-1	3.795916E-1	3.735604E-1	4.000651E-1	3.538966E-1	3.755371E-1	3.819248E-1	3.656031E-1	3.875447E-1	3.775215E-1	3.969954E-1	3.889042E-1	3.560152E-1	3.890258E-1	3.997192E-1	3.859338E-1	3.900946E-1	3.818945E-1	4.015175E-1	4.034249E-1	3.958923E-1	4.058972E-1	4.011148E-1	3.996466E-1	3.812501E-1	3.730919E-1	4.197636E-1	3.919608E-1	3.705169E-1	3.793535E-1	3.920943E-1	3.754832E-1	3.878508E-1	3.786105E-1	4.067871E-1	3.986530E-1	3.899270E-1	3.832479E-1	3.802752E-1	3.785872E-1	4.129013E-1	3.814771E-1	3.896026E-1	3.629049E-1	3.698007E-1	3.791417E-1	3.877139E-1	3.981607E-1	3.869863E-1	3.858115E-1	3.930552E-1	4.019745E-1	3.851142E-1	4.025683E-1	3.870283E-1	4.261079E-1	4.099926E-1	4.022214E-1	3.757908E-1	3.893526E-1	3.696298E-1	3.949396E-1	3.663257E-1	3.523646E-1	3.813301E-1	3.924644E-1	3.975692E-1	4.098551E-1	3.943927E-1	4.016484E-1	3.720287E-1	4.233903E-1	3.939275E-1	3.916912E-1	3.729926E-1	3.986074E-1	3.847708E-1	4.145735E-1	4.134428E-1	3.986596E-1	3.999084E-1	3.860460E-1	3.889277E-1	3.862889E-1	3.519723E-1	4.148023E-1	3.731187E-1	3.775549E-1	3.879508E-1	3.812952E-1	3.798359E-1	3.719385E-1	4.203151E-1	4.697336E-1	4.303203E-1
5.346870E+2	7.130710E-1	6.495032E-1	6.504415E-1	6.795060E-1	7.015754E-1	6.604181E-1	7.087129E-1	6.923965E-1	6.891609E-1	6.883764E-1	6.883672E-1	7.184656E-1	6.793431E-1	6.890430E-1	7.091119E-1	6.679080E-1	6.777295E-1	6.641304E-1	6.906422E-1	6.703465E-1	6.908637E-1	6.680814E-1	6.311174E-1	6.721884E-1	7.043600E-1	6.807379E-1	6.650139E-1	6.610179E-1	7.037799E-1	6.900809E-1	6.569503E-1	6.763585E-1	7.083158E-1	7.104908E-1	7.055207E-1	6.469726E-1	6.486459E-1	6.652535E-1	6.734492E-1	6.833633E-1	6.970661E-1	6.709464E-1	6.634348E-1	6.831952E-1	6.974552E-1	6.523576E-1	7.057438E-1	6.611263E-1	7.014926E-1	6.630261E-1	6.568045E-1	6.887843E-1	7.218891E-1	7.333606E-1	6.450948E-1	6.733977E-1	6.836972E-1	6.987498E-1	6.966673E-1	7.077405E-1	7.050904E-1	6.888484E-1	6.734893E-1	7.121492E-1	7.253909E-1	6.779172E-1	6.839287E-1	7.012415E-1	6.725063E-1	7.196848E-1	6.651448E-1	6.911764E-1	6.592398E-1	7.056968E-1	6.705961E-1	7.151013E-1	6.534647E-1	6.355104E-1	6.620186E-1	6.655617E-1	7.037205E-1	7.351854E-1	7.005586E-1	6.198156E-1	6.984589E-1	6.796662E-1	6.724335E-1	6.634202E-1	7.045767E-1	6.523001E-1	6.822557E-1	6.587089E-1	6.910768E-1	6.954017E-1	6.756710E-1	6.648847E-1	6.880853E-1	6.976629E-1	6.786076E-1	7.123286E-1	6.778252E-1	6.623509E-1	6.884605E-1	6.839316E-1	7.147842E-1	6.563504E-1	7.089910E-1	6.772161E-1	6.889625E-1	6.852952E-1	6.560704E-1	7.222068E-1	6.711888E-1	6.541542E-1	6.767436E-1	7.344269E-1	7.120495E-1	6.615742E-1	7.046043E-1	6.713719E-1	7.096302E-1	7.214659E-1	7.017647E-1	7.198779E-1	7.204813E-1	6.542559E-1	7.278688E-1	6.669001E-1	6.877614E-1	6.653989E-1	6.837829E-1	7.397203E-1	6.859983E-1	7.009188E-1	6.371167E-1	6.818338E-1	6.872230E-1	7.273235E-1	6.505499E-1	6.966642E-1	6.801494E-1	6.835498E-1	6.830087E-1	6.897588E-1	6.950668E-1	6.836535E-1	6.439378E-1	7.046936E-1	6.861174E-1	6.902729E-1	6.692547E-1	6.813147E-1	6.760663E-1	6.360524E-1	6.510655E-1	7.322682E-1	6.670590E-1	6.779068E-1	6.425893E-1	6.569832E-1	7.014273E-1	6.873839E-1	6.947867E-1	6.458895E-1	7.038413E-1	7.188071E-1
5.348070E+2	9.724298E-1	9.878138E-1	9.767725E-1	9.866530E-1	9.953445E-1	1.012362E+0	9.923045E-1	9.514911E-1	1.034053E+0	9.795106E-1	9.788031E-1	9.629997E-1	9.892350E-1	9.955018E-1	1.023179E+0	9.776953E-1	9.867781E-1	1.007269E+0	9.715340E-1	9.763122E-1	1.023931E+0	1.016877E+0	1.021764E+0	9.923075E-1	1.025737E+0	9.534047E-1	1.004052E+0	9.749866E-1	1.013411E+0	9.956713E-1	1.000281E+0	9.879476E-1	1.020399E+0	1.000671E+0	1.015784E+0	9.867604E-1	1.017165E+0	9.687083E-1	1.020905E+0	9.901662E-1	9.547381E-1	1.012558E+0	1.002873E+0	1.002582E+0	1.054008E+0	9.768439E-1	9.995503E-1	9.753200E-1	1.045825E+0	9.891471E-1	1.020699E+0	1.009103E+0	1.009912E+0	9.939423E-1	9.956036E-1	9.818036E-1	1.008114E+0	9.364662E-1	1.003535E+0	1.013909E+0	9.777060E-1	1.001806E+0	9.358457E-1	1.010555E+0	1.028908E+0	1.030692E+0	1.019613E+0	9.930002E-1	1.034359E+0	1.005461E+0	9.986583E-1	1.006066E+0	9.710428E-1	9.716578E-1	9.886798E-1	9.555712E-1	1.003502E+0	9.804072E-1	1.009564E+0	9.870356E-1	1.015950E+0	9.921475E-1	9.842761E-1	1.001005E+0	1.004536E+0	1.011744E+0	1.013710E+0	9.915683E-1	9.994262E-1	1.023267E+0	9.977397E-1	9.908453E-1	9.725229E-1	9.878801E-1	9.801852E-1	9.982646E-1	1.047552E+0	9.798949E-1	1.002135E+0	9.742744E-1	1.004202E+0	1.005929E+0	1.012793E+0	9.962289E-1	9.981274E-1	9.455606E-1	9.855512E-1	9.987866E-1	1.005376E+0	9.452025E-1	1.013058E+0	1.002970E+0	1.006570E+0	1.022041E+0	9.970340E-1	9.893352E-1	1.020632E+0	9.695762E-1	9.922919E-1	1.048826E+0	9.708941E-1	9.976110E-1	1.006325E+0	1.009994E+0	1.035460E+0	1.010004E+0	9.892197E-1	9.700363E-1	1.039714E+0	9.604950E-1	1.024201E+0	9.738114E-1	1.019112E+0	1.050935E+0	9.666371E-1	9.765288E-1	9.775315E-1	9.655936E-1	1.016808E+0	1.001982E+0	9.603963E-1	9.619748E-1	9.860057E-1	9.388694E-1	9.716001E-1	1.019958E+0	9.745016E-1	1.006551E+0	1.042111E+0	9.250774E-1	1.030761E+0	9.877812E-1	9.710576E-1	1.013484E+0	9.871121E-1	1.007110E+0	9.991586E-1	9.955594E-1	1.001651E+0	9.700323E-1	1.031593E+0	9.445575E-1	9.757214E-1	9.773842E-1	1.005365E+0	9.421522E-1
5.349630E+2	1.521685E+0	1.447517E+0	1.437271E+0	1.417499E+0	1.475416E+0	1.429446E+0	1.443691E+0	1.457593E+0	1.430405E+0	1.426745E+0	1.472144E+0	1.460699E+0	1.414852E+0	1.433543E+0	1.449608E+0	1.430718E+0	1.433403E+0	1.438123E+0	1.431157E+0	1.408474E+0	1.452429E+0	1.414198E+0	1.396015E+0	1.492635E+0	1.487759E+0	1.453779E+0	1.536710E+0	1.392319E+0	1.455269E+0	1.414053E+0	1.435663E+0	1.460696E+0	1.545942E+0	1.448905E+0	1.443854E+0	1.383101E+0	1.460997E+0	1.440927E+0	1.377897E+0	1.384727E+0	1.404685E+0	1.433885E+0	1.423280E+0	1.398082E+0	1.438025E+0	1.399897E+0	1.415286E+0	1.401567E+0	1.449945E+0	1.459047E+0	1.471480E+0	1.424593E+0	1.440405E+0	1.405223E+0	1.499680E+0	1.462417E+0	1.448405E+0	1.378397E+0	1.335215E+0	1.428130E+0	1.461428E+0	1.370923E+0	1.419705E+0	1.398898E+0	1.410861E+0	1.441553E+0	1.435829E+0	1.443110E+0	1.409321E+0	1.403950E+0	1.449861E+0	1.446225E+0	1.420961E+0	1.351218E+0	1.395197E+0	1.440834E+0	1.394331E+0	1.379928E+0	1.408886E+0	1.422538E+0	1.454110E+0	1.363772E+0	1.434272E+0	1.443638E+0	1.483178E+0	1.355261E+0	1.428098E+0	1.434682E+0	1.472472E+0	1.365094E+0	1.394367E+0	1.469775E+0	1.434181E+0	1.390910E+0	1.434267E+0	1.398886E+0	1.398980E+0	1.400940E+0	1.464425E+0	1.424731E+0	1.401965E+0	1.396158E+0	1.505200E+0	1.375470E+0	1.449689E+0	1.411019E+0	1.389272E+0	1.425942E+0	1.406195E+0	1.353053E+0	1.395318E+0	1.421600E+0	1.375250E+0	1.434368E+0	1.367833E+0	1.472783E+0	1.430607E+0	1.426074E+0	1.402714E+0	1.461498E+0	1.392900E+0	1.383764E+0	1.439622E+0	1.422512E+0	1.452125E+0	1.395087E+0	1.358239E+0	1.371017E+0	1.451716E+0	1.390544E+0	1.446897E+0	1.369434E+0	1.396935E+0	1.465893E+0	1.394661E+0	1.415896E+0	1.405377E+0	1.374525E+0	1.397695E+0	1.445074E+0	1.461894E+0	1.402737E+0	1.470546E+0	1.364477E+0	1.473052E+0	1.399859E+0	1.361446E+0	1.406135E+0	1.409001E+0	1.417404E+0	1.415577E+0	1.404255E+0	1.450267E+0	1.441293E+0	1.438992E+0	1.426534E+0	1.408914E+0	1.416541E+0	1.366678E+0	1.384568E+0	1.440506E+0	1.420540E+0	1.379729E+0	1.381213E+0	1.468072E+0	1.410314E+0
5.351090E+2	1.851892E+0	1.794769E+0	1.832075E+0	1.759681E+0	1.772727E+0	1.878788E+0	1.718534E+0	1.823981E+0	1.713297E+0	1.865158E+0	1.751115E+0	1.783936E+0	1.829385E+0	1.873800E+0	1.787254E+0	1.744435E+0	1.852016E+0	1.817339E+0	1.839965E+0	1.671848E+0	1.778714E+0	1.851152E+0	1.831090E+0	1.797334E+0	1.836915E+0	1.766008E+0	1.858168E+0	1.709119E+0	1.819003E+0	1.788250E+0	1.836071E+0	1.759242E+0	1.817234E+0	1.818530E+0	1.822103E+0	1.714021E+0	1.794178E+0	1.811425E+0	1.793234E+0	1.749450E+0	1.769004E+0	1.813971E+0	1.780236E+0	1.773653E+0	1.744182E+0	1.807711E+0	1.767362E+0	1.690969E+0	1.746565E+0	1.764895E+0	1.721781E+0	1.762766E+0	1.789306E+0	1.812355E+0	1.777705E+0	1.753701E+0	1.815318E+0	1.844956E+0	1.758232E+0	1.749950E+0	1.830161E+0	1.702247E+0	1.742090E+0	1.845030E+0	1.791927E+0	1.788884E+0	1.819877E+0	1.792504E+0	1.795947E+0	1.723412E+0	1.797150E+0	1.794082E+0	1.787742E+0	1.698141E+0	1.706658E+0	1.801353E+0	1.701339E+0	1.736880E+0	1.841977E+0	1.754423E+0	1.795236E+0	1.789056E+0	1.765953E+0	1.687835E+0	1.790598E+0	1.726479E+0	1.757379E+0	1.751702E+0	1.792323E+0	1.796034E+0	1.785899E+0	1.754742E+0	1.741600E+0	1.727316E+0	1.794505E+0	1.656322E+0	1.810629E+0	1.772767E+0	1.746919E+0	1.768720E+0	1.769497E+0	1.796029E+0	1.806651E+0	1.756652E+0	1.759124E+0	1.657990E+0	1.729340E+0	1.737719E+0	1.821519E+0	1.754852E+0	1.775748E+0	1.782268E+0	1.837693E+0	1.727574E+0	1.777847E+0	1.752619E+0	1.769325E+0	1.739994E+0	1.765719E+0	1.791430E+0	1.794385E+0	1.767635E+0	1.771199E+0	1.758749E+0	1.809957E+0	1.707339E+0	1.763392E+0	1.754783E+0	1.803164E+0	1.727805E+0	1.723498E+0	1.794168E+0	1.776117E+0	1.730954E+0	1.695856E+0	1.684732E+0	1.769453E+0	1.760803E+0	1.695907E+0	1.760756E+0	1.781023E+0	1.773554E+0	1.739950E+0	1.717207E+0	1.735466E+0	1.775327E+0	1.775688E+0	1.730152E+0	1.772727E+0	1.801580E+0	1.754902E+0	1.730427E+0	1.796755E+0	1.789165E+0	1.716998E+0	1.797943E+0	1.741971E+0	1.708930E+0	1.740987E+0	1.702367E+0	1.862976E+0	1.685926E+0	1.756613E+0	1.740024E+0	1.835965E+0	1.737940E+0
5.352650E+2	1.998382E+0	2.051631E+0	2.046468E+0	2.055372E+0	1.978006E+0	2.040579E+0	2.090407E+0	2.007286E+0	1.977819E+0	2.078889E+0	1.961680E+0	2.014418E+0	2.004602E+0	1.977260E+0	2.036834E+0	1.967352E+0	2.009958E+0	2.000742E+0	2.032605E+0	1.966948E+0	1.958527E+0	1.978941E+0	1.991496E+0	1.973389E+0	2.005660E+0	2.038516E+0	2.040848E+0	2.033207E+0	2.018178E+0	1.966479E+0	2.037603E+0	2.007121E+0	2.056197E+0	2.016874E+0	2.074510E+0	1.977576E+0	2.026310E+0	2.025562E+0	1.992449E+0	2.033258E+0	2.002664E+0	2.080118E+0	2.039450E+0	2.029203E+0	1.932498E+0	1.952060E+0	2.062970E+0	1.937789E+0	2.054573E+0	1.992228E+0	2.047925E+0	2.003587E+0	2.085941E+0	1.986592E+0	2.066886E+0	1.974189E+0	1.962940E+0	1.949253E+0	1.940733E+0	2.102745E+0	2.004670E+0	1.943541E+0	2.029314E+0	2.048760E+0	2.024787E+0	2.023319E+0	2.014220E+0	1.956295E+0	1.971734E+0	1.953666E+0	2.010659E+0	1.976855E+0	1.985200E+0	1.947339E+0	2.036683E+0	1.960324E+0	1.976428E+0	1.898347E+0	1.976548E+0	1.978187E+0	1.951069E+0	1.972545E+0	1.962181E+0	1.952230E+0	1.958678E+0	1.990836E+0	1.997298E+0	1.964742E+0	1.995671E+0	1.983124E+0	1.927164E+0	1.991404E+0	1.957979E+0	1.940154E+0	1.963940E+0	1.927743E+0	2.076683E+0	1.964797E+0	1.983997E+0	1.965048E+0	1.971198E+0	1.973584E+0	2.009589E+0	1.985236E+0	1.960080E+0	2.010543E+0	1.995205E+0	1.950537E+0	1.961787E+0	2.036378E+0	1.925525E+0	1.893422E+0	2.037302E+0	1.969047E+0	1.970189E+0	1.934883E+0	2.028697E+0	1.958521E+0	1.948112E+0	1.991676E+0	2.001769E+0	2.031544E+0	1.923706E+0	1.913961E+0	2.037768E+0	1.952437E+0	1.995802E+0	2.043769E+0	1.976305E+0	1.957456E+0	1.969905E+0	1.927183E+0	1.943606E+0	1.984285E+0	1.946177E+0	1.933804E+0	2.025190E+0	2.042090E+0	1.983114E+0	1.978596E+0	1.982292E+0	1.878039E+0	1.940865E+0	1.923748E+0	1.989913E+0	1.983114E+0	1.914328E+0	1.944610E+0	1.949802E+0	2.014443E+0	1.995460E+0	1.959083E+0	1.959519E+0	1.976667E+0	1.964068E+0	1.965685E+0	1.973733E+0	1.867733E+0	1.895862E+0	1.879083E+0	1.987998E+0	1.939685E+0	1.921521E+0	1.878402E+0	1.876939E+0	1.878871E+0
5.354170E+2	2.035226E+0	1.987629E+0	2.044972E+0	2.061400E+0	2.024050E+0	2.006476E+0	2.040482E+0	2.076900E+0	1.979963E+0	2.022376E+0	1.990181E+0	2.026973E+0	2.048945E+0	1.996579E+0	2.087775E+0	1.994397E+0	2.013545E+0	1.996765E+0	2.033475E+0	1.920432E+0	1.998695E+0	2.008289E+0	2.025009E+0	2.039255E+0	2.074645E+0	2.048210E+0	2.098117E+0	1.966333E+0	2.095494E+0	1.997895E+0	2.022184E+0	1.974683E+0	2.095499E+0	2.033995E+0	2.022296E+0	1.968602E+0	2.021704E+0	2.036961E+0	2.035667E+0	1.985400E+0	2.008744E+0	2.009859E+0	1.967590E+0	2.005426E+0	1.995486E+0	2.020842E+0	2.078726E+0	1.959309E+0	2.007495E+0	1.970078E+0	2.043410E+0	1.994522E+0	2.025033E+0	2.071272E+0	2.060545E+0	1.948194E+0	2.032639E+0	1.973534E+0	1.975286E+0	2.037166E+0	1.996627E+0	1.948104E+0	1.932497E+0	2.017544E+0	2.006585E+0	2.029707E+0	2.045301E+0	1.920139E+0	2.012100E+0	2.024718E+0	2.009489E+0	1.971890E+0	1.857388E+0	2.000766E+0	2.120324E+0	1.962056E+0	2.011598E+0	1.988602E+0	2.012311E+0	2.008993E+0	2.036899E+0	2.066153E+0	1.987897E+0	1.904938E+0	2.048081E+0	2.058621E+0	2.032683E+0	2.027546E+0	1.969584E+0	1.893268E+0	1.993250E+0	1.953475E+0	2.014976E+0	1.917577E+0	1.974796E+0	1.906090E+0	2.078441E+0	1.934793E+0	2.046167E+0	2.022460E+0	1.941885E+0	1.968124E+0	2.010429E+0	1.951858E+0	1.912580E+0	2.066210E+0	1.983906E+0	1.940560E+0	1.995423E+0	1.989598E+0	1.917841E+0	1.942154E+0	1.987142E+0	1.978158E+0	1.962642E+0	2.014962E+0	1.993877E+0	1.977473E+0	1.975550E+0	1.986567E+0	1.911516E+0	2.011785E+0	1.940184E+0	1.983309E+0	1.963203E+0	1.952619E+0	1.960712E+0	2.037097E+0	1.989619E+0	1.969982E+0	2.003618E+0	1.955038E+0	1.998342E+0	1.951884E+0	1.913512E+0	1.998664E+0	1.970303E+0	2.019043E+0	1.925349E+0	1.980160E+0	2.011119E+0	1.934359E+0	1.957443E+0	1.914242E+0	2.024792E+0	1.949120E+0	1.937456E+0	1.981584E+0	1.971037E+0	1.991280E+0	1.986301E+0	1.960218E+0	1.975782E+0	1.993280E+0	1.939795E+0	1.950714E+0	1.952998E+0	1.922891E+0	1.944785E+0	1.956805E+0	2.014912E+0	1.920631E+0	1.931256E+0	1.882226E+0	2.022864E+0	1.832807E+0
5.355630E+2	1.932251E+0	1.998543E+0	1.958203E+0	1.904332E+0	1.906557E+0	1.941115E+0	1.897285E+0	1.930021E+0	1.872949E+0	1.862458E+0	1.861897E+0	1.890479E+0	1.946464E+0	1.901549E+0	1.921739E+0	1.834841E+0	1.956452E+0	1.872748E+0	1.929517E+0	1.864113E+0	1.909433E+0	1.916498E+0	1.877541E+0	1.923822E+0	1.958964E+0	1.882671E+0	1.887140E+0	1.867711E+0	1.969275E+0	1.862962E+0	1.857636E+0	1.881176E+0	1.958606E+0	1.970577E+0	1.898932E+0	1.827050E+0	1.897900E+0	1.927364E+0	1.895441E+0	1.902482E+0	1.875306E+0	2.007753E+0	1.893579E+0	1.888823E+0	1.907598E+0	1.872704E+0	1.868097E+0	1.861816E+0	1.862687E+0	1.950862E+0	1.867607E+0	1.836735E+0	1.848074E+0	1.918110E+0	1.971335E+0	1.826576E+0	1.873107E+0	1.888079E+0	1.850717E+0	1.932818E+0	1.878128E+0	1.844167E+0	1.908194E+0	1.894895E+0	1.867361E+0	1.875356E+0	1.887550E+0	1.801343E+0	1.879251E+0	1.915306E+0	1.902420E+0	1.908890E+0	1.844373E+0	1.869065E+0	1.878807E+0	1.798549E+0	1.904751E+0	1.827525E+0	1.871941E+0	1.897627E+0	1.935940E+0	1.911333E+0	1.884107E+0	1.899872E+0	1.888762E+0	1.888458E+0	1.875062E+0	1.812444E+0	1.867655E+0	1.818601E+0	1.805919E+0	1.839475E+0	1.940614E+0	1.856401E+0	1.911645E+0	1.790267E+0	1.870423E+0	1.834243E+0	1.907265E+0	1.914416E+0	1.853947E+0	1.878150E+0	1.882935E+0	1.877513E+0	1.790401E+0	1.930700E+0	1.843899E+0	1.849489E+0	1.844610E+0	1.855607E+0	1.802969E+0	1.851135E+0	1.887557E+0	1.891259E+0	1.945621E+0	1.794064E+0	1.833339E+0	1.887634E+0	1.814848E+0	1.876499E+0	1.873590E+0	1.889080E+0	1.874040E+0	1.896640E+0	1.828251E+0	1.811829E+0	1.850746E+0	1.892687E+0	1.899504E+0	1.898957E+0	1.861584E+0	1.868103E+0	1.815683E+0	1.912430E+0	1.853447E+0	1.840940E+0	1.887638E+0	1.846768E+0	1.778792E+0	1.801017E+0	1.818902E+0	1.870111E+0	1.833080E+0	1.783941E+0	1.913596E+0	1.828318E+0	1.816571E+0	1.845657E+0	1.824361E+0	1.802145E+0	1.854680E+0	1.867577E+0	1.882116E+0	1.858700E+0	1.853499E+0	1.852540E+0	1.840506E+0	1.708211E+0	1.807702E+0	1.735602E+0	1.884075E+0	1.789314E+0	1.891799E+0	1.821802E+0	1.902813E+0	1.856990E+0
5.357090E+2	1.676898E+0	1.704353E+0	1.792025E+0	1.719467E+0	1.703316E+0	1.719883E+0	1.740632E+0	1.635028E+0	1.734019E+0	1.720179E+0	1.704386E+0	1.703827E+0	1.747184E+0	1.756834E+0	1.804876E+0	1.722773E+0	1.786120E+0	1.683865E+0	1.670916E+0	1.683997E+0	1.728738E+0	1.662662E+0	1.791142E+0	1.666186E+0	1.728839E+0	1.686370E+0	1.739087E+0	1.699809E+0	1.748918E+0	1.703475E+0	1.718167E+0	1.695131E+0	1.718930E+0	1.702134E+0	1.703861E+0	1.714181E+0	1.683084E+0	1.697336E+0	1.731317E+0	1.675615E+0	1.697189E+0	1.731515E+0	1.686506E+0	1.729844E+0	1.711254E+0	1.736509E+0	1.669402E+0	1.617713E+0	1.717911E+0	1.708884E+0	1.716364E+0	1.667640E+0	1.646646E+0	1.769226E+0	1.747177E+0	1.696143E+0	1.695546E+0	1.731963E+0	1.699682E+0	1.681558E+0	1.713215E+0	1.682450E+0	1.636363E+0	1.695072E+0	1.722269E+0	1.711878E+0	1.680583E+0	1.676718E+0	1.732389E+0	1.674189E+0	1.721945E+0	1.689324E+0	1.652613E+0	1.683965E+0	1.710485E+0	1.670888E+0	1.629721E+0	1.591002E+0	1.719847E+0	1.695736E+0	1.713271E+0	1.680251E+0	1.640490E+0	1.639941E+0	1.684550E+0	1.773358E+0	1.687076E+0	1.654973E+0	1.671818E+0	1.635537E+0	1.664258E+0	1.658085E+0	1.642958E+0	1.623768E+0	1.658572E+0	1.613075E+0	1.703697E+0	1.650382E+0	1.682340E+0	1.693497E+0	1.631134E+0	1.701836E+0	1.691926E+0	1.673733E+0	1.640741E+0	1.701467E+0	1.714309E+0	1.762122E+0	1.679641E+0	1.669956E+0	1.674077E+0	1.684590E+0	1.675972E+0	1.667769E+0	1.642317E+0	1.688999E+0	1.692416E+0	1.708341E+0	1.665397E+0	1.647689E+0	1.675103E+0	1.701384E+0	1.588459E+0	1.733926E+0	1.675788E+0	1.724795E+0	1.737618E+0	1.635611E+0	1.749886E+0	1.700861E+0	1.683450E+0	1.616985E+0	1.653539E+0	1.736316E+0	1.717055E+0	1.683669E+0	1.629221E+0	1.687407E+0	1.685203E+0	1.693704E+0	1.740286E+0	1.664204E+0	1.669719E+0	1.605471E+0	1.659192E+0	1.658598E+0	1.663268E+0	1.681746E+0	1.622469E+0	1.618317E+0	1.746824E+0	1.626835E+0	1.649658E+0	1.715178E+0	1.716514E+0	1.705715E+0	1.648586E+0	1.644924E+0	1.660482E+0	1.565583E+0	1.716695E+0	1.658734E+0	1.691266E+0	1.700327E+0	1.715542E+0	1.760862E+0
5.358550E+2	1.523983E+0	1.509766E+0	1.453250E+0	1.476045E+0	1.458816E+0	1.484432E+0	1.531837E+0	1.438193E+0	1.492203E+0	1.443182E+0	1.512951E+0	1.501766E+0	1.534626E+0	1.466266E+0	1.502727E+0	1.438885E+0	1.514857E+0	1.483434E+0	1.474054E+0	1.424341E+0	1.447020E+0	1.460926E+0	1.541701E+0	1.447804E+0	1.541427E+0	1.488433E+0	1.508121E+0	1.471315E+0	1.502953E+0	1.481551E+0	1.489691E+0	1.489351E+0	1.562591E+0	1.467037E+0	1.548720E+0	1.431167E+0	1.481510E+0	1.524364E+0	1.519421E+0	1.468122E+0	1.492440E+0	1.485433E+0	1.479353E+0	1.495375E+0	1.510623E+0	1.497908E+0	1.506790E+0	1.477464E+0	1.544946E+0	1.491770E+0	1.469658E+0	1.522535E+0	1.481525E+0	1.517415E+0	1.518621E+0	1.433285E+0	1.538924E+0	1.479604E+0	1.474872E+0	1.488301E+0	1.474677E+0	1.463359E+0	1.491872E+0	1.535841E+0	1.538489E+0	1.491094E+0	1.502977E+0	1.452105E+0	1.514840E+0	1.464403E+0	1.508326E+0	1.501268E+0	1.496637E+0	1.449279E+0	1.500627E+0	1.433142E+0	1.537571E+0	1.444635E+0	1.539083E+0	1.469158E+0	1.488004E+0	1.517628E+0	1.468716E+0	1.430757E+0	1.498651E+0	1.485030E+0	1.498590E+0	1.490815E+0	1.449344E+0	1.463698E+0	1.452267E+0	1.510474E+0	1.435461E+0	1.436525E+0	1.510171E+0	1.487151E+0	1.469644E+0	1.478723E+0	1.506530E+0	1.490019E+0	1.421658E+0	1.507748E+0	1.500448E+0	1.457589E+0	1.481556E+0	1.494885E+0	1.532981E+0	1.454003E+0	1.464681E+0	1.510800E+0	1.480357E+0	1.471801E+0	1.494418E+0	1.514383E+0	1.482093E+0	1.531860E+0	1.492499E+0	1.446357E+0	1.479852E+0	1.549087E+0	1.433277E+0	1.505413E+0	1.516868E+0	1.484161E+0	1.480507E+0	1.460441E+0	1.465180E+0	1.483984E+0	1.489348E+0	1.499489E+0	1.481904E+0	1.416710E+0	1.495844E+0	1.498302E+0	1.462530E+0	1.499421E+0	1.454689E+0	1.462946E+0	1.487903E+0	1.503576E+0	1.456035E+0	1.467921E+0	1.480305E+0	1.479198E+0	1.522298E+0	1.467800E+0	1.513916E+0	1.473591E+0	1.459575E+0	1.474982E+0	1.587599E+0	1.481697E+0	1.504585E+0	1.451709E+0	1.546732E+0	1.462049E+0	1.498103E+0	1.419630E+0	1.491097E+0	1.456799E+0	1.489630E+0	1.468707E+0	1.448813E+0	1.404876E+0	1.397205E+0	1.352375E+0
5.360170E+2	1.220077E+0	1.255445E+0	1.221942E+0	1.268939E+0	1.208890E+0	1.308424E+0	1.245919E+0	1.244658E+0	1.185965E+0	1.200953E+0	1.221937E+0	1.208771E+0	1.245579E+0	1.271889E+0	1.225307E+0	1.232698E+0	1.244951E+0	1.247946E+0	1.171761E+0	1.228834E+0	1.245495E+0	1.265918E+0	1.209326E+0	1.251343E+0	1.333140E+0	1.233605E+0	1.257669E+0	1.225358E+0	1.273513E+0	1.224427E+0	1.173603E+0	1.230754E+0	1.303036E+0	1.272362E+0	1.239004E+0	1.197035E+0	1.220285E+0	1.224537E+0	1.274218E+0	1.218154E+0	1.215413E+0	1.235490E+0	1.260641E+0	1.202074E+0	1.225792E+0	1.193389E+0	1.246541E+0	1.192308E+0	1.277948E+0	1.238042E+0	1.206085E+0	1.301291E+0	1.248746E+0	1.225299E+0	1.220991E+0	1.209000E+0	1.211412E+0	1.194213E+0	1.209483E+0	1.234672E+0	1.201938E+0	1.169055E+0	1.224577E+0	1.252960E+0	1.247317E+0	1.277529E+0	1.202232E+0	1.238053E+0	1.246826E+0	1.283012E+0	1.276547E+0	1.231380E+0	1.210685E+0	1.170793E+0	1.279762E+0	1.205484E+0	1.180590E+0	1.191099E+0	1.184693E+0	1.254776E+0	1.293435E+0	1.224801E+0	1.274116E+0	1.180284E+0	1.251295E+0	1.245192E+0	1.288507E+0	1.274148E+0	1.245903E+0	1.237769E+0	1.261669E+0	1.167281E+0	1.243214E+0	1.237609E+0	1.223696E+0	1.240327E+0	1.330351E+0	1.227660E+0	1.234387E+0	1.234930E+0	1.265658E+0	1.311620E+0	1.236752E+0	1.234491E+0	1.257632E+0	1.327491E+0	1.285376E+0	1.245956E+0	1.262927E+0	1.224171E+0	1.199096E+0	1.215018E+0	1.241264E+0	1.279675E+0	1.251135E+0	1.285831E+0	1.249683E+0	1.194029E+0	1.277070E+0	1.222691E+0	1.212666E+0	1.231192E+0	1.238095E+0	1.227953E+0	1.257360E+0	1.240846E+0	1.254318E+0	1.269966E+0	1.289432E+0	1.193840E+0	1.190528E+0	1.276622E+0	1.254187E+0	1.256409E+0	1.224691E+0	1.256623E+0	1.176003E+0	1.233088E+0	1.211322E+0	1.246634E+0	1.243690E+0	1.225608E+0	1.236546E+0	1.166749E+0	1.227933E+0	1.182459E+0	1.261321E+0	1.270156E+0	1.232130E+0	1.240612E+0	1.218094E+0	1.272791E+0	1.225027E+0	1.247756E+0	1.278248E+0	1.211994E+0	1.196098E+0	1.204854E+0	1.147902E+0	1.243192E+0	1.301128E+0	1.274760E+0	1.254618E+0	1.194791E+0	1.210826E+0	1.162497E+0
5.362580E+2	9.326285E-1	9.777973E-1	9.370530E-1	9.154495E-1	9.374210E-1	9.874419E-1	9.691373E-1	9.854042E-1	9.035631E-1	9.300124E-1	9.292081E-1	9.368815E-1	8.883945E-1	9.171826E-1	9.293212E-1	9.553237E-1	9.547217E-1	9.689633E-1	9.764613E-1	9.202672E-1	9.246421E-1	9.214090E-1	9.205482E-1	9.656368E-1	9.605523E-1	9.655005E-1	9.402784E-1	8.818590E-1	9.795385E-1	9.170309E-1	9.101911E-1	8.904306E-1	9.827958E-1	9.213950E-1	9.065136E-1	9.278960E-1	9.206039E-1	9.148637E-1	8.984172E-1	9.460698E-1	9.075918E-1	9.487427E-1	9.245521E-1	9.238811E-1	9.765283E-1	9.160718E-1	9.444034E-1	9.066480E-1	9.561105E-1	9.411048E-1	9.488013E-1	9.252085E-1	9.171005E-1	9.209054E-1	9.130494E-1	9.301315E-1	9.513886E-1	9.059237E-1	9.525291E-1	9.199402E-1	9.202858E-1	8.852191E-1	9.199980E-1	9.521449E-1	9.256673E-1	9.995287E-1	9.647262E-1	9.274405E-1	9.326251E-1	9.607275E-1	9.069114E-1	9.303662E-1	9.381732E-1	9.136589E-1	9.267467E-1	9.087307E-1	9.524648E-1	8.847455E-1	9.253041E-1	9.567741E-1	9.681498E-1	9.781060E-1	8.992848E-1	8.962728E-1	9.750246E-1	9.520033E-1	9.658957E-1	9.385894E-1	9.668286E-1	9.449673E-1	9.168943E-1	9.314825E-1	9.540697E-1	9.102908E-1	9.649987E-1	8.912716E-1	9.568908E-1	9.081236E-1	9.945144E-1	9.186904E-1	9.328968E-1	9.347564E-1	9.906702E-1	9.544350E-1	9.168092E-1	9.419678E-1	9.134011E-1	9.513711E-1	9.404964E-1	9.288456E-1	9.401977E-1	9.468999E-1	9.059498E-1	9.154262E-1	9.674442E-1	9.553169E-1	9.620310E-1	9.304318E-1	9.401061E-1	9.883799E-1	9.462344E-1	8.969935E-1	9.384039E-1	9.165340E-1	9.247885E-1	9.083147E-1	9.444955E-1	9.494344E-1	9.461123E-1	9.345761E-1	9.411285E-1	9.340603E-1	9.233075E-1	8.884058E-1	9.401043E-1	9.347937E-1	9.467341E-1	9.457851E-1	8.873632E-1	9.304796E-1	9.834303E-1	9.814019E-1	9.232288E-1	9.718507E-1	9.300034E-1	9.420553E-1	9.129093E-1	9.231702E-1	9.415411E-1	9.801327E-1	9.690378E-1	9.327093E-1	8.757977E-1	9.564284E-1	9.128715E-1	9.473063E-1	9.622399E-1	8.841020E-1	9.512439E-1	9.273567E-1	9.483199E-1	9.326728E-1	9.848049E-1	8.949201E-1	9.452155E-1	9.502870E-1
5.365090E+2	6.879168E-1	7.317263E-1	7.240867E-1	7.238133E-1	6.997610E-1	7.280245E-1	7.386002E-1	7.070106E-1	6.890291E-1	7.221709E-1	7.070573E-1	7.339229E-1	6.862073E-1	7.148426E-1	7.045616E-1	6.971274E-1	7.243911E-1	6.982703E-1	7.313295E-1	6.599337E-1	6.997973E-1	7.754465E-1	7.115901E-1	7.033778E-1	7.197292E-1	7.736608E-1	7.182859E-1	6.848475E-1	7.760867E-1	7.350562E-1	7.095409E-1	7.054488E-1	7.591772E-1	7.577575E-1	7.376291E-1	7.066670E-1	7.577772E-1	6.814799E-1	7.641482E-1	7.047377E-1	7.002591E-1	6.877158E-1	7.096055E-1	7.315031E-1	7.182644E-1	7.194265E-1	6.826686E-1	6.962994E-1	7.573336E-1	6.787845E-1	7.619961E-1	7.465732E-1	7.390477E-1	7.750259E-1	7.291208E-1	7.144758E-1	7.383451E-1	7.291127E-1	7.296643E-1	7.308312E-1	7.504337E-1	6.790092E-1	7.275929E-1	7.164230E-1	6.885137E-1	7.038654E-1	7.388976E-1	7.078901E-1	7.309733E-1	7.277999E-1	7.684037E-1	7.174135E-1	7.006092E-1	7.427638E-1	6.978242E-1	7.268707E-1	7.023205E-1	6.910268E-1	7.695862E-1	7.110715E-1	7.280936E-1	7.118833E-1	7.117650E-1	7.130973E-1	7.274218E-1	7.528542E-1	7.233380E-1	7.068468E-1	7.532425E-1	7.273820E-1	7.297036E-1	6.949876E-1	7.420622E-1	7.429746E-1	7.576068E-1	6.729259E-1	7.222770E-1	6.931956E-1	7.404249E-1	7.259814E-1	7.343063E-1	7.030099E-1	7.235458E-1	7.209987E-1	6.946259E-1	7.590203E-1	7.492939E-1	7.247531E-1	7.538826E-1	7.688984E-1	7.030239E-1	7.613640E-1	7.374785E-1	6.738710E-1	7.324158E-1	7.472740E-1	6.952340E-1	7.270448E-1	7.165398E-1	7.203487E-1	7.237558E-1	7.471254E-1	6.885191E-1	7.393697E-1	7.202604E-1	7.325444E-1	7.549370E-1	7.456066E-1	7.726831E-1	7.604655E-1	7.361355E-1	7.337630E-1	7.072844E-1	7.701613E-1	7.482643E-1	7.583492E-1	7.176698E-1	7.179822E-1	7.451003E-1	7.686934E-1	7.214281E-1	6.955791E-1	7.471160E-1	7.131467E-1	7.688189E-1	7.592927E-1	7.779011E-1	7.226133E-1	7.417219E-1	7.341594E-1	7.530199E-1	7.190756E-1	7.460876E-1	7.811536E-1	7.441042E-1	7.432394E-1	7.378281E-1	7.026746E-1	7.112061E-1	7.362963E-1	7.741835E-1	7.212208E-1	7.374083E-1	7.277917E-1	6.985674E-1	6.609819E-1
5.367600E+2	6.080866E-1	5.629600E-1	5.936453E-1	5.701207E-1	5.505269E-1	5.618779E-1	6.079901E-1	5.892619E-1	5.939781E-1	6.194321E-1	6.062693E-1	5.943674E-1	5.837621E-1	5.801202E-1	5.796838E-1	5.701038E-1	5.604787E-1	5.786391E-1	5.782165E-1	5.889942E-1	5.700528E-1	6.077482E-1	6.060240E-1	5.732107E-1	6.101395E-1	6.009529E-1	6.161334E-1	6.009098E-1	6.030751E-1	6.077578E-1	5.828421E-1	5.866816E-1	6.208687E-1	5.820098E-1	5.913767E-1	5.527744E-1	6.056966E-1	5.981852E-1	5.822991E-1	5.825525E-1	6.247877E-1	5.894401E-1	5.725150E-1	5.623348E-1	5.812659E-1	5.832951E-1	6.308190E-1	6.126705E-1	5.822927E-1	6.242583E-1	5.617570E-1	5.971954E-1	5.826687E-1	5.923441E-1	6.265801E-1	6.201464E-1	6.390184E-1	5.946237E-1	5.748151E-1	5.733260E-1	5.764132E-1	5.896702E-1	5.965639E-1	5.888569E-1	6.349138E-1	5.994885E-1	5.718095E-1	5.899950E-1	5.988961E-1	6.054527E-1	6.154042E-1	6.075118E-1	5.921526E-1	6.107944E-1	6.013463E-1	5.873555E-1	5.929690E-1	5.646544E-1	6.255294E-1	5.953759E-1	6.081111E-1	5.853186E-1	6.165116E-1	5.944547E-1	6.117465E-1	5.984711E-1	6.055110E-1	6.143568E-1	5.602733E-1	5.849367E-1	6.343187E-1	6.101059E-1	5.847212E-1	6.072172E-1	5.693880E-1	5.826022E-1	5.965450E-1	6.270738E-1	5.990681E-1	6.025743E-1	6.034643E-1	5.633512E-1	5.858932E-1	5.855914E-1	5.678683E-1	6.288385E-1	5.841789E-1	5.770438E-1	5.668286E-1	6.109304E-1	5.875519E-1	5.697761E-1	6.586303E-1	6.067267E-1	5.737123E-1	6.164319E-1	6.409315E-1	6.316848E-1	6.385392E-1	5.852335E-1	5.906052E-1	6.048397E-1	6.057622E-1	6.046760E-1	6.103689E-1	5.880919E-1	6.355969E-1	6.393960E-1	5.990982E-1	6.495670E-1	5.710825E-1	6.021882E-1	5.798324E-1	6.412874E-1	6.357966E-1	5.811573E-1	5.786801E-1	5.991043E-1	5.656853E-1	5.970566E-1	6.193385E-1	5.947464E-1	6.132992E-1	5.992695E-1	5.800029E-1	5.530931E-1	6.233718E-1	5.719289E-1	6.011854E-1	5.822382E-1	6.158154E-1	5.860855E-1	6.118017E-1	6.607679E-1	6.080579E-1	6.416360E-1	5.682561E-1	5.827566E-1	6.148462E-1	6.060853E-1	6.295451E-1	6.026720E-1	5.970318E-1	5.381394E-1	5.814651E-1	6.432656E-1
5.370280E+2	5.185929E-1	5.127135E-1	5.065439E-1	5.037427E-1	5.395906E-1	5.169691E-1	5.137652E-1	5.083448E-1	4.922584E-1	5.342290E-1	5.285863E-1	4.938871E-1	5.217342E-1	5.218648E-1	5.148527E-1	5.040852E-1	5.171255E-1	5.053372E-1	5.253101E-1	4.944764E-1	4.748464E-1	4.876672E-1	4.841579E-1	4.965728E-1	5.229193E-1	5.245423E-1	5.429995E-1	5.306865E-1	5.388432E-1	4.988064E-1	4.781123E-1	5.590665E-1	5.205541E-1	5.177003E-1	5.271095E-1	5.130413E-1	5.149581E-1	5.379893E-1	5.116324E-1	5.316166E-1	4.994380E-1	5.567932E-1	5.080314E-1	5.302681E-1	5.270756E-1	5.253384E-1	5.010591E-1	4.937299E-1	5.073402E-1	5.058630E-1	5.111917E-1	5.139677E-1	5.231562E-1	5.102780E-1	5.286129E-1	5.513193E-1	5.411606E-1	5.109765E-1	5.340798E-1	5.136910E-1	5.579965E-1	5.413113E-1	5.317199E-1	5.277787E-1	5.260428E-1	5.366662E-1	5.215310E-1	4.884956E-1	5.201176E-1	5.521438E-1	5.309912E-1	5.349783E-1	5.104621E-1	5.313271E-1	5.288261E-1	5.212321E-1	5.104358E-1	5.560513E-1	5.132406E-1	5.079684E-1	5.396356E-1	5.076686E-1	5.342886E-1	5.204349E-1	5.211664E-1	5.271836E-1	5.411906E-1	5.315230E-1	5.141510E-1	5.122393E-1	5.312863E-1	4.896437E-1	5.123591E-1	5.010412E-1	5.139670E-1	5.392779E-1	5.226935E-1	5.237477E-1	5.386808E-1	5.452305E-1	5.214134E-1	5.090914E-1	5.553363E-1	5.199654E-1	5.285701E-1	5.374391E-1	5.395157E-1	5.281459E-1	5.614264E-1	5.295029E-1	5.227214E-1	5.638230E-1	5.196696E-1	5.404818E-1	5.036277E-1	4.994801E-1	5.118738E-1	5.269728E-1	4.942533E-1	5.008114E-1	5.183616E-1	5.352833E-1	5.394747E-1	5.328260E-1	5.437260E-1	5.334083E-1	5.359563E-1	5.642637E-1	5.294412E-1	5.303033E-1	5.440810E-1	5.165867E-1	4.875116E-1	5.357927E-1	5.141966E-1	5.260819E-1	5.586668E-1	5.009685E-1	5.054485E-1	5.101025E-1	5.433238E-1	5.210286E-1	5.126183E-1	5.111666E-1	5.487059E-1	5.235133E-1	5.375419E-1	5.237475E-1	5.120667E-1	5.442397E-1	5.075847E-1	5.080731E-1	4.923227E-1	5.995917E-1	5.134491E-1	5.718111E-1	5.046344E-1	5.064877E-1	5.378833E-1	5.058103E-1	5.717587E-1	5.494823E-1	5.195899E-1	5.053897E-1	5.139477E-1	5.729932E-1
5.372640E+2	5.335764E-1	5.215498E-1	5.315402E-1	5.123557E-1	4.751005E-1	5.150228E-1	5.179242E-1	5.077095E-1	4.945307E-1	5.506253E-1	5.092391E-1	5.408596E-1	5.239163E-1	5.036000E-1	5.204531E-1	4.944433E-1	5.228485E-1	4.827129E-1	5.232264E-1	5.136517E-1	5.031974E-1	5.144566E-1	4.728616E-1	5.273355E-1	4.979449E-1	5.058040E-1	5.279167E-1	5.070677E-1	5.142464E-1	5.255708E-1	5.286590E-1	5.368186E-1	5.275367E-1	5.518151E-1	4.936051E-1	5.199711E-1	5.085142E-1	5.155552E-1	4.952085E-1	5.078027E-1	4.812992E-1	5.434601E-1	5.192645E-1	5.031395E-1	5.144989E-1	4.885690E-1	4.962966E-1	4.997260E-1	5.469226E-1	5.320603E-1	5.249865E-1	5.199518E-1	5.090694E-1	5.162969E-1	5.020336E-1	5.283376E-1	5.157891E-1	5.344725E-1	5.010931E-1	5.179096E-1	5.111026E-1	4.840393E-1	4.936002E-1	5.023101E-1	4.920607E-1	5.268130E-1	5.358688E-1	5.276957E-1	5.194408E-1	4.848394E-1	5.174418E-1	5.577199E-1	5.058607E-1	4.864589E-1	5.265069E-1	5.544691E-1	5.127708E-1	5.069368E-1	5.186292E-1	5.323559E-1	5.142794E-1	5.288420E-1	4.945627E-1	5.259263E-1	5.247499E-1	5.424983E-1	5.036298E-1	5.064158E-1	5.619788E-1	5.143181E-1	5.080873E-1	4.974227E-1	5.092229E-1	5.029427E-1	5.051268E-1	5.088389E-1	5.731206E-1	5.050784E-1	5.055996E-1	5.153552E-1	5.098821E-1	5.051630E-1	5.305164E-1	5.121818E-1	5.349973E-1	5.218649E-1	5.264672E-1	5.124876E-1	5.161288E-1	4.915111E-1	5.330187E-1	5.319609E-1	5.154062E-1	5.077322E-1	5.184581E-1	5.317662E-1	5.135880E-1	5.198494E-1	5.381278E-1	5.368169E-1	5.194521E-1	5.251885E-1	5.247935E-1	5.272942E-1	5.386756E-1	5.436497E-1	5.582503E-1	5.240912E-1	5.224026E-1	5.424971E-1	5.062150E-1	5.472779E-1	4.875301E-1	5.450838E-1	5.544818E-1	5.259428E-1	5.189761E-1	5.004680E-1	5.049911E-1	5.000546E-1	5.217883E-1	5.084682E-1	5.282543E-1	5.186665E-1	5.358478E-1	5.030083E-1	5.332866E-1	5.160245E-1	5.198386E-1	5.187722E-1	5.354419E-1	5.188685E-1	5.154485E-1	5.353388E-1	5.423263E-1	5.522080E-1	5.470527E-1	5.411786E-1	5.119270E-1	4.894756E-1	5.448769E-1	5.103366E-1	5.019555E-1	5.082533E-1	5.975687E-1	5.604377E-1
5.375060E+2	5.262667E-1	5.115620E-1	5.438100E-1	5.432494E-1	5.067659E-1	5.124774E-1	5.768206E-1	5.489770E-1	5.258335E-1	5.072518E-1	5.654704E-1	5.131972E-1	4.980830E-1	5.289129E-1	5.305386E-1	5.120017E-1	5.340236E-1	5.002744E-1	5.661145E-1	5.351645E-1	5.388028E-1	5.226173E-1	5.565361E-1	5.181474E-1	5.734094E-1	5.042970E-1	5.531703E-1	5.127151E-1	5.467383E-1	5.382388E-1	5.586460E-1	5.582172E-1	5.583321E-1	5.231276E-1	5.121794E-1	5.057739E-1	5.107143E-1	5.513696E-1	5.518427E-1	5.471102E-1	5.230622E-1	5.609307E-1	5.409764E-1	5.557191E-1	5.533106E-1	5.684154E-1	5.372546E-1	5.077873E-1	5.486863E-1	5.297623E-1	5.418397E-1	5.504702E-1	5.536721E-1	5.470064E-1	5.452964E-1	5.692639E-1	5.409001E-1	5.576344E-1	5.157098E-1	5.416761E-1	5.301640E-1	5.096272E-1	5.233892E-1	5.445866E-1	4.970045E-1	5.305339E-1	5.243543E-1	5.552709E-1	5.313018E-1	5.265383E-1	5.609708E-1	5.460203E-1	5.462014E-1	5.132378E-1	5.708209E-1	5.634758E-1	5.393800E-1	5.347076E-1	5.289161E-1	5.425559E-1	5.674693E-1	5.513220E-1	5.352419E-1	5.376742E-1	5.354545E-1	5.401842E-1	5.336678E-1	4.955427E-1	5.312785E-1	5.269815E-1	5.756429E-1	5.519634E-1	5.660354E-1	5.221115E-1	5.261580E-1	4.938162E-1	5.603589E-1	5.363377E-1	5.697446E-1	5.427504E-1	5.517217E-1	5.638516E-1	5.361833E-1	5.525231E-1	5.176191E-1	6.207570E-1	5.586063E-1	5.348033E-1	5.369976E-1	5.347014E-1	5.473497E-1	5.483266E-1	5.476891E-1	5.452953E-1	5.647656E-1	5.548823E-1	5.435417E-1	5.663099E-1	5.343007E-1	5.266180E-1	5.378273E-1	5.432670E-1	5.403715E-1	5.921501E-1	5.659213E-1	5.264650E-1	5.246004E-1	5.576959E-1	5.430778E-1	5.603633E-1	5.362342E-1	5.814095E-1	5.062004E-1	5.280226E-1	5.444609E-1	5.361879E-1	5.365479E-1	5.416278E-1	5.462152E-1	5.424318E-1	5.396438E-1	5.540770E-1	5.918155E-1	5.537996E-1	5.417759E-1	5.657198E-1	5.435126E-1	5.256898E-1	5.833255E-1	5.191148E-1	5.319526E-1	5.435673E-1	5.516442E-1	5.481593E-1	5.646462E-1	5.371358E-1	5.636942E-1	5.270243E-1	5.455677E-1	5.391085E-1	6.132721E-1	5.180808E-1	5.389478E-1	5.771424E-1	5.642355E-1	5.703737E-1
5.377630E+2	5.874809E-1	6.400808E-1	6.438629E-1	6.040034E-1	6.088381E-1	6.198582E-1	5.885244E-1	6.268377E-1	5.899862E-1	5.673403E-1	6.273206E-1	6.034859E-1	6.272209E-1	6.284485E-1	5.853767E-1	5.622929E-1	6.211792E-1	6.125348E-1	5.546620E-1	6.011156E-1	6.332260E-1	6.130539E-1	6.485058E-1	6.063582E-1	6.170234E-1	6.188048E-1	6.528365E-1	6.026061E-1	6.414656E-1	6.290430E-1	5.885851E-1	6.257866E-1	6.664217E-1	6.157290E-1	6.211339E-1	6.065492E-1	5.921124E-1	5.721621E-1	6.620961E-1	6.159189E-1	6.173844E-1	6.039026E-1	6.701082E-1	6.133999E-1	6.472488E-1	5.561562E-1	6.338946E-1	6.116721E-1	6.052657E-1	6.230408E-1	6.283066E-1	6.297957E-1	6.201075E-1	6.114286E-1	5.797917E-1	6.340506E-1	6.072858E-1	6.127789E-1	6.017421E-1	6.291828E-1	6.302561E-1	6.120522E-1	6.035514E-1	6.137401E-1	6.337542E-1	6.327780E-1	6.184148E-1	6.064226E-1	5.865647E-1	6.163204E-1	6.194991E-1	6.167947E-1	5.924203E-1	6.424713E-1	6.468677E-1	5.909470E-1	6.118621E-1	5.991065E-1	6.320518E-1	5.938619E-1	6.208726E-1	5.942372E-1	6.146584E-1	5.961575E-1	6.464157E-1	6.131555E-1	5.971317E-1	5.842884E-1	5.863598E-1	6.589099E-1	6.157895E-1	6.156243E-1	6.121447E-1	6.076819E-1	5.901620E-1	5.832939E-1	6.351798E-1	5.959699E-1	6.085532E-1	6.318309E-1	6.386721E-1	6.471320E-1	6.045905E-1	6.287244E-1	6.384290E-1	6.080643E-1	6.504732E-1	6.586369E-1	6.013503E-1	6.196788E-1	6.059026E-1	6.070863E-1	6.226607E-1	6.421979E-1	6.137237E-1	6.187742E-1	6.113170E-1	6.565203E-1	5.921301E-1	6.344305E-1	6.146476E-1	6.353781E-1	6.238855E-1	6.077842E-1	6.218844E-1	6.113509E-1	6.348289E-1	6.275217E-1	5.979479E-1	5.782855E-1	6.210160E-1	6.123409E-1	5.951098E-1	6.270088E-1	6.508321E-1	6.190589E-1	6.319563E-1	5.677774E-1	5.958864E-1	6.631899E-1	6.480582E-1	5.914647E-1	6.059346E-1	6.094563E-1	6.256917E-1	6.078247E-1	6.304769E-1	6.022330E-1	6.378124E-1	6.620245E-1	6.447901E-1	6.418115E-1	6.305973E-1	6.104376E-1	6.042610E-1	6.472818E-1	6.500690E-1	6.070628E-1	6.092666E-1	6.188973E-1	6.166710E-1	6.104935E-1	6.390162E-1	6.055344E-1	6.644298E-1	6.317527E-1
5.380110E+2	6.936991E-1	7.313449E-1	7.341285E-1	7.091146E-1	7.193130E-1	7.006446E-1	7.288404E-1	6.937319E-1	7.031976E-1	6.780544E-1	6.848619E-1	7.101795E-1	7.289009E-1	6.942862E-1	6.855740E-1	7.384493E-1	6.604494E-1	6.806705E-1	6.970592E-1	6.670630E-1	6.846771E-1	7.311480E-1	7.165925E-1	7.381285E-1	7.460711E-1	6.751061E-1	6.896946E-1	6.541413E-1	7.190796E-1	6.948776E-1	7.142583E-1	6.642800E-1	7.285671E-1	7.073518E-1	6.964481E-1	6.972373E-1	7.346560E-1	6.804203E-1	7.259113E-1	6.738996E-1	7.233557E-1	7.197518E-1	7.147802E-1	7.202036E-1	6.946750E-1	7.027284E-1	6.904726E-1	7.127582E-1	7.106958E-1	7.268413E-1	6.922147E-1	7.277850E-1	6.838492E-1	6.976384E-1	6.920330E-1	6.725664E-1	6.610413E-1	7.497068E-1	7.228504E-1	7.489388E-1	7.039964E-1	6.558287E-1	7.086087E-1	7.031528E-1	6.928425E-1	7.097635E-1	7.344156E-1	6.852117E-1	7.216951E-1	7.165565E-1	6.839245E-1	7.401986E-1	6.951532E-1	7.084523E-1	7.060664E-1	7.094663E-1	6.755924E-1	6.769860E-1	7.296849E-1	7.200228E-1	6.732858E-1	7.284042E-1	6.778322E-1	6.682617E-1	7.008116E-1	7.286828E-1	7.427493E-1	7.462624E-1	6.919230E-1	7.540289E-1	6.899123E-1	7.338679E-1	7.155758E-1	7.017359E-1	7.104818E-1	6.719916E-1	7.332829E-1	7.074774E-1	7.218364E-1	7.192976E-1	7.244048E-1	6.842869E-1	7.340799E-1	7.058092E-1	7.116612E-1	7.318089E-1	7.014562E-1	7.440937E-1	7.071386E-1	7.267140E-1	7.250439E-1	7.270608E-1	7.418690E-1	7.020829E-1	7.347228E-1	6.935218E-1	7.158363E-1	7.146561E-1	7.256901E-1	7.584451E-1	6.906946E-1	7.119179E-1	7.255992E-1	7.166191E-1	7.172175E-1	7.161224E-1	7.203648E-1	7.222776E-1	7.383575E-1	7.470749E-1	6.674760E-1	7.089422E-1	7.167126E-1	6.970558E-1	6.823498E-1	7.040255E-1	7.325520E-1	7.135620E-1	6.977978E-1	7.151838E-1	6.991747E-1	6.980239E-1	7.235120E-1	7.021100E-1	7.598625E-1	6.855828E-1	7.291729E-1	6.922118E-1	7.066288E-1	7.325820E-1	7.456452E-1	7.329892E-1	7.139446E-1	7.299827E-1	7.396689E-1	7.481659E-1	7.322478E-1	6.799299E-1	7.304133E-1	7.195522E-1	7.361402E-1	7.289222E-1	7.400133E-1	6.975654E-1	7.321316E-1	6.641174E-1
5.382900E+2	8.429244E-1	8.300890E-1	8.658274E-1	8.707306E-1	8.530457E-1	8.381331E-1	9.083012E-1	8.291381E-1	8.096555E-1	8.875621E-1	8.419755E-1	8.809213E-1	8.640808E-1	8.339600E-1	8.360614E-1	8.055528E-1	8.790206E-1	8.782142E-1	8.470300E-1	8.197576E-1	8.591364E-1	8.153044E-1	8.397330E-1	8.677907E-1	8.773195E-1	8.537960E-1	8.735678E-1	8.401501E-1	8.618898E-1	8.210930E-1	8.733061E-1	8.434786E-1	9.066009E-1	8.719161E-1	8.802150E-1	8.682142E-1	8.506587E-1	8.246454E-1	9.078954E-1	8.383054E-1	8.808601E-1	8.547558E-1	8.851738E-1	8.613406E-1	8.286994E-1	7.928865E-1	8.642115E-1	8.362449E-1	8.735409E-1	8.757686E-1	8.929001E-1	8.929681E-1	8.639636E-1	8.866564E-1	8.937333E-1	9.057068E-1	8.749197E-1	8.584974E-1	8.447004E-1	8.723738E-1	8.720416E-1	8.256314E-1	8.495094E-1	8.247675E-1	8.512693E-1	8.447005E-1	8.799138E-1	8.964443E-1	8.323752E-1	9.149408E-1	8.631895E-1	8.452854E-1	8.507257E-1	8.287470E-1	8.505328E-1	8.975597E-1	8.889654E-1	8.113792E-1	8.813197E-1	8.653507E-1	8.628103E-1	8.496580E-1	8.867533E-1	8.085793E-1	9.051840E-1	8.374834E-1	8.767407E-1	8.719747E-1	8.236330E-1	8.978158E-1	8.720464E-1	8.691307E-1	8.356943E-1	8.243969E-1	8.549097E-1	8.779042E-1	9.001426E-1	8.771823E-1	8.654681E-1	8.336975E-1	8.343759E-1	8.518041E-1	9.217629E-1	8.402747E-1	8.752352E-1	8.753564E-1	9.031645E-1	8.294157E-1	9.003252E-1	7.893766E-1	8.581170E-1	9.082517E-1	8.444422E-1	8.712909E-1	8.486501E-1	8.757815E-1	8.846195E-1	9.401734E-1	8.915526E-1	8.402473E-1	8.545283E-1	8.837767E-1	8.355719E-1	8.695512E-1	8.510222E-1	8.322880E-1	8.370661E-1	8.439940E-1	8.672380E-1	9.058365E-1	8.320395E-1	8.722266E-1	8.882395E-1	9.014305E-1	8.829462E-1	9.109997E-1	8.812139E-1	8.480974E-1	9.379360E-1	8.959564E-1	8.712340E-1	8.771759E-1	8.686137E-1	8.308842E-1	8.532568E-1	8.626119E-1	8.924681E-1	8.328864E-1	8.638753E-1	8.925345E-1	9.015253E-1	8.594062E-1	8.392728E-1	8.797192E-1	8.699738E-1	8.880644E-1	8.702663E-1	8.350646E-1	8.318746E-1	8.318291E-1	8.624667E-1	8.852657E-1	8.643135E-1	8.742374E-1	8.535701E-1	8.882097E-1
5.385060E+2	1.039100E+0	9.892384E-1	1.075474E+0	9.932975E-1	1.001678E+0	1.050892E+0	1.050853E+0	1.020532E+0	1.027997E+0	1.008098E+0	1.065966E+0	1.012886E+0	1.050539E+0	1.033648E+0	9.942784E-1	1.042810E+0	9.925327E-1	1.025638E+0	1.059227E+0	1.005016E+0	1.026212E+0	1.050637E+0	1.014862E+0	1.036254E+0	1.065059E+0	1.014396E+0	1.067780E+0	1.012700E+0	1.024922E+0	1.000770E+0	1.033719E+0	1.030870E+0	1.097568E+0	1.055691E+0	1.053826E+0	1.008275E+0	1.052032E+0	1.040971E+0	1.059992E+0	1.034434E+0	1.081467E+0	1.054742E+0	1.069006E+0	1.053766E+0	1.008940E+0	1.006984E+0	1.094513E+0	1.039674E+0	1.063129E+0	1.052232E+0	1.014905E+0	1.048863E+0	1.024829E+0	1.030256E+0	1.087223E+0	1.043677E+0	1.004384E+0	9.781219E-1	1.049429E+0	1.080995E+0	1.051331E+0	1.024321E+0	1.013816E+0	9.953697E-1	1.017176E+0	1.041133E+0	1.052566E+0	9.928095E-1	1.027569E+0	1.021830E+0	1.020899E+0	1.065938E+0	1.017423E+0	1.023271E+0	1.085275E+0	1.011643E+0	1.021456E+0	9.914171E-1	1.059225E+0	1.012475E+0	1.062604E+0	1.025800E+0	9.958550E-1	9.986355E-1	1.038787E+0	1.008276E+0	1.036479E+0	1.041104E+0	9.871177E-1	1.031587E+0	1.002991E+0	1.025193E+0	1.054737E+0	1.036287E+0	1.039550E+0	1.046771E+0	1.008664E+0	9.986798E-1	1.023628E+0	1.033151E+0	9.724437E-1	1.018203E+0	1.068444E+0	1.031294E+0	1.016514E+0	1.012977E+0	1.060815E+0	1.041964E+0	1.034527E+0	1.030547E+0	1.034762E+0	1.025569E+0	1.020640E+0	1.057585E+0	1.048577E+0	9.793137E-1	1.017916E+0	1.053178E+0	1.063516E+0	1.029844E+0	9.963029E-1	1.012885E+0	1.062486E+0	1.022062E+0	1.019695E+0	1.050240E+0	9.953868E-1	1.080316E+0	1.084115E+0	1.011655E+0	1.040205E+0	1.037859E+0	1.029932E+0	1.003007E+0	9.985390E-1	1.036912E+0	1.021638E+0	1.077916E+0	1.022322E+0	1.080959E+0	1.064052E+0	1.036788E+0	9.850478E-1	1.016570E+0	1.017251E+0	1.044661E+0	1.063021E+0	1.011747E+0	9.678045E-1	1.054689E+0	1.100780E+0	1.047273E+0	1.032239E+0	1.004240E+0	1.088709E+0	1.027086E+0	1.072508E+0	1.003820E+0	1.016424E+0	9.934798E-1	1.037251E+0	1.015332E+0	1.058510E+0	1.024751E+0	1.033442E+0	1.009430E+0
5.387600E+2	1.231928E+0	1.296000E+0	1.216947E+0	1.226055E+0	1.222879E+0	1.238985E+0	1.267510E+0	1.228444E+0	1.192352E+0	1.184678E+0	1.259180E+0	1.214169E+0	1.194613E+0	1.197808E+0	1.209949E+0	1.211581E+0	1.205086E+0	1.203394E+0	1.240168E+0	1.204057E+0	1.260805E+0	1.205905E+0	1.240347E+0	1.208129E+0	1.200557E+0	1.223229E+0	1.266589E+0	1.256726E+0	1.269266E+0	1.293635E+0	1.232316E+0	1.233156E+0	1.234280E+0	1.192125E+0	1.229361E+0	1.246662E+0	1.226537E+0	1.224960E+0	1.211814E+0	1.238281E+0	1.212963E+0	1.252612E+0	1.224358E+0	1.293788E+0	1.258266E+0	1.219050E+0	1.255675E+0	1.230772E+0	1.238699E+0	1.225167E+0	1.241957E+0	1.224520E+0	1.212562E+0	1.209912E+0	1.232003E+0	1.203697E+0	1.206927E+0	1.205906E+0	1.187293E+0	1.278751E+0	1.230654E+0	1.203964E+0	1.192948E+0	1.300225E+0	1.212907E+0	1.190237E+0	1.247450E+0	1.237313E+0	1.225180E+0	1.229498E+0	1.268230E+0	1.272062E+0	1.166134E+0	1.217541E+0	1.258005E+0	1.259202E+0	1.185751E+0	1.192617E+0	1.260661E+0	1.214613E+0	1.278040E+0	1.196826E+0	1.243924E+0	1.177133E+0	1.233318E+0	1.210142E+0	1.209301E+0	1.226054E+0	1.264066E+0	1.185804E+0	1.247150E+0	1.295303E+0	1.237899E+0	1.182655E+0	1.266322E+0	1.217949E+0	1.288430E+0	1.242231E+0	1.217408E+0	1.237645E+0	1.220918E+0	1.208520E+0	1.285251E+0	1.200281E+0	1.247598E+0	1.281094E+0	1.264889E+0	1.227514E+0	1.203884E+0	1.220670E+0	1.188291E+0	1.222292E+0	1.253438E+0	1.214673E+0	1.193945E+0	1.173329E+0	1.269825E+0	1.202783E+0	1.275337E+0	1.258748E+0	1.205218E+0	1.200498E+0	1.214309E+0	1.259872E+0	1.234734E+0	1.184803E+0	1.225333E+0	1.237341E+0	1.222152E+0	1.242669E+0	1.226692E+0	1.233655E+0	1.222774E+0	1.217859E+0	1.249661E+0	1.263270E+0	1.229242E+0	1.182553E+0	1.188119E+0	1.220182E+0	1.213400E+0	1.209026E+0	1.251964E+0	1.138344E+0	1.262927E+0	1.246130E+0	1.280811E+0	1.202695E+0	1.186413E+0	1.206608E+0	1.291774E+0	1.207117E+0	1.280362E+0	1.243130E+0	1.226673E+0	1.262756E+0	1.221500E+0	1.264910E+0	1.234615E+0	1.235564E+0	1.298002E+0	1.214405E+0	1.237340E+0	1.255273E+0	1.281430E+0	1.184999E+0
5.390390E+2	1.481940E+0	1.479956E+0	1.482582E+0	1.433066E+0	1.411589E+0	1.439629E+0	1.512096E+0	1.487410E+0	1.431938E+0	1.456409E+0	1.469228E+0	1.466173E+0	1.441904E+0	1.441504E+0	1.422076E+0	1.475308E+0	1.508842E+0	1.426853E+0	1.498549E+0	1.437483E+0	1.420534E+0	1.430279E+0	1.429506E+0	1.465092E+0	1.469751E+0	1.444853E+0	1.442248E+0	1.453599E+0	1.503811E+0	1.492956E+0	1.436686E+0	1.430570E+0	1.507656E+0	1.414375E+0	1.489486E+0	1.449398E+0	1.449907E+0	1.441980E+0	1.501198E+0	1.412853E+0	1.520709E+0	1.409831E+0	1.428319E+0	1.414428E+0	1.467639E+0	1.461078E+0	1.450062E+0	1.425863E+0	1.480677E+0	1.419705E+0	1.524955E+0	1.468546E+0	1.460024E+0	1.465891E+0	1.470444E+0	1.488839E+0	1.556205E+0	1.360284E+0	1.455308E+0	1.409113E+0	1.449475E+0	1.463965E+0	1.439420E+0	1.508756E+0	1.428289E+0	1.444536E+0	1.434680E+0	1.389748E+0	1.437634E+0	1.473800E+0	1.489790E+0	1.432317E+0	1.436750E+0	1.429631E+0	1.462454E+0	1.428631E+0	1.390708E+0	1.431882E+0	1.484525E+0	1.473715E+0	1.457951E+0	1.468624E+0	1.458498E+0	1.401580E+0	1.455364E+0	1.455129E+0	1.511234E+0	1.418346E+0	1.432272E+0	1.413038E+0	1.466804E+0	1.449857E+0	1.439548E+0	1.418641E+0	1.413892E+0	1.407902E+0	1.447414E+0	1.386556E+0	1.441941E+0	1.377302E+0	1.456252E+0	1.441492E+0	1.511475E+0	1.403013E+0	1.430655E+0	1.411428E+0	1.425632E+0	1.392249E+0	1.452616E+0	1.431916E+0	1.439607E+0	1.424913E+0	1.448701E+0	1.447492E+0	1.403976E+0	1.483717E+0	1.425366E+0	1.377713E+0	1.387905E+0	1.472641E+0	1.436048E+0	1.461015E+0	1.427902E+0	1.435975E+0	1.488678E+0	1.444279E+0	1.462311E+0	1.474562E+0	1.482402E+0	1.403561E+0	1.464761E+0	1.403936E+0	1.453998E+0	1.429609E+0	1.463605E+0	1.425564E+0	1.483830E+0	1.412733E+0	1.495232E+0	1.446780E+0	1.420643E+0	1.383506E+0	1.477691E+0	1.440702E+0	1.456536E+0	1.408514E+0	1.518756E+0	1.390365E+0	1.407258E+0	1.433243E+0	1.480122E+0	1.431049E+0	1.457001E+0	1.437397E+0	1.482253E+0	1.406749E+0	1.478850E+0	1.394537E+0	1.420658E+0	1.410979E+0	1.465294E+0	1.377312E+0	1.392465E+0	1.403680E+0	1.433684E+0	1.342350E+0
5.392720E+2	1.697598E+0	1.673313E+0	1.692820E+0	1.715766E+0	1.609104E+0	1.710049E+0	1.674054E+0	1.681446E+0	1.598795E+0	1.612435E+0	1.682222E+0	1.685428E+0	1.663118E+0	1.595244E+0	1.713146E+0	1.644700E+0	1.669037E+0	1.657374E+0	1.667255E+0	1.671000E+0	1.721736E+0	1.680593E+0	1.654729E+0	1.724300E+0	1.684395E+0	1.650337E+0	1.755952E+0	1.614841E+0	1.706972E+0	1.695973E+0	1.648974E+0	1.657608E+0	1.755721E+0	1.609393E+0	1.668933E+0	1.679518E+0	1.677088E+0	1.649395E+0	1.647208E+0	1.640543E+0	1.667100E+0	1.730561E+0	1.696953E+0	1.648044E+0	1.711010E+0	1.663608E+0	1.716544E+0	1.645833E+0	1.680542E+0	1.616670E+0	1.684273E+0	1.709727E+0	1.632049E+0	1.690818E+0	1.656786E+0	1.721699E+0	1.628172E+0	1.644884E+0	1.631389E+0	1.679894E+0	1.685581E+0	1.609311E+0	1.619313E+0	1.715611E+0	1.642022E+0	1.712527E+0	1.679300E+0	1.710500E+0	1.698621E+0	1.601556E+0	1.703676E+0	1.636183E+0	1.590939E+0	1.587470E+0	1.695490E+0	1.672113E+0	1.673833E+0	1.588366E+0	1.614327E+0	1.580568E+0	1.708025E+0	1.647001E+0	1.614966E+0	1.622627E+0	1.627460E+0	1.618874E+0	1.732946E+0	1.650469E+0	1.642584E+0	1.635548E+0	1.664587E+0	1.671672E+0	1.638380E+0	1.591277E+0	1.629242E+0	1.668169E+0	1.713102E+0	1.674203E+0	1.692662E+0	1.625054E+0	1.678207E+0	1.680919E+0	1.707909E+0	1.622742E+0	1.568827E+0	1.671200E+0	1.737005E+0	1.625416E+0	1.617817E+0	1.627838E+0	1.631677E+0	1.672166E+0	1.629625E+0	1.661059E+0	1.610742E+0	1.640903E+0	1.635632E+0	1.719658E+0	1.674403E+0	1.675535E+0	1.645126E+0	1.621136E+0	1.659917E+0	1.633476E+0	1.693483E+0	1.624668E+0	1.628981E+0	1.645309E+0	1.626105E+0	1.621353E+0	1.612887E+0	1.622984E+0	1.650594E+0	1.636955E+0	1.687445E+0	1.722593E+0	1.609046E+0	1.610719E+0	1.602102E+0	1.691101E+0	1.664520E+0	1.612166E+0	1.564501E+0	1.587396E+0	1.628935E+0	1.615929E+0	1.709785E+0	1.683079E+0	1.652510E+0	1.605340E+0	1.650880E+0	1.639789E+0	1.660680E+0	1.647618E+0	1.610748E+0	1.640310E+0	1.631317E+0	1.616160E+0	1.635277E+0	1.606272E+0	1.651595E+0	1.535322E+0	1.724458E+0	1.609424E+0	1.612854E+0	1.607034E+0
5.395260E+2	1.835176E+0	1.941650E+0	1.946291E+0	1.931825E+0	1.941087E+0	1.872496E+0	1.963411E+0	1.899122E+0	1.886821E+0	1.831781E+0	1.814159E+0	1.894850E+0	1.952532E+0	1.957784E+0	1.904689E+0	1.887164E+0	1.903300E+0	1.846502E+0	1.821669E+0	1.859018E+0	1.842982E+0	1.855434E+0	1.893320E+0	1.883595E+0	1.948308E+0	1.807201E+0	1.936419E+0	1.879729E+0	1.931753E+0	1.841599E+0	1.853609E+0	1.937787E+0	1.948924E+0	1.859907E+0	1.972645E+0	1.803679E+0	1.878556E+0	1.813306E+0	1.860116E+0	1.811780E+0	1.854843E+0	1.874514E+0	1.869592E+0	1.883992E+0	1.926587E+0	1.887867E+0	1.847052E+0	1.817301E+0	1.953900E+0	1.851928E+0	1.832118E+0	1.852598E+0	1.907703E+0	1.876685E+0	1.875426E+0	1.869826E+0	1.815731E+0	1.849545E+0	1.811790E+0	1.883035E+0	1.948564E+0	1.826261E+0	1.836611E+0	1.885001E+0	1.889715E+0	1.830876E+0	1.843779E+0	1.881323E+0	1.821319E+0	1.834542E+0	1.927978E+0	1.854546E+0	1.792936E+0	1.780746E+0	1.872971E+0	1.853602E+0	1.879759E+0	1.780287E+0	1.888922E+0	1.859814E+0	1.874158E+0	1.767691E+0	1.824464E+0	1.823703E+0	1.899087E+0	1.900365E+0	1.861496E+0	1.829506E+0	1.848264E+0	1.754044E+0	1.833347E+0	1.865821E+0	1.877710E+0	1.810608E+0	1.915677E+0	1.804378E+0	1.901573E+0	1.873262E+0	1.819372E+0	1.872027E+0	1.875679E+0	1.867076E+0	1.909490E+0	1.840194E+0	1.803332E+0	1.819933E+0	1.853464E+0	1.881034E+0	1.856628E+0	1.829886E+0	1.795275E+0	1.844226E+0	1.873271E+0	1.807854E+0	1.820164E+0	1.857024E+0	1.764217E+0	1.840312E+0	1.878261E+0	1.860574E+0	1.812754E+0	1.841731E+0	1.791753E+0	1.879090E+0	1.887927E+0	1.764188E+0	1.848351E+0	1.825301E+0	1.826377E+0	1.832071E+0	1.797349E+0	1.779960E+0	1.772409E+0	1.856143E+0	1.819500E+0	1.893390E+0	1.797683E+0	1.808571E+0	1.790562E+0	1.867878E+0	1.822744E+0	1.812471E+0	1.792964E+0	1.816748E+0	1.798597E+0	1.870629E+0	1.874269E+0	1.840184E+0	1.818066E+0	1.802991E+0	1.851899E+0	1.818865E+0	1.834186E+0	1.822936E+0	1.922089E+0	1.824944E+0	1.782336E+0	1.768439E+0	1.843603E+0	1.786099E+0	1.908158E+0	1.744303E+0	1.831512E+0	1.777362E+0	1.738316E+0	1.898818E+0
5.397910E+2	2.031865E+0	2.106086E+0	2.086582E+0	1.986453E+0	2.006108E+0	2.044695E+0	2.061393E+0	2.031578E+0	2.025514E+0	1.987802E+0	2.122047E+0	2.053515E+0	2.074750E+0	2.062709E+0	2.058988E+0	2.073314E+0	2.054550E+0	2.060988E+0	2.098557E+0	1.970552E+0	2.093832E+0	2.099327E+0	2.048239E+0	2.093879E+0	2.111664E+0	2.051704E+0	2.065460E+0	2.010149E+0	2.019849E+0	2.045527E+0	2.017555E+0	2.039903E+0	2.072151E+0	1.996085E+0	1.976788E+0	2.055014E+0	2.004620E+0	1.971072E+0	2.067490E+0	2.018213E+0	2.027405E+0	2.015867E+0	2.054261E+0	2.049386E+0	2.094706E+0	2.030313E+0	2.016722E+0	2.005793E+0	2.061690E+0	2.038591E+0	2.032841E+0	2.025088E+0	1.993315E+0	1.981638E+0	2.049254E+0	2.049749E+0	2.021878E+0	2.007136E+0	2.040689E+0	2.093511E+0	2.053551E+0	1.939061E+0	2.099650E+0	2.080731E+0	1.980376E+0	2.030132E+0	1.972308E+0	2.025856E+0	1.933006E+0	1.992946E+0	2.087405E+0	2.079909E+0	1.982324E+0	1.960475E+0	2.130894E+0	2.058680E+0	2.004954E+0	1.874844E+0	1.983989E+0	1.994366E+0	2.130136E+0	2.030856E+0	2.016574E+0	1.960361E+0	2.022387E+0	1.985129E+0	1.937045E+0	2.016198E+0	1.984839E+0	2.072935E+0	1.989663E+0	1.976378E+0	1.996285E+0	1.935029E+0	2.003315E+0	1.952506E+0	2.005989E+0	1.994666E+0	2.014904E+0	1.953262E+0	1.974655E+0	1.984215E+0	2.040877E+0	1.983800E+0	1.927624E+0	1.973812E+0	2.075034E+0	1.979387E+0	2.016496E+0	1.933003E+0	2.057570E+0	1.982955E+0	2.008133E+0	2.025233E+0	2.021248E+0	2.035111E+0	1.958441E+0	1.908390E+0	2.017626E+0	2.065484E+0	2.024563E+0	1.989857E+0	1.950565E+0	2.058791E+0	2.007276E+0	1.924826E+0	1.961280E+0	2.077996E+0	1.981592E+0	1.967574E+0	2.003722E+0	1.870327E+0	1.969937E+0	1.936869E+0	1.982313E+0	1.956899E+0	1.990617E+0	1.936037E+0	2.009862E+0	1.991828E+0	1.948454E+0	1.929028E+0	2.029512E+0	1.969025E+0	1.985145E+0	2.012901E+0	2.061406E+0	1.979802E+0	2.012917E+0	1.909261E+0	2.070191E+0	1.969414E+0	1.968251E+0	2.021335E+0	2.078470E+0	1.949915E+0	1.994924E+0	1.929880E+0	1.973089E+0	1.879621E+0	2.033480E+0	1.935559E+0	1.997880E+0	1.934007E+0	1.975532E+0	2.008012E+0
5.400140E+2	2.102423E+0	2.118079E+0	2.025082E+0	2.168146E+0	2.019619E+0	2.078583E+0	2.163939E+0	2.073029E+0	2.041683E+0	2.083649E+0	2.152341E+0	2.066632E+0	2.032409E+0	2.042168E+0	2.137929E+0	2.082290E+0	2.095095E+0	2.073156E+0	2.066674E+0	2.055439E+0	2.096198E+0	2.047896E+0	2.045723E+0	2.117064E+0	2.114985E+0	2.048933E+0	2.157051E+0	2.062121E+0	2.062994E+0	2.061507E+0	2.057020E+0	2.106360E+0	2.159138E+0	2.005179E+0	2.053828E+0	1.996650E+0	2.071298E+0	2.044427E+0	2.125717E+0	2.024553E+0	2.048939E+0	2.033147E+0	2.122060E+0	2.034196E+0	2.071824E+0	2.089690E+0	2.076816E+0	2.010302E+0	2.144104E+0	2.051517E+0	2.140621E+0	2.062293E+0	2.103505E+0	2.055842E+0	2.030734E+0	2.074071E+0	2.053442E+0	2.022896E+0	2.071674E+0	2.121578E+0	2.024726E+0	2.025284E+0	2.027871E+0	2.059296E+0	2.007861E+0	2.013774E+0	2.097157E+0	2.081080E+0	2.130029E+0	2.015188E+0	2.107051E+0	2.002484E+0	1.996442E+0	1.970012E+0	2.030114E+0	2.082130E+0	2.047338E+0	2.015221E+0	2.084717E+0	2.060370E+0	2.055291E+0	2.057039E+0	2.033516E+0	1.973680E+0	2.115668E+0	1.983383E+0	2.077119E+0	1.963255E+0	1.990589E+0	2.033589E+0	2.037175E+0	1.943972E+0	2.045991E+0	1.970140E+0	2.048775E+0	1.949060E+0	2.023465E+0	2.030435E+0	2.025508E+0	2.029124E+0	2.026907E+0	2.060538E+0	2.067423E+0	2.013280E+0	2.030885E+0	1.958220E+0	2.049040E+0	2.044280E+0	2.036396E+0	2.010331E+0	1.965845E+0	2.034884E+0	1.987113E+0	1.983472E+0	2.009786E+0	2.104242E+0	1.994324E+0	1.986511E+0	2.061219E+0	2.000781E+0	2.022085E+0	1.989237E+0	2.076128E+0	2.050830E+0	2.007003E+0	2.008954E+0	2.010866E+0	2.043099E+0	2.032563E+0	2.024900E+0	1.998007E+0	2.053705E+0	1.948547E+0	1.988218E+0	2.044871E+0	2.039808E+0	1.992776E+0	2.017228E+0	1.983138E+0	2.067999E+0	2.005572E+0	1.973902E+0	2.036657E+0	1.933873E+0	1.990186E+0	2.004159E+0	2.027852E+0	1.995662E+0	2.020793E+0	2.055741E+0	2.044857E+0	1.942232E+0	2.042784E+0	2.009008E+0	2.129451E+0	2.012984E+0	1.998828E+0	2.007492E+0	2.022271E+0	1.966906E+0	2.037129E+0	1.947481E+0	1.913654E+0	1.986668E+0	2.091117E+0	1.949273E+0
5.402630E+2	2.049466E+0	2.095128E+0	2.062078E+0	2.082916E+0	2.090494E+0	2.087680E+0	2.108571E+0	2.102228E+0	2.031128E+0	2.093497E+0	2.048631E+0	2.073553E+0	2.114921E+0	2.085343E+0	2.177297E+0	1.997126E+0	2.077372E+0	2.038212E+0	2.049260E+0	2.038741E+0	2.073401E+0	2.067004E+0	1.988686E+0	2.076608E+0	2.083682E+0	1.976834E+0	2.089925E+0	2.024964E+0	2.053258E+0	2.124301E+0	2.006305E+0	2.019471E+0	2.092668E+0	2.006093E+0	2.058748E+0	2.054776E+0	2.129134E+0	2.021505E+0	2.086062E+0	2.044038E+0	2.002259E+0	2.065359E+0	1.996931E+0	1.994053E+0	2.111042E+0	1.972400E+0	2.118981E+0	2.056110E+0	2.060327E+0	2.050657E+0	2.047402E+0	2.022865E+0	2.042262E+0	1.985268E+0	2.052694E+0	2.071473E+0	2.064104E+0	2.054981E+0	2.040166E+0	2.028976E+0	2.012100E+0	1.952837E+0	2.048708E+0	2.089445E+0	1.955833E+0	1.977256E+0	2.040881E+0	2.069024E+0	2.043470E+0	2.025178E+0	2.107636E+0	2.092507E+0	1.970857E+0	1.999917E+0	2.079223E+0	1.979551E+0	1.997691E+0	1.947586E+0	2.030851E+0	2.089276E+0	1.977891E+0	2.004913E+0	2.083245E+0	1.983114E+0	1.998635E+0	2.012932E+0	2.037478E+0	2.021632E+0	2.069131E+0	2.002095E+0	2.011705E+0	2.049883E+0	2.000206E+0	1.926452E+0	2.078242E+0	1.927861E+0	1.992371E+0	2.068605E+0	2.000757E+0	2.032838E+0	2.008253E+0	1.916468E+0	2.009147E+0	2.001527E+0	1.932658E+0	1.937750E+0	2.071700E+0	2.024531E+0	1.999739E+0	1.976137E+0	1.982927E+0	2.024449E+0	1.976064E+0	2.009737E+0	1.992828E+0	1.958198E+0	1.989139E+0	1.924175E+0	2.068858E+0	2.029236E+0	1.970951E+0	1.969253E+0	1.962280E+0	1.960996E+0	2.015662E+0	1.979196E+0	1.997953E+0	2.027789E+0	2.025315E+0	1.946181E+0	1.944806E+0	2.016109E+0	2.002844E+0	1.978895E+0	1.988879E+0	2.005620E+0	2.000230E+0	1.923785E+0	2.034148E+0	1.970469E+0	1.979483E+0	1.990208E+0	1.992301E+0	1.961922E+0	1.988593E+0	1.960106E+0	1.937461E+0	1.975590E+0	1.916605E+0	1.929068E+0	2.056143E+0	1.941311E+0	1.991200E+0	1.996334E+0	2.000520E+0	2.038628E+0	2.000947E+0	1.949813E+0	2.010819E+0	1.966018E+0	1.963765E+0	1.928563E+0	1.998478E+0	2.066214E+0	2.021281E+0	1.927586E+0
5.405080E+2	1.976502E+0	1.980507E+0	1.910254E+0	1.959739E+0	1.921598E+0	1.973520E+0	1.954895E+0	1.977817E+0	1.909626E+0	1.950851E+0	1.935638E+0	1.992029E+0	1.981188E+0	1.922358E+0	2.016420E+0	1.978154E+0	2.022468E+0	1.966665E+0	1.970182E+0	1.925853E+0	1.968141E+0	2.000913E+0	2.061489E+0	1.944941E+0	2.030467E+0	1.919868E+0	2.030178E+0	1.923997E+0	2.032827E+0	2.016675E+0	1.837353E+0	1.994767E+0	2.046331E+0	1.962834E+0	2.001947E+0	1.922632E+0	1.951344E+0	1.930911E+0	1.997063E+0	1.922958E+0	1.954685E+0	1.968611E+0	1.961700E+0	1.969731E+0	1.935705E+0	1.967347E+0	2.014869E+0	1.909669E+0	1.987346E+0	1.959868E+0	1.952213E+0	1.924312E+0	1.951452E+0	1.913605E+0	1.975290E+0	1.973863E+0	1.967389E+0	1.967640E+0	1.971310E+0	1.971937E+0	1.952539E+0	1.903138E+0	1.924227E+0	1.986950E+0	1.984417E+0	1.941538E+0	1.977894E+0	1.923315E+0	1.926090E+0	1.946476E+0	1.954941E+0	1.972183E+0	1.837835E+0	1.957679E+0	2.006458E+0	1.993755E+0	1.922835E+0	1.894369E+0	1.935422E+0	1.942297E+0	2.027637E+0	1.913503E+0	1.918755E+0	1.910820E+0	1.982657E+0	1.921165E+0	1.937310E+0	1.939196E+0	1.980319E+0	1.915920E+0	1.955354E+0	1.857329E+0	1.968513E+0	1.905735E+0	1.921717E+0	1.952675E+0	1.989205E+0	1.945725E+0	1.987078E+0	1.884173E+0	1.915453E+0	1.979455E+0	1.973111E+0	1.943412E+0	1.823162E+0	1.924961E+0	1.992220E+0	1.942524E+0	1.910451E+0	1.899482E+0	1.952243E+0	1.950928E+0	2.012533E+0	1.914285E+0	1.938004E+0	1.850856E+0	1.893957E+0	1.938660E+0	1.957110E+0	1.973606E+0	1.893687E+0	1.950609E+0	1.971470E+0	1.910515E+0	1.912204E+0	1.959389E+0	1.993763E+0	1.880897E+0	1.910219E+0	1.881818E+0	1.901051E+0	1.973553E+0	1.878962E+0	1.921344E+0	1.884280E+0	1.933613E+0	1.903627E+0	1.876661E+0	1.843795E+0	1.885714E+0	1.921995E+0	1.869854E+0	1.916778E+0	1.859018E+0	1.985992E+0	1.906328E+0	1.970114E+0	1.915828E+0	1.968295E+0	1.901651E+0	1.916640E+0	1.975756E+0	1.920503E+0	1.877094E+0	1.906723E+0	1.881611E+0	1.925769E+0	1.821237E+0	1.851086E+0	1.838835E+0	1.863208E+0	1.848739E+0	1.885826E+0	1.887480E+0	1.905104E+0	1.879834E+0
5.407630E+2	1.919427E+0	1.905978E+0	1.916827E+0	1.876511E+0	1.826842E+0	1.870753E+0	1.863900E+0	1.877772E+0	1.898064E+0	1.809870E+0	1.891386E+0	1.910645E+0	1.910691E+0	1.880849E+0	1.931781E+0	1.856165E+0	1.844593E+0	1.816385E+0	1.881108E+0	1.864638E+0	1.855436E+0	1.885013E+0	1.850674E+0	1.858259E+0	1.942683E+0	1.906743E+0	1.903003E+0	1.833944E+0	1.896974E+0	1.885121E+0	1.852355E+0	1.889349E+0	1.897413E+0	1.832329E+0	1.867798E+0	1.916424E+0	1.862098E+0	1.829369E+0	1.904605E+0	1.873457E+0	1.834653E+0	1.869303E+0	1.835178E+0	1.839929E+0	1.911465E+0	1.839807E+0	1.827621E+0	1.814065E+0	1.907684E+0	1.864477E+0	1.830785E+0	1.853855E+0	1.897235E+0	1.834371E+0	1.881249E+0	1.896839E+0	1.922997E+0	1.860182E+0	1.865643E+0	1.803371E+0	1.930447E+0	1.830548E+0	1.792008E+0	1.913175E+0	1.849426E+0	1.904756E+0	1.890495E+0	1.905928E+0	1.880655E+0	1.865506E+0	1.911320E+0	1.822403E+0	1.825232E+0	1.785682E+0	1.902714E+0	1.847348E+0	1.858635E+0	1.791237E+0	1.851191E+0	1.825876E+0	1.934889E+0	1.839374E+0	1.792201E+0	1.858412E+0	1.853913E+0	1.863987E+0	1.869389E+0	1.872602E+0	1.819711E+0	1.809771E+0	1.847943E+0	1.898500E+0	1.863204E+0	1.782289E+0	1.838920E+0	1.799676E+0	1.840558E+0	1.846938E+0	1.822408E+0	1.861633E+0	1.822567E+0	1.817790E+0	1.843343E+0	1.804804E+0	1.815740E+0	1.841953E+0	1.950882E+0	1.856040E+0	1.908346E+0	1.769026E+0	1.817234E+0	1.907834E+0	1.901473E+0	1.850187E+0	1.845798E+0	1.845014E+0	1.869628E+0	1.842667E+0	1.855231E+0	1.871796E+0	1.846828E+0	1.825328E+0	1.889393E+0	1.917935E+0	1.806620E+0	1.864271E+0	1.859870E+0	1.806283E+0	1.866350E+0	1.863654E+0	1.895866E+0	1.803005E+0	1.808412E+0	1.802569E+0	1.801860E+0	1.840223E+0	1.831704E+0	1.832389E+0	1.833901E+0	1.837105E+0	1.826202E+0	1.783281E+0	1.913965E+0	1.783796E+0	1.810025E+0	1.754530E+0	1.906895E+0	1.823195E+0	1.824493E+0	1.776476E+0	1.892209E+0	1.905459E+0	1.839239E+0	1.818420E+0	1.868782E+0	1.852450E+0	1.823460E+0	1.786090E+0	1.801874E+0	1.761788E+0	1.851647E+0	1.779054E+0	1.848900E+0	1.819897E+0	1.835364E+0	1.740243E+0
5.410190E+2	1.860704E+0	1.833528E+0	1.817009E+0	1.764213E+0	1.725874E+0	1.857004E+0	1.789734E+0	1.854246E+0	1.810885E+0	1.798062E+0	1.822276E+0	1.853366E+0	1.846208E+0	1.799478E+0	1.790673E+0	1.747463E+0	1.773805E+0	1.764850E+0	1.731041E+0	1.741291E+0	1.720421E+0	1.797796E+0	1.766672E+0	1.750379E+0	1.831575E+0	1.763403E+0	1.782289E+0	1.784232E+0	1.844601E+0	1.787610E+0	1.801366E+0	1.763101E+0	1.873965E+0	1.755027E+0	1.845648E+0	1.770744E+0	1.769840E+0	1.708636E+0	1.821571E+0	1.764696E+0	1.753647E+0	1.806001E+0	1.809317E+0	1.825647E+0	1.847618E+0	1.775330E+0	1.815710E+0	1.795160E+0	1.787023E+0	1.811549E+0	1.817866E+0	1.807075E+0	1.841875E+0	1.765998E+0	1.816437E+0	1.835637E+0	1.779978E+0	1.789243E+0	1.823497E+0	1.846318E+0	1.806667E+0	1.691391E+0	1.838413E+0	1.840876E+0	1.803640E+0	1.800847E+0	1.787131E+0	1.817186E+0	1.754393E+0	1.788584E+0	1.792110E+0	1.865252E+0	1.770804E+0	1.738811E+0	1.787043E+0	1.776265E+0	1.802834E+0	1.738891E+0	1.852954E+0	1.746173E+0	1.776099E+0	1.747646E+0	1.744223E+0	1.723783E+0	1.794125E+0	1.766316E+0	1.778071E+0	1.796337E+0	1.800991E+0	1.709223E+0	1.815310E+0	1.701670E+0	1.748532E+0	1.671908E+0	1.821374E+0	1.770142E+0	1.797776E+0	1.785527E+0	1.801603E+0	1.820830E+0	1.819224E+0	1.796547E+0	1.825116E+0	1.755591E+0	1.765228E+0	1.786398E+0	1.809383E+0	1.767356E+0	1.795572E+0	1.685477E+0	1.742591E+0	1.777698E+0	1.812564E+0	1.773784E+0	1.725409E+0	1.728426E+0	1.779789E+0	1.703191E+0	1.813996E+0	1.862571E+0	1.787450E+0	1.733403E+0	1.816441E+0	1.744743E+0	1.723696E+0	1.797128E+0	1.726032E+0	1.781024E+0	1.800167E+0	1.734311E+0	1.745657E+0	1.780779E+0	1.768988E+0	1.686046E+0	1.725709E+0	1.766339E+0	1.750495E+0	1.748210E+0	1.803763E+0	1.801889E+0	1.821281E+0	1.736252E+0	1.774488E+0	1.738937E+0	1.752927E+0	1.743958E+0	1.731234E+0	1.764936E+0	1.750821E+0	1.645872E+0	1.810400E+0	1.741532E+0	1.786753E+0	1.743953E+0	1.798928E+0	1.844865E+0	1.767014E+0	1.679479E+0	1.720566E+0	1.696915E+0	1.761843E+0	1.701283E+0	1.760987E+0	1.722271E+0	1.743547E+0	1.682694E+0
5.412640E+2	1.754640E+0	1.727729E+0	1.749758E+0	1.666703E+0	1.665949E+0	1.727817E+0	1.737409E+0	1.780245E+0	1.667339E+0	1.670030E+0	1.712601E+0	1.725412E+0	1.775911E+0	1.652751E+0	1.755862E+0	1.718475E+0	1.767807E+0	1.663213E+0	1.738210E+0	1.697580E+0	1.723035E+0	1.718948E+0	1.713583E+0	1.744352E+0	1.731647E+0	1.685593E+0	1.751549E+0	1.693085E+0	1.710806E+0	1.715345E+0	1.695462E+0	1.676134E+0	1.851732E+0	1.749528E+0	1.716605E+0	1.700848E+0	1.732957E+0	1.670642E+0	1.723246E+0	1.719497E+0	1.700473E+0	1.793639E+0	1.781984E+0	1.783335E+0	1.737119E+0	1.694312E+0	1.692820E+0	1.675298E+0	1.748339E+0	1.710496E+0	1.751284E+0	1.716705E+0	1.729525E+0	1.709428E+0	1.695794E+0	1.798776E+0	1.691656E+0	1.633161E+0	1.694939E+0	1.762389E+0	1.779093E+0	1.703936E+0	1.721120E+0	1.748538E+0	1.721496E+0	1.772359E+0	1.621973E+0	1.770263E+0	1.723281E+0	1.653598E+0	1.719967E+0	1.729891E+0	1.745536E+0	1.654777E+0	1.730288E+0	1.670960E+0	1.641414E+0	1.693005E+0	1.726719E+0	1.777385E+0	1.766392E+0	1.701050E+0	1.660210E+0	1.654292E+0	1.726159E+0	1.711902E+0	1.755207E+0	1.752531E+0	1.734009E+0	1.663347E+0	1.725853E+0	1.619145E+0	1.707052E+0	1.670736E+0	1.689982E+0	1.672627E+0	1.723630E+0	1.658572E+0	1.711276E+0	1.718852E+0	1.723132E+0	1.658490E+0	1.707515E+0	1.667261E+0	1.673795E+0	1.723444E+0	1.774601E+0	1.691273E+0	1.713433E+0	1.657360E+0	1.692206E+0	1.765166E+0	1.693485E+0	1.664187E+0	1.657809E+0	1.696501E+0	1.713422E+0	1.686179E+0	1.681515E+0	1.741514E+0	1.628175E+0	1.659157E+0	1.699544E+0	1.712245E+0	1.737299E+0	1.723967E+0	1.747195E+0	1.669993E+0	1.757987E+0	1.659961E+0	1.705669E+0	1.746462E+0	1.647619E+0	1.659967E+0	1.687203E+0	1.719507E+0	1.723463E+0	1.678855E+0	1.715077E+0	1.705972E+0	1.699568E+0	1.677975E+0	1.673216E+0	1.681552E+0	1.728111E+0	1.659619E+0	1.709785E+0	1.763456E+0	1.647951E+0	1.654113E+0	1.627751E+0	1.756479E+0	1.635044E+0	1.699935E+0	1.618858E+0	1.673894E+0	1.612499E+0	1.714574E+0	1.686697E+0	1.664434E+0	1.736292E+0	1.705561E+0	1.704114E+0	1.653206E+0	1.688383E+0	1.589318E+0
5.415140E+2	1.674743E+0	1.704070E+0	1.661825E+0	1.713036E+0	1.680686E+0	1.654011E+0	1.718670E+0	1.604239E+0	1.655749E+0	1.681517E+0	1.636394E+0	1.617372E+0	1.632089E+0	1.627279E+0	1.656242E+0	1.678393E+0	1.627806E+0	1.608542E+0	1.656334E+0	1.668337E+0	1.695667E+0	1.704049E+0	1.597842E+0	1.701395E+0	1.668431E+0	1.628709E+0	1.604805E+0	1.642510E+0	1.689093E+0	1.629336E+0	1.598703E+0	1.672148E+0	1.699689E+0	1.672449E+0	1.637367E+0	1.659247E+0	1.629758E+0	1.582859E+0	1.636855E+0	1.652804E+0	1.645172E+0	1.623185E+0	1.606310E+0	1.666383E+0	1.655705E+0	1.611012E+0	1.646191E+0	1.609572E+0	1.648771E+0	1.653199E+0	1.655471E+0	1.642523E+0	1.618852E+0	1.612709E+0	1.634248E+0	1.675856E+0	1.569170E+0	1.619994E+0	1.638205E+0	1.649142E+0	1.652840E+0	1.570771E+0	1.660713E+0	1.671165E+0	1.741341E+0	1.657097E+0	1.661197E+0	1.686502E+0	1.669004E+0	1.640420E+0	1.596447E+0	1.673116E+0	1.607805E+0	1.574967E+0	1.678986E+0	1.638451E+0	1.632992E+0	1.522065E+0	1.598253E+0	1.650377E+0	1.690627E+0	1.597666E+0	1.568116E+0	1.603834E+0	1.628949E+0	1.634795E+0	1.584578E+0	1.642159E+0	1.647684E+0	1.590723E+0	1.618910E+0	1.574044E+0	1.623500E+0	1.589456E+0	1.619749E+0	1.539111E+0	1.633092E+0	1.613578E+0	1.594887E+0	1.574999E+0	1.616990E+0	1.641722E+0	1.618018E+0	1.644310E+0	1.597121E+0	1.601359E+0	1.680856E+0	1.604923E+0	1.601289E+0	1.623249E+0	1.630904E+0	1.609012E+0	1.710277E+0	1.637458E+0	1.614748E+0	1.615284E+0	1.577651E+0	1.573195E+0	1.630959E+0	1.630145E+0	1.629695E+0	1.588620E+0	1.605901E+0	1.644527E+0	1.622056E+0	1.612847E+0	1.598883E+0	1.623028E+0	1.577844E+0	1.533434E+0	1.645227E+0	1.611400E+0	1.636782E+0	1.579726E+0	1.602013E+0	1.662554E+0	1.605684E+0	1.583933E+0	1.654884E+0	1.635543E+0	1.652295E+0	1.544826E+0	1.660694E+0	1.593707E+0	1.571575E+0	1.587027E+0	1.627321E+0	1.589164E+0	1.650977E+0	1.579835E+0	1.645475E+0	1.604297E+0	1.647311E+0	1.590228E+0	1.628347E+0	1.645932E+0	1.609757E+0	1.575158E+0	1.615878E+0	1.560704E+0	1.613052E+0	1.539610E+0	1.631036E+0	1.680658E+0	1.550440E+0	1.540649E+0
5.417650E+2	1.559285E+0	1.533361E+0	1.553764E+0	1.494196E+0	1.493276E+0	1.549982E+0	1.480702E+0	1.505401E+0	1.516378E+0	1.480398E+0	1.493703E+0	1.533252E+0	1.501767E+0	1.438305E+0	1.474702E+0	1.554884E+0	1.527701E+0	1.517784E+0	1.573188E+0	1.528997E+0	1.484375E+0	1.461647E+0	1.494727E+0	1.525478E+0	1.510309E+0	1.493090E+0	1.570663E+0	1.489402E+0	1.557377E+0	1.507263E+0	1.499279E+0	1.514794E+0	1.621701E+0	1.472698E+0	1.499415E+0	1.537268E+0	1.494506E+0	1.489575E+0	1.501265E+0	1.491450E+0	1.486971E+0	1.564969E+0	1.520241E+0	1.485007E+0	1.515116E+0	1.524878E+0	1.537168E+0	1.523229E+0	1.515993E+0	1.523026E+0	1.520815E+0	1.448790E+0	1.576796E+0	1.504929E+0	1.468214E+0	1.586763E+0	1.516429E+0	1.504952E+0	1.527871E+0	1.579348E+0	1.531491E+0	1.477310E+0	1.489800E+0	1.548008E+0	1.524052E+0	1.510653E+0	1.508855E+0	1.526003E+0	1.479420E+0	1.506845E+0	1.487040E+0	1.609862E+0	1.499559E+0	1.450084E+0	1.474291E+0	1.562177E+0	1.472507E+0	1.457392E+0	1.472048E+0	1.565121E+0	1.592194E+0	1.418097E+0	1.516766E+0	1.480695E+0	1.518662E+0	1.515746E+0	1.485178E+0	1.503076E+0	1.530924E+0	1.512980E+0	1.447258E+0	1.410265E+0	1.526071E+0	1.450300E+0	1.517203E+0	1.500088E+0	1.549540E+0	1.505553E+0	1.515577E+0	1.518726E+0	1.473652E+0	1.495954E+0	1.490236E+0	1.435422E+0	1.440718E+0	1.501430E+0	1.527853E+0	1.470138E+0	1.500860E+0	1.449422E+0	1.440358E+0	1.523411E+0	1.510441E+0	1.474692E+0	1.476675E+0	1.503119E+0	1.560931E+0	1.465171E+0	1.499033E+0	1.510533E+0	1.474733E+0	1.506139E+0	1.517481E+0	1.548922E+0	1.490550E+0	1.532845E+0	1.560840E+0	1.426481E+0	1.503550E+0	1.470008E+0	1.498544E+0	1.461295E+0	1.481520E+0	1.505497E+0	1.503138E+0	1.421724E+0	1.529206E+0	1.465764E+0	1.464919E+0	1.533175E+0	1.495464E+0	1.509009E+0	1.524351E+0	1.434450E+0	1.508682E+0	1.461093E+0	1.523728E+0	1.526512E+0	1.469959E+0	1.508627E+0	1.578850E+0	1.569617E+0	1.460603E+0	1.523114E+0	1.513014E+0	1.465969E+0	1.512969E+0	1.432512E+0	1.452689E+0	1.487168E+0	1.513024E+0	1.460511E+0	1.504169E+0	1.454372E+0	1.532815E+0	1.470232E+0
5.420110E+2	1.385804E+0	1.354207E+0	1.383202E+0	1.360443E+0	1.360758E+0	1.326584E+0	1.357478E+0	1.386162E+0	1.341745E+0	1.353931E+0	1.339693E+0	1.360959E+0	1.375271E+0	1.385583E+0	1.369177E+0	1.360850E+0	1.388576E+0	1.330370E+0	1.315783E+0	1.338698E+0	1.318491E+0	1.360923E+0	1.375803E+0	1.343996E+0	1.366718E+0	1.346720E+0	1.353554E+0	1.410391E+0	1.374011E+0	1.395852E+0	1.330085E+0	1.316696E+0	1.449444E+0	1.327039E+0	1.373734E+0	1.333151E+0	1.384929E+0	1.379605E+0	1.363712E+0	1.367215E+0	1.358219E+0	1.348736E+0	1.340930E+0	1.377510E+0	1.361856E+0	1.268510E+0	1.347792E+0	1.304044E+0	1.404489E+0	1.382247E+0	1.358339E+0	1.332868E+0	1.350171E+0	1.335188E+0	1.321127E+0	1.399383E+0	1.351704E+0	1.294320E+0	1.359907E+0	1.374247E+0	1.319018E+0	1.264491E+0	1.311441E+0	1.380631E+0	1.400182E+0	1.308763E+0	1.311966E+0	1.392779E+0	1.384767E+0	1.319970E+0	1.338991E+0	1.415423E+0	1.344549E+0	1.313031E+0	1.309366E+0	1.388844E+0	1.324104E+0	1.312638E+0	1.358553E+0	1.374820E+0	1.364632E+0	1.357190E+0	1.292572E+0	1.282493E+0	1.400145E+0	1.312053E+0	1.324885E+0	1.360676E+0	1.320719E+0	1.344859E+0	1.333355E+0	1.341609E+0	1.406919E+0	1.311133E+0	1.353365E+0	1.336262E+0	1.389330E+0	1.324066E+0	1.349024E+0	1.402821E+0	1.392677E+0	1.356376E+0	1.377466E+0	1.321168E+0	1.283966E+0	1.306640E+0	1.360632E+0	1.318090E+0	1.348925E+0	1.318560E+0	1.368676E+0	1.396688E+0	1.343609E+0	1.340389E+0	1.344489E+0	1.348819E+0	1.363945E+0	1.348558E+0	1.385680E+0	1.407627E+0	1.289562E+0	1.347103E+0	1.367840E+0	1.393836E+0	1.341446E+0	1.353308E+0	1.352575E+0	1.331614E+0	1.282307E+0	1.321152E+0	1.385472E+0	1.327361E+0	1.311815E+0	1.320792E+0	1.362284E+0	1.411793E+0	1.306494E+0	1.302327E+0	1.405042E+0	1.336971E+0	1.336964E+0	1.337088E+0	1.426285E+0	1.283406E+0	1.384951E+0	1.309222E+0	1.318917E+0	1.337460E+0	1.381150E+0	1.338669E+0	1.402106E+0	1.344729E+0	1.416655E+0	1.358171E+0	1.426025E+0	1.401414E+0	1.341031E+0	1.304795E+0	1.325287E+0	1.376460E+0	1.379049E+0	1.342461E+0	1.350244E+0	1.348161E+0	1.379806E+0	1.252596E+0
5.422670E+2	1.203656E+0	1.145946E+0	1.183932E+0	1.169097E+0	1.162428E+0	1.188214E+0	1.233493E+0	1.150049E+0	1.134388E+0	1.143794E+0	1.155005E+0	1.177226E+0	1.159965E+0	1.144703E+0	1.166058E+0	1.223745E+0	1.168675E+0	1.120733E+0	1.171176E+0	1.149916E+0	1.187591E+0	1.169101E+0	1.183607E+0	1.177025E+0	1.208493E+0	1.173106E+0	1.251357E+0	1.187299E+0	1.180436E+0	1.189523E+0	1.209193E+0	1.217297E+0	1.206778E+0	1.138590E+0	1.198490E+0	1.147206E+0	1.132208E+0	1.176784E+0	1.148501E+0	1.193386E+0	1.195980E+0	1.207782E+0	1.171128E+0	1.139140E+0	1.181906E+0	1.185622E+0	1.195836E+0	1.194459E+0	1.225713E+0	1.146035E+0	1.198133E+0	1.194287E+0	1.208924E+0	1.186218E+0	1.100983E+0	1.178589E+0	1.217656E+0	1.118285E+0	1.142753E+0	1.178174E+0	1.191287E+0	1.197331E+0	1.155504E+0	1.207639E+0	1.171237E+0	1.146635E+0	1.168090E+0	1.110399E+0	1.180724E+0	1.192497E+0	1.150765E+0	1.232317E+0	1.157329E+0	1.177616E+0	1.172344E+0	1.139482E+0	1.185675E+0	1.146845E+0	1.162048E+0	1.199622E+0	1.237920E+0	1.208011E+0	1.195057E+0	1.144747E+0	1.194372E+0	1.195177E+0	1.208192E+0	1.257862E+0	1.175342E+0	1.179387E+0	1.107314E+0	1.169157E+0	1.209061E+0	1.153425E+0	1.173929E+0	1.133216E+0	1.213159E+0	1.181065E+0	1.188271E+0	1.275628E+0	1.210747E+0	1.160396E+0	1.163466E+0	1.176760E+0	1.156864E+0	1.192108E+0	1.170335E+0	1.187755E+0	1.214607E+0	1.158841E+0	1.145849E+0	1.252411E+0	1.144932E+0	1.214479E+0	1.188230E+0	1.201082E+0	1.167074E+0	1.139152E+0	1.199716E+0	1.206691E+0	1.127887E+0	1.156915E+0	1.150061E+0	1.221394E+0	1.236398E+0	1.161639E+0	1.198725E+0	1.201156E+0	1.235444E+0	1.198850E+0	1.161645E+0	1.171712E+0	1.135874E+0	1.154292E+0	1.270055E+0	1.234166E+0	1.165958E+0	1.146268E+0	1.190005E+0	1.232044E+0	1.193672E+0	1.146998E+0	1.178537E+0	1.186068E+0	1.208024E+0	1.174300E+0	1.168294E+0	1.208365E+0	1.166260E+0	1.081565E+0	1.174113E+0	1.180060E+0	1.133946E+0	1.179767E+0	1.205616E+0	1.201620E+0	1.255413E+0	1.146499E+0	1.181361E+0	1.181786E+0	1.189366E+0	1.193787E+0	1.204029E+0	1.149109E+0	1.168828E+0	1.169199E+0
5.425080E+2	1.044787E+0	1.012140E+0	1.064024E+0	1.057025E+0	1.012513E+0	1.038102E+0	1.066128E+0	1.042041E+0	9.974606E-1	1.035448E+0	1.038850E+0	1.046435E+0	1.102781E+0	1.042875E+0	1.021804E+0	1.053878E+0	1.075081E+0	1.017628E+0	1.047919E+0	1.021396E+0	1.057326E+0	1.072064E+0	1.017337E+0	1.063660E+0	1.087062E+0	1.047133E+0	1.052471E+0	1.083174E+0	1.067384E+0	1.021397E+0	1.021435E+0	1.048393E+0	1.085745E+0	1.025125E+0	1.026593E+0	1.054290E+0	1.025876E+0	1.027277E+0	1.023772E+0	1.022072E+0	1.045851E+0	1.030028E+0	1.087019E+0	1.093494E+0	1.050322E+0	9.949029E-1	1.046520E+0	1.035010E+0	1.024730E+0	1.070574E+0	1.026906E+0	1.072420E+0	1.077965E+0	1.047277E+0	1.062845E+0	1.077443E+0	1.019853E+0	1.031833E+0	9.927053E-1	1.067082E+0	1.057076E+0	1.016712E+0	1.018579E+0	1.080546E+0	1.037084E+0	1.066712E+0	1.001602E+0	1.015791E+0	1.050172E+0	1.077707E+0	1.019972E+0	1.058401E+0	1.054039E+0	1.045567E+0	1.053736E+0	1.040075E+0	1.031128E+0	1.059169E+0	1.065717E+0	1.074708E+0	1.078390E+0	1.040923E+0	1.029205E+0	1.023504E+0	1.035221E+0	9.951279E-1	1.014325E+0	1.027077E+0	1.074152E+0	1.012068E+0	1.030829E+0	1.094639E+0	1.105569E+0	1.079359E+0	1.044502E+0	1.000377E+0	1.044235E+0	1.035725E+0	1.132298E+0	1.059604E+0	1.021976E+0	1.038750E+0	1.037555E+0	1.080378E+0	1.072211E+0	1.066546E+0	1.084659E+0	1.092084E+0	1.085595E+0	1.033678E+0	1.011335E+0	1.054892E+0	1.040627E+0	1.015739E+0	1.037631E+0	1.060357E+0	1.088957E+0	1.036517E+0	1.015801E+0	1.058363E+0	1.031264E+0	1.050148E+0	1.038522E+0	1.077983E+0	1.060926E+0	1.036061E+0	1.087408E+0	1.078519E+0	1.060594E+0	1.066877E+0	1.014996E+0	1.084764E+0	9.898711E-1	1.038877E+0	1.041210E+0	1.102041E+0	1.060342E+0	1.051944E+0	1.002523E+0	1.032197E+0	1.015729E+0	1.048187E+0	1.058395E+0	1.007227E+0	1.057053E+0	1.058029E+0	1.035642E+0	1.095367E+0	1.057561E+0	1.049002E+0	1.105023E+0	1.105370E+0	1.055075E+0	1.042844E+0	1.038946E+0	1.067977E+0	1.105837E+0	9.998698E-1	1.030553E+0	1.038079E+0	1.076837E+0	1.013023E+0	1.050625E+0	9.971907E-1	1.051643E+0	9.739283E-1
5.427600E+2	9.640005E-1	9.652205E-1	1.019655E+0	9.689685E-1	9.506999E-1	9.746676E-1	9.536631E-1	9.861053E-1	9.619396E-1	9.518893E-1	9.603360E-1	9.853419E-1	9.804263E-1	9.779059E-1	9.807550E-1	9.731716E-1	9.463115E-1	9.927958E-1	9.506847E-1	9.860269E-1	9.376191E-1	1.006988E+0	9.622225E-1	9.385366E-1	1.004376E+0	9.600324E-1	9.840527E-1	1.027670E+0	9.712816E-1	9.521131E-1	9.448356E-1	9.775549E-1	9.770077E-1	9.775387E-1	9.443962E-1	9.333288E-1	9.746858E-1	9.849303E-1	9.855318E-1	9.681125E-1	9.788051E-1	9.721855E-1	9.544088E-1	9.442659E-1	9.861613E-1	9.725165E-1	9.575288E-1	9.595181E-1	9.965444E-1	9.639763E-1	9.508322E-1	9.758388E-1	9.646443E-1	9.589358E-1	9.996511E-1	9.983174E-1	9.916792E-1	1.006306E+0	9.307239E-1	9.719653E-1	1.002300E+0	9.139972E-1	9.596701E-1	1.011828E+0	9.830593E-1	9.739611E-1	9.450185E-1	9.615456E-1	1.040393E+0	9.749956E-1	9.575682E-1	1.002818E+0	9.879785E-1	9.369475E-1	9.481180E-1	1.009041E+0	9.810560E-1	9.034958E-1	9.826189E-1	9.991680E-1	1.033888E+0	9.270201E-1	9.808227E-1	9.794775E-1	9.992018E-1	9.312047E-1	9.584413E-1	9.806299E-1	9.563191E-1	9.361263E-1	9.963981E-1	9.993090E-1	1.007939E+0	9.811940E-1	9.410844E-1	9.705346E-1	9.862094E-1	9.760139E-1	9.635165E-1	1.020026E+0	9.431248E-1	9.178922E-1	9.715860E-1	9.442891E-1	9.854657E-1	9.246905E-1	9.485474E-1	1.010360E+0	9.672864E-1	9.875620E-1	9.246931E-1	1.001025E+0	9.678226E-1	9.715091E-1	1.013162E+0	1.025267E+0	9.898266E-1	9.967184E-1	9.686583E-1	1.017253E+0	9.825014E-1	9.902908E-1	9.706461E-1	9.629972E-1	9.865103E-1	9.487495E-1	9.610447E-1	9.656200E-1	1.011311E+0	9.884879E-1	9.451729E-1	1.034786E+0	9.580698E-1	9.623022E-1	9.826298E-1	1.008204E+0	1.041839E+0	9.445340E-1	9.412732E-1	9.645486E-1	9.620862E-1	9.974000E-1	9.782033E-1	9.900691E-1	9.974735E-1	9.850098E-1	9.329893E-1	9.922427E-1	9.795894E-1	9.585690E-1	9.747500E-1	9.777427E-1	9.278399E-1	9.638238E-1	9.709834E-1	1.016797E+0	1.002762E+0	9.463242E-1	9.824256E-1	9.754288E-1	9.744396E-1	1.014367E+0	9.793361E-1	9.117638E-1	9.844658E-1	9.978659E-1
5.430330E+2	1.023060E+0	9.856726E-1	1.038129E+0	1.026225E+0	9.843006E-1	9.865607E-1	1.015607E+0	9.910084E-1	9.949314E-1	1.037277E+0	1.038181E+0	1.003870E+0	1.011548E+0	1.009312E+0	1.013303E+0	1.031455E+0	1.032948E+0	1.036602E+0	1.042234E+0	1.002072E+0	1.014097E+0	9.960875E-1	1.023883E+0	1.029079E+0	1.046279E+0	9.949685E-1	1.034043E+0	1.011046E+0	1.032011E+0	1.056095E+0	1.045148E+0	1.045270E+0	1.044399E+0	9.759686E-1	1.020207E+0	9.913557E-1	1.031234E+0	9.435932E-1	9.707908E-1	1.030423E+0	1.057401E+0	1.017305E+0	1.002397E+0	1.015353E+0	1.014692E+0	1.011945E+0	1.060685E+0	1.034944E+0	1.012371E+0	1.022929E+0	1.025338E+0	1.040766E+0	1.040561E+0	1.009005E+0	9.775297E-1	1.050880E+0	1.001283E+0	1.023121E+0	1.013004E+0	1.061860E+0	1.016913E+0	9.626424E-1	9.891841E-1	1.034663E+0	1.026321E+0	1.014535E+0	1.021152E+0	1.058477E+0	1.008165E+0	1.053408E+0	1.016607E+0	1.004932E+0	1.022319E+0	1.013341E+0	1.032385E+0	1.018571E+0	9.493860E-1	9.538316E-1	1.044664E+0	1.064335E+0	1.042978E+0	1.009442E+0	9.940151E-1	1.010437E+0	1.064455E+0	9.938782E-1	1.016824E+0	9.801778E-1	1.027342E+0	9.760976E-1	1.008521E+0	1.042431E+0	1.029660E+0	1.021373E+0	1.037186E+0	1.004389E+0	1.036489E+0	1.005678E+0	1.052799E+0	1.017135E+0	1.042215E+0	1.007820E+0	1.008577E+0	1.026461E+0	1.052739E+0	1.045182E+0	1.061991E+0	1.050272E+0	1.071314E+0	9.968110E-1	1.006726E+0	1.012163E+0	1.050029E+0	1.054441E+0	1.019617E+0	1.053850E+0	1.023915E+0	1.027174E+0	1.029807E+0	1.076266E+0	9.737970E-1	1.069488E+0	9.951269E-1	1.044523E+0	1.026895E+0	1.030457E+0	1.007901E+0	1.058879E+0	1.008178E+0	1.026675E+0	1.011187E+0	1.040289E+0	1.014099E+0	9.777833E-1	1.063288E+0	1.035943E+0	1.051698E+0	1.019401E+0	1.034362E+0	1.085571E+0	1.093503E+0	9.931927E-1	1.025473E+0	1.007322E+0	1.021766E+0	9.971916E-1	1.000987E+0	1.037262E+0	1.020958E+0	1.051118E+0	1.015080E+0	1.036914E+0	1.005583E+0	9.903092E-1	1.013819E+0	9.896088E-1	1.004056E+0	1.018354E+0	9.770048E-1	1.021407E+0	1.061636E+0	1.037759E+0	9.861476E-1	9.937293E-1	1.003551E+0	9.097423E-1
5.432640E+2	1.078838E+0	1.048810E+0	1.073875E+0	1.029869E+0	1.050243E+0	1.077920E+0	1.071398E+0	1.100106E+0	1.070938E+0	1.040716E+0	1.075699E+0	1.063262E+0	1.099736E+0	1.068345E+0	1.067769E+0	1.070268E+0	1.096937E+0	1.047101E+0	1.079227E+0	1.075471E+0	1.131645E+0	1.095688E+0	1.077916E+0	1.126496E+0	1.111094E+0	1.004641E+0	1.119540E+0	1.076942E+0	1.128096E+0	1.086781E+0	1.114552E+0	1.082461E+0	1.071749E+0	1.078322E+0	1.108541E+0	1.104083E+0	1.098556E+0	1.101794E+0	1.091046E+0	1.088363E+0	1.104429E+0	1.085598E+0	1.095500E+0	1.134212E+0	1.105237E+0	1.062204E+0	1.101659E+0	1.099693E+0	1.136583E+0	1.105286E+0	1.083352E+0	1.068773E+0	1.073854E+0	1.097514E+0	1.079716E+0	1.077592E+0	1.050162E+0	1.025594E+0	1.059398E+0	1.105253E+0	1.085478E+0	1.059580E+0	1.048052E+0	1.123481E+0	1.133109E+0	1.086283E+0	1.085001E+0	1.050335E+0	1.097652E+0	1.086529E+0	1.084327E+0	1.098981E+0	1.105376E+0	1.111598E+0	1.068618E+0	1.105420E+0	1.157713E+0	1.039485E+0	1.053722E+0	1.084791E+0	1.100860E+0	1.066974E+0	1.094582E+0	1.038258E+0	1.117051E+0	1.093448E+0	1.083273E+0	1.144857E+0	1.036189E+0	1.056413E+0	1.108861E+0	1.095770E+0	1.135183E+0	1.055676E+0	1.097632E+0	1.101028E+0	1.041995E+0	1.087653E+0	1.091109E+0	1.098419E+0	1.052594E+0	1.081048E+0	1.085871E+0	1.118385E+0	1.098490E+0	1.078281E+0	1.053708E+0	1.123568E+0	1.095609E+0	1.039320E+0	1.072900E+0	1.122784E+0	1.085995E+0	1.069568E+0	1.074559E+0	1.116736E+0	1.050213E+0	1.087238E+0	1.050199E+0	1.095072E+0	1.093309E+0	1.107383E+0	1.058505E+0	1.081320E+0	1.131661E+0	1.055442E+0	1.107738E+0	1.102068E+0	1.080080E+0	1.088078E+0	1.075000E+0	1.098476E+0	1.092272E+0	1.031883E+0	1.081485E+0	1.095867E+0	1.101782E+0	1.043386E+0	1.079017E+0	1.129659E+0	1.090149E+0	1.058989E+0	1.110840E+0	1.107676E+0	1.044542E+0	1.120712E+0	1.121037E+0	1.092704E+0	1.139228E+0	1.034700E+0	1.086994E+0	1.113300E+0	1.069482E+0	1.087810E+0	1.097482E+0	1.089816E+0	1.088419E+0	1.104351E+0	1.103384E+0	1.078637E+0	1.108796E+0	1.040122E+0	1.067638E+0	1.128532E+0	1.115587E+0	1.106828E+0
5.435110E+2	1.319140E+0	1.306857E+0	1.291476E+0	1.265997E+0	1.242446E+0	1.304848E+0	1.321295E+0	1.323650E+0	1.261253E+0	1.245249E+0	1.317800E+0	1.248342E+0	1.339246E+0	1.278391E+0	1.305666E+0	1.299585E+0	1.266881E+0	1.277190E+0	1.271368E+0	1.287103E+0	1.223351E+0	1.233745E+0	1.280632E+0	1.280203E+0	1.316759E+0	1.297920E+0	1.269107E+0	1.271878E+0	1.327969E+0	1.284003E+0	1.290574E+0	1.289264E+0	1.330999E+0	1.295657E+0	1.236230E+0	1.236762E+0	1.316629E+0	1.259270E+0	1.234677E+0	1.227274E+0	1.314299E+0	1.296244E+0	1.289604E+0	1.305266E+0	1.334602E+0	1.270193E+0	1.253345E+0	1.300477E+0	1.343995E+0	1.225155E+0	1.289399E+0	1.297637E+0	1.276192E+0	1.288047E+0	1.295661E+0	1.311799E+0	1.283963E+0	1.254082E+0	1.318219E+0	1.341923E+0	1.289244E+0	1.230669E+0	1.264049E+0	1.252315E+0	1.322882E+0	1.296262E+0	1.278435E+0	1.286455E+0	1.285076E+0	1.300648E+0	1.285544E+0	1.306341E+0	1.255911E+0	1.275696E+0	1.271343E+0	1.302683E+0	1.270657E+0	1.227357E+0	1.268837E+0	1.295781E+0	1.271309E+0	1.230470E+0	1.271103E+0	1.232998E+0	1.286702E+0	1.276334E+0	1.254934E+0	1.306426E+0	1.263971E+0	1.247982E+0	1.217262E+0	1.261196E+0	1.275649E+0	1.254547E+0	1.242445E+0	1.266635E+0	1.327955E+0	1.253138E+0	1.302523E+0	1.276878E+0	1.251040E+0	1.309331E+0	1.246234E+0	1.251228E+0	1.297660E+0	1.226492E+0	1.296839E+0	1.250673E+0	1.266961E+0	1.183388E+0	1.260048E+0	1.251418E+0	1.347910E+0	1.218700E+0	1.214292E+0	1.296212E+0	1.282637E+0	1.243305E+0	1.250025E+0	1.229827E+0	1.253741E+0	1.254262E+0	1.246303E+0	1.276979E+0	1.298151E+0	1.267422E+0	1.309980E+0	1.349332E+0	1.225686E+0	1.278573E+0	1.244624E+0	1.301589E+0	1.306021E+0	1.288371E+0	1.225682E+0	1.348545E+0	1.271439E+0	1.240731E+0	1.263643E+0	1.307443E+0	1.240611E+0	1.291464E+0	1.271463E+0	1.285072E+0	1.264868E+0	1.305740E+0	1.315137E+0	1.282900E+0	1.265214E+0	1.198177E+0	1.237782E+0	1.282438E+0	1.266177E+0	1.295344E+0	1.268763E+0	1.305150E+0	1.313781E+0	1.227297E+0	1.253276E+0	1.278079E+0	1.304575E+0	1.232819E+0	1.306713E+0	1.244212E+0	1.271232E+0	1.263392E+0
5.437640E+2	1.416320E+0	1.397446E+0	1.433653E+0	1.496802E+0	1.422394E+0	1.437366E+0	1.431764E+0	1.474619E+0	1.405932E+0	1.436495E+0	1.401262E+0	1.462601E+0	1.471248E+0	1.440857E+0	1.406544E+0	1.391721E+0	1.408350E+0	1.453375E+0	1.429790E+0	1.426204E+0	1.474323E+0	1.450370E+0	1.455608E+0	1.411210E+0	1.443764E+0	1.390096E+0	1.501014E+0	1.533085E+0	1.479525E+0	1.468137E+0	1.420316E+0	1.469888E+0	1.481003E+0	1.420657E+0	1.462770E+0	1.471954E+0	1.436160E+0	1.434734E+0	1.455810E+0	1.491637E+0	1.485136E+0	1.436769E+0	1.465203E+0	1.537885E+0	1.481654E+0	1.417042E+0	1.460218E+0	1.395642E+0	1.430049E+0	1.443353E+0	1.465294E+0	1.461538E+0	1.467924E+0	1.413156E+0	1.471903E+0	1.457587E+0	1.443807E+0	1.456851E+0	1.434419E+0	1.522324E+0	1.491673E+0	1.410541E+0	1.440272E+0	1.429302E+0	1.435622E+0	1.438809E+0	1.403907E+0	1.432415E+0	1.446641E+0	1.441208E+0	1.449236E+0	1.436531E+0	1.440843E+0	1.452963E+0	1.424235E+0	1.449385E+0	1.416578E+0	1.402081E+0	1.456920E+0	1.484839E+0	1.453590E+0	1.443997E+0	1.391757E+0	1.452898E+0	1.446818E+0	1.420075E+0	1.444629E+0	1.466097E+0	1.390839E+0	1.457031E+0	1.427181E+0	1.434207E+0	1.466825E+0	1.408391E+0	1.417404E+0	1.371791E+0	1.440559E+0	1.440113E+0	1.405499E+0	1.425981E+0	1.431545E+0	1.384043E+0	1.440501E+0	1.427356E+0	1.403095E+0	1.438266E+0	1.469731E+0	1.456371E+0	1.446519E+0	1.409195E+0	1.434215E+0	1.435714E+0	1.449755E+0	1.430286E+0	1.390100E+0	1.360328E+0	1.479267E+0	1.453689E+0	1.468946E+0	1.496139E+0	1.387620E+0	1.480052E+0	1.428503E+0	1.450071E+0	1.444964E+0	1.425796E+0	1.451213E+0	1.508802E+0	1.427737E+0	1.412539E+0	1.453660E+0	1.433401E+0	1.406191E+0	1.424823E+0	1.424777E+0	1.440077E+0	1.461352E+0	1.395316E+0	1.386948E+0	1.457837E+0	1.430377E+0	1.384697E+0	1.461512E+0	1.421617E+0	1.471245E+0	1.463109E+0	1.448526E+0	1.449813E+0	1.431611E+0	1.392843E+0	1.395253E+0	1.486383E+0	1.456695E+0	1.464267E+0	1.403033E+0	1.515247E+0	1.457762E+0	1.378214E+0	1.401222E+0	1.421831E+0	1.494425E+0	1.400139E+0	1.415358E+0	1.424450E+0	1.447000E+0	1.466216E+0
5.440280E+2	1.603603E+0	1.555763E+0	1.543114E+0	1.571581E+0	1.563942E+0	1.565032E+0	1.591720E+0	1.527607E+0	1.513969E+0	1.547726E+0	1.617816E+0	1.552097E+0	1.559729E+0	1.585920E+0	1.553908E+0	1.614485E+0	1.643533E+0	1.571613E+0	1.527461E+0	1.595059E+0	1.525076E+0	1.579402E+0	1.531162E+0	1.600221E+0	1.589856E+0	1.533299E+0	1.564120E+0	1.552335E+0	1.574056E+0	1.597797E+0	1.554088E+0	1.616351E+0	1.591644E+0	1.550061E+0	1.520470E+0	1.536543E+0	1.592157E+0	1.540812E+0	1.548891E+0	1.568333E+0	1.586378E+0	1.635594E+0	1.503003E+0	1.551186E+0	1.616962E+0	1.543482E+0	1.563015E+0	1.543357E+0	1.609069E+0	1.537176E+0	1.597641E+0	1.551804E+0	1.587025E+0	1.557586E+0	1.564197E+0	1.594548E+0	1.557130E+0	1.556084E+0	1.505945E+0	1.546536E+0	1.532737E+0	1.503774E+0	1.560446E+0	1.572534E+0	1.635662E+0	1.571473E+0	1.503605E+0	1.538838E+0	1.545955E+0	1.577559E+0	1.563155E+0	1.577733E+0	1.505509E+0	1.586873E+0	1.528395E+0	1.584000E+0	1.584369E+0	1.465485E+0	1.556628E+0	1.575365E+0	1.565629E+0	1.455937E+0	1.542990E+0	1.512904E+0	1.530999E+0	1.565918E+0	1.553842E+0	1.574385E+0	1.553131E+0	1.561088E+0	1.523833E+0	1.561426E+0	1.575429E+0	1.520126E+0	1.571034E+0	1.516626E+0	1.575855E+0	1.523774E+0	1.542807E+0	1.581495E+0	1.519187E+0	1.535530E+0	1.520959E+0	1.531642E+0	1.538405E+0	1.501036E+0	1.558312E+0	1.585849E+0	1.514225E+0	1.524751E+0	1.498520E+0	1.574369E+0	1.533390E+0	1.473297E+0	1.479290E+0	1.526813E+0	1.558483E+0	1.546028E+0	1.533189E+0	1.580870E+0	1.510319E+0	1.564472E+0	1.540429E+0	1.607836E+0	1.581776E+0	1.570646E+0	1.573333E+0	1.591028E+0	1.522743E+0	1.517685E+0	1.534727E+0	1.521267E+0	1.482628E+0	1.507941E+0	1.468247E+0	1.571462E+0	1.516944E+0	1.476542E+0	1.584129E+0	1.540997E+0	1.537175E+0	1.501876E+0	1.536581E+0	1.547699E+0	1.575781E+0	1.540729E+0	1.540693E+0	1.488846E+0	1.481837E+0	1.506153E+0	1.511700E+0	1.580587E+0	1.505793E+0	1.515160E+0	1.494432E+0	1.496794E+0	1.555253E+0	1.516041E+0	1.555845E+0	1.486032E+0	1.657165E+0	1.459683E+0	1.535838E+0	1.612119E+0	1.618787E+0	1.466962E+0
5.442810E+2	1.646114E+0	1.679567E+0	1.654843E+0	1.643855E+0	1.560349E+0	1.655668E+0	1.618552E+0	1.570430E+0	1.598265E+0	1.570213E+0	1.588937E+0	1.591579E+0	1.624255E+0	1.571721E+0	1.590629E+0	1.637032E+0	1.631867E+0	1.605831E+0	1.627663E+0	1.576420E+0	1.606128E+0	1.595989E+0	1.589966E+0	1.577110E+0	1.706627E+0	1.592984E+0	1.637602E+0	1.635878E+0	1.716786E+0	1.634421E+0	1.618128E+0	1.638687E+0	1.673512E+0	1.581544E+0	1.614275E+0	1.574885E+0	1.566320E+0	1.591923E+0	1.591811E+0	1.656838E+0	1.563239E+0	1.635046E+0	1.586959E+0	1.621816E+0	1.652694E+0	1.586222E+0	1.597259E+0	1.600240E+0	1.642448E+0	1.620305E+0	1.671817E+0	1.654720E+0	1.662477E+0	1.652799E+0	1.573754E+0	1.613316E+0	1.606405E+0	1.618365E+0	1.561617E+0	1.698032E+0	1.591162E+0	1.575184E+0	1.606015E+0	1.642170E+0	1.581228E+0	1.590900E+0	1.625732E+0	1.628134E+0	1.637565E+0	1.668476E+0	1.568366E+0	1.616765E+0	1.545188E+0	1.600440E+0	1.617526E+0	1.663908E+0	1.574553E+0	1.553084E+0	1.627523E+0	1.594662E+0	1.625089E+0	1.608749E+0	1.544747E+0	1.588669E+0	1.628976E+0	1.613194E+0	1.585808E+0	1.666363E+0	1.582101E+0	1.598997E+0	1.556291E+0	1.612442E+0	1.588006E+0	1.566781E+0	1.604538E+0	1.554876E+0	1.645889E+0	1.574250E+0	1.602647E+0	1.593871E+0	1.589883E+0	1.560843E+0	1.603819E+0	1.687693E+0	1.567970E+0	1.582054E+0	1.621951E+0	1.588610E+0	1.609593E+0	1.571974E+0	1.564470E+0	1.632011E+0	1.625467E+0	1.603214E+0	1.584982E+0	1.631015E+0	1.584059E+0	1.565784E+0	1.586770E+0	1.564010E+0	1.571481E+0	1.611570E+0	1.575389E+0	1.613391E+0	1.572301E+0	1.570065E+0	1.564168E+0	1.554082E+0	1.619901E+0	1.594717E+0	1.547835E+0	1.596560E+0	1.576771E+0	1.638629E+0	1.520037E+0	1.635326E+0	1.590064E+0	1.591469E+0	1.527274E+0	1.611756E+0	1.571798E+0	1.571959E+0	1.595564E+0	1.561519E+0	1.559997E+0	1.541324E+0	1.572249E+0	1.611723E+0	1.569775E+0	1.584178E+0	1.627629E+0	1.658391E+0	1.579060E+0	1.575678E+0	1.555455E+0	1.625939E+0	1.581661E+0	1.577763E+0	1.567372E+0	1.626050E+0	1.656846E+0	1.519172E+0	1.540206E+0	1.553431E+0	1.578292E+0	1.464073E+0
5.445400E+2	1.670170E+0	1.588566E+0	1.675650E+0	1.639393E+0	1.669982E+0	1.611753E+0	1.602639E+0	1.617777E+0	1.560245E+0	1.639200E+0	1.616908E+0	1.588973E+0	1.689362E+0	1.630462E+0	1.647261E+0	1.600405E+0	1.627437E+0	1.630122E+0	1.654782E+0	1.601648E+0	1.625241E+0	1.615270E+0	1.650967E+0	1.567159E+0	1.637449E+0	1.596758E+0	1.640108E+0	1.655320E+0	1.692629E+0	1.673969E+0	1.625543E+0	1.643867E+0	1.654133E+0	1.620767E+0	1.650350E+0	1.615035E+0	1.641837E+0	1.559245E+0	1.610209E+0	1.657543E+0	1.618961E+0	1.646045E+0	1.586682E+0	1.646744E+0	1.628852E+0	1.598819E+0	1.608691E+0	1.628619E+0	1.666341E+0	1.580208E+0	1.624522E+0	1.635654E+0	1.652626E+0	1.624006E+0	1.660262E+0	1.572606E+0	1.635724E+0	1.597293E+0	1.614762E+0	1.633918E+0	1.602439E+0	1.560245E+0	1.578286E+0	1.631969E+0	1.641696E+0	1.679129E+0	1.600141E+0	1.619379E+0	1.651695E+0	1.585069E+0	1.564240E+0	1.679918E+0	1.597108E+0	1.603579E+0	1.547042E+0	1.648249E+0	1.655511E+0	1.583212E+0	1.665757E+0	1.636651E+0	1.650292E+0	1.629694E+0	1.605119E+0	1.589061E+0	1.621023E+0	1.594442E+0	1.601002E+0	1.638060E+0	1.603960E+0	1.588655E+0	1.557312E+0	1.670896E+0	1.657229E+0	1.564383E+0	1.644809E+0	1.607831E+0	1.595164E+0	1.586895E+0	1.611838E+0	1.621601E+0	1.583793E+0	1.606109E+0	1.591135E+0	1.614623E+0	1.542344E+0	1.571850E+0	1.611525E+0	1.618536E+0	1.632302E+0	1.584196E+0	1.597092E+0	1.566988E+0	1.645617E+0	1.565682E+0	1.564055E+0	1.584907E+0	1.557642E+0	1.586182E+0	1.577612E+0	1.597453E+0	1.647152E+0	1.601097E+0	1.602069E+0	1.654255E+0	1.650640E+0	1.570958E+0	1.638486E+0	1.617998E+0	1.618233E+0	1.569872E+0	1.537675E+0	1.613902E+0	1.580425E+0	1.617864E+0	1.581034E+0	1.679773E+0	1.654267E+0	1.618308E+0	1.545997E+0	1.622843E+0	1.611485E+0	1.587469E+0	1.572940E+0	1.507125E+0	1.665859E+0	1.578577E+0	1.644510E+0	1.610786E+0	1.634436E+0	1.613240E+0	1.650469E+0	1.620604E+0	1.572908E+0	1.560883E+0	1.573747E+0	1.686362E+0	1.594328E+0	1.551752E+0	1.555999E+0	1.604083E+0	1.652237E+0	1.601775E+0	1.597538E+0	1.591088E+0	1.609130E+0	1.621776E+0
5.447610E+2	1.532133E+0	1.593134E+0	1.595848E+0	1.679377E+0	1.623951E+0	1.614053E+0	1.635596E+0	1.569365E+0	1.567037E+0	1.587901E+0	1.552979E+0	1.519378E+0	1.661644E+0	1.612864E+0	1.658072E+0	1.619483E+0	1.634873E+0	1.553017E+0	1.633371E+0	1.602090E+0	1.577151E+0	1.596140E+0	1.540599E+0	1.560170E+0	1.686119E+0	1.610788E+0	1.601558E+0	1.570929E+0	1.637487E+0	1.563263E+0	1.569912E+0	1.604340E+0	1.631792E+0	1.598835E+0	1.605565E+0	1.572217E+0	1.603559E+0	1.583529E+0	1.566802E+0	1.607113E+0	1.603096E+0	1.573538E+0	1.614524E+0	1.538631E+0	1.578173E+0	1.625806E+0	1.617399E+0	1.623822E+0	1.632789E+0	1.572110E+0	1.648896E+0	1.622068E+0	1.613927E+0	1.589948E+0	1.595500E+0	1.593763E+0	1.596110E+0	1.576693E+0	1.505507E+0	1.596968E+0	1.662632E+0	1.619184E+0	1.576332E+0	1.567239E+0	1.662798E+0	1.627188E+0	1.546138E+0	1.629212E+0	1.600990E+0	1.608622E+0	1.635189E+0	1.651465E+0	1.534557E+0	1.561779E+0	1.671554E+0	1.642125E+0	1.613949E+0	1.598356E+0	1.592024E+0	1.653916E+0	1.674277E+0	1.658483E+0	1.549457E+0	1.540718E+0	1.615718E+0	1.568191E+0	1.610818E+0	1.576686E+0	1.580451E+0	1.538901E+0	1.552364E+0	1.644547E+0	1.582347E+0	1.573053E+0	1.577109E+0	1.557292E+0	1.621259E+0	1.490138E+0	1.535866E+0	1.602698E+0	1.532298E+0	1.643238E+0	1.559521E+0	1.621907E+0	1.620046E+0	1.593948E+0	1.574819E+0	1.634197E+0	1.588876E+0	1.572999E+0	1.612141E+0	1.640292E+0	1.628067E+0	1.607572E+0	1.583843E+0	1.598284E+0	1.603665E+0	1.653502E+0	1.579249E+0	1.605063E+0	1.575248E+0	1.596285E+0	1.588082E+0	1.559185E+0	1.609660E+0	1.548454E+0	1.590616E+0	1.587206E+0	1.683439E+0	1.572527E+0	1.556895E+0	1.581004E+0	1.571973E+0	1.648802E+0	1.575311E+0	1.655636E+0	1.564811E+0	1.615122E+0	1.530559E+0	1.719354E+0	1.566505E+0	1.520390E+0	1.607318E+0	1.593777E+0	1.633059E+0	1.649898E+0	1.629916E+0	1.567259E+0	1.607064E+0	1.580730E+0	1.522486E+0	1.583090E+0	1.557507E+0	1.601712E+0	1.554478E+0	1.621824E+0	1.606385E+0	1.554620E+0	1.516031E+0	1.539441E+0	1.681584E+0	1.545998E+0	1.623692E+0	1.527764E+0	1.487451E+0	1.522589E+0
5.450150E+2	1.547785E+0	1.578824E+0	1.559897E+0	1.565571E+0	1.543526E+0	1.548052E+0	1.535034E+0	1.551742E+0	1.501302E+0	1.501330E+0	1.513630E+0	1.566340E+0	1.533375E+0	1.551135E+0	1.540732E+0	1.516770E+0	1.579289E+0	1.475191E+0	1.484395E+0	1.475932E+0	1.532913E+0	1.496061E+0	1.490713E+0	1.450898E+0	1.579497E+0	1.463944E+0	1.548026E+0	1.523280E+0	1.623931E+0	1.496845E+0	1.559333E+0	1.538791E+0	1.500061E+0	1.571261E+0	1.551567E+0	1.568429E+0	1.500975E+0	1.494734E+0	1.487726E+0	1.510034E+0	1.555020E+0	1.512295E+0	1.520016E+0	1.478336E+0	1.523790E+0	1.533740E+0	1.520808E+0	1.532351E+0	1.548765E+0	1.507684E+0	1.498764E+0	1.516575E+0	1.541597E+0	1.502415E+0	1.540288E+0	1.579529E+0	1.524859E+0	1.489370E+0	1.553716E+0	1.544778E+0	1.532379E+0	1.468918E+0	1.519256E+0	1.573656E+0	1.593743E+0	1.491118E+0	1.489437E+0	1.483585E+0	1.527823E+0	1.520291E+0	1.503781E+0	1.596749E+0	1.524104E+0	1.533321E+0	1.591628E+0	1.569138E+0	1.533943E+0	1.462604E+0	1.477601E+0	1.526773E+0	1.579341E+0	1.476490E+0	1.538420E+0	1.494192E+0	1.577801E+0	1.541715E+0	1.543490E+0	1.494931E+0	1.487057E+0	1.492657E+0	1.577834E+0	1.485137E+0	1.482000E+0	1.491804E+0	1.524322E+0	1.501129E+0	1.543344E+0	1.464507E+0	1.494431E+0	1.521650E+0	1.526574E+0	1.538004E+0	1.515860E+0	1.516722E+0	1.533970E+0	1.450878E+0	1.468775E+0	1.494861E+0	1.561536E+0	1.512717E+0	1.471516E+0	1.561852E+0	1.546108E+0	1.513899E+0	1.452312E+0	1.561355E+0	1.577426E+0	1.504970E+0	1.507112E+0	1.513166E+0	1.496279E+0	1.503760E+0	1.486142E+0	1.505489E+0	1.541615E+0	1.489609E+0	1.558812E+0	1.581931E+0	1.532780E+0	1.536392E+0	1.447161E+0	1.530937E+0	1.496187E+0	1.553927E+0	1.447581E+0	1.577150E+0	1.541697E+0	1.434405E+0	1.516841E+0	1.528046E+0	1.581568E+0	1.494994E+0	1.545010E+0	1.522021E+0	1.428139E+0	1.511329E+0	1.496001E+0	1.514252E+0	1.432791E+0	1.462254E+0	1.522798E+0	1.535241E+0	1.528957E+0	1.505253E+0	1.503840E+0	1.546052E+0	1.531809E+0	1.509828E+0	1.477190E+0	1.524917E+0	1.562128E+0	1.476870E+0	1.507387E+0	1.440280E+0	1.554945E+0	1.474323E+0
5.452640E+2	1.484929E+0	1.478024E+0	1.514362E+0	1.416639E+0	1.448426E+0	1.465857E+0	1.422817E+0	1.398991E+0	1.463234E+0	1.399925E+0	1.480173E+0	1.459564E+0	1.461904E+0	1.444828E+0	1.492449E+0	1.439451E+0	1.498993E+0	1.482769E+0	1.433237E+0	1.450660E+0	1.452173E+0	1.475011E+0	1.440162E+0	1.410664E+0	1.480069E+0	1.411025E+0	1.444600E+0	1.437480E+0	1.488962E+0	1.383214E+0	1.387122E+0	1.400397E+0	1.448033E+0	1.459904E+0	1.482629E+0	1.454614E+0	1.418604E+0	1.406109E+0	1.422988E+0	1.400978E+0	1.484237E+0	1.489887E+0	1.424064E+0	1.445527E+0	1.455000E+0	1.421329E+0	1.495593E+0	1.434134E+0	1.508680E+0	1.421597E+0	1.475251E+0	1.427517E+0	1.467384E+0	1.432171E+0	1.442639E+0	1.440725E+0	1.444916E+0	1.447634E+0	1.447422E+0	1.496039E+0	1.536528E+0	1.488980E+0	1.442095E+0	1.482925E+0	1.427046E+0	1.437238E+0	1.472191E+0	1.428904E+0	1.417747E+0	1.479172E+0	1.435386E+0	1.440107E+0	1.449699E+0	1.401159E+0	1.416521E+0	1.439166E+0	1.417003E+0	1.389018E+0	1.472408E+0	1.439132E+0	1.455652E+0	1.422780E+0	1.414766E+0	1.468251E+0	1.451258E+0	1.460168E+0	1.416589E+0	1.468675E+0	1.456972E+0	1.425646E+0	1.453517E+0	1.401418E+0	1.442724E+0	1.423117E+0	1.421607E+0	1.440511E+0	1.438921E+0	1.434479E+0	1.425707E+0	1.436857E+0	1.415343E+0	1.443388E+0	1.458189E+0	1.480786E+0	1.420561E+0	1.464394E+0	1.451754E+0	1.487182E+0	1.456764E+0	1.452471E+0	1.465904E+0	1.472403E+0	1.437238E+0	1.445685E+0	1.394019E+0	1.503955E+0	1.449299E+0	1.435544E+0	1.412702E+0	1.452384E+0	1.451459E+0	1.503583E+0	1.470000E+0	1.400087E+0	1.468856E+0	1.431511E+0	1.420807E+0	1.435850E+0	1.438764E+0	1.431812E+0	1.444517E+0	1.404832E+0	1.435852E+0	1.437513E+0	1.347819E+0	1.485748E+0	1.428987E+0	1.391664E+0	1.422067E+0	1.466711E+0	1.441701E+0	1.428893E+0	1.433741E+0	1.462810E+0	1.426418E+0	1.384962E+0	1.403981E+0	1.543278E+0	1.382417E+0	1.437845E+0	1.455523E+0	1.480201E+0	1.377314E+0	1.411431E+0	1.368464E+0	1.502062E+0	1.454980E+0	1.423150E+0	1.393878E+0	1.420898E+0	1.414123E+0	1.398336E+0	1.354896E+0	1.386538E+0	1.401272E+0	1.458085E+0
5.455070E+2	1.426607E+0	1.451171E+0	1.385217E+0	1.438711E+0	1.418536E+0	1.426090E+0	1.422143E+0	1.451057E+0	1.373738E+0	1.397417E+0	1.421601E+0	1.407647E+0	1.475805E+0	1.362672E+0	1.373711E+0	1.344391E+0	1.362318E+0	1.393605E+0	1.381389E+0	1.374384E+0	1.398392E+0	1.427152E+0	1.377205E+0	1.419650E+0	1.452771E+0	1.399811E+0	1.416987E+0	1.369309E+0	1.374856E+0	1.407641E+0	1.407697E+0	1.435761E+0	1.451431E+0	1.371860E+0	1.419891E+0	1.339349E+0	1.366134E+0	1.336928E+0	1.393160E+0	1.420263E+0	1.395507E+0	1.409661E+0	1.393760E+0	1.420139E+0	1.424411E+0	1.381030E+0	1.363496E+0	1.426641E+0	1.389764E+0	1.392154E+0	1.407301E+0	1.391989E+0	1.403239E+0	1.362339E+0	1.387447E+0	1.358574E+0	1.424297E+0	1.352199E+0	1.366593E+0	1.393918E+0	1.393097E+0	1.372808E+0	1.394280E+0	1.417418E+0	1.389589E+0	1.435571E+0	1.327652E+0	1.381121E+0	1.426889E+0	1.381192E+0	1.413354E+0	1.390934E+0	1.365203E+0	1.385077E+0	1.368067E+0	1.359899E+0	1.409425E+0	1.365770E+0	1.369449E+0	1.407415E+0	1.428824E+0	1.384568E+0	1.406930E+0	1.316201E+0	1.376229E+0	1.416834E+0	1.341643E+0	1.407392E+0	1.366382E+0	1.391125E+0	1.364301E+0	1.344235E+0	1.397427E+0	1.385346E+0	1.402813E+0	1.364593E+0	1.445647E+0	1.462015E+0	1.387783E+0	1.398931E+0	1.442938E+0	1.331997E+0	1.362161E+0	1.394939E+0	1.407168E+0	1.389723E+0	1.363006E+0	1.370491E+0	1.384653E+0	1.380787E+0	1.376421E+0	1.364451E+0	1.402894E+0	1.416472E+0	1.359434E+0	1.405959E+0	1.374879E+0	1.398776E+0	1.315997E+0	1.451598E+0	1.344838E+0	1.391415E+0	1.389058E+0	1.335517E+0	1.472269E+0	1.385142E+0	1.372683E+0	1.346914E+0	1.312584E+0	1.390909E+0	1.383687E+0	1.356567E+0	1.366019E+0	1.388395E+0	1.358816E+0	1.402747E+0	1.350558E+0	1.364638E+0	1.372481E+0	1.378266E+0	1.419002E+0	1.356424E+0	1.393603E+0	1.379637E+0	1.424149E+0	1.427286E+0	1.397411E+0	1.367813E+0	1.440746E+0	1.403033E+0	1.362223E+0	1.397988E+0	1.403182E+0	1.378807E+0	1.416034E+0	1.385404E+0	1.393714E+0	1.400333E+0	1.397288E+0	1.383526E+0	1.403964E+0	1.334049E+0	1.326105E+0	1.442445E+0	1.414336E+0	1.416317E+0
5.457670E+2	1.301672E+0	1.334884E+0	1.351468E+0	1.365245E+0	1.313784E+0	1.328361E+0	1.329444E+0	1.333912E+0	1.313277E+0	1.284436E+0	1.266959E+0	1.332708E+0	1.340741E+0	1.331224E+0	1.357209E+0	1.300580E+0	1.339268E+0	1.303511E+0	1.329807E+0	1.318407E+0	1.332930E+0	1.318308E+0	1.315225E+0	1.351247E+0	1.370448E+0	1.257991E+0	1.364247E+0	1.298929E+0	1.395647E+0	1.342374E+0	1.340236E+0	1.321720E+0	1.367725E+0	1.313538E+0	1.310863E+0	1.283594E+0	1.284581E+0	1.349046E+0	1.311453E+0	1.335220E+0	1.312095E+0	1.309851E+0	1.323540E+0	1.339162E+0	1.354254E+0	1.338374E+0	1.336722E+0	1.301914E+0	1.374142E+0	1.296670E+0	1.307520E+0	1.291946E+0	1.252093E+0	1.327860E+0	1.326229E+0	1.303592E+0	1.330138E+0	1.243710E+0	1.287077E+0	1.345923E+0	1.351966E+0	1.279273E+0	1.300625E+0	1.314222E+0	1.321448E+0	1.356741E+0	1.260352E+0	1.289206E+0	1.351819E+0	1.301244E+0	1.287736E+0	1.330220E+0	1.318923E+0	1.325571E+0	1.305888E+0	1.339363E+0	1.250650E+0	1.245954E+0	1.351230E+0	1.290457E+0	1.329027E+0	1.339778E+0	1.267550E+0	1.253045E+0	1.313938E+0	1.295932E+0	1.259111E+0	1.323488E+0	1.303749E+0	1.316225E+0	1.270218E+0	1.337753E+0	1.373050E+0	1.268471E+0	1.281268E+0	1.267376E+0	1.361292E+0	1.314224E+0	1.283090E+0	1.309628E+0	1.305279E+0	1.322890E+0	1.291020E+0	1.263877E+0	1.263409E+0	1.269878E+0	1.309591E+0	1.271183E+0	1.294873E+0	1.289268E+0	1.286363E+0	1.362039E+0	1.339559E+0	1.279857E+0	1.308261E+0	1.315025E+0	1.338168E+0	1.251153E+0	1.263320E+0	1.317837E+0	1.304565E+0	1.329926E+0	1.248565E+0	1.292348E+0	1.332995E+0	1.248570E+0	1.322594E+0	1.249771E+0	1.333744E+0	1.354116E+0	1.310135E+0	1.272401E+0	1.330894E+0	1.305707E+0	1.255369E+0	1.374705E+0	1.328660E+0	1.318933E+0	1.284657E+0	1.362070E+0	1.309301E+0	1.298975E+0	1.378603E+0	1.370543E+0	1.361545E+0	1.328434E+0	1.307689E+0	1.293037E+0	1.316976E+0	1.301400E+0	1.346495E+0	1.344078E+0	1.339575E+0	1.270571E+0	1.268247E+0	1.316471E+0	1.276423E+0	1.257840E+0	1.290399E+0	1.303884E+0	1.344040E+0	1.300573E+0	1.290353E+0	1.335356E+0	1.330885E+0	1.372714E+0
5.460060E+2	1.306657E+0	1.262735E+0	1.253630E+0	1.299632E+0	1.257428E+0	1.279913E+0	1.296386E+0	1.282797E+0	1.235254E+0	1.175143E+0	1.257732E+0	1.252369E+0	1.248326E+0	1.304362E+0	1.223614E+0	1.261858E+0	1.226208E+0	1.236425E+0	1.292115E+0	1.238632E+0	1.254570E+0	1.213822E+0	1.268160E+0	1.280300E+0	1.338774E+0	1.269053E+0	1.315836E+0	1.265801E+0	1.261512E+0	1.288723E+0	1.245486E+0	1.275264E+0	1.271930E+0	1.234420E+0	1.225133E+0	1.245892E+0	1.255864E+0	1.210596E+0	1.291141E+0	1.211634E+0	1.235232E+0	1.283145E+0	1.235061E+0	1.259625E+0	1.295528E+0	1.257304E+0	1.247777E+0	1.196175E+0	1.297899E+0	1.261815E+0	1.277607E+0	1.275625E+0	1.286240E+0	1.213603E+0	1.298964E+0	1.206760E+0	1.272948E+0	1.230425E+0	1.231025E+0	1.309337E+0	1.274596E+0	1.254353E+0	1.241121E+0	1.245733E+0	1.246980E+0	1.275965E+0	1.253501E+0	1.301435E+0	1.239428E+0	1.257735E+0	1.249920E+0	1.275340E+0	1.273491E+0	1.229828E+0	1.260106E+0	1.287325E+0	1.294392E+0	1.246522E+0	1.267660E+0	1.276623E+0	1.314021E+0	1.281304E+0	1.284001E+0	1.229653E+0	1.298684E+0	1.234589E+0	1.235789E+0	1.281195E+0	1.233707E+0	1.317451E+0	1.210312E+0	1.264220E+0	1.221237E+0	1.240810E+0	1.261398E+0	1.205379E+0	1.250097E+0	1.255897E+0	1.219213E+0	1.303435E+0	1.275209E+0	1.279534E+0	1.253028E+0	1.194060E+0	1.263461E+0	1.295740E+0	1.270861E+0	1.289508E+0	1.261131E+0	1.208474E+0	1.319151E+0	1.280199E+0	1.295877E+0	1.202667E+0	1.220117E+0	1.282969E+0	1.237798E+0	1.241419E+0	1.217017E+0	1.342909E+0	1.281856E+0	1.285513E+0	1.269694E+0	1.285166E+0	1.270090E+0	1.225284E+0	1.266144E+0	1.244727E+0	1.260626E+0	1.318944E+0	1.218882E+0	1.262699E+0	1.249722E+0	1.258543E+0	1.213513E+0	1.276376E+0	1.251890E+0	1.264730E+0	1.312111E+0	1.289388E+0	1.328131E+0	1.195298E+0	1.236152E+0	1.211201E+0	1.273937E+0	1.266951E+0	1.247735E+0	1.227682E+0	1.265065E+0	1.226250E+0	1.273870E+0	1.279799E+0	1.290643E+0	1.248198E+0	1.192457E+0	1.295999E+0	1.292059E+0	1.217270E+0	1.258576E+0	1.215609E+0	1.326542E+0	1.235017E+0	1.254480E+0	1.235660E+0	1.204937E+0	1.285102E+0
5.467660E+2	1.212189E+0	1.133400E+0	1.208668E+0	1.211999E+0	1.224593E+0	1.220864E+0	1.256155E+0	1.231736E+0	1.200268E+0	1.207923E+0	1.209761E+0	1.255359E+0	1.186448E+0	1.219059E+0	1.199260E+0	1.237336E+0	1.162608E+0	1.179985E+0	1.259042E+0	1.198783E+0	1.201361E+0	1.197421E+0	1.248689E+0	1.248904E+0	1.250959E+0	1.217549E+0	1.223057E+0	1.248727E+0	1.295800E+0	1.172669E+0	1.223794E+0	1.220695E+0	1.210960E+0	1.164278E+0	1.229064E+0	1.172034E+0	1.211121E+0	1.215343E+0	1.260215E+0	1.237185E+0	1.176421E+0	1.169196E+0	1.205341E+0	1.200539E+0	1.220735E+0	1.226539E+0	1.226529E+0	1.144191E+0	1.254406E+0	1.228082E+0	1.243850E+0	1.167837E+0	1.174013E+0	1.213912E+0	1.240428E+0	1.202704E+0	1.196632E+0	1.189241E+0	1.184023E+0	1.200239E+0	1.219463E+0	1.170640E+0	1.198250E+0	1.215881E+0	1.230622E+0	1.213438E+0	1.230359E+0	1.195119E+0	1.176823E+0	1.248703E+0	1.228438E+0	1.202089E+0	1.217004E+0	1.188717E+0	1.205294E+0	1.194956E+0	1.218166E+0	1.157668E+0	1.159326E+0	1.183388E+0	1.144549E+0	1.229927E+0	1.184066E+0	1.236613E+0	1.249226E+0	1.156937E+0	1.181497E+0	1.244191E+0	1.234838E+0	1.283077E+0	1.177151E+0	1.165046E+0	1.194517E+0	1.200969E+0	1.192682E+0	1.178350E+0	1.292773E+0	1.229711E+0	1.213228E+0	1.250264E+0	1.188628E+0	1.190982E+0	1.199955E+0	1.226683E+0	1.198758E+0	1.234885E+0	1.148073E+0	1.240212E+0	1.197076E+0	1.165323E+0	1.174642E+0	1.230371E+0	1.207626E+0	1.239054E+0	1.218152E+0	1.239908E+0	1.208955E+0	1.224280E+0	1.187985E+0	1.207256E+0	1.216264E+0	1.176674E+0	1.201160E+0	1.192245E+0	1.283664E+0	1.202275E+0	1.206159E+0	1.239375E+0	1.221496E+0	1.172807E+0	1.177539E+0	1.228154E+0	1.198411E+0	1.195271E+0	1.234083E+0	1.173056E+0	1.182248E+0	1.139617E+0	1.181749E+0	1.268183E+0	1.188565E+0	1.213643E+0	1.216783E+0	1.195682E+0	1.201004E+0	1.238405E+0	1.199391E+0	1.171731E+0	1.205153E+0	1.182311E+0	1.251700E+0	1.177504E+0	1.173022E+0	1.213351E+0	1.215283E+0	1.196720E+0	1.251361E+0	1.169524E+0	1.151650E+0	1.187545E+0	1.198145E+0	1.184442E+0	1.182575E+0	1.198871E+0	1.236233E+0	1.268896E+0
5.475340E+2	1.340165E+0	1.333924E+0	1.305661E+0	1.351172E+0	1.312610E+0	1.316610E+0	1.337772E+0	1.347686E+0	1.361144E+0	1.286528E+0	1.271895E+0	1.311949E+0	1.331137E+0	1.300625E+0	1.370315E+0	1.380732E+0	1.312169E+0	1.305946E+0	1.277054E+0	1.339361E+0	1.331114E+0	1.335600E+0	1.342391E+0	1.302962E+0	1.361128E+0	1.290429E+0	1.303150E+0	1.319557E+0	1.368531E+0	1.339462E+0	1.336036E+0	1.329144E+0	1.304245E+0	1.367915E+0	1.233125E+0	1.317253E+0	1.358192E+0	1.332055E+0	1.354204E+0	1.286548E+0	1.376907E+0	1.370659E+0	1.289534E+0	1.332029E+0	1.389121E+0	1.292949E+0	1.378670E+0	1.318450E+0	1.389541E+0	1.344411E+0	1.364529E+0	1.320752E+0	1.327380E+0	1.295563E+0	1.291747E+0	1.299316E+0	1.346377E+0	1.335169E+0	1.286850E+0	1.304898E+0	1.353769E+0	1.311586E+0	1.307785E+0	1.344698E+0	1.292798E+0	1.392423E+0	1.297181E+0	1.363976E+0	1.368920E+0	1.321230E+0	1.352673E+0	1.337932E+0	1.318782E+0	1.316803E+0	1.310808E+0	1.298780E+0	1.335032E+0	1.340249E+0	1.290092E+0	1.344447E+0	1.290009E+0	1.258352E+0	1.291652E+0	1.274262E+0	1.381741E+0	1.333317E+0	1.370402E+0	1.338574E+0	1.326065E+0	1.276340E+0	1.313773E+0	1.335082E+0	1.344189E+0	1.321582E+0	1.352700E+0	1.333354E+0	1.345597E+0	1.314573E+0	1.356825E+0	1.321527E+0	1.331795E+0	1.297870E+0	1.332720E+0	1.319063E+0	1.282037E+0	1.317725E+0	1.317222E+0	1.245849E+0	1.322720E+0	1.288060E+0	1.309409E+0	1.374867E+0	1.334003E+0	1.303623E+0	1.301596E+0	1.375303E+0	1.269889E+0	1.317024E+0	1.321356E+0	1.345298E+0	1.325039E+0	1.337016E+0	1.320749E+0	1.301945E+0	1.343304E+0	1.320184E+0	1.338023E+0	1.267824E+0	1.397813E+0	1.319512E+0	1.245834E+0	1.333070E+0	1.275586E+0	1.315675E+0	1.316614E+0	1.335805E+0	1.314204E+0	1.282401E+0	1.340647E+0	1.343720E+0	1.317721E+0	1.297104E+0	1.325341E+0	1.328464E+0	1.345363E+0	1.284467E+0	1.337170E+0	1.319521E+0	1.306870E+0	1.311405E+0	1.266225E+0	1.347999E+0	1.344900E+0	1.358220E+0	1.283080E+0	1.273629E+0	1.337559E+0	1.326876E+0	1.241628E+0	1.282990E+0	1.330798E+0	1.304757E+0	1.347619E+0	1.220115E+0	1.352250E+0	1.273845E+0
5.482660E+2	1.427472E+0	1.394851E+0	1.427052E+0	1.412815E+0	1.412082E+0	1.447871E+0	1.428820E+0	1.444106E+0	1.369793E+0	1.397487E+0	1.415496E+0	1.388296E+0	1.437833E+0	1.405595E+0	1.420522E+0	1.448863E+0	1.426411E+0	1.398762E+0	1.368589E+0	1.392801E+0	1.388069E+0	1.411955E+0	1.452768E+0	1.405348E+0	1.472970E+0	1.412961E+0	1.398604E+0	1.429539E+0	1.410754E+0	1.404126E+0	1.408210E+0	1.367288E+0	1.424570E+0	1.403858E+0	1.415156E+0	1.392286E+0	1.355549E+0	1.339791E+0	1.401594E+0	1.442496E+0	1.419338E+0	1.415155E+0	1.395142E+0	1.478537E+0	1.407041E+0	1.380447E+0	1.434277E+0	1.391344E+0	1.472174E+0	1.395473E+0	1.412203E+0	1.354300E+0	1.428374E+0	1.430498E+0	1.421318E+0	1.389036E+0	1.415645E+0	1.388472E+0	1.375892E+0	1.433794E+0	1.464606E+0	1.400100E+0	1.370416E+0	1.460754E+0	1.444176E+0	1.390640E+0	1.361312E+0	1.411236E+0	1.407277E+0	1.392820E+0	1.396097E+0	1.394767E+0	1.402377E+0	1.381164E+0	1.405318E+0	1.414023E+0	1.376588E+0	1.397911E+0	1.385817E+0	1.445724E+0	1.473890E+0	1.380503E+0	1.380734E+0	1.370586E+0	1.392275E+0	1.399797E+0	1.414129E+0	1.397947E+0	1.373448E+0	1.351198E+0	1.396358E+0	1.396206E+0	1.387390E+0	1.330322E+0	1.384269E+0	1.386897E+0	1.430828E+0	1.355735E+0	1.397879E+0	1.416157E+0	1.426867E+0	1.384586E+0	1.391294E+0	1.389704E+0	1.470054E+0	1.323050E+0	1.377832E+0	1.394159E+0	1.457042E+0	1.361847E+0	1.375189E+0	1.421891E+0	1.409476E+0	1.365865E+0	1.397617E+0	1.442797E+0	1.390979E+0	1.312206E+0	1.423225E+0	1.415039E+0	1.376909E+0	1.418149E+0	1.399032E+0	1.361869E+0	1.477361E+0	1.396885E+0	1.374369E+0	1.398429E+0	1.382958E+0	1.402909E+0	1.398946E+0	1.415030E+0	1.382338E+0	1.405930E+0	1.399414E+0	1.361537E+0	1.415550E+0	1.415747E+0	1.398368E+0	1.409517E+0	1.433182E+0	1.326901E+0	1.469127E+0	1.351083E+0	1.419489E+0	1.367614E+0	1.408099E+0	1.327611E+0	1.377112E+0	1.379846E+0	1.351440E+0	1.394239E+0	1.395933E+0	1.392127E+0	1.421339E+0	1.437794E+0	1.421951E+0	1.346818E+0	1.371380E+0	1.330210E+0	1.432985E+0	1.410667E+0	1.409245E+0	1.419822E+0	1.446609E+0	1.328996E+0
5.490160E+2	1.386772E+0	1.448354E+0	1.451378E+0	1.456392E+0	1.375488E+0	1.397358E+0	1.476553E+0	1.379229E+0	1.401649E+0	1.378017E+0	1.378593E+0	1.388982E+0	1.420201E+0	1.413482E+0	1.447520E+0	1.385413E+0	1.427141E+0	1.436542E+0	1.397078E+0	1.360408E+0	1.399901E+0	1.400764E+0	1.394204E+0	1.394592E+0	1.474606E+0	1.427893E+0	1.409644E+0	1.407535E+0	1.472305E+0	1.442323E+0	1.385979E+0	1.412333E+0	1.453930E+0	1.421512E+0	1.452745E+0	1.405626E+0	1.460505E+0	1.389456E+0	1.396309E+0	1.353410E+0	1.395179E+0	1.390298E+0	1.357320E+0	1.377794E+0	1.436480E+0	1.390694E+0	1.435041E+0	1.392511E+0	1.446101E+0	1.421086E+0	1.376021E+0	1.400216E+0	1.398643E+0	1.406332E+0	1.384508E+0	1.400645E+0	1.493096E+0	1.427814E+0	1.384663E+0	1.447139E+0	1.457447E+0	1.360725E+0	1.430333E+0	1.471464E+0	1.436770E+0	1.396078E+0	1.426771E+0	1.376567E+0	1.436016E+0	1.522804E+0	1.426865E+0	1.441381E+0	1.409028E+0	1.408815E+0	1.426017E+0	1.408319E+0	1.405697E+0	1.401290E+0	1.383200E+0	1.410201E+0	1.490581E+0	1.326408E+0	1.402571E+0	1.393891E+0	1.434471E+0	1.399505E+0	1.362496E+0	1.443365E+0	1.425166E+0	1.366453E+0	1.371090E+0	1.328263E+0	1.467462E+0	1.381240E+0	1.387325E+0	1.350013E+0	1.450122E+0	1.366042E+0	1.384092E+0	1.410182E+0	1.400265E+0	1.437030E+0	1.384451E+0	1.441131E+0	1.375368E+0	1.368881E+0	1.428239E+0	1.366950E+0	1.429468E+0	1.385249E+0	1.362493E+0	1.446488E+0	1.375005E+0	1.468192E+0	1.434797E+0	1.399518E+0	1.359465E+0	1.375186E+0	1.358490E+0	1.419437E+0	1.439487E+0	1.379369E+0	1.417644E+0	1.417916E+0	1.441887E+0	1.458041E+0	1.376639E+0	1.390088E+0	1.398728E+0	1.369676E+0	1.384638E+0	1.323740E+0	1.413316E+0	1.340487E+0	1.376157E+0	1.372351E+0	1.383518E+0	1.401226E+0	1.390791E+0	1.432291E+0	1.411668E+0	1.338682E+0	1.439155E+0	1.320509E+0	1.387093E+0	1.402850E+0	1.372121E+0	1.402936E+0	1.457562E+0	1.364415E+0	1.434170E+0	1.383009E+0	1.412080E+0	1.329138E+0	1.355271E+0	1.435862E+0	1.407240E+0	1.329008E+0	1.412554E+0	1.366072E+0	1.419461E+0	1.414018E+0	1.444190E+0	1.393303E+0	1.458068E+0	1.346144E+0
5.497570E+2	1.383847E+0	1.384282E+0	1.373702E+0	1.389020E+0	1.343938E+0	1.338019E+0	1.351956E+0	1.336851E+0	1.354398E+0	1.287499E+0	1.423979E+0	1.392171E+0	1.351513E+0	1.309344E+0	1.369175E+0	1.362181E+0	1.357595E+0	1.396709E+0	1.369223E+0	1.355712E+0	1.383445E+0	1.268683E+0	1.336020E+0	1.371797E+0	1.457020E+0	1.358338E+0	1.455565E+0	1.362890E+0	1.439142E+0	1.395838E+0	1.355361E+0	1.395439E+0	1.406520E+0	1.343744E+0	1.385457E+0	1.306746E+0	1.365974E+0	1.351171E+0	1.347481E+0	1.355702E+0	1.345462E+0	1.414546E+0	1.377747E+0	1.397951E+0	1.386439E+0	1.394682E+0	1.415734E+0	1.349540E+0	1.473831E+0	1.342633E+0	1.359264E+0	1.348539E+0	1.384667E+0	1.352237E+0	1.328906E+0	1.341404E+0	1.372009E+0	1.327980E+0	1.300155E+0	1.372224E+0	1.417354E+0	1.315173E+0	1.378865E+0	1.431704E+0	1.351196E+0	1.364428E+0	1.305905E+0	1.385763E+0	1.363468E+0	1.355663E+0	1.339358E+0	1.403836E+0	1.393146E+0	1.339022E+0	1.330931E+0	1.399584E+0	1.355650E+0	1.302342E+0	1.408763E+0	1.445903E+0	1.358901E+0	1.331655E+0	1.354350E+0	1.345096E+0	1.388825E+0	1.379093E+0	1.385566E+0	1.360085E+0	1.336363E+0	1.347715E+0	1.399835E+0	1.346409E+0	1.354873E+0	1.328212E+0	1.377337E+0	1.391312E+0	1.396177E+0	1.331347E+0	1.351613E+0	1.400782E+0	1.338039E+0	1.330038E+0	1.338587E+0	1.344089E+0	1.343183E+0	1.316286E+0	1.372365E+0	1.361935E+0	1.403001E+0	1.347727E+0	1.350807E+0	1.316896E+0	1.306565E+0	1.350136E+0	1.334982E+0	1.323621E+0	1.367330E+0	1.378680E+0	1.379367E+0	1.407759E+0	1.382275E+0	1.382848E+0	1.344082E+0	1.325406E+0	1.313553E+0	1.363806E+0	1.376149E+0	1.386383E+0	1.392497E+0	1.276383E+0	1.372810E+0	1.315576E+0	1.392395E+0	1.388335E+0	1.340537E+0	1.367144E+0	1.364560E+0	1.344638E+0	1.365303E+0	1.425551E+0	1.387490E+0	1.352211E+0	1.362811E+0	1.355691E+0	1.338658E+0	1.399058E+0	1.362661E+0	1.334223E+0	1.368421E+0	1.342348E+0	1.357338E+0	1.342441E+0	1.436988E+0	1.355189E+0	1.303636E+0	1.319885E+0	1.423101E+0	1.348208E+0	1.326566E+0	1.295552E+0	1.404084E+0	1.368976E+0	1.380311E+0	1.281000E+0	1.329260E+0	1.375990E+0
5.505110E+2	1.385255E+0	1.388688E+0	1.394224E+0	1.414641E+0	1.315320E+0	1.366084E+0	1.351011E+0	1.359892E+0	1.373407E+0	1.306005E+0	1.376816E+0	1.318287E+0	1.384260E+0	1.326576E+0	1.402142E+0	1.408115E+0	1.365419E+0	1.349129E+0	1.339134E+0	1.286825E+0	1.363957E+0	1.334762E+0	1.373303E+0	1.395666E+0	1.420232E+0	1.294679E+0	1.340074E+0	1.369751E+0	1.394864E+0	1.326445E+0	1.378189E+0	1.346885E+0	1.420224E+0	1.381419E+0	1.353954E+0	1.317573E+0	1.395729E+0	1.350720E+0	1.350269E+0	1.304291E+0	1.359759E+0	1.347615E+0	1.368218E+0	1.336148E+0	1.409428E+0	1.337454E+0	1.347261E+0	1.364763E+0	1.384558E+0	1.381843E+0	1.395786E+0	1.352700E+0	1.428233E+0	1.397314E+0	1.318335E+0	1.352365E+0	1.331035E+0	1.292646E+0	1.347530E+0	1.342551E+0	1.398146E+0	1.307608E+0	1.337614E+0	1.377901E+0	1.368174E+0	1.313982E+0	1.357219E+0	1.343657E+0	1.313017E+0	1.392923E+0	1.372989E+0	1.347830E+0	1.322016E+0	1.369523E+0	1.270591E+0	1.352778E+0	1.305054E+0	1.350670E+0	1.346419E+0	1.287038E+0	1.327114E+0	1.339622E+0	1.299565E+0	1.286771E+0	1.328571E+0	1.307750E+0	1.313573E+0	1.303658E+0	1.417001E+0	1.326574E+0	1.331634E+0	1.401178E+0	1.356754E+0	1.315165E+0	1.367927E+0	1.322531E+0	1.380503E+0	1.362525E+0	1.332973E+0	1.384503E+0	1.341161E+0	1.341616E+0	1.307767E+0	1.327677E+0	1.342789E+0	1.377667E+0	1.313805E+0	1.319989E+0	1.340807E+0	1.369458E+0	1.314563E+0	1.390222E+0	1.352939E+0	1.341626E+0	1.332957E+0	1.338386E+0	1.308854E+0	1.383481E+0	1.368690E+0	1.320290E+0	1.337971E+0	1.322662E+0	1.330092E+0	1.344720E+0	1.435518E+0	1.336139E+0	1.320607E+0	1.366560E+0	1.337208E+0	1.317926E+0	1.318379E+0	1.355520E+0	1.335870E+0	1.352392E+0	1.292076E+0	1.344695E+0	1.328104E+0	1.333938E+0	1.342525E+0	1.335727E+0	1.370831E+0	1.287461E+0	1.372656E+0	1.306585E+0	1.345052E+0	1.302323E+0	1.390977E+0	1.388990E+0	1.331640E+0	1.341817E+0	1.380507E+0	1.359033E+0	1.374625E+0	1.312830E+0	1.307758E+0	1.384193E+0	1.374898E+0	1.301861E+0	1.329150E+0	1.298128E+0	1.383343E+0	1.326834E+0	1.304477E+0	1.294305E+0	1.417985E+0	1.249455E+0
5.512570E+2	1.321475E+0	1.378816E+0	1.286283E+0	1.321052E+0	1.323954E+0	1.388591E+0	1.354326E+0	1.370268E+0	1.322302E+0	1.317208E+0	1.364850E+0	1.332794E+0	1.336304E+0	1.336227E+0	1.394557E+0	1.327400E+0	1.348204E+0	1.323402E+0	1.276302E+0	1.344080E+0	1.350245E+0	1.378429E+0	1.342395E+0	1.290640E+0	1.378448E+0	1.306687E+0	1.313312E+0	1.344290E+0	1.398809E+0	1.380082E+0	1.349316E+0	1.324191E+0	1.369110E+0	1.360996E+0	1.343959E+0	1.352346E+0	1.369583E+0	1.274543E+0	1.289801E+0	1.415311E+0	1.317725E+0	1.370980E+0	1.364943E+0	1.312702E+0	1.327519E+0	1.358567E+0	1.331910E+0	1.353421E+0	1.377452E+0	1.339545E+0	1.313425E+0	1.348577E+0	1.321588E+0	1.319757E+0	1.342121E+0	1.342045E+0	1.315729E+0	1.321945E+0	1.312146E+0	1.344589E+0	1.362777E+0	1.276954E+0	1.327412E+0	1.333874E+0	1.367199E+0	1.350675E+0	1.389204E+0	1.343001E+0	1.294798E+0	1.397658E+0	1.364820E+0	1.338302E+0	1.399516E+0	1.342148E+0	1.315391E+0	1.306938E+0	1.367768E+0	1.306369E+0	1.382091E+0	1.347839E+0	1.373111E+0	1.331698E+0	1.286247E+0	1.284590E+0	1.342328E+0	1.313025E+0	1.349174E+0	1.298861E+0	1.343493E+0	1.306068E+0	1.359388E+0	1.321425E+0	1.376152E+0	1.316361E+0	1.309112E+0	1.349552E+0	1.373283E+0	1.336066E+0	1.352319E+0	1.298644E+0	1.328982E+0	1.289700E+0	1.326511E+0	1.339800E+0	1.290301E+0	1.322677E+0	1.357335E+0	1.336438E+0	1.353184E+0	1.298664E+0	1.312967E+0	1.337149E+0	1.322752E+0	1.311978E+0	1.259269E+0	1.349473E+0	1.354279E+0	1.299321E+0	1.254914E+0	1.371401E+0	1.311943E+0	1.343077E+0	1.294814E+0	1.310272E+0	1.344370E+0	1.355122E+0	1.360656E+0	1.397669E+0	1.391106E+0	1.315215E+0	1.319574E+0	1.351921E+0	1.345018E+0	1.359088E+0	1.314735E+0	1.331105E+0	1.291904E+0	1.308640E+0	1.349232E+0	1.322375E+0	1.365174E+0	1.334656E+0	1.381459E+0	1.343858E+0	1.314467E+0	1.308575E+0	1.356907E+0	1.334555E+0	1.309127E+0	1.308625E+0	1.347872E+0	1.340976E+0	1.356597E+0	1.348219E+0	1.314787E+0	1.371682E+0	1.335953E+0	1.302432E+0	1.296527E+0	1.304226E+0	1.322063E+0	1.318718E+0	1.362569E+0	1.311472E+0	1.324944E+0	1.319523E+0
5.520150E+2	1.405940E+0	1.332058E+0	1.354864E+0	1.346079E+0	1.375020E+0	1.417926E+0	1.382049E+0	1.360511E+0	1.320148E+0	1.340850E+0	1.341412E+0	1.324092E+0	1.300300E+0	1.324550E+0	1.307812E+0	1.343457E+0	1.328001E+0	1.336504E+0	1.406419E+0	1.347166E+0	1.327964E+0	1.376779E+0	1.326908E+0	1.370133E+0	1.318987E+0	1.339654E+0	1.361055E+0	1.276226E+0	1.386406E+0	1.447847E+0	1.317416E+0	1.370750E+0	1.358117E+0	1.333887E+0	1.369691E+0	1.318915E+0	1.330717E+0	1.285718E+0	1.324091E+0	1.343385E+0	1.324287E+0	1.369662E+0	1.419000E+0	1.328884E+0	1.348792E+0	1.317791E+0	1.451507E+0	1.347618E+0	1.385220E+0	1.382641E+0	1.345354E+0	1.353102E+0	1.331384E+0	1.370839E+0	1.348307E+0	1.328524E+0	1.290404E+0	1.317342E+0	1.314197E+0	1.329961E+0	1.392102E+0	1.291671E+0	1.342662E+0	1.401815E+0	1.348393E+0	1.396211E+0	1.365970E+0	1.304246E+0	1.354282E+0	1.327667E+0	1.346062E+0	1.388716E+0	1.354197E+0	1.307127E+0	1.337108E+0	1.278421E+0	1.332278E+0	1.360689E+0	1.382983E+0	1.309833E+0	1.347056E+0	1.307371E+0	1.256127E+0	1.293139E+0	1.382815E+0	1.307672E+0	1.318831E+0	1.342124E+0	1.371560E+0	1.356923E+0	1.313068E+0	1.295535E+0	1.370282E+0	1.328716E+0	1.350266E+0	1.300620E+0	1.376782E+0	1.312714E+0	1.290215E+0	1.413356E+0	1.282037E+0	1.395104E+0	1.363372E+0	1.355120E+0	1.339597E+0	1.343283E+0	1.295037E+0	1.335736E+0	1.393208E+0	1.314773E+0	1.332255E+0	1.356484E+0	1.375763E+0	1.334614E+0	1.300614E+0	1.329570E+0	1.381201E+0	1.350773E+0	1.270706E+0	1.314211E+0	1.373052E+0	1.365042E+0	1.333458E+0	1.321007E+0	1.360012E+0	1.352927E+0	1.348736E+0	1.363747E+0	1.345798E+0	1.340521E+0	1.305567E+0	1.395204E+0	1.336864E+0	1.348395E+0	1.247375E+0	1.365430E+0	1.357596E+0	1.378946E+0	1.361106E+0	1.393579E+0	1.347401E+0	1.352699E+0	1.354312E+0	1.323897E+0	1.405846E+0	1.359510E+0	1.355222E+0	1.364238E+0	1.324378E+0	1.342824E+0	1.366142E+0	1.376522E+0	1.365734E+0	1.327146E+0	1.341975E+0	1.321575E+0	1.297594E+0	1.349397E+0	1.277526E+0	1.353374E+0	1.436619E+0	1.290119E+0	1.274923E+0	1.311977E+0	1.316459E+0	1.406784E+0
5.527650E+2	1.283031E+0	1.350818E+0	1.326105E+0	1.304320E+0	1.292677E+0	1.292513E+0	1.366042E+0	1.278441E+0	1.319308E+0	1.274660E+0	1.310561E+0	1.321696E+0	1.268760E+0	1.292149E+0	1.288338E+0	1.322428E+0	1.311566E+0	1.319376E+0	1.344629E+0	1.277743E+0	1.281841E+0	1.232173E+0	1.312102E+0	1.304372E+0	1.318581E+0	1.281246E+0	1.327288E+0	1.286387E+0	1.368350E+0	1.296010E+0	1.269779E+0	1.348121E+0	1.294654E+0	1.306257E+0	1.337463E+0	1.286099E+0	1.342180E+0	1.335571E+0	1.327060E+0	1.306374E+0	1.274605E+0	1.279636E+0	1.270170E+0	1.331641E+0	1.318101E+0	1.297820E+0	1.328020E+0	1.336404E+0	1.309212E+0	1.367539E+0	1.308254E+0	1.233104E+0	1.310721E+0	1.248196E+0	1.336623E+0	1.322919E+0	1.381189E+0	1.293098E+0	1.286739E+0	1.256654E+0	1.256298E+0	1.278877E+0	1.289814E+0	1.339085E+0	1.345186E+0	1.294145E+0	1.367759E+0	1.288148E+0	1.327665E+0	1.312429E+0	1.327898E+0	1.335705E+0	1.330557E+0	1.269529E+0	1.274879E+0	1.261541E+0	1.277161E+0	1.287380E+0	1.327386E+0	1.335039E+0	1.326397E+0	1.313158E+0	1.368853E+0	1.234625E+0	1.271701E+0	1.324086E+0	1.216043E+0	1.276193E+0	1.374768E+0	1.244625E+0	1.279178E+0	1.259138E+0	1.317810E+0	1.245369E+0	1.290128E+0	1.332407E+0	1.286673E+0	1.285850E+0	1.299373E+0	1.278925E+0	1.343599E+0	1.295773E+0	1.270041E+0	1.253568E+0	1.292114E+0	1.331184E+0	1.309339E+0	1.304138E+0	1.327764E+0	1.285200E+0	1.276063E+0	1.330083E+0	1.308877E+0	1.323825E+0	1.261778E+0	1.349556E+0	1.329835E+0	1.318827E+0	1.363351E+0	1.298734E+0	1.281662E+0	1.301493E+0	1.276573E+0	1.335554E+0	1.326077E+0	1.241160E+0	1.296295E+0	1.310126E+0	1.324978E+0	1.317434E+0	1.224015E+0	1.274980E+0	1.294315E+0	1.300371E+0	1.258912E+0	1.338806E+0	1.298587E+0	1.296820E+0	1.339404E+0	1.349648E+0	1.314445E+0	1.238768E+0	1.304721E+0	1.263034E+0	1.296178E+0	1.277786E+0	1.305450E+0	1.291603E+0	1.338888E+0	1.316147E+0	1.262781E+0	1.265204E+0	1.310275E+0	1.310883E+0	1.344686E+0	1.363601E+0	1.370066E+0	1.338143E+0	1.266455E+0	1.229821E+0	1.335239E+0	1.239502E+0	1.303533E+0	1.280420E+0	1.271171E+0	1.202676E+0
5.535550E+2	1.286347E+0	1.234516E+0	1.254354E+0	1.299296E+0	1.242816E+0	1.260490E+0	1.265853E+0	1.304917E+0	1.248000E+0	1.216074E+0	1.281080E+0	1.221482E+0	1.219966E+0	1.255367E+0	1.250053E+0	1.237973E+0	1.245062E+0	1.206783E+0	1.215151E+0	1.236542E+0	1.254628E+0	1.211587E+0	1.226735E+0	1.216794E+0	1.286101E+0	1.260872E+0	1.271720E+0	1.254747E+0	1.255611E+0	1.248746E+0	1.219526E+0	1.241795E+0	1.236152E+0	1.226249E+0	1.217272E+0	1.201516E+0	1.218772E+0	1.242305E+0	1.291527E+0	1.216275E+0	1.219257E+0	1.276769E+0	1.265809E+0	1.224058E+0	1.206068E+0	1.291062E+0	1.245531E+0	1.243140E+0	1.248984E+0	1.258160E+0	1.266710E+0	1.253432E+0	1.264697E+0	1.205299E+0	1.225067E+0	1.267220E+0	1.263625E+0	1.276350E+0	1.233761E+0	1.202810E+0	1.261338E+0	1.218515E+0	1.219430E+0	1.278348E+0	1.241020E+0	1.310782E+0	1.246802E+0	1.261976E+0	1.239908E+0	1.208646E+0	1.259718E+0	1.249337E+0	1.203835E+0	1.206080E+0	1.251945E+0	1.247379E+0	1.301172E+0	1.232849E+0	1.260716E+0	1.192278E+0	1.217131E+0	1.219609E+0	1.219681E+0	1.293695E+0	1.200176E+0	1.259924E+0	1.217148E+0	1.334688E+0	1.329770E+0	1.165939E+0	1.249165E+0	1.233707E+0	1.235487E+0	1.242232E+0	1.295867E+0	1.223286E+0	1.281557E+0	1.220233E+0	1.242419E+0	1.260883E+0	1.200024E+0	1.262679E+0	1.277651E+0	1.206379E+0	1.234581E+0	1.149853E+0	1.189405E+0	1.244464E+0	1.282884E+0	1.256938E+0	1.260002E+0	1.200672E+0	1.285575E+0	1.217359E+0	1.217628E+0	1.239398E+0	1.237914E+0	1.209058E+0	1.225873E+0	1.241768E+0	1.285125E+0	1.239172E+0	1.258347E+0	1.209436E+0	1.313108E+0	1.253586E+0	1.270261E+0	1.246926E+0	1.266449E+0	1.216384E+0	1.246064E+0	1.237784E+0	1.233434E+0	1.202398E+0	1.235525E+0	1.251635E+0	1.226121E+0	1.194556E+0	1.228816E+0	1.279714E+0	1.282376E+0	1.209899E+0	1.254216E+0	1.204626E+0	1.262537E+0	1.246352E+0	1.295924E+0	1.272718E+0	1.254065E+0	1.281510E+0	1.252975E+0	1.270584E+0	1.296446E+0	1.285484E+0	1.253385E+0	1.224958E+0	1.199389E+0	1.256957E+0	1.227130E+0	1.242874E+0	1.287541E+0	1.236907E+0	1.267885E+0	1.220840E+0	1.265305E+0	1.148396E+0
5.542640E+2	1.259160E+0	1.182256E+0	1.193070E+0	1.204385E+0	1.125774E+0	1.177366E+0	1.192699E+0	1.233494E+0	1.148717E+0	1.143260E+0	1.171050E+0	1.219315E+0	1.113509E+0	1.154740E+0	1.167064E+0	1.180968E+0	1.227119E+0	1.108977E+0	1.147257E+0	1.192039E+0	1.151854E+0	1.184429E+0	1.191962E+0	1.158329E+0	1.194572E+0	1.186242E+0	1.165891E+0	1.193652E+0	1.144332E+0	1.172832E+0	1.189359E+0	1.157203E+0	1.169658E+0	1.164902E+0	1.157071E+0	1.201683E+0	1.157115E+0	1.136840E+0	1.174489E+0	1.187942E+0	1.157071E+0	1.170192E+0	1.173551E+0	1.155566E+0	1.180832E+0	1.129152E+0	1.140664E+0	1.124432E+0	1.143767E+0	1.184927E+0	1.153225E+0	1.145719E+0	1.178489E+0	1.157369E+0	1.185364E+0	1.282285E+0	1.149580E+0	1.158683E+0	1.150861E+0	1.146439E+0	1.140290E+0	1.220798E+0	1.158838E+0	1.193369E+0	1.186576E+0	1.257109E+0	1.144846E+0	1.164713E+0	1.141014E+0	1.219270E+0	1.182397E+0	1.242050E+0	1.179281E+0	1.143515E+0	1.197162E+0	1.218153E+0	1.160868E+0	1.164567E+0	1.173065E+0	1.166194E+0	1.195192E+0	1.157946E+0	1.155703E+0	1.146349E+0	1.176856E+0	1.173635E+0	1.147362E+0	1.205076E+0	1.168758E+0	1.179788E+0	1.197997E+0	1.149552E+0	1.185984E+0	1.168782E+0	1.119269E+0	1.170521E+0	1.231820E+0	1.127422E+0	1.146804E+0	1.173398E+0	1.151113E+0	1.187336E+0	1.141961E+0	1.132902E+0	1.137191E+0	1.129184E+0	1.129683E+0	1.168945E+0	1.259211E+0	1.130497E+0	1.176064E+0	1.219367E+0	1.165123E+0	1.134924E+0	1.140030E+0	1.199399E+0	1.189847E+0	1.172946E+0	1.155389E+0	1.220303E+0	1.190983E+0	1.179783E+0	1.169392E+0	1.136977E+0	1.229258E+0	1.186557E+0	1.135019E+0	1.161981E+0	1.232772E+0	1.137462E+0	1.149304E+0	1.124813E+0	1.189327E+0	1.122902E+0	1.101317E+0	1.153534E+0	1.178186E+0	1.144727E+0	1.163525E+0	1.136959E+0	1.190923E+0	1.140860E+0	1.136494E+0	1.189209E+0	1.176521E+0	1.232171E+0	1.134347E+0	1.167232E+0	1.165088E+0	1.159040E+0	1.154780E+0	1.204853E+0	1.173714E+0	1.189182E+0	1.148915E+0	1.178535E+0	1.235867E+0	1.164089E+0	1.139964E+0	1.131301E+0	1.189751E+0	1.146431E+0	1.132807E+0	1.170592E+0	1.094746E+0	1.125756E+0
5.550360E+2	1.040574E+0	1.117791E+0	1.103435E+0	1.083446E+0	1.103769E+0	1.096050E+0	1.100745E+0	1.092628E+0	1.056536E+0	1.074316E+0	1.083278E+0	1.090092E+0	1.058151E+0	1.087763E+0	1.072939E+0	1.071725E+0	1.026117E+0	1.081482E+0	1.109356E+0	1.043911E+0	1.067397E+0	1.060341E+0	1.035095E+0	1.115766E+0	1.096534E+0	1.083555E+0	1.075612E+0	1.028457E+0	1.127660E+0	1.101557E+0	1.098802E+0	1.059538E+0	1.096244E+0	1.074473E+0	1.074577E+0	1.030950E+0	1.052183E+0	1.054781E+0	1.068971E+0	1.070934E+0	1.106721E+0	1.042149E+0	1.091406E+0	1.060052E+0	1.074686E+0	1.139935E+0	1.021937E+0	1.063761E+0	1.059477E+0	1.080806E+0	1.033154E+0	1.086561E+0	1.089693E+0	1.075919E+0	1.064429E+0	1.096325E+0	1.064666E+0	1.078300E+0	1.071854E+0	1.070554E+0	1.091918E+0	1.067486E+0	1.017981E+0	1.089995E+0	1.118211E+0	1.095747E+0	1.073105E+0	1.072866E+0	1.084603E+0	1.141405E+0	1.107592E+0	1.104380E+0	1.076501E+0	1.045148E+0	1.062836E+0	1.047951E+0	1.056318E+0	1.044476E+0	1.088115E+0	1.086332E+0	1.102070E+0	1.104616E+0	1.053186E+0	1.051719E+0	1.084927E+0	1.162756E+0	1.067491E+0	1.109252E+0	1.101184E+0	1.090407E+0	1.070859E+0	1.094524E+0	1.103361E+0	1.013644E+0	1.044989E+0	1.027440E+0	1.098644E+0	1.034749E+0	1.087986E+0	1.055359E+0	1.073468E+0	1.091506E+0	1.070303E+0	1.070395E+0	1.031899E+0	1.064271E+0	9.952502E-1	1.111599E+0	1.056237E+0	1.065372E+0	1.088324E+0	1.102520E+0	1.103606E+0	1.123638E+0	1.090449E+0	1.073273E+0	1.053653E+0	1.073877E+0	1.091912E+0	1.104295E+0	1.098011E+0	1.142659E+0	1.097715E+0	1.050616E+0	1.112031E+0	1.050082E+0	1.079404E+0	1.088511E+0	1.031516E+0	1.032370E+0	1.080463E+0	1.013476E+0	1.023128E+0	1.092946E+0	1.096841E+0	1.126691E+0	1.044398E+0	1.073485E+0	1.022639E+0	1.130432E+0	1.135279E+0	1.030790E+0	1.060922E+0	1.037644E+0	1.074019E+0	1.079167E+0	1.098194E+0	1.067366E+0	1.126732E+0	1.022492E+0	1.112346E+0	1.049092E+0	1.065094E+0	1.105638E+0	1.056402E+0	1.045711E+0	1.077558E+0	1.057263E+0	1.057885E+0	1.067064E+0	1.147312E+0	1.077311E+0	1.139597E+0	1.053443E+0	1.100435E+0	1.028655E+0
5.557600E+2	1.005850E+0	9.918306E-1	9.369340E-1	9.683061E-1	9.996588E-1	1.002665E+0	9.809518E-1	9.868359E-1	9.888079E-1	9.889173E-1	9.617993E-1	9.624995E-1	1.013926E+0	9.985163E-1	1.014239E+0	9.841596E-1	9.746371E-1	1.034609E+0	9.911244E-1	9.951815E-1	9.804329E-1	9.781580E-1	1.002770E+0	1.000230E+0	9.775026E-1	1.002741E+0	1.005184E+0	9.438333E-1	1.060342E+0	9.745643E-1	9.585567E-1	9.567777E-1	9.993150E-1	1.015584E+0	9.917469E-1	9.469896E-1	1.035694E+0	1.012715E+0	9.695086E-1	9.748156E-1	1.015538E+0	9.933351E-1	9.767225E-1	9.672328E-1	9.628692E-1	1.023177E+0	1.011565E+0	1.005071E+0	1.009419E+0	9.868221E-1	9.497452E-1	9.668128E-1	1.034370E+0	9.930334E-1	1.008880E+0	1.002022E+0	9.918636E-1	9.815742E-1	9.957108E-1	1.014243E+0	9.713133E-1	9.772933E-1	9.981571E-1	1.005787E+0	1.008811E+0	1.018244E+0	1.062371E+0	1.041908E+0	9.997346E-1	9.967211E-1	1.007652E+0	1.046114E+0	1.002448E+0	1.005219E+0	1.005497E+0	9.734102E-1	9.755610E-1	9.587512E-1	1.015876E+0	1.002023E+0	1.033235E+0	1.000963E+0	1.004690E+0	9.749348E-1	1.018367E+0	9.815598E-1	9.780823E-1	9.804287E-1	9.697822E-1	1.004027E+0	9.658529E-1	9.842032E-1	1.037997E+0	9.914964E-1	9.516517E-1	9.478270E-1	1.003276E+0	9.867868E-1	9.875862E-1	9.841259E-1	9.966884E-1	1.032499E+0	1.007431E+0	9.536954E-1	9.720482E-1	9.887565E-1	9.984705E-1	1.005944E+0	1.009098E+0	1.028548E+0	1.012540E+0	9.882167E-1	9.923255E-1	1.002494E+0	1.030972E+0	9.775817E-1	9.629079E-1	9.804655E-1	1.008703E+0	1.051627E+0	1.021070E+0	9.969488E-1	1.046630E+0	1.007624E+0	9.905640E-1	9.993641E-1	1.022792E+0	9.989190E-1	9.767003E-1	9.710286E-1	9.883340E-1	1.010753E+0	1.006913E+0	9.990132E-1	9.896131E-1	1.073421E+0	1.046776E+0	9.970106E-1	9.752901E-1	1.045539E+0	1.029450E+0	1.018475E+0	1.012429E+0	9.852902E-1	1.028565E+0	1.022410E+0	1.014923E+0	9.961128E-1	1.008535E+0	1.003090E+0	1.033546E+0	1.016910E+0	1.039027E+0	1.019703E+0	1.002256E+0	1.022963E+0	1.039181E+0	1.028105E+0	1.006132E+0	9.544682E-1	9.687812E-1	9.987880E-1	9.481971E-1	1.013650E+0	9.672432E-1	9.452119E-1
5.560190E+2	1.015871E+0	9.943611E-1	1.022990E+0	9.937932E-1	1.000199E+0	9.867143E-1	9.658180E-1	9.783103E-1	9.980597E-1	1.041572E+0	9.260768E-1	9.501053E-1	9.628372E-1	1.043497E+0	9.901800E-1	9.715026E-1	1.040637E+0	1.017589E+0	9.726411E-1	9.939472E-1	1.040796E+0	9.736450E-1	1.031927E+0	9.786989E-1	9.775689E-1	9.985788E-1	9.960548E-1	9.977510E-1	9.734820E-1	1.019947E+0	1.003221E+0	9.875063E-1	9.898239E-1	1.018526E+0	9.928819E-1	1.002139E+0	9.822473E-1	9.426641E-1	1.017165E+0	1.029949E+0	9.540001E-1	1.007750E+0	9.925217E-1	9.916122E-1	9.608598E-1	1.010517E+0	9.578978E-1	9.844396E-1	9.997115E-1	1.039191E+0	9.833403E-1	1.029894E+0	1.011626E+0	9.545931E-1	9.760882E-1	9.499604E-1	1.004107E+0	1.039022E+0	1.024187E+0	9.927081E-1	1.043157E+0	1.000384E+0	9.783467E-1	1.014548E+0	9.949477E-1	1.008315E+0	1.019755E+0	1.037416E+0	9.465510E-1	9.631098E-1	9.945917E-1	1.012703E+0	1.001918E+0	9.825390E-1	1.006266E+0	9.952160E-1	9.755912E-1	1.001603E+0	1.021169E+0	9.847382E-1	1.026683E+0	9.527898E-1	1.026829E+0	9.367158E-1	9.676236E-1	1.026468E+0	1.003622E+0	9.723118E-1	1.007593E+0	9.937158E-1	1.031711E+0	9.531758E-1	1.036663E+0	1.025658E+0	9.931850E-1	9.954722E-1	1.011479E+0	9.705740E-1	9.551140E-1	1.020655E+0	9.995062E-1	9.604836E-1	9.853334E-1	9.393433E-1	9.345728E-1	1.018088E+0	1.002488E+0	1.006843E+0	9.739786E-1	9.910787E-1	1.013499E+0	1.011141E+0	9.761201E-1	9.744511E-1	1.000692E+0	9.721162E-1	9.838261E-1	9.825379E-1	1.008051E+0	9.923638E-1	9.526178E-1	1.051657E+0	9.553088E-1	9.746003E-1	1.039630E+0	9.864040E-1	1.025461E+0	9.729577E-1	9.750681E-1	9.997255E-1	9.880915E-1	9.602063E-1	9.850917E-1	1.005700E+0	9.842533E-1	1.005002E+0	9.965476E-1	9.532971E-1	1.003216E+0	1.022531E+0	9.827323E-1	9.709885E-1	9.488389E-1	9.977963E-1	1.022535E+0	9.833362E-1	1.019258E+0	9.932409E-1	1.006791E+0	1.004315E+0	1.009128E+0	1.029924E+0	1.006625E+0	9.783622E-1	1.002186E+0	9.685235E-1	1.014557E+0	9.383485E-1	1.030903E+0	9.616041E-1	9.787836E-1	1.030810E+0	1.003479E+0	9.907992E-1	9.481787E-1	9.296496E-1
5.565030E+2	9.709027E-1	9.738196E-1	1.037600E+0	1.019317E+0	9.587916E-1	9.477059E-1	1.030117E+0	9.750454E-1	1.006182E+0	9.692274E-1	9.619804E-1	1.012845E+0	9.862662E-1	9.659666E-1	9.818940E-1	9.648677E-1	9.563475E-1	9.881736E-1	9.782047E-1	9.688425E-1	9.698658E-1	9.977195E-1	1.020703E+0	9.899393E-1	9.378454E-1	9.998554E-1	9.796433E-1	9.706976E-1	1.010406E+0	9.998484E-1	9.851377E-1	9.523966E-1	9.902688E-1	1.028540E+0	1.008243E+0	9.841975E-1	1.013023E+0	9.742481E-1	1.011527E+0	9.914188E-1	9.737148E-1	9.888032E-1	9.813767E-1	9.661608E-1	9.938039E-1	9.940143E-1	9.878759E-1	9.967459E-1	9.910984E-1	1.009062E+0	9.872245E-1	9.676092E-1	1.011952E+0	1.012576E+0	9.827565E-1	9.855198E-1	9.924420E-1	9.827083E-1	9.956540E-1	1.009074E+0	9.911001E-1	1.002328E+0	1.020299E+0	9.478753E-1	9.548502E-1	1.005630E+0	9.873561E-1	1.000388E+0	9.730812E-1	9.960855E-1	9.932963E-1	1.020896E+0	9.784378E-1	9.669659E-1	9.881810E-1	9.877521E-1	9.799606E-1	9.909062E-1	1.006917E+0	9.753656E-1	1.049451E+0	1.011098E+0	9.891913E-1	9.868738E-1	9.837696E-1	9.765284E-1	1.004665E+0	9.973248E-1	9.880682E-1	1.020180E+0	9.661788E-1	9.626043E-1	9.584148E-1	9.550711E-1	9.749101E-1	9.821894E-1	9.862758E-1	9.822205E-1	1.009777E+0	1.020585E+0	9.916606E-1	9.932345E-1	9.732125E-1	1.027353E+0	9.951186E-1	9.810966E-1	9.998612E-1	9.606194E-1	9.897214E-1	9.646973E-1	1.005490E+0	9.807702E-1	9.745110E-1	9.791465E-1	9.777814E-1	9.902985E-1	9.664486E-1	9.913219E-1	9.943233E-1	9.903950E-1	1.027679E+0	1.009748E+0	1.018779E+0	1.007494E+0	9.946444E-1	1.034251E+0	9.432293E-1	1.047124E+0	1.023264E+0	9.854536E-1	9.842921E-1	9.485434E-1	1.014805E+0	9.999564E-1	1.006674E+0	1.018435E+0	9.491724E-1	1.015118E+0	1.022614E+0	9.852875E-1	1.008342E+0	9.742860E-1	9.907542E-1	9.874021E-1	1.004854E+0	9.546846E-1	9.894547E-1	9.933151E-1	9.744685E-1	1.036296E+0	1.002255E+0	9.881473E-1	1.034029E+0	9.577393E-1	9.768453E-1	1.023371E+0	1.032834E+0	9.858882E-1	9.978386E-1	9.948170E-1	1.006920E+0	9.730551E-1	1.014366E+0	9.760989E-1	9.792889E-1	9.674988E-1
5.570440E+2	1.057770E+0	9.680444E-1	9.619489E-1	9.777454E-1	9.853754E-1	1.005031E+0	1.010029E+0	9.880952E-1	1.008345E+0	9.951406E-1	9.744099E-1	1.015376E+0	1.013874E+0	9.881994E-1	9.987031E-1	1.015697E+0	1.003007E+0	1.020161E+0	9.986686E-1	1.050534E+0	9.688271E-1	1.007006E+0	1.005461E+0	9.966383E-1	1.000515E+0	1.003655E+0	9.834532E-1	9.847059E-1	1.006192E+0	1.014701E+0	1.021143E+0	1.007411E+0	1.029801E+0	9.907722E-1	1.022062E+0	1.009903E+0	9.787029E-1	1.021997E+0	9.737568E-1	9.884331E-1	9.424282E-1	1.012921E+0	9.966872E-1	1.009248E+0	9.822031E-1	9.897679E-1	9.686271E-1	1.006777E+0	9.591049E-1	1.053736E+0	1.006628E+0	1.030930E+0	9.925982E-1	9.864023E-1	9.831538E-1	1.013711E+0	9.759646E-1	9.524257E-1	9.506131E-1	9.980259E-1	9.970577E-1	1.002529E+0	9.900137E-1	1.027838E+0	9.954745E-1	1.003843E+0	9.684758E-1	1.005728E+0	9.757923E-1	9.848335E-1	1.005189E+0	1.000148E+0	1.021269E+0	9.289302E-1	9.856966E-1	9.395984E-1	9.867261E-1	9.875892E-1	1.009050E+0	1.019135E+0	1.031028E+0	9.896435E-1	9.872727E-1	1.011338E+0	9.809396E-1	9.843851E-1	1.009736E+0	1.040067E+0	9.750294E-1	1.006571E+0	9.990814E-1	1.013608E+0	1.032247E+0	1.009965E+0	9.716902E-1	1.029461E+0	9.742295E-1	9.555347E-1	1.003676E+0	1.005291E+0	9.894453E-1	1.004288E+0	1.026582E+0	1.002938E+0	9.686654E-1	1.030845E+0	9.579400E-1	1.013022E+0	1.023291E+0	9.728513E-1	9.646715E-1	9.954936E-1	9.631854E-1	9.715914E-1	9.366886E-1	1.041834E+0	9.985806E-1	1.015572E+0	1.011420E+0	1.009659E+0	9.681398E-1	1.048866E+0	9.870362E-1	9.894996E-1	9.815974E-1	9.590646E-1	9.725531E-1	1.058129E+0	1.011763E+0	1.015747E+0	1.011027E+0	9.333574E-1	9.499833E-1	1.015074E+0	9.882034E-1	1.007887E+0	9.752437E-1	1.008693E+0	1.020265E+0	9.861209E-1	9.854995E-1	1.013904E+0	9.812215E-1	1.009216E+0	1.043912E+0	9.940363E-1	9.711652E-1	9.997112E-1	9.530563E-1	1.006785E+0	1.019848E+0	1.041312E+0	1.003661E+0	9.600569E-1	1.043246E+0	9.792481E-1	1.010473E+0	1.026508E+0	9.784874E-1	9.587855E-1	9.957053E-1	1.011566E+0	1.037585E+0	1.026822E+0	9.481921E-1	1.022783E+0
5.575190E+2	9.994029E-1	1.012599E+0	1.053466E+0	9.813925E-1	1.002788E+0	9.876582E-1	1.029719E+0	1.027935E+0	1.000767E+0	9.707083E-1	1.041843E+0	1.030638E+0	1.024409E+0	9.985999E-1	1.000812E+0	9.697162E-1	9.733871E-1	9.985856E-1	9.426168E-1	9.561134E-1	1.003431E+0	1.018245E+0	1.036997E+0	9.940311E-1	9.784152E-1	9.908955E-1	9.944206E-1	1.004879E+0	9.483483E-1	1.018581E+0	9.969650E-1	9.793200E-1	9.536532E-1	9.766381E-1	9.664651E-1	9.934267E-1	9.559963E-1	9.760715E-1	9.835312E-1	9.673441E-1	9.846776E-1	9.975709E-1	9.976879E-1	1.009956E+0	9.982644E-1	1.031264E+0	1.004080E+0	1.007744E+0	9.838888E-1	1.002461E+0	9.631179E-1	9.899339E-1	9.659647E-1	1.009207E+0	9.916084E-1	9.758436E-1	9.965761E-1	9.811361E-1	1.010907E+0	9.987547E-1	1.016147E+0	9.670503E-1	9.995896E-1	1.023349E+0	9.757339E-1	9.690204E-1	1.012510E+0	9.770522E-1	1.019806E+0	9.675117E-1	1.014189E+0	9.647540E-1	9.740475E-1	1.050422E+0	9.674951E-1	1.007589E+0	9.738357E-1	1.025942E+0	9.909197E-1	9.900808E-1	1.011750E+0	1.000517E+0	9.983186E-1	9.572277E-1	9.866519E-1	9.817989E-1	1.026802E+0	9.681937E-1	9.991889E-1	9.790083E-1	9.720879E-1	1.027242E+0	9.503319E-1	9.918858E-1	1.005588E+0	1.005982E+0	1.009131E+0	1.001721E+0	9.709224E-1	9.348285E-1	1.004477E+0	9.761004E-1	1.005399E+0	9.833245E-1	9.741465E-1	9.896471E-1	1.032655E+0	9.503933E-1	1.028242E+0	9.986940E-1	9.755690E-1	9.951567E-1	1.043355E+0	9.774820E-1	9.666904E-1	9.935313E-1	1.002993E+0	1.021789E+0	9.992405E-1	9.812758E-1	9.850673E-1	9.412839E-1	9.805545E-1	9.818707E-1	9.875792E-1	9.745861E-1	1.027079E+0	9.667067E-1	9.893098E-1	9.754274E-1	9.887181E-1	1.065452E+0	9.902856E-1	9.982899E-1	9.708203E-1	1.006023E+0	9.965350E-1	9.961345E-1	9.866516E-1	9.417675E-1	1.012904E+0	9.402755E-1	9.874007E-1	9.808003E-1	9.913297E-1	9.991738E-1	1.008242E+0	1.041769E+0	1.017467E+0	1.040360E+0	1.015138E+0	9.840056E-1	9.632890E-1	1.041567E+0	1.029827E+0	1.006497E+0	9.785820E-1	1.002878E+0	1.009140E+0	9.717514E-1	9.932627E-1	1.003973E+0	1.020700E+0	9.598425E-1	1.000344E+0	9.155704E-1
5.580230E+2	9.930077E-1	1.017541E+0	9.734600E-1	1.045588E+0	9.889437E-1	1.027458E+0	9.248823E-1	1.011071E+0	1.026131E+0	1.018501E+0	1.031335E+0	1.008040E+0	1.021045E+0	1.015958E+0	1.041078E+0	1.052877E+0	1.032928E+0	1.029507E+0	1.062743E+0	1.002117E+0	1.026185E+0	1.022748E+0	9.816470E-1	1.005378E+0	1.026721E+0	1.026422E+0	1.026452E+0	1.041635E+0	1.033704E+0	1.038925E+0	1.003824E+0	1.008600E+0	1.025869E+0	1.050064E+0	1.018552E+0	1.048365E+0	1.038289E+0	1.009295E+0	9.527220E-1	1.028507E+0	9.751247E-1	1.024749E+0	1.038455E+0	1.009517E+0	1.024222E+0	1.045119E+0	1.019326E+0	9.984309E-1	9.866837E-1	1.031479E+0	1.060113E+0	1.000240E+0	1.039446E+0	1.030346E+0	1.000708E+0	1.004158E+0	1.036607E+0	1.085392E+0	1.049793E+0	1.018414E+0	1.031264E+0	1.034599E+0	1.020340E+0	1.020702E+0	1.043861E+0	1.000216E+0	1.031120E+0	1.019937E+0	9.869969E-1	1.015959E+0	1.048589E+0	9.944624E-1	1.006806E+0	1.003236E+0	1.031425E+0	1.075875E+0	1.015793E+0	9.720606E-1	1.012576E+0	1.022437E+0	1.008261E+0	1.077291E+0	1.024504E+0	9.919315E-1	1.035808E+0	1.042469E+0	1.054937E+0	9.738923E-1	1.014336E+0	1.071479E+0	1.014942E+0	9.994782E-1	1.043065E+0	1.037238E+0	1.021100E+0	9.805336E-1	1.009542E+0	1.003037E+0	1.031330E+0	1.064790E+0	1.032023E+0	9.751866E-1	1.011127E+0	1.040470E+0	1.032729E+0	1.002823E+0	1.003937E+0	1.042797E+0	1.054665E+0	9.946446E-1	1.016120E+0	1.054630E+0	1.033221E+0	1.027409E+0	1.019557E+0	1.011110E+0	1.007586E+0	9.858733E-1	9.860220E-1	1.036439E+0	1.016675E+0	1.037120E+0	1.040505E+0	1.033173E+0	1.002167E+0	9.910140E-1	1.010228E+0	1.010236E+0	9.535482E-1	1.056344E+0	1.020785E+0	9.878436E-1	1.027492E+0	1.007286E+0	1.045152E+0	9.759314E-1	1.014328E+0	1.048677E+0	9.877851E-1	1.024635E+0	1.011211E+0	1.047904E+0	9.555322E-1	1.022470E+0	1.002292E+0	1.026430E+0	9.914319E-1	1.059027E+0	1.076763E+0	1.034661E+0	9.562784E-1	1.021092E+0	1.009602E+0	9.996585E-1	1.012754E+0	9.988472E-1	9.942272E-1	9.760708E-1	1.017876E+0	9.788964E-1	1.050885E+0	1.037652E+0	1.034842E+0	1.066538E+0	9.919802E-1	1.025472E+0
5.585220E+2	1.028126E+0	1.001314E+0	9.860227E-1	1.022993E+0	1.047042E+0	1.033178E+0	1.040740E+0	1.051329E+0	1.022818E+0	1.044232E+0	1.009935E+0	1.027200E+0	1.017572E+0	9.867084E-1	9.598027E-1	1.025561E+0	1.065020E+0	1.026415E+0	1.034644E+0	1.025529E+0	9.806322E-1	9.953448E-1	9.639444E-1	1.042034E+0	1.049150E+0	1.021599E+0	1.036424E+0	1.006654E+0	1.054638E+0	9.827463E-1	1.009575E+0	1.030148E+0	1.016226E+0	1.021084E+0	1.067122E+0	1.014898E+0	1.001884E+0	1.073059E+0	1.025156E+0	9.981576E-1	1.044513E+0	9.889824E-1	1.000238E+0	1.059739E+0	1.035076E+0	1.018715E+0	1.010879E+0	1.017196E+0	9.797232E-1	9.565027E-1	1.044039E+0	1.027623E+0	1.018102E+0	1.071276E+0	1.020773E+0	9.812510E-1	1.053750E+0	1.029532E+0	1.018712E+0	1.012902E+0	1.019337E+0	1.008441E+0	1.019468E+0	9.643070E-1	9.829125E-1	1.062043E+0	1.015066E+0	1.024128E+0	1.010538E+0	1.080739E+0	1.000956E+0	1.013603E+0	1.030107E+0	1.037005E+0	1.050918E+0	9.937618E-1	1.040876E+0	1.000017E+0	9.962147E-1	9.898655E-1	9.808274E-1	9.731461E-1	9.872191E-1	1.027293E+0	1.017392E+0	1.042959E+0	9.964181E-1	9.818481E-1	1.017987E+0	1.025924E+0	9.964978E-1	1.006248E+0	1.018625E+0	9.988559E-1	1.068695E+0	1.004320E+0	1.014555E+0	9.990294E-1	9.914640E-1	1.015044E+0	1.029445E+0	1.004924E+0	1.000631E+0	1.045316E+0	9.711727E-1	1.028329E+0	1.044151E+0	1.028742E+0	1.030400E+0	1.005532E+0	1.033680E+0	1.002199E+0	1.025162E+0	1.026273E+0	1.026381E+0	1.009980E+0	1.012439E+0	9.932849E-1	9.783979E-1	1.015969E+0	1.063404E+0	1.009372E+0	1.030801E+0	1.024024E+0	1.016459E+0	1.007714E+0	1.030868E+0	9.958473E-1	9.992595E-1	1.017000E+0	1.019144E+0	1.023441E+0	1.018043E+0	1.018650E+0	1.023083E+0	9.845168E-1	1.031507E+0	9.656311E-1	9.767677E-1	1.012302E+0	1.040171E+0	1.038384E+0	1.016392E+0	1.028805E+0	1.014109E+0	1.047972E+0	1.024472E+0	1.015321E+0	9.876790E-1	9.785355E-1	1.006543E+0	1.017272E+0	1.010431E+0	9.973537E-1	1.007560E+0	9.756556E-1	1.009533E+0	1.042199E+0	1.026640E+0	1.007141E+0	9.911078E-1	9.880719E-1	1.043269E+0	1.048285E+0	9.944897E-1	9.813604E-1
5.590210E+2	9.852682E-1	1.014588E+0	9.897237E-1	9.782788E-1	9.522379E-1	1.006892E+0	9.599458E-1	9.706573E-1	9.881848E-1	9.750272E-1	9.636494E-1	9.371884E-1	1.038161E+0	1.019605E+0	9.812923E-1	1.009645E+0	1.001335E+0	9.938834E-1	1.029051E+0	1.023021E+0	9.848111E-1	9.694457E-1	9.945316E-1	9.945041E-1	9.571657E-1	9.961517E-1	9.912938E-1	9.270246E-1	1.001300E+0	9.842002E-1	9.604134E-1	9.990975E-1	9.677562E-1	1.009919E+0	9.610191E-1	9.560660E-1	9.673873E-1	9.675743E-1	9.841606E-1	9.987337E-1	1.007444E+0	9.528804E-1	1.006617E+0	9.822040E-1	9.907017E-1	9.956313E-1	9.957849E-1	1.008489E+0	1.030133E+0	9.924457E-1	9.709664E-1	9.954418E-1	9.871708E-1	9.440932E-1	9.858621E-1	1.006406E+0	9.564572E-1	9.742320E-1	1.020334E+0	9.658446E-1	1.000534E+0	9.883962E-1	9.709824E-1	9.965830E-1	1.006169E+0	9.862597E-1	1.025995E+0	1.020642E+0	9.769957E-1	9.692946E-1	9.863739E-1	9.888509E-1	9.953880E-1	9.945402E-1	9.999585E-1	9.904482E-1	1.011180E+0	1.006060E+0	9.565668E-1	1.010135E+0	9.436697E-1	9.308412E-1	9.628990E-1	1.016909E+0	9.840055E-1	9.441915E-1	1.009547E+0	9.777610E-1	1.003594E+0	9.673730E-1	1.042045E+0	1.008941E+0	9.819597E-1	9.667001E-1	9.468134E-1	9.909439E-1	1.005962E+0	9.727167E-1	1.020014E+0	1.008615E+0	9.684598E-1	1.006457E+0	9.787485E-1	9.786699E-1	9.957724E-1	9.975218E-1	9.716057E-1	1.000174E+0	9.326780E-1	9.816570E-1	9.942471E-1	1.016931E+0	1.004360E+0	9.848536E-1	9.761267E-1	9.676831E-1	9.850246E-1	9.650722E-1	1.003199E+0	1.018823E+0	9.439464E-1	1.000847E+0	9.928711E-1	9.481356E-1	1.030545E+0	9.925042E-1	1.025702E+0	9.854672E-1	9.639447E-1	9.771329E-1	1.005512E+0	9.927768E-1	1.014515E+0	1.018025E+0	9.541856E-1	1.004694E+0	9.532150E-1	9.946864E-1	9.705996E-1	9.902415E-1	1.016571E+0	9.439882E-1	1.053052E+0	9.567908E-1	1.015825E+0	9.390228E-1	9.445831E-1	9.813240E-1	9.577889E-1	9.739783E-1	9.872740E-1	9.301765E-1	9.973628E-1	1.035208E+0	9.477991E-1	9.890049E-1	1.005882E+0	9.973445E-1	9.876759E-1	9.980470E-1	9.971726E-1	1.044601E+0	9.616307E-1	9.751167E-1	1.048284E+0	1.042593E+0
5.595050E+2	9.522974E-1	1.004847E+0	1.007971E+0	9.640434E-1	1.001600E+0	1.022666E+0	1.009369E+0	1.044374E+0	9.727160E-1	9.869477E-1	9.803172E-1	1.018725E+0	9.531399E-1	9.986651E-1	1.034834E+0	1.003258E+0	1.012619E+0	9.836576E-1	9.676955E-1	9.920155E-1	1.028759E+0	1.003102E+0	9.843247E-1	9.896334E-1	1.029325E+0	9.674520E-1	9.687625E-1	1.009121E+0	9.899970E-1	9.880928E-1	9.881765E-1	1.009421E+0	9.658816E-1	9.585821E-1	1.003628E+0	9.835117E-1	1.022299E+0	1.004361E+0	1.009055E+0	9.958243E-1	9.766242E-1	1.046832E+0	1.002258E+0	1.009389E+0	9.886648E-1	9.708057E-1	1.009925E+0	9.868862E-1	9.857299E-1	1.013028E+0	9.559736E-1	9.924170E-1	1.027979E+0	9.669995E-1	1.043846E+0	9.966385E-1	9.663405E-1	9.876978E-1	9.754159E-1	9.906007E-1	9.778854E-1	1.029501E+0	9.706006E-1	9.720993E-1	1.022706E+0	9.691613E-1	9.695984E-1	9.811671E-1	9.827969E-1	1.048329E+0	9.626304E-1	9.856849E-1	9.793071E-1	9.740941E-1	9.797795E-1	9.901441E-1	9.829411E-1	9.853016E-1	1.014576E+0	9.918439E-1	1.004358E+0	1.007990E+0	1.021296E+0	1.009762E+0	1.002680E+0	1.009659E+0	9.652669E-1	1.027900E+0	9.895962E-1	9.911262E-1	1.007360E+0	9.558485E-1	9.664317E-1	9.694082E-1	9.560435E-1	9.966432E-1	9.682708E-1	1.011812E+0	9.513984E-1	9.858789E-1	1.007752E+0	9.926551E-1	1.011856E+0	9.788182E-1	9.716957E-1	9.889353E-1	1.005046E+0	9.945399E-1	1.022099E+0	9.974794E-1	1.013624E+0	9.810437E-1	9.665279E-1	9.954241E-1	1.044130E+0	9.980140E-1	1.007842E+0	9.890823E-1	9.693091E-1	9.497088E-1	9.810718E-1	9.521138E-1	9.719631E-1	9.755653E-1	9.912025E-1	1.020587E+0	9.316271E-1	9.759889E-1	9.946040E-1	9.705398E-1	9.847734E-1	1.004173E+0	9.921972E-1	9.746171E-1	9.730086E-1	9.896188E-1	1.022150E+0	1.020361E+0	9.851244E-1	1.001149E+0	9.982376E-1	9.831576E-1	1.016890E+0	1.021284E+0	9.545492E-1	9.782670E-1	9.894660E-1	1.006653E+0	9.751196E-1	9.869178E-1	9.992064E-1	9.992117E-1	9.793221E-1	1.012194E+0	9.342374E-1	1.011366E+0	1.004408E+0	9.612232E-1	1.019512E+0	9.910368E-1	9.969244E-1	1.000098E+0	9.759425E-1	9.988208E-1	9.989223E-1	9.711333E-1
5.600410E+2	9.581807E-1	9.790497E-1	9.659261E-1	9.461628E-1	9.955239E-1	1.001100E+0	9.815568E-1	9.724345E-1	9.648651E-1	1.027337E+0	1.034941E+0	9.525699E-1	9.699728E-1	9.980412E-1	1.002294E+0	9.776481E-1	9.737245E-1	9.903024E-1	1.005205E+0	1.026314E+0	1.010076E+0	9.707858E-1	9.970114E-1	1.001624E+0	9.890640E-1	9.782545E-1	9.748019E-1	1.009328E+0	9.898221E-1	9.906452E-1	1.003111E+0	1.008600E+0	1.033624E+0	9.834813E-1	9.753777E-1	9.914794E-1	1.003003E+0	9.960445E-1	1.032439E+0	1.004799E+0	1.040058E+0	9.742065E-1	1.008884E+0	9.723537E-1	9.762772E-1	9.995769E-1	9.739512E-1	9.477525E-1	1.001084E+0	9.177743E-1	9.930798E-1	9.930342E-1	9.787043E-1	9.774130E-1	9.935956E-1	1.039948E+0	9.823380E-1	9.550644E-1	9.922095E-1	1.013514E+0	9.386253E-1	9.722372E-1	9.732291E-1	1.012998E+0	9.833345E-1	1.008970E+0	1.000562E+0	9.824861E-1	1.033011E+0	9.441169E-1	9.664226E-1	1.005854E+0	9.825639E-1	9.904619E-1	1.012623E+0	9.856177E-1	9.755254E-1	9.960087E-1	9.473190E-1	9.824163E-1	9.778772E-1	9.925619E-1	9.627860E-1	9.917993E-1	9.992079E-1	9.752444E-1	9.407300E-1	1.009879E+0	1.018711E+0	9.936706E-1	1.032607E+0	9.953448E-1	1.025071E+0	1.045117E+0	1.000164E+0	9.870884E-1	1.022775E+0	1.005585E+0	1.017662E+0	9.905106E-1	9.645289E-1	1.032970E+0	9.458823E-1	9.739754E-1	1.015762E+0	1.005309E+0	1.011667E+0	1.000330E+0	9.725848E-1	1.056780E+0	1.014510E+0	9.831261E-1	1.002723E+0	1.011124E+0	9.753850E-1	9.643051E-1	1.000607E+0	1.014570E+0	1.005397E+0	1.001362E+0	1.009869E+0	9.706975E-1	9.972451E-1	1.012792E+0	1.003572E+0	1.023838E+0	1.047154E+0	9.848389E-1	1.003830E+0	9.795694E-1	9.787951E-1	1.013623E+0	9.844511E-1	9.980969E-1	9.731467E-1	9.660324E-1	9.937617E-1	9.834493E-1	1.035121E+0	9.831041E-1	9.639217E-1	1.009550E+0	9.523697E-1	9.993268E-1	9.980550E-1	1.046554E+0	1.019674E+0	9.508499E-1	1.010846E+0	9.579481E-1	1.033687E+0	1.012992E+0	9.885133E-1	1.021451E+0	1.003913E+0	1.016899E+0	9.631731E-1	1.010700E+0	9.949801E-1	9.976838E-1	1.016601E+0	9.327464E-1	9.370447E-1	9.629384E-1	1.017128E+0	1.065955E+0
5.604980E+2	9.996080E-1	1.047358E+0	1.039188E+0	1.068265E+0	1.053947E+0	1.016524E+0	1.035079E+0	1.010593E+0	1.055894E+0	1.009871E+0	1.014269E+0	1.009147E+0	9.997456E-1	1.005421E+0	1.038019E+0	9.831753E-1	1.000020E+0	9.691040E-1	9.986760E-1	9.889517E-1	1.014182E+0	9.894452E-1	1.008447E+0	9.690932E-1	1.017462E+0	1.036049E+0	1.010103E+0	1.017075E+0	9.976520E-1	9.816105E-1	1.010767E+0	1.017063E+0	1.021889E+0	9.819839E-1	9.624704E-1	1.006721E+0	1.041833E+0	9.878666E-1	1.028261E+0	1.024410E+0	9.968549E-1	1.048827E+0	9.690861E-1	9.876580E-1	1.012726E+0	9.653300E-1	1.004390E+0	1.028786E+0	1.068165E+0	1.011454E+0	1.002105E+0	1.009812E+0	1.006979E+0	1.010492E+0	1.026871E+0	9.907726E-1	1.023339E+0	1.039816E+0	9.839941E-1	9.839718E-1	1.039475E+0	1.023335E+0	9.930497E-1	1.011501E+0	1.016737E+0	1.017042E+0	9.989654E-1	1.029025E+0	1.043881E+0	9.831986E-1	1.032816E+0	1.014199E+0	1.031729E+0	1.010997E+0	9.806503E-1	1.022894E+0	1.012665E+0	1.019457E+0	1.032150E+0	9.927412E-1	9.976384E-1	1.019802E+0	1.037419E+0	9.875843E-1	9.855731E-1	1.009236E+0	1.010203E+0	1.039630E+0	1.008074E+0	9.706830E-1	1.006640E+0	1.018230E+0	1.015777E+0	9.844010E-1	1.036440E+0	1.004591E+0	1.041362E+0	1.035408E+0	9.935990E-1	9.784741E-1	1.037740E+0	1.036953E+0	1.017893E+0	9.904636E-1	1.024468E+0	9.748825E-1	1.025183E+0	9.891806E-1	9.596698E-1	1.016636E+0	9.438486E-1	9.804026E-1	9.929893E-1	1.005443E+0	1.049546E+0	1.066820E+0	1.048497E+0	1.010352E+0	1.063578E+0	1.016822E+0	1.038473E+0	1.022688E+0	9.848823E-1	9.595025E-1	9.744080E-1	1.007159E+0	1.020249E+0	9.948954E-1	1.041466E+0	9.938321E-1	1.005766E+0	1.015456E+0	1.011983E+0	1.010469E+0	1.058907E+0	1.033117E+0	1.043989E+0	9.913817E-1	9.861244E-1	1.043633E+0	9.914933E-1	9.970763E-1	1.016952E+0	1.018136E+0	1.018418E+0	1.020645E+0	1.016187E+0	1.009026E+0	1.057341E+0	9.769036E-1	9.685868E-1	9.795969E-1	1.007856E+0	9.806296E-1	1.003244E+0	9.786465E-1	1.010421E+0	1.004527E+0	9.693468E-1	1.026622E+0	9.938875E-1	9.999653E-1	9.989107E-1	1.009286E+0	1.009838E+0	9.651555E-1
5.610070E+2	1.055436E+0	9.808384E-1	9.846935E-1	9.962133E-1	1.013750E+0	9.517860E-1	9.785635E-1	9.484653E-1	9.540975E-1	1.003008E+0	9.873200E-1	9.882718E-1	9.758144E-1	1.022835E+0	9.612713E-1	9.975542E-1	9.816116E-1	1.000210E+0	9.824950E-1	9.665620E-1	1.013231E+0	1.026159E+0	1.006933E+0	1.017124E+0	1.014337E+0	9.796658E-1	1.034646E+0	1.028881E+0	9.679408E-1	1.000650E+0	1.020888E+0	9.879409E-1	9.950302E-1	9.989360E-1	1.015061E+0	1.011431E+0	9.775815E-1	9.894832E-1	9.993908E-1	1.002372E+0	1.058561E+0	9.642270E-1	9.987098E-1	9.937743E-1	9.980604E-1	9.897753E-1	1.025161E+0	1.001192E+0	1.014389E+0	1.012058E+0	1.016752E+0	9.929594E-1	9.711022E-1	9.911953E-1	9.708252E-1	1.005751E+0	1.016186E+0	1.011995E+0	1.002367E+0	1.008898E+0	9.885745E-1	9.715819E-1	1.042428E+0	1.022747E+0	1.018220E+0	9.778149E-1	9.903515E-1	9.594472E-1	9.971001E-1	1.009932E+0	9.895389E-1	1.011548E+0	1.000344E+0	1.043346E+0	1.003274E+0	1.006319E+0	1.020497E+0	1.016658E+0	1.033710E+0	1.025979E+0	9.951404E-1	9.971087E-1	1.029094E+0	1.019282E+0	1.023971E+0	1.033529E+0	9.816950E-1	9.835037E-1	9.854161E-1	9.739848E-1	9.625601E-1	1.012455E+0	1.008078E+0	1.041358E+0	1.018556E+0	1.018247E+0	9.678977E-1	1.032935E+0	1.010157E+0	9.959837E-1	9.744682E-1	9.772314E-1	1.028669E+0	9.786715E-1	1.050470E+0	1.000611E+0	9.479551E-1	1.020201E+0	9.866497E-1	1.011029E+0	1.038239E+0	1.010246E+0	9.939658E-1	1.021253E+0	1.027715E+0	9.564235E-1	9.699837E-1	1.013082E+0	9.891123E-1	9.795451E-1	9.656751E-1	1.007263E+0	9.953624E-1	1.067944E+0	1.017826E+0	9.892819E-1	9.913097E-1	9.807669E-1	1.019010E+0	1.028954E+0	1.001187E+0	1.015334E+0	9.962451E-1	9.595350E-1	1.006819E+0	1.013745E+0	1.020098E+0	9.758680E-1	1.028947E+0	1.031760E+0	9.716495E-1	1.051474E+0	1.029436E+0	9.757688E-1	9.566558E-1	9.932142E-1	1.045324E+0	9.430036E-1	9.894703E-1	1.007614E+0	1.011183E+0	1.026194E+0	1.005933E+0	9.941427E-1	1.040574E+0	1.020466E+0	9.904659E-1	9.926609E-1	9.985031E-1	1.075220E+0	9.575328E-1	1.008271E+0	9.757097E-1	9.762514E-1	1.011533E+0	1.042479E+0
