Photon Energy (eV)	#1	#2	#3	#4	#5	#6	#7	#8	#9	#10	#11	#12	#13	#14	#15	#16	#17	#18	#19	#20	#21	#22	#23	#24	#25	#26	#27	#28	#29	#30	#31	#32	#33	#34	#35	#36	#37	#38	#39	#40	#41	#42	#43	#44	#45	#46	#47	#48	#49	#50	#51	#52	#53	#54	#55	#56	#57	#58	#59	#60	#61	#62	#63	#64	#65	#66	#67	#68	#69	#70	#71	#72	#73	#74	#75	#76	#77	#78	#79	#80	#81	#82	#83	#84	#85	#86	#87	#88	#89	#90	#91	#92	#93	#94	#95	#96	#97	#98	#99	#100	#101	#102	#103	#104	#105	#106	#107	#108	#109	#110	#111	#112	#113	#114	#115	#116	#117	#118	#119	#120	#121	#122	#123	#124	#125	#126	#127	#128	#129	#130	#131	#132	#133	#134	#135	#136	#137	#138	#139	#140	#141	#142	#143	#144	#145	#146	#147	#148	#149	#150	#151	#152	#153	#154	#155	#156	#157	#158	#159	#160	#161	#162	#163	#164	#165	
5.300520E+2	-1.114716E-2	-9.636776E-3	-1.110069E-2	-5.058183E-3	-1.292681E-2	-8.341236E-3	-4.570080E-3	-9.869514E-5	-7.240609E-3	-9.957498E-3	-4.961470E-3	-6.857868E-3	-5.884929E-3	-7.449787E-3	-9.918827E-4	-7.105234E-3	4.265300E-3	-1.222362E-2	2.248174E-3	-1.189391E-3	-2.418431E-3	5.531652E-3	-3.757501E-3	-6.322202E-3	-7.073387E-3	-1.395442E-2	-5.153374E-3	-9.264029E-3	-8.508401E-3	-5.037182E-3	-4.421161E-3	4.183471E-4	-3.309628E-3	-5.604127E-3	-1.929799E-3	-7.494756E-3	-1.313058E-2	-5.542189E-3	-2.478280E-3	-6.660787E-3	-4.470538E-3	-2.340952E-2	-1.065566E-2	-5.577407E-3	-2.764740E-3	1.490987E-3	-7.830093E-3	-1.516591E-2	-8.645364E-3	-3.608587E-3	-1.152932E-2	-2.058576E-3	-8.878572E-3	-9.856125E-3	-9.785627E-3	-6.686410E-3	-1.815886E-3	-1.423558E-2	-1.268407E-2	-5.480679E-3	-1.183360E-2	-1.093264E-2	-1.419277E-2	-4.887133E-3	-7.486794E-3	-1.853983E-2	-1.203240E-2	-8.887290E-3	-8.224251E-3	-7.763484E-3	-4.769238E-3	-8.772534E-3	-6.691575E-3	-1.887422E-2	-2.767797E-3	-1.651627E-3	-8.401458E-3	-9.257902E-3	-2.268249E-3	-8.533393E-3	-8.023715E-3	-1.221012E-2	-9.604506E-3	-2.525523E-3	-5.322527E-3	-7.577189E-3	-3.642370E-3	-9.699336E-3	-8.117358E-3	-5.191649E-3	-4.748458E-3	-4.107908E-3	-5.893184E-3	-7.848393E-3	-1.989768E-3	-9.762433E-3	-1.050115E-2	-1.260634E-2	-8.312738E-3	-1.077886E-2	-7.137056E-3	-1.201128E-2	-4.849649E-3	-1.206657E-2	-1.000660E-2	-8.311398E-3	-7.273347E-3	-6.646241E-3	-1.003400E-2	-8.728654E-3	-5.298444E-3	-3.849307E-3	-1.147210E-2	4.220030E-3	-1.006388E-3	1.855647E-3	-4.143116E-3	-7.597330E-3	-1.193567E-2	-1.364101E-3	-1.543446E-3	-1.329875E-2	-3.233289E-3	-6.884675E-3	2.422213E-3	-9.494545E-4	-1.220336E-2	-1.382369E-2	-1.056822E-2	-1.964192E-3	-4.808203E-3	-7.074287E-3	-8.163445E-3	-1.305211E-2	-2.276334E-3	-5.332173E-3	-2.269828E-3	-1.221312E-2	-3.109730E-3	-1.255636E-2	-1.211239E-2	-9.228578E-3	-7.626440E-3	-7.660172E-3	-1.041607E-2	-1.039263E-2	-9.464091E-3	-1.240885E-2	-4.877367E-3	-5.120450E-3	-2.517437E-3	-2.699603E-3	-8.097370E-3	-1.049350E-2	-2.912055E-3	-3.669222E-3	-6.342754E-3	-8.800104E-3	-5.085490E-3	-3.595055E-3	-5.489148E-3	-9.494684E-3	-3.141206E-3	-8.033732E-3	3.888260E-4
5.305180E+2	-7.694535E-3	1.845340E-3	-7.503289E-3	-1.445220E-3	-6.223999E-3	-1.251192E-2	-1.379821E-2	-1.115564E-2	-3.486229E-3	-3.983003E-3	-8.377634E-3	-1.597044E-3	1.508952E-3	-9.767503E-3	-7.935178E-3	-1.456571E-2	-1.123741E-2	-1.030796E-2	9.892122E-4	7.319206E-4	4.030736E-4	-1.018141E-2	-3.757477E-3	-6.322210E-3	-9.580436E-3	-2.755312E-3	-8.110201E-3	-7.393428E-3	-4.013412E-3	-9.818226E-3	-1.642139E-2	-9.538784E-3	-5.516025E-3	-9.894741E-3	-2.605222E-3	-1.147931E-2	-6.014664E-3	-1.181793E-2	-3.076490E-3	-6.092205E-3	4.004903E-3	-2.350388E-3	-1.395606E-2	5.757300E-3	-1.351652E-2	-2.806548E-3	-1.281286E-2	-5.934470E-3	-4.532512E-3	-8.142462E-3	-3.963211E-3	-1.521553E-2	-9.481940E-3	-9.261377E-3	4.726967E-3	-5.597911E-3	-3.026448E-3	7.800225E-4	-1.391728E-2	-1.004810E-3	-7.691838E-3	-1.409495E-2	-1.005324E-2	-2.527812E-3	-1.001247E-2	-1.092297E-8	-6.417305E-3	-6.211543E-3	-8.224274E-3	-7.763452E-3	-8.083657E-4	-6.598827E-3	-4.052664E-3	-8.276414E-3	-7.934378E-3	-8.953639E-3	-2.240399E-3	-8.575770E-3	-2.268223E-3	-1.024006E-2	-3.606182E-3	-3.938725E-3	-1.492978E-2	-8.182758E-3	-1.226882E-2	-3.742944E-3	-1.407285E-2	-7.880707E-3	-1.009949E-2	-3.793892E-3	-7.210618E-3	-1.026978E-2	-1.084342E-2	-3.527370E-3	-2.595317E-3	-5.857448E-3	-1.346522E-2	6.780691E-3	-9.779021E-5	-6.625525E-3	-3.244227E-4	-6.005663E-3	-7.827520E-3	-1.617253E-2	-1.175774E-2	-5.636419E-3	1.939668E-4	-1.471030E-2	-6.935269E-3	-1.187819E-2	1.997794E-3	-4.422602E-3	-2.889925E-3	-7.458645E-3	-4.848707E-3	-9.766578E-3	-1.674881E-3	-5.123777E-3	2.569473E-3	6.394252E-3	-9.946685E-3	-4.654539E-3	-2.586635E-3	-1.308091E-2	-9.063720E-3	-1.690091E-2	-6.289409E-3	-5.811243E-3	-9.994754E-3	-5.582441E-3	-3.513733E-3	1.992774E-3	-5.277397E-3	-5.742942E-3	-7.179243E-3	-1.116426E-2	-6.083170E-3	-8.873625E-3	-1.130829E-3	-3.373365E-3	-7.529335E-3	-1.178694E-2	-3.124070E-3	-8.865170E-3	-8.371776E-3	-4.513959E-3	-1.873111E-3	-9.067987E-3	-9.473333E-3	-7.188322E-3	-1.909811E-3	-6.708114E-3	-7.500711E-3	-4.537705E-3	-1.010656E-2	2.303928E-3	-1.242485E-2	-4.647238E-3	-6.992559E-3	-2.965910E-3	-3.742608E-3	-6.725404E-3	-1.983905E-3	4.267967E-3	-7.775770E-3
5.310250E+2	-7.891747E-4	4.100806E-4	1.850097E-3	1.445215E-3	-8.234898E-3	1.191606E-3	2.812386E-3	-9.082490E-3	-6.614867E-3	4.646868E-3	-1.065502E-2	-1.597038E-3	-6.035775E-4	-1.655476E-3	1.322503E-3	-8.881611E-4	-9.022766E-4	-1.030796E-2	-4.676271E-3	-6.953250E-3	-9.754306E-3	-1.242614E-2	3.340122E-4	-5.747436E-3	-2.686114E-3	-8.977100E-3	-2.787896E-3	-4.275683E-3	-5.699002E-3	3.329671E-3	-5.684323E-3	-8.953053E-3	-1.103226E-3	-7.442932E-3	9.651043E-5	-7.494750E-3	-6.607641E-3	-1.548559E-3	-4.871112E-3	-9.747546E-4	-5.774471E-3	-1.034164E-3	-3.394746E-3	-9.355638E-3	-1.082857E-2	-9.559920E-3	-1.601620E-3	-4.203600E-3	5.455824E-3	-5.551709E-3	-4.593689E-3	2.327101E-3	-7.068347E-3	-1.045091E-2	8.209957E-3	-1.104034E-2	-1.028989E-2	-5.849862E-4	-1.206752E-2	-2.283633E-3	-9.615122E-4	4.517669E-4	5.913686E-3	-1.348193E-3	-1.172632E-3	-7.671633E-3	8.556385E-3	-9.556181E-3	1.787894E-3	-7.763481E-3	-1.042770E-2	-2.794791E-3	-5.372159E-3	7.973621E-3	-9.871847E-3	-4.346367E-4	-8.401499E-3	9.745266E-4	-1.624070E-2	-9.102296E-3	-4.508051E-4	4.332621E-3	8.368306E-3	-3.939826E-3	-5.953987E-3	-6.938184E-3	-6.539752E-3	-6.668277E-3	-2.831621E-3	-1.287928E-2	-5.364013E-3	-2.053935E-3	6.207478E-3	-2.910084E-3	-1.228459E-2	-1.952489E-3	3.726220E-3	-4.584147E-3	-6.258983E-3	1.681099E-3	8.110123E-4	-2.402233E-3	5.105063E-4	-2.681458E-3	-1.250798E-3	-2.292767E-3	-8.631068E-3	-6.025910E-3	-1.254237E-3	-8.728665E-3	-1.137864E-2	-2.702684E-3	5.692269E-3	-8.145639E-3	-8.050711E-3	-7.031918E-3	-6.611368E-3	-9.452447E-3	-6.133575E-3	-1.031603E-2	-9.432195E-4	6.649350E-3	-6.466621E-3	-1.239242E-2	-1.015757E-2	-3.608037E-3	2.815971E-4	3.521740E-4	-7.700887E-3	4.548655E-3	4.253417E-3	-1.125914E-2	-4.122956E-3	-3.306550E-3	-1.453359E-2	2.832723E-3	-5.447633E-3	-1.020943E-2	-6.407901E-3	-8.620768E-3	4.910708E-4	-6.030482E-3	1.378300E-3	-1.007012E-2	-1.654890E-2	-5.983632E-3	-1.084428E-2	-2.386322E-3	-2.907660E-3	-5.809712E-3	-1.909758E-3	-8.426086E-3	2.045651E-3	-1.711098E-2	-1.712958E-3	-7.850439E-3	-3.301705E-3	-1.295300E-2	-9.535291E-3	-6.111585E-3	-7.235710E-3	-7.648509E-3	-8.927651E-3	-8.033692E-3	-1.049726E-2
5.315130E+2	4.044567E-3	-7.483889E-3	-6.064263E-3	-3.613004E-3	-4.213203E-3	-2.979054E-3	-1.494051E-3	8.193951E-3	-4.111939E-3	5.310674E-3	2.440085E-3	-6.857889E-3	-4.828649E-3	-4.966393E-4	-8.513807E-3	-3.374993E-3	4.265277E-3	-2.645422E-3	-4.676247E-3	-6.312836E-3	-8.061377E-3	-4.569615E-3	-7.264437E-3	-2.873733E-3	1.701201E-3	2.222078E-3	-8.701634E-3	3.830326E-3	-1.765885E-3	2.134381E-3	-1.894778E-3	-6.610219E-3	-8.274047E-3	-6.830012E-3	7.719250E-4	4.458867E-3	1.177515E-2	-2.689580E-3	-1.281916E-3	-6.092231E-3	-1.862749E-3	1.212780E-2	1.225846E-3	1.349375E-3	-1.151990E-3	-5.876257E-3	-8.452935E-3	6.181730E-3	-5.707627E-3	1.572962E-3	9.908044E-3	-5.191192E-3	-6.464949E-3	3.228743E-3	-6.883135E-3	-1.243987E-3	-6.052903E-3	6.922763E-3	7.663329E-3	-3.562453E-3	3.698014E-3	-1.807411E-4	1.774075E-3	-2.527809E-3	-1.804032E-3	-6.393439E-4	-3.297751E-3	-1.911138E-4	5.363588E-4	-5.822607E-3	-8.083605E-4	-9.315955E-3	-2.733193E-3	-1.211174E-3	-7.288554E-3	-2.868653E-3	3.360584E-3	-5.164949E-3	9.072972E-4	1.024007E-2	1.803435E-4	-2.560217E-3	3.803741E-4	-6.061258E-3	2.255306E-3	-1.825871E-3	-1.324482E-3	-2.424804E-3	-3.492349E-3	-4.492789E-3	-3.517391E-3	-1.369295E-3	2.357277E-3	-6.613793E-3	-1.228456E-2	-5.206658E-3	-9.315574E-3	-3.915607E-3	5.868168E-4	7.911103E-3	-3.244044E-4	6.314509E-9	-1.140095E-2	4.357363E-3	-6.670920E-4	-9.648847E-3	4.945877E-3	-4.430890E-4	1.844468E-3	-5.399333E-4	7.817550E-4	-1.130221E-2	-5.341986E-3	-4.023777E-3	-6.129525E-3	-8.399268E-3	1.410434E-3	3.533666E-3	-9.117405E-4	-2.557702E-3	-6.945525E-3	-1.928321E-2	-7.760000E-3	9.638583E-3	-5.235086E-3	5.032292E-3	-4.975169E-3	2.817537E-3	1.474660E-3	-5.168961E-4	-7.397264E-3	-4.981918E-3	-2.968520E-3	-3.915639E-3	-2.889221E-3	-4.748978E-3	-5.447586E-3	-3.530361E-3	-1.130820E-3	-2.061486E-3	-4.092023E-3	3.563461E-3	-5.513039E-4	-4.303412E-4	4.867462E-4	-4.513962E-3	-7.393833E-3	-1.374519E-2	-2.907651E-3	-3.052546E-3	-3.732752E-3	4.172117E-3	8.523418E-4	-5.199461E-3	-2.912063E-3	-2.474579E-3	3.475603E-4	-4.647241E-3	-1.271391E-3	-2.965927E-3	-1.413875E-3	-2.637405E-4	-4.298497E-3	7.531450E-4	5.831840E-3
5.320120E+2	3.354016E-3	3.998230E-3	-1.325919E-2	-1.228409E-2	1.149061E-3	-8.937095E-3	-5.800524E-3	-4.936121E-3	6.525474E-3	-8.629862E-3	1.301381E-3	1.690991E-3	3.621523E-3	8.277899E-5	-1.570500E-3	9.680892E-3	-2.050644E-3	-6.476702E-3	-5.305743E-3	2.012782E-3	-2.418429E-3	1.042186E-3	-2.505219E-4	3.448499E-3	2.327968E-3	5.332916E-3	1.351691E-3	1.336138E-3	4.816329E-4	5.720197E-3	2.526370E-3	3.932683E-3	-2.757999E-3	4.816011E-3	-1.003496E-2	-8.538193E-4	1.694268E-3	1.304032E-3	-3.076493E-3	7.310699E-4	-7.730370E-3	2.914448E-3	-6.035051E-3	1.979086E-3	-6.143916E-4	6.402488E-3	1.512658E-3	-5.357492E-3	-2.769890E-3	5.459164E-3	-7.746294E-3	8.592271E-3	4.999572E-3	-2.718960E-3	-1.094663E-2	-2.876729E-3	-3.026440E-3	-1.267579E-3	3.963807E-3	-2.923048E-3	-1.479225E-3	2.981639E-3	-1.123595E-2	-4.297326E-3	-1.172620E-3	-2.557190E-3	1.069550E-3	7.836049E-3	-2.592463E-3	3.881740E-3	-2.505887E-3	4.813225E-3	3.864154E-3	-1.251550E-2	-2.121997E-3	7.823533E-4	1.680298E-3	3.703159E-3	1.106908E-2	-4.551133E-3	-1.081820E-3	3.643337E-3	-9.604506E-3	-5.354152E-3	-2.165085E-3	3.925573E-3	6.208586E-3	6.062073E-3	-6.135195E-3	-2.995012E-4	-6.595077E-3	6.846492E-4	-3.929002E-4	1.067028E-2	-2.595340E-3	-4.555820E-3	3.726234E-3	-7.258218E-3	-9.778706E-5	-4.548863E-3	-8.272483E-3	-6.606218E-3	5.275040E-3	4.357371E-3	3.418910E-3	-3.630241E-3	-1.474071E-2	1.320388E-2	6.492579E-3	-3.059521E-3	-3.474430E-3	5.323515E-3	-5.341950E-3	2.159078E-3	1.555274E-3	7.324943E-3	-7.845502E-3	1.466457E-2	-3.812764E-3	1.023063E-3	6.259527E-3	3.324708E-3	1.293336E-3	7.573153E-3	-3.047283E-3	-1.557157E-2	2.910026E-3	2.201254E-3	2.048102E-3	-1.240521E-3	-2.866425E-3	1.295326E-3	-3.545753E-3	7.657244E-3	1.751015E-4	4.998873E-4	4.721277E-3	-3.530382E-3	-4.711533E-4	1.105708E-2	4.501220E-3	2.923892E-3	-1.194517E-3	8.004451E-3	1.168173E-3	6.298503E-4	2.957531E-3	1.097700E-2	3.001435E-3	-4.431115E-3	-1.041702E-2	-1.014395E-2	-6.307437E-3	1.332954E-2	-5.310206E-3	-8.447751E-3	3.388587E-3	9.195610E-3	-1.017100E-2	-7.998994E-3	-4.906968E-3	4.351731E-3	-4.298551E-3	9.540006E-3	3.110270E-3
5.325070E+2	-2.170254E-3	-7.483903E-3	1.048401E-2	1.083894E-2	1.321410E-2	1.191614E-2	3.427574E-3	6.120815E-3	-4.111951E-3	-5.974525E-3	7.564284E-3	1.033351E-3	-4.828679E-3	3.559323E-3	1.000167E-2	-7.105268E-3	-1.476456E-3	2.225792E-2	-2.697933E-4	-5.489059E-4	4.353165E-3	-6.413803E-4	1.085496E-2	4.023205E-3	4.834962E-3	9.065906E-3	1.495325E-2	6.948031E-3	1.452847E-2	-1.161114E-2	-6.316158E-4	1.037551E-2	4.964436E-3	9.719607E-3	5.499920E-3	1.508439E-2	2.880252E-3	4.156657E-3	-2.478304E-3	9.260151E-3	-5.588420E-4	1.598261E-3	1.178724E-2	-3.058552E-3	4.761484E-3	-9.647533E-4	5.249697E-3	7.912664E-3	5.455835E-3	-3.701153E-4	4.863906E-3	-2.685060E-3	8.619947E-3	9.176404E-3	8.294339E-5	1.453906E-2	1.210577E-2	9.750242E-5	7.046702E-3	-8.038355E-3	5.916743E-4	2.349146E-3	1.064462E-2	7.499250E-3	8.930022E-3	1.534331E-2	-1.782564E-4	3.822483E-3	1.787891E-3	1.358610E-2	4.850114E-3	5.356694E-3	1.112128E-2	5.854021E-3	1.273192E-2	9.301345E-3	3.360592E-3	-8.575741E-3	2.177499E-3	5.120046E-3	2.073522E-3	1.969305E-4	1.236224E-2	1.515320E-2	6.044204E-3	3.286497E-3	4.139368E-4	1.333655E-2	2.454093E-3	5.291489E-3	1.406954E-3	4.107873E-3	4.007375E-3	-4.144676E-3	6.488316E-3	1.236576E-2	4.911846E-3	2.769590E-3	4.694223E-3	5.834406E-3	9.894576E-3	6.005659E-3	7.657348E-3	-2.094900E-3	1.392585E-2	3.821340E-4	1.580746E-2	1.772248E-4	3.393873E-3	8.908623E-3	1.051004E-2	4.176894E-3	5.692255E-3	6.281004E-3	3.476448E-3	1.171985E-3	8.815153E-3	-7.950640E-4	7.211122E-3	-5.541683E-3	-2.743870E-3	5.984446E-3	5.819960E-3	9.638548E-3	2.422210E-3	5.032261E-3	8.823965E-3	3.433934E-3	7.209325E-3	4.548652E-3	-3.513703E-3	-6.376862E-3	9.730181E-3	2.175338E-3	6.916598E-3	8.081607E-3	1.107680E-2	7.156112E-3	2.827044E-3	5.153711E-3	5.074110E-3	3.654887E-4	-5.513098E-4	8.004432E-3	1.684094E-2	6.298672E-4	8.478281E-3	5.631728E-3	6.940867E-3	1.142251E-2	2.951487E-3	5.890060E-3	8.012135E-3	9.359053E-3	7.879682E-3	9.471730E-3	9.470670E-3	1.888563E-2	8.263932E-3	1.653724E-2	6.154529E-3	-3.032990E-3	-8.266615E-4	-1.004218E-3	2.488241E-2
5.330280E+2	1.440254E-2	1.835092E-2	2.559332E-2	1.011635E-2	1.723575E-2	1.966156E-2	1.942291E-2	1.095818E-2	1.904012E-2	1.858735E-2	1.268837E-2	1.418550E-2	1.101536E-2	1.572730E-2	7.687194E-3	2.335848E-2	7.136214E-3	1.970374E-2	1.169067E-2	1.225968E-2	1.789631E-2	2.124471E-2	3.840967E-3	1.379388E-2	1.047581E-2	9.065937E-3	8.448159E-3	8.818644E-3	4.976593E-3	1.528230E-2	2.652689E-2	1.037552E-2	1.599649E-2	1.523619E-2	8.201625E-3	7.779374E-3	9.403213E-3	1.613757E-2	1.726259E-2	9.828756E-3	1.639207E-2	1.015356E-2	2.102844E-2	8.905837E-3	2.411473E-2	1.131400E-2	2.393515E-2	1.656707E-2	1.074373E-2	1.064075E-2	1.306056E-2	1.423099E-2	1.827429E-2	1.988223E-2	1.459552E-2	1.290632E-2	1.210580E-2	8.287853E-3	1.999504E-2	2.329298E-2	1.767648E-2	1.942577E-2	1.714959E-2	8.089024E-3	1.271853E-2	1.406470E-2	1.229978E-2	1.318760E-2	1.492884E-2	1.164519E-2	1.446943E-2	1.731219E-2	3.864154E-3	2.704966E-2	1.725265E-2	3.824858E-3	1.064188E-2	2.689668E-2	6.623300E-3	1.706676E-2	1.090866E-2	1.053617E-2	1.302787E-2	1.091031E-2	1.741091E-2	1.287212E-2	1.895694E-2	7.274498E-3	2.822192E-2	2.136562E-2	2.602860E-2	1.300839E-2	4.557378E-3	1.437404E-2	2.526127E-2	1.496909E-2	2.091764E-2	1.881404E-2	9.486258E-3	6.526637E-3	5.352778E-3	2.101973E-2	1.063523E-2	2.430072E-2	6.337478E-3	2.913754E-2	9.697822E-3	1.444444E-2	6.492589E-3	2.402634E-2	6.861926E-3	1.277639E-2	1.366144E-2	6.967949E-3	1.500361E-2	1.484519E-2	1.004928E-2	4.770378E-3	1.301315E-2	1.236220E-2	1.586322E-2	2.127799E-2	1.293325E-2	5.507720E-3	2.265924E-2	2.696542E-2	1.145235E-2	1.083003E-2	1.753177E-2	2.067418E-4	1.784591E-2	2.640411E-2	1.434789E-2	1.618465E-2	1.978669E-2	9.831191E-3	3.450142E-3	3.120081E-2	9.423388E-3	1.040119E-2	1.366735E-2	2.019316E-2	1.166934E-2	1.101692E-2	1.684089E-2	2.414446E-2	1.813950E-2	2.099961E-2	1.022371E-2	1.417964E-2	1.753529E-2	1.791557E-2	1.099539E-2	1.465305E-2	1.507416E-2	1.066633E-2	8.862493E-3	2.966334E-3	2.479179E-2	7.100227E-3	1.663378E-2	2.281360E-2	2.347647E-2	2.510524E-3	-1.594032E-2
5.331680E+2	4.044548E-3	1.117458E-2	2.055683E-2	7.948530E-3	9.192404E-3	7.149683E-3	8.349216E-3	1.510459E-2	1.966587E-2	1.991502E-2	1.382711E-2	2.010393E-2	1.418416E-2	1.978329E-2	3.661762E-2	2.211508E-2	2.149051E-2	1.587244E-2	1.169064E-2	1.802363E-2	1.338189E-2	2.124471E-2	1.027043E-2	2.701306E-2	1.674336E-2	3.021982E-2	1.199636E-2	7.571575E-3	2.520409E-2	2.245387E-2	1.705299E-2	1.506125E-2	2.702852E-2	2.075267E-2	1.022789E-2	1.641259E-2	1.592612E-2	1.100292E-2	1.905722E-2	1.722065E-2	2.943122E-2	2.134120E-2	1.376744E-2	2.779701E-2	1.067499E-2	9.472225E-3	2.331232E-2	2.522149E-2	2.837024E-2	2.877629E-2	2.819288E-2	1.986969E-2	1.767088E-2	1.036592E-2	1.459553E-2	8.008125E-3	1.271111E-2	3.012868E-2	1.259598E-2	7.307619E-3	1.042836E-2	1.183615E-2	1.714962E-2	2.283471E-2	1.524416E-2	1.726118E-2	2.540176E-2	1.452541E-2	3.665160E-3	2.134954E-2	1.164023E-2	1.676873E-2	1.884991E-3	-2.624217E-3	2.435668E-2	1.538637E-2	1.512266E-2	1.120694E-2	5.353045E-3	3.413352E-3	1.343298E-2	1.949683E-2	1.768750E-2	2.929621E-2	9.201637E-3	-1.825830E-3	1.663910E-2	1.212413E-2	2.161475E-2	2.206446E-2	1.310224E-2	1.300838E-2	5.657427E-3	1.560861E-2	1.799433E-2	9.111626E-3	1.143271E-2	1.547149E-2	2.454697E-2	2.798543E-2	3.260338E-2	2.402260E-2	1.301750E-2	1.022309E-2	1.509327E-2	1.241928E-2	2.055937E-2	2.809140E-2	1.372298E-2	3.158519E-2	7.817522E-4	1.334972E-2	2.592169E-2	3.650814E-2	2.524999E-2	1.963084E-2	1.807105E-2	4.770390E-3	2.693809E-2	1.952378E-2	1.226186E-2	1.529354E-2	1.810655E-2	-2.065418E-3	2.484704E-2	2.297759E-2	3.050840E-2	2.562231E-2	2.097257E-2	2.770544E-2	3.014388E-2	2.152184E-2	1.607953E-2	1.679372E-2	9.368067E-3	1.333045E-2	1.616129E-2	1.517102E-2	1.536012E-2	1.958418E-2	1.080293E-2	1.187835E-2	2.324681E-2	4.389571E-3	1.479659E-2	1.312200E-2	1.813951E-2	1.431791E-2	1.547623E-2	1.280105E-2	1.510470E-2	9.325930E-3	2.054174E-2	2.391756E-2	1.087734E-2	1.245831E-2	1.494453E-2	1.473283E-2	2.479179E-2	1.590811E-2	1.197635E-2	3.019836E-2	1.421810E-2	4.267951E-3	4.121140E-2
5.333080E+2	1.233091E-2	1.691561E-2	2.919078E-2	9.393733E-3	1.924662E-2	2.681125E-2	8.964449E-3	1.925090E-2	2.842612E-2	2.456187E-2	2.976898E-2	1.813109E-2	2.474688E-2	3.021301E-2	2.273101E-2	2.273679E-2	3.010319E-2	4.013719E-2	2.868706E-2	3.083229E-2	2.015350E-2	1.338817E-2	2.371388E-2	2.586358E-2	2.551795E-2	2.835328E-2	2.027556E-2	2.690133E-2	1.902344E-2	3.261361E-2	2.715844E-2	4.024715E-2	1.213533E-2	1.033257E-2	2.846450E-2	3.500715E-2	2.897199E-2	1.385552E-2	2.444108E-2	2.688699E-2	2.682337E-2	2.594791E-2	1.838808E-2	2.464848E-2	2.035158E-2	1.499762E-2	2.642653E-2	4.079953E-2	1.779434E-2	1.841315E-2	3.575898E-2	2.550837E-2	1.982598E-3	2.880376E-2	1.401500E-2	1.780453E-2	2.784332E-2	1.443056E-2	1.691209E-2	2.712949E-2	2.388909E-2	2.385298E-2	4.435246E-2	3.227207E-2	2.850391E-2	2.940802E-2	1.354760E-2	2.188370E-2	3.370163E-2	2.523130E-2	1.616699E-2	1.731216E-2	1.837837E-2	9.386606E-3	2.500252E-2	2.025437E-2	2.128374E-2	3.235393E-2	1.742019E-2	2.560013E-2	3.930726E-2	3.466104E-2	1.901881E-2	1.232460E-2	7.938639E-3	1.670633E-2	1.779804E-2	2.788554E-2	2.359694E-2	3.045100E-2	1.310220E-2	2.807067E-2	2.380837E-2	2.610253E-2	1.738877E-2	1.952486E-2	1.795363E-2	1.547147E-2	2.043946E-2	1.483327E-2	1.613950E-2	2.162032E-2	1.301750E-2	1.139623E-2	2.443275E-2	2.311899E-2	1.105552E-2	3.119295E-2	1.682169E-2	4.040400E-2	1.294210E-2	1.678955E-2	3.082584E-2	6.967937E-3	1.756520E-2	1.757987E-2	2.424166E-2	3.012420E-2	2.751831E-2	1.773335E-2	8.660473E-3	1.529356E-2	7.759935E-3	1.996552E-2	1.336117E-2	1.566657E-2	1.670918E-2	2.562225E-2	1.523789E-2	3.711280E-2	1.396238E-2	1.524465E-2	2.012003E-2	3.202117E-2	1.978672E-2	3.432588E-2	1.489011E-2	2.251799E-2	2.987208E-2	2.876713E-2	1.366733E-2	2.467040E-2	2.646282E-2	2.246417E-2	2.365516E-2	3.222758E-2	3.470175E-2	1.298157E-2	2.598135E-2	4.037261E-2	2.300427E-2	2.192408E-2	1.815514E-2	2.457933E-2	1.567370E-2	7.679794E-3	2.771692E-2	2.165423E-2	2.987730E-2	1.402066E-2	1.139416E-2	2.927522E-2	9.588952E-3	2.359918E-2	1.943939E-2
5.334580E+2	2.821319E-2	1.835088E-2	2.271532E-2	2.673599E-2	1.857632E-2	2.800290E-2	4.033995E-2	3.376313E-2	2.780037E-2	2.788102E-2	2.065931E-2	3.391360E-2	1.946551E-2	3.021301E-2	3.256734E-2	3.330579E-2	5.019929E-2	2.289643E-2	3.120507E-2	5.004529E-2	2.523218E-2	3.022361E-2	3.306586E-2	4.655441E-2	2.865177E-2	2.710895E-2	2.027557E-2	3.438385E-2	2.014722E-2	3.858994E-2	2.273732E-2	4.668987E-2	2.151254E-2	3.546347E-2	2.373647E-2	3.965579E-2	2.007709E-2	3.610578E-2	2.324467E-2	1.949509E-2	3.269099E-2	2.068314E-2	2.762929E-2	2.716733E-2	3.379131E-2	3.894120E-2	2.954078E-2	4.253040E-2	2.954532E-2	3.849177E-2	4.080306E-2	4.681012E-2	1.344708E-2	2.226127E-2	3.433264E-2	3.685305E-2	2.360633E-2	2.330342E-2	1.876188E-2	3.352366E-2	2.130052E-2	3.460492E-2	2.306326E-2	4.524812E-2	2.218975E-2	3.324378E-2	2.664954E-2	3.927596E-2	2.619253E-2	3.105385E-2	3.370814E-2	2.763743E-2	1.244074E-2	3.270185E-2	2.112759E-2	1.599486E-2	2.408424E-2	2.280362E-2	3.583844E-2	3.242687E-2	3.552079E-2	3.190392E-2	2.966936E-2	4.061056E-2	3.382951E-2	3.140429E-2	2.475163E-2	2.606692E-2	3.615049E-2	2.975212E-2	2.171979E-2	3.354785E-2	3.590904E-2	1.190487E-2	2.102225E-2	2.473151E-2	3.810912E-2	4.154377E-2	2.865440E-2	2.452437E-2	2.351987E-2	2.882712E-2	2.731121E-2	3.192611E-2	3.143737E-2	2.980626E-2	1.241319E-2	3.429453E-2	2.405211E-2	3.347491E-2	2.996669E-2	2.997544E-2	2.714773E-2	2.963837E-2	3.165399E-2	2.304910E-2	2.670992E-2	3.568967E-2	1.939541E-2	2.549171E-2	2.726758E-2	1.928319E-2	3.944646E-2	3.029256E-2	2.375315E-2	2.297759E-2	4.167917E-2	1.760982E-2	1.982566E-2	2.915272E-2	3.855827E-2	3.547124E-2	2.300608E-2	2.166649E-2	2.836679E-2	2.499458E-2	2.124569E-2	2.051428E-2	2.855281E-2	2.024005E-2	2.684365E-2	5.984854E-2	3.868348E-2	3.330900E-2	2.706226E-2	2.267479E-2	3.125121E-2	2.901762E-2	1.284996E-2	3.485827E-2	2.786558E-2	3.108642E-2	2.531492E-2	4.112307E-2	1.387511E-2	2.918314E-2	3.136620E-2	5.280073E-2	3.496287E-2	2.219943E-2	2.827751E-2	4.681400E-2	3.273485E-2	1.481218E-2	3.576844E-2
5.336080E+2	3.511848E-2	3.700933E-2	3.062972E-2	4.046534E-2	3.332247E-2	2.383221E-2	3.603349E-2	3.307202E-2	2.842612E-2	3.916624E-2	4.855759E-2	3.588639E-2	2.104994E-2	3.079244E-2	4.587538E-2	5.257872E-2	4.445750E-2	3.311317E-2	3.561151E-2	5.388786E-2	3.538960E-2	3.976370E-2	3.598840E-2	3.793323E-2	4.056016E-2	4.826283E-2	2.796338E-2	5.246657E-2	2.857535E-2	3.739471E-2	4.610622E-2	4.844704E-2	2.868332E-2	4.098001E-2	4.197300E-2	3.367898E-2	4.023894E-2	2.697748E-2	3.879811E-2	4.167074E-2	3.399490E-2	3.647747E-2	3.555026E-2	6.494963E-2	3.217853E-2	3.648546E-2	4.199774E-2	4.541527E-2	4.540907E-2	3.525326E-2	3.765055E-2	4.367747E-2	3.697967E-2	3.534620E-2	4.362064E-2	4.447249E-2	3.208035E-2	3.763649E-2	3.540975E-2	3.544186E-2	2.751318E-2	3.333999E-2	3.666467E-2	5.232610E-2	4.050079E-2	3.068660E-2	3.975150E-2	5.198578E-2	2.619251E-2	3.946433E-2	3.540566E-2	2.383339E-2	3.091339E-2	2.775619E-2	2.500250E-2	2.999036E-2	3.752661E-2	3.644685E-2	4.091926E-2	4.039154E-2	3.930726E-2	6.085374E-2	3.299762E-2	4.838921E-2	4.709063E-2	1.990157E-2	4.387416E-2	5.213390E-2	3.548981E-2	2.765549E-2	3.033742E-2	3.354788E-2	4.635949E-2	4.215212E-2	3.373936E-2	6.313042E-2	4.581560E-2	3.686407E-2	4.782254E-2	4.321425E-2	3.146795E-2	2.882710E-2	3.088472E-2	3.251272E-2	4.194428E-2	1.241931E-2	2.327477E-2	3.987737E-2	2.198629E-2	2.906561E-2	4.151893E-2	4.258803E-2	4.615115E-2	3.788217E-2	4.382156E-2	2.646743E-2	2.732699E-2	4.249193E-2	4.550452E-2	4.518598E-2	3.687125E-2	1.994810E-2	4.397308E-2	2.960411E-2	2.758180E-2	2.895932E-2	4.759314E-2	4.349624E-2	3.989707E-2	4.579664E-2	3.985280E-2	2.082441E-2	4.378584E-2	3.323936E-2	3.939835E-2	4.015799E-2	3.141457E-2	3.520821E-2	4.570346E-2	4.450944E-2	4.116573E-2	4.705643E-2	3.932666E-2	2.788657E-2	3.523936E-2	3.296244E-2	3.746206E-2	3.770382E-2	3.320357E-2	3.347970E-2	3.454981E-2	3.967607E-2	2.412166E-2	5.237297E-2	3.485899E-2	4.411604E-2	2.467586E-2	5.556937E-2	3.941259E-2	4.421922E-2	3.759241E-2	4.219855E-2	2.347656E-2	7.280589E-2	6.026199E-2
5.337580E+2	2.821321E-2	4.777378E-2	3.350771E-2	2.818124E-2	2.527909E-2	3.455671E-2	3.849431E-2	3.307209E-2	3.781213E-2	4.580454E-2	4.571076E-2	4.772339E-2	4.059087E-2	4.991351E-2	5.223992E-2	7.123005E-2	5.996034E-2	3.758299E-2	4.694245E-2	6.413484E-2	4.611121E-2	6.108858E-2	4.943183E-2	3.965752E-2	2.301094E-2	4.764066E-2	3.565121E-2	3.937219E-2	3.194663E-2	5.293321E-2	3.600077E-2	6.016148E-2	4.026701E-2	4.527070E-2	5.075357E-2	5.891464E-2	3.964588E-2	5.265103E-2	4.418203E-2	5.702300E-2	3.986250E-2	4.832326E-2	4.545144E-2	4.794762E-2	3.701683E-2	5.122010E-2	4.698044E-2	6.041629E-2	5.187214E-2	4.496876E-2	4.332515E-2	6.059362E-2	3.456599E-2	5.021551E-2	4.826478E-2	5.209190E-2	4.781805E-2	4.855689E-2	4.774164E-2	4.311486E-2	4.200943E-2	4.725423E-2	4.021288E-2	3.934990E-2	4.302648E-2	5.625879E-2	4.848614E-2	6.001300E-2	4.433957E-2	3.234779E-2	4.785434E-2	5.535230E-2	3.223284E-2	3.552796E-2	6.052263E-2	5.493882E-2	4.760839E-2	5.213662E-2	4.600021E-2	5.176928E-2	4.056940E-2	5.396094E-2	5.097043E-2	5.192496E-2	4.709066E-2	3.076533E-2	4.561259E-2	4.122211E-2	4.804330E-2	6.190025E-2	4.264829E-2	5.271805E-2	5.296007E-2	6.499162E-2	5.493463E-2	4.620888E-2	2.328890E-2	6.360491E-2	3.960765E-2	6.190422E-2	3.828059E-2	4.864585E-2	4.220058E-2	4.717699E-2	5.478614E-2	5.053689E-2	4.635557E-2	5.228378E-2	3.644694E-2	5.804125E-2	3.422275E-2	7.927930E-2	4.369912E-2	5.230881E-2	3.677724E-2	5.381386E-2	4.337055E-2	4.620226E-2	4.666519E-2	5.950900E-2	2.366623E-2	5.120022E-2	4.526646E-2	3.924270E-2	2.812872E-2	4.690479E-2	6.073540E-2	4.719432E-2	3.760321E-2	4.579667E-2	4.826719E-2	5.290794E-2	5.013520E-2	5.394868E-2	4.736563E-2	4.657327E-2	4.666789E-2	3.654406E-2	5.361902E-2	5.697208E-2	4.460302E-2	6.432577E-2	5.347699E-2	3.451391E-2	5.431926E-2	4.251521E-2	5.057377E-2	3.169027E-2	5.158747E-2	5.967267E-2	4.609537E-2	4.082133E-2	4.798762E-2	5.766687E-2	3.545857E-2	4.292143E-2	2.954154E-2	6.387505E-2	5.594046E-2	4.107349E-2	3.817461E-2	6.435278E-2	6.050988E-2	5.874670E-2	4.121143E-2
5.339140E+2	5.583449E-2	6.427936E-2	8.099411E-2	6.286580E-2	6.147441E-2	5.481416E-2	5.818102E-2	6.209651E-2	6.159008E-2	4.381305E-2	6.905435E-2	6.942437E-2	5.432246E-2	6.787579E-2	6.786259E-2	7.931225E-2	9.441089E-2	6.887202E-2	7.526993E-2	9.423525E-2	6.981164E-2	8.129103E-2	6.988923E-2	6.149782E-2	5.685588E-2	7.066115E-2	5.457510E-2	8.364386E-2	6.397344E-2	8.759583E-2	6.947514E-2	7.656142E-2	5.129913E-2	7.040157E-2	6.831490E-2	9.278350E-2	5.684257E-2	5.208036E-2	6.152997E-2	7.237540E-2	7.963182E-2	6.411759E-2	5.997345E-2	4.983674E-2	6.174585E-2	8.621464E-2	6.628875E-2	1.025346E-1	5.363491E-2	8.318287E-2	7.800341E-2	1.057031E-1	6.171870E-2	7.103214E-2	7.090434E-2	5.862260E-2	6.113431E-2	5.606485E-2	6.068986E-2	6.677323E-2	5.236381E-2	6.875800E-2	6.682421E-2	7.532908E-2	4.934064E-2	7.863455E-2	6.969883E-2	6.536460E-2	5.810632E-2	7.116515E-2	6.030287E-2	5.969982E-2	5.862228E-2	7.156041E-2	7.343933E-2	7.562787E-2	5.769017E-2	6.168688E-2	6.314821E-2	8.476502E-2	6.833704E-2	6.843580E-2	6.162095E-2	9.576796E-2	5.656292E-2	7.102502E-2	6.357615E-2	5.819605E-2	7.182904E-2	7.448009E-2	5.126605E-2	7.805019E-2	5.351002E-2	7.116492E-2	6.220170E-2	7.159127E-2	6.597116E-2	7.363280E-2	6.288320E-2	7.990199E-2	5.077049E-2	5.885534E-2	8.329504E-2	5.304273E-2	5.303487E-2	5.923048E-2	6.332690E-2	8.081822E-2	4.367746E-2	6.623001E-2	5.975950E-2	9.189178E-2	5.289429E-2	8.253600E-2	8.416667E-2	7.637476E-2	5.632888E-2	9.505460E-2	7.393467E-2	6.547698E-2	5.487814E-2	5.120020E-2	5.690636E-2	5.232360E-2	5.274149E-2	7.083172E-2	7.782001E-2	7.246452E-2	5.939511E-2	6.967709E-2	6.703768E-2	8.289922E-2	6.514283E-2	5.090319E-2	7.004151E-2	5.998713E-2	6.382799E-2	6.326034E-2	6.417326E-2	6.549906E-2	6.923701E-2	8.287415E-2	5.347695E-2	6.343341E-2	6.249643E-2	4.912871E-2	7.058651E-2	4.572177E-2	6.209257E-2	6.174056E-2	6.554037E-2	7.804304E-2	6.887035E-2	6.296082E-2	4.924797E-2	5.785429E-2	5.630279E-2	7.494945E-2	6.484017E-2	6.812628E-2	5.564013E-2	6.896826E-2	7.555473E-2	5.347458E-2	4.665453E-2
5.340640E+2	8.000323E-2	1.037489E-1	9.106710E-2	8.309836E-2	9.364758E-2	6.970923E-2	8.217391E-2	8.628337E-2	9.788246E-2	7.567703E-2	8.044121E-2	1.233478E-1	8.442594E-2	1.009031E-1	1.060506E-1	1.085324E-1	1.231194E-1	1.065460E-1	1.243707E-1	1.192121E-1	9.012655E-2	1.082277E-1	7.164275E-2	1.005805E-1	8.317976E-2	8.434893E-2	7.586455E-2	1.029735E-1	9.487653E-2	1.234536E-1	8.526499E-2	1.228327E-1	7.391488E-2	9.553265E-2	1.061385E-1	1.146982E-1	8.352773E-2	8.631181E-2	1.028065E-1	1.121780E-1	1.024505E-1	8.122839E-2	9.759810E-2	1.046213E-1	9.292628E-2	1.046326E-1	1.111338E-1	1.158046E-1	8.066216E-2	1.058522E-1	9.439663E-2	1.000645E-1	7.982057E-2	9.839164E-2	9.470508E-2	9.780816E-2	9.321480E-2	8.882603E-2	9.028599E-2	9.810439E-2	8.549808E-2	1.029111E-1	9.994071E-2	1.095392E-1	6.133752E-2	1.144358E-1	8.716809E-2	9.412884E-2	9.440014E-2	8.798591E-2	8.406808E-2	9.339278E-2	7.907388E-2	9.416937E-2	1.089595E-1	9.753393E-2	1.069788E-1	9.852375E-2	9.680915E-2	9.671163E-2	1.074637E-1	1.077251E-1	1.162051E-1	1.035469E-1	8.750563E-2	8.636186E-2	1.099337E-1	1.321533E-1	9.957908E-2	9.195193E-2	7.958076E-2	1.143367E-1	8.871190E-2	1.020291E-1	1.076200E-1	1.067360E-1	7.545601E-2	1.043848E-1	9.300464E-2	1.165896E-1	9.051102E-2	9.128595E-2	9.997106E-2	8.882361E-2	7.288134E-2	9.199831E-2	1.081307E-1	9.818685E-2	6.691796E-2	9.520542E-2	9.684866E-2	1.239969E-1	6.883281E-2	1.107023E-1	9.697464E-2	1.016703E-1	8.224533E-2	9.196289E-2	9.134098E-2	9.889759E-2	8.969156E-2	9.109657E-2	8.923975E-2	9.018942E-2	8.883989E-2	9.010638E-2	9.556167E-2	1.137593E-1	8.348096E-2	7.618978E-2	7.739384E-2	1.003359E-1	9.054025E-2	9.780387E-2	9.639452E-2	9.789575E-2	9.179232E-2	9.198039E-2	8.989916E-2	1.028871E-1	8.986079E-2	1.154942E-1	1.171532E-1	1.074149E-1	8.702777E-2	1.071805E-1	8.990900E-2	1.345881E-1	7.588054E-2	8.517635E-2	8.012430E-2	9.178667E-2	9.512280E-2	9.737190E-2	7.622749E-2	9.429058E-2	7.394097E-2	1.303209E-1	8.708927E-2	9.769562E-2	6.903020E-2	9.666104E-2	9.059947E-2	1.009239E-1	7.659102E-2
5.342090E+2	1.297215E-1	1.417833E-1	1.529431E-1	1.300674E-1	1.378859E-1	9.473309E-2	1.295449E-1	1.339664E-1	1.448119E-1	1.254648E-1	1.168797E-1	1.450489E-1	1.314302E-1	1.605840E-1	1.413460E-1	1.707035E-1	2.201552E-1	1.614611E-1	1.696940E-1	1.845365E-1	1.409131E-1	1.660294E-1	1.400291E-1	1.465599E-1	1.320668E-1	1.335004E-1	1.279052E-1	1.447503E-1	1.381408E-1	1.425780E-1	1.604242E-1	1.638332E-1	1.235590E-1	1.255669E-1	1.655762E-1	1.744665E-1	1.511290E-1	1.216839E-1	1.440828E-1	1.343536E-1	1.539552E-1	1.332180E-1	1.523851E-1	1.606647E-1	1.337829E-1	1.697100E-1	1.559790E-1	1.660007E-1	1.529306E-1	1.712702E-1	1.624918E-1	1.633431E-1	1.256789E-1	1.578681E-1	1.272133E-1	1.201223E-1	1.313480E-1	1.454759E-1	1.630435E-1	1.364694E-1	1.232914E-1	1.598332E-1	1.466585E-1	1.478776E-1	1.579440E-1	1.419256E-1	1.639080E-1	1.429607E-1	1.538475E-1	1.468590E-1	1.372575E-1	1.493661E-1	1.278946E-1	1.386803E-1	1.477090E-1	9.996783E-2	1.400248E-1	1.476393E-1	1.317400E-1	1.570140E-1	1.371247E-1	1.711389E-1	1.541476E-1	1.693119E-1	1.519169E-1	1.259825E-1	1.371687E-1	1.576138E-1	1.564004E-1	1.821068E-1	1.454436E-1	1.485690E-1	1.437146E-1	1.785730E-1	1.609107E-1	1.809307E-1	1.270303E-1	1.451642E-1	1.662543E-1	1.408172E-1	1.433088E-1	1.597501E-1	1.470211E-1	1.404415E-1	1.242484E-1	1.501775E-1	1.427522E-1	1.459512E-1	1.438700E-1	1.569360E-1	1.485304E-1	1.555283E-1	1.331988E-1	1.601647E-1	1.418023E-1	1.214963E-1	1.056936E-1	1.321581E-1	1.487812E-1	1.442543E-1	1.347089E-1	1.469511E-1	1.357991E-1	1.314975E-1	1.123586E-1	1.818268E-1	1.731001E-1	1.636832E-1	1.522971E-1	1.528965E-1	1.531234E-1	1.742673E-1	1.332543E-1	1.331315E-1	1.301019E-1	1.439690E-1	1.394588E-1	1.434090E-1	1.387121E-1	1.684799E-1	1.477222E-1	1.628248E-1	1.621766E-1	1.640486E-1	1.320020E-1	1.549444E-1	1.499469E-1	1.506241E-1	1.054260E-1	1.534160E-1	1.281294E-1	1.587862E-1	1.386780E-1	1.271507E-1	1.193942E-1	1.211699E-1	1.292879E-1	1.427795E-1	1.449367E-1	1.813704E-1	9.522866E-2	1.603545E-1	1.299475E-1	1.606749E-1	1.364643E-1
5.343550E+2	2.270870E-1	2.386641E-1	2.507941E-1	2.276180E-1	1.821247E-1	1.763585E-1	2.150585E-1	2.348610E-1	1.992508E-1	2.164096E-1	2.187933E-1	2.489499E-1	2.027283E-1	2.474979E-1	2.385517E-1	2.670682E-1	3.097263E-1	3.121578E-1	2.949636E-1	3.100612E-1	2.656227E-1	2.490839E-1	2.306260E-1	2.712799E-1	2.411221E-1	2.423808E-1	2.024181E-1	2.476351E-1	2.381545E-1	2.692760E-1	2.539000E-1	2.716046E-1	1.903030E-1	2.181223E-1	2.567592E-1	2.727521E-1	2.187300E-1	2.089735E-1	2.320196E-1	2.202133E-1	2.537046E-1	2.042926E-1	2.520580E-1	2.570098E-1	2.074327E-1	2.624150E-1	2.624862E-1	2.813931E-1	2.110980E-1	2.483459E-1	2.728310E-1	2.554417E-1	2.017066E-1	2.334040E-1	2.328646E-1	2.316921E-1	2.064040E-1	2.164590E-1	2.259356E-1	2.285453E-1	2.175165E-1	2.743091E-1	2.548787E-1	2.628938E-1	2.255055E-1	2.269531E-1	2.624846E-1	2.439699E-1	2.308159E-1	2.646049E-1	2.396756E-1	2.281635E-1	2.004654E-1	2.524298E-1	2.168117E-1	2.070641E-1	2.021957E-1	2.663355E-1	2.257364E-1	2.719307E-1	2.330484E-1	2.276601E-1	2.326952E-1	2.866988E-1	2.194858E-1	2.358976E-1	2.246687E-1	2.424832E-1	2.647576E-1	2.436078E-1	2.291572E-1	2.389425E-1	2.152186E-1	2.588204E-1	2.511418E-1	2.635862E-1	2.040956E-1	2.247180E-1	2.292353E-1	2.861831E-1	2.227899E-1	2.276140E-1	2.137253E-1	2.436778E-1	2.199778E-1	2.290877E-1	2.303230E-1	2.365171E-1	1.934498E-1	2.501621E-1	2.312207E-1	2.392300E-1	2.159556E-1	2.769517E-1	2.385025E-1	2.425039E-1	2.463837E-1	2.379018E-1	2.294299E-1	2.325797E-1	2.283444E-1	2.520111E-1	2.373255E-1	2.354561E-1	2.255769E-1	2.217051E-1	2.578665E-1	2.394934E-1	1.809705E-1	2.361167E-1	2.249696E-1	2.774929E-1	2.163731E-1	2.281507E-1	2.152902E-1	2.571108E-1	2.030140E-1	2.068604E-1	2.363388E-1	2.485032E-1	2.181864E-1	2.600442E-1	2.329277E-1	2.562292E-1	2.205867E-1	2.394499E-1	2.396585E-1	2.515178E-1	2.301739E-1	2.361308E-1	2.381161E-1	2.160504E-1	2.120661E-1	2.231046E-1	2.129225E-1	2.286865E-1	2.022729E-1	2.542147E-1	2.555464E-1	2.291845E-1	1.674195E-1	2.600486E-1	2.641938E-1	2.327275E-1	2.453249E-1
5.345050E+2	3.893623E-1	3.929547E-1	3.623152E-1	4.328354E-1	3.389701E-1	3.116061E-1	3.547104E-1	4.076253E-1	3.494266E-1	3.836963E-1	3.952927E-1	4.416284E-1	3.595840E-1	4.120557E-1	4.358573E-1	4.436332E-1	5.181523E-1	5.471429E-1	4.894780E-1	5.182023E-1	4.332192E-1	4.707503E-1	4.135737E-1	4.350828E-1	3.790091E-1	4.290322E-1	3.384331E-1	4.209798E-1	3.494055E-1	4.168907E-1	4.553781E-1	4.309192E-1	3.309614E-1	4.007815E-1	4.040025E-1	4.208450E-1	4.126392E-1	3.846939E-1	4.425892E-1	4.061474E-1	4.271253E-1	3.879020E-1	4.296208E-1	4.219931E-1	3.687093E-1	4.472101E-1	4.462261E-1	4.660211E-1	3.479970E-1	4.044410E-1	4.493745E-1	4.590612E-1	3.682441E-1	3.993442E-1	3.890201E-1	4.140133E-1	3.631742E-1	4.218995E-1	4.010461E-1	4.235668E-1	3.826697E-1	4.766984E-1	4.027203E-1	4.363030E-1	3.833597E-1	3.855007E-1	4.577664E-1	4.299340E-1	4.104093E-1	4.328138E-1	3.777413E-1	3.678256E-1	3.957475E-1	4.361256E-1	3.957042E-1	3.847459E-1	3.685450E-1	4.662086E-1	4.378635E-1	4.249628E-1	3.775662E-1	4.254837E-1	4.283991E-1	4.783363E-1	4.209293E-1	3.777646E-1	3.764899E-1	4.419255E-1	4.127573E-1	4.113374E-1	3.799652E-1	4.450226E-1	3.785772E-1	4.186987E-1	4.437156E-1	4.640414E-1	3.564472E-1	4.466664E-1	4.106484E-1	4.308567E-1	3.851579E-1	3.987752E-1	3.882281E-1	3.926665E-1	3.612378E-1	4.357256E-1	4.013926E-1	4.126865E-1	3.365082E-1	4.303144E-1	4.634839E-1	4.421783E-1	3.312026E-1	4.294621E-1	4.062871E-1	4.346128E-1	3.920102E-1	3.931162E-1	3.913067E-1	3.895371E-1	3.609952E-1	4.175810E-1	4.371442E-1	3.986225E-1	3.322318E-1	4.323962E-1	4.379128E-1	4.478177E-1	3.524384E-1	4.329485E-1	3.951987E-1	4.434900E-1	3.768389E-1	3.980892E-1	4.126317E-1	4.128276E-1	4.140187E-1	3.517963E-1	4.256543E-1	4.157646E-1	3.866141E-1	4.340159E-1	4.574021E-1	4.604723E-1	3.807217E-1	4.584296E-1	4.121811E-1	4.319233E-1	3.798713E-1	4.298206E-1	3.815235E-1	3.941426E-1	3.624212E-1	3.786158E-1	3.352290E-1	3.218681E-1	3.792618E-1	4.777773E-1	4.112900E-1	4.323954E-1	2.989928E-1	3.846663E-1	4.169557E-1	4.559152E-1	3.242486E-1
5.346870E+2	6.821480E-1	7.065605E-1	7.515598E-1	7.912421E-1	6.781315E-1	5.427788E-1	6.309379E-1	7.123820E-1	6.435208E-1	6.830857E-1	6.828148E-1	7.664846E-1	6.299889E-1	7.463849E-1	7.662425E-1	7.656786E-1	8.184457E-1	8.951507E-1	8.035974E-1	8.819680E-1	7.283472E-1	7.715434E-1	7.677792E-1	7.086617E-1	6.610500E-1	6.940779E-1	6.169686E-1	7.433503E-1	6.674264E-1	7.682985E-1	7.654898E-1	7.659485E-1	5.962824E-1	6.802858E-1	7.626547E-1	7.283194E-1	6.569529E-1	6.830758E-1	6.633281E-1	7.194495E-1	7.244178E-1	6.926017E-1	7.372201E-1	7.292896E-1	6.659959E-1	7.818060E-1	7.937749E-1	8.029672E-1	6.576344E-1	7.878784E-1	8.030911E-1	7.472612E-1	6.506339E-1	7.223028E-1	7.164241E-1	7.111705E-1	6.416073E-1	7.324492E-1	6.470648E-1	6.588719E-1	6.068430E-1	7.480256E-1	7.794207E-1	7.489109E-1	6.586564E-1	6.604017E-1	7.091991E-1	7.169070E-1	7.020130E-1	7.575857E-1	6.719797E-1	6.900812E-1	6.649199E-1	7.667775E-1	7.121571E-1	6.956895E-1	6.138683E-1	8.134287E-1	7.465271E-1	7.554900E-1	6.798529E-1	7.584067E-1	7.552370E-1	8.333250E-1	7.095178E-1	7.362673E-1	7.062085E-1	7.413922E-1	7.133821E-1	7.097571E-1	7.172819E-1	7.722855E-1	6.469915E-1	7.378374E-1	7.319711E-1	7.803447E-1	6.285459E-1	7.856062E-1	7.337683E-1	7.721208E-1	6.639090E-1	7.525077E-1	6.979257E-1	7.352227E-1	6.087344E-1	7.426730E-1	7.000852E-1	7.185016E-1	6.350198E-1	7.773925E-1	7.978945E-1	7.483211E-1	6.088977E-1	7.523432E-1	7.098355E-1	7.272197E-1	6.672193E-1	7.152955E-1	6.680649E-1	6.545145E-1	6.791171E-1	7.420709E-1	7.003364E-1	7.063681E-1	6.013301E-1	7.627234E-1	7.868354E-1	8.145426E-1	6.282773E-1	7.535251E-1	7.052370E-1	7.350319E-1	6.821853E-1	7.069017E-1	6.951619E-1	6.956828E-1	6.968405E-1	6.710552E-1	6.519097E-1	7.214277E-1	6.919608E-1	7.621316E-1	7.950787E-1	8.032876E-1	6.730528E-1	8.207015E-1	7.392839E-1	7.633344E-1	6.641656E-1	7.393110E-1	6.683394E-1	7.188320E-1	6.625356E-1	6.062581E-1	5.690497E-1	6.259014E-1	6.085567E-1	7.781678E-1	7.869807E-1	7.633195E-1	5.499141E-1	7.594422E-1	7.294249E-1	8.548395E-1	5.963994E-1
5.348070E+2	1.003936E+0	9.957662E-1	9.868328E-1	1.103404E+0	9.562974E-1	7.954002E-1	9.508448E-1	1.060674E+0	9.332346E-1	9.519384E-1	9.811550E-1	1.118961E+0	8.803246E-1	1.067966E+0	1.076955E+0	1.124404E+0	1.050412E+0	1.165257E+0	1.095054E+0	1.186814E+0	1.014447E+0	1.122282E+0	1.036062E+0	1.044314E+0	9.712944E-1	1.063026E+0	8.836775E-1	1.050756E+0	1.007361E+0	1.058748E+0	1.045917E+0	1.072863E+0	8.494682E-1	1.005148E+0	1.123334E+0	1.081616E+0	1.011564E+0	9.843102E-1	9.989232E-1	1.014557E+0	1.076474E+0	9.499191E-1	1.061982E+0	1.051069E+0	9.369406E-1	1.084479E+0	1.193646E+0	1.156067E+0	8.556390E-1	1.109785E+0	1.085561E+0	1.106259E+0	1.040427E+0	1.042287E+0	9.399173E-1	1.003972E+0	9.612005E-1	1.036856E+0	1.007769E+0	9.900892E-1	9.091937E-1	1.143947E+0	1.050265E+0	1.097498E+0	9.705763E-1	1.012658E+0	1.074182E+0	1.101544E+0	9.310418E-1	1.040952E+0	9.645214E-1	1.000380E+0	9.835729E-1	1.092484E+0	9.930897E-1	9.676888E-1	9.219226E-1	1.123813E+0	1.073609E+0	1.017750E+0	9.815096E-1	1.094776E+0	1.088732E+0	1.126792E+0	1.001895E+0	1.042368E+0	9.953643E-1	1.072380E+0	9.677572E-1	1.053603E+0	9.585744E-1	1.077640E+0	9.511578E-1	1.125494E+0	1.029311E+0	1.095346E+0	8.852321E-1	1.108501E+0	1.015129E+0	1.041395E+0	9.642347E-1	9.705126E-1	9.969040E-1	1.001524E+0	9.356164E-1	1.024208E+0	1.065305E+0	1.037343E+0	8.808531E-1	1.122579E+0	1.142642E+0	1.139311E+0	8.737193E-1	1.068355E+0	1.071661E+0	1.070417E+0	9.553870E-1	1.028818E+0	9.697710E-1	9.487348E-1	9.390166E-1	1.099142E+0	1.006855E+0	9.728055E-1	8.376114E-1	1.136917E+0	1.108160E+0	1.094979E+0	8.748689E-1	1.082785E+0	9.906794E-1	1.131195E+0	9.419317E-1	9.420134E-1	9.856591E-1	1.017613E+0	9.796625E-1	9.816321E-1	9.599600E-1	1.071694E+0	9.892871E-1	1.099202E+0	1.133398E+0	1.112966E+0	9.701534E-1	1.167542E+0	1.082949E+0	1.041961E+0	8.801767E-1	1.114974E+0	9.800688E-1	9.662136E-1	8.862787E-1	9.053694E-1	8.016716E-1	8.684118E-1	8.439336E-1	1.093093E+0	1.066049E+0	1.076630E+0	7.513490E-1	1.110218E+0	1.077770E+0	1.125477E+0	8.984882E-1
5.349630E+2	1.567411E+0	1.439263E+0	1.449468E+0	1.520341E+0	1.621886E+0	1.142158E+0	1.327350E+0	1.458725E+0	1.506405E+0	1.396705E+0	1.441192E+0	1.474724E+0	1.398424E+0	1.492107E+0	1.564144E+0	1.695753E+0	1.517791E+0	1.569453E+0	1.556474E+0	1.681869E+0	1.464192E+0	1.456182E+0	1.401961E+0	1.469624E+0	1.375553E+0	1.478639E+0	1.171677E+0	1.530883E+0	1.346171E+0	1.508763E+0	1.534770E+0	1.575408E+0	1.133543E+0	1.410307E+0	1.676508E+0	1.557107E+0	1.373291E+0	1.304372E+0	1.427838E+0	1.494459E+0	1.433096E+0	1.429673E+0	1.524040E+0	1.556719E+0	1.343360E+0	1.573172E+0	1.611573E+0	1.573788E+0	1.333903E+0	1.470553E+0	1.615822E+0	1.489692E+0	1.354798E+0	1.406881E+0	1.403741E+0	1.411066E+0	1.336478E+0	1.469578E+0	1.393136E+0	1.424250E+0	1.348735E+0	1.595529E+0	1.518628E+0	1.536330E+0	1.334273E+0	1.430122E+0	1.507170E+0	1.551069E+0	1.359059E+0	1.471825E+0	1.403618E+0	1.442734E+0	1.329274E+0	1.567973E+0	1.392855E+0	1.404593E+0	1.288226E+0	1.621787E+0	1.532159E+0	1.534305E+0	1.365206E+0	1.503519E+0	1.544043E+0	1.641599E+0	1.472980E+0	1.400234E+0	1.394041E+0	1.551891E+0	1.478490E+0	1.449168E+0	1.416538E+0	1.480897E+0	1.287776E+0	1.607599E+0	1.411431E+0	1.588675E+0	1.294861E+0	1.543704E+0	1.492279E+0	1.568173E+0	1.329845E+0	1.430544E+0	1.365562E+0	1.509493E+0	1.258412E+0	1.385323E+0	1.388438E+0	1.436205E+0	1.235144E+0	1.495483E+0	1.557920E+0	1.549222E+0	1.281374E+0	1.520390E+0	1.553241E+0	1.523682E+0	1.292302E+0	1.454883E+0	1.377656E+0	1.341429E+0	1.345970E+0	1.530023E+0	1.449820E+0	1.445782E+0	1.177814E+0	1.554974E+0	1.499135E+0	1.533817E+0	1.228126E+0	1.543025E+0	1.395864E+0	1.570600E+0	1.290572E+0	1.367164E+0	1.393213E+0	1.460852E+0	1.364175E+0	1.318256E+0	1.422366E+0	1.467219E+0	1.371399E+0	1.527094E+0	1.505809E+0	1.555794E+0	1.360610E+0	1.680454E+0	1.509426E+0	1.504998E+0	1.295785E+0	1.510627E+0	1.322787E+0	1.396270E+0	1.352857E+0	1.303747E+0	1.194970E+0	1.257860E+0	1.255084E+0	1.546448E+0	1.490686E+0	1.515764E+0	1.066895E+0	1.555148E+0	1.493238E+0	1.575367E+0	1.227790E+0
5.351090E+2	2.087381E+0	1.902853E+0	1.832238E+0	2.037719E+0	2.014668E+0	1.441254E+0	1.657719E+0	1.836041E+0	1.930022E+0	1.711365E+0	1.827211E+0	1.937678E+0	1.705799E+0	1.925519E+0	1.930400E+0	2.010961E+0	1.806601E+0	1.980040E+0	1.839119E+0	2.020015E+0	1.941589E+0	1.786720E+0	1.708823E+0	1.764467E+0	1.844994E+0	1.799677E+0	1.521176E+0	1.745381E+0	1.687230E+0	1.896028E+0	1.835407E+0	1.925665E+0	1.418723E+0	1.740075E+0	1.927092E+0	1.857939E+0	1.805582E+0	1.668367E+0	1.796932E+0	1.757158E+0	1.909677E+0	1.689623E+0	1.810518E+0	1.863389E+0	1.694406E+0	1.915751E+0	1.970956E+0	1.917659E+0	1.741076E+0	1.877954E+0	1.920991E+0	1.866230E+0	1.716231E+0	1.778014E+0	1.706181E+0	1.814349E+0	1.670599E+0	1.841555E+0	1.752608E+0	1.760582E+0	1.598793E+0	1.954139E+0	1.885866E+0	1.869580E+0	1.639244E+0	1.699272E+0	1.824116E+0	1.867474E+0	1.714494E+0	1.781717E+0	1.649194E+0	1.728581E+0	1.669040E+0	1.988355E+0	1.695099E+0	1.717361E+0	1.557073E+0	2.010620E+0	1.875121E+0	1.827855E+0	1.716717E+0	1.814386E+0	1.895512E+0	1.949207E+0	1.761571E+0	1.732533E+0	1.782864E+0	1.881670E+0	1.752025E+0	1.823064E+0	1.692917E+0	1.883473E+0	1.626593E+0	1.982909E+0	1.811110E+0	1.906930E+0	1.583562E+0	1.856577E+0	1.866059E+0	1.908053E+0	1.702839E+0	1.731430E+0	1.723503E+0	1.749987E+0	1.538595E+0	1.692942E+0	1.742115E+0	1.702942E+0	1.522807E+0	1.883504E+0	1.883815E+0	1.817529E+0	1.568876E+0	1.865253E+0	1.860630E+0	1.847738E+0	1.607620E+0	1.854983E+0	1.647449E+0	1.684582E+0	1.608272E+0	1.953587E+0	1.832646E+0	1.711531E+0	1.451835E+0	1.918536E+0	1.920341E+0	1.854932E+0	1.463822E+0	1.855641E+0	1.755095E+0	1.893527E+0	1.579177E+0	1.641866E+0	1.683099E+0	1.767615E+0	1.648266E+0	1.665571E+0	1.683582E+0	1.827323E+0	1.679039E+0	1.924293E+0	1.882717E+0	1.974525E+0	1.679516E+0	1.935441E+0	1.828934E+0	1.830397E+0	1.566290E+0	1.809777E+0	1.589552E+0	1.636781E+0	1.580777E+0	1.563811E+0	1.408405E+0	1.582204E+0	1.502015E+0	1.897368E+0	1.750047E+0	1.869339E+0	1.268910E+0	1.880075E+0	1.845056E+0	1.909270E+0	1.399245E+0
5.352650E+2	2.353929E+0	2.049251E+0	2.081178E+0	2.285569E+0	2.292165E+0	1.635487E+0	1.910566E+0	2.133890E+0	2.111487E+0	1.988182E+0	1.983214E+0	2.207951E+0	1.980426E+0	2.161922E+0	2.181518E+0	2.328651E+0	1.929476E+0	2.054113E+0	2.041817E+0	2.180124E+0	2.143606E+0	1.996600E+0	1.930344E+0	1.971377E+0	2.009833E+0	1.943400E+0	1.709231E+0	2.003527E+0	1.902987E+0	2.144647E+0	2.075409E+0	2.193921E+0	1.616748E+0	1.981578E+0	2.133099E+0	2.073772E+0	2.075395E+0	1.847511E+0	1.966823E+0	1.981187E+0	2.092224E+0	1.866652E+0	2.048807E+0	2.081268E+0	1.889549E+0	2.049589E+0	2.134141E+0	2.187680E+0	1.979621E+0	2.031459E+0	2.197782E+0	2.103055E+0	2.201966E+0	1.964772E+0	1.894265E+0	1.955854E+0	2.073120E+0	1.984206E+0	1.986292E+0	1.938343E+0	1.850408E+0	2.171702E+0	2.131283E+0	2.125568E+0	1.921486E+0	1.894259E+0	2.065563E+0	2.092908E+0	2.112476E+0	2.084493E+0	1.868176E+0	1.911718E+0	2.105123E+0	2.157919E+0	1.918553E+0	1.896257E+0	1.855608E+0	2.190031E+0	2.145041E+0	2.043462E+0	1.928128E+0	2.066664E+0	2.155782E+0	2.294293E+0	2.041949E+0	2.039271E+0	1.876161E+0	2.088989E+0	1.954202E+0	2.033424E+0	1.952671E+0	2.031357E+0	1.806454E+0	2.179825E+0	2.060612E+0	2.144484E+0	1.761402E+0	2.097239E+0	2.047467E+0	2.124026E+0	1.835688E+0	1.944627E+0	1.933738E+0	1.971124E+0	1.756323E+0	1.932341E+0	1.995325E+0	1.908264E+0	1.689108E+0	2.143656E+0	2.100270E+0	2.038822E+0	1.698221E+0	2.124244E+0	2.075167E+0	2.105478E+0	1.767439E+0	1.972472E+0	1.882434E+0	1.879142E+0	1.831559E+0	2.059977E+0	1.995603E+0	1.969707E+0	1.587476E+0	2.155811E+0	2.092499E+0	2.078048E+0	1.661097E+0	2.048857E+0	1.939563E+0	2.152986E+0	1.789859E+0	1.858705E+0	1.852861E+0	1.944914E+0	1.820501E+0	1.856591E+0	1.892687E+0	2.014917E+0	1.885275E+0	2.150068E+0	2.186949E+0	2.170933E+0	1.856686E+0	2.113267E+0	2.060116E+0	2.060917E+0	1.752756E+0	1.978653E+0	1.816210E+0	1.867555E+0	1.793781E+0	1.746454E+0	1.596662E+0	1.707041E+0	1.674141E+0	2.079399E+0	2.078061E+0	2.034799E+0	1.457538E+0	2.108081E+0	2.008233E+0	2.155302E+0	1.655068E+0
5.354170E+2	2.323547E+0	2.074369E+0	2.038011E+0	2.166338E+0	2.264015E+0	1.671830E+0	1.935173E+0	2.097953E+0	2.151535E+0	1.946360E+0	2.015664E+0	2.262534E+0	1.974092E+0	2.087757E+0	2.246317E+0	2.248451E+0	1.897893E+0	2.057942E+0	2.015378E+0	2.151306E+0	2.136271E+0	1.900081E+0	1.928593E+0	1.978850E+0	2.025502E+0	1.990685E+0	1.699770E+0	1.984820E+0	1.865340E+0	2.086671E+0	2.096252E+0	2.064478E+0	1.685147E+0	1.927024E+0	2.110133E+0	2.126897E+0	2.051675E+0	1.851500E+0	1.974600E+0	2.021559E+0	2.042023E+0	1.852173E+0	2.005246E+0	2.023334E+0	1.851919E+0	2.123261E+0	2.164039E+0	2.121907E+0	1.913814E+0	2.049591E+0	2.089963E+0	2.099922E+0	2.234548E+0	2.018303E+0	1.908778E+0	1.891091E+0	2.006536E+0	2.064057E+0	1.987527E+0	1.988218E+0	1.916677E+0	2.133758E+0	2.182731E+0	2.070123E+0	1.905703E+0	1.882111E+0	2.006293E+0	2.071500E+0	2.150646E+0	2.008152E+0	1.851198E+0	1.905740E+0	2.041789E+0	2.177698E+0	1.895952E+0	1.856709E+0	1.876329E+0	2.193441E+0	2.079627E+0	2.065079E+0	1.913615E+0	2.088721E+0	2.084556E+0	2.260350E+0	2.175192E+0	1.970257E+0	1.929469E+0	2.004727E+0	2.060578E+0	2.046703E+0	1.904045E+0	2.019031E+0	1.844406E+0	2.203283E+0	2.061824E+0	2.142533E+0	1.983112E+0	2.053787E+0	2.099500E+0	2.082495E+0	2.133170E+0	1.905592E+0	1.876564E+0	2.011012E+0	1.951284E+0	1.958425E+0	1.938301E+0	1.934319E+0	1.838364E+0	2.100193E+0	2.159249E+0	2.073793E+0	1.826953E+0	2.094019E+0	2.058515E+0	1.979688E+0	1.945769E+0	2.024416E+0	1.926531E+0	1.857655E+0	1.988818E+0	1.966221E+0	1.928350E+0	1.851978E+0	1.722574E+0	2.129888E+0	2.123383E+0	2.079278E+0	1.663966E+0	2.069120E+0	1.943448E+0	2.060919E+0	1.700969E+0	1.858097E+0	1.845508E+0	1.975819E+0	1.883418E+0	1.887983E+0	1.921050E+0	2.050996E+0	1.852621E+0	2.128322E+0	2.196596E+0	2.134787E+0	1.872360E+0	2.128700E+0	2.025611E+0	2.049559E+0	1.695632E+0	2.046203E+0	1.829578E+0	1.877864E+0	1.694140E+0	1.680942E+0	1.627837E+0	1.692706E+0	1.650420E+0	2.188067E+0	1.983983E+0	2.129799E+0	1.431921E+0	2.132079E+0	2.003602E+0	1.956719E+0	1.633295E+0
5.355630E+2	2.072189E+0	1.984665E+0	1.905624E+0	2.116484E+0	2.131297E+0	1.552074E+0	1.759840E+0	1.936246E+0	2.032018E+0	1.765137E+0	1.873329E+0	2.064592E+0	1.844173E+0	2.009535E+0	2.039176E+0	2.156436E+0	1.762389E+0	1.961523E+0	1.930396E+0	2.018096E+0	1.943844E+0	1.888853E+0	1.765517E+0	1.826542E+0	1.942769E+0	1.855054E+0	1.814496E+0	1.850138E+0	1.719256E+0	1.940253E+0	1.994567E+0	1.939720E+0	1.534007E+0	1.810565E+0	2.088519E+0	1.985446E+0	1.946714E+0	1.774483E+0	1.869316E+0	1.871446E+0	1.929237E+0	1.791628E+0	1.883785E+0	1.925101E+0	1.722362E+0	1.952589E+0	2.007082E+0	1.975356E+0	1.829795E+0	1.991950E+0	1.968906E+0	1.990282E+0	1.993793E+0	1.935629E+0	1.817057E+0	1.862789E+0	1.904850E+0	1.920728E+0	1.792070E+0	1.821968E+0	1.730817E+0	2.017383E+0	2.000001E+0	2.008188E+0	1.802781E+0	1.786856E+0	1.912082E+0	1.911621E+0	1.984196E+0	1.849000E+0	1.773681E+0	1.736731E+0	1.931612E+0	1.990474E+0	1.766140E+0	1.738050E+0	1.748631E+0	2.051550E+0	1.952602E+0	1.913187E+0	1.778567E+0	1.994977E+0	1.949427E+0	2.089931E+0	2.063420E+0	1.894850E+0	1.792136E+0	1.944107E+0	1.925133E+0	1.893648E+0	1.715071E+0	1.990280E+0	1.727250E+0	1.970565E+0	1.934649E+0	2.042307E+0	1.807048E+0	1.998969E+0	1.955055E+0	1.992504E+0	1.988970E+0	1.823915E+0	1.790203E+0	1.833279E+0	1.853222E+0	1.798598E+0	1.764517E+0	1.777378E+0	1.710281E+0	2.033420E+0	1.995692E+0	1.998689E+0	1.764428E+0	1.905786E+0	1.948367E+0	1.940034E+0	1.999453E+0	1.877860E+0	1.737965E+0	1.802152E+0	1.949802E+0	1.890417E+0	1.828117E+0	1.819621E+0	1.680458E+0	1.968379E+0	2.013648E+0	1.931356E+0	1.686900E+0	1.922221E+0	1.788754E+0	1.957695E+0	1.910497E+0	1.673540E+0	1.794025E+0	1.877263E+0	1.938716E+0	1.764419E+0	1.741627E+0	1.895540E+0	1.830281E+0	1.915973E+0	1.964403E+0	2.072126E+0	1.751064E+0	2.061096E+0	1.864823E+0	1.864477E+0	1.663463E+0	1.866299E+0	1.687386E+0	1.765625E+0	1.556316E+0	1.641236E+0	1.516325E+0	1.604305E+0	1.557362E+0	2.009492E+0	1.927405E+0	1.951753E+0	1.377780E+0	1.939158E+0	1.821909E+0	1.877635E+0	1.562536E+0
5.357090E+2	1.853291E+0	1.694740E+0	1.769637E+0	1.901148E+0	1.881955E+0	1.404908E+0	1.574048E+0	1.797342E+0	1.787985E+0	1.604487E+0	1.678044E+0	1.867974E+0	1.627634E+0	1.818905E+0	1.822780E+0	1.923296E+0	1.571191E+0	1.745693E+0	1.662858E+0	1.822764E+0	1.786404E+0	1.733407E+0	1.600687E+0	1.643198E+0	1.644433E+0	1.697018E+0	1.641814E+0	1.688014E+0	1.529905E+0	1.784870E+0	1.741930E+0	1.759906E+0	1.380111E+0	1.578870E+0	1.832532E+0	1.786883E+0	1.808547E+0	1.505768E+0	1.646183E+0	1.669591E+0	1.732998E+0	1.581037E+0	1.624374E+0	1.709110E+0	1.565384E+0	1.754898E+0	1.838292E+0	1.793034E+0	1.669984E+0	1.818367E+0	1.749490E+0	1.760973E+0	1.858028E+0	1.713188E+0	1.566279E+0	1.569984E+0	1.752921E+0	1.644985E+0	1.633604E+0	1.565563E+0	1.523727E+0	1.860532E+0	1.751034E+0	1.778157E+0	1.605778E+0	1.561182E+0	1.740510E+0	1.809279E+0	1.781452E+0	1.682736E+0	1.632782E+0	1.607938E+0	1.733032E+0	1.765093E+0	1.641495E+0	1.580450E+0	1.540830E+0	1.840765E+0	1.747462E+0	1.744226E+0	1.626472E+0	1.760623E+0	1.779684E+0	1.809901E+0	1.765360E+0	1.653294E+0	1.637993E+0	1.758002E+0	1.738813E+0	1.739199E+0	1.621511E+0	1.754074E+0	1.505584E+0	1.823031E+0	1.766298E+0	1.860724E+0	1.669518E+0	1.697464E+0	1.729142E+0	1.776533E+0	1.777209E+0	1.653354E+0	1.586520E+0	1.689572E+0	1.702038E+0	1.652814E+0	1.598202E+0	1.625404E+0	1.561027E+0	1.757521E+0	1.799911E+0	1.769943E+0	1.557841E+0	1.779381E+0	1.718463E+0	1.785525E+0	1.797675E+0	1.640402E+0	1.586532E+0	1.548513E+0	1.723517E+0	1.692266E+0	1.728532E+0	1.598622E+0	1.566693E+0	1.848748E+0	1.826375E+0	1.741523E+0	1.536079E+0	1.751437E+0	1.678067E+0	1.746360E+0	1.812948E+0	1.546847E+0	1.517622E+0	1.685967E+0	1.688305E+0	1.519299E+0	1.630150E+0	1.734835E+0	1.655550E+0	1.802763E+0	1.770161E+0	1.789562E+0	1.627046E+0	1.844320E+0	1.735084E+0	1.710796E+0	1.782299E+0	1.705006E+0	1.500227E+0	1.537140E+0	1.692350E+0	1.524106E+0	1.327467E+0	1.419138E+0	1.512965E+0	1.852375E+0	1.696016E+0	1.696324E+0	1.308498E+0	1.774845E+0	1.681877E+0	1.754620E+0	1.655067E+0
5.358550E+2	1.749019E+0	1.551932E+0	1.471050E+0	1.640291E+0	1.675507E+0	1.232723E+0	1.425168E+0	1.524376E+0	1.525801E+0	1.341609E+0	1.455995E+0	1.566129E+0	1.400536E+0	1.669412E+0	1.583236E+0	1.635446E+0	1.467265E+0	1.506879E+0	1.446943E+0	1.575557E+0	1.560120E+0	1.460676E+0	1.382668E+0	1.409275E+0	1.465806E+0	1.483613E+0	1.473865E+0	1.492223E+0	1.392245E+0	1.512948E+0	1.596033E+0	1.583608E+0	1.228420E+0	1.430535E+0	1.617071E+0	1.636131E+0	1.533398E+0	1.346592E+0	1.475098E+0	1.503557E+0	1.587610E+0	1.341485E+0	1.515457E+0	1.522717E+0	1.386905E+0	1.519760E+0	1.619672E+0	1.595714E+0	1.468452E+0	1.516540E+0	1.648607E+0	1.500967E+0	1.582277E+0	1.436617E+0	1.406640E+0	1.389843E+0	1.539251E+0	1.457292E+0	1.370323E+0	1.417858E+0	1.402062E+0	1.543035E+0	1.541690E+0	1.522172E+0	1.388572E+0	1.403910E+0	1.500929E+0	1.556419E+0	1.598728E+0	1.508702E+0	1.405314E+0	1.418279E+0	1.504104E+0	1.550310E+0	1.414168E+0	1.388160E+0	1.348715E+0	1.662037E+0	1.601385E+0	1.563316E+0	1.397393E+0	1.508345E+0	1.510761E+0	1.600583E+0	1.593595E+0	1.424514E+0	1.421854E+0	1.575532E+0	1.533990E+0	1.553997E+0	1.378373E+0	1.579487E+0	1.326278E+0	1.563155E+0	1.568273E+0	1.585421E+0	1.406906E+0	1.547050E+0	1.496387E+0	1.522486E+0	1.589861E+0	1.416732E+0	1.342334E+0	1.461396E+0	1.427688E+0	1.440159E+0	1.376894E+0	1.443650E+0	1.406088E+0	1.572332E+0	1.581023E+0	1.561836E+0	1.361066E+0	1.592522E+0	1.548759E+0	1.534623E+0	1.624898E+0	1.453029E+0	1.354447E+0	1.379620E+0	1.579463E+0	1.495445E+0	1.472451E+0	1.406540E+0	1.309629E+0	1.635395E+0	1.574706E+0	1.543059E+0	1.396152E+0	1.537236E+0	1.465769E+0	1.582455E+0	1.561286E+0	1.352549E+0	1.355214E+0	1.448602E+0	1.538315E+0	1.432469E+0	1.469859E+0	1.536089E+0	1.502590E+0	1.557796E+0	1.573343E+0	1.576883E+0	1.480539E+0	1.623134E+0	1.508041E+0	1.541749E+0	1.628006E+0	1.487188E+0	1.355605E+0	1.428339E+0	1.533641E+0	1.279922E+0	1.169791E+0	1.227398E+0	1.356652E+0	1.614278E+0	1.505310E+0	1.565462E+0	1.156550E+0	1.524686E+0	1.494396E+0	1.534947E+0	1.633297E+0
5.360170E+2	1.417565E+0	1.269902E+0	1.246569E+0	1.391719E+0	1.396673E+0	1.021807E+0	1.155708E+0	1.267992E+0	1.301791E+0	1.190255E+0	1.191815E+0	1.292570E+0	1.182419E+0	1.254540E+0	1.335015E+0	1.333299E+0	1.225535E+0	1.260398E+0	1.234173E+0	1.288642E+0	1.308446E+0	1.230028E+0	1.174589E+0	1.182825E+0	1.230770E+0	1.224791E+0	1.181138E+0	1.239689E+0	1.128725E+0	1.270309E+0	1.343399E+0	1.275521E+0	1.016603E+0	1.190872E+0	1.363110E+0	1.237014E+0	1.308062E+0	1.117814E+0	1.210090E+0	1.205041E+0	1.227076E+0	1.173673E+0	1.238226E+0	1.313025E+0	1.136924E+0	1.314705E+0	1.356207E+0	1.279537E+0	1.136487E+0	1.206293E+0	1.341547E+0	1.297348E+0	1.371693E+0	1.225476E+0	1.094332E+0	1.124795E+0	1.231766E+0	1.227964E+0	1.204459E+0	1.157614E+0	1.137508E+0	1.305228E+0	1.256654E+0	1.328121E+0	1.163790E+0	1.211481E+0	1.249498E+0	1.216603E+0	1.283972E+0	1.269327E+0	1.143327E+0	1.156344E+0	1.298266E+0	1.279007E+0	1.130649E+0	1.179446E+0	1.120756E+0	1.355748E+0	1.282560E+0	1.237909E+0	1.195445E+0	1.240214E+0	1.277779E+0	1.343887E+0	1.323322E+0	1.161229E+0	1.155876E+0	1.215445E+0	1.245255E+0	1.221332E+0	1.158625E+0	1.231000E+0	1.137069E+0	1.298338E+0	1.229755E+0	1.348519E+0	1.186378E+0	1.286326E+0	1.300597E+0	1.277441E+0	1.323035E+0	1.201130E+0	1.183911E+0	1.232049E+0	1.258994E+0	1.202089E+0	1.137263E+0	1.168230E+0	1.189695E+0	1.286355E+0	1.297078E+0	1.323916E+0	1.148350E+0	1.292999E+0	1.275948E+0	1.296026E+0	1.314518E+0	1.211240E+0	1.159499E+0	1.157615E+0	1.291951E+0	1.265379E+0	1.217666E+0	1.162133E+0	1.114913E+0	1.346278E+0	1.231696E+0	1.313165E+0	1.180529E+0	1.268764E+0	1.192624E+0	1.288123E+0	1.284798E+0	1.162506E+0	1.123553E+0	1.216486E+0	1.285999E+0	1.157291E+0	1.202706E+0	1.282247E+0	1.224743E+0	1.347366E+0	1.341792E+0	1.393125E+0	1.186164E+0	1.318180E+0	1.279626E+0	1.259117E+0	1.326643E+0	1.228017E+0	1.107069E+0	1.171793E+0	1.284243E+0	1.091321E+0	9.857308E-1	1.081056E+0	1.179056E+0	1.320117E+0	1.258025E+0	1.257189E+0	9.947019E-1	1.296682E+0	1.287240E+0	1.269583E+0	1.246840E+0
5.362580E+2	9.638855E-1	9.340497E-1	9.012140E-1	9.921237E-1	1.023326E+0	8.234034E-1	8.173453E-1	9.583980E-1	1.001439E+0	9.001596E-1	8.860735E-1	1.015059E+0	9.067316E-1	9.862674E-1	9.971065E-1	1.029904E+0	9.017011E-1	9.372947E-1	9.080935E-1	9.882798E-1	9.557591E-1	9.045427E-1	8.367490E-1	8.885570E-1	9.825761E-1	9.130823E-1	8.759897E-1	9.004828E-1	8.736341E-1	9.535639E-1	9.859151E-1	1.013706E+0	7.413538E-1	8.807203E-1	1.017966E+0	9.481347E-1	9.635313E-1	8.861814E-1	9.139767E-1	9.213051E-1	1.002151E+0	8.623914E-1	9.200635E-1	9.465387E-1	8.670553E-1	9.942290E-1	1.011149E+0	1.001443E+0	8.756152E-1	9.640525E-1	9.663934E-1	9.709295E-1	1.022929E+0	9.173866E-1	8.772229E-1	8.918583E-1	9.460686E-1	9.399376E-1	9.479598E-1	8.826671E-1	8.657031E-1	9.712860E-1	9.680663E-1	9.759941E-1	8.922801E-1	8.873547E-1	9.207021E-1	9.597301E-1	1.019899E+0	9.264411E-1	8.485230E-1	8.705003E-1	9.604814E-1	9.730815E-1	8.755497E-1	8.952775E-1	8.429487E-1	1.042634E+0	9.650054E-1	9.546017E-1	8.792746E-1	9.452018E-1	1.008188E+0	1.020720E+0	1.005052E+0	9.068912E-1	8.806290E-1	9.820569E-1	9.743644E-1	9.061409E-1	8.927108E-1	9.270168E-1	8.483023E-1	1.008827E+0	9.760190E-1	1.000326E+0	9.071660E-1	9.714543E-1	9.747390E-1	9.548675E-1	9.761565E-1	8.948416E-1	8.950605E-1	9.364165E-1	9.782287E-1	9.011617E-1	9.308935E-1	9.300285E-1	8.586465E-1	9.336078E-1	1.040494E+0	9.656032E-1	8.700409E-1	9.927868E-1	9.576698E-1	9.815410E-1	9.954950E-1	9.552290E-1	8.897029E-1	8.801038E-1	9.954381E-1	9.927524E-1	9.066220E-1	9.060241E-1	8.266725E-1	9.561335E-1	9.583396E-1	1.000062E+0	8.697080E-1	9.908814E-1	9.039465E-1	9.749610E-1	1.033710E+0	8.543037E-1	8.710536E-1	9.598756E-1	9.917380E-1	8.968085E-1	9.157647E-1	9.792074E-1	9.216867E-1	1.007739E+0	1.060718E+0	1.031027E+0	9.319936E-1	1.002204E+0	9.573525E-1	9.731396E-1	1.018713E+0	9.585049E-1	8.457758E-1	9.118129E-1	9.763730E-1	8.438270E-1	8.118636E-1	7.770219E-1	8.621797E-1	1.029416E+0	9.452677E-1	1.004278E+0	7.653218E-1	9.320601E-1	9.064906E-1	1.051667E+0	9.855753E-1
5.365090E+2	7.795129E-1	6.922075E-1	7.227807E-1	7.811260E-1	8.276038E-1	6.792183E-1	6.364747E-1	7.538453E-1	7.317487E-1	6.764469E-1	7.380415E-1	7.408381E-1	6.938932E-1	7.481234E-1	7.812859E-1	8.533390E-1	6.817920E-1	7.252972E-1	7.456835E-1	7.711731E-1	7.802626E-1	7.154255E-1	6.619848E-1	7.063627E-1	7.017884E-1	7.214536E-1	7.512103E-1	7.383617E-1	6.775401E-1	7.186949E-1	7.977010E-1	7.630199E-1	5.824920E-1	6.508641E-1	7.579270E-1	7.236713E-1	7.565755E-1	6.368640E-1	7.123812E-1	6.932935E-1	7.250697E-1	6.754913E-1	7.609835E-1	6.959152E-1	6.745976E-1	7.707554E-1	7.582729E-1	7.314241E-1	7.105144E-1	7.218135E-1	7.665219E-1	7.710694E-1	7.737261E-1	6.901852E-1	6.606953E-1	7.193338E-1	7.336113E-1	7.099262E-1	7.247551E-1	6.959578E-1	6.943376E-1	8.062123E-1	7.427555E-1	7.453724E-1	6.921215E-1	7.377576E-1	7.154380E-1	7.189137E-1	7.602089E-1	7.232969E-1	6.651896E-1	6.547578E-1	7.460675E-1	7.243858E-1	6.688873E-1	7.017749E-1	6.721184E-1	8.072896E-1	8.036871E-1	7.344406E-1	6.956304E-1	7.859777E-1	7.758727E-1	8.432246E-1	7.720344E-1	7.087885E-1	7.021523E-1	7.341172E-1	7.761501E-1	7.377122E-1	6.563433E-1	7.209366E-1	6.293903E-1	7.717885E-1	7.786006E-1	8.376178E-1	7.008690E-1	7.114002E-1	7.638897E-1	7.292034E-1	7.791565E-1	7.134708E-1	6.997126E-1	6.982689E-1	7.032964E-1	7.065609E-1	7.021223E-1	7.420736E-1	6.468986E-1	7.591248E-1	7.419567E-1	7.775593E-1	6.738766E-1	7.647086E-1	7.284077E-1	7.443111E-1	7.622468E-1	7.227161E-1	7.092590E-1	6.992741E-1	8.063655E-1	7.374164E-1	7.061562E-1	7.456111E-1	6.472733E-1	7.913026E-1	8.420321E-1	7.979012E-1	6.546568E-1	7.665507E-1	6.741687E-1	7.754846E-1	7.612635E-1	7.209110E-1	6.608416E-1	6.927670E-1	7.883603E-1	7.077904E-1	7.073190E-1	7.529120E-1	7.263339E-1	7.634111E-1	7.751397E-1	8.093124E-1	7.289292E-1	8.008608E-1	7.365236E-1	7.426215E-1	8.013881E-1	7.275933E-1	6.768467E-1	6.993619E-1	7.502431E-1	6.453012E-1	6.068210E-1	6.026065E-1	6.584298E-1	7.719387E-1	7.768104E-1	7.790480E-1	5.912490E-1	8.083662E-1	6.958637E-1	7.581846E-1	7.379189E-1
5.367600E+2	6.158566E-1	6.161388E-1	5.853574E-1	6.004770E-1	6.881856E-1	5.427787E-1	5.300439E-1	5.727883E-1	6.034737E-1	5.436800E-1	5.530028E-1	6.185240E-1	5.618599E-1	6.200702E-1	6.487846E-1	6.456879E-1	5.996848E-1	5.969495E-1	5.719423E-1	6.635803E-1	6.154871E-1	5.953326E-1	5.450855E-1	5.569283E-1	5.870923E-1	5.621771E-1	5.643370E-1	6.286187E-1	5.612320E-1	5.943874E-1	6.145387E-1	6.271339E-1	4.936841E-1	5.632123E-1	6.012274E-1	6.067908E-1	6.344191E-1	5.124905E-1	5.933378E-1	5.710433E-1	6.409671E-1	5.418973E-1	5.655983E-1	6.039782E-1	5.536398E-1	5.878021E-1	6.193774E-1	6.800744E-1	5.794911E-1	6.065229E-1	5.880869E-1	6.056673E-1	6.669256E-1	5.587419E-1	5.718786E-1	5.783752E-1	5.962106E-1	6.007216E-1	5.582764E-1	5.853392E-1	5.441985E-1	6.259600E-1	6.221170E-1	6.185591E-1	5.727843E-1	5.523590E-1	6.050076E-1	6.627230E-1	5.943825E-1	5.997288E-1	5.678647E-1	5.558532E-1	5.732173E-1	6.169941E-1	5.978466E-1	5.520831E-1	5.729812E-1	6.387957E-1	6.283970E-1	5.973374E-1	5.359668E-1	6.398503E-1	6.294279E-1	6.819952E-1	6.463692E-1	5.477502E-1	5.937914E-1	5.989332E-1	6.182395E-1	6.370744E-1	5.480077E-1	5.826374E-1	5.710877E-1	6.403055E-1	5.981383E-1	6.475756E-1	5.811214E-1	6.024317E-1	5.831614E-1	6.163719E-1	6.400648E-1	5.819473E-1	5.668998E-1	5.897536E-1	6.490108E-1	5.915394E-1	6.016527E-1	5.441933E-1	5.704628E-1	6.356635E-1	6.495378E-1	6.113022E-1	5.684385E-1	6.190688E-1	5.484552E-1	6.403945E-1	6.727727E-1	6.206824E-1	5.572456E-1	5.154613E-1	6.286977E-1	6.449900E-1	6.117435E-1	5.273668E-1	5.389783E-1	6.351121E-1	6.488432E-1	6.660034E-1	5.732243E-1	6.695822E-1	5.952030E-1	6.115802E-1	6.602512E-1	5.552364E-1	5.713641E-1	5.545465E-1	6.326498E-1	5.568436E-1	5.925423E-1	6.000809E-1	6.054554E-1	6.258967E-1	6.297779E-1	6.641134E-1	6.076359E-1	6.311147E-1	6.481921E-1	5.922836E-1	6.832062E-1	6.042105E-1	5.948127E-1	5.636455E-1	6.416529E-1	5.347891E-1	4.923089E-1	5.136062E-1	5.781459E-1	6.376626E-1	6.617507E-1	6.324600E-1	4.707372E-1	6.422089E-1	6.356836E-1	7.195225E-1	5.256401E-1
5.370280E+2	5.716627E-1	5.221286E-1	5.457855E-1	5.339981E-1	5.675355E-1	4.730695E-1	4.795970E-1	5.064464E-1	5.189996E-1	4.839350E-1	4.727245E-1	5.442141E-1	4.831673E-1	5.204087E-1	5.776159E-1	6.009256E-1	5.221710E-1	5.433115E-1	5.404674E-1	5.905712E-1	5.726008E-1	5.223793E-1	4.860514E-1	4.948562E-1	5.262967E-1	5.167589E-1	4.797707E-1	4.989223E-1	4.713325E-1	5.549435E-1	5.223267E-1	5.345908E-1	4.412821E-1	4.890455E-1	5.809645E-1	5.330766E-1	5.288659E-1	4.634254E-1	5.143739E-1	5.022416E-1	5.503449E-1	4.556865E-1	5.193926E-1	5.195974E-1	4.681636E-1	5.362311E-1	5.440130E-1	5.519884E-1	5.148611E-1	5.197319E-1	5.496258E-1	5.411359E-1	5.770188E-1	4.968855E-1	4.650657E-1	5.032693E-1	5.259971E-1	4.792318E-1	4.824360E-1	4.811144E-1	4.639516E-1	5.778923E-1	5.529271E-1	5.165194E-1	5.058545E-1	4.961003E-1	5.126697E-1	5.362944E-1	5.724809E-1	5.350323E-1	4.914759E-1	5.020532E-1	5.758551E-1	5.371582E-1	4.893486E-1	4.735870E-1	4.895265E-1	6.005943E-1	5.566292E-1	5.336212E-1	5.151414E-1	5.467973E-1	5.588681E-1	6.218872E-1	5.832208E-1	5.017390E-1	4.906460E-1	5.431623E-1	5.336680E-1	5.525109E-1	4.969179E-1	5.196494E-1	4.929834E-1	5.798110E-1	5.926880E-1	5.811909E-1	5.034635E-1	5.202034E-1	5.256569E-1	5.492266E-1	5.378748E-1	5.278963E-1	4.823284E-1	5.029412E-1	5.281816E-1	5.066111E-1	5.134019E-1	4.834026E-1	4.929947E-1	5.613349E-1	5.376621E-1	5.339067E-1	5.034593E-1	5.620488E-1	5.221992E-1	5.617735E-1	5.549139E-1	5.161749E-1	5.235936E-1	4.742821E-1	5.872820E-1	5.518982E-1	4.869376E-1	5.294320E-1	4.651401E-1	5.939043E-1	5.371358E-1	5.766338E-1	5.061280E-1	5.849153E-1	5.007028E-1	5.669421E-1	5.678966E-1	4.998085E-1	5.051739E-1	4.956427E-1	5.557469E-1	4.853776E-1	4.711695E-1	4.793897E-1	5.086382E-1	5.561801E-1	5.680313E-1	5.647030E-1	5.088293E-1	5.965777E-1	5.481287E-1	5.635523E-1	5.880036E-1	5.435528E-1	4.921182E-1	4.370910E-1	5.491724E-1	4.798637E-1	4.425465E-1	4.568614E-1	4.613699E-1	5.857516E-1	5.276209E-1	5.664005E-1	4.561826E-1	5.286684E-1	5.396287E-1	5.490560E-1	5.882348E-1
5.372640E+2	5.647573E-1	5.343286E-1	4.947018E-1	5.701279E-1	5.836221E-1	5.660148E-1	4.752911E-1	5.658776E-1	5.308889E-1	5.576208E-1	5.103013E-1	5.869585E-1	4.879205E-1	5.447444E-1	5.434778E-1	6.077640E-1	5.359519E-1	5.592755E-1	5.140290E-1	5.265275E-1	5.647008E-1	5.083496E-1	4.772838E-1	4.816372E-1	5.450997E-1	5.030707E-1	5.081566E-1	4.976750E-1	4.494194E-1	5.525529E-1	5.640119E-1	5.539193E-1	4.285952E-1	4.780128E-1	5.465178E-1	5.337405E-1	5.347963E-1	4.497333E-1	4.760890E-1	5.073593E-1	5.164434E-1	5.057021E-1	5.075105E-1	5.416370E-1	4.703135E-1	5.540351E-1	5.539789E-1	5.439111E-1	4.895960E-1	5.132543E-1	6.215038E-1	5.279792E-1	5.764158E-1	4.808274E-1	4.557778E-1	4.961943E-1	5.423396E-1	5.126754E-1	5.095657E-1	5.015754E-1	4.416897E-1	5.728329E-1	5.340033E-1	5.230074E-1	5.083800E-1	5.005752E-1	5.207803E-1	5.336186E-1	5.386899E-1	5.518538E-1	5.005290E-1	5.058575E-1	4.788746E-1	5.512882E-1	5.003278E-1	4.741956E-1	5.029688E-1	5.726261E-1	5.432919E-1	5.205369E-1	4.848496E-1	5.399048E-1	5.495485E-1	5.398582E-1	5.541725E-1	4.768163E-1	5.219370E-1	5.395250E-1	5.501862E-1	5.217603E-1	4.919938E-1	4.689856E-1	4.880330E-1	5.612927E-1	5.206243E-1	5.219656E-1	5.076132E-1	5.228775E-1	5.537246E-1	5.616863E-1	5.452551E-1	5.284971E-1	4.704174E-1	4.777186E-1	5.159233E-1	4.832052E-1	4.943946E-1	4.703756E-1	4.816326E-1	5.266899E-1	5.559026E-1	5.608519E-1	4.875204E-1	5.400655E-1	5.241203E-1	5.036625E-1	5.641700E-1	5.353452E-1	5.218527E-1	4.999446E-1	5.500676E-1	5.133318E-1	5.192704E-1	5.074009E-1	4.842832E-1	6.297951E-1	5.581634E-1	5.556779E-1	4.998204E-1	5.219575E-1	5.311242E-1	5.536904E-1	5.742463E-1	4.522991E-1	4.923042E-1	4.915603E-1	5.773567E-1	4.746911E-1	4.949163E-1	5.279285E-1	5.281163E-1	5.740890E-1	5.570976E-1	5.749454E-1	5.088289E-1	5.884944E-1	5.253560E-1	5.261351E-1	5.243163E-1	5.476891E-1	4.884720E-1	4.966462E-1	5.264998E-1	4.467760E-1	3.951829E-1	4.634311E-1	4.735341E-1	5.670637E-1	4.977433E-1	5.619971E-1	4.096074E-1	5.785162E-1	5.326858E-1	5.279668E-1	5.229183E-1
5.375060E+2	5.537086E-1	5.802570E-1	5.047744E-1	5.845799E-1	5.601626E-1	6.154669E-1	5.017448E-1	5.244141E-1	5.609238E-1	6.120551E-1	5.194110E-1	5.895889E-1	5.074618E-1	5.986312E-1	5.735659E-1	5.617580E-1	5.198745E-1	6.493101E-1	5.656474E-1	5.963350E-1	5.568008E-1	6.233919E-1	5.293042E-1	5.052013E-1	5.438462E-1	6.256385E-1	5.022432E-1	5.276052E-1	4.550374E-1	6.039495E-1	5.419060E-1	5.709050E-1	4.225276E-1	4.957882E-1	6.262183E-1	5.662813E-1	5.187853E-1	5.016508E-1	5.484720E-1	5.119082E-1	5.451293E-1	5.037276E-1	5.127911E-1	5.598988E-1	4.853661E-1	5.571050E-1	5.402760E-1	5.958379E-1	5.389500E-1	5.443443E-1	5.843039E-1	5.768476E-1	6.035688E-1	5.212716E-1	4.987351E-1	5.032694E-1	5.423401E-1	5.167710E-1	5.089494E-1	5.034939E-1	4.908732E-1	6.000289E-1	5.523361E-1	5.690139E-1	5.348995E-1	5.012146E-1	5.226518E-1	5.884711E-1	5.925050E-1	5.311511E-1	5.010953E-1	4.797728E-1	5.422093E-1	5.731910E-1	5.080778E-1	4.930591E-1	5.152909E-1	5.794475E-1	5.369408E-1	5.415862E-1	5.164033E-1	5.612721E-1	5.542081E-1	6.134017E-1	5.731170E-1	4.991827E-1	5.010761E-1	5.364939E-1	5.898287E-1	5.364361E-1	5.147686E-1	5.655211E-1	5.149843E-1	5.619097E-1	5.684652E-1	5.681746E-1	5.236190E-1	5.516241E-1	5.557780E-1	5.409202E-1	5.884023E-1	5.296981E-1	4.966225E-1	5.569058E-1	5.439414E-1	5.032671E-1	5.201906E-1	5.330275E-1	5.157183E-1	5.707830E-1	5.346221E-1	5.705980E-1	5.187843E-1	5.524316E-1	5.388493E-1	5.692936E-1	5.617019E-1	5.378190E-1	5.154706E-1	4.671204E-1	5.944850E-1	5.731765E-1	5.451371E-1	5.025815E-1	4.995978E-1	5.892518E-1	5.811620E-1	5.612251E-1	4.774547E-1	5.458381E-1	5.240041E-1	6.115802E-1	5.852132E-1	5.125995E-1	4.953687E-1	5.102229E-1	5.512986E-1	4.907208E-1	5.292168E-1	5.508859E-1	5.338447E-1	6.041502E-1	5.519514E-1	5.978399E-1	5.551662E-1	5.355867E-1	5.577905E-1	5.555344E-1	6.037609E-1	5.332140E-1	5.164242E-1	5.367308E-1	5.748284E-1	5.804497E-1	4.491415E-1	4.598476E-1	4.881309E-1	5.878281E-1	5.250778E-1	5.739504E-1	4.363881E-1	5.572843E-1	5.824490E-1	5.472990E-1	6.045638E-1
5.377630E+2	6.752426E-1	6.240328E-1	5.954305E-1	6.821304E-1	6.948888E-1	6.732600E-1	5.183552E-1	6.405117E-1	6.504033E-1	6.684813E-1	5.660982E-1	5.810405E-1	5.740065E-1	6.739564E-1	6.661431E-1	6.425799E-1	6.025559E-1	7.061411E-1	6.298561E-1	6.911188E-1	6.707887E-1	7.070073E-1	5.708036E-1	5.914132E-1	6.071484E-1	6.878559E-1	6.358930E-1	5.980656E-1	5.567372E-1	6.864228E-1	6.739087E-1	6.529053E-1	5.322966E-1	6.263463E-1	6.397268E-1	6.273776E-1	6.373837E-1	6.682425E-1	5.789807E-1	5.886702E-1	6.298841E-1	6.577229E-1	6.137843E-1	5.983108E-1	5.654671E-1	6.915571E-1	6.243607E-1	6.558420E-1	5.836038E-1	5.948649E-1	6.158297E-1	6.708257E-1	6.578743E-1	6.128658E-1	5.800055E-1	5.859946E-1	5.907632E-1	6.061817E-1	6.057531E-1	5.962096E-1	5.550708E-1	6.265921E-1	6.404492E-1	6.551289E-1	5.759416E-1	5.677026E-1	6.062550E-1	6.493447E-1	6.375600E-1	6.463088E-1	5.531528E-1	6.096527E-1	5.949876E-1	6.388974E-1	5.823467E-1	5.660786E-1	5.623392E-1	6.804074E-1	6.741244E-1	6.525201E-1	6.072790E-1	6.088324E-1	6.460692E-1	6.607807E-1	6.728913E-1	5.816193E-1	5.955296E-1	6.134821E-1	6.473106E-1	6.140116E-1	5.935579E-1	6.100236E-1	5.617368E-1	6.526513E-1	6.259947E-1	6.931338E-1	5.900138E-1	6.445483E-1	6.529883E-1	6.862861E-1	6.582316E-1	6.089724E-1	5.621353E-1	5.956193E-1	5.748784E-1	5.928769E-1	6.104772E-1	5.770696E-1	5.683973E-1	6.709380E-1	6.306895E-1	6.457004E-1	5.757945E-1	6.218168E-1	6.272243E-1	6.827812E-1	6.851140E-1	5.879078E-1	6.007608E-1	5.924476E-1	6.947230E-1	6.217167E-1	6.085099E-1	6.230637E-1	5.685129E-1	7.022411E-1	6.711844E-1	6.382681E-1	5.973096E-1	6.782657E-1	5.796682E-1	6.290168E-1	6.458205E-1	5.692456E-1	5.689122E-1	5.627116E-1	6.809517E-1	5.488287E-1	5.991385E-1	6.282854E-1	5.894149E-1	6.367698E-1	6.722289E-1	6.671255E-1	6.124058E-1	6.406676E-1	6.544026E-1	6.163377E-1	6.313366E-1	6.876146E-1	5.698983E-1	5.819702E-1	6.309135E-1	6.644923E-1	4.755211E-1	5.231630E-1	5.927432E-1	6.605029E-1	6.299662E-1	6.274268E-1	5.173116E-1	6.468243E-1	6.125387E-1	6.966759E-1	5.283622E-1
5.380110E+2	7.684647E-1	7.654056E-1	7.083904E-1	7.905195E-1	7.344352E-1	7.638226E-1	6.524702E-1	7.179104E-1	7.542751E-1	7.912906E-1	6.486542E-1	7.474141E-1	6.437203E-1	7.660856E-1	7.627705E-1	7.526224E-1	7.105006E-1	8.070310E-1	7.255397E-1	7.436349E-1	7.661553E-1	7.889398E-1	6.356824E-1	7.057878E-1	7.256057E-1	7.513182E-1	7.044922E-1	6.872316E-1	6.443898E-1	7.939967E-1	6.713824E-1	7.261198E-1	5.642895E-1	7.697763E-1	7.079451E-1	7.329680E-1	7.340421E-1	7.903341E-1	6.579442E-1	6.677063E-1	7.146384E-1	7.860522E-1	6.923346E-1	7.097684E-1	6.762103E-1	7.511096E-1	7.483075E-1	7.325781E-1	6.729109E-1	7.820490E-1	7.646298E-1	7.209476E-1	7.664854E-1	8.014068E-1	6.543098E-1	6.627326E-1	6.912415E-1	8.068448E-1	6.587804E-1	6.313773E-1	6.632744E-1	7.720593E-1	7.522173E-1	7.347551E-1	6.580252E-1	6.712698E-1	6.936010E-1	7.122241E-1	7.051424E-1	7.439995E-1	6.504782E-1	7.074705E-1	7.130803E-1	7.717228E-1	6.553252E-1	6.689152E-1	6.709985E-1	7.738633E-1	7.414464E-1	7.105472E-1	6.552408E-1	7.639209E-1	7.346016E-1	7.675600E-1	7.903473E-1	7.075107E-1	6.911425E-1	7.207810E-1	7.318826E-1	7.307237E-1	6.428013E-1	6.935509E-1	6.398410E-1	7.489486E-1	7.440828E-1	7.718840E-1	6.866415E-1	7.635448E-1	7.844270E-1	7.506626E-1	7.621249E-1	6.990574E-1	6.467065E-1	7.100004E-1	6.939568E-1	7.199359E-1	7.041584E-1	7.060954E-1	6.567112E-1	7.679431E-1	7.626292E-1	7.615074E-1	6.689726E-1	7.358559E-1	7.264859E-1	7.080768E-1	7.752052E-1	6.732453E-1	6.663237E-1	6.831608E-1	7.577467E-1	7.148084E-1	6.886963E-1	6.478482E-1	6.368818E-1	8.172231E-1	7.690938E-1	7.362667E-1	6.655525E-1	7.571436E-1	7.032949E-1	7.301498E-1	7.329805E-1	6.246737E-1	6.908720E-1	7.079299E-1	7.591250E-1	6.830782E-1	6.822534E-1	7.358576E-1	6.868049E-1	7.774824E-1	8.066559E-1	8.026854E-1	6.962213E-1	7.303170E-1	7.206516E-1	7.232448E-1	7.757822E-1	6.931291E-1	6.416023E-1	7.022255E-1	7.323438E-1	7.425788E-1	5.546608E-1	5.900623E-1	6.614704E-1	7.871653E-1	7.157843E-1	7.589156E-1	5.761121E-1	7.335954E-1	7.247959E-1	7.863026E-1	7.161473E-1
5.382900E+2	9.335018E-1	8.866858E-1	8.731538E-1	9.299808E-1	9.529465E-1	9.675879E-1	8.081174E-1	8.367723E-1	8.575211E-1	9.393256E-1	8.052254E-1	9.072123E-1	7.720572E-1	9.109423E-1	8.993221E-1	8.931280E-1	8.844758E-1	9.602822E-1	8.520685E-1	9.396072E-1	8.835288E-1	1.002749E+0	8.326581E-1	8.695906E-1	8.766544E-1	9.410804E-1	8.067990E-1	8.281518E-1	7.859816E-1	9.368304E-1	9.347570E-1	9.047632E-1	6.768166E-1	8.923659E-1	9.227315E-1	8.664507E-1	8.793255E-1	9.352449E-1	8.176662E-1	8.394253E-1	8.965343E-1	9.578161E-1	8.250118E-1	8.546012E-1	7.482474E-1	1.008965E+0	9.139848E-1	9.183598E-1	8.809037E-1	9.426787E-1	9.209970E-1	8.700599E-1	9.040600E-1	9.185765E-1	7.889866E-1	8.172977E-1	8.698019E-1	9.610962E-1	8.147768E-1	8.193652E-1	7.906335E-1	9.586366E-1	8.675338E-1	9.046252E-1	8.474499E-1	7.952947E-1	8.963695E-1	9.256142E-1	9.003793E-1	9.135020E-1	7.908072E-1	7.618140E-1	8.991261E-1	9.610707E-1	8.058011E-1	8.319934E-1	7.757372E-1	9.444036E-1	8.627524E-1	8.675614E-1	7.871368E-1	9.569194E-1	8.624082E-1	9.528333E-1	8.958048E-1	9.592929E-1	7.890727E-1	8.923375E-1	8.845068E-1	9.606524E-1	7.609852E-1	8.653978E-1	7.905491E-1	9.798150E-1	9.233338E-1	9.066058E-1	8.437355E-1	9.186416E-1	8.433003E-1	8.731855E-1	9.489040E-1	9.134588E-1	7.866662E-1	8.642678E-1	8.451402E-1	8.904623E-1	8.636873E-1	8.140296E-1	8.075166E-1	9.682529E-1	8.629524E-1	9.220314E-1	8.130308E-1	8.636344E-1	8.673734E-1	8.639515E-1	8.652962E-1	8.389721E-1	8.160166E-1	8.168427E-1	8.609867E-1	9.056454E-1	8.458355E-1	8.123921E-1	7.446304E-1	9.415113E-1	8.992001E-1	9.532195E-1	8.083466E-1	8.787164E-1	8.353370E-1	8.884751E-1	9.321197E-1	7.787759E-1	7.956719E-1	8.064921E-1	8.964048E-1	8.253417E-1	7.996684E-1	8.762265E-1	8.426289E-1	8.779002E-1	9.095670E-1	9.442697E-1	8.767983E-1	9.669326E-1	9.249184E-1	8.575464E-1	9.458330E-1	8.668295E-1	7.613114E-1	8.058739E-1	9.232713E-1	8.696350E-1	7.111408E-1	7.184853E-1	7.977094E-1	9.249028E-1	9.033123E-1	8.639811E-1	6.710081E-1	9.274449E-1	8.879740E-1	8.583552E-1	8.413351E-1
5.385060E+2	1.092324E+0	1.145751E+0	1.073173E+0	1.132307E+0	1.109121E+0	1.148713E+0	9.342340E-1	1.048236E+0	1.032726E+0	1.142459E+0	9.976667E-1	1.126194E+0	9.437007E-1	1.121853E+0	1.059018E+0	1.103888E+0	1.010795E+0	1.198458E+0	1.018885E+0	1.152871E+0	1.074825E+0	1.118915E+0	9.694316E-1	1.059831E+0	1.012035E+0	1.161952E+0	9.966296E-1	1.014590E+0	9.607243E-1	1.137634E+0	1.078759E+0	1.075791E+0	8.202333E-1	1.148578E+0	1.096316E+0	1.070327E+0	1.127791E+0	1.121807E+0	1.006102E+0	1.026498E+0	1.024970E+0	1.074300E+0	9.953134E-1	1.061775E+0	9.100607E-1	1.096142E+0	1.084022E+0	1.112799E+0	1.058932E+0	1.170022E+0	1.073580E+0	1.056763E+0	1.111025E+0	1.170165E+0	9.875198E-1	1.009960E+0	1.047153E+0	1.168584E+0	9.806392E-1	9.984013E-1	9.107437E-1	1.169246E+0	1.050265E+0	1.035566E+0	9.718389E-1	9.570386E-1	1.011792E+0	1.044685E+0	1.107507E+0	1.161934E+0	9.735744E-1	9.628835E-1	1.050206E+0	1.098842E+0	9.562779E-1	9.877693E-1	9.213635E-1	1.163378E+0	1.048205E+0	1.037091E+0	9.865580E-1	1.112697E+0	1.079413E+0	1.087899E+0	1.096617E+0	1.125445E+0	9.988411E-1	1.036614E+0	1.069507E+0	1.146554E+0	9.185637E-1	9.680953E-1	9.610579E-1	1.158214E+0	1.040817E+0	1.105110E+0	9.806747E-1	1.165324E+0	1.028136E+0	1.044856E+0	1.065289E+0	1.171701E+0	9.635512E-1	1.033787E+0	1.023757E+0	1.147924E+0	1.005566E+0	9.864775E-1	9.412796E-1	1.167304E+0	1.066031E+0	1.075103E+0	9.552500E-1	1.106825E+0	1.024271E+0	1.095029E+0	1.098544E+0	1.140125E+0	9.355382E-1	9.535096E-1	1.044057E+0	1.079859E+0	1.017201E+0	9.913940E-1	9.180133E-1	1.152868E+0	1.116043E+0	1.009307E+0	9.580218E-1	1.056010E+0	1.019159E+0	1.104690E+0	1.073538E+0	9.152136E-1	9.550156E-1	1.003617E+0	1.069912E+0	9.909830E-1	9.817282E-1	1.060543E+0	9.847038E-1	1.106239E+0	1.123108E+0	1.117785E+0	9.708349E-1	1.094793E+0	1.007039E+0	1.021247E+0	1.086996E+0	1.050180E+0	9.265947E-1	9.484611E-1	1.077803E+0	1.084042E+0	8.304492E-1	8.552704E-1	9.576683E-1	1.093785E+0	1.009472E+0	1.005536E+0	8.183004E-1	1.105601E+0	9.689845E-1	1.027065E+0	1.026399E+0
5.387600E+2	1.378203E+0	1.295019E+0	1.224266E+0	1.325964E+0	1.376562E+0	1.359031E+0	1.094187E+0	1.204416E+0	1.279265E+0	1.378785E+0	1.210036E+0	1.328079E+0	1.138582E+0	1.291045E+0	1.284097E+0	1.376818E+0	1.247356E+0	1.407263E+0	1.259983E+0	1.364855E+0	1.244682E+0	1.382671E+0	1.181603E+0	1.193747E+0	1.197554E+0	1.281407E+0	1.194739E+0	1.207887E+0	1.150639E+0	1.287641E+0	1.273289E+0	1.271421E+0	9.415859E-1	1.344724E+0	1.271252E+0	1.288149E+0	1.251724E+0	1.343741E+0	1.145486E+0	1.174333E+0	1.264893E+0	1.343461E+0	1.225021E+0	1.191494E+0	1.115421E+0	1.349089E+0	1.334407E+0	1.230498E+0	1.131200E+0	1.394123E+0	1.295520E+0	1.249104E+0	1.351781E+0	1.364652E+0	1.091430E+0	1.181395E+0	1.192422E+0	1.363787E+0	1.189044E+0	1.174881E+0	1.107478E+0	1.379857E+0	1.247191E+0	1.316912E+0	1.177680E+0	1.132846E+0	1.202081E+0	1.252723E+0	1.284596E+0	1.301029E+0	1.138801E+0	1.150367E+0	1.271875E+0	1.327048E+0	1.150671E+0	1.173362E+0	1.129719E+0	1.385763E+0	1.250805E+0	1.264649E+0	1.134232E+0	1.373935E+0	1.317053E+0	1.346009E+0	1.323318E+0	1.357415E+0	1.125744E+0	1.258488E+0	1.197684E+0	1.377879E+0	1.149391E+0	1.231001E+0	1.105167E+0	1.295252E+0	1.243078E+0	1.375204E+0	1.137175E+0	1.361202E+0	1.217762E+0	1.273289E+0	1.263991E+0	1.392709E+0	1.167830E+0	1.185710E+0	1.183695E+0	1.406053E+0	1.170527E+0	1.147757E+0	1.099829E+0	1.338006E+0	1.278229E+0	1.275757E+0	1.131185E+0	1.360321E+0	1.245208E+0	1.267312E+0	1.218255E+0	1.334302E+0	1.093353E+0	1.108678E+0	1.308157E+0	1.384402E+0	1.163995E+0	1.175903E+0	1.079910E+0	1.386157E+0	1.265864E+0	1.290359E+0	1.109992E+0	1.286132E+0	1.243112E+0	1.257435E+0	1.210338E+0	1.265444E+0	1.129070E+0	1.166913E+0	1.258672E+0	1.281524E+0	1.152575E+0	1.260600E+0	1.170892E+0	1.364638E+0	1.312849E+0	1.329257E+0	1.248174E+0	1.364475E+0	1.246500E+0	1.253770E+0	1.245884E+0	1.192173E+0	1.115578E+0	1.108231E+0	1.225771E+0	1.273303E+0	1.003717E+0	1.005197E+0	1.079309E+0	1.371334E+0	1.209712E+0	1.286131E+0	9.981966E-1	1.297605E+0	1.239791E+0	1.172927E+0	1.260449E+0
5.390390E+2	1.593650E+0	1.594987E+0	1.383272E+0	1.575981E+0	1.583679E+0	1.602716E+0	1.318123E+0	1.442139E+0	1.572732E+0	1.625734E+0	1.389951E+0	1.538511E+0	1.342443E+0	1.569171E+0	1.516698E+0	1.535351E+0	1.404680E+0	1.685671E+0	1.484712E+0	1.546098E+0	1.542064E+0	1.584693E+0	1.367471E+0	1.429969E+0	1.426318E+0	1.574455E+0	1.375699E+0	1.419895E+0	1.380447E+0	1.539839E+0	1.481083E+0	1.494578E+0	1.145128E+0	1.573965E+0	1.571141E+0	1.506636E+0	1.497227E+0	1.543992E+0	1.377591E+0	1.376190E+0	1.466997E+0	1.644871E+0	1.423708E+0	1.485567E+0	1.317017E+0	1.583610E+0	1.472681E+0	1.508593E+0	1.376206E+0	1.588435E+0	1.504852E+0	1.467133E+0	1.571414E+0	1.579366E+0	1.385744E+0	1.332695E+0	1.436355E+0	1.633388E+0	1.408552E+0	1.298927E+0	1.265385E+0	1.555683E+0	1.484329E+0	1.472038E+0	1.415092E+0	1.387931E+0	1.417950E+0	1.500898E+0	1.522385E+0	1.529406E+0	1.364006E+0	1.298181E+0	1.462543E+0	1.529111E+0	1.351521E+0	1.355304E+0	1.283188E+0	1.571990E+0	1.523902E+0	1.480828E+0	1.359527E+0	1.585544E+0	1.495451E+0	1.580074E+0	1.464774E+0	1.508231E+0	1.423015E+0	1.391851E+0	1.482453E+0	1.617594E+0	1.299586E+0	1.471995E+0	1.276775E+0	1.610686E+0	1.516195E+0	1.529452E+0	1.356516E+0	1.560419E+0	1.483379E+0	1.472647E+0	1.580778E+0	1.611917E+0	1.298264E+0	1.409193E+0	1.416603E+0	1.635430E+0	1.439350E+0	1.349362E+0	1.317777E+0	1.647918E+0	1.509279E+0	1.525718E+0	1.313250E+0	1.592521E+0	1.493681E+0	1.476511E+0	1.471247E+0	1.590310E+0	1.332399E+0	1.341428E+0	1.532044E+0	1.634415E+0	1.444644E+0	1.403789E+0	1.294861E+0	1.587543E+0	1.508993E+0	1.456772E+0	1.285474E+0	1.532172E+0	1.412046E+0	1.499455E+0	1.498942E+0	1.649178E+0	1.339283E+0	1.386198E+0	1.501454E+0	1.535998E+0	1.341231E+0	1.450164E+0	1.402338E+0	1.613443E+0	1.534106E+0	1.566036E+0	1.423300E+0	1.584926E+0	1.443865E+0	1.483622E+0	1.489474E+0	1.484430E+0	1.282076E+0	1.281168E+0	1.426248E+0	1.535354E+0	1.157198E+0	1.186182E+0	1.348747E+0	1.609432E+0	1.383890E+0	1.457883E+0	1.111722E+0	1.506225E+0	1.481666E+0	1.496284E+0	1.431904E+0
5.392720E+2	1.784932E+0	1.780858E+0	1.647328E+0	1.818051E+0	1.870557E+0	1.848190E+0	1.479305E+0	1.699907E+0	1.702885E+0	1.832847E+0	1.611996E+0	1.790374E+0	1.594890E+0	1.800364E+0	1.742933E+0	1.818232E+0	1.612530E+0	1.885535E+0	1.605576E+0	1.849022E+0	1.774558E+0	1.824318E+0	1.535224E+0	1.625381E+0	1.569849E+0	1.820834E+0	1.557247E+0	1.661203E+0	1.545074E+0	1.743034E+0	1.737508E+0	1.777477E+0	1.349773E+0	1.782980E+0	1.778495E+0	1.716490E+0	1.687577E+0	1.759078E+0	1.522356E+0	1.588278E+0	1.686708E+0	1.790313E+0	1.626353E+0	1.615287E+0	1.506249E+0	1.762266E+0	1.701888E+0	1.792459E+0	1.544248E+0	1.751655E+0	1.690849E+0	1.696442E+0	1.786829E+0	1.873773E+0	1.581954E+0	1.559102E+0	1.643967E+0	1.809476E+0	1.607093E+0	1.600090E+0	1.485934E+0	1.842191E+0	1.711414E+0	1.692040E+0	1.540113E+0	1.570774E+0	1.653163E+0	1.712282E+0	1.720124E+0	1.766837E+0	1.507729E+0	1.487839E+0	1.653864E+0	1.812428E+0	1.550434E+0	1.534204E+0	1.480903E+0	1.826438E+0	1.772866E+0	1.667424E+0	1.584821E+0	1.806115E+0	1.698474E+0	1.811313E+0	1.807669E+0	1.807942E+0	1.517465E+0	1.661011E+0	1.646312E+0	1.775542E+0	1.466396E+0	1.580175E+0	1.494586E+0	1.768094E+0	1.640340E+0	1.757239E+0	1.567553E+0	1.858580E+0	1.695595E+0	1.684468E+0	1.719303E+0	1.888176E+0	1.510882E+0	1.562870E+0	1.685694E+0	1.907603E+0	1.552717E+0	1.583219E+0	1.456702E+0	1.826813E+0	1.729381E+0	1.697133E+0	1.510640E+0	1.764268E+0	1.668511E+0	1.615293E+0	1.726095E+0	1.757276E+0	1.537793E+0	1.518077E+0	1.698309E+0	1.826586E+0	1.564276E+0	1.646814E+0	1.463866E+0	1.792252E+0	1.762637E+0	1.689134E+0	1.462102E+0	1.748543E+0	1.499425E+0	1.714275E+0	1.713091E+0	1.827644E+0	1.431823E+0	1.578657E+0	1.632378E+0	1.763085E+0	1.638726E+0	1.642352E+0	1.512329E+0	1.852016E+0	1.637662E+0	1.739555E+0	1.618870E+0	1.758347E+0	1.697821E+0	1.637300E+0	1.667402E+0	1.771866E+0	1.449793E+0	1.510229E+0	1.663114E+0	1.755060E+0	1.301690E+0	1.414956E+0	1.471604E+0	1.785932E+0	1.670586E+0	1.693181E+0	1.264252E+0	1.762844E+0	1.617068E+0	1.691354E+0	1.562536E+0
5.395260E+2	1.994852E+0	1.997580E+0	1.841590E+0	2.020374E+0	2.064940E+0	2.012633E+0	1.674328E+0	1.934172E+0	1.963815E+0	1.974243E+0	1.795327E+0	1.971215E+0	1.790827E+0	2.066899E+0	1.989421E+0	1.965575E+0	1.813491E+0	2.063691E+0	1.904586E+0	2.011690E+0	1.957387E+0	2.121186E+0	1.779547E+0	1.759871E+0	1.755371E+0	2.016817E+0	1.794388E+0	1.842657E+0	1.688914E+0	2.011970E+0	1.896673E+0	1.936209E+0	1.411549E+0	1.901895E+0	1.989229E+0	1.927006E+0	1.936633E+0	2.043768E+0	1.819071E+0	1.779901E+0	1.848391E+0	1.961418E+0	1.776194E+0	1.820570E+0	1.718057E+0	2.039766E+0	1.899331E+0	1.921697E+0	1.745187E+0	1.993245E+0	1.920355E+0	1.921989E+0	1.999829E+0	2.053985E+0	1.692828E+0	1.727272E+0	1.863688E+0	2.035396E+0	1.740889E+0	1.749077E+0	1.658849E+0	2.034460E+0	1.850385E+0	1.939772E+0	1.744063E+0	1.772152E+0	1.874650E+0	1.871488E+0	1.879069E+0	2.028206E+0	1.691065E+0	1.640002E+0	1.824076E+0	2.090800E+0	1.744182E+0	1.662597E+0	1.656773E+0	1.964916E+0	1.953236E+0	1.846056E+0	1.717983E+0	1.946040E+0	1.882201E+0	1.970419E+0	2.021110E+0	1.968977E+0	1.717386E+0	1.876818E+0	1.853775E+0	1.985901E+0	1.709535E+0	1.877994E+0	1.649144E+0	2.010686E+0	1.797787E+0	1.929709E+0	1.731760E+0	2.032395E+0	1.859211E+0	1.878290E+0	1.911191E+0	2.090567E+0	1.700869E+0	1.764652E+0	1.807106E+0	2.030649E+0	1.788279E+0	1.772417E+0	1.681361E+0	1.972320E+0	1.895975E+0	1.823832E+0	1.708642E+0	1.973110E+0	1.856148E+0	1.842953E+0	1.842101E+0	1.971854E+0	1.724038E+0	1.618340E+0	1.929997E+0	2.006118E+0	1.756984E+0	1.731497E+0	1.643815E+0	2.022884E+0	1.905881E+0	1.884515E+0	1.751129E+0	2.058267E+0	1.786165E+0	1.873301E+0	1.882215E+0	2.024381E+0	1.630392E+0	1.768201E+0	1.859905E+0	1.986829E+0	1.769994E+0	1.850280E+0	1.679610E+0	2.056687E+0	1.882718E+0	1.972717E+0	1.779687E+0	2.008188E+0	1.909678E+0	1.835078E+0	1.905079E+0	2.025523E+0	1.666118E+0	1.695762E+0	1.827791E+0	1.986669E+0	1.445580E+0	1.517695E+0	1.668056E+0	1.976270E+0	1.835865E+0	1.827187E+0	1.380690E+0	2.105313E+0	1.789506E+0	1.860062E+0	1.796586E+0
5.397910E+2	2.126053E+0	2.202108E+0	1.955987E+0	2.214757E+0	2.204358E+0	2.225332E+0	1.825667E+0	1.999131E+0	2.075195E+0	2.295540E+0	1.957024E+0	2.109310E+0	1.849980E+0	2.191475E+0	2.119606E+0	2.186901E+0	1.919713E+0	2.182462E+0	2.094066E+0	2.098151E+0	2.135705E+0	2.216584E+0	1.901704E+0	1.944364E+0	1.967214E+0	2.251374E+0	1.959973E+0	1.928702E+0	1.831070E+0	2.133289E+0	2.073520E+0	2.053938E+0	1.599649E+0	2.105393E+0	2.101350E+0	2.051194E+0	2.024397E+0	2.231467E+0	1.936317E+0	1.953895E+0	2.124823E+0	2.229262E+0	2.000625E+0	1.977995E+0	1.851916E+0	2.257098E+0	2.124801E+0	2.067670E+0	1.891489E+0	2.161000E+0	2.095635E+0	1.994042E+0	2.211620E+0	2.189000E+0	1.807769E+0	1.893810E+0	1.937536E+0	2.258579E+0	1.890721E+0	1.921076E+0	1.737027E+0	2.097076E+0	2.008872E+0	2.046531E+0	1.828669E+0	1.859096E+0	1.952634E+0	2.014638E+0	2.140009E+0	2.161484E+0	1.821776E+0	1.854114E+0	2.062242E+0	2.192535E+0	1.857846E+0	1.871918E+0	1.796238E+0	2.115674E+0	2.039615E+0	1.958129E+0	1.946428E+0	2.130769E+0	2.133149E+0	2.198121E+0	2.052051E+0	2.144075E+0	1.860514E+0	1.965326E+0	2.017633E+0	2.213736E+0	1.883120E+0	1.915650E+0	1.804252E+0	2.193406E+0	2.092706E+0	2.227793E+0	1.870480E+0	2.203535E+0	2.003660E+0	2.052032E+0	2.096270E+0	2.227497E+0	1.743750E+0	1.908361E+0	1.855557E+0	2.183118E+0	1.924045E+0	1.935560E+0	1.772259E+0	2.214835E+0	2.024266E+0	2.057164E+0	1.852089E+0	2.227293E+0	1.954768E+0	2.019340E+0	2.072266E+0	2.120270E+0	1.804106E+0	1.830797E+0	1.976212E+0	2.190967E+0	1.910243E+0	1.869188E+0	1.775627E+0	2.172425E+0	2.143100E+0	2.110715E+0	1.793566E+0	2.184907E+0	1.810757E+0	2.007214E+0	2.034024E+0	2.222948E+0	1.799540E+0	1.859764E+0	2.004814E+0	2.134441E+0	1.799677E+0	1.951949E+0	1.930534E+0	2.156467E+0	2.077607E+0	2.081161E+0	1.884625E+0	2.136785E+0	1.997319E+0	2.019491E+0	2.126342E+0	2.161313E+0	1.743291E+0	1.812011E+0	1.920269E+0	2.117697E+0	1.589467E+0	1.643725E+0	1.747731E+0	2.164532E+0	1.969363E+0	1.990763E+0	1.558254E+0	2.074850E+0	2.014022E+0	2.181664E+0	1.908169E+0
5.400140E+2	2.311113E+0	2.189186E+0	2.025056E+0	2.240774E+0	2.252615E+0	2.255720E+0	1.852120E+0	2.138033E+0	2.151537E+0	2.369890E+0	1.980938E+0	2.219790E+0	1.913353E+0	2.233773E+0	2.142172E+0	2.181928E+0	1.924307E+0	2.184375E+0	2.024191E+0	2.210227E+0	2.111440E+0	2.280558E+0	1.916317E+0	1.973676E+0	2.013591E+0	2.199113E+0	1.938685E+0	1.934312E+0	1.876580E+0	2.173332E+0	2.111414E+0	2.161124E+0	1.617851E+0	2.146458E+0	2.140525E+0	2.077092E+0	2.096150E+0	2.220058E+0	1.914181E+0	2.026676E+0	2.066142E+0	2.241108E+0	2.047488E+0	1.997518E+0	1.876647E+0	2.263240E+0	2.166534E+0	2.059593E+0	1.906175E+0	2.211521E+0	2.183279E+0	2.070476E+0	2.079477E+0	2.244907E+0	1.870463E+0	1.949322E+0	2.043460E+0	2.234690E+0	1.865442E+0	1.956886E+0	1.839020E+0	2.246338E+0	2.059137E+0	2.078378E+0	1.903177E+0	1.962025E+0	2.063071E+0	2.097589E+0	2.054280E+0	2.129131E+0	1.837051E+0	1.877479E+0	1.973836E+0	2.205249E+0	1.885617E+0	1.835408E+0	1.770470E+0	2.282124E+0	2.052314E+0	2.054270E+0	1.868811E+0	2.277584E+0	2.149126E+0	2.172665E+0	2.118991E+0	2.181777E+0	1.851820E+0	2.038070E+0	2.058599E+0	2.155032E+0	1.816024E+0	2.064905E+0	1.815252E+0	2.222419E+0	2.078780E+0	2.078097E+0	1.885892E+0	2.226933E+0	1.960533E+0	2.034036E+0	2.145663E+0	2.279744E+0	1.825344E+0	1.968776E+0	2.024249E+0	2.261360E+0	1.871776E+0	1.913847E+0	1.848693E+0	2.228691E+0	2.083244E+0	2.047994E+0	1.821438E+0	2.205311E+0	1.973982E+0	2.036428E+0	2.080908E+0	2.211170E+0	1.870249E+0	1.838556E+0	2.081857E+0	2.152405E+0	1.930290E+0	1.896732E+0	1.757031E+0	2.272124E+0	2.060301E+0	2.025657E+0	1.867545E+0	2.244967E+0	1.888429E+0	2.049060E+0	2.062305E+0	2.228431E+0	1.798314E+0	1.933247E+0	2.100143E+0	2.223940E+0	1.863004E+0	1.986057E+0	1.873820E+0	2.208909E+0	2.055738E+0	2.062489E+0	1.943225E+0	2.192632E+0	1.985587E+0	1.969378E+0	2.060028E+0	2.162691E+0	1.821071E+0	1.814303E+0	1.993063E+0	2.154753E+0	1.643424E+0	1.659257E+0	1.741653E+0	2.132692E+0	1.973175E+0	2.013409E+0	1.556508E+0	2.153310E+0	1.898291E+0	2.034044E+0	1.889117E+0
5.402630E+2	2.203389E+0	2.215742E+0	2.038010E+0	2.221984E+0	2.212400E+0	2.153838E+0	1.805367E+0	2.046121E+0	2.145903E+0	2.322754E+0	2.017945E+0	2.208611E+0	1.889059E+0	2.226242E+0	2.124813E+0	2.245963E+0	1.870909E+0	2.176075E+0	2.050629E+0	2.168596E+0	2.077583E+0	2.304690E+0	1.912225E+0	1.913329E+0	1.954051E+0	2.125698E+0	1.875999E+0	1.942419E+0	1.815901E+0	2.210382E+0	2.108885E+0	2.092594E+0	1.655360E+0	2.127457E+0	2.122967E+0	2.029941E+0	2.104452E+0	2.179551E+0	1.972211E+0	1.840740E+0	2.023119E+0	2.127260E+0	1.943855E+0	1.977370E+0	1.846544E+0	2.212896E+0	2.083070E+0	2.139791E+0	1.909701E+0	2.136387E+0	2.166890E+0	2.005317E+0	2.160330E+0	2.165210E+0	1.833893E+0	1.904152E+0	1.970828E+0	2.250390E+0	1.858043E+0	1.878875E+0	1.786212E+0	2.214081E+0	2.081610E+0	2.057148E+0	1.869081E+0	1.887869E+0	1.972602E+0	2.023339E+0	2.112476E+0	2.181536E+0	1.810456E+0	1.863891E+0	2.023318E+0	2.125419E+0	1.847512E+0	1.839059E+0	1.753111E+0	2.172977E+0	2.092965E+0	2.065648E+0	1.867545E+0	2.210724E+0	2.120504E+0	2.051739E+0	2.081099E+0	2.196476E+0	1.844288E+0	1.976236E+0	1.981954E+0	2.205349E+0	1.888657E+0	1.962208E+0	1.809755E+0	2.227356E+0	2.001264E+0	2.087864E+0	1.867517E+0	2.197521E+0	2.002977E+0	1.900437E+0	2.103650E+0	2.157229E+0	1.856913E+0	1.914226E+0	1.953618E+0	2.248652E+0	1.887391E+0	1.949206E+0	1.783103E+0	2.202234E+0	2.046762E+0	2.004997E+0	1.826340E+0	2.133863E+0	2.019450E+0	2.022753E+0	2.006859E+0	2.206841E+0	1.883594E+0	1.791413E+0	2.017027E+0	2.134449E+0	1.933522E+0	1.841653E+0	1.794225E+0	2.216960E+0	2.072129E+0	2.034902E+0	1.834282E+0	2.096619E+0	1.850889E+0	2.037903E+0	1.973993E+0	2.178481E+0	1.866956E+0	1.892423E+0	2.004178E+0	2.188538E+0	1.797699E+0	1.988678E+0	1.889284E+0	2.172456E+0	2.031940E+0	2.064294E+0	1.930961E+0	2.143398E+0	1.964885E+0	1.982075E+0	2.064627E+0	2.199222E+0	1.695282E+0	1.766771E+0	1.950104E+0	2.106447E+0	1.601458E+0	1.644922E+0	1.800646E+0	2.117465E+0	2.018945E+0	2.036060E+0	1.531474E+0	2.161622E+0	1.923750E+0	2.034044E+0	1.976205E+0
5.405080E+2	2.179914E+0	2.143259E+0	2.028655E+0	2.138162E+0	2.111861E+0	2.178861E+0	1.890262E+0	1.938317E+0	1.995729E+0	2.187332E+0	2.002003E+0	2.035662E+0	1.845226E+0	2.055310E+0	2.093567E+0	2.112919E+0	1.827271E+0	2.064330E+0	1.900808E+0	2.065487E+0	1.955694E+0	2.095929E+0	1.814031E+0	1.880570E+0	1.914564E+0	2.068458E+0	1.855300E+0	1.819583E+0	1.832752E+0	2.019143E+0	1.918145E+0	1.927421E+0	1.498705E+0	2.074132E+0	2.003418E+0	1.982788E+0	1.927148E+0	2.078569E+0	1.822654E+0	1.862916E+0	1.961180E+0	2.084481E+0	1.899631E+0	1.945253E+0	1.727737E+0	2.068007E+0	2.029503E+0	2.001897E+0	1.820394E+0	2.010732E+0	2.057175E+0	1.957702E+0	2.020344E+0	2.067074E+0	1.766556E+0	1.785508E+0	1.937535E+0	2.124125E+0	1.857428E+0	1.827084E+0	1.719943E+0	2.044580E+0	1.918983E+0	1.973394E+0	1.781315E+0	1.834805E+0	1.926434E+0	1.937714E+0	1.929755E+0	2.096787E+0	1.731804E+0	1.769337E+0	1.966583E+0	2.134602E+0	1.800366E+0	1.787948E+0	1.787276E+0	2.090433E+0	1.974831E+0	1.901240E+0	1.841042E+0	2.136280E+0	2.002019E+0	2.103363E+0	2.076680E+0	2.024576E+0	1.797929E+0	1.887124E+0	1.907953E+0	2.052993E+0	1.709534E+0	1.910857E+0	1.696999E+0	2.050194E+0	1.980674E+0	2.011713E+0	1.824833E+0	2.020364E+0	1.930408E+0	1.986274E+0	2.027007E+0	2.120592E+0	1.787227E+0	1.814513E+0	1.928520E+0	2.168408E+0	1.886709E+0	1.856777E+0	1.774838E+0	2.088852E+0	1.916043E+0	2.007861E+0	1.746649E+0	2.101576E+0	1.925310E+0	1.974900E+0	1.953792E+0	2.116559E+0	1.818029E+0	1.719794E+0	1.937798E+0	2.084578E+0	1.825529E+0	1.795525E+0	1.679912E+0	2.140528E+0	1.962393E+0	1.954781E+0	1.699519E+0	2.028592E+0	1.771924E+0	1.976526E+0	1.974568E+0	2.074937E+0	1.765219E+0	1.793860E+0	1.918377E+0	2.002863E+0	1.776591E+0	1.897504E+0	1.795905E+0	2.117449E+0	2.008783E+0	1.997417E+0	1.851918E+0	2.094164E+0	1.953155E+0	1.895211E+0	2.028514E+0	2.149598E+0	1.726882E+0	1.706070E+0	1.848674E+0	2.005201E+0	1.517522E+0	1.580412E+0	1.697858E+0	2.080093E+0	1.865108E+0	1.947979E+0	1.487811E+0	2.063773E+0	1.900606E+0	1.896967E+0	1.870066E+0
5.407630E+2	2.096358E+0	1.984664E+0	2.030816E+0	1.957511E+0	2.044166E+0	2.041827E+0	2.052680E+0	1.846407E+0	1.995103E+0	2.067843E+0	2.078294E+0	1.958720E+0	1.799808E+0	1.981725E+0	2.090676E+0	1.941951E+0	1.800286E+0	2.015799E+0	1.891366E+0	1.973906E+0	1.852427E+0	2.068994E+0	1.823966E+0	1.743206E+0	1.789842E+0	2.004995E+0	1.861804E+0	1.747252E+0	1.711387E+0	2.028705E+0	1.939619E+0	1.884667E+0	1.504770E+0	1.993834E+0	1.943975E+0	1.891809E+0	1.861323E+0	1.979298E+0	1.717372E+0	1.750902E+0	1.840568E+0	1.968656E+0	1.751111E+0	1.791603E+0	1.685802E+0	1.986355E+0	1.887497E+0	1.922276E+0	1.730498E+0	1.978350E+0	1.864870E+0	1.853697E+0	1.971467E+0	2.032576E+0	1.694572E+0	1.739792E+0	1.803765E+0	1.984205E+0	1.713763E+0	1.735006E+0	1.647463E+0	1.995249E+0	1.939681E+0	1.923846E+0	1.699861E+0	1.690962E+0	1.824112E+0	1.820648E+0	1.891584E+0	1.889111E+0	1.673526E+0	1.724232E+0	1.790429E+0	2.013079E+0	1.727393E+0	1.687542E+0	1.637169E+0	2.008575E+0	1.853524E+0	1.807373E+0	1.748272E+0	1.970161E+0	1.878869E+0	2.015679E+0	1.958592E+0	1.961311E+0	1.683195E+0	1.844690E+0	1.871613E+0	2.011063E+0	1.604276E+0	1.823907E+0	1.641996E+0	1.995872E+0	1.795973E+0	1.960300E+0	1.758439E+0	1.972899E+0	1.806503E+0	1.939892E+0	1.926520E+0	2.043722E+0	1.635356E+0	1.726523E+0	1.797180E+0	2.041346E+0	1.727859E+0	1.730235E+0	1.639529E+0	1.985547E+0	1.833960E+0	1.860527E+0	1.662668E+0	2.011580E+0	1.815164E+0	1.869619E+0	1.870488E+0	1.972471E+0	1.670661E+0	1.655339E+0	1.910787E+0	2.048008E+0	1.739523E+0	1.777627E+0	1.558489E+0	2.010920E+0	1.888799E+0	1.880202E+0	1.681741E+0	1.933797E+0	1.672894E+0	1.887249E+0	1.851625E+0	2.024990E+0	1.637743E+0	1.748955E+0	1.903759E+0	2.052286E+0	1.727119E+0	1.795838E+0	1.741483E+0	2.060524E+0	1.952183E+0	1.932953E+0	1.765375E+0	2.023621E+0	1.869650E+0	1.800333E+0	1.918207E+0	1.913170E+0	1.591373E+0	1.608147E+0	1.826000E+0	2.015127E+0	1.476752E+0	1.502761E+0	1.668665E+0	1.994956E+0	1.744326E+0	1.831591E+0	1.424352E+0	1.977928E+0	1.751315E+0	1.861820E+0	1.774813E+0
5.410190E+2	1.902321E+0	1.912900E+0	1.964621E+0	1.919212E+0	1.973781E+0	1.922666E+0	1.961630E+0	1.789050E+0	1.818020E+0	1.996815E+0	1.977522E+0	1.884414E+0	1.677805E+0	1.966659E+0	2.035131E+0	1.921435E+0	1.711862E+0	1.915549E+0	1.886962E+0	1.852225E+0	1.807283E+0	1.905691E+0	2.039060E+0	1.724810E+0	1.714004E+0	1.928470E+0	1.928041E+0	1.720443E+0	1.614185E+0	1.871528E+0	2.014779E+0	1.842495E+0	1.415963E+0	1.887796E+0	1.812944E+0	1.743716E+0	1.789573E+0	1.943927E+0	1.720361E+0	1.689493E+0	1.772113E+0	1.819926E+0	1.772234E+0	1.704708E+0	1.612154E+0	1.934168E+0	1.876910E+0	1.834000E+0	1.703472E+0	1.920055E+0	1.758944E+0	1.801072E+0	1.878546E+0	1.984993E+0	1.648131E+0	1.627132E+0	1.721446E+0	1.940524E+0	1.652102E+0	1.696644E+0	1.571356E+0	1.889627E+0	1.771732E+0	1.801751E+0	1.653137E+0	1.670502E+0	1.733649E+0	1.827338E+0	1.818994E+0	1.931163E+0	1.597133E+0	1.555769E+0	1.764043E+0	1.899330E+0	1.599517E+0	1.622435E+0	1.596284E+0	1.898749E+0	1.777315E+0	1.777221E+0	1.646668E+0	1.848160E+0	1.769036E+0	1.968300E+0	1.825351E+0	1.900601E+0	1.599173E+0	1.719810E+0	1.769865E+0	1.911824E+0	1.576576E+0	1.794467E+0	1.551791E+0	1.874887E+0	1.780833E+0	1.898471E+0	1.619127E+0	1.942812E+0	1.692174E+0	1.797991E+0	1.782319E+0	1.923611E+0	1.626425E+0	1.711273E+0	1.661177E+0	1.935018E+0	1.653867E+0	1.660137E+0	1.616805E+0	1.906179E+0	1.754311E+0	1.807779E+0	1.552325E+0	1.927769E+0	1.774820E+0	1.788943E+0	1.781015E+0	1.926097E+0	1.590592E+0	1.581339E+0	1.797345E+0	1.915019E+0	1.715598E+0	1.646128E+0	1.514734E+0	1.877327E+0	1.830315E+0	1.764329E+0	1.585970E+0	1.981559E+0	1.634056E+0	1.799368E+0	1.785820E+0	1.885507E+0	1.651228E+0	1.674304E+0	1.784273E+0	1.848575E+0	1.601127E+0	1.710570E+0	1.680759E+0	1.960108E+0	1.884005E+0	1.869691E+0	1.680199E+0	1.905312E+0	1.744057E+0	1.726165E+0	1.779020E+0	1.917995E+0	1.536685E+0	1.584095E+0	1.783042E+0	1.872188E+0	1.602059E+0	1.445417E+0	1.498975E+0	1.852377E+0	1.797090E+0	1.754205E+0	1.431341E+0	1.942850E+0	1.764044E+0	1.696627E+0	1.652345E+0
5.412640E+2	1.851221E+0	1.757175E+0	1.916418E+0	1.863572E+0	1.887986E+0	1.908365E+0	1.913028E+0	1.710960E+0	1.640313E+0	1.776420E+0	1.816965E+0	1.826545E+0	1.511446E+0	1.783559E+0	1.858655E+0	1.818231E+0	1.666501E+0	1.864464E+0	1.822121E+0	1.796505E+0	1.786406E+0	1.826002E+0	1.850270E+0	1.610437E+0	1.613718E+0	1.901716E+0	1.833418E+0	1.650604E+0	1.581594E+0	1.775904E+0	1.896040E+0	1.702507E+0	1.353635E+0	1.756628E+0	1.804841E+0	1.764970E+0	1.710706E+0	1.789315E+0	1.823853E+0	1.589986E+0	1.742122E+0	1.787680E+0	1.822398E+0	1.689589E+0	1.483671E+0	1.846373E+0	1.874417E+0	1.783228E+0	1.547773E+0	1.795696E+0	1.808757E+0	1.675765E+0	1.810360E+0	1.792885E+0	1.789196E+0	1.571072E+0	1.637915E+0	1.879095E+0	1.795150E+0	1.568762E+0	1.453318E+0	1.895319E+0	1.788291E+0	1.697350E+0	1.602621E+0	1.552870E+0	1.673130E+0	1.717629E+0	1.757673E+0	1.800478E+0	1.582988E+0	1.581851E+0	1.646607E+0	1.823734E+0	1.584662E+0	1.533595E+0	1.574996E+0	1.809384E+0	1.754448E+0	1.712368E+0	1.550743E+0	1.780612E+0	1.781680E+0	1.844548E+0	1.747044E+0	1.760013E+0	1.592796E+0	1.698596E+0	1.670759E+0	1.825163E+0	1.539645E+0	1.657537E+0	1.498987E+0	1.810686E+0	1.665772E+0	1.843152E+0	1.604308E+0	1.874624E+0	1.711343E+0	1.657469E+0	1.776073E+0	1.873760E+0	1.494205E+0	1.568739E+0	1.660009E+0	1.789235E+0	1.556791E+0	1.596247E+0	1.537787E+0	1.906179E+0	1.757956E+0	1.749876E+0	1.478148E+0	1.794493E+0	1.683242E+0	1.667935E+0	1.728566E+0	1.867965E+0	1.587108E+0	1.476898E+0	1.717512E+0	1.865151E+0	1.609544E+0	1.567639E+0	1.501061E+0	1.839444E+0	1.733066E+0	1.726729E+0	1.457515E+0	1.793408E+0	1.543438E+0	1.701025E+0	1.767349E+0	1.876980E+0	1.566041E+0	1.530252E+0	1.701017E+0	1.821859E+0	1.569466E+0	1.694171E+0	1.542692E+0	1.823230E+0	1.729639E+0	1.699790E+0	1.674063E+0	1.871512E+0	1.699891E+0	1.715474E+0	1.646393E+0	1.815290E+0	1.479566E+0	1.529695E+0	1.626721E+0	1.779542E+0	1.591265E+0	1.419734E+0	1.489851E+0	1.785241E+0	1.711906E+0	1.618314E+0	1.341104E+0	1.852385E+0	1.658731E+0	1.643904E+0	1.606080E+0
5.415140E+2	1.762141E+0	1.671777E+0	1.819282E+0	1.769637E+0	1.776049E+0	1.794566E+0	1.759841E+0	1.633562E+0	1.674101E+0	1.782397E+0	1.785079E+0	1.796949E+0	1.500353E+0	1.747053E+0	1.832037E+0	1.747356E+0	1.544205E+0	1.731010E+0	1.757283E+0	1.688914E+0	1.676930E+0	1.808606E+0	1.653292E+0	1.554113E+0	1.587395E+0	1.744306E+0	1.792023E+0	1.565178E+0	1.521476E+0	1.727498E+0	1.805090E+0	1.604693E+0	1.244968E+0	1.718009E+0	1.779849E+0	1.621523E+0	1.643101E+0	1.739109E+0	1.759844E+0	1.568378E+0	1.575874E+0	1.703438E+0	1.739229E+0	1.576876E+0	1.449803E+0	1.744460E+0	1.700643E+0	1.643028E+0	1.515457E+0	1.773674E+0	1.735617E+0	1.631282E+0	1.641412E+0	1.808348E+0	1.765970E+0	1.504678E+0	1.553176E+0	1.737130E+0	1.782203E+0	1.523360E+0	1.450209E+0	1.714432E+0	1.763454E+0	1.658424E+0	1.506649E+0	1.509400E+0	1.782312E+0	1.542371E+0	1.660053E+0	1.656853E+0	1.670694E+0	1.523707E+0	1.671678E+0	1.753788E+0	1.666684E+0	1.480654E+0	1.423770E+0	1.799834E+0	1.796999E+0	1.634428E+0	1.471228E+0	1.729607E+0	1.597961E+0	1.742718E+0	1.663692E+0	1.715281E+0	1.472847E+0	1.584022E+0	1.645650E+0	1.741998E+0	1.462089E+0	1.638371E+0	1.451684E+0	1.702044E+0	1.588865E+0	1.731859E+0	1.476855E+0	1.797073E+0	1.560739E+0	1.665777E+0	1.715899E+0	1.779474E+0	1.467407E+0	1.484272E+0	1.599302E+0	1.743093E+0	1.494337E+0	1.501959E+0	1.402990E+0	1.730439E+0	1.711748E+0	1.602541E+0	1.453019E+0	1.738847E+0	1.672355E+0	1.673404E+0	1.640943E+0	1.750472E+0	1.439737E+0	1.422591E+0	1.659291E+0	1.774053E+0	1.515133E+0	1.462995E+0	1.402060E+0	1.771648E+0	1.661441E+0	1.604077E+0	1.494788E+0	1.676179E+0	1.552500E+0	1.712883E+0	1.555511E+0	1.805713E+0	1.476562E+0	1.489427E+0	1.564373E+0	1.764417E+0	1.492287E+0	1.561671E+0	1.495144E+0	1.773342E+0	1.676899E+0	1.724493E+0	1.555497E+0	1.736299E+0	1.563252E+0	1.599881E+0	1.683817E+0	1.718101E+0	1.396312E+0	1.436355E+0	1.628512E+0	1.727926E+0	1.486947E+0	1.317593E+0	1.444844E+0	1.763088E+0	1.636261E+0	1.583082E+0	1.239220E+0	1.730534E+0	1.515227E+0	1.554278E+0	1.622409E+0
5.417650E+2	1.628868E+0	1.582789E+0	1.625021E+0	1.625118E+0	1.641323E+0	1.650380E+0	1.617113E+0	1.512624E+0	1.602141E+0	1.643654E+0	1.629647E+0	1.561526E+0	1.335576E+0	1.563379E+0	1.666555E+0	1.588819E+0	1.374248E+0	1.623095E+0	1.570324E+0	1.577478E+0	1.539809E+0	1.597040E+0	1.641602E+0	1.431692E+0	1.455779E+0	1.611158E+0	1.706866E+0	1.460423E+0	1.371456E+0	1.558369E+0	1.644036E+0	1.462948E+0	1.180979E+0	1.584999E+0	1.586000E+0	1.498668E+0	1.549999E+0	1.586781E+0	1.637812E+0	1.426225E+0	1.490467E+0	1.633026E+0	1.558365E+0	1.483049E+0	1.346047E+0	1.578084E+0	1.660782E+0	1.527633E+0	1.416746E+0	1.574184E+0	1.617082E+0	1.532291E+0	1.551505E+0	1.622185E+0	1.654515E+0	1.377865E+0	1.400642E+0	1.604038E+0	1.631141E+0	1.400593E+0	1.311978E+0	1.612606E+0	1.573033E+0	1.512145E+0	1.353844E+0	1.361718E+0	1.660650E+0	1.523639E+0	1.511747E+0	1.542341E+0	1.642966E+0	1.404151E+0	1.494207E+0	1.690906E+0	1.642788E+0	1.408850E+0	1.353200E+0	1.679088E+0	1.589956E+0	1.474000E+0	1.362682E+0	1.622076E+0	1.643227E+0	1.571587E+0	1.516556E+0	1.586832E+0	1.546441E+0	1.505211E+0	1.504917E+0	1.612002E+0	1.527336E+0	1.446666E+0	1.314179E+0	1.569329E+0	1.594918E+0	1.611452E+0	1.327466E+0	1.590502E+0	1.487487E+0	1.483033E+0	1.548986E+0	1.593896E+0	1.351865E+0	1.405671E+0	1.423602E+0	1.608007E+0	1.366036E+0	1.428141E+0	1.330171E+0	1.642251E+0	1.491643E+0	1.479851E+0	1.376388E+0	1.614508E+0	1.446933E+0	1.458053E+0	1.505805E+0	1.609482E+0	1.388097E+0	1.430948E+0	1.429404E+0	1.620454E+0	1.420072E+0	1.319103E+0	1.270247E+0	1.561620E+0	1.536589E+0	1.504232E+0	1.364040E+0	1.594406E+0	1.397160E+0	1.569901E+0	1.480474E+0	1.641259E+0	1.369925E+0	1.399033E+0	1.455694E+0	1.562711E+0	1.477776E+0	1.416712E+0	1.433844E+0	1.644784E+0	1.533464E+0	1.578088E+0	1.399453E+0	1.595211E+0	1.446628E+0	1.502329E+0	1.498006E+0	1.609192E+0	1.314281E+0	1.353322E+0	1.488297E+0	1.595576E+0	1.402413E+0	1.263833E+0	1.369424E+0	1.554061E+0	1.474156E+0	1.498147E+0	1.138501E+0	1.593918E+0	1.480507E+0	1.438291E+0	1.377473E+0
5.420110E+2	1.485236E+0	1.445721E+0	1.454502E+0	1.388828E+0	1.483807E+0	1.438276E+0	1.478077E+0	1.321204E+0	1.356229E+0	1.452469E+0	1.462258E+0	1.396469E+0	1.238400E+0	1.474143E+0	1.452474E+0	1.459502E+0	1.282381E+0	1.456433E+0	1.425539E+0	1.441066E+0	1.364308E+0	1.478632E+0	1.452809E+0	1.256395E+0	1.262736E+0	1.437574E+0	1.498113E+0	1.284584E+0	1.201767E+0	1.423303E+0	1.459610E+0	1.368065E+0	1.061284E+0	1.367400E+0	1.461047E+0	1.339284E+0	1.311618E+0	1.444149E+0	1.447579E+0	1.274978E+0	1.392022E+0	1.459287E+0	1.390704E+0	1.330657E+0	1.196058E+0	1.442405E+0	1.467072E+0	1.338390E+0	1.214043E+0	1.432987E+0	1.449996E+0	1.322407E+0	1.401261E+0	1.409260E+0	1.465854E+0	1.258134E+0	1.351615E+0	1.459340E+0	1.434447E+0	1.236264E+0	1.196009E+0	1.444370E+0	1.367830E+0	1.365869E+0	1.204831E+0	1.247284E+0	1.469735E+0	1.314935E+0	1.376583E+0	1.371549E+0	1.430210E+0	1.217209E+0	1.327297E+0	1.457752E+0	1.464539E+0	1.212305E+0	1.201970E+0	1.478536E+0	1.478809E+0	1.295936E+0	1.240252E+0	1.418049E+0	1.501438E+0	1.472588E+0	1.399730E+0	1.352943E+0	1.435760E+0	1.273640E+0	1.327845E+0	1.457554E+0	1.418999E+0	1.306310E+0	1.162368E+0	1.455127E+0	1.489550E+0	1.381062E+0	1.265220E+0	1.509614E+0	1.499128E+0	1.302362E+0	1.386617E+0	1.454566E+0	1.448348E+0	1.260787E+0	1.288766E+0	1.526424E+0	1.453605E+0	1.253216E+0	1.170585E+0	1.438790E+0	1.449690E+0	1.306142E+0	1.188194E+0	1.459249E+0	1.316933E+0	1.358920E+0	1.410776E+0	1.501883E+0	1.270316E+0	1.184468E+0	1.316560E+0	1.427622E+0	1.242241E+0	1.263338E+0	1.154841E+0	1.463254E+0	1.402541E+0	1.326107E+0	1.230993E+0	1.416387E+0	1.247642E+0	1.385770E+0	1.372531E+0	1.448172E+0	1.207516E+0	1.242146E+0	1.333032E+0	1.483899E+0	1.231068E+0	1.324225E+0	1.219585E+0	1.470810E+0	1.346297E+0	1.427465E+0	1.308139E+0	1.495278E+0	1.361058E+0	1.287849E+0	1.343713E+0	1.413436E+0	1.182421E+0	1.179237E+0	1.321833E+0	1.390432E+0	1.194370E+0	1.067915E+0	1.134049E+0	1.377565E+0	1.306975E+0	1.334574E+0	1.022647E+0	1.472070E+0	1.295341E+0	1.410173E+0	1.377474E+0
5.422670E+2	1.247694E+0	1.206750E+0	1.290458E+0	1.265989E+0	1.274681E+0	1.206507E+0	1.369802E+0	1.164333E+0	1.166008E+0	1.221455E+0	1.293727E+0	1.249166E+0	1.068868E+0	1.253963E+0	1.262687E+0	1.261181E+0	1.088882E+0	1.283386E+0	1.273202E+0	1.255980E+0	1.154957E+0	1.278292E+0	1.278631E+0	1.124776E+0	1.169349E+0	1.270832E+0	1.276939E+0	1.131818E+0	1.070852E+0	1.226085E+0	1.294133E+0	1.206409E+0	8.963541E-1	1.198227E+0	1.305700E+0	1.167949E+0	1.193019E+0	1.222790E+0	1.298028E+0	1.059477E+0	1.184047E+0	1.243430E+0	1.326676E+0	1.136709E+0	1.025644E+0	1.213404E+0	1.299526E+0	1.195881E+0	1.052467E+0	1.188156E+0	1.269040E+0	1.185199E+0	1.251617E+0	1.223692E+0	1.247003E+0	1.089418E+0	1.131288E+0	1.285978E+0	1.309281E+0	1.062343E+0	1.040175E+0	1.284990E+0	1.260202E+0	1.183613E+0	1.089281E+0	1.086178E+0	1.301283E+0	1.204560E+0	1.160696E+0	1.256389E+0	1.266681E+0	1.104177E+0	1.150486E+0	1.291724E+0	1.261749E+0	1.093649E+0	1.047944E+0	1.282755E+0	1.278115E+0	1.180453E+0	1.078065E+0	1.209885E+0	1.297083E+0	1.236401E+0	1.217233E+0	1.287760E+0	1.281625E+0	1.133001E+0	1.177203E+0	1.317077E+0	1.255880E+0	1.123511E+0	1.055662E+0	1.316239E+0	1.248529E+0	1.220957E+0	1.059517E+0	1.259585E+0	1.247884E+0	1.167379E+0	1.245255E+0	1.285809E+0	1.248233E+0	1.165178E+0	1.149840E+0	1.306412E+0	1.313083E+0	1.080766E+0	1.057480E+0	1.255491E+0	1.295863E+0	1.197789E+0	1.058849E+0	1.262769E+0	1.263779E+0	1.185955E+0	1.189252E+0	1.292868E+0	1.231443E+0	1.042433E+0	1.235528E+0	1.274023E+0	1.275221E+0	1.104303E+0	1.048186E+0	1.246581E+0	1.257980E+0	1.207769E+0	1.033720E+0	1.229686E+0	1.088416E+0	1.246972E+0	1.206874E+0	1.261182E+0	1.048783E+0	1.095179E+0	1.184946E+0	1.347645E+0	1.081333E+0	1.129415E+0	1.070061E+0	1.285964E+0	1.214439E+0	1.193701E+0	1.096898E+0	1.277765E+0	1.148508E+0	1.118800E+0	1.207146E+0	1.210783E+0	1.032935E+0	1.091051E+0	1.144030E+0	1.242200E+0	1.124823E+0	9.293378E-1	1.028830E+0	1.257132E+0	1.183013E+0	1.198680E+0	8.846692E-1	1.205296E+0	1.162253E+0	1.158868E+0	1.178802E+0
5.425080E+2	1.102682E+0	1.098387E+0	1.104110E+0	1.117132E+0	1.099738E+0	1.099857E+0	1.165552E+0	1.036488E+0	1.017708E+0	1.121216E+0	1.135450E+0	1.068325E+0	9.579586E-1	1.129387E+0	1.140602E+0	1.079642E+0	1.013092E+0	1.096292E+0	1.078687E+0	1.065772E+0	1.041533E+0	1.086926E+0	1.111463E+0	1.013852E+0	1.027703E+0	1.135819E+0	1.111948E+0	9.778017E-1	9.022901E-1	1.083849E+0	1.076865E+0	1.019563E+0	7.783112E-1	1.090349E+0	1.098341E+0	1.133416E+0	1.036470E+0	1.097274E+0	1.097030E+0	1.001478E+0	1.026274E+0	1.111811E+0	1.149775E+0	1.018323E+0	9.380158E-1	1.081409E+0	1.104575E+0	1.065485E+0	9.707989E-1	1.117557E+0	1.126545E+0	9.966168E-1	1.103784E+0	1.088682E+0	1.105362E+0	9.261463E-1	1.018099E+0	1.143331E+0	1.143420E+0	9.517240E-1	9.495752E-1	1.147111E+0	1.143111E+0	1.082163E+0	1.000252E+0	9.602353E-1	1.139693E+0	1.046023E+0	1.069961E+0	1.133468E+0	1.159736E+0	9.406027E-1	1.052185E+0	1.089657E+0	1.155191E+0	9.695144E-1	9.387267E-1	1.119037E+0	1.128229E+0	9.921500E-1	9.139840E-1	1.141647E+0	1.102045E+0	1.152957E+0	1.068832E+0	1.124805E+0	1.130381E+0	1.020249E+0	1.010043E+0	1.089945E+0	1.079221E+0	1.050253E+0	9.093553E-1	1.128582E+0	1.140736E+0	1.117475E+0	9.486631E-1	1.206771E+0	1.099332E+0	1.032396E+0	1.077209E+0	1.115849E+0	1.062417E+0	9.669177E-1	1.026675E+0	1.126522E+0	1.116218E+0	9.771728E-1	8.901490E-1	1.179270E+0	1.135344E+0	1.029238E+0	9.436027E-1	1.120565E+0	1.172845E+0	9.637659E-1	1.120758E+0	1.110444E+0	1.117142E+0	9.529132E-1	1.041056E+0	1.123745E+0	1.045655E+0	9.920822E-1	9.054327E-1	1.080422E+0	1.132471E+0	1.059231E+0	9.866946E-1	1.118244E+0	1.123367E+0	1.074699E+0	1.053910E+0	1.182607E+0	1.098427E+0	9.610421E-1	1.053386E+0	1.137924E+0	1.083312E+0	1.056607E+0	9.600701E-1	1.160604E+0	1.157838E+0	1.094289E+0	9.837819E-1	1.149171E+0	1.046374E+0	1.018575E+0	1.066642E+0	1.169428E+0	9.952605E-1	9.633510E-1	9.984488E-1	1.095291E+0	1.039689E+0	8.654251E-1	9.357728E-1	1.116625E+0	1.081305E+0	1.035735E+0	7.967597E-1	1.130525E+0	1.016433E+0	1.060454E+0	9.828537E-1
5.427600E+2	1.017056E+0	1.033083E+0	1.061661E+0	1.021750E+0	1.038742E+0	1.046234E+0	1.028976E+0	1.000553E+0	1.038358E+0	1.062799E+0	1.040368E+0	9.749454E-1	9.114833E-1	1.001913E+0	1.078113E+0	1.011252E+0	9.671572E-1	1.075859E+0	1.080575E+0	1.049121E+0	1.030246E+0	1.062797E+0	1.060613E+0	8.672916E-1	9.537460E-1	1.028807E+0	1.053402E+0	8.967415E-1	8.826240E-1	1.003167E+0	1.025705E+0	1.011363E+0	7.214963E-1	9.751148E-1	9.801419E-1	9.846589E-1	9.297299E-1	1.035659E+0	1.034815E+0	9.383629E-1	9.428237E-1	1.069035E+0	1.050761E+0	9.465384E-1	8.428627E-1	1.072199E+0	1.000561E+0	9.824032E-1	9.208565E-1	1.006154E+0	1.098171E+0	9.803275E-1	1.003016E+0	1.060725E+0	1.044408E+0	8.815182E-1	9.388047E-1	1.043682E+0	1.054630E+0	8.532541E-1	8.320515E-1	1.056669E+0	9.846242E-1	9.305776E-1	8.531329E-1	9.071728E-1	1.091652E+0	9.978594E-1	9.836050E-1	1.020250E+0	1.035818E+0	9.259302E-1	9.578426E-1	1.039494E+0	1.034422E+0	9.342215E-1	8.569515E-1	1.013985E+0	1.022801E+0	9.324153E-1	8.660218E-1	1.056866E+0	1.024829E+0	1.053249E+0	1.005052E+0	1.039812E+0	1.043459E+0	9.438655E-1	9.333999E-1	1.107415E+0	1.031208E+0	9.783653E-1	8.340015E-1	1.045249E+0	1.025071E+0	1.018548E+0	8.994598E-1	1.024267E+0	9.726854E-1	9.334086E-1	9.960259E-1	1.108642E+0	1.030255E+0	8.636814E-1	9.280279E-1	9.800716E-1	1.036115E+0	8.822644E-1	8.390201E-1	1.046361E+0	1.068463E+0	9.701885E-1	8.706541E-1	1.056676E+0	1.091513E+0	9.945305E-1	9.924103E-1	1.063447E+0	9.703512E-1	8.490698E-1	1.056661E+0	1.069220E+0	1.043067E+0	9.390708E-1	8.507383E-1	1.054501E+0	1.030621E+0	1.003760E+0	8.473427E-1	1.014762E+0	1.038577E+0	9.875154E-1	9.731017E-1	1.062006E+0	1.004044E+0	9.009717E-1	9.822047E-1	1.021039E+0	9.982187E-1	9.687122E-1	8.896053E-1	1.135020E+0	1.040778E+0	1.033440E+0	9.837819E-1	1.033067E+0	1.018081E+0	9.029815E-1	1.000984E+0	1.023987E+0	1.097955E+0	9.055138E-1	9.375907E-1	1.023823E+0	1.060073E+0	7.531294E-1	8.737355E-1	1.047412E+0	1.060326E+0	9.753383E-1	7.315550E-1	9.837537E-1	9.261650E-1	9.532543E-1	9.610813E-1
5.430330E+2	1.089562E+0	1.074706E+0	1.137207E+0	1.039092E+0	1.085662E+0	1.076025E+0	1.108338E+0	1.034415E+0	1.041484E+0	1.097982E+0	1.133741E+0	1.022293E+0	9.077881E-1	1.069127E+0	1.124401E+0	1.069072E+0	9.952915E-1	1.110341E+0	1.105125E+0	1.074099E+0	1.013881E+0	1.125650E+0	1.130167E+0	9.598256E-1	9.687875E-1	1.120265E+0	1.095980E+0	9.784256E-1	9.399353E-1	1.042611E+0	1.086338E+0	1.026005E+0	7.937559E-1	1.033957E+0	1.101044E+0	1.011224E+0	1.011563E+0	1.091568E+0	1.092843E+0	9.730481E-1	1.013234E+0	1.024942E+0	1.122710E+0	9.748746E-1	8.998479E-1	1.129909E+0	1.061599E+0	1.035483E+0	9.138060E-1	1.092296E+0	1.092495E+0	1.069293E+0	1.113440E+0	1.048235E+0	1.078077E+0	8.978443E-1	1.030808E+0	1.116712E+0	1.123071E+0	9.248686E-1	8.890012E-1	1.081966E+0	1.045536E+0	1.038517E+0	9.459508E-1	8.937479E-1	1.081668E+0	1.001204E+0	1.046180E+0	1.105000E+0	1.092402E+0	9.112567E-1	9.815932E-1	1.069875E+0	1.048630E+0	9.579527E-1	8.709539E-1	1.107440E+0	1.140295E+0	9.944235E-1	8.937896E-1	1.092019E+0	1.066766E+0	1.077291E+0	1.029680E+0	9.995525E-1	1.107782E+0	1.001455E+0	1.020614E+0	1.083655E+0	1.068141E+0	9.975356E-1	8.884543E-1	1.084138E+0	1.065039E+0	1.064107E+0	9.006456E-1	1.067052E+0	1.125346E+0	1.059392E+0	1.047690E+0	1.167498E+0	1.119591E+0	9.704372E-1	9.688889E-1	1.121174E+0	1.120971E+0	9.281679E-1	9.417948E-1	1.093604E+0	1.128657E+0	1.037837E+0	9.019176E-1	1.110948E+0	1.075503E+0	1.028030E+0	1.049797E+0	1.103023E+0	1.068406E+0	8.801036E-1	1.014646E+0	1.031984E+0	1.038541E+0	9.748708E-1	9.037922E-1	1.082417E+0	1.118016E+0	1.006841E+0	9.448320E-1	1.090022E+0	1.107834E+0	1.011927E+0	1.070650E+0	1.094898E+0	1.073300E+0	9.522940E-1	1.020338E+0	1.103192E+0	1.030541E+0	1.008068E+0	9.944437E-1	1.121587E+0	1.105741E+0	1.064767E+0	9.442592E-1	1.130800E+0	1.144367E+0	9.664578E-1	1.026591E+0	1.063966E+0	1.095525E+0	9.135310E-1	9.411707E-1	1.059558E+0	1.126622E+0	8.469084E-1	8.615715E-1	1.108320E+0	1.097197E+0	1.053351E+0	7.758010E-1	1.101909E+0	1.083556E+0	9.743419E-1	1.056335E+0
5.432640E+2	1.070227E+0	1.165127E+0	1.162389E+0	1.159766E+0	1.144647E+0	1.140371E+0	1.160630E+0	1.121489E+0	1.050874E+0	1.165029E+0	1.180996E+0	1.091341E+0	9.658816E-1	1.129966E+0	1.165480E+0	1.166680E+0	1.063618E+0	1.183134E+0	1.166817E+0	1.159277E+0	1.122791E+0	1.187939E+0	1.234793E+0	1.035116E+0	1.008273E+0	1.142664E+0	1.198287E+0	1.030803E+0	9.809514E-1	1.105962E+0	1.202551E+0	1.113278E+0	8.825641E-1	1.174323E+0	1.200332E+0	1.116149E+0	1.025203E+0	1.211948E+0	1.206501E+0	1.035594E+0	1.081039E+0	1.180913E+0	1.213802E+0	1.078147E+0	9.831736E-1	1.193143E+0	1.163746E+0	1.111066E+0	9.737359E-1	1.173908E+0	1.158067E+0	1.041726E+0	1.109818E+0	1.208230E+0	1.163991E+0	9.201595E-1	1.028993E+0	1.189061E+0	1.148967E+0	9.856131E-1	9.645873E-1	1.190118E+0	1.160851E+0	1.094550E+0	9.882559E-1	1.039510E+0	1.161528E+0	1.062077E+0	1.109382E+0	1.147052E+0	1.132577E+0	9.884260E-1	1.092429E+0	1.185744E+0	1.189420E+0	9.889867E-1	9.398460E-1	1.157236E+0	1.104095E+0	1.093411E+0	9.878202E-1	1.145094E+0	1.121350E+0	1.165686E+0	1.094091E+0	1.154201E+0	1.139653E+0	1.108754E+0	1.025239E+0	1.168217E+0	1.106921E+0	1.039298E+0	9.440085E-1	1.135372E+0	1.200081E+0	1.108363E+0	1.008536E+0	1.155298E+0	1.199963E+0	1.075313E+0	1.128872E+0	1.183114E+0	1.141626E+0	1.035545E+0	1.017338E+0	1.189385E+0	1.121649E+0	9.691089E-1	9.696837E-1	1.170453E+0	1.188242E+0	1.083129E+0	1.017777E+0	1.174149E+0	1.117770E+0	1.088192E+0	1.159016E+0	1.136417E+0	1.138031E+0	9.767845E-1	1.102278E+0	1.145688E+0	1.143948E+0	1.025817E+0	8.966827E-1	1.168155E+0	1.144300E+0	1.066627E+0	9.597424E-1	1.108113E+0	1.161554E+0	1.093530E+0	1.148574E+0	1.194789E+0	1.128457E+0	1.033360E+0	1.062286E+0	1.171986E+0	1.169724E+0	1.013971E+0	1.009910E+0	1.181712E+0	1.168772E+0	1.081637E+0	1.024668E+0	1.136678E+0	1.151268E+0	1.037283E+0	1.075834E+0	1.181144E+0	1.166621E+0	9.650677E-1	1.106442E+0	1.125071E+0	1.166191E+0	9.084317E-1	9.631423E-1	1.175459E+0	1.160765E+0	1.076000E+0	8.660401E-1	1.172988E+0	1.195814E+0	1.114932E+0	1.143425E+0
5.435110E+2	1.340916E+0	1.310807E+0	1.406296E+0	1.338968E+0	1.298812E+0	1.348308E+0	1.383950E+0	1.253481E+0	1.293656E+0	1.305761E+0	1.368316E+0	1.322816E+0	1.171853E+0	1.300316E+0	1.330963E+0	1.332054E+0	1.234147E+0	1.318505E+0	1.360704E+0	1.370618E+0	1.333274E+0	1.327673E+0	1.331235E+0	1.224782E+0	1.247696E+0	1.403976E+0	1.363281E+0	1.223476E+0	1.127037E+0	1.303177E+0	1.348447E+0	1.307735E+0	1.015500E+0	1.331238E+0	1.411743E+0	1.297446E+0	1.299164E+0	1.326053E+0	1.362635E+0	1.202763E+0	1.207518E+0	1.328983E+0	1.331958E+0	1.267057E+0	1.109508E+0	1.323301E+0	1.358077E+0	1.289924E+0	1.184668E+0	1.339718E+0	1.383162E+0	1.239080E+0	1.339713E+0	1.356921E+0	1.353816E+0	1.153098E+0	1.229344E+0	1.385628E+0	1.311129E+0	1.208129E+0	1.031890E+0	1.329263E+0	1.328799E+0	1.223720E+0	1.144216E+0	1.162895E+0	1.396115E+0	1.275468E+0	1.292107E+0	1.280972E+0	1.360612E+0	1.176452E+0	1.248127E+0	1.317865E+0	1.396728E+0	1.141720E+0	1.120196E+0	1.373482E+0	1.353694E+0	1.220274E+0	1.184085E+0	1.326377E+0	1.326371E+0	1.358739E+0	1.319530E+0	1.312683E+0	1.352896E+0	1.211810E+0	1.210239E+0	1.407931E+0	1.349445E+0	1.212516E+0	1.115064E+0	1.314383E+0	1.369038E+0	1.316629E+0	1.122949E+0	1.431394E+0	1.372479E+0	1.294057E+0	1.317355E+0	1.339259E+0	1.394747E+0	1.187468E+0	1.271255E+0	1.403379E+0	1.328018E+0	1.176915E+0	1.099316E+0	1.409816E+0	1.345112E+0	1.246519E+0	1.126895E+0	1.350018E+0	1.379052E+0	1.249536E+0	1.304025E+0	1.394899E+0	1.303966E+0	1.105096E+0	1.293154E+0	1.359132E+0	1.345706E+0	1.146988E+0	1.075534E+0	1.398785E+0	1.357201E+0	1.255227E+0	1.138664E+0	1.362115E+0	1.318840E+0	1.262317E+0	1.321164E+0	1.358028E+0	1.361344E+0	1.235732E+0	1.265663E+0	1.365680E+0	1.399279E+0	1.293396E+0	1.192087E+0	1.345448E+0	1.334718E+0	1.285882E+0	1.188210E+0	1.356395E+0	1.340353E+0	1.243078E+0	1.304321E+0	1.352777E+0	1.409077E+0	1.187254E+0	1.212645E+0	1.346094E+0	1.391619E+0	1.011170E+0	1.109113E+0	1.354724E+0	1.308880E+0	1.264109E+0	1.013332E+0	1.364991E+0	1.363622E+0	1.324061E+0	1.295829E+0
5.437640E+2	1.591579E+0	1.506720E+0	1.486879E+0	1.517451E+0	1.500566E+0	1.565777E+0	1.574662E+0	1.440756E+0	1.413170E+0	1.579926E+0	1.493572E+0	1.482616E+0	1.304946E+0	1.516445E+0	1.518429E+0	1.475047E+0	1.369652E+0	1.526036E+0	1.607462E+0	1.490381E+0	1.457419E+0	1.587501E+0	1.587829E+0	1.392606E+0	1.379939E+0	1.441931E+0	1.521175E+0	1.374375E+0	1.268072E+0	1.460356E+0	1.583403E+0	1.424291E+0	1.113687E+0	1.510830E+0	1.626524E+0	1.518590E+0	1.393452E+0	1.500061E+0	1.454160E+0	1.315348E+0	1.469603E+0	1.490876E+0	1.519421E+0	1.333179E+0	1.284759E+0	1.538178E+0	1.507558E+0	1.443396E+0	1.317452E+0	1.524959E+0	1.589970E+0	1.359998E+0	1.502025E+0	1.571038E+0	1.486170E+0	1.327798E+0	1.390957E+0	1.500291E+0	1.533719E+0	1.325784E+0	1.228627E+0	1.512043E+0	1.501477E+0	1.424263E+0	1.254082E+0	1.304180E+0	1.494069E+0	1.444707E+0	1.411000E+0	1.511938E+0	1.455673E+0	1.271553E+0	1.428895E+0	1.537592E+0	1.534285E+0	1.286544E+0	1.251822E+0	1.468304E+0	1.542323E+0	1.461486E+0	1.353846E+0	1.551769E+0	1.458840E+0	1.439354E+0	1.478665E+0	1.578526E+0	1.520363E+0	1.379729E+0	1.419685E+0	1.528140E+0	1.489786E+0	1.376832E+0	1.196472E+0	1.527349E+0	1.555557E+0	1.495604E+0	1.358292E+0	1.484207E+0	1.485434E+0	1.435962E+0	1.426925E+0	1.545251E+0	1.550786E+0	1.375168E+0	1.386247E+0	1.632082E+0	1.597524E+0	1.395886E+0	1.291435E+0	1.544615E+0	1.536638E+0	1.385831E+0	1.282600E+0	1.505278E+0	1.506491E+0	1.415667E+0	1.410160E+0	1.537127E+0	1.520385E+0	1.235793E+0	1.428205E+0	1.515392E+0	1.510607E+0	1.330809E+0	1.221570E+0	1.531047E+0	1.516221E+0	1.437048E+0	1.267696E+0	1.528553E+0	1.467063E+0	1.455517E+0	1.426793E+0	1.526140E+0	1.528654E+0	1.293470E+0	1.439803E+0	1.484568E+0	1.471177E+0	1.376043E+0	1.303801E+0	1.509828E+0	1.531536E+0	1.461807E+0	1.399452E+0	1.602562E+0	1.508737E+0	1.376046E+0	1.430379E+0	1.569906E+0	1.538509E+0	1.246810E+0	1.401187E+0	1.557192E+0	1.608652E+0	1.187977E+0	1.272110E+0	1.500072E+0	1.525650E+0	1.428943E+0	1.113469E+0	1.512685E+0	1.521013E+0	1.545491E+0	1.252283E+0
5.440280E+2	1.697230E+0	1.600016E+0	1.694812E+0	1.618615E+0	1.623227E+0	1.668255E+0	1.635570E+0	1.521609E+0	1.582117E+0	1.646310E+0	1.655837E+0	1.572707E+0	1.394729E+0	1.638702E+0	1.695484E+0	1.650371E+0	1.468986E+0	1.651188E+0	1.682373E+0	1.587086E+0	1.561250E+0	1.654284E+0	1.721093E+0	1.410425E+0	1.464554E+0	1.659689E+0	1.651278E+0	1.450447E+0	1.361904E+0	1.594822E+0	1.625087E+0	1.518006E+0	1.199736E+0	1.580097E+0	1.660297E+0	1.559098E+0	1.493074E+0	1.658096E+0	1.650972E+0	1.399504E+0	1.536756E+0	1.617232E+0	1.660677E+0	1.495014E+0	1.366473E+0	1.575012E+0	1.622786E+0	1.561097E+0	1.366218E+0	1.596855E+0	1.609514E+0	1.561112E+0	1.562969E+0	1.679285E+0	1.616782E+0	1.408891E+0	1.435749E+0	1.621782E+0	1.632373E+0	1.376934E+0	1.326474E+0	1.642331E+0	1.632763E+0	1.548126E+0	1.426458E+0	1.317607E+0	1.679991E+0	1.552410E+0	1.516753E+0	1.570812E+0	1.594306E+0	1.360676E+0	1.494209E+0	1.565853E+0	1.605331E+0	1.363823E+0	1.335276E+0	1.672266E+0	1.633142E+0	1.536012E+0	1.369625E+0	1.590369E+0	1.645888E+0	1.621090E+0	1.529814E+0	1.590663E+0	1.662912E+0	1.502186E+0	1.510864E+0	1.598724E+0	1.551957E+0	1.570588E+0	1.327928E+0	1.577966E+0	1.630647E+0	1.538560E+0	1.362443E+0	1.653346E+0	1.629196E+0	1.516257E+0	1.553530E+0	1.615520E+0	1.621660E+0	1.432068E+0	1.464464E+0	1.671540E+0	1.651152E+0	1.407671E+0	1.312092E+0	1.683825E+0	1.613250E+0	1.506226E+0	1.402749E+0	1.612445E+0	1.607674E+0	1.471041E+0	1.474950E+0	1.626176E+0	1.568541E+0	1.370669E+0	1.568657E+0	1.663676E+0	1.634763E+0	1.387950E+0	1.345179E+0	1.640714E+0	1.660784E+0	1.531967E+0	1.377803E+0	1.589341E+0	1.565449E+0	1.585943E+0	1.539927E+0	1.556594E+0	1.621811E+0	1.445686E+0	1.472851E+0	1.616813E+0	1.562870E+0	1.484271E+0	1.432699E+0	1.641586E+0	1.679469E+0	1.587726E+0	1.385142E+0	1.633424E+0	1.645373E+0	1.521705E+0	1.520989E+0	1.659509E+0	1.593806E+0	1.286323E+0	1.478753E+0	1.663075E+0	1.666811E+0	1.233968E+0	1.329893E+0	1.553369E+0	1.598116E+0	1.481161E+0	1.194972E+0	1.612380E+0	1.560361E+0	1.476953E+0	1.527157E+0
5.442810E+2	1.664776E+0	1.674647E+0	1.662435E+0	1.743621E+0	1.709023E+0	1.661703E+0	1.740157E+0	1.588642E+0	1.634056E+0	1.785713E+0	1.733840E+0	1.635182E+0	1.462330E+0	1.673467E+0	1.716897E+0	1.638556E+0	1.477598E+0	1.693334E+0	1.652786E+0	1.626793E+0	1.595109E+0	1.671675E+0	1.659723E+0	1.451232E+0	1.544149E+0	1.680845E+0	1.653643E+0	1.461670E+0	1.411349E+0	1.641436E+0	1.717929E+0	1.624609E+0	1.212974E+0	1.653650E+0	1.671781E+0	1.587654E+0	1.571352E+0	1.646114E+0	1.685069E+0	1.496164E+0	1.549796E+0	1.650135E+0	1.695001E+0	1.493124E+0	1.372388E+0	1.671402E+0	1.687561E+0	1.618216E+0	1.490778E+0	1.609811E+0	1.741290E+0	1.560489E+0	1.626326E+0	1.748873E+0	1.728823E+0	1.449708E+0	1.517462E+0	1.733037E+0	1.700196E+0	1.465815E+0	1.355986E+0	1.691032E+0	1.647548E+0	1.549894E+0	1.432773E+0	1.469762E+0	1.701205E+0	1.601241E+0	1.569315E+0	1.599278E+0	1.648060E+0	1.411215E+0	1.629454E+0	1.709278E+0	1.732556E+0	1.445364E+0	1.348160E+0	1.734346E+0	1.657911E+0	1.498463E+0	1.404336E+0	1.679974E+0	1.651879E+0	1.710897E+0	1.592962E+0	1.649456E+0	1.698843E+0	1.533706E+0	1.533991E+0	1.728019E+0	1.662754E+0	1.545255E+0	1.396683E+0	1.690932E+0	1.717245E+0	1.668076E+0	1.462628E+0	1.773679E+0	1.655208E+0	1.610400E+0	1.539902E+0	1.692990E+0	1.717547E+0	1.463153E+0	1.503575E+0	1.674883E+0	1.691201E+0	1.459156E+0	1.370971E+0	1.632173E+0	1.692290E+0	1.550943E+0	1.440756E+0	1.677021E+0	1.716542E+0	1.519584E+0	1.605770E+0	1.704093E+0	1.660216E+0	1.428560E+0	1.598670E+0	1.681627E+0	1.631533E+0	1.454734E+0	1.394405E+0	1.713825E+0	1.697582E+0	1.517791E+0	1.425974E+0	1.623353E+0	1.574511E+0	1.593616E+0	1.545120E+0	1.643086E+0	1.708225E+0	1.425859E+0	1.570728E+0	1.680928E+0	1.608382E+0	1.484928E+0	1.456759E+0	1.633271E+0	1.629298E+0	1.637730E+0	1.494850E+0	1.690741E+0	1.695749E+0	1.604559E+0	1.633916E+0	1.682949E+0	1.681309E+0	1.428337E+0	1.549752E+0	1.644545E+0	1.623044E+0	1.297881E+0	1.369425E+0	1.671726E+0	1.650881E+0	1.528348E+0	1.242132E+0	1.790537E+0	1.728169E+0	1.589425E+0	1.551651E+0
5.445400E+2	1.679277E+0	1.716267E+0	1.704165E+0	1.710384E+0	1.737845E+0	1.796352E+0	1.751228E+0	1.713725E+0	1.624042E+0	1.758496E+0	1.752055E+0	1.738424E+0	1.409516E+0	1.759225E+0	1.706482E+0	1.693266E+0	1.415588E+0	1.662047E+0	1.676708E+0	1.671623E+0	1.601315E+0	1.767077E+0	1.696544E+0	1.613313E+0	1.525977E+0	1.683955E+0	1.674342E+0	1.679288E+0	1.431014E+0	1.666540E+0	1.747616E+0	1.660338E+0	1.312815E+0	1.607677E+0	1.727167E+0	1.563086E+0	1.578467E+0	1.699174E+0	1.721561E+0	1.459208E+0	1.597389E+0	1.651454E+0	1.683124E+0	1.508235E+0	1.378838E+0	1.659738E+0	1.741751E+0	1.632640E+0	1.462575E+0	1.675873E+0	1.760208E+0	1.557354E+0	1.652875E+0	1.709617E+0	1.667286E+0	1.443177E+0	1.521698E+0	1.718015E+0	1.699580E+0	1.514411E+0	1.393777E+0	1.666998E+0	1.665286E+0	1.549895E+0	1.427721E+0	1.446745E+0	1.695588E+0	1.604585E+0	1.647536E+0	1.642622E+0	1.705209E+0	1.448170E+0	1.610982E+0	1.678188E+0	1.657641E+0	1.458752E+0	1.461859E+0	1.608146E+0	1.741109E+0	1.531459E+0	1.467441E+0	1.639998E+0	1.676510E+0	1.746963E+0	1.610642E+0	1.661602E+0	1.660594E+0	1.573109E+0	1.611294E+0	1.692375E+0	1.668295E+0	1.524033E+0	1.409333E+0	1.669947E+0	1.691812E+0	1.679793E+0	1.398605E+0	1.698133E+0	1.655891E+0	1.574404E+0	1.631874E+0	1.705603E+0	1.644288E+0	1.461394E+0	1.470885E+0	1.717682E+0	1.716317E+0	1.419455E+0	1.353409E+0	1.664296E+0	1.735457E+0	1.593941E+0	1.436467E+0	1.684578E+0	1.662108E+0	1.568805E+0	1.623661E+0	1.699766E+0	1.601614E+0	1.398121E+0	1.544647E+0	1.682293E+0	1.703957E+0	1.482272E+0	1.350648E+0	1.690562E+0	1.681154E+0	1.528887E+0	1.356012E+0	1.642166E+0	1.649591E+0	1.606167E+0	1.624197E+0	1.705214E+0	1.619358E+0	1.476600E+0	1.619668E+0	1.650876E+0	1.627515E+0	1.474431E+0	1.489988E+0	1.671007E+0	1.645378E+0	1.572666E+0	1.536417E+0	1.724543E+0	1.671596E+0	1.515023E+0	1.564318E+0	1.695353E+0	1.692248E+0	1.377370E+0	1.575409E+0	1.708737E+0	1.714773E+0	1.321774E+0	1.400446E+0	1.700795E+0	1.757675E+0	1.518908E+0	1.194390E+0	1.673305E+0	1.679562E+0	1.482226E+0	1.453675E+0
5.447610E+2	1.670303E+0	1.680390E+0	1.680424E+0	1.704604E+0	1.678190E+0	1.693280E+0	1.700781E+0	1.725473E+0	1.535815E+0	1.740575E+0	1.694550E+0	1.687790E+0	1.438036E+0	1.664197E+0	1.697221E+0	1.705698E+0	1.436257E+0	1.683116E+0	1.623200E+0	1.648566E+0	1.575357E+0	1.708155E+0	1.686610E+0	1.648372E+0	1.522842E+0	1.599960E+0	1.699176E+0	1.713581E+0	1.342237E+0	1.617533E+0	1.718562E+0	1.670881E+0	1.508631E+0	1.596031E+0	1.679886E+0	1.592303E+0	1.603967E+0	1.647826E+0	1.597729E+0	1.607043E+0	1.523068E+0	1.723186E+0	1.671242E+0	1.658735E+0	1.398730E+0	1.662192E+0	1.662648E+0	1.648219E+0	1.439075E+0	1.691416E+0	1.635997E+0	1.509738E+0	1.629342E+0	1.657279E+0	1.689348E+0	1.492703E+0	1.517463E+0	1.672292E+0	1.644087E+0	1.437682E+0	1.338900E+0	1.654349E+0	1.646953E+0	1.569358E+0	1.443507E+0	1.417978E+0	1.684983E+0	1.547053E+0	1.555549E+0	1.596040E+0	1.663338E+0	1.369915E+0	1.488269E+0	1.622375E+0	1.698326E+0	1.429541E+0	1.374484E+0	1.705698E+0	1.671886E+0	1.553076E+0	1.426422E+0	1.684112E+0	1.651216E+0	1.714433E+0	1.572126E+0	1.604725E+0	1.657699E+0	1.530068E+0	1.533330E+0	1.667215E+0	1.639978E+0	1.558264E+0	1.367531E+0	1.596489E+0	1.677882E+0	1.615361E+0	1.438326E+0	1.678078E+0	1.689436E+0	1.537718E+0	1.558071E+0	1.699599E+0	1.703254E+0	1.466672E+0	1.505905E+0	1.718349E+0	1.691881E+0	1.434965E+0	1.416418E+0	1.732327E+0	1.650338E+0	1.555529E+0	1.370260E+0	1.649543E+0	1.652501E+0	1.565388E+0	1.607621E+0	1.668848E+0	1.623664E+0	1.321733E+0	1.568657E+0	1.658356E+0	1.696845E+0	1.429260E+0	1.386201E+0	1.660655E+0	1.685093E+0	1.541828E+0	1.380097E+0	1.648679E+0	1.635351E+0	1.587337E+0	1.582639E+0	1.619334E+0	1.592395E+0	1.450352E+0	1.571364E+0	1.678928E+0	1.640705E+0	1.480992E+0	1.391452E+0	1.679959E+0	1.696194E+0	1.586524E+0	1.461460E+0	1.656202E+0	1.606036E+0	1.432173E+0	1.595832E+0	1.711209E+0	1.650926E+0	1.336714E+0	1.555718E+0	1.678956E+0	1.732759E+0	1.247108E+0	1.339014E+0	1.619123E+0	1.631174E+0	1.498150E+0	1.199048E+0	1.601303E+0	1.711967E+0	1.508586E+0	1.633294E+0
5.450150E+2	1.641988E+0	1.592118E+0	1.560985E+0	1.587541E+0	1.551503E+0	1.602714E+0	1.673710E+0	1.558927E+0	1.524550E+0	1.593865E+0	1.602317E+0	1.591122E+0	1.389447E+0	1.537880E+0	1.610430E+0	1.621770E+0	1.409274E+0	1.549021E+0	1.594245E+0	1.535849E+0	1.506514E+0	1.594795E+0	1.546916E+0	1.579976E+0	1.408144E+0	1.556408E+0	1.590959E+0	1.560189E+0	1.318076E+0	1.582273E+0	1.603612E+0	1.587709E+0	1.363562E+0	1.541478E+0	1.598837E+0	1.556446E+0	1.501967E+0	1.584499E+0	1.652766E+0	1.571223E+0	1.429834E+0	1.559978E+0	1.641536E+0	1.578136E+0	1.342822E+0	1.586680E+0	1.576696E+0	1.564560E+0	1.353878E+0	1.607218E+0	1.554661E+0	1.586799E+0	1.511678E+0	1.582932E+0	1.624910E+0	1.606993E+0	1.383088E+0	1.604719E+0	1.587364E+0	1.641653E+0	1.288164E+0	1.588574E+0	1.570076E+0	1.581156E+0	1.327958E+0	1.386651E+0	1.485957E+0	1.510265E+0	1.456056E+0	1.508054E+0	1.525273E+0	1.380241E+0	1.457923E+0	1.601886E+0	1.615662E+0	1.386944E+0	1.353201E+0	1.610191E+0	1.592495E+0	1.471727E+0	1.333652E+0	1.621387E+0	1.591971E+0	1.629575E+0	1.535499E+0	1.629650E+0	1.636259E+0	1.476721E+0	1.454701E+0	1.609210E+0	1.609820E+0	1.441872E+0	1.272926E+0	1.581056E+0	1.669404E+0	1.460463E+0	1.367777E+0	1.591172E+0	1.552522E+0	1.486493E+0	1.568856E+0	1.622727E+0	1.547808E+0	1.366957E+0	1.425356E+0	1.630076E+0	1.548645E+0	1.352462E+0	1.300732E+0	1.631541E+0	1.581630E+0	1.491894E+0	1.294859E+0	1.573286E+0	1.574372E+0	1.490866E+0	1.473103E+0	1.558773E+0	1.531991E+0	1.272796E+0	1.533245E+0	1.595849E+0	1.581738E+0	1.368674E+0	1.269154E+0	1.570264E+0	1.547106E+0	1.467864E+0	1.319883E+0	1.561118E+0	1.540205E+0	1.446448E+0	1.512222E+0	1.599840E+0	1.518851E+0	1.387365E+0	1.463955E+0	1.566053E+0	1.550336E+0	1.407528E+0	1.376555E+0	1.603850E+0	1.566910E+0	1.555792E+0	1.407625E+0	1.589334E+0	1.576364E+0	1.467583E+0	1.532148E+0	1.622289E+0	1.563422E+0	1.318390E+0	1.438178E+0	1.579032E+0	1.561889E+0	1.191562E+0	1.259948E+0	1.603203E+0	1.552346E+0	1.467321E+0	1.100077E+0	1.608687E+0	1.640215E+0	1.431261E+0	1.448233E+0
5.452640E+2	1.499047E+0	1.474424E+0	1.554512E+0	1.522510E+0	1.524693E+0	1.513941E+0	1.556209E+0	1.607993E+0	1.446335E+0	1.484331E+0	1.483321E+0	1.508262E+0	1.301776E+0	1.522819E+0	1.519011E+0	1.539084E+0	1.304198E+0	1.496664E+0	1.513038E+0	1.482695E+0	1.403810E+0	1.563371E+0	1.483202E+0	1.477669E+0	1.394984E+0	1.510990E+0	1.492198E+0	1.474764E+0	1.238853E+0	1.463942E+0	1.516454E+0	1.460021E+0	1.350325E+0	1.413986E+0	1.556281E+0	1.449523E+0	1.373290E+0	1.406497E+0	1.475695E+0	1.513223E+0	1.401803E+0	1.463895E+0	1.576187E+0	1.488087E+0	1.248205E+0	1.432583E+0	1.472682E+0	1.576097E+0	1.322152E+0	1.461484E+0	1.519980E+0	1.485303E+0	1.471856E+0	1.549032E+0	1.514618E+0	1.485630E+0	1.380665E+0	1.460703E+0	1.500422E+0	1.532314E+0	1.224483E+0	1.491174E+0	1.507983E+0	1.508605E+0	1.271763E+0	1.340621E+0	1.509042E+0	1.518961E+0	1.382217E+0	1.508702E+0	1.450582E+0	1.531314E+0	1.430874E+0	1.508623E+0	1.481976E+0	1.515341E+0	1.234460E+0	1.492178E+0	1.481985E+0	1.520080E+0	1.293895E+0	1.484909E+0	1.502770E+0	1.535523E+0	1.483084E+0	1.458385E+0	1.511673E+0	1.356693E+0	1.327188E+0	1.542815E+0	1.455317E+0	1.447350E+0	1.253674E+0	1.511301E+0	1.499240E+0	1.441590E+0	1.299010E+0	1.533680E+0	1.524452E+0	1.439421E+0	1.410461E+0	1.532041E+0	1.470980E+0	1.339976E+0	1.384496E+0	1.570560E+0	1.520810E+0	1.305320E+0	1.247538E+0	1.482885E+0	1.486173E+0	1.397296E+0	1.294860E+0	1.499779E+0	1.469350E+0	1.380116E+0	1.499019E+0	1.528474E+0	1.421751E+0	1.222067E+0	1.415600E+0	1.536007E+0	1.485387E+0	1.372806E+0	1.163045E+0	1.562950E+0	1.519507E+0	1.396371E+0	1.212642E+0	1.514805E+0	1.455415E+0	1.437383E+0	1.373688E+0	1.532838E+0	1.458790E+0	1.296386E+0	1.390864E+0	1.477889E+0	1.465243E+0	1.320289E+0	1.277448E+0	1.505989E+0	1.475579E+0	1.416620E+0	1.347662E+0	1.510707E+0	1.572223E+0	1.366689E+0	1.471086E+0	1.512005E+0	1.509342E+0	1.267997E+0	1.398205E+0	1.525427E+0	1.580476E+0	1.165875E+0	1.280020E+0	1.471698E+0	1.534549E+0	1.354078E+0	1.062817E+0	1.478532E+0	1.448104E+0	1.401385E+0	1.328485E+0
5.455070E+2	1.511478E+0	1.416299E+0	1.436516E+0	1.440855E+0	1.436220E+0	1.441848E+0	1.424553E+0	1.405513E+0	1.366866E+0	1.433883E+0	1.420694E+0	1.447105E+0	1.288570E+0	1.407512E+0	1.479087E+0	1.408523E+0	1.261709E+0	1.430892E+0	1.450720E+0	1.418651E+0	1.402120E+0	1.463478E+0	1.434107E+0	1.411001E+0	1.350481E+0	1.431352E+0	1.472091E+0	1.474141E+0	1.221996E+0	1.447208E+0	1.441926E+0	1.416677E+0	1.231728E+0	1.349012E+0	1.436055E+0	1.416983E+0	1.410650E+0	1.482377E+0	1.408699E+0	1.486499E+0	1.339212E+0	1.397427E+0	1.438230E+0	1.420077E+0	1.187996E+0	1.436879E+0	1.460221E+0	1.429550E+0	1.244010E+0	1.451123E+0	1.470174E+0	1.482796E+0	1.369880E+0	1.492527E+0	1.460050E+0	1.475287E+0	1.269898E+0	1.468895E+0	1.435681E+0	1.509933E+0	1.128708E+0	1.420335E+0	1.428738E+0	1.452573E+0	1.261025E+0	1.301624E+0	1.424815E+0	1.483505E+0	1.400360E+0	1.416835E+0	1.403049E+0	1.476427E+0	1.356983E+0	1.424549E+0	1.423207E+0	1.504998E+0	1.215415E+0	1.451251E+0	1.466742E+0	1.412561E+0	1.179668E+0	1.421494E+0	1.451515E+0	1.423089E+0	1.392783E+0	1.470527E+0	1.471109E+0	1.438531E+0	1.298114E+0	1.446371E+0	1.471318E+0	1.435027E+0	1.196470E+0	1.383521E+0	1.462297E+0	1.526195E+0	1.260480E+0	1.462815E+0	1.484748E+0	1.431115E+0	1.367885E+0	1.434147E+0	1.443583E+0	1.470194E+0	1.280593E+0	1.480952E+0	1.467184E+0	1.481489E+0	1.166453E+0	1.475954E+0	1.483128E+0	1.392138E+0	1.240915E+0	1.477110E+0	1.441172E+0	1.385583E+0	1.397821E+0	1.445610E+0	1.396219E+0	1.261457E+0	1.347773E+0	1.486138E+0	1.377392E+0	1.306023E+0	1.201331E+0	1.489173E+0	1.520163E+0	1.372332E+0	1.191425E+0	1.425795E+0	1.402339E+0	1.376007E+0	1.307884E+0	1.476801E+0	1.448371E+0	1.277140E+0	1.345107E+0	1.413102E+0	1.422367E+0	1.317011E+0	1.236773E+0	1.470169E+0	1.413185E+0	1.322029E+0	1.289060E+0	1.423998E+0	1.438344E+0	1.348650E+0	1.394269E+0	1.427222E+0	1.451007E+0	1.188973E+0	1.348087E+0	1.453962E+0	1.510330E+0	1.094794E+0	1.230755E+0	1.419091E+0	1.429024E+0	1.337720E+0	1.030215E+0	1.473916E+0	1.428430E+0	1.336363E+0	1.252284E+0
5.457670E+2	1.376133E+0	1.369652E+0	1.366724E+0	1.359204E+0	1.377232E+0	1.377503E+0	1.381488E+0	1.367505E+0	1.264249E+0	1.387414E+0	1.356926E+0	1.375425E+0	1.148617E+0	1.375645E+0	1.389404E+0	1.347598E+0	1.188216E+0	1.425783E+0	1.361959E+0	1.337956E+0	1.293208E+0	1.375375E+0	1.326560E+0	1.324214E+0	1.224502E+0	1.352958E+0	1.377472E+0	1.336963E+0	1.154572E+0	1.403582E+0	1.330766E+0	1.432494E+0	1.192014E+0	1.309785E+0	1.395530E+0	1.326004E+0	1.277818E+0	1.300950E+0	1.398524E+0	1.331839E+0	1.303355E+0	1.359914E+0	1.384103E+0	1.396777E+0	1.102519E+0	1.413549E+0	1.326933E+0	1.388009E+0	1.219920E+0	1.367570E+0	1.358573E+0	1.340576E+0	1.334884E+0	1.389631E+0	1.385745E+0	1.373514E+0	1.229951E+0	1.376072E+0	1.348128E+0	1.439598E+0	1.106443E+0	1.377961E+0	1.358367E+0	1.369998E+0	1.183996E+0	1.126455E+0	1.376773E+0	1.361761E+0	1.287725E+0	1.330140E+0	1.339672E+0	1.355240E+0	1.215799E+0	1.338352E+0	1.348290E+0	1.389378E+0	1.102835E+0	1.348243E+0	1.359409E+0	1.371602E+0	1.194182E+0	1.416670E+0	1.382954E+0	1.403994E+0	1.358053E+0	1.351026E+0	1.349419E+0	1.331838E+0	1.273006E+0	1.345733E+0	1.295275E+0	1.405586E+0	1.132117E+0	1.380436E+0	1.359956E+0	1.357633E+0	1.170375E+0	1.395297E+0	1.390277E+0	1.386121E+0	1.239010E+0	1.381300E+0	1.369731E+0	1.382211E+0	1.223972E+0	1.367268E+0	1.376218E+0	1.368591E+0	1.138048E+0	1.388399E+0	1.403481E+0	1.368058E+0	1.130572E+0	1.341772E+0	1.360480E+0	1.477195E+0	1.293536E+0	1.417164E+0	1.389839E+0	1.375445E+0	1.302155E+0	1.393711E+0	1.385801E+0	1.363166E+0	1.121477E+0	1.371534E+0	1.344058E+0	1.369249E+0	1.130063E+0	1.380204E+0	1.324018E+0	1.303468E+0	1.273829E+0	1.427467E+0	1.361344E+0	1.170412E+0	1.267569E+0	1.427129E+0	1.333974E+0	1.246171E+0	1.204691E+0	1.335215E+0	1.393892E+0	1.294317E+0	1.273387E+0	1.347575E+0	1.273412E+0	1.303882E+0	1.288561E+0	1.368633E+0	1.336766E+0	1.168356E+0	1.271714E+0	1.355363E+0	1.366440E+0	1.197533E+0	1.102422E+0	1.402481E+0	1.330493E+0	1.290535E+0	9.807299E-1	1.302220E+0	1.398340E+0	1.267825E+0	1.301272E+0
5.460060E+2	1.308461E+0	1.279230E+0	1.364568E+0	1.313678E+0	1.319588E+0	1.374523E+0	1.313200E+0	1.309457E+0	1.237965E+0	1.316385E+0	1.301700E+0	1.252454E+0	1.133829E+0	1.303215E+0	1.303769E+0	1.314647E+0	1.200271E+0	1.284662E+0	1.314748E+0	1.335397E+0	1.274587E+0	1.279414E+0	1.288566E+0	1.284558E+0	1.205075E+0	1.255277E+0	1.365645E+0	1.310149E+0	1.120296E+0	1.297801E+0	1.363609E+0	1.266149E+0	1.129684E+0	1.242970E+0	1.339469E+0	1.282174E+0	1.288492E+0	1.291252E+0	1.390153E+0	1.249959E+0	1.223818E+0	1.294105E+0	1.291033E+0	1.279652E+0	1.083702E+0	1.288921E+0	1.326311E+0	1.292231E+0	1.134138E+0	1.342956E+0	1.332090E+0	1.282312E+0	1.298682E+0	1.355731E+0	1.305633E+0	1.302762E+0	1.160948E+0	1.299631E+0	1.285234E+0	1.361588E+0	1.024642E+0	1.260323E+0	1.280309E+0	1.268551E+0	1.171998E+0	1.101521E+0	1.318128E+0	1.339015E+0	1.237039E+0	1.363137E+0	1.257630E+0	1.301443E+0	1.253404E+0	1.291723E+0	1.318585E+0	1.311493E+0	1.094433E+0	1.340059E+0	1.292087E+0	1.280009E+0	1.100782E+0	1.320172E+0	1.299082E+0	1.303579E+0	1.315110E+0	1.299264E+0	1.287416E+0	1.291829E+0	1.177864E+0	1.330357E+0	1.258342E+0	1.248802E+0	1.081515E+0	1.285373E+0	1.227335E+0	1.299708E+0	1.121764E+0	1.351173E+0	1.320449E+0	1.287825E+0	1.214601E+0	1.363283E+0	1.302431E+0	1.350534E+0	1.165019E+0	1.347874E+0	1.304936E+0	1.261898E+0	1.079689E+0	1.275015E+0	1.329302E+0	1.279195E+0	1.137314E+0	1.285442E+0	1.325900E+0	1.294658E+0	1.180615E+0	1.328114E+0	1.261615E+0	1.296667E+0	1.206720E+0	1.276017E+0	1.290095E+0	1.325989E+0	1.062954E+0	1.362894E+0	1.332889E+0	1.335354E+0	1.100815E+0	1.281064E+0	1.319489E+0	1.319509E+0	1.256514E+0	1.310519E+0	1.291479E+0	1.311549E+0	1.197657E+0	1.281524E+0	1.269991E+0	1.309141E+0	1.157142E+0	1.322424E+0	1.301914E+0	1.301543E+0	1.184803E+0	1.356392E+0	1.316201E+0	1.279831E+0	1.251794E+0	1.330034E+0	1.277822E+0	1.164350E+0	1.189376E+0	1.267347E+0	1.338861E+0	1.251291E+0	1.142564E+0	1.293126E+0	1.303793E+0	1.276065E+0	9.329904E-1	1.280989E+0	1.235162E+0	1.259038E+0	1.235955E+0
5.467660E+2	1.255290E+0	1.278513E+0	1.231460E+0	1.171328E+0	1.261276E+0	1.244637E+0	1.266448E+0	1.254861E+0	1.179775E+0	1.228760E+0	1.233949E+0	1.242592E+0	1.077847E+0	1.231366E+0	1.265583E+0	1.222633E+0	1.045245E+0	1.243795E+0	1.276352E+0	1.231645E+0	1.180914E+0	1.290075E+0	1.265186E+0	1.261569E+0	1.153681E+0	1.303805E+0	1.257425E+0	1.300174E+0	1.062985E+0	1.203375E+0	1.288449E+0	1.284306E+0	1.077830E+0	1.205585E+0	1.257068E+0	1.242328E+0	1.188869E+0	1.247321E+0	1.286661E+0	1.228352E+0	1.174920E+0	1.190125E+0	1.261328E+0	1.231165E+0	1.042309E+0	1.242874E+0	1.296413E+0	1.235691E+0	1.108286E+0	1.289199E+0	1.299934E+0	1.287950E+0	1.270926E+0	1.287927E+0	1.249324E+0	1.243441E+0	1.079232E+0	1.249123E+0	1.192130E+0	1.247774E+0	1.047424E+0	1.263486E+0	1.291543E+0	1.264421E+0	1.057080E+0	1.069556E+0	1.178999E+0	1.289514E+0	1.107507E+0	1.205279E+0	1.236692E+0	1.282419E+0	1.149827E+0	1.214711E+0	1.294689E+0	1.273766E+0	1.016020E+0	1.267067E+0	1.281290E+0	1.261235E+0	1.091319E+0	1.305695E+0	1.245826E+0	1.270344E+0	1.177449E+0	1.251973E+0	1.245697E+0	1.256061E+0	1.204953E+0	1.285631E+0	1.269421E+0	1.289197E+0	9.918594E-1	1.331052E+0	1.246105E+0	1.286040E+0	1.103978E+0	1.278306E+0	1.260892E+0	1.237293E+0	1.235036E+0	1.238363E+0	1.254191E+0	1.175151E+0	1.165603E+0	1.255590E+0	1.285249E+0	1.305940E+0	1.052317E+0	1.219585E+0	1.266677E+0	1.244228E+0	1.071108E+0	1.252466E+0	1.266342E+0	1.303546E+0	1.177529E+0	1.240923E+0	1.200111E+0	1.271601E+0	1.092074E+0	1.297957E+0	1.237713E+0	1.307399E+0	1.003336E+0	1.267851E+0	1.226437E+0	1.311930E+0	1.050352E+0	1.245605E+0	1.256057E+0	1.243486E+0	1.168779E+0	1.278847E+0	1.262673E+0	1.235148E+0	1.116308E+0	1.256142E+0	1.251520E+0	1.263224E+0	1.087822E+0	1.319864E+0	1.271042E+0	1.293713E+0	1.109164E+0	1.211632E+0	1.297567E+0	1.291188E+0	1.176945E+0	1.276266E+0	1.280859E+0	1.292622E+0	1.148208E+0	1.203158E+0	1.314877E+0	1.256666E+0	1.025788E+0	1.262668E+0	1.249125E+0	1.266628E+0	8.916559E-1	1.232989E+0	1.181926E+0	1.192258E+0	1.129817E+0
5.475340E+2	1.396158E+0	1.332337E+0	1.373919E+0	1.411953E+0	1.389298E+0	1.374522E+0	1.411019E+0	1.348845E+0	1.269252E+0	1.418615E+0	1.385396E+0	1.366875E+0	1.159180E+0	1.320018E+0	1.435112E+0	1.360653E+0	1.196827E+0	1.375336E+0	1.344333E+0	1.380227E+0	1.301109E+0	1.416900E+0	1.367471E+0	1.369046E+0	1.243308E+0	1.319359E+0	1.410589E+0	1.383727E+0	1.116927E+0	1.319913E+0	1.383819E+0	1.331749E+0	1.185948E+0	1.344109E+0	1.401608E+0	1.347253E+0	1.318736E+0	1.345451E+0	1.435618E+0	1.424521E+0	1.266193E+0	1.397426E+0	1.371564E+0	1.374109E+0	1.160578E+0	1.296286E+0	1.409150E+0	1.352234E+0	1.224033E+0	1.339068E+0	1.409645E+0	1.357494E+0	1.321612E+0	1.321832E+0	1.367167E+0	1.366437E+0	1.231767E+0	1.410880E+0	1.364774E+0	1.375017E+0	1.096607E+0	1.331160E+0	1.368420E+0	1.362919E+0	1.242716E+0	1.143716E+0	1.339341E+0	1.405909E+0	1.293356E+0	1.346963E+0	1.371365E+0	1.368826E+0	1.248127E+0	1.370146E+0	1.421915E+0	1.421631E+0	1.129158E+0	1.353017E+0	1.434350E+0	1.353398E+0	1.122240E+0	1.389788E+0	1.378293E+0	1.308531E+0	1.323320E+0	1.355499E+0	1.354638E+0	1.351236E+0	1.268383E+0	1.388366E+0	1.346980E+0	1.267287E+0	1.145315E+0	1.354507E+0	1.372067E+0	1.416205E+0	1.138954E+0	1.376575E+0	1.328665E+0	1.399964E+0	1.324737E+0	1.432346E+0	1.341143E+0	1.392179E+0	1.204711E+0	1.464233E+0	1.408122E+0	1.356186E+0	1.146828E+0	1.395959E+0	1.364569E+0	1.314744E+0	1.209650E+0	1.428334E+0	1.341910E+0	1.397892E+0	1.316986E+0	1.426438E+0	1.388097E+0	1.368881E+0	1.237932E+0	1.359799E+0	1.380625E+0	1.387953E+0	1.107802E+0	1.369539E+0	1.363115E+0	1.334736E+0	1.134652E+0	1.336064E+0	1.368682E+0	1.371820E+0	1.270365E+0	1.344627E+0	1.374826E+0	1.421775E+0	1.275194E+0	1.319592E+0	1.316824E+0	1.362267E+0	1.192087E+0	1.330739E+0	1.357228E+0	1.367818E+0	1.207288E+0	1.379910E+0	1.385899E+0	1.343973E+0	1.276087E+0	1.420331E+0	1.402393E+0	1.303500E+0	1.309304E+0	1.333522E+0	1.404808E+0	1.432279E+0	1.133440E+0	1.410788E+0	1.399783E+0	1.354706E+0	1.012167E+0	1.389914E+0	1.345104E+0	1.348664E+0	1.233235E+0
5.482660E+2	1.523219E+0	1.427782E+0	1.491199E+0	1.416285E+0	1.432195E+0	1.412654E+0	1.497763E+0	1.514007E+0	1.371873E+0	1.415296E+0	1.433219E+0	1.491164E+0	1.250544E+0	1.428371E+0	1.484294E+0	1.440852E+0	1.224962E+0	1.440468E+0	1.444424E+0	1.495502E+0	1.377854E+0	1.498833E+0	1.468590E+0	1.475372E+0	1.322278E+0	1.396512E+0	1.475050E+0	1.480377E+0	1.178171E+0	1.476493E+0	1.458978E+0	1.462365E+0	1.205253E+0	1.415211E+0	1.527913E+0	1.398387E+0	1.383964E+0	1.412770E+0	1.457751E+0	1.451814E+0	1.382244E+0	1.492193E+0	1.485757E+0	1.486196E+0	1.198210E+0	1.428898E+0	1.430324E+0	1.436471E+0	1.251645E+0	1.441405E+0	1.429819E+0	1.453350E+0	1.416946E+0	1.455652E+0	1.458309E+0	1.461140E+0	1.295321E+0	1.395866E+0	1.388203E+0	1.500982E+0	1.174265E+0	1.401995E+0	1.422826E+0	1.469090E+0	1.257241E+0	1.259429E+0	1.449147E+0	1.458758E+0	1.387222E+0	1.407129E+0	1.457369E+0	1.442733E+0	1.343789E+0	1.454932E+0	1.459370E+0	1.495868E+0	1.193011E+0	1.520150E+0	1.456584E+0	1.398906E+0	1.261709E+0	1.426323E+0	1.457508E+0	1.475416E+0	1.418674E+0	1.469887E+0	1.406788E+0	1.462779E+0	1.339738E+0	1.408632E+0	1.406074E+0	1.456935E+0	1.219571E+0	1.421175E+0	1.441101E+0	1.435080E+0	1.240918E+0	1.474180E+0	1.416976E+0	1.478878E+0	1.405352E+0	1.503214E+0	1.477530E+0	1.454358E+0	1.292267E+0	1.496998E+0	1.437992E+0	1.450470E+0	1.197441E+0	1.547134E+0	1.456376E+0	1.420228E+0	1.255013E+0	1.461310E+0	1.415556E+0	1.448481E+0	1.325626E+0	1.472817E+0	1.437417E+0	1.458399E+0	1.350773E+0	1.455551E+0	1.405847E+0	1.560757E+0	1.086473E+0	1.477214E+0	1.466284E+0	1.451226E+0	1.205761E+0	1.395402E+0	1.441175E+0	1.429012E+0	1.327510E+0	1.468885E+0	1.452661E+0	1.432855E+0	1.372434E+0	1.477219E+0	1.438857E+0	1.463938E+0	1.255677E+0	1.468892E+0	1.460781E+0	1.493137E+0	1.261802E+0	1.401954E+0	1.443868E+0	1.479613E+0	1.402149E+0	1.399649E+0	1.475920E+0	1.450098E+0	1.318250E+0	1.385138E+0	1.498936E+0	1.442432E+0	1.198519E+0	1.450238E+0	1.426485E+0	1.458511E+0	1.036038E+0	1.501609E+0	1.431902E+0	1.445321E+0	1.260449E+0
5.490160E+2	1.480405E+0	1.406971E+0	1.530770E+0	1.463258E+0	1.454984E+0	1.471045E+0	1.421477E+0	1.506405E+0	1.376878E+0	1.484996E+0	1.479907E+0	1.430005E+0	1.216746E+0	1.408670E+0	1.509755E+0	1.433395E+0	1.248503E+0	1.434722E+0	1.436872E+0	1.438505E+0	1.367131E+0	1.417460E+0	1.415985E+0	1.428242E+0	1.280910E+0	1.460594E+0	1.488651E+0	1.534623E+0	1.208510E+0	1.383263E+0	1.479822E+0	1.441863E+0	1.244969E+0	1.345948E+0	1.503599E+0	1.428936E+0	1.410055E+0	1.434453E+0	1.415274E+0	1.397228E+0	1.396586E+0	1.411246E+0	1.462655E+0	1.484307E+0	1.216487E+0	1.416005E+0	1.512540E+0	1.435897E+0	1.265161E+0	1.498402E+0	1.487825E+0	1.489062E+0	1.413931E+0	1.400338E+0	1.460048E+0	1.513382E+0	1.301375E+0	1.450471E+0	1.446163E+0	1.497146E+0	1.179960E+0	1.488010E+0	1.472501E+0	1.464371E+0	1.218723E+0	1.234499E+0	1.414834E+0	1.472803E+0	1.385967E+0	1.422656E+0	1.447186E+0	1.428061E+0	1.383373E+0	1.451398E+0	1.468415E+0	1.475178E+0	1.205332E+0	1.494909E+0	1.447688E+0	1.397201E+0	1.192922E+0	1.477326E+0	1.459504E+0	1.512896E+0	1.387102E+0	1.409817E+0	1.474009E+0	1.462777E+0	1.337758E+0	1.496692E+0	1.446699E+0	1.417223E+0	1.189870E+0	1.456981E+0	1.416277E+0	1.482589E+0	1.248029E+0	1.515631E+0	1.453942E+0	1.433884E+0	1.362206E+0	1.435952E+0	1.430480E+0	1.447906E+0	1.309779E+0	1.456877E+0	1.524205E+0	1.371692E+0	1.183497E+0	1.482254E+0	1.441178E+0	1.458067E+0	1.223749E+0	1.391235E+0	1.433489E+0	1.354820E+0	1.371287E+0	1.480238E+0	1.414787E+0	1.438705E+0	1.347773E+0	1.418977E+0	1.438179E+0	1.438899E+0	1.162498E+0	1.446639E+0	1.462997E+0	1.406849E+0	1.210922E+0	1.373693E+0	1.476126E+0	1.431106E+0	1.388120E+0	1.423811E+0	1.409147E+0	1.459683E+0	1.333030E+0	1.457180E+0	1.413133E+0	1.379980E+0	1.239639E+0	1.427319E+0	1.510306E+0	1.509404E+0	1.300645E+0	1.430610E+0	1.479751E+0	1.531060E+0	1.408058E+0	1.449277E+0	1.409685E+0	1.456971E+0	1.349874E+0	1.398374E+0	1.498339E+0	1.392855E+0	1.176625E+0	1.518764E+0	1.478608E+0	1.415732E+0	1.085523E+0	1.444377E+0	1.433059E+0	1.366239E+0	1.252285E+0
5.497570E+2	1.347131E+0	1.434237E+0	1.431479E+0	1.364984E+0	1.418119E+0	1.428743E+0	1.406100E+0	1.375799E+0	1.339333E+0	1.431893E+0	1.424112E+0	1.415540E+0	1.192451E+0	1.369848E+0	1.421230E+0	1.389873E+0	1.193385E+0	1.385554E+0	1.453869E+0	1.379586E+0	1.321425E+0	1.430369E+0	1.459825E+0	1.344905E+0	1.248321E+0	1.364161E+0	1.445482E+0	1.426752E+0	1.196711E+0	1.352187E+0	1.421716E+0	1.356933E+0	1.251586E+0	1.368629E+0	1.419846E+0	1.418976E+0	1.346606E+0	1.319776E+0	1.435616E+0	1.421108E+0	1.286407E+0	1.402692E+0	1.428329E+0	1.398667E+0	1.194446E+0	1.451615E+0	1.382988E+0	1.385122E+0	1.222857E+0	1.406429E+0	1.431079E+0	1.386941E+0	1.363850E+0	1.405689E+0	1.368909E+0	1.425764E+0	1.292900E+0	1.405421E+0	1.407934E+0	1.374379E+0	1.144755E+0	1.408318E+0	1.377883E+0	1.442545E+0	1.221880E+0	1.167369E+0	1.363674E+0	1.406580E+0	1.335907E+0	1.391602E+0	1.387771E+0	1.394368E+0	1.291668E+0	1.395580E+0	1.372834E+0	1.447795E+0	1.168366E+0	1.368024E+0	1.413395E+0	1.371032E+0	1.156320E+0	1.441485E+0	1.376963E+0	1.411772E+0	1.330896E+0	1.380424E+0	1.419536E+0	1.343357E+0	1.299435E+0	1.391160E+0	1.350676E+0	1.358343E+0	1.211319E+0	1.438459E+0	1.385994E+0	1.396679E+0	1.252774E+0	1.432735E+0	1.364951E+0	1.422113E+0	1.360503E+0	1.416732E+0	1.458473E+0	1.361678E+0	1.286429E+0	1.405383E+0	1.440029E+0	1.335094E+0	1.181430E+0	1.363203E+0	1.386456E+0	1.373792E+0	1.105436E+0	1.389863E+0	1.414915E+0	1.471042E+0	1.315748E+0	1.409744E+0	1.355609E+0	1.377234E+0	1.311759E+0	1.428953E+0	1.372222E+0	1.372804E+0	1.091394E+0	1.415401E+0	1.404514E+0	1.448144E+0	1.230993E+0	1.356325E+0	1.373857E+0	1.429014E+0	1.304424E+0	1.468277E+0	1.421405E+0	1.400198E+0	1.308242E+0	1.395068E+0	1.381468E+0	1.438355E+0	1.283177E+0	1.395338E+0	1.427979E+0	1.383482E+0	1.248856E+0	1.381376E+0	1.379688E+0	1.428831E+0	1.348309E+0	1.353467E+0	1.392062E+0	1.426620E+0	1.300948E+0	1.403005E+0	1.409606E+0	1.410775E+0	1.140740E+0	1.422554E+0	1.434110E+0	1.384277E+0	9.888800E-1	1.420376E+0	1.382138E+0	1.320546E+0	1.233232E+0
5.505110E+2	1.363013E+0	1.404099E+0	1.471770E+0	1.470482E+0	1.369188E+0	1.365585E+0	1.417173E+0	1.437300E+0	1.319310E+0	1.378786E+0	1.405321E+0	1.431324E+0	1.177664E+0	1.368691E+0	1.378408E+0	1.429664E+0	1.208885E+0	1.375337E+0	1.385882E+0	1.405200E+0	1.282488E+0	1.392771E+0	1.390268E+0	1.398930E+0	1.258976E+0	1.371000E+0	1.415911E+0	1.421140E+0	1.142209E+0	1.358160E+0	1.437505E+0	1.373920E+0	1.208008E+0	1.344111E+0	1.403636E+0	1.337956E+0	1.343641E+0	1.348301E+0	1.437411E+0	1.425659E+0	1.277279E+0	1.317797E+0	1.442191E+0	1.375367E+0	1.209499E+0	1.361977E+0	1.366173E+0	1.383970E+0	1.198181E+0	1.359797E+0	1.455041E+0	1.387566E+0	1.352989E+0	1.405689E+0	1.375295E+0	1.413242E+0	1.237817E+0	1.305771E+0	1.370940E+0	1.402512E+0	1.075379E+0	1.420334E+0	1.353636E+0	1.378255E+0	1.230088E+0	1.245363E+0	1.349947E+0	1.407247E+0	1.337160E+0	1.387721E+0	1.357783E+0	1.449255E+0	1.319375E+0	1.344006E+0	1.376061E+0	1.375993E+0	1.117956E+0	1.383033E+0	1.374652E+0	1.358517E+0	1.218165E+0	1.418048E+0	1.347007E+0	1.391264E+0	1.267117E+0	1.361252E+0	1.376654E+0	1.359116E+0	1.280935E+0	1.413523E+0	1.356214E+0	1.356292E+0	1.090314E+0	1.394017E+0	1.442920E+0	1.354375E+0	1.146069E+0	1.389948E+0	1.359471E+0	1.378505E+0	1.316790E+0	1.434749E+0	1.400106E+0	1.433824E+0	1.277091E+0	1.428789E+0	1.381647E+0	1.431241E+0	1.107061E+0	1.364464E+0	1.354231E+0	1.358884E+0	1.167967E+0	1.390548E+0	1.347032E+0	1.391735E+0	1.297855E+0	1.378205E+0	1.344002E+0	1.395737E+0	1.309358E+0	1.367113E+0	1.398733E+0	1.434078E+0	1.062953E+0	1.356912E+0	1.380859E+0	1.371100E+0	1.175365E+0	1.391783E+0	1.353792E+0	1.396233E+0	1.265750E+0	1.389091E+0	1.384020E+0	1.347709E+0	1.306975E+0	1.419779E+0	1.378169E+0	1.398999E+0	1.142248E+0	1.460580E+0	1.417047E+0	1.399149E+0	1.212740E+0	1.382114E+0	1.376929E+0	1.410120E+0	1.315479E+0	1.330032E+0	1.389022E+0	1.396842E+0	1.263957E+0	1.332860E+0	1.464763E+0	1.384493E+0	1.149861E+0	1.356800E+0	1.396608E+0	1.331428E+0	1.004018E+0	1.463762E+0	1.362464E+0	1.496284E+0	1.227792E+0
5.512570E+2	1.407207E+0	1.300761E+0	1.450904E+0	1.409062E+0	1.378574E+0	1.356647E+0	1.412251E+0	1.364740E+0	1.322442E+0	1.330991E+0	1.400766E+0	1.431982E+0	1.261109E+0	1.353045E+0	1.358736E+0	1.363760E+0	1.296158E+0	1.403434E+0	1.388399E+0	1.346924E+0	1.327067E+0	1.373690E+0	1.359876E+0	1.395482E+0	1.223251E+0	1.298208E+0	1.349086E+0	1.397446E+0	1.159066E+0	1.355768E+0	1.345290E+0	1.367478E+0	1.177670E+0	1.292621E+0	1.429977E+0	1.352566E+0	1.351347E+0	1.363136E+0	1.400919E+0	1.332976E+0	1.272713E+0	1.327666E+0	1.386082E+0	1.371589E+0	1.160577E+0	1.370573E+0	1.342504E+0	1.398394E+0	1.150000E+0	1.383759E+0	1.364876E+0	1.365637E+0	1.300492E+0	1.357514E+0	1.364845E+0	1.347936E+0	1.236003E+0	1.395182E+0	1.407317E+0	1.460699E+0	1.121456E+0	1.278033E+0	1.321701E+0	1.398900E+0	1.166317E+0	1.202531E+0	1.354314E+0	1.404570E+0	1.240793E+0	1.314615E+0	1.363441E+0	1.369916E+0	1.300246E+0	1.382863E+0	1.360563E+0	1.363823E+0	1.123558E+0	1.400086E+0	1.327019E+0	1.398906E+0	1.225737E+0	1.321551E+0	1.349668E+0	1.350959E+0	1.333422E+0	1.395760E+0	1.359851E+0	1.368212E+0	1.271685E+0	1.412825E+0	1.311279E+0	1.418594E+0	1.054563E+0	1.381669E+0	1.379940E+0	1.336804E+0	1.225505E+0	1.384600E+0	1.351942E+0	1.370889E+0	1.317355E+0	1.375294E+0	1.381048E+0	1.386315E+0	1.232144E+0	1.371950E+0	1.386401E+0	1.341917E+0	1.129270E+0	1.424934E+0	1.339641E+0	1.297544E+0	1.080917E+0	1.375436E+0	1.373929E+0	1.383533E+0	1.247258E+0	1.372641E+0	1.327757E+0	1.381411E+0	1.270942E+0	1.389720E+0	1.409723E+0	1.416865E+0	1.111084E+0	1.396125E+0	1.409115E+0	1.416096E+0	1.115153E+0	1.346915E+0	1.377095E+0	1.362056E+0	1.312504E+0	1.377519E+0	1.330700E+0	1.338959E+0	1.206556E+0	1.396402E+0	1.301652E+0	1.329471E+0	1.175473E+0	1.410688E+0	1.368164E+0	1.370228E+0	1.229095E+0	1.353454E+0	1.405222E+0	1.361344E+0	1.308915E+0	1.385174E+0	1.359855E+0	1.363630E+0	1.238899E+0	1.318301E+0	1.404210E+0	1.346264E+0	1.143172E+0	1.383102E+0	1.374992E+0	1.328913E+0	9.586071E-1	1.337298E+0	1.408756E+0	1.353937E+0	1.282221E+0
5.520150E+2	1.411352E+0	1.387592E+0	1.407015E+0	1.368595E+0	1.341708E+0	1.406101E+0	1.384564E+0	1.375106E+0	1.415048E+0	1.477032E+0	1.347816E+0	1.370166E+0	1.373600E+0	1.393024E+0	1.397502E+0	1.361273E+0	1.398937E+0	1.377253E+0	1.380215E+0	1.359090E+0	1.391959E+0	1.360781E+0	1.344091E+0	1.362723E+0	1.356124E+0	1.358561E+0	1.355590E+0	1.410541E+0	1.349545E+0	1.341429E+0	1.379397E+0	1.321206E+0	1.311159E+0	1.280363E+0	1.432004E+0	1.330652E+0	1.330593E+0	1.411630E+0	1.354859E+0	1.404052E+0	1.299444E+0	1.404667E+0	1.438892E+0	1.404964E+0	1.139073E+0	1.387150E+0	1.335029E+0	1.377623E+0	1.179967E+0	1.411612E+0	1.388835E+0	1.378796E+0	1.342125E+0	1.411043E+0	1.340466E+0	1.396374E+0	1.230556E+0	1.416340E+0	1.348742E+0	1.336011E+0	1.099714E+0	1.326098E+0	1.388528E+0	1.390643E+0	1.196622E+0	1.222349E+0	1.378023E+0	1.363098E+0	1.331528E+0	1.307499E+0	1.337412E+0	1.410129E+0	1.241529E+0	1.382157E+0	1.350230E+0	1.362608E+0	1.124118E+0	1.383714E+0	1.386720E+0	1.368187E+0	1.130444E+0	1.454582E+0	1.354996E+0	1.365811E+0	1.294902E+0	1.349107E+0	1.354638E+0	1.388219E+0	1.347008E+0	1.373689E+0	1.340210E+0	1.379569E+0	1.143668E+0	1.380435E+0	1.346025E+0	1.401889E+0	1.170965E+0	1.402649E+0	1.401915E+0	1.373660E+0	1.276480E+0	1.356075E+0	1.427502E+0	1.397459E+0	1.194202E+0	1.398028E+0	1.380969E+0	1.398986E+0	1.132369E+0	1.382730E+0	1.430843E+0	1.399017E+0	1.180839E+0	1.385739E+0	1.361760E+0	1.405409E+0	1.270705E+0	1.412217E+0	1.323115E+0	1.358733E+0	1.311758E+0	1.407007E+0	1.343121E+0	1.381756E+0	1.115461E+0	1.395463E+0	1.397940E+0	1.364322E+0	1.116872E+0	1.409877E+0	1.361560E+0	1.399020E+0	1.259399E+0	1.348285E+0	1.402406E+0	1.361707E+0	1.295532E+0	1.394399E+0	1.324737E+0	1.351775E+0	1.220157E+0	1.347367E+0	1.310921E+0	1.394929E+0	1.203882E+0	1.391664E+0	1.415572E+0	1.325931E+0	1.296442E+0	1.378971E+0	1.388417E+0	1.345305E+0	1.303932E+0	1.323597E+0	1.418596E+0	1.350446E+0	1.115803E+0	1.356109E+0	1.373085E+0	1.375468E+0	9.428879E-1	1.418530E+0	1.386768E+0	1.315274E+0	1.208739E+0
5.527650E+2	1.295341E+0	1.335926E+0	1.340822E+0	1.325964E+0	1.313559E+0	1.329838E+0	1.300898E+0	1.271447E+0	1.342461E+0	1.330324E+0	1.340985E+0	1.343204E+0	1.370962E+0	1.304953E+0	1.335014E+0	1.329568E+0	1.320847E+0	1.329362E+0	1.336781E+0	1.352689E+0	1.330451E+0	1.392769E+0	1.344096E+0	1.275936E+0	1.347348E+0	1.288253E+0	1.349085E+0	1.302668E+0	1.333247E+0	1.328877E+0	1.341503E+0	1.383877E+0	1.231728E+0	1.230102E+0	1.343522E+0	1.292133E+0	1.319921E+0	1.259871E+0	1.300420E+0	1.320466E+0	1.339865E+0	1.322402E+0	1.349119E+0	1.316806E+0	1.239605E+0	1.322686E+0	1.359320E+0	1.364931E+0	1.235196E+0	1.305388E+0	1.355418E+0	1.213394E+0	1.348763E+0	1.349782E+0	1.328272E+0	1.314193E+0	1.174867E+0	1.309184E+0	1.316680E+0	1.366066E+0	1.116280E+0	1.312185E+0	1.285628E+0	1.348176E+0	1.145478E+0	1.178878E+0	1.341214E+0	1.347044E+0	1.288349E+0	1.318496E+0	1.285354E+0	1.312855E+0	1.273196E+0	1.394168E+0	1.266270E+0	1.429542E+0	1.095552E+0	1.357794E+0	1.326385E+0	1.287404E+0	1.109618E+0	1.284328E+0	1.299081E+0	1.377830E+0	1.222282E+0	1.304376E+0	1.292053E+0	1.340930E+0	1.171257E+0	1.321972E+0	1.277426E+0	1.294676E+0	1.118916E+0	1.280433E+0	1.309086E+0	1.341361E+0	1.108129E+0	1.321089E+0	1.305390E+0	1.332127E+0	1.250365E+0	1.299622E+0	1.304816E+0	1.391008E+0	1.232146E+0	1.310424E+0	1.339559E+0	1.283607E+0	1.071942E+0	1.296434E+0	1.343287E+0	1.364046E+0	1.062527E+0	1.321166E+0	1.318855E+0	1.346618E+0	1.275640E+0	1.300905E+0	1.301068E+0	1.310992E+0	1.243334E+0	1.358470E+0	1.367693E+0	1.356280E+0	1.068971E+0	1.295099E+0	1.385460E+0	1.303920E+0	1.133506E+0	1.301326E+0	1.299424E+0	1.366239E+0	1.261708E+0	1.325138E+0	1.306187E+0	1.322047E+0	1.218631E+0	1.264825E+0	1.281205E+0	1.355052E+0	1.120477E+0	1.330100E+0	1.366878E+0	1.309378E+0	1.200475E+0	1.349046E+0	1.309987E+0	1.281166E+0	1.293158E+0	1.265238E+0	1.294837E+0	1.346451E+0	1.217419E+0	1.312345E+0	1.344257E+0	1.334914E+0	1.030045E+0	1.347109E+0	1.329220E+0	1.360369E+0	9.516205E-1	1.412991E+0	1.377510E+0	1.353936E+0	1.143423E+0
5.535550E+2	1.317438E+0	1.236173E+0	1.306288E+0	1.242865E+0	1.261946E+0	1.267280E+0	1.276290E+0	1.243807E+0	1.301164E+0	1.248671E+0	1.245903E+0	1.305722E+0	1.232062E+0	1.274243E+0	1.313027E+0	1.272991E+0	1.284101E+0	1.266785E+0	1.287679E+0	1.254060E+0	1.250322E+0	1.245180E+0	1.233625E+0	1.216163E+0	1.362391E+0	1.292610E+0	1.279305E+0	1.252160E+0	1.274253E+0	1.189631E+0	1.315605E+0	1.264393E+0	1.251035E+0	1.183518E+0	1.326639E+0	1.288815E+0	1.272480E+0	1.291250E+0	1.290850E+0	1.261331E+0	1.307269E+0	1.286209E+0	1.265948E+0	1.262019E+0	1.282074E+0	1.235505E+0	1.259665E+0	1.274925E+0	1.255172E+0	1.197224E+0	1.294259E+0	1.183948E+0	1.280580E+0	1.265920E+0	1.274287E+0	1.240176E+0	1.280792E+0	1.270964E+0	1.309897E+0	1.314274E+0	1.233286E+0	1.274870E+0	1.214074E+0	1.236108E+0	1.239559E+0	1.097686E+0	1.271336E+0	1.207903E+0	1.270201E+0	1.191047E+0	1.225941E+0	1.305245E+0	1.159722E+0	1.261342E+0	1.226879E+0	1.279849E+0	1.039543E+0	1.250693E+0	1.268589E+0	1.301056E+0	1.106463E+0	1.250553E+0	1.234511E+0	1.243472E+0	1.183129E+0	1.251973E+0	1.224836E+0	1.240905E+0	1.220810E+0	1.280739E+0	1.252803E+0	1.196084E+0	1.000109E+0	1.184137E+0	1.281231E+0	1.267818E+0	1.051811E+0	1.266938E+0	1.255415E+0	1.284362E+0	1.193027E+0	1.296021E+0	1.260145E+0	1.217383E+0	1.138166E+0	1.330485E+0	1.268280E+0	1.254453E+0	1.018231E+0	1.263049E+0	1.233235E+0	1.239068E+0	1.066820E+0	1.261395E+0	1.255456E+0	1.269363E+0	1.241086E+0	1.261330E+0	1.255232E+0	1.295475E+0	1.159900E+0	1.295966E+0	1.256466E+0	1.241999E+0	1.018652E+0	1.260541E+0	1.277693E+0	1.241053E+0	1.081318E+0	1.239816E+0	1.195862E+0	1.228140E+0	1.193020E+0	1.306253E+0	1.265124E+0	1.255562E+0	1.186853E+0	1.241449E+0	1.238327E+0	1.272406E+0	1.134226E+0	1.308351E+0	1.299986E+0	1.249729E+0	1.165041E+0	1.233676E+0	1.243740E+0	1.271812E+0	1.218964E+0	1.312799E+0	1.246830E+0	1.250820E+0	1.184005E+0	1.250803E+0	1.265716E+0	1.268016E+0	1.057414E+0	1.280666E+0	1.259297E+0	1.318846E+0	8.945663E-1	1.235758E+0	1.317330E+0	1.304730E+0	1.211461E+0
5.542640E+2	1.240098E+0	1.118481E+0	1.189010E+0	1.135920E+0	1.213015E+0	1.220806E+0	1.166167E+0	1.199577E+0	1.186657E+0	1.190917E+0	1.181568E+0	1.216943E+0	1.190341E+0	1.165890E+0	1.229709E+0	1.204605E+0	1.187066E+0	1.155678E+0	1.152337E+0	1.190015E+0	1.232266E+0	1.186256E+0	1.181604E+0	1.219034E+0	1.153682E+0	1.196172E+0	1.159847E+0	1.237194E+0	1.179858E+0	1.129866E+0	1.264449E+0	1.153690E+0	1.174361E+0	1.158998E+0	1.215192E+0	1.189865E+0	1.145581E+0	1.127510E+0	1.208894E+0	1.169218E+0	1.177529E+0	1.184859E+0	1.188717E+0	1.180788E+0	1.189071E+0	1.196216E+0	1.204855E+0	1.154339E+0	1.161165E+0	1.153181E+0	1.182659E+0	1.162019E+0	1.195502E+0	1.232614E+0	1.210430E+0	1.196636E+0	1.208764E+0	1.180187E+0	1.197677E+0	1.282942E+0	1.173748E+0	1.226801E+0	1.185099E+0	1.184792E+0	1.190309E+0	1.036313E+0	1.181493E+0	1.161748E+0	1.225147E+0	1.141230E+0	1.211227E+0	1.203083E+0	1.208544E+0	1.230964E+0	1.204921E+0	1.200137E+0	1.165005E+0	1.183841E+0	1.220956E+0	1.197519E+0	1.178408E+0	1.193342E+0	1.221863E+0	1.189021E+0	1.229229E+0	1.169538E+0	1.169783E+0	1.131790E+0	1.103864E+0	1.182197E+0	1.164166E+0	1.122827E+0	9.753596E-1	1.233518E+0	1.175255E+0	1.178653E+0	1.019799E+0	1.198082E+0	1.166421E+0	1.172917E+0	1.170885E+0	1.209537E+0	1.195228E+0	1.212688E+0	1.062283E+0	1.170661E+0	1.209220E+0	1.149000E+0	9.769131E-1	1.193128E+0	1.134129E+0	1.168548E+0	1.007969E+0	1.227733E+0	1.143385E+0	1.222875E+0	1.088673E+0	1.167335E+0	1.175164E+0	1.177906E+0	1.160501E+0	1.210852E+0	1.196972E+0	1.226849E+0	9.519226E-1	1.133593E+0	1.217897E+0	1.164009E+0	1.006194E+0	1.171794E+0	1.206863E+0	1.239999E+0	1.122602E+0	1.191745E+0	1.214871E+0	1.225235E+0	1.101688E+0	1.190020E+0	1.187536E+0	1.168117E+0	1.047148E+0	1.225844E+0	1.206723E+0	1.193097E+0	1.130970E+0	1.180034E+0	1.194054E+0	1.162232E+0	1.115228E+0	1.194930E+0	1.172697E+0	1.155762E+0	1.027088E+0	1.212423E+0	1.239336E+0	1.204102E+0	9.850376E-1	1.185148E+0	1.172843E+0	1.216298E+0	8.450810E-1	1.205297E+0	1.215488E+0	1.281885E+0	1.165195E+0
5.550360E+2	1.097158E+0	1.084753E+0	1.154475E+0	1.084616E+0	1.133252E+0	1.099261E+0	1.103416E+0	1.106285E+0	1.112818E+0	1.084705E+0	1.108121E+0	1.064380E+0	1.088938E+0	1.087668E+0	1.093157E+0	1.100780E+0	1.099218E+0	1.065642E+0	1.077428E+0	1.023504E+0	1.083292E+0	1.049328E+0	1.081653E+0	1.060406E+0	1.075336E+0	1.051205E+0	1.075872E+0	1.108122E+0	1.106813E+0	1.068907E+0	1.082551E+0	1.105662E+0	1.086105E+0	1.021698E+0	1.092263E+0	1.065015E+0	1.075607E+0	1.094992E+0	1.070110E+0	1.107238E+0	1.087558E+0	1.059163E+0	1.163635E+0	1.129154E+0	1.062736E+0	1.073426E+0	1.090251E+0	1.034329E+0	1.119448E+0	1.124681E+0	1.057818E+0	1.136332E+0	1.087491E+0	1.080352E+0	1.080978E+0	1.084522E+0	1.085891E+0	1.038904E+0	1.099640E+0	1.082165E+0	1.066580E+0	1.106002E+0	1.062094E+0	1.068008E+0	1.164422E+0	9.870858E-1	1.114110E+0	1.074787E+0	1.148181E+0	1.089475E+0	1.117864E+0	1.094938E+0	1.046248E+0	1.095310E+0	1.073817E+0	1.144764E+0	1.054106E+0	1.073332E+0	1.100282E+0	1.088292E+0	1.119085E+0	1.092708E+0	1.093391E+0	1.098507E+0	1.117456E+0	1.026393E+0	1.122269E+0	1.117847E+0	1.148793E+0	1.025648E+0	1.052751E+0	1.098862E+0	1.110666E+0	1.081668E+0	1.062013E+0	1.075170E+0	1.122355E+0	1.103151E+0	1.082903E+0	1.145920E+0	1.138525E+0	1.081018E+0	1.088622E+0	1.153449E+0	1.002160E+0	1.093087E+0	1.104679E+0	1.073322E+0	9.428284E-1	1.062110E+0	1.057519E+0	1.108354E+0	9.264381E-1	1.073851E+0	1.044764E+0	1.125794E+0	1.057819E+0	1.064065E+0	1.041135E+0	1.093159E+0	1.018247E+0	1.115099E+0	1.119373E+0	1.137349E+0	8.764441E-1	1.085739E+0	1.126557E+0	1.042589E+0	9.035424E-1	1.099429E+0	1.109128E+0	1.114454E+0	1.007157E+0	1.086979E+0	1.083103E+0	1.060187E+0	9.809333E-1	1.097848E+0	1.067481E+0	1.100554E+0	9.709550E-1	1.119029E+0	1.101882E+0	1.128632E+0	9.865076E-1	1.130800E+0	1.060866E+0	1.174258E+0	1.102753E+0	1.075684E+0	1.083978E+0	1.088187E+0	1.018735E+0	1.088674E+0	1.067269E+0	1.129438E+0	9.242170E-1	1.100707E+0	1.068591E+0	1.091725E+0	7.740545E-1	1.054831E+0	1.052310E+0	1.058696E+0	1.007348E+0
5.557600E+2	1.014985E+0	1.023754E+0	9.666874E-1	1.030422E+0	1.023326E+0	1.041468E+0	1.000677E+0	1.017138E+0	9.751584E-1	9.731810E-1	9.748922E-1	1.025581E+0	1.027675E+0	9.636700E-1	1.001735E+0	9.751934E-1	9.826610E-1	9.800774E-1	9.880395E-1	1.054245E+0	1.002595E+0	1.045401E+0	1.006254E+0	9.793667E-1	1.039611E+0	1.027561E+0	1.027381E+0	1.030180E+0	9.455530E-1	9.601383E-1	9.953893E-1	1.018977E+0	9.719223E-1	9.990190E-1	1.038905E+0	1.041107E+0	9.528558E-1	9.803172E-1	9.851645E-1	1.010007E+0	1.041269E+0	9.913789E-1	1.038219E+0	1.015806E+0	1.018117E+0	9.573927E-1	9.974468E-1	9.933643E-1	1.016627E+0	9.912558E-1	1.088082E+0	1.038592E+0	1.048272E+0	1.011360E+0	1.056599E+0	1.007237E+0	1.035651E+0	9.836196E-1	1.018867E+0	1.034848E+0	1.008593E+0	9.908915E-1	9.869898E-1	1.003127E+0	1.009092E+0	8.515533E-1	1.003058E+0	1.039333E+0	1.028660E+0	9.626709E-1	1.029029E+0	1.048746E+0	1.030414E+0	9.815599E-1	1.036360E+0	1.032799E+0	1.017139E+0	1.043317E+0	9.865987E-1	1.016611E+0	1.010539E+0	9.906946E-1	9.975365E-1	9.945550E-1	9.917909E-1	1.034700E+0	9.716068E-1	1.020854E+0	1.016650E+0	1.015166E+0	1.013973E+0	1.031768E+0	1.028161E+0	1.021792E+0	1.021437E+0	1.045233E+0	1.013279E+0	9.727910E-1	1.002807E+0	1.023397E+0	1.026681E+0	1.012552E+0	9.998818E-1	9.815822E-1	1.000993E+0	9.914399E-1	1.017786E+0	1.016873E+0	1.031142E+0	1.044471E+0	1.022253E+0	9.776412E-1	1.015325E+0	1.020266E+0	1.016586E+0	1.007521E+0	1.015241E+0	9.799634E-1	9.773134E-1	1.025126E+0	9.720292E-1	1.033978E+0	1.038541E+0	1.065749E+0	8.458155E-1	1.041872E+0	1.028650E+0	1.008074E+0	8.863385E-1	9.684493E-1	9.570214E-1	1.039128E+0	9.829144E-1	1.034596E+0	9.642088E-1	1.003616E+0	9.408935E-1	9.889795E-1	9.513847E-1	1.016595E+0	8.672629E-1	1.030125E+0	9.719570E-1	1.040067E+0	9.244980E-1	1.030863E+0	9.890966E-1	9.557669E-1	1.035783E+0	1.008134E+0	1.018959E+0	9.616340E-1	9.095483E-1	1.026470E+0	1.021703E+0	9.992224E-1	8.524482E-1	1.014881E+0	9.973939E-1	1.041397E+0	6.913844E-1	1.020677E+0	1.077771E+0	9.462253E-1	9.393096E-1
5.560190E+2	1.041916E+0	9.692135E-1	1.023527E+0	1.059325E+0	9.636704E-1	1.045042E+0	1.100341E+0	1.021285E+0	1.034603E+0	1.020314E+0	9.737537E-1	9.769181E-1	1.011829E+0	1.011762E+0	9.913206E-1	1.020578E+0	9.820842E-1	1.006896E+0	1.072393E+0	1.033111E+0	9.676087E-1	9.859155E-1	9.460508E-1	9.793667E-1	9.756816E-1	1.010764E+0	9.948539E-1	1.037039E+0	1.010171E+0	9.828481E-1	1.006126E+0	9.715345E-1	9.851629E-1	9.855347E-1	1.017291E+0	9.899719E-1	9.825066E-1	9.597787E-1	1.003709E+0	1.003185E+0	1.036706E+0	1.013096E+0	1.024357E+0	1.013918E+0	9.788726E-1	1.035364E+0	1.009280E+0	1.017022E+0	1.043067E+0	9.912558E-1	1.037011E+0	9.941122E-1	1.004224E+0	1.010170E+0	1.029895E+0	1.034450E+0	9.720956E-1	9.767942E-1	1.018251E+0	1.053390E+0	1.003417E+0	1.006704E+0	1.033706E+0	1.000177E+0	1.042558E+0	9.110087E-1	9.899551E-1	1.055388E+0	9.861086E-1	9.846670E-1	1.007524E+0	1.016139E+0	1.021177E+0	1.052211E+0	9.737148E-1	1.055921E+0	1.016579E+0	9.907911E-1	9.497630E-1	9.597217E-1	1.029471E+0	1.034120E+0	9.922117E-1	9.655614E-1	1.030311E+0	9.567367E-1	9.866712E-1	1.077230E+0	9.763466E-1	9.865115E-1	1.011511E+0	1.023552E+0	1.001759E+0	9.650001E-1	9.911576E-1	1.023755E+0	9.877878E-1	1.024937E+0	9.822690E-1	1.015783E+0	9.852395E-1	1.045583E+0	1.059441E+0	9.980059E-1	1.031929E+0	1.060319E+0	9.994572E-1	1.058435E+0	1.021329E+0	1.039432E+0	1.029549E+0	1.022358E+0	9.822227E-1	9.900385E-1	1.010823E+0	1.004102E+0	1.022647E+0	9.855296E-1	9.941411E-1	1.000655E+0	1.021849E+0	1.031318E+0	9.816350E-1	1.067126E+0	1.015917E+0	1.017281E+0	9.990802E-1	9.865021E-1	9.580229E-1	1.061800E+0	1.025631E+0	1.020296E+0	1.008312E+0	1.035814E+0	9.856587E-1	9.878690E-1	9.148357E-1	9.869758E-1	9.573214E-1	1.013972E+0	9.428833E-1	9.955869E-1	1.017623E+0	1.037656E+0	8.951971E-1	1.013962E+0	1.021531E+0	1.020579E+0	9.300755E-1	9.950374E-1	9.910064E-1	9.856844E-1	9.781627E-1	9.728683E-1	1.060673E+0	1.017740E+0	8.098736E-1	9.996539E-1	1.016464E+0	1.037622E+0	8.328554E-1	1.039139E+0	1.039580E+0	1.053424E+0	9.202585E-1
5.565030E+2	9.991025E-1	9.412254E-1	9.587732E-1	1.016692E+0	9.455733E-1	9.949952E-1	1.014211E+0	9.915690E-1	9.895502E-1	9.711900E-1	9.583810E-1	9.861243E-1	1.016585E+0	9.943786E-1	9.739628E-1	1.016848E+0	9.901237E-1	9.602824E-1	1.016996E+0	9.325623E-1	9.946944E-1	1.007800E+0	1.038403E+0	1.040864E+0	1.007020E+0	9.734334E-1	9.782966E-1	1.015214E+0	1.042757E+0	9.864338E-1	9.998100E-1	1.038892E+0	1.053562E+0	9.916637E-1	1.013238E+0	9.448139E-1	9.914012E-1	9.951502E-1	1.009093E+0	9.912424E-1	1.045181E+0	1.001251E+0	1.022377E+0	9.799121E-1	9.622062E-1	9.758112E-1	9.557154E-1	1.006057E+0	9.725613E-1	1.013278E+0	9.998108E-1	9.709295E-1	1.016292E+0	9.869747E-1	1.000871E+0	9.832928E-1	9.987285E-1	1.013651E+0	1.017634E+0	1.036127E+0	1.018431E+0	1.004807E+0	1.015375E+0	9.777640E-1	9.882556E-1	8.547502E-1	1.001186E+0	1.030637E+0	1.006132E+0	9.846672E-1	1.005263E+0	1.011793E+0	9.862116E-1	9.667228E-1	1.002777E+0	1.024888E+0	9.611287E-1	9.928374E-1	9.904097E-1	9.932878E-1	1.054083E+0	9.982767E-1	1.024163E+0	9.648549E-1	9.741092E-1	9.701569E-1	1.005795E+0	1.011762E+0	1.006740E+0	1.064785E+0	1.034901E+0	9.687803E-1	1.006160E+0	9.903089E-1	9.941864E-1	9.905628E-1	9.818598E-1	1.000200E+0	9.952765E-1	1.001246E+0	1.013058E+0	1.028168E+0	1.027873E+0	1.021468E+0	9.840644E-1	9.921094E-1	1.009640E+0	1.039203E+0	9.975727E-1	1.012346E+0	9.675317E-1	1.016053E+0	1.011647E+0	9.398895E-1	9.800835E-1	1.023244E+0	1.002900E+0	1.005318E+0	1.024890E+0	9.917056E-1	9.906369E-1	9.787885E-1	9.939213E-1	9.783135E-1	1.014822E+0	1.006647E+0	9.951379E-1	9.636971E-1	9.740788E-1	9.800272E-1	1.021748E+0	1.014019E+0	9.984983E-1	9.822144E-1	9.905620E-1	1.036274E+0	1.017160E+0	9.769569E-1	9.995379E-1	9.929819E-1	9.829847E-1	9.859926E-1	1.009262E+0	1.017171E+0	9.769675E-1	1.043355E+0	9.946173E-1	9.697986E-1	1.017399E+0	9.957268E-1	1.010452E+0	1.000573E+0	9.513137E-1	9.966912E-1	9.695429E-1	9.956399E-1	8.688701E-1	1.027339E+0	1.010743E+0	9.967283E-1	9.056280E-1	1.044678E+0	9.817150E-1	1.009490E+0	1.023677E+0
5.570440E+2	1.044678E+0	1.009401E+0	1.014893E+0	1.023195E+0	1.051477E+0	1.000358E+0	1.041280E+0	1.035797E+0	1.010199E+0	9.838025E-1	1.002790E+0	1.030184E+0	9.912334E-1	9.874265E-1	1.039344E+0	9.646252E-1	9.901231E-1	1.049040E+0	9.899281E-1	9.934036E-1	1.008804E+0	9.797403E-1	1.013852E+0	1.055234E+0	9.951113E-1	1.007030E+0	1.012006E+0	1.001496E+0	1.006235E+0	9.679071E-1	9.606515E-1	1.015462E+0	1.024326E+0	9.628552E-1	1.015940E+0	1.025169E+0	1.006820E+0	9.683375E-1	9.893514E-1	1.024223E+0	9.995433E-1	1.032181E+0	1.025017E+0	1.022103E+0	1.013278E+0	9.125753E-1	1.004921E+0	1.040098E+0	1.054818E+0	1.010687E+0	9.663932E-1	1.011027E+0	1.001207E+0	1.044667E+0	9.695228E-1	1.012136E+0	9.860173E-1	9.733815E-1	1.026883E+0	1.003517E+0	9.666585E-1	1.018721E+0	9.781194E-1	1.031440E+0	1.019826E+0	8.720111E-1	9.456584E-1	1.025955E+0	9.842308E-1	1.009899E+0	1.021106E+0	9.873377E-1	1.044269E+0	1.062810E+0	9.698399E-1	1.016976E+0	1.014338E+0	9.362181E-1	1.064718E+0	1.005234E+0	9.922378E-1	1.012752E+0	9.935432E-1	9.995052E-1	1.001263E+0	9.727130E-1	9.791402E-1	9.729625E-1	1.012025E+0	9.948983E-1	1.040442E+0	9.694647E-1	1.012210E+0	1.021790E+0	9.917643E-1	1.033518E+0	1.023950E+0	9.527360E-1	1.041143E+0	1.019244E+0	9.863744E-1	1.038975E+0	9.826092E-1	1.022642E+0	1.023173E+0	1.011502E+0	9.790913E-1	1.004467E+0	1.008418E+0	9.858900E-1	9.608433E-1	1.026372E+0	1.018391E+0	1.002404E+0	1.003778E+0	1.009571E+0	1.029434E+0	9.768726E-1	1.011545E+0	1.028108E+0	1.024849E+0	9.821130E-1	1.012028E+0	1.025818E+0	9.453589E-1	1.029909E+0	9.971085E-1	1.016086E+0	1.048058E+0	1.008250E+0	9.822654E-1	1.028666E+0	1.019856E+0	9.633322E-1	1.027333E+0	1.026944E+0	9.599604E-1	1.025715E+0	1.006794E+0	9.752713E-1	9.841306E-1	1.005181E+0	9.468720E-1	9.400524E-1	1.008995E+0	9.933862E-1	9.732246E-1	1.007216E+0	9.826009E-1	1.014337E+0	9.527240E-1	9.982812E-1	9.906925E-1	9.913972E-1	1.005515E+0	9.926531E-1	1.011799E+0	1.037030E+0	9.834086E-1	1.045801E+0	1.019153E+0	1.011447E+0	9.689839E-1	1.030579E+0	1.018234E+0
5.575190E+2	1.057798E+0	9.878722E-1	9.997841E-1	9.509361E-1	9.623302E-1	9.985705E-1	1.018518E+0	1.017138E+0	9.908015E-1	1.015003E+0	9.714757E-1	9.927008E-1	1.049856E+0	1.018715E+0	9.513983E-1	9.857626E-1	9.763434E-1	9.781616E-1	9.993710E-1	9.844374E-1	1.048304E+0	9.651503E-1	9.641714E-1	1.017874E+0	9.913504E-1	9.765441E-1	9.581898E-1	1.016462E+0	9.562298E-1	9.876289E-1	9.802309E-1	1.012534E+0	9.691652E-1	9.702105E-1	1.031475E+0	9.826675E-1	1.014529E+0	9.843106E-1	9.935390E-1	9.986347E-1	9.728133E-1	9.986180E-1	9.781513E-1	1.024621E+0	9.831734E-1	1.026154E+0	9.943328E-1	9.622084E-1	1.016627E+0	9.867226E-1	1.006746E+0	1.046739E+0	1.010862E+0	9.762690E-1	1.019447E+0	9.996179E-1	1.032021E+0	9.856668E-1	1.024418E+0	1.036767E+0	9.925443E-1	1.028840E+0	1.013602E+0	9.872010E-1	9.850984E-1	8.720113E-1	1.018031E+0	1.014583E+0	1.047433E+0	1.000194E+0	9.905505E-1	1.033530E+0	1.021177E+0	1.026777E+0	1.009235E+0	1.018802E+0	9.857740E-1	1.003069E+0	9.859643E-1	1.029127E+0	1.002966E+0	9.955197E-1	1.010185E+0	1.039105E+0	1.001895E+0	9.727129E-1	1.004636E+0	9.887235E-1	9.855961E-1	9.990915E-1	9.524174E-1	1.025606E+0	1.017162E+0	1.033519E+0	9.693575E-1	9.703870E-1	1.007942E+0	1.004212E+0	9.583093E-1	9.597129E-1	1.017032E+0	9.711130E-1	9.921383E-1	1.009151E+0	9.753088E-1	1.010833E+0	1.070736E+0	9.901993E-1	1.012550E+0	9.657335E-1	9.778679E-1	9.896796E-1	9.693493E-1	1.003091E+0	1.030675E+0	9.719701E-1	9.911762E-1	1.023869E+0	9.865976E-1	9.905106E-1	1.028450E+0	9.980716E-1	1.000387E+0	9.879518E-1	1.004431E+0	9.621157E-1	9.543969E-1	1.005610E+0	1.008486E+0	1.037919E+0	1.012039E+0	1.047497E+0	1.012930E+0	9.779503E-1	9.985289E-1	9.353804E-1	9.904663E-1	1.005009E+0	1.002177E+0	9.654323E-1	9.915783E-1	1.038440E+0	1.008619E+0	1.024401E+0	1.033526E+0	1.007348E+0	9.890964E-1	1.019243E+0	1.027904E+0	9.612623E-1	9.697386E-1	9.742322E-1	1.007994E+0	9.556627E-1	9.869297E-1	9.753324E-1	1.030654E+0	1.027340E+0	1.004386E+0	9.659012E-1	1.038366E+0	1.053909E+0	1.014119E+0	9.585255E-1	9.638042E-1
5.580230E+2	1.030867E+0	1.032365E+0	1.008418E+0	1.005131E+0	1.010591E+0	9.932077E-1	9.416165E-1	9.929511E-1	1.029597E+0	1.026951E+0	1.005637E+0	9.848090E-1	9.917604E-1	9.851087E-1	1.037609E+0	1.012497E+0	1.058451E+0	1.042655E+0	1.000630E+0	1.017740E+0	1.030247E+0	1.034176E+0	1.057690E+0	1.019024E+0	1.030836E+0	1.013253E+0	1.051035E+0	1.015838E+0	1.062425E+0	9.732860E-1	1.014969E+0	1.048848E+0	1.012743E+0	1.013730E+0	9.929757E-1	1.035795E+0	1.031132E+0	1.021394E+0	9.989225E-1	1.035595E+0	1.009323E+0	9.841401E-1	1.041519E+0	1.002582E+0	1.039083E+0	9.825640E-1	1.038554E+0	1.002596E+0	1.026029E+0	9.711776E-1	1.030706E+0	9.778212E-1	1.018102E+0	9.869744E-1	1.002032E+0	1.013770E+0	9.660433E-1	1.012285E+0	1.029965E+0	1.030372E+0	1.022573E+0	1.003543E+0	1.022472E+0	1.034386E+0	1.005936E+0	9.237953E-1	1.047354E+0	9.737782E-1	1.011138E+0	9.646114E-1	1.017710E+0	1.035703E+0	1.023157E+0	1.012646E+0	1.009235E+0	1.025496E+0	1.058026E+0	1.033766E+0	1.018991E+0	9.847539E-1	9.979172E-1	1.052041E+0	1.042803E+0	1.046884E+0	1.047360E+0	1.022558E+0	1.030133E+0	1.020247E+0	1.014668E+0	1.055001E+0	1.012126E+0	9.879503E-1	1.009460E+0	1.071174E+0	1.022649E+0	1.058249E+0	1.041142E+0	1.019588E+0	1.007599E+0	1.022705E+0	1.041443E+0	1.006547E+0	1.048124E+0	9.962462E-1	1.007413E+0	9.894342E-1	1.028648E+0	9.933006E-1	1.059030E+0	1.000378E+0	1.036846E+0	1.024652E+0	1.015938E+0	1.088964E+0	1.056291E+0	9.972651E-1	1.023262E+0	1.000990E+0	1.008644E+0	1.047206E+0	9.660270E-1	1.033313E+0	1.039188E+0	1.000344E+0	1.022480E+0	1.034561E+0	1.008279E+0	1.032111E+0	1.019958E+0	1.035025E+0	1.030810E+0	1.043313E+0	1.031402E+0	1.076016E+0	1.034688E+0	1.038027E+0	1.013346E+0	1.037738E+0	1.009433E+0	1.048735E+0	1.034545E+0	1.004541E+0	1.054929E+0	9.972879E-1	1.014446E+0	1.023514E+0	1.027051E+0	1.011894E+0	1.006894E+0	1.028123E+0	1.032935E+0	1.020615E+0	1.005608E+0	1.074778E+0	1.067868E+0	1.012962E+0	1.003892E+0	9.795813E-1	1.020278E+0	1.032590E+0	9.947021E-1	1.008677E+0	1.016433E+0	1.067483E+0	9.638037E-1
5.585220E+2	1.014294E+0	1.022318E+0	1.004101E+0	1.039815E+0	1.050137E+0	1.018827E+0	1.035744E+0	1.021976E+0	1.020837E+0	9.751726E-1	1.052324E+0	1.025581E+0	1.019753E+0	9.752583E-1	9.866919E-1	1.035499E+0	1.048116E+0	1.024137E+0	1.032733E+0	1.036313E+0	1.034761E+0	1.044276E+0	9.969012E-1	1.001782E+0	1.009527E+0	9.777885E-1	1.021466E+0	9.852846E-1	1.049502E+0	1.011534E+0	9.947578E-1	1.036550E+0	1.015499E+0	9.977933E-1	1.004458E+0	1.023841E+0	1.016306E+0	9.500798E-1	1.025843E+0	1.035595E+0	1.008019E+0	9.597904E-1	9.986139E-1	9.660589E-1	1.019192E+0	9.788792E-1	1.042292E+0	9.991349E-1	1.035430E+0	1.007448E+0	1.004224E+0	9.941107E-1	9.921555E-1	1.031582E+0	1.032797E+0	1.027920E+0	1.010835E+0	1.055967E+0	1.018252E+0	1.015026E+0	1.054154E+0	9.972169E-1	9.881740E-1	1.027899E+0	1.037506E+0	1.129013E+0	1.047978E+0	1.005887E+0	1.009262E+0	1.048068E+0	1.025066E+0	9.895123E-1	1.010622E+0	1.035962E+0	1.040881E+0	9.701230E-1	1.008178E+0	1.051503E+0	1.046934E+0	1.053022E+0	9.934999E-1	9.989660E-1	1.034814E+0	1.015769E+0	1.044835E+0	1.051954E+0	1.006952E+0	1.045102E+0	1.009383E+0	1.015864E+0	9.955069E-1	1.044776E+0	9.913096E-1	9.970987E-1	1.025677E+0	9.697364E-1	1.036399E+0	1.021593E+0	9.904846E-1	1.034473E+0	1.001135E+0	1.044381E+0	9.909463E-1	9.962460E-1	1.030177E+0	9.947836E-1	1.005566E+0	1.005706E+0	1.029594E+0	1.048250E+0	1.042318E+0	1.022359E+0	1.026360E+0	1.005840E+0	9.698375E-1	1.052642E+0	1.025114E+0	1.033145E+0	1.005745E+0	1.066901E+0	1.003241E+0	1.030653E+0	1.018494E+0	1.021687E+0	1.019746E+0	1.042537E+0	1.021422E+0	1.021634E+0	9.608894E-1	1.008250E+0	1.045697E+0	1.001465E+0	1.027937E+0	1.059570E+0	9.985291E-1	1.045023E+0	1.010804E+0	1.056438E+0	1.010752E+0	1.053983E+0	1.033400E+0	1.033323E+0	1.025985E+0	1.025606E+0	1.009676E+0	9.875083E-1	1.089160E+0	1.057328E+0	1.004924E+0	1.003309E+0	1.073041E+0	1.043521E+0	1.042004E+0	1.025809E+0	1.030697E+0	9.914569E-1	1.061674E+0	1.042567E+0	1.001208E+0	1.052720E+0	9.929551E-1	1.007754E+0	1.074298E+0	1.023548E+0	1.020955E+0
5.590210E+2	9.735524E-1	9.936128E-1	1.042954E+0	9.776718E-1	1.002547E+0	9.485222E-1	9.748381E-1	9.680735E-1	9.845444E-1	9.844660E-1	1.005067E+0	1.019005E+0	9.606001E-1	9.543991E-1	1.011571E+0	9.863844E-1	9.803629E-1	9.979568E-1	9.723021E-1	1.008774E+0	9.478585E-1	9.831083E-1	9.887192E-1	9.736193E-1	9.543720E-1	9.392135E-1	9.741572E-1	9.734368E-1	9.832003E-1	9.039605E-1	9.404410E-1	1.013120E+0	1.002262E+0	9.279173E-1	9.456959E-1	9.441496E-1	1.005041E+0	9.746119E-1	9.785839E-1	9.412063E-1	1.023666E+0	9.880880E-1	1.000594E+0	1.003211E+0	9.718830E-1	9.690575E-1	9.793836E-1	9.702875E-1	9.237948E-1	9.841311E-1	9.682851E-1	9.565194E-1	9.957763E-1	9.721056E-1	9.793917E-1	9.457403E-1	9.854125E-1	9.522234E-1	1.004069E+0	9.606760E-1	9.868503E-1	1.005439E+0	9.657008E-1	9.789432E-1	9.623678E-1	1.042066E+0	1.015535E+0	9.811360E-1	1.000501E+0	1.009252E+0	1.006393E+0	9.449516E-1	1.004684E+0	9.667227E-1	9.743608E-1	9.822928E-1	9.650500E-1	9.744195E-1	1.012003E+0	9.949935E-1	9.884515E-1	1.003791E+0	9.995340E-1	9.888978E-1	9.867390E-1	9.580153E-1	9.855136E-1	9.662955E-1	9.855968E-1	9.669431E-1	9.955064E-1	1.014652E+0	9.852592E-1	9.563573E-1	9.972142E-1	9.690855E-1	9.907527E-1	1.011566E+0	9.774775E-1	1.001938E+0	9.585577E-1	9.711120E-1	9.712934E-1	1.011497E+0	1.003327E+0	9.887654E-1	9.641568E-1	9.864774E-1	9.572891E-1	9.606938E-1	1.013741E+0	9.908272E-1	9.926437E-1	9.385150E-1	9.800839E-1	9.870102E-1	9.899423E-1	9.762546E-1	9.865978E-1	9.767847E-1	9.672273E-1	9.688142E-1	9.486552E-1	9.707400E-1	9.688799E-1	9.727495E-1	9.984232E-1	1.011156E+0	9.436854E-1	9.872640E-1	1.009450E+0	9.651965E-1	9.933040E-1	9.858690E-1	9.899491E-1	9.517104E-1	1.026058E+0	9.943227E-1	1.014710E+0	9.942934E-1	1.002463E+0	9.674444E-1	1.004760E+0	1.025003E+0	9.619767E-1	1.022045E+0	9.870262E-1	9.530944E-1	1.006894E+0	9.598829E-1	9.885758E-1	9.862572E-1	1.019928E+0	9.973527E-1	9.851324E-1	9.968331E-1	9.880784E-1	9.401297E-1	9.535311E-1	9.331856E-1	1.030799E+0	9.929841E-1	9.342658E-1	9.550118E-1	9.474751E-1
5.595050E+2	9.549084E-1	9.850013E-1	1.009857E+0	1.026808E+0	9.784171E-1	1.016444E+0	9.637642E-1	9.964063E-1	9.582641E-1	1.057488E+0	1.003928E+0	9.992768E-1	9.980987E-1	9.596131E-1	1.032403E+0	1.037986E+0	1.029168E+0	9.258012E-1	9.968522E-1	9.805949E-1	1.015575E+0	9.769354E-1	9.811205E-1	9.902860E-1	9.681611E-1	9.585012E-1	1.001359E+0	1.013968E+0	9.848852E-1	9.499783E-1	1.031391E+0	9.680198E-1	9.592359E-1	9.714362E-1	9.936504E-1	1.041772E+0	9.836928E-1	1.029952E+0	1.001316E+0	9.849890E-1	1.013235E+0	9.637386E-1	9.920130E-1	9.792826E-1	1.000375E+0	9.776528E-1	9.968236E-1	1.019904E+0	9.784369E-1	9.802452E-1	9.544144E-1	9.753154E-1	9.583657E-1	1.016712E+0	1.003193E+0	1.001253E+0	9.696750E-1	9.788417E-1	1.000986E+0	9.561999E-1	1.008076E+0	9.889949E-1	1.001773E+0	9.901496E-1	9.857301E-1	1.106636E+0	9.506493E-1	9.523717E-1	9.767222E-1	9.956657E-1	9.922483E-1	1.004183E+0	9.591621E-1	1.009114E+0	9.691945E-1	9.877695E-1	1.030583E+0	1.012620E+0	9.732622E-1	9.796331E-1	9.884512E-1	9.686379E-1	9.409559E-1	1.005869E+0	9.867388E-1	9.938013E-1	9.901492E-1	9.863001E-1	1.013346E+0	9.725343E-1	9.831956E-1	1.009859E+0	9.550066E-1	9.822839E-1	1.055955E+0	9.606249E-1	9.534050E-1	9.567465E-1	1.016498E+0	1.015090E+0	1.005109E+0	9.993398E-1	1.014771E+0	9.651578E-1	9.589647E-1	1.039589E+0	9.410757E-1	9.976433E-1	1.012551E+0	9.953388E-1	1.018606E+0	9.891076E-1	9.803831E-1	9.577504E-1	1.001857E+0	9.630828E-1	9.967297E-1	1.000990E+0	9.982026E-1	9.648492E-1	9.894360E-1	1.006716E+0	9.751681E-1	9.913943E-1	9.874747E-1	1.015951E+0	1.026679E+0	1.010540E+0	9.631836E-1	1.016934E+0	9.524909E-1	9.958851E-1	9.927269E-1	9.852598E-1	1.005883E+0	9.528761E-1	9.631382E-1	9.816325E-1	9.579811E-1	1.004788E+0	1.018503E+0	9.706421E-1	1.000257E+0	1.008737E+0	1.021942E+0	9.728115E-1	9.325092E-1	1.008553E+0	1.002955E+0	9.964161E-1	1.020175E+0	9.839658E-1	9.823392E-1	9.688973E-1	9.725408E-1	1.029089E+0	1.009974E+0	9.615863E-1	9.700591E-1	1.015603E+0	9.912093E-1	9.422144E-1	9.932876E-1	1.005976E+0	9.964611E-1
5.600410E+2	9.328110E-1	9.763901E-1	9.746022E-1	1.008743E+0	9.991957E-1	1.002145E+0	9.797598E-1	9.570162E-1	1.019585E+0	1.003717E+0	9.566721E-1	9.834941E-1	9.769725E-1	1.004231E+0	9.647035E-1	9.919798E-1	9.482099E-1	9.851856E-1	9.420862E-1	1.043357E+0	9.732511E-1	1.007801E+0	9.554014E-1	9.494804E-1	1.000752E+0	9.833879E-1	9.747496E-1	9.516134E-1	9.404974E-1	1.007949E+0	1.034548E+0	9.375632E-1	9.884704E-1	9.616293E-1	9.646077E-1	1.009231E+0	9.629387E-1	9.563552E-1	9.947368E-1	9.775970E-1	9.597740E-1	9.854563E-1	1.004554E+0	9.767643E-1	1.003066E+0	9.616901E-1	9.930855E-1	9.737485E-1	1.003700E+0	9.355541E-1	9.903530E-1	1.003508E+0	9.927593E-1	9.334460E-1	1.012482E+0	1.008327E+0	1.003571E+0	9.570005E-1	9.430272E-1	9.920070E-1	9.630350E-1	9.889951E-1	1.032524E+0	9.659672E-1	9.996212E-1	1.063803E+0	9.849637E-1	1.023279E+0	9.967451E-1	9.781978E-1	9.447176E-1	9.944022E-1	9.459679E-1	9.879188E-1	1.002777E+0	9.755992E-1	9.600088E-1	9.866976E-1	9.421409E-1	9.272952E-1	1.004229E+0	9.838018E-1	1.006856E+0	9.818261E-1	9.797927E-1	9.733517E-1	9.739238E-1	9.899369E-1	9.677572E-1	1.005381E+0	9.875047E-1	1.002328E+0	1.008910E+0	9.779630E-1	9.960036E-1	1.004881E+0	9.753390E-1	9.854932E-1	1.013760E+0	9.555596E-1	9.858062E-1	9.200650E-1	9.909471E-1	9.651577E-1	9.963225E-1	9.733842E-1	1.016428E+0	9.294083E-1	9.980881E-1	9.902994E-1	9.766524E-1	9.443892E-1	1.022068E+0	1.009961E+0	1.028114E+0	9.699187E-1	9.819205E-1	9.502819E-1	9.773139E-1	9.630585E-1	1.000841E+0	1.012700E+0	1.015261E+0	1.013425E+0	9.956784E-1	9.813904E-1	1.016165E+0	9.593825E-1	1.034868E+0	9.706201E-1	9.738508E-1	9.714736E-1	9.355826E-1	9.499320E-1	9.691117E-1	9.843708E-1	1.003813E+0	9.669379E-1	9.757910E-1	1.011348E+0	1.008193E+0	1.005181E+0	9.494450E-1	9.780090E-1	9.647021E-1	9.933868E-1	1.031192E+0	1.015902E+0	9.661869E-1	1.001241E+0	9.873606E-1	9.919828E-1	1.017543E+0	9.927206E-1	9.839322E-1	1.009975E+0	9.838213E-1	9.830426E-1	1.005658E+0	9.734508E-1	1.017406E+0	9.865226E-1	9.875016E-1	9.128338E-1	1.075386E+0
5.604980E+2	1.015675E+0	9.814135E-1	1.001223E+0	9.747814E-1	9.965142E-1	1.024190E+0	1.032053E+0	1.046854E+0	9.782875E-1	1.018321E+0	1.015885E+0	9.828366E-1	9.980981E-1	1.091145E+0	1.050918E+0	9.988185E-1	9.878285E-1	1.006896E+0	1.045953E+0	1.020942E+0	9.636582E-1	1.006118E+0	1.009762E+0	1.004081E+0	1.051519E+0	1.064893E+0	1.009640E+0	1.023944E+0	9.742109E-1	1.102373E+0	1.006126E+0	9.604058E-1	9.675109E-1	1.132030E+0	1.019992E+0	9.959491E-1	9.848784E-1	1.063612E+0	9.995211E-1	1.006027E+0	9.780291E-1	9.808494E-1	9.913532E-1	1.033438E+0	1.012206E+0	1.006509E+0	1.006167E+0	1.014136E+0	9.790254E-1	9.297248E-1	1.002333E+0	1.006014E+0	1.016895E+0	1.019092E+0	9.851975E-1	9.773045E-1	1.044732E+0	1.031397E+0	9.874219E-1	9.984016E-1	1.009113E+0	9.763458E-1	9.994091E-1	9.966369E-1	9.933065E-1	1.083620E+0	9.674946E-1	9.891633E-1	1.001126E+0	9.866071E-1	1.016579E+0	1.009076E+0	9.796137E-1	9.801465E-1	1.023443E+0	1.000548E+0	1.026100E+0	1.033085E+0	1.006288E+0	1.026283E+0	1.018742E+0	9.968985E-1	9.975368E-1	9.995050E-1	9.741095E-1	1.072403E+0	1.056787E+0	1.029340E+0	1.003436E+0	9.466764E-1	9.911977E-1	1.001643E+0	1.011663E+0	9.798142E-1	9.772302E-1	1.032867E+0	9.741531E-1	1.013571E+0	9.986996E-1	9.922474E-1	1.013626E+0	1.012552E+0	9.695065E-1	1.044930E+0	9.823139E-1	1.026214E+0	1.004888E+0	1.026177E+0	9.758815E-1	1.007307E+0	1.014349E+0	1.002293E+0	9.883528E-1	1.026449E+0	9.595904E-1	1.035550E+0	9.782181E-1	1.000371E+0	9.999415E-1	1.003640E+0	1.009844E+0	1.012036E+0	9.803417E-1	1.031325E+0	1.024666E+0	9.601211E-1	1.017479E+0	9.612317E-1	1.026838E+0	9.916057E-1	1.019806E+0	9.596168E-1	9.933054E-1	1.039469E+0	1.005272E+0	1.040358E+0	9.961868E-1	1.015028E+0	1.010752E+0	9.916702E-1	1.004755E+0	9.879112E-1	9.726000E-1	1.018978E+0	1.008313E+0	9.617888E-1	1.000828E+0	9.818262E-1	1.025278E+0	1.037773E+0	1.006198E+0	9.851114E-1	1.009784E+0	9.947063E-1	9.851317E-1	1.011768E+0	9.953776E-1	9.871952E-1	1.013286E+0	1.027556E+0	1.004017E+0	9.846765E-1	1.059253E+0	1.069241E+0	9.746906E-1
5.610070E+2	9.763148E-1	1.070400E+0	9.853943E-1	9.762266E-1	1.003218E+0	1.002740E+0	9.982159E-1	9.722193E-1	1.018334E+0	9.638876E-1	1.027841E+0	9.959886E-1	9.970433E-1	1.029724E+0	9.513968E-1	9.695983E-1	9.912727E-1	1.029884E+0	1.003148E+0	9.818757E-1	9.828465E-1	9.948948E-1	9.939795E-1	9.477545E-1	9.913509E-1	1.105956E+0	1.019100E+0	1.002743E+0	1.000057E+0	1.108949E+0	1.037074E+0	9.686047E-1	1.007225E+0	1.070734E+0	1.017966E+0	9.966129E-1	1.003261E+0	1.056197E+0	1.009093E+0	1.004890E+0	9.904162E-1	1.105888E+0	9.458069E-1	1.012027E+0	9.955384E-1	1.209107E+0	9.887266E-1	1.011829E+0	1.009577E+0	1.181032E+0	1.076734E+0	1.058016E+0	9.975862E-1	1.032177E+0	9.950658E-1	1.030639E+0	1.002965E+0	1.039587E+0	9.473431E-1	9.709069E-1	9.785651E-1	9.870977E-1	9.828508E-1	1.009613E+0	1.022352E+0	1.052295E+0	1.021151E+0	1.003211E+0	9.667093E-1	1.022838E+0	9.803651E-1	9.895112E-1	1.025136E+0	9.511795E-1	9.982566E-1	9.975055E-1	9.908138E-1	9.757836E-1	9.592893E-1	1.006371E+0	9.594218E-1	9.893161E-1	9.496097E-1	9.577833E-1	1.003158E+0	1.012333E+0	9.669701E-1	9.893308E-1	1.001453E+0	9.788238E-1	1.007202E+0	9.749417E-1	1.002860E+0	9.896911E-1	9.699635E-1	1.010088E+0	1.015058E+0	1.034295E+0	1.000753E+0	9.977849E-1	9.778598E-1	1.007747E+0	1.011792E+0	9.675049E-1	1.038935E+0	9.733846E-1	9.797704E-1	1.027418E+0	9.490259E-1	1.033763E+0	9.912448E-1	9.942679E-1	9.748660E-1	1.027135E+0	9.896894E-1	9.897452E-1	9.813033E-1	1.031908E+0	1.000522E+0	9.672360E-1	1.019447E+0	9.767937E-1	1.016555E+0	9.790012E-1	1.016463E+0	9.940180E-1	9.649101E-1	1.018552E+0	1.019956E+0	9.641069E-1	9.518435E-1	9.728683E-1	9.944584E-1	9.803871E-1	9.801431E-1	9.890364E-1	1.019067E+0	9.402221E-1	1.012071E+0	9.614968E-1	9.394463E-1	1.001343E+0	1.027271E+0	9.647546E-1	9.994548E-1	9.948564E-1	9.752949E-1	9.751439E-1	9.589647E-1	1.001930E+0	9.588008E-1	1.015460E+0	9.727924E-1	1.001985E+0	1.012710E+0	9.842910E-1	1.045860E+0	1.014189E+0	1.037442E+0	9.564640E-1	1.005764E+0	9.671378E-1	9.701420E-1	9.673122E-1	1.015512E+0
