Photon Energy (eV)	#1	#2	#3	#4	#5	#6	#7	#8	#9	#10	#11	#12	#13	#14	#15	#16	#17	#18	#19	#20	#21	#22	#23	#24	#25	#26	#27	#28	#29	#30	#31	#32	#33	#34	#35	#36	#37	#38	#39	#40	#41	#42	#43	#44	#45	#46	#47	#48	#49	#50	#51	#52	#53	#54	#55	#56	#57	#58	#59	#60	#61	#62	#63	#64	#65	#66	#67	#68	#69	#70	#71	#72	#73	#74	#75	#76	#77	#78	#79	#80	#81	#82	#83	#84	#85	#86	#87	#88	#89	#90	#91	#92	#93	#94	#95	#96	#97	#98	#99	#100	#101	#102	#103	#104	#105	#106	#107	#108	#109	#110	#111	#112	#113	#114	#115	#116	#117	#118	#119	#120	#121	#122	#123	#124	#125	#126	#127	#128	#129	#130	#131	#132	#133	#134	#135	#136	#137	#138	#139	#140	#141	#142	#143	#144	#145	#146	#147	#148	#149	#150	#151	#152	#153	#154	#155	#156	#157	#158	#159	#160	#161	#162	#163	#164	#165	#166	#167	#168	#169	#170	#171	
2.790030E+2	1.028736E-2	-5.926345E-3	-1.573534E-2	-1.125974E-3	-3.942047E-3	6.038742E-3	-1.334369E-2	8.230575E-3	7.585339E-3	-2.534934E-3	7.156375E-3	6.311993E-3	-6.541531E-3	-2.379287E-4	5.762622E-3	-1.376091E-2	9.216998E-3	-1.867848E-2	1.431002E-3	3.935121E-3	-8.007399E-4	1.889422E-2	-7.452863E-4	-8.072994E-3	5.685348E-3	1.145624E-3	-1.327425E-2	-7.750234E-3	-6.946116E-3	-1.419747E-2	2.351700E-3	-1.012216E-2	-5.234986E-3	-1.187842E-2	-9.650285E-3	1.513596E-2	1.851349E-3	-8.165839E-3	-8.056620E-3	-2.712352E-2	7.758054E-3	6.535878E-3	1.083922E-2	2.186903E-4	-2.080296E-2	-7.515996E-3	-1.163669E-2	-5.393214E-3	3.201220E-3	-2.795925E-3	1.467446E-3	-5.665459E-3	-9.523521E-3	2.234940E-3	-5.542894E-4	-1.604247E-2	-4.831428E-4	2.558462E-3	9.270760E-3	-1.769415E-3	1.481338E-2	-2.260524E-3	-1.403833E-2	-1.615868E-3	3.507625E-3	-6.659022E-3	2.053779E-2	-1.417021E-2	6.950473E-3	-7.164733E-3	-1.007164E-2	-2.978296E-3	-1.949380E-2	5.724555E-3	-7.149277E-5	-1.247765E-2	6.254869E-3	-6.356906E-3	1.160525E-2	2.035546E-3	1.292454E-3	-1.051975E-3	-6.016026E-3	5.850032E-3	2.573050E-4	6.686793E-4	-1.121183E-2	-1.827272E-2	7.092363E-3	-4.763088E-3	-5.967962E-3	-2.148098E-3	-1.080095E-2	1.070652E-2	-7.749512E-3	-5.468598E-3	-6.786703E-5	-3.939752E-3	8.538607E-3	3.466899E-3	5.620878E-3	-5.243287E-3	-7.464970E-3	1.032958E-2	-1.219947E-2	-1.478374E-3	-1.715819E-2	-7.126427E-3	-1.175573E-2	-6.685332E-3	9.805079E-3	-2.415265E-3	3.668395E-4	3.273450E-3	-1.748837E-3	3.373634E-3	3.878222E-3	-1.677754E-2	-2.544007E-3	9.503510E-3	8.338074E-3	-8.761624E-4	-9.630560E-3	4.795037E-3	-1.058300E-2	8.653369E-3	-2.686457E-4	5.168017E-3	-3.296487E-3	9.107317E-3	-1.687300E-2	4.973296E-3	-1.419038E-2	-1.536412E-2	-5.499100E-3	8.483401E-3	3.820717E-3	-1.179510E-2	-9.054586E-4	-9.123265E-3	-9.977208E-3	-3.604757E-3	-2.734026E-3	5.259005E-3	1.324137E-3	-3.205836E-3	-3.634777E-3	-1.053133E-2	9.655390E-3	8.013107E-3	-7.269277E-3	-1.255808E-2	-5.126131E-3	-1.373390E-4	4.780199E-3	2.523620E-3	-9.647482E-3	-4.194677E-3	1.749221E-3	-1.123652E-2	3.069015E-3	9.624120E-3	-1.068984E-2	2.558093E-3	7.858369E-3	-5.745853E-3	4.658960E-3	1.405834E-2	-8.760922E-3	-6.073970E-4	-1.537969E-2
2.795060E+2	-6.486039E-3	1.017014E-3	-7.707284E-3	2.986807E-3	5.698174E-3	-7.759059E-3	-4.723255E-3	-8.950864E-3	-1.644364E-2	-6.354179E-4	3.258456E-3	-6.141337E-3	-2.562308E-3	-1.385877E-3	5.559044E-3	-4.787503E-3	-3.986348E-3	5.434195E-3	-9.777351E-3	-8.875732E-3	6.935050E-3	-2.822991E-3	-1.044868E-2	-3.194348E-3	-1.650171E-2	-6.441058E-3	3.228622E-3	1.477078E-3	4.972498E-3	5.793795E-3	3.995833E-3	-9.567762E-3	8.446098E-3	-2.996750E-3	-7.688257E-3	1.813391E-3	-7.559965E-3	-2.645756E-3	-9.925164E-3	9.938879E-3	-1.029384E-2	-1.041608E-2	-7.838230E-3	-1.472423E-2	1.398975E-2	8.675634E-3	1.133330E-6	-4.736818E-3	7.149693E-3	-3.976531E-3	-5.446336E-3	-1.932633E-2	-8.741720E-3	-9.652157E-3	-2.099976E-2	8.813516E-3	5.095782E-3	-2.879854E-3	1.339022E-3	-9.952921E-3	-8.460786E-4	-8.469515E-3	-7.564627E-3	4.619627E-4	-5.062106E-3	-6.252811E-3	6.669276E-4	-9.347113E-3	-2.319101E-2	-2.664966E-3	1.363096E-2	-1.353029E-2	2.074407E-4	6.519641E-4	9.320698E-3	-8.617982E-3	-7.854133E-3	-2.452699E-2	8.602698E-3	-1.475133E-2	-1.024324E-2	-8.568945E-3	-7.855322E-3	8.932434E-4	-6.639274E-3	-2.210405E-3	-6.412528E-3	5.487939E-3	-7.545686E-3	-4.473538E-3	2.296775E-3	1.340157E-3	-5.149045E-3	4.039010E-4	1.385853E-3	-6.621833E-3	-1.385631E-2	-7.984529E-3	-4.779996E-3	-1.173958E-2	-2.054190E-2	-3.371558E-3	-4.179709E-3	3.393341E-3	3.906712E-3	-4.299679E-3	1.297230E-2	-1.152044E-2	-6.977977E-3	1.543707E-2	-1.487961E-3	-9.300040E-3	5.409279E-3	7.694656E-3	-1.663930E-2	-1.948875E-2	5.649261E-3	9.331168E-4	-1.400417E-2	-2.647581E-2	-1.199682E-2	-3.739379E-3	-1.038731E-4	1.599292E-4	-8.769249E-3	-8.641291E-3	3.980119E-2	-1.048839E-2	-4.433931E-3	1.170946E-2	5.515957E-3	5.518915E-3	-1.661858E-2	2.593064E-3	-5.143693E-3	-1.550101E-2	1.081387E-3	-1.118255E-2	-1.112685E-2	7.818421E-3	-4.489583E-3	-8.734037E-3	2.489598E-3	-1.278127E-3	1.678591E-3	8.731728E-7	8.539228E-3	-8.046654E-3	-5.197070E-3	-1.630509E-2	1.470404E-2	-3.409937E-3	1.727840E-2	-4.499780E-3	-9.300164E-3	-1.004604E-2	-7.568859E-3	3.967600E-3	-2.691989E-3	-1.219111E-2	3.466798E-3	9.600623E-3	-3.403352E-3	-1.150341E-2	-5.359098E-3	-7.001994E-4	-8.049187E-3	-1.160347E-2	-9.859254E-3	-2.338444E-2	-3.336297E-2
2.800000E+2	4.830176E-3	-5.752604E-3	1.289603E-3	-1.480854E-2	2.544128E-3	3.763318E-3	-8.842808E-3	-1.215489E-2	-1.949443E-2	8.037104E-4	-3.252799E-3	-1.162500E-2	4.809139E-3	-1.436166E-3	5.518444E-3	1.499914E-2	-5.512091E-3	6.908665E-3	2.610199E-3	-1.350529E-3	-2.098581E-3	-1.006336E-2	-7.880820E-4	2.640939E-3	2.824928E-3	-8.104259E-3	-5.868456E-3	-3.755467E-3	-4.269775E-3	-8.592988E-3	-3.042369E-3	8.996387E-3	-7.897986E-3	2.491321E-3	3.113895E-3	-1.511648E-2	-8.970616E-3	-1.416186E-3	8.126842E-3	-4.081952E-3	-2.814389E-3	-1.046962E-2	-3.294101E-3	-3.985595E-3	-9.374984E-3	-1.481179E-2	-1.055806E-2	-1.594810E-2	-3.407974E-3	3.055207E-3	1.343620E-3	9.914594E-3	1.388832E-2	9.048079E-3	-3.217257E-4	-9.738129E-3	-1.189082E-2	-9.886137E-3	-4.243688E-4	7.193660E-3	-7.976609E-3	-8.585075E-3	1.587905E-3	2.137174E-3	8.374130E-4	-4.862950E-3	-8.165235E-3	-4.736098E-5	-6.028698E-3	1.476689E-3	-1.474403E-3	-5.792088E-3	1.915126E-2	-1.032373E-2	-1.130030E-2	1.086435E-2	-9.194668E-3	1.390749E-2	-7.737662E-3	-5.179884E-3	3.954475E-5	-5.407278E-3	-1.333572E-2	1.375059E-2	4.660075E-3	-2.210710E-3	-1.848987E-2	-8.992299E-3	-1.941723E-4	-1.488071E-3	-9.425197E-3	-1.903445E-2	-1.178112E-2	-2.140872E-3	-1.296658E-2	-1.965015E-3	-6.890702E-3	8.908815E-4	-1.312139E-4	-8.049521E-3	-9.519950E-3	-1.868002E-3	4.413467E-4	-7.438125E-3	3.881679E-3	-7.551365E-3	4.594133E-3	-1.685969E-3	7.032250E-3	-2.617647E-3	9.805669E-3	-7.878575E-3	3.746975E-3	-1.758472E-2	-1.668601E-2	-9.532290E-3	1.331797E-2	1.373276E-2	9.485691E-3	1.242867E-2	-1.202927E-2	-8.589599E-3	3.349126E-3	-6.568613E-3	-1.625808E-3	-1.525962E-2	-1.264264E-2	-1.773932E-2	1.476383E-3	-1.388399E-2	-1.257975E-2	-2.595909E-2	3.478816E-4	-4.736479E-3	-1.561764E-2	2.293604E-2	-1.962639E-2	-1.395653E-3	-7.596028E-3	-4.657724E-3	-6.691638E-4	6.000876E-3	-1.540379E-2	-9.962553E-3	-8.568523E-3	-1.460283E-2	-1.161199E-2	-2.863272E-3	-9.677442E-3	-2.205401E-2	-9.995962E-3	2.380065E-3	-9.575737E-3	-1.394725E-3	-1.362726E-3	4.430536E-3	-1.486689E-3	-1.849556E-2	2.080744E-3	1.701264E-2	-1.674273E-3	-5.849268E-5	-3.450622E-3	-3.389158E-4	6.504908E-3	-9.893497E-3	-1.774348E-2	6.899844E-3	-4.334446E-3	2.553705E-3	-2.480040E-2
2.805050E+2	-4.756729E-3	-7.964171E-3	-3.864976E-3	-1.482706E-2	-1.293761E-2	-5.470767E-3	2.059940E-3	9.721668E-3	-7.548540E-3	-2.280570E-3	-3.302824E-3	1.879711E-2	1.710867E-2	-7.829636E-3	-8.703305E-3	-4.928153E-3	-2.625169E-3	-8.725748E-3	-3.642717E-3	-1.281772E-2	-1.238753E-2	-8.680820E-3	-8.350093E-4	-3.772068E-4	4.241127E-3	1.572980E-2	-7.202965E-3	-2.119945E-3	-3.009918E-3	6.972911E-3	1.322832E-2	-1.934864E-3	2.385377E-3	-1.139297E-2	1.710257E-3	6.686235E-3	3.162374E-3	-1.833933E-4	1.108931E-3	1.425807E-3	-1.342737E-2	5.095064E-3	-1.825609E-3	1.136563E-2	6.997197E-3	7.327092E-3	5.153782E-3	2.575993E-2	5.216794E-3	1.007808E-2	-1.102253E-2	3.331819E-3	-1.764252E-2	-1.107897E-2	2.375524E-3	-1.226527E-3	-3.584825E-3	3.944106E-3	-1.312678E-2	-1.522462E-3	-5.201892E-3	4.044556E-3	-1.495223E-2	-8.916950E-3	3.746616E-3	-4.941855E-3	-1.762721E-2	3.612310E-3	1.674432E-2	-1.657234E-2	2.635078E-3	-4.285779E-3	-1.385980E-3	7.676874E-3	-9.848123E-3	-3.840742E-3	-5.365622E-3	-4.596048E-4	-7.763250E-3	7.298726E-3	-1.136297E-5	1.181400E-2	1.540050E-2	4.622677E-3	-1.522061E-2	1.099514E-2	1.285928E-3	3.997006E-3	-7.525591E-3	-7.583955E-3	-3.046716E-3	6.101107E-3	1.428174E-3	-1.233749E-2	-4.791694E-4	-4.749034E-3	-1.324536E-3	9.718003E-3	1.023617E-2	7.689767E-3	-2.654230E-3	5.535444E-3	-1.246686E-2	-7.416911E-3	5.530407E-3	5.589030E-4	-1.979412E-2	8.236128E-3	1.542503E-2	-2.629651E-3	-4.715494E-3	9.927023E-3	-5.821567E-3	-1.055959E-2	1.491845E-2	-4.365804E-3	-1.452253E-2	8.879007E-4	1.315388E-3	-7.001201E-3	1.033265E-2	9.677147E-4	1.568686E-2	1.188232E-4	-2.292862E-4	-4.734296E-3	-1.591173E-2	-6.141577E-3	-1.940178E-2	-7.177082E-3	2.618263E-3	3.525168E-3	1.162865E-2	-1.349122E-2	1.181269E-3	-5.928686E-3	4.161399E-3	5.114550E-3	-4.107567E-3	-4.687162E-3	1.867740E-3	-3.427617E-3	2.532341E-3	8.915792E-3	7.418642E-3	8.622523E-3	1.347134E-2	5.616109E-4	-5.290669E-3	2.180858E-3	2.261224E-3	-6.412178E-3	-1.262658E-3	4.863737E-3	-1.576750E-2	4.383944E-3	6.116562E-3	-6.010781E-5	-1.190696E-3	-3.039537E-3	6.708505E-3	-3.326429E-3	9.579877E-3	4.402277E-3	3.478719E-3	-3.846078E-3	1.489378E-3	-2.405670E-3	3.969098E-3	2.494543E-3	8.897826E-4
2.810050E+2	-2.952465E-3	-8.027863E-3	-5.746496E-3	1.519318E-2	1.325050E-2	-1.110413E-3	-7.531505E-3	-1.540392E-2	2.855802E-3	3.681385E-3	-4.640436E-3	2.545642E-3	-2.704524E-3	-2.804618E-3	-1.854472E-2	-3.350883E-3	3.173956E-3	5.273450E-4	-8.653568E-3	7.957947E-3	-7.320298E-3	-3.012922E-3	3.959512E-3	5.442641E-3	-1.366983E-2	2.908484E-3	8.212571E-3	-2.199903E-3	8.540291E-4	-8.682972E-3	-3.121015E-3	4.180100E-3	1.853571E-2	9.936352E-4	1.518209E-2	1.550939E-3	8.501116E-3	-7.924474E-3	1.355018E-2	5.528635E-3	1.058985E-2	7.742684E-4	5.770253E-3	1.281255E-2	5.551517E-3	-7.502765E-3	-4.083380E-3	-7.542915E-4	-3.569045E-3	2.908422E-3	1.077769E-2	4.877033E-3	-3.754563E-3	1.025401E-2	5.062012E-3	-2.722228E-3	-8.677686E-3	8.030321E-3	1.012076E-3	-6.777371E-3	-2.445896E-3	2.717016E-3	-1.226743E-2	-4.349585E-3	-1.264820E-2	1.621968E-2	-5.177311E-3	-1.928006E-4	2.319913E-3	9.587913E-3	7.976668E-3	-9.022049E-3	-1.026815E-2	-1.437812E-3	-1.140186E-2	-7.161755E-3	1.029763E-3	8.077659E-3	-9.091840E-3	9.554580E-4	4.318318E-3	2.273705E-3	8.721477E-4	4.544805E-3	1.009707E-2	7.996646E-3	9.652564E-3	2.512084E-3	1.296527E-2	-7.635252E-3	-3.104309E-3	6.036444E-3	6.683427E-3	-6.002641E-3	1.801402E-2	1.527422E-2	5.670306E-3	-5.803370E-4	-6.427281E-3	-9.806652E-3	-5.452495E-3	6.972384E-3	9.204790E-3	2.187989E-3	7.175677E-3	5.460311E-3	1.037435E-2	-1.152817E-2	2.758830E-3	-9.087626E-3	-1.499480E-3	-7.627474E-3	-1.081126E-3	6.245531E-3	6.747866E-3	-1.604934E-2	-2.213892E-3	-5.703908E-4	-3.596304E-3	-5.524831E-3	2.058515E-2	5.707181E-3	4.323702E-3	-1.987904E-2	-3.121850E-3	1.845335E-3	-1.281782E-2	-1.090925E-4	-3.032632E-3	-4.386965E-4	-3.948911E-3	3.862369E-3	2.744170E-4	8.308336E-3	3.352588E-3	7.008690E-3	2.531010E-3	1.675531E-4	-7.212684E-3	-2.840075E-3	-8.414367E-3	7.293097E-3	1.045840E-2	-2.785863E-3	-4.232165E-3	5.741288E-3	-7.968874E-3	-8.241636E-4	1.242074E-2	-9.226562E-3	-1.389387E-3	-1.355889E-2	2.046783E-3	-1.722115E-2	-4.789721E-3	2.723063E-3	4.527105E-3	-4.042708E-3	5.175219E-3	1.073675E-2	-5.170031E-3	-1.922928E-4	9.504111E-3	-1.162068E-2	4.581525E-4	5.231437E-3	3.024819E-3	-6.142346E-3	9.473618E-3	-6.200581E-3	6.076142E-2
2.815020E+2	-2.996303E-3	-1.356228E-3	6.794269E-3	-7.665230E-4	-6.750556E-4	-2.607147E-3	1.970631E-3	1.779593E-3	7.313597E-3	-9.894828E-3	-7.223928E-3	1.861648E-2	-6.413178E-3	-4.080843E-3	1.082549E-3	1.311773E-2	-1.241575E-3	-1.502663E-2	1.243057E-2	-9.130225E-3	5.451270E-3	6.983946E-3	-2.100611E-3	-1.939681E-3	4.142731E-3	4.472437E-3	9.496089E-3	6.315665E-3	6.078952E-3	5.601313E-3	-1.010189E-2	-1.287271E-2	-6.553000E-3	1.341036E-2	-1.188138E-2	1.512356E-3	7.136136E-3	2.314917E-3	7.975173E-3	1.524011E-2	-5.980614E-3	-6.578393E-4	-9.599806E-3	-7.208148E-3	-1.495504E-2	4.802037E-3	5.086720E-3	-9.108092E-3	-5.340385E-3	1.138428E-2	-2.064432E-2	1.602220E-3	4.922841E-3	-1.779495E-3	-7.352014E-3	-1.314284E-3	8.007403E-3	5.245378E-3	-1.162672E-2	1.041284E-2	-1.232439E-2	1.443841E-3	1.231461E-2	-4.405550E-3	5.024987E-3	-3.674833E-3	2.580371E-3	-2.110135E-3	-9.124711E-3	1.256278E-3	6.567430E-3	2.802308E-4	5.700030E-3	9.330431E-3	9.594089E-3	-1.853120E-2	-1.556857E-3	-4.705922E-3	-1.426991E-2	-3.747460E-3	-4.511787E-3	-8.888444E-4	7.177778E-3	6.285651E-3	-1.532255E-2	-2.327434E-3	6.813168E-3	1.115265E-2	-1.738545E-3	1.498326E-2	7.391042E-3	-1.825243E-3	4.057137E-3	3.677135E-4	-4.989044E-4	-1.625598E-2	-5.453187E-3	-5.739227E-4	-9.181723E-3	5.868614E-3	5.560173E-3	-9.356238E-3	6.681523E-3	-8.826712E-3	-1.661306E-2	-7.537169E-3	-4.912402E-3	1.642053E-2	-1.445097E-3	-7.122305E-5	-1.636905E-2	9.983961E-3	-1.861544E-2	3.447158E-3	6.744152E-3	2.072153E-2	-5.308330E-3	-6.269904E-3	5.846452E-4	-4.030721E-3	-6.958172E-3	-7.081908E-3	-5.240697E-3	3.573344E-3	9.783144E-3	5.810460E-3	1.368507E-2	1.151416E-2	1.928300E-2	9.179218E-4	-2.440444E-3	1.854540E-3	-6.801328E-3	1.412507E-2	1.161359E-2	-9.058301E-3	4.107169E-3	9.981051E-3	1.389136E-2	-1.004902E-3	-7.017955E-4	-8.782219E-3	-2.011281E-4	-4.292114E-3	1.035798E-2	-1.023059E-2	-2.494365E-3	8.218870E-3	-1.416126E-2	1.651962E-2	1.064621E-2	1.876961E-2	-1.299066E-2	1.375829E-4	-1.934577E-4	7.630695E-3	-6.181311E-3	1.839115E-2	-1.708569E-3	1.120054E-2	-5.127179E-3	-1.290129E-2	-5.400717E-3	1.274689E-2	-8.437073E-3	2.237442E-3	-7.679309E-3	5.089283E-3	1.115218E-3	1.539987E-2	3.386742E-2
2.820060E+2	-4.626748E-3	7.322431E-3	2.877076E-2	-5.773553E-3	2.715838E-3	-8.367156E-4	5.000675E-3	8.408658E-3	1.406095E-4	9.232336E-4	-5.037214E-4	-1.152858E-2	-1.208736E-3	-2.547757E-3	-5.182014E-3	-8.082297E-3	1.988228E-3	5.470226E-3	1.582594E-3	1.394874E-2	-1.477031E-2	-7.086542E-3	9.157025E-3	4.247945E-3	2.939949E-3	-1.631196E-3	3.376950E-3	-5.388450E-3	9.079811E-3	1.115445E-2	1.876989E-3	-1.886788E-4	-9.257030E-3	-7.079561E-3	5.992702E-3	-2.011033E-2	2.040848E-3	1.032768E-2	-5.665785E-3	-3.942720E-3	-5.717808E-3	3.890926E-3	1.475192E-3	-2.300255E-3	-3.712955E-3	8.872335E-3	5.411291E-3	6.522102E-3	3.647146E-3	-2.097124E-2	4.253780E-3	-1.118200E-2	1.725545E-3	-4.185008E-3	6.777510E-3	6.148934E-3	1.000707E-2	-5.565080E-3	1.276395E-3	3.845987E-3	2.330834E-2	9.406768E-3	1.544065E-2	5.506524E-4	6.785311E-3	-6.258592E-3	7.574039E-3	1.678803E-2	5.487466E-3	5.708421E-3	-9.604687E-3	1.460466E-2	-7.146113E-3	-8.472489E-3	2.392762E-3	1.263731E-2	6.436861E-3	1.418978E-2	6.763752E-3	-5.071143E-3	-1.311877E-2	7.256779E-3	4.312356E-3	-2.063922E-2	2.174012E-2	-1.087468E-2	1.135496E-2	-1.608215E-2	-1.466307E-3	2.260528E-4	7.721934E-3	4.795576E-3	-3.532663E-3	1.957952E-3	6.483002E-3	1.268465E-3	3.251573E-3	-1.738466E-3	-1.941787E-3	8.004049E-3	1.005724E-2	-6.077047E-3	4.511676E-3	-2.519977E-4	9.269251E-3	1.561765E-2	4.643714E-3	-3.026871E-3	-5.362677E-3	1.319192E-2	-9.317260E-3	5.889134E-3	5.628106E-3	6.579190E-3	5.597165E-3	1.102159E-2	2.724120E-3	5.483162E-3	7.900643E-3	1.584631E-2	-4.988745E-3	-6.807387E-3	-1.297514E-2	8.929635E-3	8.732367E-3	-1.768003E-3	-1.523403E-2	1.616774E-3	1.370386E-2	-4.157663E-3	1.464794E-2	-3.789430E-3	1.057502E-2	-4.462181E-3	-4.577062E-4	8.957404E-4	-1.315488E-2	3.764582E-3	2.845420E-3	1.020804E-3	-2.980312E-3	9.240058E-4	2.737438E-3	1.230292E-3	-9.829249E-3	1.198542E-2	-3.500307E-3	-3.839545E-3	2.026577E-2	2.565787E-3	-7.830843E-3	-1.410088E-3	9.044312E-3	1.470365E-2	1.487771E-2	-1.147182E-2	2.339303E-4	4.224586E-3	-2.350545E-3	-7.623138E-4	-4.847696E-3	1.873934E-3	-2.853684E-3	-2.945059E-3	-1.118700E-2	4.092920E-3	1.293759E-2	3.608011E-3	7.030091E-3	1.575681E-2	-1.888032E-2
2.825030E+2	6.700751E-3	2.068777E-2	-3.800537E-3	1.912165E-2	-6.653934E-3	7.982042E-3	2.541001E-2	8.369178E-3	2.559127E-2	9.937420E-3	8.508879E-3	-1.697631E-2	-2.487536E-3	2.032283E-2	1.450738E-2	6.792875E-3	-1.014000E-3	2.409043E-2	4.019270E-3	6.332399E-3	2.499114E-2	5.788474E-3	1.801132E-3	1.252705E-3	1.033745E-2	-8.079836E-3	2.031441E-3	1.342126E-2	-6.759483E-3	1.950959E-3	-5.187572E-3	2.150968E-2	-4.241858E-4	1.645239E-2	3.220980E-3	8.527929E-3	-6.161242E-3	7.693049E-3	-7.113560E-3	3.014770E-3	1.988611E-2	5.247404E-3	4.473084E-3	3.821355E-3	2.230747E-2	1.534492E-4	1.062520E-2	3.658478E-3	-6.897449E-3	3.177149E-4	1.927065E-2	1.644812E-2	1.912562E-2	5.158601E-3	1.501275E-2	1.608119E-2	1.526226E-3	-1.447196E-3	1.227962E-2	-1.430317E-3	-9.326858E-3	1.702934E-3	1.947946E-2	1.613816E-2	-2.191645E-3	1.643038E-2	-3.893737E-4	5.467286E-3	6.842249E-3	8.372735E-3	-9.659414E-3	2.072361E-2	1.323532E-2	-3.149789E-3	1.131423E-2	2.712767E-2	1.024979E-2	-1.255149E-4	1.189096E-2	1.846009E-2	2.223485E-2	-5.427442E-3	-5.557191E-4	-1.530777E-2	4.278624E-4	-2.037238E-3	7.007610E-3	2.019749E-2	-1.587334E-3	1.073459E-2	4.134434E-3	4.734511E-3	1.909505E-2	7.044919E-3	-4.188714E-3	1.851777E-2	1.867073E-2	4.208123E-3	3.687221E-3	4.566428E-3	1.693028E-2	1.340830E-2	3.272208E-3	8.022840E-3	-9.511939E-4	-7.702787E-4	9.280215E-3	1.023122E-2	3.253685E-4	-7.537512E-3	1.377849E-2	1.421237E-3	1.036694E-2	9.043235E-4	1.066516E-3	1.431943E-2	-3.524815E-3	2.580894E-3	8.581131E-4	5.254082E-3	-3.282866E-3	2.041954E-2	4.590576E-3	8.870888E-3	5.813678E-3	1.409404E-2	3.388592E-3	1.617943E-2	-4.298417E-3	3.922734E-3	1.305994E-2	1.001423E-2	1.478432E-2	1.302754E-2	1.057069E-2	-8.835872E-3	1.707959E-2	5.345562E-3	1.421181E-2	1.347390E-2	2.536469E-2	1.033065E-2	1.211685E-4	2.913567E-3	1.850588E-3	1.689146E-3	7.199743E-3	1.732448E-2	-8.015457E-3	1.830628E-2	-1.126004E-3	1.619949E-2	5.856866E-4	3.548029E-3	1.175566E-2	-1.740000E-4	1.400674E-2	2.097103E-4	-1.063386E-3	-1.172046E-2	3.574862E-3	-4.620168E-3	6.714226E-3	6.700801E-3	6.683026E-3	8.623829E-3	1.136123E-2	-9.503992E-3	1.366597E-3	-6.012511E-3	-3.095252E-3
2.830040E+2	-3.804728E-4	2.308924E-2	3.969995E-3	3.643776E-3	1.883482E-2	1.758808E-2	-2.765667E-3	-5.290871E-3	-6.940404E-3	9.022540E-3	2.573845E-3	5.286843E-3	2.178510E-2	8.175213E-3	1.076997E-2	-1.266271E-2	6.932022E-3	2.642864E-2	1.593310E-2	2.233119E-2	-6.621473E-3	2.811066E-2	1.141414E-3	-7.161293E-3	1.696729E-2	2.779504E-2	1.306613E-2	-4.949884E-3	-9.035685E-4	9.095220E-3	2.015348E-2	5.051681E-3	1.657180E-2	1.989284E-2	7.836638E-3	-1.289691E-2	5.297767E-3	1.475956E-2	1.164019E-2	5.069891E-3	-7.183332E-4	4.373195E-3	8.236346E-3	1.381801E-2	1.897751E-2	9.489031E-3	8.598728E-3	2.263486E-2	-1.131821E-3	1.670782E-2	2.003858E-3	8.944730E-3	1.807320E-2	-7.820158E-3	1.751602E-3	1.686629E-2	5.444318E-3	7.524225E-3	9.727468E-3	-1.307797E-2	-7.466421E-3	-6.735859E-3	1.746867E-2	2.473036E-2	1.772043E-2	8.511739E-3	2.073033E-2	2.495105E-2	3.139407E-3	-3.605514E-3	3.092058E-2	4.175826E-3	3.584944E-3	1.205967E-2	4.433137E-3	1.821093E-2	2.915280E-2	1.856295E-3	2.083686E-3	1.737938E-3	1.104115E-2	9.344570E-3	4.828954E-3	2.898292E-2	9.553341E-3	-7.435063E-3	2.757340E-2	-2.528604E-3	1.677569E-2	1.145310E-2	2.955746E-2	1.807816E-2	6.432218E-3	1.668005E-2	1.513088E-2	9.060206E-3	3.780269E-3	1.524609E-2	1.388935E-3	-1.850314E-4	3.578799E-2	2.315060E-2	5.143904E-3	1.003469E-2	-9.100036E-3	1.386506E-3	6.746512E-3	5.787332E-3	3.936097E-2	9.921273E-3	2.136698E-3	1.680526E-2	2.949792E-3	7.099781E-3	3.333764E-2	2.509980E-2	2.201281E-2	3.209909E-2	2.543856E-2	5.877082E-3	5.891992E-3	-1.122975E-2	1.163616E-2	6.057957E-3	1.081160E-2	6.790423E-3	2.280109E-2	1.828242E-2	2.335715E-2	1.790586E-3	1.534159E-2	6.647513E-3	1.264277E-2	1.373840E-2	-2.739211E-3	2.421825E-2	1.609121E-2	1.093587E-2	6.660260E-3	2.486201E-2	1.833317E-2	2.322882E-2	-1.885774E-3	-1.828488E-3	8.252127E-3	2.884090E-2	5.162875E-3	1.444412E-2	2.978207E-3	7.447936E-3	-5.569633E-4	5.062884E-3	2.310199E-2	1.369981E-2	1.578151E-3	1.178951E-2	2.552625E-2	2.751177E-2	1.280531E-2	5.991441E-3	9.266865E-3	2.431277E-3	2.115152E-2	8.911026E-3	3.286299E-2	9.220972E-3	-1.183821E-4	-1.507703E-3	3.015567E-2	1.191934E-2	5.349959E-3
2.835020E+2	1.628256E-2	2.624448E-2	3.102304E-2	2.117745E-2	1.545811E-2	1.289951E-2	1.223767E-2	1.830368E-2	6.380912E-3	1.795589E-2	3.956992E-2	1.401734E-2	1.804817E-2	2.240769E-2	2.553746E-2	8.692816E-5	2.473326E-2	1.192892E-2	2.497446E-2	4.140695E-2	2.073677E-2	1.187794E-2	2.976469E-2	4.359356E-3	3.512141E-2	2.271181E-2	3.036221E-2	1.014719E-2	8.352116E-3	1.699983E-2	1.320530E-2	1.432902E-3	3.620829E-2	8.350589E-3	2.425823E-2	2.265580E-2	2.252261E-3	2.789269E-2	2.432548E-2	2.061194E-2	2.672291E-2	2.154177E-2	-7.879476E-3	2.789927E-2	3.037853E-2	8.241097E-3	1.789640E-2	1.268636E-2	1.246012E-2	6.445482E-3	5.900034E-3	2.517840E-2	3.920256E-2	4.083166E-3	1.283710E-2	2.566333E-2	2.380088E-2	1.875184E-2	4.348124E-2	3.935429E-2	2.251599E-2	1.383586E-2	1.744432E-2	1.656959E-2	2.049159E-2	6.749128E-3	2.206370E-2	2.245803E-2	2.346388E-2	2.011692E-2	4.092455E-2	2.296497E-2	4.377468E-2	5.802496E-3	1.789680E-2	1.456499E-2	1.858006E-2	4.266454E-2	2.186229E-2	2.848383E-2	1.979751E-2	2.509456E-2	1.917130E-2	1.745712E-2	1.660351E-2	3.155769E-2	2.757462E-2	1.794149E-2	1.657058E-2	6.505122E-3	3.293526E-2	2.600174E-2	1.165130E-2	2.195434E-2	1.785965E-2	1.920875E-2	2.363977E-2	2.570930E-2	2.679288E-2	1.167622E-2	3.365444E-3	2.461606E-2	2.748309E-2	2.267148E-2	1.285165E-2	1.418393E-2	2.068984E-2	2.234633E-2	1.778996E-2	1.782404E-2	3.131143E-2	3.627579E-2	7.400899E-3	1.834778E-2	1.653865E-2	3.341620E-2	1.868577E-2	1.606232E-2	2.119265E-2	1.174142E-2	3.006020E-2	4.577096E-2	2.936284E-2	2.966297E-2	4.179881E-2	2.713088E-2	3.525235E-2	2.255300E-2	6.359601E-3	3.073686E-2	5.878961E-3	-3.158891E-4	9.623330E-3	1.662819E-2	1.536837E-2	1.251721E-2	4.186881E-2	5.456348E-3	2.128482E-2	3.721208E-2	2.899700E-2	4.413678E-2	1.917879E-2	2.973397E-2	2.890625E-2	2.592610E-2	2.434420E-2	1.574416E-2	1.483780E-2	1.752497E-2	3.244883E-2	1.993927E-2	3.657226E-2	2.149008E-2	1.518556E-2	3.469020E-2	2.860251E-2	3.587298E-2	2.494862E-2	3.115270E-2	2.266579E-2	2.349303E-2	3.524477E-2	6.746851E-3	1.753393E-2	3.872557E-2	1.653747E-2	3.023928E-2	1.167008E-2	1.306379E-2	6.404216E-3
2.840000E+2	4.586733E-2	5.102296E-2	2.920404E-2	4.533485E-2	3.175114E-2	2.073594E-2	3.816391E-2	3.487548E-2	7.851499E-3	5.773819E-2	2.938304E-2	3.851072E-2	5.747969E-2	4.419713E-2	6.776380E-2	2.751559E-2	4.512199E-2	4.460742E-2	4.255764E-2	7.565000E-2	4.682276E-2	4.053922E-2	6.885734E-2	4.301439E-2	4.806269E-2	5.293578E-2	5.276910E-2	5.138590E-2	3.207982E-2	4.334519E-2	5.548893E-2	6.005272E-2	3.362162E-2	6.075489E-2	6.022119E-2	4.044705E-2	3.929326E-2	6.081485E-2	4.954758E-2	2.972159E-2	4.765355E-2	7.414227E-2	3.388534E-2	5.914582E-2	3.679671E-2	3.321865E-2	5.279543E-2	4.664173E-2	2.135664E-2	7.681344E-2	3.615656E-2	6.633550E-2	5.969202E-2	4.636274E-2	2.609700E-2	4.262357E-2	6.436175E-2	3.658139E-2	3.405409E-2	2.884887E-2	6.147007E-2	3.820602E-2	4.223466E-2	5.283061E-2	3.920414E-2	2.906530E-2	2.869007E-2	6.531414E-2	4.794233E-2	4.655588E-2	4.735329E-2	4.446043E-2	4.296127E-2	3.945640E-2	3.217638E-2	2.536380E-3	3.641370E-2	4.187525E-2	5.778293E-2	4.351513E-2	4.159676E-2	5.334264E-2	4.616019E-2	5.736843E-2	2.716023E-2	3.522720E-2	3.528596E-2	4.115467E-2	4.137084E-2	3.336605E-2	5.144193E-2	3.113415E-2	4.669293E-2	5.192356E-2	4.619113E-2	4.680489E-2	5.205604E-2	4.783061E-2	4.325960E-2	2.990368E-2	4.404464E-2	3.115976E-2	2.529157E-2	4.069482E-2	5.939002E-2	2.431992E-2	3.386515E-2	4.002607E-2	4.909847E-2	4.403587E-2	4.342801E-2	3.979262E-2	5.773936E-2	6.148668E-2	3.550735E-2	3.707884E-2	6.115682E-2	6.147802E-2	4.062250E-2	1.492904E-2	2.827388E-2	2.784723E-2	6.161800E-2	4.923627E-2	3.043371E-2	4.166247E-2	2.189158E-2	3.801566E-2	2.504856E-2	4.271189E-2	3.788746E-2	2.265704E-2	2.022966E-2	3.990793E-2	4.762264E-2	3.237484E-2	4.726681E-2	3.112134E-2	4.024089E-2	7.104133E-2	4.311419E-2	3.928702E-2	3.869938E-2	5.004472E-2	3.837957E-2	4.011932E-2	3.616487E-2	4.711686E-2	2.433873E-2	5.247669E-2	3.595547E-2	2.488169E-2	4.210715E-2	3.154383E-2	4.891545E-2	4.011629E-2	1.592548E-2	3.652838E-2	4.344575E-2	3.800320E-2	4.225382E-2	3.897782E-2	4.445483E-2	2.682053E-2	5.834652E-2	2.954140E-2	2.304984E-2	4.203837E-2	3.382610E-2	3.272964E-2	1.602137E-2
2.841010E+2	5.248297E-2	4.987990E-2	3.352916E-2	3.464577E-2	2.736866E-2	4.944968E-2	3.440601E-2	4.042876E-2	5.593413E-2	2.158983E-2	5.733275E-2	2.684964E-2	4.511868E-2	2.997841E-2	5.115059E-2	2.313378E-2	6.673178E-2	3.376801E-2	5.385927E-2	5.279691E-2	5.489352E-2	6.097895E-2	4.783674E-2	3.339762E-2	6.015525E-2	3.672687E-2	2.744692E-2	3.898315E-2	2.712852E-2	4.812496E-2	4.510006E-2	3.611448E-2	5.145858E-2	4.825617E-2	3.502539E-2	5.536087E-2	5.142089E-2	5.745566E-2	4.430036E-2	4.360557E-2	3.073701E-2	4.330524E-2	1.003003E-2	3.533924E-2	4.182262E-2	4.434091E-2	2.838493E-2	4.585693E-2	6.060226E-2	4.908863E-2	4.257338E-2	5.325605E-2	7.523242E-2	3.422051E-2	4.424633E-2	6.452348E-2	2.962215E-2	4.162697E-2	6.480077E-2	3.124906E-2	3.526538E-2	4.559860E-2	4.290594E-2	5.020537E-2	5.077828E-2	4.166688E-2	5.913429E-2	7.403452E-2	5.471932E-2	4.574872E-2	4.219756E-2	2.861945E-2	4.361533E-2	4.790870E-2	2.330591E-2	4.267372E-2	4.943986E-2	2.432648E-2	3.103288E-2	3.085451E-2	3.911515E-2	3.077123E-2	5.192146E-2	4.849653E-2	6.375490E-2	2.961090E-2	4.635020E-2	4.798263E-2	4.511544E-2	3.571832E-2	6.896809E-2	4.684031E-2	4.895854E-2	2.280044E-2	3.413221E-2	2.915464E-2	4.669978E-2	2.798359E-2	4.976244E-2	4.539947E-2	4.615117E-2	4.910502E-2	4.760278E-2	4.739172E-2	1.833751E-2	4.728431E-2	4.736063E-2	3.363152E-2	2.723584E-2	4.191952E-2	3.110217E-2	6.534095E-2	1.609912E-2	3.231854E-2	6.937097E-2	5.360292E-2	4.874828E-2	2.272122E-2	5.012873E-2	4.407612E-2	4.155700E-2	4.705717E-2	6.233852E-2	3.380929E-2	3.557785E-2	1.842679E-2	2.944773E-2	6.331783E-2	6.355039E-2	5.338942E-2	5.303227E-2	6.498155E-3	4.517555E-2	2.974326E-2	2.927109E-2	4.992340E-2	5.981893E-2	4.385882E-2	8.580700E-2	5.662348E-2	6.426662E-2	3.987963E-2	3.934656E-2	3.589467E-2	6.684795E-2	4.848433E-2	2.684452E-2	7.208120E-2	4.373663E-2	3.643937E-2	4.371195E-2	5.815890E-2	4.271958E-2	6.227340E-2	4.630645E-2	7.155217E-2	3.773223E-2	3.990498E-2	5.109547E-2	4.515990E-2	4.852558E-2	2.937495E-2	3.925873E-2	6.153476E-2	4.017448E-2	3.976152E-2	2.357568E-2	5.451361E-2	4.031894E-2	5.617952E-2	4.156272E-2
2.842040E+2	6.721410E-2	6.119997E-2	6.470679E-2	7.298838E-2	3.939177E-2	5.165769E-2	4.074959E-2	4.266603E-2	5.341709E-2	5.745584E-2	4.143783E-2	4.634374E-2	6.163459E-2	6.849492E-2	3.777721E-2	4.669632E-2	5.196913E-2	3.433016E-2	3.994320E-2	5.440912E-2	4.757893E-2	2.798449E-2	3.681621E-2	5.356870E-2	4.182791E-2	6.787236E-2	7.910953E-2	2.398312E-2	4.602441E-2	4.737848E-2	4.453355E-2	2.577944E-2	5.624408E-2	3.861678E-2	4.437670E-2	6.013383E-2	6.894800E-2	4.172674E-2	4.802092E-2	6.603588E-2	6.234112E-2	2.572371E-2	4.010743E-2	3.072463E-2	4.403235E-2	3.182270E-2	4.159335E-2	4.390301E-2	3.956620E-2	3.772313E-2	3.451133E-2	4.954309E-2	3.738337E-2	5.344675E-2	5.825783E-2	2.817084E-2	7.332602E-2	3.039684E-2	8.585267E-2	2.061643E-2	6.152307E-2	5.988484E-2	3.918489E-2	6.437808E-2	6.585516E-2	4.539880E-2	4.165267E-2	7.311409E-2	3.406297E-2	4.210376E-2	4.140311E-2	5.267076E-2	5.679028E-2	1.790401E-2	3.674415E-2	4.347010E-2	6.954088E-2	5.376733E-2	5.516768E-2	3.645841E-2	4.127628E-2	3.816945E-2	2.882467E-2	4.538163E-2	5.091335E-2	5.856486E-2	5.766441E-2	5.642260E-2	2.556158E-2	2.824784E-2	5.095051E-2	3.570373E-2	3.107077E-2	5.871506E-2	5.027665E-2	4.498544E-2	5.328688E-2	4.426199E-2	6.227947E-2	7.406095E-2	5.120431E-2	5.764670E-2	6.606756E-2	5.530487E-2	3.686155E-2	6.529086E-2	3.305161E-2	3.939229E-2	7.123701E-2	4.801969E-2	5.051139E-2	3.457933E-2	7.105237E-2	6.436906E-2	6.374772E-2	4.706286E-2	3.120577E-2	5.987920E-2	4.181639E-2	4.308689E-2	4.580316E-2	5.277798E-2	5.961264E-2	5.401372E-2	6.379936E-2	2.878720E-2	4.986266E-2	6.710382E-2	3.239165E-2	4.830486E-2	4.889173E-2	4.844579E-2	4.886968E-2	4.899129E-2	4.161461E-2	2.239951E-2	6.215487E-2	7.073122E-2	3.796261E-2	3.818829E-2	5.675159E-2	5.197630E-2	5.653323E-2	5.132668E-2	5.195491E-2	8.032903E-2	6.319355E-2	3.706635E-2	3.962307E-2	4.466749E-2	5.872916E-2	5.574639E-2	6.118451E-2	7.309954E-2	5.668429E-2	6.195036E-2	4.661583E-2	5.038663E-2	6.869168E-2	3.912825E-2	5.109331E-2	4.018084E-2	3.983540E-2	8.805573E-2	5.989453E-2	5.661801E-2	3.374511E-2	1.743046E-2	2.904755E-2	7.067861E-2	4.212048E-2
2.843040E+2	7.856611E-2	8.396423E-2	7.360122E-2	5.700873E-2	5.030963E-2	6.387899E-2	6.958858E-2	7.573218E-2	7.710645E-2	7.803940E-2	7.442751E-2	6.408597E-2	6.944261E-2	6.008761E-2	6.708237E-2	6.675533E-2	6.419367E-2	6.372004E-2	7.182958E-2	8.796966E-2	6.116272E-2	5.816222E-2	7.582672E-2	1.143763E-1	7.015677E-2	5.529091E-2	7.068885E-2	8.691710E-2	5.844098E-2	9.479377E-2	7.587194E-2	5.429504E-2	7.824854E-2	6.938760E-2	8.633188E-2	8.531633E-2	6.282418E-2	8.564330E-2	6.705898E-2	5.345960E-2	6.023045E-2	8.779119E-2	5.272406E-2	8.659935E-2	6.445399E-2	8.212042E-2	6.671085E-2	5.576011E-2	7.727120E-2	6.025760E-2	5.919014E-2	8.607388E-2	8.077649E-2	5.892625E-2	4.758834E-2	7.059076E-2	7.861298E-2	7.329436E-2	7.367434E-2	6.187272E-2	6.892727E-2	5.970152E-2	6.238599E-2	5.888422E-2	9.503519E-2	1.002079E-1	9.354499E-2	8.830057E-2	7.432780E-2	7.011832E-2	9.720472E-2	9.700334E-2	8.988590E-2	7.121246E-2	6.692245E-2	6.256370E-2	7.499428E-2	5.175598E-2	7.032849E-2	5.076076E-2	7.419302E-2	5.449488E-2	5.049093E-2	6.968069E-2	8.726877E-2	8.846158E-2	7.872348E-2	4.208475E-2	7.728416E-2	4.380493E-2	8.982427E-2	5.352979E-2	6.483099E-2	4.884045E-2	7.717928E-2	5.531105E-2	7.243281E-2	8.985841E-2	7.681554E-2	7.721994E-2	3.887890E-2	8.435205E-2	7.275378E-2	7.870293E-2	8.169275E-2	8.406106E-2	6.707203E-2	6.156209E-2	8.145827E-2	6.162501E-2	7.214687E-2	7.510587E-2	6.374458E-2	6.855757E-2	1.100408E-1	4.619985E-2	7.377277E-2	7.957019E-2	6.842726E-2	9.755817E-2	7.280838E-2	7.111383E-2	7.624414E-2	6.591663E-2	9.763945E-2	6.537341E-2	5.810710E-2	7.926461E-2	7.025904E-2	6.977288E-2	5.658040E-2	4.377199E-2	7.302725E-2	5.795966E-2	6.200938E-2	5.502537E-2	7.010672E-2	5.076376E-2	1.038881E-1	8.509981E-2	6.622436E-2	9.519719E-2	5.913076E-2	6.552283E-2	8.134717E-2	7.697998E-2	8.328457E-2	5.319491E-2	3.583294E-2	8.280358E-2	6.284744E-2	4.900453E-2	8.396301E-2	6.924672E-2	7.588215E-2	8.399866E-2	5.591044E-2	7.001069E-2	8.848822E-2	5.849257E-2	7.412698E-2	8.614766E-2	7.331622E-2	5.295424E-2	1.157338E-1	6.266170E-2	7.045137E-2	7.441914E-2	5.700299E-2	1.091577E-1	6.856898E-2
2.844010E+2	9.171257E-2	7.941282E-2	9.975860E-2	8.464324E-2	9.961555E-2	1.095945E-1	7.930917E-2	9.192127E-2	1.056385E-1	1.051064E-1	9.775048E-2	1.115229E-1	1.039408E-1	1.077864E-1	9.056257E-2	1.029573E-1	1.019651E-1	9.658654E-2	1.119818E-1	9.711511E-2	1.110804E-1	7.914493E-2	1.269816E-1	1.198188E-1	1.196696E-1	1.147547E-1	8.842574E-2	1.271766E-1	1.020829E-1	9.297498E-2	1.009591E-1	9.825451E-2	9.856014E-2	1.018016E-1	9.314460E-2	9.837236E-2	1.170267E-1	9.353626E-2	1.223667E-1	1.112386E-1	9.055152E-2	1.288301E-1	8.354656E-2	1.195647E-1	1.369437E-1	1.220492E-1	1.261618E-1	8.922777E-2	5.140015E-2	1.182102E-1	1.076523E-1	1.041520E-1	6.822503E-2	1.194502E-1	1.264764E-1	1.166022E-1	1.196266E-1	1.164493E-1	9.339752E-2	8.616799E-2	1.020933E-1	9.509571E-2	1.049264E-1	1.132016E-1	1.041811E-1	1.150360E-1	1.130855E-1	1.056915E-1	1.317647E-1	7.983248E-2	1.070866E-1	1.085012E-1	1.163219E-1	8.186921E-2	1.135659E-1	9.347519E-2	1.139720E-1	1.239639E-1	1.178478E-1	9.350810E-2	1.257961E-1	1.047658E-1	1.173249E-1	1.205700E-1	1.185371E-1	1.055339E-1	1.211667E-1	1.007506E-1	9.761091E-2	9.711101E-2	1.099411E-1	1.013844E-1	9.922589E-2	1.051347E-1	1.114187E-1	1.114544E-1	9.188651E-2	1.087045E-1	1.430403E-1	1.171314E-1	8.629414E-2	1.194332E-1	1.016930E-1	1.303867E-1	1.124399E-1	1.133414E-1	9.976553E-2	1.107837E-1	1.316396E-1	1.116593E-1	9.823423E-2	1.018691E-1	7.171396E-2	1.030669E-1	1.047415E-1	1.213142E-1	9.839193E-2	1.023198E-1	9.209807E-2	9.467342E-2	1.469256E-1	1.067611E-1	7.371543E-2	9.218450E-2	9.251993E-2	9.648478E-2	1.384582E-1	1.181619E-1	1.051577E-1	1.220503E-1	1.283158E-1	1.251314E-1	8.480429E-2	1.222189E-1	1.274421E-1	8.954849E-2	1.089744E-1	1.192123E-1	9.616372E-2	1.227188E-1	1.259580E-1	1.109076E-1	8.244908E-2	1.022841E-1	1.203780E-1	1.255139E-1	1.134798E-1	8.073113E-2	7.515659E-2	9.937703E-2	8.567416E-2	8.809126E-2	1.049049E-1	8.212729E-2	1.016262E-1	1.095203E-1	7.171497E-2	1.111622E-1	1.340104E-1	1.149470E-1	1.100284E-1	1.132757E-1	9.061378E-2	9.747647E-2	1.023289E-1	1.264816E-1	1.188524E-1	9.962976E-2	8.808926E-2	1.149136E-1	9.508504E-2
2.845010E+2	1.716068E-1	1.319118E-1	1.286086E-1	1.168844E-1	1.601826E-1	1.418279E-1	1.222967E-1	1.738951E-1	1.546596E-1	1.841677E-1	1.402040E-1	1.112152E-1	1.692573E-1	1.454591E-1	1.736488E-1	1.341468E-1	1.828747E-1	1.132673E-1	1.640890E-1	1.067506E-1	1.494225E-1	1.321735E-1	1.833829E-1	1.647420E-1	1.605119E-1	2.051370E-1	1.578209E-1	1.901039E-1	1.511033E-1	1.957585E-1	1.511811E-1	1.559337E-1	1.456571E-1	1.669598E-1	1.539777E-1	1.272239E-1	1.844382E-1	1.131580E-1	1.483745E-1	1.506706E-1	1.581179E-1	1.351196E-1	1.421355E-1	1.647343E-1	1.808950E-1	1.440402E-1	1.898389E-1	1.400591E-1	1.717415E-1	1.618810E-1	1.497089E-1	1.747507E-1	1.909345E-1	1.489565E-1	1.812280E-1	1.267171E-1	1.763726E-1	1.774127E-1	1.604744E-1	1.522744E-1	1.624165E-1	1.578941E-1	1.394521E-1	1.779058E-1	1.430409E-1	1.274346E-1	1.917200E-1	1.510877E-1	1.445153E-1	1.522657E-1	2.046632E-1	1.603627E-1	1.466856E-1	1.340813E-1	1.642169E-1	1.389657E-1	1.577510E-1	1.744368E-1	1.193921E-1	1.772957E-1	1.489246E-1	1.456534E-1	1.451632E-1	1.541573E-1	1.438437E-1	1.524409E-1	1.552384E-1	1.408633E-1	1.392493E-1	1.448202E-1	1.825058E-1	1.265024E-1	1.663749E-1	1.730076E-1	1.261913E-1	1.748248E-1	1.355305E-1	1.737520E-1	1.649851E-1	1.705651E-1	1.562005E-1	1.720221E-1	1.640311E-1	1.514987E-1	1.740467E-1	1.631437E-1	1.556304E-1	1.637677E-1	1.324981E-1	1.672771E-1	1.431144E-1	1.768540E-1	1.573344E-1	1.541531E-1	1.557433E-1	1.632555E-1	1.644307E-1	1.699288E-1	1.735429E-1	1.473524E-1	1.519263E-1	1.591880E-1	1.275916E-1	1.462474E-1	1.810693E-1	1.357695E-1	1.754363E-1	1.539914E-1	1.567337E-1	1.594558E-1	1.186474E-1	1.796055E-1	1.431927E-1	1.640012E-1	1.535812E-1	1.461029E-1	1.492056E-1	1.316625E-1	1.690850E-1	1.472687E-1	1.447017E-1	1.716209E-1	1.603736E-1	1.323692E-1	1.332207E-1	1.400398E-1	1.430936E-1	1.630809E-1	1.788397E-1	1.432781E-1	1.712241E-1	1.651842E-1	1.522396E-1	1.596270E-1	1.264779E-1	1.676959E-1	1.454596E-1	1.359791E-1	1.387078E-1	1.778147E-1	1.580878E-1	1.535334E-1	1.716427E-1	1.730917E-1	1.806712E-1	1.666322E-1	1.700682E-1	1.562479E-1	1.383792E-1	1.306308E-1	1.828732E-1
2.846030E+2	2.753333E-1	2.275462E-1	2.664320E-1	2.510077E-1	2.247291E-1	2.522052E-1	1.927267E-1	2.256809E-1	2.468132E-1	2.340308E-1	2.312400E-1	2.299880E-1	1.995171E-1	2.029271E-1	2.221908E-1	2.460742E-1	2.692498E-1	2.601156E-1	2.314588E-1	2.323916E-1	1.908185E-1	2.141734E-1	2.411900E-1	2.662967E-1	2.624260E-1	2.769731E-1	2.504437E-1	2.589507E-1	2.509177E-1	2.475909E-1	2.684424E-1	2.364778E-1	2.341899E-1	2.463047E-1	2.615915E-1	2.281759E-1	2.626894E-1	2.657919E-1	2.557046E-1	2.732416E-1	2.744626E-1	2.615825E-1	2.436106E-1	2.861916E-1	2.747088E-1	2.149452E-1	2.551985E-1	2.292788E-1	2.605871E-1	2.276924E-1	2.297612E-1	2.299209E-1	2.646150E-1	2.788222E-1	2.377429E-1	2.638017E-1	2.152937E-1	2.509341E-1	2.768276E-1	2.480655E-1	2.325613E-1	2.183178E-1	2.270293E-1	2.356019E-1	2.412327E-1	2.024898E-1	2.348067E-1	2.717422E-1	2.317266E-1	2.572265E-1	2.696943E-1	2.599882E-1	2.497114E-1	2.779880E-1	2.696567E-1	2.243300E-1	2.174571E-1	2.456527E-1	2.521897E-1	2.670118E-1	2.259991E-1	2.198385E-1	2.663535E-1	2.247514E-1	2.630557E-1	2.351964E-1	2.610745E-1	2.631115E-1	2.493349E-1	2.444537E-1	2.676049E-1	1.987263E-1	2.396195E-1	2.382659E-1	2.010728E-1	2.492428E-1	2.194330E-1	1.968668E-1	2.619627E-1	2.067520E-1	2.463169E-1	2.429754E-1	2.238099E-1	2.140468E-1	2.268496E-1	2.457447E-1	2.490426E-1	2.258327E-1	2.355359E-1	2.416070E-1	1.972645E-1	2.764408E-1	1.948084E-1	2.473600E-1	2.464675E-1	2.539024E-1	2.521643E-1	2.253702E-1	2.292733E-1	2.246377E-1	2.607835E-1	2.473169E-1	2.489393E-1	2.288053E-1	2.436496E-1	2.598548E-1	2.256535E-1	2.343657E-1	2.426629E-1	2.416972E-1	2.460705E-1	2.460974E-1	2.059630E-1	2.574746E-1	2.377323E-1	2.451233E-1	2.130811E-1	2.670324E-1	1.999078E-1	2.298145E-1	2.445055E-1	2.534729E-1	2.715791E-1	2.079651E-1	2.237616E-1	2.545750E-1	2.544017E-1	2.610582E-1	2.756309E-1	2.208447E-1	2.340313E-1	2.409229E-1	2.560635E-1	2.571055E-1	2.474013E-1	2.343797E-1	2.675212E-1	2.163225E-1	2.261948E-1	2.276057E-1	2.183671E-1	2.453433E-1	2.564152E-1	2.400913E-1	1.992960E-1	2.004648E-1	2.730057E-1	2.427265E-1	2.675031E-1	2.399676E-1	2.351801E-1
2.847020E+2	4.455316E-1	4.304079E-1	4.103629E-1	4.094445E-1	4.495683E-1	4.792045E-1	4.123200E-1	4.347445E-1	4.220590E-1	4.588297E-1	4.287987E-1	4.398623E-1	4.164185E-1	4.124775E-1	4.243990E-1	4.294430E-1	3.773455E-1	4.387163E-1	4.333271E-1	4.201437E-1	4.165913E-1	3.898037E-1	5.666628E-1	4.973015E-1	5.402215E-1	5.108171E-1	4.929598E-1	4.732498E-1	4.593279E-1	4.859791E-1	5.040026E-1	5.222890E-1	5.109469E-1	4.902177E-1	5.069624E-1	4.866807E-1	5.244782E-1	5.010752E-1	4.887129E-1	5.333220E-1	3.947949E-1	4.958716E-1	4.951319E-1	4.509669E-1	5.078761E-1	4.411160E-1	3.968019E-1	4.591920E-1	4.405202E-1	4.777308E-1	4.893530E-1	4.702250E-1	4.917811E-1	4.768290E-1	4.613897E-1	4.539900E-1	4.447190E-1	4.402529E-1	5.055973E-1	5.475651E-1	4.782928E-1	4.171920E-1	4.744310E-1	4.820310E-1	4.270855E-1	4.236788E-1	4.871802E-1	4.390963E-1	4.499600E-1	4.624891E-1	4.899840E-1	4.366885E-1	4.876266E-1	4.064241E-1	4.456036E-1	4.870782E-1	4.448030E-1	4.557716E-1	4.558701E-1	4.201272E-1	4.257214E-1	4.709872E-1	4.335885E-1	4.252947E-1	4.819486E-1	4.549457E-1	4.127086E-1	4.608035E-1	4.528354E-1	4.543291E-1	4.017026E-1	4.875631E-1	4.556827E-1	4.494574E-1	4.247313E-1	4.241090E-1	4.452287E-1	4.628705E-1	4.365123E-1	4.693625E-1	5.099072E-1	4.421262E-1	4.145137E-1	4.103735E-1	4.197526E-1	4.854574E-1	4.572184E-1	3.959823E-1	4.445065E-1	4.759433E-1	4.249300E-1	4.294924E-1	4.280597E-1	4.521333E-1	4.653660E-1	4.320098E-1	4.543394E-1	4.683075E-1	4.372830E-1	4.442892E-1	5.063027E-1	4.525683E-1	4.894879E-1	4.909588E-1	4.469035E-1	4.102004E-1	4.207291E-1	4.425286E-1	3.977527E-1	4.369471E-1	4.870873E-1	4.767215E-1	4.333726E-1	5.231235E-1	4.066483E-1	4.737829E-1	4.690575E-1	3.938926E-1	4.897949E-1	4.300272E-1	4.096457E-1	4.825309E-1	4.830644E-1	4.571699E-1	4.793200E-1	5.043866E-1	4.456854E-1	4.139604E-1	4.205347E-1	4.973099E-1	4.525947E-1	3.828450E-1	4.844065E-1	4.617078E-1	4.263534E-1	4.462164E-1	4.562501E-1	4.778676E-1	4.331295E-1	4.570759E-1	4.195484E-1	4.586126E-1	4.077471E-1	4.316332E-1	5.094528E-1	4.098115E-1	4.540922E-1	4.454535E-1	3.749510E-1	4.441637E-1	4.045377E-1
2.848000E+2	1.138860E+0	1.152425E+0	1.094543E+0	1.062305E+0	1.098475E+0	1.045848E+0	9.245432E-1	1.063545E+0	1.078516E+0	1.155438E+0	1.093593E+0	1.058539E+0	1.091643E+0	1.073267E+0	1.105226E+0	1.073313E+0	1.122598E+0	1.074984E+0	1.073394E+0	1.085932E+0	1.148916E+0	1.103384E+0	1.241071E+0	1.249255E+0	1.196815E+0	1.219263E+0	1.186903E+0	1.197092E+0	1.199189E+0	1.232410E+0	1.225105E+0	1.261141E+0	1.163362E+0	1.204206E+0	1.127529E+0	1.143354E+0	1.217359E+0	1.140822E+0	1.057432E+0	1.161973E+0	1.193616E+0	1.141160E+0	1.061304E+0	1.203070E+0	1.243067E+0	1.136144E+0	1.055158E+0	1.164455E+0	1.114572E+0	1.158407E+0	1.182411E+0	1.140865E+0	1.159705E+0	1.160796E+0	1.105798E+0	1.245079E+0	1.142947E+0	1.227136E+0	1.177840E+0	1.199665E+0	1.116580E+0	1.106962E+0	1.159888E+0	1.120960E+0	1.061290E+0	1.154348E+0	1.108632E+0	1.103942E+0	1.114226E+0	1.080477E+0	1.143238E+0	1.217537E+0	1.118563E+0	1.276468E+0	1.157423E+0	1.121502E+0	1.133499E+0	1.105220E+0	1.077955E+0	1.080997E+0	1.204651E+0	1.181273E+0	1.247888E+0	1.104839E+0	1.239860E+0	1.216365E+0	1.162890E+0	1.111059E+0	1.124788E+0	1.143294E+0	1.229716E+0	1.153186E+0	1.182287E+0	1.166443E+0	1.172858E+0	1.104361E+0	1.192683E+0	1.189057E+0	1.191281E+0	1.184533E+0	1.098483E+0	1.154682E+0	1.068394E+0	1.184879E+0	1.184741E+0	1.225552E+0	1.150644E+0	1.153764E+0	1.203015E+0	1.223307E+0	1.177565E+0	1.126102E+0	1.109041E+0	1.172236E+0	1.176908E+0	1.131142E+0	1.063468E+0	1.116399E+0	1.087788E+0	1.119235E+0	1.073591E+0	1.050162E+0	1.165894E+0	1.172005E+0	1.118930E+0	1.059569E+0	1.113430E+0	1.098091E+0	1.057629E+0	1.129872E+0	1.062058E+0	1.057755E+0	1.103671E+0	1.165521E+0	1.109604E+0	1.079379E+0	1.140045E+0	1.099032E+0	1.109167E+0	1.032895E+0	1.137022E+0	1.142917E+0	1.123573E+0	1.091930E+0	1.170994E+0	1.095990E+0	1.132620E+0	1.062951E+0	1.068040E+0	1.066253E+0	1.193740E+0	1.139055E+0	1.058985E+0	1.175824E+0	1.141234E+0	1.098049E+0	1.107404E+0	1.158882E+0	1.173077E+0	1.111823E+0	1.145559E+0	1.002573E+0	1.153401E+0	1.078670E+0	1.186387E+0	1.118651E+0	1.072605E+0	1.088249E+0	1.169699E+0	1.043818E+0	1.283638E+0
2.849020E+2	1.851719E+0	1.911579E+0	1.900843E+0	1.848322E+0	1.908383E+0	1.891715E+0	1.774251E+0	1.819659E+0	1.813655E+0	1.790544E+0	1.866598E+0	1.897514E+0	1.816076E+0	1.789337E+0	1.801108E+0	1.876255E+0	1.913024E+0	1.892945E+0	1.806843E+0	1.914769E+0	1.856434E+0	1.871569E+0	1.854594E+0	1.799380E+0	1.857200E+0	1.745988E+0	1.806102E+0	1.851106E+0	1.772929E+0	1.763454E+0	1.845316E+0	1.795509E+0	1.874332E+0	1.795759E+0	1.956016E+0	1.817970E+0	1.838649E+0	1.850001E+0	1.886212E+0	1.874192E+0	1.874331E+0	1.894503E+0	1.839528E+0	1.920285E+0	1.925943E+0	1.888991E+0	1.869588E+0	1.880196E+0	1.912591E+0	1.878095E+0	1.804088E+0	1.983086E+0	1.898034E+0	1.840856E+0	1.863463E+0	1.810341E+0	1.802616E+0	1.775519E+0	1.909200E+0	1.869261E+0	1.808868E+0	1.842796E+0	1.877526E+0	1.768863E+0	1.827095E+0	1.848271E+0	1.906387E+0	1.874625E+0	1.889404E+0	1.791284E+0	1.899863E+0	1.854872E+0	1.824354E+0	1.792433E+0	1.863016E+0	1.846684E+0	1.838623E+0	1.836414E+0	1.755034E+0	1.764959E+0	1.815552E+0	1.913117E+0	1.855495E+0	1.780247E+0	1.901965E+0	1.864456E+0	1.756921E+0	1.913105E+0	1.771730E+0	1.866018E+0	1.765692E+0	1.868609E+0	1.796681E+0	1.967120E+0	1.821038E+0	1.836324E+0	1.906704E+0	1.933032E+0	1.871160E+0	1.894553E+0	1.775975E+0	1.895239E+0	1.813096E+0	1.792879E+0	1.919140E+0	1.941922E+0	1.905654E+0	1.806749E+0	1.791649E+0	1.877633E+0	1.809946E+0	1.832745E+0	1.788767E+0	1.837446E+0	1.822483E+0	1.807971E+0	1.947238E+0	1.918166E+0	1.896334E+0	1.860248E+0	1.743415E+0	1.866644E+0	1.850791E+0	1.742941E+0	1.735325E+0	1.903495E+0	1.834663E+0	1.701269E+0	1.775299E+0	1.830627E+0	1.810319E+0	1.768936E+0	1.833671E+0	1.859260E+0	1.846236E+0	1.815883E+0	1.772873E+0	1.797257E+0	1.796114E+0	1.786982E+0	1.807969E+0	1.920660E+0	1.878529E+0	1.802554E+0	1.792869E+0	1.772043E+0	1.942769E+0	1.937689E+0	1.803221E+0	1.805856E+0	1.878999E+0	1.853782E+0	1.897579E+0	1.896790E+0	1.817073E+0	1.846994E+0	1.840123E+0	1.867115E+0	1.937693E+0	1.798677E+0	1.825795E+0	1.693794E+0	1.842843E+0	1.725763E+0	1.857156E+0	1.857868E+0	1.975824E+0	1.977430E+0	1.859949E+0	1.814002E+0	1.783128E+0
2.850030E+2	1.882786E+0	1.930136E+0	1.891785E+0	1.852073E+0	1.914695E+0	1.959161E+0	1.789868E+0	1.932087E+0	1.934090E+0	1.862100E+0	1.858205E+0	1.958803E+0	1.864325E+0	1.896416E+0	1.919720E+0	1.935353E+0	1.912648E+0	1.908109E+0	1.896536E+0	1.999038E+0	1.946662E+0	1.860993E+0	1.911053E+0	1.730029E+0	1.865208E+0	1.815163E+0	1.812471E+0	1.708422E+0	1.874204E+0	1.775810E+0	1.891748E+0	1.845772E+0	1.932082E+0	1.835135E+0	1.872258E+0	1.757423E+0	1.873417E+0	1.776254E+0	1.806839E+0	1.879989E+0	1.864770E+0	1.867084E+0	1.793822E+0	1.812423E+0	1.990458E+0	1.893001E+0	1.808866E+0	1.783605E+0	1.742204E+0	1.847862E+0	1.768562E+0	1.856307E+0	1.982232E+0	1.841619E+0	1.882519E+0	1.794922E+0	1.881026E+0	1.790504E+0	1.931681E+0	1.795319E+0	1.823491E+0	1.935967E+0	1.796199E+0	1.737136E+0	1.820619E+0	1.797684E+0	1.847512E+0	1.865969E+0	1.853730E+0	1.900930E+0	1.779099E+0	1.876562E+0	1.819057E+0	1.793943E+0	1.862583E+0	1.819185E+0	1.889517E+0	1.884786E+0	1.854534E+0	1.809852E+0	1.962844E+0	1.903035E+0	1.937655E+0	1.804484E+0	1.891697E+0	1.845809E+0	1.880212E+0	1.874578E+0	1.968636E+0	1.890870E+0	1.861920E+0	1.829230E+0	1.816905E+0	1.807819E+0	1.838647E+0	1.860544E+0	1.922265E+0	1.922515E+0	1.949041E+0	1.919997E+0	1.822990E+0	1.873917E+0	1.798822E+0	1.887084E+0	1.906411E+0	1.954652E+0	1.912455E+0	1.933111E+0	1.928323E+0	1.899582E+0	1.921296E+0	1.985265E+0	1.819903E+0	1.879355E+0	1.826129E+0	1.822629E+0	1.786430E+0	1.873096E+0	1.945259E+0	1.944775E+0	1.900107E+0	1.791126E+0	1.798411E+0	1.793653E+0	1.818990E+0	1.889386E+0	1.806077E+0	1.821779E+0	1.708998E+0	1.815201E+0	1.899839E+0	1.868588E+0	1.838192E+0	1.930193E+0	1.922439E+0	1.826621E+0	1.802165E+0	1.863646E+0	1.970399E+0	1.763779E+0	1.901902E+0	1.921136E+0	1.748658E+0	1.793230E+0	1.907463E+0	1.801422E+0	1.847920E+0	1.930698E+0	1.904279E+0	1.850169E+0	1.870655E+0	1.946985E+0	1.859239E+0	1.881397E+0	1.856217E+0	1.917380E+0	1.783964E+0	1.870604E+0	1.963102E+0	1.919882E+0	1.823082E+0	1.893749E+0	1.907776E+0	1.847687E+0	1.820364E+0	1.911976E+0	1.908542E+0	1.867278E+0	1.775173E+0	1.789393E+0	2.043838E+0
2.851000E+2	1.510504E+0	1.458679E+0	1.505057E+0	1.493069E+0	1.504009E+0	1.585703E+0	1.490732E+0	1.567902E+0	1.628030E+0	1.531652E+0	1.616753E+0	1.549398E+0	1.543418E+0	1.496797E+0	1.597472E+0	1.690966E+0	1.491536E+0	1.593269E+0	1.490975E+0	1.573386E+0	1.518587E+0	1.474102E+0	1.569532E+0	1.554593E+0	1.484070E+0	1.469054E+0	1.664268E+0	1.444783E+0	1.481045E+0	1.456499E+0	1.515762E+0	1.523698E+0	1.601282E+0	1.367334E+0	1.456396E+0	1.565989E+0	1.599158E+0	1.489859E+0	1.520616E+0	1.544309E+0	1.411733E+0	1.501337E+0	1.478802E+0	1.544039E+0	1.532295E+0	1.511612E+0	1.477839E+0	1.468206E+0	1.528470E+0	1.514803E+0	1.493114E+0	1.508216E+0	1.624053E+0	1.611527E+0	1.477494E+0	1.582680E+0	1.571075E+0	1.548459E+0	1.431471E+0	1.523655E+0	1.490469E+0	1.487656E+0	1.566850E+0	1.514174E+0	1.499591E+0	1.486908E+0	1.587638E+0	1.590584E+0	1.540130E+0	1.539285E+0	1.546534E+0	1.635747E+0	1.532535E+0	1.513579E+0	1.490746E+0	1.540322E+0	1.475228E+0	1.615499E+0	1.520404E+0	1.587474E+0	1.536678E+0	1.518759E+0	1.569970E+0	1.465213E+0	1.544746E+0	1.619120E+0	1.529466E+0	1.612761E+0	1.623925E+0	1.499981E+0	1.575652E+0	1.537015E+0	1.483149E+0	1.507996E+0	1.488286E+0	1.512758E+0	1.493109E+0	1.501086E+0	1.586140E+0	1.513137E+0	1.529970E+0	1.571007E+0	1.422466E+0	1.510900E+0	1.501252E+0	1.598261E+0	1.646019E+0	1.494922E+0	1.436986E+0	1.513304E+0	1.672501E+0	1.565729E+0	1.457508E+0	1.506308E+0	1.545709E+0	1.500690E+0	1.553980E+0	1.543208E+0	1.631198E+0	1.566731E+0	1.555989E+0	1.563413E+0	1.522941E+0	1.459776E+0	1.457216E+0	1.502634E+0	1.480429E+0	1.460797E+0	1.528201E+0	1.475331E+0	1.586390E+0	1.502614E+0	1.478408E+0	1.519311E+0	1.457733E+0	1.547139E+0	1.473393E+0	1.529970E+0	1.461884E+0	1.442380E+0	1.526707E+0	1.578724E+0	1.591340E+0	1.521594E+0	1.427751E+0	1.446082E+0	1.560111E+0	1.569354E+0	1.541687E+0	1.649209E+0	1.580319E+0	1.574510E+0	1.558696E+0	1.467209E+0	1.477083E+0	1.642970E+0	1.461870E+0	1.585815E+0	1.548256E+0	1.584433E+0	1.595439E+0	1.578673E+0	1.578488E+0	1.580210E+0	1.487895E+0	1.604036E+0	1.544289E+0	1.604976E+0	1.464557E+0	1.415650E+0	1.415251E+0
2.852010E+2	1.302777E+0	1.376922E+0	1.383916E+0	1.237310E+0	1.332974E+0	1.432543E+0	1.332584E+0	1.380488E+0	1.427828E+0	1.369352E+0	1.310058E+0	1.299263E+0	1.347357E+0	1.387672E+0	1.296322E+0	1.339011E+0	1.429973E+0	1.273499E+0	1.239554E+0	1.371845E+0	1.312964E+0	1.319049E+0	1.389241E+0	1.296498E+0	1.272964E+0	1.416945E+0	1.323806E+0	1.371029E+0	1.342527E+0	1.292425E+0	1.316052E+0	1.283631E+0	1.372857E+0	1.310711E+0	1.332535E+0	1.312688E+0	1.305730E+0	1.287914E+0	1.336226E+0	1.390615E+0	1.343254E+0	1.362438E+0	1.361356E+0	1.356031E+0	1.404707E+0	1.279798E+0	1.229407E+0	1.308533E+0	1.252889E+0	1.319420E+0	1.272340E+0	1.275845E+0	1.362027E+0	1.323332E+0	1.416740E+0	1.352060E+0	1.385852E+0	1.371789E+0	1.484290E+0	1.335607E+0	1.341261E+0	1.276298E+0	1.365397E+0	1.364796E+0	1.303762E+0	1.252546E+0	1.357595E+0	1.373325E+0	1.304923E+0	1.214053E+0	1.420666E+0	1.338792E+0	1.334221E+0	1.390425E+0	1.263822E+0	1.305231E+0	1.275541E+0	1.299331E+0	1.244413E+0	1.313634E+0	1.408425E+0	1.333038E+0	1.341635E+0	1.363766E+0	1.418075E+0	1.293735E+0	1.312904E+0	1.308950E+0	1.315541E+0	1.286698E+0	1.389985E+0	1.336148E+0	1.286096E+0	1.333205E+0	1.334267E+0	1.299167E+0	1.267888E+0	1.299002E+0	1.347804E+0	1.350983E+0	1.419137E+0	1.350697E+0	1.304263E+0	1.231922E+0	1.360134E+0	1.304560E+0	1.320951E+0	1.409112E+0	1.268406E+0	1.353419E+0	1.354872E+0	1.312154E+0	1.315086E+0	1.391295E+0	1.377501E+0	1.305314E+0	1.396357E+0	1.367662E+0	1.303672E+0	1.328954E+0	1.344309E+0	1.338080E+0	1.390117E+0	1.310919E+0	1.274349E+0	1.417338E+0	1.296027E+0	1.326062E+0	1.325843E+0	1.379654E+0	1.270978E+0	1.352073E+0	1.342472E+0	1.318151E+0	1.381586E+0	1.300485E+0	1.462833E+0	1.283642E+0	1.455149E+0	1.377228E+0	1.360155E+0	1.343079E+0	1.341210E+0	1.386387E+0	1.269219E+0	1.241506E+0	1.356906E+0	1.335566E+0	1.283003E+0	1.211010E+0	1.257231E+0	1.351627E+0	1.329012E+0	1.295277E+0	1.432649E+0	1.317750E+0	1.223240E+0	1.369505E+0	1.318037E+0	1.349718E+0	1.319192E+0	1.346290E+0	1.335052E+0	1.361573E+0	1.344188E+0	1.326228E+0	1.304904E+0	1.332975E+0	1.378028E+0	1.498978E+0	1.394770E+0
2.853000E+2	1.061163E+0	1.046849E+0	1.104764E+0	1.039657E+0	1.079663E+0	1.058799E+0	1.090316E+0	1.080539E+0	1.011383E+0	9.895492E-1	1.127244E+0	1.123327E+0	1.032796E+0	1.064972E+0	1.137165E+0	1.071784E+0	1.095046E+0	1.055021E+0	1.023052E+0	1.163623E+0	1.071424E+0	1.046292E+0	1.111783E+0	1.005915E+0	1.057898E+0	1.042256E+0	1.040529E+0	1.083142E+0	1.071562E+0	1.018884E+0	1.071866E+0	1.098110E+0	1.069485E+0	9.686788E-1	9.868987E-1	1.016081E+0	1.125108E+0	1.044328E+0	1.060236E+0	1.077051E+0	1.123137E+0	1.096999E+0	1.040265E+0	1.109587E+0	1.159497E+0	1.079673E+0	1.158726E+0	1.046242E+0	1.041417E+0	1.082154E+0	1.009892E+0	1.103288E+0	1.077877E+0	1.072743E+0	1.160154E+0	1.118628E+0	1.096422E+0	1.144662E+0	1.117450E+0	1.049213E+0	1.002668E+0	9.917546E-1	1.132255E+0	1.119308E+0	1.061164E+0	1.087768E+0	1.114930E+0	1.050033E+0	1.121335E+0	1.039569E+0	1.114923E+0	1.036356E+0	1.134734E+0	1.166972E+0	1.027860E+0	1.072439E+0	1.071462E+0	1.054761E+0	1.035949E+0	9.908986E-1	1.108047E+0	1.180497E+0	1.117168E+0	1.041905E+0	1.071281E+0	1.142653E+0	1.009349E+0	1.068184E+0	9.960262E-1	1.029731E+0	9.945396E-1	1.118641E+0	1.081091E+0	1.079516E+0	1.063082E+0	1.059812E+0	1.088680E+0	1.022796E+0	1.116109E+0	1.166364E+0	9.995557E-1	1.118495E+0	1.103150E+0	1.091893E+0	1.049013E+0	1.088480E+0	1.057007E+0	1.045548E+0	9.982416E-1	1.086416E+0	1.061636E+0	1.108150E+0	1.063362E+0	1.068816E+0	1.081281E+0	1.098847E+0	1.117087E+0	1.156036E+0	1.036110E+0	1.049575E+0	1.071657E+0	1.175684E+0	1.063191E+0	9.836991E-1	9.917640E-1	1.153186E+0	1.071066E+0	1.056957E+0	1.035895E+0	1.052466E+0	1.128309E+0	1.127594E+0	1.068156E+0	1.073135E+0	1.063656E+0	1.093582E+0	1.035525E+0	9.822989E-1	1.107581E+0	1.081119E+0	1.124026E+0	1.086244E+0	1.024433E+0	1.033000E+0	1.089945E+0	1.048868E+0	1.205115E+0	1.048186E+0	1.119958E+0	1.063071E+0	1.064030E+0	1.068544E+0	1.035709E+0	1.093448E+0	1.109309E+0	1.051510E+0	1.045800E+0	1.144205E+0	1.113156E+0	1.073597E+0	1.070493E+0	1.053353E+0	1.126232E+0	1.100030E+0	1.094976E+0	1.157957E+0	1.078305E+0	1.080930E+0	1.073584E+0	9.267633E-1	1.243736E+0
2.854010E+2	7.073751E-1	8.356057E-1	7.536992E-1	8.231676E-1	7.697209E-1	7.963868E-1	7.412909E-1	8.045836E-1	8.188135E-1	7.533077E-1	8.006729E-1	7.898356E-1	7.435466E-1	7.439320E-1	8.204292E-1	7.792801E-1	8.139797E-1	7.865087E-1	7.715543E-1	7.802585E-1	8.311732E-1	8.407480E-1	8.259244E-1	8.361931E-1	8.325788E-1	7.864416E-1	8.407571E-1	7.453590E-1	7.323249E-1	7.434501E-1	7.791088E-1	8.162278E-1	7.915979E-1	8.616480E-1	7.962092E-1	7.827339E-1	7.904215E-1	8.249490E-1	8.153415E-1	8.326015E-1	8.004093E-1	8.112970E-1	8.153015E-1	8.607898E-1	7.889886E-1	8.649146E-1	7.824103E-1	8.358365E-1	7.307176E-1	7.843982E-1	8.389736E-1	7.676025E-1	7.370204E-1	8.057791E-1	8.454915E-1	8.249210E-1	7.756978E-1	7.800936E-1	8.175192E-1	7.188142E-1	7.822820E-1	7.216602E-1	7.820319E-1	7.844794E-1	7.208684E-1	7.451945E-1	8.496955E-1	7.803867E-1	8.294836E-1	8.077581E-1	8.636225E-1	8.403133E-1	8.023559E-1	7.894956E-1	8.306599E-1	8.219660E-1	7.861757E-1	8.557329E-1	7.559558E-1	7.476696E-1	7.413510E-1	8.623022E-1	9.095705E-1	8.297971E-1	7.970116E-1	8.152714E-1	8.407370E-1	8.026182E-1	7.593151E-1	8.044842E-1	8.202900E-1	7.589857E-1	7.780616E-1	8.203159E-1	7.946683E-1	8.587451E-1	8.160150E-1	7.824957E-1	7.504476E-1	8.409092E-1	8.427944E-1	7.805969E-1	8.324949E-1	7.872017E-1	7.918928E-1	8.270534E-1	8.397654E-1	7.750372E-1	8.225441E-1	7.566231E-1	7.680603E-1	8.041883E-1	8.082708E-1	7.900911E-1	7.759836E-1	7.765272E-1	8.125024E-1	7.977824E-1	7.838562E-1	7.841003E-1	8.798822E-1	7.827120E-1	8.505429E-1	7.559733E-1	7.754466E-1	8.106598E-1	8.051992E-1	7.554061E-1	7.223857E-1	7.872870E-1	8.860614E-1	7.198696E-1	7.825959E-1	8.455139E-1	8.382655E-1	7.954356E-1	8.197740E-1	7.689107E-1	8.296536E-1	7.465566E-1	8.043070E-1	8.765217E-1	7.394236E-1	7.854163E-1	8.292516E-1	7.560026E-1	8.425136E-1	8.479930E-1	7.196454E-1	8.045132E-1	8.324591E-1	8.063019E-1	8.282441E-1	8.442615E-1	8.101032E-1	8.300409E-1	8.285266E-1	7.829660E-1	9.085203E-1	7.955351E-1	8.637464E-1	7.795125E-1	8.266567E-1	7.715186E-1	7.831073E-1	8.256662E-1	8.503583E-1	7.458943E-1	7.672286E-1	8.368637E-1	8.414970E-1
2.855000E+2	6.020072E-1	5.070948E-1	5.519169E-1	5.709876E-1	5.608315E-1	5.161836E-1	5.313020E-1	5.663738E-1	5.779626E-1	5.363266E-1	5.660415E-1	5.193799E-1	6.147252E-1	5.450937E-1	5.840538E-1	5.508286E-1	5.433451E-1	5.108043E-1	5.548179E-1	5.780545E-1	5.992914E-1	5.312328E-1	5.766523E-1	5.211704E-1	5.419499E-1	5.789083E-1	5.660344E-1	5.764213E-1	6.042481E-1	5.553769E-1	5.576132E-1	6.343645E-1	5.707123E-1	5.329742E-1	5.238801E-1	4.840075E-1	5.954471E-1	5.775918E-1	5.696070E-1	6.111717E-1	5.611772E-1	5.700760E-1	5.308391E-1	5.444759E-1	5.783634E-1	5.479691E-1	5.620241E-1	5.388466E-1	5.108830E-1	5.562581E-1	5.035913E-1	5.602478E-1	5.224618E-1	5.986804E-1	5.878361E-1	5.717085E-1	5.201442E-1	5.860023E-1	5.738181E-1	5.769860E-1	5.499961E-1	5.907846E-1	5.796408E-1	5.525604E-1	5.453342E-1	5.123921E-1	5.860539E-1	6.255702E-1	5.868479E-1	5.242656E-1	6.184987E-1	5.449065E-1	5.484013E-1	5.504831E-1	5.763569E-1	5.662502E-1	5.870652E-1	5.239358E-1	5.888993E-1	5.679522E-1	5.098278E-1	5.925144E-1	5.599541E-1	5.463233E-1	5.289374E-1	5.979816E-1	6.018159E-1	5.469590E-1	5.677117E-1	5.661350E-1	6.143906E-1	5.239373E-1	5.725668E-1	5.643563E-1	5.687000E-1	5.293506E-1	5.450138E-1	6.151043E-1	5.486990E-1	6.178089E-1	5.637689E-1	5.704017E-1	5.439577E-1	5.426424E-1	5.533580E-1	5.467381E-1	5.883018E-1	6.230175E-1	6.385438E-1	6.254937E-1	5.279232E-1	5.547304E-1	5.327348E-1	5.757739E-1	5.844895E-1	5.565390E-1	5.783697E-1	5.544320E-1	5.567893E-1	5.551958E-1	5.888984E-1	4.898122E-1	6.021991E-1	5.456057E-1	4.999597E-1	5.476790E-1	6.070860E-1	5.922326E-1	5.127951E-1	5.994239E-1	4.922316E-1	5.860951E-1	5.528442E-1	5.944045E-1	5.267647E-1	5.321574E-1	5.818813E-1	5.643603E-1	6.121727E-1	5.663131E-1	5.594078E-1	5.449076E-1	5.140391E-1	5.991833E-1	5.218004E-1	5.956853E-1	6.159256E-1	6.150014E-1	5.315094E-1	5.478936E-1	5.873186E-1	5.923244E-1	5.527227E-1	5.495692E-1	5.680504E-1	6.068220E-1	5.396203E-1	5.931670E-1	5.806048E-1	5.275738E-1	6.048063E-1	5.878464E-1	5.602915E-1	5.502171E-1	6.254513E-1	5.206514E-1	6.311166E-1	5.939044E-1	5.357930E-1	5.834337E-1	6.189871E-1
2.856010E+2	4.117605E-1	4.885016E-1	3.859141E-1	4.073230E-1	3.749711E-1	4.016292E-1	3.827778E-1	3.670896E-1	4.585534E-1	4.114572E-1	4.371026E-1	4.684505E-1	3.805832E-1	3.988420E-1	4.217641E-1	3.582064E-1	4.316267E-1	4.050548E-1	3.716823E-1	4.141470E-1	3.682716E-1	4.859498E-1	4.531373E-1	4.404423E-1	4.188429E-1	3.743610E-1	4.071414E-1	4.068602E-1	4.012311E-1	3.499507E-1	4.004309E-1	4.312463E-1	4.333377E-1	4.073536E-1	4.498084E-1	4.299404E-1	4.483476E-1	4.732980E-1	4.429771E-1	3.760011E-1	4.061122E-1	3.668946E-1	4.593450E-1	3.968843E-1	4.067311E-1	4.238193E-1	4.004531E-1	4.061727E-1	4.275314E-1	3.598050E-1	4.140262E-1	4.016128E-1	4.224595E-1	4.264547E-1	3.937154E-1	4.318248E-1	4.525296E-1	3.824637E-1	4.123548E-1	4.001693E-1	3.887906E-1	4.025879E-1	4.383205E-1	3.398159E-1	3.873977E-1	3.386333E-1	4.821629E-1	4.180180E-1	4.175003E-1	4.146608E-1	3.973392E-1	4.129273E-1	4.070306E-1	4.322468E-1	4.296479E-1	4.100555E-1	4.075626E-1	4.089038E-1	4.148841E-1	3.616558E-1	4.226812E-1	4.904950E-1	4.229793E-1	4.384308E-1	4.320658E-1	4.150720E-1	4.362639E-1	3.929663E-1	4.178637E-1	3.653330E-1	4.070798E-1	4.057962E-1	4.139751E-1	4.210991E-1	4.301432E-1	4.222019E-1	4.252029E-1	3.787911E-1	4.011135E-1	4.351429E-1	3.796394E-1	4.294486E-1	4.002446E-1	4.152263E-1	4.383798E-1	4.261936E-1	3.785927E-1	3.430373E-1	4.063538E-1	3.987773E-1	4.225422E-1	4.211536E-1	3.812828E-1	4.250617E-1	3.853593E-1	3.900444E-1	4.357555E-1	4.208300E-1	4.009028E-1	4.196643E-1	3.867050E-1	4.487340E-1	4.597141E-1	3.809347E-1	4.362289E-1	4.697712E-1	4.125926E-1	4.367952E-1	4.178706E-1	3.828300E-1	3.787995E-1	3.772338E-1	4.541261E-1	4.075790E-1	4.574010E-1	3.842364E-1	3.837485E-1	3.578067E-1	4.027710E-1	4.329586E-1	3.737754E-1	4.342934E-1	3.839256E-1	3.689116E-1	4.339340E-1	3.937116E-1	4.519532E-1	4.605692E-1	4.064891E-1	4.115942E-1	4.157550E-1	4.341210E-1	4.350497E-1	4.124376E-1	4.186718E-1	3.558536E-1	3.973819E-1	3.736935E-1	4.397849E-1	3.734348E-1	3.682638E-1	4.129042E-1	4.476356E-1	4.308165E-1	4.165516E-1	4.198031E-1	4.116679E-1	4.574219E-1	4.197173E-1	3.981026E-1	4.917963E-1
2.858040E+2	3.398589E-1	3.723128E-1	3.863264E-1	3.960980E-1	3.430627E-1	3.676182E-1	3.986834E-1	3.977044E-1	3.512456E-1	4.275406E-1	3.635080E-1	4.531477E-1	3.813969E-1	4.079594E-1	3.564740E-1	4.653122E-1	3.857765E-1	3.847424E-1	3.821588E-1	3.976166E-1	4.136505E-1	3.820310E-1	4.190914E-1	4.596699E-1	4.183193E-1	4.434220E-1	4.346225E-1	3.890401E-1	3.852493E-1	3.851359E-1	4.150246E-1	4.624542E-1	4.281797E-1	3.708532E-1	4.417121E-1	4.232733E-1	3.975270E-1	3.764387E-1	4.196068E-1	3.992736E-1	3.783832E-1	4.071102E-1	4.071137E-1	4.237754E-1	4.157355E-1	4.068703E-1	4.185157E-1	4.229992E-1	3.619353E-1	4.355119E-1	3.985816E-1	3.868522E-1	4.113593E-1	4.639469E-1	3.903146E-1	4.282450E-1	3.552635E-1	4.488888E-1	3.933674E-1	3.610545E-1	4.372711E-1	3.659364E-1	4.271767E-1	4.052160E-1	4.023159E-1	3.510570E-1	3.356892E-1	4.043214E-1	3.463930E-1	4.216590E-1	4.177621E-1	3.859331E-1	3.558072E-1	3.060944E-1	3.881357E-1	3.827324E-1	3.977503E-1	3.924458E-1	4.019457E-1	4.001883E-1	3.986012E-1	3.926209E-1	4.327091E-1	3.802959E-1	3.601723E-1	4.041278E-1	4.019013E-1	3.639181E-1	4.060641E-1	4.071776E-1	4.420548E-1	4.196642E-1	3.756749E-1	4.085244E-1	4.225843E-1	4.026927E-1	3.818103E-1	3.748929E-1	4.055691E-1	4.290911E-1	3.961818E-1	3.427268E-1	4.127227E-1	4.469122E-1	4.129493E-1	4.003711E-1	4.274186E-1	4.217979E-1	3.872028E-1	3.677961E-1	3.572729E-1	4.234593E-1	3.485935E-1	4.396159E-1	4.084578E-1	3.580100E-1	4.003628E-1	3.944100E-1	4.256613E-1	4.068189E-1	3.849216E-1	4.267228E-1	4.183962E-1	4.256096E-1	4.097684E-1	3.914687E-1	3.690101E-1	3.861289E-1	3.953835E-1	3.996765E-1	4.648534E-1	4.007650E-1	4.063554E-1	4.029663E-1	3.941987E-1	3.787985E-1	4.155994E-1	3.796068E-1	4.686741E-1	3.539785E-1	4.023585E-1	4.179586E-1	3.810226E-1	4.155946E-1	3.810089E-1	3.826952E-1	4.119907E-1	4.477295E-1	4.120746E-1	4.162627E-1	3.715737E-1	4.382774E-1	4.054181E-1	4.160708E-1	3.855844E-1	3.971690E-1	3.999903E-1	4.069052E-1	4.421836E-1	3.803024E-1	4.077246E-1	3.852444E-1	4.173848E-1	3.690302E-1	3.495620E-1	3.949633E-1	4.083598E-1	4.320320E-1	4.192140E-1	3.714772E-1	4.536821E-1
2.860080E+2	6.511197E-1	7.160230E-1	6.575395E-1	6.080294E-1	6.013822E-1	6.041313E-1	5.985403E-1	6.765312E-1	6.361453E-1	6.513558E-1	7.307857E-1	6.224343E-1	6.379992E-1	5.944623E-1	6.615037E-1	6.608320E-1	7.283692E-1	6.465455E-1	5.881179E-1	6.462454E-1	6.359460E-1	6.403510E-1	7.401006E-1	7.260771E-1	6.569449E-1	6.961509E-1	6.782715E-1	6.029422E-1	7.069121E-1	6.660854E-1	6.444897E-1	7.009416E-1	6.959949E-1	6.793562E-1	6.860792E-1	6.333373E-1	6.616917E-1	6.803211E-1	6.900824E-1	7.142164E-1	7.029826E-1	7.001776E-1	6.248167E-1	6.701434E-1	7.006302E-1	6.250870E-1	6.329725E-1	7.135046E-1	6.638803E-1	7.230008E-1	6.751686E-1	6.893366E-1	7.081062E-1	6.129367E-1	6.978724E-1	6.482770E-1	6.516370E-1	6.898988E-1	6.545761E-1	6.580157E-1	6.034169E-1	6.351154E-1	7.064278E-1	6.196166E-1	6.495293E-1	6.740056E-1	6.606052E-1	6.648369E-1	6.145954E-1	6.584941E-1	6.385549E-1	6.489738E-1	6.720005E-1	7.515478E-1	6.459889E-1	7.288457E-1	6.255713E-1	6.894960E-1	6.274564E-1	6.260993E-1	6.919980E-1	7.002639E-1	6.568992E-1	6.724308E-1	6.667631E-1	6.298852E-1	6.408049E-1	6.870950E-1	6.910089E-1	6.311483E-1	6.584906E-1	6.728166E-1	6.828646E-1	7.493041E-1	6.456021E-1	6.639960E-1	6.545473E-1	6.559498E-1	7.177287E-1	6.535494E-1	6.128044E-1	6.870371E-1	6.557076E-1	6.403447E-1	6.413240E-1	6.321427E-1	7.172489E-1	6.725913E-1	6.862466E-1	6.293158E-1	6.535542E-1	6.099703E-1	6.668233E-1	7.098775E-1	6.661850E-1	6.792734E-1	6.666681E-1	7.166330E-1	6.080430E-1	6.723642E-1	6.795734E-1	6.804784E-1	7.312306E-1	6.142610E-1	6.029670E-1	6.309991E-1	6.088446E-1	6.788741E-1	6.765180E-1	6.306048E-1	5.890833E-1	5.989455E-1	6.274066E-1	6.438394E-1	6.271230E-1	6.076724E-1	6.086449E-1	5.971769E-1	6.423500E-1	6.670895E-1	6.483203E-1	6.824215E-1	6.401798E-1	7.098351E-1	6.283576E-1	6.843329E-1	7.880365E-1	6.598027E-1	6.598572E-1	6.768849E-1	6.672973E-1	6.928873E-1	6.289617E-1	6.643424E-1	6.978800E-1	6.505251E-1	6.322076E-1	6.696151E-1	7.193316E-1	6.505547E-1	6.156209E-1	5.838296E-1	7.171917E-1	6.562493E-1	6.446043E-1	7.083265E-1	6.780964E-1	6.302715E-1	7.407287E-1	6.081852E-1	7.855226E-1
2.862000E+2	9.841457E-1	1.072441E+0	1.035325E+0	1.058050E+0	1.011144E+0	1.055046E+0	1.031465E+0	1.046113E+0	9.353939E-1	1.094505E+0	1.074842E+0	1.026344E+0	1.097330E+0	1.158024E+0	1.025585E+0	1.004920E+0	1.030157E+0	1.067362E+0	1.044490E+0	9.688444E-1	1.041565E+0	9.953384E-1	1.072372E+0	9.845409E-1	1.057042E+0	9.546234E-1	1.069904E+0	1.068844E+0	1.015611E+0	1.037093E+0	1.058296E+0	1.053617E+0	1.043790E+0	1.007991E+0	1.039496E+0	1.017506E+0	1.037788E+0	1.027930E+0	1.025968E+0	9.780938E-1	9.776323E-1	1.025017E+0	1.078466E+0	1.029910E+0	1.005798E+0	9.896799E-1	9.871260E-1	1.020060E+0	9.916771E-1	1.053128E+0	1.074342E+0	1.050285E+0	1.065383E+0	1.059183E+0	1.062413E+0	1.049121E+0	1.031671E+0	1.120554E+0	1.081963E+0	1.041844E+0	9.363326E-1	1.044416E+0	9.712683E-1	1.068950E+0	9.987205E-1	1.020299E+0	1.097561E+0	1.012636E+0	9.812644E-1	1.029714E+0	1.047060E+0	1.092833E+0	1.021393E+0	1.052607E+0	1.005155E+0	1.064000E+0	1.001066E+0	1.109501E+0	9.711386E-1	9.835889E-1	1.042250E+0	1.045096E+0	1.038645E+0	1.087669E+0	9.887088E-1	1.128848E+0	1.009646E+0	1.087029E+0	1.136728E+0	9.882836E-1	9.856342E-1	1.087096E+0	1.072064E+0	1.034017E+0	1.056336E+0	1.031670E+0	1.033709E+0	1.088755E+0	1.026510E+0	1.091382E+0	1.004370E+0	1.037025E+0	9.993109E-1	1.036454E+0	9.838388E-1	1.097100E+0	9.944290E-1	1.088151E+0	1.049887E+0	1.017333E+0	1.035497E+0	1.106044E+0	1.069777E+0	1.053103E+0	1.109590E+0	1.020308E+0	1.074500E+0	1.152831E+0	1.025288E+0	1.092692E+0	1.008854E+0	1.015943E+0	1.010124E+0	1.004288E+0	1.075948E+0	1.066196E+0	1.049882E+0	1.041475E+0	9.965621E-1	1.033106E+0	1.018881E+0	1.000667E+0	1.039065E+0	1.052642E+0	9.450807E-1	1.010701E+0	1.093720E+0	9.961820E-1	9.880997E-1	1.085559E+0	1.005359E+0	9.803255E-1	1.007539E+0	1.059926E+0	9.502843E-1	1.008407E+0	1.088477E+0	1.064796E+0	1.060915E+0	1.067977E+0	1.004136E+0	1.005186E+0	9.785184E-1	1.066954E+0	1.025819E+0	1.019915E+0	1.057066E+0	1.080618E+0	1.025257E+0	1.057640E+0	1.006802E+0	1.045581E+0	1.091915E+0	9.575443E-1	1.035116E+0	1.045406E+0	1.109639E+0	1.017092E+0	1.123288E+0	1.040295E+0	1.082176E+0
2.864000E+2	1.289166E+0	1.300685E+0	1.321632E+0	1.298411E+0	1.346575E+0	1.365701E+0	1.300267E+0	1.354970E+0	1.282017E+0	1.326030E+0	1.254363E+0	1.373325E+0	1.319802E+0	1.308717E+0	1.334501E+0	1.376649E+0	1.348086E+0	1.314032E+0	1.300006E+0	1.381382E+0	1.315078E+0	1.307904E+0	1.327989E+0	1.223208E+0	1.292221E+0	1.294322E+0	1.293046E+0	1.253006E+0	1.263755E+0	1.272710E+0	1.358760E+0	1.207838E+0	1.249293E+0	1.295227E+0	1.285097E+0	1.249022E+0	1.229241E+0	1.342886E+0	1.309330E+0	1.383548E+0	1.297993E+0	1.335473E+0	1.264102E+0	1.308084E+0	1.328414E+0	1.298301E+0	1.299976E+0	1.330181E+0	1.305309E+0	1.297454E+0	1.338935E+0	1.246621E+0	1.235519E+0	1.341914E+0	1.286729E+0	1.284974E+0	1.231998E+0	1.343224E+0	1.274705E+0	1.319231E+0	1.283055E+0	1.258700E+0	1.333918E+0	1.379481E+0	1.224550E+0	1.284678E+0	1.383111E+0	1.286273E+0	1.272007E+0	1.383956E+0	1.301123E+0	1.303548E+0	1.197447E+0	1.241548E+0	1.309991E+0	1.368099E+0	1.275257E+0	1.424805E+0	1.427853E+0	1.341977E+0	1.246510E+0	1.226972E+0	1.324628E+0	1.344905E+0	1.215449E+0	1.374665E+0	1.295539E+0	1.341301E+0	1.276520E+0	1.336831E+0	1.359386E+0	1.342437E+0	1.256083E+0	1.320662E+0	1.268950E+0	1.274901E+0	1.267554E+0	1.289528E+0	1.277163E+0	1.406637E+0	1.247358E+0	1.362066E+0	1.247949E+0	1.343274E+0	1.304132E+0	1.346479E+0	1.298862E+0	1.358764E+0	1.366862E+0	1.314189E+0	1.271273E+0	1.304962E+0	1.294965E+0	1.326223E+0	1.304524E+0	1.230225E+0	1.323766E+0	1.382508E+0	1.278742E+0	1.292770E+0	1.270777E+0	1.218887E+0	1.351336E+0	1.253834E+0	1.203932E+0	1.385699E+0	1.316633E+0	1.268200E+0	1.269589E+0	1.353575E+0	1.323503E+0	1.292235E+0	1.365847E+0	1.284050E+0	1.348156E+0	1.302580E+0	1.282746E+0	1.317322E+0	1.384359E+0	1.266839E+0	1.318567E+0	1.314346E+0	1.338744E+0	1.338148E+0	1.306987E+0	1.239651E+0	1.369855E+0	1.350573E+0	1.322205E+0	1.317925E+0	1.336097E+0	1.246503E+0	1.213996E+0	1.326376E+0	1.285063E+0	1.380155E+0	1.279928E+0	1.291597E+0	1.347410E+0	1.280945E+0	1.301784E+0	1.299566E+0	1.392315E+0	1.312729E+0	1.280137E+0	1.283125E+0	1.296911E+0	1.272245E+0	1.220152E+0	1.347946E+0	1.235793E+0
2.866200E+2	1.265708E+0	1.365368E+0	1.353374E+0	1.273306E+0	1.204831E+0	1.305805E+0	1.228086E+0	1.254922E+0	1.258430E+0	1.317113E+0	1.333391E+0	1.345982E+0	1.303922E+0	1.231328E+0	1.250671E+0	1.273546E+0	1.240253E+0	1.244248E+0	1.238579E+0	1.317821E+0	1.191664E+0	1.275472E+0	1.351244E+0	1.235762E+0	1.310777E+0	1.328743E+0	1.276438E+0	1.281837E+0	1.336141E+0	1.282105E+0	1.329562E+0	1.329549E+0	1.348259E+0	1.281121E+0	1.281034E+0	1.226520E+0	1.283293E+0	1.275105E+0	1.274744E+0	1.278624E+0	1.349486E+0	1.206138E+0	1.203010E+0	1.283925E+0	1.319932E+0	1.336355E+0	1.286041E+0	1.326815E+0	1.267588E+0	1.359397E+0	1.297316E+0	1.209819E+0	1.352987E+0	1.301116E+0	1.261139E+0	1.371250E+0	1.170669E+0	1.260795E+0	1.280748E+0	1.403809E+0	1.277319E+0	1.298334E+0	1.272347E+0	1.260266E+0	1.283413E+0	1.394632E+0	1.422353E+0	1.290341E+0	1.227967E+0	1.343130E+0	1.262731E+0	1.270792E+0	1.248566E+0	1.301515E+0	1.282317E+0	1.289113E+0	1.268295E+0	1.316884E+0	1.240157E+0	1.283603E+0	1.306591E+0	1.352771E+0	1.272999E+0	1.314586E+0	1.342262E+0	1.399853E+0	1.263940E+0	1.274643E+0	1.293518E+0	1.245457E+0	1.264750E+0	1.263701E+0	1.290282E+0	1.338924E+0	1.296107E+0	1.221090E+0	1.310131E+0	1.371187E+0	1.294007E+0	1.260344E+0	1.262630E+0	1.280236E+0	1.290638E+0	1.309522E+0	1.235207E+0	1.252555E+0	1.276104E+0	1.218507E+0	1.215660E+0	1.368687E+0	1.311869E+0	1.287363E+0	1.266475E+0	1.253395E+0	1.316713E+0	1.259408E+0	1.262270E+0	1.295647E+0	1.246022E+0	1.348353E+0	1.359842E+0	1.296608E+0	1.261274E+0	1.323211E+0	1.238292E+0	1.299465E+0	1.310040E+0	1.300605E+0	1.208274E+0	1.290203E+0	1.237649E+0	1.215914E+0	1.277146E+0	1.389581E+0	1.404806E+0	1.251653E+0	1.258950E+0	1.269083E+0	1.300958E+0	1.267480E+0	1.357495E+0	1.326065E+0	1.280721E+0	1.255369E+0	1.263626E+0	1.244012E+0	1.310999E+0	1.379566E+0	1.284194E+0	1.338247E+0	1.240570E+0	1.248824E+0	1.286985E+0	1.410546E+0	1.249868E+0	1.333694E+0	1.206103E+0	1.272503E+0	1.392986E+0	1.267747E+0	1.284988E+0	1.316042E+0	1.296282E+0	1.289474E+0	1.238300E+0	1.319502E+0	1.356206E+0	1.266142E+0	1.217537E+0	1.230651E+0	1.080138E+0
2.868000E+2	1.571253E+0	1.681644E+0	1.504118E+0	1.510350E+0	1.532421E+0	1.648846E+0	1.535829E+0	1.554096E+0	1.551398E+0	1.641140E+0	1.560143E+0	1.576258E+0	1.517631E+0	1.478649E+0	1.570909E+0	1.571250E+0	1.555474E+0	1.576771E+0	1.586857E+0	1.537939E+0	1.579393E+0	1.509169E+0	1.540977E+0	1.610214E+0	1.596571E+0	1.670966E+0	1.521328E+0	1.632160E+0	1.555616E+0	1.558130E+0	1.523211E+0	1.419665E+0	1.558543E+0	1.601826E+0	1.507512E+0	1.530335E+0	1.634295E+0	1.601401E+0	1.448669E+0	1.610335E+0	1.596153E+0	1.502248E+0	1.588555E+0	1.673954E+0	1.568804E+0	1.528764E+0	1.531648E+0	1.540821E+0	1.507758E+0	1.622873E+0	1.548675E+0	1.502297E+0	1.587729E+0	1.538031E+0	1.575292E+0	1.554474E+0	1.599699E+0	1.576990E+0	1.585033E+0	1.546890E+0	1.509468E+0	1.485514E+0	1.613695E+0	1.509070E+0	1.522929E+0	1.606678E+0	1.539229E+0	1.588658E+0	1.602789E+0	1.624398E+0	1.647080E+0	1.624317E+0	1.536921E+0	1.583304E+0	1.465806E+0	1.595994E+0	1.511827E+0	1.595709E+0	1.608046E+0	1.552063E+0	1.561195E+0	1.612806E+0	1.610111E+0	1.614102E+0	1.498410E+0	1.610629E+0	1.583305E+0	1.681186E+0	1.560388E+0	1.610096E+0	1.672241E+0	1.597101E+0	1.603489E+0	1.569534E+0	1.582220E+0	1.506030E+0	1.551257E+0	1.523560E+0	1.485868E+0	1.625347E+0	1.528031E+0	1.535659E+0	1.472794E+0	1.574575E+0	1.479046E+0	1.622235E+0	1.614247E+0	1.562489E+0	1.507429E+0	1.609175E+0	1.634697E+0	1.597223E+0	1.526673E+0	1.618912E+0	1.631618E+0	1.489243E+0	1.536307E+0	1.659235E+0	1.500396E+0	1.537524E+0	1.578194E+0	1.593600E+0	1.565188E+0	1.598984E+0	1.609044E+0	1.586500E+0	1.601333E+0	1.593564E+0	1.518439E+0	1.622069E+0	1.546296E+0	1.522348E+0	1.567514E+0	1.554147E+0	1.627852E+0	1.560067E+0	1.467743E+0	1.488781E+0	1.631191E+0	1.553876E+0	1.550270E+0	1.593908E+0	1.505673E+0	1.569244E+0	1.583161E+0	1.579234E+0	1.584784E+0	1.627926E+0	1.543073E+0	1.502906E+0	1.562823E+0	1.619869E+0	1.547172E+0	1.584406E+0	1.553260E+0	1.595638E+0	1.522708E+0	1.615539E+0	1.647886E+0	1.669555E+0	1.474158E+0	1.516800E+0	1.538649E+0	1.640960E+0	1.575316E+0	1.545372E+0	1.574843E+0	1.660715E+0	1.523835E+0	1.533825E+0	1.286090E+0
2.870120E+2	1.411464E+0	1.464039E+0	1.458134E+0	1.479923E+0	1.327199E+0	1.417766E+0	1.320724E+0	1.542746E+0	1.408544E+0	1.395603E+0	1.522953E+0	1.523618E+0	1.365306E+0	1.410485E+0	1.430769E+0	1.486963E+0	1.440092E+0	1.436986E+0	1.419271E+0	1.381197E+0	1.434660E+0	1.355574E+0	1.452068E+0	1.425280E+0	1.350371E+0	1.327371E+0	1.376183E+0	1.413890E+0	1.367320E+0	1.421745E+0	1.391979E+0	1.351830E+0	1.368476E+0	1.327769E+0	1.373135E+0	1.461381E+0	1.361521E+0	1.291349E+0	1.383191E+0	1.443523E+0	1.381689E+0	1.434221E+0	1.336900E+0	1.320684E+0	1.419273E+0	1.307672E+0	1.401999E+0	1.419438E+0	1.430757E+0	1.406662E+0	1.395321E+0	1.402394E+0	1.368684E+0	1.321875E+0	1.447360E+0	1.462206E+0	1.425261E+0	1.350572E+0	1.456898E+0	1.359847E+0	1.349739E+0	1.405480E+0	1.339152E+0	1.296384E+0	1.326851E+0	1.379408E+0	1.481892E+0	1.448498E+0	1.394901E+0	1.354578E+0	1.390620E+0	1.407979E+0	1.397507E+0	1.468459E+0	1.426203E+0	1.471041E+0	1.349196E+0	1.428710E+0	1.269720E+0	1.378305E+0	1.390202E+0	1.490174E+0	1.370437E+0	1.443812E+0	1.394712E+0	1.542764E+0	1.392009E+0	1.480760E+0	1.399436E+0	1.371259E+0	1.424396E+0	1.449159E+0	1.361236E+0	1.409798E+0	1.328674E+0	1.366091E+0	1.357742E+0	1.442116E+0	1.403671E+0	1.465604E+0	1.311355E+0	1.471038E+0	1.372213E+0	1.370781E+0	1.448812E+0	1.458300E+0	1.360893E+0	1.414643E+0	1.364319E+0	1.394925E+0	1.435990E+0	1.422723E+0	1.356907E+0	1.440972E+0	1.327507E+0	1.385534E+0	1.308177E+0	1.514661E+0	1.408905E+0	1.350791E+0	1.351344E+0	1.345052E+0	1.364181E+0	1.405099E+0	1.373145E+0	1.401740E+0	1.398753E+0	1.322714E+0	1.301516E+0	1.342410E+0	1.394066E+0	1.413084E+0	1.339495E+0	1.409130E+0	1.410054E+0	1.348622E+0	1.398113E+0	1.385644E+0	1.494985E+0	1.349641E+0	1.424683E+0	1.448256E+0	1.456456E+0	1.471651E+0	1.430818E+0	1.323065E+0	1.380425E+0	1.421096E+0	1.322800E+0	1.417202E+0	1.359993E+0	1.482995E+0	1.421612E+0	1.455978E+0	1.389067E+0	1.429625E+0	1.338437E+0	1.417189E+0	1.495850E+0	1.394155E+0	1.306360E+0	1.392550E+0	1.493721E+0	1.431056E+0	1.319029E+0	1.362312E+0	1.403120E+0	1.429922E+0	1.371046E+0	1.322584E+0	1.416903E+0
2.872120E+2	1.080045E+0	1.048068E+0	9.659680E-1	1.033910E+0	9.713552E-1	1.065343E+0	9.694322E-1	1.031506E+0	1.069176E+0	1.103137E+0	1.052847E+0	1.122818E+0	1.090435E+0	9.453854E-1	9.853232E-1	1.030309E+0	1.067434E+0	9.555230E-1	1.039725E+0	1.073414E+0	9.914288E-1	9.998822E-1	9.951481E-1	1.020970E+0	1.024750E+0	9.945034E-1	1.014145E+0	9.729403E-1	9.480699E-1	1.006351E+0	9.994116E-1	1.001665E+0	1.127849E+0	1.031573E+0	1.022467E+0	9.397207E-1	1.075243E+0	1.000797E+0	9.829217E-1	1.022490E+0	1.095485E+0	9.506143E-1	1.023846E+0	1.024830E+0	1.062697E+0	1.030892E+0	1.001747E+0	9.937169E-1	1.011515E+0	9.778739E-1	9.728778E-1	1.016293E+0	1.027957E+0	1.078228E+0	1.113907E+0	1.036936E+0	9.258510E-1	1.012531E+0	1.132952E+0	1.005637E+0	9.947921E-1	1.019915E+0	1.019347E+0	1.050429E+0	1.114754E+0	9.889111E-1	9.921459E-1	1.015543E+0	1.055325E+0	1.010357E+0	1.069355E+0	1.018127E+0	1.034080E+0	1.043531E+0	1.064708E+0	1.047132E+0	1.010887E+0	9.943078E-1	9.807766E-1	1.029228E+0	1.009164E+0	1.095665E+0	1.054501E+0	1.094922E+0	1.026635E+0	1.102990E+0	1.045016E+0	1.058091E+0	1.042095E+0	1.009805E+0	1.102585E+0	1.085065E+0	1.012819E+0	1.155528E+0	9.704248E-1	1.070873E+0	1.078633E+0	1.025194E+0	1.068617E+0	1.074315E+0	1.063893E+0	1.035142E+0	1.061346E+0	1.050316E+0	1.033861E+0	1.071930E+0	9.803874E-1	1.089447E+0	1.099270E+0	1.095458E+0	1.048032E+0	1.016115E+0	1.042994E+0	1.068041E+0	1.082019E+0	1.035873E+0	1.093638E+0	1.092435E+0	9.843033E-1	1.036138E+0	1.075070E+0	1.057990E+0	1.053740E+0	1.029926E+0	1.012228E+0	1.001253E+0	9.720396E-1	1.063930E+0	9.825979E-1	1.023390E+0	9.942132E-1	1.041287E+0	9.932290E-1	1.125623E+0	1.049858E+0	1.059071E+0	9.844824E-1	1.015144E+0	1.065639E+0	1.035137E+0	1.008155E+0	1.019645E+0	1.043795E+0	1.018844E+0	1.010285E+0	1.036541E+0	1.068334E+0	1.050631E+0	9.339360E-1	1.072466E+0	1.031873E+0	1.080291E+0	1.037583E+0	1.062105E+0	1.001942E+0	1.056843E+0	1.035181E+0	1.039822E+0	1.059513E+0	9.760093E-1	1.029879E+0	9.932857E-1	9.826551E-1	9.873463E-1	9.954894E-1	1.064132E+0	1.023481E+0	1.071745E+0	1.095890E+0	1.214862E+0	9.046873E-1
2.874030E+2	8.017700E-1	8.738492E-1	9.174809E-1	8.738905E-1	8.415137E-1	8.465402E-1	8.435808E-1	8.441125E-1	8.146258E-1	8.406321E-1	8.528528E-1	9.096675E-1	8.397325E-1	8.168937E-1	8.383234E-1	8.318525E-1	8.426928E-1	8.257410E-1	8.852143E-1	8.876594E-1	8.239594E-1	8.712073E-1	9.077730E-1	8.347865E-1	8.716165E-1	8.629977E-1	8.393628E-1	8.477763E-1	7.947116E-1	7.751483E-1	8.517437E-1	7.860983E-1	7.807705E-1	7.852981E-1	8.960028E-1	8.505451E-1	8.992284E-1	8.391408E-1	8.274466E-1	8.383037E-1	8.192092E-1	8.904123E-1	7.971262E-1	8.532779E-1	8.517881E-1	8.534357E-1	8.175561E-1	8.522286E-1	7.955251E-1	8.669056E-1	8.761064E-1	7.978765E-1	9.189898E-1	8.926032E-1	9.104608E-1	8.844851E-1	8.811347E-1	8.850486E-1	8.713975E-1	9.599208E-1	7.766243E-1	7.669346E-1	8.864023E-1	8.598420E-1	8.938651E-1	8.748049E-1	7.875244E-1	8.552043E-1	8.777769E-1	8.313844E-1	8.543090E-1	9.127666E-1	8.812814E-1	7.734475E-1	7.827566E-1	7.938769E-1	8.524501E-1	8.375054E-1	8.825851E-1	8.596281E-1	8.075792E-1	9.060956E-1	8.229410E-1	8.554246E-1	8.178104E-1	9.071779E-1	8.213320E-1	8.559320E-1	8.167092E-1	9.425341E-1	7.914655E-1	7.986739E-1	9.265154E-1	7.883978E-1	8.797036E-1	8.068714E-1	7.997637E-1	9.206486E-1	8.445666E-1	8.591501E-1	9.232551E-1	8.853110E-1	7.924358E-1	8.588300E-1	8.579710E-1	8.706166E-1	8.450821E-1	7.706080E-1	8.381163E-1	8.535926E-1	8.719567E-1	8.910007E-1	8.592672E-1	8.214482E-1	8.796978E-1	8.084627E-1	8.255137E-1	8.651798E-1	8.666832E-1	8.725039E-1	8.880688E-1	8.513921E-1	8.756080E-1	8.698085E-1	8.750929E-1	9.003053E-1	8.711283E-1	8.214800E-1	8.557860E-1	8.590863E-1	8.293245E-1	8.569592E-1	8.219064E-1	8.591555E-1	8.677685E-1	7.786215E-1	8.418379E-1	8.749837E-1	8.222546E-1	8.951850E-1	8.731457E-1	8.345119E-1	8.668744E-1	8.035746E-1	8.762696E-1	8.937100E-1	8.254319E-1	7.994252E-1	8.202964E-1	8.463392E-1	8.762586E-1	8.607671E-1	7.873241E-1	8.812836E-1	8.614928E-1	8.524759E-1	8.797331E-1	8.063441E-1	8.896748E-1	8.565339E-1	8.842804E-1	8.286649E-1	8.473980E-1	8.243003E-1	8.528341E-1	8.544319E-1	8.861826E-1	8.963894E-1	8.276387E-1	8.892324E-1	8.475217E-1
2.876180E+2	5.857711E-1	6.328703E-1	6.227543E-1	6.457891E-1	6.509402E-1	6.564617E-1	5.785404E-1	6.829690E-1	6.699536E-1	6.478830E-1	6.976370E-1	6.315497E-1	6.893799E-1	6.702749E-1	6.746780E-1	6.730784E-1	6.308255E-1	6.560573E-1	6.236998E-1	6.244022E-1	6.862691E-1	6.262891E-1	6.575878E-1	6.425476E-1	6.966923E-1	6.020050E-1	6.520479E-1	6.916912E-1	6.207675E-1	6.251060E-1	6.322148E-1	6.318639E-1	6.403276E-1	6.221325E-1	6.446224E-1	6.393991E-1	6.560280E-1	6.429012E-1	6.785375E-1	6.363655E-1	6.363579E-1	6.081173E-1	6.841773E-1	6.478476E-1	6.544326E-1	6.531589E-1	6.462898E-1	6.573910E-1	6.548176E-1	7.016317E-1	6.220132E-1	6.652719E-1	6.533046E-1	6.176561E-1	6.403798E-1	6.649314E-1	5.963983E-1	6.463700E-1	7.163544E-1	6.906827E-1	6.592868E-1	6.454403E-1	6.360844E-1	6.118687E-1	7.423694E-1	6.701498E-1	6.242407E-1	7.523469E-1	6.679420E-1	6.213566E-1	6.791823E-1	5.933140E-1	6.537709E-1	6.021850E-1	6.263612E-1	6.424547E-1	6.026495E-1	6.785601E-1	6.144470E-1	6.276817E-1	6.827327E-1	7.201141E-1	6.434024E-1	6.651988E-1	6.889253E-1	6.658350E-1	6.946941E-1	6.635646E-1	6.442138E-1	6.613080E-1	7.051301E-1	6.271223E-1	6.467652E-1	6.452181E-1	7.159738E-1	6.095382E-1	7.126694E-1	7.136467E-1	6.649275E-1	6.522413E-1	6.661917E-1	6.787606E-1	6.315616E-1	6.626691E-1	6.153615E-1	5.917831E-1	6.847131E-1	6.750611E-1	6.615562E-1	6.236231E-1	6.514422E-1	7.252128E-1	6.568497E-1	6.575702E-1	6.568354E-1	6.611758E-1	6.750635E-1	7.059423E-1	7.022021E-1	6.972215E-1	5.842767E-1	7.003827E-1	6.558871E-1	6.010172E-1	5.850840E-1	6.406030E-1	6.404137E-1	6.226749E-1	6.596644E-1	6.256429E-1	6.545782E-1	6.252946E-1	6.548161E-1	7.241188E-1	6.409447E-1	6.388745E-1	5.975842E-1	6.831454E-1	7.154062E-1	6.720484E-1	6.861890E-1	6.794282E-1	6.078312E-1	7.467482E-1	6.330359E-1	6.505895E-1	6.488876E-1	6.573290E-1	6.797789E-1	6.643374E-1	6.084484E-1	6.548697E-1	5.810438E-1	6.702415E-1	6.528448E-1	6.785262E-1	6.292485E-1	6.106725E-1	6.441276E-1	6.254940E-1	6.632660E-1	6.882309E-1	6.930312E-1	6.726626E-1	6.150302E-1	6.488384E-1	6.255880E-1	6.337313E-1	6.708021E-1	6.164853E-1	6.358703E-1
2.878020E+2	5.612136E-1	5.904362E-1	5.002858E-1	5.095544E-1	5.207661E-1	5.506063E-1	5.596601E-1	5.451513E-1	5.597728E-1	5.166930E-1	5.952698E-1	5.341135E-1	5.794022E-1	5.806308E-1	5.599192E-1	4.822694E-1	5.610030E-1	5.046452E-1	5.446742E-1	5.965247E-1	5.307209E-1	5.461502E-1	5.829230E-1	5.425603E-1	5.132871E-1	5.399380E-1	5.687872E-1	5.499317E-1	5.360366E-1	5.368638E-1	5.679806E-1	5.411978E-1	5.431686E-1	4.737151E-1	5.496935E-1	4.978337E-1	5.750423E-1	5.315886E-1	4.960431E-1	5.389615E-1	5.427808E-1	5.538344E-1	5.773369E-1	5.114560E-1	5.537090E-1	4.999010E-1	5.213017E-1	5.362180E-1	5.593987E-1	5.242220E-1	5.101913E-1	5.680868E-1	5.374757E-1	5.465232E-1	5.483127E-1	5.393808E-1	5.555417E-1	5.543970E-1	5.853707E-1	5.265792E-1	5.160361E-1	5.608309E-1	5.796700E-1	5.055488E-1	5.404020E-1	5.605500E-1	5.658306E-1	5.778896E-1	5.399523E-1	5.377125E-1	5.609761E-1	5.351466E-1	5.289477E-1	5.396284E-1	5.145410E-1	5.428206E-1	5.350174E-1	5.924379E-1	5.766360E-1	5.756242E-1	5.563811E-1	5.448175E-1	5.043577E-1	5.552956E-1	5.169733E-1	5.777755E-1	5.492033E-1	5.697561E-1	5.816140E-1	4.965061E-1	5.026022E-1	5.448490E-1	5.610736E-1	5.604528E-1	5.402026E-1	5.865001E-1	5.871663E-1	5.744826E-1	5.124130E-1	5.454405E-1	5.597332E-1	5.859218E-1	5.090105E-1	5.461435E-1	4.881613E-1	5.525358E-1	5.563078E-1	5.453835E-1	5.726821E-1	5.827016E-1	5.569567E-1	5.454411E-1	5.826672E-1	5.490763E-1	6.550316E-1	5.420034E-1	5.213307E-1	5.925184E-1	5.398890E-1	5.917818E-1	5.510347E-1	5.290300E-1	5.601606E-1	5.533563E-1	5.239866E-1	5.565222E-1	5.268012E-1	5.648010E-1	5.564025E-1	4.882171E-1	5.230814E-1	5.342137E-1	5.761340E-1	5.655336E-1	5.577135E-1	5.458967E-1	5.516782E-1	4.896154E-1	5.599629E-1	5.427315E-1	5.781066E-1	5.809131E-1	5.443372E-1	5.981349E-1	5.593131E-1	5.534074E-1	5.533773E-1	4.912409E-1	5.350495E-1	5.404592E-1	5.880408E-1	5.349189E-1	5.574800E-1	5.566938E-1	5.283839E-1	5.086566E-1	5.390749E-1	4.968991E-1	5.874695E-1	5.494101E-1	5.734086E-1	5.255896E-1	5.617470E-1	5.758052E-1	5.482977E-1	5.248336E-1	5.539675E-1	5.481428E-1	5.373534E-1	5.539699E-1	7.463982E-1
2.880040E+2	5.172212E-1	5.582621E-1	5.097242E-1	5.508569E-1	5.078023E-1	5.407311E-1	5.678600E-1	6.166296E-1	5.051962E-1	5.961266E-1	6.152305E-1	5.348181E-1	6.285710E-1	5.325866E-1	6.040959E-1	5.230727E-1	5.790567E-1	5.586249E-1	5.267475E-1	5.351067E-1	5.801750E-1	5.585716E-1	5.777710E-1	5.725290E-1	5.771754E-1	5.549718E-1	5.647986E-1	5.421549E-1	5.441150E-1	5.370073E-1	5.316275E-1	5.756292E-1	5.275607E-1	5.415063E-1	5.779168E-1	5.439925E-1	5.590939E-1	5.775192E-1	5.558875E-1	5.734928E-1	5.286939E-1	5.550604E-1	5.554228E-1	5.528038E-1	5.472796E-1	5.510680E-1	6.399827E-1	5.410581E-1	5.218832E-1	5.354940E-1	5.049879E-1	5.831836E-1	5.350197E-1	5.985639E-1	5.702632E-1	5.637435E-1	6.038898E-1	5.435824E-1	5.286965E-1	4.987539E-1	5.273128E-1	5.704815E-1	5.628809E-1	5.667013E-1	5.653702E-1	5.495561E-1	5.921099E-1	5.276546E-1	5.627673E-1	5.533691E-1	6.312242E-1	5.653040E-1	5.685053E-1	5.888454E-1	5.528099E-1	5.034732E-1	5.153516E-1	5.609207E-1	5.517030E-1	4.989978E-1	6.025067E-1	5.453774E-1	6.137304E-1	6.279762E-1	5.268794E-1	5.790459E-1	5.569547E-1	5.870528E-1	5.236826E-1	4.954889E-1	6.288515E-1	5.422757E-1	5.572860E-1	5.739787E-1	5.269407E-1	5.717682E-1	5.097622E-1	5.296560E-1	5.477545E-1	6.437400E-1	5.477076E-1	5.684334E-1	5.455864E-1	5.662633E-1	5.528395E-1	5.764128E-1	5.721391E-1	5.700642E-1	6.196266E-1	5.196278E-1	5.853073E-1	6.104688E-1	5.209368E-1	5.517764E-1	5.594163E-1	5.631654E-1	5.580235E-1	6.002591E-1	5.330746E-1	5.737345E-1	6.085093E-1	5.437566E-1	5.857919E-1	6.032895E-1	6.026870E-1	5.514056E-1	6.019185E-1	5.870080E-1	5.538089E-1	5.879270E-1	5.489270E-1	5.523148E-1	5.263409E-1	5.504490E-1	5.758057E-1	6.065845E-1	5.684481E-1	5.870073E-1	5.800874E-1	5.701680E-1	5.345788E-1	6.040051E-1	5.734274E-1	5.712207E-1	5.684772E-1	5.348397E-1	5.745488E-1	6.048179E-1	6.353688E-1	5.223898E-1	5.580442E-1	5.902127E-1	6.381694E-1	5.764185E-1	5.690782E-1	5.516748E-1	5.060901E-1	5.929819E-1	5.920857E-1	5.563442E-1	5.646712E-1	5.222716E-1	5.254621E-1	5.936130E-1	5.771552E-1	5.978745E-1	6.196102E-1	5.684491E-1	5.759922E-1	4.571843E-1	5.742616E-1
2.882060E+2	6.326543E-1	7.259227E-1	6.142042E-1	6.516112E-1	7.072101E-1	7.186160E-1	7.133822E-1	6.935353E-1	6.754894E-1	6.637013E-1	6.899847E-1	7.442615E-1	6.555333E-1	7.164796E-1	6.722413E-1	6.856492E-1	6.661284E-1	7.732091E-1	6.856341E-1	6.409696E-1	6.907547E-1	6.604354E-1	7.663904E-1	6.576070E-1	7.165098E-1	6.883115E-1	7.307743E-1	6.859443E-1	6.714671E-1	7.028958E-1	6.836882E-1	6.545164E-1	7.432323E-1	6.743584E-1	7.327642E-1	6.693236E-1	7.047358E-1	7.032601E-1	7.045241E-1	6.816107E-1	6.768245E-1	6.856621E-1	7.266821E-1	7.096443E-1	6.966274E-1	6.971731E-1	6.709523E-1	6.487335E-1	6.606799E-1	7.253152E-1	6.530545E-1	6.873197E-1	6.577438E-1	6.765991E-1	6.720209E-1	7.457723E-1	6.689714E-1	7.005344E-1	6.669556E-1	6.800527E-1	6.335176E-1	6.945685E-1	6.814796E-1	6.422753E-1	6.616997E-1	6.407760E-1	6.848219E-1	6.365430E-1	6.750576E-1	6.342419E-1	7.036332E-1	6.849119E-1	6.900755E-1	6.428076E-1	7.136040E-1	6.979493E-1	6.478965E-1	6.621661E-1	6.302437E-1	6.936240E-1	6.695673E-1	6.672359E-1	6.687964E-1	6.702046E-1	6.743984E-1	6.561144E-1	6.301121E-1	6.864178E-1	6.576660E-1	6.466026E-1	7.177828E-1	6.247598E-1	6.500983E-1	6.834286E-1	6.692998E-1	6.786434E-1	6.591524E-1	6.549767E-1	6.453978E-1	6.841505E-1	6.430900E-1	6.981096E-1	6.570868E-1	6.692650E-1	6.415713E-1	6.766065E-1	7.181143E-1	7.208596E-1	6.600528E-1	6.786294E-1	7.007659E-1	6.730143E-1	6.942503E-1	7.169949E-1	7.103969E-1	6.940232E-1	6.803713E-1	6.588802E-1	6.599411E-1	6.615475E-1	6.544269E-1	6.781526E-1	7.083338E-1	6.525187E-1	6.544945E-1	6.906731E-1	6.572005E-1	6.794279E-1	6.358051E-1	6.886988E-1	6.551334E-1	7.093876E-1	7.062741E-1	7.209993E-1	7.267633E-1	7.100441E-1	6.696514E-1	6.409492E-1	6.858202E-1	7.334109E-1	6.710032E-1	6.899990E-1	7.168490E-1	6.664313E-1	6.872938E-1	7.351772E-1	6.642886E-1	7.188972E-1	7.016574E-1	6.738419E-1	6.628544E-1	6.461023E-1	6.536150E-1	7.019415E-1	7.375572E-1	6.853634E-1	6.330701E-1	6.897762E-1	7.556991E-1	6.277816E-1	6.979597E-1	6.304811E-1	6.894204E-1	6.546481E-1	6.213152E-1	6.644346E-1	6.717797E-1	7.077349E-1	7.170650E-1	5.906433E-1	7.165370E-1
2.884150E+2	8.526535E-1	8.840747E-1	9.069378E-1	9.121639E-1	7.925763E-1	9.179134E-1	8.602436E-1	9.369478E-1	8.409873E-1	8.660921E-1	9.160074E-1	9.388830E-1	9.333192E-1	8.333961E-1	8.867845E-1	8.573125E-1	9.066758E-1	8.114271E-1	8.913798E-1	9.555245E-1	8.314597E-1	9.018240E-1	9.445592E-1	9.167394E-1	9.101457E-1	9.142399E-1	9.063452E-1	9.446576E-1	8.817772E-1	9.216436E-1	9.338911E-1	9.027875E-1	9.464317E-1	9.120652E-1	8.622468E-1	8.538148E-1	9.129551E-1	8.819746E-1	8.842407E-1	8.920783E-1	8.371709E-1	9.307215E-1	8.384847E-1	9.714184E-1	9.220216E-1	9.249825E-1	9.310646E-1	8.670852E-1	8.903872E-1	8.925166E-1	9.035091E-1	8.788507E-1	9.426062E-1	9.087908E-1	9.254121E-1	9.082039E-1	8.540761E-1	9.172313E-1	9.674366E-1	8.605157E-1	8.905018E-1	8.168611E-1	9.266316E-1	8.082115E-1	8.567601E-1	8.396304E-1	9.195754E-1	9.391614E-1	8.106407E-1	9.031289E-1	9.947143E-1	9.636187E-1	9.160913E-1	8.725348E-1	9.439081E-1	8.388507E-1	8.467070E-1	8.733452E-1	8.599358E-1	9.093487E-1	8.507507E-1	8.862097E-1	9.285116E-1	8.776381E-1	8.868887E-1	8.759220E-1	8.529438E-1	8.802028E-1	8.835964E-1	8.657063E-1	8.722992E-1	8.664082E-1	8.711426E-1	8.887332E-1	8.849718E-1	8.368905E-1	8.330646E-1	8.861628E-1	9.621963E-1	9.678512E-1	8.438236E-1	9.203987E-1	9.345402E-1	9.431273E-1	8.971318E-1	8.655616E-1	8.826787E-1	8.569989E-1	9.089028E-1	9.078497E-1	9.214048E-1	8.949469E-1	9.289293E-1	9.212529E-1	9.163038E-1	8.411357E-1	8.751749E-1	9.327459E-1	8.607551E-1	9.036155E-1	8.366576E-1	8.805340E-1	8.883359E-1	8.525589E-1	8.640100E-1	8.344424E-1	8.600006E-1	9.030827E-1	8.375480E-1	9.505036E-1	8.374983E-1	8.879943E-1	8.857708E-1	8.728405E-1	8.727940E-1	9.077841E-1	8.329495E-1	8.279559E-1	9.355545E-1	8.415019E-1	8.678533E-1	8.722501E-1	9.186891E-1	8.891325E-1	9.041108E-1	8.578070E-1	9.195427E-1	9.302066E-1	8.672724E-1	8.971880E-1	9.267734E-1	9.047240E-1	8.949322E-1	8.718375E-1	9.725183E-1	8.899302E-1	8.789322E-1	8.505048E-1	9.169540E-1	8.733150E-1	9.167119E-1	8.215742E-1	9.259888E-1	8.166824E-1	8.475165E-1	8.681380E-1	8.588889E-1	9.049901E-1	9.308634E-1	8.858453E-1	1.115183E+0
2.886010E+2	1.106903E+0	1.157563E+0	1.137787E+0	1.097158E+0	1.117651E+0	1.194640E+0	1.076723E+0	1.163829E+0	1.108295E+0	1.080995E+0	1.111752E+0	1.193294E+0	1.051923E+0	1.135404E+0	1.130892E+0	1.103493E+0	1.081320E+0	1.058953E+0	1.046868E+0	1.166299E+0	1.171299E+0	1.104661E+0	1.178260E+0	1.115929E+0	1.113247E+0	1.114949E+0	1.062863E+0	1.081608E+0	1.098473E+0	1.051576E+0	1.140542E+0	1.111258E+0	1.117342E+0	1.098612E+0	1.149215E+0	1.002071E+0	1.147525E+0	1.069717E+0	1.164785E+0	1.069454E+0	1.131368E+0	1.071431E+0	1.151578E+0	1.155646E+0	1.165426E+0	1.101861E+0	1.143417E+0	1.231673E+0	1.084299E+0	1.186499E+0	1.131766E+0	1.149969E+0	1.158512E+0	1.094985E+0	1.167006E+0	1.106769E+0	1.124277E+0	1.159457E+0	1.191692E+0	1.253479E+0	1.082935E+0	1.135619E+0	1.174019E+0	1.052118E+0	1.077141E+0	1.104042E+0	1.107690E+0	1.070026E+0	1.105156E+0	1.062625E+0	1.111647E+0	1.148569E+0	1.063467E+0	1.086676E+0	1.164175E+0	1.077793E+0	1.109904E+0	1.177899E+0	1.186021E+0	1.023293E+0	1.133270E+0	1.156725E+0	1.135457E+0	1.099970E+0	1.101878E+0	1.106271E+0	1.109135E+0	1.058761E+0	1.089688E+0	1.072685E+0	1.163178E+0	1.118662E+0	1.144511E+0	1.155476E+0	1.104567E+0	1.085466E+0	1.152700E+0	1.092336E+0	1.098777E+0	1.212561E+0	1.077367E+0	1.182012E+0	1.103255E+0	1.201720E+0	1.115787E+0	1.131382E+0	1.172956E+0	1.187469E+0	1.127943E+0	1.180972E+0	1.146993E+0	1.136611E+0	1.127045E+0	1.146011E+0	1.122887E+0	1.125395E+0	1.124248E+0	1.157785E+0	1.067950E+0	1.072531E+0	1.111518E+0	1.071960E+0	1.229707E+0	1.059341E+0	1.103536E+0	1.106102E+0	1.139702E+0	1.121632E+0	1.072147E+0	1.050169E+0	1.148619E+0	1.077535E+0	1.129576E+0	1.135037E+0	1.136195E+0	1.098987E+0	1.131580E+0	1.120657E+0	1.152185E+0	1.217002E+0	1.205883E+0	1.156129E+0	1.129509E+0	1.106856E+0	1.102776E+0	1.102980E+0	1.097395E+0	1.088848E+0	1.097578E+0	1.161227E+0	1.111315E+0	1.109710E+0	1.109176E+0	1.157619E+0	1.193902E+0	1.088741E+0	1.119583E+0	1.129003E+0	1.132661E+0	1.080006E+0	1.064324E+0	1.086022E+0	1.184796E+0	1.073079E+0	1.110940E+0	1.123520E+0	1.142125E+0	1.073270E+0	1.095858E+0	1.190770E+0	1.132921E+0
2.888180E+2	1.172513E+0	1.142485E+0	1.061496E+0	1.132248E+0	1.188666E+0	1.081070E+0	1.159129E+0	1.084791E+0	1.096910E+0	1.093365E+0	1.171452E+0	1.231196E+0	1.131423E+0	1.041519E+0	1.097153E+0	1.123649E+0	1.148913E+0	1.010231E+0	1.114299E+0	1.119743E+0	1.152988E+0	1.116400E+0	1.080870E+0	1.078941E+0	1.139571E+0	9.750108E-1	1.095700E+0	1.029586E+0	1.116420E+0	1.127335E+0	1.188202E+0	1.132915E+0	1.141516E+0	1.180291E+0	1.152893E+0	1.017626E+0	1.169520E+0	1.104248E+0	1.183091E+0	1.113850E+0	1.074240E+0	1.108072E+0	1.087710E+0	1.139956E+0	1.220611E+0	1.105949E+0	1.149630E+0	1.130414E+0	1.115629E+0	1.173665E+0	1.083348E+0	1.194050E+0	1.128174E+0	1.093377E+0	1.150779E+0	1.125042E+0	1.080375E+0	1.135849E+0	1.114054E+0	1.177469E+0	1.094735E+0	1.134943E+0	1.103658E+0	1.086222E+0	1.104182E+0	1.112044E+0	1.199501E+0	1.129852E+0	1.120190E+0	1.075916E+0	1.183825E+0	1.134861E+0	1.078196E+0	1.120861E+0	1.132408E+0	1.182686E+0	1.028848E+0	1.170632E+0	1.107433E+0	1.140323E+0	1.064976E+0	1.139290E+0	1.127346E+0	1.090609E+0	1.121554E+0	1.191354E+0	1.118600E+0	1.051423E+0	1.087530E+0	1.122809E+0	1.186436E+0	1.161547E+0	1.094581E+0	1.210196E+0	1.110056E+0	1.103806E+0	1.096272E+0	1.118582E+0	1.143030E+0	1.172395E+0	1.118011E+0	1.142908E+0	1.165407E+0	1.163420E+0	1.093263E+0	1.181930E+0	1.185443E+0	1.148052E+0	1.204035E+0	1.145280E+0	1.117095E+0	1.112558E+0	1.119076E+0	1.140069E+0	1.116628E+0	1.202977E+0	1.152590E+0	1.126603E+0	1.115963E+0	1.066953E+0	1.031797E+0	1.040345E+0	1.212849E+0	1.091159E+0	1.119245E+0	1.125342E+0	1.103421E+0	1.112687E+0	1.120241E+0	1.171375E+0	1.120319E+0	1.159665E+0	1.139021E+0	1.084113E+0	1.133081E+0	1.114864E+0	1.067475E+0	1.112977E+0	1.204023E+0	1.076521E+0	1.189529E+0	1.142305E+0	1.101070E+0	1.132130E+0	1.151770E+0	1.116925E+0	1.083291E+0	1.102084E+0	1.092336E+0	1.072744E+0	1.127884E+0	1.082300E+0	1.120016E+0	1.153094E+0	1.127210E+0	1.142972E+0	1.030882E+0	1.114727E+0	1.151517E+0	1.139252E+0	1.096781E+0	1.153936E+0	1.134736E+0	1.128285E+0	1.115758E+0	1.119194E+0	1.062221E+0	1.108447E+0	1.135961E+0	1.235358E+0	1.129401E+0
2.890230E+2	1.014570E+0	1.133490E+0	1.030236E+0	1.001204E+0	1.004664E+0	9.988987E-1	9.826179E-1	1.150141E+0	1.114150E+0	1.115141E+0	1.145156E+0	1.176806E+0	1.093727E+0	1.005376E+0	1.094516E+0	1.092425E+0	1.027577E+0	9.758779E-1	1.045698E+0	1.008640E+0	1.054213E+0	1.025186E+0	1.044147E+0	1.030949E+0	1.042198E+0	1.091800E+0	1.109427E+0	1.125265E+0	1.008799E+0	9.960268E-1	1.017003E+0	1.054411E+0	9.761478E-1	1.048728E+0	1.072372E+0	1.062943E+0	1.042492E+0	9.920211E-1	1.031110E+0	1.078138E+0	1.053509E+0	9.847583E-1	1.093134E+0	1.083672E+0	1.037456E+0	1.060845E+0	1.031013E+0	1.062391E+0	1.012400E+0	1.086050E+0	9.969095E-1	1.050639E+0	1.039400E+0	1.092676E+0	1.083005E+0	1.048617E+0	9.855105E-1	1.100945E+0	1.139418E+0	1.163200E+0	9.989801E-1	1.002516E+0	1.016878E+0	1.066710E+0	1.048964E+0	9.739662E-1	1.057759E+0	1.072340E+0	1.093026E+0	9.806680E-1	9.685712E-1	1.059058E+0	9.666605E-1	1.032174E+0	1.049105E+0	1.021272E+0	1.007790E+0	1.157502E+0	1.020245E+0	1.021487E+0	9.757621E-1	9.945643E-1	1.002451E+0	1.042408E+0	1.087169E+0	1.032465E+0	1.073256E+0	1.065081E+0	1.052791E+0	1.041779E+0	1.105301E+0	1.069463E+0	1.038901E+0	1.044682E+0	1.084938E+0	1.038142E+0	9.621909E-1	1.156103E+0	1.062267E+0	1.094222E+0	1.098670E+0	1.117460E+0	1.056458E+0	1.080960E+0	1.079354E+0	1.062580E+0	1.152964E+0	1.050529E+0	1.096051E+0	1.017953E+0	1.073011E+0	1.069982E+0	1.016183E+0	1.040895E+0	1.040434E+0	1.049764E+0	1.026352E+0	1.038895E+0	1.017765E+0	9.900893E-1	1.014973E+0	1.019079E+0	1.109529E+0	1.060174E+0	1.057968E+0	1.069340E+0	1.028401E+0	1.051364E+0	9.819653E-1	1.049764E+0	1.036934E+0	1.089083E+0	1.090808E+0	1.067219E+0	1.072419E+0	1.031468E+0	1.104522E+0	1.115487E+0	1.055404E+0	1.048983E+0	1.021786E+0	9.970628E-1	1.021881E+0	1.038465E+0	1.018381E+0	1.085445E+0	1.095480E+0	1.072951E+0	1.099528E+0	1.053512E+0	1.047297E+0	1.160989E+0	1.061994E+0	1.130587E+0	1.042483E+0	1.082572E+0	1.065256E+0	1.053825E+0	9.895036E-1	1.018929E+0	1.031051E+0	1.075724E+0	1.069161E+0	1.014686E+0	1.141561E+0	1.073628E+0	1.003612E+0	1.007620E+0	9.939431E-1	9.740569E-1	1.016125E+0
2.892040E+2	9.026790E-1	8.607147E-1	9.327402E-1	9.260360E-1	9.180760E-1	9.286746E-1	8.631456E-1	9.746590E-1	9.105314E-1	9.282505E-1	9.616784E-1	9.116155E-1	9.011023E-1	8.643203E-1	8.919476E-1	9.475323E-1	9.439528E-1	9.091508E-1	8.601866E-1	8.646347E-1	9.329239E-1	9.446680E-1	9.107966E-1	9.141346E-1	9.301163E-1	9.546399E-1	9.127840E-1	9.502448E-1	8.922880E-1	8.952326E-1	8.808657E-1	9.178881E-1	9.281886E-1	9.478357E-1	9.083638E-1	8.874190E-1	9.059246E-1	9.376881E-1	8.489083E-1	9.550932E-1	9.236107E-1	8.809211E-1	9.007144E-1	9.861388E-1	9.231132E-1	8.895507E-1	9.246731E-1	9.365062E-1	9.344323E-1	8.987392E-1	8.655930E-1	8.744069E-1	9.805221E-1	9.504960E-1	9.216913E-1	8.865105E-1	8.659464E-1	9.585406E-1	8.971178E-1	9.796110E-1	8.390248E-1	8.311476E-1	9.102561E-1	8.914870E-1	9.245969E-1	8.975365E-1	9.398193E-1	8.823171E-1	8.982948E-1	9.198229E-1	9.339607E-1	8.900172E-1	8.701794E-1	8.659221E-1	9.247822E-1	9.138494E-1	9.221661E-1	9.046009E-1	9.192851E-1	9.438328E-1	9.216702E-1	9.990984E-1	8.906378E-1	9.554648E-1	9.170299E-1	9.481090E-1	8.903085E-1	9.741815E-1	9.023037E-1	9.127707E-1	9.845303E-1	9.516725E-1	8.636523E-1	9.204230E-1	9.057492E-1	8.801424E-1	9.124555E-1	8.836051E-1	9.241122E-1	9.255424E-1	9.369802E-1	9.821398E-1	9.113811E-1	9.875465E-1	8.989030E-1	9.287007E-1	8.922427E-1	9.949714E-1	9.438903E-1	9.332393E-1	8.922777E-1	9.198829E-1	8.837157E-1	9.513495E-1	9.071251E-1	9.295029E-1	8.723627E-1	9.279944E-1	9.864199E-1	9.393692E-1	9.268484E-1	9.279335E-1	9.578485E-1	9.670385E-1	9.248162E-1	9.203466E-1	9.490265E-1	9.835936E-1	8.536499E-1	9.167654E-1	9.563517E-1	8.916695E-1	9.205027E-1	9.785316E-1	8.921434E-1	9.653368E-1	9.045484E-1	8.822937E-1	1.017527E+0	8.899922E-1	9.852607E-1	1.019563E+0	9.827419E-1	8.731701E-1	9.496287E-1	9.220919E-1	9.427536E-1	8.739267E-1	9.520857E-1	9.625809E-1	9.582546E-1	8.811886E-1	1.002851E+0	8.753227E-1	9.120441E-1	9.203567E-1	8.566001E-1	9.076208E-1	9.726716E-1	9.000186E-1	8.546756E-1	8.942616E-1	9.463742E-1	8.857389E-1	9.077693E-1	9.611311E-1	9.307976E-1	8.514235E-1	9.024233E-1	9.563632E-1	7.559419E-1
2.894020E+2	7.656357E-1	7.898684E-1	7.755272E-1	7.440211E-1	7.070836E-1	7.680149E-1	7.281312E-1	7.313920E-1	6.796806E-1	7.344881E-1	7.296291E-1	7.795548E-1	7.766485E-1	7.327450E-1	7.772073E-1	7.957574E-1	7.272889E-1	7.309991E-1	7.749081E-1	7.656664E-1	7.101372E-1	7.009832E-1	7.787237E-1	7.477812E-1	7.253288E-1	7.163537E-1	7.449553E-1	6.842249E-1	7.226085E-1	7.170891E-1	7.619465E-1	6.526176E-1	8.099663E-1	7.408422E-1	7.866576E-1	7.483197E-1	7.621873E-1	6.696904E-1	7.249716E-1	8.292635E-1	7.105687E-1	7.315364E-1	7.278896E-1	6.841452E-1	7.382769E-1	7.102509E-1	6.794994E-1	7.329065E-1	7.188382E-1	7.947086E-1	7.305347E-1	8.231438E-1	7.477994E-1	7.385643E-1	7.443278E-1	7.736433E-1	7.064876E-1	7.333653E-1	7.371723E-1	7.487189E-1	7.195176E-1	7.474941E-1	7.541306E-1	7.542568E-1	7.490307E-1	7.817596E-1	7.982665E-1	7.556473E-1	7.687284E-1	7.071684E-1	7.726395E-1	7.229418E-1	7.284702E-1	7.479013E-1	7.593757E-1	7.216217E-1	6.824887E-1	7.160359E-1	7.175343E-1	6.499877E-1	7.912104E-1	7.049506E-1	7.436102E-1	7.727292E-1	8.170857E-1	7.360764E-1	8.114585E-1	7.985925E-1	7.347231E-1	7.407527E-1	7.785732E-1	7.564832E-1	7.122247E-1	7.587186E-1	7.465176E-1	7.673256E-1	7.405483E-1	7.655061E-1	7.752889E-1	7.732854E-1	7.137068E-1	8.004733E-1	7.150436E-1	7.277035E-1	7.336583E-1	7.802690E-1	8.174402E-1	7.577283E-1	8.028809E-1	7.243888E-1	7.686673E-1	7.914615E-1	7.219270E-1	7.452119E-1	7.618000E-1	7.782307E-1	7.993805E-1	7.467654E-1	7.719173E-1	7.626489E-1	7.118525E-1	7.508157E-1	7.645346E-1	7.770540E-1	7.943466E-1	7.506432E-1	7.725626E-1	8.041739E-1	7.389976E-1	7.318692E-1	7.746211E-1	6.853065E-1	6.704358E-1	6.751946E-1	8.237345E-1	7.935821E-1	8.017005E-1	7.228029E-1	7.390525E-1	7.124394E-1	7.538974E-1	7.487396E-1	7.907240E-1	8.156761E-1	8.181668E-1	7.637245E-1	8.023391E-1	7.982009E-1	7.534910E-1	7.589306E-1	7.872285E-1	7.984722E-1	6.894258E-1	7.370894E-1	8.011480E-1	6.791739E-1	7.681493E-1	7.294816E-1	7.952037E-1	7.271817E-1	6.676029E-1	7.590106E-1	6.601703E-1	7.530390E-1	7.087152E-1	7.280321E-1	7.204278E-1	6.577367E-1	7.258352E-1	7.455062E-1	8.372396E-1
2.896060E+2	5.888063E-1	6.698107E-1	5.480015E-1	6.738216E-1	6.602295E-1	6.037531E-1	6.337795E-1	6.362838E-1	5.999429E-1	6.212983E-1	6.497752E-1	6.312483E-1	5.541495E-1	5.980241E-1	6.454503E-1	5.784812E-1	6.451378E-1	6.071662E-1	6.444049E-1	6.552840E-1	6.264609E-1	6.574137E-1	5.959890E-1	6.003678E-1	5.985791E-1	6.755109E-1	5.856208E-1	5.861488E-1	6.506533E-1	6.144703E-1	6.330548E-1	5.939768E-1	6.728526E-1	6.107385E-1	5.580065E-1	5.984231E-1	6.021401E-1	6.176218E-1	5.680507E-1	6.255184E-1	6.643141E-1	5.963928E-1	5.772703E-1	5.687959E-1	6.496235E-1	5.807547E-1	6.144589E-1	6.586656E-1	6.516832E-1	6.585777E-1	6.342864E-1	6.401226E-1	6.311248E-1	6.080338E-1	5.774023E-1	5.947574E-1	6.052049E-1	6.377780E-1	6.308399E-1	5.608511E-1	6.192399E-1	6.411428E-1	6.434343E-1	6.852303E-1	6.108464E-1	6.642861E-1	6.727231E-1	6.214444E-1	5.918247E-1	6.384937E-1	6.283708E-1	6.260298E-1	6.101690E-1	5.989869E-1	5.847395E-1	7.013159E-1	6.596826E-1	6.263802E-1	6.472060E-1	6.172549E-1	6.089294E-1	6.357280E-1	6.566747E-1	6.554019E-1	6.230791E-1	6.084672E-1	6.277961E-1	6.033379E-1	6.667721E-1	5.712324E-1	6.160255E-1	6.365633E-1	6.471904E-1	6.387110E-1	6.070108E-1	6.145341E-1	6.434504E-1	6.392865E-1	6.839723E-1	6.452486E-1	6.231170E-1	5.696497E-1	6.226368E-1	6.470437E-1	6.859786E-1	6.218820E-1	5.676185E-1	6.553966E-1	6.344757E-1	6.296054E-1	6.906171E-1	6.372825E-1	6.123982E-1	6.572718E-1	6.741117E-1	6.183752E-1	6.027610E-1	6.187413E-1	5.907598E-1	5.995730E-1	6.349727E-1	6.462064E-1	6.805492E-1	6.403244E-1	6.445797E-1	5.734208E-1	6.261779E-1	5.819816E-1	6.355907E-1	6.262115E-1	6.388482E-1	6.560485E-1	6.455648E-1	5.808899E-1	6.541867E-1	6.481248E-1	6.056830E-1	5.998977E-1	6.658301E-1	6.107826E-1	6.674881E-1	7.114930E-1	6.573252E-1	5.974844E-1	6.486506E-1	6.424836E-1	6.418597E-1	5.832044E-1	6.142145E-1	6.277704E-1	5.912952E-1	6.304445E-1	6.431472E-1	6.044090E-1	6.382432E-1	6.539850E-1	6.073607E-1	6.430171E-1	6.308051E-1	6.099917E-1	5.850767E-1	6.678998E-1	6.547546E-1	6.560333E-1	6.149785E-1	5.962249E-1	6.731834E-1	6.328209E-1	6.232918E-1	6.517199E-1	7.669442E-1
2.898030E+2	6.311953E-1	7.214759E-1	7.010235E-1	7.114752E-1	6.360805E-1	6.863367E-1	6.025570E-1	7.044019E-1	6.756378E-1	6.366253E-1	6.988212E-1	6.233430E-1	6.491874E-1	6.777828E-1	6.707363E-1	6.899475E-1	6.651306E-1	7.205258E-1	6.583471E-1	7.326037E-1	5.941666E-1	6.721852E-1	6.353512E-1	7.389420E-1	6.506899E-1	6.377077E-1	6.630315E-1	7.217418E-1	6.706521E-1	6.356537E-1	6.592830E-1	6.933735E-1	6.499187E-1	6.882854E-1	6.565158E-1	6.395451E-1	6.845073E-1	6.685316E-1	6.653995E-1	7.282836E-1	6.629439E-1	6.588587E-1	6.630196E-1	6.507383E-1	7.225462E-1	7.268047E-1	6.635038E-1	6.529137E-1	7.178457E-1	6.693222E-1	6.790980E-1	6.907683E-1	7.060851E-1	6.894227E-1	7.171563E-1	6.613785E-1	6.454680E-1	7.023133E-1	6.702671E-1	7.254053E-1	7.076542E-1	6.919439E-1	6.941598E-1	7.130446E-1	6.375914E-1	6.564751E-1	6.874779E-1	6.438781E-1	6.455812E-1	6.401217E-1	6.918168E-1	6.901968E-1	5.904212E-1	7.066565E-1	6.842384E-1	6.672510E-1	6.864293E-1	6.879784E-1	6.365492E-1	6.590949E-1	6.828910E-1	6.753744E-1	7.108349E-1	6.558343E-1	6.854832E-1	6.733339E-1	6.324773E-1	6.942072E-1	6.730524E-1	6.644618E-1	6.031964E-1	7.410615E-1	6.828361E-1	6.438552E-1	6.061102E-1	6.915072E-1	6.307872E-1	6.989600E-1	5.920252E-1	6.399627E-1	6.492940E-1	7.019858E-1	6.157092E-1	7.305514E-1	6.674364E-1	6.968808E-1	6.660307E-1	7.229346E-1	6.225148E-1	6.725150E-1	7.185714E-1	6.085011E-1	6.219747E-1	7.217175E-1	6.573860E-1	6.390629E-1	6.542908E-1	7.021833E-1	6.774699E-1	7.099903E-1	7.108183E-1	6.670472E-1	6.765417E-1	6.763441E-1	6.825362E-1	6.710582E-1	6.791155E-1	7.619320E-1	7.049596E-1	6.441795E-1	6.492563E-1	6.440627E-1	6.846516E-1	7.337126E-1	6.422118E-1	6.218184E-1	6.968954E-1	6.208072E-1	6.878209E-1	6.866777E-1	6.818899E-1	7.177927E-1	6.874528E-1	7.258178E-1	6.687863E-1	6.669264E-1	6.723408E-1	6.747248E-1	7.061184E-1	6.748895E-1	7.239681E-1	7.353080E-1	6.139708E-1	7.182564E-1	6.655965E-1	6.956007E-1	6.813602E-1	6.987844E-1	7.101079E-1	6.597417E-1	6.128963E-1	6.020079E-1	6.526243E-1	7.073482E-1	6.583984E-1	7.034396E-1	6.576989E-1	7.074300E-1	7.585106E-1	6.945182E-1	6.063241E-1
2.900050E+2	6.732611E-1	7.911571E-1	7.303040E-1	7.588277E-1	6.947120E-1	7.458114E-1	7.785024E-1	7.786304E-1	7.551484E-1	6.982079E-1	6.775056E-1	7.896138E-1	7.743649E-1	7.056433E-1	7.687963E-1	7.354455E-1	7.797267E-1	7.696231E-1	7.142945E-1	7.005564E-1	7.622240E-1	7.598164E-1	7.613378E-1	7.318767E-1	7.455678E-1	7.471383E-1	7.524349E-1	7.501236E-1	7.317898E-1	6.833822E-1	7.410803E-1	6.987864E-1	7.531995E-1	7.920879E-1	7.326888E-1	7.457662E-1	7.709548E-1	7.747419E-1	7.435966E-1	7.691912E-1	7.224329E-1	6.985240E-1	7.596585E-1	7.790835E-1	7.880899E-1	8.144446E-1	7.117538E-1	7.603037E-1	7.542616E-1	8.049290E-1	7.544904E-1	7.628545E-1	7.906939E-1	7.713847E-1	7.825846E-1	7.342748E-1	7.118279E-1	7.622862E-1	7.571452E-1	8.004169E-1	6.948276E-1	7.677754E-1	7.842223E-1	7.524269E-1	7.535158E-1	7.900386E-1	8.131985E-1	7.286715E-1	7.280502E-1	7.362079E-1	7.442662E-1	7.582477E-1	6.890827E-1	7.491133E-1	7.484143E-1	7.632287E-1	7.450596E-1	7.149216E-1	7.351955E-1	7.769215E-1	6.939826E-1	7.152337E-1	7.237954E-1	8.080164E-1	6.845508E-1	7.292278E-1	7.635153E-1	7.709102E-1	7.431485E-1	6.887105E-1	7.781189E-1	8.015294E-1	7.340716E-1	7.583277E-1	7.216144E-1	7.139194E-1	7.192742E-1	7.441169E-1	7.580264E-1	7.422200E-1	8.131436E-1	7.933322E-1	7.372997E-1	7.715640E-1	7.546642E-1	8.048205E-1	7.112062E-1	7.249412E-1	7.569716E-1	8.169730E-1	7.107137E-1	8.515085E-1	7.545221E-1	8.003191E-1	8.120714E-1	7.376369E-1	7.495266E-1	7.915177E-1	7.840862E-1	7.420538E-1	7.440106E-1	7.120681E-1	8.133492E-1	7.218382E-1	7.729292E-1	7.307728E-1	6.990732E-1	7.349953E-1	7.829543E-1	7.390759E-1	8.158884E-1	8.312678E-1	7.903915E-1	7.745814E-1	7.281521E-1	7.615562E-1	7.139920E-1	7.333631E-1	8.507609E-1	7.359572E-1	8.266365E-1	7.351563E-1	7.435130E-1	7.761369E-1	7.623912E-1	7.282187E-1	8.703650E-1	7.454348E-1	7.582846E-1	7.269816E-1	7.379055E-1	7.529459E-1	7.612289E-1	7.743184E-1	7.235988E-1	7.851958E-1	7.107690E-1	7.606280E-1	7.479096E-1	7.853038E-1	7.641667E-1	6.981826E-1	8.104261E-1	7.775710E-1	7.609156E-1	8.299542E-1	7.517132E-1	7.385362E-1	7.593491E-1	5.801237E-1	7.734659E-1
2.905310E+2	7.822225E-1	8.189870E-1	7.423924E-1	7.860774E-1	8.071309E-1	7.741288E-1	7.759751E-1	8.365112E-1	7.140120E-1	8.210266E-1	8.344227E-1	8.326929E-1	7.813350E-1	7.799289E-1	7.836568E-1	8.050926E-1	7.233389E-1	7.968709E-1	8.208613E-1	8.359624E-1	8.161593E-1	7.670119E-1	8.542729E-1	7.643173E-1	7.729337E-1	8.198161E-1	8.007268E-1	7.818462E-1	7.970830E-1	7.732421E-1	7.815094E-1	8.530998E-1	8.338468E-1	8.212151E-1	8.313666E-1	7.628992E-1	8.142880E-1	7.863186E-1	8.309402E-1	7.256435E-1	8.010180E-1	7.471438E-1	8.214575E-1	8.745020E-1	8.208739E-1	8.265430E-1	8.436021E-1	8.025991E-1	8.030240E-1	8.075680E-1	8.343496E-1	8.226625E-1	8.311314E-1	7.899751E-1	7.712368E-1	7.610908E-1	7.663589E-1	7.758453E-1	8.297674E-1	8.295044E-1	7.735326E-1	8.090653E-1	8.346143E-1	7.509431E-1	7.843381E-1	8.036447E-1	9.045878E-1	8.282629E-1	8.298186E-1	7.770909E-1	8.560196E-1	8.022301E-1	8.071517E-1	7.542351E-1	8.112761E-1	7.610152E-1	7.852583E-1	7.948562E-1	7.762497E-1	7.581095E-1	7.766390E-1	7.317931E-1	8.286516E-1	7.985410E-1	8.238671E-1	7.828832E-1	8.330008E-1	7.581015E-1	8.084811E-1	8.048056E-1	7.992169E-1	7.945924E-1	8.391536E-1	8.172497E-1	7.852685E-1	8.092189E-1	8.408422E-1	8.455477E-1	8.137985E-1	8.592069E-1	8.162032E-1	8.661728E-1	8.256543E-1	7.715338E-1	8.126879E-1	7.864020E-1	8.278771E-1	7.899483E-1	7.783723E-1	8.642388E-1	7.768083E-1	7.865042E-1	8.008945E-1	7.635889E-1	8.177048E-1	7.980546E-1	7.855552E-1	8.093265E-1	7.513257E-1	8.455537E-1	7.816767E-1	8.345981E-1	8.410920E-1	8.103879E-1	8.142973E-1	8.126375E-1	8.089396E-1	8.109052E-1	8.052743E-1	8.367861E-1	8.422769E-1	8.131751E-1	7.471497E-1	8.807450E-1	8.654686E-1	7.545279E-1	7.860061E-1	7.770770E-1	7.929258E-1	8.418490E-1	8.258575E-1	7.927016E-1	8.044356E-1	8.313873E-1	7.985061E-1	7.844196E-1	8.325554E-1	7.860115E-1	7.798842E-1	7.768814E-1	7.890110E-1	7.938604E-1	7.989280E-1	7.859379E-1	8.109149E-1	9.318862E-1	8.269308E-1	8.225130E-1	8.478204E-1	7.939737E-1	8.234501E-1	8.170552E-1	8.010871E-1	8.205293E-1	8.219070E-1	8.076911E-1	8.524993E-1	8.707692E-1	8.040031E-1	8.550093E-1	8.128556E-1
2.910030E+2	8.147255E-1	9.287787E-1	8.645014E-1	8.313211E-1	8.267382E-1	9.213065E-1	9.084787E-1	8.985388E-1	8.668233E-1	9.770538E-1	9.857565E-1	9.170754E-1	8.851594E-1	8.038058E-1	9.467839E-1	8.576413E-1	8.683524E-1	8.717734E-1	8.447790E-1	9.025463E-1	9.108340E-1	8.425717E-1	9.153959E-1	9.746769E-1	9.221119E-1	9.305338E-1	9.309477E-1	9.717169E-1	9.281437E-1	8.729586E-1	9.312707E-1	9.489033E-1	9.035842E-1	9.190443E-1	9.054570E-1	8.933595E-1	9.290082E-1	8.895133E-1	8.818591E-1	9.165145E-1	9.123321E-1	9.251952E-1	9.351471E-1	8.126068E-1	8.677761E-1	9.615047E-1	9.122671E-1	9.393243E-1	8.719361E-1	8.922868E-1	8.725513E-1	9.053205E-1	9.958713E-1	9.251846E-1	8.863020E-1	9.050860E-1	8.741683E-1	9.579236E-1	8.945103E-1	9.189446E-1	9.121148E-1	8.718002E-1	8.903208E-1	9.127819E-1	8.505989E-1	8.538278E-1	8.680720E-1	9.222753E-1	8.935038E-1	9.640824E-1	9.584596E-1	8.348756E-1	8.835345E-1	8.829432E-1	8.887661E-1	8.779617E-1	7.935722E-1	9.361680E-1	9.072316E-1	8.628632E-1	1.008829E+0	8.995240E-1	8.644558E-1	8.374664E-1	8.910958E-1	8.918768E-1	9.088186E-1	9.764401E-1	9.708658E-1	8.640669E-1	8.794188E-1	9.695935E-1	9.114327E-1	9.282353E-1	8.912521E-1	8.513853E-1	9.129424E-1	9.505277E-1	8.826827E-1	9.240687E-1	8.907194E-1	8.986214E-1	8.563810E-1	9.294157E-1	8.535632E-1	9.342485E-1	8.647934E-1	9.500729E-1	9.699212E-1	8.970625E-1	8.754417E-1	8.226977E-1	8.930407E-1	9.626569E-1	9.937398E-1	8.892099E-1	9.239946E-1	9.420756E-1	9.609526E-1	9.210614E-1	9.212470E-1	8.948171E-1	8.942642E-1	9.105898E-1	8.596554E-1	8.790486E-1	8.925843E-1	8.829521E-1	9.664679E-1	9.183469E-1	8.786882E-1	9.227996E-1	9.049436E-1	9.309564E-1	9.684224E-1	9.195748E-1	9.360374E-1	9.612089E-1	9.736709E-1	9.080656E-1	9.048913E-1	8.947213E-1	9.157624E-1	8.764380E-1	8.708718E-1	9.173707E-1	9.555528E-1	9.438931E-1	8.877285E-1	9.429172E-1	8.427944E-1	9.271229E-1	9.386711E-1	9.015067E-1	8.948130E-1	9.332278E-1	8.414535E-1	8.784975E-1	9.070074E-1	9.545079E-1	8.954873E-1	8.952116E-1	8.630786E-1	9.242346E-1	8.832577E-1	9.304511E-1	9.105785E-1	8.298238E-1	9.003076E-1	9.079612E-1	9.988469E-1
2.915180E+2	1.132943E+0	1.151263E+0	1.134592E+0	1.146593E+0	1.058114E+0	1.076020E+0	1.082835E+0	1.182456E+0	1.055944E+0	1.134458E+0	1.020940E+0	1.219245E+0	1.089477E+0	1.031597E+0	1.113730E+0	1.212437E+0	1.183243E+0	1.056529E+0	1.092944E+0	1.163983E+0	1.077999E+0	1.070348E+0	1.087758E+0	1.088477E+0	1.157837E+0	1.089925E+0	1.109009E+0	1.078474E+0	1.088138E+0	1.114757E+0	1.065725E+0	1.118227E+0	1.062760E+0	1.160142E+0	1.080430E+0	1.084552E+0	1.150775E+0	1.044994E+0	1.099082E+0	1.121630E+0	1.062726E+0	1.143029E+0	1.121552E+0	1.153462E+0	1.052505E+0	1.117334E+0	1.096215E+0	1.070229E+0	1.141421E+0	1.045316E+0	1.066259E+0	1.010374E+0	1.106755E+0	1.150463E+0	1.112759E+0	1.166525E+0	9.916216E-1	1.125410E+0	1.095396E+0	1.100207E+0	1.105060E+0	1.077975E+0	1.172995E+0	1.057359E+0	1.095064E+0	1.058408E+0	1.202940E+0	1.118034E+0	1.122496E+0	1.069092E+0	1.136804E+0	1.153072E+0	1.050185E+0	1.054499E+0	1.100438E+0	1.073444E+0	9.782643E-1	1.059018E+0	1.075148E+0	1.010090E+0	1.091501E+0	1.122747E+0	1.116422E+0	1.057336E+0	1.133922E+0	1.074617E+0	1.145615E+0	1.141494E+0	1.158754E+0	1.064562E+0	1.137928E+0	1.119651E+0	1.008478E+0	1.141467E+0	1.083270E+0	1.094582E+0	1.061641E+0	1.091659E+0	1.091613E+0	1.143614E+0	1.117158E+0	1.156250E+0	1.007261E+0	1.094899E+0	1.091663E+0	1.136613E+0	1.065977E+0	1.099592E+0	1.200323E+0	1.188058E+0	1.134500E+0	1.024694E+0	1.094948E+0	1.154287E+0	1.130447E+0	1.081814E+0	9.822591E-1	1.174286E+0	1.086252E+0	1.067926E+0	1.182083E+0	1.138880E+0	1.064167E+0	1.052565E+0	1.137185E+0	1.077542E+0	1.076361E+0	1.148257E+0	1.051148E+0	1.130997E+0	1.199157E+0	1.126176E+0	1.082771E+0	1.112896E+0	1.134576E+0	1.191639E+0	1.106889E+0	1.088154E+0	1.075835E+0	1.101738E+0	1.129890E+0	1.071962E+0	1.126938E+0	1.077728E+0	1.078107E+0	1.045800E+0	1.229200E+0	1.150254E+0	1.059226E+0	1.161632E+0	1.065685E+0	1.140248E+0	9.864523E-1	1.183334E+0	1.125323E+0	1.101673E+0	1.105532E+0	1.110463E+0	1.113774E+0	1.051234E+0	1.077520E+0	1.085303E+0	1.105141E+0	1.118136E+0	1.116998E+0	1.104373E+0	1.153129E+0	1.169845E+0	1.129660E+0	1.001490E+0	1.209044E+0
2.920010E+2	9.104340E-1	9.760999E-1	1.040726E+0	1.006701E+0	9.605937E-1	1.072507E+0	9.817710E-1	1.096081E+0	9.192959E-1	1.013660E+0	1.076562E+0	1.104121E+0	1.002127E+0	9.605294E-1	1.001480E+0	1.008272E+0	1.135656E+0	9.804426E-1	1.007157E+0	1.025279E+0	1.013447E+0	9.851961E-1	9.907623E-1	9.764420E-1	9.434161E-1	1.015456E+0	1.043386E+0	1.061627E+0	9.928938E-1	9.460176E-1	1.057658E+0	1.048884E+0	9.681730E-1	1.035872E+0	9.800804E-1	9.703189E-1	1.066667E+0	9.841984E-1	1.006286E+0	1.066629E+0	1.024319E+0	1.009972E+0	9.711431E-1	1.100746E+0	1.045285E+0	1.023270E+0	9.980769E-1	1.104316E+0	9.993294E-1	9.126041E-1	9.617806E-1	9.890419E-1	1.058622E+0	1.019932E+0	1.070943E+0	1.031490E+0	1.055520E+0	1.053137E+0	1.066667E+0	1.025486E+0	9.311586E-1	9.750476E-1	1.018824E+0	1.037803E+0	1.025426E+0	1.030318E+0	1.007303E+0	9.912772E-1	1.054690E+0	9.656094E-1	1.057789E+0	1.056449E+0	1.029595E+0	1.031178E+0	9.780974E-1	9.499421E-1	9.584980E-1	1.077259E+0	1.091647E+0	9.844200E-1	9.811570E-1	1.027370E+0	1.018421E+0	1.075892E+0	1.051543E+0	1.040193E+0	1.060555E+0	1.055826E+0	9.708612E-1	1.016747E+0	1.012484E+0	1.015137E+0	1.033473E+0	9.990139E-1	9.561808E-1	9.967473E-1	9.910939E-1	1.034981E+0	1.016593E+0	1.033380E+0	9.360104E-1	1.010826E+0	1.030521E+0	1.051181E+0	1.087083E+0	9.814497E-1	9.571337E-1	9.921961E-1	1.019054E+0	1.060368E+0	1.004400E+0	9.895948E-1	9.889301E-1	1.027508E+0	1.079850E+0	1.049246E+0	9.987498E-1	1.111798E+0	1.025572E+0	9.942972E-1	1.051661E+0	1.018497E+0	9.595826E-1	1.002958E+0	1.002296E+0	9.459523E-1	1.067445E+0	9.911240E-1	1.014380E+0	9.605822E-1	1.103134E+0	9.754950E-1	9.978511E-1	1.032032E+0	1.113339E+0	1.005195E+0	9.905620E-1	9.975585E-1	9.711782E-1	1.028166E+0	1.072295E+0	9.902004E-1	1.002683E+0	1.108849E+0	1.026819E+0	1.064980E+0	1.069058E+0	1.035184E+0	9.947420E-1	9.786568E-1	1.118362E+0	1.047505E+0	1.028400E+0	1.091246E+0	1.048027E+0	1.018170E+0	1.004990E+0	1.013226E+0	1.047144E+0	1.045804E+0	9.638571E-1	1.045632E+0	1.039086E+0	9.128595E-1	1.013600E+0	9.848062E-1	1.031178E+0	1.023008E+0	1.035060E+0	9.029652E-1	1.010555E+0
2.925020E+2	9.997655E-1	1.088388E+0	1.007991E+0	1.016606E+0	9.178818E-1	1.027840E+0	9.939220E-1	1.058522E+0	1.006240E+0	9.617564E-1	9.896542E-1	9.931423E-1	1.009429E+0	9.845374E-1	1.028528E+0	1.007738E+0	9.843443E-1	9.933198E-1	1.019574E+0	9.809369E-1	9.967343E-1	9.801478E-1	9.655415E-1	9.934657E-1	9.701998E-1	1.087696E+0	1.013189E+0	1.004326E+0	9.644811E-1	9.245366E-1	1.033755E+0	1.030282E+0	1.016083E+0	1.034248E+0	1.010145E+0	9.134698E-1	9.675893E-1	9.150244E-1	9.884606E-1	1.022197E+0	9.156221E-1	1.013542E+0	9.440131E-1	1.044339E+0	1.038771E+0	1.067232E+0	1.024865E+0	1.023647E+0	1.022029E+0	1.029304E+0	1.007814E+0	1.044374E+0	1.062947E+0	1.050532E+0	1.077303E+0	1.073675E+0	9.190311E-1	1.016530E+0	1.080723E+0	1.040017E+0	9.615728E-1	9.676691E-1	1.097001E+0	1.056452E+0	1.072860E+0	1.049418E+0	9.847086E-1	1.001488E+0	9.948357E-1	9.808687E-1	9.804800E-1	8.753541E-1	9.339988E-1	9.563961E-1	9.885687E-1	1.087792E+0	9.625210E-1	1.014337E+0	9.672058E-1	9.876368E-1	1.051026E+0	1.012989E+0	1.057641E+0	1.054677E+0	1.002628E+0	1.036746E+0	1.044245E+0	1.001273E+0	1.016532E+0	1.032528E+0	9.573102E-1	1.030779E+0	1.031841E+0	1.046725E+0	9.502278E-1	1.007587E+0	1.082667E+0	1.040961E+0	1.042220E+0	1.047290E+0	9.849421E-1	1.058838E+0	9.488839E-1	1.085389E+0	9.314869E-1	1.057366E+0	1.012694E+0	9.802307E-1	1.030629E+0	1.030512E+0	1.024989E+0	1.003448E+0	1.026076E+0	1.045975E+0	1.033649E+0	9.827999E-1	1.023610E+0	9.976681E-1	1.077607E+0	1.101311E+0	9.815881E-1	9.917157E-1	1.004929E+0	9.756918E-1	1.022564E+0	1.012189E+0	9.904354E-1	9.762993E-1	9.354375E-1	1.005685E+0	1.019254E+0	1.052915E+0	1.007013E+0	1.010991E+0	1.001284E+0	1.062711E+0	1.012729E+0	9.645579E-1	9.687973E-1	1.065530E+0	1.004006E+0	1.098199E+0	1.044085E+0	1.048752E+0	9.961625E-1	1.016097E+0	1.022601E+0	1.050977E+0	1.045157E+0	1.021761E+0	1.000557E+0	9.903421E-1	1.045805E+0	1.048067E+0	1.034691E+0	1.032937E+0	9.413950E-1	1.039289E+0	1.063067E+0	1.032519E+0	1.058860E+0	1.049730E+0	1.034038E+0	1.011204E+0	1.045875E+0	1.024913E+0	9.857269E-1	1.010197E+0	9.996416E-1	9.963197E-1	8.989524E-1
2.930050E+2	9.802451E-1	9.009905E-1	9.572309E-1	9.901560E-1	9.239394E-1	9.090709E-1	9.451623E-1	9.514134E-1	9.720637E-1	8.998685E-1	9.650495E-1	9.141652E-1	9.543471E-1	9.542031E-1	9.215479E-1	9.039159E-1	9.760762E-1	9.103402E-1	9.672814E-1	9.685467E-1	9.465554E-1	9.210121E-1	9.283075E-1	9.463848E-1	9.352441E-1	9.687892E-1	9.389618E-1	1.009078E+0	9.857915E-1	9.196202E-1	9.845959E-1	9.648909E-1	8.971243E-1	8.941869E-1	8.882069E-1	8.888595E-1	9.296424E-1	8.968057E-1	9.148484E-1	9.755126E-1	9.054823E-1	8.972584E-1	9.981639E-1	9.675805E-1	9.248958E-1	9.071268E-1	9.077098E-1	9.037905E-1	9.269646E-1	9.443781E-1	1.013675E+0	9.566983E-1	8.842251E-1	9.557962E-1	9.591724E-1	1.004717E+0	8.726330E-1	9.920834E-1	1.006494E+0	8.527306E-1	8.873329E-1	9.620669E-1	9.677109E-1	9.320110E-1	9.722659E-1	9.209965E-1	9.415831E-1	8.939596E-1	9.622582E-1	8.908327E-1	1.025921E+0	9.191811E-1	9.791482E-1	8.960883E-1	1.037777E+0	9.544665E-1	9.097071E-1	9.484721E-1	9.189914E-1	1.004797E+0	9.718451E-1	9.539424E-1	9.831890E-1	9.478004E-1	9.493586E-1	9.450918E-1	9.439739E-1	9.780105E-1	9.525048E-1	8.790572E-1	9.080045E-1	1.029598E+0	8.741605E-1	9.255177E-1	9.174023E-1	9.566650E-1	9.270427E-1	9.500061E-1	9.251176E-1	1.037443E+0	8.500476E-1	9.557660E-1	9.298635E-1	9.677743E-1	9.480240E-1	9.660683E-1	9.926655E-1	9.577128E-1	9.419386E-1	9.783717E-1	9.133336E-1	9.260534E-1	9.366063E-1	9.314614E-1	9.722279E-1	9.276557E-1	9.257617E-1	9.791565E-1	9.218603E-1	8.840029E-1	9.477479E-1	9.633496E-1	9.987931E-1	9.281750E-1	9.502934E-1	8.944556E-1	1.004440E+0	9.558656E-1	9.678253E-1	9.819436E-1	9.454261E-1	9.017221E-1	9.937203E-1	9.607542E-1	9.346845E-1	8.733435E-1	9.486857E-1	9.430304E-1	9.713229E-1	9.241318E-1	9.593729E-1	1.022921E+0	9.448260E-1	9.667365E-1	9.783136E-1	9.145091E-1	1.011049E+0	9.729298E-1	9.352870E-1	9.340168E-1	9.428200E-1	9.448674E-1	1.014621E+0	9.423223E-1	9.417251E-1	9.908688E-1	9.339824E-1	9.416025E-1	9.885100E-1	9.442991E-1	9.057294E-1	9.343562E-1	9.424508E-1	9.347557E-1	9.080105E-1	9.513202E-1	8.721479E-1	9.496407E-1	1.061966E+0	8.354657E-1	8.249476E-1
2.935120E+2	9.973274E-1	1.029237E+0	9.936362E-1	9.768700E-1	9.978408E-1	9.761323E-1	9.779205E-1	9.477979E-1	9.839348E-1	9.506115E-1	9.530977E-1	9.399932E-1	9.871191E-1	9.095399E-1	9.761541E-1	9.617397E-1	1.041859E+0	9.929556E-1	9.608436E-1	9.218330E-1	9.588201E-1	1.026496E+0	9.923641E-1	9.731211E-1	1.004377E+0	9.599768E-1	9.741276E-1	9.207790E-1	9.604955E-1	9.371239E-1	9.945014E-1	9.654307E-1	1.035822E+0	1.040080E+0	9.979678E-1	9.645829E-1	9.986068E-1	9.589944E-1	9.710915E-1	9.950202E-1	9.911068E-1	9.492236E-1	9.285233E-1	9.266040E-1	9.921909E-1	9.389213E-1	1.034799E+0	9.883915E-1	9.149867E-1	9.561616E-1	9.328403E-1	9.994142E-1	9.705091E-1	8.943186E-1	1.069475E+0	1.005368E+0	9.641591E-1	9.562030E-1	9.711619E-1	1.023077E+0	9.933361E-1	8.824155E-1	1.015642E+0	9.416467E-1	9.383004E-1	9.650164E-1	9.781801E-1	1.001919E+0	9.990166E-1	9.619518E-1	1.021043E+0	9.846321E-1	9.790027E-1	1.005143E+0	9.242349E-1	9.452277E-1	8.997371E-1	9.301614E-1	1.001539E+0	9.725128E-1	1.059807E+0	9.676797E-1	1.036231E+0	9.134243E-1	9.274914E-1	9.842112E-1	9.970006E-1	9.433314E-1	9.357246E-1	9.754517E-1	9.860296E-1	9.762438E-1	9.765521E-1	1.018413E+0	9.952336E-1	9.587392E-1	9.134685E-1	9.875607E-1	9.774450E-1	9.703315E-1	9.556187E-1	9.504778E-1	9.504768E-1	9.760862E-1	1.014050E+0	9.429601E-1	9.412995E-1	9.781252E-1	1.012387E+0	9.302402E-1	9.961492E-1	9.857157E-1	9.643272E-1	9.815422E-1	9.556990E-1	9.466290E-1	9.339750E-1	1.000796E+0	9.436872E-1	1.004744E+0	9.813800E-1	9.232998E-1	9.920460E-1	1.006241E+0	1.015951E+0	1.021103E+0	9.495971E-1	9.600422E-1	9.209490E-1	8.926810E-1	1.025075E+0	9.883654E-1	1.025934E+0	1.056365E+0	9.074251E-1	9.975088E-1	9.588587E-1	9.907806E-1	1.068623E+0	9.992223E-1	9.581071E-1	9.837259E-1	1.010233E+0	9.248085E-1	9.957505E-1	9.832349E-1	9.965987E-1	1.049746E+0	9.510470E-1	9.995040E-1	9.995758E-1	1.010725E+0	9.714761E-1	9.429457E-1	9.147330E-1	1.041076E+0	9.643011E-1	9.867128E-1	1.027911E+0	1.034093E+0	9.537128E-1	9.524739E-1	9.807064E-1	9.991847E-1	9.526503E-1	9.557753E-1	9.660863E-1	1.039766E+0	9.983347E-1	9.152805E-1	1.000948E+0
2.940100E+2	1.017184E+0	1.052229E+0	1.022179E+0	1.042815E+0	1.011207E+0	1.044781E+0	9.762926E-1	1.027631E+0	9.648194E-1	1.014438E+0	9.889805E-1	1.057292E+0	9.901953E-1	9.882168E-1	9.784841E-1	1.093219E+0	1.050349E+0	1.031600E+0	9.412090E-1	1.037281E+0	1.038279E+0	1.028985E+0	1.010644E+0	9.764507E-1	1.095220E+0	9.907070E-1	1.034631E+0	9.658398E-1	9.669601E-1	1.031131E+0	1.022849E+0	1.028066E+0	1.047626E+0	9.173253E-1	1.031091E+0	9.540075E-1	1.100750E+0	1.054781E+0	1.086593E+0	9.719144E-1	1.020583E+0	1.022178E+0	1.016607E+0	1.040548E+0	1.040347E+0	1.037473E+0	1.004820E+0	9.760439E-1	1.012239E+0	1.010103E+0	1.035428E+0	1.027382E+0	1.082356E+0	1.107316E+0	9.935857E-1	1.047193E+0	1.016920E+0	1.104869E+0	1.016400E+0	1.039603E+0	1.017088E+0	9.943004E-1	1.069279E+0	9.667230E-1	9.761368E-1	9.961726E-1	1.072269E+0	9.873798E-1	1.017826E+0	1.006000E+0	1.032135E+0	1.013883E+0	1.056591E+0	9.124004E-1	1.067136E+0	9.362612E-1	9.703064E-1	1.064031E+0	9.910109E-1	1.072850E+0	1.033463E+0	1.009069E+0	1.026188E+0	1.007372E+0	1.076550E+0	1.067218E+0	9.702620E-1	1.053190E+0	1.005372E+0	9.980394E-1	1.068294E+0	1.070474E+0	1.017416E+0	1.029731E+0	9.918047E-1	1.043352E+0	9.675076E-1	1.041439E+0	9.907369E-1	1.066215E+0	1.037652E+0	9.992082E-1	1.013810E+0	1.039045E+0	1.042103E+0	1.084310E+0	9.850705E-1	9.921054E-1	1.013414E+0	1.085618E+0	9.956251E-1	1.011992E+0	1.017192E+0	1.036537E+0	1.032107E+0	1.020974E+0	1.079536E+0	1.047639E+0	1.002362E+0	1.069078E+0	1.064907E+0	1.019981E+0	1.080497E+0	1.017883E+0	1.063209E+0	9.703755E-1	1.020830E+0	1.029476E+0	1.061063E+0	9.965368E-1	1.021034E+0	1.050934E+0	1.004109E+0	1.057674E+0	1.093686E+0	1.061093E+0	9.898937E-1	9.626979E-1	1.055317E+0	1.041231E+0	1.005880E+0	1.090701E+0	1.006555E+0	1.089854E+0	1.071502E+0	1.028392E+0	9.926088E-1	1.007998E+0	1.013190E+0	1.023814E+0	9.847148E-1	1.001951E+0	1.057016E+0	1.043212E+0	1.044613E+0	9.854326E-1	9.710943E-1	1.008811E+0	1.023646E+0	1.002757E+0	1.029215E+0	1.024865E+0	9.528457E-1	1.042026E+0	1.022263E+0	1.000111E+0	1.027656E+0	1.001200E+0	1.067013E+0	9.487843E-1	9.803021E-1
2.945010E+2	1.017017E+0	1.133721E+0	1.002122E+0	9.717337E-1	1.054556E+0	1.004651E+0	1.024176E+0	1.086612E+0	1.045173E+0	1.061309E+0	1.057462E+0	1.018444E+0	1.036718E+0	1.021308E+0	1.104185E+0	1.077558E+0	1.079465E+0	1.077171E+0	1.018626E+0	1.098037E+0	1.009430E+0	1.065394E+0	1.074490E+0	9.996716E-1	1.047707E+0	9.589055E-1	9.976303E-1	1.042885E+0	1.065552E+0	1.037019E+0	1.087121E+0	1.030428E+0	1.094356E+0	1.005155E+0	1.122806E+0	9.880492E-1	1.087947E+0	1.013910E+0	1.032127E+0	1.114556E+0	1.072261E+0	1.002702E+0	1.048831E+0	1.049778E+0	1.069398E+0	1.025008E+0	1.046876E+0	1.085496E+0	1.006141E+0	1.106010E+0	1.001027E+0	1.004138E+0	1.039507E+0	1.051365E+0	1.144668E+0	1.046389E+0	1.086759E+0	1.054179E+0	1.065954E+0	1.104233E+0	1.043311E+0	1.031248E+0	1.107613E+0	1.101505E+0	1.082074E+0	9.890772E-1	1.105806E+0	1.094875E+0	1.067169E+0	1.036807E+0	1.040670E+0	1.008817E+0	1.052133E+0	9.799290E-1	1.079921E+0	1.065224E+0	1.034439E+0	1.035885E+0	1.007371E+0	1.003426E+0	1.111410E+0	1.091885E+0	1.098400E+0	1.090032E+0	1.009534E+0	1.115478E+0	1.033667E+0	1.107493E+0	1.028556E+0	1.021542E+0	1.023538E+0	1.056242E+0	1.000249E+0	1.057098E+0	1.053892E+0	1.071841E+0	1.076127E+0	1.035713E+0	1.054591E+0	1.087185E+0	1.032188E+0	1.055381E+0	1.008452E+0	1.086158E+0	9.976816E-1	1.061573E+0	1.027089E+0	1.072321E+0	1.054455E+0	9.768863E-1	1.056578E+0	1.106733E+0	9.485519E-1	9.487168E-1	1.085891E+0	1.060973E+0	1.037498E+0	1.142892E+0	1.055199E+0	1.063555E+0	1.100506E+0	1.035458E+0	1.084266E+0	1.046606E+0	1.031954E+0	1.069765E+0	1.051300E+0	1.039789E+0	1.013718E+0	1.033123E+0	1.040339E+0	1.087475E+0	1.045927E+0	1.070871E+0	1.076802E+0	1.084715E+0	1.020670E+0	1.036386E+0	1.112985E+0	1.011476E+0	1.130522E+0	1.058539E+0	1.122755E+0	1.108198E+0	1.139595E+0	1.084530E+0	1.046723E+0	1.015383E+0	1.061838E+0	1.083791E+0	1.003187E+0	1.050499E+0	9.766360E-1	1.047914E+0	1.074344E+0	1.075920E+0	1.041546E+0	1.051969E+0	1.098306E+0	1.058110E+0	1.091456E+0	1.058453E+0	1.072504E+0	9.502948E-1	1.058227E+0	1.113927E+0	1.074761E+0	1.035269E+0	1.023778E+0	1.002115E+0	1.081814E+0
2.950050E+2	9.560458E-1	1.043561E+0	1.020643E+0	9.728398E-1	9.487307E-1	9.898592E-1	9.715594E-1	9.991762E-1	9.987764E-1	9.893323E-1	1.050858E+0	9.874870E-1	1.025463E+0	9.911135E-1	1.040162E+0	1.058390E+0	1.027233E+0	1.035222E+0	9.968676E-1	1.001202E+0	9.949302E-1	1.031445E+0	9.695490E-1	1.067060E+0	1.077041E+0	1.042436E+0	9.834154E-1	9.952139E-1	1.010268E+0	1.008946E+0	1.068620E+0	1.000107E+0	1.017633E+0	1.001943E+0	1.128292E+0	9.527304E-1	9.871951E-1	1.002372E+0	9.821183E-1	1.029646E+0	9.783665E-1	9.659852E-1	1.060957E+0	1.070600E+0	1.038584E+0	9.755851E-1	1.054446E+0	1.066134E+0	1.049359E+0	1.043905E+0	9.500538E-1	9.924300E-1	1.013461E+0	1.058581E+0	1.050752E+0	1.014329E+0	1.036635E+0	1.041694E+0	1.077673E+0	1.069793E+0	9.776769E-1	9.766503E-1	1.037126E+0	1.024749E+0	1.069794E+0	1.039590E+0	1.024701E+0	1.005313E+0	1.011443E+0	9.299696E-1	1.086245E+0	1.018231E+0	1.006874E+0	9.572155E-1	1.013329E+0	1.001820E+0	1.053073E+0	9.756738E-1	9.705773E-1	9.936750E-1	9.621861E-1	9.866240E-1	1.083412E+0	1.005814E+0	9.849118E-1	1.017020E+0	1.033283E+0	9.547340E-1	1.059038E+0	1.005303E+0	1.049802E+0	1.088768E+0	1.037701E+0	1.020391E+0	1.020477E+0	1.011309E+0	1.027077E+0	1.029333E+0	1.034867E+0	1.048601E+0	1.050043E+0	1.009189E+0	9.503587E-1	1.058016E+0	1.009942E+0	1.060400E+0	9.870265E-1	9.674790E-1	1.054721E+0	1.064583E+0	9.912901E-1	1.026782E+0	1.005493E+0	1.044179E+0	1.058958E+0	1.025122E+0	1.006964E+0	9.781765E-1	9.885834E-1	1.067185E+0	1.086756E+0	9.889388E-1	1.085132E+0	1.031654E+0	1.002669E+0	1.039965E+0	1.030385E+0	1.024430E+0	9.939639E-1	9.449679E-1	9.213144E-1	1.021350E+0	9.982693E-1	1.017854E+0	1.005076E+0	1.050545E+0	1.045491E+0	1.060783E+0	9.958526E-1	1.006170E+0	1.001603E+0	9.561201E-1	1.059543E+0	1.008267E+0	1.098672E+0	1.063393E+0	1.014106E+0	1.013642E+0	9.789175E-1	1.065781E+0	1.005113E+0	1.022940E+0	9.944160E-1	1.010757E+0	1.012152E+0	1.033106E+0	1.008957E+0	9.693135E-1	1.047425E+0	9.991592E-1	1.000749E+0	1.036228E+0	1.045460E+0	1.009593E+0	9.785508E-1	1.016030E+0	9.644998E-1	1.014604E+0	9.468088E-1	1.022148E+0	8.453397E-1
2.955030E+2	1.111327E+0	1.023072E+0	9.993443E-1	9.726063E-1	1.027850E+0	9.927476E-1	1.000682E+0	1.025491E+0	1.036156E+0	1.011022E+0	1.034703E+0	1.083511E+0	9.798092E-1	1.009599E+0	1.038760E+0	1.057968E+0	9.939170E-1	9.622539E-1	1.044557E+0	1.021525E+0	9.960452E-1	9.648800E-1	1.029200E+0	9.851185E-1	1.012417E+0	1.008748E+0	9.789775E-1	1.023039E+0	1.035468E+0	1.001194E+0	9.455903E-1	1.015999E+0	1.075542E+0	9.704495E-1	9.493399E-1	1.008941E+0	1.015908E+0	1.028546E+0	1.017581E+0	9.987244E-1	9.720096E-1	9.901377E-1	9.666686E-1	1.001805E+0	1.097252E+0	1.066095E+0	1.028815E+0	9.970753E-1	1.001643E+0	1.040518E+0	9.889598E-1	1.030780E+0	1.019953E+0	9.950260E-1	1.079062E+0	1.034300E+0	1.045772E+0	1.023229E+0	1.092867E+0	1.112911E+0	9.777123E-1	1.025231E+0	1.034942E+0	1.016525E+0	9.738588E-1	9.721695E-1	1.040200E+0	1.037719E+0	1.011418E+0	1.012223E+0	1.045112E+0	1.043394E+0	9.784332E-1	1.001215E+0	9.971575E-1	1.042847E+0	1.046381E+0	1.088238E+0	1.001635E+0	9.926388E-1	1.019751E+0	1.031004E+0	1.028630E+0	1.043371E+0	1.030667E+0	9.936499E-1	9.389417E-1	9.981680E-1	1.053185E+0	9.680875E-1	1.026466E+0	1.021739E+0	9.517179E-1	1.031250E+0	1.086626E+0	9.795049E-1	9.223431E-1	9.974871E-1	1.013739E+0	1.082632E+0	9.904140E-1	9.960886E-1	9.731398E-1	1.017111E+0	1.021275E+0	1.034234E+0	1.016589E+0	1.036749E+0	9.992917E-1	1.051874E+0	1.025354E+0	9.897130E-1	1.021237E+0	9.523628E-1	1.038266E+0	1.009210E+0	1.003494E+0	9.879079E-1	9.927500E-1	9.739765E-1	1.061395E+0	9.846659E-1	1.037678E+0	9.706112E-1	1.040278E+0	1.009345E+0	9.942340E-1	1.020724E+0	9.435940E-1	9.623063E-1	1.050308E+0	9.875730E-1	9.984046E-1	9.805516E-1	9.850631E-1	1.009210E+0	9.935239E-1	1.043194E+0	9.967014E-1	1.037183E+0	1.069572E+0	1.074300E+0	1.074583E+0	9.954512E-1	1.052214E+0	1.037229E+0	1.023695E+0	9.992976E-1	9.832067E-1	1.047255E+0	1.042491E+0	1.013112E+0	1.004121E+0	1.018973E+0	9.656731E-1	1.061416E+0	9.755715E-1	1.016520E+0	1.024686E+0	9.591934E-1	1.031428E+0	1.043778E+0	1.040768E+0	1.000980E+0	9.924823E-1	1.007544E+0	1.128972E+0	9.789193E-1	9.863250E-1	9.249568E-1	9.889382E-1
2.960030E+2	1.016441E+0	1.177533E+0	1.055879E+0	1.136748E+0	1.099464E+0	1.038619E+0	1.128305E+0	1.119763E+0	1.120804E+0	1.097098E+0	1.102627E+0	1.101309E+0	1.068883E+0	9.894246E-1	1.139488E+0	1.117125E+0	1.112155E+0	1.037982E+0	1.094353E+0	1.119990E+0	1.079442E+0	1.059278E+0	1.091528E+0	1.071956E+0	1.093734E+0	1.094866E+0	1.022360E+0	1.148138E+0	1.137182E+0	1.088640E+0	1.140733E+0	1.061813E+0	1.155363E+0	1.056247E+0	1.046268E+0	1.100721E+0	1.109904E+0	1.090283E+0	1.094202E+0	1.123782E+0	1.090857E+0	1.000629E+0	1.039402E+0	1.152390E+0	1.118419E+0	1.069188E+0	1.108433E+0	1.091819E+0	1.049325E+0	1.077289E+0	1.007408E+0	1.045889E+0	1.135263E+0	1.078826E+0	1.073030E+0	1.064579E+0	1.073718E+0	1.083804E+0	1.129228E+0	1.090403E+0	1.039612E+0	1.105384E+0	1.140742E+0	1.129152E+0	1.080060E+0	1.065411E+0	1.107842E+0	1.085369E+0	1.091203E+0	1.075411E+0	1.121539E+0	1.071681E+0	1.087435E+0	1.117594E+0	1.006472E+0	1.039811E+0	1.099380E+0	1.082503E+0	1.085151E+0	1.051737E+0	1.147597E+0	1.077171E+0	1.075632E+0	1.088385E+0	1.073522E+0	1.079176E+0	1.037455E+0	1.042737E+0	1.121427E+0	1.061647E+0	1.096476E+0	1.174382E+0	1.089325E+0	1.083126E+0	1.076847E+0	1.112862E+0	1.075581E+0	1.114684E+0	1.073971E+0	1.194120E+0	1.038965E+0	1.146414E+0	1.019417E+0	1.162533E+0	1.107650E+0	1.108799E+0	1.083418E+0	1.095778E+0	1.082045E+0	1.143039E+0	1.129724E+0	1.131583E+0	1.098140E+0	1.115981E+0	1.183674E+0	1.094141E+0	1.135046E+0	1.067216E+0	1.070074E+0	1.089847E+0	1.062028E+0	1.091998E+0	1.101750E+0	1.055369E+0	1.157916E+0	1.067069E+0	1.125721E+0	1.068553E+0	1.028954E+0	1.160666E+0	1.126383E+0	1.027970E+0	1.083588E+0	1.111397E+0	1.085549E+0	1.112051E+0	1.060278E+0	1.065044E+0	1.060977E+0	1.044212E+0	1.075557E+0	1.131232E+0	1.085568E+0	1.123621E+0	1.216773E+0	1.056859E+0	1.058188E+0	1.068971E+0	1.104965E+0	1.054403E+0	1.083614E+0	1.095960E+0	1.041853E+0	1.130764E+0	1.144076E+0	1.049094E+0	1.088660E+0	1.138423E+0	1.143524E+0	1.099866E+0	1.102699E+0	1.059687E+0	1.063107E+0	1.113801E+0	1.099136E+0	1.028086E+0	1.146982E+0	1.190180E+0	1.036292E+0	1.039674E+0	1.029392E+0
2.964960E+2	1.066625E+0	1.139950E+0	1.021794E+0	1.033366E+0	9.621336E-1	1.083195E+0	1.032933E+0	1.057118E+0	1.000571E+0	1.014290E+0	1.058516E+0	1.150564E+0	1.097434E+0	1.005722E+0	1.075269E+0	1.076061E+0	1.068014E+0	9.623189E-1	1.068554E+0	1.103352E+0	1.014202E+0	1.070301E+0	1.066562E+0	1.053993E+0	1.102291E+0	1.004228E+0	1.033256E+0	1.099363E+0	1.012664E+0	1.016465E+0	1.088782E+0	1.005747E+0	1.027988E+0	1.054194E+0	1.063579E+0	1.137148E+0	1.042865E+0	1.086215E+0	1.008104E+0	1.061923E+0	1.020604E+0	1.085624E+0	1.066282E+0	1.114333E+0	1.087153E+0	1.083354E+0	1.118886E+0	1.022432E+0	1.003021E+0	1.065043E+0	1.020557E+0	1.037889E+0	1.059335E+0	1.090681E+0	1.102815E+0	1.083541E+0	9.992434E-1	1.047178E+0	1.139473E+0	1.039585E+0	1.035950E+0	1.022515E+0	1.084336E+0	1.115038E+0	1.006016E+0	1.056978E+0	1.020116E+0	1.066445E+0	1.066225E+0	1.014003E+0	1.129589E+0	1.027394E+0	1.045492E+0	1.074404E+0	1.026705E+0	1.033952E+0	1.096933E+0	1.146541E+0	1.001411E+0	1.054817E+0	1.051396E+0	1.082027E+0	1.155612E+0	1.063187E+0	1.092394E+0	1.142469E+0	1.048676E+0	1.043000E+0	1.020473E+0	1.061905E+0	1.063967E+0	1.102133E+0	1.085396E+0	1.023125E+0	1.044475E+0	1.044212E+0	1.073331E+0	1.083068E+0	1.086351E+0	1.074945E+0	1.038163E+0	1.054796E+0	1.059009E+0	1.070021E+0	1.008197E+0	1.043716E+0	1.066384E+0	9.638851E-1	1.027469E+0	1.058013E+0	1.007799E+0	1.041391E+0	9.430819E-1	1.039163E+0	1.049327E+0	1.038987E+0	1.052233E+0	1.014314E+0	1.053419E+0	1.126898E+0	1.043247E+0	1.093035E+0	1.131093E+0	1.043707E+0	1.039414E+0	1.029044E+0	1.074709E+0	1.037020E+0	9.877896E-1	1.032930E+0	1.026221E+0	1.021173E+0	1.048992E+0	9.999114E-1	1.057680E+0	1.005686E+0	1.025280E+0	1.029981E+0	1.038357E+0	1.045724E+0	1.068373E+0	1.020311E+0	1.029889E+0	9.879436E-1	1.044967E+0	1.049053E+0	1.126308E+0	9.998882E-1	1.066621E+0	1.111230E+0	1.072604E+0	1.064970E+0	1.009932E+0	1.049040E+0	1.022796E+0	1.042371E+0	1.085171E+0	1.035202E+0	1.030626E+0	9.879997E-1	1.025884E+0	1.043360E+0	1.031550E+0	1.052259E+0	9.987906E-1	1.039873E+0	1.025671E+0	1.025009E+0	1.033745E+0	1.123544E+0	1.076981E+0
2.970040E+2	9.620199E-1	9.094940E-1	8.915489E-1	9.042742E-1	8.700898E-1	9.336240E-1	9.134734E-1	9.909742E-1	9.065572E-1	9.424228E-1	9.448782E-1	9.243562E-1	9.622407E-1	8.675085E-1	9.555590E-1	9.690762E-1	9.120588E-1	9.430715E-1	8.932416E-1	9.546857E-1	9.359278E-1	9.671343E-1	9.272377E-1	8.734561E-1	9.188961E-1	8.465229E-1	9.464205E-1	9.244057E-1	9.166422E-1	9.113110E-1	9.284263E-1	8.860119E-1	9.533093E-1	9.416378E-1	9.772088E-1	8.615853E-1	8.839316E-1	8.665897E-1	9.021493E-1	9.292767E-1	8.566917E-1	8.575121E-1	9.145342E-1	9.230720E-1	9.775892E-1	9.015881E-1	9.276835E-1	9.276539E-1	9.106505E-1	9.398848E-1	8.750349E-1	9.448917E-1	9.245564E-1	8.857280E-1	9.749645E-1	9.354759E-1	8.932213E-1	9.342049E-1	9.365366E-1	9.111137E-1	9.579067E-1	8.675996E-1	9.256778E-1	8.804827E-1	8.743110E-1	8.622839E-1	9.322937E-1	9.558535E-1	8.840743E-1	8.891207E-1	9.291760E-1	9.596304E-1	8.903704E-1	9.157769E-1	9.426286E-1	9.235232E-1	8.960716E-1	9.194655E-1	9.061760E-1	9.171629E-1	9.199782E-1	9.535451E-1	9.112875E-1	9.422183E-1	9.267043E-1	9.586541E-1	9.284994E-1	9.423889E-1	9.365581E-1	8.978871E-1	9.050418E-1	9.797110E-1	9.329392E-1	9.261168E-1	9.206446E-1	9.084582E-1	9.563987E-1	8.701070E-1	8.939480E-1	9.646848E-1	9.104531E-1	9.093475E-1	8.628299E-1	9.241482E-1	8.687626E-1	9.533528E-1	9.051465E-1	9.438685E-1	9.193787E-1	9.489439E-1	9.647911E-1	9.103664E-1	8.901486E-1	9.846576E-1	9.689157E-1	9.299069E-1	8.658114E-1	8.922612E-1	8.653068E-1	9.256167E-1	8.886981E-1	9.955297E-1	9.825061E-1	9.116477E-1	9.136323E-1	8.975988E-1	9.412428E-1	8.622083E-1	9.473679E-1	8.724247E-1	8.597054E-1	9.090918E-1	9.490001E-1	8.697544E-1	9.194531E-1	9.169565E-1	9.454778E-1	9.207470E-1	8.885091E-1	8.414726E-1	9.830739E-1	9.306995E-1	9.338795E-1	9.507178E-1	8.653785E-1	8.916484E-1	9.936767E-1	8.897727E-1	9.262461E-1	8.986989E-1	9.422438E-1	9.792067E-1	8.882949E-1	9.944549E-1	8.673981E-1	9.117048E-1	9.263579E-1	9.126447E-1	9.588635E-1	9.407175E-1	9.091333E-1	8.897155E-1	9.755724E-1	9.332486E-1	9.428245E-1	8.986375E-1	9.707775E-1	9.338420E-1	9.314344E-1	8.540292E-1	9.594002E-1
2.975020E+2	8.993285E-1	8.509279E-1	8.669910E-1	8.249454E-1	8.533834E-1	8.599504E-1	8.937090E-1	8.601894E-1	7.863641E-1	8.552609E-1	8.609547E-1	8.418793E-1	8.510522E-1	9.009665E-1	8.634181E-1	8.635750E-1	9.075563E-1	7.874131E-1	8.151976E-1	8.539833E-1	8.800067E-1	8.521113E-1	8.423019E-1	8.869227E-1	9.163921E-1	8.079010E-1	8.331949E-1	8.590434E-1	8.231344E-1	8.453591E-1	8.476460E-1	8.543935E-1	8.169589E-1	8.709101E-1	8.373481E-1	8.399510E-1	8.910224E-1	8.359627E-1	8.082772E-1	8.217475E-1	8.167232E-1	8.873374E-1	9.010512E-1	9.027499E-1	8.431451E-1	8.426269E-1	7.915932E-1	8.339637E-1	8.407941E-1	8.930394E-1	8.146222E-1	8.496054E-1	8.901668E-1	8.761474E-1	8.867884E-1	9.223230E-1	8.500713E-1	8.546997E-1	8.127460E-1	8.179801E-1	8.522397E-1	8.230836E-1	8.276216E-1	8.673734E-1	8.643945E-1	8.375418E-1	8.468902E-1	8.605918E-1	8.966275E-1	8.911919E-1	8.830236E-1	8.953969E-1	9.090050E-1	8.149805E-1	9.009595E-1	8.590322E-1	8.514307E-1	8.283992E-1	7.932657E-1	8.439948E-1	8.305956E-1	8.644358E-1	9.103595E-1	8.715617E-1	8.838105E-1	7.674660E-1	8.362200E-1	8.058798E-1	8.615431E-1	8.874682E-1	8.480337E-1	9.041464E-1	8.542115E-1	8.935122E-1	9.008115E-1	8.607339E-1	8.605482E-1	8.386773E-1	8.700693E-1	7.876542E-1	8.372699E-1	8.799893E-1	8.494584E-1	8.602872E-1	8.988878E-1	8.779517E-1	8.562946E-1	8.904787E-1	8.622673E-1	8.447147E-1	8.266287E-1	8.432636E-1	8.924555E-1	8.539476E-1	8.686677E-1	8.917791E-1	8.736284E-1	8.553772E-1	8.682284E-1	8.041514E-1	8.425195E-1	7.953171E-1	8.879509E-1	8.475253E-1	8.579238E-1	8.461546E-1	8.413285E-1	8.999443E-1	8.387681E-1	8.727473E-1	8.378432E-1	8.546433E-1	8.487334E-1	8.643014E-1	8.168428E-1	8.724702E-1	8.651639E-1	8.852627E-1	8.890099E-1	8.372246E-1	8.073611E-1	8.547452E-1	8.695751E-1	8.195744E-1	9.237650E-1	8.649567E-1	8.150178E-1	9.009036E-1	8.800050E-1	8.857906E-1	8.107016E-1	8.608946E-1	8.162205E-1	8.381581E-1	8.426817E-1	8.210124E-1	9.010036E-1	8.522597E-1	8.685960E-1	8.799191E-1	8.416315E-1	8.817949E-1	8.749518E-1	9.124803E-1	9.058202E-1	8.723347E-1	8.872304E-1	8.847584E-1	8.784986E-1	8.683087E-1	9.044244E-1
2.980040E+2	9.886933E-1	9.719336E-1	9.175521E-1	9.190950E-1	9.098292E-1	8.957626E-1	9.368162E-1	9.372799E-1	9.187471E-1	9.110195E-1	9.451372E-1	9.329013E-1	9.597286E-1	8.728968E-1	9.485497E-1	9.034812E-1	9.108451E-1	9.087337E-1	9.913106E-1	9.359453E-1	9.195640E-1	9.498966E-1	8.994484E-1	9.624192E-1	9.132589E-1	9.523192E-1	9.513009E-1	9.817729E-1	8.889401E-1	8.496065E-1	9.685171E-1	9.101195E-1	9.402369E-1	9.007590E-1	9.111544E-1	8.579283E-1	8.813571E-1	9.004466E-1	9.586294E-1	8.981283E-1	9.542840E-1	8.864816E-1	8.543996E-1	9.886815E-1	9.303169E-1	9.578393E-1	9.424641E-1	9.331021E-1	9.536819E-1	9.241164E-1	9.373586E-1	9.255604E-1	9.197943E-1	9.221623E-1	9.689895E-1	8.909432E-1	9.602926E-1	8.711140E-1	9.498787E-1	9.322743E-1	9.157266E-1	9.277476E-1	8.823137E-1	8.938244E-1	9.697693E-1	9.314220E-1	9.064837E-1	1.001797E+0	9.495007E-1	9.691104E-1	9.166087E-1	9.451389E-1	9.339183E-1	9.274902E-1	8.789344E-1	9.430253E-1	9.267367E-1	8.980287E-1	9.593807E-1	9.134796E-1	9.314126E-1	8.946780E-1	9.087469E-1	9.482085E-1	8.889776E-1	9.724117E-1	9.209479E-1	9.086911E-1	8.852720E-1	9.062927E-1	8.787291E-1	8.589533E-1	9.209825E-1	8.919790E-1	9.216244E-1	9.312829E-1	9.325134E-1	8.760013E-1	9.531680E-1	9.190426E-1	9.468031E-1	9.031965E-1	9.514588E-1	9.524369E-1	9.097446E-1	8.872833E-1	9.675781E-1	9.246195E-1	9.135133E-1	9.096596E-1	9.103332E-1	9.068655E-1	8.522363E-1	8.653094E-1	8.992368E-1	8.876503E-1	9.022786E-1	9.695386E-1	9.682491E-1	9.226687E-1	9.464999E-1	9.649328E-1	9.308761E-1	8.729827E-1	8.812838E-1	9.019402E-1	9.199126E-1	8.954906E-1	9.692621E-1	9.218542E-1	9.585906E-1	9.163436E-1	8.895113E-1	9.351877E-1	9.673726E-1	8.767523E-1	9.007919E-1	8.962254E-1	9.627502E-1	9.185101E-1	9.144472E-1	8.875676E-1	9.154702E-1	9.179040E-1	8.895151E-1	9.032873E-1	8.919739E-1	9.060218E-1	9.396272E-1	9.113674E-1	8.662841E-1	9.088914E-1	9.384140E-1	9.343005E-1	9.160237E-1	9.147787E-1	9.515491E-1	9.098261E-1	9.294725E-1	8.962409E-1	9.563611E-1	9.156703E-1	9.249681E-1	9.236474E-1	9.531752E-1	9.092032E-1	9.181255E-1	9.325295E-1	8.770938E-1	9.760341E-1	8.535913E-1
2.985040E+2	9.701358E-1	1.003517E+0	1.026285E+0	1.059186E+0	1.004421E+0	1.041746E+0	1.005762E+0	1.072451E+0	1.114478E+0	1.082874E+0	1.047967E+0	1.046153E+0	1.025539E+0	1.038945E+0	9.983257E-1	1.058993E+0	1.063767E+0	1.053337E+0	1.008418E+0	1.059685E+0	1.051996E+0	1.044534E+0	1.004155E+0	1.007344E+0	1.036631E+0	1.057240E+0	1.039332E+0	1.070548E+0	1.053533E+0	1.025467E+0	1.014881E+0	1.034463E+0	1.037729E+0	1.048743E+0	1.075407E+0	1.034344E+0	9.929047E-1	1.061827E+0	1.063289E+0	1.085985E+0	1.081956E+0	1.033457E+0	1.059540E+0	1.005627E+0	1.072762E+0	1.028356E+0	1.026997E+0	1.044629E+0	1.057365E+0	1.016628E+0	1.050431E+0	1.066355E+0	1.040549E+0	1.038153E+0	1.012714E+0	1.014472E+0	1.022074E+0	1.107605E+0	1.071952E+0	1.037485E+0	1.038542E+0	1.049249E+0	1.037235E+0	1.054220E+0	1.069263E+0	1.014322E+0	1.009440E+0	9.839592E-1	1.017001E+0	1.009470E+0	1.036384E+0	1.037902E+0	1.055087E+0	9.857011E-1	1.071349E+0	1.029788E+0	1.073960E+0	1.032744E+0	1.067428E+0	9.901198E-1	1.051635E+0	1.055849E+0	1.011587E+0	9.492467E-1	1.022910E+0	1.059246E+0	9.928571E-1	1.048976E+0	1.038959E+0	1.037675E+0	1.086975E+0	1.064799E+0	1.055234E+0	1.023447E+0	1.060009E+0	1.019277E+0	1.023179E+0	1.015245E+0	1.051730E+0	1.052380E+0	1.039971E+0	1.015443E+0	1.027476E+0	1.041642E+0	1.021045E+0	1.021003E+0	1.052286E+0	1.048012E+0	9.640089E-1	9.904201E-1	1.024847E+0	1.026926E+0	1.048523E+0	1.040680E+0	1.074168E+0	9.751424E-1	1.060264E+0	1.057030E+0	1.023069E+0	1.074894E+0	1.038388E+0	1.069596E+0	1.089793E+0	1.014935E+0	1.081867E+0	1.047969E+0	1.084165E+0	1.069421E+0	1.004455E+0	1.038152E+0	1.036201E+0	1.059552E+0	1.050653E+0	1.064225E+0	1.032767E+0	1.053807E+0	1.044724E+0	1.054079E+0	9.563934E-1	1.070499E+0	1.074319E+0	1.030701E+0	1.048750E+0	1.037057E+0	1.014929E+0	1.049181E+0	1.079471E+0	1.012245E+0	1.041522E+0	1.061793E+0	1.060089E+0	1.025627E+0	1.011043E+0	1.062570E+0	1.012371E+0	1.012283E+0	1.011508E+0	1.053350E+0	1.043386E+0	1.044905E+0	1.029041E+0	1.017997E+0	1.037962E+0	9.660122E-1	9.918831E-1	1.035168E+0	9.934723E-1	1.068170E+0	1.045678E+0	1.022066E+0	9.738844E-1
2.990010E+2	1.152861E+0	1.118178E+0	1.133875E+0	1.166719E+0	1.142737E+0	1.152422E+0	1.112847E+0	1.058705E+0	1.151391E+0	1.069229E+0	1.102147E+0	1.140378E+0	1.098299E+0	1.122007E+0	1.131626E+0	1.070105E+0	1.082257E+0	1.118738E+0	1.112134E+0	1.095224E+0	1.110916E+0	1.109358E+0	1.146443E+0	1.099328E+0	1.115579E+0	1.108856E+0	1.107296E+0	1.097463E+0	1.195689E+0	1.214518E+0	1.149220E+0	1.141510E+0	1.132014E+0	1.132875E+0	1.112478E+0	1.106093E+0	1.161760E+0	1.131307E+0	1.109503E+0	1.155596E+0	1.115865E+0	1.134309E+0	1.117988E+0	1.172880E+0	1.114394E+0	1.091864E+0	1.155875E+0	1.117076E+0	1.143288E+0	1.150001E+0	1.120382E+0	1.126122E+0	1.149773E+0	1.130413E+0	1.063256E+0	1.138416E+0	1.132574E+0	1.150624E+0	1.163806E+0	1.175394E+0	1.129408E+0	1.164473E+0	1.143362E+0	1.098876E+0	1.059719E+0	1.112706E+0	1.146180E+0	1.114975E+0	1.109480E+0	1.170583E+0	1.111426E+0	1.098774E+0	1.080801E+0	1.170684E+0	1.118388E+0	1.134041E+0	1.125720E+0	1.103429E+0	1.148661E+0	1.168626E+0	1.107896E+0	1.169931E+0	1.127874E+0	1.166100E+0	1.114403E+0	1.155168E+0	1.134760E+0	1.155064E+0	1.144989E+0	1.094448E+0	1.156854E+0	1.120618E+0	1.110693E+0	1.120371E+0	1.094521E+0	1.068472E+0	1.089000E+0	1.156491E+0	1.093514E+0	1.112202E+0	1.131448E+0	1.158627E+0	1.097124E+0	1.115985E+0	1.115050E+0	1.091903E+0	1.145543E+0	1.092625E+0	1.167796E+0	1.182652E+0	1.135387E+0	1.132721E+0	1.101551E+0	1.193842E+0	1.151412E+0	1.097634E+0	1.132633E+0	1.106492E+0	1.119707E+0	1.100192E+0	1.119061E+0	1.088694E+0	1.065166E+0	1.164362E+0	1.072842E+0	1.146999E+0	1.116495E+0	1.087925E+0	1.094073E+0	1.106540E+0	1.170609E+0	1.123056E+0	1.097275E+0	1.087274E+0	1.114855E+0	1.152425E+0	1.137708E+0	1.112465E+0	1.159288E+0	1.070878E+0	1.064335E+0	1.112030E+0	1.136963E+0	1.111839E+0	1.103626E+0	1.076391E+0	1.138745E+0	1.089189E+0	1.105764E+0	1.098644E+0	1.129806E+0	1.115955E+0	1.114403E+0	1.094709E+0	1.177112E+0	1.164990E+0	1.079685E+0	1.105835E+0	1.169713E+0	1.156769E+0	1.092345E+0	1.156945E+0	1.040244E+0	1.127885E+0	1.162106E+0	1.116317E+0	1.126995E+0	1.070133E+0	1.141343E+0	1.114109E+0	1.089658E+0
2.995040E+2	1.061858E+0	1.046762E+0	1.081619E+0	1.053508E+0	1.101549E+0	1.062432E+0	1.085728E+0	1.100383E+0	1.043740E+0	1.115021E+0	1.045588E+0	1.042243E+0	1.089856E+0	1.103650E+0	1.063136E+0	1.085304E+0	1.071598E+0	1.125450E+0	1.060329E+0	1.064291E+0	1.099931E+0	1.066832E+0	1.120366E+0	1.052435E+0	1.100862E+0	1.052544E+0	1.064033E+0	1.089821E+0	1.031733E+0	1.092890E+0	1.084294E+0	1.080942E+0	1.116831E+0	1.036086E+0	1.063332E+0	1.133482E+0	1.091421E+0	1.108728E+0	1.086896E+0	1.070996E+0	1.107586E+0	1.103946E+0	1.128524E+0	9.919258E-1	1.117614E+0	1.083297E+0	1.110354E+0	1.124054E+0	1.079322E+0	1.015738E+0	1.057151E+0	1.066884E+0	1.097358E+0	1.105222E+0	1.065700E+0	1.080774E+0	1.072451E+0	1.043185E+0	1.042632E+0	1.058342E+0	1.131454E+0	1.054452E+0	1.114729E+0	1.075218E+0	1.104184E+0	1.136997E+0	1.149580E+0	1.122761E+0	1.077121E+0	1.024240E+0	1.076501E+0	1.094089E+0	1.060711E+0	1.103512E+0	1.065009E+0	1.060242E+0	1.078358E+0	1.095008E+0	1.054839E+0	1.097295E+0	1.091441E+0	1.014447E+0	1.035124E+0	1.126742E+0	1.098676E+0	1.063341E+0	1.084602E+0	1.054546E+0	1.056894E+0	1.115575E+0	1.072694E+0	1.083316E+0	1.081654E+0	1.103311E+0	1.080966E+0	1.098117E+0	1.119001E+0	1.080284E+0	1.061008E+0	1.130597E+0	1.120912E+0	1.066628E+0	1.113711E+0	1.074563E+0	1.080722E+0	1.134019E+0	1.081209E+0	1.057766E+0	1.121533E+0	1.038248E+0	1.114051E+0	1.108438E+0	1.086432E+0	1.064705E+0	1.055244E+0	1.126535E+0	1.038229E+0	1.052248E+0	1.035530E+0	1.068881E+0	1.046508E+0	1.089941E+0	1.057166E+0	1.123895E+0	1.141239E+0	1.060965E+0	1.091711E+0	1.120947E+0	1.102433E+0	1.059257E+0	1.031752E+0	1.059342E+0	1.095757E+0	1.082531E+0	1.084791E+0	1.081183E+0	1.073122E+0	1.037096E+0	1.063062E+0	1.074559E+0	1.136027E+0	1.106638E+0	1.091352E+0	1.059943E+0	1.107298E+0	1.095352E+0	1.078505E+0	1.076874E+0	1.099389E+0	1.032697E+0	1.110172E+0	1.094021E+0	1.097743E+0	1.068186E+0	1.118205E+0	1.064653E+0	1.064976E+0	1.099175E+0	1.051791E+0	1.048348E+0	1.037135E+0	1.029777E+0	1.133712E+0	1.088365E+0	1.023888E+0	1.104946E+0	1.078848E+0	1.050642E+0	1.110582E+0	1.074432E+0	1.147499E+0
3.000060E+2	9.271225E-1	1.008681E+0	9.736781E-1	9.765457E-1	9.880805E-1	9.876866E-1	9.651385E-1	9.709910E-1	9.852809E-1	9.665957E-1	9.982067E-1	9.964456E-1	9.755249E-1	9.615347E-1	9.949447E-1	1.018542E+0	9.639770E-1	1.006328E+0	1.012610E+0	9.908716E-1	9.375870E-1	9.772692E-1	9.872850E-1	9.915512E-1	9.172776E-1	1.021139E+0	1.004843E+0	9.013518E-1	1.006970E+0	9.721592E-1	9.354418E-1	9.785723E-1	9.562299E-1	1.010626E+0	1.000280E+0	1.028202E+0	9.815350E-1	9.617300E-1	9.734044E-1	9.675470E-1	9.235853E-1	9.544690E-1	9.384974E-1	9.381362E-1	9.217675E-1	9.960170E-1	9.727175E-1	9.471755E-1	9.255485E-1	1.000477E+0	1.020055E+0	9.654733E-1	9.023582E-1	9.279022E-1	1.002552E+0	9.530723E-1	9.625359E-1	9.727721E-1	9.589856E-1	9.785246E-1	9.326305E-1	9.809956E-1	9.947393E-1	1.010488E+0	9.326697E-1	9.670111E-1	9.414265E-1	9.159154E-1	9.502704E-1	9.354042E-1	9.760571E-1	9.286995E-1	9.604780E-1	9.976319E-1	9.653607E-1	9.738717E-1	9.437948E-1	1.042392E+0	9.764260E-1	9.864852E-1	9.870204E-1	1.000660E+0	1.006309E+0	9.381415E-1	9.912223E-1	9.823669E-1	1.030613E+0	1.026842E+0	1.012343E+0	9.585413E-1	9.567149E-1	9.681676E-1	9.772254E-1	9.673788E-1	9.420683E-1	1.022117E+0	9.757583E-1	1.033301E+0	9.705102E-1	9.981239E-1	9.235970E-1	9.761167E-1	9.607717E-1	9.550851E-1	9.745505E-1	9.878392E-1	8.970884E-1	9.864995E-1	9.708816E-1	1.034306E+0	9.887531E-1	9.817866E-1	1.018802E+0	9.815152E-1	9.512716E-1	1.021259E+0	9.929669E-1	9.593137E-1	9.852167E-1	1.029213E+0	1.007023E+0	9.915184E-1	9.690475E-1	9.763001E-1	9.648448E-1	9.959716E-1	9.463871E-1	9.262718E-1	9.910081E-1	1.001450E+0	9.650043E-1	9.870632E-1	1.018071E+0	9.664807E-1	9.833715E-1	9.633622E-1	9.784905E-1	1.014871E+0	9.694971E-1	1.028328E+0	1.003511E+0	1.008318E+0	9.378901E-1	1.053682E+0	9.608669E-1	1.010831E+0	9.962879E-1	1.014766E+0	9.336926E-1	1.009707E+0	1.022948E+0	9.946111E-1	1.022176E+0	1.002076E+0	9.336057E-1	1.022284E+0	9.912782E-1	9.795537E-1	9.370422E-1	9.738178E-1	1.043486E+0	9.978165E-1	9.881618E-1	9.816096E-1	9.631273E-1	9.620314E-1	9.953294E-1	9.937669E-1	9.468045E-1	9.450504E-1	1.030943E+0
