Photon Energy (eV)	#1	#2	#3	#4	#5	#6	#7	#8	#9	#10	#11	#12	#13	#14	#15	#16	#17	#18	#19	#20	#21	#22	#23	#24	#25	#26	#27	#28	#29	#30	#31	#32	#33	#34	#35	#36	#37	#38	#39	#40	#41	#42	#43	#44	#45	#46	#47	#48	#49	#50	#51	#52	#53	#54	#55	#56	#57	#58	#59	#60	#61	#62	#63	#64	#65	#66	#67	#68	#69	#70	#71	#72	#73	#74	#75	#76	#77	#78	#79	#80	#81	#82	#83	#84	#85	#86	#87	#88	#89	#90	#91	#92	#93	#94	#95	#96	#97	#98	#99	#100	#101	#102	#103	#104	#105	#106	#107	#108	#109	#110	#111	#112	#113	#114	#115	#116	#117	#118	#119	#120	#121	#122	#123	#124	#125	#126	#127	#128	#129	#130	#131	#132	#133	#134	#135	#136	#137	#138	#139	#140	#141	#142	#143	#144	#145	#146	#147	#148	#149	#150	#151	#152	#153	#154	#155	#156	#157	#158	#159	#160	#161	#162	#163	#164	#165	#166	#167	#168	#169	#170	#171	#172	
2.790030E+2	-6.697217E-3	-1.812804E-3	-1.384104E-3	-3.239960E-3	7.217119E-4	-7.177189E-3	-6.996924E-3	-4.231528E-3	-2.165216E-3	2.720596E-3	6.734283E-5	-1.703978E-3	5.840124E-4	-2.565320E-4	-4.924264E-3	3.118271E-3	2.164298E-3	-9.218660E-3	-2.941800E-3	4.206524E-3	-5.132415E-3	3.553387E-3	-7.044252E-3	-4.031110E-3	-9.559228E-3	-1.103412E-3	4.136501E-3	-9.252185E-3	-1.161156E-3	-1.105765E-2	-4.914360E-3	-2.237672E-3	2.358938E-3	-2.692758E-3	5.902034E-3	1.371967E-3	-8.654970E-4	-4.485794E-3	-6.287381E-3	-7.961630E-4	-6.031504E-3	-1.176769E-2	-2.041543E-3	-4.896990E-3	1.774954E-3	1.272740E-2	-9.112200E-3	1.721559E-3	-6.389513E-3	7.827185E-3	-1.343065E-3	-4.682810E-3	-5.207350E-3	1.218870E-3	-2.008211E-3	-6.234778E-3	-7.579030E-3	6.129244E-3	-2.149583E-3	3.536738E-4	-6.910541E-3	7.135826E-3	3.417540E-3	-1.210853E-3	-3.005984E-3	1.396839E-2	-1.430082E-3	-1.796826E-3	-1.250457E-2	1.156745E-2	-5.918982E-3	-3.029294E-3	1.684034E-3	-8.604618E-4	-7.076724E-3	3.339838E-3	-3.228096E-3	3.244629E-3	-8.342223E-3	-1.262666E-4	-8.197205E-3	-7.874467E-3	-4.328318E-3	-1.109521E-2	-4.404711E-3	-1.056077E-2	-3.280402E-3	-8.816562E-3	9.277280E-3	-3.048951E-4	-4.710356E-4	-4.440028E-4	3.295344E-3	-8.634738E-4	-1.010599E-2	-1.181875E-3	3.203704E-4	-1.838848E-3	5.298597E-3	-1.832880E-3	2.444368E-3	-6.729390E-3	-4.392848E-3	6.432208E-3	1.201859E-4	-4.518318E-3	6.624516E-3	7.344309E-3	1.922854E-3	-3.006174E-4	-8.977828E-3	-1.534446E-3	5.694971E-4	-7.136062E-3	1.147573E-3	-6.374634E-3	-4.772708E-4	-6.381347E-3	-2.556504E-3	2.052520E-3	-2.442368E-3	-1.327506E-2	1.585456E-3	-2.641851E-3	-7.534764E-3	-4.121761E-3	-8.235308E-4	4.903332E-3	-4.577342E-3	-3.237914E-3	-1.435761E-2	1.865087E-3	-5.897964E-3	1.424323E-3	-2.239544E-3	-2.352551E-3	-9.370214E-3	1.248323E-3	-2.131069E-3	-2.207108E-3	-3.642959E-3	-4.456470E-3	-1.009874E-2	3.167582E-4	-1.274133E-3	2.915938E-3	3.595349E-4	-2.261114E-3	-1.324531E-3	-3.805800E-3	3.520404E-3	-7.794469E-3	7.619265E-3	2.567237E-4	5.677395E-4	6.811484E-4	-4.891240E-3	-1.323314E-2	-1.665128E-3	-3.426209E-3	-2.313557E-5	3.114523E-3	-3.708191E-4	-8.783085E-3	-4.502821E-3	-3.966895E-3	-1.255417E-2	2.664053E-3	2.219402E-3	1.193652E-3	-1.414970E-2	-5.507536E-3
2.795060E+2	-3.647130E-3	-4.713176E-3	1.977010E-4	9.795381E-4	-1.699454E-3	-5.804856E-3	-1.251567E-2	8.703380E-4	2.315689E-3	-3.471036E-3	-5.320912E-3	-4.994399E-3	3.263266E-3	-1.722528E-3	-1.568159E-4	3.488359E-3	5.221615E-3	2.168609E-3	-2.604321E-3	-5.069377E-3	-1.350251E-2	-3.026807E-3	1.006334E-3	1.567929E-3	4.914185E-3	-5.308018E-3	-1.415496E-3	-1.757359E-3	-6.045031E-3	-5.622572E-4	-2.257956E-3	-1.427575E-2	-1.000452E-3	1.855965E-3	-1.295420E-2	3.939188E-3	2.360837E-4	3.195450E-3	1.319793E-2	-4.552551E-3	-5.548513E-3	-4.137813E-3	-1.053192E-2	-3.514308E-3	-6.460806E-3	-1.576852E-3	-7.719252E-3	-5.741701E-3	-1.936273E-4	-9.994290E-3	-4.115918E-3	1.642064E-3	-7.755691E-4	-6.860507E-3	-2.568503E-3	5.284319E-3	-4.749772E-3	2.868126E-3	1.515292E-3	-3.448850E-3	-6.412470E-3	1.325099E-4	-1.279298E-2	1.729998E-4	-1.259837E-2	-1.403307E-3	-2.076109E-3	-3.418866E-3	-9.416602E-3	-1.160521E-3	5.940854E-4	-5.208528E-3	1.092873E-3	-3.206882E-3	-2.552917E-3	-4.737894E-3	4.212975E-3	-2.840211E-3	-4.029887E-3	-3.244494E-3	-1.462053E-2	-6.186543E-3	6.183729E-4	-9.305655E-3	-5.750086E-3	7.436922E-3	-5.528161E-3	-3.102487E-3	-3.921358E-3	1.897512E-4	-2.786568E-3	-1.939678E-3	8.324203E-4	8.870415E-3	-5.324917E-3	-2.524538E-3	-2.343404E-3	-1.398427E-3	-7.645408E-3	6.902926E-3	-8.540237E-4	-9.030524E-3	-2.317191E-3	3.651652E-4	-9.549359E-3	-1.004820E-2	-1.117529E-2	-3.761133E-3	-5.768437E-3	4.292085E-5	-9.426298E-3	-4.574732E-3	-5.997796E-3	-4.633391E-3	-8.363964E-3	-3.722570E-3	-3.970664E-3	-4.246449E-3	-1.260504E-3	3.249816E-3	-3.997362E-3	-7.837898E-4	-1.143926E-3	4.684026E-3	6.630594E-4	5.888500E-4	-4.236550E-3	-4.473185E-3	-2.950254E-3	2.168271E-3	-5.780350E-3	-2.745446E-3	-3.733027E-3	6.404620E-3	2.388596E-3	-6.364453E-3	-1.888800E-3	-6.065161E-3	-3.566613E-3	-6.519609E-3	2.038223E-3	-1.156875E-3	-1.136041E-2	-6.667335E-3	-8.238938E-3	-6.003436E-3	4.479652E-3	-7.175931E-4	-8.232513E-3	-4.362772E-3	-7.030355E-3	-9.117566E-3	1.836055E-3	-1.214866E-2	4.513896E-3	-1.662885E-3	1.171159E-3	1.353273E-3	-4.700302E-3	-4.731418E-3	5.465516E-3	-3.434224E-3	-8.083544E-3	-4.376543E-3	-9.999039E-3	-1.525737E-3	-5.142225E-3	-5.006006E-4	6.948229E-3	2.387362E-3	-1.946246E-3	5.852264E-3
2.800000E+2	-1.170396E-2	-1.232710E-3	-8.430567E-3	-3.842798E-3	-2.630767E-3	-4.034050E-3	-6.602770E-3	-1.920964E-3	-8.719517E-3	3.095775E-3	-4.714787E-4	-2.937871E-4	-2.391521E-3	-3.481769E-3	-1.568435E-4	-7.171078E-3	5.221638E-3	-8.562874E-3	-3.524838E-3	2.480775E-3	-1.639386E-3	-4.986163E-3	-8.253162E-3	-2.772393E-3	-3.034609E-3	6.700070E-4	1.882694E-3	-4.696445E-3	4.169242E-5	-4.560492E-3	-8.633307E-3	1.715722E-3	-1.929315E-3	7.005459E-3	2.184623E-3	-6.398755E-3	-3.697968E-3	-8.997073E-3	5.098051E-4	-1.190191E-2	-1.809255E-3	-1.481354E-3	-7.541178E-3	2.016392E-3	6.318779E-3	6.870474E-3	-6.790646E-3	-4.202903E-3	-6.832058E-3	4.035675E-3	6.282249E-3	7.480322E-3	6.959920E-3	6.616633E-4	-6.202651E-3	-4.967499E-3	-6.898580E-3	1.994563E-3	-5.990876E-4	-9.936701E-3	-1.431953E-3	1.028506E-3	4.627289E-3	-1.735727E-3	-7.532017E-3	-1.902030E-2	7.045645E-3	-1.013069E-2	1.040402E-2	-3.743441E-3	6.755147E-3	-5.208490E-3	-1.197491E-2	1.454826E-3	-5.571654E-4	-7.767231E-5	5.963757E-3	8.568761E-4	-5.953536E-3	4.660866E-3	1.027607E-2	-7.418716E-4	6.183457E-4	5.726543E-3	5.413767E-3	-8.239969E-3	-7.314455E-3	-2.230009E-3	-1.252912E-2	-8.337307E-4	5.385856E-3	-4.744060E-3	3.568993E-3	-3.375448E-3	-1.017597E-3	-4.238452E-3	-2.343300E-3	-2.455502E-3	-1.489788E-3	1.091958E-3	-8.540560E-4	-2.672037E-3	-1.458304E-3	-4.128899E-3	-3.894637E-3	-1.409448E-2	-6.132884E-3	-3.761115E-3	-2.732436E-3	-2.768105E-3	-5.582129E-3	-8.016537E-3	-1.309760E-2	-4.633416E-3	4.668462E-4	1.345029E-3	-2.995715E-3	-2.527098E-3	-4.105401E-3	2.394570E-3	-6.025701E-3	7.115828E-3	-4.355045E-3	-1.782936E-4	-7.052584E-3	-8.271199E-3	-1.280894E-2	-7.674246E-3	-1.853304E-3	-7.781843E-3	-1.025547E-2	-4.787018E-3	3.384577E-3	-8.397518E-3	2.388565E-3	-4.594480E-3	-1.888746E-3	-4.965295E-4	-4.534370E-3	-6.610649E-4	-7.700891E-3	-6.951377E-3	-6.139738E-3	-4.813151E-3	-1.139683E-2	3.258986E-3	-1.324472E-2	3.230435E-4	-9.139456E-3	-1.178874E-2	-2.876562E-3	4.688195E-3	2.859617E-3	-5.247649E-3	-3.527388E-3	1.076892E-3	-1.033343E-3	4.173445E-3	-2.171044E-3	3.099902E-3	1.163255E-2	-5.759246E-3	-2.998218E-3	4.306419E-4	1.920345E-3	-2.502174E-3	-9.997209E-3	3.395709E-4	-1.081795E-3	-1.014621E-2	-4.471094E-3	-9.907022E-3
2.805050E+2	-1.942164E-4	-1.232675E-3	1.977207E-4	-2.637188E-3	-3.561978E-3	9.246795E-3	9.446533E-3	8.703834E-4	4.322131E-3	-2.532923E-3	5.994473E-3	-4.054304E-3	-2.391536E-3	4.434669E-3	-4.673309E-3	-5.394523E-3	2.456215E-3	-1.408499E-3	1.120356E-2	-7.550154E-4	6.269303E-3	2.851238E-3	1.180902E-2	5.040309E-3	9.397758E-4	-6.503639E-3	7.654591E-3	6.080324E-3	-8.278766E-4	-5.560052E-3	4.914359E-3	-1.837871E-3	1.786118E-3	-2.263596E-3	3.193874E-3	9.108112E-3	-2.124376E-3	4.008281E-3	-1.217830E-2	6.063227E-3	-5.548473E-3	2.896290E-4	-2.556628E-3	-1.365389E-2	-2.200910E-3	-5.800512E-3	4.352954E-3	1.952346E-3	9.127991E-4	2.712679E-5	-3.076168E-3	-2.250218E-3	1.913848E-4	-6.024724E-3	-7.514258E-4	2.721380E-3	3.845501E-3	-2.373108E-3	3.629581E-3	-5.611555E-3	-3.424144E-3	-7.034976E-3	5.594971E-3	-7.813636E-4	-7.531974E-3	-2.439590E-3	-3.216410E-3	2.174381E-3	-5.107778E-3	-8.909212E-3	-4.686795E-3	7.076890E-3	-8.241242E-3	-7.868629E-3	1.438622E-3	1.017472E-2	-7.167474E-3	2.705419E-3	9.436325E-3	2.904115E-3	4.300900E-3	6.880826E-3	6.183117E-4	3.579057E-3	-4.032604E-3	-2.706970E-3	8.762058E-3	-4.852825E-4	-1.061626E-2	1.042505E-2	6.293923E-3	5.538597E-3	-1.011409E-2	-5.259462E-3	3.289696E-3	-3.381495E-3	-4.353647E-3	-3.413657E-4	-4.567585E-3	1.038957E-2	9.129371E-4	-3.580428E-3	-3.176114E-3	-5.027780E-3	7.414684E-3	2.090555E-3	4.960531E-3	-2.811970E-3	3.035961E-4	6.602105E-3	-7.768103E-4	-1.132933E-3	8.201684E-3	5.512728E-3	7.089888E-3	8.439675E-3	-4.945483E-3	3.490629E-3	-6.001976E-3	-2.736696E-3	-8.053936E-3	-3.746136E-3	7.418918E-3	-3.095645E-3	-4.159195E-3	-1.183227E-3	-8.999007E-3	5.130060E-3	4.728190E-3	-3.801796E-3	-2.424000E-3	-1.193251E-2	-3.733043E-3	1.778961E-3	-6.129492E-3	-1.696634E-4	-1.888758E-3	6.171384E-4	-2.598844E-3	7.150224E-3	-6.815543E-3	-6.951301E-3	-9.190732E-4	1.372871E-2	8.603018E-3	-2.915947E-3	-1.117516E-3	-1.758204E-3	8.370119E-4	-6.498017E-4	4.600370E-3	-3.077508E-3	-1.044694E-2	2.639236E-3	-2.633932E-3	-5.315762E-3	2.273393E-3	-2.406913E-3	-4.848225E-4	-9.082190E-3	-1.056870E-2	-2.271695E-3	-6.049426E-3	7.160681E-3	1.085986E-2	1.403694E-3	7.480705E-3	-5.541609E-3	2.565466E-4	-2.984176E-3	1.067802E-2	5.852288E-3
2.810050E+2	2.107672E-3	-1.232675E-3	-4.116417E-3	-6.253936E-3	-4.493189E-3	2.163653E-3	6.912497E-3	-1.920987E-3	3.093087E-4	2.157633E-3	-4.714491E-4	-4.994399E-3	-7.758704E-4	-8.429744E-4	-1.568343E-4	-1.161249E-2	2.456221E-3	-2.600848E-3	-2.604327E-3	-8.305155E-3	6.269298E-3	-8.771548E-5	-6.709898E-3	-6.244705E-3	7.894903E-3	-8.894866E-3	-3.064585E-3	1.181726E-3	2.650240E-3	1.436851E-3	4.914369E-3	-6.109632E-5	1.786124E-3	-3.293536E-3	1.661217E-4	6.006728E-3	-2.124372E-3	1.569802E-3	5.097443E-4	-2.919318E-3	8.473669E-3	4.717066E-3	7.412375E-3	1.728423E-4	-3.904892E-3	-8.334748E-3	-2.901263E-4	-4.202842E-3	2.019172E-3	-8.992167E-3	-2.036342E-3	-2.250206E-3	-7.544081E-3	1.069125E-2	5.608305E-3	-4.113237E-3	-3.675387E-3	-4.993658E-3	-5.884859E-3	-7.774135E-3	-4.358543E-4	-3.451241E-3	-5.050650E-3	-8.416015E-3	7.667087E-3	1.103222E-2	3.624944E-3	3.292975E-3	-2.522421E-3	-3.743399E-3	-4.686795E-3	1.811745E-3	-7.739308E-4	-3.206916E-3	-1.555114E-3	-4.737860E-3	-3.665798E-3	-1.023446E-2	-1.076287E-2	2.689864E-4	2.309151E-3	1.436115E-3	-3.844903E-3	3.579495E-4	-6.608890E-3	-3.629144E-3	7.238067E-4	1.783490E-2	-2.008431E-3	-9.021923E-3	-6.418757E-3	-1.004908E-3	-4.640886E-3	3.218465E-3	6.735526E-3	1.760344E-3	-3.329833E-4	2.829826E-3	2.614017E-3	-1.750316E-2	-6.155046E-3	9.613050E-4	-4.034975E-3	4.859169E-3	-8.418412E-3	1.079011E-3	-1.090418E-3	-1.862795E-3	-6.780469E-3	-8.941087E-4	-7.768572E-4	1.448398E-3	-2.447906E-3	4.498157E-3	-1.167549E-2	-1.695535E-3	3.828475E-3	3.490634E-3	6.326063E-3	-1.710555E-4	4.115683E-3	2.178532E-3	5.278229E-3	-1.782818E-4	-6.088131E-3	1.033485E-2	1.386067E-2	-4.473185E-3	-2.950247E-3	7.143365E-3	1.100132E-2	1.337606E-3	-1.742629E-4	2.704077E-3	2.388612E-3	3.370299E-3	-8.764478E-3	-3.837730E-3	1.272221E-3	-1.637547E-3	3.808957E-3	9.466333E-3	8.211624E-4	1.676475E-3	1.070820E-2	3.259042E-3	-2.983180E-3	1.072911E-2	8.999700E-3	2.784707E-4	-3.707303E-3	3.738846E-4	-1.234686E-3	3.625081E-3	1.833506E-3	-1.662868E-3	6.885055E-5	-5.268000E-4	-5.543415E-3	1.359567E-3	-9.335287E-3	-1.109237E-3	5.138303E-3	-1.492189E-3	9.270621E-4	-5.431586E-3	-6.113230E-3	-3.021120E-3	6.948245E-3	1.133986E-2	-1.204567E-2	5.852264E-3
2.815020E+2	4.409679E-3	-7.250114E-5	-3.037838E-3	2.185089E-3	5.750382E-3	2.163643E-3	3.533633E-3	5.522501E-3	3.092965E-4	-1.191407E-2	-1.279716E-3	1.286799E-2	-8.046397E-3	2.675455E-3	7.370683E-3	7.041530E-3	-6.761801E-3	8.130613E-3	-7.632943E-4	2.480736E-3	-7.966399E-3	-3.026819E-3	1.006320E-3	3.304092E-3	4.914136E-3	1.740855E-2	1.058137E-3	-5.676192E-3	-1.039265E-2	-9.558324E-3	9.297287E-4	8.273074E-4	8.288115E-3	-1.233768E-3	-3.870950E-3	-1.053394E-2	6.530471E-3	2.382604E-3	5.041259E-3	2.796835E-3	5.669291E-3	-1.481311E-3	-5.547356E-3	1.094600E-3	-2.200936E-3	1.802125E-3	5.281572E-3	4.260595E-3	-1.300047E-3	4.035706E-3	-8.275185E-3	1.642076E-3	-2.709424E-3	6.617041E-4	-1.659997E-3	6.992964E-3	7.068714E-3	-5.867215E-3	1.208687E-2	-2.367622E-3	5.603172E-4	4.612170E-3	4.627230E-3	1.127322E-3	3.614009E-3	-4.512174E-3	-4.356579E-3	-2.300182E-3	6.095191E-3	-1.160495E-3	5.874998E-3	3.566792E-3	4.826520E-3	-6.003937E-3	-5.571410E-4	8.544040E-4	-6.292070E-3	3.629705E-3	-1.823014E-4	-2.366100E-3	-4.661910E-3	-8.364530E-3	3.965740E-3	5.726589E-3	4.554969E-3	3.748282E-3	-2.848760E-3	5.621460E-3	5.642909E-3	-8.337869E-4	-5.510702E-3	3.669067E-3	8.130080E-3	6.986390E-3	4.151144E-3	-3.381490E-3	1.072414E-2	-9.854946E-3	-5.593543E-3	1.091986E-3	-1.737539E-3	-8.553715E-4	3.695016E-3	-5.336937E-4	2.890985E-3	1.422936E-2	-1.090406E-3	2.883183E-3	6.375630E-3	9.799790E-4	3.067323E-3	4.029845E-3	8.201619E-3	-4.633416E-3	5.986105E-3	-7.776676E-3	-1.046000E-3	5.198541E-5	6.361236E-4	-5.302306E-3	-3.997405E-3	1.106567E-2	-5.425397E-3	-6.013079E-3	1.223652E-2	-1.183205E-3	1.478319E-3	3.529547E-3	2.534357E-3	-9.771858E-3	1.212009E-2	4.399986E-3	-1.953653E-3	-4.696997E-3	2.388638E-3	2.485294E-3	-3.853253E-3	-2.723974E-3	-3.566613E-3	7.150176E-3	-1.503304E-3	1.139780E-2	1.300279E-2	-8.521520E-3	-8.706304E-4	2.229835E-3	9.144028E-3	3.229546E-4	-3.697778E-3	3.063208E-3	8.754214E-3	-7.391840E-3	-1.234698E-3	-5.247643E-3	-8.469547E-4	-7.495943E-4	-3.237899E-3	-1.466917E-3	2.044558E-3	5.710350E-3	-8.101955E-3	3.540836E-3	4.121257E-3	-8.222252E-3	1.920314E-3	8.238914E-3	4.567749E-3	3.700221E-3	-9.111916E-3	-4.774682E-3	1.825264E-2	-5.967165E-3
2.820060E+2	5.560627E-3	1.036905E-2	8.826015E-3	4.596294E-3	2.956647E-3	7.476038E-3	2.689000E-3	-1.920936E-3	7.331766E-3	2.157650E-3	2.761500E-3	-2.937986E-4	8.918207E-3	-1.722582E-3	-2.415072E-3	6.153260E-3	-5.839996E-3	-2.161488E-4	7.521431E-3	-1.833619E-3	3.105809E-3	3.830997E-3	-1.308541E-3	4.172166E-3	9.398122E-4	4.256885E-3	-3.889077E-3	-3.716811E-3	9.606437E-3	1.543071E-2	-1.461011E-3	2.604196E-3	-1.028906E-2	3.915764E-3	8.240153E-3	-5.364962E-3	-1.337571E-3	4.821112E-3	5.097499E-4	-2.919342E-3	6.035741E-5	6.488017E-3	5.418601E-3	1.215602E-2	5.466822E-3	-2.421582E-3	8.067486E-3	6.568811E-3	4.232045E-3	3.033576E-3	1.044146E-2	1.642040E-3	-1.742476E-3	-4.353129E-3	7.425376E-3	-4.113164E-3	7.068707E-3	-2.373097E-3	-9.056296E-3	1.168933E-2	-3.424126E-3	1.028452E-3	-6.986208E-3	1.729882E-4	9.693648E-3	1.705548E-3	-5.496873E-3	1.224207E-2	6.095185E-3	4.005297E-3	-8.207387E-3	-4.330943E-3	5.759891E-3	1.264301E-2	-5.571350E-4	4.582516E-3	7.714619E-3	-3.764508E-3	5.588828E-3	2.689811E-4	3.305019E-3	3.470653E-4	5.081513E-3	3.579083E-3	-4.032568E-3	8.359096E-3	9.655240E-3	3.871261E-4	2.773594E-3	5.307411E-3	-6.246151E-5	-8.483218E-3	-6.465279E-3	-1.091136E-2	5.012650E-3	1.760359E-3	-1.338154E-3	7.058175E-3	6.717841E-3	3.416360E-3	-2.621044E-3	1.186159E-2	6.271686E-3	-2.331291E-3	5.152824E-3	6.136818E-3	-8.194073E-5	2.883125E-3	-1.720423E-3	-4.642113E-3	1.075579E-2	4.029745E-3	3.468553E-3	9.571146E-3	5.986051E-3	1.345004E-3	4.803317E-3	5.210021E-3	6.326034E-3	3.249796E-3	1.425710E-2	2.036669E-4	3.137519E-3	2.739093E-3	-3.194771E-3	3.246830E-3	5.288289E-3	-2.072384E-3	4.728137E-3	-2.806780E-3	6.526178E-3	4.399974E-3	1.584041E-2	-1.921571E-3	-1.667650E-4	5.140235E-3	1.284490E-2	1.730935E-3	9.014268E-3	-2.613947E-3	5.579702E-3	5.603277E-3	9.522287E-3	4.457760E-3	-4.028509E-3	-4.974304E-3	9.143977E-3	-6.961267E-3	2.650952E-3	4.919725E-3	-3.842209E-4	1.417970E-2	5.930352E-3	7.568514E-3	1.833512E-3	1.990076E-3	-2.135611E-3	1.169383E-2	3.730729E-3	1.093126E-2	4.232123E-3	3.540758E-3	-4.015314E-3	7.160664E-3	-2.052773E-3	9.215357E-3	1.524870E-2	-1.340757E-3	-1.081852E-3	5.968457E-4	-4.471125E-3	1.912454E-3
2.825030E+2	1.016454E-2	-7.250822E-5	7.747489E-3	8.212961E-3	2.956647E-3	-4.034034E-3	3.533695E-3	2.731193E-3	-3.703459E-3	7.786376E-3	-1.279760E-3	3.466672E-3	8.398395E-4	9.162616E-4	5.112455E-3	4.376672E-3	-4.918190E-3	1.170781E-2	-6.286409E-3	6.795130E-3	1.259630E-2	8.918820E-4	9.494177E-3	-1.036288E-3	-7.008975E-3	-5.255046E-4	-6.362765E-3	1.783694E-2	6.128341E-3	1.443122E-2	6.508177E-3	1.326517E-2	-1.000469E-3	-3.293530E-3	-2.861662E-3	1.871666E-3	3.383229E-3	-2.494383E-3	-1.302799E-3	1.422922E-2	4.734428E-3	7.373460E-3	1.538765E-2	6.625334E-3	1.206988E-3	-3.266301E-3	6.210212E-3	-3.558652E-4	7.551230E-3	2.718792E-5	2.122970E-3	-3.223268E-3	1.082759E-2	4.004870E-3	1.571072E-4	4.430015E-3	4.919847E-3	4.615145E-3	4.580860E-4	1.709586E-2	2.147877E-2	-3.451247E-3	6.562806E-3	1.067065E-2	9.693605E-3	6.692208E-4	5.905463E-3	-6.287011E-5	6.956971E-3	3.144327E-3	1.027573E-2	5.321828E-3	7.626768E-3	7.048987E-3	1.141757E-2	-9.398054E-3	2.462086E-3	6.402546E-3	1.424567E-2	-2.366089E-3	7.288499E-3	1.450340E-2	-2.729062E-3	1.431643E-3	1.486012E-2	5.592552E-3	-1.693268E-4	-9.209145E-3	1.138139E-2	-4.927871E-3	3.569745E-3	7.408202E-3	5.393419E-3	1.334474E-3	-2.740515E-3	1.118715E-2	-3.330262E-4	6.001088E-3	4.665870E-3	-3.556760E-3	8.864404E-3	1.004486E-2	5.412731E-3	3.651213E-4	6.283730E-3	5.125255E-3	7.985895E-3	-9.136030E-4	8.399686E-3	9.799390E-4	1.171681E-2	5.750660E-3	1.101955E-3	1.454254E-3	-6.370110E-4	8.439706E-3	4.803341E-3	9.116240E-4	6.361641E-4	-2.736644E-3	6.143986E-3	-2.758709E-3	-6.495755E-3	4.684032E-3	1.512987E-2	5.888608E-4	6.240753E-3	5.130060E-3	3.404630E-4	1.808856E-2	3.169842E-3	7.462323E-3	-3.733038E-3	2.704105E-3	-1.018609E-3	2.485321E-3	1.480935E-2	9.526998E-3	6.111019E-3	-6.611244E-4	8.235816E-3	-6.951389E-3	5.171722E-3	-1.776982E-4	6.497825E-3	2.229886E-3	-5.781773E-3	3.230689E-4	9.906614E-3	1.234571E-2	-2.876547E-3	8.139599E-3	-5.328964E-3	8.554401E-3	-1.740378E-3	5.642993E-3	7.784691E-3	4.132191E-4	8.789424E-3	-3.861261E-3	6.698879E-3	2.378285E-3	1.225776E-2	8.122082E-3	9.270560E-4	-5.431574E-3	6.509682E-3	3.700241E-3	-5.096860E-3	2.387351E-3	8.153161E-3	1.912454E-3
2.830040E+2	9.013547E-3	1.036906E-2	2.354773E-3	8.212983E-3	1.629740E-4	1.101764E-2	1.844260E-3	-2.851383E-3	7.331724E-3	4.033888E-3	6.802700E-3	1.586465E-3	1.457302E-2	6.193884E-3	5.865219E-3	-4.506182E-3	6.125929E-4	1.290014E-2	-3.524877E-3	-5.069416E-3	1.496889E-2	-4.006488E-3	7.179311E-3	2.436050E-3	4.914130E-3	4.256848E-3	6.005502E-3	1.391806E-2	6.128362E-3	1.436863E-3	6.508158E-3	1.948405E-2	2.407879E-2	1.730443E-2	1.631418E-2	1.117575E-2	9.677650E-3	-8.687061E-4	1.863568E-2	2.796840E-3	8.473697E-3	4.717023E-3	2.427825E-3	4.781756E-3	6.318738E-3	8.559996E-3	2.495686E-3	1.118524E-2	2.019158E-3	2.031484E-3	7.321999E-3	6.507272E-3	1.759618E-2	9.855439E-3	-1.659937E-3	1.012730E-3	2.771077E-3	1.160338E-2	3.629549E-3	3.038903E-3	1.151759E-2	1.805131E-2	1.140181E-2	3.035962E-3	8.680426E-3	-2.439653E-3	1.344516E-3	7.767538E-3	1.786377E-3	8.310124E-3	4.994816E-3	7.076896E-3	1.092867E-3	5.224967E-4	1.441126E-2	-1.033007E-2	6.839167E-3	1.009970E-2	1.741301E-3	9.931033E-3	8.284397E-3	-2.919732E-3	6.197326E-3	7.874035E-3	2.837445E-3	9.281293E-3	-6.421338E-3	2.131895E-3	-2.008472E-3	1.758964E-2	4.477811E-3	-1.939667E-3	8.324370E-4	5.102422E-3	1.104287E-2	4.643922E-5	-2.343349E-3	8.115185E-3	1.697723E-2	2.084938E-2	8.864382E-3	5.503060E-3	2.836097E-3	3.651159E-4	2.890971E-3	8.159943E-3	5.968978E-3	-1.862778E-3	-2.732430E-3	1.597224E-2	1.363899E-2	1.177381E-2	2.121791E-2	1.971733E-2	2.674527E-3	1.452077E-2	6.753110E-3	1.208742E-2	6.326063E-3	1.436752E-2	8.172233E-3	1.106564E-2	1.812258E-2	4.684032E-3	1.127212E-2	3.246873E-3	3.383307E-3	1.313273E-2	1.021283E-2	7.143365E-3	1.100136E-2	1.256621E-2	-2.843310E-3	3.629221E-3	-6.981300E-3	4.255234E-3	1.382712E-2	1.509560E-2	9.982054E-3	8.126575E-3	-5.044783E-3	6.569114E-3	6.911952E-3	1.465579E-2	-8.706047E-4	1.149228E-2	9.143966E-3	-4.880006E-3	8.092729E-3	-3.434477E-3	7.092675E-3	-3.077514E-3	3.883203E-3	1.348368E-2	5.407407E-3	1.020922E-2	1.660274E-2	4.131962E-4	1.047559E-2	1.093121E-2	-5.635132E-3	1.215764E-3	1.124076E-2	7.160705E-3	9.270560E-4	7.262453E-3	4.567767E-3	3.395914E-4	4.271628E-3	7.758901E-3	3.103434E-3	-2.027379E-3
2.835020E+2	-1.942234E-4	1.384959E-2	1.098311E-2	2.185096E-3	1.133779E-2	2.164230E-2	6.912425E-3	6.452954E-3	7.331754E-3	2.092003E-2	1.407695E-2	8.167318E-3	2.426712E-2	1.323072E-2	1.941485E-2	8.818129E-3	7.065226E-3	-6.178036E-3	1.672671E-2	5.716573E-3	1.655060E-2	1.362776E-2	1.643878E-2	1.111682E-2	8.888508E-3	2.099545E-2	1.260189E-2	1.097893E-2	2.004082E-2	1.942899E-2	8.898956E-3	1.415363E-2	1.107470E-2	2.760344E-2	1.328640E-2	4.972999E-3	1.911933E-2	1.538794E-2	1.501045E-2	4.430058E-3	1.127817E-2	5.602509E-3	2.535673E-2	1.584316E-2	1.824638E-2	1.109421E-2	-3.076103E-3	1.118523E-2	1.418970E-2	3.810865E-2	7.322094E-3	3.588128E-3	9.860700E-3	5.676476E-3	1.560224E-2	1.041023E-2	1.029189E-2	1.072984E-2	3.534422E-2	1.709587E-2	-8.404777E-3	1.357158E-2	1.140180E-2	1.127293E-3	1.172019E-2	3.175805E-2	3.625041E-3	1.112348E-2	6.095154E-3	1.605873E-2	2.354347E-3	9.709485E-3	1.976116E-2	6.116590E-3	2.538816E-2	8.310684E-3	1.821964E-2	1.379676E-2	2.482623E-2	2.222822E-2	1.824304E-2	1.450335E-2	2.849939E-3	5.726530E-3	9.707504E-3	5.961983E-5	2.126606E-2	-1.357707E-3	3.730023E-3	1.861315E-2	8.456939E-4	4.603849E-3	1.816422E-2	2.488431E-2	5.874062E-3	2.061398E-2	2.178119E-2	1.657175E-2	2.210686E-2	1.620058E-2	1.239843E-2	6.411495E-3	1.314270E-2	2.162801E-3	7.414691E-3	1.220618E-2	2.943552E-3	3.832317E-3	1.447174E-2	2.065734E-2	2.132741E-2	1.005286E-2	2.240124E-2	-4.633416E-3	1.702449E-2	1.553426E-2	6.753080E-3	1.122773E-2	7.274316E-3	1.778836E-2	5.129831E-3	1.402804E-2	1.812259E-2	1.246376E-2	2.284547E-2	5.904827E-3	2.624288E-2	9.131385E-3	1.679428E-2	8.138387E-3	8.763692E-3	8.483100E-3	1.495077E-2	1.565601E-2	9.203126E-3	7.795202E-3	1.873835E-2	8.413282E-3	7.078718E-3	1.886712E-2	6.465066E-3	5.603359E-3	8.652199E-3	6.311967E-3	1.491876E-2	1.663811E-2	2.033836E-2	9.688500E-3	6.278806E-3	1.048918E-2	1.789265E-2	1.331689E-2	2.537847E-2	5.596825E-3	1.612918E-2	1.203561E-2	1.550048E-2	9.813749E-3	-4.848020E-4	1.093124E-2	2.766685E-2	1.749089E-2	2.954799E-2	8.122088E-3	2.675231E-2	2.288589E-2	2.495861E-2	2.860044E-3	1.594855E-3	1.313040E-2	1.825264E-2	9.792097E-3
2.840000E+2	2.282519E-2	2.661158E-2	1.637574E-2	1.062421E-2	3.368757E-2	7.476005E-3	2.803007E-2	3.994848E-2	2.037340E-2	2.373435E-2	2.781704E-2	1.098769E-2	2.588281E-2	1.674916E-2	3.371705E-2	3.369022E-2	4.117192E-2	1.647728E-2	2.685244E-2	2.297398E-2	2.920456E-2	1.068869E-2	2.955632E-2	2.066564E-2	1.981808E-2	2.816914E-2	2.661921E-2	2.763407E-2	2.525804E-2	1.143250E-2	2.404037E-2	1.681888E-2	3.708277E-2	3.069321E-2	2.943448E-2	3.598684E-2	3.800256E-2	1.294941E-2	1.954195E-2	2.239516E-2	2.156107E-2	2.596866E-2	2.635369E-2	1.307779E-2	2.506210E-2	1.531792E-2	2.013966E-2	2.349574E-2	6.444810E-3	1.906789E-2	7.322107E-3	8.453425E-3	1.953004E-2	2.824311E-2	4.194969E-2	2.151644E-2	2.211051E-2	2.645334E-2	3.745858E-2	5.386016E-2	2.546329E-2	3.955380E-2	2.301532E-2	2.212267E-2	2.489277E-2	3.175800E-2	1.730780E-2	2.454710E-2	1.126578E-2	2.811238E-2	2.523822E-2	1.234210E-2	2.536157E-2	1.264297E-2	1.241543E-2	1.576694E-2	2.960006E-2	2.581240E-2	3.540679E-2	1.607961E-2	2.322231E-2	1.232548E-2	2.070269E-2	1.216892E-2	3.203528E-2	1.850298E-2	1.858666E-2	1.172825E-2	2.285846E-2	4.010708E-2	1.900656E-2	3.545191E-2	1.177882E-2	1.546433E-2	4.463984E-2	1.204415E-2	1.977087E-2	1.868596E-2	3.441814E-2	1.736278E-2	3.183533E-2	1.640336E-2	3.547365E-2	1.564505E-2	1.872406E-2	2.940276E-2	3.118120E-2	1.522251E-2	2.054375E-2	2.440548E-2	3.189903E-2	1.607609E-2	3.068432E-2	3.493642E-2	2.254381E-2	2.566953E-2	1.065265E-2	2.154385E-2	1.201592E-2	1.864361E-2	1.324299E-2	2.192762E-2	2.347436E-2	1.732601E-2	2.091660E-2	8.562883E-3	3.005279E-2	2.593709E-2	2.776356E-2	2.604866E-2	5.407472E-3	2.073243E-2	3.007573E-2	2.213190E-2	2.879477E-2	2.106981E-2	2.561406E-2	1.620941E-2	1.965960E-2	2.277279E-2	3.302624E-2	3.360996E-2	2.953491E-2	2.670792E-2	2.439242E-2	2.487139E-2	3.712983E-2	1.281031E-2	1.172054E-2	2.626942E-2	3.533887E-2	1.763114E-2	2.435490E-2	2.235638E-2	3.131834E-2	3.121344E-2	2.872762E-2	1.827423E-2	2.143595E-2	2.572372E-2	3.260042E-2	2.446589E-2	2.853091E-2	1.581353E-2	3.966491E-2	3.362704E-2	2.690060E-2	1.714294E-2	2.568510E-2	2.029246E-2	3.087685E-2	2.555138E-2
2.841010E+2	2.052330E-2	2.197088E-2	2.176843E-2	2.267990E-2	1.599400E-2	1.101754E-2	2.211710E-2	3.064418E-2	2.739574E-2	1.622946E-2	1.892640E-2	3.261059E-2	2.588279E-2	1.674914E-2	3.145876E-2	2.836048E-2	2.550130E-2	3.317082E-2	2.501146E-2	2.620986E-2	1.971406E-2	2.440419E-2	4.344554E-2	2.500600E-2	2.478611E-2	2.338655E-2	2.991737E-2	2.273551E-2	3.395331E-2	2.042859E-2	2.882187E-2	1.593044E-2	2.779419E-2	3.172302E-2	3.750845E-2	2.254747E-2	4.193658E-2	2.514190E-2	1.863568E-2	3.627744E-2	1.688707E-2	2.065571E-2	1.937527E-2	3.520055E-2	3.443383E-2	3.052317E-2	2.385423E-2	1.426283E-2	1.640250E-2	2.407869E-2	2.395914E-2	1.915711E-2	2.726553E-2	2.322832E-2	2.014484E-2	3.005963E-2	2.211039E-2	2.557973E-2	2.688697E-2	2.790885E-2	3.343223E-2	4.612246E-3	2.785419E-2	2.784876E-2	3.401220E-2	2.035886E-2	2.300901E-2	2.342845E-2	2.419236E-2	1.605887E-2	2.171755E-2	2.111733E-2	2.442817E-2	2.196647E-2	3.436923E-2	1.949512E-2	2.960002E-2	3.043376E-2	1.809315E-2	2.925517E-2	3.318097E-2	1.450342E-2	1.623945E-2	3.793840E-2	7.989996E-3	1.758085E-2	2.573180E-2	1.609014E-2	2.094562E-2	2.066028E-2	2.082268E-2	2.423443E-2	3.002297E-2	2.111624E-2	2.913359E-2	1.461510E-2	3.384348E-2	2.714251E-2	3.134031E-2	3.595784E-2	3.006827E-2	2.821196E-2	1.657825E-2	2.193680E-2	2.211679E-2	2.839125E-2	3.420655E-2	1.427334E-2	3.066384E-2	3.846078E-2	3.093791E-2	1.607607E-2	3.186753E-2	1.565880E-2	3.689374E-2	2.364246E-2	8.702866E-3	3.443911E-2	3.951701E-2	9.236287E-3	3.048335E-2	2.587743E-2	2.775582E-2	2.316084E-2	3.924131E-2	2.096691E-2	4.243513E-2	1.713412E-2	3.544188E-2	3.500375E-2	3.785190E-2	2.481555E-2	2.206830E-2	4.155979E-2	3.135012E-2	4.230916E-2	3.248977E-2	1.843682E-2	1.772409E-2	2.081994E-2	2.859936E-2	1.719236E-2	3.214517E-2	1.465576E-2	1.281356E-2	1.149228E-2	3.433128E-2	1.697277E-2	2.169706E-2	2.534119E-2	1.872347E-2	2.021969E-2	2.333134E-2	2.629984E-2	2.149006E-2	2.208116E-2	2.101178E-2	2.861478E-2	2.649458E-2	2.485361E-2	1.533278E-2	6.166595E-2	3.971865E-2	3.311932E-2	2.377242E-2	3.557993E-2	1.427768E-2	2.890529E-2	2.702341E-2	1.671143E-2	5.107568E-2	3.737096E-2
2.842040E+2	2.858009E-2	3.241250E-2	2.392549E-2	7.007447E-3	3.275620E-2	2.695460E-2	4.323468E-2	1.668769E-2	2.940219E-2	2.185813E-2	2.700883E-2	2.226918E-2	3.234545E-2	3.610050E-2	3.597533E-2	3.280188E-2	2.734489E-2	3.913270E-2	3.053452E-2	3.268138E-2	2.999547E-2	2.342448E-2	2.724152E-2	2.934641E-2	3.074765E-2	3.414712E-2	3.816292E-2	2.469487E-2	3.047518E-2	4.041980E-2	2.802495E-2	2.836825E-2	2.036328E-2	2.966329E-2	3.750855E-2	4.322351E-2	3.013456E-2	1.863930E-2	2.316712E-2	3.301102E-2	3.932259E-2	2.508314E-2	2.934437E-2	2.598283E-2	3.017397E-2	2.292050E-2	1.642515E-2	1.964873E-2	2.746658E-2	3.610440E-2	3.435723E-2	4.445658E-2	3.210018E-2	3.743684E-2	1.741923E-2	2.578802E-2	3.607761E-2	3.868276E-2	2.054408E-2	2.033974E-2	2.347106E-2	2.432281E-2	1.333737E-2	1.925970E-2	4.313174E-2	3.901201E-2	3.669177E-2	2.902172E-2	2.419231E-2	2.208557E-2	1.907717E-2	2.638249E-2	3.376230E-2	3.129001E-2	2.538812E-2	1.203886E-2	3.660339E-2	2.211530E-2	2.963552E-2	3.452541E-2	4.313957E-2	3.410438E-2	2.628172E-2	2.612739E-2	2.602395E-2	2.403600E-2	3.555638E-2	4.487895E-2	1.998913E-2	3.294251E-2	1.355832E-2	2.049531E-2	2.090089E-2	4.937597E-2	1.793458E-2	3.004073E-2	2.680714E-2	3.348492E-2	4.570351E-2	3.712007E-2	3.448586E-2	2.912035E-2	1.657824E-2	2.732966E-2	3.003347E-2	3.951855E-2	3.218957E-2	2.661271E-2	3.471195E-2	3.939776E-2	2.901588E-2	2.726188E-2	2.831774E-2	2.986336E-2	3.358220E-2	2.465591E-2	2.820062E-2	2.412296E-2	1.675743E-2	2.120924E-2	1.729945E-2	2.785235E-2	2.882617E-2	2.802311E-2	4.020578E-2	1.210685E-2	4.815004E-2	2.353638E-2	2.337578E-2	3.699372E-2	1.659519E-2	1.664932E-2	1.495070E-2	2.305706E-2	1.857300E-2	3.345944E-2	3.248970E-2	2.400552E-2	2.159517E-2	2.081995E-2	4.187988E-2	4.519891E-2	2.779464E-2	2.856208E-2	2.965553E-2	3.516301E-2	4.739136E-2	3.362249E-2	3.530137E-2	1.698691E-2	3.118501E-2	1.590539E-2	2.844923E-2	1.446954E-2	1.702268E-2	2.482089E-2	3.754563E-2	1.451396E-2	2.143594E-2	3.355507E-2	1.779964E-2	1.632831E-2	6.412828E-2	2.542784E-2	3.370527E-2	2.093289E-2	3.661062E-2	2.806513E-2	3.505345E-2	3.103550E-2	2.330226E-2	2.555138E-2
2.843040E+2	5.390146E-2	4.633453E-2	2.500401E-2	3.835245E-2	3.182504E-2	5.086024E-2	3.816646E-2	4.460072E-2	4.344700E-2	4.062043E-2	4.398197E-2	3.543102E-2	5.011788E-2	3.434122E-2	6.156886E-2	4.523799E-2	3.564107E-2	4.867177E-2	3.513721E-2	6.396050E-2	3.078631E-2	4.889615E-2	3.727255E-2	3.629100E-2	5.558751E-2	4.012519E-2	2.661918E-2	4.134996E-2	5.134390E-2	4.141944E-2	3.440037E-2	5.324392E-2	5.008683E-2	5.129114E-2	4.760101E-2	4.839237E-2	3.092131E-2	3.408316E-2	5.941883E-2	4.852637E-2	3.371375E-2	4.190734E-2	5.027947E-2	4.994911E-2	3.784167E-2	4.319427E-2	4.149814E-2	3.426743E-2	3.410510E-2	4.512366E-2	4.683505E-2	5.710633E-2	4.370332E-2	4.328751E-2	5.376063E-2	4.372887E-2	4.789626E-2	3.518858E-2	3.217275E-2	5.386011E-2	5.136239E-2	4.492949E-2	4.237112E-2	6.697649E-2	4.414502E-2	3.590312E-2	4.581361E-2	6.369954E-2	4.228941E-2	4.016589E-2	3.756024E-2	3.954544E-2	2.816180E-2	3.408702E-2	5.332929E-2	3.720389E-2	4.623296E-2	4.429785E-2	4.502542E-2	3.628214E-2	5.309823E-2	3.737130E-2	3.743962E-2	4.760204E-2	3.031773E-2	3.602420E-2	3.912891E-2	3.266552E-2	3.720464E-2	5.648344E-2	3.353528E-2	3.077798E-2	5.009136E-2	4.089802E-2	2.999505E-2	4.460942E-2	3.886946E-2	5.145508E-2	4.775545E-2	4.525551E-2	3.448579E-2	3.729547E-2	4.749802E-2	2.463323E-2	2.890241E-2	4.558789E-2	3.521509E-2	4.179962E-2	4.483198E-2	4.595690E-2	5.592530E-2	3.156421E-2	4.606716E-2	5.827243E-2	4.903608E-2	4.492637E-2	4.184907E-2	3.186006E-2	4.805184E-2	3.574789E-2	2.642678E-2	3.476449E-2	5.772587E-2	4.163761E-2	4.406355E-2	5.020499E-2	5.576998E-2	3.153906E-2	3.653884E-2	5.888398E-2	4.680221E-2	3.400262E-2	4.964918E-2	3.138333E-2	3.986827E-2	2.903463E-2	2.659624E-2	4.293871E-2	2.740169E-2	3.644259E-2	5.161906E-2	4.906199E-2	5.998883E-2	3.968723E-2	4.333966E-2	3.927959E-2	4.832422E-2	4.298797E-2	4.255702E-2	3.648014E-2	4.198501E-2	4.265411E-2	2.640209E-2	2.235644E-2	3.578577E-2	3.304002E-2	4.526139E-2	5.305602E-2	4.251361E-2	2.746407E-2	4.493441E-2	2.330338E-2	5.599169E-2	4.177224E-2	3.867172E-2	2.874466E-2	5.603040E-2	3.310621E-2	4.977536E-2	5.968367E-2	2.835197E-2	3.343100E-2
2.844010E+2	6.771311E-2	6.489728E-2	3.039672E-2	5.040809E-2	5.044972E-2	5.971412E-2	4.745819E-2	4.646153E-2	5.749182E-2	7.439266E-2	6.337984E-2	5.705385E-2	6.546677E-2	6.160893E-2	6.533263E-2	6.922168E-2	3.840645E-2	5.940330E-2	6.827607E-2	6.611777E-2	5.767595E-2	6.359128E-2	7.739694E-2	6.406938E-2	8.142102E-2	5.566808E-2	6.784666E-2	7.759946E-2	6.177823E-2	6.041116E-2	6.946472E-2	6.212812E-2	6.401970E-2	5.747039E-2	6.778609E-2	7.010199E-2	6.003302E-2	6.578366E-2	7.301322E-2	7.547416E-2	6.456260E-2	3.659450E-2	4.828560E-2	5.640155E-2	5.232519E-2	7.951790E-2	5.914219E-2	6.812125E-2	5.733967E-2	7.719225E-2	6.347217E-2	7.364840E-2	4.563717E-2	5.331714E-2	5.103507E-2	5.312637E-2	5.756586E-2	8.235912E-2	5.965885E-2	6.683569E-2	6.231974E-2	4.403358E-2	5.204898E-2	8.033725E-2	6.643696E-2	7.528226E-2	6.633791E-2	5.139438E-2	5.004532E-2	5.566332E-2	5.956386E-2	5.797356E-2	6.549830E-2	4.527519E-2	7.328719E-2	5.584470E-2	5.586252E-2	8.126899E-2	7.291952E-2	6.526835E-2	5.907349E-2	8.964072E-2	5.417651E-2	6.585541E-2	4.405790E-2	5.262329E-2	4.895344E-2	5.970964E-2	6.302800E-2	6.978923E-2	5.714452E-2	5.321289E-2	5.374017E-2	5.031796E-2	5.067005E-2	6.603388E-2	6.399930E-2	7.259661E-2	8.366337E-2	8.244574E-2	6.717514E-2	6.454618E-2	5.952241E-2	5.519301E-2	6.169970E-2	6.480761E-2	8.160544E-2	3.515536E-2	6.203622E-2	7.500456E-2	1.010949E-1	4.877314E-2	5.080038E-2	7.146226E-2	6.559377E-2	4.999409E-2	6.914587E-2	5.851003E-2	6.037998E-2	5.883862E-2	4.670947E-2	7.228770E-2	7.485168E-2	5.136227E-2	6.817497E-2	4.843297E-2	8.243943E-2	4.274286E-2	7.712480E-2	6.385904E-2	9.155329E-2	6.870905E-2	5.320793E-2	6.376299E-2	6.116340E-2	5.027401E-2	5.999261E-2	7.746422E-2	6.127331E-2	7.256996E-2	8.083633E-2	5.582219E-2	7.043011E-2	3.783304E-2	5.702373E-2	7.118352E-2	6.978010E-2	7.004365E-2	5.344051E-2	6.525573E-2	6.441575E-2	5.387136E-2	6.632177E-2	5.981907E-2	5.812270E-2	4.947806E-2	6.620430E-2	5.023585E-2	3.998430E-2	6.923114E-2	6.220210E-2	8.142850E-2	7.531595E-2	5.427083E-2	6.350364E-2	5.510916E-2	5.700148E-2	4.990954E-2	5.512868E-2	6.863622E-2	5.612536E-2	6.100981E-2
2.845010E+2	8.612863E-2	9.506197E-2	7.785233E-2	8.778108E-2	1.072551E-1	8.450508E-2	9.476140E-2	6.041804E-2	9.059743E-2	8.940241E-2	9.166837E-2	7.961696E-2	1.026273E-1	8.623784E-2	1.037230E-1	1.154127E-1	8.449662E-2	9.636745E-2	9.773285E-2	1.081829E-1	1.003831E-1	1.125751E-1	9.900238E-2	7.188213E-2	8.042742E-2	1.094704E-1	8.433772E-2	9.327485E-2	1.026461E-1	9.739488E-2	1.021383E-1	9.766477E-2	1.030318E-1	8.939739E-2	1.162303E-1	1.073187E-1	8.599752E-2	7.147346E-2	9.295165E-2	8.608992E-2	1.038248E-1	8.086854E-2	8.716504E-2	9.511644E-2	7.021650E-2	1.107732E-1	1.157887E-1	9.351163E-2	9.053192E-2	7.518800E-2	9.154720E-2	9.894788E-2	1.094547E-1	5.666027E-2	8.646790E-2	9.498814E-2	9.731898E-2	7.624434E-2	1.051166E-1	1.090065E-1	7.726147E-2	8.435074E-2	9.366399E-2	8.415462E-2	1.120342E-1	9.082658E-2	8.230115E-2	1.084449E-1	6.986597E-2	9.010192E-2	8.508814E-2	8.078927E-2	9.816782E-2	7.231334E-2	8.326615E-2	6.796114E-2	1.013844E-1	7.942039E-2	9.023317E-2	1.083084E-1	9.890805E-2	1.092417E-1	9.546103E-2	7.659272E-2	7.497317E-2	9.504319E-2	7.664088E-2	8.413645E-2	9.363340E-2	1.127772E-1	6.531704E-2	1.046264E-1	8.749184E-2	1.077793E-1	8.857433E-2	9.859917E-2	8.410312E-2	9.585212E-2	1.082860E-1	1.103384E-1	5.127219E-2	8.180492E-2	8.271224E-2	9.653862E-2	1.103300E-1	7.998110E-2	8.664788E-2	8.356368E-2	1.004925E-1	1.293518E-1	9.917266E-2	1.072837E-1	1.265312E-1	1.029153E-1	8.104759E-2	9.762936E-2	1.081413E-1	8.601963E-2	8.882924E-2	9.390230E-2	7.510545E-2	8.907442E-2	8.662562E-2	8.150862E-2	1.115754E-1	9.804910E-2	1.081566E-1	8.115580E-2	9.796639E-2	9.370950E-2	9.043450E-2	1.136234E-1	8.345784E-2	8.041543E-2	8.501418E-2	9.894761E-2	8.847772E-2	7.300925E-2	8.933831E-2	7.452278E-2	9.765839E-2	1.070067E-1	9.305304E-2	7.028127E-2	1.012340E-1	9.588334E-2	1.080275E-1	8.044979E-2	7.430049E-2	7.268166E-2	1.009696E-1	7.112865E-2	7.348689E-2	7.756452E-2	8.760761E-2	7.687507E-2	1.169081E-1	8.407768E-2	9.478606E-2	8.228333E-2	8.687010E-2	9.654114E-2	1.271865E-1	8.695961E-2	8.734241E-2	6.487375E-2	8.807336E-2	8.099576E-2	1.153543E-1	7.042669E-2	9.652311E-2	7.282922E-2
2.846030E+2	1.252616E-1	1.658328E-1	1.102084E-1	1.408263E-1	1.184300E-1	1.349724E-1	1.133449E-1	1.190353E-1	1.227000E-1	1.438132E-1	1.167239E-1	1.313239E-1	1.244389E-1	1.390141E-1	1.601793E-1	1.314019E-1	1.342740E-1	1.404858E-1	1.630903E-1	1.588767E-1	1.098736E-1	1.213923E-1	1.491579E-1	1.135497E-1	1.181840E-1	1.656641E-1	1.313370E-1	9.915308E-2	1.556873E-1	1.313800E-1	1.212643E-1	1.243173E-1	1.401861E-1	1.367727E-1	1.525633E-1	1.352312E-1	1.261245E-1	1.202434E-1	1.391726E-1	1.301863E-1	1.225210E-1	1.136316E-1	1.489733E-1	1.236917E-1	1.145189E-1	1.352706E-1	1.371472E-1	1.450619E-1	1.347883E-1	1.403274E-1	1.248212E-1	1.690080E-1	1.413636E-1	1.394044E-1	1.073642E-1	1.462475E-1	1.445927E-1	1.426325E-1	1.378884E-1	1.457708E-1	1.230829E-1	1.631934E-1	1.710872E-1	1.423691E-1	1.697909E-1	1.612942E-1	1.495750E-1	1.587837E-1	1.198484E-1	1.176529E-1	1.343763E-1	1.255432E-1	1.243034E-1	9.375735E-2	1.321631E-1	1.285437E-1	1.083876E-1	1.293314E-1	1.546784E-1	1.504704E-1	1.387426E-1	1.244869E-1	1.713351E-1	1.624909E-1	1.385214E-1	1.190196E-1	1.311225E-1	1.321179E-1	1.471930E-1	1.537181E-1	9.800659E-2	1.195831E-1	1.385753E-1	1.256770E-1	1.514610E-1	1.560168E-1	1.534613E-1	1.423632E-1	1.452199E-1	1.207983E-1	1.466898E-1	1.017887E-1	1.333864E-1	1.226044E-1	1.284249E-1	1.285362E-1	1.189195E-1	1.376671E-1	1.632370E-1	1.462182E-1	1.424201E-1	1.339576E-1	1.608468E-1	1.536458E-1	1.505900E-1	1.391837E-1	1.208149E-1	1.186874E-1	1.419348E-1	1.452150E-1	1.268264E-1	1.591836E-1	1.422844E-1	1.447187E-1	1.511181E-1	1.290593E-1	1.348261E-1	1.507791E-1	1.440370E-1	1.474401E-1	1.363043E-1	1.636415E-1	1.341709E-1	1.553515E-1	1.241974E-1	1.254968E-1	1.346431E-1	1.554250E-1	1.241777E-1	1.262726E-1	1.357293E-1	1.417736E-1	1.339483E-1	1.212713E-1	1.486021E-1	1.442538E-1	1.584021E-1	1.303990E-1	1.151134E-1	1.330177E-1	1.524774E-1	1.203118E-1	1.359254E-1	1.199565E-1	1.421099E-1	1.060985E-1	1.554871E-1	1.545815E-1	1.445293E-1	1.223102E-1	1.522405E-1	1.697788E-1	1.617667E-1	1.234940E-1	1.181339E-1	1.351792E-1	1.482751E-1	1.263648E-1	1.501511E-1	1.187706E-1	1.242966E-1	1.476857E-1
2.847020E+2	2.242452E-1	2.737292E-1	2.568892E-1	2.903175E-1	2.339035E-1	2.111158E-1	2.290690E-1	2.288264E-1	2.470972E-1	2.573248E-1	2.460431E-1	2.027734E-1	2.464223E-1	2.551216E-1	2.505096E-1	2.770814E-1	2.365941E-1	2.990736E-1	2.606656E-1	2.764433E-1	2.324588E-1	2.409125E-1	2.324929E-1	2.836924E-1	2.890828E-1	2.684864E-1	2.500721E-1	2.108405E-1	2.513358E-1	2.883119E-1	2.535526E-1	2.717943E-1	2.525777E-1	3.025866E-1	3.120259E-1	2.768611E-1	2.362770E-1	2.405424E-1	2.388649E-1	2.861567E-1	2.272202E-1	2.331713E-1	2.616241E-1	2.333836E-1	2.542422E-1	2.433966E-1	2.634413E-1	2.635506E-1	1.945344E-1	2.675991E-1	2.953513E-1	2.896670E-1	2.283877E-1	2.463865E-1	2.318338E-1	2.419313E-1	2.488101E-1	2.282383E-1	2.636902E-1	2.798523E-1	2.525786E-1	2.724983E-1	2.523817E-1	2.883826E-1	2.660517E-1	2.897945E-1	2.407940E-1	2.818340E-1	2.318780E-1	2.261341E-1	2.602374E-1	2.536626E-1	2.559146E-1	2.093689E-1	2.628874E-1	2.319996E-1	2.528310E-1	2.531847E-1	2.739501E-1	2.435773E-1	2.721882E-1	2.562494E-1	2.583672E-1	2.730854E-1	2.149509E-1	2.508897E-1	2.329405E-1	2.568694E-1	2.457037E-1	2.509523E-1	2.042481E-1	2.289532E-1	2.644594E-1	2.848736E-1	2.272696E-1	2.365733E-1	2.821257E-1	2.639263E-1	3.032146E-1	2.974518E-1	2.297386E-1	2.562089E-1	2.355937E-1	2.547302E-1	2.347329E-1	2.377849E-1	2.389291E-1	2.335348E-1	2.644378E-1	2.539754E-1	2.654345E-1	2.836757E-1	2.661602E-1	2.753987E-1	3.018170E-1	3.124953E-1	2.212285E-1	2.407613E-1	2.462491E-1	2.897458E-1	2.434522E-1	2.362045E-1	2.375466E-1	2.477998E-1	2.302039E-1	2.690480E-1	2.824610E-1	2.580156E-1	2.570194E-1	2.927119E-1	3.130710E-1	2.994051E-1	2.124648E-1	2.376886E-1	2.204522E-1	2.493933E-1	2.289389E-1	2.734798E-1	2.248249E-1	2.327012E-1	2.552547E-1	2.653888E-1	2.305304E-1	2.612620E-1	2.664958E-1	2.574616E-1	2.610173E-1	2.677588E-1	2.130650E-1	2.323399E-1	2.172767E-1	2.402499E-1	2.239535E-1	2.510756E-1	2.332447E-1	2.056405E-1	2.800421E-1	3.068695E-1	2.575058E-1	2.771964E-1	2.657138E-1	2.685919E-1	2.950021E-1	3.042429E-1	2.611656E-1	2.504015E-1	2.677075E-1	2.565909E-1	2.518656E-1	2.279917E-1	3.010362E-1	2.422416E-1
2.848000E+2	6.167264E-1	6.705095E-1	5.675073E-1	7.255305E-1	5.831164E-1	6.148542E-1	6.032719E-1	6.307740E-1	6.353359E-1	6.025521E-1	6.364251E-1	5.910455E-1	6.487257E-1	6.764518E-1	6.502214E-1	6.199602E-1	6.154554E-1	7.581438E-1	7.494644E-1	7.574952E-1	5.764875E-1	6.484580E-1	6.375943E-1	6.665146E-1	6.706229E-1	7.192316E-1	6.194702E-1	5.772529E-1	6.295809E-1	7.361151E-1	6.910609E-1	6.920157E-1	6.575607E-1	7.207255E-1	7.227918E-1	7.834208E-1	5.832566E-1	6.176968E-1	6.439775E-1	6.274946E-1	6.020810E-1	5.953344E-1	6.424420E-1	6.491081E-1	6.410361E-1	6.522502E-1	6.989688E-1	6.113217E-1	5.574367E-1	6.684576E-1	7.091978E-1	7.158666E-1	5.871190E-1	6.676298E-1	6.579371E-1	6.801992E-1	6.517127E-1	6.344288E-1	6.379234E-1	6.734464E-1	7.018286E-1	6.505839E-1	7.033720E-1	7.331036E-1	6.997334E-1	6.949844E-1	7.196921E-1	6.308488E-1	5.515939E-1	5.929066E-1	6.615843E-1	6.108158E-1	6.516814E-1	5.021261E-1	6.780129E-1	5.889715E-1	6.826613E-1	6.857462E-1	7.366083E-1	7.029640E-1	6.436466E-1	6.646047E-1	6.812543E-1	7.455268E-1	5.807821E-1	6.538786E-1	6.143114E-1	6.241448E-1	6.387925E-1	6.398915E-1	5.166163E-1	5.729563E-1	6.959323E-1	7.304346E-1	5.994205E-1	6.522092E-1	6.862131E-1	6.751269E-1	6.489575E-1	7.518706E-1	6.211273E-1	6.195506E-1	6.512932E-1	6.897578E-1	6.192507E-1	6.100413E-1	6.443398E-1	6.321923E-1	6.743016E-1	7.356040E-1	6.642723E-1	7.242256E-1	6.980633E-1	6.721119E-1	7.897167E-1	7.189172E-1	6.609029E-1	5.992473E-1	6.559211E-1	6.318309E-1	6.257828E-1	6.094621E-1	6.881682E-1	5.901059E-1	6.632443E-1	6.597751E-1	6.815520E-1	6.453467E-1	7.199197E-1	6.648470E-1	7.180680E-1	7.056753E-1	6.119412E-1	6.669517E-1	5.688423E-1	6.502872E-1	5.815642E-1	6.365545E-1	6.080582E-1	5.910455E-1	7.147621E-1	7.386045E-1	6.481844E-1	6.626938E-1	6.980727E-1	6.999994E-1	6.593492E-1	6.621491E-1	6.366136E-1	6.203469E-1	5.911231E-1	6.621887E-1	5.781133E-1	6.424622E-1	5.718738E-1	5.535819E-1	6.779564E-1	6.753689E-1	6.874886E-1	6.705039E-1	6.826037E-1	6.917420E-1	7.526834E-1	7.032375E-1	6.415913E-1	6.370814E-1	6.920327E-1	5.985391E-1	6.025116E-1	6.093698E-1	6.923879E-1	5.416673E-1
2.849020E+2	1.002302E+0	1.172867E+0	9.687231E-1	1.176417E+0	9.872731E-1	1.011510E+0	1.038292E+0	9.378157E-1	1.032604E+0	1.017200E+0	1.049438E+0	9.294901E-1	1.084150E+0	1.111856E+0	1.126713E+0	1.109408E+0	1.092948E+0	1.244638E+0	1.191315E+0	1.150104E+0	1.007513E+0	1.136338E+0	1.090537E+0	1.076246E+0	1.125689E+0	1.213018E+0	1.023500E+0	1.011267E+0	1.105213E+0	1.235897E+0	1.136538E+0	1.115790E+0	1.041179E+0	1.172851E+0	1.237511E+0	1.252764E+0	1.012851E+0	1.039558E+0	1.062685E+0	1.010480E+0	1.053595E+0	1.012397E+0	1.067126E+0	1.064832E+0	1.054242E+0	1.064481E+0	1.140997E+0	1.154523E+0	1.059746E+0	1.230660E+0	1.185433E+0	1.236452E+0	9.439173E-1	9.852342E-1	1.066778E+0	1.078313E+0	1.063211E+0	1.116616E+0	1.140074E+0	1.124349E+0	1.143109E+0	1.137079E+0	1.153394E+0	1.108158E+0	1.065525E+0	1.262873E+0	1.204292E+0	1.253931E+0	1.004883E+0	9.949775E-1	1.146545E+0	9.837663E-1	1.047449E+0	8.200563E-1	1.204902E+0	1.076427E+0	1.152760E+0	1.079488E+0	1.146364E+0	1.121947E+0	1.118674E+0	1.206899E+0	1.261467E+0	1.261990E+0	9.895517E-1	1.037502E+0	1.030516E+0	1.035913E+0	1.047183E+0	1.117876E+0	8.807431E-1	1.036612E+0	1.183049E+0	1.273962E+0	1.078393E+0	1.223814E+0	1.136539E+0	1.159267E+0	1.191679E+0	1.252778E+0	1.124720E+0	1.017411E+0	1.081594E+0	1.081642E+0	1.106685E+0	1.076373E+0	1.084040E+0	1.087799E+0	1.164113E+0	1.187248E+0	1.149603E+0	1.218124E+0	1.187946E+0	1.166227E+0	1.227944E+0	1.222637E+0	1.043058E+0	9.637507E-1	1.138612E+0	1.069700E+0	9.523349E-1	9.837071E-1	1.169831E+0	1.077310E+0	1.063493E+0	1.130243E+0	1.139698E+0	1.081494E+0	1.137846E+0	1.144442E+0	1.210331E+0	1.190545E+0	9.784986E-1	1.080487E+0	1.027116E+0	9.883479E-1	1.036344E+0	1.137731E+0	1.045485E+0	9.747757E-1	1.163646E+0	1.189608E+0	1.091072E+0	1.138291E+0	1.213858E+0	1.186792E+0	1.184551E+0	1.195981E+0	1.054720E+0	1.039914E+0	1.030600E+0	9.866255E-1	9.251085E-1	1.042722E+0	9.846611E-1	1.035768E+0	1.200427E+0	1.173596E+0	1.095552E+0	1.092526E+0	1.219134E+0	1.161395E+0	1.209346E+0	1.176263E+0	1.052809E+0	1.098948E+0	1.187240E+0	1.059792E+0	1.135174E+0	1.112502E+0	1.088791E+0	9.750474E-1
2.850030E+2	1.057549E+0	1.164745E+0	1.053928E+0	1.198116E+0	1.009623E+0	1.025676E+0	1.071237E+0	1.006668E+0	1.169040E+0	1.032209E+0	1.076918E+0	9.285501E-1	1.081726E+0	1.133846E+0	1.167362E+0	1.088089E+0	1.062529E+0	1.255370E+0	1.253912E+0	1.248256E+0	9.932778E-1	1.139277E+0	1.066617E+0	1.105760E+0	1.112773E+0	1.221388E+0	1.066377E+0	9.632609E-1	1.134777E+0	1.284876E+0	1.184354E+0	1.133559E+0	1.072761E+0	1.240824E+0	1.258705E+0	1.231054E+0	1.015211E+0	1.050125E+0	1.108000E+0	1.054576E+0	1.001246E+0	1.054015E+0	1.082079E+0	1.043631E+0	1.105360E+0	1.176832E+0	1.193000E+0	1.135287E+0	1.026554E+0	1.172536E+0	1.245743E+0	1.291917E+0	9.613229E-1	1.062127E+0	1.094033E+0	1.124446E+0	1.121229E+0	1.103513E+0	1.170731E+0	1.057309E+0	1.194908E+0	1.129015E+0	1.204688E+0	1.208363E+0	1.135441E+0	1.208985E+0	1.256742E+0	1.186813E+0	9.971274E-1	9.803415E-1	1.106938E+0	9.978070E-1	1.047449E+0	9.766909E-1	1.169975E+0	9.673784E-1	1.134376E+0	1.123854E+0	1.231971E+0	1.133366E+0	1.107719E+0	1.268970E+0	1.191172E+0	1.281317E+0	1.001574E+0	1.112198E+0	1.088570E+0	1.083024E+0	1.099787E+0	1.121970E+0	9.007205E-1	1.026330E+0	1.175752E+0	1.197661E+0	1.104237E+0	1.105551E+0	1.256156E+0	1.166665E+0	1.232718E+0	1.217912E+0	1.102633E+0	1.037394E+0	1.051533E+0	1.119393E+0	1.153054E+0	1.106720E+0	1.061854E+0	1.020407E+0	1.235967E+0	1.220981E+0	1.198618E+0	1.231030E+0	1.139431E+0	1.232176E+0	1.213595E+0	1.221623E+0	1.035258E+0	1.044560E+0	1.170855E+0	1.076541E+0	1.031437E+0	1.057766E+0	1.175183E+0	1.055916E+0	1.134863E+0	1.163024E+0	1.152080E+0	1.113505E+0	1.209145E+0	1.195188E+0	1.337871E+0	1.253833E+0	1.044337E+0	1.074935E+0	1.060336E+0	1.025517E+0	9.597287E-1	1.099864E+0	1.052259E+0	9.689174E-1	1.207030E+0	1.206026E+0	1.151980E+0	1.153125E+0	1.242279E+0	1.230017E+0	1.175223E+0	1.233442E+0	1.005744E+0	1.108605E+0	1.082108E+0	1.038397E+0	1.090928E+0	1.125533E+0	1.010572E+0	1.023896E+0	1.221370E+0	1.136934E+0	1.150354E+0	1.174319E+0	1.204334E+0	1.200920E+0	1.266302E+0	1.218565E+0	1.065722E+0	1.142889E+0	1.186270E+0	1.118604E+0	1.108406E+0	1.035512E+0	1.053441E+0	9.435291E-1
2.851000E+2	8.192980E-1	9.489522E-1	8.123351E-1	9.485629E-1	8.205824E-1	8.300051E-1	8.685078E-1	8.187210E-1	9.503413E-1	9.186968E-1	8.473770E-1	7.734302E-1	8.619943E-1	9.025103E-1	8.700245E-1	9.148728E-1	8.689506E-1	1.031201E+0	9.703901E-1	9.926299E-1	8.643659E-1	9.355038E-1	8.744823E-1	9.199929E-1	9.418749E-1	1.013350E+0	8.676592E-1	7.918104E-1	9.173945E-1	9.950027E-1	9.134013E-1	9.230041E-1	8.777000E-1	9.781999E-1	9.962991E-1	1.047039E+0	8.704402E-1	8.558577E-1	9.403358E-1	9.108546E-1	8.600896E-1	8.751473E-1	8.896755E-1	8.998334E-1	8.821437E-1	9.394601E-1	9.942741E-1	9.190845E-1	8.130173E-1	1.003174E+0	1.085612E+0	1.014596E+0	7.582666E-1	8.523415E-1	9.232291E-1	8.647325E-1	9.375052E-1	8.737757E-1	9.064415E-1	9.578285E-1	8.980629E-1	9.982081E-1	1.070165E+0	9.716873E-1	9.733166E-1	9.975814E-1	1.026416E+0	9.686781E-1	8.342539E-1	8.417260E-1	9.423505E-1	8.205455E-1	8.831683E-1	7.212282E-1	9.494405E-1	8.350297E-1	9.093940E-1	9.177396E-1	9.693806E-1	9.445159E-1	9.732770E-1	9.825770E-1	9.334242E-1	1.031138E+0	8.289634E-1	8.696670E-1	8.661778E-1	8.265399E-1	9.113724E-1	8.988422E-1	7.699613E-1	8.094583E-1	9.878367E-1	1.018683E+0	9.284989E-1	8.930194E-1	9.214271E-1	1.005990E+0	9.567389E-1	1.011040E+0	8.658561E-1	8.548148E-1	8.995109E-1	8.937894E-1	9.121636E-1	8.801299E-1	9.458785E-1	8.514525E-1	1.000169E+0	1.005466E+0	1.033316E+0	1.015057E+0	9.418219E-1	9.866404E-1	1.006071E+0	1.045270E+0	8.549042E-1	9.138887E-1	8.778255E-1	8.730007E-1	8.174545E-1	8.316390E-1	9.482651E-1	9.110196E-1	9.072517E-1	9.149438E-1	9.863468E-1	9.166386E-1	9.864718E-1	9.922058E-1	1.108522E+0	9.996593E-1	8.806316E-1	8.852831E-1	8.354585E-1	8.786111E-1	8.202488E-1	9.149850E-1	8.393515E-1	8.361251E-1	9.299077E-1	1.042814E+0	9.475036E-1	9.037368E-1	1.002281E+0	9.387645E-1	9.559999E-1	9.462352E-1	8.615383E-1	9.108882E-1	8.744156E-1	8.563331E-1	8.084199E-1	9.372338E-1	8.202607E-1	8.604276E-1	9.865889E-1	9.169618E-1	8.763448E-1	9.115350E-1	1.043991E+0	9.637689E-1	1.000847E+0	1.083003E+0	9.008379E-1	9.222087E-1	9.716791E-1	8.993205E-1	8.661658E-1	9.191289E-1	9.549736E-1	7.622984E-1
2.852010E+2	7.433336E-1	8.016099E-1	7.400729E-1	8.497051E-1	8.513136E-1	7.246432E-1	7.367350E-1	7.573120E-1	8.791139E-1	7.882985E-1	7.520036E-1	6.624946E-1	8.078699E-1	8.031155E-1	8.369036E-1	7.842935E-1	7.408198E-1	9.334249E-1	8.590063E-1	9.041845E-1	7.623428E-1	8.061869E-1	7.494802E-1	7.541900E-1	8.146951E-1	8.758563E-1	7.076972E-1	7.467443E-1	8.060946E-1	8.610610E-1	7.882850E-1	8.430465E-1	7.495184E-1	8.855091E-1	9.044572E-1	8.805976E-1	7.185866E-1	7.989593E-1	8.324872E-1	7.614169E-1	7.226723E-1	7.750873E-1	7.481148E-1	7.514256E-1	7.722394E-1	7.958545E-1	9.032675E-1	8.075198E-1	7.953137E-1	9.019568E-1	9.119617E-1	9.270200E-1	6.480365E-1	7.353299E-1	8.114792E-1	7.690486E-1	8.193200E-1	7.741930E-1	8.630979E-1	8.669996E-1	8.064205E-1	8.566500E-1	8.582186E-1	9.182451E-1	8.111938E-1	8.473201E-1	8.394163E-1	8.903723E-1	6.782730E-1	7.521849E-1	8.270520E-1	7.222621E-1	7.786260E-1	6.391815E-1	8.197141E-1	7.045441E-1	7.894627E-1	8.225389E-1	8.549187E-1	8.048550E-1	7.980054E-1	8.323030E-1	8.352343E-1	9.119545E-1	7.551104E-1	7.820602E-1	7.500687E-1	7.576213E-1	7.774733E-1	8.302661E-1	6.065130E-1	7.393492E-1	8.546554E-1	8.999921E-1	7.605137E-1	8.338886E-1	8.239235E-1	9.055679E-1	8.972352E-1	8.855233E-1	7.624872E-1	7.103863E-1	8.256467E-1	7.949199E-1	8.363916E-1	7.344639E-1	7.905713E-1	7.745691E-1	8.696196E-1	8.855277E-1	8.459118E-1	8.524324E-1	8.424253E-1	8.516969E-1	9.188672E-1	8.739852E-1	7.739891E-1	7.694638E-1	7.573897E-1	7.695203E-1	6.998154E-1	8.089276E-1	8.540746E-1	7.165268E-1	7.548670E-1	8.103953E-1	8.710961E-1	7.773916E-1	8.142553E-1	8.817596E-1	8.545597E-1	8.087749E-1	7.418380E-1	7.946201E-1	7.707209E-1	7.839185E-1	7.416696E-1	7.969311E-1	7.348345E-1	6.720878E-1	8.334024E-1	8.689803E-1	7.961034E-1	8.444028E-1	8.854387E-1	8.708399E-1	8.431236E-1	8.567427E-1	7.245873E-1	7.697943E-1	7.506309E-1	7.579666E-1	7.562171E-1	7.558357E-1	6.871327E-1	7.088311E-1	8.818747E-1	8.671396E-1	7.911909E-1	8.419226E-1	8.392459E-1	9.254064E-1	8.767655E-1	8.561053E-1	7.965434E-1	8.001501E-1	8.095233E-1	7.766546E-1	7.938953E-1	8.367647E-1	8.842768E-1	6.480430E-1
2.853000E+2	6.098208E-1	6.345439E-1	5.858427E-1	6.712797E-1	6.538907E-1	5.617309E-1	5.753964E-1	5.591305E-1	6.955286E-1	6.166229E-1	6.202600E-1	5.666021E-1	6.051025E-1	6.298328E-1	6.577479E-1	6.315080E-1	5.702862E-1	7.295266E-1	6.767426E-1	6.464007E-1	6.721838E-1	6.484587E-1	6.360517E-1	6.543612E-1	7.083795E-1	7.120583E-1	5.980322E-1	6.056656E-1	6.287108E-1	7.201227E-1	6.201352E-1	6.591449E-1	6.018293E-1	6.568718E-1	7.722441E-1	7.224269E-1	6.406935E-1	6.120069E-1	6.421653E-1	6.381112E-1	7.264106E-1	6.015328E-1	6.394521E-1	6.574037E-1	6.529643E-1	6.547842E-1	6.376792E-1	6.674882E-1	6.039062E-1	6.664532E-1	7.247946E-1	7.178136E-1	5.107323E-1	5.899005E-1	6.234127E-1	6.451715E-1	6.205550E-1	5.907524E-1	6.009234E-1	7.048044E-1	6.231344E-1	6.926931E-1	6.917583E-1	6.796615E-1	6.480566E-1	6.991298E-1	6.512781E-1	6.934923E-1	5.136761E-1	5.636337E-1	5.850114E-1	5.985308E-1	6.274123E-1	5.030589E-1	6.361004E-1	5.843111E-1	6.301368E-1	6.681847E-1	6.769728E-1	6.502619E-1	6.257205E-1	6.504481E-1	6.567062E-1	7.380102E-1	5.816415E-1	6.289803E-1	5.991289E-1	5.997186E-1	6.148825E-1	6.419375E-1	4.975473E-1	5.879130E-1	6.448481E-1	6.908708E-1	6.209569E-1	6.624929E-1	6.892281E-1	6.846404E-1	6.653726E-1	6.670300E-1	5.698844E-1	5.486990E-1	6.177974E-1	6.627937E-1	6.034187E-1	6.039718E-1	6.060179E-1	6.103610E-1	7.532380E-1	6.803206E-1	6.681164E-1	6.622734E-1	7.300119E-1	6.954474E-1	7.654319E-1	6.966202E-1	6.063088E-1	5.820535E-1	6.654039E-1	6.318308E-1	5.872451E-1	5.926760E-1	6.239470E-1	6.134462E-1	6.593866E-1	6.243351E-1	6.844096E-1	6.557507E-1	6.552014E-1	6.867362E-1	7.527511E-1	7.046546E-1	6.092724E-1	6.179192E-1	6.020632E-1	6.175431E-1	5.118253E-1	6.510322E-1	6.380577E-1	5.461302E-1	6.899713E-1	6.497568E-1	6.525354E-1	6.460058E-1	6.570200E-1	6.629503E-1	6.854697E-1	6.798394E-1	6.311716E-1	6.268448E-1	5.861390E-1	6.078283E-1	5.893725E-1	6.197873E-1	5.611527E-1	5.882841E-1	6.911837E-1	6.857103E-1	6.335307E-1	6.565805E-1	6.961707E-1	6.615174E-1	7.364101E-1	6.801634E-1	6.247063E-1	5.911874E-1	6.230923E-1	6.279457E-1	6.587228E-1	6.272753E-1	5.863450E-1	5.534872E-1
2.854010E+2	4.475345E-1	5.150457E-1	4.165125E-1	4.783870E-1	4.937180E-1	4.182982E-1	4.579832E-1	4.344521E-1	4.878651E-1	4.674628E-1	4.246654E-1	4.208825E-1	4.936203E-1	4.627084E-1	5.199954E-1	4.680633E-1	4.495304E-1	5.411293E-1	5.092063E-1	5.029484E-1	5.148003E-1	4.623203E-1	4.593504E-1	4.434182E-1	4.818400E-1	5.183692E-1	4.595075E-1	4.097228E-1	5.026294E-1	4.982199E-1	4.846596E-1	4.592502E-1	5.247335E-1	5.477025E-1	5.552558E-1	5.053296E-1	5.352624E-1	4.307457E-1	4.772202E-1	4.413104E-1	5.170129E-1	4.527715E-1	4.689805E-1	4.463155E-1	4.885335E-1	4.740102E-1	5.383157E-1	4.774448E-1	4.777754E-1	5.031038E-1	5.313893E-1	5.144441E-1	5.252356E-1	4.795746E-1	4.889494E-1	4.572212E-1	5.012963E-1	4.964106E-1	5.068368E-1	4.723233E-1	4.956314E-1	5.197767E-1	5.098140E-1	5.040629E-1	5.365962E-1	5.374676E-1	4.665604E-1	4.943754E-1	4.705873E-1	4.138252E-1	4.626710E-1	4.335560E-1	4.528648E-1	3.818534E-1	4.365216E-1	3.652822E-1	4.681838E-1	4.445095E-1	4.932564E-1	4.851294E-1	4.773367E-1	5.023511E-1	5.183482E-1	5.425910E-1	4.339347E-1	4.556117E-1	4.419356E-1	4.819461E-1	4.762009E-1	4.884099E-1	3.722373E-1	4.355423E-1	5.043689E-1	5.373264E-1	4.693405E-1	4.979517E-1	4.821591E-1	4.901394E-1	5.135324E-1	5.031613E-1	4.373597E-1	4.351549E-1	4.503143E-1	4.992086E-1	4.778841E-1	4.876416E-1	4.315507E-1	4.281167E-1	5.174402E-1	5.566335E-1	4.999324E-1	5.220205E-1	5.383172E-1	5.554314E-1	5.501824E-1	5.385102E-1	4.668995E-1	4.247322E-1	4.757406E-1	4.881553E-1	3.874598E-1	4.475205E-1	4.869410E-1	4.588239E-1	4.742105E-1	4.577667E-1	5.348698E-1	4.836917E-1	5.378318E-1	5.046498E-1	5.234019E-1	5.290813E-1	4.660302E-1	4.643469E-1	4.334044E-1	4.432029E-1	4.509251E-1	4.995663E-1	4.522485E-1	3.723287E-1	4.580046E-1	4.836472E-1	4.959145E-1	4.837644E-1	5.454412E-1	5.168091E-1	5.044939E-1	5.112622E-1	4.398033E-1	4.681145E-1	4.366000E-1	4.292163E-1	4.644954E-1	4.600778E-1	3.833494E-1	4.165972E-1	4.883692E-1	4.986397E-1	4.826146E-1	5.469426E-1	4.963603E-1	5.754923E-1	5.370645E-1	5.272955E-1	4.667753E-1	4.906117E-1	4.822979E-1	4.506692E-1	4.900909E-1	4.034612E-1	4.954502E-1	4.195336E-1
2.855000E+2	3.289841E-1	3.758248E-1	2.914025E-1	3.228682E-1	3.707946E-1	3.262165E-1	3.050920E-1	2.976780E-1	3.724968E-1	2.957880E-1	3.098947E-1	2.638815E-1	3.296293E-1	3.175739E-1	3.197625E-1	3.303785E-1	3.131039E-1	3.992345E-1	3.343075E-1	3.799884E-1	3.550436E-1	3.173279E-1	3.227731E-1	3.279645E-1	3.556534E-1	3.557661E-1	3.465449E-1	2.950958E-1	3.174194E-1	3.702757E-1	3.332444E-1	3.384259E-1	3.222421E-1	3.592313E-1	3.685437E-1	3.688688E-1	3.881295E-1	3.258901E-1	3.177120E-1	3.327032E-1	3.795952E-1	3.332314E-1	3.294139E-1	3.089704E-1	3.368827E-1	3.489893E-1	3.674478E-1	3.174083E-1	3.427927E-1	3.447645E-1	3.587801E-1	3.655654E-1	3.724606E-1	2.915196E-1	3.217783E-1	3.615372E-1	3.712929E-1	2.963735E-1	3.567199E-1	3.101289E-1	3.671319E-1	3.289420E-1	3.762586E-1	3.456434E-1	3.602868E-1	3.685531E-1	3.799023E-1	3.534271E-1	3.818257E-1	3.217017E-1	3.165664E-1	3.177225E-1	3.791249E-1	2.774303E-1	3.437171E-1	3.074950E-1	3.587570E-1	3.225055E-1	3.682131E-1	3.858737E-1	3.797422E-1	3.509882E-1	3.398206E-1	3.697211E-1	3.068378E-1	2.988429E-1	2.990335E-1	3.458531E-1	3.518670E-1	3.246466E-1	2.777999E-1	3.121495E-1	3.830460E-1	3.734201E-1	3.470129E-1	3.188431E-1	3.826450E-1	3.728044E-1	3.432260E-1	3.927519E-1	3.110201E-1	2.934512E-1	3.206233E-1	3.149515E-1	3.489573E-1	3.399531E-1	3.095231E-1	2.715019E-1	3.312304E-1	3.636069E-1	3.894108E-1	3.654188E-1	3.821230E-1	3.383052E-1	4.099934E-1	4.290497E-1	3.021434E-1	2.957807E-1	3.505639E-1	3.145473E-1	3.032866E-1	3.161891E-1	3.456524E-1	3.148994E-1	3.459381E-1	3.257517E-1	3.739001E-1	3.380429E-1	3.381914E-1	3.892284E-1	3.690100E-1	3.463613E-1	3.165601E-1	3.274268E-1	3.269283E-1	2.821373E-1	3.026070E-1	3.269392E-1	3.177301E-1	2.903102E-1	3.535307E-1	3.716208E-1	3.497361E-1	3.382108E-1	3.749166E-1	3.675816E-1	3.468401E-1	3.811856E-1	3.010395E-1	3.483710E-1	3.119854E-1	2.859815E-1	3.181235E-1	3.260011E-1	2.779189E-1	3.188818E-1	4.112101E-1	3.576319E-1	3.316988E-1	3.233142E-1	3.360181E-1	3.906543E-1	3.794191E-1	3.571225E-1	3.455948E-1	3.050842E-1	3.735459E-1	3.137225E-1	3.629481E-1	2.852880E-1	3.237599E-1	2.776999E-1
2.856010E+2	2.184904E-1	2.690887E-1	2.018836E-1	2.481227E-1	2.543902E-1	2.491878E-1	1.986599E-1	2.288263E-1	2.601385E-1	2.310576E-1	2.258367E-1	2.450791E-1	2.480378E-1	2.357704E-1	2.678226E-1	2.300019E-1	2.190795E-1	2.525701E-1	2.643480E-1	2.721287E-1	2.727930E-1	2.428723E-1	2.139741E-1	2.559139E-1	2.702041E-1	2.648995E-1	2.426511E-1	2.088809E-1	2.617695E-1	2.683197E-1	2.320358E-1	2.531381E-1	2.600090E-1	2.758086E-1	2.746825E-1	2.892666E-1	2.756170E-1	2.348529E-1	2.270828E-1	2.608418E-1	3.225713E-1	2.340570E-1	2.576363E-1	2.389149E-1	2.704294E-1	2.383283E-1	2.587978E-1	2.366210E-1	2.542806E-1	2.585802E-1	2.849531E-1	3.101016E-1	2.777014E-1	2.221487E-1	2.263823E-1	2.556008E-1	2.982335E-1	2.422144E-1	2.446612E-1	2.798522E-1	2.774813E-1	2.527871E-1	2.901252E-1	2.540262E-1	3.025300E-1	2.752857E-1	2.590374E-1	2.829520E-1	2.835843E-1	2.416318E-1	2.426342E-1	2.475197E-1	2.792500E-1	2.326773E-1	2.469207E-1	2.301361E-1	2.712153E-1	2.476385E-1	2.373991E-1	2.549962E-1	2.632257E-1	2.932735E-1	2.873776E-1	2.816747E-1	2.930981E-1	2.462790E-1	2.052528E-1	2.498905E-1	3.059587E-1	2.560703E-1	2.087885E-1	2.439104E-1	2.726689E-1	2.528456E-1	2.332996E-1	2.751371E-1	2.931826E-1	3.284074E-1	3.186038E-1	2.811809E-1	2.659612E-1	2.307748E-1	2.441821E-1	2.502364E-1	2.844939E-1	2.145193E-1	2.500224E-1	2.268906E-1	2.836662E-1	3.092600E-1	2.808115E-1	2.587228E-1	2.626103E-1	2.682961E-1	2.653905E-1	3.216172E-1	2.290273E-1	2.046551E-1	2.092648E-1	2.213284E-1	2.201270E-1	2.243559E-1	2.728686E-1	2.312678E-1	2.138079E-1	2.362654E-1	2.481715E-1	2.468116E-1	2.690860E-1	2.738070E-1	2.582512E-1	2.963426E-1	2.311479E-1	2.441643E-1	2.451547E-1	2.467383E-1	2.476009E-1	2.456364E-1	2.490183E-1	1.907159E-1	2.490571E-1	2.711835E-1	2.662053E-1	2.269596E-1	2.454435E-1	2.667240E-1	3.029957E-1	2.740026E-1	2.212276E-1	2.434788E-1	2.338925E-1	2.342097E-1	2.075760E-1	2.244576E-1	2.207360E-1	2.239050E-1	2.635086E-1	2.702080E-1	2.187224E-1	2.493519E-1	2.299450E-1	2.372038E-1	2.787292E-1	2.907833E-1	2.601729E-1	2.650486E-1	2.521719E-1	2.733943E-1	2.665871E-1	2.691733E-1	2.505390E-1	2.146626E-1
2.858040E+2	2.484157E-1	2.331230E-1	2.202191E-1	2.625898E-1	2.804651E-1	2.367925E-1	2.417391E-1	2.148693E-1	2.842155E-1	2.441913E-1	2.533173E-1	1.990128E-1	2.746969E-1	2.542426E-1	2.098611E-1	2.362196E-1	2.605606E-1	2.406468E-1	2.450166E-1	2.678151E-1	2.308769E-1	2.497296E-1	2.101157E-1	2.368168E-1	2.642423E-1	2.493569E-1	2.377037E-1	2.098605E-1	2.443795E-1	2.823142E-1	2.400051E-1	2.433650E-1	2.460762E-1	2.634506E-1	2.989052E-1	2.758274E-1	2.724700E-1	2.145319E-1	2.361461E-1	2.257284E-1	2.655478E-1	2.375987E-1	2.386951E-1	2.223227E-1	2.721328E-1	2.526893E-1	2.625122E-1	2.458538E-1	2.564932E-1	2.686020E-1	2.620764E-1	2.867484E-1	2.303213E-1	2.221486E-1	2.309251E-1	2.496204E-1	2.606290E-1	2.352259E-1	2.436044E-1	2.247061E-1	3.023843E-1	2.545792E-1	2.794801E-1	2.397111E-1	2.589590E-1	2.815041E-1	2.681596E-1	2.717658E-1	2.637638E-1	1.899737E-1	2.531961E-1	2.282137E-1	2.447135E-1	2.019095E-1	2.429296E-1	2.133594E-1	2.773430E-1	2.550330E-1	2.248947E-1	2.418211E-1	2.751761E-1	2.475376E-1	2.527881E-1	2.763066E-1	2.518774E-1	2.601115E-1	2.293675E-1	2.525075E-1	2.657889E-1	2.796109E-1	1.942594E-1	2.111920E-1	2.480397E-1	2.481356E-1	2.324380E-1	2.442859E-1	2.630267E-1	2.575839E-1	2.816695E-1	2.230718E-1	2.774473E-1	2.244164E-1	2.579243E-1	2.241707E-1	2.878870E-1	2.387966E-1	2.348952E-1	2.344840E-1	2.867025E-1	2.727156E-1	2.712016E-1	2.613044E-1	2.945589E-1	2.510486E-1	2.885705E-1	2.820900E-1	2.884955E-1	2.149714E-1	2.443523E-1	2.418538E-1	2.627210E-1	2.213929E-1	2.471798E-1	2.186258E-1	2.745684E-1	2.424673E-1	2.157872E-1	2.460121E-1	2.559224E-1	3.026616E-1	2.828637E-1	2.555114E-1	2.756333E-1	2.349129E-1	2.213035E-1	2.555883E-1	2.672461E-1	2.590011E-1	2.132113E-1	2.043857E-1	2.800448E-1	2.856694E-1	2.583744E-1	2.464286E-1	2.854435E-1	2.317325E-1	2.470237E-1	2.760846E-1	2.357384E-1	1.952100E-1	1.940157E-1	2.065979E-1	2.341893E-1	2.195284E-1	2.118009E-1	2.439962E-1	2.756327E-1	2.711475E-1	2.490741E-1	2.728456E-1	2.521462E-1	2.453412E-1	2.583885E-1	2.196371E-1	2.234214E-1	2.406375E-1	2.647943E-1	2.246646E-1	2.438353E-1	2.351536E-1	2.858870E-1	2.028433E-1
2.860080E+2	3.888342E-1	4.303523E-1	3.701351E-1	3.831463E-1	4.201501E-1	3.757994E-1	3.566186E-1	3.507131E-1	4.206508E-1	4.008567E-1	3.850610E-1	3.362718E-1	3.894099E-1	3.853035E-1	4.033181E-1	4.014416E-1	3.840827E-1	4.886632E-1	4.374061E-1	4.598050E-1	4.301765E-1	3.888444E-1	3.821882E-1	3.774452E-1	4.152698E-1	4.645668E-1	3.877718E-1	3.528993E-1	3.721997E-1	4.582371E-1	3.866381E-1	4.157176E-1	4.021252E-1	4.117556E-1	4.694696E-1	4.164230E-1	4.432057E-1	3.575911E-1	3.793403E-1	4.029304E-1	4.870981E-1	3.748492E-1	3.902254E-1	4.288025E-1	4.484913E-1	3.836230E-1	3.823055E-1	3.958883E-1	4.136040E-1	3.898610E-1	4.190890E-1	4.268676E-1	4.343445E-1	3.667422E-1	3.953701E-1	3.623909E-1	4.550967E-1	3.872203E-1	3.757486E-1	3.901448E-1	4.557873E-1	4.185363E-1	4.110994E-1	4.153097E-1	4.372953E-1	4.100041E-1	4.129698E-1	4.641723E-1	4.361170E-1	4.155472E-1	3.896186E-1	3.756387E-1	4.939354E-1	3.501535E-1	3.916157E-1	3.606207E-1	4.533019E-1	4.158569E-1	4.403531E-1	4.482377E-1	4.514440E-1	3.803895E-1	4.424732E-1	4.491768E-1	4.579798E-1	3.910601E-1	3.990641E-1	4.156448E-1	4.790705E-1	4.044813E-1	3.268344E-1	3.747815E-1	4.697051E-1	4.384177E-1	3.926704E-1	4.011128E-1	4.550191E-1	3.981741E-1	4.355612E-1	4.322662E-1	4.709328E-1	3.861038E-1	4.073702E-1	3.877555E-1	4.880628E-1	3.723233E-1	3.740663E-1	3.816073E-1	4.314192E-1	3.973398E-1	4.047875E-1	3.929529E-1	4.661365E-1	4.478822E-1	4.817436E-1	4.929019E-1	5.146697E-1	3.894858E-1	4.406539E-1	3.906606E-1	4.777185E-1	3.280384E-1	4.173671E-1	3.751926E-1	4.578149E-1	4.081497E-1	4.462884E-1	4.548826E-1	4.950519E-1	4.787796E-1	4.338991E-1	4.065878E-1	4.420082E-1	3.672077E-1	3.388538E-1	4.113436E-1	4.420851E-1	4.115817E-1	3.825696E-1	3.537767E-1	4.783683E-1	3.967307E-1	3.923716E-1	4.077428E-1	4.422844E-1	4.385927E-1	4.158724E-1	4.654748E-1	4.289204E-1	3.771467E-1	3.568462E-1	3.420674E-1	4.747315E-1	3.841668E-1	3.735213E-1	3.846341E-1	4.663241E-1	4.290761E-1	4.160092E-1	4.399145E-1	4.605915E-1	4.569173E-1	4.414601E-1	4.176925E-1	4.459161E-1	3.792955E-1	4.046181E-1	3.666531E-1	4.258497E-1	4.464342E-1	3.515332E-1	3.643758E-1
2.862000E+2	6.236323E-1	6.786310E-1	5.685865E-1	6.604297E-1	6.697215E-1	6.440725E-1	6.007375E-1	6.103038E-1	7.165955E-1	6.644678E-1	6.024790E-1	5.280563E-1	7.020432E-1	6.245560E-1	6.660293E-1	6.599334E-1	6.163766E-1	7.342951E-1	7.292129E-1	6.895448E-1	6.516210E-1	6.553166E-1	5.681488E-1	6.465491E-1	6.994373E-1	7.802076E-1	5.889621E-1	6.438743E-1	7.095771E-1	6.781408E-1	7.030148E-1	6.511485E-1	6.176194E-1	6.867394E-1	7.227924E-1	7.761835E-1	7.146535E-1	6.120075E-1	5.914128E-1	6.258622E-1	7.095842E-1	6.360663E-1	6.573955E-1	6.325157E-1	7.219739E-1	6.649213E-1	6.608958E-1	6.351738E-1	6.747159E-1	6.885004E-1	6.717643E-1	6.857022E-1	6.673748E-1	6.417200E-1	6.679308E-1	6.443168E-1	7.419630E-1	5.785222E-1	6.358091E-1	6.885855E-1	6.978440E-1	6.532719E-1	6.936945E-1	6.710715E-1	6.966938E-1	7.198554E-1	7.345158E-1	7.046793E-1	7.446300E-1	6.161525E-1	6.695052E-1	6.090615E-1	7.506235E-1	5.515408E-1	6.410910E-1	5.954956E-1	6.931660E-1	6.515477E-1	7.298753E-1	6.546541E-1	7.063856E-1	6.526253E-1	6.589383E-1	7.347889E-1	7.722859E-1	6.096143E-1	5.821588E-1	6.084426E-1	7.468677E-1	6.173737E-1	5.284207E-1	6.262388E-1	7.397175E-1	6.861611E-1	6.088964E-1	6.719189E-1	7.887421E-1	6.888690E-1	7.433439E-1	7.355998E-1	7.130113E-1	5.804915E-1	5.963249E-1	6.097636E-1	7.911534E-1	6.130760E-1	6.806456E-1	5.847327E-1	6.732896E-1	7.065572E-1	6.931041E-1	6.958312E-1	7.205449E-1	6.680534E-1	6.605674E-1	7.189170E-1	7.369436E-1	5.863521E-1	6.568691E-1	6.472252E-1	7.211121E-1	6.104496E-1	6.710429E-1	6.153898E-1	7.240052E-1	6.969873E-1	6.920301E-1	6.933633E-1	7.265009E-1	7.056427E-1	7.024057E-1	7.087383E-1	7.009113E-1	6.206945E-1	5.892856E-1	6.122334E-1	7.141671E-1	6.198485E-1	5.751538E-1	5.607771E-1	6.926289E-1	7.028721E-1	6.603652E-1	6.330255E-1	7.307038E-1	6.526583E-1	7.181192E-1	6.652711E-1	7.064490E-1	6.073513E-1	6.152164E-1	6.130059E-1	7.623584E-1	5.645794E-1	6.236959E-1	5.663674E-1	7.121268E-1	7.120313E-1	6.706272E-1	6.417891E-1	7.652416E-1	7.289427E-1	7.201370E-1	7.080450E-1	7.538322E-1	6.448927E-1	6.638742E-1	6.262651E-1	7.416996E-1	6.236936E-1	6.570398E-1	5.101491E-1
2.864000E+2	8.100903E-1	8.828227E-1	7.573294E-1	9.172173E-1	8.783188E-1	7.441217E-1	8.076899E-1	7.396337E-1	9.242590E-1	7.911138E-1	7.431133E-1	7.179623E-1	8.280651E-1	8.690856E-1	8.655086E-1	8.589101E-1	7.795353E-1	9.346175E-1	9.077948E-1	9.591925E-1	8.366853E-1	8.238216E-1	7.965486E-1	8.427335E-1	9.200159E-1	9.559614E-1	8.025201E-1	7.144136E-1	8.182678E-1	9.520214E-1	8.408817E-1	8.679224E-1	8.275417E-1	9.328847E-1	9.155589E-1	8.774965E-1	9.247300E-1	8.144032E-1	7.898908E-1	8.038800E-1	9.068303E-1	7.830567E-1	8.478059E-1	8.141078E-1	8.634008E-1	8.068363E-1	9.134824E-1	8.590706E-1	8.749770E-1	8.718925E-1	9.213202E-1	8.735019E-1	8.588273E-1	7.721052E-1	8.232902E-1	8.433743E-1	9.837042E-1	7.575961E-1	8.620412E-1	8.345605E-1	8.851148E-1	8.476910E-1	8.804777E-1	8.667114E-1	8.679364E-1	9.488759E-1	8.690635E-1	9.284064E-1	9.686891E-1	7.203295E-1	8.076880E-1	7.512212E-1	9.587751E-1	7.445363E-1	7.778016E-1	7.772432E-1	8.822566E-1	8.502674E-1	9.145541E-1	8.847866E-1	9.334428E-1	8.921940E-1	9.479293E-1	9.559762E-1	8.907942E-1	8.041928E-1	8.224133E-1	8.815008E-1	9.725824E-1	8.425482E-1	6.392029E-1	7.486965E-1	9.166859E-1	8.783258E-1	8.225388E-1	7.824696E-1	9.716876E-1	8.262880E-1	9.239088E-1	9.587424E-1	9.497872E-1	7.812383E-1	8.247868E-1	7.967176E-1	1.027519E+0	8.052739E-1	8.147748E-1	7.831121E-1	9.596878E-1	9.230087E-1	8.987688E-1	8.575952E-1	9.631211E-1	8.648884E-1	9.674368E-1	9.499994E-1	1.015760E+0	7.531298E-1	8.484280E-1	8.131359E-1	9.320533E-1	7.921413E-1	8.348074E-1	7.709845E-1	9.680126E-1	8.520371E-1	8.634766E-1	8.478154E-1	9.250434E-1	9.106153E-1	9.049039E-1	9.220808E-1	9.464698E-1	7.899947E-1	7.656107E-1	7.343597E-1	9.410646E-1	8.481618E-1	7.841897E-1	7.121212E-1	9.679787E-1	9.172679E-1	8.222069E-1	8.759238E-1	9.791222E-1	8.543733E-1	9.046922E-1	8.598654E-1	9.259323E-1	7.846469E-1	7.547845E-1	7.683216E-1	9.445561E-1	7.883689E-1	7.746939E-1	7.773232E-1	9.083286E-1	8.680789E-1	8.628552E-1	9.037033E-1	9.675196E-1	9.312179E-1	9.693186E-1	9.262907E-1	9.773201E-1	8.313980E-1	8.726374E-1	8.489099E-1	9.330824E-1	8.224415E-1	7.984333E-1	7.504783E-1
2.866200E+2	7.767113E-1	8.538174E-1	7.616446E-1	9.835235E-1	8.624875E-1	7.095921E-1	7.831931E-1	7.321906E-1	9.433198E-1	7.610937E-1	7.277563E-1	6.925796E-1	8.773436E-1	8.734836E-1	8.233544E-1	8.056128E-1	7.915194E-1	8.785745E-1	9.123959E-1	9.009492E-1	8.264036E-1	8.061865E-1	7.440782E-1	7.906494E-1	9.070985E-1	8.937904E-1	8.313799E-1	7.633989E-1	8.165290E-1	1.004998E+0	7.595962E-1	9.105662E-1	8.396165E-1	9.462737E-1	9.084942E-1	8.754281E-1	8.948298E-1	7.721358E-1	7.726712E-1	7.842815E-1	8.535454E-1	7.724311E-1	7.850009E-1	7.588000E-1	8.642526E-1	8.304896E-1	8.020469E-1	8.221394E-1	8.716572E-1	8.328093E-1	9.130020E-1	9.182628E-1	8.220839E-1	7.796273E-1	8.023936E-1	8.023670E-1	9.439510E-1	8.248578E-1	8.239832E-1	8.691620E-1	8.910910E-1	8.342517E-1	9.308024E-1	8.667103E-1	8.578036E-1	8.794451E-1	8.724845E-1	9.116283E-1	8.954392E-1	7.754315E-1	8.120891E-1	7.363028E-1	9.149043E-1	7.193632E-1	8.237058E-1	7.231849E-1	8.446139E-1	8.484191E-1	9.212874E-1	8.514090E-1	9.165131E-1	9.248624E-1	9.289610E-1	9.398708E-1	8.727603E-1	7.857486E-1	7.339927E-1	7.593660E-1	9.285878E-1	8.384543E-1	6.646276E-1	7.178495E-1	8.847582E-1	8.981080E-1	7.725747E-1	8.261754E-1	9.515832E-1	9.245953E-1	8.787684E-1	8.843612E-1	9.277005E-1	7.885045E-1	8.290819E-1	7.967170E-1	9.415688E-1	7.830194E-1	8.379693E-1	7.888066E-1	9.536158E-1	8.995834E-1	8.593661E-1	8.894325E-1	9.773200E-1	8.638732E-1	8.846477E-1	9.337829E-1	9.787141E-1	7.333564E-1	8.579111E-1	7.900455E-1	9.077124E-1	7.911535E-1	8.562143E-1	7.087469E-1	9.361853E-1	8.688716E-1	8.901472E-1	8.158045E-1	9.118803E-1	9.563854E-1	8.937162E-1	8.445019E-1	9.322345E-1	7.973956E-1	7.894611E-1	7.706434E-1	9.508880E-1	8.615274E-1	7.077372E-1	6.720880E-1	9.865720E-1	8.882953E-1	8.195967E-1	8.147361E-1	9.222812E-1	9.346485E-1	8.599145E-1	8.369715E-1	9.322808E-1	7.800059E-1	7.630921E-1	7.614188E-1	8.882589E-1	8.406195E-1	7.139367E-1	7.636253E-1	9.898959E-1	8.191969E-1	8.164839E-1	8.271303E-1	9.786204E-1	8.533316E-1	8.889700E-1	9.157144E-1	9.435498E-1	7.308223E-1	8.745802E-1	7.422080E-1	9.277295E-1	7.723064E-1	8.060067E-1	7.189597E-1
2.868000E+2	9.401497E-1	1.081213E+0	1.043142E+0	1.088409E+0	1.089709E+0	9.929161E-1	9.132773E-1	9.592156E-1	1.160011E+0	1.009694E+0	9.500234E-1	8.514601E-1	1.051836E+0	1.020377E+0	1.013801E+0	1.032126E+0	9.841764E-1	1.165940E+0	1.164620E+0	1.055187E+0	1.069201E+0	1.012899E+0	9.840534E-1	1.018953E+0	1.093895E+0	1.135303E+0	9.830965E-1	8.819443E-1	1.034781E+0	1.098957E+0	1.059238E+0	1.051824E+0	1.062544E+0	1.027636E+0	1.101262E+0	1.070816E+0	1.172572E+0	9.347023E-1	9.874636E-1	9.263700E-1	1.116228E+0	9.211919E-1	9.375277E-1	9.763411E-1	1.041462E+0	9.994370E-1	1.035133E+0	9.706345E-1	1.055320E+0	1.086352E+0	1.144882E+0	1.111901E+0	1.139239E+0	9.509667E-1	1.010448E+0	9.834834E-1	1.086849E+0	8.991079E-1	1.008985E+0	1.016220E+0	1.098284E+0	9.901446E-1	1.008226E+0	1.011770E+0	1.070591E+0	1.034888E+0	1.124476E+0	1.140948E+0	1.122945E+0	9.269616E-1	1.060290E+0	9.153191E-1	1.123989E+0	8.937129E-1	9.494401E-1	9.217091E-1	1.132625E+0	1.047138E+0	1.107890E+0	1.019178E+0	1.105728E+0	1.056626E+0	1.104141E+0	1.090193E+0	1.157868E+0	9.526622E-1	9.242323E-1	1.016721E+0	1.139956E+0	9.950529E-1	8.580415E-1	9.281772E-1	1.104600E+0	1.115707E+0	1.034459E+0	9.984278E-1	1.167699E+0	1.060958E+0	1.066516E+0	1.076124E+0	1.095564E+0	8.684401E-1	9.888349E-1	9.585045E-1	1.193767E+0	9.438581E-1	9.599965E-1	9.093536E-1	1.175247E+0	1.052317E+0	1.034278E+0	1.089057E+0	1.187947E+0	1.046503E+0	1.031460E+0	1.084798E+0	1.164918E+0	9.809438E-1	1.044729E+0	1.021808E+0	1.122710E+0	9.145857E-1	1.066006E+0	9.304681E-1	1.155117E+0	9.831661E-1	1.042545E+0	1.034278E+0	1.095066E+0	1.104642E+0	1.029088E+0	1.058865E+0	1.173344E+0	9.546684E-1	9.291577E-1	9.556043E-1	1.149301E+0	1.088727E+0	9.409673E-1	9.054512E-1	1.101670E+0	1.095931E+0	1.014502E+0	9.769766E-1	1.090701E+0	1.097255E+0	1.033428E+0	1.130423E+0	1.116393E+0	9.740103E-1	9.342310E-1	9.702306E-1	1.163603E+0	9.668092E-1	8.756572E-1	9.243536E-1	1.170666E+0	1.056089E+0	9.631840E-1	1.075123E+0	1.124163E+0	1.077694E+0	1.102554E+0	1.107039E+0	1.163063E+0	9.798201E-1	1.021201E+0	1.004341E+0	1.124466E+0	1.001492E+0	9.650723E-1	8.568540E-1
2.870120E+2	8.561286E-1	1.116018E+0	1.011864E+0	9.931688E-1	9.295361E-1	1.041614E+0	8.136024E-1	8.103465E-1	9.884633E-1	1.040652E+0	8.934459E-1	7.358246E-1	8.531078E-1	9.904709E-1	9.136843E-1	9.130962E-1	8.219386E-1	1.051471E+0	9.731517E-1	9.656642E-1	9.766689E-1	1.012898E+0	8.582786E-1	9.026309E-1	1.008446E+0	9.356361E-1	8.915717E-1	8.554922E-1	9.113081E-1	1.106954E+0	8.360999E-1	9.087894E-1	8.860599E-1	9.761407E-1	9.912527E-1	9.798417E-1	9.979029E-1	9.095044E-1	8.741764E-1	8.373608E-1	1.022747E+0	8.468110E-1	8.826971E-1	9.118160E-1	9.281503E-1	8.879312E-1	9.617719E-1	9.175452E-1	8.838269E-1	9.320214E-1	9.847494E-1	1.000973E+0	9.158767E-1	8.949671E-1	9.368568E-1	8.997594E-1	1.018086E+0	8.624195E-1	9.561279E-1	9.307970E-1	9.717765E-1	9.184702E-1	9.114473E-1	9.888656E-1	9.895295E-1	9.540576E-1	1.002470E+0	1.017898E+0	1.058313E+0	8.245070E-1	8.904222E-1	8.495048E-1	1.015712E+0	8.293797E-1	9.155125E-1	8.173200E-1	1.040707E+0	9.445436E-1	9.847708E-1	9.462727E-1	9.902070E-1	9.782212E-1	9.758241E-1	1.069793E+0	1.041077E+0	8.761213E-1	8.170548E-1	8.736497E-1	1.064398E+0	9.029366E-1	7.000422E-1	8.066542E-1	1.048955E+0	9.734668E-1	8.974859E-1	9.375834E-1	1.006869E+0	1.009162E+0	1.063437E+0	9.645531E-1	1.069943E+0	8.193884E-1	8.342359E-1	9.108669E-1	1.039960E+0	8.841757E-1	8.651993E-1	9.027077E-1	1.002193E+0	9.642372E-1	9.372115E-1	9.384780E-1	1.034118E+0	1.002874E+0	1.034771E+0	1.000675E+0	1.066455E+0	8.511327E-1	8.816194E-1	9.080646E-1	9.624764E-1	8.039909E-1	8.979592E-1	8.497537E-1	1.027809E+0	8.803897E-1	9.949200E-1	9.054343E-1	1.018282E+0	1.016087E+0	9.809804E-1	9.384136E-1	9.865059E-1	8.862086E-1	8.235335E-1	8.334778E-1	1.029468E+0	9.094170E-1	8.422555E-1	7.804693E-1	1.050319E+0	9.414115E-1	9.353212E-1	9.176430E-1	1.021227E+0	9.511152E-1	9.466710E-1	9.660073E-1	1.013000E+0	8.793274E-1	8.461690E-1	8.615104E-1	1.009041E+0	8.731535E-1	8.077521E-1	8.120270E-1	9.766695E-1	9.376434E-1	8.653838E-1	9.202369E-1	1.009456E+0	9.858557E-1	1.035428E+0	9.262895E-1	1.046849E+0	8.772906E-1	9.512883E-1	9.152830E-1	1.010708E+0	8.439267E-1	8.994264E-1	8.529125E-1
2.872120E+2	6.121233E-1	7.494021E-1	7.648787E-1	6.893631E-1	7.395640E-1	7.742250E-1	6.446622E-1	5.786695E-1	7.928397E-1	7.807940E-1	6.542066E-1	5.684823E-1	7.068895E-1	7.564965E-1	6.750614E-1	6.990186E-1	6.228287E-1	7.402570E-1	7.163251E-1	7.445529E-1	6.706017E-1	6.945036E-1	6.167608E-1	6.474164E-1	7.332204E-1	7.503174E-1	6.606973E-1	6.115437E-1	6.521882E-1	7.571057E-1	6.599808E-1	7.044534E-1	6.882131E-1	7.279346E-1	7.389402E-1	7.255285E-1	7.469117E-1	7.688842E-1	6.285710E-1	6.054476E-1	7.703474E-1	7.626908E-1	6.593903E-1	6.509519E-1	6.631876E-1	7.291209E-1	7.333284E-1	6.574861E-1	6.846734E-1	7.275842E-1	7.019198E-1	7.392200E-1	6.828458E-1	6.985548E-1	6.561195E-1	6.306484E-1	7.795675E-1	7.121731E-1	7.129817E-1	6.799341E-1	7.506388E-1	7.482415E-1	7.353097E-1	7.197425E-1	7.017605E-1	6.991306E-1	7.333752E-1	7.225779E-1	7.075736E-1	6.084041E-1	6.228581E-1	5.774700E-1	7.496901E-1	5.897671E-1	6.620458E-1	6.271845E-1	7.325603E-1	6.866700E-1	7.048674E-1	7.073565E-1	6.874641E-1	6.918284E-1	7.437390E-1	7.551896E-1	7.456642E-1	6.271358E-1	6.080595E-1	6.328692E-1	8.013842E-1	6.736683E-1	5.365936E-1	5.879130E-1	7.406304E-1	7.012319E-1	6.381866E-1	6.847736E-1	7.817062E-1	7.015538E-1	7.720707E-1	7.356006E-1	7.342147E-1	5.832165E-1	6.452810E-1	6.645909E-1	8.013328E-1	6.798392E-1	6.070269E-1	6.730068E-1	7.350226E-1	7.421630E-1	7.190526E-1	6.941102E-1	7.761601E-1	7.279152E-1	6.638780E-1	7.452686E-1	7.993363E-1	5.975281E-1	6.862664E-1	6.523558E-1	7.424082E-1	5.976129E-1	6.956605E-1	6.319224E-1	7.731923E-1	6.828117E-1	6.815517E-1	6.597516E-1	7.089507E-1	7.543978E-1	7.102365E-1	7.434439E-1	7.800950E-1	6.095926E-1	6.489125E-1	6.210837E-1	8.251601E-1	6.911267E-1	5.906377E-1	5.969042E-1	7.227310E-1	7.511597E-1	6.951706E-1	6.719638E-1	7.317559E-1	6.804462E-1	6.733424E-1	7.131395E-1	7.699364E-1	6.342711E-1	5.927846E-1	6.414808E-1	6.733071E-1	6.030273E-1	5.888499E-1	5.965037E-1	7.011040E-1	7.797151E-1	6.714701E-1	7.383751E-1	7.578423E-1	7.091803E-1	7.384443E-1	7.368881E-1	7.468796E-1	6.390344E-1	6.939741E-1	6.481096E-1	7.537447E-1	6.093707E-1	6.494649E-1	5.337882E-1
2.874030E+2	5.591787E-1	5.823358E-1	5.685854E-1	6.085897E-1	5.821858E-1	6.299058E-1	5.534344E-1	5.126079E-1	6.333298E-1	5.847272E-1	5.386273E-1	4.744699E-1	5.614784E-1	6.140001E-1	5.779569E-1	5.666628E-1	5.131350E-1	5.828620E-1	6.288754E-1	5.795281E-1	6.065407E-1	6.611948E-1	5.233944E-1	5.189415E-1	5.464238E-1	6.056484E-1	5.131032E-1	5.076938E-1	5.669743E-1	6.031741E-1	5.547881E-1	5.560883E-1	5.981140E-1	6.156760E-1	6.168204E-1	5.973377E-1	6.367596E-1	6.160718E-1	5.125651E-1	5.335855E-1	5.983416E-1	6.103877E-1	5.327831E-1	5.163711E-1	5.635072E-1	6.285975E-1	5.754615E-1	5.559240E-1	6.050128E-1	6.133392E-1	5.771410E-1	6.331571E-1	5.755166E-1	6.584365E-1	5.361927E-1	5.605940E-1	6.055142E-1	6.326816E-1	5.522943E-1	5.382841E-1	5.474298E-1	6.461043E-1	5.969147E-1	5.660948E-1	5.720604E-1	6.048271E-1	5.942665E-1	6.297303E-1	6.050235E-1	6.437044E-1	5.462844E-1	5.063906E-1	6.320804E-1	6.410456E-1	5.253347E-1	5.088151E-1	6.056251E-1	6.312142E-1	5.846327E-1	5.782369E-1	6.177538E-1	6.101571E-1	5.696744E-1	6.317106E-1	6.323088E-1	5.450621E-1	5.455394E-1	5.386512E-1	6.627034E-1	5.815503E-1	4.303518E-1	5.112602E-1	5.910292E-1	5.599335E-1	5.356724E-1	5.228043E-1	6.248962E-1	5.577923E-1	5.812445E-1	6.286773E-1	6.502820E-1	4.778474E-1	5.319086E-1	5.585306E-1	5.615732E-1	5.675550E-1	5.293733E-1	4.983566E-1	6.378689E-1	6.597054E-1	5.941154E-1	6.252736E-1	6.732134E-1	5.534019E-1	6.440096E-1	6.489841E-1	6.297054E-1	5.407889E-1	5.307433E-1	5.035495E-1	6.186832E-1	4.929431E-1	5.672172E-1	5.064750E-1	6.613153E-1	5.286469E-1	5.958285E-1	5.645196E-1	6.683647E-1	6.121107E-1	5.983593E-1	5.566417E-1	6.457498E-1	5.485335E-1	4.955867E-1	4.954169E-1	6.247833E-1	5.764135E-1	5.219270E-1	4.914509E-1	6.147156E-1	6.159550E-1	5.646537E-1	5.551502E-1	6.064933E-1	6.145791E-1	6.285647E-1	5.747394E-1	6.384277E-1	5.321639E-1	5.038927E-1	5.457026E-1	6.251977E-1	5.527486E-1	4.735909E-1	4.841765E-1	6.305605E-1	5.738441E-1	5.669249E-1	5.660860E-1	6.172339E-1	5.940925E-1	5.848667E-1	5.628685E-1	6.008674E-1	5.628702E-1	5.988172E-1	5.414081E-1	6.466774E-1	4.965680E-1	5.989688E-1	4.983298E-1
2.876180E+2	4.199107E-1	5.011240E-1	4.596531E-1	4.892386E-1	4.303939E-1	4.678799E-1	3.971648E-1	3.935129E-1	4.878656E-1	4.618350E-1	4.295149E-1	3.766971E-1	4.314175E-1	4.424781E-1	4.251482E-1	4.440796E-1	3.960656E-1	4.672006E-1	4.456911E-1	4.349961E-1	4.278041E-1	4.760352E-1	4.169109E-1	4.060909E-1	4.709110E-1	4.729361E-1	4.034389E-1	3.881685E-1	4.678486E-1	5.042170E-1	4.432195E-1	4.654695E-1	3.984090E-1	4.797287E-1	4.452468E-1	4.577751E-1	4.581551E-1	4.827667E-1	4.074352E-1	3.939481E-1	4.964466E-1	4.961599E-1	3.932152E-1	4.426290E-1	4.280434E-1	4.664078E-1	4.435952E-1	4.151231E-1	4.279868E-1	4.710349E-1	5.230710E-1	4.589791E-1	4.749561E-1	4.745600E-1	4.262598E-1	3.931465E-1	4.690640E-1	4.754471E-1	4.370640E-1	4.604295E-1	4.647519E-1	4.731880E-1	4.585211E-1	4.382137E-1	4.676936E-1	5.115604E-1	4.494560E-1	4.664088E-1	4.955791E-1	4.921739E-1	4.125022E-1	3.712511E-1	5.079359E-1	5.226376E-1	4.305338E-1	3.606213E-1	4.778141E-1	5.212250E-1	4.586286E-1	4.368183E-1	4.793289E-1	4.718605E-1	4.748323E-1	4.899790E-1	4.648496E-1	5.146308E-1	4.142487E-1	4.051757E-1	4.962859E-1	4.546337E-1	3.159384E-1	3.616936E-1	4.824760E-1	4.704452E-1	4.073149E-1	4.011134E-1	4.359200E-1	4.880248E-1	4.694170E-1	4.589974E-1	4.824183E-1	4.651303E-1	4.193949E-1	4.749403E-1	4.688374E-1	4.279595E-1	4.254989E-1	4.043874E-1	4.567198E-1	4.638683E-1	5.124254E-1	4.497427E-1	5.158350E-1	4.539699E-1	4.651862E-1	4.685772E-1	5.000461E-1	3.972228E-1	3.894444E-1	3.940823E-1	4.716342E-1	3.576618E-1	4.291413E-1	3.946416E-1	4.954292E-1	4.338444E-1	4.424786E-1	4.244717E-1	4.961480E-1	5.016650E-1	4.338991E-1	4.515015E-1	5.096251E-1	4.356676E-1	3.891105E-1	3.918744E-1	4.803926E-1	4.204919E-1	4.057958E-1	3.781876E-1	5.040446E-1	4.643328E-1	4.672012E-1	4.429721E-1	5.075467E-1	4.725554E-1	4.699784E-1	4.633934E-1	4.851511E-1	4.272720E-1	3.950620E-1	3.748562E-1	4.849672E-1	3.752941E-1	3.395689E-1	3.554108E-1	4.564031E-1	4.187361E-1	4.058918E-1	4.764609E-1	4.790929E-1	3.964669E-1	4.363746E-1	4.138467E-1	5.164391E-1	4.320236E-1	4.230669E-1	3.809355E-1	4.807226E-1	4.106237E-1	3.818317E-1	3.880148E-1
2.878020E+2	3.439461E-1	3.897472E-1	3.669001E-1	3.807353E-1	3.465829E-1	3.837676E-1	3.228311E-1	3.228000E-1	3.624655E-1	4.318148E-1	3.042368E-1	3.118278E-1	3.546728E-1	3.492397E-1	3.558946E-1	3.445913E-1	3.296961E-1	3.861184E-1	3.867777E-1	3.713598E-1	3.408078E-1	3.653323E-1	3.243160E-1	3.479308E-1	3.765191E-1	3.892435E-1	3.209834E-1	2.921570E-1	3.582876E-1	3.862687E-1	3.181034E-1	3.561936E-1	3.287448E-1	3.993973E-1	3.624885E-1	3.781729E-1	3.629521E-1	3.844142E-1	3.376515E-1	3.555676E-1	3.665078E-1	3.819326E-1	3.304106E-1	3.071267E-1	3.718138E-1	4.072759E-1	3.488751E-1	3.297190E-1	3.527510E-1	4.129103E-1	3.515006E-1	4.093535E-1	3.714933E-1	3.993386E-1	3.390412E-1	3.529936E-1	3.841856E-1	3.994500E-1	3.376905E-1	3.501367E-1	3.681285E-1	3.925534E-1	4.023887E-1	3.933597E-1	3.643396E-1	3.809877E-1	3.787626E-1	4.171890E-1	4.292226E-1	3.923016E-1	3.341695E-1	2.834983E-1	3.800583E-1	3.902447E-1	3.526975E-1	3.261358E-1	3.928981E-1	4.417368E-1	3.634041E-1	4.051976E-1	3.667956E-1	4.076133E-1	3.811050E-1	3.611307E-1	4.201936E-1	4.159589E-1	2.981396E-1	3.414916E-1	4.025569E-1	3.891279E-1	2.941447E-1	2.981281E-1	3.739240E-1	3.526962E-1	3.530431E-1	3.591218E-1	3.886759E-1	3.738614E-1	4.211981E-1	3.683461E-1	4.294087E-1	3.951875E-1	3.730150E-1	3.500050E-1	4.213376E-1	3.814275E-1	3.347350E-1	3.455380E-1	3.818311E-1	4.010879E-1	4.038268E-1	3.679997E-1	4.081557E-1	3.545386E-1	4.210319E-1	4.006716E-1	4.045067E-1	3.980829E-1	3.382364E-1	3.444799E-1	3.935443E-1	3.892604E-1	3.766932E-1	3.401836E-1	3.893389E-1	3.797987E-1	3.367529E-1	3.340416E-1	4.051038E-1	3.892286E-1	3.913852E-1	4.055663E-1	4.135374E-1	3.339022E-1	3.601493E-1	2.962967E-1	3.929732E-1	3.447576E-1	3.128908E-1	2.746879E-1	3.889457E-1	3.571351E-1	3.688784E-1	3.586067E-1	4.149168E-1	3.624352E-1	3.636316E-1	3.853481E-1	3.735957E-1	3.353751E-1	3.261081E-1	3.739933E-1	3.754445E-1	3.368456E-1	3.011493E-1	3.170545E-1	3.671210E-1	3.444710E-1	3.308555E-1	3.877050E-1	3.976880E-1	3.708918E-1	3.773859E-1	3.369317E-1	4.071784E-1	3.168013E-1	3.599523E-1	3.582515E-1	4.191588E-1	2.494778E-1	3.692075E-1	2.973991E-1
2.880040E+2	3.404933E-1	4.001885E-1	4.014129E-1	4.277532E-1	3.847637E-1	4.492866E-1	3.481719E-1	3.116348E-1	4.397119E-1	4.017947E-1	3.268676E-1	3.184085E-1	3.352845E-1	4.407181E-1	4.168683E-1	3.659103E-1	3.462886E-1	4.028113E-1	3.886186E-1	4.047964E-1	4.151507E-1	4.319497E-1	3.451495E-1	3.722361E-1	3.963909E-1	4.119591E-1	3.490178E-1	3.313456E-1	3.669829E-1	3.762727E-1	3.324476E-1	3.721859E-1	3.677567E-1	3.932178E-1	4.008396E-1	4.174572E-1	3.936369E-1	4.413127E-1	3.449011E-1	3.408686E-1	3.889428E-1	4.279778E-1	3.443671E-1	3.476851E-1	3.641460E-1	4.191020E-1	4.175939E-1	3.643430E-1	3.981136E-1	4.199255E-1	3.431827E-1	4.044883E-1	3.772955E-1	4.377851E-1	3.717479E-1	3.717878E-1	4.045992E-1	4.265294E-1	3.556623E-1	3.814954E-1	3.970160E-1	4.158488E-1	4.091637E-1	3.275106E-1	3.805524E-1	3.882426E-1	3.753411E-1	4.171896E-1	3.688989E-1	4.232962E-1	3.280088E-1	3.300075E-1	3.884591E-1	4.228761E-1	3.986012E-1	3.149519E-1	4.042793E-1	3.890528E-1	3.816793E-1	3.753326E-1	4.016505E-1	4.206805E-1	3.744096E-1	3.847531E-1	4.468163E-1	4.141144E-1	3.758433E-1	3.467256E-1	4.733316E-1	4.433744E-1	2.741677E-1	3.130842E-1	4.049389E-1	4.167515E-1	3.504586E-1	4.191096E-1	3.725929E-1	4.002886E-1	3.893935E-1	4.090231E-1	3.737483E-1	3.924621E-1	3.781677E-1	3.419160E-1	4.450869E-1	4.451561E-1	3.760837E-1	3.740139E-1	4.263594E-1	4.048362E-1	3.951771E-1	4.006965E-1	3.572737E-1	4.022259E-1	4.022671E-1	4.412130E-1	4.132808E-1	3.929246E-1	3.704782E-1	3.624384E-1	4.412101E-1	3.744483E-1	3.520747E-1	3.236515E-1	4.365970E-1	3.762539E-1	3.958072E-1	3.876597E-1	4.094911E-1	3.852478E-1	3.969799E-1	3.575894E-1	4.046410E-1	4.051384E-1	3.294836E-1	3.237315E-1	3.959206E-1	3.915345E-1	3.699888E-1	3.010505E-1	4.287870E-1	4.083198E-1	3.384245E-1	3.780752E-1	3.896537E-1	4.313897E-1	3.561696E-1	3.697389E-1	4.017116E-1	3.604379E-1	3.385694E-1	3.325758E-1	4.225288E-1	4.058557E-1	3.047228E-1	3.161417E-1	4.387677E-1	4.337765E-1	3.671090E-1	3.511595E-1	4.087888E-1	3.615917E-1	3.885726E-1	3.869269E-1	4.588290E-1	3.392595E-1	3.463582E-1	3.439681E-1	4.445866E-1	3.622799E-1	3.540578E-1	3.643757E-1
2.882060E+2	4.486840E-1	4.431154E-1	4.909312E-1	5.398720E-1	4.592625E-1	5.103780E-1	4.123692E-1	4.046782E-1	4.928811E-1	5.153074E-1	4.351719E-1	3.597744E-1	4.378798E-1	4.767820E-1	4.673022E-1	4.502971E-1	4.080494E-1	4.910483E-1	4.659427E-1	5.051053E-1	4.657661E-1	4.544825E-1	4.377441E-1	4.642528E-1	4.748849E-1	5.016306E-1	4.257008E-1	3.793515E-1	4.756738E-1	4.972202E-1	4.376408E-1	4.281556E-1	4.002665E-1	4.807588E-1	4.936914E-1	5.229043E-1	4.675971E-1	4.762645E-1	4.237486E-1	4.282450E-1	4.861644E-1	4.616267E-1	4.191353E-1	4.601427E-1	4.996095E-1	5.010417E-1	4.575252E-1	4.266638E-1	4.921586E-1	4.860669E-1	4.981153E-1	5.037398E-1	4.836583E-1	5.096639E-1	4.199001E-1	4.597836E-1	4.293105E-1	4.841816E-1	4.444640E-1	4.571859E-1	4.478176E-1	4.525811E-1	4.769091E-1	5.011997E-1	4.636402E-1	5.022344E-1	4.996262E-1	4.473927E-1	4.585229E-1	5.205853E-1	4.195439E-1	4.282903E-1	4.762004E-1	4.853438E-1	4.574775E-1	4.333206E-1	4.996990E-1	4.897986E-1	4.653619E-1	4.763449E-1	4.753450E-1	5.219533E-1	4.692528E-1	5.157480E-1	5.137995E-1	4.860436E-1	4.347903E-1	3.999412E-1	4.934168E-1	5.006928E-1	3.413637E-1	4.149769E-1	4.724419E-1	4.939953E-1	4.133451E-1	4.345358E-1	4.982417E-1	4.964812E-1	4.714690E-1	4.787548E-1	5.274768E-1	4.660390E-1	4.202533E-1	4.551667E-1	5.208602E-1	5.007923E-1	4.355845E-1	4.243201E-1	5.123803E-1	4.919795E-1	4.634124E-1	4.351151E-1	5.288515E-1	4.752775E-1	5.126520E-1	4.706049E-1	5.214935E-1	4.840503E-1	4.046178E-1	4.205933E-1	4.949588E-1	5.067669E-1	4.419857E-1	4.150633E-1	4.848198E-1	4.737146E-1	5.186769E-1	4.044650E-1	4.994384E-1	4.598743E-1	4.618685E-1	4.800832E-1	5.078462E-1	4.532450E-1	3.967764E-1	4.016093E-1	4.902148E-1	4.828600E-1	3.941827E-1	3.596360E-1	5.111265E-1	4.894423E-1	4.393579E-1	4.717114E-1	4.801790E-1	4.951970E-1	4.802399E-1	4.509060E-1	4.824304E-1	5.238097E-1	4.216460E-1	3.972907E-1	5.085098E-1	4.827532E-1	4.119415E-1	3.937662E-1	4.938799E-1	5.334223E-1	3.848149E-1	4.799414E-1	4.938938E-1	5.243417E-1	4.963823E-1	4.897998E-1	5.482229E-1	4.740120E-1	4.269510E-1	4.464687E-1	4.793834E-1	5.520739E-1	4.702013E-1	3.801350E-1
2.884150E+2	5.534232E-1	6.797909E-1	6.332979E-1	6.230567E-1	5.989473E-1	6.334481E-1	5.331618E-1	5.209820E-1	6.433615E-1	6.869823E-1	5.297375E-1	4.960923E-1	5.590554E-1	6.324717E-1	5.794623E-1	6.093005E-1	5.444756E-1	6.782536E-1	6.049416E-1	6.496361E-1	5.891415E-1	6.141701E-1	5.642907E-1	5.258855E-1	6.716172E-1	7.036879E-1	5.510328E-1	5.194505E-1	5.721913E-1	6.591486E-1	5.818833E-1	6.156119E-1	5.721063E-1	6.568713E-1	6.672826E-1	6.314528E-1	6.808207E-1	6.331414E-1	5.442860E-1	5.662504E-1	6.563000E-1	6.298682E-1	5.666776E-1	5.615383E-1	5.975857E-1	6.623869E-1	6.051774E-1	5.759293E-1	5.552236E-1	7.025305E-1	6.582476E-1	6.584564E-1	5.610120E-1	6.350335E-1	5.371020E-1	5.657202E-1	6.871683E-1	6.859671E-1	5.787223E-1	6.020805E-1	6.490341E-1	7.034442E-1	6.017536E-1	6.233544E-1	6.196838E-1	6.690776E-1	6.615406E-1	6.095955E-1	6.084708E-1	6.669496E-1	5.506859E-1	5.283284E-1	6.600830E-1	6.298579E-1	5.762266E-1	5.050873E-1	6.213821E-1	6.598665E-1	6.211849E-1	6.081007E-1	6.147652E-1	6.765827E-1	5.875274E-1	6.499641E-1	6.099795E-1	6.455788E-1	5.741201E-1	5.848884E-1	6.512262E-1	6.480795E-1	4.457888E-1	5.056507E-1	6.019754E-1	6.974642E-1	5.985590E-1	5.639398E-1	6.922434E-1	6.243876E-1	6.017635E-1	5.961366E-1	6.635347E-1	6.340837E-1	5.696989E-1	5.648227E-1	6.497868E-1	6.606190E-1	5.606367E-1	5.448667E-1	6.247136E-1	6.756351E-1	6.296742E-1	6.123675E-1	6.519143E-1	6.132638E-1	6.362827E-1	6.459443E-1	6.472536E-1	6.413715E-1	5.582446E-1	5.403230E-1	6.693909E-1	6.914210E-1	5.929064E-1	5.677401E-1	6.372032E-1	6.810390E-1	6.139254E-1	5.661204E-1	6.025494E-1	6.409668E-1	5.961217E-1	6.189094E-1	6.555376E-1	6.058924E-1	5.236961E-1	5.547094E-1	6.552328E-1	7.000364E-1	5.383794E-1	4.855932E-1	6.262253E-1	6.661728E-1	5.663939E-1	5.403169E-1	6.085993E-1	6.145794E-1	5.987139E-1	6.454995E-1	6.574730E-1	6.472668E-1	5.080469E-1	5.120511E-1	6.211039E-1	6.365473E-1	4.673368E-1	5.307508E-1	6.570134E-1	6.528081E-1	5.272993E-1	5.939304E-1	6.665693E-1	6.301299E-1	6.448743E-1	5.936345E-1	6.564916E-1	6.370811E-1	5.551228E-1	5.187237E-1	6.359696E-1	5.968362E-1	5.408969E-1	4.589313E-1
2.886010E+2	7.306728E-1	8.398949E-1	7.789004E-1	7.604922E-1	7.879884E-1	8.060993E-1	7.122379E-1	6.540338E-1	7.948447E-1	8.267615E-1	6.469323E-1	6.615553E-1	7.311247E-1	7.784866E-1	7.473263E-1	6.990185E-1	7.380546E-1	8.368408E-1	7.789209E-1	7.672030E-1	7.789507E-1	7.552438E-1	6.892935E-1	7.394323E-1	8.007845E-1	8.244449E-1	7.464509E-1	6.673873E-1	7.487051E-1	8.270755E-1	7.611899E-1	7.497629E-1	7.355850E-1	8.165071E-1	8.257359E-1	7.937585E-1	7.799570E-1	8.452907E-1	6.883863E-1	7.018053E-1	7.731518E-1	8.291019E-1	7.072417E-1	6.850577E-1	7.637194E-1	8.152846E-1	7.834743E-1	7.475063E-1	7.565903E-1	7.957298E-1	8.277370E-1	8.501485E-1	7.853404E-1	8.523417E-1	6.897351E-1	7.519618E-1	8.021298E-1	8.257317E-1	7.320105E-1	7.696822E-1	8.034329E-1	7.715354E-1	8.291847E-1	7.579167E-1	7.828215E-1	8.338476E-1	8.234538E-1	7.863400E-1	8.075380E-1	8.658333E-1	6.879884E-1	6.503050E-1	8.224966E-1	8.312452E-1	6.989683E-1	6.653986E-1	8.069707E-1	7.624606E-1	8.058633E-1	7.521531E-1	8.149352E-1	7.832994E-1	7.716331E-1	8.593418E-1	8.624553E-1	8.244802E-1	6.911224E-1	7.096394E-1	7.937326E-1	8.179837E-1	5.683749E-1	6.533483E-1	8.263773E-1	8.029673E-1	6.907353E-1	6.830594E-1	8.581007E-1	7.818909E-1	7.802770E-1	8.053322E-1	8.031274E-1	8.439142E-1	6.839309E-1	7.194194E-1	8.759737E-1	8.457365E-1	7.472067E-1	6.549725E-1	8.159838E-1	8.611653E-1	8.026634E-1	7.629460E-1	8.495242E-1	7.745875E-1	7.753673E-1	8.030390E-1	8.100596E-1	8.201849E-1	7.498037E-1	6.651838E-1	8.235395E-1	8.365773E-1	7.384746E-1	7.340309E-1	8.050188E-1	8.343181E-1	8.339495E-1	6.917624E-1	8.208372E-1	8.041487E-1	7.986198E-1	7.475270E-1	7.881026E-1	8.020215E-1	6.966140E-1	6.777219E-1	8.497172E-1	7.969303E-1	6.864458E-1	5.744468E-1	8.130387E-1	7.955837E-1	6.882104E-1	7.396411E-1	8.159664E-1	7.864493E-1	7.768900E-1	7.724543E-1	8.234463E-1	8.143505E-1	6.683844E-1	6.958408E-1	8.135370E-1	8.021709E-1	6.094000E-1	6.567771E-1	8.421924E-1	8.661995E-1	6.891753E-1	7.453359E-1	7.997771E-1	8.277553E-1	7.913319E-1	7.791911E-1	8.650800E-1	8.479976E-1	7.522340E-1	6.842372E-1	8.273529E-1	8.457170E-1	6.772400E-1	6.322835E-1
2.888180E+2	6.788790E-1	7.865269E-1	7.950779E-1	7.882198E-1	8.317568E-1	8.804725E-1	7.071697E-1	7.219562E-1	8.008649E-1	8.061231E-1	7.018926E-1	6.784771E-1	7.593994E-1	8.462163E-1	7.390458E-1	7.141191E-1	7.113225E-1	9.000374E-1	8.516420E-1	8.071105E-1	7.670880E-1	7.846342E-1	7.163003E-1	6.856114E-1	7.938285E-1	8.638996E-1	7.011013E-1	6.468130E-1	7.017516E-1	8.420694E-1	7.699564E-1	8.075099E-1	7.513754E-1	8.710906E-1	8.045420E-1	8.320089E-1	8.334606E-1	8.322855E-1	7.046992E-1	6.536256E-1	8.498066E-1	8.565514E-1	6.723498E-1	6.638564E-1	7.526442E-1	7.916318E-1	7.509723E-1	7.667418E-1	7.665486E-1	8.247913E-1	7.975827E-1	8.044148E-1	8.075808E-1	8.665506E-1	7.360707E-1	7.511074E-1	8.773382E-1	8.362135E-1	7.616106E-1	7.242679E-1	8.084132E-1	8.226033E-1	8.398304E-1	7.321498E-1	7.564768E-1	7.913602E-1	7.767039E-1	7.952880E-1	8.256352E-1	8.417251E-1	6.888682E-1	6.897933E-1	8.495654E-1	8.340420E-1	7.099458E-1	6.458250E-1	7.982164E-1	8.419486E-1	7.847024E-1	7.846527E-1	8.049765E-1	8.475476E-1	7.995293E-1	7.959916E-1	8.555854E-1	8.410784E-1	7.616805E-1	7.279599E-1	8.405969E-1	8.558544E-1	5.829040E-1	6.281091E-1	8.181670E-1	8.189811E-1	7.226098E-1	7.319081E-1	8.369910E-1	8.019760E-1	8.151594E-1	8.820370E-1	8.110792E-1	8.820652E-1	7.217215E-1	7.239129E-1	8.804975E-1	8.609093E-1	7.472057E-1	6.540229E-1	8.412830E-1	8.077544E-1	7.930531E-1	7.835976E-1	7.986432E-1	8.303911E-1	8.239372E-1	8.030395E-1	8.724526E-1	8.433949E-1	7.848902E-1	7.002479E-1	7.799320E-1	8.632377E-1	7.448973E-1	6.844358E-1	8.281669E-1	8.068507E-1	8.015652E-1	7.437806E-1	8.712955E-1	8.001685E-1	8.422535E-1	7.832550E-1	8.539408E-1	8.381010E-1	7.042806E-1	6.458625E-1	8.163204E-1	8.414797E-1	6.980584E-1	6.291262E-1	8.369431E-1	8.168300E-1	7.821819E-1	7.665276E-1	8.022819E-1	8.595194E-1	7.591658E-1	7.818186E-1	8.143770E-1	8.301313E-1	6.808460E-1	7.061955E-1	8.647170E-1	8.347049E-1	6.773040E-1	6.394256E-1	8.113307E-1	8.285976E-1	7.473494E-1	7.244532E-1	8.589815E-1	8.045060E-1	8.015028E-1	7.695766E-1	9.048110E-1	8.167506E-1	7.415539E-1	7.228846E-1	7.657894E-1	8.278119E-1	7.984305E-1	6.047048E-1
2.890230E+2	6.800300E-1	7.749258E-1	7.411524E-1	7.665201E-1	7.190783E-1	8.406294E-1	7.477155E-1	6.651993E-1	7.617403E-1	7.310732E-1	7.495787E-1	6.089082E-1	6.761915E-1	7.916804E-1	7.699089E-1	6.856945E-1	6.827461E-1	7.974921E-1	7.743178E-1	7.618104E-1	7.338713E-1	7.199753E-1	6.561140E-1	6.500208E-1	7.262643E-1	8.196621E-1	6.211194E-1	5.919498E-1	7.287066E-1	7.391138E-1	6.934512E-1	6.929040E-1	6.919285E-1	7.783998E-1	7.550876E-1	7.658462E-1	7.311756E-1	7.664455E-1	6.376342E-1	6.960891E-1	7.881089E-1	8.078504E-1	7.072414E-1	6.684655E-1	7.245296E-1	7.907866E-1	7.491146E-1	6.759523E-1	7.355686E-1	8.107621E-1	7.705472E-1	7.664650E-1	7.321594E-1	7.545533E-1	6.715650E-1	6.579866E-1	7.741963E-1	7.881696E-1	6.907812E-1	6.918293E-1	7.117901E-1	7.724323E-1	7.120823E-1	7.121081E-1	7.260785E-1	7.312554E-1	7.778438E-1	7.371197E-1	8.127093E-1	7.625169E-1	7.214340E-1	6.432848E-1	8.028942E-1	7.436037E-1	7.099454E-1	5.982907E-1	7.290583E-1	7.485965E-1	7.135242E-1	7.398561E-1	7.760968E-1	7.832992E-1	7.571284E-1	7.809588E-1	7.636979E-1	7.912819E-1	6.643282E-1	6.860854E-1	7.851248E-1	7.872789E-1	6.628118E-1	6.870009E-1	6.959323E-1	7.407964E-1	6.511090E-1	6.967711E-1	8.279450E-1	8.210022E-1	7.813039E-1	7.204918E-1	7.775056E-1	7.657962E-1	7.011087E-1	6.591981E-1	8.216890E-1	7.587411E-1	6.685440E-1	6.407349E-1	7.623471E-1	8.246210E-1	7.584558E-1	7.706909E-1	7.749760E-1	7.624120E-1	7.488745E-1	7.361474E-1	7.895868E-1	7.505503E-1	6.957493E-1	6.532113E-1	7.373383E-1	8.079402E-1	6.549877E-1	6.085843E-1	7.500456E-1	7.749560E-1	7.129844E-1	6.613517E-1	7.791534E-1	7.573829E-1	7.102369E-1	6.821977E-1	7.818748E-1	7.585400E-1	6.531712E-1	6.414375E-1	7.141672E-1	7.668599E-1	6.361220E-1	5.842105E-1	8.050701E-1	7.028720E-1	7.238845E-1	7.248082E-1	7.380722E-1	7.329325E-1	7.582323E-1	6.840015E-1	7.527035E-1	7.892878E-1	6.467848E-1	6.259488E-1	7.818063E-1	7.854113E-1	5.933166E-1	6.494716E-1	7.639328E-1	7.778349E-1	6.942344E-1	7.096603E-1	7.923771E-1	7.800930E-1	7.374277E-1	7.436178E-1	8.144215E-1	7.542567E-1	6.978586E-1	6.052610E-1	7.122562E-1	7.991646E-1	6.166430E-1	5.889455E-1
2.892040E+2	5.557252E-1	6.217823E-1	7.228173E-1	6.013566E-1	6.920713E-1	6.679787E-1	6.801400E-1	5.535472E-1	6.985380E-1	6.710345E-1	6.558228E-1	5.534408E-1	5.954075E-1	6.702944E-1	6.810841E-1	6.110777E-1	5.721300E-1	7.187946E-1	6.887093E-1	6.410084E-1	5.756974E-1	6.631537E-1	6.892934E-1	6.005408E-1	6.278989E-1	6.666248E-1	6.903817E-1	5.488418E-1	5.521925E-1	6.351597E-1	6.966398E-1	6.342690E-1	6.148329E-1	7.063070E-1	6.561804E-1	6.490279E-1	6.580031E-1	6.721567E-1	5.832564E-1	6.127959E-1	6.974317E-1	6.564328E-1	6.235021E-1	6.030189E-1	6.103656E-1	7.130708E-1	6.339651E-1	5.682352E-1	6.249275E-1	6.895028E-1	6.832024E-1	7.012711E-1	6.403004E-1	6.550931E-1	6.152351E-1	6.050182E-1	6.431173E-1	6.562669E-1	5.628659E-1	5.966740E-1	6.520217E-1	6.416253E-1	6.424006E-1	6.529394E-1	6.419771E-1	6.866941E-1	6.489973E-1	5.760359E-1	6.808587E-1	7.039711E-1	6.105357E-1	5.344714E-1	6.656830E-1	6.941892E-1	5.732334E-1	5.134763E-1	6.511464E-1	6.709579E-1	6.904385E-1	6.274245E-1	6.575882E-1	6.722276E-1	6.488955E-1	6.403007E-1	6.546356E-1	6.916877E-1	5.634027E-1	5.683124E-1	6.655720E-1	6.941385E-1	5.629269E-1	5.112603E-1	6.357260E-1	6.974650E-1	5.856373E-1	6.076452E-1	7.334570E-1	6.560996E-1	6.551124E-1	6.344888E-1	6.697193E-1	6.940353E-1	5.362025E-1	6.196500E-1	7.255593E-1	6.848977E-1	6.453483E-1	5.591042E-1	6.530491E-1	7.065567E-1	6.594673E-1	6.209720E-1	6.507313E-1	6.548632E-1	6.506318E-1	6.621606E-1	6.813745E-1	6.817757E-1	6.388511E-1	5.873595E-1	6.409944E-1	6.726591E-1	5.929065E-1	6.017753E-1	6.989294E-1	6.819247E-1	6.425010E-1	5.845266E-1	6.771394E-1	6.827565E-1	6.699605E-1	6.413660E-1	6.795592E-1	6.706522E-1	5.296590E-1	5.715249E-1	6.729125E-1	6.398953E-1	5.238624E-1	5.051205E-1	6.784625E-1	6.806593E-1	5.629135E-1	5.996505E-1	6.696508E-1	6.742710E-1	6.462894E-1	6.631902E-1	6.765191E-1	6.574771E-1	5.279849E-1	5.715885E-1	5.791363E-1	6.680951E-1	5.316677E-1	5.627143E-1	7.694450E-1	6.922904E-1	5.323579E-1	6.043726E-1	7.048058E-1	7.045308E-1	6.641991E-1	6.263229E-1	7.121153E-1	6.878575E-1	6.046429E-1	6.002204E-1	7.042253E-1	6.344377E-1	5.509966E-1	5.574270E-1
2.894020E+2	5.027799E-1	5.405703E-1	5.416226E-1	5.615720E-1	5.253806E-1	5.449083E-1	5.694839E-1	4.660863E-1	5.199679E-1	6.044279E-1	5.289280E-1	3.907986E-1	4.895810E-1	5.269200E-1	5.403187E-1	5.453444E-1	4.993081E-1	5.852476E-1	5.036841E-1	5.385418E-1	4.728839E-1	5.230603E-1	5.828100E-1	5.276222E-1	5.434433E-1	5.554336E-1	5.815413E-1	4.675255E-1	4.852389E-1	5.461987E-1	5.133487E-1	4.876798E-1	4.764333E-1	5.621215E-1	5.461726E-1	5.756282E-1	5.281807E-1	5.274729E-1	5.506293E-1	4.739742E-1	5.338396E-1	5.386636E-1	5.238107E-1	4.638299E-1	4.817185E-1	5.643974E-1	5.615312E-1	4.543632E-1	5.098615E-1	5.311641E-1	5.272302E-1	5.455814E-1	5.029967E-1	5.472751E-1	5.761687E-1	4.649096E-1	5.775792E-1	5.444552E-1	5.660366E-1	5.069259E-1	5.115688E-1	5.197768E-1	5.582033E-1	4.973825E-1	5.497683E-1	5.281415E-1	5.007667E-1	5.089174E-1	5.541792E-1	5.412481E-1	4.855548E-1	4.844525E-1	5.350045E-1	5.403522E-1	5.133604E-1	4.165431E-1	5.233354E-1	5.498775E-1	5.615488E-1	5.132369E-1	5.102004E-1	5.099743E-1	5.138846E-1	4.964205E-1	5.876524E-1	5.376852E-1	4.964173E-1	4.618810E-1	5.890583E-1	5.784798E-1	4.566852E-1	4.140417E-1	5.153157E-1	5.316746E-1	4.615870E-1	4.268228E-1	5.716212E-1	5.038815E-1	5.679075E-1	4.961884E-1	5.566319E-1	5.305326E-1	4.348547E-1	4.929172E-1	5.513951E-1	5.422660E-1	4.285247E-1	4.546944E-1	5.801844E-1	5.585074E-1	5.441404E-1	5.159972E-1	5.300349E-1	5.178912E-1	5.093406E-1	5.374975E-1	5.692629E-1	5.476665E-1	5.108285E-1	4.915756E-1	5.385676E-1	5.433030E-1	4.965745E-1	4.374304E-1	5.648698E-1	5.321908E-1	5.043903E-1	4.844920E-1	5.312493E-1	5.165898E-1	5.536082E-1	5.852237E-1	5.398753E-1	5.411330E-1	4.555518E-1	4.255036E-1	5.520965E-1	5.441151E-1	4.474095E-1	4.338424E-1	5.651347E-1	5.097228E-1	4.933044E-1	5.152853E-1	5.170201E-1	5.445967E-1	5.054268E-1	5.164644E-1	5.304994E-1	5.553700E-1	4.058614E-1	4.456111E-1	5.156752E-1	5.330321E-1	4.557211E-1	4.193369E-1	5.225385E-1	5.249608E-1	4.362436E-1	4.607983E-1	5.148611E-1	5.394548E-1	5.187572E-1	5.051832E-1	5.720620E-1	5.257648E-1	5.211373E-1	4.649527E-1	5.770837E-1	5.646074E-1	5.055496E-1	4.392323E-1
2.896060E+2	3.888345E-1	4.558761E-1	4.391610E-1	3.988195E-1	4.508808E-1	4.377760E-1	4.714981E-1	3.776957E-1	4.367024E-1	4.712152E-1	4.497205E-1	3.456728E-1	3.918331E-1	4.187279E-1	4.319228E-1	4.094360E-1	3.684119E-1	4.564690E-1	4.668635E-1	4.684332E-1	4.159405E-1	4.603603E-1	4.716963E-1	4.052232E-1	4.252049E-1	5.171735E-1	4.504377E-1	3.773919E-1	4.035031E-1	4.662339E-1	4.376413E-1	3.899537E-1	3.686858E-1	4.333838E-1	4.381819E-1	4.495049E-1	4.314034E-1	4.331842E-1	4.110608E-1	3.563840E-1	4.291399E-1	4.421459E-1	4.151474E-1	4.048356E-1	4.459353E-1	4.638736E-1	4.788833E-1	4.020430E-1	4.766680E-1	4.219296E-1	4.669209E-1	4.317339E-1	4.198405E-1	4.453070E-1	4.262601E-1	4.076703E-1	4.379063E-1	4.955376E-1	4.275496E-1	4.009586E-1	4.707288E-1	4.785639E-1	4.565856E-1	4.487113E-1	4.251360E-1	4.462748E-1	4.266526E-1	4.160704E-1	4.094017E-1	4.921734E-1	4.362668E-1	3.730060E-1	4.659326E-1	4.452528E-1	4.644625E-1	3.596896E-1	4.594302E-1	4.694656E-1	4.769041E-1	4.262778E-1	4.604067E-1	4.337482E-1	4.290847E-1	4.191122E-1	4.734373E-1	4.187255E-1	4.999899E-1	3.903449E-1	4.637678E-1	4.259742E-1	4.630407E-1	3.570197E-1	4.441631E-1	4.497214E-1	4.839851E-1	4.165390E-1	4.349149E-1	4.129733E-1	4.283799E-1	4.880521E-1	4.603306E-1	4.515050E-1	3.524022E-1	3.895531E-1	4.722294E-1	4.471797E-1	4.204569E-1	3.939465E-1	4.658285E-1	5.200898E-1	4.355417E-1	4.239293E-1	4.436544E-1	4.529551E-1	4.453173E-1	4.554021E-1	4.454519E-1	4.522421E-1	3.970307E-1	3.932264E-1	4.057143E-1	4.445578E-1	4.409154E-1	3.528257E-1	4.414199E-1	4.595381E-1	4.100942E-1	4.204708E-1	4.555622E-1	4.340040E-1	4.473244E-1	4.637512E-1	4.847141E-1	4.467689E-1	3.678146E-1	3.989539E-1	4.784285E-1	4.583585E-1	3.632138E-1	3.557300E-1	4.535776E-1	4.459839E-1	4.149944E-1	3.975452E-1	4.264948E-1	4.818182E-1	4.410596E-1	3.978355E-1	4.470593E-1	4.495494E-1	3.576769E-1	3.705419E-1	4.225287E-1	4.324739E-1	3.833495E-1	3.700222E-1	4.597097E-1	4.629176E-1	4.168524E-1	4.425255E-1	4.346899E-1	4.883040E-1	4.862117E-1	4.619183E-1	4.786939E-1	4.369067E-1	3.978216E-1	3.658124E-1	4.271886E-1	4.768726E-1	3.793068E-1	3.367971E-1
2.898030E+2	4.095517E-1	5.544923E-1	5.027948E-1	4.856207E-1	4.564681E-1	4.926706E-1	5.086655E-1	3.981648E-1	5.029131E-1	4.974825E-1	4.618441E-1	3.513131E-1	4.160682E-1	4.820603E-1	4.974128E-1	4.476326E-1	4.237202E-1	4.874707E-1	4.548962E-1	4.997119E-1	4.365038E-1	4.437065E-1	4.794124E-1	4.234533E-1	4.361344E-1	4.681538E-1	4.924896E-1	3.979662E-1	4.078508E-1	4.672331E-1	4.551731E-1	4.263782E-1	4.569270E-1	4.704602E-1	4.694690E-1	4.732826E-1	4.801855E-1	4.965849E-1	5.243473E-1	3.980306E-1	4.310092E-1	4.926184E-1	4.939033E-1	4.057571E-1	4.399708E-1	4.621839E-1	4.640248E-1	4.528241E-1	4.799880E-1	4.800544E-1	5.230703E-1	4.949827E-1	4.478814E-1	4.703819E-1	5.053032E-1	4.042532E-1	4.948500E-1	4.911700E-1	4.825212E-1	4.052839E-1	4.249070E-1	4.767716E-1	4.623919E-1	4.363058E-1	4.798526E-1	4.545655E-1	5.144495E-1	4.362062E-1	4.550762E-1	4.310446E-1	4.600301E-1	3.712511E-1	4.771336E-1	4.564413E-1	4.934013E-1	3.839220E-1	4.331677E-1	4.944205E-1	4.922944E-1	4.754670E-1	4.584152E-1	4.675051E-1	4.737166E-1	5.007155E-1	4.751551E-1	4.980322E-1	5.053488E-1	4.330920E-1	4.991560E-1	4.710109E-1	4.721218E-1	3.710418E-1	4.523734E-1	5.523987E-1	5.210277E-1	4.516751E-1	4.952265E-1	4.785113E-1	4.683919E-1	4.741065E-1	5.159910E-1	5.132734E-1	5.250371E-1	4.515714E-1	4.665754E-1	5.129318E-1	4.648304E-1	3.797088E-1	4.688637E-1	4.826083E-1	4.682175E-1	4.876025E-1	4.791529E-1	4.762923E-1	4.817436E-1	5.091188E-1	5.273424E-1	4.814711E-1	4.719476E-1	4.214488E-1	4.655489E-1	5.038052E-1	5.062065E-1	4.140910E-1	4.481709E-1	4.940927E-1	5.072475E-1	4.148688E-1	4.599502E-1	4.638537E-1	4.943128E-1	4.576267E-1	4.900520E-1	4.578702E-1	4.248857E-1	4.157687E-1	4.970919E-1	4.772912E-1	4.425706E-1	3.889275E-1	5.058148E-1	4.894424E-1	4.532804E-1	4.791284E-1	4.580737E-1	4.879929E-1	4.681127E-1	4.404999E-1	5.060119E-1	4.616173E-1	3.709695E-1	3.705413E-1	4.900852E-1	4.699368E-1	3.726277E-1	3.901128E-1	4.762434E-1	5.343614E-1	4.320281E-1	4.460058E-1	4.655251E-1	4.755175E-1	4.475621E-1	4.821082E-1	5.045196E-1	4.798709E-1	4.036472E-1	4.053012E-1	5.115042E-1	4.894058E-1	3.868811E-1	3.880147E-1
2.900050E+2	4.763078E-1	5.405696E-1	5.459363E-1	5.169663E-1	5.309678E-1	5.369404E-1	5.601918E-1	4.372432E-1	5.470546E-1	5.134311E-1	5.386271E-1	4.302839E-1	4.629226E-1	5.040496E-1	5.553748E-1	5.018180E-1	4.817934E-1	5.602069E-1	5.156507E-1	5.773707E-1	4.942371E-1	4.936703E-1	5.897542E-1	4.677249E-1	5.176096E-1	5.339120E-1	5.526820E-1	4.489107E-1	4.904563E-1	5.202105E-1	5.810863E-1	5.001179E-1	4.736466E-1	5.724205E-1	5.391079E-1	5.745936E-1	5.053631E-1	5.421040E-1	5.596931E-1	4.494768E-1	5.562744E-1	5.244958E-1	5.477365E-1	4.813437E-1	5.098328E-1	5.230051E-1	5.494595E-1	4.782143E-1	5.010100E-1	5.141272E-1	5.053934E-1	5.368233E-1	5.407066E-1	5.631551E-1	5.443697E-1	4.811422E-1	5.378259E-1	5.217439E-1	5.522934E-1	5.134137E-1	4.906512E-1	5.565105E-1	5.320722E-1	4.697067E-1	5.335567E-1	5.478316E-1	5.155899E-1	5.290528E-1	4.766202E-1	5.438312E-1	5.586071E-1	4.440858E-1	5.154037E-1	5.356905E-1	5.303238E-1	4.174755E-1	4.795647E-1	5.397103E-1	5.134546E-1	4.930343E-1	5.171714E-1	5.175972E-1	5.116532E-1	5.254111E-1	5.000586E-1	5.533617E-1	5.500055E-1	4.767113E-1	5.488889E-1	5.672208E-1	5.420416E-1	4.336725E-1	5.289984E-1	5.316747E-1	5.003524E-1	4.542462E-1	5.203560E-1	5.482783E-1	5.196888E-1	4.973501E-1	5.292437E-1	5.477913E-1	5.104367E-1	4.965125E-1	5.491330E-1	5.635091E-1	5.666872E-1	4.736774E-1	5.457767E-1	5.350820E-1	5.335689E-1	5.228807E-1	5.986660E-1	5.148472E-1	4.784325E-1	5.689165E-1	5.565894E-1	5.657192E-1	4.909142E-1	4.659198E-1	5.142280E-1	5.176289E-1	5.468812E-1	4.831355E-1	5.195404E-1	5.472530E-1	5.205825E-1	4.644858E-1	5.389277E-1	5.364904E-1	5.480139E-1	5.015194E-1	5.452137E-1	5.180044E-1	5.441403E-1	4.555926E-1	5.403095E-1	5.107028E-1	5.664437E-1	4.328658E-1	5.429999E-1	5.329003E-1	5.298492E-1	5.004520E-1	5.180736E-1	5.301882E-1	5.539361E-1	5.268701E-1	5.568015E-1	5.173123E-1	5.130307E-1	4.542394E-1	5.648067E-1	5.626072E-1	5.289865E-1	4.248158E-1	5.677310E-1	5.183811E-1	5.306717E-1	4.703697E-1	5.678973E-1	5.452678E-1	5.258765E-1	5.494077E-1	5.780222E-1	5.091639E-1	5.172538E-1	4.447892E-1	5.021352E-1	5.484931E-1	5.661460E-1	4.707511E-1
2.905310E+2	4.590433E-1	5.359294E-1	5.599576E-1	5.579554E-1	5.598358E-1	5.608453E-1	5.863774E-1	4.521299E-1	5.901919E-1	5.903565E-1	5.758068E-1	4.406250E-1	5.065461E-1	5.735384E-1	5.493527E-1	5.053713E-1	5.066827E-1	5.721314E-1	5.451074E-1	5.493274E-1	4.626021E-1	5.583282E-1	5.951554E-1	5.041843E-1	5.315200E-1	5.948882E-1	5.708218E-1	4.694845E-1	4.765442E-1	5.721868E-1	5.978212E-1	4.921213E-1	5.228757E-1	5.734498E-1	5.643387E-1	6.087092E-1	5.447034E-1	5.299115E-1	5.714745E-1	4.609087E-1	5.235559E-1	5.422054E-1	5.716629E-1	5.025444E-1	5.183526E-1	5.601731E-1	5.197436E-1	5.143763E-1	5.153933E-1	5.752578E-1	5.313898E-1	5.261200E-1	4.884920E-1	5.681698E-1	5.407362E-1	4.632008E-1	5.969185E-1	5.051467E-1	5.713234E-1	5.253080E-1	5.344800E-1	5.305280E-1	5.601387E-1	5.021542E-1	5.224102E-1	5.457589E-1	5.087490E-1	5.536632E-1	5.722767E-1	5.748263E-1	5.260408E-1	4.669020E-1	5.891429E-1	5.664579E-1	6.141476E-1	4.286610E-1	5.233353E-1	5.535741E-1	5.682820E-1	5.053312E-1	5.450557E-1	5.611546E-1	5.071899E-1	5.790981E-1	5.902281E-1	5.736497E-1	5.669758E-1	5.107350E-1	5.431501E-1	5.610800E-1	5.874440E-1	4.448904E-1	5.463300E-1	5.702964E-1	5.572089E-1	4.773843E-1	5.434755E-1	5.778762E-1	5.381560E-1	6.089213E-1	5.433795E-1	5.659583E-1	5.843007E-1	4.875245E-1	5.208596E-1	5.422662E-1	5.908902E-1	4.670330E-1	5.862562E-1	5.669404E-1	5.431797E-1	5.091140E-1	5.608003E-1	5.371687E-1	6.064784E-1	5.689166E-1	6.004590E-1	5.682986E-1	5.563476E-1	4.736165E-1	5.476945E-1	5.808264E-1	5.511618E-1	4.520174E-1	5.764431E-1	5.649731E-1	5.643965E-1	4.764897E-1	5.597693E-1	5.494252E-1	5.950027E-1	5.311223E-1	5.514416E-1	5.587098E-1	5.586201E-1	4.334679E-1	5.570076E-1	5.786412E-1	5.277337E-1	3.938098E-1	5.545105E-1	5.773249E-1	5.089663E-1	5.078687E-1	5.570204E-1	6.012002E-1	5.334130E-1	5.403984E-1	5.522669E-1	5.720788E-1	5.786616E-1	4.766741E-1	5.474051E-1	5.340172E-1	5.763418E-1	4.485601E-1	5.930830E-1	5.531629E-1	5.880029E-1	4.938635E-1	5.358289E-1	5.336428E-1	5.502863E-1	5.734446E-1	5.512036E-1	5.628697E-1	5.764845E-1	4.691533E-1	5.958203E-1	6.201136E-1	6.090691E-1	4.116535E-1
2.910030E+2	5.511206E-1	6.206215E-1	6.149631E-1	5.772458E-1	5.887040E-1	5.971463E-1	6.083409E-1	5.321473E-1	6.303210E-1	6.325712E-1	5.806562E-1	4.566072E-1	5.905609E-1	6.676564E-1	6.208646E-1	5.355731E-1	5.500063E-1	6.734832E-1	6.058622E-1	5.590348E-1	5.875604E-1	6.905847E-1	6.576571E-1	5.137329E-1	6.298854E-1	6.343427E-1	6.194700E-1	5.174903E-1	5.548002E-1	6.261634E-1	6.169472E-1	5.720793E-1	5.470264E-1	6.084664E-1	6.117734E-1	6.056082E-1	5.919121E-1	6.412697E-1	6.122573E-1	5.499175E-1	5.983419E-1	6.033038E-1	6.115386E-1	5.458683E-1	5.831021E-1	6.404238E-1	5.782472E-1	5.497701E-1	5.364143E-1	6.043203E-1	6.738450E-1	6.292646E-1	6.025908E-1	6.082884E-1	6.424921E-1	5.272745E-1	6.732006E-1	6.353023E-1	5.977521E-1	5.566665E-1	6.211428E-1	6.022038E-1	6.365951E-1	5.517798E-1	5.943524E-1	6.276264E-1	5.965469E-1	6.219004E-1	5.964057E-1	6.127086E-1	6.122959E-1	5.713271E-1	6.022108E-1	5.953609E-1	6.111534E-1	5.377086E-1	5.522244E-1	6.247441E-1	6.067567E-1	5.852635E-1	6.466333E-1	6.101569E-1	6.198848E-1	6.596274E-1	6.185670E-1	5.930150E-1	6.357477E-1	5.377791E-1	6.234892E-1	6.204437E-1	6.292140E-1	4.897598E-1	6.439361E-1	6.324676E-1	6.278493E-1	5.879351E-1	6.198703E-1	6.064169E-1	5.956087E-1	5.996239E-1	6.423315E-1	6.731436E-1	6.418456E-1	5.198815E-1	6.373459E-1	6.130756E-1	5.979501E-1	5.211369E-1	6.500137E-1	6.625158E-1	5.931543E-1	5.917165E-1	6.696632E-1	6.274685E-1	5.689479E-1	6.287134E-1	6.989230E-1	6.344941E-1	6.303154E-1	5.052601E-1	5.892739E-1	6.213111E-1	6.549871E-1	4.763285E-1	6.082702E-1	6.261065E-1	6.186886E-1	5.789244E-1	6.014525E-1	6.041514E-1	6.856237E-1	5.801198E-1	5.896984E-1	6.290210E-1	6.071737E-1	5.122316E-1	6.031730E-1	6.332121E-1	6.206381E-1	4.865696E-1	6.217987E-1	6.758308E-1	6.568861E-1	5.301189E-1	6.349148E-1	5.569467E-1	6.229678E-1	5.997134E-1	6.211948E-1	5.887865E-1	6.285077E-1	5.353484E-1	6.425983E-1	6.355609E-1	6.746237E-1	5.243584E-1	5.930830E-1	6.264872E-1	6.107661E-1	5.573841E-1	6.468353E-1	6.324549E-1	6.062254E-1	5.811361E-1	6.733761E-1	6.497753E-1	6.328023E-1	5.162027E-1	6.051882E-1	6.666666E-1	5.812955E-1	5.574269E-1
2.915180E+2	5.960094E-1	6.809512E-1	7.551729E-1	7.375862E-1	6.902090E-1	6.812592E-1	7.451811E-1	6.251909E-1	6.533939E-1	7.404547E-1	7.649353E-1	5.581409E-1	6.325688E-1	7.081180E-1	7.172164E-1	6.483852E-1	6.661539E-1	7.974917E-1	7.338156E-1	7.100375E-1	6.816743E-1	6.925447E-1	7.355910E-1	6.066173E-1	6.815528E-1	7.335781E-1	7.918008E-1	5.821518E-1	6.487096E-1	7.371149E-1	7.723465E-1	6.715818E-1	6.296952E-1	7.320537E-1	7.520602E-1	7.224276E-1	6.816072E-1	7.306813E-1	7.164812E-1	6.299445E-1	7.423028E-1	7.502933E-1	7.381460E-1	5.993314E-1	6.214408E-1	7.519289E-1	7.593293E-1	6.397892E-1	7.023763E-1	7.295885E-1	6.832029E-1	7.226780E-1	6.731766E-1	7.336586E-1	7.333448E-1	6.007469E-1	7.591541E-1	7.453673E-1	7.098099E-1	6.907471E-1	6.799133E-1	7.025491E-1	7.633748E-1	6.892040E-1	6.561618E-1	7.219282E-1	7.196922E-1	7.013233E-1	7.179144E-1	7.513242E-1	7.592799E-1	5.607969E-1	7.132871E-1	7.202955E-1	7.299036E-1	5.712627E-1	6.896646E-1	7.125493E-1	7.548846E-1	6.889113E-1	6.914478E-1	7.310307E-1	7.180748E-1	6.843233E-1	7.860260E-1	7.396407E-1	7.893682E-1	5.971017E-1	6.971344E-1	7.350787E-1	7.036738E-1	5.972605E-1	7.068783E-1	7.228978E-1	7.260548E-1	6.419250E-1	7.173740E-1	7.427798E-1	7.577068E-1	7.193297E-1	7.580691E-1	7.485373E-1	7.157099E-1	6.511092E-1	8.081178E-1	7.496370E-1	7.008159E-1	6.502258E-1	7.188298E-1	7.234228E-1	6.527388E-1	7.225050E-1	8.021919E-1	6.893601E-1	7.389397E-1	7.665525E-1	7.340189E-1	6.706005E-1	7.393717E-1	6.361073E-1	6.795325E-1	6.845090E-1	6.881683E-1	6.017765E-1	7.317209E-1	7.563491E-1	7.529892E-1	6.397451E-1	7.155322E-1	7.315131E-1	7.258997E-1	7.220068E-1	7.471765E-1	7.307857E-1	6.829845E-1	6.591374E-1	7.927465E-1	7.468128E-1	7.619316E-1	5.432006E-1	7.351262E-1	7.617823E-1	7.639093E-1	6.506411E-1	7.285988E-1	6.825049E-1	7.255825E-1	7.391547E-1	7.445412E-1	7.150280E-1	7.066005E-1	6.104177E-1	7.244853E-1	6.937261E-1	7.219782E-1	5.736727E-1	7.341727E-1	7.599736E-1	7.035078E-1	6.852953E-1	7.418074E-1	7.789309E-1	7.181029E-1	6.715106E-1	7.399271E-1	7.151984E-1	7.706835E-1	5.976997E-1	7.243011E-1	7.794695E-1	7.403609E-1	5.574267E-1
2.920010E+2	6.109717E-1	6.229430E-1	6.279057E-1	5.796566E-1	5.933598E-1	5.918344E-1	6.007377E-1	4.986518E-1	6.122627E-1	6.616529E-1	6.154102E-1	4.509666E-1	5.768281E-1	6.087232E-1	5.847315E-1	5.346845E-1	5.195871E-1	6.353266E-1	5.966571E-1	5.676638E-1	5.978417E-1	6.063332E-1	6.275644E-1	5.363030E-1	6.080267E-1	5.936924E-1	6.244181E-1	5.018154E-1	5.826258E-1	6.101704E-1	6.320893E-1	5.587533E-1	5.312359E-1	6.414225E-1	5.835148E-1	6.293848E-1	5.793229E-1	6.355793E-1	6.575715E-1	5.164375E-1	6.114293E-1	6.475774E-1	5.876129E-1	5.025443E-1	5.907704E-1	5.787582E-1	6.423220E-1	5.590026E-1	5.574367E-1	6.313777E-1	5.677832E-1	6.166156E-1	6.219285E-1	6.316906E-1	6.261379E-1	5.221495E-1	6.398943E-1	6.082229E-1	6.210102E-1	5.685609E-1	5.753215E-1	6.237056E-1	6.104637E-1	5.899527E-1	6.085383E-1	6.110449E-1	5.817239E-1	6.095949E-1	6.550050E-1	6.178743E-1	6.686254E-1	5.362265E-1	6.003439E-1	5.953612E-1	5.662476E-1	5.395724E-1	5.819877E-1	5.979393E-1	5.913665E-1	5.624258E-1	5.709484E-1	6.068901E-1	5.998016E-1	6.596284E-1	6.031099E-1	6.105360E-1	6.107392E-1	5.351621E-1	5.928845E-1	6.695733E-1	6.146850E-1	5.290215E-1	5.800821E-1	6.032662E-1	6.287107E-1	5.742228E-1	6.148440E-1	5.704770E-1	6.438277E-1	5.589470E-1	6.034576E-1	6.095586E-1	6.057723E-1	5.315668E-1	6.169893E-1	5.898106E-1	6.040018E-1	4.527955E-1	6.166168E-1	5.660029E-1	6.094921E-1	5.779494E-1	6.578310E-1	6.010887E-1	6.440093E-1	6.337809E-1	6.365294E-1	5.854917E-1	6.407473E-1	5.480203E-1	6.389667E-1	5.976122E-1	6.228764E-1	5.045305E-1	6.314167E-1	6.429408E-1	6.472629E-1	5.109018E-1	6.157128E-1	6.091265E-1	5.972408E-1	5.607246E-1	6.421907E-1	6.567746E-1	6.361357E-1	5.325854E-1	6.542497E-1	6.243029E-1	5.896703E-1	4.338421E-1	6.279964E-1	6.207832E-1	6.177303E-1	5.514416E-1	5.801780E-1	6.094338E-1	6.099078E-1	6.226067E-1	6.502176E-1	6.240608E-1	6.102307E-1	5.172285E-1	6.497642E-1	5.892263E-1	5.951036E-1	4.878295E-1	6.261514E-1	6.161462E-1	6.132953E-1	5.312797E-1	6.369682E-1	6.092049E-1	6.123278E-1	5.513317E-1	6.286795E-1	6.351288E-1	6.832940E-1	5.254452E-1	5.703910E-1	6.398089E-1	5.358483E-1	4.471122E-1
2.925020E+2	5.603284E-1	6.937130E-1	6.861466E-1	6.134127E-1	6.864839E-1	6.272495E-1	6.683141E-1	5.628520E-1	7.005446E-1	6.644677E-1	6.655215E-1	5.224159E-1	6.083331E-1	7.063588E-1	6.027973E-1	5.888702E-1	5.573807E-1	7.176020E-1	6.942318E-1	6.744443E-1	6.144506E-1	6.347438E-1	6.537990E-1	6.074853E-1	6.149815E-1	6.451043E-1	6.829607E-1	5.537404E-1	5.991471E-1	6.511525E-1	6.727318E-1	5.996204E-1	5.776794E-1	6.434829E-1	7.137086E-1	6.500616E-1	6.462009E-1	6.242002E-1	6.657294E-1	5.638000E-1	6.357342E-1	6.785691E-1	6.643743E-1	5.993311E-1	6.214415E-1	6.598526E-1	6.673957E-1	5.928562E-1	6.382042E-1	6.113354E-1	6.270533E-1	6.711062E-1	5.716484E-1	6.667945E-1	6.179612E-1	5.460707E-1	6.022901E-1	6.597613E-1	6.569533E-1	5.923483E-1	6.191509E-1	6.505834E-1	6.559501E-1	6.720253E-1	6.328575E-1	6.846215E-1	6.866257E-1	6.353237E-1	6.705174E-1	7.323824E-1	7.108722E-1	5.590418E-1	6.815508E-1	6.848661E-1	6.480758E-1	5.610099E-1	6.152543E-1	6.321374E-1	6.606214E-1	5.431015E-1	6.705340E-1	6.722275E-1	6.455485E-1	7.315675E-1	6.013925E-1	6.216029E-1	7.438173E-1	6.049532E-1	6.760926E-1	6.634319E-1	6.500996E-1	5.514558E-1	5.809942E-1	6.861605E-1	6.244024E-1	5.845070E-1	6.852081E-1	6.793544E-1	6.551130E-1	6.960856E-1	6.326125E-1	6.595182E-1	6.873661E-1	5.603284E-1	6.328228E-1	6.565733E-1	6.473661E-1	5.961230E-1	6.773371E-1	6.775089E-1	6.700382E-1	5.925774E-1	6.885966E-1	6.254396E-1	6.561517E-1	6.814172E-1	6.599277E-1	6.860749E-1	6.824729E-1	5.899258E-1	6.764896E-1	6.825337E-1	6.935191E-1	5.667677E-1	6.651737E-1	6.580030E-1	6.901248E-1	6.141364E-1	6.573951E-1	6.409664E-1	6.610101E-1	6.372833E-1	6.715516E-1	6.234697E-1	6.650974E-1	5.830290E-1	6.807705E-1	6.655114E-1	6.641879E-1	4.973094E-1	6.235699E-1	6.130572E-1	6.864688E-1	6.330259E-1	6.791251E-1	7.123491E-1	6.705433E-1	6.205255E-1	6.103118E-1	6.584055E-1	6.791842E-1	5.897087E-1	6.610234E-1	7.075286E-1	6.585413E-1	5.170526E-1	6.790594E-1	6.152064E-1	6.529213E-1	6.078526E-1	6.961720E-1	6.754687E-1	6.631818E-1	6.349759E-1	6.783430E-1	6.448931E-1	7.065976E-1	6.119828E-1	6.787972E-1	6.863626E-1	7.832841E-1	5.259081E-1
2.930050E+2	5.304036E-1	6.391847E-1	6.591824E-1	7.086524E-1	6.259539E-1	6.892275E-1	6.700032E-1	6.521733E-1	6.523912E-1	6.372626E-1	6.453151E-1	6.455723E-1	6.147964E-1	6.641383E-1	6.366714E-1	6.368381E-1	5.583026E-1	6.687142E-1	6.288756E-1	6.410075E-1	5.867693E-1	6.523783E-1	6.599715E-1	6.083536E-1	6.110070E-1	6.474944E-1	6.689433E-1	5.370848E-1	5.695838E-1	6.101710E-1	6.336831E-1	6.102820E-1	5.823233E-1	6.486318E-1	6.047096E-1	6.138783E-1	5.895510E-1	6.339538E-1	6.294774E-1	5.482848E-1	6.086243E-1	6.644023E-1	6.215073E-1	5.615387E-1	6.512604E-1	7.147611E-1	6.265358E-1	5.613109E-1	6.205022E-1	6.484142E-1	6.624065E-1	6.263458E-1	6.315986E-1	6.224972E-1	6.679307E-1	5.537590E-1	6.463409E-1	6.090964E-1	6.632952E-1	5.923489E-1	6.301079E-1	6.254973E-1	6.336913E-1	6.481677E-1	5.933398E-1	6.348799E-1	6.649607E-1	5.928155E-1	6.222590E-1	6.953618E-1	6.404603E-1	5.414914E-1	6.516815E-1	6.708806E-1	6.710272E-1	5.069513E-1	6.809102E-1	6.681847E-1	6.586979E-1	5.914124E-1	5.968397E-1	6.591597E-1	6.678646E-1	6.531853E-1	6.314495E-1	6.511122E-1	6.679007E-1	5.813989E-1	6.923517E-1	6.593378E-1	6.964088E-1	5.636084E-1	6.640049E-1	6.550748E-1	5.890826E-1	5.982185E-1	6.520368E-1	6.529283E-1	6.551132E-1	6.844633E-1	6.025737E-1	6.177342E-1	6.658943E-1	5.486442E-1	6.757983E-1	6.029601E-1	6.171114E-1	5.600534E-1	6.368575E-1	6.793824E-1	6.402462E-1	6.244137E-1	6.661133E-1	6.457317E-1	6.340747E-1	6.712814E-1	6.862491E-1	6.809167E-1	6.568695E-1	5.488759E-1	6.318675E-1	6.400735E-1	6.367905E-1	5.580156E-1	6.487768E-1	6.580032E-1	6.548828E-1	6.061331E-1	6.595893E-1	6.111167E-1	6.822676E-1	5.709324E-1	6.893452E-1	6.493739E-1	6.386904E-1	5.272759E-1	6.630899E-1	6.677386E-1	6.351554E-1	5.558944E-1	6.660673E-1	6.381670E-1	7.047419E-1	5.801819E-1	6.033360E-1	6.300171E-1	6.378930E-1	6.236468E-1	6.810542E-1	6.481948E-1	6.393081E-1	5.784920E-1	6.077967E-1	6.069712E-1	6.094004E-1	5.060934E-1	6.481962E-1	6.481078E-1	6.596669E-1	5.582550E-1	6.542362E-1	6.696542E-1	6.509760E-1	6.234389E-1	6.803300E-1	6.282927E-1	6.677583E-1	5.430885E-1	6.747828E-1	7.221715E-1	6.090678E-1	5.298480E-1
2.935120E+2	6.466518E-1	7.145964E-1	6.721255E-1	7.062414E-1	6.659966E-1	7.007377E-1	6.936545E-1	6.707815E-1	6.694452E-1	6.973015E-1	7.002761E-1	6.408719E-1	6.139886E-1	6.966829E-1	6.856004E-1	6.954647E-1	5.675210E-1	7.199875E-1	6.979143E-1	6.712088E-1	5.693697E-1	6.239665E-1	7.062695E-1	6.760632E-1	6.726103E-1	7.096660E-1	7.027499E-1	7.026569E-1	6.165381E-1	6.591497E-1	6.687469E-1	7.088956E-1	6.482721E-1	7.052768E-1	6.713190E-1	6.728043E-1	6.800339E-1	7.201148E-1	7.083243E-1	6.454605E-1	6.983670E-1	6.865397E-1	6.843129E-1	6.555601E-1	6.597790E-1	6.961760E-1	6.868970E-1	6.944175E-1	6.448423E-1	6.814855E-1	6.696854E-1	7.002980E-1	5.958226E-1	6.893609E-1	7.033635E-1	6.084358E-1	6.989865E-1	6.571407E-1	7.098102E-1	6.431708E-1	6.599919E-1	7.204671E-1	6.975651E-1	6.481671E-1	6.713609E-1	6.794405E-1	6.581187E-1	6.912556E-1	6.463885E-1	6.376770E-1	6.897485E-1	5.976530E-1	6.750167E-1	6.755427E-1	7.209221E-1	5.535539E-1	6.336378E-1	6.728061E-1	6.990957E-1	5.852630E-1	6.924430E-1	6.569816E-1	6.355058E-1	6.907664E-1	6.512005E-1	6.953764E-1	7.009466E-1	5.334173E-1	7.114804E-1	6.941376E-1	6.718921E-1	6.009996E-1	6.713031E-1	6.795669E-1	6.735064E-1	6.273566E-1	6.912388E-1	7.163531E-1	7.176952E-1	6.786532E-1	6.476322E-1	6.704181E-1	6.684706E-1	6.232457E-1	7.244279E-1	6.848968E-1	7.058579E-1	5.334770E-1	7.198424E-1	7.121781E-1	6.498566E-1	6.682972E-1	7.039787E-1	6.416729E-1	6.671909E-1	6.722949E-1	7.232941E-1	6.895141E-1	7.194572E-1	5.950568E-1	7.089418E-1	7.180820E-1	6.464236E-1	6.076109E-1	6.767462E-1	7.279967E-1	7.034593E-1	5.797253E-1	7.429552E-1	6.439520E-1	8.154020E-1	6.525945E-1	6.564265E-1	7.058066E-1	6.659486E-1	5.502852E-1	6.434457E-1	7.223113E-1	6.912849E-1	5.558944E-1	6.979404E-1	6.767969E-1	6.969110E-1	6.135573E-1	7.012302E-1	6.907376E-1	6.183030E-1	6.288501E-1	6.964721E-1	6.565485E-1	6.708771E-1	5.586460E-1	7.070847E-1	6.690803E-1	6.773041E-1	5.490159E-1	7.231494E-1	6.537487E-1	6.815872E-1	6.574509E-1	7.344072E-1	6.440796E-1	6.672494E-1	6.984307E-1	7.488667E-1	7.064103E-1	7.036848E-1	5.632525E-1	6.600614E-1	7.024762E-1	7.125869E-1	4.943902E-1
2.940100E+2	6.754265E-1	7.470806E-1	7.670371E-1	8.075091E-1	6.967271E-1	7.423513E-1	8.068446E-1	7.256780E-1	7.456885E-1	7.488983E-1	7.035091E-1	7.113813E-1	7.076974E-1	7.688108E-1	7.714144E-1	7.452090E-1	6.458746E-1	7.652980E-1	7.807619E-1	7.219020E-1	6.713924E-1	7.160567E-1	7.541104E-1	7.689475E-1	7.282520E-1	7.802074E-1	7.645910E-1	7.790748E-1	6.695787E-1	8.050860E-1	7.484390E-1	7.719730E-1	6.789244E-1	7.691310E-1	8.075684E-1	7.761835E-1	7.272425E-1	7.631946E-1	7.309826E-1	7.361027E-1	7.572597E-1	7.653476E-1	7.690493E-1	7.597213E-1	6.555199E-1	7.333446E-1	7.379715E-1	7.144220E-1	7.012696E-1	7.446206E-1	7.247955E-1	7.470048E-1	7.369941E-1	7.946714E-1	7.814965E-1	8.168903E-1	7.516332E-1	6.955753E-1	6.897243E-1	7.804952E-1	7.247387E-1	7.428649E-1	7.624067E-1	7.044731E-1	7.058134E-1	7.530175E-1	7.653012E-1	7.684418E-1	7.110211E-1	7.418537E-1	6.976707E-1	7.038349E-1	7.636918E-1	7.230921E-1	7.768046E-1	7.194563E-1	7.316845E-1	7.199445E-1	7.731599E-1	6.739789E-1	7.263030E-1	7.680540E-1	7.403909E-1	7.605578E-1	7.138903E-1	6.299021E-1	8.009784E-1	6.477009E-1	7.707782E-1	8.312893E-1	7.572486E-1	6.122183E-1	7.232983E-1	7.417377E-1	7.708514E-1	6.873443E-1	7.786904E-1	6.994393E-1	7.474471E-1	7.623310E-1	7.978268E-1	7.167444E-1	7.200037E-1	6.313345E-1	7.606180E-1	7.506488E-1	7.643501E-1	6.701594E-1	7.593111E-1	7.580928E-1	7.853652E-1	7.328300E-1	8.045595E-1	7.806757E-1	7.676403E-1	6.854717E-1	7.798385E-1	7.565675E-1	7.223023E-1	6.446585E-1	7.302392E-1	7.615306E-1	7.919937E-1	6.017765E-1	7.191832E-1	7.926750E-1	7.367957E-1	6.605520E-1	7.583125E-1	7.454430E-1	7.986199E-1	6.781141E-1	7.498452E-1	7.187584E-1	7.673139E-1	6.122330E-1	7.583676E-1	7.211974E-1	7.416088E-1	6.310780E-1	7.236165E-1	7.376388E-1	7.552080E-1	6.877244E-1	7.022827E-1	6.989700E-1	7.199860E-1	7.131391E-1	7.218668E-1	7.744354E-1	7.647542E-1	6.130067E-1	7.582638E-1	7.075285E-1	7.210850E-1	6.074625E-1	7.782624E-1	7.411731E-1	7.625250E-1	7.096604E-1	8.306125E-1	7.149932E-1	7.913313E-1	7.090073E-1	7.727053E-1	7.991748E-1	7.483499E-1	6.405475E-1	7.135941E-1	7.669349E-1	7.959075E-1	5.416677E-1
2.945010E+2	7.180117E-1	8.271333E-1	8.436121E-1	8.231823E-1	7.805393E-1	7.848497E-1	8.321860E-1	8.252337E-1	8.088911E-1	8.539664E-1	8.724322E-1	7.640286E-1	7.165832E-1	8.391796E-1	7.789418E-1	8.811166E-1	6.818248E-1	8.165703E-1	8.332317E-1	8.125042E-1	7.655065E-1	7.963902E-1	7.957774E-1	8.705124E-1	7.888610E-1	7.849903E-1	8.016964E-1	8.358984E-1	7.287062E-1	8.080844E-1	8.281306E-1	7.995142E-1	7.309398E-1	8.741798E-1	7.823377E-1	8.102991E-1	8.169377E-1	8.493546E-1	7.844539E-1	7.957144E-1	8.086744E-1	8.255595E-1	8.617622E-1	8.519006E-1	7.500887E-1	8.558310E-1	7.862601E-1	8.136757E-1	8.085906E-1	7.967322E-1	7.674282E-1	7.538152E-1	7.592332E-1	7.712690E-1	8.214729E-1	7.852795E-1	7.731204E-1	8.012728E-1	8.186972E-1	8.248290E-1	8.173786E-1	7.661600E-1	8.330560E-1	7.665054E-1	7.645825E-1	8.048318E-1	7.903860E-1	7.561360E-1	7.894411E-1	8.253678E-1	8.332130E-1	8.354636E-1	7.898265E-1	8.275161E-1	8.207121E-1	7.492816E-1	7.658260E-1	7.901897E-1	7.847015E-1	8.408694E-1	7.482117E-1	7.920108E-1	8.519711E-1	8.163923E-1	8.083535E-1	8.484570E-1	8.242004E-1	8.439873E-1	8.176431E-1	8.497132E-1	8.335244E-1	8.066540E-1	7.698207E-1	7.991994E-1	7.992792E-1	8.021806E-1	8.400069E-1	8.516579E-1	8.161855E-1	8.134671E-1	7.907582E-1	8.039467E-1	7.620891E-1	6.798711E-1	8.296054E-1	8.346093E-1	8.389780E-1	7.290084E-1	8.261031E-1	8.714719E-1	7.930530E-1	7.182027E-1	8.578067E-1	8.029960E-1	8.349749E-1	8.354712E-1	8.285831E-1	8.365186E-1	7.962712E-1	6.788676E-1	8.286106E-1	8.247263E-1	8.444404E-1	6.494273E-1	8.079130E-1	8.130530E-1	8.282342E-1	6.789583E-1	8.054797E-1	7.852431E-1	8.635092E-1	7.679433E-1	8.041170E-1	7.650153E-1	8.235333E-1	6.989606E-1	8.615039E-1	8.537308E-1	7.706412E-1	6.515826E-1	8.192365E-1	7.762689E-1	8.222063E-1	7.507664E-1	7.475456E-1	8.255571E-1	8.328614E-1	8.109563E-1	7.989585E-1	7.753646E-1	8.428467E-1	7.225893E-1	8.370807E-1	8.199168E-1	7.568238E-1	6.430787E-1	8.829762E-1	8.267172E-1	8.139551E-1	7.348947E-1	8.910498E-1	8.242689E-1	7.791271E-1	8.224559E-1	8.938850E-1	8.645974E-1	8.629272E-1	6.640730E-1	8.393985E-1	7.544024E-1	7.681347E-1	6.441032E-1
2.950050E+2	7.260691E-1	8.340944E-1	8.166497E-1	8.364436E-1	8.094068E-1	8.680767E-1	8.397886E-1	8.438418E-1	8.480153E-1	8.183184E-1	8.441436E-1	8.458194E-1	7.456661E-1	8.075130E-1	8.203434E-1	8.295967E-1	7.352884E-1	8.082238E-1	8.672912E-1	8.081897E-1	7.947685E-1	7.797356E-1	8.729394E-1	8.522823E-1	7.978037E-1	8.352047E-1	8.495195E-1	8.427552E-1	6.982730E-1	8.240772E-1	8.281313E-1	8.705877E-1	7.327982E-1	8.731504E-1	8.519755E-1	8.516513E-1	8.114303E-1	8.477292E-1	8.497057E-1	8.561422E-1	8.161528E-1	8.335294E-1	8.757190E-1	8.611178E-1	7.739441E-1	8.304891E-1	8.494074E-1	8.021346E-1	7.897823E-1	8.177770E-1	8.859666E-1	8.248493E-1	7.572996E-1	8.289397E-1	8.023933E-1	8.117645E-1	8.472549E-1	8.405811E-1	8.081264E-1	8.615937E-1	7.536267E-1	8.423154E-1	8.282168E-1	7.999075E-1	7.797815E-1	8.338479E-1	7.983686E-1	8.590513E-1	8.540742E-1	8.563627E-1	8.120893E-1	8.389736E-1	8.159620E-1	8.405685E-1	7.947664E-1	7.986797E-1	7.789567E-1	8.216149E-1	8.491479E-1	7.987071E-1	7.691259E-1	8.410134E-1	8.330019E-1	8.883323E-1	8.014832E-1	8.346241E-1	8.250931E-1	8.649247E-1	8.405970E-1	8.548309E-1	8.752946E-1	7.916974E-1	8.619536E-1	8.359367E-1	8.096168E-1	8.416015E-1	8.309600E-1	7.945765E-1	8.079778E-1	8.727395E-1	7.995937E-1	8.893320E-1	7.930084E-1	8.416587E-1	8.691883E-1	7.951577E-1	8.581391E-1	8.818259E-1	8.483682E-1	8.789682E-1	8.459110E-1	8.644796E-1	8.388742E-1	8.222737E-1	8.791282E-1	8.648642E-1	8.490556E-1	8.511323E-1	7.943739E-1	7.909001E-1	8.590346E-1	8.889119E-1	8.476509E-1	8.798998E-1	7.924814E-1	8.529235E-1	7.853733E-1	7.797923E-1	8.372901E-1	7.991734E-1	8.713400E-1	8.291903E-1	8.663969E-1	8.501277E-1	8.601611E-1	7.883430E-1	8.340006E-1	8.838002E-1	8.403201E-1	6.515826E-1	8.767856E-1	8.264867E-1	8.291672E-1	7.878502E-1	8.001764E-1	8.481986E-1	8.496529E-1	8.109556E-1	8.343297E-1	8.041396E-1	8.229087E-1	6.596005E-1	8.698338E-1	8.110438E-1	8.586810E-1	7.097451E-1	8.036143E-1	8.483380E-1	8.518944E-1	7.653494E-1	8.269120E-1	8.696062E-1	8.523556E-1	8.436065E-1	8.710395E-1	8.626444E-1	7.755389E-1	7.119624E-1	8.581354E-1	8.331831E-1	7.807585E-1	6.913809E-1
2.955030E+2	6.915405E-1	8.619400E-1	9.050885E-1	7.725479E-1	8.541068E-1	8.946376E-1	8.794895E-1	8.112767E-1	8.530311E-1	8.661626E-1	8.093892E-1	8.749628E-1	7.214309E-1	8.954736E-1	8.489483E-1	8.713462E-1	7.159303E-1	8.797665E-1	8.921453E-1	8.815339E-1	7.963506E-1	8.747645E-1	8.544202E-1	8.913459E-1	7.779313E-1	8.698781E-1	8.346772E-1	8.711671E-1	7.808786E-1	8.590616E-1	8.353035E-1	8.314975E-1	7.848143E-1	8.741800E-1	8.257357E-1	8.950706E-1	8.350340E-1	8.574836E-1	8.542382E-1	8.398101E-1	8.544800E-1	8.778035E-1	9.026349E-1	8.758674E-1	7.688322E-1	7.874078E-1	8.633364E-1	8.783056E-1	8.771895E-1	7.957296E-1	8.599715E-1	7.995503E-1	8.404557E-1	7.762837E-1	8.759853E-1	8.433742E-1	8.644453E-1	8.493162E-1	7.912113E-1	9.362035E-1	8.442735E-1	8.414191E-1	8.214423E-1	8.018156E-1	8.152463E-1	8.587188E-1	7.846851E-1	8.254923E-1	8.092619E-1	8.606673E-1	8.279321E-1	8.029947E-1	8.738337E-1	8.955771E-1	8.286942E-1	8.024075E-1	7.780819E-1	8.576614E-1	8.568420E-1	8.118817E-1	8.169271E-1	8.573477E-1	8.698237E-1	8.872583E-1	8.092124E-1	8.337015E-1	8.911864E-1	8.535834E-1	8.492048E-1	8.927009E-1	8.580421E-1	8.795678E-1	7.880651E-1	8.651386E-1	8.613050E-1	8.758807E-1	8.550852E-1	8.019758E-1	8.613270E-1	8.146304E-1	7.898752E-1	8.684401E-1	8.522718E-1	8.901955E-1	9.630564E-1	8.447237E-1	8.783095E-1	8.457575E-1	8.574759E-1	9.014568E-1	8.564825E-1	8.317827E-1	8.388745E-1	8.547412E-1	8.239362E-1	8.628365E-1	9.124233E-1	8.098684E-1	8.654978E-1	8.242538E-1	8.073130E-1	8.711375E-1	8.669188E-1	9.149087E-1	8.696372E-1	8.059659E-1	8.377602E-1	8.662217E-1	9.063965E-1	8.339989E-1	8.601531E-1	8.608336E-1	8.334773E-1	8.344011E-1	8.311999E-1	8.467513E-1	8.231962E-1	8.503896E-1	8.209650E-1	8.683468E-1	8.511096E-1	8.786380E-1	8.108949E-1	9.018828E-1	8.370184E-1	8.111480E-1	8.198018E-1	7.807785E-1	8.352363E-1	8.431262E-1	8.602933E-1	7.303555E-1	8.565281E-1	8.268175E-1	8.899526E-1	7.307490E-1	8.146371E-1	8.220178E-1	8.561098E-1	7.914546E-1	8.552801E-1	8.172940E-1	8.808327E-1	8.407231E-1	8.670663E-1	8.685029E-1	8.376826E-1	7.060808E-1	8.969474E-1	8.313941E-1	8.691276E-1	6.086449E-1
2.960030E+2	8.664875E-1	9.095063E-1	9.460730E-1	9.594128E-1	9.053242E-1	8.609938E-1	9.614247E-1	9.229294E-1	8.730953E-1	9.074400E-1	9.055706E-1	8.853047E-1	8.256418E-1	9.596846E-1	9.121788E-1	9.610637E-1	7.823010E-1	1.000198E+0	9.602641E-1	9.667438E-1	8.999545E-1	9.080734E-1	9.663052E-1	9.677366E-1	8.733164E-1	9.499844E-1	9.410444E-1	8.897819E-1	8.313115E-1	8.760539E-1	9.022446E-1	9.034584E-1	8.080359E-1	9.740810E-1	9.327161E-1	9.601995E-1	8.562775E-1	9.119428E-1	9.303668E-1	8.937058E-1	8.797200E-1	9.725499E-1	9.325432E-1	9.726534E-1	8.582885E-1	9.301683E-1	9.775584E-1	8.967712E-1	8.948908E-1	9.169893E-1	9.275595E-1	9.056124E-1	8.917037E-1	9.058327E-1	9.005157E-1	9.185544E-1	9.514728E-1	9.838395E-1	8.493556E-1	1.021625E+0	8.382969E-1	9.426603E-1	9.724173E-1	8.972500E-1	8.730026E-1	9.053517E-1	9.454584E-1	9.686779E-1	9.299094E-1	9.786199E-1	9.388300E-1	9.407673E-1	9.326391E-1	9.216823E-1	9.434520E-1	8.900196E-1	8.988890E-1	9.029505E-1	9.357147E-1	9.743815E-1	8.866379E-1	9.793101E-1	9.434663E-1	9.613457E-1	9.234272E-1	8.669000E-1	9.581709E-1	9.591432E-1	9.008509E-1	8.906536E-1	9.116165E-1	9.085469E-1	8.920555E-1	9.518014E-1	9.526198E-1	9.350120E-1	9.023287E-1	9.795629E-1	9.146754E-1	9.099303E-1	9.011956E-1	9.465585E-1	9.046637E-1	8.919917E-1	9.494845E-1	9.317190E-1	9.610048E-1	9.425745E-1	9.414722E-1	9.604894E-1	8.795481E-1	9.178269E-1	9.690375E-1	9.217055E-1	9.221782E-1	9.601355E-1	9.631172E-1	9.130288E-1	1.002055E+0	9.097752E-1	9.097416E-1	9.145853E-1	9.482658E-1	9.207444E-1	9.844076E-1	9.105140E-1	9.006237E-1	9.070352E-1	9.524665E-1	9.335003E-1	9.317546E-1	8.802285E-1	9.722705E-1	9.731704E-1	8.831599E-1	9.777271E-1	9.764261E-1	9.461705E-1	9.264502E-1	8.702998E-1	9.086596E-1	9.134045E-1	9.153090E-1	9.028101E-1	8.770180E-1	9.377352E-1	9.699925E-1	9.337481E-1	8.969094E-1	9.136728E-1	9.616456E-1	9.874887E-1	9.425087E-1	9.372342E-1	9.015684E-1	9.444453E-1	9.215562E-1	9.160221E-1	9.260883E-1	9.124047E-1	9.601197E-1	9.126180E-1	9.011755E-1	8.820642E-1	9.524886E-1	8.655737E-1	9.357526E-1	8.833566E-1	9.089928E-1	8.815290E-1	9.120498E-1	7.898763E-1
2.964960E+2	9.033188E-1	9.396712E-1	1.009708E+0	9.123956E-1	8.857688E-1	9.229707E-1	9.673385E-1	9.889899E-1	9.403092E-1	9.665406E-1	8.861724E-1	8.683819E-1	8.644173E-1	9.605643E-1	9.422888E-1	9.495152E-1	7.887537E-1	9.310393E-1	9.031917E-1	9.635079E-1	8.469663E-1	8.953379E-1	9.416131E-1	9.182571E-1	8.574194E-1	9.428109E-1	9.146589E-1	9.201523E-1	8.539193E-1	9.660150E-1	9.397001E-1	9.194509E-1	8.424038E-1	9.452439E-1	9.266610E-1	9.395239E-1	8.908965E-1	9.720931E-1	9.629932E-1	8.937063E-1	8.900035E-1	9.389021E-1	9.185854E-1	9.293300E-1	8.659567E-1	9.217210E-1	8.521929E-1	9.406274E-1	8.871463E-1	9.400390E-1	9.545950E-1	8.919904E-1	9.303810E-1	9.518024E-1	9.250464E-1	9.646874E-1	9.224633E-1	8.991079E-1	9.550710E-1	9.091706E-1	8.861106E-1	9.471396E-1	9.095110E-1	9.106105E-1	8.385512E-1	8.960256E-1	9.386175E-1	9.597291E-1	9.083659E-1	9.312669E-1	9.300284E-1	9.398898E-1	9.373060E-1	8.993064E-1	9.594192E-1	8.909509E-1	8.218529E-1	9.362256E-1	9.530284E-1	9.770154E-1	8.796664E-1	9.226847E-1	9.523931E-1	9.731568E-1	8.925123E-1	8.899545E-1	9.590643E-1	9.669954E-1	9.333695E-1	9.735587E-1	8.843756E-1	9.001328E-1	9.641200E-1	9.065863E-1	9.198842E-1	9.281562E-1	9.787228E-1	8.780841E-1	8.992869E-1	9.099295E-1	9.418373E-1	9.801676E-1	9.338661E-1	9.369331E-1	9.879361E-1	9.661121E-1	9.378102E-1	9.292854E-1	9.121234E-1	9.314415E-1	8.901197E-1	8.971760E-1	8.802895E-1	9.399688E-1	9.321139E-1	9.216214E-1	9.523932E-1	9.603115E-1	9.413626E-1	9.063534E-1	8.945290E-1	9.688949E-1	8.669188E-1	9.343584E-1	8.908558E-1	9.007678E-1	8.739543E-1	9.278425E-1	8.998143E-1	9.145950E-1	9.295176E-1	9.241218E-1	9.206680E-1	9.333900E-1	9.334168E-1	8.989658E-1	9.302616E-1	9.795815E-1	9.254833E-1	9.269323E-1	9.343342E-1	9.616920E-1	8.491805E-1	9.111537E-1	8.991238E-1	9.233274E-1	9.569329E-1	9.129351E-1	9.540475E-1	9.879326E-1	9.383841E-1	9.184595E-1	9.466041E-1	9.569506E-1	9.801938E-1	9.389651E-1	9.160439E-1	9.827654E-1	9.201860E-1	9.463408E-1	9.576529E-1	8.835565E-1	9.072765E-1	9.003311E-1	9.783140E-1	9.602906E-1	9.716795E-1	8.959596E-1	9.437892E-1	9.424051E-1	9.600237E-1	8.174550E-1
2.970040E+2	7.859190E-1	8.561387E-1	8.231206E-1	8.858724E-1	8.149946E-1	8.353173E-1	8.549926E-1	8.475640E-1	8.018680E-1	8.323899E-1	8.999126E-1	8.382986E-1	7.327403E-1	8.470961E-1	8.436781E-1	8.953302E-1	7.076350E-1	9.071916E-1	8.571657E-1	9.063414E-1	8.343118E-1	8.306791E-1	8.490196E-1	8.166914E-1	8.017773E-1	8.710739E-1	8.437481E-1	8.515730E-1	7.721827E-1	8.390701E-1	8.886968E-1	8.341624E-1	7.857427E-1	8.793302E-1	8.751889E-1	8.371783E-1	7.838913E-1	8.534188E-1	8.660197E-1	8.504258E-1	8.535455E-1	8.875439E-1	8.627590E-1	8.786315E-1	8.037626E-1	8.541421E-1	7.676878E-1	8.244473E-1	8.019524E-1	8.207832E-1	8.630909E-1	8.871253E-1	7.785723E-1	8.439842E-1	8.559970E-1	8.749841E-1	9.031244E-1	8.737754E-1	9.582426E-1	8.507803E-1	8.452700E-1	8.432110E-1	8.437013E-1	8.838893E-1	7.726895E-1	8.328113E-1	8.245941E-1	7.952889E-1	8.980240E-1	9.097417E-1	8.525750E-1	8.521361E-1	8.560986E-1	8.676067E-1	8.306905E-1	8.173207E-1	8.052193E-1	8.687529E-1	8.356816E-1	8.531662E-1	8.358478E-1	8.606145E-1	8.966024E-1	8.915533E-1	8.349753E-1	9.037867E-1	8.563533E-1	8.439876E-1	8.396401E-1	8.466427E-1	8.943637E-1	8.533936E-1	8.291134E-1	8.510091E-1	8.621660E-1	9.401537E-1	8.802146E-1	8.220599E-1	8.100292E-1	8.599548E-1	8.499529E-1	8.030386E-1	8.746026E-1	8.928913E-1	9.200801E-1	8.973260E-1	8.692328E-1	8.334184E-1	8.726563E-1	8.246210E-1	8.420672E-1	8.945955E-1	8.329582E-1	8.801069E-1	9.023095E-1	8.527011E-1	8.714769E-1	8.966950E-1	8.920501E-1	8.584621E-1	7.921007E-1	8.543511E-1	8.519334E-1	8.264153E-1	8.628868E-1	8.715293E-1	8.634763E-1	8.854277E-1	8.383872E-1	8.369839E-1	9.272797E-1	8.567514E-1	8.183517E-1	8.057213E-1	8.439774E-1	9.202041E-1	8.703435E-1	8.570714E-1	8.267722E-1	8.595593E-1	8.201214E-1	8.554602E-1	8.735434E-1	8.546012E-1	7.875451E-1	8.080620E-1	9.205501E-1	8.619463E-1	8.116550E-1	8.579781E-1	8.719234E-1	8.269953E-1	8.739284E-1	8.731527E-1	8.175809E-1	8.814319E-1	8.686481E-1	8.445777E-1	8.729725E-1	8.845597E-1	9.144832E-1	8.963440E-1	8.025195E-1	8.368766E-1	9.137501E-1	8.226093E-1	9.357526E-1	7.976595E-1	8.340455E-1	8.654131E-1	7.479355E-1	9.198907E-1
2.975020E+2	7.594463E-1	8.909435E-1	8.037064E-1	8.484982E-1	8.177887E-1	8.574519E-1	8.043109E-1	8.363992E-1	7.998609E-1	8.764814E-1	8.207044E-1	8.853048E-1	7.068897E-1	8.268644E-1	8.399149E-1	8.340385E-1	7.343670E-1	8.726135E-1	8.580860E-1	8.286828E-1	7.164725E-1	8.257802E-1	8.081229E-1	8.054063E-1	8.236367E-1	8.435740E-1	8.429231E-1	8.525530E-1	7.643576E-1	8.610609E-1	8.098026E-1	8.519304E-1	7.829565E-1	8.443135E-1	8.065596E-1	7.875556E-1	7.791708E-1	8.200926E-1	8.415498E-1	8.398106E-1	8.180224E-1	8.459262E-1	8.139109E-1	8.500565E-1	8.156903E-1	8.583652E-1	7.983326E-1	8.359883E-1	7.477382E-1	8.508482E-1	8.381351E-1	8.141463E-1	7.495645E-1	8.172380E-1	8.314667E-1	8.425198E-1	8.268418E-1	8.309722E-1	8.387835E-1	8.280729E-1	8.382962E-1	8.279801E-1	8.669285E-1	7.789118E-1	8.111934E-1	8.752997E-1	8.622212E-1	8.198990E-1	7.782385E-1	8.529179E-1	8.657772E-1	8.933803E-1	8.262298E-1	8.368386E-1	8.446608E-1	8.266399E-1	7.351859E-1	8.105230E-1	8.174052E-1	8.452604E-1	8.019887E-1	8.268574E-1	8.575503E-1	8.647106E-1	7.997663E-1	8.383127E-1	8.706427E-1	8.544566E-1	7.975574E-1	8.323132E-1	8.171793E-1	8.356325E-1	8.619529E-1	8.491244E-1	8.104789E-1	8.184627E-1	8.329709E-1	7.818910E-1	8.695343E-1	8.460086E-1	8.154967E-1	7.748795E-1	8.222114E-1	8.371648E-1	7.730589E-1	8.528174E-1	8.399869E-1	8.210789E-1	8.746791E-1	8.358648E-1	8.238069E-1	8.274794E-1	7.749769E-1	8.892385E-1	8.151062E-1	8.081071E-1	8.110341E-1	7.969732E-1	8.123920E-1	8.678698E-1	8.113701E-1	8.592880E-1	8.348076E-1	8.137734E-1	8.291308E-1	8.316596E-1	8.177577E-1	8.230064E-1	8.427743E-1	8.399688E-1	8.232335E-1	8.220445E-1	8.361461E-1	8.593798E-1	8.133115E-1	8.193176E-1	8.477519E-1	8.771189E-1	8.664492E-1	8.517479E-1	8.546512E-1	7.830285E-1	8.074148E-1	8.425485E-1	8.349133E-1	8.430530E-1	8.170035E-1	8.182410E-1	8.805847E-1	8.273464E-1	8.303851E-1	8.114644E-1	8.063717E-1	8.051292E-1	8.372377E-1	8.823453E-1	8.124323E-1	8.445786E-1	8.215426E-1	9.010930E-1	8.269125E-1	7.905559E-1	7.587859E-1	7.984193E-1	8.571330E-1	7.972217E-1	7.930159E-1	8.228648E-1	8.996231E-1	7.364967E-1	8.337811E-1	8.923116E-1
2.980040E+2	7.916741E-1	8.770215E-1	8.975385E-1	9.160124E-1	8.075448E-1	9.203146E-1	9.386183E-1	9.229294E-1	8.751019E-1	8.933679E-1	8.813229E-1	9.351314E-1	8.523006E-1	8.963537E-1	9.114259E-1	9.281968E-1	8.320788E-1	9.465414E-1	8.903040E-1	8.869277E-1	8.572478E-1	9.296269E-1	9.223236E-1	9.165210E-1	8.941823E-1	8.794430E-1	8.915720E-1	9.211335E-1	7.765312E-1	8.970455E-1	9.229646E-1	8.723644E-1	8.098931E-1	8.659417E-1	9.306985E-1	9.508941E-1	8.790941E-1	9.005636E-1	9.013650E-1	9.092213E-1	9.348748E-1	9.406726E-1	9.305485E-1	8.601964E-1	8.855518E-1	8.980684E-1	9.766300E-1	8.567627E-1	7.776114E-1	8.668811E-1	8.558127E-1	8.744753E-1	8.230504E-1	9.325789E-1	8.932477E-1	9.083028E-1	9.149430E-1	9.357956E-1	8.757836E-1	9.102522E-1	8.801341E-1	8.763603E-1	9.288677E-1	9.630989E-1	9.034011E-1	8.607915E-1	8.645023E-1	9.116276E-1	9.204305E-1	8.976881E-1	8.877814E-1	8.696870E-1	8.906352E-1	9.244793E-1	9.574231E-1	9.263691E-1	9.198993E-1	9.731958E-1	9.588001E-1	9.041121E-1	9.085462E-1	9.030843E-1	8.787497E-1	8.990692E-1	9.028174E-1	9.249968E-1	8.831479E-1	8.631802E-1	9.132851E-1	9.541120E-1	8.970880E-1	8.870469E-1	9.057386E-1	9.207156E-1	9.026547E-1	9.487236E-1	8.912715E-1	9.499656E-1	8.818463E-1	8.890100E-1	9.851273E-1	8.929656E-1	9.957052E-1	8.857000E-1	9.460925E-1	8.973260E-1	9.287343E-1	9.178957E-1	9.121243E-1	9.201969E-1	8.968470E-1	9.212689E-1	9.252559E-1	8.851799E-1	9.232829E-1	9.074320E-1	9.036489E-1	9.465570E-1	8.787744E-1	8.618832E-1	9.026425E-1	9.530959E-1	8.872552E-1	9.567252E-1	9.303981E-1	9.140575E-1	8.806218E-1	9.262416E-1	9.151713E-1	9.106152E-1	9.183290E-1	9.333091E-1	8.806319E-1	9.167376E-1	9.044554E-1	9.609133E-1	9.224021E-1	9.060762E-1	9.041917E-1	9.503659E-1	9.387617E-1	9.433437E-1	9.553346E-1	8.749978E-1	8.970181E-1	9.387652E-1	9.205510E-1	8.848394E-1	9.114208E-1	8.635473E-1	8.810616E-1	9.314022E-1	9.425085E-1	9.116006E-1	9.060358E-1	9.115682E-1	8.653412E-1	8.915806E-1	9.033240E-1	8.967426E-1	8.725482E-1	9.463317E-1	8.981240E-1	9.484033E-1	9.286495E-1	9.270907E-1	8.658405E-1	8.825157E-1	9.424514E-1	9.889573E-1	8.868027E-1	8.883719E-1
2.985040E+2	1.109342E+0	9.953601E-1	1.033435E+0	1.013663E+0	1.049665E+0	1.042499E+0	1.021400E+0	1.028068E+0	9.994978E-1	1.061290E+0	1.029231E+0	9.915391E-1	1.006597E+0	1.032692E+0	1.009284E+0	1.033015E+0	1.046858E+0	9.894665E-1	9.887999E-1	9.786082E-1	9.806234E-1	1.023675E+0	1.058900E+0	1.026765E+0	1.016394E+0	9.798738E-1	1.007009E+0	1.024982E+0	9.269596E-1	9.940026E-1	1.003454E+0	9.940769E-1	9.139256E-1	9.596619E-1	1.084104E+0	1.023261E+0	9.727242E-1	9.956650E-1	1.020089E+0	1.010480E+0	9.928329E-1	1.001771E+0	1.027249E+0	9.846372E-1	9.716009E-1	1.026469E+0	1.003560E+0	1.020646E+0	9.712333E-1	1.029229E+0	9.608339E-1	1.036976E+0	9.410176E-1	1.035382E+0	1.005905E+0	1.015948E+0	9.998199E-1	1.017034E+0	1.040701E+0	1.044334E+0	9.090215E-1	1.013439E+0	9.869342E-1	1.058532E+0	9.753435E-1	9.696019E-1	1.009312E+0	1.004475E+0	1.016087E+0	1.040609E+0	1.040927E+0	1.019745E+0	1.018513E+0	1.006527E+0	1.075175E+0	9.822912E-1	1.003940E+0	1.034198E+0	9.616860E-1	1.007758E+0	9.434018E-1	1.020690E+0	9.992562E-1	1.044022E+0	1.054817E+0	1.007993E+0	9.876448E-1	1.033296E+0	1.026142E+0	1.028829E+0	9.996975E-1	1.031004E+0	9.987834E-1	1.029987E+0	1.009476E+0	1.012140E+0	9.907858E-1	1.055673E+0	1.065489E+0	1.023826E+0	1.038137E+0	1.054652E+0	9.759511E-1	1.001647E+0	1.032043E+0	1.053108E+0	1.004370E+0	9.957284E-1	9.647486E-1	1.021395E+0	1.039083E+0	1.030546E+0	1.044768E+0	9.876562E-1	1.062367E+0	1.020946E+0	1.058656E+0	1.018769E+0	1.008692E+0	1.062859E+0	1.040566E+0	9.797571E-1	1.013558E+0	9.810365E-1	1.011413E+0	1.005316E+0	1.035877E+0	1.027877E+0	9.930523E-1	9.981755E-1	1.006713E+0	1.008846E+0	1.033661E+0	9.990747E-1	1.027116E+0	9.892337E-1	1.058935E+0	1.027472E+0	1.050324E+0	9.864928E-1	1.063599E+0	1.031226E+0	1.071929E+0	1.027040E+0	1.038071E+0	1.012864E+0	1.062346E+0	1.015956E+0	1.010279E+0	9.545162E-1	1.024784E+0	9.624651E-1	1.075575E+0	1.000328E+0	9.882354E-1	9.846277E-1	1.038395E+0	9.564440E-1	1.023045E+0	9.672241E-1	1.051392E+0	1.010268E+0	1.019155E+0	1.039739E+0	9.783137E-1	1.007160E+0	1.045475E+0	1.011902E+0	9.759109E-1	1.010445E+0	1.071117E+0	1.034144E+0
2.990010E+2	1.107040E+0	1.068450E+0	1.101382E+0	1.012457E+0	1.102746E+0	1.087654E+0	1.090665E+0	1.068077E+0	1.122893E+0	1.021889E+0	1.126221E+0	1.100593E+0	1.179474E+0	1.023896E+0	1.116928E+0	1.084535E+0	1.136272E+0	1.097975E+0	1.169223E+0	1.131768E+0	1.160942E+0	1.118705E+0	1.107513E+0	1.121386E+0	1.127678E+0	1.122151E+0	1.115025E+0	1.111198E+0	1.197383E+0	1.148935E+0	1.091114E+0	1.120232E+0	1.154500E+0	1.099728E+0	1.127502E+0	1.124572E+0	1.126151E+0	1.153354E+0	1.097124E+0	1.085607E+0	1.067618E+0	1.098289E+0	1.088060E+0	1.058380E+0	1.050834E+0	1.083066E+0	1.037919E+0	1.108358E+0	1.104002E+0	1.160510E+0	1.119925E+0	1.113848E+0	1.066718E+0	1.082187E+0	1.143094E+0	1.091127E+0	1.075030E+0	1.110501E+0	1.100959E+0	1.096235E+0	1.056447E+0	1.092281E+0	1.092424E+0	1.090980E+0	9.875030E-1	1.193442E+0	1.122195E+0	1.164440E+0	1.085889E+0	1.076770E+0	1.055889E+0	1.135578E+0	1.129589E+0	1.096965E+0	1.077171E+0	1.076428E+0	1.072222E+0	1.078564E+0	1.111737E+0	1.127217E+0	1.083819E+0	1.121962E+0	1.104141E+0	1.080530E+0	1.058253E+0	1.084532E+0	1.108219E+0	1.144962E+0	1.117002E+0	1.067722E+0	1.090502E+0	1.097374E+0	1.134703E+0	1.094984E+0	1.096484E+0	1.144973E+0	1.101357E+0	1.084213E+0	1.091138E+0	1.057529E+0	1.092031E+0	1.104613E+0	1.112514E+0	1.086136E+0	1.112340E+0	1.107732E+0	1.045718E+0	1.084952E+0	1.131730E+0	1.097294E+0	1.092902E+0	1.107987E+0	1.081451E+0	1.142890E+0	1.088860E+0	1.140541E+0	1.166868E+0	1.109036E+0	1.138612E+0	1.046609E+0	1.106485E+0	1.039004E+0	1.091694E+0	1.095788E+0	1.052884E+0	1.086828E+0	1.133031E+0	1.099901E+0	1.114812E+0	1.094691E+0	1.151035E+0	1.110924E+0	1.132417E+0	1.097139E+0	1.148074E+0	1.087464E+0	1.083491E+0	1.127707E+0	1.047420E+0	1.095851E+0	1.048547E+0	1.118143E+0	1.025814E+0	1.089155E+0	1.092807E+0	1.110635E+0	1.085668E+0	1.166844E+0	1.111858E+0	1.169869E+0	1.090415E+0	1.142804E+0	1.073527E+0	1.110745E+0	1.064182E+0	1.120699E+0	1.125474E+0	1.090872E+0	1.107356E+0	1.112539E+0	1.099494E+0	1.088157E+0	1.161544E+0	1.089734E+0	1.072675E+0	1.160465E+0	1.094025E+0	1.148850E+0	1.084317E+0	1.148314E+0	1.141813E+0	1.065665E+0
2.995040E+2	1.163438E+0	1.132260E+0	1.099225E+0	1.124577E+0	1.129752E+0	1.079685E+0	1.083907E+0	1.059703E+0	1.111857E+0	1.111010E+0	1.097124E+0	1.106234E+0	1.156047E+0	1.138244E+0	1.077785E+0	1.128950E+0	1.198956E+0	1.086051E+0	1.061522E+0	1.113432E+0	1.141171E+0	1.069720E+0	1.095167E+0	1.097948E+0	1.112773E+0	1.093457E+0	1.099358E+0	1.124914E+0	1.151298E+0	1.075966E+0	1.122194E+0	1.099799E+0	1.225094E+0	1.163582E+0	1.064929E+0	1.089423E+0	1.189096E+0	1.075322E+0	1.106188E+0	1.079074E+0	1.116229E+0	1.113342E+0	1.070116E+0	1.163463E+0	1.173518E+0	1.088135E+0	1.119639E+0	1.116821E+0	1.234560E+0	1.131448E+0	1.199991E+0	1.120659E+0	1.251403E+0	1.076336E+0	1.113113E+0	1.120175E+0	1.116932E+0	1.059837E+0	1.115759E+0	1.110293E+0	1.157055E+0	1.107513E+0	1.100167E+0	1.075711E+0	1.135441E+0	1.076340E+0	1.100531E+0	1.098440E+0	1.118637E+0	1.075048E+0	1.112219E+0	1.078538E+0	1.092253E+0	1.113746E+0	1.062203E+0	1.133282E+0	1.019697E+0	1.061002E+0	1.105966E+0	1.089448E+0	1.070873E+0	1.147008E+0	1.103025E+0	1.104151E+0	1.047948E+0	1.089144E+0	1.096608E+0	1.081278E+0	1.103612E+0	1.050324E+0	1.165870E+0	1.087091E+0	1.038921E+0	1.080854E+0	1.099929E+0	1.088412E+0	1.096331E+0	1.077871E+0	1.075749E+0	1.158640E+0	1.061109E+0	1.111879E+0	1.092760E+0	1.123887E+0	1.103293E+0	1.065246E+0	1.156651E+0	1.116275E+0	1.073032E+0	1.094483E+0	1.076564E+0	1.079591E+0	1.090915E+0	1.074911E+0	1.101002E+0	1.075676E+0	1.042083E+0	1.089263E+0	1.140508E+0	1.102198E+0	1.110541E+0	1.134787E+0	1.116313E+0	1.110375E+0	1.117503E+0	1.132014E+0	1.092073E+0	1.103102E+0	1.120296E+0	1.092702E+0	1.044751E+0	1.057845E+0	1.116403E+0	1.060134E+0	1.055226E+0	1.109589E+0	1.055989E+0	1.066452E+0	1.096776E+0	1.087064E+0	1.070683E+0	1.085308E+0	1.064968E+0	1.106770E+0	1.126490E+0	1.085935E+0	1.068877E+0	1.094001E+0	1.107323E+0	1.142950E+0	1.126139E+0	1.078952E+0	1.108329E+0	1.127504E+0	1.163358E+0	1.102434E+0	1.097917E+0	1.141634E+0	1.114943E+0	1.091655E+0	1.063726E+0	1.085831E+0	1.100520E+0	1.097425E+0	1.111413E+0	1.101877E+0	1.117329E+0	1.083317E+0	1.061563E+0	1.125038E+0	1.068591E+0	9.986873E-1
3.000060E+2	1.069059E+0	1.035965E+0	1.064712E+0	1.084792E+0	1.092503E+0	1.012396E+0	1.061100E+0	1.084824E+0	1.090790E+0	1.035961E+0	1.045396E+0	9.811973E-1	1.098691E+0	1.081950E+0	1.044663E+0	9.912651E-1	1.051468E+0	1.007353E+0	1.032065E+0	1.060581E+0	1.143544E+0	1.032493E+0	1.007974E+0	1.031974E+0	1.025337E+0	1.081501E+0	1.044113E+0	9.652199E-1	1.183471E+0	1.022990E+0	1.050471E+0	1.061597E+0	1.113631E+0	1.066772E+0	9.862070E-1	1.024295E+0	1.053765E+0	1.055002E+0	1.033684E+0	1.075808E+0	1.070423E+0	9.999995E-1	1.070116E+0	1.083267E+0	1.102805E+0	1.045897E+0	1.063920E+0	1.061424E+0	1.164855E+0	9.610834E-1	1.025302E+0	1.039896E+0	1.168247E+0	1.056277E+0	1.013174E+0	1.021928E+0	1.066434E+0	1.045860E+0	1.028015E+0	1.010813E+0	1.159047E+0	1.082427E+0	1.024679E+0	1.032766E+0	1.187118E+0	1.024525E+0	1.041238E+0	1.001119E+0	1.080719E+0	1.056967E+0	1.037407E+0	1.003072E+0	1.042781E+0	1.021444E+0	9.833684E-1	1.054990E+0	1.249057E+0	1.042517E+0	1.044406E+0	1.026204E+0	1.191372E+0	9.803991E-1	1.057278E+0	1.007516E+0	1.136399E+0	1.055022E+0	1.053737E+0	1.022827E+0	1.042401E+0	1.066699E+0	1.029663E+0	1.061851E+0	1.059901E+0	1.024335E+0	1.080977E+0	9.872882E-1	1.087284E+0	1.050387E+0	1.016244E+0	1.024988E+0	1.008099E+0	1.061011E+0	1.000859E+0	1.065464E+0	1.033174E+0	1.023772E+0	1.024540E+0	1.064070E+0	1.043686E+0	1.030766E+0	1.070797E+0	1.033127E+0	1.082632E+0	1.020124E+0	1.009382E+0	1.047298E+0	1.017711E+0	1.039402E+0	1.021021E+0	1.058582E+0	1.028396E+0	1.034068E+0	1.056372E+0	1.042303E+0	1.058671E+0	1.030124E+0	1.040639E+0	1.019873E+0	1.013894E+0	1.063847E+0	1.055939E+0	1.067031E+0	1.000741E+0	1.067535E+0	1.051818E+0	1.033482E+0	1.031432E+0	9.951745E-1	1.034840E+0	1.028478E+0	1.023758E+0	1.038952E+0	1.074540E+0	1.059489E+0	1.010701E+0	1.008748E+0	1.045555E+0	1.020118E+0	9.785348E-1	1.041771E+0	1.047216E+0	1.072912E+0	9.936878E-1	1.044693E+0	1.040951E+0	9.983264E-1	1.060441E+0	1.074891E+0	1.029790E+0	1.030745E+0	1.085927E+0	1.078856E+0	1.061872E+0	1.026279E+0	1.051816E+0	1.006185E+0	1.084315E+0	1.050551E+0	1.036135E+0	9.907491E-1	9.978952E-1	1.120821E+0
