Photon Energy (eV)	#1	#2	#3	#4	#5	#6	#7	#8	#9	#10	#11	#12	#13	#14	#15	#16	#17	#18	#19	#20	#21	#22	#23	#24	#25	#26	#27	#28	#29	#30	#31	#32	#33	#34	#35	#36	#37	#38	#39	#40	#41	#42	#43	#44	#45	#46	#47	#48	#49	#50	#51	#52	#53	#54	#55	#56	#57	#58	#59	#60	#61	#62	#63	#64	#65	#66	#67	#68	#69	#70	#71	#72	#73	#74	#75	#76	#77	#78	#79	#80	#81	#82	#83	#84	#85	#86	#87	#88	#89	#90	#91	#92	#93	#94	#95	#96	#97	#98	#99	#100	#101	#102	#103	#104	#105	#106	#107	#108	#109	#110	#111	#112	#113	#114	#115	#116	#117	#118	#119	#120	#121	#122	#123	#124	#125	#126	#127	#128	#129	#130	#131	#132	#133	#134	#135	#136	#137	#138	#139	#140	#141	#142	#143	#144	#145	#146	#147	#148	#149	#150	#151	#152	#153	#154	#155	#156	#157	#158	#159	#160	#161	#162	#163	#164	#165	#166	#167	#168	#169	#170	#171	
5.300220E+2	-1.799656E-3	-2.248676E-3	-5.065525E-3	-5.005928E-3	-1.422944E-2	3.906513E-3	-9.645657E-3	-7.715333E-3	-7.799313E-3	-1.036366E-2	-6.421942E-3	-2.527389E-4	-5.193503E-3	9.170373E-4	-6.158289E-3	-4.129439E-3	-1.240418E-2	6.187798E-3	6.178124E-4	3.215190E-4	-1.213564E-3	-1.039203E-2	-4.688637E-4	-9.852906E-3	-5.967680E-3	-5.472869E-3	-5.676972E-3	-8.176762E-3	-4.575553E-3	-7.002963E-3	-5.722507E-4	-9.121588E-3	-1.001370E-2	-1.075073E-2	-7.544693E-3	-4.678795E-3	-7.993185E-3	-1.132775E-2	-1.054431E-3	-3.557265E-3	-6.066843E-3	-4.240612E-3	-5.683127E-3	-8.707642E-3	-4.595161E-3	-6.954350E-3	-3.840668E-3	-6.047114E-3	-7.539700E-3	-1.628337E-2	-4.466889E-3	-1.529395E-3	-5.914579E-3	-6.703995E-3	3.444371E-3	-1.637358E-3	-1.403192E-2	-1.306123E-2	-6.006198E-3	-3.768620E-3	-1.702595E-2	-1.102256E-2	-9.976088E-3	-4.662513E-3	-5.079688E-3	-3.015786E-3	-6.153493E-3	-5.150311E-3	3.424944E-5	-3.957955E-3	1.100395E-4	3.311148E-3	-4.094864E-3	-1.285647E-2	-1.109970E-2	-2.663485E-3	-9.253491E-3	4.134214E-3	-1.029794E-3	-5.169011E-3	-9.405149E-3	-1.056110E-2	-5.181197E-3	-4.244264E-3	-3.154257E-3	2.837336E-3	-5.079418E-3	1.631104E-4	-1.080633E-3	-4.138360E-3	-8.937850E-3	1.499365E-3	-5.052417E-3	-1.459699E-2	-2.562491E-3	-1.359941E-2	-2.235688E-3	-1.053536E-2	-2.114774E-3	-3.069980E-3	-5.544814E-3	-9.404882E-3	-8.362915E-3	-4.616481E-3	3.277032E-3	-6.027378E-3	6.845025E-3	-1.704993E-2	-6.338955E-4	-8.671837E-3	-1.346577E-2	-1.822091E-3	-3.997998E-3	-2.065569E-3	-3.757987E-3	-9.790555E-3	-1.176861E-2	-7.276557E-3	-8.078407E-3	-1.034077E-2	-7.988136E-3	-4.371905E-3	-7.986099E-3	1.096046E-4	-1.669433E-2	-5.809960E-3	-7.202079E-3	-3.406965E-3	-5.637628E-3	-9.597080E-3	-9.528617E-3	-7.433212E-3	-1.142500E-2	-1.262201E-3	9.221661E-3	-3.570565E-3	-7.200245E-3	-2.374090E-3	9.893669E-3	-7.459761E-3	-7.549623E-3	-1.751991E-2	-7.581127E-3	-2.419576E-3	-2.516347E-3	-7.898559E-3	-9.393010E-3	-1.114842E-2	-1.907043E-3	-3.048183E-3	-8.658896E-4	-1.387234E-2	-1.180233E-2	-3.359097E-3	1.017795E-3	-1.070425E-2	-2.043055E-3	-1.929155E-2	-7.917679E-3	-6.209436E-3	3.638575E-4	-1.261499E-2	-1.712830E-3	-1.276362E-2	-3.806053E-3	-8.378982E-3	1.404648E-4	-3.227237E-3	-7.830816E-3	-4.572885E-3	-6.682169E-3
5.305130E+2	-2.971965E-3	-2.892841E-3	4.948487E-4	5.405790E-4	-4.367564E-3	-1.113353E-2	-6.170203E-3	-1.045191E-2	-2.363166E-3	-4.791143E-3	-3.108213E-3	-3.692741E-3	-5.005669E-3	-5.856935E-3	-1.050387E-2	-6.585631E-3	-6.500043E-3	-1.039361E-2	-2.648226E-3	-2.209589E-3	2.196492E-3	-9.400964E-4	-6.545692E-3	-4.185269E-3	1.506556E-4	-6.148902E-3	-1.121201E-2	-6.736731E-3	-9.531862E-3	-2.374269E-3	-5.198269E-3	2.500072E-3	-1.381510E-2	-2.629228E-3	-7.800355E-3	-7.998521E-3	-5.754573E-3	-4.402278E-4	-6.838827E-3	-3.079660E-3	-3.753716E-3	-9.311510E-3	-5.874537E-3	-5.462217E-3	-3.759677E-3	-3.832974E-3	-7.560540E-4	-1.405637E-2	-7.144834E-3	-3.238337E-3	-4.689377E-3	-6.711417E-3	-1.151900E-3	-8.691945E-4	-2.429193E-3	-9.141630E-3	3.227971E-3	3.664173E-3	-2.728089E-5	-5.030281E-4	-9.272729E-5	-3.268760E-3	-3.703701E-3	-6.699114E-3	-7.090400E-3	2.011602E-3	-2.696595E-3	-9.369010E-3	-3.261169E-3	-4.723999E-3	-1.043183E-2	-1.122568E-2	-1.256838E-2	-7.858764E-3	-9.987358E-3	-1.656618E-2	-5.162510E-3	-7.003777E-3	-1.171967E-2	-1.430894E-3	-6.598322E-3	-4.219893E-3	-8.233425E-3	-2.406533E-3	6.308637E-4	-7.819687E-3	4.208878E-5	-7.176691E-4	-2.817785E-3	-3.964707E-3	-2.298276E-3	-2.241936E-3	-7.309844E-3	-4.104127E-3	5.098332E-3	-4.873924E-4	-4.879078E-3	3.403744E-3	6.646513E-4	-5.866949E-4	-7.842804E-3	-3.487595E-3	-1.768142E-3	-7.045254E-3	-2.734217E-3	-8.564584E-3	-1.734388E-2	1.325143E-3	-3.057503E-3	-4.196889E-3	-6.720815E-4	-4.720502E-3	-3.628978E-3	-8.584231E-3	-1.123450E-2	-8.163214E-3	3.513801E-3	-1.470373E-3	-4.801676E-3	-7.429846E-3	-2.575980E-3	-4.701348E-3	-8.137008E-3	-8.643724E-3	-8.556949E-3	-9.714224E-3	-8.993241E-3	-9.252340E-3	2.735115E-3	-8.010921E-3	-2.880689E-3	-4.177387E-3	-5.962845E-4	-4.676514E-3	-2.186876E-3	-3.328690E-3	-3.486366E-3	-3.798532E-3	-1.696100E-4	-1.054661E-2	-8.315553E-3	-1.103198E-2	2.057710E-3	-5.147984E-3	-6.858803E-3	2.851190E-3	-4.748288E-3	-9.550758E-3	-3.183805E-3	-3.889498E-3	-4.184933E-3	-5.676609E-3	4.848632E-3	-1.428941E-2	-6.346157E-3	-5.965497E-3	-5.601783E-3	-9.546608E-3	-9.712378E-3	-3.943066E-3	-1.191966E-2	-1.101659E-2	-7.045435E-3	-5.880397E-3	2.575403E-3	-2.885131E-3	-5.210734E-3	-9.158255E-3	-5.136021E-3	-3.615731E-4	1.319336E-2
5.310150E+2	7.301365E-4	-8.037311E-4	-1.116581E-2	-1.186714E-3	8.595648E-4	9.863898E-3	-2.543625E-3	-1.111595E-3	-6.286181E-3	5.608681E-3	-2.530264E-3	-3.692668E-3	-4.493435E-3	-1.025882E-2	-8.973169E-3	-6.154686E-3	8.468080E-3	-4.810636E-3	-4.451560E-3	-5.032368E-3	-5.170972E-4	-1.854820E-3	-4.295032E-3	1.772017E-3	4.322207E-3	-3.251564E-3	-5.357631E-3	8.826764E-3	-7.980379E-3	-3.992050E-3	-3.192009E-4	5.456550E-3	2.002755E-3	2.565714E-3	-1.982030E-3	4.089069E-3	-1.832846E-3	3.425174E-3	-3.585045E-3	-3.520498E-3	-3.266774E-3	-1.290771E-3	-5.270138E-3	-2.085481E-3	-1.531701E-3	-3.832991E-3	-7.288223E-3	-5.023358E-3	-3.024479E-3	2.265893E-3	-4.416025E-4	-4.012456E-3	-4.704886E-3	-2.878328E-3	-1.004303E-2	-4.407080E-3	1.119899E-3	-8.432862E-3	-6.415655E-4	6.823586E-5	-8.042613E-3	2.141999E-4	-2.628418E-3	3.748926E-3	-8.914437E-4	-7.378121E-3	-8.833101E-3	9.157828E-4	-1.781972E-3	-4.724005E-3	-5.340067E-3	-8.075950E-5	3.271611E-3	-1.056529E-3	2.804434E-4	2.432548E-3	1.311230E-3	-8.601236E-3	5.391016E-3	-1.923840E-3	-3.065303E-3	6.929870E-4	3.636246E-3	-4.506799E-3	8.217995E-3	-1.180338E-3	-4.826991E-3	-2.283545E-4	6.076299E-4	-3.443784E-3	-2.298317E-3	-5.097806E-3	-8.277344E-3	-5.122058E-3	2.992059E-4	-2.845674E-3	3.406155E-3	-6.615940E-3	-4.773452E-3	-6.044466E-3	-2.698087E-3	1.070618E-3	-4.635455E-3	-4.316332E-3	-4.813025E-3	5.238478E-4	7.836722E-4	-5.143493E-4	-6.772553E-3	-1.549008E-3	-8.795033E-3	-1.440462E-4	-9.928725E-4	2.000877E-3	4.193146E-3	-2.209496E-3	-3.736709E-3	-5.804669E-3	3.949234E-3	-4.791493E-3	-9.701673E-3	-9.263344E-3	-1.911640E-3	-5.000712E-3	5.407709E-3	-3.962435E-3	-3.254721E-3	3.773349E-4	-1.104405E-2	3.810909E-3	-5.729861E-3	-1.458069E-2	-5.878520E-3	-7.243728E-3	-7.895865E-3	-4.365316E-3	-8.641924E-3	-3.798585E-3	-5.257787E-3	1.607690E-3	1.364628E-4	1.209346E-2	-9.855456E-3	-1.087529E-2	-1.088500E-2	-8.707710E-3	8.268784E-3	-9.550740E-3	-8.001666E-3	1.597275E-3	6.105032E-3	-3.035664E-3	1.062286E-3	-3.040360E-3	-4.729709E-3	-2.940748E-3	-9.292391E-3	1.351718E-3	-1.266840E-3	-4.432210E-3	1.180285E-3	5.343744E-3	1.479154E-3	1.628570E-3	-5.540664E-3	4.370874E-3	-4.578746E-3	-9.158267E-3	-9.471475E-4	-3.615731E-4	-9.608393E-3
5.315130E+2	1.655689E-3	3.374494E-3	1.142665E-3	-2.913975E-3	-6.458428E-3	-3.808852E-3	4.105057E-3	-1.603153E-3	-4.044464E-3	-4.271127E-3	2.093543E-3	-5.733242E-4	2.677864E-3	-2.922371E-3	2.111660E-4	7.397066E-4	-4.019327E-4	2.140075E-4	-1.046263E-2	-4.467825E-3	-2.687894E-3	-7.343031E-3	4.707662E-3	-1.703045E-3	-4.542404E-3	-1.802812E-3	9.544399E-3	-8.346775E-3	-1.774228E-3	-4.531291E-3	-1.945569E-3	-3.835201E-3	7.105248E-3	-9.382670E-3	5.951974E-3	-3.268645E-3	6.010542E-3	-6.238326E-3	1.295424E-3	4.414407E-3	-8.318791E-4	4.591180E-3	-1.039245E-3	-2.648222E-3	-4.177597E-4	1.168554E-3	3.054408E-3	1.299741E-3	2.126026E-3	-3.238314E-3	2.592468E-3	3.004854E-3	2.401046E-3	1.139884E-3	8.447733E-3	1.747869E-3	-2.569228E-3	2.086267E-3	-4.941453E-3	-5.644170E-3	2.027191E-3	7.677776E-3	2.747941E-3	3.294649E-3	-8.914321E-4	4.359044E-3	-3.310269E-3	-2.269436E-4	4.135039E-3	1.915126E-3	3.711959E-3	-4.441781E-3	-3.881939E-3	-1.056564E-3	-5.994318E-3	1.838863E-3	1.311237E-3	-2.211288E-3	1.057610E-2	-8.824977E-3	-3.065252E-3	6.929204E-4	2.449374E-4	-7.132147E-3	-4.933049E-3	-3.733917E-3	3.288092E-3	-3.164293E-3	-1.839113E-3	-3.443771E-3	-1.730820E-3	2.327551E-3	-1.988722E-3	1.421812E-2	-4.499930E-3	-2.845627E-3	1.038915E-3	-5.437159E-3	-2.960719E-3	-3.861364E-3	3.887220E-4	5.767580E-5	-1.094351E-2	3.324797E-3	-5.852383E-3	-1.748236E-3	7.836480E-4	-6.033087E-3	1.188197E-3	2.687596E-3	-6.720568E-4	-2.178049E-3	-3.101736E-3	9.423625E-4	1.724729E-2	1.088871E-2	2.547080E-3	7.740108E-3	-3.051469E-3	-3.208479E-3	4.040729E-3	4.929471E-3	-2.477594E-3	-2.572003E-3	-2.350432E-3	1.266567E-3	-1.246298E-4	8.840911E-4	-5.302734E-3	3.219795E-3	2.817406E-3	1.373944E-2	8.443425E-4	3.024995E-3	-3.328716E-3	8.177863E-4	1.096361E-3	-3.798539E-3	-1.204197E-2	6.816701E-3	-5.146030E-3	-1.671707E-3	5.848301E-3	5.829442E-3	-1.107189E-3	-3.852397E-5	-1.198103E-3	1.123826E-2	7.415484E-3	-5.535528E-3	-5.531701E-4	6.617349E-4	-1.354224E-2	-1.353014E-3	-2.574390E-3	5.528594E-3	-4.547363E-3	-8.279678E-4	1.192935E-2	-3.943036E-3	-5.284210E-4	-4.246761E-3	-3.635576E-3	6.249443E-3	-2.676170E-3	-1.848553E-3	-7.738879E-3	-8.823910E-4	-1.100036E-2	-1.637761E-3	-7.328230E-3
5.320220E+2	3.969491E-3	-2.370553E-3	1.142657E-3	3.419352E-3	6.609433E-3	-9.180262E-3	-1.939199E-3	-2.586370E-3	1.501024E-2	3.528685E-3	-3.686197E-3	2.546029E-3	1.141115E-3	-1.944196E-3	1.092626E-2	-4.431114E-3	4.587490E-3	2.140177E-4	5.767333E-3	4.860612E-5	2.196465E-3	1.049366E-2	-4.857696E-3	-1.206632E-3	-1.935141E-3	8.820970E-3	1.028935E-3	9.363431E-3	4.431914E-3	6.793251E-3	-2.487731E-3	1.655387E-3	-1.058765E-3	1.526745E-3	1.337234E-4	6.716777E-3	-8.524159E-4	6.324205E-3	6.718276E-3	8.381879E-3	7.933551E-3	4.056413E-3	1.165339E-2	1.291264E-3	4.595160E-3	1.117172E-2	4.143108E-3	1.078441E-2	9.851684E-3	7.770169E-3	7.447055E-3	-2.339303E-4	2.908685E-3	8.171744E-3	-1.885345E-3	-7.721281E-3	5.929149E-4	7.345870E-3	-6.169944E-3	-2.788025E-3	7.857110E-3	3.697247E-3	7.048956E-3	-3.973541E-3	4.353854E-3	3.772207E-3	1.571272E-2	8.915060E-3	-2.275019E-3	-3.191883E-3	1.448925E-3	-1.049900E-3	3.271614E-3	1.141418E-2	1.340048E-2	1.838863E-3	1.311227E-3	5.776073E-3	-2.386599E-3	1.526756E-3	1.401123E-2	5.605797E-3	5.331943E-3	8.619801E-3	-6.956301E-3	-4.755372E-3	-2.121949E-3	-5.121582E-3	-4.775116E-3	2.286242E-3	7.348921E-3	-2.813083E-3	1.687718E-2	-1.050415E-3	-1.300517E-3	7.530787E-3	-4.879074E-3	1.283398E-2	2.477351E-3	8.145675E-3	2.961030E-3	3.096514E-3	2.819486E-3	3.324760E-3	-2.214511E-3	1.659893E-3	4.749032E-3	-5.144278E-4	-3.588262E-3	1.628427E-3	8.611309E-3	4.432360E-3	5.887065E-4	9.423851E-4	-1.004774E-2	4.934960E-3	1.302445E-4	8.823637E-3	1.615697E-3	1.420445E-2	1.269334E-2	1.381272E-3	7.709420E-3	2.285315E-3	9.545403E-3	6.495541E-3	7.700592E-3	-4.184073E-3	3.309220E-3	-3.282227E-3	3.387241E-3	-2.443511E-3	8.527732E-3	4.565306E-3	1.238549E-3	-5.401909E-3	2.242047E-3	-5.531041E-3	-5.257766E-3	6.816726E-3	4.362464E-3	7.137940E-3	9.747164E-4	5.352162E-3	1.097127E-2	2.851193E-3	1.760275E-3	5.463513E-3	-6.556293E-3	-5.974431E-4	-4.184933E-3	1.386652E-2	4.307752E-3	4.271533E-3	-9.578915E-4	9.158278E-3	1.443288E-2	1.351701E-3	2.428098E-3	9.263854E-3	-1.667529E-3	1.154942E-2	9.108700E-4	-1.043196E-4	-2.198756E-3	1.779465E-3	-7.865178E-4	2.300623E-3	3.241690E-3	6.019225E-3	1.091316E-2
5.325170E+2	-1.583697E-3	4.941307E-3	1.345116E-2	5.146687E-3	1.758643E-2	1.035224E-2	1.619363E-2	2.346836E-2	5.482888E-3	1.028857E-2	1.365307E-2	5.665443E-3	1.087363E-2	2.006528E-2	1.449790E-2	2.056116E-2	6.250586E-3	8.588424E-3	1.117727E-2	1.133966E-2	2.559871E-5	1.003632E-2	1.145962E-2	1.517583E-2	7.972362E-3	7.855176E-3	1.167328E-2	5.070074E-3	1.943011E-2	1.110732E-2	1.052302E-2	3.344780E-3	1.577956E-2	1.867017E-2	1.124138E-2	5.140115E-3	1.042248E-2	8.256923E-3	3.464603E-3	-2.638863E-3	5.985661E-3	6.195300E-3	6.213659E-3	1.761230E-2	5.709139E-3	2.280044E-3	4.687429E-3	1.304270E-2	5.731304E-3	1.272396E-2	-4.416544E-4	9.482344E-3	6.461634E-3	1.139890E-3	2.465462E-3	2.115948E-2	1.166036E-2	8.397783E-3	1.778644E-2	1.263561E-2	1.527699E-2	2.702093E-3	6.511310E-3	8.291593E-3	9.599110E-3	2.510541E-4	5.280741E-3	4.915421E-3	3.148871E-3	1.468271E-2	1.050097E-2	1.348697E-2	1.400196E-2	1.141414E-2	1.340045E-2	1.311939E-2	1.048231E-2	7.906014E-3	-8.310541E-4	1.582197E-2	8.122794E-3	7.789284E-3	4.201496E-3	9.669943E-3	6.194749E-3	1.465198E-2	8.698179E-3	9.068788E-3	9.905017E-3	1.270438E-2	7.916342E-3	6.325909E-3	5.751143E-3	1.065547E-2	2.965400E-3	1.224732E-2	7.548770E-3	6.350732E-3	6.706942E-3	5.416830E-3	1.273595E-2	8.667669E-3	2.289054E-2	9.328510E-3	1.233711E-2	1.415646E-2	4.182500E-3	2.278665E-2	1.286402E-2	1.010171E-2	1.499363E-2	4.432329E-3	1.113288E-2	6.764175E-3	3.599788E-3	4.339593E-3	9.314189E-3	-2.012146E-3	1.036662E-2	1.156613E-2	3.531720E-3	1.202585E-2	1.280292E-2	1.382152E-2	1.264860E-2	1.172451E-2	1.187408E-2	1.558195E-2	1.594008E-2	1.385952E-2	1.193452E-2	1.489537E-2	8.527729E-3	5.592143E-3	2.951247E-3	1.584869E-2	1.599013E-2	1.930079E-2	1.283346E-2	2.765250E-3	1.651228E-2	1.099220E-2	8.555856E-3	7.261247E-3	1.039608E-2	1.094241E-2	5.310341E-3	1.354814E-2	1.223332E-2	1.147338E-2	3.683893E-3	8.056362E-3	1.512590E-2	1.777035E-2	1.359035E-2	4.923620E-3	7.051711E-3	2.696270E-2	4.539444E-3	9.263893E-3	1.257147E-2	1.098518E-2	1.000382E-2	1.087033E-2	1.164624E-2	6.962327E-3	1.817441E-2	2.012553E-2	2.167265E-2	9.145678E-4	-4.877271E-4
5.330280E+2	1.507597E-2	1.382011E-2	2.835086E-2	1.551036E-2	2.438174E-2	1.621202E-2	2.405122E-2	2.936751E-2	2.790017E-2	2.224830E-2	3.272622E-2	1.346391E-2	2.470400E-2	2.740167E-2	4.460216E-2	1.797579E-2	2.288187E-2	1.807951E-2	3.822712E-2	2.093711E-2	2.173402E-2	2.467161E-2	1.258493E-2	1.964382E-2	3.039469E-2	1.220129E-2	2.976867E-2	1.795019E-2	2.563626E-2	2.458901E-2	3.762871E-2	2.868589E-2	3.363840E-2	2.386514E-2	3.927500E-2	3.457074E-2	1.483440E-2	2.903340E-2	1.919085E-2	2.292915E-2	2.205567E-2	1.528553E-2	2.857687E-2	3.505889E-2	1.183605E-2	2.006340E-2	2.156226E-2	2.117241E-2	5.731313E-3	1.987946E-2	2.443798E-2	2.135775E-2	4.938919E-3	2.072866E-2	2.150006E-2	2.163301E-2	2.957906E-2	1.207945E-2	2.331481E-2	2.463173E-2	2.852674E-2	2.160975E-2	2.532854E-2	2.509936E-2	1.722855E-2	2.900717E-2	2.184918E-2	2.034260E-2	1.399673E-2	1.110780E-2	2.351327E-2	3.577678E-2	2.473226E-2	2.671906E-2	2.138656E-2	1.608800E-2	2.235077E-2	2.121835E-2	8.502098E-3	1.877957E-2	2.637696E-2	1.597734E-2	1.098416E-2	2.962243E-2	2.288650E-2	2.793069E-2	2.601031E-2	4.381059E-2	2.213850E-2	3.249888E-2	1.926597E-2	2.403268E-2	3.284064E-2	2.541505E-2	2.162865E-2	1.885051E-2	1.701757E-2	1.990670E-2	2.483405E-2	1.906120E-2	2.302530E-2	3.044594E-2	2.231707E-2	3.061433E-2	3.260546E-2	1.926876E-2	2.174355E-2	1.788119E-2	3.143913E-2	1.857491E-2	2.949892E-2	2.273801E-2	1.482332E-2	1.999560E-2	2.258768E-2	3.113135E-2	1.656469E-2	2.345200E-2	1.911756E-2	2.686843E-2	2.134602E-2	1.608093E-2	2.468777E-2	2.596493E-2	2.040675E-2	1.695348E-2	2.074271E-2	1.912970E-2	1.421772E-2	2.154368E-2	3.130838E-2	2.356479E-2	2.101313E-2	2.458921E-2	2.521640E-2	3.917255E-2	3.546669E-2	8.906087E-3	2.414047E-2	1.839232E-2	2.654908E-2	2.806094E-2	2.967475E-2	1.394316E-2	2.650075E-2	1.556600E-2	2.424430E-2	2.394272E-2	3.295009E-2	2.793355E-2	2.789568E-2	3.763522E-2	1.783044E-2	4.195581E-2	1.574564E-2	2.549196E-2	2.497746E-2	2.423819E-2	1.668000E-2	3.225368E-2	2.225403E-2	2.339649E-2	3.387288E-2	2.242264E-2	1.498817E-2	1.629152E-2	2.828683E-2	3.667723E-2	2.753697E-2	1.622837E-2	5.195619E-2
5.331630E+2	3.497494E-2	3.523355E-2	4.648961E-2	2.241952E-2	1.497287E-2	2.744320E-2	3.553531E-2	2.740112E-2	3.294402E-2	2.068834E-2	3.908396E-2	3.218027E-2	2.470398E-2	2.593441E-2	4.001000E-2	3.219548E-2	4.450254E-2	3.371179E-2	4.063156E-2	3.843831E-2	3.530183E-2	3.610537E-2	3.284089E-2	2.510466E-2	3.456631E-2	3.393178E-2	4.520300E-2	3.512371E-2	4.735775E-2	2.944241E-2	2.624431E-2	3.164234E-2	4.282296E-2	2.802107E-2	2.499374E-2	3.194296E-2	2.757995E-2	2.565121E-2	3.600161E-2	2.248842E-2	3.130809E-2	1.956329E-2	3.824750E-2	4.293803E-2	2.130487E-2	3.284516E-2	3.734839E-2	2.162404E-2	3.817923E-2	2.098033E-2	2.807884E-2	1.973841E-2	2.473407E-2	3.127645E-2	2.802622E-2	3.394275E-2	3.590329E-2	2.628026E-2	3.375738E-2	2.977293E-2	3.382668E-2	3.454664E-2	3.608122E-2	3.554741E-2	1.627491E-2	2.959407E-2	3.350844E-2	3.405567E-2	2.632382E-2	3.306806E-2	4.218309E-2	3.335394E-2	3.137482E-2	4.089027E-2	3.849965E-2	2.558731E-2	3.637710E-2	3.825814E-2	3.027929E-2	3.208886E-2	2.932117E-2	2.471126E-2	3.133224E-2	3.277279E-2	4.463636E-2	2.997356E-2	3.628947E-2	4.185336E-2	3.388266E-2	2.989436E-2	3.742538E-2	2.803095E-2	3.042189E-2	4.271935E-2	5.042348E-2	2.969860E-2	2.411921E-2	3.582029E-2	4.356522E-2	3.052243E-2	3.331467E-2	2.538123E-2	2.403749E-2	3.989275E-2	3.624335E-2	2.665314E-2	1.891116E-2	2.523940E-2	1.710976E-2	3.922847E-2	2.891877E-2	3.595875E-2	2.062263E-2	2.475885E-2	4.335564E-2	4.006195E-2	1.946490E-2	3.266244E-2	2.670167E-2	3.267274E-2	3.865133E-2	2.469794E-2	2.978133E-2	3.871548E-2	2.868206E-2	3.630066E-2	3.274141E-2	4.193676E-2	2.799684E-2	4.164088E-2	3.073859E-2	1.951908E-2	2.437462E-2	3.177731E-2	3.320904E-2	3.761761E-2	2.973830E-2	2.334326E-2	2.470586E-2	4.154342E-2	3.024687E-2	4.568031E-2	2.913325E-2	3.017063E-2	3.052689E-2	2.596900E-2	3.311963E-2	3.144980E-2	2.235083E-2	2.628750E-2	3.092212E-2	3.288143E-2	3.297590E-2	3.295659E-2	3.999278E-2	4.303551E-2	2.023241E-2	3.622627E-2	3.040394E-2	2.834056E-2	3.136698E-2	3.862852E-2	2.932640E-2	3.108675E-2	3.790408E-2	3.080352E-2	3.523925E-2	4.431645E-2	2.921251E-2	2.005682E-2	5.195616E-2
5.333130E+2	2.849619E-2	2.844395E-2	4.065925E-2	2.990442E-2	4.058591E-2	3.183798E-2	2.949104E-2	3.330030E-2	4.695469E-2	4.044790E-2	4.717562E-2	3.685933E-2	4.365672E-2	3.914007E-2	5.582746E-2	4.770794E-2	4.062189E-2	3.259523E-2	5.746259E-2	4.860026E-2	3.258831E-2	2.970243E-2	4.296889E-2	2.857971E-2	2.726599E-2	4.890164E-2	5.478285E-2	3.351367E-2	5.408107E-2	2.944240E-2	4.792881E-2	4.177877E-2	4.537421E-2	5.035955E-2	3.292782E-2	4.297952E-2	3.346249E-2	2.371846E-2	5.281235E-2	4.408901E-2	4.007359E-2	2.865349E-2	4.852246E-2	3.505890E-2	2.019088E-2	3.951392E-2	4.986847E-2	4.059331E-2	3.714914E-2	5.015259E-2	4.567659E-2	3.755150E-2	3.793101E-2	3.780603E-2	3.455238E-2	3.252241E-2	5.013285E-2	3.574741E-2	5.709957E-2	3.548545E-2	4.124655E-2	5.494701E-2	4.468335E-2	3.736443E-2	4.440861E-2	3.781014E-2	4.332678E-2	2.377087E-2	3.815782E-2	4.736776E-2	5.349806E-2	3.965325E-2	5.539045E-2	4.145721E-2	6.074660E-2	3.924272E-2	4.986401E-2	3.559568E-2	4.738996E-2	3.159597E-2	4.580891E-2	4.436261E-2	4.433237E-2	5.377533E-2	3.452015E-2	3.405933E-2	6.117569E-2	4.625724E-2	4.611612E-2	2.885254E-2	4.196525E-2	3.602757E-2	4.299930E-2	4.526411E-2	5.255640E-2	2.686866E-2	4.660765E-2	4.701874E-2	3.691873E-2	4.362109E-2	4.103168E-2	4.006886E-2	2.575783E-2	4.262178E-2	4.611764E-2	3.744562E-2	4.383646E-2	4.240856E-2	4.205350E-2	4.823127E-2	5.096677E-2	4.256916E-2	3.485724E-2	4.063650E-2	3.089484E-2	3.768041E-2	3.444922E-2	3.645500E-2	4.303675E-2	3.794939E-2	3.559744E-2	3.534256E-2	4.392993E-2	3.567963E-2	4.057779E-2	4.205257E-2	3.795826E-2	3.940262E-2	3.086750E-2	3.454771E-2	4.669351E-2	3.454613E-2	2.581522E-2	4.564001E-2	2.921278E-2	4.487393E-2	4.520499E-2	5.452745E-2	3.262078E-2	3.459809E-2	4.873565E-2	5.118632E-2	4.592001E-2	4.830722E-2	5.410866E-2	4.099560E-2	5.442030E-2	4.646413E-2	3.969507E-2	3.835833E-2	5.089687E-2	3.552235E-2	2.973042E-2	3.689377E-2	5.292466E-2	6.178901E-2	3.183149E-2	4.821443E-2	4.043306E-2	3.714517E-2	4.560599E-2	4.201339E-2	4.864894E-2	4.090620E-2	3.790405E-2	3.287666E-2	4.977594E-2	6.214137E-2	3.591473E-2	4.047532E-2	5.651657E-2
5.334520E+2	3.728881E-2	5.925839E-2	4.713749E-2	5.063190E-2	4.372219E-2	5.332380E-2	5.366812E-2	5.198100E-2	5.311957E-2	5.032767E-2	5.468924E-2	4.673738E-2	5.031581E-2	6.310572E-2	6.399141E-2	4.684616E-2	5.669873E-2	4.543608E-2	5.565926E-2	5.142294E-2	5.212584E-2	5.028330E-2	4.803288E-2	4.198351E-2	5.125267E-2	5.276488E-2	7.341032E-2	3.458702E-2	6.235590E-2	3.429579E-2	6.202375E-2	4.726932E-2	5.200749E-2	4.983997E-2	6.836652E-2	4.560727E-2	4.473743E-2	5.367519E-2	5.010091E-2	5.290555E-2	3.179510E-2	4.736868E-2	4.852243E-2	4.406364E-2	4.079958E-2	5.229574E-2	7.980752E-2	5.865938E-2	5.157048E-2	6.116122E-2	5.659930E-2	4.025051E-2	5.163523E-2	4.232651E-2	5.249928E-2	5.666864E-2	5.487604E-2	5.573378E-2	6.201363E-2	5.662144E-2	6.403622E-2	4.499560E-2	6.457584E-2	5.144653E-2	5.203804E-2	5.541593E-2	5.621335E-2	5.919610E-2	4.851258E-2	4.736764E-2	5.972136E-2	4.982889E-2	5.743429E-2	5.392788E-2	6.987359E-2	5.230433E-2	5.417979E-2	5.796048E-2	6.605614E-2	4.736996E-2	5.699698E-2	5.800944E-2	4.941940E-2	6.322651E-2	3.704921E-2	6.061680E-2	7.632375E-2	6.387278E-2	4.758412E-2	6.271171E-2	5.388239E-2	6.115980E-2	5.122266E-2	5.544311E-2	6.962000E-2	6.082793E-2	4.719943E-2	5.527024E-2	6.290073E-2	4.525836E-2	5.698019E-2	5.273066E-2	5.443087E-2	4.098437E-2	5.391319E-2	3.971773E-2	5.176728E-2	5.160635E-2	6.646663E-2	5.299756E-2	7.069396E-2	4.968811E-2	4.329256E-2	3.693173E-2	6.353020E-2	5.077864E-2	4.653339E-2	3.591321E-2	6.695599E-2	5.905592E-2	5.850145E-2	6.017985E-2	4.562779E-2	4.903735E-2	6.074886E-2	5.460195E-2	6.195572E-2	5.004593E-2	5.612925E-2	5.700944E-2	5.239173E-2	6.113233E-2	5.846952E-2	5.488180E-2	6.632138E-2	5.783148E-2	4.577776E-2	5.741492E-2	6.767253E-2	3.864956E-2	5.930071E-2	5.063572E-2	5.999932E-2	4.305716E-2	5.295831E-2	5.428833E-2	5.619538E-2	5.916853E-2	5.559400E-2	6.195133E-2	6.421342E-2	5.929106E-2	4.487580E-2	5.376735E-2	6.208470E-2	5.513450E-2	5.555678E-2	4.712462E-2	7.368743E-2	4.056913E-2	5.016246E-2	5.893788E-2	5.433209E-2	5.996744E-2	4.840717E-2	5.464471E-2	4.724783E-2	5.259231E-2	5.685888E-2	4.940845E-2	8.159822E-2
5.336080E+2	7.107094E-2	7.544901E-2	7.240218E-2	5.926835E-2	6.149455E-2	6.797311E-2	7.361424E-2	7.901893E-2	5.928434E-2	6.332741E-2	9.225766E-2	5.921486E-2	8.617215E-2	6.555129E-2	8.593160E-2	6.623682E-2	6.501429E-2	7.446745E-2	7.068700E-2	5.763305E-2	8.414557E-2	6.446107E-2	7.447814E-2	9.013798E-2	7.471794E-2	7.546110E-2	8.618365E-2	7.430068E-2	8.304275E-2	6.503396E-2	7.557644E-2	7.514443E-2	5.455876E-2	7.321743E-2	7.312691E-2	7.608893E-2	6.728737E-2	6.237228E-2	7.667266E-2	8.023697E-2	5.224784E-2	8.533354E-2	7.813860E-2	7.501724E-2	6.753515E-2	7.285773E-2	8.416255E-2	7.130541E-2	6.650666E-2	7.271995E-2	7.298346E-2	6.670032E-2	6.889258E-2	6.944933E-2	8.077928E-2	7.560690E-2	9.492948E-2	6.520087E-2	7.921320E-2	8.175604E-2	7.887577E-2	7.435223E-2	8.178021E-2	7.143412E-2	7.063486E-2	7.302173E-2	7.032704E-2	6.948116E-2	6.675672E-2	7.749921E-2	7.952246E-2	7.502614E-2	7.327432E-2	7.093339E-2	7.900055E-2	7.783391E-2	8.331146E-2	6.807794E-2	1.039072E-1	6.265095E-2	8.113945E-2	6.838081E-2	6.920213E-2	7.897854E-2	6.183394E-2	8.002415E-2	7.686479E-2	7.170193E-2	7.792302E-2	7.781779E-2	8.395894E-2	6.744285E-2	6.960485E-2	6.562222E-2	1.026805E-1	5.092306E-2	7.738129E-2	7.177303E-2	7.861076E-2	5.890283E-2	6.572594E-2	7.856071E-2	6.704685E-2	6.936542E-2	8.041799E-2	7.777556E-2	7.839206E-2	6.632284E-2	7.071224E-2	7.418045E-2	9.912444E-2	6.850227E-2	5.594563E-2	6.021895E-2	8.607822E-2	5.673232E-2	5.765077E-2	8.304904E-2	9.145858E-2	8.069020E-2	6.919002E-2	7.031745E-2	6.826562E-2	4.782301E-2	7.471355E-2	6.767449E-2	7.291114E-2	7.893460E-2	5.957408E-2	7.001336E-2	7.005595E-2	5.997643E-2	7.863818E-2	7.387876E-2	7.317228E-2	7.908232E-2	7.155562E-2	6.549978E-2	7.389128E-2	6.585213E-2	9.627812E-2	7.210930E-2	7.516150E-2	6.739839E-2	8.286699E-2	8.087396E-2	7.808774E-2	8.284477E-2	7.679250E-2	6.908413E-2	9.205698E-2	8.939789E-2	7.029866E-2	8.470208E-2	8.848701E-2	6.420878E-2	7.453699E-2	8.036441E-2	8.266079E-2	6.600461E-2	5.471896E-2	1.018131E-1	9.013557E-2	7.671828E-2	6.607147E-2	7.485800E-2	7.505711E-2	7.423684E-2	7.528977E-2	6.089378E-2	7.247758E-2
5.337580E+2	8.911855E-2	9.163961E-2	1.248750E-1	8.229888E-2	1.043573E-1	8.652914E-2	1.062533E-1	1.124475E-1	1.237337E-1	1.070063E-1	1.171104E-1	9.040891E-2	1.071737E-1	9.294068E-2	1.211382E-1	9.424527E-2	1.038207E-1	1.057322E-1	1.289943E-1	1.044912E-1	1.232209E-1	8.092582E-2	1.093634E-1	1.194279E-1	9.140439E-2	1.025032E-1	1.159880E-1	8.879070E-2	1.120051E-1	9.577192E-2	1.156929E-1	1.000630E-1	1.147685E-1	8.880237E-2	1.016894E-1	9.605970E-2	9.179804E-2	9.619473E-2	1.070407E-1	1.044825E-1	8.341376E-2	1.024446E-1	1.065460E-1	8.289634E-2	1.015115E-1	1.217617E-1	1.026702E-1	1.056313E-1	8.298827E-2	1.046447E-1	1.154605E-1	1.023265E-1	1.150811E-1	8.853583E-2	1.068836E-1	1.063811E-1	1.070512E-1	1.072775E-1	1.172977E-1	9.889327E-2	9.901552E-2	9.773797E-2	1.000596E-1	9.778142E-2	7.969490E-2	1.105808E-1	1.138959E-1	9.005060E-2	9.782094E-2	8.924543E-2	1.230854E-1	9.973867E-2	1.146626E-1	9.304049E-2	1.092334E-1	9.683286E-2	1.016537E-1	8.990991E-2	1.070181E-1	8.483313E-2	8.820561E-2	1.136881E-1	9.972410E-2	9.525545E-2	9.369990E-2	9.125972E-2	1.114891E-1	9.959328E-2	9.064594E-2	1.007381E-1	1.378695E-1	9.657342E-2	1.131415E-1	1.134636E-1	1.202773E-1	9.525895E-2	8.685018E-2	1.236395E-1	1.184901E-1	1.063853E-1	1.017391E-1	1.205978E-1	1.014541E-1	1.032045E-1	8.665445E-2	1.050409E-1	1.361732E-1	9.023705E-2	9.724817E-2	9.748214E-2	1.182712E-1	9.341831E-2	8.072439E-2	7.927208E-2	1.127797E-1	1.079345E-1	9.486987E-2	9.984443E-2	1.206283E-1	1.160437E-1	9.667471E-2	1.093477E-1	9.939263E-2	1.115758E-1	1.109182E-1	1.288536E-1	1.344693E-1	9.768690E-2	1.014856E-1	1.167097E-1	1.173510E-1	9.003033E-2	9.160397E-2	9.287602E-2	1.199862E-1	1.288398E-1	1.001976E-1	1.001487E-1	1.219460E-1	9.594847E-2	1.226909E-1	1.067974E-1	1.293123E-1	1.022394E-1	1.087494E-1	1.005238E-1	1.135888E-1	1.053663E-1	8.401925E-2	1.157216E-1	1.065840E-1	1.110537E-1	1.038347E-1	1.077626E-1	1.235108E-1	1.059505E-1	1.077526E-1	1.048855E-1	1.333341E-1	8.312482E-2	1.019926E-1	9.617158E-2	1.003652E-1	7.845110E-2	8.564533E-2	1.049183E-1	1.338361E-1	1.194358E-1	9.958508E-2	1.030068E-1	1.043999E-1
5.339190E+2	1.386349E-1	1.391672E-1	1.818827E-1	1.634812E-1	1.660376E-1	1.636828E-1	1.842248E-1	1.842206E-1	1.808979E-1	1.501657E-1	1.974493E-1	1.538365E-1	2.132066E-1	1.780439E-1	1.823674E-1	1.670675E-1	1.764440E-1	1.587702E-1	1.981219E-1	1.880454E-1	1.731508E-1	1.449549E-1	1.870111E-1	1.844616E-1	1.586711E-1	1.421015E-1	1.889012E-1	1.660717E-1	2.056146E-1	1.529344E-1	1.888785E-1	1.444101E-1	1.688555E-1	1.755582E-1	1.678065E-1	1.801473E-1	1.535649E-1	1.609400E-1	1.753681E-1	1.855950E-1	1.437984E-1	1.687497E-1	1.941855E-1	1.948925E-1	1.627804E-1	1.595514E-1	1.690813E-1	1.485377E-1	1.411885E-1	1.464769E-1	1.828177E-1	1.746585E-1	1.394447E-1	1.613660E-1	1.830222E-1	1.773996E-1	1.708207E-1	1.567174E-1	1.897814E-1	1.611595E-1	1.801043E-1	1.748615E-1	1.796296E-1	1.591071E-1	1.178421E-1	1.798303E-1	1.777150E-1	1.751857E-1	1.614288E-1	1.566583E-1	1.689114E-1	1.976204E-1	1.815994E-1	1.769339E-1	1.953690E-1	1.609533E-1	1.787987E-1	1.697840E-1	1.630166E-1	1.543375E-1	1.665224E-1	1.759176E-1	1.969425E-1	1.850417E-1	1.513624E-1	1.704213E-1	1.791149E-1	1.690768E-1	1.860668E-1	1.710609E-1	1.696484E-1	1.793952E-1	1.871538E-1	1.755556E-1	1.789335E-1	1.410094E-1	1.584581E-1	1.672546E-1	1.897897E-1	1.887972E-1	1.650184E-1	1.818808E-1	1.674022E-1	1.616043E-1	1.744839E-1	1.538911E-1	1.814926E-1	1.484900E-1	2.002076E-1	1.785075E-1	1.849955E-1	1.666408E-1	1.682408E-1	1.396072E-1	2.005984E-1	1.609228E-1	1.446569E-1	1.648595E-1	1.982203E-1	1.978321E-1	1.877825E-1	1.666256E-1	1.922075E-1	1.680426E-1	1.972920E-1	1.879409E-1	2.038537E-1	1.691492E-1	1.778447E-1	1.770014E-1	2.119410E-1	1.692116E-1	1.650758E-1	1.673238E-1	1.690837E-1	1.620115E-1	1.798224E-1	1.555875E-1	1.943114E-1	1.839229E-1	1.971745E-1	1.717689E-1	1.791312E-1	1.533085E-1	1.777691E-1	1.947291E-1	2.029334E-1	1.850573E-1	1.596597E-1	1.826596E-1	1.786139E-1	1.955644E-1	1.784801E-1	1.707576E-1	2.005627E-1	1.712852E-1	1.699651E-1	1.751797E-1	1.882304E-1	1.755733E-1	1.697702E-1	1.886923E-1	1.594696E-1	1.598944E-1	1.434127E-1	1.541557E-1	1.768140E-1	2.117429E-1	1.565531E-1	1.834043E-1	2.412102E-1
5.340690E+2	2.399814E-1	2.154200E-1	3.554971E-1	2.435123E-1	2.643081E-1	2.613452E-1	2.839550E-1	2.933558E-1	2.761713E-1	2.791224E-1	3.240258E-1	2.999278E-1	3.054093E-1	2.802651E-1	3.196221E-1	3.010778E-1	2.878738E-1	2.815959E-1	2.786701E-1	2.817613E-1	2.941746E-1	2.524327E-1	3.136110E-1	3.219753E-1	2.504463E-1	2.618604E-1	3.219555E-1	3.034593E-1	3.002580E-1	2.634835E-1	3.103118E-1	3.133506E-1	2.663135E-1	3.028351E-1	3.026855E-1	2.994463E-1	2.422936E-1	2.764187E-1	2.567108E-1	2.786094E-1	2.382707E-1	2.703464E-1	3.035838E-1	2.894416E-1	2.585827E-1	2.918153E-1	2.975476E-1	2.740969E-1	2.369869E-1	2.813305E-1	3.041809E-1	2.739804E-1	2.673519E-1	2.648351E-1	3.162644E-1	2.981306E-1	3.136430E-1	2.666419E-1	3.150915E-1	2.856904E-1	2.940517E-1	2.803466E-1	2.812425E-1	2.626793E-1	2.213169E-1	2.813569E-1	2.617845E-1	2.831760E-1	2.482115E-1	2.695239E-1	2.984684E-1	3.177916E-1	2.781726E-1	2.846358E-1	2.860686E-1	2.814769E-1	2.856146E-1	2.842701E-1	2.910874E-1	2.085608E-1	2.613262E-1	2.708988E-1	2.749439E-1	2.748277E-1	2.434198E-1	2.613294E-1	2.813648E-1	2.801531E-1	2.658290E-1	2.887859E-1	2.859823E-1	2.519359E-1	2.868048E-1	2.926143E-1	2.935793E-1	2.410005E-1	2.856959E-1	2.969206E-1	3.094279E-1	2.624767E-1	2.668832E-1	2.679808E-1	2.792265E-1	2.925940E-1	2.633523E-1	2.657927E-1	3.100845E-1	2.662215E-1	2.930832E-1	2.891890E-1	3.010383E-1	2.541008E-1	3.032062E-1	2.459877E-1	3.133391E-1	2.603494E-1	2.490636E-1	2.585893E-1	3.219000E-1	3.107522E-1	2.753266E-1	2.756058E-1	3.269020E-1	2.973700E-1	3.007337E-1	2.820625E-1	2.951480E-1	2.497339E-1	2.519078E-1	2.816245E-1	3.110890E-1	2.703548E-1	2.467115E-1	2.689840E-1	3.477760E-1	2.895149E-1	2.880887E-1	3.051560E-1	3.266035E-1	2.655311E-1	3.197288E-1	2.818893E-1	2.776863E-1	2.836053E-1	3.238612E-1	2.750635E-1	2.881362E-1	2.820728E-1	2.430088E-1	2.973319E-1	3.039102E-1	3.445142E-1	2.666485E-1	2.928095E-1	2.980898E-1	2.783611E-1	2.796289E-1	2.988755E-1	3.022450E-1	2.782935E-1	2.802650E-1	2.648519E-1	2.685849E-1	2.725291E-1	2.451021E-1	2.728436E-1	2.943724E-1	2.785868E-1	2.679766E-1	2.944295E-1	3.187360E-1
5.342040E+2	4.260133E-1	3.809826E-1	5.615019E-1	4.392713E-1	4.320991E-1	4.205354E-1	5.511119E-1	5.121167E-1	4.891353E-1	4.533187E-1	5.055103E-1	5.073670E-1	5.169624E-1	4.524278E-1	5.395360E-1	4.872272E-1	5.157216E-1	4.228454E-1	5.299335E-1	5.047607E-1	5.014902E-1	4.330866E-1	5.217968E-1	5.131033E-1	4.480750E-1	4.555034E-1	4.938615E-1	5.326185E-1	5.293678E-1	4.608544E-1	4.859564E-1	5.135455E-1	4.760271E-1	4.966073E-1	5.063260E-1	5.002049E-1	4.339667E-1	4.547106E-1	5.321910E-1	5.003456E-1	3.882571E-1	4.521507E-1	5.139186E-1	4.954242E-1	4.440613E-1	4.918784E-1	5.370611E-1	4.646934E-1	4.007719E-1	5.202145E-1	4.959358E-1	4.553504E-1	4.551524E-1	4.451521E-1	5.180315E-1	4.804102E-1	5.060059E-1	4.423116E-1	5.079721E-1	5.353249E-1	4.753094E-1	4.748969E-1	5.027479E-1	4.566497E-1	3.553097E-1	4.785422E-1	5.109247E-1	4.877290E-1	4.612236E-1	4.727837E-1	4.998761E-1	5.474734E-1	5.086192E-1	4.898354E-1	4.771641E-1	5.171807E-1	5.175891E-1	4.860851E-1	5.176744E-1	5.136891E-1	4.656560E-1	4.652288E-1	5.145981E-1	4.796029E-1	4.371455E-1	4.431458E-1	5.053408E-1	5.032840E-1	4.106732E-1	4.841265E-1	4.789258E-1	4.849802E-1	4.880407E-1	4.839805E-1	5.442008E-1	4.565473E-1	4.916422E-1	5.132277E-1	4.967405E-1	4.862440E-1	4.330559E-1	4.584140E-1	5.068892E-1	4.694304E-1	4.114676E-1	4.600583E-1	4.658679E-1	4.955527E-1	4.666281E-1	4.787778E-1	5.110751E-1	4.463108E-1	5.167256E-1	4.121736E-1	5.138982E-1	4.621806E-1	4.409599E-1	4.541759E-1	5.237550E-1	5.165415E-1	4.768819E-1	4.793736E-1	4.864990E-1	4.795204E-1	5.231336E-1	4.896525E-1	5.366877E-1	4.757764E-1	4.453895E-1	5.091957E-1	5.259112E-1	4.703295E-1	4.224679E-1	4.558738E-1	5.036322E-1	5.025395E-1	4.914468E-1	4.651203E-1	5.086466E-1	4.999359E-1	4.993341E-1	5.258071E-1	4.883332E-1	4.377667E-1	4.659268E-1	5.495876E-1	4.975929E-1	5.095971E-1	4.521033E-1	4.860759E-1	5.145530E-1	5.029718E-1	4.684072E-1	5.380389E-1	5.179308E-1	4.749702E-1	4.652139E-1	5.097577E-1	5.308026E-1	4.431357E-1	5.006848E-1	4.922039E-1	4.407828E-1	4.296393E-1	4.608933E-1	4.915610E-1	4.997819E-1	4.924855E-1	4.723918E-1	4.986141E-1	4.532653E-1
5.343650E+2	6.759085E-1	7.000954E-1	9.469518E-1	7.421221E-1	7.969542E-1	7.115701E-1	8.599747E-1	8.739325E-1	8.506139E-1	8.209509E-1	8.875515E-1	8.822141E-1	8.955039E-1	8.505534E-1	9.436461E-1	8.216069E-1	8.882621E-1	8.024866E-1	8.797785E-1	8.959971E-1	8.450258E-1	7.084121E-1	8.937181E-1	8.824544E-1	7.557301E-1	7.577988E-1	9.281510E-1	9.158020E-1	8.681198E-1	7.854921E-1	8.822407E-1	8.881710E-1	8.178965E-1	8.093448E-1	8.913916E-1	8.554746E-1	7.967249E-1	7.228719E-1	8.797941E-1	8.644696E-1	6.784915E-1	7.793991E-1	8.693125E-1	8.257838E-1	7.559763E-1	8.553252E-1	8.707474E-1	8.174325E-1	6.722018E-1	8.664305E-1	8.733775E-1	8.440007E-1	7.566485E-1	7.450113E-1	9.286350E-1	8.435497E-1	8.269614E-1	7.573592E-1	8.507328E-1	8.529365E-1	8.314629E-1	7.893616E-1	8.505974E-1	8.604908E-1	6.428453E-1	8.564805E-1	8.048609E-1	8.105567E-1	7.343921E-1	7.955478E-1	8.761002E-1	8.847278E-1	8.647635E-1	8.497853E-1	8.947227E-1	8.864692E-1	8.844323E-1	8.678829E-1	9.252199E-1	8.267051E-1	8.065968E-1	8.244117E-1	8.429933E-1	8.544986E-1	7.163527E-1	8.118852E-1	8.732244E-1	8.766366E-1	7.625074E-1	8.206342E-1	8.460859E-1	8.334037E-1	8.416559E-1	8.656934E-1	9.201328E-1	8.532101E-1	7.834007E-1	8.639161E-1	8.538427E-1	8.933917E-1	7.669462E-1	7.906586E-1	8.859457E-1	8.291068E-1	7.518720E-1	8.400685E-1	8.935638E-1	8.487476E-1	8.057573E-1	8.388910E-1	8.696458E-1	8.968335E-1	8.372684E-1	8.107028E-1	8.841613E-1	8.634612E-1	7.633655E-1	7.310309E-1	9.373825E-1	8.674385E-1	8.540360E-1	7.895868E-1	8.837926E-1	8.250003E-1	8.650083E-1	8.446995E-1	8.512623E-1	8.148414E-1	7.278619E-1	8.289770E-1	8.877460E-1	8.841511E-1	7.254807E-1	8.152777E-1	8.501703E-1	8.798672E-1	8.477525E-1	8.479927E-1	9.004353E-1	8.275237E-1	8.696392E-1	8.693843E-1	8.695562E-1	8.119528E-1	8.553138E-1	8.553207E-1	8.419538E-1	8.283624E-1	7.647820E-1	8.410675E-1	9.049684E-1	9.286945E-1	7.637430E-1	8.743855E-1	9.215108E-1	8.161627E-1	8.116031E-1	8.399770E-1	8.686246E-1	7.855370E-1	8.338786E-1	7.928943E-1	7.499436E-1	7.479042E-1	7.535482E-1	7.869843E-1	8.726809E-1	8.489834E-1	7.329382E-1	8.750794E-1	8.933387E-1
5.345160E+2	1.050287E+0	1.022864E+0	1.425686E+0	1.146308E+0	1.145083E+0	1.113939E+0	1.329613E+0	1.363073E+0	1.325861E+0	1.219262E+0	1.379987E+0	1.340245E+0	1.309391E+0	1.214444E+0	1.376839E+0	1.286118E+0	1.322340E+0	1.237958E+0	1.328805E+0	1.291185E+0	1.381225E+0	1.109052E+0	1.327532E+0	1.347120E+0	1.144209E+0	1.184682E+0	1.321460E+0	1.349434E+0	1.396157E+0	1.239015E+0	1.356048E+0	1.255194E+0	1.252633E+0	1.232216E+0	1.358442E+0	1.287472E+0	1.141834E+0	1.191553E+0	1.328261E+0	1.308383E+0	1.048590E+0	1.236048E+0	1.318389E+0	1.262510E+0	1.185417E+0	1.261009E+0	1.322557E+0	1.278566E+0	9.910150E-1	1.298513E+0	1.285408E+0	1.277452E+0	1.203817E+0	1.137792E+0	1.307149E+0	1.222789E+0	1.261226E+0	1.180229E+0	1.315733E+0	1.336781E+0	1.279835E+0	1.256581E+0	1.279090E+0	1.243891E+0	1.040056E+0	1.317754E+0	1.304981E+0	1.273372E+0	1.153019E+0	1.202067E+0	1.349637E+0	1.355236E+0	1.307775E+0	1.209736E+0	1.329963E+0	1.322252E+0	1.309540E+0	1.301866E+0	1.337431E+0	1.253095E+0	1.166971E+0	1.244733E+0	1.296301E+0	1.231493E+0	1.093686E+0	1.167346E+0	1.360129E+0	1.278858E+0	1.148108E+0	1.235276E+0	1.327877E+0	1.281213E+0	1.263961E+0	1.323239E+0	1.393647E+0	1.276288E+0	1.203579E+0	1.297709E+0	1.289495E+0	1.293445E+0	1.151252E+0	1.227743E+0	1.311451E+0	1.259737E+0	1.108906E+0	1.230305E+0	1.320129E+0	1.330097E+0	1.185221E+0	1.278972E+0	1.302484E+0	1.344814E+0	1.256400E+0	1.248400E+0	1.384967E+0	1.313563E+0	1.153924E+0	1.115702E+0	1.378430E+0	1.298012E+0	1.275472E+0	1.209286E+0	1.305420E+0	1.253054E+0	1.268950E+0	1.266154E+0	1.361989E+0	1.335345E+0	1.184297E+0	1.284120E+0	1.398872E+0	1.258670E+0	1.108688E+0	1.204460E+0	1.318880E+0	1.307990E+0	1.214942E+0	1.240684E+0	1.270740E+0	1.318907E+0	1.336084E+0	1.280135E+0	1.268109E+0	1.379435E+0	1.249301E+0	1.305542E+0	1.262643E+0	1.255114E+0	1.180563E+0	1.253672E+0	1.239091E+0	1.332231E+0	1.192684E+0	1.294538E+0	1.376282E+0	1.373927E+0	1.252894E+0	1.309694E+0	1.323631E+0	1.232616E+0	1.225735E+0	1.232366E+0	1.113662E+0	1.265445E+0	1.136911E+0	1.206797E+0	1.274021E+0	1.294606E+0	1.141769E+0	1.330664E+0	1.265006E+0
5.346620E+2	1.337665E+0	1.249011E+0	1.812432E+0	1.525737E+0	1.493732E+0	1.447457E+0	1.712215E+0	1.782897E+0	1.677250E+0	1.586892E+0	1.772435E+0	1.650624E+0	1.778599E+0	1.632621E+0	1.786056E+0	1.652814E+0	1.730360E+0	1.559537E+0	1.729144E+0	1.699921E+0	1.681885E+0	1.426912E+0	1.720277E+0	1.731860E+0	1.489409E+0	1.509674E+0	1.729135E+0	1.778233E+0	1.793867E+0	1.576596E+0	1.682401E+0	1.706263E+0	1.563376E+0	1.601579E+0	1.684797E+0	1.670074E+0	1.514397E+0	1.461646E+0	1.683458E+0	1.665455E+0	1.344666E+0	1.576662E+0	1.793456E+0	1.577115E+0	1.550244E+0	1.655576E+0	1.706869E+0	1.681891E+0	1.621433E+0	1.669501E+0	1.698650E+0	1.638574E+0	1.552514E+0	1.470295E+0	1.772140E+0	1.538580E+0	1.682316E+0	1.542087E+0	1.660950E+0	1.668674E+0	1.641821E+0	1.595429E+0	1.717266E+0	1.653634E+0	1.253680E+0	1.636417E+0	1.697103E+0	1.634484E+0	1.505577E+0	1.520238E+0	1.701531E+0	1.726410E+0	1.690488E+0	1.592359E+0	1.649980E+0	1.714699E+0	1.614339E+0	1.633077E+0	1.702463E+0	1.624277E+0	1.534998E+0	1.607193E+0	1.717961E+0	1.625293E+0	1.406277E+0	1.524337E+0	1.663633E+0	1.674723E+0	1.518046E+0	1.641589E+0	1.708658E+0	1.653057E+0	1.619025E+0	1.654567E+0	1.719987E+0	1.682381E+0	1.493563E+0	1.688475E+0	1.700979E+0	1.653110E+0	1.485145E+0	1.541756E+0	1.714019E+0	1.659800E+0	1.445153E+0	1.604066E+0	1.657751E+0	1.636075E+0	1.517980E+0	1.687804E+0	1.619283E+0	1.717029E+0	1.612263E+0	1.608291E+0	1.679870E+0	1.719012E+0	1.530466E+0	1.465159E+0	1.783890E+0	1.694293E+0	1.583912E+0	1.561573E+0	1.660273E+0	1.679287E+0	1.664612E+0	1.643162E+0	1.662479E+0	1.688603E+0	1.488009E+0	1.556615E+0	1.743615E+0	1.629144E+0	1.457801E+0	1.554110E+0	1.740780E+0	1.658883E+0	1.626813E+0	1.596415E+0	1.695320E+0	1.649388E+0	1.653565E+0	1.651244E+0	1.611422E+0	1.618554E+0	1.668021E+0	1.599713E+0	1.633627E+0	1.652415E+0	1.503358E+0	1.617988E+0	1.706986E+0	1.761125E+0	1.469629E+0	1.650569E+0	1.689336E+0	1.647968E+0	1.553416E+0	1.629014E+0	1.673062E+0	1.590673E+0	1.496846E+0	1.633473E+0	1.539328E+0	1.596992E+0	1.385166E+0	1.476822E+0	1.701275E+0	1.670839E+0	1.424935E+0	1.631837E+0	1.570548E+0
5.348280E+2	1.752303E+0	1.585881E+0	2.311895E+0	1.870039E+0	1.826181E+0	1.783420E+0	2.091193E+0	2.166345E+0	2.072916E+0	1.983643E+0	2.141179E+0	2.093057E+0	2.137672E+0	2.026344E+0	2.270274E+0	2.055709E+0	2.081279E+0	1.996682E+0	2.189594E+0	2.076478E+0	2.126367E+0	1.777702E+0	2.127643E+0	2.170219E+0	1.861201E+0	1.872332E+0	2.157040E+0	2.159267E+0	2.157965E+0	1.897459E+0	2.184940E+0	2.082158E+0	2.027704E+0	1.996914E+0	2.103717E+0	2.066860E+0	1.837448E+0	1.824027E+0	2.127588E+0	2.052064E+0	1.620781E+0	1.958455E+0	2.154895E+0	1.987388E+0	1.996950E+0	2.042363E+0	2.161401E+0	2.053150E+0	2.088578E+0	2.107083E+0	2.056672E+0	2.013731E+0	1.882438E+0	1.836960E+0	2.150657E+0	2.074534E+0	2.082326E+0	1.842405E+0	2.052855E+0	2.071403E+0	1.976244E+0	1.890485E+0	2.012425E+0	2.047936E+0	1.580318E+0	1.998512E+0	2.037678E+0	1.949885E+0	1.847281E+0	1.913478E+0	2.147344E+0	2.133925E+0	2.055320E+0	1.924531E+0	2.060121E+0	2.123765E+0	2.071277E+0	2.046291E+0	2.067486E+0	1.994474E+0	1.902438E+0	1.975656E+0	2.048618E+0	2.031173E+0	1.761864E+0	1.923209E+0	2.086160E+0	2.017735E+0	1.885542E+0	2.064046E+0	2.074683E+0	2.083158E+0	1.993442E+0	2.084630E+0	2.160444E+0	1.966319E+0	1.846277E+0	2.024430E+0	2.169863E+0	2.062442E+0	1.831892E+0	1.925661E+0	2.068419E+0	2.048948E+0	1.780880E+0	1.960216E+0	2.015769E+0	2.130920E+0	1.888953E+0	2.018259E+0	1.982493E+0	2.129921E+0	1.964441E+0	1.979297E+0	2.115407E+0	2.051824E+0	1.837888E+0	1.827615E+0	2.167179E+0	2.069991E+0	1.910167E+0	1.928049E+0	2.042850E+0	2.039947E+0	2.018897E+0	1.964227E+0	2.116341E+0	2.059596E+0	1.795170E+0	2.022987E+0	2.088921E+0	2.059727E+0	1.816994E+0	1.864740E+0	1.990830E+0	2.049170E+0	1.945883E+0	1.963695E+0	2.022659E+0	1.983921E+0	2.038132E+0	2.084568E+0	2.040844E+0	2.007534E+0	2.008520E+0	2.028550E+0	2.046626E+0	1.941152E+0	1.817484E+0	1.980114E+0	2.063506E+0	2.121349E+0	1.847182E+0	2.037534E+0	2.067056E+0	2.030904E+0	1.915094E+0	2.054592E+0	2.035696E+0	1.965353E+0	1.822068E+0	1.960682E+0	1.751307E+0	1.925656E+0	1.742752E+0	1.840143E+0	2.078594E+0	2.020971E+0	1.748314E+0	1.943218E+0	1.894334E+0
5.349740E+2	1.814778E+0	1.813592E+0	2.477734E+0	2.021465E+0	2.011742E+0	1.910380E+0	2.337801E+0	2.311857E+0	2.214145E+0	2.120923E+0	2.301859E+0	2.297377E+0	2.315423E+0	2.141279E+0	2.370281E+0	2.251772E+0	2.298597E+0	2.102202E+0	2.312819E+0	2.190521E+0	2.285379E+0	1.853623E+0	2.336955E+0	2.342976E+0	1.924299E+0	1.986777E+0	2.239003E+0	2.334228E+0	2.277948E+0	2.128264E+0	2.222346E+0	2.256589E+0	2.144042E+0	2.122632E+0	2.296247E+0	2.155152E+0	1.990397E+0	1.957867E+0	2.218692E+0	2.214287E+0	1.788783E+0	2.044008E+0	2.295722E+0	2.205190E+0	2.089967E+0	2.211307E+0	2.215833E+0	2.206256E+0	2.198798E+0	2.241940E+0	2.249640E+0	2.159475E+0	2.133683E+0	1.945953E+0	2.331211E+0	2.181059E+0	2.201958E+0	1.959165E+0	2.242665E+0	2.210784E+0	2.204141E+0	2.069115E+0	2.215650E+0	2.191935E+0	1.679025E+0	2.112363E+0	2.253675E+0	2.145296E+0	1.986826E+0	2.106014E+0	2.268418E+0	2.212428E+0	2.164667E+0	2.165444E+0	2.304268E+0	2.235978E+0	2.174857E+0	2.235858E+0	2.315331E+0	2.169469E+0	1.956611E+0	2.075002E+0	2.232877E+0	2.143531E+0	1.861003E+0	2.098386E+0	2.258198E+0	2.224228E+0	2.026469E+0	2.120302E+0	2.216555E+0	2.110005E+0	2.093578E+0	2.216957E+0	2.274552E+0	2.131399E+0	1.956351E+0	2.180026E+0	2.180135E+0	2.190151E+0	1.961541E+0	2.078106E+0	2.285183E+0	2.182125E+0	1.917042E+0	2.107908E+0	2.112640E+0	2.275634E+0	2.006776E+0	2.214734E+0	2.186726E+0	2.328234E+0	2.140527E+0	2.073509E+0	2.314777E+0	2.183402E+0	1.894923E+0	1.960895E+0	2.270439E+0	2.213512E+0	2.045047E+0	2.056294E+0	2.130003E+0	2.221490E+0	2.146137E+0	2.149850E+0	2.208681E+0	2.254217E+0	1.975449E+0	2.190855E+0	2.141347E+0	2.219242E+0	1.951455E+0	2.017225E+0	2.196358E+0	2.133138E+0	2.086231E+0	2.125391E+0	2.183216E+0	2.169132E+0	2.210870E+0	2.181474E+0	2.078746E+0	2.168380E+0	2.133332E+0	2.141249E+0	2.161414E+0	2.162323E+0	1.928775E+0	2.086007E+0	2.166403E+0	2.210615E+0	1.923450E+0	2.168027E+0	2.256720E+0	2.224486E+0	2.038466E+0	2.194093E+0	2.169768E+0	2.137046E+0	1.983253E+0	2.107358E+0	1.931464E+0	2.074681E+0	1.820569E+0	1.881089E+0	2.196788E+0	2.129829E+0	1.863088E+0	2.060624E+0	2.060786E+0
5.351090E+2	1.838378E+0	1.743088E+0	2.394816E+0	1.985192E+0	2.041539E+0	1.834691E+0	2.214495E+0	2.250895E+0	2.174353E+0	2.026806E+0	2.268334E+0	2.145048E+0	2.242172E+0	2.118784E+0	2.316195E+0	2.114309E+0	2.191048E+0	2.055862E+0	2.227461E+0	2.176969E+0	2.195288E+0	1.826180E+0	2.274500E+0	2.280428E+0	1.944636E+0	1.917238E+0	2.293288E+0	2.223132E+0	2.196233E+0	2.080267E+0	2.195243E+0	2.159026E+0	2.115466E+0	2.154841E+0	2.230132E+0	2.075795E+0	1.956572E+0	1.892638E+0	2.211639E+0	2.113336E+0	1.765897E+0	2.036522E+0	2.217754E+0	2.172550E+0	2.044296E+0	2.032916E+0	2.230534E+0	2.133542E+0	2.150385E+0	2.181943E+0	2.198060E+0	2.061771E+0	2.039275E+0	1.932392E+0	2.163166E+0	2.066484E+0	2.251500E+0	1.923405E+0	2.161579E+0	2.138239E+0	2.171280E+0	2.097473E+0	2.187697E+0	2.106082E+0	1.682838E+0	2.041350E+0	2.114379E+0	2.069871E+0	1.878347E+0	1.944119E+0	2.159225E+0	2.203703E+0	2.079845E+0	2.096857E+0	2.171929E+0	2.222916E+0	2.086384E+0	2.096344E+0	2.243263E+0	2.045740E+0	1.984873E+0	2.111030E+0	2.160530E+0	2.079998E+0	1.849367E+0	1.980412E+0	2.104012E+0	2.109726E+0	1.910984E+0	2.074463E+0	2.101355E+0	2.126000E+0	2.099384E+0	2.143160E+0	2.249490E+0	2.054991E+0	1.951614E+0	2.110479E+0	2.129382E+0	2.035702E+0	1.936846E+0	2.025435E+0	2.130348E+0	2.044038E+0	1.843764E+0	2.069281E+0	2.105276E+0	2.195303E+0	1.971214E+0	2.112525E+0	2.104915E+0	2.177213E+0	2.074101E+0	2.072975E+0	2.223395E+0	2.191141E+0	1.965495E+0	1.929471E+0	2.271025E+0	2.178159E+0	2.002292E+0	2.013712E+0	2.080202E+0	2.094590E+0	2.036486E+0	2.040564E+0	2.197727E+0	2.179715E+0	1.878418E+0	2.144749E+0	2.188072E+0	2.079376E+0	1.881824E+0	1.928917E+0	2.101018E+0	2.067831E+0	2.076488E+0	2.029527E+0	2.063928E+0	2.118199E+0	2.179704E+0	2.071353E+0	1.993733E+0	2.081037E+0	2.071215E+0	2.061493E+0	2.067926E+0	2.083212E+0	1.887826E+0	2.044309E+0	2.100424E+0	2.186316E+0	1.869360E+0	2.119091E+0	2.224927E+0	2.093214E+0	2.014212E+0	2.149951E+0	2.092701E+0	2.068076E+0	1.963884E+0	2.081411E+0	1.854740E+0	2.000168E+0	1.844438E+0	1.877461E+0	2.091238E+0	2.103728E+0	1.793552E+0	2.005750E+0	2.113229E+0
5.352600E+2	1.637538E+0	1.500749E+0	2.099415E+0	1.680042E+0	1.839773E+0	1.623738E+0	1.942504E+0	1.960857E+0	1.900864E+0	1.757970E+0	1.956226E+0	1.898617E+0	1.975810E+0	1.870321E+0	1.997296E+0	1.882485E+0	1.959316E+0	1.780621E+0	1.927510E+0	1.878890E+0	1.964640E+0	1.577838E+0	1.957717E+0	1.996461E+0	1.668789E+0	1.712009E+0	1.956394E+0	1.881276E+0	2.006433E+0	1.778821E+0	1.904125E+0	1.870140E+0	1.967494E+0	1.813531E+0	1.975183E+0	1.890274E+0	1.894803E+0	1.656364E+0	1.977374E+0	1.844871E+0	1.572568E+0	1.753656E+0	1.991101E+0	1.856261E+0	1.805350E+0	1.762831E+0	1.956724E+0	1.855776E+0	2.053558E+0	1.899027E+0	1.891614E+0	1.820483E+0	2.036738E+0	1.665180E+0	1.945626E+0	1.859582E+0	2.030150E+0	1.658847E+0	1.915257E+0	1.834336E+0	1.849043E+0	1.773558E+0	1.907590E+0	1.832613E+0	1.486856E+0	1.824212E+0	1.848671E+0	1.868746E+0	1.768882E+0	1.697449E+0	1.932359E+0	1.997768E+0	1.924004E+0	1.810597E+0	1.871307E+0	1.884500E+0	1.861424E+0	1.844476E+0	1.953418E+0	1.792371E+0	1.820589E+0	1.776953E+0	1.877353E+0	1.761284E+0	1.737079E+0	1.785827E+0	1.915199E+0	1.869470E+0	1.735313E+0	1.844218E+0	1.879468E+0	1.783288E+0	1.874440E+0	1.886141E+0	1.981809E+0	1.818219E+0	1.772300E+0	1.833467E+0	1.903999E+0	1.871422E+0	1.687841E+0	1.772199E+0	1.883188E+0	1.820808E+0	1.641080E+0	1.797763E+0	1.836197E+0	1.918755E+0	1.759988E+0	1.859916E+0	1.855422E+0	1.895510E+0	1.807860E+0	1.835868E+0	1.962314E+0	1.855944E+0	1.711247E+0	1.627151E+0	2.028331E+0	1.912745E+0	1.746276E+0	1.663966E+0	1.849862E+0	1.869329E+0	1.856495E+0	1.825655E+0	1.871674E+0	1.909578E+0	1.638434E+0	1.833244E+0	1.971542E+0	1.855127E+0	1.660929E+0	1.805694E+0	1.828694E+0	1.844438E+0	1.818142E+0	1.822789E+0	1.934461E+0	1.842699E+0	1.928782E+0	1.863776E+0	1.894634E+0	1.824257E+0	1.808938E+0	1.808354E+0	1.798118E+0	1.833744E+0	1.644524E+0	1.873672E+0	1.883732E+0	1.912190E+0	1.686532E+0	1.865990E+0	1.893015E+0	1.869989E+0	1.791724E+0	1.805021E+0	1.895816E+0	1.795133E+0	1.691633E+0	1.806103E+0	1.652988E+0	1.744863E+0	1.609075E+0	1.678957E+0	1.890882E+0	1.837628E+0	1.605893E+0	1.791357E+0	1.944495E+0
5.354110E+2	1.391811E+0	1.268335E+0	1.790405E+0	1.493492E+0	1.533460E+0	1.400579E+0	1.628806E+0	1.686543E+0	1.685097E+0	1.560376E+0	1.712322E+0	1.665181E+0	1.702786E+0	1.609144E+0	1.706968E+0	1.642474E+0	1.769165E+0	1.528831E+0	1.682258E+0	1.682987E+0	1.693284E+0	1.353277E+0	1.693831E+0	1.661368E+0	1.495666E+0	1.437719E+0	1.666336E+0	1.691295E+0	1.683710E+0	1.501636E+0	1.588617E+0	1.614193E+0	1.720532E+0	1.590149E+0	1.651474E+0	1.595970E+0	1.621756E+0	1.399317E+0	1.649294E+0	1.619169E+0	1.324702E+0	1.529076E+0	1.668949E+0	1.584993E+0	1.578652E+0	1.596112E+0	1.661140E+0	1.563109E+0	1.737835E+0	1.603998E+0	1.692583E+0	1.615905E+0	1.780925E+0	1.429611E+0	1.731898E+0	1.607705E+0	1.672828E+0	1.408492E+0	1.656652E+0	1.624688E+0	1.613732E+0	1.562587E+0	1.634468E+0	1.586406E+0	1.315669E+0	1.604142E+0	1.607510E+0	1.531064E+0	1.630817E+0	1.479892E+0	1.705492E+0	1.699275E+0	1.650123E+0	1.522068E+0	1.607767E+0	1.629202E+0	1.642934E+0	1.606982E+0	1.670313E+0	1.583364E+0	1.623918E+0	1.529131E+0	1.541610E+0	1.570686E+0	1.560043E+0	1.513104E+0	1.615480E+0	1.620897E+0	1.474983E+0	1.610331E+0	1.657016E+0	1.615358E+0	1.619994E+0	1.639808E+0	1.692795E+0	1.504566E+0	1.675840E+0	1.614799E+0	1.616987E+0	1.614908E+0	1.638972E+0	1.514910E+0	1.679615E+0	1.535906E+0	1.424364E+0	1.514317E+0	1.556352E+0	1.687586E+0	1.528596E+0	1.639613E+0	1.655253E+0	1.682958E+0	1.618065E+0	1.576535E+0	1.713101E+0	1.633872E+0	1.534817E+0	1.391475E+0	1.714464E+0	1.633082E+0	1.526905E+0	1.501761E+0	1.636500E+0	1.637395E+0	1.591171E+0	1.573620E+0	1.682302E+0	1.661742E+0	1.496626E+0	1.605084E+0	1.691189E+0	1.621053E+0	1.466922E+0	1.506360E+0	1.652286E+0	1.621048E+0	1.602754E+0	1.566388E+0	1.600338E+0	1.622185E+0	1.679977E+0	1.630870E+0	1.555650E+0	1.627623E+0	1.624885E+0	1.591042E+0	1.619427E+0	1.590051E+0	1.451327E+0	1.611405E+0	1.598030E+0	1.622209E+0	1.378215E+0	1.626386E+0	1.653233E+0	1.684267E+0	1.547616E+0	1.617571E+0	1.645614E+0	1.599476E+0	1.441031E+0	1.514443E+0	1.399520E+0	1.569268E+0	1.358911E+0	1.455574E+0	1.626691E+0	1.582990E+0	1.388911E+0	1.645875E+0	1.502144E+0
5.355630E+2	1.143767E+0	1.113219E+0	1.439290E+0	1.199277E+0	1.319145E+0	1.169608E+0	1.429951E+0	1.391585E+0	1.353882E+0	1.289979E+0	1.373628E+0	1.365199E+0	1.437450E+0	1.327424E+0	1.458991E+0	1.306802E+0	1.414921E+0	1.296022E+0	1.395528E+0	1.321668E+0	1.428981E+0	1.151128E+0	1.420935E+0	1.387830E+0	1.218256E+0	1.179853E+0	1.397033E+0	1.349433E+0	1.369782E+0	1.257888E+0	1.399957E+0	1.367963E+0	1.404175E+0	1.347024E+0	1.390708E+0	1.344232E+0	1.320272E+0	1.154828E+0	1.377607E+0	1.343649E+0	1.071965E+0	1.262786E+0	1.461636E+0	1.301346E+0	1.328563E+0	1.317136E+0	1.382437E+0	1.300247E+0	1.460738E+0	1.369516E+0	1.392815E+0	1.299045E+0	1.422578E+0	1.156374E+0	1.405588E+0	1.280076E+0	1.422498E+0	1.273849E+0	1.395589E+0	1.336209E+0	1.351383E+0	1.296881E+0	1.386081E+0	1.347915E+0	1.133040E+0	1.319514E+0	1.362050E+0	1.308798E+0	1.320176E+0	1.231179E+0	1.415827E+0	1.416776E+0	1.350696E+0	1.307234E+0	1.312282E+0	1.381626E+0	1.309001E+0	1.355645E+0	1.373211E+0	1.305842E+0	1.330080E+0	1.235997E+0	1.356215E+0	1.321805E+0	1.353676E+0	1.272045E+0	1.392047E+0	1.316537E+0	1.220038E+0	1.340500E+0	1.367035E+0	1.328624E+0	1.286212E+0	1.376682E+0	1.385112E+0	1.321094E+0	1.436157E+0	1.323643E+0	1.343878E+0	1.321282E+0	1.361159E+0	1.252053E+0	1.389443E+0	1.316497E+0	1.221681E+0	1.268361E+0	1.318427E+0	1.374246E+0	1.264298E+0	1.355759E+0	1.357605E+0	1.378373E+0	1.383455E+0	1.296558E+0	1.377844E+0	1.333805E+0	1.325037E+0	1.201304E+0	1.487524E+0	1.340756E+0	1.312625E+0	1.226014E+0	1.381260E+0	1.320451E+0	1.360497E+0	1.286026E+0	1.373467E+0	1.432659E+0	1.407060E+0	1.326677E+0	1.365822E+0	1.331495E+0	1.352635E+0	1.266076E+0	1.382248E+0	1.353082E+0	1.335238E+0	1.299009E+0	1.314837E+0	1.390099E+0	1.396833E+0	1.340151E+0	1.359079E+0	1.269184E+0	1.379868E+0	1.309008E+0	1.325952E+0	1.330187E+0	1.315945E+0	1.272323E+0	1.352282E+0	1.369206E+0	1.212697E+0	1.375527E+0	1.391906E+0	1.385421E+0	1.294018E+0	1.348382E+0	1.348435E+0	1.357348E+0	1.295791E+0	1.355916E+0	1.228461E+0	1.244074E+0	1.249105E+0	1.235822E+0	1.382729E+0	1.345535E+0	1.124176E+0	1.312798E+0	1.392696E+0
5.357190E+2	9.808729E-1	9.184085E-1	1.240411E+0	1.055337E+0	1.086016E+0	1.016766E+0	1.191804E+0	1.167908E+0	1.172303E+0	1.122024E+0	1.231447E+0	1.131246E+0	1.193624E+0	1.171891E+0	1.257446E+0	1.189597E+0	1.258587E+0	1.110109E+0	1.251263E+0	1.185049E+0	1.218413E+0	9.841944E-1	1.244821E+0	1.218047E+0	1.031055E+0	1.048986E+0	1.232047E+0	1.161061E+0	1.228592E+0	1.113364E+0	1.163056E+0	1.160167E+0	1.260797E+0	1.126756E+0	1.180720E+0	1.127182E+0	1.159482E+0	9.862021E-1	1.212215E+0	1.136021E+0	9.877175E-1	1.133384E+0	1.149760E+0	1.201167E+0	1.093513E+0	1.150418E+0	1.224029E+0	1.157977E+0	1.243905E+0	1.205492E+0	1.202879E+0	1.193245E+0	1.285027E+0	1.012724E+0	1.224489E+0	1.171180E+0	1.222756E+0	1.044531E+0	1.218680E+0	1.121992E+0	1.170656E+0	1.138658E+0	1.190381E+0	1.164393E+0	9.704366E-1	1.135826E+0	1.133774E+0	1.097388E+0	1.157456E+0	1.114227E+0	1.225168E+0	1.252510E+0	1.168279E+0	1.118472E+0	1.166249E+0	1.147109E+0	1.172513E+0	1.169806E+0	1.233730E+0	1.160917E+0	1.174036E+0	1.109356E+0	1.207563E+0	1.152209E+0	1.120495E+0	1.113720E+0	1.172943E+0	1.189314E+0	1.096727E+0	1.172248E+0	1.213814E+0	1.166977E+0	1.173019E+0	1.151723E+0	1.202748E+0	1.153655E+0	1.283474E+0	1.148592E+0	1.143874E+0	1.140082E+0	1.241800E+0	1.053518E+0	1.217403E+0	1.172409E+0	1.062652E+0	1.103066E+0	1.095232E+0	1.177416E+0	1.098714E+0	1.144987E+0	1.193404E+0	1.210063E+0	1.259034E+0	1.115554E+0	1.268072E+0	1.218898E+0	1.131690E+0	1.038768E+0	1.265251E+0	1.196703E+0	1.183854E+0	1.072428E+0	1.162804E+0	1.206302E+0	1.224986E+0	1.159485E+0	1.202355E+0	1.191917E+0	1.197501E+0	1.155261E+0	1.193739E+0	1.242487E+0	1.193204E+0	1.119230E+0	1.233246E+0	1.157161E+0	1.169114E+0	1.184668E+0	1.178023E+0	1.150482E+0	1.209835E+0	1.185982E+0	1.157640E+0	1.147001E+0	1.247002E+0	1.167412E+0	1.157322E+0	1.178311E+0	1.207062E+0	1.218555E+0	1.225775E+0	1.212332E+0	1.133726E+0	1.181485E+0	1.243190E+0	1.240838E+0	1.131633E+0	1.227956E+0	1.154718E+0	1.091740E+0	1.167640E+0	1.148308E+0	1.058536E+0	1.160897E+0	1.150281E+0	1.025915E+0	1.207025E+0	1.150097E+0	1.031184E+0	1.051187E+0	1.036988E+0
5.358650E+2	8.600901E-1	7.946276E-1	1.146478E+0	9.160024E-1	9.668367E-1	8.927340E-1	1.043720E+0	1.026328E+0	9.621400E-1	9.020686E-1	1.011238E+0	9.705969E-1	1.032783E+0	9.679365E-1	1.052327E+0	1.018099E+0	1.021867E+0	9.448528E-1	1.034263E+0	1.037135E+0	1.056141E+0	8.822059E-1	1.076585E+0	1.029400E+0	9.033000E-1	9.007372E-1	1.021289E+0	1.027430E+0	1.032583E+0	9.623715E-1	1.002048E+0	9.815104E-1	1.018426E+0	1.008312E+0	9.998238E-1	1.023124E+0	1.010949E+0	8.596104E-1	1.031091E+0	9.680640E-1	8.119214E-1	8.890163E-1	1.042174E+0	9.929337E-1	9.737598E-1	9.903671E-1	1.066713E+0	9.737029E-1	1.090420E+0	1.024952E+0	9.455887E-1	9.449414E-1	1.079463E+0	9.348716E-1	1.046650E+0	9.855874E-1	1.031973E+0	8.972631E-1	1.001843E+0	1.054014E+0	9.719105E-1	9.465938E-1	1.054899E+0	1.012216E+0	8.531332E-1	9.650495E-1	1.000000E+0	9.808273E-1	9.469114E-1	9.191385E-1	1.009052E+0	1.059169E+0	1.026742E+0	9.863959E-1	1.003676E+0	1.013524E+0	1.000420E+0	1.017513E+0	1.048624E+0	9.676851E-1	9.932611E-1	9.406825E-1	1.009734E+0	9.694883E-1	9.915131E-1	9.451828E-1	1.029575E+0	9.754799E-1	9.464990E-1	9.690927E-1	1.032788E+0	9.933360E-1	9.606558E-1	9.985300E-1	1.000118E+0	1.004140E+0	1.094097E+0	1.001834E+0	1.013360E+0	1.004730E+0	1.039099E+0	9.588058E-1	1.017841E+0	1.004851E+0	9.342866E-1	9.741226E-1	9.881667E-1	1.066428E+0	9.851398E-1	1.026891E+0	1.008896E+0	1.059552E+0	1.014938E+0	9.562479E-1	1.028349E+0	1.026593E+0	9.620298E-1	8.664786E-1	1.104817E+0	1.036291E+0	9.822986E-1	9.391176E-1	1.001509E+0	1.019901E+0	1.006207E+0	1.031374E+0	1.070370E+0	1.020611E+0	1.049950E+0	9.814791E-1	1.023932E+0	1.030375E+0	1.044338E+0	9.159109E-1	1.014019E+0	1.014109E+0	1.037934E+0	1.003336E+0	1.035554E+0	9.924759E-1	1.018078E+0	1.021902E+0	1.011432E+0	9.890231E-1	1.068125E+0	9.940279E-1	1.002301E+0	9.646459E-1	1.061080E+0	9.760411E-1	1.019370E+0	1.046481E+0	9.352108E-1	9.868761E-1	1.106867E+0	9.982525E-1	9.650269E-1	1.018709E+0	1.024340E+0	1.001739E+0	1.008734E+0	9.615756E-1	9.312345E-1	9.980102E-1	9.994170E-1	8.885682E-1	1.053442E+0	9.960387E-1	9.515960E-1	1.039702E+0	9.663045E-1
5.360120E+2	7.231111E-1	6.865159E-1	9.346430E-1	7.306074E-1	7.912042E-1	7.271958E-1	8.756891E-1	8.346046E-1	8.410865E-1	7.762318E-1	8.638546E-1	8.551798E-1	8.663063E-1	8.138709E-1	9.053790E-1	8.198835E-1	9.010132E-1	7.795964E-1	8.797790E-1	8.446221E-1	8.613074E-1	7.321943E-1	8.352016E-1	8.998292E-1	7.051496E-1	7.317223E-1	8.563014E-1	8.605251E-1	8.655334E-1	7.477437E-1	8.432088E-1	8.598739E-1	8.536144E-1	7.859678E-1	8.125800E-1	8.633575E-1	8.285891E-1	7.272210E-1	8.320728E-1	8.318488E-1	6.926134E-1	8.152246E-1	8.850281E-1	8.117141E-1	8.183592E-1	8.342075E-1	8.832673E-1	8.345951E-1	8.833706E-1	8.653297E-1	8.667022E-1	8.310456E-1	8.789729E-1	7.364721E-1	9.041623E-1	7.450711E-1	8.633263E-1	7.563070E-1	8.009776E-1	8.112353E-1	8.092033E-1	7.848837E-1	8.360809E-1	8.200606E-1	7.005437E-1	8.341801E-1	8.484295E-1	8.271268E-1	8.295574E-1	7.975909E-1	8.868497E-1	8.236732E-1	8.943999E-1	7.919664E-1	8.353976E-1	8.918129E-1	8.574587E-1	8.023859E-1	8.609257E-1	8.286768E-1	8.513489E-1	8.293246E-1	8.192544E-1	8.051429E-1	8.422994E-1	7.960528E-1	8.596991E-1	8.047064E-1	7.713156E-1	8.445960E-1	8.625437E-1	8.111277E-1	8.218219E-1	8.041098E-1	8.870724E-1	8.093466E-1	8.698032E-1	8.597901E-1	8.816370E-1	8.311734E-1	8.703542E-1	7.516603E-1	8.480979E-1	8.121874E-1	7.716204E-1	7.940584E-1	7.910302E-1	8.401634E-1	8.084104E-1	8.463049E-1	8.673250E-1	8.917484E-1	8.778634E-1	7.937670E-1	9.340037E-1	8.461959E-1	8.247528E-1	7.635389E-1	9.111293E-1	8.563575E-1	8.469101E-1	7.495426E-1	8.255005E-1	8.608229E-1	8.184598E-1	8.039134E-1	8.856938E-1	8.427159E-1	8.713947E-1	7.911472E-1	8.968632E-1	8.552526E-1	8.815483E-1	7.649612E-1	8.535953E-1	8.399579E-1	9.227938E-1	8.531900E-1	8.631218E-1	8.558846E-1	8.294919E-1	8.319438E-1	8.170298E-1	8.109983E-1	8.817718E-1	7.969482E-1	8.265707E-1	8.589683E-1	8.548761E-1	8.163773E-1	8.843880E-1	8.748187E-1	8.048520E-1	8.884469E-1	9.236665E-1	8.246319E-1	8.253110E-1	8.639526E-1	8.469832E-1	8.946163E-1	8.566607E-1	7.991005E-1	7.607420E-1	8.062432E-1	8.222963E-1	7.854297E-1	8.669929E-1	8.362517E-1	7.873932E-1	7.666057E-1	8.750972E-1
5.362730E+2	5.231949E-1	6.833823E-1	6.910642E-1	5.929993E-1	6.129585E-1	6.085361E-1	6.321051E-1	6.512384E-1	6.258807E-1	6.150352E-1	6.546274E-1	6.326627E-1	6.173604E-1	6.255680E-1	7.028132E-1	6.445060E-1	6.820350E-1	6.059659E-1	6.880248E-1	6.368660E-1	6.539921E-1	5.263864E-1	6.517729E-1	6.674966E-1	5.674869E-1	5.482203E-1	6.034988E-1	6.598096E-1	6.410784E-1	5.875819E-1	6.317849E-1	6.533436E-1	6.576772E-1	5.849220E-1	6.242788E-1	6.321173E-1	6.114240E-1	5.842011E-1	6.276323E-1	6.414109E-1	5.090257E-1	6.050807E-1	6.662303E-1	6.485043E-1	6.028038E-1	6.074693E-1	6.628055E-1	6.354177E-1	6.871381E-1	6.600218E-1	6.336842E-1	6.491357E-1	6.383849E-1	5.415893E-1	6.703080E-1	5.817296E-1	6.598959E-1	5.485544E-1	6.510960E-1	6.130139E-1	6.565654E-1	5.933188E-1	6.285543E-1	6.160962E-1	5.212508E-1	6.158672E-1	6.127899E-1	6.157172E-1	6.259134E-1	5.396856E-1	6.746934E-1	6.414781E-1	6.854138E-1	6.349490E-1	6.654082E-1	6.412661E-1	6.217078E-1	6.149481E-1	6.509307E-1	6.162203E-1	6.947164E-1	6.093390E-1	6.717308E-1	6.418474E-1	6.475624E-1	5.698038E-1	6.519535E-1	6.202320E-1	6.020045E-1	6.305019E-1	6.588170E-1	6.706161E-1	6.331633E-1	6.595686E-1	6.167208E-1	6.258721E-1	6.461029E-1	6.546814E-1	6.592790E-1	6.663498E-1	6.383287E-1	5.941476E-1	6.450931E-1	6.271644E-1	5.663384E-1	5.872961E-1	6.188183E-1	6.592737E-1	5.913468E-1	6.286488E-1	6.381414E-1	6.324180E-1	6.680343E-1	6.238759E-1	6.533400E-1	6.110235E-1	6.207723E-1	5.533236E-1	7.069408E-1	6.510960E-1	6.026003E-1	5.599685E-1	6.381726E-1	6.367774E-1	6.327817E-1	6.224686E-1	6.405022E-1	6.582326E-1	6.446133E-1	6.167746E-1	6.689353E-1	6.471866E-1	6.683350E-1	5.945012E-1	6.663394E-1	6.082741E-1	6.713175E-1	6.354780E-1	6.477229E-1	6.382632E-1	6.784121E-1	6.337258E-1	6.307501E-1	6.425190E-1	6.839151E-1	6.674891E-1	6.833822E-1	6.487681E-1	6.424085E-1	6.237928E-1	6.507443E-1	6.471681E-1	6.144526E-1	6.505292E-1	6.908941E-1	6.389118E-1	6.597616E-1	6.367231E-1	6.474571E-1	6.397719E-1	6.499099E-1	6.507292E-1	5.703577E-1	6.190964E-1	6.461305E-1	5.744864E-1	7.045604E-1	6.694616E-1	5.712487E-1	6.236764E-1	6.607608E-1
5.365140E+2	4.667373E-1	5.846718E-1	5.971321E-1	5.135445E-1	5.392560E-1	5.509148E-1	5.329793E-1	5.701253E-1	5.446182E-1	5.203972E-1	5.922062E-1	5.785932E-1	5.118396E-1	5.556272E-1	5.844370E-1	5.294553E-1	5.390054E-1	5.652105E-1	5.666009E-1	5.115349E-1	6.002635E-1	4.971154E-1	5.409278E-1	5.538120E-1	4.965697E-1	4.946184E-1	5.758228E-1	5.487189E-1	5.862574E-1	5.428230E-1	5.385414E-1	5.481782E-1	5.944061E-1	5.859612E-1	5.274834E-1	5.627453E-1	5.369115E-1	5.542447E-1	5.609313E-1	5.360533E-1	4.588680E-1	5.296844E-1	5.544142E-1	5.410103E-1	5.114567E-1	5.391146E-1	5.621012E-1	5.432806E-1	5.671322E-1	5.901183E-1	5.596524E-1	5.131078E-1	5.769692E-1	4.953793E-1	5.675216E-1	5.367512E-1	5.892751E-1	5.075300E-1	5.497421E-1	5.587453E-1	5.500375E-1	5.629669E-1	5.570489E-1	5.325122E-1	4.540160E-1	5.337072E-1	5.416067E-1	5.637221E-1	5.504720E-1	5.284507E-1	5.785153E-1	5.712167E-1	5.438760E-1	5.606912E-1	5.456166E-1	5.343983E-1	5.364711E-1	5.435944E-1	5.493030E-1	5.097454E-1	5.386726E-1	5.623944E-1	5.225117E-1	5.567873E-1	5.635981E-1	5.253716E-1	5.848687E-1	5.189423E-1	5.305611E-1	5.367384E-1	5.827751E-1	5.335309E-1	5.223867E-1	5.669390E-1	5.895261E-1	5.409740E-1	5.963915E-1	5.468232E-1	5.764995E-1	5.501002E-1	5.899691E-1	5.080478E-1	5.504724E-1	5.349253E-1	5.117695E-1	5.526469E-1	5.060882E-1	5.464468E-1	4.963484E-1	5.492115E-1	5.337034E-1	5.805520E-1	6.158407E-1	5.069102E-1	5.779817E-1	5.348159E-1	5.550343E-1	5.007697E-1	5.809272E-1	5.598104E-1	5.135286E-1	4.986354E-1	5.662972E-1	5.633100E-1	5.588211E-1	5.482170E-1	5.528597E-1	5.974141E-1	6.136101E-1	5.222002E-1	5.714962E-1	5.587579E-1	5.405995E-1	5.215931E-1	5.521589E-1	5.289735E-1	5.641970E-1	5.396157E-1	5.940146E-1	5.850164E-1	5.590267E-1	5.847221E-1	5.451915E-1	5.542221E-1	6.005156E-1	5.542117E-1	5.597199E-1	5.609924E-1	5.735128E-1	5.524649E-1	5.811360E-1	5.737496E-1	5.262848E-1	5.492881E-1	5.637304E-1	5.463544E-1	5.485160E-1	5.609797E-1	5.556116E-1	5.815640E-1	5.809931E-1	5.610300E-1	5.038655E-1	5.064620E-1	5.391896E-1	5.211031E-1	5.528731E-1	5.542359E-1	4.992008E-1	5.126518E-1	5.057099E-1
5.367710E+2	4.565563E-1	5.846718E-1	5.621495E-1	4.398472E-1	4.953479E-1	5.572630E-1	5.879820E-1	5.440702E-1	5.496621E-1	5.276772E-1	5.702435E-1	5.572781E-1	5.420617E-1	5.448672E-1	5.635173E-1	5.148050E-1	5.944434E-1	5.328295E-1	5.918476E-1	5.521828E-1	5.557615E-1	5.094646E-1	5.251728E-1	5.533154E-1	4.908338E-1	5.206948E-1	5.007804E-1	5.540853E-1	5.262648E-1	5.261060E-1	5.141462E-1	5.447998E-1	5.780776E-1	5.532330E-1	5.264255E-1	5.180742E-1	5.310292E-1	5.392656E-1	5.734035E-1	5.470735E-1	4.384149E-1	5.446568E-1	5.683158E-1	5.426989E-1	5.103432E-1	4.935448E-1	5.631902E-1	5.559269E-1	5.640415E-1	5.851637E-1	5.153547E-1	5.141877E-1	5.480375E-1	5.295343E-1	5.936258E-1	5.168660E-1	5.613431E-1	5.022703E-1	5.442137E-1	5.256134E-1	5.129381E-1	4.952975E-1	5.495221E-1	5.116159E-1	4.292198E-1	5.419230E-1	5.109249E-1	5.145838E-1	5.342001E-1	5.248757E-1	5.677662E-1	5.610412E-1	5.586939E-1	5.057071E-1	5.513210E-1	5.248988E-1	5.499582E-1	5.169694E-1	5.627846E-1	4.846059E-1	5.528046E-1	5.651231E-1	5.479464E-1	5.541618E-1	5.418480E-1	5.570364E-1	5.626877E-1	5.478123E-1	5.124556E-1	5.429895E-1	5.299993E-1	5.620903E-1	5.562482E-1	5.608317E-1	5.868597E-1	5.197491E-1	5.679852E-1	5.462337E-1	5.094292E-1	5.266318E-1	5.873963E-1	5.207097E-1	5.504725E-1	5.212806E-1	4.738312E-1	4.788032E-1	5.066550E-1	5.323435E-1	5.271302E-1	5.274989E-1	5.679359E-1	5.998747E-1	5.525755E-1	5.270224E-1	5.405996E-1	5.514864E-1	5.366668E-1	5.316518E-1	5.838443E-1	5.328990E-1	5.247263E-1	5.285413E-1	5.408295E-1	5.481308E-1	4.879635E-1	5.241636E-1	5.700753E-1	5.654842E-1	5.251937E-1	5.316568E-1	5.851726E-1	5.576017E-1	5.526051E-1	5.375098E-1	5.727118E-1	5.320832E-1	5.430021E-1	5.113184E-1	5.663124E-1	5.433443E-1	5.616681E-1	5.483821E-1	5.414016E-1	5.208126E-1	5.838360E-1	5.172230E-1	5.384194E-1	5.119068E-1	5.730312E-1	5.025358E-1	5.502654E-1	5.351917E-1	4.878793E-1	5.341018E-1	5.572651E-1	5.741825E-1	5.474614E-1	5.081230E-1	5.408319E-1	5.507477E-1	5.371370E-1	5.367720E-1	4.805648E-1	5.561363E-1	5.611503E-1	5.019262E-1	5.838426E-1	5.185862E-1	5.075780E-1	5.407267E-1	5.969160E-1
5.370010E+2	4.676629E-1	6.013845E-1	6.100875E-1	4.686353E-1	5.047566E-1	5.772835E-1	5.764980E-1	5.833981E-1	5.328492E-1	4.990782E-1	5.609957E-1	5.396007E-1	5.656241E-1	5.458452E-1	6.436253E-1	5.484151E-1	5.473212E-1	5.869843E-1	5.924488E-1	5.713779E-1	5.823538E-1	5.158676E-1	5.741253E-1	5.463651E-1	5.122135E-1	5.173141E-1	5.603888E-1	5.798455E-1	5.769483E-1	5.163985E-1	5.423357E-1	6.094194E-1	5.974675E-1	5.719349E-1	5.481121E-1	5.538110E-1	5.761290E-1	5.523113E-1	5.490015E-1	5.550084E-1	4.617899E-1	5.639074E-1	6.027674E-1	5.595825E-1	5.292803E-1	5.919091E-1	5.653673E-1	5.428290E-1	6.057609E-1	5.780091E-1	5.590451E-1	5.579108E-1	5.957496E-1	5.230052E-1	5.669775E-1	5.438532E-1	5.718835E-1	5.164712E-1	5.626415E-1	5.735976E-1	5.367883E-1	5.102242E-1	5.656510E-1	5.393257E-1	4.521086E-1	5.771352E-1	5.649252E-1	5.317250E-1	5.504723E-1	5.596034E-1	5.847386E-1	5.775162E-1	5.821983E-1	5.589913E-1	5.564552E-1	5.937698E-1	5.931155E-1	5.558413E-1	6.068574E-1	5.472090E-1	5.581044E-1	5.787699E-1	5.976864E-1	5.315845E-1	5.357781E-1	6.004475E-1	5.724255E-1	5.664065E-1	5.163703E-1	5.961218E-1	5.492934E-1	5.712293E-1	5.281916E-1	5.450544E-1	5.783281E-1	5.584253E-1	5.839638E-1	5.916172E-1	5.849585E-1	5.490085E-1	5.539564E-1	5.855377E-1	5.808658E-1	5.447497E-1	5.117694E-1	5.498065E-1	5.684013E-1	5.881437E-1	5.382752E-1	5.476232E-1	5.603929E-1	5.973319E-1	5.820993E-1	6.069394E-1	6.147711E-1	5.669660E-1	5.550343E-1	5.749953E-1	6.176810E-1	5.323713E-1	5.501754E-1	5.858191E-1	5.821435E-1	5.875965E-1	5.407188E-1	5.555375E-1	5.559896E-1	5.746072E-1	5.050997E-1	5.919485E-1	5.914401E-1	5.720509E-1	5.809371E-1	6.206859E-1	5.795628E-1	5.626634E-1	5.338369E-1	5.627156E-1	5.697042E-1	6.139551E-1	5.669508E-1	5.478315E-1	5.441091E-1	5.589950E-1	6.333007E-1	6.010246E-1	5.697789E-1	6.071901E-1	5.908573E-1	6.748190E-1	5.399757E-1	6.344920E-1	5.506251E-1	5.993461E-1	5.766624E-1	5.814415E-1	5.643332E-1	5.500813E-1	5.677522E-1	5.664001E-1	5.582106E-1	5.627225E-1	5.118218E-1	5.601802E-1	5.678341E-1	5.340603E-1	6.261885E-1	5.847927E-1	5.327112E-1	5.292411E-1	5.330717E-1
5.372640E+2	5.375414E-1	7.141973E-1	7.338201E-1	6.626668E-1	6.385718E-1	6.729934E-1	7.058450E-1	6.507470E-1	6.404521E-1	6.665143E-1	6.609853E-1	7.184461E-1	6.501433E-1	6.226339E-1	6.767907E-1	6.647586E-1	6.881325E-1	6.718451E-1	6.928340E-1	6.639650E-1	6.762430E-1	6.553597E-1	6.900339E-1	6.868576E-1	5.721803E-1	5.965100E-1	6.737510E-1	6.565899E-1	6.643516E-1	5.978274E-1	6.681064E-1	6.516542E-1	6.270619E-1	6.773927E-1	6.533706E-1	6.184533E-1	6.452484E-1	6.349347E-1	6.357666E-1	6.405294E-1	5.163307E-1	6.157750E-1	6.813408E-1	6.597595E-1	6.239692E-1	6.547067E-1	6.617172E-1	6.119316E-1	6.825026E-1	6.952487E-1	6.798024E-1	6.491353E-1	6.860963E-1	6.199436E-1	6.790098E-1	6.394908E-1	6.904633E-1	6.248178E-1	6.375826E-1	6.472881E-1	6.830652E-1	6.490460E-1	6.237153E-1	6.597061E-1	5.698886E-1	6.798353E-1	6.244489E-1	6.442863E-1	6.377479E-1	6.367194E-1	6.639441E-1	6.952646E-1	6.542452E-1	6.366491E-1	6.705420E-1	6.572967E-1	6.540766E-1	6.777822E-1	6.903370E-1	6.462894E-1	6.470198E-1	7.043202E-1	6.242521E-1	6.381722E-1	6.015334E-1	7.087198E-1	6.882009E-1	6.016376E-1	6.093446E-1	6.914485E-1	6.957031E-1	6.466260E-1	6.655739E-1	6.610948E-1	7.079043E-1	6.692643E-1	7.100170E-1	7.130316E-1	6.949296E-1	6.510678E-1	6.373003E-1	6.336528E-1	6.651640E-1	6.446292E-1	6.068748E-1	6.537556E-1	6.533744E-1	6.923852E-1	6.109833E-1	6.778989E-1	6.706329E-1	6.949626E-1	7.081022E-1	6.963838E-1	6.646144E-1	6.681796E-1	6.913436E-1	6.903968E-1	7.046072E-1	6.326280E-1	6.590969E-1	6.618520E-1	6.676017E-1	6.543854E-1	6.788133E-1	6.465217E-1	6.853671E-1	6.572192E-1	6.784868E-1	7.225804E-1	7.014151E-1	6.616352E-1	6.779394E-1	7.125908E-1	6.834664E-1	6.295251E-1	6.907944E-1	6.955366E-1	6.867324E-1	6.695178E-1	6.815814E-1	6.706164E-1	6.258765E-1	6.453828E-1	7.069208E-1	7.241276E-1	6.443313E-1	6.972757E-1	6.727607E-1	7.593154E-1	6.592186E-1	7.295664E-1	6.333841E-1	7.281477E-1	6.822728E-1	6.358874E-1	6.502712E-1	6.410821E-1	6.701544E-1	6.348805E-1	6.613013E-1	7.122215E-1	5.828607E-1	6.179414E-1	6.423108E-1	6.978393E-1	6.748549E-1	6.885591E-1	6.491612E-1	6.696191E-1	6.926825E-1
5.375160E+2	6.374988E-1	8.578236E-1	7.843494E-1	7.985466E-1	6.892747E-1	7.433103E-1	7.699146E-1	8.100248E-1	7.267587E-1	7.538725E-1	8.320662E-1	7.761547E-1	7.828126E-1	7.835467E-1	8.405779E-1	7.931675E-1	7.912466E-1	7.913206E-1	7.595568E-1	7.475190E-1	8.265736E-1	7.381400E-1	8.115699E-1	8.045135E-1	6.410115E-1	7.302734E-1	7.940323E-1	7.687538E-1	7.739930E-1	7.331835E-1	7.591818E-1	7.635776E-1	7.821788E-1	7.885651E-1	7.607444E-1	7.419565E-1	7.893716E-1	7.489638E-1	7.941131E-1	7.432423E-1	6.220026E-1	7.211147E-1	7.593100E-1	7.312344E-1	7.242273E-1	7.180600E-1	7.765748E-1	7.370389E-1	7.947829E-1	8.025814E-1	7.932769E-1	7.646512E-1	8.353220E-1	7.570658E-1	8.204102E-1	7.114565E-1	7.932325E-1	7.052889E-1	7.635071E-1	7.392585E-1	7.466641E-1	7.425902E-1	7.285541E-1	7.428358E-1	5.818101E-1	7.625826E-1	7.514740E-1	7.534193E-1	7.319268E-1	7.771630E-1	7.787912E-1	7.635875E-1	7.687018E-1	7.970674E-1	7.806358E-1	8.104740E-1	8.051294E-1	7.800210E-1	7.888528E-1	7.611440E-1	7.924645E-1	8.031225E-1	7.282531E-1	7.636623E-1	7.072481E-1	7.924782E-1	7.715151E-1	7.675177E-1	7.576143E-1	7.805239E-1	7.615314E-1	7.814262E-1	7.473260E-1	7.873147E-1	8.012211E-1	7.202036E-1	8.248263E-1	8.026193E-1	7.468931E-1	7.471245E-1	7.509973E-1	7.724257E-1	7.901783E-1	7.674329E-1	6.759954E-1	7.423676E-1	7.241850E-1	7.751657E-1	7.383558E-1	7.573361E-1	7.640469E-1	8.353063E-1	8.045816E-1	8.069983E-1	7.868482E-1	7.443866E-1	7.691659E-1	8.204261E-1	8.119519E-1	8.083405E-1	7.395160E-1	7.764076E-1	7.519275E-1	7.229957E-1	7.507058E-1	7.662650E-1	7.651849E-1	7.940611E-1	8.105370E-1	8.538030E-1	7.737825E-1	7.333030E-1	7.730213E-1	8.003884E-1	7.702440E-1	7.886459E-1	7.824486E-1	8.110339E-1	7.658816E-1	8.066880E-1	7.835344E-1	7.862432E-1	7.439266E-1	7.494293E-1	8.461110E-1	8.056176E-1	7.626683E-1	7.677274E-1	7.801991E-1	8.482003E-1	7.833042E-1	7.834416E-1	7.231753E-1	7.905802E-1	8.024307E-1	7.611122E-1	7.583535E-1	7.794909E-1	7.725566E-1	8.119512E-1	7.820486E-1	7.974081E-1	6.789047E-1	7.034283E-1	7.487743E-1	7.900938E-1	7.987334E-1	7.859596E-1	7.094805E-1	8.227570E-1	7.998506E-1
5.377580E+2	6.981212E-1	9.137082E-1	9.573163E-1	9.545787E-1	8.006132E-1	8.712482E-1	8.920088E-1	9.206344E-1	8.584603E-1	8.828293E-1	9.395697E-1	8.588188E-1	8.990903E-1	8.270761E-1	9.130320E-1	8.259156E-1	9.037851E-1	8.611080E-1	8.629478E-1	8.880929E-1	9.139501E-1	8.863220E-1	8.622092E-1	8.988363E-1	7.708522E-1	7.959474E-1	8.600271E-1	8.701850E-1	9.058737E-1	8.291726E-1	8.773619E-1	8.564946E-1	8.638192E-1	9.122053E-1	9.104334E-1	8.570510E-1	8.648642E-1	8.137088E-1	8.559333E-1	8.300857E-1	6.706999E-1	8.216415E-1	8.747524E-1	8.336629E-1	8.278280E-1	8.803325E-1	8.734690E-1	8.838251E-1	9.410555E-1	9.341326E-1	8.764110E-1	8.353637E-1	9.276993E-1	8.208547E-1	9.226532E-1	8.383421E-1	8.828263E-1	7.783975E-1	8.691610E-1	8.809272E-1	8.372925E-1	8.301623E-1	8.656511E-1	8.768439E-1	7.062659E-1	9.116449E-1	8.901574E-1	8.259836E-1	8.078614E-1	8.450866E-1	8.947708E-1	8.876356E-1	8.806040E-1	8.163401E-1	8.445248E-1	9.072489E-1	8.628533E-1	8.833252E-1	8.785542E-1	8.419860E-1	8.843248E-1	9.183016E-1	8.983848E-1	8.303460E-1	8.180204E-1	9.405860E-1	9.116358E-1	8.379799E-1	8.168244E-1	8.445955E-1	8.591383E-1	8.431143E-1	8.271430E-1	8.860517E-1	9.158673E-1	7.885935E-1	8.816399E-1	8.639161E-1	8.725738E-1	8.475473E-1	8.924757E-1	8.944853E-1	8.503914E-1	8.553048E-1	7.783765E-1	8.480208E-1	8.017936E-1	8.769540E-1	8.317625E-1	8.542488E-1	8.615228E-1	8.729343E-1	9.126590E-1	8.906204E-1	8.972151E-1	8.402414E-1	8.508546E-1	8.783978E-1	9.093791E-1	8.605792E-1	8.387665E-1	7.885729E-1	8.430447E-1	8.687160E-1	8.748353E-1	8.640465E-1	8.987355E-1	8.695775E-1	8.070920E-1	8.839488E-1	9.122480E-1	8.384916E-1	8.584984E-1	9.318277E-1	8.450319E-1	8.622456E-1	8.626457E-1	8.947691E-1	8.410730E-1	8.309967E-1	8.854865E-1	9.233433E-1	8.186542E-1	8.081341E-1	9.427393E-1	9.373891E-1	8.934310E-1	8.445314E-1	8.722198E-1	9.480589E-1	8.450442E-1	8.874954E-1	8.329794E-1	9.131945E-1	8.832546E-1	9.069048E-1	8.263656E-1	8.944680E-1	8.807647E-1	8.305387E-1	9.062125E-1	9.446506E-1	7.829055E-1	8.460980E-1	8.576247E-1	8.999707E-1	9.346204E-1	8.750844E-1	8.301197E-1	8.776319E-1	9.161410E-1
5.380160E+2	8.429673E-1	1.107474E+0	1.181461E+0	1.068004E+0	9.652684E-1	9.962569E-1	1.154935E+0	1.049433E+0	1.019304E+0	1.028946E+0	1.076549E+0	9.908731E-1	1.017416E+0	9.850552E-1	1.061512E+0	1.007324E+0	1.053466E+0	1.038088E+0	1.071532E+0	1.006650E+0	9.964427E-1	9.718479E-1	1.159859E+0	1.009542E+0	8.631486E-1	9.388862E-1	1.041513E+0	1.040847E+0	1.004138E+0	9.364866E-1	1.041622E+0	9.819324E-1	9.837287E-1	1.028572E+0	1.125710E+0	1.013138E+0	1.024674E+0	1.028722E+0	1.126533E+0	9.953953E-1	8.323740E-1	9.767099E-1	1.122561E+0	9.766127E-1	9.587210E-1	9.675826E-1	1.012822E+0	9.172477E-1	1.063122E+0	1.050823E+0	1.053602E+0	9.913630E-1	1.078955E+0	9.705327E-1	1.095596E+0	9.595462E-1	1.039878E+0	9.372360E-1	9.803436E-1	9.763252E-1	9.989395E-1	9.426131E-1	1.002210E+0	9.699681E-1	8.059259E-1	1.031364E+0	9.772956E-1	9.933972E-1	9.592384E-1	9.727624E-1	1.063930E+0	1.031550E+0	1.051778E+0	9.886626E-1	1.041325E+0	1.033116E+0	1.030631E+0	9.770434E-1	1.053809E+0	9.740939E-1	1.043313E+0	1.073329E+0	9.978643E-1	9.899657E-1	9.682465E-1	1.076948E+0	9.938688E-1	9.705869E-1	9.592221E-1	1.039937E+0	1.029950E+0	1.008758E+0	9.722651E-1	9.888595E-1	1.093435E+0	9.645225E-1	1.067465E+0	1.059594E+0	1.000672E+0	9.785325E-1	1.038585E+0	1.037816E+0	1.021855E+0	9.753787E-1	9.358456E-1	9.991166E-1	9.553106E-1	1.040062E+0	9.214537E-1	1.024243E+0	1.018180E+0	1.048873E+0	9.711788E-1	1.043575E+0	1.056832E+0	1.048027E+0	9.842639E-1	1.042561E+0	1.083231E+0	1.038402E+0	1.014874E+0	1.006533E+0	9.800030E-1	9.931860E-1	1.006207E+0	9.738554E-1	1.046894E+0	1.018583E+0	1.001148E+0	1.038224E+0	1.046155E+0	9.691112E-1	1.021289E+0	1.034001E+0	1.056266E+0	1.010481E+0	1.003565E+0	1.013731E+0	9.750620E-1	9.861093E-1	1.026002E+0	1.010890E+0	9.935618E-1	9.713634E-1	1.075602E+0	1.131001E+0	1.007034E+0	1.018929E+0	1.050480E+0	1.133510E+0	1.019370E+0	1.037502E+0	9.449478E-1	1.072369E+0	1.056216E+0	9.734492E-1	9.676629E-1	1.009990E+0	1.007448E+0	1.008098E+0	9.944940E-1	1.108818E+0	8.897480E-1	9.737508E-1	9.602691E-1	1.063232E+0	1.080619E+0	9.813965E-1	8.988155E-1	1.083092E+0	1.018748E+0
5.382690E+2	9.693029E-1	1.274080E+0	1.337583E+0	1.252248E+0	1.075562E+0	1.114428E+0	1.272194E+0	1.166923E+0	1.131951E+0	1.104345E+0	1.229712E+0	1.162959E+0	1.172110E+0	1.118089E+0	1.221726E+0	1.160724E+0	1.189288E+0	1.202229E+0	1.281319E+0	1.173757E+0	1.174452E+0	1.140609E+0	1.298274E+0	1.190742E+0	1.027926E+0	1.089550E+0	1.205967E+0	1.165891E+0	1.167049E+0	1.100423E+0	1.187993E+0	1.133979E+0	1.191909E+0	1.195332E+0	1.272755E+0	1.157665E+0	1.133990E+0	1.135019E+0	1.308197E+0	1.100753E+0	9.127238E-1	1.085258E+0	1.262785E+0	1.117873E+0	1.110779E+0	1.154864E+0	1.214777E+0	1.127717E+0	1.193945E+0	1.223106E+0	1.208946E+0	1.075571E+0	1.284518E+0	1.083545E+0	1.284312E+0	1.126676E+0	1.199565E+0	1.091867E+0	1.236494E+0	1.103142E+0	1.087978E+0	1.057055E+0	1.140918E+0	1.145770E+0	8.984332E-1	1.112939E+0	1.196980E+0	1.090532E+0	1.106177E+0	1.108100E+0	1.302112E+0	1.148815E+0	1.101854E+0	1.119039E+0	1.210174E+0	1.156015E+0	1.182223E+0	1.150104E+0	1.207289E+0	1.094864E+0	1.191114E+0	1.158486E+0	1.270303E+0	1.091303E+0	1.134151E+0	1.153047E+0	1.257880E+0	1.111021E+0	1.053664E+0	1.132657E+0	1.223461E+0	1.114428E+0	1.097071E+0	1.153760E+0	1.230477E+0	1.092813E+0	1.236721E+0	1.171578E+0	1.181337E+0	1.086596E+0	1.139935E+0	1.148734E+0	1.207657E+0	1.078534E+0	1.089158E+0	1.115562E+0	1.175108E+0	1.149209E+0	1.062625E+0	1.144986E+0	1.159752E+0	1.194810E+0	1.246381E+0	1.247869E+0	1.206361E+0	1.164719E+0	1.137009E+0	1.153628E+0	1.203995E+0	1.167679E+0	1.148226E+0	1.149982E+0	1.140166E+0	1.138907E+0	1.137059E+0	1.154777E+0	1.178358E+0	1.170629E+0	1.190037E+0	1.219689E+0	1.188041E+0	1.165618E+0	1.095242E+0	1.258372E+0	1.177868E+0	1.095485E+0	1.158804E+0	1.170808E+0	1.146363E+0	1.051511E+0	1.149614E+0	1.151844E+0	1.105655E+0	1.138889E+0	1.212492E+0	1.251791E+0	1.128922E+0	1.091690E+0	1.182490E+0	1.204838E+0	1.168272E+0	1.156345E+0	1.061784E+0	1.184859E+0	1.162904E+0	1.164614E+0	1.159048E+0	1.143495E+0	1.171082E+0	1.117668E+0	1.157388E+0	1.250418E+0	1.125028E+0	1.101403E+0	1.165080E+0	1.173627E+0	1.162151E+0	1.180018E+0	1.050452E+0	1.222191E+0	1.173798E+0
5.385170E+2	1.170144E+0	1.505452E+0	1.530632E+0	1.454339E+0	1.302942E+0	1.359074E+0	1.574407E+0	1.416656E+0	1.396473E+0	1.378899E+0	1.517545E+0	1.397433E+0	1.405689E+0	1.331338E+0	1.494706E+0	1.346876E+0	1.456497E+0	1.400422E+0	1.539196E+0	1.368526E+0	1.452861E+0	1.372028E+0	1.527843E+0	1.411660E+0	1.256844E+0	1.290921E+0	1.486976E+0	1.472331E+0	1.386333E+0	1.314510E+0	1.404839E+0	1.396259E+0	1.419995E+0	1.449366E+0	1.535108E+0	1.368934E+0	1.336451E+0	1.386752E+0	1.649839E+0	1.387734E+0	1.116276E+0	1.341925E+0	1.509383E+0	1.357626E+0	1.297371E+0	1.396606E+0	1.457555E+0	1.363026E+0	1.488551E+0	1.470796E+0	1.493545E+0	1.326033E+0	1.488565E+0	1.357285E+0	1.600284E+0	1.339731E+0	1.465710E+0	1.271218E+0	1.511071E+0	1.377909E+0	1.402262E+0	1.352612E+0	1.427479E+0	1.383350E+0	1.152590E+0	1.377614E+0	1.459621E+0	1.306511E+0	1.373429E+0	1.342513E+0	1.598565E+0	1.421137E+0	1.407413E+0	1.356549E+0	1.431503E+0	1.423184E+0	1.378592E+0	1.397181E+0	1.432837E+0	1.351684E+0	1.418408E+0	1.458713E+0	1.437043E+0	1.369589E+0	1.327372E+0	1.443644E+0	1.559759E+0	1.386511E+0	1.273866E+0	1.436870E+0	1.436266E+0	1.339474E+0	1.369416E+0	1.396528E+0	1.529090E+0	1.281477E+0	1.490602E+0	1.436215E+0	1.587986E+0	1.380768E+0	1.355500E+0	1.380697E+0	1.622841E+0	1.320865E+0	1.242986E+0	1.373448E+0	1.455518E+0	1.417170E+0	1.303039E+0	1.407126E+0	1.421428E+0	1.432780E+0	1.426161E+0	1.383887E+0	1.517286E+0	1.367741E+0	1.371923E+0	1.375759E+0	1.547615E+0	1.438372E+0	1.372177E+0	1.358312E+0	1.458792E+0	1.371454E+0	1.364631E+0	1.349819E+0	1.442329E+0	1.421001E+0	1.382370E+0	1.515827E+0	1.506569E+0	1.378308E+0	1.415541E+0	1.516631E+0	1.477021E+0	1.373294E+0	1.394239E+0	1.441648E+0	1.447129E+0	1.342057E+0	1.443848E+0	1.395213E+0	1.354207E+0	1.390892E+0	1.460963E+0	1.437311E+0	1.392223E+0	1.364835E+0	1.404112E+0	1.535139E+0	1.430970E+0	1.427836E+0	1.258133E+0	1.426716E+0	1.468957E+0	1.437446E+0	1.302981E+0	1.388159E+0	1.405443E+0	1.358325E+0	1.363570E+0	1.476076E+0	1.468290E+0	1.319739E+0	1.360344E+0	1.409448E+0	1.512930E+0	1.350627E+0	1.262407E+0	1.421271E+0	1.408656E+0
5.387650E+2	1.333966E+0	1.688249E+0	1.835750E+0	1.719766E+0	1.534507E+0	1.529493E+0	1.816178E+0	1.734721E+0	1.634659E+0	1.605612E+0	1.736019E+0	1.653223E+0	1.580874E+0	1.545563E+0	1.685538E+0	1.558881E+0	1.699869E+0	1.599177E+0	1.821114E+0	1.558785E+0	1.673203E+0	1.511523E+0	1.825493E+0	1.607253E+0	1.399719E+0	1.473456E+0	1.663143E+0	1.617232E+0	1.598378E+0	1.561493E+0	1.620055E+0	1.616727E+0	1.624605E+0	1.723140E+0	1.770484E+0	1.553399E+0	1.591359E+0	1.547652E+0	1.868376E+0	1.543344E+0	1.303273E+0	1.518380E+0	1.710047E+0	1.636204E+0	1.580323E+0	1.642794E+0	1.625763E+0	1.554980E+0	1.722896E+0	1.698122E+0	1.793922E+0	1.542488E+0	1.715953E+0	1.546645E+0	1.836859E+0	1.577404E+0	1.666509E+0	1.457931E+0	1.743265E+0	1.516151E+0	1.582460E+0	1.529247E+0	1.651134E+0	1.595032E+0	1.271801E+0	1.617640E+0	1.763376E+0	1.557349E+0	1.521355E+0	1.567731E+0	1.802237E+0	1.640645E+0	1.629169E+0	1.584423E+0	1.660249E+0	1.607827E+0	1.629987E+0	1.601123E+0	1.667719E+0	1.536533E+0	1.649237E+0	1.656866E+0	1.703828E+0	1.636845E+0	1.553972E+0	1.647420E+0	1.754521E+0	1.512267E+0	1.516088E+0	1.624917E+0	1.609917E+0	1.550814E+0	1.547432E+0	1.551249E+0	1.688526E+0	1.556924E+0	1.711938E+0	1.668438E+0	1.762005E+0	1.549958E+0	1.594725E+0	1.609621E+0	1.817241E+0	1.521713E+0	1.390064E+0	1.585320E+0	1.699107E+0	1.672869E+0	1.472338E+0	1.515162E+0	1.627985E+0	1.610244E+0	1.663930E+0	1.643749E+0	1.688772E+0	1.584457E+0	1.500015E+0	1.598982E+0	1.784473E+0	1.575563E+0	1.538104E+0	1.571708E+0	1.652346E+0	1.542676E+0	1.586516E+0	1.554271E+0	1.637964E+0	1.615112E+0	1.638432E+0	1.712661E+0	1.712843E+0	1.581754E+0	1.566808E+0	1.729191E+0	1.776746E+0	1.526716E+0	1.532294E+0	1.605079E+0	1.641044E+0	1.636656E+0	1.649869E+0	1.504233E+0	1.561066E+0	1.552211E+0	1.689879E+0	1.644219E+0	1.642502E+0	1.565220E+0	1.627177E+0	1.770519E+0	1.794145E+0	1.678196E+0	1.490724E+0	1.626948E+0	1.657008E+0	1.609253E+0	1.550251E+0	1.627380E+0	1.601276E+0	1.578931E+0	1.580005E+0	1.631221E+0	1.722323E+0	1.523061E+0	1.556561E+0	1.577893E+0	1.756892E+0	1.572803E+0	1.405666E+0	1.598657E+0	1.673156E+0
5.390240E+2	1.512129E+0	1.960879E+0	2.067669E+0	1.882129E+0	1.739931E+0	1.798066E+0	1.982398E+0	1.858109E+0	1.739455E+0	1.707532E+0	1.867220E+0	1.803998E+0	1.794992E+0	1.791086E+0	1.914635E+0	1.735980E+0	1.809633E+0	1.795694E+0	1.964780E+0	1.803237E+0	1.841441E+0	1.814743E+0	2.013985E+0	1.875828E+0	1.575446E+0	1.716838E+0	1.838773E+0	1.864639E+0	1.881788E+0	1.742149E+0	1.798952E+0	1.835927E+0	1.833299E+0	1.895093E+0	1.919116E+0	1.794103E+0	1.810486E+0	1.734158E+0	2.085832E+0	1.758028E+0	1.399694E+0	1.656338E+0	1.966316E+0	1.789285E+0	1.693391E+0	1.799510E+0	1.887048E+0	1.722089E+0	1.906256E+0	1.905078E+0	1.948052E+0	1.735738E+0	1.859598E+0	1.655636E+0	2.036452E+0	1.715180E+0	1.838844E+0	1.674626E+0	1.966857E+0	1.769784E+0	1.783857E+0	1.666080E+0	1.794149E+0	1.729497E+0	1.432019E+0	1.848275E+0	1.903900E+0	1.675051E+0	1.721054E+0	1.760777E+0	2.039284E+0	1.796672E+0	1.789619E+0	1.786786E+0	1.807987E+0	1.769909E+0	1.763776E+0	1.816253E+0	1.858532E+0	1.703643E+0	1.834720E+0	1.854469E+0	1.886394E+0	1.751309E+0	1.677390E+0	1.886438E+0	1.988777E+0	1.764265E+0	1.652615E+0	1.827029E+0	1.861878E+0	1.733021E+0	1.751570E+0	1.766540E+0	1.848496E+0	1.660687E+0	1.835625E+0	1.778652E+0	1.967444E+0	1.742615E+0	1.796396E+0	1.792964E+0	2.007629E+0	1.773874E+0	1.624970E+0	1.779587E+0	1.780114E+0	1.785694E+0	1.677727E+0	1.769889E+0	1.735903E+0	1.816692E+0	1.843182E+0	1.812053E+0	2.000293E+0	1.822606E+0	1.681760E+0	1.808111E+0	2.009664E+0	1.701675E+0	1.727445E+0	1.669030E+0	1.826654E+0	1.755184E+0	1.750471E+0	1.736240E+0	1.805942E+0	1.798076E+0	1.779669E+0	1.872256E+0	1.896326E+0	1.730286E+0	1.784821E+0	1.886817E+0	1.990260E+0	1.719011E+0	1.810123E+0	1.827408E+0	1.834962E+0	1.742573E+0	1.747594E+0	1.703550E+0	1.704563E+0	1.674395E+0	1.880833E+0	1.925098E+0	1.825337E+0	1.719982E+0	1.787612E+0	1.953778E+0	1.933972E+0	1.812360E+0	1.650831E+0	1.854740E+0	1.826199E+0	1.779849E+0	1.702092E+0	1.708573E+0	1.809249E+0	1.671869E+0	1.787321E+0	1.854623E+0	1.905889E+0	1.706163E+0	1.727954E+0	1.745816E+0	1.980632E+0	1.791794E+0	1.617622E+0	1.737757E+0	1.718760E+0
5.392720E+2	1.670860E+0	2.155163E+0	2.219254E+0	2.161376E+0	1.800044E+0	1.892796E+0	2.172185E+0	2.250898E+0	1.917113E+0	1.869766E+0	2.057374E+0	2.035348E+0	1.966588E+0	1.916298E+0	2.067195E+0	1.969097E+0	1.954881E+0	1.987190E+0	2.110245E+0	1.960179E+0	1.969520E+0	1.860022E+0	2.237363E+0	2.112133E+0	1.746483E+0	1.811969E+0	2.049535E+0	2.029936E+0	1.962470E+0	1.901775E+0	1.948036E+0	1.953763E+0	2.016478E+0	2.084189E+0	2.132278E+0	1.890802E+0	1.969805E+0	1.921625E+0	2.248518E+0	1.982407E+0	1.593994E+0	1.856323E+0	2.105332E+0	1.964313E+0	1.910620E+0	1.891761E+0	1.997554E+0	1.900942E+0	2.020081E+0	2.071306E+0	2.111895E+0	1.887958E+0	2.069729E+0	1.838464E+0	2.155008E+0	1.840171E+0	1.963745E+0	1.791390E+0	2.071282E+0	1.901172E+0	1.900453E+0	1.827297E+0	1.906511E+0	1.882128E+0	1.541216E+0	1.970926E+0	2.036445E+0	1.807609E+0	1.875881E+0	1.950760E+0	2.198830E+0	1.926534E+0	1.931154E+0	1.873513E+0	2.019051E+0	1.907653E+0	1.900265E+0	1.874296E+0	2.004749E+0	1.877155E+0	1.971335E+0	2.000763E+0	2.074052E+0	1.890978E+0	1.861001E+0	2.001860E+0	2.162982E+0	1.857727E+0	1.821926E+0	1.930690E+0	2.052552E+0	1.906663E+0	1.901049E+0	1.997094E+0	1.996204E+0	1.822465E+0	1.982391E+0	1.954878E+0	2.130590E+0	1.846315E+0	1.947136E+0	1.918059E+0	2.157305E+0	1.857921E+0	1.714355E+0	1.861384E+0	1.924567E+0	1.964130E+0	1.843843E+0	1.899104E+0	1.866448E+0	2.006868E+0	1.993962E+0	1.921081E+0	2.101165E+0	1.869043E+0	1.891543E+0	1.877462E+0	2.139177E+0	1.909050E+0	1.880140E+0	1.873306E+0	1.933620E+0	1.914870E+0	1.897358E+0	1.877943E+0	1.958794E+0	1.927315E+0	1.918606E+0	1.996388E+0	2.046190E+0	1.808311E+0	1.952894E+0	2.042387E+0	2.101016E+0	1.828887E+0	1.965364E+0	2.010474E+0	1.989303E+0	1.888426E+0	1.967876E+0	1.914983E+0	1.998061E+0	1.882487E+0	2.020598E+0	2.115243E+0	2.019409E+0	1.934224E+0	1.915767E+0	2.106857E+0	2.037476E+0	1.945988E+0	1.757395E+0	2.004915E+0	2.002933E+0	1.934717E+0	1.847609E+0	1.869321E+0	1.858867E+0	1.864102E+0	1.869339E+0	2.006944E+0	2.116163E+0	1.819953E+0	1.858760E+0	1.922552E+0	2.080498E+0	1.836995E+0	1.702236E+0	1.828364E+0	1.876091E+0
5.395160E+2	1.755085E+0	2.200084E+0	2.383157E+0	2.316258E+0	1.972539E+0	1.995834E+0	2.300930E+0	2.392970E+0	2.026403E+0	2.007046E+0	2.175858E+0	2.171563E+0	2.053667E+0	2.031233E+0	2.147306E+0	2.054847E+0	2.093475E+0	2.025155E+0	2.268336E+0	2.056157E+0	2.055816E+0	1.958356E+0	2.299256E+0	2.278933E+0	1.821572E+0	1.896473E+0	2.183121E+0	2.197376E+0	2.129000E+0	2.008544E+0	2.051578E+0	2.050058E+0	2.157311E+0	2.104973E+0	2.271386E+0	2.092611E+0	1.972257E+0	2.026476E+0	2.284851E+0	2.353586E+0	1.668987E+0	1.926907E+0	2.231653E+0	2.221509E+0	1.885555E+0	2.007352E+0	2.077569E+0	2.020634E+0	2.171501E+0	2.138458E+0	2.247215E+0	2.109270E+0	2.215908E+0	2.011251E+0	2.324690E+0	2.191001E+0	2.069150E+0	1.876593E+0	2.210110E+0	2.102248E+0	2.020762E+0	1.889991E+0	2.055437E+0	1.961170E+0	1.604159E+0	2.064240E+0	2.148744E+0	1.939028E+0	1.951322E+0	2.012045E+0	2.291045E+0	2.070451E+0	2.032837E+0	1.930768E+0	2.083508E+0	2.027585E+0	2.053474E+0	2.005819E+0	2.076821E+0	1.925955E+0	2.041993E+0	2.083191E+0	2.156009E+0	1.926678E+0	1.931309E+0	2.193892E+0	2.285789E+0	1.961461E+0	1.878689E+0	2.093731E+0	2.194424E+0	2.005479E+0	1.943618E+0	2.031704E+0	2.103919E+0	1.957828E+0	2.102524E+0	2.070991E+0	2.255667E+0	1.953832E+0	2.009387E+0	1.983396E+0	2.354001E+0	1.911956E+0	1.815700E+0	1.984644E+0	2.076952E+0	2.050592E+0	1.887361E+0	2.065394E+0	2.034130E+0	2.059241E+0	2.070934E+0	2.040160E+0	2.197882E+0	1.982163E+0	1.929247E+0	1.996653E+0	2.238936E+0	1.987145E+0	1.874541E+0	1.958970E+0	2.058696E+0	1.998050E+0	2.024074E+0	1.948012E+0	1.980185E+0	2.011448E+0	2.065585E+0	2.173121E+0	2.127102E+0	2.031983E+0	2.011480E+0	2.165096E+0	2.241456E+0	1.977642E+0	2.038684E+0	2.052050E+0	2.080888E+0	2.004178E+0	2.035488E+0	2.056488E+0	1.970988E+0	1.923057E+0	2.113203E+0	2.193844E+0	2.064378E+0	1.970027E+0	2.009716E+0	2.227018E+0	2.272335E+0	2.110788E+0	1.862869E+0	2.084785E+0	2.143026E+0	2.007309E+0	1.956217E+0	2.036610E+0	1.971297E+0	1.946281E+0	1.946803E+0	2.115824E+0	2.171858E+0	1.890423E+0	2.005807E+0	2.059381E+0	2.177827E+0	1.949670E+0	1.775961E+0	1.968740E+0	1.942216E+0
5.397810E+2	1.737032E+0	2.215746E+0	2.315134E+0	2.379011E+0	1.984037E+0	2.063710E+0	2.325103E+0	2.476539E+0	2.107103E+0	2.039804E+0	2.204179E+0	2.212114E+0	2.156116E+0	2.032702E+0	2.229454E+0	2.069494E+0	2.125074E+0	2.037998E+0	2.297793E+0	2.076484E+0	2.110628E+0	1.938686E+0	2.336394E+0	2.299788E+0	1.838777E+0	1.991607E+0	2.167151E+0	2.188788E+0	2.084523E+0	2.014478E+0	2.025556E+0	2.072023E+0	2.165984E+0	2.199001E+0	2.253933E+0	2.129925E+0	2.035002E+0	1.946751E+0	2.327688E+0	2.380920E+0	1.703563E+0	2.006580E+0	2.240115E+0	2.247399E+0	1.954065E+0	2.052368E+0	2.159765E+0	2.049538E+0	2.149869E+0	2.195152E+0	2.228401E+0	2.177825E+0	2.216419E+0	2.001707E+0	2.262688E+0	2.301789E+0	2.115000E+0	1.901311E+0	2.123494E+0	2.136524E+0	2.052562E+0	1.946213E+0	2.063500E+0	1.972072E+0	1.667103E+0	2.111185E+0	2.210719E+0	2.103014E+0	1.977460E+0	1.992636E+0	2.244089E+0	2.319997E+0	2.071670E+0	2.014094E+0	2.202729E+0	2.136231E+0	1.951514E+0	2.132553E+0	2.103263E+0	1.972292E+0	2.102645E+0	2.177077E+0	2.145267E+0	2.026971E+0	1.946990E+0	2.154058E+0	2.296066E+0	2.186551E+0	1.903155E+0	2.069775E+0	2.112704E+0	2.106010E+0	1.962483E+0	2.006252E+0	2.142308E+0	1.992734E+0	2.147505E+0	2.126390E+0	2.293127E+0	2.017139E+0	1.988809E+0	2.010240E+0	2.254791E+0	2.029847E+0	1.833370E+0	1.948292E+0	2.045229E+0	2.006442E+0	1.905937E+0	2.086575E+0	2.028908E+0	2.053142E+0	2.112057E+0	2.081444E+0	2.194916E+0	2.034558E+0	1.949545E+0	2.011826E+0	2.275694E+0	1.986087E+0	1.982951E+0	1.997494E+0	2.066619E+0	2.032658E+0	2.021490E+0	1.943308E+0	1.986442E+0	2.059094E+0	2.008173E+0	2.184354E+0	2.238781E+0	1.956848E+0	1.972583E+0	2.157906E+0	2.244314E+0	1.979719E+0	2.003168E+0	2.124237E+0	2.083149E+0	2.012864E+0	2.047642E+0	1.992069E+0	2.052214E+0	1.894898E+0	2.137357E+0	2.210028E+0	2.108750E+0	2.006408E+0	2.025134E+0	2.185319E+0	2.235410E+0	2.022052E+0	1.819054E+0	2.125840E+0	2.089686E+0	2.004284E+0	1.926170E+0	1.998467E+0	2.026192E+0	2.007422E+0	1.986666E+0	2.114131E+0	2.193453E+0	1.832086E+0	2.002462E+0	2.089442E+0	2.302968E+0	1.949672E+0	1.786014E+0	2.089976E+0	2.069906E+0
5.400240E+2	1.727779E+0	2.161957E+0	2.262663E+0	2.407230E+0	1.934905E+0	1.972392E+0	2.274337E+0	2.449013E+0	2.000060E+0	1.936847E+0	2.148116E+0	2.143490E+0	1.999881E+0	1.979391E+0	2.126897E+0	2.022527E+0	2.144478E+0	2.082104E+0	2.240688E+0	2.126727E+0	2.147532E+0	1.965673E+0	2.257053E+0	2.279928E+0	1.758476E+0	1.880539E+0	2.162361E+0	2.149611E+0	2.137275E+0	1.900695E+0	1.987071E+0	2.056815E+0	2.036382E+0	2.140297E+0	2.224311E+0	2.061602E+0	1.976180E+0	1.942887E+0	2.336365E+0	2.271593E+0	1.619803E+0	1.949900E+0	2.157311E+0	2.183244E+0	1.909506E+0	1.903428E+0	2.094443E+0	2.034178E+0	2.129784E+0	2.157176E+0	2.171362E+0	2.177825E+0	2.195608E+0	1.953990E+0	2.296951E+0	2.269121E+0	2.057556E+0	1.881327E+0	2.173865E+0	2.121098E+0	2.060514E+0	1.935764E+0	2.002210E+0	1.994786E+0	1.632768E+0	2.032546E+0	2.135858E+0	2.111011E+0	1.924696E+0	1.987019E+0	2.290477E+0	2.322421E+0	1.990939E+0	1.935868E+0	2.085221E+0	2.127327E+0	1.939109E+0	2.020195E+0	2.075784E+0	1.968351E+0	2.041406E+0	2.087558E+0	2.093833E+0	2.059521E+0	1.908548E+0	2.084087E+0	2.230068E+0	2.255054E+0	1.895323E+0	2.045291E+0	2.175695E+0	2.102581E+0	1.915561E+0	1.992002E+0	2.061791E+0	1.964905E+0	2.067020E+0	2.027374E+0	2.195846E+0	2.077175E+0	2.024819E+0	2.035058E+0	2.362600E+0	2.288550E+0	1.796469E+0	1.956242E+0	2.041261E+0	2.207567E+0	1.846495E+0	1.975367E+0	2.050375E+0	2.082631E+0	2.064084E+0	2.094675E+0	2.169401E+0	2.066708E+0	1.901212E+0	2.016159E+0	2.248855E+0	2.239368E+0	1.877084E+0	1.935148E+0	2.075108E+0	2.075163E+0	1.962009E+0	1.945920E+0	2.026614E+0	2.004354E+0	2.020806E+0	2.085641E+0	2.150461E+0	2.012908E+0	1.969703E+0	2.163553E+0	2.189505E+0	1.997338E+0	1.987131E+0	2.007006E+0	2.031702E+0	2.011704E+0	1.980554E+0	1.974446E+0	1.958530E+0	1.895375E+0	2.110903E+0	2.084032E+0	2.024141E+0	1.925562E+0	2.013089E+0	2.173795E+0	2.208168E+0	2.034197E+0	1.801205E+0	2.026849E+0	2.093996E+0	2.008521E+0	1.944093E+0	1.993019E+0	2.027248E+0	1.875353E+0	1.939966E+0	2.052072E+0	2.105365E+0	1.850566E+0	1.932287E+0	1.984744E+0	2.246087E+0	1.984684E+0	1.824551E+0	2.009577E+0	2.042545E+0
5.402850E+2	1.695849E+0	2.024595E+0	2.208891E+0	2.137771E+0	1.790110E+0	1.870825E+0	2.118396E+0	2.261223E+0	1.911511E+0	1.887970E+0	1.981080E+0	2.039509E+0	2.008081E+0	1.836084E+0	2.035563E+0	1.899292E+0	1.957099E+0	1.888372E+0	2.086205E+0	2.009863E+0	2.040619E+0	1.880603E+0	2.167031E+0	2.214896E+0	1.706854E+0	1.776717E+0	2.001096E+0	2.033689E+0	1.925236E+0	1.813331E+0	1.912795E+0	1.903926E+0	1.992499E+0	2.006787E+0	2.028606E+0	1.961747E+0	1.836960E+0	1.853500E+0	2.125420E+0	2.231917E+0	1.533609E+0	1.791086E+0	2.159729E+0	2.047608E+0	1.821500E+0	1.778947E+0	1.984484E+0	1.853069E+0	1.972695E+0	2.091123E+0	2.034221E+0	1.969465E+0	1.973797E+0	1.860067E+0	2.199058E+0	2.109091E+0	1.943719E+0	1.771927E+0	2.012311E+0	1.991425E+0	1.880314E+0	1.800923E+0	1.882316E+0	1.803090E+0	1.520234E+0	1.888770E+0	2.010060E+0	1.919027E+0	1.831505E+0	1.885898E+0	2.156963E+0	2.140713E+0	1.944439E+0	1.855944E+0	1.967142E+0	2.034709E+0	1.850096E+0	1.909972E+0	1.933715E+0	1.823426E+0	1.884773E+0	1.955456E+0	1.998876E+0	1.841619E+0	1.874660E+0	1.957939E+0	2.125112E+0	2.122940E+0	1.749991E+0	1.907769E+0	1.998075E+0	1.996341E+0	1.871541E+0	1.866294E+0	1.965811E+0	1.812089E+0	1.954575E+0	1.881210E+0	2.116085E+0	1.930367E+0	1.837556E+0	1.872481E+0	2.134937E+0	2.138461E+0	1.647836E+0	1.816509E+0	1.944959E+0	1.983753E+0	1.754149E+0	1.831847E+0	1.903005E+0	1.922968E+0	1.939657E+0	1.887739E+0	2.021651E+0	1.987524E+0	1.854806E+0	1.878001E+0	2.119926E+0	2.096899E+0	1.768673E+0	1.885979E+0	1.924567E+0	2.015051E+0	1.819258E+0	1.829314E+0	1.899328E+0	1.878659E+0	1.878993E+0	2.005251E+0	2.006299E+0	1.991525E+0	1.802109E+0	2.017739E+0	2.128988E+0	2.068865E+0	1.876572E+0	1.868412E+0	1.910151E+0	2.017494E+0	1.854830E+0	1.908374E+0	1.785249E+0	1.853374E+0	1.992991E+0	1.976533E+0	1.920597E+0	1.908235E+0	1.910467E+0	2.099173E+0	2.161560E+0	2.031029E+0	1.717364E+0	1.891863E+0	1.961440E+0	2.000656E+0	1.775376E+0	1.898749E+0	1.895285E+0	1.800513E+0	1.874466E+0	2.015404E+0	1.958739E+0	1.870782E+0	1.779510E+0	1.938099E+0	2.044467E+0	1.914659E+0	1.664537E+0	1.902381E+0	1.771201E+0
5.405130E+2	1.522774E+0	1.914918E+0	2.056654E+0	2.028373E+0	1.711185E+0	1.747770E+0	2.061577E+0	2.065567E+0	1.798306E+0	1.790207E+0	1.884558E+0	1.844546E+0	1.799088E+0	1.736798E+0	1.876367E+0	1.757092E+0	1.869508E+0	1.815797E+0	1.959370E+0	1.837110E+0	1.857184E+0	1.742944E+0	2.003856E+0	2.000929E+0	1.578576E+0	1.724565E+0	1.863790E+0	1.894690E+0	1.807315E+0	1.663955E+0	1.802206E+0	1.777221E+0	1.853197E+0	1.848861E+0	1.965662E+0	1.808291E+0	1.742836E+0	1.745268E+0	2.051125E+0	2.031781E+0	1.474687E+0	1.625857E+0	1.911318E+0	2.003711E+0	1.702859E+0	1.782283E+0	1.868541E+0	1.823261E+0	1.894408E+0	1.911685E+0	1.903754E+0	1.819401E+0	1.930147E+0	1.739015E+0	1.938012E+0	1.999725E+0	1.836734E+0	1.649381E+0	1.885159E+0	1.911453E+0	1.703827E+0	1.660111E+0	1.773178E+0	1.750392E+0	1.430113E+0	1.795454E+0	1.927219E+0	1.729900E+0	1.670267E+0	1.684174E+0	2.043813E+0	2.009396E+0	1.764578E+0	1.727835E+0	1.818259E+0	1.817409E+0	1.796684E+0	1.708688E+0	1.837793E+0	1.744555E+0	1.779368E+0	1.819538E+0	1.901094E+0	1.791737E+0	1.722407E+0	1.862944E+0	2.061270E+0	2.013820E+0	1.626193E+0	1.790567E+0	1.800592E+0	1.835263E+0	1.686267E+0	1.820483E+0	1.769579E+0	1.757846E+0	1.783545E+0	1.838179E+0	1.932400E+0	1.795014E+0	1.743920E+0	1.815252E+0	1.976092E+0	2.024933E+0	1.581313E+0	1.804579E+0	1.818637E+0	1.978234E+0	1.648537E+0	1.830791E+0	1.767813E+0	1.862456E+0	1.775696E+0	1.819993E+0	1.925526E+0	1.816654E+0	1.743148E+0	1.762060E+0	1.989827E+0	1.984505E+0	1.646517E+0	1.704007E+0	1.768364E+0	1.787973E+0	1.743228E+0	1.715846E+0	1.829942E+0	1.770201E+0	1.764168E+0	1.923089E+0	1.881510E+0	1.848190E+0	1.764175E+0	1.847282E+0	1.934883E+0	1.924774E+0	1.731642E+0	1.800843E+0	1.846832E+0	1.861221E+0	1.767669E+0	1.786689E+0	1.678574E+0	1.719260E+0	1.857254E+0	1.900829E+0	1.769128E+0	1.810069E+0	1.773158E+0	1.983953E+0	1.961212E+0	1.943878E+0	1.671927E+0	1.783310E+0	1.894090E+0	1.816146E+0	1.643569E+0	1.678601E+0	1.748017E+0	1.745239E+0	1.706448E+0	1.836007E+0	1.879175E+0	1.811868E+0	1.749912E+0	1.748407E+0	2.006548E+0	1.930570E+0	1.608407E+0	1.810498E+0	1.695957E+0
5.407680E+2	1.452432E+0	1.824565E+0	2.030743E+0	2.016286E+0	1.603501E+0	1.667200E+0	1.856070E+0	1.985928E+0	1.672207E+0	1.674774E+0	1.771853E+0	1.793076E+0	1.762723E+0	1.663434E+0	1.747784E+0	1.682547E+0	1.753092E+0	1.728143E+0	1.847563E+0	1.703873E+0	1.730189E+0	1.618545E+0	1.930708E+0	1.866896E+0	1.463335E+0	1.575828E+0	1.752022E+0	1.764281E+0	1.731806E+0	1.682293E+0	1.674808E+0	1.708798E+0	1.781765E+0	1.794312E+0	1.859344E+0	1.762041E+0	1.697737E+0	1.667480E+0	1.915554E+0	1.940090E+0	1.428913E+0	1.633879E+0	1.833951E+0	1.792663E+0	1.618755E+0	1.641126E+0	1.753681E+0	1.634466E+0	1.764101E+0	1.776830E+0	1.852173E+0	1.737898E+0	1.792089E+0	1.617465E+0	1.969011E+0	1.839224E+0	1.701290E+0	1.530513E+0	1.751863E+0	1.812627E+0	1.624329E+0	1.645683E+0	1.746835E+0	1.669991E+0	1.382905E+0	1.717407E+0	1.800808E+0	1.744189E+0	1.592852E+0	1.664254E+0	1.936320E+0	1.913935E+0	1.688955E+0	1.645077E+0	1.783463E+0	1.758037E+0	1.624592E+0	1.661298E+0	1.765718E+0	1.674557E+0	1.708119E+0	1.707631E+0	1.781831E+0	1.704577E+0	1.627318E+0	1.713304E+0	1.914658E+0	1.887084E+0	1.601232E+0	1.700971E+0	1.757463E+0	1.799278E+0	1.661112E+0	1.653550E+0	1.705057E+0	1.649839E+0	1.716082E+0	1.718533E+0	1.884062E+0	1.727883E+0	1.655434E+0	1.681543E+0	1.876306E+0	1.884667E+0	1.542856E+0	1.674500E+0	1.745559E+0	1.853761E+0	1.595464E+0	1.732819E+0	1.708634E+0	1.718556E+0	1.726143E+0	1.676564E+0	1.819903E+0	1.861304E+0	1.664842E+0	1.690001E+0	1.881900E+0	1.906936E+0	1.593586E+0	1.585396E+0	1.733280E+0	1.760043E+0	1.686336E+0	1.649961E+0	1.750645E+0	1.696712E+0	1.729719E+0	1.748128E+0	1.834783E+0	1.734333E+0	1.637399E+0	1.763589E+0	1.815565E+0	1.847549E+0	1.716749E+0	1.704406E+0	1.778428E+0	1.754724E+0	1.705862E+0	1.669412E+0	1.673158E+0	1.616169E+0	1.784783E+0	1.778878E+0	1.715279E+0	1.677826E+0	1.704263E+0	1.870927E+0	1.883733E+0	1.874158E+0	1.511819E+0	1.695567E+0	1.780398E+0	1.811912E+0	1.609304E+0	1.649176E+0	1.623972E+0	1.616106E+0	1.642653E+0	1.750253E+0	1.781994E+0	1.717140E+0	1.600007E+0	1.669111E+0	1.889618E+0	1.870095E+0	1.522116E+0	1.762005E+0	1.711920E+0
5.410290E+2	1.417724E+0	1.757188E+0	1.818907E+0	1.847010E+0	1.505233E+0	1.597859E+0	1.867555E+0	1.914153E+0	1.711995E+0	1.650331E+0	1.684580E+0	1.775398E+0	1.679222E+0	1.535288E+0	1.708497E+0	1.608002E+0	1.727035E+0	1.584105E+0	1.804281E+0	1.675648E+0	1.681344E+0	1.587443E+0	1.866566E+0	1.788953E+0	1.413800E+0	1.498084E+0	1.698265E+0	1.689685E+0	1.656300E+0	1.536153E+0	1.672642E+0	1.635309E+0	1.659814E+0	1.651971E+0	1.718120E+0	1.686891E+0	1.615872E+0	1.578573E+0	1.860242E+0	1.823712E+0	1.566723E+0	1.576665E+0	1.752961E+0	1.757772E+0	1.602043E+0	1.561102E+0	1.663865E+0	1.587044E+0	1.706930E+0	1.704726E+0	1.737487E+0	1.738433E+0	1.714939E+0	1.538608E+0	1.837404E+0	1.800398E+0	1.682844E+0	1.478971E+0	1.718081E+0	1.701237E+0	1.618498E+0	1.511335E+0	1.607048E+0	1.625472E+0	1.254633E+0	1.649914E+0	1.736991E+0	1.593342E+0	1.554390E+0	1.573859E+0	1.801669E+0	1.839315E+0	1.641436E+0	1.500528E+0	1.671088E+0	1.781192E+0	1.641856E+0	1.584619E+0	1.679645E+0	1.553295E+0	1.602720E+0	1.677062E+0	1.732653E+0	1.644722E+0	1.553976E+0	1.696453E+0	1.769670E+0	1.811731E+0	1.489177E+0	1.608250E+0	1.692769E+0	1.717600E+0	1.579844E+0	1.648459E+0	1.676261E+0	1.579560E+0	1.661043E+0	1.636606E+0	1.787990E+0	1.632370E+0	1.569519E+0	1.622284E+0	1.822975E+0	1.782058E+0	1.485168E+0	1.570553E+0	1.631128E+0	1.755034E+0	1.493035E+0	1.600421E+0	1.630882E+0	1.683977E+0	1.649169E+0	1.622052E+0	1.755821E+0	1.791643E+0	1.545452E+0	1.640155E+0	1.759969E+0	1.776079E+0	1.604270E+0	1.527611E+0	1.628011E+0	1.683536E+0	1.629961E+0	1.527604E+0	1.650483E+0	1.615621E+0	1.606280E+0	1.686063E+0	1.725378E+0	1.673068E+0	1.557681E+0	1.725595E+0	1.770463E+0	1.785350E+0	1.558646E+0	1.607962E+0	1.629739E+0	1.732154E+0	1.606549E+0	1.552135E+0	1.583267E+0	1.606143E+0	1.668600E+0	1.695079E+0	1.646058E+0	1.631049E+0	1.613206E+0	1.737599E+0	1.771145E+0	1.812888E+0	1.457731E+0	1.653944E+0	1.727595E+0	1.735083E+0	1.573977E+0	1.591413E+0	1.631891E+0	1.539798E+0	1.568613E+0	1.688199E+0	1.744486E+0	1.649556E+0	1.597143E+0	1.625056E+0	1.778384E+0	1.735137E+0	1.418233E+0	1.603762E+0	1.561428E+0
5.412790E+2	1.293240E+0	1.658478E+0	1.782629E+0	1.776189E+0	1.422121E+0	1.464062E+0	1.693480E+0	1.762250E+0	1.620650E+0	1.450656E+0	1.604817E+0	1.575239E+0	1.689470E+0	1.515238E+0	1.631450E+0	1.530007E+0	1.677136E+0	1.544465E+0	1.630561E+0	1.558220E+0	1.594508E+0	1.484996E+0	1.788921E+0	1.683706E+0	1.358524E+0	1.396674E+0	1.583310E+0	1.653728E+0	1.674919E+0	1.462269E+0	1.553374E+0	1.480308E+0	1.627158E+0	1.613525E+0	1.595935E+0	1.545517E+0	1.514887E+0	1.484837E+0	1.704062E+0	1.714387E+0	1.602757E+0	1.411436E+0	1.662302E+0	1.660407E+0	1.617082E+0	1.504420E+0	1.522333E+0	1.509811E+0	1.656968E+0	1.613355E+0	1.643431E+0	1.587292E+0	1.603781E+0	1.407514E+0	1.761809E+0	1.707133E+0	1.594306E+0	1.437420E+0	1.620410E+0	1.588125E+0	1.570267E+0	1.421276E+0	1.520491E+0	1.473745E+0	1.250343E+0	1.538997E+0	1.533871E+0	1.522492E+0	1.438021E+0	1.476827E+0	1.763763E+0	1.706056E+0	1.486610E+0	1.525468E+0	1.630013E+0	1.614360E+0	1.499434E+0	1.479187E+0	1.516836E+0	1.443861E+0	1.512621E+0	1.605553E+0	1.637699E+0	1.591690E+0	1.435616E+0	1.581539E+0	1.704208E+0	1.632640E+0	1.390818E+0	1.490000E+0	1.558846E+0	1.636495E+0	1.446816E+0	1.497303E+0	1.553621E+0	1.477211E+0	1.597721E+0	1.575903E+0	1.649615E+0	1.626913E+0	1.517043E+0	1.537194E+0	1.676172E+0	1.719294E+0	1.334457E+0	1.469443E+0	1.559752E+0	1.659379E+0	1.420326E+0	1.486566E+0	1.496274E+0	1.559399E+0	1.561126E+0	1.572833E+0	1.629432E+0	1.655901E+0	1.478748E+0	1.526382E+0	1.724966E+0	1.681622E+0	1.456159E+0	1.443973E+0	1.545948E+0	1.641035E+0	1.511002E+0	1.454396E+0	1.536754E+0	1.515268E+0	1.537960E+0	1.598577E+0	1.673526E+0	1.595623E+0	1.493814E+0	1.572593E+0	1.714518E+0	1.659401E+0	1.540315E+0	1.497087E+0	1.528541E+0	1.595562E+0	1.550028E+0	1.505883E+0	1.495000E+0	1.440049E+0	1.563344E+0	1.584111E+0	1.541917E+0	1.577345E+0	1.542383E+0	1.671755E+0	1.680353E+0	1.690345E+0	1.399310E+0	1.574639E+0	1.567561E+0	1.568115E+0	1.441114E+0	1.466629E+0	1.457704E+0	1.503604E+0	1.492859E+0	1.595115E+0	1.691632E+0	1.568691E+0	1.479220E+0	1.544201E+0	1.667776E+0	1.726862E+0	1.340321E+0	1.580791E+0	1.506703E+0
5.415140E+2	1.140065E+0	1.476726E+0	1.557193E+0	1.498673E+0	1.308169E+0	1.307311E+0	1.498252E+0	1.581833E+0	1.468770E+0	1.351861E+0	1.463214E+0	1.490495E+0	1.530674E+0	1.338674E+0	1.493176E+0	1.324898E+0	1.498629E+0	1.380323E+0	1.527774E+0	1.366271E+0	1.418668E+0	1.331324E+0	1.517152E+0	1.524846E+0	1.255800E+0	1.268225E+0	1.468353E+0	1.390756E+0	1.449428E+0	1.277303E+0	1.404838E+0	1.404706E+0	1.413360E+0	1.448326E+0	1.527172E+0	1.403621E+0	1.347724E+0	1.314760E+0	1.489320E+0	1.580817E+0	1.462511E+0	1.284707E+0	1.448944E+0	1.453861E+0	1.497332E+0	1.296576E+0	1.442314E+0	1.388772E+0	1.529239E+0	1.425110E+0	1.456528E+0	1.389191E+0	1.447957E+0	1.272900E+0	1.505655E+0	1.484136E+0	1.489952E+0	1.298043E+0	1.450258E+0	1.445889E+0	1.523630E+0	1.308828E+0	1.398445E+0	1.330654E+0	1.150205E+0	1.370570E+0	1.469438E+0	1.380221E+0	1.320669E+0	1.302167E+0	1.531241E+0	1.579586E+0	1.415589E+0	1.359949E+0	1.440059E+0	1.436841E+0	1.473001E+0	1.357774E+0	1.385651E+0	1.310771E+0	1.397207E+0	1.405218E+0	1.463044E+0	1.428920E+0	1.295505E+0	1.411468E+0	1.452644E+0	1.561195E+0	1.283166E+0	1.373837E+0	1.411296E+0	1.405735E+0	1.361678E+0	1.377698E+0	1.408045E+0	1.279588E+0	1.417811E+0	1.346629E+0	1.508228E+0	1.450630E+0	1.361671E+0	1.426789E+0	1.516176E+0	1.523898E+0	1.193617E+0	1.247344E+0	1.390937E+0	1.480329E+0	1.318960E+0	1.345165E+0	1.401120E+0	1.428711E+0	1.379236E+0	1.411409E+0	1.458545E+0	1.502894E+0	1.325520E+0	1.341629E+0	1.580868E+0	1.491138E+0	1.294303E+0	1.311172E+0	1.356355E+0	1.453421E+0	1.363599E+0	1.333609E+0	1.381813E+0	1.398699E+0	1.384667E+0	1.408248E+0	1.467250E+0	1.496792E+0	1.355516E+0	1.427293E+0	1.504996E+0	1.525162E+0	1.371327E+0	1.366577E+0	1.424514E+0	1.458392E+0	1.393136E+0	1.347308E+0	1.285978E+0	1.351277E+0	1.440257E+0	1.395701E+0	1.370921E+0	1.408724E+0	1.360268E+0	1.589458E+0	1.563532E+0	1.509705E+0	1.271114E+0	1.371030E+0	1.418845E+0	1.444103E+0	1.320907E+0	1.330946E+0	1.344215E+0	1.252180E+0	1.384075E+0	1.424742E+0	1.533643E+0	1.350930E+0	1.313080E+0	1.372130E+0	1.514826E+0	1.524422E+0	1.291730E+0	1.368949E+0	1.285527E+0
5.417760E+2	9.905901E-1	1.301240E+0	1.334344E+0	1.334005E+0	1.126265E+0	1.208672E+0	1.297580E+0	1.357662E+0	1.274299E+0	1.167782E+0	1.279996E+0	1.251863E+0	1.328858E+0	1.187052E+0	1.221217E+0	1.192181E+0	1.269673E+0	1.265872E+0	1.256675E+0	1.197469E+0	1.235779E+0	1.149298E+0	1.323032E+0	1.329744E+0	1.063906E+0	1.136875E+0	1.291122E+0	1.229217E+0	1.306170E+0	1.111209E+0	1.217808E+0	1.186352E+0	1.244978E+0	1.214034E+0	1.272225E+0	1.233867E+0	1.159484E+0	1.136467E+0	1.368389E+0	1.289429E+0	1.269673E+0	1.126966E+0	1.261576E+0	1.262512E+0	1.325221E+0	1.144861E+0	1.172318E+0	1.179658E+0	1.322191E+0	1.290805E+0	1.296329E+0	1.212137E+0	1.287564E+0	1.090075E+0	1.321291E+0	1.311324E+0	1.344496E+0	1.088711E+0	1.216223E+0	1.207679E+0	1.336545E+0	1.086413E+0	1.130705E+0	1.142587E+0	9.942792E-1	1.171037E+0	1.227663E+0	1.219092E+0	1.160417E+0	1.147934E+0	1.302111E+0	1.384794E+0	1.242371E+0	1.187628E+0	1.221582E+0	1.228446E+0	1.305224E+0	1.132530E+0	1.235284E+0	1.173733E+0	1.204068E+0	1.239818E+0	1.235823E+0	1.176363E+0	1.157924E+0	1.224035E+0	1.325504E+0	1.327791E+0	1.179423E+0	1.195168E+0	1.292695E+0	1.319485E+0	1.299758E+0	1.182769E+0	1.279534E+0	1.145640E+0	1.314838E+0	1.174526E+0	1.268347E+0	1.286897E+0	1.192927E+0	1.188238E+0	1.333816E+0	1.350338E+0	1.160357E+0	1.131467E+0	1.186437E+0	1.303733E+0	1.310472E+0	1.202182E+0	1.196305E+0	1.231928E+0	1.236364E+0	1.240458E+0	1.325629E+0	1.276053E+0	1.153925E+0	1.217018E+0	1.315424E+0	1.370830E+0	1.157896E+0	1.135790E+0	1.209210E+0	1.292521E+0	1.261191E+0	1.170466E+0	1.208094E+0	1.204081E+0	1.243431E+0	1.239196E+0	1.282630E+0	1.262716E+0	1.200887E+0	1.217810E+0	1.349709E+0	1.286222E+0	1.226398E+0	1.210655E+0	1.258868E+0	1.244244E+0	1.246810E+0	1.172768E+0	1.118651E+0	1.154638E+0	1.253328E+0	1.270285E+0	1.206432E+0	1.230863E+0	1.251867E+0	1.310731E+0	1.334728E+0	1.372374E+0	1.109384E+0	1.215232E+0	1.292761E+0	1.216034E+0	1.146394E+0	1.194717E+0	1.130965E+0	1.164135E+0	1.159097E+0	1.251549E+0	1.335306E+0	1.190933E+0	1.181313E+0	1.257590E+0	1.325215E+0	1.358266E+0	1.129202E+0	1.273238E+0	1.214842E+0
5.420160E+2	8.633295E-1	1.091283E+0	1.139352E+0	1.163005E+0	9.788592E-1	1.018231E+0	1.143451E+0	1.191505E+0	1.117379E+0	1.018026E+0	1.101402E+0	1.088095E+0	1.129084E+0	9.875008E-1	1.078859E+0	1.039212E+0	1.115557E+0	9.576934E-1	1.132845E+0	1.063105E+0	1.061568E+0	9.727624E-1	1.196996E+0	1.169397E+0	9.158148E-1	9.330916E-1	1.070784E+0	1.082171E+0	1.125674E+0	9.920309E-1	1.017227E+0	1.043174E+0	1.089861E+0	1.100783E+0	1.105082E+0	1.088818E+0	1.024184E+0	1.051914E+0	1.141173E+0	1.129848E+0	1.085111E+0	9.970294E-1	1.057889E+0	1.126316E+0	1.208809E+0	1.012041E+0	1.091209E+0	1.053647E+0	1.121322E+0	1.149898E+0	1.144625E+0	1.072871E+0	1.100782E+0	1.021765E+0	1.185875E+0	1.154609E+0	1.172160E+0	9.419693E-1	1.099512E+0	1.030022E+0	1.172777E+0	9.804285E-1	1.082855E+0	1.008581E+0	8.826971E-1	1.036059E+0	1.121502E+0	1.076247E+0	1.014463E+0	1.022301E+0	1.201409E+0	1.225373E+0	1.103386E+0	9.795929E-1	1.086960E+0	1.120985E+0	1.161722E+0	1.038280E+0	1.081290E+0	1.023880E+0	1.103375E+0	1.098986E+0	1.116562E+0	1.059274E+0	9.657173E-1	1.084611E+0	1.154006E+0	1.169739E+0	1.021858E+0	1.040978E+0	1.051514E+0	1.084155E+0	1.145929E+0	1.059604E+0	1.065173E+0	1.035271E+0	1.076342E+0	1.033661E+0	1.117289E+0	1.084959E+0	1.042186E+0	1.061115E+0	1.190452E+0	1.197516E+0	1.054338E+0	9.900277E-1	1.085603E+0	1.102606E+0	1.123659E+0	1.061843E+0	1.073300E+0	1.082433E+0	1.122487E+0	1.054690E+0	1.122695E+0	1.086726E+0	1.040817E+0	1.012762E+0	1.145071E+0	1.134966E+0	1.049994E+0	9.872717E-1	1.029240E+0	1.102477E+0	1.170163E+0	9.947708E-1	1.050025E+0	1.049500E+0	1.102769E+0	1.103244E+0	1.097439E+0	1.119959E+0	1.035215E+0	1.133094E+0	1.108789E+0	1.127619E+0	1.057411E+0	1.027591E+0	1.086436E+0	1.098971E+0	1.162292E+0	1.020250E+0	1.022804E+0	1.027205E+0	1.134844E+0	1.065115E+0	1.095196E+0	1.048956E+0	1.071679E+0	1.136254E+0	1.139823E+0	1.163739E+0	1.079633E+0	1.072931E+0	1.037359E+0	1.075687E+0	1.171174E+0	1.042685E+0	1.039120E+0	1.033533E+0	1.099293E+0	1.087944E+0	1.177881E+0	1.063858E+0	9.817528E-1	1.053902E+0	1.198809E+0	1.211847E+0	1.017779E+0	1.076710E+0	1.075752E+0
5.422670E+2	7.712384E-1	9.910052E-1	1.084935E+0	1.092762E+0	9.088154E-1	9.357055E-1	1.071524E+0	1.066147E+0	1.022106E+0	8.453905E-1	9.488172E-1	9.799548E-1	9.969268E-1	8.730518E-1	9.604847E-1	9.323477E-1	9.897128E-1	9.269867E-1	9.975962E-1	1.003827E+0	9.747337E-1	8.831204E-1	1.027071E+0	1.032876E+0	8.130892E-1	8.553443E-1	9.600837E-1	9.630292E-1	1.020170E+0	8.701574E-1	9.472946E-1	9.418101E-1	9.418882E-1	9.688304E-1	9.924187E-1	9.931678E-1	8.874144E-1	9.354689E-1	1.082065E+0	1.036834E+0	1.023753E+0	8.932938E-1	1.001074E+0	9.715471E-1	1.053409E+0	9.259028E-1	9.877822E-1	9.167958E-1	9.838044E-1	9.770657E-1	1.011732E+0	9.568170E-1	9.749033E-1	8.856481E-1	1.053176E+0	1.031036E+0	1.018798E+0	8.388822E-1	1.006757E+0	9.711838E-1	1.073669E+0	8.764365E-1	8.936083E-1	8.886546E-1	7.782689E-1	9.486175E-1	9.901817E-1	9.682569E-1	8.833032E-1	9.278209E-1	1.007920E+0	1.029127E+0	9.919952E-1	9.098709E-1	9.996832E-1	9.624647E-1	1.056525E+0	9.168720E-1	9.781074E-1	9.489537E-1	9.608747E-1	8.904623E-1	1.026126E+0	9.631874E-1	8.999621E-1	9.722512E-1	1.000361E+0	1.005328E+0	9.337760E-1	9.716976E-1	9.448282E-1	9.544959E-1	9.974203E-1	8.972485E-1	9.867876E-1	8.975462E-1	1.014203E+0	9.181402E-1	9.783141E-1	9.457869E-1	9.017367E-1	9.507031E-1	1.086656E+0	1.074167E+0	9.623498E-1	9.394732E-1	9.876002E-1	1.013694E+0	9.670954E-1	9.077359E-1	9.473943E-1	9.695473E-1	1.021264E+0	9.218467E-1	9.791003E-1	9.849176E-1	9.074083E-1	9.472054E-1	1.066896E+0	1.048955E+0	9.237657E-1	8.717023E-1	9.703821E-1	9.944005E-1	1.048618E+0	9.210426E-1	9.201244E-1	9.445873E-1	1.000000E+0	1.009852E+0	9.863242E-1	1.015926E+0	9.631840E-1	9.703347E-1	1.085382E+0	1.048318E+0	9.812240E-1	9.490529E-1	9.711036E-1	9.571703E-1	1.031813E+0	9.106794E-1	9.302054E-1	9.255448E-1	1.014060E+0	9.576170E-1	9.910591E-1	9.733078E-1	9.435242E-1	1.053404E+0	1.019369E+0	1.028523E+0	1.021757E+0	9.536916E-1	1.031432E+0	1.001277E+0	1.060983E+0	9.331573E-1	9.113805E-1	8.858120E-1	9.694340E-1	9.717299E-1	1.023869E+0	9.777934E-1	8.929534E-1	9.289944E-1	1.052177E+0	1.067339E+0	8.912765E-1	8.891162E-1	9.526225E-1
5.425300E+2	7.777170E-1	9.805591E-1	9.994243E-1	1.024246E+0	8.607254E-1	8.854091E-1	1.017730E+0	1.075488E+0	9.873592E-1	9.005090E-1	9.551749E-1	9.544798E-1	1.012294E+0	8.603350E-1	9.921193E-1	9.220068E-1	9.952574E-1	9.442939E-1	9.717483E-1	9.524518E-1	9.302317E-1	8.762606E-1	1.041137E+0	1.053228E+0	8.407260E-1	8.683827E-1	9.169742E-1	9.560521E-1	1.024307E+0	8.804034E-1	9.218151E-1	9.194241E-1	9.184163E-1	9.428557E-1	9.696744E-1	9.169636E-1	8.918266E-1	8.741064E-1	1.064170E+0	1.076066E+0	9.955102E-1	8.938282E-1	1.071186E+0	9.721101E-1	1.043940E+0	9.203457E-1	9.426014E-1	9.000847E-1	9.776239E-1	9.853219E-1	9.868525E-1	9.746301E-1	9.449565E-1	8.570188E-1	1.059159E+0	1.006418E+0	9.571360E-1	8.241553E-1	9.907864E-1	9.683276E-1	9.973498E-1	8.630022E-1	9.000598E-1	9.004656E-1	7.682551E-1	9.151656E-1	9.803635E-1	9.368313E-1	8.635802E-1	9.027959E-1	1.052050E+0	1.003445E+0	9.802422E-1	8.826620E-1	9.916969E-1	1.011742E+0	9.982619E-1	8.907799E-1	1.000922E+0	8.794492E-1	9.767730E-1	9.674298E-1	9.679079E-1	9.815643E-1	9.131130E-1	9.467151E-1	1.037690E+0	1.045451E+0	9.283935E-1	9.013744E-1	9.607176E-1	9.230802E-1	1.008063E+0	9.165884E-1	9.451948E-1	9.112240E-1	1.042018E+0	9.346433E-1	1.017590E+0	9.474237E-1	9.218008E-1	9.410803E-1	1.014400E+0	1.041420E+0	9.114199E-1	8.661978E-1	9.394490E-1	1.048032E+0	1.029189E+0	9.299781E-1	9.357899E-1	9.558179E-1	9.590537E-1	9.588947E-1	9.909679E-1	1.037905E+0	9.088582E-1	9.006109E-1	1.045893E+0	1.024155E+0	9.196941E-1	9.244181E-1	9.228428E-1	9.852928E-1	1.025343E+0	8.786881E-1	9.321234E-1	9.086030E-1	9.787569E-1	9.808879E-1	9.960109E-1	9.425244E-1	9.362928E-1	1.004222E+0	1.103079E+0	1.046763E+0	9.823698E-1	9.022768E-1	9.886299E-1	9.623794E-1	9.990608E-1	9.453682E-1	9.042130E-1	9.293630E-1	1.048569E+0	9.651304E-1	9.419495E-1	9.040111E-1	9.449696E-1	9.881122E-1	1.061740E+0	1.036974E+0	9.206066E-1	9.475042E-1	9.823982E-1	9.909934E-1	1.029350E+0	8.797552E-1	9.330222E-1	9.176063E-1	9.956333E-1	1.000502E+0	9.784046E-1	9.697073E-1	9.220760E-1	9.378061E-1	1.070507E+0	9.903099E-1	9.063566E-1	8.865650E-1	8.454548E-1
5.427650E+2	8.388025E-1	1.046889E+0	1.133522E+0	1.095641E+0	8.743163E-1	9.376590E-1	1.142242E+0	1.101543E+0	1.099446E+0	1.081465E+0	1.025688E+0	9.991910E-1	1.094763E+0	1.061355E+0	1.064064E+0	9.289003E-1	1.057347E+0	1.092801E+0	1.043280E+0	9.772923E-1	9.975274E-1	9.366306E-1	1.067020E+0	1.082519E+0	8.918283E-1	9.456465E-1	1.010112E+0	1.038700E+0	1.061027E+0	9.143763E-1	1.001506E+0	9.278719E-1	1.045979E+0	1.038443E+0	1.060122E+0	1.005781E+0	9.521223E-1	9.113104E-1	1.104841E+0	1.087529E+0	1.062223E+0	9.376751E-1	1.102011E+0	1.045836E+0	1.134730E+0	9.775862E-1	9.556655E-1	9.461532E-1	1.122868E+0	9.880742E-1	1.051782E+0	1.023751E+0	1.040887E+0	9.268349E-1	1.091245E+0	1.067495E+0	1.108391E+0	9.272428E-1	1.020271E+0	1.044874E+0	1.105996E+0	9.266913E-1	9.500598E-1	9.268128E-1	8.002032E-1	9.580071E-1	9.920229E-1	9.848268E-1	9.419808E-1	9.656126E-1	1.109190E+0	1.105689E+0	1.061488E+0	9.546519E-1	1.017367E+0	1.031929E+0	1.107235E+0	9.818363E-1	1.007144E+0	9.149405E-1	1.065689E+0	9.581501E-1	1.040821E+0	1.009918E+0	9.793739E-1	1.030984E+0	1.067445E+0	1.136956E+0	1.033603E+0	9.779483E-1	9.936313E-1	1.016184E+0	1.059823E+0	1.002092E+0	1.029979E+0	9.480133E-1	1.097056E+0	9.982972E-1	1.074388E+0	9.894483E-1	1.017492E+0	1.005402E+0	1.100992E+0	1.099273E+0	9.795004E-1	9.127764E-1	1.017057E+0	1.058457E+0	1.057318E+0	9.538087E-1	1.000774E+0	1.018871E+0	1.061859E+0	9.821813E-1	1.039031E+0	1.048027E+0	9.523611E-1	9.975920E-1	1.116484E+0	1.102251E+0	9.889156E-1	9.948756E-1	9.930198E-1	1.072118E+0	1.105512E+0	9.660114E-1	9.743792E-1	9.679014E-1	1.056265E+0	1.018718E+0	1.038748E+0	1.100308E+0	1.004002E+0	1.025272E+0	1.124774E+0	1.125028E+0	1.061421E+0	9.785047E-1	9.948494E-1	1.023151E+0	1.094674E+0	9.987767E-1	9.626959E-1	9.895002E-1	1.062373E+0	1.085343E+0	1.002301E+0	9.617582E-1	9.970020E-1	1.123634E+0	1.102295E+0	1.147364E+0	9.871384E-1	1.029623E+0	1.001258E+0	1.070241E+0	1.071528E+0	1.017619E+0	9.636374E-1	9.704341E-1	1.047463E+0	1.044505E+0	1.065356E+0	1.024581E+0	1.018036E+0	1.017622E+0	1.065450E+0	1.136091E+0	9.775668E-1	1.002693E+0	9.503437E-1
5.430170E+2	9.776330E-1	1.181115E+0	1.274745E+0	1.222884E+0	1.064584E+0	1.080735E+0	1.203894E+0	1.245583E+0	1.185191E+0	1.142303E+0	1.180585E+0	1.167638E+0	1.267899E+0	1.238895E+0	1.173255E+0	1.108156E+0	1.194831E+0	1.206136E+0	1.209787E+0	1.161337E+0	1.188561E+0	1.074292E+0	1.277457E+0	1.239889E+0	1.021148E+0	1.184198E+0	1.162326E+0	1.188968E+0	1.181012E+0	1.202344E+0	1.121313E+0	1.084565E+0	1.193443E+0	1.216631E+0	1.233085E+0	1.114044E+0	1.118796E+0	1.085254E+0	1.282170E+0	1.295160E+0	1.185913E+0	1.050501E+0	1.198112E+0	1.142074E+0	1.253368E+0	1.251005E+0	1.172861E+0	1.136752E+0	1.212487E+0	1.155955E+0	1.236861E+0	1.190547E+0	1.187067E+0	1.062952E+0	1.271802E+0	1.229414E+0	1.176903E+0	1.081348E+0	1.144967E+0	1.210535E+0	1.244857E+0	1.113779E+0	1.137694E+0	1.124870E+0	9.747277E-1	1.218572E+0	1.158321E+0	1.162525E+0	1.059827E+0	1.097375E+0	1.233657E+0	1.285459E+0	1.227552E+0	1.079359E+0	1.085248E+0	1.187481E+0	1.189776E+0	1.075555E+0	1.131584E+0	1.097820E+0	1.199946E+0	1.156301E+0	1.165170E+0	1.154313E+0	1.054234E+0	1.180623E+0	1.257337E+0	1.239714E+0	1.125596E+0	1.129532E+0	1.169551E+0	1.195536E+0	1.180275E+0	1.075382E+0	1.160089E+0	1.037627E+0	1.271044E+0	1.207532E+0	1.189796E+0	1.183198E+0	1.175432E+0	1.090994E+0	1.178984E+0	1.258098E+0	1.135411E+0	1.047966E+0	1.125822E+0	1.236894E+0	1.211227E+0	1.119567E+0	1.153370E+0	1.196333E+0	1.202096E+0	1.120317E+0	1.244930E+0	1.201632E+0	1.085771E+0	1.125997E+0	1.260584E+0	1.276908E+0	1.144664E+0	1.086115E+0	1.136770E+0	1.186266E+0	1.232746E+0	1.074252E+0	1.117843E+0	1.128057E+0	1.161905E+0	1.176540E+0	1.230207E+0	1.172554E+0	1.102924E+0	1.223460E+0	1.210980E+0	1.177375E+0	1.193175E+0	1.094002E+0	1.185373E+0	1.171897E+0	1.298578E+0	1.084120E+0	1.081828E+0	1.102137E+0	1.197538E+0	1.227518E+0	1.158506E+0	1.136156E+0	1.125637E+0	1.199351E+0	1.249382E+0	1.266207E+0	1.180243E+0	1.211856E+0	1.206551E+0	1.158564E+0	1.212300E+0	1.118973E+0	1.147856E+0	1.092232E+0	1.165363E+0	1.140410E+0	1.179018E+0	1.204796E+0	1.084874E+0	1.126461E+0	1.266436E+0	1.210574E+0	1.077261E+0	1.194116E+0	1.228523E+0
5.432800E+2	1.027612E+0	1.391071E+0	1.442529E+0	1.475644E+0	1.233422E+0	1.274598E+0	1.425114E+0	1.484988E+0	1.372934E+0	1.337819E+0	1.372474E+0	1.335044E+0	1.420035E+0	1.435026E+0	1.351331E+0	1.257678E+0	1.376114E+0	1.378091E+0	1.384107E+0	1.327314E+0	1.255316E+0	1.250831E+0	1.446257E+0	1.426054E+0	1.134823E+0	1.237801E+0	1.295913E+0	1.295230E+0	1.399778E+0	1.358191E+0	1.257382E+0	1.265754E+0	1.349580E+0	1.375077E+0	1.365318E+0	1.323211E+0	1.279583E+0	1.236002E+0	1.459496E+0	1.423879E+0	1.352459E+0	1.285242E+0	1.349821E+0	1.334550E+0	1.327449E+0	1.347148E+0	1.275742E+0	1.243792E+0	1.390692E+0	1.399242E+0	1.310288E+0	1.324414E+0	1.328170E+0	1.252813E+0	1.401237E+0	1.379027E+0	1.405105E+0	1.309612E+0	1.338462E+0	1.310502E+0	1.408093E+0	1.392417E+0	1.209737E+0	1.219358E+0	1.100612E+0	1.345921E+0	1.398870E+0	1.315655E+0	1.170772E+0	1.286337E+0	1.346805E+0	1.435674E+0	1.346095E+0	1.268686E+0	1.272922E+0	1.344221E+0	1.387762E+0	1.474392E+0	1.315656E+0	1.233377E+0	1.339503E+0	1.381200E+0	1.312695E+0	1.269825E+0	1.206988E+0	1.316988E+0	1.389347E+0	1.393848E+0	1.222975E+0	1.346233E+0	1.318228E+0	1.344616E+0	1.380058E+0	1.387369E+0	1.304062E+0	1.230063E+0	1.374610E+0	1.354878E+0	1.400070E+0	1.291260E+0	1.259292E+0	1.299156E+0	1.379693E+0	1.409284E+0	1.265337E+0	1.244504E+0	1.303131E+0	1.352175E+0	1.376279E+0	1.340402E+0	1.247363E+0	1.347356E+0	1.366057E+0	1.287561E+0	1.339868E+0	1.385008E+0	1.253981E+0	1.294493E+0	1.432100E+0	1.408823E+0	1.257657E+0	1.201685E+0	1.268068E+0	1.336845E+0	1.395150E+0	1.227458E+0	1.274348E+0	1.281118E+0	1.381796E+0	1.332586E+0	1.357847E+0	1.363859E+0	1.258034E+0	1.316389E+0	1.423354E+0	1.353083E+0	1.303159E+0	1.299009E+0	1.296183E+0	1.364055E+0	1.365667E+0	1.253155E+0	1.205833E+0	1.221934E+0	1.442558E+0	1.370848E+0	1.301102E+0	1.311708E+0	1.290893E+0	1.424307E+0	1.423102E+0	1.388222E+0	1.299241E+0	1.266415E+0	1.383285E+0	1.317063E+0	1.432678E+0	1.255203E+0	1.276122E+0	1.231638E+0	1.314018E+0	1.336169E+0	1.426800E+0	1.305878E+0	1.278227E+0	1.273656E+0	1.396004E+0	1.421290E+0	1.138418E+0	1.319180E+0	1.278687E+0
5.435540E+2	1.192821E+0	1.479337E+0	1.663434E+0	1.576401E+0	1.370895E+0	1.380559E+0	1.571991E+0	1.610837E+0	1.507439E+0	1.464695E+0	1.477086E+0	1.526887E+0	1.610074E+0	1.536268E+0	1.420722E+0	1.386518E+0	1.550188E+0	1.486401E+0	1.541597E+0	1.460551E+0	1.406190E+0	1.348704E+0	1.602675E+0	1.565554E+0	1.263099E+0	1.442550E+0	1.420453E+0	1.492726E+0	1.557520E+0	1.475215E+0	1.425979E+0	1.417802E+0	1.473060E+0	1.547030E+0	1.512364E+0	1.403618E+0	1.411941E+0	1.370328E+0	1.602660E+0	1.590073E+0	1.489785E+0	1.470792E+0	1.526914E+0	1.528715E+0	1.610957E+0	1.583886E+0	1.434147E+0	1.367092E+0	1.524088E+0	1.575376E+0	1.498399E+0	1.476098E+0	1.444404E+0	1.377879E+0	1.612250E+0	1.573618E+0	1.555833E+0	1.474237E+0	1.457629E+0	1.473880E+0	1.546421E+0	1.516812E+0	1.396835E+0	1.342463E+0	1.195029E+0	1.499095E+0	1.425871E+0	1.363649E+0	1.325599E+0	1.417073E+0	1.530675E+0	1.567475E+0	1.478948E+0	1.437042E+0	1.456600E+0	1.513428E+0	1.570104E+0	1.558523E+0	1.453580E+0	1.349220E+0	1.479056E+0	1.501292E+0	1.495261E+0	1.392690E+0	1.315735E+0	1.477352E+0	1.552185E+0	1.530371E+0	1.394733E+0	1.538446E+0	1.429457E+0	1.535393E+0	1.562430E+0	1.588403E+0	1.444840E+0	1.369675E+0	1.545048E+0	1.479241E+0	1.536022E+0	1.459905E+0	1.382765E+0	1.438437E+0	1.571230E+0	1.541910E+0	1.376030E+0	1.461489E+0	1.430593E+0	1.501176E+0	1.483486E+0	1.557528E+0	1.365147E+0	1.451596E+0	1.460430E+0	1.496088E+0	1.531529E+0	1.549925E+0	1.340985E+0	1.418563E+0	1.530697E+0	1.577676E+0	1.415949E+0	1.452086E+0	1.398236E+0	1.477102E+0	1.533760E+0	1.523943E+0	1.429288E+0	1.415930E+0	1.463324E+0	1.571980E+0	1.516255E+0	1.507195E+0	1.417941E+0	1.495578E+0	1.560944E+0	1.516351E+0	1.488760E+0	1.491313E+0	1.491229E+0	1.483859E+0	1.561123E+0	1.457981E+0	1.317385E+0	1.367027E+0	1.478215E+0	1.529784E+0	1.453166E+0	1.404102E+0	1.424826E+0	1.488504E+0	1.625876E+0	1.620100E+0	1.446911E+0	1.487459E+0	1.465722E+0	1.468299E+0	1.537599E+0	1.430665E+0	1.391721E+0	1.326042E+0	1.452421E+0	1.448435E+0	1.498974E+0	1.463566E+0	1.288732E+0	1.391824E+0	1.541370E+0	1.539701E+0	1.352887E+0	1.408510E+0	1.477061E+0
5.437640E+2	1.240022E+0	1.562904E+0	1.675093E+0	1.683495E+0	1.384485E+0	1.446483E+0	1.646336E+0	1.711123E+0	1.558441E+0	1.533334E+0	1.621002E+0	1.530008E+0	1.640294E+0	1.647783E+0	1.525828E+0	1.457619E+0	1.592872E+0	1.583544E+0	1.646191E+0	1.532816E+0	1.498993E+0	1.431942E+0	1.701708E+0	1.690658E+0	1.408064E+0	1.509189E+0	1.529556E+0	1.544247E+0	1.624235E+0	1.588458E+0	1.476396E+0	1.473971E+0	1.524084E+0	1.629112E+0	1.553618E+0	1.525547E+0	1.448219E+0	1.467930E+0	1.756124E+0	1.646939E+0	1.526795E+0	1.565436E+0	1.588566E+0	1.605815E+0	1.663871E+0	1.707812E+0	1.517437E+0	1.429421E+0	1.587955E+0	1.572071E+0	1.559687E+0	1.526297E+0	1.524602E+0	1.386920E+0	1.619862E+0	1.589238E+0	1.580073E+0	1.485281E+0	1.538712E+0	1.496156E+0	1.612668E+0	1.566569E+0	1.499520E+0	1.431046E+0	1.214580E+0	1.624678E+0	1.562099E+0	1.514491E+0	1.405971E+0	1.511044E+0	1.612145E+0	1.632408E+0	1.573476E+0	1.521502E+0	1.547872E+0	1.516991E+0	1.634302E+0	1.595267E+0	1.487281E+0	1.436963E+0	1.612729E+0	1.607736E+0	1.589089E+0	1.510305E+0	1.454835E+0	1.569283E+0	1.640369E+0	1.651232E+0	1.448560E+0	1.623874E+0	1.520821E+0	1.509687E+0	1.596290E+0	1.629119E+0	1.520026E+0	1.431935E+0	1.600087E+0	1.608906E+0	1.597050E+0	1.535223E+0	1.446559E+0	1.471354E+0	1.733516E+0	1.671261E+0	1.420208E+0	1.523974E+0	1.450419E+0	1.593764E+0	1.591219E+0	1.640141E+0	1.430129E+0	1.430237E+0	1.542673E+0	1.523081E+0	1.578405E+0	1.626728E+0	1.427510E+0	1.483579E+0	1.639790E+0	1.602477E+0	1.510110E+0	1.540793E+0	1.504070E+0	1.585174E+0	1.603064E+0	1.619110E+0	1.503366E+0	1.454453E+0	1.553462E+0	1.609220E+0	1.576659E+0	1.528580E+0	1.480850E+0	1.540761E+0	1.628309E+0	1.542263E+0	1.552916E+0	1.620667E+0	1.495749E+0	1.520901E+0	1.614476E+0	1.594531E+0	1.396445E+0	1.420003E+0	1.648466E+0	1.612427E+0	1.575053E+0	1.500540E+0	1.474934E+0	1.615249E+0	1.634955E+0	1.638051E+0	1.482070E+0	1.622449E+0	1.521761E+0	1.524560E+0	1.608247E+0	1.603945E+0	1.461395E+0	1.420447E+0	1.497987E+0	1.595113E+0	1.550126E+0	1.500533E+0	1.418110E+0	1.466978E+0	1.668410E+0	1.664475E+0	1.401478E+0	1.453175E+0	1.474780E+0
5.440120E+2	1.303424E+0	1.618784E+0	1.773563E+0	1.726100E+0	1.484325E+0	1.497264E+0	1.717655E+0	1.710142E+0	1.665481E+0	1.580654E+0	1.682267E+0	1.604871E+0	1.724303E+0	1.663923E+0	1.671249E+0	1.507170E+0	1.652193E+0	1.643283E+0	1.684666E+0	1.590962E+0	1.574428E+0	1.473564E+0	1.706210E+0	1.737817E+0	1.662009E+0	1.620260E+0	1.641322E+0	1.596302E+0	1.701293E+0	1.631063E+0	1.544161E+0	1.528458E+0	1.587870E+0	1.618723E+0	1.654648E+0	1.564964E+0	1.519788E+0	1.520111E+0	1.707320E+0	1.745246E+0	1.584256E+0	1.582012E+0	1.638126E+0	1.704306E+0	1.688936E+0	1.683363E+0	1.500558E+0	1.514780E+0	1.715169E+0	1.643078E+0	1.627650E+0	1.574881E+0	1.620022E+0	1.489386E+0	1.749300E+0	1.721334E+0	1.719207E+0	1.505795E+0	1.623485E+0	1.596695E+0	1.720258E+0	1.667075E+0	1.488770E+0	1.435132E+0	1.299935E+0	1.654611E+0	1.628987E+0	1.564201E+0	1.426187E+0	1.551901E+0	1.697006E+0	1.730288E+0	1.636838E+0	1.534541E+0	1.568410E+0	1.623860E+0	1.734644E+0	1.733719E+0	1.529797E+0	1.444356E+0	1.599185E+0	1.720189E+0	1.668221E+0	1.566486E+0	1.451799E+0	1.545787E+0	1.638206E+0	1.671294E+0	1.522939E+0	1.660857E+0	1.596866E+0	1.610216E+0	1.671273E+0	1.696814E+0	1.558950E+0	1.463531E+0	1.706023E+0	1.681992E+0	1.673786E+0	1.598532E+0	1.569517E+0	1.468314E+0	1.697388E+0	1.716016E+0	1.528826E+0	1.612585E+0	1.505368E+0	1.682064E+0	1.652255E+0	1.681979E+0	1.535149E+0	1.536005E+0	1.601721E+0	1.613053E+0	1.579590E+0	1.624346E+0	1.555601E+0	1.554554E+0	1.673626E+0	1.683737E+0	1.555410E+0	1.691333E+0	1.539159E+0	1.610679E+0	1.658923E+0	1.684996E+0	1.528929E+0	1.506653E+0	1.567817E+0	1.772363E+0	1.614265E+0	1.599668E+0	1.555761E+0	1.645500E+0	1.712801E+0	1.653181E+0	1.580417E+0	1.646079E+0	1.544936E+0	1.577618E+0	1.682616E+0	1.671067E+0	1.472256E+0	1.470120E+0	1.646741E+0	1.706057E+0	1.600497E+0	1.562332E+0	1.520224E+0	1.699191E+0	1.637982E+0	1.686119E+0	1.525344E+0	1.731565E+0	1.633839E+0	1.656440E+0	1.694184E+0	1.734184E+0	1.514707E+0	1.449798E+0	1.621012E+0	1.731073E+0	1.633096E+0	1.549632E+0	1.485902E+0	1.574263E+0	1.678521E+0	1.714129E+0	1.423259E+0	1.580791E+0	1.531786E+0
5.442860E+2	1.333501E+0	1.594758E+0	1.820204E+0	1.740496E+0	1.443029E+0	1.495313E+0	1.784748E+0	1.786827E+0	1.703028E+0	1.646174E+0	1.599620E+0	1.594993E+0	1.706883E+0	1.591048E+0	1.613594E+0	1.529576E+0	1.646096E+0	1.606994E+0	1.666026E+0	1.580237E+0	1.619475E+0	1.494143E+0	1.725339E+0	1.723917E+0	1.681823E+0	1.610116E+0	1.622162E+0	1.661775E+0	1.704912E+0	1.665034E+0	1.551207E+0	1.504803E+0	1.617463E+0	1.722100E+0	1.658879E+0	1.528700E+0	1.533513E+0	1.473242E+0	1.727381E+0	1.724526E+0	1.606656E+0	1.554741E+0	1.599441E+0	1.636770E+0	1.641592E+0	1.653354E+0	1.515800E+0	1.463295E+0	1.662636E+0	1.685460E+0	1.635540E+0	1.553826E+0	1.627129E+0	1.445687E+0	1.737878E+0	1.684406E+0	1.747141E+0	1.535247E+0	1.608738E+0	1.541284E+0	1.695877E+0	1.681009E+0	1.564576E+0	1.488283E+0	1.330928E+0	1.655195E+0	1.636964E+0	1.577342E+0	1.479936E+0	1.533005E+0	1.704927E+0	1.734649E+0	1.622529E+0	1.583289E+0	1.583237E+0	1.667202E+0	1.748672E+0	1.716142E+0	1.616908E+0	1.524706E+0	1.593886E+0	1.621928E+0	1.616783E+0	1.562808E+0	1.474561E+0	1.604522E+0	1.748029E+0	1.682060E+0	1.564044E+0	1.667632E+0	1.579272E+0	1.639920E+0	1.617576E+0	1.659148E+0	1.638402E+0	1.466837E+0	1.723180E+0	1.636019E+0	1.666535E+0	1.589253E+0	1.544823E+0	1.558975E+0	1.755310E+0	1.718745E+0	1.518950E+0	1.613155E+0	1.531991E+0	1.707207E+0	1.662868E+0	1.719579E+0	1.565900E+0	1.534989E+0	1.632823E+0	1.665980E+0	1.650203E+0	1.634469E+0	1.482130E+0	1.526380E+0	1.743634E+0	1.725951E+0	1.596635E+0	1.668020E+0	1.543118E+0	1.592461E+0	1.663063E+0	1.701729E+0	1.575359E+0	1.545172E+0	1.673457E+0	1.664784E+0	1.665548E+0	1.549385E+0	1.544237E+0	1.629073E+0	1.673414E+0	1.686874E+0	1.543751E+0	1.703246E+0	1.514972E+0	1.593828E+0	1.656207E+0	1.687585E+0	1.491752E+0	1.479188E+0	1.638112E+0	1.714729E+0	1.581562E+0	1.552512E+0	1.560692E+0	1.711264E+0	1.696088E+0	1.732603E+0	1.573482E+0	1.659569E+0	1.631686E+0	1.589893E+0	1.683642E+0	1.708025E+0	1.537406E+0	1.475230E+0	1.606772E+0	1.703996E+0	1.618319E+0	1.570426E+0	1.481126E+0	1.546271E+0	1.698747E+0	1.723676E+0	1.435826E+0	1.628007E+0	1.490743E+0
5.445290E+2	1.267326E+0	1.597372E+0	1.724328E+0	1.617282E+0	1.376645E+0	1.444529E+0	1.689854E+0	1.723906E+0	1.620647E+0	1.590534E+0	1.675331E+0	1.614750E+0	1.692540E+0	1.615991E+0	1.717680E+0	1.470977E+0	1.628909E+0	1.608108E+0	1.632967E+0	1.514186E+0	1.540780E+0	1.460755E+0	1.739966E+0	1.610729E+0	1.678694E+0	1.595628E+0	1.639191E+0	1.559809E+0	1.712157E+0	1.621891E+0	1.591325E+0	1.491712E+0	1.593989E+0	1.615084E+0	1.652005E+0	1.523445E+0	1.485475E+0	1.491601E+0	1.687796E+0	1.670744E+0	1.601299E+0	1.525330E+0	1.651421E+0	1.612009E+0	1.664430E+0	1.672801E+0	1.504916E+0	1.522912E+0	1.613708E+0	1.654636E+0	1.587601E+0	1.562462E+0	1.611396E+0	1.445183E+0	1.692740E+0	1.661678E+0	1.655441E+0	1.506321E+0	1.631470E+0	1.549854E+0	1.679445E+0	1.673545E+0	1.495756E+0	1.477835E+0	1.245574E+0	1.619399E+0	1.566394E+0	1.521921E+0	1.473523E+0	1.513596E+0	1.672681E+0	1.673597E+0	1.600557E+0	1.550413E+0	1.504517E+0	1.516398E+0	1.674222E+0	1.622428E+0	1.464984E+0	1.390132E+0	1.563851E+0	1.624655E+0	1.639394E+0	1.520806E+0	1.436121E+0	1.554980E+0	1.625219E+0	1.624810E+0	1.512663E+0	1.640022E+0	1.530469E+0	1.629636E+0	1.620477E+0	1.625561E+0	1.572814E+0	1.396559E+0	1.644473E+0	1.585333E+0	1.661098E+0	1.570151E+0	1.528360E+0	1.509337E+0	1.713446E+0	1.666348E+0	1.468019E+0	1.537037E+0	1.522930E+0	1.648957E+0	1.602896E+0	1.689391E+0	1.536310E+0	1.579737E+0	1.534236E+0	1.617287E+0	1.617568E+0	1.596962E+0	1.469563E+0	1.515003E+0	1.648543E+0	1.690597E+0	1.467354E+0	1.601111E+0	1.501239E+0	1.576068E+0	1.628927E+0	1.613880E+0	1.522668E+0	1.524393E+0	1.557479E+0	1.698478E+0	1.660990E+0	1.549964E+0	1.485650E+0	1.616236E+0	1.617465E+0	1.682729E+0	1.565518E+0	1.594103E+0	1.587905E+0	1.575305E+0	1.603379E+0	1.709602E+0	1.486336E+0	1.406164E+0	1.569669E+0	1.601447E+0	1.511741E+0	1.568106E+0	1.550574E+0	1.672309E+0	1.673695E+0	1.639643E+0	1.522638E+0	1.693317E+0	1.604200E+0	1.586871E+0	1.615100E+0	1.668791E+0	1.503096E+0	1.425827E+0	1.527603E+0	1.638555E+0	1.584222E+0	1.496491E+0	1.441025E+0	1.557679E+0	1.652609E+0	1.669564E+0	1.455095E+0	1.524640E+0	1.497581E+0
5.447660E+2	1.191896E+0	1.488215E+0	1.649183E+0	1.591949E+0	1.354690E+0	1.395698E+0	1.616716E+0	1.602971E+0	1.490625E+0	1.483937E+0	1.611753E+0	1.415627E+0	1.590095E+0	1.505946E+0	1.668190E+0	1.408062E+0	1.528565E+0	1.507617E+0	1.608319E+0	1.491035E+0	1.492483E+0	1.350078E+0	1.618993E+0	1.575482E+0	1.560327E+0	1.470558E+0	1.638128E+0	1.451937E+0	1.625268E+0	1.519972E+0	1.628732E+0	1.389502E+0	1.540417E+0	1.503911E+0	1.653060E+0	1.436730E+0	1.445768E+0	1.410430E+0	1.640075E+0	1.557013E+0	1.498061E+0	1.462772E+0	1.601253E+0	1.527022E+0	1.590348E+0	1.536094E+0	1.660054E+0	1.417676E+0	1.517907E+0	1.532442E+0	1.612481E+0	1.514422E+0	1.471812E+0	1.392947E+0	1.634546E+0	1.564620E+0	1.578492E+0	1.391661E+0	1.560212E+0	1.475593E+0	1.544831E+0	1.519298E+0	1.576403E+0	1.370174E+0	1.203135E+0	1.478551E+0	1.513008E+0	1.405359E+0	1.362582E+0	1.413499E+0	1.577067E+0	1.571834E+0	1.523914E+0	1.467082E+0	1.528478E+0	1.500960E+0	1.573343E+0	1.533498E+0	1.508021E+0	1.395063E+0	1.464340E+0	1.543325E+0	1.582869E+0	1.476699E+0	1.336478E+0	1.469691E+0	1.577072E+0	1.544561E+0	1.407945E+0	1.542615E+0	1.407325E+0	1.486842E+0	1.543564E+0	1.531404E+0	1.455500E+0	1.309302E+0	1.537950E+0	1.510478E+0	1.555964E+0	1.463180E+0	1.405400E+0	1.398930E+0	1.594740E+0	1.517349E+0	1.381747E+0	1.505799E+0	1.422095E+0	1.529383E+0	1.500466E+0	1.582416E+0	1.406343E+0	1.417019E+0	1.491531E+0	1.536310E+0	1.527373E+0	1.448712E+0	1.393193E+0	1.458658E+0	1.548198E+0	1.516466E+0	1.433253E+0	1.455126E+0	1.388050E+0	1.480744E+0	1.516174E+0	1.528652E+0	1.420939E+0	1.392112E+0	1.483421E+0	1.535334E+0	1.531639E+0	1.485232E+0	1.414101E+0	1.574646E+0	1.562657E+0	1.567142E+0	1.419446E+0	1.549060E+0	1.468048E+0	1.494856E+0	1.542630E+0	1.557087E+0	1.373159E+0	1.350800E+0	1.506401E+0	1.560990E+0	1.427725E+0	1.359060E+0	1.311126E+0	1.617439E+0	1.624058E+0	1.516043E+0	1.502082E+0	1.536954E+0	1.464646E+0	1.482214E+0	1.534963E+0	1.644272E+0	1.392776E+0	1.341693E+0	1.469507E+0	1.553932E+0	1.502953E+0	1.447971E+0	1.346975E+0	1.461792E+0	1.525570E+0	1.563255E+0	1.364616E+0	1.409786E+0	1.420058E+0
5.450200E+2	1.129884E+0	1.398904E+0	1.528689E+0	1.425551E+0	1.197878E+0	1.276550E+0	1.471657E+0	1.587733E+0	1.421692E+0	1.385138E+0	1.513500E+0	1.377674E+0	1.433350E+0	1.425243E+0	1.542671E+0	1.327916E+0	1.399395E+0	1.432803E+0	1.476081E+0	1.335785E+0	1.334008E+0	1.244888E+0	1.431627E+0	1.468750E+0	1.473765E+0	1.361907E+0	1.465156E+0	1.386463E+0	1.457184E+0	1.471436E+0	1.491574E+0	1.287295E+0	1.392439E+0	1.389102E+0	1.465814E+0	1.326891E+0	1.263409E+0	1.287704E+0	1.479015E+0	1.470610E+0	1.386059E+0	1.372939E+0	1.479163E+0	1.377885E+0	1.477839E+0	1.443287E+0	1.487497E+0	1.295280E+0	1.445800E+0	1.449879E+0	1.472307E+0	1.330353E+0	1.338831E+0	1.234729E+0	1.519251E+0	1.466141E+0	1.417754E+0	1.309089E+0	1.489569E+0	1.359060E+0	1.478051E+0	1.426747E+0	1.430705E+0	1.247071E+0	1.102522E+0	1.367048E+0	1.478644E+0	1.351652E+0	1.275798E+0	1.280208E+0	1.505781E+0	1.458445E+0	1.372157E+0	1.324240E+0	1.469149E+0	1.400622E+0	1.430381E+0	1.434456E+0	1.489354E+0	1.234858E+0	1.383665E+0	1.400304E+0	1.455133E+0	1.313932E+0	1.234304E+0	1.335885E+0	1.462379E+0	1.451100E+0	1.290503E+0	1.434787E+0	1.527065E+0	1.394310E+0	1.469551E+0	1.438261E+0	1.516291E+0	1.259780E+0	1.428464E+0	1.421481E+0	1.470160E+0	1.338744E+0	1.366815E+0	1.301687E+0	1.509296E+0	1.418559E+0	1.320945E+0	1.337094E+0	1.401700E+0	1.392029E+0	1.416612E+0	1.445784E+0	1.410983E+0	1.374306E+0	1.371858E+0	1.400821E+0	1.446675E+0	1.379055E+0	1.293133E+0	1.293953E+0	1.457769E+0	1.435204E+0	1.352328E+0	1.336516E+0	1.347300E+0	1.388454E+0	1.442729E+0	1.457536E+0	1.349991E+0	1.297844E+0	1.347349E+0	1.457898E+0	1.436482E+0	1.424545E+0	1.321422E+0	1.432940E+0	1.445621E+0	1.472813E+0	1.327791E+0	1.455508E+0	1.325013E+0	1.380835E+0	1.448603E+0	1.508636E+0	1.269732E+0	1.248663E+0	1.415525E+0	1.445982E+0	1.350211E+0	1.274171E+0	1.282218E+0	1.429793E+0	1.407968E+0	1.422552E+0	1.369018E+0	1.416590E+0	1.401065E+0	1.355778E+0	1.396301E+0	1.447010E+0	1.308850E+0	1.252180E+0	1.381795E+0	1.404997E+0	1.433619E+0	1.334182E+0	1.294460E+0	1.354508E+0	1.444038E+0	1.467125E+0	1.270786E+0	1.334494E+0	1.255885E+0
5.452740E+2	1.081293E+0	1.328397E+0	1.493706E+0	1.389280E+0	1.180103E+0	1.230646E+0	1.451105E+0	1.425998E+0	1.347716E+0	1.350298E+0	1.355710E+0	1.315810E+0	1.364199E+0	1.332315E+0	1.423273E+0	1.185287E+0	1.319014E+0	1.319472E+0	1.357659E+0	1.260699E+0	1.247719E+0	1.175367E+0	1.384926E+0	1.379886E+0	1.393463E+0	1.311685E+0	1.393309E+0	1.323136E+0	1.361508E+0	1.348488E+0	1.445496E+0	1.196908E+0	1.298044E+0	1.380272E+0	1.406574E+0	1.247533E+0	1.219289E+0	1.232621E+0	1.474680E+0	1.396547E+0	1.313988E+0	1.243000E+0	1.344379E+0	1.354811E+0	1.383706E+0	1.375489E+0	1.397677E+0	1.227082E+0	1.319099E+0	1.359058E+0	1.421942E+0	1.262878E+0	1.305332E+0	1.211121E+0	1.390361E+0	1.386601E+0	1.371372E+0	1.266485E+0	1.450872E+0	1.319644E+0	1.340253E+0	1.358581E+0	1.407047E+0	1.166664E+0	1.048161E+0	1.304843E+0	1.430781E+0	1.251659E+0	1.212190E+0	1.250075E+0	1.400554E+0	1.358144E+0	1.294488E+0	1.280591E+0	1.384157E+0	1.296132E+0	1.388843E+0	1.355646E+0	1.421428E+0	1.204788E+0	1.353635E+0	1.391026E+0	1.350000E+0	1.250396E+0	1.150339E+0	1.251616E+0	1.384474E+0	1.412445E+0	1.220530E+0	1.388945E+0	1.417542E+0	1.274932E+0	1.354906E+0	1.367011E+0	1.360584E+0	1.215443E+0	1.347981E+0	1.313621E+0	1.413966E+0	1.270523E+0	1.231510E+0	1.209003E+0	1.415820E+0	1.366166E+0	1.230516E+0	1.335390E+0	1.398302E+0	1.334391E+0	1.308876E+0	1.440490E+0	1.404602E+0	1.294474E+0	1.332316E+0	1.324611E+0	1.406921E+0	1.336188E+0	1.173259E+0	1.221895E+0	1.433270E+0	1.389826E+0	1.236278E+0	1.300019E+0	1.360319E+0	1.311343E+0	1.396182E+0	1.336224E+0	1.457984E+0	1.234491E+0	1.305436E+0	1.371602E+0	1.431920E+0	1.284678E+0	1.244587E+0	1.340009E+0	1.387962E+0	1.413206E+0	1.276808E+0	1.353872E+0	1.423385E+0	1.333954E+0	1.349820E+0	1.393009E+0	1.324965E+0	1.229571E+0	1.362608E+0	1.439623E+0	1.365003E+0	1.238945E+0	1.279808E+0	1.384805E+0	1.414022E+0	1.399314E+0	1.287344E+0	1.339534E+0	1.286297E+0	1.316458E+0	1.336199E+0	1.360919E+0	1.238117E+0	1.185170E+0	1.310031E+0	1.364377E+0	1.322801E+0	1.252738E+0	1.224281E+0	1.258624E+0	1.408010E+0	1.360811E+0	1.202089E+0	1.310247E+0	1.271846E+0
5.455290E+2	9.892023E-1	1.223942E+0	1.371269E+0	1.301763E+0	1.095425E+0	1.147634E+0	1.307251E+0	1.325710E+0	1.280465E+0	1.212502E+0	1.283466E+0	1.264338E+0	1.271997E+0	1.277048E+0	1.339082E+0	1.113325E+0	1.291294E+0	1.254151E+0	1.333015E+0	1.168112E+0	1.169568E+0	1.132377E+0	1.305028E+0	1.288540E+0	1.267793E+0	1.210278E+0	1.304961E+0	1.243708E+0	1.312377E+0	1.212052E+0	1.312138E+0	1.166076E+0	1.242428E+0	1.296634E+0	1.366374E+0	1.186043E+0	1.097717E+0	1.172223E+0	1.327720E+0	1.308826E+0	1.238505E+0	1.240862E+0	1.337732E+0	1.242249E+0	1.311297E+0	1.307135E+0	1.332901E+0	1.130878E+0	1.259353E+0	1.235766E+0	1.289653E+0	1.226711E+0	1.250006E+0	1.101126E+0	1.382748E+0	1.281967E+0	1.287577E+0	1.175493E+0	1.293620E+0	1.221962E+0	1.304215E+0	1.247626E+0	1.273177E+0	1.125781E+0	1.012398E+0	1.272566E+0	1.293323E+0	1.196808E+0	1.056377E+0	1.178576E+0	1.313427E+0	1.306295E+0	1.270983E+0	1.184793E+0	1.316275E+0	1.250414E+0	1.344064E+0	1.270448E+0	1.333284E+0	1.160916E+0	1.241165E+0	1.262745E+0	1.320042E+0	1.236220E+0	1.131623E+0	1.197987E+0	1.319553E+0	1.291092E+0	1.141745E+0	1.221733E+0	1.268294E+0	1.244087E+0	1.277989E+0	1.335964E+0	1.390446E+0	1.126301E+0	1.288208E+0	1.251146E+0	1.280432E+0	1.185382E+0	1.206301E+0	1.159876E+0	1.337830E+0	1.320865E+0	1.155679E+0	1.245641E+0	1.334288E+0	1.288402E+0	1.302510E+0	1.237663E+0	1.345999E+0	1.244132E+0	1.237948E+0	1.226168E+0	1.338089E+0	1.229020E+0	1.137490E+0	1.141166E+0	1.310755E+0	1.289571E+0	1.168585E+0	1.240208E+0	1.307684E+0	1.245769E+0	1.277744E+0	1.244717E+0	1.429289E+0	1.216751E+0	1.238838E+0	1.330815E+0	1.282060E+0	1.224571E+0	1.126934E+0	1.261453E+0	1.315456E+0	1.269635E+0	1.279672E+0	1.252233E+0	1.310316E+0	1.244823E+0	1.301748E+0	1.312623E+0	1.296806E+0	1.109773E+0	1.275185E+0	1.289936E+0	1.320037E+0	1.127494E+0	1.179599E+0	1.292623E+0	1.314149E+0	1.299484E+0	1.218106E+0	1.326034E+0	1.277676E+0	1.206960E+0	1.271346E+0	1.279180E+0	1.361106E+0	1.144079E+0	1.190423E+0	1.288782E+0	1.384179E+0	1.166674E+0	1.143120E+0	1.185547E+0	1.346074E+0	1.236675E+0	1.133391E+0	1.176250E+0	1.246765E+0
5.457990E+2	9.494039E-1	1.199394E+0	1.348596E+0	1.303490E+0	1.069811E+0	1.112474E+0	1.317525E+0	1.299163E+0	1.230028E+0	1.210422E+0	1.284043E+0	1.201953E+0	1.293510E+0	1.263840E+0	1.326837E+0	1.075840E+0	1.209801E+0	1.270339E+0	1.328807E+0	1.177145E+0	1.166852E+0	1.128262E+0	1.261138E+0	1.272655E+0	1.243805E+0	1.192408E+0	1.317201E+0	1.227073E+0	1.262208E+0	1.224995E+0	1.285031E+0	1.126376E+0	1.241914E+0	1.221825E+0	1.315598E+0	1.228087E+0	1.127617E+0	1.133086E+0	1.300062E+0	1.293397E+0	1.253116E+0	1.190599E+0	1.302071E+0	1.258009E+0	1.225518E+0	1.262120E+0	1.311125E+0	1.134946E+0	1.264503E+0	1.277047E+0	1.313319E+0	1.146284E+0	1.203816E+0	1.110668E+0	1.276153E+0	1.239829E+0	1.276510E+0	1.139730E+0	1.278263E+0	1.205966E+0	1.298915E+0	1.263548E+0	1.248987E+0	1.093076E+0	9.790195E-1	1.225616E+0	1.296391E+0	1.156811E+0	1.081522E+0	1.168363E+0	1.304940E+0	1.228766E+0	1.234194E+0	1.183659E+0	1.304867E+0	1.195199E+0	1.289040E+0	1.286954E+0	1.240990E+0	1.081553E+0	1.208190E+0	1.259469E+0	1.268042E+0	1.140661E+0	1.073456E+0	1.197989E+0	1.287093E+0	1.281796E+0	1.188230E+0	1.233714E+0	1.347173E+0	1.198964E+0	1.230583E+0	1.306954E+0	1.282201E+0	1.136676E+0	1.247373E+0	1.182188E+0	1.274993E+0	1.219768E+0	1.157941E+0	1.177096E+0	1.320626E+0	1.305038E+0	1.106308E+0	1.179181E+0	1.298599E+0	1.241186E+0	1.209635E+0	1.254608E+0	1.289139E+0	1.208538E+0	1.182592E+0	1.229873E+0	1.236029E+0	1.154003E+0	1.112837E+0	1.198596E+0	1.274003E+0	1.282183E+0	1.142120E+0	1.207259E+0	1.293536E+0	1.209337E+0	1.274638E+0	1.201317E+0	1.284260E+0	1.148329E+0	1.210132E+0	1.246289E+0	1.265534E+0	1.208387E+0	1.137980E+0	1.229105E+0	1.305180E+0	1.230245E+0	1.189737E+0	1.265516E+0	1.306921E+0	1.252347E+0	1.243640E+0	1.292799E+0	1.316844E+0	1.147480E+0	1.196962E+0	1.308431E+0	1.356719E+0	1.133845E+0	1.188270E+0	1.251476E+0	1.285698E+0	1.258814E+0	1.195929E+0	1.256854E+0	1.349878E+0	1.209380E+0	1.280309E+0	1.306970E+0	1.308319E+0	1.123536E+0	1.173906E+0	1.293294E+0	1.235849E+0	1.211150E+0	1.160306E+0	1.150302E+0	1.259483E+0	1.276144E+0	1.100719E+0	1.182632E+0	1.365332E+0
5.460060E+2	9.466274E-1	1.236476E+0	1.303897E+0	1.280460E+0	1.071902E+0	1.153006E+0	1.268568E+0	1.281957E+0	1.199762E+0	1.194821E+0	1.244740E+0	1.192594E+0	1.270974E+0	1.186565E+0	1.254382E+0	1.136594E+0	1.199820E+0	1.195529E+0	1.274707E+0	1.158513E+0	1.130492E+0	1.097160E+0	1.265642E+0	1.247336E+0	1.185925E+0	1.107901E+0	1.323057E+0	1.156767E+0	1.226005E+0	1.190480E+0	1.298042E+0	1.090055E+0	1.172524E+0	1.252996E+0	1.290209E+0	1.156086E+0	1.131049E+0	1.132603E+0	1.271323E+0	1.226830E+0	1.209287E+0	1.195945E+0	1.250696E+0	1.221991E+0	1.212709E+0	1.256562E+0	1.225119E+0	1.121845E+0	1.224329E+0	1.208794E+0	1.281159E+0	1.199723E+0	1.159657E+0	1.078020E+0	1.277240E+0	1.249301E+0	1.282835E+0	1.181806E+0	1.268435E+0	1.141415E+0	1.288843E+0	1.234189E+0	1.243071E+0	1.069906E+0	9.904633E-1	1.182188E+0	1.296391E+0	1.111673E+0	1.062294E+0	1.134655E+0	1.302678E+0	1.282553E+0	1.235215E+0	1.127541E+0	1.271781E+0	1.160170E+0	1.230774E+0	1.234770E+0	1.264322E+0	1.109157E+0	1.132229E+0	1.198878E+0	1.251084E+0	1.105480E+0	1.050188E+0	1.180113E+0	1.238943E+0	1.247052E+0	1.139299E+0	1.189436E+0	1.316529E+0	1.218384E+0	1.191886E+0	1.278961E+0	1.329659E+0	1.058380E+0	1.227844E+0	1.206353E+0	1.317291E+0	1.137353E+0	1.175950E+0	1.113282E+0	1.316614E+0	1.291938E+0	1.079803E+0	1.139419E+0	1.256681E+0	1.228310E+0	1.197960E+0	1.248786E+0	1.274052E+0	1.169892E+0	1.175736E+0	1.169009E+0	1.292400E+0	1.243309E+0	1.078035E+0	1.156880E+0	1.260585E+0	1.256329E+0	1.102418E+0	1.190530E+0	1.307686E+0	1.149229E+0	1.299981E+0	1.227984E+0	1.252958E+0	1.127552E+0	1.167646E+0	1.230920E+0	1.282631E+0	1.181801E+0	1.133177E+0	1.249131E+0	1.256081E+0	1.231282E+0	1.126725E+0	1.233753E+0	1.278089E+0	1.185788E+0	1.227794E+0	1.248199E+0	1.349335E+0	1.082091E+0	1.232623E+0	1.238499E+0	1.284536E+0	1.152324E+0	1.150692E+0	1.204289E+0	1.294779E+0	1.221314E+0	1.197553E+0	1.259666E+0	1.276056E+0	1.124687E+0	1.223369E+0	1.278635E+0	1.317821E+0	1.067774E+0	1.200676E+0	1.234058E+0	1.272222E+0	1.160897E+0	1.074848E+0	1.120759E+0	1.286029E+0	1.226490E+0	1.091503E+0	1.237506E+0	1.226244E+0
5.467710E+2	9.938294E-1	1.283482E+0	1.357017E+0	1.307521E+0	1.077130E+0	1.097827E+0	1.278843E+0	1.353732E+0	1.230026E+0	1.171423E+0	1.307164E+0	1.256020E+0	1.297096E+0	1.269710E+0	1.315612E+0	1.264575E+0	1.281870E+0	1.290997E+0	1.341429E+0	1.260697E+0	1.207556E+0	1.115913E+0	1.322472E+0	1.272656E+0	1.245370E+0	1.179852E+0	1.329442E+0	1.295228E+0	1.313411E+0	1.297257E+0	1.319727E+0	1.182548E+0	1.242937E+0	1.264425E+0	1.311368E+0	1.200232E+0	1.161443E+0	1.097818E+0	1.334769E+0	1.308825E+0	1.229254E+0	1.197550E+0	1.324433E+0	1.246754E+0	1.314640E+0	1.308799E+0	1.351951E+0	1.181465E+0	1.312920E+0	1.283652E+0	1.320604E+0	1.218076E+0	1.202800E+0	1.147837E+0	1.327275E+0	1.252143E+0	1.266497E+0	1.247549E+0	1.350133E+0	1.232812E+0	1.334424E+0	1.209311E+0	1.323717E+0	1.102612E+0	9.995240E-1	1.225029E+0	1.293935E+0	1.189951E+0	1.101246E+0	1.136186E+0	1.348502E+0	1.335854E+0	1.272005E+0	1.228440E+0	1.296880E+0	1.217167E+0	1.275552E+0	1.319436E+0	1.306839E+0	1.125426E+0	1.241754E+0	1.325521E+0	1.278780E+0	1.175315E+0	1.120494E+0	1.191350E+0	1.334162E+0	1.293049E+0	1.144681E+0	1.272260E+0	1.311990E+0	1.253227E+0	1.234454E+0	1.240282E+0	1.307798E+0	1.120169E+0	1.282879E+0	1.233465E+0	1.275598E+0	1.229588E+0	1.163601E+0	1.217108E+0	1.358475E+0	1.312132E+0	1.139568E+0	1.217808E+0	1.322958E+0	1.247318E+0	1.267482E+0	1.269969E+0	1.353542E+0	1.243116E+0	1.241110E+0	1.245221E+0	1.336901E+0	1.227829E+0	1.121538E+0	1.159045E+0	1.325925E+0	1.274268E+0	1.176220E+0	1.244768E+0	1.312212E+0	1.191731E+0	1.283431E+0	1.315832E+0	1.390160E+0	1.133633E+0	1.242283E+0	1.227965E+0	1.301432E+0	1.231508E+0	1.177356E+0	1.224998E+0	1.290335E+0	1.237498E+0	1.212650E+0	1.315179E+0	1.302967E+0	1.251768E+0	1.310201E+0	1.324182E+0	1.294643E+0	1.122183E+0	1.259080E+0	1.352353E+0	1.347255E+0	1.180045E+0	1.151653E+0	1.248732E+0	1.355914E+0	1.306351E+0	1.182406E+0	1.284412E+0	1.271207E+0	1.292865E+0	1.287165E+0	1.330400E+0	1.295124E+0	1.099079E+0	1.178464E+0	1.283140E+0	1.322234E+0	1.155699E+0	1.152192E+0	1.222346E+0	1.313207E+0	1.302246E+0	1.139255E+0	1.197946E+0	1.317451E+0
5.475120E+2	1.067410E+0	1.334665E+0	1.369974E+0	1.395037E+0	1.187422E+0	1.214534E+0	1.443248E+0	1.418623E+0	1.339311E+0	1.305581E+0	1.362647E+0	1.357920E+0	1.379054E+0	1.364107E+0	1.446744E+0	1.369280E+0	1.352273E+0	1.345708E+0	1.392523E+0	1.434582E+0	1.285708E+0	1.231163E+0	1.416436E+0	1.384851E+0	1.325152E+0	1.272569E+0	1.417257E+0	1.406858E+0	1.437532E+0	1.397556E+0	1.434114E+0	1.446517E+0	1.323044E+0	1.406765E+0	1.485918E+0	1.369984E+0	1.276153E+0	1.241802E+0	1.400928E+0	1.453860E+0	1.321293E+0	1.332831E+0	1.338335E+0	1.393079E+0	1.428264E+0	1.305467E+0	1.384068E+0	1.322829E+0	1.359274E+0	1.318880E+0	1.468061E+0	1.378936E+0	1.315480E+0	1.231214E+0	1.455622E+0	1.380921E+0	1.416698E+0	1.275951E+0	1.353818E+0	1.364201E+0	1.352972E+0	1.328727E+0	1.386080E+0	1.212091E+0	1.039578E+0	1.387589E+0	1.416050E+0	1.288229E+0	1.194440E+0	1.234242E+0	1.444115E+0	1.394003E+0	1.316460E+0	1.292495E+0	1.429221E+0	1.292568E+0	1.365106E+0	1.383334E+0	1.417801E+0	1.245702E+0	1.297695E+0	1.323337E+0	1.405956E+0	1.270352E+0	1.188781E+0	1.280725E+0	1.396916E+0	1.409020E+0	1.240103E+0	1.401446E+0	1.397110E+0	1.303491E+0	1.357807E+0	1.306442E+0	1.446970E+0	1.206010E+0	1.401241E+0	1.327766E+0	1.384359E+0	1.298903E+0	1.227910E+0	1.241419E+0	1.399192E+0	1.409282E+0	1.285087E+0	1.285971E+0	1.372243E+0	1.369344E+0	1.342313E+0	1.391240E+0	1.386616E+0	1.252777E+0	1.285394E+0	1.298148E+0	1.465071E+0	1.291534E+0	1.201778E+0	1.320501E+0	1.384261E+0	1.377164E+0	1.272417E+0	1.285826E+0	1.358052E+0	1.373275E+0	1.352218E+0	1.396355E+0	1.394857E+0	1.268446E+0	1.298547E+0	1.371009E+0	1.439899E+0	1.328604E+0	1.274841E+0	1.336928E+0	1.414792E+0	1.340642E+0	1.294567E+0	1.340013E+0	1.414904E+0	1.308487E+0	1.369894E+0	1.390809E+0	1.401858E+0	1.171344E+0	1.284387E+0	1.388766E+0	1.387489E+0	1.325565E+0	1.271141E+0	1.357367E+0	1.400099E+0	1.413574E+0	1.297618E+0	1.369908E+0	1.444171E+0	1.320692E+0	1.362032E+0	1.441020E+0	1.395414E+0	1.182724E+0	1.245101E+0	1.331656E+0	1.416003E+0	1.287395E+0	1.185610E+0	1.277284E+0	1.363771E+0	1.434020E+0	1.262408E+0	1.344702E+0	1.342532E+0
5.482600E+2	1.123406E+0	1.378016E+0	1.542942E+0	1.422673E+0	1.265831E+0	1.337097E+0	1.464404E+0	1.491380E+0	1.371814E+0	1.384097E+0	1.535464E+0	1.411471E+0	1.523506E+0	1.471705E+0	1.498279E+0	1.498122E+0	1.485324E+0	1.424990E+0	1.450229E+0	1.511362E+0	1.361687E+0	1.294280E+0	1.510398E+0	1.501018E+0	1.457599E+0	1.362870E+0	1.488043E+0	1.524389E+0	1.472185E+0	1.441778E+0	1.496997E+0	1.514517E+0	1.389888E+0	1.450402E+0	1.471636E+0	1.470890E+0	1.310469E+0	1.307029E+0	1.489864E+0	1.479424E+0	1.416736E+0	1.362241E+0	1.467075E+0	1.516893E+0	1.476166E+0	1.442732E+0	1.514170E+0	1.479101E+0	1.462284E+0	1.464192E+0	1.448035E+0	1.437231E+0	1.335280E+0	1.261352E+0	1.444745E+0	1.523430E+0	1.469929E+0	1.307508E+0	1.480971E+0	1.473307E+0	1.465331E+0	1.411823E+0	1.483928E+0	1.523716E+0	1.134948E+0	1.404022E+0	1.536327E+0	1.493353E+0	1.239308E+0	1.314932E+0	1.449775E+0	1.551968E+0	1.378798E+0	1.325375E+0	1.490257E+0	1.384594E+0	1.501592E+0	1.414755E+0	1.475873E+0	1.404922E+0	1.357757E+0	1.426508E+0	1.435349E+0	1.374310E+0	1.262628E+0	1.377250E+0	1.456428E+0	1.434953E+0	1.337969E+0	1.428015E+0	1.464075E+0	1.385742E+0	1.433754E+0	1.468801E+0	1.498161E+0	1.270627E+0	1.420179E+0	1.374918E+0	1.450221E+0	1.405328E+0	1.288102E+0	1.313842E+0	1.492663E+0	1.424566E+0	1.305874E+0	1.331982E+0	1.462315E+0	1.381605E+0	1.332230E+0	1.451612E+0	1.510197E+0	1.378372E+0	1.380296E+0	1.423051E+0	1.465661E+0	1.379647E+0	1.260749E+0	1.331334E+0	1.472938E+0	1.485337E+0	1.366070E+0	1.384162E+0	1.451434E+0	1.387846E+0	1.416351E+0	1.463285E+0	1.472066E+0	1.299363E+0	1.417967E+0	1.408841E+0	1.489474E+0	1.413565E+0	1.319019E+0	1.425235E+0	1.478163E+0	1.412169E+0	1.383357E+0	1.461285E+0	1.530237E+0	1.398197E+0	1.435396E+0	1.472298E+0	1.463592E+0	1.236732E+0	1.367788E+0	1.437312E+0	1.460266E+0	1.379271E+0	1.287519E+0	1.445706E+0	1.432787E+0	1.409350E+0	1.370102E+0	1.430088E+0	1.500210E+0	1.366062E+0	1.454822E+0	1.497146E+0	1.467732E+0	1.262943E+0	1.388061E+0	1.475513E+0	1.454647E+0	1.372882E+0	1.283004E+0	1.321339E+0	1.501551E+0	1.411742E+0	1.254869E+0	1.363845E+0	1.451980E+0
5.490490E+2	1.089622E+0	1.408830E+0	1.480750E+0	1.465281E+0	1.230283E+0	1.301451E+0	1.465005E+0	1.537592E+0	1.439627E+0	1.342501E+0	1.450501E+0	1.377675E+0	1.514286E+0	1.413015E+0	1.467665E+0	1.477870E+0	1.389972E+0	1.381438E+0	1.438208E+0	1.473536E+0	1.389908E+0	1.268211E+0	1.478329E+0	1.474211E+0	1.449778E+0	1.305407E+0	1.493898E+0	1.458378E+0	1.499594E+0	1.380304E+0	1.504587E+0	1.503115E+0	1.342433E+0	1.427027E+0	1.468991E+0	1.408349E+0	1.317823E+0	1.296886E+0	1.551683E+0	1.515131E+0	1.407975E+0	1.409298E+0	1.474329E+0	1.469058E+0	1.478948E+0	1.411056E+0	1.422176E+0	1.491745E+0	1.416958E+0	1.431716E+0	1.443788E+0	1.449646E+0	1.359131E+0	1.242264E+0	1.495322E+0	1.481290E+0	1.448848E+0	1.280686E+0	1.472373E+0	1.442459E+0	1.444132E+0	1.366544E+0	1.444146E+0	1.476018E+0	1.130178E+0	1.405195E+0	1.476803E+0	1.401361E+0	1.248185E+0	1.309824E+0	1.484282E+0	1.503996E+0	1.389016E+0	1.320837E+0	1.495394E+0	1.437434E+0	1.366183E+0	1.449900E+0	1.485206E+0	1.431540E+0	1.354225E+0	1.435244E+0	1.447781E+0	1.432071E+0	1.244420E+0	1.351714E+0	1.444525E+0	1.476543E+0	1.280718E+0	1.391027E+0	1.451590E+0	1.403448E+0	1.384413E+0	1.390931E+0	1.456034E+0	1.489946E+0	1.425506E+0	1.432090E+0	1.464720E+0	1.490468E+0	1.335434E+0	1.281937E+0	1.469154E+0	1.450762E+0	1.329778E+0	1.382537E+0	1.450983E+0	1.494431E+0	1.434656E+0	1.436785E+0	1.461463E+0	1.408883E+0	1.370273E+0	1.381768E+0	1.471004E+0	1.420731E+0	1.265581E+0	1.353549E+0	1.491605E+0	1.448398E+0	1.318735E+0	1.365406E+0	1.471809E+0	1.441885E+0	1.423595E+0	1.427728E+0	1.471541E+0	1.366264E+0	1.351368E+0	1.411792E+0	1.464971E+0	1.403741E+0	1.286364E+0	1.383650E+0	1.483299E+0	1.428757E+0	1.351849E+0	1.463594E+0	1.508189E+0	1.349003E+0	1.466036E+0	1.385850E+0	1.500415E+0	1.268230E+0	1.347657E+0	1.425174E+0	1.466185E+0	1.349819E+0	1.348223E+0	1.412785E+0	1.447919E+0	1.450021E+0	1.336023E+0	1.471712E+0	1.481347E+0	1.351542E+0	1.419499E+0	1.467172E+0	1.462979E+0	1.281040E+0	1.300350E+0	1.380737E+0	1.413730E+0	1.341113E+0	1.266767E+0	1.334295E+0	1.444670E+0	1.406648E+0	1.332780E+0	1.449347E+0	1.481621E+0
5.497850E+2	1.090548E+0	1.394206E+0	1.506662E+0	1.392159E+0	1.208854E+0	1.275570E+0	1.460173E+0	1.477123E+0	1.416091E+0	1.371099E+0	1.443563E+0	1.369356E+0	1.453840E+0	1.368017E+0	1.451848E+0	1.435640E+0	1.426561E+0	1.362459E+0	1.440612E+0	1.460549E+0	1.344321E+0	1.213787E+0	1.435003E+0	1.463785E+0	1.374168E+0	1.331002E+0	1.481655E+0	1.519557E+0	1.437532E+0	1.364664E+0	1.493205E+0	1.443564E+0	1.362335E+0	1.428065E+0	1.466873E+0	1.420964E+0	1.280566E+0	1.287703E+0	1.443227E+0	1.478983E+0	1.377779E+0	1.298610E+0	1.462844E+0	1.503389E+0	1.380365E+0	1.403276E+0	1.433605E+0	1.512526E+0	1.401506E+0	1.363463E+0	1.423155E+0	1.449647E+0	1.339844E+0	1.252309E+0	1.482815E+0	1.386128E+0	1.329738E+0	1.347482E+0	1.449028E+0	1.472162E+0	1.438830E+0	1.368034E+0	1.524792E+0	1.446490E+0	1.099185E+0	1.395805E+0	1.438755E+0	1.436215E+0	1.211696E+0	1.303698E+0	1.442985E+0	1.456028E+0	1.413545E+0	1.327073E+0	1.462305E+0	1.465339E+0	1.410960E+0	1.417416E+0	1.456171E+0	1.456680E+0	1.334203E+0	1.414499E+0	1.415000E+0	1.465148E+0	1.195860E+0	1.359378E+0	1.433708E+0	1.433971E+0	1.321332E+0	1.425408E+0	1.442511E+0	1.445144E+0	1.381025E+0	1.426050E+0	1.470433E+0	1.432877E+0	1.440301E+0	1.370202E+0	1.507622E+0	1.438076E+0	1.347781E+0	1.359423E+0	1.505280E+0	1.406010E+0	1.286124E+0	1.302444E+0	1.420396E+0	1.428822E+0	1.365134E+0	1.451612E+0	1.485252E+0	1.478548E+0	1.387146E+0	1.391823E+0	1.417008E+0	1.442759E+0	1.261717E+0	1.310748E+0	1.439685E+0	1.425178E+0	1.300919E+0	1.354255E+0	1.442947E+0	1.439457E+0	1.442215E+0	1.385373E+0	1.438157E+0	1.432657E+0	1.285916E+0	1.447849E+0	1.488334E+0	1.437839E+0	1.301251E+0	1.363113E+0	1.451330E+0	1.407506E+0	1.340966E+0	1.391407E+0	1.443738E+0	1.429455E+0	1.430643E+0	1.464589E+0	1.539945E+0	1.436708E+0	1.336731E+0	1.440202E+0	1.438373E+0	1.446257E+0	1.285592E+0	1.427599E+0	1.475762E+0	1.467975E+0	1.310061E+0	1.407027E+0	1.459799E+0	1.451964E+0	1.339888E+0	1.391431E+0	1.474591E+0	1.345121E+0	1.323131E+0	1.456333E+0	1.454080E+0	1.404650E+0	1.254357E+0	1.301125E+0	1.466159E+0	1.495774E+0	1.272461E+0	1.376606E+0	1.477063E+0
5.505170E+2	1.252053E+0	1.375928E+0	1.434755E+0	1.436493E+0	1.214080E+0	1.236019E+0	1.431159E+0	1.454018E+0	1.351639E+0	1.324300E+0	1.428536E+0	1.336602E+0	1.415936E+0	1.364104E+0	1.477870E+0	1.427024E+0	1.304044E+0	1.292671E+0	1.419574E+0	1.384337E+0	1.275938E+0	1.210129E+0	1.440070E+0	1.447403E+0	1.383551E+0	1.290919E+0	1.402358E+0	1.378411E+0	1.384779E+0	1.347408E+0	1.468807E+0	1.440185E+0	1.289881E+0	1.397936E+0	1.448888E+0	1.455123E+0	1.232037E+0	1.197833E+0	1.452444E+0	1.373628E+0	1.309604E+0	1.293800E+0	1.368556E+0	1.431913E+0	1.456112E+0	1.378825E+0	1.402575E+0	1.442971E+0	1.337125E+0	1.397038E+0	1.448036E+0	1.392430E+0	1.328677E+0	1.170941E+0	1.454532E+0	1.404591E+0	1.425655E+0	1.307508E+0	1.382074E+0	1.416183E+0	1.417634E+0	1.391920E+0	1.369954E+0	1.406972E+0	1.063898E+0	1.358834E+0	1.419121E+0	1.436214E+0	1.205289E+0	1.244967E+0	1.433365E+0	1.419201E+0	1.350185E+0	1.287392E+0	1.391572E+0	1.446339E+0	1.419590E+0	1.363633E+0	1.368024E+0	1.436961E+0	1.289452E+0	1.397031E+0	1.364694E+0	1.431023E+0	1.151854E+0	1.317497E+0	1.439116E+0	1.420274E+0	1.210741E+0	1.353003E+0	1.440239E+0	1.389739E+0	1.316205E+0	1.396529E+0	1.387247E+0	1.404107E+0	1.372243E+0	1.354878E+0	1.407320E+0	1.424431E+0	1.247975E+0	1.231287E+0	1.425572E+0	1.456223E+0	1.220122E+0	1.320052E+0	1.388672E+0	1.458866E+0	1.346028E+0	1.359994E+0	1.437673E+0	1.395662E+0	1.342860E+0	1.346307E+0	1.426501E+0	1.423110E+0	1.227396E+0	1.242482E+0	1.429186E+0	1.406185E+0	1.271908E+0	1.310663E+0	1.343340E+0	1.393919E+0	1.363080E+0	1.388513E+0	1.417290E+0	1.442286E+0	1.257209E+0	1.409430E+0	1.386338E+0	1.397959E+0	1.261393E+0	1.321521E+0	1.402234E+0	1.325613E+0	1.334093E+0	1.377547E+0	1.369112E+0	1.410933E+0	1.344540E+0	1.365477E+0	1.432183E+0	1.411414E+0	1.339030E+0	1.428064E+0	1.418255E+0	1.394863E+0	1.200316E+0	1.388095E+0	1.412810E+0	1.411991E+0	1.258134E+0	1.419964E+0	1.425311E+0	1.434421E+0	1.333034E+0	1.367454E+0	1.394888E+0	1.406752E+0	1.266173E+0	1.380737E+0	1.423391E+0	1.423712E+0	1.186563E+0	1.252407E+0	1.370723E+0	1.449299E+0	1.267434E+0	1.268134E+0	1.513544E+0
5.512620E+2	1.271952E+0	1.290271E+0	1.331753E+0	1.374310E+0	1.208854E+0	1.173025E+0	1.383408E+0	1.369464E+0	1.339871E+0	1.254101E+0	1.327970E+0	1.344925E+0	1.348319E+0	1.312262E+0	1.404395E+0	1.371006E+0	1.316794E+0	1.313326E+0	1.399736E+0	1.399579E+0	1.247175E+0	1.184516E+0	1.432191E+0	1.406196E+0	1.321500E+0	1.268707E+0	1.322523E+0	1.442811E+0	1.354787E+0	1.343093E+0	1.436280E+0	1.396261E+0	1.253651E+0	1.362090E+0	1.416098E+0	1.388906E+0	1.200662E+0	1.182372E+0	1.396045E+0	1.385969E+0	1.262367E+0	1.251557E+0	1.383061E+0	1.385762E+0	1.331348E+0	1.273235E+0	1.374270E+0	1.415417E+0	1.279956E+0	1.312274E+0	1.357012E+0	1.335212E+0	1.275383E+0	1.168429E+0	1.418099E+0	1.367666E+0	1.391926E+0	1.228088E+0	1.332934E+0	1.371054E+0	1.331245E+0	1.350622E+0	1.360275E+0	1.369719E+0	1.038624E+0	1.286062E+0	1.378006E+0	1.365365E+0	1.169785E+0	1.184703E+0	1.406209E+0	1.402725E+0	1.317483E+0	1.287961E+0	1.372749E+0	1.405967E+0	1.314395E+0	1.374284E+0	1.341063E+0	1.357107E+0	1.260597E+0	1.309691E+0	1.307606E+0	1.327058E+0	1.182711E+0	1.273066E+0	1.378524E+0	1.358129E+0	1.234229E+0	1.271219E+0	1.361358E+0	1.370892E+0	1.267831E+0	1.325277E+0	1.375518E+0	1.386654E+0	1.355081E+0	1.266472E+0	1.401279E+0	1.376950E+0	1.186752E+0	1.236351E+0	1.361344E+0	1.367259E+0	1.165034E+0	1.317781E+0	1.351849E+0	1.365662E+0	1.296141E+0	1.322394E+0	1.363987E+0	1.370747E+0	1.227401E+0	1.369070E+0	1.399797E+0	1.352263E+0	1.193078E+0	1.241399E+0	1.367929E+0	1.344447E+0	1.203195E+0	1.281772E+0	1.340509E+0	1.384811E+0	1.301532E+0	1.381715E+0	1.340080E+0	1.400727E+0	1.297975E+0	1.335544E+0	1.373802E+0	1.385242E+0	1.231621E+0	1.287123E+0	1.375971E+0	1.382109E+0	1.275662E+0	1.328462E+0	1.388899E+0	1.406301E+0	1.324995E+0	1.356118E+0	1.382909E+0	1.358912E+0	1.267708E+0	1.322880E+0	1.407013E+0	1.326723E+0	1.241269E+0	1.356818E+0	1.374073E+0	1.315331E+0	1.241365E+0	1.319283E+0	1.370892E+0	1.355172E+0	1.376792E+0	1.389797E+0	1.388553E+0	1.343161E+0	1.299778E+0	1.306270E+0	1.431346E+0	1.346311E+0	1.175103E+0	1.239449E+0	1.377042E+0	1.333439E+0	1.213817E+0	1.251543E+0	1.335692E+0
5.520260E+2	1.235395E+0	1.267813E+0	1.364144E+0	1.366824E+0	1.153446E+0	1.159840E+0	1.353790E+0	1.319810E+0	1.265332E+0	1.271783E+0	1.301959E+0	1.374556E+0	1.331930E+0	1.296610E+0	1.342654E+0	1.341274E+0	1.255815E+0	1.226234E+0	1.295143E+0	1.360627E+0	1.242288E+0	1.197778E+0	1.313468E+0	1.294498E+0	1.288128E+0	1.221866E+0	1.336892E+0	1.311328E+0	1.268414E+0	1.285392E+0	1.333822E+0	1.367539E+0	1.239365E+0	1.318974E+0	1.413451E+0	1.307972E+0	1.137914E+0	1.148064E+0	1.398216E+0	1.335718E+0	1.242889E+0	1.241395E+0	1.306303E+0	1.345804E+0	1.310739E+0	1.336033E+0	1.349230E+0	1.329605E+0	1.301073E+0	1.306768E+0	1.341840E+0	1.341690E+0	1.265234E+0	1.125234E+0	1.360449E+0	1.289073E+0	1.298646E+0	1.183910E+0	1.282563E+0	1.351062E+0	1.315343E+0	1.222248E+0	1.338771E+0	1.322931E+0	1.014783E+0	1.225616E+0	1.388438E+0	1.343650E+0	1.110122E+0	1.220964E+0	1.318518E+0	1.390610E+0	1.247991E+0	1.225604E+0	1.310570E+0	1.335910E+0	1.280947E+0	1.270449E+0	1.340023E+0	1.331473E+0	1.249998E+0	1.283490E+0	1.309302E+0	1.328106E+0	1.122012E+0	1.228123E+0	1.318473E+0	1.292072E+0	1.215635E+0	1.268616E+0	1.340362E+0	1.352042E+0	1.319108E+0	1.280487E+0	1.384580E+0	1.323450E+0	1.279332E+0	1.292405E+0	1.299768E+0	1.346933E+0	1.216590E+0	1.211031E+0	1.357901E+0	1.314313E+0	1.180626E+0	1.268929E+0	1.400569E+0	1.375474E+0	1.279159E+0	1.349933E+0	1.339035E+0	1.341763E+0	1.263780E+0	1.287034E+0	1.283500E+0	1.343927E+0	1.147159E+0	1.215391E+0	1.352758E+0	1.276379E+0	1.211341E+0	1.222466E+0	1.336548E+0	1.368416E+0	1.295844E+0	1.313216E+0	1.342167E+0	1.345989E+0	1.258933E+0	1.270524E+0	1.324795E+0	1.315311E+0	1.172556E+0	1.250158E+0	1.286911E+0	1.303843E+0	1.193174E+0	1.330193E+0	1.379854E+0	1.272605E+0	1.256320E+0	1.315375E+0	1.342836E+0	1.322642E+0	1.295317E+0	1.315364E+0	1.355539E+0	1.335961E+0	1.208026E+0	1.276713E+0	1.335941E+0	1.305295E+0	1.182947E+0	1.311973E+0	1.336944E+0	1.334001E+0	1.262913E+0	1.296072E+0	1.341576E+0	1.345119E+0	1.264465E+0	1.306836E+0	1.282451E+0	1.291439E+0	1.128797E+0	1.153932E+0	1.288558E+0	1.362722E+0	1.145957E+0	1.186460E+0	1.308329E+0
5.527650E+2	1.236320E+0	1.266769E+0	1.279928E+0	1.300036E+0	1.237603E+0	1.098802E+0	1.298789E+0	1.321780E+0	1.328102E+0	1.263981E+0	1.302539E+0	1.264340E+0	1.286339E+0	1.276557E+0	1.302346E+0	1.275347E+0	1.233085E+0	1.207252E+0	1.238641E+0	1.293442E+0	1.183134E+0	1.112710E+0	1.304466E+0	1.261239E+0	1.244849E+0	1.196270E+0	1.346474E+0	1.337628E+0	1.245661E+0	1.216366E+0	1.331653E+0	1.316436E+0	1.189870E+0	1.246243E+0	1.287035E+0	1.268028E+0	1.127619E+0	1.137436E+0	1.290845E+0	1.280611E+0	1.197602E+0	1.218938E+0	1.328059E+0	1.300782E+0	1.296256E+0	1.264898E+0	1.303506E+0	1.292118E+0	1.253174E+0	1.262186E+0	1.308467E+0	1.214298E+0	1.196712E+0	1.081536E+0	1.263647E+0	1.281021E+0	1.242783E+0	1.181281E+0	1.274578E+0	1.258521E+0	1.309513E+0	1.252104E+0	1.234467E+0	1.300217E+0	1.060082E+0	1.254371E+0	1.311117E+0	1.348222E+0	1.094344E+0	1.125462E+0	1.321914E+0	1.327618E+0	1.215797E+0	1.243747E+0	1.304298E+0	1.304443E+0	1.235092E+0	1.268318E+0	1.298027E+0	1.237322E+0	1.175214E+0	1.230540E+0	1.274825E+0	1.292928E+0	1.116954E+0	1.118827E+0	1.229206E+0	1.249011E+0	1.122171E+0	1.253511E+0	1.315393E+0	1.322339E+0	1.195271E+0	1.287614E+0	1.290198E+0	1.293266E+0	1.211274E+0	1.254093E+0	1.302786E+0	1.247601E+0	1.135306E+0	1.144176E+0	1.289085E+0	1.291936E+0	1.166595E+0	1.205310E+0	1.284440E+0	1.273072E+0	1.190528E+0	1.276322E+0	1.310608E+0	1.308713E+0	1.148849E+0	1.223522E+0	1.316134E+0	1.257003E+0	1.111872E+0	1.187219E+0	1.327091E+0	1.296958E+0	1.136521E+0	1.206246E+0	1.273163E+0	1.297377E+0	1.214125E+0	1.327857E+0	1.335907E+0	1.253748E+0	1.195779E+0	1.240378E+0	1.283771E+0	1.271962E+0	1.173034E+0	1.207542E+0	1.265787E+0	1.272744E+0	1.194321E+0	1.274178E+0	1.340844E+0	1.320065E+0	1.255790E+0	1.292249E+0	1.295182E+0	1.231956E+0	1.233773E+0	1.248901E+0	1.267378E+0	1.255693E+0	1.102994E+0	1.215263E+0	1.271779E+0	1.315859E+0	1.224599E+0	1.347972E+0	1.327788E+0	1.318272E+0	1.242878E+0	1.283539E+0	1.296708E+0	1.316258E+0	1.169349E+0	1.227289E+0	1.321665E+0	1.243496E+0	1.131660E+0	1.164816E+0	1.347338E+0	1.222033E+0	1.112447E+0	1.181355E+0	1.169239E+0
5.535440E+2	1.253906E+0	1.200961E+0	1.246242E+0	1.207339E+0	1.238126E+0	1.086106E+0	1.206915E+0	1.272128E+0	1.261411E+0	1.149584E+0	1.218154E+0	1.216509E+0	1.271996E+0	1.175802E+0	1.239587E+0	1.270606E+0	1.218115E+0	1.165380E+0	1.155688E+0	1.249973E+0	1.251516E+0	1.077496E+0	1.225129E+0	1.263224E+0	1.205742E+0	1.088586E+0	1.281542E+0	1.224390E+0	1.235835E+0	1.212590E+0	1.237325E+0	1.261952E+0	1.191402E+0	1.171954E+0	1.253187E+0	1.230190E+0	1.198700E+0	1.076554E+0	1.271864E+0	1.258571E+0	1.178610E+0	1.147821E+0	1.234377E+0	1.259699E+0	1.255597E+0	1.185984E+0	1.269212E+0	1.241080E+0	1.181583E+0	1.218701E+0	1.219262E+0	1.223474E+0	1.145953E+0	1.031309E+0	1.236452E+0	1.215684E+0	1.211688E+0	1.101862E+0	1.237722E+0	1.219676E+0	1.177018E+0	1.206325E+0	1.238230E+0	1.193466E+0	1.133991E+0	1.164582E+0	1.238708E+0	1.217948E+0	1.034187E+0	1.102480E+0	1.259114E+0	1.237488E+0	1.144263E+0	1.119039E+0	1.258661E+0	1.235573E+0	1.215129E+0	1.211341E+0	1.239433E+0	1.233377E+0	1.159904E+0	1.192328E+0	1.211519E+0	1.197365E+0	1.028944E+0	1.116784E+0	1.238404E+0	1.234330E+0	1.060514E+0	1.143598E+0	1.189414E+0	1.210959E+0	1.156571E+0	1.180733E+0	1.210746E+0	1.253175E+0	1.199437E+0	1.199869E+0	1.277411E+0	1.267247E+0	1.113697E+0	1.118344E+0	1.223140E+0	1.181689E+0	1.094874E+0	1.191679E+0	1.257813E+0	1.281656E+0	1.179383E+0	1.269969E+0	1.273473E+0	1.235489E+0	1.130924E+0	1.229346E+0	1.230096E+0	1.162338E+0	1.052902E+0	1.098365E+0	1.248334E+0	1.247358E+0	1.088167E+0	1.121088E+0	1.205250E+0	1.229982E+0	1.181540E+0	1.221187E+0	1.256089E+0	1.202055E+0	1.143532E+0	1.211415E+0	1.238185E+0	1.258671E+0	1.128376E+0	1.189571E+0	1.217260E+0	1.216250E+0	1.127870E+0	1.197372E+0	1.248690E+0	1.228618E+0	1.223568E+0	1.197544E+0	1.220996E+0	1.196638E+0	1.150949E+0	1.251792E+0	1.225958E+0	1.227396E+0	1.079869E+0	1.214715E+0	1.237275E+0	1.264096E+0	1.109383E+0	1.196671E+0	1.260972E+0	1.233578E+0	1.206497E+0	1.212697E+0	1.202224E+0	1.190551E+0	1.164224E+0	1.235751E+0	1.243239E+0	1.214616E+0	1.078669E+0	1.103139E+0	1.238627E+0	1.216940E+0	1.029508E+0	1.172422E+0	1.109955E+0
5.542580E+2	1.130809E+0	1.100161E+0	1.234581E+0	1.163005E+0	1.142991E+0	1.012371E+0	1.189992E+0	1.165941E+0	1.174543E+0	1.054946E+0	1.151108E+0	1.122408E+0	1.210527E+0	1.123471E+0	1.127333E+0	1.162017E+0	1.152145E+0	1.085543E+0	1.157491E+0	1.204244E+0	1.210270E+0	9.919713E-1	1.195871E+0	1.144077E+0	1.161416E+0	1.043675E+0	1.153811E+0	1.173404E+0	1.162911E+0	1.112287E+0	1.164141E+0	1.169036E+0	1.225078E+0	1.126759E+0	1.151628E+0	1.160816E+0	1.163893E+0	9.828199E-1	1.141716E+0	1.118827E+0	1.168384E+0	1.051571E+0	1.150968E+0	1.139823E+0	1.124147E+0	1.149306E+0	1.182114E+0	1.151654E+0	1.163558E+0	1.117423E+0	1.096686E+0	1.185150E+0	1.167780E+0	9.424052E-1	1.159768E+0	1.165026E+0	1.142120E+0	1.038219E+0	1.146810E+0	1.129989E+0	1.164828E+0	1.123230E+0	1.116726E+0	1.127143E+0	1.195983E+0	1.100614E+0	1.175503E+0	1.137384E+0	1.168307E+0	9.972762E-1	1.155582E+0	1.160442E+0	1.143241E+0	1.052150E+0	1.154271E+0	1.197574E+0	1.108854E+0	1.226250E+0	1.137289E+0	1.165846E+0	1.097487E+0	1.113723E+0	1.134083E+0	1.103378E+0	1.048670E+0	1.051412E+0	1.142104E+0	1.153593E+0	1.109448E+0	1.117032E+0	1.166713E+0	1.140702E+0	1.111582E+0	1.122714E+0	1.155823E+0	1.157430E+0	1.143808E+0	1.092011E+0	1.169858E+0	1.129713E+0	1.011318E+0	1.013506E+0	1.105007E+0	1.157675E+0	1.030951E+0	1.079776E+0	1.127522E+0	1.176801E+0	1.061563E+0	1.140222E+0	1.164974E+0	1.120569E+0	1.092964E+0	1.065804E+0	1.211701E+0	1.144477E+0	1.026316E+0	1.050146E+0	1.170740E+0	1.163986E+0	1.035233E+0	1.072427E+0	1.152617E+0	1.123727E+0	1.146371E+0	1.102488E+0	1.167923E+0	1.160495E+0	1.095306E+0	1.186588E+0	1.112824E+0	1.128629E+0	1.043380E+0	1.095099E+0	1.146468E+0	1.141612E+0	1.089490E+0	1.104396E+0	1.176326E+0	1.170740E+0	1.123729E+0	1.183779E+0	1.172803E+0	1.134114E+0	1.073302E+0	1.154697E+0	1.095788E+0	1.097464E+0	1.037474E+0	1.140095E+0	1.210643E+0	1.098244E+0	1.014184E+0	1.105553E+0	1.144586E+0	1.139811E+0	1.120033E+0	1.110254E+0	1.168970E+0	1.148970E+0	1.097585E+0	1.128563E+0	1.164811E+0	1.104869E+0	9.898680E-1	1.084483E+0	1.149511E+0	1.195296E+0	9.901332E-1	1.093300E+0	1.162397E+0
5.550190E+2	1.084070E+0	1.019208E+0	1.101131E+0	1.060519E+0	1.074516E+0	9.176377E-1	1.055205E+0	1.059265E+0	1.126907E+0	1.046626E+0	1.049385E+0	1.053261E+0	1.076835E+0	1.006087E+0	1.041102E+0	1.069374E+0	1.082293E+0	1.057629E+0	1.105795E+0	1.065363E+0	1.060482E+0	9.192513E-1	1.085025E+0	1.045287E+0	1.017497E+0	9.857271E-1	1.038319E+0	1.069291E+0	1.066199E+0	9.742351E-1	1.082822E+0	1.057535E+0	1.041387E+0	1.023897E+0	1.048486E+0	1.054657E+0	1.031538E+0	9.055123E-1	1.100504E+0	1.081800E+0	9.921000E-1	9.735013E-1	1.024042E+0	1.064409E+0	1.060650E+0	1.078173E+0	1.079778E+0	1.080293E+0	1.068787E+0	1.032108E+0	1.022048E+0	1.078270E+0	1.026168E+0	9.177941E-1	1.014019E+0	1.039559E+0	1.074135E+0	1.002981E+0	1.054056E+0	1.046588E+0	1.093278E+0	1.070490E+0	1.053823E+0	1.088529E+0	1.043393E+0	9.720916E-1	1.087751E+0	1.055678E+0	1.038625E+0	9.370133E-1	1.036774E+0	1.088244E+0	1.044114E+0	9.665559E-1	1.067565E+0	1.052115E+0	1.080261E+0	1.068632E+0	1.078179E+0	1.079091E+0	1.062155E+0	1.036756E+0	1.048169E+0	1.069251E+0	1.052717E+0	1.024855E+0	1.029575E+0	1.046431E+0	1.076662E+0	1.021705E+0	1.059459E+0	1.045314E+0	1.059823E+0	1.039246E+0	1.077438E+0	1.039986E+0	1.078118E+0	1.005370E+0	1.124539E+0	1.061491E+0	1.087460E+0	9.309513E-1	1.046514E+0	1.052336E+0	1.076685E+0	9.508334E-1	1.056145E+0	1.065202E+0	1.108267E+0	1.052310E+0	1.095348E+0	1.016328E+0	1.028645E+0	1.044634E+0	1.010549E+0	1.068270E+0	1.008432E+0	9.629173E-1	1.055228E+0	1.136547E+0	1.035232E+0	1.000958E+0	1.092061E+0	1.060582E+0	1.072410E+0	1.012027E+0	1.062545E+0	1.061157E+0	1.014927E+0	1.024038E+0	1.009117E+0	1.076612E+0	9.780700E-1	1.010897E+0	1.024295E+0	1.042098E+0	9.709128E-1	1.057043E+0	1.046296E+0	1.088553E+0	1.047131E+0	1.061545E+0	1.003309E+0	1.059660E+0	1.045694E+0	1.032750E+0	1.028335E+0	1.041449E+0	9.512325E-1	1.057245E+0	1.026633E+0	1.088208E+0	9.909246E-1	1.008249E+0	1.051907E+0	1.108959E+0	1.026186E+0	1.072655E+0	1.079763E+0	1.054567E+0	1.000759E+0	1.060301E+0	1.038645E+0	1.002631E+0	9.273270E-1	9.735672E-1	1.074299E+0	1.092166E+0	9.264631E-1	9.516480E-1	1.043831E+0
5.557660E+2	9.822605E-1	9.607133E-1	1.023393E+0	9.833666E-1	1.033222E+0	8.351130E-1	1.034655E+0	1.021412E+0	1.013700E+0	9.582280E-1	1.002569E+0	9.586396E-1	1.039443E+0	9.664693E-1	9.824252E-1	9.775923E-1	1.008008E+0	9.225208E-1	1.009017E+0	9.868902E-1	1.002955E+0	8.497337E-1	9.831822E-1	1.018479E+0	9.799528E-1	8.736943E-1	9.824380E-1	1.006500E+0	9.881050E-1	9.267800E-1	9.657265E-1	1.009385E+0	1.010262E+0	9.044126E-1	9.395252E-1	9.947446E-1	9.580049E-1	8.615432E-1	9.915042E-1	9.742365E-1	9.755432E-1	8.719049E-1	9.799203E-1	1.010380E+0	1.019433E+0	9.464646E-1	1.006834E+0	9.664766E-1	9.904998E-1	9.055106E-1	9.407337E-1	9.897442E-1	1.013479E+0	8.434567E-1	9.955284E-1	9.780112E-1	9.871761E-1	9.230346E-1	9.742011E-1	9.763248E-1	9.602506E-1	9.197254E-1	9.446832E-1	9.713312E-1	9.766350E-1	9.398144E-1	1.006750E+0	9.722563E-1	9.705792E-1	8.782828E-1	1.028854E+0	9.704950E-1	9.669575E-1	9.399138E-1	1.012803E+0	9.695888E-1	9.459327E-1	9.690561E-1	9.625522E-1	1.004162E+0	9.967940E-1	9.237607E-1	9.577339E-1	9.994165E-1	9.910077E-1	8.665323E-1	9.559979E-1	1.012179E+0	1.011092E+0	9.216898E-1	1.002711E+0	9.944782E-1	9.969379E-1	9.445806E-1	9.985186E-1	9.876324E-1	9.609412E-1	9.523249E-1	9.982541E-1	9.588847E-1	9.984565E-1	8.509289E-1	1.014974E+0	9.791993E-1	1.009123E+0	9.190244E-1	9.791034E-1	1.027184E+0	1.023352E+0	9.977638E-1	1.052993E+0	9.807343E-1	1.010193E+0	9.064987E-1	9.927477E-1	9.747956E-1	9.528460E-1	8.957351E-1	1.013807E+0	1.006742E+0	9.894245E-1	9.522967E-1	1.002641E+0	9.895433E-1	9.963798E-1	9.215660E-1	1.016636E+0	9.891879E-1	1.005167E+0	9.353741E-1	1.019944E+0	1.007835E+0	9.747091E-1	9.266932E-1	1.004313E+0	9.627967E-1	9.691944E-1	1.014309E+0	1.027074E+0	9.832154E-1	9.768745E-1	9.657397E-1	1.014680E+0	9.565680E-1	9.973793E-1	9.940284E-1	1.030110E+0	9.045888E-1	9.603864E-1	1.034749E+0	9.648928E-1	9.878513E-1	9.671247E-1	9.570657E-1	9.753936E-1	1.035155E+0	9.882251E-1	9.909181E-1	9.963637E-1	9.743469E-1	9.381079E-1	9.091098E-1	1.029553E+0	9.731731E-1	9.220758E-1	8.797574E-1	1.038905E+0	9.591154E-1	9.448937E-1	9.108114E-1	9.184196E-1
5.560240E+2	9.623621E-1	9.204970E-1	9.812849E-1	9.891242E-1	9.861775E-1	8.321828E-1	9.814647E-1	9.953571E-1	9.733480E-1	9.031088E-1	9.748256E-1	9.477212E-1	9.820720E-1	9.772298E-1	9.666076E-1	9.961219E-1	9.913761E-1	9.007470E-1	9.711467E-1	9.750345E-1	9.649650E-1	8.620822E-1	9.685529E-1	9.926639E-1	9.976824E-1	9.089464E-1	9.643411E-1	9.726895E-1	9.529374E-1	9.386436E-1	9.581371E-1	9.996727E-1	1.005671E+0	9.631158E-1	9.696745E-1	9.600588E-1	9.820255E-1	8.499472E-1	1.003434E+0	9.918684E-1	9.628822E-1	8.911547E-1	9.805241E-1	1.009817E+0	9.821139E-1	9.564677E-1	9.801616E-1	9.768663E-1	9.930760E-1	9.011068E-1	1.022048E+0	9.886646E-1	9.642447E-1	8.283881E-1	1.011300E+0	9.945817E-1	9.803246E-1	9.146199E-1	9.619155E-1	9.540462E-1	9.846301E-1	8.625047E-1	9.500597E-1	1.007216E+0	9.575617E-1	9.550726E-1	1.029455E+0	9.574011E-1	9.868513E-1	8.900285E-1	1.001131E+0	1.007806E+0	1.004258E+0	8.356140E-1	9.985420E-1	9.779011E-1	9.799198E-1	9.509514E-1	9.998848E-1	1.028317E+0	1.001505E+0	8.970126E-1	9.441680E-1	1.029345E+0	1.004665E+0	9.079002E-1	9.646544E-1	9.901593E-1	1.007667E+0	9.784692E-1	9.493677E-1	1.012756E+0	9.756518E-1	9.461077E-1	9.830548E-1	9.706536E-1	9.662672E-1	9.423051E-1	9.668339E-1	9.736208E-1	1.014405E+0	8.423187E-1	1.007519E+0	1.013584E+0	9.285696E-1	9.036880E-1	9.955313E-1	9.854881E-1	9.363137E-1	9.151500E-1	9.711828E-1	9.863288E-1	9.411286E-1	9.266096E-1	1.034877E+0	9.777726E-1	1.006499E+0	9.374534E-1	9.729690E-1	1.020990E+0	9.894252E-1	9.173218E-1	9.981131E-1	1.023545E+0	1.002069E+0	9.963399E-1	1.000464E+0	9.760105E-1	9.322527E-1	9.814790E-1	1.029631E+0	9.471483E-1	9.737487E-1	9.446631E-1	9.809066E-1	9.493207E-1	9.772142E-1	1.036831E+0	9.914568E-1	9.936339E-1	1.005928E+0	9.156354E-1	9.626961E-1	9.885456E-1	9.565430E-1	9.373891E-1	9.821837E-1	1.017196E+0	9.844759E-1	9.475101E-1	9.503653E-1	9.931339E-1	9.893022E-1	9.756270E-1	9.673114E-1	9.976479E-1	9.650272E-1	9.871032E-1	9.472739E-1	9.900000E-1	9.648770E-1	9.824488E-1	1.028416E+0	1.025158E+0	9.765014E-1	8.745742E-1	1.052177E+0	9.291956E-1	9.541089E-1	8.533834E-1	9.549020E-1
5.565200E+2	1.005862E+0	8.964723E-1	9.968326E-1	9.436390E-1	9.307693E-1	8.307179E-1	9.965751E-1	1.058773E+0	1.001370E+0	9.285882E-1	9.713580E-1	9.695571E-1	9.523621E-1	9.312544E-1	9.819147E-1	9.819015E-1	1.014106E+0	8.918148E-1	1.002405E+0	9.823737E-1	9.769048E-1	7.975960E-1	9.657400E-1	9.455018E-1	9.564879E-1	9.060485E-1	1.026079E+0	9.963032E-1	9.906905E-1	8.998166E-1	9.706054E-1	9.646176E-1	9.934237E-1	9.412970E-1	9.696746E-1	9.737224E-1	9.227097E-1	8.813535E-1	9.752359E-1	9.909878E-1	9.838216E-1	9.007797E-1	9.587662E-1	9.771758E-1	9.965962E-1	9.731395E-1	9.730848E-1	1.046871E+0	1.004406E+0	9.280782E-1	9.953476E-1	9.233498E-1	9.449569E-1	8.394390E-1	9.987916E-1	9.500773E-1	9.855949E-1	8.283627E-1	9.699014E-1	9.506190E-1	9.385211E-1	9.645071E-1	9.505973E-1	1.027659E+0	9.499321E-1	9.280773E-1	9.484540E-1	9.899698E-1	9.745238E-1	8.685789E-1	9.790673E-1	9.700114E-1	9.700231E-1	9.030691E-1	9.757251E-1	9.826505E-1	9.567222E-1	9.855643E-1	9.573672E-1	9.459962E-1	9.985603E-1	8.970129E-1	9.588644E-1	9.558363E-1	1.027932E+0	8.874715E-1	9.257020E-1	9.705877E-1	9.993475E-1	9.289830E-1	9.448285E-1	9.584935E-1	9.954868E-1	9.262582E-1	1.008650E+0	9.598050E-1	9.455542E-1	8.833663E-1	1.014569E+0	9.856282E-1	9.722188E-1	8.559932E-1	1.017841E+0	9.879315E-1	9.462400E-1	8.997115E-1	9.581434E-1	9.910065E-1	9.628498E-1	9.734034E-1	1.022821E+0	9.868363E-1	9.421825E-1	8.842694E-1	9.512121E-1	9.813451E-1	9.774962E-1	8.800236E-1	9.449664E-1	9.661124E-1	9.985857E-1	8.564952E-1	9.567994E-1	9.555417E-1	9.989654E-1	9.660116E-1	9.759445E-1	9.810781E-1	9.431608E-1	9.655194E-1	9.772070E-1	9.864496E-1	9.790304E-1	9.138575E-1	9.637794E-1	9.394732E-1	9.829423E-1	9.432784E-1	1.005590E+0	1.006367E+0	9.525751E-1	9.717964E-1	9.626959E-1	9.465453E-1	9.691970E-1	9.368110E-1	9.153231E-1	9.242231E-1	9.464151E-1	9.551916E-1	1.016948E+0	9.281659E-1	9.530613E-1	9.486291E-1	9.996407E-1	1.007327E+0	9.845344E-1	9.734809E-1	1.012727E+0	9.557596E-1	1.014429E+0	9.452150E-1	9.766995E-1	9.893466E-1	9.784104E-1	8.839039E-1	1.047753E+0	9.514768E-1	9.683515E-1	9.490954E-1	1.030147E+0
5.570560E+2	9.961441E-1	9.842160E-1	9.722161E-1	1.013882E+0	1.036880E+0	9.098246E-1	9.778374E-1	1.005189E+0	1.017062E+0	9.519875E-1	9.424591E-1	9.913931E-1	1.000000E+0	9.742951E-1	1.039572E+0	9.909520E-1	1.026302E+0	9.850500E-1	9.771583E-1	1.020763E+0	1.004583E+0	8.584240E-1	1.006252E+0	9.767772E-1	9.987254E-1	8.814208E-1	9.398594E-1	1.013477E+0	9.974143E-1	9.774709E-1	1.015601E+0	1.062180E+0	1.014344E+0	9.423358E-1	1.026800E+0	1.005256E+0	1.001144E+0	8.523630E-1	9.828277E-1	1.032865E+0	9.794386E-1	9.162869E-1	9.811294E-1	9.929338E-1	1.017762E+0	9.981473E-1	1.036229E+0	9.822853E-1	1.012132E+0	9.660574E-1	1.042680E+0	1.055599E+0	9.901308E-1	8.464706E-1	9.971598E-1	9.936343E-1	9.956082E-1	8.898995E-1	1.016586E+0	1.005458E+0	1.012190E+0	9.371403E-1	1.043070E+0	1.028569E+0	1.014304E+0	9.269032E-1	1.036819E+0	1.020824E+0	1.000658E+0	8.987103E-1	9.903822E-1	1.034459E+0	9.873956E-1	9.195076E-1	1.024212E+0	1.008180E+0	1.003657E+0	9.275217E-1	9.946998E-1	1.006135E+0	1.043902E+0	9.537830E-1	1.000125E+0	1.002042E+0	1.040577E+0	8.941109E-1	1.017132E+0	9.882019E-1	1.027729E+0	9.967008E-1	9.794447E-1	1.030463E+0	1.006126E+0	1.000057E+0	1.022514E+0	9.682940E-1	1.003551E+0	9.529141E-1	1.036925E+0	9.621595E-1	1.038585E+0	8.929657E-1	9.840071E-1	1.017951E+0	1.012761E+0	9.928681E-1	1.023289E+0	9.793559E-1	9.851401E-1	9.606937E-1	1.012958E+0	9.914123E-1	1.057114E+0	9.864157E-1	1.028943E+0	9.884895E-1	1.014716E+0	8.941103E-1	1.030142E+0	9.898571E-1	9.970592E-1	9.528035E-1	1.024147E+0	1.002294E+0	1.016551E+0	9.581683E-1	1.028634E+0	9.755038E-1	9.913877E-1	1.000394E+0	1.010257E+0	9.824041E-1	9.876747E-1	9.667409E-1	1.047702E+0	9.923407E-1	1.008720E+0	9.571378E-1	1.000502E+0	9.930542E-1	1.040793E+0	9.492217E-1	9.708184E-1	9.957048E-1	9.881772E-1	9.824691E-1	1.017685E+0	9.808153E-1	9.647226E-1	9.700060E-1	9.915258E-1	1.004226E+0	1.020134E+0	9.992504E-1	1.027660E+0	9.915979E-1	1.016696E+0	1.066117E+0	1.040175E+0	1.000761E+0	9.962024E-1	9.982450E-1	9.715847E-1	1.002631E+0	1.012783E+0	9.150010E-1	9.971907E-1	1.027233E+0	9.650000E-1	8.623162E-1	9.936677E-1
5.575360E+2	1.021133E+0	1.056290E+0	9.903549E-1	1.029429E+0	1.012835E+0	1.037763E+0	1.062458E+0	1.009122E+0	1.021546E+0	1.031546E+0	1.057476E+0	1.089134E+0	1.031246E+0	9.875008E-1	1.021204E+0	1.043953E+0	1.010780E+0	1.018548E+0	1.004208E+0	1.030925E+0	1.045286E+0	1.011636E+0	1.065332E+0	9.976278E-1	1.029491E+0	9.823477E-1	1.059075E+0	1.039773E+0	1.030514E+0	9.893343E-1	1.012348E+0	9.941813E-1	1.031693E+0	9.719472E-1	9.977077E-1	1.025752E+0	1.033498E+0	9.277380E-1	1.086404E+0	9.879013E-1	1.032031E+0	9.831266E-1	1.027064E+0	9.906828E-1	1.035028E+0	1.005372E+0	1.007923E+0	1.029710E+0	1.013677E+0	9.666076E-1	1.031150E+0	1.029688E+0	1.024137E+0	8.771097E-1	1.049369E+0	9.917405E-1	1.056215E+0	9.477549E-1	1.002457E+0	1.007744E+0	1.040811E+0	9.943608E-1	1.059738E+0	9.985869E-1	9.923707E-1	9.615281E-1	1.034977E+0	1.020252E+0	1.069196E+0	8.905395E-1	1.034511E+0	9.840630E-1	1.043603E+0	9.489835E-1	9.831403E-1	1.025398E+0	1.038183E+0	9.999411E-1	1.034106E+0	1.032260E+0	1.020348E+0	9.319482E-1	1.026691E+0	1.038796E+0	1.017816E+0	9.079002E-1	1.027411E+0	1.052792E+0	9.694981E-1	9.873249E-1	1.058892E+0	1.055024E+0	1.069497E+0	9.995476E-1	1.008117E+0	1.016404E+0	1.039650E+0	9.865093E-1	9.704594E-1	1.054941E+0	9.773634E-1	8.894202E-1	1.023002E+0	9.950273E-1	9.987298E-1	8.911912E-1	1.013659E+0	1.014307E+0	1.012737E+0	9.659893E-1	1.018180E+0	1.047346E+0	1.066604E+0	9.890626E-1	1.066919E+0	1.043263E+0	1.032602E+0	9.564162E-1	1.007390E+0	1.033126E+0	1.041848E+0	9.629410E-1	1.014526E+0	1.024152E+0	1.027412E+0	9.952941E-1	1.044285E+0	9.978037E-1	1.019521E+0	9.909369E-1	1.058692E+0	1.042512E+0	1.048181E+0	9.693077E-1	1.012877E+0	1.017738E+0	1.009293E+0	1.007379E+0	1.009548E+0	1.070611E+0	1.028115E+0	1.008687E+0	9.941038E-1	1.038660E+0	1.001981E+0	1.043153E+0	1.009993E+0	9.929420E-1	9.950753E-1	9.782363E-1	1.018764E+0	1.039614E+0	1.102352E+0	1.011061E+0	9.775493E-1	1.029105E+0	1.032513E+0	1.037236E+0	1.009032E+0	1.035001E+0	1.051450E+0	9.683447E-1	9.818143E-1	9.743285E-1	1.030927E+0	9.678667E-1	9.940310E-1	1.032326E+0	1.042074E+0	9.950376E-1	1.023309E+0
5.580170E+2	1.015580E+0	1.049501E+0	1.028575E+0	9.845187E-1	9.767680E-1	1.029461E+0	9.494297E-1	1.022395E+0	1.021546E+0	9.597873E-1	9.910097E-1	9.950324E-1	1.019977E+0	9.821208E-1	1.006407E+0	9.995694E-1	1.003573E+0	1.004032E+0	1.006612E+0	9.970522E-1	9.899299E-1	1.027187E+0	1.029321E+0	1.020961E+0	1.033663E+0	1.036432E+0	1.037256E+0	9.946931E-1	1.015516E+0	1.005513E+0	9.950004E-1	9.739082E-1	9.873006E-1	9.859734E-1	1.004055E+0	1.002628E+0	9.986934E-1	1.059162E+0	1.046817E+0	9.962794E-1	1.048590E+0	1.051571E+0	1.011349E+0	1.018823E+0	1.037813E+0	1.063724E+0	1.003568E+0	9.877048E-1	1.037369E+0	1.067335E+0	9.552975E-1	1.017814E+0	1.034289E+0	1.060944E+0	9.900899E-1	1.022989E+0	1.006676E+0	1.023493E+0	9.791148E-1	9.928912E-1	1.001060E+0	1.041134E+0	9.876945E-1	1.027205E+0	1.043392E+0	9.885235E-1	1.024546E+0	9.676854E-1	1.013971E+0	9.467167E-1	9.813305E-1	1.034941E+0	1.032872E+0	9.756254E-1	1.052734E+0	1.026585E+0	1.033328E+0	1.015383E+0	1.052254E+0	9.928249E-1	9.820728E-1	9.472326E-1	1.019343E+0	9.757889E-1	1.019839E+0	9.043256E-1	1.006853E+0	1.010221E+0	9.915183E-1	9.644046E-1	1.031653E+0	9.881952E-1	1.019189E+0	9.934404E-1	9.777225E-1	1.016404E+0	1.029590E+0	9.935824E-1	1.009131E+0	1.050030E+0	1.032411E+0	9.496905E-1	1.034471E+0	1.022317E+0	1.014840E+0	9.451535E-1	1.058978E+0	1.021053E+0	9.973466E-1	1.001471E+0	9.822067E-1	1.020904E+0	9.711796E-1	9.737132E-1	1.007582E+0	1.013495E+0	1.023900E+0	9.119886E-1	9.933882E-1	9.909126E-1	1.019964E+0	9.350629E-1	1.009999E+0	9.907574E-1	9.850006E-1	9.874503E-1	9.915949E-1	1.022131E+0	1.015502E+0	1.003941E+0	1.023932E+0	9.991649E-1	1.002082E+0	9.677677E-1	9.906115E-1	1.024476E+0	1.008148E+0	9.750396E-1	1.003895E+0	1.054984E+0	9.990612E-1	1.010340E+0	9.805662E-1	9.899774E-1	9.910532E-1	1.011944E+0	1.027743E+0	1.021238E+0	1.037472E+0	9.914043E-1	1.009685E+0	1.026938E+0	9.849749E-1	9.925009E-1	9.888641E-1	9.994616E-1	1.010896E+0	9.865588E-1	9.974194E-1	9.939128E-1	1.004746E+0	9.209562E-1	9.960220E-1	1.023426E+0	9.717266E-1	9.186289E-1	1.061658E+0	1.063519E+0	9.876196E-1	8.878407E-1	9.617442E-1
5.585160E+2	1.025761E+0	9.899603E-1	1.046715E+0	9.643666E-1	1.015449E+0	1.046064E+0	9.784422E-1	9.771678E-1	1.006414E+0	1.031546E+0	1.061522E+0	1.005950E+0	9.564599E-1	1.033476E+0	1.012529E+0	1.020684E+0	1.011888E+0	1.019665E+0	1.053499E+0	1.008343E+0	9.769041E-1	1.036335E+0	1.035510E+0	1.015003E+0	9.815173E-1	9.997313E-1	1.023950E+0	1.000596E+0	9.606944E-1	1.022230E+0	1.000422E+0	9.946032E-1	9.949541E-1	1.071171E+0	1.029444E+0	1.019445E+0	9.893791E-1	1.024375E+0	1.031633E+0	1.020964E+0	9.969701E-1	1.010397E+0	1.005305E+0	1.006441E+0	9.615053E-1	1.019266E+0	1.010645E+0	1.044161E+0	1.042005E+0	1.042566E+0	1.020227E+0	9.994599E-1	9.911467E-1	1.054413E+0	1.035773E+0	1.042400E+0	1.005622E+0	1.017182E+0	1.012285E+0	1.054014E+0	1.015900E+0	1.040138E+0	1.005973E+0	1.005854E+0	1.012875E+0	1.053665E+0	9.957046E-1	1.051678E+0	9.962197E-1	1.055497E+0	1.010749E+0	9.927854E-1	9.618478E-1	1.052150E+0	9.996832E-1	9.499961E-1	9.880116E-1	1.062242E+0	1.002477E+0	1.002683E+0	1.019170E+0	1.056952E+0	1.046474E+0	1.034595E+0	1.011240E+0	1.029963E+0	1.022001E+0	9.642253E-1	9.778168E-1	1.030560E+0	9.947665E-1	1.035604E+0	9.829090E-1	1.000057E+0	1.035312E+0	1.010273E+0	1.020713E+0	9.782579E-1	1.036925E+0	9.894481E-1	1.006688E+0	9.886884E-1	1.006372E+0	9.950273E-1	1.000809E+0	9.940041E-1	9.564434E-1	9.965256E-1	9.899167E-1	1.016829E+0	1.014119E+0	1.017345E+0	1.013356E+0	9.551895E-1	9.553649E-1	1.025998E+0	1.021967E+0	9.136147E-1	9.945549E-1	1.047900E+0	1.011821E+0	9.745994E-1	1.002641E+0	1.011401E+0	9.963795E-1	9.884959E-1	1.017157E+0	1.025172E+0	9.678489E-1	1.015762E+0	1.041597E+0	9.904961E-1	9.761492E-1	9.811171E-1	9.877573E-1	1.003225E+0	9.795047E-1	1.027591E+0	1.005025E+0	9.953698E-1	1.015437E+0	9.751006E-1	9.859811E-1	1.023385E+0	1.005432E+0	1.024081E+0	1.046086E+0	1.023548E+0	1.013865E+0	9.727494E-1	1.035107E+0	1.008451E+0	1.015806E+0	1.000937E+0	1.049752E+0	9.661900E-1	9.971880E-1	9.903734E-1	1.014311E+0	9.988047E-1	1.042907E+0	1.028145E+0	9.926121E-1	1.042487E+0	1.014215E+0	8.818305E-1	1.035745E+0	9.807602E-1	9.792422E-1	9.644087E-1	1.080313E+0
5.590160E+2	1.019744E+0	1.023909E+0	9.799897E-1	1.046701E+0	9.976766E-1	1.013347E+0	1.007455E+0	1.004206E+0	1.030512E+0	1.024786E+0	9.719362E-1	9.924323E-1	1.000000E+0	1.040324E+0	1.025286E+0	1.005169E+0	1.004682E+0	9.878414E-1	9.801635E-1	1.015682E+0	9.861305E-1	1.036334E+0	9.966866E-1	9.852172E-1	9.997681E-1	9.886252E-1	1.008515E+0	9.984496E-1	1.055855E+0	9.893341E-1	1.014517E+0	1.014875E+0	1.075574E+0	1.017663E+0	9.844846E-1	1.005256E+0	1.042812E+0	1.003113E+0	9.692706E-1	1.005093E+0	1.016936E+0	1.028578E+0	9.944260E-1	1.005315E+0	1.001609E+0	9.497995E-1	1.020988E+0	1.004868E+0	9.930756E-1	1.013394E+0	1.012946E+0	9.827267E-1	1.006373E+0	1.018752E+0	1.003142E+0	9.467634E-1	9.855948E-1	1.050842E+0	9.938572E-1	9.443357E-1	1.012190E+0	9.759505E-1	9.909198E-1	9.826875E-1	9.961856E-1	9.943925E-1	9.398631E-1	9.899690E-1	9.774825E-1	1.070306E+0	1.025459E+0	1.035912E+0	9.940387E-1	1.029476E+0	9.723022E-1	9.897752E-1	1.005275E+0	1.015383E+0	1.019588E+0	1.019937E+0	9.938499E-1	1.055315E+0	9.594294E-1	9.484852E-1	9.768453E-1	1.043751E+0	9.965739E-1	1.012178E+0	1.026750E+0	9.993057E-1	1.025411E+0	9.990483E-1	9.819402E-1	1.022960E+0	9.857212E-1	9.758417E-1	1.029590E+0	1.018337E+0	1.012152E+0	9.774417E-1	9.943413E-1	1.075296E+0	9.822866E-1	1.011947E+0	1.020557E+0	1.012181E+0	1.021023E+0	1.036383E+0	1.047234E+0	1.024773E+0	1.041389E+0	9.985307E-1	9.838326E-1	1.051514E+0	9.672326E-1	9.724143E-1	9.586450E-1	1.092405E+0	1.006806E+0	1.008853E+0	1.008257E+0	1.060770E+0	1.013960E+0	1.006544E+0	9.813804E-1	1.020916E+0	9.837701E-1	1.018583E+0	1.044782E+0	1.003941E+0	9.703692E-1	1.018238E+0	9.939173E-1	1.003195E+0	1.031717E+0	9.897488E-1	1.027624E+0	1.000449E+0	9.841073E-1	1.026045E+0	1.040793E+0	1.036217E+0	1.024970E+0	1.017659E+0	1.012334E+0	9.917161E-1	1.001118E+0	1.017196E+0	1.018682E+0	9.727490E-1	1.018764E+0	1.002641E+0	9.865980E-1	9.649403E-1	9.797040E-1	1.032129E+0	1.017222E+0	9.762052E-1	9.942526E-1	9.890214E-1	9.768384E-1	9.570622E-1	1.035235E+0	1.016494E+0	1.016126E+0	9.124096E-1	1.005407E+0	1.017047E+0	1.017779E+0	9.988656E-1	9.708637E-1
5.595110E+2	9.979945E-1	9.732475E-1	1.048658E+0	9.770333E-1	9.961087E-1	9.772120E-1	9.778378E-1	1.018954E+0	9.851171E-1	1.049226E+0	9.800277E-1	9.903528E-1	1.006147E+0	9.870115E-1	9.278288E-1	1.024993E+0	1.004127E+0	1.024689E+0	1.024044E+0	9.947935E-1	9.834170E-1	1.016211E+0	9.651774E-1	1.005571E+0	1.025841E+0	1.007941E+0	9.627448E-1	1.004889E+0	9.886218E-1	9.736959E-1	1.007469E+0	9.785532E-1	9.908722E-1	1.017663E+0	9.971792E-1	1.003153E+0	1.008007E+0	1.068343E+0	9.833700E-1	9.702683E-1	9.872313E-1	1.013071E+0	1.028273E+0	1.021636E+0	9.603917E-1	1.002037E+0	9.866935E-1	9.886081E-1	9.935905E-1	9.787167E-1	1.022048E+0	9.962214E-1	1.003327E+0	1.017747E+0	9.884583E-1	9.728028E-1	9.908654E-1	1.017707E+0	1.006143E+0	1.005459E+0	1.005830E+0	1.023717E+0	9.586619E-1	1.006311E+0	1.006676E+0	9.785468E-1	1.001227E+0	1.014538E+0	9.686067E-1	1.046814E+0	1.003394E+0	1.008291E+0	9.960826E-1	1.025508E+0	9.683091E-1	9.945244E-1	9.961037E-1	9.876934E-1	1.005588E+0	9.977542E-1	9.797172E-1	9.925400E-1	9.972995E-1	9.878651E-1	1.008711E+0	1.027919E+0	1.020919E+0	9.901585E-1	9.778169E-1	1.001910E+0	1.012926E+0	9.796279E-1	9.756517E-1	1.063676E+0	9.787892E-1	1.017345E+0	9.408200E-1	1.017747E+0	1.010340E+0	1.004730E+0	9.742768E-1	1.058582E+0	9.742580E-1	1.009764E+0	9.846976E-1	1.084889E+0	9.694730E-1	9.922328E-1	9.909777E-1	1.002530E+0	1.008897E+0	9.720896E-1	9.643255E-1	1.030344E+0	1.006989E+0	1.000397E+0	9.886141E-1	1.066400E+0	9.665519E-1	9.946062E-1	9.777179E-1	1.047591E+0	1.008867E+0	9.846857E-1	1.021723E+0	1.031374E+0	9.555987E-1	1.020104E+0	1.017798E+0	9.921191E-1	9.754977E-1	1.018238E+0	1.017448E+0	1.011923E+0	9.774810E-1	1.010481E+0	1.031633E+0	1.006801E+0	9.914570E-1	9.571703E-1	9.747607E-1	1.013643E+0	9.876053E-1	9.852042E-1	9.847260E-1	9.749557E-1	9.608827E-1	9.738854E-1	9.926666E-1	1.010059E+0	9.497597E-1	9.672520E-1	1.013102E+0	1.030185E+0	1.016883E+0	1.004907E+0	9.386659E-1	9.996369E-1	9.768336E-1	9.934238E-1	1.033224E+0	1.022503E+0	1.011934E+0	1.002054E+0	1.000849E+0	1.077742E+0	9.889741E-1	9.775775E-1	1.007727E+0	1.047360E+0	1.018747E+0
5.600520E+2	9.790209E-1	1.033310E+0	9.741591E-1	1.006397E+0	1.047857E+0	1.006511E+0	9.995973E-1	1.011088E+0	1.017623E+0	1.013867E+0	1.023954E+0	9.955519E-1	1.008196E+0	9.938590E-1	9.880377E-1	9.900894E-1	1.007453E+0	1.022456E+0	9.849724E-1	1.010036E+0	1.006754E+0	1.035420E+0	9.601128E-1	1.020465E+0	1.014369E+0	1.031604E+0	1.025547E+0	1.015087E+0	9.989655E-1	1.016837E+0	9.673528E-1	1.022901E+0	9.867900E-1	9.989612E-1	1.031560E+0	9.989486E-1	9.805548E-1	1.042734E+0	1.017533E+0	9.989219E-1	9.682389E-1	1.023766E+0	1.013767E+0	9.991247E-1	1.004951E+0	1.007595E+0	9.921374E-1	1.034677E+0	1.004922E+0	9.919271E-1	1.005057E+0	1.004318E+0	9.987592E-1	1.040852E+0	1.033054E+0	1.021568E+0	1.037770E+0	1.039271E+0	1.038084E+0	1.030594E+0	9.946998E-1	9.724675E-1	9.855437E-1	9.881377E-1	9.923709E-1	1.067163E+0	1.005523E+0	9.779704E-1	1.002137E+0	1.086650E+0	1.004526E+0	1.023314E+0	9.935273E-1	1.009636E+0	1.001394E+0	1.021835E+0	1.006893E+0	9.988761E-1	9.521824E-1	1.002684E+0	9.520421E-1	1.032934E+0	1.002386E+0	1.026195E+0	1.014781E+0	1.083588E+0	9.835896E-1	1.012669E+0	1.041919E+0	1.020140E+0	9.794442E-1	9.613497E-1	9.993547E-1	1.023977E+0	1.009717E+0	9.965932E-1	9.852050E-1	1.053700E+0	9.994625E-1	1.002001E+0	9.814793E-1	1.093023E+0	1.070599E+0	1.013038E+0	9.649488E-1	1.038878E+0	1.010826E+0	1.011855E+0	1.057318E+0	1.007826E+0	9.520361E-1	9.980230E-1	9.827779E-1	1.039341E+0	9.719799E-1	9.712237E-1	9.639620E-1	1.062065E+0	1.035976E+0	1.013602E+0	9.858617E-1	1.058741E+0	9.913220E-1	1.007151E+0	1.017585E+0	1.053335E+0	1.023940E+0	1.013515E+0	9.758863E-1	1.018127E+0	1.004559E+0	1.000899E+0	1.022729E+0	1.011923E+0	9.900408E-1	9.856026E-1	9.909617E-1	1.030479E+0	1.016898E+0	1.004051E+0	1.012796E+0	1.017497E+0	1.070456E+0	1.032455E+0	1.021537E+0	1.004431E+0	9.975676E-1	9.981388E-1	1.005193E+0	1.069315E+0	9.788148E-1	9.830976E-1	9.438653E-1	9.998128E-1	1.043286E+0	9.813139E-1	1.042530E+0	1.001816E+0	1.025395E+0	9.797274E-1	9.734209E-1	1.039992E+0	1.048306E+0	9.997432E-1	1.003235E+0	1.100549E+0	9.851824E-1	9.934923E-1	1.014428E+0	1.123929E+0	1.048390E+0
5.605150E+2	9.892020E-1	9.549679E-1	9.903546E-1	1.013306E+0	9.454060E-1	9.986979E-1	1.037675E+0	9.712692E-1	9.980072E-1	1.005027E+0	9.915873E-1	9.903527E-1	9.784861E-1	1.017825E+0	1.000283E+0	9.909505E-1	9.592222E-1	9.521102E-1	9.837702E-1	9.422895E-1	1.011638E+0	9.741336E-1	9.904970E-1	1.003585E+0	9.507517E-1	1.018564E+0	9.755181E-1	9.952293E-1	9.736241E-1	1.026005E+0	9.982532E-1	9.984042E-1	9.816879E-1	9.755836E-1	9.601533E-1	9.742484E-1	9.766328E-1	1.001664E+0	9.643904E-1	1.006416E+0	9.862566E-1	1.010932E+0	9.835467E-1	9.664824E-1	9.904693E-1	9.925899E-1	9.600204E-1	9.886086E-1	9.544472E-1	9.913767E-1	9.480157E-1	9.649133E-1	9.728735E-1	1.053910E+0	9.536523E-1	9.997896E-1	9.824323E-1	1.012448E+0	9.907860E-1	9.551889E-1	9.745600E-1	9.913755E-1	1.007587E+0	9.845048E-1	9.918933E-1	1.013759E+0	1.034977E+0	9.733995E-1	1.000657E+0	1.015661E+0	9.903823E-1	9.840631E-1	1.031851E+0	1.014738E+0	1.006528E+0	9.992745E-1	9.664323E-1	1.006863E+0	1.012848E+0	9.903608E-1	9.620523E-1	1.022563E+0	9.549076E-1	1.015169E+0	9.652113E-1	1.043751E+0	9.889994E-1	9.862446E-1	9.783059E-1	1.034206E+0	9.726347E-1	9.756296E-1	9.742009E-1	9.710461E-1	9.963858E-1	1.020176E+0	1.004143E+0	9.829731E-1	9.728769E-1	1.001456E+0	1.007717E+0	1.027687E+0	9.702440E-1	9.857487E-1	9.976903E-1	1.024110E+0	9.825017E-1	9.903935E-1	9.708103E-1	1.048603E+0	1.024562E+0	9.939549E-1	1.015465E+0	1.000176E+0	1.013516E+0	1.027189E+0	1.030665E+0	1.056105E+0	1.005056E+0	9.824700E-1	1.007239E+0	9.872724E-1	9.800031E-1	1.005330E+0	9.787946E-1	9.816989E-1	9.759451E-1	9.349578E-1	1.017798E+0	1.013398E+0	9.544149E-1	1.013036E+0	9.963181E-1	1.069941E+0	9.637795E-1	9.747180E-1	1.013303E+0	1.023549E+0	1.023682E+0	9.791641E-1	9.214079E-1	9.982258E-1	9.876055E-1	9.780456E-1	1.018661E+0	1.004431E+0	9.620661E-1	1.036252E+0	9.960389E-1	1.047917E+0	1.018159E+0	1.004226E+0	9.790245E-1	1.020623E+0	9.894032E-1	9.970429E-1	9.913884E-1	1.018709E+0	9.963636E-1	1.021305E+0	9.625986E-1	1.033786E+0	9.619230E-1	9.801040E-1	1.002282E+0	1.150821E+0	9.415726E-1	9.565691E-1	1.002699E+0	1.057569E+0	9.731454E-1
5.610180E+2	9.554202E-1	9.345991E-1	9.689768E-1	9.643665E-1	9.710187E-1	9.811187E-1	1.009268E+0	9.806094E-1	9.021732E-1	9.322279E-1	9.800275E-1	9.498008E-1	9.994877E-1	9.835876E-1	9.788534E-1	9.336399E-1	9.719733E-1	9.856086E-1	9.855732E-1	9.801151E-1	9.953570E-1	1.004319E+0	9.511103E-1	9.747922E-1	9.658743E-1	1.053335E+0	9.675348E-1	9.378057E-1	9.787954E-1	9.995803E-1	9.890373E-1	9.603938E-1	9.367849E-1	1.018702E+0	9.686163E-1	9.653138E-1	9.692801E-1	1.020509E+0	9.177537E-1	9.812905E-1	9.843084E-1	9.622726E-1	9.551393E-1	9.985616E-1	9.904696E-1	9.614694E-1	9.817946E-1	9.393784E-1	9.487819E-1	9.820194E-1	9.625797E-1	9.492597E-1	9.789637E-1	1.029802E+0	9.493014E-1	1.008313E+0	9.392167E-1	1.001403E+0	9.606871E-1	1.004316E+0	9.427610E-1	1.023716E+0	9.608121E-1	9.781444E-1	9.499319E-1	1.015520E+0	9.263631E-1	9.836841E-1	9.710726E-1	9.891048E-1	9.592655E-1	9.021723E-1	9.587821E-1	1.024374E+0	9.916971E-1	9.844318E-1	9.621166E-1	9.860960E-1	9.262570E-1	9.553614E-1	1.046846E+0	1.006732E+0	9.933428E-1	9.710630E-1	9.449789E-1	1.064691E+0	9.365220E-1	9.833087E-1	1.008646E+0	9.654466E-1	9.448284E-1	9.750580E-1	9.911315E-1	9.252404E-1	9.857209E-1	9.786699E-1	9.467381E-1	1.015979E+0	9.517281E-1	9.577932E-1	9.871383E-1	1.024648E+0	9.547603E-1	9.491807E-1	1.004966E+0	1.016726E+0	9.638080E-1	9.578946E-1	9.485203E-1	9.712853E-1	9.456535E-1	9.603944E-1	9.453462E-1	9.742432E-1	9.814737E-1	9.575302E-1	9.649286E-1	1.046895E+0	9.601351E-1	9.386734E-1	9.502331E-1	1.020219E+0	9.545361E-1	9.676851E-1	9.751741E-1	9.832672E-1	9.790746E-1	9.922286E-1	9.494766E-1	9.613818E-1	9.606825E-1	9.350116E-1	9.555002E-1	1.018085E+0	9.980341E-1	1.001670E+0	9.308132E-1	9.715749E-1	9.648852E-1	9.195500E-1	9.668372E-1	9.910676E-1	9.978939E-1	9.389085E-1	9.760991E-1	9.628186E-1	9.768589E-1	9.559839E-1	9.762852E-1	9.875633E-1	9.794203E-1	9.635549E-1	9.541433E-1	9.806892E-1	9.268992E-1	9.982523E-1	9.529006E-1	9.233481E-1	9.462177E-1	9.880428E-1	9.586124E-1	1.030966E+0	1.000568E+0	9.587327E-1	9.478567E-1	1.075152E+0	9.902389E-1	9.514767E-1	9.834309E-1	1.062673E+0	9.298209E-1
