Photon Energy (eV)	#1	#2	#3	#4	#5	#6	#7	#8	#9	#10	#11	#12	#13	#14	#15	#16	#17	#18	#19	#20	#21	#22	#23	#24	#25	#26	#27	#28	#29	#30	#31	#32	#33	#34	#35	#36	#37	#38	#39	#40	#41	#42	#43	#44	#45	#46	#47	#48	#49	#50	#51	#52	#53	#54	#55	#56	#57	#58	#59	#60	#61	#62	#63	#64	#65	#66	#67	#68	#69	#70	#71	#72	#73	#74	#75	#76	#77	#78	#79	#80	#81	#82	#83	#84	#85	#86	#87	#88	#89	#90	#91	#92	#93	#94	#95	#96	#97	#98	#99	#100	#101	#102	#103	#104	#105	#106	#107	#108	#109	#110	#111	#112	#113	#114	#115	#116	#117	#118	#119	#120	#121	#122	#123	#124	#125	#126	#127	#128	#129	#130	#131	#132	#133	#134	#135	#136	#137	#138	#139	#140	#141	#142	#143	#144	#145	#146	#147	#148	#149	#150	#151	#152	#153	#154	#155	#156	#157	#158	#159	#160	#161	#162	#163	#164	#165	#166	#167	#168	#169	#170	
5.300220E+2	-1.262391E-2	-1.975429E-4	-1.250381E-2	-1.420859E-2	-2.096378E-3	-8.317238E-4	-4.790059E-3	-6.491532E-3	6.020592E-4	-7.919754E-3	-2.505834E-4	-1.131344E-2	-5.778630E-3	-3.804013E-3	-8.641168E-4	-3.459791E-3	-3.113502E-3	-1.612000E-2	-6.652336E-3	-1.085011E-2	-3.772606E-3	-6.738038E-3	-1.026264E-2	-5.134196E-3	-1.539174E-2	-8.206339E-3	-6.798028E-3	-5.261517E-3	-6.838653E-3	-1.478129E-2	-8.658843E-3	-2.462956E-3	-7.037841E-3	-7.714445E-3	-7.265002E-3	-1.061244E-2	-7.945144E-3	-8.961371E-3	-4.877711E-3	3.569028E-4	-1.392757E-2	-2.252821E-3	-1.205721E-2	-8.021887E-3	-4.871193E-3	-4.572894E-3	-8.144871E-3	-9.358408E-3	-4.756815E-3	-4.982328E-3	-1.335926E-2	-7.815857E-3	-3.018503E-3	-4.435661E-3	1.522343E-3	-1.163912E-2	-2.887237E-3	1.235493E-3	-3.258722E-3	-6.174055E-3	-6.307019E-3	-1.373435E-3	-3.966313E-3	-8.571095E-3	-6.347319E-3	-6.136846E-3	-6.180099E-3	-1.366948E-2	-9.691011E-3	-3.387329E-3	-1.521500E-2	-1.634201E-3	-6.682194E-4	-8.640662E-3	-1.036076E-2	-5.820701E-4	-9.594876E-3	-1.957513E-3	-8.975005E-4	-3.450711E-3	-6.331690E-3	-1.027517E-2	-8.294727E-3	2.496228E-3	-2.061926E-3	-9.752657E-3	-7.163525E-3	-1.042996E-2	-2.461681E-3	3.377674E-3	-5.764615E-3	-5.523659E-3	-7.218148E-3	-7.947335E-3	-1.259698E-2	-1.188080E-2	-7.548058E-3	-1.492697E-3	-1.320544E-3	-9.143830E-4	-1.103035E-2	-9.486295E-3	-8.948282E-3	-1.049194E-2	-5.576405E-3	-6.979168E-3	-1.073487E-2	-1.117067E-2	-4.806580E-3	-5.428003E-3	-1.146851E-2	-6.328581E-3	9.280505E-4	-4.047368E-3	1.451557E-3	4.060231E-4	-2.263586E-3	-2.622812E-3	-9.137977E-3	1.848224E-3	-3.594528E-3	-2.615712E-3	-9.936842E-3	-6.831183E-3	-5.959958E-3	-8.165732E-3	9.651654E-5	-3.019287E-3	-6.464110E-3	-2.514532E-3	-1.177956E-2	-1.051408E-2	-6.043815E-3	-4.954103E-3	-5.985198E-3	3.182900E-3	-2.382723E-3	-1.012468E-2	-8.130470E-3	-1.306460E-2	-5.598751E-3	-6.207413E-3	-1.256781E-2	-4.030014E-3	-7.650442E-3	-5.095937E-3	-1.654688E-3	-6.417451E-3	-1.457881E-2	-9.348195E-3	-7.665544E-3	-5.423604E-3	-8.662721E-3	-2.904604E-3	-1.403327E-3	-8.967229E-3	3.059288E-3	4.792004E-4	-2.655239E-3	-3.603503E-3	-5.035695E-3	-3.111458E-3	-4.840256E-3	-4.277303E-3	-5.407075E-3	-1.030042E-2	-2.909461E-3	-1.948179E-3	-1.730672E-2	-1.267680E-2
5.305130E+2	-5.651908E-3	-8.221982E-3	-4.512923E-3	2.599059E-3	-6.646170E-3	-4.614284E-3	-5.647818E-3	-2.524957E-3	1.773033E-3	1.227741E-3	2.749140E-3	-4.562385E-3	-6.118137E-3	-3.193694E-3	-6.135450E-3	-6.856931E-3	-3.922042E-3	6.438273E-3	-6.992605E-3	-1.991971E-3	-4.578332E-3	-4.107652E-3	-3.294467E-3	5.735341E-4	-8.618699E-3	-9.483143E-3	-8.128626E-3	-9.661147E-3	-2.691340E-3	-1.288271E-4	-1.336802E-2	-7.943211E-3	-8.291917E-3	7.479637E-3	-9.467777E-3	-6.256612E-3	-1.023926E-2	-3.402718E-3	-3.281889E-3	-7.586307E-3	-1.974873E-4	-3.603055E-3	1.785275E-3	-6.766553E-3	-5.200748E-3	-7.448452E-3	-7.945096E-3	-3.221186E-3	-1.646518E-3	-2.880085E-3	-9.753528E-3	-1.167806E-2	-3.833195E-3	-6.327972E-3	-2.603509E-4	-2.742119E-3	-1.326835E-2	-1.090194E-2	-5.281036E-3	-6.583923E-4	-6.123885E-3	4.811547E-4	-4.300505E-3	-7.907612E-3	-2.060073E-3	-1.174833E-3	5.383867E-3	-5.027150E-3	-2.181417E-3	-1.019878E-2	6.706513E-4	-5.312392E-3	-5.105746E-3	-1.875085E-3	-8.356211E-3	-6.631049E-3	-7.460082E-3	-9.000074E-3	-3.687062E-3	-2.732755E-3	-6.641356E-3	-2.599570E-3	-9.166251E-3	-1.360213E-3	-2.949895E-3	4.479516E-3	-8.889428E-3	-2.220213E-3	-4.727172E-3	-1.101763E-2	1.010499E-2	-8.777334E-3	-4.036534E-3	-1.080929E-3	-4.212100E-3	-8.603918E-3	1.217657E-3	-7.200605E-3	-9.648438E-3	-2.413042E-3	1.080601E-3	6.134022E-6	-2.639614E-3	-6.613171E-3	-2.088575E-3	-1.968590E-3	-2.098399E-3	-8.492403E-3	-5.098394E-3	4.027615E-4	9.079238E-4	-2.684916E-3	-1.217133E-2	-8.122783E-3	2.137510E-3	-1.462144E-2	-5.064643E-3	-6.010563E-3	-6.823527E-4	-5.930248E-3	-9.849221E-3	-9.963240E-3	-1.235777E-2	-2.498257E-3	-5.339735E-3	4.559050E-3	-7.719912E-3	-6.728477E-3	7.330147E-3	-3.574079E-3	-6.420410E-3	3.115486E-3	-1.245772E-4	3.304800E-4	1.762464E-3	-7.477204E-3	-8.030669E-3	-3.342812E-3	-7.306068E-3	-3.862016E-3	-5.899864E-3	-1.095496E-2	3.323637E-3	-4.835377E-3	-5.379924E-3	4.388242E-3	-4.245170E-3	-1.399735E-3	-4.388818E-3	2.856494E-3	4.070904E-3	-3.497005E-3	-6.274959E-3	-5.064328E-3	-2.322494E-4	-2.989752E-3	2.433154E-4	1.542289E-3	4.383731E-3	-7.907698E-3	-6.459955E-3	-5.682846E-3	-9.370354E-3	2.214297E-3	-3.278721E-3	-1.115877E-2	-4.505938E-3	-5.910572E-3	4.205755E-3	-2.314519E-3
5.310150E+2	5.746814E-3	-4.298169E-3	-5.116441E-3	-1.186756E-2	-3.093787E-3	-5.728233E-3	-4.715984E-3	2.272684E-3	-5.431468E-3	-3.342086E-3	-8.135583E-3	-5.683581E-3	-5.676346E-3	-2.358141E-3	2.184992E-3	1.512125E-3	2.361778E-3	-5.660263E-3	9.718286E-3	-2.662330E-3	1.572663E-3	-3.708185E-3	-2.862099E-3	-6.764927E-3	5.976729E-3	-7.790754E-4	-5.694074E-3	-3.643684E-3	-2.521492E-5	1.370024E-3	-2.545415E-3	-2.781486E-3	3.075785E-3	-4.223449E-3	-2.815666E-3	-8.459781E-3	-8.707115E-4	-2.485650E-3	-6.700774E-3	8.854413E-5	-1.217006E-2	-3.732756E-3	-2.861316E-3	-2.604336E-3	-4.258135E-3	-7.061110E-3	-3.832913E-3	-3.213678E-3	2.226878E-3	-4.893328E-3	6.191638E-3	7.688771E-3	-7.775993E-3	-1.003680E-2	-9.707666E-3	-1.872829E-3	-8.535888E-4	4.424201E-3	-9.306498E-3	-2.554799E-3	-8.630848E-3	-1.362324E-3	-4.391399E-3	4.075753E-3	6.874606E-4	-9.314531E-3	-7.821531E-3	-9.112143E-3	2.693309E-3	-9.316946E-3	-5.287133E-3	-4.913176E-3	1.282032E-3	-7.757525E-3	2.960420E-3	-5.041139E-3	6.173868E-3	2.916015E-3	-5.789428E-3	-4.425788E-3	-9.137080E-3	6.057406E-3	-3.309189E-3	-7.463350E-3	5.078252E-3	-1.215634E-2	2.882100E-3	-4.471280E-3	4.490521E-3	-5.931323E-3	-7.772233E-3	-1.284931E-3	-5.318727E-3	-1.527459E-3	-3.312154E-3	-7.702236E-3	7.431814E-3	-9.856360E-4	-2.917721E-3	-6.173780E-3	-7.348955E-3	-4.786419E-3	-6.805016E-3	-2.060654E-3	6.633318E-3	-2.153335E-3	-5.784899E-3	-5.171971E-3	-5.943912E-4	-4.477584E-3	-5.195027E-3	-1.242446E-3	-7.752772E-4	2.438672E-3	-7.118747E-3	-2.896581E-3	-3.639162E-3	-2.814824E-3	-3.639168E-3	-3.158870E-3	4.992337E-4	-5.784209E-3	7.243673E-3	-3.122836E-4	-6.265706E-3	-5.070196E-3	-1.599777E-3	-5.364128E-3	-1.146389E-2	-2.886199E-3	-1.836979E-3	2.514979E-3	-7.373503E-3	-2.349149E-3	-4.333546E-3	-1.034820E-2	-1.727041E-3	-4.899391E-3	-1.766473E-3	-5.653131E-3	-4.219523E-4	-6.291897E-4	-2.978082E-3	4.811823E-3	-2.298174E-3	-8.274012E-3	2.395968E-3	-7.397199E-3	-4.403728E-3	-6.440321E-3	-3.660539E-4	-3.045882E-3	9.432263E-3	-1.267591E-2	-5.150310E-3	5.007201E-3	-1.879998E-2	-8.995642E-3	-6.483874E-3	-6.482651E-3	-4.611078E-4	-4.805897E-3	2.263614E-4	-4.761898E-3	7.230079E-4	4.507816E-3	-8.571977E-3	2.573522E-3	-4.995918E-3	1.015104E-2
5.315130E+2	6.140856E-3	2.681316E-3	2.139663E-3	-6.138169E-4	2.181696E-3	-4.901289E-3	-2.253615E-3	-2.547706E-3	-1.077487E-2	-1.513602E-3	-6.673835E-3	3.791518E-3	2.388076E-3	-1.591741E-3	-8.819566E-3	-2.582603E-3	-7.307904E-4	-3.758730E-4	-6.228076E-3	8.123646E-3	-1.903261E-3	-2.890097E-3	-2.010885E-3	3.196413E-3	5.293155E-3	5.769057E-4	-4.330153E-3	4.987683E-3	3.312553E-4	4.359245E-3	4.492093E-3	-3.722414E-3	5.738392E-4	-5.872497E-3	-2.976598E-3	7.714758E-4	3.016711E-3	-2.139420E-3	-4.491259E-3	8.873134E-4	6.321802E-3	9.146571E-3	-1.930909E-3	-4.921853E-3	3.546188E-3	-5.307315E-4	8.252993E-3	1.927257E-3	2.580847E-3	3.282712E-3	-6.324341E-3	-3.814900E-3	-3.569610E-3	3.307491E-3	1.067959E-3	-6.414335E-4	-3.849285E-3	3.736400E-3	6.719897E-3	-4.585239E-3	3.309227E-3	-9.026466E-3	-8.706400E-3	4.470832E-3	-2.470351E-3	-2.535252E-3	-9.238775E-3	-4.289009E-3	2.083390E-3	5.627405E-3	1.481146E-3	2.669508E-3	7.272627E-4	6.818708E-3	4.540833E-4	-2.381154E-3	2.651529E-3	7.677746E-3	6.155281E-3	3.912046E-3	3.916335E-3	-5.489216E-3	8.909080E-4	4.341349E-4	-5.502699E-4	7.299046E-3	-1.974910E-3	-9.513710E-4	4.220855E-4	5.727650E-4	2.665053E-3	4.432213E-3	6.119192E-3	1.099013E-3	-1.979157E-3	1.355790E-3	-7.799901E-3	-6.560807E-3	-4.416005E-3	2.130822E-3	1.923787E-3	3.647288E-3	-2.432336E-3	-2.303766E-3	-2.939696E-3	-6.643596E-3	-9.780548E-5	8.323097E-3	2.609513E-4	1.475890E-3	1.233544E-3	-1.819002E-3	8.801546E-4	-8.385228E-4	2.555943E-3	4.371245E-3	7.888064E-4	4.976535E-3	7.028380E-4	-4.195056E-3	-4.125469E-3	-5.433546E-4	5.408972E-3	1.261552E-3	6.825461E-4	-5.160419E-3	1.363468E-3	3.883772E-3	1.991297E-3	2.556410E-4	-4.042181E-3	-3.577458E-4	3.700325E-3	3.484351E-3	3.708507E-3	1.392521E-3	-1.338417E-3	5.766842E-3	9.874461E-3	9.266335E-4	-2.333078E-3	3.322545E-4	9.533595E-4	-5.470942E-3	1.989639E-4	-3.710099E-3	-1.150854E-3	-2.706312E-3	-1.426640E-4	-1.467464E-3	-4.424302E-3	-4.094647E-4	-5.341265E-4	3.844855E-3	3.741318E-4	-5.039113E-3	-7.176561E-3	5.491091E-4	8.791951E-4	8.030449E-3	-5.652396E-3	2.161652E-4	2.456410E-3	-1.251279E-2	-7.406411E-3	7.042018E-3	4.048448E-3	-1.433850E-3	1.384759E-2	-1.112462E-2
5.320220E+2	2.842320E-4	-9.262654E-4	6.296669E-3	1.492742E-2	2.716657E-3	8.785757E-3	1.026030E-2	4.752346E-4	-5.671054E-3	1.978775E-3	6.447097E-3	6.808362E-3	1.050839E-2	1.116901E-3	2.085413E-3	6.261022E-5	2.683935E-3	1.169943E-2	1.112497E-3	2.059205E-3	-1.458987E-3	6.972254E-3	7.297717E-3	6.227109E-3	2.498206E-3	6.454918E-3	5.826103E-3	8.588384E-3	-1.052705E-3	1.293051E-4	8.358911E-3	2.337129E-3	8.221632E-3	-1.399880E-5	9.521599E-4	1.173541E-2	5.986618E-3	1.317584E-2	6.532867E-3	4.551171E-4	1.081765E-2	-5.034167E-3	7.220780E-3	2.026065E-2	3.001955E-4	-5.742672E-5	2.879387E-3	1.461075E-3	-3.767110E-4	-2.157283E-3	5.990691E-3	6.495018E-3	5.167899E-3	9.505480E-3	-8.001987E-3	-2.265280E-4	1.919381E-3	-3.305844E-3	4.418595E-3	9.043663E-3	5.694016E-3	1.129550E-2	6.249488E-3	-4.372811E-4	-3.108481E-3	4.429700E-3	-4.069675E-3	1.093230E-2	2.038423E-3	2.046634E-3	9.390842E-3	-3.521268E-4	-8.102729E-3	-1.129763E-4	9.070011E-3	6.145341E-3	-8.443386E-4	-2.981175E-3	-5.519466E-3	3.321508E-3	4.435948E-3	8.982586E-3	1.069585E-2	5.453723E-3	-7.155533E-3	-1.606229E-3	2.278032E-3	8.546895E-3	6.293681E-3	-1.371100E-3	-2.454159E-3	-3.959500E-3	4.303816E-3	1.061857E-3	4.099960E-3	1.209842E-2	5.295209E-3	8.361712E-3	4.752449E-3	-5.952841E-4	2.912085E-3	-6.535693E-3	8.789384E-3	1.432208E-2	-4.147372E-3	5.598886E-3	1.172356E-2	2.846815E-3	-3.017286E-4	-2.379847E-3	4.218460E-3	6.277536E-3	1.025265E-2	1.019548E-2	-5.215870E-3	7.222254E-3	1.140066E-2	3.698195E-4	6.116373E-3	2.864939E-3	8.237282E-3	-2.507656E-3	2.630284E-4	-4.052297E-3	1.005968E-2	4.962536E-3	-1.241005E-3	3.904527E-4	-3.145556E-3	2.258508E-4	8.908149E-3	1.594132E-4	-3.631984E-3	-5.054671E-4	-2.456862E-3	5.649864E-3	7.796636E-3	-4.004056E-3	7.023589E-3	7.124441E-3	1.194170E-2	5.780809E-3	5.620882E-3	-2.084716E-3	2.802374E-3	6.860819E-3	-9.208421E-3	3.238746E-3	9.090726E-3	-2.005657E-3	1.671164E-3	-3.144151E-3	-2.213855E-3	1.795145E-3	-1.202543E-3	1.061756E-2	1.106504E-2	5.270932E-4	-1.316206E-3	-1.078558E-4	5.449038E-3	4.855673E-3	5.838462E-4	3.022859E-3	1.620952E-3	4.932210E-3	4.008701E-3	-3.667124E-3	-2.197340E-3	4.136597E-3
5.325170E+2	6.103914E-3	1.096264E-2	1.369684E-2	9.163487E-3	6.937982E-3	7.289773E-3	7.147173E-3	8.816276E-3	1.950230E-2	9.568925E-3	5.863765E-3	1.095952E-2	4.676645E-3	9.830688E-3	1.154873E-2	1.132459E-2	2.720622E-3	4.018427E-3	9.042234E-3	5.321565E-3	1.014052E-2	1.047172E-2	1.113237E-2	1.902067E-3	1.024235E-2	1.143673E-2	1.912478E-2	4.990281E-3	1.027666E-2	9.051541E-3	1.172127E-2	1.457294E-2	3.458502E-3	1.034475E-2	2.157288E-2	1.282195E-2	1.005179E-2	3.813318E-3	1.281877E-2	5.798429E-3	9.155675E-3	5.476228E-3	7.843379E-3	2.053977E-3	1.048369E-2	1.967061E-2	8.790499E-3	1.240494E-2	1.972318E-3	1.163031E-2	1.725480E-2	9.125029E-3	1.302940E-2	7.987462E-3	1.537970E-2	1.712202E-2	1.893908E-2	4.811691E-3	6.707764E-3	4.928823E-3	1.205851E-2	-1.442864E-5	1.511513E-2	8.369402E-3	1.329876E-2	1.473176E-2	2.192621E-2	2.116548E-2	5.057307E-3	1.522902E-2	8.959497E-3	9.542389E-3	1.186740E-2	1.156754E-2	6.232457E-3	8.490071E-3	9.073900E-3	3.345001E-3	9.738175E-3	3.375700E-3	1.375784E-2	3.323965E-3	9.183413E-3	4.394774E-4	7.639372E-3	1.173666E-2	1.286773E-2	9.525928E-3	-4.017435E-3	1.436961E-2	3.220967E-3	1.511321E-2	6.150400E-3	8.394854E-3	1.800043E-2	1.473274E-2	1.403280E-3	7.878033E-3	1.355026E-2	7.965667E-3	1.246283E-2	1.715499E-2	1.203586E-2	7.147456E-3	8.118729E-3	1.214580E-2	6.992416E-3	1.366513E-2	1.054014E-2	1.040678E-2	1.030361E-2	5.797409E-3	8.857564E-4	3.745260E-4	6.189607E-3	5.518501E-3	-1.222072E-3	6.101845E-3	6.640287E-3	8.571011E-3	8.832703E-3	2.141417E-2	9.378937E-3	1.243247E-2	6.823173E-3	8.874761E-3	9.100710E-3	1.083767E-2	1.175211E-2	8.493319E-3	1.517098E-2	5.081953E-3	1.347355E-2	3.993888E-3	7.304635E-3	7.600116E-3	5.682213E-3	1.660409E-2	3.049609E-4	1.452868E-2	2.311943E-3	1.167850E-2	5.648015E-3	1.160922E-2	1.232720E-2	5.830988E-3	1.386316E-2	1.468195E-2	1.442329E-2	1.640514E-2	6.713833E-3	1.552011E-2	8.253398E-3	1.500484E-2	7.614298E-3	1.371331E-3	1.160890E-2	5.897950E-3	5.192393E-3	1.007126E-2	1.216012E-2	8.528363E-3	1.094399E-2	1.631484E-2	1.374825E-2	4.977152E-3	7.930227E-3	1.038620E-2	6.446637E-3	1.182831E-2
5.330280E+2	1.862361E-2	2.993816E-2	6.677782E-3	1.241811E-2	1.700411E-2	2.350316E-2	1.855516E-2	1.668100E-2	4.057097E-2	2.766332E-2	1.370386E-2	3.680386E-2	5.993939E-3	2.859583E-2	1.564424E-2	2.420258E-2	2.892001E-2	3.662759E-2	1.660102E-2	1.127883E-2	2.312365E-2	3.876098E-2	2.192965E-2	1.812679E-2	3.388752E-2	2.971000E-2	1.232365E-2	3.747054E-2	2.477132E-2	2.525460E-2	1.082186E-2	5.103888E-3	2.126053E-2	2.461343E-2	1.597593E-2	2.869189E-2	2.563332E-2	1.664441E-2	3.493344E-2	3.157608E-2	2.556713E-2	3.165218E-2	2.456323E-2	2.686868E-2	1.948805E-2	2.118287E-2	1.627230E-2	1.819282E-2	3.093026E-2	2.735706E-2	1.722590E-2	2.934755E-2	2.374495E-2	1.257595E-2	1.266863E-2	3.052032E-2	1.308374E-2	2.034380E-2	2.951889E-2	2.207711E-2	2.320862E-2	2.323805E-2	3.185474E-2	3.179193E-2	3.252672E-2	1.731358E-2	2.635723E-2	1.707220E-2	2.287079E-2	2.582727E-2	2.781377E-2	3.016882E-2	1.460689E-2	3.538619E-2	1.184833E-2	1.871622E-2	2.437772E-2	1.295381E-2	2.132607E-2	2.684377E-2	3.342644E-2	2.193140E-2	9.596787E-3	2.985035E-2	2.946771E-2	2.897577E-2	2.243229E-2	2.000800E-2	3.948585E-2	1.863351E-2	2.905781E-2	2.812558E-2	2.039040E-2	2.984217E-2	2.979096E-2	2.603938E-2	3.015800E-2	2.282071E-2	1.928551E-2	2.283851E-2	1.714498E-2	2.107644E-2	2.187273E-2	2.503788E-2	1.518669E-2	2.124398E-2	1.098907E-2	1.587358E-2	1.971264E-2	1.839991E-2	3.446488E-2	2.398546E-2	3.591052E-2	1.929184E-2	3.360826E-2	1.333851E-2	2.452843E-2	1.161473E-2	2.288110E-2	1.892289E-2	2.039251E-2	1.354772E-2	1.602875E-2	2.286124E-2	2.376873E-2	1.900785E-2	2.555969E-2	2.617638E-2	3.224057E-2	1.827940E-2	1.141421E-2	3.551406E-2	2.174061E-2	1.681001E-2	2.827977E-2	3.958362E-2	2.666618E-2	1.759076E-2	1.874816E-2	3.261768E-2	2.308860E-2	1.502919E-2	1.550660E-2	2.526949E-2	2.069849E-2	3.659369E-2	1.940057E-2	2.439683E-2	2.599866E-2	2.456186E-2	1.099912E-2	2.153984E-2	2.188587E-2	1.850253E-2	1.682191E-2	1.180882E-2	1.101762E-2	2.188081E-2	1.152574E-2	2.580943E-2	1.366886E-2	3.346360E-2	2.051651E-2	3.298116E-2	2.077121E-2	1.161544E-2	2.653975E-2	2.198927E-2	3.159858E-2	2.761340E-2
5.331630E+2	2.959004E-2	2.682986E-2	3.406975E-2	2.390647E-2	2.996883E-2	3.309501E-2	2.527523E-2	2.272404E-2	3.114627E-2	3.513699E-2	3.794753E-2	2.843501E-2	2.140481E-2	3.399714E-2	3.031974E-2	3.809092E-2	3.674619E-2	3.980844E-2	2.774612E-2	3.258718E-2	3.462774E-2	3.016385E-2	2.570836E-2	2.771494E-2	2.986871E-2	3.850127E-2	3.412782E-2	3.321245E-2	2.740108E-2	3.354827E-2	1.829512E-2	3.320649E-2	3.760622E-2	3.787066E-2	4.030487E-2	3.548210E-2	3.005797E-2	2.600867E-2	3.022513E-2	2.411830E-2	3.914824E-2	3.257829E-2	2.256124E-2	2.910314E-2	4.409020E-2	3.309183E-2	1.054147E-2	4.201252E-2	2.965748E-2	3.715878E-2	3.577140E-2	3.867443E-2	2.215710E-2	2.608944E-2	2.117598E-2	2.909151E-2	2.857152E-2	1.915349E-2	2.629809E-2	2.081573E-2	3.824864E-2	1.980732E-2	3.184236E-2	3.622921E-2	4.357235E-2	2.645024E-2	4.132836E-2	3.234745E-2	3.072586E-2	2.875538E-2	2.897380E-2	2.534982E-2	2.848927E-2	2.143011E-2	4.089777E-2	3.109759E-2	3.424832E-2	3.184084E-2	3.113511E-2	3.470258E-2	1.176167E-2	3.284888E-2	3.276355E-2	4.420275E-2	2.605615E-2	2.294459E-2	3.209602E-2	3.139603E-2	3.242933E-2	2.907246E-2	3.101832E-2	3.187176E-2	2.524039E-2	3.573398E-2	4.007183E-2	3.140256E-2	2.945768E-2	2.708053E-2	2.078226E-2	3.196549E-2	4.039916E-2	3.695541E-2	3.647655E-2	3.075856E-2	3.127178E-2	3.738202E-2	3.185233E-2	2.721648E-2	3.460501E-2	4.051389E-2	2.639174E-2	3.559535E-2	3.885635E-2	2.287143E-2	1.788279E-2	2.824163E-2	3.053993E-2	3.503962E-2	3.517717E-2	3.308280E-2	2.783057E-2	3.550258E-2	4.161124E-2	2.748039E-2	3.312252E-2	2.959332E-2	3.010843E-2	2.408128E-2	3.729584E-2	3.361177E-2	3.636411E-2	3.375988E-2	3.684432E-2	2.419348E-2	2.045429E-2	3.469656E-2	3.956314E-2	3.815556E-2	3.333839E-2	4.672563E-2	3.041825E-2	1.995093E-2	2.958253E-2	2.910504E-2	3.278772E-2	3.753861E-2	2.922033E-2	2.320755E-2	2.882896E-2	2.650378E-2	3.888754E-2	2.602967E-2	3.942357E-2	3.367707E-2	2.970396E-2	2.225622E-2	2.731450E-2	2.665860E-2	3.096887E-2	4.050349E-2	2.085405E-2	2.083254E-2	2.834710E-2	2.764937E-2	3.939029E-2	3.026246E-2	2.838080E-2	5.532030E-2	5.123246E-2	5.055620E-2
5.333130E+2	4.747147E-2	3.877807E-2	3.240625E-2	5.454536E-2	3.369854E-2	4.323884E-2	3.518855E-2	3.802647E-2	3.623545E-2	4.367100E-2	3.940408E-2	3.659749E-2	3.366066E-2	4.037856E-2	4.764752E-2	3.623591E-2	4.164656E-2	3.695638E-2	2.928784E-2	4.677439E-2	3.263030E-2	3.955457E-2	3.392087E-2	3.691365E-2	4.747394E-2	5.032379E-2	2.983269E-2	5.044011E-2	3.825274E-2	4.660791E-2	2.961696E-2	4.721367E-2	3.947660E-2	3.582781E-2	5.238606E-2	4.544644E-2	4.110325E-2	4.288562E-2	4.252195E-2	3.716538E-2	3.964241E-2	5.725240E-2	3.241380E-2	4.691225E-2	4.776454E-2	4.188438E-2	3.553334E-2	3.229343E-2	4.008177E-2	4.450205E-2	4.709479E-2	5.214747E-2	3.779057E-2	3.858913E-2	3.959487E-2	3.797754E-2	4.166536E-2	4.451857E-2	3.783281E-2	4.525725E-2	5.039121E-2	3.833213E-2	4.220151E-2	4.155432E-2	4.935657E-2	3.615179E-2	4.295687E-2	5.103144E-2	3.514994E-2	3.935167E-2	4.732861E-2	4.681881E-2	3.310638E-2	4.581441E-2	3.194893E-2	2.586714E-2	3.717460E-2	4.052749E-2	4.038305E-2	3.900650E-2	4.085053E-2	3.905135E-2	4.250351E-2	4.365597E-2	4.740267E-2	3.626711E-2	3.565950E-2	4.919891E-2	3.089466E-2	3.476511E-2	3.541105E-2	3.796997E-2	4.440040E-2	3.343436E-2	4.231617E-2	5.284987E-2	5.988164E-2	5.015828E-2	4.787723E-2	3.842175E-2	3.396413E-2	3.439440E-2	5.884232E-2	4.703555E-2	4.790541E-2	3.138033E-2	3.949650E-2	4.818494E-2	3.463137E-2	5.092702E-2	3.142924E-2	4.911768E-2	3.017595E-2	4.581184E-2	4.017993E-2	3.520696E-2	4.776106E-2	4.589198E-2	3.140751E-2	5.205960E-2	4.438347E-2	3.939954E-2	3.984368E-2	5.125587E-2	3.551339E-2	2.768190E-2	4.970848E-2	5.684489E-2	4.934729E-2	3.362316E-2	3.204885E-2	4.478095E-2	3.974918E-2	4.309663E-2	2.986403E-2	3.087938E-2	5.252335E-2	4.139270E-2	2.816335E-2	4.109977E-2	4.293253E-2	3.716352E-2	2.970280E-2	3.703347E-2	5.605294E-2	3.643578E-2	4.636442E-2	4.835107E-2	5.113905E-2	4.339309E-2	4.111484E-2	5.208753E-2	3.662588E-2	4.942290E-2	3.951283E-2	3.861265E-2	3.869738E-2	3.343306E-2	3.578551E-2	4.249508E-2	3.478829E-2	3.642904E-2	4.353908E-2	5.888750E-2	4.036517E-2	4.946585E-2	4.851746E-2	3.749431E-2	3.386808E-2	4.858342E-2
5.334520E+2	4.288757E-2	5.753617E-2	5.744597E-2	6.812544E-2	5.217684E-2	4.649479E-2	4.587658E-2	5.010807E-2	5.550117E-2	6.007982E-2	5.635173E-2	6.251231E-2	4.618731E-2	6.493488E-2	4.657835E-2	5.406795E-2	6.470929E-2	5.211591E-2	4.341039E-2	6.730827E-2	4.395319E-2	6.464875E-2	4.238751E-2	4.549423E-2	6.980434E-2	4.905608E-2	3.475109E-2	4.801901E-2	5.528506E-2	5.154892E-2	5.110826E-2	6.373644E-2	5.517414E-2	4.690272E-2	5.961847E-2	5.517506E-2	5.445598E-2	5.007269E-2	6.507275E-2	4.598739E-2	5.126931E-2	5.009138E-2	3.102989E-2	6.611899E-2	5.066005E-2	4.677983E-2	5.503340E-2	5.187438E-2	6.770928E-2	5.311681E-2	5.653532E-2	4.140474E-2	4.780632E-2	5.136733E-2	5.973405E-2	7.707128E-2	5.603916E-2	5.447823E-2	5.131403E-2	4.545897E-2	5.355073E-2	5.239071E-2	6.329118E-2	5.894253E-2	5.896522E-2	5.100347E-2	4.829531E-2	5.010072E-2	4.980759E-2	5.582143E-2	5.203421E-2	6.085079E-2	5.617051E-2	6.358724E-2	4.672048E-2	4.458669E-2	6.869988E-2	4.998838E-2	6.175244E-2	5.488394E-2	5.213257E-2	4.813237E-2	5.987194E-2	5.153746E-2	5.366071E-2	5.977502E-2	4.580551E-2	5.173856E-2	5.294366E-2	4.359345E-2	4.171996E-2	4.598386E-2	5.448190E-2	5.381665E-2	6.252758E-2	5.881421E-2	6.477593E-2	5.684651E-2	4.536652E-2	4.453787E-2	5.381201E-2	5.498100E-2	6.473007E-2	5.517668E-2	4.643866E-2	6.296893E-2	6.458091E-2	6.052127E-2	5.397709E-2	6.307773E-2	5.047889E-2	5.497324E-2	5.270396E-2	6.028006E-2	4.641237E-2	5.036742E-2	4.645402E-2	5.414480E-2	5.373715E-2	4.708236E-2	4.461436E-2	5.778839E-2	5.677178E-2	5.214341E-2	4.807467E-2	3.619023E-2	4.831972E-2	5.928137E-2	6.283331E-2	6.150400E-2	4.573007E-2	6.370852E-2	5.961862E-2	4.981886E-2	5.304803E-2	5.315009E-2	5.167922E-2	5.851674E-2	3.470887E-2	5.883754E-2	5.949313E-2	5.273944E-2	6.130927E-2	6.725700E-2	5.742129E-2	5.219206E-2	5.423266E-2	6.470574E-2	5.870072E-2	4.828030E-2	6.444103E-2	5.973358E-2	5.286158E-2	5.376979E-2	4.902846E-2	6.168307E-2	5.988447E-2	4.104611E-2	4.956097E-2	6.731613E-2	4.792488E-2	6.182567E-2	4.704827E-2	5.580950E-2	5.223941E-2	4.139099E-2	5.015872E-2	6.676937E-2	5.388582E-2	5.653775E-2
5.336080E+2	7.954597E-2	5.296046E-2	7.240338E-2	8.417044E-2	7.442033E-2	7.123877E-2	6.342073E-2	5.602395E-2	7.374076E-2	7.290594E-2	7.376895E-2	7.501861E-2	5.866146E-2	6.645391E-2	6.020016E-2	8.268863E-2	7.131918E-2	7.893068E-2	6.774395E-2	7.742787E-2	6.883778E-2	7.823887E-2	6.498699E-2	6.109041E-2	9.039632E-2	7.550388E-2	8.686239E-2	7.862735E-2	8.130509E-2	7.485193E-2	8.244040E-2	6.827317E-2	7.373750E-2	7.973567E-2	6.540803E-2	8.446583E-2	7.433908E-2	8.662153E-2	7.472271E-2	6.903290E-2	7.606805E-2	7.766408E-2	7.195794E-2	7.009417E-2	7.233233E-2	5.484670E-2	7.591690E-2	7.536362E-2	7.669105E-2	8.442091E-2	7.142530E-2	9.005678E-2	7.547100E-2	6.988618E-2	7.598444E-2	8.344037E-2	9.658832E-2	6.337086E-2	7.528734E-2	7.503858E-2	7.768263E-2	7.306948E-2	8.531770E-2	7.824136E-2	7.097093E-2	6.047835E-2	7.993857E-2	6.514583E-2	6.593359E-2	6.920738E-2	7.960552E-2	6.874247E-2	7.452520E-2	7.176499E-2	7.605766E-2	7.955576E-2	6.739319E-2	7.738843E-2	6.821670E-2	8.156656E-2	6.522671E-2	7.810729E-2	6.682166E-2	7.523839E-2	8.955564E-2	7.581415E-2	6.063172E-2	7.160559E-2	7.002212E-2	7.918061E-2	6.077066E-2	7.869559E-2	6.849791E-2	8.785938E-2	7.717618E-2	8.190293E-2	6.671455E-2	6.353949E-2	8.820718E-2	7.370657E-2	6.992381E-2	7.562025E-2	6.847031E-2	5.751766E-2	8.177530E-2	8.483997E-2	7.690591E-2	6.563923E-2	8.983410E-2	6.563050E-2	7.265530E-2	6.845269E-2	6.787067E-2	7.105955E-2	5.766491E-2	6.792901E-2	7.565965E-2	8.422405E-2	7.112229E-2	8.052475E-2	6.899824E-2	6.289261E-2	6.452124E-2	6.604390E-2	7.239973E-2	7.821971E-2	6.802736E-2	7.903387E-2	7.515314E-2	6.779991E-2	6.226845E-2	7.871094E-2	7.648613E-2	6.698222E-2	7.354341E-2	6.531491E-2	7.630584E-2	5.114369E-2	6.941434E-2	7.452769E-2	6.292088E-2	7.428796E-2	7.323650E-2	7.334468E-2	8.306882E-2	7.108704E-2	7.164522E-2	6.711441E-2	8.123701E-2	7.568594E-2	7.832565E-2	6.998382E-2	8.728933E-2	6.568760E-2	6.926756E-2	8.140352E-2	5.661709E-2	7.392449E-2	7.714397E-2	6.911619E-2	6.834428E-2	7.093264E-2	7.130299E-2	7.756352E-2	7.167148E-2	7.337854E-2	7.480851E-2	7.834182E-2	8.072896E-2	9.080396E-2
5.337580E+2	9.663795E-2	9.433589E-2	9.264499E-2	9.233640E-2	9.399887E-2	9.649593E-2	9.457777E-2	9.595764E-2	9.766514E-2	1.101849E-1	8.766510E-2	1.040928E-1	9.461011E-2	1.012281E-1	1.054750E-1	1.180644E-1	9.987673E-2	9.345369E-2	1.076700E-1	1.019611E-1	8.158841E-2	1.014152E-1	1.052638E-1	8.254997E-2	1.367389E-1	1.146037E-1	1.081186E-1	1.093355E-1	1.094992E-1	1.220026E-1	1.135772E-1	1.328399E-1	1.118708E-1	9.680231E-2	1.261553E-1	1.060184E-1	1.105758E-1	1.029064E-1	1.389906E-1	1.060543E-1	1.186346E-1	1.058115E-1	9.567355E-2	1.028567E-1	1.210078E-1	1.072309E-1	1.149200E-1	1.112025E-1	1.065637E-1	1.035113E-1	8.777855E-2	1.056242E-1	1.111721E-1	9.207742E-2	9.145305E-2	9.997652E-2	9.009797E-2	1.161616E-1	9.311728E-2	1.231491E-1	1.029166E-1	8.860963E-2	1.000229E-1	1.164862E-1	1.146031E-1	1.117489E-1	1.202027E-1	9.260597E-2	1.076052E-1	9.379477E-2	9.377402E-2	1.075695E-1	9.630088E-2	1.017291E-1	1.159593E-1	1.005640E-1	9.796665E-2	1.044959E-1	1.036963E-1	1.023282E-1	9.499971E-2	9.603874E-2	1.076325E-1	9.797820E-2	1.062598E-1	1.043472E-1	9.827378E-2	1.040884E-1	1.155579E-1	1.102153E-1	9.043719E-2	1.131059E-1	1.037981E-1	1.144734E-1	1.308901E-1	9.669465E-2	1.147344E-1	1.100853E-1	9.713579E-2	1.039969E-1	1.089219E-1	1.225982E-1	1.064252E-1	1.025549E-1	1.165460E-1	9.191660E-2	1.216869E-1	1.123912E-1	1.108474E-1	1.080031E-1	9.795876E-2	1.009589E-1	1.039352E-1	9.899542E-2	9.549533E-2	1.104683E-1	9.731455E-2	9.931352E-2	1.064721E-1	1.018671E-1	1.098676E-1	1.109221E-1	9.495593E-2	1.101200E-1	1.031611E-1	1.030061E-1	1.021224E-1	1.216413E-1	1.006220E-1	1.084337E-1	9.673649E-2	1.185059E-1	1.014119E-1	1.097800E-1	1.161001E-1	1.098485E-1	9.770153E-2	8.776369E-2	1.068130E-1	1.189227E-1	1.089347E-1	1.106759E-1	1.089015E-1	1.013500E-1	7.843010E-2	1.017510E-1	1.138632E-1	1.051851E-1	1.021292E-1	1.012062E-1	9.883214E-2	1.043365E-1	1.080233E-1	1.099171E-1	9.344338E-2	1.075254E-1	9.420448E-2	9.525328E-2	1.018396E-1	1.006887E-1	9.423062E-2	1.067948E-1	1.034814E-1	1.184786E-1	1.019081E-1	9.502683E-2	1.076677E-1	1.184902E-1	8.569039E-2	1.075931E-1
5.339190E+2	1.566448E-1	1.678108E-1	1.713530E-1	1.687473E-1	1.651147E-1	1.374950E-1	1.595459E-1	1.504823E-1	1.656416E-1	1.713499E-1	1.694167E-1	1.698531E-1	1.611457E-1	1.912403E-1	1.696955E-1	1.726899E-1	1.683744E-1	1.715736E-1	1.638373E-1	1.533204E-1	1.720355E-1	1.555029E-1	1.424865E-1	1.753590E-1	2.455752E-1	1.947034E-1	1.950186E-1	2.151455E-1	1.930998E-1	1.834648E-1	1.990709E-1	1.930291E-1	1.831655E-1	1.800884E-1	1.804223E-1	1.806389E-1	2.039037E-1	1.787932E-1	1.831635E-1	1.698653E-1	1.882683E-1	1.982016E-1	1.777492E-1	1.700106E-1	1.761574E-1	1.955996E-1	1.772113E-1	1.758235E-1	1.875545E-1	1.942510E-1	1.933587E-1	1.803068E-1	1.675744E-1	1.956057E-1	1.766037E-1	1.848699E-1	1.949296E-1	1.843658E-1	1.727113E-1	1.996852E-1	1.897493E-1	1.834519E-1	1.746481E-1	1.759932E-1	1.950111E-1	1.740369E-1	1.712838E-1	1.705858E-1	1.678801E-1	1.875219E-1	1.786678E-1	1.773141E-1	1.754161E-1	1.670466E-1	1.689160E-1	1.751264E-1	1.862178E-1	1.761231E-1	1.918634E-1	1.868751E-1	1.747688E-1	1.696561E-1	1.840870E-1	1.625363E-1	1.703910E-1	1.743215E-1	1.827216E-1	1.689877E-1	1.681340E-1	1.686681E-1	1.868537E-1	1.777603E-1	1.697360E-1	1.603022E-1	1.938085E-1	1.675281E-1	1.658811E-1	1.735555E-1	1.830274E-1	1.553255E-1	1.489126E-1	1.838222E-1	1.725164E-1	1.765152E-1	1.755054E-1	1.770477E-1	1.717397E-1	2.062222E-1	1.849644E-1	1.831286E-1	1.808324E-1	1.777160E-1	1.727003E-1	1.801552E-1	1.539781E-1	1.847780E-1	1.804965E-1	1.861143E-1	1.867993E-1	1.738272E-1	1.582444E-1	1.797280E-1	1.683967E-1	1.737431E-1	1.777867E-1	1.781829E-1	1.889596E-1	1.819111E-1	1.735507E-1	1.399654E-1	1.675862E-1	2.096682E-1	1.910925E-1	1.620339E-1	1.831456E-1	1.794884E-1	1.670302E-1	1.760976E-1	1.840819E-1	1.898785E-1	1.746763E-1	1.776813E-1	1.722824E-1	1.920308E-1	1.741122E-1	1.769841E-1	1.662500E-1	1.768907E-1	1.589747E-1	1.622633E-1	1.632775E-1	1.862799E-1	1.832345E-1	1.695165E-1	1.816206E-1	1.935137E-1	1.993600E-1	1.626469E-1	1.744100E-1	1.788141E-1	1.839807E-1	1.847855E-1	1.889727E-1	1.691698E-1	1.739414E-1	1.611418E-1	1.637388E-1	1.712716E-1	2.077434E-1	2.018178E-1
5.340690E+2	2.851672E-1	2.741335E-1	2.683611E-1	2.493180E-1	2.702368E-1	2.701352E-1	2.618261E-1	2.754242E-1	2.770450E-1	2.710070E-1	2.651754E-1	2.819515E-1	2.787674E-1	2.726194E-1	2.591808E-1	2.495107E-1	2.732784E-1	2.583526E-1	2.876566E-1	2.604798E-1	2.630529E-1	2.954026E-1	2.651135E-1	2.876773E-1	3.765044E-1	3.638852E-1	3.228374E-1	3.388964E-1	3.374114E-1	3.256440E-1	2.940233E-1	3.267511E-1	2.987254E-1	3.010140E-1	3.128641E-1	3.035690E-1	3.484212E-1	3.236070E-1	3.069205E-1	2.810761E-1	3.521850E-1	3.228193E-1	2.960713E-1	2.981193E-1	3.198295E-1	3.350423E-1	3.081102E-1	3.012280E-1	3.002065E-1	3.248753E-1	2.899610E-1	2.964108E-1	2.884478E-1	3.100129E-1	3.091005E-1	3.000890E-1	3.031197E-1	2.965618E-1	3.181380E-1	2.909087E-1	3.190571E-1	2.893285E-1	3.064697E-1	2.704135E-1	2.878996E-1	2.810573E-1	3.262001E-1	3.026910E-1	3.134634E-1	3.000213E-1	3.107699E-1	2.967782E-1	2.983986E-1	2.956132E-1	2.958039E-1	2.791082E-1	2.707124E-1	3.189150E-1	3.022263E-1	3.065774E-1	3.032013E-1	3.181171E-1	3.164601E-1	3.049002E-1	2.992378E-1	3.203582E-1	2.827150E-1	2.981436E-1	3.069541E-1	2.893709E-1	2.985699E-1	2.826668E-1	2.725517E-1	2.930975E-1	2.843954E-1	2.800902E-1	3.121384E-1	3.011808E-1	2.997728E-1	3.079656E-1	2.901437E-1	3.167641E-1	2.698237E-1	2.804693E-1	2.983203E-1	2.941777E-1	2.801535E-1	2.985836E-1	3.168734E-1	2.848636E-1	3.126296E-1	3.012203E-1	2.751314E-1	2.872685E-1	2.802599E-1	3.007406E-1	2.918311E-1	2.964218E-1	3.098636E-1	3.187274E-1	2.688671E-1	3.072340E-1	2.903653E-1	2.992617E-1	2.770193E-1	2.741726E-1	2.829120E-1	2.895349E-1	2.687546E-1	2.929985E-1	3.179118E-1	3.015276E-1	3.014099E-1	2.886407E-1	2.625518E-1	2.929255E-1	3.095975E-1	2.877584E-1	2.938609E-1	2.892876E-1	2.909465E-1	2.795561E-1	2.973764E-1	3.185183E-1	2.926861E-1	2.788486E-1	2.878309E-1	3.059578E-1	2.840591E-1	2.864001E-1	3.133039E-1	2.846369E-1	2.857066E-1	2.942734E-1	2.666778E-1	3.274163E-1	2.901011E-1	2.811077E-1	2.649753E-1	2.841581E-1	3.332483E-1	2.517288E-1	2.810719E-1	2.916602E-1	3.082866E-1	3.129927E-1	2.615112E-1	3.137942E-1	3.057603E-1	2.727609E-1
5.342040E+2	4.752573E-1	4.536623E-1	4.362036E-1	4.342264E-1	4.660740E-1	4.782402E-1	4.631476E-1	4.497323E-1	4.949822E-1	4.631610E-1	4.634371E-1	4.629234E-1	4.789807E-1	4.578980E-1	4.683635E-1	4.918004E-1	4.661555E-1	4.570268E-1	4.545331E-1	4.525689E-1	4.702713E-1	4.862458E-1	4.676620E-1	4.803811E-1	6.399268E-1	5.920083E-1	5.775347E-1	5.797792E-1	5.409845E-1	5.322530E-1	5.512926E-1	5.185265E-1	4.992807E-1	5.682216E-1	4.946807E-1	5.454750E-1	5.558818E-1	5.233073E-1	5.315245E-1	5.350419E-1	5.092302E-1	4.982994E-1	4.924064E-1	5.199107E-1	5.090853E-1	5.209334E-1	5.197428E-1	5.113613E-1	5.358999E-1	5.423138E-1	5.369262E-1	4.988824E-1	5.098169E-1	5.157078E-1	5.283831E-1	5.210058E-1	5.145044E-1	5.138460E-1	4.749715E-1	5.036165E-1	4.885451E-1	5.301476E-1	5.026449E-1	5.104395E-1	5.178582E-1	5.198130E-1	5.204408E-1	4.814581E-1	4.823718E-1	4.927162E-1	5.435788E-1	5.083747E-1	5.153784E-1	5.190088E-1	5.113618E-1	4.879095E-1	5.081871E-1	4.936709E-1	5.026118E-1	5.114774E-1	5.000423E-1	5.324355E-1	4.929993E-1	5.124289E-1	5.183272E-1	5.047332E-1	4.934489E-1	4.612282E-1	4.766352E-1	4.850746E-1	4.865229E-1	4.955251E-1	4.599262E-1	4.974847E-1	4.939670E-1	4.894916E-1	5.013082E-1	4.900410E-1	4.903105E-1	4.875494E-1	4.961060E-1	4.694134E-1	5.133720E-1	4.820033E-1	4.989910E-1	4.626724E-1	4.854042E-1	5.072944E-1	4.870348E-1	4.906239E-1	4.893265E-1	5.120055E-1	5.328429E-1	5.128464E-1	4.713777E-1	5.021800E-1	5.077677E-1	4.976009E-1	4.863619E-1	4.953547E-1	5.163138E-1	5.003064E-1	4.806579E-1	4.953655E-1	4.960408E-1	4.915258E-1	4.798031E-1	4.856605E-1	5.011358E-1	5.227228E-1	5.112790E-1	4.770471E-1	4.981781E-1	4.785511E-1	4.688321E-1	5.041307E-1	4.809090E-1	4.884954E-1	4.723772E-1	5.047573E-1	5.147369E-1	4.724347E-1	4.851539E-1	5.074400E-1	4.944773E-1	4.875807E-1	5.062133E-1	4.957454E-1	4.760079E-1	5.060373E-1	5.103943E-1	4.698454E-1	5.144672E-1	4.820112E-1	5.030496E-1	5.167602E-1	4.907654E-1	4.759019E-1	5.084517E-1	4.877571E-1	4.971583E-1	5.037951E-1	4.676885E-1	4.934731E-1	5.029601E-1	5.147316E-1	4.915511E-1	4.754271E-1	4.904986E-1	5.134162E-1
5.343650E+2	7.857644E-1	7.867035E-1	7.549009E-1	8.342525E-1	8.144804E-1	7.739730E-1	7.642754E-1	8.213997E-1	7.922471E-1	7.789715E-1	7.864778E-1	7.830861E-1	8.061544E-1	7.737096E-1	8.036204E-1	7.784340E-1	8.097003E-1	8.170290E-1	8.087193E-1	8.107641E-1	7.539369E-1	7.933028E-1	7.578964E-1	7.745119E-1	9.661376E-1	9.102309E-1	9.029266E-1	8.862165E-1	9.044363E-1	9.002168E-1	8.817768E-1	8.770727E-1	8.704483E-1	8.702544E-1	8.707758E-1	9.018808E-1	8.679000E-1	8.905582E-1	8.564432E-1	8.791574E-1	9.165375E-1	8.095599E-1	8.184960E-1	8.676560E-1	9.097186E-1	8.765683E-1	8.413701E-1	8.275044E-1	8.577341E-1	8.266379E-1	8.180500E-1	8.535640E-1	8.515483E-1	8.441214E-1	8.553564E-1	8.499529E-1	8.194960E-1	8.372000E-1	8.051974E-1	8.545339E-1	8.602200E-1	8.719471E-1	8.874100E-1	8.485545E-1	8.930720E-1	8.111306E-1	8.564292E-1	8.451184E-1	8.283026E-1	8.159799E-1	8.605907E-1	8.346862E-1	8.276679E-1	8.651174E-1	8.162231E-1	8.541097E-1	8.910427E-1	8.425382E-1	7.968970E-1	8.444435E-1	8.131727E-1	8.394161E-1	8.561573E-1	8.152412E-1	8.752572E-1	8.161244E-1	8.027307E-1	8.462947E-1	8.683574E-1	7.984879E-1	7.924948E-1	7.952371E-1	8.065193E-1	8.074050E-1	8.042170E-1	8.896908E-1	8.390991E-1	8.186475E-1	8.395086E-1	8.139209E-1	8.010082E-1	8.094790E-1	8.708717E-1	8.384131E-1	8.640390E-1	8.546715E-1	7.766244E-1	8.406816E-1	8.256703E-1	8.068515E-1	8.260715E-1	8.426536E-1	7.895458E-1	8.357664E-1	8.088144E-1	8.286800E-1	8.473027E-1	8.324023E-1	8.244050E-1	8.532231E-1	8.390109E-1	8.104099E-1	8.555213E-1	8.248726E-1	8.525877E-1	7.894215E-1	8.101552E-1	7.758290E-1	8.237925E-1	7.964818E-1	7.964184E-1	8.388976E-1	8.507614E-1	8.128877E-1	8.231432E-1	8.226566E-1	7.925018E-1	8.296710E-1	8.350217E-1	7.941603E-1	8.194249E-1	8.370095E-1	8.233123E-1	8.774707E-1	9.064595E-1	8.159013E-1	8.080566E-1	8.102433E-1	8.202363E-1	8.412432E-1	8.138297E-1	8.202128E-1	8.059379E-1	8.612266E-1	8.058333E-1	8.621408E-1	8.186961E-1	8.021475E-1	8.259361E-1	8.537967E-1	7.717577E-1	7.980283E-1	8.248584E-1	7.897382E-1	8.167714E-1	8.296175E-1	8.219034E-1	8.719849E-1	8.657017E-1	8.555983E-1
5.345160E+2	1.220340E+0	1.218341E+0	1.183074E+0	1.145357E+0	1.254637E+0	1.183487E+0	1.179347E+0	1.258348E+0	1.219189E+0	1.224187E+0	1.193291E+0	1.269917E+0	1.221462E+0	1.195803E+0	1.206185E+0	1.223528E+0	1.221027E+0	1.237351E+0	1.224535E+0	1.261872E+0	1.201739E+0	1.209432E+0	1.228413E+0	1.214952E+0	1.429378E+0	1.332250E+0	1.288956E+0	1.310468E+0	1.342398E+0	1.294251E+0	1.287607E+0	1.280845E+0	1.299562E+0	1.295798E+0	1.321456E+0	1.253989E+0	1.275282E+0	1.281935E+0	1.236572E+0	1.237489E+0	1.305087E+0	1.250684E+0	1.265297E+0	1.250652E+0	1.286660E+0	1.272793E+0	1.191509E+0	1.278618E+0	1.258127E+0	1.223373E+0	1.288955E+0	1.244583E+0	1.263264E+0	1.277472E+0	1.254720E+0	1.285598E+0	1.259646E+0	1.292551E+0	1.239123E+0	1.324857E+0	1.272370E+0	1.230683E+0	1.261138E+0	1.239376E+0	1.320995E+0	1.250942E+0	1.249179E+0	1.239893E+0	1.245095E+0	1.282013E+0	1.269552E+0	1.266496E+0	1.244371E+0	1.275353E+0	1.234048E+0	1.267043E+0	1.248584E+0	1.245936E+0	1.234921E+0	1.243276E+0	1.293230E+0	1.258565E+0	1.305782E+0	1.233810E+0	1.276118E+0	1.258691E+0	1.219909E+0	1.269219E+0	1.288768E+0	1.256147E+0	1.215570E+0	1.244847E+0	1.289874E+0	1.266851E+0	1.241361E+0	1.251669E+0	1.287203E+0	1.227666E+0	1.243829E+0	1.247547E+0	1.254831E+0	1.223894E+0	1.244064E+0	1.234027E+0	1.254871E+0	1.251788E+0	1.244342E+0	1.259690E+0	1.241818E+0	1.255478E+0	1.224305E+0	1.219523E+0	1.213003E+0	1.234543E+0	1.230469E+0	1.205069E+0	1.221104E+0	1.266938E+0	1.217757E+0	1.202152E+0	1.305908E+0	1.205434E+0	1.159684E+0	1.250951E+0	1.193287E+0	1.249823E+0	1.220823E+0	1.206781E+0	1.299122E+0	1.289206E+0	1.235749E+0	1.238682E+0	1.282921E+0	1.201591E+0	1.262288E+0	1.217217E+0	1.222476E+0	1.241712E+0	1.264967E+0	1.260060E+0	1.218216E+0	1.196936E+0	1.249181E+0	1.256988E+0	1.222638E+0	1.192349E+0	1.203045E+0	1.226278E+0	1.227587E+0	1.260374E+0	1.249936E+0	1.208526E+0	1.260650E+0	1.226584E+0	1.216329E+0	1.247054E+0	1.243234E+0	1.232386E+0	1.251485E+0	1.222906E+0	1.233364E+0	1.230663E+0	1.251557E+0	1.212723E+0	1.276394E+0	1.202045E+0	1.212982E+0	1.253597E+0	1.245658E+0	1.177516E+0
5.346620E+2	1.624890E+0	1.567226E+0	1.544461E+0	1.596669E+0	1.567288E+0	1.599947E+0	1.531968E+0	1.581735E+0	1.558326E+0	1.576792E+0	1.575597E+0	1.548123E+0	1.616529E+0	1.554732E+0	1.615425E+0	1.612981E+0	1.559775E+0	1.624978E+0	1.565114E+0	1.622350E+0	1.568229E+0	1.594180E+0	1.527058E+0	1.522634E+0	1.742470E+0	1.626631E+0	1.638204E+0	1.659982E+0	1.601772E+0	1.650887E+0	1.644665E+0	1.621246E+0	1.635299E+0	1.604930E+0	1.640337E+0	1.629630E+0	1.643219E+0	1.626342E+0	1.656816E+0	1.595014E+0	1.647481E+0	1.616702E+0	1.594716E+0	1.614048E+0	1.564872E+0	1.679956E+0	1.659443E+0	1.604438E+0	1.599110E+0	1.636730E+0	1.595042E+0	1.590415E+0	1.602021E+0	1.625961E+0	1.593573E+0	1.589354E+0	1.592810E+0	1.625926E+0	1.557158E+0	1.594309E+0	1.573629E+0	1.577398E+0	1.596354E+0	1.584960E+0	1.706185E+0	1.557337E+0	1.604532E+0	1.616292E+0	1.602970E+0	1.539651E+0	1.546719E+0	1.596359E+0	1.643686E+0	1.579960E+0	1.585110E+0	1.588524E+0	1.623066E+0	1.566796E+0	1.607965E+0	1.578311E+0	1.603561E+0	1.601560E+0	1.606582E+0	1.602745E+0	1.618582E+0	1.549467E+0	1.547908E+0	1.591449E+0	1.629237E+0	1.577514E+0	1.618033E+0	1.591430E+0	1.573840E+0	1.573317E+0	1.510724E+0	1.571629E+0	1.601835E+0	1.573926E+0	1.535319E+0	1.591975E+0	1.585988E+0	1.590506E+0	1.567485E+0	1.624817E+0	1.646193E+0	1.637161E+0	1.615780E+0	1.601609E+0	1.610223E+0	1.584598E+0	1.562034E+0	1.535545E+0	1.649600E+0	1.573762E+0	1.578307E+0	1.581379E+0	1.586665E+0	1.642894E+0	1.540038E+0	1.592054E+0	1.594835E+0	1.551159E+0	1.535088E+0	1.535030E+0	1.575536E+0	1.541727E+0	1.568304E+0	1.571034E+0	1.579866E+0	1.608878E+0	1.555568E+0	1.551732E+0	1.588187E+0	1.570436E+0	1.620921E+0	1.530468E+0	1.606007E+0	1.623914E+0	1.505915E+0	1.571533E+0	1.547707E+0	1.539866E+0	1.586227E+0	1.530290E+0	1.591970E+0	1.536679E+0	1.510920E+0	1.575043E+0	1.559869E+0	1.593663E+0	1.518809E+0	1.525601E+0	1.563307E+0	1.538249E+0	1.571722E+0	1.577717E+0	1.604947E+0	1.532157E+0	1.625655E+0	1.586232E+0	1.582103E+0	1.535821E+0	1.521979E+0	1.488565E+0	1.574477E+0	1.577978E+0	1.533515E+0	1.552522E+0	1.523150E+0	1.629238E+0
5.348280E+2	2.013284E+0	2.017264E+0	1.972525E+0	1.873023E+0	1.987472E+0	1.925964E+0	1.907011E+0	2.002465E+0	1.987337E+0	1.958576E+0	1.999471E+0	1.939720E+0	1.993425E+0	1.970734E+0	1.871517E+0	1.953718E+0	1.898101E+0	1.980039E+0	1.989191E+0	1.980338E+0	1.956416E+0	1.995309E+0	1.912016E+0	1.977132E+0	2.047245E+0	1.986010E+0	1.971905E+0	1.969447E+0	2.004376E+0	2.006624E+0	1.975086E+0	1.975552E+0	1.955206E+0	1.940677E+0	1.927272E+0	2.014425E+0	2.050463E+0	1.974745E+0	1.901494E+0	1.921463E+0	2.022195E+0	2.002523E+0	1.913523E+0	1.980878E+0	1.919736E+0	1.983983E+0	1.996131E+0	1.958262E+0	1.924359E+0	1.956285E+0	1.952005E+0	1.961788E+0	1.909250E+0	1.937519E+0	1.950493E+0	1.946936E+0	1.982397E+0	1.994318E+0	1.964479E+0	1.962599E+0	1.909694E+0	1.959554E+0	1.946110E+0	1.913729E+0	1.947616E+0	1.872930E+0	2.005447E+0	1.938339E+0	1.911509E+0	1.965961E+0	1.888690E+0	1.900109E+0	2.002964E+0	1.951177E+0	1.885384E+0	1.970084E+0	1.941666E+0	1.928837E+0	1.897992E+0	1.996736E+0	1.959573E+0	1.998838E+0	1.933836E+0	1.917836E+0	1.996167E+0	1.991351E+0	1.873519E+0	1.904518E+0	1.923357E+0	1.937909E+0	1.950059E+0	1.926138E+0	1.914969E+0	1.908655E+0	1.883322E+0	1.885295E+0	1.955122E+0	1.927367E+0	1.935821E+0	1.915761E+0	1.973941E+0	1.935771E+0	1.936218E+0	1.935873E+0	1.998500E+0	1.909682E+0	1.830834E+0	1.947246E+0	1.935574E+0	1.915778E+0	1.918816E+0	1.947811E+0	1.967221E+0	1.905024E+0	1.876571E+0	1.921392E+0	1.910004E+0	1.964618E+0	1.863191E+0	1.883546E+0	1.915350E+0	1.891020E+0	1.868342E+0	1.925317E+0	1.892760E+0	1.837245E+0	1.883388E+0	1.951227E+0	1.919834E+0	1.970408E+0	1.917192E+0	1.981372E+0	1.901655E+0	1.892223E+0	1.888650E+0	1.903377E+0	1.970641E+0	1.927506E+0	1.850704E+0	1.919283E+0	1.926573E+0	1.870152E+0	1.915835E+0	1.886684E+0	1.931045E+0	1.895854E+0	1.879113E+0	1.899545E+0	1.922697E+0	1.902350E+0	1.903780E+0	1.886370E+0	1.876835E+0	1.847365E+0	1.897596E+0	1.968004E+0	1.937864E+0	1.843011E+0	1.883946E+0	1.917274E+0	1.947622E+0	1.902357E+0	1.899375E+0	1.842766E+0	1.914522E+0	1.891351E+0	1.852841E+0	1.853506E+0	1.960861E+0	1.961669E+0
5.349740E+2	2.192501E+0	2.075779E+0	2.067028E+0	2.126287E+0	2.153782E+0	2.125182E+0	2.007240E+0	2.117200E+0	2.109603E+0	2.182771E+0	2.080641E+0	2.138683E+0	2.160669E+0	2.127904E+0	2.083439E+0	2.125651E+0	2.075627E+0	2.140756E+0	2.153078E+0	2.110949E+0	2.063530E+0	2.103644E+0	2.049843E+0	2.099288E+0	2.134876E+0	2.113830E+0	2.034803E+0	2.044122E+0	2.111676E+0	2.141964E+0	2.067305E+0	2.062886E+0	2.101765E+0	2.111457E+0	2.064385E+0	2.139048E+0	2.141301E+0	2.060858E+0	2.053945E+0	2.012127E+0	2.125835E+0	2.061946E+0	2.086142E+0	2.089032E+0	2.081336E+0	2.072132E+0	2.049454E+0	2.064082E+0	2.067333E+0	2.048452E+0	2.029878E+0	2.061862E+0	2.106418E+0	2.094809E+0	2.052628E+0	2.102882E+0	2.063088E+0	2.089469E+0	2.125330E+0	2.101385E+0	2.039785E+0	2.061086E+0	2.059586E+0	2.042766E+0	2.143191E+0	1.990470E+0	2.114198E+0	2.107151E+0	2.026013E+0	2.054406E+0	2.031509E+0	2.053534E+0	2.046492E+0	2.063798E+0	2.083700E+0	2.090041E+0	2.097834E+0	2.084331E+0	1.997249E+0	2.004167E+0	2.087158E+0	2.128794E+0	2.057872E+0	2.080779E+0	2.206237E+0	2.130128E+0	2.096024E+0	2.040691E+0	2.070812E+0	2.042000E+0	2.043882E+0	2.082421E+0	2.075052E+0	2.031931E+0	1.980268E+0	2.066865E+0	2.123939E+0	1.990621E+0	2.027001E+0	2.002955E+0	2.052215E+0	1.981413E+0	2.103703E+0	2.080942E+0	2.148736E+0	2.030894E+0	2.097948E+0	2.070990E+0	2.092357E+0	2.082240E+0	2.008737E+0	2.008286E+0	2.038274E+0	2.022444E+0	1.959293E+0	2.098282E+0	2.023673E+0	2.068124E+0	2.032321E+0	2.079643E+0	2.117911E+0	2.053597E+0	2.034620E+0	1.984869E+0	2.058827E+0	2.071038E+0	2.013711E+0	1.996668E+0	2.050154E+0	2.022339E+0	2.007750E+0	2.023697E+0	2.097631E+0	1.990973E+0	2.037771E+0	2.015402E+0	2.088989E+0	2.081504E+0	2.041673E+0	2.122106E+0	2.004263E+0	2.065491E+0	2.064126E+0	2.052805E+0	2.109873E+0	2.017388E+0	1.971097E+0	1.900149E+0	1.957018E+0	2.066800E+0	2.102370E+0	2.017411E+0	2.096123E+0	1.995493E+0	2.039411E+0	2.041410E+0	2.078052E+0	1.929730E+0	1.987206E+0	2.030886E+0	1.977127E+0	1.981317E+0	1.989434E+0	1.947796E+0	1.998704E+0	2.048485E+0	1.995228E+0	1.989204E+0	2.031840E+0	1.945347E+0
5.351090E+2	2.098119E+0	2.071481E+0	1.983556E+0	2.063969E+0	2.089883E+0	2.114573E+0	2.026090E+0	2.050430E+0	2.043362E+0	2.068865E+0	2.055194E+0	2.032089E+0	2.067580E+0	2.131679E+0	2.064364E+0	2.038276E+0	2.044990E+0	2.085727E+0	2.039801E+0	2.096698E+0	2.041594E+0	2.013119E+0	2.066225E+0	2.069130E+0	2.064759E+0	2.016472E+0	1.964977E+0	1.983629E+0	2.005952E+0	2.032948E+0	2.029698E+0	2.012313E+0	2.034095E+0	2.033324E+0	1.983007E+0	2.000471E+0	2.045870E+0	1.989978E+0	1.990460E+0	2.003060E+0	2.011375E+0	2.047897E+0	1.949432E+0	2.014177E+0	2.073006E+0	1.933621E+0	1.989029E+0	1.977160E+0	2.020970E+0	2.072434E+0	1.957466E+0	2.087533E+0	2.027411E+0	2.028172E+0	1.997973E+0	2.080953E+0	2.043116E+0	2.048820E+0	2.011363E+0	2.002722E+0	1.993570E+0	2.051755E+0	2.063529E+0	1.956586E+0	2.085665E+0	2.013196E+0	2.041509E+0	2.006516E+0	1.980456E+0	2.040799E+0	2.047828E+0	1.999015E+0	2.035933E+0	1.984556E+0	1.973986E+0	2.046549E+0	2.044502E+0	2.043369E+0	2.002968E+0	2.004622E+0	1.997098E+0	2.000224E+0	2.060023E+0	2.030864E+0	2.041774E+0	2.005883E+0	1.939069E+0	2.009550E+0	2.009018E+0	2.008656E+0	1.970850E+0	2.076095E+0	1.981105E+0	1.993612E+0	1.973961E+0	2.009624E+0	2.068172E+0	2.001666E+0	1.986963E+0	2.022486E+0	2.048842E+0	1.952489E+0	2.026802E+0	2.034317E+0	2.026900E+0	1.990006E+0	1.994659E+0	2.017261E+0	2.015444E+0	2.002033E+0	1.971287E+0	1.956315E+0	2.000475E+0	2.002428E+0	1.971773E+0	2.049558E+0	2.046259E+0	2.049069E+0	1.910129E+0	1.988761E+0	2.056007E+0	1.955321E+0	2.055142E+0	1.926784E+0	2.019822E+0	1.986936E+0	1.932154E+0	1.914016E+0	1.988807E+0	1.970845E+0	1.964168E+0	1.968662E+0	2.021938E+0	1.975248E+0	1.924730E+0	1.970808E+0	2.066431E+0	2.022552E+0	1.883333E+0	1.971984E+0	1.953831E+0	1.944825E+0	1.980679E+0	2.019004E+0	1.981064E+0	1.984283E+0	1.881137E+0	2.005884E+0	1.967558E+0	2.017251E+0	1.933071E+0	1.942368E+0	1.909428E+0	1.912629E+0	1.977196E+0	1.985727E+0	2.020990E+0	1.922161E+0	1.954390E+0	2.007247E+0	1.945803E+0	2.013632E+0	1.976613E+0	1.858292E+0	1.962668E+0	1.959910E+0	1.912483E+0	2.065824E+0	2.005023E+0	2.033782E+0
5.352600E+2	1.867588E+0	1.907360E+0	1.833298E+0	1.857140E+0	1.807471E+0	1.854316E+0	1.815894E+0	1.786768E+0	1.774789E+0	1.879262E+0	1.790927E+0	1.822032E+0	1.851726E+0	1.765629E+0	1.754481E+0	1.846294E+0	1.788441E+0	1.916738E+0	1.787263E+0	1.849817E+0	1.728271E+0	1.825325E+0	1.777637E+0	1.838186E+0	1.731606E+0	1.700867E+0	1.763426E+0	1.717753E+0	1.746268E+0	1.787467E+0	1.784640E+0	1.776631E+0	1.748515E+0	1.762844E+0	1.766209E+0	1.763302E+0	1.793041E+0	1.743057E+0	1.750416E+0	1.711535E+0	1.807360E+0	1.836574E+0	1.758069E+0	1.757263E+0	1.759056E+0	1.859734E+0	1.762915E+0	1.743934E+0	1.699682E+0	1.775283E+0	1.785252E+0	1.784316E+0	1.719952E+0	1.780383E+0	1.790564E+0	1.789098E+0	1.835425E+0	1.804691E+0	1.832395E+0	1.813364E+0	1.756934E+0	1.752307E+0	1.790389E+0	1.716591E+0	1.827592E+0	1.769429E+0	1.777467E+0	1.780793E+0	1.764316E+0	1.789101E+0	1.798434E+0	1.779232E+0	1.801309E+0	1.784183E+0	1.755875E+0	1.762834E+0	1.800603E+0	1.777261E+0	1.697094E+0	1.817023E+0	1.810262E+0	1.850793E+0	1.749659E+0	1.771499E+0	1.744267E+0	1.808046E+0	1.750886E+0	1.807756E+0	1.759986E+0	1.735044E+0	1.776539E+0	1.800124E+0	1.727443E+0	1.735080E+0	1.756093E+0	1.769239E+0	1.782975E+0	1.761165E+0	1.767080E+0	1.738496E+0	1.730178E+0	1.738963E+0	1.677027E+0	1.784986E+0	1.875011E+0	1.770342E+0	1.769033E+0	1.804166E+0	1.780224E+0	1.772411E+0	1.706745E+0	1.704076E+0	1.769330E+0	1.754208E+0	1.771297E+0	1.784875E+0	1.726843E+0	1.840910E+0	1.703451E+0	1.715340E+0	1.793206E+0	1.780875E+0	1.732970E+0	1.732718E+0	1.773673E+0	1.819711E+0	1.696141E+0	1.740268E+0	1.750722E+0	1.777772E+0	1.722291E+0	1.783290E+0	1.779888E+0	1.678859E+0	1.752640E+0	1.743043E+0	1.869897E+0	1.823910E+0	1.710340E+0	1.793804E+0	1.803105E+0	1.778484E+0	1.777778E+0	1.769830E+0	1.805857E+0	1.750888E+0	1.703250E+0	1.768081E+0	1.719806E+0	1.795070E+0	1.752784E+0	1.651361E+0	1.792829E+0	1.776795E+0	1.709144E+0	1.689019E+0	1.760238E+0	1.734547E+0	1.696109E+0	1.770587E+0	1.754640E+0	1.724770E+0	1.749983E+0	1.725847E+0	1.757205E+0	1.687803E+0	1.728385E+0	1.769300E+0	1.737414E+0	1.796146E+0
5.354110E+2	1.596750E+0	1.598132E+0	1.522335E+0	1.566171E+0	1.533140E+0	1.539043E+0	1.498012E+0	1.621835E+0	1.521279E+0	1.581560E+0	1.490022E+0	1.551730E+0	1.565139E+0	1.531242E+0	1.543196E+0	1.595634E+0	1.560994E+0	1.642888E+0	1.580845E+0	1.556189E+0	1.473460E+0	1.573142E+0	1.506320E+0	1.543354E+0	1.583263E+0	1.471893E+0	1.511329E+0	1.522291E+0	1.577832E+0	1.559625E+0	1.517931E+0	1.538465E+0	1.498301E+0	1.576712E+0	1.500419E+0	1.583890E+0	1.507875E+0	1.486079E+0	1.501684E+0	1.512415E+0	1.551741E+0	1.520729E+0	1.462695E+0	1.530254E+0	1.550709E+0	1.544483E+0	1.562090E+0	1.509576E+0	1.487959E+0	1.534570E+0	1.560795E+0	1.559794E+0	1.501986E+0	1.522219E+0	1.558276E+0	1.560994E+0	1.508026E+0	1.539632E+0	1.514619E+0	1.571040E+0	1.481693E+0	1.549302E+0	1.512849E+0	1.513369E+0	1.538871E+0	1.513303E+0	1.565679E+0	1.504603E+0	1.470584E+0	1.531839E+0	1.516743E+0	1.523362E+0	1.509841E+0	1.485173E+0	1.549959E+0	1.498362E+0	1.492468E+0	1.499330E+0	1.475559E+0	1.498156E+0	1.574770E+0	1.520497E+0	1.580360E+0	1.547796E+0	1.517638E+0	1.573314E+0	1.497395E+0	1.527995E+0	1.499310E+0	1.521673E+0	1.520896E+0	1.550704E+0	1.541232E+0	1.548420E+0	1.502745E+0	1.546153E+0	1.511403E+0	1.560230E+0	1.553722E+0	1.503921E+0	1.521087E+0	1.475403E+0	1.542731E+0	1.541085E+0	1.545599E+0	1.533464E+0	1.536639E+0	1.506530E+0	1.563670E+0	1.565580E+0	1.457349E+0	1.546468E+0	1.522377E+0	1.516267E+0	1.495422E+0	1.544794E+0	1.580018E+0	1.476621E+0	1.488331E+0	1.498878E+0	1.535096E+0	1.511269E+0	1.461266E+0	1.567089E+0	1.524802E+0	1.570252E+0	1.510391E+0	1.471970E+0	1.521510E+0	1.567566E+0	1.521888E+0	1.555998E+0	1.518064E+0	1.513789E+0	1.548288E+0	1.512300E+0	1.471944E+0	1.510396E+0	1.504164E+0	1.493385E+0	1.558898E+0	1.531205E+0	1.490429E+0	1.582398E+0	1.536310E+0	1.536997E+0	1.487389E+0	1.483771E+0	1.510560E+0	1.544258E+0	1.456242E+0	1.545503E+0	1.549140E+0	1.514319E+0	1.519362E+0	1.547900E+0	1.534772E+0	1.465474E+0	1.495159E+0	1.495950E+0	1.565391E+0	1.489925E+0	1.554043E+0	1.486977E+0	1.530950E+0	1.482343E+0	1.512756E+0	1.553121E+0	1.552046E+0	1.547668E+0
5.355630E+2	1.365456E+0	1.263425E+0	1.335418E+0	1.260728E+0	1.278337E+0	1.309806E+0	1.242952E+0	1.291246E+0	1.307637E+0	1.326419E+0	1.279243E+0	1.285648E+0	1.252540E+0	1.300344E+0	1.263457E+0	1.288956E+0	1.299594E+0	1.308495E+0	1.303609E+0	1.276944E+0	1.252564E+0	1.320635E+0	1.262949E+0	1.272944E+0	1.247236E+0	1.262606E+0	1.220200E+0	1.232960E+0	1.211434E+0	1.270783E+0	1.228386E+0	1.230334E+0	1.323895E+0	1.285271E+0	1.289147E+0	1.243017E+0	1.224245E+0	1.283554E+0	1.245611E+0	1.265824E+0	1.285813E+0	1.255094E+0	1.291769E+0	1.252205E+0	1.288490E+0	1.229945E+0	1.267645E+0	1.280639E+0	1.259476E+0	1.309799E+0	1.233274E+0	1.281305E+0	1.244039E+0	1.274659E+0	1.262830E+0	1.293837E+0	1.280040E+0	1.298034E+0	1.242821E+0	1.274691E+0	1.254450E+0	1.267713E+0	1.279219E+0	1.283390E+0	1.323555E+0	1.255106E+0	1.336897E+0	1.242075E+0	1.285286E+0	1.338620E+0	1.299231E+0	1.232179E+0	1.254043E+0	1.260615E+0	1.312433E+0	1.186233E+0	1.291319E+0	1.288551E+0	1.235804E+0	1.270040E+0	1.285650E+0	1.325621E+0	1.353888E+0	1.319038E+0	1.286695E+0	1.290703E+0	1.203425E+0	1.303226E+0	1.268331E+0	1.242148E+0	1.295587E+0	1.307236E+0	1.308776E+0	1.307563E+0	1.247127E+0	1.257757E+0	1.261779E+0	1.284081E+0	1.325252E+0	1.289111E+0	1.246707E+0	1.308111E+0	1.253058E+0	1.286879E+0	1.330201E+0	1.322170E+0	1.309067E+0	1.275960E+0	1.310000E+0	1.264983E+0	1.243638E+0	1.283182E+0	1.281412E+0	1.297282E+0	1.242797E+0	1.315049E+0	1.256063E+0	1.286999E+0	1.243722E+0	1.289090E+0	1.323030E+0	1.308238E+0	1.252722E+0	1.261413E+0	1.271032E+0	1.293292E+0	1.264032E+0	1.252596E+0	1.270628E+0	1.338299E+0	1.280233E+0	1.227099E+0	1.243100E+0	1.284015E+0	1.296854E+0	1.220868E+0	1.315327E+0	1.255694E+0	1.272889E+0	1.253617E+0	1.267568E+0	1.242077E+0	1.301885E+0	1.238996E+0	1.286095E+0	1.232272E+0	1.291978E+0	1.272177E+0	1.244275E+0	1.229322E+0	1.249996E+0	1.260905E+0	1.284565E+0	1.237756E+0	1.264235E+0	1.251602E+0	1.256601E+0	1.240518E+0	1.297476E+0	1.242834E+0	1.260542E+0	1.244878E+0	1.307716E+0	1.295831E+0	1.326818E+0	1.298635E+0	1.213248E+0	1.283550E+0	1.246179E+0	1.250798E+0
5.357190E+2	1.155910E+0	1.126435E+0	1.113349E+0	1.160724E+0	1.139697E+0	1.151062E+0	1.132484E+0	1.131122E+0	1.134211E+0	1.180435E+0	1.092173E+0	1.089181E+0	1.130168E+0	1.144539E+0	1.125453E+0	1.107429E+0	1.091073E+0	1.149907E+0	1.107704E+0	1.149594E+0	1.109193E+0	1.105605E+0	1.122777E+0	1.142093E+0	1.148104E+0	1.090191E+0	1.073207E+0	1.116784E+0	1.098070E+0	1.143936E+0	1.131397E+0	1.137443E+0	1.094952E+0	1.163030E+0	1.113037E+0	1.120030E+0	1.123663E+0	1.094969E+0	1.113167E+0	1.148340E+0	1.127629E+0	1.099126E+0	1.130901E+0	1.147614E+0	1.093456E+0	1.140057E+0	1.102476E+0	1.110887E+0	1.067443E+0	1.130425E+0	1.137609E+0	1.135763E+0	1.090833E+0	1.117116E+0	1.097133E+0	1.122452E+0	1.149734E+0	1.126660E+0	1.147950E+0	1.103112E+0	1.119503E+0	1.132429E+0	1.154861E+0	1.096487E+0	1.123315E+0	1.097096E+0	1.187888E+0	1.123139E+0	1.097067E+0	1.141734E+0	1.127618E+0	1.139744E+0	1.163227E+0	1.123037E+0	1.167948E+0	1.099646E+0	1.085734E+0	1.103103E+0	1.086567E+0	1.109009E+0	1.117680E+0	1.128065E+0	1.132227E+0	1.123264E+0	1.105206E+0	1.135233E+0	1.151888E+0	1.054737E+0	1.123180E+0	1.151474E+0	1.169390E+0	1.121417E+0	1.104693E+0	1.122299E+0	1.084653E+0	1.118113E+0	1.108945E+0	1.128227E+0	1.113870E+0	1.095380E+0	1.123007E+0	1.094265E+0	1.159721E+0	1.126074E+0	1.107710E+0	1.143542E+0	1.085334E+0	1.073321E+0	1.192556E+0	1.118104E+0	1.061443E+0	1.121604E+0	1.104413E+0	1.158859E+0	1.088479E+0	1.132557E+0	1.118785E+0	1.169490E+0	1.092179E+0	1.106957E+0	1.092918E+0	1.146187E+0	1.083388E+0	1.100290E+0	1.101142E+0	1.118144E+0	1.120743E+0	1.085852E+0	1.143846E+0	1.103083E+0	1.095523E+0	1.079253E+0	1.118444E+0	1.131930E+0	1.109919E+0	1.139765E+0	1.131667E+0	1.089833E+0	1.085996E+0	1.103355E+0	1.136196E+0	1.066446E+0	1.170133E+0	1.125090E+0	1.103223E+0	1.103738E+0	1.115958E+0	1.080398E+0	1.104912E+0	1.156545E+0	1.134344E+0	1.161815E+0	1.072651E+0	1.144294E+0	1.114602E+0	1.086227E+0	1.122860E+0	1.092043E+0	1.092631E+0	1.120359E+0	1.092301E+0	1.104598E+0	1.110432E+0	1.102473E+0	1.099649E+0	1.129144E+0	1.095691E+0	1.138014E+0	1.154636E+0	1.162186E+0
5.358650E+2	1.002308E+0	9.620207E-1	9.247987E-1	9.230505E-1	9.628454E-1	9.674182E-1	9.511853E-1	9.687308E-1	9.228961E-1	1.031929E+0	9.715010E-1	9.712473E-1	9.107391E-1	9.841679E-1	9.054415E-1	9.677994E-1	9.604617E-1	1.000398E+0	9.619048E-1	9.367594E-1	9.613534E-1	9.204621E-1	9.378705E-1	9.672108E-1	9.491724E-1	9.638982E-1	9.129985E-1	9.721659E-1	9.681056E-1	9.668027E-1	9.345520E-1	9.460933E-1	9.318139E-1	9.800697E-1	9.484553E-1	9.659286E-1	9.564280E-1	9.981803E-1	9.249604E-1	8.934599E-1	9.531581E-1	9.448842E-1	9.481191E-1	9.710706E-1	9.387854E-1	9.817379E-1	9.716531E-1	9.271228E-1	9.378605E-1	9.747582E-1	9.922077E-1	9.118812E-1	9.244168E-1	9.514159E-1	9.192498E-1	9.383962E-1	9.782941E-1	9.746021E-1	9.944699E-1	9.894446E-1	9.616095E-1	9.607186E-1	1.000108E+0	9.469409E-1	9.563668E-1	9.692511E-1	1.014606E+0	9.908770E-1	9.702086E-1	9.800188E-1	1.011251E+0	9.477616E-1	9.431837E-1	9.282102E-1	9.843502E-1	9.156227E-1	9.176503E-1	1.003527E+0	9.398886E-1	9.541106E-1	9.422642E-1	9.835002E-1	9.307268E-1	9.285475E-1	9.603201E-1	9.517939E-1	9.606915E-1	9.519471E-1	9.367086E-1	9.776044E-1	9.666416E-1	9.383004E-1	9.287491E-1	9.518884E-1	9.408329E-1	9.382043E-1	9.555632E-1	9.348541E-1	9.994962E-1	9.655381E-1	9.450604E-1	9.649309E-1	9.192723E-1	9.797218E-1	9.905971E-1	9.618235E-1	9.600695E-1	9.368734E-1	9.487533E-1	9.696806E-1	9.533350E-1	9.368170E-1	9.671971E-1	9.849771E-1	9.110536E-1	9.884300E-1	9.422184E-1	9.740884E-1	9.426497E-1	9.532356E-1	9.700631E-1	9.525258E-1	9.403684E-1	9.669812E-1	9.172026E-1	9.997451E-1	9.668922E-1	9.242146E-1	9.386441E-1	9.633903E-1	1.038648E+0	1.015600E+0	1.000947E+0	9.668410E-1	9.355389E-1	9.446270E-1	1.003524E+0	9.736762E-1	9.442158E-1	9.874989E-1	9.351854E-1	9.293735E-1	9.889955E-1	9.803468E-1	9.730487E-1	9.753718E-1	9.541420E-1	9.582307E-1	9.557126E-1	9.585619E-1	9.589558E-1	9.555023E-1	9.951453E-1	9.348066E-1	9.581458E-1	1.014549E+0	9.371858E-1	9.500827E-1	9.355768E-1	9.302990E-1	9.579511E-1	9.604168E-1	9.517957E-1	9.481337E-1	1.034112E+0	9.349304E-1	9.605011E-1	9.875636E-1	9.537876E-1	9.802761E-1
5.360120E+2	8.173393E-1	8.088405E-1	7.986954E-1	8.337060E-1	8.124426E-1	8.431556E-1	7.886834E-1	7.438009E-1	7.847955E-1	8.098950E-1	7.708497E-1	7.890904E-1	8.099347E-1	8.161757E-1	8.165368E-1	8.122100E-1	8.160664E-1	8.244254E-1	8.178103E-1	8.595338E-1	8.115201E-1	8.356748E-1	7.780876E-1	8.072043E-1	8.390420E-1	8.410848E-1	7.907102E-1	8.084183E-1	8.297505E-1	8.095540E-1	8.237646E-1	8.176230E-1	8.110961E-1	8.115977E-1	8.056372E-1	8.039350E-1	8.316880E-1	8.075193E-1	7.810222E-1	8.038274E-1	8.226637E-1	8.262375E-1	8.093840E-1	8.329964E-1	8.375909E-1	7.868621E-1	8.162949E-1	7.887989E-1	7.837978E-1	7.999285E-1	7.564991E-1	7.673956E-1	7.875042E-1	8.297114E-1	8.326753E-1	8.228831E-1	8.146529E-1	8.308084E-1	8.043502E-1	8.280177E-1	8.036735E-1	8.303143E-1	8.461587E-1	8.026722E-1	8.263287E-1	7.962151E-1	8.152586E-1	8.282128E-1	7.863635E-1	8.135902E-1	8.058813E-1	8.272017E-1	7.959043E-1	7.786700E-1	8.654192E-1	8.057674E-1	8.121662E-1	8.541828E-1	7.999272E-1	8.108582E-1	7.866244E-1	8.344964E-1	8.515333E-1	7.829830E-1	8.337297E-1	8.611870E-1	7.486386E-1	8.256740E-1	8.155947E-1	8.399325E-1	7.692357E-1	8.409841E-1	8.115516E-1	7.941681E-1	8.138975E-1	8.200973E-1	8.418297E-1	8.048630E-1	8.253479E-1	7.920717E-1	8.219955E-1	8.169006E-1	7.922179E-1	7.946844E-1	8.363360E-1	7.871312E-1	8.183360E-1	8.300043E-1	8.378885E-1	8.431703E-1	7.713699E-1	8.109435E-1	8.132408E-1	8.388414E-1	7.910008E-1	8.263792E-1	8.031423E-1	8.095499E-1	8.091272E-1	8.066953E-1	8.150495E-1	8.392304E-1	8.395655E-1	8.019824E-1	8.232226E-1	8.382564E-1	8.447602E-1	8.130567E-1	7.940451E-1	8.389855E-1	8.058808E-1	8.154990E-1	8.204327E-1	8.228870E-1	8.136989E-1	7.956200E-1	7.760804E-1	8.210563E-1	8.294871E-1	8.413945E-1	8.111328E-1	8.255566E-1	8.377693E-1	8.358288E-1	8.042064E-1	8.206635E-1	8.228394E-1	8.101443E-1	7.948452E-1	8.458323E-1	8.413928E-1	8.163308E-1	7.670414E-1	8.249434E-1	7.888350E-1	8.351636E-1	8.422153E-1	8.160161E-1	8.160446E-1	8.270568E-1	8.444712E-1	7.818343E-1	8.693892E-1	7.959474E-1	8.014349E-1	8.341119E-1	8.134022E-1	8.438646E-1	7.901967E-1	8.115948E-1
5.362730E+2	6.666813E-1	5.710226E-1	6.083196E-1	5.889961E-1	5.896018E-1	5.851915E-1	6.171026E-1	6.012090E-1	6.212322E-1	5.976886E-1	5.688723E-1	6.001315E-1	6.430394E-1	5.990803E-1	6.123596E-1	6.119661E-1	5.787224E-1	6.344415E-1	5.970554E-1	6.123998E-1	5.928950E-1	5.827206E-1	5.902336E-1	5.854038E-1	6.532091E-1	6.371599E-1	6.215164E-1	6.117410E-1	6.323747E-1	6.399279E-1	6.313699E-1	5.914539E-1	5.955502E-1	6.242652E-1	5.761715E-1	6.254100E-1	5.797676E-1	5.911920E-1	5.777550E-1	5.805855E-1	5.712137E-1	6.495400E-1	5.991996E-1	6.002293E-1	6.170668E-1	6.179319E-1	6.145460E-1	5.682878E-1	5.670218E-1	6.391157E-1	6.282225E-1	6.138229E-1	6.023421E-1	6.220723E-1	5.860315E-1	6.328094E-1	6.103104E-1	5.871586E-1	6.170622E-1	5.874952E-1	6.106877E-1	6.286720E-1	6.036662E-1	6.011522E-1	6.560974E-1	6.068901E-1	6.221137E-1	5.575815E-1	5.987275E-1	6.215581E-1	5.693923E-1	6.022649E-1	6.466392E-1	5.877227E-1	6.200629E-1	6.326227E-1	6.279656E-1	6.242825E-1	5.935089E-1	6.078975E-1	5.847297E-1	6.432476E-1	6.423140E-1	6.011780E-1	6.027542E-1	6.087976E-1	5.863029E-1	6.044501E-1	6.157720E-1	6.208461E-1	5.858641E-1	6.118731E-1	6.045954E-1	6.314592E-1	5.811251E-1	5.875561E-1	5.934447E-1	6.140165E-1	5.729551E-1	6.217851E-1	6.241760E-1	5.881666E-1	5.972301E-1	6.335803E-1	6.127877E-1	6.289171E-1	6.243530E-1	6.516533E-1	6.054769E-1	6.253381E-1	6.031921E-1	6.313824E-1	5.522989E-1	5.826430E-1	5.813588E-1	6.092164E-1	6.176409E-1	6.523354E-1	6.013594E-1	6.281229E-1	6.267867E-1	6.066488E-1	5.833944E-1	6.521589E-1	6.047796E-1	5.987005E-1	5.950237E-1	5.891445E-1	6.250573E-1	6.196572E-1	6.127090E-1	6.556829E-1	6.208158E-1	6.453842E-1	6.186433E-1	6.005821E-1	6.316794E-1	6.015869E-1	6.147164E-1	5.950625E-1	6.421988E-1	6.249816E-1	6.280135E-1	6.244091E-1	6.054604E-1	6.015870E-1	6.331748E-1	6.511385E-1	6.053654E-1	6.366364E-1	6.084896E-1	6.353794E-1	6.155038E-1	6.161477E-1	6.055315E-1	6.183496E-1	6.093458E-1	6.145631E-1	5.945300E-1	6.283593E-1	6.140393E-1	5.947427E-1	6.077172E-1	6.090466E-1	6.071051E-1	6.077724E-1	5.693161E-1	6.654297E-1	6.033838E-1	6.626207E-1
5.365140E+2	5.344383E-1	5.162778E-1	5.336092E-1	5.232390E-1	5.261007E-1	5.198841E-1	5.048571E-1	5.161077E-1	5.464949E-1	5.058879E-1	5.702366E-1	5.623948E-1	5.208870E-1	5.349620E-1	5.387519E-1	5.475355E-1	5.252036E-1	5.234187E-1	5.396813E-1	5.375120E-1	5.367783E-1	5.326050E-1	5.083345E-1	5.405231E-1	5.376432E-1	5.528594E-1	5.259116E-1	5.482224E-1	5.416967E-1	5.343177E-1	5.127515E-1	5.586532E-1	5.354855E-1	5.250519E-1	5.439109E-1	5.025961E-1	5.308855E-1	5.547289E-1	5.379290E-1	5.071882E-1	5.312853E-1	5.132352E-1	5.389296E-1	5.163745E-1	5.600937E-1	5.229943E-1	5.612977E-1	5.288312E-1	5.442989E-1	5.558668E-1	5.474813E-1	5.575129E-1	5.380660E-1	5.121271E-1	5.255066E-1	5.473416E-1	5.312413E-1	5.657665E-1	5.364989E-1	5.582848E-1	5.399336E-1	5.285492E-1	5.216950E-1	5.724666E-1	5.733243E-1	5.196313E-1	5.166877E-1	5.269335E-1	5.092848E-1	5.641850E-1	5.323641E-1	5.364373E-1	5.318237E-1	5.345865E-1	5.027695E-1	5.175504E-1	5.489026E-1	5.140813E-1	5.328973E-1	5.668983E-1	5.162337E-1	5.522770E-1	5.755032E-1	5.390018E-1	5.305893E-1	5.477943E-1	5.085225E-1	5.471239E-1	5.368177E-1	5.453045E-1	5.569056E-1	5.534933E-1	5.201032E-1	5.356430E-1	5.391611E-1	5.304316E-1	5.259312E-1	5.628829E-1	5.268799E-1	5.112693E-1	5.283794E-1	5.358086E-1	5.390611E-1	5.061153E-1	5.422721E-1	5.471849E-1	5.249803E-1	5.304308E-1	5.411069E-1	5.231610E-1	5.206935E-1	5.303986E-1	5.268092E-1	5.447498E-1	5.151695E-1	5.447386E-1	5.107242E-1	5.666297E-1	5.185837E-1	5.233714E-1	5.399116E-1	4.996116E-1	5.253579E-1	5.398745E-1	4.914677E-1	5.245180E-1	5.304539E-1	5.349331E-1	5.121502E-1	5.769810E-1	5.088923E-1	5.391671E-1	5.523816E-1	5.683088E-1	5.457777E-1	5.268573E-1	5.597317E-1	5.152174E-1	5.171242E-1	5.434335E-1	5.169532E-1	5.127133E-1	5.465736E-1	5.199009E-1	5.391045E-1	5.573231E-1	5.224641E-1	5.268325E-1	5.419740E-1	5.290004E-1	5.091710E-1	5.397302E-1	5.347857E-1	5.242988E-1	5.368865E-1	5.534220E-1	5.466002E-1	5.263106E-1	5.380246E-1	5.243930E-1	5.419525E-1	5.316108E-1	5.698223E-1	5.507652E-1	5.565683E-1	5.349821E-1	5.124142E-1	5.565124E-1	5.474189E-1	6.032158E-1
5.367710E+2	5.326729E-1	4.924758E-1	5.135467E-1	5.222170E-1	4.729271E-1	5.392640E-1	5.134408E-1	5.245106E-1	4.860492E-1	5.303887E-1	5.389424E-1	5.206354E-1	5.369345E-1	5.566083E-1	5.332840E-1	5.230527E-1	5.353198E-1	5.147064E-1	5.245789E-1	4.923955E-1	5.014696E-1	4.907591E-1	5.346624E-1	5.188375E-1	5.339475E-1	5.323297E-1	5.163001E-1	5.386904E-1	5.363997E-1	4.903391E-1	5.504804E-1	5.424390E-1	5.265627E-1	5.359568E-1	5.443339E-1	5.576883E-1	5.452571E-1	5.208688E-1	5.261602E-1	5.343887E-1	5.583466E-1	5.586815E-1	5.438041E-1	5.023275E-1	5.762408E-1	5.643429E-1	5.085339E-1	5.267691E-1	5.311605E-1	5.205802E-1	5.078652E-1	5.392236E-1	5.175342E-1	5.257715E-1	5.584409E-1	5.295151E-1	5.254961E-1	5.470385E-1	5.353395E-1	5.496652E-1	5.651028E-1	5.377059E-1	5.738685E-1	5.149868E-1	5.825951E-1	5.061292E-1	5.340491E-1	5.167914E-1	4.992403E-1	5.301004E-1	5.375198E-1	5.127823E-1	5.263397E-1	5.508863E-1	5.371640E-1	5.270279E-1	5.457274E-1	5.303957E-1	5.181408E-1	5.165985E-1	5.399620E-1	4.977537E-1	5.390527E-1	5.166801E-1	5.377316E-1	5.183390E-1	5.508611E-1	5.576481E-1	5.020992E-1	4.962934E-1	5.342440E-1	5.096632E-1	4.939336E-1	5.459523E-1	4.752271E-1	5.496319E-1	5.174749E-1	5.590855E-1	5.365573E-1	5.183950E-1	5.008437E-1	5.477726E-1	5.367985E-1	5.139934E-1	5.396724E-1	5.236981E-1	5.574952E-1	5.122925E-1	5.670855E-1	5.331035E-1	5.386557E-1	5.134185E-1	5.198321E-1	5.072450E-1	4.978842E-1	5.310260E-1	5.148501E-1	5.325392E-1	5.357033E-1	5.204895E-1	5.031357E-1	5.266290E-1	5.078508E-1	5.386284E-1	5.270641E-1	5.300670E-1	5.506588E-1	5.379252E-1	5.354300E-1	5.703723E-1	5.385242E-1	5.679244E-1	5.668749E-1	5.588813E-1	5.395610E-1	5.082326E-1	5.251245E-1	5.422146E-1	5.640904E-1	5.119592E-1	5.165041E-1	5.403353E-1	5.369355E-1	5.252832E-1	5.339069E-1	4.922643E-1	5.286555E-1	5.344913E-1	4.910389E-1	5.178809E-1	5.264645E-1	5.194696E-1	5.501239E-1	5.497207E-1	5.360169E-1	5.379161E-1	5.147343E-1	5.034590E-1	5.360953E-1	5.500820E-1	5.305430E-1	5.237066E-1	5.287819E-1	5.236495E-1	5.469799E-1	5.359815E-1	5.114799E-1	5.570504E-1	5.189304E-1	5.403112E-1
5.370010E+2	5.524108E-1	5.373370E-1	5.360948E-1	5.604536E-1	5.390713E-1	5.499862E-1	5.600338E-1	5.600177E-1	5.189109E-1	5.168855E-1	5.354499E-1	5.693934E-1	5.618825E-1	5.533428E-1	5.405720E-1	5.530445E-1	5.488205E-1	5.688891E-1	5.359406E-1	5.358759E-1	5.334816E-1	5.316578E-1	5.220594E-1	5.502706E-1	5.682436E-1	5.826436E-1	5.493760E-1	5.637432E-1	5.554424E-1	5.673211E-1	5.867683E-1	5.565492E-1	5.663338E-1	5.861006E-1	5.426951E-1	5.653100E-1	5.426042E-1	5.662715E-1	5.702211E-1	5.698912E-1	5.577948E-1	6.355578E-1	5.680380E-1	5.256860E-1	5.602622E-1	5.825089E-1	5.389268E-1	5.840721E-1	5.486373E-1	5.605621E-1	5.441355E-1	5.776246E-1	5.411470E-1	5.402312E-1	5.548077E-1	5.458822E-1	5.691737E-1	5.824376E-1	5.640916E-1	5.239163E-1	5.696365E-1	5.060395E-1	6.056679E-1	5.471998E-1	5.520627E-1	5.249323E-1	5.764475E-1	5.570296E-1	5.436069E-1	5.767696E-1	5.523968E-1	5.500075E-1	5.539973E-1	5.717894E-1	5.579791E-1	5.315475E-1	5.697247E-1	5.694733E-1	5.199903E-1	5.562591E-1	5.697801E-1	5.461767E-1	5.582814E-1	5.650422E-1	5.585273E-1	5.703440E-1	5.517557E-1	5.769045E-1	5.814006E-1	5.272232E-1	5.618562E-1	5.663276E-1	5.796585E-1	5.748993E-1	5.517927E-1	5.102575E-1	5.492126E-1	5.921829E-1	5.508225E-1	5.587852E-1	5.541060E-1	5.505523E-1	5.790471E-1	6.061513E-1	5.331749E-1	5.479814E-1	5.474245E-1	5.640657E-1	5.302029E-1	5.718215E-1	5.286628E-1	5.517483E-1	5.479684E-1	5.408944E-1	5.697000E-1	5.754290E-1	5.776820E-1	5.500876E-1	5.714676E-1	5.634538E-1	5.624893E-1	5.730483E-1	5.060682E-1	5.730360E-1	5.958705E-1	5.526442E-1	5.644697E-1	5.363282E-1	5.583785E-1	5.685629E-1	5.384113E-1	5.554297E-1	5.891806E-1	5.373347E-1	5.626961E-1	5.530537E-1	5.499280E-1	5.687490E-1	5.440898E-1	5.589026E-1	5.244790E-1	5.539208E-1	5.631574E-1	5.510636E-1	5.531753E-1	5.489791E-1	5.367326E-1	5.785974E-1	5.592471E-1	5.270721E-1	5.462067E-1	5.480650E-1	5.610592E-1	5.423938E-1	5.428280E-1	5.638602E-1	5.533160E-1	5.531426E-1	5.331329E-1	5.797369E-1	5.666308E-1	5.209007E-1	5.415178E-1	5.659732E-1	5.444221E-1	5.293185E-1	5.509085E-1	5.630393E-1	5.508864E-1	5.858180E-1
5.372640E+2	6.615508E-1	6.344651E-1	6.327207E-1	6.238707E-1	6.269697E-1	6.059018E-1	6.119192E-1	6.240053E-1	6.448749E-1	6.383962E-1	6.556456E-1	6.550003E-1	6.440278E-1	6.195248E-1	6.140257E-1	6.400917E-1	6.482258E-1	6.317913E-1	6.062009E-1	6.368931E-1	6.494764E-1	6.232548E-1	6.042514E-1	6.355122E-1	6.952564E-1	6.275732E-1	6.444028E-1	6.372419E-1	6.716884E-1	6.516601E-1	6.413830E-1	6.189430E-1	6.339813E-1	6.647910E-1	6.459208E-1	6.316133E-1	6.685372E-1	6.482996E-1	6.076121E-1	6.217506E-1	6.573794E-1	6.463679E-1	6.359786E-1	6.444858E-1	6.539847E-1	6.363783E-1	6.379402E-1	6.380983E-1	5.904102E-1	6.725650E-1	6.418253E-1	6.241489E-1	6.678778E-1	6.203430E-1	6.048049E-1	6.382575E-1	6.417131E-1	6.243196E-1	6.208345E-1	6.468796E-1	6.641929E-1	6.470779E-1	6.712993E-1	6.456126E-1	6.336003E-1	6.422673E-1	6.202126E-1	6.401043E-1	6.626759E-1	6.230608E-1	6.397475E-1	6.531715E-1	6.646967E-1	6.342260E-1	6.292959E-1	6.157872E-1	6.303089E-1	6.732676E-1	6.531370E-1	6.302972E-1	6.406298E-1	6.577439E-1	6.425434E-1	6.044744E-1	6.170631E-1	6.667319E-1	6.436466E-1	6.645793E-1	6.390657E-1	6.215805E-1	6.390839E-1	6.472777E-1	6.355535E-1	6.688207E-1	6.451946E-1	6.448537E-1	6.763025E-1	6.688899E-1	6.530623E-1	6.318639E-1	6.275928E-1	5.976056E-1	6.380597E-1	6.590898E-1	6.426133E-1	6.382615E-1	6.902629E-1	6.508168E-1	6.440100E-1	6.004797E-1	6.265945E-1	6.273218E-1	5.988678E-1	6.706585E-1	6.144197E-1	6.845451E-1	6.579572E-1	6.729496E-1	6.547502E-1	6.135311E-1	7.073505E-1	6.278347E-1	6.405891E-1	6.206863E-1	6.180786E-1	6.470344E-1	6.428649E-1	6.425696E-1	6.318100E-1	6.327279E-1	6.248359E-1	6.451622E-1	6.620646E-1	6.402503E-1	6.247435E-1	6.468598E-1	6.414881E-1	6.396993E-1	6.254553E-1	6.584430E-1	6.355514E-1	6.753602E-1	6.342191E-1	6.509283E-1	6.724307E-1	6.404714E-1	6.623670E-1	6.091703E-1	6.399239E-1	6.552221E-1	6.065533E-1	6.286519E-1	6.343796E-1	6.251517E-1	6.580510E-1	6.543187E-1	6.677267E-1	6.481771E-1	6.074794E-1	6.556217E-1	6.262750E-1	5.963854E-1	6.701864E-1	6.442503E-1	6.385931E-1	6.500424E-1	6.499898E-1	6.614505E-1	6.215295E-1	6.613007E-1
5.375160E+2	8.288748E-1	7.278161E-1	7.277047E-1	7.633132E-1	7.683701E-1	7.395534E-1	7.277561E-1	7.649580E-1	7.731128E-1	7.706955E-1	7.331171E-1	7.454387E-1	7.174004E-1	7.598225E-1	7.555768E-1	7.399615E-1	7.537406E-1	7.450382E-1	7.285914E-1	7.426639E-1	7.254095E-1	7.264062E-1	7.225451E-1	7.308109E-1	8.318264E-1	7.800862E-1	7.643129E-1	7.883010E-1	8.025240E-1	7.714492E-1	7.684135E-1	7.701591E-1	7.526021E-1	7.737599E-1	7.940518E-1	7.238362E-1	7.630581E-1	7.744684E-1	7.572517E-1	7.593245E-1	7.694457E-1	7.554685E-1	7.407714E-1	7.235591E-1	7.712175E-1	7.368648E-1	7.187479E-1	7.341116E-1	7.345524E-1	7.959018E-1	7.463357E-1	7.530096E-1	7.492265E-1	7.423449E-1	7.733515E-1	8.144053E-1	7.593335E-1	7.769767E-1	7.294706E-1	7.990313E-1	7.970114E-1	7.433664E-1	7.412817E-1	7.712481E-1	7.991672E-1	7.476174E-1	7.560336E-1	7.520495E-1	7.605285E-1	7.752408E-1	7.772798E-1	7.466645E-1	7.786506E-1	7.417949E-1	7.299866E-1	7.231529E-1	7.290005E-1	7.475345E-1	7.603449E-1	7.815775E-1	7.501949E-1	7.893121E-1	7.530503E-1	7.368022E-1	7.519139E-1	7.665043E-1	7.423145E-1	7.273143E-1	7.864233E-1	7.604765E-1	7.432312E-1	7.672369E-1	7.439681E-1	7.489292E-1	7.588231E-1	7.417290E-1	7.300144E-1	7.551739E-1	7.666239E-1	7.428068E-1	7.716048E-1	7.617868E-1	7.791820E-1	7.770892E-1	7.396026E-1	7.370460E-1	7.691771E-1	7.622336E-1	8.100664E-1	7.571096E-1	7.656006E-1	7.923600E-1	7.519774E-1	7.560359E-1	7.586241E-1	7.824919E-1	7.317295E-1	7.533409E-1	7.556167E-1	7.616700E-1	7.840472E-1	7.389313E-1	7.259425E-1	7.568813E-1	7.501900E-1	7.574296E-1	7.407666E-1	7.764948E-1	7.620042E-1	7.859227E-1	8.105341E-1	7.664675E-1	7.566368E-1	7.310303E-1	7.648964E-1	7.602532E-1	7.505347E-1	7.249269E-1	7.299235E-1	7.736687E-1	7.449898E-1	7.216366E-1	7.767751E-1	7.789253E-1	7.726306E-1	7.664577E-1	7.589268E-1	7.500394E-1	7.614039E-1	7.656076E-1	7.819547E-1	7.222627E-1	7.442359E-1	7.490725E-1	7.787140E-1	7.879255E-1	7.535717E-1	7.258533E-1	7.815208E-1	7.484239E-1	7.451435E-1	7.898732E-1	7.811214E-1	7.301370E-1	7.364383E-1	7.826357E-1	7.576807E-1	7.611571E-1	7.603600E-1	7.505714E-1
5.377580E+2	8.291786E-1	7.969585E-1	8.692151E-1	8.246055E-1	8.977425E-1	8.602192E-1	8.542116E-1	8.346865E-1	8.498580E-1	8.642942E-1	8.320059E-1	8.448519E-1	8.353154E-1	8.923326E-1	8.179216E-1	8.633405E-1	8.795079E-1	7.910859E-1	8.212576E-1	8.903323E-1	8.523979E-1	8.629343E-1	8.678695E-1	8.342661E-1	8.549017E-1	8.910747E-1	8.452860E-1	8.226007E-1	8.534305E-1	8.357682E-1	8.933130E-1	8.398470E-1	8.501306E-1	9.052648E-1	8.785586E-1	8.334919E-1	8.641930E-1	8.565421E-1	8.681240E-1	8.779496E-1	8.617153E-1	8.772366E-1	8.384079E-1	8.643395E-1	8.741257E-1	8.532780E-1	8.629996E-1	8.729815E-1	8.487312E-1	8.623214E-1	8.455912E-1	8.553377E-1	8.461787E-1	8.762199E-1	8.640230E-1	8.854503E-1	8.808309E-1	8.620529E-1	8.116168E-1	8.585395E-1	8.380930E-1	8.743088E-1	8.466126E-1	8.443972E-1	8.785323E-1	8.076728E-1	8.416825E-1	8.356414E-1	8.604392E-1	8.647454E-1	8.705576E-1	8.302601E-1	8.908751E-1	8.444221E-1	8.383300E-1	8.875805E-1	8.791761E-1	8.633115E-1	8.668199E-1	8.745655E-1	8.128288E-1	8.106339E-1	8.551920E-1	8.189643E-1	8.884629E-1	8.120613E-1	8.093377E-1	8.462469E-1	8.511943E-1	8.414909E-1	8.316790E-1	8.754472E-1	8.303613E-1	8.704965E-1	8.372609E-1	8.149536E-1	8.523461E-1	8.858084E-1	8.588216E-1	8.787583E-1	8.533268E-1	8.392420E-1	8.239110E-1	8.835836E-1	8.274425E-1	8.696868E-1	8.396700E-1	8.418670E-1	8.417964E-1	8.811423E-1	8.473928E-1	8.649898E-1	8.274249E-1	8.403559E-1	7.858637E-1	8.780762E-1	8.575062E-1	8.345189E-1	8.568705E-1	8.548936E-1	8.541736E-1	8.161485E-1	8.640789E-1	8.515097E-1	8.683346E-1	8.713258E-1	8.312275E-1	8.481307E-1	8.408246E-1	8.627158E-1	8.483676E-1	8.628253E-1	8.320968E-1	8.328039E-1	8.576524E-1	8.403114E-1	8.632914E-1	8.446846E-1	8.655227E-1	8.413956E-1	8.767599E-1	8.532434E-1	8.767835E-1	8.357810E-1	8.563196E-1	8.580628E-1	8.504335E-1	8.721098E-1	8.317030E-1	8.755998E-1	8.484721E-1	8.739217E-1	8.445299E-1	8.676203E-1	8.503747E-1	8.660458E-1	8.641650E-1	8.235716E-1	8.499588E-1	8.950395E-1	8.716169E-1	8.475942E-1	8.870287E-1	8.554565E-1	8.201673E-1	8.358385E-1	8.075997E-1	8.225851E-1	8.756804E-1	8.736273E-1
5.380160E+2	9.915551E-1	9.392588E-1	9.268585E-1	9.652389E-1	9.909884E-1	1.014656E+0	9.415540E-1	9.675220E-1	9.898998E-1	1.030683E+0	9.759471E-1	9.817762E-1	1.004382E+0	9.772546E-1	9.790725E-1	1.010373E+0	1.021664E+0	1.004218E+0	9.533186E-1	9.656912E-1	9.830044E-1	9.351841E-1	9.584750E-1	9.788309E-1	1.053918E+0	1.006703E+0	1.021321E+0	1.065003E+0	9.943160E-1	1.063361E+0	1.024565E+0	9.908918E-1	1.041875E+0	1.022313E+0	1.036941E+0	9.704394E-1	1.012960E+0	9.738129E-1	9.728852E-1	9.849424E-1	9.879017E-1	1.005518E+0	9.947497E-1	1.017729E+0	9.777391E-1	9.960171E-1	9.680382E-1	9.701050E-1	9.578598E-1	1.019139E+0	9.727616E-1	1.006857E+0	1.003005E+0	9.662224E-1	1.002137E+0	1.027329E+0	1.010365E+0	1.077996E+0	9.569124E-1	1.045212E+0	1.024040E+0	9.700226E-1	1.030623E+0	9.938810E-1	9.806356E-1	9.569434E-1	9.690288E-1	9.738217E-1	9.611542E-1	9.727904E-1	9.812590E-1	9.930158E-1	1.016950E+0	9.938043E-1	9.594099E-1	1.020877E+0	9.824204E-1	9.503174E-1	9.780352E-1	9.684519E-1	9.671477E-1	1.019276E+0	9.618369E-1	9.808519E-1	1.016623E+0	9.687941E-1	9.761958E-1	1.028776E+0	1.007924E+0	9.851189E-1	9.830638E-1	1.030574E+0	9.443675E-1	9.452913E-1	9.872868E-1	1.017544E+0	9.725708E-1	9.766109E-1	9.265593E-1	9.498480E-1	9.622598E-1	9.366854E-1	1.006488E+0	9.996675E-1	9.897245E-1	9.956325E-1	9.560519E-1	9.417621E-1	1.010185E+0	1.017379E+0	9.529794E-1	9.641329E-1	9.515759E-1	1.016295E+0	9.806484E-1	1.005397E+0	1.003673E+0	1.024057E+0	9.642285E-1	9.788265E-1	1.016970E+0	9.848419E-1	9.897428E-1	1.014018E+0	9.968845E-1	9.994840E-1	9.864334E-1	9.320401E-1	9.570139E-1	1.019140E+0	9.820745E-1	1.050944E+0	9.773656E-1	9.541325E-1	1.015418E+0	9.821445E-1	1.009582E+0	9.939178E-1	9.502569E-1	1.025280E+0	9.767628E-1	9.632391E-1	9.724189E-1	1.050027E+0	1.008965E+0	9.969805E-1	9.779087E-1	9.956665E-1	9.522489E-1	9.708447E-1	1.006267E+0	1.010822E+0	1.013135E+0	9.793501E-1	1.003254E+0	9.578450E-1	9.423904E-1	9.663812E-1	9.940286E-1	9.840178E-1	9.826407E-1	9.701384E-1	9.775311E-1	9.686367E-1	1.018926E+0	9.646688E-1	9.937191E-1	1.017331E+0	1.045262E+0	9.818688E-1
5.382690E+2	1.111223E+0	1.134192E+0	1.090485E+0	1.115079E+0	1.139924E+0	1.149615E+0	1.102117E+0	1.149138E+0	1.122500E+0	1.151228E+0	1.103990E+0	1.099679E+0	1.172274E+0	1.103314E+0	1.127488E+0	1.159028E+0	1.149176E+0	1.118723E+0	1.150081E+0	1.118614E+0	1.106008E+0	1.131884E+0	1.110445E+0	1.087054E+0	1.224263E+0	1.110541E+0	1.121179E+0	1.168555E+0	1.177215E+0	1.177023E+0	1.168416E+0	1.147886E+0	1.142025E+0	1.154494E+0	1.128740E+0	1.170678E+0	1.113037E+0	1.123172E+0	1.156968E+0	1.123424E+0	1.179900E+0	1.156104E+0	1.106975E+0	1.159804E+0	1.162791E+0	1.160214E+0	1.134367E+0	1.153184E+0	1.149291E+0	1.130042E+0	1.127360E+0	1.152348E+0	1.120450E+0	1.142671E+0	1.102923E+0	1.149575E+0	1.122493E+0	1.150422E+0	1.137207E+0	1.143413E+0	1.154836E+0	1.201245E+0	1.216477E+0	1.154259E+0	1.161214E+0	1.120722E+0	1.172568E+0	1.138919E+0	1.151515E+0	1.185557E+0	1.125819E+0	1.128771E+0	1.192300E+0	1.152308E+0	1.154758E+0	1.148038E+0	1.123712E+0	1.138780E+0	1.146411E+0	1.170982E+0	1.118613E+0	1.137524E+0	1.127261E+0	1.188458E+0	1.110000E+0	1.200178E+0	1.165294E+0	1.185388E+0	1.132213E+0	1.137181E+0	1.146696E+0	1.120219E+0	1.140957E+0	1.131209E+0	1.109632E+0	1.156991E+0	1.157604E+0	1.109429E+0	1.161349E+0	1.108379E+0	1.094368E+0	1.170911E+0	1.148650E+0	1.151275E+0	1.128795E+0	1.185620E+0	1.148743E+0	1.126139E+0	1.179916E+0	1.114753E+0	1.108681E+0	1.127488E+0	1.132383E+0	1.127997E+0	1.106130E+0	1.145971E+0	1.127821E+0	1.161210E+0	1.097419E+0	1.111401E+0	1.120345E+0	1.146885E+0	1.113253E+0	1.189460E+0	1.118487E+0	1.116702E+0	1.136418E+0	1.113894E+0	1.073458E+0	1.108100E+0	1.173590E+0	1.169591E+0	1.170964E+0	1.108315E+0	1.097482E+0	1.126539E+0	1.107727E+0	1.150657E+0	1.127705E+0	1.146028E+0	1.151770E+0	1.136427E+0	1.118252E+0	1.186753E+0	1.206031E+0	1.081276E+0	1.100006E+0	1.156661E+0	1.049694E+0	1.142741E+0	1.116117E+0	1.138719E+0	1.103826E+0	1.140044E+0	1.149594E+0	1.156804E+0	1.134868E+0	1.065503E+0	1.128773E+0	1.104292E+0	1.086900E+0	1.178983E+0	1.123090E+0	1.157497E+0	1.126005E+0	1.128048E+0	1.091340E+0	1.143647E+0	1.075173E+0	1.102839E+0
5.385170E+2	1.448364E+0	1.375030E+0	1.359561E+0	1.386116E+0	1.354046E+0	1.329934E+0	1.357922E+0	1.406846E+0	1.396880E+0	1.413352E+0	1.374686E+0	1.389924E+0	1.364318E+0	1.368258E+0	1.353747E+0	1.420742E+0	1.356213E+0	1.375588E+0	1.351699E+0	1.403894E+0	1.334086E+0	1.356575E+0	1.343639E+0	1.382694E+0	1.401918E+0	1.410478E+0	1.367929E+0	1.416108E+0	1.422370E+0	1.446476E+0	1.409629E+0	1.397864E+0	1.373350E+0	1.404202E+0	1.378905E+0	1.450766E+0	1.388171E+0	1.337397E+0	1.354110E+0	1.411243E+0	1.440649E+0	1.389611E+0	1.301855E+0	1.397135E+0	1.375916E+0	1.380811E+0	1.409337E+0	1.374019E+0	1.344861E+0	1.380190E+0	1.350713E+0	1.396833E+0	1.338316E+0	1.379893E+0	1.387924E+0	1.412002E+0	1.389236E+0	1.420173E+0	1.351308E+0	1.460440E+0	1.404591E+0	1.376006E+0	1.397865E+0	1.422450E+0	1.419461E+0	1.349709E+0	1.362301E+0	1.352461E+0	1.338026E+0	1.386671E+0	1.386275E+0	1.376190E+0	1.366008E+0	1.419049E+0	1.338006E+0	1.371904E+0	1.403305E+0	1.350540E+0	1.405595E+0	1.391252E+0	1.325484E+0	1.371155E+0	1.370958E+0	1.397136E+0	1.346913E+0	1.388767E+0	1.412019E+0	1.377138E+0	1.394247E+0	1.379064E+0	1.314772E+0	1.377850E+0	1.319439E+0	1.343717E+0	1.330223E+0	1.358177E+0	1.345354E+0	1.374338E+0	1.352583E+0	1.361648E+0	1.376627E+0	1.363803E+0	1.341354E+0	1.337045E+0	1.339026E+0	1.349715E+0	1.356781E+0	1.338789E+0	1.372252E+0	1.374404E+0	1.338505E+0	1.298001E+0	1.317045E+0	1.347587E+0	1.337253E+0	1.387776E+0	1.347753E+0	1.368111E+0	1.333225E+0	1.366508E+0	1.385570E+0	1.346395E+0	1.350428E+0	1.325552E+0	1.358937E+0	1.354129E+0	1.364445E+0	1.361693E+0	1.395624E+0	1.352518E+0	1.356611E+0	1.341436E+0	1.398638E+0	1.327695E+0	1.335618E+0	1.396544E+0	1.377308E+0	1.323684E+0	1.348578E+0	1.374943E+0	1.365088E+0	1.341281E+0	1.378317E+0	1.386021E+0	1.347622E+0	1.317990E+0	1.298997E+0	1.369215E+0	1.389413E+0	1.370883E+0	1.385045E+0	1.375815E+0	1.351668E+0	1.379259E+0	1.334433E+0	1.321053E+0	1.390408E+0	1.351393E+0	1.352155E+0	1.372292E+0	1.348085E+0	1.332261E+0	1.314354E+0	1.310387E+0	1.395453E+0	1.378642E+0	1.382063E+0	1.374891E+0	1.398985E+0	1.413192E+0
5.387650E+2	1.646797E+0	1.536761E+0	1.549141E+0	1.608089E+0	1.582106E+0	1.535976E+0	1.553815E+0	1.663332E+0	1.534756E+0	1.578837E+0	1.597280E+0	1.649848E+0	1.616060E+0	1.570972E+0	1.548260E+0	1.590382E+0	1.624143E+0	1.576567E+0	1.590843E+0	1.599204E+0	1.494377E+0	1.538798E+0	1.580946E+0	1.636845E+0	1.641038E+0	1.633739E+0	1.575211E+0	1.647159E+0	1.585832E+0	1.567209E+0	1.594409E+0	1.633548E+0	1.644819E+0	1.589024E+0	1.540162E+0	1.563372E+0	1.549545E+0	1.597384E+0	1.613699E+0	1.543311E+0	1.672613E+0	1.594014E+0	1.558386E+0	1.580032E+0	1.581093E+0	1.622815E+0	1.544201E+0	1.615206E+0	1.544084E+0	1.566929E+0	1.590700E+0	1.634028E+0	1.568860E+0	1.610231E+0	1.536029E+0	1.595314E+0	1.586585E+0	1.582590E+0	1.550620E+0	1.621584E+0	1.614056E+0	1.540819E+0	1.569367E+0	1.548353E+0	1.670942E+0	1.564174E+0	1.579459E+0	1.656696E+0	1.566379E+0	1.581093E+0	1.569419E+0	1.596518E+0	1.572901E+0	1.584959E+0	1.544613E+0	1.537312E+0	1.582881E+0	1.556469E+0	1.513240E+0	1.575119E+0	1.591628E+0	1.565150E+0	1.565404E+0	1.533241E+0	1.604818E+0	1.564423E+0	1.504833E+0	1.557916E+0	1.579132E+0	1.575830E+0	1.513856E+0	1.662322E+0	1.524034E+0	1.557537E+0	1.554546E+0	1.566813E+0	1.585671E+0	1.587341E+0	1.582615E+0	1.563981E+0	1.552708E+0	1.583967E+0	1.532082E+0	1.595531E+0	1.595527E+0	1.607007E+0	1.550131E+0	1.608760E+0	1.610703E+0	1.551596E+0	1.606940E+0	1.540076E+0	1.569409E+0	1.554913E+0	1.537294E+0	1.580553E+0	1.542298E+0	1.593889E+0	1.554798E+0	1.599510E+0	1.593779E+0	1.567401E+0	1.530672E+0	1.530629E+0	1.575604E+0	1.582664E+0	1.529360E+0	1.599720E+0	1.534748E+0	1.578637E+0	1.575121E+0	1.590921E+0	1.528876E+0	1.562182E+0	1.563763E+0	1.555018E+0	1.606835E+0	1.572279E+0	1.499114E+0	1.531083E+0	1.533325E+0	1.588287E+0	1.570000E+0	1.592599E+0	1.564410E+0	1.537779E+0	1.482911E+0	1.601353E+0	1.531320E+0	1.526523E+0	1.627711E+0	1.577287E+0	1.566973E+0	1.508620E+0	1.518657E+0	1.568971E+0	1.597099E+0	1.511809E+0	1.535479E+0	1.605738E+0	1.582389E+0	1.543753E+0	1.516057E+0	1.494514E+0	1.556089E+0	1.550864E+0	1.486787E+0	1.620733E+0	1.607348E+0	1.600452E+0
5.390240E+2	1.830647E+0	1.715385E+0	1.743956E+0	1.747985E+0	1.812384E+0	1.774261E+0	1.710062E+0	1.801342E+0	1.775034E+0	1.787192E+0	1.743427E+0	1.812401E+0	1.864524E+0	1.834669E+0	1.800299E+0	1.826003E+0	1.763402E+0	1.791063E+0	1.796419E+0	1.761760E+0	1.724429E+0	1.761161E+0	1.708545E+0	1.768342E+0	1.859113E+0	1.776066E+0	1.789105E+0	1.764704E+0	1.788119E+0	1.734260E+0	1.727518E+0	1.788152E+0	1.804175E+0	1.758027E+0	1.740108E+0	1.825230E+0	1.779345E+0	1.793270E+0	1.741460E+0	1.803692E+0	1.847670E+0	1.770391E+0	1.718719E+0	1.838513E+0	1.807459E+0	1.790129E+0	1.803089E+0	1.774103E+0	1.741115E+0	1.796399E+0	1.779414E+0	1.764693E+0	1.696202E+0	1.769314E+0	1.691304E+0	1.701700E+0	1.765790E+0	1.767277E+0	1.759560E+0	1.797824E+0	1.808002E+0	1.741789E+0	1.821080E+0	1.731679E+0	1.835994E+0	1.751880E+0	1.725582E+0	1.717021E+0	1.684580E+0	1.737626E+0	1.779384E+0	1.739102E+0	1.743442E+0	1.763538E+0	1.744107E+0	1.759996E+0	1.742220E+0	1.751039E+0	1.740764E+0	1.702697E+0	1.723300E+0	1.787348E+0	1.754563E+0	1.736585E+0	1.780477E+0	1.782930E+0	1.730155E+0	1.754844E+0	1.805778E+0	1.750684E+0	1.745920E+0	1.805441E+0	1.821107E+0	1.703117E+0	1.743492E+0	1.789344E+0	1.664848E+0	1.683870E+0	1.753469E+0	1.658931E+0	1.739133E+0	1.768833E+0	1.694992E+0	1.775008E+0	1.804088E+0	1.717872E+0	1.732478E+0	1.773363E+0	1.684601E+0	1.758925E+0	1.745385E+0	1.723441E+0	1.705224E+0	1.839532E+0	1.684841E+0	1.748275E+0	1.684605E+0	1.675164E+0	1.683986E+0	1.745060E+0	1.758322E+0	1.699367E+0	1.663141E+0	1.750525E+0	1.756292E+0	1.721393E+0	1.670275E+0	1.729515E+0	1.805444E+0	1.824194E+0	1.687349E+0	1.758990E+0	1.760793E+0	1.721570E+0	1.713081E+0	1.761767E+0	1.771257E+0	1.780843E+0	1.680215E+0	1.704516E+0	1.717426E+0	1.734437E+0	1.759373E+0	1.781898E+0	1.696629E+0	1.724644E+0	1.709505E+0	1.762350E+0	1.701633E+0	1.755359E+0	1.747826E+0	1.726190E+0	1.699020E+0	1.670979E+0	1.678285E+0	1.748752E+0	1.783706E+0	1.717750E+0	1.745551E+0	1.789726E+0	1.717556E+0	1.692218E+0	1.741325E+0	1.764905E+0	1.761557E+0	1.747981E+0	1.661356E+0	1.776826E+0	1.776442E+0	1.623892E+0
5.392720E+2	2.035158E+0	1.878261E+0	1.899085E+0	1.905520E+0	1.970379E+0	1.973003E+0	1.917167E+0	1.954438E+0	1.888507E+0	1.949159E+0	1.960669E+0	1.977494E+0	1.955024E+0	1.934595E+0	1.936257E+0	1.963454E+0	1.930625E+0	1.916346E+0	1.909553E+0	1.930451E+0	1.891716E+0	1.975145E+0	1.934420E+0	1.939872E+0	1.983236E+0	1.969135E+0	1.920018E+0	1.925829E+0	1.930268E+0	1.865962E+0	1.973634E+0	1.942508E+0	1.933830E+0	1.939953E+0	1.886874E+0	1.975082E+0	1.856066E+0	1.860809E+0	1.894510E+0	1.923659E+0	1.969325E+0	1.881757E+0	1.799433E+0	1.973436E+0	1.922402E+0	1.941823E+0	1.917070E+0	1.906133E+0	1.901675E+0	1.915356E+0	1.915300E+0	1.959006E+0	1.923021E+0	1.929369E+0	1.891702E+0	1.882008E+0	1.912739E+0	1.949032E+0	1.891647E+0	1.999989E+0	1.954218E+0	1.920335E+0	1.928272E+0	1.864520E+0	1.934124E+0	1.862371E+0	1.968930E+0	1.909957E+0	1.913977E+0	1.932223E+0	1.855198E+0	1.954056E+0	1.870197E+0	1.926231E+0	1.896068E+0	1.961880E+0	1.901930E+0	1.886067E+0	1.878129E+0	1.926243E+0	1.896500E+0	1.992770E+0	1.912745E+0	1.843278E+0	1.924446E+0	1.884470E+0	1.864085E+0	1.897082E+0	1.875271E+0	1.867620E+0	1.915413E+0	1.864466E+0	1.835925E+0	1.914513E+0	1.896804E+0	1.847364E+0	1.887724E+0	1.892945E+0	1.876606E+0	1.900785E+0	1.866529E+0	1.819491E+0	1.812518E+0	1.890950E+0	1.885920E+0	1.849591E+0	1.912781E+0	1.920474E+0	1.858963E+0	1.892666E+0	1.869458E+0	1.870422E+0	1.837847E+0	1.922038E+0	1.881076E+0	1.970151E+0	1.885106E+0	1.940091E+0	1.866416E+0	1.834331E+0	1.879518E+0	1.851299E+0	1.921579E+0	1.876947E+0	1.855200E+0	1.894332E+0	1.822470E+0	1.836694E+0	1.843922E+0	1.901864E+0	1.844916E+0	1.855396E+0	1.876668E+0	1.849965E+0	1.875622E+0	1.879527E+0	1.856715E+0	1.876372E+0	1.803172E+0	1.901560E+0	1.889204E+0	1.838804E+0	1.909238E+0	1.878244E+0	1.893520E+0	1.823271E+0	1.853241E+0	1.905769E+0	1.820663E+0	1.936711E+0	1.955524E+0	1.841808E+0	1.815744E+0	1.924202E+0	1.859102E+0	1.835681E+0	1.878122E+0	1.785853E+0	1.872199E+0	1.804689E+0	1.914406E+0	1.811626E+0	1.834332E+0	1.908301E+0	1.860404E+0	1.797004E+0	1.825731E+0	1.827364E+0	1.972511E+0	1.910986E+0
5.395160E+2	2.141476E+0	1.962460E+0	1.999273E+0	1.992595E+0	2.060273E+0	2.000972E+0	2.074209E+0	2.022530E+0	2.005168E+0	2.072981E+0	1.994259E+0	2.065029E+0	2.048313E+0	2.041558E+0	2.071367E+0	2.055496E+0	2.056520E+0	2.111472E+0	2.024892E+0	2.044253E+0	1.996692E+0	2.034312E+0	2.016791E+0	1.987984E+0	2.037328E+0	1.981010E+0	2.013802E+0	2.020311E+0	2.000308E+0	2.091185E+0	2.000176E+0	2.058784E+0	2.025855E+0	1.977411E+0	1.997595E+0	2.015235E+0	1.971251E+0	2.004795E+0	1.916056E+0	2.020290E+0	2.078159E+0	1.930785E+0	1.927290E+0	2.031563E+0	2.089963E+0	2.020823E+0	2.041229E+0	1.995187E+0	2.009851E+0	2.003157E+0	1.964395E+0	2.085713E+0	1.962688E+0	1.996497E+0	1.988089E+0	2.004578E+0	2.037816E+0	1.986823E+0	2.021933E+0	2.072489E+0	1.986207E+0	2.039304E+0	1.986967E+0	1.996542E+0	2.001909E+0	1.981180E+0	2.008422E+0	1.975983E+0	1.939355E+0	1.995054E+0	2.069158E+0	1.958286E+0	1.974984E+0	1.960976E+0	1.969155E+0	1.998871E+0	1.986777E+0	1.960421E+0	1.956884E+0	2.085388E+0	1.974725E+0	1.989088E+0	1.992227E+0	1.936962E+0	2.004246E+0	1.961597E+0	1.956276E+0	2.022994E+0	2.018634E+0	1.931031E+0	1.970294E+0	1.979739E+0	1.971463E+0	2.023045E+0	1.977762E+0	2.037893E+0	1.997474E+0	2.038060E+0	2.030280E+0	1.962065E+0	1.974260E+0	1.924671E+0	1.967302E+0	2.060563E+0	2.057695E+0	1.943531E+0	2.017503E+0	1.993215E+0	1.988545E+0	1.931284E+0	2.014970E+0	1.944556E+0	1.963110E+0	1.970727E+0	1.908961E+0	2.028802E+0	1.982569E+0	1.972162E+0	1.910470E+0	1.940803E+0	2.008841E+0	1.945200E+0	1.963263E+0	1.967658E+0	1.998977E+0	2.026679E+0	2.016340E+0	1.896824E+0	1.928012E+0	1.980702E+0	1.887836E+0	1.992686E+0	1.950819E+0	2.026940E+0	1.972348E+0	1.959086E+0	1.973481E+0	1.968208E+0	1.918882E+0	1.967895E+0	1.938002E+0	1.985225E+0	2.017851E+0	1.973745E+0	2.074677E+0	1.853391E+0	1.945880E+0	2.006202E+0	1.899307E+0	1.993576E+0	1.930809E+0	1.961318E+0	1.947963E+0	1.984560E+0	1.944225E+0	2.001002E+0	1.988134E+0	1.863672E+0	1.895944E+0	1.992878E+0	1.976317E+0	1.998339E+0	1.925674E+0	1.971619E+0	1.950704E+0	1.877155E+0	1.910930E+0	2.001702E+0	1.956720E+0	2.000552E+0
5.397810E+2	2.116485E+0	2.031798E+0	2.054894E+0	2.040687E+0	2.154821E+0	2.040623E+0	2.011467E+0	2.062749E+0	2.052459E+0	2.077068E+0	2.009799E+0	2.078779E+0	2.129154E+0	2.066202E+0	2.044330E+0	2.124415E+0	2.064676E+0	2.074560E+0	2.089083E+0	2.090739E+0	1.968605E+0	2.087010E+0	2.028378E+0	2.032750E+0	2.052459E+0	2.065132E+0	2.022403E+0	2.029493E+0	2.046413E+0	2.038733E+0	1.999142E+0	2.038701E+0	2.092358E+0	2.019287E+0	2.036478E+0	2.004259E+0	2.003085E+0	2.065839E+0	2.001395E+0	2.005713E+0	2.068172E+0	2.026548E+0	1.992723E+0	1.963218E+0	2.026983E+0	2.012391E+0	2.042432E+0	2.016430E+0	1.982431E+0	2.158665E+0	1.991500E+0	2.051257E+0	2.036627E+0	1.977874E+0	1.986613E+0	2.076309E+0	2.048997E+0	2.114018E+0	2.001476E+0	2.053020E+0	2.090788E+0	2.011619E+0	2.078103E+0	2.025299E+0	2.047201E+0	2.008333E+0	2.047744E+0	2.000703E+0	2.029231E+0	2.038010E+0	2.011511E+0	1.951158E+0	2.019186E+0	2.016026E+0	2.063801E+0	2.049944E+0	2.087198E+0	1.993516E+0	1.989072E+0	2.015751E+0	2.067366E+0	1.987993E+0	1.987720E+0	2.011851E+0	2.103215E+0	2.031784E+0	2.004576E+0	2.062175E+0	2.013826E+0	2.017788E+0	2.017728E+0	2.106849E+0	2.025201E+0	2.001155E+0	1.988028E+0	2.035891E+0	1.988247E+0	2.027301E+0	1.976956E+0	1.994730E+0	1.972033E+0	2.000477E+0	1.990352E+0	2.091222E+0	2.075926E+0	1.992200E+0	1.975298E+0	2.044817E+0	1.989610E+0	2.001421E+0	1.986145E+0	1.953649E+0	2.009564E+0	2.060763E+0	1.914588E+0	2.013383E+0	2.003593E+0	2.039292E+0	1.954496E+0	1.989675E+0	2.033283E+0	1.963141E+0	1.935723E+0	2.042237E+0	1.989565E+0	2.016983E+0	1.991942E+0	1.878584E+0	2.008053E+0	2.038174E+0	2.030872E+0	2.003576E+0	2.032050E+0	1.989010E+0	1.970626E+0	1.966191E+0	2.067554E+0	2.003218E+0	1.971036E+0	2.029315E+0	2.026339E+0	1.986627E+0	2.034987E+0	2.001799E+0	2.007011E+0	1.959848E+0	1.969415E+0	2.007785E+0	1.945137E+0	2.013587E+0	2.032350E+0	1.982157E+0	1.991451E+0	1.967046E+0	1.986057E+0	1.937223E+0	2.004312E+0	1.916355E+0	1.952384E+0	2.049178E+0	1.992601E+0	1.995421E+0	2.009878E+0	1.919072E+0	2.007167E+0	1.877868E+0	1.937178E+0	1.929402E+0	2.067699E+0	2.073949E+0
5.400240E+2	2.072694E+0	1.935395E+0	2.066494E+0	1.968666E+0	2.057699E+0	2.001270E+0	1.950500E+0	2.007667E+0	2.130824E+0	2.028955E+0	1.982987E+0	2.050191E+0	2.049253E+0	2.095816E+0	2.009112E+0	1.995988E+0	2.099014E+0	2.035995E+0	1.952997E+0	2.028427E+0	2.010987E+0	2.008824E+0	2.013779E+0	1.962937E+0	2.078068E+0	2.006194E+0	1.973421E+0	1.993548E+0	2.031695E+0	1.977677E+0	2.016493E+0	2.034795E+0	1.954012E+0	2.041577E+0	2.004361E+0	1.988397E+0	1.971222E+0	1.989028E+0	1.887394E+0	1.933842E+0	2.024332E+0	2.000431E+0	1.937180E+0	2.040247E+0	2.033209E+0	2.037204E+0	1.972403E+0	1.939293E+0	1.948340E+0	2.000916E+0	2.033789E+0	2.038309E+0	1.941790E+0	1.974951E+0	1.978134E+0	1.986081E+0	2.038019E+0	2.012827E+0	2.018101E+0	2.015826E+0	1.968790E+0	1.983373E+0	1.973429E+0	2.001822E+0	2.089014E+0	1.983288E+0	1.967073E+0	1.981012E+0	1.967962E+0	2.041524E+0	1.985936E+0	1.945413E+0	1.941385E+0	2.021125E+0	2.019189E+0	1.967012E+0	2.049247E+0	1.998085E+0	1.952383E+0	2.031871E+0	1.962010E+0	2.022287E+0	1.938242E+0	1.989087E+0	1.982432E+0	1.948024E+0	1.964750E+0	1.950420E+0	1.925033E+0	1.988544E+0	1.969096E+0	2.040634E+0	1.980231E+0	2.042520E+0	1.939201E+0	1.953270E+0	1.949582E+0	1.988532E+0	1.939962E+0	1.920516E+0	1.927921E+0	1.941652E+0	1.950025E+0	2.020416E+0	2.081994E+0	1.925615E+0	1.910728E+0	2.033917E+0	1.965128E+0	1.948742E+0	1.937228E+0	1.895364E+0	1.967360E+0	1.980230E+0	1.904827E+0	1.967763E+0	1.959000E+0	1.960987E+0	1.940719E+0	1.864582E+0	2.019924E+0	1.952630E+0	1.911029E+0	1.980298E+0	1.976472E+0	1.929147E+0	1.937006E+0	1.933138E+0	1.951502E+0	1.948866E+0	1.929226E+0	1.993244E+0	1.875634E+0	1.910651E+0	1.927947E+0	1.972302E+0	2.028880E+0	1.939404E+0	1.953938E+0	1.964162E+0	1.922611E+0	1.927326E+0	2.002215E+0	1.995427E+0	1.985165E+0	1.927521E+0	1.930807E+0	1.997493E+0	1.925301E+0	1.950995E+0	1.952890E+0	1.990894E+0	1.928841E+0	1.934992E+0	1.983078E+0	1.958449E+0	2.000109E+0	1.889871E+0	1.983513E+0	1.988385E+0	1.934665E+0	1.883288E+0	1.857562E+0	1.960226E+0	1.951394E+0	1.960903E+0	1.929813E+0	1.898714E+0	1.878112E+0	1.987917E+0
5.402850E+2	2.004007E+0	1.878108E+0	1.864320E+0	1.853794E+0	1.943506E+0	1.916036E+0	1.914153E+0	1.933742E+0	1.947266E+0	1.933805E+0	1.862901E+0	2.001269E+0	1.922041E+0	1.972332E+0	1.916272E+0	1.932293E+0	1.926089E+0	1.980173E+0	1.886346E+0	1.906677E+0	1.846960E+0	1.908142E+0	1.946073E+0	1.872268E+0	1.942020E+0	1.796740E+0	1.907924E+0	1.888712E+0	1.829626E+0	1.968589E+0	1.863226E+0	1.889811E+0	1.896710E+0	1.905070E+0	1.819277E+0	1.930577E+0	1.845925E+0	1.856303E+0	1.831806E+0	1.890911E+0	1.934685E+0	1.889698E+0	1.840309E+0	1.912143E+0	1.986378E+0	1.912921E+0	1.835783E+0	1.885647E+0	1.910202E+0	1.863675E+0	1.916361E+0	1.898817E+0	1.861126E+0	1.918127E+0	1.877057E+0	1.877474E+0	1.929597E+0	1.883121E+0	1.876897E+0	1.901239E+0	1.942331E+0	1.925407E+0	1.953557E+0	1.907904E+0	1.916135E+0	1.904557E+0	1.902833E+0	1.866778E+0	1.879464E+0	1.966541E+0	1.919626E+0	1.875149E+0	1.906257E+0	1.893641E+0	1.862243E+0	1.924986E+0	1.924561E+0	1.906515E+0	1.894097E+0	1.889020E+0	1.878073E+0	1.889255E+0	1.923747E+0	1.831351E+0	1.937941E+0	1.821766E+0	1.818968E+0	1.862495E+0	1.866961E+0	1.850718E+0	1.898526E+0	1.910860E+0	1.895289E+0	1.918334E+0	1.851302E+0	1.847824E+0	1.902955E+0	1.924625E+0	1.887474E+0	1.873581E+0	1.886189E+0	1.845200E+0	1.828483E+0	1.897648E+0	1.945365E+0	1.869557E+0	1.779623E+0	1.874169E+0	1.900602E+0	1.899926E+0	1.803292E+0	1.851264E+0	1.901120E+0	1.897926E+0	1.847119E+0	1.917513E+0	1.876551E+0	1.903979E+0	1.885654E+0	1.801839E+0	1.917487E+0	1.876693E+0	1.800123E+0	1.882916E+0	1.903670E+0	1.936816E+0	1.877709E+0	1.796974E+0	1.883292E+0	1.913312E+0	1.830711E+0	1.850091E+0	1.923956E+0	1.823433E+0	1.844964E+0	1.863639E+0	1.839953E+0	1.845205E+0	1.809467E+0	1.911366E+0	1.850552E+0	1.875700E+0	1.894065E+0	1.852208E+0	1.957061E+0	1.809776E+0	1.813080E+0	1.911063E+0	1.850520E+0	1.880561E+0	1.838353E+0	1.845544E+0	1.870559E+0	1.827236E+0	1.874676E+0	1.837157E+0	1.886467E+0	1.767563E+0	1.872237E+0	1.868194E+0	1.821935E+0	1.810644E+0	1.850605E+0	1.866306E+0	1.887212E+0	1.838877E+0	1.782230E+0	1.835131E+0	1.834706E+0	1.855119E+0
5.405130E+2	1.857055E+0	1.762913E+0	1.744812E+0	1.776175E+0	1.825172E+0	1.818256E+0	1.752817E+0	1.820658E+0	1.861997E+0	1.873168E+0	1.789523E+0	1.803542E+0	1.790332E+0	1.789360E+0	1.730337E+0	1.859968E+0	1.833732E+0	1.835400E+0	1.813041E+0	1.815897E+0	1.765491E+0	1.814928E+0	1.747011E+0	1.771909E+0	1.854086E+0	1.796775E+0	1.803081E+0	1.744107E+0	1.797193E+0	1.760189E+0	1.771331E+0	1.769135E+0	1.825748E+0	1.787235E+0	1.736619E+0	1.790801E+0	1.780481E+0	1.787735E+0	1.738393E+0	1.776484E+0	1.818010E+0	1.759467E+0	1.693854E+0	1.788756E+0	1.811524E+0	1.774710E+0	1.792004E+0	1.799367E+0	1.725689E+0	1.714148E+0	1.703377E+0	1.834300E+0	1.756256E+0	1.733265E+0	1.773541E+0	1.757962E+0	1.799695E+0	1.845378E+0	1.760673E+0	1.785792E+0	1.743429E+0	1.774159E+0	1.871402E+0	1.792240E+0	1.797103E+0	1.744612E+0	1.844845E+0	1.777276E+0	1.741820E+0	1.832082E+0	1.780559E+0	1.754814E+0	1.779423E+0	1.756722E+0	1.792805E+0	1.729691E+0	1.845880E+0	1.827398E+0	1.778275E+0	1.791941E+0	1.748996E+0	1.747827E+0	1.804848E+0	1.815016E+0	1.863139E+0	1.791044E+0	1.684984E+0	1.716246E+0	1.752009E+0	1.770556E+0	1.807776E+0	1.811857E+0	1.715752E+0	1.767917E+0	1.732380E+0	1.752076E+0	1.741334E+0	1.766608E+0	1.765374E+0	1.733903E+0	1.751740E+0	1.722763E+0	1.794595E+0	1.762859E+0	1.841212E+0	1.734231E+0	1.715754E+0	1.755923E+0	1.823503E+0	1.749885E+0	1.800590E+0	1.747900E+0	1.757380E+0	1.753570E+0	1.700453E+0	1.779401E+0	1.776665E+0	1.817322E+0	1.769749E+0	1.707636E+0	1.799038E+0	1.767597E+0	1.755326E+0	1.729492E+0	1.740570E+0	1.743651E+0	1.738849E+0	1.731728E+0	1.743335E+0	1.769244E+0	1.701305E+0	1.729888E+0	1.801053E+0	1.725396E+0	1.753398E+0	1.724683E+0	1.779933E+0	1.779430E+0	1.754770E+0	1.719557E+0	1.769586E+0	1.737114E+0	1.766823E+0	1.741575E+0	1.773529E+0	1.726505E+0	1.756119E+0	1.755907E+0	1.712881E+0	1.777603E+0	1.782645E+0	1.744923E+0	1.748390E+0	1.743493E+0	1.779499E+0	1.767392E+0	1.748429E+0	1.720693E+0	1.731312E+0	1.778626E+0	1.782384E+0	1.726877E+0	1.716254E+0	1.707317E+0	1.754001E+0	1.718578E+0	1.791880E+0	1.745881E+0	1.749273E+0	1.704002E+0
5.407680E+2	1.750381E+0	1.629314E+0	1.768063E+0	1.652645E+0	1.740216E+0	1.745446E+0	1.692002E+0	1.737584E+0	1.715423E+0	1.712344E+0	1.661557E+0	1.711448E+0	1.715272E+0	1.715797E+0	1.709638E+0	1.771473E+0	1.742457E+0	1.755694E+0	1.729764E+0	1.734452E+0	1.688030E+0	1.735477E+0	1.689221E+0	1.732849E+0	1.776479E+0	1.672957E+0	1.707535E+0	1.663682E+0	1.726093E+0	1.710259E+0	1.682935E+0	1.687427E+0	1.747576E+0	1.733871E+0	1.691250E+0	1.727272E+0	1.717216E+0	1.662980E+0	1.625909E+0	1.673070E+0	1.738938E+0	1.766361E+0	1.665179E+0	1.709620E+0	1.760607E+0	1.663901E+0	1.658714E+0	1.682738E+0	1.657330E+0	1.719901E+0	1.700656E+0	1.689176E+0	1.651957E+0	1.720619E+0	1.677379E+0	1.687509E+0	1.752365E+0	1.733604E+0	1.706849E+0	1.721960E+0	1.672078E+0	1.726314E+0	1.675834E+0	1.684562E+0	1.709589E+0	1.690930E+0	1.741974E+0	1.696627E+0	1.628254E+0	1.720967E+0	1.667729E+0	1.648111E+0	1.687989E+0	1.671472E+0	1.693551E+0	1.695420E+0	1.663466E+0	1.738026E+0	1.691884E+0	1.672090E+0	1.635169E+0	1.693370E+0	1.733949E+0	1.694980E+0	1.675914E+0	1.691699E+0	1.639213E+0	1.679355E+0	1.711579E+0	1.638581E+0	1.701835E+0	1.662255E+0	1.709785E+0	1.682663E+0	1.652204E+0	1.658768E+0	1.691690E+0	1.703705E+0	1.671669E+0	1.686691E+0	1.726188E+0	1.633452E+0	1.667505E+0	1.705203E+0	1.728219E+0	1.662367E+0	1.704185E+0	1.621188E+0	1.748230E+0	1.682597E+0	1.663436E+0	1.650035E+0	1.693403E+0	1.685704E+0	1.726083E+0	1.648358E+0	1.674935E+0	1.669760E+0	1.649690E+0	1.617976E+0	1.748910E+0	1.675642E+0	1.629043E+0	1.644296E+0	1.672976E+0	1.669585E+0	1.672116E+0	1.615271E+0	1.675831E+0	1.670854E+0	1.653071E+0	1.668595E+0	1.707741E+0	1.611734E+0	1.689258E+0	1.704385E+0	1.685580E+0	1.685585E+0	1.672190E+0	1.664014E+0	1.636668E+0	1.611612E+0	1.675118E+0	1.647748E+0	1.676563E+0	1.625764E+0	1.665597E+0	1.648093E+0	1.645799E+0	1.674517E+0	1.640523E+0	1.666440E+0	1.701476E+0	1.659865E+0	1.649728E+0	1.673808E+0	1.692865E+0	1.608062E+0	1.702252E+0	1.627290E+0	1.639558E+0	1.658868E+0	1.595858E+0	1.678860E+0	1.693454E+0	1.660384E+0	1.609504E+0	1.609455E+0	1.732294E+0	1.650765E+0
5.410290E+2	1.671697E+0	1.553839E+0	1.642657E+0	1.566478E+0	1.639104E+0	1.609289E+0	1.619100E+0	1.609852E+0	1.629145E+0	1.631870E+0	1.530852E+0	1.658115E+0	1.648994E+0	1.610281E+0	1.633948E+0	1.696669E+0	1.615767E+0	1.637932E+0	1.652913E+0	1.580695E+0	1.615563E+0	1.615761E+0	1.644476E+0	1.633394E+0	1.685811E+0	1.605105E+0	1.638464E+0	1.597675E+0	1.637814E+0	1.638109E+0	1.593556E+0	1.614965E+0	1.636073E+0	1.630348E+0	1.596863E+0	1.615956E+0	1.611548E+0	1.647217E+0	1.560467E+0	1.602936E+0	1.645813E+0	1.593051E+0	1.572340E+0	1.614040E+0	1.603410E+0	1.637455E+0	1.638785E+0	1.616359E+0	1.573981E+0	1.626685E+0	1.578722E+0	1.644711E+0	1.589526E+0	1.596390E+0	1.629050E+0	1.602048E+0	1.642364E+0	1.631250E+0	1.602534E+0	1.653847E+0	1.611267E+0	1.600341E+0	1.605130E+0	1.607136E+0	1.709910E+0	1.570389E+0	1.627254E+0	1.564955E+0	1.573936E+0	1.571189E+0	1.595589E+0	1.549206E+0	1.655975E+0	1.634367E+0	1.612378E+0	1.622576E+0	1.629127E+0	1.607924E+0	1.590736E+0	1.669325E+0	1.601138E+0	1.593047E+0	1.584267E+0	1.581994E+0	1.593824E+0	1.635411E+0	1.514762E+0	1.585591E+0	1.612674E+0	1.631439E+0	1.543323E+0	1.653455E+0	1.676065E+0	1.660639E+0	1.620266E+0	1.631652E+0	1.573461E+0	1.617480E+0	1.566098E+0	1.589673E+0	1.590208E+0	1.603070E+0	1.633611E+0	1.593024E+0	1.659330E+0	1.621162E+0	1.604581E+0	1.596001E+0	1.645243E+0	1.596657E+0	1.646188E+0	1.600913E+0	1.578336E+0	1.636147E+0	1.576333E+0	1.616935E+0	1.573877E+0	1.606224E+0	1.534098E+0	1.539890E+0	1.683655E+0	1.598314E+0	1.572158E+0	1.593650E+0	1.682278E+0	1.588637E+0	1.590681E+0	1.606115E+0	1.586904E+0	1.591670E+0	1.541877E+0	1.621900E+0	1.611922E+0	1.598963E+0	1.581069E+0	1.600687E+0	1.666940E+0	1.626861E+0	1.564989E+0	1.596396E+0	1.538066E+0	1.601333E+0	1.636475E+0	1.679012E+0	1.583828E+0	1.510343E+0	1.595707E+0	1.645811E+0	1.590425E+0	1.601466E+0	1.601537E+0	1.607277E+0	1.547952E+0	1.615453E+0	1.609138E+0	1.561641E+0	1.610172E+0	1.607403E+0	1.642932E+0	1.621146E+0	1.662790E+0	1.550955E+0	1.633558E+0	1.603629E+0	1.620531E+0	1.555650E+0	1.575487E+0	1.533628E+0	1.627295E+0	1.674935E+0
5.412790E+2	1.651899E+0	1.477449E+0	1.492703E+0	1.525162E+0	1.510532E+0	1.581384E+0	1.518290E+0	1.580955E+0	1.584387E+0	1.551076E+0	1.571751E+0	1.531309E+0	1.564194E+0	1.534267E+0	1.501227E+0	1.591966E+0	1.570192E+0	1.526423E+0	1.578136E+0	1.588360E+0	1.496789E+0	1.557068E+0	1.525527E+0	1.528440E+0	1.516419E+0	1.521135E+0	1.496361E+0	1.526637E+0	1.542656E+0	1.539451E+0	1.547773E+0	1.526889E+0	1.567168E+0	1.537393E+0	1.513110E+0	1.531097E+0	1.556277E+0	1.523357E+0	1.512166E+0	1.502030E+0	1.565878E+0	1.529048E+0	1.483611E+0	1.541344E+0	1.506843E+0	1.557855E+0	1.466893E+0	1.528278E+0	1.525490E+0	1.531281E+0	1.515324E+0	1.573693E+0	1.509324E+0	1.540303E+0	1.545512E+0	1.514191E+0	1.576966E+0	1.528504E+0	1.547341E+0	1.557611E+0	1.506533E+0	1.603379E+0	1.510599E+0	1.482393E+0	1.582595E+0	1.522410E+0	1.533846E+0	1.507704E+0	1.489448E+0	1.587222E+0	1.539897E+0	1.504137E+0	1.549628E+0	1.521379E+0	1.523002E+0	1.492105E+0	1.560678E+0	1.575366E+0	1.494719E+0	1.558903E+0	1.514580E+0	1.547791E+0	1.551994E+0	1.500934E+0	1.564139E+0	1.583703E+0	1.523950E+0	1.514479E+0	1.533168E+0	1.547185E+0	1.492751E+0	1.511329E+0	1.545860E+0	1.531728E+0	1.493723E+0	1.533088E+0	1.556192E+0	1.508876E+0	1.548935E+0	1.499717E+0	1.506447E+0	1.542075E+0	1.464048E+0	1.532657E+0	1.560780E+0	1.552248E+0	1.553651E+0	1.495631E+0	1.520553E+0	1.511697E+0	1.562104E+0	1.460355E+0	1.489636E+0	1.524455E+0	1.499389E+0	1.602372E+0	1.504412E+0	1.493727E+0	1.497573E+0	1.451955E+0	1.552842E+0	1.479410E+0	1.519526E+0	1.536705E+0	1.491504E+0	1.521821E+0	1.449014E+0	1.553646E+0	1.508604E+0	1.494163E+0	1.516351E+0	1.515285E+0	1.544048E+0	1.506664E+0	1.516089E+0	1.495115E+0	1.625122E+0	1.503225E+0	1.482727E+0	1.544887E+0	1.497823E+0	1.446880E+0	1.489418E+0	1.523971E+0	1.533914E+0	1.497297E+0	1.436519E+0	1.532651E+0	1.515600E+0	1.568658E+0	1.468151E+0	1.525350E+0	1.534237E+0	1.462771E+0	1.526914E+0	1.481955E+0	1.547853E+0	1.498738E+0	1.480375E+0	1.532257E+0	1.531369E+0	1.439038E+0	1.458841E+0	1.558250E+0	1.499779E+0	1.487090E+0	1.497517E+0	1.535397E+0	1.465224E+0	1.560578E+0
5.415140E+2	1.397085E+0	1.383903E+0	1.373682E+0	1.362877E+0	1.491716E+0	1.386475E+0	1.343819E+0	1.373982E+0	1.392974E+0	1.429586E+0	1.391083E+0	1.436979E+0	1.377047E+0	1.439973E+0	1.353985E+0	1.429959E+0	1.380533E+0	1.401778E+0	1.371737E+0	1.406204E+0	1.363669E+0	1.418581E+0	1.457904E+0	1.361230E+0	1.422747E+0	1.341783E+0	1.428167E+0	1.354298E+0	1.396065E+0	1.406439E+0	1.394411E+0	1.405886E+0	1.394690E+0	1.371794E+0	1.362124E+0	1.397136E+0	1.371746E+0	1.376709E+0	1.339357E+0	1.366027E+0	1.389200E+0	1.422305E+0	1.349869E+0	1.457225E+0	1.363837E+0	1.411137E+0	1.373485E+0	1.386454E+0	1.334954E+0	1.405654E+0	1.459342E+0	1.391202E+0	1.389818E+0	1.394794E+0	1.356886E+0	1.355113E+0	1.364682E+0	1.389485E+0	1.374696E+0	1.424630E+0	1.420607E+0	1.410980E+0	1.388857E+0	1.342848E+0	1.430412E+0	1.422377E+0	1.421478E+0	1.307762E+0	1.329357E+0	1.421132E+0	1.367052E+0	1.348761E+0	1.361388E+0	1.392353E+0	1.351050E+0	1.372544E+0	1.372621E+0	1.354812E+0	1.392918E+0	1.353285E+0	1.389786E+0	1.361852E+0	1.363140E+0	1.336981E+0	1.395844E+0	1.459075E+0	1.345337E+0	1.354664E+0	1.386502E+0	1.375235E+0	1.379739E+0	1.416390E+0	1.377736E+0	1.416714E+0	1.345286E+0	1.376696E+0	1.353780E+0	1.434417E+0	1.341604E+0	1.393056E+0	1.345238E+0	1.354769E+0	1.369226E+0	1.341143E+0	1.317883E+0	1.332262E+0	1.361201E+0	1.395333E+0	1.394407E+0	1.418936E+0	1.325133E+0	1.354385E+0	1.400125E+0	1.403041E+0	1.306346E+0	1.420881E+0	1.406948E+0	1.417387E+0	1.349650E+0	1.367482E+0	1.403415E+0	1.434523E+0	1.319842E+0	1.376104E+0	1.351076E+0	1.373156E+0	1.408463E+0	1.304975E+0	1.412776E+0	1.422486E+0	1.363915E+0	1.367034E+0	1.423160E+0	1.364217E+0	1.367140E+0	1.360299E+0	1.378271E+0	1.395880E+0	1.319371E+0	1.367459E+0	1.357787E+0	1.380325E+0	1.442386E+0	1.374274E+0	1.401521E+0	1.374754E+0	1.305980E+0	1.348891E+0	1.346509E+0	1.378981E+0	1.371696E+0	1.376002E+0	1.300515E+0	1.395408E+0	1.403347E+0	1.382199E+0	1.490567E+0	1.391066E+0	1.368795E+0	1.407020E+0	1.383299E+0	1.336226E+0	1.305255E+0	1.318317E+0	1.381200E+0	1.384011E+0	1.347047E+0	1.420410E+0	1.412663E+0	1.341136E+0
5.417760E+2	1.284438E+0	1.170990E+0	1.238037E+0	1.184010E+0	1.248948E+0	1.196274E+0	1.174274E+0	1.231054E+0	1.241047E+0	1.237518E+0	1.159372E+0	1.220880E+0	1.253169E+0	1.190691E+0	1.225624E+0	1.224969E+0	1.203083E+0	1.201274E+0	1.169344E+0	1.186141E+0	1.227872E+0	1.169666E+0	1.153469E+0	1.185543E+0	1.244050E+0	1.191849E+0	1.188243E+0	1.150873E+0	1.185723E+0	1.183126E+0	1.214877E+0	1.209604E+0	1.190297E+0	1.214781E+0	1.239263E+0	1.225860E+0	1.187134E+0	1.178207E+0	1.134087E+0	1.154077E+0	1.196606E+0	1.229563E+0	1.123397E+0	1.214401E+0	1.189803E+0	1.247156E+0	1.189746E+0	1.173508E+0	1.163716E+0	1.255463E+0	1.197072E+0	1.212034E+0	1.171836E+0	1.198620E+0	1.196713E+0	1.283262E+0	1.220723E+0	1.262471E+0	1.163831E+0	1.214257E+0	1.187408E+0	1.219011E+0	1.214616E+0	1.193044E+0	1.232776E+0	1.192049E+0	1.204420E+0	1.159277E+0	1.189196E+0	1.187506E+0	1.188785E+0	1.174971E+0	1.207231E+0	1.222601E+0	1.189236E+0	1.209010E+0	1.217708E+0	1.185705E+0	1.189602E+0	1.212484E+0	1.188016E+0	1.179232E+0	1.183020E+0	1.213763E+0	1.190879E+0	1.222530E+0	1.170087E+0	1.174509E+0	1.185814E+0	1.225739E+0	1.204402E+0	1.207839E+0	1.185662E+0	1.198241E+0	1.163758E+0	1.220391E+0	1.184238E+0	1.168723E+0	1.208637E+0	1.230499E+0	1.227169E+0	1.182027E+0	1.180543E+0	1.180952E+0	1.208272E+0	1.196272E+0	1.167910E+0	1.191650E+0	1.213678E+0	1.243928E+0	1.196080E+0	1.185809E+0	1.189352E+0	1.217509E+0	1.187061E+0	1.216690E+0	1.167407E+0	1.241459E+0	1.195609E+0	1.158520E+0	1.222492E+0	1.204682E+0	1.187930E+0	1.150115E+0	1.182249E+0	1.172377E+0	1.208794E+0	1.223902E+0	1.197912E+0	1.191653E+0	1.194068E+0	1.200953E+0	1.205092E+0	1.166265E+0	1.191423E+0	1.214029E+0	1.205070E+0	1.183192E+0	1.165573E+0	1.168126E+0	1.176873E+0	1.182234E+0	1.217849E+0	1.237955E+0	1.236364E+0	1.139899E+0	1.173017E+0	1.173033E+0	1.210922E+0	1.202424E+0	1.201817E+0	1.200867E+0	1.198157E+0	1.150504E+0	1.197100E+0	1.174054E+0	1.216972E+0	1.169935E+0	1.201819E+0	1.241600E+0	1.163449E+0	1.184351E+0	1.195069E+0	1.106474E+0	1.225106E+0	1.182414E+0	1.164219E+0	1.212258E+0	1.272666E+0	1.248829E+0
5.420160E+2	1.058923E+0	1.029295E+0	1.056481E+0	1.014073E+0	1.064624E+0	1.052666E+0	1.040331E+0	1.025511E+0	1.048454E+0	1.058067E+0	9.857744E-1	1.056084E+0	1.071486E+0	1.079092E+0	1.026769E+0	1.065309E+0	1.076005E+0	1.048377E+0	1.072717E+0	1.073139E+0	1.043316E+0	1.053101E+0	1.064988E+0	9.845885E-1	1.026564E+0	1.055367E+0	1.017199E+0	1.020759E+0	1.064638E+0	1.049358E+0	1.022279E+0	1.090008E+0	1.081784E+0	1.057030E+0	1.027255E+0	1.020333E+0	1.039669E+0	1.077824E+0	1.053857E+0	1.014725E+0	1.030432E+0	1.084958E+0	1.051311E+0	1.041422E+0	1.062721E+0	1.044393E+0	1.054507E+0	1.053354E+0	9.816909E-1	1.045897E+0	1.034188E+0	1.072563E+0	1.020999E+0	1.058395E+0	9.966861E-1	1.073176E+0	1.047872E+0	1.075091E+0	1.075371E+0	1.057888E+0	1.042077E+0	1.033996E+0	1.063757E+0	1.025117E+0	1.081343E+0	1.021550E+0	1.040590E+0	1.040884E+0	1.024513E+0	1.074735E+0	1.053315E+0	1.071221E+0	1.046837E+0	1.019113E+0	1.025107E+0	1.038498E+0	1.053192E+0	1.069251E+0	1.048421E+0	1.073102E+0	1.071596E+0	1.054676E+0	1.034075E+0	1.050230E+0	1.047266E+0	1.034512E+0	1.044825E+0	1.036436E+0	1.035286E+0	1.019106E+0	1.058786E+0	1.011438E+0	1.023422E+0	1.096140E+0	1.019912E+0	1.078477E+0	1.018025E+0	1.090150E+0	1.081647E+0	9.843462E-1	1.030946E+0	1.034638E+0	1.054873E+0	1.063063E+0	1.067378E+0	1.069569E+0	9.873789E-1	1.070734E+0	1.041268E+0	1.067077E+0	1.051760E+0	1.038305E+0	1.027920E+0	1.053863E+0	9.873744E-1	1.057332E+0	1.074753E+0	1.094281E+0	1.091928E+0	1.009822E+0	1.064525E+0	1.021818E+0	1.076078E+0	1.023764E+0	1.079458E+0	1.044410E+0	1.035717E+0	1.039235E+0	1.017706E+0	1.070315E+0	9.865341E-1	1.074063E+0	1.048226E+0	9.998080E-1	1.015902E+0	1.029417E+0	1.052095E+0	1.077675E+0	1.039684E+0	1.013346E+0	1.026414E+0	1.060371E+0	1.098360E+0	1.061877E+0	1.046436E+0	1.054613E+0	1.011908E+0	1.065976E+0	1.068014E+0	1.030814E+0	1.034029E+0	1.060399E+0	1.020208E+0	1.011045E+0	1.017137E+0	1.034353E+0	1.026431E+0	1.032614E+0	1.037006E+0	1.031385E+0	1.059887E+0	1.021439E+0	1.021763E+0	1.020104E+0	1.045825E+0	1.000128E+0	1.066894E+0	1.036293E+0	1.043283E+0	1.056649E+0
5.422670E+2	9.990182E-1	9.403438E-1	9.528031E-1	9.312478E-1	1.000557E+0	9.545721E-1	9.554323E-1	9.681488E-1	9.416986E-1	9.493036E-1	9.463877E-1	9.732593E-1	9.273139E-1	9.452900E-1	9.423251E-1	9.604507E-1	8.900385E-1	9.347515E-1	9.365133E-1	9.989871E-1	9.370707E-1	9.541309E-1	9.384834E-1	9.485555E-1	9.655442E-1	9.583302E-1	9.697732E-1	9.765230E-1	9.845862E-1	9.675682E-1	1.001086E+0	9.456323E-1	9.846417E-1	9.312541E-1	9.324241E-1	9.627571E-1	9.329670E-1	9.729367E-1	9.431927E-1	9.191293E-1	9.508037E-1	9.679825E-1	9.259509E-1	9.913019E-1	9.404949E-1	1.000883E+0	9.569735E-1	9.407048E-1	9.558178E-1	9.820084E-1	9.464265E-1	9.780099E-1	9.355493E-1	9.728748E-1	9.101305E-1	9.405535E-1	9.811859E-1	9.661917E-1	9.779759E-1	9.246916E-1	8.999491E-1	9.693607E-1	9.844222E-1	9.266625E-1	9.886880E-1	9.627289E-1	9.741966E-1	9.538585E-1	9.453565E-1	9.847916E-1	9.858598E-1	9.684109E-1	9.496395E-1	9.504878E-1	9.387531E-1	9.577246E-1	9.499813E-1	9.424368E-1	9.422934E-1	8.992552E-1	9.122337E-1	9.440576E-1	9.772501E-1	9.660725E-1	9.158990E-1	9.894817E-1	9.019324E-1	9.247298E-1	9.513808E-1	9.413874E-1	9.372597E-1	9.429211E-1	9.529221E-1	9.395994E-1	9.377228E-1	9.577517E-1	9.485288E-1	9.905181E-1	9.489110E-1	9.227697E-1	9.642701E-1	9.660157E-1	9.406062E-1	9.658362E-1	9.718029E-1	9.632241E-1	9.365871E-1	9.350945E-1	9.672541E-1	9.163137E-1	9.349158E-1	9.251268E-1	9.383435E-1	9.740990E-1	9.347915E-1	9.757559E-1	9.909074E-1	9.823905E-1	9.299901E-1	9.286106E-1	9.537133E-1	9.254179E-1	9.169654E-1	9.608645E-1	9.388728E-1	9.715406E-1	9.385635E-1	8.911210E-1	9.544810E-1	9.840515E-1	9.373454E-1	9.197706E-1	9.721247E-1	9.850190E-1	9.551807E-1	9.371306E-1	9.746465E-1	9.517738E-1	9.651003E-1	9.817800E-1	9.261006E-1	9.229001E-1	9.585222E-1	1.007144E+0	9.917023E-1	9.745016E-1	9.503017E-1	1.007671E+0	9.403620E-1	9.617257E-1	9.468310E-1	9.396790E-1	9.358112E-1	9.342693E-1	9.915210E-1	8.946865E-1	9.751519E-1	9.349422E-1	9.251047E-1	9.605402E-1	9.133079E-1	9.466182E-1	9.621388E-1	9.407035E-1	9.911936E-1	9.786871E-1	1.001091E+0	9.434494E-1	9.733993E-1	9.485968E-1
5.425300E+2	9.400313E-1	9.009809E-1	8.923567E-1	9.943592E-1	9.284078E-1	9.163881E-1	8.809893E-1	9.452928E-1	9.784157E-1	9.879067E-1	9.532772E-1	9.437645E-1	9.349681E-1	9.583874E-1	9.405283E-1	9.485214E-1	9.337466E-1	9.543409E-1	9.282030E-1	9.216012E-1	9.200180E-1	9.664910E-1	9.362233E-1	9.461400E-1	9.804595E-1	9.769914E-1	9.840241E-1	9.600675E-1	9.327745E-1	1.006925E+0	9.318040E-1	9.640961E-1	9.798386E-1	9.795142E-1	9.492042E-1	9.655989E-1	9.266485E-1	9.699151E-1	9.293451E-1	9.316964E-1	9.480260E-1	9.293910E-1	9.348380E-1	9.390179E-1	9.632521E-1	9.371161E-1	9.937195E-1	9.372763E-1	8.871805E-1	9.502071E-1	1.012452E+0	9.203908E-1	9.297100E-1	9.440441E-1	9.370277E-1	9.392938E-1	9.957465E-1	9.721798E-1	9.438947E-1	9.586903E-1	9.517167E-1	9.729716E-1	9.798539E-1	9.601987E-1	9.832252E-1	9.536885E-1	9.231410E-1	8.916550E-1	8.787684E-1	9.505529E-1	9.592820E-1	9.443758E-1	9.160576E-1	9.352054E-1	9.207409E-1	9.241999E-1	9.931729E-1	8.944001E-1	9.371717E-1	9.308182E-1	9.713098E-1	9.791333E-1	9.600241E-1	8.888735E-1	9.309153E-1	9.267817E-1	9.194208E-1	9.154929E-1	9.399600E-1	9.378005E-1	9.541933E-1	9.131466E-1	9.261149E-1	9.215891E-1	9.295502E-1	9.235663E-1	9.014843E-1	9.552704E-1	9.204676E-1	9.054690E-1	9.320658E-1	9.190214E-1	8.995366E-1	9.451997E-1	9.221143E-1	9.358452E-1	9.489266E-1	9.394948E-1	9.411274E-1	9.956997E-1	9.042532E-1	9.245148E-1	9.114036E-1	9.547496E-1	9.006996E-1	9.523716E-1	9.305473E-1	9.337032E-1	9.285595E-1	9.247573E-1	9.383177E-1	9.294994E-1	9.001268E-1	9.245015E-1	9.261566E-1	9.680158E-1	9.419698E-1	9.294803E-1	9.548003E-1	9.906594E-1	9.673426E-1	9.327539E-1	9.613168E-1	9.511208E-1	9.215583E-1	9.454155E-1	9.460239E-1	9.625797E-1	9.567168E-1	9.355304E-1	9.245964E-1	9.323236E-1	9.545687E-1	9.347787E-1	9.619597E-1	9.481955E-1	9.788989E-1	9.001164E-1	9.349128E-1	9.661458E-1	9.379144E-1	9.613369E-1	9.257341E-1	9.583994E-1	9.391009E-1	9.119493E-1	9.170156E-1	9.139065E-1	9.527361E-1	9.368812E-1	9.093905E-1	9.124492E-1	9.184524E-1	9.490026E-1	9.280682E-1	9.327542E-1	9.098047E-1	8.895805E-1	9.075253E-1	9.753494E-1
5.427650E+2	1.098750E+0	1.014141E+0	9.812960E-1	9.687921E-1	1.008344E+0	9.969133E-1	9.771197E-1	1.011245E+0	1.006680E+0	1.039994E+0	9.787395E-1	1.023489E+0	1.006996E+0	1.024572E+0	9.876951E-1	1.043453E+0	1.050773E+0	9.941777E-1	1.017610E+0	1.045498E+0	9.535546E-1	1.034033E+0	1.014258E+0	9.977229E-1	1.050216E+0	1.057565E+0	1.004007E+0	1.029768E+0	1.075505E+0	1.019978E+0	1.012550E+0	1.033324E+0	1.040042E+0	1.038285E+0	1.062881E+0	1.046809E+0	1.030943E+0	1.022603E+0	1.038508E+0	1.004343E+0	1.009494E+0	1.037549E+0	9.817317E-1	1.028405E+0	1.026782E+0	1.039986E+0	1.015088E+0	1.023912E+0	1.004177E+0	1.075540E+0	1.026497E+0	1.019425E+0	1.068181E+0	9.748608E-1	1.032248E+0	1.010158E+0	1.036177E+0	1.081379E+0	1.067725E+0	1.047970E+0	1.062107E+0	1.044992E+0	1.000262E+0	1.057749E+0	1.048877E+0	9.932764E-1	1.020710E+0	9.848054E-1	9.902199E-1	1.030168E+0	9.884278E-1	1.022354E+0	1.014752E+0	1.074323E+0	1.048244E+0	9.529003E-1	1.040654E+0	1.016859E+0	1.029635E+0	1.014864E+0	1.022860E+0	1.043872E+0	1.015033E+0	1.024092E+0	1.046260E+0	1.041476E+0	9.878285E-1	1.007145E+0	1.040836E+0	9.817012E-1	1.041831E+0	1.066641E+0	1.005333E+0	1.006611E+0	1.037161E+0	1.018612E+0	9.787864E-1	9.651614E-1	1.015892E+0	9.870014E-1	9.886530E-1	9.937761E-1	1.058862E+0	1.074456E+0	1.062539E+0	1.009192E+0	1.038381E+0	1.074369E+0	9.917746E-1	1.028270E+0	9.783467E-1	1.004519E+0	1.001924E+0	1.010679E+0	1.004332E+0	1.057799E+0	1.023389E+0	1.040724E+0	9.875529E-1	9.935915E-1	1.019052E+0	9.923470E-1	9.999476E-1	1.035234E+0	1.023978E+0	9.867588E-1	1.023070E+0	1.022723E+0	1.053359E+0	1.041492E+0	1.012368E+0	9.721340E-1	1.051199E+0	1.061077E+0	9.848665E-1	1.028513E+0	1.050576E+0	1.063593E+0	1.003812E+0	1.018164E+0	9.863847E-1	9.952098E-1	1.040927E+0	1.050672E+0	1.036503E+0	9.924849E-1	1.012502E+0	1.013574E+0	9.832461E-1	1.005797E+0	1.030096E+0	1.008128E+0	1.013798E+0	1.010053E+0	1.058528E+0	1.025974E+0	1.001753E+0	1.018692E+0	1.036531E+0	1.033371E+0	1.055698E+0	9.479249E-1	9.621094E-1	1.007467E+0	1.023859E+0	1.042136E+0	9.732164E-1	1.063266E+0	1.019459E+0	1.077095E+0
5.430170E+2	1.196037E+0	1.128928E+0	1.095279E+0	1.123520E+0	1.127812E+0	1.125425E+0	1.136033E+0	1.134509E+0	1.151659E+0	1.171597E+0	1.143881E+0	1.123486E+0	1.155726E+0	1.165949E+0	1.174897E+0	1.156838E+0	1.141147E+0	1.168420E+0	1.135695E+0	1.137285E+0	1.108111E+0	1.090522E+0	1.118970E+0	1.146529E+0	1.225069E+0	1.121214E+0	1.220066E+0	1.158438E+0	1.157388E+0	1.142732E+0	1.197927E+0	1.191825E+0	1.185823E+0	1.195054E+0	1.152625E+0	1.206174E+0	1.172347E+0	1.159526E+0	1.138473E+0	1.147380E+0	1.152786E+0	1.180166E+0	1.124599E+0	1.183886E+0	1.139719E+0	1.162326E+0	1.165567E+0	1.172441E+0	1.112917E+0	1.188443E+0	1.118252E+0	1.147812E+0	1.186964E+0	1.143818E+0	1.172917E+0	1.184774E+0	1.194950E+0	1.147390E+0	1.170595E+0	1.140334E+0	1.130802E+0	1.155205E+0	1.151260E+0	1.149488E+0	1.216139E+0	1.117131E+0	1.178840E+0	1.141120E+0	1.133568E+0	1.185057E+0	1.165709E+0	1.171650E+0	1.105163E+0	1.095603E+0	1.182503E+0	1.195622E+0	1.142177E+0	1.144368E+0	1.122844E+0	1.151952E+0	1.164765E+0	1.172853E+0	1.168308E+0	1.133280E+0	1.127404E+0	1.151101E+0	1.142835E+0	1.135304E+0	1.127138E+0	1.105999E+0	1.124124E+0	1.108426E+0	1.146607E+0	1.154180E+0	1.092145E+0	1.130234E+0	1.177799E+0	1.194152E+0	1.154619E+0	1.148864E+0	1.174546E+0	1.123215E+0	1.187999E+0	1.128481E+0	1.176983E+0	1.173224E+0	1.143717E+0	1.196571E+0	1.168507E+0	1.173586E+0	1.145501E+0	1.161612E+0	1.164461E+0	1.143615E+0	1.140058E+0	1.139596E+0	1.158295E+0	1.162671E+0	1.155188E+0	1.139112E+0	1.185729E+0	1.114306E+0	1.125807E+0	1.119326E+0	1.215655E+0	1.118337E+0	1.142984E+0	1.111589E+0	1.123907E+0	1.154673E+0	1.128090E+0	1.133659E+0	1.202449E+0	1.152979E+0	1.119937E+0	1.156324E+0	1.129885E+0	1.155747E+0	1.160646E+0	1.165610E+0	1.152965E+0	1.164479E+0	1.158679E+0	1.141201E+0	1.149564E+0	1.136150E+0	1.122788E+0	1.128778E+0	1.122488E+0	1.131675E+0	1.144367E+0	1.127317E+0	1.117908E+0	1.151030E+0	1.108256E+0	1.189238E+0	1.142458E+0	1.153931E+0	1.135050E+0	1.172448E+0	1.129533E+0	1.163122E+0	1.144729E+0	1.153428E+0	1.127889E+0	1.159478E+0	1.161681E+0	1.091605E+0	1.162271E+0	1.134341E+0
5.432800E+2	1.335717E+0	1.305394E+0	1.245535E+0	1.231058E+0	1.299490E+0	1.321209E+0	1.262059E+0	1.276943E+0	1.316671E+0	1.342207E+0	1.280880E+0	1.272619E+0	1.271996E+0	1.263906E+0	1.276204E+0	1.342681E+0	1.304430E+0	1.315881E+0	1.277650E+0	1.266829E+0	1.298116E+0	1.234144E+0	1.296001E+0	1.265647E+0	1.334926E+0	1.323099E+0	1.314354E+0	1.304067E+0	1.390107E+0	1.317570E+0	1.311378E+0	1.334752E+0	1.297069E+0	1.314449E+0	1.331491E+0	1.239246E+0	1.352215E+0	1.331750E+0	1.293956E+0	1.290022E+0	1.269903E+0	1.274999E+0	1.268757E+0	1.319267E+0	1.345754E+0	1.298015E+0	1.320153E+0	1.310970E+0	1.257754E+0	1.333067E+0	1.340383E+0	1.329887E+0	1.308690E+0	1.301829E+0	1.253019E+0	1.292376E+0	1.258864E+0	1.336333E+0	1.331291E+0	1.293162E+0	1.320160E+0	1.314386E+0	1.304840E+0	1.325880E+0	1.335849E+0	1.305015E+0	1.255388E+0	1.250875E+0	1.301268E+0	1.277787E+0	1.317091E+0	1.246267E+0	1.280575E+0	1.288570E+0	1.268546E+0	1.291193E+0	1.297466E+0	1.281524E+0	1.313168E+0	1.343280E+0	1.338961E+0	1.267050E+0	1.293986E+0	1.218924E+0	1.331947E+0	1.322466E+0	1.201860E+0	1.291251E+0	1.269738E+0	1.315098E+0	1.315877E+0	1.296975E+0	1.250186E+0	1.323045E+0	1.259819E+0	1.289868E+0	1.263335E+0	1.320179E+0	1.255202E+0	1.270424E+0	1.313434E+0	1.284036E+0	1.303664E+0	1.250823E+0	1.306912E+0	1.278300E+0	1.308361E+0	1.313188E+0	1.268472E+0	1.273098E+0	1.263272E+0	1.278746E+0	1.285005E+0	1.317692E+0	1.252185E+0	1.300771E+0	1.278332E+0	1.241553E+0	1.314240E+0	1.273921E+0	1.348242E+0	1.272987E+0	1.307072E+0	1.253982E+0	1.272756E+0	1.252944E+0	1.273424E+0	1.267707E+0	1.323463E+0	1.309436E+0	1.235152E+0	1.272948E+0	1.339232E+0	1.292828E+0	1.231625E+0	1.278001E+0	1.340815E+0	1.336956E+0	1.265268E+0	1.322071E+0	1.283041E+0	1.266450E+0	1.305502E+0	1.307126E+0	1.267806E+0	1.248911E+0	1.241866E+0	1.268130E+0	1.317656E+0	1.314167E+0	1.272048E+0	1.263615E+0	1.256130E+0	1.296653E+0	1.279981E+0	1.245177E+0	1.298905E+0	1.273829E+0	1.290206E+0	1.333032E+0	1.302044E+0	1.275094E+0	1.274406E+0	1.268011E+0	1.264162E+0	1.261928E+0	1.286797E+0	1.311785E+0	1.269099E+0	1.354795E+0
5.435540E+2	1.493710E+0	1.413757E+0	1.431234E+0	1.428916E+0	1.443691E+0	1.442148E+0	1.438235E+0	1.447361E+0	1.454080E+0	1.456302E+0	1.446528E+0	1.452573E+0	1.477440E+0	1.430790E+0	1.437677E+0	1.451551E+0	1.450845E+0	1.510209E+0	1.453927E+0	1.478569E+0	1.433020E+0	1.456006E+0	1.431551E+0	1.480969E+0	1.497097E+0	1.416432E+0	1.372849E+0	1.413356E+0	1.476076E+0	1.480804E+0	1.416359E+0	1.489298E+0	1.426882E+0	1.450165E+0	1.455171E+0	1.487111E+0	1.450921E+0	1.480101E+0	1.423730E+0	1.442825E+0	1.431761E+0	1.448391E+0	1.406578E+0	1.478948E+0	1.476634E+0	1.461023E+0	1.464243E+0	1.456519E+0	1.391256E+0	1.427865E+0	1.434959E+0	1.437636E+0	1.399325E+0	1.449407E+0	1.417846E+0	1.445457E+0	1.405272E+0	1.432221E+0	1.444528E+0	1.437688E+0	1.429100E+0	1.445853E+0	1.490868E+0	1.422350E+0	1.459330E+0	1.396912E+0	1.433297E+0	1.417457E+0	1.396920E+0	1.484502E+0	1.484999E+0	1.423985E+0	1.401053E+0	1.429763E+0	1.455650E+0	1.430012E+0	1.413442E+0	1.450712E+0	1.459417E+0	1.452296E+0	1.392015E+0	1.431111E+0	1.435110E+0	1.399944E+0	1.443697E+0	1.446915E+0	1.397152E+0	1.418860E+0	1.436568E+0	1.417328E+0	1.415947E+0	1.450649E+0	1.452738E+0	1.405513E+0	1.404805E+0	1.403818E+0	1.400865E+0	1.443940E+0	1.386102E+0	1.423874E+0	1.443502E+0	1.425016E+0	1.419465E+0	1.407185E+0	1.415758E+0	1.383993E+0	1.418718E+0	1.521255E+0	1.455133E+0	1.441730E+0	1.463462E+0	1.423465E+0	1.427478E+0	1.446580E+0	1.397949E+0	1.457778E+0	1.448671E+0	1.408960E+0	1.410711E+0	1.420006E+0	1.454855E+0	1.395528E+0	1.376611E+0	1.471368E+0	1.456594E+0	1.416170E+0	1.429703E+0	1.402029E+0	1.412368E+0	1.432189E+0	1.415525E+0	1.460110E+0	1.511991E+0	1.399722E+0	1.393821E+0	1.367667E+0	1.453629E+0	1.408151E+0	1.439221E+0	1.463597E+0	1.421650E+0	1.440204E+0	1.463188E+0	1.401858E+0	1.402778E+0	1.411386E+0	1.424576E+0	1.447696E+0	1.384262E+0	1.423959E+0	1.464681E+0	1.420654E+0	1.386335E+0	1.423395E+0	1.408309E+0	1.418351E+0	1.408467E+0	1.410271E+0	1.456266E+0	1.440491E+0	1.402917E+0	1.416363E+0	1.397715E+0	1.387266E+0	1.416665E+0	1.413079E+0	1.389923E+0	1.424440E+0	1.501173E+0	1.403021E+0
5.437640E+2	1.505066E+0	1.416541E+0	1.524917E+0	1.498231E+0	1.575498E+0	1.515489E+0	1.466047E+0	1.485575E+0	1.538463E+0	1.535259E+0	1.543531E+0	1.525974E+0	1.514177E+0	1.494340E+0	1.473912E+0	1.565582E+0	1.504213E+0	1.530949E+0	1.510950E+0	1.494227E+0	1.478757E+0	1.492929E+0	1.450833E+0	1.552012E+0	1.566200E+0	1.452240E+0	1.530265E+0	1.564119E+0	1.481767E+0	1.499319E+0	1.490710E+0	1.545635E+0	1.494271E+0	1.476131E+0	1.517785E+0	1.506089E+0	1.499838E+0	1.473691E+0	1.422020E+0	1.478436E+0	1.508418E+0	1.521537E+0	1.449938E+0	1.520066E+0	1.488906E+0	1.506475E+0	1.514387E+0	1.513788E+0	1.486335E+0	1.504289E+0	1.472633E+0	1.512648E+0	1.497479E+0	1.516972E+0	1.520205E+0	1.497407E+0	1.517957E+0	1.543259E+0	1.512197E+0	1.520837E+0	1.491753E+0	1.497737E+0	1.532248E+0	1.500601E+0	1.584463E+0	1.554301E+0	1.523942E+0	1.531369E+0	1.488894E+0	1.521101E+0	1.500203E+0	1.509783E+0	1.463306E+0	1.494721E+0	1.517805E+0	1.567608E+0	1.526215E+0	1.492006E+0	1.423104E+0	1.506575E+0	1.475100E+0	1.464834E+0	1.555986E+0	1.504435E+0	1.508476E+0	1.511065E+0	1.441402E+0	1.446148E+0	1.493235E+0	1.453524E+0	1.480748E+0	1.508820E+0	1.502540E+0	1.526159E+0	1.509790E+0	1.505642E+0	1.488860E+0	1.470166E+0	1.500261E+0	1.512864E+0	1.491499E+0	1.425320E+0	1.511372E+0	1.531453E+0	1.540348E+0	1.490924E+0	1.537548E+0	1.474659E+0	1.516931E+0	1.480085E+0	1.457220E+0	1.488860E+0	1.486098E+0	1.495851E+0	1.446027E+0	1.532324E+0	1.476670E+0	1.506185E+0	1.480291E+0	1.461147E+0	1.512478E+0	1.476150E+0	1.460473E+0	1.462287E+0	1.535896E+0	1.470511E+0	1.505372E+0	1.464326E+0	1.477416E+0	1.499670E+0	1.530758E+0	1.535795E+0	1.555393E+0	1.514160E+0	1.500198E+0	1.436391E+0	1.532447E+0	1.483953E+0	1.502788E+0	1.471390E+0	1.455566E+0	1.451971E+0	1.485488E+0	1.488085E+0	1.537391E+0	1.474386E+0	1.455670E+0	1.505832E+0	1.420924E+0	1.438592E+0	1.505526E+0	1.516251E+0	1.468546E+0	1.476508E+0	1.459128E+0	1.478237E+0	1.506417E+0	1.457825E+0	1.470877E+0	1.478432E+0	1.473159E+0	1.470339E+0	1.492084E+0	1.519418E+0	1.500461E+0	1.477742E+0	1.398169E+0	1.521642E+0	1.496640E+0	1.437547E+0
5.440120E+2	1.638299E+0	1.551423E+0	1.614172E+0	1.557080E+0	1.601530E+0	1.587696E+0	1.507634E+0	1.593744E+0	1.589715E+0	1.586073E+0	1.575480E+0	1.535148E+0	1.586298E+0	1.580977E+0	1.568690E+0	1.616859E+0	1.534897E+0	1.621553E+0	1.609172E+0	1.514743E+0	1.606644E+0	1.545246E+0	1.512222E+0	1.627500E+0	1.549223E+0	1.556948E+0	1.526201E+0	1.558864E+0	1.508721E+0	1.555677E+0	1.617005E+0	1.570867E+0	1.469661E+0	1.538093E+0	1.542170E+0	1.594690E+0	1.540783E+0	1.592773E+0	1.520755E+0	1.554191E+0	1.588292E+0	1.589074E+0	1.511618E+0	1.527584E+0	1.604727E+0	1.564328E+0	1.583775E+0	1.588193E+0	1.521672E+0	1.553671E+0	1.499570E+0	1.604847E+0	1.538289E+0	1.575788E+0	1.517680E+0	1.553921E+0	1.530574E+0	1.597068E+0	1.577353E+0	1.559697E+0	1.561242E+0	1.560943E+0	1.583577E+0	1.576002E+0	1.589147E+0	1.519022E+0	1.630664E+0	1.503592E+0	1.568048E+0	1.595771E+0	1.546913E+0	1.547615E+0	1.529076E+0	1.587847E+0	1.575238E+0	1.527705E+0	1.538397E+0	1.500560E+0	1.546708E+0	1.591280E+0	1.553590E+0	1.546985E+0	1.555657E+0	1.532891E+0	1.524045E+0	1.529125E+0	1.507601E+0	1.552053E+0	1.577680E+0	1.516926E+0	1.564262E+0	1.560083E+0	1.556490E+0	1.510088E+0	1.542582E+0	1.587996E+0	1.541520E+0	1.521580E+0	1.574412E+0	1.565544E+0	1.574476E+0	1.450363E+0	1.551417E+0	1.544890E+0	1.548442E+0	1.509386E+0	1.543533E+0	1.565263E+0	1.537785E+0	1.536748E+0	1.519790E+0	1.513886E+0	1.494228E+0	1.581940E+0	1.535057E+0	1.565814E+0	1.517376E+0	1.561329E+0	1.565414E+0	1.529088E+0	1.531904E+0	1.518260E+0	1.518844E+0	1.596466E+0	1.520148E+0	1.538152E+0	1.511776E+0	1.535736E+0	1.559901E+0	1.551865E+0	1.555307E+0	1.499810E+0	1.561462E+0	1.509214E+0	1.500170E+0	1.524398E+0	1.551890E+0	1.524666E+0	1.549799E+0	1.507611E+0	1.546654E+0	1.499374E+0	1.578849E+0	1.579949E+0	1.532436E+0	1.520137E+0	1.565848E+0	1.543834E+0	1.517580E+0	1.561003E+0	1.558603E+0	1.525661E+0	1.508424E+0	1.499753E+0	1.540005E+0	1.562615E+0	1.544716E+0	1.512559E+0	1.567255E+0	1.615717E+0	1.576213E+0	1.493434E+0	1.557441E+0	1.513743E+0	1.575924E+0	1.581452E+0	1.518602E+0	1.492651E+0	1.486132E+0	1.552118E+0
5.442860E+2	1.606975E+0	1.571579E+0	1.626394E+0	1.505835E+0	1.608184E+0	1.586133E+0	1.612288E+0	1.557701E+0	1.555316E+0	1.631232E+0	1.553182E+0	1.583290E+0	1.574867E+0	1.569708E+0	1.554700E+0	1.604481E+0	1.549240E+0	1.537901E+0	1.615145E+0	1.596231E+0	1.557931E+0	1.554001E+0	1.551639E+0	1.542941E+0	1.605432E+0	1.531243E+0	1.553584E+0	1.559892E+0	1.581858E+0	1.554482E+0	1.620991E+0	1.585858E+0	1.542406E+0	1.596514E+0	1.524995E+0	1.580047E+0	1.570263E+0	1.544006E+0	1.543706E+0	1.524559E+0	1.606882E+0	1.603332E+0	1.563721E+0	1.606781E+0	1.513430E+0	1.523084E+0	1.563045E+0	1.574851E+0	1.498746E+0	1.583631E+0	1.592619E+0	1.574950E+0	1.559672E+0	1.540153E+0	1.532734E+0	1.622845E+0	1.613263E+0	1.532615E+0	1.574668E+0	1.570515E+0	1.579770E+0	1.574253E+0	1.559897E+0	1.560395E+0	1.582716E+0	1.565524E+0	1.663476E+0	1.538620E+0	1.548660E+0	1.601496E+0	1.546694E+0	1.523131E+0	1.573546E+0	1.528059E+0	1.584328E+0	1.558078E+0	1.585930E+0	1.538233E+0	1.578264E+0	1.569138E+0	1.568138E+0	1.553966E+0	1.527044E+0	1.530732E+0	1.545716E+0	1.552345E+0	1.519245E+0	1.545510E+0	1.598406E+0	1.571041E+0	1.575329E+0	1.600016E+0	1.572947E+0	1.512612E+0	1.549861E+0	1.518533E+0	1.502007E+0	1.555471E+0	1.582828E+0	1.535208E+0	1.538124E+0	1.524861E+0	1.574426E+0	1.564538E+0	1.591282E+0	1.589408E+0	1.597311E+0	1.516156E+0	1.530713E+0	1.546149E+0	1.535554E+0	1.524988E+0	1.510813E+0	1.536909E+0	1.494506E+0	1.582319E+0	1.572954E+0	1.583940E+0	1.527497E+0	1.502871E+0	1.560486E+0	1.524339E+0	1.520848E+0	1.604218E+0	1.506246E+0	1.494926E+0	1.534964E+0	1.537911E+0	1.516924E+0	1.574330E+0	1.561381E+0	1.527246E+0	1.560577E+0	1.536947E+0	1.565497E+0	1.507000E+0	1.585462E+0	1.558506E+0	1.526232E+0	1.509771E+0	1.560888E+0	1.547236E+0	1.614015E+0	1.515194E+0	1.595512E+0	1.597276E+0	1.572282E+0	1.518875E+0	1.494553E+0	1.561688E+0	1.543853E+0	1.541622E+0	1.558418E+0	1.535029E+0	1.531402E+0	1.534405E+0	1.545900E+0	1.497936E+0	1.548369E+0	1.544062E+0	1.503032E+0	1.499885E+0	1.549525E+0	1.542925E+0	1.553933E+0	1.589767E+0	1.521617E+0	1.510673E+0	1.566437E+0	1.625870E+0
5.445290E+2	1.575384E+0	1.520558E+0	1.552475E+0	1.515090E+0	1.600540E+0	1.565965E+0	1.498914E+0	1.572963E+0	1.553191E+0	1.501058E+0	1.547404E+0	1.574105E+0	1.537263E+0	1.550643E+0	1.575040E+0	1.603246E+0	1.528057E+0	1.556975E+0	1.486636E+0	1.559279E+0	1.551170E+0	1.576410E+0	1.517691E+0	1.567493E+0	1.531721E+0	1.559978E+0	1.523610E+0	1.544735E+0	1.495903E+0	1.553865E+0	1.535274E+0	1.607711E+0	1.527945E+0	1.486711E+0	1.530862E+0	1.577081E+0	1.535061E+0	1.555822E+0	1.523417E+0	1.480460E+0	1.531752E+0	1.552074E+0	1.516233E+0	1.546600E+0	1.504488E+0	1.536122E+0	1.527044E+0	1.465760E+0	1.497902E+0	1.553860E+0	1.522370E+0	1.581006E+0	1.546788E+0	1.554203E+0	1.491871E+0	1.543758E+0	1.580620E+0	1.454732E+0	1.554141E+0	1.603529E+0	1.526660E+0	1.523210E+0	1.544902E+0	1.510710E+0	1.566402E+0	1.476862E+0	1.547788E+0	1.562233E+0	1.535367E+0	1.525338E+0	1.536147E+0	1.555112E+0	1.487954E+0	1.503091E+0	1.524133E+0	1.551001E+0	1.539988E+0	1.539631E+0	1.522984E+0	1.550316E+0	1.542028E+0	1.530867E+0	1.562080E+0	1.477191E+0	1.582892E+0	1.517582E+0	1.486574E+0	1.509825E+0	1.512056E+0	1.483880E+0	1.512330E+0	1.568665E+0	1.523380E+0	1.532483E+0	1.592463E+0	1.559663E+0	1.535918E+0	1.545970E+0	1.525865E+0	1.500510E+0	1.528948E+0	1.514614E+0	1.536137E+0	1.559244E+0	1.567756E+0	1.478285E+0	1.531680E+0	1.528333E+0	1.533861E+0	1.532582E+0	1.540862E+0	1.543418E+0	1.499481E+0	1.544206E+0	1.510133E+0	1.489138E+0	1.502981E+0	1.574720E+0	1.580528E+0	1.522059E+0	1.513478E+0	1.489379E+0	1.521451E+0	1.559360E+0	1.513169E+0	1.534128E+0	1.516874E+0	1.508103E+0	1.543354E+0	1.571891E+0	1.571277E+0	1.473565E+0	1.492941E+0	1.493124E+0	1.506796E+0	1.539315E+0	1.577600E+0	1.522350E+0	1.488312E+0	1.565321E+0	1.467679E+0	1.498117E+0	1.598040E+0	1.525592E+0	1.553206E+0	1.487283E+0	1.455474E+0	1.517545E+0	1.522090E+0	1.538943E+0	1.489379E+0	1.510042E+0	1.487281E+0	1.522681E+0	1.579492E+0	1.546199E+0	1.542533E+0	1.450806E+0	1.528910E+0	1.529464E+0	1.497777E+0	1.502071E+0	1.562535E+0	1.572856E+0	1.542043E+0	1.537306E+0	1.481327E+0	1.468970E+0	1.546051E+0	1.534909E+0
5.447660E+2	1.569112E+0	1.438748E+0	1.479868E+0	1.401993E+0	1.437643E+0	1.463506E+0	1.406926E+0	1.466252E+0	1.415133E+0	1.443826E+0	1.474386E+0	1.484612E+0	1.425160E+0	1.417723E+0	1.450674E+0	1.503078E+0	1.471996E+0	1.473640E+0	1.467523E+0	1.460630E+0	1.456448E+0	1.427170E+0	1.480798E+0	1.451059E+0	1.448141E+0	1.417207E+0	1.419237E+0	1.460543E+0	1.429026E+0	1.439387E+0	1.432816E+0	1.442794E+0	1.439445E+0	1.438946E+0	1.449430E+0	1.500653E+0	1.436351E+0	1.434383E+0	1.451161E+0	1.444645E+0	1.406283E+0	1.452453E+0	1.379454E+0	1.444951E+0	1.437348E+0	1.505698E+0	1.432728E+0	1.476013E+0	1.439515E+0	1.464332E+0	1.448405E+0	1.428292E+0	1.428102E+0	1.447736E+0	1.391035E+0	1.434536E+0	1.446625E+0	1.469960E+0	1.398617E+0	1.468589E+0	1.447265E+0	1.410152E+0	1.430708E+0	1.438266E+0	1.539315E+0	1.422849E+0	1.465098E+0	1.385926E+0	1.413720E+0	1.467433E+0	1.472783E+0	1.403381E+0	1.458003E+0	1.443995E+0	1.481279E+0	1.481835E+0	1.458600E+0	1.422802E+0	1.374155E+0	1.403919E+0	1.470474E+0	1.438625E+0	1.481046E+0	1.511137E+0	1.440076E+0	1.489525E+0	1.421938E+0	1.464187E+0	1.460070E+0	1.434648E+0	1.408628E+0	1.456894E+0	1.403967E+0	1.430404E+0	1.452903E+0	1.480673E+0	1.423702E+0	1.471952E+0	1.421470E+0	1.392179E+0	1.434311E+0	1.434188E+0	1.442825E+0	1.388041E+0	1.418048E+0	1.478464E+0	1.448250E+0	1.453990E+0	1.447096E+0	1.413829E+0	1.405957E+0	1.461573E+0	1.491285E+0	1.443382E+0	1.388906E+0	1.433193E+0	1.428531E+0	1.435337E+0	1.401006E+0	1.394243E+0	1.463704E+0	1.348235E+0	1.433458E+0	1.475588E+0	1.376986E+0	1.418684E+0	1.445766E+0	1.428746E+0	1.452946E+0	1.420822E+0	1.464746E+0	1.408074E+0	1.438442E+0	1.424186E+0	1.434085E+0	1.392245E+0	1.487195E+0	1.406700E+0	1.474931E+0	1.395185E+0	1.437268E+0	1.452807E+0	1.480412E+0	1.481595E+0	1.434537E+0	1.436224E+0	1.441107E+0	1.404729E+0	1.422085E+0	1.419248E+0	1.491793E+0	1.414120E+0	1.385619E+0	1.463858E+0	1.413282E+0	1.453844E+0	1.418499E+0	1.382545E+0	1.447747E+0	1.428285E+0	1.401606E+0	1.450236E+0	1.467009E+0	1.434882E+0	1.427347E+0	1.417285E+0	1.401855E+0	1.376814E+0	1.461663E+0	1.385859E+0
5.450200E+2	1.439666E+0	1.314160E+0	1.345380E+0	1.357303E+0	1.359059E+0	1.446001E+0	1.333824E+0	1.394864E+0	1.334638E+0	1.371678E+0	1.320603E+0	1.384391E+0	1.394231E+0	1.383442E+0	1.408384E+0	1.364999E+0	1.349242E+0	1.336266E+0	1.359356E+0	1.419654E+0	1.353078E+0	1.345382E+0	1.341274E+0	1.354932E+0	1.356012E+0	1.366881E+0	1.357186E+0	1.365747E+0	1.315749E+0	1.365591E+0	1.435931E+0	1.377725E+0	1.359127E+0	1.352943E+0	1.390894E+0	1.373269E+0	1.322699E+0	1.356163E+0	1.319672E+0	1.363810E+0	1.342611E+0	1.371495E+0	1.299595E+0	1.342864E+0	1.324233E+0	1.308801E+0	1.351375E+0	1.388237E+0	1.326208E+0	1.388664E+0	1.366364E+0	1.353777E+0	1.326089E+0	1.334670E+0	1.311216E+0	1.331499E+0	1.362504E+0	1.356486E+0	1.413561E+0	1.385251E+0	1.330739E+0	1.339581E+0	1.315517E+0	1.352210E+0	1.399532E+0	1.339833E+0	1.327306E+0	1.349720E+0	1.315314E+0	1.453246E+0	1.320636E+0	1.314589E+0	1.325321E+0	1.329239E+0	1.328441E+0	1.338488E+0	1.309039E+0	1.364114E+0	1.303484E+0	1.323676E+0	1.313297E+0	1.378005E+0	1.295890E+0	1.351554E+0	1.349348E+0	1.335139E+0	1.337142E+0	1.337984E+0	1.366914E+0	1.348594E+0	1.344696E+0	1.385176E+0	1.349406E+0	1.381966E+0	1.316956E+0	1.376471E+0	1.282065E+0	1.329987E+0	1.360721E+0	1.340855E+0	1.381561E+0	1.356900E+0	1.384437E+0	1.334788E+0	1.327427E+0	1.325038E+0	1.304850E+0	1.387715E+0	1.309303E+0	1.338984E+0	1.345619E+0	1.316767E+0	1.391097E+0	1.351277E+0	1.334576E+0	1.399481E+0	1.373949E+0	1.331783E+0	1.326637E+0	1.347771E+0	1.324014E+0	1.312389E+0	1.368402E+0	1.374510E+0	1.273640E+0	1.295293E+0	1.346376E+0	1.377626E+0	1.327156E+0	1.332723E+0	1.388768E+0	1.384840E+0	1.370277E+0	1.371761E+0	1.315896E+0	1.297206E+0	1.396062E+0	1.324790E+0	1.375278E+0	1.309755E+0	1.347592E+0	1.311669E+0	1.317011E+0	1.360223E+0	1.380551E+0	1.344822E+0	1.336968E+0	1.298010E+0	1.331471E+0	1.375331E+0	1.364904E+0	1.336766E+0	1.313524E+0	1.347115E+0	1.338962E+0	1.372981E+0	1.372295E+0	1.373293E+0	1.383218E+0	1.342408E+0	1.373947E+0	1.327648E+0	1.418744E+0	1.323220E+0	1.386430E+0	1.358050E+0	1.353337E+0	1.417722E+0	1.292688E+0	1.230069E+0
5.452740E+2	1.335161E+0	1.243364E+0	1.240848E+0	1.261218E+0	1.294055E+0	1.297892E+0	1.244344E+0	1.280811E+0	1.241103E+0	1.311332E+0	1.237416E+0	1.286234E+0	1.291177E+0	1.355624E+0	1.292755E+0	1.328941E+0	1.294767E+0	1.341665E+0	1.326099E+0	1.257446E+0	1.268062E+0	1.283642E+0	1.265973E+0	1.263858E+0	1.246359E+0	1.299024E+0	1.218608E+0	1.283653E+0	1.282259E+0	1.247041E+0	1.293469E+0	1.289577E+0	1.268715E+0	1.256791E+0	1.225391E+0	1.253191E+0	1.247848E+0	1.246973E+0	1.222571E+0	1.254127E+0	1.256813E+0	1.236544E+0	1.284422E+0	1.279125E+0	1.282687E+0	1.286880E+0	1.282528E+0	1.277501E+0	1.246672E+0	1.298823E+0	1.279476E+0	1.308020E+0	1.282155E+0	1.241333E+0	1.209947E+0	1.286724E+0	1.262973E+0	1.272440E+0	1.306790E+0	1.316776E+0	1.263677E+0	1.248946E+0	1.275707E+0	1.297700E+0	1.253750E+0	1.285031E+0	1.248662E+0	1.321416E+0	1.286521E+0	1.280362E+0	1.290653E+0	1.266128E+0	1.232489E+0	1.241181E+0	1.242523E+0	1.303024E+0	1.296405E+0	1.269485E+0	1.253212E+0	1.245691E+0	1.265399E+0	1.334807E+0	1.270941E+0	1.237405E+0	1.290087E+0	1.266379E+0	1.274138E+0	1.260676E+0	1.295866E+0	1.271037E+0	1.243403E+0	1.292947E+0	1.198113E+0	1.258210E+0	1.258707E+0	1.259040E+0	1.268198E+0	1.246732E+0	1.308642E+0	1.233938E+0	1.292849E+0	1.236582E+0	1.339880E+0	1.209575E+0	1.257418E+0	1.261134E+0	1.261866E+0	1.270740E+0	1.271634E+0	1.264439E+0	1.263417E+0	1.281790E+0	1.257058E+0	1.220781E+0	1.224151E+0	1.271421E+0	1.257199E+0	1.235077E+0	1.254270E+0	1.251526E+0	1.308487E+0	1.239312E+0	1.193337E+0	1.277620E+0	1.238750E+0	1.266641E+0	1.282064E+0	1.210764E+0	1.275200E+0	1.261456E+0	1.243873E+0	1.291619E+0	1.275237E+0	1.287518E+0	1.230085E+0	1.245923E+0	1.302552E+0	1.271084E+0	1.255803E+0	1.220131E+0	1.263843E+0	1.240981E+0	1.294361E+0	1.300746E+0	1.276917E+0	1.242064E+0	1.211706E+0	1.277349E+0	1.259574E+0	1.262411E+0	1.279367E+0	1.249485E+0	1.244001E+0	1.292288E+0	1.264604E+0	1.296180E+0	1.227950E+0	1.241018E+0	1.259877E+0	1.305333E+0	1.281443E+0	1.208900E+0	1.228019E+0	1.262946E+0	1.272256E+0	1.247006E+0	1.223080E+0	1.242083E+0	1.252425E+0	1.314257E+0
5.455290E+2	1.246220E+0	1.241675E+0	1.226533E+0	1.205601E+0	1.243103E+0	1.212898E+0	1.202680E+0	1.267513E+0	1.266333E+0	1.234200E+0	1.193083E+0	1.232220E+0	1.243142E+0	1.236638E+0	1.187043E+0	1.270297E+0	1.199718E+0	1.247143E+0	1.232679E+0	1.216849E+0	1.197909E+0	1.213526E+0	1.214175E+0	1.226628E+0	1.237783E+0	1.204457E+0	1.236474E+0	1.220290E+0	1.214153E+0	1.255709E+0	1.275614E+0	1.217913E+0	1.233448E+0	1.232074E+0	1.196909E+0	1.201608E+0	1.245913E+0	1.224983E+0	1.172311E+0	1.199645E+0	1.221941E+0	1.268838E+0	1.209430E+0	1.196794E+0	1.205126E+0	1.259655E+0	1.226280E+0	1.235462E+0	1.186192E+0	1.185741E+0	1.227348E+0	1.207536E+0	1.235969E+0	1.205980E+0	1.204336E+0	1.228457E+0	1.188246E+0	1.209019E+0	1.216484E+0	1.287870E+0	1.253409E+0	1.291439E+0	1.254112E+0	1.222140E+0	1.244219E+0	1.155727E+0	1.212907E+0	1.222516E+0	1.213217E+0	1.228729E+0	1.206578E+0	1.237207E+0	1.240838E+0	1.222404E+0	1.199446E+0	1.240083E+0	1.220725E+0	1.183072E+0	1.244889E+0	1.284964E+0	1.205504E+0	1.224996E+0	1.229522E+0	1.220160E+0	1.191646E+0	1.201385E+0	1.197535E+0	1.176698E+0	1.204808E+0	1.197625E+0	1.223864E+0	1.247558E+0	1.202765E+0	1.209254E+0	1.215628E+0	1.273327E+0	1.218763E+0	1.236051E+0	1.198722E+0	1.237767E+0	1.259076E+0	1.170937E+0	1.209967E+0	1.195234E+0	1.207422E+0	1.210772E+0	1.203386E+0	1.249356E+0	1.238501E+0	1.162737E+0	1.222084E+0	1.210341E+0	1.167487E+0	1.225595E+0	1.192579E+0	1.223326E+0	1.256043E+0	1.222419E+0	1.183239E+0	1.254580E+0	1.256834E+0	1.220861E+0	1.178997E+0	1.222544E+0	1.232272E+0	1.223007E+0	1.207255E+0	1.241156E+0	1.246601E+0	1.200000E+0	1.224371E+0	1.251895E+0	1.253638E+0	1.232429E+0	1.230539E+0	1.230618E+0	1.244619E+0	1.239696E+0	1.170753E+0	1.221383E+0	1.193608E+0	1.204561E+0	1.208850E+0	1.254599E+0	1.239901E+0	1.193470E+0	1.183537E+0	1.218668E+0	1.202556E+0	1.236927E+0	1.221463E+0	1.173687E+0	1.235193E+0	1.203859E+0	1.188644E+0	1.188773E+0	1.185576E+0	1.202088E+0	1.197322E+0	1.199636E+0	1.222136E+0	1.208682E+0	1.250351E+0	1.193329E+0	1.177480E+0	1.206070E+0	1.157251E+0	1.256338E+0	1.208387E+0	1.240688E+0
5.457990E+2	1.273380E+0	1.163613E+0	1.181349E+0	1.166908E+0	1.200554E+0	1.212391E+0	1.150717E+0	1.204321E+0	1.190302E+0	1.236666E+0	1.168673E+0	1.249397E+0	1.193941E+0	1.197380E+0	1.217606E+0	1.226206E+0	1.188758E+0	1.163276E+0	1.219311E+0	1.175448E+0	1.156277E+0	1.209135E+0	1.143993E+0	1.185868E+0	1.220451E+0	1.159225E+0	1.207850E+0	1.204227E+0	1.211571E+0	1.254611E+0	1.181300E+0	1.206240E+0	1.202086E+0	1.160310E+0	1.243000E+0	1.189227E+0	1.211469E+0	1.175526E+0	1.147416E+0	1.164491E+0	1.193066E+0	1.239640E+0	1.154204E+0	1.217531E+0	1.139408E+0	1.204478E+0	1.178940E+0	1.231943E+0	1.211218E+0	1.182952E+0	1.190901E+0	1.224110E+0	1.192897E+0	1.180609E+0	1.191161E+0	1.211095E+0	1.224098E+0	1.270791E+0	1.185496E+0	1.257478E+0	1.256594E+0	1.164385E+0	1.216969E+0	1.213663E+0	1.218698E+0	1.145697E+0	1.192086E+0	1.162901E+0	1.240896E+0	1.210518E+0	1.209605E+0	1.143821E+0	1.196942E+0	1.190202E+0	1.168792E+0	1.187040E+0	1.210600E+0	1.221869E+0	1.210996E+0	1.176900E+0	1.191682E+0	1.186456E+0	1.229723E+0	1.251708E+0	1.207579E+0	1.200412E+0	1.164316E+0	1.147076E+0	1.195059E+0	1.204423E+0	1.171098E+0	1.212511E+0	1.210020E+0	1.187851E+0	1.193053E+0	1.183276E+0	1.222432E+0	1.185630E+0	1.141065E+0	1.160841E+0	1.186814E+0	1.158698E+0	1.134649E+0	1.194736E+0	1.194789E+0	1.183545E+0	1.172012E+0	1.178046E+0	1.219356E+0	1.194454E+0	1.170122E+0	1.182322E+0	1.158603E+0	1.207112E+0	1.123384E+0	1.174085E+0	1.175097E+0	1.239452E+0	1.139810E+0	1.210903E+0	1.180872E+0	1.152105E+0	1.197855E+0	1.231563E+0	1.243909E+0	1.165709E+0	1.202039E+0	1.167195E+0	1.223842E+0	1.158164E+0	1.220308E+0	1.193380E+0	1.181732E+0	1.190809E+0	1.217026E+0	1.197458E+0	1.194907E+0	1.185514E+0	1.205460E+0	1.172802E+0	1.135730E+0	1.155634E+0	1.209984E+0	1.228002E+0	1.209004E+0	1.172444E+0	1.208805E+0	1.211621E+0	1.172918E+0	1.222419E+0	1.157572E+0	1.232595E+0	1.198502E+0	1.177767E+0	1.184785E+0	1.173161E+0	1.193084E+0	1.149268E+0	1.220470E+0	1.143965E+0	1.187622E+0	1.149811E+0	1.148361E+0	1.169345E+0	1.236020E+0	1.163664E+0	1.181279E+0	1.186739E+0	1.259897E+0	1.213379E+0
5.460060E+2	1.188157E+0	1.225301E+0	1.194164E+0	1.166841E+0	1.204671E+0	1.170963E+0	1.106245E+0	1.199070E+0	1.213484E+0	1.147171E+0	1.180926E+0	1.221459E+0	1.204979E+0	1.169119E+0	1.176115E+0	1.186065E+0	1.151535E+0	1.161702E+0	1.186731E+0	1.223422E+0	1.159493E+0	1.186846E+0	1.207588E+0	1.188361E+0	1.221357E+0	1.208032E+0	1.196420E+0	1.240839E+0	1.192176E+0	1.216537E+0	1.214661E+0	1.205473E+0	1.146739E+0	1.179751E+0	1.183780E+0	1.242177E+0	1.212755E+0	1.222087E+0	1.163107E+0	1.185022E+0	1.158516E+0	1.204814E+0	1.141327E+0	1.204313E+0	1.198199E+0	1.148668E+0	1.128459E+0	1.167674E+0	1.142531E+0	1.184913E+0	1.173619E+0	1.238904E+0	1.215419E+0	1.213707E+0	1.162223E+0	1.200618E+0	1.209702E+0	1.144752E+0	1.200642E+0	1.183195E+0	1.201319E+0	1.162280E+0	1.201440E+0	1.196332E+0	1.189098E+0	1.157932E+0	1.188806E+0	1.160415E+0	1.144172E+0	1.157027E+0	1.174705E+0	1.156806E+0	1.183975E+0	1.163852E+0	1.142172E+0	1.136622E+0	1.174631E+0	1.192048E+0	1.161759E+0	1.173898E+0	1.196703E+0	1.184079E+0	1.205104E+0	1.173104E+0	1.247464E+0	1.193937E+0	1.151566E+0	1.178831E+0	1.194439E+0	1.169236E+0	1.173825E+0	1.216068E+0	1.152880E+0	1.173410E+0	1.206292E+0	1.238498E+0	1.135868E+0	1.249651E+0	1.184005E+0	1.174017E+0	1.157601E+0	1.175299E+0	1.144882E+0	1.181882E+0	1.217142E+0	1.181951E+0	1.173107E+0	1.173340E+0	1.176309E+0	1.164169E+0	1.162444E+0	1.196122E+0	1.189843E+0	1.159776E+0	1.108719E+0	1.174662E+0	1.157685E+0	1.169207E+0	1.166661E+0	1.135528E+0	1.177886E+0	1.163657E+0	1.114369E+0	1.180638E+0	1.172189E+0	1.170782E+0	1.130275E+0	1.180474E+0	1.170054E+0	1.213574E+0	1.178240E+0	1.162218E+0	1.198754E+0	1.150324E+0	1.160212E+0	1.127085E+0	1.183038E+0	1.165629E+0	1.184517E+0	1.204920E+0	1.195172E+0	1.135492E+0	1.140180E+0	1.215552E+0	1.172979E+0	1.198800E+0	1.185121E+0	1.219439E+0	1.151732E+0	1.190859E+0	1.089292E+0	1.181154E+0	1.172719E+0	1.165157E+0	1.129819E+0	1.181164E+0	1.177470E+0	1.120080E+0	1.192642E+0	1.263394E+0	1.202095E+0	1.188794E+0	1.189502E+0	1.186075E+0	1.167480E+0	1.139257E+0	1.181633E+0	1.191471E+0	1.235186E+0	1.222047E+0
5.467710E+2	1.270440E+0	1.167887E+0	1.209997E+0	1.213540E+0	1.284263E+0	1.222945E+0	1.240804E+0	1.235317E+0	1.218339E+0	1.260723E+0	1.244254E+0	1.254683E+0	1.247799E+0	1.250940E+0	1.241107E+0	1.246619E+0	1.200514E+0	1.291956E+0	1.246962E+0	1.232704E+0	1.217922E+0	1.229964E+0	1.188501E+0	1.218508E+0	1.240141E+0	1.222869E+0	1.243184E+0	1.173942E+0	1.243486E+0	1.260562E+0	1.224782E+0	1.286914E+0	1.229805E+0	1.263546E+0	1.238757E+0	1.281914E+0	1.248654E+0	1.264580E+0	1.211979E+0	1.267691E+0	1.258003E+0	1.219858E+0	1.220803E+0	1.235677E+0	1.245912E+0	1.241970E+0	1.237241E+0	1.261560E+0	1.227035E+0	1.270273E+0	1.222451E+0	1.260162E+0	1.199802E+0	1.266692E+0	1.222110E+0	1.277158E+0	1.235085E+0	1.214975E+0	1.221971E+0	1.256775E+0	1.239985E+0	1.263152E+0	1.206406E+0	1.276444E+0	1.236190E+0	1.187706E+0	1.182766E+0	1.229519E+0	1.252924E+0	1.259461E+0	1.206473E+0	1.242796E+0	1.264855E+0	1.189098E+0	1.205132E+0	1.208787E+0	1.224481E+0	1.182327E+0	1.243051E+0	1.221149E+0	1.193723E+0	1.271022E+0	1.222218E+0	1.245178E+0	1.338087E+0	1.232321E+0	1.185473E+0	1.203625E+0	1.245176E+0	1.196658E+0	1.232167E+0	1.279249E+0	1.229054E+0	1.196678E+0	1.201287E+0	1.200145E+0	1.250773E+0	1.231328E+0	1.229842E+0	1.205597E+0	1.242453E+0	1.252116E+0	1.227892E+0	1.213826E+0	1.247633E+0	1.263314E+0	1.273320E+0	1.243386E+0	1.227549E+0	1.207792E+0	1.139567E+0	1.169361E+0	1.208157E+0	1.242347E+0	1.196682E+0	1.206776E+0	1.240452E+0	1.256782E+0	1.232697E+0	1.206703E+0	1.295292E+0	1.200360E+0	1.169536E+0	1.254380E+0	1.216304E+0	1.209114E+0	1.237489E+0	1.220217E+0	1.259639E+0	1.250025E+0	1.220979E+0	1.162483E+0	1.272695E+0	1.245165E+0	1.232802E+0	1.243910E+0	1.246172E+0	1.216756E+0	1.211958E+0	1.215043E+0	1.264724E+0	1.250358E+0	1.225306E+0	1.226057E+0	1.204173E+0	1.178978E+0	1.185026E+0	1.217156E+0	1.251233E+0	1.258322E+0	1.213617E+0	1.243920E+0	1.271065E+0	1.250132E+0	1.209927E+0	1.253681E+0	1.247657E+0	1.258109E+0	1.215192E+0	1.244024E+0	1.214970E+0	1.245937E+0	1.217669E+0	1.203033E+0	1.278884E+0	1.182672E+0	1.188096E+0	1.248413E+0	1.237778E+0	1.246647E+0
5.475120E+2	1.413846E+0	1.252641E+0	1.369177E+0	1.326511E+0	1.371335E+0	1.317680E+0	1.379674E+0	1.302201E+0	1.278621E+0	1.313371E+0	1.282696E+0	1.322500E+0	1.323471E+0	1.313315E+0	1.346212E+0	1.308011E+0	1.294796E+0	1.338076E+0	1.320611E+0	1.306451E+0	1.299710E+0	1.345690E+0	1.277714E+0	1.328221E+0	1.349720E+0	1.302056E+0	1.338288E+0	1.354009E+0	1.380387E+0	1.303717E+0	1.320068E+0	1.350234E+0	1.378122E+0	1.342341E+0	1.399390E+0	1.357413E+0	1.314215E+0	1.396706E+0	1.362999E+0	1.290429E+0	1.338243E+0	1.323963E+0	1.317424E+0	1.317008E+0	1.318738E+0	1.328178E+0	1.309466E+0	1.328452E+0	1.266721E+0	1.365308E+0	1.311434E+0	1.311007E+0	1.332853E+0	1.300184E+0	1.314801E+0	1.337357E+0	1.331305E+0	1.334584E+0	1.341934E+0	1.398948E+0	1.345198E+0	1.325565E+0	1.382512E+0	1.333387E+0	1.378212E+0	1.320198E+0	1.321456E+0	1.323535E+0	1.335162E+0	1.289782E+0	1.314403E+0	1.297124E+0	1.347684E+0	1.313645E+0	1.301498E+0	1.368523E+0	1.361009E+0	1.288443E+0	1.256478E+0	1.374113E+0	1.315460E+0	1.351048E+0	1.363727E+0	1.321195E+0	1.342909E+0	1.328607E+0	1.274236E+0	1.317855E+0	1.327427E+0	1.274156E+0	1.337568E+0	1.354637E+0	1.293306E+0	1.370927E+0	1.317902E+0	1.357228E+0	1.299422E+0	1.360471E+0	1.359007E+0	1.294299E+0	1.337015E+0	1.234193E+0	1.343589E+0	1.334788E+0	1.369647E+0	1.306283E+0	1.371656E+0	1.296214E+0	1.292781E+0	1.328993E+0	1.314148E+0	1.321474E+0	1.331946E+0	1.281562E+0	1.352401E+0	1.352520E+0	1.348962E+0	1.320568E+0	1.324229E+0	1.362917E+0	1.402237E+0	1.296281E+0	1.290286E+0	1.295370E+0	1.332119E+0	1.344341E+0	1.318099E+0	1.306743E+0	1.308935E+0	1.365694E+0	1.284955E+0	1.309133E+0	1.333700E+0	1.282961E+0	1.290528E+0	1.323838E+0	1.355904E+0	1.304547E+0	1.341884E+0	1.250856E+0	1.344565E+0	1.350290E+0	1.302220E+0	1.404325E+0	1.330307E+0	1.268397E+0	1.289584E+0	1.323825E+0	1.325084E+0	1.343313E+0	1.318670E+0	1.285782E+0	1.286461E+0	1.312576E+0	1.305688E+0	1.330008E+0	1.321706E+0	1.326868E+0	1.296305E+0	1.350258E+0	1.264009E+0	1.345554E+0	1.296055E+0	1.278297E+0	1.352815E+0	1.293540E+0	1.235367E+0	1.294359E+0	1.352847E+0	1.280677E+0
5.482600E+2	1.451284E+0	1.342581E+0	1.375834E+0	1.368401E+0	1.468739E+0	1.344979E+0	1.354020E+0	1.421809E+0	1.416082E+0	1.386241E+0	1.393571E+0	1.347857E+0	1.404516E+0	1.446689E+0	1.447084E+0	1.449985E+0	1.423015E+0	1.364585E+0	1.383811E+0	1.381137E+0	1.398865E+0	1.391856E+0	1.421156E+0	1.406771E+0	1.382147E+0	1.429041E+0	1.371520E+0	1.378402E+0	1.469552E+0	1.413891E+0	1.327217E+0	1.381367E+0	1.367783E+0	1.378453E+0	1.433917E+0	1.381570E+0	1.377500E+0	1.434824E+0	1.364669E+0	1.351461E+0	1.351300E+0	1.461731E+0	1.363970E+0	1.327413E+0	1.383475E+0	1.372937E+0	1.395371E+0	1.358695E+0	1.377506E+0	1.448197E+0	1.406189E+0	1.399252E+0	1.333448E+0	1.437192E+0	1.348602E+0	1.439546E+0	1.470200E+0	1.383260E+0	1.368484E+0	1.428200E+0	1.447621E+0	1.437939E+0	1.453772E+0	1.372393E+0	1.406158E+0	1.416658E+0	1.428892E+0	1.360195E+0	1.405377E+0	1.403118E+0	1.404402E+0	1.393096E+0	1.355680E+0	1.380861E+0	1.405436E+0	1.408294E+0	1.388462E+0	1.387006E+0	1.349250E+0	1.397127E+0	1.409750E+0	1.428695E+0	1.411065E+0	1.354589E+0	1.477261E+0	1.419535E+0	1.387085E+0	1.323119E+0	1.401426E+0	1.339282E+0	1.414404E+0	1.412424E+0	1.415531E+0	1.404095E+0	1.391897E+0	1.419059E+0	1.359229E+0	1.400941E+0	1.407676E+0	1.349258E+0	1.375028E+0	1.388486E+0	1.372321E+0	1.351823E+0	1.392077E+0	1.395300E+0	1.392080E+0	1.377423E+0	1.422438E+0	1.354621E+0	1.350960E+0	1.381118E+0	1.390615E+0	1.381433E+0	1.419325E+0	1.458790E+0	1.414713E+0	1.422752E+0	1.410760E+0	1.371426E+0	1.399201E+0	1.371259E+0	1.391617E+0	1.398219E+0	1.374486E+0	1.360777E+0	1.388333E+0	1.342551E+0	1.389607E+0	1.423029E+0	1.400974E+0	1.386541E+0	1.377374E+0	1.442679E+0	1.360255E+0	1.352748E+0	1.402326E+0	1.383235E+0	1.370172E+0	1.388817E+0	1.385474E+0	1.373989E+0	1.395257E+0	1.410112E+0	1.399158E+0	1.399124E+0	1.359701E+0	1.390311E+0	1.355524E+0	1.426727E+0	1.342416E+0	1.354508E+0	1.394291E+0	1.385528E+0	1.411749E+0	1.420790E+0	1.396122E+0	1.391262E+0	1.373280E+0	1.373709E+0	1.399823E+0	1.391961E+0	1.356125E+0	1.408878E+0	1.385185E+0	1.424436E+0	1.369982E+0	1.342810E+0	1.394963E+0	1.493195E+0
5.490490E+2	1.462636E+0	1.367228E+0	1.398029E+0	1.337937E+0	1.403797E+0	1.386357E+0	1.385412E+0	1.395707E+0	1.385540E+0	1.371667E+0	1.394623E+0	1.412421E+0	1.400915E+0	1.405007E+0	1.423139E+0	1.403362E+0	1.383422E+0	1.366138E+0	1.407773E+0	1.428813E+0	1.337298E+0	1.403145E+0	1.356220E+0	1.406781E+0	1.422559E+0	1.385087E+0	1.376857E+0	1.390115E+0	1.415730E+0	1.424603E+0	1.357447E+0	1.372776E+0	1.376112E+0	1.346641E+0	1.403812E+0	1.348405E+0	1.432165E+0	1.409436E+0	1.385469E+0	1.337052E+0	1.384371E+0	1.427406E+0	1.333082E+0	1.391607E+0	1.375184E+0	1.437886E+0	1.352897E+0	1.354134E+0	1.335196E+0	1.376368E+0	1.401526E+0	1.335414E+0	1.369005E+0	1.366620E+0	1.342277E+0	1.436621E+0	1.382357E+0	1.416029E+0	1.408635E+0	1.361784E+0	1.384888E+0	1.372569E+0	1.374284E+0	1.382142E+0	1.396072E+0	1.348952E+0	1.424186E+0	1.347666E+0	1.385347E+0	1.415926E+0	1.357387E+0	1.327388E+0	1.368005E+0	1.356335E+0	1.410979E+0	1.397588E+0	1.401204E+0	1.402396E+0	1.371986E+0	1.355154E+0	1.382822E+0	1.366878E+0	1.419156E+0	1.405148E+0	1.451044E+0	1.381048E+0	1.400325E+0	1.347628E+0	1.402238E+0	1.366206E+0	1.404011E+0	1.398109E+0	1.369623E+0	1.361694E+0	1.360817E+0	1.361876E+0	1.371490E+0	1.420781E+0	1.365635E+0	1.377325E+0	1.339549E+0	1.374673E+0	1.349409E+0	1.374777E+0	1.353999E+0	1.365180E+0	1.422397E+0	1.407304E+0	1.375465E+0	1.336257E+0	1.357653E+0	1.343828E+0	1.319719E+0	1.403521E+0	1.329669E+0	1.330698E+0	1.360569E+0	1.374985E+0	1.317669E+0	1.321970E+0	1.378587E+0	1.349124E+0	1.361336E+0	1.341013E+0	1.396868E+0	1.357752E+0	1.358637E+0	1.327144E+0	1.412026E+0	1.435665E+0	1.345060E+0	1.336803E+0	1.466453E+0	1.373496E+0	1.369302E+0	1.356347E+0	1.422171E+0	1.375944E+0	1.334615E+0	1.442759E+0	1.381512E+0	1.337076E+0	1.444063E+0	1.388038E+0	1.378109E+0	1.394043E+0	1.331487E+0	1.356400E+0	1.379993E+0	1.342803E+0	1.398038E+0	1.350193E+0	1.344645E+0	1.383877E+0	1.366198E+0	1.422690E+0	1.369398E+0	1.365193E+0	1.349123E+0	1.401544E+0	1.392702E+0	1.354093E+0	1.348069E+0	1.414927E+0	1.352290E+0	1.348980E+0	1.283736E+0	1.396675E+0	1.387115E+0	1.353214E+0
5.497850E+2	1.475354E+0	1.360104E+0	1.423609E+0	1.352553E+0	1.413678E+0	1.352118E+0	1.324521E+0	1.355568E+0	1.356194E+0	1.419536E+0	1.345509E+0	1.390117E+0	1.409323E+0	1.366418E+0	1.405174E+0	1.393894E+0	1.361054E+0	1.358563E+0	1.358129E+0	1.377894E+0	1.310007E+0	1.368566E+0	1.371947E+0	1.350724E+0	1.408728E+0	1.348577E+0	1.358151E+0	1.365891E+0	1.422791E+0	1.383093E+0	1.313512E+0	1.377149E+0	1.340983E+0	1.440686E+0	1.391077E+0	1.390878E+0	1.351836E+0	1.391744E+0	1.370267E+0	1.318075E+0	1.380068E+0	1.388134E+0	1.338189E+0	1.382786E+0	1.355383E+0	1.388798E+0	1.354596E+0	1.371591E+0	1.352527E+0	1.395125E+0	1.370103E+0	1.380900E+0	1.334996E+0	1.400741E+0	1.360901E+0	1.365410E+0	1.367353E+0	1.387114E+0	1.301029E+0	1.398475E+0	1.393017E+0	1.342789E+0	1.395315E+0	1.389615E+0	1.354246E+0	1.338069E+0	1.288381E+0	1.356105E+0	1.357651E+0	1.353720E+0	1.405558E+0	1.393004E+0	1.338061E+0	1.325536E+0	1.392276E+0	1.355733E+0	1.441833E+0	1.365901E+0	1.359996E+0	1.307041E+0	1.296645E+0	1.373208E+0	1.395703E+0	1.356482E+0	1.404321E+0	1.369047E+0	1.328870E+0	1.377079E+0	1.407339E+0	1.366647E+0	1.380337E+0	1.393667E+0	1.338590E+0	1.370736E+0	1.332861E+0	1.374328E+0	1.351577E+0	1.409371E+0	1.347199E+0	1.317719E+0	1.389652E+0	1.342871E+0	1.330199E+0	1.374653E+0	1.365424E+0	1.341778E+0	1.305725E+0	1.358021E+0	1.353643E+0	1.325796E+0	1.347049E+0	1.349465E+0	1.336089E+0	1.326730E+0	1.364532E+0	1.377323E+0	1.356691E+0	1.336735E+0	1.313366E+0	1.352238E+0	1.387783E+0	1.331204E+0	1.328140E+0	1.319969E+0	1.344172E+0	1.372051E+0	1.365350E+0	1.327469E+0	1.381127E+0	1.417837E+0	1.344078E+0	1.363355E+0	1.396040E+0	1.368810E+0	1.357586E+0	1.367958E+0	1.398950E+0	1.393897E+0	1.340811E+0	1.361656E+0	1.326998E+0	1.366751E+0	1.369751E+0	1.356505E+0	1.391827E+0	1.343077E+0	1.296744E+0	1.313454E+0	1.361502E+0	1.385692E+0	1.369433E+0	1.369150E+0	1.363294E+0	1.337906E+0	1.405097E+0	1.346576E+0	1.403122E+0	1.354849E+0	1.355109E+0	1.390436E+0	1.300079E+0	1.347855E+0	1.369370E+0	1.319439E+0	1.373053E+0	1.296393E+0	1.416639E+0	1.370445E+0	1.360579E+0	1.437011E+0
5.505170E+2	1.338749E+0	1.309610E+0	1.304632E+0	1.256214E+0	1.392909E+0	1.331419E+0	1.270165E+0	1.313260E+0	1.352099E+0	1.358704E+0	1.300264E+0	1.377314E+0	1.360242E+0	1.357033E+0	1.315192E+0	1.352956E+0	1.366535E+0	1.364495E+0	1.358849E+0	1.368254E+0	1.293920E+0	1.366095E+0	1.332896E+0	1.377416E+0	1.315113E+0	1.340691E+0	1.343946E+0	1.361935E+0	1.357268E+0	1.350924E+0	1.321812E+0	1.348734E+0	1.338841E+0	1.330994E+0	1.285054E+0	1.340237E+0	1.361068E+0	1.358421E+0	1.322870E+0	1.318565E+0	1.377385E+0	1.369417E+0	1.341468E+0	1.382276E+0	1.332570E+0	1.330416E+0	1.312770E+0	1.312589E+0	1.339959E+0	1.386994E+0	1.384816E+0	1.329994E+0	1.347376E+0	1.340676E+0	1.306988E+0	1.365988E+0	1.349565E+0	1.344043E+0	1.340777E+0	1.380405E+0	1.317713E+0	1.347852E+0	1.365555E+0	1.323712E+0	1.397812E+0	1.364163E+0	1.337597E+0	1.280954E+0	1.333496E+0	1.313979E+0	1.319616E+0	1.315648E+0	1.388937E+0	1.357163E+0	1.312468E+0	1.314038E+0	1.371755E+0	1.293226E+0	1.318665E+0	1.325455E+0	1.320454E+0	1.352269E+0	1.364873E+0	1.349728E+0	1.355788E+0	1.355367E+0	1.383112E+0	1.335813E+0	1.326282E+0	1.286115E+0	1.344677E+0	1.358529E+0	1.316852E+0	1.329027E+0	1.331202E+0	1.333702E+0	1.364845E+0	1.371692E+0	1.322644E+0	1.295982E+0	1.298534E+0	1.277636E+0	1.337417E+0	1.373254E+0	1.323903E+0	1.354914E+0	1.270313E+0	1.300992E+0	1.343326E+0	1.318926E+0	1.316239E+0	1.302236E+0	1.337604E+0	1.380884E+0	1.342668E+0	1.334055E+0	1.345927E+0	1.321753E+0	1.307226E+0	1.328278E+0	1.354144E+0	1.318951E+0	1.285072E+0	1.323382E+0	1.341529E+0	1.318595E+0	1.315341E+0	1.274012E+0	1.368701E+0	1.342997E+0	1.344388E+0	1.366970E+0	1.367961E+0	1.323759E+0	1.312938E+0	1.297221E+0	1.362499E+0	1.327746E+0	1.301947E+0	1.328194E+0	1.302033E+0	1.311771E+0	1.389614E+0	1.372016E+0	1.302457E+0	1.326190E+0	1.289537E+0	1.293520E+0	1.331552E+0	1.320094E+0	1.346617E+0	1.331523E+0	1.359382E+0	1.301402E+0	1.322765E+0	1.299844E+0	1.362184E+0	1.264039E+0	1.331014E+0	1.320150E+0	1.405379E+0	1.354072E+0	1.345677E+0	1.292853E+0	1.323779E+0	1.322095E+0	1.299036E+0	1.348526E+0	1.287166E+0	1.398421E+0
5.512620E+2	1.307982E+0	1.274885E+0	1.279576E+0	1.276744E+0	1.312993E+0	1.332830E+0	1.307540E+0	1.312325E+0	1.307449E+0	1.341174E+0	1.272235E+0	1.323141E+0	1.271493E+0	1.330775E+0	1.326058E+0	1.314033E+0	1.332867E+0	1.317109E+0	1.270484E+0	1.266212E+0	1.256466E+0	1.314579E+0	1.312043E+0	1.326307E+0	1.278784E+0	1.298157E+0	1.309950E+0	1.339089E+0	1.327857E+0	1.304406E+0	1.313948E+0	1.315154E+0	1.303117E+0	1.289824E+0	1.283728E+0	1.337983E+0	1.272601E+0	1.315442E+0	1.265253E+0	1.263371E+0	1.319015E+0	1.338469E+0	1.259088E+0	1.301438E+0	1.310574E+0	1.370880E+0	1.326858E+0	1.256284E+0	1.235259E+0	1.330301E+0	1.324444E+0	1.317381E+0	1.277328E+0	1.308118E+0	1.309892E+0	1.315038E+0	1.349106E+0	1.348869E+0	1.298261E+0	1.286852E+0	1.305855E+0	1.297566E+0	1.313406E+0	1.271527E+0	1.353011E+0	1.293819E+0	1.296052E+0	1.309137E+0	1.252013E+0	1.325458E+0	1.292856E+0	1.298330E+0	1.317619E+0	1.289164E+0	1.245016E+0	1.346258E+0	1.334778E+0	1.300131E+0	1.289959E+0	1.280210E+0	1.334537E+0	1.312905E+0	1.363960E+0	1.353508E+0	1.323644E+0	1.300394E+0	1.284198E+0	1.250483E+0	1.292164E+0	1.289016E+0	1.289305E+0	1.323120E+0	1.259776E+0	1.288383E+0	1.292059E+0	1.315782E+0	1.313960E+0	1.305104E+0	1.310143E+0	1.263167E+0	1.335315E+0	1.332343E+0	1.319514E+0	1.336866E+0	1.365999E+0	1.306016E+0	1.292122E+0	1.298827E+0	1.294712E+0	1.271367E+0	1.300578E+0	1.241554E+0	1.336622E+0	1.279030E+0	1.311213E+0	1.278600E+0	1.262096E+0	1.305827E+0	1.311249E+0	1.320524E+0	1.340437E+0	1.263535E+0	1.272192E+0	1.285151E+0	1.306992E+0	1.265494E+0	1.257357E+0	1.257016E+0	1.315386E+0	1.255160E+0	1.288678E+0	1.318254E+0	1.347091E+0	1.328648E+0	1.274081E+0	1.281026E+0	1.327373E+0	1.303238E+0	1.282020E+0	1.294840E+0	1.317609E+0	1.301834E+0	1.290422E+0	1.306735E+0	1.336812E+0	1.283633E+0	1.279795E+0	1.304775E+0	1.313350E+0	1.341436E+0	1.309123E+0	1.319948E+0	1.305598E+0	1.309329E+0	1.268588E+0	1.294351E+0	1.306538E+0	1.290682E+0	1.294272E+0	1.316144E+0	1.295034E+0	1.297018E+0	1.313851E+0	1.296403E+0	1.288369E+0	1.290179E+0	1.244227E+0	1.256055E+0	1.313542E+0	1.384131E+0
5.520260E+2	1.263992E+0	1.262900E+0	1.278283E+0	1.289711E+0	1.281809E+0	1.234623E+0	1.193106E+0	1.241681E+0	1.332581E+0	1.259812E+0	1.281851E+0	1.280909E+0	1.304826E+0	1.269055E+0	1.260088E+0	1.281241E+0	1.255756E+0	1.258004E+0	1.266311E+0	1.298618E+0	1.242888E+0	1.265271E+0	1.274078E+0	1.216541E+0	1.248379E+0	1.268211E+0	1.267518E+0	1.219643E+0	1.279792E+0	1.258479E+0	1.312953E+0	1.227274E+0	1.238788E+0	1.228020E+0	1.232221E+0	1.277457E+0	1.251331E+0	1.259217E+0	1.208985E+0	1.252549E+0	1.271854E+0	1.274104E+0	1.266401E+0	1.310676E+0	1.284947E+0	1.305260E+0	1.296843E+0	1.235307E+0	1.244346E+0	1.255501E+0	1.278749E+0	1.258740E+0	1.302502E+0	1.327935E+0	1.297530E+0	1.277180E+0	1.286332E+0	1.220616E+0	1.251557E+0	1.283382E+0	1.272536E+0	1.259954E+0	1.272137E+0	1.278764E+0	1.324672E+0	1.291938E+0	1.292855E+0	1.210264E+0	1.261581E+0	1.266454E+0	1.281176E+0	1.236030E+0	1.258297E+0	1.249341E+0	1.201321E+0	1.224174E+0	1.235252E+0	1.284582E+0	1.224747E+0	1.318745E+0	1.227451E+0	1.234919E+0	1.305490E+0	1.272817E+0	1.267221E+0	1.255518E+0	1.233669E+0	1.237823E+0	1.273002E+0	1.242410E+0	1.254487E+0	1.237627E+0	1.258229E+0	1.272139E+0	1.228406E+0	1.250766E+0	1.223893E+0	1.259780E+0	1.288045E+0	1.252892E+0	1.216603E+0	1.254433E+0	1.275684E+0	1.270417E+0	1.252449E+0	1.240655E+0	1.209087E+0	1.218356E+0	1.238670E+0	1.223964E+0	1.206544E+0	1.257586E+0	1.246046E+0	1.238104E+0	1.228757E+0	1.225926E+0	1.280163E+0	1.278465E+0	1.252016E+0	1.228239E+0	1.222493E+0	1.248255E+0	1.205997E+0	1.253425E+0	1.293730E+0	1.248291E+0	1.240745E+0	1.252617E+0	1.300461E+0	1.287305E+0	1.257093E+0	1.188580E+0	1.295577E+0	1.190899E+0	1.269801E+0	1.233755E+0	1.306188E+0	1.244628E+0	1.269890E+0	1.295434E+0	1.266328E+0	1.283137E+0	1.290860E+0	1.299013E+0	1.310396E+0	1.242219E+0	1.211738E+0	1.215805E+0	1.198981E+0	1.314047E+0	1.292012E+0	1.242413E+0	1.265957E+0	1.220061E+0	1.253392E+0	1.260087E+0	1.255384E+0	1.216013E+0	1.227223E+0	1.271323E+0	1.242838E+0	1.233544E+0	1.271024E+0	1.288062E+0	1.308733E+0	1.254553E+0	1.196258E+0	1.291122E+0	1.294416E+0	1.226749E+0
5.527650E+2	1.241140E+0	1.214423E+0	1.223836E+0	1.178293E+0	1.195443E+0	1.241370E+0	1.174054E+0	1.223967E+0	1.232855E+0	1.260079E+0	1.239792E+0	1.255451E+0	1.261041E+0	1.178158E+0	1.236787E+0	1.234989E+0	1.227042E+0	1.271753E+0	1.235476E+0	1.206396E+0	1.196678E+0	1.219973E+0	1.228944E+0	1.231066E+0	1.246994E+0	1.223986E+0	1.218371E+0	1.198822E+0	1.279241E+0	1.221547E+0	1.222471E+0	1.220997E+0	1.246349E+0	1.247447E+0	1.185629E+0	1.224733E+0	1.267019E+0	1.274132E+0	1.227488E+0	1.185920E+0	1.265047E+0	1.246723E+0	1.204101E+0	1.167102E+0	1.209951E+0	1.221537E+0	1.224264E+0	1.197311E+0	1.240099E+0	1.196841E+0	1.198663E+0	1.219548E+0	1.213799E+0	1.239835E+0	1.226367E+0	1.242114E+0	1.267150E+0	1.244613E+0	1.243648E+0	1.186822E+0	1.251462E+0	1.223860E+0	1.199091E+0	1.235541E+0	1.268419E+0	1.239484E+0	1.259805E+0	1.240063E+0	1.245283E+0	1.218492E+0	1.249223E+0	1.235241E+0	1.257530E+0	1.263100E+0	1.164978E+0	1.223627E+0	1.249701E+0	1.193342E+0	1.227245E+0	1.231385E+0	1.237265E+0	1.211582E+0	1.213023E+0	1.191498E+0	1.284843E+0	1.230868E+0	1.207702E+0	1.229753E+0	1.285056E+0	1.205276E+0	1.227498E+0	1.258978E+0	1.183649E+0	1.232504E+0	1.199743E+0	1.223246E+0	1.223398E+0	1.218253E+0	1.248374E+0	1.175804E+0	1.222780E+0	1.207215E+0	1.270801E+0	1.197019E+0	1.226855E+0	1.218440E+0	1.231006E+0	1.238550E+0	1.237608E+0	1.251153E+0	1.216966E+0	1.156937E+0	1.207936E+0	1.188723E+0	1.220792E+0	1.227729E+0	1.263278E+0	1.244752E+0	1.142142E+0	1.218081E+0	1.280807E+0	1.170974E+0	1.232762E+0	1.214898E+0	1.226279E+0	1.218305E+0	1.184848E+0	1.200596E+0	1.258868E+0	1.224861E+0	1.204622E+0	1.219872E+0	1.236795E+0	1.246216E+0	1.197835E+0	1.196908E+0	1.235760E+0	1.220245E+0	1.204588E+0	1.245069E+0	1.216317E+0	1.193132E+0	1.225576E+0	1.233310E+0	1.230211E+0	1.221083E+0	1.198839E+0	1.265863E+0	1.215595E+0	1.201392E+0	1.230621E+0	1.162077E+0	1.200921E+0	1.255413E+0	1.226098E+0	1.225238E+0	1.202039E+0	1.193895E+0	1.175724E+0	1.217516E+0	1.234784E+0	1.203675E+0	1.257390E+0	1.267435E+0	1.213051E+0	1.223389E+0	1.125618E+0	1.223557E+0	1.263294E+0	1.159764E+0
5.535440E+2	1.149206E+0	1.172341E+0	1.160817E+0	1.181181E+0	1.210037E+0	1.172986E+0	1.140119E+0	1.139990E+0	1.149265E+0	1.170071E+0	1.213144E+0	1.166742E+0	1.145072E+0	1.180433E+0	1.144681E+0	1.166093E+0	1.222849E+0	1.169714E+0	1.182185E+0	1.197274E+0	1.151470E+0	1.204882E+0	1.170905E+0	1.128963E+0	1.151051E+0	1.170324E+0	1.189381E+0	1.152989E+0	1.168939E+0	1.156452E+0	1.127874E+0	1.164902E+0	1.165968E+0	1.200511E+0	1.128810E+0	1.192581E+0	1.156302E+0	1.171976E+0	1.153535E+0	1.116978E+0	1.139044E+0	1.151655E+0	1.148575E+0	1.179195E+0	1.146663E+0	1.193319E+0	1.192870E+0	1.129626E+0	1.158935E+0	1.146715E+0	1.169434E+0	1.184042E+0	1.211903E+0	1.188951E+0	1.179026E+0	1.169662E+0	1.203425E+0	1.152982E+0	1.146613E+0	1.253527E+0	1.154606E+0	1.179885E+0	1.197840E+0	1.135660E+0	1.193137E+0	1.177016E+0	1.197960E+0	1.194470E+0	1.193704E+0	1.224497E+0	1.200900E+0	1.142328E+0	1.137928E+0	1.177454E+0	1.128908E+0	1.143536E+0	1.199439E+0	1.153828E+0	1.121414E+0	1.146774E+0	1.156306E+0	1.163209E+0	1.177585E+0	1.104533E+0	1.202295E+0	1.218370E+0	1.144918E+0	1.166525E+0	1.158183E+0	1.203116E+0	1.137560E+0	1.177808E+0	1.124561E+0	1.121263E+0	1.167552E+0	1.130009E+0	1.131943E+0	1.206321E+0	1.206130E+0	1.145376E+0	1.197160E+0	1.143089E+0	1.183152E+0	1.186939E+0	1.212697E+0	1.190182E+0	1.202924E+0	1.142785E+0	1.166561E+0	1.204996E+0	1.126246E+0	1.155025E+0	1.147632E+0	1.183956E+0	1.111557E+0	1.180272E+0	1.155557E+0	1.205520E+0	1.147708E+0	1.134529E+0	1.255956E+0	1.155174E+0	1.145857E+0	1.172749E+0	1.171335E+0	1.187388E+0	1.154131E+0	1.140339E+0	1.212315E+0	1.150678E+0	1.135660E+0	1.181174E+0	1.135976E+0	1.139953E+0	1.179316E+0	1.138944E+0	1.212140E+0	1.176142E+0	1.108565E+0	1.171930E+0	1.167367E+0	1.165854E+0	1.145376E+0	1.198540E+0	1.169886E+0	1.181049E+0	1.165202E+0	1.170808E+0	1.123393E+0	1.154865E+0	1.183374E+0	1.171994E+0	1.171977E+0	1.150134E+0	1.157617E+0	1.225715E+0	1.142411E+0	1.148542E+0	1.183105E+0	1.148759E+0	1.151498E+0	1.204631E+0	1.139485E+0	1.160849E+0	1.208061E+0	1.144827E+0	1.139001E+0	1.148165E+0	1.170792E+0	1.215263E+0
5.542580E+2	1.094252E+0	1.076490E+0	1.098410E+0	1.102125E+0	1.090630E+0	1.127376E+0	1.113202E+0	1.112006E+0	1.064547E+0	1.088155E+0	1.108911E+0	1.091403E+0	1.123044E+0	1.109796E+0	1.147059E+0	1.133011E+0	1.087625E+0	1.073071E+0	1.063624E+0	1.124163E+0	1.096057E+0	1.096247E+0	1.081918E+0	1.064342E+0	1.084096E+0	1.091301E+0	1.053130E+0	1.072705E+0	1.119467E+0	1.085431E+0	1.071357E+0	1.100324E+0	1.089697E+0	1.067231E+0	1.136829E+0	1.099485E+0	1.128363E+0	1.107845E+0	1.094665E+0	1.116266E+0	1.099890E+0	1.089787E+0	1.086366E+0	1.089595E+0	1.124506E+0	1.105830E+0	1.121824E+0	1.094847E+0	1.115671E+0	1.159079E+0	1.086600E+0	1.114094E+0	1.083142E+0	1.142024E+0	1.120047E+0	1.109432E+0	1.111894E+0	1.105185E+0	1.074861E+0	1.157452E+0	1.097364E+0	1.117942E+0	1.124154E+0	1.073410E+0	1.115763E+0	1.163695E+0	1.172142E+0	1.116137E+0	1.095783E+0	1.143693E+0	1.087568E+0	1.098573E+0	1.116004E+0	1.085845E+0	1.130898E+0	1.145005E+0	1.100347E+0	1.119712E+0	1.066510E+0	1.086806E+0	1.168417E+0	1.110731E+0	1.152691E+0	1.095477E+0	1.115820E+0	1.149740E+0	1.101993E+0	1.089454E+0	1.138156E+0	1.111101E+0	1.080590E+0	1.107972E+0	1.079123E+0	1.126564E+0	1.093297E+0	1.088245E+0	1.148357E+0	1.131048E+0	1.131961E+0	1.093636E+0	1.097625E+0	1.104601E+0	1.096023E+0	1.099903E+0	1.164591E+0	1.151382E+0	1.116565E+0	1.139255E+0	1.091676E+0	1.078237E+0	1.066472E+0	1.056453E+0	1.127831E+0	1.102692E+0	1.120870E+0	1.126307E+0	1.133275E+0	1.134138E+0	1.059537E+0	1.120121E+0	1.120492E+0	1.105895E+0	1.104198E+0	1.116454E+0	1.109232E+0	1.051918E+0	1.066755E+0	1.041302E+0	1.111551E+0	1.135520E+0	1.112958E+0	1.043228E+0	1.131210E+0	1.110981E+0	1.143259E+0	1.077223E+0	1.125522E+0	1.133623E+0	1.068408E+0	1.118853E+0	1.132229E+0	1.094517E+0	1.116937E+0	1.132946E+0	1.132586E+0	1.073764E+0	1.091658E+0	1.090047E+0	1.089372E+0	1.111172E+0	1.095421E+0	1.075473E+0	1.101798E+0	1.130683E+0	1.136066E+0	1.114595E+0	1.100934E+0	1.129601E+0	1.124459E+0	1.168133E+0	1.076775E+0	1.128793E+0	1.113724E+0	1.078819E+0	1.149125E+0	1.148243E+0	1.025505E+0	1.103378E+0	1.161053E+0	1.147833E+0
5.550190E+2	1.041550E+0	1.017031E+0	1.045714E+0	9.596795E-1	1.029954E+0	1.044492E+0	9.802344E-1	1.035107E+0	9.989160E-1	1.026229E+0	1.045461E+0	1.032524E+0	1.048491E+0	1.001156E+0	1.018960E+0	1.061412E+0	1.020416E+0	1.091033E+0	1.043956E+0	1.043352E+0	1.033097E+0	1.059790E+0	1.025007E+0	1.047325E+0	1.020497E+0	1.054454E+0	1.016688E+0	1.025085E+0	1.030365E+0	1.029744E+0	1.078244E+0	1.017077E+0	1.021583E+0	1.032803E+0	1.043477E+0	9.735096E-1	1.034290E+0	1.051477E+0	1.006418E+0	1.005137E+0	1.003983E+0	1.033270E+0	1.022935E+0	1.038711E+0	1.043613E+0	1.008181E+0	1.001272E+0	9.927308E-1	9.991296E-1	1.054153E+0	1.034253E+0	1.047491E+0	1.025856E+0	1.064194E+0	9.933110E-1	9.761816E-1	1.049714E+0	1.072982E+0	1.039979E+0	1.074217E+0	9.990962E-1	1.042439E+0	1.051515E+0	9.978358E-1	1.016264E+0	1.017214E+0	1.040329E+0	1.025068E+0	9.974055E-1	1.097045E+0	1.011740E+0	1.028419E+0	9.580824E-1	1.021033E+0	1.025774E+0	1.017537E+0	1.061327E+0	1.058831E+0	1.000085E+0	1.020189E+0	9.983760E-1	1.017377E+0	1.042478E+0	9.947511E-1	1.029475E+0	1.046830E+0	1.005115E+0	1.007155E+0	1.040067E+0	1.030931E+0	1.011398E+0	1.030253E+0	1.025844E+0	1.019471E+0	9.979699E-1	1.022478E+0	1.017538E+0	1.014925E+0	1.055567E+0	9.884559E-1	1.054270E+0	1.045955E+0	1.063578E+0	1.033000E+0	1.036820E+0	1.039457E+0	9.941952E-1	1.039676E+0	1.060080E+0	1.036531E+0	1.063998E+0	1.007874E+0	1.025132E+0	9.958276E-1	1.008767E+0	9.991076E-1	1.045895E+0	1.032219E+0	1.008518E+0	1.014244E+0	1.021768E+0	9.643438E-1	1.015098E+0	9.911945E-1	1.049602E+0	1.036429E+0	9.789299E-1	9.976308E-1	1.009316E+0	1.040886E+0	1.012138E+0	1.048416E+0	1.022420E+0	1.035170E+0	1.046392E+0	1.029370E+0	1.071759E+0	1.046979E+0	1.013194E+0	1.006721E+0	1.016362E+0	1.018961E+0	1.049920E+0	1.028044E+0	1.073025E+0	9.890320E-1	1.018288E+0	1.011391E+0	9.994431E-1	1.052604E+0	9.756140E-1	1.033749E+0	1.022381E+0	1.034577E+0	1.014662E+0	1.045727E+0	1.033805E+0	9.592342E-1	1.048996E+0	1.070980E+0	1.027107E+0	1.038068E+0	1.051705E+0	1.021460E+0	1.082096E+0	1.000099E+0	1.020301E+0	1.036094E+0	1.056118E+0	1.017253E+0
5.557660E+2	9.596016E-1	9.420020E-1	9.587564E-1	9.311281E-1	9.618322E-1	9.755692E-1	9.343794E-1	9.701112E-1	9.549744E-1	9.858483E-1	9.819800E-1	9.378359E-1	9.393161E-1	9.919831E-1	9.740596E-1	9.821392E-1	9.600017E-1	9.517628E-1	9.371546E-1	9.588774E-1	9.392695E-1	9.339859E-1	9.687324E-1	9.720116E-1	9.005690E-1	9.902143E-1	9.552392E-1	9.973095E-1	9.730620E-1	9.305974E-1	9.308147E-1	9.705950E-1	9.695409E-1	9.930006E-1	9.487638E-1	9.761338E-1	9.339610E-1	9.834852E-1	9.612517E-1	9.589333E-1	9.145214E-1	9.457064E-1	9.273261E-1	9.809398E-1	9.150162E-1	9.735535E-1	9.603176E-1	9.653344E-1	9.445796E-1	9.538314E-1	9.599669E-1	9.559598E-1	9.460936E-1	9.723660E-1	9.412742E-1	9.630236E-1	9.216117E-1	9.660741E-1	9.502427E-1	9.818187E-1	9.398883E-1	9.327712E-1	9.369094E-1	1.011169E+0	9.853457E-1	9.784677E-1	9.678774E-1	1.002238E+0	9.418655E-1	9.563421E-1	9.976166E-1	9.518362E-1	9.336392E-1	9.682640E-1	9.716314E-1	9.179669E-1	9.018951E-1	9.862679E-1	9.237193E-1	9.816971E-1	9.489166E-1	9.773135E-1	9.786993E-1	9.608880E-1	9.307722E-1	9.425090E-1	9.598970E-1	9.789594E-1	9.461525E-1	9.771498E-1	9.969479E-1	9.927194E-1	9.399679E-1	9.702887E-1	9.905653E-1	9.506567E-1	1.004414E+0	9.749274E-1	9.963661E-1	9.684955E-1	9.467277E-1	9.347365E-1	9.873373E-1	9.802873E-1	9.577721E-1	9.706882E-1	9.353686E-1	9.501653E-1	9.491739E-1	9.633867E-1	9.604544E-1	9.806184E-1	9.358837E-1	9.570811E-1	9.039498E-1	9.696265E-1	9.230296E-1	1.000462E+0	9.539355E-1	9.643901E-1	9.907437E-1	9.972750E-1	9.689360E-1	9.533354E-1	9.098793E-1	9.564793E-1	9.809431E-1	9.572055E-1	9.629874E-1	9.354454E-1	9.925022E-1	9.511650E-1	1.006034E+0	9.695368E-1	9.722715E-1	9.118811E-1	9.528711E-1	9.794737E-1	9.460683E-1	9.524240E-1	9.553190E-1	9.605073E-1	9.353825E-1	9.734349E-1	9.356570E-1	9.394994E-1	9.491035E-1	9.942921E-1	9.723368E-1	1.011638E+0	1.011830E+0	9.342055E-1	9.675142E-1	9.432942E-1	9.719816E-1	9.733917E-1	1.008908E+0	9.666547E-1	9.352279E-1	9.729249E-1	9.471072E-1	9.716438E-1	9.718619E-1	9.602505E-1	9.735273E-1	9.597061E-1	9.199784E-1	9.275264E-1	9.014154E-1	8.672797E-1
5.560240E+2	9.141745E-1	9.749125E-1	9.490649E-1	9.517483E-1	9.678684E-1	9.751254E-1	9.527796E-1	9.358963E-1	9.359251E-1	9.436311E-1	9.473500E-1	9.461780E-1	9.619285E-1	9.553127E-1	9.753225E-1	9.745217E-1	9.473877E-1	9.315013E-1	9.230207E-1	9.448782E-1	9.200364E-1	9.715951E-1	9.527313E-1	9.647060E-1	9.494980E-1	9.472323E-1	9.507131E-1	9.370590E-1	9.329020E-1	9.621483E-1	9.597797E-1	9.537339E-1	9.514970E-1	9.805311E-1	9.563985E-1	9.453797E-1	8.983481E-1	9.470134E-1	9.662860E-1	9.155881E-1	9.207364E-1	9.604418E-1	8.916543E-1	9.241491E-1	9.085543E-1	9.386090E-1	9.282291E-1	9.590755E-1	9.518994E-1	9.845361E-1	9.710544E-1	9.708969E-1	9.210243E-1	9.763045E-1	9.342479E-1	9.615850E-1	9.855608E-1	9.636300E-1	9.430846E-1	9.771103E-1	9.441902E-1	9.602407E-1	9.482908E-1	9.608224E-1	9.567248E-1	9.646696E-1	9.584192E-1	8.936457E-1	9.614987E-1	9.724451E-1	9.395709E-1	9.266620E-1	9.323267E-1	9.993260E-1	9.208345E-1	9.965289E-1	9.736451E-1	9.441265E-1	9.563836E-1	9.270749E-1	9.708938E-1	9.732295E-1	1.004623E+0	9.826046E-1	9.678658E-1	9.891518E-1	8.923655E-1	9.679871E-1	9.513562E-1	9.417787E-1	9.300821E-1	9.450360E-1	9.357706E-1	9.707579E-1	9.165410E-1	9.360251E-1	9.389031E-1	1.003647E+0	9.358206E-1	9.317440E-1	9.444619E-1	9.797944E-1	9.531520E-1	9.278812E-1	9.655312E-1	1.003365E+0	9.440599E-1	9.684066E-1	9.258947E-1	9.277854E-1	9.569183E-1	9.406486E-1	9.016472E-1	9.428765E-1	8.808461E-1	8.870840E-1	9.473883E-1	1.001790E+0	9.319614E-1	9.613064E-1	9.418787E-1	9.481293E-1	9.668159E-1	9.494198E-1	9.345197E-1	9.219102E-1	9.465785E-1	9.451273E-1	9.520661E-1	9.964829E-1	9.755388E-1	9.652241E-1	9.676960E-1	9.386234E-1	9.525541E-1	9.460797E-1	9.856864E-1	9.412749E-1	9.699661E-1	9.387177E-1	9.318639E-1	9.626519E-1	9.244464E-1	9.289946E-1	9.260059E-1	9.917144E-1	9.556697E-1	9.441575E-1	9.431898E-1	9.552699E-1	9.504746E-1	9.430791E-1	9.760226E-1	9.546323E-1	9.611928E-1	8.988957E-1	9.338858E-1	9.000088E-1	9.720018E-1	9.550752E-1	9.733457E-1	9.646949E-1	9.580140E-1	9.501785E-1	9.587570E-1	1.007797E+0	9.660079E-1	9.158804E-1	9.325769E-1	1.055161E+0
5.565200E+2	9.793260E-1	9.500800E-1	9.557678E-1	9.686948E-1	9.315644E-1	9.598772E-1	9.155064E-1	9.929030E-1	9.475909E-1	9.454709E-1	9.636188E-1	9.482933E-1	9.533757E-1	9.579392E-1	9.542293E-1	9.498501E-1	9.162883E-1	9.443912E-1	9.452299E-1	9.495841E-1	9.281114E-1	1.004930E+0	9.533962E-1	9.752189E-1	9.527272E-1	9.462438E-1	9.798435E-1	9.902549E-1	9.919929E-1	9.912906E-1	9.377344E-1	9.507491E-1	9.500526E-1	9.364431E-1	9.808450E-1	9.553886E-1	9.798506E-1	9.827748E-1	9.296002E-1	9.543096E-1	9.527558E-1	9.577483E-1	9.377052E-1	9.259126E-1	9.467883E-1	9.594981E-1	9.555477E-1	9.264987E-1	9.488251E-1	9.418982E-1	9.580896E-1	1.000236E+0	9.662333E-1	9.237534E-1	9.154365E-1	9.536315E-1	9.291785E-1	9.320108E-1	9.699728E-1	9.496647E-1	9.567835E-1	9.672626E-1	9.960980E-1	9.459609E-1	9.332685E-1	9.905784E-1	9.841909E-1	9.722125E-1	9.294132E-1	9.567653E-1	9.542490E-1	9.504477E-1	9.306393E-1	9.148226E-1	9.442197E-1	9.696893E-1	9.090872E-1	9.461114E-1	9.468344E-1	9.480058E-1	9.412656E-1	9.301880E-1	9.305254E-1	9.595884E-1	9.423312E-1	1.013182E+0	9.549967E-1	9.787882E-1	9.596604E-1	9.323216E-1	9.480246E-1	9.468997E-1	9.314784E-1	9.272600E-1	9.595276E-1	9.730159E-1	9.611875E-1	9.683691E-1	9.559588E-1	9.106180E-1	9.374528E-1	9.575939E-1	9.758056E-1	9.775701E-1	9.335930E-1	9.773861E-1	9.255570E-1	9.856009E-1	9.455022E-1	9.291171E-1	9.037215E-1	9.979906E-1	9.403969E-1	9.709336E-1	9.435003E-1	9.992251E-1	9.465603E-1	9.548620E-1	9.787791E-1	9.434020E-1	9.978941E-1	9.265636E-1	9.626266E-1	9.251723E-1	9.676331E-1	9.359488E-1	9.574328E-1	9.268322E-1	9.714830E-1	9.370600E-1	9.653257E-1	9.987801E-1	9.329869E-1	9.161878E-1	9.696370E-1	9.695513E-1	9.754945E-1	1.041359E+0	9.839898E-1	9.698866E-1	9.408296E-1	9.755256E-1	9.642096E-1	9.795554E-1	9.757263E-1	9.521561E-1	9.286002E-1	9.487208E-1	9.334038E-1	9.304510E-1	9.494692E-1	9.114469E-1	9.529242E-1	9.516270E-1	9.289743E-1	9.435180E-1	9.567992E-1	9.589597E-1	9.453626E-1	9.880462E-1	9.419230E-1	9.752520E-1	9.504269E-1	9.576941E-1	9.697541E-1	9.523093E-1	9.064414E-1	9.382114E-1	1.027074E+0	9.785662E-1
5.570560E+2	9.732317E-1	9.993077E-1	1.010414E+0	9.660028E-1	9.930560E-1	9.925731E-1	9.903832E-1	9.605879E-1	9.818345E-1	9.980501E-1	1.007898E+0	1.004503E+0	9.840669E-1	1.007685E+0	1.025017E+0	9.780399E-1	9.928710E-1	9.408444E-1	9.742242E-1	9.775778E-1	9.598808E-1	9.653778E-1	9.430769E-1	9.944036E-1	1.013174E+0	1.001955E+0	9.845959E-1	9.640510E-1	9.982724E-1	9.632636E-1	9.817484E-1	9.604313E-1	9.597794E-1	9.803139E-1	9.843286E-1	9.744624E-1	9.987344E-1	1.043884E+0	9.630261E-1	9.717096E-1	9.868923E-1	9.488277E-1	9.781622E-1	9.710497E-1	1.024449E+0	9.967000E-1	9.894461E-1	9.887878E-1	9.891584E-1	9.438904E-1	9.906311E-1	9.676169E-1	9.493974E-1	1.002217E+0	9.714777E-1	9.586846E-1	9.534626E-1	9.931362E-1	9.677954E-1	9.893182E-1	9.954174E-1	9.445757E-1	1.005294E+0	1.006059E+0	9.846239E-1	1.001556E+0	9.562878E-1	9.617091E-1	9.948146E-1	9.721788E-1	9.405793E-1	1.013644E+0	1.019086E+0	9.920982E-1	9.289268E-1	9.769036E-1	9.918737E-1	1.006995E+0	9.688582E-1	9.607977E-1	9.764167E-1	1.003581E+0	9.905755E-1	9.884916E-1	1.023907E+0	9.787546E-1	9.284234E-1	9.731527E-1	9.612389E-1	9.929593E-1	9.837414E-1	9.612135E-1	9.736174E-1	9.821912E-1	9.669574E-1	9.815291E-1	1.023752E+0	9.593773E-1	9.623851E-1	9.428576E-1	9.881962E-1	9.835792E-1	9.912966E-1	9.777619E-1	9.708219E-1	9.965685E-1	9.540040E-1	9.917942E-1	9.726477E-1	9.760680E-1	9.900159E-1	9.869705E-1	9.824719E-1	1.015138E+0	1.016625E+0	9.753582E-1	9.726629E-1	9.751452E-1	9.841253E-1	1.010691E+0	1.009798E+0	9.781042E-1	9.882526E-1	9.996289E-1	9.825675E-1	9.903293E-1	9.896907E-1	9.965999E-1	9.795396E-1	9.760197E-1	9.724452E-1	9.751293E-1	9.814159E-1	1.019020E+0	1.068942E+0	9.685361E-1	9.698359E-1	9.815556E-1	1.010461E+0	9.835404E-1	1.004171E+0	9.787184E-1	9.732747E-1	9.869811E-1	1.009837E+0	9.786086E-1	9.891983E-1	9.867856E-1	9.616050E-1	9.975197E-1	9.802341E-1	9.914211E-1	9.768230E-1	9.830672E-1	1.016600E+0	9.782885E-1	9.725283E-1	9.848889E-1	9.844392E-1	1.018726E+0	9.547736E-1	9.926414E-1	9.885604E-1	9.972716E-1	9.760284E-1	9.902773E-1	9.679476E-1	9.991446E-1	1.015068E+0	9.819946E-1
5.575360E+2	1.032326E+0	9.994701E-1	1.007649E+0	1.010946E+0	1.019978E+0	1.020385E+0	1.012761E+0	1.036833E+0	1.002672E+0	1.029406E+0	9.813874E-1	1.018939E+0	9.678905E-1	9.739917E-1	9.787290E-1	1.000146E+0	1.054168E+0	1.039274E+0	9.964471E-1	9.870145E-1	9.974438E-1	1.027257E+0	1.001223E+0	9.722039E-1	1.024331E+0	1.024533E+0	1.033141E+0	1.008238E+0	9.937048E-1	9.662086E-1	1.000641E+0	1.068022E+0	1.009929E+0	9.979220E-1	1.013673E+0	9.976009E-1	1.014267E+0	1.007492E+0	9.893719E-1	1.039713E+0	9.889583E-1	1.019561E+0	9.953040E-1	9.577112E-1	1.001921E+0	9.852540E-1	1.020462E+0	1.011215E+0	1.020258E+0	1.008625E+0	1.015805E+0	1.025832E+0	1.010116E+0	1.037969E+0	9.779766E-1	1.053933E+0	9.873847E-1	9.946561E-1	9.961295E-1	1.003496E+0	1.025290E+0	1.036643E+0	9.773568E-1	9.940904E-1	9.914869E-1	1.001056E+0	9.981710E-1	1.004429E+0	1.010058E+0	1.009618E+0	1.019635E+0	9.849871E-1	9.715137E-1	1.006662E+0	1.001642E+0	9.781299E-1	1.012393E+0	9.929996E-1	9.924924E-1	9.775260E-1	1.007722E+0	9.927315E-1	9.694479E-1	9.883727E-1	9.906936E-1	1.040828E+0	1.031992E+0	1.026162E+0	1.028849E+0	9.823242E-1	1.014324E+0	9.887437E-1	1.008143E+0	1.009532E+0	1.029437E+0	9.917160E-1	9.962978E-1	1.049606E+0	9.999973E-1	9.742697E-1	1.002418E+0	1.044173E+0	9.884627E-1	1.034784E+0	1.040803E+0	1.024395E+0	1.016823E+0	1.019677E+0	1.000732E+0	9.927953E-1	1.055506E+0	9.902843E-1	9.675650E-1	1.003798E+0	1.016714E+0	9.827486E-1	1.005780E+0	1.016732E+0	1.017913E+0	9.778708E-1	1.011804E+0	9.729114E-1	9.986070E-1	9.914685E-1	1.021700E+0	9.719553E-1	1.000961E+0	1.020159E+0	9.680155E-1	9.716826E-1	9.771908E-1	1.002926E+0	1.025317E+0	1.010150E+0	9.887944E-1	1.005411E+0	9.870347E-1	1.009487E+0	1.035814E+0	1.043065E+0	9.535954E-1	9.517250E-1	9.829701E-1	1.026647E+0	1.001221E+0	9.979728E-1	9.791744E-1	1.031507E+0	9.985260E-1	1.001538E+0	1.015345E+0	1.035485E+0	1.015557E+0	9.555012E-1	9.788022E-1	1.007482E+0	1.028768E+0	9.629492E-1	9.866046E-1	9.481878E-1	1.023413E+0	9.937398E-1	1.002005E+0	1.039085E+0	9.841766E-1	1.008693E+0	9.774703E-1	9.733246E-1	9.837716E-1	1.045549E+0
5.580170E+2	1.000255E+0	9.993765E-1	1.010661E+0	9.637723E-1	9.987722E-1	1.030252E+0	1.008005E+0	1.007064E+0	1.025198E+0	9.894993E-1	1.006959E+0	9.640592E-1	9.803252E-1	9.953243E-1	1.015469E+0	1.019482E+0	9.724643E-1	1.007546E+0	9.663245E-1	9.680740E-1	1.000447E+0	1.002009E+0	1.001389E+0	1.007090E+0	9.989347E-1	9.898940E-1	9.927669E-1	1.019040E+0	9.742232E-1	1.000573E+0	9.737700E-1	9.832215E-1	9.881839E-1	1.038733E+0	9.724330E-1	9.813795E-1	9.821413E-1	9.882459E-1	9.781799E-1	1.011040E+0	9.663839E-1	1.017732E+0	9.884086E-1	1.021636E+0	9.981331E-1	1.009961E+0	1.016520E+0	9.933775E-1	9.901556E-1	1.029739E+0	9.896410E-1	1.047692E+0	9.663098E-1	1.001689E+0	1.006669E+0	1.012559E+0	1.026962E+0	9.193148E-1	9.580949E-1	1.008938E+0	9.718806E-1	9.987840E-1	9.945444E-1	9.732729E-1	1.000941E+0	1.039369E+0	9.874724E-1	1.047460E+0	1.007846E+0	9.753963E-1	9.440099E-1	1.015626E+0	9.623595E-1	1.014499E+0	1.022067E+0	9.803861E-1	1.004389E+0	1.005199E+0	9.910309E-1	9.902268E-1	9.965847E-1	1.009457E+0	9.916724E-1	1.031028E+0	9.837441E-1	9.898052E-1	1.032400E+0	1.009728E+0	1.036416E+0	1.008008E+0	9.740290E-1	1.033751E+0	9.828368E-1	1.017330E+0	9.769823E-1	9.953783E-1	1.037526E+0	9.948625E-1	9.850263E-1	1.006798E+0	9.730093E-1	9.929054E-1	9.746561E-1	9.910504E-1	9.948536E-1	1.023189E+0	1.006312E+0	1.030619E+0	9.689602E-1	1.023892E+0	9.876260E-1	9.570782E-1	1.043801E+0	1.028916E+0	9.942761E-1	1.017807E+0	1.022209E+0	9.949057E-1	9.966692E-1	1.007234E+0	1.015585E+0	1.023002E+0	9.798851E-1	1.002273E+0	9.995051E-1	1.030427E+0	1.002437E+0	1.030960E+0	1.009552E+0	1.014628E+0	9.756617E-1	9.974096E-1	9.640543E-1	1.044781E+0	9.693484E-1	1.017545E+0	1.022437E+0	9.984050E-1	1.046615E+0	1.007723E+0	9.824461E-1	9.888965E-1	1.000324E+0	1.016561E+0	9.842152E-1	9.896166E-1	1.003127E+0	9.982191E-1	1.009700E+0	1.042694E+0	1.053572E+0	9.657408E-1	1.046686E+0	1.021057E+0	1.000350E+0	9.677566E-1	9.902843E-1	9.899529E-1	9.532968E-1	1.027865E+0	1.033178E+0	1.028164E+0	1.001527E+0	9.936851E-1	9.971104E-1	1.044385E+0	1.009255E+0	1.003346E+0	1.053247E+0	9.979706E-1
5.585160E+2	1.009458E+0	9.869372E-1	1.006412E+0	9.874666E-1	1.004426E+0	1.022816E+0	9.914815E-1	1.008260E+0	1.007151E+0	9.920290E-1	1.010389E+0	9.955757E-1	9.999418E-1	1.031450E+0	1.022745E+0	9.870876E-1	9.845430E-1	9.932703E-1	9.893938E-1	1.013238E+0	1.005060E+0	1.003556E+0	1.031987E+0	9.996217E-1	9.711600E-1	1.012763E+0	9.701773E-1	1.031519E+0	1.022501E+0	1.031601E+0	1.010209E+0	9.956447E-1	1.007942E+0	9.758328E-1	9.875399E-1	9.913967E-1	1.000658E+0	1.016565E+0	1.001125E+0	1.000365E+0	1.015627E+0	9.731903E-1	9.928458E-1	1.012187E+0	1.004167E+0	1.032194E+0	1.003509E+0	9.888066E-1	1.017580E+0	9.806175E-1	9.262608E-1	9.692016E-1	9.965990E-1	9.630506E-1	1.004470E+0	9.602025E-1	9.868997E-1	1.053755E+0	1.027399E+0	9.976448E-1	1.002711E+0	9.988731E-1	1.007772E+0	1.015179E+0	9.904086E-1	9.793496E-1	1.005046E+0	9.925809E-1	9.771633E-1	1.023620E+0	1.046490E+0	9.660915E-1	1.005498E+0	9.990833E-1	1.017920E+0	1.002249E+0	1.003629E+0	9.561218E-1	1.021706E+0	1.002816E+0	1.008964E+0	9.894662E-1	1.001685E+0	1.026856E+0	1.008434E+0	1.000947E+0	1.046601E+0	1.003193E+0	9.764067E-1	9.791971E-1	9.798999E-1	9.822847E-1	9.564138E-1	9.782043E-1	9.973365E-1	1.033619E+0	9.848874E-1	9.884127E-1	9.853289E-1	1.017704E+0	1.001006E+0	1.014651E+0	9.921323E-1	1.017130E+0	9.789704E-1	9.958458E-1	9.794009E-1	1.010837E+0	1.022687E+0	9.889404E-1	9.882358E-1	1.029671E+0	9.880041E-1	9.802500E-1	9.797783E-1	9.703126E-1	1.012174E+0	9.705786E-1	9.973083E-1	9.729366E-1	9.981955E-1	1.002372E+0	1.022813E+0	9.560624E-1	1.029117E+0	9.874757E-1	9.756790E-1	9.722492E-1	1.007493E+0	9.628930E-1	1.026454E+0	1.006136E+0	9.979205E-1	9.969020E-1	9.944345E-1	9.722038E-1	9.937991E-1	9.804617E-1	9.621672E-1	9.880191E-1	1.035303E+0	9.952895E-1	1.064347E+0	1.039849E+0	1.017137E+0	1.044096E+0	1.001334E+0	9.787219E-1	1.033788E+0	1.046147E+0	9.380781E-1	1.022213E+0	9.807343E-1	1.012786E+0	9.637387E-1	1.019618E+0	9.858600E-1	9.762615E-1	9.819478E-1	9.953824E-1	9.936146E-1	1.006641E+0	9.889115E-1	1.007687E+0	1.014305E+0	9.920290E-1	1.013207E+0	9.357271E-1	9.528053E-1	9.728815E-1
5.590160E+2	9.621070E-1	9.966746E-1	9.773415E-1	1.046585E+0	9.329028E-1	1.023282E+0	1.018063E+0	1.004978E+0	9.578848E-1	9.849440E-1	9.709695E-1	9.969240E-1	9.833492E-1	1.017044E+0	1.043307E+0	1.019986E+0	9.789755E-1	9.746342E-1	9.806004E-1	1.015695E+0	1.010821E+0	9.949004E-1	9.782596E-1	1.020803E+0	9.734512E-1	9.928910E-1	9.898362E-1	9.772621E-1	9.672352E-1	1.023713E+0	1.021331E+0	9.801389E-1	1.026865E+0	9.981674E-1	1.003644E+0	1.010313E+0	9.609755E-1	1.004497E+0	1.041906E+0	1.020277E+0	1.023648E+0	1.006355E+0	1.012162E+0	9.773870E-1	9.748783E-1	9.621815E-1	9.713983E-1	9.888815E-1	9.660884E-1	1.016814E+0	9.980682E-1	9.800113E-1	9.908848E-1	9.660321E-1	1.008379E+0	9.702459E-1	1.037586E+0	1.018031E+0	9.984267E-1	1.038933E+0	1.003060E+0	9.627099E-1	9.768592E-1	9.803160E-1	1.023637E+0	1.006708E+0	1.079152E+0	9.636112E-1	9.941200E-1	9.699062E-1	9.982162E-1	9.813422E-1	1.034605E+0	1.003078E+0	1.010253E+0	1.034115E+0	9.577245E-1	1.003320E+0	9.883814E-1	1.014696E+0	9.954777E-1	9.782122E-1	9.752337E-1	9.995239E-1	9.975171E-1	9.902527E-1	9.814957E-1	9.951621E-1	9.497670E-1	9.748042E-1	1.027744E+0	1.020340E+0	1.043776E+0	1.006294E+0	1.013162E+0	1.018300E+0	9.715222E-1	9.981313E-1	1.037831E+0	1.003774E+0	1.009129E+0	1.031606E+0	1.001005E+0	1.019982E+0	1.007780E+0	9.683406E-1	9.883675E-1	9.870484E-1	1.005977E+0	1.000995E+0	9.921234E-1	9.987873E-1	9.942506E-1	9.720035E-1	9.683281E-1	1.064851E+0	1.006779E+0	1.002204E+0	9.842794E-1	9.904846E-1	9.582170E-1	1.012908E+0	1.033636E+0	9.800863E-1	1.019219E+0	9.628177E-1	1.036830E+0	9.997653E-1	9.947547E-1	9.641915E-1	9.980866E-1	9.829279E-1	9.939139E-1	9.940209E-1	9.995561E-1	1.013111E+0	9.853126E-1	1.027357E+0	9.917255E-1	9.912886E-1	1.013798E+0	9.984432E-1	1.008254E+0	1.020328E+0	9.625223E-1	1.000824E+0	1.025810E+0	9.878511E-1	1.006380E+0	9.514201E-1	1.040424E+0	9.696694E-1	1.014389E+0	1.002298E+0	1.006310E+0	9.633788E-1	1.043004E+0	1.015447E+0	1.058335E+0	1.019070E+0	9.918624E-1	1.031247E+0	9.891858E-1	1.017436E+0	9.717153E-1	1.009760E+0	1.012431E+0	9.894007E-1	1.029458E+0	9.892775E-1
5.595110E+2	1.011166E+0	9.907951E-1	9.843838E-1	1.008359E+0	1.039915E+0	9.928542E-1	9.872407E-1	9.764361E-1	9.943014E-1	9.790130E-1	9.565809E-1	1.008165E+0	1.002037E+0	9.993727E-1	9.619353E-1	9.669225E-1	9.973700E-1	1.007501E+0	1.000392E+0	1.000521E+0	1.004147E+0	1.024628E+0	1.002415E+0	1.001679E+0	9.903621E-1	9.837792E-1	1.045179E+0	1.025699E+0	1.035078E+0	1.007343E+0	9.913083E-1	1.038191E+0	9.886713E-1	1.010860E+0	1.009806E+0	9.933287E-1	1.017862E+0	9.632488E-1	1.053988E+0	1.008662E+0	1.025795E+0	9.829913E-1	1.036195E+0	1.025665E+0	1.001686E+0	9.816176E-1	1.028310E+0	9.965028E-1	9.972203E-1	1.020694E+0	1.002180E+0	1.021327E+0	1.030131E+0	1.031769E+0	1.049489E+0	1.022920E+0	1.008253E+0	1.017873E+0	1.011040E+0	1.003218E+0	1.004746E+0	1.014202E+0	9.899520E-1	1.000993E+0	9.909658E-1	1.001089E+0	1.033171E+0	1.012409E+0	1.006442E+0	1.019756E+0	9.778088E-1	1.015508E+0	9.823776E-1	1.034176E+0	1.022560E+0	1.003852E+0	1.020244E+0	9.859962E-1	1.010834E+0	1.002932E+0	1.023441E+0	1.019503E+0	9.652158E-1	9.805349E-1	9.744611E-1	1.000134E+0	9.589616E-1	9.953458E-1	1.040950E+0	1.006261E+0	9.605117E-1	9.859740E-1	1.022730E+0	1.028122E+0	9.743217E-1	9.812633E-1	9.896878E-1	1.012826E+0	1.012612E+0	1.005308E+0	1.024992E+0	9.711386E-1	1.011569E+0	9.582035E-1	9.751002E-1	9.374003E-1	1.065639E+0	9.904001E-1	9.968463E-1	1.004637E+0	9.883709E-1	1.002598E+0	1.042808E+0	1.028978E+0	1.045117E+0	9.560293E-1	9.991010E-1	1.024885E+0	1.012502E+0	1.008809E+0	9.927419E-1	1.000242E+0	9.445139E-1	1.002548E+0	1.025836E+0	9.819203E-1	1.004778E+0	1.013202E+0	1.033571E+0	1.034538E+0	1.033966E+0	9.895614E-1	1.004212E+0	9.783577E-1	9.804113E-1	1.002755E+0	9.857616E-1	1.003997E+0	9.798839E-1	9.868576E-1	1.021647E+0	1.030463E+0	1.005886E+0	1.006131E+0	1.012746E+0	9.971006E-1	9.580092E-1	1.005032E+0	1.005021E+0	9.728223E-1	9.962113E-1	9.901384E-1	1.004738E+0	1.003565E+0	1.011679E+0	1.014481E+0	1.008279E+0	1.030200E+0	9.842430E-1	9.956761E-1	1.038242E+0	9.570817E-1	1.051872E+0	1.016696E+0	1.009575E+0	1.025027E+0	1.069364E+0	1.007694E+0	9.974994E-1	9.893967E-1
5.600520E+2	1.041653E+0	1.030841E+0	1.045914E+0	1.016115E+0	1.016373E+0	9.904780E-1	1.024685E+0	1.043312E+0	1.031991E+0	1.031766E+0	1.027996E+0	9.913948E-1	1.019742E+0	1.008351E+0	9.675189E-1	1.022518E+0	1.024129E+0	1.021977E+0	1.042541E+0	1.026520E+0	1.016743E+0	1.003509E+0	1.028216E+0	9.790694E-1	9.907840E-1	9.837954E-1	1.017647E+0	1.012239E+0	1.008985E+0	1.031980E+0	1.016258E+0	1.034207E+0	1.032498E+0	9.987305E-1	1.003626E+0	1.021626E+0	1.011862E+0	9.946226E-1	9.791232E-1	9.901285E-1	1.020318E+0	1.043748E+0	1.005656E+0	1.037034E+0	1.018916E+0	1.045302E+0	1.002215E+0	1.004001E+0	9.968950E-1	1.020043E+0	1.068183E+0	1.001515E+0	1.029631E+0	1.001017E+0	1.057871E+0	1.029201E+0	1.018357E+0	1.010460E+0	1.016025E+0	9.683797E-1	1.021365E+0	1.024189E+0	1.023646E+0	1.007180E+0	1.038839E+0	1.043015E+0	1.004258E+0	1.029519E+0	9.987139E-1	1.005503E+0	1.032133E+0	1.008316E+0	1.038510E+0	1.013332E+0	1.015741E+0	1.011375E+0	9.795040E-1	9.993743E-1	1.047671E+0	1.016143E+0	1.033049E+0	1.016631E+0	1.025316E+0	9.789612E-1	1.045430E+0	1.006601E+0	9.942593E-1	1.015867E+0	1.018348E+0	1.022089E+0	1.045487E+0	1.044526E+0	1.032707E+0	9.632151E-1	1.040611E+0	1.014352E+0	9.906058E-1	9.723679E-1	9.847714E-1	1.036217E+0	1.048852E+0	9.941858E-1	1.035763E+0	1.012302E+0	1.040685E+0	1.008610E+0	9.914034E-1	1.003147E+0	1.018555E+0	1.021200E+0	1.033460E+0	1.038639E+0	1.005392E+0	1.015743E+0	1.000432E+0	1.055740E+0	1.014143E+0	1.000899E+0	1.011498E+0	1.054932E+0	1.028631E+0	1.029769E+0	1.068177E+0	1.050513E+0	1.007937E+0	9.903859E-1	1.007029E+0	1.016305E+0	1.004908E+0	1.039220E+0	9.874528E-1	1.015054E+0	1.013610E+0	9.897963E-1	1.024219E+0	1.029638E+0	1.009424E+0	9.976990E-1	1.021743E+0	9.741692E-1	1.030841E+0	1.010923E+0	1.029458E+0	9.557532E-1	1.047795E+0	9.784385E-1	9.750793E-1	1.039926E+0	9.942776E-1	9.925128E-1	1.024440E+0	9.966750E-1	1.019695E+0	1.019654E+0	1.011866E+0	1.051328E+0	9.851397E-1	1.021145E+0	1.043366E+0	1.007226E+0	9.940148E-1	9.886420E-1	9.772638E-1	9.739945E-1	1.033654E+0	9.842148E-1	1.006781E+0	1.054126E+0	1.037469E+0	1.012618E+0
5.605150E+2	9.975036E-1	1.020080E+0	9.825471E-1	1.014037E+0	9.915614E-1	9.721415E-1	1.019779E+0	9.928196E-1	1.011763E+0	1.000737E+0	1.026917E+0	1.012691E+0	1.047884E+0	9.714957E-1	9.830290E-1	1.021290E+0	1.017982E+0	1.038597E+0	1.033360E+0	1.014223E+0	9.827821E-1	9.961528E-1	1.008854E+0	1.004819E+0	1.035817E+0	1.010174E+0	9.857292E-1	9.690573E-1	9.958893E-1	9.867458E-1	1.025012E+0	9.539420E-1	9.876036E-1	1.014338E+0	1.019811E+0	9.969471E-1	1.004268E+0	9.793419E-1	1.017484E+0	9.813546E-1	1.019237E+0	9.903605E-1	9.739176E-1	1.007206E+0	9.905101E-1	9.859443E-1	9.913454E-1	1.037918E+0	1.002106E+0	9.935876E-1	1.050217E+0	1.007418E+0	1.023351E+0	1.002496E+0	9.695610E-1	1.012767E+0	9.618138E-1	9.901525E-1	1.030443E+0	9.890266E-1	1.019219E+0	1.044708E+0	1.077859E+0	1.037278E+0	9.980814E-1	9.858528E-1	9.220955E-1	1.010950E+0	1.003625E+0	9.975501E-1	1.015358E+0	1.033887E+0	9.891601E-1	9.854712E-1	9.876714E-1	1.023394E+0	1.035474E+0	1.060694E+0	9.935529E-1	1.045686E+0	1.005282E+0	1.010837E+0	1.058948E+0	1.030928E+0	9.935196E-1	1.004767E+0	1.045273E+0	9.809154E-1	1.006607E+0	1.035644E+0	9.886148E-1	1.003265E+0	1.007736E+0	1.027436E+0	1.004312E+0	1.005916E+0	9.791516E-1	1.014906E+0	1.022191E+0	9.946003E-1	9.639480E-1	9.752688E-1	1.018120E+0	1.000097E+0	1.029805E+0	1.004285E+0	1.001327E+0	9.950975E-1	1.036304E+0	1.012455E+0	9.916333E-1	1.000765E+0	9.844333E-1	9.736367E-1	1.011318E+0	1.034818E+0	9.989355E-1	1.010866E+0	1.022061E+0	9.824568E-1	1.024605E+0	1.012223E+0	9.939679E-1	1.008814E+0	9.702764E-1	1.058760E+0	1.006961E+0	9.542755E-1	9.883332E-1	1.034942E+0	1.056239E+0	1.020730E+0	1.036644E+0	9.597642E-1	9.969578E-1	9.831454E-1	1.035722E+0	1.021862E+0	9.536643E-1	1.005412E+0	9.857422E-1	1.006096E+0	9.986388E-1	9.790855E-1	9.790422E-1	1.038427E+0	1.054075E+0	1.001235E+0	9.771269E-1	9.727656E-1	9.639687E-1	1.036664E+0	9.752172E-1	1.039362E+0	1.033142E+0	1.014159E+0	9.885914E-1	9.906298E-1	1.014743E+0	9.806244E-1	1.010006E+0	1.026424E+0	9.815929E-1	1.008184E+0	1.007373E+0	9.638604E-1	1.001522E+0	1.034877E+0	9.499930E-1	1.006832E+0
5.610180E+2	9.723002E-1	9.765182E-1	9.746772E-1	9.867174E-1	1.003016E+0	9.552178E-1	9.476019E-1	9.697093E-1	9.872055E-1	9.945563E-1	1.010904E+0	1.007749E+0	1.014763E+0	9.952842E-1	1.002249E+0	9.845280E-1	9.774967E-1	9.763553E-1	1.016717E+0	9.971364E-1	1.022674E+0	9.826110E-1	1.004580E+0	1.020311E+0	1.001987E+0	1.000217E+0	9.809266E-1	9.928955E-1	1.004112E+0	9.885726E-1	9.797219E-1	9.862020E-1	9.985273E-1	9.851014E-1	1.005138E+0	1.032945E+0	1.009233E+0	1.002103E+0	9.757960E-1	9.767510E-1	9.531404E-1	1.017234E+0	1.017348E+0	9.901235E-1	9.853393E-1	1.000846E+0	9.767932E-1	9.905093E-1	1.020539E+0	9.859897E-1	9.590146E-1	9.793852E-1	1.003580E+0	9.937611E-1	9.541064E-1	9.794868E-1	1.019282E+0	1.002621E+0	9.946470E-1	1.001046E+0	9.563115E-1	9.753154E-1	9.467164E-1	9.856323E-1	9.810165E-1	9.420048E-1	1.014346E+0	9.773325E-1	1.007218E+0	1.026472E+0	1.025770E+0	9.805989E-1	9.968891E-1	9.515999E-1	9.932199E-1	9.895960E-1	9.947682E-1	9.893009E-1	9.854725E-1	9.891766E-1	9.530630E-1	9.795808E-1	1.021907E+0	9.753040E-1	9.822944E-1	9.879104E-1	9.805945E-1	1.000474E+0	9.814170E-1	9.987131E-1	1.025649E+0	9.799023E-1	9.720402E-1	9.876759E-1	9.968795E-1	9.779273E-1	1.026569E+0	1.009510E+0	1.009857E+0	1.018471E+0	9.884496E-1	9.924915E-1	9.869959E-1	9.886905E-1	9.611810E-1	1.041366E+0	9.967223E-1	9.713801E-1	9.772913E-1	9.790164E-1	9.730279E-1	9.952074E-1	9.912729E-1	9.815371E-1	9.674122E-1	9.423352E-1	9.682159E-1	1.003783E+0	9.736441E-1	9.945845E-1	9.604225E-1	9.684687E-1	9.701477E-1	1.008606E+0	9.438422E-1	1.025928E+0	9.756346E-1	9.964841E-1	1.013834E+0	1.001885E+0	9.725047E-1	1.010125E+0	9.829127E-1	1.007208E+0	9.773366E-1	1.007655E+0	1.010673E+0	9.791756E-1	9.979263E-1	1.019925E+0	9.724567E-1	1.039444E+0	9.368472E-1	9.686638E-1	9.854846E-1	9.749158E-1	1.014193E+0	9.707216E-1	1.013575E+0	1.022581E+0	9.877270E-1	9.919931E-1	9.661607E-1	9.627088E-1	9.775120E-1	9.835083E-1	9.975466E-1	1.028526E+0	9.930250E-1	1.007242E+0	9.608953E-1	9.754192E-1	1.019081E+0	9.459608E-1	1.006063E+0	9.817551E-1	9.420217E-1	1.002360E+0	9.806892E-1	1.003479E+0
