Photon Energy (eV)	#1	#2	#3	#4	#5	#6	#7	#8	#9	#10	#11	#12	#13	#14	#15	#16	#17	#18	#19	#20	#21	#22	#23	#24	#25	#26	#27	#28	#29	#30	#31	#32	#33	#34	#35	#36	#37	#38	#39	#40	#41	#42	#43	#44	#45	#46	#47	#48	#49	#50	#51	#52	#53	#54	#55	#56	#57	#58	#59	#60	#61	#62	#63	#64	#65	#66	#67	#68	#69	#70	#71	#72	#73	#74	#75	#76	#77	#78	#79	#80	#81	#82	#83	#84	#85	#86	#87	#88	#89	#90	#91	#92	#93	#94	#95	#96	#97	#98	#99	#100	#101	#102	#103	#104	#105	#106	#107	#108	#109	#110	#111	#112	#113	#114	#115	#116	#117	#118	#119	#120	#121	#122	#123	#124	#125	#126	#127	#128	#129	#130	#131	#132	#133	#134	#135	#136	#137	#138	#139	#140	#141	#142	#143	#144	#145	#146	#147	#148	#149	#150	#151	#152	#153	#154	#155	#156	#157	#158	#159	#160	#161	#162	#163	#164	#165	#166	#167	#168	#169	#170	#171	
5.300220E+2	-2.878072E-3	-3.376670E-3	-4.999380E-3	-5.871286E-3	-1.524507E-2	3.006514E-3	-9.047824E-3	-7.578343E-3	-7.941165E-3	-1.070166E-2	-6.822189E-3	-1.097211E-3	-5.376504E-3	-6.749168E-5	-6.593323E-3	-5.027923E-3	-1.172502E-2	5.123149E-3	-1.798012E-4	-5.433374E-4	-1.980182E-3	-1.192050E-2	-1.325512E-3	-9.428023E-3	-6.866630E-3	-6.306371E-3	-6.215537E-3	-8.727773E-3	-4.711209E-3	-7.556449E-3	-1.486516E-3	-9.969652E-3	-1.029774E-2	-1.093078E-2	-7.792392E-3	-5.315281E-3	-8.887778E-3	-1.244493E-2	-1.846158E-3	-4.129983E-3	-7.841970E-3	-4.949208E-3	-6.223418E-3	-8.957549E-3	-5.311286E-3	-7.242684E-3	-4.446841E-3	-6.729931E-3	-9.453363E-3	-1.509295E-2	-4.885290E-3	-2.323578E-3	-6.572414E-3	-7.641855E-3	2.087945E-3	-2.397284E-3	-1.327473E-2	-1.392845E-2	-6.086717E-3	-4.614233E-3	-1.589690E-2	-1.104229E-2	-1.009547E-2	-5.815311E-3	-6.862678E-3	-3.548095E-3	-6.519130E-3	-5.980148E-3	-8.667421E-4	-4.609233E-3	-7.892926E-4	1.988104E-3	-4.529626E-3	-1.208236E-2	-1.186215E-2	-3.421376E-3	-9.062308E-3	3.644277E-3	-1.941644E-3	-6.344351E-3	-1.001231E-2	-1.056348E-2	-5.671795E-3	-4.829589E-3	-4.279132E-3	1.797554E-3	-5.194255E-3	-7.195108E-4	-1.909915E-3	-2.068137E-3	-9.645887E-3	5.806648E-4	-5.499659E-3	-1.146572E-2	-3.434161E-3	-1.542523E-2	-2.993656E-3	-9.426364E-3	-2.806179E-3	-3.704893E-3	-6.479374E-3	-9.371628E-3	-8.307970E-3	-5.206343E-3	2.567559E-3	-3.614390E-3	5.965442E-3	-1.734736E-2	-1.498273E-3	-5.588494E-3	-1.500549E-2	-2.758173E-3	-5.557322E-3	-2.002998E-3	-4.283260E-3	-1.001875E-2	-1.315898E-2	-8.183950E-3	-7.580965E-3	-1.013034E-2	-8.409804E-3	-1.732919E-3	-8.963483E-3	-8.270059E-4	-1.598508E-2	-2.585882E-3	-8.157626E-3	-4.247000E-3	-6.459250E-3	-8.210250E-3	-9.453752E-3	-7.823064E-3	-1.214726E-2	-1.742525E-3	7.066543E-3	-4.044381E-3	-7.493848E-3	-7.058221E-4	8.688769E-3	-8.117481E-3	-7.289581E-3	-1.431875E-2	-8.996463E-3	-3.327776E-3	-3.175737E-3	-7.216676E-3	-9.827039E-3	-1.099696E-2	-2.844672E-3	-3.484024E-3	-1.682065E-3	-1.266623E-2	-1.270494E-2	-2.972682E-4	-1.415985E-4	-1.113335E-2	-2.900490E-3	-1.434165E-2	-9.080358E-3	-7.074024E-3	-6.331138E-4	-1.078259E-2	-2.832189E-3	-1.331965E-2	-4.885718E-3	-8.457713E-3	-7.831350E-4	-3.839842E-3	-8.945122E-3	-1.234060E-3	-7.499337E-3
5.305130E+2	-3.770721E-3	-3.687496E-3	-6.288225E-5	1.180393E-4	-4.886499E-3	-1.174434E-2	-5.723001E-3	-9.579164E-3	-2.586921E-3	-5.014954E-3	-3.224019E-3	-3.897741E-3	-4.796553E-3	-5.763409E-3	-1.036469E-2	-7.076297E-3	-6.171460E-3	-1.053855E-2	-2.726030E-3	-2.467808E-3	1.545887E-3	-1.461754E-3	-6.039588E-3	-4.104892E-3	-2.415664E-4	-6.598819E-3	-1.104291E-2	-6.954715E-3	-8.515680E-3	-2.720055E-3	-5.680120E-3	2.089827E-3	-1.347911E-2	-2.925826E-3	-7.618159E-3	-8.165474E-3	-6.239535E-3	-9.466507E-4	-6.552217E-3	-3.249061E-3	-4.777626E-3	-9.391020E-3	-5.991427E-3	-5.550291E-3	-4.060415E-3	-3.968937E-3	-1.116377E-3	-1.397120E-2	-8.604425E-3	-3.326667E-3	-4.671669E-3	-6.716815E-3	-1.569349E-3	-1.315927E-3	-2.509116E-3	-8.726100E-3	2.432289E-3	3.205096E-3	-4.181470E-4	-9.116721E-4	-5.296787E-4	-3.525600E-3	-3.900224E-3	-7.575952E-3	-8.877162E-3	1.425181E-3	-2.931130E-3	-9.715174E-3	-3.723569E-3	-4.934862E-3	-9.435634E-3	-1.033883E-2	-1.170127E-2	-7.851331E-3	-1.039233E-2	-1.615563E-2	-5.036926E-3	-6.921442E-3	-1.183414E-2	-1.951237E-3	-6.880902E-3	-4.472145E-3	-8.083232E-3	-2.684283E-3	2.503897E-4	-7.924102E-3	-3.867221E-4	-1.058227E-3	-3.220209E-3	-4.559404E-3	-2.663227E-3	-2.691819E-3	-7.104796E-3	-4.519524E-3	4.540434E-3	-1.000457E-3	-5.021973E-3	2.469618E-3	2.918746E-4	-9.612004E-4	-8.453067E-3	-3.662822E-3	-1.996987E-3	-7.068432E-3	-3.227290E-3	-8.580326E-3	-1.829748E-2	8.233179E-4	-3.330890E-3	-4.239575E-3	-1.181439E-3	-5.138478E-3	-4.664598E-3	-1.025228E-2	-1.027536E-2	-8.094373E-3	3.122229E-3	-1.988391E-3	-4.443488E-3	-7.128140E-3	-2.856111E-3	-4.211576E-3	-8.599742E-3	-8.675920E-3	-8.271755E-3	-8.670956E-3	-9.377838E-3	-9.513277E-3	2.160411E-3	-7.388663E-3	-3.070763E-3	-4.375524E-3	-1.103853E-3	-4.787867E-3	-2.345054E-3	-3.408323E-3	-3.669151E-3	-2.485465E-3	-6.202394E-4	-1.066040E-2	-7.552434E-3	-8.669576E-3	1.645471E-3	-5.527130E-3	-6.583845E-3	2.798814E-3	-5.004976E-3	-9.173060E-3	-3.650660E-3	-3.864676E-3	-4.208138E-3	-5.336921E-3	4.395273E-3	-1.063174E-2	-6.619777E-3	-6.219815E-3	-5.679305E-3	-4.042421E-3	-1.043840E-2	-4.417699E-3	-1.184679E-2	-8.928867E-3	-7.989775E-3	-6.230146E-3	2.183696E-3	-2.723395E-3	-4.971822E-3	-8.762193E-3	-5.773335E-3	3.564797E-3	1.251301E-2
5.310150E+2	8.823333E-4	-9.189511E-4	-9.163970E-3	-1.155039E-3	8.137074E-4	1.021410E-2	-2.211003E-3	-9.936184E-4	-5.799519E-3	5.402901E-3	-2.246236E-3	-3.487402E-3	-3.934661E-3	-9.400471E-3	-8.500914E-3	-6.244922E-3	7.505061E-3	-4.685092E-3	-3.984289E-3	-4.771965E-3	-4.162496E-4	-1.993445E-3	-3.660201E-3	1.555408E-3	4.482074E-3	-3.291176E-3	-5.115912E-3	8.626227E-3	-6.832438E-3	-3.833102E-3	-3.063520E-4	5.564284E-3	1.880667E-3	2.441476E-3	-1.853835E-3	4.025779E-3	-1.852524E-3	3.532381E-3	-3.213671E-3	-3.203236E-3	-3.795898E-3	-1.237226E-3	-5.006294E-3	-1.968599E-3	-1.452106E-3	-3.547352E-3	-6.997765E-3	-4.878169E-3	-3.472039E-3	1.989282E-3	-3.836062E-4	-3.761214E-3	-4.521677E-3	-2.927886E-3	-8.717784E-3	-4.011275E-3	1.013435E-3	-8.591820E-3	-5.400034E-4	1.086737E-4	-7.257101E-3	1.874291E-4	-2.470417E-3	4.048873E-3	-1.061386E-3	-6.739664E-3	-8.142301E-3	9.329768E-4	-1.771431E-3	-4.530159E-3	-4.634341E-3	-3.972576E-5	2.961806E-3	-1.116717E-3	2.736381E-4	2.338208E-3	1.182277E-3	-7.944341E-3	5.320748E-3	-2.033917E-3	-2.998522E-3	6.235255E-4	3.415385E-3	-4.240453E-3	8.981673E-3	-1.097680E-3	-4.163240E-3	-1.596308E-4	6.575062E-4	-3.632894E-3	-2.206388E-3	-5.158227E-3	-7.586545E-3	-4.977143E-3	3.771866E-4	-3.084123E-3	3.401452E-3	-6.150701E-3	-4.396074E-3	-5.786554E-3	-2.759396E-3	1.036881E-3	-4.088222E-3	-4.062794E-3	-4.995591E-3	-1.621674E-4	9.301519E-4	-5.007301E-4	-6.463427E-3	-2.090079E-3	-9.279340E-3	-1.628936E-4	-1.169460E-3	2.021780E-3	3.677986E-3	-2.100516E-3	-3.930899E-3	-6.100244E-3	3.303885E-3	-4.330511E-3	-9.296214E-3	-9.881865E-3	-1.884732E-3	-4.795964E-3	4.893496E-3	-4.716948E-3	-3.199004E-3	3.766453E-4	-1.084029E-2	3.046088E-3	-5.175333E-3	-1.369876E-2	-5.845294E-3	-6.993442E-3	-6.918881E-3	-3.929327E-3	-7.903613E-3	-4.494225E-3	-5.117626E-3	1.562752E-3	1.083723E-4	9.725748E-3	-1.051192E-2	-1.073987E-2	-9.765700E-3	-8.276540E-3	7.897980E-3	-8.794513E-3	-8.043415E-3	1.417458E-3	5.612869E-3	-2.623705E-3	1.094347E-3	-4.161735E-3	-4.444615E-3	-2.840888E-3	-8.607633E-3	-9.786920E-4	-1.190507E-3	-4.475318E-3	1.178597E-3	4.110384E-3	1.657230E-3	1.594485E-3	-5.749246E-3	4.003813E-3	-3.977987E-3	-8.369853E-3	-9.805613E-4	-5.690849E-4	-9.564431E-3
5.315130E+2	2.308932E-3	4.312134E-3	1.374444E-3	-2.543766E-3	-6.258061E-3	-3.507823E-3	3.931608E-3	-1.072972E-3	-3.403567E-3	-3.781288E-3	2.651060E-3	-1.652454E-4	2.742999E-3	-2.311577E-3	8.269576E-4	1.116435E-3	1.828129E-5	6.256829E-4	-9.225308E-3	-3.867743E-3	-2.008354E-3	-7.588162E-3	4.552525E-3	-1.124251E-3	-4.342796E-3	-1.490040E-3	9.511881E-3	-7.834677E-3	-1.187131E-3	-4.010482E-3	-1.587354E-3	-3.544780E-3	7.153020E-3	-8.576589E-3	5.893063E-3	-2.877250E-3	6.510567E-3	-6.037110E-3	1.568259E-3	4.475283E-3	-6.062956E-4	4.861535E-3	-6.185726E-4	-2.171442E-3	8.144054E-6	1.472893E-3	3.317699E-3	1.636324E-3	2.840072E-3	-2.501073E-3	2.761407E-3	3.258536E-3	2.753087E-3	1.562515E-3	7.827093E-3	1.993824E-3	-1.965095E-3	2.504370E-3	-4.069353E-3	-5.398097E-3	2.145854E-3	7.629090E-3	2.944795E-3	3.945520E-3	-7.268860E-4	4.428127E-3	-2.699364E-3	1.676712E-4	4.669396E-3	2.225810E-3	3.630335E-3	-3.581918E-3	-3.172303E-3	-7.682185E-4	-5.742849E-3	2.149256E-3	1.558303E-3	-1.767897E-3	1.085055E-2	-9.134463E-3	-2.650528E-3	1.012495E-3	5.940156E-4	-6.422113E-3	-4.947258E-3	-3.203082E-3	3.246302E-3	-2.502833E-3	-1.485087E-3	-3.272895E-3	-1.294161E-3	2.846144E-3	-1.460869E-3	1.257781E-2	-3.959125E-3	-2.733538E-3	1.375602E-3	-4.762978E-3	-2.447932E-3	-3.375657E-3	7.720386E-4	3.440972E-4	-9.501686E-3	3.570696E-3	-5.789482E-3	-1.947185E-3	1.286273E-3	-5.553940E-3	1.550996E-3	2.099694E-3	-3.289583E-4	-1.721704E-3	-3.199809E-3	1.192595E-3	1.570857E-2	1.068733E-2	3.122542E-3	8.479648E-3	-2.197136E-3	-2.520989E-3	4.281610E-3	4.131255E-3	-2.079327E-3	-2.080889E-3	-1.792794E-3	4.765972E-4	3.108263E-4	1.271916E-3	-4.824752E-3	2.924230E-3	2.962484E-3	1.337764E-2	1.246229E-3	3.198464E-3	-2.489279E-3	1.119005E-3	1.433143E-3	-4.133446E-3	-1.158520E-2	7.073832E-3	-4.105376E-3	-1.996249E-3	6.750655E-3	6.221447E-3	-5.972404E-4	4.427422E-6	-7.724663E-4	1.073328E-2	7.906478E-3	-4.777832E-3	-8.208686E-5	9.515067E-4	-1.341666E-2	-2.320639E-3	-1.998328E-3	5.760018E-3	-3.814261E-3	-2.543401E-3	1.266112E-2	-3.650433E-3	-8.131014E-5	-4.358947E-3	-3.448046E-3	6.577136E-3	-2.370439E-3	-1.637381E-3	-6.437153E-3	-4.344806E-4	-1.119265E-2	-3.691699E-3	-6.913688E-3
5.320220E+2	4.908438E-3	-2.362122E-3	1.324049E-3	3.841673E-3	7.193129E-3	-9.113060E-3	-1.360561E-3	-1.972883E-3	1.428292E-2	3.749657E-3	-3.072617E-3	2.791288E-3	1.354737E-3	-1.438209E-3	1.129728E-2	-4.196226E-3	4.424124E-3	5.713993E-4	5.813402E-3	4.178973E-4	2.398898E-3	1.171114E-2	-3.809525E-3	-7.144747E-4	-1.673316E-3	9.311676E-3	1.302035E-3	9.533394E-3	4.132855E-3	6.941368E-3	-2.144993E-3	2.043634E-3	-6.933372E-4	1.793610E-3	4.996778E-4	6.928496E-3	-5.372636E-4	6.918993E-3	6.475715E-3	8.106778E-3	9.632587E-3	4.291852E-3	1.150359E-2	1.536330E-3	4.841301E-3	1.078201E-2	4.338065E-3	1.083871E-2	1.171005E-2	7.235047E-3	7.196631E-3	1.313189E-4	3.198553E-3	8.770083E-3	-1.282738E-3	-6.739472E-3	8.592310E-4	7.840486E-3	-5.213813E-3	-2.515150E-3	7.382911E-3	3.821025E-3	6.975926E-3	-3.969444E-3	5.564952E-3	3.826661E-3	1.494919E-2	9.281879E-3	-1.963321E-3	-2.766657E-3	1.612521E-3	-5.697836E-4	3.301689E-3	1.088388E-2	1.383376E-2	2.089713E-3	1.514880E-3	5.490494E-3	-2.004578E-3	1.987243E-3	1.415738E-2	5.634492E-3	5.351408E-3	8.557826E-3	-7.208216E-3	-4.240138E-3	-1.518091E-3	-4.338327E-3	-4.514119E-3	1.946679E-3	7.595568E-3	-2.525305E-3	1.592956E-2	-1.047774E-3	-8.890694E-4	8.520708E-3	-4.447181E-3	1.186989E-2	2.621390E-3	8.213009E-3	3.369494E-3	3.134128E-3	2.810091E-3	3.420613E-3	-2.026482E-3	1.168474E-3	5.336205E-3	-2.025759E-4	-3.122664E-3	1.028146E-3	9.494752E-3	4.877095E-3	1.193248E-3	1.150786E-3	-8.466404E-3	5.035943E-3	5.583767E-4	9.572323E-3	1.741483E-3	1.322427E-2	1.252868E-2	6.969107E-4	8.177484E-3	2.599808E-3	9.124967E-3	5.303937E-3	8.104862E-3	-3.789812E-3	3.726336E-3	-3.079645E-3	3.458438E-3	-1.954672E-3	8.902936E-3	4.649384E-3	1.560216E-3	-4.552986E-3	2.459071E-3	-5.787006E-3	-4.792370E-3	7.036454E-3	4.124748E-3	5.913411E-3	1.450826E-3	5.714360E-3	1.030200E-2	2.622039E-3	2.121223E-3	5.363805E-3	-6.206473E-3	-2.414354E-4	-3.447585E-3	1.230223E-2	4.774918E-3	2.669399E-3	-4.602194E-4	9.247904E-3	1.393206E-2	-6.018671E-4	2.930466E-3	9.784555E-3	-1.221432E-3	1.022109E-2	1.401409E-3	2.141410E-4	-1.896510E-3	1.863697E-3	-3.200592E-4	2.471748E-3	3.743572E-3	3.276745E-3	1.148103E-2
5.325170E+2	-1.450910E-3	6.033106E-3	1.152774E-2	5.610379E-3	1.838279E-2	1.114461E-2	1.441078E-2	2.119698E-2	5.448249E-3	1.034534E-2	1.271400E-2	5.856312E-3	1.000998E-2	1.898116E-2	1.333470E-2	2.142893E-2	5.949018E-3	8.903407E-3	1.030203E-2	1.123296E-2	4.600009E-4	1.125272E-2	1.028230E-2	1.381623E-2	8.642233E-3	8.374730E-3	1.156045E-2	5.357544E-3	1.711360E-2	1.117872E-2	1.120534E-2	3.816686E-3	1.543650E-2	1.819811E-2	1.087165E-2	5.403730E-3	1.100653E-2	8.977320E-3	3.568073E-3	-1.999781E-3	7.389203E-3	6.424067E-3	6.336121E-3	1.711155E-2	5.974362E-3	2.504075E-3	4.905219E-3	1.310427E-2	6.979706E-3	1.169637E-2	-1.747362E-5	9.411752E-3	6.711800E-3	1.553070E-3	2.594600E-3	1.988031E-2	1.093487E-2	8.970315E-3	1.632803E-2	1.333048E-2	1.415491E-2	2.930350E-3	6.545393E-3	9.366314E-3	1.196316E-2	6.077901E-4	5.342736E-3	5.312795E-3	3.655668E-3	1.461510E-2	9.616411E-3	1.254215E-2	1.313971E-2	1.093475E-2	1.388994E-2	1.299983E-2	9.843774E-3	7.498909E-3	-3.909291E-4	1.747673E-2	8.384874E-3	7.765112E-3	4.394219E-3	9.618611E-3	7.202544E-3	1.466745E-2	8.016006E-3	8.778529E-3	1.047182E-2	1.158665E-2	8.214095E-3	6.948542E-3	5.722311E-3	9.432347E-3	3.364735E-3	1.372264E-2	7.685755E-3	6.000532E-3	6.736920E-3	5.615295E-3	1.355031E-2	8.519344E-3	2.108477E-2	9.346259E-3	1.347129E-2	1.313560E-2	4.779404E-3	2.278129E-2	1.286426E-2	8.790309E-3	1.630047E-2	4.904154E-3	1.339794E-2	7.890121E-3	3.638476E-3	4.490363E-3	1.028674E-2	-1.779385E-3	9.176222E-3	1.088571E-2	3.751836E-3	1.099819E-2	1.334980E-2	1.377997E-2	1.203117E-2	1.019325E-2	1.231878E-2	1.590153E-2	1.623755E-2	1.270824E-2	1.127893E-2	1.447438E-2	8.947247E-3	5.675986E-3	3.126455E-3	1.481601E-2	1.517440E-2	1.760596E-2	1.342667E-2	3.104845E-3	1.471427E-2	9.345413E-3	9.661433E-3	7.658972E-3	9.820521E-3	1.006794E-2	5.585277E-3	1.286744E-2	1.283874E-2	1.095051E-2	3.807005E-3	7.373124E-3	1.585707E-2	1.474198E-2	1.366454E-2	5.186127E-3	7.069627E-3	2.250803E-2	5.117679E-3	9.832917E-3	1.260405E-2	9.738928E-3	1.121137E-2	1.116403E-2	1.271822E-2	6.950979E-3	1.649016E-2	1.893462E-2	2.314810E-2	-1.346698E-3	-1.657647E-5
5.330280E+2	1.810835E-2	1.665124E-2	2.429468E-2	1.656554E-2	2.579649E-2	1.763537E-2	2.165457E-2	2.691444E-2	2.676223E-2	2.239667E-2	2.351211E-2	1.399014E-2	2.273401E-2	2.629673E-2	3.239346E-2	1.955038E-2	2.128360E-2	1.880076E-2	3.161527E-2	2.098816E-2	2.069345E-2	2.763226E-2	1.082030E-2	1.822673E-2	3.240817E-2	1.319724E-2	2.471270E-2	1.863751E-2	2.293957E-2	2.481229E-2	3.168015E-2	3.051171E-2	3.307420E-2	2.367603E-2	3.397644E-2	3.511154E-2	1.593842E-2	3.106646E-2	1.746862E-2	2.212089E-2	2.673804E-2	1.573059E-2	2.499117E-2	3.438258E-2	1.238102E-2	1.961542E-2	1.876604E-2	2.163376E-2	7.368773E-3	1.853833E-2	2.221815E-2	2.121092E-2	5.610145E-3	2.223656E-2	1.948743E-2	2.080206E-2	2.766223E-2	1.316909E-2	2.159606E-2	2.612014E-2	2.663305E-2	2.130764E-2	2.448108E-2	2.810074E-2	2.165135E-2	2.768558E-2	2.112108E-2	2.127720E-2	1.523361E-2	1.153759E-2	2.147411E-2	3.311581E-2	2.339343E-2	2.580131E-2	2.242458E-2	1.629617E-2	2.102563E-2	2.015849E-2	9.228571E-3	2.114249E-2	2.692463E-2	1.601308E-2	1.118855E-2	2.918073E-2	2.595861E-2	2.810100E-2	2.363208E-2	4.137759E-2	2.339062E-2	3.034259E-2	1.987075E-2	2.573142E-2	3.131854E-2	2.307281E-2	2.215236E-2	2.140020E-2	1.736033E-2	1.888985E-2	2.450976E-2	1.931070E-2	2.472110E-2	2.973636E-2	2.113799E-2	3.044470E-2	3.548508E-2	1.848074E-2	2.368935E-2	1.841711E-2	3.137243E-2	1.693113E-2	3.219818E-2	2.367396E-2	1.804191E-2	2.360759E-2	2.090165E-2	3.029728E-2	1.838476E-2	2.542669E-2	1.697749E-2	2.523164E-2	2.152047E-2	1.534061E-2	2.581832E-2	2.598165E-2	1.962348E-2	1.544961E-2	2.164996E-2	1.986920E-2	1.490280E-2	2.022092E-2	2.943325E-2	2.314602E-2	2.190618E-2	2.437396E-2	2.347149E-2	3.657079E-2	3.367901E-2	8.195074E-3	2.526567E-2	1.885451E-2	2.387858E-2	2.508264E-2	3.298244E-2	1.473939E-2	2.487898E-2	1.472314E-2	2.439119E-2	2.292660E-2	3.430518E-2	2.663820E-2	2.651486E-2	3.355439E-2	1.904837E-2	3.683647E-2	1.616924E-2	2.586897E-2	2.434527E-2	2.052259E-2	1.794064E-2	3.386275E-2	2.244075E-2	2.166784E-2	3.744694E-2	2.312735E-2	1.667891E-2	1.645616E-2	2.589574E-2	3.480099E-2	2.979855E-2	1.309191E-2	5.358077E-2
5.331630E+2	4.094078E-2	4.146377E-2	3.922666E-2	2.349501E-2	1.604668E-2	2.921323E-2	3.155972E-2	2.505359E-2	3.135389E-2	2.076135E-2	2.893808E-2	3.201299E-2	2.262725E-2	2.481898E-2	2.834022E-2	3.412537E-2	4.056888E-2	3.425503E-2	3.359621E-2	3.775614E-2	3.299593E-2	3.996918E-2	2.816281E-2	2.298498E-2	3.661759E-2	3.538532E-2	3.693459E-2	3.560963E-2	4.168942E-2	2.944060E-2	1.888284E-2	3.354134E-2	4.177050E-2	2.756815E-2	2.011461E-2	3.241586E-2	2.890108E-2	2.741121E-2	3.220401E-2	2.162275E-2	3.751206E-2	1.981836E-2	2.885970E-2	4.201926E-2	2.157323E-2	3.157028E-2	2.854138E-2	2.215819E-2	4.501560E-2	1.945497E-2	2.375013E-2	1.961107E-2	2.487381E-2	3.306682E-2	2.466753E-2	3.211025E-2	3.330966E-2	2.769258E-2	2.953066E-2	3.135391E-2	3.136241E-2	3.353280E-2	3.105915E-2	3.952956E-2	2.039022E-2	2.812707E-2	3.089492E-2	3.502062E-2	2.786524E-2	3.285088E-2	3.758373E-2	3.083431E-2	2.937580E-2	3.905849E-2	3.137437E-2	2.574390E-2	3.370836E-2	3.579178E-2	2.211416E-2	3.594961E-2	2.977218E-2	2.434204E-2	2.623590E-2	3.226499E-2	4.972629E-2	3.000070E-2	3.135474E-2	3.950284E-2	3.531814E-2	2.784130E-2	3.180860E-2	3.003629E-2	2.900818E-2	3.852134E-2	4.221278E-2	3.349724E-2	2.416607E-2	3.348129E-2	3.857833E-2	3.052903E-2	3.534362E-2	2.479115E-2	2.184590E-2	3.932437E-2	3.926872E-2	2.545695E-2	2.057010E-2	2.559453E-2	1.731702E-2	3.556169E-2	3.143228E-2	3.684922E-2	2.469834E-2	2.899325E-2	3.925782E-2	3.867605E-2	2.137442E-2	3.502820E-2	2.334165E-2	3.043571E-2	3.827894E-2	2.359568E-2	3.086511E-2	3.826417E-2	2.718564E-2	3.338773E-2	3.360212E-2	4.257052E-2	2.850080E-2	3.867278E-2	2.880072E-2	1.919786E-2	2.518928E-2	3.120998E-2	3.053569E-2	3.505326E-2	2.825015E-2	2.175336E-2	2.571843E-2	4.152950E-2	2.701698E-2	4.089203E-2	3.226377E-2	3.091553E-2	2.844287E-2	2.421278E-2	3.304070E-2	2.980741E-2	2.342371E-2	2.500597E-2	2.919628E-2	2.933291E-2	3.447148E-2	2.866427E-2	3.967268E-2	4.294392E-2	1.977775E-2	3.129040E-2	3.191081E-2	2.974706E-2	3.121257E-2	3.574695E-2	3.239762E-2	3.168939E-2	4.082842E-2	3.056941E-2	3.196462E-2	4.180458E-2	3.143458E-2	1.651216E-2	5.341389E-2
5.333130E+2	3.337722E-2	3.350883E-2	3.430771E-2	3.105495E-2	4.244804E-2	3.371721E-2	2.622224E-2	3.027209E-2	4.437314E-2	3.995411E-2	3.593097E-2	3.648143E-2	3.942356E-2	3.706581E-2	4.184614E-2	5.007838E-2	3.702367E-2	3.306665E-2	4.830239E-2	4.747355E-2	3.045095E-2	3.292854E-2	3.681726E-2	2.603431E-2	2.894278E-2	5.066776E-2	4.540351E-2	3.394874E-2	4.747174E-2	2.937692E-2	3.866818E-2	4.396565E-2	4.415045E-2	4.894004E-2	2.709935E-2	4.331227E-2	3.486568E-2	2.534311E-2	4.724859E-2	4.165424E-2	4.776705E-2	2.868282E-2	3.773719E-2	3.439134E-2	2.041990E-2	3.778317E-2	3.945362E-2	4.076884E-2	4.372908E-2	4.548117E-2	3.934018E-2	3.659623E-2	3.771756E-2	3.977364E-2	3.032826E-2	3.076386E-2	4.620824E-2	3.737443E-2	5.009966E-2	3.715838E-2	3.806521E-2	5.289221E-2	3.879134E-2	4.144708E-2	5.453758E-2	3.569534E-2	3.986355E-2	2.457346E-2	4.002850E-2	4.672476E-2	4.747034E-2	3.648918E-2	5.132127E-2	3.952317E-2	5.061483E-2	3.899561E-2	4.589755E-2	3.329393E-2	3.612783E-2	3.539829E-2	4.606761E-2	4.310874E-2	3.730523E-2	5.241744E-2	3.854362E-2	3.394354E-2	5.265036E-2	4.354726E-2	4.778075E-2	2.683738E-2	3.256093E-2	3.845937E-2	4.069663E-2	4.078698E-2	3.966274E-2	3.051586E-2	4.586654E-2	4.370557E-2	3.040442E-2	4.335779E-2	4.330341E-2	3.864648E-2	2.286025E-2	4.186488E-2	4.971032E-2	3.571440E-2	3.471970E-2	4.309450E-2	4.163543E-2	4.374333E-2	4.009905E-2	4.377007E-2	4.133854E-2	4.744903E-2	2.497764E-2	3.646289E-2	3.721608E-2	3.898585E-2	3.642661E-2	3.523937E-2	3.527021E-2	3.388378E-2	3.680121E-2	3.543105E-2	3.821299E-2	3.877896E-2	3.071653E-2	4.035253E-2	3.133057E-2	3.213214E-2	3.992813E-2	3.356591E-2	2.660524E-2	4.455458E-2	2.609818E-2	4.169878E-2	4.253536E-2	5.120272E-2	3.129321E-2	3.475898E-2	4.313568E-2	4.569986E-2	4.662354E-2	4.917338E-2	4.985686E-2	3.801514E-2	5.178472E-2	4.377461E-2	4.102975E-2	3.618706E-2	4.704285E-2	3.163273E-2	3.110618E-2	3.216735E-2	5.219711E-2	6.126514E-2	3.066691E-2	4.210115E-2	4.211832E-2	3.873699E-2	4.501623E-2	3.883203E-2	5.320533E-2	4.146124E-2	4.079195E-2	3.255393E-2	4.483810E-2	5.831151E-2	3.845697E-2	3.523397E-2	5.795683E-2
5.334520E+2	4.368954E-2	6.946520E-2	3.985533E-2	5.243108E-2	4.577208E-2	5.627531E-2	4.747835E-2	4.715462E-2	5.032397E-2	4.978699E-2	4.266599E-2	4.623948E-2	4.555429E-2	5.960302E-2	4.907335E-2	4.941616E-2	5.165797E-2	4.603450E-2	4.691010E-2	5.039027E-2	4.853158E-2	5.556155E-2	4.137612E-2	3.814559E-2	5.412539E-2	5.484893E-2	6.221430E-2	3.518997E-2	5.488182E-2	3.429774E-2	5.178454E-2	4.986882E-2	5.074047E-2	4.865679E-2	5.872403E-2	4.611448E-2	4.662516E-2	5.674486E-2	4.502309E-2	5.008987E-2	3.818723E-2	4.723688E-2	3.792940E-2	4.322865E-2	4.078673E-2	5.002140E-2	6.591707E-2	5.879684E-2	6.070122E-2	5.556311E-2	4.926075E-2	3.937154E-2	5.134317E-2	4.465828E-2	4.623482E-2	5.335122E-2	5.075382E-2	5.818181E-2	5.465901E-2	5.914715E-2	5.904466E-2	4.364827E-2	5.704449E-2	5.704629E-2	6.404152E-2	5.225435E-2	5.194316E-2	6.052088E-2	5.094824E-2	4.694007E-2	5.317249E-2	4.591535E-2	5.343886E-2	5.150497E-2	5.915572E-2	5.191259E-2	5.004336E-2	5.411661E-2	5.275222E-2	5.283323E-2	5.739911E-2	5.642496E-2	4.205595E-2	6.175053E-2	4.152249E-2	6.013884E-2	6.601610E-2	6.012861E-2	4.950773E-2	5.839950E-2	4.338858E-2	6.488885E-2	4.859334E-2	5.015697E-2	5.472499E-2	6.819878E-2	4.667964E-2	5.151968E-2	5.388647E-2	4.517026E-2	6.015261E-2	5.094292E-2	4.873374E-2	4.047864E-2	5.823326E-2	3.808236E-2	4.231172E-2	5.247569E-2	6.567104E-2	4.837362E-2	5.841717E-2	5.117814E-2	5.141666E-2	4.335092E-2	5.313798E-2	4.908050E-2	5.027091E-2	3.861044E-2	5.680788E-2	5.471996E-2	5.781553E-2	5.820413E-2	3.520184E-2	4.872198E-2	5.716122E-2	5.074757E-2	4.889331E-2	5.144647E-2	5.670339E-2	5.315149E-2	4.362860E-2	5.918907E-2	5.968276E-2	5.372146E-2	5.877727E-2	5.381110E-2	4.329143E-2	5.417898E-2	5.674896E-2	3.928541E-2	5.264684E-2	4.543266E-2	4.997195E-2	4.453891E-2	4.909107E-2	5.056694E-2	4.806737E-2	5.604254E-2	5.746730E-2	5.837287E-2	5.769149E-2	5.258073E-2	4.686189E-2	4.752465E-2	5.080462E-2	5.552162E-2	5.332403E-2	4.142563E-2	6.174003E-2	4.292368E-2	4.973169E-2	5.489517E-2	5.466324E-2	6.093884E-2	5.213728E-2	5.411751E-2	4.170736E-2	4.974160E-2	6.081004E-2	4.369441E-2	7.610525E-2
5.336080E+2	8.232002E-2	8.782142E-2	6.050933E-2	6.107814E-2	6.368821E-2	7.120977E-2	6.455625E-2	7.106034E-2	5.579508E-2	6.214887E-2	7.510322E-2	5.802559E-2	7.713479E-2	6.156188E-2	6.758576E-2	6.917252E-2	5.880416E-2	7.460491E-2	5.980491E-2	5.612542E-2	7.752190E-2	7.068420E-2	6.386470E-2	8.069666E-2	7.822745E-2	7.780897E-2	7.325026E-2	7.424484E-2	7.252413E-2	6.403054E-2	6.389499E-2	7.840250E-2	5.291078E-2	7.080335E-2	6.265344E-2	7.613566E-2	6.943647E-2	6.547394E-2	6.859550E-2	7.521988E-2	6.200078E-2	8.413036E-2	6.341440E-2	7.264495E-2	6.665054E-2	6.908042E-2	6.942651E-2	7.096557E-2	7.770169E-2	6.561253E-2	6.354656E-2	6.439039E-2	6.792283E-2	7.247606E-2	7.067391E-2	7.060309E-2	8.689226E-2	6.760437E-2	6.954099E-2	8.468812E-2	7.227914E-2	7.133719E-2	7.234589E-2	7.856090E-2	8.631332E-2	6.831081E-2	6.461568E-2	7.055503E-2	6.947736E-2	7.600632E-2	7.028745E-2	6.841204E-2	6.768184E-2	6.724559E-2	6.716423E-2	7.642613E-2	7.620642E-2	6.316210E-2	8.569103E-2	6.921319E-2	8.101911E-2	6.605745E-2	5.947728E-2	7.657489E-2	6.841664E-2	7.877720E-2	6.617256E-2	6.710832E-2	8.026440E-2	7.207401E-2	6.990382E-2	7.109143E-2	6.546649E-2	5.901808E-2	8.307722E-2	5.696745E-2	7.565947E-2	6.638469E-2	6.766607E-2	5.822587E-2	6.892198E-2	7.536950E-2	5.970158E-2	6.764118E-2	8.614227E-2	7.420252E-2	6.671443E-2	6.678675E-2	6.948128E-2	6.733322E-2	8.414612E-2	6.982110E-2	6.588298E-2	7.003404E-2	7.215163E-2	5.443965E-2	6.178111E-2	8.803213E-2	7.715647E-2	7.415491E-2	6.796253E-2	6.773330E-2	5.516465E-2	4.724883E-2	6.980313E-2	6.267039E-2	5.828344E-2	8.019224E-2	5.980259E-2	6.486951E-2	5.870524E-2	5.777765E-2	7.965680E-2	7.176547E-2	6.453503E-2	7.299472E-2	6.688618E-2	6.153074E-2	6.209089E-2	6.589489E-2	8.465426E-2	6.451003E-2	6.389419E-2	6.877694E-2	7.601954E-2	7.477072E-2	6.761926E-2	7.777852E-2	7.874094E-2	6.470875E-2	8.249599E-2	7.846975E-2	7.263505E-2	7.497099E-2	7.266172E-2	6.418635E-2	7.092190E-2	7.130105E-2	6.821428E-2	6.895747E-2	5.388691E-2	9.450282E-2	9.071138E-2	7.740299E-2	7.053034E-2	7.360623E-2	6.572375E-2	6.955216E-2	7.992525E-2	5.397336E-2	6.084444E-2
5.337580E+2	1.044377E-1	1.079145E-1	1.053311E-1	8.577498E-2	1.091990E-1	9.174405E-2	9.420056E-2	1.022319E-1	1.173827E-1	1.060495E-1	9.804881E-2	8.942681E-2	9.710837E-2	8.826365E-2	9.908339E-2	9.943652E-2	9.484835E-2	1.070506E-1	1.123187E-1	1.027526E-1	1.146992E-1	8.984238E-2	9.518845E-2	1.081688E-1	9.685530E-2	1.068846E-1	1.010757E-1	8.983118E-2	9.894009E-2	9.530740E-2	1.019107E-1	1.056145E-1	1.121027E-1	8.695627E-2	8.917022E-2	9.732386E-2	9.582151E-2	1.020354E-1	9.716475E-2	9.913346E-2	1.000064E-1	1.022385E-1	8.934365E-2	8.134469E-2	1.012492E-1	1.165137E-1	8.678998E-2	1.062471E-1	9.813170E-2	9.543863E-2	1.026166E-1	9.992695E-2	1.145246E-1	9.350683E-2	9.476174E-2	1.004690E-1	9.923249E-2	1.123179E-1	1.044966E-1	1.036443E-1	9.182047E-2	9.486840E-2	9.011935E-2	1.087338E-1	9.858608E-2	1.045050E-1	1.060717E-1	9.263376E-2	1.028801E-1	8.864478E-2	1.099439E-1	9.201833E-2	1.069509E-1	8.928876E-2	9.589727E-2	9.616045E-2	9.411482E-2	8.445145E-2	8.968031E-2	9.468785E-2	8.924499E-2	1.108572E-1	8.793558E-2	9.349004E-2	1.047269E-1	9.100802E-2	9.736331E-2	9.421994E-2	9.451494E-2	9.455247E-2	1.193699E-1	1.027453E-1	1.073755E-1	1.032405E-1	9.972490E-2	1.071714E-1	8.595662E-2	1.154903E-1	1.046778E-1	1.059598E-1	1.077585E-1	1.167856E-1	9.157635E-2	1.016096E-1	9.395644E-2	1.014585E-1	1.218024E-1	9.184118E-2	9.658358E-2	8.961038E-2	1.029727E-1	9.627072E-2	9.615819E-2	9.337946E-2	9.637128E-2	1.046510E-1	1.026739E-1	1.071516E-1	1.031372E-1	1.078239E-1	9.573774E-2	1.070029E-1	8.416962E-2	1.107947E-1	1.047451E-1	1.212713E-1	1.140252E-1	1.003969E-1	1.028470E-1	1.094564E-1	1.011202E-1	8.763267E-2	9.403496E-2	9.137362E-2	1.073298E-1	1.200438E-1	9.475460E-2	9.558952E-2	1.070079E-1	9.696782E-2	1.091398E-1	9.730122E-2	1.160709E-1	1.052733E-1	1.009335E-1	9.418073E-2	1.011100E-1	1.000818E-1	8.738655E-2	1.094492E-1	9.692341E-2	9.867308E-2	1.084411E-1	9.694258E-2	1.046966E-1	1.066719E-1	1.036362E-1	9.485696E-2	1.152485E-1	8.782485E-2	1.012408E-1	9.051224E-2	1.026017E-1	8.029452E-2	9.254332E-2	1.044056E-1	1.187464E-1	1.129368E-1	1.069368E-1	9.400938E-2	9.086614E-2
5.339190E+2	1.629235E-1	1.644226E-1	1.538987E-1	1.703654E-1	1.742502E-1	1.736502E-1	1.636232E-1	1.678657E-1	1.722057E-1	1.493449E-1	1.696151E-1	1.466570E-1	1.935812E-1	1.692066E-1	1.530261E-1	1.667733E-1	1.619436E-1	1.612613E-1	1.745897E-1	1.801875E-1	1.618900E-1	1.611316E-1	1.636082E-1	1.664900E-1	1.684880E-1	1.487563E-1	1.675121E-1	1.680228E-1	1.819364E-1	1.525562E-1	1.704896E-1	1.528561E-1	1.654726E-1	1.719399E-1	1.491846E-1	1.826520E-1	1.606098E-1	1.710077E-1	1.600323E-1	1.763112E-1	1.727820E-1	1.688160E-1	1.672450E-1	1.908903E-1	1.627314E-1	1.533506E-1	1.463594E-1	1.498832E-1	1.672740E-1	1.340521E-1	1.639970E-1	1.708240E-1	1.394742E-1	1.706709E-1	1.629215E-1	1.678888E-1	1.587838E-1	1.646728E-1	1.701132E-1	1.693226E-1	1.673312E-1	1.699913E-1	1.638121E-1	1.774191E-1	1.462470E-1	1.703665E-1	1.663148E-1	1.804247E-1	1.701690E-1	1.558579E-1	1.515473E-1	1.824050E-1	1.698924E-1	1.701322E-1	1.759679E-1	1.600113E-1	1.658079E-1	1.596304E-1	1.401846E-1	1.723683E-1	1.686402E-1	1.720408E-1	1.766178E-1	1.818757E-1	1.695795E-1	1.700700E-1	1.573183E-1	1.603079E-1	1.941361E-1	1.611876E-1	1.488809E-1	1.908848E-1	1.780229E-1	1.604251E-1	1.520453E-1	1.590703E-1	1.571474E-1	1.569354E-1	1.700880E-1	1.884096E-1	1.752591E-1	1.767472E-1	1.521674E-1	1.595326E-1	1.894288E-1	1.496106E-1	1.652516E-1	1.511674E-1	1.989582E-1	1.649001E-1	1.657082E-1	1.717058E-1	1.695923E-1	1.656893E-1	1.732488E-1	1.563536E-1	1.537567E-1	1.774803E-1	1.700527E-1	1.841310E-1	1.864977E-1	1.639990E-1	1.687467E-1	1.671675E-1	1.865704E-1	1.779565E-1	1.768354E-1	1.739396E-1	1.804771E-1	1.666809E-1	1.850528E-1	1.646591E-1	1.695899E-1	1.648174E-1	1.520415E-1	1.516117E-1	1.701818E-1	1.494017E-1	1.741575E-1	1.858147E-1	1.758401E-1	1.572017E-1	1.641682E-1	1.581532E-1	1.653180E-1	1.828201E-1	1.837867E-1	1.759352E-1	1.660048E-1	1.732304E-1	1.634517E-1	1.738678E-1	1.868801E-1	1.548467E-1	1.737687E-1	1.725625E-1	1.640033E-1	1.601421E-1	1.660673E-1	1.851318E-1	1.688861E-1	1.783986E-1	1.649017E-1	1.634711E-1	1.551875E-1	1.539711E-1	1.577336E-1	2.005268E-1	1.685582E-1	1.696298E-1	2.166266E-1
5.340690E+2	2.819377E-1	2.546443E-1	3.005241E-1	2.538453E-1	2.775526E-1	2.773059E-1	2.523293E-1	2.674051E-1	2.630596E-1	2.773901E-1	2.821220E-1	2.695859E-1	2.782719E-1	2.665285E-1	2.732351E-1	2.753842E-1	2.654895E-1	2.860575E-1	2.472203E-1	2.584963E-1	2.754285E-1	2.805479E-1	2.749153E-1	2.875454E-1	2.661451E-1	2.739419E-1	2.883403E-1	2.718602E-1	2.672401E-1	2.629405E-1	2.842482E-1	2.838030E-1	2.633127E-1	2.969335E-1	2.715434E-1	2.785288E-1	2.544793E-1	2.936680E-1	2.349338E-1	2.594254E-1	2.866866E-1	2.705579E-1	2.645806E-1	2.775131E-1	2.588353E-1	2.804277E-1	2.612917E-1	2.647722E-1	2.815485E-1	2.571373E-1	2.742663E-1	2.623053E-1	2.672789E-1	2.802036E-1	2.819036E-1	2.810656E-1	2.915610E-1	2.802159E-1	2.832444E-1	2.865464E-1	2.739315E-1	2.728048E-1	2.580209E-1	2.744700E-1	2.755340E-1	2.668181E-1	2.456251E-1	2.832528E-1	2.621229E-1	2.681449E-1	2.678413E-1	2.915279E-1	2.605988E-1	2.739998E-1	2.604657E-1	2.795673E-1	2.650630E-1	2.673674E-1	2.550426E-1	2.331228E-1	2.647941E-1	2.651124E-1	2.480500E-1	2.703213E-1	2.728099E-1	2.609604E-1	2.477417E-1	2.656573E-1	2.778523E-1	2.725074E-1	2.547567E-1	2.683117E-1	2.730998E-1	2.677382E-1	2.533026E-1	2.715587E-1	2.835729E-1	2.787806E-1	2.796652E-1	2.623713E-1	2.837267E-1	2.610353E-1	2.545221E-1	2.891671E-1	2.862445E-1	2.588639E-1	2.870430E-1	2.707661E-1	2.915803E-1	2.677496E-1	2.742991E-1	2.617754E-1	2.800614E-1	2.925056E-1	2.716014E-1	2.528604E-1	2.612549E-1	2.786622E-1	2.762188E-1	2.893557E-1	2.739808E-1	2.717908E-1	2.914451E-1	2.955420E-1	2.845790E-1	2.677843E-1	2.592937E-1	2.568886E-1	2.558765E-1	2.655009E-1	2.731769E-1	2.630488E-1	2.536220E-1	2.650265E-1	3.129829E-1	2.707404E-1	2.726244E-1	2.935372E-1	2.964501E-1	2.683921E-1	2.852502E-1	2.584817E-1	2.585621E-1	2.921218E-1	3.010394E-1	2.586586E-1	2.628184E-1	2.682982E-1	2.528146E-1	2.820902E-1	2.788229E-1	3.060866E-1	2.797762E-1	2.665405E-1	2.610975E-1	2.801909E-1	2.702777E-1	2.746690E-1	2.708250E-1	2.934759E-1	2.790140E-1	2.510008E-1	2.794495E-1	2.785189E-1	2.651187E-1	2.725662E-1	2.629871E-1	2.642302E-1	2.892119E-1	2.739171E-1	2.884030E-1
5.342040E+2	5.056286E-1	4.550578E-1	4.798405E-1	4.624772E-1	4.587328E-1	4.510258E-1	4.946762E-1	4.717385E-1	4.707881E-1	4.553699E-1	4.482475E-1	4.634888E-1	4.758778E-1	4.348744E-1	4.708120E-1	4.541183E-1	4.802313E-1	4.342301E-1	4.772672E-1	4.700909E-1	4.743220E-1	4.864041E-1	4.627587E-1	4.637019E-1	4.810332E-1	4.815023E-1	4.493312E-1	4.859033E-1	4.759168E-1	4.645721E-1	4.533485E-1	4.741503E-1	4.751609E-1	4.920979E-1	4.608622E-1	4.724687E-1	4.603151E-1	4.881994E-1	4.924733E-1	4.713583E-1	4.720243E-1	4.572592E-1	4.561523E-1	4.735634E-1	4.493112E-1	4.776567E-1	4.804993E-1	4.422903E-1	4.818161E-1	4.803133E-1	4.532503E-1	4.347897E-1	4.599657E-1	4.759589E-1	4.670333E-1	4.567211E-1	4.754793E-1	4.697253E-1	4.620917E-1	5.051509E-1	4.488396E-1	4.672054E-1	4.680667E-1	4.365112E-1	4.497168E-1	4.589072E-1	4.852080E-1	4.706399E-1	4.928622E-1	4.752441E-1	4.535229E-1	5.018880E-1	4.815137E-1	4.765956E-1	4.426581E-1	4.783004E-1	4.867554E-1	4.622751E-1	4.634909E-1	4.926389E-1	4.808656E-1	4.605338E-1	4.721613E-1	4.504815E-1	4.962705E-1	4.471295E-1	4.503126E-1	4.732931E-1	4.343072E-1	4.620729E-1	4.349916E-1	4.832995E-1	4.709431E-1	4.481576E-1	4.804649E-1	4.664416E-1	4.959835E-1	4.870806E-1	4.559850E-1	4.664077E-1	4.662901E-1	4.511334E-1	4.673389E-1	4.601892E-1	4.525450E-1	4.532945E-1	4.396308E-1	5.084767E-1	4.695072E-1	4.484843E-1	4.758398E-1	4.643777E-1	4.901414E-1	4.532933E-1	4.529413E-1	4.535784E-1	4.690206E-1	4.913063E-1	4.549343E-1	4.861251E-1	4.797338E-1	4.784971E-1	4.418671E-1	4.816877E-1	5.003561E-1	4.706139E-1	4.819478E-1	4.940432E-1	4.571424E-1	4.852808E-1	4.686486E-1	4.622697E-1	4.389169E-1	4.540687E-1	4.587478E-1	4.749616E-1	4.700510E-1	4.529169E-1	4.699125E-1	5.101553E-1	4.505494E-1	4.877411E-1	4.649964E-1	4.558220E-1	4.380662E-1	5.223052E-1	4.614018E-1	4.896736E-1	4.752249E-1	4.661743E-1	4.779575E-1	4.519982E-1	4.965929E-1	4.961093E-1	4.624623E-1	4.828455E-1	4.543293E-1	4.750059E-1	4.859239E-1	4.722693E-1	5.036406E-1	4.719684E-1	4.653196E-1	4.439272E-1	5.035941E-1	4.963872E-1	4.517333E-1	4.719598E-1	5.151424E-1	4.705940E-1	4.170572E-1
5.343650E+2	7.903375E-1	8.236503E-1	7.971414E-1	7.693845E-1	8.332708E-1	7.515981E-1	7.606493E-1	7.932139E-1	8.065558E-1	8.123132E-1	7.795301E-1	7.967348E-1	8.120715E-1	8.051158E-1	8.162036E-1	7.584296E-1	8.145359E-1	8.112941E-1	7.823663E-1	8.241470E-1	7.871442E-1	7.838335E-1	7.811298E-1	7.861643E-1	7.993115E-1	7.893397E-1	8.352908E-1	8.267462E-1	7.689716E-1	7.799367E-1	8.153011E-1	8.125338E-1	8.039387E-1	7.901266E-1	8.011794E-1	7.984995E-1	8.321504E-1	7.644306E-1	8.026277E-1	8.030206E-1	8.124972E-1	7.763268E-1	7.635254E-1	7.786396E-1	7.532104E-1	8.181903E-1	7.707985E-1	7.685636E-1	7.958240E-1	7.880086E-1	7.875447E-1	7.947979E-1	7.530720E-1	7.847438E-1	8.251249E-1	7.902000E-1	7.656547E-1	7.922258E-1	7.630720E-1	7.962104E-1	7.733839E-1	7.649936E-1	7.816696E-1	8.164123E-1	8.010011E-1	8.088871E-1	7.533367E-1	7.727347E-1	7.731334E-1	7.879034E-1	7.830813E-1	7.998508E-1	8.066953E-1	8.146073E-1	8.221180E-1	8.086887E-1	8.193886E-1	8.129557E-1	8.208505E-1	7.828576E-1	8.202165E-1	8.036345E-1	7.638841E-1	7.914934E-1	8.010356E-1	8.066611E-1	7.671747E-1	8.125078E-1	7.941541E-1	7.718221E-1	7.609555E-1	7.823353E-1	8.014359E-1	7.900341E-1	8.056531E-1	8.077156E-1	7.813608E-1	8.080565E-1	7.748414E-1	8.189258E-1	8.144846E-1	7.665546E-1	8.050746E-1	7.914652E-1	8.148266E-1	8.156084E-1	8.362335E-1	7.793450E-1	8.016346E-1	7.748086E-1	8.034608E-1	7.977769E-1	7.942415E-1	7.708505E-1	7.738701E-1	7.873056E-1	8.023711E-1	7.707500E-1	8.031533E-1	7.947989E-1	8.471716E-1	7.770852E-1	7.958840E-1	7.826734E-1	8.164264E-1	8.009973E-1	7.575544E-1	7.838454E-1	7.382000E-1	7.788459E-1	7.816207E-1	8.352879E-1	7.429237E-1	7.998009E-1	7.632887E-1	8.138186E-1	7.988415E-1	8.140557E-1	8.238473E-1	8.218838E-1	7.736823E-1	7.946124E-1	8.214098E-1	8.203886E-1	7.924326E-1	8.012707E-1	7.716202E-1	7.795614E-1	7.921405E-1	7.945910E-1	8.289658E-1	8.208918E-1	7.978612E-1	7.956662E-1	8.148497E-1	8.171738E-1	7.806637E-1	7.726821E-1	7.878415E-1	8.245268E-1	8.263739E-1	7.495371E-1	7.814254E-1	7.609572E-1	8.112192E-1	7.832990E-1	7.774024E-1	8.016182E-1	7.877964E-1	8.154167E-1	8.145948E-1
5.345160E+2	1.239112E+0	1.214279E+0	1.211036E+0	1.198969E+0	1.208313E+0	1.187302E+0	1.186640E+0	1.248632E+0	1.268622E+0	1.217564E+0	1.226400E+0	1.223514E+0	1.198425E+0	1.160261E+0	1.205206E+0	1.201680E+0	1.223587E+0	1.262845E+0	1.193847E+0	1.199863E+0	1.298173E+0	1.238316E+0	1.171387E+0	1.211701E+0	1.221185E+0	1.245349E+0	1.202158E+0	1.231966E+0	1.247997E+0	1.241414E+0	1.267881E+0	1.161956E+0	1.242440E+0	1.213976E+0	1.233732E+0	1.214546E+0	1.203558E+0	1.271469E+0	1.223290E+0	1.227362E+0	1.267114E+0	1.242442E+0	1.171329E+0	1.202168E+0	1.191767E+0	1.217449E+0	1.184187E+0	1.215145E+0	1.183826E+0	1.191891E+0	1.170636E+0	1.214882E+0	1.209025E+0	1.209518E+0	1.172663E+0	1.156456E+0	1.178620E+0	1.245901E+0	1.191449E+0	1.262314E+0	1.201416E+0	1.229030E+0	1.187539E+0	1.194700E+0	1.307367E+0	1.255800E+0	1.232777E+0	1.227178E+0	1.224887E+0	1.201567E+0	1.217612E+0	1.237311E+0	1.231398E+0	1.170537E+0	1.236027E+0	1.219270E+0	1.224535E+0	1.230899E+0	1.200679E+0	1.201598E+0	1.197412E+0	1.224581E+0	1.187076E+0	1.152571E+0	1.234106E+0	1.170718E+0	1.206519E+0	1.196982E+0	1.206929E+0	1.172909E+0	1.208460E+0	1.217002E+0	1.214859E+0	1.219231E+0	1.235371E+0	1.223706E+0	1.211303E+0	1.225316E+0	1.182642E+0	1.198514E+0	1.233883E+0	1.201185E+0	1.203421E+0	1.214471E+0	1.213081E+0	1.205620E+0	1.250237E+0	1.221628E+0	1.190628E+0	1.192864E+0	1.218412E+0	1.191939E+0	1.209367E+0	1.203714E+0	1.224613E+0	1.201901E+0	1.225231E+0	1.187642E+0	1.191081E+0	1.199188E+0	1.277090E+0	1.201832E+0	1.189788E+0	1.147808E+0	1.210940E+0	1.212815E+0	1.227918E+0	1.216823E+0	1.216108E+0	1.218269E+0	1.245388E+0	1.169598E+0	1.147076E+0	1.192742E+0	1.195648E+0	1.212177E+0	1.155946E+0	1.202707E+0	1.176066E+0	1.229498E+0	1.203036E+0	1.181425E+0	1.213378E+0	1.287919E+0	1.173407E+0	1.235198E+0	1.170759E+0	1.150005E+0	1.235826E+0	1.195450E+0	1.146379E+0	1.180020E+0	1.257845E+0	1.189887E+0	1.231464E+0	1.279859E+0	1.220099E+0	1.217950E+0	1.216249E+0	1.169450E+0	1.232797E+0	1.176890E+0	1.173603E+0	1.219503E+0	1.238314E+0	1.212545E+0	1.146251E+0	1.215535E+0	1.239475E+0	1.253119E+0	1.166806E+0
5.346620E+2	1.588002E+0	1.491384E+0	1.548349E+0	1.604740E+0	1.589424E+0	1.551889E+0	1.537120E+0	1.643353E+0	1.614907E+0	1.594144E+0	1.586194E+0	1.516961E+0	1.637661E+0	1.569177E+0	1.574988E+0	1.555650E+0	1.611418E+0	1.600189E+0	1.563402E+0	1.589875E+0	1.591581E+0	1.602849E+0	1.527250E+0	1.567672E+0	1.599467E+0	1.596594E+0	1.583885E+0	1.634917E+0	1.613361E+0	1.588985E+0	1.583862E+0	1.591716E+0	1.560201E+0	1.587452E+0	1.540237E+0	1.586083E+0	1.606005E+0	1.569243E+0	1.560191E+0	1.572590E+0	1.634509E+0	1.594180E+0	1.604620E+0	1.511026E+0	1.567773E+0	1.607966E+0	1.539193E+0	1.609593E+0	1.609686E+0	1.553642E+0	1.558929E+0	1.570583E+0	1.549256E+0	1.573534E+0	1.599150E+0	1.464494E+0	1.581595E+0	1.637295E+0	1.513328E+0	1.586482E+0	1.550837E+0	1.570359E+0	1.605150E+0	1.601229E+0	1.585541E+0	1.569289E+0	1.613098E+0	1.585715E+0	1.609048E+0	1.528808E+0	1.544582E+0	1.586328E+0	1.601565E+0	1.550242E+0	1.544198E+0	1.592233E+0	1.519039E+0	1.554134E+0	1.540122E+0	1.569647E+0	1.584501E+0	1.590881E+0	1.583727E+0	1.531251E+0	1.596127E+0	1.538258E+0	1.485090E+0	1.577576E+0	1.605805E+0	1.568725E+0	1.566548E+0	1.581754E+0	1.566255E+0	1.534751E+0	1.533869E+0	1.626117E+0	1.512973E+0	1.604101E+0	1.570489E+0	1.542147E+0	1.601430E+0	1.518378E+0	1.582985E+0	1.611432E+0	1.590400E+0	1.582700E+0	1.581614E+0	1.513234E+0	1.534275E+0	1.584433E+0	1.526012E+0	1.533844E+0	1.564407E+0	1.563203E+0	1.494775E+0	1.583430E+0	1.635362E+0	1.569343E+0	1.550930E+0	1.575296E+0	1.596151E+0	1.561957E+0	1.524351E+0	1.548707E+0	1.598300E+0	1.583905E+0	1.509818E+0	1.550131E+0	1.536967E+0	1.485855E+0	1.562881E+0	1.523884E+0	1.517742E+0	1.548687E+0	1.588074E+0	1.547377E+0	1.557000E+0	1.557237E+0	1.580400E+0	1.547950E+0	1.498284E+0	1.533331E+0	1.553345E+0	1.521951E+0	1.575988E+0	1.522954E+0	1.525103E+0	1.524156E+0	1.583609E+0	1.552493E+0	1.589284E+0	1.569796E+0	1.559271E+0	1.526889E+0	1.522373E+0	1.523642E+0	1.522845E+0	1.525141E+0	1.549005E+0	1.491684E+0	1.516335E+0	1.569920E+0	1.633252E+0	1.532134E+0	1.518903E+0	1.493329E+0	1.540083E+0	1.574535E+0	1.556296E+0	1.547000E+0	1.458843E+0
5.348280E+2	2.076301E+0	1.889790E+0	1.971222E+0	1.962802E+0	1.937254E+0	1.908546E+0	1.873856E+0	1.993855E+0	1.992499E+0	1.989503E+0	1.914540E+0	1.921562E+0	1.965684E+0	1.944697E+0	2.000866E+0	1.933577E+0	1.935874E+0	2.044800E+0	1.976660E+0	1.939230E+0	2.009864E+0	1.993358E+0	1.885991E+0	1.961791E+0	1.995950E+0	1.977134E+0	1.974051E+0	1.983509E+0	1.938244E+0	1.909523E+0	2.055316E+0	1.941278E+0	2.021997E+0	1.975957E+0	1.920683E+0	1.960390E+0	1.947781E+0	1.955105E+0	1.968796E+0	1.935422E+0	1.967916E+0	1.977001E+0	1.926005E+0	1.901331E+0	2.016104E+0	1.980512E+0	1.947269E+0	1.962800E+0	1.999370E+0	1.960750E+0	1.885125E+0	1.927964E+0	1.872545E+0	1.962946E+0	1.937953E+0	1.971816E+0	1.955468E+0	1.953073E+0	1.867327E+0	1.967300E+0	1.864074E+0	1.858017E+0	1.878576E+0	1.982305E+0	1.995572E+0	1.913355E+0	1.933721E+0	1.889437E+0	1.971970E+0	1.921337E+0	1.946316E+0	1.958447E+0	1.944747E+0	1.870494E+0	1.926269E+0	1.969751E+0	1.945938E+0	1.944444E+0	1.869204E+0	1.926485E+0	1.960360E+0	1.952511E+0	1.886274E+0	1.911519E+0	1.996302E+0	1.937804E+0	1.859760E+0	1.898361E+0	1.991532E+0	1.969637E+0	1.900501E+0	1.991699E+0	1.925987E+0	1.931154E+0	1.925898E+0	1.899363E+0	1.867480E+0	1.920836E+0	2.001826E+0	1.922087E+0	1.972845E+0	1.894182E+0	1.908891E+0	1.986995E+0	1.956623E+0	1.930763E+0	1.921868E+0	1.969661E+0	1.906433E+0	1.892269E+0	1.867002E+0	1.901897E+0	1.905557E+0	1.923186E+0	1.879439E+0	1.887487E+0	1.961052E+0	1.954278E+0	1.880921E+0	1.921921E+0	1.921838E+0	1.925821E+0	1.874194E+0	1.879210E+0	1.935690E+0	1.890877E+0	1.920969E+0	1.889516E+0	1.850793E+0	1.927694E+0	1.870106E+0	1.924021E+0	1.888716E+0	1.855341E+0	1.813485E+0	1.908860E+0	1.859406E+0	1.912575E+0	1.883766E+0	1.859984E+0	1.844162E+0	1.932868E+0	1.966190E+0	1.886404E+0	1.894665E+0	1.927973E+0	1.908332E+0	1.788121E+0	1.911604E+0	1.897066E+0	1.918388E+0	1.888407E+0	1.956408E+0	1.882301E+0	1.861367E+0	1.875658E+0	1.874408E+0	1.921255E+0	1.883528E+0	1.841983E+0	1.842470E+0	1.881539E+0	1.855574E+0	1.845269E+0	1.908011E+0	1.857866E+0	1.878652E+0	1.902077E+0	1.906256E+0	1.839895E+0	1.757772E+0
5.349740E+2	2.153704E+0	2.164167E+0	2.115946E+0	2.124749E+0	2.136461E+0	2.047583E+0	2.097889E+0	2.131630E+0	2.131744E+0	2.130596E+0	2.061972E+0	2.113144E+0	2.133173E+0	2.058767E+0	2.093317E+0	2.122917E+0	2.141645E+0	2.156286E+0	2.091314E+0	2.049202E+0	2.163909E+0	2.081860E+0	2.075081E+0	2.121943E+0	2.066982E+0	2.101770E+0	2.053211E+0	2.148792E+0	2.050201E+0	2.145537E+0	2.094704E+0	2.109032E+0	2.142022E+0	2.104029E+0	2.100406E+0	2.047995E+0	2.113374E+0	2.102070E+0	2.056885E+0	2.092889E+0	2.175480E+0	2.066971E+0	2.056097E+0	2.113698E+0	2.114077E+0	2.148251E+0	2.000474E+0	2.113835E+0	2.110411E+0	2.090091E+0	2.065558E+0	2.071152E+0	2.127102E+0	2.082983E+0	2.104730E+0	2.077373E+0	2.072101E+0	2.080589E+0	2.043747E+0	2.103916E+0	2.083189E+0	2.037581E+0	2.072350E+0	2.126629E+0	2.125652E+0	2.025896E+0	2.142126E+0	2.082591E+0	2.127103E+0	2.118410E+0	2.059922E+0	2.034866E+0	2.053185E+0	2.108281E+0	2.159097E+0	2.077880E+0	2.047367E+0	2.128760E+0	2.098142E+0	2.100218E+0	2.020888E+0	2.054622E+0	2.059745E+0	2.021143E+0	2.115069E+0	2.118207E+0	2.016925E+0	2.096919E+0	2.145668E+0	2.027286E+0	2.034447E+0	2.021234E+0	2.027187E+0	2.057846E+0	2.032452E+0	2.063480E+0	1.981698E+0	2.074095E+0	2.015767E+0	2.045129E+0	2.117321E+0	2.049301E+0	2.113056E+0	2.121569E+0	2.110467E+0	2.079942E+0	2.018224E+0	2.107527E+0	2.029472E+0	2.080241E+0	2.063680E+0	2.083817E+0	2.081111E+0	2.018988E+0	2.060530E+0	2.012240E+0	2.025712E+0	2.100327E+0	1.974189E+0	2.059227E+0	2.061126E+0	2.057891E+0	1.958038E+0	2.050240E+0	2.061625E+0	2.073560E+0	2.009186E+0	2.072746E+0	2.039860E+0	2.091227E+0	1.920749E+0	2.076803E+0	2.032246E+0	2.010714E+0	2.004450E+0	1.990957E+0	1.997085E+0	2.073816E+0	2.037585E+0	2.037728E+0	2.004429E+0	2.026542E+0	2.006761E+0	2.042148E+0	2.015916E+0	2.038481E+0	2.019077E+0	1.995309E+0	2.032364E+0	2.002081E+0	2.017510E+0	1.971841E+0	2.040624E+0	2.006682E+0	2.036653E+0	2.058449E+0	1.998987E+0	2.055705E+0	2.012023E+0	2.007585E+0	2.008676E+0	2.025888E+0	2.049843E+0	1.991602E+0	1.996745E+0	1.902634E+0	1.988846E+0	2.008410E+0	2.034649E+0	1.954571E+0	1.915943E+0
5.351090E+2	2.151205E+0	2.098811E+0	2.062307E+0	2.104006E+0	2.088631E+0	1.986757E+0	2.004363E+0	2.093737E+0	2.089766E+0	2.053963E+0	2.049189E+0	1.989599E+0	2.078414E+0	2.054552E+0	2.062699E+0	2.010422E+0	2.026478E+0	2.127743E+0	2.031013E+0	2.053847E+0	2.060084E+0	2.069677E+0	2.036836E+0	2.083249E+0	2.097329E+0	2.045534E+0	2.120695E+0	2.063608E+0	1.992788E+0	2.114474E+0	2.086542E+0	2.035359E+0	2.086866E+0	2.155812E+0	2.057549E+0	1.989586E+0	2.036613E+0	2.051715E+0	2.067871E+0	2.015165E+0	2.144302E+0	2.077089E+0	2.002596E+0	2.099559E+0	2.077910E+0	1.991844E+0	2.030689E+0	2.062057E+0	2.081299E+0	2.051398E+0	2.034910E+0	1.994057E+0	2.050184E+0	2.085399E+0	1.969566E+0	1.985099E+0	2.136101E+0	2.059535E+0	1.986043E+0	2.051572E+0	2.069314E+0	2.082950E+0	2.063466E+0	2.060888E+0	2.147903E+0	1.974115E+0	2.026510E+0	2.026073E+0	2.027793E+0	1.971891E+0	1.977136E+0	2.044076E+0	1.989345E+0	2.058252E+0	2.051809E+0	2.082786E+0	1.980728E+0	2.013045E+0	2.049998E+0	1.996885E+0	2.067165E+0	2.107455E+0	2.009681E+0	1.977506E+0	2.119783E+0	2.015673E+0	1.895013E+0	2.005790E+0	2.040433E+0	1.999978E+0	1.944473E+0	2.053305E+0	2.050160E+0	2.006146E+0	2.029541E+0	2.006720E+0	1.990906E+0	2.021997E+0	1.982899E+0	1.916379E+0	2.108686E+0	2.010934E+0	1.983570E+0	2.001020E+0	2.045000E+0	2.056664E+0	2.030799E+0	2.048956E+0	2.009282E+0	1.999487E+0	2.002498E+0	1.964657E+0	2.033608E+0	2.036275E+0	1.996613E+0	2.037119E+0	2.119771E+0	2.084618E+0	1.994585E+0	2.044454E+0	2.032370E+0	2.033026E+0	1.929026E+0	1.949800E+0	1.973885E+0	1.985552E+0	2.017027E+0	2.022113E+0	1.956380E+0	2.064865E+0	1.980007E+0	1.962944E+0	1.977111E+0	1.939666E+0	1.934302E+0	1.947122E+0	2.004985E+0	1.997471E+0	1.942980E+0	2.007033E+0	1.993482E+0	1.944801E+0	1.941373E+0	1.977332E+0	1.974032E+0	1.981216E+0	1.948036E+0	1.939048E+0	2.006651E+0	1.979408E+0	1.972776E+0	1.967342E+0	2.000269E+0	1.978374E+0	2.025652E+0	1.953432E+0	1.992280E+0	2.032404E+0	1.957302E+0	1.959772E+0	2.005920E+0	2.018751E+0	1.985018E+0	1.936376E+0	2.040396E+0	1.915288E+0	1.909332E+0	2.001032E+0	1.975110E+0	1.918672E+0	1.981365E+0
5.352600E+2	1.907412E+0	1.819745E+0	1.819977E+0	1.792602E+0	1.854691E+0	1.771773E+0	1.770204E+0	1.836845E+0	1.829925E+0	1.794035E+0	1.778291E+0	1.772675E+0	1.841851E+0	1.826052E+0	1.790170E+0	1.801912E+0	1.789429E+0	1.856833E+0	1.769196E+0	1.785668E+0	1.816826E+0	1.802198E+0	1.765176E+0	1.836746E+0	1.802425E+0	1.839121E+0	1.820962E+0	1.757554E+0	1.831998E+0	1.820286E+0	1.821325E+0	1.775003E+0	1.820912E+0	1.832659E+0	1.835500E+0	1.824807E+0	1.808894E+0	1.815712E+0	1.862156E+0	1.772620E+0	1.858447E+0	1.803179E+0	1.809363E+0	1.806063E+0	1.825324E+0	1.739562E+0	1.793245E+0	1.806195E+0	1.831645E+0	1.805630E+0	1.764133E+0	1.774340E+0	1.801746E+0	1.821591E+0	1.784938E+0	1.800515E+0	1.843803E+0	1.792603E+0	1.771585E+0	1.771867E+0	1.751067E+0	1.774565E+0	1.811491E+0	1.805656E+0	1.813571E+0	1.780183E+0	1.784694E+0	1.842356E+0	1.799578E+0	1.738809E+0	1.782099E+0	1.866714E+0	1.809264E+0	1.791560E+0	1.779190E+0	1.777437E+0	1.770703E+0	1.784139E+0	1.797207E+0	1.761380E+0	1.795594E+0	1.791132E+0	1.758783E+0	1.686700E+0	1.862430E+0	1.835712E+0	1.737314E+0	1.790489E+0	1.820656E+0	1.792344E+0	1.750568E+0	1.733618E+0	1.832411E+0	1.778837E+0	1.800132E+0	1.788776E+0	1.819092E+0	1.768565E+0	1.784960E+0	1.773717E+0	1.850074E+0	1.771371E+0	1.763972E+0	1.793988E+0	1.832780E+0	1.799032E+0	1.783340E+0	1.802527E+0	1.807061E+0	1.773464E+0	1.776887E+0	1.722308E+0	1.784183E+0	1.815153E+0	1.774287E+0	1.738511E+0	1.859842E+0	1.770342E+0	1.796094E+0	1.808124E+0	1.785745E+0	1.691937E+0	1.726812E+0	1.753281E+0	1.812456E+0	1.789051E+0	1.729235E+0	1.783496E+0	1.718195E+0	1.777229E+0	1.796206E+0	1.763311E+0	1.757503E+0	1.828603E+0	1.695523E+0	1.749205E+0	1.767963E+0	1.806483E+0	1.833422E+0	1.757772E+0	1.776563E+0	1.763980E+0	1.857089E+0	1.745474E+0	1.736060E+0	1.750791E+0	1.706244E+0	1.718781E+0	1.762055E+0	1.827349E+0	1.781630E+0	1.733440E+0	1.817215E+0	1.754592E+0	1.735275E+0	1.756864E+0	1.784799E+0	1.718882E+0	1.784946E+0	1.712654E+0	1.739785E+0	1.764656E+0	1.780869E+0	1.700725E+0	1.792829E+0	1.725065E+0	1.738318E+0	1.760470E+0	1.780764E+0	1.725430E+0	1.835173E+0
5.354110E+2	1.615499E+0	1.532825E+0	1.546784E+0	1.587761E+0	1.543447E+0	1.523141E+0	1.479461E+0	1.575103E+0	1.616917E+0	1.587522E+0	1.550720E+0	1.549572E+0	1.582685E+0	1.566234E+0	1.524491E+0	1.566974E+0	1.610481E+0	1.588833E+0	1.538410E+0	1.595134E+0	1.560736E+0	1.540834E+0	1.522387E+0	1.523944E+0	1.610257E+0	1.539661E+0	1.545857E+0	1.574698E+0	1.532731E+0	1.531831E+0	1.513893E+0	1.527218E+0	1.587084E+0	1.601891E+0	1.529763E+0	1.535458E+0	1.542917E+0	1.529277E+0	1.548334E+0	1.551449E+0	1.560188E+0	1.567335E+0	1.510939E+0	1.536905E+0	1.591003E+0	1.569788E+0	1.517141E+0	1.516676E+0	1.543595E+0	1.520702E+0	1.573021E+0	1.570039E+0	1.570168E+0	1.559096E+0	1.584027E+0	1.552139E+0	1.514520E+0	1.517177E+0	1.527277E+0	1.563776E+0	1.523409E+0	1.558755E+0	1.547078E+0	1.557838E+0	1.570305E+0	1.561588E+0	1.547234E+0	1.504479E+0	1.616153E+0	1.513079E+0	1.568106E+0	1.583728E+0	1.533973E+0	1.501812E+0	1.523219E+0	1.531296E+0	1.555350E+0	1.549708E+0	1.531600E+0	1.550739E+0	1.502565E+0	1.540745E+0	1.440102E+0	1.500294E+0	1.551426E+0	1.555701E+0	1.461754E+0	1.548777E+0	1.504947E+0	1.562119E+0	1.538022E+0	1.565301E+0	1.569332E+0	1.542490E+0	1.533416E+0	1.478375E+0	1.519360E+0	1.561702E+0	1.512445E+0	1.527184E+0	1.575128E+0	1.519623E+0	1.571130E+0	1.510950E+0	1.509769E+0	1.515777E+0	1.506298E+0	1.580704E+0	1.547650E+0	1.561281E+0	1.580397E+0	1.525335E+0	1.528994E+0	1.555499E+0	1.544503E+0	1.527967E+0	1.571615E+0	1.513301E+0	1.514189E+0	1.539545E+0	1.530532E+0	1.523113E+0	1.522126E+0	1.533732E+0	1.541470E+0	1.537911E+0	1.549331E+0	1.547177E+0	1.545340E+0	1.552008E+0	1.535960E+0	1.535973E+0	1.528083E+0	1.521702E+0	1.527084E+0	1.532623E+0	1.546448E+0	1.547817E+0	1.511445E+0	1.542176E+0	1.541765E+0	1.540713E+0	1.519296E+0	1.552677E+0	1.554530E+0	1.535931E+0	1.532051E+0	1.485425E+0	1.551453E+0	1.566835E+0	1.506588E+0	1.466429E+0	1.480496E+0	1.524769E+0	1.510492E+0	1.577041E+0	1.537317E+0	1.535731E+0	1.544042E+0	1.521138E+0	1.477621E+0	1.475265E+0	1.502556E+0	1.524421E+0	1.509691E+0	1.491197E+0	1.490705E+0	1.512221E+0	1.535422E+0	1.580264E+0	1.412436E+0
5.355630E+2	1.332304E+0	1.350462E+0	1.248390E+0	1.279950E+0	1.332507E+0	1.277056E+0	1.303808E+0	1.305122E+0	1.304216E+0	1.317704E+0	1.247883E+0	1.274954E+0	1.341532E+0	1.297357E+0	1.307537E+0	1.251199E+0	1.293137E+0	1.352120E+0	1.280761E+0	1.257073E+0	1.322232E+0	1.315965E+0	1.282260E+0	1.278351E+0	1.316557E+0	1.268597E+0	1.300730E+0	1.260669E+0	1.252239E+0	1.288321E+0	1.338794E+0	1.299155E+0	1.300043E+0	1.362486E+0	1.293194E+0	1.297994E+0	1.260476E+0	1.267365E+0	1.298468E+0	1.293087E+0	1.267106E+0	1.299567E+0	1.327753E+0	1.266654E+0	1.344234E+0	1.300690E+0	1.267031E+0	1.266845E+0	1.300893E+0	1.303864E+0	1.299343E+0	1.267190E+0	1.258364E+0	1.266290E+0	1.290917E+0	1.241265E+0	1.292906E+0	1.377436E+0	1.291496E+0	1.290493E+0	1.280935E+0	1.299217E+0	1.317009E+0	1.328426E+0	1.357203E+0	1.289685E+0	1.316013E+0	1.290786E+0	1.313154E+0	1.263961E+0	1.307117E+0	1.326146E+0	1.260810E+0	1.294903E+0	1.247442E+0	1.303374E+0	1.244568E+0	1.312858E+0	1.263557E+0	1.283302E+0	1.234798E+0	1.250725E+0	1.271637E+0	1.267489E+0	1.350894E+0	1.313430E+0	1.264652E+0	1.263388E+0	1.249730E+0	1.305894E+0	1.273234E+0	1.291839E+0	1.251621E+0	1.300537E+0	1.259048E+0	1.302814E+0	1.283153E+0	1.286499E+0	1.261592E+0	1.254318E+0	1.288635E+0	1.262053E+0	1.305018E+0	1.300293E+0	1.290280E+0	1.275046E+0	1.280209E+0	1.291333E+0	1.283057E+0	1.296616E+0	1.300404E+0	1.253695E+0	1.250206E+0	1.285874E+0	1.247877E+0	1.252237E+0	1.271451E+0	1.316363E+0	1.319016E+0	1.270323E+0	1.289760E+0	1.250047E+0	1.289231E+0	1.241400E+0	1.315587E+0	1.262472E+0	1.269535E+0	1.339162E+0	1.296814E+0	1.294565E+0	1.246394E+0	1.267892E+0	1.253105E+0	1.291858E+0	1.283690E+0	1.286114E+0	1.235659E+0	1.291243E+0	1.246127E+0	1.326861E+0	1.276471E+0	1.271564E+0	1.332050E+0	1.215679E+0	1.248271E+0	1.272357E+0	1.258341E+0	1.248471E+0	1.256352E+0	1.249311E+0	1.280873E+0	1.244262E+0	1.248203E+0	1.297129E+0	1.276425E+0	1.302255E+0	1.274661E+0	1.286124E+0	1.269857E+0	1.296026E+0	1.292550E+0	1.328098E+0	1.324323E+0	1.213431E+0	1.331108E+0	1.274023E+0	1.272502E+0	1.291119E+0	1.215978E+0	1.266726E+0	1.314344E+0
5.357190E+2	1.147479E+0	1.118962E+0	1.080548E+0	1.131194E+0	1.099505E+0	1.115345E+0	1.091605E+0	1.100731E+0	1.134460E+0	1.151770E+0	1.123267E+0	1.061112E+0	1.119540E+0	1.151028E+0	1.131506E+0	1.144151E+0	1.155363E+0	1.163502E+0	1.153170E+0	1.130708E+0	1.132475E+0	1.130420E+0	1.128602E+0	1.127476E+0	1.119449E+0	1.133267E+0	1.152205E+0	1.089386E+0	1.128637E+0	1.145673E+0	1.116733E+0	1.106663E+0	1.172452E+0	1.145247E+0	1.103085E+0	1.093118E+0	1.111616E+0	1.089140E+0	1.147865E+0	1.098922E+0	1.172765E+0	1.171969E+0	1.048595E+0	1.174454E+0	1.111699E+0	1.141469E+0	1.126645E+0	1.133654E+0	1.111340E+0	1.153345E+0	1.127244E+0	1.169355E+0	1.141779E+0	1.114473E+0	1.130135E+0	1.141352E+0	1.116567E+0	1.135030E+0	1.132975E+0	1.087960E+0	1.114974E+0	1.146389E+0	1.136265E+0	1.152569E+0	1.167635E+0	1.115504E+0	1.100723E+0	1.087166E+0	1.156631E+0	1.149412E+0	1.136679E+0	1.178341E+0	1.095864E+0	1.113242E+0	1.113298E+0	1.086877E+0	1.120178E+0	1.138602E+0	1.140323E+0	1.145855E+0	1.094726E+0	1.128159E+0	1.137517E+0	1.110175E+0	1.122863E+0	1.155797E+0	1.070988E+0	1.146986E+0	1.128748E+0	1.147646E+0	1.135415E+0	1.139521E+0	1.147211E+0	1.093731E+0	1.098136E+0	1.142827E+0	1.152315E+0	1.122676E+0	1.079272E+0	1.087323E+0	1.180989E+0	1.068281E+0	1.150464E+0	1.163936E+0	1.127400E+0	1.114352E+0	1.067902E+0	1.111431E+0	1.120613E+0	1.100702E+0	1.147747E+0	1.105447E+0	1.142158E+0	1.110438E+0	1.153668E+0	1.148159E+0	1.090425E+0	1.143493E+0	1.127203E+0	1.139346E+0	1.168713E+0	1.098775E+0	1.089752E+0	1.137696E+0	1.190381E+0	1.143731E+0	1.116168E+0	1.118993E+0	1.108290E+0	1.132686E+0	1.094309E+0	1.188458E+0	1.110357E+0	1.147544E+0	1.150784E+0	1.105263E+0	1.086998E+0	1.183054E+0	1.121333E+0	1.103025E+0	1.111184E+0	1.130707E+0	1.139235E+0	1.103760E+0	1.106874E+0	1.141327E+0	1.103252E+0	1.111225E+0	1.107865E+0	1.204721E+0	1.166706E+0	1.107733E+0	1.150995E+0	1.120267E+0	1.145146E+0	1.171635E+0	1.114502E+0	1.176968E+0	1.092009E+0	1.046961E+0	1.086855E+0	1.133737E+0	1.146810E+0	1.138130E+0	1.108486E+0	1.068526E+0	1.116786E+0	1.110077E+0	1.053987E+0	1.021671E+0	9.824471E-1
5.358650E+2	1.002626E+0	9.655251E-1	9.954688E-1	9.787044E-1	9.769706E-1	9.769910E-1	9.528205E-1	9.642775E-1	9.279696E-1	9.244810E-1	9.184600E-1	9.071783E-1	9.657980E-1	9.484399E-1	9.431750E-1	9.757931E-1	9.351652E-1	9.873702E-1	9.497727E-1	9.873207E-1	9.782924E-1	1.010146E+0	9.729065E-1	9.499469E-1	9.773457E-1	9.706400E-1	9.516485E-1	9.603884E-1	9.457998E-1	9.873286E-1	9.583940E-1	9.327970E-1	9.435588E-1	1.021638E+0	9.310032E-1	9.886599E-1	9.654749E-1	9.474551E-1	9.731649E-1	9.336091E-1	9.604784E-1	9.174335E-1	9.466726E-1	9.675838E-1	9.865695E-1	9.798305E-1	9.780372E-1	9.501355E-1	9.695032E-1	9.776205E-1	8.830070E-1	9.230048E-1	9.551499E-1	1.025376E+0	9.629084E-1	9.576768E-1	9.391313E-1	9.720167E-1	9.281745E-1	1.018155E+0	9.227355E-1	9.502132E-1	1.003288E+0	9.980026E-1	1.022499E+0	9.446258E-1	9.673521E-1	9.679740E-1	9.427174E-1	9.451505E-1	9.332248E-1	9.934059E-1	9.599058E-1	9.783291E-1	9.541600E-1	9.565323E-1	9.525890E-1	9.870203E-1	9.652766E-1	9.509645E-1	9.221766E-1	9.534625E-1	9.475309E-1	9.307663E-1	9.895057E-1	9.777287E-1	9.368465E-1	9.378134E-1	9.706341E-1	9.456317E-1	9.619312E-1	9.657220E-1	9.366245E-1	9.451097E-1	9.091118E-1	9.904859E-1	9.775237E-1	9.748857E-1	9.518709E-1	9.544494E-1	9.839536E-1	9.675962E-1	9.563374E-1	9.931923E-1	9.850990E-1	9.787471E-1	9.586947E-1	1.002619E+0	1.000636E+0	9.823427E-1	9.655862E-1	9.628480E-1	9.146150E-1	9.481693E-1	9.330764E-1	9.663368E-1	9.240096E-1	9.512206E-1	9.826650E-1	9.841209E-1	9.637594E-1	9.595918E-1	9.352655E-1	9.604081E-1	9.755276E-1	1.014650E+0	9.904890E-1	9.551484E-1	9.684349E-1	9.597329E-1	9.359056E-1	9.826055E-1	9.687275E-1	9.367914E-1	9.437234E-1	9.660564E-1	9.621006E-1	9.991023E-1	9.823512E-1	9.483815E-1	9.327771E-1	9.732028E-1	9.918361E-1	9.488827E-1	9.451375E-1	9.691268E-1	9.540274E-1	9.070293E-1	9.706816E-1	9.625615E-1	9.674412E-1	9.537270E-1	9.463794E-1	9.330748E-1	1.016292E+0	9.392778E-1	9.479533E-1	9.735884E-1	9.653265E-1	9.575326E-1	9.356803E-1	9.466360E-1	1.005532E+0	9.751126E-1	9.597033E-1	9.228028E-1	9.716425E-1	9.586340E-1	9.693207E-1	1.007077E+0	9.122350E-1
5.360120E+2	8.504661E-1	8.233496E-1	8.200932E-1	7.883113E-1	8.067521E-1	8.020447E-1	8.069699E-1	7.917972E-1	8.186175E-1	8.029941E-1	7.909658E-1	8.063803E-1	8.178630E-1	8.052380E-1	8.183156E-1	7.926543E-1	8.321995E-1	8.225164E-1	8.150940E-1	8.124812E-1	8.052661E-1	8.464899E-1	7.620474E-1	8.382278E-1	7.700732E-1	7.961502E-1	8.047994E-1	8.112871E-1	8.004398E-1	7.747214E-1	8.133298E-1	8.246074E-1	7.979038E-1	8.043906E-1	7.636596E-1	8.416425E-1	7.979486E-1	8.096626E-1	7.928066E-1	8.099122E-1	8.264741E-1	8.495363E-1	8.106117E-1	7.983090E-1	8.368943E-1	8.333844E-1	8.167739E-1	8.220554E-1	7.904780E-1	8.334250E-1	8.166101E-1	8.192002E-1	7.840075E-1	8.163141E-1	8.395599E-1	7.312473E-1	7.926659E-1	8.280945E-1	7.489008E-1	7.899693E-1	7.754780E-1	7.958770E-1	8.024161E-1	8.152005E-1	8.468414E-1	8.241855E-1	8.282175E-1	8.233207E-1	8.330629E-1	8.282097E-1	8.277811E-1	7.800571E-1	8.437530E-1	7.937481E-1	8.006415E-1	8.488907E-1	8.240874E-1	7.861612E-1	7.990184E-1	8.209711E-1	7.968783E-1	8.483288E-1	7.755339E-1	7.798609E-1	8.473771E-1	8.314386E-1	7.895192E-1	7.809421E-1	7.980340E-1	8.321405E-1	8.099284E-1	7.949197E-1	8.088087E-1	7.685418E-1	8.130709E-1	8.045579E-1	7.831007E-1	8.443080E-1	8.350939E-1	7.962980E-1	8.307775E-1	7.657541E-1	8.041031E-1	8.099439E-1	8.201551E-1	8.040130E-1	7.715630E-1	7.952694E-1	8.267408E-1	8.171075E-1	8.373203E-1	8.176074E-1	7.960392E-1	7.923658E-1	8.574785E-1	8.033285E-1	7.990107E-1	8.463543E-1	8.201248E-1	8.222864E-1	8.380998E-1	7.736573E-1	7.775837E-1	8.180547E-1	8.016339E-1	7.988494E-1	8.268692E-1	7.958026E-1	8.108260E-1	7.814239E-1	8.275833E-1	8.233415E-1	8.251616E-1	7.902913E-1	8.022872E-1	8.081068E-1	8.634110E-1	8.576896E-1	8.260316E-1	8.253523E-1	7.676728E-1	8.012381E-1	8.082195E-1	7.852804E-1	7.874532E-1	7.855788E-1	7.949891E-1	8.154251E-1	7.888007E-1	8.130692E-1	8.472504E-1	8.053996E-1	8.219758E-1	8.478694E-1	8.556723E-1	7.828397E-1	8.187084E-1	8.335785E-1	8.051198E-1	8.628795E-1	8.017353E-1	7.943172E-1	8.290078E-1	7.952036E-1	7.964425E-1	8.235289E-1	8.072869E-1	8.126773E-1	8.091188E-1	7.496040E-1	8.333077E-1
5.362730E+2	6.117187E-1	6.145284E-1	6.110501E-1	6.377828E-1	6.214858E-1	6.097139E-1	5.822099E-1	6.148258E-1	6.063806E-1	6.160773E-1	5.954887E-1	5.927986E-1	5.802581E-1	6.113025E-1	6.308458E-1	6.191057E-1	6.268551E-1	6.229458E-1	6.342338E-1	6.075100E-1	6.082877E-1	5.855550E-1	5.924141E-1	6.189456E-1	6.164412E-1	5.841397E-1	5.639228E-1	6.178245E-1	5.903934E-1	6.022486E-1	6.053381E-1	6.225601E-1	6.110227E-1	5.960202E-1	5.833982E-1	6.124940E-1	5.847211E-1	6.471819E-1	5.950900E-1	6.215262E-1	6.038308E-1	6.275149E-1	6.059431E-1	6.344117E-1	6.133868E-1	6.042091E-1	6.090204E-1	6.225346E-1	6.090116E-1	6.329959E-1	5.938665E-1	6.365082E-1	5.649612E-1	5.976598E-1	6.194146E-1	5.684008E-1	6.025145E-1	5.979195E-1	6.055242E-1	5.928387E-1	6.260899E-1	5.990567E-1	5.999455E-1	6.081724E-1	6.263543E-1	6.056791E-1	5.953365E-1	6.090844E-1	6.247216E-1	5.582959E-1	6.268594E-1	6.047626E-1	6.433166E-1	6.336078E-1	6.335087E-1	6.067110E-1	5.949411E-1	5.999225E-1	6.000725E-1	6.059466E-1	6.460140E-1	6.205936E-1	6.321862E-1	6.182660E-1	6.468190E-1	5.931089E-1	5.959595E-1	5.991220E-1	6.196077E-1	6.190688E-1	6.145347E-1	6.529044E-1	6.202859E-1	6.276910E-1	5.610439E-1	6.176701E-1	5.774000E-1	6.399110E-1	6.207962E-1	6.345457E-1	6.049414E-1	6.025576E-1	6.087498E-1	6.223128E-1	5.985741E-1	5.920646E-1	5.996358E-1	6.197137E-1	6.023299E-1	6.040255E-1	6.106140E-1	5.750390E-1	5.997286E-1	6.180219E-1	5.956795E-1	5.767487E-1	5.964460E-1	6.103334E-1	6.329365E-1	6.218572E-1	5.933154E-1	5.751491E-1	5.968737E-1	6.011362E-1	6.168538E-1	6.154631E-1	5.936311E-1	6.175477E-1	5.954994E-1	6.062245E-1	6.138267E-1	6.195401E-1	6.213568E-1	6.113614E-1	6.230897E-1	5.825466E-1	6.245410E-1	6.355567E-1	6.156359E-1	6.117940E-1	6.247631E-1	6.071737E-1	6.229102E-1	6.179892E-1	6.070201E-1	6.542140E-1	6.543932E-1	6.123682E-1	5.884355E-1	6.183733E-1	6.204707E-1	5.931596E-1	6.237358E-1	6.175658E-1	6.358649E-1	6.026428E-1	6.512257E-1	6.111083E-1	6.113064E-1	6.129176E-1	6.043233E-1	6.434248E-1	6.183175E-1	6.066060E-1	6.214204E-1	5.996760E-1	6.526218E-1	6.472909E-1	5.831816E-1	6.062667E-1	6.248799E-1
5.365140E+2	5.505807E-1	5.072809E-1	5.343536E-1	5.578147E-1	5.525503E-1	5.275632E-1	4.971728E-1	5.437994E-1	5.329826E-1	5.151812E-1	5.437890E-1	5.470387E-1	4.861533E-1	5.449092E-1	5.290104E-1	5.130352E-1	5.003999E-1	5.413510E-1	5.289056E-1	4.924779E-1	5.639366E-1	4.915436E-1	4.996490E-1	5.192008E-1	5.452367E-1	5.001234E-1	5.444344E-1	5.182982E-1	5.454119E-1	5.489525E-1	5.208236E-1	5.270478E-1	5.574542E-1	5.394110E-1	5.001192E-1	5.507038E-1	5.185806E-1	5.439927E-1	5.403058E-1	5.251643E-1	5.500076E-1	5.300753E-1	5.095222E-1	5.343980E-1	5.257812E-1	5.341703E-1	5.213255E-1	5.376206E-1	5.057314E-1	5.429205E-1	5.310168E-1	5.085262E-1	5.155046E-1	5.078727E-1	5.316401E-1	5.299448E-1	5.435036E-1	5.399899E-1	5.170896E-1	5.451913E-1	5.299308E-1	5.694937E-1	5.371578E-1	5.304203E-1	5.507521E-1	5.174999E-1	5.321408E-1	5.630246E-1	5.547380E-1	5.320126E-1	5.439457E-1	5.441678E-1	5.158225E-1	5.586987E-1	5.242225E-1	5.103153E-1	5.187619E-1	5.347299E-1	5.110611E-1	5.055401E-1	5.052195E-1	5.600940E-1	4.973166E-1	5.417342E-1	5.680686E-1	5.314966E-1	5.409324E-1	5.066975E-1	5.515685E-1	5.242540E-1	5.490354E-1	5.239503E-1	5.174499E-1	5.433490E-1	5.416041E-1	5.386293E-1	5.379236E-1	5.401166E-1	5.480471E-1	5.288106E-1	5.643817E-1	5.206463E-1	5.248862E-1	5.361922E-1	5.460907E-1	5.625658E-1	4.954609E-1	5.187897E-1	5.117909E-1	5.331443E-1	5.142757E-1	5.324301E-1	5.573300E-1	5.059176E-1	5.317982E-1	5.098946E-1	5.383995E-1	5.576106E-1	5.251573E-1	5.399348E-1	5.109158E-1	5.172541E-1	5.342873E-1	5.365875E-1	5.502537E-1	5.473563E-1	5.169057E-1	5.655263E-1	5.719751E-1	5.184635E-1	5.294269E-1	5.399723E-1	5.070124E-1	5.418816E-1	5.217086E-1	5.117864E-1	5.300165E-1	5.450710E-1	5.697632E-1	5.659013E-1	5.202099E-1	5.657762E-1	5.435401E-1	5.380139E-1	5.379327E-1	5.485055E-1	5.417335E-1	5.344573E-1	5.300964E-1	5.532418E-1	5.597097E-1	5.313240E-1	5.392752E-1	5.266371E-1	5.235638E-1	5.200086E-1	5.470554E-1	5.436395E-1	5.298491E-1	5.622362E-1	5.451640E-1	5.601660E-1	5.528784E-1	5.005632E-1	5.230771E-1	5.493761E-1	5.179967E-1	5.413804E-1	5.142647E-1	5.032322E-1	4.823094E-1
5.367710E+2	5.389994E-1	5.077670E-1	5.035755E-1	4.784780E-1	5.080825E-1	5.341352E-1	5.483392E-1	5.195885E-1	5.381917E-1	5.227683E-1	5.238908E-1	5.272968E-1	5.151957E-1	5.348902E-1	5.104752E-1	4.993812E-1	5.520506E-1	5.106391E-1	5.527130E-1	5.319037E-1	5.226348E-1	5.043325E-1	4.855610E-1	5.192030E-1	5.393310E-1	5.269716E-1	4.738335E-1	5.238602E-1	4.904443E-1	5.325766E-1	4.975388E-1	5.243861E-1	5.426782E-1	5.096378E-1	4.995133E-1	5.073853E-1	5.133575E-1	5.298303E-1	5.526507E-1	5.365343E-1	5.259294E-1	5.454717E-1	5.227746E-1	5.364676E-1	5.250732E-1	4.896575E-1	5.227819E-1	5.507232E-1	5.034746E-1	5.302209E-1	4.898692E-1	5.100776E-1	4.901192E-1	5.296074E-1	5.571039E-1	5.110360E-1	5.184367E-1	5.291887E-1	5.124806E-1	5.131983E-1	4.948422E-1	5.006210E-1	5.304160E-1	5.100531E-1	5.211390E-1	5.129178E-1	5.031352E-1	5.145110E-1	5.390262E-1	5.097332E-1	5.353563E-1	5.352688E-1	5.305809E-1	4.986785E-1	5.304853E-1	5.016097E-1	5.321997E-1	5.080707E-1	5.242277E-1	4.809773E-1	5.190174E-1	5.176017E-1	5.241069E-1	5.401012E-1	5.470915E-1	5.105740E-1	5.235230E-1	5.356167E-1	5.338290E-1	5.088678E-1	5.006668E-1	5.526265E-1	5.515302E-1	5.328574E-1	5.399708E-1	5.180529E-1	5.128573E-1	5.192100E-1	4.857520E-1	5.070241E-1	5.628989E-1	4.968857E-1	5.274668E-1	5.233861E-1	5.068783E-1	4.736566E-1	4.975496E-1	5.057531E-1	5.447970E-1	5.077310E-1	5.488762E-1	5.511371E-1	4.997926E-1	5.030613E-1	4.990179E-1	5.264874E-1	5.213262E-1	5.440346E-1	5.291662E-1	5.147540E-1	5.231687E-1	5.306357E-1	5.113103E-1	5.225978E-1	4.815100E-1	5.187991E-1	5.338964E-1	5.358253E-1	4.896865E-1	5.233264E-1	5.427488E-1	5.393349E-1	5.189762E-1	5.495487E-1	5.417963E-1	5.152575E-1	5.106214E-1	5.131867E-1	5.437436E-1	5.260281E-1	5.231878E-1	5.298562E-1	5.399367E-1	5.061328E-1	5.235175E-1	5.124756E-1	5.215762E-1	4.882120E-1	5.303290E-1	5.040083E-1	5.305563E-1	4.964159E-1	5.003936E-1	5.125790E-1	5.181437E-1	5.469816E-1	5.465603E-1	4.930959E-1	5.162694E-1	5.329433E-1	5.043832E-1	5.365439E-1	5.277620E-1	5.500522E-1	5.452042E-1	5.297392E-1	5.473016E-1	5.072509E-1	5.233944E-1	5.312003E-1	5.701494E-1
5.370010E+2	5.583931E-1	5.288135E-1	5.524572E-1	5.154820E-1	5.235774E-1	5.600282E-1	5.438992E-1	5.634682E-1	5.278992E-1	5.003544E-1	5.213634E-1	5.165604E-1	5.437497E-1	5.421427E-1	5.903530E-1	5.385267E-1	5.144783E-1	5.692550E-1	5.597110E-1	5.568047E-1	5.540414E-1	5.168830E-1	5.367701E-1	5.188714E-1	5.691397E-1	5.297233E-1	5.365270E-1	5.547166E-1	5.436273E-1	5.289286E-1	5.311596E-1	5.939416E-1	5.675795E-1	5.332353E-1	5.262537E-1	5.487384E-1	5.638032E-1	5.492563E-1	5.355246E-1	5.508133E-1	5.603251E-1	5.712704E-1	5.610037E-1	5.595295E-1	5.508171E-1	5.934586E-1	5.309887E-1	5.442915E-1	5.480666E-1	5.300207E-1	5.374219E-1	5.597693E-1	5.395828E-1	5.292764E-1	5.385214E-1	5.439566E-1	5.344116E-1	5.504942E-1	5.358876E-1	5.667450E-1	5.237919E-1	5.217450E-1	5.523826E-1	5.443475E-1	5.552946E-1	5.525644E-1	5.624484E-1	5.378930E-1	5.620612E-1	5.498707E-1	5.577108E-1	5.575072E-1	5.593585E-1	5.573653E-1	5.416926E-1	5.740495E-1	5.804355E-1	5.524587E-1	5.722216E-1	5.500339E-1	5.301990E-1	5.364956E-1	5.782315E-1	5.242618E-1	5.474181E-1	5.572090E-1	5.388035E-1	5.602688E-1	5.442679E-1	5.652799E-1	5.250954E-1	5.682946E-1	5.302010E-1	5.241817E-1	5.384820E-1	5.635850E-1	5.336012E-1	5.609652E-1	5.645461E-1	5.348689E-1	5.371005E-1	5.513029E-1	5.637157E-1	5.533454E-1	5.539427E-1	5.433950E-1	5.649302E-1	5.655714E-1	5.621674E-1	5.315253E-1	5.478211E-1	5.553140E-1	5.335113E-1	5.608766E-1	5.751882E-1	5.477698E-1	5.460576E-1	5.486095E-1	5.674848E-1	5.207455E-1	5.553212E-1	5.755948E-1	5.579879E-1	5.667605E-1	5.397790E-1	5.507030E-1	5.272425E-1	5.511654E-1	4.767050E-1	5.395535E-1	5.570994E-1	5.602841E-1	5.528808E-1	5.490783E-1	5.589257E-1	5.516891E-1	5.088095E-1	5.312836E-1	5.551821E-1	6.014841E-1	5.346441E-1	5.241218E-1	5.495157E-1	5.500033E-1	5.748333E-1	5.539037E-1	5.591418E-1	5.860439E-1	5.540751E-1	6.139260E-1	5.296588E-1	5.951315E-1	5.718692E-1	5.586432E-1	5.435371E-1	5.604267E-1	5.701724E-1	5.334558E-1	5.489818E-1	5.548246E-1	5.307077E-1	5.546513E-1	5.694808E-1	5.608042E-1	5.586749E-1	5.502705E-1	5.946502E-1	5.785219E-1	5.559005E-1	5.166943E-1	5.154124E-1
5.372640E+2	6.317427E-1	6.207566E-1	6.535778E-1	6.304927E-1	6.548522E-1	6.440914E-1	6.560018E-1	6.104817E-1	6.247918E-1	6.575907E-1	6.058073E-1	6.774922E-1	6.150339E-1	6.087492E-1	6.117423E-1	6.435934E-1	6.364734E-1	6.419597E-1	6.447304E-1	6.372079E-1	6.334019E-1	6.479211E-1	6.347830E-1	6.417037E-1	6.258039E-1	6.017047E-1	6.355539E-1	6.188458E-1	6.161214E-1	6.026780E-1	6.450978E-1	6.260753E-1	5.869095E-1	6.224433E-1	6.175925E-1	6.036769E-1	6.223077E-1	6.222864E-1	6.102479E-1	6.257790E-1	6.168493E-1	6.142356E-1	6.246802E-1	6.494598E-1	6.389204E-1	6.463143E-1	6.124426E-1	6.043766E-1	6.098194E-1	6.276591E-1	6.432123E-1	6.411071E-1	6.127309E-1	6.181741E-1	6.345199E-1	6.294478E-1	6.353534E-1	6.555875E-1	5.977169E-1	6.301451E-1	6.558146E-1	6.528004E-1	5.998176E-1	6.567765E-1	6.893266E-1	6.408736E-1	6.118497E-1	6.417821E-1	6.415597E-1	6.162696E-1	6.232760E-1	6.606222E-1	6.190087E-1	6.248613E-1	6.433485E-1	6.259253E-1	6.301665E-1	6.627560E-1	6.416086E-1	6.405620E-1	6.056563E-1	6.434137E-1	5.947927E-1	6.196780E-1	6.057679E-1	6.483919E-1	6.374607E-1	5.861336E-1	6.324584E-1	6.457722E-1	6.554388E-1	6.338070E-1	6.572738E-1	6.256125E-1	6.497836E-1	6.662049E-1	6.395216E-1	6.655379E-1	6.604325E-1	6.247500E-1	6.091759E-1	5.878222E-1	6.351773E-1	6.444936E-1	6.463747E-1	6.357773E-1	6.389171E-1	6.559127E-1	6.273042E-1	6.474110E-1	6.461882E-1	6.371610E-1	6.415806E-1	6.348331E-1	6.124371E-1	6.358195E-1	6.704183E-1	6.499420E-1	6.378102E-1	6.090005E-1	6.548219E-1	6.407846E-1	6.308764E-1	6.219390E-1	6.667083E-1	6.312641E-1	6.410149E-1	6.215201E-1	6.315920E-1	6.491542E-1	6.507452E-1	6.381903E-1	6.362776E-1	6.218919E-1	6.486858E-1	6.078686E-1	6.481688E-1	6.471874E-1	6.596313E-1	6.462419E-1	6.326644E-1	6.319061E-1	6.235957E-1	6.258454E-1	6.335433E-1	6.323297E-1	6.236536E-1	6.629567E-1	6.226092E-1	6.479050E-1	6.379225E-1	6.738775E-1	6.482794E-1	6.558120E-1	6.344023E-1	6.038101E-1	6.467957E-1	6.086404E-1	6.390575E-1	6.131641E-1	6.196377E-1	6.360663E-1	6.413038E-1	6.097831E-1	6.236111E-1	6.315173E-1	6.347117E-1	6.710080E-1	6.681297E-1	6.062517E-1	6.620628E-1
5.375160E+2	7.621022E-1	7.611986E-1	7.106890E-1	7.215015E-1	7.206721E-1	7.247288E-1	7.285408E-1	7.665225E-1	7.213269E-1	7.565993E-1	7.772069E-1	7.447600E-1	7.529268E-1	7.788616E-1	7.743147E-1	7.822381E-1	7.446200E-1	7.697992E-1	7.193926E-1	7.300661E-1	7.875728E-1	7.433677E-1	7.599814E-1	7.645237E-1	7.129377E-1	7.496547E-1	7.631701E-1	7.376661E-1	7.300194E-1	7.517282E-1	7.467960E-1	7.474050E-1	7.455490E-1	7.379261E-1	7.318617E-1	7.371809E-1	7.754422E-1	7.477363E-1	7.756938E-1	7.387978E-1	7.558663E-1	7.317251E-1	7.096330E-1	7.322919E-1	7.542285E-1	7.212048E-1	7.320869E-1	7.410413E-1	7.249822E-1	7.373902E-1	7.635868E-1	7.682094E-1	7.603917E-1	7.686171E-1	7.800144E-1	7.125696E-1	7.428083E-1	7.529600E-1	7.286982E-1	7.326462E-1	7.293816E-1	7.597863E-1	7.131569E-1	7.533950E-1	7.162026E-1	7.314887E-1	7.487296E-1	7.638250E-1	7.496208E-1	7.655992E-1	7.438239E-1	7.384435E-1	7.400211E-1	7.954694E-1	7.630360E-1	7.855088E-1	7.886408E-1	7.758591E-1	7.469396E-1	7.685732E-1	7.554749E-1	7.471651E-1	7.062021E-1	7.545150E-1	7.257342E-1	7.386142E-1	7.270390E-1	7.603857E-1	8.000538E-1	7.421045E-1	7.304904E-1	7.799952E-1	7.509354E-1	7.579291E-1	7.491261E-1	7.302784E-1	7.567431E-1	7.623980E-1	7.223826E-1	7.297311E-1	7.315883E-1	7.296498E-1	7.674486E-1	7.805196E-1	7.327450E-1	7.348983E-1	7.217438E-1	7.476126E-1	7.711120E-1	7.360947E-1	7.498936E-1	7.804952E-1	7.437867E-1	7.508364E-1	7.376509E-1	7.210184E-1	7.599003E-1	7.871936E-1	7.474881E-1	7.911721E-1	7.475828E-1	7.653107E-1	7.236260E-1	6.993282E-1	7.502092E-1	7.612727E-1	7.290026E-1	7.649607E-1	7.686340E-1	7.811235E-1	7.307021E-1	7.198679E-1	7.392867E-1	7.118774E-1	7.437121E-1	7.743225E-1	7.471639E-1	7.683143E-1	7.489950E-1	7.925709E-1	7.398580E-1	7.542591E-1	7.556652E-1	7.401235E-1	7.728808E-1	7.164072E-1	7.514931E-1	7.427897E-1	7.360186E-1	7.373341E-1	7.708410E-1	7.364822E-1	7.532855E-1	7.248968E-1	7.598472E-1	7.357059E-1	7.673002E-1	7.532292E-1	7.504834E-1	7.989218E-1	7.461550E-1	7.252819E-1	7.599352E-1	7.064800E-1	7.409347E-1	7.285116E-1	7.638347E-1	7.792549E-1	7.432770E-1	7.589565E-1	7.782373E-1
5.377580E+2	8.352150E-1	8.127600E-1	8.506421E-1	8.654582E-1	8.382466E-1	8.514191E-1	8.142949E-1	8.733863E-1	8.529679E-1	8.873404E-1	8.679745E-1	8.256847E-1	8.653694E-1	8.231306E-1	8.403358E-1	8.160409E-1	8.513486E-1	8.388581E-1	8.106662E-1	8.688132E-1	8.719971E-1	8.949857E-1	7.988685E-1	8.555962E-1	8.579872E-1	8.183399E-1	8.244668E-1	8.363970E-1	8.549930E-1	8.509461E-1	8.634997E-1	8.402417E-1	8.248331E-1	8.553905E-1	8.770808E-1	8.528872E-1	8.514215E-1	8.140574E-1	8.371681E-1	8.261764E-1	8.160459E-1	8.346129E-1	8.187678E-1	8.356313E-1	8.628328E-1	8.847333E-1	8.249828E-1	8.899815E-1	8.621481E-1	8.596107E-1	8.448660E-1	8.404931E-1	8.464567E-1	8.349152E-1	8.782729E-1	8.402640E-1	8.279576E-1	8.319170E-1	8.304896E-1	8.745925E-1	8.189091E-1	8.504530E-1	8.485665E-1	8.917335E-1	8.708057E-1	8.755763E-1	8.877374E-1	8.386930E-1	8.289981E-1	8.337751E-1	8.558266E-1	8.593965E-1	8.487868E-1	8.158750E-1	8.275901E-1	8.806114E-1	8.464236E-1	8.795919E-1	8.340281E-1	8.522154E-1	8.447819E-1	8.560774E-1	8.724517E-1	8.217994E-1	8.413173E-1	8.786201E-1	8.604999E-1	8.314347E-1	8.638928E-1	8.043897E-1	8.266444E-1	8.432278E-1	8.323129E-1	8.542011E-1	8.586542E-1	8.015236E-1	8.105051E-1	8.218062E-1	8.452229E-1	8.293099E-1	8.714957E-1	8.465096E-1	8.284461E-1	8.709463E-1	8.448250E-1	8.405465E-1	8.020091E-1	8.474408E-1	8.701913E-1	8.313169E-1	8.473439E-1	8.174972E-1	8.465249E-1	8.319467E-1	8.417778E-1	8.147701E-1	8.436127E-1	8.445971E-1	8.381110E-1	8.434244E-1	8.490350E-1	7.787260E-1	8.128139E-1	8.413922E-1	8.749064E-1	8.594451E-1	8.579863E-1	8.391994E-1	7.665571E-1	8.100008E-1	8.624721E-1	8.240402E-1	8.227947E-1	8.309502E-1	8.167902E-1	8.476328E-1	8.248299E-1	8.490858E-1	8.238939E-1	8.176669E-1	8.369819E-1	8.863806E-1	8.323954E-1	7.997624E-1	8.623939E-1	8.352051E-1	8.813719E-1	8.186182E-1	8.246903E-1	8.259595E-1	8.324797E-1	8.352601E-1	8.687925E-1	8.386254E-1	8.378213E-1	8.779179E-1	8.370186E-1	8.654486E-1	8.573081E-1	8.187770E-1	8.660786E-1	8.609235E-1	8.772346E-1	8.511061E-1	8.506471E-1	8.316885E-1	8.943462E-1	8.686445E-1	8.708970E-1	8.109326E-1	8.927721E-1
5.380160E+2	1.005307E+0	9.852108E-1	1.007730E+0	9.681286E-1	1.008328E+0	9.720552E-1	9.809539E-1	9.955163E-1	1.010178E+0	1.032075E+0	9.682003E-1	9.513254E-1	9.764548E-1	9.775766E-1	9.701257E-1	9.937131E-1	9.896568E-1	1.009039E+0	9.350862E-1	9.855033E-1	9.488034E-1	9.802686E-1	9.788577E-1	9.619177E-1	9.584790E-1	9.637114E-1	9.643097E-1	9.997927E-1	9.452186E-1	9.586573E-1	1.013001E+0	9.620731E-1	9.374506E-1	9.628440E-1	1.001660E+0	1.009717E+0	1.007621E+0	1.028228E+0	9.699071E-1	9.927568E-1	1.010776E+0	9.906021E-1	9.939454E-1	9.785273E-1	9.964510E-1	9.702234E-1	9.406602E-1	9.223895E-1	9.736587E-1	9.650289E-1	9.728156E-1	9.966774E-1	9.833991E-1	9.857689E-1	9.800460E-1	9.616649E-1	9.733488E-1	9.994141E-1	9.061197E-1	9.685919E-1	9.744144E-1	9.633772E-1	9.702230E-1	9.855290E-1	9.915925E-1	9.884192E-1	9.601639E-1	1.007097E+0	9.825939E-1	9.578653E-1	9.989811E-1	9.969548E-1	1.011311E+0	9.854215E-1	1.011850E+0	1.001022E+0	1.008258E+0	9.705779E-1	9.969480E-1	9.847868E-1	9.949907E-1	9.990457E-1	9.669492E-1	9.776865E-1	9.944443E-1	1.004476E+0	9.358947E-1	9.606951E-1	1.012290E+0	9.882295E-1	9.892237E-1	1.007290E+0	9.759130E-1	9.511897E-1	1.023696E+0	9.795287E-1	9.799171E-1	1.005439E+0	9.671792E-1	9.555682E-1	1.012703E+0	9.803845E-1	9.929423E-1	9.908983E-1	1.014555E+0	9.894800E-1	9.542204E-1	1.003194E+0	9.635209E-1	9.939635E-1	1.000505E+0	9.809534E-1	8.998169E-1	9.749687E-1	9.885471E-1	1.013413E+0	9.743329E-1	1.001050E+0	9.946940E-1	1.014666E+0	1.025441E+0	9.917865E-1	9.431621E-1	9.591996E-1	1.003480E+0	9.663128E-1	9.976509E-1	9.812153E-1	9.490867E-1	9.492522E-1	9.865804E-1	9.499480E-1	9.773095E-1	9.208245E-1	1.017673E+0	9.907639E-1	9.572116E-1	9.600027E-1	9.532919E-1	9.681434E-1	9.671415E-1	9.662880E-1	1.007962E+0	9.600460E-1	9.816720E-1	1.005976E+0	9.905973E-1	9.862803E-1	9.919346E-1	9.862466E-1	1.001296E+0	9.741127E-1	9.832261E-1	9.828015E-1	9.999583E-1	9.404315E-1	9.773129E-1	9.749606E-1	9.788651E-1	9.932759E-1	9.484014E-1	1.008761E+0	9.942940E-1	9.790153E-1	9.508783E-1	9.811980E-1	1.031068E+0	9.723049E-1	9.408506E-1	9.990419E-1	9.906250E-1
5.382690E+2	1.166217E+0	1.146023E+0	1.151392E+0	1.146979E+0	1.134039E+0	1.098239E+0	1.091002E+0	1.117276E+0	1.132064E+0	1.118153E+0	1.116956E+0	1.127160E+0	1.134996E+0	1.119814E+0	1.127807E+0	1.156483E+0	1.127599E+0	1.179772E+0	1.129313E+0	1.159704E+0	1.128557E+0	1.162316E+0	1.106394E+0	1.144851E+0	1.151453E+0	1.129037E+0	1.127569E+0	1.130691E+0	1.108444E+0	1.136651E+0	1.166688E+0	1.122363E+0	1.146743E+0	1.129947E+0	1.130586E+0	1.165242E+0	1.126171E+0	1.145767E+0	1.117148E+0	1.108998E+0	1.118681E+0	1.111093E+0	1.119969E+0	1.130649E+0	1.164799E+0	1.168372E+0	1.136762E+0	1.144820E+0	1.105562E+0	1.133730E+0	1.080243E+0	1.093368E+0	1.183043E+0	1.111562E+0	1.090953E+0	1.142374E+0	1.133740E+0	1.175672E+0	1.116871E+0	1.106420E+0	1.071123E+0	1.090510E+0	1.102845E+0	1.176537E+0	1.115783E+0	1.076765E+0	1.101642E+0	1.119614E+0	1.144662E+0	1.102166E+0	1.123926E+0	1.124977E+0	1.070157E+0	1.126606E+0	1.140181E+0	1.132916E+0	1.167141E+0	1.152963E+0	1.139052E+0	1.118694E+0	1.147156E+0	1.089185E+0	1.137819E+0	1.092357E+0	1.177479E+0	1.087116E+0	1.086629E+0	1.114580E+0	1.123120E+0	1.087516E+0	1.134687E+0	1.126018E+0	1.111556E+0	1.120340E+0	1.147938E+0	1.121939E+0	1.146814E+0	1.122514E+0	1.116561E+0	1.073080E+0	1.123185E+0	1.096251E+0	1.133514E+0	1.108314E+0	1.191648E+0	1.115007E+0	1.161740E+0	1.120330E+0	1.120670E+0	1.122050E+0	1.145177E+0	1.130065E+0	1.169470E+0	1.179121E+0	1.138789E+0	1.137138E+0	1.137065E+0	1.119094E+0	1.115313E+0	1.151734E+0	1.171556E+0	1.144159E+0	1.108246E+0	1.110867E+0	1.144617E+0	1.156621E+0	1.134401E+0	1.139244E+0	1.139568E+0	1.126220E+0	1.131129E+0	1.153274E+0	1.058842E+0	1.132664E+0	1.145293E+0	1.084463E+0	1.115782E+0	1.119666E+0	1.131902E+0	1.042537E+0	1.093896E+0	1.111909E+0	1.133212E+0	1.137021E+0	1.117409E+0	1.124613E+0	1.120902E+0	1.066820E+0	1.128271E+0	1.059104E+0	1.158132E+0	1.096059E+0	1.115499E+0	1.096713E+0	1.112092E+0	1.136198E+0	1.181366E+0	1.114585E+0	1.149448E+0	1.112394E+0	1.114585E+0	1.148972E+0	1.107157E+0	1.124515E+0	1.166748E+0	1.095269E+0	1.108007E+0	1.180389E+0	1.110122E+0	1.138845E+0	1.152560E+0
5.385170E+2	1.403078E+0	1.352562E+0	1.313502E+0	1.329273E+0	1.369705E+0	1.336346E+0	1.346624E+0	1.352087E+0	1.391839E+0	1.391760E+0	1.375312E+0	1.350567E+0	1.356503E+0	1.328976E+0	1.376698E+0	1.338827E+0	1.376343E+0	1.370518E+0	1.353290E+0	1.348140E+0	1.391625E+0	1.395224E+0	1.298778E+0	1.352875E+0	1.402930E+0	1.333961E+0	1.386843E+0	1.424057E+0	1.312257E+0	1.353286E+0	1.376194E+0	1.379048E+0	1.362488E+0	1.366713E+0	1.360587E+0	1.374020E+0	1.323988E+0	1.396507E+0	1.406107E+0	1.393442E+0	1.363641E+0	1.369448E+0	1.335719E+0	1.368630E+0	1.355923E+0	1.408214E+0	1.360608E+0	1.379869E+0	1.377456E+0	1.359273E+0	1.331214E+0	1.343536E+0	1.367929E+0	1.388785E+0	1.356404E+0	1.353868E+0	1.381073E+0	1.364449E+0	1.361040E+0	1.378375E+0	1.375738E+0	1.390466E+0	1.375816E+0	1.417522E+0	1.427016E+0	1.328471E+0	1.339757E+0	1.337280E+0	1.417405E+0	1.331471E+0	1.376452E+0	1.387080E+0	1.362456E+0	1.361097E+0	1.345715E+0	1.390602E+0	1.356689E+0	1.395902E+0	1.348827E+0	1.378094E+0	1.362476E+0	1.368058E+0	1.267680E+0	1.367373E+0	1.374906E+0	1.358205E+0	1.325696E+0	1.387154E+0	1.353911E+0	1.375701E+0	1.320209E+0	1.350199E+0	1.382832E+0	1.351779E+0	1.420524E+0	1.312935E+0	1.378854E+0	1.371790E+0	1.391323E+0	1.364000E+0	1.333262E+0	1.315028E+0	1.374913E+0	1.359510E+0	1.356279E+0	1.369255E+0	1.369046E+0	1.380738E+0	1.369974E+0	1.374604E+0	1.380354E+0	1.352566E+0	1.336102E+0	1.305739E+0	1.361970E+0	1.333855E+0	1.369604E+0	1.332690E+0	1.326372E+0	1.418384E+0	1.396201E+0	1.348638E+0	1.377676E+0	1.334381E+0	1.369329E+0	1.348341E+0	1.375370E+0	1.380225E+0	1.320758E+0	1.396403E+0	1.369041E+0	1.362546E+0	1.366204E+0	1.363194E+0	1.312348E+0	1.359786E+0	1.339057E+0	1.376030E+0	1.376307E+0	1.328896E+0	1.369354E+0	1.342633E+0	1.367858E+0	1.385980E+0	1.343017E+0	1.288456E+0	1.340100E+0	1.331315E+0	1.337460E+0	1.347204E+0	1.342246E+0	1.351325E+0	1.318309E+0	1.317555E+0	1.379707E+0	1.399652E+0	1.324154E+0	1.349280E+0	1.367892E+0	1.349436E+0	1.309902E+0	1.353336E+0	1.344676E+0	1.348212E+0	1.360120E+0	1.313392E+0	1.416842E+0	1.347922E+0	1.330307E+0	1.321223E+0	1.375201E+0
5.387650E+2	1.603914E+0	1.522997E+0	1.579642E+0	1.577925E+0	1.617747E+0	1.508986E+0	1.558118E+0	1.660887E+0	1.633495E+0	1.625229E+0	1.578553E+0	1.604127E+0	1.529878E+0	1.547052E+0	1.557836E+0	1.555629E+0	1.610741E+0	1.569834E+0	1.606362E+0	1.540077E+0	1.607143E+0	1.542349E+0	1.556963E+0	1.544743E+0	1.566529E+0	1.527294E+0	1.556301E+0	1.569373E+0	1.517009E+0	1.611834E+0	1.592315E+0	1.602615E+0	1.563749E+0	1.630161E+0	1.574688E+0	1.563875E+0	1.581841E+0	1.563816E+0	1.598109E+0	1.554456E+0	1.596462E+0	1.553953E+0	1.518541E+0	1.653751E+0	1.655729E+0	1.660708E+0	1.522558E+0	1.579130E+0	1.601150E+0	1.573970E+0	1.604116E+0	1.567112E+0	1.582588E+0	1.587595E+0	1.562393E+0	1.598377E+0	1.575001E+0	1.569226E+0	1.574757E+0	1.521271E+0	1.556759E+0	1.576383E+0	1.596057E+0	1.640224E+0	1.579109E+0	1.564291E+0	1.623646E+0	1.598635E+0	1.575095E+0	1.559637E+0	1.557031E+0	1.605968E+0	1.581690E+0	1.593870E+0	1.565984E+0	1.575502E+0	1.608108E+0	1.603892E+0	1.575321E+0	1.571911E+0	1.589192E+0	1.558931E+0	1.508453E+0	1.638872E+0	1.615209E+0	1.555354E+0	1.496337E+0	1.517399E+0	1.615871E+0	1.560445E+0	1.484714E+0	1.567964E+0	1.567009E+0	1.505804E+0	1.573927E+0	1.600995E+0	1.588740E+0	1.598066E+0	1.549109E+0	1.535741E+0	1.574002E+0	1.538034E+0	1.545071E+0	1.570270E+0	1.521000E+0	1.584548E+0	1.601181E+0	1.634453E+0	1.549519E+0	1.484769E+0	1.585412E+0	1.525152E+0	1.565214E+0	1.556100E+0	1.514032E+0	1.550888E+0	1.501954E+0	1.554409E+0	1.524262E+0	1.559220E+0	1.569922E+0	1.566088E+0	1.562235E+0	1.507853E+0	1.596885E+0	1.557659E+0	1.566798E+0	1.574669E+0	1.571044E+0	1.583254E+0	1.532461E+0	1.569931E+0	1.518140E+0	1.560728E+0	1.527100E+0	1.518813E+0	1.476736E+0	1.537706E+0	1.542589E+0	1.626918E+0	1.569592E+0	1.454649E+0	1.573681E+0	1.552656E+0	1.558787E+0	1.479374E+0	1.516649E+0	1.534388E+0	1.556488E+0	1.560346E+0	1.558613E+0	1.597835E+0	1.567620E+0	1.508494E+0	1.523519E+0	1.573941E+0	1.579899E+0	1.587147E+0	1.548545E+0	1.574853E+0	1.522845E+0	1.501065E+0	1.545117E+0	1.562732E+0	1.562577E+0	1.476258E+0	1.514466E+0	1.579535E+0	1.486854E+0	1.492268E+0	1.588903E+0
5.390240E+2	1.819056E+0	1.772807E+0	1.780640E+0	1.729248E+0	1.836036E+0	1.776374E+0	1.702398E+0	1.781452E+0	1.739495E+0	1.729791E+0	1.699480E+0	1.753245E+0	1.737955E+0	1.793924E+0	1.771743E+0	1.735164E+0	1.716134E+0	1.764609E+0	1.734992E+0	1.783266E+0	1.770344E+0	1.854468E+0	1.719522E+0	1.804558E+0	1.764042E+0	1.781058E+0	1.722318E+0	1.812650E+0	1.786839E+0	1.799422E+0	1.770114E+0	1.822852E+0	1.766342E+0	1.794757E+0	1.708965E+0	1.807848E+0	1.801689E+0	1.754144E+0	1.786301E+0	1.772356E+0	1.715669E+0	1.696320E+0	1.747956E+0	1.811081E+0	1.775176E+0	1.820261E+0	1.769112E+0	1.751075E+0	1.774427E+0	1.767112E+0	1.743490E+0	1.764526E+0	1.717119E+0	1.700976E+0	1.734077E+0	1.739780E+0	1.739092E+0	1.803255E+0	1.777911E+0	1.778983E+0	1.755733E+0	1.718411E+0	1.735573E+0	1.781286E+0	1.778817E+0	1.788056E+0	1.754202E+0	1.720694E+0	1.783301E+0	1.752802E+0	1.763450E+0	1.759987E+0	1.738689E+0	1.798068E+0	1.706873E+0	1.735540E+0	1.740962E+0	1.820037E+0	1.757232E+0	1.744541E+0	1.768956E+0	1.746200E+0	1.671587E+0	1.754384E+0	1.744890E+0	1.782768E+0	1.697830E+0	1.770790E+0	1.762327E+0	1.755609E+0	1.718673E+0	1.753119E+0	1.774502E+0	1.715441E+0	1.724343E+0	1.709201E+0	1.704497E+0	1.704278E+0	1.731157E+0	1.727568E+0	1.774534E+0	1.714387E+0	1.708691E+0	1.830645E+0	1.778284E+0	1.778637E+0	1.677759E+0	1.741171E+0	1.764911E+0	1.735288E+0	1.695936E+0	1.725016E+0	1.736758E+0	1.717340E+0	1.791340E+0	1.781163E+0	1.687701E+0	1.756174E+0	1.719353E+0	1.686195E+0	1.763262E+0	1.663012E+0	1.729882E+0	1.717985E+0	1.764160E+0	1.742333E+0	1.730506E+0	1.756014E+0	1.709037E+0	1.733321E+0	1.699334E+0	1.719370E+0	1.732494E+0	1.706175E+0	1.713524E+0	1.711916E+0	1.746310E+0	1.753025E+0	1.727694E+0	1.734323E+0	1.664744E+0	1.650496E+0	1.725660E+0	1.677447E+0	1.737179E+0	1.734795E+0	1.689891E+0	1.687945E+0	1.713031E+0	1.724746E+0	1.682654E+0	1.727650E+0	1.737936E+0	1.721975E+0	1.681776E+0	1.742844E+0	1.736456E+0	1.668426E+0	1.752436E+0	1.669946E+0	1.724910E+0	1.709002E+0	1.713245E+0	1.752351E+0	1.737426E+0	1.635741E+0	1.709591E+0	1.800999E+0	1.712861E+0	1.624174E+0	1.634034E+0
5.392720E+2	2.014979E+0	1.955134E+0	1.916133E+0	1.891321E+0	1.909126E+0	1.876203E+0	1.871562E+0	1.963643E+0	1.932599E+0	1.900775E+0	1.880241E+0	1.890693E+0	1.913205E+0	1.924836E+0	1.919326E+0	1.950550E+0	1.859813E+0	1.958373E+0	1.869203E+0	1.914943E+0	1.900176E+0	1.907131E+0	1.916943E+0	1.953779E+0	1.965386E+0	1.886082E+0	1.926362E+0	1.940312E+0	1.870328E+0	1.969590E+0	1.922801E+0	1.938396E+0	1.949248E+0	1.980318E+0	1.905384E+0	1.892320E+0	1.967769E+0	1.950684E+0	1.932572E+0	1.949663E+0	1.962994E+0	1.906900E+0	1.877971E+0	1.958418E+0	2.009874E+0	1.919157E+0	1.878800E+0	1.930331E+0	1.887870E+0	1.927612E+0	1.896573E+0	1.924838E+0	1.918460E+0	1.895228E+0	1.841489E+0	1.872937E+0	1.863349E+0	1.934806E+0	1.877793E+0	1.917977E+0	1.876155E+0	1.890243E+0	1.849989E+0	1.945860E+0	1.920768E+0	1.912812E+0	1.882382E+0	1.863205E+0	1.950496E+0	1.948423E+0	1.907915E+0	1.893592E+0	1.882406E+0	1.891069E+0	1.912555E+0	1.877393E+0	1.881598E+0	1.884456E+0	1.902259E+0	1.929452E+0	1.907475E+0	1.890604E+0	1.844627E+0	1.900566E+0	1.943148E+0	1.898626E+0	1.853161E+0	1.872020E+0	1.949377E+0	1.861378E+0	1.901421E+0	1.937442E+0	1.932417E+0	1.945476E+0	1.869074E+0	1.883530E+0	1.847257E+0	1.879188E+0	1.881459E+0	1.836780E+0	1.930341E+0	1.840444E+0	1.842950E+0	1.923638E+0	1.882362E+0	1.866706E+0	1.821079E+0	1.925939E+0	1.946360E+0	1.867931E+0	1.825445E+0	1.909762E+0	1.885830E+0	1.827610E+0	1.891712E+0	1.836278E+0	1.903139E+0	1.832515E+0	1.835973E+0	1.896600E+0	1.925504E+0	1.874922E+0	1.836610E+0	1.879331E+0	1.917377E+0	1.889581E+0	1.882692E+0	1.887787E+0	1.847699E+0	1.853344E+0	1.839094E+0	1.801799E+0	1.901785E+0	1.852925E+0	1.814627E+0	1.826479E+0	1.901412E+0	1.934318E+0	1.878711E+0	1.884757E+0	1.879551E+0	1.860277E+0	2.025148E+0	1.891513E+0	1.873283E+0	1.911768E+0	1.872989E+0	1.902980E+0	1.845136E+0	1.865483E+0	1.778207E+0	1.860218E+0	1.857142E+0	1.866625E+0	1.850439E+0	1.899614E+0	1.890437E+0	1.830489E+0	1.805874E+0	1.867738E+0	1.809832E+0	1.855135E+0	1.909142E+0	1.874480E+0	1.876531E+0	1.807152E+0	1.801356E+0	1.851968E+0	1.808348E+0	1.713978E+0	1.788968E+0
5.395160E+2	2.114620E+0	1.995467E+0	2.056043E+0	1.997583E+0	2.091891E+0	1.977668E+0	1.981745E+0	2.033259E+0	2.044343E+0	2.039576E+0	1.988200E+0	1.989908E+0	1.997941E+0	2.039247E+0	1.993187E+0	2.027967E+0	1.990692E+0	1.994557E+0	2.008364E+0	1.967924E+0	1.983828E+0	2.007718E+0	1.969527E+0	1.994598E+0	2.055004E+0	1.973795E+0	2.052410E+0	2.044465E+0	2.029999E+0	2.078964E+0	2.024382E+0	2.022580E+0	2.084855E+0	1.999343E+0	2.029298E+0	1.987121E+0	1.974109E+0	2.057249E+0	1.964471E+0	2.012495E+0	2.073407E+0	1.981027E+0	1.993418E+0	2.018785E+0	1.991444E+0	2.035567E+0	1.954552E+0	2.001398E+0	2.031746E+0	1.989584E+0	2.017917E+0	2.040249E+0	2.058135E+0	2.073867E+0	1.987556E+0	1.997895E+0	1.973378E+0	2.027660E+0	2.005292E+0	2.001959E+0	1.998672E+0	1.954643E+0	1.994105E+0	2.002546E+0	1.999609E+0	2.002625E+0	1.986138E+0	1.997199E+0	2.029245E+0	2.009545E+0	1.988215E+0	2.034701E+0	1.981232E+0	1.948315E+0	1.973059E+0	1.994302E+0	2.032442E+0	2.015562E+0	1.970218E+0	1.979031E+0	1.975663E+0	1.968419E+0	1.917502E+0	1.936276E+0	2.016968E+0	2.081027E+0	1.958397E+0	1.976124E+0	2.009909E+0	2.018046E+0	2.032322E+0	2.037146E+0	1.975549E+0	1.978955E+0	1.969666E+0	2.023691E+0	1.959367E+0	1.990235E+0	1.992023E+0	1.943362E+0	1.992203E+0	1.902948E+0	2.011153E+0	1.978783E+0	1.993264E+0	1.989456E+0	1.966698E+0	2.012513E+0	1.992183E+0	2.030853E+0	1.989355E+0	1.959428E+0	1.958794E+0	1.942160E+0	1.978195E+0	1.945862E+0	1.940633E+0	1.949226E+0	1.921095E+0	1.973055E+0	1.919775E+0	1.959900E+0	1.954995E+0	1.960415E+0	2.044641E+0	1.959340E+0	1.902855E+0	1.969738E+0	1.988677E+0	2.016380E+0	1.911224E+0	2.023172E+0	1.958404E+0	1.964041E+0	1.935560E+0	1.974008E+0	1.971474E+0	1.973706E+0	1.965105E+0	1.999587E+0	1.943618E+0	1.995952E+0	1.996253E+0	1.931882E+0	1.958998E+0	1.982051E+0	1.913902E+0	1.936993E+0	1.936545E+0	1.971589E+0	1.983070E+0	2.016819E+0	1.968405E+0	1.940525E+0	1.979779E+0	1.970170E+0	2.000984E+0	1.993527E+0	1.914766E+0	1.949574E+0	1.884973E+0	1.955208E+0	1.959322E+0	1.945925E+0	2.027053E+0	1.935470E+0	1.885213E+0	1.964909E+0	1.886987E+0	1.845072E+0	1.851345E+0
5.397810E+2	2.108634E+0	2.025779E+0	2.012670E+0	2.068285E+0	2.120124E+0	2.060944E+0	2.018218E+0	2.121559E+0	2.141889E+0	2.089142E+0	2.029795E+0	2.043499E+0	2.113855E+0	2.056936E+0	2.086138E+0	2.059005E+0	2.036535E+0	2.022556E+0	2.050186E+0	2.002680E+0	2.052508E+0	2.003514E+0	2.017231E+0	2.029410E+0	2.090350E+0	2.089163E+0	2.053693E+0	2.052749E+0	2.003587E+0	2.101464E+0	2.014277E+0	2.061280E+0	2.109772E+0	2.105290E+0	2.029952E+0	2.038612E+0	2.053365E+0	1.992082E+0	2.017681E+0	2.053364E+0	2.132636E+0	2.079140E+0	2.016707E+0	2.058849E+0	2.079589E+0	2.097422E+0	2.048136E+0	2.046641E+0	2.027801E+0	2.058560E+0	2.016815E+0	2.071695E+0	2.077468E+0	2.081075E+0	1.950804E+0	2.011964E+0	2.038745E+0	2.071223E+0	1.943166E+0	1.995306E+0	2.048531E+0	2.028943E+0	2.018240E+0	2.018098E+0	2.094812E+0	2.064371E+0	2.059928E+0	2.031303E+0	2.079187E+0	2.007396E+0	1.964588E+0	2.024734E+0	2.048274E+0	2.050736E+0	2.105780E+0	1.977405E+0	1.953045E+0	2.160060E+0	2.012662E+0	2.004481E+0	2.052464E+0	2.074276E+0	1.924059E+0	1.961263E+0	2.054498E+0	2.061298E+0	1.984882E+0	2.013371E+0	2.062950E+0	2.013040E+0	1.974495E+0	2.023879E+0	2.016204E+0	1.970810E+0	2.023096E+0	2.045533E+0	2.019518E+0	2.060467E+0	2.042495E+0	1.998087E+0	1.989929E+0	1.945493E+0	1.943108E+0	2.055784E+0	2.033289E+0	1.970409E+0	1.955769E+0	1.956260E+0	2.032222E+0	2.068137E+0	2.000789E+0	1.963253E+0	2.015165E+0	2.000159E+0	1.991227E+0	2.009161E+0	1.979993E+0	1.980744E+0	1.967220E+0	1.987334E+0	2.048271E+0	2.014224E+0	1.977565E+0	2.007912E+0	2.058375E+0	1.970162E+0	1.924099E+0	2.032604E+0	1.948920E+0	2.042737E+0	2.027656E+0	1.963664E+0	1.936375E+0	1.973392E+0	1.953531E+0	1.991660E+0	1.952449E+0	2.059160E+0	1.982968E+0	2.024062E+0	1.971153E+0	1.946446E+0	2.093938E+0	1.919205E+0	1.997210E+0	2.012601E+0	1.970382E+0	1.987969E+0	1.967455E+0	1.950195E+0	1.966537E+0	1.947859E+0	1.937407E+0	1.994672E+0	1.946316E+0	1.982943E+0	1.986375E+0	1.972027E+0	1.984186E+0	2.027118E+0	1.938883E+0	1.969187E+0	1.994900E+0	1.900597E+0	2.040236E+0	1.979720E+0	2.009612E+0	1.980730E+0	1.912894E+0	1.974573E+0	1.989102E+0
5.400240E+2	2.097500E+0	1.977302E+0	1.967644E+0	2.093769E+0	2.068397E+0	1.970561E+0	1.974906E+0	2.099422E+0	2.033871E+0	1.984566E+0	1.978649E+0	1.980882E+0	1.961876E+0	2.003830E+0	1.990959E+0	2.013584E+0	2.055547E+0	2.066985E+0	1.999921E+0	2.051919E+0	2.089156E+0	2.032615E+0	1.949717E+0	2.013330E+0	1.999607E+0	1.973570E+0	2.050018E+0	2.016781E+0	2.054997E+0	1.983526E+0	1.976650E+0	2.047747E+0	1.984542E+0	2.050201E+0	2.004381E+0	1.974119E+0	1.994976E+0	1.989220E+0	2.026422E+0	1.960820E+0	2.028336E+0	2.021041E+0	1.942730E+0	2.001016E+0	2.032697E+0	1.946080E+0	1.987088E+0	2.032739E+0	2.009910E+0	2.023935E+0	1.966029E+0	2.072741E+0	2.059135E+0	2.032252E+0	1.981684E+0	1.985095E+0	1.984308E+0	2.050032E+0	1.989839E+0	1.981691E+0	2.057261E+0	2.018983E+0	1.959120E+0	2.042765E+0	2.052310E+0	1.988208E+0	1.990951E+0	2.040083E+0	2.024812E+0	2.002621E+0	2.006383E+0	2.028666E+0	1.969606E+0	1.971760E+0	1.994093E+0	1.969990E+0	1.941401E+0	2.047419E+0	1.987424E+0	2.001474E+0	1.993378E+0	1.990080E+0	1.878908E+0	1.940902E+0	2.017314E+0	1.995991E+0	1.929512E+0	1.966177E+0	2.061629E+0	1.991149E+0	2.035585E+0	1.948762E+0	1.972240E+0	1.958131E+0	1.948574E+0	1.999875E+0	1.945354E+0	1.965541E+0	1.956815E+0	1.931880E+0	2.032692E+0	1.971677E+0	2.038757E+0	1.999400E+0	2.009441E+0	1.982223E+0	1.955083E+0	1.985971E+0	1.977864E+0	1.959606E+0	2.023872E+0	1.956821E+0	1.972210E+0	2.014299E+0	1.969514E+0	1.923065E+0	1.936377E+0	1.987159E+0	1.946372E+0	2.017315E+0	1.952405E+0	1.953642E+0	1.988604E+0	1.958318E+0	2.002061E+0	1.973595E+0	1.964553E+0	1.960975E+0	1.963049E+0	1.951590E+0	1.949190E+0	1.966343E+0	1.937220E+0	1.980645E+0	1.907570E+0	1.911266E+0	1.942338E+0	1.947004E+0	1.935498E+0	1.971476E+0	1.909680E+0	1.928499E+0	1.999414E+0	1.908368E+0	1.974574E+0	1.899211E+0	1.892510E+0	1.908742E+0	1.957767E+0	1.941404E+0	1.943695E+0	1.960661E+0	1.919315E+0	1.902796E+0	1.951320E+0	1.987683E+0	2.006026E+0	1.967762E+0	1.986264E+0	1.895109E+0	1.894783E+0	1.912707E+0	1.915899E+0	1.920654E+0	1.970466E+0	1.881761E+0	1.960927E+0	2.017208E+0	1.955060E+0	1.899436E+0	1.963501E+0
5.402850E+2	2.083193E+0	1.873467E+0	1.943571E+0	1.880880E+0	1.936535E+0	1.891514E+0	1.861638E+0	1.962559E+0	1.967277E+0	1.958189E+0	1.846499E+0	1.907842E+0	1.993951E+0	1.881542E+0	1.928584E+0	1.914077E+0	1.898976E+0	1.896960E+0	1.884075E+0	1.962426E+0	2.009149E+0	1.968457E+0	1.894993E+0	1.980220E+0	1.964619E+0	1.887337E+0	1.920310E+0	1.931281E+0	1.873977E+0	1.915328E+0	1.925503E+0	1.918930E+0	1.965301E+0	1.945665E+0	1.850404E+0	1.901247E+0	1.877262E+0	1.921210E+0	1.866204E+0	1.951256E+0	1.943725E+0	1.879185E+0	1.968468E+0	1.899385E+0	1.962590E+0	1.840833E+0	1.905507E+0	1.874927E+0	1.883977E+0	1.986082E+0	1.864139E+0	1.897660E+0	1.874043E+0	1.958522E+0	1.920956E+0	1.868382E+0	1.897697E+0	1.954231E+0	1.864161E+0	1.882971E+0	1.900474E+0	1.901645E+0	1.864393E+0	1.869235E+0	1.934096E+0	1.870177E+0	1.896647E+0	1.877188E+0	1.950696E+0	1.924367E+0	1.912800E+0	1.893522E+0	1.947286E+0	1.913282E+0	1.903992E+0	1.906909E+0	1.875142E+0	1.959672E+0	1.874238E+0	1.877136E+0	1.862984E+0	1.887401E+0	1.815825E+0	1.757117E+0	2.006096E+0	1.898448E+0	1.861615E+0	1.874270E+0	1.926994E+0	1.880327E+0	1.892102E+0	1.872986E+0	1.950960E+0	1.857699E+0	1.881049E+0	1.867335E+0	1.862284E+0	1.846548E+0	1.909032E+0	1.817470E+0	1.867604E+0	1.836822E+0	1.865055E+0	1.891428E+0	1.868679E+0	1.866048E+0	1.886911E+0	1.807372E+0	1.903693E+0	1.843347E+0	1.909476E+0	1.833347E+0	1.878861E+0	1.838581E+0	1.857997E+0	1.833143E+0	1.914610E+0	1.873941E+0	1.861090E+0	1.837451E+0	1.870552E+0	1.927694E+0	1.867410E+0	1.895962E+0	1.880949E+0	1.878299E+0	1.864111E+0	1.853589E+0	1.847746E+0	1.899296E+0	1.840888E+0	1.868758E+0	1.797845E+0	1.870647E+0	1.878777E+0	1.823798E+0	1.865737E+0	1.836010E+0	1.843675E+0	1.903624E+0	1.814348E+0	1.891655E+0	1.848779E+0	1.864776E+0	1.888199E+0	1.823359E+0	1.821565E+0	1.820889E+0	1.884416E+0	1.898685E+0	1.926969E+0	1.799315E+0	1.861520E+0	1.799078E+0	1.851810E+0	1.908041E+0	1.858378E+0	1.897653E+0	1.880120E+0	1.817832E+0	1.854275E+0	1.901629E+0	1.804338E+0	1.873217E+0	1.840500E+0	1.860988E+0	1.807754E+0	1.820455E+0	1.812581E+0	1.821042E+0	1.724188E+0
5.405130E+2	1.868935E+0	1.769211E+0	1.807140E+0	1.781869E+0	1.848894E+0	1.764688E+0	1.809095E+0	1.790642E+0	1.849075E+0	1.854413E+0	1.753695E+0	1.722973E+0	1.786327E+0	1.777507E+0	1.775299E+0	1.768627E+0	1.812379E+0	1.821325E+0	1.766837E+0	1.793053E+0	1.826380E+0	1.821910E+0	1.749947E+0	1.786889E+0	1.814722E+0	1.829436E+0	1.786143E+0	1.796766E+0	1.757655E+0	1.755201E+0	1.811465E+0	1.789249E+0	1.825573E+0	1.790073E+0	1.790520E+0	1.749911E+0	1.778594E+0	1.806428E+0	1.798468E+0	1.774497E+0	1.865838E+0	1.703590E+0	1.739172E+0	1.856120E+0	1.832144E+0	1.841340E+0	1.791593E+0	1.842482E+0	1.806271E+0	1.813346E+0	1.741714E+0	1.750608E+0	1.830011E+0	1.828336E+0	1.690769E+0	1.769413E+0	1.790767E+0	1.816370E+0	1.743672E+0	1.804488E+0	1.719884E+0	1.750759E+0	1.753589E+0	1.812094E+0	1.816440E+0	1.774942E+0	1.815528E+0	1.689355E+0	1.776350E+0	1.716116E+0	1.809864E+0	1.775409E+0	1.764759E+0	1.778381E+0	1.756820E+0	1.700345E+0	1.818200E+0	1.750895E+0	1.778571E+0	1.793075E+0	1.755635E+0	1.753521E+0	1.724242E+0	1.707031E+0	1.840097E+0	1.803614E+0	1.803086E+0	1.775529E+0	1.787822E+0	1.762180E+0	1.701952E+0	1.718589E+0	1.755650E+0	1.809216E+0	1.690420E+0	1.808532E+0	1.696230E+0	1.801121E+0	1.740055E+0	1.687214E+0	1.769447E+0	1.777811E+0	1.723360E+0	1.788052E+0	1.786502E+0	1.846203E+0	1.757626E+0	1.795520E+0	1.782505E+0	1.836775E+0	1.769310E+0	1.774777E+0	1.714452E+0	1.771515E+0	1.770091E+0	1.673506E+0	1.799346E+0	1.755736E+0	1.747630E+0	1.737878E+0	1.735663E+0	1.740261E+0	1.714117E+0	1.682114E+0	1.801106E+0	1.760582E+0	1.794688E+0	1.745286E+0	1.735946E+0	1.819848E+0	1.724981E+0	1.732725E+0	1.758767E+0	1.711264E+0	1.706067E+0	1.695646E+0	1.720060E+0	1.767755E+0	1.780769E+0	1.754355E+0	1.727768E+0	1.770525E+0	1.738602E+0	1.728588E+0	1.758053E+0	1.751856E+0	1.678195E+0	1.721909E+0	1.749873E+0	1.792894E+0	1.746675E+0	1.713521E+0	1.810593E+0	1.694294E+0	1.786721E+0	1.726255E+0	1.719265E+0	1.676284E+0	1.732238E+0	1.759276E+0	1.686243E+0	1.730691E+0	1.729097E+0	1.727848E+0	1.811287E+0	1.677539E+0	1.772884E+0	1.698474E+0	1.756512E+0	1.731997E+0	1.650137E+0
5.407680E+2	1.787295E+0	1.690080E+0	1.789292E+0	1.776240E+0	1.737599E+0	1.688207E+0	1.633388E+0	1.726731E+0	1.724850E+0	1.739652E+0	1.652961E+0	1.679424E+0	1.756064E+0	1.707070E+0	1.658166E+0	1.698674E+0	1.704756E+0	1.737984E+0	1.670629E+0	1.666977E+0	1.706905E+0	1.696763E+0	1.690987E+0	1.672222E+0	1.688005E+0	1.676547E+0	1.683646E+0	1.677460E+0	1.690865E+0	1.779039E+0	1.687915E+0	1.725671E+0	1.760930E+0	1.742262E+0	1.698720E+0	1.710018E+0	1.737757E+0	1.731197E+0	1.684579E+0	1.699869E+0	1.682915E+0	1.722010E+0	1.673898E+0	1.665931E+0	1.735189E+0	1.701011E+0	1.685846E+0	1.657045E+0	1.687240E+0	1.690340E+0	1.699062E+0	1.676812E+0	1.704330E+0	1.705435E+0	1.722892E+0	1.632635E+0	1.664463E+0	1.690514E+0	1.624781E+0	1.715798E+0	1.645593E+0	1.740375E+0	1.732307E+0	1.733848E+0	1.761635E+0	1.702483E+0	1.700929E+0	1.708098E+0	1.699043E+0	1.700672E+0	1.719782E+0	1.696481E+0	1.694280E+0	1.697868E+0	1.727900E+0	1.649336E+0	1.649079E+0	1.707292E+0	1.713659E+0	1.726050E+0	1.689832E+0	1.650437E+0	1.620618E+0	1.628748E+0	1.743369E+0	1.663852E+0	1.679827E+0	1.669033E+0	1.765362E+0	1.678905E+0	1.665770E+0	1.689486E+0	1.734589E+0	1.648552E+0	1.633463E+0	1.702281E+0	1.636505E+0	1.688745E+0	1.701277E+0	1.628765E+0	1.684466E+0	1.651756E+0	1.641172E+0	1.668976E+0	1.746907E+0	1.717912E+0	1.690685E+0	1.686595E+0	1.728881E+0	1.744139E+0	1.714205E+0	1.642132E+0	1.671258E+0	1.635816E+0	1.679292E+0	1.720283E+0	1.725305E+0	1.689323E+0	1.657677E+0	1.675411E+0	1.684521E+0	1.624167E+0	1.684951E+0	1.660502E+0	1.747757E+0	1.698110E+0	1.722095E+0	1.678019E+0	1.708098E+0	1.659319E+0	1.687253E+0	1.630878E+0	1.637576E+0	1.638837E+0	1.605772E+0	1.632839E+0	1.710131E+0	1.678075E+0	1.719815E+0	1.658917E+0	1.672498E+0	1.659365E+0	1.738043E+0	1.630001E+0	1.694449E+0	1.644329E+0	1.631482E+0	1.601135E+0	1.688980E+0	1.696007E+0	1.682592E+0	1.657553E+0	1.642206E+0	1.615661E+0	1.684662E+0	1.727132E+0	1.688418E+0	1.651772E+0	1.614044E+0	1.634060E+0	1.627914E+0	1.654838E+0	1.644317E+0	1.642057E+0	1.661288E+0	1.606355E+0	1.674407E+0	1.650648E+0	1.666935E+0	1.690476E+0	1.670259E+0
5.410290E+2	1.740068E+0	1.623411E+0	1.598668E+0	1.622603E+0	1.627093E+0	1.614095E+0	1.639437E+0	1.660934E+0	1.720810E+0	1.711757E+0	1.567828E+0	1.659253E+0	1.617283E+0	1.574414E+0	1.617416E+0	1.620292E+0	1.653048E+0	1.590256E+0	1.627581E+0	1.634581E+0	1.649674E+0	1.660727E+0	1.631184E+0	1.599263E+0	1.627110E+0	1.590320E+0	1.628251E+0	1.602864E+0	1.613723E+0	1.620851E+0	1.681707E+0	1.648071E+0	1.636944E+0	1.600626E+0	1.566330E+0	1.633625E+0	1.650608E+0	1.635587E+0	1.632657E+0	1.595201E+0	1.585910E+0	1.669452E+0	1.597971E+0	1.631785E+0	1.683219E+0	1.615949E+0	1.595551E+0	1.606022E+0	1.628908E+0	1.618283E+0	1.590528E+0	1.673741E+0	1.628058E+0	1.619348E+0	1.604955E+0	1.595763E+0	1.644022E+0	1.630376E+0	1.589962E+0	1.606577E+0	1.637323E+0	1.595191E+0	1.590494E+0	1.684208E+0	1.595349E+0	1.632322E+0	1.637114E+0	1.557351E+0	1.654955E+0	1.605751E+0	1.597448E+0	1.627573E+0	1.644765E+0	1.545817E+0	1.615336E+0	1.667385E+0	1.664211E+0	1.625547E+0	1.626774E+0	1.597779E+0	1.582935E+0	1.617833E+0	1.573069E+0	1.568693E+0	1.661898E+0	1.644819E+0	1.549823E+0	1.599912E+0	1.639140E+0	1.584598E+0	1.601112E+0	1.609307E+0	1.647783E+0	1.640278E+0	1.603006E+0	1.626932E+0	1.581331E+0	1.605431E+0	1.611324E+0	1.535863E+0	1.594253E+0	1.590702E+0	1.591654E+0	1.575246E+0	1.681955E+0	1.611423E+0	1.579430E+0	1.596901E+0	1.618387E+0	1.608987E+0	1.635468E+0	1.606951E+0	1.595276E+0	1.578485E+0	1.613565E+0	1.652993E+0	1.595735E+0	1.635691E+0	1.546588E+0	1.556909E+0	1.694194E+0	1.561282E+0	1.578720E+0	1.584133E+0	1.685666E+0	1.568678E+0	1.619611E+0	1.594112E+0	1.578973E+0	1.596590E+0	1.582711E+0	1.569400E+0	1.554349E+0	1.599859E+0	1.562252E+0	1.574521E+0	1.549235E+0	1.579516E+0	1.572154E+0	1.633912E+0	1.571870E+0	1.539558E+0	1.640510E+0	1.616261E+0	1.580461E+0	1.563047E+0	1.561751E+0	1.552282E+0	1.592585E+0	1.572214E+0	1.578264E+0	1.600099E+0	1.579810E+0	1.573348E+0	1.630899E+0	1.649789E+0	1.647504E+0	1.590743E+0	1.617920E+0	1.553419E+0	1.550795E+0	1.592683E+0	1.605969E+0	1.573748E+0	1.654856E+0	1.560573E+0	1.572356E+0	1.528458E+0	1.549671E+0	1.535103E+0	1.519674E+0
5.412790E+2	1.598318E+0	1.542640E+0	1.577716E+0	1.571260E+0	1.548123E+0	1.489542E+0	1.497279E+0	1.540403E+0	1.542431E+0	1.519687E+0	1.504619E+0	1.483403E+0	1.509382E+0	1.571075E+0	1.556204E+0	1.553957E+0	1.559493E+0	1.563852E+0	1.481261E+0	1.531240E+0	1.562285E+0	1.565125E+0	1.574637E+0	1.516556E+0	1.535168E+0	1.494923E+0	1.529349E+0	1.580452E+0	1.516817E+0	1.561256E+0	1.573753E+0	1.503849E+0	1.564641E+0	1.577027E+0	1.465512E+0	1.507950E+0	1.545570E+0	1.550257E+0	1.506612E+0	1.511128E+0	1.534530E+0	1.510739E+0	1.526954E+0	1.553594E+0	1.506695E+0	1.578087E+0	1.471441E+0	1.540741E+0	1.528826E+0	1.545769E+0	1.515315E+0	1.539828E+0	1.518443E+0	1.492973E+0	1.550496E+0	1.524896E+0	1.514095E+0	1.599308E+0	1.511194E+0	1.511167E+0	1.502654E+0	1.515801E+0	1.516574E+0	1.538987E+0	1.550407E+0	1.536075E+0	1.456365E+0	1.499140E+0	1.531314E+0	1.518714E+0	1.575650E+0	1.521630E+0	1.501257E+0	1.583259E+0	1.587295E+0	1.522350E+0	1.531767E+0	1.529116E+0	1.480060E+0	1.495974E+0	1.504768E+0	1.560464E+0	1.497858E+0	1.529444E+0	1.546699E+0	1.545346E+0	1.503917E+0	1.452956E+0	1.542735E+0	1.479664E+0	1.485271E+0	1.544459E+0	1.521564E+0	1.501549E+0	1.496703E+0	1.532806E+0	1.532443E+0	1.557522E+0	1.497521E+0	1.542210E+0	1.552734E+0	1.518888E+0	1.474531E+0	1.531344E+0	1.523864E+0	1.519850E+0	1.521948E+0	1.521578E+0	1.551738E+0	1.507065E+0	1.511509E+0	1.498757E+0	1.521205E+0	1.541416E+0	1.508139E+0	1.538460E+0	1.537284E+0	1.533115E+0	1.526054E+0	1.485092E+0	1.550325E+0	1.486630E+0	1.509717E+0	1.554825E+0	1.574543E+0	1.504665E+0	1.519058E+0	1.506277E+0	1.522353E+0	1.524991E+0	1.546391E+0	1.507668E+0	1.501785E+0	1.468816E+0	1.523902E+0	1.474333E+0	1.542037E+0	1.481310E+0	1.485144E+0	1.516068E+0	1.528029E+0	1.504811E+0	1.560026E+0	1.460147E+0	1.491825E+0	1.471518E+0	1.473202E+0	1.511987E+0	1.532820E+0	1.525388E+0	1.507991E+0	1.503307E+0	1.527302E+0	1.511367E+0	1.490464E+0	1.501820E+0	1.520132E+0	1.478098E+0	1.455674E+0	1.528237E+0	1.486707E+0	1.516323E+0	1.568583E+0	1.507244E+0	1.544033E+0	1.494563E+0	1.485241E+0	1.532782E+0	1.475064E+0	1.526533E+0	1.476499E+0
5.415140E+2	1.422013E+0	1.385404E+0	1.391341E+0	1.337317E+0	1.437478E+0	1.342606E+0	1.337088E+0	1.395963E+0	1.410852E+0	1.429529E+0	1.384293E+0	1.416568E+0	1.380516E+0	1.401599E+0	1.437407E+0	1.358472E+0	1.406800E+0	1.410675E+0	1.400773E+0	1.355698E+0	1.403482E+0	1.416266E+0	1.348053E+0	1.386667E+0	1.432145E+0	1.370112E+0	1.431659E+0	1.341179E+0	1.325211E+0	1.379344E+0	1.436161E+0	1.440674E+0	1.371929E+0	1.429202E+0	1.415456E+0	1.382214E+0	1.387719E+0	1.385628E+0	1.328990E+0	1.406710E+0	1.387569E+0	1.389332E+0	1.343044E+0	1.373033E+0	1.359860E+0	1.375822E+0	1.407242E+0	1.431327E+0	1.406896E+0	1.379311E+0	1.355324E+0	1.360316E+0	1.379544E+0	1.362841E+0	1.337402E+0	1.338266E+0	1.359071E+0	1.461579E+0	1.365633E+0	1.388906E+0	1.351935E+0	1.414969E+0	1.408771E+0	1.403468E+0	1.375977E+0	1.383658E+0	1.408008E+0	1.371809E+0	1.404745E+0	1.352261E+0	1.380809E+0	1.422394E+0	1.364250E+0	1.429125E+0	1.415678E+0	1.368226E+0	1.372574E+0	1.423898E+0	1.365401E+0	1.371571E+0	1.346995E+0	1.380641E+0	1.350316E+0	1.386102E+0	1.393440E+0	1.392661E+0	1.294156E+0	1.402802E+0	1.384816E+0	1.379622E+0	1.357576E+0	1.338975E+0	1.370680E+0	1.398487E+0	1.369426E+0	1.340393E+0	1.338279E+0	1.345128E+0	1.381531E+0	1.387849E+0	1.397897E+0	1.423427E+0	1.346251E+0	1.369863E+0	1.369063E+0	1.301043E+0	1.368691E+0	1.368355E+0	1.447683E+0	1.375403E+0	1.425399E+0	1.385358E+0	1.351882E+0	1.396548E+0	1.364063E+0	1.409751E+0	1.393467E+0	1.360681E+0	1.413106E+0	1.330019E+0	1.390045E+0	1.363361E+0	1.337139E+0	1.390517E+0	1.435165E+0	1.393377E+0	1.379065E+0	1.403896E+0	1.384518E+0	1.356681E+0	1.369154E+0	1.427936E+0	1.376289E+0	1.346300E+0	1.350740E+0	1.368455E+0	1.386416E+0	1.365255E+0	1.397121E+0	1.398868E+0	1.387151E+0	1.359729E+0	1.355262E+0	1.383790E+0	1.387906E+0	1.309309E+0	1.322620E+0	1.363914E+0	1.366635E+0	1.464439E+0	1.416455E+0	1.356119E+0	1.400859E+0	1.328791E+0	1.362039E+0	1.396196E+0	1.407293E+0	1.354744E+0	1.355395E+0	1.285195E+0	1.391700E+0	1.367626E+0	1.435311E+0	1.310261E+0	1.383837E+0	1.340811E+0	1.361771E+0	1.366170E+0	1.434858E+0	1.334604E+0	1.271398E+0
5.417760E+2	1.230826E+0	1.214983E+0	1.187849E+0	1.184927E+0	1.233047E+0	1.236512E+0	1.153640E+0	1.193786E+0	1.219586E+0	1.230613E+0	1.205903E+0	1.185159E+0	1.194222E+0	1.238710E+0	1.170925E+0	1.217881E+0	1.187546E+0	1.288479E+0	1.147478E+0	1.183809E+0	1.218295E+0	1.217861E+0	1.171272E+0	1.205086E+0	1.209082E+0	1.223827E+0	1.254192E+0	1.180808E+0	1.189990E+0	1.195929E+0	1.239970E+0	1.212355E+0	1.203985E+0	1.193629E+0	1.174716E+0	1.210388E+0	1.189421E+0	1.193387E+0	1.216501E+0	1.143357E+0	1.199189E+0	1.214590E+0	1.164538E+0	1.187775E+0	1.198717E+0	1.210799E+0	1.139521E+0	1.211883E+0	1.210587E+0	1.244949E+0	1.201596E+0	1.182724E+0	1.222143E+0	1.162939E+0	1.169451E+0	1.178263E+0	1.222022E+0	1.221905E+0	1.141106E+0	1.155135E+0	1.181615E+0	1.171276E+0	1.135346E+0	1.200645E+0	1.184854E+0	1.178265E+0	1.172066E+0	1.207004E+0	1.229912E+0	1.188075E+0	1.170084E+0	1.242833E+0	1.170057E+0	1.245196E+0	1.196333E+0	1.165580E+0	1.170691E+0	1.186546E+0	1.213069E+0	1.223971E+0	1.139809E+0	1.214597E+0	1.136344E+0	1.137268E+0	1.235992E+0	1.203721E+0	1.176833E+0	1.189026E+0	1.202986E+0	1.199310E+0	1.239306E+0	1.252675E+0	1.209213E+0	1.201836E+0	1.240594E+0	1.196595E+0	1.192296E+0	1.171467E+0	1.157406E+0	1.227056E+0	1.209281E+0	1.182275E+0	1.180193E+0	1.209603E+0	1.178292E+0	1.184523E+0	1.164527E+0	1.202750E+0	1.225523E+0	1.235163E+0	1.213799E+0	1.191070E+0	1.149596E+0	1.223590E+0	1.234513E+0	1.192594E+0	1.192104E+0	1.229954E+0	1.171622E+0	1.218537E+0	1.182103E+0	1.179328E+0	1.187711E+0	1.231853E+0	1.211172E+0	1.223539E+0	1.201461E+0	1.204685E+0	1.187123E+0	1.191279E+0	1.192324E+0	1.200357E+0	1.198868E+0	1.145187E+0	1.207028E+0	1.150138E+0	1.218396E+0	1.205912E+0	1.229936E+0	1.188844E+0	1.205940E+0	1.180525E+0	1.172877E+0	1.178272E+0	1.189868E+0	1.187671E+0	1.158466E+0	1.187150E+0	1.248096E+0	1.203576E+0	1.204621E+0	1.228664E+0	1.218252E+0	1.173777E+0	1.236355E+0	1.170989E+0	1.217493E+0	1.211780E+0	1.135879E+0	1.190215E+0	1.161179E+0	1.197089E+0	1.244191E+0	1.150481E+0	1.240530E+0	1.224615E+0	1.186852E+0	1.212936E+0	1.249785E+0	1.236639E+0	1.196614E+0
5.420160E+2	1.072919E+0	1.017748E+0	1.014636E+0	1.032181E+0	1.071908E+0	1.041729E+0	1.016598E+0	1.047952E+0	1.069493E+0	1.073277E+0	1.037261E+0	1.030134E+0	1.015018E+0	1.031560E+0	1.034447E+0	1.061920E+0	1.043690E+0	9.751317E-1	1.034208E+0	1.051094E+0	1.047061E+0	1.030786E+0	1.059815E+0	1.060279E+0	1.041251E+0	1.004988E+0	1.040366E+0	1.039509E+0	1.026175E+0	1.068123E+0	1.035774E+0	1.066379E+0	1.054129E+0	1.082448E+0	1.020492E+0	1.068120E+0	1.050777E+0	1.104749E+0	1.014578E+0	1.002163E+0	1.023876E+0	1.075099E+0	9.762344E-1	1.059697E+0	1.093299E+0	1.070993E+0	1.060657E+0	1.083077E+0	1.025239E+0	1.109488E+0	1.060925E+0	1.047068E+0	1.044883E+0	1.090285E+0	1.049912E+0	1.037881E+0	1.065643E+0	1.057876E+0	1.031741E+0	9.848468E-1	1.037014E+0	1.057695E+0	1.087399E+0	1.059919E+0	1.051740E+0	1.042813E+0	1.070713E+0	1.065517E+0	1.075561E+0	1.058487E+0	1.079877E+0	1.100346E+0	1.039635E+0	1.027985E+0	1.064375E+0	1.063582E+0	1.042201E+0	1.088379E+0	1.061924E+0	1.067573E+0	1.044268E+0	1.076924E+0	1.026660E+0	1.024281E+0	1.030807E+0	1.066962E+0	1.024911E+0	1.047837E+0	1.042567E+0	1.045259E+0	1.007890E+0	1.028656E+0	1.066617E+0	1.077456E+0	1.032837E+0	1.081391E+0	9.755735E-1	1.031476E+0	1.019440E+0	1.034573E+0	1.056464E+0	1.056089E+0	1.053470E+0	1.072620E+0	1.070481E+0	1.036020E+0	1.065054E+0	1.016221E+0	1.050533E+0	1.091681E+0	1.088252E+0	1.046544E+0	1.042946E+0	1.039782E+0	1.046106E+0	1.016151E+0	1.075628E+0	1.023523E+0	1.020654E+0	1.009292E+0	1.041777E+0	1.027031E+0	1.011183E+0	1.051239E+0	1.069235E+0	1.043442E+0	1.044910E+0	1.050962E+0	1.026922E+0	1.062104E+0	1.020659E+0	1.065093E+0	1.025770E+0	1.066228E+0	9.920361E-1	1.008825E+0	1.008114E+0	1.025863E+0	1.061875E+0	1.050643E+0	1.042806E+0	1.029436E+0	1.072872E+0	1.049441E+0	1.041802E+0	9.976276E-1	1.051515E+0	1.012504E+0	1.057106E+0	1.044157E+0	1.028921E+0	1.042922E+0	1.045240E+0	1.042386E+0	9.931887E-1	1.037167E+0	1.060740E+0	1.066111E+0	1.044708E+0	1.058313E+0	1.031758E+0	1.043604E+0	1.097005E+0	1.028086E+0	1.013946E+0	1.027328E+0	1.074082E+0	1.082897E+0	1.069584E+0	1.048455E+0	1.060092E+0
5.422670E+2	9.624108E-1	9.282124E-1	9.700497E-1	9.735298E-1	9.994145E-1	9.617231E-1	9.566334E-1	9.420415E-1	9.825857E-1	8.958918E-1	8.971163E-1	9.316910E-1	9.003038E-1	9.170627E-1	9.248939E-1	9.569119E-1	9.299748E-1	9.492157E-1	9.143029E-1	9.964911E-1	9.657903E-1	9.403244E-1	9.134248E-1	9.409692E-1	9.286311E-1	9.255100E-1	9.368664E-1	9.288725E-1	9.342337E-1	9.420791E-1	9.685527E-1	9.671120E-1	9.149809E-1	9.582446E-1	9.203662E-1	9.783177E-1	9.144243E-1	9.872807E-1	9.662048E-1	9.240144E-1	9.698893E-1	9.677577E-1	9.274809E-1	9.177772E-1	9.564499E-1	9.845747E-1	9.641532E-1	9.470227E-1	9.022799E-1	9.478255E-1	9.415960E-1	9.379489E-1	9.294003E-1	9.494633E-1	9.366198E-1	9.310805E-1	9.303402E-1	9.464656E-1	9.486079E-1	9.322002E-1	9.535288E-1	9.501764E-1	9.016613E-1	9.378574E-1	9.310431E-1	9.589711E-1	9.493717E-1	9.626006E-1	9.407428E-1	9.649828E-1	9.100836E-1	9.285373E-1	9.390211E-1	9.589381E-1	9.828111E-1	9.168616E-1	9.520166E-1	9.659434E-1	9.646617E-1	9.935228E-1	9.129188E-1	8.765964E-1	9.473594E-1	9.354262E-1	9.645987E-1	9.607287E-1	8.924612E-1	9.046347E-1	9.568634E-1	9.801005E-1	9.092517E-1	9.089804E-1	9.327688E-1	9.172656E-1	9.609144E-1	9.414162E-1	9.229185E-1	9.203550E-1	8.960402E-1	9.055114E-1	9.179063E-1	9.504707E-1	9.657202E-1	9.661067E-1	9.808098E-1	9.860919E-1	9.722761E-1	9.372828E-1	9.072200E-1	9.374085E-1	9.641631E-1	9.414400E-1	9.514554E-1	9.111160E-1	9.170663E-1	9.242891E-1	9.418158E-1	9.613211E-1	9.556469E-1	9.373665E-1	9.198361E-1	9.114354E-1	9.575703E-1	9.524691E-1	9.629158E-1	9.708487E-1	9.199439E-1	9.503445E-1	9.351976E-1	9.767214E-1	9.216138E-1	9.706069E-1	9.589578E-1	9.173318E-1	9.756270E-1	9.424158E-1	9.398578E-1	9.518375E-1	9.532602E-1	9.191244E-1	9.304052E-1	9.235220E-1	9.806347E-1	9.501903E-1	9.353203E-1	9.010552E-1	9.564878E-1	9.439128E-1	9.354066E-1	9.725337E-1	9.242785E-1	9.264959E-1	9.936560E-1	9.309510E-1	9.920291E-1	9.695759E-1	9.654357E-1	9.588321E-1	9.203696E-1	9.113216E-1	9.138084E-1	9.364327E-1	9.571060E-1	9.489894E-1	9.265618E-1	9.097438E-1	9.469607E-1	9.582538E-1	9.038529E-1	8.713673E-1	9.427857E-1
5.425300E+2	9.683089E-1	9.165670E-1	8.918690E-1	9.102180E-1	9.445460E-1	9.081924E-1	9.066961E-1	9.487258E-1	9.473735E-1	9.521584E-1	9.013135E-1	9.057957E-1	9.126104E-1	9.020815E-1	9.535482E-1	9.446993E-1	9.332556E-1	9.648487E-1	8.885529E-1	9.431509E-1	9.199806E-1	9.313239E-1	9.241718E-1	9.579415E-1	9.581252E-1	9.379758E-1	8.932214E-1	9.205471E-1	9.363650E-1	9.514757E-1	9.406225E-1	9.425656E-1	8.904957E-1	9.311273E-1	8.975794E-1	9.015258E-1	9.172315E-1	9.211681E-1	9.486113E-1	9.578209E-1	9.415057E-1	9.666647E-1	9.907560E-1	9.167015E-1	9.461454E-1	9.774497E-1	9.183519E-1	9.282444E-1	8.949303E-1	9.548803E-1	9.166087E-1	9.536195E-1	8.993373E-1	9.175865E-1	9.404409E-1	9.076157E-1	8.727190E-1	9.283355E-1	9.318529E-1	9.277420E-1	8.842268E-1	9.345402E-1	9.064589E-1	9.487870E-1	9.171929E-1	9.245315E-1	9.381177E-1	9.296236E-1	9.181860E-1	9.377421E-1	9.482893E-1	9.041585E-1	9.265025E-1	9.287346E-1	9.731651E-1	9.619703E-1	8.980626E-1	9.374385E-1	9.854855E-1	9.190712E-1	9.262905E-1	9.514499E-1	8.920179E-1	9.516756E-1	9.770052E-1	9.343323E-1	9.242280E-1	9.395047E-1	9.498440E-1	9.080413E-1	9.228586E-1	8.773332E-1	9.414132E-1	9.354279E-1	9.188712E-1	9.542735E-1	9.467137E-1	9.354267E-1	9.304676E-1	9.055361E-1	9.367347E-1	9.394783E-1	8.999998E-1	9.351460E-1	9.276974E-1	9.093731E-1	9.230751E-1	9.678454E-1	9.653151E-1	9.589797E-1	9.512889E-1	9.259941E-1	8.919225E-1	9.467486E-1	9.261688E-1	9.722305E-1	9.416376E-1	9.122842E-1	9.349370E-1	9.136895E-1	9.147923E-1	9.645551E-1	9.087658E-1	9.416984E-1	9.400750E-1	9.246702E-1	9.302116E-1	9.124604E-1	9.134928E-1	9.468384E-1	9.288482E-1	8.987677E-1	9.306525E-1	9.477317E-1	9.897231E-1	9.394499E-1	9.391637E-1	9.033117E-1	9.686708E-1	9.223800E-1	8.994799E-1	9.567471E-1	9.510039E-1	9.524374E-1	9.652498E-1	9.063360E-1	9.069762E-1	8.751502E-1	9.351863E-1	9.106784E-1	9.609027E-1	9.326076E-1	8.934552E-1	9.231642E-1	9.432309E-1	9.576965E-1	9.351275E-1	9.024713E-1	9.404769E-1	9.423022E-1	9.367316E-1	9.622537E-1	9.126460E-1	9.393159E-1	9.551767E-1	9.167195E-1	9.616032E-1	8.876963E-1	9.174973E-1	8.671869E-1	8.349714E-1
5.427650E+2	1.057454E+0	9.920373E-1	1.024064E+0	9.869011E-1	9.719149E-1	9.745686E-1	1.030585E+0	9.847868E-1	1.068430E+0	1.072797E+0	9.841261E-1	9.611768E-1	1.000574E+0	1.004477E+0	1.041531E+0	9.650445E-1	1.005340E+0	1.065408E+0	9.689028E-1	9.805104E-1	9.995333E-1	9.936950E-1	9.603533E-1	9.978977E-1	1.029595E+0	1.022094E+0	9.974907E-1	1.013653E+0	9.830316E-1	9.827202E-1	1.036188E+0	9.641818E-1	1.027770E+0	1.032310E+0	9.946781E-1	1.001983E+0	9.923456E-1	9.712190E-1	9.983470E-1	9.815411E-1	1.019125E+0	1.027263E+0	1.032951E+0	9.996301E-1	1.042647E+0	1.051491E+0	9.444429E-1	9.887676E-1	1.043337E+0	9.703693E-1	9.899056E-1	1.014998E+0	1.004239E+0	1.005533E+0	9.822498E-1	9.761976E-1	1.024401E+0	1.057972E+0	9.724294E-1	1.014803E+0	9.940223E-1	1.016519E+0	9.694868E-1	9.898884E-1	9.680963E-1	9.805938E-1	9.620350E-1	9.904909E-1	1.014947E+0	1.016419E+0	1.013394E+0	1.010163E+0	1.016954E+0	1.017580E+0	1.011958E+0	9.944921E-1	1.009705E+0	1.046863E+0	1.005183E+0	9.692929E-1	1.024445E+0	9.557482E-1	9.724410E-1	9.925768E-1	1.062333E+0	1.031629E+0	9.638559E-1	1.036088E+0	1.071956E+0	9.983644E-1	9.676869E-1	9.794140E-1	1.003555E+0	1.036617E+0	1.015181E+0	1.006586E+0	1.011303E+0	1.014113E+0	9.966348E-1	9.586841E-1	1.048426E+0	1.018848E+0	9.913477E-1	1.001958E+0	1.012046E+0	9.718015E-1	1.013546E+0	9.913606E-1	1.006217E+0	9.974638E-1	1.029958E+0	1.001275E+0	1.002880E+0	9.829818E-1	9.834505E-1	9.932352E-1	9.998842E-1	1.023729E+0	1.009243E+0	9.964651E-1	9.977518E-1	1.051435E+0	9.905967E-1	1.036086E+0	1.027081E+0	1.029200E+0	9.851520E-1	9.847155E-1	9.989989E-1	9.961307E-1	9.814379E-1	1.062796E+0	1.011237E+0	9.804760E-1	1.022562E+0	1.023208E+0	1.027921E+0	9.921877E-1	9.876286E-1	9.936441E-1	9.985394E-1	1.023297E+0	1.024110E+0	1.027390E+0	9.908659E-1	1.032411E+0	9.760630E-1	9.430080E-1	9.997421E-1	1.049207E+0	1.012117E+0	1.045368E+0	9.708751E-1	1.015939E+0	9.761252E-1	1.047470E+0	9.865920E-1	1.056757E+0	9.851003E-1	1.009577E+0	9.985513E-1	1.017655E+0	1.007756E+0	1.005472E+0	1.068683E+0	1.007981E+0	9.698321E-1	1.032279E+0	1.002820E+0	9.935943E-1	9.512645E-1
5.430170E+2	1.228252E+0	1.117589E+0	1.148112E+0	1.099519E+0	1.179529E+0	1.120629E+0	1.083469E+0	1.111151E+0	1.148898E+0	1.109508E+0	1.130984E+0	1.120564E+0	1.156166E+0	1.138126E+0	1.147084E+0	1.148713E+0	1.133177E+0	1.155979E+0	1.121462E+0	1.161886E+0	1.187203E+0	1.133057E+0	1.146869E+0	1.140233E+0	1.175267E+0	1.169057E+0	1.149421E+0	1.158366E+0	1.092167E+0	1.127300E+0	1.164241E+0	1.125203E+0	1.170966E+0	1.149282E+0	1.156672E+0	1.107337E+0	1.163622E+0	1.135112E+0	1.156749E+0	1.167029E+0	1.136754E+0	1.065568E+0	1.124234E+0	1.089830E+0	1.150260E+0	1.199020E+0	1.162720E+0	1.185385E+0	1.125951E+0	1.091646E+0	1.163272E+0	1.177446E+0	1.143178E+0	1.138357E+0	1.142619E+0	1.122236E+0	1.085629E+0	1.170503E+0	1.091028E+0	1.173981E+0	1.117191E+0	1.137879E+0	1.161404E+0	1.199607E+0	1.177203E+0	1.200222E+0	1.122163E+0	1.166689E+0	1.139352E+0	1.140265E+0	1.125145E+0	1.172228E+0	1.173603E+0	1.146941E+0	1.077480E+0	1.141918E+0	1.082941E+0	1.143523E+0	1.127013E+0	1.160745E+0	1.150929E+0	1.150245E+0	1.086433E+0	1.131923E+0	1.141081E+0	1.178771E+0	1.133013E+0	1.127843E+0	1.165099E+0	1.149984E+0	1.136849E+0	1.150493E+0	1.115572E+0	1.109564E+0	1.141066E+0	1.099660E+0	1.169160E+0	1.222593E+0	1.101086E+0	1.144162E+0	1.208599E+0	1.103804E+0	1.059355E+0	1.144679E+0	1.172020E+0	1.113151E+0	1.120141E+0	1.156664E+0	1.151236E+0	1.167712E+0	1.183760E+0	1.173343E+0	1.134908E+0	1.119638E+0	1.174909E+0	1.136071E+0	1.137084E+0	1.153041E+0	1.135575E+0	1.151939E+0	1.153388E+0	1.144788E+0	1.131329E+0	1.143490E+0	1.142979E+0	1.141227E+0	1.127691E+0	1.145014E+0	1.096791E+0	1.147333E+0	1.159485E+0	1.129871E+0	1.108568E+0	1.167535E+0	1.098441E+0	1.068566E+0	1.152488E+0	1.106380E+0	1.174112E+0	1.135575E+0	1.181747E+0	1.107975E+0	1.148065E+0	1.141781E+0	1.114371E+0	1.164931E+0	1.125384E+0	1.110895E+0	1.126194E+0	1.117484E+0	1.145083E+0	1.150962E+0	1.158620E+0	1.192472E+0	1.174295E+0	1.131211E+0	1.114234E+0	1.158961E+0	1.171183E+0	1.133828E+0	1.108691E+0	1.108492E+0	1.113689E+0	1.179826E+0	1.136442E+0	1.113152E+0	1.151897E+0	1.097741E+0	1.102685E+0	1.180065E+0	1.229927E+0
5.432800E+2	1.283985E+0	1.311421E+0	1.292167E+0	1.321621E+0	1.359227E+0	1.315330E+0	1.276101E+0	1.318697E+0	1.324155E+0	1.293221E+0	1.308464E+0	1.274984E+0	1.288579E+0	1.312280E+0	1.314722E+0	1.297530E+0	1.298348E+0	1.314579E+0	1.276784E+0	1.321101E+0	1.247611E+0	1.313244E+0	1.291794E+0	1.305042E+0	1.298914E+0	1.216206E+0	1.275162E+0	1.255709E+0	1.287681E+0	1.267460E+0	1.298927E+0	1.307096E+0	1.317615E+0	1.292918E+0	1.274518E+0	1.308799E+0	1.324301E+0	1.286447E+0	1.310421E+0	1.277420E+0	1.291520E+0	1.267706E+0	1.261684E+0	1.267537E+0	1.212798E+0	1.242277E+0	1.260391E+0	1.290760E+0	1.287112E+0	1.299474E+0	1.226790E+0	1.303155E+0	1.272960E+0	1.330219E+0	1.252852E+0	1.253054E+0	1.289694E+0	1.322932E+0	1.272384E+0	1.265554E+0	1.258424E+0	1.298682E+0	1.233958E+0	1.294890E+0	1.323658E+0	1.259678E+0	1.350659E+0	1.313804E+0	1.252530E+0	1.311127E+0	1.222769E+0	1.303151E+0	1.280678E+0	1.254205E+0	1.261418E+0	1.286994E+0	1.257873E+0	1.367019E+0	1.311520E+0	1.298894E+0	1.280054E+0	1.293880E+0	1.221054E+0	1.239049E+0	1.300459E+0	1.285642E+0	1.246772E+0	1.262404E+0	1.260047E+0	1.283524E+0	1.279070E+0	1.288841E+0	1.298986E+0	1.301670E+0	1.281718E+0	1.298201E+0	1.258749E+0	1.311470E+0	1.291245E+0	1.242620E+0	1.288767E+0	1.291917E+0	1.233570E+0	1.275817E+0	1.299037E+0	1.274739E+0	1.292550E+0	1.258986E+0	1.301561E+0	1.332720E+0	1.276728E+0	1.314626E+0	1.284363E+0	1.254293E+0	1.259757E+0	1.304269E+0	1.308237E+0	1.309030E+0	1.285940E+0	1.265707E+0	1.260732E+0	1.260233E+0	1.256458E+0	1.283145E+0	1.287997E+0	1.297096E+0	1.279772E+0	1.294390E+0	1.298694E+0	1.293066E+0	1.273964E+0	1.308157E+0	1.258907E+0	1.250852E+0	1.285371E+0	1.222794E+0	1.252764E+0	1.307023E+0	1.278117E+0	1.315671E+0	1.237278E+0	1.273626E+0	1.275099E+0	1.260162E+0	1.336087E+0	1.294921E+0	1.259205E+0	1.276356E+0	1.286116E+0	1.321250E+0	1.298505E+0	1.256116E+0	1.269943E+0	1.240315E+0	1.340238E+0	1.279838E+0	1.311351E+0	1.293404E+0	1.296259E+0	1.272809E+0	1.244632E+0	1.292720E+0	1.343193E+0	1.273064E+0	1.333192E+0	1.252835E+0	1.263729E+0	1.283313E+0	1.159937E+0	1.297320E+0	1.274054E+0
5.435540E+2	1.501139E+0	1.406363E+0	1.501078E+0	1.423633E+0	1.522147E+0	1.436137E+0	1.418573E+0	1.442301E+0	1.465263E+0	1.427367E+0	1.419385E+0	1.470006E+0	1.472859E+0	1.416541E+0	1.393396E+0	1.442210E+0	1.473904E+0	1.429354E+0	1.433169E+0	1.464914E+0	1.408122E+0	1.427602E+0	1.442944E+0	1.444361E+0	1.456455E+0	1.429250E+0	1.408823E+0	1.458921E+0	1.444150E+0	1.388092E+0	1.484697E+0	1.476238E+0	1.449656E+0	1.466517E+0	1.423100E+0	1.399352E+0	1.472897E+0	1.437797E+0	1.450793E+0	1.438759E+0	1.435392E+0	1.462265E+0	1.438638E+0	1.463577E+0	1.484454E+0	1.472579E+0	1.428065E+0	1.430032E+0	1.423136E+0	1.474516E+0	1.413864E+0	1.463869E+0	1.395721E+0	1.474624E+0	1.453062E+0	1.441912E+0	1.439624E+0	1.501296E+0	1.396277E+0	1.434978E+0	1.393430E+0	1.426505E+0	1.435445E+0	1.437342E+0	1.448564E+0	1.414118E+0	1.387567E+0	1.372607E+0	1.429340E+0	1.455693E+0	1.400716E+0	1.434609E+0	1.418307E+0	1.431483E+0	1.454952E+0	1.460432E+0	1.434705E+0	1.456835E+0	1.460567E+0	1.432368E+0	1.424756E+0	1.417844E+0	1.402145E+0	1.369810E+0	1.429056E+0	1.453914E+0	1.403994E+0	1.397638E+0	1.448577E+0	1.436906E+0	1.400026E+0	1.484335E+0	1.483052E+0	1.441086E+0	1.434389E+0	1.457890E+0	1.426992E+0	1.415951E+0	1.429204E+0	1.416362E+0	1.426752E+0	1.433876E+0	1.416484E+0	1.407425E+0	1.422801E+0	1.416466E+0	1.434745E+0	1.410008E+0	1.415173E+0	1.430935E+0	1.415172E+0	1.428559E+0	1.385841E+0	1.406047E+0	1.454288E+0	1.472758E+0	1.411130E+0	1.420813E+0	1.387981E+0	1.429694E+0	1.430972E+0	1.392530E+0	1.403512E+0	1.431189E+0	1.429238E+0	1.409791E+0	1.455915E+0	1.443358E+0	1.388494E+0	1.434832E+0	1.438095E+0	1.457495E+0	1.431407E+0	1.406262E+0	1.422380E+0	1.382120E+0	1.443107E+0	1.439551E+0	1.485925E+0	1.443677E+0	1.426660E+0	1.385582E+0	1.407233E+0	1.421768E+0	1.381030E+0	1.409281E+0	1.418777E+0	1.377236E+0	1.431825E+0	1.377529E+0	1.496600E+0	1.477977E+0	1.426553E+0	1.448591E+0	1.432898E+0	1.438661E+0	1.419559E+0	1.449867E+0	1.426805E+0	1.381832E+0	1.387240E+0	1.399330E+0	1.423840E+0	1.438591E+0	1.355478E+0	1.377193E+0	1.407034E+0	1.402200E+0	1.390108E+0	1.396315E+0	1.483799E+0
5.437640E+2	1.560794E+0	1.487110E+0	1.513598E+0	1.521575E+0	1.537927E+0	1.505526E+0	1.486788E+0	1.533332E+0	1.515600E+0	1.495274E+0	1.558541E+0	1.473849E+0	1.501593E+0	1.520640E+0	1.497387E+0	1.517360E+0	1.515278E+0	1.523754E+0	1.531246E+0	1.538134E+0	1.501597E+0	1.516919E+0	1.533011E+0	1.560845E+0	1.504081E+0	1.500616E+0	1.518631E+0	1.511096E+0	1.493545E+0	1.496544E+0	1.537851E+0	1.536143E+0	1.500855E+0	1.545443E+0	1.463032E+0	1.521811E+0	1.511866E+0	1.541298E+0	1.590988E+0	1.492009E+0	1.472726E+0	1.557483E+0	1.497753E+0	1.538539E+0	1.534475E+0	1.589036E+0	1.511822E+0	1.496352E+0	1.484360E+0	1.472563E+0	1.472505E+0	1.514742E+0	1.474443E+0	1.485474E+0	1.461285E+0	1.457791E+0	1.463381E+0	1.513850E+0	1.474511E+0	1.457723E+0	1.454391E+0	1.474798E+0	1.541606E+0	1.533542E+0	1.473305E+0	1.533532E+0	1.520813E+0	1.525402E+0	1.517043E+0	1.553418E+0	1.476367E+0	1.495702E+0	1.510235E+0	1.516587E+0	1.547223E+0	1.464820E+0	1.494757E+0	1.492546E+0	1.495669E+0	1.526788E+0	1.554684E+0	1.519753E+0	1.491224E+0	1.486523E+0	1.581402E+0	1.545702E+0	1.485018E+0	1.509661E+0	1.505775E+0	1.518168E+0	1.490616E+0	1.460630E+0	1.516798E+0	1.479605E+0	1.510262E+0	1.525526E+0	1.479092E+0	1.540946E+0	1.487180E+0	1.490648E+0	1.493805E+0	1.467978E+0	1.564136E+0	1.527177E+0	1.470741E+0	1.479239E+0	1.455713E+0	1.498010E+0	1.520049E+0	1.508830E+0	1.483450E+0	1.409934E+0	1.466287E+0	1.432349E+0	1.499751E+0	1.545922E+0	1.503996E+0	1.487253E+0	1.487694E+0	1.453644E+0	1.527351E+0	1.472863E+0	1.511208E+0	1.536223E+0	1.495463E+0	1.490393E+0	1.533060E+0	1.483971E+0	1.475433E+0	1.465514E+0	1.496707E+0	1.479379E+0	1.496391E+0	1.449018E+0	1.485102E+0	1.407254E+0	1.506440E+0	1.502932E+0	1.494302E+0	1.481328E+0	1.477252E+0	1.426384E+0	1.496547E+0	1.478607E+0	1.541932E+0	1.445768E+0	1.539438E+0	1.472756E+0	1.483868E+0	1.482555E+0	1.506742E+0	1.495951E+0	1.462766E+0	1.475515E+0	1.493249E+0	1.495713E+0	1.487292E+0	1.438777E+0	1.507614E+0	1.482365E+0	1.433422E+0	1.468289E+0	1.476971E+0	1.476033E+0	1.493336E+0	1.436201E+0	1.524551E+0	1.517507E+0	1.441488E+0	1.397477E+0	1.484747E+0
5.440120E+2	1.634497E+0	1.535602E+0	1.598109E+0	1.555185E+0	1.643088E+0	1.553525E+0	1.546397E+0	1.528078E+0	1.614450E+0	1.536681E+0	1.612372E+0	1.541292E+0	1.573685E+0	1.530845E+0	1.636181E+0	1.564360E+0	1.566431E+0	1.576056E+0	1.564298E+0	1.591005E+0	1.571833E+0	1.556205E+0	1.533308E+0	1.599545E+0	1.541438E+0	1.614982E+0	1.626259E+0	1.558842E+0	1.532167E+0	1.533295E+0	1.603649E+0	1.588410E+0	1.558512E+0	1.530629E+0	1.554188E+0	1.555999E+0	1.581590E+0	1.591048E+0	1.542485E+0	1.577052E+0	1.523898E+0	1.568996E+0	1.539365E+0	1.627664E+0	1.552627E+0	1.561304E+0	1.490284E+0	1.580555E+0	1.598992E+0	1.534185E+0	1.531792E+0	1.558118E+0	1.561861E+0	1.590134E+0	1.573285E+0	1.574386E+0	1.587258E+0	1.529856E+0	1.550313E+0	1.550531E+0	1.546499E+0	1.564780E+0	1.525399E+0	1.533083E+0	1.571608E+0	1.556659E+0	1.580646E+0	1.570158E+0	1.533963E+0	1.590438E+0	1.548898E+0	1.580736E+0	1.565954E+0	1.524285E+0	1.562399E+0	1.562428E+0	1.581538E+0	1.616850E+0	1.533433E+0	1.529646E+0	1.536338E+0	1.620970E+0	1.560249E+0	1.536779E+0	1.572841E+0	1.517706E+0	1.478269E+0	1.523384E+0	1.577845E+0	1.547918E+0	1.559767E+0	1.552937E+0	1.583173E+0	1.536479E+0	1.543799E+0	1.554141E+0	1.571987E+0	1.605423E+0	1.553356E+0	1.546858E+0	1.615261E+0	1.460093E+0	1.526334E+0	1.563021E+0	1.576096E+0	1.557637E+0	1.504498E+0	1.573770E+0	1.570679E+0	1.542603E+0	1.585468E+0	1.507775E+0	1.516088E+0	1.511437E+0	1.496428E+0	1.539754E+0	1.634933E+0	1.553626E+0	1.514931E+0	1.523463E+0	1.565282E+0	1.612776E+0	1.542031E+0	1.559126E+0	1.543642E+0	1.547173E+0	1.554893E+0	1.532848E+0	1.484853E+0	1.609602E+0	1.527841E+0	1.543672E+0	1.567741E+0	1.543510E+0	1.557714E+0	1.504467E+0	1.528773E+0	1.522377E+0	1.539040E+0	1.532142E+0	1.535432E+0	1.492006E+0	1.573081E+0	1.526526E+0	1.535907E+0	1.525692E+0	1.559904E+0	1.528714E+0	1.526122E+0	1.555335E+0	1.505230E+0	1.535691E+0	1.501314E+0	1.570448E+0	1.598614E+0	1.620144E+0	1.562604E+0	1.551484E+0	1.558027E+0	1.508615E+0	1.546511E+0	1.588936E+0	1.552003E+0	1.519782E+0	1.560165E+0	1.540323E+0	1.528498E+0	1.558437E+0	1.459514E+0	1.504550E+0	1.537758E+0
5.442860E+2	1.667532E+0	1.508860E+0	1.635629E+0	1.564045E+0	1.593195E+0	1.547485E+0	1.602519E+0	1.592956E+0	1.646612E+0	1.596643E+0	1.529299E+0	1.528100E+0	1.554374E+0	1.460477E+0	1.576146E+0	1.583884E+0	1.556658E+0	1.537202E+0	1.542967E+0	1.576036E+0	1.612533E+0	1.574103E+0	1.546777E+0	1.583141E+0	1.556504E+0	1.601184E+0	1.603575E+0	1.619015E+0	1.531941E+0	1.561514E+0	1.607685E+0	1.560351E+0	1.583611E+0	1.624394E+0	1.555263E+0	1.516058E+0	1.591984E+0	1.538321E+0	1.557251E+0	1.555282E+0	1.542260E+0	1.538284E+0	1.499447E+0	1.559555E+0	1.505542E+0	1.529698E+0	1.502798E+0	1.523505E+0	1.545970E+0	1.569717E+0	1.537121E+0	1.533336E+0	1.564933E+0	1.539669E+0	1.560026E+0	1.537411E+0	1.609370E+0	1.556137E+0	1.532496E+0	1.492978E+0	1.521068E+0	1.574268E+0	1.599218E+0	1.586209E+0	1.604920E+0	1.553229E+0	1.585302E+0	1.579221E+0	1.587712E+0	1.567335E+0	1.552791E+0	1.581415E+0	1.548735E+0	1.568551E+0	1.573207E+0	1.600073E+0	1.590540E+0	1.596727E+0	1.617294E+0	1.610871E+0	1.527258E+0	1.524627E+0	1.509618E+0	1.529457E+0	1.593574E+0	1.571642E+0	1.574018E+0	1.529846E+0	1.616488E+0	1.550588E+0	1.538687E+0	1.577631E+0	1.528959E+0	1.498938E+0	1.618679E+0	1.553787E+0	1.583715E+0	1.557547E+0	1.543237E+0	1.534078E+0	1.585875E+0	1.546309E+0	1.574715E+0	1.561756E+0	1.561904E+0	1.554166E+0	1.525931E+0	1.591829E+0	1.576611E+0	1.573506E+0	1.612145E+0	1.503482E+0	1.542024E+0	1.557018E+0	1.559426E+0	1.544687E+0	1.554430E+0	1.521525E+0	1.574883E+0	1.558417E+0	1.602521E+0	1.587315E+0	1.542310E+0	1.537645E+0	1.544453E+0	1.559442E+0	1.598413E+0	1.568525E+0	1.581392E+0	1.508438E+0	1.572671E+0	1.491664E+0	1.552807E+0	1.524832E+0	1.518544E+0	1.531951E+0	1.489887E+0	1.571823E+0	1.505743E+0	1.544346E+0	1.508284E+0	1.504497E+0	1.590134E+0	1.532544E+0	1.524388E+0	1.529987E+0	1.539275E+0	1.515422E+0	1.564737E+0	1.563039E+0	1.554981E+0	1.574684E+0	1.545239E+0	1.501850E+0	1.592993E+0	1.551382E+0	1.549677E+0	1.524934E+0	1.577642E+0	1.531619E+0	1.529317E+0	1.560604E+0	1.534341E+0	1.536407E+0	1.551743E+0	1.509481E+0	1.543197E+0	1.563926E+0	1.468865E+0	1.545831E+0	1.492773E+0
5.445290E+2	1.599335E+0	1.525228E+0	1.563742E+0	1.466382E+0	1.533791E+0	1.508826E+0	1.531287E+0	1.551467E+0	1.581723E+0	1.557035E+0	1.558949E+0	1.563667E+0	1.556094E+0	1.497817E+0	1.607213E+0	1.540792E+0	1.555046E+0	1.553045E+0	1.497392E+0	1.525095E+0	1.548672E+0	1.553431E+0	1.567157E+0	1.493673E+0	1.568291E+0	1.601910E+0	1.571794E+0	1.536407E+0	1.553526E+0	1.535887E+0	1.570992E+0	1.564596E+0	1.575731E+0	1.538539E+0	1.533387E+0	1.526316E+0	1.556729E+0	1.572507E+0	1.527527E+0	1.521792E+0	1.551966E+0	1.523526E+0	1.562406E+0	1.550466E+0	1.541109E+0	1.562513E+0	1.505883E+0	1.600606E+0	1.514573E+0	1.555472E+0	1.505928E+0	1.556285E+0	1.564615E+0	1.553689E+0	1.533931E+0	1.531629E+0	1.539644E+0	1.541374E+0	1.568715E+0	1.515455E+0	1.520962E+0	1.582370E+0	1.543656E+0	1.590259E+0	1.516077E+0	1.533920E+0	1.531302E+0	1.538129E+0	1.596004E+0	1.562001E+0	1.538169E+0	1.540742E+0	1.542531E+0	1.550511E+0	1.509001E+0	1.469180E+0	1.537507E+0	1.524080E+0	1.479868E+0	1.482662E+0	1.512650E+0	1.541613E+0	1.546053E+0	1.502588E+0	1.566928E+0	1.537747E+0	1.477930E+0	1.492215E+0	1.578324E+0	1.539695E+0	1.505352E+0	1.582606E+0	1.546574E+0	1.482956E+0	1.569500E+0	1.493801E+0	1.525425E+0	1.523633E+0	1.554399E+0	1.529844E+0	1.583829E+0	1.511520E+0	1.552327E+0	1.528392E+0	1.525857E+0	1.494672E+0	1.531289E+0	1.552152E+0	1.534453E+0	1.560754E+0	1.596252E+0	1.561981E+0	1.462375E+0	1.525859E+0	1.542958E+0	1.523579E+0	1.555691E+0	1.524390E+0	1.503145E+0	1.541169E+0	1.486686E+0	1.538221E+0	1.514496E+0	1.536018E+0	1.527395E+0	1.493262E+0	1.559690E+0	1.562173E+0	1.485575E+0	1.553678E+0	1.583187E+0	1.506330E+0	1.508319E+0	1.527338E+0	1.481722E+0	1.542918E+0	1.525080E+0	1.484988E+0	1.592985E+0	1.540806E+0	1.474388E+0	1.539297E+0	1.599128E+0	1.470954E+0	1.474566E+0	1.442397E+0	1.485644E+0	1.544970E+0	1.570111E+0	1.542011E+0	1.548854E+0	1.505578E+0	1.509448E+0	1.546952E+0	1.580959E+0	1.564489E+0	1.500788E+0	1.504251E+0	1.556909E+0	1.494814E+0	1.467573E+0	1.514748E+0	1.516078E+0	1.477826E+0	1.524217E+0	1.535040E+0	1.515185E+0	1.530377E+0	1.502514E+0	1.461290E+0	1.513399E+0
5.447660E+2	1.502863E+0	1.419512E+0	1.494567E+0	1.442346E+0	1.508193E+0	1.456884E+0	1.464130E+0	1.442140E+0	1.454037E+0	1.451886E+0	1.463848E+0	1.371318E+0	1.461494E+0	1.395441E+0	1.508708E+0	1.476381E+0	1.458766E+0	1.455464E+0	1.455336E+0	1.501581E+0	1.499309E+0	1.435085E+0	1.453070E+0	1.460583E+0	1.456781E+0	1.475712E+0	1.474859E+0	1.433444E+0	1.474804E+0	1.439473E+0	1.470484E+0	1.461944E+0	1.522864E+0	1.432959E+0	1.486827E+0	1.440751E+0	1.514438E+0	1.486577E+0	1.470231E+0	1.418438E+0	1.451034E+0	1.460545E+0	1.446648E+0	1.470732E+0	1.472348E+0	1.434921E+0	1.498789E+0	1.495948E+0	1.424485E+0	1.441406E+0	1.457330E+0	1.510738E+0	1.428712E+0	1.497348E+0	1.462916E+0	1.442683E+0	1.467869E+0	1.423714E+0	1.427625E+0	1.445323E+0	1.399283E+0	1.437040E+0	1.464852E+0	1.480409E+0	1.464933E+0	1.401328E+0	1.388572E+0	1.423568E+0	1.475843E+0	1.458922E+0	1.421784E+0	1.448350E+0	1.468698E+0	1.467274E+0	1.465836E+0	1.457015E+0	1.445309E+0	1.441108E+0	1.451234E+0	1.491025E+0	1.416384E+0	1.464690E+0	1.464663E+0	1.459975E+0	1.457835E+0	1.453463E+0	1.425613E+0	1.419124E+0	1.469233E+0	1.448551E+0	1.378294E+0	1.444053E+0	1.473555E+0	1.397458E+0	1.445360E+0	1.400704E+0	1.426248E+0	1.451374E+0	1.453153E+0	1.425714E+0	1.456242E+0	1.401051E+0	1.444068E+0	1.391803E+0	1.436494E+0	1.465037E+0	1.431682E+0	1.441913E+0	1.437472E+0	1.462065E+0	1.462711E+0	1.401423E+0	1.421845E+0	1.450507E+0	1.455957E+0	1.381816E+0	1.473902E+0	1.467366E+0	1.410471E+0	1.381933E+0	1.453058E+0	1.397232E+0	1.399180E+0	1.441722E+0	1.421054E+0	1.413773E+0	1.454611E+0	1.426023E+0	1.413950E+0	1.403606E+0	1.459245E+0	1.442716E+0	1.435173E+0	1.487407E+0	1.430773E+0	1.436515E+0	1.382043E+0	1.442131E+0	1.471746E+0	1.461132E+0	1.418007E+0	1.399879E+0	1.476410E+0	1.412632E+0	1.414533E+0	1.405448E+0	1.400469E+0	1.338817E+0	1.325538E+0	1.490830E+0	1.501987E+0	1.392429E+0	1.488192E+0	1.403441E+0	1.442759E+0	1.461481E+0	1.425741E+0	1.481762E+0	1.442100E+0	1.406476E+0	1.411090E+0	1.436047E+0	1.437461E+0	1.429272E+0	1.424360E+0	1.439995E+0	1.397872E+0	1.434023E+0	1.408148E+0	1.350406E+0	1.433999E+0
5.450200E+2	1.434191E+0	1.342759E+0	1.394738E+0	1.299705E+0	1.342653E+0	1.341565E+0	1.341618E+0	1.438208E+0	1.395997E+0	1.364328E+0	1.383604E+0	1.343542E+0	1.326715E+0	1.329931E+0	1.404543E+0	1.402129E+0	1.344742E+0	1.392476E+0	1.344481E+0	1.354450E+0	1.349565E+0	1.332169E+0	1.293775E+0	1.371196E+0	1.385054E+0	1.376027E+0	1.327926E+0	1.378011E+0	1.331708E+0	1.402991E+0	1.355585E+0	1.363975E+0	1.386165E+0	1.332659E+0	1.327180E+0	1.339487E+0	1.332766E+0	1.366442E+0	1.334773E+0	1.350968E+0	1.351016E+0	1.379996E+0	1.345023E+0	1.336330E+0	1.377223E+0	1.357479E+0	1.351842E+0	1.376688E+0	1.365686E+0	1.373141E+0	1.339401E+0	1.336327E+0	1.308514E+0	1.336362E+0	1.368989E+0	1.361499E+0	1.327600E+0	1.348299E+0	1.351135E+0	1.340746E+0	1.348139E+0	1.359034E+0	1.296681E+0	1.358430E+0	1.351597E+0	1.304844E+0	1.339697E+0	1.379453E+0	1.391479E+0	1.330783E+0	1.358376E+0	1.353693E+0	1.331936E+0	1.333676E+0	1.331809E+0	1.372999E+0	1.323673E+0	1.358222E+0	1.347406E+0	1.333231E+0	1.347878E+0	1.338900E+0	1.318862E+0	1.309788E+0	1.355581E+0	1.330637E+0	1.319647E+0	1.343183E+0	1.356171E+0	1.356951E+0	1.385956E+0	1.368497E+0	1.413760E+0	1.322802E+0	1.372923E+0	1.363062E+0	1.334436E+0	1.376573E+0	1.334120E+0	1.315415E+0	1.426073E+0	1.313158E+0	1.362153E+0	1.310836E+0	1.382484E+0	1.310304E+0	1.343842E+0	1.325243E+0	1.367661E+0	1.346316E+0	1.376306E+0	1.372329E+0	1.316692E+0	1.331946E+0	1.349002E+0	1.324583E+0	1.376873E+0	1.310603E+0	1.324923E+0	1.317712E+0	1.381257E+0	1.292494E+0	1.352645E+0	1.359588E+0	1.361981E+0	1.357608E+0	1.374196E+0	1.339442E+0	1.292812E+0	1.341941E+0	1.370736E+0	1.393594E+0	1.350559E+0	1.362993E+0	1.330494E+0	1.359863E+0	1.301860E+0	1.364457E+0	1.337311E+0	1.359037E+0	1.341023E+0	1.365100E+0	1.374371E+0	1.315169E+0	1.338385E+0	1.310786E+0	1.332972E+0	1.263986E+0	1.304973E+0	1.327055E+0	1.311173E+0	1.316135E+0	1.365561E+0	1.302498E+0	1.389658E+0	1.345976E+0	1.306128E+0	1.313040E+0	1.364555E+0	1.321931E+0	1.335929E+0	1.307406E+0	1.380398E+0	1.326003E+0	1.378422E+0	1.343587E+0	1.332260E+0	1.355477E+0	1.320109E+0	1.287046E+0	1.276674E+0
5.452740E+2	1.365401E+0	1.268148E+0	1.355621E+0	1.259814E+0	1.315590E+0	1.286567E+0	1.315862E+0	1.285474E+0	1.316630E+0	1.323278E+0	1.232653E+0	1.276689E+0	1.256600E+0	1.237145E+0	1.289185E+0	1.245594E+0	1.261130E+0	1.275572E+0	1.229987E+0	1.271678E+0	1.256001E+0	1.251384E+0	1.245273E+0	1.282145E+0	1.302926E+0	1.318875E+0	1.256516E+0	1.308539E+0	1.238404E+0	1.279328E+0	1.307156E+0	1.262223E+0	1.285955E+0	1.317616E+0	1.267228E+0	1.253103E+0	1.279808E+0	1.301578E+0	1.324384E+0	1.277433E+0	1.274311E+0	1.243307E+0	1.216157E+0	1.307524E+0	1.283102E+0	1.287427E+0	1.263917E+0	1.298239E+0	1.239184E+0	1.280999E+0	1.287122E+0	1.262438E+0	1.269611E+0	1.304482E+0	1.247099E+0	1.281836E+0	1.278205E+0	1.298163E+0	1.309587E+0	1.295387E+0	1.216772E+0	1.288147E+0	1.269240E+0	1.264926E+0	1.278657E+0	1.239403E+0	1.289958E+0	1.271261E+0	1.315891E+0	1.293382E+0	1.257703E+0	1.255131E+0	1.250971E+0	1.283595E+0	1.248623E+0	1.264531E+0	1.279298E+0	1.277810E+0	1.279962E+0	1.294634E+0	1.312248E+0	1.323814E+0	1.217738E+0	1.240731E+0	1.257537E+0	1.241156E+0	1.243679E+0	1.301678E+0	1.276896E+0	1.307711E+0	1.280358E+0	1.245245E+0	1.297871E+0	1.251832E+0	1.225652E+0	1.307145E+0	1.253691E+0	1.266484E+0	1.277125E+0	1.242687E+0	1.279172E+0	1.214805E+0	1.272169E+0	1.257148E+0	1.283414E+0	1.304980E+0	1.262520E+0	1.268100E+0	1.260327E+0	1.337391E+0	1.272320E+0	1.291042E+0	1.274477E+0	1.253535E+0	1.267451E+0	1.276444E+0	1.242724E+0	1.231263E+0	1.282806E+0	1.270096E+0	1.259688E+0	1.251083E+0	1.225423E+0	1.281802E+0	1.312293E+0	1.239372E+0	1.310181E+0	1.274303E+0	1.246815E+0	1.257231E+0	1.290046E+0	1.253138E+0	1.265755E+0	1.268552E+0	1.248191E+0	1.299209E+0	1.245702E+0	1.262973E+0	1.319045E+0	1.310808E+0	1.244231E+0	1.255013E+0	1.247531E+0	1.295305E+0	1.282606E+0	1.299584E+0	1.254301E+0	1.226062E+0	1.296060E+0	1.279417E+0	1.283701E+0	1.289333E+0	1.277713E+0	1.225740E+0	1.239836E+0	1.301891E+0	1.244049E+0	1.229107E+0	1.237868E+0	1.246898E+0	1.260249E+0	1.263420E+0	1.246561E+0	1.239592E+0	1.297344E+0	1.242448E+0	1.285565E+0	1.251693E+0	1.242608E+0	1.257448E+0	1.286059E+0
5.455290E+2	1.269899E+0	1.187056E+0	1.265133E+0	1.200503E+0	1.241537E+0	1.219628E+0	1.205063E+0	1.215481E+0	1.271549E+0	1.207948E+0	1.185975E+0	1.247120E+0	1.191271E+0	1.205600E+0	1.232951E+0	1.189585E+0	1.255040E+0	1.232363E+0	1.227494E+0	1.198264E+0	1.197145E+0	1.225695E+0	1.193016E+0	1.217469E+0	1.204726E+0	1.236989E+0	1.196251E+0	1.250311E+0	1.213564E+0	1.168875E+0	1.205807E+0	1.250348E+0	1.251304E+0	1.258272E+0	1.251419E+0	1.210864E+0	1.171487E+0	1.258418E+0	1.212152E+0	1.217426E+0	1.220606E+0	1.261632E+0	1.230003E+0	1.218629E+0	1.236041E+0	1.243662E+0	1.225099E+0	1.216724E+0	1.202303E+0	1.184379E+0	1.186414E+0	1.246522E+0	1.236012E+0	1.205637E+0	1.260750E+0	1.204940E+0	1.219997E+0	1.224720E+0	1.186819E+0	1.219006E+0	1.203644E+0	1.202681E+0	1.167419E+0	1.240728E+0	1.255107E+0	1.228507E+0	1.185126E+0	1.235373E+0	1.166065E+0	1.239553E+0	1.198946E+0	1.227482E+0	1.248542E+0	1.207142E+0	1.206740E+0	1.239864E+0	1.258551E+0	1.217471E+0	1.220345E+0	1.267921E+0	1.222739E+0	1.221506E+0	1.210213E+0	1.246688E+0	1.257250E+0	1.207577E+0	1.204923E+0	1.209669E+0	1.214094E+0	1.169484E+0	1.163973E+0	1.234906E+0	1.244679E+0	1.243716E+0	1.273849E+0	1.232999E+0	1.217166E+0	1.226032E+0	1.175115E+0	1.178374E+0	1.273384E+0	1.184163E+0	1.221700E+0	1.234899E+0	1.223719E+0	1.235288E+0	1.224256E+0	1.244052E+0	1.273680E+0	1.167072E+0	1.238626E+0	1.261737E+0	1.202819E+0	1.179507E+0	1.226063E+0	1.195081E+0	1.226105E+0	1.169776E+0	1.195709E+0	1.198786E+0	1.209278E+0	1.213901E+0	1.197887E+0	1.238943E+0	1.221771E+0	1.174270E+0	1.306387E+0	1.277286E+0	1.203164E+0	1.240563E+0	1.174702E+0	1.214804E+0	1.165852E+0	1.214574E+0	1.203179E+0	1.187230E+0	1.269530E+0	1.187939E+0	1.200916E+0	1.245402E+0	1.220611E+0	1.203759E+0	1.187173E+0	1.191605E+0	1.221103E+0	1.184625E+0	1.205327E+0	1.136040E+0	1.215618E+0	1.214744E+0	1.204302E+0	1.218378E+0	1.229415E+0	1.233965E+0	1.168951E+0	1.217962E+0	1.204446E+0	1.175593E+0	1.244764E+0	1.229626E+0	1.165114E+0	1.214569E+0	1.264579E+0	1.176274E+0	1.231924E+0	1.190459E+0	1.229402E+0	1.157494E+0	1.191324E+0	1.148169E+0	1.161102E+0
5.457990E+2	1.213691E+0	1.158198E+0	1.238644E+0	1.197990E+0	1.207286E+0	1.177254E+0	1.209407E+0	1.187027E+0	1.216493E+0	1.201233E+0	1.181446E+0	1.181135E+0	1.206671E+0	1.188313E+0	1.216678E+0	1.145447E+0	1.171128E+0	1.242849E+0	1.218145E+0	1.206234E+0	1.189211E+0	1.216316E+0	1.148245E+0	1.198092E+0	1.177341E+0	1.213789E+0	1.202781E+0	1.228590E+0	1.162516E+0	1.176422E+0	1.175792E+0	1.203498E+0	1.245556E+0	1.180790E+0	1.199973E+0	1.249283E+0	1.198324E+0	1.211486E+0	1.182129E+0	1.198908E+0	1.230108E+0	1.205507E+0	1.192030E+0	1.228809E+0	1.150344E+0	1.195727E+0	1.200176E+0	1.216176E+0	1.202371E+0	1.218742E+0	1.203092E+0	1.160343E+0	1.185468E+0	1.210970E+0	1.159065E+0	1.160868E+0	1.204513E+0	1.182346E+0	1.167631E+0	1.197830E+0	1.193796E+0	1.213189E+0	1.140551E+0	1.199759E+0	1.208620E+0	1.178176E+0	1.183058E+0	1.189040E+0	1.188731E+0	1.223691E+0	1.186083E+0	1.150250E+0	1.207419E+0	1.200611E+0	1.191276E+0	1.179912E+0	1.202139E+0	1.228152E+0	1.131169E+0	1.176348E+0	1.185125E+0	1.213355E+0	1.157684E+0	1.145672E+0	1.187593E+0	1.202491E+0	1.170480E+0	1.196123E+0	1.258046E+0	1.175979E+0	1.231319E+0	1.184910E+0	1.193844E+0	1.211867E+0	1.169709E+0	1.239274E+0	1.173442E+0	1.153541E+0	1.165043E+0	1.207255E+0	1.217133E+0	1.196549E+0	1.200730E+0	1.214902E+0	1.166692E+0	1.164182E+0	1.185092E+0	1.192843E+0	1.177438E+0	1.178967E+0	1.180477E+0	1.221661E+0	1.142966E+0	1.179185E+0	1.128708E+0	1.121342E+0	1.198006E+0	1.226223E+0	1.160709E+0	1.188456E+0	1.177425E+0	1.177151E+0	1.180522E+0	1.201547E+0	1.214455E+0	1.129284E+0	1.169263E+0	1.200992E+0	1.171214E+0	1.157266E+0	1.155228E+0	1.194307E+0	1.172872E+0	1.179146E+0	1.189282E+0	1.146290E+0	1.176080E+0	1.196017E+0	1.193431E+0	1.247993E+0	1.162016E+0	1.184079E+0	1.201291E+0	1.227352E+0	1.141897E+0	1.196949E+0	1.236464E+0	1.138561E+0	1.222875E+0	1.171664E+0	1.173736E+0	1.176062E+0	1.202360E+0	1.165271E+0	1.230632E+0	1.215461E+0	1.208405E+0	1.196610E+0	1.191846E+0	1.202858E+0	1.144395E+0	1.214173E+0	1.123976E+0	1.216172E+0	1.245622E+0	1.150642E+0	1.145880E+0	1.189927E+0	1.152348E+0	1.149725E+0	1.248773E+0
5.460060E+2	1.220186E+0	1.204496E+0	1.207775E+0	1.186823E+0	1.219765E+0	1.230541E+0	1.174718E+0	1.181599E+0	1.196635E+0	1.196027E+0	1.155086E+0	1.182239E+0	1.196152E+0	1.125591E+0	1.160177E+0	1.220817E+0	1.171432E+0	1.179663E+0	1.178391E+0	1.198863E+0	1.162048E+0	1.193061E+0	1.162192E+0	1.184687E+0	1.132085E+0	1.137609E+0	1.218710E+0	1.168382E+0	1.139219E+0	1.153229E+0	1.198084E+0	1.175495E+0	1.186138E+0	1.221246E+0	1.186891E+0	1.186960E+0	1.212124E+0	1.221299E+0	1.165996E+0	1.147643E+0	1.197099E+0	1.221276E+0	1.154682E+0	1.204069E+0	1.148293E+0	1.200595E+0	1.130806E+0	1.213216E+0	1.173868E+0	1.163523E+0	1.183263E+0	1.225673E+0	1.151729E+0	1.185254E+0	1.169953E+0	1.180283E+0	1.220800E+0	1.236311E+0	1.168372E+0	1.143298E+0	1.194687E+0	1.195161E+0	1.144698E+0	1.184983E+0	1.232758E+0	1.145842E+0	1.192834E+0	1.153491E+0	1.177374E+0	1.198364E+0	1.193974E+0	1.211296E+0	1.218533E+0	1.153337E+0	1.170663E+0	1.154880E+0	1.157579E+0	1.188276E+0	1.162260E+0	1.216611E+0	1.119671E+0	1.164594E+0	1.151584E+0	1.120244E+0	1.171347E+0	1.194410E+0	1.136185E+0	1.173790E+0	1.216130E+0	1.143242E+0	1.213070E+0	1.213951E+0	1.166123E+0	1.195811E+0	1.223177E+0	1.163322E+0	1.164342E+0	1.186526E+0	1.213414E+0	1.134818E+0	1.246020E+0	1.140978E+0	1.206779E+0	1.212482E+0	1.147341E+0	1.133103E+0	1.154394E+0	1.186970E+0	1.174106E+0	1.183002E+0	1.176336E+0	1.192844E+0	1.145019E+0	1.130019E+0	1.191227E+0	1.217731E+0	1.170617E+0	1.192496E+0	1.158872E+0	1.177379E+0	1.145024E+0	1.170482E+0	1.204602E+0	1.153444E+0	1.250143E+0	1.165203E+0	1.151489E+0	1.190106E+0	1.142719E+0	1.153521E+0	1.181775E+0	1.181391E+0	1.178766E+0	1.209397E+0	1.155100E+0	1.157855E+0	1.124133E+0	1.176641E+0	1.177802E+0	1.192441E+0	1.157810E+0	1.156651E+0	1.242680E+0	1.168270E+0	1.186438E+0	1.143510E+0	1.182536E+0	1.170185E+0	1.196879E+0	1.137806E+0	1.192645E+0	1.151720E+0	1.214807E+0	1.178484E+0	1.173899E+0	1.140541E+0	1.165340E+0	1.181389E+0	1.211623E+0	1.153493E+0	1.180857E+0	1.168929E+0	1.167702E+0	1.176005E+0	1.164380E+0	1.131138E+0	1.180322E+0	1.154026E+0	1.152786E+0	1.213689E+0	1.131098E+0
5.467710E+2	1.286703E+0	1.256851E+0	1.262822E+0	1.218057E+0	1.231480E+0	1.177480E+0	1.189464E+0	1.254093E+0	1.232753E+0	1.178403E+0	1.218988E+0	1.207152E+0	1.228688E+0	1.210786E+0	1.223543E+0	1.255998E+0	1.263119E+0	1.281010E+0	1.247232E+0	1.235487E+0	1.249734E+0	1.219803E+0	1.220685E+0	1.195453E+0	1.195837E+0	1.217811E+0	1.231129E+0	1.308984E+0	1.226776E+0	1.263194E+0	1.224765E+0	1.271854E+0	1.264211E+0	1.238850E+0	1.212754E+0	1.232157E+0	1.251027E+0	1.189972E+0	1.230493E+0	1.229876E+0	1.223606E+0	1.229276E+0	1.229193E+0	1.234788E+0	1.251630E+0	1.257171E+0	1.254713E+0	1.284323E+0	1.266110E+0	1.241681E+0	1.225734E+0	1.250619E+0	1.200820E+0	1.268283E+0	1.222094E+0	1.189481E+0	1.211722E+0	1.312049E+0	1.250017E+0	1.241473E+0	1.243797E+0	1.177604E+0	1.225594E+0	1.227993E+0	1.250381E+0	1.193347E+0	1.196583E+0	1.241262E+0	1.226802E+0	1.206264E+0	1.242473E+0	1.268669E+0	1.261572E+0	1.262837E+0	1.200283E+0	1.218090E+0	1.206254E+0	1.276530E+0	1.208021E+0	1.241701E+0	1.234476E+0	1.294252E+0	1.183296E+0	1.198210E+0	1.256310E+0	1.212337E+0	1.229940E+0	1.224292E+0	1.228623E+0	1.229473E+0	1.215493E+0	1.255429E+0	1.214518E+0	1.166158E+0	1.209652E+0	1.238684E+0	1.223131E+0	1.219414E+0	1.181189E+0	1.234966E+0	1.239636E+0	1.253713E+0	1.251926E+0	1.238942E+0	1.217262E+0	1.217364E+0	1.222528E+0	1.212915E+0	1.248871E+0	1.209243E+0	1.255782E+0	1.273673E+0	1.215535E+0	1.210744E+0	1.239762E+0	1.209824E+0	1.223112E+0	1.202897E+0	1.226501E+0	1.199992E+0	1.227829E+0	1.231345E+0	1.214774E+0	1.200757E+0	1.240734E+0	1.254914E+0	1.284724E+0	1.202588E+0	1.221419E+0	1.156549E+0	1.205036E+0	1.235492E+0	1.231026E+0	1.192168E+0	1.192591E+0	1.169690E+0	1.215543E+0	1.260613E+0	1.207001E+0	1.264996E+0	1.241703E+0	1.231661E+0	1.198277E+0	1.217637E+0	1.217934E+0	1.254762E+0	1.246592E+0	1.203588E+0	1.202432E+0	1.185853E+0	1.255091E+0	1.237942E+0	1.206316E+0	1.207770E+0	1.175633E+0	1.316991E+0	1.234441E+0	1.235464E+0	1.197017E+0	1.193291E+0	1.165985E+0	1.221409E+0	1.220146E+0	1.176444E+0	1.254819E+0	1.239644E+0	1.211121E+0	1.231654E+0	1.209326E+0	1.180828E+0	1.221623E+0
5.475120E+2	1.390791E+0	1.316600E+0	1.283682E+0	1.309226E+0	1.366550E+0	1.311975E+0	1.351507E+0	1.323811E+0	1.351452E+0	1.322579E+0	1.279876E+0	1.273556E+0	1.317268E+0	1.310473E+0	1.355919E+0	1.276846E+0	1.347270E+0	1.345562E+0	1.305240E+0	1.345857E+0	1.342682E+0	1.355782E+0	1.317084E+0	1.291296E+0	1.282650E+0	1.322962E+0	1.322350E+0	1.318543E+0	1.356648E+0	1.371527E+0	1.342140E+0	1.346629E+0	1.366432E+0	1.389802E+0	1.386610E+0	1.282474E+0	1.390382E+0	1.355887E+0	1.301777E+0	1.351378E+0	1.326509E+0	1.377796E+0	1.251356E+0	1.339269E+0	1.372103E+0	1.263754E+0	1.294795E+0	1.314224E+0	1.327197E+0	1.286039E+0	1.373920E+0	1.343934E+0	1.326208E+0	1.370186E+0	1.350348E+0	1.300333E+0	1.366246E+0	1.351792E+0	1.262981E+0	1.371017E+0	1.271354E+0	1.303877E+0	1.293370E+0	1.329844E+0	1.311648E+0	1.361519E+0	1.319214E+0	1.334787E+0	1.340831E+0	1.319543E+0	1.340140E+0	1.329491E+0	1.315723E+0	1.338385E+0	1.333235E+0	1.302911E+0	1.300961E+0	1.348539E+0	1.320961E+0	1.384477E+0	1.299696E+0	1.301741E+0	1.310495E+0	1.304314E+0	1.342659E+0	1.312846E+0	1.297201E+0	1.344230E+0	1.340995E+0	1.364434E+0	1.304343E+0	1.315641E+0	1.346076E+0	1.237670E+0	1.348935E+0	1.343491E+0	1.345914E+0	1.321848E+0	1.291407E+0	1.314124E+0	1.317956E+0	1.288254E+0	1.299159E+0	1.340874E+0	1.383068E+0	1.294968E+0	1.277728E+0	1.341618E+0	1.332715E+0	1.334344E+0	1.296190E+0	1.293393E+0	1.268622E+0	1.272409E+0	1.368751E+0	1.282861E+0	1.321271E+0	1.381123E+0	1.289871E+0	1.306101E+0	1.338189E+0	1.281259E+0	1.266656E+0	1.393195E+0	1.316799E+0	1.341622E+0	1.298881E+0	1.355057E+0	1.286669E+0	1.300694E+0	1.343244E+0	1.343261E+0	1.342926E+0	1.310878E+0	1.317166E+0	1.276512E+0	1.306863E+0	1.293798E+0	1.320651E+0	1.331750E+0	1.307828E+0	1.304608E+0	1.308032E+0	1.280404E+0	1.251662E+0	1.298256E+0	1.293498E+0	1.361561E+0	1.337681E+0	1.298614E+0	1.305554E+0	1.349143E+0	1.334654E+0	1.297544E+0	1.345918E+0	1.354935E+0	1.318055E+0	1.348185E+0	1.300004E+0	1.293375E+0	1.242093E+0	1.276997E+0	1.317011E+0	1.319925E+0	1.301254E+0	1.304955E+0	1.266720E+0	1.366264E+0	1.351890E+0	1.335016E+0	1.254065E+0
5.482600E+2	1.462212E+0	1.358826E+0	1.443791E+0	1.334385E+0	1.455389E+0	1.443306E+0	1.370350E+0	1.391210E+0	1.383429E+0	1.401332E+0	1.441630E+0	1.323275E+0	1.454306E+0	1.413207E+0	1.403819E+0	1.397365E+0	1.478435E+0	1.423998E+0	1.358474E+0	1.417278E+0	1.420760E+0	1.424660E+0	1.403530E+0	1.399133E+0	1.410626E+0	1.416248E+0	1.387963E+0	1.428412E+0	1.388823E+0	1.414327E+0	1.400680E+0	1.410285E+0	1.434731E+0	1.432366E+0	1.372932E+0	1.376809E+0	1.427214E+0	1.426465E+0	1.384023E+0	1.375258E+0	1.422665E+0	1.407553E+0	1.371234E+0	1.420866E+0	1.419182E+0	1.396222E+0	1.416533E+0	1.376283E+0	1.432853E+0	1.427488E+0	1.355813E+0	1.344257E+0	1.348271E+0	1.403421E+0	1.340492E+0	1.417993E+0	1.417884E+0	1.384928E+0	1.381173E+0	1.381483E+0	1.380428E+0	1.385861E+0	1.385359E+0	1.419918E+0	1.445479E+0	1.379126E+0	1.433607E+0	1.395396E+0	1.397037E+0	1.405699E+0	1.346249E+0	1.442576E+0	1.379231E+0	1.372121E+0	1.390569E+0	1.334602E+0	1.433307E+0	1.379702E+0	1.376222E+0	1.401350E+0	1.367509E+0	1.404227E+0	1.339169E+0	1.331257E+0	1.429869E+0	1.411778E+0	1.352858E+0	1.348446E+0	1.447916E+0	1.390595E+0	1.367490E+0	1.384025E+0	1.422563E+0	1.391927E+0	1.397529E+0	1.379478E+0	1.366307E+0	1.369015E+0	1.353151E+0	1.406257E+0	1.383363E+0	1.363377E+0	1.385971E+0	1.352185E+0	1.406495E+0	1.342623E+0	1.365813E+0	1.356159E+0	1.326400E+0	1.392834E+0	1.413727E+0	1.421853E+0	1.364639E+0	1.394914E+0	1.365551E+0	1.367224E+0	1.386541E+0	1.390615E+0	1.370572E+0	1.405573E+0	1.437680E+0	1.378599E+0	1.353270E+0	1.406168E+0	1.378768E+0	1.405285E+0	1.370485E+0	1.387112E+0	1.400781E+0	1.335653E+0	1.388722E+0	1.425672E+0	1.388940E+0	1.396752E+0	1.375408E+0	1.344083E+0	1.395502E+0	1.410088E+0	1.428022E+0	1.422102E+0	1.369575E+0	1.377791E+0	1.365467E+0	1.351000E+0	1.331992E+0	1.343069E+0	1.359671E+0	1.412567E+0	1.354214E+0	1.382559E+0	1.335469E+0	1.344802E+0	1.408616E+0	1.353825E+0	1.397777E+0	1.400393E+0	1.407242E+0	1.400203E+0	1.367397E+0	1.380457E+0	1.384084E+0	1.414438E+0	1.353004E+0	1.406920E+0	1.407823E+0	1.349567E+0	1.393920E+0	1.344771E+0	1.343370E+0	1.353221E+0	1.355942E+0
5.490490E+2	1.418522E+0	1.389947E+0	1.386117E+0	1.374990E+0	1.415109E+0	1.405542E+0	1.371376E+0	1.435164E+0	1.452153E+0	1.359931E+0	1.362259E+0	1.292343E+0	1.446341E+0	1.357782E+0	1.375863E+0	1.379646E+0	1.384372E+0	1.380950E+0	1.347732E+0	1.382455E+0	1.450535E+0	1.396730E+0	1.374360E+0	1.375111E+0	1.403845E+0	1.357275E+0	1.394315E+0	1.367257E+0	1.415407E+0	1.354722E+0	1.408642E+0	1.400997E+0	1.386452E+0	1.410039E+0	1.371303E+0	1.318902E+0	1.435804E+0	1.416100E+0	1.442105E+0	1.409614E+0	1.414638E+0	1.456601E+0	1.378551E+0	1.376797E+0	1.422548E+0	1.366321E+0	1.331154E+0	1.389366E+0	1.388938E+0	1.396504E+0	1.352300E+0	1.356738E+0	1.372999E+0	1.382796E+0	1.388030E+0	1.379866E+0	1.398309E+0	1.357075E+0	1.373726E+0	1.353198E+0	1.361282E+0	1.342303E+0	1.349019E+0	1.376604E+0	1.439770E+0	1.380677E+0	1.378571E+0	1.309898E+0	1.407554E+0	1.400858E+0	1.378934E+0	1.399161E+0	1.390095E+0	1.367899E+0	1.396098E+0	1.347644E+0	1.306517E+0	1.414919E+0	1.386167E+0	1.337141E+0	1.369479E+0	1.414207E+0	1.352286E+0	1.337796E+0	1.412402E+0	1.386578E+0	1.342880E+0	1.374681E+0	1.387423E+0	1.355448E+0	1.356598E+0	1.314370E+0	1.378117E+0	1.319795E+0	1.359813E+0	1.389385E+0	1.383807E+0	1.428177E+0	1.369621E+0	1.394238E+0	1.439397E+0	1.331263E+0	1.365634E+0	1.355188E+0	1.433603E+0	1.394097E+0	1.354589E+0	1.419197E+0	1.429856E+0	1.380288E+0	1.369270E+0	1.352004E+0	1.360358E+0	1.354229E+0	1.372183E+0	1.352067E+0	1.394024E+0	1.412587E+0	1.387729E+0	1.354804E+0	1.389618E+0	1.360964E+0	1.373600E+0	1.410422E+0	1.388812E+0	1.372650E+0	1.371565E+0	1.371004E+0	1.339497E+0	1.339684E+0	1.367288E+0	1.367778E+0	1.357402E+0	1.357127E+0	1.381244E+0	1.347676E+0	1.365400E+0	1.413374E+0	1.408545E+0	1.364801E+0	1.400317E+0	1.297647E+0	1.401248E+0	1.370315E+0	1.313937E+0	1.332560E+0	1.364571E+0	1.373712E+0	1.418875E+0	1.352097E+0	1.350378E+0	1.382094E+0	1.374828E+0	1.394215E+0	1.381406E+0	1.386201E+0	1.374413E+0	1.373255E+0	1.364037E+0	1.400936E+0	1.297571E+0	1.324479E+0	1.315660E+0	1.375096E+0	1.391222E+0	1.363765E+0	1.341872E+0	1.341194E+0	1.427638E+0	1.438766E+0	1.384462E+0
5.497850E+2	1.417682E+0	1.373953E+0	1.408573E+0	1.304820E+0	1.389078E+0	1.376193E+0	1.366710E+0	1.377615E+0	1.426801E+0	1.387397E+0	1.354212E+0	1.283255E+0	1.387444E+0	1.313439E+0	1.359752E+0	1.339279E+0	1.419069E+0	1.360529E+0	1.348372E+0	1.369033E+0	1.401627E+0	1.335450E+0	1.332676E+0	1.364187E+0	1.329092E+0	1.382467E+0	1.381509E+0	1.423251E+0	1.355770E+0	1.337998E+0	1.396578E+0	1.344565E+0	1.405454E+0	1.409606E+0	1.367916E+0	1.329375E+0	1.393663E+0	1.404552E+0	1.339979E+0	1.374989E+0	1.382782E+0	1.340867E+0	1.366147E+0	1.407546E+0	1.326382E+0	1.357387E+0	1.340491E+0	1.407837E+0	1.372216E+0	1.328627E+0	1.331295E+0	1.355359E+0	1.351879E+0	1.392225E+0	1.374991E+0	1.290131E+0	1.282131E+0	1.426027E+0	1.350286E+0	1.379622E+0	1.354873E+0	1.342451E+0	1.422844E+0	1.348024E+0	1.398368E+0	1.369711E+0	1.341383E+0	1.340970E+0	1.364852E+0	1.392548E+0	1.339061E+0	1.353439E+0	1.412922E+0	1.372528E+0	1.363580E+0	1.372141E+0	1.347726E+0	1.381699E+0	1.357563E+0	1.359460E+0	1.347218E+0	1.392059E+0	1.319996E+0	1.367187E+0	1.355493E+0	1.392758E+0	1.331282E+0	1.333787E+0	1.429579E+0	1.387279E+0	1.346365E+0	1.351867E+0	1.373181E+0	1.351466E+0	1.371675E+0	1.334675E+0	1.396052E+0	1.364625E+0	1.407780E+0	1.343552E+0	1.450641E+0	1.409556E+0	1.397361E+0	1.311766E+0	1.384461E+0	1.310653E+0	1.322270E+0	1.334423E+0	1.357828E+0	1.392953E+0	1.389572E+0	1.378376E+0	1.375529E+0	1.362522E+0	1.321986E+0	1.348017E+0	1.387960E+0	1.368846E+0	1.340719E+0	1.327949E+0	1.369283E+0	1.349052E+0	1.346025E+0	1.348345E+0	1.408513E+0	1.331745E+0	1.340356E+0	1.335541E+0	1.278428E+0	1.373584E+0	1.389150E+0	1.342647E+0	1.374528E+0	1.336381E+0	1.351016E+0	1.310993E+0	1.354192E+0	1.342807E+0	1.347602E+0	1.336998E+0	1.369901E+0	1.371587E+0	1.438663E+0	1.337097E+0	1.311989E+0	1.346971E+0	1.340965E+0	1.351584E+0	1.356143E+0	1.365362E+0	1.375969E+0	1.365639E+0	1.348516E+0	1.332198E+0	1.360869E+0	1.404613E+0	1.299428E+0	1.302102E+0	1.374942E+0	1.327222E+0	1.325661E+0	1.396593E+0	1.353561E+0	1.358346E+0	1.379518E+0	1.328857E+0	1.360966E+0	1.404672E+0	1.362861E+0	1.365588E+0	1.379349E+0
5.505170E+2	1.414982E+0	1.369888E+0	1.349102E+0	1.354275E+0	1.375708E+0	1.340985E+0	1.344574E+0	1.362993E+0	1.369136E+0	1.346381E+0	1.346424E+0	1.258602E+0	1.358370E+0	1.316205E+0	1.391044E+0	1.338496E+0	1.304019E+0	1.297062E+0	1.334991E+0	1.303630E+0	1.337344E+0	1.337876E+0	1.343921E+0	1.355737E+0	1.344912E+0	1.347540E+0	1.313958E+0	1.297526E+0	1.312767E+0	1.327802E+0	1.380735E+0	1.348725E+0	1.337611E+0	1.386747E+0	1.357982E+0	1.368156E+0	1.347481E+0	1.313360E+0	1.355247E+0	1.283940E+0	1.320832E+0	1.342521E+0	1.284392E+0	1.347298E+0	1.406239E+0	1.340681E+0	1.317998E+0	1.350461E+0	1.315440E+0	1.368016E+0	1.361178E+0	1.308383E+0	1.347477E+0	1.308390E+0	1.355775E+0	1.314350E+0	1.381401E+0	1.390938E+0	1.294346E+0	1.333805E+0	1.341920E+0	1.372988E+0	1.284990E+0	1.318246E+0	1.360178E+0	1.340058E+0	1.329519E+0	1.347959E+0	1.364496E+0	1.336952E+0	1.337062E+0	1.326414E+0	1.356960E+0	1.338229E+0	1.304128E+0	1.361348E+0	1.362915E+0	1.336431E+0	1.282021E+0	1.348381E+0	1.308671E+0	1.381956E+0	1.279683E+0	1.342423E+0	1.312446E+0	1.357030E+0	1.343273E+0	1.328395E+0	1.317019E+0	1.323997E+0	1.351293E+0	1.306662E+0	1.316139E+0	1.330630E+0	1.300957E+0	1.315177E+0	1.336912E+0	1.356420E+0	1.320847E+0	1.337955E+0	1.350499E+0	1.283907E+0	1.330665E+0	1.365895E+0	1.320280E+0	1.335696E+0	1.301011E+0	1.372022E+0	1.346996E+0	1.312318E+0	1.351748E+0	1.307737E+0	1.339790E+0	1.325320E+0	1.337225E+0	1.338008E+0	1.358549E+0	1.302946E+0	1.336293E+0	1.316326E+0	1.345757E+0	1.312512E+0	1.259137E+0	1.311866E+0	1.338211E+0	1.341467E+0	1.327719E+0	1.351576E+0	1.255955E+0	1.343821E+0	1.300519E+0	1.311988E+0	1.339268E+0	1.302081E+0	1.311922E+0	1.241101E+0	1.353749E+0	1.336025E+0	1.284386E+0	1.326287E+0	1.294189E+0	1.290720E+0	1.343882E+0	1.320532E+0	1.320623E+0	1.342611E+0	1.327285E+0	1.310074E+0	1.270886E+0	1.334322E+0	1.323758E+0	1.320492E+0	1.301424E+0	1.351104E+0	1.335508E+0	1.348813E+0	1.300998E+0	1.286556E+0	1.307381E+0	1.317532E+0	1.278761E+0	1.331332E+0	1.332258E+0	1.338248E+0	1.313498E+0	1.285720E+0	1.279039E+0	1.356407E+0	1.364606E+0	1.264494E+0	1.420569E+0
5.512620E+2	1.330873E+0	1.294586E+0	1.259154E+0	1.302220E+0	1.358085E+0	1.279258E+0	1.305038E+0	1.290202E+0	1.363550E+0	1.281076E+0	1.257469E+0	1.272541E+0	1.300206E+0	1.272536E+0	1.328387E+0	1.292449E+0	1.323766E+0	1.324008E+0	1.322251E+0	1.323946E+0	1.315478E+0	1.315581E+0	1.342704E+0	1.323491E+0	1.291577E+0	1.330860E+0	1.245114E+0	1.364931E+0	1.290936E+0	1.330107E+0	1.356656E+0	1.314207E+0	1.307170E+0	1.357847E+0	1.333595E+0	1.311932E+0	1.321280E+0	1.302653E+0	1.308848E+0	1.302094E+0	1.280196E+0	1.304932E+0	1.304225E+0	1.310112E+0	1.292257E+0	1.244200E+0	1.297547E+0	1.331551E+0	1.265083E+0	1.291482E+0	1.281602E+0	1.260674E+0	1.300267E+0	1.311825E+0	1.328404E+0	1.286427E+0	1.355584E+0	1.312937E+0	1.254168E+0	1.297454E+0	1.266474E+0	1.338883E+0	1.282190E+0	1.289836E+0	1.334155E+0	1.274445E+0	1.297081E+0	1.287666E+0	1.330869E+0	1.278733E+0	1.318339E+0	1.317832E+0	1.330862E+0	1.345142E+0	1.292745E+0	1.329675E+0	1.268330E+0	1.353475E+0	1.262969E+0	1.279621E+0	1.285562E+0	1.302020E+0	1.232214E+0	1.251142E+0	1.354234E+0	1.317970E+0	1.293216E+0	1.276952E+0	1.349149E+0	1.250416E+0	1.283426E+0	1.295207E+0	1.274434E+0	1.269265E+0	1.296493E+0	1.305659E+0	1.326634E+0	1.274514E+0	1.321613E+0	1.299821E+0	1.290697E+0	1.295615E+0	1.277197E+0	1.288829E+0	1.267278E+0	1.340662E+0	1.273101E+0	1.291227E+0	1.304237E+0	1.282307E+0	1.288544E+0	1.291030E+0	1.230457E+0	1.354641E+0	1.318553E+0	1.278115E+0	1.327644E+0	1.306985E+0	1.284771E+0	1.263800E+0	1.279949E+0	1.290053E+0	1.262588E+0	1.308070E+0	1.284329E+0	1.341504E+0	1.261615E+0	1.319297E+0	1.302783E+0	1.279551E+0	1.294969E+0	1.306328E+0	1.314103E+0	1.274387E+0	1.293627E+0	1.300272E+0	1.300851E+0	1.294570E+0	1.309505E+0	1.328495E+0	1.281667E+0	1.290608E+0	1.303566E+0	1.277953E+0	1.256481E+0	1.250002E+0	1.321587E+0	1.252166E+0	1.320199E+0	1.310644E+0	1.293623E+0	1.236612E+0	1.290279E+0	1.261503E+0	1.290930E+0	1.280475E+0	1.350322E+0	1.314089E+0	1.308038E+0	1.264279E+0	1.318818E+0	1.265649E+0	1.346310E+0	1.271536E+0	1.307238E+0	1.278584E+0	1.291018E+0	1.254408E+0	1.313141E+0	1.253925E+0	1.259272E+0
5.520260E+2	1.287372E+0	1.266734E+0	1.284103E+0	1.289719E+0	1.290636E+0	1.259548E+0	1.271782E+0	1.238546E+0	1.282514E+0	1.293792E+0	1.227759E+0	1.295464E+0	1.279472E+0	1.252497E+0	1.264915E+0	1.259742E+0	1.257596E+0	1.231124E+0	1.218432E+0	1.281883E+0	1.304829E+0	1.324802E+0	1.226726E+0	1.213949E+0	1.253935E+0	1.276632E+0	1.253788E+0	1.235610E+0	1.204398E+0	1.268014E+0	1.254772E+0	1.282510E+0	1.287465E+0	1.309696E+0	1.325825E+0	1.230392E+0	1.247950E+0	1.259725E+0	1.305691E+0	1.250317E+0	1.255723E+0	1.289070E+0	1.226846E+0	1.267359E+0	1.267421E+0	1.300318E+0	1.268938E+0	1.246134E+0	1.281545E+0	1.280937E+0	1.261933E+0	1.261590E+0	1.286074E+0	1.258198E+0	1.269384E+0	1.208032E+0	1.260525E+0	1.260739E+0	1.202048E+0	1.273414E+0	1.246664E+0	1.207152E+0	1.256855E+0	1.241051E+0	1.298863E+0	1.209711E+0	1.301322E+0	1.261831E+0	1.259198E+0	1.312231E+0	1.231220E+0	1.301536E+0	1.256377E+0	1.274917E+0	1.229106E+0	1.258259E+0	1.231315E+0	1.246486E+0	1.256999E+0	1.250545E+0	1.269743E+0	1.270813E+0	1.228705E+0	1.247156E+0	1.280412E+0	1.266397E+0	1.232004E+0	1.210245E+0	1.323797E+0	1.242830E+0	1.258393E+0	1.271999E+0	1.320667E+0	1.221651E+0	1.299795E+0	1.241144E+0	1.247192E+0	1.294906E+0	1.220734E+0	1.266335E+0	1.317821E+0	1.263967E+0	1.268655E+0	1.233843E+0	1.278490E+0	1.284641E+0	1.311974E+0	1.293929E+0	1.280476E+0	1.304057E+0	1.259937E+0	1.259126E+0	1.260902E+0	1.267038E+0	1.204887E+0	1.264394E+0	1.271356E+0	1.275721E+0	1.266375E+0	1.195756E+0	1.282542E+0	1.225915E+0	1.254088E+0	1.288901E+0	1.274090E+0	1.270456E+0	1.259057E+0	1.263205E+0	1.258703E+0	1.212663E+0	1.244116E+0	1.235745E+0	1.246624E+0	1.233210E+0	1.205516E+0	1.222268E+0	1.212318E+0	1.291270E+0	1.296140E+0	1.197531E+0	1.211060E+0	1.247452E+0	1.261031E+0	1.239483E+0	1.278714E+0	1.238075E+0	1.269577E+0	1.256017E+0	1.281891E+0	1.228719E+0	1.252790E+0	1.222715E+0	1.224764E+0	1.249759E+0	1.254297E+0	1.255603E+0	1.234230E+0	1.220950E+0	1.258994E+0	1.261668E+0	1.277857E+0	1.261264E+0	1.200965E+0	1.214841E+0	1.250974E+0	1.185882E+0	1.203429E+0	1.277172E+0	1.234868E+0	1.184150E+0	1.228586E+0
5.527650E+2	1.211699E+0	1.273574E+0	1.209770E+0	1.231386E+0	1.239893E+0	1.203070E+0	1.225108E+0	1.245762E+0	1.287777E+0	1.292643E+0	1.232362E+0	1.195911E+0	1.223383E+0	1.238076E+0	1.231313E+0	1.202360E+0	1.238815E+0	1.216161E+0	1.169257E+0	1.222933E+0	1.247292E+0	1.235012E+0	1.222658E+0	1.187029E+0	1.215908E+0	1.254199E+0	1.267087E+0	1.264787E+0	1.186969E+0	1.204331E+0	1.257206E+0	1.239430E+0	1.240661E+0	1.242222E+0	1.211710E+0	1.197043E+0	1.240983E+0	1.252484E+0	1.209725E+0	1.203401E+0	1.214068E+0	1.270204E+0	1.251626E+0	1.229285E+0	1.258087E+0	1.235754E+0	1.230445E+0	1.215825E+0	1.238813E+0	1.241970E+0	1.234861E+0	1.145865E+0	1.220990E+0	1.213559E+0	1.183587E+0	1.205012E+0	1.210876E+0	1.262462E+0	1.198777E+0	1.190359E+0	1.245913E+0	1.241479E+0	1.163420E+0	1.224627E+0	1.238531E+0	1.247682E+0	1.234070E+0	1.271666E+0	1.233855E+0	1.214969E+0	1.238770E+0	1.247744E+0	1.228835E+0	1.298259E+0	1.227918E+0	1.233116E+0	1.192152E+0	1.249322E+0	1.222433E+0	1.166509E+0	1.198794E+0	1.223195E+0	1.200766E+0	1.218700E+0	1.280308E+0	1.158312E+0	1.153186E+0	1.174603E+0	1.227280E+0	1.232978E+0	1.239624E+0	1.248956E+0	1.201962E+0	1.233505E+0	1.215899E+0	1.217627E+0	1.186024E+0	1.261468E+0	1.227934E+0	1.177267E+0	1.236194E+0	1.199010E+0	1.208967E+0	1.217452E+0	1.268993E+0	1.226213E+0	1.209581E+0	1.203182E+0	1.198573E+0	1.237698E+0	1.238184E+0	1.233051E+0	1.151362E+0	1.209815E+0	1.239012E+0	1.187133E+0	1.237095E+0	1.248972E+0	1.245864E+0	1.218980E+0	1.208266E+0	1.214101E+0	1.198368E+0	1.225263E+0	1.198071E+0	1.289087E+0	1.257594E+0	1.180668E+0	1.199503E+0	1.187947E+0	1.209793E+0	1.199248E+0	1.251483E+0	1.195492E+0	1.189910E+0	1.197398E+0	1.217533E+0	1.241079E+0	1.263861E+0	1.246417E+0	1.214613E+0	1.231140E+0	1.220153E+0	1.158695E+0	1.222151E+0	1.181989E+0	1.189547E+0	1.184576E+0	1.174019E+0	1.174657E+0	1.196499E+0	1.237012E+0	1.272028E+0	1.288647E+0	1.250034E+0	1.244854E+0	1.218988E+0	1.213416E+0	1.221223E+0	1.239204E+0	1.185888E+0	1.188745E+0	1.242267E+0	1.173835E+0	1.258519E+0	1.201223E+0	1.262365E+0	1.149586E+0	1.202751E+0	1.182939E+0	1.101307E+0
5.535440E+2	1.188649E+0	1.209992E+0	1.179124E+0	1.144591E+0	1.171539E+0	1.193275E+0	1.139926E+0	1.200696E+0	1.193561E+0	1.178107E+0	1.153300E+0	1.151821E+0	1.201881E+0	1.141854E+0	1.172926E+0	1.199324E+0	1.155762E+0	1.177911E+0	1.092319E+0	1.183444E+0	1.188107E+0	1.202147E+0	1.150156E+0	1.190989E+0	1.141781E+0	1.143888E+0	1.206968E+0	1.158834E+0	1.168190E+0	1.202030E+0	1.169035E+0	1.189736E+0	1.159991E+0	1.173039E+0	1.181620E+0	1.163251E+0	1.184641E+0	1.192428E+0	1.193762E+0	1.184923E+0	1.137946E+0	1.200102E+0	1.164315E+0	1.191897E+0	1.197504E+0	1.160774E+0	1.199384E+0	1.169601E+0	1.155819E+0	1.201241E+0	1.152012E+0	1.155978E+0	1.147582E+0	1.159515E+0	1.159383E+0	1.144965E+0	1.172289E+0	1.179201E+0	1.165124E+0	1.154599E+0	1.118996E+0	1.197781E+0	1.168263E+0	1.125271E+0	1.176670E+0	1.166760E+0	1.168201E+0	1.150815E+0	1.147383E+0	1.192308E+0	1.180940E+0	1.164595E+0	1.155953E+0	1.169636E+0	1.186043E+0	1.168920E+0	1.173688E+0	1.194825E+0	1.168587E+0	1.164422E+0	1.184185E+0	1.186641E+0	1.142292E+0	1.129791E+0	1.180621E+0	1.157257E+0	1.162849E+0	1.162057E+0	1.161100E+0	1.126472E+0	1.121771E+0	1.144675E+0	1.164641E+0	1.132869E+0	1.142253E+0	1.181204E+0	1.175413E+0	1.208128E+0	1.204885E+0	1.197019E+0	1.213670E+0	1.173219E+0	1.148284E+0	1.114681E+0	1.192234E+0	1.212246E+0	1.185361E+0	1.212925E+0	1.187757E+0	1.232790E+0	1.203176E+0	1.164889E+0	1.133372E+0	1.216161E+0	1.159324E+0	1.098899E+0	1.172936E+0	1.157394E+0	1.175149E+0	1.174002E+0	1.158346E+0	1.129964E+0	1.135492E+0	1.163637E+0	1.167368E+0	1.187082E+0	1.183698E+0	1.133272E+0	1.148080E+0	1.161443E+0	1.168161E+0	1.188135E+0	1.205452E+0	1.179231E+0	1.145759E+0	1.145788E+0	1.151369E+0	1.167587E+0	1.178145E+0	1.161208E+0	1.184822E+0	1.143125E+0	1.151226E+0	1.126998E+0	1.141554E+0	1.187891E+0	1.151489E+0	1.159239E+0	1.152163E+0	1.176093E+0	1.165239E+0	1.190109E+0	1.153648E+0	1.145759E+0	1.188489E+0	1.165799E+0	1.184680E+0	1.148876E+0	1.133309E+0	1.122104E+0	1.181749E+0	1.200583E+0	1.169304E+0	1.147879E+0	1.201115E+0	1.139614E+0	1.161851E+0	1.146136E+0	1.114191E+0	1.175193E+0	1.046245E+0
5.542580E+2	1.084288E+0	1.121390E+0	1.182111E+0	1.115913E+0	1.094621E+0	1.126062E+0	1.137583E+0	1.114392E+0	1.124968E+0	1.094560E+0	1.102894E+0	1.075661E+0	1.158048E+0	1.104604E+0	1.079709E+0	1.110398E+0	1.103845E+0	1.110720E+0	1.107285E+0	1.154109E+0	1.157718E+0	1.120638E+0	1.136495E+0	1.092442E+0	1.111539E+0	1.110204E+0	1.099935E+0	1.124097E+0	1.112558E+0	1.116182E+0	1.113262E+0	1.115852E+0	1.171850E+0	1.143252E+0	1.099542E+0	1.111307E+0	1.112548E+0	1.104669E+0	1.085216E+0	1.067078E+0	1.117449E+0	1.114353E+0	1.098773E+0	1.091856E+0	1.076405E+0	1.138972E+0	1.130768E+0	1.099024E+0	1.114494E+0	1.117026E+0	1.049232E+0	1.133926E+0	1.116134E+0	1.075927E+0	1.101381E+0	1.111491E+0	1.091888E+0	1.126029E+0	1.092655E+0	1.082705E+0	1.114362E+0	1.129466E+0	1.066628E+0	1.075940E+0	1.143133E+0	1.122123E+0	1.123125E+0	1.088781E+0	1.115609E+0	1.101078E+0	1.098503E+0	1.107233E+0	1.091922E+0	1.117336E+0	1.100898E+0	1.147338E+0	1.060567E+0	1.225394E+0	1.085644E+0	1.114410E+0	1.082765E+0	1.124501E+0	1.082894E+0	1.054605E+0	1.078548E+0	1.109009E+0	1.086811E+0	1.100668E+0	1.121202E+0	1.118684E+0	1.114378E+0	1.092195E+0	1.088840E+0	1.093000E+0	1.104191E+0	1.104819E+0	1.133142E+0	1.113779E+0	1.117085E+0	1.080345E+0	1.115999E+0	1.076918E+0	1.050554E+0	1.105538E+0	1.136230E+0	1.112286E+0	1.074854E+0	1.126086E+0	1.082311E+0	1.121231E+0	1.113506E+0	1.069516E+0	1.108231E+0	1.066253E+0	1.156196E+0	1.094798E+0	1.157649E+0	1.120411E+0	1.115927E+0	1.109553E+0	1.116030E+0	1.094706E+0	1.099335E+0	1.075918E+0	1.147047E+0	1.085488E+0	1.114369E+0	1.107931E+0	1.113331E+0	1.151833E+0	1.063255E+0	1.078746E+0	1.128868E+0	1.099544E+0	1.092756E+0	1.089170E+0	1.126207E+0	1.090573E+0	1.123663E+0	1.120190E+0	1.102255E+0	1.144267E+0	1.119417E+0	1.081712E+0	1.078094E+0	1.110186E+0	1.041852E+0	1.049687E+0	1.121157E+0	1.117932E+0	1.154401E+0	1.047892E+0	1.067984E+0	1.072115E+0	1.092353E+0	1.090655E+0	1.113931E+0	1.065248E+0	1.115700E+0	1.096600E+0	1.128018E+0	1.110359E+0	1.108841E+0	1.057159E+0	1.116450E+0	1.134538E+0	1.091851E+0	1.140154E+0	1.084972E+0	1.109768E+0	1.109351E+0
5.550190E+2	1.041752E+0	1.040996E+0	1.057625E+0	1.019787E+0	1.031565E+0	1.023576E+0	1.011733E+0	1.015447E+0	1.082044E+0	1.088612E+0	1.007655E+0	1.012013E+0	1.033242E+0	9.920677E-1	9.996306E-1	1.024541E+0	1.039742E+0	1.084804E+0	1.060425E+0	1.023607E+0	1.017420E+0	1.041285E+0	1.034107E+0	1.001129E+0	9.758514E-1	1.051327E+0	9.922982E-1	1.026877E+0	1.023063E+0	9.802663E-1	1.037927E+0	1.012151E+0	9.988447E-1	1.041790E+0	1.003720E+0	1.012107E+0	9.883377E-1	1.020666E+0	1.048735E+0	1.034700E+0	9.500566E-1	1.034361E+0	9.799035E-1	1.022190E+0	1.018103E+0	1.071305E+0	1.035490E+0	1.033884E+0	1.025736E+0	1.034795E+0	9.802585E-1	1.034333E+0	9.832794E-1	1.050379E+0	9.658147E-1	9.946792E-1	1.029608E+0	1.090429E+0	1.006973E+0	1.005073E+0	1.048723E+0	1.079439E+0	1.009141E+0	1.041840E+0	9.988641E-1	9.939231E-1	1.041836E+0	1.012873E+0	9.941399E-1	1.037303E+0	9.883782E-1	1.041393E+0	1.000033E+0	1.029377E+0	1.020481E+0	1.010422E+0	1.035917E+0	1.071185E+0	1.031792E+0	1.033869E+0	1.019695E+0	1.050824E+0	1.003562E+0	1.024868E+0	1.007900E+0	1.087596E+0	9.831078E-1	1.001889E+0	1.030176E+0	1.029028E+0	1.014651E+0	1.003603E+0	1.014389E+0	1.015883E+0	1.031965E+0	9.951033E-1	1.035480E+0	1.029785E+0	1.076647E+0	1.017999E+0	1.041193E+0	9.988347E-1	9.987157E-1	1.008857E+0	1.031237E+0	9.895081E-1	1.008922E+0	1.021531E+0	1.061429E+0	1.040411E+0	1.049642E+0	9.730263E-1	1.010613E+0	1.048922E+0	9.677814E-1	1.024707E+0	1.035116E+0	1.034496E+0	1.009555E+0	1.087313E+0	1.043968E+0	1.027507E+0	1.044387E+0	1.018313E+0	1.047913E+0	1.000427E+0	1.016551E+0	1.016075E+0	1.029260E+0	9.973910E-1	9.671360E-1	1.032026E+0	1.052013E+0	1.018485E+0	9.793942E-1	9.972522E-1	1.001296E+0	1.046876E+0	1.001831E+0	1.044138E+0	1.028375E+0	1.029517E+0	9.596177E-1	1.013686E+0	1.053145E+0	9.961596E-1	9.802913E-1	9.989026E-1	1.031018E+0	1.039857E+0	9.818154E-1	1.041142E+0	1.046155E+0	9.806386E-1	1.006691E+0	1.063822E+0	1.023780E+0	1.032128E+0	1.033338E+0	1.009252E+0	1.031555E+0	1.046298E+0	9.908161E-1	9.616579E-1	1.048919E+0	1.021608E+0	1.023095E+0	1.044833E+0	1.017846E+0	9.689875E-1	9.985409E-1
5.557660E+2	9.512062E-1	9.890115E-1	9.914803E-1	9.531981E-1	1.000138E+0	9.396206E-1	1.000216E+0	9.876554E-1	9.816342E-1	1.005212E+0	9.706454E-1	9.288456E-1	1.005925E+0	9.612075E-1	9.512590E-1	9.446164E-1	9.767157E-1	9.543002E-1	9.757655E-1	9.560923E-1	9.705332E-1	9.708784E-1	9.454230E-1	9.839309E-1	9.476929E-1	9.399516E-1	9.468548E-1	9.746926E-1	9.565293E-1	9.404527E-1	9.332720E-1	9.745540E-1	9.774140E-1	9.283942E-1	9.073057E-1	9.626573E-1	9.257153E-1	9.796240E-1	9.532098E-1	9.402592E-1	9.422309E-1	9.346498E-1	9.454600E-1	9.785560E-1	9.868137E-1	9.487957E-1	9.736812E-1	9.332077E-1	9.582410E-1	9.164233E-1	9.100876E-1	9.576501E-1	9.796326E-1	9.739039E-1	9.564371E-1	9.442551E-1	9.546218E-1	1.012318E+0	9.386678E-1	9.453317E-1	9.293487E-1	9.359357E-1	9.125623E-1	9.374874E-1	9.427133E-1	9.691919E-1	9.725867E-1	9.408053E-1	9.371119E-1	9.810517E-1	9.892394E-1	9.373664E-1	9.344395E-1	1.009552E+0	9.762910E-1	9.391192E-1	9.153890E-1	9.802565E-1	9.290703E-1	9.702948E-1	9.651327E-1	9.448075E-1	9.249703E-1	9.663855E-1	9.569783E-1	9.284074E-1	9.210806E-1	9.777460E-1	9.759185E-1	9.368581E-1	9.685450E-1	9.629400E-1	9.629110E-1	9.319304E-1	9.647751E-1	9.533105E-1	9.309031E-1	9.841681E-1	9.640297E-1	9.276324E-1	9.642541E-1	9.214351E-1	9.771408E-1	9.470065E-1	9.748226E-1	9.651106E-1	9.445105E-1	9.952759E-1	9.889249E-1	9.954363E-1	1.017801E+0	9.473524E-1	9.769795E-1	9.192851E-1	9.589845E-1	9.438078E-1	9.190759E-1	9.735536E-1	9.772436E-1	9.723680E-1	9.551421E-1	9.882709E-1	9.669718E-1	9.572117E-1	9.619618E-1	9.198213E-1	9.809904E-1	9.554297E-1	9.723507E-1	9.210824E-1	9.860714E-1	9.748399E-1	9.402548E-1	9.468133E-1	9.692626E-1	9.304255E-1	9.372111E-1	1.015989E+0	9.917983E-1	9.514920E-1	9.446532E-1	9.459727E-1	9.789316E-1	9.232042E-1	9.783093E-1	9.674908E-1	9.905470E-1	8.756838E-1	9.584167E-1	1.030582E+0	9.312354E-1	9.545336E-1	9.604391E-1	9.415398E-1	9.415743E-1	1.001777E+0	9.661663E-1	9.630399E-1	9.616612E-1	9.407249E-1	9.514595E-1	9.061317E-1	9.907136E-1	9.415829E-1	9.918033E-1	9.339651E-1	9.982541E-1	9.261665E-1	9.979363E-1	9.373366E-1	8.858078E-1
5.560240E+2	9.274330E-1	9.430531E-1	9.462609E-1	9.540049E-1	9.499224E-1	9.322192E-1	9.443635E-1	9.581009E-1	9.379769E-1	9.444546E-1	9.390587E-1	9.139146E-1	9.462121E-1	9.683465E-1	9.315199E-1	9.583981E-1	9.560098E-1	9.276705E-1	9.344897E-1	9.400188E-1	9.294053E-1	9.803722E-1	9.268920E-1	9.547107E-1	9.602988E-1	9.735685E-1	9.250309E-1	9.375265E-1	9.183664E-1	9.481507E-1	9.215598E-1	9.610359E-1	9.684781E-1	9.837897E-1	9.318903E-1	9.246950E-1	9.446777E-1	9.618780E-1	9.600561E-1	9.531195E-1	9.257026E-1	9.504800E-1	9.413596E-1	9.734168E-1	9.461662E-1	9.541740E-1	9.434110E-1	9.392109E-1	9.562795E-1	9.075724E-1	9.836420E-1	9.521512E-1	9.277684E-1	9.519893E-1	9.669398E-1	9.559985E-1	9.436264E-1	9.982079E-1	9.222447E-1	9.192786E-1	9.483609E-1	8.738716E-1	9.134361E-1	9.681073E-1	9.201200E-1	9.799457E-1	9.896388E-1	9.220443E-1	9.487430E-1	9.893325E-1	9.581990E-1	9.689623E-1	9.659689E-1	8.938157E-1	9.579330E-1	9.425159E-1	9.436489E-1	9.575174E-1	9.606792E-1	9.892902E-1	9.649489E-1	9.131762E-1	9.075044E-1	9.908097E-1	9.660259E-1	9.678939E-1	9.250293E-1	9.522957E-1	9.683591E-1	9.894892E-1	9.125109E-1	9.759550E-1	9.382156E-1	9.290642E-1	9.453706E-1	9.327425E-1	9.315383E-1	9.691022E-1	9.291029E-1	9.374729E-1	9.753347E-1	9.078375E-1	9.653055E-1	9.756169E-1	8.926223E-1	9.442228E-1	9.547229E-1	9.490019E-1	9.006292E-1	9.094381E-1	9.338874E-1	9.485374E-1	9.053475E-1	9.343831E-1	9.949507E-1	9.418643E-1	9.660635E-1	1.014172E+0	9.340376E-1	9.819036E-1	9.506147E-1	9.479372E-1	9.583351E-1	9.866372E-1	9.634385E-1	9.899963E-1	9.613099E-1	9.388181E-1	8.977626E-1	9.618979E-1	9.910073E-1	9.121764E-1	9.355070E-1	9.609205E-1	9.425286E-1	9.135363E-1	9.407196E-1	1.033830E+0	9.531766E-1	9.573081E-1	9.684231E-1	8.930974E-1	9.244896E-1	9.502709E-1	9.215060E-1	9.089460E-1	9.402602E-1	9.800626E-1	9.456960E-1	9.414059E-1	9.132422E-1	9.557846E-1	9.521638E-1	9.566079E-1	9.298076E-1	9.612969E-1	9.287371E-1	9.555767E-1	9.102244E-1	9.519834E-1	9.296228E-1	9.764606E-1	9.854984E-1	9.878831E-1	9.378783E-1	9.293145E-1	1.007077E+0	8.942689E-1	9.172713E-1	8.780503E-1	9.170893E-1
5.565200E+2	9.832704E-1	9.309741E-1	9.741182E-1	9.225872E-1	9.088856E-1	9.436175E-1	9.718096E-1	1.032992E+0	9.780536E-1	9.847421E-1	9.484063E-1	9.478206E-1	9.304500E-1	9.360799E-1	9.594396E-1	9.581034E-1	9.913123E-1	9.312240E-1	9.776844E-1	9.601171E-1	9.538784E-1	9.203215E-1	9.370762E-1	9.222341E-1	9.331744E-1	9.854858E-1	9.977609E-1	9.735287E-1	9.676522E-1	9.225988E-1	9.465234E-1	9.404734E-1	9.700906E-1	9.751830E-1	9.448189E-1	9.508297E-1	8.999482E-1	1.011357E+0	9.461714E-1	9.658255E-1	9.593046E-1	9.748124E-1	9.330811E-1	9.549124E-1	9.733955E-1	9.848277E-1	9.494683E-1	1.020814E+0	9.807828E-1	9.477416E-1	9.710003E-1	9.016891E-1	9.220448E-1	9.778740E-1	9.683285E-1	9.263025E-1	9.619258E-1	9.172050E-1	9.426044E-1	9.285995E-1	9.166559E-1	9.906305E-1	9.266635E-1	1.001934E+0	9.256959E-1	9.654681E-1	9.244707E-1	9.667178E-1	9.501511E-1	9.789635E-1	9.502006E-1	9.460308E-1	9.462814E-1	9.786264E-1	9.489472E-1	9.601784E-1	9.342349E-1	1.006021E+0	9.327346E-1	9.226503E-1	9.754348E-1	9.259076E-1	9.343960E-1	9.330205E-1	1.002568E+0	9.594400E-1	9.002540E-1	9.467188E-1	9.739829E-1	9.529048E-1	9.208028E-1	9.363775E-1	9.708911E-1	9.225085E-1	9.836889E-1	9.354912E-1	9.242328E-1	9.215049E-1	9.884425E-1	9.623066E-1	9.479116E-1	9.353067E-1	9.887556E-1	9.642421E-1	9.224933E-1	9.532197E-1	9.320877E-1	9.684284E-1	9.390474E-1	9.804143E-1	9.973347E-1	9.624882E-1	9.191225E-1	9.044339E-1	9.276268E-1	9.588748E-1	9.517240E-1	9.652696E-1	9.194775E-1	9.423657E-1	9.728524E-1	8.977358E-1	9.313219E-1	9.332740E-1	9.740387E-1	9.733607E-1	9.509696E-1	9.570712E-1	9.209796E-1	9.594711E-1	9.538093E-1	9.632082E-1	9.540654E-1	9.426676E-1	9.390093E-1	9.167621E-1	9.594330E-1	9.537954E-1	9.802159E-1	9.830917E-1	9.301839E-1	9.608792E-1	9.375147E-1	9.228801E-1	9.466441E-1	9.209950E-1	8.883480E-1	9.031123E-1	9.220726E-1	9.622207E-1	9.904713E-1	9.063066E-1	9.301186E-1	9.431255E-1	9.743610E-1	9.840892E-1	9.608261E-1	9.555938E-1	9.869916E-1	9.320250E-1	9.908644E-1	9.525928E-1	9.487279E-1	9.665727E-1	9.532413E-1	9.522211E-1	1.016633E+0	9.286110E-1	9.440991E-1	9.895448E-1	1.003095E+0
5.570560E+2	9.748272E-1	1.012890E+0	9.518244E-1	9.926222E-1	1.014293E+0	1.006490E+0	9.560269E-1	9.825738E-1	9.948176E-1	9.962471E-1	9.217386E-1	9.703808E-1	9.780159E-1	9.756942E-1	1.017196E+0	9.686155E-1	1.004425E+0	1.029454E+0	9.541982E-1	9.989413E-1	9.822513E-1	9.916743E-1	9.772874E-1	9.539232E-1	9.757541E-1	9.599647E-1	9.150605E-1	9.915316E-1	9.753482E-1	1.003093E+0	9.917277E-1	1.037700E+0	9.919134E-1	9.776384E-1	1.001787E+0	9.830455E-1	9.781177E-1	9.798029E-1	9.547419E-1	1.008148E+0	9.562175E-1	9.930422E-1	9.556248E-1	9.713861E-1	9.951915E-1	1.011544E+0	1.012248E+0	9.595432E-1	9.897041E-1	9.877099E-1	1.018158E+0	1.032029E+0	9.673837E-1	9.873446E-1	9.679507E-1	9.699450E-1	9.725531E-1	9.870694E-1	9.886373E-1	9.832775E-1	9.893906E-1	9.645540E-1	1.017834E+0	1.004436E+0	9.905280E-1	9.655289E-1	1.011401E+0	9.979906E-1	9.770011E-1	1.014149E+0	9.622253E-1	1.009822E+0	9.640904E-1	9.991034E-1	9.970849E-1	9.859276E-1	9.808018E-1	9.490346E-1	9.701940E-1	9.827681E-1	1.020501E+0	9.854452E-1	9.752934E-1	9.789973E-1	1.016112E+0	9.675288E-1	9.895502E-1	9.649168E-1	1.002840E+0	1.023604E+0	9.552078E-1	1.007665E+0	9.823706E-1	9.969272E-1	9.980408E-1	9.448848E-1	9.813549E-1	9.942079E-1	1.010706E+0	9.400855E-1	1.013772E+0	9.760116E-1	9.565935E-1	9.942467E-1	9.885024E-1	1.051463E+0	9.952297E-1	9.555535E-1	9.615438E-1	9.692333E-1	9.896599E-1	9.692609E-1	1.033668E+0	1.010898E+0	1.004704E+0	9.656360E-1	9.913345E-1	9.795430E-1	1.003706E+0	9.683334E-1	9.721768E-1	9.985943E-1	9.984869E-1	9.821246E-1	9.926655E-1	9.674689E-1	1.004494E+0	9.536579E-1	9.699233E-1	9.957395E-1	9.886663E-1	9.619176E-1	9.647417E-1	9.989829E-1	1.022272E+0	9.701726E-1	9.862730E-1	9.694201E-1	9.770844E-1	9.718588E-1	1.017743E+0	9.401802E-1	9.475298E-1	9.729864E-1	9.668589E-1	9.694762E-1	9.931120E-1	9.601614E-1	9.424476E-1	9.787762E-1	9.676906E-1	9.818994E-1	9.975491E-1	9.948812E-1	1.003537E+0	9.702238E-1	9.940435E-1	1.048099E+0	1.015717E+0	9.779466E-1	9.747431E-1	1.007464E+0	9.454035E-1	9.811625E-1	9.889377E-1	9.870286E-1	9.691988E-1	1.004046E+0	9.424294E-1	9.006974E-1	9.688973E-1
5.575360E+2	1.000278E+0	1.028989E+0	9.727031E-1	1.008817E+0	9.919429E-1	1.001281E+0	1.046200E+0	9.879631E-1	1.001190E+0	1.001940E+0	1.038628E+0	1.066912E+0	1.009734E+0	9.641276E-1	1.001081E+0	1.021655E+0	9.902043E-1	1.006721E+0	9.836849E-1	1.009988E+0	1.023435E+0	1.012433E+0	1.042596E+0	9.760218E-1	1.008169E+0	9.762041E-1	1.036172E+0	1.018512E+0	1.009062E+0	9.754168E-1	9.910103E-1	9.725041E-1	1.010314E+0	9.949707E-1	9.750931E-1	1.004387E+0	1.011323E+0	1.026935E+0	1.057976E+0	9.659320E-1	1.009603E+0	1.040965E+0	1.002299E+0	9.701815E-1	1.013115E+0	1.011679E+0	9.860486E-1	1.007323E+0	9.926220E-1	9.891637E-1	1.008353E+0	1.008080E+0	1.002058E+0	1.024069E+0	1.019674E+0	9.694587E-1	1.032687E+0	1.051945E+0	9.760236E-1	9.865910E-1	1.018409E+0	1.024483E+0	1.035551E+0	9.766836E-1	9.705154E-1	1.002673E+0	1.011115E+0	9.987677E-1	1.045681E+0	1.006292E+0	1.006242E+0	9.622539E-1	1.020223E+0	1.032119E+0	9.583782E-1	1.003997E+0	1.015768E+0	1.024251E+0	1.010331E+0	1.010139E+0	9.989146E-1	9.644294E-1	1.002652E+0	1.016327E+0	9.954304E-1	9.838650E-1	1.001046E+0	1.029363E+0	9.475554E-1	1.016136E+0	1.034380E+0	1.033352E+0	1.045982E+0	9.984377E-1	9.857095E-1	9.939376E-1	1.018215E+0	1.030696E+0	9.473560E-1	1.032188E+0	9.555431E-1	9.736248E-1	9.959334E-1	9.734276E-1	9.765227E-1	9.463961E-1	9.886052E-1	9.931414E-1	9.906572E-1	9.755803E-1	9.953438E-1	1.024332E+0	1.044400E+0	1.014388E+0	1.042248E+0	1.020565E+0	1.009113E+0	1.050695E+0	9.827464E-1	1.010639E+0	1.017823E+0	1.011462E+0	9.901046E-1	1.003091E+0	1.004548E+0	1.005339E+0	1.020498E+0	9.760785E-1	9.978287E-1	9.867687E-1	1.035614E+0	1.020351E+0	1.024878E+0	1.002317E+0	9.890699E-1	9.956224E-1	9.875035E-1	1.020771E+0	9.866265E-1	1.048394E+0	1.006042E+0	9.995006E-1	9.720140E-1	1.015867E+0	9.807549E-1	1.027987E+0	9.889050E-1	9.719710E-1	9.726003E-1	9.877191E-1	9.962268E-1	1.016857E+0	1.078932E+0	1.007212E+0	9.558502E-1	1.007452E+0	1.010172E+0	1.020549E+0	9.869041E-1	1.012470E+0	1.029424E+0	9.779266E-1	9.587590E-1	9.538215E-1	1.007856E+0	1.044495E+0	9.685636E-1	1.009733E+0	1.018791E+0	1.039140E+0	9.991867E-1
5.580170E+2	1.008018E+0	1.035826E+0	1.022930E+0	9.774212E-1	9.694188E-1	1.006641E+0	9.477524E-1	1.014259E+0	1.014428E+0	9.447657E-1	9.861051E-1	9.877799E-1	1.012034E+0	9.718345E-1	9.997561E-1	9.915638E-1	9.961994E-1	9.860817E-1	9.997999E-1	9.898787E-1	9.825850E-1	9.933517E-1	1.023509E+0	1.012473E+0	1.026198E+0	1.011393E+0	1.029935E+0	9.873941E-1	1.007996E+0	9.902444E-1	9.875297E-1	9.659011E-1	9.800677E-1	9.644520E-1	9.969580E-1	9.953259E-1	9.910882E-1	1.010972E+0	1.040994E+0	9.883964E-1	1.041175E+0	1.017544E+0	1.004885E+0	1.011224E+0	1.030211E+0	1.046350E+0	9.962965E-1	9.797325E-1	1.030062E+0	1.048321E+0	9.493080E-1	1.010427E+0	1.026407E+0	1.012122E+0	9.847836E-1	1.014932E+0	9.995629E-1	9.863707E-1	9.737263E-1	9.856622E-1	9.939493E-1	1.020359E+0	9.812039E-1	1.018983E+0	1.035540E+0	1.010231E+0	1.016032E+0	9.604648E-1	1.005876E+0	1.005372E+0	9.710629E-1	1.026356E+0	1.024228E+0	1.018026E+0	1.042521E+0	1.018895E+0	1.025120E+0	1.029936E+0	1.043382E+0	9.850058E-1	9.747803E-1	9.928358E-1	1.009392E+0	9.680848E-1	1.011548E+0	9.935236E-1	9.947587E-1	1.001634E+0	9.826193E-1	1.006206E+0	1.021606E+0	9.809800E-1	1.010717E+0	1.006137E+0	9.694118E-1	1.007981E+0	1.022102E+0	1.052076E+0	9.987529E-1	1.041544E+0	1.023698E+0	1.053209E+0	1.021003E+0	1.013754E+0	1.005985E+0	1.017022E+0	1.047481E+0	1.014117E+0	9.892146E-1	1.025117E+0	9.731161E-1	1.012128E+0	9.632597E-1	1.012420E+0	9.974408E-1	1.005093E+0	1.014148E+0	1.015618E+0	9.815862E-1	9.823478E-1	1.010668E+0	9.955362E-1	9.991025E-1	9.821832E-1	9.765620E-1	1.010992E+0	9.822894E-1	1.013436E+0	1.007162E+0	1.012945E+0	1.015107E+0	9.909894E-1	9.933651E-1	1.014217E+0	9.804732E-1	1.015753E+0	9.998637E-1	1.001439E+0	9.945056E-1	1.046974E+0	9.911797E-1	1.014762E+0	9.718826E-1	9.816441E-1	9.831345E-1	1.010270E+0	1.019416E+0	1.012909E+0	1.028283E+0	1.014481E+0	1.000680E+0	1.018363E+0	9.772140E-1	1.002187E+0	9.803650E-1	9.916564E-1	1.002722E+0	9.840143E-1	9.893817E-1	9.856085E-1	9.969890E-1	9.427020E-1	9.869560E-1	1.015252E+0	9.631999E-1	1.005060E+0	1.048672E+0	1.054407E+0	9.787177E-1	9.403173E-1	9.518921E-1
5.585160E+2	1.015017E+0	9.735414E-1	1.037072E+0	9.541000E-1	1.004665E+0	1.019812E+0	9.731738E-1	9.666151E-1	9.961797E-1	1.012171E+0	1.052547E+0	9.954060E-1	9.464261E-1	1.019231E+0	1.002609E+0	1.009608E+0	1.001129E+0	9.980787E-1	1.042528E+0	9.977938E-1	9.666057E-1	9.993555E-1	1.026195E+0	1.003516E+0	9.713659E-1	9.725356E-1	1.013507E+0	9.901045E-1	9.508711E-1	1.003418E+0	9.896900E-1	9.837141E-1	9.845193E-1	1.044394E+0	1.018828E+0	1.008799E+0	9.788742E-1	9.748674E-1	1.022669E+0	1.009915E+0	9.865657E-1	9.746868E-1	9.955976E-1	9.957263E-1	9.515103E-1	9.995380E-1	1.000144E+0	1.032738E+0	1.031456E+0	1.018460E+0	1.010250E+0	9.891718E-1	9.806795E-1	9.939749E-1	1.027133E+0	1.031082E+0	9.954595E-1	9.707342E-1	1.003590E+0	1.043065E+0	1.005530E+0	1.013538E+0	9.962920E-1	9.949820E-1	1.002177E+0	1.016754E+0	9.867506E-1	1.040887E+0	9.857909E-1	9.870634E-1	1.002742E+0	9.826583E-1	9.521621E-1	9.977786E-1	9.908709E-1	9.403121E-1	9.780703E-1	1.031380E+0	9.927944E-1	9.921676E-1	1.008809E+0	1.038937E+0	1.035873E+0	1.023703E+0	1.000770E+0	1.007514E+0	1.011952E+0	9.541686E-1	9.672205E-1	1.013322E+0	9.847575E-1	1.025242E+0	9.725732E-1	9.872704E-1	1.024485E+0	9.993137E-1	1.010634E+0	1.003102E+0	1.024639E+0	9.789697E-1	9.957997E-1	1.040057E+0	9.929427E-1	9.842574E-1	9.896492E-1	1.029736E+0	9.454326E-1	9.869434E-1	9.804822E-1	1.024250E+0	1.003723E+0	1.006856E+0	1.003609E+0	9.901032E-1	9.431819E-1	1.015473E+0	1.010752E+0	1.014079E+0	9.805543E-1	1.035962E+0	1.001063E+0	1.033843E+0	9.886289E-1	1.000849E+0	9.847506E-1	1.008922E+0	1.004768E+0	1.013476E+0	9.568531E-1	1.021481E+0	1.029376E+0	9.792735E-1	9.648591E-1	1.024896E+0	9.745894E-1	9.917124E-1	9.684295E-1	1.051766E+0	9.926180E-1	9.848097E-1	1.004215E+0	9.766502E-1	9.743477E-1	1.011917E+0	9.941204E-1	1.019951E+0	1.035130E+0	1.011866E+0	1.002047E+0	9.923823E-1	1.022526E+0	9.971287E-1	1.004855E+0	1.007564E+0	1.037600E+0	9.556618E-1	9.863075E-1	9.847806E-1	1.003210E+0	9.875982E-1	1.031551E+0	1.048546E+0	9.805297E-1	1.030843E+0	1.002693E+0	9.619528E-1	1.019954E+0	9.698047E-1	9.676289E-1	1.017658E+0	1.066020E+0
5.590160E+2	1.016825E+0	1.014955E+0	9.787565E-1	1.043584E+0	9.948871E-1	9.957864E-1	1.009283E+0	1.000983E+0	1.027818E+0	1.013453E+0	9.710548E-1	9.896465E-1	9.969126E-1	1.034016E+0	1.023089E+0	1.002324E+0	1.001733E+0	9.744550E-1	9.776033E-1	1.013078E+0	9.833524E-1	1.007641E+0	9.955926E-1	9.819926E-1	9.971525E-1	9.694221E-1	1.005938E+0	9.956007E-1	1.052478E+0	9.787649E-1	1.011453E+0	1.012087E+0	1.072461E+0	1.000126E+0	9.821540E-1	1.002540E+0	1.040069E+0	9.623380E-1	9.685610E-1	1.002333E+0	1.014415E+0	1.000007E+0	9.921591E-1	1.002284E+0	9.988899E-1	9.388524E-1	1.018233E+0	1.002058E+0	9.904498E-1	9.977689E-1	1.010601E+0	9.802531E-1	1.003517E+0	9.679759E-1	1.002564E+0	9.443416E-1	9.832734E-1	1.010977E+0	9.927349E-1	9.415889E-1	1.009655E+0	9.586937E-1	9.890136E-1	9.799117E-1	9.934804E-1	9.670823E-1	9.386449E-1	9.872928E-1	9.749661E-1	1.008924E+0	1.024960E+0	1.033272E+0	9.916186E-1	9.838975E-1	9.710374E-1	9.870124E-1	1.002787E+0	9.938420E-1	1.017690E+0	1.017281E+0	9.911759E-1	1.020519E+0	9.582520E-1	9.460879E-1	9.744153E-1	9.849900E-1	9.966236E-1	1.009556E+0	1.024185E+0	9.682270E-1	1.023948E+0	9.965897E-1	9.795547E-1	1.008257E+0	9.833419E-1	9.728926E-1	1.026990E+0	9.695268E-1	1.011526E+0	9.751221E-1	9.920535E-1	9.938976E-1	9.835829E-1	1.009682E+0	1.018406E+0	9.539175E-1	1.022196E+0	1.034928E+0	1.044320E+0	9.987605E-1	1.039574E+0	9.954760E-1	9.813815E-1	1.010586E+0	9.663037E-1	9.707418E-1	9.559623E-1	9.985264E-1	1.007138E+0	1.005995E+0	1.006905E+0	1.001008E+0	1.013706E+0	1.002803E+0	9.788431E-1	9.922576E-1	9.819950E-1	1.015404E+0	1.041728E+0	1.001716E+0	9.676372E-1	1.014869E+0	9.909456E-1	1.004310E+0	1.028182E+0	9.866810E-1	1.024340E+0	1.000062E+0	9.809481E-1	1.023227E+0	1.037550E+0	1.033970E+0	1.021858E+0	1.014767E+0	1.009087E+0	9.933058E-1	9.985632E-1	1.013757E+0	1.015362E+0	9.911945E-1	1.014902E+0	9.995803E-1	9.837746E-1	9.740156E-1	9.765746E-1	1.028820E+0	1.014133E+0	9.771764E-1	9.916121E-1	9.860822E-1	9.740587E-1	9.840665E-1	1.031227E+0	1.013150E+0	1.013039E+0	1.002941E+0	9.979737E-1	1.013650E+0	1.013860E+0	1.062003E+0	9.655621E-1
5.595110E+2	1.012841E+0	9.815270E-1	1.065029E+0	9.911604E-1	1.010973E+0	9.774169E-1	9.970582E-1	1.033735E+0	1.000039E+0	1.056075E+0	9.967347E-1	1.005119E+0	1.020914E+0	9.987921E-1	9.427757E-1	1.040585E+0	1.018899E+0	1.028653E+0	1.039118E+0	1.009495E+0	9.980701E-1	1.005851E+0	9.815062E-1	1.020099E+0	1.041417E+0	1.006168E+0	9.775370E-1	1.019845E+0	1.003464E+0	9.805176E-1	1.022298E+0	9.935957E-1	1.005969E+0	1.018051E+0	1.012579E+0	1.018246E+0	1.023446E+0	1.043926E+0	1.000143E+0	9.854256E-1	1.002382E+0	1.002670E+0	1.044019E+0	1.036587E+0	9.749937E-1	1.008021E+0	1.001568E+0	1.003889E+0	1.008771E+0	9.811600E-1	1.037705E+0	1.011581E+0	1.018648E+0	9.847214E-1	1.005743E+0	9.878526E-1	1.006288E+0	9.967965E-1	1.022616E+0	1.020428E+0	1.021241E+0	1.023757E+0	9.741030E-1	1.021875E+0	1.022348E+0	9.687642E-1	1.017534E+0	1.030006E+0	9.838339E-1	1.004866E+0	1.021039E+0	1.024159E+0	1.011577E+0	9.977220E-1	9.843511E-1	1.009428E+0	1.011561E+0	9.844444E-1	1.021817E+0	1.013214E+0	9.946801E-1	9.774048E-1	1.013813E+0	1.003128E+0	1.024805E+0	9.879558E-1	1.039151E+0	1.005676E+0	9.931410E-1	9.884488E-1	1.029671E+0	9.947918E-1	9.911627E-1	1.067204E+0	9.942464E-1	1.033104E+0	9.556274E-1	9.866288E-1	1.027880E+0	1.020387E+0	9.898127E-1	9.964342E-1	9.932884E-1	1.025721E+0	1.000445E+0	1.041392E+0	9.882270E-1	1.008593E+0	1.007366E+0	9.954041E-1	1.025601E+0	9.873724E-1	9.799708E-1	1.009408E+0	1.023671E+0	1.016345E+0	1.005271E+0	9.927568E-1	9.828003E-1	1.009701E+0	9.944311E-1	1.006604E+0	1.026628E+0	9.974082E-1	1.037349E+0	1.020544E+0	9.711512E-1	1.035259E+0	1.032998E+0	9.897191E-1	9.908638E-1	1.033149E+0	1.032997E+0	9.713841E-1	9.948315E-1	1.025717E+0	1.047284E+0	9.863044E-1	1.007609E+0	9.718647E-1	9.899355E-1	1.015642E+0	1.002666E+0	1.000331E+0	9.993466E-1	9.803140E-1	9.759452E-1	9.882062E-1	1.007588E+0	9.890197E-1	9.659635E-1	9.823647E-1	1.028891E+0	1.024066E+0	1.033100E+0	1.019596E+0	9.533423E-1	1.008685E+0	9.922041E-1	1.008414E+0	1.048721E+0	1.002401E+0	1.028933E+0	1.017107E+0	1.016614E+0	9.859819E-1	1.009673E+0	9.932728E-1	1.023658E+0	9.910971E-1	1.037387E+0
5.600520E+2	9.882437E-1	1.036878E+0	9.848405E-1	1.015434E+0	1.057833E+0	1.001368E+0	1.013922E+0	1.020477E+0	1.027108E+0	1.014968E+0	1.037713E+0	1.004812E+0	1.017474E+0	1.000279E+0	9.994941E-1	1.000020E+0	1.016686E+0	1.020789E+0	9.945851E-1	1.019302E+0	1.016053E+0	1.019604E+0	9.711545E-1	1.030212E+0	1.024107E+0	1.024324E+0	1.036623E+0	1.024674E+0	1.008349E+0	1.018313E+0	9.771131E-1	1.033367E+0	9.964031E-1	9.939489E-1	1.041996E+0	1.008421E+0	9.901906E-1	1.013508E+0	1.028989E+0	1.009086E+0	9.777226E-1	1.007835E+0	1.023591E+0	1.008254E+0	1.014597E+0	1.008115E+0	1.001625E+0	1.045163E+0	1.014772E+0	9.888562E-1	1.014735E+0	1.014204E+0	1.008530E+0	1.001863E+0	1.045012E+0	1.031678E+0	1.047961E+0	1.012581E+0	1.048984E+0	1.040203E+0	1.004524E+0	9.674841E-1	9.957885E-1	9.981794E-1	1.002456E+0	1.050244E+0	1.016087E+0	9.873609E-1	1.012544E+0	1.037707E+0	1.016568E+0	1.033912E+0	1.003682E+0	9.769597E-1	1.012352E+0	1.031266E+0	1.016827E+0	9.901348E-1	9.623301E-1	1.012822E+0	9.611396E-1	1.011550E+0	1.013341E+0	1.036281E+0	1.025567E+0	1.036065E+0	9.959323E-1	1.022967E+0	1.052684E+0	1.000951E+0	9.900863E-1	9.707608E-1	1.009733E+0	1.021981E+0	1.019924E+0	1.006639E+0	9.948491E-1	1.015725E+0	1.011136E+0	1.012031E+0	9.917754E-1	1.023530E+0	1.084671E+0	1.023356E+0	9.749977E-1	9.914354E-1	1.023928E+0	1.021969E+0	1.067517E+0	9.951696E-1	9.615354E-1	1.007714E+0	9.923940E-1	1.010900E+0	9.832405E-1	9.819117E-1	9.734855E-1	9.831226E-1	1.048640E+0	1.023625E+0	9.969000E-1	1.012399E+0	1.003487E+0	1.016599E+0	1.028086E+0	1.037118E+0	1.035308E+0	1.023547E+0	9.853798E-1	1.010308E+0	1.014972E+0	1.010327E+0	1.033307E+0	9.665814E-1	1.002177E+0	9.954860E-1	1.000972E+0	1.004275E+0	1.028105E+0	1.014085E+0	1.023041E+0	1.014188E+0	1.081502E+0	1.043129E+0	1.031093E+0	1.004901E+0	1.007814E+0	1.007398E+0	1.015282E+0	1.041545E+0	9.900407E-1	9.931927E-1	9.536576E-1	9.888938E-1	1.054426E+0	9.905176E-1	1.052948E+0	1.005686E+0	1.036172E+0	9.895145E-1	9.829809E-1	1.009717E+0	1.060670E+0	1.009472E+0	1.014034E+0	9.890396E-1	1.001163E+0	1.004251E+0	1.025283E+0	1.048652E+0	1.062292E+0
5.605150E+2	1.002353E+0	9.614387E-1	1.004568E+0	1.026112E+0	9.579850E-1	9.973603E-1	1.055936E+0	9.842468E-1	1.011011E+0	1.009910E+0	1.008538E+0	1.003217E+0	9.914649E-1	1.028171E+0	1.015704E+0	1.004908E+0	9.720232E-1	9.541589E-1	9.969389E-1	9.546406E-1	1.024841E+0	9.628227E-1	1.005483E+0	1.018249E+0	9.633302E-1	1.015174E+0	9.906699E-1	1.008547E+0	9.866122E-1	1.031316E+0	1.012649E+0	1.012783E+0	9.950844E-1	9.744644E-1	9.740302E-1	9.872052E-1	9.900298E-1	9.773425E-1	9.797615E-1	1.020820E+0	9.998103E-1	9.988833E-1	9.983629E-1	9.789559E-1	1.003679E+0	9.967590E-1	9.738069E-1	1.002778E+0	9.670691E-1	9.919328E-1	9.612021E-1	9.781603E-1	9.861594E-1	1.018432E+0	9.688762E-1	1.013714E+0	9.961201E-1	9.902104E-1	1.005102E+0	9.676315E-1	9.879546E-1	9.901610E-1	1.021807E+0	9.985162E-1	1.005941E+0	1.001473E+0	1.049386E+0	9.862888E-1	1.015032E+0	9.737760E-1	1.006025E+0	9.984211E-1	1.046186E+0	9.855929E-1	1.021342E+0	1.012138E+0	9.798459E-1	1.001864E+0	1.027418E+0	1.004184E+0	9.747396E-1	1.005198E+0	9.690158E-1	1.029020E+0	9.791499E-1	1.001958E+0	1.005040E+0	1.000239E+0	9.922957E-1	1.018602E+0	9.867945E-1	9.887266E-1	9.882975E-1	9.731774E-1	1.010269E+0	1.034650E+0	1.017556E+0	9.512552E-1	9.878128E-1	1.015220E+0	1.022218E+0	9.662327E-1	9.871609E-1	9.996150E-1	1.012006E+0	9.810365E-1	9.976098E-1	1.002736E+0	9.840407E-1	1.039437E+0	1.038897E+0	1.007701E+0	1.029609E+0	9.764395E-1	1.028847E+0	1.040583E+0	1.045365E+0	9.803759E-1	1.021738E+0	9.963212E-1	1.022218E+0	9.479807E-1	9.958155E-1	1.019011E+0	9.931249E-1	9.707278E-1	9.908616E-1	9.481622E-1	1.031659E+0	1.009516E+0	9.683786E-1	1.026510E+0	1.010874E+0	1.026261E+0	9.795980E-1	9.884765E-1	1.027360E+0	1.001439E+0	1.039006E+0	9.927857E-1	9.351592E-1	9.989716E-1	1.001523E+0	9.923282E-1	1.032093E+0	1.010039E+0	9.755160E-1	1.049685E+0	1.010230E+0	1.024785E+0	1.033438E+0	1.018425E+0	9.931501E-1	1.013314E+0	1.004061E+0	1.010111E+0	1.005565E+0	1.026601E+0	1.010829E+0	1.035732E+0	9.757949E-1	1.007690E+0	9.767818E-1	9.934105E-1	1.017325E+0	1.038771E+0	9.606411E-1	9.709709E-1	1.017412E+0	9.906069E-1	9.897478E-1
5.610180E+2	9.815964E-1	9.539545E-1	9.822758E-1	9.907491E-1	9.980025E-1	9.938457E-1	1.000647E+0	1.009148E+0	9.274083E-1	9.504707E-1	9.869406E-1	9.767267E-1	1.027025E+0	1.007855E+0	9.982950E-1	9.607212E-1	9.987014E-1	1.001608E+0	1.011544E+0	1.006883E+0	1.022806E+0	1.007267E+0	9.766758E-1	1.003514E+0	9.925065E-1	1.064813E+0	9.945577E-1	9.637904E-1	1.005819E+0	1.018917E+0	1.016530E+0	9.883481E-1	9.632680E-1	1.031954E+0	9.965746E-1	9.920305E-1	9.968615E-1	1.010307E+0	9.461642E-1	1.009944E+0	1.012109E+0	9.643664E-1	9.834607E-1	1.025401E+0	1.017814E+0	9.791412E-1	1.010030E+0	9.667747E-1	9.750939E-1	9.966282E-1	9.896888E-1	9.760937E-1	1.006618E+0	1.009497E+0	9.782634E-1	1.036996E+0	9.660949E-1	9.933149E-1	9.885847E-1	1.031553E+0	9.693463E-1	1.036970E+0	9.884069E-1	1.006433E+0	9.770141E-1	1.017250E+0	9.530490E-1	1.010942E+0	9.992757E-1	9.618513E-1	9.891358E-1	9.291457E-1	9.862327E-1	1.008801E+0	1.022063E+0	1.011024E+0	9.892178E-1	9.951135E-1	9.540439E-1	9.824184E-1	1.075261E+0	1.003680E+0	1.022367E+0	9.983717E-1	9.722044E-1	1.036600E+0	9.659462E-1	1.011481E+0	1.037459E+0	9.645021E-1	9.735490E-1	1.001892E+0	1.019610E+0	9.406084E-1	1.014570E+0	1.006598E+0	9.726713E-1	9.967821E-1	9.801916E-1	9.844528E-1	1.015327E+0	9.770031E-1	9.848249E-1	9.759400E-1	1.033485E+0	9.876010E-1	9.912914E-1	9.820177E-1	9.748589E-1	9.770481E-1	9.725504E-1	9.891603E-1	9.717091E-1	9.648576E-1	1.010363E+0	9.836523E-1	9.945702E-1	9.852827E-1	9.910902E-1	9.670765E-1	9.778150E-1	9.925736E-1	9.840408E-1	9.959309E-1	1.004071E+0	9.866302E-1	1.008634E+0	1.020980E+0	9.764691E-1	9.718065E-1	9.893858E-1	9.626133E-1	9.840323E-1	9.910511E-1	1.028807E+0	1.030379E+0	9.579731E-1	9.645230E-1	9.934978E-1	9.460012E-1	9.951356E-1	1.006136E+0	1.026677E+0	9.670316E-1	1.003512E+0	9.837562E-1	1.005598E+0	9.840459E-1	1.006161E+0	9.800963E-1	1.008532E+0	9.921883E-1	9.819772E-1	9.878659E-1	9.544861E-1	1.025961E+0	9.807669E-1	9.444083E-1	9.739705E-1	1.016634E+0	9.857368E-1	1.019486E+0	1.030741E+0	9.857809E-1	9.763015E-1	9.847311E-1	1.024160E+0	9.798651E-1	1.012220E+0	1.009829E+0	9.590148E-1
