Photon Energy (eV)	#1	#2	#3	#4	#5	#6	#7	#8	#9	#10	#11	#12	#13	#14	#15	#16	#17	#18	#19	#20	#21	#22	#23	#24	#25	#26	#27	#28	#29	#30	#31	#32	#33	#34	#35	#36	#37	#38	#39	#40	#41	#42	#43	#44	#45	#46	#47	#48	#49	#50	#51	#52	#53	#54	#55	#56	#57	#58	#59	#60	#61	#62	#63	#64	#65	#66	#67	#68	#69	#70	#71	#72	#73	#74	#75	#76	#77	#78	#79	#80	#81	#82	#83	#84	#85	#86	#87	#88	#89	#90	#91	#92	#93	#94	#95	#96	#97	#98	#99	#100	#101	#102	#103	#104	#105	#106	#107	#108	#109	#110	#111	#112	#113	#114	#115	#116	#117	#118	#119	#120	#121	#122	#123	#124	#125	#126	#127	#128	#129	#130	#131	#132	#133	#134	#135	#136	#137	#138	#139	#140	#141	#142	#143	#144	#145	#146	#147	#148	#149	#150	#151	#152	#153	#154	#155	#156	#157	#158	#159	#160	#161	#162	#163	#164	#165	#166	#167	#168	#169	#170	
5.300220E+2	-1.261435E-2	4.028095E-4	-1.248243E-2	-1.430435E-2	-1.594799E-3	-2.938812E-4	-4.416027E-3	-6.184527E-3	1.168866E-3	-7.756896E-3	3.294658E-4	-1.127921E-2	-5.415324E-3	-3.462519E-3	-2.802728E-4	-3.051614E-3	-2.700439E-3	-1.630853E-2	-6.352482E-3	-1.075788E-2	-3.370246E-3	-6.494646E-3	-1.015637E-2	-4.779307E-3	-1.550402E-2	-7.986343E-3	-6.500013E-3	-4.945306E-3	-6.596231E-3	-1.489253E-2	-8.387841E-3	-1.971783E-3	-6.783045E-3	-7.538759E-3	-7.064553E-3	-1.051671E-2	-7.703726E-3	-8.800755E-3	-4.574087E-3	9.892021E-4	-1.398562E-2	-1.808156E-3	-1.201581E-2	-7.768646E-3	-4.506301E-3	-4.202152E-3	-7.903055E-3	-9.216326E-3	-4.419178E-3	-4.645507E-3	-1.342285E-2	-7.605358E-3	-2.583020E-3	-4.010535E-3	2.192405E-3	-1.162964E-2	-2.368901E-3	1.887935E-3	-2.779100E-3	-5.859928E-3	-6.038905E-3	-8.132663E-4	-3.566275E-3	-8.382464E-3	-6.075359E-3	-5.837854E-3	-5.885860E-3	-1.372476E-2	-9.559180E-3	-2.932213E-3	-1.537395E-2	-1.151393E-3	-1.260317E-4	-8.480793E-3	-1.023367E-2	6.066028E-5	-9.439549E-3	-1.403517E-3	-3.664345E-4	-3.023986E-3	-6.043584E-3	-1.020230E-2	-8.030280E-3	3.187078E-3	-1.578285E-3	-9.668386E-3	-6.893229E-3	-1.033346E-2	-2.017217E-3	4.138309E-3	-5.443745E-3	-5.153100E-3	-6.920493E-3	-7.747531E-3	-1.261371E-2	-1.183556E-2	-7.307119E-3	-9.823072E-4	-7.619550E-4	-3.200804E-4	-1.093811E-2	-9.349447E-3	-8.772284E-3	-1.042018E-2	-5.239059E-3	-6.696527E-3	-1.061488E-2	-1.111626E-2	-4.456748E-3	-5.122653E-3	-1.140445E-2	-6.032732E-3	1.592879E-3	-3.593883E-3	2.117263E-3	1.046570E-3	-1.774368E-3	-2.148209E-3	-8.968466E-3	2.540120E-3	-3.112506E-3	-2.110389E-3	-9.796645E-3	-6.571756E-3	-5.611866E-3	-7.919038E-3	7.144695E-4	-2.606708E-3	-6.215295E-3	-1.986549E-3	-1.171963E-2	-1.044964E-2	-5.724542E-3	-4.586074E-3	-5.667710E-3	3.962685E-3	-1.872789E-3	-9.966990E-3	-7.884990E-3	-1.307601E-2	-5.265148E-3	-5.901702E-3	-1.250752E-2	-3.616792E-3	-7.389509E-3	-4.751017E-3	-1.160425E-3	-6.108586E-3	-1.464541E-2	-9.146229E-3	-7.415613E-3	-5.092311E-3	-8.447853E-3	-2.399697E-3	-8.595795E-4	-8.784392E-3	3.827307E-3	1.133157E-3	-2.173145E-3	-3.184880E-3	-4.672678E-3	-2.660094E-3	-4.420265E-3	-3.922813E-3	-5.023751E-3	-1.011123E-2	-2.465265E-3	-1.434971E-3	-1.747050E-2	-1.268807E-2
5.305130E+2	-5.621876E-3	-8.332200E-3	-4.434214E-3	2.967340E-3	-6.688578E-3	-4.584755E-3	-5.641914E-3	-2.380181E-3	2.046371E-3	1.504434E-3	3.090966E-3	-4.504427E-3	-6.114517E-3	-3.118440E-3	-6.155706E-3	-6.917972E-3	-3.863295E-3	6.971860E-3	-7.038018E-3	-1.811314E-3	-4.539759E-3	-4.047959E-3	-3.179984E-3	8.433191E-4	-8.703417E-3	-9.626519E-3	-8.217844E-3	-9.832538E-3	-2.570065E-3	1.310068E-4	-1.364603E-2	-8.039719E-3	-8.395539E-3	8.017913E-3	-9.639959E-3	-6.261826E-3	-1.041133E-2	-3.297811E-3	-3.203707E-3	-7.669212E-3	6.469856E-5	-3.533022E-3	2.127093E-3	-6.788147E-3	-5.176683E-3	-7.525317E-3	-8.013715E-3	-3.107557E-3	-1.486230E-3	-2.767560E-3	-9.914605E-3	-1.192760E-2	-3.766103E-3	-6.336588E-3	-4.612918E-5	-2.613982E-3	-1.357312E-2	-1.113384E-2	-5.248048E-3	-4.383737E-4	-6.145023E-3	7.428522E-4	-4.249302E-3	-7.988384E-3	-1.912868E-3	-9.832926E-4	5.846685E-3	-4.978198E-3	-2.020653E-3	-1.038114E-2	9.542226E-4	-5.315012E-3	-5.099082E-3	-1.710747E-3	-8.443676E-3	-6.653176E-3	-7.515010E-3	-9.123224E-3	-3.617210E-3	-2.609815E-3	-6.676422E-3	-2.469861E-3	-9.278410E-3	-1.201904E-3	-2.846663E-3	4.903975E-3	-9.012159E-3	-2.060129E-3	-4.702662E-3	-1.126011E-2	1.077517E-2	-8.889511E-3	-3.939102E-3	-8.845706E-4	-4.136055E-3	-8.700430E-3	1.515027E-3	-7.278549E-3	-9.815703E-3	-2.266777E-3	1.391570E-3	2.552144E-4	-2.497916E-3	-6.645359E-3	-1.933589E-3	-1.800999E-3	-1.916276E-3	-8.592698E-3	-5.078926E-3	6.495536E-4	1.208912E-3	-2.553192E-3	-1.244683E-2	-8.206160E-3	2.454082E-3	-1.499507E-2	-5.040269E-3	-6.024589E-3	-4.554973E-4	-5.954477E-3	-1.000588E-2	-1.013635E-2	-1.261481E-2	-2.362509E-3	-5.305412E-3	5.015246E-3	-7.809131E-3	-6.787819E-3	7.869028E-3	-3.470321E-3	-6.425169E-3	3.488616E-3	1.192200E-4	5.900722E-4	2.083765E-3	-7.557784E-3	-8.123915E-3	-3.211380E-3	-7.344663E-3	-3.757403E-3	-5.903392E-3	-1.117094E-2	3.749184E-3	-4.799601E-3	-5.347622E-3	4.810147E-3	-4.201694E-3	-1.208168E-3	-4.296387E-3	3.247522E-3	4.495763E-3	-3.405509E-3	-6.278083E-3	-5.021977E-3	-3.853443E-6	-2.860516E-3	4.834944E-4	1.849673E-3	4.809613E-3	-8.000988E-3	-6.490486E-3	-5.682924E-3	-9.503884E-3	2.525459E-3	-3.161498E-3	-1.133954E-2	-4.461956E-3	-5.924153E-3	4.686252E-3	-2.159206E-3
5.310150E+2	5.865498E-3	-4.568922E-3	-5.392330E-3	-1.238353E-2	-3.316669E-3	-6.050026E-3	-4.993626E-3	2.238141E-3	-5.758395E-3	-3.560921E-3	-8.562588E-3	-5.970660E-3	-5.990506E-3	-2.542055E-3	2.131349E-3	1.458188E-3	2.338734E-3	-5.955075E-3	9.955253E-3	-2.851549E-3	1.516858E-3	-3.940989E-3	-3.063917E-3	-7.119994E-3	6.111922E-3	-9.029525E-4	-6.008046E-3	-3.861535E-3	-1.283763E-4	1.331078E-3	-2.738067E-3	-2.998302E-3	3.090806E-3	-4.489517E-3	-3.006357E-3	-8.854903E-3	-9.973012E-4	-2.672052E-3	-7.041857E-3	-2.945851E-5	-1.269318E-2	-3.966609E-3	-3.070901E-3	-2.804977E-3	-4.516294E-3	-7.420143E-3	-4.066173E-3	-3.426245E-3	2.201648E-3	-5.173752E-3	6.330480E-3	7.871714E-3	-8.169585E-3	-1.050882E-2	-1.018980E-2	-2.030660E-3	-1.003747E-3	4.470423E-3	-9.754576E-3	-2.763308E-3	-9.031922E-3	-1.548402E-3	-4.666946E-3	4.129149E-3	6.028600E-4	-9.759827E-3	-8.233596E-3	-9.529243E-3	2.691116E-3	-9.756035E-3	-5.558373E-3	-5.195468E-3	1.211329E-3	-8.127220E-3	2.972840E-3	-5.357052E-3	6.299219E-3	2.906211E-3	-6.108280E-3	-4.694517E-3	-9.561082E-3	6.178701E-3	-3.534113E-3	-7.854304E-3	5.141034E-3	-1.268386E-2	2.881837E-3	-4.729392E-3	4.546005E-3	-6.265774E-3	-8.177884E-3	-1.439136E-3	-5.617937E-3	-1.684733E-3	-3.521324E-3	-8.063957E-3	7.579701E-3	-1.136173E-3	-3.142814E-3	-6.526293E-3	-7.718890E-3	-5.059884E-3	-7.154010E-3	-2.220068E-3	6.753166E-3	-2.348778E-3	-6.097828E-3	-5.434562E-3	-7.214039E-4	-4.746033E-3	-5.483704E-3	-1.396436E-3	-9.170193E-4	2.411179E-3	-7.507674E-3	-3.107253E-3	-3.880290E-3	-3.024845E-3	-3.874418E-3	-3.401409E-3	3.975336E-4	-6.109290E-3	7.417053E-3	-4.298606E-4	-6.600341E-3	-5.381329E-3	-1.777333E-3	-5.654427E-3	-1.198919E-2	-3.118747E-3	-2.001643E-3	2.503843E-3	-7.751859E-3	-2.548152E-3	-4.603254E-3	-1.084923E-2	-1.905039E-3	-5.180587E-3	-1.923601E-3	-5.947907E-3	-5.428637E-4	-7.492862E-4	-3.199268E-3	4.863836E-3	-2.488672E-3	-8.692190E-3	2.364165E-3	-7.779662E-3	-4.654269E-3	-6.795977E-3	-5.030446E-4	-3.265535E-3	9.663739E-3	-1.325256E-2	-5.462988E-3	5.079795E-3	-1.962106E-2	-9.458941E-3	-6.847121E-3	-6.814004E-3	-5.904223E-4	-5.089348E-3	1.216615E-4	-5.056520E-3	6.212691E-4	4.572497E-3	-8.985688E-3	2.546182E-3	-5.270005E-3	1.041053E-2
5.315130E+2	5.989899E-3	2.394260E-3	1.855486E-3	-9.695509E-4	1.887145E-3	-5.412210E-3	-2.683685E-3	-3.002732E-3	-1.147279E-2	-1.888686E-3	-7.268907E-3	3.586346E-3	2.087222E-3	-1.960242E-3	-9.488443E-3	-3.010004E-3	-1.095787E-3	-7.266779E-4	-6.795029E-3	8.027405E-3	-2.319386E-3	-3.316249E-3	-2.422738E-3	2.931001E-3	5.121207E-3	2.458457E-4	-4.834294E-3	4.821154E-3	1.051481E-7	4.156439E-3	4.249779E-3	-4.209376E-3	2.521962E-4	-6.403988E-3	-3.385769E-3	4.536779E-4	2.758890E-3	-2.548444E-3	-4.957206E-3	5.372914E-4	6.176965E-3	9.098773E-3	-2.359774E-3	-5.447495E-3	3.300928E-3	-8.992009E-4	8.152806E-3	1.642851E-3	2.318695E-3	3.038222E-3	-6.840901E-3	-4.265924E-3	-4.038651E-3	3.034588E-3	7.143139E-4	-9.894325E-4	-4.361219E-3	3.494726E-3	6.551881E-3	-5.101680E-3	3.081839E-3	-9.710843E-3	-9.343065E-3	4.269209E-3	-2.898931E-3	-2.975722E-3	-9.912143E-3	-4.762463E-3	1.799898E-3	5.443582E-3	1.206741E-3	2.411381E-3	3.920558E-4	6.697292E-3	1.163152E-4	-2.869920E-3	2.382528E-3	7.534230E-3	5.994075E-3	3.676171E-3	3.695292E-3	-5.990720E-3	5.390598E-4	8.246533E-5	-9.315738E-4	7.197390E-3	-2.394091E-3	-1.328114E-3	9.564207E-5	2.207894E-4	2.364582E-3	4.198481E-3	5.934062E-3	7.866625E-4	-2.375756E-3	1.058848E-3	-8.417121E-3	-7.122498E-3	-4.932684E-3	1.799494E-3	1.615979E-3	3.408520E-3	-2.866185E-3	-2.697327E-3	-3.403637E-3	-7.228704E-3	-4.711635E-4	8.260206E-3	-7.906616E-5	1.174587E-3	9.110773E-4	-2.236159E-3	5.385763E-4	-1.248481E-3	2.248299E-3	4.145714E-3	4.537374E-4	4.772578E-3	3.649853E-4	-4.707801E-3	-4.645255E-3	-9.399184E-4	5.239011E-3	9.476740E-4	3.298873E-4	-5.722914E-3	1.030019E-3	3.673473E-3	1.699762E-3	-1.370911E-4	-4.527134E-3	-7.106632E-4	3.444747E-3	3.222403E-3	3.453355E-3	1.046290E-3	-1.755431E-3	5.572274E-3	9.825513E-3	6.073074E-4	-2.761547E-3	-3.815403E-6	5.885993E-4	-6.015113E-3	-1.648264E-4	-4.197883E-3	-1.545841E-3	-3.167379E-3	-5.028165E-4	-1.913782E-3	-4.949244E-3	-7.811083E-4	-9.204678E-4	3.575442E-3	-1.830846E-7	-5.559967E-3	-7.808987E-3	1.607127E-4	5.166875E-4	7.935902E-3	-6.193457E-3	-1.391307E-4	2.149690E-3	-1.326307E-2	-8.037736E-3	6.883241E-3	3.824162E-3	-1.853093E-3	1.390493E-2	-1.182569E-2
5.320220E+2	1.291340E-4	-1.152476E-3	6.340644E-3	1.527281E-2	2.621396E-3	8.893141E-3	1.042520E-2	2.956689E-4	-6.069527E-3	1.876226E-3	6.455755E-3	6.884199E-3	1.068055E-2	9.874767E-4	1.943899E-3	-1.168425E-4	2.596101E-3	1.193280E-2	9.578895E-4	1.958358E-3	-1.696540E-3	7.037753E-3	7.372600E-3	6.251708E-3	2.426248E-3	6.502398E-3	5.837244E-3	8.722862E-3	-1.264444E-3	-3.088381E-5	8.460142E-3	2.222081E-3	8.333325E-3	-2.017774E-4	8.247136E-4	1.197078E-2	6.018588E-3	1.345240E-2	6.585261E-3	2.709096E-4	1.102377E-2	-5.377195E-3	7.282799E-3	2.077210E-2	1.282807E-4	-2.411550E-4	2.802800E-3	1.338042E-3	-5.671120E-4	-2.410311E-3	6.039915E-3	6.551348E-3	5.156477E-3	9.640480E-3	-8.488466E-3	-3.980101E-4	1.782701E-3	-3.606480E-3	4.376846E-3	9.158336E-3	5.722458E-3	1.146627E-2	6.268882E-3	-6.205634E-4	-3.398813E-3	4.392207E-3	-4.419300E-3	1.114038E-2	1.933203E-3	1.934855E-3	9.557324E-3	-5.425600E-4	-8.570718E-3	-2.828344E-4	9.209115E-3	6.138021E-3	-1.047727E-3	-3.280653E-3	-5.893791E-3	3.249982E-3	4.415472E-3	9.122020E-3	1.087602E-2	5.441951E-3	-7.594497E-3	-1.826370E-3	2.174485E-3	8.665250E-3	6.332235E-3	-1.615889E-3	-2.743835E-3	-4.284599E-3	4.262357E-3	9.208984E-4	4.074424E-3	1.234902E-2	5.279526E-3	8.458362E-3	4.716555E-3	-8.277591E-4	2.826141E-3	-6.937820E-3	8.909048E-3	1.465145E-2	-4.485652E-3	5.592977E-3	1.194260E-2	2.791946E-3	-4.921822E-4	-2.642857E-3	4.181057E-3	6.306526E-3	1.041371E-2	1.034897E-2	-5.606319E-3	7.284961E-3	1.160398E-2	1.971220E-4	6.143349E-3	2.756624E-3	8.317531E-3	-2.791752E-3	1.097370E-4	-4.373661E-3	1.021346E-2	4.922361E-3	-1.482206E-3	2.339989E-4	-3.441059E-3	2.193116E-5	9.036304E-3	-1.016362E-5	-3.949243E-3	-7.158333E-4	-2.733906E-3	5.635916E-3	7.869816E-3	-4.329342E-3	7.090733E-3	7.198185E-3	1.216887E-2	5.806413E-3	5.614325E-3	-2.354472E-3	2.710333E-3	6.896997E-3	-9.715871E-3	3.153067E-3	9.230419E-3	-2.283665E-3	1.523818E-3	-3.438762E-3	-2.477411E-3	1.654336E-3	-1.450801E-3	1.079653E-2	1.121965E-2	3.252010E-4	-1.571359E-3	-2.854361E-4	5.445603E-3	4.833299E-3	4.081898E-4	2.927068E-3	1.465463E-3	4.918791E-3	3.965026E-3	-3.991843E-3	-2.452780E-3	4.096616E-3
5.325170E+2	6.251698E-3	1.125653E-2	1.411284E-2	9.417279E-3	7.091507E-3	7.447733E-3	7.310056E-3	9.033629E-3	2.008547E-2	9.825842E-3	5.955307E-3	1.128375E-2	4.752570E-3	1.009578E-2	1.184917E-2	1.163825E-2	2.724685E-3	4.085624E-3	9.272387E-3	5.434979E-3	1.040907E-2	1.076209E-2	1.145040E-2	1.873272E-3	1.054806E-2	1.176757E-2	1.972295E-2	5.095363E-3	1.055901E-2	9.304887E-3	1.206202E-2	1.499710E-2	3.502256E-3	1.061613E-2	2.227192E-2	1.320898E-2	1.033488E-2	3.866662E-3	1.319160E-2	5.901268E-3	9.413368E-3	5.586208E-3	8.036593E-3	2.037160E-3	1.077007E-2	2.028797E-2	9.027337E-3	1.276924E-2	1.952176E-3	1.195891E-2	1.780796E-2	9.375822E-3	1.340088E-2	8.180877E-3	1.581768E-2	1.766172E-2	1.952428E-2	4.887238E-3	6.852997E-3	5.004954E-3	1.241155E-2	-1.366117E-4	1.555671E-2	8.593052E-3	1.368311E-2	1.516449E-2	2.260421E-2	2.185428E-2	5.155615E-3	1.569095E-2	9.214039E-3	9.793052E-3	1.219245E-2	1.190430E-2	6.379079E-3	8.681467E-3	9.320540E-3	3.366955E-3	9.991641E-3	3.402165E-3	1.417032E-2	3.362155E-3	9.427722E-3	3.447142E-4	7.809984E-3	1.207725E-2	1.324316E-2	9.785843E-3	-4.254003E-3	1.478267E-2	3.225711E-3	1.556787E-2	6.281113E-3	8.609274E-3	1.857242E-2	1.519208E-2	1.349986E-3	8.061165E-3	1.393660E-2	8.141415E-3	1.282331E-2	1.768342E-2	1.238135E-2	7.331485E-3	8.308771E-3	1.248203E-2	7.157546E-3	1.409137E-2	1.082833E-2	1.068740E-2	1.058711E-2	5.911991E-3	8.186780E-4	2.883800E-4	6.294350E-3	5.625082E-3	-1.362793E-3	6.227943E-3	6.790047E-3	8.766943E-3	9.048579E-3	2.208770E-2	9.645657E-3	1.279011E-2	6.974267E-3	9.085675E-3	9.324182E-3	1.114148E-2	1.207676E-2	8.690777E-3	1.563727E-2	5.178004E-3	1.386168E-2	4.037585E-3	7.467750E-3	7.762124E-3	5.787358E-3	1.711602E-2	2.370084E-4	1.497582E-2	2.304083E-3	1.201933E-2	5.754677E-3	1.192214E-2	1.268030E-2	5.933946E-3	1.425967E-2	1.511073E-2	1.486846E-2	1.689213E-2	6.848320E-3	1.598323E-2	8.460076E-3	1.544445E-2	7.777404E-3	1.328546E-3	1.189960E-2	5.990197E-3	5.265325E-3	1.034941E-2	1.250144E-2	8.738198E-3	1.124461E-2	1.678987E-2	1.413625E-2	5.076243E-3	8.123721E-3	1.065788E-2	6.602104E-3	1.216582E-2
5.330280E+2	1.895580E-2	3.060705E-2	6.615861E-3	1.255165E-2	1.726304E-2	2.396547E-2	1.886336E-2	1.691698E-2	4.157750E-2	2.828697E-2	1.383031E-2	3.773381E-2	5.889063E-3	2.925437E-2	1.582815E-2	2.470174E-2	2.957305E-2	3.754064E-2	1.684073E-2	1.136799E-2	2.358359E-2	3.973850E-2	2.236050E-2	1.842062E-2	3.471905E-2	3.039029E-2	1.242671E-2	3.842120E-2	2.529694E-2	2.580370E-2	1.087105E-2	4.969119E-3	2.167586E-2	2.512274E-2	1.623647E-2	2.934976E-2	2.618409E-2	1.690509E-2	3.579405E-2	3.229016E-2	2.612381E-2	3.240673E-2	2.506628E-2	2.744510E-2	1.983199E-2	2.158354E-2	1.651640E-2	1.850569E-2	3.165178E-2	2.796251E-2	1.752714E-2	3.002835E-2	2.422456E-2	1.268296E-2	1.276392E-2	3.124235E-2	1.319485E-2	2.071250E-2	3.017463E-2	2.248921E-2	2.369117E-2	2.366447E-2	3.258545E-2	3.254765E-2	3.329181E-2	1.757960E-2	2.689678E-2	1.735394E-2	2.333230E-2	2.637770E-2	2.845749E-2	3.086648E-2	1.478821E-2	3.625993E-2	1.195345E-2	1.899102E-2	2.488725E-2	1.306792E-2	2.173066E-2	2.742532E-2	3.423072E-2	2.237247E-2	9.607237E-3	3.051389E-2	3.012177E-2	2.964569E-2	2.286969E-2	2.037657E-2	4.048575E-2	1.893746E-2	2.968800E-2	2.874041E-2	2.075273E-2	3.052790E-2	3.048439E-2	2.661130E-2	3.083066E-2	2.326710E-2	1.960527E-2	2.326060E-2	1.740700E-2	2.147320E-2	2.229404E-2	2.558477E-2	1.537590E-2	2.162580E-2	1.105152E-2	1.613264E-2	2.006857E-2	1.871372E-2	3.528833E-2	2.447107E-2	3.677831E-2	1.960948E-2	3.437982E-2	1.348002E-2	2.503004E-2	1.170309E-2	2.333292E-2	1.922494E-2	2.073821E-2	1.368130E-2	1.627906E-2	2.331793E-2	2.423655E-2	1.930323E-2	2.608264E-2	2.675295E-2	3.299771E-2	1.855289E-2	1.149868E-2	3.638605E-2	2.214619E-2	1.705462E-2	2.889352E-2	4.055239E-2	2.722937E-2	1.786347E-2	1.907285E-2	3.339540E-2	2.354897E-2	1.524147E-2	1.569428E-2	2.577981E-2	2.107255E-2	3.747236E-2	1.973540E-2	2.488214E-2	2.655970E-2	2.503643E-2	1.104237E-2	2.194541E-2	2.229802E-2	1.879041E-2	1.705425E-2	1.189937E-2	1.103987E-2	2.226472E-2	1.158311E-2	2.636861E-2	1.381622E-2	3.424988E-2	2.087745E-2	3.374211E-2	2.112414E-2	1.169425E-2	2.711576E-2	2.240097E-2	3.233000E-2	2.821941E-2
5.331630E+2	3.060693E-2	2.771777E-2	3.524353E-2	2.471198E-2	3.097697E-2	3.420143E-2	2.611153E-2	2.346368E-2	3.216982E-2	3.633359E-2	3.922316E-2	2.940887E-2	2.210898E-2	3.514965E-2	3.132064E-2	3.939158E-2	3.799571E-2	4.119161E-2	2.867687E-2	3.370919E-2	3.580421E-2	3.118415E-2	2.657407E-2	2.864139E-2	3.090505E-2	3.983172E-2	3.529247E-2	3.435423E-2	2.832162E-2	3.470915E-2	1.889458E-2	3.432659E-2	3.890466E-2	3.915699E-2	4.170088E-2	3.671215E-2	3.108676E-2	2.687970E-2	3.124495E-2	2.490257E-2	4.051257E-2	3.368557E-2	2.330881E-2	3.009135E-2	4.561326E-2	3.421539E-2	1.085842E-2	4.346972E-2	3.065542E-2	3.843194E-2	3.701449E-2	4.001384E-2	2.287813E-2	2.695998E-2	2.184313E-2	3.008305E-2	2.952943E-2	1.976487E-2	2.717505E-2	2.148565E-2	3.956517E-2	2.042434E-2	3.290961E-2	3.748082E-2	4.507311E-2	2.732568E-2	4.273401E-2	3.346246E-2	3.177310E-2	2.972862E-2	2.997043E-2	2.618948E-2	2.943402E-2	2.214011E-2	4.232491E-2	3.213545E-2	3.542820E-2	3.291921E-2	3.218174E-2	3.588495E-2	1.211855E-2	3.397230E-2	3.388909E-2	4.570806E-2	2.691036E-2	2.370638E-2	3.318738E-2	3.246675E-2	3.352838E-2	3.003894E-2	3.205119E-2	3.295627E-2	2.608478E-2	3.695778E-2	4.146308E-2	3.248482E-2	3.044096E-2	2.797713E-2	2.145048E-2	3.303768E-2	4.179620E-2	3.821909E-2	3.772991E-2	3.181077E-2	3.231948E-2	3.865521E-2	3.294386E-2	2.814960E-2	3.578309E-2	4.190362E-2	2.727628E-2	3.681005E-2	4.018980E-2	2.362124E-2	1.842871E-2	2.918896E-2	3.156592E-2	3.623543E-2	3.638108E-2	3.418889E-2	2.875651E-2	3.671005E-2	4.306242E-2	2.840313E-2	3.424576E-2	3.058128E-2	3.111308E-2	2.488000E-2	3.856698E-2	3.474927E-2	3.762234E-2	3.491270E-2	3.810119E-2	2.498576E-2	2.111048E-2	3.586468E-2	4.092155E-2	3.947298E-2	3.448512E-2	4.836175E-2	3.144728E-2	2.061083E-2	3.057949E-2	3.006967E-2	3.390400E-2	3.880942E-2	3.019173E-2	2.396484E-2	2.981772E-2	2.737903E-2	4.021180E-2	2.689203E-2	4.078166E-2	3.481770E-2	3.068911E-2	2.298931E-2	2.819586E-2	2.752891E-2	3.199808E-2	4.190372E-2	2.152886E-2	2.150460E-2	2.930266E-2	2.855197E-2	4.073637E-2	3.130195E-2	2.933316E-2	5.725177E-2	5.304078E-2	5.231949E-2
5.333130E+2	4.948320E-2	4.041508E-2	3.381457E-2	5.682882E-2	3.513707E-2	4.503465E-2	3.668523E-2	3.963946E-2	3.773498E-2	4.549038E-2	4.104945E-2	3.816322E-2	3.511905E-2	4.205775E-2	4.963213E-2	3.776529E-2	4.338513E-2	3.853946E-2	3.056111E-2	4.875609E-2	3.402106E-2	4.122094E-2	3.538131E-2	3.848260E-2	4.949777E-2	5.243792E-2	3.112894E-2	5.254634E-2	3.987028E-2	4.858314E-2	3.093245E-2	4.918852E-2	4.115343E-2	3.733140E-2	5.456349E-2	4.737527E-2	4.285893E-2	4.469072E-2	4.429590E-2	3.873482E-2	4.134165E-2	5.961671E-2	3.382013E-2	4.890394E-2	4.976351E-2	4.364732E-2	3.706771E-2	3.368415E-2	4.176529E-2	4.636773E-2	4.908236E-2	5.432877E-2	3.938623E-2	4.023737E-2	4.125102E-2	3.959192E-2	4.344120E-2	4.638037E-2	3.944942E-2	4.715738E-2	5.248926E-2	3.994894E-2	4.396909E-2	4.331908E-2	5.141158E-2	3.768217E-2	4.475281E-2	5.318168E-2	3.665695E-2	4.102838E-2	4.932516E-2	4.876641E-2	3.450468E-2	4.773597E-2	3.334329E-2	2.700187E-2	3.877096E-2	4.225350E-2	4.207598E-2	4.065650E-2	4.257866E-2	4.070380E-2	4.432804E-2	4.546384E-2	4.937054E-2	3.780110E-2	3.718492E-2	5.126452E-2	3.221136E-2	3.623602E-2	3.690889E-2	3.959554E-2	4.628888E-2	3.486348E-2	4.410963E-2	5.507384E-2	6.236422E-2	5.224142E-2	4.988598E-2	4.005429E-2	3.542981E-2	3.586071E-2	6.129580E-2	4.900767E-2	4.990562E-2	3.272904E-2	4.119378E-2	5.021446E-2	3.610252E-2	5.304125E-2	3.278856E-2	5.117391E-2	3.147800E-2	4.774904E-2	4.185701E-2	3.670927E-2	4.975480E-2	4.781948E-2	3.276389E-2	5.421896E-2	4.626059E-2	4.107225E-2	4.154732E-2	5.339834E-2	3.703368E-2	2.888976E-2	5.178085E-2	5.919137E-2	5.139862E-2	3.507116E-2	3.344582E-2	4.666078E-2	4.143169E-2	4.490582E-2	3.114603E-2	3.220016E-2	5.472204E-2	4.316237E-2	2.940386E-2	4.285540E-2	4.474387E-2	3.875854E-2	3.100587E-2	3.859578E-2	5.839798E-2	3.797129E-2	4.829169E-2	5.037694E-2	5.330638E-2	4.523252E-2	4.285044E-2	5.425356E-2	3.819584E-2	5.150139E-2	4.117641E-2	4.025898E-2	4.031638E-2	3.485779E-2	3.729893E-2	4.428785E-2	3.627104E-2	3.797096E-2	4.539413E-2	6.129654E-2	4.208065E-2	5.157754E-2	5.054283E-2	3.908472E-2	3.535689E-2	5.062343E-2
5.334520E+2	4.475130E-2	5.996130E-2	5.989176E-2	7.099338E-2	5.439105E-2	4.845492E-2	4.783408E-2	5.224050E-2	5.780489E-2	6.258909E-2	5.871327E-2	6.514916E-2	4.818499E-2	6.762702E-2	4.855714E-2	5.634422E-2	6.740474E-2	5.434077E-2	4.528487E-2	7.015350E-2	4.583035E-2	6.735442E-2	4.422029E-2	4.744149E-2	7.276332E-2	5.115662E-2	3.627612E-2	5.006399E-2	5.761937E-2	5.375878E-2	5.332448E-2	6.641285E-2	5.751453E-2	4.888189E-2	6.212213E-2	5.753145E-2	5.678405E-2	5.219973E-2	6.778413E-2	4.794436E-2	5.346956E-2	5.220632E-2	3.241175E-2	6.892491E-2	5.281143E-2	4.877326E-2	5.738540E-2	5.408266E-2	7.053444E-2	5.536334E-2	5.893726E-2	4.319159E-2	4.983799E-2	5.356516E-2	6.223585E-2	8.028712E-2	5.843275E-2	5.677509E-2	5.350873E-2	4.740307E-2	5.581134E-2	5.460980E-2	6.594100E-2	6.143991E-2	6.144261E-2	5.316207E-2	5.034152E-2	5.225092E-2	5.193605E-2	5.819601E-2	5.425494E-2	6.339653E-2	5.852534E-2	6.625582E-2	4.874181E-2	4.651055E-2	7.159894E-2	5.213136E-2	6.433713E-2	5.720658E-2	5.434701E-2	5.018145E-2	6.243592E-2	5.369551E-2	5.591554E-2	6.228094E-2	4.777086E-2	5.394292E-2	5.517522E-2	4.545165E-2	4.350426E-2	4.796638E-2	5.681394E-2	5.609590E-2	6.516653E-2	6.131602E-2	6.749691E-2	5.923524E-2	4.731078E-2	4.645235E-2	5.611030E-2	5.730360E-2	6.746146E-2	5.750942E-2	4.841654E-2	6.562160E-2	6.732772E-2	6.308027E-2	5.625627E-2	6.571662E-2	5.263439E-2	5.730207E-2	5.494564E-2	6.283818E-2	4.837410E-2	5.251086E-2	4.843132E-2	5.644034E-2	5.602290E-2	4.907900E-2	4.653741E-2	6.023706E-2	5.918770E-2	5.435888E-2	5.013276E-2	3.777355E-2	5.037347E-2	6.176356E-2	6.546386E-2	6.411684E-2	4.771058E-2	6.638376E-2	6.213528E-2	5.193298E-2	5.529107E-2	5.540127E-2	5.388247E-2	6.101266E-2	3.624222E-2	6.134104E-2	6.200543E-2	5.499636E-2	6.391980E-2	7.006518E-2	5.986162E-2	5.439329E-2	5.651131E-2	6.742760E-2	6.121151E-2	5.035372E-2	6.715238E-2	6.224446E-2	5.511844E-2	5.606212E-2	5.110976E-2	6.429309E-2	6.239254E-2	4.281189E-2	5.166287E-2	7.014068E-2	4.996830E-2	6.441907E-2	4.908154E-2	5.813489E-2	5.447101E-2	4.321549E-2	5.228601E-2	6.957611E-2	5.621632E-2	5.893457E-2
5.336080E+2	8.360911E-2	5.577918E-2	7.614049E-2	8.842594E-2	7.822431E-2	7.485664E-2	6.671650E-2	5.899717E-2	7.744724E-2	7.658945E-2	7.752562E-2	7.884003E-2	6.178770E-2	6.982162E-2	6.335764E-2	8.684117E-2	7.493879E-2	8.294900E-2	7.126998E-2	8.139511E-2	7.237397E-2	8.218940E-2	6.837193E-2	6.428823E-2	9.497288E-2	7.936921E-2	9.126346E-2	8.259599E-2	8.540474E-2	7.869481E-2	8.669579E-2	7.179663E-2	7.750681E-2	8.373987E-2	6.876163E-2	8.875219E-2	7.816785E-2	9.096812E-2	7.848909E-2	7.258687E-2	7.997090E-2	8.157344E-2	7.568743E-2	7.374781E-2	7.603442E-2	5.774421E-2	7.982196E-2	7.921064E-2	8.056768E-2	8.866483E-2	7.508954E-2	9.456827E-2	7.931076E-2	7.351543E-2	7.984714E-2	8.764082E-2	1.014657E-1	6.665130E-2	7.916343E-2	7.887923E-2	8.160411E-2	7.682910E-2	8.960636E-2	8.222546E-2	7.459709E-2	6.363314E-2	8.399198E-2	6.854394E-2	6.935622E-2	7.279072E-2	8.364217E-2	7.224847E-2	7.830089E-2	7.542633E-2	7.997374E-2	8.365304E-2	7.089925E-2	8.136703E-2	7.170816E-2	8.569403E-2	6.860278E-2	8.205900E-2	7.034523E-2	7.903435E-2	9.402354E-2	7.964222E-2	6.381513E-2	7.528531E-2	7.359105E-2	8.319149E-2	6.394767E-2	8.272974E-2	7.207603E-2	9.226817E-2	8.110598E-2	8.606957E-2	7.017186E-2	6.682333E-2	9.266234E-2	7.751258E-2	7.355317E-2	7.946774E-2	7.201695E-2	6.052865E-2	8.591421E-2	8.913759E-2	8.087645E-2	6.903629E-2	9.432375E-2	6.900342E-2	7.639376E-2	7.198602E-2	7.138718E-2	7.474838E-2	6.068359E-2	7.143909E-2	7.950858E-2	8.847824E-2	7.478803E-2	8.460149E-2	7.259296E-2	6.619049E-2	6.788742E-2	6.946248E-2	7.613295E-2	8.224751E-2	7.153853E-2	8.300435E-2	7.896491E-2	7.135036E-2	6.555470E-2	8.269581E-2	8.039384E-2	7.044286E-2	7.730299E-2	6.871230E-2	8.021816E-2	5.392673E-2	7.301918E-2	7.836262E-2	6.620115E-2	7.810728E-2	7.704890E-2	7.709079E-2	8.729739E-2	7.472420E-2	7.529250E-2	7.059743E-2	8.540287E-2	7.959665E-2	8.232757E-2	7.357311E-2	9.171171E-2	6.912711E-2	7.283942E-2	8.554904E-2	5.960420E-2	7.773407E-2	8.107814E-2	7.266909E-2	7.187331E-2	7.456558E-2	7.501698E-2	8.146065E-2	7.539365E-2	7.721626E-2	7.861415E-2	8.233654E-2	8.490344E-2	9.536708E-2
5.337580E+2	1.005007E-1	9.808243E-2	9.634664E-2	9.602205E-2	9.773972E-2	1.002977E-1	9.833101E-2	9.977153E-2	1.015027E-1	1.145280E-1	9.113572E-2	1.082312E-1	9.840518E-2	1.052113E-1	1.096499E-1	1.227264E-1	1.038194E-1	9.718390E-2	1.119669E-1	1.060344E-1	8.483773E-2	1.054326E-1	1.094593E-1	8.584460E-2	1.421843E-1	1.191557E-1	1.124266E-1	1.136677E-1	1.138402E-1	1.268594E-1	1.181320E-1	1.380960E-1	1.163126E-1	1.006273E-1	1.311383E-1	1.102525E-1	1.149877E-1	1.069823E-1	1.444656E-1	1.102536E-1	1.233579E-1	1.099963E-1	9.950500E-2	1.069772E-1	1.257973E-1	1.114820E-1	1.194997E-1	1.156196E-1	1.107794E-1	1.076180E-1	9.128620E-2	1.098216E-1	1.155830E-1	9.575850E-2	9.507746E-2	1.039497E-1	9.371144E-2	1.207568E-1	9.683982E-2	1.280298E-1	1.069885E-1	9.213633E-2	1.039848E-1	1.211140E-1	1.191365E-1	1.161683E-1	1.249614E-1	9.631016E-2	1.118865E-1	9.754204E-2	9.751588E-2	1.118214E-1	1.001084E-1	1.057622E-1	1.205898E-1	1.045839E-1	1.018806E-1	1.086666E-1	1.078002E-1	1.063957E-1	9.877714E-2	9.985321E-2	1.119517E-1	1.018385E-1	1.104551E-1	1.084721E-1	1.021838E-1	1.082277E-1	1.201269E-1	1.145840E-1	9.402935E-2	1.176145E-1	1.079493E-1	1.190122E-1	1.360765E-1	1.005560E-1	1.192857E-1	1.144402E-1	1.010072E-1	1.081469E-1	1.132657E-1	1.274415E-1	1.106642E-1	1.066179E-1	1.211583E-1	9.557690E-2	1.265523E-1	1.168502E-1	1.152359E-1	1.122754E-1	1.018573E-1	1.049729E-1	1.080745E-1	1.029480E-1	9.927297E-2	1.148497E-1	1.011734E-1	1.032652E-1	1.107072E-1	1.059055E-1	1.142417E-1	1.153344E-1	9.874331E-2	1.144967E-1	1.072626E-1	1.071241E-1	1.061741E-1	1.264374E-1	1.046113E-1	1.127727E-1	1.006120E-1	1.232008E-1	1.054440E-1	1.141266E-1	1.206914E-1	1.142115E-1	1.015987E-1	9.128397E-2	1.110701E-1	1.236565E-1	1.132616E-1	1.150983E-1	1.132512E-1	1.053587E-1	8.157296E-2	1.057777E-1	1.183604E-1	1.093645E-1	1.062213E-1	1.052449E-1	1.027637E-1	1.084698E-1	1.123247E-1	1.142981E-1	9.715684E-2	1.118088E-1	9.793555E-2	9.905401E-2	1.058820E-1	1.046907E-1	9.797900E-2	1.110205E-1	1.076258E-1	1.231301E-1	1.059791E-1	9.885175E-2	1.119361E-1	1.232014E-1	8.914966E-2	1.118700E-1
5.339190E+2	1.623614E-1	1.739144E-1	1.776017E-1	1.749037E-1	1.711316E-1	1.424504E-1	1.653372E-1	1.559480E-1	1.716290E-1	1.775578E-1	1.755678E-1	1.760412E-1	1.670513E-1	1.981644E-1	1.758552E-1	1.789596E-1	1.744741E-1	1.778348E-1	1.698301E-1	1.589212E-1	1.783035E-1	1.611491E-1	1.476830E-1	1.817565E-1	2.545751E-1	2.018023E-1	2.021490E-1	2.229830E-1	2.001380E-1	1.901735E-1	2.063813E-1	2.000622E-1	1.898425E-1	1.866274E-1	1.869849E-1	1.872507E-1	2.113685E-1	1.852835E-1	1.898198E-1	1.760348E-1	1.951479E-1	2.054141E-1	1.842604E-1	1.762437E-1	1.825647E-1	2.027239E-1	1.836860E-1	1.822328E-1	1.943746E-1	2.013322E-1	2.004186E-1	1.868791E-1	1.736833E-1	2.027605E-1	1.830282E-1	1.916064E-1	2.020801E-1	1.910737E-1	1.790254E-1	2.069670E-1	1.966395E-1	1.901452E-1	1.809951E-1	1.824115E-1	2.021080E-1	1.803560E-1	1.775183E-1	1.768190E-1	1.740036E-1	1.943810E-1	1.851891E-1	1.837577E-1	1.817827E-1	1.731158E-1	1.751005E-1	1.815362E-1	1.930261E-1	1.825624E-1	1.988449E-1	1.936953E-1	1.811303E-1	1.758292E-1	1.908503E-1	1.684149E-1	1.765684E-1	1.806472E-1	1.893778E-1	1.751442E-1	1.742467E-1	1.748104E-1	1.936608E-1	1.842590E-1	1.759477E-1	1.661365E-1	2.008755E-1	1.736387E-1	1.719206E-1	1.798646E-1	1.897156E-1	1.610017E-1	1.543468E-1	1.904972E-1	1.788161E-1	1.829235E-1	1.818850E-1	1.834997E-1	1.780406E-1	2.137308E-1	1.916944E-1	1.897879E-1	1.874174E-1	1.841945E-1	1.790084E-1	1.867386E-1	1.595603E-1	1.915046E-1	1.870588E-1	1.929081E-1	1.936144E-1	1.801552E-1	1.640107E-1	1.862886E-1	1.745290E-1	1.800839E-1	1.842591E-1	1.847116E-1	1.958422E-1	1.885140E-1	1.798713E-1	1.450871E-1	1.737214E-1	2.173156E-1	1.980626E-1	1.679165E-1	1.897993E-1	1.860370E-1	1.731307E-1	1.825392E-1	1.907994E-1	1.968164E-1	1.810423E-1	1.841979E-1	1.785774E-1	1.990018E-1	1.804679E-1	1.834131E-1	1.722853E-1	1.833353E-1	1.647939E-1	1.681833E-1	1.692240E-1	1.930545E-1	1.899212E-1	1.757095E-1	1.882402E-1	2.005876E-1	2.066198E-1	1.685931E-1	1.807633E-1	1.853309E-1	1.906866E-1	1.914979E-1	1.959063E-1	1.752787E-1	1.803074E-1	1.670485E-1	1.696961E-1	1.775302E-1	2.153721E-1	2.091825E-1
5.340690E+2	2.955365E-1	2.840804E-1	2.781059E-1	2.583731E-1	2.800590E-1	2.798739E-1	2.713046E-1	2.854153E-1	2.870516E-1	2.807926E-1	2.747869E-1	2.921811E-1	2.889579E-1	2.824492E-1	2.685672E-1	2.585356E-1	2.831510E-1	2.677397E-1	2.981562E-1	2.699624E-1	2.726071E-1	3.061072E-1	2.747612E-1	2.981436E-1	3.902302E-1	3.771084E-1	3.346027E-1	3.511873E-1	3.496723E-1	3.375054E-1	3.047707E-1	3.386258E-1	3.095737E-1	3.119188E-1	3.242043E-1	3.146368E-1	3.611269E-1	3.353183E-1	3.180411E-1	2.912634E-1	3.650050E-1	3.345260E-1	3.068824E-1	3.090190E-1	3.314339E-1	3.472084E-1	3.193274E-1	3.121722E-1	3.110869E-1	3.366808E-1	3.004966E-1	3.071736E-1	2.989422E-1	3.213130E-1	3.203345E-1	3.109806E-1	3.142023E-1	3.073202E-1	3.297448E-1	3.014772E-1	3.306002E-1	2.998634E-1	3.175868E-1	2.802334E-1	2.983373E-1	2.912335E-1	3.380696E-1	3.137114E-1	3.248663E-1	3.109562E-1	3.220660E-1	3.075339E-1	3.092067E-1	3.063191E-1	3.065960E-1	2.893021E-1	2.805649E-1	3.305497E-1	3.131892E-1	3.177329E-1	3.142022E-1	3.296603E-1	3.280483E-1	3.159235E-1	3.100687E-1	3.319494E-1	2.929746E-1	3.089720E-1	3.180906E-1	2.998917E-1	3.094209E-1	2.929655E-1	2.824930E-1	3.037408E-1	2.947171E-1	2.902637E-1	3.234892E-1	3.121075E-1	3.106994E-1	3.192222E-1	3.007140E-1	3.282307E-1	2.796421E-1	2.906079E-1	3.091401E-1	3.048718E-1	2.903969E-1	3.093979E-1	3.283698E-1	2.951886E-1	3.239778E-1	3.121711E-1	2.851521E-1	2.977335E-1	2.904218E-1	3.116528E-1	3.024098E-1	3.072069E-1	3.211308E-1	3.303211E-1	2.786446E-1	3.184220E-1	3.008958E-1	3.101541E-1	2.870696E-1	2.841912E-1	2.931831E-1	3.000073E-1	2.785146E-1	3.037314E-1	3.295176E-1	3.124773E-1	3.123684E-1	2.991014E-1	2.720542E-1	3.035913E-1	3.208868E-1	2.982480E-1	3.045393E-1	2.998101E-1	3.015180E-1	2.897695E-1	3.082130E-1	3.300514E-1	3.033383E-1	2.889523E-1	2.982626E-1	3.170800E-1	2.944204E-1	2.968329E-1	3.247060E-1	2.949527E-1	2.960945E-1	3.050030E-1	2.763684E-1	3.393468E-1	3.006375E-1	2.913790E-1	2.746039E-1	2.944764E-1	3.453678E-1	2.608336E-1	2.913453E-1	3.021792E-1	3.195529E-1	3.244309E-1	2.709978E-1	3.252449E-1	3.169330E-1	2.826672E-1
5.342040E+2	4.877235E-1	4.655263E-1	4.475816E-1	4.455819E-1	4.783103E-1	4.906894E-1	4.752365E-1	4.614692E-1	5.079460E-1	4.752415E-1	4.755678E-1	4.750449E-1	4.916335E-1	4.698297E-1	4.805950E-1	5.046843E-1	4.783173E-1	4.690067E-1	4.664962E-1	4.644450E-1	4.826248E-1	4.989901E-1	4.799548E-1	4.930148E-1	6.569145E-1	6.076362E-1	5.928341E-1	5.950740E-1	5.552566E-1	5.463066E-1	5.658952E-1	5.321679E-1	5.123995E-1	5.832074E-1	5.076659E-1	5.599164E-1	5.705917E-1	5.370086E-1	5.455184E-1	5.491051E-1	5.226296E-1	5.113913E-1	5.054080E-1	5.336860E-1	5.224466E-1	5.346340E-1	5.334347E-1	5.248152E-1	5.500020E-1	5.566254E-1	5.510865E-1	5.119924E-1	5.232755E-1	5.293119E-1	5.423172E-1	5.347173E-1	5.281240E-1	5.273549E-1	4.874719E-1	5.168524E-1	5.013151E-1	5.441527E-1	5.158371E-1	5.238652E-1	5.314703E-1	5.334461E-1	5.341640E-1	4.941186E-1	4.950466E-1	5.057066E-1	5.579241E-1	5.217340E-1	5.289099E-1	5.326269E-1	5.248695E-1	5.007817E-1	5.215794E-1	5.066783E-1	5.158200E-1	5.249674E-1	5.131656E-1	5.464520E-1	5.060368E-1	5.258495E-1	5.319185E-1	5.179522E-1	5.063867E-1	4.733019E-1	4.891419E-1	4.978385E-1	4.993026E-1	5.085775E-1	4.720151E-1	5.105618E-1	5.069306E-1	5.023304E-1	5.144921E-1	5.029025E-1	5.032351E-1	5.004323E-1	5.091717E-1	4.816536E-1	5.269129E-1	4.945852E-1	5.120718E-1	4.747899E-1	4.982336E-1	5.205804E-1	4.998067E-1	5.034978E-1	5.021398E-1	5.254867E-1	5.469391E-1	5.263648E-1	4.837227E-1	5.153521E-1	5.210909E-1	5.107087E-1	4.991320E-1	5.083897E-1	5.299010E-1	5.134781E-1	4.932279E-1	5.084204E-1	5.090354E-1	5.045191E-1	4.923855E-1	4.983699E-1	5.143427E-1	5.366167E-1	5.247858E-1	4.895679E-1	5.112755E-1	4.910650E-1	4.810698E-1	5.174232E-1	4.935755E-1	5.013496E-1	4.847430E-1	5.180335E-1	5.282861E-1	4.849218E-1	4.978894E-1	5.207139E-1	5.074800E-1	5.003533E-1	5.195101E-1	5.087656E-1	4.885324E-1	5.193584E-1	5.238306E-1	4.821329E-1	5.279995E-1	4.946979E-1	5.162949E-1	5.303916E-1	5.036505E-1	4.884772E-1	5.218460E-1	5.005698E-1	5.102257E-1	5.169871E-1	4.800200E-1	5.063400E-1	5.162554E-1	5.283167E-1	5.044669E-1	4.879655E-1	5.034185E-1	5.269225E-1
5.343650E+2	8.195657E-1	8.205451E-1	7.873698E-1	8.701111E-1	8.495497E-1	8.070841E-1	7.970889E-1	8.567196E-1	8.262018E-1	8.122915E-1	8.203230E-1	8.166903E-1	8.410403E-1	8.067565E-1	8.381845E-1	8.118238E-1	8.443601E-1	8.521618E-1	8.436659E-1	8.456947E-1	7.863986E-1	8.273276E-1	7.905598E-1	8.078888E-1	1.007678E+0	9.493017E-1	9.418311E-1	9.241757E-1	9.432678E-1	9.389376E-1	9.198944E-1	9.147858E-1	9.078225E-1	9.075714E-1	9.080707E-1	9.407218E-1	9.052854E-1	9.286706E-1	8.931385E-1	9.169180E-1	9.559254E-1	8.442758E-1	8.538582E-1	9.051693E-1	9.487509E-1	9.142017E-1	8.775924E-1	8.630657E-1	8.945139E-1	8.621618E-1	8.531820E-1	8.902065E-1	8.882175E-1	8.805291E-1	8.921835E-1	8.864200E-1	8.549677E-1	8.731569E-1	8.399626E-1	8.913013E-1	8.970176E-1	9.095819E-1	9.255168E-1	8.850088E-1	9.313926E-1	8.459348E-1	8.933238E-1	8.814865E-1	8.639340E-1	8.511640E-1	8.975374E-1	8.704849E-1	8.631737E-1	9.021695E-1	8.514359E-1	8.910922E-1	9.293973E-1	8.789083E-1	8.311215E-1	8.807943E-1	8.480787E-1	8.754253E-1	8.932207E-1	8.501709E-1	9.127777E-1	8.510469E-1	8.372305E-1	8.826530E-1	9.056168E-1	8.328826E-1	8.266310E-1	8.295492E-1	8.413587E-1	8.421045E-1	8.387490E-1	9.278921E-1	8.752239E-1	8.538160E-1	8.757362E-1	8.491535E-1	8.355548E-1	8.441650E-1	9.083767E-1	8.742662E-1	9.011538E-1	8.914682E-1	8.102384E-1	8.766696E-1	8.611120E-1	8.414830E-1	8.615585E-1	8.789074E-1	8.236129E-1	8.718261E-1	8.436062E-1	8.642758E-1	8.836721E-1	8.682429E-1	8.598748E-1	8.899702E-1	8.751838E-1	8.453553E-1	8.922089E-1	8.603930E-1	8.892330E-1	8.236236E-1	8.450161E-1	8.090518E-1	8.592297E-1	8.310426E-1	8.308007E-1	8.749312E-1	8.873768E-1	8.477982E-1	8.584726E-1	8.581525E-1	8.267129E-1	8.654690E-1	8.709198E-1	8.283386E-1	8.546691E-1	8.731624E-1	8.588499E-1	9.150948E-1	9.454898E-1	8.509525E-1	8.427552E-1	8.451282E-1	8.556228E-1	8.775611E-1	8.489114E-1	8.554254E-1	8.406427E-1	8.984088E-1	8.405688E-1	8.992858E-1	8.539831E-1	8.369014E-1	8.615405E-1	8.904740E-1	8.049804E-1	8.322677E-1	8.605533E-1	8.235240E-1	8.521227E-1	8.654737E-1	8.572212E-1	9.096255E-1	9.030975E-1	8.923861E-1
5.345160E+2	1.263416E+0	1.261363E+0	1.224802E+0	1.185780E+0	1.299012E+0	1.225014E+0	1.220880E+0	1.302765E+0	1.262105E+0	1.267163E+0	1.235455E+0	1.314648E+0	1.264884E+0	1.237724E+0	1.248760E+0	1.266605E+0	1.263933E+0	1.281041E+0	1.268007E+0	1.306516E+0	1.244220E+0	1.252017E+0	1.271872E+0	1.257941E+0	1.479901E+0	1.379230E+0	1.334601E+0	1.356590E+0	1.389780E+0	1.340001E+0	1.333329E+0	1.326094E+0	1.345404E+0	1.341463E+0	1.367966E+0	1.298380E+0	1.320416E+0	1.326981E+0	1.280111E+0	1.281142E+0	1.351172E+0	1.294740E+0	1.310206E+0	1.295094E+0	1.332017E+0	1.317687E+0	1.233623E+0	1.323744E+0	1.302448E+0	1.266559E+0	1.334415E+0	1.288469E+0	1.307980E+0	1.322732E+0	1.299115E+0	1.330910E+0	1.304440E+0	1.338154E+0	1.283061E+0	1.371686E+0	1.317062E+0	1.274335E+0	1.305633E+0	1.283103E+0	1.367577E+0	1.295000E+0	1.293402E+0	1.283717E+0	1.289084E+0	1.327425E+0	1.314329E+0	1.311122E+0	1.288213E+0	1.320212E+0	1.277770E+0	1.312125E+0	1.292744E+0	1.290116E+0	1.278477E+0	1.287254E+0	1.338809E+0	1.302911E+0	1.352236E+0	1.277215E+0	1.321053E+0	1.302909E+0	1.262937E+0	1.314000E+0	1.334216E+0	1.300600E+0	1.258564E+0	1.288945E+0	1.335632E+0	1.311564E+0	1.285114E+0	1.295806E+0	1.332726E+0	1.270981E+0	1.287933E+0	1.291925E+0	1.299267E+0	1.266924E+0	1.288088E+0	1.277337E+0	1.299139E+0	1.296054E+0	1.288571E+0	1.303949E+0	1.285593E+0	1.299735E+0	1.267469E+0	1.262619E+0	1.255989E+0	1.278285E+0	1.273938E+0	1.247560E+0	1.264144E+0	1.311758E+0	1.260775E+0	1.244694E+0	1.352140E+0	1.248113E+0	1.200495E+0	1.295210E+0	1.235384E+0	1.294304E+0	1.263956E+0	1.249196E+0	1.345054E+0	1.335184E+0	1.279554E+0	1.282388E+0	1.328279E+0	1.243944E+0	1.306758E+0	1.260363E+0	1.265817E+0	1.285703E+0	1.309604E+0	1.304568E+0	1.261241E+0	1.239430E+0	1.293435E+0	1.301240E+0	1.265890E+0	1.234402E+0	1.245468E+0	1.269623E+0	1.271069E+0	1.305055E+0	1.294182E+0	1.251119E+0	1.305208E+0	1.270090E+0	1.259389E+0	1.291196E+0	1.287247E+0	1.276271E+0	1.295804E+0	1.266060E+0	1.276946E+0	1.273993E+0	1.296053E+0	1.255294E+0	1.321785E+0	1.244687E+0	1.255792E+0	1.298089E+0	1.289844E+0	1.219092E+0
5.346620E+2	1.675750E+0	1.616300E+0	1.592750E+0	1.646648E+0	1.616449E+0	1.649712E+0	1.579790E+0	1.631234E+0	1.606966E+0	1.625857E+0	1.624979E+0	1.596457E+0	1.667529E+0	1.603041E+0	1.665993E+0	1.663336E+0	1.608356E+0	1.675863E+0	1.614409E+0	1.673258E+0	1.617401E+0	1.643951E+0	1.574962E+0	1.570411E+0	1.797088E+0	1.677480E+0	1.689662E+0	1.711782E+0	1.651903E+0	1.702643E+0	1.696469E+0	1.672039E+0	1.686448E+0	1.655082E+0	1.691526E+0	1.680804E+0	1.694803E+0	1.676992E+0	1.708557E+0	1.644903E+0	1.699065E+0	1.667207E+0	1.644929E+0	1.664940E+0	1.613770E+0	1.732513E+0	1.711471E+0	1.654648E+0	1.649059E+0	1.687984E+0	1.644918E+0	1.640139E+0	1.652329E+0	1.677059E+0	1.643590E+0	1.639018E+0	1.643065E+0	1.676797E+0	1.606131E+0	1.644274E+0	1.622613E+0	1.627035E+0	1.646295E+0	1.634540E+0	1.759547E+0	1.605954E+0	1.654924E+0	1.666959E+0	1.653194E+0	1.588014E+0	1.595080E+0	1.646237E+0	1.695046E+0	1.629216E+0	1.634922E+0	1.638671E+0	1.673980E+0	1.616071E+0	1.658264E+0	1.627830E+0	1.653665E+0	1.651595E+0	1.657288E+0	1.652737E+0	1.669113E+0	1.597707E+0	1.596305E+0	1.641231E+0	1.680192E+0	1.627032E+0	1.668803E+0	1.641433E+0	1.623357E+0	1.622554E+0	1.557916E+0	1.620753E+0	1.652074E+0	1.623172E+0	1.583605E+0	1.642230E+0	1.635798E+0	1.640070E+0	1.616677E+0	1.675359E+0	1.697693E+0	1.688512E+0	1.666742E+0	1.651479E+0	1.660557E+0	1.634128E+0	1.610850E+0	1.583661E+0	1.701477E+0	1.623215E+0	1.627758E+0	1.630818E+0	1.636251E+0	1.694454E+0	1.588272E+0	1.642039E+0	1.644898E+0	1.599867E+0	1.582965E+0	1.583193E+0	1.624812E+0	1.590408E+0	1.617442E+0	1.619984E+0	1.629408E+0	1.659809E+0	1.604473E+0	1.600279E+0	1.637978E+0	1.619511E+0	1.671548E+0	1.578586E+0	1.656524E+0	1.674946E+0	1.553003E+0	1.620746E+0	1.596175E+0	1.588372E+0	1.636055E+0	1.578031E+0	1.641917E+0	1.584732E+0	1.558157E+0	1.624412E+0	1.608867E+0	1.643769E+0	1.566476E+0	1.573263E+0	1.612294E+0	1.586640E+0	1.621078E+0	1.627247E+0	1.655350E+0	1.580572E+0	1.676731E+0	1.635870E+0	1.631681E+0	1.583748E+0	1.569973E+0	1.534862E+0	1.624151E+0	1.627623E+0	1.581505E+0	1.601406E+0	1.571049E+0	1.680263E+0
5.348280E+2	2.084268E+0	2.088436E+0	2.042025E+0	1.939056E+0	2.057694E+0	1.993485E+0	1.974106E+0	2.073078E+0	2.057238E+0	2.027257E+0	2.070074E+0	2.007953E+0	2.064223E+0	2.039751E+0	1.937519E+0	2.022432E+0	1.964726E+0	2.049871E+0	2.059743E+0	2.050317E+0	2.025511E+0	2.065492E+0	1.979581E+0	2.047023E+0	2.119496E+0	2.055951E+0	2.041655E+0	2.038666E+0	2.075033E+0	2.077463E+0	2.045136E+0	2.045269E+0	2.024086E+0	2.008988E+0	1.995009E+0	2.085651E+0	2.122947E+0	2.044050E+0	1.968364E+0	1.989178E+0	2.093508E+0	2.072984E+0	1.981360E+0	2.051194E+0	1.987326E+0	2.053884E+0	2.066613E+0	2.027290E+0	1.992071E+0	2.025272E+0	2.020756E+0	2.030880E+0	1.976757E+0	2.006087E+0	2.019445E+0	2.015466E+0	2.052823E+0	2.064602E+0	2.034068E+0	2.031888E+0	1.976685E+0	2.029006E+0	2.014700E+0	1.981164E+0	2.016208E+0	1.938819E+0	2.076384E+0	2.006767E+0	1.978962E+0	2.035519E+0	1.955211E+0	1.966981E+0	2.073466E+0	2.019719E+0	1.952102E+0	2.040118E+0	2.010257E+0	1.997160E+0	1.964862E+0	2.067294E+0	2.028550E+0	2.069184E+0	2.002549E+0	1.985239E+0	2.066385E+0	2.061224E+0	1.939525E+0	1.971629E+0	1.991100E+0	2.006418E+0	2.018973E+0	1.994296E+0	1.982821E+0	1.975938E+0	1.949618E+0	1.951686E+0	2.024192E+0	1.995302E+0	2.004396E+0	1.983845E+0	2.043766E+0	2.003755E+0	2.004658E+0	2.003729E+0	2.068932E+0	1.977141E+0	1.895831E+0	2.015569E+0	2.003730E+0	1.983234E+0	1.986391E+0	2.016574E+0	2.036870E+0	1.972452E+0	1.942805E+0	1.989072E+0	1.977255E+0	2.034042E+0	1.928936E+0	1.950144E+0	1.983080E+0	1.957909E+0	1.934015E+0	1.993359E+0	1.959466E+0	1.902565E+0	1.949865E+0	2.019733E+0	1.987630E+0	2.040612E+0	1.985075E+0	2.051207E+0	1.968809E+0	1.958853E+0	1.955110E+0	1.970786E+0	2.040441E+0	1.995719E+0	1.915923E+0	1.986991E+0	1.994544E+0	1.936473E+0	1.983633E+0	1.953033E+0	1.999287E+0	1.962660E+0	1.945312E+0	1.966619E+0	1.990721E+0	1.969721E+0	1.971102E+0	1.952784E+0	1.943093E+0	1.912822E+0	1.964714E+0	2.037591E+0	2.006414E+0	1.908580E+0	1.950597E+0	1.984854E+0	2.016374E+0	1.969266E+0	1.966829E+0	1.907390E+0	1.982535E+0	1.958371E+0	1.918161E+0	1.919217E+0	2.030334E+0	2.030866E+0
5.349740E+2	2.271502E+0	2.150620E+0	2.141457E+0	2.202903E+0	2.231550E+0	2.201338E+0	2.079417E+0	2.193500E+0	2.185436E+0	2.261005E+0	2.155721E+0	2.215571E+0	2.239085E+0	2.204069E+0	2.158540E+0	2.202060E+0	2.150093E+0	2.217915E+0	2.231114E+0	2.187178E+0	2.138005E+0	2.179263E+0	2.123868E+0	2.175124E+0	2.211869E+0	2.189909E+0	2.108353E+0	2.117543E+0	2.187747E+0	2.219238E+0	2.142230E+0	2.137283E+0	2.177435E+0	2.187416E+0	2.138536E+0	2.216335E+0	2.218652E+0	2.134778E+0	2.127767E+0	2.084597E+0	2.202447E+0	2.136088E+0	2.161721E+0	2.164807E+0	2.156232E+0	2.146741E+0	2.123404E+0	2.138438E+0	2.141676E+0	2.122274E+0	2.102939E+0	2.136073E+0	2.182533E+0	2.170571E+0	2.126781E+0	2.178530E+0	2.137982E+0	2.164722E+0	2.202267E+0	2.177205E+0	2.112918E+0	2.135736E+0	2.133771E+0	2.116331E+0	2.220333E+0	2.062038E+0	2.190620E+0	2.183172E+0	2.099076E+0	2.128683E+0	2.104634E+0	2.127396E+0	2.120105E+0	2.137892E+0	2.159055E+0	2.165966E+0	2.173569E+0	2.159783E+0	2.069163E+0	2.076533E+0	2.162241E+0	2.205360E+0	2.132591E+0	2.155523E+0	2.285556E+0	2.206516E+0	2.171500E+0	2.114183E+0	2.145353E+0	2.115772E+0	2.117696E+0	2.157727E+0	2.150190E+0	2.105134E+0	2.051510E+0	2.141255E+0	2.200623E+0	2.062325E+0	2.100378E+0	2.075694E+0	2.126398E+0	2.052531E+0	2.179696E+0	2.155493E+0	2.226129E+0	2.104212E+0	2.174066E+0	2.145257E+0	2.167655E+0	2.157171E+0	2.081035E+0	2.080738E+0	2.112017E+0	2.095599E+0	2.029966E+0	2.173822E+0	2.096496E+0	2.142807E+0	2.105614E+0	2.154795E+0	2.194455E+0	2.127835E+0	2.107717E+0	2.056551E+0	2.132987E+0	2.146290E+0	2.086352E+0	2.068309E+0	2.124141E+0	2.095962E+0	2.080396E+0	2.096586E+0	2.173338E+0	2.062624E+0	2.111062E+0	2.088343E+0	2.164602E+0	2.156784E+0	2.115210E+0	2.198618E+0	2.076526E+0	2.140345E+0	2.138779E+0	2.126592E+0	2.186074E+0	2.090042E+0	2.042064E+0	1.968715E+0	2.027771E+0	2.141606E+0	2.178353E+0	2.090004E+0	2.171755E+0	2.067753E+0	2.113131E+0	2.115174E+0	2.153178E+0	1.999884E+0	2.059054E+0	2.104043E+0	2.048449E+0	2.052538E+0	2.061631E+0	2.017613E+0	2.071260E+0	2.122668E+0	2.067115E+0	2.061273E+0	2.105403E+0	2.015470E+0
5.351090E+2	2.161403E+0	2.134006E+0	2.043315E+0	2.126227E+0	2.153078E+0	2.177955E+0	2.087048E+0	2.112272E+0	2.104835E+0	2.130896E+0	2.117286E+0	2.093226E+0	2.130458E+0	2.195515E+0	2.126644E+0	2.099586E+0	2.106368E+0	2.148664E+0	2.101737E+0	2.160106E+0	2.103296E+0	2.073674E+0	2.128714E+0	2.131729E+0	2.127095E+0	2.077198E+0	2.024440E+0	2.043244E+0	2.066441E+0	2.094350E+0	2.091303E+0	2.073060E+0	2.095391E+0	2.094548E+0	2.042609E+0	2.060995E+0	2.107752E+0	2.049671E+0	2.050333E+0	2.063430E+0	2.072042E+0	2.109537E+0	2.008578E+0	2.075384E+0	2.135437E+0	1.991874E+0	2.049100E+0	2.036769E+0	2.081792E+0	2.134969E+0	2.016429E+0	2.150430E+0	2.088769E+0	2.089594E+0	2.058408E+0	2.143615E+0	2.105260E+0	2.110586E+0	2.072339E+0	2.063204E+0	2.053352E+0	2.114001E+0	2.125746E+0	2.015549E+0	2.148505E+0	2.073760E+0	2.103306E+0	2.067117E+0	2.040239E+0	2.102596E+0	2.109534E+0	2.059191E+0	2.097224E+0	2.044159E+0	2.033760E+0	2.108838E+0	2.106301E+0	2.105319E+0	2.063336E+0	2.065234E+0	2.057215E+0	2.060427E+0	2.122698E+0	2.091901E+0	2.103192E+0	2.066054E+0	1.997482E+0	2.070118E+0	2.069552E+0	2.069426E+0	2.030434E+0	2.138973E+0	2.041176E+0	2.053729E+0	2.033384E+0	2.070147E+0	2.130692E+0	2.062019E+0	2.047202E+0	2.084034E+0	2.110862E+0	2.011096E+0	2.088108E+0	2.095270E+0	2.087991E+0	2.050142E+0	2.055287E+0	2.077766E+0	2.076144E+0	2.062329E+0	2.030644E+0	2.015390E+0	2.061091E+0	2.063074E+0	2.031307E+0	2.111307E+0	2.107885E+0	2.111035E+0	1.967771E+0	2.048934E+0	2.118215E+0	2.014494E+0	2.116914E+0	1.985040E+0	2.080699E+0	2.047424E+0	1.990483E+0	1.971458E+0	2.048907E+0	2.030978E+0	2.023678E+0	2.028010E+0	2.083028E+0	2.034722E+0	1.982629E+0	2.030538E+0	2.129084E+0	2.083799E+0	1.940070E+0	2.031484E+0	2.012790E+0	2.003869E+0	2.040637E+0	2.079712E+0	2.040954E+0	2.044084E+0	1.937803E+0	2.066477E+0	2.027114E+0	2.078381E+0	1.991545E+0	2.000842E+0	1.967072E+0	1.970614E+0	2.037035E+0	2.045801E+0	2.082162E+0	1.980715E+0	2.013551E+0	2.067771E+0	2.004552E+0	2.074191E+0	2.036704E+0	1.913973E+0	2.022351E+0	2.019328E+0	1.970148E+0	2.128540E+0	2.065804E+0	2.095152E+0
5.352600E+2	1.915756E+0	1.956609E+0	1.880522E+0	1.905052E+0	1.854208E+0	1.901794E+0	1.862586E+0	1.832820E+0	1.820419E+0	1.927427E+0	1.837184E+0	1.868898E+0	1.899930E+0	1.810785E+0	1.799696E+0	1.893774E+0	1.834303E+0	1.966222E+0	1.833692E+0	1.897667E+0	1.772919E+0	1.872269E+0	1.823607E+0	1.885756E+0	1.776277E+0	1.744615E+0	1.809060E+0	1.761862E+0	1.791283E+0	1.833631E+0	1.830962E+0	1.822478E+0	1.793544E+0	1.808211E+0	1.811588E+0	1.808928E+0	1.839420E+0	1.787710E+0	1.795424E+0	1.755596E+0	1.853970E+0	1.883848E+0	1.803703E+0	1.802944E+0	1.804317E+0	1.907666E+0	1.808429E+0	1.788875E+0	1.743380E+0	1.821079E+0	1.831236E+0	1.830266E+0	1.764456E+0	1.826489E+0	1.836886E+0	1.835147E+0	1.883204E+0	1.851204E+0	1.879928E+0	1.860193E+0	1.801942E+0	1.797758E+0	1.836526E+0	1.760799E+0	1.874665E+0	1.814909E+0	1.823474E+0	1.826783E+0	1.809853E+0	1.835439E+0	1.844768E+0	1.825022E+0	1.847662E+0	1.829977E+0	1.801349E+0	1.808722E+0	1.847144E+0	1.823337E+0	1.740797E+0	1.864024E+0	1.856849E+0	1.898436E+0	1.795187E+0	1.816987E+0	1.789087E+0	1.854398E+0	1.795965E+0	1.854339E+0	1.805320E+0	1.779924E+0	1.822468E+0	1.846745E+0	1.772228E+0	1.779800E+0	1.801275E+0	1.814774E+0	1.829051E+0	1.806557E+0	1.812905E+0	1.783752E+0	1.774942E+0	1.783548E+0	1.720370E+0	1.830669E+0	1.923339E+0	1.816078E+0	1.815041E+0	1.850403E+0	1.826055E+0	1.818043E+0	1.750641E+0	1.748056E+0	1.815188E+0	1.799629E+0	1.817021E+0	1.830829E+0	1.771268E+0	1.888536E+0	1.747386E+0	1.759706E+0	1.839584E+0	1.826969E+0	1.777452E+0	1.777523E+0	1.819350E+0	1.867133E+0	1.739897E+0	1.784901E+0	1.795966E+0	1.824212E+0	1.766911E+0	1.829261E+0	1.825864E+0	1.722026E+0	1.797691E+0	1.788220E+0	1.918415E+0	1.871150E+0	1.754369E+0	1.840083E+0	1.849639E+0	1.824703E+0	1.823785E+0	1.815287E+0	1.852546E+0	1.795982E+0	1.747104E+0	1.813735E+0	1.764309E+0	1.841584E+0	1.798120E+0	1.693815E+0	1.839114E+0	1.822880E+0	1.753358E+0	1.732688E+0	1.805783E+0	1.779770E+0	1.739995E+0	1.816229E+0	1.799934E+0	1.769072E+0	1.795497E+0	1.770021E+0	1.802922E+0	1.731530E+0	1.772940E+0	1.815249E+0	1.782435E+0	1.842482E+0
5.354110E+2	1.647037E+0	1.648494E+0	1.570226E+0	1.615497E+0	1.581523E+0	1.587202E+0	1.545062E+0	1.672915E+0	1.569052E+0	1.631083E+0	1.536995E+0	1.600481E+0	1.614814E+0	1.579117E+0	1.591790E+0	1.645757E+0	1.609919E+0	1.694659E+0	1.630949E+0	1.605313E+0	1.519931E+0	1.622560E+0	1.553866E+0	1.592088E+0	1.633174E+0	1.518163E+0	1.559072E+0	1.570068E+0	1.627517E+0	1.608809E+0	1.566015E+0	1.586949E+0	1.545433E+0	1.626285E+0	1.547510E+0	1.633929E+0	1.555480E+0	1.532625E+0	1.548847E+0	1.560000E+0	1.600614E+0	1.568515E+0	1.509011E+0	1.578788E+0	1.599466E+0	1.593078E+0	1.611354E+0	1.557095E+0	1.534706E+0	1.582906E+0	1.609900E+0	1.608860E+0	1.549427E+0	1.570335E+0	1.607482E+0	1.610072E+0	1.555884E+0	1.588087E+0	1.562542E+0	1.620579E+0	1.528089E+0	1.598353E+0	1.560456E+0	1.560993E+0	1.587269E+0	1.560833E+0	1.615148E+0	1.552042E+0	1.516923E+0	1.580256E+0	1.564458E+0	1.571243E+0	1.557288E+0	1.531748E+0	1.598964E+0	1.545937E+0	1.539552E+0	1.546763E+0	1.521979E+0	1.545437E+0	1.624278E+0	1.568282E+0	1.630544E+0	1.596365E+0	1.565295E+0	1.622609E+0	1.544497E+0	1.576079E+0	1.546470E+0	1.569725E+0	1.568896E+0	1.599723E+0	1.590018E+0	1.597176E+0	1.549982E+0	1.594778E+0	1.559084E+0	1.609350E+0	1.602896E+0	1.551673E+0	1.569144E+0	1.521646E+0	1.591444E+0	1.589308E+0	1.594234E+0	1.581841E+0	1.585391E+0	1.553718E+0	1.612847E+0	1.614818E+0	1.503157E+0	1.595232E+0	1.570526E+0	1.564198E+0	1.542551E+0	1.593384E+0	1.629705E+0	1.523219E+0	1.535227E+0	1.546210E+0	1.583572E+0	1.559013E+0	1.507113E+0	1.616571E+0	1.572780E+0	1.620148E+0	1.557998E+0	1.518103E+0	1.569508E+0	1.617488E+0	1.570026E+0	1.604984E+0	1.565941E+0	1.561379E+0	1.596934E+0	1.560140E+0	1.518505E+0	1.558133E+0	1.551493E+0	1.540429E+0	1.608024E+0	1.579737E+0	1.537520E+0	1.632086E+0	1.584801E+0	1.585360E+0	1.534177E+0	1.530551E+0	1.558295E+0	1.593104E+0	1.502218E+0	1.594094E+0	1.597984E+0	1.562249E+0	1.567361E+0	1.596791E+0	1.583256E+0	1.512054E+0	1.542400E+0	1.543039E+0	1.614749E+0	1.536703E+0	1.603361E+0	1.533517E+0	1.579542E+0	1.529251E+0	1.560388E+0	1.602328E+0	1.601165E+0	1.596425E+0
5.355630E+2	1.406598E+0	1.301483E+0	1.375611E+0	1.298695E+0	1.316920E+0	1.349000E+0	1.280276E+0	1.330122E+0	1.346917E+0	1.366146E+0	1.317814E+0	1.324280E+0	1.290550E+0	1.339232E+0	1.301489E+0	1.327670E+0	1.338547E+0	1.347925E+0	1.343127E+0	1.315494E+0	1.290350E+0	1.360318E+0	1.301077E+0	1.311384E+0	1.284825E+0	1.300568E+0	1.257050E+0	1.269961E+0	1.247894E+0	1.309108E+0	1.265585E+0	1.267397E+0	1.363744E+0	1.323913E+0	1.327855E+0	1.280562E+0	1.261199E+0	1.322005E+0	1.283025E+0	1.303905E+0	1.324544E+0	1.292812E+0	1.330909E+0	1.290184E+0	1.327231E+0	1.266938E+0	1.305869E+0	1.319198E+0	1.297320E+0	1.349267E+0	1.270371E+0	1.319852E+0	1.281617E+0	1.313191E+0	1.300955E+0	1.332744E+0	1.318897E+0	1.337107E+0	1.280422E+0	1.313120E+0	1.292015E+0	1.306087E+0	1.317718E+0	1.322020E+0	1.363377E+0	1.292795E+0	1.377305E+0	1.279526E+0	1.324033E+0	1.379105E+0	1.338334E+0	1.269208E+0	1.291726E+0	1.298424E+0	1.352129E+0	1.222225E+0	1.330293E+0	1.327546E+0	1.272983E+0	1.308379E+0	1.324300E+0	1.365481E+0	1.395023E+0	1.358626E+0	1.325335E+0	1.329375E+0	1.239606E+0	1.342455E+0	1.306491E+0	1.279654E+0	1.334696E+0	1.346761E+0	1.348405E+0	1.346945E+0	1.284614E+0	1.295577E+0	1.299844E+0	1.322739E+0	1.365377E+0	1.328267E+0	1.284368E+0	1.347333E+0	1.290891E+0	1.325388E+0	1.370239E+0	1.362070E+0	1.348801E+0	1.314184E+0	1.349404E+0	1.303023E+0	1.281019E+0	1.321877E+0	1.320177E+0	1.336507E+0	1.280246E+0	1.354612E+0	1.293820E+0	1.325856E+0	1.281197E+0	1.328030E+0	1.362994E+0	1.347775E+0	1.290311E+0	1.299500E+0	1.309271E+0	1.332594E+0	1.302131E+0	1.290143E+0	1.308967E+0	1.379079E+0	1.318966E+0	1.264029E+0	1.280584E+0	1.322618E+0	1.335817E+0	1.257787E+0	1.355143E+0	1.293645E+0	1.311192E+0	1.291384E+0	1.305763E+0	1.279728E+0	1.341231E+0	1.276173E+0	1.324916E+0	1.269334E+0	1.330857E+0	1.310538E+0	1.281875E+0	1.266485E+0	1.287739E+0	1.298808E+0	1.323294E+0	1.275211E+0	1.302426E+0	1.289399E+0	1.294550E+0	1.278231E+0	1.336693E+0	1.280246E+0	1.298541E+0	1.282247E+0	1.347414E+0	1.334621E+0	1.367109E+0	1.337949E+0	1.249768E+0	1.322445E+0	1.283882E+0	1.288472E+0
5.357190E+2	1.188343E+0	1.158042E+0	1.144538E+0	1.193305E+0	1.171747E+0	1.183135E+0	1.164164E+0	1.162833E+0	1.165941E+0	1.213374E+0	1.122828E+0	1.119653E+0	1.162131E+0	1.176423E+0	1.157000E+0	1.138398E+0	1.121511E+0	1.182189E+0	1.138975E+0	1.181935E+0	1.140364E+0	1.136533E+0	1.154357E+0	1.174230E+0	1.180351E+0	1.120707E+0	1.103388E+0	1.148012E+0	1.128863E+0	1.176084E+0	1.163323E+0	1.169373E+0	1.125630E+0	1.195615E+0	1.144165E+0	1.151556E+0	1.155272E+0	1.125499E+0	1.144320E+0	1.180524E+0	1.159266E+0	1.129894E+0	1.162823E+0	1.180059E+0	1.124059E+0	1.172013E+0	1.133433E+0	1.142037E+0	1.097301E+0	1.162152E+0	1.169503E+0	1.167595E+0	1.121527E+0	1.148567E+0	1.127976E+0	1.153891E+0	1.182258E+0	1.158245E+0	1.180322E+0	1.134076E+0	1.150728E+0	1.164362E+0	1.187244E+0	1.127216E+0	1.154784E+0	1.127768E+0	1.221344E+0	1.154694E+0	1.127862E+0	1.173897E+0	1.159233E+0	1.171668E+0	1.195805E+0	1.154412E+0	1.200868E+0	1.130737E+0	1.116239E+0	1.134184E+0	1.117012E+0	1.140193E+0	1.148971E+0	1.159653E+0	1.164259E+0	1.154648E+0	1.136104E+0	1.166916E+0	1.184172E+0	1.084274E+0	1.154663E+0	1.183884E+0	1.202283E+0	1.152991E+0	1.135834E+0	1.153779E+0	1.115012E+0	1.149429E+0	1.140101E+0	1.159865E+0	1.145270E+0	1.126360E+0	1.154614E+0	1.124797E+0	1.192360E+0	1.157454E+0	1.138737E+0	1.175678E+0	1.116002E+0	1.103247E+0	1.225989E+0	1.149424E+0	1.091134E+0	1.153106E+0	1.135529E+0	1.191504E+0	1.119017E+0	1.164282E+0	1.150109E+0	1.202401E+0	1.122825E+0	1.138093E+0	1.123633E+0	1.178453E+0	1.113650E+0	1.131234E+0	1.131980E+0	1.149791E+0	1.152206E+0	1.116160E+0	1.176011E+0	1.134374E+0	1.126387E+0	1.109504E+0	1.149861E+0	1.163621E+0	1.140959E+0	1.171893E+0	1.163572E+0	1.120501E+0	1.116413E+0	1.134312E+0	1.168093E+0	1.096557E+0	1.203077E+0	1.156532E+0	1.134227E+0	1.134656E+0	1.147230E+0	1.110720E+0	1.136014E+0	1.189132E+0	1.166255E+0	1.194360E+0	1.102745E+0	1.176567E+0	1.145963E+0	1.116773E+0	1.154443E+0	1.122969E+0	1.123371E+0	1.151782E+0	1.122960E+0	1.135474E+0	1.141822E+0	1.133186E+0	1.130731E+0	1.160976E+0	1.126418E+0	1.170148E+0	1.187193E+0	1.194813E+0
5.358650E+2	1.036684E+0	9.950152E-1	9.564789E-1	9.546964E-1	9.959215E-1	1.000389E+0	9.837212E-1	1.001938E+0	9.544385E-1	1.067129E+0	1.004842E+0	1.004481E+0	9.421802E-1	1.017688E+0	9.364657E-1	1.000896E+0	9.932420E-1	1.034718E+0	9.950755E-1	9.689479E-1	9.943655E-1	9.519379E-1	9.700977E-1	1.000455E+0	9.817521E-1	9.969072E-1	9.443884E-1	1.005400E+0	1.001292E+0	9.999990E-1	9.667758E-1	9.785478E-1	9.637333E-1	1.013614E+0	9.808765E-1	9.991458E-1	9.893053E-1	1.032250E+0	9.565893E-1	9.240540E-1	9.858472E-1	9.772126E-1	9.808024E-1	1.004591E+0	9.709201E-1	1.015373E+0	1.005017E+0	9.588982E-1	9.699459E-1	1.008186E+0	1.026206E+0	9.431071E-1	9.561922E-1	9.841506E-1	9.508264E-1	9.705185E-1	1.012085E+0	1.007997E+0	1.028726E+0	1.023409E+0	9.944152E-1	9.938117E-1	1.034382E+0	9.793913E-1	9.891146E-1	1.002404E+0	1.049499E+0	1.024904E+0	1.003505E+0	1.013740E+0	1.045907E+0	9.801946E-1	9.754541E-1	9.599155E-1	1.018233E+0	9.472479E-1	9.491683E-1	1.038095E+0	9.720836E-1	9.868907E-1	9.745149E-1	1.017165E+0	9.628790E-1	9.602638E-1	9.931566E-1	9.842698E-1	9.936032E-1	9.845670E-1	9.687876E-1	1.011207E+0	9.998485E-1	9.705805E-1	9.607413E-1	9.845183E-1	9.730413E-1	9.703358E-1	9.883793E-1	9.668860E-1	1.033926E+0	9.988965E-1	9.775622E-1	9.978810E-1	9.508619E-1	1.013124E+0	1.024538E+0	9.948543E-1	9.932175E-1	9.688443E-1	9.812355E-1	1.002882E+0	9.859781E-1	9.689691E-1	1.000492E+0	1.018877E+0	9.422987E-1	1.022287E+0	9.744709E-1	1.007560E+0	9.749917E-1	9.859985E-1	1.003411E+0	9.852815E-1	9.725148E-1	1.000214E+0	9.486215E-1	1.034309E+0	1.000072E+0	9.557630E-1	9.708709E-1	9.967584E-1	1.074427E+0	1.050419E+0	1.035322E+0	9.999406E-1	9.675395E-1	9.771442E-1	1.038090E+0	1.007183E+0	9.765731E-1	1.021384E+0	9.672632E-1	9.614266E-1	1.023025E+0	1.013864E+0	1.006486E+0	1.008787E+0	9.868219E-1	9.911254E-1	9.885965E-1	9.915601E-1	9.919204E-1	9.882105E-1	1.029312E+0	9.670049E-1	9.910894E-1	1.049440E+0	9.693959E-1	9.829388E-1	9.677468E-1	9.621832E-1	9.908279E-1	9.932582E-1	9.846608E-1	9.804531E-1	1.069840E+0	9.671425E-1	9.934299E-1	1.021612E+0	9.866477E-1	1.013902E+0
5.360120E+2	8.400969E-1	8.313579E-1	8.208961E-1	8.569387E-1	8.351116E-1	8.664800E-1	8.105607E-1	7.644448E-1	8.065647E-1	8.323170E-1	7.922976E-1	8.110079E-1	8.326586E-1	8.387504E-1	8.392407E-1	8.347605E-1	8.386780E-1	8.473998E-1	8.407269E-1	8.835541E-1	8.341589E-1	8.589007E-1	7.997907E-1	8.297355E-1	8.624440E-1	8.644791E-1	8.127777E-1	8.308647E-1	8.528675E-1	8.321318E-1	8.468285E-1	8.403962E-1	8.336630E-1	8.341569E-1	8.280112E-1	8.263936E-1	8.549203E-1	8.298741E-1	8.027118E-1	8.261659E-1	8.455794E-1	8.492171E-1	8.320497E-1	8.563686E-1	8.608813E-1	8.087342E-1	8.390509E-1	8.107446E-1	8.055624E-1	8.222057E-1	7.775251E-1	7.887200E-1	8.094923E-1	8.529012E-1	8.559206E-1	8.457732E-1	8.375048E-1	8.539340E-1	8.268421E-1	8.510950E-1	8.259253E-1	8.535459E-1	8.697134E-1	8.250054E-1	8.493130E-1	8.183042E-1	8.380200E-1	8.513203E-1	8.082659E-1	8.363311E-1	8.283124E-1	8.502069E-1	8.180066E-1	8.002495E-1	8.896468E-1	8.283628E-1	8.348259E-1	8.780934E-1	8.221785E-1	8.334911E-1	8.084724E-1	8.577075E-1	8.754559E-1	8.046757E-1	8.568787E-1	8.850740E-1	7.694153E-1	8.486543E-1	8.382929E-1	8.634008E-1	7.906620E-1	8.644969E-1	8.342557E-1	8.162699E-1	8.365254E-1	8.429038E-1	8.653195E-1	8.272573E-1	8.484434E-1	8.142884E-1	8.449580E-1	8.395340E-1	8.143229E-1	8.166621E-1	8.596000E-1	8.090554E-1	8.412963E-1	8.530073E-1	8.611993E-1	8.666344E-1	7.927765E-1	8.335471E-1	8.359838E-1	8.622888E-1	8.130157E-1	8.493572E-1	8.254545E-1	8.321446E-1	8.316658E-1	8.292092E-1	8.377823E-1	8.626784E-1	8.628732E-1	8.243702E-1	8.461105E-1	8.618070E-1	8.683112E-1	8.356003E-1	8.161923E-1	8.626171E-1	8.284171E-1	8.382058E-1	8.433071E-1	8.457510E-1	8.362833E-1	8.178524E-1	7.977653E-1	8.439966E-1	8.525664E-1	8.648486E-1	8.337278E-1	8.487202E-1	8.611644E-1	8.590177E-1	8.266333E-1	8.434853E-1	8.457325E-1	8.327157E-1	8.170442E-1	8.694795E-1	8.648880E-1	8.390161E-1	7.883816E-1	8.480242E-1	8.108424E-1	8.584956E-1	8.657293E-1	8.389499E-1	8.388330E-1	8.500927E-1	8.680223E-1	8.035089E-1	8.938110E-1	8.179482E-1	8.239037E-1	8.574517E-1	8.360532E-1	8.675233E-1	8.122790E-1	8.341945E-1
5.362730E+2	6.911611E-1	5.919767E-1	6.306362E-1	6.106154E-1	6.112732E-1	6.065354E-1	6.396998E-1	6.232658E-1	6.439524E-1	6.195035E-1	5.897513E-1	6.221150E-1	6.668039E-1	6.209159E-1	6.348220E-1	6.343641E-1	5.998603E-1	6.577380E-1	6.190838E-1	6.349281E-1	6.146780E-1	6.040510E-1	6.119419E-1	6.069314E-1	6.772212E-1	6.605221E-1	6.443932E-1	6.341276E-1	6.555752E-1	6.634512E-1	6.546808E-1	6.131664E-1	6.173904E-1	6.471271E-1	5.972519E-1	6.484311E-1	6.010989E-1	6.127912E-1	5.988978E-1	6.018679E-1	5.921865E-1	6.733285E-1	6.213046E-1	6.223991E-1	6.396794E-1	6.405888E-1	6.371359E-1	5.891366E-1	5.877814E-1	6.625720E-1	6.512655E-1	6.363296E-1	6.244974E-1	6.449811E-1	6.075687E-1	6.560014E-1	6.328637E-1	6.086854E-1	6.398049E-1	6.090715E-1	6.329926E-1	6.518405E-1	6.257994E-1	6.232066E-1	6.801462E-1	6.291081E-1	6.449963E-1	5.780723E-1	6.207190E-1	6.444445E-1	5.902755E-1	6.243211E-1	6.703212E-1	6.092166E-1	6.429071E-1	6.560098E-1	6.510599E-1	6.472918E-1	6.152647E-1	6.302465E-1	6.061536E-1	6.668153E-1	6.660679E-1	6.231545E-1	6.248103E-1	6.310359E-1	6.078026E-1	6.266227E-1	6.383422E-1	6.436760E-1	6.073940E-1	6.344055E-1	6.268886E-1	6.546291E-1	6.024237E-1	6.091038E-1	6.152523E-1	6.365334E-1	5.940630E-1	6.447654E-1	6.471547E-1	6.096669E-1	6.191986E-1	6.567105E-1	6.352558E-1	6.520332E-1	6.474233E-1	6.754732E-1	6.276643E-1	6.482520E-1	6.253042E-1	6.545784E-1	5.726356E-1	6.040981E-1	6.026927E-1	6.315505E-1	6.402725E-1	6.763248E-1	6.234451E-1	6.512222E-1	6.498489E-1	6.289742E-1	6.047520E-1	6.761459E-1	6.269626E-1	6.208376E-1	6.168714E-1	6.106728E-1	6.480218E-1	6.426152E-1	6.352914E-1	6.797389E-1	6.436284E-1	6.690359E-1	6.412982E-1	6.227010E-1	6.549573E-1	6.237445E-1	6.372743E-1	6.169193E-1	6.657815E-1	6.480511E-1	6.511433E-1	6.472585E-1	6.277273E-1	6.236388E-1	6.563838E-1	6.750655E-1	6.276643E-1	6.600942E-1	6.308726E-1	6.586618E-1	6.381209E-1	6.388616E-1	6.278062E-1	6.411029E-1	6.317521E-1	6.372950E-1	6.164026E-1	6.514149E-1	6.365930E-1	6.165100E-1	6.301727E-1	6.312668E-1	6.295347E-1	6.301949E-1	5.901996E-1	6.899756E-1	6.256414E-1	6.869522E-1
5.365140E+2	5.508328E-1	5.320945E-1	5.499580E-1	5.392880E-1	5.422584E-1	5.357086E-1	5.202761E-1	5.319042E-1	5.632056E-1	5.213066E-1	5.877466E-1	5.796354E-1	5.369643E-1	5.512677E-1	5.552465E-1	5.642901E-1	5.412304E-1	5.394764E-1	5.563278E-1	5.540402E-1	5.532677E-1	5.489030E-1	5.239482E-1	5.571409E-1	5.541588E-1	5.698019E-1	5.420770E-1	5.650063E-1	5.583164E-1	5.507353E-1	5.285403E-1	5.758009E-1	5.519006E-1	5.411192E-1	5.605635E-1	5.180445E-1	5.472089E-1	5.716685E-1	5.544000E-1	5.226959E-1	5.475854E-1	5.289421E-1	5.555484E-1	5.323024E-1	5.772554E-1	5.390108E-1	5.785496E-1	5.450456E-1	5.609665E-1	5.729343E-1	5.642805E-1	5.746154E-1	5.546180E-1	5.278647E-1	5.416377E-1	5.641203E-1	5.476374E-1	5.831219E-1	5.530192E-1	5.754268E-1	5.564170E-1	5.448092E-1	5.376655E-1	5.900424E-1	5.909069E-1	5.355091E-1	5.325512E-1	5.431180E-1	5.249046E-1	5.815670E-1	5.486936E-1	5.528652E-1	5.480946E-1	5.509274E-1	5.182311E-1	5.335087E-1	5.657800E-1	5.298920E-1	5.492266E-1	5.843420E-1	5.320304E-1	5.692029E-1	5.933091E-1	5.554647E-1	5.468043E-1	5.645287E-1	5.240819E-1	5.639018E-1	5.532726E-1	5.620713E-1	5.740182E-1	5.705323E-1	5.361139E-1	5.520710E-1	5.556802E-1	5.466819E-1	5.420706E-1	5.801511E-1	5.430970E-1	5.270396E-1	5.446249E-1	5.521668E-1	5.556364E-1	5.215369E-1	5.588793E-1	5.639870E-1	5.411856E-1	5.466292E-1	5.576830E-1	5.391775E-1	5.366231E-1	5.466771E-1	5.430220E-1	5.615092E-1	5.309490E-1	5.614244E-1	5.263414E-1	5.840649E-1	5.344853E-1	5.394434E-1	5.564946E-1	5.149454E-1	5.414180E-1	5.564770E-1	5.064867E-1	5.407121E-1	5.467206E-1	5.512766E-1	5.278707E-1	5.948740E-1	5.245499E-1	5.557047E-1	5.693483E-1	5.857186E-1	5.624710E-1	5.430623E-1	5.769822E-1	5.310530E-1	5.329601E-1	5.601160E-1	5.328028E-1	5.285318E-1	5.633772E-1	5.357697E-1	5.556673E-1	5.744013E-1	5.384594E-1	5.429911E-1	5.586586E-1	5.452618E-1	5.247936E-1	5.562530E-1	5.511947E-1	5.404330E-1	5.533860E-1	5.704489E-1	5.633876E-1	5.425719E-1	5.545618E-1	5.404700E-1	5.585874E-1	5.478582E-1	5.874374E-1	5.675538E-1	5.737585E-1	5.514590E-1	5.281157E-1	5.736837E-1	5.642868E-1	6.217608E-1
5.367710E+2	5.499790E-1	5.084473E-1	5.302049E-1	5.391808E-1	4.882840E-1	5.566650E-1	5.300620E-1	5.415256E-1	5.017560E-1	5.475236E-1	5.564485E-1	5.375149E-1	5.544961E-1	5.745809E-1	5.505789E-1	5.399897E-1	5.526264E-1	5.314264E-1	5.417056E-1	5.084094E-1	5.177645E-1	5.066434E-1	5.520709E-1	5.357184E-1	5.513173E-1	5.495969E-1	5.331058E-1	5.561468E-1	5.538219E-1	5.062747E-1	5.684629E-1	5.600622E-1	5.436525E-1	5.533308E-1	5.619769E-1	5.758724E-1	5.630199E-1	5.376991E-1	5.432108E-1	5.517176E-1	5.765023E-1	5.768082E-1	5.615647E-1	5.187334E-1	5.949442E-1	5.826685E-1	5.250615E-1	5.438737E-1	5.483766E-1	5.374861E-1	5.243477E-1	5.567283E-1	5.343804E-1	5.428968E-1	5.766153E-1	5.466934E-1	5.426724E-1	5.647959E-1	5.527981E-1	5.675334E-1	5.833833E-1	5.552340E-1	5.925046E-1	5.317012E-1	6.015133E-1	5.225071E-1	5.514279E-1	5.335978E-1	5.154556E-1	5.473748E-1	5.549800E-1	5.293988E-1	5.433915E-1	5.687267E-1	5.546816E-1	5.442523E-1	5.634941E-1	5.476874E-1	5.349467E-1	5.334026E-1	5.574754E-1	5.138811E-1	5.566927E-1	5.333828E-1	5.551419E-1	5.350927E-1	5.687412E-1	5.757617E-1	5.183789E-1	5.124267E-1	5.516159E-1	5.262573E-1	5.100283E-1	5.636882E-1	4.906187E-1	5.674764E-1	5.342920E-1	5.772422E-1	5.540542E-1	5.353386E-1	5.171414E-1	5.654933E-1	5.542765E-1	5.305898E-1	5.571774E-1	5.407183E-1	5.757381E-1	5.288551E-1	5.854930E-1	5.503930E-1	5.561245E-1	5.300992E-1	5.367717E-1	5.237555E-1	5.140310E-1	5.482471E-1	5.315317E-1	5.498702E-1	5.531133E-1	5.374177E-1	5.194882E-1	5.437712E-1	5.242900E-1	5.561662E-1	5.441572E-1	5.474060E-1	5.685558E-1	5.553295E-1	5.528468E-1	5.890920E-1	5.560923E-1	5.863822E-1	5.853204E-1	5.770070E-1	5.570387E-1	5.247806E-1	5.422431E-1	5.598860E-1	5.824156E-1	5.285898E-1	5.332787E-1	5.580017E-1	5.544192E-1	5.422752E-1	5.512784E-1	5.082069E-1	5.458006E-1	5.518620E-1	5.070254E-1	5.347428E-1	5.435903E-1	5.363025E-1	5.680123E-1	5.676552E-1	5.534631E-1	5.554332E-1	5.314615E-1	5.199210E-1	5.535465E-1	5.679545E-1	5.477837E-1	5.406581E-1	5.460686E-1	5.405421E-1	5.648646E-1	5.534711E-1	5.280802E-1	5.752463E-1	5.358547E-1	5.578666E-1
5.370010E+2	5.651854E-1	5.497356E-1	5.484469E-1	5.734396E-1	5.515503E-1	5.625970E-1	5.729431E-1	5.729437E-1	5.308392E-1	5.287452E-1	5.478045E-1	5.825748E-1	5.749869E-1	5.660788E-1	5.530081E-1	5.658038E-1	5.614512E-1	5.820820E-1	5.483910E-1	5.482842E-1	5.458283E-1	5.439116E-1	5.341355E-1	5.630283E-1	5.814210E-1	5.961260E-1	5.621067E-1	5.767806E-1	5.683091E-1	5.804924E-1	6.004284E-1	5.694182E-1	5.794473E-1	5.996845E-1	5.552320E-1	5.784586E-1	5.551773E-1	5.793039E-1	5.834328E-1	5.830529E-1	5.707059E-1	6.503587E-1	5.812696E-1	5.378923E-1	5.731996E-1	5.960060E-1	5.513803E-1	5.976226E-1	5.613079E-1	5.735558E-1	5.567259E-1	5.910157E-1	5.537043E-1	5.527384E-1	5.676597E-1	5.585013E-1	5.824407E-1	5.959364E-1	5.772022E-1	5.359903E-1	5.827683E-1	5.177104E-1	6.197194E-1	5.598488E-1	5.648158E-1	5.369889E-1	5.898353E-1	5.699468E-1	5.561861E-1	5.901948E-1	5.651921E-1	5.627215E-1	5.667852E-1	5.849949E-1	5.709474E-1	5.438711E-1	5.829505E-1	5.827062E-1	5.319782E-1	5.691690E-1	5.829593E-1	5.587962E-1	5.712910E-1	5.780660E-1	5.714009E-1	5.835052E-1	5.644871E-1	5.902675E-1	5.948927E-1	5.394216E-1	5.748721E-1	5.794772E-1	5.931519E-1	5.882310E-1	5.645407E-1	5.219891E-1	5.619171E-1	6.059234E-1	5.636126E-1	5.718080E-1	5.669537E-1	5.632085E-1	5.925094E-1	6.201507E-1	5.454459E-1	5.606457E-1	5.601715E-1	5.770669E-1	5.424259E-1	5.850628E-1	5.408181E-1	5.645208E-1	5.606922E-1	5.534082E-1	5.828868E-1	5.887327E-1	5.910411E-1	5.628438E-1	5.847093E-1	5.765249E-1	5.755023E-1	5.863504E-1	5.176695E-1	5.863631E-1	6.096577E-1	5.655139E-1	5.775336E-1	5.486769E-1	5.713445E-1	5.818670E-1	5.509006E-1	5.682908E-1	6.028600E-1	5.496978E-1	5.756629E-1	5.658853E-1	5.626960E-1	5.819497E-1	5.566355E-1	5.718391E-1	5.365795E-1	5.668499E-1	5.761875E-1	5.637292E-1	5.659799E-1	5.616410E-1	5.491167E-1	5.920053E-1	5.722302E-1	5.392328E-1	5.588380E-1	5.607035E-1	5.740358E-1	5.549629E-1	5.553910E-1	5.769473E-1	5.661098E-1	5.660444E-1	5.454587E-1	5.931878E-1	5.797580E-1	5.328549E-1	5.541088E-1	5.789767E-1	5.570741E-1	5.415574E-1	5.636579E-1	5.761579E-1	5.636565E-1	5.994052E-1
5.372640E+2	6.890484E-1	6.608391E-1	6.590145E-1	6.498025E-1	6.530668E-1	6.309496E-1	6.373075E-1	6.499448E-1	6.715759E-1	6.647799E-1	6.829026E-1	6.821597E-1	6.709686E-1	6.450936E-1	6.395522E-1	6.666193E-1	6.750391E-1	6.580571E-1	6.315319E-1	6.634204E-1	6.764890E-1	6.490915E-1	6.294227E-1	6.619763E-1	7.241769E-1	6.536362E-1	6.712604E-1	6.636409E-1	6.995737E-1	6.787738E-1	6.682058E-1	6.446838E-1	6.603079E-1	6.923460E-1	6.726707E-1	6.579323E-1	6.963818E-1	6.751292E-1	6.327890E-1	6.475770E-1	6.847085E-1	6.731557E-1	6.625439E-1	6.714358E-1	6.811216E-1	6.627995E-1	6.644977E-1	6.646088E-1	6.148995E-1	7.004964E-1	6.684724E-1	6.500621E-1	6.956776E-1	6.462193E-1	6.299861E-1	6.647364E-1	6.685657E-1	6.502440E-1	6.467495E-1	6.737881E-1	6.916575E-1	6.740814E-1	6.991667E-1	6.724303E-1	6.598938E-1	6.689005E-1	6.460481E-1	6.667412E-1	6.902293E-1	6.490367E-1	6.663096E-1	6.802479E-1	6.922510E-1	6.604933E-1	6.555466E-1	6.415760E-1	6.565569E-1	7.013594E-1	6.802408E-1	6.565322E-1	6.672104E-1	6.850182E-1	6.694464E-1	6.295095E-1	6.426436E-1	6.943002E-1	6.703814E-1	6.921788E-1	6.655797E-1	6.474598E-1	6.656848E-1	6.742686E-1	6.620937E-1	6.965950E-1	6.719709E-1	6.716365E-1	7.044408E-1	6.966559E-1	6.803053E-1	6.583051E-1	6.537590E-1	6.223655E-1	6.646353E-1	6.863324E-1	6.693013E-1	6.648312E-1	7.191219E-1	6.777515E-1	6.707303E-1	6.253983E-1	6.526195E-1	6.534190E-1	6.238510E-1	6.986259E-1	6.399658E-1	7.129576E-1	6.852557E-1	7.009529E-1	6.819787E-1	6.390828E-1	7.368154E-1	6.540055E-1	6.671539E-1	6.465296E-1	6.437707E-1	6.741250E-1	6.695992E-1	6.691549E-1	6.580831E-1	6.592671E-1	6.509147E-1	6.719523E-1	6.896086E-1	6.668247E-1	6.506644E-1	6.738365E-1	6.682508E-1	6.663860E-1	6.514577E-1	6.858268E-1	6.619765E-1	7.035583E-1	6.606863E-1	6.779116E-1	7.004302E-1	6.670629E-1	6.898488E-1	6.345281E-1	6.666167E-1	6.825666E-1	6.318338E-1	6.547408E-1	6.607850E-1	6.512555E-1	6.854598E-1	6.815768E-1	6.955334E-1	6.753171E-1	6.327994E-1	6.828502E-1	6.523273E-1	6.211232E-1	6.982178E-1	6.708762E-1	6.653115E-1	6.772066E-1	6.769855E-1	6.890568E-1	6.475071E-1	6.887887E-1
5.375160E+2	8.510375E-1	7.472114E-1	7.470721E-1	7.836931E-1	7.889242E-1	7.591260E-1	7.470894E-1	7.853461E-1	7.936907E-1	7.911544E-1	7.526675E-1	7.652875E-1	7.366613E-1	7.799659E-1	7.756980E-1	7.596379E-1	7.737501E-1	7.649222E-1	7.481338E-1	7.625213E-1	7.447826E-1	7.457239E-1	7.418543E-1	7.503436E-1	8.540965E-1	8.008780E-1	7.847703E-1	8.093022E-1	8.239752E-1	7.920808E-1	7.890272E-1	7.907198E-1	7.726674E-1	7.943843E-1	8.152171E-1	7.431987E-1	7.834794E-1	7.950251E-1	7.774259E-1	7.795479E-1	7.899885E-1	7.756013E-1	7.606409E-1	7.429793E-1	7.917631E-1	7.564923E-1	7.379180E-1	7.536816E-1	7.541003E-1	8.171789E-1	7.662402E-1	7.730851E-1	7.692851E-1	7.622050E-1	7.940396E-1	8.361508E-1	7.797435E-1	7.977063E-1	7.490006E-1	8.203905E-1	8.181896E-1	7.632728E-1	7.610257E-1	7.918278E-1	8.204909E-1	7.674918E-1	7.762570E-1	7.721475E-1	7.808455E-1	7.960201E-1	7.980339E-1	7.665531E-1	7.993959E-1	7.615030E-1	7.495274E-1	7.425568E-1	7.484725E-1	7.675550E-1	7.806238E-1	8.025038E-1	7.701712E-1	8.103642E-1	7.732986E-1	7.563633E-1	7.719031E-1	7.868640E-1	7.620792E-1	7.466854E-1	8.074191E-1	7.808279E-1	7.630822E-1	7.877835E-1	7.639022E-1	7.689085E-1	7.790413E-1	7.614806E-1	7.494974E-1	7.753125E-1	7.871809E-1	7.627726E-1	7.922645E-1	7.820100E-1	8.000443E-1	7.977057E-1	7.592884E-1	7.567145E-1	7.898649E-1	7.824726E-1	8.316870E-1	7.772869E-1	7.859861E-1	8.135503E-1	7.721271E-1	7.762677E-1	7.788678E-1	8.033496E-1	7.511949E-1	7.734906E-1	7.757862E-1	7.820463E-1	8.050153E-1	7.586854E-1	7.452192E-1	7.771374E-1	7.701602E-1	7.778051E-1	7.605257E-1	7.971417E-1	7.823889E-1	8.071436E-1	8.322981E-1	7.869266E-1	7.768462E-1	7.504663E-1	7.852407E-1	7.806216E-1	7.706470E-1	7.443049E-1	7.493542E-1	7.943312E-1	7.648688E-1	7.410157E-1	7.975540E-1	7.996303E-1	7.932915E-1	7.868822E-1	7.791573E-1	7.700570E-1	7.817941E-1	7.860993E-1	8.028775E-1	7.414684E-1	7.640906E-1	7.691400E-1	7.995610E-1	8.090291E-1	7.737075E-1	7.453755E-1	8.024486E-1	7.683894E-1	7.650315E-1	8.108945E-1	8.021346E-1	7.494620E-1	7.562112E-1	8.036231E-1	7.779020E-1	7.815956E-1	7.807328E-1	7.705948E-1
5.377580E+2	8.522579E-1	8.191235E-1	8.934026E-1	8.475649E-1	9.228266E-1	8.840101E-1	8.779317E-1	8.578997E-1	8.734568E-1	8.882366E-1	8.551814E-1	8.683344E-1	8.587523E-1	9.170379E-1	8.406503E-1	8.873246E-1	9.038974E-1	8.130983E-1	8.442582E-1	9.152144E-1	8.761859E-1	8.869172E-1	8.921161E-1	8.575542E-1	8.787395E-1	9.158718E-1	8.688960E-1	8.454338E-1	8.772051E-1	8.590771E-1	9.183521E-1	8.632377E-1	8.737905E-1	9.304654E-1	9.029810E-1	8.567784E-1	8.883366E-1	8.802669E-1	8.922660E-1	9.023789E-1	8.857255E-1	9.016464E-1	8.618892E-1	8.885947E-1	8.984373E-1	8.770210E-1	8.870699E-1	8.973035E-1	8.723218E-1	8.863571E-1	8.691303E-1	8.791426E-1	8.698258E-1	9.007224E-1	8.881473E-1	9.100989E-1	9.055662E-1	8.860508E-1	8.343020E-1	8.824705E-1	8.613020E-1	8.987840E-1	8.701651E-1	8.679003E-1	9.029828E-1	8.300723E-1	8.651831E-1	8.589453E-1	8.844339E-1	8.889311E-1	8.948087E-1	8.533372E-1	9.156558E-1	8.678466E-1	8.617692E-1	9.125103E-1	9.037291E-1	8.874676E-1	8.909558E-1	8.989987E-1	8.354055E-1	8.331540E-1	8.792042E-1	8.416615E-1	9.131477E-1	8.345461E-1	8.318238E-1	8.697965E-1	8.748879E-1	8.649886E-1	8.548710E-1	8.999284E-1	8.535884E-1	8.947520E-1	8.605365E-1	8.375995E-1	8.761204E-1	9.104874E-1	8.828590E-1	9.034488E-1	8.771682E-1	8.624924E-1	8.469048E-1	9.080536E-1	8.504390E-1	8.939483E-1	8.632270E-1	8.651900E-1	8.652031E-1	9.056684E-1	8.709421E-1	8.891167E-1	8.505585E-1	8.638315E-1	8.077182E-1	9.025064E-1	8.813460E-1	8.578105E-1	8.807523E-1	8.787677E-1	8.780075E-1	8.389229E-1	8.880653E-1	8.752942E-1	8.924888E-1	8.958111E-1	8.543783E-1	8.716508E-1	8.642893E-1	8.870155E-1	8.721027E-1	8.868612E-1	8.552886E-1	8.559345E-1	8.814682E-1	8.638067E-1	8.874543E-1	8.682844E-1	8.896101E-1	8.648347E-1	9.012063E-1	8.771843E-1	9.012771E-1	8.589535E-1	8.802168E-1	8.819320E-1	8.740952E-1	8.964309E-1	8.549390E-1	9.000824E-1	8.721542E-1	8.982259E-1	8.680614E-1	8.919066E-1	8.741238E-1	8.902433E-1	8.882905E-1	8.467079E-1	8.737005E-1	9.199911E-1	8.959253E-1	8.711176E-1	9.119407E-1	8.791232E-1	8.431590E-1	8.592127E-1	8.300714E-1	8.456198E-1	9.001911E-1	8.979757E-1
5.380160E+2	1.024079E+0	9.700610E-1	9.572189E-1	9.968965E-1	1.023557E+0	1.047734E+0	9.723488E-1	9.992386E-1	1.022273E+0	1.064311E+0	1.007983E+0	1.013909E+0	1.037571E+0	1.009086E+0	1.011169E+0	1.043429E+0	1.055025E+0	1.037172E+0	9.847621E-1	9.974339E-1	1.015297E+0	9.657694E-1	9.899801E-1	1.011013E+0	1.088539E+0	1.039682E+0	1.054931E+0	1.099846E+0	1.026924E+0	1.098306E+0	1.058373E+0	1.023411E+0	1.076034E+0	1.055792E+0	1.070862E+0	1.002362E+0	1.046278E+0	1.005593E+0	1.004714E+0	1.017216E+0	1.020312E+0	1.038437E+0	1.027560E+0	1.051345E+0	1.009754E+0	1.028658E+0	9.998276E-1	1.001912E+0	9.892041E-1	1.052579E+0	1.004640E+0	1.039852E+0	1.036002E+0	9.980205E-1	1.035083E+0	1.060983E+0	1.043755E+0	1.113352E+0	9.884326E-1	1.079543E+0	1.057464E+0	1.001983E+0	1.064412E+0	1.026465E+0	1.012756E+0	9.882423E-1	1.000895E+0	1.005805E+0	9.927014E-1	1.004806E+0	1.013421E+0	1.025528E+0	1.050244E+0	1.026281E+0	9.909929E-1	1.054630E+0	1.014706E+0	9.816159E-1	1.010086E+0	1.000280E+0	9.988102E-1	1.052655E+0	9.936241E-1	1.012903E+0	1.049881E+0	1.000410E+0	1.008181E+0	1.062508E+0	1.040955E+0	1.017511E+0	1.015368E+0	1.064506E+0	9.754820E-1	9.762809E-1	1.019620E+0	1.050888E+0	1.004519E+0	1.008624E+0	9.570713E-1	9.812341E-1	9.939140E-1	9.672641E-1	1.039588E+0	1.032265E+0	1.022156E+0	1.028341E+0	9.876254E-1	9.724939E-1	1.043277E+0	1.050709E+0	9.841823E-1	9.957856E-1	9.829052E-1	1.049757E+0	1.012830E+0	1.038338E+0	1.036543E+0	1.057728E+0	9.958717E-1	1.011011E+0	1.050416E+0	1.017241E+0	1.022107E+0	1.047364E+0	1.029557E+0	1.032540E+0	1.018813E+0	9.624667E-1	9.884465E-1	1.052924E+0	1.014425E+0	1.085418E+0	1.009464E+0	9.853660E-1	1.048651E+0	1.014491E+0	1.042848E+0	1.026636E+0	9.813976E-1	1.058937E+0	1.008815E+0	9.950259E-1	1.004413E+0	1.084375E+0	1.042133E+0	1.029651E+0	1.009948E+0	1.028364E+0	9.835844E-1	1.002809E+0	1.039363E+0	1.043927E+0	1.046408E+0	1.011623E+0	1.036258E+0	9.893411E-1	9.733655E-1	9.983543E-1	1.026734E+0	1.016285E+0	1.014901E+0	1.001864E+0	1.009823E+0	1.000214E+0	1.052599E+0	9.964598E-1	1.026311E+0	1.050893E+0	1.079724E+0	1.014082E+0
5.382690E+2	1.139606E+0	1.163188E+0	1.118293E+0	1.143578E+0	1.169136E+0	1.178783E+0	1.130180E+0	1.178491E+0	1.151103E+0	1.180480E+0	1.132222E+0	1.127707E+0	1.202517E+0	1.131292E+0	1.156271E+0	1.188577E+0	1.178400E+0	1.147325E+0	1.179694E+0	1.147276E+0	1.134327E+0	1.160738E+0	1.138899E+0	1.114898E+0	1.255631E+0	1.138860E+0	1.149927E+0	1.198347E+0	1.207333E+0	1.207182E+0	1.198476E+0	1.177248E+0	1.171195E+0	1.183965E+0	1.157507E+0	1.200732E+0	1.141560E+0	1.151698E+0	1.186491E+0	1.152090E+0	1.210083E+0	1.185617E+0	1.135439E+0	1.189699E+0	1.192467E+0	1.189853E+0	1.163397E+0	1.182663E+0	1.178614E+0	1.158942E+0	1.156154E+0	1.181782E+0	1.149195E+0	1.171995E+0	1.131174E+0	1.178923E+0	1.151419E+0	1.179816E+0	1.166426E+0	1.172669E+0	1.184188E+0	1.232152E+0	1.247586E+0	1.183755E+0	1.190868E+0	1.149267E+0	1.202661E+0	1.168082E+0	1.180990E+0	1.216017E+0	1.154578E+0	1.157574E+0	1.222740E+0	1.181644E+0	1.184418E+0	1.177642E+0	1.152493E+0	1.168033E+0	1.175704E+0	1.201018E+0	1.147140E+0	1.166549E+0	1.156325E+0	1.218736E+0	1.138263E+0	1.230719E+0	1.195052E+0	1.215689E+0	1.161135E+0	1.166346E+0	1.176077E+0	1.148955E+0	1.170282E+0	1.160123E+0	1.137931E+0	1.186526E+0	1.187259E+0	1.137763E+0	1.191208E+0	1.136954E+0	1.122415E+0	1.200697E+0	1.178106E+0	1.180502E+0	1.157603E+0	1.215998E+0	1.178358E+0	1.154753E+0	1.210053E+0	1.143199E+0	1.136942E+0	1.156343E+0	1.161470E+0	1.156934E+0	1.134407E+0	1.175217E+0	1.156587E+0	1.190990E+0	1.125468E+0	1.139885E+0	1.149036E+0	1.176303E+0	1.141581E+0	1.219989E+0	1.147019E+0	1.145507E+0	1.165489E+0	1.142224E+0	1.100935E+0	1.136756E+0	1.203758E+0	1.199502E+0	1.200958E+0	1.136563E+0	1.125423E+0	1.155469E+0	1.136175E+0	1.180185E+0	1.156489E+0	1.175339E+0	1.181237E+0	1.165708E+0	1.146904E+0	1.216986E+0	1.236962E+0	1.108850E+0	1.128079E+0	1.186269E+0	1.076581E+0	1.172068E+0	1.144711E+0	1.167768E+0	1.132044E+0	1.169341E+0	1.179084E+0	1.186478E+0	1.163955E+0	1.092988E+0	1.157724E+0	1.132501E+0	1.114686E+0	1.209033E+0	1.152028E+0	1.186886E+0	1.155022E+0	1.157018E+0	1.119219E+0	1.173086E+0	1.102751E+0	1.131018E+0
5.385170E+2	1.493096E+0	1.417504E+0	1.401495E+0	1.428919E+0	1.395939E+0	1.370720E+0	1.399739E+0	1.450280E+0	1.439898E+0	1.456746E+0	1.417184E+0	1.432743E+0	1.406769E+0	1.410202E+0	1.395530E+0	1.464501E+0	1.397881E+0	1.418075E+0	1.393692E+0	1.447352E+0	1.375343E+0	1.398349E+0	1.385223E+0	1.425505E+0	1.445251E+0	1.453973E+0	1.410302E+0	1.459700E+0	1.466293E+0	1.491217E+0	1.453423E+0	1.441062E+0	1.415716E+0	1.447490E+0	1.421348E+0	1.495719E+0	1.431152E+0	1.378466E+0	1.395813E+0	1.454790E+0	1.485152E+0	1.432434E+0	1.342270E+0	1.440592E+0	1.418330E+0	1.423408E+0	1.452920E+0	1.416433E+0	1.386290E+0	1.422818E+0	1.392374E+0	1.439919E+0	1.379762E+0	1.422663E+0	1.430893E+0	1.455536E+0	1.432474E+0	1.464007E+0	1.393229E+0	1.505607E+0	1.447730E+0	1.418716E+0	1.441005E+0	1.466356E+0	1.463244E+0	1.391268E+0	1.404495E+0	1.394274E+0	1.379370E+0	1.429651E+0	1.429045E+0	1.418605E+0	1.408100E+0	1.462702E+0	1.379475E+0	1.414619E+0	1.446730E+0	1.392433E+0	1.448971E+0	1.434315E+0	1.366324E+0	1.413410E+0	1.413636E+0	1.440123E+0	1.388376E+0	1.431429E+0	1.455583E+0	1.419631E+0	1.437261E+0	1.421767E+0	1.355442E+0	1.420553E+0	1.360375E+0	1.385193E+0	1.371217E+0	1.400053E+0	1.386964E+0	1.416757E+0	1.394547E+0	1.404042E+0	1.419275E+0	1.405720E+0	1.382874E+0	1.378057E+0	1.380325E+0	1.391456E+0	1.398985E+0	1.379902E+0	1.414561E+0	1.416781E+0	1.379760E+0	1.338110E+0	1.357876E+0	1.389350E+0	1.378570E+0	1.430575E+0	1.389293E+0	1.410454E+0	1.374413E+0	1.408823E+0	1.428470E+0	1.388097E+0	1.391977E+0	1.366576E+0	1.400856E+0	1.396307E+0	1.406613E+0	1.403546E+0	1.438803E+0	1.394740E+0	1.398684E+0	1.382834E+0	1.441896E+0	1.368608E+0	1.376748E+0	1.439870E+0	1.420040E+0	1.364694E+0	1.390181E+0	1.417419E+0	1.407261E+0	1.382963E+0	1.421022E+0	1.428682E+0	1.389319E+0	1.358636E+0	1.339050E+0	1.411547E+0	1.432473E+0	1.413393E+0	1.427937E+0	1.418224E+0	1.393444E+0	1.422067E+0	1.375757E+0	1.361950E+0	1.433475E+0	1.393518E+0	1.394044E+0	1.414653E+0	1.389749E+0	1.373267E+0	1.355233E+0	1.350587E+0	1.438887E+0	1.421427E+0	1.424738E+0	1.417601E+0	1.442399E+0	1.456852E+0
5.387650E+2	1.696696E+0	1.583331E+0	1.596020E+0	1.656816E+0	1.630147E+0	1.582197E+0	1.600764E+0	1.713733E+0	1.581118E+0	1.626386E+0	1.645743E+0	1.699727E+0	1.665420E+0	1.618220E+0	1.595153E+0	1.638434E+0	1.673117E+0	1.624346E+0	1.639355E+0	1.647777E+0	1.539717E+0	1.585287E+0	1.628966E+0	1.686590E+0	1.690814E+0	1.683173E+0	1.623095E+0	1.696910E+0	1.633872E+0	1.614754E+0	1.643013E+0	1.683091E+0	1.694622E+0	1.637085E+0	1.586665E+0	1.610883E+0	1.596612E+0	1.645525E+0	1.662473E+0	1.590021E+0	1.723313E+0	1.642210E+0	1.605880E+0	1.628256E+0	1.628915E+0	1.671947E+0	1.591041E+0	1.664136E+0	1.590756E+0	1.614413E+0	1.638846E+0	1.683487E+0	1.616546E+0	1.659214E+0	1.582683E+0	1.643567E+0	1.635047E+0	1.630509E+0	1.597827E+0	1.670782E+0	1.662691E+0	1.587745E+0	1.616883E+0	1.595227E+0	1.721522E+0	1.611436E+0	1.627471E+0	1.706977E+0	1.613877E+0	1.629179E+0	1.616921E+0	1.644802E+0	1.620459E+0	1.632785E+0	1.591592E+0	1.584279E+0	1.630937E+0	1.603851E+0	1.559039E+0	1.622957E+0	1.639762E+0	1.612472E+0	1.613226E+0	1.579512E+0	1.653308E+0	1.611565E+0	1.550361E+0	1.605079E+0	1.626929E+0	1.623714E+0	1.559812E+0	1.712899E+0	1.570438E+0	1.604714E+0	1.601557E+0	1.614212E+0	1.633808E+0	1.635417E+0	1.630809E+0	1.611772E+0	1.599904E+0	1.631737E+0	1.578616E+0	1.643559E+0	1.643830E+0	1.655792E+0	1.597449E+0	1.657244E+0	1.659438E+0	1.598531E+0	1.655555E+0	1.586788E+0	1.617172E+0	1.602205E+0	1.583906E+0	1.628379E+0	1.588940E+0	1.642302E+0	1.601937E+0	1.648125E+0	1.642206E+0	1.615047E+0	1.576874E+0	1.577116E+0	1.623299E+0	1.631054E+0	1.575731E+0	1.647969E+0	1.581327E+0	1.627014E+0	1.623062E+0	1.639108E+0	1.575258E+0	1.609429E+0	1.611022E+0	1.602349E+0	1.655765E+0	1.620095E+0	1.544480E+0	1.577483E+0	1.579800E+0	1.636734E+0	1.617733E+0	1.640699E+0	1.611913E+0	1.584321E+0	1.527777E+0	1.649944E+0	1.577873E+0	1.572964E+0	1.677186E+0	1.624993E+0	1.614500E+0	1.554552E+0	1.564807E+0	1.616648E+0	1.645648E+0	1.558053E+0	1.582158E+0	1.654381E+0	1.630387E+0	1.590379E+0	1.562335E+0	1.539497E+0	1.603611E+0	1.598087E+0	1.531811E+0	1.670153E+0	1.656295E+0	1.648963E+0
5.390240E+2	1.889134E+0	1.770207E+0	1.799617E+0	1.803825E+0	1.870420E+0	1.830594E+0	1.764555E+0	1.858891E+0	1.831596E+0	1.843961E+0	1.799201E+0	1.870170E+0	1.924569E+0	1.892875E+0	1.857826E+0	1.884193E+0	1.819470E+0	1.848303E+0	1.854177E+0	1.818175E+0	1.779613E+0	1.817281E+0	1.763254E+0	1.824992E+0	1.918573E+0	1.832729E+0	1.846457E+0	1.820895E+0	1.845237E+0	1.789733E+0	1.783036E+0	1.845330E+0	1.861768E+0	1.814094E+0	1.795517E+0	1.883726E+0	1.836345E+0	1.850274E+0	1.796949E+0	1.861284E+0	1.906717E+0	1.826833E+0	1.773943E+0	1.897683E+0	1.865119E+0	1.847275E+0	1.860780E+0	1.830767E+0	1.796617E+0	1.853808E+0	1.836203E+0	1.821005E+0	1.750550E+0	1.826058E+0	1.745472E+0	1.755961E+0	1.822653E+0	1.823706E+0	1.816048E+0	1.855339E+0	1.865457E+0	1.797733E+0	1.879239E+0	1.786963E+0	1.894588E+0	1.807709E+0	1.780885E+0	1.771942E+0	1.738435E+0	1.793340E+0	1.836177E+0	1.794556E+0	1.799032E+0	1.819657E+0	1.800043E+0	1.816705E+0	1.797988E+0	1.807249E+0	1.796335E+0	1.757212E+0	1.778249E+0	1.844341E+0	1.811075E+0	1.791868E+0	1.837211E+0	1.839599E+0	1.785374E+0	1.810870E+0	1.863418E+0	1.806773E+0	1.801826E+0	1.863346E+0	1.879600E+0	1.757510E+0	1.799095E+0	1.846437E+0	1.718124E+0	1.737635E+0	1.809765E+0	1.712359E+0	1.794877E+0	1.825098E+0	1.749277E+0	1.831359E+0	1.861691E+0	1.772850E+0	1.788234E+0	1.829722E+0	1.738332E+0	1.815040E+0	1.801064E+0	1.778566E+0	1.759932E+0	1.898550E+0	1.738712E+0	1.804062E+0	1.738330E+0	1.728794E+0	1.737817E+0	1.800977E+0	1.814659E+0	1.753830E+0	1.716082E+0	1.806591E+0	1.812364E+0	1.776873E+0	1.723679E+0	1.784516E+0	1.863236E+0	1.883135E+0	1.741486E+0	1.815165E+0	1.817138E+0	1.776481E+0	1.767680E+0	1.818317E+0	1.828119E+0	1.837957E+0	1.733847E+0	1.758991E+0	1.772321E+0	1.790199E+0	1.815786E+0	1.838662E+0	1.750947E+0	1.779697E+0	1.764065E+0	1.818737E+0	1.756182E+0	1.811690E+0	1.803833E+0	1.781245E+0	1.753356E+0	1.724627E+0	1.732066E+0	1.804785E+0	1.840884E+0	1.773155E+0	1.801516E+0	1.846892E+0	1.772486E+0	1.746121E+0	1.797381E+0	1.820965E+0	1.818284E+0	1.804111E+0	1.714415E+0	1.833937E+0	1.833479E+0	1.675770E+0
5.392720E+2	2.099036E+0	1.937232E+0	1.958625E+0	1.965318E+0	2.032364E+0	2.034543E+0	1.977189E+0	2.015775E+0	1.947615E+0	2.009975E+0	2.022301E+0	2.039409E+0	2.016869E+0	1.994872E+0	1.997034E+0	2.024914E+0	1.990924E+0	1.976503E+0	1.969863E+0	1.991180E+0	1.951190E+0	2.036978E+0	1.995282E+0	2.000925E+0	2.045539E+0	2.030852E+0	1.980478E+0	1.986064E+0	1.990836E+0	1.924591E+0	2.035964E+0	2.003527E+0	1.994467E+0	2.000734E+0	1.945891E+0	2.037265E+0	1.914462E+0	1.918896E+0	1.953809E+0	1.983992E+0	2.031142E+0	1.940681E+0	1.856222E+0	2.035830E+0	1.982638E+0	2.002716E+0	1.977318E+0	1.965935E+0	1.961226E+0	1.975481E+0	1.975342E+0	2.020418E+0	1.983567E+0	1.990159E+0	1.951232E+0	1.940962E+0	1.973253E+0	2.010170E+0	1.951305E+0	2.062851E+0	2.015216E+0	1.980937E+0	1.988759E+0	1.922989E+0	1.994751E+0	1.920664E+0	2.030941E+0	1.969977E+0	1.974098E+0	1.993093E+0	1.913352E+0	2.015272E+0	1.928770E+0	1.986442E+0	1.955806E+0	2.023997E+0	1.961737E+0	1.945545E+0	1.937023E+0	1.986842E+0	1.955906E+0	2.055197E+0	1.973273E+0	1.900912E+0	1.984682E+0	1.943295E+0	1.922525E+0	1.956576E+0	1.934057E+0	1.926397E+0	1.975670E+0	1.923196E+0	1.893833E+0	1.974587E+0	1.956226E+0	1.905249E+0	1.947082E+0	1.952330E+0	1.935793E+0	1.960951E+0	1.925298E+0	1.876324E+0	1.869538E+0	1.949909E+0	1.945059E+0	1.907738E+0	1.973264E+0	1.980422E+0	1.917211E+0	1.951977E+0	1.928035E+0	1.929192E+0	1.895771E+0	1.982605E+0	1.940172E+0	2.031919E+0	1.944172E+0	2.001130E+0	1.925032E+0	1.892063E+0	1.938672E+0	1.909588E+0	1.981680E+0	1.935999E+0	1.913373E+0	1.954322E+0	1.879714E+0	1.894061E+0	1.901886E+0	1.962228E+0	1.903068E+0	1.913594E+0	1.935655E+0	1.907924E+0	1.934347E+0	1.938791E+0	1.915261E+0	1.935481E+0	1.859705E+0	1.961266E+0	1.948529E+0	1.896876E+0	1.969378E+0	1.937008E+0	1.953082E+0	1.880437E+0	1.911344E+0	1.965668E+0	1.877994E+0	1.997776E+0	2.017093E+0	1.899507E+0	1.872783E+0	1.984916E+0	1.917637E+0	1.893451E+0	1.937258E+0	1.842432E+0	1.931165E+0	1.861293E+0	1.974560E+0	1.868306E+0	1.892336E+0	1.967839E+0	1.919254E+0	1.853674E+0	1.883013E+0	1.885050E+0	2.034735E+0	1.970983E+0
5.395160E+2	2.214920E+0	2.029795E+0	2.067782E+0	2.060926E+0	2.131081E+0	2.069196E+0	2.145195E+0	2.091895E+0	2.073763E+0	2.143683E+0	2.062749E+0	2.135684E+0	2.119081E+0	2.111093E+0	2.142430E+0	2.125813E+0	2.126732E+0	2.183909E+0	2.094753E+0	2.114518E+0	2.065283E+0	2.103906E+0	2.086116E+0	2.056337E+0	2.107258E+0	2.048859E+0	2.083087E+0	2.089372E+0	2.068889E+0	2.162995E+0	2.069178E+0	2.129455E+0	2.095271E+0	2.045109E+0	2.065881E+0	2.084542E+0	2.039023E+0	2.073220E+0	1.981590E+0	2.089541E+0	2.149441E+0	1.996854E+0	1.993750E+0	2.101715E+0	2.161541E+0	2.090072E+0	2.111332E+0	2.063591E+0	2.078636E+0	2.071865E+0	2.031685E+0	2.157164E+0	2.030191E+0	2.065223E+0	2.056450E+0	2.073206E+0	2.108242E+0	2.054922E+0	2.091603E+0	2.143662E+0	2.053969E+0	2.109615E+0	2.055078E+0	2.064970E+0	2.070482E+0	2.048969E+0	2.077521E+0	2.043831E+0	2.005916E+0	2.063714E+0	2.140050E+0	2.025318E+0	2.042591E+0	2.027970E+0	2.036935E+0	2.067993E+0	2.055042E+0	2.027966E+0	2.023943E+0	2.157071E+0	2.042328E+0	2.057170E+0	2.061087E+0	2.003167E+0	2.072811E+0	2.028531E+0	2.023310E+0	2.092332E+0	2.087791E+0	1.997428E+0	2.038018E+0	2.047880E+0	2.039411E+0	2.092414E+0	2.045477E+0	2.107698E+0	2.066110E+0	2.107936E+0	2.100244E+0	2.029897E+0	2.042184E+0	1.990402E+0	2.034939E+0	2.130808E+0	2.128228E+0	2.010306E+0	2.087186E+0	2.061229E+0	2.056648E+0	1.997420E+0	2.083989E+0	2.011322E+0	2.030714E+0	2.038576E+0	1.974491E+0	2.098311E+0	2.050464E+0	2.039946E+0	1.976037E+0	2.007551E+0	2.077937E+0	2.012125E+0	2.030380E+0	2.035296E+0	2.067500E+0	2.096786E+0	2.085569E+0	1.961585E+0	1.994235E+0	2.049353E+0	1.952847E+0	2.060996E+0	2.017825E+0	2.096364E+0	2.039852E+0	2.026574E+0	2.041471E+0	2.035956E+0	1.984648E+0	2.035417E+0	2.004502E+0	2.053715E+0	2.087311E+0	2.041253E+0	2.145998E+0	1.916902E+0	2.012555E+0	2.075109E+0	1.964661E+0	2.062252E+0	1.997218E+0	2.028481E+0	2.014850E+0	2.052967E+0	2.011114E+0	2.069823E+0	2.056541E+0	1.928168E+0	1.961183E+0	2.061202E+0	2.044171E+0	2.066699E+0	1.992196E+0	2.038867E+0	2.018114E+0	1.941847E+0	1.976454E+0	2.070742E+0	2.024147E+0	2.069189E+0
5.397810E+2	2.177195E+0	2.090109E+0	2.113773E+0	2.099219E+0	2.216805E+0	2.098757E+0	2.069004E+0	2.121910E+0	2.111175E+0	2.136281E+0	2.067533E+0	2.138256E+0	2.190762E+0	2.125019E+0	2.102971E+0	2.185193E+0	2.123598E+0	2.134090E+0	2.149430E+0	2.150871E+0	2.025172E+0	2.146717E+0	2.086713E+0	2.091231E+0	2.111382E+0	2.124277E+0	2.080617E+0	2.087495E+0	2.105104E+0	2.097293E+0	2.056843E+0	2.097230E+0	2.152327E+0	2.077100E+0	2.094689E+0	2.061930E+0	2.060697E+0	2.124766E+0	2.058643E+0	2.063192E+0	2.127501E+0	2.084548E+0	2.050236E+0	2.019953E+0	2.085020E+0	2.070055E+0	2.101100E+0	2.074246E+0	2.039154E+0	2.220629E+0	2.048547E+0	2.110022E+0	2.095253E+0	2.034828E+0	2.043759E+0	2.135762E+0	2.108281E+0	2.174637E+0	2.059182E+0	2.111991E+0	2.150415E+0	2.069655E+0	2.137687E+0	2.083348E+0	2.105846E+0	2.065776E+0	2.106698E+0	2.058165E+0	2.087492E+0	2.096705E+0	2.069142E+0	2.006999E+0	2.076982E+0	2.073599E+0	2.123255E+0	2.109293E+0	2.147205E+0	2.050986E+0	2.046076E+0	2.073718E+0	2.126553E+0	2.044885E+0	2.045229E+0	2.069337E+0	2.163383E+0	2.089735E+0	2.062007E+0	2.121287E+0	2.071528E+0	2.075848E+0	2.075749E+0	2.167543E+0	2.083614E+0	2.058540E+0	2.044934E+0	2.094196E+0	2.045388E+0	2.085432E+0	2.033958E+0	2.052467E+0	2.028788E+0	2.057572E+0	2.047599E+0	2.150800E+0	2.135432E+0	2.049449E+0	2.032402E+0	2.103130E+0	2.046583E+0	2.058738E+0	2.043009E+0	2.009748E+0	2.067479E+0	2.120133E+0	1.969544E+0	2.071054E+0	2.060960E+0	2.097941E+0	2.010588E+0	2.046928E+0	2.091782E+0	2.019640E+0	1.991015E+0	2.100985E+0	2.046574E+0	2.075398E+0	2.049136E+0	1.932175E+0	2.065767E+0	2.097352E+0	2.089407E+0	2.061019E+0	2.090438E+0	2.045955E+0	2.026995E+0	2.022863E+0	2.127179E+0	2.060903E+0	2.027511E+0	2.087550E+0	2.084500E+0	2.044005E+0	2.093579E+0	2.059021E+0	2.064715E+0	2.016004E+0	2.025843E+0	2.065459E+0	2.001124E+0	2.071616E+0	2.090835E+0	2.038902E+0	2.048634E+0	2.023773E+0	2.043222E+0	1.992946E+0	2.062004E+0	1.971883E+0	2.008588E+0	2.107943E+0	2.049820E+0	2.052474E+0	2.068005E+0	1.973744E+0	2.065234E+0	1.931987E+0	1.992724E+0	1.985089E+0	2.127324E+0	2.133469E+0
5.400240E+2	2.136415E+0	1.994916E+0	2.129973E+0	2.029182E+0	2.121113E+0	2.062401E+0	2.010308E+0	2.069382E+0	2.196184E+0	2.090964E+0	2.044040E+0	2.113068E+0	2.112766E+0	2.159790E+0	2.070887E+0	2.057181E+0	2.163245E+0	2.098610E+0	2.013421E+0	2.090940E+0	2.072930E+0	2.070419E+0	2.075847E+0	2.023448E+0	2.142020E+0	2.067780E+0	2.034293E+0	2.054623E+0	2.094148E+0	2.038554E+0	2.078874E+0	2.097412E+0	2.014020E+0	2.104240E+0	2.065776E+0	2.049713E+0	2.031984E+0	2.049852E+0	1.945248E+0	1.993242E+0	2.086573E+0	2.061798E+0	1.997085E+0	2.103443E+0	2.095620E+0	2.099786E+0	2.033121E+0	1.998884E+0	2.008099E+0	2.062447E+0	2.096248E+0	2.100901E+0	2.001673E+0	2.035905E+0	2.039120E+0	2.047027E+0	2.101197E+0	2.074675E+0	2.080462E+0	2.077883E+0	2.028972E+0	2.044690E+0	2.034063E+0	2.063324E+0	2.153172E+0	2.044104E+0	2.027750E+0	2.041994E+0	2.028514E+0	2.104535E+0	2.046923E+0	2.005100E+0	2.000943E+0	2.083010E+0	2.081519E+0	2.028014E+0	2.112385E+0	2.059820E+0	2.012356E+0	2.094496E+0	2.022208E+0	2.084336E+0	1.998322E+0	2.050019E+0	2.043209E+0	2.007584E+0	2.025089E+0	2.010333E+0	1.984143E+0	2.049861E+0	2.029776E+0	2.103622E+0	2.041433E+0	2.105312E+0	1.998703E+0	2.013225E+0	2.009633E+0	2.049645E+0	1.999900E+0	1.980064E+0	1.987384E+0	2.001065E+0	2.010132E+0	2.082126E+0	2.145971E+0	1.984918E+0	1.969906E+0	2.096109E+0	2.025449E+0	2.008560E+0	1.996684E+0	1.953694E+0	2.028114E+0	2.041357E+0	1.963438E+0	2.028181E+0	2.019125E+0	2.021417E+0	2.000423E+0	1.922063E+0	2.082214E+0	2.012863E+0	1.969559E+0	2.041337E+0	2.037189E+0	1.988992E+0	1.996613E+0	1.992284E+0	2.011604E+0	2.009465E+0	1.988799E+0	2.054499E+0	1.933372E+0	1.969284E+0	1.987070E+0	2.033230E+0	2.091572E+0	1.999250E+0	2.013958E+0	2.024571E+0	1.981744E+0	1.986960E+0	2.064001E+0	2.056586E+0	2.046339E+0	1.986726E+0	1.990105E+0	2.058997E+0	1.984696E+0	2.011245E+0	2.013109E+0	2.052001E+0	1.988202E+0	1.994791E+0	2.044255E+0	2.018836E+0	2.061814E+0	1.948540E+0	2.044720E+0	2.049496E+0	1.994205E+0	1.941002E+0	1.915097E+0	2.020125E+0	2.011874E+0	2.021499E+0	1.989129E+0	1.957434E+0	1.936121E+0	2.049055E+0
5.402850E+2	2.045489E+0	1.916973E+0	1.902799E+0	1.892129E+0	1.983863E+0	1.955319E+0	1.953608E+0	1.973729E+0	1.987445E+0	1.973514E+0	1.901498E+0	2.042582E+0	1.962246E+0	2.012784E+0	1.955895E+0	1.972137E+0	1.965686E+0	2.021192E+0	1.925714E+0	1.946252E+0	1.885260E+0	1.947490E+0	1.986499E+0	1.911142E+0	1.982248E+0	1.833775E+0	1.947573E+0	1.927616E+0	1.867454E+0	2.009422E+0	1.902041E+0	1.928938E+0	1.935902E+0	1.944408E+0	1.856737E+0	1.970708E+0	1.884228E+0	1.894394E+0	1.869573E+0	1.929970E+0	1.974719E+0	1.928703E+0	1.878665E+0	1.952103E+0	2.027411E+0	1.952455E+0	1.873788E+0	1.924638E+0	1.949622E+0	1.902244E+0	1.955968E+0	1.938042E+0	1.899806E+0	1.958018E+0	1.916032E+0	1.916225E+0	1.969963E+0	1.922045E+0	1.915974E+0	1.940628E+0	1.982227E+0	1.965543E+0	1.993963E+0	1.947342E+0	1.955720E+0	1.943810E+0	1.942383E+0	1.905456E+0	1.918389E+0	2.007472E+0	1.959308E+0	1.913853E+0	1.945599E+0	1.932600E+0	1.900962E+0	1.965274E+0	1.964495E+0	1.946212E+0	1.933257E+0	1.928239E+0	1.916817E+0	1.928241E+0	1.963999E+0	1.869024E+0	1.977894E+0	1.859160E+0	1.856497E+0	1.900969E+0	1.905541E+0	1.889153E+0	1.937927E+0	1.950594E+0	1.934767E+0	1.958029E+0	1.889488E+0	1.885941E+0	1.942426E+0	1.964443E+0	1.926790E+0	1.912789E+0	1.925376E+0	1.883095E+0	1.866422E+0	1.936551E+0	1.985573E+0	1.908305E+0	1.816767E+0	1.912637E+0	1.939850E+0	1.939170E+0	1.840454E+0	1.889610E+0	1.940702E+0	1.937386E+0	1.885362E+0	1.957111E+0	1.915273E+0	1.943513E+0	1.924694E+0	1.839234E+0	1.957290E+0	1.915679E+0	1.837124E+0	1.922019E+0	1.942983E+0	1.977398E+0	1.916597E+0	1.833889E+0	1.922375E+0	1.953525E+0	1.868787E+0	1.888338E+0	1.963852E+0	1.861022E+0	1.882966E+0	1.902429E+0	1.878247E+0	1.883533E+0	1.846800E+0	1.950929E+0	1.888848E+0	1.914873E+0	1.933397E+0	1.890318E+0	1.997690E+0	1.847131E+0	1.850517E+0	1.950670E+0	1.888959E+0	1.919665E+0	1.876501E+0	1.883609E+0	1.909286E+0	1.865265E+0	1.913626E+0	1.875289E+0	1.925653E+0	1.804573E+0	1.911149E+0	1.906824E+0	1.859650E+0	1.847902E+0	1.889272E+0	1.904577E+0	1.926674E+0	1.877123E+0	1.819061E+0	1.873404E+0	1.872856E+0	1.893491E+0
5.405130E+2	1.902760E+0	1.806306E+0	1.787668E+0	1.819880E+0	1.870222E+0	1.862659E+0	1.795799E+0	1.865448E+0	1.907710E+0	1.918975E+0	1.833633E+0	1.847803E+0	1.834801E+0	1.833028E+0	1.772875E+0	1.905617E+0	1.878613E+0	1.880598E+0	1.858009E+0	1.860718E+0	1.809033E+0	1.859466E+0	1.790117E+0	1.815652E+0	1.899772E+0	1.840905E+0	1.847628E+0	1.786848E+0	1.841422E+0	1.803564E+0	1.815206E+0	1.812698E+0	1.870642E+0	1.831134E+0	1.779186E+0	1.835036E+0	1.824430E+0	1.831441E+0	1.781044E+0	1.820145E+0	1.862755E+0	1.802662E+0	1.735796E+0	1.833155E+0	1.856018E+0	1.818332E+0	1.836164E+0	1.843635E+0	1.768032E+0	1.756325E+0	1.745218E+0	1.879394E+0	1.799642E+0	1.776085E+0	1.817324E+0	1.801129E+0	1.844405E+0	1.890780E+0	1.804240E+0	1.829792E+0	1.786033E+0	1.818089E+0	1.917451E+0	1.836310E+0	1.841265E+0	1.787388E+0	1.890445E+0	1.821079E+0	1.784714E+0	1.877388E+0	1.824330E+0	1.797901E+0	1.823110E+0	1.799734E+0	1.837133E+0	1.772654E+0	1.891431E+0	1.872634E+0	1.822003E+0	1.836172E+0	1.791924E+0	1.790729E+0	1.849700E+0	1.859500E+0	1.908860E+0	1.834848E+0	1.726352E+0	1.758416E+0	1.795073E+0	1.814280E+0	1.852391E+0	1.856647E+0	1.758201E+0	1.811412E+0	1.774902E+0	1.795097E+0	1.784263E+0	1.810060E+0	1.809069E+0	1.776986E+0	1.795000E+0	1.764894E+0	1.838902E+0	1.805893E+0	1.886488E+0	1.776971E+0	1.758327E+0	1.798840E+0	1.868314E+0	1.792868E+0	1.844808E+0	1.790964E+0	1.800849E+0	1.796901E+0	1.742315E+0	1.823113E+0	1.820295E+0	1.862189E+0	1.813329E+0	1.749782E+0	1.843443E+0	1.811254E+0	1.798319E+0	1.772172E+0	1.783325E+0	1.787000E+0	1.781670E+0	1.774100E+0	1.786331E+0	1.813365E+0	1.743362E+0	1.772426E+0	1.845459E+0	1.767740E+0	1.796400E+0	1.767339E+0	1.823985E+0	1.823400E+0	1.797887E+0	1.761864E+0	1.813157E+0	1.780195E+0	1.810452E+0	1.784241E+0	1.817277E+0	1.768925E+0	1.799283E+0	1.799170E+0	1.755177E+0	1.821555E+0	1.826658E+0	1.787759E+0	1.791446E+0	1.786640E+0	1.823460E+0	1.811029E+0	1.791598E+0	1.763514E+0	1.774076E+0	1.822382E+0	1.826301E+0	1.769196E+0	1.758847E+0	1.748997E+0	1.797559E+0	1.761079E+0	1.835982E+0	1.789152E+0	1.792536E+0	1.745917E+0
5.407680E+2	1.792972E+0	1.668946E+0	1.811041E+0	1.692839E+0	1.782689E+0	1.787595E+0	1.733032E+0	1.779849E+0	1.757045E+0	1.753725E+0	1.702032E+0	1.752977E+0	1.757404E+0	1.757204E+0	1.751216E+0	1.814462E+0	1.784624E+0	1.798449E+0	1.772187E+0	1.776785E+0	1.729196E+0	1.777590E+0	1.730444E+0	1.775166E+0	1.819767E+0	1.713568E+0	1.749243E+0	1.703995E+0	1.768101E+0	1.751943E+0	1.724148E+0	1.728510E+0	1.790070E+0	1.775993E+0	1.732253E+0	1.769468E+0	1.759136E+0	1.703162E+0	1.665341E+0	1.713717E+0	1.781260E+0	1.809273E+0	1.705967E+0	1.751581E+0	1.803378E+0	1.704328E+0	1.699110E+0	1.723661E+0	1.697542E+0	1.761778E+0	1.741990E+0	1.730218E+0	1.692301E+0	1.762676E+0	1.718317E+0	1.728486E+0	1.795425E+0	1.775769E+0	1.748621E+0	1.763918E+0	1.712482E+0	1.768593E+0	1.716568E+0	1.725511E+0	1.751127E+0	1.731933E+0	1.784542E+0	1.737974E+0	1.667888E+0	1.763040E+0	1.708258E+0	1.688115E+0	1.728962E+0	1.711935E+0	1.734949E+0	1.737077E+0	1.704020E+0	1.780566E+0	1.733020E+0	1.712888E+0	1.674839E+0	1.734479E+0	1.776562E+0	1.736041E+0	1.716542E+0	1.732604E+0	1.679015E+0	1.720170E+0	1.753193E+0	1.678572E+0	1.743355E+0	1.702860E+0	1.751640E+0	1.723594E+0	1.692301E+0	1.699035E+0	1.732938E+0	1.745146E+0	1.712576E+0	1.728145E+0	1.768360E+0	1.672942E+0	1.708195E+0	1.746369E+0	1.770228E+0	1.702877E+0	1.746026E+0	1.660347E+0	1.790714E+0	1.723469E+0	1.703804E+0	1.690223E+0	1.734827E+0	1.726894E+0	1.768140E+0	1.688375E+0	1.715596E+0	1.710498E+0	1.689841E+0	1.657455E+0	1.791605E+0	1.716558E+0	1.668475E+0	1.684416E+0	1.713611E+0	1.710628E+0	1.712835E+0	1.654336E+0	1.716705E+0	1.712048E+0	1.693489E+0	1.709172E+0	1.749370E+0	1.650826E+0	1.730225E+0	1.746090E+0	1.726824E+0	1.726764E+0	1.712813E+0	1.704503E+0	1.676494E+0	1.651117E+0	1.716009E+0	1.687652E+0	1.717448E+0	1.665248E+0	1.706073E+0	1.688230E+0	1.685986E+0	1.715443E+0	1.680547E+0	1.706888E+0	1.742919E+0	1.700479E+0	1.690004E+0	1.714665E+0	1.734201E+0	1.647615E+0	1.743846E+0	1.666848E+0	1.679478E+0	1.699066E+0	1.634999E+0	1.719401E+0	1.735044E+0	1.700990E+0	1.648636E+0	1.648875E+0	1.774681E+0	1.690923E+0
5.410290E+2	1.720340E+0	1.599052E+0	1.690405E+0	1.612044E+0	1.686912E+0	1.655793E+0	1.666084E+0	1.656674E+0	1.676420E+0	1.679064E+0	1.575432E+0	1.706249E+0	1.697375E+0	1.656782E+0	1.681484E+0	1.745915E+0	1.662541E+0	1.685609E+0	1.701337E+0	1.626791E+0	1.662662E+0	1.662646E+0	1.692456E+0	1.681061E+0	1.734921E+0	1.651729E+0	1.686307E+0	1.643997E+0	1.685467E+0	1.685844E+0	1.640202E+0	1.661990E+0	1.683636E+0	1.677704E+0	1.643168E+0	1.663127E+0	1.658567E+0	1.694886E+0	1.605741E+0	1.649530E+0	1.693709E+0	1.639300E+0	1.618360E+0	1.661358E+0	1.649978E+0	1.685059E+0	1.686538E+0	1.663374E+0	1.619665E+0	1.674032E+0	1.624599E+0	1.692514E+0	1.635928E+0	1.643017E+0	1.676587E+0	1.648576E+0	1.690556E+0	1.678688E+0	1.649396E+0	1.702035E+0	1.657877E+0	1.647161E+0	1.651801E+0	1.653863E+0	1.759620E+0	1.615943E+0	1.674766E+0	1.610541E+0	1.619765E+0	1.617072E+0	1.641966E+0	1.594180E+0	1.704070E+0	1.681726E+0	1.659486E+0	1.670207E+0	1.676631E+0	1.654940E+0	1.636980E+0	1.718034E+0	1.647630E+0	1.639298E+0	1.630750E+0	1.627841E+0	1.640056E+0	1.682740E+0	1.558760E+0	1.631683E+0	1.659552E+0	1.679058E+0	1.588314E+0	1.701763E+0	1.725112E+0	1.708962E+0	1.667325E+0	1.679059E+0	1.619322E+0	1.664526E+0	1.611891E+0	1.636332E+0	1.636630E+0	1.649486E+0	1.681282E+0	1.639056E+0	1.707578E+0	1.668420E+0	1.651634E+0	1.642173E+0	1.693049E+0	1.643042E+0	1.694012E+0	1.647552E+0	1.624464E+0	1.683951E+0	1.622234E+0	1.663918E+0	1.619581E+0	1.653076E+0	1.578748E+0	1.584815E+0	1.732800E+0	1.644975E+0	1.617722E+0	1.640143E+0	1.731198E+0	1.635287E+0	1.637006E+0	1.652625E+0	1.633164E+0	1.638522E+0	1.586932E+0	1.669077E+0	1.658898E+0	1.645400E+0	1.626945E+0	1.647486E+0	1.715702E+0	1.674383E+0	1.610472E+0	1.642862E+0	1.582826E+0	1.648248E+0	1.684264E+0	1.727717E+0	1.630010E+0	1.554221E+0	1.642090E+0	1.693774E+0	1.636867E+0	1.648268E+0	1.648274E+0	1.653958E+0	1.593024E+0	1.662711E+0	1.656117E+0	1.607205E+0	1.657174E+0	1.654653E+0	1.690921E+0	1.668304E+0	1.711241E+0	1.595926E+0	1.681478E+0	1.649992E+0	1.668077E+0	1.601133E+0	1.621317E+0	1.578516E+0	1.674884E+0	1.723701E+0
5.412790E+2	1.692104E+0	1.513366E+0	1.528927E+0	1.562250E+0	1.547353E+0	1.619554E+0	1.555083E+0	1.619393E+0	1.622825E+0	1.588548E+0	1.610046E+0	1.568446E+0	1.602599E+0	1.571274E+0	1.537691E+0	1.630580E+0	1.608172E+0	1.563554E+0	1.616825E+0	1.627117E+0	1.533260E+0	1.594832E+0	1.562735E+0	1.565729E+0	1.553318E+0	1.558044E+0	1.532868E+0	1.563623E+0	1.580177E+0	1.576951E+0	1.585661E+0	1.564043E+0	1.605253E+0	1.574714E+0	1.549775E+0	1.568471E+0	1.594250E+0	1.560155E+0	1.548841E+0	1.538494E+0	1.603969E+0	1.566156E+0	1.519919E+0	1.579151E+0	1.543397E+0	1.595709E+0	1.502582E+0	1.565429E+0	1.562496E+0	1.568539E+0	1.552130E+0	1.611930E+0	1.546171E+0	1.577923E+0	1.583221E+0	1.550940E+0	1.615690E+0	1.565646E+0	1.585189E+0	1.595543E+0	1.542919E+0	1.642641E+0	1.547294E+0	1.518392E+0	1.621045E+0	1.559303E+0	1.571289E+0	1.544418E+0	1.525690E+0	1.626019E+0	1.577316E+0	1.540635E+0	1.587234E+0	1.558196E+0	1.560208E+0	1.528718E+0	1.598730E+0	1.613903E+0	1.531029E+0	1.596939E+0	1.551322E+0	1.585356E+0	1.590104E+0	1.537261E+0	1.602058E+0	1.622003E+0	1.560950E+0	1.551266E+0	1.570423E+0	1.584952E+0	1.529127E+0	1.548228E+0	1.583680E+0	1.568974E+0	1.529956E+0	1.570298E+0	1.594125E+0	1.545547E+0	1.586832E+0	1.536538E+0	1.543207E+0	1.579365E+0	1.499734E+0	1.569639E+0	1.598697E+0	1.590073E+0	1.591778E+0	1.531752E+0	1.557464E+0	1.548396E+0	1.600017E+0	1.495889E+0	1.526036E+0	1.561681E+0	1.535874E+0	1.641301E+0	1.540909E+0	1.530143E+0	1.534003E+0	1.487353E+0	1.590714E+0	1.515495E+0	1.556308E+0	1.574201E+0	1.527698E+0	1.559210E+0	1.484249E+0	1.591242E+0	1.545378E+0	1.530966E+0	1.553413E+0	1.552119E+0	1.581664E+0	1.543206E+0	1.552830E+0	1.531655E+0	1.664910E+0	1.539915E+0	1.518714E+0	1.582474E+0	1.534256E+0	1.482321E+0	1.525737E+0	1.560869E+0	1.571306E+0	1.533650E+0	1.471379E+0	1.569971E+0	1.552597E+0	1.606996E+0	1.503936E+0	1.562361E+0	1.571582E+0	1.498519E+0	1.564184E+0	1.518094E+0	1.585630E+0	1.535596E+0	1.516497E+0	1.569512E+0	1.568654E+0	1.473861E+0	1.494602E+0	1.595876E+0	1.536571E+0	1.523426E+0	1.533925E+0	1.573015E+0	1.501009E+0	1.598550E+0
5.415140E+2	1.421471E+0	1.408073E+0	1.397598E+0	1.386670E+0	1.517936E+0	1.410429E+0	1.367144E+0	1.397923E+0	1.417227E+0	1.454379E+0	1.415419E+0	1.462034E+0	1.401369E+0	1.464919E+0	1.377555E+0	1.454864E+0	1.404468E+0	1.426286E+0	1.395915E+0	1.430864E+0	1.387551E+0	1.443296E+0	1.483521E+0	1.385086E+0	1.447638E+0	1.365111E+0	1.453249E+0	1.377835E+0	1.420470E+0	1.431071E+0	1.418937E+0	1.430465E+0	1.419025E+0	1.395700E+0	1.385820E+0	1.421670E+0	1.395784E+0	1.400532E+0	1.362672E+0	1.389811E+0	1.413455E+0	1.447132E+0	1.373622E+0	1.483000E+0	1.387568E+0	1.435766E+0	1.397489E+0	1.410661E+0	1.358174E+0	1.430247E+0	1.484861E+0	1.415471E+0	1.414238E+0	1.419278E+0	1.380655E+0	1.378717E+0	1.388763E+0	1.413735E+0	1.398858E+0	1.449561E+0	1.445237E+0	1.435816E+0	1.413083E+0	1.366247E+0	1.455381E+0	1.447125E+0	1.446446E+0	1.330596E+0	1.352567E+0	1.446122E+0	1.390905E+0	1.372252E+0	1.385081E+0	1.416532E+0	1.374759E+0	1.396770E+0	1.396650E+0	1.378597E+0	1.417241E+0	1.376996E+0	1.413992E+0	1.385568E+0	1.387203E+0	1.360165E+0	1.420114E+0	1.484420E+0	1.368744E+0	1.378269E+0	1.410712E+0	1.399363E+0	1.403901E+0	1.441270E+0	1.401957E+0	1.441482E+0	1.368692E+0	1.400664E+0	1.377452E+0	1.459497E+0	1.365173E+0	1.417695E+0	1.368803E+0	1.378219E+0	1.393224E+0	1.364303E+0	1.340794E+0	1.355526E+0	1.385220E+0	1.419506E+0	1.418719E+0	1.443704E+0	1.348143E+0	1.378058E+0	1.424758E+0	1.427668E+0	1.329124E+0	1.445652E+0	1.431463E+0	1.442264E+0	1.373209E+0	1.391458E+0	1.427989E+0	1.459716E+0	1.342701E+0	1.400243E+0	1.374570E+0	1.397432E+0	1.433099E+0	1.327576E+0	1.437572E+0	1.447776E+0	1.387874E+0	1.390900E+0	1.448086E+0	1.387939E+0	1.390884E+0	1.384194E+0	1.402507E+0	1.420371E+0	1.342305E+0	1.391329E+0	1.381498E+0	1.404705E+0	1.467685E+0	1.398111E+0	1.426068E+0	1.398710E+0	1.328711E+0	1.372444E+0	1.370105E+0	1.403164E+0	1.395720E+0	1.399954E+0	1.323171E+0	1.419950E+0	1.427979E+0	1.406435E+0	1.516772E+0	1.415724E+0	1.392802E+0	1.431610E+0	1.407487E+0	1.359402E+0	1.328239E+0	1.341066E+0	1.405586E+0	1.408311E+0	1.370558E+0	1.445487E+0	1.437485E+0	1.364526E+0
5.417760E+2	1.314998E+0	1.198805E+0	1.267429E+0	1.212145E+0	1.278735E+0	1.224469E+0	1.202067E+0	1.260296E+0	1.270477E+0	1.266756E+0	1.186931E+0	1.249836E+0	1.283252E+0	1.218764E+0	1.254728E+0	1.254002E+0	1.231515E+0	1.229837E+0	1.197322E+0	1.214401E+0	1.257140E+0	1.197370E+0	1.180940E+0	1.213800E+0	1.273664E+0	1.220107E+0	1.216574E+0	1.178108E+0	1.213901E+0	1.211283E+0	1.243930E+0	1.238369E+0	1.218553E+0	1.243609E+0	1.268649E+0	1.255122E+0	1.215425E+0	1.206009E+0	1.160949E+0	1.181431E+0	1.225040E+0	1.258752E+0	1.150231E+0	1.243511E+0	1.218010E+0	1.276789E+0	1.218046E+0	1.201374E+0	1.191291E+0	1.285351E+0	1.225500E+0	1.240813E+0	1.199787E+0	1.227217E+0	1.225234E+0	1.313756E+0	1.250002E+0	1.292488E+0	1.191617E+0	1.243146E+0	1.215441E+0	1.248155E+0	1.243461E+0	1.221373E+0	1.262049E+0	1.220273E+0	1.233146E+0	1.186852E+0	1.217483E+0	1.215847E+0	1.217017E+0	1.202834E+0	1.235859E+0	1.251535E+0	1.217624E+0	1.238005E+0	1.246723E+0	1.214017E+0	1.217851E+0	1.241394E+0	1.216182E+0	1.207193E+0	1.211382E+0	1.242488E+0	1.219073E+0	1.251427E+0	1.197830E+0	1.202381E+0	1.213972E+0	1.254988E+0	1.233093E+0	1.236662E+0	1.213988E+0	1.226717E+0	1.191341E+0	1.249349E+0	1.212423E+0	1.196470E+0	1.237529E+0	1.260044E+0	1.256452E+0	1.209943E+0	1.208675E+0	1.208795E+0	1.236945E+0	1.224741E+0	1.195888E+0	1.219788E+0	1.242483E+0	1.273474E+0	1.224430E+0	1.214021E+0	1.217760E+0	1.246565E+0	1.215284E+0	1.245558E+0	1.195072E+0	1.271075E+0	1.224037E+0	1.186120E+0	1.251620E+0	1.233411E+0	1.216028E+0	1.177513E+0	1.210279E+0	1.200499E+0	1.237548E+0	1.252859E+0	1.226460E+0	1.220336E+0	1.222588E+0	1.229493E+0	1.233777E+0	1.193890E+0	1.219632E+0	1.243037E+0	1.233870E+0	1.211405E+0	1.193210E+0	1.195877E+0	1.204846E+0	1.210559E+0	1.246879E+0	1.267261E+0	1.265830E+0	1.166916E+0	1.200853E+0	1.200922E+0	1.239818E+0	1.231113E+0	1.230458E+0	1.229342E+0	1.226648E+0	1.177964E+0	1.225647E+0	1.202031E+0	1.245985E+0	1.198035E+0	1.230488E+0	1.271128E+0	1.191107E+0	1.212378E+0	1.223714E+0	1.132517E+0	1.254492E+0	1.210640E+0	1.191873E+0	1.241287E+0	1.303099E+0	1.278540E+0
5.420160E+2	1.086721E+0	1.056310E+0	1.084180E+0	1.040684E+0	1.092648E+0	1.080096E+0	1.067551E+0	1.052394E+0	1.075899E+0	1.085681E+0	1.011642E+0	1.083752E+0	1.099862E+0	1.107231E+0	1.053679E+0	1.093202E+0	1.104119E+0	1.075913E+0	1.101084E+0	1.101399E+0	1.070762E+0	1.080679E+0	1.093035E+0	1.010477E+0	1.053527E+0	1.083025E+0	1.043972E+0	1.047461E+0	1.092600E+0	1.076954E+0	1.049253E+0	1.118658E+0	1.110178E+0	1.084738E+0	1.054139E+0	1.047202E+0	1.067038E+0	1.105965E+0	1.081471E+0	1.041305E+0	1.057476E+0	1.113414E+0	1.079086E+0	1.068969E+0	1.090571E+0	1.071781E+0	1.082226E+0	1.081004E+0	1.007375E+0	1.073369E+0	1.061315E+0	1.100705E+0	1.047890E+0	1.086289E+0	1.022889E+0	1.101322E+0	1.075604E+0	1.103309E+0	1.103758E+0	1.085687E+0	1.069272E+0	1.061270E+0	1.091665E+0	1.052002E+0	1.109709E+0	1.048267E+0	1.067989E+0	1.068251E+0	1.051426E+0	1.103080E+0	1.080958E+0	1.099310E+0	1.074258E+0	1.045741E+0	1.052124E+0	1.065980E+0	1.080903E+0	1.097465E+0	1.075928E+0	1.101365E+0	1.099685E+0	1.082319E+0	1.061445E+0	1.077687E+0	1.074667E+0	1.061519E+0	1.072212E+0	1.063617E+0	1.062442E+0	1.045929E+0	1.086645E+0	1.038069E+0	1.050416E+0	1.124942E+0	1.046626E+0	1.106759E+0	1.044779E+0	1.118780E+0	1.110208E+0	1.010378E+0	1.058091E+0	1.061648E+0	1.082649E+0	1.090787E+0	1.095369E+0	1.097698E+0	1.013475E+0	1.098697E+0	1.068560E+0	1.095063E+0	1.079312E+0	1.065593E+0	1.055023E+0	1.081632E+0	1.013275E+0	1.085046E+0	1.102926E+0	1.123111E+0	1.120636E+0	1.036389E+0	1.092538E+0	1.048712E+0	1.104230E+0	1.050710E+0	1.107766E+0	1.072077E+0	1.062919E+0	1.066390E+0	1.044473E+0	1.098761E+0	1.012524E+0	1.102270E+0	1.075782E+0	1.025967E+0	1.042468E+0	1.056556E+0	1.079856E+0	1.106083E+0	1.066940E+0	1.039940E+0	1.053363E+0	1.088431E+0	1.127300E+0	1.089643E+0	1.073962E+0	1.082267E+0	1.038428E+0	1.093997E+0	1.096167E+0	1.057965E+0	1.061235E+0	1.088186E+0	1.046993E+0	1.037700E+0	1.043905E+0	1.061582E+0	1.053432E+0	1.059992E+0	1.064315E+0	1.058452E+0	1.087746E+0	1.048144E+0	1.048786E+0	1.046682E+0	1.073500E+0	1.026480E+0	1.094917E+0	1.063673E+0	1.070795E+0	1.084398E+0
5.422670E+2	1.024260E+0	9.640744E-1	9.768174E-1	9.547512E-1	1.025907E+0	9.784835E-1	9.794720E-1	9.925689E-1	9.653952E-1	9.731232E-1	9.702929E-1	9.977910E-1	9.509023E-1	9.689808E-1	9.660687E-1	9.846298E-1	9.123509E-1	9.583513E-1	9.603066E-1	1.024303E+0	9.607702E-1	9.781587E-1	9.622358E-1	9.725691E-1	9.899501E-1	9.824780E-1	9.943438E-1	1.001118E+0	1.009469E+0	9.920472E-1	1.026529E+0	9.695063E-1	1.009499E+0	9.547123E-1	9.558924E-1	9.871604E-1	9.565757E-1	9.973591E-1	9.669558E-1	9.422688E-1	9.748067E-1	9.923943E-1	9.494560E-1	1.016546E+0	9.641793E-1	1.026154E+0	9.811606E-1	9.644409E-1	9.799008E-1	1.006834E+0	9.703056E-1	1.002693E+0	9.592496E-1	9.975361E-1	9.331343E-1	9.642601E-1	1.006174E+0	9.905739E-1	1.002803E+0	9.480310E-1	9.225043E-1	9.939626E-1	1.009267E+0	9.500268E-1	1.013635E+0	9.869558E-1	9.988792E-1	9.779807E-1	9.692437E-1	1.009777E+0	1.010762E+0	9.928315E-1	9.735576E-1	9.743820E-1	9.625474E-1	9.820980E-1	9.740133E-1	9.663298E-1	9.660624E-1	9.219872E-1	9.351924E-1	9.678458E-1	1.002147E+0	9.903638E-1	9.389155E-1	1.014351E+0	9.246316E-1	9.480372E-1	9.753872E-1	9.652213E-1	9.609553E-1	9.668044E-1	9.771015E-1	9.633127E-1	9.613457E-1	9.818920E-1	9.725084E-1	1.015537E+0	9.729865E-1	9.462479E-1	9.886992E-1	9.902764E-1	9.644128E-1	9.900579E-1	9.963065E-1	9.875760E-1	9.604120E-1	9.585577E-1	9.916452E-1	9.393943E-1	9.584479E-1	9.484927E-1	9.621369E-1	9.987878E-1	9.583873E-1	1.000357E+0	1.015894E+0	1.007279E+0	9.534652E-1	9.521050E-1	9.778307E-1	9.488310E-1	9.399970E-1	9.852044E-1	9.625172E-1	9.963021E-1	9.622604E-1	9.134810E-1	9.786411E-1	1.009211E+0	9.611129E-1	9.429703E-1	9.967094E-1	1.009843E+0	9.792116E-1	9.608851E-1	9.993891E-1	9.758815E-1	9.894370E-1	1.006591E+0	9.494757E-1	9.463683E-1	9.827774E-1	1.032490E+0	1.016811E+0	9.990804E-1	9.742675E-1	1.033165E+0	9.641803E-1	9.860912E-1	9.707849E-1	9.633411E-1	9.594350E-1	9.579570E-1	1.016653E+0	9.173022E-1	9.998395E-1	9.587742E-1	9.485149E-1	9.847943E-1	9.363593E-1	9.704210E-1	9.866279E-1	9.642712E-1	1.016441E+0	1.003522E+0	1.026399E+0	9.674218E-1	9.980937E-1	9.725436E-1
5.425300E+2	9.679670E-1	9.277450E-1	9.188287E-1	1.023939E+0	9.560529E-1	9.434277E-1	9.070743E-1	9.733692E-1	1.007425E+0	1.017119E+0	9.816373E-1	9.717571E-1	9.629661E-1	9.866815E-1	9.684565E-1	9.766364E-1	9.613597E-1	9.827225E-1	9.559552E-1	9.490510E-1	9.474024E-1	9.951550E-1	9.641181E-1	9.743356E-1	1.009646E+0	1.005997E+0	1.013378E+0	9.885246E-1	9.604934E-1	1.036925E+0	9.596489E-1	9.927718E-1	1.008953E+0	1.008590E+0	9.773403E-1	9.944020E-1	9.542581E-1	9.985989E-1	9.569011E-1	9.593473E-1	9.762099E-1	9.569601E-1	9.627806E-1	9.671239E-1	9.918383E-1	9.649395E-1	1.023313E+0	9.651254E-1	9.134723E-1	9.784617E-1	1.042551E+0	9.477112E-1	9.574266E-1	9.722019E-1	9.649373E-1	9.671701E-1	1.025590E+0	1.001066E+0	9.720790E-1	9.872140E-1	9.798549E-1	1.002040E+0	1.008967E+0	9.887296E-1	1.012425E+0	9.819565E-1	9.506465E-1	9.181765E-1	9.048858E-1	9.789138E-1	9.877856E-1	9.723968E-1	9.432151E-1	9.628913E-1	9.482086E-1	9.518725E-1	1.022772E+0	9.210797E-1	9.650034E-1	9.585445E-1	1.000138E+0	1.008198E+0	9.887938E-1	9.151653E-1	9.584929E-1	9.541831E-1	9.467049E-1	9.426729E-1	9.678738E-1	9.657471E-1	9.826112E-1	9.403696E-1	9.537689E-1	9.489691E-1	9.571293E-1	9.509721E-1	9.283018E-1	9.836538E-1	9.479442E-1	9.325807E-1	9.598509E-1	9.461975E-1	9.263246E-1	9.731182E-1	9.494777E-1	9.636953E-1	9.773429E-1	9.672760E-1	9.690580E-1	1.025274E+0	9.310638E-1	9.520168E-1	9.385955E-1	9.832309E-1	9.274634E-1	9.806399E-1	9.581494E-1	9.615166E-1	9.561695E-1	9.523067E-1	9.662639E-1	9.572015E-1	9.267718E-1	9.520452E-1	9.536410E-1	9.970423E-1	9.699847E-1	9.569813E-1	9.832388E-1	1.020446E+0	9.962335E-1	9.604668E-1	9.899339E-1	9.793360E-1	9.488628E-1	9.736352E-1	9.742721E-1	9.912972E-1	9.851326E-1	9.633468E-1	9.520839E-1	9.602211E-1	9.830259E-1	9.624559E-1	9.906163E-1	9.763462E-1	1.007979E+0	9.268770E-1	9.627962E-1	9.949779E-1	9.658565E-1	9.898639E-1	9.532637E-1	9.870273E-1	9.670906E-1	9.391172E-1	9.443227E-1	9.413087E-1	9.811444E-1	9.647205E-1	9.364296E-1	9.394696E-1	9.459429E-1	9.770301E-1	9.558504E-1	9.606042E-1	9.368325E-1	9.161545E-1	9.346074E-1	1.004359E+0
5.427650E+2	1.119576E+0	1.033302E+0	9.997609E-1	9.870711E-1	1.027454E+0	1.015550E+0	9.954659E-1	1.030309E+0	1.025643E+0	1.059536E+0	9.972179E-1	1.042797E+0	1.026212E+0	1.043794E+0	1.006280E+0	1.063130E+0	1.070540E+0	1.012964E+0	1.037007E+0	1.065348E+0	9.715792E-1	1.053541E+0	1.033498E+0	1.016633E+0	1.070109E+0	1.077532E+0	1.023038E+0	1.049185E+0	1.095903E+0	1.039303E+0	1.031786E+0	1.052871E+0	1.059704E+0	1.057902E+0	1.082964E+0	1.066718E+0	1.050508E+0	1.041781E+0	1.058135E+0	1.023263E+0	1.028564E+0	1.057163E+0	1.000395E+0	1.048034E+0	1.046143E+0	1.059639E+0	1.034287E+0	1.043268E+0	1.023108E+0	1.095948E+0	1.045906E+0	1.038680E+0	1.088528E+0	9.933176E-1	1.051833E+0	1.029224E+0	1.055963E+0	1.101861E+0	1.088069E+0	1.067813E+0	1.082079E+0	1.064879E+0	1.019125E+0	1.077764E+0	1.068700E+0	1.011942E+0	1.040077E+0	1.003430E+0	1.008939E+0	1.049754E+0	1.007091E+0	1.041660E+0	1.033882E+0	1.094577E+0	1.068190E+0	9.710038E-1	1.060393E+0	1.036175E+0	1.049104E+0	1.034118E+0	1.042151E+0	1.063595E+0	1.034404E+0	1.043354E+0	1.065974E+0	1.061062E+0	1.006426E+0	1.026150E+0	1.060534E+0	1.000304E+0	1.061588E+0	1.086928E+0	1.024432E+0	1.025634E+0	1.056740E+0	1.037818E+0	9.972805E-1	9.833534E-1	1.035212E+0	1.005825E+0	1.007379E+0	1.012401E+0	1.078985E+0	1.094639E+0	1.082611E+0	1.028275E+0	1.058220E+0	1.094581E+0	1.010468E+0	1.047695E+0	9.967327E-1	1.023523E+0	1.020963E+0	1.029840E+0	1.023310E+0	1.077774E+0	1.042684E+0	1.060488E+0	1.006198E+0	1.012418E+0	1.038333E+0	1.011140E+0	1.018726E+0	1.054903E+0	1.043271E+0	1.005578E+0	1.042420E+0	1.041964E+0	1.073382E+0	1.061486E+0	1.031607E+0	9.904782E-1	1.071124E+0	1.081099E+0	1.003360E+0	1.048069E+0	1.070585E+0	1.083808E+0	1.022724E+0	1.037409E+0	1.005012E+0	1.014202E+0	1.060648E+0	1.070435E+0	1.056147E+0	1.011182E+0	1.031619E+0	1.032735E+0	1.001873E+0	1.024850E+0	1.049623E+0	1.027120E+0	1.032952E+0	1.029240E+0	1.078645E+0	1.045442E+0	1.020713E+0	1.038191E+0	1.056214E+0	1.052924E+0	1.075706E+0	9.656876E-1	9.804109E-1	1.026326E+0	1.043394E+0	1.061939E+0	9.915849E-1	1.083581E+0	1.038808E+0	1.097505E+0
5.430170E+2	1.224597E+0	1.155861E+0	1.121340E+0	1.150325E+0	1.154785E+0	1.152051E+0	1.163041E+0	1.161543E+0	1.179065E+0	1.199390E+0	1.171207E+0	1.150222E+0	1.183560E+0	1.193572E+0	1.202914E+0	1.184364E+0	1.168225E+0	1.196331E+0	1.162990E+0	1.164495E+0	1.134597E+0	1.116445E+0	1.145740E+0	1.173977E+0	1.254375E+0	1.147898E+0	1.249327E+0	1.186001E+0	1.185022E+0	1.170048E+0	1.226715E+0	1.220307E+0	1.214119E+0	1.223553E+0	1.180057E+0	1.235107E+0	1.200425E+0	1.187023E+0	1.165584E+0	1.174715E+0	1.180299E+0	1.208304E+0	1.151605E+0	1.212396E+0	1.166853E+0	1.190043E+0	1.193425E+0	1.200428E+0	1.139400E+0	1.216849E+0	1.144907E+0	1.175176E+0	1.215434E+0	1.171219E+0	1.201003E+0	1.213027E+0	1.223746E+0	1.174753E+0	1.198693E+0	1.167565E+0	1.157609E+0	1.182929E+0	1.178708E+0	1.176903E+0	1.245160E+0	1.143678E+0	1.207089E+0	1.168396E+0	1.160643E+0	1.213487E+0	1.193527E+0	1.199580E+0	1.131453E+0	1.121603E+0	1.210875E+0	1.224438E+0	1.169493E+0	1.171812E+0	1.149612E+0	1.179529E+0	1.192512E+0	1.200806E+0	1.196456E+0	1.160197E+0	1.154200E+0	1.178417E+0	1.170060E+0	1.162366E+0	1.154012E+0	1.132461E+0	1.150996E+0	1.134958E+0	1.174121E+0	1.181730E+0	1.118128E+0	1.157145E+0	1.205976E+0	1.222668E+0	1.182333E+0	1.176544E+0	1.202691E+0	1.149850E+0	1.216463E+0	1.155200E+0	1.205043E+0	1.201278E+0	1.171246E+0	1.224978E+0	1.196361E+0	1.201571E+0	1.172767E+0	1.189380E+0	1.192406E+0	1.171007E+0	1.167279E+0	1.166734E+0	1.185884E+0	1.190510E+0	1.182777E+0	1.166381E+0	1.214107E+0	1.140966E+0	1.152542E+0	1.146112E+0	1.244651E+0	1.145270E+0	1.170278E+0	1.137970E+0	1.150790E+0	1.182588E+0	1.155138E+0	1.160705E+0	1.231220E+0	1.180426E+0	1.146552E+0	1.184064E+0	1.156985E+0	1.183434E+0	1.188310E+0	1.193446E+0	1.180501E+0	1.192515E+0	1.186409E+0	1.168304E+0	1.177056E+0	1.163219E+0	1.149543E+0	1.155729E+0	1.149364E+0	1.158774E+0	1.171748E+0	1.154148E+0	1.144584E+0	1.178649E+0	1.134769E+0	1.217736E+0	1.169793E+0	1.181781E+0	1.162229E+0	1.200442E+0	1.156507E+0	1.190780E+0	1.172281E+0	1.180751E+0	1.155025E+0	1.187289E+0	1.189419E+0	1.117812E+0	1.190147E+0	1.161408E+0
5.432800E+2	1.377761E+0	1.346497E+0	1.284688E+0	1.269791E+0	1.340477E+0	1.362533E+0	1.301672E+0	1.317116E+0	1.358002E+0	1.384219E+0	1.321237E+0	1.312576E+0	1.312330E+0	1.303398E+0	1.316356E+0	1.384836E+0	1.345290E+0	1.357314E+0	1.318107E+0	1.306788E+0	1.339045E+0	1.272874E+0	1.336891E+0	1.305580E+0	1.376989E+0	1.364687E+0	1.355859E+0	1.344981E+0	1.433873E+0	1.359101E+0	1.352900E+0	1.376799E+0	1.337857E+0	1.355751E+0	1.373276E+0	1.278357E+0	1.394901E+0	1.373458E+0	1.334580E+0	1.330587E+0	1.309871E+0	1.315042E+0	1.308915E+0	1.361090E+0	1.388052E+0	1.338831E+0	1.361765E+0	1.352224E+0	1.297247E+0	1.375042E+0	1.382540E+0	1.371704E+0	1.350011E+0	1.342956E+0	1.292544E+0	1.332985E+0	1.298783E+0	1.378374E+0	1.373401E+0	1.333907E+0	1.361492E+0	1.355971E+0	1.345883E+0	1.367593E+0	1.377848E+0	1.345985E+0	1.295011E+0	1.290289E+0	1.342262E+0	1.318147E+0	1.358516E+0	1.285409E+0	1.320795E+0	1.328967E+0	1.308623E+0	1.332165E+0	1.338384E+0	1.322043E+0	1.354472E+0	1.385668E+0	1.381036E+0	1.306847E+0	1.335042E+0	1.257129E+0	1.373760E+0	1.363882E+0	1.239627E+0	1.331863E+0	1.309657E+0	1.356609E+0	1.357386E+0	1.337946E+0	1.289722E+0	1.364686E+0	1.299397E+0	1.330411E+0	1.303160E+0	1.361719E+0	1.294888E+0	1.310732E+0	1.354912E+0	1.324266E+0	1.344806E+0	1.289935E+0	1.348011E+0	1.318597E+0	1.349848E+0	1.354310E+0	1.308332E+0	1.313105E+0	1.302963E+0	1.319038E+0	1.325622E+0	1.359329E+0	1.291618E+0	1.341661E+0	1.318497E+0	1.280707E+0	1.355640E+0	1.314124E+0	1.390803E+0	1.313176E+0	1.348076E+0	1.293540E+0	1.312775E+0	1.292711E+0	1.313535E+0	1.307423E+0	1.365199E+0	1.351105E+0	1.274186E+0	1.312994E+0	1.381457E+0	1.333449E+0	1.270280E+0	1.318401E+0	1.383225E+0	1.379201E+0	1.305056E+0	1.363709E+0	1.323444E+0	1.306563E+0	1.346734E+0	1.348138E+0	1.307790E+0	1.288172E+0	1.280903E+0	1.308088E+0	1.359281E+0	1.355709E+0	1.312191E+0	1.303312E+0	1.295700E+0	1.337671E+0	1.320389E+0	1.284468E+0	1.339908E+0	1.314296E+0	1.330950E+0	1.374986E+0	1.343070E+0	1.315106E+0	1.314815E+0	1.307675E+0	1.304250E+0	1.301837E+0	1.327294E+0	1.353321E+0	1.309230E+0	1.397464E+0
5.435540E+2	1.532209E+0	1.450188E+0	1.468057E+0	1.465735E+0	1.480987E+0	1.479029E+0	1.475179E+0	1.484634E+0	1.491446E+0	1.493592E+0	1.483856E+0	1.489912E+0	1.515863E+0	1.467368E+0	1.474697E+0	1.488844E+0	1.488031E+0	1.549167E+0	1.491668E+0	1.516786E+0	1.470027E+0	1.493425E+0	1.468543E+0	1.519268E+0	1.535730E+0	1.452851E+0	1.408322E+0	1.449638E+0	1.514128E+0	1.519038E+0	1.453073E+0	1.527721E+0	1.463609E+0	1.487470E+0	1.492553E+0	1.525589E+0	1.488424E+0	1.518020E+0	1.460323E+0	1.479959E+0	1.468651E+0	1.485644E+0	1.443050E+0	1.517385E+0	1.514622E+0	1.498641E+0	1.502033E+0	1.494046E+0	1.427006E+0	1.464672E+0	1.471899E+0	1.474636E+0	1.435508E+0	1.486912E+0	1.454481E+0	1.482642E+0	1.441786E+0	1.469099E+0	1.481954E+0	1.474774E+0	1.465693E+0	1.483328E+0	1.529276E+0	1.458968E+0	1.496888E+0	1.432776E+0	1.470360E+0	1.454031E+0	1.432937E+0	1.522938E+0	1.523252E+0	1.460606E+0	1.437061E+0	1.466436E+0	1.493334E+0	1.467195E+0	1.449934E+0	1.488293E+0	1.497007E+0	1.489831E+0	1.427790E+0	1.467910E+0	1.472425E+0	1.435852E+0	1.480777E+0	1.483987E+0	1.433086E+0	1.455382E+0	1.473555E+0	1.453965E+0	1.452512E+0	1.488186E+0	1.490389E+0	1.441714E+0	1.440920E+0	1.439914E+0	1.437018E+0	1.481136E+0	1.421996E+0	1.460908E+0	1.480834E+0	1.461531E+0	1.456144E+0	1.443167E+0	1.452184E+0	1.419694E+0	1.455577E+0	1.560248E+0	1.492576E+0	1.478829E+0	1.501103E+0	1.460190E+0	1.464444E+0	1.484011E+0	1.433987E+0	1.495287E+0	1.485931E+0	1.445356E+0	1.447078E+0	1.456711E+0	1.492448E+0	1.431597E+0	1.411911E+0	1.509415E+0	1.494081E+0	1.453014E+0	1.466576E+0	1.437965E+0	1.448841E+0	1.469559E+0	1.452175E+0	1.497735E+0	1.551046E+0	1.435695E+0	1.429608E+0	1.403060E+0	1.491296E+0	1.444565E+0	1.476263E+0	1.501336E+0	1.458300E+0	1.477608E+0	1.501025E+0	1.437820E+0	1.438993E+0	1.447703E+0	1.461245E+0	1.485052E+0	1.420047E+0	1.460806E+0	1.502548E+0	1.457180E+0	1.422069E+0	1.460272E+0	1.444715E+0	1.455010E+0	1.444864E+0	1.447002E+0	1.493944E+0	1.477603E+0	1.439095E+0	1.452721E+0	1.434022E+0	1.422740E+0	1.453480E+0	1.449669E+0	1.425723E+0	1.461398E+0	1.540078E+0	1.439169E+0
5.437640E+2	1.546555E+0	1.455585E+0	1.566918E+0	1.539543E+0	1.619069E+0	1.556982E+0	1.506342E+0	1.526511E+0	1.580775E+0	1.577337E+0	1.586164E+0	1.567951E+0	1.556284E+0	1.535228E+0	1.514524E+0	1.608643E+0	1.545472E+0	1.573185E+0	1.552902E+0	1.535531E+0	1.519608E+0	1.533978E+0	1.490930E+0	1.594951E+0	1.609443E+0	1.492196E+0	1.572616E+0	1.607117E+0	1.522615E+0	1.540720E+0	1.532064E+0	1.588298E+0	1.535431E+0	1.516752E+0	1.559503E+0	1.547760E+0	1.541311E+0	1.514079E+0	1.461108E+0	1.519150E+0	1.550013E+0	1.563412E+0	1.490154E+0	1.562313E+0	1.529878E+0	1.547974E+0	1.556203E+0	1.555519E+0	1.527221E+0	1.545784E+0	1.513188E+0	1.554310E+0	1.538918E+0	1.558973E+0	1.562250E+0	1.538622E+0	1.560174E+0	1.585797E+0	1.554115E+0	1.562826E+0	1.532637E+0	1.539267E+0	1.574477E+0	1.541948E+0	1.628119E+0	1.597050E+0	1.566116E+0	1.573666E+0	1.529985E+0	1.563221E+0	1.541533E+0	1.551338E+0	1.503556E+0	1.535755E+0	1.559842E+0	1.611245E+0	1.568396E+0	1.533351E+0	1.462291E+0	1.548228E+0	1.515682E+0	1.505131E+0	1.599287E+0	1.545754E+0	1.549943E+0	1.552500E+0	1.481076E+0	1.485973E+0	1.534369E+0	1.493714E+0	1.521668E+0	1.550590E+0	1.544198E+0	1.568243E+0	1.551345E+0	1.547091E+0	1.529989E+0	1.510678E+0	1.541850E+0	1.554966E+0	1.532765E+0	1.464396E+0	1.553170E+0	1.573394E+0	1.582788E+0	1.532104E+0	1.580301E+0	1.515076E+0	1.558698E+0	1.520830E+0	1.497309E+0	1.529964E+0	1.527268E+0	1.537262E+0	1.485917E+0	1.574522E+0	1.517304E+0	1.547828E+0	1.521131E+0	1.501551E+0	1.554299E+0	1.516984E+0	1.500574E+0	1.502712E+0	1.578208E+0	1.511436E+0	1.546923E+0	1.504497E+0	1.518236E+0	1.541524E+0	1.573182E+0	1.578141E+0	1.598369E+0	1.555833E+0	1.541448E+0	1.476172E+0	1.574933E+0	1.525023E+0	1.544184E+0	1.511968E+0	1.495711E+0	1.492285E+0	1.526581E+0	1.528961E+0	1.579892E+0	1.514991E+0	1.495756E+0	1.547410E+0	1.460225E+0	1.478410E+0	1.547165E+0	1.557985E+0	1.509069E+0	1.517435E+0	1.499486E+0	1.519118E+0	1.548090E+0	1.498433E+0	1.511576E+0	1.519181E+0	1.513817E+0	1.510738E+0	1.533564E+0	1.561042E+0	1.542186E+0	1.518692E+0	1.436689E+0	1.563887E+0	1.538113E+0	1.477175E+0
5.440120E+2	1.693139E+0	1.603373E+0	1.668161E+0	1.609195E+0	1.655251E+0	1.640522E+0	1.557973E+0	1.647087E+0	1.642787E+0	1.638865E+0	1.628283E+0	1.586407E+0	1.639791E+0	1.633528E+0	1.621200E+0	1.670842E+0	1.586029E+0	1.675849E+0	1.663363E+0	1.565551E+0	1.660517E+0	1.596834E+0	1.562949E+0	1.682124E+0	1.601122E+0	1.608990E+0	1.577442E+0	1.610871E+0	1.559199E+0	1.607812E+0	1.671456E+0	1.623487E+0	1.518796E+0	1.589480E+0	1.593621E+0	1.648224E+0	1.592484E+0	1.645828E+0	1.571521E+0	1.606176E+0	1.641463E+0	1.642153E+0	1.562491E+0	1.579061E+0	1.658363E+0	1.616642E+0	1.636861E+0	1.641339E+0	1.572491E+0	1.605681E+0	1.549702E+0	1.658506E+0	1.589926E+0	1.628729E+0	1.568601E+0	1.605843E+0	1.582191E+0	1.650496E+0	1.630399E+0	1.611963E+0	1.613225E+0	1.613459E+0	1.636555E+0	1.628723E+0	1.642275E+0	1.569738E+0	1.685424E+0	1.553977E+0	1.620578E+0	1.649376E+0	1.598638E+0	1.599317E+0	1.580154E+0	1.640795E+0	1.628165E+0	1.579254E+0	1.589985E+0	1.551010E+0	1.598437E+0	1.644664E+0	1.605497E+0	1.598662E+0	1.608138E+0	1.584019E+0	1.574918E+0	1.580046E+0	1.558012E+0	1.603968E+0	1.630433E+0	1.567828E+0	1.616736E+0	1.612491E+0	1.608848E+0	1.560615E+0	1.594127E+0	1.641084E+0	1.593210E+0	1.572483E+0	1.627361E+0	1.618370E+0	1.627348E+0	1.498689E+0	1.603476E+0	1.596283E+0	1.600232E+0	1.559991E+0	1.595565E+0	1.617392E+0	1.589181E+0	1.588109E+0	1.570586E+0	1.564613E+0	1.544442E+0	1.635097E+0	1.586483E+0	1.618166E+0	1.568083E+0	1.613706E+0	1.617853E+0	1.580408E+0	1.583319E+0	1.569236E+0	1.569516E+0	1.650035E+0	1.570993E+0	1.590075E+0	1.562422E+0	1.586911E+0	1.612199E+0	1.604362E+0	1.607590E+0	1.549982E+0	1.613806E+0	1.559648E+0	1.550266E+0	1.575645E+0	1.604071E+0	1.575882E+0	1.601641E+0	1.558093E+0	1.598451E+0	1.549860E+0	1.631887E+0	1.632685E+0	1.583840E+0	1.570976E+0	1.618213E+0	1.595579E+0	1.568547E+0	1.613479E+0	1.610922E+0	1.576643E+0	1.558967E+0	1.550196E+0	1.591710E+0	1.615066E+0	1.596578E+0	1.563649E+0	1.619893E+0	1.669788E+0	1.629032E+0	1.543279E+0	1.609956E+0	1.564118E+0	1.629078E+0	1.634656E+0	1.569422E+0	1.542888E+0	1.536106E+0	1.604087E+0
5.442860E+2	1.669098E+0	1.632365E+0	1.689232E+0	1.564048E+0	1.670467E+0	1.647125E+0	1.674496E+0	1.617928E+0	1.615289E+0	1.693964E+0	1.613300E+0	1.644363E+0	1.636162E+0	1.629996E+0	1.614824E+0	1.666358E+0	1.608878E+0	1.597368E+0	1.677924E+0	1.658066E+0	1.618244E+0	1.613934E+0	1.611749E+0	1.602729E+0	1.667552E+0	1.590377E+0	1.613824E+0	1.620010E+0	1.642988E+0	1.614645E+0	1.684012E+0	1.647214E+0	1.601985E+0	1.658126E+0	1.583767E+0	1.641285E+0	1.631112E+0	1.603440E+0	1.603229E+0	1.583472E+0	1.669013E+0	1.665181E+0	1.624484E+0	1.669289E+0	1.571862E+0	1.581920E+0	1.623555E+0	1.635716E+0	1.556571E+0	1.644854E+0	1.654122E+0	1.635768E+0	1.620119E+0	1.599904E+0	1.592125E+0	1.685478E+0	1.676071E+0	1.591831E+0	1.635808E+0	1.631303E+0	1.640551E+0	1.635406E+0	1.620175E+0	1.620687E+0	1.643831E+0	1.625924E+0	1.727966E+0	1.598173E+0	1.608576E+0	1.663604E+0	1.606428E+0	1.581906E+0	1.634270E+0	1.586928E+0	1.645789E+0	1.618777E+0	1.647351E+0	1.597962E+0	1.639230E+0	1.629915E+0	1.628664E+0	1.613930E+0	1.586513E+0	1.589726E+0	1.605335E+0	1.612080E+0	1.577943E+0	1.605228E+0	1.660129E+0	1.631919E+0	1.636356E+0	1.662083E+0	1.634042E+0	1.571076E+0	1.609691E+0	1.577181E+0	1.560179E+0	1.615581E+0	1.644284E+0	1.594997E+0	1.597769E+0	1.583598E+0	1.635434E+0	1.624692E+0	1.652770E+0	1.650964E+0	1.659465E+0	1.574508E+0	1.589812E+0	1.605840E+0	1.594860E+0	1.584011E+0	1.569442E+0	1.596547E+0	1.552337E+0	1.643437E+0	1.633685E+0	1.645295E+0	1.586598E+0	1.561121E+0	1.620987E+0	1.583451E+0	1.579486E+0	1.666364E+0	1.564463E+0	1.553178E+0	1.594366E+0	1.597123E+0	1.575644E+0	1.635785E+0	1.621984E+0	1.586262E+0	1.620998E+0	1.596297E+0	1.625913E+0	1.565501E+0	1.647013E+0	1.618972E+0	1.585220E+0	1.568175E+0	1.621265E+0	1.607372E+0	1.676639E+0	1.573635E+0	1.657328E+0	1.658991E+0	1.633013E+0	1.577680E+0	1.552525E+0	1.622322E+0	1.603705E+0	1.601141E+0	1.618746E+0	1.594655E+0	1.590779E+0	1.593882E+0	1.605844E+0	1.556335E+0	1.608418E+0	1.603735E+0	1.561202E+0	1.557740E+0	1.609838E+0	1.602276E+0	1.614433E+0	1.651529E+0	1.580433E+0	1.569374E+0	1.627282E+0	1.688750E+0
5.445290E+2	1.625372E+0	1.568825E+0	1.601693E+0	1.563160E+0	1.651448E+0	1.615348E+0	1.546352E+0	1.622871E+0	1.602346E+0	1.548405E+0	1.596571E+0	1.623940E+0	1.586417E+0	1.599498E+0	1.625023E+0	1.653993E+0	1.576309E+0	1.606396E+0	1.534092E+0	1.608875E+0	1.600480E+0	1.626309E+0	1.565962E+0	1.617371E+0	1.580365E+0	1.609410E+0	1.572110E+0	1.593590E+0	1.543352E+0	1.603239E+0	1.584281E+0	1.658777E+0	1.576382E+0	1.533792E+0	1.579281E+0	1.627281E+0	1.583898E+0	1.604939E+0	1.571631E+0	1.527388E+0	1.580359E+0	1.601223E+0	1.564620E+0	1.596027E+0	1.552143E+0	1.584821E+0	1.575563E+0	1.512243E+0	1.545323E+0	1.603179E+0	1.570624E+0	1.631122E+0	1.596024E+0	1.603710E+0	1.539325E+0	1.592661E+0	1.631179E+0	1.500847E+0	1.603697E+0	1.654484E+0	1.574838E+0	1.571795E+0	1.593896E+0	1.558612E+0	1.616048E+0	1.523594E+0	1.597060E+0	1.611876E+0	1.584129E+0	1.573914E+0	1.584844E+0	1.604369E+0	1.535067E+0	1.550591E+0	1.572683E+0	1.600634E+0	1.588952E+0	1.588719E+0	1.571272E+0	1.599626E+0	1.590869E+0	1.579347E+0	1.612056E+0	1.523885E+0	1.632990E+0	1.565484E+0	1.533690E+0	1.557696E+0	1.559982E+0	1.531087E+0	1.560421E+0	1.618633E+0	1.571964E+0	1.581101E+0	1.642918E+0	1.609091E+0	1.584747E+0	1.595008E+0	1.574518E+0	1.548514E+0	1.577622E+0	1.562458E+0	1.585009E+0	1.608412E+0	1.617470E+0	1.525265E+0	1.580641E+0	1.576574E+0	1.582462E+0	1.581142E+0	1.589684E+0	1.592455E+0	1.547261E+0	1.593399E+0	1.558091E+0	1.536324E+0	1.550590E+0	1.624812E+0	1.630728E+0	1.570495E+0	1.561631E+0	1.536785E+0	1.569564E+0	1.608970E+0	1.561143E+0	1.583238E+0	1.565051E+0	1.555737E+0	1.592415E+0	1.622329E+0	1.621365E+0	1.520294E+0	1.540379E+0	1.540419E+0	1.554492E+0	1.588385E+0	1.627906E+0	1.570834E+0	1.535496E+0	1.615022E+0	1.514265E+0	1.545953E+0	1.648940E+0	1.573850E+0	1.602606E+0	1.534429E+0	1.501601E+0	1.565762E+0	1.570557E+0	1.587990E+0	1.536767E+0	1.557874E+0	1.534519E+0	1.571244E+0	1.629783E+0	1.595407E+0	1.591635E+0	1.497266E+0	1.577593E+0	1.577981E+0	1.545349E+0	1.549593E+0	1.612500E+0	1.622478E+0	1.591360E+0	1.586336E+0	1.528318E+0	1.515846E+0	1.595352E+0	1.583631E+0
5.447660E+2	1.623723E+0	1.488836E+0	1.531330E+0	1.450774E+0	1.487768E+0	1.514137E+0	1.455773E+0	1.517273E+0	1.464242E+0	1.493792E+0	1.525758E+0	1.536159E+0	1.475108E+0	1.466717E+0	1.501160E+0	1.555253E+0	1.522990E+0	1.524935E+0	1.518890E+0	1.511571E+0	1.507211E+0	1.476708E+0	1.532447E+0	1.501680E+0	1.498581E+0	1.466458E+0	1.468775E+0	1.511207E+0	1.478737E+0	1.489537E+0	1.482965E+0	1.493037E+0	1.489491E+0	1.488929E+0	1.499709E+0	1.553024E+0	1.486459E+0	1.484061E+0	1.501530E+0	1.494884E+0	1.455222E+0	1.502890E+0	1.427713E+0	1.495571E+0	1.487291E+0	1.558056E+0	1.482652E+0	1.527364E+0	1.489502E+0	1.515295E+0	1.498756E+0	1.477936E+0	1.477934E+0	1.498299E+0	1.439552E+0	1.484371E+0	1.497340E+0	1.521083E+0	1.447504E+0	1.519755E+0	1.497371E+0	1.459464E+0	1.480466E+0	1.488286E+0	1.592824E+0	1.472245E+0	1.516235E+0	1.434209E+0	1.462953E+0	1.518674E+0	1.523987E+0	1.452121E+0	1.508645E+0	1.494057E+0	1.533020E+0	1.533819E+0	1.509454E+0	1.472537E+0	1.421928E+0	1.452871E+0	1.521558E+0	1.488591E+0	1.532987E+0	1.563553E+0	1.490060E+0	1.541108E+0	1.471377E+0	1.515110E+0	1.510825E+0	1.484697E+0	1.457746E+0	1.507774E+0	1.453058E+0	1.480168E+0	1.503383E+0	1.532142E+0	1.473331E+0	1.523156E+0	1.471160E+0	1.440998E+0	1.484380E+0	1.483893E+0	1.493157E+0	1.436054E+0	1.467358E+0	1.530008E+0	1.498999E+0	1.504343E+0	1.497383E+0	1.462955E+0	1.454817E+0	1.512495E+0	1.543395E+0	1.493799E+0	1.437275E+0	1.483012E+0	1.478168E+0	1.485391E+0	1.449793E+0	1.442886E+0	1.514783E+0	1.395289E+0	1.483189E+0	1.527057E+0	1.424870E+0	1.468461E+0	1.496127E+0	1.478249E+0	1.503584E+0	1.470774E+0	1.515934E+0	1.457048E+0	1.488572E+0	1.473674E+0	1.483886E+0	1.440896E+0	1.539183E+0	1.455826E+0	1.526234E+0	1.443758E+0	1.487311E+0	1.503663E+0	1.532117E+0	1.533015E+0	1.484566E+0	1.486166E+0	1.491210E+0	1.453675E+0	1.471740E+0	1.468845E+0	1.543857E+0	1.463253E+0	1.433890E+0	1.515052E+0	1.462608E+0	1.504577E+0	1.468006E+0	1.431080E+0	1.498293E+0	1.477970E+0	1.450428E+0	1.500574E+0	1.518430E+0	1.484539E+0	1.477385E+0	1.466850E+0	1.450628E+0	1.424981E+0	1.512774E+0	1.434096E+0
5.450200E+2	1.483398E+0	1.354068E+0	1.386188E+0	1.398520E+0	1.400419E+0	1.489646E+0	1.374216E+0	1.437216E+0	1.375047E+0	1.413089E+0	1.360742E+0	1.426338E+0	1.436911E+0	1.425156E+0	1.451154E+0	1.406335E+0	1.390010E+0	1.376850E+0	1.400898E+0	1.462884E+0	1.394240E+0	1.386127E+0	1.382102E+0	1.396188E+0	1.397227E+0	1.408327E+0	1.398533E+0	1.407087E+0	1.355687E+0	1.407119E+0	1.479818E+0	1.419595E+0	1.400362E+0	1.393953E+0	1.433006E+0	1.415106E+0	1.362964E+0	1.397124E+0	1.359638E+0	1.405187E+0	1.383381E+0	1.413061E+0	1.339277E+0	1.383935E+0	1.364367E+0	1.348495E+0	1.392464E+0	1.430389E+0	1.366385E+0	1.430852E+0	1.407819E+0	1.394838E+0	1.366480E+0	1.375346E+0	1.351123E+0	1.371858E+0	1.404209E+0	1.397651E+0	1.456711E+0	1.427370E+0	1.370918E+0	1.380467E+0	1.355425E+0	1.393246E+0	1.441986E+0	1.380405E+0	1.367731E+0	1.390763E+0	1.355282E+0	1.497569E+0	1.360696E+0	1.354424E+0	1.365475E+0	1.369434E+0	1.368936E+0	1.379469E+0	1.348857E+0	1.405737E+0	1.343023E+0	1.363959E+0	1.353091E+0	1.419775E+0	1.335549E+0	1.392442E+0	1.390202E+0	1.375465E+0	1.377698E+0	1.378580E+0	1.408385E+0	1.389661E+0	1.385616E+0	1.427404E+0	1.390593E+0	1.423931E+0	1.356868E+0	1.418216E+0	1.321047E+0	1.370350E+0	1.402248E+0	1.381913E+0	1.423660E+0	1.397914E+0	1.426598E+0	1.375054E+0	1.367690E+0	1.365334E+0	1.344759E+0	1.429638E+0	1.348991E+0	1.379582E+0	1.386411E+0	1.356792E+0	1.433538E+0	1.392468E+0	1.375131E+0	1.441933E+0	1.415605E+0	1.372316E+0	1.366944E+0	1.388816E+0	1.364317E+0	1.352360E+0	1.409814E+0	1.416364E+0	1.312256E+0	1.334959E+0	1.387296E+0	1.419276E+0	1.367526E+0	1.373642E+0	1.431142E+0	1.426886E+0	1.411954E+0	1.413348E+0	1.355743E+0	1.336762E+0	1.438671E+0	1.365160E+0	1.417013E+0	1.349535E+0	1.388535E+0	1.351756E+0	1.357127E+0	1.401392E+0	1.422573E+0	1.385619E+0	1.377524E+0	1.337461E+0	1.372042E+0	1.417279E+0	1.406472E+0	1.377283E+0	1.353442E+0	1.388230E+0	1.379747E+0	1.414801E+0	1.414097E+0	1.415409E+0	1.425376E+0	1.383159E+0	1.415720E+0	1.367835E+0	1.462178E+0	1.363145E+0	1.428874E+0	1.399498E+0	1.394431E+0	1.461054E+0	1.332116E+0	1.267399E+0
5.452740E+2	1.385846E+0	1.290583E+0	1.287926E+0	1.309094E+0	1.343267E+0	1.346891E+0	1.291485E+0	1.329433E+0	1.288087E+0	1.360847E+0	1.284440E+0	1.334954E+0	1.340526E+0	1.406744E+0	1.341839E+0	1.379263E+0	1.343704E+0	1.392606E+0	1.376714E+0	1.305280E+0	1.316265E+0	1.332251E+0	1.314131E+0	1.311945E+0	1.293720E+0	1.348281E+0	1.265006E+0	1.332231E+0	1.330916E+0	1.294436E+0	1.342853E+0	1.338565E+0	1.316836E+0	1.304412E+0	1.271762E+0	1.300887E+0	1.295332E+0	1.294102E+0	1.268858E+0	1.301708E+0	1.304533E+0	1.283382E+0	1.333432E+0	1.327991E+0	1.331312E+0	1.335691E+0	1.331282E+0	1.325982E+0	1.293898E+0	1.348127E+0	1.327997E+0	1.357618E+0	1.330948E+0	1.288620E+0	1.255978E+0	1.335488E+0	1.311257E+0	1.320712E+0	1.356613E+0	1.366819E+0	1.311415E+0	1.296581E+0	1.324108E+0	1.346936E+0	1.301285E+0	1.333708E+0	1.296193E+0	1.371639E+0	1.335397E+0	1.329121E+0	1.339600E+0	1.314099E+0	1.279187E+0	1.288131E+0	1.289857E+0	1.352869E+0	1.345708E+0	1.317887E+0	1.300744E+0	1.293068E+0	1.313357E+0	1.385382E+0	1.319545E+0	1.284225E+0	1.338941E+0	1.314226E+0	1.322474E+0	1.308508E+0	1.345000E+0	1.319398E+0	1.290697E+0	1.342197E+0	1.243809E+0	1.305961E+0	1.306419E+0	1.306787E+0	1.316423E+0	1.294037E+0	1.358534E+0	1.281126E+0	1.342077E+0	1.283349E+0	1.390862E+0	1.255240E+0	1.305124E+0	1.309092E+0	1.310085E+0	1.318762E+0	1.319841E+0	1.312369E+0	1.311327E+0	1.330502E+0	1.304958E+0	1.267295E+0	1.270657E+0	1.319641E+0	1.304858E+0	1.282054E+0	1.301921E+0	1.299154E+0	1.358299E+0	1.286500E+0	1.238517E+0	1.326220E+0	1.285759E+0	1.315105E+0	1.330779E+0	1.256534E+0	1.323669E+0	1.309810E+0	1.291284E+0	1.340627E+0	1.323716E+0	1.336333E+0	1.276694E+0	1.293412E+0	1.352206E+0	1.319509E+0	1.303461E+0	1.266478E+0	1.311846E+0	1.288347E+0	1.343675E+0	1.350002E+0	1.325497E+0	1.289182E+0	1.257660E+0	1.325906E+0	1.307551E+0	1.310537E+0	1.328067E+0	1.296850E+0	1.291286E+0	1.341576E+0	1.312747E+0	1.345515E+0	1.274697E+0	1.288524E+0	1.307852E+0	1.354868E+0	1.330138E+0	1.254683E+0	1.274957E+0	1.310640E+0	1.320894E+0	1.294581E+0	1.269500E+0	1.289474E+0	1.300198E+0	1.364167E+0
5.455290E+2	1.275662E+0	1.271025E+0	1.255461E+0	1.234079E+0	1.272561E+0	1.241311E+0	1.230981E+0	1.297450E+0	1.296185E+0	1.263172E+0	1.221284E+0	1.261265E+0	1.272791E+0	1.265632E+0	1.215028E+0	1.300238E+0	1.227887E+0	1.276634E+0	1.262025E+0	1.245674E+0	1.226265E+0	1.242110E+0	1.242944E+0	1.255703E+0	1.267057E+0	1.232840E+0	1.265796E+0	1.249021E+0	1.242839E+0	1.285445E+0	1.305964E+0	1.246696E+0	1.262566E+0	1.261137E+0	1.225089E+0	1.230096E+0	1.275452E+0	1.253731E+0	1.199923E+0	1.227925E+0	1.250807E+0	1.298789E+0	1.238191E+0	1.225290E+0	1.233523E+0	1.289402E+0	1.255286E+0	1.264649E+0	1.214133E+0	1.213753E+0	1.256326E+0	1.236024E+0	1.265301E+0	1.234575E+0	1.232862E+0	1.257437E+0	1.216546E+0	1.237554E+0	1.245375E+0	1.318360E+0	1.282846E+0	1.322165E+0	1.283729E+0	1.250992E+0	1.273582E+0	1.182895E+0	1.241658E+0	1.251447E+0	1.241906E+0	1.257892E+0	1.235060E+0	1.266395E+0	1.270095E+0	1.251150E+0	1.227902E+0	1.269655E+0	1.249629E+0	1.211141E+0	1.274295E+0	1.315449E+0	1.233912E+0	1.253882E+0	1.258843E+0	1.248856E+0	1.219678E+0	1.229590E+0	1.225764E+0	1.204445E+0	1.233246E+0	1.226006E+0	1.252846E+0	1.277164E+0	1.231328E+0	1.237815E+0	1.244287E+0	1.303379E+0	1.247607E+0	1.265249E+0	1.227189E+0	1.267304E+0	1.288949E+0	1.198408E+0	1.238635E+0	1.223241E+0	1.235891E+0	1.239411E+0	1.232054E+0	1.278700E+0	1.267722E+0	1.190135E+0	1.250881E+0	1.238968E+0	1.195182E+0	1.254664E+0	1.220756E+0	1.252170E+0	1.285671E+0	1.251385E+0	1.211188E+0	1.284339E+0	1.286611E+0	1.249802E+0	1.206700E+0	1.251525E+0	1.261332E+0	1.252192E+0	1.235789E+0	1.270343E+0	1.276148E+0	1.228707E+0	1.253448E+0	1.281485E+0	1.283318E+0	1.261475E+0	1.259511E+0	1.259846E+0	1.274199E+0	1.269104E+0	1.198339E+0	1.250245E+0	1.221808E+0	1.233252E+0	1.237477E+0	1.284119E+0	1.269266E+0	1.221609E+0	1.211450E+0	1.247486E+0	1.231065E+0	1.266274E+0	1.250400E+0	1.201325E+0	1.264400E+0	1.232445E+0	1.216803E+0	1.216931E+0	1.213642E+0	1.230799E+0	1.225700E+0	1.227963E+0	1.251039E+0	1.237116E+0	1.280166E+0	1.221290E+0	1.205515E+0	1.234693E+0	1.184560E+0	1.286259E+0	1.237063E+0	1.270013E+0
5.457990E+2	1.311898E+0	1.198795E+0	1.217025E+0	1.202183E+0	1.236931E+0	1.248808E+0	1.185402E+0	1.240719E+0	1.226186E+0	1.273850E+0	1.204037E+0	1.287101E+0	1.230320E+0	1.233326E+0	1.254411E+0	1.263186E+0	1.224522E+0	1.198450E+0	1.256417E+0	1.211067E+0	1.191288E+0	1.245603E+0	1.178653E+0	1.221816E+0	1.257393E+0	1.194209E+0	1.244490E+0	1.240523E+0	1.248203E+0	1.292616E+0	1.217220E+0	1.242736E+0	1.238401E+0	1.195319E+0	1.280481E+0	1.225295E+0	1.248202E+0	1.210872E+0	1.182011E+0	1.199653E+0	1.229141E+0	1.277060E+0	1.189293E+0	1.254616E+0	1.173780E+0	1.240863E+0	1.214626E+0	1.269191E+0	1.247765E+0	1.218724E+0	1.226875E+0	1.261089E+0	1.229079E+0	1.216432E+0	1.227264E+0	1.247658E+0	1.261408E+0	1.309210E+0	1.221508E+0	1.295556E+0	1.294397E+0	1.199757E+0	1.253743E+0	1.250341E+0	1.255503E+0	1.180226E+0	1.228238E+0	1.198102E+0	1.278463E+0	1.247260E+0	1.246154E+0	1.178326E+0	1.233057E+0	1.226044E+0	1.204264E+0	1.223222E+0	1.247282E+0	1.258993E+0	1.247588E+0	1.212562E+0	1.227644E+0	1.222259E+0	1.267219E+0	1.289428E+0	1.243986E+0	1.236520E+0	1.199471E+0	1.181719E+0	1.231159E+0	1.240944E+0	1.206572E+0	1.249311E+0	1.246796E+0	1.223758E+0	1.229064E+0	1.218999E+0	1.259466E+0	1.221458E+0	1.175715E+0	1.196220E+0	1.222812E+0	1.193557E+0	1.169028E+0	1.230628E+0	1.230875E+0	1.219383E+0	1.207707E+0	1.213472E+0	1.256177E+0	1.230516E+0	1.205433E+0	1.218109E+0	1.193775E+0	1.243750E+0	1.157350E+0	1.209528E+0	1.210559E+0	1.277030E+0	1.174280E+0	1.247624E+0	1.216659E+0	1.187035E+0	1.233947E+0	1.268909E+0	1.281495E+0	1.201253E+0	1.238416E+0	1.202319E+0	1.260924E+0	1.193557E+0	1.257379E+0	1.229450E+0	1.217508E+0	1.226745E+0	1.253734E+0	1.233827E+0	1.231206E+0	1.221485E+0	1.241880E+0	1.208272E+0	1.170069E+0	1.190799E+0	1.246690E+0	1.265014E+0	1.245641E+0	1.207850E+0	1.245322E+0	1.248304E+0	1.208502E+0	1.259539E+0	1.192653E+0	1.269808E+0	1.234776E+0	1.213550E+0	1.220715E+0	1.208727E+0	1.229257E+0	1.184334E+0	1.257503E+0	1.178530E+0	1.223564E+0	1.184456E+0	1.183331E+0	1.204471E+0	1.273696E+0	1.199011E+0	1.216990E+0	1.222835E+0	1.298194E+0	1.250081E+0
5.460060E+2	1.216929E+0	1.255009E+0	1.223046E+0	1.195102E+0	1.233938E+0	1.199091E+0	1.132904E+0	1.228092E+0	1.242808E+0	1.174761E+0	1.209561E+0	1.250995E+0	1.234440E+0	1.197214E+0	1.204562E+0	1.214706E+0	1.179256E+0	1.189843E+0	1.215689E+0	1.253160E+0	1.187633E+0	1.215518E+0	1.236941E+0	1.217240E+0	1.250987E+0	1.237245E+0	1.225509E+0	1.270826E+0	1.221065E+0	1.246074E+0	1.244276E+0	1.234699E+0	1.174470E+0	1.208277E+0	1.212371E+0	1.272414E+0	1.242237E+0	1.251517E+0	1.191212E+0	1.213680E+0	1.186564E+0	1.233961E+0	1.169134E+0	1.233737E+0	1.227167E+0	1.176443E+0	1.155793E+0	1.195942E+0	1.170124E+0	1.213634E+0	1.202023E+0	1.268911E+0	1.245000E+0	1.243240E+0	1.190443E+0	1.229665E+0	1.239275E+0	1.172440E+0	1.229889E+0	1.211879E+0	1.230244E+0	1.190576E+0	1.230523E+0	1.225298E+0	1.217862E+0	1.185868E+0	1.217705E+0	1.188558E+0	1.171896E+0	1.185162E+0	1.203141E+0	1.184766E+0	1.212589E+0	1.191907E+0	1.169942E+0	1.164367E+0	1.203142E+0	1.221072E+0	1.189872E+0	1.202413E+0	1.225635E+0	1.212707E+0	1.234573E+0	1.201389E+0	1.277609E+0	1.222697E+0	1.179396E+0	1.207357E+0	1.223361E+0	1.197649E+0	1.202316E+0	1.245660E+0	1.180942E+0	1.201828E+0	1.235468E+0	1.268472E+0	1.163404E+0	1.279946E+0	1.212846E+0	1.202720E+0	1.185724E+0	1.203600E+0	1.172678E+0	1.210297E+0	1.246596E+0	1.210621E+0	1.201761E+0	1.201582E+0	1.204754E+0	1.192320E+0	1.190520E+0	1.225143E+0	1.218817E+0	1.187961E+0	1.135550E+0	1.203056E+0	1.185652E+0	1.197603E+0	1.194928E+0	1.163095E+0	1.206474E+0	1.191926E+0	1.141206E+0	1.209330E+0	1.200521E+0	1.199413E+0	1.157643E+0	1.208928E+0	1.198466E+0	1.243365E+0	1.206923E+0	1.190357E+0	1.227842E+0	1.178098E+0	1.188204E+0	1.154490E+0	1.211849E+0	1.193957E+0	1.213167E+0	1.234127E+0	1.224146E+0	1.163201E+0	1.167844E+0	1.244880E+0	1.201445E+0	1.227807E+0	1.213801E+0	1.249028E+0	1.179719E+0	1.219821E+0	1.115692E+0	1.209700E+0	1.201137E+0	1.193521E+0	1.157248E+0	1.209865E+0	1.206067E+0	1.147474E+0	1.221642E+0	1.294038E+0	1.231254E+0	1.217481E+0	1.218565E+0	1.214592E+0	1.195993E+0	1.166960E+0	1.210260E+0	1.220545E+0	1.265278E+0	1.251675E+0
5.467710E+2	1.298030E+0	1.193201E+0	1.236198E+0	1.239880E+0	1.312256E+0	1.249254E+0	1.267642E+0	1.262099E+0	1.244700E+0	1.287921E+0	1.271306E+0	1.281865E+0	1.275160E+0	1.277888E+0	1.268013E+0	1.273600E+0	1.226400E+0	1.320056E+0	1.274258E+0	1.259545E+0	1.244425E+0	1.256588E+0	1.214361E+0	1.245044E+0	1.267089E+0	1.249346E+0	1.270279E+0	1.199306E+0	1.270498E+0	1.287997E+0	1.251527E+0	1.314900E+0	1.256476E+0	1.290950E+0	1.265574E+0	1.309893E+0	1.275861E+0	1.291855E+0	1.238226E+0	1.295182E+0	1.285326E+0	1.246292E+0	1.247491E+0	1.262744E+0	1.272903E+0	1.268907E+0	1.264134E+0	1.288958E+0	1.253610E+0	1.297897E+0	1.248966E+0	1.287506E+0	1.225951E+0	1.294328E+0	1.248717E+0	1.304867E+0	1.262149E+0	1.241320E+0	1.248643E+0	1.284097E+0	1.266725E+0	1.290758E+0	1.232550E+0	1.304161E+0	1.262988E+0	1.213361E+0	1.208506E+0	1.256259E+0	1.280171E+0	1.286953E+0	1.232639E+0	1.269739E+0	1.292268E+0	1.214761E+0	1.231407E+0	1.235258E+0	1.251122E+0	1.208097E+0	1.270031E+0	1.247742E+0	1.219554E+0	1.298585E+0	1.249002E+0	1.272089E+0	1.367090E+0	1.258910E+0	1.211128E+0	1.229709E+0	1.272205E+0	1.222715E+0	1.258981E+0	1.307168E+0	1.255891E+0	1.222637E+0	1.227292E+0	1.226123E+0	1.277990E+0	1.258050E+0	1.256701E+0	1.232022E+0	1.269532E+0	1.279137E+0	1.254635E+0	1.239952E+0	1.274678E+0	1.290800E+0	1.301248E+0	1.270203E+0	1.254151E+0	1.233962E+0	1.164173E+0	1.194744E+0	1.234518E+0	1.269430E+0	1.222657E+0	1.232900E+0	1.267323E+0	1.284171E+0	1.259474E+0	1.232977E+0	1.323512E+0	1.226489E+0	1.194761E+0	1.281728E+0	1.242636E+0	1.235625E+0	1.264377E+0	1.246565E+0	1.287090E+0	1.277552E+0	1.247623E+0	1.187678E+0	1.300393E+0	1.272127E+0	1.259460E+0	1.271070E+0	1.273394E+0	1.243261E+0	1.238208E+0	1.241415E+0	1.292219E+0	1.277766E+0	1.251968E+0	1.252532E+0	1.230352E+0	1.204499E+0	1.210699E+0	1.243595E+0	1.278519E+0	1.285765E+0	1.240025E+0	1.270866E+0	1.298698E+0	1.277439E+0	1.236275E+0	1.281006E+0	1.274833E+0	1.285772E+0	1.241665E+0	1.271038E+0	1.241364E+0	1.272877E+0	1.244337E+0	1.228919E+0	1.306937E+0	1.208438E+0	1.213869E+0	1.275742E+0	1.264782E+0	1.273723E+0
5.475120E+2	1.437752E+0	1.273723E+0	1.392248E+0	1.348905E+0	1.394595E+0	1.339663E+0	1.402880E+0	1.324110E+0	1.300093E+0	1.335345E+0	1.304339E+0	1.344750E+0	1.346067E+0	1.335261E+0	1.368889E+0	1.329983E+0	1.316466E+0	1.360681E+0	1.343112E+0	1.328562E+0	1.321702E+0	1.368339E+0	1.299329E+0	1.350734E+0	1.372530E+0	1.323938E+0	1.360980E+0	1.376789E+0	1.403741E+0	1.325752E+0	1.342488E+0	1.373048E+0	1.401391E+0	1.364968E+0	1.422983E+0	1.380467E+0	1.336471E+0	1.420114E+0	1.385986E+0	1.312119E+0	1.360828E+0	1.346274E+0	1.339846E+0	1.339466E+0	1.340917E+0	1.350562E+0	1.331573E+0	1.350866E+0	1.288000E+0	1.388408E+0	1.333542E+0	1.333092E+0	1.355491E+0	1.322209E+0	1.337067E+0	1.359897E+0	1.354027E+0	1.357095E+0	1.364747E+0	1.422632E+0	1.367724E+0	1.348091E+0	1.405853E+0	1.355872E+0	1.401468E+0	1.342361E+0	1.343856E+0	1.345919E+0	1.357735E+0	1.311650E+0	1.336570E+0	1.318959E+0	1.370380E+0	1.335674E+0	1.323574E+0	1.391909E+0	1.384068E+0	1.310290E+0	1.277623E+0	1.397440E+0	1.337587E+0	1.373817E+0	1.387039E+0	1.343359E+0	1.365474E+0	1.350866E+0	1.295641E+0	1.340057E+0	1.349828E+0	1.295727E+0	1.360214E+0	1.377631E+0	1.315254E+0	1.394102E+0	1.340078E+0	1.380087E+0	1.321377E+0	1.383451E+0	1.382139E+0	1.316390E+0	1.359683E+0	1.254779E+0	1.366369E+0	1.357092E+0	1.392735E+0	1.328343E+0	1.395103E+0	1.317883E+0	1.314530E+0	1.351391E+0	1.336226E+0	1.343812E+0	1.354587E+0	1.303247E+0	1.375265E+0	1.375297E+0	1.371676E+0	1.342942E+0	1.346586E+0	1.386051E+0	1.426008E+0	1.318221E+0	1.311892E+0	1.317313E+0	1.354525E+0	1.367334E+0	1.340354E+0	1.328650E+0	1.331109E+0	1.389168E+0	1.306749E+0	1.331219E+0	1.356252E+0	1.304494E+0	1.312164E+0	1.346325E+0	1.378974E+0	1.326637E+0	1.364479E+0	1.271907E+0	1.367287E+0	1.373366E+0	1.324222E+0	1.427925E+0	1.352812E+0	1.289713E+0	1.311299E+0	1.346182E+0	1.347549E+0	1.366091E+0	1.340987E+0	1.307382E+0	1.308142E+0	1.334863E+0	1.327804E+0	1.352549E+0	1.344080E+0	1.349597E+0	1.318261E+0	1.373067E+0	1.285318E+0	1.368150E+0	1.318145E+0	1.299614E+0	1.375921E+0	1.315455E+0	1.256159E+0	1.316397E+0	1.375816E+0	1.302253E+0
5.482600E+2	1.479860E+0	1.368971E+0	1.402834E+0	1.395318E+0	1.497780E+0	1.371159E+0	1.380525E+0	1.449765E+0	1.443874E+0	1.413309E+0	1.421033E+0	1.374277E+0	1.432455E+0	1.474935E+0	1.475548E+0	1.478448E+0	1.450851E+0	1.391433E+0	1.411275E+0	1.408394E+0	1.426479E+0	1.419158E+0	1.449241E+0	1.434569E+0	1.409357E+0	1.457108E+0	1.398603E+0	1.405414E+0	1.498529E+0	1.441782E+0	1.353459E+0	1.408555E+0	1.394653E+0	1.405521E+0	1.462065E+0	1.408875E+0	1.404692E+0	1.462859E+0	1.391450E+0	1.377973E+0	1.377858E+0	1.490487E+0	1.391005E+0	1.353745E+0	1.410620E+0	1.399906E+0	1.422862E+0	1.385401E+0	1.404537E+0	1.476755E+0	1.433845E+0	1.426756E+0	1.359788E+0	1.465632E+0	1.375205E+0	1.467851E+0	1.499482E+0	1.410452E+0	1.395565E+0	1.456353E+0	1.475926E+0	1.466453E+0	1.482385E+0	1.399362E+0	1.433791E+0	1.444431E+0	1.457153E+0	1.386992E+0	1.433076E+0	1.430881E+0	1.432029E+0	1.420462E+0	1.382264E+0	1.407880E+0	1.433249E+0	1.436305E+0	1.415851E+0	1.414455E+0	1.375760E+0	1.424725E+0	1.437429E+0	1.456770E+0	1.439139E+0	1.381084E+0	1.506261E+0	1.447296E+0	1.414318E+0	1.349080E+0	1.428997E+0	1.365717E+0	1.442327E+0	1.440357E+0	1.443580E+0	1.431734E+0	1.419221E+0	1.446930E+0	1.386010E+0	1.428505E+0	1.435572E+0	1.376082E+0	1.402183E+0	1.415612E+0	1.399411E+0	1.378160E+0	1.419414E+0	1.422803E+0	1.419752E+0	1.404314E+0	1.450396E+0	1.381215E+0	1.377431E+0	1.408333E+0	1.418150E+0	1.408727E+0	1.447298E+0	1.487469E+0	1.442493E+0	1.450869E+0	1.438550E+0	1.398508E+0	1.426799E+0	1.398333E+0	1.418848E+0	1.425850E+0	1.401450E+0	1.387846E+0	1.415673E+0	1.368791E+0	1.417048E+0	1.451483E+0	1.428713E+0	1.413822E+0	1.404514E+0	1.471011E+0	1.386885E+0	1.379503E+0	1.430107E+0	1.410561E+0	1.397062E+0	1.416148E+0	1.412752E+0	1.401290E+0	1.422790E+0	1.437714E+0	1.426759E+0	1.426614E+0	1.386411E+0	1.417697E+0	1.382289E+0	1.454948E+0	1.368881E+0	1.381066E+0	1.421742E+0	1.412959E+0	1.439657E+0	1.448873E+0	1.423689E+0	1.419007E+0	1.400410E+0	1.400728E+0	1.427408E+0	1.419221E+0	1.383055E+0	1.436366E+0	1.412716E+0	1.452637E+0	1.396936E+0	1.369434E+0	1.422556E+0	1.522645E+0
5.490490E+2	1.494563E+0	1.397044E+0	1.428467E+0	1.367096E+0	1.434513E+0	1.416328E+0	1.415513E+0	1.426118E+0	1.415668E+0	1.401364E+0	1.425088E+0	1.443157E+0	1.431780E+0	1.435403E+0	1.454160E+0	1.433875E+0	1.413409E+0	1.395937E+0	1.438740E+0	1.460093E+0	1.366517E+0	1.433666E+0	1.385881E+0	1.437584E+0	1.453630E+0	1.415223E+0	1.406997E+0	1.420325E+0	1.446632E+0	1.455753E+0	1.387226E+0	1.402726E+0	1.406088E+0	1.375939E+0	1.434340E+0	1.377918E+0	1.463531E+0	1.439968E+0	1.415620E+0	1.366134E+0	1.414559E+0	1.458505E+0	1.362342E+0	1.422237E+0	1.405099E+0	1.469239E+0	1.382420E+0	1.383641E+0	1.364221E+0	1.406405E+0	1.432077E+0	1.364477E+0	1.398994E+0	1.396544E+0	1.371624E+0	1.467928E+0	1.412795E+0	1.446907E+0	1.439552E+0	1.391500E+0	1.414882E+0	1.402683E+0	1.404220E+0	1.412260E+0	1.426479E+0	1.378240E+0	1.455394E+0	1.377091E+0	1.415598E+0	1.446976E+0	1.386959E+0	1.356257E+0	1.397760E+0	1.385753E+0	1.441922E+0	1.428378E+0	1.431848E+0	1.433163E+0	1.401886E+0	1.384793E+0	1.412908E+0	1.396617E+0	1.450438E+0	1.435661E+0	1.482607E+0	1.410976E+0	1.430819E+0	1.376968E+0	1.432814E+0	1.396110E+0	1.434723E+0	1.428742E+0	1.399667E+0	1.391381E+0	1.390418E+0	1.391501E+0	1.401456E+0	1.451779E+0	1.395594E+0	1.407679E+0	1.368850E+0	1.404457E+0	1.378920E+0	1.404507E+0	1.383461E+0	1.394992E+0	1.453737E+0	1.437797E+0	1.405408E+0	1.365333E+0	1.387165E+0	1.373159E+0	1.348631E+0	1.434272E+0	1.358663E+0	1.359628E+0	1.390160E+0	1.405067E+0	1.346388E+0	1.350873E+0	1.408720E+0	1.378637E+0	1.390866E+0	1.370345E+0	1.427276E+0	1.387672E+0	1.388280E+0	1.355906E+0	1.442934E+0	1.467454E+0	1.374537E+0	1.365931E+0	1.498537E+0	1.403363E+0	1.399043E+0	1.386080E+0	1.453398E+0	1.406069E+0	1.363644E+0	1.474266E+0	1.411662E+0	1.366481E+0	1.475687E+0	1.418162E+0	1.408231E+0	1.424409E+0	1.360470E+0	1.386000E+0	1.410213E+0	1.372189E+0	1.428631E+0	1.379551E+0	1.373968E+0	1.414240E+0	1.396100E+0	1.453851E+0	1.399352E+0	1.395327E+0	1.378649E+0	1.432119E+0	1.423119E+0	1.383483E+0	1.377727E+0	1.445553E+0	1.382046E+0	1.378533E+0	1.311687E+0	1.427390E+0	1.417523E+0	1.382714E+0
5.497850E+2	1.512887E+0	1.394680E+0	1.459763E+0	1.386928E+0	1.449720E+0	1.386213E+0	1.358059E+0	1.389989E+0	1.390558E+0	1.455404E+0	1.379741E+0	1.425369E+0	1.445479E+0	1.400877E+0	1.440878E+0	1.429224E+0	1.395454E+0	1.393103E+0	1.392894E+0	1.413013E+0	1.343353E+0	1.403254E+0	1.406921E+0	1.385154E+0	1.444581E+0	1.382777E+0	1.392788E+0	1.400486E+0	1.458980E+0	1.418310E+0	1.347077E+0	1.412177E+0	1.375022E+0	1.477270E+0	1.426331E+0	1.426370E+0	1.386291E+0	1.426906E+0	1.405015E+0	1.351508E+0	1.415149E+0	1.423358E+0	1.372414E+0	1.418226E+0	1.389756E+0	1.424069E+0	1.389062E+0	1.406443E+0	1.386819E+0	1.430615E+0	1.404896E+0	1.415962E+0	1.369047E+0	1.436503E+0	1.395589E+0	1.400055E+0	1.402411E+0	1.422354E+0	1.334243E+0	1.434071E+0	1.428213E+0	1.377101E+0	1.430762E+0	1.424919E+0	1.388611E+0	1.371955E+0	1.321207E+0	1.390623E+0	1.392190E+0	1.388269E+0	1.441272E+0	1.428357E+0	1.371981E+0	1.359058E+0	1.427834E+0	1.390498E+0	1.478594E+0	1.400795E+0	1.394538E+0	1.340330E+0	1.329501E+0	1.408042E+0	1.431514E+0	1.390809E+0	1.439911E+0	1.403643E+0	1.362579E+0	1.412054E+0	1.443099E+0	1.401501E+0	1.415511E+0	1.429244E+0	1.372790E+0	1.405575E+0	1.366657E+0	1.409199E+0	1.385990E+0	1.445198E+0	1.381622E+0	1.351506E+0	1.425109E+0	1.376804E+0	1.364095E+0	1.409338E+0	1.400082E+0	1.375927E+0	1.339165E+0	1.392322E+0	1.387988E+0	1.359427E+0	1.381201E+0	1.383803E+0	1.370207E+0	1.360567E+0	1.399244E+0	1.412275E+0	1.391100E+0	1.370793E+0	1.346747E+0	1.386715E+0	1.423153E+0	1.365139E+0	1.361737E+0	1.353604E+0	1.378273E+0	1.407273E+0	1.400083E+0	1.361027E+0	1.416325E+0	1.454357E+0	1.378402E+0	1.397999E+0	1.431592E+0	1.403523E+0	1.391978E+0	1.402906E+0	1.434714E+0	1.429475E+0	1.374835E+0	1.396275E+0	1.360729E+0	1.401766E+0	1.404675E+0	1.390835E+0	1.427294E+0	1.377162E+0	1.329641E+0	1.346853E+0	1.396238E+0	1.421072E+0	1.404343E+0	1.403878E+0	1.397972E+0	1.372086E+0	1.440955E+0	1.380903E+0	1.438913E+0	1.389661E+0	1.389677E+0	1.425781E+0	1.333130E+0	1.381981E+0	1.404475E+0	1.352715E+0	1.408260E+0	1.329477E+0	1.452671E+0	1.405526E+0	1.395329E+0	1.473575E+0
5.505170E+2	1.369287E+0	1.339487E+0	1.334332E+0	1.284843E+0	1.424815E+0	1.361543E+0	1.299008E+0	1.343183E+0	1.382871E+0	1.389510E+0	1.329955E+0	1.408683E+0	1.391592E+0	1.387760E+0	1.345156E+0	1.383738E+0	1.397553E+0	1.395663E+0	1.390114E+0	1.399586E+0	1.323500E+0	1.397195E+0	1.363409E+0	1.408979E+0	1.345136E+0	1.371219E+0	1.374733E+0	1.392918E+0	1.388260E+0	1.381816E+0	1.352156E+0	1.379537E+0	1.369364E+0	1.361312E+0	1.314262E+0	1.370948E+0	1.392241E+0	1.389218E+0	1.352985E+0	1.348596E+0	1.408836E+0	1.400630E+0	1.372302E+0	1.414122E+0	1.362908E+0	1.360739E+0	1.342750E+0	1.342521E+0	1.370469E+0	1.418695E+0	1.416418E+0	1.360306E+0	1.378267E+0	1.371402E+0	1.336892E+0	1.397123E+0	1.380656E+0	1.374697E+0	1.371550E+0	1.411961E+0	1.347573E+0	1.378801E+0	1.396703E+0	1.353890E+0	1.429696E+0	1.395196E+0	1.368238E+0	1.310207E+0	1.363961E+0	1.344093E+0	1.349704E+0	1.345609E+0	1.420587E+0	1.387996E+0	1.342551E+0	1.344296E+0	1.403152E+0	1.322870E+0	1.348731E+0	1.355794E+0	1.350510E+0	1.383074E+0	1.396337E+0	1.380396E+0	1.386623E+0	1.386118E+0	1.414646E+0	1.366267E+0	1.356526E+0	1.315547E+0	1.375445E+0	1.389675E+0	1.347068E+0	1.359352E+0	1.361514E+0	1.364074E+0	1.396069E+0	1.403004E+0	1.353000E+0	1.325835E+0	1.328256E+0	1.306583E+0	1.368038E+0	1.404362E+0	1.354059E+0	1.385895E+0	1.299529E+0	1.330467E+0	1.373934E+0	1.348973E+0	1.346186E+0	1.331979E+0	1.368299E+0	1.412551E+0	1.373339E+0	1.364437E+0	1.376578E+0	1.352003E+0	1.337061E+0	1.358694E+0	1.385128E+0	1.349148E+0	1.314232E+0	1.353683E+0	1.372085E+0	1.348992E+0	1.345372E+0	1.302905E+0	1.400045E+0	1.374068E+0	1.375238E+0	1.398179E+0	1.399246E+0	1.353881E+0	1.342777E+0	1.326963E+0	1.393787E+0	1.358160E+0	1.331591E+0	1.358508E+0	1.331747E+0	1.341958E+0	1.421450E+0	1.403197E+0	1.332227E+0	1.356407E+0	1.318912E+0	1.323047E+0	1.362059E+0	1.350336E+0	1.377445E+0	1.361836E+0	1.390438E+0	1.331252E+0	1.353056E+0	1.329589E+0	1.393383E+0	1.293186E+0	1.361506E+0	1.350266E+0	1.437527E+0	1.384857E+0	1.376672E+0	1.322102E+0	1.354260E+0	1.352412E+0	1.328668E+0	1.379545E+0	1.316657E+0	1.430373E+0
5.512620E+2	1.334671E+0	1.300897E+0	1.305625E+0	1.302799E+0	1.339886E+0	1.359805E+0	1.334127E+0	1.339083E+0	1.334062E+0	1.368379E+0	1.298222E+0	1.350093E+0	1.297695E+0	1.357729E+0	1.353100E+0	1.340772E+0	1.359925E+0	1.344022E+0	1.296618E+0	1.292118E+0	1.282162E+0	1.341344E+0	1.338930E+0	1.353499E+0	1.304894E+0	1.324587E+0	1.336801E+0	1.366350E+0	1.354993E+0	1.331090E+0	1.340950E+0	1.342024E+0	1.329693E+0	1.316103E+0	1.309844E+0	1.365444E+0	1.298650E+0	1.342100E+0	1.291010E+0	1.289084E+0	1.345948E+0	1.365773E+0	1.284960E+0	1.328256E+0	1.337265E+0	1.398877E+0	1.353993E+0	1.281894E+0	1.260375E+0	1.357502E+0	1.351478E+0	1.344254E+0	1.303520E+0	1.334943E+0	1.336729E+0	1.341848E+0	1.376952E+0	1.376416E+0	1.324922E+0	1.313135E+0	1.332324E+0	1.324219E+0	1.340196E+0	1.297445E+0	1.380622E+0	1.320118E+0	1.322613E+0	1.335919E+0	1.277574E+0	1.352671E+0	1.319232E+0	1.324789E+0	1.344460E+0	1.315339E+0	1.270528E+0	1.374047E+0	1.362117E+0	1.326820E+0	1.316273E+0	1.306425E+0	1.361735E+0	1.339660E+0	1.392134E+0	1.381035E+0	1.350569E+0	1.326770E+0	1.310349E+0	1.275950E+0	1.318527E+0	1.315432E+0	1.315685E+0	1.350264E+0	1.285624E+0	1.314679E+0	1.318370E+0	1.342589E+0	1.340847E+0	1.331741E+0	1.337067E+0	1.289209E+0	1.362704E+0	1.359377E+0	1.346558E+0	1.363944E+0	1.393874E+0	1.332721E+0	1.318752E+0	1.325150E+0	1.321093E+0	1.297267E+0	1.327045E+0	1.266900E+0	1.364097E+0	1.305232E+0	1.338010E+0	1.304626E+0	1.287771E+0	1.332580E+0	1.338040E+0	1.347599E+0	1.367885E+0	1.289399E+0	1.298006E+0	1.311481E+0	1.333610E+0	1.291592E+0	1.283016E+0	1.282513E+0	1.342340E+0	1.281128E+0	1.315129E+0	1.345178E+0	1.374667E+0	1.355706E+0	1.299963E+0	1.307315E+0	1.354657E+0	1.329950E+0	1.308126E+0	1.321273E+0	1.344537E+0	1.328673E+0	1.316825E+0	1.333269E+0	1.364188E+0	1.309784E+0	1.305884E+0	1.331440E+0	1.340283E+0	1.368962E+0	1.335933E+0	1.346837E+0	1.332267E+0	1.336226E+0	1.294565E+0	1.320867E+0	1.333298E+0	1.317363E+0	1.320800E+0	1.343022E+0	1.321498E+0	1.323372E+0	1.340942E+0	1.322638E+0	1.314919E+0	1.316644E+0	1.269601E+0	1.281884E+0	1.340498E+0	1.412444E+0
5.520260E+2	1.298372E+0	1.297267E+0	1.313020E+0	1.324813E+0	1.316772E+0	1.267957E+0	1.225439E+0	1.275430E+0	1.368760E+0	1.293874E+0	1.316774E+0	1.315681E+0	1.340640E+0	1.303326E+0	1.294343E+0	1.316003E+0	1.289738E+0	1.292241E+0	1.300998E+0	1.334054E+0	1.276765E+0	1.299602E+0	1.308840E+0	1.249715E+0	1.282367E+0	1.302654E+0	1.302120E+0	1.252699E+0	1.314617E+0	1.292768E+0	1.348908E+0	1.260667E+0	1.272450E+0	1.261356E+0	1.265631E+0	1.312338E+0	1.285467E+0	1.293273E+0	1.241781E+0	1.286579E+0	1.306461E+0	1.308707E+0	1.301073E+0	1.346631E+0	1.319847E+0	1.340752E+0	1.332184E+0	1.268895E+0	1.278118E+0	1.289670E+0	1.313515E+0	1.292945E+0	1.338084E+0	1.364231E+0	1.332941E+0	1.311876E+0	1.321629E+0	1.253784E+0	1.285775E+0	1.318341E+0	1.306957E+0	1.294415E+0	1.306722E+0	1.313538E+0	1.360686E+0	1.326991E+0	1.328159E+0	1.243220E+0	1.295938E+0	1.301051E+0	1.316014E+0	1.269587E+0	1.292454E+0	1.283181E+0	1.234120E+0	1.257748E+0	1.268918E+0	1.319711E+0	1.258030E+0	1.354742E+0	1.260764E+0	1.268440E+0	1.341334E+0	1.307310E+0	1.301588E+0	1.289485E+0	1.267176E+0	1.271462E+0	1.307612E+0	1.276309E+0	1.288689E+0	1.271417E+0	1.292641E+0	1.306750E+0	1.261752E+0	1.284734E+0	1.257234E+0	1.294039E+0	1.323283E+0	1.287280E+0	1.249795E+0	1.288382E+0	1.310495E+0	1.304744E+0	1.286477E+0	1.274453E+0	1.242224E+0	1.251297E+0	1.272308E+0	1.257200E+0	1.239279E+0	1.291843E+0	1.280102E+0	1.271906E+0	1.262199E+0	1.259211E+0	1.314932E+0	1.313346E+0	1.286097E+0	1.261743E+0	1.255814E+0	1.282322E+0	1.238657E+0	1.287623E+0	1.328892E+0	1.282564E+0	1.274520E+0	1.286532E+0	1.335937E+0	1.322759E+0	1.291456E+0	1.220880E+0	1.330891E+0	1.223200E+0	1.304249E+0	1.267470E+0	1.341924E+0	1.278608E+0	1.304404E+0	1.330706E+0	1.300802E+0	1.318315E+0	1.326101E+0	1.334233E+0	1.346145E+0	1.275968E+0	1.244653E+0	1.248900E+0	1.231696E+0	1.349968E+0	1.327274E+0	1.276140E+0	1.300431E+0	1.253410E+0	1.287601E+0	1.294474E+0	1.289634E+0	1.249420E+0	1.260714E+0	1.305908E+0	1.276678E+0	1.266978E+0	1.305889E+0	1.322878E+0	1.344654E+0	1.288852E+0	1.228779E+0	1.326494E+0	1.329816E+0	1.260117E+0
5.527650E+2	1.273722E+0	1.246308E+0	1.255919E+0	1.209211E+0	1.226889E+0	1.273724E+0	1.204757E+0	1.256074E+0	1.265132E+0	1.292969E+0	1.272385E+0	1.288345E+0	1.294447E+0	1.208838E+0	1.269234E+0	1.267319E+0	1.259085E+0	1.305175E+0	1.268142E+0	1.238143E+0	1.228150E+0	1.251913E+0	1.261301E+0	1.263485E+0	1.279771E+0	1.256058E+0	1.250462E+0	1.230181E+0	1.312852E+0	1.253666E+0	1.254755E+0	1.253068E+0	1.279049E+0	1.280150E+0	1.216645E+0	1.257002E+0	1.300399E+0	1.307402E+0	1.259643E+0	1.216993E+0	1.298277E+0	1.279404E+0	1.235906E+0	1.197956E+0	1.241645E+0	1.253572E+0	1.256444E+0	1.228724E+0	1.272592E+0	1.228265E+0	1.230096E+0	1.251527E+0	1.245782E+0	1.272518E+0	1.258653E+0	1.274679E+0	1.300718E+0	1.277275E+0	1.276476E+0	1.217991E+0	1.284131E+0	1.256163E+0	1.230531E+0	1.267961E+0	1.301692E+0	1.271928E+0	1.293007E+0	1.272678E+0	1.278019E+0	1.250612E+0	1.282009E+0	1.267618E+0	1.290487E+0	1.296134E+0	1.195669E+0	1.256029E+0	1.282592E+0	1.224810E+0	1.259445E+0	1.263805E+0	1.269687E+0	1.243324E+0	1.245143E+0	1.222633E+0	1.318490E+0	1.263006E+0	1.239356E+0	1.262014E+0	1.318795E+0	1.237012E+0	1.259797E+0	1.292175E+0	1.214872E+0	1.264863E+0	1.231171E+0	1.255305E+0	1.255574E+0	1.250220E+0	1.281335E+0	1.206930E+0	1.254991E+0	1.238732E+0	1.304283E+0	1.228211E+0	1.259021E+0	1.250475E+0	1.263593E+0	1.270882E+0	1.270055E+0	1.283966E+0	1.248843E+0	1.187319E+0	1.239795E+0	1.220032E+0	1.252864E+0	1.259908E+0	1.296396E+0	1.277530E+0	1.172108E+0	1.250157E+0	1.314539E+0	1.201791E+0	1.264999E+0	1.246886E+0	1.258424E+0	1.250590E+0	1.215960E+0	1.231957E+0	1.292013E+0	1.257411E+0	1.236393E+0	1.251891E+0	1.269318E+0	1.278871E+0	1.229171E+0	1.228470E+0	1.268376E+0	1.252397E+0	1.236165E+0	1.277779E+0	1.248264E+0	1.224684E+0	1.257847E+0	1.265560E+0	1.262581E+0	1.253101E+0	1.230271E+0	1.299154E+0	1.247625E+0	1.233047E+0	1.263021E+0	1.192494E+0	1.232463E+0	1.288562E+0	1.258395E+0	1.257505E+0	1.233676E+0	1.225556E+0	1.206677E+0	1.249473E+0	1.267241E+0	1.235154E+0	1.290689E+0	1.300498E+0	1.245158E+0	1.255666E+0	1.155128E+0	1.255898E+0	1.296638E+0	1.190188E+0
5.535440E+2	1.181312E+0	1.205117E+0	1.193218E+0	1.214204E+0	1.243952E+0	1.205539E+0	1.171880E+0	1.171817E+0	1.181286E+0	1.202578E+0	1.247107E+0	1.199277E+0	1.177327E+0	1.213191E+0	1.176639E+0	1.198589E+0	1.256874E+0	1.202420E+0	1.215452E+0	1.230834E+0	1.183711E+0	1.238484E+0	1.203721E+0	1.160590E+0	1.183246E+0	1.202979E+0	1.222742E+0	1.185107E+0	1.201611E+0	1.188820E+0	1.159564E+0	1.197476E+0	1.198527E+0	1.234019E+0	1.160251E+0	1.226038E+0	1.188707E+0	1.204547E+0	1.185698E+0	1.148136E+0	1.170871E+0	1.183778E+0	1.180867E+0	1.212406E+0	1.178642E+0	1.226650E+0	1.226263E+0	1.161176E+0	1.191255E+0	1.178770E+0	1.202094E+0	1.217106E+0	1.245914E+0	1.222316E+0	1.212069E+0	1.202304E+0	1.237348E+0	1.185180E+0	1.178810E+0	1.288633E+0	1.186687E+0	1.213039E+0	1.231304E+0	1.167369E+0	1.226449E+0	1.209819E+0	1.231562E+0	1.227917E+0	1.227111E+0	1.258881E+0	1.234456E+0	1.174190E+0	1.169652E+0	1.210232E+0	1.160578E+0	1.175754E+0	1.233046E+0	1.186225E+0	1.152717E+0	1.178900E+0	1.188557E+0	1.195658E+0	1.210781E+0	1.135254E+0	1.235807E+0	1.252261E+0	1.176867E+0	1.199103E+0	1.190525E+0	1.236859E+0	1.169409E+0	1.210856E+0	1.156137E+0	1.152581E+0	1.200127E+0	1.161529E+0	1.163621E+0	1.240039E+0	1.240030E+0	1.177657E+0	1.230745E+0	1.174868E+0	1.216320E+0	1.219898E+0	1.246569E+0	1.223509E+0	1.236825E+0	1.174540E+0	1.199117E+0	1.238643E+0	1.157646E+0	1.187344E+0	1.179849E+0	1.217179E+0	1.142622E+0	1.213214E+0	1.187789E+0	1.239316E+0	1.179800E+0	1.166318E+0	1.291182E+0	1.187559E+0	1.177755E+0	1.205623E+0	1.204031E+0	1.220886E+0	1.186409E+0	1.172056E+0	1.246291E+0	1.183206E+0	1.167538E+0	1.214186E+0	1.167759E+0	1.171737E+0	1.212187E+0	1.170913E+0	1.246206E+0	1.209139E+0	1.139493E+0	1.204701E+0	1.200013E+0	1.198676E+0	1.177475E+0	1.231925E+0	1.202654E+0	1.214027E+0	1.197737E+0	1.203570E+0	1.154889E+0	1.187266E+0	1.216546E+0	1.204690E+0	1.204764E+0	1.182437E+0	1.190070E+0	1.260101E+0	1.174418E+0	1.180959E+0	1.216293E+0	1.180854E+0	1.183708E+0	1.238204E+0	1.171574E+0	1.193077E+0	1.242116E+0	1.176972E+0	1.170826E+0	1.180454E+0	1.203673E+0	1.249257E+0
5.542580E+2	1.113859E+0	1.095774E+0	1.118055E+0	1.121906E+0	1.110249E+0	1.147410E+0	1.133084E+0	1.131916E+0	1.083554E+0	1.107522E+0	1.128830E+0	1.110926E+0	1.143425E+0	1.129545E+0	1.167618E+0	1.153288E+0	1.106996E+0	1.092311E+0	1.082840E+0	1.144416E+0	1.115780E+0	1.115852E+0	1.101385E+0	1.083476E+0	1.103540E+0	1.110807E+0	1.072048E+0	1.091863E+0	1.139583E+0	1.104933E+0	1.090655E+0	1.120063E+0	1.109216E+0	1.086319E+0	1.157201E+0	1.119307E+0	1.148700E+0	1.127554E+0	1.114272E+0	1.136247E+0	1.119613E+0	1.109309E+0	1.105997E+0	1.109321E+0	1.144637E+0	1.125645E+0	1.141982E+0	1.114478E+0	1.135654E+0	1.179949E+0	1.106076E+0	1.134071E+0	1.102669E+0	1.162632E+0	1.140223E+0	1.129315E+0	1.132047E+0	1.124998E+0	1.094234E+0	1.178274E+0	1.116898E+0	1.138131E+0	1.144309E+0	1.092626E+0	1.135758E+0	1.184524E+0	1.193317E+0	1.136215E+0	1.115463E+0	1.164360E+0	1.107069E+0	1.118253E+0	1.135983E+0	1.105207E+0	1.151323E+0	1.165782E+0	1.120135E+0	1.139922E+0	1.085609E+0	1.106368E+0	1.189379E+0	1.130629E+0	1.173632E+0	1.115015E+0	1.135755E+0	1.170270E+0	1.121709E+0	1.108962E+0	1.158607E+0	1.131132E+0	1.100001E+0	1.127937E+0	1.098577E+0	1.146801E+0	1.112857E+0	1.107701E+0	1.169036E+0	1.151358E+0	1.152430E+0	1.113468E+0	1.117385E+0	1.124266E+0	1.115753E+0	1.119452E+0	1.185482E+0	1.172103E+0	1.136815E+0	1.159568E+0	1.111217E+0	1.097536E+0	1.085495E+0	1.075395E+0	1.148217E+0	1.122546E+0	1.141004E+0	1.146474E+0	1.153572E+0	1.154590E+0	1.078513E+0	1.140310E+0	1.140632E+0	1.125806E+0	1.123888E+0	1.136586E+0	1.129065E+0	1.070954E+0	1.085867E+0	1.059835E+0	1.131585E+0	1.156235E+0	1.133053E+0	1.061901E+0	1.151556E+0	1.130842E+0	1.163698E+0	1.096636E+0	1.145864E+0	1.154061E+0	1.087492E+0	1.138938E+0	1.152579E+0	1.114365E+0	1.137015E+0	1.153161E+0	1.152969E+0	1.092960E+0	1.111215E+0	1.109599E+0	1.108984E+0	1.131176E+0	1.115114E+0	1.094684E+0	1.121558E+0	1.151110E+0	1.156555E+0	1.134675E+0	1.120731E+0	1.150164E+0	1.144732E+0	1.189150E+0	1.096089E+0	1.148958E+0	1.133912E+0	1.097966E+0	1.169987E+0	1.168975E+0	1.043849E+0	1.123354E+0	1.182027E+0	1.168461E+0
5.550190E+2	1.060233E+0	1.035261E+0	1.064436E+0	9.768441E-1	1.048493E+0	1.063050E+0	9.976879E-1	1.053636E+0	1.016758E+0	1.044508E+0	1.064250E+0	1.051011E+0	1.067519E+0	1.018952E+0	1.037172E+0	1.080416E+0	1.038598E+0	1.110680E+0	1.062865E+0	1.062146E+0	1.051699E+0	1.078780E+0	1.043466E+0	1.066205E+0	1.038810E+0	1.073336E+0	1.034983E+0	1.043419E+0	1.048872E+0	1.048263E+0	1.097743E+0	1.035312E+0	1.039889E+0	1.051311E+0	1.062171E+0	9.910137E-1	1.052916E+0	1.070202E+0	1.024438E+0	1.023093E+0	1.021967E+0	1.051801E+0	1.041426E+0	1.057535E+0	1.062295E+0	1.026227E+0	1.019222E+0	1.010506E+0	1.016992E+0	1.073117E+0	1.052814E+0	1.066286E+0	1.044366E+0	1.083396E+0	1.011154E+0	9.936301E-1	1.068748E+0	1.092259E+0	1.058757E+0	1.093538E+0	1.016864E+0	1.061260E+0	1.070372E+0	1.015696E+0	1.034456E+0	1.035364E+0	1.059076E+0	1.043496E+0	1.015297E+0	1.116899E+0	1.029883E+0	1.046850E+0	9.751623E-1	1.039250E+0	1.044275E+0	1.035945E+0	1.080447E+0	1.077954E+0	1.017999E+0	1.038559E+0	1.016215E+0	1.035591E+0	1.061383E+0	1.012469E+0	1.047859E+0	1.065510E+0	1.023076E+0	1.025181E+0	1.058744E+0	1.049513E+0	1.029566E+0	1.048813E+0	1.044354E+0	1.037760E+0	1.015807E+0	1.040767E+0	1.035812E+0	1.033116E+0	1.074653E+0	1.006343E+0	1.073278E+0	1.064592E+0	1.082763E+0	1.051371E+0	1.055376E+0	1.058131E+0	1.012178E+0	1.058201E+0	1.079096E+0	1.055115E+0	1.083043E+0	1.025964E+0	1.043636E+0	1.013720E+0	1.026852E+0	1.016951E+0	1.064620E+0	1.050812E+0	1.026597E+0	1.032495E+0	1.040106E+0	9.816372E-1	1.033188E+0	1.009025E+0	1.068381E+0	1.055236E+0	9.964499E-1	1.015413E+0	1.027485E+0	1.059854E+0	1.030387E+0	1.067253E+0	1.040780E+0	1.053674E+0	1.065083E+0	1.047942E+0	1.091150E+0	1.065843E+0	1.031305E+0	1.024760E+0	1.034596E+0	1.037438E+0	1.068796E+0	1.046361E+0	1.092352E+0	1.006699E+0	1.036532E+0	1.029524E+0	1.017418E+0	1.071566E+0	9.931033E-1	1.052244E+0	1.040711E+0	1.053246E+0	1.032918E+0	1.064571E+0	1.052396E+0	9.765986E-1	1.067908E+0	1.090240E+0	1.045550E+0	1.056600E+0	1.070778E+0	1.039604E+0	1.101748E+0	1.018084E+0	1.038612E+0	1.054859E+0	1.075169E+0	1.035489E+0
5.557660E+2	9.709267E-1	9.531028E-1	9.700281E-1	9.421142E-1	9.732586E-1	9.869485E-1	9.453057E-1	9.815325E-1	9.662282E-1	9.974399E-1	9.936247E-1	9.488758E-1	9.505445E-1	1.003650E+0	9.855146E-1	9.937286E-1	9.712598E-1	9.630215E-1	9.483336E-1	9.702622E-1	9.504089E-1	9.449674E-1	9.802624E-1	9.835804E-1	9.111399E-1	1.001900E+0	9.665705E-1	1.009118E+0	9.846146E-1	9.416007E-1	9.418210E-1	9.820742E-1	9.810078E-1	1.004777E+0	9.599622E-1	9.877830E-1	9.450178E-1	9.949990E-1	9.726340E-1	9.702063E-1	9.252653E-1	9.568872E-1	9.383562E-1	9.927093E-1	9.257266E-1	9.850630E-1	9.716684E-1	9.767553E-1	9.557105E-1	9.651368E-1	9.713314E-1	9.672543E-1	9.573653E-1	9.839241E-1	9.524225E-1	9.744113E-1	9.325763E-1	9.774956E-1	9.615412E-1	9.934465E-1	9.508723E-1	9.438269E-1	9.479274E-1	1.023179E+0	9.970072E-1	9.899723E-1	9.793845E-1	1.014179E+0	9.530018E-1	9.677295E-1	1.009481E+0	9.630822E-1	9.446105E-1	9.796490E-1	9.832167E-1	9.288593E-1	9.125141E-1	9.980272E-1	9.346046E-1	9.934048E-1	9.600852E-1	9.888793E-1	9.904360E-1	9.721661E-1	9.416637E-1	9.535506E-1	9.711900E-1	9.905353E-1	9.573478E-1	9.888033E-1	1.008811E+0	1.004551E+0	9.511248E-1	9.817873E-1	1.002283E+0	9.618334E-1	1.016364E+0	9.864749E-1	1.008293E+0	9.801178E-1	9.579454E-1	9.456271E-1	9.991036E-1	9.917638E-1	9.690332E-1	9.821736E-1	9.465380E-1	9.612755E-1	9.603628E-1	9.747765E-1	9.717274E-1	9.922616E-1	9.470124E-1	9.684205E-1	9.145587E-1	9.810441E-1	9.338453E-1	1.012410E+0	9.652019E-1	9.758537E-1	1.002479E+0	1.009153E+0	9.802973E-1	9.646790E-1	9.204849E-1	9.679330E-1	9.925632E-1	9.684593E-1	9.744638E-1	9.466855E-1	1.004367E+0	9.624198E-1	1.018000E+0	9.809341E-1	9.836819E-1	9.226684E-1	9.642171E-1	9.911107E-1	9.571720E-1	9.636634E-1	9.666150E-1	9.720563E-1	9.463764E-1	9.848313E-1	9.466954E-1	9.505373E-1	9.603048E-1	1.006081E+0	9.838990E-1	1.023679E+0	1.023881E+0	9.451664E-1	9.789360E-1	9.544864E-1	9.835363E-1	9.849667E-1	1.020917E+0	9.782902E-1	9.462973E-1	9.844586E-1	9.582959E-1	9.830502E-1	9.835044E-1	9.714485E-1	9.851839E-1	9.710769E-1	9.308241E-1	9.385898E-1	9.120143E-1	8.774020E-1
5.560240E+2	9.324013E-1	9.944145E-1	9.679838E-1	9.707814E-1	9.872840E-1	9.944512E-1	9.717395E-1	9.545453E-1	9.545640E-1	9.623628E-1	9.662934E-1	9.650470E-1	9.813485E-1	9.742694E-1	9.947835E-1	9.939556E-1	9.662076E-1	9.501159E-1	9.415892E-1	9.638152E-1	9.384522E-1	9.909829E-1	9.718428E-1	9.840665E-1	9.684880E-1	9.661084E-1	9.697773E-1	9.557247E-1	9.515482E-1	9.814303E-1	9.790679E-1	9.727979E-1	9.705001E-1	1.000128E+0	9.754795E-1	9.643579E-1	9.163135E-1	9.657932E-1	9.855918E-1	9.338052E-1	9.391086E-1	9.796323E-1	9.095471E-1	9.427559E-1	9.266260E-1	9.573357E-1	9.467738E-1	9.782489E-1	9.708892E-1	1.004268E+0	9.904795E-1	9.903049E-1	9.395010E-1	9.959123E-1	9.529569E-1	9.807934E-1	1.005465E+0	9.828869E-1	9.620265E-1	9.966691E-1	9.629304E-1	9.795395E-1	9.672140E-1	9.800225E-1	9.758231E-1	9.838774E-1	9.776467E-1	9.114922E-1	9.807511E-1	9.919970E-1	9.583459E-1	9.451420E-1	9.508991E-1	1.019248E+0	9.393039E-1	1.016657E+0	9.931714E-1	9.630786E-1	9.754995E-1	9.456498E-1	9.902721E-1	9.926716E-1	1.024941E+0	1.002173E+0	9.871423E-1	1.008841E+0	9.101041E-1	9.873276E-1	9.703750E-1	9.606688E-1	9.486875E-1	9.639891E-1	9.545597E-1	9.901838E-1	9.347934E-1	9.546756E-1	9.576847E-1	1.023748E+0	9.546193E-1	9.505324E-1	9.633955E-1	9.992672E-1	9.722681E-1	9.462574E-1	9.847932E-1	1.023484E+0	9.630961E-1	9.876486E-1	9.443495E-1	9.462889E-1	9.759805E-1	9.594656E-1	9.197250E-1	9.617727E-1	8.983889E-1	9.047078E-1	9.662693E-1	1.021928E+0	9.505765E-1	9.805935E-1	9.607098E-1	9.671327E-1	9.860509E-1	9.684723E-1	9.531190E-1	9.404910E-1	9.654984E-1	9.639249E-1	9.711678E-1	1.016716E+0	9.951647E-1	9.845366E-1	9.870746E-1	9.573047E-1	9.715038E-1	9.650789E-1	1.005532E+0	9.601378E-1	9.893230E-1	9.574685E-1	9.504819E-1	9.820975E-1	9.429154E-1	9.474269E-1	9.445198E-1	1.011533E+0	9.747580E-1	9.630270E-1	9.621052E-1	9.744168E-1	9.695099E-1	9.618692E-1	9.955493E-1	9.738117E-1	9.804756E-1	9.168716E-1	9.525688E-1	9.181592E-1	9.915154E-1	9.741734E-1	9.928367E-1	9.838945E-1	9.773373E-1	9.690023E-1	9.780914E-1	1.028074E+0	9.853399E-1	9.343023E-1	9.512698E-1	1.076342E+0
5.565200E+2	9.877201E-1	9.581879E-1	9.638813E-1	9.770215E-1	9.395515E-1	9.679315E-1	9.231958E-1	1.001387E+0	9.556698E-1	9.534717E-1	9.718801E-1	9.563858E-1	9.616743E-1	9.660663E-1	9.623048E-1	9.579289E-1	9.239969E-1	9.524757E-1	9.534275E-1	9.577482E-1	9.360778E-1	1.013577E+0	9.616161E-1	9.836536E-1	9.608739E-1	9.542676E-1	9.883042E-1	9.987619E-1	1.000574E+0	9.998678E-1	9.457542E-1	9.588650E-1	9.581712E-1	9.444348E-1	9.892828E-1	9.636499E-1	9.883201E-1	9.910845E-1	9.375519E-1	9.624080E-1	9.608941E-1	9.659789E-1	9.458064E-1	9.339146E-1	9.548281E-1	9.677002E-1	9.637157E-1	9.343890E-1	9.569267E-1	9.499812E-1	9.663148E-1	1.008863E+0	9.746277E-1	9.316426E-1	9.232511E-1	9.617968E-1	9.371971E-1	9.399481E-1	9.783659E-1	9.577684E-1	9.648781E-1	9.756162E-1	1.004653E+0	9.540350E-1	9.412082E-1	9.990189E-1	9.927073E-1	9.805933E-1	9.373532E-1	9.650379E-1	9.624440E-1	9.585878E-1	9.385404E-1	9.225337E-1	9.523579E-1	9.780979E-1	9.168277E-1	9.542414E-1	9.549421E-1	9.561800E-1	9.492682E-1	9.381117E-1	9.385649E-1	9.677294E-1	9.503034E-1	1.021859E+0	9.631104E-1	9.871765E-1	9.679158E-1	9.403414E-1	9.561462E-1	9.550288E-1	9.394716E-1	9.351721E-1	9.677168E-1	9.813155E-1	9.694320E-1	9.766809E-1	9.642276E-1	9.184773E-1	9.454824E-1	9.656625E-1	9.842404E-1	9.858383E-1	9.414878E-1	9.857711E-1	9.335635E-1	9.939694E-1	9.535652E-1	9.370342E-1	9.112944E-1	1.006616E+0	9.485148E-1	9.792829E-1	9.515514E-1	1.007779E+0	9.545987E-1	9.630976E-1	9.871833E-1	9.515090E-1	1.006464E+0	9.344732E-1	9.707695E-1	9.331262E-1	9.758361E-1	9.440581E-1	9.656201E-1	9.346797E-1	9.799148E-1	9.452500E-1	9.736782E-1	1.007417E+0	9.409424E-1	9.238926E-1	9.778528E-1	9.779402E-1	9.839589E-1	1.050424E+0	9.923822E-1	9.781934E-1	9.488664E-1	9.840989E-1	9.724256E-1	9.878401E-1	9.841095E-1	9.602558E-1	9.365076E-1	9.568100E-1	9.413967E-1	9.383605E-1	9.575906E-1	9.191341E-1	9.610399E-1	9.598162E-1	9.369223E-1	9.516165E-1	9.649897E-1	9.673553E-1	9.534776E-1	9.965679E-1	9.499694E-1	9.835308E-1	9.586712E-1	9.657445E-1	9.781872E-1	9.604587E-1	9.141522E-1	9.463533E-1	1.035988E+0	9.869628E-1
5.570560E+2	9.837451E-1	1.010146E+0	1.021335E+0	9.764642E-1	1.003885E+0	1.003166E+0	1.001034E+0	9.709046E-1	9.924440E-1	1.008790E+0	1.018860E+0	1.015394E+0	9.948902E-1	1.018538E+0	1.036099E+0	9.885835E-1	1.003550E+0	9.510021E-1	9.849042E-1	9.882144E-1	9.703160E-1	9.757889E-1	9.533078E-1	1.005257E+0	1.024194E+0	1.012775E+0	9.953127E-1	9.744498E-1	1.009144E+0	9.737166E-1	9.924290E-1	9.707985E-1	9.701430E-1	9.909307E-1	9.949935E-1	9.850985E-1	1.009631E+0	1.055123E+0	9.734565E-1	9.821606E-1	9.975817E-1	9.590872E-1	9.888717E-1	9.816962E-1	1.035551E+0	1.007501E+0	1.000173E+0	9.995120E-1	9.998684E-1	9.541059E-1	1.001392E+0	9.780812E-1	9.597472E-1	1.013150E+0	9.820366E-1	9.690426E-1	9.638783E-1	1.003904E+0	9.783398E-1	1.000038E+0	1.006112E+0	9.548231E-1	1.016188E+0	1.016982E+0	9.952766E-1	1.012345E+0	9.666669E-1	9.721390E-1	1.005636E+0	9.827863E-1	9.507421E-1	1.024671E+0	1.030141E+0	1.002787E+0	9.389981E-1	9.875872E-1	1.002670E+0	1.018004E+0	9.793513E-1	9.712524E-1	9.869527E-1	1.014473E+0	1.001460E+0	9.991266E-1	1.034975E+0	9.892741E-1	9.383570E-1	9.836631E-1	9.716565E-1	1.003813E+0	9.944284E-1	9.716471E-1	9.842279E-1	9.928487E-1	9.773838E-1	9.921112E-1	1.034918E+0	9.697458E-1	9.728796E-1	9.531720E-1	9.989560E-1	9.941045E-1	1.002107E+0	9.882145E-1	9.812657E-1	1.007381E+0	9.644479E-1	1.002437E+0	9.831558E-1	9.866334E-1	1.000668E+0	9.976940E-1	9.932188E-1	1.026213E+0	1.027685E+0	9.858584E-1	9.831387E-1	9.857684E-1	9.947874E-1	1.021741E+0	1.020756E+0	9.887315E-1	9.988606E-1	1.010569E+0	9.931245E-1	1.001226E+0	1.000419E+0	1.007356E+0	9.902403E-1	9.868101E-1	9.830523E-1	9.857084E-1	9.920589E-1	1.030030E+0	1.080532E+0	9.790885E-1	9.804188E-1	9.922187E-1	1.021381E+0	9.941876E-1	1.015089E+0	9.895149E-1	9.837750E-1	9.975501E-1	1.020826E+0	9.891640E-1	9.999212E-1	9.974708E-1	9.720440E-1	1.008355E+0	9.908674E-1	1.002123E+0	9.873716E-1	9.937854E-1	1.027712E+0	9.889320E-1	9.830625E-1	9.957649E-1	9.951581E-1	1.029827E+0	9.650906E-1	1.003313E+0	9.994174E-1	1.007938E+0	9.867213E-1	1.001042E+0	9.784394E-1	1.010146E+0	1.026140E+0	9.926247E-1
5.575360E+2	1.045119E+0	1.011825E+0	1.020064E+0	1.023481E+0	1.032680E+0	1.032851E+0	1.025215E+0	1.049648E+0	1.015046E+0	1.042071E+0	9.935144E-1	1.031542E+0	9.799859E-1	9.859104E-1	9.907354E-1	1.012467E+0	1.067170E+0	1.052198E+0	1.008914E+0	9.992632E-1	1.009847E+0	1.039964E+0	1.013680E+0	9.842609E-1	1.037038E+0	1.037177E+0	1.046019E+0	1.020689E+0	1.006023E+0	9.781628E-1	1.013080E+0	1.081314E+0	1.022427E+0	1.010259E+0	1.026218E+0	1.010031E+0	1.026889E+0	1.019818E+0	1.001612E+0	1.052563E+0	1.001172E+0	1.032211E+0	1.007736E+0	9.696508E-1	1.014267E+0	9.974078E-1	1.033114E+0	1.023740E+0	1.032883E+0	1.021151E+0	1.028405E+0	1.038550E+0	1.022737E+0	1.050914E+0	9.900987E-1	1.067030E+0	9.997247E-1	1.006948E+0	1.008536E+0	1.015911E+0	1.037888E+0	1.049600E+0	9.893929E-1	1.006372E+0	1.003723E+0	1.013354E+0	1.010578E+0	1.016900E+0	1.022594E+0	1.022214E+0	1.032294E+0	9.971558E-1	9.834640E-1	1.019046E+0	1.014124E+0	9.903209E-1	1.024973E+0	1.005345E+0	1.004772E+0	9.896664E-1	1.020160E+0	1.004992E+0	9.815473E-1	1.000501E+0	1.002860E+0	1.053659E+0	1.044743E+0	1.038867E+0	1.041637E+0	9.945362E-1	1.026922E+0	1.001017E+0	1.020710E+0	1.022047E+0	1.042174E+0	1.003924E+0	1.008639E+0	1.062654E+0	1.012472E+0	9.864577E-1	1.014873E+0	1.057004E+0	1.000737E+0	1.047478E+0	1.053671E+0	1.037100E+0	1.029589E+0	1.032193E+0	1.013093E+0	1.005064E+0	1.068548E+0	1.002549E+0	9.795976E-1	1.016259E+0	1.029315E+0	9.948287E-1	1.018178E+0	1.029402E+0	1.030528E+0	9.900013E-1	1.024324E+0	9.849540E-1	1.010852E+0	1.003810E+0	1.034281E+0	9.841045E-1	1.013344E+0	1.032735E+0	9.800405E-1	9.838991E-1	9.893410E-1	1.015358E+0	1.038049E+0	1.022583E+0	1.000914E+0	1.017944E+0	9.993279E-1	1.022026E+0	1.048610E+0	1.056014E+0	9.653454E-1	9.636328E-1	9.950882E-1	1.039249E+0	1.013626E+0	1.010275E+0	9.912574E-1	1.044301E+0	1.010934E+0	1.013947E+0	1.027949E+0	1.048286E+0	1.028119E+0	9.673351E-1	9.909366E-1	1.020010E+0	1.041553E+0	9.750177E-1	9.988481E-1	9.598706E-1	1.036117E+0	1.005930E+0	1.014552E+0	1.051820E+0	9.964692E-1	1.021220E+0	9.895573E-1	9.854845E-1	9.959580E-1	1.058533E+0
5.580170E+2	1.002514E+0	1.001640E+0	1.012911E+0	9.659339E-1	1.001105E+0	1.032487E+0	1.010225E+0	1.009295E+0	1.027578E+0	9.916839E-1	1.009271E+0	9.662010E-1	9.826591E-1	9.975444E-1	1.017709E+0	1.021809E+0	9.745729E-1	1.009882E+0	9.685879E-1	9.702726E-1	1.002806E+0	1.004293E+0	1.003744E+0	1.009461E+0	1.001204E+0	9.920716E-1	9.950491E-1	1.021400E+0	9.764556E-1	1.002901E+0	9.759379E-1	9.854197E-1	9.904224E-1	1.041190E+0	9.746426E-1	9.836756E-1	9.843945E-1	9.903474E-1	9.804361E-1	1.013293E+0	9.685188E-1	1.020139E+0	9.907419E-1	1.024129E+0	1.000359E+0	1.012273E+0	1.018851E+0	9.956422E-1	9.924049E-1	1.032195E+0	9.919177E-1	1.050176E+0	9.685752E-1	1.004001E+0	1.009023E+0	1.014911E+0	1.029456E+0	9.212789E-1	9.602629E-1	1.011235E+0	9.739728E-1	1.001106E+0	9.967777E-1	9.754455E-1	1.003220E+0	1.041718E+0	9.897502E-1	1.049971E+0	1.010188E+0	9.776611E-1	9.461160E-1	1.018002E+0	9.644755E-1	1.016785E+0	1.024512E+0	9.826447E-1	1.006719E+0	1.007538E+0	9.933082E-1	9.925500E-1	9.988267E-1	1.011789E+0	9.940208E-1	1.033363E+0	9.858926E-1	9.919970E-1	1.034747E+0	1.012028E+0	1.038898E+0	1.010408E+0	9.762223E-1	1.036202E+0	9.850955E-1	1.019708E+0	9.791515E-1	9.975865E-1	1.039966E+0	9.971387E-1	9.873295E-1	1.009245E+0	9.752078E-1	9.950294E-1	9.768874E-1	9.931827E-1	9.970466E-1	1.025542E+0	1.008749E+0	1.032920E+0	9.711147E-1	1.026286E+0	9.897626E-1	9.592093E-1	1.046360E+0	1.031317E+0	9.965296E-1	1.020096E+0	1.024531E+0	9.972377E-1	9.989278E-1	1.009600E+0	1.017873E+0	1.025395E+0	9.819802E-1	1.004656E+0	1.001674E+0	1.032958E+0	1.004717E+0	1.033334E+0	1.011983E+0	1.017167E+0	9.779124E-1	9.997203E-1	9.661925E-1	1.047155E+0	9.714014E-1	1.019963E+0	1.024892E+0	1.000681E+0	1.049001E+0	1.010016E+0	9.846665E-1	9.913340E-1	1.002528E+0	1.018767E+0	9.864247E-1	9.918129E-1	1.005432E+0	1.000466E+0	1.012051E+0	1.045116E+0	1.056068E+0	9.678392E-1	1.049109E+0	1.023465E+0	1.002670E+0	9.699457E-1	9.925153E-1	9.923671E-1	9.554221E-1	1.030287E+0	1.035599E+0	1.030460E+0	1.003922E+0	9.958004E-1	9.994736E-1	1.046828E+0	1.011610E+0	1.005787E+0	1.055732E+0	1.000231E+0
5.585160E+2	1.017350E+0	9.946291E-1	1.014230E+0	9.951956E-1	1.012349E+0	1.030678E+0	9.991376E-1	1.016095E+0	1.015024E+0	9.997012E-1	1.018318E+0	1.003347E+0	1.007920E+0	1.039482E+0	1.030694E+0	9.947520E-1	9.921437E-1	1.001055E+0	9.972537E-1	1.021238E+0	1.013003E+0	1.011394E+0	1.040181E+0	1.007507E+0	9.787168E-1	1.020644E+0	9.777652E-1	1.039617E+0	1.030576E+0	1.039764E+0	1.018161E+0	1.003419E+0	1.015838E+0	9.834420E-1	9.952612E-1	9.992327E-1	1.008540E+0	1.024400E+0	1.008994E+0	1.008128E+0	1.023587E+0	9.808022E-1	1.000718E+0	1.020266E+0	1.011980E+0	1.040304E+0	1.011360E+0	9.965338E-1	1.025559E+0	9.883091E-1	9.334303E-1	9.767475E-1	1.004509E+0	9.705688E-1	1.012386E+0	9.676695E-1	9.947228E-1	1.062075E+0	1.035558E+0	1.005437E+0	1.010462E+0	1.006752E+0	1.015642E+0	1.023138E+0	9.981314E-1	9.868982E-1	1.012973E+0	1.000376E+0	9.848047E-1	1.031756E+0	1.054776E+0	9.736199E-1	1.013347E+0	1.006835E+0	1.025995E+0	1.010191E+0	1.011524E+0	9.635885E-1	1.029752E+0	1.010746E+0	1.016840E+0	9.971941E-1	1.009656E+0	1.034850E+0	1.016262E+0	1.008709E+0	1.054798E+0	1.011027E+0	9.840538E-1	9.869115E-1	9.875622E-1	9.899884E-1	9.638958E-1	9.858483E-1	1.005109E+0	1.041701E+0	9.925857E-1	9.961392E-1	9.931108E-1	1.025855E+0	1.008881E+0	1.022477E+0	9.999417E-1	1.024979E+0	9.865388E-1	1.003623E+0	9.871773E-1	1.018651E+0	1.030708E+0	9.966688E-1	9.958644E-1	1.037797E+0	9.958186E-1	9.879102E-1	9.874139E-1	9.778039E-1	1.020062E+0	9.781995E-1	1.005104E+0	9.805670E-1	1.005971E+0	1.010251E+0	1.030739E+0	9.635664E-1	1.037116E+0	9.953270E-1	9.832718E-1	9.797734E-1	1.015488E+0	9.705801E-1	1.034610E+0	1.014048E+0	1.005736E+0	1.004619E+0	1.002105E+0	9.798432E-1	1.001657E+0	9.881251E-1	9.695727E-1	9.957203E-1	1.043466E+0	1.003273E+0	1.072731E+0	1.047907E+0	1.025128E+0	1.052287E+0	1.009173E+0	9.863322E-1	1.041975E+0	1.054400E+0	9.453329E-1	1.030193E+0	9.883468E-1	1.020790E+0	9.712697E-1	1.027675E+0	9.935583E-1	9.840555E-1	9.896506E-1	1.003186E+0	1.001390E+0	1.014431E+0	9.967606E-1	1.015430E+0	1.022386E+0	9.997889E-1	1.021183E+0	9.430957E-1	9.601987E-1	9.804453E-1
5.590160E+2	9.652515E-1	1.000000E+0	9.805132E-1	1.050199E+0	9.359754E-1	1.026587E+0	1.021418E+0	1.008285E+0	9.610308E-1	9.881672E-1	9.741830E-1	1.000264E+0	9.867583E-1	1.020433E+0	1.046783E+0	1.023409E+0	9.821603E-1	9.778883E-1	9.839820E-1	1.019180E+0	1.014309E+0	9.982242E-1	9.815750E-1	1.024328E+0	9.766687E-1	9.961496E-1	9.931742E-1	9.805094E-1	9.704799E-1	1.027234E+0	1.024802E+0	9.833813E-1	1.030359E+0	1.001535E+0	1.007050E+0	1.013814E+0	9.641799E-1	1.007740E+0	1.045524E+0	1.023665E+0	1.027111E+0	1.009795E+0	1.015686E+0	9.807496E-1	9.780621E-1	9.653408E-1	9.745957E-1	9.921921E-1	9.692818E-1	1.020310E+0	1.001450E+0	9.832817E-1	9.943163E-1	9.692421E-1	1.011826E+0	9.734753E-1	1.041244E+0	1.021481E+0	1.001840E+0	1.042469E+0	1.006346E+0	9.659222E-1	9.800742E-1	9.835716E-1	1.027105E+0	1.010012E+0	1.082965E+0	9.668236E-1	9.974769E-1	9.731945E-1	1.001608E+0	9.846367E-1	1.038115E+0	1.006396E+0	1.013737E+0	1.037722E+0	9.608984E-1	1.006734E+0	9.917101E-1	1.018209E+0	9.987855E-1	9.814727E-1	9.785680E-1	1.002810E+0	1.000792E+0	9.935081E-1	9.846987E-1	9.984756E-1	9.529277E-1	9.781179E-1	1.031262E+0	1.023835E+0	1.047413E+0	1.009709E+0	1.016562E+0	1.021693E+0	9.747427E-1	1.001493E+0	1.041471E+0	1.007291E+0	1.012564E+0	1.034987E+0	1.004422E+0	1.023317E+0	1.011109E+0	9.715174E-1	9.917960E-1	9.902434E-1	1.009358E+0	1.004373E+0	9.953472E-1	1.002162E+0	9.976756E-1	9.752207E-1	9.715210E-1	1.068469E+0	1.010122E+0	1.005644E+0	9.875491E-1	9.938486E-1	9.613076E-1	1.016352E+0	1.037050E+0	9.834344E-1	1.022565E+0	9.661018E-1	1.040363E+0	1.003091E+0	9.981945E-1	9.675546E-1	1.001506E+0	9.862376E-1	9.972440E-1	9.972649E-1	1.002804E+0	1.016603E+0	9.886764E-1	1.030861E+0	9.949634E-1	9.945844E-1	1.017234E+0	1.001995E+0	1.011581E+0	1.023647E+0	9.656837E-1	1.004142E+0	1.029305E+0	9.911214E-1	1.009803E+0	9.544950E-1	1.043986E+0	9.728278E-1	1.017774E+0	1.005710E+0	1.009739E+0	9.665901E-1	1.046575E+0	1.019067E+0	1.062031E+0	1.022550E+0	9.951850E-1	1.034663E+0	9.925971E-1	1.020734E+0	9.750223E-1	1.013151E+0	1.015885E+0	9.928498E-1	1.032956E+0	9.925685E-1
5.595110E+2	9.991034E-1	9.789356E-1	9.725167E-1	9.963931E-1	1.027669E+0	9.808613E-1	9.753453E-1	9.646314E-1	9.824810E-1	9.672980E-1	9.450619E-1	9.961988E-1	9.901846E-1	9.874988E-1	9.502318E-1	9.553159E-1	9.854483E-1	9.955400E-1	9.885584E-1	9.886287E-1	9.922746E-1	1.012500E+0	9.905359E-1	9.897942E-1	9.785057E-1	9.719411E-1	1.032831E+0	1.013584E+0	1.022904E+0	9.953960E-1	9.793759E-1	1.025876E+0	9.768771E-1	9.988968E-1	9.978870E-1	9.815579E-1	1.005798E+0	9.515620E-1	1.041674E+0	9.965673E-1	1.013607E+0	9.713466E-1	1.023999E+0	1.013578E+0	9.897034E-1	9.698742E-1	1.016075E+0	9.846335E-1	9.853681E-1	1.008656E+0	9.903032E-1	1.009239E+0	1.018061E+0	1.019531E+0	1.037135E+0	1.010835E+0	9.962852E-1	1.005798E+0	9.990363E-1	9.912230E-1	9.927377E-1	1.002144E+0	9.781002E-1	9.890662E-1	9.791426E-1	9.890713E-1	1.020967E+0	1.000405E+0	9.944892E-1	1.007720E+0	9.661781E-1	1.003515E+0	9.706319E-1	1.021905E+0	1.010474E+0	9.918668E-1	1.008146E+0	9.741920E-1	9.988692E-1	9.910708E-1	1.011284E+0	1.007443E+0	9.536486E-1	9.687602E-1	9.627276E-1	9.882124E-1	9.473553E-1	9.834505E-1	1.028736E+0	9.943680E-1	9.489613E-1	9.741761E-1	1.010594E+0	1.015976E+0	9.626386E-1	9.694593E-1	9.778493E-1	1.000813E+0	1.000627E+0	9.934193E-1	1.012829E+0	9.593719E-1	9.995791E-1	9.466116E-1	9.633323E-1	9.260161E-1	1.053189E+0	9.785032E-1	9.849712E-1	9.927199E-1	9.764434E-1	9.906689E-1	1.030565E+0	1.016730E+0	1.032753E+0	9.444554E-1	9.871450E-1	1.012801E+0	1.000437E+0	9.968463E-1	9.807679E-1	9.882989E-1	9.330165E-1	9.907029E-1	1.013520E+0	9.702153E-1	9.927824E-1	1.001180E+0	1.021471E+0	1.022426E+0	1.021763E+0	9.778039E-1	9.922339E-1	9.665463E-1	9.685568E-1	9.908387E-1	9.740244E-1	9.919871E-1	9.680472E-1	9.750255E-1	1.009526E+0	1.018459E+0	9.937444E-1	9.939957E-1	1.000662E+0	9.851585E-1	9.465208E-1	9.930057E-1	9.930435E-1	9.610421E-1	9.842797E-1	9.782678E-1	9.926865E-1	9.915946E-1	9.996588E-1	1.002440E+0	9.962261E-1	1.018124E+0	9.724770E-1	9.838429E-1	1.025952E+0	9.454762E-1	1.039516E+0	1.004496E+0	9.975918E-1	1.012763E+0	1.056838E+0	9.958305E-1	9.855032E-1	9.775531E-1
5.600520E+2	1.037583E+0	1.026801E+0	1.041780E+0	1.012153E+0	1.012438E+0	9.863856E-1	1.020581E+0	1.039176E+0	1.027987E+0	1.027707E+0	1.023981E+0	9.874677E-1	1.015864E+0	1.004367E+0	9.635004E-1	1.018494E+0	1.020069E+0	1.018002E+0	1.038616E+0	1.022551E+0	1.012833E+0	9.995520E-1	1.024270E+0	9.752057E-1	9.868258E-1	9.798003E-1	1.013672E+0	1.008281E+0	1.005073E+0	1.028003E+0	1.012228E+0	1.030159E+0	1.028484E+0	9.948130E-1	9.997211E-1	1.017715E+0	1.007916E+0	9.905450E-1	9.752948E-1	9.861075E-1	1.016302E+0	1.039780E+0	1.001770E+0	1.033110E+0	1.014871E+0	1.041248E+0	9.982216E-1	1.000047E+0	9.929636E-1	1.016111E+0	1.064135E+0	9.975767E-1	1.025744E+0	9.970609E-1	1.053844E+0	1.025219E+0	1.014434E+0	1.006489E+0	1.012079E+0	9.644498E-1	1.017296E+0	1.020210E+0	1.019614E+0	1.003206E+0	1.034803E+0	1.038882E+0	1.000330E+0	1.025540E+0	9.947862E-1	1.001611E+0	1.028169E+0	1.004392E+0	1.034466E+0	1.009307E+0	1.011815E+0	1.007418E+0	9.756061E-1	9.954296E-1	1.043661E+0	1.012237E+0	1.029004E+0	1.012667E+0	1.021385E+0	9.749890E-1	1.041314E+0	1.002599E+0	9.902415E-1	1.011857E+0	1.014427E+0	1.018175E+0	1.041451E+0	1.040498E+0	1.028715E+0	9.593619E-1	1.036554E+0	1.010305E+0	9.866607E-1	9.684842E-1	9.809099E-1	1.032309E+0	1.044815E+0	9.901106E-1	1.031784E+0	1.008216E+0	1.036570E+0	1.004598E+0	9.875658E-1	9.990955E-1	1.014563E+0	1.017229E+0	1.029328E+0	1.034626E+0	1.001511E+0	1.011731E+0	9.964622E-1	1.051602E+0	1.010110E+0	9.970094E-1	1.007500E+0	1.050920E+0	1.024533E+0	1.025756E+0	1.063967E+0	1.046554E+0	1.003835E+0	9.865303E-1	1.003036E+0	1.012308E+0	1.001062E+0	1.035361E+0	9.835709E-1	1.011115E+0	1.009618E+0	9.857666E-1	1.020097E+0	1.025675E+0	1.005514E+0	9.937215E-1	1.017648E+0	9.702330E-1	1.026830E+0	1.007146E+0	1.025328E+0	9.517366E-1	1.043722E+0	9.744750E-1	9.711885E-1	1.035849E+0	9.903408E-1	9.884958E-1	1.020412E+0	9.926757E-1	1.015634E+0	1.015674E+0	1.007910E+0	1.047303E+0	9.811775E-1	1.017303E+0	1.039350E+0	1.003289E+0	9.900669E-1	9.846089E-1	9.734225E-1	9.699588E-1	1.029702E+0	9.802227E-1	1.002853E+0	1.050209E+0	1.033389E+0	1.008616E+0
5.605150E+2	9.923830E-1	1.014900E+0	9.774168E-1	1.008925E+0	9.865426E-1	9.669814E-1	1.014525E+0	9.876491E-1	1.006652E+0	9.956093E-1	1.021736E+0	1.007571E+0	1.042763E+0	9.664905E-1	9.778569E-1	1.016108E+0	1.012781E+0	1.033409E+0	1.028274E+0	1.009122E+0	9.778167E-1	9.910791E-1	1.003796E+0	9.997627E-1	1.030592E+0	1.004975E+0	9.806864E-1	9.640869E-1	9.908715E-1	9.817311E-1	1.019793E+0	9.489581E-1	9.825545E-1	1.009239E+0	1.014717E+0	9.919464E-1	9.991913E-1	9.741811E-1	1.012425E+0	9.762307E-1	1.014063E+0	9.853774E-1	9.689741E-1	1.002183E+0	9.853937E-1	9.808856E-1	9.862407E-1	1.032718E+0	9.970255E-1	9.885769E-1	1.045014E+0	1.002323E+0	1.018313E+0	9.973926E-1	9.645909E-1	1.007668E+0	9.568833E-1	9.850940E-1	1.025296E+0	9.839287E-1	1.013998E+0	1.039502E+0	1.072497E+0	1.032066E+0	9.929915E-1	9.807116E-1	9.172618E-1	1.005855E+0	9.985452E-1	9.925359E-1	1.010274E+0	1.028739E+0	9.840901E-1	9.803836E-1	9.826687E-1	1.018246E+0	1.030292E+0	1.055431E+0	9.885199E-1	1.040536E+0	1.000149E+0	1.005736E+0	1.053751E+0	1.025679E+0	9.883778E-1	9.996297E-1	1.039966E+0	9.758561E-1	1.001567E+0	1.030527E+0	9.835571E-1	9.981668E-1	1.002637E+0	1.022289E+0	9.991851E-1	1.000740E+0	9.741100E-1	1.009785E+0	1.017098E+0	9.896241E-1	9.589647E-1	9.701214E-1	1.013014E+0	9.949018E-1	1.024539E+0	9.991346E-1	9.963283E-1	9.899319E-1	1.031100E+0	1.007352E+0	9.864531E-1	9.956833E-1	9.794669E-1	9.685861E-1	1.006175E+0	1.029544E+0	9.937950E-1	1.005807E+0	1.016879E+0	9.774573E-1	1.019344E+0	1.007087E+0	9.887784E-1	1.003786E+0	9.651383E-1	1.053584E+0	1.001820E+0	9.493239E-1	9.833951E-1	1.029908E+0	1.051030E+0	1.015620E+0	1.031429E+0	9.546980E-1	9.917537E-1	9.781419E-1	1.030585E+0	1.016674E+0	9.486128E-1	1.000269E+0	9.806943E-1	1.001183E+0	9.934203E-1	9.739042E-1	9.739797E-1	1.033165E+0	1.048833E+0	9.960898E-1	9.721045E-1	9.676685E-1	9.589489E-1	1.031406E+0	9.701257E-1	1.034161E+0	1.027970E+0	1.009046E+0	9.834930E-1	9.857050E-1	1.009623E+0	9.756230E-1	1.004877E+0	1.021147E+0	9.766206E-1	1.002930E+0	1.002314E+0	9.587981E-1	9.964649E-1	1.029817E+0	9.449784E-1	1.001694E+0
5.610180E+2	9.569520E-1	9.611225E-1	9.592348E-1	9.712552E-1	9.873552E-1	9.400031E-1	9.325200E-1	9.543160E-1	9.717580E-1	9.789724E-1	9.950754E-1	9.920148E-1	9.989747E-1	9.797364E-1	9.863907E-1	9.690617E-1	9.621055E-1	9.610239E-1	1.000910E+0	9.815298E-1	1.006795E+0	9.672059E-1	9.889101E-1	1.004423E+0	9.862546E-1	9.844650E-1	9.654907E-1	9.773827E-1	9.884737E-1	9.730918E-1	9.641937E-1	9.706737E-1	9.828950E-1	9.696955E-1	9.895094E-1	1.016929E+0	9.934599E-1	9.862824E-1	9.605842E-1	9.612861E-1	9.380570E-1	1.001461E+0	1.001503E+0	9.746368E-1	9.698132E-1	9.851659E-1	9.613693E-1	9.749804E-1	1.004646E+0	9.705856E-1	9.439527E-1	9.640254E-1	9.879985E-1	9.781390E-1	9.390594E-1	9.641480E-1	1.003372E+0	9.869328E-1	9.790520E-1	9.853089E-1	9.411874E-1	9.599421E-1	9.317143E-1	9.701528E-1	9.656080E-1	9.270080E-1	9.985094E-1	9.619895E-1	9.914794E-1	1.010521E+0	1.009843E+0	9.652689E-1	9.812688E-1	9.365560E-1	9.776757E-1	9.740035E-1	9.791727E-1	9.737377E-1	9.700557E-1	9.737322E-1	9.379997E-1	9.642330E-1	1.005964E+0	9.599217E-1	9.667990E-1	9.724116E-1	9.650941E-1	9.847758E-1	9.660971E-1	9.831437E-1	1.009634E+0	9.644700E-1	9.567118E-1	9.722112E-1	9.812418E-1	9.624792E-1	1.010528E+0	9.937464E-1	9.941019E-1	1.002626E+0	9.729098E-1	9.767938E-1	9.715278E-1	9.730990E-1	9.459273E-1	1.025089E+0	9.811580E-1	9.560246E-1	9.619370E-1	9.636747E-1	9.575848E-1	9.796112E-1	9.757865E-1	9.660334E-1	9.521453E-1	9.273426E-1	9.529171E-1	9.881316E-1	9.582865E-1	9.790189E-1	9.451246E-1	9.531747E-1	9.547561E-1	9.929216E-1	9.287462E-1	1.009953E+0	9.602455E-1	9.808981E-1	9.981262E-1	9.862945E-1	9.572149E-1	9.943888E-1	9.674396E-1	9.913379E-1	9.618361E-1	9.919036E-1	9.949038E-1	9.637060E-1	9.821643E-1	1.003950E+0	9.571482E-1	1.023462E+0	9.218046E-1	9.532429E-1	9.699475E-1	9.595208E-1	9.983694E-1	9.553636E-1	9.977048E-1	1.006481E+0	9.721553E-1	9.763814E-1	9.508335E-1	9.474859E-1	9.621341E-1	9.680588E-1	9.818393E-1	1.012596E+0	9.774405E-1	9.915238E-1	9.457230E-1	9.599720E-1	1.003192E+0	9.308935E-1	9.903200E-1	9.661862E-1	9.271681E-1	9.867807E-1	9.651452E-1	9.877337E-1
