Photon Energy (eV)	#1	#2	#3	#4	#5	#6	#7	#8	#9	#10	#11	#12	#13	#14	#15	#16	#17	#18	#19	#20	#21	#22	#23	#24	#25	#26	#27	#28	#29	#30	#31	#32	#33	#34	#35	#36	#37	#38	#39	#40	#41	#42	#43	#44	#45	#46	#47	#48	#49	#50	#51	#52	#53	#54	#55	#56	#57	#58	#59	#60	#61	#62	#63	#64	#65	#66	#67	#68	#69	#70	#71	#72	#73	#74	#75	#76	#77	#78	#79	#80	#81	#82	#83	#84	#85	#86	#87	#88	#89	#90	#91	#92	#93	#94	#95	#96	#97	#98	#99	#100	#101	#102	#103	#104	#105	#106	#107	#108	#109	#110	#111	#112	#113	#114	#115	#116	#117	#118	#119	#120	#121	#122	#123	#124	#125	#126	#127	#128	#129	#130	#131	#132	#133	#134	#135	#136	#137	#138	#139	#140	#141	#142	#143	#144	#145	#146	#147	#148	#149	#150	#151	#152	#153	#154	#155	#156	#157	#158	#159	#160	#161	#162	#163	#164	#165	#166	#167	#168	#169	#170	
5.300110E+2	-6.223603E-3	-1.043527E-2	-1.562626E-4	-2.127529E-3	-2.315703E-3	-4.820347E-3	-2.220942E-3	-4.017861E-3	3.071754E-3	-6.709195E-3	1.295815E-3	-1.569637E-2	-2.150664E-3	-9.367371E-3	-1.430554E-2	-1.128981E-2	-1.291147E-2	-1.091663E-3	-7.656666E-3	-6.791936E-3	-9.874647E-3	-8.174263E-3	-7.500922E-3	-6.136855E-3	-3.173771E-3	1.565207E-5	-5.971358E-3	-1.112555E-2	-8.976782E-3	-1.146891E-2	-1.934674E-3	-3.863563E-3	-9.958374E-4	3.680561E-3	-7.996018E-3	-7.789277E-3	1.841288E-3	-1.051171E-2	-3.407705E-3	-9.040781E-3	-2.029422E-3	-1.078029E-2	2.457940E-3	-9.194210E-3	-6.593729E-3	-3.141900E-3	-5.188631E-3	-6.649820E-3	-6.386591E-3	-1.100384E-3	-8.014717E-3	-5.755991E-3	-1.384979E-3	-2.094001E-3	-3.410803E-3	-6.960960E-3	-6.434875E-3	-8.971532E-3	1.091669E-3	-1.212280E-2	-2.651354E-3	1.679930E-3	1.695163E-3	-5.774823E-3	-7.582338E-3	-1.068132E-2	-4.950715E-3	-3.991929E-3	-1.191277E-2	5.355698E-3	-1.085151E-2	-7.395095E-3	-9.417727E-3	-1.134818E-2	-7.344372E-3	-4.490532E-3	-6.411538E-3	-4.268760E-3	-9.236463E-3	-5.224884E-3	-8.712518E-3	-9.078210E-3	-7.707747E-3	-1.228505E-2	-1.199749E-3	-1.206951E-2	-5.285744E-3	-1.116734E-3	-1.408273E-2	-8.189705E-3	-1.668551E-2	-6.396549E-3	-8.150875E-3	-7.137939E-3	-3.679874E-3	-5.744669E-3	-1.081230E-2	-1.426051E-3	-3.117785E-3	-5.098022E-3	1.056005E-2	-1.955855E-3	-1.123324E-2	1.643146E-3	-8.051436E-3	-9.799265E-3	-1.915760E-2	-6.954941E-3	-3.782560E-3	6.460888E-3	-9.516141E-3	-9.291745E-3	-7.820349E-3	-1.040091E-2	-1.730179E-3	-3.824516E-3	-5.880222E-3	-1.227224E-2	-1.104044E-2	-6.091190E-3	-3.741508E-3	2.790324E-3	2.589201E-3	-1.699553E-2	-9.154530E-3	-1.121149E-2	-7.800820E-3	-2.726844E-3	2.015395E-3	-7.378568E-3	-1.120040E-2	-9.385623E-3	-1.197692E-2	-4.999839E-3	-3.863329E-3	-3.776588E-3	-6.936701E-3	-2.306230E-3	-4.543830E-3	-1.475303E-3	-5.030805E-3	-1.008989E-2	-9.143143E-4	-7.822005E-3	-5.463833E-3	-8.787864E-3	5.724828E-3	1.234654E-3	2.559878E-3	-4.775465E-3	-3.538459E-3	1.405501E-3	2.313855E-3	-1.322210E-2	-1.273520E-2	-1.576127E-3	-9.545773E-3	-4.900799E-3	-1.045986E-2	-8.084908E-3	-9.837465E-3	-5.206736E-3	-1.087855E-2	-1.274614E-3	-9.655357E-3	-9.331292E-3	4.423613E-4	2.119244E-4	8.607608E-3	-1.880759E-2
5.305130E+2	-1.419307E-3	-4.151155E-3	-3.492573E-3	-8.645216E-3	3.004302E-3	5.324675E-3	-9.904864E-3	-8.435545E-3	-4.500958E-3	-1.347375E-2	-4.675371E-3	-7.755075E-3	-6.799136E-3	-2.976094E-3	6.944794E-4	-8.707253E-3	-4.374056E-3	-5.561350E-4	7.212708E-3	6.403370E-5	-4.854027E-3	-8.125108E-3	-4.569521E-3	-8.066163E-3	-9.740194E-3	4.543198E-3	-5.411150E-3	-5.746445E-3	-7.551166E-4	3.778834E-3	-1.057504E-3	-1.195470E-2	-9.917208E-3	-4.737195E-3	-5.488757E-3	-9.952066E-3	-1.028162E-2	-5.950594E-3	-2.035234E-3	-9.028895E-3	-7.128321E-3	1.905990E-3	-6.560312E-3	-4.360660E-3	2.836030E-3	-1.231790E-3	-6.550688E-4	-9.248961E-3	-3.382452E-3	-5.230581E-3	-7.476485E-3	2.495029E-3	-1.306454E-2	-6.362967E-3	-9.420144E-3	-5.358589E-3	-3.049840E-3	-7.620259E-3	-5.850360E-3	-6.182226E-3	-8.930317E-3	2.754844E-3	-6.834849E-3	-9.217577E-3	1.354941E-3	-3.504067E-3	3.515061E-3	-8.905951E-3	2.014608E-3	-6.246210E-3	-4.540168E-3	-1.588670E-2	1.383202E-3	-1.079065E-2	-1.898183E-3	-6.167905E-3	-4.774049E-3	-7.155175E-3	-7.351690E-3	-9.893811E-3	-1.415794E-2	1.335281E-4	-4.814753E-3	-9.638666E-3	-8.376448E-3	-4.889390E-4	-2.777347E-3	-8.620196E-3	-2.144115E-3	-4.931025E-3	9.827380E-4	-1.344514E-2	-1.153482E-2	-1.328706E-3	-2.329454E-4	-4.474301E-3	1.707970E-2	-1.335703E-2	2.632642E-3	-6.730979E-3	-9.413472E-3	-4.099622E-3	-5.108019E-3	-8.719119E-3	-7.441832E-3	-1.360777E-2	-4.193111E-3	4.519415E-3	-9.945782E-3	-6.460038E-3	-9.296725E-3	6.440525E-4	-1.072984E-2	1.027214E-3	-5.782281E-3	-4.357784E-3	-7.521767E-3	-8.352696E-4	-1.042539E-2	2.141045E-4	-8.695469E-4	-8.380099E-3	-9.034234E-3	6.307988E-3	-1.011656E-2	-5.554803E-3	6.582529E-3	-4.154700E-3	-1.797083E-2	-6.226912E-3	-3.844389E-3	-7.340130E-3	-9.811681E-3	8.911790E-4	-7.361184E-3	-1.103924E-2	-5.843670E-3	-1.440655E-2	1.857160E-3	-1.498733E-2	-5.012649E-3	-6.980974E-3	-5.551885E-3	-1.322728E-2	-3.511310E-3	-2.207406E-3	-1.232700E-2	-1.076846E-2	-9.294574E-3	-5.798856E-3	1.723028E-3	3.966160E-4	-2.016297E-3	1.475500E-3	-5.596014E-3	-1.213967E-2	-9.498837E-3	2.478741E-3	-3.023830E-3	-3.990918E-5	-6.180187E-3	-7.137516E-3	-4.481579E-3	-7.966598E-3	4.446945E-3	-8.236677E-4	-1.086581E-2	-2.714955E-3	-1.024373E-2	-1.361015E-2
5.310050E+2	-7.587110E-3	-5.178230E-3	-3.289458E-3	-6.468119E-3	-9.021023E-3	-4.044669E-3	2.388726E-3	-2.833982E-3	-6.999140E-3	-9.085632E-3	-3.470933E-3	3.003399E-3	-1.037002E-3	-3.234033E-3	-6.558941E-3	-3.468378E-3	-4.173415E-3	-3.633035E-3	2.894723E-5	-5.862506E-3	8.583767E-3	9.258959E-3	-4.356917E-4	2.289407E-3	-2.345692E-3	-9.375797E-3	-1.033055E-2	-8.363139E-4	-3.430076E-3	-1.014859E-2	7.134279E-5	4.917338E-3	-2.544311E-3	-5.094449E-3	-5.274021E-3	5.856099E-3	-5.880422E-3	-2.713033E-3	-5.541269E-3	-2.892275E-3	-3.482657E-3	-3.122824E-3	-9.846643E-3	-1.745612E-3	-4.869476E-3	-7.787742E-3	-4.146772E-4	-2.222683E-3	-2.031623E-3	-1.218667E-2	-2.666565E-3	-4.125587E-4	-6.493919E-3	-3.468330E-3	-3.196516E-3	-9.886251E-3	-6.186294E-3	-8.036303E-3	-2.732228E-3	-3.063438E-3	-5.350279E-3	-6.357532E-3	8.423430E-4	-4.935770E-3	9.613342E-4	-1.222438E-2	-7.453833E-3	-6.198453E-3	-1.963209E-3	-6.557391E-3	-5.370009E-3	3.450768E-4	-2.328816E-3	-3.057252E-4	5.229159E-4	-1.120248E-3	7.664384E-3	-2.693354E-4	2.126118E-3	1.462986E-3	4.065884E-3	3.916818E-4	-5.680462E-3	-1.127949E-2	-2.631559E-3	-4.755042E-3	-6.767161E-3	-2.909844E-3	-1.152664E-2	3.864183E-3	-5.142373E-3	-8.945166E-3	-4.495280E-4	3.566844E-4	-1.362859E-2	1.400789E-4	-7.567797E-3	-1.687164E-3	-1.269861E-2	9.603027E-4	-5.106608E-3	-1.165095E-3	-1.275527E-3	-1.005293E-2	1.764525E-3	1.954375E-3	-1.226048E-2	2.176004E-3	2.743867E-3	-2.755978E-3	1.017034E-2	-7.713295E-4	8.429500E-3	5.826654E-3	-4.756234E-3	-5.481550E-3	-1.135720E-3	-1.638152E-3	-5.709015E-3	-2.685988E-3	5.126190E-4	8.794485E-4	-6.132572E-3	-4.420169E-4	-6.779906E-3	3.299419E-4	-1.207395E-2	2.762791E-3	5.854617E-3	-5.966137E-3	-6.658467E-4	-3.278075E-3	-3.924184E-3	6.542059E-4	-5.395997E-4	2.223668E-3	-5.600265E-3	1.659089E-3	-5.051984E-3	-7.171805E-3	-2.217330E-3	5.512138E-3	-8.388146E-3	-7.895411E-3	2.376989E-3	-1.961831E-3	-3.042577E-3	3.365743E-3	-9.102758E-3	4.010394E-3	-5.683079E-3	-3.174314E-4	-8.713319E-3	3.797506E-3	-2.933700E-3	-4.629092E-3	-3.632591E-3	-3.906454E-3	3.836425E-3	-6.514411E-3	-5.018997E-5	-6.179635E-3	3.318198E-3	1.996770E-4	-9.897676E-3	-1.685739E-3	-1.117013E-2	-3.977431E-3	-1.123378E-2	1.669154E-3
5.315130E+2	-1.120458E-2	6.246922E-3	-1.302296E-2	-7.628249E-3	5.787585E-3	-1.116003E-3	-8.418112E-3	2.478434E-3	8.531988E-4	3.370641E-3	-2.172335E-3	5.558470E-3	-6.830407E-3	-5.406983E-3	-4.930044E-3	-5.915457E-4	5.709759E-3	-2.830938E-3	9.288791E-4	-3.281299E-3	-4.954281E-4	2.232483E-3	-1.569772E-3	3.183758E-3	3.460813E-3	1.666072E-3	-8.460768E-4	-5.815195E-4	2.159164E-3	4.947851E-3	-2.353431E-3	7.532946E-4	-4.140572E-3	-7.175325E-3	3.108312E-3	-5.075768E-3	-1.322586E-2	-3.427884E-3	8.710972E-4	5.326109E-3	4.870221E-3	3.526724E-3	1.164140E-2	-7.534237E-3	5.451944E-3	2.795886E-3	2.288031E-3	1.827155E-3	4.739246E-4	1.807423E-3	-2.357480E-3	-4.686980E-3	8.315215E-3	1.664978E-3	-4.960098E-3	1.562176E-3	-5.372413E-3	7.083702E-3	-7.322232E-3	6.604637E-3	-7.497056E-3	1.081517E-3	-1.041390E-3	1.125004E-2	-7.312585E-4	2.637961E-3	-3.414103E-3	6.653717E-3	5.444102E-3	-7.946241E-3	3.819130E-3	1.398856E-2	4.306341E-3	5.293005E-3	2.408239E-3	3.388892E-3	-1.189172E-2	2.018561E-3	3.928027E-3	2.360660E-3	4.348851E-3	-3.963395E-3	8.683397E-3	-1.475019E-3	-1.317405E-4	-1.920537E-3	2.042014E-3	-5.547972E-4	1.110537E-2	-4.993790E-3	7.554767E-3	8.041612E-3	-1.169935E-4	4.169876E-3	7.528496E-3	-1.064195E-2	-3.292577E-3	7.319733E-3	-3.304703E-3	5.564581E-4	4.385446E-4	-6.356858E-3	6.949182E-3	9.652279E-3	8.322883E-3	2.164852E-5	2.693824E-3	-7.045647E-3	3.082796E-3	2.123534E-3	4.024397E-3	-5.190900E-3	1.358527E-3	5.067304E-3	-8.109105E-3	1.410694E-2	4.891123E-3	-5.547386E-3	5.475032E-3	-7.198629E-3	-3.209836E-3	1.652821E-4	-5.324207E-3	-4.961114E-3	-3.359554E-3	4.075071E-3	2.891335E-3	2.518352E-3	3.820945E-3	4.185632E-3	-3.530063E-3	1.363856E-4	5.491937E-4	1.020548E-3	3.600139E-3	-2.647848E-3	-3.821494E-4	-2.824712E-3	-8.466591E-3	1.067971E-2	5.847974E-3	2.338203E-3	1.939719E-3	8.576045E-3	7.815062E-4	5.951687E-4	-2.891224E-3	-6.659571E-3	2.512503E-3	-3.173672E-3	3.076959E-3	4.988977E-3	-9.924770E-3	-1.726951E-3	2.667835E-3	5.975543E-3	2.933407E-3	2.975823E-3	-1.767969E-4	2.016443E-3	1.399884E-2	3.709396E-3	-6.873196E-3	4.587279E-3	-4.017360E-4	-7.803267E-4	-3.772423E-3	-1.019899E-2	-3.062782E-3	7.568940E-4
5.320120E+2	7.077756E-3	1.243774E-2	1.073752E-2	3.094005E-3	9.285523E-3	1.553699E-3	8.844793E-3	2.946916E-3	-2.865977E-4	1.030707E-2	-2.717169E-3	1.058763E-2	-7.320087E-4	4.541597E-3	9.739865E-3	9.244920E-3	2.797353E-3	4.936215E-3	-7.236814E-3	1.171895E-2	2.804981E-3	-3.035804E-4	2.856191E-3	7.097815E-3	-2.800964E-3	4.482538E-3	1.188894E-3	5.568836E-4	-3.248591E-3	1.159484E-3	-2.845723E-3	6.376103E-3	4.303267E-3	-3.952422E-4	1.542283E-3	5.102376E-3	8.195403E-3	4.705466E-3	2.253877E-3	2.513526E-3	-5.122814E-3	2.936985E-3	-4.638091E-3	2.792168E-4	3.608723E-4	2.259519E-3	-9.998211E-4	-3.597288E-4	8.641466E-3	1.324861E-2	5.900794E-3	-2.814701E-4	1.767920E-3	1.063915E-3	3.664176E-3	2.580117E-3	8.293662E-3	4.606908E-3	-2.504710E-4	2.997823E-3	2.733069E-3	-3.999833E-3	1.029611E-2	-8.293982E-3	-1.435999E-3	1.283907E-3	9.599392E-3	5.944618E-3	1.736489E-3	9.077510E-3	7.461655E-3	1.208754E-3	-1.073202E-2	4.718237E-3	6.711186E-4	2.710128E-3	6.946454E-3	5.242519E-4	8.126673E-3	-4.582227E-4	-8.378999E-4	-5.239217E-3	-3.322552E-3	1.805681E-2	5.990458E-3	4.615035E-3	-5.557028E-3	5.929063E-3	1.331573E-2	2.042070E-3	6.437048E-3	1.169112E-2	1.193233E-2	-3.194422E-3	4.104000E-3	5.970017E-3	-4.446529E-3	6.691304E-3	1.914998E-3	7.470497E-3	2.145300E-3	1.868463E-3	1.401965E-3	2.777443E-3	-5.972631E-3	5.223599E-3	7.160408E-3	9.969493E-4	2.093242E-3	5.885880E-4	1.230612E-3	7.043398E-3	-2.413433E-3	-9.374924E-3	7.463901E-4	-2.614750E-3	9.408896E-3	5.976872E-3	6.009940E-3	7.112139E-3	-3.251121E-3	-2.561835E-3	2.519078E-3	1.512080E-2	1.027298E-2	8.343792E-3	5.489885E-3	-8.518430E-3	-2.825070E-3	6.900196E-3	1.057987E-2	1.411513E-2	1.208780E-2	-5.502679E-3	-2.495009E-3	3.149732E-3	9.960403E-3	7.358758E-3	7.843449E-3	-1.364124E-3	1.685956E-3	-5.459648E-3	9.984302E-3	1.302505E-2	-4.348124E-3	-1.825962E-3	5.147807E-3	-5.792476E-4	7.303751E-3	-4.285360E-3	-2.279583E-3	-7.919326E-3	9.047118E-4	4.069366E-3	1.505240E-3	5.319627E-3	1.068415E-2	-7.500439E-4	2.248447E-3	7.437969E-3	-5.810221E-3	5.726659E-3	-8.886748E-4	5.552814E-4	-2.638569E-3	3.257343E-4	9.542679E-3	-7.062212E-3	1.047713E-2	1.790563E-2
5.325170E+2	1.935684E-2	1.079994E-3	9.223736E-3	2.177511E-2	-6.740685E-3	3.102643E-3	9.310400E-3	9.862038E-3	7.861742E-3	1.559087E-2	1.173999E-2	4.301948E-3	1.754922E-2	1.644288E-2	1.536018E-2	1.481206E-2	1.295183E-2	3.175556E-3	6.722945E-3	4.152759E-3	3.835354E-3	5.111509E-3	1.121972E-2	1.632037E-3	1.459981E-2	-1.331662E-3	2.137024E-2	1.773294E-2	1.425140E-2	1.173133E-2	8.119990E-3	3.771523E-3	1.329466E-2	1.372165E-2	1.410820E-2	1.185864E-2	1.935122E-2	1.789776E-2	7.859234E-3	1.312232E-2	1.289299E-2	5.533421E-3	6.945704E-3	2.255550E-2	2.814358E-3	7.106027E-3	4.970167E-3	1.665404E-2	2.685275E-3	3.461603E-3	1.461445E-2	8.641972E-3	1.086030E-2	9.196405E-3	1.732339E-2	1.806351E-2	1.274976E-2	1.293748E-2	1.506362E-2	1.176600E-2	2.169594E-2	4.841073E-3	-4.957382E-3	1.697212E-2	7.433321E-3	2.248790E-2	2.704198E-3	6.497998E-3	4.680781E-3	6.316633E-3	9.480904E-3	7.739398E-3	1.678902E-2	1.243332E-2	5.640281E-3	5.679666E-3	8.466464E-3	9.150457E-3	2.407335E-3	1.175327E-2	1.529362E-2	1.775561E-2	1.284212E-2	1.662142E-2	6.349038E-3	1.461899E-2	1.834527E-2	7.272509E-3	3.332384E-3	1.220827E-2	6.853333E-3	9.054128E-3	8.319893E-3	7.134506E-3	5.908918E-3	1.475082E-2	9.039499E-3	2.459210E-3	1.457346E-2	2.841743E-3	1.376184E-3	1.170897E-2	9.265634E-3	4.699180E-3	1.137849E-2	1.620741E-2	2.575696E-2	6.308220E-3	5.808439E-3	4.300516E-5	3.387521E-3	7.566524E-3	1.117560E-2	7.854657E-3	1.963141E-2	2.171654E-3	2.376897E-4	1.431618E-2	1.568987E-2	8.649564E-3	1.055939E-2	7.106880E-3	1.538273E-2	9.698769E-4	1.913757E-2	4.017492E-3	4.911019E-3	1.011883E-2	9.104940E-3	8.485788E-3	8.660830E-3	5.752315E-3	1.307579E-2	7.936586E-3	1.065898E-2	1.209028E-2	8.802383E-3	1.051964E-2	8.361795E-3	1.431886E-2	4.726854E-3	1.468017E-2	2.930324E-3	7.343600E-3	1.016477E-2	1.418789E-2	7.388163E-3	1.340688E-2	6.021200E-3	1.402296E-2	6.701133E-3	1.445664E-3	1.743582E-2	5.606680E-3	1.709183E-2	7.049723E-3	9.059642E-3	4.102733E-3	7.575610E-3	5.184815E-3	7.879228E-3	9.087831E-3	1.980381E-2	3.898974E-3	1.814639E-2	1.229529E-2	1.582332E-2	2.374166E-2	5.455556E-3	1.208606E-2
5.330180E+2	1.916685E-2	3.777747E-2	2.077629E-2	1.676865E-2	2.429271E-2	1.045437E-2	1.243547E-2	2.271969E-2	2.688449E-2	5.687179E-3	2.264240E-2	2.555985E-2	1.082505E-2	2.283994E-2	3.142590E-2	2.238765E-2	3.049441E-2	3.094152E-2	1.192188E-2	2.755579E-2	7.495548E-3	1.992071E-2	2.601821E-2	2.508854E-2	2.454546E-2	4.048186E-2	2.592578E-2	2.110156E-2	1.752278E-2	1.635550E-2	2.413375E-2	2.007231E-2	2.033917E-2	2.205234E-2	1.345097E-2	1.390647E-2	2.132145E-2	1.006618E-2	3.192999E-2	2.652447E-2	1.673761E-2	2.354066E-2	3.017687E-2	1.932822E-2	1.575872E-2	2.128162E-2	2.302523E-2	2.453839E-2	1.178070E-2	2.683152E-2	2.226697E-2	1.087981E-2	1.336221E-2	2.931866E-2	2.281984E-2	8.229003E-3	2.918691E-2	2.414458E-2	1.659664E-2	2.160139E-2	1.965995E-2	9.624059E-3	3.010897E-2	1.444060E-2	2.705396E-2	3.258665E-2	3.143907E-2	1.769649E-2	2.748760E-2	1.305675E-2	3.046912E-2	1.884209E-2	2.353819E-2	2.013807E-2	2.227081E-2	1.277121E-2	2.665497E-2	2.989221E-2	7.895515E-3	2.023903E-2	5.585742E-3	4.197028E-3	1.491046E-2	2.501608E-2	1.857147E-2	1.757597E-2	2.359833E-2	2.390475E-2	3.137462E-2	2.513257E-2	2.179815E-2	3.319454E-2	1.976052E-2	2.073745E-2	2.919730E-2	2.143679E-2	2.050449E-2	1.564716E-2	2.551763E-2	3.811078E-2	2.679221E-2	2.580399E-2	2.428289E-2	6.654810E-3	1.989128E-2	1.305693E-2	6.751915E-3	2.419400E-2	2.953677E-2	1.044746E-2	2.585646E-2	2.371066E-2	1.212219E-2	8.749398E-3	2.298140E-2	1.360889E-2	1.254133E-2	2.204024E-2	1.203285E-2	2.442826E-2	2.307682E-2	1.666146E-2	1.405798E-2	2.816628E-2	2.480813E-2	1.964409E-2	2.109487E-2	2.313712E-2	3.232108E-2	2.483899E-2	1.143685E-2	1.374346E-2	2.186675E-2	2.030081E-2	3.144826E-2	1.670558E-2	1.737875E-2	2.219484E-2	2.801313E-2	2.227519E-2	1.903540E-2	2.128575E-2	2.268754E-2	3.019964E-2	1.304337E-2	2.288655E-2	2.272727E-2	2.099197E-3	2.270230E-2	3.336902E-2	1.716547E-2	2.611534E-2	2.034874E-2	2.396003E-2	1.973312E-2	2.009772E-2	2.243203E-2	3.892955E-2	7.427816E-3	2.084437E-2	2.981507E-2	5.943635E-3	1.745769E-2	1.050101E-2	2.457658E-2	1.697458E-3	2.255410E-2	9.861109E-3	1.445740E-2	-4.802201E-3
5.331630E+2	3.882392E-2	2.080106E-2	2.987460E-2	2.008030E-2	3.803124E-2	3.400842E-2	1.752304E-2	2.740019E-2	3.253638E-2	2.787353E-2	2.226725E-2	2.571599E-2	3.538135E-2	1.695449E-2	2.974002E-2	2.336986E-2	3.237897E-2	2.096957E-2	1.914269E-2	3.444317E-2	3.259951E-2	2.154169E-2	2.623145E-2	3.534284E-2	3.205633E-2	1.973265E-2	2.289967E-2	3.106039E-2	2.070116E-2	3.156226E-2	2.480997E-2	2.492582E-2	3.187200E-2	3.080661E-2	2.281363E-2	1.651065E-2	2.315168E-2	1.683652E-2	2.739507E-2	2.606072E-2	3.035587E-2	2.364539E-2	2.063735E-2	1.597816E-2	3.474763E-2	2.893121E-2	1.475960E-2	2.555727E-2	3.612209E-2	2.569602E-2	2.661672E-2	2.647893E-2	2.489939E-2	1.057474E-2	2.502240E-2	2.278711E-2	1.722462E-2	2.843737E-2	2.258629E-2	3.063351E-2	2.033472E-2	3.165378E-2	3.741162E-2	1.207979E-2	2.386946E-2	3.265106E-2	2.291790E-2	2.796638E-2	1.645663E-2	2.714074E-2	2.637271E-2	2.415684E-2	2.425646E-2	2.504813E-2	3.141972E-2	1.832582E-2	1.644245E-2	1.936591E-2	3.179498E-2	2.100827E-2	1.383451E-2	1.832606E-2	2.246334E-2	3.259971E-2	3.182249E-2	1.830406E-2	2.654088E-2	1.751820E-2	2.468284E-2	1.817240E-2	1.759809E-2	1.947450E-2	3.055184E-2	2.828467E-2	2.757215E-2	2.440296E-2	4.076704E-2	2.808341E-2	2.386028E-2	1.856027E-2	2.579099E-2	2.206993E-2	3.671245E-2	2.808881E-2	2.198353E-2	1.358006E-2	1.577075E-2	1.733229E-2	1.612364E-2	2.118629E-2	3.489030E-2	2.196697E-2	3.590632E-2	1.743376E-2	2.961941E-2	1.769599E-2	4.021248E-2	1.733913E-2	2.016233E-2	2.667024E-2	3.661454E-2	1.232684E-2	1.691595E-2	3.492943E-2	1.856249E-2	1.785554E-2	2.336833E-2	2.653378E-2	4.214633E-2	2.160398E-2	2.254322E-2	3.690582E-2	2.569485E-2	2.041216E-2	3.102579E-2	2.966070E-2	1.635376E-2	2.446227E-2	2.691410E-2	2.228739E-2	2.749506E-2	2.770058E-2	2.551534E-2	2.068040E-2	1.619103E-2	2.167766E-2	2.216820E-2	1.994247E-2	1.538749E-2	1.713295E-2	1.399181E-2	2.677644E-2	2.946265E-2	3.313996E-2	1.869126E-2	1.766648E-2	3.485308E-2	2.967490E-2	3.078289E-2	2.534771E-2	3.605961E-2	3.027928E-2	1.974438E-2	3.585661E-2	1.746052E-2	3.241118E-2	3.411556E-2	2.889973E-2	2.013899E-2	9.199468E-3
5.333080E+2	3.986481E-2	3.658297E-2	3.478687E-2	3.770550E-2	4.637554E-2	2.851314E-2	3.614452E-2	3.346487E-2	2.253002E-2	3.329347E-2	3.900754E-2	3.765231E-2	3.205277E-2	3.213322E-2	4.176816E-2	3.597779E-2	3.763565E-2	1.473553E-2	1.805006E-2	3.050471E-2	2.011579E-2	4.225014E-2	3.579104E-2	3.574298E-2	3.546393E-2	2.203425E-2	3.237106E-2	2.104729E-2	4.167571E-2	3.212142E-2	4.024367E-2	2.316230E-2	3.471194E-2	2.335187E-2	2.955286E-2	4.154607E-2	2.598762E-2	2.615512E-2	3.989393E-2	3.288936E-2	2.798843E-2	3.337704E-2	2.834687E-2	2.921624E-2	2.992868E-2	2.599895E-2	3.180501E-2	2.406960E-2	4.241293E-2	2.334744E-2	2.729430E-2	3.346917E-2	2.468920E-2	3.612496E-2	3.076367E-2	2.582360E-2	1.904753E-2	2.721745E-2	3.400989E-2	3.461617E-2	3.906584E-2	2.720804E-2	3.312649E-2	2.662090E-2	2.469687E-2	3.735426E-2	4.720888E-2	3.135109E-2	2.664230E-2	3.689268E-2	2.161630E-2	3.279432E-2	2.378474E-2	3.459972E-2	4.797605E-2	2.919360E-2	2.584176E-2	3.463775E-2	3.139683E-2	3.287458E-2	2.613113E-2	4.250103E-2	2.652251E-2	4.542905E-2	4.216206E-2	3.592328E-2	3.797698E-2	3.130720E-2	3.350097E-2	4.136863E-2	3.240601E-2	4.414980E-2	2.708533E-2	4.177753E-2	3.001820E-2	3.455710E-2	2.705399E-2	2.336781E-2	2.503811E-2	3.198837E-2	2.698404E-2	2.711029E-2	2.682282E-2	1.587791E-2	3.193870E-2	3.711505E-2	2.229762E-2	3.506084E-2	3.918999E-2	3.344997E-2	3.099331E-2	3.969813E-2	2.648087E-2	3.085860E-2	2.961872E-2	3.032646E-2	2.755589E-2	3.012596E-2	2.773038E-2	3.960742E-2	2.730261E-2	3.203677E-2	4.539219E-2	3.694524E-2	4.413184E-2	3.527212E-2	3.139209E-2	3.990814E-2	4.884961E-2	3.500001E-2	3.252463E-2	2.981968E-2	2.733625E-2	1.993828E-2	3.719038E-2	2.915978E-2	3.186738E-2	3.264285E-2	3.223681E-2	2.674397E-2	2.751944E-2	3.087631E-2	4.464521E-2	1.956683E-2	2.776533E-2	4.342146E-2	3.212911E-2	2.554513E-2	3.132242E-2	3.030147E-2	4.420010E-2	3.585113E-2	3.983705E-2	3.691799E-2	3.910658E-2	2.499999E-2	2.647702E-2	3.528037E-2	2.538584E-2	1.653296E-2	3.852065E-2	3.658339E-2	1.867553E-2	4.685637E-2	3.418386E-2	2.661870E-2	3.478207E-2	3.454010E-2	2.648575E-2	1.887447E-2
5.334680E+2	4.564807E-2	3.636933E-2	4.798747E-2	3.544400E-2	4.974290E-2	5.515577E-2	3.763863E-2	4.238088E-2	3.234238E-2	4.830060E-2	3.680959E-2	5.026425E-2	4.622592E-2	4.358237E-2	4.736517E-2	3.673890E-2	4.846076E-2	3.378604E-2	3.100317E-2	4.605516E-2	3.864218E-2	4.407880E-2	4.214800E-2	6.194187E-2	5.181821E-2	3.813595E-2	5.217680E-2	2.523104E-2	6.132542E-2	4.003585E-2	4.334922E-2	3.932027E-2	5.305885E-2	3.525900E-2	4.118835E-2	3.553378E-2	5.409117E-2	4.150439E-2	3.541975E-2	4.659281E-2	4.493950E-2	4.077257E-2	4.101229E-2	3.071205E-2	2.414540E-2	5.675701E-2	4.153968E-2	4.219184E-2	4.999399E-2	4.459455E-2	4.498816E-2	4.017155E-2	3.550725E-2	4.204612E-2	3.318600E-2	4.354196E-2	5.011492E-2	4.652945E-2	4.521120E-2	5.045546E-2	3.200174E-2	4.398978E-2	3.625981E-2	4.068535E-2	3.516264E-2	5.286431E-2	5.163911E-2	3.073034E-2	4.196420E-2	3.241386E-2	3.429839E-2	5.273804E-2	2.013774E-2	3.125828E-2	5.404155E-2	4.464306E-2	5.218429E-2	2.568860E-2	4.369311E-2	3.944687E-2	4.696463E-2	4.886079E-2	3.949941E-2	5.211096E-2	4.895821E-2	3.930831E-2	4.976232E-2	4.903443E-2	3.622882E-2	3.732929E-2	4.370405E-2	4.433699E-2	5.268753E-2	3.871448E-2	5.170763E-2	5.414316E-2	5.066750E-2	4.632979E-2	4.751841E-2	4.637535E-2	4.107723E-2	5.312521E-2	4.398979E-2	3.315230E-2	3.440645E-2	2.580974E-2	4.821839E-2	4.951930E-2	4.791890E-2	3.738723E-2	3.253788E-2	5.272844E-2	4.023876E-2	3.069722E-2	3.844290E-2	4.101970E-2	4.355341E-2	3.952726E-2	2.524765E-2	4.836877E-2	3.361720E-2	3.735308E-2	3.954633E-2	5.435150E-2	5.780546E-2	3.321377E-2	2.911382E-2	3.306480E-2	4.985916E-2	3.371913E-2	5.656304E-2	3.992887E-2	3.252136E-2	3.953064E-2	4.147320E-2	4.509035E-2	3.062018E-2	4.826084E-2	6.215958E-2	5.079767E-2	4.514000E-2	6.321676E-2	5.100432E-2	4.155180E-2	4.041690E-2	4.323815E-2	3.254837E-2	4.207792E-2	3.361023E-2	3.343408E-2	4.187683E-2	4.524004E-2	6.229352E-2	5.175907E-2	3.893554E-2	4.374157E-2	5.738792E-2	5.125352E-2	4.260103E-2	5.118609E-2	5.045915E-2	3.498529E-2	2.739776E-2	2.939351E-2	3.348403E-2	3.864954E-2	4.685663E-2	3.839246E-2	4.133120E-2	3.416543E-2
5.336030E+2	4.766763E-2	6.713578E-2	5.121160E-2	5.075020E-2	5.550822E-2	5.228084E-2	5.440177E-2	5.543622E-2	4.546904E-2	5.250514E-2	6.667899E-2	5.871266E-2	5.862310E-2	4.754813E-2	6.126572E-2	5.495571E-2	5.759804E-2	3.867528E-2	4.616874E-2	6.047138E-2	4.924308E-2	5.965368E-2	5.364328E-2	6.095794E-2	5.680570E-2	5.366238E-2	6.315684E-2	6.417059E-2	6.128947E-2	5.124856E-2	5.450256E-2	5.388651E-2	4.789782E-2	6.159418E-2	5.238865E-2	5.026121E-2	5.778924E-2	5.332385E-2	5.550381E-2	6.139730E-2	6.962960E-2	6.013319E-2	7.075236E-2	5.345056E-2	4.963634E-2	4.871409E-2	5.896533E-2	5.738942E-2	5.941877E-2	5.728066E-2	4.909996E-2	4.055429E-2	4.083162E-2	5.522583E-2	5.685047E-2	4.449306E-2	4.126862E-2	5.547690E-2	6.064195E-2	5.998056E-2	6.081479E-2	5.119128E-2	5.370124E-2	4.980797E-2	5.527254E-2	4.933650E-2	6.243196E-2	4.709696E-2	4.666498E-2	6.581195E-2	5.289594E-2	4.618438E-2	5.674828E-2	5.281410E-2	5.846300E-2	5.304924E-2	4.987796E-2	5.900147E-2	5.608399E-2	7.178463E-2	4.926762E-2	6.281223E-2	4.741653E-2	4.604541E-2	6.601270E-2	5.690136E-2	4.799498E-2	4.283297E-2	6.174530E-2	6.202319E-2	5.015141E-2	5.477558E-2	4.444520E-2	7.010656E-2	5.606502E-2	6.049130E-2	6.197666E-2	6.096933E-2	4.556341E-2	6.138472E-2	7.919510E-2	6.084007E-2	4.688649E-2	5.586990E-2	5.034992E-2	5.736143E-2	3.753507E-2	6.354396E-2	5.036223E-2	5.780871E-2	6.160040E-2	5.170453E-2	6.231630E-2	6.506409E-2	5.279564E-2	6.541321E-2	5.578137E-2	5.909201E-2	4.892091E-2	4.911789E-2	5.049489E-2	5.530743E-2	5.709055E-2	5.901753E-2	5.383221E-2	5.447236E-2	5.468520E-2	4.784693E-2	6.566222E-2	5.818673E-2	5.339553E-2	6.661799E-2	4.912490E-2	5.312246E-2	6.091659E-2	5.016669E-2	5.602101E-2	6.071442E-2	5.437906E-2	6.679843E-2	4.300638E-2	6.585097E-2	5.202069E-2	6.216119E-2	4.415037E-2	7.627479E-2	6.566260E-2	5.606946E-2	3.707787E-2	5.905194E-2	5.796125E-2	4.741438E-2	5.891715E-2	7.101729E-2	4.675207E-2	3.926082E-2	5.103175E-2	6.663524E-2	4.552143E-2	5.551201E-2	5.939831E-2	3.676969E-2	3.940444E-2	5.461367E-2	5.785266E-2	6.410632E-2	7.567548E-2	4.445523E-2	3.549488E-2	5.589725E-2
5.337580E+2	7.771029E-2	6.653183E-2	1.079372E-1	9.159147E-2	8.128810E-2	6.331865E-2	6.973196E-2	7.881104E-2	8.111278E-2	7.541193E-2	7.589952E-2	7.910637E-2	8.745981E-2	8.008058E-2	9.653698E-2	7.836794E-2	7.220072E-2	8.917995E-2	7.639352E-2	7.805674E-2	7.828170E-2	6.831725E-2	9.203454E-2	6.592604E-2	9.976596E-2	9.916739E-2	6.532555E-2	7.945012E-2	7.379139E-2	9.515090E-2	1.027639E-1	7.434444E-2	8.579801E-2	6.798390E-2	7.664504E-2	6.783651E-2	7.310568E-2	7.360493E-2	9.019743E-2	8.697681E-2	7.142529E-2	8.621245E-2	7.750603E-2	7.810642E-2	7.691987E-2	7.982336E-2	9.451288E-2	7.940069E-2	8.590681E-2	7.756957E-2	8.394785E-2	7.281412E-2	7.722003E-2	8.584976E-2	6.983895E-2	8.203077E-2	7.555246E-2	7.688874E-2	8.293624E-2	8.245662E-2	8.583804E-2	8.637938E-2	6.860798E-2	6.098250E-2	9.343721E-2	8.411984E-2	6.648080E-2	8.253029E-2	8.318966E-2	7.938656E-2	7.544793E-2	7.437818E-2	7.490935E-2	8.039658E-2	7.559913E-2	7.193154E-2	4.989398E-2	6.593680E-2	7.961420E-2	6.142777E-2	7.723596E-2	7.844571E-2	6.671188E-2	8.992760E-2	7.892379E-2	8.054791E-2	7.495753E-2	7.381177E-2	7.315382E-2	5.707053E-2	8.745327E-2	7.593155E-2	7.376139E-2	9.129610E-2	7.641593E-2	6.576075E-2	7.347345E-2	8.567447E-2	6.736586E-2	6.594693E-2	8.501046E-2	6.762808E-2	7.860838E-2	6.669189E-2	7.819814E-2	7.463328E-2	7.294631E-2	9.720204E-2	7.610686E-2	9.226002E-2	8.473584E-2	7.573828E-2	8.720276E-2	8.215925E-2	6.735534E-2	6.289720E-2	8.489488E-2	6.775028E-2	6.243341E-2	9.602198E-2	7.177229E-2	8.670424E-2	1.086221E-1	6.753293E-2	8.149194E-2	7.402807E-2	6.501800E-2	8.643267E-2	7.474341E-2	8.406843E-2	8.606376E-2	6.899795E-2	7.829307E-2	8.321027E-2	7.671081E-2	7.557561E-2	7.113952E-2	6.900601E-2	7.818293E-2	7.832525E-2	7.615944E-2	8.134027E-2	8.672600E-2	8.069219E-2	7.702655E-2	8.316860E-2	7.942295E-2	7.100209E-2	9.111106E-2	7.673391E-2	8.625060E-2	6.805650E-2	8.902073E-2	9.212387E-2	7.473371E-2	7.852315E-2	8.806085E-2	8.613809E-2	9.605095E-2	7.872578E-2	8.575318E-2	8.536946E-2	6.347766E-2	7.847226E-2	6.874208E-2	7.583682E-2	8.291283E-2	6.977787E-2	8.463633E-2	8.703605E-2
5.339090E+2	1.097714E-1	1.099539E-1	1.146003E-1	1.034340E-1	1.101038E-1	1.285447E-1	1.045782E-1	1.014560E-1	1.082213E-1	1.242461E-1	1.174855E-1	1.094436E-1	1.142377E-1	1.180146E-1	1.191083E-1	1.117060E-1	1.092416E-1	1.139142E-1	1.036297E-1	1.135034E-1	1.030659E-1	1.061394E-1	1.065325E-1	1.119435E-1	1.075434E-1	1.146816E-1	1.211353E-1	1.277340E-1	1.134782E-1	1.019907E-1	1.171971E-1	1.039611E-1	1.134530E-1	1.018009E-1	9.088309E-2	1.043477E-1	1.352041E-1	9.886844E-2	1.242834E-1	1.059242E-1	1.144482E-1	1.354430E-1	1.211713E-1	1.148304E-1	1.137853E-1	1.218043E-1	1.166891E-1	1.066730E-1	1.205504E-1	1.000235E-1	1.170506E-1	9.270548E-2	1.134045E-1	1.157018E-1	1.137230E-1	1.215133E-1	1.194838E-1	1.334846E-1	1.121592E-1	1.213112E-1	1.146999E-1	1.179402E-1	1.207902E-1	1.038969E-1	1.135151E-1	9.885680E-2	1.037269E-1	9.829283E-2	1.212969E-1	1.252852E-1	1.171158E-1	1.134778E-1	1.115555E-1	1.067236E-1	1.136023E-1	1.099992E-1	1.201095E-1	1.155778E-1	1.073209E-1	1.259060E-1	1.026990E-1	1.183403E-1	1.077163E-1	1.194750E-1	1.084458E-1	1.021382E-1	1.205131E-1	9.918911E-2	1.300906E-1	1.070476E-1	1.031089E-1	1.141221E-1	1.241571E-1	1.159398E-1	9.585563E-2	1.057990E-1	1.268798E-1	1.234346E-1	1.367032E-1	1.098466E-1	1.219202E-1	1.126673E-1	1.099239E-1	1.052515E-1	1.271425E-1	1.147428E-1	1.099760E-1	1.081670E-1	9.783310E-2	1.234705E-1	1.261739E-1	1.409964E-1	1.257421E-1	1.200603E-1	1.117238E-1	1.104164E-1	1.260902E-1	1.231401E-1	1.211592E-1	1.347735E-1	1.069643E-1	1.134661E-1	1.095944E-1	1.144232E-1	1.044621E-1	1.084125E-1	1.195437E-1	1.128635E-1	1.280550E-1	1.197502E-1	1.114487E-1	1.095395E-1	1.146467E-1	1.049575E-1	1.292149E-1	1.279013E-1	9.540700E-2	1.065499E-1	1.313824E-1	1.066906E-1	1.293332E-1	1.118069E-1	1.244137E-1	1.101505E-1	1.151408E-1	1.053276E-1	1.238153E-1	1.013011E-1	1.143028E-1	1.056909E-1	1.185866E-1	1.167287E-1	1.232313E-1	1.216043E-1	1.018553E-1	1.263393E-1	1.164368E-1	1.384563E-1	1.085028E-1	1.300960E-1	1.204364E-1	1.125291E-1	1.385890E-1	1.030112E-1	1.196932E-1	1.170483E-1	1.389732E-1	1.333971E-1	1.039057E-1	1.379513E-1
5.340850E+2	1.726883E-1	1.585791E-1	1.717236E-1	1.555059E-1	1.802863E-1	1.713475E-1	1.713396E-1	1.710206E-1	1.544348E-1	1.634512E-1	1.760985E-1	1.667991E-1	1.642499E-1	1.749603E-1	1.703323E-1	1.451383E-1	1.869457E-1	1.967628E-1	1.733268E-1	1.666549E-1	1.784275E-1	1.725625E-1	1.681977E-1	1.615883E-1	2.137887E-1	1.805753E-1	1.957286E-1	1.860316E-1	1.898195E-1	1.865958E-1	1.730040E-1	1.870585E-1	1.774304E-1	1.792035E-1	1.770695E-1	1.826178E-1	1.762645E-1	1.815824E-1	1.638246E-1	1.571128E-1	1.903976E-1	1.892362E-1	1.706929E-1	1.769453E-1	1.662838E-1	1.900886E-1	1.636682E-1	1.754287E-1	1.861266E-1	1.595828E-1	1.645813E-1	1.647184E-1	1.763051E-1	1.708386E-1	1.614493E-1	1.701852E-1	1.455055E-1	1.546866E-1	1.807288E-1	1.839056E-1	1.737558E-1	1.638571E-1	1.776022E-1	1.581808E-1	1.891883E-1	1.749125E-1	1.712537E-1	1.714960E-1	1.993399E-1	1.528844E-1	1.637805E-1	1.714520E-1	1.647853E-1	1.847521E-1	1.729448E-1	1.763194E-1	1.895031E-1	1.787854E-1	1.717550E-1	1.678142E-1	1.731234E-1	1.747491E-1	1.761287E-1	1.697514E-1	1.666047E-1	1.884468E-1	1.610738E-1	1.664286E-1	1.829429E-1	1.936057E-1	1.795814E-1	1.698696E-1	1.677307E-1	1.683596E-1	1.811732E-1	1.500250E-1	1.665233E-1	1.936687E-1	1.756069E-1	1.895181E-1	1.640069E-1	1.530127E-1	1.657235E-1	1.751607E-1	1.767312E-1	1.896889E-1	1.681262E-1	1.669187E-1	1.735748E-1	1.490949E-1	1.446004E-1	1.794794E-1	1.777571E-1	1.798146E-1	1.646665E-1	1.929610E-1	1.939349E-1	1.615780E-1	1.701371E-1	1.901717E-1	1.856756E-1	1.810706E-1	1.748008E-1	1.626461E-1	1.793036E-1	1.794703E-1	1.618937E-1	1.957872E-1	1.759523E-1	1.701300E-1	1.914925E-1	1.828052E-1	1.785573E-1	1.895430E-1	1.835676E-1	1.878434E-1	1.822497E-1	1.875734E-1	1.722529E-1	1.804415E-1	1.848175E-1	1.428834E-1	1.792734E-1	1.712391E-1	1.703178E-1	1.840710E-1	1.848196E-1	1.764501E-1	1.635075E-1	1.727865E-1	1.896171E-1	1.705361E-1	1.699328E-1	2.046801E-1	1.821571E-1	1.821363E-1	1.937289E-1	1.657675E-1	1.680137E-1	1.956085E-1	1.781074E-1	1.678755E-1	1.669507E-1	1.754281E-1	1.875330E-1	1.747718E-1	1.607970E-1	1.695979E-1	1.547373E-1	1.948605E-1
5.342040E+2	3.113103E-1	2.926470E-1	2.820959E-1	2.778891E-1	2.688911E-1	2.862672E-1	2.593598E-1	2.762365E-1	3.091096E-1	2.669055E-1	2.920885E-1	2.664732E-1	2.702514E-1	2.901397E-1	2.759223E-1	2.716360E-1	2.990230E-1	3.040496E-1	2.748750E-1	2.841003E-1	2.486980E-1	2.566458E-1	2.857122E-1	2.783811E-1	3.292968E-1	3.196969E-1	3.102752E-1	2.940347E-1	3.034465E-1	2.930196E-1	2.821678E-1	2.874808E-1	2.987232E-1	2.853993E-1	2.980718E-1	2.950970E-1	3.030585E-1	3.056531E-1	2.886004E-1	2.751652E-1	2.755874E-1	2.843033E-1	3.063014E-1	2.906865E-1	2.979187E-1	2.851804E-1	2.778163E-1	2.931782E-1	3.025287E-1	2.990841E-1	2.937202E-1	2.908775E-1	2.843590E-1	2.546048E-1	2.788470E-1	2.685903E-1	2.604655E-1	2.735396E-1	2.931279E-1	2.845499E-1	2.750083E-1	2.944738E-1	2.712310E-1	2.732811E-1	2.787947E-1	3.204844E-1	2.795801E-1	2.690758E-1	2.957380E-1	2.870190E-1	2.608672E-1	2.703390E-1	2.836153E-1	2.947845E-1	2.876345E-1	2.814363E-1	2.824636E-1	2.736922E-1	3.179886E-1	2.833762E-1	2.825863E-1	2.912857E-1	3.062134E-1	3.176192E-1	2.955454E-1	2.750338E-1	2.724967E-1	2.795763E-1	2.783954E-1	2.921356E-1	3.027627E-1	2.930266E-1	2.833791E-1	2.786307E-1	2.995950E-1	2.828763E-1	2.883145E-1	2.685672E-1	2.721941E-1	2.804913E-1	2.939426E-1	2.835723E-1	2.814992E-1	2.732090E-1	2.910488E-1	2.926306E-1	2.803029E-1	2.665862E-1	2.517385E-1	2.751448E-1	2.699772E-1	2.760600E-1	2.983690E-1	3.130941E-1	2.710908E-1	2.576330E-1	2.858500E-1	2.803602E-1	2.980041E-1	2.947858E-1	2.768547E-1	3.045301E-1	3.020145E-1	2.842651E-1	2.718439E-1	2.800175E-1	2.876728E-1	3.024960E-1	2.734388E-1	2.669260E-1	3.026873E-1	2.562361E-1	2.823184E-1	2.854986E-1	2.657531E-1	3.016473E-1	2.931263E-1	2.684399E-1	2.963011E-1	2.937218E-1	2.789304E-1	3.092560E-1	2.830240E-1	3.025301E-1	2.837926E-1	2.874645E-1	2.790880E-1	3.100826E-1	2.860045E-1	2.828573E-1	3.097034E-1	2.888371E-1	2.768097E-1	2.681202E-1	2.535872E-1	2.819048E-1	3.037828E-1	2.842053E-1	2.959476E-1	3.106264E-1	2.561496E-1	2.867579E-1	2.891026E-1	2.852306E-1	2.691888E-1	2.725895E-1	2.656986E-1	2.882411E-1	3.165579E-1	2.615158E-1
5.343600E+2	5.080004E-1	5.084662E-1	5.073613E-1	4.809750E-1	5.277750E-1	4.848994E-1	4.748710E-1	4.935965E-1	4.705132E-1	4.874087E-1	4.947970E-1	5.026305E-1	5.092489E-1	5.112255E-1	5.132835E-1	4.908040E-1	4.987445E-1	5.134900E-1	5.041978E-1	5.191198E-1	4.874959E-1	5.297801E-1	4.675636E-1	5.242329E-1	5.586246E-1	5.238612E-1	5.301741E-1	5.535686E-1	5.383434E-1	5.132670E-1	5.392769E-1	5.293201E-1	5.304755E-1	4.959235E-1	5.224398E-1	4.802190E-1	5.346215E-1	4.977485E-1	5.146199E-1	5.254355E-1	5.098116E-1	5.180623E-1	5.033238E-1	5.182577E-1	5.023482E-1	5.196812E-1	5.178533E-1	5.183822E-1	4.797866E-1	5.070964E-1	4.970820E-1	5.284790E-1	5.499188E-1	4.939454E-1	5.155609E-1	5.191207E-1	5.092833E-1	5.395004E-1	5.186801E-1	5.373595E-1	5.254579E-1	5.041068E-1	5.116394E-1	5.228617E-1	5.389982E-1	5.148640E-1	5.270774E-1	5.216238E-1	5.304367E-1	5.268946E-1	5.001628E-1	5.229183E-1	4.947412E-1	5.064982E-1	5.112369E-1	5.208832E-1	5.006828E-1	5.037972E-1	5.160592E-1	5.167140E-1	5.382286E-1	5.114469E-1	5.208624E-1	5.342335E-1	5.396781E-1	5.182146E-1	5.117109E-1	5.284194E-1	5.034730E-1	5.338610E-1	5.034749E-1	5.185581E-1	5.371100E-1	5.275231E-1	4.920886E-1	5.639015E-1	5.456962E-1	5.133129E-1	4.757135E-1	5.177681E-1	5.172878E-1	4.999857E-1	4.985803E-1	5.074034E-1	5.136843E-1	5.044079E-1	5.021956E-1	5.083393E-1	5.111878E-1	5.225153E-1	5.073156E-1	5.165820E-1	5.156999E-1	5.668464E-1	4.930021E-1	4.891882E-1	5.019116E-1	5.095099E-1	4.944203E-1	5.156024E-1	5.020561E-1	4.915798E-1	5.283554E-1	5.330806E-1	5.522271E-1	5.303311E-1	5.380520E-1	4.941928E-1	5.135374E-1	5.259277E-1	4.882347E-1	5.265837E-1	5.314874E-1	5.056790E-1	5.310402E-1	5.612108E-1	5.417047E-1	5.108314E-1	5.329273E-1	5.284852E-1	5.164537E-1	4.946369E-1	5.028659E-1	5.185759E-1	5.141363E-1	4.830263E-1	5.244695E-1	5.595607E-1	5.159220E-1	5.048906E-1	5.118471E-1	4.743431E-1	5.268229E-1	5.139512E-1	4.814039E-1	5.456678E-1	4.784753E-1	5.222947E-1	4.899252E-1	5.062077E-1	5.100383E-1	5.339977E-1	5.248647E-1	5.434411E-1	5.165955E-1	5.410770E-1	4.997990E-1	5.205269E-1	5.263747E-1	4.836031E-1
5.345160E+2	9.054643E-1	8.518087E-1	9.207525E-1	9.132015E-1	9.240460E-1	9.173730E-1	9.212733E-1	9.422359E-1	8.842239E-1	8.521462E-1	9.119226E-1	8.470150E-1	9.242430E-1	9.114669E-1	9.261883E-1	8.889607E-1	9.144755E-1	9.203985E-1	8.941280E-1	8.670868E-1	8.932239E-1	8.869097E-1	8.757010E-1	9.053208E-1	9.571378E-1	9.815185E-1	9.378271E-1	9.484348E-1	9.347016E-1	9.469400E-1	9.541153E-1	8.977424E-1	9.580764E-1	9.364200E-1	9.248140E-1	9.556642E-1	8.980055E-1	9.000025E-1	8.903055E-1	9.261817E-1	9.032251E-1	9.360857E-1	9.127307E-1	9.102965E-1	9.046310E-1	9.462391E-1	9.308614E-1	8.979862E-1	8.913735E-1	8.742540E-1	9.198325E-1	9.205708E-1	9.001527E-1	9.259998E-1	9.362757E-1	9.431468E-1	9.177492E-1	8.824207E-1	9.058943E-1	9.398443E-1	9.426400E-1	9.390656E-1	9.261304E-1	9.284927E-1	9.265581E-1	9.161528E-1	9.080731E-1	9.289192E-1	8.977709E-1	9.053638E-1	9.024580E-1	9.437465E-1	9.246186E-1	8.854659E-1	9.371203E-1	9.207620E-1	8.985438E-1	8.672999E-1	9.225455E-1	9.256498E-1	9.215946E-1	8.942147E-1	9.329985E-1	9.492644E-1	9.155071E-1	9.196459E-1	9.279032E-1	9.338316E-1	9.306259E-1	8.876294E-1	9.205229E-1	9.111951E-1	8.755613E-1	9.114799E-1	9.373458E-1	9.033199E-1	9.410106E-1	9.422332E-1	9.005921E-1	9.594227E-1	9.172013E-1	8.963965E-1	9.166687E-1	9.132512E-1	9.411100E-1	9.045399E-1	8.755782E-1	9.164716E-1	9.191392E-1	9.081695E-1	9.223488E-1	9.212680E-1	8.986961E-1	8.933428E-1	9.257022E-1	9.035004E-1	9.150431E-1	9.116187E-1	9.592335E-1	8.942363E-1	9.312299E-1	9.771140E-1	8.781367E-1	8.847474E-1	9.399662E-1	9.256615E-1	9.235290E-1	8.935090E-1	9.052384E-1	9.320582E-1	9.446416E-1	9.250162E-1	8.955092E-1	8.917295E-1	8.693824E-1	9.156303E-1	9.157957E-1	8.966955E-1	8.786907E-1	8.879156E-1	9.015858E-1	9.139809E-1	9.125159E-1	8.954936E-1	9.383343E-1	9.156518E-1	8.820864E-1	9.211848E-1	8.938577E-1	9.362888E-1	9.033267E-1	9.264579E-1	9.729549E-1	9.064720E-1	9.264101E-1	8.748484E-1	9.596193E-1	9.295474E-1	8.694106E-1	9.096802E-1	9.227614E-1	9.273299E-1	9.710545E-1	8.986026E-1	9.337673E-1	8.614718E-1	9.216017E-1	9.469093E-1	9.262928E-1	8.746051E-1
5.346510E+2	1.325886E+0	1.318121E+0	1.344802E+0	1.278167E+0	1.284531E+0	1.315052E+0	1.302722E+0	1.312502E+0	1.284241E+0	1.245408E+0	1.300200E+0	1.280758E+0	1.222351E+0	1.298525E+0	1.292640E+0	1.244664E+0	1.261767E+0	1.320158E+0	1.329203E+0	1.284705E+0	1.295906E+0	1.337563E+0	1.282732E+0	1.317727E+0	1.385883E+0	1.360901E+0	1.350124E+0	1.321235E+0	1.345432E+0	1.361681E+0	1.292266E+0	1.336575E+0	1.304462E+0	1.323568E+0	1.285655E+0	1.356927E+0	1.349660E+0	1.270504E+0	1.322880E+0	1.325853E+0	1.318611E+0	1.327229E+0	1.256620E+0	1.347981E+0	1.326825E+0	1.317675E+0	1.339608E+0	1.300643E+0	1.351001E+0	1.331981E+0	1.307425E+0	1.342843E+0	1.327598E+0	1.326861E+0	1.280523E+0	1.260681E+0	1.280155E+0	1.320345E+0	1.330107E+0	1.321735E+0	1.317414E+0	1.338863E+0	1.345743E+0	1.267128E+0	1.311423E+0	1.378094E+0	1.295523E+0	1.302556E+0	1.273728E+0	1.264582E+0	1.305732E+0	1.304536E+0	1.275979E+0	1.322383E+0	1.311426E+0	1.310230E+0	1.303504E+0	1.267815E+0	1.260794E+0	1.309205E+0	1.285519E+0	1.331482E+0	1.323475E+0	1.323586E+0	1.318594E+0	1.260234E+0	1.299190E+0	1.328225E+0	1.333183E+0	1.323839E+0	1.275283E+0	1.290774E+0	1.301115E+0	1.288530E+0	1.332005E+0	1.259234E+0	1.297865E+0	1.360079E+0	1.334412E+0	1.315219E+0	1.307784E+0	1.274184E+0	1.309312E+0	1.307138E+0	1.325567E+0	1.294816E+0	1.260114E+0	1.252853E+0	1.273815E+0	1.252904E+0	1.300091E+0	1.299737E+0	1.308189E+0	1.252822E+0	1.315958E+0	1.300739E+0	1.332916E+0	1.324973E+0	1.277206E+0	1.250857E+0	1.287958E+0	1.280386E+0	1.263868E+0	1.307020E+0	1.219202E+0	1.300718E+0	1.303406E+0	1.262351E+0	1.299684E+0	1.237956E+0	1.284242E+0	1.244576E+0	1.292166E+0	1.238165E+0	1.282499E+0	1.275392E+0	1.265365E+0	1.316520E+0	1.262845E+0	1.258358E+0	1.302950E+0	1.305340E+0	1.344591E+0	1.283835E+0	1.253562E+0	1.329835E+0	1.282594E+0	1.296904E+0	1.277024E+0	1.274435E+0	1.297895E+0	1.253293E+0	1.332314E+0	1.294422E+0	1.265302E+0	1.279923E+0	1.251654E+0	1.292377E+0	1.262535E+0	1.306115E+0	1.229757E+0	1.303199E+0	1.321929E+0	1.300492E+0	1.314057E+0	1.225611E+0	1.261498E+0	1.296723E+0	1.289823E+0	1.333890E+0
5.348020E+2	1.728115E+0	1.735415E+0	1.726102E+0	1.721874E+0	1.716749E+0	1.747158E+0	1.695468E+0	1.781722E+0	1.702324E+0	1.705390E+0	1.744123E+0	1.713437E+0	1.692752E+0	1.746785E+0	1.763820E+0	1.735336E+0	1.751574E+0	1.726888E+0	1.798377E+0	1.713170E+0	1.686270E+0	1.712843E+0	1.726946E+0	1.708155E+0	1.751189E+0	1.751266E+0	1.793957E+0	1.758607E+0	1.737929E+0	1.750549E+0	1.699001E+0	1.709203E+0	1.800368E+0	1.670461E+0	1.799324E+0	1.776216E+0	1.754850E+0	1.729975E+0	1.724847E+0	1.666456E+0	1.745647E+0	1.710892E+0	1.738142E+0	1.700979E+0	1.740382E+0	1.781980E+0	1.699642E+0	1.704652E+0	1.642386E+0	1.716667E+0	1.702770E+0	1.780252E+0	1.804405E+0	1.688931E+0	1.682742E+0	1.787775E+0	1.702786E+0	1.726759E+0	1.747627E+0	1.730617E+0	1.711493E+0	1.694239E+0	1.737932E+0	1.717151E+0	1.757120E+0	1.755531E+0	1.688649E+0	1.651353E+0	1.656103E+0	1.706199E+0	1.726683E+0	1.771335E+0	1.748856E+0	1.709025E+0	1.711542E+0	1.724755E+0	1.709243E+0	1.705798E+0	1.660275E+0	1.714202E+0	1.707588E+0	1.724285E+0	1.723946E+0	1.717790E+0	1.724364E+0	1.650114E+0	1.668786E+0	1.707461E+0	1.758900E+0	1.756413E+0	1.668046E+0	1.719819E+0	1.724165E+0	1.707095E+0	1.730764E+0	1.709059E+0	1.764789E+0	1.675914E+0	1.715638E+0	1.714529E+0	1.779552E+0	1.722552E+0	1.714594E+0	1.681151E+0	1.701926E+0	1.715756E+0	1.719787E+0	1.678165E+0	1.740929E+0	1.691641E+0	1.682069E+0	1.708743E+0	1.700785E+0	1.724358E+0	1.670189E+0	1.743776E+0	1.715819E+0	1.739903E+0	1.677212E+0	1.780945E+0	1.669993E+0	1.685190E+0	1.740834E+0	1.678487E+0	1.684433E+0	1.707382E+0	1.630911E+0	1.681516E+0	1.731713E+0	1.669074E+0	1.689704E+0	1.703793E+0	1.684049E+0	1.607943E+0	1.687195E+0	1.688418E+0	1.687820E+0	1.642116E+0	1.668424E+0	1.718671E+0	1.658634E+0	1.702339E+0	1.706341E+0	1.647541E+0	1.693492E+0	1.735720E+0	1.707746E+0	1.714028E+0	1.692167E+0	1.684991E+0	1.706543E+0	1.734127E+0	1.769727E+0	1.646825E+0	1.659458E+0	1.654182E+0	1.692964E+0	1.824285E+0	1.694519E+0	1.734309E+0	1.736353E+0	1.679062E+0	1.675871E+0	1.673069E+0	1.690479E+0	1.670242E+0	1.763538E+0	1.642694E+0	1.733710E+0	1.646781E+0
5.349580E+2	2.014787E+0	2.029014E+0	1.984793E+0	2.013136E+0	1.986154E+0	2.032009E+0	2.024403E+0	2.084756E+0	2.044353E+0	2.027128E+0	2.019323E+0	1.927578E+0	1.982643E+0	2.003835E+0	2.064129E+0	2.092352E+0	1.977085E+0	2.056789E+0	2.049013E+0	2.039695E+0	1.991752E+0	2.096340E+0	1.965097E+0	2.024752E+0	1.951418E+0	2.020087E+0	2.075803E+0	2.013152E+0	2.018570E+0	2.065650E+0	2.017861E+0	2.012724E+0	2.030542E+0	2.037788E+0	1.994200E+0	1.934402E+0	1.979390E+0	1.991945E+0	2.020029E+0	1.964543E+0	2.033452E+0	2.024420E+0	2.027113E+0	2.003674E+0	1.944579E+0	2.004545E+0	2.056639E+0	1.988409E+0	2.025458E+0	2.032231E+0	2.001698E+0	1.993204E+0	1.944566E+0	2.053876E+0	1.955576E+0	2.049766E+0	1.981463E+0	2.029748E+0	1.935754E+0	1.965810E+0	1.977048E+0	2.016221E+0	1.953719E+0	2.016111E+0	1.953636E+0	2.018339E+0	1.952218E+0	1.974580E+0	1.916017E+0	2.039642E+0	1.918507E+0	2.016439E+0	1.942963E+0	2.016593E+0	1.994991E+0	1.970192E+0	1.979238E+0	1.947593E+0	1.973900E+0	1.985341E+0	1.936553E+0	1.962420E+0	1.934807E+0	1.980660E+0	1.940385E+0	1.927763E+0	1.964313E+0	2.014686E+0	1.983981E+0	1.955902E+0	1.952624E+0	1.999954E+0	2.022070E+0	1.950114E+0	1.970480E+0	1.967984E+0	1.966234E+0	1.995824E+0	1.926741E+0	1.944800E+0	1.985050E+0	1.964617E+0	1.985724E+0	1.942262E+0	1.906517E+0	1.960765E+0	1.996127E+0	1.909828E+0	1.960744E+0	1.922686E+0	1.967051E+0	1.993690E+0	2.053462E+0	1.940799E+0	1.992096E+0	1.947394E+0	1.964177E+0	1.973201E+0	1.907599E+0	1.933908E+0	1.989066E+0	1.925450E+0	1.962298E+0	1.888958E+0	1.956121E+0	1.965346E+0	1.994115E+0	1.900580E+0	1.990474E+0	1.946593E+0	1.826764E+0	1.989912E+0	1.946709E+0	1.910741E+0	1.947426E+0	1.963159E+0	1.961984E+0	1.996069E+0	1.893924E+0	1.896783E+0	1.956039E+0	1.929140E+0	2.037053E+0	1.954914E+0	1.894957E+0	1.915375E+0	1.964776E+0	1.925762E+0	1.967115E+0	1.886387E+0	1.963161E+0	1.953194E+0	2.002844E+0	1.950088E+0	1.903417E+0	1.935979E+0	1.917576E+0	2.035815E+0	1.852652E+0	1.923649E+0	1.898039E+0	1.905925E+0	1.938112E+0	1.942784E+0	1.962871E+0	1.897295E+0	1.975493E+0	1.923870E+0	1.921633E+0	1.906635E+0
5.351140E+2	2.140746E+0	2.147725E+0	2.143710E+0	2.198529E+0	2.165927E+0	2.102083E+0	2.104610E+0	2.133267E+0	2.149232E+0	2.129838E+0	2.100452E+0	2.087864E+0	2.174891E+0	2.153239E+0	2.141246E+0	2.099792E+0	2.116677E+0	2.175091E+0	2.175766E+0	2.099220E+0	2.137653E+0	2.156202E+0	2.142863E+0	2.185444E+0	2.109435E+0	2.173955E+0	2.232454E+0	2.128014E+0	2.112840E+0	2.150966E+0	2.071501E+0	2.164344E+0	2.140515E+0	2.132743E+0	2.128207E+0	2.108655E+0	2.076683E+0	2.148978E+0	2.130459E+0	2.079915E+0	2.171591E+0	2.091712E+0	2.066455E+0	2.114464E+0	2.111192E+0	2.097836E+0	2.213322E+0	2.117443E+0	2.089526E+0	2.157710E+0	2.126229E+0	2.139397E+0	2.126770E+0	2.135810E+0	2.126717E+0	2.088173E+0	2.114545E+0	2.035834E+0	2.118232E+0	2.147612E+0	2.092787E+0	2.066643E+0	2.084906E+0	2.034855E+0	2.102388E+0	2.149143E+0	2.027099E+0	2.088049E+0	2.105081E+0	2.123536E+0	2.123690E+0	2.130977E+0	2.087761E+0	2.100377E+0	2.118257E+0	2.059607E+0	2.024694E+0	2.065174E+0	2.047988E+0	2.084278E+0	2.038440E+0	2.094403E+0	2.227797E+0	2.100138E+0	2.070919E+0	2.106011E+0	2.087892E+0	2.119056E+0	2.068197E+0	2.118383E+0	2.147928E+0	2.084255E+0	2.083825E+0	2.086669E+0	2.059624E+0	2.150927E+0	2.083610E+0	2.128863E+0	2.124255E+0	2.093986E+0	2.109451E+0	2.061913E+0	2.130350E+0	2.140444E+0	2.121036E+0	2.067665E+0	2.188803E+0	2.013467E+0	2.084695E+0	2.048418E+0	2.088478E+0	2.031758E+0	2.097030E+0	2.120239E+0	2.128524E+0	2.062259E+0	2.039128E+0	2.173940E+0	2.115744E+0	2.186979E+0	2.112059E+0	2.051047E+0	2.153274E+0	2.072812E+0	2.055324E+0	2.013549E+0	2.036667E+0	2.065540E+0	2.044108E+0	2.095620E+0	2.067871E+0	2.072206E+0	2.050465E+0	2.096230E+0	2.061066E+0	2.100495E+0	2.064118E+0	2.000999E+0	2.036302E+0	2.151202E+0	1.987650E+0	2.073197E+0	2.144661E+0	2.112514E+0	1.991099E+0	2.040732E+0	1.994116E+0	2.078127E+0	2.085621E+0	2.065937E+0	2.063420E+0	2.044118E+0	2.137476E+0	2.057923E+0	2.057205E+0	2.090316E+0	2.013517E+0	2.104688E+0	1.971130E+0	2.082471E+0	2.073951E+0	2.019501E+0	2.039013E+0	2.069600E+0	2.091493E+0	2.029454E+0	2.046114E+0	2.015441E+0	2.075079E+0	2.026291E+0
5.352600E+2	2.147151E+0	2.213019E+0	2.148296E+0	2.111974E+0	2.090506E+0	2.119467E+0	2.066310E+0	2.112418E+0	2.113419E+0	2.099725E+0	2.033507E+0	2.078202E+0	2.085346E+0	2.138834E+0	2.123599E+0	2.110430E+0	2.067156E+0	2.119336E+0	2.137882E+0	2.131830E+0	2.055353E+0	2.161933E+0	2.059554E+0	2.128995E+0	2.086138E+0	2.063583E+0	2.088009E+0	2.116714E+0	2.041594E+0	2.050098E+0	2.061952E+0	2.031508E+0	2.080734E+0	2.098345E+0	2.052399E+0	2.095563E+0	2.030274E+0	2.092104E+0	2.060791E+0	2.033325E+0	2.066296E+0	2.078987E+0	2.066919E+0	2.023843E+0	1.993944E+0	2.107180E+0	2.083272E+0	2.090381E+0	2.028207E+0	2.127269E+0	2.024737E+0	2.041658E+0	2.052678E+0	2.122610E+0	2.085146E+0	2.102375E+0	2.026463E+0	2.044591E+0	2.071234E+0	2.020727E+0	2.041064E+0	2.119298E+0	2.039111E+0	2.016975E+0	2.037945E+0	2.151980E+0	2.044775E+0	2.033074E+0	2.076279E+0	2.062590E+0	2.054503E+0	2.110372E+0	2.064769E+0	2.036970E+0	1.969379E+0	2.097094E+0	2.031299E+0	2.013194E+0	2.079592E+0	2.130951E+0	2.026670E+0	1.986786E+0	2.070131E+0	2.066672E+0	2.030135E+0	1.996774E+0	2.044495E+0	2.115520E+0	2.025804E+0	2.102667E+0	2.010515E+0	2.044347E+0	1.992481E+0	2.016177E+0	2.030076E+0	2.060716E+0	2.056110E+0	2.060488E+0	2.059841E+0	2.146831E+0	2.074683E+0	2.072697E+0	2.042331E+0	2.060688E+0	2.006796E+0	2.062743E+0	2.134060E+0	2.091167E+0	1.999250E+0	1.992372E+0	2.090530E+0	2.055060E+0	1.999656E+0	2.035190E+0	2.050190E+0	2.037101E+0	2.066588E+0	2.039405E+0	2.062701E+0	2.020500E+0	1.999337E+0	2.042941E+0	2.031349E+0	2.007717E+0	2.028701E+0	1.973157E+0	2.063732E+0	1.947847E+0	2.084249E+0	2.020453E+0	2.043430E+0	2.042348E+0	2.011741E+0	2.029568E+0	1.997760E+0	2.069073E+0	1.957524E+0	2.006073E+0	2.058029E+0	2.119851E+0	2.016444E+0	2.006817E+0	2.038035E+0	2.006257E+0	1.967473E+0	2.095593E+0	1.986356E+0	2.047034E+0	2.019925E+0	2.083673E+0	1.978881E+0	1.979461E+0	2.073785E+0	1.988586E+0	2.004001E+0	2.016270E+0	2.043008E+0	2.100738E+0	2.001143E+0	1.972261E+0	1.982933E+0	2.050345E+0	2.031929E+0	2.030199E+0	2.014184E+0	1.974460E+0	2.003571E+0	1.944242E+0	1.979819E+0	1.842336E+0
5.354110E+2	1.906266E+0	1.938345E+0	1.983453E+0	1.933352E+0	1.933222E+0	1.923671E+0	1.859169E+0	1.950071E+0	1.883126E+0	1.904552E+0	1.857940E+0	1.962235E+0	1.900769E+0	1.979030E+0	1.960954E+0	1.846896E+0	1.906647E+0	1.963123E+0	1.986195E+0	1.940376E+0	1.935182E+0	1.871999E+0	1.918833E+0	1.938445E+0	1.838430E+0	1.893511E+0	1.897869E+0	1.905672E+0	1.879943E+0	1.959857E+0	1.884635E+0	1.849209E+0	1.862050E+0	1.839827E+0	1.905761E+0	1.913051E+0	1.845678E+0	1.877680E+0	1.862857E+0	1.876029E+0	1.834906E+0	1.916818E+0	1.845733E+0	1.888052E+0	1.826871E+0	1.869006E+0	1.933818E+0	1.870453E+0	1.928396E+0	1.855367E+0	1.904020E+0	1.903024E+0	1.821570E+0	1.903098E+0	1.898139E+0	1.913044E+0	1.866213E+0	1.956785E+0	1.915182E+0	1.952707E+0	1.834148E+0	1.907534E+0	1.867214E+0	1.932270E+0	1.881528E+0	1.952307E+0	1.839887E+0	1.870597E+0	1.818556E+0	1.893072E+0	1.853771E+0	1.856875E+0	1.855523E+0	1.812321E+0	1.853292E+0	1.861049E+0	1.895817E+0	1.817603E+0	1.854527E+0	1.899866E+0	1.865274E+0	1.834628E+0	1.901392E+0	1.798921E+0	1.857392E+0	1.881161E+0	1.834331E+0	1.861309E+0	1.878022E+0	1.841489E+0	1.865362E+0	1.915359E+0	1.863837E+0	1.827436E+0	1.868330E+0	1.834438E+0	1.895835E+0	1.952064E+0	1.806470E+0	1.912754E+0	1.940032E+0	1.893417E+0	1.820968E+0	1.888153E+0	1.818124E+0	1.806502E+0	1.908689E+0	1.924388E+0	1.868025E+0	1.901049E+0	1.896804E+0	1.849707E+0	1.872100E+0	1.860370E+0	1.915411E+0	1.911262E+0	1.873280E+0	1.844580E+0	1.840330E+0	1.865793E+0	1.811324E+0	1.868053E+0	1.858759E+0	1.748525E+0	1.886112E+0	1.817588E+0	1.852859E+0	1.823533E+0	1.903280E+0	1.839957E+0	1.831887E+0	1.820865E+0	1.858463E+0	1.816475E+0	1.944184E+0	1.901925E+0	1.770511E+0	1.831392E+0	1.894368E+0	1.844892E+0	1.846117E+0	1.837744E+0	1.853360E+0	1.873763E+0	1.815596E+0	1.833787E+0	1.809912E+0	1.866691E+0	1.863279E+0	1.852028E+0	1.832101E+0	1.867653E+0	1.881283E+0	1.822697E+0	1.859156E+0	1.809892E+0	1.845199E+0	1.917162E+0	1.817206E+0	1.843052E+0	1.836987E+0	1.809053E+0	1.850712E+0	1.810275E+0	1.822661E+0	1.853075E+0	1.838096E+0	1.837021E+0	1.993858E+0	1.737864E+0
5.355630E+2	1.622782E+0	1.621266E+0	1.689048E+0	1.591995E+0	1.594624E+0	1.695068E+0	1.653575E+0	1.613010E+0	1.620547E+0	1.580936E+0	1.632940E+0	1.573136E+0	1.630261E+0	1.654089E+0	1.638818E+0	1.634176E+0	1.555324E+0	1.643447E+0	1.668165E+0	1.607451E+0	1.632666E+0	1.613432E+0	1.631527E+0	1.613188E+0	1.560835E+0	1.637242E+0	1.647453E+0	1.602763E+0	1.553891E+0	1.602798E+0	1.598571E+0	1.586462E+0	1.610629E+0	1.642819E+0	1.563917E+0	1.632612E+0	1.616039E+0	1.556050E+0	1.612315E+0	1.609388E+0	1.571932E+0	1.596105E+0	1.578459E+0	1.620207E+0	1.581349E+0	1.625334E+0	1.590996E+0	1.579579E+0	1.593215E+0	1.657917E+0	1.614442E+0	1.647748E+0	1.603999E+0	1.589786E+0	1.582423E+0	1.634494E+0	1.603578E+0	1.637841E+0	1.561757E+0	1.615769E+0	1.612085E+0	1.586939E+0	1.573715E+0	1.619978E+0	1.649138E+0	1.614429E+0	1.598975E+0	1.607344E+0	1.533963E+0	1.617836E+0	1.574418E+0	1.622103E+0	1.609853E+0	1.571808E+0	1.590906E+0	1.667369E+0	1.636911E+0	1.568926E+0	1.588441E+0	1.622235E+0	1.623055E+0	1.580268E+0	1.592933E+0	1.626178E+0	1.616470E+0	1.575769E+0	1.572265E+0	1.606092E+0	1.583505E+0	1.622919E+0	1.566298E+0	1.554120E+0	1.606507E+0	1.624447E+0	1.567934E+0	1.591259E+0	1.559441E+0	1.645179E+0	1.569420E+0	1.605162E+0	1.662150E+0	1.620384E+0	1.667180E+0	1.614735E+0	1.569668E+0	1.600714E+0	1.661117E+0	1.553491E+0	1.578427E+0	1.589298E+0	1.623834E+0	1.578688E+0	1.584658E+0	1.603799E+0	1.593398E+0	1.590314E+0	1.578935E+0	1.616774E+0	1.601225E+0	1.589847E+0	1.572965E+0	1.625136E+0	1.572884E+0	1.631800E+0	1.605095E+0	1.597730E+0	1.578301E+0	1.616495E+0	1.595521E+0	1.615677E+0	1.606504E+0	1.591909E+0	1.568184E+0	1.535515E+0	1.582022E+0	1.635513E+0	1.581409E+0	1.588294E+0	1.576943E+0	1.619243E+0	1.553706E+0	1.625840E+0	1.623792E+0	1.570627E+0	1.538070E+0	1.599471E+0	1.601415E+0	1.609879E+0	1.580753E+0	1.600477E+0	1.539292E+0	1.630579E+0	1.609332E+0	1.566441E+0	1.580869E+0	1.563779E+0	1.565617E+0	1.625598E+0	1.549719E+0	1.575446E+0	1.613785E+0	1.541699E+0	1.630122E+0	1.584175E+0	1.553748E+0	1.552079E+0	1.595452E+0	1.573323E+0	1.620780E+0	1.585138E+0
5.357090E+2	1.408995E+0	1.427245E+0	1.359884E+0	1.405666E+0	1.405753E+0	1.393346E+0	1.426346E+0	1.391557E+0	1.374287E+0	1.337199E+0	1.387494E+0	1.350488E+0	1.342090E+0	1.382889E+0	1.358746E+0	1.409595E+0	1.408017E+0	1.338072E+0	1.394248E+0	1.366781E+0	1.344374E+0	1.410301E+0	1.411267E+0	1.359740E+0	1.327337E+0	1.372718E+0	1.363440E+0	1.380978E+0	1.357070E+0	1.338583E+0	1.388905E+0	1.346004E+0	1.393320E+0	1.384095E+0	1.402251E+0	1.383612E+0	1.363808E+0	1.369765E+0	1.381072E+0	1.322357E+0	1.399057E+0	1.350509E+0	1.343815E+0	1.351861E+0	1.325939E+0	1.354259E+0	1.323927E+0	1.399158E+0	1.346386E+0	1.387202E+0	1.377575E+0	1.384920E+0	1.397818E+0	1.368217E+0	1.358497E+0	1.407614E+0	1.350942E+0	1.403094E+0	1.389888E+0	1.364511E+0	1.426434E+0	1.359681E+0	1.412262E+0	1.347615E+0	1.354480E+0	1.365511E+0	1.335805E+0	1.375158E+0	1.323239E+0	1.350182E+0	1.412565E+0	1.413058E+0	1.382332E+0	1.394166E+0	1.335347E+0	1.392109E+0	1.359561E+0	1.321304E+0	1.345969E+0	1.369740E+0	1.285934E+0	1.337622E+0	1.378111E+0	1.423614E+0	1.351855E+0	1.359776E+0	1.377382E+0	1.393337E+0	1.340491E+0	1.385412E+0	1.384387E+0	1.351177E+0	1.377318E+0	1.360237E+0	1.337750E+0	1.354667E+0	1.414462E+0	1.324695E+0	1.345072E+0	1.341557E+0	1.367413E+0	1.403752E+0	1.366009E+0	1.438811E+0	1.341422E+0	1.414639E+0	1.347330E+0	1.385956E+0	1.321045E+0	1.400213E+0	1.377599E+0	1.427602E+0	1.325354E+0	1.401981E+0	1.376377E+0	1.425803E+0	1.356455E+0	1.376766E+0	1.376256E+0	1.331947E+0	1.383870E+0	1.387314E+0	1.439163E+0	1.337617E+0	1.331244E+0	1.353678E+0	1.366038E+0	1.369223E+0	1.390081E+0	1.402707E+0	1.397800E+0	1.365397E+0	1.368531E+0	1.348371E+0	1.356463E+0	1.409837E+0	1.331957E+0	1.294386E+0	1.396815E+0	1.427879E+0	1.388864E+0	1.361243E+0	1.340674E+0	1.365020E+0	1.317322E+0	1.378736E+0	1.379772E+0	1.377127E+0	1.386053E+0	1.428235E+0	1.347245E+0	1.306028E+0	1.394946E+0	1.368961E+0	1.349856E+0	1.376251E+0	1.430237E+0	1.465727E+0	1.367830E+0	1.382089E+0	1.386318E+0	1.377839E+0	1.388880E+0	1.351861E+0	1.311531E+0	1.353915E+0	1.438280E+0	1.386578E+0	1.404081E+0	1.440885E+0
5.358650E+2	1.094485E+0	1.078320E+0	1.123379E+0	1.143351E+0	1.107386E+0	1.127303E+0	1.139992E+0	1.097793E+0	1.090580E+0	1.132978E+0	1.066603E+0	1.079729E+0	1.119906E+0	1.133570E+0	1.122883E+0	1.148471E+0	1.123315E+0	1.131671E+0	1.195751E+0	1.144305E+0	1.107174E+0	1.134224E+0	1.115320E+0	1.091018E+0	1.102144E+0	1.147904E+0	1.105597E+0	1.114026E+0	1.155124E+0	1.115978E+0	1.140616E+0	1.139039E+0	1.091150E+0	1.110920E+0	1.143595E+0	1.066932E+0	1.090231E+0	1.096281E+0	1.129080E+0	1.110494E+0	1.124656E+0	1.120298E+0	1.097162E+0	1.085422E+0	1.098921E+0	1.172135E+0	1.141202E+0	1.102657E+0	1.151555E+0	1.153774E+0	1.132902E+0	1.072121E+0	1.118810E+0	1.165151E+0	1.109188E+0	1.132438E+0	1.109917E+0	1.112754E+0	1.105140E+0	1.144403E+0	1.188276E+0	1.113107E+0	1.119951E+0	1.124647E+0	1.174075E+0	1.187432E+0	1.081081E+0	1.098469E+0	1.063690E+0	1.093121E+0	1.130028E+0	1.094094E+0	1.093465E+0	1.127994E+0	1.059393E+0	1.133331E+0	1.091624E+0	1.112859E+0	1.126997E+0	1.123582E+0	1.112246E+0	1.132077E+0	1.095583E+0	1.079887E+0	1.104202E+0	1.113019E+0	1.064149E+0	1.128906E+0	1.112451E+0	1.136200E+0	1.127470E+0	1.160754E+0	1.121007E+0	1.116911E+0	1.103393E+0	1.102224E+0	1.099640E+0	1.114664E+0	1.069361E+0	1.147840E+0	1.128054E+0	1.114972E+0	1.118364E+0	1.064072E+0	1.137066E+0	1.098336E+0	1.081683E+0	1.116488E+0	1.119842E+0	1.112822E+0	1.142417E+0	1.078405E+0	1.134046E+0	1.189640E+0	1.104072E+0	1.130942E+0	1.148348E+0	1.116610E+0	1.107699E+0	1.105867E+0	1.108671E+0	1.133062E+0	1.150756E+0	1.115359E+0	1.073743E+0	1.105985E+0	1.092757E+0	1.086932E+0	1.080272E+0	1.120724E+0	1.129003E+0	1.102350E+0	1.096186E+0	1.113054E+0	1.100268E+0	1.136394E+0	1.125881E+0	1.106657E+0	1.134889E+0	1.124590E+0	1.105497E+0	1.113874E+0	1.142943E+0	1.095502E+0	1.131188E+0	1.096553E+0	1.135354E+0	1.107061E+0	1.102442E+0	1.103760E+0	1.087655E+0	1.083786E+0	1.110705E+0	1.150991E+0	1.101004E+0	1.105589E+0	1.157813E+0	1.156989E+0	1.106295E+0	1.157381E+0	1.088275E+0	1.115032E+0	1.091229E+0	1.099720E+0	1.070499E+0	1.078475E+0	1.149528E+0	1.149818E+0	1.175698E+0	1.142886E+0
5.360070E+2	9.712722E-1	9.625116E-1	9.777912E-1	9.682993E-1	9.996848E-1	9.708964E-1	1.001674E+0	1.035369E+0	9.362138E-1	9.247053E-1	9.398791E-1	9.769476E-1	9.253445E-1	9.417330E-1	9.330151E-1	9.580580E-1	9.666755E-1	9.753012E-1	1.013600E+0	9.755154E-1	9.673007E-1	9.197685E-1	9.909076E-1	9.656397E-1	9.292102E-1	9.547237E-1	1.015653E+0	8.962135E-1	9.504106E-1	9.400696E-1	9.666602E-1	9.320125E-1	9.315566E-1	9.507911E-1	9.641426E-1	9.412122E-1	9.604037E-1	9.062463E-1	9.483409E-1	9.559889E-1	9.999545E-1	9.692943E-1	9.450564E-1	1.001556E+0	9.486036E-1	9.895105E-1	9.889827E-1	9.403330E-1	9.230017E-1	1.009368E+0	1.002304E+0	9.432573E-1	9.577413E-1	1.018359E+0	9.393569E-1	9.491627E-1	9.113720E-1	9.919367E-1	9.260025E-1	9.581657E-1	9.638150E-1	9.449506E-1	9.096741E-1	9.116056E-1	9.486628E-1	9.356961E-1	9.069001E-1	9.408765E-1	9.398988E-1	9.266845E-1	9.841318E-1	9.541473E-1	9.243646E-1	9.832527E-1	9.612493E-1	9.541610E-1	9.294737E-1	9.479041E-1	9.604834E-1	9.671854E-1	9.945332E-1	9.834711E-1	9.522480E-1	1.005395E+0	9.480604E-1	9.535191E-1	9.066497E-1	9.496511E-1	9.850617E-1	9.402906E-1	9.465460E-1	9.773561E-1	9.851622E-1	9.457571E-1	9.372135E-1	9.560688E-1	1.000336E+0	1.000900E+0	9.926515E-1	9.479315E-1	1.002988E+0	9.440902E-1	1.014738E+0	9.257624E-1	9.362141E-1	9.654847E-1	9.625578E-1	9.491246E-1	1.001783E+0	9.379419E-1	9.383829E-1	9.781722E-1	9.893012E-1	9.500684E-1	9.832867E-1	1.023614E+0	9.761014E-1	1.007300E+0	9.140391E-1	9.785587E-1	9.529452E-1	9.479546E-1	9.671890E-1	1.000433E+0	9.712518E-1	9.527306E-1	9.723921E-1	9.507085E-1	9.260131E-1	9.408145E-1	9.813260E-1	9.729311E-1	9.109592E-1	9.337633E-1	9.485139E-1	9.502527E-1	9.278987E-1	9.346878E-1	9.512197E-1	9.661120E-1	9.702365E-1	9.138419E-1	9.961307E-1	9.069711E-1	9.293138E-1	9.274231E-1	9.585700E-1	9.338395E-1	9.580684E-1	9.123886E-1	9.552409E-1	9.678908E-1	1.024490E+0	9.125662E-1	9.683931E-1	9.478526E-1	9.592316E-1	9.874681E-1	9.530169E-1	9.659477E-1	9.673779E-1	9.312521E-1	9.661976E-1	9.401042E-1	9.801364E-1	9.612079E-1	9.768629E-1	9.714919E-1	9.439458E-1	9.626905E-1
5.362680E+2	7.296383E-1	7.149027E-1	7.332916E-1	7.337396E-1	7.170041E-1	7.271029E-1	7.084851E-1	7.243346E-1	7.404817E-1	7.276517E-1	7.439217E-1	7.658902E-1	7.237697E-1	7.631301E-1	7.564657E-1	7.379327E-1	7.409827E-1	7.227317E-1	7.420478E-1	7.273610E-1	7.308577E-1	7.450121E-1	7.260277E-1	6.982184E-1	7.028258E-1	7.079678E-1	7.552288E-1	7.265338E-1	7.261661E-1	7.244008E-1	7.403362E-1	7.520943E-1	7.229284E-1	6.875326E-1	6.974947E-1	7.133991E-1	7.292541E-1	7.345019E-1	7.259703E-1	7.099483E-1	7.435506E-1	7.482319E-1	6.896399E-1	6.975735E-1	7.124054E-1	7.136528E-1	7.195577E-1	7.401789E-1	7.274130E-1	7.398697E-1	7.377942E-1	7.061742E-1	7.101140E-1	7.376737E-1	6.952181E-1	7.289533E-1	7.287325E-1	7.738053E-1	7.296695E-1	7.629866E-1	7.324714E-1	7.344447E-1	7.478951E-1	7.533263E-1	7.341260E-1	7.192375E-1	7.726761E-1	7.398793E-1	7.079253E-1	7.470339E-1	7.339037E-1	7.218362E-1	7.450177E-1	7.475213E-1	6.761307E-1	7.735412E-1	7.164094E-1	7.195735E-1	7.306579E-1	7.557188E-1	7.283505E-1	7.488442E-1	7.740022E-1	7.765443E-1	7.576183E-1	7.210528E-1	7.661467E-1	7.424169E-1	7.642439E-1	7.367988E-1	7.651772E-1	7.322338E-1	7.211598E-1	7.480528E-1	7.381847E-1	6.843169E-1	7.278805E-1	7.358248E-1	7.479706E-1	7.484009E-1	7.176011E-1	7.554286E-1	7.642350E-1	7.276970E-1	7.173638E-1	7.353467E-1	7.915166E-1	7.185202E-1	7.342489E-1	7.340337E-1	7.419983E-1	6.847837E-1	7.464925E-1	7.398650E-1	7.742552E-1	7.604953E-1	7.326495E-1	7.503034E-1	7.237593E-1	7.274503E-1	7.420554E-1	7.212333E-1	7.858681E-1	7.138130E-1	7.496890E-1	7.159403E-1	7.290691E-1	7.194035E-1	7.509675E-1	6.936584E-1	6.995347E-1	6.903615E-1	7.627489E-1	7.143881E-1	7.002847E-1	7.143530E-1	7.392871E-1	6.960077E-1	7.519101E-1	7.408789E-1	7.453740E-1	7.223616E-1	7.785578E-1	7.451320E-1	7.241026E-1	7.178091E-1	7.533606E-1	7.245240E-1	7.063564E-1	7.528022E-1	7.118863E-1	7.243067E-1	7.278780E-1	7.339424E-1	7.207536E-1	7.362094E-1	7.275535E-1	7.792392E-1	6.997181E-1	7.485399E-1	7.244196E-1	7.477697E-1	7.607414E-1	7.354678E-1	7.400716E-1	7.267047E-1	7.422460E-1	7.699139E-1	7.453437E-1	6.632378E-1
5.365140E+2	6.006055E-1	6.355198E-1	5.820470E-1	5.933426E-1	6.078292E-1	6.460894E-1	5.908766E-1	6.111672E-1	6.050293E-1	6.216282E-1	6.029177E-1	5.907072E-1	6.129239E-1	5.912581E-1	6.066032E-1	6.041162E-1	6.234617E-1	5.818037E-1	6.190735E-1	5.865313E-1	5.958809E-1	5.808931E-1	5.834084E-1	6.227727E-1	5.975537E-1	6.256583E-1	6.169136E-1	5.994375E-1	6.456968E-1	5.823653E-1	5.965869E-1	6.119211E-1	5.985347E-1	6.023423E-1	6.049971E-1	6.094367E-1	5.845363E-1	5.817054E-1	5.902650E-1	6.309569E-1	6.114323E-1	6.405545E-1	5.867384E-1	6.239532E-1	6.068774E-1	5.836900E-1	6.086549E-1	6.121180E-1	6.344384E-1	6.273888E-1	5.887106E-1	6.127977E-1	5.769980E-1	6.058101E-1	5.904605E-1	6.332812E-1	6.206922E-1	6.250813E-1	6.268182E-1	6.146009E-1	6.103159E-1	5.818868E-1	6.297455E-1	6.072499E-1	6.079559E-1	5.718436E-1	6.290042E-1	5.959346E-1	5.559260E-1	6.110457E-1	6.099174E-1	6.035642E-1	6.077840E-1	5.813756E-1	6.465739E-1	6.265320E-1	5.745398E-1	5.900993E-1	6.136169E-1	6.044804E-1	6.236476E-1	6.076353E-1	6.046439E-1	6.072275E-1	5.963206E-1	5.875041E-1	5.850103E-1	6.074922E-1	5.828201E-1	5.832761E-1	5.883617E-1	6.060184E-1	6.408811E-1	6.103798E-1	5.974374E-1	6.173230E-1	5.884434E-1	5.848471E-1	6.223775E-1	6.370588E-1	6.009358E-1	6.110125E-1	5.702901E-1	6.442964E-1	6.029232E-1	6.004438E-1	6.328418E-1	6.124963E-1	5.992902E-1	6.043617E-1	6.010082E-1	6.153315E-1	5.904148E-1	5.828255E-1	6.404722E-1	6.499005E-1	5.835503E-1	6.326228E-1	5.919240E-1	5.889583E-1	5.901043E-1	6.454422E-1	6.277935E-1	6.074331E-1	6.123930E-1	6.067449E-1	5.830982E-1	5.737992E-1	6.057000E-1	6.024712E-1	6.303537E-1	6.216446E-1	6.362907E-1	6.320988E-1	6.160201E-1	5.980403E-1	6.022305E-1	6.183145E-1	6.298127E-1	6.116173E-1	5.855746E-1	6.048836E-1	5.980506E-1	5.720500E-1	6.051581E-1	6.090174E-1	6.352480E-1	5.954858E-1	6.025161E-1	5.998061E-1	6.318691E-1	5.996860E-1	6.053844E-1	5.980030E-1	5.981197E-1	6.181453E-1	6.272319E-1	6.214716E-1	6.093683E-1	6.447584E-1	5.892830E-1	6.061208E-1	6.054235E-1	6.270306E-1	6.178747E-1	5.918437E-1	5.600471E-1	6.119146E-1	6.125728E-1	6.026501E-1
5.367660E+2	5.609056E-1	5.315148E-1	5.588297E-1	5.595886E-1	5.231283E-1	5.300183E-1	5.228455E-1	5.871409E-1	5.291980E-1	5.512162E-1	5.380847E-1	5.415648E-1	5.623266E-1	5.601335E-1	5.246216E-1	5.444687E-1	5.732684E-1	5.622165E-1	5.309442E-1	5.799166E-1	5.737252E-1	5.328862E-1	5.670706E-1	5.580687E-1	5.519039E-1	5.336832E-1	5.742274E-1	5.420660E-1	5.802883E-1	5.294524E-1	5.998964E-1	5.642643E-1	5.771603E-1	5.334676E-1	5.478132E-1	5.883633E-1	5.431388E-1	5.252545E-1	5.724450E-1	5.764534E-1	5.658095E-1	5.585048E-1	5.651858E-1	5.396240E-1	5.527556E-1	5.731863E-1	5.658725E-1	5.400512E-1	5.300615E-1	5.342714E-1	5.613998E-1	5.634043E-1	5.578703E-1	5.783177E-1	5.288501E-1	5.840423E-1	5.230623E-1	5.275280E-1	5.392074E-1	5.646680E-1	5.263237E-1	5.186752E-1	5.541789E-1	5.475977E-1	5.540246E-1	5.408798E-1	5.700717E-1	5.111594E-1	5.570518E-1	5.537000E-1	5.466599E-1	5.583349E-1	5.500032E-1	5.278102E-1	5.681772E-1	5.619851E-1	5.458490E-1	5.682010E-1	5.545076E-1	5.849611E-1	5.408209E-1	5.502239E-1	5.620766E-1	5.662258E-1	5.453029E-1	5.469302E-1	5.487598E-1	5.578978E-1	5.719250E-1	5.236202E-1	5.464210E-1	5.490730E-1	5.808832E-1	5.680384E-1	5.831794E-1	5.457588E-1	5.713563E-1	5.924748E-1	5.791423E-1	5.544921E-1	5.588081E-1	5.542531E-1	5.796802E-1	5.454212E-1	5.824691E-1	5.680372E-1	5.391474E-1	5.849494E-1	5.638381E-1	5.239017E-1	5.575472E-1	5.562426E-1	5.400638E-1	5.388242E-1	5.566622E-1	5.908747E-1	5.421457E-1	5.597271E-1	5.839000E-1	5.424472E-1	5.426919E-1	5.579307E-1	5.534863E-1	5.837782E-1	5.575323E-1	5.585732E-1	5.567398E-1	5.167686E-1	5.085409E-1	5.889432E-1	5.469676E-1	5.510299E-1	5.135892E-1	5.629687E-1	5.509008E-1	5.597711E-1	5.685645E-1	5.319172E-1	5.341598E-1	5.704453E-1	5.500543E-1	5.424291E-1	5.795435E-1	5.732390E-1	5.436427E-1	5.134628E-1	5.939282E-1	5.313591E-1	5.489356E-1	5.750198E-1	5.399120E-1	5.724331E-1	5.901898E-1	5.467058E-1	5.339855E-1	5.807253E-1	5.362451E-1	5.773962E-1	5.738125E-1	5.922023E-1	5.542671E-1	5.316579E-1	5.659377E-1	5.474044E-1	5.692104E-1	5.651609E-1	5.802263E-1	5.448194E-1	6.034168E-1	4.983995E-1
5.370120E+2	5.323922E-1	5.370798E-1	5.611262E-1	5.075505E-1	5.898800E-1	5.406289E-1	5.392355E-1	5.474178E-1	5.329786E-1	5.454065E-1	5.456668E-1	5.119833E-1	5.596025E-1	5.771464E-1	5.674130E-1	5.598026E-1	5.395689E-1	5.619739E-1	5.425027E-1	5.201423E-1	5.511014E-1	5.318618E-1	5.138527E-1	5.561701E-1	5.484696E-1	5.904791E-1	5.557736E-1	5.362232E-1	5.519322E-1	5.734680E-1	5.500467E-1	5.566904E-1	5.641438E-1	5.574549E-1	5.638048E-1	5.845133E-1	5.646503E-1	5.423537E-1	5.655058E-1	5.546343E-1	5.566121E-1	5.799054E-1	5.428782E-1	5.975664E-1	5.353097E-1	5.534020E-1	5.873749E-1	5.452608E-1	5.733390E-1	5.337430E-1	5.445962E-1	5.406577E-1	5.921702E-1	5.694124E-1	5.399662E-1	5.623261E-1	5.718947E-1	5.629705E-1	5.765646E-1	6.050037E-1	5.353423E-1	5.554479E-1	5.301399E-1	5.396726E-1	5.551287E-1	5.438204E-1	5.385693E-1	5.534643E-1	5.420166E-1	5.654017E-1	5.329036E-1	6.046317E-1	5.476728E-1	5.539981E-1	5.201275E-1	5.576397E-1	5.965115E-1	5.354967E-1	5.287668E-1	5.826114E-1	5.355134E-1	5.359045E-1	5.726967E-1	5.617704E-1	5.320651E-1	5.360090E-1	5.499644E-1	5.445017E-1	5.807043E-1	5.546239E-1	5.446925E-1	5.171007E-1	5.578776E-1	5.453648E-1	5.513934E-1	5.415050E-1	5.398989E-1	5.453905E-1	5.401933E-1	5.770441E-1	5.568205E-1	5.481785E-1	5.973084E-1	5.676599E-1	5.947157E-1	5.698435E-1	5.193970E-1	5.680379E-1	5.330979E-1	5.753543E-1	5.692084E-1	5.622856E-1	5.414478E-1	5.623022E-1	5.632943E-1	5.917250E-1	5.532850E-1	5.664743E-1	5.789264E-1	5.684915E-1	5.684392E-1	5.445478E-1	5.637386E-1	5.413606E-1	5.759318E-1	5.471922E-1	5.657927E-1	5.496370E-1	5.661169E-1	5.658557E-1	5.637352E-1	5.283457E-1	5.728724E-1	5.578658E-1	5.573162E-1	5.712951E-1	5.443833E-1	5.719345E-1	5.679203E-1	5.667352E-1	5.545797E-1	5.575123E-1	5.578661E-1	5.340228E-1	5.584323E-1	5.801993E-1	5.918898E-1	5.523466E-1	5.520684E-1	5.583993E-1	5.684345E-1	5.592890E-1	5.985365E-1	5.378768E-1	5.455933E-1	5.532309E-1	5.876270E-1	5.748134E-1	5.800294E-1	5.245682E-1	5.590264E-1	5.473687E-1	5.581024E-1	5.948351E-1	5.505688E-1	5.570275E-1	5.932967E-1	5.727770E-1	6.054811E-1	5.358722E-1
5.372590E+2	6.166615E-1	6.214489E-1	6.179759E-1	5.957499E-1	6.382455E-1	6.236388E-1	6.059008E-1	6.115521E-1	6.335517E-1	5.721162E-1	6.175883E-1	6.115319E-1	6.317215E-1	6.109520E-1	6.418484E-1	6.094256E-1	6.210944E-1	5.940056E-1	6.497437E-1	5.920882E-1	5.848797E-1	5.829797E-1	6.432808E-1	6.155633E-1	6.066579E-1	6.121800E-1	6.032045E-1	5.787984E-1	6.074780E-1	6.073101E-1	6.534604E-1	6.637725E-1	6.220772E-1	6.111082E-1	6.408561E-1	6.234241E-1	6.159250E-1	5.952728E-1	6.198273E-1	6.272531E-1	6.387314E-1	6.213168E-1	6.462441E-1	6.200053E-1	6.129810E-1	6.549882E-1	6.545269E-1	5.906773E-1	6.148137E-1	6.056438E-1	6.077039E-1	6.296960E-1	6.161846E-1	6.134511E-1	6.009203E-1	6.458855E-1	6.411546E-1	6.043965E-1	6.231660E-1	6.299254E-1	6.078614E-1	5.969623E-1	6.090306E-1	6.235737E-1	6.133337E-1	6.566488E-1	6.282454E-1	5.509816E-1	6.243837E-1	6.111524E-1	6.148900E-1	6.121060E-1	6.180496E-1	5.986873E-1	6.600926E-1	6.241720E-1	6.412959E-1	6.015541E-1	6.038387E-1	6.287478E-1	6.324750E-1	6.082588E-1	6.123671E-1	6.158281E-1	5.862099E-1	6.245646E-1	5.884945E-1	6.234776E-1	6.086613E-1	6.094758E-1	6.538872E-1	6.345602E-1	6.307884E-1	6.351283E-1	6.255026E-1	5.829189E-1	6.238674E-1	6.056876E-1	5.948600E-1	6.341020E-1	5.981269E-1	6.207860E-1	6.444951E-1	6.082016E-1	6.105947E-1	5.652344E-1	5.917181E-1	6.306915E-1	6.150332E-1	5.971356E-1	6.358226E-1	6.107957E-1	5.637164E-1	6.297272E-1	6.585426E-1	6.521762E-1	6.301717E-1	6.388673E-1	6.524504E-1	6.098958E-1	5.970433E-1	6.499160E-1	6.337189E-1	6.299307E-1	6.310983E-1	6.450882E-1	6.109549E-1	6.058527E-1	5.923192E-1	6.126685E-1	6.175748E-1	6.193516E-1	6.161209E-1	6.121086E-1	6.217412E-1	6.525385E-1	6.268283E-1	5.754621E-1	6.145212E-1	6.116973E-1	6.255015E-1	6.081063E-1	6.221212E-1	6.155743E-1	6.071282E-1	6.169567E-1	6.489996E-1	6.502678E-1	6.530817E-1	6.059865E-1	5.812694E-1	6.082264E-1	6.471549E-1	6.298346E-1	5.898906E-1	6.332664E-1	6.513050E-1	7.161136E-1	6.270360E-1	6.194511E-1	6.270157E-1	6.105468E-1	6.020252E-1	6.310722E-1	6.190302E-1	5.972185E-1	6.058389E-1	6.219310E-1	6.564616E-1	6.210617E-1
5.375110E+2	6.936013E-1	6.912207E-1	7.125104E-1	7.160176E-1	7.259050E-1	6.956261E-1	7.035863E-1	6.969302E-1	6.559912E-1	6.950745E-1	7.025126E-1	7.003089E-1	6.594780E-1	7.073805E-1	6.867328E-1	7.460926E-1	6.984194E-1	6.879902E-1	7.433106E-1	7.341364E-1	6.959063E-1	7.036807E-1	7.184907E-1	7.171168E-1	6.805468E-1	7.098042E-1	7.083421E-1	7.252134E-1	7.055040E-1	7.429489E-1	7.539440E-1	7.205478E-1	6.691472E-1	6.952152E-1	7.464109E-1	6.827855E-1	7.245341E-1	6.704235E-1	7.280900E-1	7.401139E-1	7.128942E-1	7.095917E-1	6.931206E-1	6.960817E-1	6.734507E-1	7.420992E-1	7.777807E-1	6.872959E-1	7.101512E-1	6.815369E-1	6.901642E-1	7.247351E-1	7.321276E-1	6.996818E-1	7.041348E-1	7.034208E-1	6.962768E-1	6.673374E-1	7.335493E-1	7.301501E-1	6.815012E-1	7.406496E-1	7.187895E-1	7.440447E-1	7.130625E-1	6.995931E-1	6.826816E-1	7.216298E-1	7.454783E-1	7.113898E-1	6.767672E-1	7.443997E-1	7.011259E-1	7.407218E-1	7.029964E-1	7.489259E-1	7.167699E-1	6.994721E-1	6.999440E-1	7.082302E-1	6.927369E-1	7.157682E-1	6.874905E-1	7.132008E-1	7.013067E-1	7.227674E-1	8.032163E-1	7.193781E-1	7.405824E-1	7.032838E-1	7.334618E-1	7.053919E-1	6.941059E-1	7.436109E-1	6.802769E-1	7.093359E-1	7.541330E-1	6.933634E-1	6.991741E-1	7.081979E-1	7.302465E-1	7.072131E-1	7.487347E-1	7.037696E-1	7.434288E-1	7.378837E-1	7.238206E-1	7.349850E-1	6.567726E-1	7.535553E-1	7.293927E-1	6.826675E-1	7.155665E-1	7.151849E-1	7.441626E-1	7.648701E-1	7.134663E-1	7.177365E-1	7.344290E-1	6.743705E-1	7.266319E-1	7.061972E-1	7.291288E-1	7.369520E-1	7.432223E-1	7.451339E-1	7.024343E-1	7.360680E-1	7.047190E-1	6.974923E-1	7.099034E-1	7.204129E-1	6.887943E-1	7.151101E-1	6.995152E-1	7.321459E-1	6.759752E-1	7.239443E-1	7.506846E-1	7.574053E-1	6.900253E-1	7.163857E-1	7.262441E-1	7.064442E-1	7.076960E-1	6.947748E-1	7.662656E-1	7.253647E-1	7.318975E-1	6.781354E-1	7.387954E-1	7.233413E-1	7.299531E-1	7.264159E-1	6.898775E-1	7.024201E-1	7.239444E-1	7.020468E-1	7.640173E-1	7.522658E-1	6.942735E-1	7.112058E-1	7.093464E-1	7.472418E-1	7.143880E-1	7.282425E-1	7.661625E-1	7.609390E-1	7.233781E-1	7.610795E-1
5.377580E+2	8.028410E-1	7.868382E-1	8.081451E-1	8.040952E-1	8.467188E-1	7.831356E-1	8.212526E-1	7.983921E-1	7.798408E-1	8.096339E-1	7.744248E-1	7.817524E-1	7.798368E-1	8.576655E-1	7.714890E-1	7.568517E-1	8.515164E-1	8.057394E-1	8.423433E-1	7.762483E-1	8.646398E-1	7.661431E-1	8.072628E-1	8.223829E-1	8.356066E-1	7.858412E-1	7.770553E-1	8.367349E-1	7.904540E-1	7.931960E-1	8.194486E-1	8.147703E-1	8.236147E-1	8.150058E-1	8.375155E-1	8.175529E-1	7.646348E-1	7.879439E-1	7.979343E-1	7.935509E-1	8.059569E-1	8.243075E-1	7.845139E-1	8.206362E-1	7.761770E-1	7.989100E-1	8.041939E-1	8.339443E-1	8.132140E-1	7.976942E-1	8.134407E-1	7.955716E-1	8.163601E-1	8.291753E-1	8.299148E-1	7.711451E-1	7.895821E-1	8.036220E-1	8.366221E-1	8.115783E-1	8.064082E-1	8.042013E-1	8.034356E-1	8.019389E-1	7.912112E-1	8.171113E-1	7.647407E-1	8.365777E-1	7.776574E-1	8.018562E-1	8.027109E-1	8.715997E-1	7.829805E-1	7.880809E-1	7.805357E-1	8.627929E-1	8.048628E-1	7.918733E-1	7.731895E-1	7.962545E-1	7.734434E-1	7.884835E-1	8.081715E-1	8.050607E-1	7.996173E-1	7.763746E-1	7.976436E-1	8.106370E-1	8.409041E-1	7.906836E-1	8.135599E-1	8.044411E-1	8.096710E-1	8.399135E-1	8.330217E-1	8.003382E-1	7.569966E-1	7.877155E-1	8.070980E-1	7.981331E-1	8.179461E-1	7.488645E-1	8.119656E-1	8.011492E-1	7.955329E-1	8.046365E-1	8.325897E-1	8.120303E-1	7.828856E-1	7.756484E-1	8.128267E-1	7.847429E-1	7.700715E-1	8.136370E-1	8.257940E-1	8.293550E-1	8.132719E-1	8.378247E-1	8.098432E-1	7.960458E-1	8.347973E-1	7.968750E-1	7.936087E-1	8.130640E-1	7.886030E-1	8.138595E-1	7.835468E-1	8.025026E-1	7.893036E-1	7.638179E-1	8.166165E-1	8.463863E-1	8.244818E-1	7.800327E-1	7.682502E-1	8.396314E-1	8.069490E-1	7.471330E-1	8.104968E-1	7.629823E-1	7.996284E-1	8.157241E-1	7.668614E-1	8.315414E-1	7.917806E-1	7.876922E-1	8.351619E-1	8.254075E-1	8.048079E-1	7.977252E-1	8.528017E-1	7.994931E-1	8.111002E-1	8.152785E-1	7.987529E-1	8.030665E-1	7.936794E-1	8.493413E-1	7.757351E-1	8.361137E-1	7.934128E-1	8.232801E-1	7.882325E-1	8.417662E-1	7.684757E-1	7.901762E-1	8.570216E-1	7.827082E-1	8.621629E-1	8.300409E-1
5.380110E+2	8.861630E-1	9.354017E-1	9.564946E-1	8.781895E-1	9.607520E-1	9.083107E-1	9.462513E-1	9.279418E-1	8.819062E-1	9.372617E-1	9.525966E-1	9.804902E-1	9.251921E-1	9.631139E-1	9.622882E-1	9.264794E-1	9.681330E-1	9.636731E-1	9.627088E-1	9.245207E-1	9.201219E-1	9.385743E-1	9.522019E-1	9.260742E-1	9.782539E-1	9.142287E-1	9.643722E-1	9.577203E-1	9.279537E-1	9.556316E-1	8.791291E-1	9.293765E-1	9.975618E-1	9.129868E-1	9.397993E-1	9.622492E-1	9.582355E-1	9.372764E-1	9.707422E-1	9.358505E-1	9.552649E-1	9.628538E-1	9.355621E-1	9.504150E-1	9.396474E-1	9.739231E-1	9.385600E-1	9.657736E-1	9.353151E-1	9.249515E-1	9.406255E-1	9.350640E-1	9.341312E-1	9.580062E-1	9.470637E-1	9.541797E-1	9.063330E-1	9.279518E-1	9.557195E-1	9.245738E-1	9.273956E-1	9.470774E-1	9.316278E-1	9.652270E-1	9.734381E-1	9.875874E-1	9.445805E-1	9.427190E-1	8.865371E-1	9.840386E-1	9.304384E-1	9.146201E-1	9.954188E-1	9.440714E-1	9.569549E-1	9.511569E-1	9.267504E-1	9.016850E-1	9.529785E-1	9.465560E-1	9.351594E-1	9.115573E-1	9.812265E-1	9.162821E-1	9.173083E-1	9.371843E-1	9.281412E-1	9.601351E-1	9.592804E-1	8.973759E-1	9.599988E-1	9.466128E-1	9.309028E-1	9.320122E-1	9.360810E-1	9.512896E-1	9.173876E-1	9.917709E-1	9.500396E-1	9.277843E-1	8.894354E-1	8.966274E-1	9.742393E-1	9.205726E-1	9.351945E-1	9.552054E-1	8.775782E-1	9.837150E-1	9.511773E-1	9.151069E-1	9.535041E-1	9.640273E-1	9.800678E-1	9.378649E-1	9.021822E-1	9.796291E-1	9.061713E-1	9.395016E-1	9.630909E-1	9.266033E-1	9.659115E-1	9.057642E-1	9.684802E-1	8.872325E-1	9.314160E-1	9.139638E-1	9.286380E-1	9.689253E-1	9.581051E-1	9.465940E-1	9.659614E-1	9.849088E-1	9.598243E-1	9.207733E-1	8.847222E-1	1.000337E+0	9.422699E-1	9.459297E-1	9.726856E-1	9.666273E-1	9.302062E-1	9.314980E-1	9.494087E-1	9.373119E-1	8.766627E-1	9.275581E-1	9.697830E-1	9.662368E-1	9.308311E-1	9.751624E-1	9.597148E-1	9.126649E-1	9.641525E-1	9.367438E-1	8.704612E-1	9.119866E-1	9.422632E-1	1.030217E+0	9.383028E-1	9.716186E-1	9.516199E-1	9.165143E-1	9.171591E-1	9.566444E-1	9.020642E-1	8.775411E-1	9.913940E-1	9.356673E-1	9.860797E-1	9.095220E-1
5.382850E+2	1.087165E+0	1.111776E+0	1.093298E+0	1.066087E+0	1.072407E+0	1.089126E+0	1.077555E+0	1.159375E+0	1.118775E+0	1.106384E+0	1.070849E+0	1.094085E+0	1.092887E+0	1.102474E+0	1.077734E+0	1.064745E+0	1.143331E+0	1.132614E+0	1.112137E+0	1.128765E+0	1.111635E+0	1.057350E+0	1.069791E+0	1.084275E+0	1.081854E+0	1.160180E+0	1.096407E+0	1.135062E+0	1.105021E+0	1.081931E+0	1.078132E+0	1.114885E+0	1.086579E+0	1.121253E+0	1.073119E+0	1.133951E+0	1.138565E+0	1.059496E+0	1.116492E+0	1.103309E+0	1.095914E+0	1.151425E+0	1.107633E+0	1.092181E+0	1.060891E+0	1.070517E+0	1.141886E+0	1.115640E+0	1.107925E+0	1.096547E+0	1.069800E+0	1.135769E+0	1.085197E+0	1.076955E+0	1.063901E+0	1.149356E+0	1.063981E+0	1.090950E+0	1.094954E+0	1.118841E+0	1.131136E+0	1.190520E+0	1.086716E+0	1.095402E+0	1.075486E+0	1.070137E+0	1.060082E+0	1.128099E+0	1.061307E+0	1.067297E+0	1.077846E+0	1.083494E+0	1.074325E+0	1.117943E+0	1.095985E+0	1.086073E+0	1.130040E+0	1.009025E+0	1.087935E+0	1.123183E+0	1.098552E+0	1.114836E+0	1.085254E+0	1.146260E+0	1.132278E+0	1.039026E+0	1.082350E+0	1.089775E+0	1.138628E+0	1.081355E+0	1.079486E+0	1.094155E+0	1.122210E+0	1.065053E+0	1.058926E+0	1.100439E+0	1.103374E+0	1.104697E+0	1.099795E+0	1.134609E+0	1.123578E+0	1.086714E+0	1.127298E+0	1.104539E+0	1.082792E+0	1.093905E+0	1.096655E+0	1.126893E+0	1.122162E+0	1.084980E+0	1.088344E+0	1.065746E+0	1.069780E+0	1.113382E+0	1.124043E+0	1.111571E+0	1.133279E+0	1.111594E+0	1.117567E+0	1.064383E+0	1.068267E+0	1.081684E+0	1.081965E+0	1.081017E+0	1.103516E+0	1.100981E+0	1.098644E+0	1.066772E+0	1.103220E+0	1.119399E+0	1.134635E+0	1.125978E+0	1.085549E+0	1.078954E+0	1.119145E+0	1.120518E+0	1.103199E+0	1.103282E+0	1.106783E+0	1.117976E+0	1.044341E+0	1.114853E+0	1.090291E+0	1.066342E+0	1.108629E+0	1.089337E+0	1.111563E+0	1.115929E+0	1.111071E+0	1.059450E+0	1.106250E+0	1.107589E+0	1.123278E+0	1.082282E+0	1.133298E+0	1.107751E+0	1.137480E+0	1.111845E+0	1.061728E+0	1.121584E+0	1.129762E+0	1.122744E+0	1.090154E+0	1.120352E+0	1.109133E+0	1.066051E+0	1.108803E+0	1.130874E+0	1.054560E+0	1.122375E+0
5.385110E+2	1.329109E+0	1.302153E+0	1.309593E+0	1.340296E+0	1.376355E+0	1.296904E+0	1.325228E+0	1.339955E+0	1.290937E+0	1.328090E+0	1.255777E+0	1.313087E+0	1.231333E+0	1.305886E+0	1.308416E+0	1.314568E+0	1.340730E+0	1.304237E+0	1.350463E+0	1.312493E+0	1.337381E+0	1.273980E+0	1.307121E+0	1.346866E+0	1.280525E+0	1.309791E+0	1.322965E+0	1.372862E+0	1.329978E+0	1.316527E+0	1.336089E+0	1.328625E+0	1.318599E+0	1.291822E+0	1.262937E+0	1.336787E+0	1.307113E+0	1.332339E+0	1.353215E+0	1.321900E+0	1.364714E+0	1.314090E+0	1.247432E+0	1.321677E+0	1.291486E+0	1.330806E+0	1.314766E+0	1.342462E+0	1.358397E+0	1.327700E+0	1.375909E+0	1.298568E+0	1.313449E+0	1.294756E+0	1.281735E+0	1.312537E+0	1.276872E+0	1.316535E+0	1.305497E+0	1.357967E+0	1.400440E+0	1.271037E+0	1.320342E+0	1.337802E+0	1.310752E+0	1.386347E+0	1.285087E+0	1.356385E+0	1.247475E+0	1.351031E+0	1.307425E+0	1.372022E+0	1.333887E+0	1.346082E+0	1.335758E+0	1.341694E+0	1.292731E+0	1.302051E+0	1.310690E+0	1.367100E+0	1.282470E+0	1.323653E+0	1.290360E+0	1.370810E+0	1.298090E+0	1.280035E+0	1.309318E+0	1.323866E+0	1.345225E+0	1.317825E+0	1.325421E+0	1.325611E+0	1.311634E+0	1.273515E+0	1.240983E+0	1.350684E+0	1.340267E+0	1.298345E+0	1.312058E+0	1.313925E+0	1.326882E+0	1.210842E+0	1.307541E+0	1.311849E+0	1.269400E+0	1.259236E+0	1.328304E+0	1.353653E+0	1.329439E+0	1.262617E+0	1.292637E+0	1.301567E+0	1.327226E+0	1.344913E+0	1.284919E+0	1.380569E+0	1.304870E+0	1.286252E+0	1.328020E+0	1.290913E+0	1.371128E+0	1.306817E+0	1.343048E+0	1.278227E+0	1.340410E+0	1.279286E+0	1.287738E+0	1.292454E+0	1.288926E+0	1.294966E+0	1.293697E+0	1.265235E+0	1.341197E+0	1.301249E+0	1.283515E+0	1.286713E+0	1.271797E+0	1.334185E+0	1.325959E+0	1.331459E+0	1.307310E+0	1.270995E+0	1.324055E+0	1.312966E+0	1.307491E+0	1.352036E+0	1.372038E+0	1.307775E+0	1.278354E+0	1.259692E+0	1.271146E+0	1.267774E+0	1.335893E+0	1.291920E+0	1.269864E+0	1.346855E+0	1.328124E+0	1.351414E+0	1.259665E+0	1.290259E+0	1.342415E+0	1.311675E+0	1.299094E+0	1.343822E+0	1.302282E+0	1.270377E+0	1.310836E+0	1.293005E+0	1.308697E+0	1.337740E+0
5.387700E+2	1.500794E+0	1.556320E+0	1.534172E+0	1.506470E+0	1.569324E+0	1.523369E+0	1.536033E+0	1.554455E+0	1.528509E+0	1.487673E+0	1.445899E+0	1.494925E+0	1.510590E+0	1.593092E+0	1.519469E+0	1.527964E+0	1.590579E+0	1.476047E+0	1.504152E+0	1.546870E+0	1.500060E+0	1.547031E+0	1.542406E+0	1.529228E+0	1.555724E+0	1.540546E+0	1.572525E+0	1.485589E+0	1.499136E+0	1.548154E+0	1.546962E+0	1.481452E+0	1.500978E+0	1.511432E+0	1.478970E+0	1.566008E+0	1.496638E+0	1.500810E+0	1.536254E+0	1.516289E+0	1.569679E+0	1.518385E+0	1.525990E+0	1.523159E+0	1.529061E+0	1.487489E+0	1.530090E+0	1.496798E+0	1.507592E+0	1.532982E+0	1.560546E+0	1.520979E+0	1.506059E+0	1.502412E+0	1.432609E+0	1.560187E+0	1.547050E+0	1.502479E+0	1.526862E+0	1.522175E+0	1.535310E+0	1.496224E+0	1.478601E+0	1.497478E+0	1.571905E+0	1.499273E+0	1.528689E+0	1.521649E+0	1.490754E+0	1.516435E+0	1.519662E+0	1.572095E+0	1.520400E+0	1.468112E+0	1.469814E+0	1.505895E+0	1.492351E+0	1.487870E+0	1.505201E+0	1.577433E+0	1.542334E+0	1.432773E+0	1.537975E+0	1.591790E+0	1.482444E+0	1.517590E+0	1.478944E+0	1.585983E+0	1.404014E+0	1.496978E+0	1.488888E+0	1.570969E+0	1.488158E+0	1.474417E+0	1.510280E+0	1.487653E+0	1.509727E+0	1.465285E+0	1.460797E+0	1.566215E+0	1.565730E+0	1.486010E+0	1.535357E+0	1.487760E+0	1.438486E+0	1.506059E+0	1.548000E+0	1.508400E+0	1.578449E+0	1.463118E+0	1.531842E+0	1.508876E+0	1.499721E+0	1.464775E+0	1.526039E+0	1.546541E+0	1.495240E+0	1.459287E+0	1.521479E+0	1.491783E+0	1.506976E+0	1.495260E+0	1.552955E+0	1.514184E+0	1.492585E+0	1.499207E+0	1.471289E+0	1.524472E+0	1.495018E+0	1.556306E+0	1.513878E+0	1.545397E+0	1.534911E+0	1.515852E+0	1.514990E+0	1.488565E+0	1.533326E+0	1.487346E+0	1.487991E+0	1.517472E+0	1.510023E+0	1.457081E+0	1.545914E+0	1.526430E+0	1.506078E+0	1.416646E+0	1.491863E+0	1.498346E+0	1.479395E+0	1.514731E+0	1.510317E+0	1.526765E+0	1.526487E+0	1.448717E+0	1.477319E+0	1.532362E+0	1.509920E+0	1.556450E+0	1.441092E+0	1.541228E+0	1.527896E+0	1.509448E+0	1.535831E+0	1.467130E+0	1.489788E+0	1.447711E+0	1.520526E+0	1.513803E+0	1.595101E+0	1.383942E+0
5.390450E+2	1.743059E+0	1.777276E+0	1.808290E+0	1.775068E+0	1.833679E+0	1.788535E+0	1.823447E+0	1.832207E+0	1.790519E+0	1.815926E+0	1.798137E+0	1.800635E+0	1.803911E+0	1.835674E+0	1.793423E+0	1.783211E+0	1.872700E+0	1.720168E+0	1.801443E+0	1.759048E+0	1.807570E+0	1.765317E+0	1.813990E+0	1.869994E+0	1.760604E+0	1.784088E+0	1.812850E+0	1.858143E+0	1.856953E+0	1.766126E+0	1.763361E+0	1.788468E+0	1.831238E+0	1.774637E+0	1.737102E+0	1.865762E+0	1.830825E+0	1.767693E+0	1.812335E+0	1.774930E+0	1.849156E+0	1.799972E+0	1.823425E+0	1.825919E+0	1.750339E+0	1.861254E+0	1.749814E+0	1.854085E+0	1.785456E+0	1.761197E+0	1.745996E+0	1.814281E+0	1.758465E+0	1.736972E+0	1.727289E+0	1.825741E+0	1.761524E+0	1.708543E+0	1.763394E+0	1.763985E+0	1.774608E+0	1.779414E+0	1.785072E+0	1.770505E+0	1.754669E+0	1.762747E+0	1.759558E+0	1.798307E+0	1.742694E+0	1.744222E+0	1.756054E+0	1.800534E+0	1.787874E+0	1.750360E+0	1.795213E+0	1.750518E+0	1.767345E+0	1.648132E+0	1.759946E+0	1.792108E+0	1.714340E+0	1.760578E+0	1.791837E+0	1.847128E+0	1.742206E+0	1.727022E+0	1.779314E+0	1.789336E+0	1.793575E+0	1.756007E+0	1.774752E+0	1.801789E+0	1.768991E+0	1.774692E+0	1.711961E+0	1.767549E+0	1.774873E+0	1.799729E+0	1.747374E+0	1.737927E+0	1.722752E+0	1.786369E+0	1.804143E+0	1.740458E+0	1.790288E+0	1.757886E+0	1.681323E+0	1.804031E+0	1.830790E+0	1.727666E+0	1.764015E+0	1.794061E+0	1.782119E+0	1.793603E+0	1.806154E+0	1.820889E+0	1.739799E+0	1.776268E+0	1.727160E+0	1.751880E+0	1.802150E+0	1.722974E+0	1.752598E+0	1.756392E+0	1.757801E+0	1.721682E+0	1.792606E+0	1.755348E+0	1.672746E+0	1.790021E+0	1.745798E+0	1.792390E+0	1.695999E+0	1.762227E+0	1.718143E+0	1.779941E+0	1.722591E+0	1.688510E+0	1.743638E+0	1.769139E+0	1.741899E+0	1.713329E+0	1.786407E+0	1.744767E+0	1.742472E+0	1.712027E+0	1.758161E+0	1.747876E+0	1.767734E+0	1.681384E+0	1.719134E+0	1.771458E+0	1.752165E+0	1.729491E+0	1.725714E+0	1.720431E+0	1.797508E+0	1.760024E+0	1.741733E+0	1.723744E+0	1.763191E+0	1.692530E+0	1.746339E+0	1.726546E+0	1.770293E+0	1.673626E+0	1.719291E+0	1.684221E+0	1.777942E+0	1.818043E+0
5.392620E+2	1.990304E+0	1.993523E+0	1.997701E+0	1.909044E+0	1.993073E+0	1.973602E+0	1.958344E+0	2.059406E+0	1.978903E+0	1.898001E+0	1.912357E+0	1.950191E+0	2.005451E+0	2.011380E+0	1.990700E+0	1.989627E+0	1.989812E+0	1.949803E+0	2.032705E+0	1.989171E+0	2.001672E+0	1.964988E+0	2.041079E+0	2.002973E+0	1.962392E+0	1.954609E+0	2.041410E+0	2.005817E+0	1.954540E+0	1.966861E+0	1.961986E+0	2.054242E+0	2.039829E+0	1.934178E+0	1.982655E+0	2.022826E+0	1.964467E+0	1.971757E+0	1.995069E+0	1.951171E+0	2.030359E+0	1.994994E+0	1.996020E+0	2.004570E+0	1.899929E+0	1.916762E+0	1.968357E+0	1.979150E+0	2.001291E+0	1.954448E+0	1.988931E+0	2.061856E+0	1.943913E+0	1.924993E+0	1.953555E+0	2.050852E+0	2.001125E+0	1.962278E+0	1.985863E+0	1.986370E+0	2.025809E+0	1.898724E+0	1.972800E+0	1.933196E+0	2.014158E+0	1.927983E+0	1.883964E+0	2.031076E+0	1.912201E+0	2.005591E+0	1.875373E+0	2.015934E+0	1.890551E+0	1.998794E+0	1.912226E+0	1.931369E+0	1.973784E+0	1.973920E+0	1.970909E+0	2.007458E+0	1.959211E+0	1.921891E+0	1.968223E+0	2.039060E+0	2.041485E+0	1.917914E+0	1.903661E+0	2.005613E+0	1.934849E+0	1.975881E+0	2.001316E+0	2.011750E+0	1.965088E+0	1.908153E+0	1.932857E+0	1.935569E+0	1.995722E+0	1.915385E+0	1.907332E+0	1.993513E+0	1.976011E+0	1.910463E+0	1.948526E+0	1.986304E+0	2.022767E+0	1.946133E+0	1.917156E+0	1.973844E+0	1.924534E+0	1.929383E+0	1.893473E+0	1.923821E+0	1.949430E+0	1.971273E+0	2.007730E+0	1.966803E+0	1.915567E+0	1.865692E+0	1.967694E+0	1.910576E+0	1.878131E+0	1.997366E+0	1.966071E+0	1.957764E+0	1.938107E+0	1.916536E+0	1.981849E+0	1.902830E+0	1.927025E+0	1.928325E+0	1.915952E+0	1.914796E+0	1.921746E+0	1.914928E+0	1.845393E+0	1.899106E+0	1.952601E+0	1.923771E+0	1.976000E+0	1.914713E+0	1.956516E+0	1.907257E+0	1.998862E+0	1.924448E+0	1.959166E+0	1.868801E+0	1.964983E+0	1.954615E+0	1.860240E+0	1.912720E+0	1.858793E+0	1.922012E+0	1.945220E+0	1.890716E+0	1.844680E+0	1.963497E+0	1.943274E+0	1.990985E+0	1.886669E+0	1.933550E+0	1.910724E+0	1.896325E+0	1.834977E+0	1.888064E+0	1.897334E+0	1.860026E+0	1.923643E+0	1.965145E+0	2.013732E+0	1.964915E+0
5.395370E+2	2.208209E+0	2.213038E+0	2.187227E+0	2.216139E+0	2.236562E+0	2.179241E+0	2.173713E+0	2.249609E+0	2.156983E+0	2.195569E+0	2.192007E+0	2.218292E+0	2.186917E+0	2.190507E+0	2.217728E+0	2.194387E+0	2.190266E+0	2.160617E+0	2.223399E+0	2.216689E+0	2.140940E+0	2.183007E+0	2.203845E+0	2.213111E+0	2.135525E+0	2.171802E+0	2.178544E+0	2.231031E+0	2.151859E+0	2.155795E+0	2.265242E+0	2.170574E+0	2.240510E+0	2.126061E+0	2.167537E+0	2.218299E+0	2.191270E+0	2.167463E+0	2.155328E+0	2.171760E+0	2.126704E+0	2.229211E+0	2.123760E+0	2.207199E+0	2.153285E+0	2.201593E+0	2.156009E+0	2.180776E+0	2.125306E+0	2.195357E+0	2.150219E+0	2.189199E+0	2.202690E+0	2.158882E+0	2.139248E+0	2.216908E+0	2.199695E+0	2.149335E+0	2.082596E+0	2.218918E+0	2.221526E+0	2.120726E+0	2.119650E+0	2.185449E+0	2.243283E+0	2.129184E+0	2.090560E+0	2.155275E+0	2.045655E+0	2.198751E+0	2.150376E+0	2.229571E+0	2.146972E+0	2.120414E+0	2.111135E+0	2.206315E+0	2.114631E+0	2.128182E+0	2.085245E+0	2.206487E+0	2.065080E+0	2.121101E+0	2.211547E+0	2.214551E+0	2.069195E+0	2.059653E+0	2.085641E+0	2.181403E+0	2.178732E+0	2.192715E+0	2.120381E+0	2.249628E+0	2.177476E+0	2.081064E+0	2.179815E+0	2.105053E+0	2.153425E+0	2.202557E+0	2.108756E+0	2.232645E+0	2.220984E+0	2.066769E+0	2.163094E+0	2.187852E+0	2.143204E+0	2.181889E+0	2.097115E+0	2.199359E+0	2.156545E+0	2.116335E+0	2.097053E+0	2.095308E+0	2.144552E+0	2.090577E+0	2.151820E+0	2.176853E+0	2.175617E+0	2.136423E+0	2.103268E+0	2.176258E+0	2.150774E+0	2.051028E+0	2.128482E+0	2.151867E+0	2.144405E+0	2.105216E+0	2.126059E+0	2.135843E+0	2.197009E+0	2.088650E+0	2.134814E+0	2.104706E+0	2.082586E+0	2.062435E+0	2.075701E+0	2.227103E+0	2.127269E+0	2.032264E+0	2.129724E+0	2.130079E+0	2.151309E+0	2.040483E+0	2.176509E+0	2.170313E+0	2.147257E+0	2.120528E+0	2.126315E+0	2.109271E+0	2.119476E+0	2.029540E+0	2.122707E+0	2.108717E+0	2.186064E+0	2.088518E+0	2.040991E+0	2.110420E+0	2.125725E+0	2.198675E+0	2.111972E+0	2.146993E+0	2.095504E+0	2.087806E+0	2.161327E+0	2.120717E+0	2.089160E+0	2.100229E+0	2.128842E+0	2.107276E+0	2.122318E+0	2.054116E+0
5.397860E+2	2.234440E+0	2.233382E+0	2.231446E+0	2.147638E+0	2.201489E+0	2.196152E+0	2.248379E+0	2.260768E+0	2.227461E+0	2.210110E+0	2.175873E+0	2.162504E+0	2.237821E+0	2.253644E+0	2.197062E+0	2.172792E+0	2.191482E+0	2.239115E+0	2.196789E+0	2.251233E+0	2.190168E+0	2.153282E+0	2.198354E+0	2.234837E+0	2.152618E+0	2.171371E+0	2.146780E+0	2.208380E+0	2.184192E+0	2.250623E+0	2.081995E+0	2.151060E+0	2.157516E+0	2.133096E+0	2.181928E+0	2.205572E+0	2.162711E+0	2.170635E+0	2.127432E+0	2.187391E+0	2.221858E+0	2.081335E+0	2.123197E+0	2.222036E+0	2.102999E+0	2.152194E+0	2.180353E+0	2.175160E+0	2.130604E+0	2.154753E+0	2.201789E+0	2.221925E+0	2.179461E+0	2.087369E+0	2.095906E+0	2.242054E+0	2.155470E+0	2.135701E+0	2.195585E+0	2.204061E+0	2.217194E+0	2.125069E+0	2.167733E+0	2.146055E+0	2.134884E+0	2.104808E+0	2.084783E+0	2.129475E+0	2.080249E+0	2.184069E+0	2.149887E+0	2.194433E+0	2.164535E+0	2.148621E+0	2.125013E+0	2.253133E+0	2.117524E+0	2.086159E+0	2.142097E+0	2.149436E+0	2.139887E+0	2.174537E+0	2.193031E+0	2.205931E+0	2.093183E+0	2.045688E+0	2.149566E+0	2.184387E+0	2.206613E+0	2.197489E+0	2.136772E+0	2.205403E+0	2.144487E+0	2.123135E+0	2.119588E+0	2.191209E+0	2.174373E+0	2.115121E+0	2.071406E+0	2.181423E+0	2.122211E+0	2.068823E+0	2.156719E+0	2.224232E+0	2.117113E+0	2.138326E+0	2.124129E+0	2.148935E+0	2.115357E+0	2.085300E+0	2.108165E+0	2.087496E+0	2.119683E+0	2.054883E+0	2.172170E+0	2.189965E+0	2.122568E+0	2.107762E+0	2.151774E+0	2.124162E+0	2.080546E+0	2.039982E+0	2.135160E+0	2.150949E+0	2.179114E+0	2.051676E+0	2.189561E+0	2.050933E+0	2.190331E+0	2.089198E+0	2.092796E+0	2.098802E+0	2.059392E+0	2.089803E+0	2.093758E+0	2.195532E+0	2.111767E+0	2.146511E+0	2.111615E+0	2.092878E+0	2.170357E+0	2.085277E+0	2.172484E+0	2.140936E+0	2.090012E+0	2.106240E+0	2.093288E+0	2.146408E+0	2.128267E+0	2.067105E+0	2.076989E+0	2.088019E+0	2.156580E+0	2.092822E+0	2.181457E+0	2.113715E+0	2.060023E+0	2.182788E+0	2.087306E+0	2.077575E+0	2.091138E+0	2.139592E+0	2.100855E+0	2.138978E+0	2.047623E+0	2.066443E+0	2.106087E+0	2.138646E+0	2.168398E+0	2.026997E+0
5.400240E+2	2.100269E+0	2.065124E+0	2.084126E+0	2.081546E+0	2.177994E+0	2.094276E+0	2.113953E+0	2.141787E+0	2.069213E+0	2.097962E+0	2.121598E+0	2.127351E+0	2.047075E+0	2.096658E+0	2.099274E+0	2.054763E+0	2.123142E+0	2.106982E+0	2.199670E+0	2.072935E+0	2.145401E+0	2.082428E+0	2.102004E+0	2.087359E+0	2.094309E+0	2.148101E+0	2.144947E+0	2.114705E+0	2.077092E+0	1.993083E+0	2.112583E+0	2.084359E+0	2.024271E+0	2.080422E+0	2.087079E+0	2.121171E+0	2.100490E+0	1.989676E+0	2.062364E+0	2.092568E+0	2.105527E+0	2.077431E+0	2.013647E+0	2.028035E+0	2.076381E+0	2.089649E+0	2.198911E+0	2.006206E+0	2.038450E+0	2.008869E+0	2.066341E+0	2.076452E+0	2.093472E+0	2.045046E+0	2.041491E+0	2.095270E+0	1.956374E+0	2.059657E+0	2.038151E+0	2.150725E+0	2.066979E+0	2.071247E+0	2.093719E+0	2.030907E+0	2.053191E+0	2.135498E+0	1.949275E+0	2.034848E+0	2.002526E+0	2.062607E+0	2.079640E+0	2.046990E+0	2.062203E+0	2.009869E+0	2.051849E+0	2.049772E+0	2.003263E+0	2.037647E+0	2.027913E+0	2.063102E+0	2.071158E+0	2.011745E+0	2.080611E+0	2.061990E+0	2.057703E+0	1.974802E+0	2.020258E+0	2.109734E+0	2.065447E+0	2.134937E+0	2.093149E+0	2.057028E+0	2.085631E+0	2.026724E+0	2.050834E+0	2.093494E+0	2.112549E+0	2.048752E+0	1.957079E+0	2.101846E+0	2.149527E+0	2.028704E+0	2.028171E+0	2.016631E+0	2.003895E+0	2.066320E+0	2.019845E+0	2.111775E+0	2.060043E+0	2.028931E+0	2.049715E+0	2.073059E+0	2.012613E+0	2.067187E+0	2.004753E+0	2.073091E+0	2.055469E+0	1.976029E+0	2.022849E+0	2.043381E+0	2.050736E+0	2.019848E+0	2.038142E+0	2.014760E+0	2.019002E+0	2.045563E+0	2.041910E+0	1.994534E+0	2.072205E+0	2.013590E+0	2.085658E+0	2.036852E+0	2.044519E+0	2.003584E+0	1.970517E+0	2.080831E+0	2.022463E+0	2.042767E+0	2.008486E+0	2.032204E+0	2.015250E+0	2.031657E+0	2.137958E+0	2.057417E+0	1.987772E+0	2.017110E+0	2.066037E+0	2.040564E+0	1.999111E+0	1.971949E+0	1.962129E+0	2.065528E+0	1.976185E+0	1.991960E+0	2.100463E+0	2.017763E+0	2.029866E+0	2.058708E+0	2.013386E+0	2.016332E+0	2.019061E+0	1.989689E+0	1.974408E+0	2.031795E+0	2.081355E+0	1.907410E+0	1.994055E+0	2.053574E+0	2.087063E+0	1.982610E+0
5.402740E+2	2.062984E+0	2.002403E+0	1.994108E+0	1.996463E+0	2.090352E+0	2.037843E+0	1.978077E+0	2.035190E+0	2.040875E+0	2.005100E+0	1.955291E+0	2.006393E+0	1.981021E+0	1.982975E+0	2.024917E+0	2.045101E+0	2.051109E+0	1.978210E+0	1.993848E+0	1.998505E+0	1.988628E+0	1.969726E+0	2.031612E+0	2.009601E+0	1.988678E+0	1.930941E+0	2.012945E+0	2.001522E+0	2.101352E+0	2.009141E+0	2.028815E+0	1.975561E+0	1.974513E+0	1.937185E+0	2.024634E+0	2.013142E+0	2.013473E+0	1.976145E+0	1.998762E+0	1.929964E+0	2.063823E+0	1.996961E+0	1.943387E+0	1.983816E+0	1.964806E+0	2.003219E+0	1.968063E+0	1.996407E+0	1.999737E+0	1.996076E+0	1.930010E+0	1.999434E+0	1.940933E+0	1.963856E+0	1.918435E+0	1.948353E+0	1.997965E+0	2.003054E+0	2.057872E+0	2.076930E+0	1.931443E+0	2.004406E+0	1.954681E+0	1.971135E+0	1.978437E+0	2.003141E+0	1.909897E+0	2.026609E+0	1.947035E+0	1.981641E+0	2.008535E+0	2.003137E+0	1.976877E+0	2.043569E+0	1.945978E+0	1.957008E+0	2.010387E+0	2.001924E+0	2.005433E+0	1.923423E+0	1.945365E+0	1.959104E+0	1.985438E+0	2.002086E+0	1.951138E+0	1.934426E+0	1.928728E+0	1.988097E+0	2.049875E+0	1.931254E+0	1.983355E+0	1.988139E+0	1.975584E+0	1.971341E+0	2.007162E+0	2.015934E+0	1.984944E+0	1.996363E+0	1.959124E+0	2.059112E+0	1.998372E+0	1.961297E+0	1.926260E+0	1.954487E+0	1.929538E+0	1.962760E+0	1.945141E+0	1.951092E+0	1.994962E+0	1.960001E+0	1.935666E+0	1.952693E+0	1.948412E+0	1.987175E+0	1.942814E+0	1.963614E+0	1.948482E+0	1.959718E+0	2.002012E+0	1.972534E+0	2.001445E+0	1.931601E+0	1.999106E+0	2.002180E+0	2.005315E+0	1.941382E+0	1.971833E+0	1.926790E+0	1.897443E+0	1.978429E+0	1.908288E+0	1.970958E+0	1.943210E+0	1.936236E+0	1.915569E+0	2.045956E+0	2.046946E+0	1.884871E+0	1.902886E+0	1.958820E+0	1.863238E+0	1.962173E+0	1.975261E+0	1.892200E+0	1.916919E+0	1.883004E+0	1.938782E+0	1.959351E+0	1.945442E+0	1.888974E+0	1.861098E+0	1.959980E+0	1.936574E+0	1.907455E+0	1.960278E+0	1.991404E+0	1.963164E+0	2.032215E+0	1.886642E+0	1.978740E+0	1.957254E+0	1.943486E+0	1.888685E+0	1.963355E+0	1.901094E+0	1.907200E+0	1.943220E+0	1.928712E+0	2.009687E+0	1.878571E+0
5.405080E+2	1.944685E+0	1.960060E+0	1.972513E+0	1.945362E+0	1.987537E+0	1.944242E+0	1.941039E+0	1.972523E+0	1.946004E+0	1.928312E+0	1.944396E+0	1.875570E+0	1.908381E+0	1.950201E+0	1.922484E+0	1.992105E+0	1.948208E+0	1.874995E+0	1.948452E+0	1.960264E+0	1.937893E+0	1.862849E+0	1.869613E+0	1.928277E+0	1.875209E+0	1.925665E+0	1.990009E+0	1.956163E+0	1.896040E+0	1.930192E+0	1.929881E+0	1.939744E+0	1.877958E+0	1.954266E+0	1.930665E+0	1.943013E+0	1.978798E+0	1.892124E+0	1.964283E+0	1.904792E+0	1.957023E+0	1.979205E+0	1.882274E+0	1.981481E+0	1.941050E+0	1.926571E+0	1.930167E+0	1.921955E+0	1.933979E+0	1.950985E+0	1.926371E+0	1.897781E+0	1.899123E+0	1.952026E+0	1.855821E+0	1.951183E+0	1.943990E+0	1.881272E+0	1.966553E+0	1.897654E+0	1.929303E+0	1.982118E+0	1.924483E+0	1.885804E+0	2.012797E+0	1.977464E+0	1.898910E+0	1.901975E+0	1.860376E+0	1.909270E+0	1.950322E+0	1.957024E+0	1.978123E+0	1.886220E+0	1.926521E+0	1.898630E+0	1.913505E+0	1.938781E+0	1.877717E+0	1.958029E+0	1.906619E+0	1.883538E+0	1.922989E+0	1.954277E+0	1.892117E+0	1.922059E+0	1.897764E+0	1.903750E+0	1.926794E+0	1.886441E+0	1.900649E+0	1.940953E+0	1.969790E+0	1.962569E+0	1.897314E+0	1.901081E+0	1.900227E+0	1.946838E+0	1.882714E+0	1.942298E+0	1.972631E+0	1.893636E+0	1.887245E+0	1.897760E+0	1.881883E+0	1.905899E+0	1.880423E+0	1.912998E+0	1.916170E+0	1.877826E+0	1.891758E+0	1.916206E+0	1.982591E+0	1.890401E+0	1.919691E+0	1.907360E+0	1.901444E+0	1.857794E+0	1.955902E+0	1.876478E+0	1.891030E+0	1.902291E+0	1.921605E+0	1.847643E+0	1.974483E+0	1.955881E+0	1.932982E+0	1.886858E+0	1.864902E+0	1.894949E+0	1.910195E+0	1.933742E+0	1.833490E+0	1.854768E+0	1.877332E+0	1.941638E+0	1.924700E+0	1.924103E+0	1.868717E+0	1.966128E+0	1.866991E+0	1.878202E+0	1.927863E+0	1.899801E+0	1.895723E+0	1.814135E+0	1.880511E+0	1.912005E+0	1.899806E+0	1.827431E+0	1.878620E+0	1.888025E+0	1.972132E+0	1.881276E+0	1.869450E+0	1.860144E+0	1.950537E+0	1.928580E+0	1.890281E+0	1.965294E+0	1.824236E+0	1.893633E+0	1.871087E+0	1.896779E+0	1.902838E+0	1.845409E+0	1.923227E+0	1.871475E+0	1.896672E+0	1.848682E+0
5.407630E+2	1.970651E+0	1.897838E+0	1.918021E+0	1.857355E+0	1.939534E+0	1.877626E+0	1.934688E+0	1.910208E+0	1.930169E+0	1.921892E+0	1.891081E+0	1.819987E+0	1.872299E+0	1.963243E+0	1.956669E+0	1.880836E+0	1.965200E+0	1.934332E+0	1.936216E+0	1.890928E+0	1.928106E+0	1.870733E+0	1.874600E+0	1.899479E+0	1.829352E+0	1.901376E+0	1.869530E+0	1.822916E+0	1.866155E+0	1.910330E+0	1.884529E+0	1.879003E+0	1.947636E+0	1.885965E+0	1.859623E+0	1.900934E+0	1.921769E+0	1.798919E+0	1.870584E+0	1.830387E+0	1.932216E+0	1.889642E+0	1.933683E+0	1.916752E+0	1.877796E+0	1.880952E+0	1.935888E+0	1.905368E+0	1.908330E+0	1.899639E+0	1.888981E+0	1.923899E+0	1.916182E+0	1.818641E+0	1.827839E+0	1.911181E+0	1.862220E+0	1.840184E+0	1.865239E+0	1.932036E+0	1.888131E+0	1.835212E+0	1.831022E+0	1.901157E+0	1.906076E+0	1.885623E+0	1.828170E+0	1.940084E+0	1.799984E+0	1.787153E+0	1.881062E+0	1.843797E+0	1.925783E+0	1.860929E+0	1.889951E+0	1.838827E+0	1.814411E+0	1.810066E+0	1.851459E+0	1.901317E+0	1.912920E+0	1.836583E+0	1.913310E+0	1.862436E+0	1.815543E+0	1.821601E+0	1.830800E+0	1.885833E+0	1.885370E+0	1.861189E+0	1.901067E+0	1.889460E+0	1.882410E+0	1.900316E+0	1.904692E+0	1.906955E+0	1.886621E+0	1.836083E+0	1.848611E+0	1.850429E+0	1.949869E+0	1.823535E+0	1.860892E+0	1.801301E+0	1.873211E+0	1.864218E+0	1.818442E+0	1.952637E+0	1.839177E+0	1.830646E+0	1.906159E+0	1.874115E+0	1.820834E+0	1.882059E+0	1.885406E+0	1.834420E+0	1.866054E+0	1.830913E+0	1.835740E+0	1.827117E+0	1.809135E+0	1.864260E+0	1.847841E+0	1.825557E+0	1.863585E+0	1.879960E+0	1.835155E+0	1.824459E+0	1.886161E+0	1.888002E+0	1.878116E+0	1.842541E+0	1.861820E+0	1.841372E+0	1.831579E+0	1.943834E+0	1.790655E+0	1.852625E+0	1.832435E+0	1.848580E+0	1.851067E+0	1.815312E+0	1.934505E+0	1.862645E+0	1.893173E+0	1.775865E+0	1.826549E+0	1.830633E+0	1.846651E+0	1.875593E+0	1.846647E+0	1.777873E+0	1.870511E+0	1.825143E+0	1.823582E+0	1.863533E+0	1.873470E+0	1.849742E+0	1.796333E+0	1.891488E+0	1.862997E+0	1.859716E+0	1.800414E+0	1.871332E+0	1.825115E+0	1.788463E+0	1.791456E+0	1.859672E+0	1.830990E+0	1.710093E+0
5.410190E+2	1.802179E+0	1.870401E+0	1.835067E+0	1.779926E+0	1.821086E+0	1.875857E+0	1.816037E+0	1.816929E+0	1.779707E+0	1.755551E+0	1.771370E+0	1.801012E+0	1.794860E+0	1.865622E+0	1.805651E+0	1.829203E+0	1.806060E+0	1.778567E+0	1.809324E+0	1.812543E+0	1.866647E+0	1.799324E+0	1.831754E+0	1.769629E+0	1.723485E+0	1.854694E+0	1.820348E+0	1.841815E+0	1.799781E+0	1.839764E+0	1.824928E+0	1.738315E+0	1.855515E+0	1.792839E+0	1.725346E+0	1.857451E+0	1.836508E+0	1.802339E+0	1.796118E+0	1.730129E+0	1.831374E+0	1.812791E+0	1.809482E+0	1.849028E+0	1.813366E+0	1.860267E+0	1.814925E+0	1.754326E+0	1.799268E+0	1.793637E+0	1.831921E+0	1.770772E+0	1.803662E+0	1.747126E+0	1.756754E+0	1.793389E+0	1.752553E+0	1.768974E+0	1.769204E+0	1.784876E+0	1.839450E+0	1.795790E+0	1.765386E+0	1.824893E+0	1.738596E+0	1.772446E+0	1.749546E+0	1.685937E+0	1.753001E+0	1.849873E+0	1.703224E+0	1.801568E+0	1.823484E+0	1.755581E+0	1.767807E+0	1.856817E+0	1.773050E+0	1.747182E+0	1.751041E+0	1.795838E+0	1.749849E+0	1.739127E+0	1.779493E+0	1.798236E+0	1.783250E+0	1.774543E+0	1.800667E+0	1.755737E+0	1.778870E+0	1.740073E+0	1.803925E+0	1.821294E+0	1.825362E+0	1.803913E+0	1.760037E+0	1.759540E+0	1.859809E+0	1.760741E+0	1.736006E+0	1.778866E+0	1.830128E+0	1.765972E+0	1.826228E+0	1.786722E+0	1.775965E+0	1.776321E+0	1.742837E+0	1.769812E+0	1.748361E+0	1.768854E+0	1.776664E+0	1.790819E+0	1.759454E+0	1.753433E+0	1.799472E+0	1.754705E+0	1.790003E+0	1.751317E+0	1.825616E+0	1.694940E+0	1.837265E+0	1.733605E+0	1.819887E+0	1.738325E+0	1.706719E+0	1.756166E+0	1.784078E+0	1.714321E+0	1.745930E+0	1.737423E+0	1.768257E+0	1.723454E+0	1.783950E+0	1.741974E+0	1.717160E+0	1.779657E+0	1.748600E+0	1.711600E+0	1.780718E+0	1.771172E+0	1.790467E+0	1.799910E+0	1.759822E+0	1.790257E+0	1.768382E+0	1.717694E+0	1.797141E+0	1.760857E+0	1.792353E+0	1.808575E+0	1.754202E+0	1.715042E+0	1.863254E+0	1.726827E+0	1.795478E+0	1.752190E+0	1.785241E+0	1.806850E+0	1.665738E+0	1.812036E+0	1.762705E+0	1.765590E+0	1.736897E+0	1.709345E+0	1.764871E+0	1.756189E+0	1.660917E+0	1.763929E+0	1.747232E+0	1.653441E+0
5.412690E+2	1.688070E+0	1.656285E+0	1.657983E+0	1.609502E+0	1.650198E+0	1.625214E+0	1.664705E+0	1.660133E+0	1.617768E+0	1.624538E+0	1.626732E+0	1.641804E+0	1.606506E+0	1.681660E+0	1.658406E+0	1.673144E+0	1.643473E+0	1.706602E+0	1.635767E+0	1.627957E+0	1.691588E+0	1.645414E+0	1.657567E+0	1.645174E+0	1.618545E+0	1.639424E+0	1.717940E+0	1.658180E+0	1.627501E+0	1.573802E+0	1.593079E+0	1.625629E+0	1.619671E+0	1.657949E+0	1.640773E+0	1.629553E+0	1.618096E+0	1.648985E+0	1.663678E+0	1.604101E+0	1.686047E+0	1.672003E+0	1.651012E+0	1.646504E+0	1.648589E+0	1.653393E+0	1.598626E+0	1.627401E+0	1.642974E+0	1.651074E+0	1.622621E+0	1.664342E+0	1.724418E+0	1.622878E+0	1.629412E+0	1.637703E+0	1.620775E+0	1.655662E+0	1.652667E+0	1.681316E+0	1.628333E+0	1.647499E+0	1.686460E+0	1.652288E+0	1.690439E+0	1.655197E+0	1.605342E+0	1.571368E+0	1.597505E+0	1.622894E+0	1.621070E+0	1.644910E+0	1.619227E+0	1.655689E+0	1.667227E+0	1.710144E+0	1.608904E+0	1.608795E+0	1.609421E+0	1.607068E+0	1.619471E+0	1.641143E+0	1.621068E+0	1.654714E+0	1.579402E+0	1.597865E+0	1.587147E+0	1.607378E+0	1.648748E+0	1.671809E+0	1.614212E+0	1.651049E+0	1.659156E+0	1.615529E+0	1.629993E+0	1.646652E+0	1.638679E+0	1.696047E+0	1.579027E+0	1.638610E+0	1.634103E+0	1.574564E+0	1.597972E+0	1.629397E+0	1.587568E+0	1.667840E+0	1.590465E+0	1.622082E+0	1.608456E+0	1.622618E+0	1.610053E+0	1.612392E+0	1.598376E+0	1.611392E+0	1.635740E+0	1.609788E+0	1.660234E+0	1.616784E+0	1.622379E+0	1.579754E+0	1.660622E+0	1.597818E+0	1.703460E+0	1.634773E+0	1.663311E+0	1.602531E+0	1.662516E+0	1.636903E+0	1.582802E+0	1.607355E+0	1.595786E+0	1.638871E+0	1.617715E+0	1.572376E+0	1.577838E+0	1.637768E+0	1.659944E+0	1.629045E+0	1.639836E+0	1.630415E+0	1.605834E+0	1.658242E+0	1.643482E+0	1.669460E+0	1.605473E+0	1.612634E+0	1.585685E+0	1.545297E+0	1.640904E+0	1.585702E+0	1.600776E+0	1.566614E+0	1.664905E+0	1.649545E+0	1.620032E+0	1.619434E+0	1.588662E+0	1.663349E+0	1.549791E+0	1.596657E+0	1.571062E+0	1.640232E+0	1.593150E+0	1.599485E+0	1.603704E+0	1.546718E+0	1.597474E+0	1.685505E+0	1.636650E+0	1.601357E+0
5.415140E+2	1.493143E+0	1.517294E+0	1.506974E+0	1.534308E+0	1.502931E+0	1.509089E+0	1.484621E+0	1.516696E+0	1.510836E+0	1.447996E+0	1.467223E+0	1.513931E+0	1.488693E+0	1.535524E+0	1.518721E+0	1.520756E+0	1.528292E+0	1.479264E+0	1.523119E+0	1.446498E+0	1.497320E+0	1.472190E+0	1.506899E+0	1.517964E+0	1.506779E+0	1.508784E+0	1.463634E+0	1.474109E+0	1.460482E+0	1.517370E+0	1.490051E+0	1.457050E+0	1.528015E+0	1.529477E+0	1.496068E+0	1.527866E+0	1.489352E+0	1.489128E+0	1.488799E+0	1.456476E+0	1.564692E+0	1.462741E+0	1.463949E+0	1.513547E+0	1.508082E+0	1.509481E+0	1.533469E+0	1.474242E+0	1.528839E+0	1.505948E+0	1.468667E+0	1.452304E+0	1.518616E+0	1.455095E+0	1.492024E+0	1.488231E+0	1.597235E+0	1.475696E+0	1.417759E+0	1.548344E+0	1.541144E+0	1.443294E+0	1.443223E+0	1.511854E+0	1.527397E+0	1.456458E+0	1.431090E+0	1.494846E+0	1.495397E+0	1.511385E+0	1.485608E+0	1.506196E+0	1.501057E+0	1.463042E+0	1.527779E+0	1.528406E+0	1.488535E+0	1.476449E+0	1.482392E+0	1.506551E+0	1.458418E+0	1.456941E+0	1.518212E+0	1.503448E+0	1.444474E+0	1.489735E+0	1.448586E+0	1.447091E+0	1.542669E+0	1.502447E+0	1.406642E+0	1.489270E+0	1.458015E+0	1.512613E+0	1.496076E+0	1.521441E+0	1.470551E+0	1.476265E+0	1.437864E+0	1.474516E+0	1.519915E+0	1.442250E+0	1.510123E+0	1.495319E+0	1.477162E+0	1.468390E+0	1.469166E+0	1.469149E+0	1.490455E+0	1.472185E+0	1.446343E+0	1.517911E+0	1.487493E+0	1.487767E+0	1.520217E+0	1.464740E+0	1.502597E+0	1.455708E+0	1.513726E+0	1.433955E+0	1.536901E+0	1.425688E+0	1.506462E+0	1.469507E+0	1.501302E+0	1.488966E+0	1.545213E+0	1.453469E+0	1.467796E+0	1.496554E+0	1.461109E+0	1.458657E+0	1.446282E+0	1.424737E+0	1.399882E+0	1.487206E+0	1.436082E+0	1.509362E+0	1.527276E+0	1.441797E+0	1.478929E+0	1.440052E+0	1.508598E+0	1.499478E+0	1.507531E+0	1.494931E+0	1.472933E+0	1.446290E+0	1.497409E+0	1.419412E+0	1.478993E+0	1.421030E+0	1.486252E+0	1.473358E+0	1.497176E+0	1.476604E+0	1.449466E+0	1.528866E+0	1.455799E+0	1.487277E+0	1.437718E+0	1.480066E+0	1.483816E+0	1.399151E+0	1.422237E+0	1.472982E+0	1.444585E+0	1.466953E+0	1.537377E+0	1.331652E+0
5.417920E+2	1.386933E+0	1.309775E+0	1.287408E+0	1.275101E+0	1.361588E+0	1.294093E+0	1.277133E+0	1.274140E+0	1.336178E+0	1.252723E+0	1.332174E+0	1.288270E+0	1.259313E+0	1.335138E+0	1.292189E+0	1.256375E+0	1.287485E+0	1.269088E+0	1.313717E+0	1.322217E+0	1.283804E+0	1.315248E+0	1.333160E+0	1.307418E+0	1.261631E+0	1.352476E+0	1.300725E+0	1.321563E+0	1.300663E+0	1.289148E+0	1.293060E+0	1.301269E+0	1.300126E+0	1.357698E+0	1.272266E+0	1.312947E+0	1.323291E+0	1.263719E+0	1.292160E+0	1.289738E+0	1.343596E+0	1.360420E+0	1.351499E+0	1.348498E+0	1.292803E+0	1.359661E+0	1.349282E+0	1.277914E+0	1.306840E+0	1.272717E+0	1.267493E+0	1.311684E+0	1.293842E+0	1.269643E+0	1.255099E+0	1.286630E+0	1.336308E+0	1.304174E+0	1.327273E+0	1.316906E+0	1.256237E+0	1.279711E+0	1.325777E+0	1.295676E+0	1.345665E+0	1.352082E+0	1.265285E+0	1.310813E+0	1.289356E+0	1.338234E+0	1.251270E+0	1.305238E+0	1.326207E+0	1.307600E+0	1.304771E+0	1.350385E+0	1.303112E+0	1.292078E+0	1.260640E+0	1.313136E+0	1.246972E+0	1.245664E+0	1.298852E+0	1.315408E+0	1.291512E+0	1.261893E+0	1.257315E+0	1.279559E+0	1.319497E+0	1.242561E+0	1.320150E+0	1.299736E+0	1.308536E+0	1.348692E+0	1.303417E+0	1.314973E+0	1.291839E+0	1.365931E+0	1.225239E+0	1.292900E+0	1.310116E+0	1.332424E+0	1.299521E+0	1.291456E+0	1.307227E+0	1.321904E+0	1.303584E+0	1.332733E+0	1.342567E+0	1.300057E+0	1.376609E+0	1.313465E+0	1.308709E+0	1.292532E+0	1.318729E+0	1.288169E+0	1.317077E+0	1.299829E+0	1.263664E+0	1.291040E+0	1.292561E+0	1.288597E+0	1.307110E+0	1.300939E+0	1.300535E+0	1.257744E+0	1.325182E+0	1.288555E+0	1.289203E+0	1.327284E+0	1.232253E+0	1.287006E+0	1.310635E+0	1.258869E+0	1.319170E+0	1.317833E+0	1.297726E+0	1.240302E+0	1.309064E+0	1.258088E+0	1.324993E+0	1.327775E+0	1.335789E+0	1.315238E+0	1.288262E+0	1.255503E+0	1.356769E+0	1.303422E+0	1.233291E+0	1.269281E+0	1.276518E+0	1.276638E+0	1.376784E+0	1.292274E+0	1.320381E+0	1.303595E+0	1.320227E+0	1.304549E+0	1.276661E+0	1.288628E+0	1.299770E+0	1.326944E+0	1.289058E+0	1.242819E+0	1.304318E+0	1.289060E+0	1.286972E+0	1.309105E+0	1.351175E+0	1.151987E+0
5.420110E+2	1.182281E+0	1.208200E+0	1.220607E+0	1.116772E+0	1.198077E+0	1.163064E+0	1.192894E+0	1.192555E+0	1.209175E+0	1.116353E+0	1.215784E+0	1.176200E+0	1.152437E+0	1.229622E+0	1.159619E+0	1.174647E+0	1.141515E+0	1.191147E+0	1.170907E+0	1.115003E+0	1.173213E+0	1.156103E+0	1.169306E+0	1.156131E+0	1.116161E+0	1.200614E+0	1.211069E+0	1.121020E+0	1.180768E+0	1.156775E+0	1.173642E+0	1.215853E+0	1.152620E+0	1.205399E+0	1.198456E+0	1.193871E+0	1.171907E+0	1.150850E+0	1.140894E+0	1.131245E+0	1.190921E+0	1.210889E+0	1.186683E+0	1.167384E+0	1.174487E+0	1.194167E+0	1.171935E+0	1.156542E+0	1.173523E+0	1.193905E+0	1.154854E+0	1.167837E+0	1.143527E+0	1.161692E+0	1.149933E+0	1.198401E+0	1.198423E+0	1.112850E+0	1.202217E+0	1.184622E+0	1.185368E+0	1.202297E+0	1.172809E+0	1.176098E+0	1.156369E+0	1.218785E+0	1.154678E+0	1.158377E+0	1.186380E+0	1.169621E+0	1.177924E+0	1.192343E+0	1.207385E+0	1.190471E+0	1.190220E+0	1.175890E+0	1.204429E+0	1.163906E+0	1.202824E+0	1.204397E+0	1.151511E+0	1.173678E+0	1.164041E+0	1.137868E+0	1.138428E+0	1.150808E+0	1.113299E+0	1.131675E+0	1.169947E+0	1.184372E+0	1.171593E+0	1.231385E+0	1.189917E+0	1.193778E+0	1.222239E+0	1.199455E+0	1.186822E+0	1.154292E+0	1.108703E+0	1.186520E+0	1.149872E+0	1.160821E+0	1.204308E+0	1.124417E+0	1.144000E+0	1.198680E+0	1.151256E+0	1.168864E+0	1.168207E+0	1.128839E+0	1.210232E+0	1.155616E+0	1.190761E+0	1.174015E+0	1.135306E+0	1.156040E+0	1.145060E+0	1.190998E+0	1.229260E+0	1.186229E+0	1.186441E+0	1.126087E+0	1.208592E+0	1.134297E+0	1.221120E+0	1.076764E+0	1.159738E+0	1.174396E+0	1.156971E+0	1.151394E+0	1.176488E+0	1.199978E+0	1.163928E+0	1.179740E+0	1.138683E+0	1.180630E+0	1.182805E+0	1.232027E+0	1.197973E+0	1.192963E+0	1.201457E+0	1.156937E+0	1.161331E+0	1.152742E+0	1.161973E+0	1.151301E+0	1.194976E+0	1.174342E+0	1.141268E+0	1.168824E+0	1.121181E+0	1.182733E+0	1.168650E+0	1.163189E+0	1.145822E+0	1.159492E+0	1.137574E+0	1.242207E+0	1.150402E+0	1.157587E+0	1.151149E+0	1.209946E+0	1.150720E+0	1.144689E+0	1.154848E+0	1.135671E+0	1.144727E+0	1.189309E+0	1.126656E+0	1.110922E+0
5.422670E+2	1.052831E+0	9.940207E-1	1.068737E+0	1.057299E+0	1.069747E+0	1.069323E+0	1.048561E+0	1.032320E+0	1.019396E+0	1.022584E+0	1.064396E+0	1.034511E+0	1.026407E+0	1.077066E+0	1.021596E+0	1.056119E+0	1.121940E+0	1.086683E+0	1.046450E+0	1.028629E+0	1.049074E+0	1.054104E+0	1.109008E+0	1.043863E+0	1.052614E+0	1.109151E+0	1.029011E+0	1.070427E+0	1.044946E+0	1.072684E+0	1.070089E+0	1.032134E+0	1.073313E+0	1.082244E+0	1.041983E+0	1.057783E+0	1.037643E+0	1.034737E+0	1.038468E+0	9.884854E-1	1.104145E+0	1.051224E+0	1.026106E+0	1.078527E+0	1.066298E+0	1.083664E+0	1.100639E+0	1.033823E+0	1.029699E+0	1.032990E+0	1.077249E+0	1.056370E+0	1.060740E+0	1.048030E+0	1.044975E+0	1.027556E+0	1.061028E+0	1.067710E+0	1.048467E+0	1.050452E+0	1.057829E+0	1.020862E+0	1.063203E+0	1.009863E+0	1.068717E+0	1.105060E+0	1.019270E+0	1.061540E+0	1.057692E+0	1.065880E+0	1.031467E+0	1.013070E+0	1.017452E+0	1.053697E+0	1.035277E+0	1.053963E+0	1.056705E+0	1.031378E+0	1.059078E+0	1.074771E+0	1.043550E+0	1.019936E+0	1.091565E+0	1.108084E+0	1.032223E+0	1.081558E+0	1.028025E+0	1.050913E+0	1.036349E+0	1.096142E+0	9.943921E-1	1.066442E+0	1.081180E+0	1.082003E+0	1.103801E+0	1.029178E+0	1.085736E+0	1.102561E+0	1.028280E+0	1.039730E+0	1.100897E+0	1.051983E+0	1.090083E+0	1.023765E+0	9.977498E-1	1.070442E+0	1.043323E+0	1.064665E+0	1.057939E+0	1.081881E+0	1.065034E+0	1.076011E+0	1.068588E+0	1.086901E+0	1.062903E+0	1.049617E+0	1.079894E+0	1.047375E+0	1.088935E+0	1.036921E+0	1.045585E+0	1.037221E+0	1.053938E+0	1.095271E+0	1.056515E+0	1.055887E+0	1.045528E+0	1.071643E+0	1.035060E+0	1.000110E+0	1.044475E+0	1.073492E+0	9.986420E-1	1.001209E+0	1.062998E+0	1.036739E+0	1.079748E+0	1.094224E+0	1.056183E+0	1.080914E+0	1.036673E+0	1.069797E+0	1.079920E+0	1.076581E+0	1.046713E+0	1.021812E+0	1.033674E+0	1.077214E+0	1.039935E+0	1.062149E+0	1.055862E+0	1.035287E+0	1.077391E+0	1.081866E+0	1.054202E+0	1.106722E+0	1.040763E+0	1.137806E+0	1.053394E+0	1.028741E+0	1.048255E+0	1.094753E+0	1.087943E+0	1.099226E+0	1.067713E+0	1.045881E+0	1.101090E+0	1.105416E+0	1.049105E+0	1.130726E+0
5.425350E+2	9.993553E-1	9.934642E-1	1.014869E+0	9.739252E-1	9.876719E-1	1.029736E+0	9.579845E-1	9.919150E-1	9.901010E-1	9.874548E-1	9.614346E-1	9.757973E-1	9.648899E-1	1.060957E+0	9.815412E-1	1.000836E+0	9.920250E-1	9.774900E-1	1.001563E+0	9.887110E-1	1.016038E+0	9.714119E-1	9.618446E-1	9.708790E-1	9.829671E-1	9.705927E-1	1.011203E+0	9.673118E-1	9.639943E-1	1.012190E+0	9.912256E-1	9.942349E-1	9.777375E-1	9.808045E-1	9.733013E-1	1.046169E+0	9.382404E-1	9.837095E-1	1.020253E+0	1.007882E+0	1.008787E+0	1.016782E+0	1.009074E+0	9.973678E-1	9.961992E-1	1.012185E+0	1.032810E+0	1.006557E+0	9.936048E-1	9.577549E-1	9.722030E-1	9.852839E-1	9.802258E-1	9.609834E-1	9.892786E-1	1.002083E+0	9.804723E-1	1.030485E+0	9.701559E-1	1.001702E+0	9.708529E-1	1.001761E+0	9.762409E-1	9.716717E-1	9.806375E-1	1.001279E+0	9.876394E-1	9.501313E-1	9.929366E-1	1.027189E+0	9.800385E-1	9.826903E-1	1.016787E+0	9.678454E-1	9.619086E-1	9.930405E-1	1.007255E+0	9.851772E-1	9.855187E-1	1.020989E+0	9.565948E-1	1.032665E+0	1.036681E+0	1.022781E+0	1.006757E+0	9.592034E-1	9.658917E-1	1.023382E+0	1.033769E+0	9.971262E-1	1.019233E+0	1.005930E+0	1.009461E+0	9.705385E-1	9.845244E-1	9.676447E-1	1.019538E+0	1.015247E+0	9.697620E-1	9.734335E-1	1.004448E+0	9.687693E-1	1.002504E+0	9.637705E-1	9.829748E-1	1.018770E+0	9.874276E-1	1.005728E+0	9.858826E-1	9.919573E-1	9.988711E-1	1.041264E+0	9.815902E-1	9.471227E-1	9.694507E-1	9.233739E-1	9.857518E-1	9.738970E-1	9.832695E-1	1.003184E+0	1.004662E+0	9.812045E-1	9.836222E-1	9.610479E-1	1.018970E+0	9.701885E-1	9.999715E-1	9.694230E-1	9.651893E-1	1.024173E+0	9.310020E-1	9.756119E-1	9.723401E-1	9.650153E-1	9.550560E-1	9.869411E-1	1.080218E+0	9.576144E-1	9.901912E-1	1.001755E+0	9.788182E-1	1.015426E+0	1.043225E+0	1.006107E+0	9.888285E-1	9.741242E-1	9.618353E-1	1.017756E+0	9.779267E-1	9.922854E-1	1.011076E+0	9.744400E-1	1.021179E+0	9.515962E-1	1.005871E+0	1.002352E+0	9.646636E-1	1.010142E+0	9.613387E-1	1.000465E+0	9.928329E-1	9.825108E-1	9.769252E-1	1.049769E+0	9.839251E-1	9.649853E-1	9.634495E-1	9.697808E-1	9.710595E-1	9.080988E-1
5.427650E+2	9.825946E-1	1.016948E+0	1.032782E+0	9.917664E-1	1.020313E+0	1.006039E+0	1.020816E+0	1.037950E+0	1.019579E+0	1.007596E+0	1.056319E+0	9.861114E-1	1.051554E+0	1.048089E+0	1.045964E+0	1.021598E+0	9.868885E-1	9.936541E-1	1.026284E+0	1.000977E+0	1.021698E+0	1.038601E+0	1.012372E+0	1.010338E+0	1.011964E+0	1.077078E+0	1.003658E+0	1.001524E+0	9.842965E-1	1.044411E+0	1.002112E+0	1.041824E+0	1.027824E+0	1.013745E+0	9.663502E-1	9.825926E-1	1.030633E+0	9.788371E-1	1.012566E+0	1.011503E+0	1.011180E+0	1.040657E+0	9.961784E-1	1.034505E+0	1.059914E+0	1.032898E+0	1.042015E+0	1.019150E+0	1.042950E+0	1.031359E+0	1.025709E+0	1.029377E+0	1.014502E+0	1.023653E+0	1.016890E+0	1.003417E+0	1.024830E+0	1.016719E+0	9.598870E-1	9.993903E-1	1.033891E+0	1.006958E+0	1.022665E+0	1.020841E+0	1.009462E+0	1.003569E+0	1.004641E+0	9.744908E-1	1.001112E+0	1.032925E+0	1.017565E+0	9.898404E-1	1.035611E+0	1.005247E+0	1.000382E+0	1.048508E+0	9.979169E-1	1.005234E+0	1.014259E+0	1.004325E+0	1.001021E+0	9.953317E-1	1.055394E+0	1.013609E+0	1.036269E+0	1.006617E+0	1.032021E+0	1.016794E+0	9.947435E-1	1.041457E+0	1.035789E+0	1.000403E+0	1.001785E+0	1.022265E+0	1.024011E+0	1.020653E+0	9.726708E-1	1.003124E+0	1.000043E+0	1.045822E+0	1.024346E+0	9.982085E-1	1.016217E+0	9.914751E-1	1.020892E+0	1.004625E+0	9.670631E-1	9.998748E-1	9.885370E-1	1.068139E+0	9.863571E-1	9.923347E-1	1.008202E+0	1.021029E+0	1.013905E+0	1.050473E+0	1.067980E+0	9.815142E-1	9.931315E-1	9.957109E-1	1.061190E+0	1.007042E+0	1.034524E+0	1.010988E+0	1.039063E+0	1.032420E+0	1.033625E+0	1.034697E+0	1.027441E+0	1.032960E+0	9.990199E-1	1.016680E+0	1.051521E+0	9.923437E-1	9.709004E-1	1.038585E+0	9.786280E-1	1.000687E+0	1.038262E+0	1.023773E+0	1.010418E+0	9.985098E-1	1.069501E+0	9.803361E-1	1.021450E+0	1.021194E+0	1.002028E+0	9.948667E-1	9.835414E-1	1.026659E+0	1.039413E+0	1.020147E+0	1.044328E+0	1.024049E+0	1.060386E+0	9.997528E-1	1.036578E+0	1.084064E+0	9.992723E-1	1.045130E+0	1.043190E+0	1.029679E+0	9.941832E-1	1.023985E+0	1.017178E+0	9.579291E-1	9.718740E-1	9.454829E-1	1.003170E+0	1.038436E+0
5.430120E+2	1.115360E+0	1.116420E+0	1.183731E+0	1.102024E+0	1.105433E+0	1.162317E+0	1.134001E+0	1.149758E+0	1.136008E+0	1.125541E+0	1.105235E+0	1.083879E+0	1.110314E+0	1.157460E+0	1.119711E+0	1.130860E+0	1.143242E+0	1.058088E+0	1.193968E+0	1.130248E+0	1.122997E+0	1.119194E+0	1.132370E+0	1.147654E+0	1.131765E+0	1.133184E+0	1.127794E+0	1.137965E+0	1.046409E+0	1.152342E+0	1.139532E+0	1.155608E+0	1.111167E+0	1.130662E+0	1.123967E+0	1.119327E+0	1.083028E+0	1.121860E+0	1.093109E+0	1.109763E+0	1.171448E+0	1.135121E+0	1.123382E+0	1.119952E+0	1.143790E+0	1.135085E+0	1.158912E+0	1.146301E+0	1.111573E+0	1.136380E+0	1.100846E+0	1.108612E+0	1.104782E+0	1.117017E+0	1.097482E+0	1.120179E+0	1.085100E+0	1.111999E+0	1.134292E+0	1.132961E+0	1.120132E+0	1.167363E+0	1.102517E+0	1.090382E+0	1.091490E+0	1.174616E+0	1.146367E+0	1.109485E+0	1.157439E+0	1.129658E+0	1.100288E+0	1.093761E+0	1.108768E+0	1.203352E+0	1.154510E+0	1.103550E+0	1.076128E+0	1.153258E+0	1.093281E+0	1.105324E+0	1.085641E+0	1.148250E+0	1.146357E+0	1.111131E+0	1.116205E+0	1.105759E+0	1.064726E+0	1.117915E+0	1.144609E+0	1.127733E+0	1.122692E+0	1.123146E+0	1.118348E+0	1.162355E+0	1.118986E+0	1.134928E+0	1.138337E+0	1.173626E+0	1.132831E+0	1.216870E+0	1.136736E+0	1.065933E+0	1.108927E+0	1.085192E+0	1.109530E+0	1.139038E+0	1.095566E+0	1.149021E+0	1.082593E+0	1.130568E+0	1.176558E+0	1.139034E+0	1.112604E+0	1.141512E+0	1.105050E+0	1.119344E+0	1.099417E+0	1.080406E+0	1.086372E+0	1.071076E+0	1.163429E+0	1.168528E+0	1.138863E+0	1.086623E+0	1.162041E+0	1.103219E+0	1.119481E+0	1.125919E+0	1.134882E+0	1.129857E+0	1.160299E+0	1.109232E+0	1.096071E+0	1.109246E+0	1.089006E+0	1.184716E+0	1.098991E+0	1.116005E+0	1.124117E+0	1.133456E+0	1.085970E+0	1.138017E+0	1.187539E+0	1.154544E+0	1.067873E+0	1.186507E+0	1.180252E+0	1.140346E+0	1.078771E+0	1.094644E+0	1.148854E+0	1.091065E+0	1.064479E+0	1.097565E+0	1.142751E+0	1.108786E+0	1.069164E+0	1.144681E+0	1.076376E+0	1.142604E+0	1.081325E+0	1.128730E+0	1.128351E+0	1.152431E+0	1.098147E+0	1.087273E+0	1.096071E+0	1.110480E+0	1.209179E+0	1.142049E+0
5.432800E+2	1.305316E+0	1.268190E+0	1.246050E+0	1.267982E+0	1.302986E+0	1.317416E+0	1.280679E+0	1.312972E+0	1.303117E+0	1.327013E+0	1.308497E+0	1.280003E+0	1.290994E+0	1.317080E+0	1.261066E+0	1.281288E+0	1.359741E+0	1.318599E+0	1.320754E+0	1.343141E+0	1.340648E+0	1.293417E+0	1.340517E+0	1.296448E+0	1.309403E+0	1.326882E+0	1.358235E+0	1.365240E+0	1.283031E+0	1.365757E+0	1.310464E+0	1.310047E+0	1.332516E+0	1.299167E+0	1.356509E+0	1.351481E+0	1.326238E+0	1.305986E+0	1.314653E+0	1.291673E+0	1.321247E+0	1.301818E+0	1.298950E+0	1.331948E+0	1.297068E+0	1.354023E+0	1.345416E+0	1.313756E+0	1.272620E+0	1.251137E+0	1.328364E+0	1.324582E+0	1.289689E+0	1.296162E+0	1.269971E+0	1.324577E+0	1.286127E+0	1.285216E+0	1.349997E+0	1.296172E+0	1.329144E+0	1.308021E+0	1.323526E+0	1.316759E+0	1.251322E+0	1.377640E+0	1.293282E+0	1.357034E+0	1.269678E+0	1.291074E+0	1.294708E+0	1.297414E+0	1.284256E+0	1.279714E+0	1.338207E+0	1.237079E+0	1.266393E+0	1.333105E+0	1.270311E+0	1.279554E+0	1.299568E+0	1.312206E+0	1.319930E+0	1.305848E+0	1.244300E+0	1.299742E+0	1.290738E+0	1.313017E+0	1.330644E+0	1.361955E+0	1.282707E+0	1.302970E+0	1.279422E+0	1.315245E+0	1.293360E+0	1.338079E+0	1.315158E+0	1.306607E+0	1.286530E+0	1.301675E+0	1.371293E+0	1.287726E+0	1.244635E+0	1.301849E+0	1.262862E+0	1.301206E+0	1.288130E+0	1.334516E+0	1.270625E+0	1.350083E+0	1.261730E+0	1.292246E+0	1.239531E+0	1.271645E+0	1.351149E+0	1.316580E+0	1.331067E+0	1.319578E+0	1.362629E+0	1.250437E+0	1.258992E+0	1.260679E+0	1.334988E+0	1.278082E+0	1.310270E+0	1.302998E+0	1.303080E+0	1.304290E+0	1.276005E+0	1.258147E+0	1.320213E+0	1.279441E+0	1.279738E+0	1.315076E+0	1.294274E+0	1.328907E+0	1.256119E+0	1.312559E+0	1.298178E+0	1.284501E+0	1.252030E+0	1.273003E+0	1.310057E+0	1.293332E+0	1.256403E+0	1.254854E+0	1.318537E+0	1.302897E+0	1.315160E+0	1.249918E+0	1.270151E+0	1.280041E+0	1.280943E+0	1.302349E+0	1.253623E+0	1.278473E+0	1.276150E+0	1.256320E+0	1.273042E+0	1.342820E+0	1.302794E+0	1.258004E+0	1.277958E+0	1.283361E+0	1.306561E+0	1.257115E+0	1.245713E+0	1.307574E+0	1.365593E+0	1.304798E+0
5.435270E+2	1.522803E+0	1.502927E+0	1.482437E+0	1.499918E+0	1.553574E+0	1.529362E+0	1.500455E+0	1.522076E+0	1.508482E+0	1.492224E+0	1.562463E+0	1.487476E+0	1.507084E+0	1.532558E+0	1.493351E+0	1.518789E+0	1.490352E+0	1.501112E+0	1.485390E+0	1.450352E+0	1.503701E+0	1.474079E+0	1.526809E+0	1.492244E+0	1.480503E+0	1.473938E+0	1.526098E+0	1.466309E+0	1.463139E+0	1.525425E+0	1.535765E+0	1.471251E+0	1.514062E+0	1.491442E+0	1.517203E+0	1.499883E+0	1.493809E+0	1.497105E+0	1.502004E+0	1.457090E+0	1.509881E+0	1.504116E+0	1.462771E+0	1.480021E+0	1.456105E+0	1.511654E+0	1.511295E+0	1.492301E+0	1.482793E+0	1.500646E+0	1.511857E+0	1.446062E+0	1.552611E+0	1.488107E+0	1.465328E+0	1.447841E+0	1.503399E+0	1.539467E+0	1.539147E+0	1.445100E+0	1.479021E+0	1.528156E+0	1.561860E+0	1.490245E+0	1.468052E+0	1.539918E+0	1.463299E+0	1.499002E+0	1.489295E+0	1.537866E+0	1.423154E+0	1.493825E+0	1.452229E+0	1.492779E+0	1.462392E+0	1.466094E+0	1.429154E+0	1.521735E+0	1.506412E+0	1.500757E+0	1.497230E+0	1.437700E+0	1.512389E+0	1.538158E+0	1.439072E+0	1.476420E+0	1.501347E+0	1.530769E+0	1.501751E+0	1.483687E+0	1.472161E+0	1.497309E+0	1.471248E+0	1.468133E+0	1.475407E+0	1.482311E+0	1.541918E+0	1.472525E+0	1.456292E+0	1.516672E+0	1.499291E+0	1.446031E+0	1.503314E+0	1.526492E+0	1.447216E+0	1.468338E+0	1.502036E+0	1.514043E+0	1.469449E+0	1.513828E+0	1.488644E+0	1.480965E+0	1.478296E+0	1.510544E+0	1.483558E+0	1.460640E+0	1.491394E+0	1.469274E+0	1.469969E+0	1.459192E+0	1.453880E+0	1.452386E+0	1.555730E+0	1.428688E+0	1.494704E+0	1.449921E+0	1.500614E+0	1.463646E+0	1.503672E+0	1.416141E+0	1.463776E+0	1.436148E+0	1.465320E+0	1.473021E+0	1.466753E+0	1.537874E+0	1.426781E+0	1.512141E+0	1.499836E+0	1.482309E+0	1.455120E+0	1.500243E+0	1.485889E+0	1.474880E+0	1.423083E+0	1.431373E+0	1.507412E+0	1.481731E+0	1.497280E+0	1.492548E+0	1.434609E+0	1.460613E+0	1.477715E+0	1.453688E+0	1.457318E+0	1.509083E+0	1.456323E+0	1.468798E+0	1.486215E+0	1.504815E+0	1.435613E+0	1.502973E+0	1.446490E+0	1.438655E+0	1.508910E+0	1.425630E+0	1.553884E+0	1.532143E+0	1.478789E+0	1.386521E+0
5.437590E+2	1.625512E+0	1.590562E+0	1.630962E+0	1.620046E+0	1.638348E+0	1.562013E+0	1.589709E+0	1.648773E+0	1.600475E+0	1.554201E+0	1.636506E+0	1.555156E+0	1.586986E+0	1.591855E+0	1.595666E+0	1.618837E+0	1.609702E+0	1.603832E+0	1.582947E+0	1.614316E+0	1.649768E+0	1.564992E+0	1.598808E+0	1.612043E+0	1.552500E+0	1.553079E+0	1.600020E+0	1.604654E+0	1.517282E+0	1.629887E+0	1.614468E+0	1.563482E+0	1.547698E+0	1.561007E+0	1.583412E+0	1.601857E+0	1.546907E+0	1.582271E+0	1.626231E+0	1.585115E+0	1.620373E+0	1.638491E+0	1.581125E+0	1.559746E+0	1.599900E+0	1.661920E+0	1.607880E+0	1.631984E+0	1.539958E+0	1.555668E+0	1.579030E+0	1.611980E+0	1.626141E+0	1.554208E+0	1.525017E+0	1.571715E+0	1.494228E+0	1.606531E+0	1.600363E+0	1.578556E+0	1.562800E+0	1.589701E+0	1.576552E+0	1.562808E+0	1.565419E+0	1.613656E+0	1.551270E+0	1.584416E+0	1.548253E+0	1.582386E+0	1.643762E+0	1.590944E+0	1.561723E+0	1.560524E+0	1.643845E+0	1.618433E+0	1.559697E+0	1.576968E+0	1.643473E+0	1.653626E+0	1.512591E+0	1.606137E+0	1.600829E+0	1.604622E+0	1.622230E+0	1.599551E+0	1.567422E+0	1.567211E+0	1.563636E+0	1.603462E+0	1.637502E+0	1.623250E+0	1.602231E+0	1.643917E+0	1.607282E+0	1.607254E+0	1.582428E+0	1.601827E+0	1.515126E+0	1.603216E+0	1.620016E+0	1.560295E+0	1.557458E+0	1.598259E+0	1.562330E+0	1.552276E+0	1.547189E+0	1.549684E+0	1.579220E+0	1.547482E+0	1.603373E+0	1.547980E+0	1.540807E+0	1.602027E+0	1.579103E+0	1.615548E+0	1.652120E+0	1.570744E+0	1.586391E+0	1.525568E+0	1.569728E+0	1.634166E+0	1.638628E+0	1.598061E+0	1.583937E+0	1.593420E+0	1.570787E+0	1.515299E+0	1.616825E+0	1.563236E+0	1.522516E+0	1.553414E+0	1.544345E+0	1.580088E+0	1.582323E+0	1.609013E+0	1.579388E+0	1.601404E+0	1.596081E+0	1.606531E+0	1.548231E+0	1.529455E+0	1.571056E+0	1.587019E+0	1.520372E+0	1.520461E+0	1.558345E+0	1.600494E+0	1.578594E+0	1.569020E+0	1.629637E+0	1.520350E+0	1.557030E+0	1.558090E+0	1.510294E+0	1.575703E+0	1.608887E+0	1.567064E+0	1.613318E+0	1.566915E+0	1.583557E+0	1.559590E+0	1.498011E+0	1.561201E+0	1.574158E+0	1.567152E+0	1.558955E+0	1.614140E+0	1.565462E+0	1.537688E+0
5.440170E+2	1.648796E+0	1.676127E+0	1.661889E+0	1.664062E+0	1.668125E+0	1.667936E+0	1.710262E+0	1.665798E+0	1.671194E+0	1.697138E+0	1.700236E+0	1.713130E+0	1.629794E+0	1.696935E+0	1.653282E+0	1.654002E+0	1.672571E+0	1.744270E+0	1.674448E+0	1.705579E+0	1.685949E+0	1.675892E+0	1.713585E+0	1.645382E+0	1.668711E+0	1.676125E+0	1.750581E+0	1.710970E+0	1.650323E+0	1.678427E+0	1.751858E+0	1.706709E+0	1.750594E+0	1.646344E+0	1.678044E+0	1.732093E+0	1.714831E+0	1.602675E+0	1.698890E+0	1.634440E+0	1.737535E+0	1.699839E+0	1.644126E+0	1.679103E+0	1.680128E+0	1.694992E+0	1.689598E+0	1.712632E+0	1.684303E+0	1.680519E+0	1.673594E+0	1.730596E+0	1.715887E+0	1.727500E+0	1.642136E+0	1.661185E+0	1.612274E+0	1.725282E+0	1.704030E+0	1.677605E+0	1.632099E+0	1.670088E+0	1.676934E+0	1.712026E+0	1.615614E+0	1.751400E+0	1.598203E+0	1.609359E+0	1.629177E+0	1.634264E+0	1.626645E+0	1.717524E+0	1.653846E+0	1.673250E+0	1.628551E+0	1.682421E+0	1.675079E+0	1.662467E+0	1.663732E+0	1.671796E+0	1.636619E+0	1.660327E+0	1.716957E+0	1.694270E+0	1.662130E+0	1.654518E+0	1.694980E+0	1.623614E+0	1.654505E+0	1.648588E+0	1.633866E+0	1.651284E+0	1.648349E+0	1.716888E+0	1.624710E+0	1.676336E+0	1.675415E+0	1.658330E+0	1.607738E+0	1.742035E+0	1.647469E+0	1.651522E+0	1.634085E+0	1.667608E+0	1.623926E+0	1.698213E+0	1.716012E+0	1.692141E+0	1.651110E+0	1.666428E+0	1.645235E+0	1.693558E+0	1.633949E+0	1.585818E+0	1.679065E+0	1.609207E+0	1.687676E+0	1.705381E+0	1.669757E+0	1.595927E+0	1.621156E+0	1.663175E+0	1.649887E+0	1.629896E+0	1.669189E+0	1.692776E+0	1.693635E+0	1.587587E+0	1.649607E+0	1.609702E+0	1.628083E+0	1.637826E+0	1.656249E+0	1.609412E+0	1.635960E+0	1.654584E+0	1.561225E+0	1.710376E+0	1.609293E+0	1.623884E+0	1.680841E+0	1.677027E+0	1.722081E+0	1.711240E+0	1.582259E+0	1.632450E+0	1.674659E+0	1.701848E+0	1.637720E+0	1.576732E+0	1.634693E+0	1.599548E+0	1.624761E+0	1.643112E+0	1.698515E+0	1.683227E+0	1.591330E+0	1.679940E+0	1.647035E+0	1.662340E+0	1.656106E+0	1.635091E+0	1.604257E+0	1.661812E+0	1.642532E+0	1.591086E+0	1.653627E+0	1.674065E+0	1.723638E+0	1.680847E+0
5.442700E+2	1.616227E+0	1.695796E+0	1.655180E+0	1.561920E+0	1.697780E+0	1.661141E+0	1.598725E+0	1.723673E+0	1.591151E+0	1.629481E+0	1.616014E+0	1.643713E+0	1.599324E+0	1.644199E+0	1.639769E+0	1.603201E+0	1.644361E+0	1.694521E+0	1.685055E+0	1.660070E+0	1.593921E+0	1.587671E+0	1.659253E+0	1.636130E+0	1.652342E+0	1.601261E+0	1.653934E+0	1.672189E+0	1.546940E+0	1.628106E+0	1.663278E+0	1.635037E+0	1.613640E+0	1.625589E+0	1.626574E+0	1.626943E+0	1.625039E+0	1.636967E+0	1.656770E+0	1.617760E+0	1.626770E+0	1.596131E+0	1.624764E+0	1.601604E+0	1.604475E+0	1.634724E+0	1.689695E+0	1.623740E+0	1.656890E+0	1.597668E+0	1.644763E+0	1.624996E+0	1.655344E+0	1.632595E+0	1.624708E+0	1.624620E+0	1.675104E+0	1.607687E+0	1.592542E+0	1.686133E+0	1.629453E+0	1.629271E+0	1.641937E+0	1.607708E+0	1.647445E+0	1.671311E+0	1.601029E+0	1.641479E+0	1.557054E+0	1.596119E+0	1.639951E+0	1.647175E+0	1.621628E+0	1.632215E+0	1.682243E+0	1.670931E+0	1.586348E+0	1.511091E+0	1.649625E+0	1.670303E+0	1.566843E+0	1.639904E+0	1.577102E+0	1.609416E+0	1.614760E+0	1.598048E+0	1.606055E+0	1.603247E+0	1.601134E+0	1.641743E+0	1.668108E+0	1.655329E+0	1.662466E+0	1.653775E+0	1.645401E+0	1.597296E+0	1.615663E+0	1.637604E+0	1.546558E+0	1.582943E+0	1.635252E+0	1.616480E+0	1.579726E+0	1.640338E+0	1.612062E+0	1.640824E+0	1.522980E+0	1.551394E+0	1.591184E+0	1.591224E+0	1.608069E+0	1.645888E+0	1.628248E+0	1.630032E+0	1.619030E+0	1.593268E+0	1.580618E+0	1.624242E+0	1.666890E+0	1.569393E+0	1.678857E+0	1.592030E+0	1.620730E+0	1.622769E+0	1.617352E+0	1.554568E+0	1.597496E+0	1.560980E+0	1.593658E+0	1.600248E+0	1.552422E+0	1.604228E+0	1.556901E+0	1.591291E+0	1.539995E+0	1.590841E+0	1.594891E+0	1.557650E+0	1.630544E+0	1.574147E+0	1.576304E+0	1.606128E+0	1.609133E+0	1.602227E+0	1.584631E+0	1.559189E+0	1.628970E+0	1.662288E+0	1.631230E+0	1.568104E+0	1.670430E+0	1.585589E+0	1.549973E+0	1.598401E+0	1.663600E+0	1.619613E+0	1.548833E+0	1.608195E+0	1.615467E+0	1.626604E+0	1.639149E+0	1.608490E+0	1.590734E+0	1.617638E+0	1.614161E+0	1.586513E+0	1.661412E+0	1.635120E+0	1.638522E+0	1.488969E+0
5.445180E+2	1.717727E+0	1.680932E+0	1.598956E+0	1.583109E+0	1.609159E+0	1.619446E+0	1.650117E+0	1.656622E+0	1.596530E+0	1.629359E+0	1.570621E+0	1.642070E+0	1.631527E+0	1.623773E+0	1.636359E+0	1.607662E+0	1.639244E+0	1.567633E+0	1.616537E+0	1.590857E+0	1.638049E+0	1.594822E+0	1.644360E+0	1.663379E+0	1.639430E+0	1.600135E+0	1.645511E+0	1.652661E+0	1.545329E+0	1.580811E+0	1.663093E+0	1.574967E+0	1.604901E+0	1.600915E+0	1.618380E+0	1.609534E+0	1.652658E+0	1.569317E+0	1.570256E+0	1.629808E+0	1.615476E+0	1.579999E+0	1.616788E+0	1.560667E+0	1.598874E+0	1.598274E+0	1.644776E+0	1.608521E+0	1.646383E+0	1.623320E+0	1.630704E+0	1.655302E+0	1.632007E+0	1.530192E+0	1.631992E+0	1.612210E+0	1.633543E+0	1.573462E+0	1.635688E+0	1.590520E+0	1.601723E+0	1.658305E+0	1.659586E+0	1.632635E+0	1.561522E+0	1.614424E+0	1.621588E+0	1.608310E+0	1.604026E+0	1.650914E+0	1.616769E+0	1.612078E+0	1.563368E+0	1.610669E+0	1.657557E+0	1.613184E+0	1.583142E+0	1.563402E+0	1.599880E+0	1.634030E+0	1.542653E+0	1.609016E+0	1.632465E+0	1.628490E+0	1.603845E+0	1.617087E+0	1.558600E+0	1.593689E+0	1.621724E+0	1.591846E+0	1.667995E+0	1.607399E+0	1.611825E+0	1.642735E+0	1.596524E+0	1.625260E+0	1.637886E+0	1.554821E+0	1.576581E+0	1.641145E+0	1.654284E+0	1.558737E+0	1.625219E+0	1.623979E+0	1.549729E+0	1.552814E+0	1.614395E+0	1.637304E+0	1.555422E+0	1.561408E+0	1.567186E+0	1.603319E+0	1.629463E+0	1.633679E+0	1.580265E+0	1.541012E+0	1.566853E+0	1.584473E+0	1.625165E+0	1.603103E+0	1.565257E+0	1.618778E+0	1.656299E+0	1.586030E+0	1.633623E+0	1.543089E+0	1.576620E+0	1.531175E+0	1.544310E+0	1.569113E+0	1.599907E+0	1.655216E+0	1.615142E+0	1.575257E+0	1.517303E+0	1.614930E+0	1.552291E+0	1.631499E+0	1.572707E+0	1.646551E+0	1.585730E+0	1.599444E+0	1.619157E+0	1.563111E+0	1.558342E+0	1.609292E+0	1.609700E+0	1.636704E+0	1.625901E+0	1.615704E+0	1.629192E+0	1.554965E+0	1.601410E+0	1.553917E+0	1.549650E+0	1.556338E+0	1.567764E+0	1.568667E+0	1.616839E+0	1.594810E+0	1.608825E+0	1.603515E+0	1.563627E+0	1.624290E+0	1.621982E+0	1.533996E+0	1.619571E+0	1.541789E+0	1.628637E+0	1.605631E+0
5.447610E+2	1.634439E+0	1.558536E+0	1.537089E+0	1.556768E+0	1.651948E+0	1.529057E+0	1.509546E+0	1.546553E+0	1.566503E+0	1.493529E+0	1.613889E+0	1.581673E+0	1.566183E+0	1.608191E+0	1.566011E+0	1.602090E+0	1.576657E+0	1.586406E+0	1.628165E+0	1.564631E+0	1.589272E+0	1.519803E+0	1.572654E+0	1.571297E+0	1.508552E+0	1.512322E+0	1.572918E+0	1.596818E+0	1.501292E+0	1.604494E+0	1.609196E+0	1.582632E+0	1.560326E+0	1.525965E+0	1.557551E+0	1.533739E+0	1.513388E+0	1.489031E+0	1.607227E+0	1.483321E+0	1.611100E+0	1.581968E+0	1.553111E+0	1.591323E+0	1.515789E+0	1.575852E+0	1.601321E+0	1.555301E+0	1.588223E+0	1.525177E+0	1.535744E+0	1.604078E+0	1.604871E+0	1.540779E+0	1.538845E+0	1.556384E+0	1.528970E+0	1.531921E+0	1.592680E+0	1.529456E+0	1.548689E+0	1.539348E+0	1.519862E+0	1.522490E+0	1.552294E+0	1.563882E+0	1.546397E+0	1.554687E+0	1.486891E+0	1.572188E+0	1.568925E+0	1.584313E+0	1.458313E+0	1.538351E+0	1.559171E+0	1.537777E+0	1.547769E+0	1.527090E+0	1.545245E+0	1.544209E+0	1.579642E+0	1.534181E+0	1.594468E+0	1.561169E+0	1.603398E+0	1.563663E+0	1.531978E+0	1.542147E+0	1.598651E+0	1.488360E+0	1.574465E+0	1.561930E+0	1.519411E+0	1.535878E+0	1.530410E+0	1.579177E+0	1.577560E+0	1.548206E+0	1.523312E+0	1.520793E+0	1.565707E+0	1.516898E+0	1.547249E+0	1.542833E+0	1.548414E+0	1.530702E+0	1.520524E+0	1.490178E+0	1.509936E+0	1.503530E+0	1.541297E+0	1.555011E+0	1.519493E+0	1.533700E+0	1.550803E+0	1.529148E+0	1.516695E+0	1.504488E+0	1.523334E+0	1.530419E+0	1.544785E+0	1.505799E+0	1.612665E+0	1.553171E+0	1.523634E+0	1.536446E+0	1.579207E+0	1.588718E+0	1.577052E+0	1.605922E+0	1.482781E+0	1.522511E+0	1.458329E+0	1.538890E+0	1.528220E+0	1.605064E+0	1.532709E+0	1.494036E+0	1.555755E+0	1.554872E+0	1.546310E+0	1.520964E+0	1.574150E+0	1.537004E+0	1.576231E+0	1.494226E+0	1.510696E+0	1.595473E+0	1.538299E+0	1.529911E+0	1.571535E+0	1.554085E+0	1.513820E+0	1.543226E+0	1.542284E+0	1.553025E+0	1.500965E+0	1.586416E+0	1.580321E+0	1.530669E+0	1.551818E+0	1.526666E+0	1.543729E+0	1.559853E+0	1.541337E+0	1.544520E+0	1.532630E+0	1.543731E+0	1.599602E+0	1.578718E+0
5.450090E+2	1.571736E+0	1.475830E+0	1.435985E+0	1.462993E+0	1.470324E+0	1.486078E+0	1.482230E+0	1.535023E+0	1.473966E+0	1.449270E+0	1.485865E+0	1.406533E+0	1.475505E+0	1.529273E+0	1.471003E+0	1.476502E+0	1.558186E+0	1.455117E+0	1.512295E+0	1.476956E+0	1.540701E+0	1.429683E+0	1.424152E+0	1.490869E+0	1.482834E+0	1.480476E+0	1.493688E+0	1.475678E+0	1.424847E+0	1.485080E+0	1.506935E+0	1.510661E+0	1.499698E+0	1.471363E+0	1.435340E+0	1.467516E+0	1.457812E+0	1.428612E+0	1.446022E+0	1.464172E+0	1.522964E+0	1.495579E+0	1.431809E+0	1.493413E+0	1.450912E+0	1.453265E+0	1.471716E+0	1.431772E+0	1.470353E+0	1.434811E+0	1.464842E+0	1.503100E+0	1.525247E+0	1.471162E+0	1.437680E+0	1.403648E+0	1.440046E+0	1.437227E+0	1.448357E+0	1.420617E+0	1.434889E+0	1.478227E+0	1.434050E+0	1.464348E+0	1.424439E+0	1.382270E+0	1.464122E+0	1.445430E+0	1.415535E+0	1.453572E+0	1.446502E+0	1.530838E+0	1.473087E+0	1.442963E+0	1.450248E+0	1.460939E+0	1.467433E+0	1.423442E+0	1.442418E+0	1.506514E+0	1.426960E+0	1.451060E+0	1.487865E+0	1.472701E+0	1.474390E+0	1.406943E+0	1.432978E+0	1.475936E+0	1.436865E+0	1.454545E+0	1.511739E+0	1.448398E+0	1.459900E+0	1.490418E+0	1.455937E+0	1.512112E+0	1.435910E+0	1.500276E+0	1.397494E+0	1.475493E+0	1.448427E+0	1.449689E+0	1.422825E+0	1.439733E+0	1.445715E+0	1.448729E+0	1.467517E+0	1.445530E+0	1.450172E+0	1.414759E+0	1.451410E+0	1.454547E+0	1.419385E+0	1.471288E+0	1.450074E+0	1.507996E+0	1.468863E+0	1.500285E+0	1.514111E+0	1.434879E+0	1.414825E+0	1.386828E+0	1.478389E+0	1.484223E+0	1.500658E+0	1.419175E+0	1.494853E+0	1.460895E+0	1.436493E+0	1.435748E+0	1.419154E+0	1.468740E+0	1.458708E+0	1.395438E+0	1.461432E+0	1.453979E+0	1.379492E+0	1.452693E+0	1.412591E+0	1.444648E+0	1.408386E+0	1.431389E+0	1.478703E+0	1.470727E+0	1.412521E+0	1.450405E+0	1.496288E+0	1.436618E+0	1.442300E+0	1.435991E+0	1.447103E+0	1.404760E+0	1.451677E+0	1.469498E+0	1.445311E+0	1.486442E+0	1.422155E+0	1.474508E+0	1.491667E+0	1.509776E+0	1.456338E+0	1.445812E+0	1.472975E+0	1.416177E+0	1.492155E+0	1.436910E+0	1.411346E+0	1.497264E+0	1.473217E+0	1.438170E+0
5.452690E+2	1.380642E+0	1.338928E+0	1.398783E+0	1.299382E+0	1.356829E+0	1.429357E+0	1.337228E+0	1.336918E+0	1.346563E+0	1.341501E+0	1.443020E+0	1.313360E+0	1.383464E+0	1.438295E+0	1.386474E+0	1.372419E+0	1.357346E+0	1.302795E+0	1.403002E+0	1.429937E+0	1.355478E+0	1.342905E+0	1.357128E+0	1.398933E+0	1.316645E+0	1.320511E+0	1.381542E+0	1.339261E+0	1.307693E+0	1.356104E+0	1.412418E+0	1.347288E+0	1.343335E+0	1.336994E+0	1.342620E+0	1.378962E+0	1.369359E+0	1.329906E+0	1.341377E+0	1.336875E+0	1.371537E+0	1.320838E+0	1.306909E+0	1.350331E+0	1.368057E+0	1.361640E+0	1.351835E+0	1.336354E+0	1.346221E+0	1.341398E+0	1.362809E+0	1.352845E+0	1.357357E+0	1.374625E+0	1.318277E+0	1.363864E+0	1.337306E+0	1.331687E+0	1.365450E+0	1.372121E+0	1.366820E+0	1.383519E+0	1.352057E+0	1.355277E+0	1.296516E+0	1.291342E+0	1.392386E+0	1.375858E+0	1.296415E+0	1.348670E+0	1.365825E+0	1.368470E+0	1.346667E+0	1.347286E+0	1.338544E+0	1.396016E+0	1.315974E+0	1.314405E+0	1.348876E+0	1.371452E+0	1.253385E+0	1.324192E+0	1.341690E+0	1.328868E+0	1.342605E+0	1.289959E+0	1.341139E+0	1.310804E+0	1.355676E+0	1.369812E+0	1.376511E+0	1.340303E+0	1.376599E+0	1.364831E+0	1.349672E+0	1.325566E+0	1.337976E+0	1.308955E+0	1.349336E+0	1.361028E+0	1.384631E+0	1.368090E+0	1.395700E+0	1.354048E+0	1.334785E+0	1.291031E+0	1.340891E+0	1.366716E+0	1.342805E+0	1.306637E+0	1.374986E+0	1.336831E+0	1.319279E+0	1.342749E+0	1.319698E+0	1.400428E+0	1.399383E+0	1.347646E+0	1.349056E+0	1.306977E+0	1.386752E+0	1.338387E+0	1.392177E+0	1.324584E+0	1.318873E+0	1.327662E+0	1.371930E+0	1.352102E+0	1.357599E+0	1.335147E+0	1.372254E+0	1.330985E+0	1.324492E+0	1.309674E+0	1.326838E+0	1.407716E+0	1.378964E+0	1.366439E+0	1.387806E+0	1.348447E+0	1.337980E+0	1.321105E+0	1.438290E+0	1.311565E+0	1.412760E+0	1.276468E+0	1.322792E+0	1.389515E+0	1.304821E+0	1.321298E+0	1.337093E+0	1.395876E+0	1.398815E+0	1.270162E+0	1.329237E+0	1.314915E+0	1.308164E+0	1.334124E+0	1.335787E+0	1.317545E+0	1.341183E+0	1.286585E+0	1.306175E+0	1.354053E+0	1.324097E+0	1.287159E+0	1.338302E+0	1.292844E+0	1.405309E+0	1.274978E+0
5.455290E+2	1.288346E+0	1.312747E+0	1.320052E+0	1.309495E+0	1.339094E+0	1.332630E+0	1.254974E+0	1.313888E+0	1.353995E+0	1.285129E+0	1.304969E+0	1.299599E+0	1.276445E+0	1.374627E+0	1.296719E+0	1.268456E+0	1.320716E+0	1.365969E+0	1.362989E+0	1.314452E+0	1.346892E+0	1.269291E+0	1.329521E+0	1.292701E+0	1.314524E+0	1.307707E+0	1.296297E+0	1.287798E+0	1.248929E+0	1.246607E+0	1.359547E+0	1.312827E+0	1.338599E+0	1.235209E+0	1.342918E+0	1.306352E+0	1.322597E+0	1.248273E+0	1.289651E+0	1.244418E+0	1.267497E+0	1.285258E+0	1.261318E+0	1.293878E+0	1.256258E+0	1.311417E+0	1.309848E+0	1.306190E+0	1.311114E+0	1.263445E+0	1.302256E+0	1.320100E+0	1.365304E+0	1.285827E+0	1.315399E+0	1.335933E+0	1.273179E+0	1.330121E+0	1.292944E+0	1.333944E+0	1.255023E+0	1.370239E+0	1.350134E+0	1.279639E+0	1.331862E+0	1.286022E+0	1.332325E+0	1.325720E+0	1.298855E+0	1.258512E+0	1.317379E+0	1.324069E+0	1.318959E+0	1.330048E+0	1.309791E+0	1.380932E+0	1.259456E+0	1.321300E+0	1.279860E+0	1.364926E+0	1.296648E+0	1.288976E+0	1.328831E+0	1.329189E+0	1.317068E+0	1.268131E+0	1.234077E+0	1.347169E+0	1.282133E+0	1.333364E+0	1.349940E+0	1.321809E+0	1.272399E+0	1.290437E+0	1.339776E+0	1.332214E+0	1.313210E+0	1.335564E+0	1.312692E+0	1.348715E+0	1.349042E+0	1.282675E+0	1.299861E+0	1.240793E+0	1.262935E+0	1.354255E+0	1.318202E+0	1.334502E+0	1.265686E+0	1.290773E+0	1.293669E+0	1.326684E+0	1.319954E+0	1.271760E+0	1.272864E+0	1.311271E+0	1.313719E+0	1.282362E+0	1.344088E+0	1.262245E+0	1.334975E+0	1.291805E+0	1.321975E+0	1.300197E+0	1.263782E+0	1.312777E+0	1.239476E+0	1.324387E+0	1.250228E+0	1.364472E+0	1.309701E+0	1.242560E+0	1.272672E+0	1.281147E+0	1.277746E+0	1.287832E+0	1.249790E+0	1.282969E+0	1.342278E+0	1.318673E+0	1.257872E+0	1.275791E+0	1.358336E+0	1.282570E+0	1.306591E+0	1.314451E+0	1.308108E+0	1.303720E+0	1.282604E+0	1.284299E+0	1.294177E+0	1.287654E+0	1.287010E+0	1.310788E+0	1.289446E+0	1.301458E+0	1.292251E+0	1.317959E+0	1.283729E+0	1.360662E+0	1.270643E+0	1.246148E+0	1.279707E+0	1.315159E+0	1.248344E+0	1.225241E+0	1.309808E+0	1.293041E+0	1.305115E+0	1.332417E+0
5.457670E+2	1.227738E+0	1.242375E+0	1.296947E+0	1.193130E+0	1.244903E+0	1.233959E+0	1.227438E+0	1.265696E+0	1.234330E+0	1.187219E+0	1.222480E+0	1.316190E+0	1.237484E+0	1.243685E+0	1.191086E+0	1.244304E+0	1.272295E+0	1.241420E+0	1.274325E+0	1.285129E+0	1.311134E+0	1.216821E+0	1.253496E+0	1.253246E+0	1.249861E+0	1.204894E+0	1.230631E+0	1.238961E+0	1.240489E+0	1.234905E+0	1.200851E+0	1.215160E+0	1.261581E+0	1.221089E+0	1.214664E+0	1.260553E+0	1.265041E+0	1.278408E+0	1.266997E+0	1.220007E+0	1.279869E+0	1.266266E+0	1.248061E+0	1.193322E+0	1.217013E+0	1.265185E+0	1.257456E+0	1.229729E+0	1.239808E+0	1.200511E+0	1.208747E+0	1.296680E+0	1.260758E+0	1.202513E+0	1.184052E+0	1.261630E+0	1.282261E+0	1.201666E+0	1.219837E+0	1.275948E+0	1.262403E+0	1.223370E+0	1.200136E+0	1.277095E+0	1.191364E+0	1.280750E+0	1.197375E+0	1.289401E+0	1.250459E+0	1.249922E+0	1.243174E+0	1.257874E+0	1.259982E+0	1.281349E+0	1.243222E+0	1.255417E+0	1.216646E+0	1.220381E+0	1.245313E+0	1.237152E+0	1.226930E+0	1.211096E+0	1.271430E+0	1.281330E+0	1.221019E+0	1.227103E+0	1.224608E+0	1.197206E+0	1.275202E+0	1.245139E+0	1.302308E+0	1.281950E+0	1.224074E+0	1.215330E+0	1.213991E+0	1.217929E+0	1.235537E+0	1.244675E+0	1.249009E+0	1.255443E+0	1.293457E+0	1.250988E+0	1.260662E+0	1.222457E+0	1.242702E+0	1.190848E+0	1.236456E+0	1.229598E+0	1.245437E+0	1.234483E+0	1.282516E+0	1.205604E+0	1.241372E+0	1.313897E+0	1.225798E+0	1.277384E+0	1.259725E+0	1.218472E+0	1.281984E+0	1.230122E+0	1.210737E+0	1.244457E+0	1.280884E+0	1.273910E+0	1.206712E+0	1.243142E+0	1.304341E+0	1.254261E+0	1.219539E+0	1.204089E+0	1.262727E+0	1.232478E+0	1.246748E+0	1.188069E+0	1.227344E+0	1.272810E+0	1.230648E+0	1.220592E+0	1.278930E+0	1.222468E+0	1.209022E+0	1.232694E+0	1.247996E+0	1.251913E+0	1.214018E+0	1.222878E+0	1.241000E+0	1.271372E+0	1.214834E+0	1.229369E+0	1.195656E+0	1.177361E+0	1.223072E+0	1.230494E+0	1.191821E+0	1.218955E+0	1.211084E+0	1.248672E+0	1.257314E+0	1.214875E+0	1.250905E+0	1.240748E+0	1.275915E+0	1.293400E+0	1.206634E+0	1.171544E+0	1.214729E+0	1.172833E+0	1.252629E+0	1.232880E+0
5.460220E+2	1.200356E+0	1.218934E+0	1.176721E+0	1.129345E+0	1.229083E+0	1.209036E+0	1.185416E+0	1.186985E+0	1.153215E+0	1.185297E+0	1.132808E+0	1.193227E+0	1.162678E+0	1.206317E+0	1.193327E+0	1.168753E+0	1.205315E+0	1.206985E+0	1.181075E+0	1.188579E+0	1.153558E+0	1.256932E+0	1.168391E+0	1.204776E+0	1.174895E+0	1.199161E+0	1.269961E+0	1.229757E+0	1.186217E+0	1.193823E+0	1.198863E+0	1.202210E+0	1.152615E+0	1.193745E+0	1.162909E+0	1.190209E+0	1.124206E+0	1.150293E+0	1.190705E+0	1.152385E+0	1.257348E+0	1.177936E+0	1.176636E+0	1.213920E+0	1.139447E+0	1.158522E+0	1.238985E+0	1.234930E+0	1.194112E+0	1.159876E+0	1.156387E+0	1.213684E+0	1.193010E+0	1.192039E+0	1.190385E+0	1.181119E+0	1.157126E+0	1.190095E+0	1.244722E+0	1.187476E+0	1.125708E+0	1.224989E+0	1.179623E+0	1.224725E+0	1.168407E+0	1.186268E+0	1.183961E+0	1.175266E+0	1.181095E+0	1.181800E+0	1.152599E+0	1.217125E+0	1.183867E+0	1.129135E+0	1.187941E+0	1.203156E+0	1.183261E+0	1.158374E+0	1.183863E+0	1.250496E+0	1.175177E+0	1.153233E+0	1.232802E+0	1.232358E+0	1.179553E+0	1.184621E+0	1.154665E+0	1.203426E+0	1.223708E+0	1.204747E+0	1.202713E+0	1.188359E+0	1.192830E+0	1.157849E+0	1.212220E+0	1.203035E+0	1.227810E+0	1.165331E+0	1.126636E+0	1.180407E+0	1.187193E+0	1.179919E+0	1.191493E+0	1.206279E+0	1.162160E+0	1.162728E+0	1.126551E+0	1.244713E+0	1.251858E+0	1.171195E+0	1.238993E+0	1.189606E+0	1.201453E+0	1.164452E+0	1.213782E+0	1.274074E+0	1.180392E+0	1.204425E+0	1.204747E+0	1.146570E+0	1.243876E+0	1.192839E+0	1.180159E+0	1.184541E+0	1.163672E+0	1.183281E+0	1.197404E+0	1.173113E+0	1.225312E+0	1.200406E+0	1.178894E+0	1.195393E+0	1.171518E+0	1.133046E+0	1.205273E+0	1.194701E+0	1.189254E+0	1.122373E+0	1.180633E+0	1.210475E+0	1.140533E+0	1.153060E+0	1.224072E+0	1.193034E+0	1.211087E+0	1.158251E+0	1.196777E+0	1.154974E+0	1.178611E+0	1.136550E+0	1.143679E+0	1.170527E+0	1.217634E+0	1.158016E+0	1.196606E+0	1.220159E+0	1.160146E+0	1.186238E+0	1.217726E+0	1.186131E+0	1.208416E+0	1.210192E+0	1.188144E+0	1.178024E+0	1.165776E+0	1.174549E+0	1.205259E+0	1.174368E+0	1.180847E+0	1.172037E+0
5.467660E+2	1.285564E+0	1.236842E+0	1.318305E+0	1.275895E+0	1.319888E+0	1.303761E+0	1.344126E+0	1.252817E+0	1.275825E+0	1.285180E+0	1.301042E+0	1.312734E+0	1.267188E+0	1.296747E+0	1.311035E+0	1.263014E+0	1.270825E+0	1.274010E+0	1.329675E+0	1.297066E+0	1.301379E+0	1.326679E+0	1.292528E+0	1.250892E+0	1.300276E+0	1.346419E+0	1.301910E+0	1.300479E+0	1.324804E+0	1.269853E+0	1.265338E+0	1.354811E+0	1.277335E+0	1.284688E+0	1.292324E+0	1.365686E+0	1.336053E+0	1.270193E+0	1.316203E+0	1.258695E+0	1.286586E+0	1.251020E+0	1.249746E+0	1.294617E+0	1.300062E+0	1.292672E+0	1.291872E+0	1.329339E+0	1.291267E+0	1.302239E+0	1.321694E+0	1.329887E+0	1.293325E+0	1.269007E+0	1.283216E+0	1.289257E+0	1.279173E+0	1.305949E+0	1.270172E+0	1.328083E+0	1.285125E+0	1.316762E+0	1.261446E+0	1.338903E+0	1.271286E+0	1.315129E+0	1.268354E+0	1.312800E+0	1.242720E+0	1.279383E+0	1.304309E+0	1.314361E+0	1.247228E+0	1.270136E+0	1.297649E+0	1.335469E+0	1.246512E+0	1.290143E+0	1.316256E+0	1.380250E+0	1.295604E+0	1.291209E+0	1.298843E+0	1.329877E+0	1.289852E+0	1.322797E+0	1.295843E+0	1.302998E+0	1.294213E+0	1.289934E+0	1.312379E+0	1.278173E+0	1.317166E+0	1.310179E+0	1.295510E+0	1.287235E+0	1.279483E+0	1.250940E+0	1.255969E+0	1.320866E+0	1.336406E+0	1.287752E+0	1.282548E+0	1.231826E+0	1.322878E+0	1.297965E+0	1.299119E+0	1.282562E+0	1.313119E+0	1.263421E+0	1.264499E+0	1.314324E+0	1.285569E+0	1.315486E+0	1.275293E+0	1.316835E+0	1.320039E+0	1.266883E+0	1.287024E+0	1.268419E+0	1.291366E+0	1.274249E+0	1.327853E+0	1.298088E+0	1.300077E+0	1.279333E+0	1.241623E+0	1.316803E+0	1.227857E+0	1.294445E+0	1.217848E+0	1.319828E+0	1.249343E+0	1.254148E+0	1.306785E+0	1.332471E+0	1.243571E+0	1.265157E+0	1.269833E+0	1.297805E+0	1.250730E+0	1.277868E+0	1.366890E+0	1.364020E+0	1.327236E+0	1.255886E+0	1.264930E+0	1.278544E+0	1.290384E+0	1.232272E+0	1.333453E+0	1.311181E+0	1.286105E+0	1.262714E+0	1.301300E+0	1.294558E+0	1.247536E+0	1.293430E+0	1.311711E+0	1.331234E+0	1.317578E+0	1.320263E+0	1.303672E+0	1.295960E+0	1.317639E+0	1.254888E+0	1.260238E+0	1.292511E+0	1.321717E+0	1.181430E+0
5.475120E+2	1.426906E+0	1.446282E+0	1.440245E+0	1.454481E+0	1.417351E+0	1.421291E+0	1.413668E+0	1.442316E+0	1.411055E+0	1.395007E+0	1.444308E+0	1.444661E+0	1.449873E+0	1.405933E+0	1.408664E+0	1.388403E+0	1.439038E+0	1.411330E+0	1.435573E+0	1.419970E+0	1.454449E+0	1.424056E+0	1.352528E+0	1.387759E+0	1.378782E+0	1.391027E+0	1.459144E+0	1.385705E+0	1.409363E+0	1.364147E+0	1.402423E+0	1.426178E+0	1.427047E+0	1.439892E+0	1.345998E+0	1.439094E+0	1.383573E+0	1.404352E+0	1.425859E+0	1.415552E+0	1.444448E+0	1.426938E+0	1.420636E+0	1.448641E+0	1.407868E+0	1.450368E+0	1.435271E+0	1.414749E+0	1.431912E+0	1.399596E+0	1.414308E+0	1.400963E+0	1.434626E+0	1.342658E+0	1.414489E+0	1.443102E+0	1.392859E+0	1.372209E+0	1.406098E+0	1.484978E+0	1.421398E+0	1.419845E+0	1.384253E+0	1.452016E+0	1.328111E+0	1.364585E+0	1.327375E+0	1.435029E+0	1.418371E+0	1.398118E+0	1.390470E+0	1.395746E+0	1.400986E+0	1.441517E+0	1.419624E+0	1.461933E+0	1.372976E+0	1.361104E+0	1.426681E+0	1.487985E+0	1.375230E+0	1.357361E+0	1.458387E+0	1.437543E+0	1.387747E+0	1.414178E+0	1.408535E+0	1.419913E+0	1.421970E+0	1.446041E+0	1.411087E+0	1.486534E+0	1.421820E+0	1.408841E+0	1.372627E+0	1.416004E+0	1.441672E+0	1.393984E+0	1.410876E+0	1.451785E+0	1.488307E+0	1.406457E+0	1.391305E+0	1.379217E+0	1.346113E+0	1.375159E+0	1.401844E+0	1.424051E+0	1.390693E+0	1.405598E+0	1.432423E+0	1.421252E+0	1.429433E+0	1.395965E+0	1.410601E+0	1.410108E+0	1.405167E+0	1.392024E+0	1.413471E+0	1.375512E+0	1.378128E+0	1.370234E+0	1.464704E+0	1.379172E+0	1.381020E+0	1.388253E+0	1.406085E+0	1.415703E+0	1.389479E+0	1.397592E+0	1.476114E+0	1.428510E+0	1.433274E+0	1.363795E+0	1.356506E+0	1.422552E+0	1.389213E+0	1.421837E+0	1.449933E+0	1.467175E+0	1.388026E+0	1.373297E+0	1.399595E+0	1.475503E+0	1.420682E+0	1.411661E+0	1.438580E+0	1.463239E+0	1.375203E+0	1.422330E+0	1.394353E+0	1.333325E+0	1.434611E+0	1.406069E+0	1.401582E+0	1.443496E+0	1.372003E+0	1.443424E+0	1.364160E+0	1.438940E+0	1.425790E+0	1.408136E+0	1.352272E+0	1.418179E+0	1.404107E+0	1.356413E+0	1.439590E+0	1.454992E+0	1.450071E+0	1.284895E+0
5.482600E+2	1.471896E+0	1.494664E+0	1.472392E+0	1.419156E+0	1.408359E+0	1.517363E+0	1.501540E+0	1.491517E+0	1.411830E+0	1.399134E+0	1.442464E+0	1.417414E+0	1.485535E+0	1.466288E+0	1.431939E+0	1.516995E+0	1.443174E+0	1.489648E+0	1.426126E+0	1.479335E+0	1.461430E+0	1.420444E+0	1.471047E+0	1.490643E+0	1.388358E+0	1.483299E+0	1.506084E+0	1.514118E+0	1.427877E+0	1.397123E+0	1.472898E+0	1.445819E+0	1.434787E+0	1.437288E+0	1.497815E+0	1.483755E+0	1.469135E+0	1.491167E+0	1.463786E+0	1.445189E+0	1.425911E+0	1.428463E+0	1.397876E+0	1.450498E+0	1.446066E+0	1.492562E+0	1.500456E+0	1.467937E+0	1.446683E+0	1.350680E+0	1.435330E+0	1.443080E+0	1.422796E+0	1.467782E+0	1.468076E+0	1.452948E+0	1.470953E+0	1.493421E+0	1.408734E+0	1.462621E+0	1.432973E+0	1.465993E+0	1.425216E+0	1.491854E+0	1.376377E+0	1.413953E+0	1.426831E+0	1.406803E+0	1.376344E+0	1.467114E+0	1.417805E+0	1.465635E+0	1.432741E+0	1.412296E+0	1.418875E+0	1.457707E+0	1.447176E+0	1.447682E+0	1.445964E+0	1.509255E+0	1.368236E+0	1.423474E+0	1.471068E+0	1.442367E+0	1.445308E+0	1.398036E+0	1.413973E+0	1.467977E+0	1.452616E+0	1.421329E+0	1.443814E+0	1.470682E+0	1.465163E+0	1.463388E+0	1.459692E+0	1.423994E+0	1.390643E+0	1.442701E+0	1.362532E+0	1.433439E+0	1.453163E+0	1.416290E+0	1.415660E+0	1.419983E+0	1.428167E+0	1.415051E+0	1.415648E+0	1.428167E+0	1.406220E+0	1.398920E+0	1.406849E+0	1.498317E+0	1.348853E+0	1.407826E+0	1.451515E+0	1.429891E+0	1.438063E+0	1.392384E+0	1.454811E+0	1.438095E+0	1.416452E+0	1.390741E+0	1.444498E+0	1.474779E+0	1.448305E+0	1.429426E+0	1.362584E+0	1.391216E+0	1.423963E+0	1.418433E+0	1.446261E+0	1.430992E+0	1.463369E+0	1.355969E+0	1.454209E+0	1.452900E+0	1.381760E+0	1.432565E+0	1.433540E+0	1.518834E+0	1.414324E+0	1.417867E+0	1.439099E+0	1.545318E+0	1.385606E+0	1.438249E+0	1.409675E+0	1.434173E+0	1.430967E+0	1.438466E+0	1.423230E+0	1.395034E+0	1.473137E+0	1.472361E+0	1.399603E+0	1.403046E+0	1.429217E+0	1.426990E+0	1.418450E+0	1.495554E+0	1.454232E+0	1.466011E+0	1.484668E+0	1.488070E+0	1.442237E+0	1.405748E+0	1.399501E+0	1.426058E+0	1.494349E+0	1.376222E+0
5.490490E+2	1.461851E+0	1.458035E+0	1.451272E+0	1.443900E+0	1.461843E+0	1.459523E+0	1.480434E+0	1.455461E+0	1.388807E+0	1.399911E+0	1.410240E+0	1.434844E+0	1.395507E+0	1.467184E+0	1.448458E+0	1.489669E+0	1.470991E+0	1.468420E+0	1.458181E+0	1.479009E+0	1.401779E+0	1.450125E+0	1.438172E+0	1.469851E+0	1.416833E+0	1.468321E+0	1.474896E+0	1.456411E+0	1.444387E+0	1.449638E+0	1.442427E+0	1.471819E+0	1.439954E+0	1.405278E+0	1.444089E+0	1.464928E+0	1.471705E+0	1.396277E+0	1.449996E+0	1.431814E+0	1.482132E+0	1.431743E+0	1.405483E+0	1.475142E+0	1.420930E+0	1.440745E+0	1.453178E+0	1.427599E+0	1.428481E+0	1.391898E+0	1.405564E+0	1.478103E+0	1.450042E+0	1.442755E+0	1.406127E+0	1.443155E+0	1.427090E+0	1.456687E+0	1.436260E+0	1.420876E+0	1.417479E+0	1.408954E+0	1.460282E+0	1.491532E+0	1.440848E+0	1.408749E+0	1.385149E+0	1.383702E+0	1.406872E+0	1.408900E+0	1.417350E+0	1.403843E+0	1.478431E+0	1.397592E+0	1.405785E+0	1.451926E+0	1.470224E+0	1.396535E+0	1.382707E+0	1.483613E+0	1.430004E+0	1.430262E+0	1.446345E+0	1.458915E+0	1.463341E+0	1.420042E+0	1.390297E+0	1.509275E+0	1.449880E+0	1.394926E+0	1.419626E+0	1.391680E+0	1.432041E+0	1.423651E+0	1.386600E+0	1.488812E+0	1.454447E+0	1.421277E+0	1.418236E+0	1.464085E+0	1.499458E+0	1.445173E+0	1.422590E+0	1.452305E+0	1.413830E+0	1.411758E+0	1.374580E+0	1.413480E+0	1.458779E+0	1.348081E+0	1.446505E+0	1.432400E+0	1.445679E+0	1.445757E+0	1.374877E+0	1.438812E+0	1.413358E+0	1.435347E+0	1.380569E+0	1.388927E+0	1.454553E+0	1.441732E+0	1.413174E+0	1.432080E+0	1.488338E+0	1.418622E+0	1.415060E+0	1.359454E+0	1.399225E+0	1.452028E+0	1.401422E+0	1.408783E+0	1.477114E+0	1.420438E+0	1.373457E+0	1.438964E+0	1.408001E+0	1.404957E+0	1.402777E+0	1.458149E+0	1.394530E+0	1.405446E+0	1.398595E+0	1.499813E+0	1.389352E+0	1.421493E+0	1.421409E+0	1.462785E+0	1.471651E+0	1.408950E+0	1.412106E+0	1.417807E+0	1.478065E+0	1.397625E+0	1.426413E+0	1.440032E+0	1.403512E+0	1.420018E+0	1.419706E+0	1.452650E+0	1.433105E+0	1.365330E+0	1.438544E+0	1.416005E+0	1.399540E+0	1.388713E+0	1.449181E+0	1.509279E+0	1.454185E+0	1.512573E+0
5.497790E+2	1.407582E+0	1.391824E+0	1.418003E+0	1.367150E+0	1.386592E+0	1.342706E+0	1.455675E+0	1.395410E+0	1.399701E+0	1.406154E+0	1.377933E+0	1.416940E+0	1.373283E+0	1.438384E+0	1.431082E+0	1.399425E+0	1.437077E+0	1.415371E+0	1.433209E+0	1.409830E+0	1.453270E+0	1.402131E+0	1.410402E+0	1.407817E+0	1.342239E+0	1.376878E+0	1.399803E+0	1.433428E+0	1.390362E+0	1.401985E+0	1.341187E+0	1.383712E+0	1.449885E+0	1.383621E+0	1.422335E+0	1.408469E+0	1.412090E+0	1.390163E+0	1.382737E+0	1.390058E+0	1.390045E+0	1.368011E+0	1.324124E+0	1.359118E+0	1.460224E+0	1.401937E+0	1.374586E+0	1.424003E+0	1.431807E+0	1.337161E+0	1.359319E+0	1.398264E+0	1.435532E+0	1.358729E+0	1.352727E+0	1.374805E+0	1.376059E+0	1.414327E+0	1.399140E+0	1.436870E+0	1.355650E+0	1.400611E+0	1.335215E+0	1.382712E+0	1.348131E+0	1.410693E+0	1.396822E+0	1.347304E+0	1.332666E+0	1.307547E+0	1.411159E+0	1.474355E+0	1.420015E+0	1.447400E+0	1.349184E+0	1.417361E+0	1.366018E+0	1.402839E+0	1.368404E+0	1.397204E+0	1.427341E+0	1.405116E+0	1.378459E+0	1.453130E+0	1.390468E+0	1.346733E+0	1.422255E+0	1.393455E+0	1.419988E+0	1.385186E+0	1.381275E+0	1.390995E+0	1.438928E+0	1.399543E+0	1.397752E+0	1.417077E+0	1.422849E+0	1.420763E+0	1.370729E+0	1.401670E+0	1.447875E+0	1.401534E+0	1.378771E+0	1.398557E+0	1.411819E+0	1.396183E+0	1.402960E+0	1.384425E+0	1.371296E+0	1.367761E+0	1.373440E+0	1.396963E+0	1.405189E+0	1.324651E+0	1.373415E+0	1.398461E+0	1.387002E+0	1.413253E+0	1.385785E+0	1.425816E+0	1.416683E+0	1.302189E+0	1.432507E+0	1.445447E+0	1.395574E+0	1.373297E+0	1.372809E+0	1.385550E+0	1.346104E+0	1.360193E+0	1.367793E+0	1.425010E+0	1.385300E+0	1.356771E+0	1.388536E+0	1.416463E+0	1.377511E+0	1.354070E+0	1.338947E+0	1.424608E+0	1.392956E+0	1.344015E+0	1.369694E+0	1.366548E+0	1.354894E+0	1.339450E+0	1.405195E+0	1.399398E+0	1.383481E+0	1.326310E+0	1.439616E+0	1.380128E+0	1.405681E+0	1.382432E+0	1.322873E+0	1.383310E+0	1.378609E+0	1.401867E+0	1.397562E+0	1.433015E+0	1.408726E+0	1.347281E+0	1.370722E+0	1.376686E+0	1.353564E+0	1.340989E+0	1.346443E+0	1.328911E+0	1.428181E+0	1.426004E+0
5.505110E+2	1.336723E+0	1.358669E+0	1.390335E+0	1.355794E+0	1.367502E+0	1.359573E+0	1.319071E+0	1.370432E+0	1.374638E+0	1.280401E+0	1.296018E+0	1.386348E+0	1.296495E+0	1.339855E+0	1.320499E+0	1.339446E+0	1.350931E+0	1.364544E+0	1.360643E+0	1.354809E+0	1.270204E+0	1.370531E+0	1.316061E+0	1.315548E+0	1.296990E+0	1.275107E+0	1.360108E+0	1.391601E+0	1.295559E+0	1.357944E+0	1.314316E+0	1.313684E+0	1.277933E+0	1.283902E+0	1.324576E+0	1.377109E+0	1.345283E+0	1.278295E+0	1.353594E+0	1.308760E+0	1.316411E+0	1.311359E+0	1.349017E+0	1.348088E+0	1.343691E+0	1.320318E+0	1.336577E+0	1.295257E+0	1.321683E+0	1.312303E+0	1.364787E+0	1.354121E+0	1.357039E+0	1.330864E+0	1.275326E+0	1.315914E+0	1.344078E+0	1.345161E+0	1.300666E+0	1.317105E+0	1.337521E+0	1.277555E+0	1.348246E+0	1.328787E+0	1.306877E+0	1.336770E+0	1.309041E+0	1.329499E+0	1.257388E+0	1.293973E+0	1.318002E+0	1.369674E+0	1.337529E+0	1.368180E+0	1.316551E+0	1.347299E+0	1.352915E+0	1.251546E+0	1.302134E+0	1.351998E+0	1.321252E+0	1.335984E+0	1.372568E+0	1.344903E+0	1.372911E+0	1.322958E+0	1.335041E+0	1.297941E+0	1.361132E+0	1.338536E+0	1.349870E+0	1.320089E+0	1.342730E+0	1.336384E+0	1.304547E+0	1.338278E+0	1.325823E+0	1.297777E+0	1.325739E+0	1.365164E+0	1.364737E+0	1.349809E+0	1.305448E+0	1.297039E+0	1.321592E+0	1.275041E+0	1.330663E+0	1.385075E+0	1.332139E+0	1.282068E+0	1.365545E+0	1.388749E+0	1.362469E+0	1.290592E+0	1.353511E+0	1.327524E+0	1.324410E+0	1.322314E+0	1.365318E+0	1.316475E+0	1.335734E+0	1.353126E+0	1.380852E+0	1.333518E+0	1.365924E+0	1.310853E+0	1.388883E+0	1.369847E+0	1.329800E+0	1.314521E+0	1.276826E+0	1.350164E+0	1.348881E+0	1.308211E+0	1.333950E+0	1.336988E+0	1.298911E+0	1.303732E+0	1.344123E+0	1.309200E+0	1.317332E+0	1.300388E+0	1.329521E+0	1.327060E+0	1.275714E+0	1.301967E+0	1.333352E+0	1.317880E+0	1.316178E+0	1.291017E+0	1.347381E+0	1.316925E+0	1.330547E+0	1.319851E+0	1.271633E+0	1.395501E+0	1.274259E+0	1.292784E+0	1.308195E+0	1.365718E+0	1.357701E+0	1.314068E+0	1.320065E+0	1.285394E+0	1.359592E+0	1.368591E+0	1.279584E+0	1.368639E+0	1.332557E+0	1.234764E+0
5.512570E+2	1.396066E+0	1.418839E+0	1.384034E+0	1.421008E+0	1.367110E+0	1.379616E+0	1.429529E+0	1.374208E+0	1.365817E+0	1.335742E+0	1.376083E+0	1.357729E+0	1.371859E+0	1.373012E+0	1.365131E+0	1.424609E+0	1.356459E+0	1.353952E+0	1.374760E+0	1.401569E+0	1.456327E+0	1.343813E+0	1.380664E+0	1.350386E+0	1.331341E+0	1.396357E+0	1.412878E+0	1.412287E+0	1.423793E+0	1.397837E+0	1.342545E+0	1.373369E+0	1.310964E+0	1.391119E+0	1.368499E+0	1.440174E+0	1.361099E+0	1.359869E+0	1.427065E+0	1.326462E+0	1.444045E+0	1.373294E+0	1.349335E+0	1.370237E+0	1.299551E+0	1.396941E+0	1.404853E+0	1.436112E+0	1.388287E+0	1.342630E+0	1.353024E+0	1.381637E+0	1.386991E+0	1.337720E+0	1.373771E+0	1.440980E+0	1.347037E+0	1.394377E+0	1.288206E+0	1.393831E+0	1.371407E+0	1.412642E+0	1.344297E+0	1.377621E+0	1.306969E+0	1.318002E+0	1.397511E+0	1.387628E+0	1.375666E+0	1.355271E+0	1.369868E+0	1.376319E+0	1.383769E+0	1.353410E+0	1.389054E+0	1.384116E+0	1.396328E+0	1.337828E+0	1.370800E+0	1.474252E+0	1.281116E+0	1.390478E+0	1.414959E+0	1.447082E+0	1.407979E+0	1.333966E+0	1.374352E+0	1.419570E+0	1.408774E+0	1.360850E+0	1.335425E+0	1.406855E+0	1.420156E+0	1.322764E+0	1.378751E+0	1.379343E+0	1.366813E+0	1.375184E+0	1.354740E+0	1.422899E+0	1.391609E+0	1.375403E+0	1.400017E+0	1.341754E+0	1.374729E+0	1.333204E+0	1.360184E+0	1.400680E+0	1.387281E+0	1.351730E+0	1.329494E+0	1.363393E+0	1.347242E+0	1.389370E+0	1.335984E+0	1.366440E+0	1.411753E+0	1.328729E+0	1.362617E+0	1.358600E+0	1.381161E+0	1.356203E+0	1.355357E+0	1.351246E+0	1.381032E+0	1.342327E+0	1.355008E+0	1.342094E+0	1.321034E+0	1.332081E+0	1.346680E+0	1.327347E+0	1.348126E+0	1.322676E+0	1.345114E+0	1.357912E+0	1.345030E+0	1.359168E+0	1.378772E+0	1.364925E+0	1.321502E+0	1.366221E+0	1.404020E+0	1.402662E+0	1.350984E+0	1.349799E+0	1.330832E+0	1.368736E+0	1.393328E+0	1.298001E+0	1.345400E+0	1.322858E+0	1.376331E+0	1.333888E+0	1.333394E+0	1.350433E+0	1.335053E+0	1.351858E+0	1.331892E+0	1.388121E+0	1.397168E+0	1.344734E+0	1.347628E+0	1.403642E+0	1.370806E+0	1.362822E+0	1.378420E+0	1.400688E+0	1.387373E+0	1.311007E+0
5.520260E+2	1.418241E+0	1.355155E+0	1.363993E+0	1.355215E+0	1.434475E+0	1.362843E+0	1.390694E+0	1.374740E+0	1.381241E+0	1.306379E+0	1.366280E+0	1.333121E+0	1.393289E+0	1.426719E+0	1.406074E+0	1.369507E+0	1.370470E+0	1.346480E+0	1.321219E+0	1.346577E+0	1.379900E+0	1.386191E+0	1.431164E+0	1.378285E+0	1.367615E+0	1.375035E+0	1.405983E+0	1.310904E+0	1.336130E+0	1.326685E+0	1.339930E+0	1.353666E+0	1.418768E+0	1.327016E+0	1.392922E+0	1.383022E+0	1.339707E+0	1.363512E+0	1.357574E+0	1.364988E+0	1.412636E+0	1.381072E+0	1.387091E+0	1.391010E+0	1.375990E+0	1.366238E+0	1.370693E+0	1.399045E+0	1.373149E+0	1.322267E+0	1.345810E+0	1.377812E+0	1.371492E+0	1.336106E+0	1.349944E+0	1.419019E+0	1.344400E+0	1.429603E+0	1.353630E+0	1.452563E+0	1.341478E+0	1.384472E+0	1.368768E+0	1.380522E+0	1.343742E+0	1.377593E+0	1.352719E+0	1.339026E+0	1.365969E+0	1.412394E+0	1.400628E+0	1.392719E+0	1.401469E+0	1.344018E+0	1.361025E+0	1.358194E+0	1.382975E+0	1.370900E+0	1.339556E+0	1.415862E+0	1.344997E+0	1.314100E+0	1.371584E+0	1.412048E+0	1.366670E+0	1.317735E+0	1.309568E+0	1.352149E+0	1.350513E+0	1.346943E+0	1.386469E+0	1.416975E+0	1.332328E+0	1.351596E+0	1.364539E+0	1.375724E+0	1.350555E+0	1.390306E+0	1.278974E+0	1.391972E+0	1.418814E+0	1.348189E+0	1.333455E+0	1.353282E+0	1.357234E+0	1.300096E+0	1.350036E+0	1.334212E+0	1.345899E+0	1.380470E+0	1.380017E+0	1.390812E+0	1.373902E+0	1.358507E+0	1.342398E+0	1.321656E+0	1.346280E+0	1.403642E+0	1.362053E+0	1.313290E+0	1.356096E+0	1.334424E+0	1.390936E+0	1.381830E+0	1.334585E+0	1.338913E+0	1.353961E+0	1.373918E+0	1.411507E+0	1.345605E+0	1.317618E+0	1.374323E+0	1.327167E+0	1.304578E+0	1.327188E+0	1.401679E+0	1.393232E+0	1.326008E+0	1.367327E+0	1.364548E+0	1.341241E+0	1.399023E+0	1.384022E+0	1.329873E+0	1.281748E+0	1.335248E+0	1.391139E+0	1.414814E+0	1.360683E+0	1.319130E+0	1.395148E+0	1.357247E+0	1.378703E+0	1.372471E+0	1.384839E+0	1.417519E+0	1.325761E+0	1.335331E+0	1.367368E+0	1.389396E+0	1.332816E+0	1.342949E+0	1.388898E+0	1.339151E+0	1.366020E+0	1.367609E+0	1.419243E+0	1.403674E+0	1.449987E+0	1.335549E+0
5.527590E+2	1.299980E+0	1.323784E+0	1.233449E+0	1.310170E+0	1.312065E+0	1.250226E+0	1.292319E+0	1.308870E+0	1.220341E+0	1.235059E+0	1.223627E+0	1.231396E+0	1.235403E+0	1.281861E+0	1.271665E+0	1.206099E+0	1.247181E+0	1.273938E+0	1.346614E+0	1.279994E+0	1.290393E+0	1.259608E+0	1.250994E+0	1.304548E+0	1.290479E+0	1.279283E+0	1.241878E+0	1.200855E+0	1.281993E+0	1.273699E+0	1.243440E+0	1.289798E+0	1.271698E+0	1.268906E+0	1.237850E+0	1.272946E+0	1.232174E+0	1.251146E+0	1.233829E+0	1.260193E+0	1.298964E+0	1.275901E+0	1.279310E+0	1.261247E+0	1.281600E+0	1.301493E+0	1.273698E+0	1.277536E+0	1.247075E+0	1.239079E+0	1.269701E+0	1.228442E+0	1.292951E+0	1.290755E+0	1.181687E+0	1.274954E+0	1.257632E+0	1.242011E+0	1.318258E+0	1.310732E+0	1.223970E+0	1.286265E+0	1.250762E+0	1.284171E+0	1.211002E+0	1.249205E+0	1.227787E+0	1.201566E+0	1.227432E+0	1.287751E+0	1.291930E+0	1.286452E+0	1.258058E+0	1.278900E+0	1.264315E+0	1.272716E+0	1.262681E+0	1.246442E+0	1.239304E+0	1.301448E+0	1.279582E+0	1.239620E+0	1.273719E+0	1.294502E+0	1.300549E+0	1.245243E+0	1.271913E+0	1.267095E+0	1.290813E+0	1.296726E+0	1.257535E+0	1.289743E+0	1.229609E+0	1.244887E+0	1.281773E+0	1.270213E+0	1.265645E+0	1.307317E+0	1.228137E+0	1.258983E+0	1.234395E+0	1.286961E+0	1.248521E+0	1.212315E+0	1.228646E+0	1.272965E+0	1.243693E+0	1.276933E+0	1.216392E+0	1.261466E+0	1.254553E+0	1.249695E+0	1.307757E+0	1.241805E+0	1.255480E+0	1.264732E+0	1.264292E+0	1.296469E+0	1.250715E+0	1.217698E+0	1.259582E+0	1.292894E+0	1.296208E+0	1.299559E+0	1.265057E+0	1.253214E+0	1.261489E+0	1.294746E+0	1.254376E+0	1.281475E+0	1.241701E+0	1.241793E+0	1.261006E+0	1.207069E+0	1.325834E+0	1.250412E+0	1.243532E+0	1.249480E+0	1.260779E+0	1.261074E+0	1.241687E+0	1.208193E+0	1.259128E+0	1.284034E+0	1.283435E+0	1.300313E+0	1.262765E+0	1.319345E+0	1.285441E+0	1.243300E+0	1.294148E+0	1.238595E+0	1.279686E+0	1.239864E+0	1.257391E+0	1.295599E+0	1.225344E+0	1.269796E+0	1.269771E+0	1.295657E+0	1.308984E+0	1.265803E+0	1.206303E+0	1.233930E+0	1.289743E+0	1.265230E+0	1.252720E+0	1.263455E+0	1.321866E+0	1.291280E+0
5.535330E+2	1.260535E+0	1.253321E+0	1.215828E+0	1.237522E+0	1.255886E+0	1.261746E+0	1.258196E+0	1.259120E+0	1.253524E+0	1.201762E+0	1.210788E+0	1.243147E+0	1.256311E+0	1.247173E+0	1.183097E+0	1.206357E+0	1.226179E+0	1.285126E+0	1.257827E+0	1.233481E+0	1.293933E+0	1.238950E+0	1.269909E+0	1.199184E+0	1.210461E+0	1.275525E+0	1.286332E+0	1.213489E+0	1.235923E+0	1.253935E+0	1.258980E+0	1.245615E+0	1.223539E+0	1.186983E+0	1.271253E+0	1.264285E+0	1.239650E+0	1.197680E+0	1.244106E+0	1.191671E+0	1.312045E+0	1.225022E+0	1.255469E+0	1.240259E+0	1.230017E+0	1.236025E+0	1.232683E+0	1.201891E+0	1.223590E+0	1.240784E+0	1.238601E+0	1.257240E+0	1.315504E+0	1.208263E+0	1.249995E+0	1.248853E+0	1.258412E+0	1.228230E+0	1.215663E+0	1.217926E+0	1.238051E+0	1.245726E+0	1.186885E+0	1.199702E+0	1.214353E+0	1.209580E+0	1.294436E+0	1.228293E+0	1.216682E+0	1.235604E+0	1.241765E+0	1.209852E+0	1.201070E+0	1.227457E+0	1.236664E+0	1.179219E+0	1.192668E+0	1.204151E+0	1.240296E+0	1.200622E+0	1.230728E+0	1.246524E+0	1.263341E+0	1.255439E+0	1.259469E+0	1.226163E+0	1.225093E+0	1.211848E+0	1.188445E+0	1.238130E+0	1.264734E+0	1.261166E+0	1.252383E+0	1.244937E+0	1.202657E+0	1.235293E+0	1.283488E+0	1.194450E+0	1.200309E+0	1.293163E+0	1.253063E+0	1.218600E+0	1.233246E+0	1.284898E+0	1.186097E+0	1.240937E+0	1.194741E+0	1.234481E+0	1.278598E+0	1.268619E+0	1.231651E+0	1.200374E+0	1.191823E+0	1.227711E+0	1.230085E+0	1.164778E+0	1.253931E+0	1.236941E+0	1.213672E+0	1.189647E+0	1.206570E+0	1.201761E+0	1.218101E+0	1.178564E+0	1.276858E+0	1.237980E+0	1.226460E+0	1.195986E+0	1.213408E+0	1.238591E+0	1.210208E+0	1.209958E+0	1.186236E+0	1.218302E+0	1.192064E+0	1.211193E+0	1.221057E+0	1.199088E+0	1.241473E+0	1.280982E+0	1.200029E+0	1.279151E+0	1.235428E+0	1.194592E+0	1.241376E+0	1.186630E+0	1.245602E+0	1.272210E+0	1.241311E+0	1.242618E+0	1.270639E+0	1.218651E+0	1.256299E+0	1.225376E+0	1.197686E+0	1.236323E+0	1.187382E+0	1.222800E+0	1.233301E+0	1.226851E+0	1.226530E+0	1.248898E+0	1.234966E+0	1.181805E+0	1.236989E+0	1.236255E+0	1.216500E+0	1.244957E+0	1.214834E+0	1.155790E+0
5.542580E+2	1.179923E+0	1.160841E+0	1.148173E+0	1.164884E+0	1.199698E+0	1.148275E+0	1.139268E+0	1.109498E+0	1.098466E+0	1.163935E+0	1.116548E+0	1.136690E+0	1.137775E+0	1.170816E+0	1.154276E+0	1.161665E+0	1.205886E+0	1.137838E+0	1.163194E+0	1.141748E+0	1.160738E+0	1.128244E+0	1.137057E+0	1.140167E+0	1.199884E+0	1.152687E+0	1.126095E+0	1.131161E+0	1.155714E+0	1.150038E+0	1.128126E+0	1.115736E+0	1.146646E+0	1.183180E+0	1.126793E+0	1.147849E+0	1.129134E+0	1.133972E+0	1.170734E+0	1.132384E+0	1.207175E+0	1.122707E+0	1.151188E+0	1.127723E+0	1.146917E+0	1.160066E+0	1.149884E+0	1.137455E+0	1.148687E+0	1.100869E+0	1.091512E+0	1.135280E+0	1.184262E+0	1.112600E+0	1.152026E+0	1.148852E+0	1.199566E+0	1.151631E+0	1.092520E+0	1.118659E+0	1.172023E+0	1.159783E+0	1.176096E+0	1.121040E+0	1.124546E+0	1.132700E+0	1.133149E+0	1.148984E+0	1.115897E+0	1.106738E+0	1.136508E+0	1.150931E+0	1.184143E+0	1.156533E+0	1.193838E+0	1.162089E+0	1.156142E+0	1.117375E+0	1.158005E+0	1.111921E+0	1.124038E+0	1.150097E+0	1.197026E+0	1.188230E+0	1.195346E+0	1.148464E+0	1.132471E+0	1.142485E+0	1.162768E+0	1.091763E+0	1.136952E+0	1.150911E+0	1.126096E+0	1.128837E+0	1.147869E+0	1.161267E+0	1.187131E+0	1.164322E+0	1.151659E+0	1.169698E+0	1.176777E+0	1.137898E+0	1.186347E+0	1.125453E+0	1.099527E+0	1.164389E+0	1.115404E+0	1.115490E+0	1.156262E+0	1.108120E+0	1.110889E+0	1.110204E+0	1.167166E+0	1.113265E+0	1.088837E+0	1.160177E+0	1.203366E+0	1.105458E+0	1.109674E+0	1.139702E+0	1.200302E+0	1.150798E+0	1.100656E+0	1.128781E+0	1.186035E+0	1.139083E+0	1.154772E+0	1.123744E+0	1.165699E+0	1.157345E+0	1.141378E+0	1.124376E+0	1.153813E+0	1.183043E+0	1.144685E+0	1.142499E+0	1.177655E+0	1.134116E+0	1.100792E+0	1.181344E+0	1.196192E+0	1.149064E+0	1.168357E+0	1.170979E+0	1.084411E+0	1.075187E+0	1.152276E+0	1.141419E+0	1.131832E+0	1.123284E+0	1.172150E+0	1.117973E+0	1.167126E+0	1.171288E+0	1.119671E+0	1.208161E+0	1.121861E+0	1.154728E+0	1.089784E+0	1.215865E+0	1.154693E+0	1.146072E+0	1.109042E+0	1.168162E+0	1.181194E+0	1.091213E+0	1.182109E+0	1.234581E+0	1.170745E+0	1.213314E+0
5.550140E+2	1.005364E+0	9.879205E-1	1.019948E+0	1.042517E+0	9.966640E-1	1.031895E+0	1.022547E+0	1.038184E+0	9.896177E-1	9.929403E-1	1.022048E+0	9.663421E-1	1.041526E+0	9.820805E-1	1.021412E+0	9.913549E-1	1.032142E+0	1.048441E+0	1.026446E+0	1.016185E+0	1.035649E+0	9.869474E-1	1.051208E+0	9.948615E-1	9.822214E-1	1.020944E+0	1.034362E+0	9.920746E-1	9.848027E-1	9.732889E-1	1.002864E+0	1.044795E+0	9.999844E-1	1.035790E+0	1.030908E+0	1.007385E+0	1.025630E+0	9.904443E-1	9.981581E-1	1.014512E+0	1.045646E+0	1.058718E+0	9.925638E-1	9.807059E-1	1.023154E+0	1.022468E+0	1.042463E+0	9.978042E-1	1.093492E+0	9.875077E-1	1.027636E+0	9.964511E-1	1.032561E+0	9.886600E-1	9.844709E-1	1.011341E+0	9.951155E-1	1.002873E+0	1.042058E+0	1.042245E+0	1.006850E+0	1.043771E+0	9.933446E-1	9.632783E-1	1.051371E+0	1.014970E+0	1.008729E+0	1.011608E+0	1.060767E+0	9.754474E-1	9.698773E-1	1.078915E+0	1.032580E+0	1.026108E+0	1.009273E+0	1.002037E+0	1.012374E+0	9.988077E-1	9.863618E-1	1.009484E+0	1.022101E+0	1.027198E+0	1.035469E+0	1.010732E+0	1.008232E+0	1.017667E+0	1.011234E+0	1.032831E+0	1.021514E+0	1.038286E+0	1.019945E+0	1.020181E+0	1.022872E+0	1.043307E+0	1.020007E+0	1.012505E+0	1.009326E+0	1.051820E+0	9.976442E-1	1.036654E+0	1.048891E+0	1.013256E+0	1.028269E+0	1.026480E+0	1.056414E+0	1.003743E+0	1.033933E+0	9.537105E-1	1.010809E+0	9.872371E-1	1.002254E+0	1.008282E+0	1.029714E+0	1.053458E+0	9.640169E-1	1.031529E+0	9.797103E-1	1.073476E+0	1.013641E+0	1.001812E+0	1.000189E+0	9.765048E-1	1.035649E+0	9.800493E-1	1.013393E+0	1.008483E+0	1.041300E+0	1.024133E+0	1.023060E+0	9.958815E-1	9.904203E-1	1.033818E+0	1.000197E+0	1.027521E+0	9.999419E-1	9.812683E-1	1.026755E+0	1.043172E+0	9.956153E-1	1.047211E+0	9.988242E-1	1.020775E+0	1.045917E+0	1.020919E+0	9.648395E-1	9.961337E-1	1.027949E+0	1.029505E+0	9.751203E-1	9.935792E-1	1.053543E+0	1.045138E+0	1.020351E+0	1.028232E+0	1.000644E+0	1.041358E+0	1.040885E+0	1.049310E+0	9.982423E-1	1.003196E+0	1.085510E+0	9.962222E-1	9.982487E-1	1.045171E+0	1.044615E+0	9.688890E-1	1.005899E+0	9.806791E-1	1.032409E+0	9.756358E-1
5.557600E+2	1.021662E+0	1.034148E+0	1.008827E+0	1.005627E+0	1.021527E+0	1.006705E+0	1.031044E+0	1.042902E+0	1.018050E+0	9.540494E-1	9.947094E-1	9.979163E-1	9.911372E-1	1.057580E+0	9.825308E-1	1.002400E+0	1.030431E+0	1.014554E+0	1.039589E+0	9.653442E-1	1.030818E+0	1.024523E+0	9.713215E-1	9.966750E-1	1.013864E+0	1.017384E+0	9.949540E-1	1.027073E+0	9.727551E-1	9.985823E-1	1.003583E+0	1.026671E+0	1.031971E+0	9.809179E-1	9.983175E-1	1.002892E+0	1.019563E+0	1.014183E+0	1.037720E+0	1.021452E+0	1.054376E+0	1.002584E+0	9.959099E-1	1.005117E+0	1.037495E+0	1.036537E+0	1.048287E+0	9.814353E-1	9.888103E-1	9.900555E-1	1.023576E+0	9.922945E-1	1.046425E+0	1.045273E+0	9.699753E-1	1.023803E+0	1.021621E+0	1.043355E+0	9.973314E-1	9.794559E-1	9.842331E-1	1.019345E+0	1.012439E+0	9.936813E-1	9.503213E-1	9.739735E-1	9.939901E-1	1.008997E+0	1.026830E+0	1.012604E+0	1.006782E+0	1.023791E+0	9.950730E-1	9.867839E-1	9.867845E-1	1.068173E+0	1.022611E+0	1.001094E+0	1.039248E+0	1.022782E+0	1.004613E+0	9.796065E-1	1.017883E+0	1.050847E+0	9.763610E-1	9.855708E-1	1.029063E+0	9.977523E-1	9.953924E-1	1.014015E+0	1.005802E+0	1.053896E+0	9.950488E-1	1.005229E+0	9.996027E-1	1.026166E+0	1.002503E+0	9.930275E-1	9.553116E-1	9.691007E-1	1.013763E+0	9.936084E-1	1.012885E+0	9.926510E-1	1.054446E+0	9.852725E-1	1.005917E+0	9.794387E-1	1.007353E+0	1.006252E+0	1.002761E+0	9.990763E-1	1.023544E+0	1.042542E+0	9.558241E-1	9.953374E-1	1.050259E+0	9.983567E-1	1.004949E+0	9.520346E-1	1.060119E+0	9.734503E-1	9.542098E-1	1.015805E+0	1.046796E+0	9.953431E-1	1.004968E+0	9.737090E-1	9.975425E-1	9.729988E-1	1.013541E+0	1.011995E+0	1.061935E+0	9.968398E-1	1.006205E+0	1.026683E+0	1.014277E+0	9.742875E-1	1.007057E+0	1.037465E+0	9.619553E-1	1.000123E+0	1.018218E+0	1.017017E+0	9.938190E-1	9.981709E-1	9.885764E-1	1.014224E+0	1.012357E+0	1.019497E+0	9.939876E-1	9.897893E-1	9.785539E-1	1.019935E+0	1.034089E+0	1.049466E+0	1.005778E+0	1.035537E+0	1.017139E+0	1.039684E+0	1.031993E+0	9.829567E-1	1.043437E+0	9.939061E-1	1.002979E+0	9.953836E-1	1.062589E+0	1.018565E+0	1.149851E+0	9.940022E-1
5.560190E+2	9.949549E-1	1.008757E+0	1.002932E+0	9.882270E-1	1.042257E+0	9.877014E-1	1.015654E+0	9.873894E-1	9.650689E-1	1.008920E+0	9.733130E-1	1.016252E+0	1.005904E+0	9.988032E-1	9.789847E-1	1.021541E+0	1.023647E+0	1.008441E+0	9.542582E-1	1.033810E+0	1.016639E+0	9.989299E-1	1.018437E+0	9.902228E-1	9.956622E-1	9.951253E-1	1.010975E+0	9.650756E-1	9.974514E-1	9.970779E-1	1.024921E+0	1.009317E+0	9.759524E-1	9.866140E-1	9.729428E-1	1.018425E+0	1.009536E+0	1.017515E+0	9.926527E-1	1.021356E+0	1.003099E+0	9.701014E-1	9.668780E-1	1.025271E+0	1.031387E+0	1.018206E+0	1.053007E+0	9.973198E-1	1.015927E+0	1.036518E+0	9.679853E-1	1.011494E+0	1.008787E+0	9.342910E-1	1.002232E+0	1.034520E+0	1.005311E+0	9.612413E-1	9.553649E-1	9.922382E-1	1.039302E+0	9.876184E-1	9.941360E-1	9.888705E-1	1.007338E+0	9.898422E-1	1.033763E+0	1.000381E+0	9.894957E-1	9.986420E-1	9.820971E-1	9.890757E-1	1.023055E+0	9.719434E-1	9.680924E-1	1.001041E+0	9.910559E-1	9.664777E-1	1.036420E+0	1.025308E+0	1.027812E+0	1.048212E+0	1.000347E+0	9.794684E-1	9.717357E-1	1.023751E+0	1.008624E+0	9.985252E-1	1.025285E+0	9.892732E-1	1.003873E+0	1.005954E+0	9.937481E-1	9.852148E-1	9.904442E-1	1.030408E+0	1.035907E+0	9.936384E-1	1.004703E+0	9.542173E-1	1.028316E+0	9.828668E-1	9.887986E-1	9.698139E-1	1.005302E+0	1.006244E+0	9.549678E-1	1.019287E+0	9.677711E-1	1.001417E+0	1.002878E+0	1.010398E+0	1.020582E+0	1.009814E+0	1.018271E+0	1.020459E+0	9.852629E-1	1.023860E+0	1.012538E+0	9.960584E-1	1.024974E+0	9.874389E-1	9.673003E-1	9.966796E-1	1.007070E+0	9.892777E-1	1.013353E+0	9.875718E-1	1.018501E+0	1.005437E+0	1.049194E+0	1.013140E+0	9.659997E-1	9.913882E-1	9.599991E-1	9.947542E-1	9.704076E-1	9.836514E-1	9.914700E-1	9.740976E-1	1.013042E+0	1.004359E+0	1.009574E+0	9.746878E-1	9.935261E-1	9.875464E-1	9.767386E-1	1.001235E+0	1.013645E+0	1.003307E+0	9.826113E-1	9.705325E-1	1.015073E+0	9.817294E-1	9.957040E-1	9.777229E-1	9.953248E-1	1.041321E+0	1.033491E+0	1.003034E+0	1.024963E+0	1.009982E+0	9.984390E-1	9.975293E-1	1.045234E+0	1.037754E+0	1.010241E+0	9.980060E-1	9.698032E-1	1.045561E+0
5.565370E+2	9.475916E-1	9.737198E-1	9.501692E-1	9.317972E-1	9.452479E-1	9.019739E-1	9.061899E-1	9.080155E-1	9.609944E-1	9.194267E-1	9.196543E-1	9.421105E-1	9.619496E-1	8.984362E-1	9.465977E-1	9.293024E-1	9.415803E-1	9.041260E-1	9.089070E-1	9.614959E-1	9.710605E-1	8.962741E-1	9.647855E-1	9.081992E-1	9.131758E-1	9.221340E-1	9.147314E-1	9.698213E-1	8.924022E-1	9.298001E-1	9.199494E-1	9.446060E-1	9.995400E-1	9.262555E-1	9.388474E-1	9.045318E-1	9.495047E-1	9.165951E-1	9.396647E-1	9.588315E-1	9.605801E-1	9.818740E-1	9.436758E-1	9.739913E-1	8.756018E-1	9.521920E-1	9.404040E-1	9.478442E-1	9.516914E-1	9.416964E-1	9.562743E-1	9.448385E-1	9.711940E-1	9.023661E-1	9.469448E-1	9.223114E-1	9.350117E-1	9.172812E-1	1.008625E+0	9.334985E-1	9.683966E-1	9.807749E-1	9.629966E-1	9.543550E-1	9.564647E-1	9.778016E-1	8.958789E-1	9.401762E-1	9.719478E-1	9.412468E-1	9.429257E-1	9.118033E-1	9.265377E-1	9.501843E-1	9.265137E-1	9.358185E-1	9.638990E-1	9.686934E-1	9.389351E-1	9.289748E-1	9.465712E-1	9.584945E-1	9.734746E-1	9.543920E-1	9.856031E-1	9.054598E-1	9.086460E-1	9.406825E-1	9.361584E-1	9.492720E-1	9.292440E-1	9.498485E-1	9.461470E-1	9.651392E-1	9.307718E-1	9.038766E-1	9.457301E-1	9.115740E-1	9.495849E-1	9.369515E-1	9.219467E-1	9.315397E-1	9.276040E-1	9.121767E-1	9.381729E-1	9.592774E-1	9.452760E-1	9.677341E-1	9.572780E-1	9.097418E-1	9.316512E-1	9.824485E-1	9.458716E-1	9.042084E-1	9.223604E-1	9.508871E-1	9.533003E-1	9.467484E-1	9.513409E-1	9.362228E-1	9.394301E-1	9.488216E-1	9.179511E-1	9.413255E-1	9.388493E-1	9.539343E-1	9.569897E-1	9.262128E-1	9.497187E-1	9.067882E-1	9.326527E-1	9.421575E-1	9.882739E-1	9.613168E-1	9.260031E-1	9.485351E-1	9.374937E-1	9.201999E-1	9.772879E-1	9.260076E-1	9.127889E-1	9.431016E-1	9.176614E-1	9.295311E-1	9.487471E-1	9.658158E-1	9.456499E-1	9.515265E-1	9.697979E-1	9.322158E-1	9.245932E-1	9.507940E-1	9.620672E-1	9.266355E-1	9.703792E-1	9.507618E-1	9.681774E-1	9.442096E-1	9.469822E-1	9.363453E-1	9.235393E-1	8.821678E-1	9.518961E-1	9.629429E-1	9.379312E-1	8.966552E-1	9.271518E-1	9.673163E-1	8.863355E-1	8.898997E-1
5.570050E+2	9.892275E-1	1.048177E+0	9.937270E-1	1.060222E+0	1.020227E+0	1.043411E+0	1.055254E+0	9.550245E-1	1.049873E+0	1.018876E+0	1.051790E+0	1.065601E+0	1.023002E+0	1.048286E+0	1.057620E+0	1.027372E+0	1.024960E+0	1.052949E+0	1.019385E+0	1.021248E+0	1.017221E+0	1.037748E+0	1.085082E+0	1.070074E+0	1.055184E+0	1.026776E+0	1.018788E+0	1.049535E+0	1.014345E+0	1.039552E+0	1.005069E+0	1.036775E+0	1.042583E+0	1.051056E+0	1.014675E+0	9.824214E-1	1.021367E+0	1.005151E+0	1.052343E+0	1.072418E+0	1.060965E+0	1.001012E+0	1.033709E+0	9.822865E-1	1.002255E+0	1.029998E+0	9.882705E-1	1.047677E+0	1.084628E+0	1.024359E+0	1.025619E+0	9.886474E-1	1.033699E+0	1.034327E+0	1.044079E+0	9.854369E-1	9.971276E-1	1.059534E+0	9.966843E-1	1.016396E+0	1.024255E+0	1.023925E+0	1.002588E+0	1.056164E+0	1.053804E+0	1.032306E+0	1.042746E+0	1.003670E+0	1.038633E+0	1.028255E+0	1.052734E+0	1.011931E+0	1.068348E+0	1.032074E+0	1.044828E+0	1.066126E+0	1.034455E+0	1.055670E+0	1.011607E+0	1.032338E+0	1.026192E+0	1.032725E+0	9.963530E-1	1.018386E+0	1.016082E+0	1.039733E+0	1.031876E+0	1.030379E+0	1.044959E+0	1.038467E+0	1.044830E+0	1.000241E+0	1.019511E+0	1.011183E+0	1.055655E+0	1.024184E+0	1.011843E+0	1.044331E+0	1.110245E+0	1.082294E+0	1.045913E+0	1.023406E+0	1.021319E+0	1.033884E+0	1.028295E+0	1.023928E+0	1.033281E+0	1.019898E+0	1.028940E+0	1.043925E+0	1.081993E+0	1.011462E+0	1.007924E+0	1.031842E+0	1.034208E+0	1.026942E+0	1.032944E+0	1.020871E+0	1.012944E+0	1.019553E+0	1.033019E+0	1.001444E+0	1.040923E+0	1.044008E+0	1.050731E+0	9.938473E-1	1.047877E+0	1.009668E+0	1.068315E+0	1.031833E+0	1.058681E+0	9.965909E-1	1.023150E+0	9.954090E-1	1.069615E+0	1.020576E+0	1.002938E+0	1.044902E+0	1.023538E+0	1.075571E+0	1.036240E+0	1.066127E+0	1.062901E+0	1.024153E+0	9.972674E-1	1.025947E+0	1.030663E+0	1.047915E+0	1.009360E+0	1.028993E+0	1.027342E+0	1.052646E+0	9.805249E-1	1.025360E+0	9.773740E-1	1.034237E+0	1.039629E+0	1.049292E+0	1.014695E+0	1.031854E+0	1.049406E+0	1.067415E+0	1.004174E+0	1.023899E+0	1.015245E+0	1.024731E+0	1.034931E+0	1.022973E+0	1.035744E+0	1.008303E+0
5.575130E+2	1.060356E+0	1.041982E+0	1.022787E+0	1.034261E+0	1.010434E+0	1.023078E+0	1.051564E+0	1.051031E+0	1.078017E+0	1.045331E+0	1.034774E+0	9.602454E-1	1.039944E+0	1.049579E+0	1.035862E+0	1.065819E+0	1.035986E+0	1.025554E+0	1.094959E+0	1.010179E+0	1.041607E+0	1.073322E+0	1.024973E+0	1.010667E+0	1.040576E+0	1.046085E+0	1.035647E+0	1.063100E+0	1.078069E+0	1.010168E+0	1.034617E+0	9.980320E-1	1.038599E+0	1.033033E+0	1.004761E+0	1.010808E+0	1.023223E+0	1.046148E+0	1.037529E+0	1.032011E+0	1.033666E+0	1.056551E+0	1.016857E+0	9.965478E-1	1.031297E+0	1.015214E+0	1.020365E+0	1.005569E+0	1.056026E+0	1.027423E+0	9.905186E-1	1.070924E+0	1.062048E+0	1.042156E+0	1.000893E+0	1.053427E+0	1.025751E+0	1.020583E+0	1.037701E+0	1.053027E+0	9.686559E-1	1.022519E+0	9.999007E-1	1.031042E+0	1.022653E+0	9.825618E-1	1.002622E+0	1.048925E+0	1.033380E+0	1.062278E+0	1.079761E+0	1.091070E+0	1.018235E+0	1.009295E+0	1.049246E+0	1.048272E+0	1.063629E+0	9.919801E-1	1.005204E+0	1.090642E+0	1.066191E+0	1.036150E+0	1.021884E+0	1.064802E+0	1.050790E+0	1.075178E+0	1.053664E+0	1.017054E+0	1.049750E+0	1.055971E+0	1.055570E+0	1.016114E+0	1.015817E+0	1.030107E+0	1.000627E+0	1.059784E+0	1.029544E+0	1.041366E+0	1.025970E+0	1.054896E+0	1.056130E+0	1.024279E+0	9.900970E-1	1.040530E+0	1.043814E+0	1.032390E+0	1.033057E+0	1.069909E+0	1.049044E+0	1.006337E+0	1.017639E+0	1.014034E+0	1.052854E+0	1.014365E+0	1.053266E+0	1.024220E+0	1.021047E+0	1.023505E+0	1.040361E+0	1.037512E+0	1.052739E+0	1.057298E+0	1.050132E+0	1.037013E+0	1.055316E+0	1.001151E+0	1.048144E+0	1.029772E+0	9.808630E-1	1.023508E+0	9.577761E-1	1.055373E+0	1.033012E+0	1.043971E+0	9.972505E-1	1.014362E+0	1.027327E+0	1.087214E+0	1.015482E+0	9.881145E-1	1.032549E+0	1.072998E+0	9.911403E-1	1.015428E+0	1.060135E+0	1.061204E+0	1.044037E+0	1.019298E+0	1.046536E+0	1.043019E+0	1.031203E+0	1.011606E+0	1.044705E+0	1.056119E+0	1.038258E+0	1.034887E+0	1.012847E+0	1.011888E+0	1.048928E+0	1.056723E+0	1.053319E+0	1.044117E+0	1.029077E+0	1.021112E+0	1.040133E+0	1.040756E+0	1.063424E+0	1.074883E+0	1.029995E+0	1.111148E+0
5.580570E+2	9.916827E-1	9.599881E-1	9.758030E-1	9.728274E-1	9.375892E-1	9.589764E-1	9.764410E-1	9.998398E-1	9.358067E-1	9.405799E-1	9.907073E-1	9.588446E-1	9.476043E-1	9.796059E-1	9.736641E-1	9.707681E-1	9.771840E-1	9.844835E-1	9.889039E-1	9.676601E-1	9.476739E-1	9.646305E-1	9.587103E-1	9.731874E-1	1.012371E+0	9.808732E-1	9.688932E-1	9.347051E-1	9.190623E-1	9.449565E-1	9.936215E-1	9.862488E-1	9.652459E-1	9.369074E-1	9.508673E-1	1.031516E+0	9.972851E-1	9.885495E-1	9.843129E-1	9.386734E-1	9.540019E-1	1.021144E+0	9.795519E-1	9.728285E-1	9.990915E-1	9.523643E-1	9.711699E-1	9.582974E-1	9.735817E-1	9.972781E-1	9.636259E-1	9.310701E-1	9.629692E-1	1.008103E+0	9.749929E-1	9.658757E-1	9.638954E-1	1.035482E+0	9.564415E-1	9.406884E-1	9.856067E-1	9.867983E-1	9.731066E-1	9.770973E-1	9.714964E-1	9.661972E-1	9.746027E-1	9.261597E-1	9.754234E-1	9.643520E-1	9.388754E-1	9.523334E-1	9.820568E-1	9.790096E-1	9.788917E-1	9.814297E-1	9.744171E-1	9.461645E-1	9.466722E-1	9.592232E-1	9.828045E-1	9.585007E-1	9.521346E-1	9.785505E-1	9.990538E-1	9.437661E-1	9.588518E-1	9.627386E-1	9.607602E-1	9.808963E-1	9.910567E-1	9.444288E-1	9.879050E-1	9.322194E-1	9.771362E-1	9.755533E-1	9.910535E-1	9.797458E-1	9.844890E-1	9.784233E-1	9.849221E-1	1.009413E+0	9.636495E-1	9.547203E-1	9.871049E-1	9.799284E-1	9.653315E-1	9.589795E-1	9.731042E-1	9.293370E-1	9.632035E-1	9.719245E-1	9.826153E-1	9.799213E-1	9.670237E-1	9.702155E-1	9.622653E-1	9.413058E-1	9.830267E-1	9.744375E-1	9.700229E-1	9.529975E-1	9.857421E-1	9.654983E-1	9.437590E-1	9.976573E-1	9.371110E-1	9.511011E-1	1.008637E+0	9.624717E-1	9.818070E-1	9.746568E-1	9.771458E-1	9.245515E-1	9.971999E-1	9.547563E-1	9.867765E-1	9.684915E-1	9.938105E-1	9.836488E-1	9.459962E-1	9.725299E-1	9.596948E-1	9.637677E-1	1.013838E+0	9.228969E-1	9.597009E-1	9.847492E-1	9.874061E-1	9.723439E-1	9.677073E-1	9.549333E-1	9.997887E-1	1.004214E+0	1.020219E+0	9.910105E-1	1.003782E+0	9.379078E-1	9.529104E-1	9.769547E-1	9.303903E-1	9.452080E-1	9.226746E-1	1.020897E+0	9.328287E-1	9.437602E-1	1.014385E+0	9.296897E-1	9.460993E-1	9.668558E-1
5.585270E+2	1.027124E+0	1.057151E+0	1.037586E+0	1.059804E+0	9.986424E-1	1.045350E+0	1.004822E+0	1.057192E+0	1.019808E+0	1.021169E+0	9.937023E-1	1.070183E+0	1.043735E+0	1.050833E+0	1.021956E+0	1.002498E+0	1.012353E+0	1.006022E+0	1.043670E+0	1.056199E+0	1.012367E+0	1.001371E+0	1.043993E+0	9.949759E-1	1.000070E+0	1.005254E+0	1.041804E+0	1.044365E+0	1.045063E+0	9.835046E-1	1.045416E+0	1.013101E+0	1.036060E+0	1.060158E+0	1.058795E+0	1.037854E+0	1.005385E+0	1.032008E+0	1.035475E+0	1.015916E+0	9.961034E-1	9.954595E-1	1.037036E+0	1.037217E+0	1.044220E+0	1.084306E+0	1.001377E+0	1.045216E+0	1.006957E+0	1.017674E+0	1.053288E+0	1.031301E+0	1.039334E+0	9.993444E-1	1.034642E+0	1.046686E+0	1.028990E+0	1.058542E+0	1.019742E+0	1.013709E+0	1.029235E+0	1.031100E+0	1.080562E+0	1.023843E+0	1.028210E+0	1.023419E+0	1.045862E+0	1.065975E+0	1.024777E+0	1.014507E+0	1.073171E+0	1.005180E+0	1.017704E+0	1.003104E+0	1.021791E+0	1.034359E+0	1.002781E+0	1.015509E+0	1.034221E+0	1.005484E+0	9.906533E-1	9.938782E-1	1.019112E+0	1.013602E+0	1.058944E+0	1.026083E+0	1.034935E+0	1.037115E+0	1.012521E+0	1.020567E+0	1.019530E+0	1.037987E+0	1.057451E+0	1.055859E+0	1.047107E+0	1.017212E+0	1.016006E+0	1.002787E+0	1.017314E+0	1.025084E+0	1.030067E+0	9.802503E-1	1.044950E+0	1.032809E+0	1.053290E+0	1.057329E+0	1.056185E+0	1.032940E+0	1.035583E+0	1.005184E+0	1.011087E+0	1.026856E+0	1.033249E+0	1.010093E+0	1.002377E+0	1.022848E+0	1.018208E+0	1.048651E+0	1.029973E+0	1.002592E+0	1.028223E+0	1.022135E+0	1.044589E+0	1.016896E+0	1.018551E+0	1.036073E+0	1.031608E+0	1.039837E+0	1.042797E+0	1.018797E+0	1.002239E+0	1.025129E+0	1.037686E+0	1.039735E+0	9.887472E-1	1.038306E+0	1.017345E+0	1.023129E+0	1.006136E+0	1.024566E+0	9.989441E-1	9.770644E-1	1.006743E+0	1.081637E+0	9.958779E-1	1.056905E+0	1.003256E+0	9.847773E-1	1.038782E+0	1.015183E+0	1.034836E+0	1.036072E+0	1.041521E+0	1.061885E+0	1.024331E+0	1.006466E+0	1.000900E+0	1.042779E+0	1.024120E+0	1.024274E+0	1.018243E+0	1.006122E+0	1.049597E+0	9.990929E-1	1.060483E+0	1.025760E+0	1.017655E+0	1.043103E+0	1.016401E+0	1.156474E+0
5.590390E+2	9.930554E-1	1.001236E+0	1.016779E+0	1.049173E+0	1.008765E+0	1.012954E+0	9.720432E-1	9.956766E-1	9.796679E-1	1.037141E+0	1.022504E+0	9.882442E-1	1.005334E+0	1.022559E+0	1.002797E+0	1.000575E+0	1.015837E+0	1.021387E+0	1.048257E+0	9.906256E-1	1.000863E+0	1.005422E+0	9.794169E-1	1.037298E+0	1.010666E+0	1.023182E+0	9.681526E-1	1.056761E+0	1.009671E+0	1.016902E+0	1.001174E+0	1.007291E+0	9.928933E-1	9.801814E-1	1.032386E+0	1.013906E+0	1.000516E+0	1.034476E+0	9.873693E-1	1.020202E+0	9.572787E-1	1.036653E+0	1.004017E+0	1.011197E+0	1.033279E+0	9.802282E-1	1.005165E+0	1.018125E+0	1.005720E+0	9.936611E-1	1.019145E+0	1.021309E+0	9.999115E-1	1.040270E+0	9.985056E-1	1.007152E+0	9.819971E-1	1.066952E+0	9.932455E-1	1.042567E+0	9.934980E-1	9.858115E-1	1.032912E+0	1.011398E+0	9.972199E-1	1.031681E+0	1.024329E+0	1.068788E+0	1.007850E+0	1.031958E+0	1.003409E+0	1.056703E+0	9.963299E-1	1.001157E+0	9.938360E-1	1.021452E+0	9.901546E-1	1.039041E+0	1.004915E+0	9.774337E-1	1.012721E+0	1.033760E+0	9.764719E-1	1.030090E+0	9.889685E-1	1.043513E+0	9.948273E-1	9.939813E-1	9.826553E-1	1.022484E+0	1.022291E+0	1.055591E+0	1.003986E+0	1.023566E+0	1.008179E+0	1.008107E+0	9.886672E-1	1.003262E+0	9.857584E-1	1.030628E+0	1.009663E+0	9.972297E-1	9.882578E-1	9.985681E-1	9.630178E-1	9.860679E-1	1.026838E+0	9.887520E-1	1.021082E+0	1.013495E+0	1.020973E+0	9.982414E-1	9.796609E-1	1.031490E+0	1.004732E+0	9.954729E-1	1.002900E+0	9.778898E-1	1.005334E+0	1.022290E+0	1.033991E+0	1.031208E+0	1.003005E+0	9.730060E-1	1.012229E+0	1.033479E+0	1.033081E+0	1.022229E+0	9.840363E-1	1.035157E+0	1.041450E+0	1.038711E+0	1.056259E+0	1.044810E+0	1.037487E+0	1.023183E+0	1.059305E+0	1.019241E+0	1.023834E+0	1.088860E+0	1.040238E+0	9.829839E-1	1.025597E+0	1.024418E+0	1.050082E+0	9.827576E-1	9.962933E-1	1.020641E+0	1.021090E+0	9.902292E-1	1.013666E+0	9.808415E-1	9.992409E-1	1.038277E+0	1.011217E+0	1.019336E+0	9.723483E-1	1.020229E+0	9.944034E-1	9.918271E-1	9.929394E-1	9.786746E-1	1.055226E+0	1.015357E+0	1.011710E+0	9.945054E-1	1.031723E+0	1.023995E+0	1.062705E+0	1.069170E+0
5.595220E+2	9.549295E-1	9.218015E-1	9.536507E-1	9.190385E-1	1.007098E+0	9.848396E-1	9.638435E-1	9.578380E-1	9.983020E-1	9.495786E-1	9.568065E-1	9.460878E-1	9.211577E-1	9.687679E-1	9.023711E-1	9.233725E-1	9.679367E-1	9.513397E-1	9.677891E-1	9.451975E-1	9.526982E-1	9.492868E-1	9.392137E-1	9.740606E-1	9.455662E-1	9.468677E-1	9.500731E-1	9.190607E-1	9.528502E-1	9.636560E-1	9.537642E-1	9.749974E-1	9.194154E-1	9.493429E-1	9.773616E-1	9.528869E-1	9.444411E-1	9.351681E-1	9.376620E-1	9.523039E-1	9.658469E-1	9.271190E-1	9.529434E-1	9.539128E-1	9.611208E-1	8.999204E-1	9.676618E-1	9.777056E-1	9.268691E-1	9.563956E-1	9.524145E-1	1.006974E+0	9.527939E-1	9.922933E-1	9.677060E-1	9.191488E-1	9.719055E-1	9.226534E-1	9.582383E-1	9.199889E-1	9.771388E-1	9.776336E-1	9.242051E-1	9.559274E-1	9.540560E-1	9.555213E-1	9.537693E-1	9.693478E-1	9.251833E-1	9.489239E-1	9.801465E-1	9.608038E-1	9.668016E-1	9.861129E-1	9.701387E-1	9.256012E-1	9.980412E-1	9.863823E-1	9.490625E-1	9.132243E-1	9.429544E-1	9.473131E-1	9.332431E-1	9.669187E-1	9.592412E-1	9.481933E-1	9.794380E-1	9.641137E-1	9.339173E-1	9.550826E-1	9.439552E-1	9.718269E-1	9.407018E-1	9.236545E-1	9.793649E-1	9.570089E-1	9.832637E-1	9.639694E-1	9.370357E-1	9.284071E-1	9.442847E-1	9.973605E-1	9.332435E-1	9.622666E-1	9.309451E-1	9.556036E-1	9.493843E-1	9.377074E-1	9.537836E-1	9.923432E-1	9.691624E-1	9.732245E-1	9.206141E-1	9.591697E-1	9.465469E-1	9.468983E-1	1.011436E+0	9.851754E-1	9.339398E-1	1.005338E+0	9.373577E-1	9.619646E-1	9.962731E-1	9.573578E-1	9.521679E-1	9.706808E-1	8.966603E-1	9.655423E-1	9.540032E-1	9.589313E-1	9.586339E-1	9.179977E-1	9.293329E-1	9.695028E-1	9.823718E-1	9.677223E-1	9.734095E-1	9.675169E-1	9.527804E-1	9.480415E-1	9.581917E-1	9.640741E-1	9.509812E-1	9.600790E-1	8.933150E-1	9.707765E-1	9.844975E-1	9.292551E-1	9.265582E-1	9.629761E-1	9.546545E-1	9.707594E-1	9.602488E-1	9.114817E-1	9.397493E-1	9.853245E-1	9.796519E-1	9.532055E-1	9.307078E-1	9.590963E-1	9.493475E-1	9.519126E-1	9.734457E-1	9.528049E-1	9.248253E-1	9.782590E-1	9.359208E-1	9.090891E-1	9.916016E-1	9.639486E-1
5.600070E+2	1.057032E+0	1.032059E+0	9.970285E-1	1.045788E+0	1.009413E+0	1.005169E+0	1.046027E+0	1.074238E+0	9.886013E-1	1.037631E+0	1.025340E+0	1.060123E+0	1.062119E+0	1.011753E+0	9.973858E-1	1.013590E+0	1.044940E+0	1.020341E+0	1.007010E+0	1.049296E+0	1.000785E+0	1.054418E+0	1.012619E+0	1.034281E+0	1.049061E+0	1.058303E+0	1.022484E+0	1.046847E+0	1.069002E+0	1.103618E+0	9.846798E-1	1.044906E+0	1.038085E+0	9.944368E-1	1.062519E+0	1.017781E+0	1.027037E+0	1.038968E+0	1.008347E+0	1.014301E+0	1.065581E+0	1.022027E+0	1.039696E+0	1.067377E+0	1.025578E+0	1.011883E+0	1.027539E+0	1.016702E+0	1.003877E+0	1.013997E+0	1.046422E+0	1.027232E+0	9.859916E-1	1.018587E+0	1.044492E+0	1.049027E+0	1.026103E+0	1.045996E+0	1.038841E+0	1.032340E+0	1.049413E+0	1.010791E+0	1.022419E+0	1.031336E+0	1.008775E+0	1.015380E+0	9.908697E-1	9.937681E-1	1.050284E+0	1.043867E+0	9.719536E-1	1.032371E+0	1.060274E+0	1.025026E+0	1.042266E+0	1.019249E+0	9.956371E-1	1.024368E+0	1.013119E+0	1.028110E+0	9.898458E-1	9.966753E-1	1.037073E+0	1.033414E+0	1.024319E+0	1.030651E+0	9.905728E-1	1.040657E+0	1.077877E+0	1.017720E+0	9.933395E-1	1.027860E+0	1.011301E+0	1.055419E+0	1.015346E+0	1.051278E+0	1.050780E+0	1.011802E+0	9.907763E-1	1.027598E+0	9.918297E-1	1.044878E+0	1.101227E+0	1.066236E+0	1.039183E+0	1.022810E+0	1.009816E+0	1.016096E+0	1.036586E+0	1.047200E+0	1.041543E+0	1.041174E+0	1.054626E+0	1.041803E+0	1.026356E+0	1.045422E+0	1.019887E+0	1.029312E+0	1.056376E+0	1.006265E+0	1.013314E+0	1.064349E+0	1.033591E+0	1.063427E+0	1.011232E+0	1.005103E+0	1.016484E+0	1.035020E+0	1.043398E+0	1.039396E+0	1.022982E+0	1.043827E+0	1.023650E+0	1.002889E+0	1.047338E+0	1.040147E+0	1.013206E+0	9.931670E-1	9.845913E-1	1.039366E+0	1.052056E+0	1.009439E+0	1.059630E+0	1.041415E+0	1.054509E+0	1.066166E+0	1.011140E+0	1.056740E+0	1.005853E+0	1.051587E+0	1.066691E+0	1.070430E+0	1.035588E+0	1.006247E+0	1.008919E+0	9.828535E-1	1.086089E+0	9.948348E-1	1.045725E+0	9.951405E-1	1.034956E+0	1.082320E+0	1.027135E+0	1.021735E+0	1.041886E+0	1.089272E+0	1.030720E+0	1.035620E+0	1.065422E+0	1.006762E+0
5.605260E+2	1.029882E+0	9.982669E-1	1.044008E+0	1.031561E+0	1.032867E+0	1.066902E+0	1.049582E+0	1.031140E+0	1.087167E+0	1.025990E+0	1.065862E+0	1.036543E+0	1.015134E+0	1.042019E+0	1.111645E+0	1.067634E+0	9.971473E-1	1.037905E+0	1.031269E+0	1.053159E+0	1.051618E+0	1.063363E+0	1.021663E+0	1.060826E+0	1.024742E+0	1.048247E+0	1.055412E+0	1.004631E+0	1.056759E+0	1.036384E+0	1.073691E+0	1.040463E+0	1.036548E+0	1.037586E+0	1.046357E+0	1.082312E+0	1.074125E+0	1.045276E+0	1.100428E+0	1.009249E+0	1.023199E+0	1.026546E+0	1.048004E+0	1.010528E+0	1.042450E+0	1.058700E+0	1.019229E+0	1.039195E+0	1.031502E+0	1.038149E+0	1.075856E+0	1.024222E+0	1.054867E+0	1.073264E+0	1.038475E+0	1.051549E+0	1.076095E+0	9.883368E-1	1.053476E+0	1.070071E+0	9.831204E-1	1.026043E+0	1.073463E+0	1.054184E+0	1.006824E+0	1.055132E+0	1.062147E+0	1.001824E+0	1.025385E+0	1.027715E+0	1.043622E+0	1.020319E+0	1.011975E+0	1.038860E+0	1.048819E+0	1.009832E+0	1.029603E+0	1.065464E+0	1.077332E+0	1.048278E+0	1.063502E+0	1.044262E+0	1.086305E+0	9.728038E-1	1.021671E+0	1.043437E+0	1.068505E+0	1.057494E+0	1.013110E+0	1.046447E+0	1.017120E+0	1.023062E+0	1.063570E+0	1.090253E+0	1.017610E+0	1.045467E+0	1.002348E+0	1.087793E+0	1.030193E+0	1.053038E+0	1.079717E+0	1.013613E+0	1.059331E+0	1.065014E+0	1.054612E+0	1.050949E+0	1.049620E+0	1.002304E+0	1.026257E+0	1.065885E+0	9.837806E-1	1.032155E+0	1.051323E+0	1.076868E+0	1.081089E+0	1.034484E+0	1.028999E+0	1.049717E+0	1.034350E+0	1.026436E+0	1.014288E+0	1.021930E+0	1.052024E+0	1.033094E+0	1.026070E+0	1.012030E+0	1.044022E+0	1.062188E+0	1.018724E+0	1.032425E+0	1.026894E+0	1.052090E+0	1.023968E+0	1.079710E+0	1.030248E+0	1.050549E+0	1.034277E+0	1.026649E+0	1.072341E+0	1.018645E+0	1.022233E+0	1.035786E+0	1.036237E+0	1.028543E+0	1.044463E+0	9.956398E-1	1.061288E+0	1.026079E+0	1.063718E+0	1.044521E+0	1.026607E+0	1.034971E+0	1.008331E+0	1.040493E+0	1.032736E+0	1.042773E+0	1.005283E+0	1.048223E+0	1.036625E+0	1.034352E+0	1.077285E+0	1.065858E+0	1.056497E+0	1.061948E+0	1.048797E+0	1.006269E+0	9.936582E-1	1.032828E+0	1.037252E+0	8.870917E-1
5.610010E+2	9.541643E-1	9.568613E-1	1.005529E+0	9.073012E-1	9.874595E-1	9.696454E-1	9.585787E-1	9.826151E-1	9.366930E-1	9.953575E-1	9.655456E-1	9.557650E-1	9.741171E-1	9.293583E-1	9.711164E-1	9.775272E-1	9.584296E-1	9.874520E-1	9.355917E-1	9.111298E-1	9.874677E-1	9.552336E-1	9.511056E-1	9.462077E-1	9.529275E-1	9.471545E-1	1.013040E+0	9.460986E-1	9.653236E-1	9.743804E-1	9.630974E-1	9.442619E-1	9.550787E-1	1.044429E+0	9.404879E-1	9.475568E-1	9.475794E-1	9.401458E-1	9.242154E-1	9.647393E-1	9.796798E-1	9.615124E-1	9.776328E-1	9.688427E-1	9.537202E-1	9.969880E-1	1.005813E+0	9.463481E-1	9.432203E-1	9.528490E-1	9.488507E-1	9.419867E-1	9.284051E-1	9.549986E-1	9.470372E-1	9.648668E-1	9.878126E-1	9.233980E-1	9.816398E-1	9.854758E-1	9.813793E-1	9.669856E-1	9.337101E-1	9.157834E-1	9.931601E-1	9.701592E-1	9.734109E-1	9.809856E-1	9.576406E-1	9.382555E-1	9.313045E-1	9.684093E-1	9.286845E-1	1.003233E+0	9.555761E-1	9.568185E-1	9.563263E-1	9.402497E-1	9.825120E-1	9.909846E-1	9.507523E-1	9.500296E-1	1.003603E+0	9.875730E-1	9.235929E-1	9.202350E-1	9.700598E-1	9.572595E-1	9.630063E-1	9.238185E-1	9.791895E-1	9.670860E-1	9.598614E-1	9.273844E-1	9.777582E-1	9.271217E-1	9.448565E-1	9.597326E-1	9.639320E-1	9.284620E-1	9.072110E-1	9.951639E-1	9.815236E-1	9.639813E-1	9.562629E-1	9.254719E-1	9.762428E-1	9.863930E-1	9.505709E-1	9.851360E-1	9.760902E-1	9.380826E-1	9.506807E-1	9.404263E-1	9.437687E-1	9.621511E-1	9.637515E-1	9.529647E-1	9.398174E-1	9.732950E-1	9.526417E-1	9.504132E-1	9.084700E-1	9.716958E-1	9.840263E-1	1.006767E+0	9.746701E-1	9.708566E-1	9.310060E-1	9.852554E-1	9.676909E-1	9.403263E-1	9.415225E-1	9.467175E-1	9.637397E-1	9.471091E-1	9.775144E-1	9.658389E-1	9.587286E-1	9.330820E-1	9.877231E-1	9.715374E-1	9.798392E-1	9.563396E-1	9.482391E-1	9.643447E-1	9.867367E-1	9.777836E-1	9.172541E-1	9.556246E-1	9.700880E-1	9.664141E-1	9.529103E-1	9.475575E-1	9.811148E-1	9.746285E-1	9.359686E-1	9.561109E-1	9.714121E-1	9.903997E-1	9.456117E-1	9.662235E-1	9.318376E-1	9.226826E-1	9.409270E-1	9.622775E-1	9.401906E-1	9.624957E-1	9.586414E-1	8.947864E-1
