Photon Energy (eV)	#1	#2	#3	#4	#5	#6	#7	#8	#9	#10	#11	#12	#13	#14	#15	#16	#17	#18	#19	#20	#21	#22	#23	#24	#25	#26	#27	#28	#29	#30	#31	#32	#33	#34	#35	#36	#37	#38	#39	#40	#41	#42	#43	#44	#45	#46	#47	#48	#49	#50	#51	#52	#53	#54	#55	#56	#57	#58	#59	#60	#61	#62	#63	#64	#65	#66	#67	#68	#69	#70	#71	#72	#73	#74	#75	#76	#77	#78	#79	#80	#81	#82	#83	#84	#85	#86	#87	#88	#89	#90	#91	#92	#93	#94	#95	#96	#97	#98	#99	#100	#101	#102	#103	#104	#105	#106	#107	#108	#109	#110	#111	#112	#113	#114	#115	#116	#117	#118	#119	#120	#121	#122	#123	#124	#125	#126	#127	#128	#129	#130	#131	#132	#133	#134	#135	#136	#137	#138	#139	#140	#141	#142	#143	#144	#145	#146	#147	#148	#149	#150	#151	#152	#153	#154	#155	#156	#157	#158	#159	#160	#161	#162	#163	#164	#165	#166	#167	#168	#169	#170	
5.300110E+2	-5.539589E-3	-1.075910E-2	6.058221E-4	-1.145587E-3	-1.514497E-3	-4.539444E-3	-1.498684E-3	-3.543085E-3	3.981711E-3	-6.457508E-3	2.342094E-3	-1.644333E-2	-1.460972E-3	-9.568763E-3	-1.518235E-2	-1.052066E-2	-1.181467E-2	-2.764520E-4	-7.742598E-3	-6.232334E-3	-8.943110E-3	-8.368697E-3	-7.885408E-3	-5.907577E-3	-2.483978E-3	8.707719E-4	-5.739008E-3	-1.025988E-2	-9.048349E-3	-1.160372E-2	-1.318786E-3	-2.916878E-3	-1.343658E-4	4.888190E-3	-8.011243E-3	-7.304133E-3	2.601800E-3	-1.102044E-2	-2.991882E-3	-9.207640E-3	-1.356919E-3	-1.099792E-2	3.857777E-3	-8.013939E-3	-7.113458E-3	-2.589709E-3	-5.235757E-3	-5.148593E-3	-5.972529E-3	-2.734234E-4	-8.125946E-3	-4.489833E-3	-5.286294E-4	-1.436523E-3	-2.902518E-3	-6.322084E-3	-5.774696E-3	-8.434388E-3	1.936810E-3	-1.133491E-2	-1.975840E-3	3.000945E-3	2.746882E-3	-4.282864E-3	-5.700158E-3	-8.759983E-3	-4.583667E-3	-2.924196E-3	-1.081819E-2	6.907694E-3	-1.142330E-2	-7.049991E-3	-8.671706E-3	-1.173313E-2	-7.954883E-3	-3.641791E-3	-6.182137E-3	-3.940349E-3	-1.068705E-2	-4.247911E-3	-8.182456E-3	-9.037578E-3	-7.848526E-3	-1.196529E-2	-4.119954E-4	-1.280983E-2	-5.110642E-3	-2.775354E-4	-1.410883E-2	-7.920752E-3	-2.055238E-2	-5.054336E-3	-8.427160E-3	-7.203206E-3	-7.625236E-3	-4.353105E-3	-1.007294E-2	-5.580046E-4	-4.734327E-3	-4.048665E-3	1.137765E-2	-1.203754E-3	-1.182678E-2	2.853995E-3	-7.804413E-3	-9.441528E-3	-1.721554E-2	-5.495891E-3	-3.190804E-3	8.505594E-3	-1.261943E-2	-7.623526E-3	-7.025061E-3	-1.057313E-2	-1.622651E-3	-2.507965E-3	-5.066412E-3	-1.330708E-2	-1.233908E-2	-5.519223E-3	-3.024626E-3	4.192364E-3	-2.808633E-3	-1.487646E-2	-9.395675E-3	-1.207568E-2	-1.442135E-2	-1.521534E-3	3.057506E-3	-7.923783E-3	-1.293510E-2	-8.298348E-3	-1.184942E-2	-5.219624E-3	-3.943063E-3	-3.079919E-3	-6.539542E-3	-1.650294E-3	-7.020350E-3	-3.523956E-4	-4.673548E-3	-1.089142E-2	-3.948131E-3	-6.202488E-3	-4.739070E-3	-8.856691E-3	6.128720E-3	2.265193E-3	3.556784E-3	-4.466344E-3	-3.373683E-3	2.456479E-3	2.916215E-3	-1.463949E-2	-1.674776E-2	-3.927508E-4	-9.867385E-3	-3.754089E-3	-1.544453E-2	-6.455382E-3	-9.676990E-3	-3.863217E-3	-1.293366E-2	-2.718175E-4	-9.790973E-3	-1.038060E-2	7.806994E-4	1.397011E-3	1.134678E-2	-2.155090E-2
5.305130E+2	-9.347077E-4	-4.028925E-3	-2.897009E-3	-7.584839E-3	3.276849E-3	6.514305E-3	-1.036940E-2	-8.837137E-3	-4.091555E-3	-1.414884E-2	-4.536982E-3	-7.940255E-3	-6.923881E-3	-2.712305E-3	1.369141E-3	-8.165140E-3	-3.736525E-3	-5.847786E-5	8.757165E-3	6.126677E-4	-4.266539E-3	-8.617678E-3	-4.763277E-3	-8.402248E-3	-9.495981E-3	5.318947E-3	-5.427287E-3	-5.166342E-3	-2.918830E-4	4.711043E-3	-6.651411E-4	-1.117753E-2	-8.967714E-3	-4.605983E-3	-5.524371E-3	-9.887784E-3	-9.603037E-3	-6.136267E-3	-1.759406E-3	-9.505811E-3	-7.292351E-3	2.660302E-3	-6.995208E-3	-3.647881E-3	4.083326E-3	-7.905387E-4	-1.565411E-4	-7.736491E-3	-3.069148E-3	-5.025290E-3	-7.846805E-3	2.706475E-3	-1.265355E-2	-6.450280E-3	-1.003799E-2	-4.965104E-3	-2.577179E-3	-7.291850E-3	-5.556665E-3	-5.632735E-3	-9.375029E-3	3.906688E-3	-6.966907E-3	-7.576440E-3	1.562618E-3	-2.628807E-3	4.289236E-3	-7.836821E-3	2.393436E-3	-6.378324E-3	-4.539920E-3	-1.663315E-2	1.963032E-3	-1.142704E-2	-1.426659E-3	-5.646446E-3	-4.698437E-3	-7.549934E-3	-7.722063E-3	-9.241410E-3	-1.406542E-2	6.887770E-4	-4.523228E-3	-9.459565E-3	-8.292252E-3	5.693683E-5	-2.487910E-3	-8.802973E-3	-1.639483E-3	-4.733307E-3	2.385149E-3	-1.222229E-2	-1.269864E-2	-8.840579E-4	1.203037E-3	-3.642690E-3	1.774295E-2	-1.407520E-2	3.823919E-3	-6.027988E-3	-8.927057E-3	-4.031671E-3	-4.812304E-3	-8.857449E-3	-7.530584E-3	-1.389256E-2	-3.624346E-3	4.576580E-3	-1.036184E-2	-6.785622E-3	-1.037001E-2	1.106895E-3	-1.027217E-2	1.739625E-3	-5.429014E-3	-3.287459E-3	-7.067662E-3	-3.270526E-4	-1.192777E-2	7.763042E-4	-3.549739E-4	-8.847941E-3	-1.210925E-2	6.515118E-3	-1.087144E-2	-5.792383E-3	3.590223E-3	-3.232731E-3	-1.810058E-2	-6.906653E-3	-4.684987E-3	-6.619724E-3	-9.825931E-3	1.782022E-3	-7.799949E-3	-1.143836E-2	-5.710909E-3	-1.634221E-2	-1.052625E-3	-1.394525E-2	-5.016935E-3	-7.556371E-3	-8.919918E-3	-1.143269E-2	-3.051223E-3	-1.850384E-3	-1.425731E-2	-1.031162E-2	-9.003781E-3	-5.997628E-3	2.392249E-3	9.739064E-4	-1.390832E-3	2.320031E-3	-1.032616E-2	-1.067958E-2	-1.015903E-2	2.728577E-3	-8.465879E-3	7.015098E-4	-6.031016E-3	-5.932816E-3	-6.636892E-3	-7.773237E-3	5.545707E-3	-2.812021E-4	-1.195310E-2	-2.415790E-3	-1.142627E-2	-1.559457E-2
5.310050E+2	-7.385090E-3	-5.402430E-3	-2.896953E-3	-5.724363E-3	-8.288516E-3	-4.221428E-3	2.967045E-3	-2.802451E-3	-6.837573E-3	-9.539798E-3	-3.466293E-3	3.654834E-3	-8.257919E-4	-3.263011E-3	-6.967350E-3	-3.081321E-3	-3.736482E-3	-3.470731E-3	3.470546E-4	-5.725342E-3	8.708856E-3	1.074789E-2	-1.520882E-4	2.904416E-3	-2.114939E-3	-9.608000E-3	-1.109541E-2	-5.093275E-4	-3.444196E-3	-1.065521E-2	3.670070E-4	5.129611E-3	-2.136370E-3	-5.210684E-3	-5.524401E-3	6.491640E-3	-5.474541E-3	-2.708706E-3	-6.046221E-3	-2.861014E-3	-3.510487E-3	-3.098614E-3	-1.102910E-2	-1.364975E-3	-5.591683E-3	-8.423357E-3	-1.565445E-4	-1.674772E-3	-1.851009E-3	-1.264524E-2	-2.648766E-3	-1.193006E-4	-6.220302E-3	-3.495250E-3	-3.260187E-3	-9.883088E-3	-6.075973E-3	-7.898496E-3	-2.551245E-3	-2.728472E-3	-5.617295E-3	-7.360525E-3	1.200891E-3	-4.020348E-3	1.034367E-3	-1.049173E-2	-7.755459E-3	-5.497464E-3	-1.627515E-3	-6.959324E-3	-5.716591E-3	7.578217E-4	-2.039266E-3	5.102726E-5	9.874204E-4	-8.352800E-4	8.684108E-3	3.006793E-5	2.994750E-3	1.681816E-3	4.444942E-3	6.888528E-4	-5.717973E-3	-1.133106E-2	-2.476497E-3	-5.066999E-3	-7.167946E-3	-2.861300E-3	-1.188826E-2	4.455699E-3	-4.516260E-3	-8.159515E-3	-1.410875E-4	7.764193E-4	-1.436045E-2	3.691111E-4	-7.305938E-3	-1.520491E-3	-1.306330E-2	1.169581E-3	-4.842822E-3	-9.799027E-4	-8.971976E-4	-1.053717E-2	2.327623E-3	2.495299E-3	-9.604427E-3	2.178354E-3	3.388176E-3	-2.830984E-3	1.252568E-2	-4.598712E-4	8.780030E-3	6.739755E-3	-4.254821E-3	-4.471497E-3	-8.077561E-4	-1.522498E-3	-6.443733E-3	-2.498804E-3	8.448963E-4	1.313358E-3	-4.429895E-3	-1.983721E-4	-7.329622E-3	7.736537E-4	-1.052883E-2	2.662339E-3	6.359661E-3	-6.906613E-3	4.181843E-4	-2.912573E-3	-3.782969E-3	1.166918E-3	-4.640353E-5	2.776687E-3	-5.710920E-3	2.320814E-3	-3.509341E-3	-6.695767E-3	-2.155594E-3	6.865320E-3	-7.165202E-3	-6.906563E-3	2.753852E-3	-1.850388E-3	-2.645040E-3	3.685137E-3	-9.003814E-3	4.882752E-3	-6.195314E-3	-7.269402E-5	-7.736055E-3	4.751496E-3	-2.596409E-3	-4.025046E-3	-3.742808E-3	-3.314599E-3	4.739588E-3	-5.685662E-3	2.915259E-4	-5.311945E-3	4.005775E-3	5.287534E-4	-1.059819E-2	-1.667818E-3	-1.195308E-2	-4.196180E-3	-1.285707E-2	2.500626E-3
5.315130E+2	-1.168536E-2	6.272332E-3	-1.281060E-2	-7.584854E-3	4.929051E-3	-1.835644E-3	-9.763180E-3	2.134962E-3	3.020581E-4	3.135157E-3	-2.930996E-3	5.485607E-3	-7.940217E-3	-6.567347E-3	-5.925296E-3	-1.047856E-3	4.976997E-3	-3.470738E-3	3.470803E-4	-3.823909E-3	-1.022700E-3	1.895044E-3	-2.457674E-3	2.904459E-3	2.994972E-3	1.139409E-3	-1.459538E-3	-1.091494E-3	1.809653E-3	4.711081E-3	-3.245406E-3	1.880447E-4	-4.413487E-3	-8.234269E-3	2.827144E-3	-5.792954E-3	-1.321551E-2	-4.422478E-3	3.840141E-4	5.317324E-3	4.683567E-3	3.236217E-3	1.259778E-2	-7.642989E-3	5.897373E-3	2.480701E-3	2.031990E-3	1.122963E-3	-2.366885E-5	1.324699E-3	-3.226355E-3	-4.640579E-3	7.718396E-3	1.232923E-3	-6.084291E-3	1.045823E-3	-6.076019E-3	6.661577E-3	-7.961008E-3	5.984496E-3	-8.838194E-3	5.928653E-4	-1.716193E-3	9.188006E-3	-1.078440E-3	1.864345E-3	-4.142017E-3	5.614445E-3	4.691062E-3	-9.283402E-3	3.696640E-3	1.434457E-2	3.678338E-3	5.216150E-3	2.194488E-3	2.773075E-3	-1.342622E-2	1.654360E-3	4.066446E-3	1.681851E-3	3.806710E-3	-4.904601E-3	8.618434E-3	-1.973715E-3	-7.318051E-4	-2.789692E-3	1.607137E-3	-1.240833E-3	1.102083E-2	-5.881884E-3	8.136291E-3	6.930962E-3	-7.119427E-4	4.097478E-3	8.716466E-3	-1.016190E-2	-3.810720E-3	7.267757E-3	-3.681497E-3	-3.000443E-5	-1.750151E-4	-7.693869E-3	6.932975E-3	9.619548E-3	8.352115E-3	-5.395215E-4	2.355808E-3	-6.814926E-3	2.815230E-3	1.688551E-3	4.692964E-3	-5.160223E-3	7.904648E-4	4.864719E-3	-8.364516E-3	1.151346E-2	4.313938E-3	-6.901714E-3	5.895316E-3	-7.957479E-3	-3.954545E-3	-4.798355E-4	-4.429872E-3	-5.080902E-3	-4.378109E-3	4.056664E-3	5.355097E-3	1.679819E-3	3.302146E-3	4.370983E-3	-3.409154E-3	-4.410951E-4	6.256008E-5	5.518851E-4	3.532160E-3	-3.477998E-3	-1.031666E-3	-3.900261E-3	-7.808587E-3	9.615686E-3	5.856279E-3	2.058109E-3	3.363252E-3	7.174772E-3	1.738135E-4	8.984984E-5	-3.290165E-3	-7.268847E-3	1.971455E-3	-4.184259E-3	3.005645E-3	4.636760E-3	-9.466536E-3	-2.542922E-3	5.133359E-3	4.847600E-3	2.673422E-3	2.179211E-3	2.538693E-3	1.192789E-3	1.420117E-2	2.759417E-3	-6.636802E-3	4.086732E-3	-1.031405E-3	-1.667809E-3	-4.319803E-3	-1.220772E-2	-4.272388E-3	2.387561E-4
5.320120E+2	6.590777E-3	1.313978E-2	9.660275E-3	2.337638E-3	8.233430E-3	1.146504E-3	9.029022E-3	2.683634E-3	-7.963503E-4	1.062484E-2	-3.466323E-3	1.097808E-2	-1.333958E-3	4.447066E-3	1.022671E-2	8.611414E-3	2.253994E-3	4.491271E-3	-8.663698E-3	1.138725E-2	2.221123E-3	-8.714446E-4	2.729850E-3	7.211778E-3	-3.250494E-3	4.124834E-3	8.077652E-4	7.274703E-5	-3.969605E-3	7.272287E-4	-3.761447E-3	5.623739E-3	3.556380E-3	-9.776350E-4	1.156807E-3	4.736744E-3	7.426996E-3	4.717634E-3	1.991622E-3	2.250454E-3	-6.031720E-3	2.660253E-3	-5.842654E-3	-2.235258E-4	-1.495006E-4	1.935445E-3	-1.797915E-3	-7.421955E-4	8.503680E-3	1.338959E-2	6.014608E-3	-6.844510E-4	1.285150E-3	6.419240E-4	3.517532E-3	2.138773E-3	7.919355E-3	4.234876E-3	-7.479653E-4	2.499333E-3	2.435112E-3	-5.372192E-3	1.053539E-2	-7.576471E-3	-1.606556E-3	7.410589E-4	9.709360E-3	5.029583E-3	1.244558E-3	9.309203E-3	7.814936E-3	7.578549E-4	-1.118749E-2	4.642255E-3	3.839511E-4	2.171727E-3	6.938562E-3	3.005802E-5	8.889006E-3	-9.189463E-4	-1.299599E-3	-6.147673E-3	-3.925888E-3	1.798864E-2	5.665467E-3	4.611552E-3	-6.582935E-3	5.781070E-3	1.343227E-2	1.584155E-3	6.986040E-3	1.041340E-2	1.298721E-2	-4.205103E-3	4.959763E-3	4.882460E-3	-4.975815E-3	6.640029E-3	1.947622E-3	6.567847E-3	1.575353E-3	1.461398E-3	1.060312E-3	2.340710E-3	-6.982896E-3	4.923069E-3	6.161344E-3	3.796996E-4	1.669442E-3	-6.297306E-6	1.680328E-3	5.807246E-3	-2.897110E-3	-1.076069E-2	4.419462E-4	-2.695384E-3	8.866641E-3	6.247576E-3	6.580885E-3	6.780805E-3	-3.954515E-3	-3.468462E-3	4.529430E-3	1.322865E-2	1.096982E-2	8.981141E-3	8.296581E-3	-8.145271E-3	-3.424372E-3	7.687953E-3	1.126239E-2	1.315201E-2	1.214853E-2	-7.444180E-3	-3.028494E-3	2.776693E-3	1.008141E-2	7.919672E-3	9.388329E-3	-1.862736E-3	1.278100E-3	-6.955488E-3	1.213693E-2	1.119800E-2	-4.986319E-3	-2.497112E-3	5.741639E-3	-1.183334E-3	6.849445E-3	-5.393182E-3	-3.128349E-3	-8.968346E-3	3.396912E-4	4.143639E-3	3.944148E-3	4.293086E-3	1.142286E-2	-1.117058E-3	5.289814E-3	6.106016E-3	-6.663214E-3	4.622057E-3	-1.330391E-4	-6.423942E-5	-3.423094E-3	-2.811979E-4	1.025295E-2	-8.647046E-3	1.146601E-2	2.059590E-2
5.325170E+2	1.895397E-2	7.783400E-4	8.338468E-3	1.970200E-2	-6.636317E-3	2.935706E-3	9.635194E-3	1.036408E-2	7.441710E-3	1.638615E-2	1.205850E-2	4.265071E-3	1.848482E-2	1.766436E-2	1.647915E-2	1.420356E-2	1.205669E-2	2.785129E-3	6.954995E-3	3.781663E-3	3.302370E-3	5.214886E-3	1.252860E-2	1.289172E-3	1.435042E-2	-1.845962E-3	2.291348E-2	1.695430E-2	1.494438E-2	1.210958E-2	8.623773E-3	3.153011E-3	1.209556E-2	1.414038E-2	1.507606E-2	1.175649E-2	1.826429E-2	1.957026E-2	8.421873E-3	1.400669E-2	1.350791E-2	5.539766E-3	7.411401E-3	2.089331E-2	2.873943E-3	7.387459E-3	5.314768E-3	1.417909E-2	2.412676E-3	3.229662E-3	1.583326E-2	7.227688E-3	1.039894E-2	9.507206E-3	1.876746E-2	1.798568E-2	1.258451E-2	1.272828E-2	1.488007E-2	1.121228E-2	2.337125E-2	5.232218E-3	-5.800068E-3	1.426812E-2	5.788168E-3	1.927512E-2	2.482548E-3	5.614453E-3	4.116649E-3	6.404153E-3	1.016824E-2	7.822896E-3	1.625710E-2	1.325075E-2	5.815683E-3	5.178715E-3	8.684122E-3	9.775796E-3	2.458914E-3	1.104460E-2	1.529583E-2	1.871222E-2	1.339718E-2	1.674098E-2	6.247083E-3	1.599803E-2	1.974230E-2	7.401571E-3	3.183478E-3	1.249609E-2	7.561161E-3	8.091786E-3	8.991618E-3	7.418470E-3	7.106425E-3	1.290613E-2	8.422464E-3	2.245909E-3	1.570758E-2	2.369229E-3	9.918877E-4	1.244780E-2	9.542993E-3	4.580365E-3	1.163816E-2	1.645524E-2	2.192716E-2	5.176184E-3	5.679795E-3	-5.712421E-4	4.090465E-3	6.329479E-3	1.062384E-2	7.989718E-3	1.922906E-2	1.448846E-3	-2.387489E-4	1.581077E-2	1.823439E-2	8.418397E-3	1.044376E-2	7.290516E-3	1.924822E-2	4.119729E-4	2.100503E-2	4.056607E-3	7.708274E-3	8.557379E-3	8.805634E-3	9.678113E-3	9.348671E-3	5.119735E-3	1.324723E-2	9.162979E-3	1.128575E-2	1.244289E-2	8.911628E-3	1.165228E-2	1.000258E-2	1.324046E-2	4.711699E-3	1.647985E-2	4.533069E-3	6.168966E-3	9.848947E-3	1.496472E-2	8.322153E-3	1.281348E-2	5.629911E-3	1.515866E-2	7.299451E-3	9.738936E-4	1.533752E-2	5.967247E-3	2.059282E-2	5.956687E-3	9.672949E-3	3.277958E-3	1.134231E-2	4.140729E-3	7.878526E-3	7.726504E-3	2.233462E-2	3.493808E-3	1.929796E-2	1.427863E-2	1.719232E-2	2.606972E-2	5.742935E-3	1.381018E-2
5.330180E+2	1.841641E-2	4.060980E-2	1.891296E-2	1.474076E-2	2.200168E-2	1.068933E-2	1.266619E-2	2.407921E-2	2.611455E-2	5.439653E-3	2.330057E-2	2.684495E-2	1.086222E-2	2.427304E-2	3.367316E-2	2.132094E-2	2.839454E-2	3.065211E-2	1.236151E-2	2.723229E-2	6.546262E-3	2.126055E-2	2.924407E-2	2.659466E-2	2.400248E-2	4.114380E-2	2.744800E-2	1.986491E-2	1.809671E-2	1.666257E-2	2.616938E-2	1.847183E-2	1.835766E-2	2.260648E-2	1.396252E-2	1.351140E-2	1.981244E-2	1.043020E-2	3.521469E-2	2.831871E-2	1.728976E-2	2.454419E-2	3.334328E-2	1.746896E-2	1.799108E-2	2.265310E-2	2.610576E-2	2.070711E-2	1.154914E-2	2.735948E-2	2.391912E-2	8.923191E-3	1.254340E-2	3.078387E-2	2.441551E-2	7.603195E-3	2.891241E-2	2.364830E-2	1.608232E-2	2.050605E-2	2.068712E-2	1.053449E-2	3.153815E-2	1.172803E-2	2.163409E-2	2.769973E-2	3.259424E-2	1.555669E-2	2.537009E-2	1.337634E-2	3.311294E-2	1.923582E-2	2.254648E-2	2.128544E-2	2.331816E-2	1.179411E-2	2.788523E-2	3.251581E-2	8.353127E-3	1.884694E-2	5.083267E-3	3.796320E-3	1.518922E-2	2.485071E-2	1.846016E-2	1.884469E-2	2.500736E-2	2.468635E-2	3.212115E-2	2.570530E-2	2.308925E-2	3.014705E-2	2.154917E-2	2.236304E-2	3.286678E-2	1.842239E-2	1.949059E-2	1.605602E-2	2.696571E-2	3.535821E-2	2.549767E-2	2.770667E-2	2.520337E-2	6.260171E-3	2.040100E-2	1.281350E-2	5.617710E-3	2.076450E-2	3.088806E-2	1.072771E-2	2.819122E-2	2.043052E-2	1.123845E-2	8.614852E-3	2.216449E-2	1.092146E-2	1.171205E-2	2.417846E-2	1.343586E-2	2.424839E-2	2.304225E-2	1.745184E-2	1.732839E-2	2.482462E-2	2.690806E-2	2.156600E-2	2.535709E-2	1.985625E-2	3.204292E-2	2.891646E-2	1.190026E-2	1.253415E-2	2.203700E-2	2.392490E-2	3.335355E-2	1.699171E-2	1.768516E-2	2.471635E-2	3.027040E-2	2.048997E-2	2.016315E-2	2.369073E-2	2.558990E-2	2.628511E-2	1.242900E-2	2.401901E-2	2.509544E-2	1.250909E-3	2.209283E-2	3.631497E-2	1.895400E-2	2.661434E-2	1.764484E-2	2.663483E-2	2.297115E-2	1.760212E-2	2.425531E-2	3.404312E-2	1.079208E-2	1.789770E-2	3.063973E-2	4.622069E-3	1.937835E-2	1.001671E-2	2.587510E-2	1.105443E-3	2.413175E-2	1.004659E-2	1.575849E-2	-6.546936E-3
5.331630E+2	3.723009E-2	2.138084E-2	2.684387E-2	1.722134E-2	3.411778E-2	3.573928E-2	1.751578E-2	2.846806E-2	3.105737E-2	2.848493E-2	2.222989E-2	3.172716E-2	3.627094E-2	1.711363E-2	3.106803E-2	3.148853E-2	2.893911E-2	1.984656E-2	1.957018E-2	3.990823E-2	2.979384E-2	2.236720E-2	2.866770E-2	3.843986E-2	3.081574E-2	1.905181E-2	2.348031E-2	3.383585E-2	2.072368E-2	3.202887E-2	2.616936E-2	2.983743E-2	2.803535E-2	3.107255E-2	2.342759E-2	1.877621E-2	2.084457E-2	1.728523E-2	2.932028E-2	2.780755E-2	3.115654E-2	2.396825E-2	2.181799E-2	1.404464E-2	3.975971E-2	3.028588E-2	1.571029E-2	2.163972E-2	3.591291E-2	2.545447E-2	2.796202E-2	2.248688E-2	2.326545E-2	1.009823E-2	2.611001E-2	2.181081E-2	1.608328E-2	2.728833E-2	2.149198E-2	2.863817E-2	2.068707E-2	3.571999E-2	3.853912E-2	9.187953E-3	1.846490E-2	2.713807E-2	2.295847E-2	2.432930E-2	1.445616E-2	2.790181E-2	2.781803E-2	2.412703E-2	2.254647E-2	2.587666E-2	3.237120E-2	1.660526E-2	1.624818E-2	2.006295E-2	3.460941E-2	1.884692E-2	1.274266E-2	1.809075E-2	2.235746E-2	3.171274E-2	3.125479E-2	1.884471E-2	2.734740E-2	1.712425E-2	2.428387E-2	1.766487E-2	1.791320E-2	1.679781E-2	3.296516E-2	3.011213E-2	3.018339E-2	2.042832E-2	3.871418E-2	2.861065E-2	2.446392E-2	1.616462E-2	2.374725E-2	2.282384E-2	3.760113E-2	2.809661E-2	2.204408E-2	1.281353E-2	1.268514E-2	1.416948E-2	1.599233E-2	2.202665E-2	3.722903E-2	1.834144E-2	3.397820E-2	1.736498E-2	2.803545E-2	1.388160E-2	3.845886E-2	1.820153E-2	2.234741E-2	2.588591E-2	3.624072E-2	1.207232E-2	1.988818E-2	3.031748E-2	1.923413E-2	1.883016E-2	2.712200E-2	2.231256E-2	4.121546E-2	2.427282E-2	2.274447E-2	3.415952E-2	2.533318E-2	2.330981E-2	3.216071E-2	3.006956E-2	1.593050E-2	2.658268E-2	2.842789E-2	1.988582E-2	2.874726E-2	3.030067E-2	2.792954E-2	1.723280E-2	1.500907E-2	2.207882E-2	2.380518E-2	1.829045E-2	1.416621E-2	1.757654E-2	1.466024E-2	2.661434E-2	2.514375E-2	3.636072E-2	2.118736E-2	1.482946E-2	3.708776E-2	2.525306E-2	3.610254E-2	2.133689E-2	3.633003E-2	2.573186E-2	2.115210E-2	3.551565E-2	1.750416E-2	3.715849E-2	3.592869E-2	3.052061E-2	2.148146E-2	9.286360E-3
5.333080E+2	3.830516E-2	3.854958E-2	3.147019E-2	3.334547E-2	4.182801E-2	2.977497E-2	3.752036E-2	3.505139E-2	2.117174E-2	3.424627E-2	3.989604E-2	4.576330E-2	3.271371E-2	3.363528E-2	4.409387E-2	4.623160E-2	3.384047E-2	1.359068E-2	1.836873E-2	3.610546E-2	1.789974E-2	4.505250E-2	3.961926E-2	3.897823E-2	3.422236E-2	2.144015E-2	3.368295E-2	2.743248E-2	4.278996E-2	3.259800E-2	4.319895E-2	3.428478E-2	3.031250E-2	2.321122E-2	3.066560E-2	4.919517E-2	2.342488E-2	2.756785E-2	4.325251E-2	3.598583E-2	2.863530E-2	3.433436E-2	3.046189E-2	3.402004E-2	3.371291E-2	2.701467E-2	3.540700E-2	3.422953E-2	4.139475E-2	2.291454E-2	2.853961E-2	3.774605E-2	2.272936E-2	3.728505E-2	3.232290E-2	2.727528E-2	1.783273E-2	2.607496E-2	3.291265E-2	4.141717E-2	4.054957E-2	3.041778E-2	3.387183E-2	3.611271E-2	1.846490E-2	3.106959E-2	4.825223E-2	3.602607E-2	2.364683E-2	3.836019E-2	2.252308E-2	3.553987E-2	2.197472E-2	3.620694E-2	4.987367E-2	2.863324E-2	2.613965E-2	3.684721E-2	3.407354E-2	3.237094E-2	2.487014E-2	4.357219E-2	2.653890E-2	4.543688E-2	4.172316E-2	3.820178E-2	3.963253E-2	3.170830E-2	3.332696E-2	4.178601E-2	3.344131E-2	3.943350E-2	2.896958E-2	4.505671E-2	3.286675E-2	2.945496E-2	2.531592E-2	2.358880E-2	2.571480E-2	2.876035E-2	2.491422E-2	2.831703E-2	2.716089E-2	1.521869E-2	3.245000E-2	3.709179E-2	1.812166E-2	2.975789E-2	4.062764E-2	3.558531E-2	3.301137E-2	3.400929E-2	2.475939E-2	3.174029E-2	2.803545E-2	2.453829E-2	2.593908E-2	3.254626E-2	3.125893E-2	3.898665E-2	2.664185E-2	3.359034E-2	5.188569E-2	3.214843E-2	4.756880E-2	3.852814E-2	3.594641E-2	3.410260E-2	4.794208E-2	4.019415E-2	3.295081E-2	2.736297E-2	2.698124E-2	2.269473E-2	3.872137E-2	2.950092E-2	3.230763E-2	3.591418E-2	3.395543E-2	2.411476E-2	2.874723E-2	3.390616E-2	4.840142E-2	1.622702E-2	2.661926E-2	4.536122E-2	3.477235E-2	2.376746E-2	3.001936E-2	3.208377E-2	4.901047E-2	3.603322E-2	3.437315E-2	4.061581E-2	4.259289E-2	2.148395E-2	2.775504E-2	3.019748E-2	3.005002E-2	1.347579E-2	3.885898E-2	3.131977E-2	1.996959E-2	4.678264E-2	3.544190E-2	3.022519E-2	3.662270E-2	3.675175E-2	2.863529E-2	2.059592E-2
5.334680E+2	4.421802E-2	3.854954E-2	4.402748E-2	3.148498E-2	4.513238E-2	5.899993E-2	3.933898E-2	4.492631E-2	3.105741E-2	5.037794E-2	3.775473E-2	6.040972E-2	4.795893E-2	4.630181E-2	5.034628E-2	4.724835E-2	4.418781E-2	3.292697E-2	3.278596E-2	5.321806E-2	3.574095E-2	4.726572E-2	4.711235E-2	6.805268E-2	5.068769E-2	3.815834E-2	5.522192E-2	3.208947E-2	6.380552E-2	4.113477E-2	4.681136E-2	5.256857E-2	4.739085E-2	3.591032E-2	4.347128E-2	4.276045E-2	5.026002E-2	4.470550E-2	3.842987E-2	5.132008E-2	4.691435E-2	4.239684E-2	4.486856E-2	3.573219E-2	2.706134E-2	6.081717E-2	4.689678E-2	5.334740E-2	4.931299E-2	4.513937E-2	4.817674E-2	4.452798E-2	3.345146E-2	4.378625E-2	3.514694E-2	4.585441E-2	4.932232E-2	4.548838E-2	4.433317E-2	6.058563E-2	3.303403E-2	5.030115E-2	3.737226E-2	5.389320E-2	2.691600E-2	4.454895E-2	5.307017E-2	3.719573E-2	3.800728E-2	3.371205E-2	3.664290E-2	5.782211E-2	1.854416E-2	3.276351E-2	5.651251E-2	5.088494E-2	5.406850E-2	2.710152E-2	4.800540E-2	4.849573E-2	4.529536E-2	5.040861E-2	4.027788E-2	5.604190E-2	4.870209E-2	4.218692E-2	5.250265E-2	5.115366E-2	3.634124E-2	3.776578E-2	4.551870E-2	5.162196E-2	5.750946E-2	4.173566E-2	5.701698E-2	6.556149E-2	4.803475E-2	4.807041E-2	4.948206E-2	5.035320E-2	3.833403E-2	5.700368E-2	4.543131E-2	3.537551E-2	3.518837E-2	2.555957E-2	3.986755E-2	4.474671E-2	4.979428E-2	4.010490E-2	3.481893E-2	4.811031E-2	3.828032E-2	3.174026E-2	3.684197E-2	3.460291E-2	4.187335E-2	4.330476E-2	2.851693E-2	4.826628E-2	3.324106E-2	3.956758E-2	4.548618E-2	4.801666E-2	6.291672E-2	3.633949E-2	3.359324E-2	2.820760E-2	4.916504E-2	3.886738E-2	5.782873E-2	3.724889E-2	3.247488E-2	4.668284E-2	4.349281E-2	4.655895E-2	3.113792E-2	5.395513E-2	6.527853E-2	4.707161E-2	4.820452E-2	7.116237E-2	5.542040E-2	3.584032E-2	3.951947E-2	4.536119E-2	3.541743E-2	4.019839E-2	3.245827E-2	3.571052E-2	4.655691E-2	4.597550E-2	5.456248E-2	5.763621E-2	4.259286E-2	3.867472E-2	6.216940E-2	4.448129E-2	4.930798E-2	4.442888E-2	5.150410E-2	3.007797E-2	2.942967E-2	2.899268E-2	3.484392E-2	4.478500E-2	4.980745E-2	4.120264E-2	4.580463E-2	3.869112E-2
5.336030E+2	4.583059E-2	7.151353E-2	4.667110E-2	4.512836E-2	5.008899E-2	5.542141E-2	5.691878E-2	5.864144E-2	4.368906E-2	5.441086E-2	6.880427E-2	6.956374E-2	6.066323E-2	5.015679E-2	6.493522E-2	6.707529E-2	5.235668E-2	3.747667E-2	4.900541E-2	6.842926E-2	4.547246E-2	6.386488E-2	5.979306E-2	6.643744E-2	5.522991E-2	5.368244E-2	6.655831E-2	7.342013E-2	6.328011E-2	5.251718E-2	5.868044E-2	6.838157E-2	4.226731E-2	6.312276E-2	5.516344E-2	5.855486E-2	5.335639E-2	5.727308E-2	6.039998E-2	6.716551E-2	7.275697E-2	6.255308E-2	7.771557E-2	5.856129E-2	5.669090E-2	5.154876E-2	6.659340E-2	6.873498E-2	5.844948E-2	5.783933E-2	5.221969E-2	4.452795E-2	3.827638E-2	5.737965E-2	6.056355E-2	4.640089E-2	3.999209E-2	5.398180E-2	5.936023E-2	7.046032E-2	6.363298E-2	5.825438E-2	5.545801E-2	6.303751E-2	4.276198E-2	4.117907E-2	6.391033E-2	5.357118E-2	4.202820E-2	6.915422E-2	5.664596E-2	5.021363E-2	5.399342E-2	5.571970E-2	6.073726E-2	5.930455E-2	5.115927E-2	6.337726E-2	6.140129E-2	8.282575E-2	4.721024E-2	6.470305E-2	4.804338E-2	4.917987E-2	6.556770E-2	6.097475E-2	5.016265E-2	4.413175E-2	6.226464E-2	6.303554E-2	5.184500E-2	6.323005E-2	4.780587E-2	7.605270E-2	6.131045E-2	7.358500E-2	5.852031E-2	6.313605E-2	4.698022E-2	6.594804E-2	7.450912E-2	6.493823E-2	4.804135E-2	5.945165E-2	5.161877E-2	5.772828E-2	3.062554E-2	7.172667E-2	5.151300E-2	6.213779E-2	6.554740E-2	6.221140E-2	5.856180E-2	6.799110E-2	5.034518E-2	6.183663E-2	5.325497E-2	6.482184E-2	5.593710E-2	4.990385E-2	5.003902E-2	5.869474E-2	6.468472E-2	6.144367E-2	5.760402E-2	5.986756E-2	6.124306E-2	5.277038E-2	6.384116E-2	6.739316E-2	5.400136E-2	6.999587E-2	4.895572E-2	6.267492E-2	6.377140E-2	5.281368E-2	5.745839E-2	6.764130E-2	5.668000E-2	6.338298E-2	4.534322E-2	7.356601E-2	5.600534E-2	5.595651E-2	4.274456E-2	8.028489E-2	7.154457E-2	5.480367E-2	3.550705E-2	6.351601E-2	6.434542E-2	4.806860E-2	5.110142E-2	7.891161E-2	5.032255E-2	3.423842E-2	5.458659E-2	5.766640E-2	5.205909E-2	4.786812E-2	6.035563E-2	3.131974E-2	4.184601E-2	5.449156E-2	6.055469E-2	7.459816E-2	8.034082E-2	4.743387E-2	3.865079E-2	6.357205E-2
5.337580E+2	7.539495E-2	7.082686E-2	9.954367E-2	8.233765E-2	7.377039E-2	6.734998E-2	7.328620E-2	8.387736E-2	7.883797E-2	7.860824E-2	7.844032E-2	9.275386E-2	9.115379E-2	8.540274E-2	1.029705E-1	9.300242E-2	6.597151E-2	8.809219E-2	8.204512E-2	8.744311E-2	7.304525E-2	7.327094E-2	1.035993E-1	7.182160E-2	9.781253E-2	1.002549E-1	6.882551E-2	8.971948E-2	7.641485E-2	9.861581E-2	1.118335E-1	9.111282E-2	7.699332E-2	6.977472E-2	8.133156E-2	7.785910E-2	6.780609E-2	7.955215E-2	9.898155E-2	9.527847E-2	7.464794E-2	9.019569E-2	8.520684E-2	8.367332E-2	8.873932E-2	8.535116E-2	1.076282E-1	9.158284E-2	8.524971E-2	7.879415E-2	9.033878E-2	7.617663E-2	7.365934E-2	8.988575E-2	7.468395E-2	8.519867E-2	7.439719E-2	7.521521E-2	8.160026E-2	9.485668E-2	9.047411E-2	9.934646E-2	7.121024E-2	7.472191E-2	7.339748E-2	7.094598E-2	6.812599E-2	8.983122E-2	7.591881E-2	8.367983E-2	8.135567E-2	8.064786E-2	7.171809E-2	8.556253E-2	7.884325E-2	7.915065E-2	5.115922E-2	7.095721E-2	8.765751E-2	7.138255E-2	7.529488E-2	8.148344E-2	6.835327E-2	9.534261E-2	7.894381E-2	8.716352E-2	7.941291E-2	7.708075E-2	7.432214E-2	5.786675E-2	9.095277E-2	8.528544E-2	8.034145E-2	9.929972E-2	8.385062E-2	7.910133E-2	6.958850E-2	8.950074E-2	7.012198E-2	7.074639E-2	8.034394E-2	7.226256E-2	8.131962E-2	7.120978E-2	8.064591E-2	7.532998E-2	5.998254E-2	1.059010E-1	7.843989E-2	9.998922E-2	9.025056E-2	8.727986E-2	8.253057E-2	8.611648E-2	6.443542E-2	5.946848E-2	8.170915E-2	7.438500E-2	7.170374E-2	9.793956E-2	7.163646E-2	9.276510E-2	1.222801E-1	7.487062E-2	8.770930E-2	8.175445E-2	7.242052E-2	9.943932E-2	7.240224E-2	9.790914E-2	8.717201E-2	7.617460E-2	7.862125E-2	9.896453E-2	8.047126E-2	8.067505E-2	7.325062E-2	7.697297E-2	8.124708E-2	8.815223E-2	8.082405E-2	9.099209E-2	9.285460E-2	9.367426E-2	7.435011E-2	8.739898E-2	8.638250E-2	8.097173E-2	8.855398E-2	8.285891E-2	9.624210E-2	7.213921E-2	7.763595E-2	1.026184E-1	7.945772E-2	7.915640E-2	9.483399E-2	7.469711E-2	1.076318E-1	8.078640E-2	8.691033E-2	7.416024E-2	6.726993E-2	8.473461E-2	7.191517E-2	8.846463E-2	8.797419E-2	7.680952E-2	9.445089E-2	9.976270E-2
5.339090E+2	1.065717E-1	1.175259E-1	1.054917E-1	9.288046E-2	9.965468E-2	1.377283E-1	1.102643E-1	1.080159E-1	1.051998E-1	1.298840E-1	1.218028E-1	1.269289E-1	1.191032E-1	1.261562E-1	1.269384E-1	1.296063E-1	1.002810E-1	1.125469E-1	1.114803E-1	1.254709E-1	9.629275E-2	1.142150E-1	1.197384E-1	1.218943E-1	1.051937E-1	1.157787E-1	1.283412E-1	1.409465E-1	1.179205E-1	1.054455E-1	1.273148E-1	1.237269E-1	1.020413E-1	1.048486E-1	9.636429E-2	1.176377E-1	1.261211E-1	1.069720E-1	1.364915E-1	1.157241E-1	1.200299E-1	1.420258E-1	1.336130E-1	1.207704E-1	1.316718E-1	1.306028E-1	1.327966E-1	1.195605E-1	1.199679E-1	1.016540E-1	1.261475E-1	9.539177E-2	1.085060E-1	1.212096E-1	1.221282E-1	1.256356E-1	1.181330E-1	1.310287E-1	1.104521E-1	1.366787E-1	1.210731E-1	1.357990E-1	1.260506E-1	1.194271E-1	8.924342E-2	8.330216E-2	1.066688E-1	1.056217E-1	1.109583E-1	1.324853E-1	1.266565E-1	1.224949E-1	1.071673E-1	1.136840E-1	1.186764E-1	1.188429E-1	1.250544E-1	1.251000E-1	1.182003E-1	1.400426E-1	1.001880E-1	1.231238E-1	1.107647E-1	1.259098E-1	1.086041E-1	1.105061E-1	1.279682E-1	1.035479E-1	1.328002E-1	1.095548E-1	1.070560E-1	1.247527E-1	1.357085E-1	1.258682E-1	1.047808E-1	1.212258E-1	1.208513E-1	1.290479E-1	1.426743E-1	1.151315E-1	1.153523E-1	1.210909E-1	1.139451E-1	1.120832E-1	1.315799E-1	1.159960E-1	9.042685E-2	1.166933E-1	1.007838E-1	1.338856E-1	1.342345E-1	1.551736E-1	1.194060E-1	1.261174E-1	1.072936E-1	1.020951E-1	1.215450E-1	1.359477E-1	1.402542E-1	1.372412E-1	1.070322E-1	1.214559E-1	1.229200E-1	1.224754E-1	1.125023E-1	1.200560E-1	1.318383E-1	1.269499E-1	1.249918E-1	1.397029E-1	1.126877E-1	1.181894E-1	1.154281E-1	1.247979E-1	1.359389E-1	1.363977E-1	9.840121E-2	1.192754E-1	1.359086E-1	1.177544E-1	1.380515E-1	1.252437E-1	1.326288E-1	1.243514E-1	1.117609E-1	1.106811E-1	1.347668E-1	1.132250E-1	1.111142E-1	1.142911E-1	1.324325E-1	1.234201E-1	1.076315E-1	1.354433E-1	1.074036E-1	1.346107E-1	1.251650E-1	1.202955E-1	1.208371E-1	1.431840E-1	1.216844E-1	9.775361E-2	1.464983E-1	1.155704E-1	1.257282E-1	1.369974E-1	1.476531E-1	1.489136E-1	1.159126E-1	1.585721E-1
5.340850E+2	1.678504E-1	1.697189E-1	1.583644E-1	1.400121E-1	1.629889E-1	1.836534E-1	1.811898E-1	1.826262E-1	1.502344E-1	1.707892E-1	1.828315E-1	1.916172E-1	1.714450E-1	1.872867E-1	1.816465E-1	1.662094E-1	1.721676E-1	1.950107E-1	1.871710E-1	1.825129E-1	1.671169E-1	1.861442E-1	1.894821E-1	1.757356E-1	2.096632E-1	1.826519E-1	2.076954E-1	2.026512E-1	1.977793E-1	1.936589E-1	1.882089E-1	2.156399E-1	1.601078E-1	1.852762E-1	1.887880E-1	2.030448E-1	1.643097E-1	1.972303E-1	1.798959E-1	1.714383E-1	2.000796E-1	1.984636E-1	1.883580E-1	1.835502E-1	1.927452E-1	2.042049E-1	1.864154E-1	1.904365E-1	1.857503E-1	1.626138E-1	1.775505E-1	1.654711E-1	1.690859E-1	1.791294E-1	1.735260E-1	1.753623E-1	1.437906E-1	1.516554E-1	1.783745E-1	2.040588E-1	1.838815E-1	1.888215E-1	1.855583E-1	1.758161E-1	1.494578E-1	1.478906E-1	1.765281E-1	1.798963E-1	1.827606E-1	1.615364E-1	1.772529E-1	1.844504E-1	1.586259E-1	1.974741E-1	1.808403E-1	1.880036E-1	1.977859E-1	1.938617E-1	1.894673E-1	1.842561E-1	1.691234E-1	1.815444E-1	1.812523E-1	1.776871E-1	1.667619E-1	2.044449E-1	1.706741E-1	1.737676E-1	1.864555E-1	1.985731E-1	1.864216E-1	1.822126E-1	1.830851E-1	1.828786E-1	1.976256E-1	1.673616E-1	1.581332E-1	2.024929E-1	1.827034E-1	1.955047E-1	1.550280E-1	1.644254E-1	1.720187E-1	1.859916E-1	1.825142E-1	1.918656E-1	1.382679E-1	1.760487E-1	1.798461E-1	1.615684E-1	1.535153E-1	1.948653E-1	1.691874E-1	1.892438E-1	1.583710E-1	1.760997E-1	1.869892E-1	1.783843E-1	1.971509E-1	1.934653E-1	1.862229E-1	1.943776E-1	1.952341E-1	1.713007E-1	1.939645E-1	1.993952E-1	1.777252E-1	2.139022E-1	1.720775E-1	1.987446E-1	1.937005E-1	1.941871E-1	1.802528E-1	2.262861E-1	1.931959E-1	2.000811E-1	1.890612E-1	2.107244E-1	1.776726E-1	1.950828E-1	1.975679E-1	1.600965E-1	1.905352E-1	1.882202E-1	1.659420E-1	1.941098E-1	2.012150E-1	1.935540E-1	1.592837E-1	1.874317E-1	2.121745E-1	1.799339E-1	1.485869E-1	2.284472E-1	1.906469E-1	1.911744E-1	2.091594E-1	1.439187E-1	1.857641E-1	2.109862E-1	1.804840E-1	1.461819E-1	1.760609E-1	1.944388E-1	1.974789E-1	2.049437E-1	1.705530E-1	1.889712E-1	1.731433E-1	2.241672E-1
5.342040E+2	3.011591E-1	3.118758E-1	2.588225E-1	2.491600E-1	2.417434E-1	3.053246E-1	2.727260E-1	2.934453E-1	2.996172E-1	2.773733E-1	3.016761E-1	3.020757E-1	2.807027E-1	3.089956E-1	2.926270E-1	3.034721E-1	2.740064E-1	2.996541E-1	2.953006E-1	3.067382E-1	2.314532E-1	2.752263E-1	3.203242E-1	3.006480E-1	3.209464E-1	3.217715E-1	3.272933E-1	3.150009E-1	3.144157E-1	3.023610E-1	3.053513E-1	3.243545E-1	2.682708E-1	2.935216E-1	3.162877E-1	3.235507E-1	2.809395E-1	3.303331E-1	3.154678E-1	2.982017E-1	2.876927E-1	2.963649E-1	3.364583E-1	2.965538E-1	3.439160E-1	3.045220E-1	3.149915E-1	3.098064E-1	3.002603E-1	3.035826E-1	3.155882E-1	2.864142E-1	2.709461E-1	2.654184E-1	2.983494E-1	2.742694E-1	2.563371E-1	2.669225E-1	2.877716E-1	3.103569E-1	2.896357E-1	3.379467E-1	2.818212E-1	2.936757E-1	2.191800E-1	2.697663E-1	2.867369E-1	2.769792E-1	2.694973E-1	3.021429E-1	2.807982E-1	2.882532E-1	2.718349E-1	3.134024E-1	2.991328E-1	2.956539E-1	2.932094E-1	2.951087E-1	3.491483E-1	3.049320E-1	2.750790E-1	3.014935E-1	3.138635E-1	3.292766E-1	2.947079E-1	2.966758E-1	2.876750E-1	2.904400E-1	2.823117E-1	2.979293E-1	3.123723E-1	3.075798E-1	3.080896E-1	3.013286E-1	3.248167E-1	3.052686E-1	2.728925E-1	2.790764E-1	2.815251E-1	2.854747E-1	2.769733E-1	3.035867E-1	2.907763E-1	2.878951E-1	2.991702E-1	2.944411E-1	2.290575E-1	2.749755E-1	2.594812E-1	2.971554E-1	2.848645E-1	2.930499E-1	2.828870E-1	3.279968E-1	2.593518E-1	2.323437E-1	2.740590E-1	3.080843E-1	3.438484E-1	2.977247E-1	2.762127E-1	3.252793E-1	3.341034E-1	2.927538E-1	2.925456E-1	3.093761E-1	3.124443E-1	3.234522E-1	2.662492E-1	3.101942E-1	3.040560E-1	2.683317E-1	2.835329E-1	3.388458E-1	2.778887E-1	3.189186E-1	3.025316E-1	2.996844E-1	3.029656E-1	3.116790E-1	2.965718E-1	3.457764E-1	2.981588E-1	3.235021E-1	2.755935E-1	3.014679E-1	3.018551E-1	3.341302E-1	2.775728E-1	3.053025E-1	3.446681E-1	3.023800E-1	2.408809E-1	2.971366E-1	2.625932E-1	2.904373E-1	3.264016E-1	2.455538E-1	3.233211E-1	3.279202E-1	2.582508E-1	2.486263E-1	3.025892E-1	3.118525E-1	2.817862E-1	3.179555E-1	2.801951E-1	3.189365E-1	3.534205E-1	2.988098E-1
5.343600E+2	4.962832E-1	5.474317E-1	4.703124E-1	4.358272E-1	4.796596E-1	5.224240E-1	5.049000E-1	5.298941E-1	4.605337E-1	5.118595E-1	5.163468E-1	5.724244E-1	5.347895E-1	5.502113E-1	5.500175E-1	5.480029E-1	4.618916E-1	5.112157E-1	5.476031E-1	5.627932E-1	4.590629E-1	5.745620E-1	5.295560E-1	5.714710E-1	5.497579E-1	5.325411E-1	5.647887E-1	5.938372E-1	5.634501E-1	5.351315E-1	5.896948E-1	5.951517E-1	4.817500E-1	5.154539E-1	5.601529E-1	5.288786E-1	5.007813E-1	5.434115E-1	5.683918E-1	5.747298E-1	5.379251E-1	5.457259E-1	5.583200E-1	5.299811E-1	5.857904E-1	5.607662E-1	5.934812E-1	5.452831E-1	4.811614E-1	5.201162E-1	5.396822E-1	5.209539E-1	5.298851E-1	5.207380E-1	5.575977E-1	5.343776E-1	5.070873E-1	5.320377E-1	5.143797E-1	5.862668E-1	5.596579E-1	5.844988E-1	5.373549E-1	5.568270E-1	4.288746E-1	4.376963E-1	5.462991E-1	5.366477E-1	4.883506E-1	5.606967E-1	5.443677E-1	5.621617E-1	4.793845E-1	5.441114E-1	5.369253E-1	5.488420E-1	5.253679E-1	5.490392E-1	5.720581E-1	5.561666E-1	5.303941E-1	5.357982E-1	5.396618E-1	5.582195E-1	5.442036E-1	5.653971E-1	5.468324E-1	5.551134E-1	5.168280E-1	5.506267E-1	5.245895E-1	5.443836E-1	5.906340E-1	5.769729E-1	5.384126E-1	6.041502E-1	5.204692E-1	5.402131E-1	4.979321E-1	5.289932E-1	4.928574E-1	5.410136E-1	5.204614E-1	5.404153E-1	5.335766E-1	5.129453E-1	4.144412E-1	5.225919E-1	5.333349E-1	5.705895E-1	5.403326E-1	5.458240E-1	4.943047E-1	5.998778E-1	4.765767E-1	4.419243E-1	4.863260E-1	5.656917E-1	5.762346E-1	5.253491E-1	5.065859E-1	5.302986E-1	5.888035E-1	5.484768E-1	6.012753E-1	5.922614E-1	5.883542E-1	5.273229E-1	5.059596E-1	6.180079E-1	4.947872E-1	5.519329E-1	5.395353E-1	6.064054E-1	5.611921E-1	5.986708E-1	5.651529E-1	5.765191E-1	5.492498E-1	5.611838E-1	5.552395E-1	5.584974E-1	5.338780E-1	5.528265E-1	5.052178E-1	5.116566E-1	5.728086E-1	6.043289E-1	5.062233E-1	5.507164E-1	5.753058E-1	5.007008E-1	4.635407E-1	5.755412E-1	5.016209E-1	5.616088E-1	5.194718E-1	4.559658E-1	5.384599E-1	5.337830E-1	5.206365E-1	5.789327E-1	5.497328E-1	5.958989E-1	5.460676E-1	6.493656E-1	5.320956E-1	5.815379E-1	5.937904E-1	5.589286E-1
5.345160E+2	9.870507E-1	8.997351E-1	8.417430E-1	8.159827E-1	9.819259E-1	9.685519E-1	9.662182E-1	9.973065E-1	9.125273E-1	8.805835E-1	9.392636E-1	9.489589E-1	9.738516E-1	9.676572E-1	9.793484E-1	9.735181E-1	9.024682E-1	9.013541E-1	9.578951E-1	9.240590E-1	9.013082E-1	9.458267E-1	9.785687E-1	9.725899E-1	9.636628E-1	9.833362E-1	9.859331E-1	9.995767E-1	9.737782E-1	9.739237E-1	1.029368E+0	9.889939E-1	8.591819E-1	9.605282E-1	9.782862E-1	1.034301E+0	8.300280E-1	9.695680E-1	9.702843E-1	9.989774E-1	9.406937E-1	9.730383E-1	9.991624E-1	9.146509E-1	1.041119E+0	1.007286E+0	1.052525E+0	9.243760E-1	8.825554E-1	8.846041E-1	9.855605E-1	8.911306E-1	8.558361E-1	9.634106E-1	9.992808E-1	9.567813E-1	9.018738E-1	8.584259E-1	8.864496E-1	1.006812E+0	9.907278E-1	1.074291E+0	9.597444E-1	9.662869E-1	7.278339E-1	7.685021E-1	9.287179E-1	9.378474E-1	8.157685E-1	9.505604E-1	9.691392E-1	9.996540E-1	8.841926E-1	9.383833E-1	9.708657E-1	9.535831E-1	9.303372E-1	9.323703E-1	1.008768E+0	9.774916E-1	8.942183E-1	9.223696E-1	9.530264E-1	9.755577E-1	9.088516E-1	9.895454E-1	9.762277E-1	9.661669E-1	9.406448E-1	9.026805E-1	9.455731E-1	9.378967E-1	9.496662E-1	9.832443E-1	1.011758E+0	9.491685E-1	8.857173E-1	9.771162E-1	9.282436E-1	9.632489E-1	8.621949E-1	9.572753E-1	9.445956E-1	9.575483E-1	9.646003E-1	9.080740E-1	7.129045E-1	9.236934E-1	9.469792E-1	9.790452E-1	9.693262E-1	9.537086E-1	8.507662E-1	9.330096E-1	8.834346E-1	8.036592E-1	8.755779E-1	9.990214E-1	1.104072E+0	8.987181E-1	9.277360E-1	1.040754E+0	9.644540E-1	8.939161E-1	1.010357E+0	1.020146E+0	9.948656E-1	9.335912E-1	8.808121E-1	1.081055E+0	9.445035E-1	9.529295E-1	8.971694E-1	1.055413E+0	9.065236E-1	9.631447E-1	9.429988E-1	9.989257E-1	8.925747E-1	9.260770E-1	9.569756E-1	1.015788E+0	9.550151E-1	9.350341E-1	9.109298E-1	9.514360E-1	9.508533E-1	9.779811E-1	8.659690E-1	1.007089E+0	1.002231E+0	9.643225E-1	8.454068E-1	1.001658E+0	9.505405E-1	8.843526E-1	1.029271E+0	7.998766E-1	9.406754E-1	9.396129E-1	9.303368E-1	1.096744E+0	9.984948E-1	9.688943E-1	9.735833E-1	1.029308E+0	9.678897E-1	1.043537E+0	1.031606E+0	9.977373E-1
5.346510E+2	1.461690E+0	1.403809E+0	1.239609E+0	1.151487E+0	1.382308E+0	1.399173E+0	1.377222E+0	1.399982E+0	1.338158E+0	1.297128E+0	1.349870E+0	1.444495E+0	1.298576E+0	1.389511E+0	1.377419E+0	1.370566E+0	1.347948E+0	1.298885E+0	1.434866E+0	1.377226E+0	1.422489E+0	1.432730E+0	1.444297E+0	1.425398E+0	1.456489E+0	1.372035E+0	1.430315E+0	1.400661E+0	1.424563E+0	1.411009E+0	1.404535E+0	1.478700E+0	1.373806E+0	1.359040E+0	1.369138E+0	1.475959E+0	1.492134E+0	1.368304E+0	1.451485E+0	1.438561E+0	1.517428E+0	1.384802E+0	1.385835E+0	1.361528E+0	1.578078E+0	1.411824E+0	1.525795E+0	1.343570E+0	1.441096E+0	1.353866E+0	1.410648E+0	1.305956E+0	1.401056E+0	1.384216E+0	1.376010E+0	1.286834E+0	1.322318E+0	1.291587E+0	1.311415E+0	1.423292E+0	1.407838E+0	1.542214E+0	1.404888E+0	1.323419E+0	1.038415E+0	1.164458E+0	1.334623E+0	1.322087E+0	1.166164E+0	1.337520E+0	1.412735E+0	1.391498E+0	1.229538E+0	1.411855E+0	1.368596E+0	1.364940E+0	1.359744E+0	1.372011E+0	1.388144E+0	1.386852E+0	1.256127E+0	1.382899E+0	1.359224E+0	1.367319E+0	1.318280E+0	1.363023E+0	1.376371E+0	1.382624E+0	1.357227E+0	1.356388E+0	1.319398E+0	1.335473E+0	1.421717E+0	1.400033E+0	1.448611E+0	1.330290E+0	1.235237E+0	1.421553E+0	1.386075E+0	1.325528E+0	1.236199E+0	1.371705E+0	1.360247E+0	1.378601E+0	1.369336E+0	1.310486E+0	1.034200E+0	1.269636E+0	1.322813E+0	1.361514E+0	1.377231E+0	1.352192E+0	1.249020E+0	1.319269E+0	1.266221E+0	1.165985E+0	1.287024E+0	1.463433E+0	1.481784E+0	1.266629E+0	1.293094E+0	1.374284E+0	1.398339E+0	1.327851E+0	1.320858E+0	1.444750E+0	1.414321E+0	1.325121E+0	1.275233E+0	1.447246E+0	1.294070E+0	1.290286E+0	1.304794E+0	1.476743E+0	1.347881E+0	1.351500E+0	1.313241E+0	1.477945E+0	1.292404E+0	1.319968E+0	1.394192E+0	1.463464E+0	1.417678E+0	1.346411E+0	1.226985E+0	1.393803E+0	1.393410E+0	1.385105E+0	1.247054E+0	1.381254E+0	1.451237E+0	1.313870E+0	1.166706E+0	1.441150E+0	1.307298E+0	1.300813E+0	1.352998E+0	1.119065E+0	1.375355E+0	1.355267E+0	1.249625E+0	1.543152E+0	1.369805E+0	1.411271E+0	1.380767E+0	1.474425E+0	1.334984E+0	1.439665E+0	1.447963E+0	1.533810E+0
5.348020E+2	1.883656E+0	1.829596E+0	1.655981E+0	1.532263E+0	1.825096E+0	1.839335E+0	1.777312E+0	1.880561E+0	1.754457E+0	1.758032E+0	1.792057E+0	1.911353E+0	1.779310E+0	1.849913E+0	1.859894E+0	1.888096E+0	1.848972E+0	1.681631E+0	1.921449E+0	1.816449E+0	1.829050E+0	1.815615E+0	1.924432E+0	1.828132E+0	1.820430E+0	1.747597E+0	1.880935E+0	1.843070E+0	1.820705E+0	1.795165E+0	1.827176E+0	1.868097E+0	1.873634E+0	1.697681E+0	1.896399E+0	1.910603E+0	1.916850E+0	1.844159E+0	1.872668E+0	1.788694E+0	1.986376E+0	1.766617E+0	1.896982E+0	1.698828E+0	2.047921E+0	1.889421E+0	1.915352E+0	1.738983E+0	1.847972E+0	1.721529E+0	1.817251E+0	1.710608E+0	2.062069E+0	1.735280E+0	1.788323E+0	1.803774E+0	1.813909E+0	1.668331E+0	1.705123E+0	1.841512E+0	1.826561E+0	1.930599E+0	1.795190E+0	1.769964E+0	1.549181E+0	1.459881E+0	1.720051E+0	1.654860E+0	1.760109E+0	1.773865E+0	1.846924E+0	1.866486E+0	1.780715E+0	1.800386E+0	1.766925E+0	1.775695E+0	1.786820E+0	1.825188E+0	1.807709E+0	1.793613E+0	1.827395E+0	1.763875E+0	1.750489E+0	1.753465E+0	1.889969E+0	1.759842E+0	1.747849E+0	1.756947E+0	1.840129E+0	1.777358E+0	1.707024E+0	1.756267E+0	1.877213E+0	1.832870E+0	1.861847E+0	1.781125E+0	1.662818E+0	1.732908E+0	1.763224E+0	1.707600E+0	1.663880E+0	1.834961E+0	1.762848E+0	1.754299E+0	1.740116E+0	1.720790E+0	1.396812E+0	1.680327E+0	1.789164E+0	1.818554E+0	1.762846E+0	1.755904E+0	1.607327E+0	1.796780E+0	1.590299E+0	1.546075E+0	1.641561E+0	1.901545E+0	1.925994E+0	1.784649E+0	1.659050E+0	1.789704E+0	1.905181E+0	1.685496E+0	1.806087E+0	1.875915E+0	1.750237E+0	1.743180E+0	1.681882E+0	1.930859E+0	1.685101E+0	1.746271E+0	1.682755E+0	1.897459E+0	1.754644E+0	1.769991E+0	1.733198E+0	1.823830E+0	1.689163E+0	1.781522E+0	1.755870E+0	1.888305E+0	1.779739E+0	1.705483E+0	1.641082E+0	1.803831E+0	1.835967E+0	1.809266E+0	1.635457E+0	1.806798E+0	1.887977E+0	1.797898E+0	1.533573E+0	1.813771E+0	1.695571E+0	1.661268E+0	1.810885E+0	1.563512E+0	1.825437E+0	1.777313E+0	1.746579E+0	1.961623E+0	1.718049E+0	1.794942E+0	1.757461E+0	1.987484E+0	1.846418E+0	1.803745E+0	1.925839E+0	1.873095E+0
5.349580E+2	2.199187E+0	2.143439E+0	2.075657E+0	1.787766E+0	2.112578E+0	2.141726E+0	2.133152E+0	2.203692E+0	2.110336E+0	2.093340E+0	2.078465E+0	2.153629E+0	2.087263E+0	2.125821E+0	2.179811E+0	2.278532E+0	2.089137E+0	2.006369E+0	2.192974E+0	2.165671E+0	2.162084E+0	2.226164E+0	2.193611E+0	2.170562E+0	2.031640E+0	2.019865E+0	2.180214E+0	2.112593E+0	2.118075E+0	2.121842E+0	2.173445E+0	2.201156E+0	2.115577E+0	2.075031E+0	2.105185E+0	2.083754E+0	2.164046E+0	2.127500E+0	2.196862E+0	2.111733E+0	2.317291E+0	2.094296E+0	2.216233E+0	2.003595E+0	2.291609E+0	2.128765E+0	2.321323E+0	2.029483E+0	2.281648E+0	2.042204E+0	2.140108E+0	1.918019E+0	2.224511E+0	2.114714E+0	2.082024E+0	2.071533E+0	2.113640E+0	1.964993E+0	1.892060E+0	2.094186E+0	2.113227E+0	2.301757E+0	2.021553E+0	2.079346E+0	1.729294E+0	1.681729E+0	1.992265E+0	1.981202E+0	2.045598E+0	2.124220E+0	2.055778E+0	2.127896E+0	1.984265E+0	2.128084E+0	2.063264E+0	2.031290E+0	2.073093E+0	2.088322E+0	2.153325E+0	2.082299E+0	2.225046E+0	2.004398E+0	1.967328E+0	2.024203E+0	2.282530E+0	2.052474E+0	2.060244E+0	2.075095E+0	2.135533E+0	1.980090E+0	2.001483E+0	2.045306E+0	2.217979E+0	2.097997E+0	2.119988E+0	2.052923E+0	2.180105E+0	2.050540E+0	1.980255E+0	1.937323E+0	2.244439E+0	2.081550E+0	2.042129E+0	2.026979E+0	2.097203E+0	1.965393E+0	1.623515E+0	1.912956E+0	2.054424E+0	2.068264E+0	2.064104E+0	2.048887E+0	2.100228E+0	2.018660E+0	1.898523E+0	1.727236E+0	2.065528E+0	2.151381E+0	2.192648E+0	1.939127E+0	2.074801E+0	2.044334E+0	2.150281E+0	1.897887E+0	2.129576E+0	2.160441E+0	2.142040E+0	1.970631E+0	1.936882E+0	2.254595E+0	1.824160E+0	2.041614E+0	1.948098E+0	2.257893E+0	2.028404E+0	2.061113E+0	2.018047E+0	2.220107E+0	1.920095E+0	1.968199E+0	2.073483E+0	2.141888E+0	2.127177E+0	2.021811E+0	1.839747E+0	1.992676E+0	2.115304E+0	2.035039E+0	1.904351E+0	2.025617E+0	2.175045E+0	2.027617E+0	1.738353E+0	2.150532E+0	1.947083E+0	1.945745E+0	2.053534E+0	1.747006E+0	1.997659E+0	1.972365E+0	1.912227E+0	2.226737E+0	1.990028E+0	2.086696E+0	2.043863E+0	2.260659E+0	2.071252E+0	2.115304E+0	2.137593E+0	2.171666E+0
5.351140E+2	2.322818E+0	2.256068E+0	2.228324E+0	1.941566E+0	2.289365E+0	2.202560E+0	2.204684E+0	2.241545E+0	2.205351E+0	2.186675E+0	2.149126E+0	2.319008E+0	2.275794E+0	2.270665E+0	2.247545E+0	2.272430E+0	2.222565E+0	2.109304E+0	2.314921E+0	2.215741E+0	2.305895E+0	2.275963E+0	2.378059E+0	2.328860E+0	2.183236E+0	2.161375E+0	2.330982E+0	2.219706E+0	2.203715E+0	2.196395E+0	2.217314E+0	2.351383E+0	2.216338E+0	2.159084E+0	2.233242E+0	2.257491E+0	2.255906E+0	2.281741E+0	2.302958E+0	2.222141E+0	2.459741E+0	2.151312E+0	2.245622E+0	2.101762E+0	2.473012E+0	2.214359E+0	2.482728E+0	2.146986E+0	2.339512E+0	2.155864E+0	2.259662E+0	2.046308E+0	2.416974E+0	2.186225E+0	2.250902E+0	2.097761E+0	2.241929E+0	1.959533E+0	2.058560E+0	2.273674E+0	2.223276E+0	2.345501E+0	2.144650E+0	2.085442E+0	1.849727E+0	1.780575E+0	2.056701E+0	2.082379E+0	2.233431E+0	2.198589E+0	2.262278E+0	2.234958E+0	2.119200E+0	2.203268E+0	2.177934E+0	2.110674E+0	2.108002E+0	2.200939E+0	2.220305E+0	2.173325E+0	2.329088E+0	2.127451E+0	2.254054E+0	2.135242E+0	2.422692E+0	2.227828E+0	2.176658E+0	2.170160E+0	2.212098E+0	2.131711E+0	2.188398E+0	2.118437E+0	2.272202E+0	2.231392E+0	2.202098E+0	2.227940E+0	2.294867E+0	2.174201E+0	2.170392E+0	2.074080E+0	2.370462E+0	2.168829E+0	2.177846E+0	2.219587E+0	2.316818E+0	2.060075E+0	1.769757E+0	2.004088E+0	2.170726E+0	2.189727E+0	2.177980E+0	2.074479E+0	2.296278E+0	2.184911E+0	2.015353E+0	1.816633E+0	2.328439E+0	2.346231E+0	2.416130E+0	2.177672E+0	2.294378E+0	2.160289E+0	2.344825E+0	2.068776E+0	2.254724E+0	2.198199E+0	2.173808E+0	2.126848E+0	2.275046E+0	2.398549E+0	2.050613E+0	2.110198E+0	2.406263E+0	2.443647E+0	2.131584E+0	2.188481E+0	2.237972E+0	2.206424E+0	2.052139E+0	2.217099E+0	2.120407E+0	2.286704E+0	2.225440E+0	2.169665E+0	2.055826E+0	2.105210E+0	2.132727E+0	2.180487E+0	2.186047E+0	2.197286E+0	2.271348E+0	2.107678E+0	1.898139E+0	2.253260E+0	2.091569E+0	2.087153E+0	2.156193E+0	1.794252E+0	2.111557E+0	2.120252E+0	2.077242E+0	2.342844E+0	2.080490E+0	2.208853E+0	2.164646E+0	2.403482E+0	2.132321E+0	2.202541E+0	2.294980E+0	2.293810E+0
5.352600E+2	2.326578E+0	2.321993E+0	2.230312E+0	1.863426E+0	2.206751E+0	2.216876E+0	2.161643E+0	2.216307E+0	2.165259E+0	2.151529E+0	2.076859E+0	2.304973E+0	2.178223E+0	2.251389E+0	2.225657E+0	2.280057E+0	2.167561E+0	2.052434E+0	2.271670E+0	2.247432E+0	2.213447E+0	2.278730E+0	2.281800E+0	2.264783E+0	2.155977E+0	2.048529E+0	2.176812E+0	2.204567E+0	2.125956E+0	2.090541E+0	2.203378E+0	2.203627E+0	2.151447E+0	2.121594E+0	2.150285E+0	2.239944E+0	2.201718E+0	2.217760E+0	2.223653E+0	2.168471E+0	2.336830E+0	2.135187E+0	2.242739E+0	2.009304E+0	2.332122E+0	2.220901E+0	2.332812E+0	2.115746E+0	2.267639E+0	2.122848E+0	2.148197E+0	1.950234E+0	2.328520E+0	2.169677E+0	2.203459E+0	2.108692E+0	2.145709E+0	1.965598E+0	2.010476E+0	2.136589E+0	2.164758E+0	2.402496E+0	2.094480E+0	2.063597E+0	1.790568E+0	1.780577E+0	2.071757E+0	2.024476E+0	2.199541E+0	2.132353E+0	2.185207E+0	2.209960E+0	2.092899E+0	2.133822E+0	2.022220E+0	2.146154E+0	2.112077E+0	2.141921E+0	2.250849E+0	2.218062E+0	2.311858E+0	2.017449E+0	2.093364E+0	2.102183E+0	2.372094E+0	2.112258E+0	2.131030E+0	2.166380E+0	2.167482E+0	2.112759E+0	2.045195E+0	2.074904E+0	2.168319E+0	2.152242E+0	2.167751E+0	2.128647E+0	2.263405E+0	2.100759E+0	2.102843E+0	2.126258E+0	2.327871E+0	2.174932E+0	2.084539E+0	2.135602E+0	2.184831E+0	2.050367E+0	1.719743E+0	2.077836E+0	2.077914E+0	2.125321E+0	2.176174E+0	2.093802E+0	2.185652E+0	2.093662E+0	1.937860E+0	1.791767E+0	2.354623E+0	2.196806E+0	2.351688E+0	2.007909E+0	2.168388E+0	2.147739E+0	2.207876E+0	2.000420E+0	2.221075E+0	2.149502E+0	2.198515E+0	2.001578E+0	2.329469E+0	2.307662E+0	2.023182E+0	2.076214E+0	2.372202E+0	2.360612E+0	2.062399E+0	2.151519E+0	2.123917E+0	2.207664E+0	2.070568E+0	2.180851E+0	2.148450E+0	2.209188E+0	2.110800E+0	2.056514E+0	2.192568E+0	2.151774E+0	2.119822E+0	2.142755E+0	2.329946E+0	2.202725E+0	2.173210E+0	2.035464E+0	1.903329E+0	2.170591E+0	2.033897E+0	2.009520E+0	2.200527E+0	1.787660E+0	2.139617E+0	2.003812E+0	2.232152E+0	2.362707E+0	2.068076E+0	2.160820E+0	2.350598E+0	2.320979E+0	2.083048E+0	2.118866E+0	2.262072E+0	2.078928E+0
5.354110E+2	2.047602E+0	2.015704E+0	2.041288E+0	1.691023E+0	2.023359E+0	1.992022E+0	1.927649E+0	2.027588E+0	1.912628E+0	1.931449E+0	1.880388E+0	2.157290E+0	1.967329E+0	2.063044E+0	2.036528E+0	1.977568E+0	1.981853E+0	1.884091E+0	2.091451E+0	2.028137E+0	2.065848E+0	1.953941E+0	2.106573E+0	2.043496E+0	1.883453E+0	1.859850E+0	1.960853E+0	1.967646E+0	1.939966E+0	1.979564E+0	1.995410E+0	1.988177E+0	1.908929E+0	1.843420E+0	1.978801E+0	2.027010E+0	1.983941E+0	1.972120E+0	1.991624E+0	1.982414E+0	2.056971E+0	1.950324E+0	1.984571E+0	1.858062E+0	2.117460E+0	1.951573E+0	2.145696E+0	1.876540E+0	2.137292E+0	1.835192E+0	2.002068E+0	1.802159E+0	2.048133E+0	1.927953E+0	1.987700E+0	1.901587E+0	1.958528E+0	1.864889E+0	1.842772E+0	2.046557E+0	1.927485E+0	2.143353E+0	1.900787E+0	1.959455E+0	1.638975E+0	1.601414E+0	1.847724E+0	1.846685E+0	1.910034E+0	1.939455E+0	1.953996E+0	1.926813E+0	1.864195E+0	1.881307E+0	1.886424E+0	1.888152E+0	1.953814E+0	1.916144E+0	1.988820E+0	1.960065E+0	2.109522E+0	1.849021E+0	1.906393E+0	1.813979E+0	2.151097E+0	1.972199E+0	1.897024E+0	1.889283E+0	1.993254E+0	1.834216E+0	1.881285E+0	1.927483E+0	2.010209E+0	1.933056E+0	1.976159E+0	1.876908E+0	2.068841E+0	1.972699E+0	1.828895E+0	1.878541E+0	2.157502E+0	1.968631E+0	1.841803E+0	1.940751E+0	1.960827E+0	1.776019E+0	1.523485E+0	1.895572E+0	1.923800E+0	2.008942E+0	1.956254E+0	1.867663E+0	2.027703E+0	1.896156E+0	1.794020E+0	1.666255E+0	2.115040E+0	1.968487E+0	2.078855E+0	1.837057E+0	1.947016E+0	1.945707E+0	2.001812E+0	1.726997E+0	2.045752E+0	1.961271E+0	1.955550E+0	1.856658E+0	2.108106E+0	2.082110E+0	1.797368E+0	1.834628E+0	2.171138E+0	2.093052E+0	1.989037E+0	1.959335E+0	1.903406E+0	1.996773E+0	1.888769E+0	1.881201E+0	1.948723E+0	2.003677E+0	1.901987E+0	1.903124E+0	2.005513E+0	1.865917E+0	1.914027E+0	1.936453E+0	2.129951E+0	1.939779E+0	1.993481E+0	1.902555E+0	1.711244E+0	1.971211E+0	1.869783E+0	1.787702E+0	1.968959E+0	1.616802E+0	1.925033E+0	1.855430E+0	2.049430E+0	2.067176E+0	1.866454E+0	1.909388E+0	2.107843E+0	2.158735E+0	1.893605E+0	1.983560E+0	2.257780E+0	1.943215E+0
5.355630E+2	1.760561E+0	1.701858E+0	1.755779E+0	1.405751E+0	1.685759E+0	1.771937E+0	1.731242E+0	1.692939E+0	1.662187E+0	1.618605E+0	1.668396E+0	1.746579E+0	1.703083E+0	1.740318E+0	1.717652E+0	1.766592E+0	1.632769E+0	1.591773E+0	1.773071E+0	1.696661E+0	1.760390E+0	1.699424E+0	1.808001E+0	1.716678E+0	1.614897E+0	1.622810E+0	1.718260E+0	1.671347E+0	1.618430E+0	1.633533E+0	1.707970E+0	1.722323E+0	1.667556E+0	1.661400E+0	1.638613E+0	1.746806E+0	1.754291E+0	1.648218E+0	1.739774E+0	1.716621E+0	1.779638E+0	1.637041E+0	1.713153E+0	1.610366E+0	1.850188E+0	1.712229E+0	1.781303E+0	1.600496E+0	1.783408E+0	1.655490E+0	1.713292E+0	1.576101E+0	1.821362E+0	1.624165E+0	1.672539E+0	1.640387E+0	1.699611E+0	1.573689E+0	1.516987E+0	1.710238E+0	1.710073E+0	1.799373E+0	1.617248E+0	1.659728E+0	1.450937E+0	1.336881E+0	1.621284E+0	1.602810E+0	1.627422E+0	1.672769E+0	1.675132E+0	1.699099E+0	1.633200E+0	1.646582E+0	1.634752E+0	1.708334E+0	1.703037E+0	1.669257E+0	1.719293E+0	1.690105E+0	1.854202E+0	1.607259E+0	1.612501E+0	1.656150E+0	1.890547E+0	1.667610E+0	1.641380E+0	1.645677E+0	1.697244E+0	1.632057E+0	1.594879E+0	1.580403E+0	1.749354E+0	1.734900E+0	1.674011E+0	1.644218E+0	1.718741E+0	1.680179E+0	1.604985E+0	1.591841E+0	1.866932E+0	1.700690E+0	1.702816E+0	1.674793E+0	1.709991E+0	1.589685E+0	1.338645E+0	1.546032E+0	1.640779E+0	1.694833E+0	1.690541E+0	1.609668E+0	1.733316E+0	1.649900E+0	1.506343E+0	1.399840E+0	1.800333E+0	1.741360E+0	1.825907E+0	1.579951E+0	1.708243E+0	1.708412E+0	1.709997E+0	1.627519E+0	1.757093E+0	1.739670E+0	1.681403E+0	1.661629E+0	1.784618E+0	1.845279E+0	1.591330E+0	1.619609E+0	1.849762E+0	1.785509E+0	1.633569E+0	1.700621E+0	1.716237E+0	1.747933E+0	1.587210E+0	1.667340E+0	1.655148E+0	1.786754E+0	1.682062E+0	1.610938E+0	1.715904E+0	1.642797E+0	1.709519E+0	1.686342E+0	1.825084E+0	1.691950E+0	1.690460E+0	1.676499E+0	1.478199E+0	1.709827E+0	1.605191E+0	1.559785E+0	1.686059E+0	1.383867E+0	1.657070E+0	1.601420E+0	1.818019E+0	1.780330E+0	1.659515E+0	1.687014E+0	1.814263E+0	1.825249E+0	1.659054E+0	1.714728E+0	1.852871E+0	1.789405E+0
5.357090E+2	1.511681E+0	1.480726E+0	1.398227E+0	1.389007E+0	1.463266E+0	1.437939E+0	1.474215E+0	1.461429E+0	1.392531E+0	1.353012E+0	1.400726E+0	1.482333E+0	1.385473E+0	1.437420E+0	1.407114E+0	1.506299E+0	1.461223E+0	1.280118E+0	1.463700E+0	1.426028E+0	1.433302E+0	1.467590E+0	1.545164E+0	1.429705E+0	1.357696E+0	1.344569E+0	1.405377E+0	1.423943E+0	1.396714E+0	1.347839E+0	1.465945E+0	1.444605E+0	1.426182E+0	1.382624E+0	1.451539E+0	1.463092E+0	1.463751E+0	1.433428E+0	1.472382E+0	1.393579E+0	1.565962E+0	1.368672E+0	1.441156E+0	1.328427E+0	1.532727E+0	1.409097E+0	1.463968E+0	1.401391E+0	1.489822E+0	1.368469E+0	1.444142E+0	1.309910E+0	1.569392E+0	1.380668E+0	1.418935E+0	1.396123E+0	1.415621E+0	1.331626E+0	1.334256E+0	1.427938E+0	1.494805E+0	1.522991E+0	1.434057E+0	1.365585E+0	1.178386E+0	1.117280E+0	1.338236E+0	1.356007E+0	1.388465E+0	1.378190E+0	1.485102E+0	1.462689E+0	1.386199E+0	1.441122E+0	1.355920E+0	1.410042E+0	1.397564E+0	1.388254E+0	1.439047E+0	1.410780E+0	1.453358E+0	1.345609E+0	1.378340E+0	1.433446E+0	1.563705E+0	1.420525E+0	1.421416E+0	1.410710E+0	1.420528E+0	1.377061E+0	1.393588E+0	1.358688E+0	1.481650E+0	1.434349E+0	1.411045E+0	1.384451E+0	1.541652E+0	1.338063E+0	1.361057E+0	1.315933E+0	1.519181E+0	1.456543E+0	1.378518E+0	1.475466E+0	1.444913E+0	1.386962E+0	1.072800E+0	1.363767E+0	1.356613E+0	1.475067E+0	1.416997E+0	1.438889E+0	1.433396E+0	1.424897E+0	1.285596E+0	1.239990E+0	1.528882E+0	1.464626E+0	1.550335E+0	1.307569E+0	1.486270E+0	1.440632E+0	1.546166E+0	1.319307E+0	1.439508E+0	1.455691E+0	1.437853E+0	1.391443E+0	1.536956E+0	1.582580E+0	1.368066E+0	1.373078E+0	1.595410E+0	1.548706E+0	1.383666E+0	1.448161E+0	1.428467E+0	1.407024E+0	1.389444E+0	1.453478E+0	1.461721E+0	1.476083E+0	1.372057E+0	1.384129E+0	1.450159E+0	1.399623E+0	1.455343E+0	1.425878E+0	1.581800E+0	1.491872E+0	1.461663E+0	1.326428E+0	1.266500E+0	1.476403E+0	1.342974E+0	1.325770E+0	1.486575E+0	1.204768E+0	1.411668E+0	1.356744E+0	1.508217E+0	1.537567E+0	1.364481E+0	1.389925E+0	1.478826E+0	1.536823E+0	1.443932E+0	1.458358E+0	1.549546E+0	1.570000E+0
5.358650E+2	1.168736E+0	1.303544E+0	1.141134E+0	1.238930E+0	1.141638E+0	1.385455E+0	1.159596E+0	1.157500E+0	1.096510E+0	1.236633E+0	1.066139E+0	1.178420E+0	1.148664E+0	1.195106E+0	1.154936E+0	1.220592E+0	1.159516E+0	1.172062E+0	1.242637E+0	1.186453E+0	1.173251E+0	1.262867E+0	1.209127E+0	1.139498E+0	1.120368E+0	1.158280E+0	1.131037E+0	1.142778E+0	1.181307E+0	1.125310E+0	1.195537E+0	1.215811E+0	1.110802E+0	1.102638E+0	1.175937E+0	1.121463E+0	1.163919E+0	1.139802E+0	1.195881E+0	1.163053E+0	1.252066E+0	1.128529E+0	1.169159E+0	1.060757E+0	1.262433E+0	1.211737E+0	1.253322E+0	1.098769E+0	1.266894E+0	1.130982E+0	1.179622E+0	1.008683E+0	1.249875E+0	1.168495E+0	1.151215E+0	1.116344E+0	1.156706E+0	1.049526E+0	1.054152E+0	1.190946E+0	1.237129E+0	1.238660E+0	1.129517E+0	1.133931E+0	1.015702E+0	9.656379E-1	1.076265E+0	1.077624E+0	1.110445E+0	1.108597E+0	1.180349E+0	1.125195E+0	1.090027E+0	1.158189E+0	1.068638E+0	1.141219E+0	1.114784E+0	1.161395E+0	1.196849E+0	1.150703E+0	1.250382E+0	1.130571E+0	1.088625E+0	1.080984E+0	1.270591E+0	1.154649E+0	1.090304E+0	1.135234E+0	1.170941E+0	1.120919E+0	1.126734E+0	1.160772E+0	1.197963E+0	1.169774E+0	1.156660E+0	1.121678E+0	1.192713E+0	1.117729E+0	1.073974E+0	1.119797E+0	1.246701E+0	1.148926E+0	1.121427E+0	1.083529E+0	1.216532E+0	1.070738E+0	8.558842E-1	1.093367E+0	1.142917E+0	1.164913E+0	1.168157E+0	1.082185E+0	1.220135E+0	1.201766E+0	1.024924E+0	9.777176E-1	1.287593E+0	1.180124E+0	1.239802E+0	1.078852E+0	1.183306E+0	1.169264E+0	1.228754E+0	1.094710E+0	1.153801E+0	1.181560E+0	1.143116E+0	1.099144E+0	1.188399E+0	1.256189E+0	1.098236E+0	1.102454E+0	1.271286E+0	1.270076E+0	1.115273E+0	1.159881E+0	1.200355E+0	1.195509E+0	1.122277E+0	1.138730E+0	1.156126E+0	1.200266E+0	1.159734E+0	1.105519E+0	1.236661E+0	1.106652E+0	1.184389E+0	1.140466E+0	1.251932E+0	1.145511E+0	1.170914E+0	1.094095E+0	1.002884E+0	1.233864E+0	1.098000E+0	1.084543E+0	1.224090E+0	9.674364E-1	1.160216E+0	1.156776E+0	1.205368E+0	1.268727E+0	1.088957E+0	1.150945E+0	1.228897E+0	1.245627E+0	1.173296E+0	1.230474E+0	1.320623E+0	1.266904E+0
5.360070E+2	1.032741E+0	1.158639E+0	9.891255E-1	1.045440E+0	1.025984E+0	1.188037E+0	1.013501E+0	1.086181E+0	9.366919E-1	1.004452E+0	9.344461E-1	1.061248E+0	9.438696E-1	9.874835E-1	9.543384E-1	1.013680E+0	9.934152E-1	1.108366E+0	1.042597E+0	1.005820E+0	1.019709E+0	1.110711E+0	1.063875E+0	1.002741E+0	9.392481E-1	1.000651E+0	1.031845E+0	9.151686E-1	9.664227E-1	9.517277E-1	1.007178E+0	9.904765E-1	9.440036E-1	1.081473E+0	9.799566E-1	9.834078E-1	1.019423E+0	1.086675E+0	9.922545E-1	9.948887E-1	1.106465E+0	1.025444E+0	9.991613E-1	9.740061E-1	1.083447E+0	1.028548E+0	1.079334E+0	9.327696E-1	1.010465E+0	1.059863E+0	1.034653E+0	8.826534E-1	1.064382E+0	1.113529E+0	9.653925E-1	9.300052E-1	9.444426E-1	9.797590E-1	8.762311E-1	9.922900E-1	9.971697E-1	1.058385E+0	9.113212E-1	9.154849E-1	8.165714E-1	7.567078E-1	8.974011E-1	9.185476E-1	9.766057E-1	9.342918E-1	1.022089E+0	9.757413E-1	9.167830E-1	1.003809E+0	9.642269E-1	9.559885E-1	9.437188E-1	9.832648E-1	1.013592E+0	9.852935E-1	1.112513E+0	9.751970E-1	9.398848E-1	1.000511E+0	1.085650E+0	9.832829E-1	9.229917E-1	9.488820E-1	1.031075E+0	9.210583E-1	9.398216E-1	9.727210E-1	1.046701E+0	9.843510E-1	9.768743E-1	9.687258E-1	1.079119E+0	9.972037E-1	9.914146E-1	9.200628E-1	1.103167E+0	9.670408E-1	1.011805E+0	9.368317E-1	9.952700E-1	9.359940E-1	7.574837E-1	9.254914E-1	1.016875E+0	9.762213E-1	9.542629E-1	9.772103E-1	1.059727E+0	9.542607E-1	9.080925E-1	8.812155E-1	1.089552E+0	1.058792E+0	1.017014E+0	9.494829E-1	1.011126E+0	9.726136E-1	1.027169E+0	9.775291E-1	1.038102E+0	1.011938E+0	1.011926E+0	9.571715E-1	1.014120E+0	1.048548E+0	9.496058E-1	9.683764E-1	1.051540E+0	1.059104E+0	9.560267E-1	9.642814E-1	9.839415E-1	1.003903E+0	9.355671E-1	9.738030E-1	1.009052E+0	9.791322E-1	1.005317E+0	9.113973E-1	1.011551E+0	9.307407E-1	9.934307E-1	9.572909E-1	1.083035E+0	9.412015E-1	1.022473E+0	9.716479E-1	9.203960E-1	9.724802E-1	9.606484E-1	9.253885E-1	1.008272E+0	8.213019E-1	9.923967E-1	9.612303E-1	1.066272E+0	1.056387E+0	9.571071E-1	9.789755E-1	1.119476E+0	1.104188E+0	9.907893E-1	1.033746E+0	1.054499E+0	1.061070E+0
5.362680E+2	7.736495E-1	8.585294E-1	7.399629E-1	7.911765E-1	7.340971E-1	8.874379E-1	7.128269E-1	7.559200E-1	7.378807E-1	7.872502E-1	7.358352E-1	8.287367E-1	7.345019E-1	7.963839E-1	7.698926E-1	7.782998E-1	7.592394E-1	8.194593E-1	7.590562E-1	7.472288E-1	7.683103E-1	8.965830E-1	7.751003E-1	7.211502E-1	7.075982E-1	7.391304E-1	7.631744E-1	7.393680E-1	7.347266E-1	7.297711E-1	7.672152E-1	7.967674E-1	7.305245E-1	7.899972E-1	7.043564E-1	7.423961E-1	7.717135E-1	8.895921E-1	7.548699E-1	7.347169E-1	8.196744E-1	7.922075E-1	7.248602E-1	6.760867E-1	8.095238E-1	7.385017E-1	7.806006E-1	7.322649E-1	7.936269E-1	8.439643E-1	7.545354E-1	6.582861E-1	7.866790E-1	8.930790E-1	7.067090E-1	7.103338E-1	7.514229E-1	8.092855E-1	6.850874E-1	7.872454E-1	7.534517E-1	8.310522E-1	7.450494E-1	7.544447E-1	6.295889E-1	6.752701E-1	7.558767E-1	7.191178E-1	7.324782E-1	9.040793E-1	7.508708E-1	7.333544E-1	7.343907E-1	8.092555E-1	6.721165E-1	7.719610E-1	7.231972E-1	7.547819E-1	7.660325E-1	7.668289E-1	8.118788E-1	8.254157E-1	7.547065E-1	7.672006E-1	8.629063E-1	8.432289E-1	7.691348E-1	7.360633E-1	7.941479E-1	7.671426E-1	7.534850E-1	7.260500E-1	7.613028E-1	7.884110E-1	7.648882E-1	6.924110E-1	7.820267E-1	7.291614E-1	7.418582E-1	7.221291E-1	7.869273E-1	7.698970E-1	7.579763E-1	7.313446E-1	7.603155E-1	7.089917E-1	6.199408E-1	6.988604E-1	7.413030E-1	7.598467E-1	7.506118E-1	6.826557E-1	7.972978E-1	7.392558E-1	7.114157E-1	6.526898E-1	8.158246E-1	7.844487E-1	8.010791E-1	7.022078E-1	7.843528E-1	7.359148E-1	8.307038E-1	6.955630E-1	7.972567E-1	7.558639E-1	7.548421E-1	7.223515E-1	8.196615E-1	7.685972E-1	6.733977E-1	6.847754E-1	8.773924E-1	8.056906E-1	7.019487E-1	7.209203E-1	7.803961E-1	7.432425E-1	7.359599E-1	7.442345E-1	7.709865E-1	7.712187E-1	7.818804E-1	7.464446E-1	7.857974E-1	7.166717E-1	7.786040E-1	7.400365E-1	7.964584E-1	7.725556E-1	7.574849E-1	7.230925E-1	6.510130E-1	7.779619E-1	7.115130E-1	7.163259E-1	7.603726E-1	6.449517E-1	7.249867E-1	7.425935E-1	7.956674E-1	8.471515E-1	7.495773E-1	7.625307E-1	8.420400E-1	8.303235E-1	7.486042E-1	8.147629E-1	8.284369E-1	7.263094E-1
5.365140E+2	6.408790E-1	7.678780E-1	5.912586E-1	6.448196E-1	6.261538E-1	7.932022E-1	5.970430E-1	6.407124E-1	6.060722E-1	6.760574E-1	5.987888E-1	6.426049E-1	6.247364E-1	6.196017E-1	6.198350E-1	6.410371E-1	6.426968E-1	6.642000E-1	6.359089E-1	6.058911E-1	6.304466E-1	7.034809E-1	6.252374E-1	6.463109E-1	6.048320E-1	6.567337E-1	6.260050E-1	6.136287E-1	6.564437E-1	5.891981E-1	6.206576E-1	6.524735E-1	6.086991E-1	6.962655E-1	6.136025E-1	6.376846E-1	6.225717E-1	7.090757E-1	6.160831E-1	6.560012E-1	6.778543E-1	6.816369E-1	6.194043E-1	6.081711E-1	6.928195E-1	6.065631E-1	6.629669E-1	6.096306E-1	6.961724E-1	7.201398E-1	6.043694E-1	5.746435E-1	6.435391E-1	7.382320E-1	6.027829E-1	6.201698E-1	6.435418E-1	6.576172E-1	5.913183E-1	6.379632E-1	6.305190E-1	6.613814E-1	6.301172E-1	6.127088E-1	5.244781E-1	5.404768E-1	6.179649E-1	5.828502E-1	5.791088E-1	7.442986E-1	6.267337E-1	6.159648E-1	6.023131E-1	6.324924E-1	6.461648E-1	6.288281E-1	5.823890E-1	6.215905E-1	6.460040E-1	6.170245E-1	7.001788E-1	7.017379E-1	5.916309E-1	6.037587E-1	6.843632E-1	7.236699E-1	5.883682E-1	6.053472E-1	6.090666E-1	6.258617E-1	5.809507E-1	6.047455E-1	6.796790E-1	6.505892E-1	6.210602E-1	6.277200E-1	6.363929E-1	6.714103E-1	6.155172E-1	6.177639E-1	6.626476E-1	7.418202E-1	5.622224E-1	6.501577E-1	6.414692E-1	6.215902E-1	4.959882E-1	5.993345E-1	6.072407E-1	6.349931E-1	6.102252E-1	6.168514E-1	6.344314E-1	6.348786E-1	5.887125E-1	5.603316E-1	6.536359E-1	7.216910E-1	6.550676E-1	5.706557E-1	6.265715E-1	6.845111E-1	6.655971E-1	5.954711E-1	6.538123E-1	6.491664E-1	6.060033E-1	5.798878E-1	6.649511E-1	6.710789E-1	6.096081E-1	6.198985E-1	7.362068E-1	7.171193E-1	6.202382E-1	6.060628E-1	6.388504E-1	6.636135E-1	6.192657E-1	6.179718E-1	6.078886E-1	6.480331E-1	6.028983E-1	5.769660E-1	6.606656E-1	6.106072E-1	6.592556E-1	6.116317E-1	6.836572E-1	6.178118E-1	6.752900E-1	6.011696E-1	5.442977E-1	6.363279E-1	5.931881E-1	6.048628E-1	6.582960E-1	5.163973E-1	6.341988E-1	6.433470E-1	6.508806E-1	6.925535E-1	5.988075E-1	6.534195E-1	7.069090E-1	6.791788E-1	5.667928E-1	6.500816E-1	6.839297E-1	6.629762E-1
5.367660E+2	5.941138E-1	6.380826E-1	5.635006E-1	6.038892E-1	5.352835E-1	6.464812E-1	5.236928E-1	6.105394E-1	5.258883E-1	5.948222E-1	5.297304E-1	5.846296E-1	5.683291E-1	5.821530E-1	5.312595E-1	5.734221E-1	5.866030E-1	6.369019E-1	5.403943E-1	5.944829E-1	6.023336E-1	6.404045E-1	6.027586E-1	5.741627E-1	5.543004E-1	5.558269E-1	5.778254E-1	5.507598E-1	5.849907E-1	5.311479E-1	6.191090E-1	5.971280E-1	5.825124E-1	6.122094E-1	5.506876E-1	6.107760E-1	5.740619E-1	6.353833E-1	5.925051E-1	5.941534E-1	6.223870E-1	5.894939E-1	5.917431E-1	5.219906E-1	6.256999E-1	5.907525E-1	6.109894E-1	5.340916E-1	5.773983E-1	6.090156E-1	5.714481E-1	5.243444E-1	6.172692E-1	6.992257E-1	5.350060E-1	5.671644E-1	5.379936E-1	5.508442E-1	5.041615E-1	5.816198E-1	5.387219E-1	5.844995E-1	5.496069E-1	5.486987E-1	4.742995E-1	5.073397E-1	5.553330E-1	4.962943E-1	5.756623E-1	6.693472E-1	5.567230E-1	5.648791E-1	5.405630E-1	5.693635E-1	5.628768E-1	5.596672E-1	5.486422E-1	5.934366E-1	5.784880E-1	5.920572E-1	6.025205E-1	6.296442E-1	5.444400E-1	5.575958E-1	6.203903E-1	6.684452E-1	5.468331E-1	5.502514E-1	5.921869E-1	5.569441E-1	5.349413E-1	5.438033E-1	6.106120E-1	6.002199E-1	6.012031E-1	5.514949E-1	6.125093E-1	6.789426E-1	5.679824E-1	5.331919E-1	6.113021E-1	6.734610E-1	5.674423E-1	5.448945E-1	6.151807E-1	5.857798E-1	4.187908E-1	5.681582E-1	5.665633E-1	5.457320E-1	5.614206E-1	5.536577E-1	5.760454E-1	6.267532E-1	5.053447E-1	5.052721E-1	6.024190E-1	6.822427E-1	6.386151E-1	5.209818E-1	5.713777E-1	6.056112E-1	5.811238E-1	5.680065E-1	5.900593E-1	5.977332E-1	5.736469E-1	5.184802E-1	5.542681E-1	6.763860E-1	5.234922E-1	5.451365E-1	5.900766E-1	6.783699E-1	5.480706E-1	5.622800E-1	5.979067E-1	5.758973E-1	5.203837E-1	5.720583E-1	5.661126E-1	5.777268E-1	5.795008E-1	5.734455E-1	5.890690E-1	5.730963E-1	6.082905E-1	5.410392E-1	6.178058E-1	6.788636E-1	5.679447E-1	5.687264E-1	5.258391E-1	6.162683E-1	5.236207E-1	5.638270E-1	5.573858E-1	4.861813E-1	5.918321E-1	5.863537E-1	6.072551E-1	6.149438E-1	5.544635E-1	5.656557E-1	6.459212E-1	6.611520E-1	5.820591E-1	5.735258E-1	6.681911E-1	5.453573E-1
5.370120E+2	5.623997E-1	6.428901E-1	5.641616E-1	5.468348E-1	6.013704E-1	6.572166E-1	5.382415E-1	5.671998E-1	5.280853E-1	5.867564E-1	5.350835E-1	5.510652E-1	5.637554E-1	5.981240E-1	5.729425E-1	5.876572E-1	5.506600E-1	6.346271E-1	5.506063E-1	5.317366E-1	5.769234E-1	6.370853E-1	5.439663E-1	5.703935E-1	5.491905E-1	6.131469E-1	5.574205E-1	5.431927E-1	5.545181E-1	5.738318E-1	5.654402E-1	5.872449E-1	5.677107E-1	6.376074E-1	5.651639E-1	6.049258E-1	5.947042E-1	6.536633E-1	5.833959E-1	5.696183E-1	6.104113E-1	6.102261E-1	5.663877E-1	5.762100E-1	6.039314E-1	5.683989E-1	6.323277E-1	5.373558E-1	6.224711E-1	6.064757E-1	5.523889E-1	5.017381E-1	6.526530E-1	6.862228E-1	5.446070E-1	5.442136E-1	5.863949E-1	5.860308E-1	5.378221E-1	6.211186E-1	5.462375E-1	6.242656E-1	5.239364E-1	5.390468E-1	4.737715E-1	5.084631E-1	5.228123E-1	5.354784E-1	5.584293E-1	6.809672E-1	5.408379E-1	6.099868E-1	5.365603E-1	5.957630E-1	5.133874E-1	5.536539E-1	5.980995E-1	5.571604E-1	5.495523E-1	5.873755E-1	5.942230E-1	6.109993E-1	5.528033E-1	5.513574E-1	6.029429E-1	6.525045E-1	5.462480E-1	5.351278E-1	5.994215E-1	5.879568E-1	5.314910E-1	5.107208E-1	5.843553E-1	5.742054E-1	5.663196E-1	5.449755E-1	5.775575E-1	6.237016E-1	5.279536E-1	5.529856E-1	6.066344E-1	6.643056E-1	5.837553E-1	5.656109E-1	6.261343E-1	5.863868E-1	5.389371E-1	5.465732E-1	5.327613E-1	5.965770E-1	5.855219E-1	5.573135E-1	5.760453E-1	6.517535E-1	5.100418E-1	5.046804E-1	6.126623E-1	6.882192E-1	6.310746E-1	5.444536E-1	5.965743E-1	5.888754E-1	5.900832E-1	5.252845E-1	6.077686E-1	5.835061E-1	5.812956E-1	5.494293E-1	6.148075E-1	6.478605E-1	5.381639E-1	5.210401E-1	6.554504E-1	6.697586E-1	5.528419E-1	5.719465E-1	5.704168E-1	6.175783E-1	5.517066E-1	5.666209E-1	5.689740E-1	5.921488E-1	5.561048E-1	5.327099E-1	6.032591E-1	6.584652E-1	6.037744E-1	5.605129E-1	6.190252E-1	6.734227E-1	5.955482E-1	5.535516E-1	5.316074E-1	6.114058E-1	5.331343E-1	5.355447E-1	6.092988E-1	4.845334E-1	5.962336E-1	5.180609E-1	6.104165E-1	6.453666E-1	5.444116E-1	6.125029E-1	6.226026E-1	6.736318E-1	5.924684E-1	6.011211E-1	6.681901E-1	5.883336E-1
5.372590E+2	6.516301E-1	7.438424E-1	6.216603E-1	6.410981E-1	6.509367E-1	7.580129E-1	6.055296E-1	6.346774E-1	6.285897E-1	6.161395E-1	6.062830E-1	6.590826E-1	6.374411E-1	6.339200E-1	6.490135E-1	6.400200E-1	6.339832E-1	6.710245E-1	6.611393E-1	6.058916E-1	6.126056E-1	6.985013E-1	6.823010E-1	6.323115E-1	6.082381E-1	6.364325E-1	6.050329E-1	5.868519E-1	6.112605E-1	6.085481E-1	6.727783E-1	6.999125E-1	6.263466E-1	6.992891E-1	6.436682E-1	6.458746E-1	6.488911E-1	7.176441E-1	6.401967E-1	6.452675E-1	7.011759E-1	6.545692E-1	6.753012E-1	5.984679E-1	6.928198E-1	6.741682E-1	7.056431E-1	5.821198E-1	6.681538E-1	6.883898E-1	6.176535E-1	5.848160E-1	6.794577E-1	7.394149E-1	6.073015E-1	6.261806E-1	6.581206E-1	6.297106E-1	5.823024E-1	6.472571E-1	6.213930E-1	6.719856E-1	6.032805E-1	6.223608E-1	5.239502E-1	6.140514E-1	6.113402E-1	5.337243E-1	6.434433E-1	7.361643E-1	6.255573E-1	6.181390E-1	6.063158E-1	6.445453E-1	6.534073E-1	6.204086E-1	6.440658E-1	6.270046E-1	6.288572E-1	6.347097E-1	7.027326E-1	6.942799E-1	5.922283E-1	6.056302E-1	6.651715E-1	7.606766E-1	5.854430E-1	6.139893E-1	6.289613E-1	6.465373E-1	6.396123E-1	6.268010E-1	6.619840E-1	6.699614E-1	6.436002E-1	5.871000E-1	6.672677E-1	6.921249E-1	5.823683E-1	6.087668E-1	6.527281E-1	7.509761E-1	6.300838E-1	6.070445E-1	6.431121E-1	5.815314E-1	6.128727E-1	6.071287E-1	6.158349E-1	6.197404E-1	6.548114E-1	6.053614E-1	6.000142E-1	7.298809E-1	5.975190E-1	5.567793E-1	6.974555E-1	7.760812E-1	7.126492E-1	5.848481E-1	6.271710E-1	7.036378E-1	6.643173E-1	6.113394E-1	6.667994E-1	6.891097E-1	6.283581E-1	6.054324E-1	6.435477E-1	7.022586E-1	5.904709E-1	6.112488E-1	7.048932E-1	7.355720E-1	6.178523E-1	6.543941E-1	6.575671E-1	6.219326E-1	5.977701E-1	6.119300E-1	6.427972E-1	6.468311E-1	6.210303E-1	6.136780E-1	6.561504E-1	7.005033E-1	6.631265E-1	6.603162E-1	7.318269E-1	7.308471E-1	6.096560E-1	6.027392E-1	5.754467E-1	7.165665E-1	5.771345E-1	6.131813E-1	6.763778E-1	6.048473E-1	6.452043E-1	6.114112E-1	6.850228E-1	7.186304E-1	5.881647E-1	6.504543E-1	7.003324E-1	7.228587E-1	6.056530E-1	6.536420E-1	7.254213E-1	6.833326E-1
5.375110E+2	7.236593E-1	8.166381E-1	7.075784E-1	7.595485E-1	7.307923E-1	8.343552E-1	6.952468E-1	7.147741E-1	6.428686E-1	7.394316E-1	6.817659E-1	7.457407E-1	6.572595E-1	7.253405E-1	6.860065E-1	7.732160E-1	7.036907E-1	7.665688E-1	7.476423E-1	7.421580E-1	7.191120E-1	8.318468E-1	7.531972E-1	7.281489E-1	6.740995E-1	7.289796E-1	7.025253E-1	7.259788E-1	7.016266E-1	7.360310E-1	7.672149E-1	7.498227E-1	6.650576E-1	7.851594E-1	7.411025E-1	6.985230E-1	7.531346E-1	7.976195E-1	7.430809E-1	7.526070E-1	7.730312E-1	7.386497E-1	7.150636E-1	6.635310E-1	7.520790E-1	7.548581E-1	8.287481E-1	6.679173E-1	7.619543E-1	7.645895E-1	6.933146E-1	6.645036E-1	7.963289E-1	8.322047E-1	7.027546E-1	6.737215E-1	7.059380E-1	6.867377E-1	6.766719E-1	7.407771E-1	6.884958E-1	8.244243E-1	7.036274E-1	7.320920E-1	6.015950E-1	6.460647E-1	6.565077E-1	6.898761E-1	7.583272E-1	8.453961E-1	6.802714E-1	7.431369E-1	6.795012E-1	7.880206E-1	6.872053E-1	7.352755E-1	7.115605E-1	7.206719E-1	7.204863E-1	7.059711E-1	7.601781E-1	8.073923E-1	6.585335E-1	6.942133E-1	7.855576E-1	8.682786E-1	7.919499E-1	7.014937E-1	7.573727E-1	7.372781E-1	7.092008E-1	6.877433E-1	7.196345E-1	7.751273E-1	6.913640E-1	7.034431E-1	7.965895E-1	7.825189E-1	6.768113E-1	6.723460E-1	7.857601E-1	8.437495E-1	7.233934E-1	6.949506E-1	7.729125E-1	7.496583E-1	7.379124E-1	6.976615E-1	6.496363E-1	7.734051E-1	7.421762E-1	6.675102E-1	7.512032E-1	8.180074E-1	6.673830E-1	6.449927E-1	7.788341E-1	8.603558E-1	7.928529E-1	6.388875E-1	7.537562E-1	7.550421E-1	7.551904E-1	7.059376E-1	7.760056E-1	7.865053E-1	7.136612E-1	7.252989E-1	7.554536E-1	7.898257E-1	6.708463E-1	7.020750E-1	7.774088E-1	8.487465E-1	6.870386E-1	7.254691E-1	7.002643E-1	7.737254E-1	7.218335E-1	7.478595E-1	7.005967E-1	7.531911E-1	7.163703E-1	6.946455E-1	7.548370E-1	7.787579E-1	7.740884E-1	7.272569E-1	8.092631E-1	8.070103E-1	7.666859E-1	7.084411E-1	6.412065E-1	8.162578E-1	6.669188E-1	6.714081E-1	7.428731E-1	5.856189E-1	7.767083E-1	7.322762E-1	7.488808E-1	8.241793E-1	6.851304E-1	7.607522E-1	7.977933E-1	8.705373E-1	7.576259E-1	7.907284E-1	7.898068E-1	8.280956E-1
5.377580E+2	8.408414E-1	9.326988E-1	8.741269E-1	8.525719E-1	8.547072E-1	9.417127E-1	8.904428E-1	8.195581E-1	7.669882E-1	8.638761E-1	7.802681E-1	8.342287E-1	7.807456E-1	8.833975E-1	7.808348E-1	7.869423E-1	8.605340E-1	9.002163E-1	8.515677E-1	7.877926E-1	8.959020E-1	9.082024E-1	8.500320E-1	8.385246E-1	8.308044E-1	8.101833E-1	7.739440E-1	8.406567E-1	7.893669E-1	7.889592E-1	8.373983E-1	8.501363E-1	8.210401E-1	9.230361E-1	8.351960E-1	8.395027E-1	7.970005E-1	9.398626E-1	8.175656E-1	8.098549E-1	8.770327E-1	8.613149E-1	8.130287E-1	7.850961E-1	8.705971E-1	8.159202E-1	8.599344E-1	8.120006E-1	8.752463E-1	8.973039E-1	8.209553E-1	7.317569E-1	8.901470E-1	9.882335E-1	8.320966E-1	7.414811E-1	8.033232E-1	8.299122E-1	7.752498E-1	8.261635E-1	8.184071E-1	8.986554E-1	7.899724E-1	7.910219E-1	6.697323E-1	7.567082E-1	7.384121E-1	8.021653E-1	7.933659E-1	9.552084E-1	8.102917E-1	8.735692E-1	7.618352E-1	8.413937E-1	7.656640E-1	8.501427E-1	8.023291E-1	8.192118E-1	7.987182E-1	7.954373E-1	8.501763E-1	8.900515E-1	7.762122E-1	7.846682E-1	8.966384E-1	9.348902E-1	7.878552E-1	7.922391E-1	8.616691E-1	8.314654E-1	7.885671E-1	7.869921E-1	8.434974E-1	8.791854E-1	8.491459E-1	7.972196E-1	8.012504E-1	8.917445E-1	7.850148E-1	7.593168E-1	8.820328E-1	8.974604E-1	7.892979E-1	7.934948E-1	8.309663E-1	8.212787E-1	8.504479E-1	7.678094E-1	7.796882E-1	7.993925E-1	8.307461E-1	7.693511E-1	8.114334E-1	9.336346E-1	7.442926E-1	7.024201E-1	8.903740E-1	1.007390E+0	8.785413E-1	7.578859E-1	8.695424E-1	8.554596E-1	8.255846E-1	7.816171E-1	8.267720E-1	8.625612E-1	7.995522E-1	7.930919E-1	8.490144E-1	8.687693E-1	7.754611E-1	8.281203E-1	9.328778E-1	9.293214E-1	7.580129E-1	8.357777E-1	8.394712E-1	8.017200E-1	7.826369E-1	7.563174E-1	8.156241E-1	8.619552E-1	7.596542E-1	8.188631E-1	8.477185E-1	8.861158E-1	8.476326E-1	8.294945E-1	8.927974E-1	9.520819E-1	8.893650E-1	7.858853E-1	7.156186E-1	9.195955E-1	7.757296E-1	7.701168E-1	8.181184E-1	7.119757E-1	7.915643E-1	8.162911E-1	8.588924E-1	9.551843E-1	7.649499E-1	8.603760E-1	8.611734E-1	9.481896E-1	8.513079E-1	8.165428E-1	9.457617E-1	9.072620E-1
5.380110E+2	9.225466E-1	1.101639E+0	1.123289E+0	9.214087E-1	9.632014E-1	1.084259E+0	1.122012E+0	9.435433E-1	8.620004E-1	9.935056E-1	9.917269E-1	1.038668E+0	9.215100E-1	9.863817E-1	9.793483E-1	9.567413E-1	9.721757E-1	1.069125E+0	1.077438E+0	9.278623E-1	9.467218E-1	1.104071E+0	1.114598E+0	9.343623E-1	9.665016E-1	9.361665E-1	9.944355E-1	9.547530E-1	9.217649E-1	9.454679E-1	9.013879E-1	9.628037E-1	9.878379E-1	1.027047E+0	1.015033E+0	9.781426E-1	9.910394E-1	1.109526E+0	1.087637E+0	9.458189E-1	1.032719E+0	9.995287E-1	1.001467E+0	9.020943E-1	1.048375E+0	9.892941E-1	1.008207E+0	9.332360E-1	1.000110E+0	1.033193E+0	9.572603E-1	8.538301E-1	1.011307E+0	1.133624E+0	9.608736E-1	9.119720E-1	9.164517E-1	9.524595E-1	8.894555E-1	9.347850E-1	9.359713E-1	1.052420E+0	9.136549E-1	9.444416E-1	8.186844E-1	9.083508E-1	9.076392E-1	8.980784E-1	8.984853E-1	1.163795E+0	9.344284E-1	9.110688E-1	9.630953E-1	1.002086E+0	9.340500E-1	9.313313E-1	9.186999E-1	9.274978E-1	9.792974E-1	9.379594E-1	1.019323E+0	1.021809E+0	9.374958E-1	8.875978E-1	1.021095E+0	1.119352E+0	9.118769E-1	9.332181E-1	9.768171E-1	9.377135E-1	9.254442E-1	9.199043E-1	9.645062E-1	9.699597E-1	9.478936E-1	9.406429E-1	9.643588E-1	1.116474E+0	9.194873E-1	8.768776E-1	9.532159E-1	1.067139E+0	9.419853E-1	9.065967E-1	9.711720E-1	9.693765E-1	8.901340E-1	9.248926E-1	9.435417E-1	9.383695E-1	9.693259E-1	9.385630E-1	1.025925E+0	1.069263E+0	8.088733E-1	8.249721E-1	9.854107E-1	1.122147E+0	1.039635E+0	8.774292E-1	9.997270E-1	9.666355E-1	1.002211E+0	8.475315E-1	9.713972E-1	9.632406E-1	9.425077E-1	9.507851E-1	1.023904E+0	1.071104E+0	9.126083E-1	9.578729E-1	1.078459E+0	1.090473E+0	8.683522E-1	9.904370E-1	9.745833E-1	1.010123E+0	9.343391E-1	9.520543E-1	9.438132E-1	9.791325E-1	9.357127E-1	9.154203E-1	9.328601E-1	1.036805E+0	9.792389E-1	9.633761E-1	1.025719E+0	1.155787E+0	9.954832E-1	8.915871E-1	8.459843E-1	1.050287E+0	8.405400E-1	8.688257E-1	9.662750E-1	8.592094E-1	9.522306E-1	9.405948E-1	1.023911E+0	1.055145E+0	8.855655E-1	9.700806E-1	1.004674E+0	1.046642E+0	9.796864E-1	9.705437E-1	1.075962E+0	9.886899E-1
5.382850E+2	1.134334E+0	1.311785E+0	1.285211E+0	1.119859E+0	1.077202E+0	1.301955E+0	1.279623E+0	1.182735E+0	1.096510E+0	1.175563E+0	1.117531E+0	1.161943E+0	1.091748E+0	1.132323E+0	1.099707E+0	1.101630E+0	1.150259E+0	1.258506E+0	1.253450E+0	1.135749E+0	1.145679E+0	1.245716E+0	1.261003E+0	1.096964E+0	1.071539E+0	1.191120E+0	1.135572E+0	1.134047E+0	1.100922E+0	1.073520E+0	1.109355E+0	1.156514E+0	1.078354E+0	1.263494E+0	1.226605E+0	1.152467E+0	1.178884E+0	1.255767E+0	1.330917E+0	1.115007E+0	1.187144E+0	1.197635E+0	1.218718E+0	1.037927E+0	1.186848E+0	1.090156E+0	1.238550E+0	1.079185E+0	1.187103E+0	1.226867E+0	1.236223E+0	1.032419E+0	1.175355E+0	1.274877E+0	1.264179E+0	1.093392E+0	1.077398E+0	1.120506E+0	1.118468E+0	1.129374E+0	1.144796E+0	1.326147E+0	1.098012E+0	1.071954E+0	9.063654E-1	9.858566E-1	1.180451E+0	1.069436E+0	1.075980E+0	1.262567E+0	1.255066E+0	1.075197E+0	1.040855E+0	1.188031E+0	1.122352E+0	1.063639E+0	1.123511E+0	1.040115E+0	1.132547E+0	1.114812E+0	1.199321E+0	1.251142E+0	1.129842E+0	1.108432E+0	1.260704E+0	1.241757E+0	1.164015E+0	1.058533E+0	1.161898E+0	1.131831E+0	1.078425E+0	1.062683E+0	1.165998E+0	1.110550E+0	1.085819E+0	1.087075E+0	1.163003E+0	1.245158E+0	1.067719E+0	1.074212E+0	1.203525E+0	1.295411E+0	1.095327E+0	1.090807E+0	1.126165E+0	1.113225E+0	1.111942E+0	1.060991E+0	1.115416E+0	1.115762E+0	1.109111E+0	1.038837E+0	1.121800E+0	1.271142E+0	1.011421E+0	9.374587E-1	1.233530E+0	1.329548E+0	1.210324E+0	1.010620E+0	1.107115E+0	1.157310E+0	1.122522E+0	1.034289E+0	1.153802E+0	1.163503E+0	1.117820E+0	1.048054E+0	1.181061E+0	1.270121E+0	1.075272E+0	1.097510E+0	1.221293E+0	1.280532E+0	1.102152E+0	1.112118E+0	1.143620E+0	1.181201E+0	1.065773E+0	1.103087E+0	1.062274E+0	1.174427E+0	1.077262E+0	1.042656E+0	1.181834E+0	1.219831E+0	1.125683E+0	1.114906E+0	1.225714E+0	1.257338E+0	1.150673E+0	1.084676E+0	9.878863E-1	1.215628E+0	1.097406E+0	1.056815E+0	1.169844E+0	9.295294E-1	1.079883E+0	1.087009E+0	1.218013E+0	1.291699E+0	1.055847E+0	1.138492E+0	1.237267E+0	1.274053E+0	1.098350E+0	1.176173E+0	1.153223E+0	1.223928E+0
5.385110E+2	1.383749E+0	1.532919E+0	1.534374E+0	1.403890E+0	1.379005E+0	1.546488E+0	1.569383E+0	1.364873E+0	1.262918E+0	1.408320E+0	1.308112E+0	1.392015E+0	1.227940E+0	1.339392E+0	1.333127E+0	1.356838E+0	1.345767E+0	1.445614E+0	1.518966E+0	1.318283E+0	1.374912E+0	1.496912E+0	1.537096E+0	1.360787E+0	1.265715E+0	1.342181E+0	1.367965E+0	1.368641E+0	1.323163E+0	1.304583E+0	1.373058E+0	1.374436E+0	1.305497E+0	1.452166E+0	1.439848E+0	1.356040E+0	1.349702E+0	1.574530E+0	1.608489E+0	1.333777E+0	1.475196E+0	1.364070E+0	1.369699E+0	1.253662E+0	1.442630E+0	1.353489E+0	1.423481E+0	1.294611E+0	1.452059E+0	1.481501E+0	1.585650E+0	1.177664E+0	1.418211E+0	1.527834E+0	1.518343E+0	1.246397E+0	1.290245E+0	1.349221E+0	1.330650E+0	1.367526E+0	1.415358E+0	1.412970E+0	1.331959E+0	1.304623E+0	1.100741E+0	1.273415E+0	1.445433E+0	1.280563E+0	1.260944E+0	1.592588E+0	1.538048E+0	1.357800E+0	1.289572E+0	1.427351E+0	1.369802E+0	1.310212E+0	1.281192E+0	1.337361E+0	1.361351E+0	1.352002E+0	1.395275E+0	1.481096E+0	1.472122E+0	1.314918E+0	1.439831E+0	1.522435E+0	1.549534E+0	1.277295E+0	1.368080E+0	1.373618E+0	1.372884E+0	1.279173E+0	1.357214E+0	1.322541E+0	1.283313E+0	1.326783E+0	1.406504E+0	1.457331E+0	1.405464E+0	1.236158E+0	1.415325E+0	1.437623E+0	1.445074E+0	1.287337E+0	1.316759E+0	1.277103E+0	1.387572E+0	1.269037E+0	1.318229E+0	1.296546E+0	1.327223E+0	1.264974E+0	1.388530E+0	1.531772E+0	1.161131E+0	1.161841E+0	1.416776E+0	1.534560E+0	1.450937E+0	1.224051E+0	1.416078E+0	1.396398E+0	1.393220E+0	1.220436E+0	1.399369E+0	1.350089E+0	1.308427E+0	1.266172E+0	1.376743E+0	1.467149E+0	1.224539E+0	1.230971E+0	1.504763E+0	1.541942E+0	1.262591E+0	1.275306E+0	1.316165E+0	1.426931E+0	1.275207E+0	1.310906E+0	1.328382E+0	1.336071E+0	1.306547E+0	1.280028E+0	1.390818E+0	1.510861E+0	1.388249E+0	1.304166E+0	1.406805E+0	1.491265E+0	1.320583E+0	1.239565E+0	1.173052E+0	1.448443E+0	1.227622E+0	1.281960E+0	1.364080E+0	1.128405E+0	1.279066E+0	1.247177E+0	1.444359E+0	1.503419E+0	1.256873E+0	1.363237E+0	1.449532E+0	1.515332E+0	1.296818E+0	1.342636E+0	1.429362E+0	1.456904E+0
5.387700E+2	1.557372E+0	1.825475E+0	1.789487E+0	1.571953E+0	1.566803E+0	1.809515E+0	1.811867E+0	1.578827E+0	1.490838E+0	1.572518E+0	1.501366E+0	1.579975E+0	1.502352E+0	1.629622E+0	1.543629E+0	1.571374E+0	1.590833E+0	1.629877E+0	1.685968E+0	1.548988E+0	1.536562E+0	1.810638E+0	1.807427E+0	1.540619E+0	1.533138E+0	1.573849E+0	1.621331E+0	1.476335E+0	1.487083E+0	1.529956E+0	1.585150E+0	1.526633E+0	1.480832E+0	1.692843E+0	1.679811E+0	1.583595E+0	1.539615E+0	1.767037E+0	1.819080E+0	1.525455E+0	1.691391E+0	1.571388E+0	1.670508E+0	1.440288E+0	1.703253E+0	1.508323E+0	1.651634E+0	1.437762E+0	1.606158E+0	1.704384E+0	1.791837E+0	1.374905E+0	1.619786E+0	1.766012E+0	1.690611E+0	1.477545E+0	1.558491E+0	1.534863E+0	1.551247E+0	1.527846E+0	1.546880E+0	1.658861E+0	1.487149E+0	1.454489E+0	1.316773E+0	1.372824E+0	1.713425E+0	1.432620E+0	1.501624E+0	1.780838E+0	1.781028E+0	1.551818E+0	1.465673E+0	1.551887E+0	1.503786E+0	1.466577E+0	1.475530E+0	1.524695E+0	1.559613E+0	1.554341E+0	1.671654E+0	1.597934E+0	1.747501E+0	1.523898E+0	1.638145E+0	1.797420E+0	1.742584E+0	1.526303E+0	1.424145E+0	1.556248E+0	1.537942E+0	1.511335E+0	1.535876E+0	1.527336E+0	1.556480E+0	1.455161E+0	1.578351E+0	1.638118E+0	1.648140E+0	1.464681E+0	1.662714E+0	1.755008E+0	1.813743E+0	1.450831E+0	1.487633E+0	1.521098E+0	1.640371E+0	1.406935E+0	1.559425E+0	1.497665E+0	1.576065E+0	1.460301E+0	1.563074E+0	1.661776E+0	1.419454E+0	1.296826E+0	1.616522E+0	1.733590E+0	1.757355E+0	1.406914E+0	1.550462E+0	1.591854E+0	1.614643E+0	1.440149E+0	1.553438E+0	1.577162E+0	1.490798E+0	1.487238E+0	1.590768E+0	1.757712E+0	1.678084E+0	1.488005E+0	1.713520E+0	1.787976E+0	1.761801E+0	1.460103E+0	1.580544E+0	1.583699E+0	1.522720E+0	1.484895E+0	1.529821E+0	1.527760E+0	1.546948E+0	1.481188E+0	1.595929E+0	1.576828E+0	1.585014E+0	1.485516E+0	1.620821E+0	1.785037E+0	1.671448E+0	1.484457E+0	1.335719E+0	1.618037E+0	1.464866E+0	1.451650E+0	1.546069E+0	1.295415E+0	1.467242E+0	1.483013E+0	1.637829E+0	1.721344E+0	1.522937E+0	1.481243E+0	1.651629E+0	1.720554E+0	1.545942E+0	1.565179E+0	1.736978E+0	1.502142E+0
5.390450E+2	1.811086E+0	2.087129E+0	2.110021E+0	1.853503E+0	1.832805E+0	2.126217E+0	2.152549E+0	1.864106E+0	1.748964E+0	1.922228E+0	1.869680E+0	1.905864E+0	1.797095E+0	1.880755E+0	1.824984E+0	1.835730E+0	1.875112E+0	1.901152E+0	2.021769E+0	1.764476E+0	1.853377E+0	2.067925E+0	2.127904E+0	1.887357E+0	1.737534E+0	1.825218E+0	1.871866E+0	1.848891E+0	1.845395E+0	1.748496E+0	1.809635E+0	1.844379E+0	1.808737E+0	1.989760E+0	1.974900E+0	1.889542E+0	1.884857E+0	2.082941E+0	2.147562E+0	1.788693E+0	1.995202E+0	1.865672E+0	1.998978E+0	1.729076E+0	1.952982E+0	1.891056E+0	1.891825E+0	1.781884E+0	1.904615E+0	1.960286E+0	2.006690E+0	1.642222E+0	1.892662E+0	2.043200E+0	2.039664E+0	1.732189E+0	1.777168E+0	1.747805E+0	1.794085E+0	1.772971E+0	1.791130E+0	1.976331E+0	1.798689E+0	1.720687E+0	1.471536E+0	1.616015E+0	1.974193E+0	1.696383E+0	1.757239E+0	2.049850E+0	2.059895E+0	1.780621E+0	1.726398E+0	1.853183E+0	1.840556E+0	1.707736E+0	1.752493E+0	1.693619E+0	1.828071E+0	1.767602E+0	1.859948E+0	1.965244E+0	2.037217E+0	1.771553E+0	1.926607E+0	2.044509E+0	2.096515E+0	1.725075E+0	1.822644E+0	1.828470E+0	1.836423E+0	1.735952E+0	1.830977E+0	1.842835E+0	1.766320E+0	1.727967E+0	1.856803E+0	2.013505E+0	1.972752E+0	1.627228E+0	1.830755E+0	2.110233E+0	2.131517E+0	1.699993E+0	1.852386E+0	1.777839E+0	1.781717E+0	1.682731E+0	1.810934E+0	1.771100E+0	1.817072E+0	1.737099E+0	1.858691E+0	2.036158E+0	1.682472E+0	1.527129E+0	1.881717E+0	2.111338E+0	1.997283E+0	1.654736E+0	1.856423E+0	1.836322E+0	1.824549E+0	1.672070E+0	1.832060E+0	1.813538E+0	1.819068E+0	1.713214E+0	1.781562E+0	2.024396E+0	1.956840E+0	1.727121E+0	1.894262E+0	2.080749E+0	2.021247E+0	1.747814E+0	1.777652E+0	1.800192E+0	1.794185E+0	1.732589E+0	1.767314E+0	1.796363E+0	1.792024E+0	1.693918E+0	1.848131E+0	1.907307E+0	1.959833E+0	1.731375E+0	1.937279E+0	1.982091E+0	2.020469E+0	1.720453E+0	1.534731E+0	1.932911E+0	1.758599E+0	1.629656E+0	1.843549E+0	1.466822E+0	1.785822E+0	1.659394E+0	1.891996E+0	1.929961E+0	1.987072E+0	1.734454E+0	1.962546E+0	1.988869E+0	2.031697E+0	1.731642E+0	1.937285E+0	1.974879E+0
5.392620E+2	2.042227E+0	2.311692E+0	2.301024E+0	1.968235E+0	1.967183E+0	2.316482E+0	2.282888E+0	2.067093E+0	1.909329E+0	1.984455E+0	1.963901E+0	2.035237E+0	1.973430E+0	2.035505E+0	2.001096E+0	2.021290E+0	1.967692E+0	2.127503E+0	2.253044E+0	1.971097E+0	2.026384E+0	2.272647E+0	2.364224E+0	1.995581E+0	1.912978E+0	1.975085E+0	2.082154E+0	1.969393E+0	1.918427E+0	1.923787E+0	1.988704E+0	2.090959E+0	1.989768E+0	2.141547E+0	2.225448E+0	2.023500E+0	1.996844E+0	2.293735E+0	2.333502E+0	1.941524E+0	2.163494E+0	2.042469E+0	2.160911E+0	1.874041E+0	2.093873E+0	1.923222E+0	2.101923E+0	1.877472E+0	2.108666E+0	2.148246E+0	2.256773E+0	1.843415E+0	2.065290E+0	2.235282E+0	2.276885E+0	1.921804E+0	1.994098E+0	1.982583E+0	1.995446E+0	1.971626E+0	2.019818E+0	2.083039E+0	1.963795E+0	1.854803E+0	1.666968E+0	1.745757E+0	2.087416E+0	1.892304E+0	1.903717E+0	2.326414E+0	2.171675E+0	1.969204E+0	1.803015E+0	2.090210E+0	1.936521E+0	1.861089E+0	1.933451E+0	2.002776E+0	2.021509E+0	1.955898E+0	2.099304E+0	2.118128E+0	2.209250E+0	1.931880E+0	2.228443E+0	2.242627E+0	2.214095E+0	1.909807E+0	1.942009E+0	2.031781E+0	2.045190E+0	1.915296E+0	2.007921E+0	1.956302E+0	1.968645E+0	1.869383E+0	2.060104E+0	2.115824E+0	2.125986E+0	1.843756E+0	2.072897E+0	2.228032E+0	2.273114E+0	1.916675E+0	2.065983E+0	1.944147E+0	2.004071E+0	1.818827E+0	1.880254E+0	1.953575E+0	1.926125E+0	1.838936E+0	2.007422E+0	2.209287E+0	1.847445E+0	1.630142E+0	2.045041E+0	2.189035E+0	2.247492E+0	1.782468E+0	1.911019E+0	2.102312E+0	2.021649E+0	1.840515E+0	1.994984E+0	1.993554E+0	1.986141E+0	1.833079E+0	2.026160E+0	2.153755E+0	2.120141E+0	1.822271E+0	2.118399E+0	2.232680E+0	2.142919E+0	1.841633E+0	1.989975E+0	2.026014E+0	2.007921E+0	1.851596E+0	1.960744E+0	1.976036E+0	1.980365E+0	1.844285E+0	2.051955E+0	2.056058E+0	2.163044E+0	1.912110E+0	2.012881E+0	2.225694E+0	2.156642E+0	1.843424E+0	1.682977E+0	2.086702E+0	1.856112E+0	1.836506E+0	1.968374E+0	1.639327E+0	1.910173E+0	1.837253E+0	2.024770E+0	2.133604E+0	2.060976E+0	1.873218E+0	2.076749E+0	2.183004E+0	2.243355E+0	1.996022E+0	2.167642E+0	2.108332E+0
5.395370E+2	2.252938E+0	2.551372E+0	2.503926E+0	2.270865E+0	2.194633E+0	2.542528E+0	2.518700E+0	2.245388E+0	2.069696E+0	2.282889E+0	2.238527E+0	2.302535E+0	2.140111E+0	2.204576E+0	2.216804E+0	2.216001E+0	2.153400E+0	2.343045E+0	2.450083E+0	2.184054E+0	2.154517E+0	2.509455E+0	2.537722E+0	2.192099E+0	2.070247E+0	2.182275E+0	2.209688E+0	2.177210E+0	2.100737E+0	2.096795E+0	2.283368E+0	2.195723E+0	2.172505E+0	2.339898E+0	2.418089E+0	2.206012E+0	2.213588E+0	2.505676E+0	2.505515E+0	2.147512E+0	2.252997E+0	2.269369E+0	2.285958E+0	2.049825E+0	2.359940E+0	2.196913E+0	2.289042E+0	2.055127E+0	2.226218E+0	2.398432E+0	2.424846E+0	1.945708E+0	2.325301E+0	2.491196E+0	2.477961E+0	2.063339E+0	2.178951E+0	2.159125E+0	2.080801E+0	2.186545E+0	2.202339E+0	2.313684E+0	2.097977E+0	2.082392E+0	1.844973E+0	1.916493E+0	2.302414E+0	1.992312E+0	2.024343E+0	2.533836E+0	2.474662E+0	2.163765E+0	2.035721E+0	2.204415E+0	2.123014E+0	2.112478E+0	2.056221E+0	2.144088E+0	2.123318E+0	2.135875E+0	2.199517E+0	2.323845E+0	2.466711E+0	2.085965E+0	2.245308E+0	2.395782E+0	2.413004E+0	2.065373E+0	2.174112E+0	2.240827E+0	2.153317E+0	2.127141E+0	2.210554E+0	2.119588E+0	2.209609E+0	2.021833E+0	2.212145E+0	2.419651E+0	2.337387E+0	2.054287E+0	2.316788E+0	2.397711E+0	2.509975E+0	2.100325E+0	2.179901E+0	2.168115E+0	2.178580E+0	2.017280E+0	2.096819E+0	2.131538E+0	2.121948E+0	1.991441E+0	2.196097E+0	2.329915E+0	1.969564E+0	1.796504E+0	2.309095E+0	2.492069E+0	2.389392E+0	2.019918E+0	2.177388E+0	2.146544E+0	2.177157E+0	2.012018E+0	2.195693E+0	2.177951E+0	2.119097E+0	2.045301E+0	2.297057E+0	2.320267E+0	2.348509E+0	1.992188E+0	2.282108E+0	2.391364E+0	2.395804E+0	2.148677E+0	2.156084E+0	2.128661E+0	2.152253E+0	2.048545E+0	2.144444E+0	2.105833E+0	2.144724E+0	2.067575E+0	2.236425E+0	2.319923E+0	2.327557E+0	2.052081E+0	2.279950E+0	2.347796E+0	2.448626E+0	2.011396E+0	1.881407E+0	2.292166E+0	2.042219E+0	1.962937E+0	2.141610E+0	1.800841E+0	2.126412E+0	2.027886E+0	2.208118E+0	2.334148E+0	2.412776E+0	2.092625E+0	2.273466E+0	2.451318E+0	2.467494E+0	2.128656E+0	2.272088E+0	2.192024E+0
5.397860E+2	2.274979E+0	2.569225E+0	2.548863E+0	2.313662E+0	2.150579E+0	2.555046E+0	2.597502E+0	2.420393E+0	2.124618E+0	2.291527E+0	2.215510E+0	2.302531E+0	2.182797E+0	2.262952E+0	2.190749E+0	2.202274E+0	2.149046E+0	2.422096E+0	2.414642E+0	2.213204E+0	2.198309E+0	2.468514E+0	2.524464E+0	2.208251E+0	2.082170E+0	2.176901E+0	2.172277E+0	2.150429E+0	2.127529E+0	2.184443E+0	2.092945E+0	2.170523E+0	2.087112E+0	2.341710E+0	2.427554E+0	2.187882E+0	2.179013E+0	2.502818E+0	2.466398E+0	2.157734E+0	2.348804E+0	2.113881E+0	2.280197E+0	2.058956E+0	2.299470E+0	2.142395E+0	2.309289E+0	2.044404E+0	2.226219E+0	2.348273E+0	2.476253E+0	1.970013E+0	2.294742E+0	2.402537E+0	2.421478E+0	2.081915E+0	2.130546E+0	2.140923E+0	2.188997E+0	2.166798E+0	2.192675E+0	2.313025E+0	2.140571E+0	2.039718E+0	1.752538E+0	1.890099E+0	2.290368E+0	1.965994E+0	2.053637E+0	2.511177E+0	2.468194E+0	2.124092E+0	2.047726E+0	2.228518E+0	2.134480E+0	2.150967E+0	2.056801E+0	2.096445E+0	2.177437E+0	2.074498E+0	2.273556E+0	2.376673E+0	2.439828E+0	2.074734E+0	2.265666E+0	2.373007E+0	2.478521E+0	2.061051E+0	2.197629E+0	2.241405E+0	2.165970E+0	2.078389E+0	2.172313E+0	2.157223E+0	2.143060E+0	2.094548E+0	2.228456E+0	2.317955E+0	2.290478E+0	2.002102E+0	2.208261E+0	2.392219E+0	2.494968E+0	2.129999E+0	2.147587E+0	2.119556E+0	2.200325E+0	1.964520E+0	2.050988E+0	2.094820E+0	2.127970E+0	1.979429E+0	2.165372E+0	2.284293E+0	1.983651E+0	1.972341E+0	2.240236E+0	2.450828E+0	2.436691E+0	1.986072E+0	2.100001E+0	2.129809E+0	2.178439E+0	2.006521E+0	2.226388E+0	2.116670E+0	2.177337E+0	1.958841E+0	2.284217E+0	2.314961E+0	2.296203E+0	1.981683E+0	2.250245E+0	2.416583E+0	2.410117E+0	2.112856E+0	2.135029E+0	2.243129E+0	2.128912E+0	2.008069E+0	2.158179E+0	2.142487E+0	2.135367E+0	2.034387E+0	2.169344E+0	2.298581E+0	2.285623E+0	2.083116E+0	2.280559E+0	2.385274E+0	2.389735E+0	1.986805E+0	1.850836E+0	2.291556E+0	2.177782E+0	1.961275E+0	2.069866E+0	1.783812E+0	2.096155E+0	1.957132E+0	2.198006E+0	2.385687E+0	2.338871E+0	2.105671E+0	2.222644E+0	2.406256E+0	2.434877E+0	2.155363E+0	2.316441E+0	2.158095E+0
5.400240E+2	2.145972E+0	2.383801E+0	2.388927E+0	2.393037E+0	2.128548E+0	2.442921E+0	2.448375E+0	2.501033E+0	1.970840E+0	2.180914E+0	2.165187E+0	2.350132E+0	1.999857E+0	2.111505E+0	2.099044E+0	2.104665E+0	2.088047E+0	2.286171E+0	2.424851E+0	2.223980E+0	2.152896E+0	2.392707E+0	2.418981E+0	2.408000E+0	2.015739E+0	2.157792E+0	2.173980E+0	2.206898E+0	2.023505E+0	1.939723E+0	2.129069E+0	2.139885E+0	1.963012E+0	2.290308E+0	2.327893E+0	2.301950E+0	2.114504E+0	2.298879E+0	2.395126E+0	2.394391E+0	2.214551E+0	2.113878E+0	2.165521E+0	2.077789E+0	2.267420E+0	2.085152E+0	2.333905E+0	1.939022E+0	2.133029E+0	2.195233E+0	2.328970E+0	1.948536E+0	2.205213E+0	2.358809E+0	2.363304E+0	2.122901E+0	1.931115E+0	2.069337E+0	2.036320E+0	2.177252E+0	2.046657E+0	2.260662E+0	2.072893E+0	1.945234E+0	1.688097E+0	1.922109E+0	2.145831E+0	1.881776E+0	1.981262E+0	2.375801E+0	2.392886E+0	1.984965E+0	1.955103E+0	2.089635E+0	2.065071E+0	1.961524E+0	1.948576E+0	2.052586E+0	2.064373E+0	1.996475E+0	2.205901E+0	2.203895E+0	2.320360E+0	1.941860E+0	2.231934E+0	2.296146E+0	2.337535E+0	1.995149E+0	2.061379E+0	2.181672E+0	2.125136E+0	1.943734E+0	2.118087E+0	2.064235E+0	2.079198E+0	2.006787E+0	2.171368E+0	2.252042E+0	2.170393E+0	1.934926E+0	2.242688E+0	2.355597E+0	2.354676E+0	1.936272E+0	2.037504E+0	2.054007E+0	2.098119E+0	1.937536E+0	2.003432E+0	2.043967E+0	2.074948E+0	1.971595E+0	2.062120E+0	2.304914E+0	1.836293E+0	1.907808E+0	2.174221E+0	2.303792E+0	2.296848E+0	1.920024E+0	2.074798E+0	2.114863E+0	2.085005E+0	1.885067E+0	2.068186E+0	2.116121E+0	2.036146E+0	1.910208E+0	2.167419E+0	2.238009E+0	2.294927E+0	1.929160E+0	2.239809E+0	2.323089E+0	2.274132E+0	2.007665E+0	2.050212E+0	2.140478E+0	2.030641E+0	1.955508E+0	2.008813E+0	2.095617E+0	2.107290E+0	1.960455E+0	2.066788E+0	2.208039E+0	2.262397E+0	1.986360E+0	2.144585E+0	2.281910E+0	2.263376E+0	1.970581E+0	1.699703E+0	2.187003E+0	2.102868E+0	1.877538E+0	2.044785E+0	1.687123E+0	2.027375E+0	1.904563E+0	2.125297E+0	2.225493E+0	2.204062E+0	2.006047E+0	2.259118E+0	2.228074E+0	2.311356E+0	2.075249E+0	2.233456E+0	2.117381E+0
5.402740E+2	2.097593E+0	2.300020E+0	2.274590E+0	2.283892E+0	2.032722E+0	2.364789E+0	2.279248E+0	2.363887E+0	1.934043E+0	2.073753E+0	1.984778E+0	2.205501E+0	1.925152E+0	1.986491E+0	2.014121E+0	2.083824E+0	2.006905E+0	2.135467E+0	2.186365E+0	2.133349E+0	1.985294E+0	2.251064E+0	2.325606E+0	2.305702E+0	1.904457E+0	1.929705E+0	2.029441E+0	2.078249E+0	2.036643E+0	1.945410E+0	2.033600E+0	2.017334E+0	1.904943E+0	2.121590E+0	2.246047E+0	2.190803E+0	2.015419E+0	2.270886E+0	2.308314E+0	2.225207E+0	2.157819E+0	2.021162E+0	2.078505E+0	2.040124E+0	2.133180E+0	1.988102E+0	2.076755E+0	1.923634E+0	2.081255E+0	2.169839E+0	2.163211E+0	2.011833E+0	2.027764E+0	2.251831E+0	2.207416E+0	2.202681E+0	1.949776E+0	2.000177E+0	2.042932E+0	2.173186E+0	1.898498E+0	2.175827E+0	1.924121E+0	1.891888E+0	1.614149E+0	1.791811E+0	2.089216E+0	2.104600E+0	1.903715E+0	2.264243E+0	2.294638E+0	2.263761E+0	1.843611E+0	2.108574E+0	1.941350E+0	2.046324E+0	1.934611E+0	2.004942E+0	2.027941E+0	1.888802E+0	2.057816E+0	2.131183E+0	2.200890E+0	1.969932E+0	2.098172E+0	2.235801E+0	2.218784E+0	2.034047E+0	2.023398E+0	1.958840E+0	1.998609E+0	1.953601E+0	1.994796E+0	1.997259E+0	2.026068E+0	1.946612E+0	2.032724E+0	2.186762E+0	2.161009E+0	1.886941E+0	2.074064E+0	2.267094E+0	2.229395E+0	1.866844E+0	1.952612E+0	1.944148E+0	2.013310E+0	1.785853E+0	1.934114E+0	1.964314E+0	1.949626E+0	1.847818E+0	1.985913E+0	2.204290E+0	1.770537E+0	1.798283E+0	2.050163E+0	2.272715E+0	2.261886E+0	1.844152E+0	2.014207E+0	2.012057E+0	2.035089E+0	1.864316E+0	2.043394E+0	1.997386E+0	1.956140E+0	1.835537E+0	1.974183E+0	2.187588E+0	2.089520E+0	1.857492E+0	2.117302E+0	2.233291E+0	2.198981E+0	1.963884E+0	2.064253E+0	1.964428E+0	1.913954E+0	1.875161E+0	1.846858E+0	2.016297E+0	1.936499E+0	1.793491E+0	1.982941E+0	2.050887E+0	2.112083E+0	1.897506E+0	2.076294E+0	2.174312E+0	2.135177E+0	1.859644E+0	1.657017E+0	2.083058E+0	1.951838E+0	1.843157E+0	1.966627E+0	1.656906E+0	1.889268E+0	1.858871E+0	2.049426E+0	2.162789E+0	2.097042E+0	1.928362E+0	2.052236E+0	2.216281E+0	2.239878E+0	1.938161E+0	2.139025E+0	1.995236E+0
5.405080E+2	1.971269E+0	2.244394E+0	2.242868E+0	2.218154E+0	1.926429E+0	2.247885E+0	2.228933E+0	2.282691E+0	1.837936E+0	1.987910E+0	1.967111E+0	2.055372E+0	1.848421E+0	1.947390E+0	1.905746E+0	2.022813E+0	1.900164E+0	2.017172E+0	2.129300E+0	2.085816E+0	1.927987E+0	2.121592E+0	2.132512E+0	2.204485E+0	1.790335E+0	1.918364E+0	1.999967E+0	2.024694E+0	1.831213E+0	1.862890E+0	1.927293E+0	1.973847E+0	1.805891E+0	2.133084E+0	2.134138E+0	2.107154E+0	1.974134E+0	2.166920E+0	2.260624E+0	2.188408E+0	2.039952E+0	1.996974E+0	2.006472E+0	2.030994E+0	2.100526E+0	1.905230E+0	2.029700E+0	1.845296E+0	2.006335E+0	2.113957E+0	2.151659E+0	1.903888E+0	1.977368E+0	2.231144E+0	2.128338E+0	2.195575E+0	1.891461E+0	1.872780E+0	1.946156E+0	1.979176E+0	1.889909E+0	2.144675E+0	1.887951E+0	1.804003E+0	1.641089E+0	1.765413E+0	2.072963E+0	1.989971E+0	1.814678E+0	2.178254E+0	2.221688E+0	2.227353E+0	1.841896E+0	1.941569E+0	1.917809E+0	1.994003E+0	1.834535E+0	1.934554E+0	1.891836E+0	1.918449E+0	2.011861E+0	2.046038E+0	2.125025E+0	2.061632E+0	2.025475E+0	2.213026E+0	2.176661E+0	2.182581E+0	1.884738E+0	1.905431E+0	1.906016E+0	2.024991E+0	1.978243E+0	1.980657E+0	1.904781E+0	1.857847E+0	1.934858E+0	2.121476E+0	2.068446E+0	1.901335E+0	2.034385E+0	2.167609E+0	2.175890E+0	1.982184E+0	1.892367E+0	1.877987E+0	1.936656E+0	1.799644E+0	1.849893E+0	1.875052E+0	1.898414E+0	1.819096E+0	2.012953E+0	2.089284E+0	1.742944E+0	1.746775E+0	1.992685E+0	2.146001E+0	2.201565E+0	1.756265E+0	1.895420E+0	1.974394E+0	1.949339E+0	1.719675E+0	2.004432E+0	2.005048E+0	1.910839E+0	1.791813E+0	1.933212E+0	2.087420E+0	2.083784E+0	1.816094E+0	1.989845E+0	2.131184E+0	2.147094E+0	1.856986E+0	1.933819E+0	1.998639E+0	1.873413E+0	1.875766E+0	1.843999E+0	1.922552E+0	1.883270E+0	1.793995E+0	1.953912E+0	1.968749E+0	2.041117E+0	1.845173E+0	2.020204E+0	2.095736E+0	2.147446E+0	1.784817E+0	1.681824E+0	2.047195E+0	1.854920E+0	1.715614E+0	1.946790E+0	1.566808E+0	1.885963E+0	1.839218E+0	1.903377E+0	2.100080E+0	2.069847E+0	1.856616E+0	2.046853E+0	2.137247E+0	2.208653E+0	1.874069E+0	2.011686E+0	1.956786E+0
5.407630E+2	1.983635E+0	2.157858E+0	2.165542E+0	2.102807E+0	1.866397E+0	2.154848E+0	2.205289E+0	2.193815E+0	1.809921E+0	1.967167E+0	1.899123E+0	1.980313E+0	1.800141E+0	1.946290E+0	1.925544E+0	1.895720E+0	1.902885E+0	2.065513E+0	2.100464E+0	1.997716E+0	1.904197E+0	2.114397E+0	2.122137E+0	2.154951E+0	1.734127E+0	1.880747E+0	1.865065E+0	1.873341E+0	1.789182E+0	1.830453E+0	1.867947E+0	1.897747E+0	1.859404E+0	2.043585E+0	2.040046E+0	2.046319E+0	1.902920E+0	2.044669E+0	2.136307E+0	2.086686E+0	1.999614E+0	1.892737E+0	2.046233E+0	1.950517E+0	2.017078E+0	1.846353E+0	2.020400E+0	1.815456E+0	1.965528E+0	2.043471E+0	2.093905E+0	1.915756E+0	1.980051E+0	2.063296E+0	2.080330E+0	2.133280E+0	1.798745E+0	1.818785E+0	1.832553E+0	2.000087E+0	1.835687E+0	1.971027E+0	1.782935E+0	1.805015E+0	1.542314E+0	1.670494E+0	1.980819E+0	2.013951E+0	1.742878E+0	2.023124E+0	2.126382E+0	2.082244E+0	1.779573E+0	1.900821E+0	1.868320E+0	1.916423E+0	1.727472E+0	1.792161E+0	1.852181E+0	1.848751E+0	2.003565E+0	1.978912E+0	2.098146E+0	1.948723E+0	1.927773E+0	2.080942E+0	2.081303E+0	2.144231E+0	1.831082E+0	1.867525E+0	1.893937E+0	1.958243E+0	1.876069E+0	1.903167E+0	1.898882E+0	1.848320E+0	1.907483E+0	1.986514E+0	2.015906E+0	1.923529E+0	1.991208E+0	2.069948E+0	2.128255E+0	2.040417E+0	1.864439E+0	1.823973E+0	1.857827E+0	1.881182E+0	1.760518E+0	1.814037E+0	1.898410E+0	1.777836E+0	1.834724E+0	2.064282E+0	1.698914E+0	1.912545E+0	1.930656E+0	2.096993E+0	2.048010E+0	2.060311E+0	1.780833E+0	1.918212E+0	1.857184E+0	1.888124E+0	1.869254E+0	1.912029E+0	1.799062E+0	1.757424E+0	1.938717E+0	2.064198E+0	2.032751E+0	1.918660E+0	1.996988E+0	2.097974E+0	2.076712E+0	2.129345E+0	1.773559E+0	1.908436E+0	1.821211E+0	1.858849E+0	1.810236E+0	1.843837E+0	1.875083E+0	1.769856E+0	1.935209E+0	1.912484E+0	1.966929E+0	1.795877E+0	1.946424E+0	2.133817E+0	2.094078E+0	1.748712E+0	1.579145E+0	1.970601E+0	1.795462E+0	1.750550E+0	1.853464E+0	1.491544E+0	1.778125E+0	1.767484E+0	1.928035E+0	2.046683E+0	1.975838E+0	1.818066E+0	1.947600E+0	2.055432E+0	2.041413E+0	1.848254E+0	1.927271E+0	1.796188E+0
5.410190E+2	1.809479E+0	2.121467E+0	2.067065E+0	2.010404E+0	1.747994E+0	2.147096E+0	2.064655E+0	2.080803E+0	1.664385E+0	1.792025E+0	1.773857E+0	1.954679E+0	1.720870E+0	1.844407E+0	1.771840E+0	1.838783E+0	1.744407E+0	1.894327E+0	1.957495E+0	1.910252E+0	1.838780E+0	2.028082E+0	2.067957E+0	2.002039E+0	1.629658E+0	1.829994E+0	1.811218E+0	1.887894E+0	1.720878E+0	1.758172E+0	1.803957E+0	1.750984E+0	1.767180E+0	1.937754E+0	1.887487E+0	1.994255E+0	1.813638E+0	2.042954E+0	2.045213E+0	1.966569E+0	1.890567E+0	1.810961E+0	1.909659E+0	1.876895E+0	1.942703E+0	1.821267E+0	1.888545E+0	1.667175E+0	1.848582E+0	1.924726E+0	2.025172E+0	1.759206E+0	1.858889E+0	1.977008E+0	1.993913E+0	1.995573E+0	1.688532E+0	1.744163E+0	1.733978E+0	1.843255E+0	1.783616E+0	1.923970E+0	1.714674E+0	1.728307E+0	1.404455E+0	1.567154E+0	1.891086E+0	1.747267E+0	1.693478E+0	2.089358E+0	1.920463E+0	2.028987E+0	1.681799E+0	1.788910E+0	1.744596E+0	1.930854E+0	1.686743E+0	1.726647E+0	1.749301E+0	1.741601E+0	1.828674E+0	1.869530E+0	1.946416E+0	1.877608E+0	1.888806E+0	2.021166E+0	2.039771E+0	1.990294E+0	1.723773E+0	1.742326E+0	1.793869E+0	1.884535E+0	1.813854E+0	1.801322E+0	1.748072E+0	1.699379E+0	1.874277E+0	1.899258E+0	1.887691E+0	1.843757E+0	1.862848E+0	1.996707E+0	2.081925E+0	2.016903E+0	1.762020E+0	1.731105E+0	1.774650E+0	1.700115E+0	1.667707E+0	1.747376E+0	1.764048E+0	1.693750E+0	1.767731E+0	1.917409E+0	1.616717E+0	1.824331E+0	1.846431E+0	1.999567E+0	2.030871E+0	1.905287E+0	1.803635E+0	1.778344E+0	1.823907E+0	1.792911E+0	1.706324E+0	1.780163E+0	1.743763E+0	1.646403E+0	1.789509E+0	1.893712E+0	1.908363E+0	1.850074E+0	1.905247E+0	1.978035E+0	1.940728E+0	2.027568E+0	1.723256E+0	1.757267E+0	1.764094E+0	1.809311E+0	1.744424E+0	1.823406E+0	1.700192E+0	1.703472E+0	1.802335E+0	1.844572E+0	1.929509E+0	1.863429E+0	1.877521E+0	2.050398E+0	1.981825E+0	1.954880E+0	1.582030E+0	1.855712E+0	1.759787E+0	1.786594E+0	1.756057E+0	1.452538E+0	1.642763E+0	1.725231E+0	1.817387E+0	1.938034E+0	1.900158E+0	1.738607E+0	1.874055E+0	2.011753E+0	1.885973E+0	1.903445E+0	1.825687E+0	1.730595E+0
5.412690E+2	1.700359E+0	1.885219E+0	1.874740E+0	1.824978E+0	1.589383E+0	1.866174E+0	1.899161E+0	1.907443E+0	1.516102E+0	1.663546E+0	1.634134E+0	1.788076E+0	1.541989E+0	1.667625E+0	1.632202E+0	1.687283E+0	1.591380E+0	1.823810E+0	1.775475E+0	1.722012E+0	1.671722E+0	1.860432E+0	1.877172E+0	1.866899E+0	1.534839E+0	1.622810E+0	1.714860E+0	1.705692E+0	1.559589E+0	1.508326E+0	1.578959E+0	1.642762E+0	1.547440E+0	1.798069E+0	1.800636E+0	1.755581E+0	1.603088E+0	1.875008E+0	1.899996E+0	1.828561E+0	1.746230E+0	1.675626E+0	1.747728E+0	1.677141E+0	1.771579E+0	1.623363E+0	1.668051E+0	1.551539E+0	1.693870E+0	1.778043E+0	1.799346E+0	1.659175E+0	1.782761E+0	1.842252E+0	1.854972E+0	1.827272E+0	1.566653E+0	1.637997E+0	1.625183E+0	1.742184E+0	1.583382E+0	1.770872E+0	1.643502E+0	1.570313E+0	1.370649E+0	1.468870E+0	1.741132E+0	1.634392E+0	1.548724E+0	1.838940E+0	1.833391E+0	1.857790E+0	1.498265E+0	1.692491E+0	1.651653E+0	1.784715E+0	1.535461E+0	1.593456E+0	1.612660E+0	1.563186E+0	1.697824E+0	1.770093E+0	1.778561E+0	1.733501E+0	1.678275E+0	1.825314E+0	1.802841E+0	1.827706E+0	1.602595E+0	1.680298E+0	1.610981E+0	1.715056E+0	1.652886E+0	1.617556E+0	1.623028E+0	1.594069E+0	1.655826E+0	1.834600E+0	1.722569E+0	1.704000E+0	1.668552E+0	1.784915E+0	1.828101E+0	1.845004E+0	1.579646E+0	1.629742E+0	1.624602E+0	1.563416E+0	1.538799E+0	1.607265E+0	1.603175E+0	1.529764E+0	1.611014E+0	1.767405E+0	1.474054E+0	1.679281E+0	1.717821E+0	1.851337E+0	1.810142E+0	1.780829E+0	1.635652E+0	1.643858E+0	1.712553E+0	1.691600E+0	1.667960E+0	1.628596E+0	1.629633E+0	1.576644E+0	1.627461E+0	1.757051E+0	1.727837E+0	1.764809E+0	1.732751E+0	1.790431E+0	1.788642E+0	1.871198E+0	1.640786E+0	1.677637E+0	1.629588E+0	1.670965E+0	1.568739E+0	1.684598E+0	1.592570E+0	1.593337E+0	1.641727E+0	1.737219E+0	1.707585E+0	1.640697E+0	1.724477E+0	1.803173E+0	1.813754E+0	1.790572E+0	1.670286E+0	1.766359E+0	1.590920E+0	1.654612E+0	1.583980E+0	1.340465E+0	1.533271E+0	1.524774E+0	1.625182E+0	1.807027E+0	1.748207E+0	1.674564E+0	1.706036E+0	1.776715E+0	1.818659E+0	1.906116E+0	1.711225E+0	1.680833E+0
5.415140E+2	1.489107E+0	1.710100E+0	1.687704E+0	1.722650E+0	1.432976E+0	1.715279E+0	1.676683E+0	1.724757E+0	1.401318E+0	1.467661E+0	1.458544E+0	1.632459E+0	1.413933E+0	1.506812E+0	1.479021E+0	1.517992E+0	1.465033E+0	1.565043E+0	1.636107E+0	1.514758E+0	1.464656E+0	1.647413E+0	1.688687E+0	1.704835E+0	1.413336E+0	1.478314E+0	1.445619E+0	1.501367E+0	1.383582E+0	1.439468E+0	1.461302E+0	1.457456E+0	1.444400E+0	1.642048E+0	1.624696E+0	1.629226E+0	1.460140E+0	1.675638E+0	1.682438E+0	1.643018E+0	1.603149E+0	1.450451E+0	1.533359E+0	1.526470E+0	1.602266E+0	1.466344E+0	1.583243E+0	1.391134E+0	1.559869E+0	1.605324E+0	1.611638E+0	1.433680E+0	1.553846E+0	1.634808E+0	1.681011E+0	1.644754E+0	1.527001E+0	1.445076E+0	1.379939E+0	1.588257E+0	1.481387E+0	1.534921E+0	1.391468E+0	1.422484E+0	1.225398E+0	1.279594E+0	1.536371E+0	1.539060E+0	1.434990E+0	1.694848E+0	1.662778E+0	1.683338E+0	1.374192E+0	1.479575E+0	1.496542E+0	1.579037E+0	1.402216E+0	1.446187E+0	1.466375E+0	1.450312E+0	1.513998E+0	1.555674E+0	1.648935E+0	1.559455E+0	1.519508E+0	1.684689E+0	1.632021E+0	1.628933E+0	1.483225E+0	1.492499E+0	1.387261E+0	1.529325E+0	1.437127E+0	1.498556E+0	1.474369E+0	1.458673E+0	1.471747E+0	1.580996E+0	1.553070E+0	1.518662E+0	1.536686E+0	1.621339E+0	1.710646E+0	1.676471E+0	1.454776E+0	1.422166E+0	1.486515E+0	1.402738E+0	1.411613E+0	1.442865E+0	1.425433E+0	1.425831E+0	1.484408E+0	1.615525E+0	1.356047E+0	1.513511E+0	1.539126E+0	1.649913E+0	1.671670E+0	1.600152E+0	1.498868E+0	1.451390E+0	1.498813E+0	1.506064E+0	1.489684E+0	1.497275E+0	1.499035E+0	1.386039E+0	1.494151E+0	1.619066E+0	1.566451E+0	1.555353E+0	1.533329E+0	1.605298E+0	1.570943E+0	1.681854E+0	1.404486E+0	1.538287E+0	1.502451E+0	1.463148E+0	1.429675E+0	1.447240E+0	1.446924E+0	1.416817E+0	1.526271E+0	1.594291E+0	1.570175E+0	1.520204E+0	1.558021E+0	1.597655E+0	1.658565E+0	1.607429E+0	1.476466E+0	1.561506E+0	1.455351E+0	1.493795E+0	1.429992E+0	1.219601E+0	1.425426E+0	1.405874E+0	1.472177E+0	1.615175E+0	1.611627E+0	1.449816E+0	1.497361E+0	1.674795E+0	1.627826E+0	1.641734E+0	1.591039E+0	1.382262E+0
5.417920E+2	1.388049E+0	1.481412E+0	1.447795E+0	1.438000E+0	1.302452E+0	1.475516E+0	1.446936E+0	1.453197E+0	1.411202E+0	1.266017E+0	1.326848E+0	1.392014E+0	1.404784E+0	1.303047E+0	1.260184E+0	1.256176E+0	1.310913E+0	1.343814E+0	1.415042E+0	1.388635E+0	1.277055E+0	1.475335E+0	1.497899E+0	1.472241E+0	1.257766E+0	1.325463E+0	1.287480E+0	1.349432E+0	1.329465E+0	1.221491E+0	1.270365E+0	1.304759E+0	1.271908E+0	1.460027E+0	1.385285E+0	1.404009E+0	1.310481E+0	1.425430E+0	1.463808E+0	1.458496E+0	1.380649E+0	1.352552E+0	1.419256E+0	1.364383E+0	1.376719E+0	1.324049E+0	1.396123E+0	1.209744E+0	1.337549E+0	1.360851E+0	1.394475E+0	1.299174E+0	1.327609E+0	1.430314E+0	1.417808E+0	1.427273E+0	1.280331E+0	1.280667E+0	1.295788E+0	1.355329E+0	1.209216E+0	1.364588E+0	1.281789E+0	1.223341E+0	1.126095E+0	1.189170E+0	1.361723E+0	1.353081E+0	1.245433E+0	1.503691E+0	1.404501E+0	1.463234E+0	1.216386E+0	1.325770E+0	1.281685E+0	1.399820E+0	1.231736E+0	1.269139E+0	1.250967E+0	1.267738E+0	1.298254E+0	1.333801E+0	1.414777E+0	1.368566E+0	1.362479E+0	1.430775E+0	1.420247E+0	1.444200E+0	1.271620E+0	1.238079E+0	1.306745E+0	1.340116E+0	1.288720E+0	1.339701E+0	1.287070E+0	1.265602E+0	1.295239E+0	1.468003E+0	1.327282E+0	1.335725E+0	1.328388E+0	1.501710E+0	1.476394E+0	1.451388E+0	1.290471E+0	1.283173E+0	1.323964E+0	1.276231E+0	1.274114E+0	1.276773E+0	1.360359E+0	1.237296E+0	1.309864E+0	1.407396E+0	1.179330E+0	1.335900E+0	1.353038E+0	1.477180E+0	1.398839E+0	1.444581E+0	1.263697E+0	1.315109E+0	1.303627E+0	1.337616E+0	1.293113E+0	1.266918E+0	1.288424E+0	1.232275E+0	1.316204E+0	1.439285E+0	1.325327E+0	1.376789E+0	1.393243E+0	1.421386E+0	1.484462E+0	1.494221E+0	1.272298E+0	1.266429E+0	1.291176E+0	1.280699E+0	1.283744E+0	1.337273E+0	1.284321E+0	1.246332E+0	1.308257E+0	1.342710E+0	1.450181E+0	1.374151E+0	1.287297E+0	1.429609E+0	1.435287E+0	1.447829E+0	1.372060E+0	1.368811E+0	1.287676E+0	1.322998E+0	1.305752E+0	1.042153E+0	1.253205E+0	1.221629E+0	1.334979E+0	1.453127E+0	1.404097E+0	1.291485E+0	1.377179E+0	1.468184E+0	1.454341E+0	1.469041E+0	1.402177E+0	1.196786E+0
5.420110E+2	1.181637E+0	1.364664E+0	1.371129E+0	1.258774E+0	1.144392E+0	1.324023E+0	1.349336E+0	1.357742E+0	1.290377E+0	1.125439E+0	1.208539E+0	1.268740E+0	1.302135E+0	1.196758E+0	1.128365E+0	1.172297E+0	1.167141E+0	1.259075E+0	1.258855E+0	1.169340E+0	1.166764E+0	1.294407E+0	1.311149E+0	1.299407E+0	1.210643E+0	1.169625E+0	1.195654E+0	1.142197E+0	1.340498E+0	1.087179E+0	1.149607E+0	1.215811E+0	1.180824E+0	1.291311E+0	1.302327E+0	1.274141E+0	1.171660E+0	1.295183E+0	1.289654E+0	1.276528E+0	1.266563E+0	1.199363E+0	1.242921E+0	1.178897E+0	1.298110E+0	1.157761E+0	1.209004E+0	1.092706E+0	1.209030E+0	1.273857E+0	1.267989E+0	1.155058E+0	1.171602E+0	1.306202E+0	1.296371E+0	1.326727E+0	1.206273E+0	1.087746E+0	1.170762E+0	1.216504E+0	1.219413E+0	1.274450E+0	1.130684E+0	1.108022E+0	1.187895E+0	1.058308E+0	1.238265E+0	1.191083E+0	1.171908E+0	1.309050E+0	1.319194E+0	1.333344E+0	1.104321E+0	1.203527E+0	1.165203E+0	1.216394E+0	1.133984E+0	1.139738E+0	1.189347E+0	1.160065E+0	1.196766E+0	1.253628E+0	1.265440E+0	1.181419E+0	1.198476E+0	1.302105E+0	1.255860E+0	1.275133E+0	1.123917E+0	1.176053E+0	1.155490E+0	1.265825E+0	1.168852E+0	1.181952E+0	1.204423E+0	1.153272E+0	1.188052E+0	1.239508E+0	1.199064E+0	1.224161E+0	1.164432E+0	1.307008E+0	1.366772E+0	1.261582E+0	1.126713E+0	1.162388E+0	1.168482E+0	1.117949E+0	1.105677E+0	1.105593E+0	1.193464E+0	1.086885E+0	1.190019E+0	1.276143E+0	1.013183E+0	1.197956E+0	1.174346E+0	1.351065E+0	1.358394E+0	1.325035E+0	1.157509E+0	1.146551E+0	1.203155E+0	1.164897E+0	1.211651E+0	1.081428E+0	1.124879E+0	1.121251E+0	1.179227E+0	1.245576E+0	1.263451E+0	1.281636E+0	1.235028E+0	1.329124E+0	1.279291E+0	1.336146E+0	1.157072E+0	1.255853E+0	1.179395E+0	1.212433E+0	1.161277E+0	1.162409E+0	1.114111E+0	1.090430E+0	1.177965E+0	1.228885E+0	1.274707E+0	1.236008E+0	1.189129E+0	1.313554E+0	1.258017E+0	1.338464E+0	1.163245E+0	1.229001E+0	1.115243E+0	1.174934E+0	1.122014E+0	9.905108E-1	1.126653E+0	1.095360E+0	1.180077E+0	1.323363E+0	1.250961E+0	1.187118E+0	1.216937E+0	1.288613E+0	1.291265E+0	1.331954E+0	1.166100E+0	1.149287E+0
5.422670E+2	1.050479E+0	1.120868E+0	1.199293E+0	1.189937E+0	1.019926E+0	1.214876E+0	1.183843E+0	1.172861E+0	1.086075E+0	1.028649E+0	1.055432E+0	1.113731E+0	1.157302E+0	1.045309E+0	9.913320E-1	1.051808E+0	1.144811E+0	1.146470E+0	1.122492E+0	1.076805E+0	1.041335E+0	1.177660E+0	1.240829E+0	1.170727E+0	1.139671E+0	1.078271E+0	1.013140E+0	1.088641E+0	1.183933E+0	1.005795E+0	1.045366E+0	1.030009E+0	1.097708E+0	1.157062E+0	1.129728E+0	1.126728E+0	1.035420E+0	1.162081E+0	1.171231E+0	1.112962E+0	1.199750E+0	1.037538E+0	1.071771E+0	1.087009E+0	1.206198E+0	1.046540E+0	1.132406E+0	9.747349E-1	1.064675E+0	1.099868E+0	1.180200E+0	1.043157E+0	1.084753E+0	1.176177E+0	1.175503E+0	1.134922E+0	1.154373E+0	1.037392E+0	1.018087E+0	1.075935E+0	1.204920E+0	1.072303E+0	1.021586E+0	9.490138E-1	1.132434E+0	9.555285E-1	1.090718E+0	1.089906E+0	1.053003E+0	1.190522E+0	1.152697E+0	1.130087E+0	1.106608E+0	1.053738E+0	1.009492E+0	1.085891E+0	1.193333E+0	9.984251E-1	1.043062E+0	1.031067E+0	1.145066E+0	1.083959E+0	1.183603E+0	1.147109E+0	1.099027E+0	1.220122E+0	1.155240E+0	1.180067E+0	1.070865E+0	1.081866E+0	9.772045E-1	1.093445E+0	1.142596E+0	1.066270E+0	1.086355E+0	9.877822E-1	1.114071E+0	1.181129E+0	1.109625E+0	1.070613E+0	1.120089E+0	1.180664E+0	1.234312E+0	1.145679E+0	9.799352E-1	1.035535E+0	1.058121E+0	1.017224E+0	9.991142E-1	1.057008E+0	1.047654E+0	1.010113E+0	1.065873E+0	1.178640E+0	9.462538E-1	1.086061E+0	1.104918E+0	1.184906E+0	1.200043E+0	1.155819E+0	1.017125E+0	1.053306E+0	1.046367E+0	1.122784E+0	1.045185E+0	1.057900E+0	1.011338E+0	1.021035E+0	1.052645E+0	1.078401E+0	1.119286E+0	1.144469E+0	1.057033E+0	1.124302E+0	1.191616E+0	1.170684E+0	1.053545E+0	1.112148E+0	1.037521E+0	1.096441E+0	9.987516E-1	1.071672E+0	1.033393E+0	1.016002E+0	1.058638E+0	1.087897E+0	1.099877E+0	1.131337E+0	1.081206E+0	1.190846E+0	1.181956E+0	1.168922E+0	1.070374E+0	1.140252E+0	1.023676E+0	1.118924E+0	1.023437E+0	9.048077E-1	1.028712E+0	9.710570E-1	1.071962E+0	1.195463E+0	1.180011E+0	1.137306E+0	1.122465E+0	1.183920E+0	1.239220E+0	1.234925E+0	1.083115E+0	1.167381E+0
5.425350E+2	9.843626E-1	1.105760E+0	1.124611E+0	1.082650E+0	9.296067E-1	1.154637E+0	1.067454E+0	1.111965E+0	1.041040E+0	9.802539E-1	9.403344E-1	1.036838E+0	1.073454E+0	1.016121E+0	9.397498E-1	9.836855E-1	9.994058E-1	1.017941E+0	1.060017E+0	1.021664E+0	9.953799E-1	1.070320E+0	1.061570E+0	1.074350E+0	1.050531E+0	9.307931E-1	9.825314E-1	9.710528E-1	1.077805E+0	9.363621E-1	9.550571E-1	9.791105E-1	9.872692E-1	1.034910E+0	1.041201E+0	1.099819E+0	9.239517E-1	1.090102E+0	1.135328E+0	1.119607E+0	1.081882E+0	9.903143E-1	1.040077E+0	9.922694E-1	1.111867E+0	9.642150E-1	1.048148E+0	9.364996E-1	1.014119E+0	1.006523E+0	1.050826E+0	9.606447E-1	9.893263E-1	1.064475E+0	1.098123E+0	1.091207E+0	1.052907E+0	9.882531E-1	9.297278E-1	1.012620E+0	1.091114E+0	1.038502E+0	9.253236E-1	9.012606E-1	1.026266E+0	8.555564E-1	1.043744E+0	9.641649E-1	9.760311E-1	1.133001E+0	1.080921E+0	1.081718E+0	1.095173E+0	9.550266E-1	9.262044E-1	1.010716E+0	1.127584E+0	9.404922E-1	9.573279E-1	9.665684E-1	1.037833E+0	1.083959E+0	1.109532E+0	1.046050E+0	1.058897E+0	1.067543E+0	1.071584E+0	1.134153E+0	1.142606E+0	9.675772E-1	9.887071E-1	1.017412E+0	1.139171E+0	9.406244E-1	9.548704E-1	9.155690E-1	1.063973E+0	1.071904E+0	1.032694E+0	9.890400E-1	1.016231E+0	1.072022E+0	1.120123E+0	1.063372E+0	1.077970E+0	9.669483E-1	9.879904E-1	9.464762E-1	1.112552E+0	9.474088E-1	9.681210E-1	9.631095E-1	1.034528E+0	1.010512E+0	8.511440E-1	9.433795E-1	1.009881E+0	1.086286E+0	1.068426E+0	1.102870E+0	1.035123E+0	9.797860E-1	9.625340E-1	9.720364E-1	1.078832E+0	9.550331E-1	9.536851E-1	9.109935E-1	9.994448E-1	1.088352E+0	9.846903E-1	1.026456E+0	1.022424E+0	1.068330E+0	1.056227E+0	1.099040E+0	1.040092E+0	9.591111E-1	9.595202E-1	1.002801E+0	9.300786E-1	1.003168E+0	9.848452E-1	9.370454E-1	9.870409E-1	1.023223E+0	1.009559E+0	1.054659E+0	1.003160E+0	1.097154E+0	1.116323E+0	1.085199E+0	1.001154E+0	9.888925E-1	9.636213E-1	1.000252E+0	9.353605E-1	7.921855E-1	9.258192E-1	9.317517E-1	1.001782E+0	1.059491E+0	1.045204E+0	1.071483E+0	1.020221E+0	1.077148E+0	1.069899E+0	1.068462E+0	9.886846E-1	9.230957E-1
5.427650E+2	9.719995E-1	1.136663E+0	1.149065E+0	1.106836E+0	9.643025E-1	1.132570E+0	1.142016E+0	1.167923E+0	1.076189E+0	1.004452E+0	1.037766E+0	1.052095E+0	1.174072E+0	1.007860E+0	1.005921E+0	1.008088E+0	9.983165E-1	1.038983E+0	1.090655E+0	1.038777E+0	1.005112E+0	1.147782E+0	1.122092E+0	1.122269E+0	1.085734E+0	1.037671E+0	9.791307E-1	1.009472E+0	1.104600E+0	9.705091E-1	9.695060E-1	1.030009E+0	1.041920E+0	1.074216E+0	1.037861E+0	1.037226E+0	1.018906E+0	1.088960E+0	1.131042E+0	1.127785E+0	1.088816E+0	1.017958E+0	1.030856E+0	1.033361E+0	1.188057E+0	9.882039E-1	1.061826E+0	9.518871E-1	1.068939E+0	1.088438E+0	1.113202E+0	1.007553E+0	1.027926E+0	1.138351E+0	1.133141E+0	1.096671E+0	1.104807E+0	9.791527E-1	9.237173E-1	1.014363E+0	1.166269E+0	1.048443E+0	9.737465E-1	9.505381E-1	1.060070E+0	8.611730E-1	1.066027E+0	9.928226E-1	9.880941E-1	1.144040E+0	1.126811E+0	1.093674E+0	1.119758E+0	9.963479E-1	9.684518E-1	1.071457E+0	1.121766E+0	9.637732E-1	9.905496E-1	9.546045E-1	1.090173E+0	1.049155E+0	1.134023E+0	1.041059E+0	1.094374E+0	1.124475E+0	1.148804E+0	1.130913E+0	1.104023E+0	1.016394E+0	1.009986E+0	1.016831E+0	1.135175E+0	9.948673E-1	9.967316E-1	9.687261E-1	1.017953E+0	1.063115E+0	1.068971E+0	1.066414E+0	1.040153E+0	1.108032E+0	1.139698E+0	1.097526E+0	1.123427E+0	9.572372E-1	9.705940E-1	9.446769E-1	1.119427E+0	1.024806E+0	9.596855E-1	9.213288E-1	1.066487E+0	1.093639E+0	8.940021E-1	1.075996E+0	1.098089E+0	1.098838E+0	1.083507E+0	1.098503E+0	1.157509E+0	1.007281E+0	1.016289E+0	1.025744E+0	1.173281E+0	1.017957E+0	9.895713E-1	9.753477E-1	1.094228E+0	1.100957E+0	1.060600E+0	1.073414E+0	1.115816E+0	1.102774E+0	1.077698E+0	1.160449E+0	1.068167E+0	1.000792E+0	1.009268E+0	1.027570E+0	1.126940E+0	9.827376E-1	1.012921E+0	9.154204E-1	1.090888E+0	1.074315E+0	1.056009E+0	1.034577E+0	1.028159E+0	1.138862E+0	1.151899E+0	1.139619E+0	1.080758E+0	1.066092E+0	1.019514E+0	1.000806E+0	1.080017E+0	8.509688E-1	9.659863E-1	9.764613E-1	1.086504E+0	1.112886E+0	1.067672E+0	1.048949E+0	1.066261E+0	1.072988E+0	1.083084E+0	1.045317E+0	1.025884E+0	1.061072E+0
5.430120E+2	1.112833E+0	1.256845E+0	1.326849E+0	1.238929E+0	1.053521E+0	1.318654E+0	1.279017E+0	1.303977E+0	1.208547E+0	1.131777E+0	1.095047E+0	1.166215E+0	1.249281E+0	1.122961E+0	1.086160E+0	1.125016E+0	1.165507E+0	1.115190E+0	1.279881E+0	1.182649E+0	1.113781E+0	1.246823E+0	1.265613E+0	1.284870E+0	1.223702E+0	1.100961E+0	1.110065E+0	1.156167E+0	1.183408E+0	1.080350E+0	1.112451E+0	1.151572E+0	1.135281E+0	1.207859E+0	1.217140E+0	1.191076E+0	1.079286E+0	1.258053E+0	1.230712E+0	1.246882E+0	1.271606E+0	1.119891E+0	1.172617E+0	1.127531E+0	1.292668E+0	1.095608E+0	1.191496E+0	1.078718E+0	1.148730E+0	1.209087E+0	1.204457E+0	1.093456E+0	1.128178E+0	1.251828E+0	1.232548E+0	1.234377E+0	1.178865E+0	1.079860E+0	1.101036E+0	1.158998E+0	1.273098E+0	1.226730E+0	1.058925E+0	1.023184E+0	1.154090E+0	1.016185E+0	1.226221E+0	1.138448E+0	1.151229E+0	1.260245E+0	1.228003E+0	1.217585E+0	1.207810E+0	1.203527E+0	1.125371E+0	1.136408E+0	1.218353E+0	1.115915E+0	1.075748E+0	1.059156E+0	1.191660E+0	1.220067E+0	1.241546E+0	1.150229E+0	1.188007E+0	1.245172E+0	1.196189E+0	1.252986E+0	1.280060E+0	1.107710E+0	1.102004E+0	1.149163E+0	1.277303E+0	1.142100E+0	1.099772E+0	1.086574E+0	1.202616E+0	1.254575E+0	1.220955E+0	1.250553E+0	1.163849E+0	1.194703E+0	1.253887E+0	1.211748E+0	1.230772E+0	1.096837E+0	1.108680E+0	1.094567E+0	1.235728E+0	1.094295E+0	1.155505E+0	1.065995E+0	1.186332E+0	1.233016E+0	9.832408E-1	1.155329E+0	1.139632E+0	1.219572E+0	1.195930E+0	1.190754E+0	1.279294E+0	1.179426E+0	1.128921E+0	1.111188E+0	1.322628E+0	1.097296E+0	1.081345E+0	1.069669E+0	1.218363E+0	1.215059E+0	1.241762E+0	1.180305E+0	1.172399E+0	1.243627E+0	1.218455E+0	1.333872E+0	1.222582E+0	1.125834E+0	1.102009E+0	1.146583E+0	1.237963E+0	1.129960E+0	1.134583E+0	1.086408E+0	1.156679E+0	1.258635E+0	1.254707E+0	1.195235E+0	1.138521E+0	1.224092E+0	1.283780E+0	1.228052E+0	1.184588E+0	1.148762E+0	1.107514E+0	1.117815E+0	1.222924E+0	9.020605E-1	1.049070E+0	1.075216E+0	1.177548E+0	1.227128E+0	1.221398E+0	1.190082E+0	1.171495E+0	1.228293E+0	1.230892E+0	1.237595E+0	1.330638E+0	1.174167E+0
5.432800E+2	1.290756E+0	1.414111E+0	1.383687E+0	1.410712E+0	1.230306E+0	1.480288E+0	1.430567E+0	1.474595E+0	1.372758E+0	1.322477E+0	1.285092E+0	1.364551E+0	1.438323E+0	1.266699E+0	1.212770E+0	1.262786E+0	1.372996E+0	1.376231E+0	1.403028E+0	1.392438E+0	1.317064E+0	1.427200E+0	1.484644E+0	1.437241E+0	1.401982E+0	1.277696E+0	1.325456E+0	1.373880E+0	1.436645E+0	1.269297E+0	1.268301E+0	1.292901E+0	1.348190E+0	1.374158E+0	1.455436E+0	1.424482E+0	1.308934E+0	1.450565E+0	1.465952E+0	1.437026E+0	1.420989E+0	1.273077E+0	1.343769E+0	1.327856E+0	1.452910E+0	1.294606E+0	1.371502E+0	1.224199E+0	1.303440E+0	1.317036E+0	1.440104E+0	1.293521E+0	1.304558E+0	1.437998E+0	1.412724E+0	1.443663E+0	1.383548E+0	1.236987E+0	1.298792E+0	1.313508E+0	1.495882E+0	1.361936E+0	1.260784E+0	1.223340E+0	1.308851E+0	1.180184E+0	1.370756E+0	1.378815E+0	1.251177E+0	1.426996E+0	1.431563E+0	1.430082E+0	1.385057E+0	1.268378E+0	1.294963E+0	1.262100E+0	1.420252E+0	1.278887E+0	1.239717E+0	1.214681E+0	1.412509E+0	1.381656E+0	1.415970E+0	1.339246E+0	1.311884E+0	1.449562E+0	1.434287E+0	1.457164E+0	1.472980E+0	1.327098E+0	1.249234E+0	1.320382E+0	1.446831E+0	1.281029E+0	1.258626E+0	1.266606E+0	1.373879E+0	1.383889E+0	1.373566E+0	1.324928E+0	1.390234E+0	1.427247E+0	1.393526E+0	1.437950E+0	1.386862E+0	1.240079E+0	1.287540E+0	1.258844E+0	1.435677E+0	1.295981E+0	1.227807E+0	1.197604E+0	1.308635E+0	1.360518E+0	1.192247E+0	1.344189E+0	1.366127E+0	1.475384E+0	1.487270E+0	1.375800E+0	1.371082E+0	1.260715E+0	1.311946E+0	1.293674E+0	1.476697E+0	1.284976E+0	1.247832E+0	1.226871E+0	1.356563E+0	1.341104E+0	1.399322E+0	1.347748E+0	1.355338E+0	1.461365E+0	1.433767E+0	1.481142E+0	1.383429E+0	1.313086E+0	1.261081E+0	1.286742E+0	1.413077E+0	1.253145E+0	1.240451E+0	1.205095E+0	1.347602E+0	1.318781E+0	1.388894E+0	1.352243E+0	1.374489E+0	1.384275E+0	1.405845E+0	1.425851E+0	1.409555E+0	1.351183E+0	1.203838E+0	1.275860E+0	1.445159E+0	1.292669E+0	1.215790E+0	1.249143E+0	1.401999E+0	1.382347E+0	1.368621E+0	1.313426E+0	1.380768E+0	1.407866E+0	1.385641E+0	1.443225E+0	1.489455E+0	1.330238E+0
5.435270E+2	1.498781E+0	1.667522E+0	1.636815E+0	1.658774E+0	1.459962E+0	1.709910E+0	1.667594E+0	1.700619E+0	1.580909E+0	1.484371E+0	1.527602E+0	1.578145E+0	1.670051E+0	1.473217E+0	1.430042E+0	1.489523E+0	1.497164E+0	1.561630E+0	1.570631E+0	1.496381E+0	1.470065E+0	1.619193E+0	1.682926E+0	1.645612E+0	1.576855E+0	1.412637E+0	1.482462E+0	1.468184E+0	1.629460E+0	1.411577E+0	1.480392E+0	1.444605E+0	1.524098E+0	1.570085E+0	1.620240E+0	1.573067E+0	1.466846E+0	1.654505E+0	1.666363E+0	1.612350E+0	1.615755E+0	1.464274E+0	1.506274E+0	1.467686E+0	1.623431E+0	1.439084E+0	1.534000E+0	1.383205E+0	1.511750E+0	1.572305E+0	1.631275E+0	1.404858E+0	1.562425E+0	1.642491E+0	1.621702E+0	1.569349E+0	1.608637E+0	1.474801E+0	1.473708E+0	1.456979E+0	1.655850E+0	1.583966E+0	1.481897E+0	1.377268E+0	1.525943E+0	1.312168E+0	1.543598E+0	1.515083E+0	1.460267E+0	1.690777E+0	1.565702E+0	1.637685E+0	1.557727E+0	1.473262E+0	1.409634E+0	1.488223E+0	1.594811E+0	1.452684E+0	1.466375E+0	1.418063E+0	1.619313E+0	1.504092E+0	1.614290E+0	1.570063E+0	1.509619E+0	1.636871E+0	1.661854E+0	1.689427E+0	1.653839E+0	1.440810E+0	1.428671E+0	1.511333E+0	1.656885E+0	1.420511E+0	1.429827E+0	1.394983E+0	1.601070E+0	1.547728E+0	1.547441E+0	1.535457E+0	1.512181E+0	1.593266E+0	1.674107E+0	1.675913E+0	1.580740E+0	1.393031E+0	1.491409E+0	1.420723E+0	1.651093E+0	1.446820E+0	1.442303E+0	1.365248E+0	1.552013E+0	1.608026E+0	1.303208E+0	1.482725E+0	1.522625E+0	1.634373E+0	1.596947E+0	1.596331E+0	1.575060E+0	1.446008E+0	1.522488E+0	1.438318E+0	1.675631E+0	1.423407E+0	1.430792E+0	1.369333E+0	1.590159E+0	1.502972E+0	1.543486E+0	1.504687E+0	1.543768E+0	1.629283E+0	1.616271E+0	1.704602E+0	1.562993E+0	1.506558E+0	1.450246E+0	1.477041E+0	1.633403E+0	1.471275E+0	1.400716E+0	1.367027E+0	1.518531E+0	1.497281E+0	1.580496E+0	1.529940E+0	1.556802E+0	1.644801E+0	1.580052E+0	1.617893E+0	1.616064E+0	1.501329E+0	1.392918E+0	1.497678E+0	1.640561E+0	1.502530E+0	1.413322E+0	1.392610E+0	1.537301E+0	1.641253E+0	1.541264E+0	1.465235E+0	1.587052E+0	1.589518E+0	1.719423E+0	1.682682E+0	1.605347E+0	1.407144E+0
5.437590E+2	1.592312E+0	1.756114E+0	1.791469E+0	1.782188E+0	1.532105E+0	1.737945E+0	1.757916E+0	1.832836E+0	1.668779E+0	1.724616E+0	1.584346E+0	1.640395E+0	1.747799E+0	1.771159E+0	1.510280E+0	1.578491E+0	1.606630E+0	1.785137E+0	1.660137E+0	1.656731E+0	1.604142E+0	1.746452E+0	1.752094E+0	1.768368E+0	1.644419E+0	1.615045E+0	1.540845E+0	1.597415E+0	1.679375E+0	1.674514E+0	1.541806E+0	1.526140E+0	1.548576E+0	1.692241E+0	1.679817E+0	1.671344E+0	1.510713E+0	1.755042E+0	1.793897E+0	1.744223E+0	1.724800E+0	1.587514E+0	1.619799E+0	1.538453E+0	1.774599E+0	1.574839E+0	1.623729E+0	1.504443E+0	1.562304E+0	1.621835E+0	1.694808E+0	1.557447E+0	1.627826E+0	1.706319E+0	1.678185E+0	1.693937E+0	1.589981E+0	1.531221E+0	1.524200E+0	1.583026E+0	1.740135E+0	1.639637E+0	1.488313E+0	1.436708E+0	1.617848E+0	1.367771E+0	1.627310E+0	1.591698E+0	1.509664E+0	1.729127E+0	1.798676E+0	1.733881E+0	1.665791E+0	1.531800E+0	1.575003E+0	1.633763E+0	1.729799E+0	1.498162E+0	1.590695E+0	1.554343E+0	1.627610E+0	1.671275E+0	1.699116E+0	1.628077E+0	1.691649E+0	1.762119E+0	1.723867E+0	1.718592E+0	1.710507E+0	1.548209E+0	1.579926E+0	1.628576E+0	1.792735E+0	1.579923E+0	1.550579E+0	1.503804E+0	1.633691E+0	1.671389E+0	1.601229E+0	1.614632E+0	1.625375E+0	1.709231E+0	1.723698E+0	1.744781E+0	1.697393E+0	1.464045E+0	1.528376E+0	1.445305E+0	1.762810E+0	1.471678E+0	1.545938E+0	1.419565E+0	1.609167E+0	1.696774E+0	1.380704E+0	1.630733E+0	1.677984E+0	1.738373E+0	1.715543E+0	1.660194E+0	1.690243E+0	1.619947E+0	1.596084E+0	1.600050E+0	1.765947E+0	1.556917E+0	1.490209E+0	1.410109E+0	1.700840E+0	1.651569E+0	1.597070E+0	1.618991E+0	1.618483E+0	1.739384E+0	1.734365E+0	1.773967E+0	1.720919E+0	1.588055E+0	1.535620E+0	1.592428E+0	1.728402E+0	1.492308E+0	1.473832E+0	1.463085E+0	1.613992E+0	1.582645E+0	1.625657E+0	1.643742E+0	1.633016E+0	1.720360E+0	1.782470E+0	1.674930E+0	1.693358E+0	1.601625E+0	1.432163E+0	1.555904E+0	1.802717E+0	1.594280E+0	1.525016E+0	1.442725E+0	1.687146E+0	1.694026E+0	1.587383E+0	1.582055E+0	1.647441E+0	1.739278E+0	1.713874E+0	1.763687E+0	1.691194E+0	1.554167E+0
5.440170E+2	1.620804E+0	1.857063E+0	1.831782E+0	1.836762E+0	1.565149E+0	1.862001E+0	1.897341E+0	1.857523E+0	1.747864E+0	1.888814E+0	1.651798E+0	1.813096E+0	1.800142E+0	1.893971E+0	1.570198E+0	1.618145E+0	1.674701E+0	1.947216E+0	1.762257E+0	1.756240E+0	1.644693E+0	1.875926E+0	1.884089E+0	1.810361E+0	1.772737E+0	1.863431E+0	1.687081E+0	1.708020E+0	1.831211E+0	1.873134E+0	1.673396E+0	1.670437E+0	1.755796E+0	1.838581E+0	1.783930E+0	1.812910E+0	1.679466E+0	1.795602E+0	1.879097E+0	1.803517E+0	1.855274E+0	1.846668E+0	1.681460E+0	1.660019E+0	1.867722E+0	1.840901E+0	1.701423E+0	1.582311E+0	1.712141E+0	1.850433E+0	1.798191E+0	1.676696E+0	1.722183E+0	1.926181E+0	1.811480E+0	1.795032E+0	1.720019E+0	1.673182E+0	1.626983E+0	1.687003E+0	1.821729E+0	1.763577E+0	1.586913E+0	1.577933E+0	1.673835E+0	1.493580E+0	1.680909E+0	1.618600E+0	1.593528E+0	1.787811E+0	1.784560E+0	1.876269E+0	1.768708E+0	1.667240E+0	1.560518E+0	1.701119E+0	1.859554E+0	1.609156E+0	1.611590E+0	1.575670E+0	1.765480E+0	1.743989E+0	1.826950E+0	1.722899E+0	1.737012E+0	1.827021E+0	1.864850E+0	1.782332E+0	1.810583E+0	1.594154E+0	1.578197E+0	1.659339E+0	1.846392E+0	1.655750E+0	1.569895E+0	1.572508E+0	1.734468E+0	1.736049E+0	1.704431E+0	1.759785E+0	1.658047E+0	1.814822E+0	1.811133E+0	1.824291E+0	1.769688E+0	1.604859E+0	1.697995E+0	1.579604E+0	1.845881E+0	1.590882E+0	1.591728E+0	1.557962E+0	1.711806E+0	1.684903E+0	1.473468E+0	1.629552E+0	1.719524E+0	1.893179E+0	1.812194E+0	1.742073E+0	1.748439E+0	1.654616E+0	1.612724E+0	1.637283E+0	1.866300E+0	1.659785E+0	1.612572E+0	1.481831E+0	1.740589E+0	1.706630E+0	1.713166E+0	1.712290E+0	1.740987E+0	1.777514E+0	1.798779E+0	1.829692E+0	1.706298E+0	1.702522E+0	1.553429E+0	1.614782E+0	1.881769E+0	1.642531E+0	1.621230E+0	1.582272E+0	1.684944E+0	1.704880E+0	1.752743E+0	1.753279E+0	1.699480E+0	1.734264E+0	1.793515E+0	1.767027E+0	1.771808E+0	1.694626E+0	1.616487E+0	1.666811E+0	1.788139E+0	1.713493E+0	1.561884E+0	1.535090E+0	1.769969E+0	1.780952E+0	1.705043E+0	1.689386E+0	1.724570E+0	1.771861E+0	1.821433E+0	1.834902E+0	1.868608E+0	1.705715E+0
5.442700E+2	1.595535E+0	1.886596E+0	1.831781E+0	1.731332E+0	1.599295E+0	1.861403E+0	1.780348E+0	1.928843E+0	1.670425E+0	1.820251E+0	1.575782E+0	1.746579E+0	1.772700E+0	1.841651E+0	1.563425E+0	1.574425E+0	1.652920E+0	1.898880E+0	1.780278E+0	1.716311E+0	1.560893E+0	1.783526E+0	1.831061E+0	1.806595E+0	1.761948E+0	1.787006E+0	1.599794E+0	1.676003E+0	1.722458E+0	1.823622E+0	1.594440E+0	1.606194E+0	1.624859E+0	1.822255E+0	1.735492E+0	1.709367E+0	1.597411E+0	1.840730E+0	1.838905E+0	1.791248E+0	1.743708E+0	1.786195E+0	1.665899E+0	1.589251E+0	1.789719E+0	1.837080E+0	1.705254E+0	1.505370E+0	1.690214E+0	1.788203E+0	1.772780E+0	1.580620E+0	1.667499E+0	1.832797E+0	1.798492E+0	1.761699E+0	1.793499E+0	1.612514E+0	1.524200E+0	1.701525E+0	1.824414E+0	1.803344E+0	1.556575E+0	1.486999E+0	1.711867E+0	1.439660E+0	1.688735E+0	1.658368E+0	1.528621E+0	1.753532E+0	1.805741E+0	1.805078E+0	1.740118E+0	1.838263E+0	1.608196E+0	1.693300E+0	1.765296E+0	1.703366E+0	1.592299E+0	1.578272E+0	1.693992E+0	1.840322E+0	1.678804E+0	1.641804E+0	1.692816E+0	1.795712E+0	1.771251E+0	1.765050E+0	1.756931E+0	1.841682E+0	1.605805E+0	1.667462E+0	1.868078E+0	1.865527E+0	1.589756E+0	1.503304E+0	1.677381E+0	1.833973E+0	1.641261E+0	1.605035E+0	1.651050E+0	1.813602E+0	1.756975E+0	1.800213E+0	1.762021E+0	1.712898E+0	1.509894E+0	1.457298E+0	1.786872E+0	1.673363E+0	1.554975E+0	1.519318E+0	1.711189E+0	1.789903E+0	1.424151E+0	1.619488E+0	1.615956E+0	1.820854E+0	1.814937E+0	1.718600E+0	1.816232E+0	1.607396E+0	1.589043E+0	1.636061E+0	1.814354E+0	1.549254E+0	1.525505E+0	1.462182E+0	1.688001E+0	1.711940E+0	1.639172E+0	1.683250E+0	1.642104E+0	1.765829E+0	1.698578E+0	1.764870E+0	1.748994E+0	1.555706E+0	1.579840E+0	1.571285E+0	1.770750E+0	1.578838E+0	1.520039E+0	1.486721E+0	1.693974E+0	1.634387E+0	1.710813E+0	1.718595E+0	1.698870E+0	1.730637E+0	1.838906E+0	1.757083E+0	1.696245E+0	1.654511E+0	1.589137E+0	1.609696E+0	1.746140E+0	1.645921E+0	1.537123E+0	1.507086E+0	1.757956E+0	1.757977E+0	1.696173E+0	1.650247E+0	1.700656E+0	1.773250E+0	1.836007E+0	1.798404E+0	1.782762E+0	1.515716E+0
5.445180E+2	1.685304E+0	1.857750E+0	1.758420E+0	1.743118E+0	1.505670E+0	1.802358E+0	1.824597E+0	1.841061E+0	1.664386E+0	1.807578E+0	1.521174E+0	1.733154E+0	1.796078E+0	1.806404E+0	1.549877E+0	1.568321E+0	1.636579E+0	1.745325E+0	1.696182E+0	1.633917E+0	1.593329E+0	1.779098E+0	1.802238E+0	1.823823E+0	1.736399E+0	1.773873E+0	1.581089E+0	1.645730E+0	1.708795E+0	1.758741E+0	1.583605E+0	1.536519E+0	1.605506E+0	1.782344E+0	1.714891E+0	1.679533E+0	1.613409E+0	1.752756E+0	1.730663E+0	1.792270E+0	1.720385E+0	1.756251E+0	1.646883E+0	1.538455E+0	1.771578E+0	1.783651E+0	1.648354E+0	1.481127E+0	1.668287E+0	1.804714E+0	1.745632E+0	1.599270E+0	1.633189E+0	1.706320E+0	1.794534E+0	1.736561E+0	1.737514E+0	1.568230E+0	1.555453E+0	1.594645E+0	1.780933E+0	1.823232E+0	1.562994E+0	1.499703E+0	1.612036E+0	1.381810E+0	1.700781E+0	1.616843E+0	1.564810E+0	1.804658E+0	1.768674E+0	1.755621E+0	1.666932E+0	1.802109E+0	1.575005E+0	1.627147E+0	1.752493E+0	1.749928E+0	1.533354E+0	1.534055E+0	1.656974E+0	1.794328E+0	1.727192E+0	1.653032E+0	1.672461E+0	1.804818E+0	1.709824E+0	1.742902E+0	1.769591E+0	1.775633E+0	1.594879E+0	1.607683E+0	1.796161E+0	1.836747E+0	1.531255E+0	1.517846E+0	1.688448E+0	1.729140E+0	1.661274E+0	1.651819E+0	1.658632E+0	1.736696E+0	1.783076E+0	1.769421E+0	1.681510E+0	1.722002E+0	1.583284E+0	1.525047E+0	1.730154E+0	1.746242E+0	1.499544E+0	1.469181E+0	1.699516E+0	1.821779E+0	1.378943E+0	1.555546E+0	1.590347E+0	1.772440E+0	1.756669E+0	1.742621E+0	1.681248E+0	1.804045E+0	1.604403E+0	1.586627E+0	1.817893E+0	1.728727E+0	1.485506E+0	1.423375E+0	1.622567E+0	1.752405E+0	1.674256E+0	1.724647E+0	1.690998E+0	1.758446E+0	1.661006E+0	1.778520E+0	1.689916E+0	1.681991E+0	1.510435E+0	1.631700E+0	1.767885E+0	1.634122E+0	1.515947E+0	1.439952E+0	1.653982E+0	1.713934E+0	1.677265E+0	1.680254E+0	1.681187E+0	1.781413E+0	1.780022E+0	1.710513E+0	1.739508E+0	1.597373E+0	1.469621E+0	1.535939E+0	1.754887E+0	1.594278E+0	1.527768E+0	1.467291E+0	1.713699E+0	1.740591E+0	1.655378E+0	1.645507E+0	1.697068E+0	1.702527E+0	1.777025E+0	1.683572E+0	1.759871E+0	1.624283E+0
5.447610E+2	1.597689E+0	1.716280E+0	1.682418E+0	1.707765E+0	1.539817E+0	1.695001E+0	1.662136E+0	1.711592E+0	1.626489E+0	1.650297E+0	1.557041E+0	1.662971E+0	1.716802E+0	1.781622E+0	1.476414E+0	1.556632E+0	1.567961E+0	1.758976E+0	1.700986E+0	1.600959E+0	1.539806E+0	1.688358E+0	1.716356E+0	1.715605E+0	1.591616E+0	1.669978E+0	1.505136E+0	1.584028E+0	1.653106E+0	1.777522E+0	1.525808E+0	1.537507E+0	1.554840E+0	1.692242E+0	1.643626E+0	1.594127E+0	1.471493E+0	1.656214E+0	1.763889E+0	1.624104E+0	1.709041E+0	1.751067E+0	1.575426E+0	1.562426E+0	1.672411E+0	1.750944E+0	1.598016E+0	1.426102E+0	1.603115E+0	1.689143E+0	1.637052E+0	1.543885E+0	1.599414E+0	1.711050E+0	1.684961E+0	1.669347E+0	1.619718E+0	1.520907E+0	1.508571E+0	1.527265E+0	1.714365E+0	1.685370E+0	1.425308E+0	1.393018E+0	1.595661E+0	1.333513E+0	1.615263E+0	1.557193E+0	1.444754E+0	1.711696E+0	1.709254E+0	1.717578E+0	1.548580E+0	1.713729E+0	1.476021E+0	1.544758E+0	1.705946E+0	1.701740E+0	1.474417E+0	1.443548E+0	1.690163E+0	1.704211E+0	1.680001E+0	1.578172E+0	1.664898E+0	1.737640E+0	1.672971E+0	1.679165E+0	1.737038E+0	1.653305E+0	1.499408E+0	1.556026E+0	1.685427E+0	1.709440E+0	1.461490E+0	1.468703E+0	1.619712E+0	1.714704E+0	1.598727E+0	1.524662E+0	1.563526E+0	1.682985E+0	1.689766E+0	1.673674E+0	1.672748E+0	1.690439E+0	1.485431E+0	1.382952E+0	1.672288E+0	1.673933E+0	1.468814E+0	1.419043E+0	1.578441E+0	1.703025E+0	1.347828E+0	1.537193E+0	1.532868E+0	1.675616E+0	1.639451E+0	1.656371E+0	1.652450E+0	1.670753E+0	1.555767E+0	1.547566E+0	1.688029E+0	1.713405E+0	1.481971E+0	1.470534E+0	1.650084E+0	1.786236E+0	1.545399E+0	1.580068E+0	1.520146E+0	1.710472E+0	1.665778E+0	1.759754E+0	1.661259E+0	1.656484E+0	1.482798E+0	1.533829E+0	1.715239E+0	1.694813E+0	1.461549E+0	1.409272E+0	1.664949E+0	1.660905E+0	1.564369E+0	1.630963E+0	1.583628E+0	1.701018E+0	1.708864E+0	1.701616E+0	1.637406E+0	1.710434E+0	1.451191E+0	1.525403E+0	1.671479E+0	1.764036E+0	1.479898E+0	1.401452E+0	1.644783E+0	1.692785E+0	1.625815E+0	1.573754E+0	1.605586E+0	1.712931E+0	1.674321E+0	1.678231E+0	1.721240E+0	1.660477E+0
5.450090E+2	1.541247E+0	1.630437E+0	1.576672E+0	1.610402E+0	1.374598E+0	1.652059E+0	1.636677E+0	1.703362E+0	1.534773E+0	1.605933E+0	1.437126E+0	1.482945E+0	1.621773E+0	1.699017E+0	1.389400E+0	1.438687E+0	1.554347E+0	1.618500E+0	1.583244E+0	1.516027E+0	1.497094E+0	1.592637E+0	1.557848E+0	1.632150E+0	1.568903E+0	1.639527E+0	1.433151E+0	1.468186E+0	1.573246E+0	1.650040E+0	1.431885E+0	1.471783E+0	1.499050E+0	1.636606E+0	1.517793E+0	1.529779E+0	1.421435E+0	1.593379E+0	1.590806E+0	1.607238E+0	1.620168E+0	1.660078E+0	1.456140E+0	1.470538E+0	1.605292E+0	1.619005E+0	1.471626E+0	1.316526E+0	1.488606E+0	1.593895E+0	1.564855E+0	1.451200E+0	1.524362E+0	1.638352E+0	1.578212E+0	1.509784E+0	1.529914E+0	1.431120E+0	1.375730E+0	1.422713E+0	1.592506E+0	1.623071E+0	1.348298E+0	1.343741E+0	1.468894E+0	1.452581E+0	1.518304E+0	1.448998E+0	1.376399E+0	1.615828E+0	1.577468E+0	1.663773E+0	1.567447E+0	1.610998E+0	1.377046E+0	1.470785E+0	1.621575E+0	1.590207E+0	1.379571E+0	1.411299E+0	1.529953E+0	1.615337E+0	1.570684E+0	1.492082E+0	1.534624E+0	1.567413E+0	1.568841E+0	1.610564E+0	1.565219E+0	1.619996E+0	1.443048E+0	1.447489E+0	1.622636E+0	1.664052E+0	1.393868E+0	1.411030E+0	1.478735E+0	1.666368E+0	1.471761E+0	1.483875E+0	1.450917E+0	1.613404E+0	1.558610E+0	1.567289E+0	1.565949E+0	1.605466E+0	1.438133E+0	1.344579E+0	1.612134E+0	1.579021E+0	1.386871E+0	1.331302E+0	1.478876E+0	1.638649E+0	1.263873E+0	1.520615E+0	1.489047E+0	1.675614E+0	1.634650E+0	1.557028E+0	1.518068E+0	1.542840E+0	1.429697E+0	1.483483E+0	1.667366E+0	1.586464E+0	1.406671E+0	1.356070E+0	1.507604E+0	1.601153E+0	1.483523E+0	1.528784E+0	1.524541E+0	1.554858E+0	1.597186E+0	1.598275E+0	1.499237E+0	1.614805E+0	1.350136E+0	1.429313E+0	1.566448E+0	1.599270E+0	1.376736E+0	1.352448E+0	1.496600E+0	1.616925E+0	1.554047E+0	1.472735E+0	1.489120E+0	1.600674E+0	1.577595E+0	1.542017E+0	1.574531E+0	1.633235E+0	1.363785E+0	1.464405E+0	1.588065E+0	1.644273E+0	1.400666E+0	1.386224E+0	1.548049E+0	1.608347E+0	1.555453E+0	1.432620E+0	1.558352E+0	1.597836E+0	1.545942E+0	1.631942E+0	1.589609E+0	1.517975E+0
5.452690E+2	1.350423E+0	1.475918E+0	1.532391E+0	1.428076E+0	1.265552E+0	1.585255E+0	1.472999E+0	1.479531E+0	1.398571E+0	1.482641E+0	1.418925E+0	1.379809E+0	1.516073E+0	1.593277E+0	1.336253E+0	1.332435E+0	1.350671E+0	1.445614E+0	1.476316E+0	1.464057E+0	1.313818E+0	1.491934E+0	1.482916E+0	1.527158E+0	1.389491E+0	1.458610E+0	1.321488E+0	1.329056E+0	1.439796E+0	1.502636E+0	1.337966E+0	1.309207E+0	1.339653E+0	1.483611E+0	1.415905E+0	1.433843E+0	1.331639E+0	1.479129E+0	1.471312E+0	1.463093E+0	1.455026E+0	1.461969E+0	1.324752E+0	1.326145E+0	1.509146E+0	1.512688E+0	1.346881E+0	1.225598E+0	1.359478E+0	1.486580E+0	1.451076E+0	1.303129E+0	1.352807E+0	1.526653E+0	1.442659E+0	1.462789E+0	1.416788E+0	1.322528E+0	1.293383E+0	1.370434E+0	1.512521E+0	1.515038E+0	1.266619E+0	1.240614E+0	1.334206E+0	1.435730E+0	1.434594E+0	1.373552E+0	1.256347E+0	1.502528E+0	1.483926E+0	1.482253E+0	1.429081E+0	1.499661E+0	1.266597E+0	1.400422E+0	1.448767E+0	1.464053E+0	1.284728E+0	1.281263E+0	1.341020E+0	1.470532E+0	1.411193E+0	1.341742E+0	1.392721E+0	1.433050E+0	1.462953E+0	1.426373E+0	1.472377E+0	1.520068E+0	1.310197E+0	1.336634E+0	1.526742E+0	1.520694E+0	1.288143E+0	1.234007E+0	1.375046E+0	1.450427E+0	1.417348E+0	1.365713E+0	1.383817E+0	1.518799E+0	1.525334E+0	1.470424E+0	1.442178E+0	1.427022E+0	1.312549E+0	1.269036E+0	1.490103E+0	1.454166E+0	1.310352E+0	1.220583E+0	1.371323E+0	1.491774E+0	1.147041E+0	1.409311E+0	1.415068E+0	1.501084E+0	1.452308E+0	1.414557E+0	1.484472E+0	1.484862E+0	1.342664E+0	1.321138E+0	1.461351E+0	1.479764E+0	1.287248E+0	1.251926E+0	1.421383E+0	1.485059E+0	1.431217E+0	1.382347E+0	1.380609E+0	1.455215E+0	1.446288E+0	1.543118E+0	1.494560E+0	1.514648E+0	1.323113E+0	1.330842E+0	1.484039E+0	1.471877E+0	1.335793E+0	1.203083E+0	1.493377E+0	1.419672E+0	1.370186E+0	1.421009E+0	1.344003E+0	1.468901E+0	1.453691E+0	1.527365E+0	1.513386E+0	1.407715E+0	1.250811E+0	1.291942E+0	1.456825E+0	1.484402E+0	1.250453E+0	1.206399E+0	1.422229E+0	1.428913E+0	1.375715E+0	1.366203E+0	1.378974E+0	1.427279E+0	1.461974E+0	1.404948E+0	1.512347E+0	1.341548E+0
5.455290E+2	1.244529E+0	1.429219E+0	1.428628E+0	1.421255E+0	1.233610E+0	1.459414E+0	1.365098E+0	1.435644E+0	1.388683E+0	1.402560E+0	1.424281E+0	1.340141E+0	1.379884E+0	1.501855E+0	1.417537E+0	1.207882E+0	1.296753E+0	1.494524E+0	1.486528E+0	1.325888E+0	1.288949E+0	1.391785E+0	1.450636E+0	1.392553E+0	1.369618E+0	1.425773E+0	1.376468E+0	1.254546E+0	1.356264E+0	1.362063E+0	1.446335E+0	1.251884E+0	1.316881E+0	1.351783E+0	1.454323E+0	1.338491E+0	1.269713E+0	1.370019E+0	1.408079E+0	1.343490E+0	1.327074E+0	1.403802E+0	1.272311E+0	1.253662E+0	1.367043E+0	1.437449E+0	1.300922E+0	1.181766E+0	1.307095E+0	1.382441E+0	1.373682E+0	1.255091E+0	1.343156E+0	1.409630E+0	1.422325E+0	1.413611E+0	1.331065E+0	1.303721E+0	1.208630E+0	1.314670E+0	1.370262E+0	1.481236E+0	1.248533E+0	1.156283E+0	1.352165E+0	1.411021E+0	1.352088E+0	1.305126E+0	1.239689E+0	1.382838E+0	1.409795E+0	1.412691E+0	1.378767E+0	1.458337E+0	1.223143E+0	1.365540E+0	1.367889E+0	1.452142E+0	1.202743E+0	1.256293E+0	1.366551E+0	1.410243E+0	1.376546E+0	1.323651E+0	1.347362E+0	1.389213E+0	1.326646E+0	1.446362E+0	1.374107E+0	1.460339E+0	1.268788E+0	1.301809E+0	1.394890E+0	1.419957E+0	1.262383E+0	1.226485E+0	1.332522E+0	1.461099E+0	1.360432E+0	1.336326E+0	1.331305E+0	1.405887E+0	1.402660E+0	1.332691E+0	1.347426E+0	1.481043E+0	1.275037E+0	1.225269E+0	1.387549E+0	1.418009E+0	1.216962E+0	1.196038E+0	1.354730E+0	1.394896E+0	1.232757E+0	1.297418E+0	1.310925E+0	1.409042E+0	1.441339E+0	1.348508E+0	1.411280E+0	1.414928E+0	1.258830E+0	1.280857E+0	1.382249E+0	1.444198E+0	1.147234E+0	1.210660E+0	1.292355E+0	1.498327E+0	1.348929E+0	1.274221E+0	1.309741E+0	1.405392E+0	1.375316E+0	1.393577E+0	1.337222E+0	1.403911E+0	1.263538E+0	1.284928E+0	1.377026E+0	1.402772E+0	1.245131E+0	1.161341E+0	1.363728E+0	1.443601E+0	1.337929E+0	1.316338E+0	1.304369E+0	1.409665E+0	1.389286E+0	1.388175E+0	1.375522E+0	1.434461E+0	1.197892E+0	1.259224E+0	1.420659E+0	1.447594E+0	1.186077E+0	1.229001E+0	1.330554E+0	1.366825E+0	1.330780E+0	1.309868E+0	1.283306E+0	1.341305E+0	1.412704E+0	1.384474E+0	1.386439E+0	1.384525E+0
5.457670E+2	1.186475E+0	1.352990E+0	1.404175E+0	1.295983E+0	1.147145E+0	1.351458E+0	1.335394E+0	1.382976E+0	1.266214E+0	1.295975E+0	1.334344E+0	1.357839E+0	1.337704E+0	1.358670E+0	1.301867E+0	1.185004E+0	1.249374E+0	1.358599E+0	1.389812E+0	1.296733E+0	1.254887E+0	1.334243E+0	1.367634E+0	1.350019E+0	1.302623E+0	1.314119E+0	1.343026E+0	1.205648E+0	1.346804E+0	1.348974E+0	1.315775E+0	1.157008E+0	1.241168E+0	1.336060E+0	1.327938E+0	1.291107E+0	1.214493E+0	1.403150E+0	1.386110E+0	1.316906E+0	1.340310E+0	1.383071E+0	1.362786E+0	1.152073E+0	1.323507E+0	1.385655E+0	1.378067E+0	1.107628E+0	1.235221E+0	1.312591E+0	1.322280E+0	1.230789E+0	1.240223E+0	1.318022E+0	1.294113E+0	1.334376E+0	1.340394E+0	1.177534E+0	1.299995E+0	1.250195E+0	1.376703E+0	1.320182E+0	1.274786E+0	1.146632E+0	1.209023E+0	1.403152E+0	1.289455E+0	1.266527E+0	1.193735E+0	1.372961E+0	1.352729E+0	1.340954E+0	1.316443E+0	1.403817E+0	1.223143E+0	1.238645E+0	1.320758E+0	1.340068E+0	1.232212E+0	1.136138E+0	1.292509E+0	1.324478E+0	1.340109E+0	1.274993E+0	1.249073E+0	1.344234E+0	1.324306E+0	1.285397E+0	1.367477E+0	1.363279E+0	1.223929E+0	1.262342E+0	1.341235E+0	1.336931E+0	1.143243E+0	1.122180E+0	1.255626E+0	1.361916E+0	1.296010E+0	1.243955E+0	1.276457E+0	1.371096E+0	1.361552E+0	1.312531E+0	1.325522E+0	1.303202E+0	1.196207E+0	1.128741E+0	1.365206E+0	1.355865E+0	1.206718E+0	1.086885E+0	1.274218E+0	1.441146E+0	1.286182E+0	1.259527E+0	1.256293E+0	1.337916E+0	1.383072E+0	1.313574E+0	1.279894E+0	1.362925E+0	1.219794E+0	1.255224E+0	1.319676E+0	1.367048E+0	1.207828E+0	1.146305E+0	1.260557E+0	1.321202E+0	1.300449E+0	1.263718E+0	1.282823E+0	1.302675E+0	1.321040E+0	1.377086E+0	1.316751E+0	1.335482E+0	1.203963E+0	1.191289E+0	1.323229E+0	1.354699E+0	1.143356E+0	1.133178E+0	1.266976E+0	1.342711E+0	1.268901E+0	1.283475E+0	1.235469E+0	1.349218E+0	1.283165E+0	1.268867E+0	1.307454E+0	1.346320E+0	1.106919E+0	1.179370E+0	1.330834E+0	1.371230E+0	1.161317E+0	1.096834E+0	1.309690E+0	1.360616E+0	1.326641E+0	1.287928E+0	1.240257E+0	1.282373E+0	1.310002E+0	1.254508E+0	1.330638E+0	1.280477E+0
5.460220E+2	1.164974E+0	1.333074E+0	1.279925E+0	1.232107E+0	1.137232E+0	1.329391E+0	1.294778E+0	1.301785E+0	1.187678E+0	1.298857E+0	1.241195E+0	1.235785E+0	1.261478E+0	1.322870E+0	1.309164E+0	1.117389E+0	1.188381E+0	1.326182E+0	1.293097E+0	1.204199E+0	1.108374E+0	1.383490E+0	1.279447E+0	1.302638E+0	1.229379E+0	1.312924E+0	1.391206E+0	1.201573E+0	1.292689E+0	1.309135E+0	1.318355E+0	1.149100E+0	1.138697E+0	1.311266E+0	1.276157E+0	1.223835E+0	1.083415E+0	1.267192E+0	1.307338E+0	1.248414E+0	1.322031E+0	1.291504E+0	1.289598E+0	1.176614E+0	1.243688E+0	1.273343E+0	1.362747E+0	1.116487E+0	1.194412E+0	1.273222E+0	1.269721E+0	1.156754E+0	1.178035E+0	1.311521E+0	1.305975E+0	1.254048E+0	1.214437E+0	1.170860E+0	1.367916E+0	1.166549E+0	1.231761E+0	1.326809E+0	1.294041E+0	1.102434E+0	1.189479E+0	1.304307E+0	1.296080E+0	1.158331E+0	1.131698E+0	1.302657E+0	1.263303E+0	1.301825E+0	1.241544E+0	1.241405E+0	1.300999E+0	1.185722E+0	1.288175E+0	1.275095E+0	1.303482E+0	1.150183E+0	1.242723E+0	1.265436E+0	1.353250E+0	1.228830E+0	1.211270E+0	1.302675E+0	1.268730E+0	1.296738E+0	1.316835E+0	1.323651E+0	1.302144E+0	1.167156E+0	1.311552E+0	1.277709E+0	1.314442E+0	1.106131E+0	1.253878E+0	1.279056E+0	1.230337E+0	1.171979E+0	1.176102E+0	1.297853E+0	1.305437E+0	1.299654E+0	1.243918E+0	1.276496E+0	1.155978E+0	1.146128E+0	1.376666E+0	1.290330E+0	1.250703E+0	1.073829E+0	1.237957E+0	1.281768E+0	1.302035E+0	1.260119E+0	1.181744E+0	1.327158E+0	1.311094E+0	1.228419E+0	1.319490E+0	1.310925E+0	1.131481E+0	1.171610E+0	1.277175E+0	1.305767E+0	1.117231E+0	1.076056E+0	1.271564E+0	1.322529E+0	1.220712E+0	1.230352E+0	1.209756E+0	1.246704E+0	1.302552E+0	1.296912E+0	1.276977E+0	1.232213E+0	1.115521E+0	1.184039E+0	1.252842E+0	1.271774E+0	1.125809E+0	1.083894E+0	1.268911E+0	1.276744E+0	1.228257E+0	1.170285E+0	1.203153E+0	1.251898E+0	1.231641E+0	1.265728E+0	1.306302E+0	1.271552E+0	1.115838E+0	1.184915E+0	1.279504E+0	1.307503E+0	1.128854E+0	1.074727E+0	1.269857E+0	1.332056E+0	1.239726E+0	1.177037E+0	1.202587E+0	1.290693E+0	1.304450E+0	1.260740E+0	1.259101E+0	1.221667E+0
5.467660E+2	1.222490E+0	1.325519E+0	1.404175E+0	1.362960E+0	1.196711E+0	1.404541E+0	1.438448E+0	1.345670E+0	1.287083E+0	1.379515E+0	1.395909E+0	1.332208E+0	1.346342E+0	1.392814E+0	1.408680E+0	1.182970E+0	1.227589E+0	1.371110E+0	1.426456E+0	1.287860E+0	1.225153E+0	1.430517E+0	1.386655E+0	1.324714E+0	1.332715E+0	1.443686E+0	1.396871E+0	1.244650E+0	1.414055E+0	1.363770E+0	1.362733E+0	1.268686E+0	1.236044E+0	1.382622E+0	1.389181E+0	1.375929E+0	1.261456E+0	1.370587E+0	1.415580E+0	1.335311E+0	1.325182E+0	1.343336E+0	1.341464E+0	1.229121E+0	1.390627E+0	1.391652E+0	1.391746E+0	1.177106E+0	1.265676E+0	1.400221E+0	1.421621E+0	1.241527E+0	1.250946E+0	1.367668E+0	1.378836E+0	1.340387E+0	1.314739E+0	1.258827E+0	1.367315E+0	1.278075E+0	1.377243E+0	1.397727E+0	1.355295E+0	1.180161E+0	1.266596E+0	1.414950E+0	1.360517E+0	1.267112E+0	1.166738E+0	1.381097E+0	1.400384E+0	1.376823E+0	1.280995E+0	1.367664E+0	1.392132E+0	1.289163E+0	1.328905E+0	1.390960E+0	1.419224E+0	1.243292E+0	1.341659E+0	1.387249E+0	1.396260E+0	1.299322E+0	1.297344E+0	1.425079E+0	1.393920E+0	1.375059E+0	1.364462E+0	1.387975E+0	1.414293E+0	1.228678E+0	1.418290E+0	1.415531E+0	1.397627E+0	1.158285E+0	1.279511E+0	1.344968E+0	1.351050E+0	1.284141E+0	1.296879E+0	1.387573E+0	1.378518E+0	1.299653E+0	1.386862E+0	1.395461E+0	1.397900E+0	1.155121E+0	1.409894E+0	1.362643E+0	1.360362E+0	1.157913E+0	1.296958E+0	1.417394E+0	1.372485E+0	1.274328E+0	1.294422E+0	1.367202E+0	1.381701E+0	1.330495E+0	1.341689E+0	1.371293E+0	1.425858E+0	1.250340E+0	1.396418E+0	1.381276E+0	1.337253E+0	1.175289E+0	1.247104E+0	1.395503E+0	1.307465E+0	1.327358E+0	1.263594E+0	1.351882E+0	1.403946E+0	1.415752E+0	1.307393E+0	1.360366E+0	1.243884E+0	1.240223E+0	1.344977E+0	1.379937E+0	1.319414E+0	1.210629E+0	1.361792E+0	1.355645E+0	1.303738E+0	1.267654E+0	1.290345E+0	1.329269E+0	1.416889E+0	1.387651E+0	1.350716E+0	1.357869E+0	1.188974E+0	1.230942E+0	1.347166E+0	1.395401E+0	1.191579E+0	1.181343E+0	1.356476E+0	1.422704E+0	1.332554E+0	1.268358E+0	1.331739E+0	1.351013E+0	1.335678E+0	1.358659E+0	1.380715E+0	1.205833E+0
5.475120E+2	1.348811E+0	1.540473E+0	1.523799E+0	1.542805E+0	1.277118E+0	1.521440E+0	1.503311E+0	1.539331E+0	1.414499E+0	1.487827E+0	1.539375E+0	1.457311E+0	1.530303E+0	1.500206E+0	1.503506E+0	1.292272E+0	1.381165E+0	1.508739E+0	1.530381E+0	1.401310E+0	1.360854E+0	1.525684E+0	1.441992E+0	1.460394E+0	1.404253E+0	1.481897E+0	1.555580E+0	1.317997E+0	1.494438E+0	1.455399E+0	1.500523E+0	1.326996E+0	1.372101E+0	1.539849E+0	1.437621E+0	1.440863E+0	1.298095E+0	1.505977E+0	1.523823E+0	1.492230E+0	1.478979E+0	1.522437E+0	1.515493E+0	1.366667E+0	1.497050E+0	1.551396E+0	1.536736E+0	1.244716E+0	1.395414E+0	1.495471E+0	1.511719E+0	1.299738E+0	1.379075E+0	1.437996E+0	1.510437E+0	1.490659E+0	1.422618E+0	1.314641E+0	1.503761E+0	1.420387E+0	1.513595E+0	1.498468E+0	1.477814E+0	1.272619E+0	1.316244E+0	1.459880E+0	1.417127E+0	1.377062E+0	1.326426E+0	1.500206E+0	1.486279E+0	1.454537E+0	1.432510E+0	1.545575E+0	1.513443E+0	1.403429E+0	1.454584E+0	1.458099E+0	1.528534E+0	1.332237E+0	1.417615E+0	1.451263E+0	1.559337E+0	1.395391E+0	1.387488E+0	1.513326E+0	1.505071E+0	1.487953E+0	1.488053E+0	1.544761E+0	1.509186E+0	1.419052E+0	1.519890E+0	1.510731E+0	1.470079E+0	1.265102E+0	1.429222E+0	1.487462E+0	1.506789E+0	1.401701E+0	1.434580E+0	1.504764E+0	1.482266E+0	1.444109E+0	1.401102E+0	1.465870E+0	1.495216E+0	1.273833E+0	1.479792E+0	1.505576E+0	1.530272E+0	1.243563E+0	1.432168E+0	1.493645E+0	1.506930E+0	1.354845E+0	1.368404E+0	1.492120E+0	1.507835E+0	1.432571E+0	1.422076E+0	1.464541E+0	1.562167E+0	1.319307E+0	1.473159E+0	1.488520E+0	1.503740E+0	1.254873E+0	1.401815E+0	1.497002E+0	1.573468E+0	1.426833E+0	1.439938E+0	1.460751E+0	1.447483E+0	1.501042E+0	1.450694E+0	1.519001E+0	1.545444E+0	1.387026E+0	1.481751E+0	1.471875E+0	1.496642E+0	1.294611E+0	1.446934E+0	1.512155E+0	1.535336E+0	1.438658E+0	1.365953E+0	1.523909E+0	1.489267E+0	1.400733E+0	1.495503E+0	1.501934E+0	1.475569E+0	1.354606E+0	1.470239E+0	1.543736E+0	1.440283E+0	1.259954E+0	1.457003E+0	1.504659E+0	1.438977E+0	1.376285E+0	1.410065E+0	1.450853E+0	1.534839E+0	1.518889E+0	1.505193E+0	1.303096E+0
5.482600E+2	1.388588E+0	1.589232E+0	1.554862E+0	1.500015E+0	1.266653E+0	1.621045E+0	1.593633E+0	1.587606E+0	1.412300E+0	1.488980E+0	1.534023E+0	1.426799E+0	1.564353E+0	1.561334E+0	1.524868E+0	1.408690E+0	1.382254E+0	1.588929E+0	1.517164E+0	1.455817E+0	1.364639E+0	1.518493E+0	1.565340E+0	1.564849E+0	1.411066E+0	1.576832E+0	1.602060E+0	1.437336E+0	1.510723E+0	1.487272E+0	1.572252E+0	1.342316E+0	1.376655E+0	1.533803E+0	1.596299E+0	1.482396E+0	1.375504E+0	1.595661E+0	1.560799E+0	1.519834E+0	1.456917E+0	1.520710E+0	1.487831E+0	1.365526E+0	1.534542E+0	1.592829E+0	1.602938E+0	1.288547E+0	1.406987E+0	1.440226E+0	1.530778E+0	1.335909E+0	1.364598E+0	1.568613E+0	1.564095E+0	1.497217E+0	1.499010E+0	1.428088E+0	1.503160E+0	1.395991E+0	1.522183E+0	1.544199E+0	1.518067E+0	1.304624E+0	1.360617E+0	1.508743E+0	1.520110E+0	1.346649E+0	1.283917E+0	1.569927E+0	1.511574E+0	1.523558E+0	1.461100E+0	1.509995E+0	1.508611E+0	1.395611E+0	1.529642E+0	1.546892E+0	1.545145E+0	1.348883E+0	1.407402E+0	1.518384E+0	1.569490E+0	1.397262E+0	1.440994E+0	1.492828E+0	1.506242E+0	1.534406E+0	1.515781E+0	1.514895E+0	1.540818E+0	1.401057E+0	1.563272E+0	1.566084E+0	1.559703E+0	1.269613E+0	1.377377E+0	1.536426E+0	1.452371E+0	1.381308E+0	1.397819E+0	1.512086E+0	1.505759E+0	1.483866E+0	1.483252E+0	1.506531E+0	1.507176E+0	1.275032E+0	1.492967E+0	1.494839E+0	1.499544E+0	1.308324E+0	1.348584E+0	1.503021E+0	1.546850E+0	1.370830E+0	1.397425E+0	1.489134E+0	1.548966E+0	1.494252E+0	1.458674E+0	1.483070E+0	1.537209E+0	1.407804E+0	1.541633E+0	1.529011E+0	1.453736E+0	1.230309E+0	1.433612E+0	1.516238E+0	1.538382E+0	1.426219E+0	1.466858E+0	1.449064E+0	1.548278E+0	1.529472E+0	1.439579E+0	1.527089E+0	1.524563E+0	1.432941E+0	1.506359E+0	1.516342E+0	1.535247E+0	1.352950E+0	1.408234E+0	1.537376E+0	1.501146E+0	1.407012E+0	1.418390E+0	1.537812E+0	1.516870E+0	1.461957E+0	1.531847E+0	1.569408E+0	1.489838E+0	1.313013E+0	1.527988E+0	1.522307E+0	1.515111E+0	1.305646E+0	1.482927E+0	1.562402E+0	1.583245E+0	1.440920E+0	1.445344E+0	1.500770E+0	1.490427E+0	1.485063E+0	1.548116E+0	1.393570E+0
5.490490E+2	1.378376E+0	1.549400E+0	1.531730E+0	1.524820E+0	1.314017E+0	1.557824E+0	1.569994E+0	1.547559E+0	1.388136E+0	1.488402E+0	1.498158E+0	1.443276E+0	1.467797E+0	1.560784E+0	1.541022E+0	1.381239E+0	1.407851E+0	1.565044E+0	1.550206E+0	1.453282E+0	1.307871E+0	1.548925E+0	1.529029E+0	1.541155E+0	1.438886E+0	1.559519E+0	1.567486E+0	1.381449E+0	1.526485E+0	1.541905E+0	1.538192E+0	1.364057E+0	1.380640E+0	1.498728E+0	1.537840E+0	1.460165E+0	1.377054E+0	1.492835E+0	1.544721E+0	1.503476E+0	1.513644E+0	1.523014E+0	1.494750E+0	1.387780E+0	1.506728E+0	1.536130E+0	1.550963E+0	1.251710E+0	1.388713E+0	1.483407E+0	1.497858E+0	1.366991E+0	1.389795E+0	1.540834E+0	1.496881E+0	1.485740E+0	1.453525E+0	1.392293E+0	1.531413E+0	1.355328E+0	1.504471E+0	1.483225E+0	1.554239E+0	1.303607E+0	1.422941E+0	1.502004E+0	1.475546E+0	1.326180E+0	1.313214E+0	1.508922E+0	1.511578E+0	1.459426E+0	1.507986E+0	1.494496E+0	1.495939E+0	1.392003E+0	1.554663E+0	1.491127E+0	1.476559E+0	1.323394E+0	1.471231E+0	1.525844E+0	1.542609E+0	1.414729E+0	1.460184E+0	1.515034E+0	1.481671E+0	1.575454E+0	1.513371E+0	1.485609E+0	1.510911E+0	1.324443E+0	1.525029E+0	1.520698E+0	1.479200E+0	1.325779E+0	1.436213E+0	1.511948E+0	1.506785E+0	1.409501E+0	1.440997E+0	1.541383E+0	1.510977E+0	1.513541E+0	1.466276E+0	1.498036E+0	1.458788E+0	1.258245E+0	1.546250E+0	1.438346E+0	1.539910E+0	1.249307E+0	1.443846E+0	1.541775E+0	1.463485E+0	1.377934E+0	1.371817E+0	1.533365E+0	1.468074E+0	1.441304E+0	1.496471E+0	1.535667E+0	1.502012E+0	1.365691E+0	1.582361E+0	1.515334E+0	1.507858E+0	1.200834E+0	1.407317E+0	1.550736E+0	1.489265E+0	1.402738E+0	1.478944E+0	1.516723E+0	1.460604E+0	1.512982E+0	1.465317E+0	1.495985E+0	1.490167E+0	1.374340E+0	1.483467E+0	1.501321E+0	1.490210E+0	1.311711E+0	1.410813E+0	1.517975E+0	1.512114E+0	1.433788E+0	1.457412E+0	1.504566E+0	1.503377E+0	1.483934E+0	1.535308E+0	1.487952E+0	1.516598E+0	1.346287E+0	1.498822E+0	1.512968E+0	1.514562E+0	1.266829E+0	1.460165E+0	1.454367E+0	1.532396E+0	1.369762E+0	1.401097E+0	1.481358E+0	1.541777E+0	1.570521E+0	1.505192E+0	1.531549E+0
5.497790E+2	1.317095E+0	1.467677E+0	1.485466E+0	1.433038E+0	1.236915E+0	1.421837E+0	1.531802E+0	1.471851E+0	1.388137E+0	1.483218E+0	1.452115E+0	1.413984E+0	1.432731E+0	1.517829E+0	1.510280E+0	1.287190E+0	1.364827E+0	1.496798E+0	1.511758E+0	1.374691E+0	1.345715E+0	1.485848E+0	1.487525E+0	1.464162E+0	1.352586E+0	1.450851E+0	1.475663E+0	1.348850E+0	1.457661E+0	1.479302E+0	1.418469E+0	1.272143E+0	1.379502E+0	1.464261E+0	1.502762E+0	1.392894E+0	1.310997E+0	1.474556E+0	1.461128E+0	1.447761E+0	1.408383E+0	1.443544E+0	1.396783E+0	1.268502E+0	1.536354E+0	1.482702E+0	1.455215E+0	1.237723E+0	1.381404E+0	1.414192E+0	1.437218E+0	1.282220E+0	1.365136E+0	1.439773E+0	1.428541E+0	1.403774E+0	1.390546E+0	1.341335E+0	1.480321E+0	1.359978E+0	1.427165E+0	1.463341E+0	1.410137E+0	1.197939E+0	1.321527E+0	1.492457E+0	1.476751E+0	1.280563E+0	1.234519E+0	1.389231E+0	1.493340E+0	1.520299E+0	1.437086E+0	1.535819E+0	1.425325E+0	1.348701E+0	1.434222E+0	1.486795E+0	1.451373E+0	1.236010E+0	1.457827E+0	1.487933E+0	1.458980E+0	1.399134E+0	1.377020E+0	1.425648E+0	1.505075E+0	1.443116E+0	1.471774E+0	1.465508E+0	1.460300E+0	1.313418E+0	1.518182E+0	1.481398E+0	1.478664E+0	1.251561E+0	1.393103E+0	1.499389E+0	1.444243E+0	1.338723E+0	1.380317E+0	1.482789E+0	1.452904E+0	1.444673E+0	1.449843E+0	1.468903E+0	1.475640E+0	1.221072E+0	1.440834E+0	1.447387E+0	1.450138E+0	1.208572E+0	1.392219E+0	1.401144E+0	1.449981E+0	1.328796E+0	1.335396E+0	1.497504E+0	1.461905E+0	1.467506E+0	1.446075E+0	1.375477E+0	1.510330E+0	1.367522E+0	1.471383E+0	1.454596E+0	1.450796E+0	1.214099E+0	1.343110E+0	1.440614E+0	1.442061E+0	1.407680E+0	1.375663E+0	1.436763E+0	1.464780E+0	1.477160E+0	1.422034E+0	1.430041E+0	1.410940E+0	1.332050E+0	1.469733E+0	1.423804E+0	1.447512E+0	1.185482E+0	1.365018E+0	1.419025E+0	1.483082E+0	1.360764E+0	1.359246E+0	1.404828E+0	1.520551E+0	1.432653E+0	1.448778E+0	1.459992E+0	1.395300E+0	1.283069E+0	1.460327E+0	1.481656E+0	1.478799E+0	1.239810E+0	1.424128E+0	1.423945E+0	1.448438E+0	1.321136E+0	1.344295E+0	1.418958E+0	1.421032E+0	1.371121E+0	1.466562E+0	1.432023E+0
5.505110E+2	1.258504E+0	1.441580E+0	1.465639E+0	1.429936E+0	1.227552E+0	1.448677E+0	1.396618E+0	1.454296E+0	1.371661E+0	1.358774E+0	1.373957E+0	1.420086E+0	1.359554E+0	1.422004E+0	1.401383E+0	1.307526E+0	1.287496E+0	1.451301E+0	1.443278E+0	1.367719E+0	1.181902E+0	1.460950E+0	1.395880E+0	1.383938E+0	1.314545E+0	1.351734E+0	1.442220E+0	1.324400E+0	1.365717E+0	1.441175E+0	1.397827E+0	1.222729E+0	1.222950E+0	1.366902E+0	1.407553E+0	1.374173E+0	1.256294E+0	1.363733E+0	1.438621E+0	1.371602E+0	1.341571E+0	1.391711E+0	1.431358E+0	1.265648E+0	1.421466E+0	1.404193E+0	1.422932E+0	1.132341E+0	1.282731E+0	1.396410E+0	1.451655E+0	1.249439E+0	1.298121E+0	1.418495E+0	1.354548E+0	1.351315E+0	1.366054E+0	1.283094E+0	1.384147E+0	1.253679E+0	1.415892E+0	1.342053E+0	1.432306E+0	1.157808E+0	1.288778E+0	1.422814E+0	1.391835E+0	1.270036E+0	1.171333E+0	1.382258E+0	1.401559E+0	1.419215E+0	1.360472E+0	1.458915E+0	1.397565E+0	1.288561E+0	1.427236E+0	1.333027E+0	1.387071E+0	1.201679E+0	1.356977E+0	1.422675E+0	1.460772E+0	1.300570E+0	1.367131E+0	1.407999E+0	1.420247E+0	1.350752E+0	1.419324E+0	1.422435E+0	1.434994E+0	1.254216E+0	1.426854E+0	1.424386E+0	1.388502E+0	1.187870E+0	1.309220E+0	1.378238E+0	1.407340E+0	1.310533E+0	1.309133E+0	1.437012E+0	1.384390E+0	1.347246E+0	1.367692E+0	1.351152E+0	1.409860E+0	1.230665E+0	1.409320E+0	1.364905E+0	1.450738E+0	1.209095E+0	1.358417E+0	1.373645E+0	1.437653E+0	1.269592E+0	1.283041E+0	1.409640E+0	1.449566E+0	1.363244E+0	1.372283E+0	1.438238E+0	1.464894E+0	1.269870E+0	1.448955E+0	1.396597E+0	1.476681E+0	1.207710E+0	1.335161E+0	1.400809E+0	1.354670E+0	1.342188E+0	1.347647E+0	1.393707E+0	1.415873E+0	1.402672E+0	1.348921E+0	1.385250E+0	1.425066E+0	1.231765E+0	1.398198E+0	1.385948E+0	1.413586E+0	1.158324E+0	1.293422E+0	1.387981E+0	1.415990E+0	1.289562E+0	1.301321E+0	1.375814E+0	1.431610E+0	1.375093E+0	1.379560E+0	1.402244E+0	1.349514E+0	1.302478E+0	1.356499E+0	1.375073E+0	1.392412E+0	1.188711E+0	1.380502E+0	1.397870E+0	1.403503E+0	1.241081E+0	1.358645E+0	1.457785E+0	1.358577E+0	1.420971E+0	1.376423E+0	1.246549E+0
5.512570E+2	1.307421E+0	1.497208E+0	1.451099E+0	1.490092E+0	1.220393E+0	1.461797E+0	1.505127E+0	1.449906E+0	1.355185E+0	1.409472E+0	1.450510E+0	1.428020E+0	1.428668E+0	1.448437E+0	1.439938E+0	1.501216E+0	1.279872E+0	1.430828E+0	1.448683E+0	1.472296E+0	1.345174E+0	1.423878E+0	1.455824E+0	1.425397E+0	1.341231E+0	1.471748E+0	1.489267E+0	1.485068E+0	1.486032E+0	1.473612E+0	1.417952E+0	1.448560E+0	1.238321E+0	1.470912E+0	1.443744E+0	1.516911E+0	1.260424E+0	1.441996E+0	1.507212E+0	1.401247E+0	1.461330E+0	1.448721E+0	1.422714E+0	1.386069E+0	1.360997E+0	1.475612E+0	1.485305E+0	1.423772E+0	1.329021E+0	1.418635E+0	1.428550E+0	1.389596E+0	1.313671E+0	1.416722E+0	1.449438E+0	1.503226E+0	1.359055E+0	1.321921E+0	1.361908E+0	1.319315E+0	1.442195E+0	1.475272E+0	1.418887E+0	1.192859E+0	1.280328E+0	1.394170E+0	1.473741E+0	1.315069E+0	1.270708E+0	1.436872E+0	1.445685E+0	1.414865E+0	1.395919E+0	1.431367E+0	1.463949E+0	1.313822E+0	1.462149E+0	1.415867E+0	1.450837E+0	1.301029E+0	1.305914E+0	1.469288E+0	1.494821E+0	1.388529E+0	1.391560E+0	1.410275E+0	1.450667E+0	1.466346E+0	1.459113E+0	1.437365E+0	1.412567E+0	1.329086E+0	1.501055E+0	1.402248E+0	1.459344E+0	1.217461E+0	1.343590E+0	1.452312E+0	1.431733E+0	1.357919E+0	1.327219E+0	1.455936E+0	1.477048E+0	1.387561E+0	1.414791E+0	1.408206E+0	1.435412E+0	1.240858E+0	1.459738E+0	1.431003E+0	1.404344E+0	1.180369E+0	1.335675E+0	1.470522E+0	1.410647E+0	1.299194E+0	1.359866E+0	1.408443E+0	1.438598E+0	1.398727E+0	1.410679E+0	1.433460E+0	1.429699E+0	1.279636E+0	1.456629E+0	1.421767E+0	1.431970E+0	1.176272E+0	1.318650E+0	1.411423E+0	1.420373E+0	1.311911E+0	1.338855E+0	1.401087E+0	1.419450E+0	1.416317E+0	1.388695E+0	1.436260E+0	1.453319E+0	1.277075E+0	1.394192E+0	1.447838E+0	1.483775E+0	1.217165E+0	1.361793E+0	1.430666E+0	1.405023E+0	1.331552E+0	1.369611E+0	1.375208E+0	1.421181E+0	1.372997E+0	1.417632E+0	1.408930E+0	1.406597E+0	1.253124E+0	1.410743E+0	1.428914E+0	1.408918E+0	1.200994E+0	1.411482E+0	1.422083E+0	1.424200E+0	1.347822E+0	1.361634E+0	1.443224E+0	1.455035E+0	1.445896E+0	1.422208E+0	1.316665E+0
5.520260E+2	1.319783E+0	1.420291E+0	1.420697E+0	1.411952E+0	1.272161E+0	1.434362E+0	1.454209E+0	1.440581E+0	1.361225E+0	1.369142E+0	1.430168E+0	1.392624E+0	1.440866E+0	1.494698E+0	1.472766E+0	1.433096E+0	1.284228E+0	1.413197E+0	1.382603E+0	1.405114E+0	1.265702E+0	1.458735E+0	1.499055E+0	1.444780E+0	1.368484E+0	1.439505E+0	1.471695E+0	1.369226E+0	1.384632E+0	1.388812E+0	1.405054E+0	1.417426E+0	1.331112E+0	1.393509E+0	1.459334E+0	1.446714E+0	1.232040E+0	1.435715E+0	1.423619E+0	1.431915E+0	1.417838E+0	1.446998E+0	1.452684E+0	1.452846E+0	1.428721E+0	1.432542E+0	1.438252E+0	1.465273E+0	1.300394E+0	1.386886E+0	1.410071E+0	1.438765E+0	1.287401E+0	1.404901E+0	1.413851E+0	1.486287E+0	1.346228E+0	1.346188E+0	1.420813E+0	1.478471E+0	1.396031E+0	1.434179E+0	1.433476E+0	1.375237E+0	1.296174E+0	1.443029E+0	1.414722E+0	1.361271E+0	1.248305E+0	1.486840E+0	1.466864E+0	1.450190E+0	1.402209E+0	1.410706E+0	1.424118E+0	1.305401E+0	1.436548E+0	1.439688E+0	1.406900E+0	1.285423E+0	1.360168E+0	1.378548E+0	1.438672E+0	1.369190E+0	1.340961E+0	1.384656E+0	1.374033E+0	1.393426E+0	1.389180E+0	1.412670E+0	1.456277E+0	1.329668E+0	1.400025E+0	1.423833E+0	1.434118E+0	1.205927E+0	1.318541E+0	1.459214E+0	1.342919E+0	1.319530E+0	1.344726E+0	1.417483E+0	1.398745E+0	1.389799E+0	1.386860E+0	1.363290E+0	1.414756E+0	1.173707E+0	1.408177E+0	1.451342E+0	1.447725E+0	1.196036E+0	1.352886E+0	1.428021E+0	1.407713E+0	1.248279E+0	1.287593E+0	1.477776E+0	1.428315E+0	1.342504E+0	1.375285E+0	1.400581E+0	1.457213E+0	1.299777E+0	1.397597E+0	1.408086E+0	1.420790E+0	1.195921E+0	1.399370E+0	1.416067E+0	1.380185E+0	1.348983E+0	1.308642E+0	1.372179E+0	1.390823E+0	1.451574E+0	1.428466E+0	1.391472E+0	1.431208E+0	1.268012E+0	1.405067E+0	1.472476E+0	1.452189E+0	1.145751E+0	1.283101E+0	1.405443E+0	1.458568E+0	1.366848E+0	1.328150E+0	1.387903E+0	1.463506E+0	1.398643E+0	1.410133E+0	1.439933E+0	1.450595E+0	1.306359E+0	1.390911E+0	1.401445E+0	1.435881E+0	1.193625E+0	1.336876E+0	1.410287E+0	1.457311E+0	1.276660E+0	1.347284E+0	1.438371E+0	1.487651E+0	1.438775E+0	1.476578E+0	1.332501E+0
5.527590E+2	1.206901E+0	1.384580E+0	1.282568E+0	1.362340E+0	1.160913E+0	1.312691E+0	1.348125E+0	1.368164E+0	1.199760E+0	1.291366E+0	1.277598E+0	1.283386E+0	1.274182E+0	1.339395E+0	1.328440E+0	1.259229E+0	1.166052E+0	1.334146E+0	1.406033E+0	1.332860E+0	1.180820E+0	1.322071E+0	1.306537E+0	1.364019E+0	1.288428E+0	1.336209E+0	1.296546E+0	1.251636E+0	1.325262E+0	1.330196E+0	1.300292E+0	1.347258E+0	1.190501E+0	1.329408E+0	1.293418E+0	1.328546E+0	1.130375E+0	1.314034E+0	1.290192E+0	1.318440E+0	1.300601E+0	1.333546E+0	1.336274E+0	1.314729E+0	1.327134E+0	1.361122E+0	1.332654E+0	1.335177E+0	1.177966E+0	1.296717E+0	1.326901E+0	1.280522E+0	1.210738E+0	1.354074E+0	1.234243E+0	1.332191E+0	1.256423E+0	1.166613E+0	1.380541E+0	1.368109E+0	1.268802E+0	1.328798E+0	1.306291E+0	1.340185E+0	1.163069E+0	1.306553E+0	1.279820E+0	1.252491E+0	1.117338E+0	1.352044E+0	1.349198E+0	1.345843E+0	1.255265E+0	1.338967E+0	1.319104E+0	1.327051E+0	1.303302E+0	1.305415E+0	1.297049E+0	1.362405E+0	1.283574E+0	1.295268E+0	1.329954E+0	1.349228E+0	1.268847E+0	1.304951E+0	1.330154E+0	1.326986E+0	1.324070E+0	1.356388E+0	1.317098E+0	1.308776E+0	1.285295E+0	1.306491E+0	1.342346E+0	1.270116E+0	1.224752E+0	1.370078E+0	1.285377E+0	1.281141E+0	1.165599E+0	1.350344E+0	1.306088E+0	1.263820E+0	1.251036E+0	1.331729E+0	1.300590E+0	1.163515E+0	1.267812E+0	1.321968E+0	1.312161E+0	1.118743E+0	1.282208E+0	1.301768E+0	1.313189E+0	1.217493E+0	1.205076E+0	1.361225E+0	1.307666E+0	1.248068E+0	1.273295E+0	1.353362E+0	1.354184E+0	1.219825E+0	1.320858E+0	1.313974E+0	1.320193E+0	1.124199E+0	1.240377E+0	1.345084E+0	1.297897E+0	1.216141E+0	1.239972E+0	1.265770E+0	1.386051E+0	1.291227E+0	1.271128E+0	1.307487E+0	1.316357E+0	1.168936E+0	1.296907E+0	1.267567E+0	1.317661E+0	1.103507E+0	1.281811E+0	1.365346E+0	1.320511E+0	1.271305E+0	1.251323E+0	1.304486E+0	1.353709E+0	1.272529E+0	1.305724E+0	1.297083E+0	1.313839E+0	1.191015E+0	1.281837E+0	1.329476E+0	1.329684E+0	1.110099E+0	1.309689E+0	1.326468E+0	1.262194E+0	1.172886E+0	1.268359E+0	1.326746E+0	1.309308E+0	1.291006E+0	1.342085E+0	1.285000E+0
5.535330E+2	1.168737E+0	1.309038E+0	1.262741E+0	1.285440E+0	1.109696E+0	1.322830E+0	1.310540E+0	1.313852E+0	1.230515E+0	1.254493E+0	1.262073E+0	1.293760E+0	1.293491E+0	1.300842E+0	1.233613E+0	1.257196E+0	1.144812E+0	1.343814E+0	1.311117E+0	1.282790E+0	1.182442E+0	1.298280E+0	1.324407E+0	1.251489E+0	1.206668E+0	1.330240E+0	1.340758E+0	1.262697E+0	1.275351E+0	1.307428E+0	1.314226E+0	1.298829E+0	1.143821E+0	1.241724E+0	1.326265E+0	1.317431E+0	1.135538E+0	1.255766E+0	1.298764E+0	1.244328E+0	1.311946E+0	1.278260E+0	1.309194E+0	1.290761E+0	1.271504E+0	1.290247E+0	1.287244E+0	1.254042E+0	1.154211E+0	1.296716E+0	1.292246E+0	1.308215E+0	1.230036E+0	1.265421E+0	1.303714E+0	1.302683E+0	1.255256E+0	1.152053E+0	1.271143E+0	1.269363E+0	1.281149E+0	1.285054E+0	1.237448E+0	1.250266E+0	1.165710E+0	1.263868E+0	1.347872E+0	1.278808E+0	1.105850E+0	1.295103E+0	1.294484E+0	1.263236E+0	1.196374E+0	1.282724E+0	1.288325E+0	1.227820E+0	1.228826E+0	1.258310E+0	1.295444E+0	1.256293E+0	1.232511E+0	1.300240E+0	1.316812E+0	1.306184E+0	1.226391E+0	1.282749E+0	1.278091E+0	1.266491E+0	1.216759E+0	1.292637E+0	1.322274E+0	1.313417E+0	1.305844E+0	1.303725E+0	1.256480E+0	1.289169E+0	1.236985E+0	1.249552E+0	1.253479E+0	1.347122E+0	1.180769E+0	1.277100E+0	1.287818E+0	1.345006E+0	1.205031E+0	1.295919E+0	1.247312E+0	1.285224E+0	1.324532E+0	1.325922E+0	1.284444E+0	1.252441E+0	1.157446E+0	1.283642E+0	1.282660E+0	1.213349E+0	1.189142E+0	1.296077E+0	1.265851E+0	1.242065E+0	1.216302E+0	1.255336E+0	1.269710E+0	1.178324E+0	1.327351E+0	1.294825E+0	1.280188E+0	1.163991E+0	1.190845E+0	1.296656E+0	1.261537E+0	1.229734E+0	1.162511E+0	1.275612E+0	1.243505E+0	1.258248E+0	1.245392E+0	1.252121E+0	1.293632E+0	1.188872E+0	1.250552E+0	1.339676E+0	1.290170E+0	1.029580E+0	1.237306E+0	1.243759E+0	1.300512E+0	1.226272E+0	1.206202E+0	1.301464E+0	1.326718E+0	1.250030E+0	1.279189E+0	1.279454E+0	1.249028E+0	1.134451E+0	1.239257E+0	1.277836E+0	1.288968E+0	1.049176E+0	1.224968E+0	1.306599E+0	1.289983E+0	1.121295E+0	1.213948E+0	1.294160E+0	1.269059E+0	1.269641E+0	1.230485E+0	1.147024E+0
5.542580E+2	1.091332E+0	1.209459E+0	1.190041E+0	1.207301E+0	1.057376E+0	1.200562E+0	1.183238E+0	1.154208E+0	1.075091E+0	1.211859E+0	1.160358E+0	1.179641E+0	1.167974E+0	1.217685E+0	1.200267E+0	1.207374E+0	1.123029E+0	1.186849E+0	1.208996E+0	1.184550E+0	1.057554E+0	1.178767E+0	1.182036E+0	1.186341E+0	1.193041E+0	1.198882E+0	1.170148E+0	1.174213E+0	1.189188E+0	1.195881E+0	1.173861E+0	1.160465E+0	1.069245E+0	1.234467E+0	1.172042E+0	1.192831E+0	1.031292E+0	1.185502E+0	1.218385E+0	1.178900E+0	1.203533E+0	1.168265E+0	1.196821E+0	1.170907E+0	1.182010E+0	1.207374E+0	1.196968E+0	1.183632E+0	1.080512E+0	1.147492E+0	1.135149E+0	1.178794E+0	1.104053E+0	1.161992E+0	1.198095E+0	1.195031E+0	1.193444E+0	1.077433E+0	1.139506E+0	1.163065E+0	1.209216E+0	1.192928E+0	1.222863E+0	1.165427E+0	1.076973E+0	1.180746E+0	1.177440E+0	1.194007E+0	1.012220E+0	1.156822E+0	1.182114E+0	1.199106E+0	1.177506E+0	1.205822E+0	1.240645E+0	1.206771E+0	1.188096E+0	1.164102E+0	1.205957E+0	1.159546E+0	1.122725E+0	1.197071E+0	1.245130E+0	1.233820E+0	1.160673E+0	1.197918E+0	1.178639E+0	1.190331E+0	1.186013E+0	1.136426E+0	1.184821E+0	1.195596E+0	1.169994E+0	1.178077E+0	1.195300E+0	1.208433E+0	1.140867E+0	1.213772E+0	1.199064E+0	1.215764E+0	1.105502E+0	1.187989E+0	1.234312E+0	1.174234E+0	1.109187E+0	1.212766E+0	1.161414E+0	1.158719E+0	1.193905E+0	1.154179E+0	1.154902E+0	1.155300E+0	1.130405E+0	1.160515E+0	1.132363E+0	1.205060E+0	1.137924E+0	1.154423E+0	1.153428E+0	1.186387E+0	1.206702E+0	1.198553E+0	1.143639E+0	1.172220E+0	1.226999E+0	1.187032E+0	1.201357E+0	1.170377E+0	1.136422E+0	1.207099E+0	1.185627E+0	1.168566E+0	1.126253E+0	1.235016E+0	1.190423E+0	1.189448E+0	1.197431E+0	1.180578E+0	1.143773E+0	1.227536E+0	1.237389E+0	1.198463E+0	1.215301E+0	1.219174E+0	1.066377E+0	1.122174E+0	1.197291E+0	1.186716E+0	1.092791E+0	1.172713E+0	1.219373E+0	1.164736E+0	1.184588E+0	1.219275E+0	1.164000E+0	1.136670E+0	1.165762E+0	1.203120E+0	1.134906E+0	1.083569E+0	1.147200E+0	1.196084E+0	1.154586E+0	1.127817E+0	1.154754E+0	1.138161E+0	1.229505E+0	1.261630E+0	1.181838E+0	1.201310E+0
5.550140E+2	9.316846E-1	1.031591E+0	1.060503E+0	1.083890E+0	8.800411E-1	1.081277E+0	1.064422E+0	1.082341E+0	9.707425E-1	1.036139E+0	1.064533E+0	1.005104E+0	1.071422E+0	1.023280E+0	1.064277E+0	1.032999E+0	9.634627E-1	1.096423E+0	1.069027E+0	1.057157E+0	9.456409E-1	1.033248E+0	1.095001E+0	1.037200E+0	9.789920E-1	1.064539E+0	1.077190E+0	1.032757E+0	1.015284E+0	1.014331E+0	1.045365E+0	1.089307E+0	9.348958E-1	1.083287E+0	1.074607E+0	1.049510E+0	9.389172E-1	1.037547E+0	1.040482E+0	1.058270E+0	1.044694E+0	1.104341E+0	1.033738E+0	1.021376E+0	1.056236E+0	1.066167E+0	1.086994E+0	1.041415E+0	1.031175E+0	1.031923E+0	1.071040E+0	1.038071E+0	9.646661E-1	1.034924E+0	1.025827E+0	1.054595E+0	9.922600E-1	9.403257E-1	1.089616E+0	1.086390E+0	1.040652E+0	1.075617E+0	1.035005E+0	1.004895E+0	1.010420E+0	1.061678E+0	1.051573E+0	1.055400E+0	9.656913E-1	1.022026E+0	1.011500E+0	1.127369E+0	1.029992E+0	1.072677E+0	1.051136E+0	1.043793E+0	1.042634E+0	1.042281E+0	1.028595E+0	1.054994E+0	1.023152E+0	1.071529E+0	1.080262E+0	1.052911E+0	9.803851E-1	1.063557E+0	1.054033E+0	1.078518E+0	1.043132E+0	1.083014E+0	1.064622E+0	1.062684E+0	1.064396E+0	1.090070E+0	1.063815E+0	1.056485E+0	9.719324E-1	1.097640E+0	1.040825E+0	1.080210E+0	9.870577E-1	1.058594E+0	1.071184E+0	1.072330E+0	1.066468E+0	1.047674E+0	1.079323E+0	9.938415E-1	1.045520E+0	1.029891E+0	1.044038E+0	1.051894E+0	9.994972E-1	1.100514E+0	1.004963E+0	1.074812E+0	9.279339E-1	1.123343E+0	1.055401E+0	1.045008E+0	1.007526E+0	1.018638E+0	1.078365E+0	1.020862E+0	1.049907E+0	1.052428E+0	1.085463E+0	1.069178E+0	9.994440E-1	1.039924E+0	1.031256E+0	1.077121E+0	9.779257E-1	1.073865E+0	1.041913E+0	1.023416E+0	1.045941E+0	1.087886E+0	1.036906E+0	1.091003E+0	1.034805E+0	1.066264E+0	1.090129E+0	1.065789E+0	9.509205E-1	1.041978E+0	1.070202E+0	1.072916E+0	9.434057E-1	1.039125E+0	1.097920E+0	1.090955E+0	1.038648E+0	1.072171E+0	1.042703E+0	1.085652E+0	1.078850E+0	1.095442E+0	1.040817E+0	1.047703E+0	1.071330E+0	1.042107E+0	1.039883E+0	1.089273E+0	1.019622E+0	1.011976E+0	1.047693E+0	1.022174E+0	1.043054E+0	9.660717E-1
5.557600E+2	9.375980E-1	1.070049E+0	1.039354E+0	1.036138E+0	8.927076E-1	1.044895E+0	1.063210E+0	1.076855E+0	9.888661E-1	9.860155E-1	1.025988E+0	1.028294E+0	1.009425E+0	1.091570E+0	1.013736E+0	1.034523E+0	9.520262E-1	1.050926E+0	1.072633E+0	9.950442E-1	9.310434E-1	1.062574E+0	1.001624E+0	1.029124E+0	1.000568E+0	1.050807E+0	1.026177E+0	1.058953E+0	9.932176E-1	1.030836E+0	1.036077E+0	1.060152E+0	9.553896E-1	1.016163E+0	1.030623E+0	1.034886E+0	9.239512E-1	1.052400E+0	1.071561E+0	1.055203E+0	1.043434E+0	1.035810E+0	1.027398E+0	1.036786E+0	1.061073E+0	1.070529E+0	1.082617E+0	1.014370E+0	9.233649E-1	1.024938E+0	1.056601E+0	1.023942E+0	9.684188E-1	1.083979E+0	1.000976E+0	1.057328E+0	1.009171E+0	9.694456E-1	1.033114E+0	1.011459E+0	1.007369E+0	1.040490E+0	1.044922E+0	1.026232E+0	9.053089E-1	1.009446E+0	1.026881E+0	1.043119E+0	9.260570E-1	1.050495E+0	1.040327E+0	1.059436E+0	9.836789E-1	1.021600E+0	1.017941E+0	1.101527E+0	1.043216E+0	1.034701E+0	1.073605E+0	1.058115E+0	9.969826E-1	1.013108E+0	1.052187E+0	1.085351E+0	9.402564E-1	1.019719E+0	1.062808E+0	1.032065E+0	1.006357E+0	1.047407E+0	1.039317E+0	1.087060E+0	1.025011E+0	1.039701E+0	1.032151E+0	1.059995E+0	9.562038E-1	1.026079E+0	9.870361E-1	1.000436E+0	9.450475E-1	1.028076E+0	1.045083E+0	1.026417E+0	1.053872E+0	1.018540E+0	1.039093E+0	1.010629E+0	1.031771E+0	1.039495E+0	1.034399E+0	1.032048E+0	9.841323E-1	1.078638E+0	9.867633E-1	1.027449E+0	9.854110E-1	1.034286E+0	1.036207E+0	9.833264E-1	1.057921E+0	1.005488E+0	9.836526E-1	1.047716E+0	1.074110E+0	1.028354E+0	1.037223E+0	1.006788E+0	9.651999E-1	1.006091E+0	1.045290E+0	1.044374E+0	1.028467E+0	1.031425E+0	1.038334E+0	1.060375E+0	1.023130E+0	1.005769E+0	1.038749E+0	1.070463E+0	9.867341E-1	1.034415E+0	1.050941E+0	1.051206E+0	9.702709E-1	1.034218E+0	1.019236E+0	1.046748E+0	9.702338E-1	1.056051E+0	1.025540E+0	1.022929E+0	9.867326E-1	1.053327E+0	1.067081E+0	1.083434E+0	1.032187E+0	1.070720E+0	1.050171E+0	1.074726E+0	1.008737E+0	1.018514E+0	1.076540E+0	1.025822E+0	9.693974E-1	1.030002E+0	1.096269E+0	1.051550E+0	1.151792E+0	9.751182E-1
5.560190E+2	9.074957E-1	1.037771E+0	1.027458E+0	1.012572E+0	9.059246E-1	1.019248E+0	1.041387E+0	1.013216E+0	9.317489E-1	1.036715E+0	9.976150E-1	1.041110E+0	1.018063E+0	1.024382E+0	1.003836E+0	1.047742E+0	9.400448E-1	1.038414E+0	9.783196E-1	1.059693E+0	9.126619E-1	1.029928E+0	1.044277E+0	1.016201E+0	9.767215E-1	1.021549E+0	1.036379E+0	9.890986E-1	1.012132E+0	1.022868E+0	1.051558E+0	1.035938E+0	8.973226E-1	1.016162E+0	9.983293E-1	1.044831E+0	9.084696E-1	1.049543E+0	1.018511E+0	1.048558E+0	9.860756E-1	9.960738E-1	9.910943E-1	1.051054E+0	1.048375E+0	1.044905E+0	1.080975E+0	1.024163E+0	9.422466E-1	1.066847E+0	9.930693E-1	1.037506E+0	9.266025E-1	9.628195E-1	1.028086E+0	1.061698E+0	9.864284E-1	8.875455E-1	9.838255E-1	1.018429E+0	1.057294E+0	1.002049E+0	1.019836E+0	1.015055E+0	9.533744E-1	1.019556E+0	1.060607E+0	1.026743E+0	8.858475E-1	1.029579E+0	1.007381E+0	1.015958E+0	1.003691E+0	9.992170E-1	9.925928E-1	1.026352E+0	1.004813E+0	9.924690E-1	1.063960E+0	1.054474E+0	1.013578E+0	1.076500E+0	1.026501E+0	1.004253E+0	9.303694E-1	1.053879E+0	1.034728E+0	1.025583E+0	1.032281E+0	1.015820E+0	1.031841E+0	1.031923E+0	1.018162E+0	1.013133E+0	1.016588E+0	1.057989E+0	9.806706E-1	1.022941E+0	1.032694E+0	9.794427E-1	9.532164E-1	1.011597E+0	1.014415E+0	9.978621E-1	9.991040E-1	1.034321E+0	9.825539E-1	1.045403E+0	9.853643E-1	1.028196E+0	1.028373E+0	1.037271E+0	9.755286E-1	1.038637E+0	1.044886E+0	1.046986E+0	9.188282E-1	1.054608E+0	1.038264E+0	1.022629E+0	1.017125E+0	1.013857E+0	9.913320E-1	1.022082E+0	1.026886E+0	1.015768E+0	1.039576E+0	1.014649E+0	9.798761E-1	1.033954E+0	1.075909E+0	1.039431E+0	9.295818E-1	1.019739E+0	9.846556E-1	1.021141E+0	9.728287E-1	1.009501E+0	1.016639E+0	9.991758E-1	1.033088E+0	1.032613E+0	1.035733E+0	1.001417E+0	9.644660E-1	1.017403E+0	1.001173E+0	1.027275E+0	9.659658E-1	1.033081E+0	1.007751E+0	9.967653E-1	1.017305E+0	1.007736E+0	1.021297E+0	1.003580E+0	1.015272E+0	1.070171E+0	1.060625E+0	1.030507E+0	9.960917E-1	1.040244E+0	1.023919E+0	1.023450E+0	1.004675E+0	1.068135E+0	1.035895E+0	1.023954E+0	9.643611E-1	1.020357E+0
5.565370E+2	8.661055E-1	1.004120E+0	9.759068E-1	9.573783E-1	8.233153E-1	9.327663E-1	9.310589E-1	9.336682E-1	9.301018E-1	9.468387E-1	9.446168E-1	9.672673E-1	9.753766E-1	9.230494E-1	9.725747E-1	9.552160E-1	8.665250E-1	9.332019E-1	9.338661E-1	9.880727E-1	8.737352E-1	9.259083E-1	9.912492E-1	9.338236E-1	8.978012E-1	9.487057E-1	9.394539E-1	9.960841E-1	9.070541E-1	9.557115E-1	9.452521E-1	9.716983E-1	9.212322E-1	9.562952E-1	9.654806E-1	9.301753E-1	8.563474E-1	9.472889E-1	9.659980E-1	9.861993E-1	9.463664E-1	1.010471E+0	9.691960E-1	1.000830E+0	8.905521E-1	9.789356E-1	9.666252E-1	9.756669E-1	8.843826E-1	9.715986E-1	9.832506E-1	9.719476E-1	8.939004E-1	9.320862E-1	9.732998E-1	9.485847E-1	9.193673E-1	8.487188E-1	1.040928E+0	9.603424E-1	9.869697E-1	9.974092E-1	9.900820E-1	9.820351E-1	9.068930E-1	1.009446E+0	9.220926E-1	9.682593E-1	8.726356E-1	9.726396E-1	9.697279E-1	9.387857E-1	9.116368E-1	9.791309E-1	9.521565E-1	9.620025E-1	9.792119E-1	9.968005E-1	9.653655E-1	9.577257E-1	9.344304E-1	9.876265E-1	1.002009E+0	9.817960E-1	9.454908E-1	9.343201E-1	9.346922E-1	9.688675E-1	9.436589E-1	9.767661E-1	9.570757E-1	9.767840E-1	9.707854E-1	9.943139E-1	9.570171E-1	9.306135E-1	8.962033E-1	9.407076E-1	9.782797E-1	9.638489E-1	8.551931E-1	9.603269E-1	9.537309E-1	9.401914E-1	9.339301E-1	9.881918E-1	9.733117E-1	9.950400E-1	9.767710E-1	9.355446E-1	9.572757E-1	1.010635E+0	9.060795E-1	9.317602E-1	9.486024E-1	9.783096E-1	8.909428E-1	9.769070E-1	9.772538E-1	9.631297E-1	9.343349E-1	9.761998E-1	9.426954E-1	9.677643E-1	9.590009E-1	9.812969E-1	9.836881E-1	9.537324E-1	9.156679E-1	9.337816E-1	9.585371E-1	9.689944E-1	9.532043E-1	9.908296E-1	9.518521E-1	9.756532E-1	9.418293E-1	9.460466E-1	1.004355E+0	9.520541E-1	9.323678E-1	9.713205E-1	9.433161E-1	9.571615E-1	9.231849E-1	9.973544E-1	9.714973E-1	9.785898E-1	9.263325E-1	9.617538E-1	9.500920E-1	9.784505E-1	9.665437E-1	9.530287E-1	9.975132E-1	9.780701E-1	9.896069E-1	9.729311E-1	9.736887E-1	9.641782E-1	8.993566E-1	9.117228E-1	9.783924E-1	9.902427E-1	9.030279E-1	9.239233E-1	9.526228E-1	9.945777E-1	8.828063E-1	8.688101E-1
5.570050E+2	9.956506E-1	1.051506E+0	9.970564E-1	1.063425E+0	1.025434E+0	1.047877E+0	1.059573E+0	9.589044E-1	1.054221E+0	1.023465E+0	1.056502E+0	1.069793E+0	1.027719E+0	1.053019E+0	1.062713E+0	1.031981E+0	9.607398E-1	1.060594E+0	1.023974E+0	1.025467E+0	9.402343E-1	1.046527E+0	1.090390E+0	1.075965E+0	1.030660E+0	1.032297E+0	1.023343E+0	1.053714E+0	1.012132E+0	1.044495E+0	1.009758E+0	1.041868E+0	9.394492E-1	1.060912E+0	1.020044E+0	9.875024E-1	9.007289E-1	1.015839E+0	1.058165E+0	1.078716E+0	1.022634E+0	1.007015E+0	1.038347E+0	9.865620E-1	9.975814E-1	1.035091E+0	9.928872E-1	1.053071E+0	9.861014E-1	1.033194E+0	1.031188E+0	9.939885E-1	9.303550E-1	1.044971E+0	1.049549E+0	9.906607E-1	9.584381E-1	9.591327E-1	1.005465E+0	1.021915E+0	1.020253E+0	1.017955E+0	1.007585E+0	1.061285E+0	9.760871E-1	1.041459E+0	1.048563E+0	1.009198E+0	9.111222E-1	1.038875E+0	1.058565E+0	1.018132E+0	1.026561E+0	1.039391E+0	1.049929E+0	1.070856E+0	1.027506E+0	1.062314E+0	1.017342E+0	1.039910E+0	9.893229E-1	1.039832E+0	1.002009E+0	1.023591E+0	9.524694E-1	1.048755E+0	1.037653E+0	1.036386E+0	1.028664E+0	1.044536E+0	1.051970E+0	1.005224E+0	1.023299E+0	1.018668E+0	1.061669E+0	1.029906E+0	9.369806E-1	1.053700E+0	1.118381E+0	1.088007E+0	9.456311E-1	1.033570E+0	1.026812E+0	1.041535E+0	1.000199E+0	1.031286E+0	1.040181E+0	1.025018E+0	1.026614E+0	1.050229E+0	1.087421E+0	1.016902E+0	9.441841E-1	1.039887E+0	1.039602E+0	1.032185E+0	9.438675E-1	1.030102E+0	1.017698E+0	1.025357E+0	1.004527E+0	1.007281E+0	1.045727E+0	1.048936E+0	1.049908E+0	9.993535E-1	1.053107E+0	1.015630E+0	1.007393E+0	1.039924E+0	1.063790E+0	1.001741E+0	9.647408E-1	1.003131E+0	1.075313E+0	1.026259E+0	9.851118E-1	1.051182E+0	1.028308E+0	1.080734E+0	1.035377E+0	1.072273E+0	1.068488E+0	1.030083E+0	9.489858E-1	1.032925E+0	1.036010E+0	1.053442E+0	9.427954E-1	1.037312E+0	1.032900E+0	1.059035E+0	9.630824E-1	1.031443E+0	9.820542E-1	1.039625E+0	1.039186E+0	1.055887E+0	1.019908E+0	1.037876E+0	9.998853E-1	1.076255E+0	1.009137E+0	1.029380E+0	9.562431E-1	1.033469E+0	1.040059E+0	1.028404E+0	1.010145E+0	9.638090E-1
5.575130E+2	1.103695E+0	1.052880E+0	1.034728E+0	1.046060E+0	1.062883E+0	1.034159E+0	1.064422E+0	1.064237E+0	1.106945E+0	1.058032E+0	1.047937E+0	9.715394E-1	1.056684E+0	1.062933E+0	1.049167E+0	1.079262E+0	1.085452E+0	1.036708E+0	1.108676E+0	1.021664E+0	1.099183E+0	1.085259E+0	1.037361E+0	1.023201E+0	1.068133E+0	1.058567E+0	1.048849E+0	1.075835E+0	1.095668E+0	1.022868E+0	1.047946E+0	1.010737E+0	1.066399E+0	1.045189E+0	1.017259E+0	1.023186E+0	1.053483E+0	1.058683E+0	1.050663E+0	1.044981E+0	1.052258E+0	1.069788E+0	1.029704E+0	1.008821E+0	1.045351E+0	1.028004E+0	1.033375E+0	1.018568E+0	9.751380E-1	1.043988E+0	1.003466E+0	1.084414E+0	9.716353E-1	1.060928E+0	1.013967E+0	1.067710E+0	9.975085E-1	9.312261E-1	1.055354E+0	1.067222E+0	9.730125E-1	1.024583E+0	1.012835E+0	1.044012E+0	9.539029E-1	9.987746E-1	1.015439E+0	1.062418E+0	9.134199E-1	1.082452E+0	1.094454E+0	1.106718E+0	9.859657E-1	1.024469E+0	1.062603E+0	1.061835E+0	1.064744E+0	1.005463E+0	1.018414E+0	1.106489E+0	1.034642E+0	1.051019E+0	1.035461E+0	1.078489E+0	9.931793E-1	1.091454E+0	1.068073E+0	1.030985E+0	1.041324E+0	1.070379E+0	1.069223E+0	1.029020E+0	1.025582E+0	1.044129E+0	1.013905E+0	1.073535E+0	9.591165E-1	1.057466E+0	1.039574E+0	1.068813E+0	9.625515E-1	1.040894E+0	1.003322E+0	1.054973E+0	1.021559E+0	1.045853E+0	1.046161E+0	1.083174E+0	1.052969E+0	1.020287E+0	1.030783E+0	1.027347E+0	9.945805E-1	1.030512E+0	1.067196E+0	1.037514E+0	9.404536E-1	1.040861E+0	1.054030E+0	1.051560E+0	1.030324E+0	1.072434E+0	1.063646E+0	1.050157E+0	1.062894E+0	1.014674E+0	1.061931E+0	1.043633E+0	9.321786E-1	1.039924E+0	9.700191E-1	1.069089E+0	9.817715E-1	1.060949E+0	1.010301E+0	1.027965E+0	1.017281E+0	1.102816E+0	1.028308E+0	1.000989E+0	1.039955E+0	1.087295E+0	1.004147E+0	1.029077E+0	1.017357E+0	1.076256E+0	1.057944E+0	1.032752E+0	9.854772E-1	1.059678E+0	1.045168E+0	1.025545E+0	1.034033E+0	1.070955E+0	1.051622E+0	1.048497E+0	1.020522E+0	1.024572E+0	1.062826E+0	1.070796E+0	1.011898E+0	1.058870E+0	1.042839E+0	1.034717E+0	9.879329E-1	1.057735E+0	1.077532E+0	1.089826E+0	1.013006E+0	1.072380E+0
5.580570E+2	1.023065E+0	9.615425E-1	9.792114E-1	9.759831E-1	9.780707E-1	9.607986E-1	9.795543E-1	1.003341E+0	9.526190E-1	9.433820E-1	9.944035E-1	9.617752E-1	9.540331E-1	9.830778E-1	9.772643E-1	9.745348E-1	1.015199E+0	9.866610E-1	9.921359E-1	9.703268E-1	9.915958E-1	9.662988E-1	9.612764E-1	9.763584E-1	1.030092E+0	9.839331E-1	9.723294E-1	9.378712E-1	9.254428E-1	9.483133E-1	9.973725E-1	9.899820E-1	1.011179E+0	9.381533E-1	9.537887E-1	1.034887E+0	1.052451E+0	9.895613E-1	9.874319E-1	9.412184E-1	9.734696E-1	1.024293E+0	9.830262E-1	9.762889E-1	1.006047E+0	9.554920E-1	9.742847E-1	9.621456E-1	1.032393E+0	9.976332E-1	9.665015E-1	9.340822E-1	1.026317E+0	1.008919E+0	9.778184E-1	9.688027E-1	9.910941E-1	9.336521E-1	9.639893E-1	9.446596E-1	9.950224E-1	9.781890E-1	9.766634E-1	9.805106E-1	9.697481E-1	9.678841E-1	9.768962E-1	9.290750E-1	9.702867E-1	9.685723E-1	9.414884E-1	9.556331E-1	9.825354E-1	9.825744E-1	9.823332E-1	9.848557E-1	9.768844E-1	9.486132E-1	9.492895E-1	9.624074E-1	9.446433E-1	9.627668E-1	9.554158E-1	9.817957E-1	9.356036E-1	9.468454E-1	9.627721E-1	9.661673E-1	9.442618E-1	9.853807E-1	9.938828E-1	9.483443E-1	9.873388E-1	9.361965E-1	9.811676E-1	9.797586E-1	9.142617E-1	9.859044E-1	9.876617E-1	9.830423E-1	8.896177E-1	1.016480E+0	9.680858E-1	9.586682E-1	9.563847E-1	9.827294E-1	9.689630E-1	9.632638E-1	9.670310E-1	9.332854E-1	9.669161E-1	9.761658E-1	9.202154E-1	9.867608E-1	9.714994E-1	9.747579E-1	8.784237E-1	9.482181E-1	9.868511E-1	9.789595E-1	9.397341E-1	9.576701E-1	9.894118E-1	9.695948E-1	9.412910E-1	1.002089E+0	9.407427E-1	9.556973E-1	9.505236E-1	9.689408E-1	9.859664E-1	9.788801E-1	9.202427E-1	9.299367E-1	1.001356E+0	9.585956E-1	9.681492E-1	9.727974E-1	9.975992E-1	9.876974E-1	9.438129E-1	9.761275E-1	9.637885E-1	9.682256E-1	9.644657E-1	9.275072E-1	9.637557E-1	9.889349E-1	9.214552E-1	9.786791E-1	9.715612E-1	9.590894E-1	9.809645E-1	1.008952E+0	1.024270E+0	9.952609E-1	1.002439E+0	9.416158E-1	9.566319E-1	9.813742E-1	8.854474E-1	9.508379E-1	9.263616E-1	1.025230E+0	8.773173E-1	9.495762E-1	1.018547E+0	9.331568E-1	9.214386E-1	9.230961E-1
5.585270E+2	1.061767E+0	1.063867E+0	1.045302E+0	1.067146E+0	1.045260E+0	1.052052E+0	1.012290E+0	1.065334E+0	1.042139E+0	1.028649E+0	1.001363E+0	1.078336E+0	1.055160E+0	1.059077E+0	1.029889E+0	1.010121E+0	1.055499E+0	1.012253E+0	1.051607E+0	1.063495E+0	1.062961E+0	1.007243E+0	1.051771E+0	1.002202E+0	1.021575E+0	1.012592E+0	1.049983E+0	1.051968E+0	1.056790E+0	9.909973E-1	1.053622E+0	1.020619E+0	1.089170E+0	1.066355E+0	1.066813E+0	1.045416E+0	1.064836E+0	1.037547E+0	1.043161E+0	1.023002E+0	1.020743E+0	1.002408E+0	1.045263E+0	1.044776E+0	1.056236E+0	1.092882E+0	1.008754E+0	1.052607E+0	1.071984E+0	1.022397E+0	1.061221E+0	1.038071E+0	1.111559E+0	1.004191E+0	1.042207E+0	1.054048E+0	1.062237E+0	9.585258E-1	1.031912E+0	1.021915E+0	1.043336E+0	1.027896E+0	1.089262E+0	1.030804E+0	1.092818E+0	1.027980E+0	1.052175E+0	1.072360E+0	1.124231E+0	1.017959E+0	1.080333E+0	1.011610E+0	1.056864E+0	1.008974E+0	1.029409E+0	1.041387E+0	1.018196E+0	1.022789E+0	1.041991E+0	1.011302E+0	1.031451E+0	9.988130E-1	1.025903E+0	1.019849E+0	1.127523E+0	1.031106E+0	1.042333E+0	1.043949E+0	1.037104E+0	1.027306E+0	1.026090E+0	1.045271E+0	1.067821E+0	1.062395E+0	1.055228E+0	1.024390E+0	1.061642E+0	1.008503E+0	1.023312E+0	1.032226E+0	1.085664E+0	9.859619E-1	1.052913E+0	1.039855E+0	1.077422E+0	1.063455E+0	1.063014E+0	1.040007E+0	1.046667E+0	1.012942E+0	1.018733E+0	1.034136E+0	1.008101E+0	1.019262E+0	1.010248E+0	1.030410E+0	9.814274E-1	1.058792E+0	1.038264E+0	1.010619E+0	1.018325E+0	1.030592E+0	1.052767E+0	1.024524E+0	1.023344E+0	1.044221E+0	1.039576E+0	1.047563E+0	9.866025E-1	1.029973E+0	1.010206E+0	1.033253E+0	9.812222E-1	1.051108E+0	9.965842E-1	1.046729E+0	1.002074E+0	1.031897E+0	1.013568E+0	1.032404E+0	1.000468E+0	9.839394E-1	1.014676E+0	1.089425E+0	9.509200E-1	1.066555E+0	1.011495E+0	9.925869E-1	9.732823E-1	1.025827E+0	1.043328E+0	1.044383E+0	1.025381E+0	1.070955E+0	1.032000E+0	1.014115E+0	1.003023E+0	1.049843E+0	1.032013E+0	1.031981E+0	9.733303E-1	1.015409E+0	1.058212E+0	1.006846E+0	1.002283E+0	1.036935E+0	1.025487E+0	1.051549E+0	9.944071E-1	1.110834E+0
5.590390E+2	1.017689E+0	9.979399E-1	1.014901E+0	1.046681E+0	1.045811E+0	1.009706E+0	9.698550E-1	9.934665E-1	9.916118E-1	1.034987E+0	1.020635E+0	9.861861E-1	1.006375E+0	1.020527E+0	1.000710E+0	9.984287E-1	1.048964E+0	1.017940E+0	1.046201E+0	9.880731E-1	1.040794E+0	1.001710E+0	9.768393E-1	1.035046E+0	1.022711E+0	1.020952E+0	9.660937E-1	1.054296E+0	1.011081E+0	1.014901E+0	9.989207E-1	1.004807E+0	1.033950E+0	9.762507E-1	1.030066E+0	1.011487E+0	1.049354E+0	1.030121E+0	9.847523E-1	1.017379E+0	9.715787E-1	1.034082E+0	1.002043E+0	1.008820E+0	1.035071E+0	9.778451E-1	1.002736E+0	1.015303E+0	1.060411E+0	9.887434E-1	1.016749E+0	1.018291E+0	1.059021E+0	1.035515E+0	9.958922E-1	1.004322E+0	1.003923E+0	1.095026E+0	9.898367E-1	1.039921E+0	9.960958E-1	9.861421E-1	1.030337E+0	1.008451E+0	1.049507E+0	1.025734E+0	1.020859E+0	1.064758E+0	1.094936E+0	1.025512E+0	1.000321E+0	1.053458E+0	1.023702E+0	9.974957E-1	9.913854E-1	1.018534E+0	9.955036E-1	1.036325E+0	1.002338E+0	9.738499E-1	1.044216E+0	1.029267E+0	9.733364E-1	1.026711E+0	1.042614E+0	1.038507E+0	9.920226E-1	9.904734E-1	9.967118E-1	1.019266E+0	1.019188E+0	1.052817E+0	1.003891E+0	1.020882E+0	1.005855E+0	1.005334E+0	1.061060E+0	9.984594E-1	9.820321E-1	1.027427E+0	1.103168E+0	9.920656E-1	9.857039E-1	9.950625E-1	9.908888E-1	9.827293E-1	1.023871E+0	9.866462E-1	1.027187E+0	1.011247E+0	1.018733E+0	9.954895E-1	1.052967E+0	1.026137E+0	1.002028E+0	9.925184E-1	1.102641E+0	9.709301E-1	1.002617E+0	1.019353E+0	1.070519E+0	1.027604E+0	1.000930E+0	9.708161E-1	1.016851E+0	1.031089E+0	1.030752E+0	1.019561E+0	1.027573E+0	1.031300E+0	1.038911E+0	1.035724E+0	1.102631E+0	1.040651E+0	1.035352E+0	1.020573E+0	1.074601E+0	1.016344E+0	1.021552E+0	1.086171E+0	1.042817E+0	9.797330E-1	1.023450E+0	1.021533E+0	9.934913E-1	9.818326E-1	9.947219E-1	1.018754E+0	9.476732E-1	9.907685E-1	1.012045E+0	9.789738E-1	9.746190E-1	1.036914E+0	1.008811E+0	1.016888E+0	9.645256E-1	1.016881E+0	9.918466E-1	9.892358E-1	9.398207E-1	9.781568E-1	1.053481E+0	1.013369E+0	9.466758E-1	9.953359E-1	1.029650E+0	1.022173E+0	1.030176E+0	1.015832E+0
5.595220E+2	9.703867E-1	9.114090E-1	9.448446E-1	9.102469E-1	1.035898E+0	9.739197E-1	9.540941E-1	9.479319E-1	1.002596E+0	9.399252E-1	9.472937E-1	9.367538E-1	9.143959E-1	9.588460E-1	8.928568E-1	9.140373E-1	9.917820E-1	9.405948E-1	9.578951E-1	9.354675E-1	9.829453E-1	9.380806E-1	9.289979E-1	9.639756E-1	9.494682E-1	9.373613E-1	9.405873E-1	9.099299E-1	9.464581E-1	9.540048E-1	9.437037E-1	9.647800E-1	9.502660E-1	9.381538E-1	9.671503E-1	9.430442E-1	9.827824E-1	9.232962E-1	9.274156E-1	9.417296E-1	9.728396E-1	9.171760E-1	9.432645E-1	9.443282E-1	9.546483E-1	8.900676E-1	9.573243E-1	9.672747E-1	9.696559E-1	9.442933E-1	9.422437E-1	9.962496E-1	1.001121E+0	9.799597E-1	9.574852E-1	9.092398E-1	9.858455E-1	1.053773E+0	9.423504E-1	9.098080E-1	9.708655E-1	9.828277E-1	9.136549E-1	9.459660E-1	9.966868E-1	9.437335E-1	9.437731E-1	9.589020E-1	9.978586E-1	9.348733E-1	9.691391E-1	9.496552E-1	9.859659E-1	9.745395E-1	9.600020E-1	9.156953E-1	9.955041E-1	9.756851E-1	9.385734E-1	9.025894E-1	9.663449E-1	9.354208E-1	9.225618E-1	9.562196E-1	1.003067E+0	9.354590E-1	9.686224E-1	9.532035E-1	9.394391E-1	9.440304E-1	9.329207E-1	9.616932E-1	9.325421E-1	9.123957E-1	9.688244E-1	9.466610E-1	1.045914E+0	9.513795E-1	9.257415E-1	9.182632E-1	1.022649E+0	9.841307E-1	9.230629E-1	9.508300E-1	9.498120E-1	9.450979E-1	9.396054E-1	9.284892E-1	9.509898E-1	9.818700E-1	9.590836E-1	9.625875E-1	9.816740E-1	9.461352E-1	9.362734E-1	9.368677E-1	1.102642E+0	9.703326E-1	9.230989E-1	9.942436E-1	9.625317E-1	9.504980E-1	9.862120E-1	9.476238E-1	9.483750E-1	9.599575E-1	8.866199E-1	9.552063E-1	1.025128E+0	9.450594E-1	9.483304E-1	9.078252E-1	9.982515E-1	9.551552E-1	9.721300E-1	9.568901E-1	9.927150E-1	9.560003E-1	9.429374E-1	9.381591E-1	9.558308E-1	9.526918E-1	9.409770E-1	9.496185E-1	9.702713E-1	9.559628E-1	9.740776E-1	9.189512E-1	1.037305E+0	9.472468E-1	9.439577E-1	9.596131E-1	9.896169E-1	8.995360E-1	9.297296E-1	9.747431E-1	9.785236E-1	9.421656E-1	9.203178E-1	9.484557E-1	9.758593E-1	9.402827E-1	9.630200E-1	9.422096E-1	9.586346E-1	9.655232E-1	9.255596E-1	8.984394E-1	1.002992E+0	9.050008E-1
5.600070E+2	1.074131E+0	1.020603E+0	9.871421E-1	1.034898E+0	1.037550E+0	9.930055E-1	1.035325E+0	1.063140E+0	9.921615E-1	1.025769E+0	1.014746E+0	1.049653E+0	1.054144E+0	1.000701E+0	9.866424E-1	1.002496E+0	1.069659E+0	1.008272E+0	9.963413E-1	1.038143E+0	1.031603E+0	1.041548E+0	1.001625E+0	1.023201E+0	1.052803E+0	1.046627E+0	1.012006E+0	1.035668E+0	1.061518E+0	1.092301E+0	9.736347E-1	1.032974E+0	1.071522E+0	9.822984E-1	1.051223E+0	1.006807E+0	1.067416E+0	1.025550E+0	9.970767E-1	1.002556E+0	1.073059E+0	1.010471E+0	1.029128E+0	1.055620E+0	1.018746E+0	1.000743E+0	1.016414E+0	1.004578E+0	1.049447E+0	1.000808E+0	1.035232E+0	1.015464E+0	1.034895E+0	1.005373E+0	1.033170E+0	1.037109E+0	1.040077E+0	1.192700E+0	1.021093E+0	1.020172E+0	1.042263E+0	1.015967E+0	1.010502E+0	1.019120E+0	1.052148E+0	1.001583E+0	9.793054E-1	9.817105E-1	1.131124E+0	1.028417E+0	9.603144E-1	1.019762E+0	1.079735E+0	1.012417E+0	1.031219E+0	1.007709E+0	9.925948E-1	1.012502E+0	1.001802E+0	1.014943E+0	1.012940E+0	9.838974E-1	1.025306E+0	1.021720E+0	1.070529E+0	1.016873E+0	9.791525E-1	1.027744E+0	1.084127E+0	1.005482E+0	9.812296E-1	1.016251E+0	1.002180E+0	1.042469E+0	1.003708E+0	1.038432E+0	1.115818E+0	9.978311E-1	9.782798E-1	1.015431E+0	1.072828E+0	1.030517E+0	1.089454E+0	1.053294E+0	1.059349E+0	1.010649E+0	9.977759E-1	1.004633E+0	1.032916E+0	1.035541E+0	1.030181E+0	1.028392E+0	1.123029E+0	1.027386E+0	1.014357E+0	1.032777E+0	1.110609E+0	1.013367E+0	1.045118E+0	9.942435E-1	1.039922E+0	1.051513E+0	1.022689E+0	1.051377E+0	1.006815E+0	9.933343E-1	1.004867E+0	1.022509E+0	1.119911E+0	1.024666E+0	1.011482E+0	1.031399E+0	1.098236E+0	9.877546E-1	1.035948E+0	1.027965E+0	1.032488E+0	9.808851E-1	9.736462E-1	1.027570E+0	1.049112E+0	9.971596E-1	1.048016E+0	1.028574E+0	1.143779E+0	1.049740E+0	9.998830E-1	1.044314E+0	1.124498E+0	1.034289E+0	1.054983E+0	1.057465E+0	1.065760E+0	9.931475E-1	9.975136E-1	9.714157E-1	1.084684E+0	9.822702E-1	1.033664E+0	9.828484E-1	1.136452E+0	1.064458E+0	1.015050E+0	1.009218E+0	1.169701E+0	1.070909E+0	1.018547E+0	1.023064E+0	1.120316E+0	9.434527E-1
5.605260E+2	1.032741E+0	9.752774E-1	1.021509E+0	1.008852E+0	1.049115E+0	1.041913E+0	1.026838E+0	1.008279E+0	1.078386E+0	1.002147E+0	1.042584E+0	1.014258E+0	9.951957E-1	1.018324E+0	1.087202E+0	1.043166E+0	1.008664E+0	1.013391E+0	1.008355E+0	1.029904E+0	1.071070E+0	1.037675E+0	9.987428E-1	1.037199E+0	1.016465E+0	1.023937E+0	1.032411E+0	9.821128E-1	1.036825E+0	1.013193E+0	1.049494E+0	1.016173E+0	1.057290E+0	1.013139E+0	1.022827E+0	1.058285E+0	1.103024E+0	1.018696E+0	1.075848E+0	9.856880E-1	1.018221E+0	1.001832E+0	1.025093E+0	9.877032E-1	1.023583E+0	1.034546E+0	9.961700E-1	1.014370E+0	1.065893E+0	1.012873E+0	1.051981E+0	1.000770E+0	1.093867E+0	1.046744E+0	1.015096E+0	1.027273E+0	1.077982E+0	1.113227E+0	1.023497E+0	1.045149E+0	9.644231E-1	1.019280E+0	1.049006E+0	1.029280E+0	1.037886E+0	1.029103E+0	1.040131E+0	9.799562E-1	1.091489E+0	1.000528E+0	1.020324E+0	9.969364E-1	1.019700E+0	1.015287E+0	1.025787E+0	9.872610E-1	1.014705E+0	1.041198E+0	1.053243E+0	1.022225E+0	1.077407E+0	1.019945E+0	1.062939E+0	9.518523E-1	1.056572E+0	1.018011E+0	1.044674E+0	1.033686E+0	1.007563E+0	1.021563E+0	9.927322E-1	9.994192E-1	1.040994E+0	1.063502E+0	9.935109E-1	1.019877E+0	1.049992E+0	1.059977E+0	1.005174E+0	1.028027E+0	1.152180E+0	9.871825E-1	1.035295E+0	1.039296E+0	1.060992E+0	1.024003E+0	1.023328E+0	9.770533E-1	1.010000E+0	1.041190E+0	9.608907E-1	1.006979E+0	1.105821E+0	1.049263E+0	1.055454E+0	1.009688E+0	1.106626E+0	1.021137E+0	1.010843E+0	1.001886E+0	1.028524E+0	9.971201E-1	1.028449E+0	1.009266E+0	1.009177E+0	9.878630E-1	1.019574E+0	1.036263E+0	1.080163E+0	1.005428E+0	1.003189E+0	1.027074E+0	1.085051E+0	1.051722E+0	1.006723E+0	1.025690E+0	1.041262E+0	1.002036E+0	1.047962E+0	9.949475E-1	1.006763E+0	1.010981E+0	1.012337E+0	1.003429E+0	1.119268E+0	9.682510E-1	1.037299E+0	1.001715E+0	1.174495E+0	1.014947E+0	1.002844E+0	1.009847E+0	1.025381E+0	1.015030E+0	1.008811E+0	1.017998E+0	9.913565E-1	1.022375E+0	1.012205E+0	1.008888E+0	1.168697E+0	1.035898E+0	1.031605E+0	1.036496E+0	1.163124E+0	9.766164E-1	9.699718E-1	1.007930E+0	1.077392E+0	1.090476E+0
5.610010E+2	9.472732E-1	9.230838E-1	9.719412E-1	8.767578E-1	9.907377E-1	9.345557E-1	9.256028E-1	9.484814E-1	9.174696E-1	9.600901E-1	9.323042E-1	9.233285E-1	9.428537E-1	8.960641E-1	9.371441E-1	9.430151E-1	9.574722E-1	9.519692E-1	9.026284E-1	8.796932E-1	9.932173E-1	9.198219E-1	9.174710E-1	9.128257E-1	9.335707E-1	9.134780E-1	9.785640E-1	9.134220E-1	9.348992E-1	9.403463E-1	9.287383E-1	9.104233E-1	9.622206E-1	1.007092E+0	9.070198E-1	9.143802E-1	9.611078E-1	9.038731E-1	8.909777E-1	9.299735E-1	9.627546E-1	9.263905E-1	9.438405E-1	9.351968E-1	9.238095E-1	9.614889E-1	9.704549E-1	9.122528E-1	9.623469E-1	9.176237E-1	9.150979E-1	9.092154E-1	9.507270E-1	9.184934E-1	9.134296E-1	9.305514E-1	9.770988E-1	1.026473E+0	9.417498E-1	9.504679E-1	9.504658E-1	9.477010E-1	9.002367E-1	8.834802E-1	1.010948E+0	9.347474E-1	9.401595E-1	9.466200E-1	1.007050E+0	9.005930E-1	8.979518E-1	9.333511E-1	9.236435E-1	9.665047E-1	9.225830E-1	9.235131E-1	9.303364E-1	9.058405E-1	9.476821E-1	9.540849E-1	9.510255E-1	9.149114E-1	9.685576E-1	9.537237E-1	9.425828E-1	8.847889E-1	9.352771E-1	9.229550E-1	9.448652E-1	8.894719E-1	9.438479E-1	9.332536E-1	9.274050E-1	8.919157E-1	9.425275E-1	8.935039E-1	9.783403E-1	9.231309E-1	9.288692E-1	8.954709E-1	9.573012E-1	9.572753E-1	9.472056E-1	9.284332E-1	9.503604E-1	8.916854E-1	9.412361E-1	9.512729E-1	9.234901E-1	9.496685E-1	9.416102E-1	9.040941E-1	9.878198E-1	9.042595E-1	9.098539E-1	9.279862E-1	1.023540E+0	9.147468E-1	9.059611E-1	9.380202E-1	9.541328E-1	9.152316E-1	8.761408E-1	9.378584E-1	9.554587E-1	9.703533E-1	9.395666E-1	9.355565E-1	9.749841E-1	9.470491E-1	9.336591E-1	9.065896E-1	9.850677E-1	9.090241E-1	9.297846E-1	9.125388E-1	9.716589E-1	9.304943E-1	9.251267E-1	9.000992E-1	9.604090E-1	9.358667E-1	9.450717E-1	9.214551E-1	1.003811E+0	9.262138E-1	9.521432E-1	9.426848E-1	1.000721E+0	9.164182E-1	9.353700E-1	9.308330E-1	9.573140E-1	9.123010E-1	9.463781E-1	9.398071E-1	9.108623E-1	9.212889E-1	9.362738E-1	9.538607E-1	1.013162E+0	9.278653E-1	8.979820E-1	8.888402E-1	1.030385E+0	9.218431E-1	9.061290E-1	9.269247E-1	9.829604E-1	1.085951E+0
