Photon Energy (eV)	#1	#2	#3	#4	#5	#6	#7	#8	#9	#10	#11	#12	#13	#14	#15	#16	#17	#18	#19	#20	#21	#22	#23	#24	#25	#26	#27	#28	#29	#30	#31	#32	#33	#34	#35	#36	#37	#38	#39	#40	#41	#42	#43	#44	#45	#46	#47	#48	#49	#50	#51	#52	#53	#54	#55	#56	#57	#58	#59	#60	#61	#62	#63	#64	#65	#66	#67	#68	#69	#70	#71	#72	#73	#74	#75	#76	#77	#78	#79	#80	#81	#82	#83	#84	#85	#86	#87	#88	#89	#90	#91	#92	#93	#94	#95	#96	#97	#98	#99	#100	#101	#102	#103	#104	#105	#106	#107	#108	#109	#110	#111	#112	#113	#114	#115	#116	#117	#118	#119	#120	#121	#122	#123	#124	#125	#126	#127	#128	#129	#130	#131	#132	#133	#134	#135	#136	#137	#138	#139	#140	#141	#142	#143	#144	#145	#146	#147	#148	#149	#150	#151	#152	#153	#154	#155	#156	#157	#158	#159	#160	#161	#162	#163	#164	#165	#166	#167	#168	#169	#170	#171	
5.300220E+2	-6.354801E-3	2.927743E-4	-1.298734E-2	-1.074887E-2	-8.785135E-3	-3.331828E-3	6.928392E-3	-1.028669E-2	-6.597708E-3	-9.934572E-3	-1.018572E-2	-7.472978E-3	-1.025078E-2	-1.206999E-2	-5.817155E-3	-9.379465E-3	-1.429555E-2	5.706339E-3	-7.712215E-3	-7.823319E-3	-5.696754E-3	-8.409172E-3	-1.226534E-2	-1.710777E-2	-1.857490E-3	-4.768193E-3	-6.218338E-3	-8.563440E-3	-6.050155E-3	-1.097414E-2	-1.114374E-2	-1.167429E-2	-1.008086E-2	-7.733027E-3	-1.592063E-2	-1.125513E-2	-7.221843E-3	-1.586973E-2	-3.612601E-3	-3.206089E-3	-9.903877E-3	-5.192792E-3	-1.081487E-2	-1.239342E-2	-1.011849E-2	1.400398E-5	-9.862212E-3	-1.296752E-2	-5.707370E-3	-9.065466E-3	-8.380288E-3	-1.303889E-2	-1.053345E-2	-3.072679E-3	-1.515296E-2	-7.674512E-3	-1.085406E-2	-3.844050E-3	-5.898017E-3	-1.992207E-3	-1.033576E-2	-1.119285E-2	-8.655595E-3	3.406526E-3	-1.831340E-3	-1.138381E-2	-6.101723E-3	-9.062397E-3	-8.521187E-3	-9.290346E-3	1.516408E-4	-1.062503E-2	-8.470990E-3	-8.177890E-3	-5.006492E-3	-9.952838E-3	-1.401562E-2	-9.416768E-3	-1.077739E-2	-7.486939E-3	-1.247836E-2	-1.175821E-2	-8.099457E-3	-7.621806E-3	2.377439E-3	-9.076092E-3	-5.266644E-3	1.057676E-3	-1.100849E-2	-7.527375E-3	-1.134247E-2	-6.612557E-3	-9.750301E-3	-4.525836E-3	-9.767666E-3	6.425115E-4	-7.519759E-3	-3.377987E-4	-8.405205E-3	-1.402296E-2	-8.421593E-3	-1.763192E-2	-8.737386E-3	-6.798496E-3	-1.353967E-2	-4.058799E-3	-7.685837E-3	-9.906663E-3	-1.003053E-2	-1.037785E-2	-1.515728E-2	-8.765095E-3	-7.715516E-3	8.849689E-4	-2.943261E-3	-2.889601E-3	-8.760403E-3	-9.293902E-3	-2.601503E-3	-1.160431E-2	-1.054852E-2	-3.129968E-3	-1.062378E-2	-4.970299E-3	-1.647757E-2	-6.141576E-3	-1.097310E-2	-1.040561E-2	-4.384144E-4	-3.874917E-3	-1.134891E-2	-1.303247E-2	-5.694926E-3	-3.449897E-3	-5.825046E-3	-1.285374E-2	6.133299E-3	-2.726399E-3	-3.111970E-3	-1.505026E-2	-1.755827E-2	-5.973110E-3	-9.706136E-3	-4.205176E-3	-4.235690E-3	-1.140090E-2	-7.635673E-3	-9.462650E-3	-3.288875E-3	-4.877130E-3	-6.036061E-3	-5.522630E-4	-8.154376E-3	-7.889234E-3	-6.501843E-3	-9.400876E-3	-1.063048E-2	-3.265598E-3	-8.814280E-3	-1.039287E-2	-1.186847E-2	-9.920956E-3	-9.926209E-3	-1.162281E-2	-5.528769E-3	-6.495566E-3	1.583539E-3	-9.408727E-3	-8.922892E-3	-6.451469E-3	-2.564567E-2
5.305230E+2	-1.027628E-2	-2.452948E-3	-5.670247E-3	-1.192062E-2	-1.260020E-3	-6.246776E-3	-7.613761E-3	-1.140632E-2	-6.978797E-3	-9.730369E-3	1.670638E-3	-1.327472E-2	-7.052437E-3	-1.954559E-3	-9.148692E-3	-5.059502E-3	-1.073276E-2	-5.534201E-3	1.402048E-3	-1.267370E-3	-6.167728E-3	-5.315774E-3	-6.316537E-3	-1.632763E-2	-7.402420E-3	-6.419901E-3	-7.353177E-3	-3.820651E-3	-4.661477E-3	7.540490E-4	-2.042349E-3	-6.705145E-3	-1.130337E-2	-2.237325E-3	-7.374811E-3	-3.070691E-3	-1.099983E-2	-9.109314E-3	-8.779979E-3	-5.132334E-3	-1.099898E-2	-6.392731E-3	-3.915359E-3	-4.200964E-3	-5.921533E-3	-8.651338E-3	-5.706589E-3	-7.263492E-3	-2.862054E-3	-3.815078E-3	-8.210638E-3	-9.127301E-3	-7.700883E-3	-1.301216E-2	2.879252E-3	5.065151E-4	-8.841457E-3	5.648814E-4	5.100058E-4	-1.190577E-2	-5.645151E-3	-5.380545E-3	-9.040527E-5	-9.159058E-3	9.223206E-4	-2.604862E-3	-8.661229E-3	-6.150854E-3	3.116606E-3	-8.172268E-3	-3.418653E-3	-7.914757E-3	-1.069218E-2	-7.318696E-3	-1.186738E-2	-1.697555E-2	-5.827499E-4	-3.555495E-3	-8.917433E-3	-1.039404E-2	-1.081339E-2	-9.231289E-3	-9.147596E-3	-3.955112E-3	-1.273142E-2	-2.134793E-3	-1.277013E-2	-7.967995E-4	-4.657709E-3	-6.606247E-3	-1.033593E-2	-2.985651E-3	-6.367891E-3	-9.766892E-3	-8.956702E-3	-8.253340E-3	-1.101792E-2	-9.140346E-3	1.756093E-3	-2.249405E-3	-2.010367E-4	-3.942023E-3	-9.170007E-3	-7.322413E-3	-6.105305E-3	-2.771345E-3	-7.492149E-3	-3.877165E-3	-5.752825E-4	-1.424272E-2	-4.521753E-3	-9.817647E-3	-8.854736E-3	-1.313529E-2	-1.389907E-2	-1.202085E-2	-3.450462E-3	-9.181054E-3	-1.103357E-2	-7.008929E-3	-4.577897E-3	-1.025747E-3	-1.178023E-2	-1.284435E-2	-3.564071E-4	-1.856627E-3	-5.469170E-3	-3.201603E-3	-3.644866E-3	-1.211004E-2	-6.060191E-3	-3.020172E-3	-8.353767E-3	-9.697730E-3	-6.952124E-3	-4.450376E-3	2.893924E-3	-5.974570E-4	-1.431618E-2	-7.075669E-3	-3.465079E-3	8.247732E-4	-9.006762E-3	-6.312713E-4	-4.108724E-3	-2.407160E-3	-1.020790E-2	-3.005377E-3	-3.759439E-3	-9.121806E-3	-5.865355E-3	-8.509338E-3	-1.442925E-2	-5.454103E-3	-4.809928E-3	-6.409081E-3	-5.292371E-3	-9.024522E-3	5.313648E-5	-5.649840E-3	-4.840563E-3	-7.054502E-3	-2.399319E-2	-1.398038E-2	-5.513630E-3	-4.878857E-3	-6.552808E-3	1.757103E-3	-7.227788E-3	-5.364894E-3	-6.771487E-3
5.310050E+2	-1.172223E-2	-3.634657E-4	-5.438881E-5	-1.625421E-3	2.124840E-3	-6.876583E-3	-8.182606E-3	-8.739422E-3	-2.469137E-3	-3.633254E-3	-8.780354E-3	-9.479341E-3	-1.078705E-2	-1.132861E-2	-5.825920E-3	-1.573336E-2	-1.340197E-2	-1.120946E-2	-1.261546E-2	-4.866439E-3	-1.065649E-2	-3.821502E-3	-3.209997E-3	-3.533762E-3	-6.856853E-3	-6.472757E-3	-1.045923E-3	-1.115408E-2	-4.098015E-3	-5.120155E-3	-4.927553E-3	-6.765986E-3	-2.311715E-3	1.194291E-2	-6.748648E-3	-3.135043E-3	-8.307783E-3	-1.485335E-3	-1.014211E-3	-7.722239E-3	-4.905244E-3	-1.108308E-2	1.996401E-3	-2.964577E-3	5.593503E-3	-1.157274E-2	-7.515994E-3	-5.656433E-3	-1.308361E-2	-1.021282E-2	-1.942195E-3	-5.489727E-3	-9.892645E-3	-4.202024E-3	9.548032E-3	-2.625210E-3	-1.434864E-2	-6.200484E-3	-1.322779E-2	-4.233594E-3	-6.268048E-3	-7.118308E-3	-1.335130E-2	-8.074335E-3	-2.432142E-3	-1.368672E-2	-7.331955E-3	-5.537524E-3	-1.065302E-2	-4.090308E-3	-4.682378E-3	7.203624E-4	-4.200352E-3	-8.678389E-3	-4.175459E-3	-7.032221E-3	-4.846582E-3	-3.616079E-3	-3.278329E-3	-5.062922E-3	-2.479666E-3	-3.419198E-3	-9.825561E-3	1.485899E-3	-1.221587E-2	2.712318E-3	-6.424538E-3	-1.170130E-2	-9.450755E-3	-6.674192E-3	-5.471639E-3	-1.266737E-2	-3.869219E-3	-3.092082E-3	-7.714114E-3	-4.737166E-3	-8.868157E-3	-5.783724E-3	-8.265014E-3	-1.159558E-2	-1.303557E-2	-3.995527E-3	-7.933083E-3	-8.052999E-3	-1.528663E-2	-3.969055E-3	-9.028832E-3	-6.085057E-3	-1.281626E-2	-1.872960E-3	-7.025045E-3	-8.140833E-3	-9.545228E-3	2.348691E-4	-7.727923E-3	-6.154940E-3	-1.201595E-3	-1.895416E-2	-2.546345E-3	8.719486E-3	-9.275502E-3	-2.367383E-3	1.723078E-3	-7.015913E-3	-1.311279E-2	-3.105840E-3	-6.111385E-3	-3.846486E-3	-1.102551E-2	-1.408510E-2	-1.668062E-3	-1.141912E-2	-7.310819E-3	4.637527E-3	-4.464369E-3	-1.015337E-2	-1.329316E-2	-9.925004E-3	-7.296566E-3	2.605172E-3	-5.247560E-3	7.607570E-4	-4.521846E-3	-6.503143E-3	1.127263E-3	-5.612933E-3	-4.865796E-3	-1.303307E-2	-7.625206E-3	1.080234E-3	-7.216626E-3	-1.132472E-3	3.623972E-4	-1.134784E-2	1.716629E-3	-2.309124E-3	-6.641035E-3	-1.597934E-2	-3.120581E-3	-5.704165E-3	-2.873927E-3	-1.300218E-2	-7.513484E-3	-4.192265E-3	-5.532380E-3	-8.609119E-3	-9.648551E-3	-5.758666E-3	-1.709185E-2	-1.915044E-2	1.220883E-2
5.315080E+2	-6.250806E-5	-1.183250E-3	1.037179E-3	-1.467044E-3	-8.105045E-3	4.394142E-4	-7.224915E-3	-9.396556E-3	1.420187E-3	-5.129223E-4	-5.099331E-3	6.796219E-3	-1.049704E-3	-1.370008E-3	5.192799E-4	-7.398779E-3	7.053187E-3	-2.747088E-3	5.134007E-3	-7.739770E-3	-2.295580E-3	4.533732E-4	-3.817432E-3	-2.801505E-3	-9.497058E-3	-4.776884E-3	-8.922520E-3	-1.277347E-3	-4.102808E-3	-3.926703E-3	2.617502E-3	-4.536343E-3	-4.755433E-3	-1.251661E-2	4.956045E-3	2.822431E-3	-7.778741E-3	-5.984260E-3	-1.817845E-2	-5.837461E-3	-1.170761E-3	-8.193955E-3	-2.736846E-3	-1.083077E-3	-3.672835E-3	-1.143809E-3	-4.909228E-4	5.615912E-3	1.850913E-3	-5.231102E-3	-5.193501E-3	1.923655E-3	4.049534E-4	-5.267775E-3	-4.559891E-3	-3.291054E-3	2.366731E-4	5.036191E-4	-5.158979E-3	-5.113920E-3	-1.685757E-3	-8.309528E-3	-6.781854E-3	-1.383650E-2	-1.246920E-2	-1.073379E-2	3.735080E-3	-9.030046E-3	3.213339E-3	2.806813E-3	-4.066346E-3	-3.035873E-3	-7.232948E-3	2.428415E-3	-2.972558E-4	-4.262352E-3	-4.236421E-3	-1.002994E-2	-6.044001E-3	-3.805390E-3	-4.124083E-4	1.429736E-2	-3.602086E-3	-6.310409E-4	-9.658325E-4	-9.669489E-3	-4.566734E-3	-6.015877E-3	-7.078450E-4	-2.481625E-3	-8.448147E-3	-1.715195E-3	-1.931422E-3	3.697187E-3	-3.949642E-3	-2.925572E-3	1.478840E-3	-7.243180E-3	3.088813E-3	4.719984E-4	-5.427056E-3	-1.019119E-2	-2.819752E-3	-6.718233E-4	-1.611790E-3	-3.416590E-3	-6.912571E-3	-1.206058E-2	-9.397495E-3	-7.450061E-3	-1.478412E-3	-5.450753E-4	-4.469750E-3	-2.300880E-3	-3.616574E-3	-3.520285E-3	-8.122272E-3	2.842874E-3	-5.222727E-3	-5.154292E-3	-1.664233E-3	-3.087009E-3	-4.398850E-3	2.810310E-4	2.225843E-3	-9.108483E-3	-6.734597E-3	4.552565E-3	-4.449551E-3	4.645236E-3	3.533241E-3	1.025248E-2	-1.210075E-3	-3.964670E-3	-3.847426E-3	-7.232265E-4	-1.080748E-2	-9.396282E-3	4.816850E-3	-4.438875E-3	1.205767E-3	-1.268059E-2	-3.909911E-3	7.235889E-5	-1.293521E-2	9.039195E-3	-6.234377E-3	8.543455E-4	1.755708E-3	-1.134983E-2	3.835592E-3	-2.896055E-3	-4.202397E-3	1.048396E-3	-5.002247E-3	4.028715E-3	4.729809E-4	-1.078220E-2	-1.003844E-2	-5.067006E-3	-1.552585E-3	7.376447E-3	-9.908911E-3	-5.572365E-3	1.370179E-3	-5.351877E-3	2.367193E-3	-6.814056E-3	-1.665072E-2	-1.767537E-3	1.391487E-3
5.320070E+2	-8.781357E-3	-5.936754E-3	-8.084742E-3	-3.447942E-3	-4.506133E-3	4.379729E-3	1.797357E-3	-8.149062E-4	-1.611034E-3	6.531987E-3	-5.540769E-3	-2.080633E-3	1.591150E-3	5.421801E-3	-1.403305E-3	2.947051E-3	-1.189527E-4	2.892664E-4	3.102231E-4	3.498057E-3	2.357767E-3	1.208594E-3	4.661102E-3	7.731578E-3	2.735028E-3	2.017144E-3	5.302761E-3	-9.192870E-5	-2.551275E-3	-1.913404E-3	9.267396E-4	1.099866E-2	4.767360E-3	-2.029239E-3	-1.065651E-3	-5.505993E-3	-1.468900E-3	8.558365E-4	-4.274267E-3	-9.716326E-4	8.366247E-3	9.678958E-3	-5.158537E-3	5.315932E-3	1.230169E-3	3.053613E-3	-1.594223E-3	1.583176E-2	-8.784024E-3	1.161347E-2	2.722992E-3	3.443087E-3	5.750251E-4	-2.833851E-3	-1.108819E-2	6.930006E-4	-7.635465E-4	-4.796320E-4	-4.120224E-3	-3.194232E-3	-6.601504E-3	2.140840E-3	2.518341E-3	3.608835E-3	-2.849899E-3	-5.683281E-4	2.601728E-3	2.177609E-3	4.337229E-5	3.181378E-4	5.860654E-3	2.230597E-3	9.188984E-3	9.888562E-3	-3.937200E-3	1.115714E-2	-3.727020E-4	1.376171E-2	-1.846426E-3	1.213678E-3	9.710107E-3	-9.867837E-4	6.055062E-3	-1.346301E-2	-1.347325E-3	-9.945139E-5	4.696492E-3	1.974709E-3	2.297210E-3	-1.071011E-2	5.894089E-3	-1.421808E-3	-1.044924E-3	-8.262344E-3	5.793336E-3	-8.678016E-3	1.002920E-3	-2.796665E-3	-2.886282E-5	-1.364655E-3	3.041286E-5	-3.734623E-3	7.036546E-4	4.937965E-3	4.546586E-3	-4.320071E-3	8.940366E-3	1.068758E-2	1.377988E-3	8.061323E-3	-3.635737E-5	5.393106E-3	3.388399E-3	-8.492795E-3	-2.643427E-3	-3.934867E-3	1.377620E-3	8.952541E-3	1.656069E-3	-4.805353E-4	1.465265E-3	-6.671259E-3	-7.220783E-4	3.544650E-3	-5.891590E-3	3.138184E-3	4.209500E-3	-6.362140E-4	3.205495E-3	4.186266E-3	1.148245E-3	-7.036043E-3	-2.157598E-3	-7.219535E-3	1.512332E-3	1.366408E-4	3.755695E-3	4.242686E-3	8.575743E-3	-1.327797E-3	-1.529938E-3	-2.628287E-3	-2.002088E-3	4.945477E-3	-1.936799E-3	-2.216881E-3	-3.938103E-3	4.494135E-4	-6.868738E-3	-2.060540E-4	-1.163421E-3	2.314157E-3	4.493637E-3	1.192674E-3	-2.455206E-3	-7.590889E-3	3.896014E-5	4.468836E-3	4.608930E-3	3.991173E-4	1.162203E-2	-3.385257E-4	1.308321E-2	-1.870427E-3	-4.183332E-3	1.335446E-2	3.606668E-4	-5.448694E-3	1.163966E-2	9.604408E-4	9.792177E-4
5.325070E+2	8.754784E-3	1.933301E-5	1.934656E-3	1.152782E-2	9.320885E-3	3.319515E-3	-2.774037E-3	1.031057E-2	-8.720459E-4	-7.500881E-4	1.126578E-2	3.688290E-4	9.698527E-3	1.502364E-2	6.245180E-3	1.211603E-2	-4.587754E-3	2.096933E-3	1.565610E-3	1.153355E-2	8.065670E-3	8.164918E-3	8.011975E-3	1.920664E-2	7.960099E-3	8.668308E-3	6.602471E-3	4.052622E-3	1.161325E-2	7.596167E-3	-1.548709E-3	7.378124E-3	1.027858E-2	3.514912E-3	8.145528E-3	6.042304E-3	1.531564E-2	5.152779E-3	1.054284E-2	8.461560E-3	5.493243E-3	-3.593820E-5	7.379652E-3	8.300424E-3	6.673323E-3	5.600467E-3	3.823378E-3	-8.518521E-3	1.319183E-2	9.269267E-3	1.881136E-2	1.360515E-2	5.073111E-3	8.506152E-3	7.031707E-4	3.553663E-3	1.350361E-2	-2.133646E-3	8.097008E-3	1.509638E-2	3.794808E-3	9.713302E-3	7.372114E-3	1.018531E-2	3.271798E-3	1.443845E-2	8.254092E-3	1.053496E-2	3.537525E-3	1.015823E-3	-3.272564E-5	9.908526E-3	8.179532E-3	4.153766E-3	1.182432E-2	3.422479E-3	5.244457E-3	8.869766E-3	1.671885E-2	8.037031E-3	5.675237E-3	3.605052E-3	3.719165E-3	1.917333E-3	1.065186E-2	8.732646E-3	9.377024E-3	-2.359365E-3	5.870899E-3	7.967224E-3	1.025310E-2	9.822360E-3	4.927360E-3	8.846874E-3	1.105406E-2	7.064688E-3	5.650830E-3	1.184915E-4	-3.212783E-3	9.593984E-3	-3.744032E-4	1.679948E-2	2.809471E-3	-5.644269E-3	1.194969E-2	1.035158E-2	1.062644E-2	7.666891E-4	4.476673E-3	9.982266E-3	1.678911E-2	1.528064E-3	-3.446270E-3	1.098489E-2	1.286383E-2	1.015891E-2	5.614814E-3	6.969366E-3	7.788938E-3	2.241564E-3	9.848093E-3	5.789354E-3	6.973445E-3	2.238455E-3	4.507517E-3	2.118049E-3	1.214064E-2	-4.024530E-3	-1.999173E-3	8.900389E-3	4.530597E-3	5.710550E-3	1.005980E-2	1.207540E-2	5.521950E-3	9.794957E-3	6.541854E-3	3.753550E-3	5.927731E-3	3.043547E-3	8.526094E-3	7.913397E-3	1.073999E-2	5.725545E-3	-4.392916E-4	-7.831663E-4	2.144212E-2	3.768904E-3	7.036009E-3	5.389564E-3	6.820576E-3	4.983355E-3	8.579384E-3	6.682780E-3	8.793666E-3	6.532585E-3	8.580065E-4	1.628685E-2	7.298780E-3	2.902377E-3	2.263670E-4	9.719632E-3	1.330453E-2	1.884077E-2	4.515437E-3	5.120294E-3	7.364693E-3	1.313614E-2	2.180322E-2	1.191486E-2	-2.703028E-3
5.330180E+2	2.844239E-2	9.624311E-3	2.382488E-2	1.768208E-2	1.121061E-2	8.316528E-3	1.706957E-2	3.033332E-2	1.710853E-2	1.802922E-2	1.666975E-2	2.514262E-2	1.785030E-2	6.277722E-3	1.543061E-2	2.250803E-2	3.608379E-2	1.139822E-2	1.191579E-2	6.665287E-3	1.439312E-2	7.719563E-3	1.293623E-2	1.283244E-2	1.491869E-2	1.175228E-2	1.163473E-2	2.085482E-2	9.850476E-3	1.358419E-2	1.611811E-2	1.130499E-2	1.340543E-2	9.058379E-3	1.800817E-2	1.410212E-2	2.046145E-2	2.644002E-2	2.531667E-2	1.440820E-2	1.311938E-2	2.121954E-2	1.324956E-2	7.025679E-3	6.215862E-3	1.269980E-2	2.134656E-2	1.295830E-2	1.539431E-2	7.441730E-3	2.192274E-3	8.684024E-3	2.207389E-2	1.988233E-2	1.767058E-2	8.837596E-3	2.106742E-2	1.158931E-2	1.979800E-2	1.134334E-2	2.674141E-2	2.014709E-2	1.898870E-2	1.386922E-2	1.538846E-2	2.453906E-2	7.504006E-3	1.706825E-2	9.263365E-3	1.741215E-2	6.187809E-3	8.716170E-3	1.322795E-2	7.704232E-3	1.345947E-2	2.364335E-2	1.880962E-2	3.986802E-3	1.414474E-2	1.749858E-2	1.079848E-2	7.493060E-3	2.090047E-2	2.226774E-2	1.423114E-2	9.534862E-3	1.495453E-2	1.784096E-2	1.765669E-2	2.603233E-2	1.945100E-2	1.558022E-2	1.803640E-2	1.310309E-2	1.354073E-2	1.688689E-2	1.927325E-2	2.518322E-2	1.506696E-2	1.916661E-2	2.742924E-2	2.269581E-2	2.514710E-2	2.355204E-2	2.004711E-2	8.184279E-3	1.155258E-2	2.047519E-2	2.696491E-2	1.590000E-2	1.142973E-2	2.034748E-2	3.064310E-2	1.182424E-2	1.796643E-2	1.836163E-2	1.454230E-2	1.866433E-2	1.195914E-2	1.328701E-2	1.475279E-2	1.049201E-2	1.882842E-2	1.876642E-2	2.910500E-2	1.495629E-2	1.293811E-2	1.756188E-2	1.835202E-2	1.233816E-2	9.865081E-3	1.854477E-2	1.466739E-2	7.618910E-3	1.405468E-2	1.824912E-2	4.775870E-3	1.464891E-2	5.404395E-3	2.224388E-2	1.806898E-2	1.178306E-2	1.840676E-2	5.962099E-4	2.252845E-2	1.338184E-2	1.143973E-2	2.042843E-2	1.275054E-2	1.908502E-2	9.625295E-3	5.792615E-3	1.335061E-2	1.576733E-2	8.258928E-3	1.514867E-2	2.119393E-2	1.829597E-2	1.001245E-2	2.351238E-2	9.287142E-3	1.322008E-2	2.495406E-2	1.839748E-2	1.487249E-2	6.860663E-3	4.525266E-3	1.253690E-2	1.645038E-2	1.985903E-2	2.054065E-2
5.331520E+2	1.648286E-2	2.850628E-2	2.124328E-2	2.128227E-2	1.515002E-2	2.441646E-2	1.399203E-2	2.342504E-2	3.214059E-2	2.417276E-2	2.474428E-2	2.121215E-2	1.916554E-2	3.028484E-2	2.997247E-2	1.951059E-2	8.790454E-3	4.204272E-2	2.503269E-2	1.948650E-2	1.560982E-2	3.081719E-2	1.977695E-2	2.228773E-2	2.131995E-2	1.470207E-2	1.548602E-2	2.476983E-2	1.999358E-2	2.065012E-2	2.615914E-2	1.025456E-2	2.025238E-2	1.500124E-2	1.017387E-2	1.815811E-2	1.777925E-2	1.607540E-2	8.513496E-3	1.047713E-2	1.118543E-2	2.014666E-2	2.233916E-2	2.577599E-2	2.675124E-2	-4.963984E-5	2.580993E-2	1.795347E-2	1.399151E-2	1.066902E-2	2.554017E-2	3.063963E-2	1.875364E-2	9.185317E-3	2.800714E-2	2.441496E-2	2.222005E-2	1.769871E-2	1.928976E-2	1.216990E-2	1.768213E-2	1.780825E-2	2.063657E-2	1.899666E-2	2.528462E-2	1.207829E-2	3.450810E-2	1.630432E-2	3.919066E-2	1.003207E-2	3.293859E-2	2.323159E-2	2.820886E-2	2.878508E-2	2.070356E-2	2.064088E-2	2.421523E-2	2.372651E-2	1.193334E-2	2.227653E-2	1.425827E-2	1.486176E-2	1.581262E-2	1.886505E-2	7.404099E-3	1.073921E-2	2.267952E-2	3.307303E-2	2.925643E-2	2.316735E-2	2.622102E-2	1.576104E-2	1.668403E-2	2.178692E-3	2.293575E-2	1.507708E-2	1.023533E-2	2.234581E-2	1.500488E-2	3.070246E-2	1.326582E-2	1.299936E-2	2.343767E-2	2.179538E-2	1.935745E-2	1.634187E-2	1.363449E-2	2.283506E-2	1.809977E-2	1.129567E-2	1.898957E-2	2.447423E-2	3.247385E-2	2.017787E-2	2.125863E-2	2.161054E-2	2.321446E-2	2.572980E-2	1.321080E-2	1.065354E-2	8.866305E-3	2.406677E-2	7.079975E-3	4.096592E-2	1.553317E-2	2.874059E-2	2.541857E-2	1.214323E-2	2.096435E-2	2.656601E-2	2.651818E-2	2.760017E-2	1.405995E-2	1.571236E-2	2.810295E-2	2.896537E-2	1.774750E-2	1.924959E-2	2.391562E-2	1.511662E-2	1.974807E-2	2.456466E-2	1.890919E-2	1.472724E-2	1.841957E-2	1.648492E-2	1.136119E-2	2.796418E-2	3.368406E-2	2.245343E-2	2.132479E-2	2.825751E-2	2.827560E-2	1.037941E-2	3.114831E-2	2.207693E-2	8.768683E-3	1.356290E-2	2.815830E-2	2.052447E-2	3.245065E-2	1.910318E-2	2.486668E-2	3.493605E-2	2.403737E-2	1.113916E-2	2.448913E-2	2.254260E-2	2.767061E-2	4.010677E-2	2.815170E-2
5.333180E+2	3.428422E-2	3.104234E-2	3.271716E-2	3.496650E-2	1.424029E-2	3.463203E-2	1.773716E-2	1.566426E-2	4.282755E-2	3.133484E-2	1.465361E-2	2.538299E-2	2.240947E-2	2.556159E-2	2.707048E-2	1.919598E-2	2.614873E-2	2.457667E-2	3.146152E-2	2.986732E-2	3.429274E-2	4.225903E-2	3.289044E-2	2.083571E-2	2.293848E-2	4.013068E-2	2.470400E-2	2.849937E-2	2.415564E-2	2.283144E-2	3.844130E-2	1.885236E-2	2.592178E-2	2.735570E-2	2.863044E-2	2.516816E-2	3.262884E-2	2.363424E-2	2.130131E-2	3.143788E-2	2.973136E-2	3.296037E-2	3.376726E-2	2.822643E-2	2.311134E-2	2.829504E-2	2.564399E-2	2.448348E-2	3.377091E-2	2.135034E-2	2.784277E-2	2.600802E-2	3.216240E-2	2.183752E-2	2.577046E-2	2.473348E-2	3.117135E-2	3.978925E-2	3.827514E-2	3.394534E-2	3.296969E-2	2.620760E-2	2.154178E-2	2.858794E-2	3.162621E-2	2.604792E-2	2.129323E-2	2.486061E-2	3.067848E-2	3.762186E-2	1.887980E-2	3.627750E-2	3.641740E-2	3.192536E-2	3.288121E-2	2.460615E-2	2.088828E-2	2.213486E-2	2.252965E-2	1.225234E-2	2.518334E-2	2.128549E-2	2.626465E-2	2.966052E-2	2.298708E-2	1.661442E-2	3.825789E-2	3.278672E-2	2.272791E-2	3.501167E-2	3.164253E-2	2.935233E-2	3.517491E-2	2.428885E-2	2.635421E-2	2.867355E-2	1.568320E-5	3.030496E-2	2.197000E-2	2.314556E-2	4.131722E-3	1.899932E-2	3.541527E-2	2.055038E-2	3.430347E-2	3.545021E-2	1.948623E-2	2.497367E-2	2.490489E-2	3.172302E-2	3.771127E-2	3.437155E-2	2.964589E-2	3.090054E-2	2.417300E-2	3.482937E-2	2.648874E-2	2.995725E-2	2.307598E-2	9.282043E-3	2.750060E-2	2.638976E-2	3.258974E-2	1.399865E-2	2.615990E-2	2.246218E-2	2.433588E-2	2.985826E-2	2.396714E-2	3.083725E-2	2.807946E-2	3.076235E-2	3.367143E-2	3.353783E-2	2.650324E-2	3.503438E-2	1.346588E-2	3.901721E-2	2.853440E-2	3.376445E-2	4.055584E-2	2.857007E-2	1.977898E-2	3.044891E-2	3.083251E-2	2.763077E-2	2.467269E-2	3.467309E-2	2.683198E-2	2.551771E-2	3.803386E-2	1.791050E-2	1.942965E-2	2.903637E-2	2.925368E-2	3.012795E-2	2.859216E-2	3.373889E-2	3.039435E-2	2.142792E-2	3.759594E-2	3.333113E-2	1.676720E-2	3.662520E-2	2.956841E-2	2.542394E-2	3.545346E-2	3.380383E-2	1.571976E-2	3.417595E-2	5.546200E-2
5.334580E+2	4.083437E-2	2.478136E-2	3.302243E-2	3.238092E-2	3.974543E-2	3.324537E-2	3.470489E-2	4.359388E-2	4.444132E-2	1.912203E-2	3.523389E-2	3.435181E-2	5.463337E-2	4.036068E-2	2.034915E-2	2.137895E-2	3.444239E-2	5.157762E-2	5.268603E-2	2.815149E-2	3.453168E-2	3.795941E-2	4.116075E-2	3.433499E-2	3.165935E-2	4.760157E-2	2.899854E-2	4.581262E-2	4.748766E-2	4.258909E-2	3.603498E-2	2.479790E-2	4.547406E-2	3.372939E-2	2.253708E-2	3.964754E-2	3.962588E-2	4.665321E-2	3.677391E-2	2.794110E-2	5.024658E-2	3.396478E-2	2.379765E-2	3.212701E-2	3.524686E-2	3.967473E-2	2.062514E-2	3.945465E-2	3.073995E-2	3.403774E-2	3.025523E-2	3.091924E-2	4.227112E-2	2.667359E-2	4.899169E-2	4.892701E-2	3.971412E-2	3.346462E-2	4.823285E-2	3.372976E-2	3.801569E-2	3.180440E-2	3.050400E-2	3.065647E-2	3.601276E-2	3.512918E-2	3.267637E-2	4.243231E-2	2.599343E-2	3.841363E-2	3.509619E-2	3.092842E-2	3.916477E-2	3.640788E-2	3.770145E-2	3.453420E-2	3.467879E-2	3.277022E-2	3.903527E-2	2.722577E-2	4.754916E-2	4.939930E-2	3.138579E-2	4.195469E-2	4.427190E-2	4.625622E-2	3.349118E-2	2.925988E-2	3.001813E-2	2.918055E-2	4.600155E-2	1.931084E-2	2.647067E-2	3.357643E-2	4.091562E-2	3.505661E-2	4.163997E-2	2.795306E-2	4.543779E-2	4.823876E-2	3.160693E-2	3.072491E-2	3.206785E-2	4.899900E-2	3.071027E-2	3.870270E-2	2.720845E-2	3.055945E-2	4.347880E-2	2.859174E-2	3.856188E-2	2.999293E-2	2.487779E-2	4.356421E-2	3.813968E-2	2.801845E-2	4.550978E-2	3.797199E-2	4.579561E-2	3.897373E-2	3.437181E-2	3.597915E-2	3.162588E-2	3.347674E-2	2.462870E-2	2.527334E-2	4.264157E-2	3.744899E-2	5.603794E-2	4.489932E-2	2.848831E-2	3.689281E-2	5.048314E-2	3.562523E-2	5.362218E-2	3.477791E-2	3.619063E-2	3.684401E-2	3.839028E-2	3.541567E-2	3.912854E-2	4.433878E-2	4.414958E-2	4.396537E-2	5.201217E-2	4.202958E-2	1.815443E-2	4.910376E-2	4.211840E-2	4.336707E-2	3.183016E-2	3.502154E-2	4.735373E-2	4.365457E-2	3.494263E-2	3.303915E-2	5.761982E-2	3.350328E-2	3.645374E-2	5.056539E-2	3.457236E-2	3.375374E-2	3.228492E-2	3.969604E-2	2.533711E-2	3.056533E-2	3.821674E-2	3.942952E-2	2.105324E-2	2.306237E-2	7.046379E-2
5.336030E+2	5.229839E-2	3.526094E-2	3.209184E-2	4.161462E-2	4.524883E-2	4.222022E-2	4.218820E-2	5.079145E-2	4.211806E-2	5.109481E-2	3.439798E-2	2.615109E-2	2.361881E-2	5.355921E-2	4.218004E-2	4.760638E-2	5.065605E-2	5.820832E-2	4.680284E-2	4.930731E-2	4.214312E-2	4.257004E-2	6.178841E-2	3.584733E-2	3.705561E-2	5.510177E-2	4.701408E-2	4.954315E-2	3.948814E-2	5.946757E-2	4.061460E-2	3.616689E-2	3.970088E-2	3.887081E-2	3.646135E-2	5.745162E-2	3.774227E-2	4.757169E-2	3.334234E-2	4.699215E-2	4.248994E-2	3.612660E-2	4.024100E-2	3.311146E-2	4.384721E-2	5.113994E-2	5.400030E-2	4.094157E-2	5.449458E-2	5.949535E-2	5.026915E-2	5.583972E-2	5.247468E-2	4.331397E-2	4.469760E-2	5.558292E-2	4.257718E-2	4.561009E-2	4.499087E-2	4.592264E-2	4.705700E-2	3.557123E-2	6.135086E-2	4.720980E-2	5.638186E-2	4.603318E-2	5.112911E-2	4.073020E-2	4.807370E-2	4.193022E-2	4.794258E-2	4.333243E-2	4.736870E-2	4.406848E-2	4.935319E-2	3.923886E-2	5.093387E-2	4.657562E-2	4.647326E-2	3.241959E-2	5.572973E-2	4.751402E-2	3.589127E-2	5.280440E-2	4.180322E-2	4.225362E-2	3.947967E-2	5.110129E-2	4.062188E-2	5.404422E-2	5.210273E-2	5.599890E-2	5.667653E-2	4.757911E-2	5.056771E-2	3.963033E-2	3.899756E-2	4.909048E-2	4.388928E-2	4.569450E-2	4.848762E-2	4.932082E-2	4.542395E-2	3.703716E-2	5.555430E-2	4.960295E-2	4.352540E-2	5.066918E-2	5.092577E-2	4.961065E-2	4.343201E-2	3.853338E-2	4.188180E-2	5.302148E-2	3.849414E-2	5.115444E-2	5.702536E-2	4.659440E-2	3.070840E-2	4.515525E-2	4.594563E-2	4.480296E-2	4.738982E-2	5.033023E-2	5.589224E-2	3.950800E-2	4.132792E-2	4.918060E-2	5.710066E-2	3.741787E-2	5.023010E-2	5.416798E-2	4.481702E-2	5.000753E-2	4.209569E-2	4.730909E-2	5.948202E-2	4.053853E-2	2.251888E-2	5.280737E-2	5.413880E-2	5.147493E-2	5.610028E-2	5.147182E-2	6.115888E-2	4.366362E-2	4.507272E-2	5.089054E-2	6.083274E-2	3.826833E-2	4.782777E-2	4.795519E-2	3.599795E-2	4.354238E-2	3.822088E-2	5.376616E-2	4.698987E-2	4.622983E-2	4.855699E-2	4.883246E-2	4.795637E-2	4.540101E-2	4.302787E-2	5.409462E-2	5.027395E-2	4.972357E-2	6.024948E-2	6.204067E-2	4.477696E-2	4.046824E-2	4.757437E-2
5.337740E+2	6.559286E-2	4.857796E-2	6.321413E-2	5.517951E-2	5.730487E-2	6.084749E-2	6.008749E-2	5.640269E-2	6.328383E-2	6.605202E-2	6.794567E-2	5.950571E-2	5.348834E-2	7.035010E-2	6.528049E-2	7.045769E-2	5.614709E-2	5.710262E-2	7.234941E-2	5.731254E-2	7.180560E-2	5.093186E-2	9.249303E-2	6.924464E-2	7.498677E-2	5.748917E-2	7.072027E-2	6.297593E-2	5.808899E-2	7.999140E-2	5.820009E-2	6.807927E-2	7.188861E-2	7.200067E-2	6.051865E-2	8.291080E-2	6.843536E-2	5.685534E-2	5.937110E-2	5.285426E-2	5.255532E-2	6.224268E-2	7.010287E-2	5.480351E-2	7.684922E-2	6.965157E-2	6.435013E-2	6.293114E-2	6.623306E-2	6.531138E-2	7.182458E-2	5.901308E-2	6.717693E-2	5.739409E-2	6.501379E-2	6.316007E-2	8.072417E-2	6.547330E-2	4.862943E-2	6.580354E-2	6.720197E-2	6.249482E-2	5.215246E-2	6.167783E-2	6.177460E-2	7.400984E-2	6.217605E-2	7.513664E-2	6.867736E-2	5.610529E-2	6.831116E-2	6.374011E-2	5.588812E-2	6.536740E-2	5.950605E-2	6.923077E-2	7.531338E-2	8.691260E-2	6.050113E-2	7.805969E-2	6.502360E-2	8.189444E-2	5.386718E-2	9.126100E-2	5.941066E-2	6.101697E-2	5.757843E-2	5.768224E-2	7.428915E-2	6.132320E-2	5.220300E-2	5.053134E-2	5.415224E-2	6.609590E-2	7.282541E-2	7.047502E-2	6.829174E-2	5.130534E-2	6.896654E-2	6.106827E-2	5.617461E-2	6.640655E-2	6.153321E-2	7.133537E-2	6.487461E-2	7.246744E-2	6.013794E-2	6.691170E-2	6.155634E-2	6.794245E-2	5.473886E-2	7.252243E-2	6.119119E-2	6.796969E-2	6.062138E-2	5.592830E-2	6.578523E-2	7.131780E-2	6.441479E-2	7.358506E-2	7.194526E-2	5.669112E-2	7.165055E-2	7.221046E-2	5.660049E-2	7.400960E-2	6.096820E-2	5.402230E-2	6.728878E-2	6.489230E-2	5.658321E-2	8.028083E-2	6.082474E-2	6.812346E-2	5.892816E-2	5.894367E-2	6.541281E-2	5.881059E-2	6.931138E-2	7.064135E-2	5.301607E-2	6.992651E-2	5.227061E-2	7.874857E-2	4.648772E-2	6.794123E-2	5.670994E-2	7.068842E-2	5.696281E-2	5.477326E-2	6.592208E-2	6.325574E-2	7.548992E-2	6.315728E-2	7.121262E-2	7.582407E-2	6.208033E-2	6.959483E-2	7.259548E-2	7.406177E-2	8.977396E-2	6.541245E-2	5.427312E-2	7.752837E-2	7.650565E-2	6.949545E-2	7.363555E-2	6.686595E-2	7.421501E-2	6.485742E-2	6.397375E-2
5.339090E+2	9.692411E-2	9.581692E-2	9.791689E-2	6.764610E-2	1.019583E-1	8.103338E-2	7.245017E-2	1.046052E-1	9.398893E-2	8.151470E-2	8.581018E-2	8.422718E-2	8.156461E-2	8.264709E-2	9.694053E-2	8.985009E-2	9.511078E-2	7.746105E-2	8.704908E-2	8.298472E-2	8.913049E-2	7.869831E-2	1.373143E-1	1.110539E-1	1.012710E-1	1.133210E-1	1.027593E-1	1.003585E-1	9.835499E-2	8.408244E-2	9.890629E-2	7.966298E-2	8.843342E-2	9.721202E-2	9.017115E-2	1.035838E-1	1.002289E-1	7.648058E-2	9.788114E-2	7.717226E-2	8.623449E-2	1.005487E-1	9.425114E-2	7.813346E-2	7.915752E-2	9.759522E-2	8.621044E-2	8.655555E-2	8.805606E-2	9.668962E-2	1.002319E-1	1.041677E-1	1.042718E-1	9.613221E-2	9.584731E-2	1.082101E-1	1.139059E-1	9.573298E-2	8.148875E-2	9.314966E-2	8.837875E-2	1.065929E-1	7.215263E-2	8.358756E-2	7.624999E-2	9.322740E-2	9.176117E-2	1.004137E-1	7.869186E-2	9.336748E-2	7.885145E-2	8.266827E-2	9.199882E-2	8.781062E-2	8.425507E-2	9.232586E-2	9.107150E-2	9.839756E-2	9.622716E-2	8.472134E-2	8.606963E-2	9.515379E-2	9.731662E-2	8.556112E-2	7.521997E-2	8.455920E-2	8.969222E-2	1.050639E-1	1.015590E-1	8.982419E-2	8.701810E-2	9.432240E-2	8.447519E-2	8.708918E-2	9.069607E-2	7.827616E-2	7.853070E-2	8.087916E-2	7.334463E-2	7.748781E-2	9.089738E-2	9.658764E-2	8.234434E-2	9.927124E-2	1.037679E-1	1.005537E-1	8.461499E-2	8.278492E-2	9.035618E-2	8.687127E-2	1.076455E-1	7.601651E-2	9.121994E-2	7.628087E-2	7.752847E-2	8.658003E-2	9.322751E-2	1.043710E-1	1.075289E-1	9.806911E-2	1.020541E-1	8.198495E-2	1.054147E-1	9.977900E-2	8.930690E-2	1.024372E-1	1.001903E-1	9.581906E-2	9.410544E-2	9.671392E-2	7.657829E-2	1.076483E-1	9.336915E-2	8.385708E-2	8.767285E-2	8.189339E-2	9.410506E-2	9.089758E-2	9.419280E-2	9.674491E-2	8.219733E-2	8.153356E-2	8.634428E-2	8.230254E-2	9.732981E-2	8.377567E-2	9.388602E-2	9.671655E-2	1.018689E-1	8.434572E-2	8.874890E-2	1.088540E-1	8.729347E-2	8.566430E-2	9.878259E-2	1.047817E-1	8.870882E-2	9.417084E-2	9.437453E-2	9.343815E-2	8.419690E-2	1.051053E-1	8.455588E-2	7.004845E-2	1.017088E-1	8.457870E-2	9.134104E-2	9.283971E-2	8.482199E-2	9.493487E-2	9.963648E-2
5.340640E+2	1.306408E-1	1.442011E-1	1.253018E-1	1.421483E-1	1.260887E-1	1.349863E-1	1.345033E-1	1.172192E-1	1.427690E-1	1.415175E-1	1.258369E-1	1.447649E-1	1.199361E-1	1.246175E-1	1.083391E-1	1.327964E-1	1.317070E-1	1.209007E-1	1.206997E-1	1.282494E-1	1.408841E-1	1.151057E-1	1.847815E-1	1.551565E-1	1.550069E-1	1.430926E-1	1.441232E-1	1.394188E-1	1.380472E-1	1.553377E-1	1.304265E-1	1.467454E-1	1.579679E-1	1.345890E-1	1.245408E-1	1.547442E-1	1.460917E-1	1.443739E-1	1.359448E-1	1.301149E-1	1.438803E-1	1.392137E-1	1.408273E-1	1.232177E-1	1.364061E-1	1.325947E-1	1.417783E-1	1.250086E-1	1.251614E-1	1.507249E-1	1.540482E-1	1.330273E-1	1.376371E-1	1.310772E-1	1.419103E-1	1.283334E-1	1.298012E-1	1.472632E-1	1.410356E-1	1.427932E-1	1.397185E-1	1.271597E-1	1.308857E-1	1.305449E-1	1.322961E-1	1.492199E-1	1.331951E-1	1.320525E-1	1.479421E-1	1.381194E-1	1.448431E-1	1.374110E-1	1.446419E-1	1.422463E-1	1.193039E-1	1.193177E-1	1.234337E-1	1.304971E-1	1.483127E-1	1.176634E-1	1.335771E-1	1.422386E-1	1.218563E-1	1.191557E-1	1.377422E-1	1.251416E-1	1.394822E-1	1.337622E-1	1.406949E-1	1.213852E-1	1.545652E-1	1.139227E-1	1.403598E-1	1.356233E-1	1.421252E-1	1.352035E-1	1.219564E-1	1.364117E-1	1.370044E-1	1.486113E-1	1.145631E-1	1.463021E-1	1.261732E-1	1.410860E-1	1.335989E-1	1.246596E-1	1.332286E-1	1.326395E-1	1.446815E-1	1.196941E-1	1.127960E-1	1.259695E-1	1.413521E-1	1.191609E-1	1.306053E-1	1.168065E-1	1.360475E-1	1.391694E-1	1.319680E-1	1.285150E-1	1.334550E-1	1.271564E-1	1.161697E-1	1.418645E-1	1.164429E-1	1.309819E-1	1.356253E-1	1.384088E-1	1.184489E-1	1.372357E-1	1.276516E-1	1.591978E-1	1.459555E-1	1.488740E-1	1.192803E-1	1.301279E-1	1.420127E-1	1.339990E-1	1.354467E-1	1.230909E-1	1.455871E-1	1.295908E-1	1.310625E-1	1.305254E-1	1.229252E-1	1.329884E-1	1.145326E-1	1.484670E-1	1.580751E-1	1.300104E-1	1.458475E-1	1.337148E-1	1.294001E-1	1.481750E-1	1.294864E-1	1.112136E-1	1.370783E-1	1.411040E-1	1.283035E-1	1.287947E-1	1.384404E-1	1.317323E-1	1.278225E-1	1.442437E-1	1.389261E-1	1.394479E-1	1.338872E-1	1.515178E-1	1.394697E-1	1.448901E-1	1.629589E-1
5.342040E+2	2.083375E-1	1.916135E-1	1.871736E-1	2.093395E-1	2.215124E-1	1.909399E-1	1.992874E-1	2.023830E-1	2.175612E-1	1.993325E-1	2.114131E-1	1.807318E-1	2.072087E-1	1.968151E-1	1.985943E-1	2.184071E-1	1.949342E-1	2.025563E-1	2.158108E-1	1.943521E-1	2.073620E-1	2.060454E-1	3.068028E-1	2.725728E-1	2.434333E-1	2.558595E-1	2.406729E-1	2.466641E-1	2.379558E-1	2.320914E-1	2.144339E-1	2.249402E-1	2.430331E-1	2.037336E-1	2.373652E-1	2.419052E-1	2.240403E-1	2.193463E-1	2.248133E-1	2.395052E-1	2.424752E-1	2.525797E-1	2.264875E-1	2.292613E-1	2.238631E-1	2.030225E-1	2.396782E-1	2.072653E-1	2.308433E-1	2.173105E-1	2.346703E-1	2.079050E-1	2.264319E-1	2.270227E-1	2.254745E-1	2.168420E-1	2.426611E-1	2.287831E-1	2.020852E-1	2.247589E-1	2.090966E-1	2.206000E-1	2.143792E-1	2.190504E-1	2.254216E-1	2.150141E-1	2.098730E-1	2.310018E-1	2.240887E-1	2.104280E-1	1.986143E-1	2.244434E-1	2.147056E-1	2.222218E-1	2.257013E-1	2.157035E-1	2.266332E-1	2.149499E-1	2.294935E-1	2.053128E-1	2.174564E-1	2.297420E-1	2.072083E-1	2.236934E-1	2.047855E-1	2.015960E-1	2.119555E-1	2.261611E-1	2.219746E-1	2.148187E-1	2.058643E-1	2.092479E-1	2.148385E-1	2.144996E-1	2.288520E-1	2.193485E-1	2.148800E-1	2.193155E-1	2.087446E-1	2.404129E-1	2.114674E-1	2.339588E-1	2.035510E-1	2.437712E-1	2.047827E-1	2.132867E-1	2.075714E-1	2.281730E-1	2.089746E-1	1.822075E-1	2.196559E-1	2.034618E-1	2.111673E-1	2.045882E-1	2.138532E-1	2.117713E-1	2.252741E-1	2.127319E-1	2.303487E-1	2.085163E-1	2.378212E-1	2.139122E-1	2.308968E-1	2.315077E-1	2.078071E-1	2.170650E-1	2.274670E-1	2.109247E-1	2.071811E-1	2.318521E-1	2.062236E-1	2.095232E-1	2.192334E-1	2.369618E-1	2.355793E-1	2.244974E-1	2.059917E-1	2.246331E-1	2.046026E-1	2.078694E-1	2.196188E-1	2.138481E-1	2.173462E-1	2.054261E-1	2.073100E-1	2.339092E-1	2.148538E-1	2.153174E-1	2.469622E-1	2.137799E-1	2.273542E-1	2.374098E-1	2.205785E-1	2.280859E-1	2.257553E-1	2.223960E-1	2.007453E-1	2.008882E-1	2.220723E-1	2.183430E-1	2.128374E-1	2.131988E-1	2.234890E-1	2.046421E-1	2.129926E-1	1.998406E-1	2.180858E-1	2.227710E-1	2.184238E-1	2.410828E-1	2.429657E-1
5.343600E+2	3.457721E-1	3.831782E-1	3.238767E-1	3.371594E-1	3.642320E-1	3.545240E-1	3.721304E-1	3.945758E-1	3.489708E-1	3.432609E-1	3.101265E-1	3.573978E-1	3.721805E-1	3.418017E-1	3.668639E-1	3.468022E-1	3.160132E-1	3.752938E-1	3.690840E-1	3.762474E-1	3.496556E-1	3.518751E-1	4.802969E-1	4.607768E-1	4.227560E-1	4.218009E-1	4.104855E-1	4.301803E-1	4.409426E-1	3.916771E-1	3.991319E-1	3.673989E-1	4.161864E-1	3.816381E-1	3.902582E-1	3.813040E-1	3.675867E-1	4.097015E-1	3.910469E-1	3.839668E-1	4.118574E-1	3.808566E-1	4.124722E-1	3.964957E-1	3.859282E-1	3.861031E-1	3.652265E-1	3.627651E-1	4.123062E-1	4.087973E-1	4.027299E-1	3.845149E-1	3.777432E-1	3.648090E-1	3.755152E-1	3.992727E-1	3.761046E-1	3.860915E-1	3.710028E-1	3.751346E-1	3.876637E-1	3.858743E-1	3.668144E-1	3.752130E-1	4.081701E-1	3.892629E-1	3.819543E-1	3.947286E-1	4.022920E-1	3.957338E-1	3.586190E-1	3.753139E-1	3.682746E-1	3.651893E-1	3.933924E-1	4.190237E-1	3.748086E-1	4.248309E-1	3.724410E-1	3.679090E-1	4.052518E-1	4.125398E-1	3.534657E-1	3.656692E-1	3.826827E-1	3.600047E-1	3.912992E-1	3.522856E-1	4.023906E-1	3.549291E-1	4.028855E-1	3.862056E-1	4.032679E-1	3.440487E-1	4.077899E-1	3.985732E-1	3.899040E-1	3.975615E-1	3.855316E-1	3.633307E-1	3.685008E-1	3.873952E-1	3.930010E-1	3.604623E-1	3.776560E-1	3.900412E-1	3.822454E-1	3.730118E-1	3.486935E-1	3.553563E-1	3.690747E-1	3.808494E-1	3.418898E-1	4.060032E-1	3.716130E-1	3.679321E-1	3.645041E-1	3.842651E-1	3.947368E-1	3.701335E-1	4.057334E-1	3.866113E-1	3.850039E-1	4.018065E-1	4.020141E-1	3.495875E-1	3.637314E-1	3.816834E-1	3.711640E-1	3.496112E-1	3.636545E-1	3.809251E-1	3.956799E-1	3.766185E-1	3.784127E-1	3.572169E-1	3.750973E-1	3.399618E-1	3.530096E-1	3.647615E-1	3.643211E-1	3.719364E-1	3.750007E-1	3.863204E-1	3.773854E-1	3.811240E-1	3.873267E-1	3.529327E-1	3.968962E-1	3.830778E-1	3.726230E-1	3.552134E-1	3.887031E-1	3.843495E-1	3.479446E-1	3.691576E-1	3.698189E-1	3.896840E-1	3.751735E-1	3.705883E-1	3.938977E-1	3.511872E-1	3.759911E-1	3.628664E-1	3.657959E-1	3.714467E-1	3.576203E-1	3.719407E-1	4.049764E-1	3.886653E-1	3.864713E-1
5.345050E+2	6.076381E-1	6.290381E-1	5.865346E-1	6.448244E-1	6.067249E-1	6.435771E-1	6.070742E-1	6.077370E-1	6.230585E-1	5.983662E-1	6.268216E-1	6.185572E-1	6.196638E-1	5.917424E-1	6.111586E-1	6.229507E-1	6.262702E-1	6.352709E-1	6.012667E-1	6.404347E-1	6.253433E-1	6.159956E-1	7.845038E-1	7.304036E-1	7.177170E-1	7.145105E-1	6.819332E-1	7.274876E-1	6.967070E-1	6.536903E-1	6.387429E-1	6.952392E-1	6.750633E-1	6.401451E-1	6.433787E-1	6.423180E-1	7.043054E-1	6.107327E-1	6.608323E-1	6.855971E-1	6.751544E-1	6.519093E-1	6.811084E-1	6.396910E-1	6.933888E-1	6.435347E-1	7.053198E-1	6.540940E-1	6.886917E-1	6.335466E-1	6.798265E-1	6.764778E-1	6.756943E-1	6.544297E-1	6.676549E-1	6.624509E-1	6.427910E-1	6.590087E-1	6.370814E-1	6.853655E-1	6.470325E-1	6.648497E-1	6.330916E-1	6.266613E-1	6.122986E-1	6.271288E-1	6.456638E-1	6.483988E-1	6.530691E-1	6.470574E-1	6.252056E-1	6.341131E-1	6.533763E-1	6.733357E-1	6.516137E-1	6.849297E-1	6.714261E-1	6.442113E-1	6.620359E-1	6.465072E-1	6.442208E-1	6.807628E-1	6.519386E-1	6.383319E-1	6.393906E-1	6.550635E-1	6.275087E-1	6.250085E-1	6.757583E-1	6.703631E-1	6.142549E-1	6.741498E-1	6.799090E-1	6.392330E-1	6.221846E-1	6.470707E-1	6.389135E-1	6.335959E-1	5.725700E-1	6.656908E-1	6.543472E-1	6.027508E-1	6.338559E-1	6.726768E-1	6.422616E-1	6.576421E-1	6.768731E-1	6.658662E-1	6.413632E-1	6.691440E-1	6.297999E-1	6.122292E-1	6.521018E-1	6.398747E-1	6.673485E-1	6.444938E-1	6.510891E-1	6.225345E-1	6.380748E-1	6.501321E-1	6.350086E-1	6.790452E-1	6.465153E-1	6.701726E-1	6.684379E-1	6.414859E-1	6.659613E-1	6.838945E-1	6.517314E-1	6.703729E-1	6.626121E-1	6.403857E-1	6.628515E-1	6.684436E-1	6.068817E-1	6.808542E-1	6.330153E-1	6.532843E-1	6.334541E-1	6.338447E-1	5.983573E-1	6.567311E-1	6.372579E-1	6.683906E-1	6.132672E-1	6.674417E-1	6.499498E-1	6.341449E-1	6.192501E-1	6.320669E-1	6.255221E-1	6.624134E-1	6.527924E-1	6.541484E-1	6.221167E-1	6.444984E-1	6.412874E-1	6.367077E-1	6.689752E-1	6.519168E-1	6.881099E-1	6.050598E-1	7.040877E-1	6.470809E-1	6.518564E-1	6.058073E-1	6.506835E-1	6.491219E-1	6.628892E-1	6.348442E-1	6.675516E-1
5.346560E+2	9.855919E-1	9.311639E-1	9.359588E-1	9.696396E-1	9.818107E-1	9.684476E-1	9.566768E-1	9.374747E-1	9.428495E-1	9.169941E-1	9.670487E-1	9.985471E-1	9.539486E-1	9.141264E-1	9.957839E-1	9.542441E-1	9.348141E-1	9.285927E-1	8.970430E-1	9.529622E-1	9.880678E-1	9.459953E-1	1.131095E+0	1.043872E+0	1.072586E+0	1.018005E+0	1.059510E+0	9.791955E-1	1.068008E+0	9.995448E-1	9.939921E-1	9.806418E-1	1.019525E+0	9.768790E-1	1.014926E+0	1.011948E+0	1.042431E+0	9.966919E-1	1.021944E+0	1.015280E+0	1.033527E+0	9.558728E-1	9.828456E-1	9.977072E-1	1.015850E+0	1.004958E+0	1.027503E+0	9.824126E-1	9.471413E-1	1.000660E+0	9.914586E-1	1.020875E+0	1.036024E+0	9.681672E-1	9.704531E-1	1.065257E+0	9.685530E-1	9.452129E-1	9.622553E-1	1.016994E+0	9.741539E-1	9.212898E-1	1.007165E+0	9.699656E-1	1.001709E+0	9.407668E-1	9.909970E-1	1.067725E+0	1.005585E+0	9.487922E-1	9.819104E-1	1.020830E+0	9.774172E-1	1.014210E+0	9.702877E-1	9.808922E-1	9.843699E-1	9.817513E-1	9.806726E-1	9.919725E-1	1.005751E+0	1.002664E+0	1.001557E+0	9.804782E-1	1.015294E+0	9.588207E-1	9.999296E-1	9.952455E-1	9.828085E-1	1.033325E+0	9.405220E-1	9.889022E-1	9.403197E-1	1.029304E+0	9.864094E-1	1.013243E+0	9.237114E-1	9.902250E-1	1.007850E+0	9.902266E-1	1.005683E+0	9.498729E-1	9.995815E-1	1.009789E+0	9.615972E-1	9.931041E-1	9.741703E-1	1.031481E+0	9.774538E-1	9.481121E-1	9.608638E-1	9.381877E-1	9.837094E-1	9.778184E-1	9.518902E-1	9.582019E-1	9.917652E-1	1.024296E+0	9.540640E-1	9.605403E-1	9.469784E-1	9.770563E-1	9.819850E-1	9.818202E-1	1.051886E+0	9.582923E-1	9.494608E-1	1.057210E+0	9.840794E-1	9.618352E-1	1.023801E+0	9.488934E-1	9.975141E-1	9.377313E-1	1.017587E+0	1.004871E+0	1.008782E+0	9.699993E-1	9.679651E-1	9.813063E-1	9.483353E-1	9.729797E-1	9.291064E-1	1.008257E+0	9.556432E-1	9.751917E-1	9.811405E-1	9.732960E-1	9.470551E-1	9.613340E-1	9.697958E-1	9.983636E-1	9.862180E-1	9.909105E-1	9.458736E-1	1.003974E+0	9.619479E-1	1.025446E+0	9.778590E-1	9.881309E-1	1.004903E+0	9.664381E-1	9.921327E-1	9.987569E-1	9.710539E-1	9.930965E-1	9.526151E-1	1.028312E+0	9.426938E-1	1.012232E+0	8.919272E-1
5.348020E+2	1.414429E+0	1.339065E+0	1.326729E+0	1.366364E+0	1.286675E+0	1.332359E+0	1.306079E+0	1.317331E+0	1.341121E+0	1.301553E+0	1.259673E+0	1.332698E+0	1.310525E+0	1.282049E+0	1.335146E+0	1.256648E+0	1.358911E+0	1.342022E+0	1.358192E+0	1.329237E+0	1.320939E+0	1.290546E+0	1.336860E+0	1.346792E+0	1.370681E+0	1.341520E+0	1.365852E+0	1.348366E+0	1.371272E+0	1.300787E+0	1.377472E+0	1.407812E+0	1.352371E+0	1.274597E+0	1.329151E+0	1.292389E+0	1.355062E+0	1.343200E+0	1.394975E+0	1.278038E+0	1.379022E+0	1.307258E+0	1.361156E+0	1.326264E+0	1.323092E+0	1.353897E+0	1.374599E+0	1.343397E+0	1.395089E+0	1.309798E+0	1.324219E+0	1.332528E+0	1.342336E+0	1.346668E+0	1.330862E+0	1.320964E+0	1.393190E+0	1.285964E+0	1.305563E+0	1.388677E+0	1.311331E+0	1.342005E+0	1.333021E+0	1.365844E+0	1.336275E+0	1.358254E+0	1.315136E+0	1.350872E+0	1.313092E+0	1.344213E+0	1.303943E+0	1.391506E+0	1.313901E+0	1.335080E+0	1.339212E+0	1.341610E+0	1.333965E+0	1.344892E+0	1.352692E+0	1.348975E+0	1.323964E+0	1.376721E+0	1.280389E+0	1.408502E+0	1.300665E+0	1.306340E+0	1.335637E+0	1.322370E+0	1.317907E+0	1.343735E+0	1.252164E+0	1.326889E+0	1.300601E+0	1.271241E+0	1.312517E+0	1.349281E+0	1.349880E+0	1.292851E+0	1.356105E+0	1.386791E+0	1.347268E+0	1.269356E+0	1.320871E+0	1.348528E+0	1.312888E+0	1.253315E+0	1.293990E+0	1.321975E+0	1.333535E+0	1.305475E+0	1.319209E+0	1.285676E+0	1.317517E+0	1.290691E+0	1.320350E+0	1.393715E+0	1.311507E+0	1.312136E+0	1.366381E+0	1.293050E+0	1.277072E+0	1.314520E+0	1.376273E+0	1.347936E+0	1.304229E+0	1.320652E+0	1.329794E+0	1.357434E+0	1.323065E+0	1.294859E+0	1.304177E+0	1.287443E+0	1.297504E+0	1.209028E+0	1.272415E+0	1.329890E+0	1.312937E+0	1.337884E+0	1.269415E+0	1.365168E+0	1.304769E+0	1.352313E+0	1.290901E+0	1.294044E+0	1.297704E+0	1.320796E+0	1.304699E+0	1.338095E+0	1.311306E+0	1.343771E+0	1.301132E+0	1.286974E+0	1.302667E+0	1.302106E+0	1.281481E+0	1.277353E+0	1.359173E+0	1.309668E+0	1.328737E+0	1.313985E+0	1.327313E+0	1.282477E+0	1.355067E+0	1.340404E+0	1.306304E+0	1.296030E+0	1.283299E+0	1.356941E+0	1.323321E+0	1.250394E+0	1.409783E+0
5.349580E+2	1.735414E+0	1.728094E+0	1.685409E+0	1.701663E+0	1.737657E+0	1.747761E+0	1.653685E+0	1.704910E+0	1.680770E+0	1.686012E+0	1.736239E+0	1.657736E+0	1.681069E+0	1.719279E+0	1.740950E+0	1.720224E+0	1.737237E+0	1.734224E+0	1.733587E+0	1.757312E+0	1.678585E+0	1.672590E+0	1.735475E+0	1.704390E+0	1.741621E+0	1.678930E+0	1.692396E+0	1.777178E+0	1.783095E+0	1.687411E+0	1.680748E+0	1.711501E+0	1.777561E+0	1.639739E+0	1.775405E+0	1.674278E+0	1.712162E+0	1.681842E+0	1.656925E+0	1.680464E+0	1.759256E+0	1.715481E+0	1.659642E+0	1.642502E+0	1.691818E+0	1.703113E+0	1.674868E+0	1.695524E+0	1.713534E+0	1.699519E+0	1.647703E+0	1.716025E+0	1.744842E+0	1.704578E+0	1.645533E+0	1.661440E+0	1.744142E+0	1.702999E+0	1.669823E+0	1.705671E+0	1.651372E+0	1.693721E+0	1.726836E+0	1.665806E+0	1.766813E+0	1.762517E+0	1.725309E+0	1.675266E+0	1.680773E+0	1.647689E+0	1.692160E+0	1.683507E+0	1.663070E+0	1.688147E+0	1.764215E+0	1.708195E+0	1.722503E+0	1.689801E+0	1.694016E+0	1.714616E+0	1.697840E+0	1.710410E+0	1.668847E+0	1.736308E+0	1.666707E+0	1.659404E+0	1.743109E+0	1.754637E+0	1.693416E+0	1.671755E+0	1.622395E+0	1.687609E+0	1.687291E+0	1.744040E+0	1.670579E+0	1.706671E+0	1.704958E+0	1.694053E+0	1.649480E+0	1.733459E+0	1.666916E+0	1.706753E+0	1.678787E+0	1.739852E+0	1.670375E+0	1.672808E+0	1.678697E+0	1.683782E+0	1.617484E+0	1.613444E+0	1.594582E+0	1.610291E+0	1.674615E+0	1.666839E+0	1.599327E+0	1.601770E+0	1.639685E+0	1.731227E+0	1.711008E+0	1.685200E+0	1.634271E+0	1.717182E+0	1.661496E+0	1.702631E+0	1.694998E+0	1.634310E+0	1.671552E+0	1.697376E+0	1.667438E+0	1.658253E+0	1.680675E+0	1.654675E+0	1.679521E+0	1.698042E+0	1.692795E+0	1.722793E+0	1.660515E+0	1.629186E+0	1.632359E+0	1.640148E+0	1.700499E+0	1.640740E+0	1.605902E+0	1.663276E+0	1.699983E+0	1.631445E+0	1.657155E+0	1.638785E+0	1.699887E+0	1.641084E+0	1.585201E+0	1.674351E+0	1.672183E+0	1.651680E+0	1.632340E+0	1.621201E+0	1.728047E+0	1.688907E+0	1.694023E+0	1.670125E+0	1.630730E+0	1.614307E+0	1.666086E+0	1.653502E+0	1.717347E+0	1.621728E+0	1.656308E+0	1.746426E+0	1.585793E+0	1.645342E+0	1.771777E+0
5.351090E+2	1.931412E+0	1.914320E+0	1.971960E+0	1.923663E+0	1.959350E+0	1.905815E+0	1.861800E+0	1.823699E+0	1.938977E+0	1.853735E+0	1.894335E+0	1.952693E+0	1.958422E+0	1.804880E+0	1.883615E+0	1.853081E+0	1.924025E+0	1.879438E+0	1.904191E+0	1.937507E+0	1.871480E+0	1.844126E+0	1.804413E+0	1.750084E+0	1.877110E+0	1.829964E+0	1.757718E+0	1.879138E+0	1.916717E+0	1.893288E+0	1.882704E+0	1.748391E+0	1.872826E+0	1.821790E+0	1.877374E+0	1.840920E+0	1.898472E+0	1.819732E+0	1.889446E+0	1.819602E+0	1.956861E+0	1.859147E+0	1.898069E+0	1.822843E+0	1.826547E+0	1.911038E+0	1.854832E+0	1.868262E+0	2.017560E+0	1.840669E+0	1.872836E+0	1.860411E+0	1.851869E+0	1.857945E+0	1.851880E+0	1.841539E+0	1.883669E+0	1.870152E+0	1.820874E+0	1.851760E+0	1.797519E+0	1.856600E+0	1.885426E+0	1.878876E+0	1.904713E+0	1.843931E+0	1.816225E+0	1.823208E+0	1.871455E+0	1.820316E+0	1.799922E+0	1.885507E+0	1.822781E+0	1.920299E+0	1.792589E+0	1.891322E+0	1.866047E+0	1.837848E+0	1.851457E+0	1.850051E+0	1.858777E+0	1.904381E+0	1.828966E+0	1.882097E+0	1.782756E+0	1.785353E+0	1.893449E+0	1.844215E+0	1.815554E+0	1.835241E+0	1.813254E+0	1.842013E+0	1.888074E+0	1.913253E+0	1.861035E+0	1.878942E+0	1.887843E+0	1.822565E+0	1.792239E+0	1.829752E+0	1.854094E+0	1.814200E+0	1.804361E+0	1.907671E+0	1.832290E+0	1.831573E+0	1.794743E+0	1.936121E+0	1.788856E+0	1.876416E+0	1.787957E+0	1.768369E+0	1.809380E+0	1.860655E+0	1.828136E+0	1.794313E+0	1.859303E+0	1.778397E+0	1.803114E+0	1.813575E+0	1.772570E+0	1.830019E+0	1.749974E+0	1.942046E+0	1.851214E+0	1.822269E+0	1.779919E+0	1.793494E+0	1.813683E+0	1.884505E+0	1.871656E+0	1.791987E+0	1.822503E+0	1.794949E+0	1.832299E+0	1.827344E+0	1.895781E+0	1.900155E+0	1.806428E+0	1.851326E+0	1.838121E+0	1.811095E+0	1.748491E+0	1.813788E+0	1.791790E+0	1.824168E+0	1.756231E+0	1.792106E+0	1.811589E+0	1.744029E+0	1.744191E+0	1.837524E+0	1.812340E+0	1.789341E+0	1.782247E+0	1.822884E+0	1.734583E+0	1.824285E+0	1.809812E+0	1.802356E+0	1.825412E+0	1.804987E+0	1.815133E+0	1.743291E+0	1.866036E+0	1.795248E+0	1.802379E+0	1.872358E+0	1.774591E+0	1.827788E+0	1.967846E+0
5.352550E+2	1.982125E+0	1.866275E+0	1.946579E+0	2.000872E+0	1.889233E+0	1.944863E+0	1.927561E+0	1.906424E+0	1.923798E+0	1.897258E+0	1.864707E+0	1.873441E+0	1.960206E+0	1.956525E+0	1.914714E+0	1.892751E+0	1.964970E+0	1.927246E+0	1.919395E+0	2.008383E+0	1.976318E+0	1.874663E+0	1.835906E+0	1.885373E+0	1.880945E+0	1.842333E+0	1.888044E+0	1.895841E+0	1.945964E+0	1.928406E+0	1.899751E+0	1.865317E+0	1.926515E+0	1.840126E+0	1.930615E+0	1.820456E+0	1.961046E+0	1.847238E+0	1.879291E+0	1.836636E+0	1.945126E+0	1.845134E+0	1.860504E+0	1.864758E+0	1.895361E+0	1.839797E+0	1.892297E+0	1.856031E+0	1.894086E+0	1.877555E+0	1.862782E+0	1.891743E+0	1.916573E+0	1.845492E+0	1.825087E+0	1.838450E+0	1.957775E+0	1.865607E+0	1.903596E+0	1.901202E+0	1.839699E+0	1.879523E+0	1.802994E+0	1.857074E+0	1.910430E+0	1.917454E+0	1.797981E+0	1.871087E+0	1.895716E+0	1.839993E+0	1.806642E+0	1.865813E+0	1.881816E+0	1.875806E+0	1.844823E+0	1.856905E+0	1.851524E+0	1.828234E+0	1.948403E+0	1.896960E+0	1.911079E+0	1.945106E+0	1.842797E+0	1.865751E+0	1.904054E+0	1.843064E+0	1.855437E+0	1.831192E+0	1.874413E+0	1.914577E+0	1.883873E+0	1.842032E+0	1.919688E+0	1.874916E+0	1.864507E+0	1.923730E+0	1.902084E+0	1.841856E+0	1.875945E+0	1.911406E+0	1.854619E+0	1.859609E+0	1.830911E+0	1.897314E+0	1.837663E+0	1.858005E+0	1.871935E+0	1.816877E+0	1.830446E+0	1.847246E+0	1.823180E+0	1.895820E+0	1.841250E+0	1.851832E+0	1.916912E+0	1.880113E+0	1.815102E+0	1.906519E+0	1.812621E+0	1.774173E+0	1.795163E+0	1.813238E+0	1.847112E+0	1.933979E+0	1.889246E+0	1.849957E+0	1.824436E+0	1.814165E+0	1.874991E+0	1.850506E+0	1.847655E+0	1.848137E+0	1.880558E+0	1.783437E+0	1.864855E+0	1.864339E+0	1.839017E+0	1.856920E+0	1.786178E+0	1.892964E+0	1.771868E+0	1.892454E+0	1.841268E+0	1.866865E+0	1.907515E+0	1.852278E+0	1.816103E+0	1.772783E+0	1.896497E+0	1.836397E+0	1.832582E+0	1.857099E+0	1.807079E+0	1.844919E+0	1.797124E+0	1.824755E+0	1.934412E+0	1.860622E+0	1.829446E+0	1.904931E+0	1.864648E+0	1.778996E+0	1.905334E+0	1.789303E+0	1.877699E+0	1.843345E+0	1.814798E+0	1.865582E+0	1.790478E+0	1.816274E+0	1.803663E+0
5.354060E+2	1.821579E+0	1.795567E+0	1.770544E+0	1.728052E+0	1.728795E+0	1.801944E+0	1.775998E+0	1.742337E+0	1.746912E+0	1.778853E+0	1.760693E+0	1.704080E+0	1.797470E+0	1.797947E+0	1.743385E+0	1.743433E+0	1.742117E+0	1.770728E+0	1.764452E+0	1.808517E+0	1.775449E+0	1.736638E+0	1.673433E+0	1.668987E+0	1.672660E+0	1.684394E+0	1.729171E+0	1.702903E+0	1.748125E+0	1.695249E+0	1.720208E+0	1.763522E+0	1.712164E+0	1.663498E+0	1.694052E+0	1.623330E+0	1.764247E+0	1.655282E+0	1.731679E+0	1.724101E+0	1.725126E+0	1.742484E+0	1.784751E+0	1.665853E+0	1.763201E+0	1.708337E+0	1.687039E+0	1.737266E+0	1.748062E+0	1.716176E+0	1.673413E+0	1.762678E+0	1.694532E+0	1.713332E+0	1.667943E+0	1.746782E+0	1.731124E+0	1.686249E+0	1.716758E+0	1.743328E+0	1.690732E+0	1.774404E+0	1.720954E+0	1.749847E+0	1.794364E+0	1.756377E+0	1.737726E+0	1.747110E+0	1.734944E+0	1.664135E+0	1.711002E+0	1.708764E+0	1.683025E+0	1.684324E+0	1.751446E+0	1.740245E+0	1.707092E+0	1.700092E+0	1.654417E+0	1.733566E+0	1.691999E+0	1.829461E+0	1.712094E+0	1.716217E+0	1.701518E+0	1.655349E+0	1.701519E+0	1.652265E+0	1.710085E+0	1.702148E+0	1.674292E+0	1.622885E+0	1.748889E+0	1.753999E+0	1.638755E+0	1.729523E+0	1.721157E+0	1.745884E+0	1.667143E+0	1.740644E+0	1.673476E+0	1.704749E+0	1.658747E+0	1.738627E+0	1.733530E+0	1.651598E+0	1.773766E+0	1.733480E+0	1.683545E+0	1.775762E+0	1.680977E+0	1.651746E+0	1.715691E+0	1.728767E+0	1.729109E+0	1.617627E+0	1.774087E+0	1.712863E+0	1.793111E+0	1.673087E+0	1.726089E+0	1.678203E+0	1.688126E+0	1.698188E+0	1.721708E+0	1.716272E+0	1.720918E+0	1.663654E+0	1.669440E+0	1.641676E+0	1.718456E+0	1.720837E+0	1.723538E+0	1.716196E+0	1.689976E+0	1.689652E+0	1.731926E+0	1.681283E+0	1.613634E+0	1.661441E+0	1.678252E+0	1.712520E+0	1.689540E+0	1.670206E+0	1.786238E+0	1.715423E+0	1.676494E+0	1.690500E+0	1.754369E+0	1.762450E+0	1.657826E+0	1.734357E+0	1.653369E+0	1.639292E+0	1.695377E+0	1.660672E+0	1.735722E+0	1.708873E+0	1.718258E+0	1.686366E+0	1.689688E+0	1.708317E+0	1.708045E+0	1.657954E+0	1.721062E+0	1.699308E+0	1.695445E+0	1.697295E+0	1.692520E+0	1.666727E+0	1.650420E+0
5.355630E+2	1.567550E+0	1.547487E+0	1.561770E+0	1.536614E+0	1.512352E+0	1.569334E+0	1.535727E+0	1.548095E+0	1.554313E+0	1.498726E+0	1.526823E+0	1.565200E+0	1.593195E+0	1.507238E+0	1.527927E+0	1.547934E+0	1.541534E+0	1.574648E+0	1.531622E+0	1.623031E+0	1.591645E+0	1.489549E+0	1.476283E+0	1.511945E+0	1.477214E+0	1.530838E+0	1.431106E+0	1.570384E+0	1.582354E+0	1.487163E+0	1.542682E+0	1.598703E+0	1.540528E+0	1.474913E+0	1.517233E+0	1.532077E+0	1.531883E+0	1.476645E+0	1.516268E+0	1.503092E+0	1.563905E+0	1.515602E+0	1.575570E+0	1.511174E+0	1.538442E+0	1.565028E+0	1.548870E+0	1.528243E+0	1.554311E+0	1.491700E+0	1.520267E+0	1.575439E+0	1.490864E+0	1.517359E+0	1.517551E+0	1.533846E+0	1.565390E+0	1.521569E+0	1.485509E+0	1.578865E+0	1.487493E+0	1.613727E+0	1.488383E+0	1.514683E+0	1.529257E+0	1.586729E+0	1.535385E+0	1.516950E+0	1.433045E+0	1.491889E+0	1.497788E+0	1.510440E+0	1.551082E+0	1.546534E+0	1.532002E+0	1.527863E+0	1.576774E+0	1.477468E+0	1.600633E+0	1.501157E+0	1.557595E+0	1.623080E+0	1.498325E+0	1.512052E+0	1.554742E+0	1.525716E+0	1.513398E+0	1.493769E+0	1.539076E+0	1.543529E+0	1.500488E+0	1.546165E+0	1.527019E+0	1.547011E+0	1.510202E+0	1.540793E+0	1.549364E+0	1.539470E+0	1.531036E+0	1.497216E+0	1.585129E+0	1.539003E+0	1.535270E+0	1.508531E+0	1.560783E+0	1.540374E+0	1.503536E+0	1.488405E+0	1.512305E+0	1.492008E+0	1.512737E+0	1.494346E+0	1.495363E+0	1.539494E+0	1.501562E+0	1.460669E+0	1.495105E+0	1.483322E+0	1.588112E+0	1.486074E+0	1.475926E+0	1.497567E+0	1.543609E+0	1.523215E+0	1.516315E+0	1.553673E+0	1.506075E+0	1.520480E+0	1.521039E+0	1.487790E+0	1.545788E+0	1.440297E+0	1.493888E+0	1.496712E+0	1.535219E+0	1.507859E+0	1.535919E+0	1.495529E+0	1.439746E+0	1.548791E+0	1.545787E+0	1.543555E+0	1.448848E+0	1.494831E+0	1.508580E+0	1.536447E+0	1.526531E+0	1.510539E+0	1.536866E+0	1.502727E+0	1.449385E+0	1.446525E+0	1.579004E+0	1.499956E+0	1.567570E+0	1.499394E+0	1.508057E+0	1.527901E+0	1.519241E+0	1.510008E+0	1.456674E+0	1.475316E+0	1.521009E+0	1.491673E+0	1.527376E+0	1.494704E+0	1.564464E+0	1.514103E+0	1.522869E+0	1.467705E+0	1.447190E+0
5.357140E+2	1.353827E+0	1.344388E+0	1.355914E+0	1.302066E+0	1.351065E+0	1.400514E+0	1.341929E+0	1.392241E+0	1.358082E+0	1.325050E+0	1.358976E+0	1.324358E+0	1.417994E+0	1.357836E+0	1.334135E+0	1.341445E+0	1.362980E+0	1.332758E+0	1.305466E+0	1.332238E+0	1.304937E+0	1.307141E+0	1.282637E+0	1.323182E+0	1.294754E+0	1.352626E+0	1.362836E+0	1.332064E+0	1.374986E+0	1.311124E+0	1.340147E+0	1.332757E+0	1.377506E+0	1.271837E+0	1.353832E+0	1.298675E+0	1.391956E+0	1.280651E+0	1.316164E+0	1.317157E+0	1.359269E+0	1.319203E+0	1.317081E+0	1.306933E+0	1.360094E+0	1.315464E+0	1.314308E+0	1.345010E+0	1.382649E+0	1.340028E+0	1.349701E+0	1.291209E+0	1.326151E+0	1.375841E+0	1.290988E+0	1.347421E+0	1.380611E+0	1.333098E+0	1.322599E+0	1.341287E+0	1.293217E+0	1.332918E+0	1.289780E+0	1.332138E+0	1.362636E+0	1.295680E+0	1.262999E+0	1.357104E+0	1.323432E+0	1.325905E+0	1.332574E+0	1.308641E+0	1.346410E+0	1.331244E+0	1.338517E+0	1.314206E+0	1.306598E+0	1.286881E+0	1.359612E+0	1.352474E+0	1.330670E+0	1.416510E+0	1.320091E+0	1.308712E+0	1.263493E+0	1.283513E+0	1.326242E+0	1.303937E+0	1.379903E+0	1.397630E+0	1.265121E+0	1.282718E+0	1.317270E+0	1.288432E+0	1.356464E+0	1.365781E+0	1.331834E+0	1.335432E+0	1.370792E+0	1.314744E+0	1.293501E+0	1.310118E+0	1.329412E+0	1.286202E+0	1.332875E+0	1.267065E+0	1.357759E+0	1.320575E+0	1.314018E+0	1.307755E+0	1.293932E+0	1.305768E+0	1.282726E+0	1.376890E+0	1.283611E+0	1.308084E+0	1.323419E+0	1.328398E+0	1.323698E+0	1.314263E+0	1.327591E+0	1.295681E+0	1.316564E+0	1.388690E+0	1.379094E+0	1.328052E+0	1.361485E+0	1.312735E+0	1.329014E+0	1.303921E+0	1.296031E+0	1.319588E+0	1.316781E+0	1.336051E+0	1.334261E+0	1.282769E+0	1.367617E+0	1.308449E+0	1.354640E+0	1.306149E+0	1.310405E+0	1.321035E+0	1.250710E+0	1.333288E+0	1.248203E+0	1.336474E+0	1.306858E+0	1.277641E+0	1.327348E+0	1.259919E+0	1.258743E+0	1.269809E+0	1.407970E+0	1.309981E+0	1.311795E+0	1.248772E+0	1.357565E+0	1.289060E+0	1.275132E+0	1.365539E+0	1.334397E+0	1.258954E+0	1.397319E+0	1.297623E+0	1.366855E+0	1.329150E+0	1.312226E+0	1.256988E+0	1.346090E+0	1.243138E+0	1.255405E+0
5.358600E+2	1.185047E+0	1.115820E+0	1.117143E+0	1.203646E+0	1.158241E+0	1.186878E+0	1.163436E+0	1.163253E+0	1.203030E+0	1.167156E+0	1.143211E+0	1.125933E+0	1.186302E+0	1.155079E+0	1.185992E+0	1.119264E+0	1.180890E+0	1.156099E+0	1.168516E+0	1.215953E+0	1.174807E+0	1.134116E+0	1.146507E+0	1.137751E+0	1.080696E+0	1.139712E+0	1.074845E+0	1.175101E+0	1.218461E+0	1.112974E+0	1.117686E+0	1.115259E+0	1.137302E+0	1.168214E+0	1.158041E+0	1.164577E+0	1.142813E+0	1.166585E+0	1.190750E+0	1.123878E+0	1.132458E+0	1.174370E+0	1.128952E+0	1.075566E+0	1.179298E+0	1.138194E+0	1.142261E+0	1.155462E+0	1.168836E+0	1.139899E+0	1.126047E+0	1.148995E+0	1.161608E+0	1.112562E+0	1.129919E+0	1.167250E+0	1.141772E+0	1.105503E+0	1.159255E+0	1.166180E+0	1.143121E+0	1.137162E+0	1.134836E+0	1.133044E+0	1.175189E+0	1.201091E+0	1.156062E+0	1.182658E+0	1.144871E+0	1.141669E+0	1.105744E+0	1.157256E+0	1.139472E+0	1.161818E+0	1.163540E+0	1.139675E+0	1.192154E+0	1.140363E+0	1.129605E+0	1.111663E+0	1.179696E+0	1.245082E+0	1.122403E+0	1.146396E+0	1.130291E+0	1.129395E+0	1.160035E+0	1.103680E+0	1.114311E+0	1.104254E+0	1.148903E+0	1.100229E+0	1.189248E+0	1.116037E+0	1.178213E+0	1.123259E+0	1.228939E+0	1.103552E+0	1.117606E+0	1.153626E+0	1.164390E+0	1.121400E+0	1.118235E+0	1.168947E+0	1.186076E+0	1.145004E+0	1.164602E+0	1.156391E+0	1.108540E+0	1.172145E+0	1.117819E+0	1.128395E+0	1.123679E+0	1.169791E+0	1.130298E+0	1.189507E+0	1.063112E+0	1.175889E+0	1.130187E+0	1.108785E+0	1.141758E+0	1.146960E+0	1.162635E+0	1.185547E+0	1.138848E+0	1.172243E+0	1.120121E+0	1.136674E+0	1.120686E+0	1.104114E+0	1.139084E+0	1.130865E+0	1.160635E+0	1.134189E+0	1.140013E+0	1.140631E+0	1.188766E+0	1.153453E+0	1.082385E+0	1.130473E+0	1.115120E+0	1.128729E+0	1.112463E+0	1.181728E+0	1.183679E+0	1.141221E+0	1.109464E+0	1.133371E+0	1.163636E+0	1.150247E+0	1.127342E+0	1.156906E+0	1.145947E+0	1.203238E+0	1.149705E+0	1.117368E+0	1.139111E+0	1.141319E+0	1.147839E+0	1.132123E+0	1.151243E+0	1.104251E+0	1.179129E+0	1.207237E+0	1.186401E+0	1.159224E+0	1.121942E+0	1.141402E+0	1.207688E+0	1.100557E+0	1.273796E+0
5.360120E+2	9.715509E-1	9.637962E-1	9.519137E-1	1.014868E+0	9.410483E-1	1.021864E+0	9.585412E-1	9.773057E-1	9.578104E-1	9.284079E-1	9.390638E-1	9.621915E-1	9.883151E-1	9.610237E-1	9.691318E-1	9.300804E-1	9.813107E-1	9.789754E-1	9.649223E-1	9.898553E-1	9.945054E-1	9.297084E-1	9.469180E-1	9.544860E-1	9.608595E-1	9.580415E-1	9.538988E-1	9.896958E-1	9.707107E-1	9.420486E-1	9.478788E-1	9.696791E-1	9.917247E-1	9.339582E-1	9.988909E-1	9.827191E-1	1.007837E+0	9.159344E-1	9.660049E-1	9.544463E-1	1.041172E+0	9.755213E-1	9.301262E-1	9.492497E-1	9.582977E-1	9.188756E-1	9.896345E-1	9.382983E-1	1.007191E+0	9.186914E-1	9.548389E-1	9.409558E-1	9.764027E-1	9.744639E-1	9.532078E-1	9.670238E-1	9.750314E-1	9.656882E-1	9.477801E-1	9.887650E-1	9.381561E-1	9.445363E-1	9.372927E-1	9.740449E-1	9.815481E-1	9.800706E-1	9.566135E-1	9.577281E-1	9.861774E-1	9.499387E-1	9.563432E-1	9.865636E-1	9.429544E-1	9.486416E-1	9.818969E-1	9.186455E-1	9.671164E-1	9.677094E-1	9.796373E-1	9.593102E-1	9.739990E-1	1.015696E+0	9.578961E-1	9.787724E-1	9.661393E-1	9.125831E-1	9.881464E-1	9.932359E-1	1.010147E+0	9.979216E-1	9.508800E-1	9.482345E-1	9.841794E-1	9.888588E-1	9.703981E-1	9.760667E-1	9.905602E-1	9.212104E-1	9.023106E-1	9.553381E-1	9.938028E-1	9.602920E-1	9.596195E-1	9.818737E-1	1.005425E+0	9.309097E-1	9.705787E-1	9.697892E-1	9.344453E-1	9.465421E-1	9.912434E-1	9.388992E-1	9.509762E-1	9.573312E-1	9.633492E-1	9.808922E-1	9.884618E-1	9.245473E-1	9.621569E-1	9.433479E-1	1.016169E+0	9.630060E-1	9.925723E-1	9.541688E-1	9.975594E-1	9.375344E-1	9.890311E-1	1.019364E+0	9.646471E-1	9.761192E-1	9.621476E-1	9.651226E-1	9.886061E-1	9.504405E-1	9.141413E-1	9.261313E-1	1.032377E+0	9.495890E-1	9.528017E-1	9.996959E-1	9.216979E-1	9.640312E-1	9.527307E-1	9.786789E-1	9.680182E-1	9.544625E-1	1.013912E+0	9.567622E-1	9.645997E-1	9.999732E-1	8.919757E-1	9.615249E-1	9.536908E-1	9.289778E-1	9.523614E-1	9.277821E-1	1.009055E+0	9.651472E-1	9.581470E-1	9.681900E-1	9.963011E-1	9.656791E-1	1.002483E+0	9.533845E-1	9.850848E-1	9.792090E-1	9.861541E-1	9.752812E-1	1.010989E+0	9.462529E-1	1.020828E+0
5.362630E+2	7.424471E-1	7.573222E-1	7.537571E-1	7.478112E-1	7.343705E-1	7.821178E-1	7.389825E-1	7.157907E-1	7.670759E-1	7.253025E-1	7.599071E-1	7.252909E-1	7.626086E-1	7.570631E-1	7.317617E-1	7.138227E-1	7.665771E-1	7.213500E-1	7.269877E-1	7.364657E-1	7.626111E-1	7.345694E-1	7.330823E-1	7.078950E-1	7.136382E-1	7.124848E-1	7.216781E-1	7.613797E-1	7.685348E-1	7.010297E-1	7.577935E-1	7.687064E-1	7.626283E-1	6.934175E-1	7.335766E-1	7.334700E-1	7.174388E-1	7.270929E-1	7.395730E-1	7.123254E-1	7.599220E-1	7.259719E-1	7.064439E-1	7.158855E-1	7.876333E-1	7.210129E-1	7.563924E-1	7.224961E-1	7.361657E-1	7.432344E-1	7.446641E-1	7.439308E-1	7.347703E-1	7.400562E-1	7.397919E-1	7.514455E-1	7.200676E-1	7.162016E-1	7.441875E-1	7.512764E-1	7.651930E-1	7.574366E-1	7.475820E-1	7.355106E-1	7.413526E-1	7.588440E-1	7.504211E-1	6.926371E-1	7.343977E-1	7.282606E-1	7.265078E-1	7.164570E-1	7.603331E-1	7.120004E-1	7.575799E-1	7.753311E-1	7.702777E-1	6.985075E-1	7.351190E-1	7.403476E-1	7.570386E-1	7.369090E-1	7.083942E-1	7.139934E-1	7.304540E-1	7.334943E-1	7.695586E-1	7.579937E-1	7.124829E-1	7.439988E-1	7.320075E-1	6.904671E-1	7.019386E-1	7.437412E-1	7.231554E-1	7.565040E-1	7.847212E-1	7.210652E-1	7.496423E-1	7.643950E-1	7.361229E-1	7.805097E-1	7.352981E-1	7.270518E-1	7.421498E-1	7.316609E-1	7.226572E-1	7.643532E-1	7.345685E-1	7.092246E-1	7.788630E-1	7.478373E-1	7.082596E-1	7.667668E-1	7.649989E-1	7.150795E-1	7.569805E-1	7.692476E-1	7.629960E-1	7.547138E-1	7.409045E-1	7.635496E-1	7.234039E-1	7.407911E-1	7.724722E-1	8.132309E-1	7.092337E-1	7.465040E-1	7.202904E-1	7.791680E-1	7.229106E-1	7.180080E-1	7.436209E-1	7.372449E-1	7.284570E-1	6.841167E-1	7.735456E-1	7.592714E-1	7.308187E-1	7.128353E-1	7.609196E-1	7.102617E-1	7.380160E-1	7.250904E-1	7.384808E-1	7.781955E-1	7.118584E-1	7.163447E-1	7.482808E-1	7.411503E-1	7.335866E-1	7.546802E-1	7.494160E-1	7.162838E-1	7.412004E-1	7.423418E-1	7.846098E-1	7.565392E-1	7.452417E-1	7.587772E-1	7.824535E-1	6.979283E-1	7.885725E-1	7.468591E-1	7.527323E-1	7.176279E-1	7.091931E-1	7.693502E-1	7.804602E-1	7.815935E-1	6.654763E-1
5.365040E+2	6.144773E-1	6.026084E-1	5.850362E-1	5.850536E-1	5.859039E-1	6.014488E-1	5.678712E-1	5.835592E-1	5.535047E-1	5.723845E-1	5.581804E-1	5.988646E-1	6.149848E-1	5.644117E-1	5.784053E-1	5.759373E-1	6.236497E-1	6.278837E-1	5.871661E-1	6.086860E-1	6.152934E-1	6.099196E-1	6.226028E-1	6.256512E-1	5.874087E-1	5.868426E-1	6.035615E-1	6.097755E-1	6.403438E-1	5.849957E-1	5.653550E-1	5.835140E-1	6.095777E-1	5.585928E-1	6.009173E-1	5.693031E-1	5.982679E-1	5.620949E-1	5.787976E-1	5.838578E-1	6.525665E-1	5.728972E-1	6.088450E-1	6.018007E-1	5.904422E-1	5.975078E-1	6.209436E-1	5.947922E-1	6.256848E-1	6.163672E-1	6.118073E-1	6.040362E-1	6.386856E-1	5.617033E-1	5.766489E-1	5.768237E-1	6.206335E-1	5.447914E-1	5.919002E-1	5.736876E-1	5.855476E-1	5.720445E-1	5.948506E-1	5.774709E-1	6.203414E-1	5.762758E-1	6.283516E-1	5.906096E-1	5.344716E-1	5.976590E-1	5.643229E-1	5.913191E-1	6.381466E-1	5.507703E-1	6.006917E-1	5.971732E-1	5.971964E-1	5.825860E-1	5.540339E-1	5.920336E-1	5.752413E-1	6.148609E-1	5.742693E-1	6.150839E-1	6.138138E-1	5.772635E-1	6.037150E-1	5.774960E-1	5.992835E-1	6.228751E-1	5.536787E-1	5.749110E-1	6.122033E-1	5.889920E-1	6.008831E-1	5.953706E-1	6.223795E-1	5.617677E-1	6.087136E-1	6.260464E-1	5.878345E-1	6.381726E-1	5.997672E-1	6.058345E-1	6.042916E-1	5.911784E-1	5.856098E-1	5.823794E-1	6.047773E-1	6.143659E-1	5.798341E-1	5.711615E-1	5.682257E-1	5.657306E-1	5.733743E-1	5.959950E-1	6.077481E-1	5.926490E-1	5.723476E-1	6.019753E-1	5.579049E-1	5.908927E-1	6.167423E-1	6.088112E-1	6.223924E-1	6.035220E-1	5.995053E-1	5.698325E-1	5.881133E-1	6.049218E-1	6.037871E-1	6.226779E-1	6.562386E-1	6.143725E-1	5.955033E-1	5.940357E-1	6.217981E-1	5.323631E-1	5.922811E-1	5.993009E-1	5.985463E-1	6.084341E-1	5.628336E-1	5.844215E-1	5.957448E-1	5.651081E-1	6.087725E-1	6.134542E-1	5.727614E-1	6.212269E-1	5.915496E-1	5.703747E-1	6.093460E-1	5.880818E-1	6.198340E-1	5.856460E-1	6.207337E-1	5.680906E-1	6.047835E-1	6.084325E-1	5.991283E-1	5.900469E-1	6.366857E-1	5.895644E-1	5.932903E-1	6.024360E-1	5.641943E-1	5.812869E-1	5.654148E-1	6.182859E-1	6.484739E-1
5.367810E+2	5.080058E-1	4.993975E-1	4.964063E-1	4.937170E-1	5.408110E-1	5.252261E-1	4.910109E-1	5.056426E-1	5.254529E-1	5.146426E-1	5.082794E-1	4.674234E-1	5.442627E-1	5.385794E-1	4.984220E-1	5.182337E-1	5.063329E-1	4.955578E-1	5.407006E-1	5.388679E-1	5.195443E-1	4.763842E-1	5.286809E-1	5.640567E-1	5.137168E-1	5.440180E-1	5.165974E-1	5.670451E-1	5.142955E-1	5.344821E-1	5.264025E-1	5.280471E-1	5.397906E-1	5.275726E-1	5.108082E-1	5.039172E-1	5.058675E-1	4.632292E-1	5.272001E-1	4.918095E-1	5.221895E-1	5.294017E-1	5.059853E-1	4.879961E-1	4.854719E-1	4.979651E-1	5.571980E-1	5.344238E-1	4.834847E-1	5.331201E-1	5.212837E-1	5.056779E-1	5.127331E-1	5.132310E-1	4.754081E-1	5.109883E-1	5.227202E-1	5.094198E-1	5.272079E-1	4.867401E-1	5.077994E-1	5.443946E-1	5.363148E-1	5.246926E-1	5.354946E-1	4.964545E-1	5.362652E-1	5.051754E-1	5.301250E-1	5.043216E-1	4.849793E-1	4.990518E-1	4.951618E-1	5.002913E-1	5.237262E-1	4.929065E-1	5.185158E-1	5.048335E-1	5.228300E-1	4.886729E-1	5.137016E-1	5.143032E-1	5.032821E-1	5.104279E-1	4.766832E-1	4.846710E-1	5.017863E-1	5.320568E-1	5.295963E-1	4.778153E-1	5.222035E-1	5.119185E-1	5.116100E-1	4.987368E-1	4.909262E-1	5.165716E-1	5.556126E-1	5.207367E-1	4.992467E-1	4.974775E-1	5.213577E-1	5.091202E-1	4.862791E-1	5.019504E-1	4.921606E-1	4.764739E-1	5.094224E-1	4.926306E-1	5.105687E-1	5.133216E-1	5.129731E-1	5.001193E-1	5.048294E-1	5.296575E-1	5.179870E-1	5.066165E-1	5.297701E-1	5.385663E-1	5.347430E-1	5.293189E-1	4.919055E-1	5.594851E-1	4.954495E-1	5.139998E-1	4.985490E-1	5.227972E-1	5.390360E-1	4.985133E-1	5.243064E-1	5.340877E-1	5.216837E-1	5.358115E-1	5.404934E-1	5.211750E-1	5.176323E-1	5.242006E-1	5.157945E-1	5.277835E-1	5.094434E-1	5.295526E-1	4.967941E-1	5.288716E-1	5.067110E-1	5.305281E-1	4.881696E-1	5.250369E-1	4.978375E-1	5.102157E-1	5.306208E-1	5.196079E-1	4.708893E-1	5.012492E-1	5.159915E-1	4.836938E-1	5.214234E-1	4.961867E-1	5.049251E-1	5.138387E-1	5.524986E-1	5.097501E-1	5.204848E-1	5.191314E-1	5.359617E-1	5.267653E-1	5.410606E-1	5.137294E-1	4.953394E-1	5.508500E-1	5.364604E-1	5.130047E-1	4.942799E-1
5.370070E+2	4.940519E-1	5.190816E-1	4.474880E-1	4.894351E-1	5.033695E-1	5.023906E-1	4.884892E-1	4.501668E-1	5.079791E-1	4.612455E-1	4.953256E-1	5.101447E-1	5.063411E-1	4.593631E-1	4.967699E-1	5.038233E-1	4.724556E-1	4.758324E-1	4.783323E-1	4.902940E-1	4.914477E-1	4.754398E-1	5.218503E-1	5.181190E-1	5.102458E-1	4.982098E-1	5.039252E-1	5.422456E-1	4.842789E-1	4.768545E-1	5.019439E-1	5.016924E-1	4.919819E-1	4.228513E-1	4.959376E-1	4.842965E-1	5.021332E-1	5.083373E-1	4.869888E-1	4.514019E-1	5.467819E-1	4.990749E-1	5.160474E-1	5.171500E-1	4.881544E-1	4.473038E-1	4.747676E-1	4.934822E-1	4.935907E-1	5.164852E-1	4.975415E-1	4.726685E-1	5.200240E-1	4.816262E-1	4.641786E-1	4.400946E-1	5.202934E-1	5.146176E-1	5.147521E-1	4.693295E-1	4.798018E-1	4.651899E-1	5.069549E-1	4.816308E-1	5.202025E-1	5.051424E-1	4.862583E-1	4.899844E-1	4.969914E-1	5.063771E-1	5.111859E-1	4.824423E-1	5.478800E-1	4.976613E-1	5.187352E-1	4.899735E-1	5.006203E-1	5.407114E-1	5.026667E-1	4.919734E-1	4.674984E-1	5.151165E-1	4.659424E-1	5.006928E-1	4.829491E-1	4.926859E-1	4.687921E-1	4.865555E-1	4.622040E-1	5.058290E-1	4.701732E-1	4.902085E-1	4.627962E-1	4.873254E-1	5.093309E-1	4.947073E-1	4.796426E-1	5.085000E-1	4.946398E-1	4.555784E-1	4.931076E-1	4.799990E-1	4.794882E-1	4.819249E-1	4.992597E-1	5.167789E-1	4.831361E-1	5.096856E-1	4.864392E-1	4.749749E-1	5.162634E-1	4.801001E-1	4.975420E-1	4.787772E-1	4.857273E-1	4.470352E-1	4.807809E-1	4.884630E-1	5.030431E-1	4.958092E-1	4.896271E-1	4.945134E-1	4.726318E-1	5.247275E-1	5.400110E-1	4.970013E-1	5.269944E-1	5.260215E-1	5.265455E-1	5.233818E-1	5.211740E-1	4.630392E-1	5.187010E-1	4.944935E-1	5.145853E-1	4.800079E-1	5.604945E-1	5.040146E-1	4.978546E-1	4.997158E-1	5.107077E-1	4.890290E-1	4.518800E-1	4.834897E-1	5.428171E-1	5.131273E-1	4.993969E-1	4.956555E-1	5.139112E-1	5.026860E-1	4.997585E-1	4.894027E-1	4.908162E-1	4.849706E-1	5.063333E-1	4.773412E-1	5.347114E-1	5.141850E-1	5.236555E-1	4.951565E-1	5.529611E-1	5.038294E-1	4.835668E-1	5.163914E-1	4.846418E-1	5.089036E-1	5.135754E-1	4.929937E-1	5.526830E-1	5.122203E-1	4.352101E-1
5.372690E+2	5.285392E-1	4.952119E-1	4.926328E-1	5.123693E-1	5.064439E-1	5.291163E-1	5.041845E-1	5.069533E-1	5.004574E-1	5.124243E-1	5.207821E-1	5.147798E-1	5.039320E-1	5.266930E-1	5.104336E-1	5.006022E-1	5.037595E-1	5.338846E-1	4.992554E-1	5.432516E-1	4.989720E-1	5.141978E-1	5.277984E-1	5.237237E-1	5.219158E-1	5.349590E-1	5.434383E-1	5.671758E-1	5.232488E-1	4.996645E-1	5.288500E-1	5.685438E-1	5.297626E-1	5.294106E-1	5.130202E-1	5.290008E-1	5.272462E-1	5.138320E-1	5.325723E-1	5.336750E-1	5.377010E-1	5.159124E-1	5.286019E-1	4.928109E-1	5.119221E-1	5.274193E-1	5.264024E-1	5.209972E-1	5.084253E-1	5.312300E-1	5.393546E-1	5.458355E-1	5.226528E-1	5.400934E-1	5.228974E-1	5.253783E-1	4.943740E-1	5.181830E-1	5.313649E-1	5.189604E-1	5.093620E-1	5.176179E-1	5.281173E-1	4.958072E-1	5.358540E-1	5.307741E-1	5.115506E-1	5.069758E-1	5.345271E-1	5.091462E-1	4.895664E-1	5.222124E-1	5.160742E-1	5.484741E-1	5.341143E-1	5.286065E-1	5.504005E-1	5.128126E-1	5.657806E-1	5.188693E-1	5.447091E-1	5.491945E-1	5.400260E-1	5.240489E-1	5.130357E-1	5.295895E-1	5.348364E-1	5.142357E-1	5.643156E-1	5.013173E-1	5.332576E-1	5.257404E-1	5.386218E-1	5.349310E-1	4.972207E-1	5.632596E-1	5.384392E-1	4.873919E-1	5.064709E-1	4.925436E-1	5.424129E-1	5.419169E-1	5.206865E-1	5.422037E-1	5.340591E-1	5.231146E-1	5.325528E-1	5.416500E-1	5.272219E-1	5.233938E-1	5.216942E-1	5.131011E-1	5.000254E-1	5.017591E-1	5.198574E-1	5.169642E-1	5.136201E-1	5.418733E-1	5.444255E-1	4.823971E-1	5.487281E-1	5.529887E-1	5.277278E-1	5.322241E-1	5.491007E-1	5.328765E-1	5.076742E-1	4.858444E-1	5.086813E-1	5.436207E-1	5.459122E-1	4.616638E-1	5.269703E-1	5.291651E-1	5.375294E-1	5.284326E-1	5.087679E-1	5.503457E-1	5.231116E-1	5.150806E-1	5.258819E-1	5.230061E-1	5.194134E-1	5.418874E-1	4.966746E-1	5.389466E-1	4.843538E-1	5.261117E-1	5.123275E-1	5.186767E-1	5.167856E-1	5.059246E-1	5.450478E-1	5.252622E-1	5.199117E-1	4.997897E-1	5.241110E-1	5.110978E-1	5.743755E-1	5.354598E-1	5.354439E-1	5.156037E-1	5.653477E-1	5.036525E-1	5.047618E-1	4.988358E-1	5.312082E-1	5.471266E-1	5.760571E-1	5.314597E-1	5.183668E-1
5.375060E+2	5.667973E-1	5.548755E-1	5.249501E-1	5.921245E-1	5.360357E-1	5.917845E-1	5.410909E-1	5.627723E-1	5.456118E-1	5.556829E-1	5.660308E-1	5.536970E-1	5.495352E-1	5.635363E-1	5.758249E-1	5.309807E-1	5.166794E-1	5.615347E-1	5.424976E-1	5.534600E-1	5.384450E-1	5.550720E-1	5.668680E-1	5.697901E-1	5.618076E-1	5.937131E-1	5.610807E-1	5.870061E-1	5.645556E-1	5.367390E-1	5.665228E-1	5.664039E-1	5.453455E-1	5.808999E-1	5.592980E-1	5.544114E-1	5.353349E-1	5.503751E-1	5.827377E-1	5.607683E-1	5.690146E-1	5.730472E-1	6.132007E-1	5.723475E-1	5.224649E-1	5.421017E-1	5.664710E-1	5.634397E-1	5.860555E-1	5.783779E-1	5.683797E-1	5.766142E-1	5.495600E-1	5.547253E-1	5.652365E-1	5.494998E-1	5.255527E-1	5.448912E-1	5.548161E-1	5.561898E-1	5.541715E-1	5.328637E-1	5.356611E-1	5.429273E-1	5.701040E-1	5.569113E-1	5.683610E-1	5.401411E-1	5.576758E-1	5.593791E-1	5.321485E-1	5.757835E-1	5.935605E-1	5.794737E-1	5.719798E-1	5.597693E-1	5.706140E-1	5.551825E-1	5.943457E-1	5.613287E-1	5.183250E-1	5.652178E-1	5.258077E-1	5.861603E-1	5.330314E-1	5.447611E-1	5.358216E-1	5.534394E-1	5.279866E-1	6.023856E-1	5.199131E-1	5.596336E-1	5.976569E-1	5.312557E-1	5.634524E-1	5.625510E-1	5.616407E-1	5.444071E-1	5.718109E-1	5.826741E-1	5.807086E-1	5.531770E-1	5.590916E-1	5.700686E-1	5.683458E-1	5.640732E-1	6.078437E-1	5.855215E-1	5.304902E-1	5.919381E-1	5.676607E-1	5.714212E-1	5.424658E-1	5.683760E-1	5.802070E-1	5.696553E-1	5.569502E-1	5.922494E-1	5.612003E-1	5.318727E-1	5.321727E-1	6.091412E-1	5.871369E-1	5.433555E-1	6.265889E-1	5.769208E-1	6.066125E-1	5.671174E-1	5.403682E-1	5.491074E-1	5.599241E-1	5.377413E-1	4.964112E-1	5.423002E-1	5.539694E-1	5.620614E-1	5.620946E-1	5.629299E-1	5.821962E-1	5.322543E-1	5.210634E-1	5.709494E-1	5.406764E-1	5.590195E-1	5.737154E-1	5.759204E-1	5.565105E-1	5.384348E-1	5.655270E-1	5.613615E-1	5.386074E-1	5.358485E-1	5.694004E-1	5.380203E-1	5.466021E-1	5.417306E-1	5.524388E-1	5.607464E-1	5.567218E-1	5.589117E-1	6.110307E-1	5.552106E-1	5.424502E-1	5.523069E-1	5.780344E-1	5.822394E-1	5.690345E-1	5.760888E-1	5.828895E-1	5.669562E-1	5.864202E-1
5.377690E+2	6.409077E-1	6.482870E-1	6.101670E-1	6.365003E-1	6.250303E-1	6.430094E-1	6.621302E-1	6.902797E-1	6.323700E-1	6.518326E-1	6.396327E-1	6.502912E-1	6.186981E-1	6.657879E-1	6.720826E-1	6.442377E-1	6.601924E-1	6.428505E-1	6.734021E-1	6.815431E-1	6.206014E-1	6.688323E-1	6.533890E-1	6.380189E-1	6.267151E-1	6.717458E-1	7.096840E-1	6.887809E-1	6.643214E-1	6.752531E-1	6.456172E-1	6.660251E-1	6.262524E-1	6.578239E-1	6.499974E-1	6.564217E-1	6.977617E-1	6.219534E-1	6.682440E-1	6.395605E-1	6.435695E-1	6.556404E-1	6.587137E-1	6.383455E-1	6.389713E-1	6.561594E-1	6.786983E-1	6.438087E-1	7.027882E-1	6.720291E-1	6.789015E-1	6.815138E-1	6.630006E-1	6.420207E-1	6.826463E-1	6.442801E-1	6.294773E-1	6.562701E-1	6.677283E-1	6.595593E-1	6.461795E-1	6.187533E-1	6.353068E-1	6.801445E-1	6.677305E-1	6.677163E-1	6.612441E-1	6.795163E-1	6.621869E-1	6.598452E-1	6.527045E-1	6.991662E-1	6.804597E-1	6.852439E-1	6.621187E-1	6.827699E-1	6.943654E-1	6.752234E-1	6.274414E-1	6.557174E-1	6.858118E-1	6.597821E-1	6.683217E-1	6.297103E-1	6.804559E-1	6.622451E-1	6.486056E-1	6.544716E-1	6.374517E-1	6.463322E-1	6.622434E-1	6.356833E-1	6.695996E-1	6.899297E-1	6.224253E-1	6.739024E-1	6.534339E-1	6.390885E-1	6.524464E-1	6.962473E-1	6.287101E-1	6.750493E-1	6.642712E-1	6.600927E-1	6.550791E-1	6.694477E-1	6.663953E-1	7.031666E-1	6.173243E-1	6.297327E-1	6.374474E-1	6.434115E-1	6.327316E-1	6.677748E-1	6.683834E-1	6.547324E-1	6.713234E-1	6.427092E-1	6.561767E-1	6.392630E-1	6.855576E-1	6.555247E-1	6.472594E-1	6.692085E-1	6.870235E-1	7.001536E-1	6.543225E-1	6.784251E-1	6.541397E-1	6.627179E-1	7.069425E-1	6.697424E-1	6.927250E-1	6.373696E-1	6.664182E-1	6.577973E-1	6.733030E-1	6.792600E-1	6.524349E-1	6.487840E-1	6.468351E-1	6.584181E-1	6.352316E-1	6.691401E-1	6.863554E-1	6.960929E-1	6.300504E-1	6.625975E-1	6.714858E-1	6.914256E-1	6.235810E-1	6.366566E-1	6.923663E-1	6.526060E-1	6.924084E-1	6.914719E-1	7.241073E-1	6.762726E-1	6.556773E-1	6.493007E-1	6.881591E-1	6.821742E-1	6.644881E-1	6.427433E-1	6.600572E-1	6.903248E-1	6.872056E-1	6.970046E-1	6.688989E-1	6.561503E-1	7.268028E-1
5.380270E+2	7.670831E-1	7.489265E-1	7.775797E-1	7.330565E-1	7.368402E-1	7.378876E-1	7.475107E-1	7.568638E-1	7.544486E-1	7.376573E-1	7.443643E-1	7.672750E-1	7.263153E-1	7.739752E-1	7.311931E-1	7.294762E-1	7.674690E-1	7.520403E-1	7.306847E-1	7.884471E-1	7.187389E-1	7.705725E-1	7.763484E-1	7.866091E-1	7.520873E-1	7.750760E-1	7.616233E-1	7.854123E-1	7.762765E-1	7.887726E-1	8.204247E-1	7.841228E-1	7.634460E-1	7.437727E-1	7.828772E-1	7.258193E-1	7.416378E-1	7.405870E-1	7.764228E-1	7.402273E-1	7.394758E-1	7.715871E-1	7.370604E-1	7.525806E-1	7.497745E-1	7.347911E-1	7.451166E-1	7.866455E-1	7.579686E-1	7.858128E-1	7.552227E-1	7.907228E-1	8.017350E-1	7.428557E-1	7.321823E-1	7.688927E-1	7.942805E-1	7.694371E-1	7.831785E-1	7.894739E-1	7.636749E-1	8.147836E-1	7.552552E-1	7.546999E-1	7.407855E-1	7.533397E-1	7.638131E-1	7.596546E-1	7.669235E-1	7.371813E-1	7.357594E-1	7.771479E-1	7.355970E-1	7.275837E-1	7.660481E-1	7.359289E-1	7.996297E-1	7.888230E-1	7.727127E-1	7.858433E-1	7.372388E-1	7.880494E-1	7.322754E-1	7.674232E-1	7.289355E-1	7.704244E-1	7.859388E-1	7.426415E-1	7.077006E-1	7.865715E-1	7.601501E-1	7.491380E-1	8.219838E-1	7.775411E-1	7.728160E-1	7.872773E-1	7.856347E-1	7.900956E-1	7.735191E-1	7.647970E-1	7.620270E-1	7.864834E-1	7.819154E-1	7.808924E-1	7.711024E-1	7.515696E-1	7.791535E-1	7.615701E-1	7.711445E-1	7.842883E-1	7.516002E-1	7.217572E-1	7.558392E-1	7.921945E-1	7.653535E-1	7.393024E-1	7.741795E-1	7.972609E-1	7.720015E-1	7.691457E-1	7.600679E-1	7.758615E-1	7.463561E-1	7.409302E-1	7.926656E-1	7.942935E-1	7.494894E-1	7.600122E-1	7.975538E-1	7.607761E-1	7.466147E-1	7.709902E-1	7.652414E-1	7.376908E-1	7.265755E-1	7.692759E-1	7.638175E-1	7.903776E-1	7.630786E-1	7.595279E-1	7.191234E-1	7.564511E-1	7.586610E-1	7.927568E-1	7.592562E-1	7.930609E-1	7.718123E-1	7.541436E-1	7.670209E-1	7.763134E-1	7.377412E-1	7.664274E-1	7.734732E-1	7.441302E-1	8.100655E-1	7.873193E-1	7.571819E-1	7.714833E-1	7.602723E-1	7.560186E-1	7.697072E-1	7.589918E-1	8.003942E-1	7.570183E-1	8.186033E-1	7.540262E-1	7.597975E-1	7.845298E-1	8.251067E-1	7.598451E-1	7.105973E-1
5.382690E+2	9.433104E-1	9.821397E-1	8.824431E-1	9.210282E-1	8.356205E-1	9.375391E-1	9.061180E-1	9.487806E-1	9.045100E-1	9.364959E-1	9.246377E-1	8.987845E-1	9.340732E-1	8.929804E-1	9.180413E-1	9.209570E-1	8.986402E-1	8.829855E-1	9.361398E-1	9.238997E-1	8.819401E-1	9.191948E-1	1.027891E+0	9.249990E-1	9.501756E-1	9.584882E-1	9.705018E-1	9.194079E-1	9.849197E-1	9.493642E-1	8.882042E-1	9.344198E-1	9.245030E-1	9.078784E-1	9.572864E-1	9.633504E-1	9.316676E-1	9.433232E-1	9.353216E-1	9.465932E-1	9.648124E-1	9.597268E-1	9.440726E-1	9.515610E-1	9.302281E-1	9.359726E-1	9.460799E-1	8.911714E-1	9.404507E-1	9.517169E-1	9.574343E-1	9.096868E-1	9.099948E-1	9.568276E-1	9.168112E-1	1.019492E+0	8.958122E-1	9.269954E-1	9.220843E-1	9.659728E-1	8.859019E-1	9.403996E-1	9.447677E-1	9.205938E-1	9.107068E-1	9.896326E-1	8.769983E-1	9.650779E-1	9.035576E-1	9.281390E-1	9.236965E-1	9.512569E-1	8.830888E-1	9.850016E-1	9.246168E-1	9.062413E-1	9.050954E-1	9.379318E-1	9.687156E-1	9.339210E-1	9.266569E-1	9.503807E-1	8.946955E-1	9.714737E-1	9.303748E-1	9.104636E-1	9.320797E-1	9.479160E-1	9.063591E-1	9.788412E-1	9.499326E-1	9.424694E-1	9.358075E-1	9.621517E-1	9.288655E-1	9.411461E-1	9.254361E-1	9.845347E-1	9.206501E-1	9.731230E-1	9.827199E-1	9.195582E-1	9.251887E-1	9.467499E-1	9.937107E-1	9.492678E-1	9.695910E-1	9.805541E-1	9.014252E-1	9.188129E-1	9.424090E-1	8.834670E-1	9.245282E-1	9.044641E-1	9.366018E-1	9.236267E-1	9.452548E-1	9.334666E-1	9.709415E-1	9.185825E-1	9.502153E-1	9.152752E-1	9.406544E-1	9.467332E-1	9.102739E-1	9.357389E-1	9.381951E-1	9.160056E-1	9.204947E-1	9.248757E-1	9.085823E-1	9.210480E-1	9.554083E-1	9.733066E-1	9.470207E-1	9.179364E-1	9.696101E-1	9.132029E-1	9.177252E-1	9.525170E-1	9.116695E-1	9.515782E-1	8.874523E-1	9.144096E-1	9.469081E-1	9.604053E-1	8.983567E-1	9.648092E-1	9.707562E-1	1.019503E+0	9.607461E-1	8.999518E-1	9.097672E-1	9.634776E-1	9.198465E-1	9.390750E-1	9.608631E-1	9.252919E-1	9.235616E-1	8.894629E-1	9.370569E-1	9.434031E-1	9.470223E-1	9.349284E-1	9.301460E-1	9.657588E-1	8.785912E-1	9.257455E-1	9.664865E-1	9.230032E-1	9.242360E-1
5.385170E+2	1.168039E+0	1.094693E+0	1.064916E+0	1.152826E+0	1.114735E+0	1.130389E+0	1.109943E+0	1.094550E+0	1.135172E+0	1.080421E+0	1.103608E+0	1.093880E+0	1.120795E+0	1.090422E+0	1.099777E+0	1.094429E+0	1.093004E+0	1.147660E+0	1.095801E+0	1.100766E+0	1.156832E+0	1.078181E+0	1.129654E+0	1.133303E+0	1.152835E+0	1.163858E+0	1.172376E+0	1.172209E+0	1.141055E+0	1.168811E+0	1.105788E+0	1.159768E+0	1.115989E+0	1.127894E+0	1.103991E+0	1.151214E+0	1.127029E+0	1.069941E+0	1.150590E+0	1.108692E+0	1.131047E+0	1.144194E+0	1.150881E+0	1.126604E+0	1.075241E+0	1.162073E+0	1.089845E+0	1.056050E+0	1.117840E+0	1.143410E+0	1.104157E+0	1.100885E+0	1.098869E+0	1.089587E+0	1.089294E+0	1.079858E+0	1.107408E+0	1.078445E+0	1.134636E+0	1.098335E+0	1.089933E+0	1.101066E+0	1.106215E+0	1.095410E+0	1.094103E+0	1.134421E+0	1.094629E+0	1.165027E+0	1.114569E+0	1.116796E+0	1.139063E+0	1.139628E+0	1.103360E+0	1.104129E+0	1.111438E+0	1.095197E+0	1.095970E+0	1.158327E+0	1.121686E+0	1.122294E+0	1.085571E+0	1.134220E+0	1.105505E+0	1.102864E+0	1.101890E+0	1.067419E+0	1.116896E+0	1.085522E+0	1.075125E+0	1.176967E+0	1.136807E+0	1.079141E+0	1.091523E+0	1.086904E+0	1.145609E+0	1.100713E+0	1.126277E+0	1.173583E+0	1.092393E+0	1.138120E+0	1.135492E+0	1.141128E+0	1.107817E+0	1.156295E+0	1.112228E+0	1.087720E+0	1.107478E+0	1.113577E+0	1.087660E+0	1.106060E+0	1.144991E+0	1.108580E+0	1.049395E+0	1.095327E+0	1.116774E+0	1.076102E+0	1.121687E+0	1.060529E+0	1.138928E+0	1.083769E+0	1.159593E+0	1.085772E+0	1.072127E+0	1.144457E+0	1.157060E+0	1.132161E+0	1.054494E+0	1.110937E+0	1.094370E+0	1.137239E+0	1.089211E+0	1.093971E+0	1.133899E+0	1.119523E+0	1.103478E+0	1.096828E+0	1.145103E+0	1.061541E+0	1.064967E+0	1.132056E+0	1.157510E+0	1.146603E+0	1.079502E+0	1.112521E+0	1.181677E+0	1.113115E+0	1.096488E+0	1.113272E+0	1.128354E+0	1.154833E+0	1.070471E+0	1.090437E+0	1.153008E+0	1.057671E+0	1.102973E+0	1.032804E+0	1.080938E+0	1.112202E+0	1.087671E+0	1.119473E+0	1.128573E+0	1.088429E+0	1.135793E+0	1.071488E+0	1.112259E+0	1.113223E+0	1.085507E+0	1.033296E+0	1.079781E+0	1.130009E+0	1.148727E+0
5.387860E+2	1.319092E+0	1.302761E+0	1.268034E+0	1.434389E+0	1.326798E+0	1.360327E+0	1.271910E+0	1.331359E+0	1.314706E+0	1.389415E+0	1.345004E+0	1.319718E+0	1.295823E+0	1.279983E+0	1.342687E+0	1.356000E+0	1.318564E+0	1.290277E+0	1.327658E+0	1.350220E+0	1.353358E+0	1.336646E+0	1.310936E+0	1.403633E+0	1.315094E+0	1.359474E+0	1.338065E+0	1.323399E+0	1.342739E+0	1.318770E+0	1.344634E+0	1.396573E+0	1.306284E+0	1.323565E+0	1.334520E+0	1.337866E+0	1.369094E+0	1.231397E+0	1.375113E+0	1.285731E+0	1.329297E+0	1.340462E+0	1.301768E+0	1.331923E+0	1.252645E+0	1.375755E+0	1.351651E+0	1.359129E+0	1.329438E+0	1.331128E+0	1.290143E+0	1.316699E+0	1.325117E+0	1.339693E+0	1.297196E+0	1.346620E+0	1.277140E+0	1.336678E+0	1.329053E+0	1.310917E+0	1.272238E+0	1.361216E+0	1.292245E+0	1.391684E+0	1.297634E+0	1.350820E+0	1.356544E+0	1.342217E+0	1.287546E+0	1.299999E+0	1.307807E+0	1.332810E+0	1.323240E+0	1.307900E+0	1.338755E+0	1.335867E+0	1.253029E+0	1.309085E+0	1.379301E+0	1.321259E+0	1.299295E+0	1.317747E+0	1.359798E+0	1.296337E+0	1.263736E+0	1.297024E+0	1.330627E+0	1.299692E+0	1.259906E+0	1.328615E+0	1.278947E+0	1.291714E+0	1.326158E+0	1.348088E+0	1.297645E+0	1.313430E+0	1.293813E+0	1.303098E+0	1.307388E+0	1.320718E+0	1.333894E+0	1.332641E+0	1.315454E+0	1.355828E+0	1.326356E+0	1.307330E+0	1.348682E+0	1.311823E+0	1.303673E+0	1.290816E+0	1.327503E+0	1.295537E+0	1.285945E+0	1.310795E+0	1.353456E+0	1.280663E+0	1.356392E+0	1.297206E+0	1.299068E+0	1.299638E+0	1.290396E+0	1.359162E+0	1.289352E+0	1.286768E+0	1.294397E+0	1.363859E+0	1.292491E+0	1.310972E+0	1.338879E+0	1.306646E+0	1.312964E+0	1.300274E+0	1.364450E+0	1.297568E+0	1.306095E+0	1.295062E+0	1.367801E+0	1.361491E+0	1.305402E+0	1.272128E+0	1.288367E+0	1.306185E+0	1.307908E+0	1.334300E+0	1.281974E+0	1.373333E+0	1.273784E+0	1.316703E+0	1.277122E+0	1.370587E+0	1.294416E+0	1.295226E+0	1.328650E+0	1.271665E+0	1.297849E+0	1.251865E+0	1.320703E+0	1.347385E+0	1.281058E+0	1.313094E+0	1.295199E+0	1.302505E+0	1.378082E+0	1.264149E+0	1.364644E+0	1.325086E+0	1.266565E+0	1.305924E+0	1.305933E+0	1.231554E+0	1.149373E+0
5.390080E+2	1.537361E+0	1.556488E+0	1.511113E+0	1.596804E+0	1.583928E+0	1.557008E+0	1.571507E+0	1.567094E+0	1.520471E+0	1.541713E+0	1.521220E+0	1.527379E+0	1.580313E+0	1.523772E+0	1.488662E+0	1.473479E+0	1.512344E+0	1.548202E+0	1.489480E+0	1.516250E+0	1.563685E+0	1.530346E+0	1.523850E+0	1.575027E+0	1.548183E+0	1.552397E+0	1.549083E+0	1.551113E+0	1.517276E+0	1.502985E+0	1.540115E+0	1.557813E+0	1.552029E+0	1.496814E+0	1.546407E+0	1.562326E+0	1.551910E+0	1.505273E+0	1.524105E+0	1.470966E+0	1.555038E+0	1.586711E+0	1.536882E+0	1.527632E+0	1.543223E+0	1.555864E+0	1.600996E+0	1.510301E+0	1.559457E+0	1.586274E+0	1.601033E+0	1.579267E+0	1.554896E+0	1.559715E+0	1.491567E+0	1.534473E+0	1.494599E+0	1.484319E+0	1.494867E+0	1.540973E+0	1.531150E+0	1.550392E+0	1.539125E+0	1.496172E+0	1.530724E+0	1.558066E+0	1.487015E+0	1.549391E+0	1.569506E+0	1.535300E+0	1.506932E+0	1.530508E+0	1.545957E+0	1.484742E+0	1.512653E+0	1.457925E+0	1.555066E+0	1.581619E+0	1.555847E+0	1.495323E+0	1.556690E+0	1.543382E+0	1.528314E+0	1.543321E+0	1.473756E+0	1.468109E+0	1.513993E+0	1.557100E+0	1.558101E+0	1.579532E+0	1.493724E+0	1.478120E+0	1.512186E+0	1.498623E+0	1.579815E+0	1.531644E+0	1.509359E+0	1.556445E+0	1.454440E+0	1.500213E+0	1.532825E+0	1.510502E+0	1.543185E+0	1.545819E+0	1.508083E+0	1.523845E+0	1.557086E+0	1.497244E+0	1.528314E+0	1.531312E+0	1.501808E+0	1.505345E+0	1.489567E+0	1.556971E+0	1.548749E+0	1.539668E+0	1.523206E+0	1.529365E+0	1.502225E+0	1.502518E+0	1.520161E+0	1.542820E+0	1.548742E+0	1.431764E+0	1.513275E+0	1.572030E+0	1.527631E+0	1.514030E+0	1.495959E+0	1.489545E+0	1.486108E+0	1.466456E+0	1.463814E+0	1.487246E+0	1.524544E+0	1.472437E+0	1.565958E+0	1.529080E+0	1.465700E+0	1.462254E+0	1.479210E+0	1.538797E+0	1.529687E+0	1.508910E+0	1.507544E+0	1.555656E+0	1.581370E+0	1.442270E+0	1.518081E+0	1.528207E+0	1.451582E+0	1.436809E+0	1.511336E+0	1.539995E+0	1.596944E+0	1.457256E+0	1.517620E+0	1.521979E+0	1.507412E+0	1.463357E+0	1.556596E+0	1.544123E+0	1.569807E+0	1.476659E+0	1.530198E+0	1.496778E+0	1.432074E+0	1.456588E+0	1.539176E+0	1.473940E+0	1.417336E+0
5.392930E+2	1.710249E+0	1.725800E+0	1.738289E+0	1.776124E+0	1.713198E+0	1.790836E+0	1.707808E+0	1.751393E+0	1.753532E+0	1.748039E+0	1.780767E+0	1.687054E+0	1.741951E+0	1.748209E+0	1.751076E+0	1.801067E+0	1.711243E+0	1.659016E+0	1.695244E+0	1.753172E+0	1.757384E+0	1.701330E+0	1.701700E+0	1.723504E+0	1.704579E+0	1.677142E+0	1.717545E+0	1.816211E+0	1.695838E+0	1.775302E+0	1.742135E+0	1.751458E+0	1.750108E+0	1.705453E+0	1.722969E+0	1.717849E+0	1.777900E+0	1.712140E+0	1.707012E+0	1.663062E+0	1.700921E+0	1.677786E+0	1.710073E+0	1.654336E+0	1.689294E+0	1.745403E+0	1.740267E+0	1.780912E+0	1.719472E+0	1.734913E+0	1.731818E+0	1.735777E+0	1.775463E+0	1.697477E+0	1.668566E+0	1.750869E+0	1.688007E+0	1.696943E+0	1.718754E+0	1.696536E+0	1.694333E+0	1.730851E+0	1.769301E+0	1.692848E+0	1.679720E+0	1.683387E+0	1.685097E+0	1.735149E+0	1.711635E+0	1.730366E+0	1.668940E+0	1.691971E+0	1.753934E+0	1.673718E+0	1.759584E+0	1.740062E+0	1.702108E+0	1.741592E+0	1.728395E+0	1.708511E+0	1.674879E+0	1.751519E+0	1.707011E+0	1.650009E+0	1.636200E+0	1.683314E+0	1.712026E+0	1.696182E+0	1.645746E+0	1.716152E+0	1.669572E+0	1.673271E+0	1.658372E+0	1.648226E+0	1.736524E+0	1.738410E+0	1.675368E+0	1.704915E+0	1.677819E+0	1.720985E+0	1.657184E+0	1.652008E+0	1.732816E+0	1.732759E+0	1.674486E+0	1.664556E+0	1.813268E+0	1.706880E+0	1.632739E+0	1.710820E+0	1.653629E+0	1.718585E+0	1.660435E+0	1.755586E+0	1.630999E+0	1.700084E+0	1.676007E+0	1.699320E+0	1.655367E+0	1.684657E+0	1.701625E+0	1.681485E+0	1.660185E+0	1.720410E+0	1.661228E+0	1.740022E+0	1.666671E+0	1.683612E+0	1.629285E+0	1.640524E+0	1.737443E+0	1.680208E+0	1.651785E+0	1.699561E+0	1.711523E+0	1.691801E+0	1.712483E+0	1.705463E+0	1.617395E+0	1.698889E+0	1.624053E+0	1.656239E+0	1.667422E+0	1.652931E+0	1.645616E+0	1.657846E+0	1.630537E+0	1.677405E+0	1.705415E+0	1.751521E+0	1.682427E+0	1.618144E+0	1.668186E+0	1.726145E+0	1.714616E+0	1.599932E+0	1.695974E+0	1.738302E+0	1.709364E+0	1.711957E+0	1.760464E+0	1.676318E+0	1.703274E+0	1.598779E+0	1.717366E+0	1.700447E+0	1.631973E+0	1.640609E+0	1.717409E+0	1.760586E+0	1.591867E+0
5.395210E+2	1.833547E+0	1.770002E+0	1.721088E+0	1.879090E+0	1.791339E+0	1.802956E+0	1.831024E+0	1.757081E+0	1.728026E+0	1.767559E+0	1.762487E+0	1.761645E+0	1.748098E+0	1.776910E+0	1.751342E+0	1.780720E+0	1.742072E+0	1.792331E+0	1.768583E+0	1.768459E+0	1.741053E+0	1.767281E+0	1.761629E+0	1.807297E+0	1.752357E+0	1.789564E+0	1.790264E+0	1.855974E+0	1.769963E+0	1.794267E+0	1.753284E+0	1.796089E+0	1.673670E+0	1.707815E+0	1.792620E+0	1.708233E+0	1.789931E+0	1.744940E+0	1.724382E+0	1.752948E+0	1.870159E+0	1.737704E+0	1.723466E+0	1.731044E+0	1.653796E+0	1.814273E+0	1.736977E+0	1.752450E+0	1.745296E+0	1.740326E+0	1.748476E+0	1.754448E+0	1.709874E+0	1.746532E+0	1.720810E+0	1.728246E+0	1.737618E+0	1.802970E+0	1.695518E+0	1.792876E+0	1.700565E+0	1.732018E+0	1.706556E+0	1.737368E+0	1.735719E+0	1.786929E+0	1.817406E+0	1.774566E+0	1.754248E+0	1.683598E+0	1.727791E+0	1.679247E+0	1.741014E+0	1.776401E+0	1.715410E+0	1.727852E+0	1.667016E+0	1.737930E+0	1.796110E+0	1.768203E+0	1.781284E+0	1.788283E+0	1.814151E+0	1.767077E+0	1.754081E+0	1.733774E+0	1.774162E+0	1.705982E+0	1.740711E+0	1.785500E+0	1.726182E+0	1.680668E+0	1.733650E+0	1.732548E+0	1.705539E+0	1.758966E+0	1.700040E+0	1.742954E+0	1.716831E+0	1.768190E+0	1.770742E+0	1.721384E+0	1.746219E+0	1.742759E+0	1.668680E+0	1.706697E+0	1.810553E+0	1.737422E+0	1.690072E+0	1.764283E+0	1.741297E+0	1.697720E+0	1.671349E+0	1.735475E+0	1.716094E+0	1.700507E+0	1.728230E+0	1.733669E+0	1.731370E+0	1.714295E+0	1.673238E+0	1.747696E+0	1.765470E+0	1.660310E+0	1.697581E+0	1.765012E+0	1.704491E+0	1.764652E+0	1.696390E+0	1.702100E+0	1.744933E+0	1.729989E+0	1.692327E+0	1.722622E+0	1.701867E+0	1.745036E+0	1.791951E+0	1.680487E+0	1.670454E+0	1.741269E+0	1.699967E+0	1.764417E+0	1.662792E+0	1.660502E+0	1.698145E+0	1.808271E+0	1.720310E+0	1.703103E+0	1.673544E+0	1.714734E+0	1.629456E+0	1.662424E+0	1.737800E+0	1.692902E+0	1.752234E+0	1.687229E+0	1.682419E+0	1.777754E+0	1.756653E+0	1.714490E+0	1.669286E+0	1.703246E+0	1.807247E+0	1.738593E+0	1.695130E+0	1.754361E+0	1.727836E+0	1.651140E+0	1.719549E+0	1.692632E+0	1.745041E+0
5.397650E+2	2.090258E+0	1.973087E+0	1.979853E+0	1.954837E+0	1.996388E+0	2.066773E+0	1.988496E+0	1.932128E+0	2.029507E+0	1.934398E+0	2.032886E+0	1.966160E+0	2.004194E+0	2.047491E+0	2.007594E+0	1.956559E+0	1.998733E+0	1.986570E+0	1.981353E+0	1.996426E+0	2.046139E+0	1.959132E+0	2.022588E+0	1.873058E+0	1.894099E+0	1.972024E+0	1.905424E+0	1.963140E+0	1.942935E+0	1.973158E+0	2.045125E+0	1.985016E+0	1.902637E+0	1.956744E+0	2.032847E+0	1.913883E+0	2.027404E+0	1.993000E+0	1.926639E+0	1.951785E+0	2.019933E+0	1.937672E+0	2.003404E+0	1.900120E+0	1.957421E+0	1.960948E+0	1.980542E+0	1.894913E+0	2.044903E+0	2.032404E+0	1.893064E+0	1.957563E+0	1.982306E+0	2.001826E+0	1.902524E+0	1.954066E+0	1.995883E+0	1.958351E+0	1.934714E+0	1.947131E+0	1.945015E+0	2.016329E+0	1.981416E+0	1.927121E+0	1.931851E+0	1.972108E+0	1.919281E+0	1.992980E+0	1.937492E+0	1.947790E+0	1.886619E+0	1.948231E+0	1.943171E+0	1.975903E+0	1.999326E+0	1.917230E+0	1.940521E+0	1.976264E+0	1.992536E+0	1.927750E+0	1.912552E+0	1.970898E+0	1.920109E+0	1.967373E+0	1.906859E+0	1.898467E+0	1.933623E+0	1.961095E+0	1.906860E+0	1.980314E+0	1.886261E+0	1.851167E+0	1.987738E+0	1.977945E+0	1.918434E+0	2.014729E+0	1.900828E+0	1.915606E+0	1.911446E+0	2.057421E+0	1.922062E+0	1.947667E+0	1.967622E+0	1.954249E+0	1.939978E+0	1.934976E+0	1.983753E+0	1.907964E+0	1.898807E+0	1.938282E+0	1.892934E+0	1.884006E+0	1.859446E+0	1.960544E+0	1.834953E+0	1.897179E+0	1.855702E+0	2.024530E+0	1.851801E+0	1.901315E+0	1.930348E+0	1.961355E+0	1.893378E+0	1.914428E+0	1.907221E+0	1.929911E+0	1.905521E+0	1.910243E+0	1.915639E+0	1.876987E+0	1.925060E+0	1.950618E+0	1.869217E+0	1.884252E+0	1.895041E+0	1.936850E+0	1.933224E+0	1.923931E+0	1.866250E+0	1.876734E+0	1.835790E+0	1.935320E+0	1.917827E+0	1.893205E+0	1.889326E+0	1.938553E+0	1.907122E+0	1.902832E+0	1.847254E+0	1.902706E+0	1.897478E+0	1.876630E+0	1.917870E+0	1.869517E+0	1.907146E+0	1.861899E+0	1.879795E+0	1.954050E+0	1.986960E+0	1.886407E+0	1.929943E+0	1.927264E+0	1.990809E+0	1.901210E+0	1.880609E+0	1.991998E+0	1.893129E+0	1.948815E+0	1.865625E+0	1.887609E+0	1.905091E+0
5.400190E+2	2.003222E+0	1.886333E+0	1.951748E+0	1.965796E+0	1.948404E+0	1.956430E+0	1.874701E+0	1.946673E+0	1.919203E+0	1.944150E+0	1.936250E+0	1.951018E+0	1.937555E+0	1.921705E+0	1.951788E+0	1.916239E+0	1.900745E+0	1.919013E+0	2.007609E+0	2.013796E+0	1.928082E+0	1.901820E+0	1.898711E+0	1.973433E+0	1.864718E+0	1.964715E+0	1.883473E+0	1.970321E+0	1.963690E+0	1.978127E+0	1.958661E+0	1.921753E+0	1.939886E+0	1.934487E+0	2.006002E+0	1.900153E+0	2.010602E+0	1.876716E+0	2.000008E+0	1.906097E+0	2.045431E+0	1.971986E+0	1.948792E+0	1.968351E+0	1.884797E+0	2.008833E+0	1.980823E+0	1.904764E+0	1.970089E+0	1.967360E+0	1.972142E+0	1.892738E+0	1.915029E+0	1.937706E+0	1.895017E+0	1.964207E+0	1.926050E+0	1.909798E+0	1.902529E+0	1.992441E+0	1.924071E+0	1.895843E+0	1.899570E+0	1.921729E+0	1.917955E+0	1.926885E+0	1.958429E+0	2.007908E+0	1.914549E+0	1.906230E+0	1.918502E+0	1.898454E+0	1.903630E+0	1.891494E+0	1.915466E+0	1.922554E+0	1.938381E+0	1.933147E+0	1.899135E+0	1.874863E+0	1.888439E+0	1.995358E+0	1.878841E+0	1.890563E+0	1.884208E+0	1.867783E+0	1.933709E+0	1.866217E+0	1.898070E+0	1.976857E+0	1.865380E+0	1.920130E+0	1.962140E+0	1.900974E+0	1.853162E+0	1.954484E+0	1.849949E+0	2.005310E+0	1.841760E+0	1.835033E+0	1.940123E+0	1.911337E+0	1.845704E+0	1.942440E+0	1.896878E+0	1.881547E+0	1.951094E+0	1.980404E+0	1.872389E+0	1.962198E+0	1.945975E+0	1.888120E+0	1.827341E+0	1.899202E+0	1.901957E+0	1.930880E+0	1.844186E+0	1.847202E+0	1.943563E+0	1.876576E+0	1.906848E+0	1.857469E+0	1.903440E+0	1.933218E+0	1.876375E+0	1.971363E+0	1.904243E+0	1.919889E+0	1.817077E+0	1.865919E+0	1.932756E+0	1.854399E+0	1.891992E+0	1.905856E+0	1.916476E+0	1.855059E+0	1.960922E+0	1.964084E+0	1.866828E+0	1.879927E+0	1.834469E+0	1.930352E+0	1.860599E+0	1.924747E+0	1.841905E+0	1.937693E+0	1.915853E+0	1.893899E+0	1.842798E+0	1.872061E+0	1.867264E+0	1.822414E+0	1.823434E+0	1.873905E+0	1.875618E+0	1.751481E+0	1.975871E+0	1.942469E+0	1.858594E+0	1.935872E+0	1.860234E+0	1.899089E+0	1.946943E+0	1.872323E+0	1.863454E+0	1.863674E+0	1.876913E+0	1.865555E+0	1.929741E+0	1.794433E+0	1.857840E+0
5.402740E+2	1.945398E+0	1.808989E+0	1.896727E+0	1.911832E+0	1.817212E+0	1.868304E+0	1.904770E+0	1.903185E+0	1.880401E+0	1.791561E+0	1.854365E+0	1.838463E+0	1.910861E+0	1.881802E+0	1.868890E+0	1.819286E+0	1.827077E+0	1.910929E+0	1.830587E+0	1.972842E+0	1.857131E+0	1.836163E+0	1.834698E+0	1.864658E+0	1.799435E+0	1.882396E+0	1.844998E+0	1.838106E+0	1.879999E+0	1.877824E+0	1.882137E+0	1.852532E+0	1.807090E+0	1.863331E+0	1.854179E+0	1.817114E+0	1.895811E+0	1.804967E+0	1.835216E+0	1.839818E+0	1.870918E+0	1.871650E+0	1.847077E+0	1.777079E+0	1.827008E+0	1.859979E+0	1.817163E+0	1.843846E+0	1.831915E+0	1.839248E+0	1.759487E+0	1.848483E+0	1.849373E+0	1.917284E+0	1.827020E+0	1.870031E+0	1.839900E+0	1.838993E+0	1.807032E+0	1.772459E+0	1.856081E+0	1.824446E+0	1.827139E+0	1.846278E+0	1.834068E+0	1.885438E+0	1.839457E+0	1.822634E+0	1.880828E+0	1.780747E+0	1.820126E+0	1.824167E+0	1.869414E+0	1.840343E+0	1.849243E+0	1.885110E+0	1.808791E+0	1.823874E+0	1.864659E+0	1.813304E+0	1.787762E+0	1.838315E+0	1.851649E+0	1.855991E+0	1.781642E+0	1.707964E+0	1.853161E+0	1.834390E+0	1.773808E+0	1.821000E+0	1.755973E+0	1.766854E+0	1.803948E+0	1.886408E+0	1.853847E+0	1.808502E+0	1.835385E+0	1.931851E+0	1.838761E+0	1.840316E+0	1.805260E+0	1.784727E+0	1.782817E+0	1.821732E+0	1.812550E+0	1.796447E+0	1.831790E+0	1.769648E+0	1.780511E+0	1.817650E+0	1.824241E+0	1.803803E+0	1.754114E+0	1.770197E+0	1.803989E+0	1.749986E+0	1.807396E+0	1.867962E+0	1.771417E+0	1.801984E+0	1.809715E+0	1.740308E+0	1.825119E+0	1.820356E+0	1.890989E+0	1.838607E+0	1.826028E+0	1.766779E+0	1.772577E+0	1.800265E+0	1.807939E+0	1.845065E+0	1.773938E+0	1.757855E+0	1.789826E+0	1.833213E+0	1.810732E+0	1.831394E+0	1.755562E+0	1.757431E+0	1.753041E+0	1.774170E+0	1.784975E+0	1.767772E+0	1.740448E+0	1.892636E+0	1.787912E+0	1.805651E+0	1.771332E+0	1.819797E+0	1.724341E+0	1.760982E+0	1.877733E+0	1.790233E+0	1.723966E+0	1.752532E+0	1.828172E+0	1.856960E+0	1.761733E+0	1.832833E+0	1.846936E+0	1.814423E+0	1.800729E+0	1.810691E+0	1.786791E+0	1.758252E+0	1.771777E+0	1.736913E+0	1.758861E+0	1.751244E+0	1.769818E+0
5.405130E+2	1.813476E+0	1.830421E+0	1.801567E+0	1.836625E+0	1.804544E+0	1.840568E+0	1.777821E+0	1.796561E+0	1.740703E+0	1.804864E+0	1.813716E+0	1.803311E+0	1.864436E+0	1.792570E+0	1.842573E+0	1.783632E+0	1.800068E+0	1.765612E+0	1.882538E+0	1.818905E+0	1.832053E+0	1.827881E+0	1.743873E+0	1.724016E+0	1.788612E+0	1.780080E+0	1.772239E+0	1.809729E+0	1.801643E+0	1.815669E+0	1.780330E+0	1.773255E+0	1.741730E+0	1.781202E+0	1.738955E+0	1.743147E+0	1.815947E+0	1.742047E+0	1.810834E+0	1.816350E+0	1.776791E+0	1.862452E+0	1.837568E+0	1.699369E+0	1.760966E+0	1.807267E+0	1.867711E+0	1.816914E+0	1.755890E+0	1.793026E+0	1.757652E+0	1.777839E+0	1.762796E+0	1.837075E+0	1.764680E+0	1.745452E+0	1.797927E+0	1.757455E+0	1.771599E+0	1.781670E+0	1.753430E+0	1.868651E+0	1.796243E+0	1.768534E+0	1.815754E+0	1.802508E+0	1.757286E+0	1.781583E+0	1.796054E+0	1.783851E+0	1.766249E+0	1.746274E+0	1.738072E+0	1.833387E+0	1.827507E+0	1.743646E+0	1.791806E+0	1.802948E+0	1.843783E+0	1.796350E+0	1.760396E+0	1.833161E+0	1.753864E+0	1.785099E+0	1.763164E+0	1.768430E+0	1.781367E+0	1.744275E+0	1.747590E+0	1.813849E+0	1.808570E+0	1.726325E+0	1.737802E+0	1.819519E+0	1.742898E+0	1.802497E+0	1.678648E+0	1.755710E+0	1.716329E+0	1.758523E+0	1.800253E+0	1.771853E+0	1.703624E+0	1.815809E+0	1.810799E+0	1.780267E+0	1.804007E+0	1.781713E+0	1.697639E+0	1.718374E+0	1.785437E+0	1.772505E+0	1.722933E+0	1.790120E+0	1.809284E+0	1.728106E+0	1.737131E+0	1.801441E+0	1.775636E+0	1.766152E+0	1.754721E+0	1.741214E+0	1.722246E+0	1.742176E+0	1.759094E+0	1.741610E+0	1.733404E+0	1.709529E+0	1.743232E+0	1.748042E+0	1.747568E+0	1.768300E+0	1.776637E+0	1.762214E+0	1.770561E+0	1.799256E+0	1.778356E+0	1.825342E+0	1.823936E+0	1.682800E+0	1.737126E+0	1.836070E+0	1.707126E+0	1.744708E+0	1.726888E+0	1.827284E+0	1.739738E+0	1.795124E+0	1.778927E+0	1.760282E+0	1.719687E+0	1.690924E+0	1.718817E+0	1.815343E+0	1.744237E+0	1.684637E+0	1.733780E+0	1.775990E+0	1.796067E+0	1.758395E+0	1.720641E+0	1.728665E+0	1.817604E+0	1.653262E+0	1.723678E+0	1.733382E+0	1.740538E+0	1.684041E+0	1.782118E+0	1.821986E+0	1.708866E+0
5.407680E+2	1.799287E+0	1.670767E+0	1.791053E+0	1.754530E+0	1.710160E+0	1.802188E+0	1.771031E+0	1.718982E+0	1.832611E+0	1.762802E+0	1.725392E+0	1.724437E+0	1.745278E+0	1.726444E+0	1.803879E+0	1.714126E+0	1.735953E+0	1.740039E+0	1.797286E+0	1.742798E+0	1.763455E+0	1.833849E+0	1.721748E+0	1.742501E+0	1.711715E+0	1.802916E+0	1.685415E+0	1.757394E+0	1.755687E+0	1.760651E+0	1.780682E+0	1.748331E+0	1.743455E+0	1.662919E+0	1.632445E+0	1.766770E+0	1.706680E+0	1.690725E+0	1.724739E+0	1.706567E+0	1.751831E+0	1.764508E+0	1.723254E+0	1.688223E+0	1.683671E+0	1.688087E+0	1.758621E+0	1.718507E+0	1.739370E+0	1.731399E+0	1.790062E+0	1.709154E+0	1.694109E+0	1.754870E+0	1.743282E+0	1.741031E+0	1.700086E+0	1.750160E+0	1.722049E+0	1.773639E+0	1.686564E+0	1.699884E+0	1.716374E+0	1.699514E+0	1.747913E+0	1.745874E+0	1.720233E+0	1.781348E+0	1.675699E+0	1.723586E+0	1.714131E+0	1.728973E+0	1.742570E+0	1.713333E+0	1.777297E+0	1.718429E+0	1.772230E+0	1.701522E+0	1.759986E+0	1.705965E+0	1.730884E+0	1.781554E+0	1.723501E+0	1.714301E+0	1.654551E+0	1.623482E+0	1.677296E+0	1.694254E+0	1.759741E+0	1.796063E+0	1.677654E+0	1.718141E+0	1.710937E+0	1.734186E+0	1.660842E+0	1.756323E+0	1.694001E+0	1.775818E+0	1.726001E+0	1.683269E+0	1.682564E+0	1.706813E+0	1.691040E+0	1.756862E+0	1.724820E+0	1.654205E+0	1.802659E+0	1.716356E+0	1.641885E+0	1.696552E+0	1.700875E+0	1.698649E+0	1.692645E+0	1.724180E+0	1.766635E+0	1.696856E+0	1.685485E+0	1.738663E+0	1.730868E+0	1.682828E+0	1.700089E+0	1.691452E+0	1.688080E+0	1.737603E+0	1.688210E+0	1.716213E+0	1.698554E+0	1.665198E+0	1.650198E+0	1.689208E+0	1.748819E+0	1.715550E+0	1.726808E+0	1.694488E+0	1.681690E+0	1.622952E+0	1.692729E+0	1.684723E+0	1.651917E+0	1.654961E+0	1.685676E+0	1.709458E+0	1.684989E+0	1.723991E+0	1.694301E+0	1.681146E+0	1.649128E+0	1.717203E+0	1.674159E+0	1.744580E+0	1.632140E+0	1.620680E+0	1.691356E+0	1.669389E+0	1.669466E+0	1.636323E+0	1.647112E+0	1.669466E+0	1.653441E+0	1.689413E+0	1.670361E+0	1.634264E+0	1.719994E+0	1.655253E+0	1.657522E+0	1.751426E+0	1.710147E+0	1.734878E+0	1.751831E+0	1.656655E+0	1.829284E+0
5.410190E+2	1.713337E+0	1.629184E+0	1.672488E+0	1.639567E+0	1.620231E+0	1.659488E+0	1.658612E+0	1.633454E+0	1.528797E+0	1.595434E+0	1.637510E+0	1.624529E+0	1.562062E+0	1.620207E+0	1.661077E+0	1.639180E+0	1.573971E+0	1.626281E+0	1.660894E+0	1.691997E+0	1.660058E+0	1.595516E+0	1.632963E+0	1.594623E+0	1.571735E+0	1.570135E+0	1.623175E+0	1.647643E+0	1.610501E+0	1.619815E+0	1.624051E+0	1.654102E+0	1.655886E+0	1.570261E+0	1.592153E+0	1.603841E+0	1.645595E+0	1.587222E+0	1.605823E+0	1.564680E+0	1.659588E+0	1.653044E+0	1.615216E+0	1.573418E+0	1.594360E+0	1.671722E+0	1.640012E+0	1.598657E+0	1.604521E+0	1.600376E+0	1.630730E+0	1.642630E+0	1.650233E+0	1.644172E+0	1.616557E+0	1.626649E+0	1.632210E+0	1.655337E+0	1.586712E+0	1.673869E+0	1.575794E+0	1.626096E+0	1.606567E+0	1.595350E+0	1.626113E+0	1.655481E+0	1.620118E+0	1.622035E+0	1.647224E+0	1.620245E+0	1.591181E+0	1.609299E+0	1.635112E+0	1.611003E+0	1.604904E+0	1.613676E+0	1.609210E+0	1.607066E+0	1.598116E+0	1.585626E+0	1.558988E+0	1.610726E+0	1.541590E+0	1.634772E+0	1.652185E+0	1.564117E+0	1.605763E+0	1.592019E+0	1.594538E+0	1.600548E+0	1.568373E+0	1.489269E+0	1.569924E+0	1.630213E+0	1.562127E+0	1.611049E+0	1.580831E+0	1.637699E+0	1.558232E+0	1.698214E+0	1.598533E+0	1.659884E+0	1.534301E+0	1.613681E+0	1.651797E+0	1.559676E+0	1.626442E+0	1.583322E+0	1.585390E+0	1.592682E+0	1.629787E+0	1.572097E+0	1.502252E+0	1.611842E+0	1.639913E+0	1.569406E+0	1.579582E+0	1.545612E+0	1.603932E+0	1.565831E+0	1.536853E+0	1.598601E+0	1.571261E+0	1.637652E+0	1.598164E+0	1.636945E+0	1.582552E+0	1.622204E+0	1.602399E+0	1.593617E+0	1.557169E+0	1.598043E+0	1.579243E+0	1.579349E+0	1.566845E+0	1.529886E+0	1.577515E+0	1.675335E+0	1.533362E+0	1.583416E+0	1.543117E+0	1.680356E+0	1.603061E+0	1.581605E+0	1.569427E+0	1.580273E+0	1.545628E+0	1.592326E+0	1.578039E+0	1.577267E+0	1.519820E+0	1.534281E+0	1.530082E+0	1.527088E+0	1.609945E+0	1.540144E+0	1.565159E+0	1.603105E+0	1.611414E+0	1.618348E+0	1.619894E+0	1.542326E+0	1.539044E+0	1.636713E+0	1.533683E+0	1.589890E+0	1.589640E+0	1.583209E+0	1.641073E+0	1.550977E+0	1.622307E+0
5.412580E+2	1.650469E+0	1.555464E+0	1.582177E+0	1.544926E+0	1.646709E+0	1.596553E+0	1.488221E+0	1.563140E+0	1.571195E+0	1.525576E+0	1.556994E+0	1.577824E+0	1.584406E+0	1.596708E+0	1.595993E+0	1.569897E+0	1.588066E+0	1.577830E+0	1.595936E+0	1.596891E+0	1.587159E+0	1.589721E+0	1.549169E+0	1.527377E+0	1.497956E+0	1.581176E+0	1.560544E+0	1.493498E+0	1.582551E+0	1.550681E+0	1.528081E+0	1.537616E+0	1.561827E+0	1.577318E+0	1.561733E+0	1.545471E+0	1.568439E+0	1.504448E+0	1.557638E+0	1.519958E+0	1.627505E+0	1.535445E+0	1.596645E+0	1.549310E+0	1.540693E+0	1.575649E+0	1.607606E+0	1.571096E+0	1.540968E+0	1.535693E+0	1.526922E+0	1.562018E+0	1.520199E+0	1.557145E+0	1.595144E+0	1.519382E+0	1.577631E+0	1.576479E+0	1.580070E+0	1.558596E+0	1.505108E+0	1.564642E+0	1.603639E+0	1.573078E+0	1.580360E+0	1.625862E+0	1.539413E+0	1.597471E+0	1.575573E+0	1.518092E+0	1.543227E+0	1.517229E+0	1.508551E+0	1.622940E+0	1.548539E+0	1.512873E+0	1.489990E+0	1.581784E+0	1.605501E+0	1.519461E+0	1.521522E+0	1.583660E+0	1.517122E+0	1.574821E+0	1.534750E+0	1.519251E+0	1.550890E+0	1.533951E+0	1.557184E+0	1.567444E+0	1.520117E+0	1.529063E+0	1.534975E+0	1.547838E+0	1.622809E+0	1.574658E+0	1.554115E+0	1.609074E+0	1.515146E+0	1.573430E+0	1.549573E+0	1.540086E+0	1.516646E+0	1.526322E+0	1.514467E+0	1.511053E+0	1.573479E+0	1.493480E+0	1.497496E+0	1.575120E+0	1.529894E+0	1.513414E+0	1.570221E+0	1.591615E+0	1.569810E+0	1.538739E+0	1.544641E+0	1.556735E+0	1.539086E+0	1.573777E+0	1.471509E+0	1.545487E+0	1.521594E+0	1.583466E+0	1.571370E+0	1.593045E+0	1.491797E+0	1.568678E+0	1.484345E+0	1.574792E+0	1.532268E+0	1.540199E+0	1.525942E+0	1.514384E+0	1.555414E+0	1.478379E+0	1.558131E+0	1.517875E+0	1.457548E+0	1.493095E+0	1.501005E+0	1.572313E+0	1.442066E+0	1.531222E+0	1.428941E+0	1.586628E+0	1.520235E+0	1.494580E+0	1.510065E+0	1.604183E+0	1.503908E+0	1.546188E+0	1.540325E+0	1.474109E+0	1.564040E+0	1.527941E+0	1.476159E+0	1.566563E+0	1.546643E+0	1.522945E+0	1.593232E+0	1.572540E+0	1.567854E+0	1.525374E+0	1.610781E+0	1.527561E+0	1.520617E+0	1.489576E+0	1.516146E+0	1.511642E+0	1.463614E+0
5.415190E+2	1.490514E+0	1.443873E+0	1.409071E+0	1.458193E+0	1.456585E+0	1.441958E+0	1.465144E+0	1.469574E+0	1.438414E+0	1.437866E+0	1.443183E+0	1.414563E+0	1.431848E+0	1.432884E+0	1.461838E+0	1.451353E+0	1.434946E+0	1.398271E+0	1.476689E+0	1.443020E+0	1.433548E+0	1.449789E+0	1.375577E+0	1.471271E+0	1.449032E+0	1.344855E+0	1.439950E+0	1.414679E+0	1.463584E+0	1.406434E+0	1.425138E+0	1.431785E+0	1.397188E+0	1.374593E+0	1.466083E+0	1.437816E+0	1.486402E+0	1.430074E+0	1.425253E+0	1.417201E+0	1.431022E+0	1.395332E+0	1.468985E+0	1.379427E+0	1.427716E+0	1.453483E+0	1.440361E+0	1.404828E+0	1.437815E+0	1.345764E+0	1.393712E+0	1.474107E+0	1.428319E+0	1.407296E+0	1.383381E+0	1.448579E+0	1.407101E+0	1.430037E+0	1.400337E+0	1.485885E+0	1.389927E+0	1.382775E+0	1.384804E+0	1.410043E+0	1.498451E+0	1.433879E+0	1.391338E+0	1.423924E+0	1.447354E+0	1.422493E+0	1.362362E+0	1.430050E+0	1.388776E+0	1.391219E+0	1.464540E+0	1.379801E+0	1.402652E+0	1.497251E+0	1.442458E+0	1.406435E+0	1.416772E+0	1.480155E+0	1.454771E+0	1.381650E+0	1.427535E+0	1.380931E+0	1.467146E+0	1.404846E+0	1.408173E+0	1.451269E+0	1.374651E+0	1.393851E+0	1.437173E+0	1.491451E+0	1.460005E+0	1.414649E+0	1.431304E+0	1.432175E+0	1.361017E+0	1.423856E+0	1.426929E+0	1.429815E+0	1.395272E+0	1.372184E+0	1.437927E+0	1.455695E+0	1.506903E+0	1.389787E+0	1.403343E+0	1.483273E+0	1.455244E+0	1.404423E+0	1.371456E+0	1.462756E+0	1.437604E+0	1.394719E+0	1.458840E+0	1.382956E+0	1.442893E+0	1.383574E+0	1.394222E+0	1.423948E+0	1.423410E+0	1.425497E+0	1.380158E+0	1.450338E+0	1.403869E+0	1.463244E+0	1.431238E+0	1.392637E+0	1.402425E+0	1.407081E+0	1.421372E+0	1.420594E+0	1.367275E+0	1.384927E+0	1.390019E+0	1.458033E+0	1.393200E+0	1.397351E+0	1.340576E+0	1.445805E+0	1.405821E+0	1.422770E+0	1.401268E+0	1.459821E+0	1.356341E+0	1.435232E+0	1.452656E+0	1.469942E+0	1.396863E+0	1.390729E+0	1.388025E+0	1.441105E+0	1.407532E+0	1.370748E+0	1.464712E+0	1.487744E+0	1.388679E+0	1.403927E+0	1.427089E+0	1.426258E+0	1.475574E+0	1.402924E+0	1.400245E+0	1.408130E+0	1.442307E+0	1.398262E+0	1.408635E+0	1.431042E+0	1.454965E+0
5.417600E+2	1.414957E+0	1.337193E+0	1.257315E+0	1.303432E+0	1.315684E+0	1.384837E+0	1.346555E+0	1.320688E+0	1.334176E+0	1.312889E+0	1.345092E+0	1.256717E+0	1.302415E+0	1.260429E+0	1.318758E+0	1.323127E+0	1.354592E+0	1.350933E+0	1.307558E+0	1.376979E+0	1.350510E+0	1.362002E+0	1.294327E+0	1.273225E+0	1.312514E+0	1.308807E+0	1.350430E+0	1.399645E+0	1.343676E+0	1.327040E+0	1.312790E+0	1.368625E+0	1.388322E+0	1.343072E+0	1.378476E+0	1.360345E+0	1.369880E+0	1.307909E+0	1.343171E+0	1.339865E+0	1.384084E+0	1.321333E+0	1.393575E+0	1.298040E+0	1.291397E+0	1.325969E+0	1.341424E+0	1.332707E+0	1.336209E+0	1.305517E+0	1.409833E+0	1.314593E+0	1.340637E+0	1.316700E+0	1.280890E+0	1.270609E+0	1.295378E+0	1.348555E+0	1.299032E+0	1.340608E+0	1.318002E+0	1.339884E+0	1.272082E+0	1.284049E+0	1.314191E+0	1.336808E+0	1.329705E+0	1.390434E+0	1.346579E+0	1.272256E+0	1.290296E+0	1.321221E+0	1.263436E+0	1.283464E+0	1.324322E+0	1.357340E+0	1.265998E+0	1.319931E+0	1.375131E+0	1.336465E+0	1.307503E+0	1.294573E+0	1.315194E+0	1.323865E+0	1.284816E+0	1.246636E+0	1.356020E+0	1.329982E+0	1.319953E+0	1.279584E+0	1.347926E+0	1.290706E+0	1.301158E+0	1.287313E+0	1.339939E+0	1.332971E+0	1.272146E+0	1.330510E+0	1.272326E+0	1.351403E+0	1.332750E+0	1.357959E+0	1.293454E+0	1.311196E+0	1.329401E+0	1.347175E+0	1.398681E+0	1.303817E+0	1.275662E+0	1.316197E+0	1.275130E+0	1.327478E+0	1.250553E+0	1.418558E+0	1.305698E+0	1.274526E+0	1.268086E+0	1.310309E+0	1.316696E+0	1.313720E+0	1.336707E+0	1.272474E+0	1.319222E+0	1.336378E+0	1.320875E+0	1.394242E+0	1.345564E+0	1.296679E+0	1.219116E+0	1.319665E+0	1.327195E+0	1.305513E+0	1.316135E+0	1.266550E+0	1.327308E+0	1.389681E+0	1.325258E+0	1.328979E+0	1.275812E+0	1.358026E+0	1.285162E+0	1.296198E+0	1.286504E+0	1.333146E+0	1.348212E+0	1.305738E+0	1.285006E+0	1.283231E+0	1.326788E+0	1.324586E+0	1.291029E+0	1.247002E+0	1.307144E+0	1.299129E+0	1.327470E+0	1.211561E+0	1.330753E+0	1.364382E+0	1.338487E+0	1.311499E+0	1.339914E+0	1.326190E+0	1.399697E+0	1.279498E+0	1.323262E+0	1.377759E+0	1.300009E+0	1.301430E+0	1.261483E+0	1.337580E+0	1.264157E+0
5.420050E+2	1.170037E+0	1.215754E+0	1.180930E+0	1.150326E+0	1.153476E+0	1.102480E+0	1.130064E+0	1.196663E+0	1.187076E+0	1.178150E+0	1.202934E+0	1.116472E+0	1.151729E+0	1.144684E+0	1.175565E+0	1.155762E+0	1.194591E+0	1.160003E+0	1.178247E+0	1.169307E+0	1.182379E+0	1.218856E+0	1.222678E+0	1.150852E+0	1.146110E+0	1.157360E+0	1.162035E+0	1.175692E+0	1.163106E+0	1.143167E+0	1.200430E+0	1.164684E+0	1.173025E+0	1.146601E+0	1.199210E+0	1.175991E+0	1.185042E+0	1.139983E+0	1.185961E+0	1.153260E+0	1.233031E+0	1.106008E+0	1.173192E+0	1.186919E+0	1.155581E+0	1.154763E+0	1.188225E+0	1.162567E+0	1.182653E+0	1.143307E+0	1.198475E+0	1.240861E+0	1.169767E+0	1.172942E+0	1.117621E+0	1.190015E+0	1.169892E+0	1.129560E+0	1.183351E+0	1.232845E+0	1.130164E+0	1.133367E+0	1.171718E+0	1.132959E+0	1.175573E+0	1.184443E+0	1.182743E+0	1.232667E+0	1.144258E+0	1.166848E+0	1.157490E+0	1.184187E+0	1.183963E+0	1.157854E+0	1.233203E+0	1.137193E+0	1.147999E+0	1.150615E+0	1.193770E+0	1.111014E+0	1.155272E+0	1.134748E+0	1.148575E+0	1.109206E+0	1.128712E+0	1.136212E+0	1.172435E+0	1.142949E+0	1.168892E+0	1.176545E+0	1.097822E+0	1.120130E+0	1.165937E+0	1.167179E+0	1.196613E+0	1.178674E+0	1.126515E+0	1.249236E+0	1.147906E+0	1.132731E+0	1.186820E+0	1.149065E+0	1.144760E+0	1.163398E+0	1.143383E+0	1.136465E+0	1.239892E+0	1.148345E+0	1.177094E+0	1.182755E+0	1.184246E+0	1.161685E+0	1.136389E+0	1.155297E+0	1.121295E+0	1.136890E+0	1.164793E+0	1.172974E+0	1.168634E+0	1.107829E+0	1.115080E+0	1.164374E+0	1.153771E+0	1.141895E+0	1.194210E+0	1.154682E+0	1.161233E+0	1.180322E+0	1.134585E+0	1.161117E+0	1.168221E+0	1.158574E+0	1.154557E+0	1.129826E+0	1.146219E+0	1.193701E+0	1.194041E+0	1.183038E+0	1.099465E+0	1.170431E+0	1.121430E+0	1.171525E+0	1.165946E+0	1.171120E+0	1.134379E+0	1.170188E+0	1.121622E+0	1.148778E+0	1.175439E+0	1.170271E+0	1.137183E+0	1.136369E+0	1.180809E+0	1.123421E+0	1.215314E+0	1.109034E+0	1.136962E+0	1.235611E+0	1.164683E+0	1.115751E+0	1.183760E+0	1.124631E+0	1.202679E+0	1.146806E+0	1.179739E+0	1.119528E+0	1.148515E+0	1.199063E+0	1.155814E+0	1.143030E+0	1.256324E+0
5.422730E+2	1.061917E+0	1.023728E+0	1.056116E+0	1.000196E+0	1.010901E+0	1.041996E+0	1.004776E+0	1.002141E+0	1.023785E+0	1.008179E+0	1.011178E+0	1.008636E+0	1.037350E+0	9.881012E-1	1.015907E+0	1.020192E+0	1.047050E+0	1.026379E+0	1.022480E+0	1.054019E+0	1.063913E+0	1.035079E+0	1.070673E+0	1.049832E+0	1.049931E+0	1.011707E+0	9.918759E-1	1.090360E+0	1.027825E+0	1.045619E+0	1.023098E+0	1.028341E+0	9.884186E-1	9.712419E-1	1.039196E+0	1.008173E+0	1.071250E+0	1.027840E+0	9.997287E-1	9.733818E-1	1.093978E+0	1.004501E+0	1.061294E+0	9.727335E-1	1.025985E+0	9.990719E-1	1.039702E+0	1.018256E+0	1.025925E+0	1.033055E+0	1.062803E+0	1.038050E+0	1.033848E+0	1.062345E+0	1.056685E+0	1.070249E+0	1.062692E+0	1.021335E+0	1.023967E+0	1.091152E+0	9.853663E-1	1.004905E+0	1.035755E+0	1.065341E+0	1.062266E+0	1.076775E+0	1.069162E+0	1.097675E+0	1.042933E+0	1.016951E+0	9.816565E-1	1.025400E+0	9.906632E-1	1.018401E+0	1.025254E+0	1.024125E+0	1.040403E+0	9.944038E-1	1.041899E+0	9.848093E-1	1.023834E+0	1.010369E+0	1.038332E+0	9.884016E-1	9.850798E-1	1.014690E+0	1.023051E+0	1.049763E+0	1.003464E+0	1.030408E+0	1.012393E+0	1.010372E+0	1.068784E+0	9.991219E-1	9.898750E-1	1.030127E+0	1.033222E+0	1.079799E+0	9.835515E-1	1.063243E+0	1.055814E+0	1.005142E+0	1.058278E+0	1.025251E+0	1.035860E+0	1.030877E+0	1.098864E+0	1.046574E+0	1.002373E+0	9.727897E-1	1.025378E+0	1.040832E+0	1.008669E+0	1.001367E+0	1.069990E+0	1.015473E+0	1.043641E+0	1.028915E+0	1.034963E+0	9.928964E-1	1.032145E+0	1.017069E+0	1.053032E+0	1.052136E+0	1.012538E+0	1.003345E+0	9.996637E-1	1.031504E+0	1.007452E+0	9.994323E-1	1.075336E+0	1.092106E+0	1.045237E+0	1.002874E+0	1.024866E+0	1.034909E+0	1.003217E+0	1.088178E+0	1.040029E+0	1.023549E+0	9.861274E-1	1.018103E+0	1.032483E+0	1.064925E+0	1.062472E+0	1.042104E+0	1.054011E+0	1.003568E+0	1.061119E+0	1.014848E+0	1.019715E+0	9.727510E-1	1.052145E+0	9.990886E-1	1.002628E+0	9.947747E-1	1.005434E+0	1.047947E+0	1.020095E+0	1.006547E+0	1.054151E+0	1.032229E+0	1.042863E+0	1.035723E+0	1.021939E+0	1.017371E+0	1.042046E+0	1.023244E+0	1.043584E+0	1.074453E+0	1.103429E+0
5.425460E+2	9.552138E-1	9.506435E-1	9.379913E-1	9.680973E-1	9.798402E-1	9.308012E-1	9.341540E-1	9.846884E-1	9.935564E-1	9.504232E-1	8.785068E-1	9.302699E-1	9.198587E-1	9.460785E-1	9.254128E-1	8.826585E-1	9.328093E-1	9.483985E-1	8.998429E-1	9.471641E-1	9.594609E-1	8.950013E-1	9.932612E-1	9.450168E-1	9.589590E-1	9.780767E-1	9.875521E-1	9.775359E-1	9.826534E-1	9.676680E-1	9.096998E-1	9.197369E-1	9.628654E-1	9.194658E-1	9.748637E-1	9.743143E-1	9.699347E-1	9.345645E-1	9.332140E-1	9.221454E-1	9.757757E-1	9.182300E-1	9.517845E-1	9.196224E-1	9.465219E-1	9.587590E-1	9.649383E-1	9.762724E-1	9.517297E-1	9.342228E-1	9.284100E-1	9.642270E-1	9.361521E-1	9.334403E-1	9.336415E-1	9.183272E-1	9.515423E-1	9.098630E-1	9.858590E-1	9.582530E-1	9.478696E-1	9.240127E-1	9.302204E-1	9.534692E-1	9.080969E-1	9.619182E-1	9.391107E-1	9.626963E-1	8.918000E-1	9.443780E-1	9.799387E-1	9.479945E-1	9.530582E-1	9.663344E-1	9.482872E-1	9.323186E-1	9.478612E-1	9.331031E-1	9.866219E-1	9.072880E-1	8.953877E-1	9.780733E-1	9.337558E-1	9.651953E-1	9.336852E-1	9.200187E-1	9.377482E-1	9.179209E-1	9.236578E-1	9.553714E-1	9.451509E-1	9.438446E-1	9.552395E-1	9.381792E-1	9.956882E-1	9.689747E-1	9.275692E-1	9.706610E-1	9.414497E-1	9.424492E-1	9.239412E-1	9.461736E-1	9.371141E-1	9.513188E-1	9.206626E-1	9.170443E-1	9.695506E-1	9.141948E-1	9.481098E-1	9.854683E-1	8.951630E-1	9.139307E-1	9.746071E-1	9.883536E-1	9.186856E-1	9.100716E-1	9.910463E-1	9.473492E-1	9.714027E-1	9.129373E-1	9.267876E-1	9.153474E-1	9.482907E-1	9.598570E-1	9.268130E-1	9.198694E-1	9.231639E-1	9.318841E-1	8.782650E-1	8.873836E-1	9.403614E-1	9.782271E-1	9.061249E-1	9.509904E-1	9.652719E-1	9.904659E-1	9.667955E-1	9.346063E-1	9.554089E-1	9.404107E-1	9.363196E-1	9.427826E-1	9.740199E-1	9.254894E-1	9.779122E-1	9.245992E-1	9.019266E-1	9.391344E-1	9.788619E-1	9.479157E-1	9.731131E-1	9.352426E-1	9.563105E-1	9.614830E-1	1.013554E+0	9.274365E-1	9.546197E-1	9.579240E-1	9.145220E-1	9.521069E-1	9.709909E-1	9.264016E-1	1.000629E+0	9.417875E-1	9.409488E-1	9.536309E-1	9.654298E-1	9.991592E-1	9.490520E-1	9.508419E-1	1.010403E+0
5.427600E+2	9.033391E-1	9.680952E-1	9.014044E-1	9.633021E-1	9.495882E-1	9.500745E-1	9.229302E-1	9.462161E-1	9.659211E-1	9.287118E-1	9.803558E-1	9.412582E-1	9.306675E-1	9.576699E-1	9.833592E-1	9.178415E-1	9.760000E-1	9.439179E-1	9.378861E-1	9.562608E-1	9.356532E-1	9.144503E-1	9.788167E-1	1.004696E+0	9.617393E-1	9.034390E-1	9.433114E-1	9.547853E-1	9.854695E-1	9.454035E-1	9.077669E-1	9.874444E-1	9.200109E-1	9.295124E-1	9.810686E-1	9.524913E-1	9.085954E-1	9.450491E-1	9.072171E-1	9.793916E-1	9.657348E-1	9.556851E-1	9.640109E-1	9.612063E-1	9.307211E-1	9.454213E-1	9.844194E-1	9.255303E-1	9.617813E-1	9.610456E-1	9.788487E-1	9.774613E-1	9.974168E-1	9.331044E-1	9.642367E-1	9.577575E-1	9.303746E-1	9.463683E-1	9.742322E-1	9.649830E-1	9.286026E-1	9.545328E-1	9.407321E-1	9.602127E-1	9.453351E-1	1.007212E+0	9.645923E-1	9.987076E-1	9.245264E-1	9.651692E-1	9.268535E-1	9.349268E-1	9.554768E-1	9.454841E-1	9.481572E-1	9.366679E-1	9.183830E-1	9.472145E-1	9.543883E-1	9.554714E-1	9.413869E-1	9.506796E-1	9.982952E-1	1.000763E+0	9.585223E-1	9.073727E-1	9.893096E-1	9.979010E-1	9.664006E-1	1.004447E+0	9.017451E-1	9.084490E-1	9.362030E-1	9.297445E-1	9.501067E-1	9.377262E-1	1.015662E+0	9.805327E-1	9.410823E-1	9.035347E-1	9.713963E-1	9.151403E-1	8.847453E-1	9.186846E-1	9.222706E-1	9.443522E-1	1.008116E+0	9.200554E-1	9.637228E-1	9.444445E-1	9.428704E-1	9.197478E-1	9.723430E-1	9.497341E-1	9.662385E-1	9.614033E-1	9.053126E-1	9.190933E-1	9.719156E-1	9.413805E-1	8.955684E-1	9.831560E-1	9.356814E-1	9.621640E-1	9.759133E-1	9.330726E-1	9.321262E-1	9.409126E-1	9.041648E-1	9.127141E-1	9.357665E-1	9.181688E-1	9.285658E-1	9.209686E-1	9.657501E-1	9.710780E-1	1.001184E+0	9.207195E-1	9.210080E-1	9.353640E-1	9.399057E-1	9.101772E-1	9.426919E-1	9.348958E-1	9.264271E-1	9.428126E-1	9.379830E-1	9.517828E-1	9.568687E-1	9.634917E-1	8.920793E-1	9.245909E-1	9.461957E-1	9.300953E-1	9.285640E-1	9.366279E-1	9.537626E-1	9.831633E-1	9.554743E-1	9.537436E-1	9.703475E-1	9.649638E-1	9.328366E-1	9.666779E-1	9.622753E-1	9.314287E-1	9.906752E-1	9.947218E-1	9.092334E-1	9.192803E-1	1.015759E+0
5.430120E+2	1.041748E+0	1.015877E+0	1.015016E+0	1.037344E+0	1.007523E+0	1.070362E+0	1.027094E+0	1.068479E+0	1.029784E+0	9.989588E-1	1.042051E+0	1.044736E+0	1.056187E+0	1.042333E+0	1.030343E+0	1.006823E+0	1.046955E+0	9.982237E-1	1.042608E+0	1.040623E+0	1.008285E+0	1.035068E+0	1.074712E+0	1.073379E+0	1.050729E+0	1.072563E+0	1.071783E+0	1.092204E+0	1.039259E+0	1.071298E+0	1.049375E+0	1.121733E+0	1.060524E+0	9.969933E-1	1.002163E+0	1.040896E+0	1.087402E+0	1.023952E+0	1.058895E+0	1.057670E+0	1.089522E+0	1.019294E+0	1.075161E+0	1.055921E+0	1.038823E+0	1.039166E+0	1.055760E+0	1.069876E+0	1.087709E+0	1.050565E+0	1.085907E+0	1.078502E+0	1.038347E+0	1.047851E+0	1.009884E+0	1.056902E+0	1.021264E+0	1.014061E+0	1.053911E+0	1.022828E+0	1.026266E+0	1.010530E+0	1.079986E+0	1.070033E+0	1.028383E+0	1.051204E+0	1.066784E+0	1.081116E+0	1.022716E+0	1.013474E+0	1.024673E+0	1.093134E+0	1.020323E+0	1.018228E+0	1.042276E+0	1.016073E+0	1.013655E+0	1.034333E+0	1.057582E+0	1.072935E+0	1.041217E+0	1.046412E+0	1.036721E+0	1.021948E+0	1.008508E+0	1.060269E+0	1.096809E+0	1.078893E+0	1.032465E+0	1.113404E+0	1.019342E+0	1.028290E+0	1.036195E+0	1.023443E+0	1.022206E+0	1.056097E+0	9.744677E-1	1.078835E+0	9.678574E-1	1.034624E+0	1.070216E+0	1.075761E+0	1.021213E+0	1.076222E+0	1.080468E+0	1.040699E+0	1.063316E+0	1.083144E+0	9.841714E-1	1.012599E+0	1.094161E+0	1.053022E+0	1.033274E+0	1.029971E+0	1.077894E+0	1.057614E+0	1.059529E+0	1.021885E+0	1.074777E+0	1.042741E+0	1.047595E+0	1.067646E+0	1.048515E+0	1.050196E+0	1.026581E+0	1.034293E+0	1.043989E+0	1.009775E+0	1.024848E+0	1.063420E+0	1.101230E+0	1.010798E+0	1.051153E+0	1.022740E+0	1.045634E+0	1.054805E+0	1.074531E+0	1.012889E+0	1.031221E+0	1.076374E+0	1.000807E+0	1.083060E+0	9.874958E-1	1.022489E+0	1.012494E+0	1.039144E+0	1.087949E+0	1.066006E+0	1.033371E+0	1.010885E+0	1.023999E+0	1.026652E+0	1.062467E+0	1.023547E+0	1.044355E+0	9.920454E-1	9.788675E-1	1.047663E+0	1.058448E+0	1.064259E+0	1.047327E+0	1.031873E+0	1.048603E+0	1.058565E+0	1.089647E+0	1.014338E+0	1.071256E+0	1.058279E+0	1.055868E+0	1.031253E+0	1.060424E+0
5.432910E+2	1.206426E+0	1.196292E+0	1.171222E+0	1.213557E+0	1.153443E+0	1.253943E+0	1.213587E+0	1.231826E+0	1.186394E+0	1.185562E+0	1.196783E+0	1.221034E+0	1.164668E+0	1.136134E+0	1.188180E+0	1.206202E+0	1.193887E+0	1.170267E+0	1.221352E+0	1.235749E+0	1.149039E+0	1.186682E+0	1.259729E+0	1.192703E+0	1.205775E+0	1.204508E+0	1.239609E+0	1.276555E+0	1.228418E+0	1.214494E+0	1.168818E+0	1.254189E+0	1.180726E+0	1.184233E+0	1.194137E+0	1.149081E+0	1.207156E+0	1.147218E+0	1.176382E+0	1.197855E+0	1.242969E+0	1.174336E+0	1.233942E+0	1.115224E+0	1.212504E+0	1.231220E+0	1.224627E+0	1.199567E+0	1.214715E+0	1.161957E+0	1.219337E+0	1.201789E+0	1.212464E+0	1.222485E+0	1.149960E+0	1.214816E+0	1.192678E+0	1.138672E+0	1.216449E+0	1.191150E+0	1.231696E+0	1.183678E+0	1.231076E+0	1.213348E+0	1.233331E+0	1.211559E+0	1.193096E+0	1.219760E+0	1.169698E+0	1.220916E+0	1.194132E+0	1.184133E+0	1.235725E+0	1.153016E+0	1.204306E+0	1.146666E+0	1.220217E+0	1.180753E+0	1.191119E+0	1.216277E+0	1.201344E+0	1.236813E+0	1.194815E+0	1.147186E+0	1.185962E+0	1.144772E+0	1.183829E+0	1.188775E+0	1.224562E+0	1.181892E+0	1.168381E+0	1.165782E+0	1.210390E+0	1.160635E+0	1.240661E+0	1.260787E+0	1.223252E+0	1.246212E+0	1.175879E+0	1.156921E+0	1.184094E+0	1.200417E+0	1.183223E+0	1.214435E+0	1.207802E+0	1.182258E+0	1.225241E+0	1.169337E+0	1.191228E+0	1.162731E+0	1.248434E+0	1.166867E+0	1.154631E+0	1.199315E+0	1.188127E+0	1.253151E+0	1.203424E+0	1.185267E+0	1.194852E+0	1.194757E+0	1.149941E+0	1.236606E+0	1.218514E+0	1.206366E+0	1.237647E+0	1.220449E+0	1.249052E+0	1.180941E+0	1.172347E+0	1.146679E+0	1.164828E+0	1.155421E+0	1.221740E+0	1.148388E+0	1.205253E+0	1.232839E+0	1.202644E+0	1.158724E+0	1.207558E+0	1.176767E+0	1.180701E+0	1.175973E+0	1.158184E+0	1.196986E+0	1.155134E+0	1.212633E+0	1.173261E+0	1.156608E+0	1.216996E+0	1.172495E+0	1.137811E+0	1.200365E+0	1.203635E+0	1.149269E+0	1.257192E+0	1.140491E+0	1.203563E+0	1.201695E+0	1.189665E+0	1.139981E+0	1.177931E+0	1.185305E+0	1.223769E+0	1.166702E+0	1.228659E+0	1.230158E+0	1.174268E+0	1.217525E+0	1.203317E+0	1.215080E+0	1.135930E+0
5.435270E+2	1.343518E+0	1.340902E+0	1.342483E+0	1.294421E+0	1.340504E+0	1.437031E+0	1.292666E+0	1.309486E+0	1.302576E+0	1.335149E+0	1.334272E+0	1.299552E+0	1.344660E+0	1.337810E+0	1.405443E+0	1.412469E+0	1.320147E+0	1.386270E+0	1.355334E+0	1.309735E+0	1.356869E+0	1.340643E+0	1.317644E+0	1.315549E+0	1.341518E+0	1.327299E+0	1.374996E+0	1.356466E+0	1.331883E+0	1.279767E+0	1.377293E+0	1.365488E+0	1.322829E+0	1.328804E+0	1.367773E+0	1.321395E+0	1.331979E+0	1.267897E+0	1.353571E+0	1.324255E+0	1.385620E+0	1.322866E+0	1.317270E+0	1.348217E+0	1.343018E+0	1.361124E+0	1.380192E+0	1.330268E+0	1.293415E+0	1.387788E+0	1.336077E+0	1.361414E+0	1.404116E+0	1.323528E+0	1.324811E+0	1.377048E+0	1.389249E+0	1.289340E+0	1.380799E+0	1.388483E+0	1.324575E+0	1.313536E+0	1.348053E+0	1.387896E+0	1.386913E+0	1.319437E+0	1.302277E+0	1.370045E+0	1.347298E+0	1.328496E+0	1.329559E+0	1.390669E+0	1.358912E+0	1.349551E+0	1.334840E+0	1.338467E+0	1.282873E+0	1.364263E+0	1.393682E+0	1.316800E+0	1.307827E+0	1.360574E+0	1.350283E+0	1.359230E+0	1.258751E+0	1.257713E+0	1.366951E+0	1.355636E+0	1.299566E+0	1.360531E+0	1.310525E+0	1.377792E+0	1.321281E+0	1.366332E+0	1.351269E+0	1.324082E+0	1.269348E+0	1.321148E+0	1.288399E+0	1.367062E+0	1.366313E+0	1.387066E+0	1.310263E+0	1.313809E+0	1.294136E+0	1.267101E+0	1.382874E+0	1.336473E+0	1.301628E+0	1.267012E+0	1.343315E+0	1.310656E+0	1.276963E+0	1.366661E+0	1.274019E+0	1.351813E+0	1.330098E+0	1.303888E+0	1.316606E+0	1.264688E+0	1.286402E+0	1.342192E+0	1.325254E+0	1.310067E+0	1.311550E+0	1.274628E+0	1.355349E+0	1.332432E+0	1.370008E+0	1.274315E+0	1.278520E+0	1.462442E+0	1.337905E+0	1.302374E+0	1.354893E+0	1.349379E+0	1.358068E+0	1.300164E+0	1.324258E+0	1.302364E+0	1.333345E+0	1.349625E+0	1.352184E+0	1.386249E+0	1.294176E+0	1.373464E+0	1.329910E+0	1.318089E+0	1.318909E+0	1.340628E+0	1.282190E+0	1.305134E+0	1.328286E+0	1.273304E+0	1.381436E+0	1.239102E+0	1.295255E+0	1.282484E+0	1.317059E+0	1.321526E+0	1.330670E+0	1.275609E+0	1.331431E+0	1.362041E+0	1.352064E+0	1.307752E+0	1.348331E+0	1.289502E+0	1.284722E+0	1.251217E+0	1.382698E+0
5.437850E+2	1.404096E+0	1.475204E+0	1.422497E+0	1.444148E+0	1.457163E+0	1.562868E+0	1.416291E+0	1.443552E+0	1.478149E+0	1.433514E+0	1.417148E+0	1.447644E+0	1.505940E+0	1.423819E+0	1.438996E+0	1.414195E+0	1.459529E+0	1.432553E+0	1.495936E+0	1.457030E+0	1.424802E+0	1.477425E+0	1.474957E+0	1.394543E+0	1.395992E+0	1.485792E+0	1.385992E+0	1.490257E+0	1.424251E+0	1.408035E+0	1.540673E+0	1.462434E+0	1.489591E+0	1.429701E+0	1.458691E+0	1.454229E+0	1.447564E+0	1.415718E+0	1.446303E+0	1.409114E+0	1.442508E+0	1.366288E+0	1.426937E+0	1.445258E+0	1.410946E+0	1.420643E+0	1.465730E+0	1.407666E+0	1.449678E+0	1.390162E+0	1.477351E+0	1.487349E+0	1.439849E+0	1.458440E+0	1.431133E+0	1.436847E+0	1.458706E+0	1.468429E+0	1.440363E+0	1.369261E+0	1.396032E+0	1.410607E+0	1.446301E+0	1.454583E+0	1.471569E+0	1.415961E+0	1.418477E+0	1.455615E+0	1.371933E+0	1.362010E+0	1.404066E+0	1.432261E+0	1.449983E+0	1.451383E+0	1.420447E+0	1.381942E+0	1.447645E+0	1.381034E+0	1.435743E+0	1.472733E+0	1.450031E+0	1.456630E+0	1.434551E+0	1.417972E+0	1.414145E+0	1.398048E+0	1.457827E+0	1.434969E+0	1.436310E+0	1.495537E+0	1.396332E+0	1.385794E+0	1.410582E+0	1.392267E+0	1.448253E+0	1.422436E+0	1.390325E+0	1.404801E+0	1.463971E+0	1.450332E+0	1.425988E+0	1.396747E+0	1.366784E+0	1.434696E+0	1.413671E+0	1.388531E+0	1.469331E+0	1.459751E+0	1.341999E+0	1.358229E+0	1.475525E+0	1.438133E+0	1.394712E+0	1.391331E+0	1.459237E+0	1.418546E+0	1.452808E+0	1.426466E+0	1.425086E+0	1.331253E+0	1.426281E+0	1.370352E+0	1.406576E+0	1.415860E+0	1.446320E+0	1.373981E+0	1.408976E+0	1.443456E+0	1.358259E+0	1.404307E+0	1.457590E+0	1.352052E+0	1.452958E+0	1.376822E+0	1.447112E+0	1.399629E+0	1.399218E+0	1.406075E+0	1.426315E+0	1.423436E+0	1.365284E+0	1.350548E+0	1.390686E+0	1.413105E+0	1.402912E+0	1.385374E+0	1.430282E+0	1.397907E+0	1.443366E+0	1.382676E+0	1.395175E+0	1.395705E+0	1.379392E+0	1.419810E+0	1.452564E+0	1.417690E+0	1.393984E+0	1.470121E+0	1.405706E+0	1.416309E+0	1.399501E+0	1.327573E+0	1.389439E+0	1.406692E+0	1.413571E+0	1.475014E+0	1.459296E+0	1.432051E+0	1.487255E+0	1.458339E+0	1.524744E+0
5.440060E+2	1.588740E+0	1.508474E+0	1.542085E+0	1.600904E+0	1.560014E+0	1.553752E+0	1.544942E+0	1.585688E+0	1.531031E+0	1.468635E+0	1.629091E+0	1.513366E+0	1.581650E+0	1.545049E+0	1.656987E+0	1.520507E+0	1.557190E+0	1.520229E+0	1.534388E+0	1.627947E+0	1.583849E+0	1.543006E+0	1.589429E+0	1.527071E+0	1.542633E+0	1.516963E+0	1.572137E+0	1.587759E+0	1.562669E+0	1.531364E+0	1.518095E+0	1.510342E+0	1.524410E+0	1.524830E+0	1.568168E+0	1.548055E+0	1.588014E+0	1.509600E+0	1.560740E+0	1.520089E+0	1.624018E+0	1.521824E+0	1.575253E+0	1.542502E+0	1.522989E+0	1.508874E+0	1.555215E+0	1.512876E+0	1.513657E+0	1.540019E+0	1.587385E+0	1.503255E+0	1.563405E+0	1.551200E+0	1.580621E+0	1.519424E+0	1.550454E+0	1.502942E+0	1.587150E+0	1.526694E+0	1.469724E+0	1.499181E+0	1.527009E+0	1.536062E+0	1.568932E+0	1.557076E+0	1.561409E+0	1.569586E+0	1.507256E+0	1.467878E+0	1.494190E+0	1.493250E+0	1.547639E+0	1.537697E+0	1.549236E+0	1.579335E+0	1.561121E+0	1.473491E+0	1.581130E+0	1.521486E+0	1.512088E+0	1.499748E+0	1.528854E+0	1.577844E+0	1.511374E+0	1.432775E+0	1.535364E+0	1.549509E+0	1.526679E+0	1.542572E+0	1.575630E+0	1.509556E+0	1.512239E+0	1.537190E+0	1.509404E+0	1.566538E+0	1.570406E+0	1.572618E+0	1.522832E+0	1.539103E+0	1.542624E+0	1.563965E+0	1.515471E+0	1.509019E+0	1.495729E+0	1.524315E+0	1.535505E+0	1.561151E+0	1.455904E+0	1.498677E+0	1.504962E+0	1.550733E+0	1.507838E+0	1.487819E+0	1.502490E+0	1.474092E+0	1.467590E+0	1.537459E+0	1.542786E+0	1.513501E+0	1.475837E+0	1.512916E+0	1.615634E+0	1.576830E+0	1.535242E+0	1.532639E+0	1.570084E+0	1.504672E+0	1.483952E+0	1.510943E+0	1.531362E+0	1.443527E+0	1.503767E+0	1.504183E+0	1.509877E+0	1.554239E+0	1.540104E+0	1.523071E+0	1.506390E+0	1.494260E+0	1.487782E+0	1.456226E+0	1.488958E+0	1.495715E+0	1.538193E+0	1.462334E+0	1.499594E+0	1.571493E+0	1.516557E+0	1.537467E+0	1.469017E+0	1.463432E+0	1.538600E+0	1.536168E+0	1.472517E+0	1.471892E+0	1.432880E+0	1.552774E+0	1.493885E+0	1.535689E+0	1.530016E+0	1.436698E+0	1.534033E+0	1.489805E+0	1.571651E+0	1.499562E+0	1.460289E+0	1.495490E+0	1.439907E+0	1.499437E+0	1.535919E+0
5.442750E+2	1.600088E+0	1.567683E+0	1.582674E+0	1.525372E+0	1.548087E+0	1.611580E+0	1.584702E+0	1.593088E+0	1.611988E+0	1.574412E+0	1.653164E+0	1.588862E+0	1.598245E+0	1.558448E+0	1.585165E+0	1.537710E+0	1.532732E+0	1.554437E+0	1.557799E+0	1.564762E+0	1.524076E+0	1.634685E+0	1.555446E+0	1.551914E+0	1.546372E+0	1.468534E+0	1.534684E+0	1.653503E+0	1.549533E+0	1.604684E+0	1.575662E+0	1.543238E+0	1.548991E+0	1.543197E+0	1.546509E+0	1.542027E+0	1.559540E+0	1.550586E+0	1.570106E+0	1.584117E+0	1.597115E+0	1.535385E+0	1.581683E+0	1.614859E+0	1.526345E+0	1.548029E+0	1.598962E+0	1.545453E+0	1.528918E+0	1.534656E+0	1.588385E+0	1.593698E+0	1.513405E+0	1.577162E+0	1.565325E+0	1.605226E+0	1.553565E+0	1.518473E+0	1.583937E+0	1.581432E+0	1.559547E+0	1.545258E+0	1.575644E+0	1.566360E+0	1.595676E+0	1.555427E+0	1.541967E+0	1.543879E+0	1.478257E+0	1.575270E+0	1.533980E+0	1.581865E+0	1.554788E+0	1.535754E+0	1.548405E+0	1.547631E+0	1.557857E+0	1.569151E+0	1.596060E+0	1.514697E+0	1.563716E+0	1.536203E+0	1.604853E+0	1.549516E+0	1.505237E+0	1.451787E+0	1.606537E+0	1.620982E+0	1.609951E+0	1.577112E+0	1.480458E+0	1.508643E+0	1.597458E+0	1.562811E+0	1.513314E+0	1.581950E+0	1.555795E+0	1.593060E+0	1.476677E+0	1.619331E+0	1.568674E+0	1.525410E+0	1.487882E+0	1.596931E+0	1.593506E+0	1.505821E+0	1.653674E+0	1.570361E+0	1.486537E+0	1.563179E+0	1.584528E+0	1.535716E+0	1.491417E+0	1.543560E+0	1.485959E+0	1.542782E+0	1.576520E+0	1.477958E+0	1.563657E+0	1.518738E+0	1.538710E+0	1.524403E+0	1.614576E+0	1.607397E+0	1.503370E+0	1.528087E+0	1.594459E+0	1.552906E+0	1.469005E+0	1.489430E+0	1.533927E+0	1.529170E+0	1.518971E+0	1.509566E+0	1.548155E+0	1.539495E+0	1.458548E+0	1.468691E+0	1.511610E+0	1.491956E+0	1.572689E+0	1.502407E+0	1.569899E+0	1.536893E+0	1.506972E+0	1.511109E+0	1.569458E+0	1.557766E+0	1.575666E+0	1.519557E+0	1.629376E+0	1.505559E+0	1.529276E+0	1.535848E+0	1.566358E+0	1.488713E+0	1.512048E+0	1.586201E+0	1.660736E+0	1.504431E+0	1.502556E+0	1.519077E+0	1.567792E+0	1.554574E+0	1.632987E+0	1.500081E+0	1.530199E+0	1.440526E+0	1.533812E+0	1.523194E+0	1.550571E+0
5.445240E+2	1.612630E+0	1.618674E+0	1.573710E+0	1.590760E+0	1.578635E+0	1.589766E+0	1.594880E+0	1.664712E+0	1.533248E+0	1.531582E+0	1.636688E+0	1.501065E+0	1.604586E+0	1.524125E+0	1.540998E+0	1.517432E+0	1.544220E+0	1.560443E+0	1.580801E+0	1.599173E+0	1.537350E+0	1.549821E+0	1.564452E+0	1.491875E+0	1.547638E+0	1.544069E+0	1.540706E+0	1.596978E+0	1.606320E+0	1.574331E+0	1.534420E+0	1.557333E+0	1.519161E+0	1.484949E+0	1.552090E+0	1.543801E+0	1.576524E+0	1.502993E+0	1.553869E+0	1.531530E+0	1.626928E+0	1.546292E+0	1.613026E+0	1.555545E+0	1.542850E+0	1.531714E+0	1.577666E+0	1.608218E+0	1.586525E+0	1.500730E+0	1.597118E+0	1.579339E+0	1.544996E+0	1.573100E+0	1.526555E+0	1.575313E+0	1.577231E+0	1.540735E+0	1.528311E+0	1.544971E+0	1.479957E+0	1.544819E+0	1.525223E+0	1.548355E+0	1.514346E+0	1.499640E+0	1.607621E+0	1.599216E+0	1.554853E+0	1.528418E+0	1.517284E+0	1.554977E+0	1.612790E+0	1.596097E+0	1.582790E+0	1.551020E+0	1.530414E+0	1.570765E+0	1.507532E+0	1.519094E+0	1.498589E+0	1.527034E+0	1.562006E+0	1.587212E+0	1.543099E+0	1.451178E+0	1.537224E+0	1.532995E+0	1.564871E+0	1.530087E+0	1.584210E+0	1.511541E+0	1.505677E+0	1.553166E+0	1.506749E+0	1.575368E+0	1.496213E+0	1.547211E+0	1.531133E+0	1.561674E+0	1.542119E+0	1.589336E+0	1.514707E+0	1.483884E+0	1.535070E+0	1.517135E+0	1.576070E+0	1.528580E+0	1.448802E+0	1.496195E+0	1.550853E+0	1.542953E+0	1.455380E+0	1.543860E+0	1.582630E+0	1.543629E+0	1.525546E+0	1.514608E+0	1.543506E+0	1.521681E+0	1.478849E+0	1.549325E+0	1.553231E+0	1.522297E+0	1.551017E+0	1.506839E+0	1.531196E+0	1.508714E+0	1.480521E+0	1.588753E+0	1.541297E+0	1.501098E+0	1.567113E+0	1.511732E+0	1.546017E+0	1.560205E+0	1.571762E+0	1.503823E+0	1.538392E+0	1.540520E+0	1.508556E+0	1.519906E+0	1.570893E+0	1.548991E+0	1.523550E+0	1.493985E+0	1.532748E+0	1.548857E+0	1.534906E+0	1.495198E+0	1.448548E+0	1.462978E+0	1.530071E+0	1.516631E+0	1.525426E+0	1.528199E+0	1.526934E+0	1.514682E+0	1.609478E+0	1.584891E+0	1.503826E+0	1.440306E+0	1.535676E+0	1.531975E+0	1.537820E+0	1.547014E+0	1.491902E+0	1.506806E+0	1.463948E+0	1.507731E+0	1.515669E+0
5.447610E+2	1.538313E+0	1.449211E+0	1.483598E+0	1.492583E+0	1.494485E+0	1.499303E+0	1.489617E+0	1.506273E+0	1.479081E+0	1.432037E+0	1.557847E+0	1.508211E+0	1.531886E+0	1.399658E+0	1.446998E+0	1.524801E+0	1.447907E+0	1.454716E+0	1.500698E+0	1.457082E+0	1.519802E+0	1.466779E+0	1.464267E+0	1.474018E+0	1.482129E+0	1.401704E+0	1.481862E+0	1.522224E+0	1.480753E+0	1.462072E+0	1.461990E+0	1.441060E+0	1.474395E+0	1.452815E+0	1.500595E+0	1.483891E+0	1.440420E+0	1.484832E+0	1.520998E+0	1.489453E+0	1.501993E+0	1.420897E+0	1.481876E+0	1.425244E+0	1.434808E+0	1.430495E+0	1.509465E+0	1.506428E+0	1.510858E+0	1.407494E+0	1.485559E+0	1.460344E+0	1.452420E+0	1.440511E+0	1.492134E+0	1.454789E+0	1.482066E+0	1.444032E+0	1.524852E+0	1.465154E+0	1.438761E+0	1.476910E+0	1.447665E+0	1.520175E+0	1.510773E+0	1.485961E+0	1.520801E+0	1.520136E+0	1.441620E+0	1.424272E+0	1.461154E+0	1.439902E+0	1.479602E+0	1.482185E+0	1.476675E+0	1.468375E+0	1.465040E+0	1.421937E+0	1.454944E+0	1.501329E+0	1.477550E+0	1.476652E+0	1.471584E+0	1.457431E+0	1.423951E+0	1.402747E+0	1.400904E+0	1.462634E+0	1.433929E+0	1.527795E+0	1.425303E+0	1.465201E+0	1.455937E+0	1.447263E+0	1.403298E+0	1.496815E+0	1.443431E+0	1.534463E+0	1.411094E+0	1.479128E+0	1.483894E+0	1.422332E+0	1.411349E+0	1.472569E+0	1.525030E+0	1.476404E+0	1.534508E+0	1.448194E+0	1.417879E+0	1.437470E+0	1.481661E+0	1.415610E+0	1.435646E+0	1.462317E+0	1.515569E+0	1.472735E+0	1.488913E+0	1.448049E+0	1.504855E+0	1.481771E+0	1.435974E+0	1.451891E+0	1.509854E+0	1.481656E+0	1.485677E+0	1.436456E+0	1.457711E+0	1.453487E+0	1.407738E+0	1.545672E+0	1.437198E+0	1.438364E+0	1.429259E+0	1.403624E+0	1.415477E+0	1.390720E+0	1.467668E+0	1.459576E+0	1.413503E+0	1.457878E+0	1.349339E+0	1.433085E+0	1.456432E+0	1.396294E+0	1.441945E+0	1.451168E+0	1.485698E+0	1.427632E+0	1.493431E+0	1.385108E+0	1.465085E+0	1.455094E+0	1.445349E+0	1.437649E+0	1.481415E+0	1.396052E+0	1.513023E+0	1.442745E+0	1.494752E+0	1.426701E+0	1.444537E+0	1.454691E+0	1.474121E+0	1.458826E+0	1.442526E+0	1.424725E+0	1.463214E+0	1.384232E+0	1.413504E+0	1.406106E+0	1.460685E+0
5.450150E+2	1.340065E+0	1.346051E+0	1.400442E+0	1.372448E+0	1.370221E+0	1.383697E+0	1.377412E+0	1.384158E+0	1.375362E+0	1.316134E+0	1.374975E+0	1.303098E+0	1.346013E+0	1.353415E+0	1.377260E+0	1.394403E+0	1.347504E+0	1.360887E+0	1.404763E+0	1.370905E+0	1.425930E+0	1.359954E+0	1.339935E+0	1.366049E+0	1.400572E+0	1.312237E+0	1.374422E+0	1.388673E+0	1.455530E+0	1.381076E+0	1.396218E+0	1.343504E+0	1.312916E+0	1.294837E+0	1.368398E+0	1.363555E+0	1.362530E+0	1.306599E+0	1.399835E+0	1.330675E+0	1.387851E+0	1.302807E+0	1.340607E+0	1.364570E+0	1.315293E+0	1.265425E+0	1.332422E+0	1.381984E+0	1.376584E+0	1.321736E+0	1.426253E+0	1.426512E+0	1.305478E+0	1.379756E+0	1.289808E+0	1.361226E+0	1.329130E+0	1.405885E+0	1.422511E+0	1.371226E+0	1.368684E+0	1.374033E+0	1.347948E+0	1.362887E+0	1.405668E+0	1.322844E+0	1.358569E+0	1.421241E+0	1.324245E+0	1.344685E+0	1.334934E+0	1.366080E+0	1.386690E+0	1.335335E+0	1.403309E+0	1.313649E+0	1.350258E+0	1.333836E+0	1.409994E+0	1.352352E+0	1.363812E+0	1.362687E+0	1.422067E+0	1.346876E+0	1.322681E+0	1.292739E+0	1.386622E+0	1.300781E+0	1.303527E+0	1.316725E+0	1.363824E+0	1.383650E+0	1.388392E+0	1.303624E+0	1.391188E+0	1.327470E+0	1.377088E+0	1.355229E+0	1.288077E+0	1.375541E+0	1.372849E+0	1.343220E+0	1.377489E+0	1.364049E+0	1.350314E+0	1.290808E+0	1.424666E+0	1.362165E+0	1.347917E+0	1.321811E+0	1.374578E+0	1.320148E+0	1.326939E+0	1.349693E+0	1.350290E+0	1.346799E+0	1.348789E+0	1.359380E+0	1.299548E+0	1.328972E+0	1.320815E+0	1.318561E+0	1.340085E+0	1.324282E+0	1.337037E+0	1.317747E+0	1.381114E+0	1.318768E+0	1.311582E+0	1.325766E+0	1.376293E+0	1.340275E+0	1.352387E+0	1.379517E+0	1.338555E+0	1.364692E+0	1.381985E+0	1.348651E+0	1.331960E+0	1.313663E+0	1.340977E+0	1.285871E+0	1.358992E+0	1.336915E+0	1.331102E+0	1.337817E+0	1.328411E+0	1.334868E+0	1.394861E+0	1.326719E+0	1.294146E+0	1.346909E+0	1.347299E+0	1.352980E+0	1.370708E+0	1.329375E+0	1.376299E+0	1.314877E+0	1.360977E+0	1.381620E+0	1.333284E+0	1.322616E+0	1.372841E+0	1.324631E+0	1.369134E+0	1.319403E+0	1.314207E+0	1.359366E+0	1.338692E+0	1.388874E+0	1.389357E+0
5.452580E+2	1.414894E+0	1.301809E+0	1.370588E+0	1.379658E+0	1.335499E+0	1.338130E+0	1.316924E+0	1.347757E+0	1.345102E+0	1.346632E+0	1.371375E+0	1.377557E+0	1.376095E+0	1.371743E+0	1.312046E+0	1.356052E+0	1.357937E+0	1.320417E+0	1.325751E+0	1.331387E+0	1.371428E+0	1.364685E+0	1.302855E+0	1.304217E+0	1.369024E+0	1.373651E+0	1.341782E+0	1.375600E+0	1.346253E+0	1.305662E+0	1.304217E+0	1.379667E+0	1.281357E+0	1.303889E+0	1.340674E+0	1.387414E+0	1.392336E+0	1.251887E+0	1.332087E+0	1.263389E+0	1.321213E+0	1.343371E+0	1.311673E+0	1.311230E+0	1.282062E+0	1.314338E+0	1.363509E+0	1.346198E+0	1.333399E+0	1.299802E+0	1.280016E+0	1.411207E+0	1.296310E+0	1.298281E+0	1.346419E+0	1.365929E+0	1.374507E+0	1.321249E+0	1.360293E+0	1.363418E+0	1.253400E+0	1.342839E+0	1.358384E+0	1.364843E+0	1.323341E+0	1.335031E+0	1.299597E+0	1.312057E+0	1.287945E+0	1.289823E+0	1.336786E+0	1.350473E+0	1.335841E+0	1.358770E+0	1.376287E+0	1.315740E+0	1.278359E+0	1.405957E+0	1.385552E+0	1.389595E+0	1.300048E+0	1.350218E+0	1.279759E+0	1.337631E+0	1.344043E+0	1.279813E+0	1.301941E+0	1.323960E+0	1.365427E+0	1.360419E+0	1.302245E+0	1.330373E+0	1.361070E+0	1.308113E+0	1.340700E+0	1.395731E+0	1.335971E+0	1.375523E+0	1.293066E+0	1.307314E+0	1.347542E+0	1.351604E+0	1.301410E+0	1.403976E+0	1.406119E+0	1.326166E+0	1.382964E+0	1.342339E+0	1.257787E+0	1.343176E+0	1.341435E+0	1.288415E+0	1.312168E+0	1.321993E+0	1.294373E+0	1.348658E+0	1.309187E+0	1.326275E+0	1.326276E+0	1.319907E+0	1.337789E+0	1.370153E+0	1.322718E+0	1.349167E+0	1.353510E+0	1.312421E+0	1.340135E+0	1.311214E+0	1.315123E+0	1.323347E+0	1.316629E+0	1.342238E+0	1.324376E+0	1.304911E+0	1.359475E+0	1.314904E+0	1.405604E+0	1.328068E+0	1.316263E+0	1.363143E+0	1.302710E+0	1.270304E+0	1.366525E+0	1.359794E+0	1.329091E+0	1.316949E+0	1.324479E+0	1.322660E+0	1.299744E+0	1.293783E+0	1.315044E+0	1.296920E+0	1.338051E+0	1.290817E+0	1.313847E+0	1.344152E+0	1.315727E+0	1.281748E+0	1.360890E+0	1.338142E+0	1.325672E+0	1.280226E+0	1.371766E+0	1.341024E+0	1.373235E+0	1.314055E+0	1.363183E+0	1.306992E+0	1.376916E+0	1.314722E+0	1.260680E+0
5.455290E+2	1.295211E+0	1.299852E+0	1.276724E+0	1.312993E+0	1.268673E+0	1.304871E+0	1.310214E+0	1.278558E+0	1.281472E+0	1.233453E+0	1.283423E+0	1.324188E+0	1.290211E+0	1.316851E+0	1.267093E+0	1.288315E+0	1.276877E+0	1.360932E+0	1.279111E+0	1.371849E+0	1.364757E+0	1.303483E+0	1.299883E+0	1.285276E+0	1.259234E+0	1.300090E+0	1.291651E+0	1.336738E+0	1.341185E+0	1.294339E+0	1.284132E+0	1.269330E+0	1.323759E+0	1.285924E+0	1.302021E+0	1.285925E+0	1.356103E+0	1.271388E+0	1.314231E+0	1.264117E+0	1.333706E+0	1.287340E+0	1.269123E+0	1.290518E+0	1.276150E+0	1.277954E+0	1.313604E+0	1.330569E+0	1.323542E+0	1.290969E+0	1.271673E+0	1.299552E+0	1.312116E+0	1.277538E+0	1.233237E+0	1.267306E+0	1.323289E+0	1.315951E+0	1.223616E+0	1.265740E+0	1.252524E+0	1.293970E+0	1.293894E+0	1.328563E+0	1.279703E+0	1.336363E+0	1.276785E+0	1.368486E+0	1.288304E+0	1.249967E+0	1.257419E+0	1.329882E+0	1.295352E+0	1.272919E+0	1.280625E+0	1.284736E+0	1.248992E+0	1.267831E+0	1.342514E+0	1.305205E+0	1.303958E+0	1.276646E+0	1.310199E+0	1.350030E+0	1.281079E+0	1.205791E+0	1.344211E+0	1.282290E+0	1.284143E+0	1.268346E+0	1.278687E+0	1.214612E+0	1.270260E+0	1.332349E+0	1.273429E+0	1.339620E+0	1.273432E+0	1.286560E+0	1.272852E+0	1.267545E+0	1.242287E+0	1.289742E+0	1.257347E+0	1.320367E+0	1.345162E+0	1.242833E+0	1.316407E+0	1.311151E+0	1.256975E+0	1.249451E+0	1.248632E+0	1.215931E+0	1.236142E+0	1.291142E+0	1.311625E+0	1.223852E+0	1.317397E+0	1.329987E+0	1.298048E+0	1.242386E+0	1.262795E+0	1.327338E+0	1.303796E+0	1.273726E+0	1.284784E+0	1.315054E+0	1.256240E+0	1.279923E+0	1.273330E+0	1.266159E+0	1.296957E+0	1.295477E+0	1.352700E+0	1.234502E+0	1.286304E+0	1.249295E+0	1.281061E+0	1.238237E+0	1.229996E+0	1.283277E+0	1.336005E+0	1.248900E+0	1.285016E+0	1.252285E+0	1.305952E+0	1.277355E+0	1.259838E+0	1.238757E+0	1.282243E+0	1.257112E+0	1.260864E+0	1.239683E+0	1.299954E+0	1.260879E+0	1.267352E+0	1.289244E+0	1.262222E+0	1.288923E+0	1.346509E+0	1.273054E+0	1.269444E+0	1.222712E+0	1.332724E+0	1.277933E+0	1.288056E+0	1.245014E+0	1.233849E+0	1.306680E+0	1.396124E+0	1.235174E+0	1.348724E+0
5.457620E+2	1.246954E+0	1.228467E+0	1.212971E+0	1.223562E+0	1.258339E+0	1.250751E+0	1.239351E+0	1.229062E+0	1.221625E+0	1.222195E+0	1.235365E+0	1.216977E+0	1.232789E+0	1.220223E+0	1.210438E+0	1.273562E+0	1.236041E+0	1.260417E+0	1.250443E+0	1.299000E+0	1.285369E+0	1.252648E+0	1.220951E+0	1.200606E+0	1.220491E+0	1.200604E+0	1.187468E+0	1.301306E+0	1.283764E+0	1.222139E+0	1.180918E+0	1.245325E+0	1.238568E+0	1.170516E+0	1.195074E+0	1.255784E+0	1.232533E+0	1.176307E+0	1.167622E+0	1.209951E+0	1.230531E+0	1.255941E+0	1.220369E+0	1.260357E+0	1.216566E+0	1.224857E+0	1.232730E+0	1.208256E+0	1.209148E+0	1.279760E+0	1.219692E+0	1.248567E+0	1.217215E+0	1.236962E+0	1.213935E+0	1.248276E+0	1.252551E+0	1.232430E+0	1.236653E+0	1.182161E+0	1.213544E+0	1.236049E+0	1.233240E+0	1.193998E+0	1.266964E+0	1.277662E+0	1.205937E+0	1.252069E+0	1.195966E+0	1.224381E+0	1.207244E+0	1.268665E+0	1.227108E+0	1.242872E+0	1.231707E+0	1.213932E+0	1.237336E+0	1.194128E+0	1.243346E+0	1.260793E+0	1.244424E+0	1.233962E+0	1.215822E+0	1.258527E+0	1.235159E+0	1.191431E+0	1.276033E+0	1.245374E+0	1.231248E+0	1.268895E+0	1.186454E+0	1.226845E+0	1.154497E+0	1.209762E+0	1.254887E+0	1.236970E+0	1.220247E+0	1.250227E+0	1.231628E+0	1.234025E+0	1.260476E+0	1.234854E+0	1.218874E+0	1.217683E+0	1.185194E+0	1.206506E+0	1.265163E+0	1.182044E+0	1.184844E+0	1.213857E+0	1.230581E+0	1.214155E+0	1.171464E+0	1.235306E+0	1.225520E+0	1.209550E+0	1.186919E+0	1.154506E+0	1.199672E+0	1.200185E+0	1.252386E+0	1.259051E+0	1.218720E+0	1.279241E+0	1.243369E+0	1.193431E+0	1.238303E+0	1.230835E+0	1.188354E+0	1.221013E+0	1.226420E+0	1.231137E+0	1.222077E+0	1.192260E+0	1.184564E+0	1.211053E+0	1.256357E+0	1.235887E+0	1.118768E+0	1.216295E+0	1.212992E+0	1.206984E+0	1.216737E+0	1.201593E+0	1.196240E+0	1.257081E+0	1.206592E+0	1.201718E+0	1.177416E+0	1.214824E+0	1.183432E+0	1.194956E+0	1.196249E+0	1.208782E+0	1.237243E+0	1.150948E+0	1.191065E+0	1.192590E+0	1.236823E+0	1.239558E+0	1.215082E+0	1.262040E+0	1.242046E+0	1.238789E+0	1.224517E+0	1.215474E+0	1.200006E+0	1.225640E+0	1.204645E+0	1.189739E+0	1.176181E+0
5.460060E+2	1.113116E+0	1.142118E+0	1.168212E+0	1.148842E+0	1.151049E+0	1.152075E+0	1.086458E+0	1.136526E+0	1.075297E+0	1.092689E+0	1.129340E+0	1.131135E+0	1.138680E+0	1.146873E+0	1.115927E+0	1.149736E+0	1.138339E+0	1.147068E+0	1.086071E+0	1.189906E+0	1.163483E+0	1.142509E+0	1.130458E+0	1.062690E+0	1.111908E+0	1.072758E+0	1.108992E+0	1.202166E+0	1.113504E+0	1.156325E+0	1.171001E+0	1.124796E+0	1.145509E+0	1.155814E+0	1.149121E+0	1.149353E+0	1.162687E+0	1.179969E+0	1.111964E+0	1.106248E+0	1.130300E+0	1.147779E+0	1.175715E+0	1.140135E+0	1.136734E+0	1.109542E+0	1.168642E+0	1.144058E+0	1.142028E+0	1.128215E+0	1.174032E+0	1.177250E+0	1.179561E+0	1.163913E+0	1.091416E+0	1.167451E+0	1.132491E+0	1.159852E+0	1.159549E+0	1.144493E+0	1.108179E+0	1.120948E+0	1.124282E+0	1.194733E+0	1.204196E+0	1.174235E+0	1.114346E+0	1.140458E+0	1.122064E+0	1.143729E+0	1.104623E+0	1.161459E+0	1.133765E+0	1.178825E+0	1.173300E+0	1.180715E+0	1.102330E+0	1.098047E+0	1.131528E+0	1.159338E+0	1.095862E+0	1.179474E+0	1.128788E+0	1.236515E+0	1.092521E+0	1.156509E+0	1.123560E+0	1.173834E+0	1.124582E+0	1.178674E+0	1.111301E+0	1.124496E+0	1.159359E+0	1.144886E+0	1.166836E+0	1.142886E+0	1.100673E+0	1.181253E+0	1.062797E+0	1.173297E+0	1.161285E+0	1.125613E+0	1.126954E+0	1.137275E+0	1.121864E+0	1.084097E+0	1.164374E+0	1.110439E+0	1.098002E+0	1.126919E+0	1.095377E+0	1.178740E+0	1.113526E+0	1.152596E+0	1.088393E+0	1.098872E+0	1.135919E+0	1.118936E+0	1.113410E+0	1.120053E+0	1.128550E+0	1.196087E+0	1.112518E+0	1.183835E+0	1.127390E+0	1.140152E+0	1.165118E+0	1.129239E+0	1.034448E+0	1.094987E+0	1.100174E+0	1.124103E+0	1.090421E+0	1.092908E+0	1.127708E+0	1.106211E+0	1.179052E+0	1.091042E+0	1.112541E+0	1.115785E+0	1.118660E+0	1.142010E+0	1.121694E+0	1.113809E+0	1.151943E+0	1.172347E+0	1.110163E+0	1.102021E+0	1.146022E+0	1.106649E+0	1.095976E+0	1.105864E+0	1.103834E+0	1.107958E+0	1.104767E+0	1.077516E+0	1.105722E+0	1.141058E+0	1.140371E+0	1.156268E+0	1.147668E+0	1.094221E+0	1.098539E+0	1.116791E+0	1.163657E+0	1.162657E+0	1.124274E+0	1.160706E+0	1.177153E+0	1.071252E+0	1.005417E+0
5.467660E+2	1.208573E+0	1.184935E+0	1.219722E+0	1.222227E+0	1.198706E+0	1.225127E+0	1.172464E+0	1.212271E+0	1.228647E+0	1.138429E+0	1.176926E+0	1.207531E+0	1.175954E+0	1.219823E+0	1.193020E+0	1.167676E+0	1.196788E+0	1.202667E+0	1.122342E+0	1.216243E+0	1.175856E+0	1.187873E+0	1.174526E+0	1.182492E+0	1.171132E+0	1.150210E+0	1.215987E+0	1.201077E+0	1.239106E+0	1.247709E+0	1.233694E+0	1.199711E+0	1.160999E+0	1.128265E+0	1.137855E+0	1.217563E+0	1.221090E+0	1.155460E+0	1.202986E+0	1.221436E+0	1.211506E+0	1.222779E+0	1.174026E+0	1.203244E+0	1.176215E+0	1.202127E+0	1.195627E+0	1.201389E+0	1.193550E+0	1.213867E+0	1.203269E+0	1.220858E+0	1.127042E+0	1.191581E+0	1.171342E+0	1.208863E+0	1.180353E+0	1.189188E+0	1.188503E+0	1.211083E+0	1.163553E+0	1.168316E+0	1.205098E+0	1.236324E+0	1.223126E+0	1.157556E+0	1.147175E+0	1.252857E+0	1.178803E+0	1.218131E+0	1.171373E+0	1.226499E+0	1.190739E+0	1.199422E+0	1.202231E+0	1.215615E+0	1.207765E+0	1.266199E+0	1.200768E+0	1.153234E+0	1.164078E+0	1.192520E+0	1.186698E+0	1.179968E+0	1.221569E+0	1.165897E+0	1.208000E+0	1.244124E+0	1.214033E+0	1.169385E+0	1.139795E+0	1.195820E+0	1.230862E+0	1.188772E+0	1.186801E+0	1.233849E+0	1.173471E+0	1.168740E+0	1.197810E+0	1.199880E+0	1.148850E+0	1.193186E+0	1.142469E+0	1.212487E+0	1.167250E+0	1.195883E+0	1.204336E+0	1.213921E+0	1.168203E+0	1.154970E+0	1.201936E+0	1.185582E+0	1.147841E+0	1.211476E+0	1.190183E+0	1.145893E+0	1.185640E+0	1.155833E+0	1.224885E+0	1.170366E+0	1.096802E+0	1.193431E+0	1.231551E+0	1.179815E+0	1.140174E+0	1.178831E+0	1.158683E+0	1.169109E+0	1.152955E+0	1.173280E+0	1.133918E+0	1.217940E+0	1.138537E+0	1.158496E+0	1.206154E+0	1.200940E+0	1.239892E+0	1.150958E+0	1.206208E+0	1.185331E+0	1.176804E+0	1.153271E+0	1.167241E+0	1.188932E+0	1.153061E+0	1.214837E+0	1.226629E+0	1.109470E+0	1.154050E+0	1.197952E+0	1.173332E+0	1.126006E+0	1.164977E+0	1.204329E+0	1.177985E+0	1.163270E+0	1.223343E+0	1.228663E+0	1.235272E+0	1.179846E+0	1.205786E+0	1.162531E+0	1.184649E+0	1.211818E+0	1.236135E+0	1.182044E+0	1.164842E+0	1.150694E+0	1.193996E+0	1.201636E+0	1.004932E+0
5.475180E+2	1.276680E+0	1.257503E+0	1.254613E+0	1.329891E+0	1.265650E+0	1.255107E+0	1.306728E+0	1.313504E+0	1.256513E+0	1.331566E+0	1.258692E+0	1.281369E+0	1.286704E+0	1.278224E+0	1.213505E+0	1.311143E+0	1.265410E+0	1.237745E+0	1.238546E+0	1.298058E+0	1.267713E+0	1.283885E+0	1.265768E+0	1.317949E+0	1.268606E+0	1.283121E+0	1.311300E+0	1.296054E+0	1.305666E+0	1.284118E+0	1.262820E+0	1.299514E+0	1.226078E+0	1.237808E+0	1.303462E+0	1.263006E+0	1.294783E+0	1.278574E+0	1.272728E+0	1.313792E+0	1.326359E+0	1.249129E+0	1.276932E+0	1.258937E+0	1.245840E+0	1.267385E+0	1.268727E+0	1.286313E+0	1.266309E+0	1.268583E+0	1.297079E+0	1.284309E+0	1.273234E+0	1.282957E+0	1.252245E+0	1.314706E+0	1.246838E+0	1.282602E+0	1.220709E+0	1.312536E+0	1.261288E+0	1.318790E+0	1.234419E+0	1.295810E+0	1.230434E+0	1.279545E+0	1.220562E+0	1.314159E+0	1.264154E+0	1.213007E+0	1.288562E+0	1.311692E+0	1.315700E+0	1.269434E+0	1.259312E+0	1.276292E+0	1.273599E+0	1.296724E+0	1.247884E+0	1.292308E+0	1.280176E+0	1.257766E+0	1.235184E+0	1.280786E+0	1.283762E+0	1.227529E+0	1.275128E+0	1.274663E+0	1.229594E+0	1.271452E+0	1.308733E+0	1.228341E+0	1.250993E+0	1.233429E+0	1.275457E+0	1.298698E+0	1.228292E+0	1.274304E+0	1.187563E+0	1.259739E+0	1.292291E+0	1.293243E+0	1.296178E+0	1.255773E+0	1.255520E+0	1.276764E+0	1.297903E+0	1.247791E+0	1.212098E+0	1.227821E+0	1.247898E+0	1.273614E+0	1.238874E+0	1.265612E+0	1.248415E+0	1.306102E+0	1.295100E+0	1.307938E+0	1.268019E+0	1.246810E+0	1.223902E+0	1.261752E+0	1.291653E+0	1.255084E+0	1.284024E+0	1.241707E+0	1.275511E+0	1.294743E+0	1.247367E+0	1.211535E+0	1.239923E+0	1.279425E+0	1.286427E+0	1.220634E+0	1.256716E+0	1.275553E+0	1.253125E+0	1.194997E+0	1.308389E+0	1.255214E+0	1.216075E+0	1.235079E+0	1.275860E+0	1.312497E+0	1.267589E+0	1.251400E+0	1.274501E+0	1.267211E+0	1.270942E+0	1.265932E+0	1.259338E+0	1.227861E+0	1.259779E+0	1.218479E+0	1.257165E+0	1.203538E+0	1.225271E+0	1.282083E+0	1.301811E+0	1.296911E+0	1.284166E+0	1.279152E+0	1.274944E+0	1.206419E+0	1.269374E+0	1.283453E+0	1.229504E+0	1.255287E+0	1.296979E+0	1.313067E+0	1.153014E+0
5.482550E+2	1.403722E+0	1.323837E+0	1.371858E+0	1.402560E+0	1.371317E+0	1.437443E+0	1.393402E+0	1.356513E+0	1.406114E+0	1.419356E+0	1.460719E+0	1.275924E+0	1.420434E+0	1.374087E+0	1.382828E+0	1.359493E+0	1.388688E+0	1.425046E+0	1.386505E+0	1.435271E+0	1.371111E+0	1.397623E+0	1.404069E+0	1.331586E+0	1.407042E+0	1.390299E+0	1.406421E+0	1.404503E+0	1.411931E+0	1.377842E+0	1.396553E+0	1.371501E+0	1.424497E+0	1.317194E+0	1.370216E+0	1.377928E+0	1.365637E+0	1.327715E+0	1.359773E+0	1.355679E+0	1.417808E+0	1.376515E+0	1.386387E+0	1.398934E+0	1.409006E+0	1.362110E+0	1.354955E+0	1.425379E+0	1.423509E+0	1.367824E+0	1.430691E+0	1.415921E+0	1.396231E+0	1.375609E+0	1.338142E+0	1.361727E+0	1.382549E+0	1.369118E+0	1.339051E+0	1.380643E+0	1.377055E+0	1.383023E+0	1.433333E+0	1.420981E+0	1.343522E+0	1.400478E+0	1.341791E+0	1.441917E+0	1.403064E+0	1.359543E+0	1.389262E+0	1.366343E+0	1.375831E+0	1.344231E+0	1.358280E+0	1.376362E+0	1.360674E+0	1.426308E+0	1.436147E+0	1.365475E+0	1.386783E+0	1.399323E+0	1.389760E+0	1.381494E+0	1.358829E+0	1.359865E+0	1.346389E+0	1.432126E+0	1.420502E+0	1.410055E+0	1.343434E+0	1.293243E+0	1.358719E+0	1.389087E+0	1.343706E+0	1.390065E+0	1.393324E+0	1.357320E+0	1.326347E+0	1.409878E+0	1.368968E+0	1.324540E+0	1.362972E+0	1.392674E+0	1.334587E+0	1.328674E+0	1.364234E+0	1.336201E+0	1.306138E+0	1.338258E+0	1.363689E+0	1.321942E+0	1.380028E+0	1.362289E+0	1.313798E+0	1.331001E+0	1.386128E+0	1.369583E+0	1.347772E+0	1.309802E+0	1.351446E+0	1.412389E+0	1.377411E+0	1.389796E+0	1.420895E+0	1.393349E+0	1.338187E+0	1.370728E+0	1.318831E+0	1.294696E+0	1.364162E+0	1.348030E+0	1.410802E+0	1.368428E+0	1.354864E+0	1.396947E+0	1.388316E+0	1.376633E+0	1.358303E+0	1.339201E+0	1.362077E+0	1.288036E+0	1.275155E+0	1.359963E+0	1.410581E+0	1.358607E+0	1.342777E+0	1.380899E+0	1.342298E+0	1.361682E+0	1.307095E+0	1.342253E+0	1.326942E+0	1.348440E+0	1.372617E+0	1.337894E+0	1.350676E+0	1.286748E+0	1.385759E+0	1.428502E+0	1.315207E+0	1.389890E+0	1.380765E+0	1.419380E+0	1.401247E+0	1.368839E+0	1.417068E+0	1.358444E+0	1.400702E+0	1.312985E+0	1.437228E+0
5.490380E+2	1.347985E+0	1.374737E+0	1.378622E+0	1.360556E+0	1.418847E+0	1.354874E+0	1.300755E+0	1.374783E+0	1.314436E+0	1.350125E+0	1.362341E+0	1.293924E+0	1.352691E+0	1.349278E+0	1.326933E+0	1.406724E+0	1.360263E+0	1.400086E+0	1.335531E+0	1.350913E+0	1.395816E+0	1.327478E+0	1.350444E+0	1.315080E+0	1.303085E+0	1.364958E+0	1.358150E+0	1.396641E+0	1.367505E+0	1.307964E+0	1.333037E+0	1.343400E+0	1.375812E+0	1.331316E+0	1.274678E+0	1.349489E+0	1.382826E+0	1.350996E+0	1.324668E+0	1.285448E+0	1.338264E+0	1.264198E+0	1.389823E+0	1.371487E+0	1.284870E+0	1.334767E+0	1.318312E+0	1.351127E+0	1.316195E+0	1.362822E+0	1.356418E+0	1.368241E+0	1.337476E+0	1.373858E+0	1.342336E+0	1.337693E+0	1.303970E+0	1.345682E+0	1.335592E+0	1.372825E+0	1.355132E+0	1.382164E+0	1.360405E+0	1.306973E+0	1.325543E+0	1.366700E+0	1.344657E+0	1.318650E+0	1.358976E+0	1.332859E+0	1.341756E+0	1.328232E+0	1.344181E+0	1.377011E+0	1.345381E+0	1.328170E+0	1.274983E+0	1.351060E+0	1.362283E+0	1.316060E+0	1.318414E+0	1.329555E+0	1.312868E+0	1.388073E+0	1.285054E+0	1.318380E+0	1.383688E+0	1.382243E+0	1.325604E+0	1.344820E+0	1.352432E+0	1.299853E+0	1.351979E+0	1.352655E+0	1.367447E+0	1.393831E+0	1.318783E+0	1.347020E+0	1.341066E+0	1.307295E+0	1.386736E+0	1.379406E+0	1.320896E+0	1.327330E+0	1.358069E+0	1.310580E+0	1.388992E+0	1.284767E+0	1.280009E+0	1.268141E+0	1.364933E+0	1.314080E+0	1.246096E+0	1.336535E+0	1.342312E+0	1.354968E+0	1.310567E+0	1.313451E+0	1.333577E+0	1.328665E+0	1.321126E+0	1.325114E+0	1.338575E+0	1.403803E+0	1.282916E+0	1.312856E+0	1.316773E+0	1.294889E+0	1.298020E+0	1.327139E+0	1.312892E+0	1.318594E+0	1.378311E+0	1.305151E+0	1.351111E+0	1.328141E+0	1.322423E+0	1.323637E+0	1.272101E+0	1.268575E+0	1.299613E+0	1.352192E+0	1.282315E+0	1.391598E+0	1.356251E+0	1.316689E+0	1.345207E+0	1.399450E+0	1.326902E+0	1.305508E+0	1.312906E+0	1.355758E+0	1.325277E+0	1.269326E+0	1.322747E+0	1.293784E+0	1.291124E+0	1.312904E+0	1.335698E+0	1.349860E+0	1.351253E+0	1.353299E+0	1.306121E+0	1.340362E+0	1.349226E+0	1.317392E+0	1.341808E+0	1.341183E+0	1.321065E+0	1.257922E+0	1.288331E+0
5.497790E+2	1.310498E+0	1.307013E+0	1.316871E+0	1.328247E+0	1.291486E+0	1.337300E+0	1.332547E+0	1.279473E+0	1.309787E+0	1.238768E+0	1.302014E+0	1.312296E+0	1.317622E+0	1.321338E+0	1.280474E+0	1.352265E+0	1.313099E+0	1.328422E+0	1.341819E+0	1.337594E+0	1.357571E+0	1.339345E+0	1.309925E+0	1.301974E+0	1.271863E+0	1.292990E+0	1.289481E+0	1.338626E+0	1.331500E+0	1.250143E+0	1.297100E+0	1.321346E+0	1.324882E+0	1.297373E+0	1.241628E+0	1.360083E+0	1.330857E+0	1.280849E+0	1.279172E+0	1.252523E+0	1.357899E+0	1.266632E+0	1.299509E+0	1.330032E+0	1.304508E+0	1.260037E+0	1.308614E+0	1.318320E+0	1.305376E+0	1.316675E+0	1.308274E+0	1.377025E+0	1.337460E+0	1.278303E+0	1.292712E+0	1.262355E+0	1.311973E+0	1.284707E+0	1.318093E+0	1.267694E+0	1.281323E+0	1.264354E+0	1.356503E+0	1.323130E+0	1.360352E+0	1.291159E+0	1.267853E+0	1.297539E+0	1.358442E+0	1.273667E+0	1.294012E+0	1.332758E+0	1.280769E+0	1.300625E+0	1.235049E+0	1.301436E+0	1.296105E+0	1.265057E+0	1.301737E+0	1.313658E+0	1.289293E+0	1.309299E+0	1.244194E+0	1.363214E+0	1.331002E+0	1.248539E+0	1.304991E+0	1.272743E+0	1.285162E+0	1.301959E+0	1.265854E+0	1.200839E+0	1.300570E+0	1.276377E+0	1.325909E+0	1.309913E+0	1.285137E+0	1.344497E+0	1.227693E+0	1.332621E+0	1.343106E+0	1.262352E+0	1.277375E+0	1.263040E+0	1.298597E+0	1.310237E+0	1.350460E+0	1.319300E+0	1.233546E+0	1.251903E+0	1.304040E+0	1.286219E+0	1.296327E+0	1.319965E+0	1.243683E+0	1.323174E+0	1.299491E+0	1.368529E+0	1.332001E+0	1.301666E+0	1.282604E+0	1.286257E+0	1.279943E+0	1.331333E+0	1.286062E+0	1.263163E+0	1.248654E+0	1.274731E+0	1.255447E+0	1.268904E+0	1.301225E+0	1.335526E+0	1.288935E+0	1.268550E+0	1.297124E+0	1.306082E+0	1.331846E+0	1.287164E+0	1.309745E+0	1.233714E+0	1.225925E+0	1.332875E+0	1.288372E+0	1.299728E+0	1.275024E+0	1.281755E+0	1.266587E+0	1.241530E+0	1.311893E+0	1.298178E+0	1.271053E+0	1.247193E+0	1.331141E+0	1.324692E+0	1.303083E+0	1.311056E+0	1.284718E+0	1.276150E+0	1.318732E+0	1.325216E+0	1.284416E+0	1.297860E+0	1.266573E+0	1.273217E+0	1.304629E+0	1.237498E+0	1.286845E+0	1.304212E+0	1.293971E+0	1.161173E+0	1.282445E+0
5.505060E+2	1.248552E+0	1.304211E+0	1.322568E+0	1.271915E+0	1.294454E+0	1.280666E+0	1.225127E+0	1.233964E+0	1.219415E+0	1.279213E+0	1.261379E+0	1.262962E+0	1.236350E+0	1.248446E+0	1.261782E+0	1.240512E+0	1.243166E+0	1.312335E+0	1.218735E+0	1.295046E+0	1.321013E+0	1.302368E+0	1.262565E+0	1.228358E+0	1.210779E+0	1.268294E+0	1.269187E+0	1.286584E+0	1.319099E+0	1.184879E+0	1.249182E+0	1.284737E+0	1.306446E+0	1.258805E+0	1.202784E+0	1.195435E+0	1.282314E+0	1.274061E+0	1.222739E+0	1.265280E+0	1.281436E+0	1.232761E+0	1.232434E+0	1.262711E+0	1.263231E+0	1.290851E+0	1.318162E+0	1.219746E+0	1.296428E+0	1.249316E+0	1.241263E+0	1.311734E+0	1.298861E+0	1.257192E+0	1.293770E+0	1.261021E+0	1.267891E+0	1.231357E+0	1.301844E+0	1.260254E+0	1.229900E+0	1.268433E+0	1.268248E+0	1.280778E+0	1.252343E+0	1.277845E+0	1.260249E+0	1.289110E+0	1.234167E+0	1.243343E+0	1.252690E+0	1.264952E+0	1.261075E+0	1.282695E+0	1.242460E+0	1.290402E+0	1.240613E+0	1.253407E+0	1.178247E+0	1.341262E+0	1.228784E+0	1.277549E+0	1.313304E+0	1.264239E+0	1.276983E+0	1.196323E+0	1.270012E+0	1.230401E+0	1.249481E+0	1.234040E+0	1.271314E+0	1.215591E+0	1.256034E+0	1.290409E+0	1.274452E+0	1.268195E+0	1.249186E+0	1.266207E+0	1.221790E+0	1.252197E+0	1.258837E+0	1.254779E+0	1.243098E+0	1.248735E+0	1.257121E+0	1.259276E+0	1.226806E+0	1.287535E+0	1.186994E+0	1.255687E+0	1.270898E+0	1.247502E+0	1.258340E+0	1.306450E+0	1.274663E+0	1.205185E+0	1.196737E+0	1.248062E+0	1.261634E+0	1.208689E+0	1.293735E+0	1.250267E+0	1.246574E+0	1.266736E+0	1.258969E+0	1.280806E+0	1.276672E+0	1.252585E+0	1.224762E+0	1.247878E+0	1.298956E+0	1.285264E+0	1.280934E+0	1.235653E+0	1.276308E+0	1.246775E+0	1.248879E+0	1.230311E+0	1.276888E+0	1.258224E+0	1.231627E+0	1.251496E+0	1.222338E+0	1.232860E+0	1.270110E+0	1.222171E+0	1.246412E+0	1.253252E+0	1.256550E+0	1.255384E+0	1.218422E+0	1.243410E+0	1.252380E+0	1.224992E+0	1.310201E+0	1.193987E+0	1.271650E+0	1.259984E+0	1.239049E+0	1.282339E+0	1.262246E+0	1.229965E+0	1.242601E+0	1.240810E+0	1.270201E+0	1.251059E+0	1.187043E+0	1.271878E+0	1.277400E+0	1.173264E+0	1.203309E+0
5.512570E+2	1.251338E+0	1.246836E+0	1.243881E+0	1.291896E+0	1.247973E+0	1.270143E+0	1.235361E+0	1.254074E+0	1.263623E+0	1.223508E+0	1.247804E+0	1.248895E+0	1.236902E+0	1.278084E+0	1.224459E+0	1.265486E+0	1.262636E+0	1.227429E+0	1.216800E+0	1.195287E+0	1.298932E+0	1.267899E+0	1.223081E+0	1.222015E+0	1.228912E+0	1.260927E+0	1.229215E+0	1.262805E+0	1.288724E+0	1.274458E+0	1.267313E+0	1.246807E+0	1.253919E+0	1.213339E+0	1.208610E+0	1.240002E+0	1.280962E+0	1.233769E+0	1.291735E+0	1.255993E+0	1.238418E+0	1.241574E+0	1.244752E+0	1.271574E+0	1.248884E+0	1.290731E+0	1.221073E+0	1.263806E+0	1.296072E+0	1.194349E+0	1.286246E+0	1.250376E+0	1.264024E+0	1.257869E+0	1.214570E+0	1.249166E+0	1.199473E+0	1.223259E+0	1.234293E+0	1.281124E+0	1.231306E+0	1.194763E+0	1.261879E+0	1.264686E+0	1.212859E+0	1.289856E+0	1.224274E+0	1.209051E+0	1.205573E+0	1.232822E+0	1.201547E+0	1.271892E+0	1.311484E+0	1.259397E+0	1.266572E+0	1.291282E+0	1.263861E+0	1.201062E+0	1.230166E+0	1.278333E+0	1.204987E+0	1.274599E+0	1.241449E+0	1.257240E+0	1.216891E+0	1.227719E+0	1.236651E+0	1.188583E+0	1.256912E+0	1.204365E+0	1.229014E+0	1.189217E+0	1.238278E+0	1.229347E+0	1.199536E+0	1.283687E+0	1.357163E+0	1.259616E+0	1.255026E+0	1.251138E+0	1.320661E+0	1.195879E+0	1.227580E+0	1.221509E+0	1.280201E+0	1.258078E+0	1.239485E+0	1.244472E+0	1.228058E+0	1.236841E+0	1.184348E+0	1.228540E+0	1.174591E+0	1.230067E+0	1.209916E+0	1.255486E+0	1.213988E+0	1.275883E+0	1.238950E+0	1.215532E+0	1.306082E+0	1.185893E+0	1.250164E+0	1.279885E+0	1.251156E+0	1.205662E+0	1.262883E+0	1.229992E+0	1.201424E+0	1.257936E+0	1.230128E+0	1.204176E+0	1.242525E+0	1.256068E+0	1.290185E+0	1.202462E+0	1.226637E+0	1.272268E+0	1.261722E+0	1.196959E+0	1.230973E+0	1.255908E+0	1.207845E+0	1.279871E+0	1.212272E+0	1.192970E+0	1.227807E+0	1.263788E+0	1.277831E+0	1.264168E+0	1.258433E+0	1.217558E+0	1.241127E+0	1.244400E+0	1.225187E+0	1.230910E+0	1.176509E+0	1.258555E+0	1.256182E+0	1.216210E+0	1.203684E+0	1.231059E+0	1.253589E+0	1.217203E+0	1.232614E+0	1.241406E+0	1.241609E+0	1.240418E+0	1.218105E+0	1.333360E+0	1.279100E+0
5.520100E+2	1.272634E+0	1.255379E+0	1.306672E+0	1.276103E+0	1.272047E+0	1.253470E+0	1.334710E+0	1.271700E+0	1.244205E+0	1.253761E+0	1.270123E+0	1.286826E+0	1.271607E+0	1.279052E+0	1.269322E+0	1.272161E+0	1.289332E+0	1.321440E+0	1.275986E+0	1.315668E+0	1.239438E+0	1.313840E+0	1.253167E+0	1.269338E+0	1.258552E+0	1.304144E+0	1.282137E+0	1.250692E+0	1.281848E+0	1.292963E+0	1.273353E+0	1.228410E+0	1.318936E+0	1.246776E+0	1.253682E+0	1.226607E+0	1.321808E+0	1.291415E+0	1.271536E+0	1.247409E+0	1.312176E+0	1.301495E+0	1.232710E+0	1.253123E+0	1.273471E+0	1.221108E+0	1.297431E+0	1.248916E+0	1.215207E+0	1.263309E+0	1.253851E+0	1.327372E+0	1.239965E+0	1.289366E+0	1.240653E+0	1.294051E+0	1.278388E+0	1.241019E+0	1.344059E+0	1.370559E+0	1.270368E+0	1.265249E+0	1.244715E+0	1.229898E+0	1.254143E+0	1.274731E+0	1.206327E+0	1.343738E+0	1.248838E+0	1.293672E+0	1.247019E+0	1.260506E+0	1.223311E+0	1.287593E+0	1.273817E+0	1.266058E+0	1.229429E+0	1.247130E+0	1.279397E+0	1.222002E+0	1.314399E+0	1.296693E+0	1.243323E+0	1.293689E+0	1.234807E+0	1.192479E+0	1.315222E+0	1.287634E+0	1.294328E+0	1.272252E+0	1.240008E+0	1.216549E+0	1.243557E+0	1.262661E+0	1.291224E+0	1.259526E+0	1.284179E+0	1.253325E+0	1.205820E+0	1.274480E+0	1.311768E+0	1.184634E+0	1.231484E+0	1.298385E+0	1.236623E+0	1.308763E+0	1.256681E+0	1.254217E+0	1.230298E+0	1.295021E+0	1.242870E+0	1.301238E+0	1.246876E+0	1.281676E+0	1.238167E+0	1.290633E+0	1.287462E+0	1.294551E+0	1.279196E+0	1.285951E+0	1.269114E+0	1.255294E+0	1.268481E+0	1.307451E+0	1.230784E+0	1.252548E+0	1.252320E+0	1.298127E+0	1.275227E+0	1.253417E+0	1.265144E+0	1.247340E+0	1.278892E+0	1.225012E+0	1.257171E+0	1.303701E+0	1.268600E+0	1.247103E+0	1.235766E+0	1.271707E+0	1.266274E+0	1.302242E+0	1.278191E+0	1.248399E+0	1.179361E+0	1.315849E+0	1.280692E+0	1.268310E+0	1.265374E+0	1.253235E+0	1.269203E+0	1.233618E+0	1.253198E+0	1.291192E+0	1.267615E+0	1.227886E+0	1.246262E+0	1.244282E+0	1.279529E+0	1.307917E+0	1.281444E+0	1.242341E+0	1.266310E+0	1.238989E+0	1.253709E+0	1.266314E+0	1.255961E+0	1.280244E+0	1.196693E+0	1.344928E+0	1.182998E+0
5.527590E+2	1.291923E+0	1.242612E+0	1.312832E+0	1.273156E+0	1.242639E+0	1.275916E+0	1.187651E+0	1.278215E+0	1.266625E+0	1.210202E+0	1.248055E+0	1.292736E+0	1.294113E+0	1.216983E+0	1.211965E+0	1.240659E+0	1.278459E+0	1.218348E+0	1.197095E+0	1.287100E+0	1.301368E+0	1.295715E+0	1.218706E+0	1.196008E+0	1.271388E+0	1.241073E+0	1.237932E+0	1.249307E+0	1.252824E+0	1.246834E+0	1.219543E+0	1.244316E+0	1.226663E+0	1.237026E+0	1.218671E+0	1.255597E+0	1.294881E+0	1.251912E+0	1.251721E+0	1.195432E+0	1.244725E+0	1.264069E+0	1.238441E+0	1.169625E+0	1.198998E+0	1.232168E+0	1.269782E+0	1.273456E+0	1.277341E+0	1.259236E+0	1.268965E+0	1.217239E+0	1.242306E+0	1.273023E+0	1.256447E+0	1.294952E+0	1.259781E+0	1.233842E+0	1.306466E+0	1.246840E+0	1.243006E+0	1.282908E+0	1.247808E+0	1.267216E+0	1.292013E+0	1.315530E+0	1.215889E+0	1.281491E+0	1.267305E+0	1.237552E+0	1.231305E+0	1.203373E+0	1.280528E+0	1.241356E+0	1.271668E+0	1.235564E+0	1.233162E+0	1.204560E+0	1.255903E+0	1.239464E+0	1.248849E+0	1.255715E+0	1.246962E+0	1.224736E+0	1.255687E+0	1.203489E+0	1.275802E+0	1.229569E+0	1.308501E+0	1.216277E+0	1.232531E+0	1.244755E+0	1.248433E+0	1.238670E+0	1.219231E+0	1.311766E+0	1.216390E+0	1.331318E+0	1.211017E+0	1.256082E+0	1.228900E+0	1.277624E+0	1.190055E+0	1.230975E+0	1.262602E+0	1.307370E+0	1.234724E+0	1.240029E+0	1.190789E+0	1.203385E+0	1.213077E+0	1.198072E+0	1.248790E+0	1.248654E+0	1.201940E+0	1.180198E+0	1.220426E+0	1.188046E+0	1.210876E+0	1.240245E+0	1.214475E+0	1.268249E+0	1.273334E+0	1.258242E+0	1.207652E+0	1.253329E+0	1.193674E+0	1.255901E+0	1.207582E+0	1.193704E+0	1.270726E+0	1.293266E+0	1.286028E+0	1.272089E+0	1.197075E+0	1.259564E+0	1.263158E+0	1.232358E+0	1.229491E+0	1.232680E+0	1.268744E+0	1.253951E+0	1.225985E+0	1.274472E+0	1.247365E+0	1.181085E+0	1.240293E+0	1.262875E+0	1.278503E+0	1.226386E+0	1.189968E+0	1.182162E+0	1.227010E+0	1.224039E+0	1.243356E+0	1.229094E+0	1.267104E+0	1.289086E+0	1.262913E+0	1.270524E+0	1.254803E+0	1.210959E+0	1.207612E+0	1.251919E+0	1.264492E+0	1.244400E+0	1.251970E+0	1.210414E+0	1.268180E+0	1.186611E+0	1.228467E+0
5.534940E+2	1.207464E+0	1.163257E+0	1.183739E+0	1.190191E+0	1.193196E+0	1.234665E+0	1.156978E+0	1.157959E+0	1.121103E+0	1.173711E+0	1.189904E+0	1.192127E+0	1.174221E+0	1.132073E+0	1.176819E+0	1.213929E+0	1.147990E+0	1.152142E+0	1.160571E+0	1.178932E+0	1.202097E+0	1.153042E+0	1.123907E+0	1.165616E+0	1.222432E+0	1.134461E+0	1.160015E+0	1.188655E+0	1.158644E+0	1.165386E+0	1.140402E+0	1.133575E+0	1.161801E+0	1.151805E+0	1.210778E+0	1.150774E+0	1.181648E+0	1.135081E+0	1.161083E+0	1.132291E+0	1.189606E+0	1.167821E+0	1.160218E+0	1.209888E+0	1.137611E+0	1.161245E+0	1.154983E+0	1.131813E+0	1.139630E+0	1.198775E+0	1.162331E+0	1.163904E+0	1.153665E+0	1.190041E+0	1.141896E+0	1.162845E+0	1.191464E+0	1.111382E+0	1.179372E+0	1.176196E+0	1.147867E+0	1.154495E+0	1.186360E+0	1.193751E+0	1.187361E+0	1.192825E+0	1.134066E+0	1.157730E+0	1.217634E+0	1.152307E+0	1.159708E+0	1.162505E+0	1.165467E+0	1.169848E+0	1.173277E+0	1.191436E+0	1.190029E+0	1.129160E+0	1.161941E+0	1.144789E+0	1.149233E+0	1.157584E+0	1.164315E+0	1.203137E+0	1.167249E+0	1.133859E+0	1.164887E+0	1.144981E+0	1.181095E+0	1.142009E+0	1.180203E+0	1.152453E+0	1.194481E+0	1.152043E+0	1.171365E+0	1.174242E+0	1.142643E+0	1.203645E+0	1.117909E+0	1.146887E+0	1.192019E+0	1.151648E+0	1.168679E+0	1.155967E+0	1.110205E+0	1.102911E+0	1.186888E+0	1.135136E+0	1.166763E+0	1.166795E+0	1.141688E+0	1.171958E+0	1.115085E+0	1.123718E+0	1.168611E+0	1.135090E+0	1.209206E+0	1.153074E+0	1.192032E+0	1.143969E+0	1.179452E+0	1.194451E+0	1.180592E+0	1.187102E+0	1.135644E+0	1.157747E+0	1.137723E+0	1.164535E+0	1.167962E+0	1.149888E+0	1.173017E+0	1.152976E+0	1.175153E+0	1.184325E+0	1.164540E+0	1.180342E+0	1.148909E+0	1.184016E+0	1.135657E+0	1.166168E+0	1.165691E+0	1.156029E+0	1.148326E+0	1.141717E+0	1.197291E+0	1.155668E+0	1.184156E+0	1.154627E+0	1.144920E+0	1.161304E+0	1.133665E+0	1.160590E+0	1.155693E+0	1.165666E+0	1.225795E+0	1.148779E+0	1.174739E+0	1.158145E+0	1.179367E+0	1.150367E+0	1.179603E+0	1.144574E+0	1.130649E+0	1.171603E+0	1.158888E+0	1.143828E+0	1.131823E+0	1.116617E+0	1.118723E+0	1.237017E+0	1.146319E+0
5.542580E+2	1.138855E+0	1.123894E+0	1.133676E+0	1.096143E+0	1.137750E+0	1.116102E+0	1.086131E+0	1.142696E+0	1.101120E+0	1.089243E+0	1.088749E+0	1.128356E+0	1.159683E+0	1.162547E+0	1.115014E+0	1.134609E+0	1.141836E+0	1.133761E+0	1.101586E+0	1.108676E+0	1.139176E+0	1.165222E+0	1.100510E+0	1.069191E+0	1.124705E+0	1.090324E+0	1.184642E+0	1.141807E+0	1.165371E+0	1.109315E+0	1.132322E+0	1.108429E+0	1.118820E+0	1.126168E+0	1.081156E+0	1.077606E+0	1.156164E+0	1.131025E+0	1.122959E+0	1.118573E+0	1.164229E+0	1.074799E+0	1.097646E+0	1.102396E+0	1.125307E+0	1.091106E+0	1.102789E+0	1.124107E+0	1.097805E+0	1.144970E+0	1.126011E+0	1.055578E+0	1.169812E+0	1.117378E+0	1.121782E+0	1.189618E+0	1.185621E+0	1.169906E+0	1.159339E+0	1.147788E+0	1.066432E+0	1.091017E+0	1.103336E+0	1.098702E+0	1.076758E+0	1.116500E+0	1.131824E+0	1.103814E+0	1.104594E+0	1.117752E+0	1.044271E+0	1.106499E+0	1.097928E+0	1.119024E+0	1.129767E+0	1.111391E+0	1.101288E+0	1.115838E+0	1.104385E+0	1.146734E+0	1.160028E+0	1.137550E+0	1.134120E+0	1.132733E+0	1.123882E+0	1.109670E+0	1.141826E+0	1.123711E+0	1.068956E+0	1.111543E+0	1.098632E+0	1.101612E+0	1.127724E+0	1.108974E+0	1.101163E+0	1.102479E+0	1.092506E+0	1.115751E+0	1.091108E+0	1.153668E+0	1.137914E+0	1.113408E+0	1.074196E+0	1.078792E+0	1.137568E+0	1.110439E+0	1.193379E+0	1.114814E+0	1.134706E+0	1.164470E+0	1.127254E+0	1.081299E+0	1.088660E+0	1.108038E+0	1.107852E+0	1.137019E+0	1.146743E+0	1.114084E+0	1.090910E+0	1.117093E+0	1.100313E+0	1.123965E+0	1.116569E+0	1.120024E+0	1.114280E+0	1.129974E+0	1.154505E+0	1.063336E+0	1.038277E+0	1.106077E+0	1.093275E+0	1.094251E+0	1.173472E+0	1.135892E+0	1.174660E+0	1.113379E+0	1.100993E+0	1.145373E+0	1.152718E+0	1.116811E+0	1.123153E+0	1.133024E+0	1.091263E+0	1.135404E+0	1.092780E+0	1.077185E+0	1.119892E+0	1.060942E+0	1.120361E+0	1.080916E+0	1.135547E+0	1.037017E+0	1.077060E+0	1.113220E+0	1.138180E+0	1.067701E+0	1.087071E+0	1.125785E+0	1.167062E+0	1.141272E+0	1.164216E+0	1.147122E+0	1.116011E+0	1.123169E+0	1.113162E+0	1.057165E+0	1.087204E+0	1.069683E+0	1.158170E+0	1.144416E+0	1.128058E+0
5.550140E+2	1.039154E+0	9.978494E-1	1.034350E+0	1.102218E+0	1.033592E+0	1.016921E+0	1.005330E+0	9.922168E-1	9.919341E-1	1.012747E+0	1.045925E+0	9.598657E-1	1.032437E+0	1.001616E+0	9.785502E-1	1.023828E+0	1.027805E+0	1.013102E+0	1.010392E+0	1.004836E+0	1.029206E+0	1.042828E+0	1.007044E+0	9.986910E-1	1.003808E+0	1.029169E+0	1.049556E+0	1.026519E+0	1.001256E+0	1.009702E+0	9.916226E-1	1.033101E+0	9.694331E-1	9.789928E-1	1.013796E+0	1.023889E+0	1.003568E+0	1.023475E+0	1.002871E+0	9.728074E-1	1.037657E+0	1.022463E+0	1.031602E+0	1.027179E+0	1.036140E+0	9.895233E-1	1.008681E+0	9.881856E-1	9.973251E-1	9.863254E-1	1.022600E+0	1.042880E+0	1.018770E+0	1.030837E+0	9.872627E-1	1.025943E+0	1.026473E+0	1.026652E+0	1.055662E+0	1.043701E+0	1.008150E+0	1.002698E+0	9.869475E-1	9.814126E-1	1.035536E+0	9.869213E-1	1.012954E+0	1.050015E+0	1.004108E+0	1.023491E+0	9.984032E-1	1.039579E+0	1.020401E+0	9.962447E-1	1.012677E+0	1.037303E+0	9.999432E-1	1.016884E+0	1.000018E+0	1.031406E+0	1.021237E+0	1.003303E+0	1.012101E+0	1.004932E+0	1.026116E+0	9.630174E-1	1.009952E+0	1.022831E+0	1.015506E+0	1.043353E+0	1.049474E+0	9.919641E-1	1.057636E+0	1.031529E+0	9.800409E-1	1.002613E+0	9.725210E-1	9.866923E-1	9.899601E-1	1.009842E+0	1.035977E+0	1.011721E+0	1.021151E+0	1.050768E+0	1.023246E+0	9.991785E-1	1.027650E+0	1.019451E+0	9.842938E-1	9.585294E-1	1.020997E+0	1.029813E+0	9.694124E-1	1.012921E+0	1.041528E+0	9.511562E-1	1.032317E+0	1.010648E+0	1.016711E+0	9.608507E-1	1.039840E+0	1.047259E+0	1.045303E+0	1.011090E+0	9.675209E-1	1.003633E+0	9.945595E-1	1.019982E+0	9.902286E-1	9.784356E-1	1.010899E+0	1.013703E+0	1.019471E+0	1.019333E+0	1.001452E+0	9.817118E-1	1.037723E+0	9.720614E-1	1.027560E+0	9.940899E-1	1.039027E+0	9.795352E-1	9.925394E-1	9.967435E-1	9.930655E-1	1.017836E+0	9.941307E-1	1.031380E+0	1.041632E+0	1.061838E+0	1.007308E+0	9.811593E-1	1.017264E+0	1.017677E+0	1.025402E+0	1.013328E+0	1.005379E+0	1.020233E+0	1.009075E+0	1.017700E+0	1.049640E+0	9.932182E-1	1.026831E+0	1.043058E+0	1.015530E+0	9.675254E-1	1.046014E+0	9.810444E-1	1.085366E+0	9.737537E-1	9.734215E-1
5.557600E+2	9.422541E-1	9.585272E-1	9.589848E-1	9.984018E-1	9.550277E-1	9.747206E-1	9.384086E-1	9.509075E-1	9.374544E-1	9.583561E-1	9.998881E-1	9.623990E-1	9.456581E-1	9.429998E-1	9.792019E-1	9.591388E-1	9.610078E-1	9.739748E-1	9.977056E-1	9.205418E-1	9.557747E-1	1.000389E+0	1.005860E+0	9.684456E-1	9.679894E-1	9.457534E-1	9.620209E-1	1.015440E+0	9.783406E-1	9.512771E-1	9.493087E-1	9.497759E-1	9.315189E-1	9.689845E-1	9.346969E-1	9.619693E-1	9.827279E-1	9.461052E-1	9.742995E-1	9.659887E-1	1.013248E+0	9.873304E-1	9.522262E-1	1.001459E+0	9.564509E-1	9.683100E-1	9.889023E-1	9.686134E-1	1.045496E+0	9.654928E-1	9.427731E-1	9.846501E-1	9.852571E-1	9.713621E-1	9.691522E-1	9.546419E-1	1.022364E+0	9.716495E-1	9.690554E-1	9.644776E-1	9.681133E-1	9.836435E-1	9.726874E-1	9.956142E-1	9.922443E-1	9.856348E-1	9.595972E-1	9.539191E-1	9.828394E-1	9.709221E-1	9.759230E-1	9.600110E-1	9.855432E-1	9.938203E-1	9.784157E-1	1.005354E+0	9.961137E-1	9.586659E-1	9.670425E-1	9.816537E-1	9.370185E-1	1.008375E+0	1.007795E+0	9.930417E-1	9.531984E-1	9.465395E-1	9.651456E-1	9.730769E-1	9.790141E-1	9.907954E-1	9.314563E-1	9.886504E-1	9.327075E-1	9.619587E-1	1.013213E+0	1.005221E+0	9.626734E-1	1.003354E+0	9.644908E-1	9.822496E-1	9.884637E-1	9.957927E-1	9.268340E-1	9.421319E-1	9.706948E-1	9.352794E-1	9.589057E-1	9.677926E-1	9.814895E-1	9.264961E-1	9.514069E-1	9.689933E-1	9.794520E-1	1.003994E+0	9.663584E-1	1.014481E+0	9.826223E-1	9.511731E-1	9.706524E-1	9.316540E-1	9.675549E-1	9.665613E-1	9.378446E-1	9.593891E-1	1.017411E+0	9.935496E-1	9.613552E-1	9.607974E-1	9.494224E-1	9.777856E-1	9.448897E-1	9.501217E-1	9.974286E-1	9.346896E-1	9.982801E-1	9.601792E-1	1.023610E+0	9.589424E-1	9.592508E-1	9.732757E-1	9.723348E-1	9.491566E-1	9.159694E-1	9.858905E-1	9.295721E-1	9.830356E-1	9.614411E-1	9.766179E-1	9.580150E-1	9.736513E-1	9.811509E-1	9.552868E-1	1.038914E+0	9.725702E-1	9.931204E-1	9.429343E-1	1.008408E+0	9.643347E-1	9.870796E-1	9.697192E-1	9.552656E-1	1.008676E+0	9.614226E-1	9.321328E-1	9.748130E-1	9.762632E-1	9.813352E-1	1.029267E+0	1.034201E+0	9.320999E-1	8.746938E-1
5.560190E+2	9.591112E-1	9.993930E-1	9.872680E-1	9.310375E-1	9.686300E-1	9.609848E-1	9.864788E-1	9.691222E-1	9.463267E-1	9.509852E-1	9.384096E-1	9.551536E-1	9.267199E-1	9.460732E-1	9.418667E-1	9.527295E-1	9.794506E-1	9.684283E-1	9.436522E-1	9.407363E-1	1.019512E+0	9.926960E-1	1.007493E+0	9.780953E-1	9.358591E-1	9.679298E-1	1.023083E+0	9.799318E-1	9.724510E-1	1.035828E+0	1.012349E+0	9.628527E-1	9.295570E-1	1.002865E+0	9.431128E-1	9.154228E-1	9.598642E-1	9.684836E-1	1.014615E+0	9.483116E-1	1.012747E+0	9.566183E-1	9.818684E-1	9.237543E-1	9.671807E-1	9.727598E-1	9.784231E-1	9.590639E-1	9.625936E-1	9.700263E-1	9.713172E-1	9.693274E-1	9.701388E-1	9.615658E-1	9.424494E-1	9.315577E-1	1.040439E+0	9.617935E-1	9.820394E-1	9.650308E-1	9.657878E-1	9.606929E-1	1.004300E+0	9.955176E-1	9.705087E-1	9.274544E-1	9.374324E-1	1.011748E+0	9.472375E-1	9.650217E-1	9.462513E-1	9.323091E-1	1.027634E+0	9.924540E-1	9.603897E-1	9.928097E-1	9.905344E-1	9.471150E-1	9.317865E-1	1.020469E+0	9.155439E-1	9.498164E-1	9.294899E-1	9.810577E-1	9.385899E-1	9.232870E-1	9.809655E-1	9.805715E-1	9.468649E-1	9.434394E-1	9.147624E-1	9.293998E-1	9.450115E-1	9.982912E-1	9.651801E-1	9.715219E-1	9.450186E-1	9.666557E-1	9.555388E-1	1.029648E+0	9.949901E-1	9.515064E-1	9.846424E-1	9.584621E-1	9.720268E-1	9.626259E-1	1.064888E+0	9.714787E-1	9.770252E-1	9.476576E-1	9.506215E-1	1.003340E+0	9.563556E-1	9.407020E-1	9.972572E-1	9.849720E-1	9.775281E-1	9.726879E-1	9.648744E-1	9.418799E-1	9.655940E-1	9.652758E-1	9.362552E-1	9.683285E-1	9.941096E-1	9.569974E-1	9.603899E-1	9.708529E-1	9.629126E-1	9.330628E-1	9.899197E-1	9.686383E-1	9.896284E-1	9.677119E-1	9.596808E-1	9.821920E-1	9.679309E-1	9.539416E-1	9.693848E-1	9.583327E-1	9.731949E-1	1.009876E+0	9.698036E-1	9.777061E-1	9.870591E-1	9.577452E-1	1.017582E+0	9.368936E-1	9.993048E-1	9.888180E-1	9.601582E-1	9.566805E-1	9.980597E-1	9.348978E-1	9.811703E-1	9.369166E-1	1.001724E+0	9.693204E-1	9.353898E-1	9.547814E-1	9.540412E-1	9.826810E-1	9.976549E-1	9.570203E-1	9.931738E-1	9.587546E-1	9.819208E-1	9.762276E-1	9.805342E-1	9.524762E-1	8.892202E-1
5.565140E+2	9.747936E-1	9.936019E-1	9.737265E-1	1.005813E+0	9.663448E-1	9.930789E-1	1.021558E+0	9.913010E-1	9.837505E-1	1.006432E+0	1.006045E+0	9.698781E-1	9.941601E-1	9.815359E-1	9.666989E-1	1.023211E+0	9.785373E-1	9.422021E-1	9.918433E-1	9.932255E-1	9.417894E-1	9.610019E-1	9.934401E-1	9.764630E-1	9.951133E-1	9.811042E-1	1.013778E+0	9.698454E-1	1.008090E+0	9.973479E-1	9.827103E-1	9.988303E-1	9.788849E-1	9.641660E-1	9.772045E-1	9.516912E-1	9.827409E-1	9.940053E-1	9.405402E-1	9.856538E-1	9.990827E-1	9.566905E-1	9.713191E-1	9.824087E-1	9.684276E-1	9.649017E-1	9.661220E-1	9.801972E-1	9.496851E-1	9.786550E-1	1.015800E+0	9.966526E-1	9.657199E-1	1.009182E+0	9.384294E-1	9.565524E-1	1.015893E+0	9.844726E-1	1.036753E+0	9.818887E-1	1.023618E+0	1.001955E+0	9.772965E-1	9.479523E-1	9.895684E-1	9.236461E-1	9.904151E-1	9.679680E-1	9.730088E-1	9.414399E-1	9.550815E-1	9.887396E-1	9.865652E-1	1.044250E+0	1.032757E+0	9.825129E-1	9.724734E-1	9.546439E-1	9.904321E-1	9.921094E-1	1.000729E+0	1.009585E+0	9.507556E-1	9.642994E-1	9.489138E-1	1.022666E+0	9.956078E-1	9.802352E-1	9.754674E-1	9.275811E-1	1.002463E+0	9.690004E-1	9.717417E-1	9.730795E-1	9.787825E-1	9.966691E-1	9.947597E-1	9.843336E-1	1.020728E+0	9.744887E-1	9.621015E-1	1.002249E+0	9.560113E-1	1.010831E+0	9.697662E-1	9.820098E-1	9.582667E-1	1.016695E+0	1.004885E+0	9.780957E-1	9.794538E-1	9.775838E-1	9.655870E-1	1.030095E+0	9.492017E-1	9.688032E-1	9.859439E-1	9.929937E-1	9.547662E-1	9.638811E-1	9.410313E-1	1.025640E+0	9.179616E-1	9.807622E-1	9.856695E-1	1.002573E+0	9.770356E-1	1.008484E+0	9.765612E-1	9.587983E-1	9.284682E-1	1.014361E+0	9.898368E-1	9.511091E-1	9.552684E-1	9.641657E-1	9.716920E-1	1.017443E+0	1.014344E+0	9.956609E-1	9.738085E-1	9.594289E-1	1.003045E+0	9.963523E-1	9.773279E-1	9.361330E-1	9.519179E-1	9.442591E-1	9.662960E-1	9.815232E-1	9.755601E-1	9.529883E-1	1.023494E+0	9.811581E-1	9.633645E-1	9.914219E-1	9.936152E-1	1.001479E+0	9.977209E-1	9.561503E-1	9.635229E-1	9.371898E-1	9.852083E-1	9.963219E-1	9.728595E-1	1.019065E+0	9.921675E-1	1.022685E+0	9.664338E-1	9.929907E-1	1.051004E+0
5.570050E+2	9.695483E-1	9.534169E-1	9.785998E-1	8.965648E-1	9.882349E-1	8.953953E-1	9.522457E-1	9.295348E-1	9.683596E-1	9.471897E-1	9.163736E-1	8.856107E-1	9.632240E-1	9.620379E-1	9.473493E-1	9.320061E-1	9.817855E-1	9.474184E-1	9.213668E-1	9.461303E-1	9.412268E-1	9.557486E-1	9.838175E-1	9.590874E-1	9.381522E-1	9.617100E-1	9.387820E-1	9.608873E-1	9.399774E-1	9.266069E-1	9.404848E-1	1.015345E+0	9.547453E-1	9.454010E-1	9.599403E-1	9.079543E-1	9.461331E-1	9.919119E-1	1.001296E+0	9.587569E-1	9.439286E-1	9.895232E-1	1.018702E+0	9.742733E-1	9.383648E-1	9.407971E-1	9.522729E-1	9.449274E-1	9.045493E-1	9.774460E-1	9.538802E-1	9.917736E-1	9.339952E-1	1.007301E+0	9.757010E-1	9.726684E-1	9.472862E-1	9.464891E-1	9.656615E-1	9.560821E-1	9.223630E-1	9.962369E-1	9.345473E-1	9.370042E-1	9.446056E-1	9.678277E-1	9.199173E-1	9.457200E-1	9.165941E-1	9.679022E-1	9.508081E-1	9.576664E-1	9.616817E-1	9.484093E-1	9.733783E-1	1.030723E+0	9.921701E-1	9.621111E-1	9.516860E-1	9.353539E-1	9.509248E-1	1.001299E+0	9.152721E-1	9.420136E-1	9.752178E-1	9.235451E-1	9.533609E-1	9.442472E-1	9.181853E-1	9.268833E-1	9.581310E-1	9.509529E-1	9.603293E-1	9.499763E-1	9.531018E-1	9.357132E-1	9.420039E-1	9.484434E-1	9.467444E-1	9.864430E-1	9.672369E-1	1.007105E+0	9.684696E-1	9.536743E-1	1.010464E+0	9.547494E-1	9.421408E-1	9.450296E-1	9.349951E-1	9.540560E-1	9.045919E-1	9.304321E-1	9.736834E-1	9.171006E-1	9.550950E-1	9.185683E-1	9.731458E-1	9.434612E-1	9.552396E-1	9.544915E-1	9.031244E-1	9.570341E-1	9.647175E-1	9.383648E-1	9.485870E-1	9.435805E-1	9.505754E-1	9.809986E-1	9.568492E-1	9.935572E-1	9.569055E-1	9.494879E-1	9.315339E-1	9.388241E-1	9.153847E-1	9.844648E-1	9.314331E-1	1.013421E+0	9.378007E-1	9.979802E-1	9.677532E-1	9.739109E-1	9.371311E-1	9.359756E-1	9.974582E-1	9.463852E-1	9.269700E-1	1.001866E+0	9.277102E-1	9.725312E-1	9.877641E-1	9.573862E-1	9.724127E-1	9.296469E-1	9.557769E-1	9.526564E-1	9.786228E-1	9.492577E-1	9.260883E-1	9.595105E-1	9.540909E-1	9.219116E-1	9.582555E-1	9.239354E-1	9.948960E-1	9.475944E-1	9.395484E-1	9.372482E-1	9.589646E-1	9.095102E-1	9.535466E-1
5.575080E+2	9.863654E-1	9.413866E-1	9.695046E-1	9.433583E-1	9.358689E-1	9.984910E-1	9.222686E-1	9.534712E-1	9.748259E-1	1.003974E+0	9.653872E-1	9.777089E-1	9.940135E-1	9.638337E-1	9.505439E-1	9.873023E-1	9.588238E-1	9.518641E-1	9.489500E-1	9.455772E-1	9.396978E-1	9.470411E-1	9.867718E-1	9.722235E-1	9.653797E-1	9.290684E-1	9.480225E-1	9.776236E-1	9.568879E-1	9.682484E-1	9.441835E-1	9.634566E-1	9.453211E-1	9.461439E-1	9.723345E-1	9.633376E-1	9.630695E-1	9.470403E-1	9.464539E-1	9.279564E-1	9.508494E-1	9.514950E-1	9.774629E-1	9.784475E-1	1.004896E+0	9.558586E-1	1.017472E+0	1.017699E+0	9.748771E-1	9.855247E-1	1.008732E+0	9.637703E-1	9.770526E-1	9.619488E-1	9.613740E-1	1.004103E+0	9.575875E-1	9.651869E-1	9.352083E-1	9.344699E-1	9.852860E-1	9.459577E-1	9.709523E-1	9.552940E-1	9.711545E-1	1.007550E+0	9.836578E-1	9.378139E-1	9.798497E-1	9.992992E-1	9.380874E-1	9.754973E-1	9.560880E-1	9.666365E-1	9.293103E-1	1.001059E+0	9.739164E-1	1.018810E+0	9.519316E-1	9.698777E-1	9.780285E-1	9.295720E-1	9.512391E-1	9.792233E-1	9.922627E-1	9.645417E-1	9.519005E-1	9.820533E-1	9.753172E-1	9.411973E-1	9.205628E-1	9.610929E-1	9.559928E-1	9.340370E-1	9.542304E-1	9.327951E-1	9.445151E-1	9.289918E-1	1.000981E+0	9.328712E-1	9.404899E-1	9.531854E-1	9.609203E-1	9.802547E-1	9.814124E-1	9.673902E-1	9.479391E-1	9.910242E-1	9.989059E-1	9.980919E-1	9.235071E-1	9.755813E-1	9.357806E-1	9.397157E-1	9.504288E-1	1.011959E+0	9.380501E-1	9.801381E-1	9.705871E-1	9.948194E-1	9.569944E-1	9.665453E-1	9.993197E-1	9.728615E-1	9.452306E-1	9.793343E-1	9.896285E-1	9.358166E-1	9.535535E-1	9.856581E-1	9.567786E-1	9.469987E-1	9.638166E-1	9.673298E-1	9.545798E-1	9.920574E-1	1.003074E+0	9.347011E-1	9.625409E-1	9.412617E-1	9.236366E-1	9.599597E-1	9.747406E-1	9.876743E-1	9.593970E-1	9.501979E-1	9.455630E-1	9.631761E-1	9.951424E-1	9.609829E-1	9.672354E-1	9.533686E-1	9.655586E-1	9.960734E-1	1.007607E+0	9.566398E-1	9.820481E-1	9.993128E-1	9.926386E-1	9.521097E-1	9.526500E-1	9.563388E-1	9.415832E-1	9.779725E-1	9.861705E-1	9.554926E-1	9.338044E-1	9.968980E-1	9.849539E-1	9.377009E-1	1.067429E+0
5.580000E+2	1.053633E+0	1.043779E+0	1.042265E+0	1.062389E+0	1.011566E+0	1.011018E+0	1.028748E+0	1.027123E+0	1.001955E+0	1.041228E+0	1.035586E+0	1.068088E+0	1.002309E+0	9.950051E-1	1.011106E+0	9.846419E-1	1.016828E+0	1.025595E+0	1.026956E+0	9.969958E-1	1.028718E+0	1.031455E+0	9.704433E-1	9.706947E-1	1.038410E+0	1.034933E+0	1.042831E+0	1.006968E+0	1.020636E+0	1.032867E+0	1.020035E+0	9.969639E-1	9.900857E-1	1.016823E+0	1.000289E+0	1.024321E+0	1.045335E+0	1.035039E+0	1.037745E+0	1.074671E+0	1.026010E+0	1.043882E+0	1.037746E+0	9.845185E-1	9.865868E-1	1.059991E+0	9.886839E-1	1.012228E+0	1.030379E+0	1.005682E+0	9.956487E-1	9.964150E-1	1.006429E+0	1.060217E+0	1.057018E+0	1.028356E+0	1.033482E+0	1.024717E+0	9.958674E-1	1.048289E+0	9.948694E-1	1.032885E+0	1.011601E+0	9.899111E-1	9.991576E-1	1.042922E+0	1.046160E+0	1.020102E+0	1.022779E+0	1.039312E+0	9.931266E-1	1.028689E+0	1.001629E+0	9.789253E-1	9.676854E-1	1.020264E+0	1.033001E+0	9.869572E-1	1.031822E+0	9.954975E-1	1.045307E+0	9.798945E-1	1.036505E+0	1.038668E+0	1.001202E+0	1.007610E+0	1.005163E+0	1.047543E+0	1.025106E+0	1.023971E+0	1.022045E+0	1.017154E+0	1.027632E+0	1.014601E+0	1.027441E+0	9.919710E-1	9.608921E-1	1.050358E+0	9.910083E-1	1.011380E+0	1.016006E+0	9.852019E-1	1.053698E+0	9.955574E-1	1.014283E+0	1.034666E+0	1.013354E+0	9.979081E-1	1.039748E+0	9.930167E-1	1.079676E+0	1.009571E+0	1.047081E+0	1.039856E+0	1.036126E+0	9.951360E-1	1.042566E+0	9.552774E-1	1.071975E+0	9.855014E-1	1.007942E+0	1.027660E+0	1.024467E+0	1.050181E+0	1.071745E+0	9.839426E-1	9.900737E-1	1.033015E+0	1.011894E+0	1.031953E+0	1.044005E+0	1.038893E+0	1.009121E+0	1.017268E+0	1.036421E+0	1.010850E+0	1.020019E+0	1.026095E+0	9.728732E-1	1.004466E+0	1.041782E+0	1.022382E+0	1.061288E+0	1.041128E+0	1.021508E+0	1.043243E+0	9.992325E-1	1.032004E+0	1.011101E+0	1.007345E+0	1.004448E+0	1.019999E+0	1.001426E+0	1.049790E+0	1.041152E+0	1.050569E+0	1.035611E+0	9.798086E-1	1.013182E+0	1.061437E+0	1.013672E+0	1.027927E+0	1.000080E+0	1.022069E+0	1.017223E+0	1.006293E+0	9.936183E-1	9.787082E-1	1.051060E+0	9.447451E-1	9.396954E-1
5.585160E+2	9.763123E-1	1.024188E+0	1.019173E+0	1.038041E+0	1.022710E+0	1.035825E+0	1.022307E+0	1.028589E+0	1.055062E+0	9.907021E-1	1.034118E+0	1.066274E+0	1.013802E+0	1.021026E+0	1.043223E+0	1.021419E+0	9.937083E-1	1.026966E+0	1.052334E+0	9.961248E-1	1.009703E+0	1.053388E+0	9.946547E-1	1.038430E+0	1.015348E+0	9.491540E-1	1.010526E+0	1.073761E+0	1.042452E+0	1.019784E+0	9.900490E-1	9.691737E-1	1.063270E+0	1.035289E+0	1.014816E+0	1.026022E+0	1.034661E+0	1.031776E+0	1.021507E+0	1.047855E+0	1.038455E+0	1.035775E+0	1.008126E+0	1.005080E+0	1.043773E+0	9.767961E-1	1.026027E+0	1.020856E+0	9.935155E-1	1.014851E+0	9.896386E-1	1.012851E+0	1.019170E+0	9.818171E-1	1.009222E+0	9.984644E-1	9.745068E-1	1.022823E+0	9.971072E-1	1.014484E+0	1.022693E+0	9.953346E-1	1.035037E+0	1.047094E+0	1.036622E+0	1.033162E+0	1.022254E+0	1.002589E+0	1.051784E+0	1.028349E+0	1.023497E+0	1.019234E+0	1.039952E+0	9.725459E-1	1.069173E+0	1.027938E+0	1.002538E+0	1.001789E+0	1.007124E+0	1.040589E+0	9.840288E-1	1.006920E+0	1.006061E+0	1.000036E+0	1.021538E+0	1.036328E+0	1.050139E+0	1.036672E+0	1.002222E+0	1.088625E+0	1.023118E+0	1.026082E+0	1.044142E+0	1.034918E+0	1.011704E+0	1.003139E+0	1.019863E+0	1.082450E+0	9.567483E-1	1.021903E+0	1.005928E+0	1.032207E+0	9.925539E-1	1.066293E+0	9.924109E-1	1.044734E+0	1.063798E+0	1.024231E+0	9.812584E-1	1.019580E+0	1.033931E+0	1.032001E+0	1.004221E+0	9.953708E-1	1.015564E+0	1.007524E+0	1.044992E+0	1.030697E+0	1.001938E+0	1.042288E+0	9.994043E-1	1.006657E+0	1.008291E+0	9.766659E-1	1.029609E+0	1.026382E+0	1.038596E+0	1.022507E+0	1.013160E+0	1.008623E+0	1.026225E+0	1.004076E+0	1.041225E+0	9.800397E-1	1.056917E+0	9.634233E-1	1.044151E+0	9.944905E-1	1.042739E+0	1.035098E+0	1.036038E+0	1.000520E+0	9.790467E-1	9.946669E-1	9.983373E-1	1.007055E+0	1.007460E+0	9.965224E-1	1.048003E+0	9.816151E-1	9.651779E-1	1.038295E+0	1.018717E+0	9.898310E-1	1.001456E+0	9.918989E-1	9.964456E-1	9.874381E-1	1.011765E+0	1.031970E+0	9.816922E-1	9.705052E-1	1.055433E+0	1.009417E+0	1.004318E+0	1.031502E+0	1.050849E+0	1.007780E+0	1.004492E+0	9.998177E-1	8.984381E-1
5.590100E+2	1.012428E+0	1.026048E+0	1.025342E+0	9.999353E-1	1.030620E+0	9.877635E-1	1.006510E+0	9.991147E-1	9.876160E-1	9.817466E-1	9.810034E-1	9.846082E-1	9.661272E-1	1.018250E+0	9.978225E-1	9.845159E-1	9.926516E-1	1.041624E+0	1.004287E+0	9.879976E-1	1.040287E+0	1.033507E+0	9.821681E-1	1.017812E+0	9.989425E-1	1.044373E+0	9.699967E-1	9.935936E-1	9.841491E-1	9.820462E-1	1.000497E+0	1.049172E+0	9.759962E-1	9.720270E-1	1.009606E+0	1.028813E+0	1.019344E+0	9.743893E-1	9.781448E-1	9.361618E-1	9.785545E-1	9.579441E-1	9.802790E-1	9.888514E-1	9.835616E-1	1.004401E+0	9.546589E-1	9.474470E-1	1.018749E+0	9.330253E-1	9.706723E-1	9.906840E-1	1.014502E+0	1.033813E+0	9.784445E-1	9.609428E-1	1.004777E+0	9.868181E-1	9.836930E-1	1.022716E+0	1.033904E+0	9.686835E-1	1.010800E+0	9.786779E-1	1.020686E+0	1.005764E+0	1.008053E+0	1.025333E+0	9.497854E-1	1.003044E+0	1.047987E+0	1.019291E+0	9.978408E-1	1.012321E+0	9.778316E-1	9.063643E-1	1.014571E+0	9.729609E-1	9.613788E-1	9.834333E-1	9.532425E-1	9.917987E-1	1.018170E+0	9.924386E-1	1.001300E+0	1.044748E+0	9.356208E-1	9.946313E-1	1.000924E+0	1.005806E+0	9.931131E-1	1.035826E+0	1.007080E+0	1.050449E+0	9.836628E-1	1.028662E+0	1.022468E+0	1.038859E+0	9.566472E-1	1.070587E+0	1.031776E+0	9.888357E-1	1.011477E+0	9.545682E-1	9.555482E-1	9.733583E-1	9.996757E-1	9.770655E-1	9.888679E-1	9.635545E-1	1.041606E+0	1.011792E+0	9.801891E-1	1.033238E+0	9.885384E-1	9.850885E-1	9.862836E-1	9.883992E-1	9.919871E-1	1.031781E+0	9.820732E-1	1.009659E+0	9.888808E-1	9.856652E-1	1.022854E+0	9.995339E-1	9.854505E-1	9.915963E-1	9.894572E-1	9.859747E-1	1.003671E+0	9.400668E-1	1.003161E+0	1.029513E+0	1.006425E+0	9.757570E-1	1.002598E+0	9.717259E-1	1.018092E+0	9.604554E-1	1.014549E+0	9.852876E-1	9.806220E-1	9.912136E-1	9.826928E-1	1.030991E+0	9.731846E-1	1.024477E+0	9.609705E-1	9.872641E-1	1.024773E+0	1.038977E+0	1.020031E+0	9.583767E-1	9.862915E-1	9.666961E-1	1.013555E+0	1.036056E+0	1.017541E+0	1.042550E+0	1.041884E+0	9.639977E-1	9.769680E-1	9.727771E-1	1.000766E+0	9.716514E-1	1.017405E+0	9.682814E-1	1.015965E+0	1.019225E+0	1.040167E+0
5.595110E+2	9.997641E-1	1.003366E+0	9.874226E-1	1.028082E+0	9.989587E-1	1.046195E+0	1.023403E+0	1.032576E+0	1.002847E+0	1.026895E+0	9.783148E-1	9.914598E-1	1.005907E+0	1.025426E+0	1.043274E+0	9.532315E-1	9.978867E-1	1.022256E+0	9.951788E-1	1.030365E+0	9.865942E-1	1.013754E+0	1.061683E+0	9.922224E-1	1.023714E+0	9.684656E-1	1.012300E+0	1.015206E+0	9.974834E-1	1.042914E+0	1.006225E+0	9.817636E-1	1.004624E+0	1.038670E+0	1.001347E+0	1.046782E+0	9.985571E-1	1.053535E+0	1.044261E+0	1.008996E+0	9.906254E-1	1.022991E+0	1.004558E+0	9.922207E-1	9.792382E-1	1.043547E+0	1.032920E+0	1.038710E+0	1.016445E+0	1.038392E+0	1.025743E+0	9.875906E-1	1.046801E+0	1.000937E+0	1.005209E+0	9.796703E-1	1.011158E+0	1.046901E+0	1.059810E+0	9.884820E-1	1.026063E+0	1.010640E+0	1.020973E+0	1.049483E+0	1.013156E+0	1.014823E+0	9.703675E-1	1.015682E+0	1.034850E+0	1.009700E+0	1.027495E+0	9.772064E-1	1.072358E+0	1.035438E+0	9.993596E-1	1.020088E+0	9.769977E-1	1.026921E+0	1.051876E+0	1.029459E+0	1.087712E+0	1.003621E+0	1.065869E+0	1.010878E+0	1.017449E+0	9.428596E-1	1.007588E+0	1.004068E+0	1.063743E+0	1.062027E+0	1.020351E+0	1.021280E+0	1.039253E+0	9.992233E-1	1.019855E+0	1.051927E+0	1.013378E+0	1.022756E+0	9.990465E-1	1.023577E+0	1.044466E+0	1.012476E+0	1.017388E+0	9.918045E-1	1.062866E+0	1.011383E+0	1.023603E+0	1.031189E+0	1.047069E+0	9.881086E-1	1.012728E+0	9.862464E-1	1.027115E+0	1.015531E+0	1.046847E+0	1.009051E+0	1.000037E+0	1.025658E+0	9.834746E-1	1.025661E+0	1.021597E+0	9.876710E-1	1.001897E+0	1.020296E+0	9.784917E-1	1.073814E+0	1.044121E+0	1.020041E+0	9.807985E-1	1.011064E+0	1.000902E+0	1.050247E+0	1.029864E+0	1.042593E+0	1.018299E+0	1.014951E+0	1.012596E+0	1.037205E+0	9.746786E-1	1.043787E+0	9.930637E-1	1.037225E+0	9.966429E-1	9.962626E-1	1.017782E+0	1.026435E+0	1.058104E+0	9.741810E-1	1.043526E+0	1.102969E+0	1.027639E+0	9.894517E-1	1.025979E+0	1.049061E+0	1.007538E+0	1.041817E+0	1.029351E+0	1.015927E+0	9.877609E-1	1.022727E+0	1.018139E+0	1.048364E+0	1.047206E+0	1.020912E+0	9.783856E-1	1.034048E+0	1.018224E+0	1.050168E+0	1.029990E+0	1.092487E+0	1.032141E+0
5.600520E+2	9.951280E-1	1.032790E+0	1.035863E+0	1.027132E+0	9.972878E-1	1.040133E+0	1.017222E+0	1.034651E+0	1.038509E+0	1.007279E+0	1.015470E+0	1.022705E+0	1.032558E+0	1.009955E+0	1.028523E+0	1.051034E+0	1.016702E+0	1.013104E+0	1.035805E+0	1.012283E+0	1.042904E+0	1.020202E+0	1.009852E+0	1.022298E+0	1.016098E+0	1.062199E+0	1.017581E+0	9.652562E-1	1.001030E+0	1.010427E+0	1.053995E+0	9.894645E-1	1.029224E+0	1.045577E+0	1.019920E+0	9.591987E-1	9.793839E-1	1.008623E+0	1.007765E+0	1.044068E+0	1.057902E+0	1.030048E+0	1.000097E+0	1.047166E+0	1.042306E+0	1.023856E+0	1.032631E+0	1.016462E+0	1.017202E+0	1.041381E+0	1.014858E+0	1.011508E+0	9.905214E-1	1.006695E+0	1.041551E+0	1.030924E+0	9.836236E-1	1.002845E+0	1.005183E+0	1.018268E+0	9.990162E-1	1.048359E+0	1.004699E+0	9.927627E-1	1.042406E+0	1.019304E+0	1.004792E+0	1.044255E+0	1.019642E+0	1.045229E+0	1.001192E+0	1.047733E+0	1.017014E+0	1.021772E+0	1.017321E+0	1.075220E+0	1.009573E+0	1.016295E+0	1.015997E+0	1.001984E+0	1.031488E+0	1.049445E+0	1.030271E+0	1.066463E+0	1.009424E+0	1.053370E+0	1.042331E+0	1.045819E+0	1.002702E+0	1.022367E+0	1.005310E+0	1.021715E+0	1.022106E+0	1.016525E+0	1.036408E+0	1.066003E+0	1.002445E+0	9.594455E-1	1.031758E+0	1.004618E+0	1.037000E+0	1.017505E+0	1.044735E+0	9.819229E-1	1.013545E+0	1.025036E+0	1.014839E+0	9.991519E-1	1.015814E+0	1.042129E+0	1.030671E+0	1.005249E+0	1.012714E+0	1.044703E+0	1.075202E+0	1.042762E+0	1.044454E+0	1.063728E+0	1.034586E+0	1.038213E+0	1.061451E+0	9.697944E-1	1.037669E+0	1.067174E+0	1.012063E+0	1.000131E+0	9.925167E-1	1.023236E+0	1.068999E+0	9.949618E-1	1.026554E+0	9.896400E-1	1.032896E+0	1.016138E+0	9.926544E-1	1.011195E+0	1.014304E+0	9.912955E-1	1.053986E+0	1.019265E+0	1.007803E+0	1.018540E+0	9.996199E-1	1.024243E+0	1.034206E+0	1.021907E+0	1.029750E+0	1.043599E+0	1.039485E+0	9.701186E-1	1.048251E+0	9.901335E-1	1.018998E+0	1.022799E+0	1.020984E+0	1.011048E+0	9.738222E-1	1.018252E+0	1.087390E+0	9.763452E-1	1.085909E+0	1.072082E+0	1.035732E+0	1.066208E+0	1.011910E+0	9.888109E-1	1.054057E+0	1.050210E+0	1.020153E+0	9.847353E-1	1.059058E+0
5.605150E+2	1.028575E+0	1.026402E+0	9.699253E-1	1.001598E+0	1.023493E+0	9.905178E-1	1.031507E+0	1.004989E+0	1.015598E+0	9.850288E-1	1.030032E+0	1.040191E+0	1.020999E+0	9.960948E-1	1.007254E+0	1.035839E+0	1.009671E+0	1.019652E+0	1.004847E+0	1.055691E+0	1.075089E+0	1.020524E+0	1.040906E+0	1.040703E+0	1.011982E+0	1.049234E+0	1.022032E+0	1.015271E+0	1.026576E+0	1.054483E+0	1.042626E+0	9.781263E-1	1.016692E+0	1.019691E+0	1.070642E+0	1.048471E+0	1.011815E+0	9.796328E-1	1.015724E+0	1.043887E+0	1.043329E+0	1.008560E+0	1.004796E+0	1.007877E+0	1.029451E+0	1.024931E+0	9.912154E-1	1.035272E+0	1.080107E+0	1.030929E+0	1.030358E+0	1.071742E+0	1.015156E+0	9.593796E-1	1.052690E+0	1.009834E+0	1.065485E+0	1.023192E+0	1.021453E+0	1.028596E+0	9.708224E-1	9.732495E-1	1.012749E+0	1.063800E+0	1.019404E+0	9.989432E-1	1.071078E+0	1.054058E+0	1.028391E+0	1.005654E+0	1.019132E+0	1.031433E+0	1.016384E+0	1.026725E+0	1.028934E+0	1.014648E+0	1.029214E+0	1.040720E+0	1.003212E+0	1.038292E+0	9.655443E-1	9.817852E-1	1.001731E+0	9.994519E-1	1.034038E+0	1.021617E+0	1.013302E+0	9.657237E-1	1.037590E+0	1.036190E+0	1.013885E+0	1.000999E+0	9.619775E-1	9.903172E-1	9.990257E-1	9.836539E-1	1.044916E+0	9.831284E-1	1.025602E+0	9.791026E-1	9.936727E-1	9.908175E-1	1.009443E+0	1.027986E+0	1.008623E+0	1.002410E+0	1.014194E+0	1.047981E+0	9.922826E-1	1.032147E+0	1.007584E+0	1.029131E+0	1.014723E+0	9.881204E-1	9.922323E-1	1.016574E+0	9.807887E-1	1.006805E+0	1.029141E+0	9.850599E-1	1.043889E+0	1.049191E+0	1.038296E+0	1.002311E+0	1.019182E+0	9.767873E-1	1.049794E+0	1.003926E+0	1.044486E+0	1.024039E+0	1.045942E+0	1.020210E+0	1.008114E+0	1.021884E+0	1.026006E+0	1.030829E+0	1.009480E+0	1.041854E+0	9.903534E-1	1.018543E+0	1.054760E+0	1.017601E+0	1.058281E+0	1.043937E+0	1.002639E+0	1.038025E+0	1.048670E+0	1.032397E+0	9.989287E-1	1.042531E+0	1.008724E+0	1.069223E+0	9.589480E-1	1.059004E+0	1.004248E+0	1.008515E+0	1.000796E+0	1.000977E+0	9.800455E-1	9.788583E-1	1.023322E+0	1.036813E+0	1.017537E+0	9.990645E-1	1.035571E+0	1.053869E+0	1.001813E+0	1.004324E+0	9.943977E-1	1.063195E+0	9.560173E-1
5.609950E+2	1.003453E+0	9.550215E-1	9.981786E-1	9.970853E-1	1.024917E+0	1.001582E+0	9.742302E-1	9.986505E-1	9.714778E-1	1.009523E+0	1.037669E+0	9.934761E-1	1.006901E+0	1.026835E+0	1.004206E+0	1.026801E+0	1.053406E+0	1.009320E+0	1.018433E+0	1.035609E+0	9.939904E-1	9.633786E-1	9.762638E-1	1.010067E+0	9.968610E-1	1.019760E+0	1.024151E+0	1.021587E+0	1.022719E+0	9.652760E-1	1.019194E+0	1.057704E+0	1.041157E+0	1.016211E+0	9.739000E-1	1.043410E+0	1.018960E+0	9.840475E-1	1.006564E+0	9.719943E-1	9.712642E-1	1.003092E+0	9.969138E-1	1.039157E+0	1.023395E+0	1.004921E+0	1.037997E+0	9.862013E-1	1.014490E+0	9.941136E-1	9.946695E-1	9.770137E-1	1.030653E+0	9.787088E-1	9.803622E-1	1.058484E+0	1.006201E+0	9.965549E-1	9.992638E-1	1.006725E+0	1.021366E+0	1.026698E+0	1.021346E+0	1.038021E+0	9.632404E-1	9.860579E-1	9.833051E-1	9.864797E-1	1.023316E+0	9.600708E-1	1.043593E+0	9.545099E-1	9.504863E-1	9.929762E-1	1.004250E+0	9.211828E-1	9.955452E-1	1.018792E+0	1.034541E+0	1.013404E+0	1.002995E+0	1.046080E+0	1.024126E+0	1.006528E+0	9.986557E-1	9.827146E-1	1.044987E+0	9.990079E-1	9.987437E-1	9.653518E-1	1.041020E+0	9.958981E-1	1.009746E+0	1.036873E+0	1.035789E+0	1.009466E+0	1.054759E+0	1.001235E+0	1.070736E+0	9.950287E-1	1.001324E+0	1.010417E+0	9.853030E-1	1.037109E+0	9.910825E-1	1.004264E+0	1.022189E+0	9.697256E-1	9.961733E-1	1.031221E+0	9.862507E-1	1.042412E+0	1.038905E+0	9.962699E-1	9.907654E-1	1.044534E+0	1.003739E+0	1.012842E+0	1.006305E+0	9.783039E-1	1.082493E+0	1.000148E+0	1.018501E+0	1.005719E+0	9.865688E-1	1.013922E+0	9.822086E-1	9.803804E-1	1.004241E+0	1.005371E+0	1.010549E+0	1.046020E+0	9.904328E-1	1.035301E+0	1.038046E+0	1.052306E+0	9.906528E-1	9.717703E-1	1.032592E+0	9.834830E-1	9.868062E-1	1.025145E+0	1.009584E+0	9.885470E-1	1.008651E+0	9.996286E-1	1.059148E+0	9.875186E-1	1.008838E+0	9.931198E-1	9.904274E-1	9.901779E-1	9.944360E-1	9.642603E-1	1.011581E+0	1.028737E+0	9.961328E-1	1.011491E+0	9.858673E-1	1.018343E+0	9.651188E-1	1.064870E+0	9.819969E-1	1.011322E+0	9.978997E-1	9.916733E-1	9.985130E-1	9.836975E-1	9.735897E-1	1.055593E+0	1.002504E+0
