Photon Energy (eV)	#1	#2	#3	#4	#5	#6	#7	#8	#9	#10	#11	#12	#13	#14	#15	#16	#17	#18	#19	#20	#21	#22	#23	#24	#25	#26	#27	#28	#29	#30	#31	#32	#33	#34	#35	#36	#37	#38	#39	#40	#41	#42	#43	#44	#45	#46	#47	#48	#49	#50	#51	#52	#53	#54	#55	#56	#57	#58	#59	#60	#61	#62	#63	#64	#65	#66	#67	#68	#69	#70	#71	#72	#73	#74	#75	#76	#77	#78	#79	#80	#81	#82	#83	#84	#85	#86	#87	#88	#89	#90	#91	#92	#93	#94	#95	#96	#97	#98	#99	#100	#101	#102	#103	#104	#105	#106	#107	#108	#109	#110	#111	#112	#113	#114	#115	#116	#117	#118	#119	#120	#121	#122	#123	#124	#125	#126	#127	#128	#129	#130	#131	#132	#133	#134	#135	#136	#137	#138	#139	#140	#141	#142	#143	#144	#145	#146	#147	#148	#149	#150	#151	#152	#153	#154	#155	#156	#157	#158	#159	#160	#161	#162	#163	#164	#165	#166	#167	#168	#169	#170	#171	
5.300160E+2	-1.370578E-2	7.598106E-5	-3.822622E-3	-1.117989E-2	1.133821E-3	-5.508627E-3	-4.083786E-3	-5.208380E-3	4.443349E-3	-6.021883E-3	-7.616191E-3	9.379364E-4	3.321320E-4	-8.903607E-3	-1.551766E-3	6.428497E-3	-1.108068E-2	-1.001827E-2	-2.425513E-3	-6.680695E-3	-7.735389E-3	-1.313490E-2	-6.635647E-3	-5.381413E-4	-1.250227E-3	-8.243099E-3	-1.505784E-2	-3.327065E-3	-7.905749E-3	-8.700210E-3	-3.602981E-3	-6.122824E-3	6.270347E-4	1.014112E-3	-6.593353E-3	-3.980209E-3	-5.199549E-3	-9.038209E-3	-2.910614E-3	-1.483009E-2	-1.530987E-2	-1.192504E-2	-4.133368E-3	-7.076349E-3	-1.010158E-2	-4.493092E-3	-3.929394E-3	-9.412935E-3	6.538709E-4	-4.929998E-3	-4.962774E-4	-8.039261E-3	-6.224385E-3	-3.277457E-3	-7.909366E-3	-4.058286E-3	-1.891636E-3	-8.709036E-3	-1.380218E-2	-9.084684E-3	-8.825472E-3	5.629452E-3	-1.758290E-3	-5.866819E-4	-8.265076E-3	-7.642839E-3	-4.046351E-3	-4.725271E-3	-4.992473E-3	3.752873E-3	-7.644282E-3	-3.103296E-3	-1.107025E-2	3.256817E-3	7.162722E-5	-6.534115E-3	-7.719007E-3	-7.007453E-3	-1.360518E-2	-4.853093E-3	-4.197129E-3	-9.347974E-3	-1.542328E-2	-1.300527E-2	-2.683456E-3	-8.874128E-3	-7.368625E-3	-4.242377E-3	-7.525941E-3	-7.777473E-3	4.879972E-3	-1.324317E-2	-1.017278E-2	-3.463673E-3	-2.908936E-3	-1.144154E-2	-1.006837E-2	-9.868756E-3	-6.714275E-3	-1.783722E-3	-5.081627E-3	-1.202541E-2	-9.905039E-3	1.944471E-3	-5.272213E-3	-7.646807E-3	-4.795288E-3	-5.161766E-3	-5.103437E-3	-6.894047E-3	-7.458130E-3	-3.375459E-3	-7.378404E-3	-9.255393E-3	-2.703978E-3	-5.761669E-3	-1.175882E-2	2.036708E-3	-1.441358E-2	4.232283E-4	-8.269523E-4	-1.617855E-3	-8.116035E-3	-8.862643E-3	-3.132669E-3	-9.168184E-3	-8.676377E-3	-4.962100E-3	-5.671080E-3	-7.745985E-3	-1.239851E-2	-9.056524E-3	-3.787226E-3	-4.046954E-3	-8.443932E-3	-1.011575E-2	-4.631226E-3	2.081185E-3	-1.055783E-2	-1.676408E-3	-4.151636E-3	-8.697218E-3	-4.690285E-3	-3.161134E-3	6.913419E-4	-8.152657E-3	-5.396953E-3	9.531700E-3	-8.833024E-3	-6.183659E-3	-3.465934E-3	-7.948547E-3	-1.221996E-2	1.519438E-3	-6.342945E-3	-1.349489E-2	-1.080478E-2	-1.421622E-2	-1.265126E-3	-4.282943E-3	-8.105219E-3	-5.633281E-3	-7.160865E-3	-1.643281E-2	-4.186138E-3	-3.009682E-3	-4.965006E-3	-1.256531E-3	-1.132266E-2	-3.431063E-3	-2.337983E-2
5.305130E+2	-1.916126E-3	-3.967787E-3	3.117402E-3	-4.263121E-3	3.695615E-4	-7.392413E-3	-4.823904E-3	-6.882716E-3	2.756315E-4	-5.735133E-3	-7.339585E-3	5.768113E-3	-1.063991E-2	-8.607075E-3	-2.336271E-3	-9.111465E-3	-1.547782E-4	7.972390E-3	-8.168974E-3	3.701782E-3	2.375438E-3	-5.974883E-3	-8.396292E-3	-1.779013E-2	4.014169E-3	-4.083778E-3	-3.274436E-3	-6.441382E-3	-2.814672E-3	-1.074154E-2	-3.782805E-3	-3.224893E-3	-9.447595E-3	-9.730201E-3	-8.361392E-3	-3.109536E-3	-4.321743E-3	5.881380E-4	-6.173614E-3	-1.927901E-3	1.228453E-4	2.089865E-3	-1.127099E-2	-4.539388E-3	-7.152652E-3	5.899478E-3	-9.101215E-3	-1.255915E-2	-6.275417E-5	-5.242405E-3	-5.148666E-3	7.017760E-4	1.265980E-3	-1.242033E-2	-9.221087E-3	-2.191089E-3	-6.600916E-3	-5.090499E-3	-4.265090E-4	-8.794328E-3	-4.721663E-4	-3.612482E-3	-5.093349E-3	-4.322685E-3	2.136870E-3	-4.852004E-3	-5.522350E-3	-2.760718E-3	-1.070060E-2	-8.545259E-3	-3.585052E-3	5.711352E-4	-6.453930E-3	-8.155179E-3	-1.904811E-3	-1.703300E-3	-5.347908E-3	3.306586E-3	-1.115911E-2	-1.235839E-2	1.271268E-2	-4.102935E-3	-4.899786E-3	-1.127094E-3	-5.278765E-3	7.827265E-4	-5.433369E-3	-4.909199E-3	-5.697144E-3	-8.676113E-3	-8.235304E-3	1.203962E-4	-3.762640E-3	-6.080001E-3	-6.996269E-3	-2.593807E-3	-7.598776E-3	-6.996234E-4	-8.177434E-3	-1.287486E-2	-8.134126E-3	-1.173945E-2	-1.074953E-2	-2.517568E-3	2.135137E-3	-3.849916E-3	-8.841294E-3	-4.191795E-3	-3.283980E-3	-4.863157E-3	4.601598E-3	-9.580728E-3	-5.988635E-3	-7.749068E-3	9.708330E-4	1.071767E-3	-2.189505E-3	-6.825487E-3	-1.729385E-3	-6.617060E-3	-5.375252E-3	-4.264413E-3	4.970252E-3	-2.757605E-3	-4.311208E-3	-1.118803E-2	-6.682890E-3	-1.075218E-2	-4.280321E-3	-8.502030E-4	-5.698653E-3	-5.457802E-3	1.683290E-3	-8.591708E-3	-3.165735E-3	-1.112351E-3	-4.314730E-3	-1.165011E-2	-2.479999E-4	-1.063432E-2	-1.062077E-2	-1.018950E-2	-3.153848E-4	-1.022379E-2	-1.278326E-2	6.404953E-3	-6.333301E-4	-4.491953E-3	-9.080862E-3	-6.976618E-3	3.053441E-3	-8.104977E-3	-5.947552E-3	-1.295010E-2	-9.327583E-3	-1.592195E-2	-5.364376E-3	6.322076E-3	-3.136151E-3	-7.493952E-3	-3.720032E-3	-1.299071E-2	-1.305915E-2	3.588168E-3	-6.818172E-3	-4.686530E-3	-6.128300E-3	-9.973535E-3	-1.207189E-2	-1.742141E-2	8.495948E-3
5.310100E+2	-8.533441E-3	-2.712820E-3	-5.054807E-3	-3.638334E-3	-1.239720E-3	-6.205432E-3	-1.069847E-2	2.692282E-3	-5.196928E-3	4.869479E-3	-1.061197E-3	-3.088195E-3	-1.106915E-2	1.386467E-2	-2.288597E-3	-4.673381E-3	-3.429858E-3	-9.761502E-4	-9.912968E-3	-2.394855E-3	2.038652E-3	8.828038E-5	7.724438E-3	4.884487E-3	2.972492E-3	-5.699652E-3	3.967821E-5	2.332200E-3	-9.103594E-3	1.159415E-3	-4.726536E-3	-4.263691E-3	-9.242040E-5	-3.812092E-3	4.963777E-4	-5.866025E-3	-4.269777E-4	-3.087478E-3	-9.472710E-4	-1.178362E-2	2.371753E-3	1.035754E-3	-1.078429E-2	2.286516E-3	-3.342003E-3	-1.035124E-2	-2.023338E-2	-1.304636E-2	5.510634E-5	5.564715E-3	-1.737458E-3	-9.163696E-4	-3.219438E-3	-2.291794E-3	6.314250E-3	-5.540735E-3	-8.278262E-4	1.319994E-5	2.680343E-3	-4.273790E-3	-4.563326E-3	-6.179687E-3	1.013160E-3	5.003360E-3	-1.409521E-2	8.304402E-4	-7.950546E-3	-4.903125E-3	-2.991220E-3	1.257073E-3	2.476252E-3	1.737964E-3	-9.278795E-4	-8.615699E-3	-8.910449E-3	-5.605012E-3	-7.395245E-3	-4.988962E-3	3.690710E-3	7.328340E-3	-9.362055E-3	-5.638167E-3	-2.498888E-3	-4.297176E-3	2.980124E-3	2.062976E-3	-3.117928E-3	-9.102382E-3	8.007500E-4	-1.328122E-3	3.584964E-3	-3.467398E-3	2.469462E-4	3.462200E-3	-1.806715E-2	-2.420188E-3	5.408795E-3	2.434837E-3	-4.118138E-3	-5.637352E-3	-2.425058E-3	-3.013583E-3	-1.257865E-3	-6.289226E-3	-6.860990E-3	-1.474332E-3	-8.901170E-3	-3.300877E-4	-1.125905E-2	2.709047E-3	-6.677718E-4	-1.329403E-2	1.656935E-3	-2.329059E-3	-2.823007E-3	5.711751E-3	-1.025582E-3	-1.036428E-2	-2.135514E-3	-9.776868E-3	-4.224467E-3	-2.462326E-3	-1.484801E-2	3.062466E-3	-7.850832E-3	1.522515E-3	-2.117210E-3	4.992463E-3	-2.629864E-3	-2.084427E-3	-4.515780E-3	4.604134E-4	-6.922444E-3	7.613933E-4	-5.815423E-3	-3.181039E-3	1.104573E-3	-3.800202E-4	-1.399444E-3	-6.733458E-5	-3.691150E-3	-6.538226E-3	-3.753241E-3	2.255428E-3	-6.635128E-4	-2.873205E-3	-3.913291E-3	-2.166326E-3	-1.306165E-3	-2.880944E-3	6.269692E-4	-3.858583E-3	-5.383715E-3	-3.348091E-3	-1.503618E-3	1.420606E-3	5.125691E-3	1.481513E-3	-8.723875E-3	-1.769974E-3	-1.788261E-4	5.823020E-4	-8.874601E-3	-5.452297E-3	1.510113E-3	-6.644992E-3	-1.328288E-3	-3.263108E-3	1.339792E-2	-5.902406E-3	1.564541E-2
5.315180E+2	3.863094E-3	2.638004E-3	-6.490226E-3	-2.377209E-3	-5.054564E-3	-3.190894E-3	-4.621830E-3	1.848766E-3	-2.480267E-3	-8.629718E-3	2.323422E-4	-6.900721E-3	7.438969E-3	-7.915765E-3	-8.388499E-3	-8.441777E-3	5.066342E-3	2.248358E-3	7.638481E-4	1.163155E-3	-1.036925E-2	-2.753017E-3	-4.082155E-3	-8.929334E-4	-2.395503E-4	-1.070049E-3	-2.442637E-3	-6.261320E-3	5.004549E-3	1.028176E-2	-3.959194E-4	-3.074849E-3	-7.591578E-3	-3.086038E-3	-8.237552E-3	4.387378E-3	-1.104615E-2	-4.036080E-3	-6.508935E-3	-3.387305E-3	-1.182815E-3	-4.619709E-3	9.487033E-4	-3.806841E-3	5.709882E-4	-6.818332E-3	4.931491E-3	8.498918E-3	1.840355E-3	1.508121E-3	-5.538264E-3	-3.052754E-3	6.824957E-3	6.961029E-3	-5.014081E-4	5.322810E-3	-4.261066E-3	1.800930E-4	4.339410E-4	8.372742E-3	-7.767925E-3	-5.454924E-3	-1.929649E-3	-3.087710E-3	6.568914E-3	-9.784788E-4	6.561851E-3	-5.317794E-3	-7.471815E-5	-4.230051E-3	-6.515193E-4	-5.055276E-4	9.146267E-3	-8.405692E-4	2.444944E-3	-4.894361E-3	-1.990435E-3	-8.780921E-3	-3.847894E-3	1.725951E-3	-5.414860E-3	8.104743E-4	1.203326E-2	-1.883645E-3	2.152107E-4	2.238524E-3	-3.538670E-3	-3.038081E-3	3.633617E-3	2.525147E-3	-6.362915E-3	4.144279E-3	-3.567412E-3	6.795123E-4	1.797111E-3	7.060986E-3	5.631745E-3	-5.203747E-3	6.428439E-3	1.033589E-2	-3.965388E-3	7.726976E-3	-9.761548E-4	-6.947434E-4	4.651291E-3	-2.343852E-3	2.366695E-3	-1.593325E-4	6.178520E-3	-1.061183E-2	-4.691079E-3	2.462569E-3	7.255729E-4	5.153017E-3	-6.586038E-3	-1.117707E-2	7.943129E-4	1.260995E-2	1.044461E-3	1.671861E-3	3.204309E-3	-3.541336E-3	1.755951E-3	-4.004987E-3	1.003685E-2	5.183419E-3	-4.861802E-3	-5.574513E-3	-8.341143E-4	3.539425E-3	7.453276E-3	-4.723560E-3	-6.769365E-3	9.292528E-4	-2.315900E-3	8.426754E-4	-3.595628E-3	-7.383193E-3	5.496538E-4	7.192098E-3	2.403407E-3	1.632087E-3	-2.438815E-3	5.151932E-3	-3.441910E-3	-1.026314E-2	2.419310E-3	-7.883240E-3	-5.923905E-4	1.349961E-3	-5.991823E-3	8.245687E-3	-4.136408E-3	-3.209934E-3	8.990346E-4	1.579600E-2	1.641077E-3	2.263646E-3	-2.352502E-3	-1.095427E-3	5.634221E-4	-3.457085E-3	-7.682445E-3	-1.874621E-3	-4.330120E-3	-1.874386E-3	-1.146893E-3	-3.096787E-3	1.510707E-3	-6.978847E-3	-3.442178E-3
5.320120E+2	6.428483E-3	5.021982E-3	-4.341456E-4	3.010859E-3	-1.575077E-4	2.342352E-3	4.367045E-3	-1.843693E-3	1.949835E-3	1.305842E-2	4.690851E-3	6.487653E-3	1.303473E-3	8.249861E-3	-3.911502E-3	4.746434E-3	-9.826980E-4	-6.498780E-4	2.841194E-3	9.665162E-4	2.526942E-3	5.470592E-3	3.546675E-3	9.326408E-3	-3.759434E-3	5.136267E-3	5.605217E-3	-5.646040E-4	5.926517E-3	4.786775E-3	-2.912315E-3	-1.609316E-3	2.856047E-3	1.865282E-2	1.622962E-2	-3.088812E-3	9.794536E-3	5.034288E-3	2.164451E-3	1.155460E-2	2.375896E-3	1.960383E-4	1.539413E-2	8.523936E-3	2.561624E-3	5.735900E-3	6.571147E-3	1.080849E-2	-5.914547E-3	-2.285237E-3	1.347233E-2	4.191756E-3	5.086317E-3	1.687655E-3	-3.862766E-3	2.597466E-3	5.357489E-3	5.609351E-4	-4.560429E-3	-3.152795E-4	2.623887E-3	-7.300157E-4	-2.706744E-3	-5.811887E-3	-1.811433E-3	-3.660392E-3	4.580931E-3	1.760187E-3	-5.216198E-3	7.572554E-4	3.020337E-3	-1.615221E-3	-1.488578E-3	-1.554253E-3	5.068487E-4	4.653102E-3	2.061271E-3	4.674775E-3	4.307207E-4	5.008326E-4	3.134602E-3	8.010582E-3	-8.485342E-4	1.206194E-2	6.280627E-4	-2.695835E-3	1.110412E-2	6.049272E-3	-2.908956E-3	-6.192380E-3	-7.100978E-3	4.507185E-3	3.097898E-3	-6.465551E-4	5.551364E-3	6.436821E-3	-6.325083E-3	3.714548E-3	4.711307E-4	-1.981776E-4	4.338054E-3	7.531368E-3	-1.837801E-3	2.388084E-3	-2.249403E-3	5.573874E-3	1.619061E-3	3.599552E-3	1.444381E-3	9.243657E-4	-7.032326E-4	1.486022E-2	8.179488E-3	4.941201E-3	7.201953E-3	-4.821834E-3	-1.048970E-3	-1.632763E-3	-1.645663E-3	1.273835E-2	1.902148E-3	6.564984E-3	2.719944E-3	-1.565355E-3	9.886070E-4	-2.578123E-3	1.112389E-2	6.092507E-3	6.687857E-3	5.175581E-3	6.646117E-3	7.057274E-3	1.063922E-2	4.031897E-3	6.366216E-3	5.584524E-3	4.322547E-3	1.850846E-4	-4.405313E-3	-1.864398E-3	8.151881E-3	1.926372E-2	2.631843E-3	-8.010089E-3	4.552094E-3	5.217470E-3	-6.736411E-3	-3.951654E-3	7.574077E-3	3.458359E-3	-8.214321E-3	6.995372E-3	5.640812E-3	4.428042E-3	5.234572E-3	3.580628E-3	4.282561E-4	-2.906870E-3	5.955530E-3	8.503938E-3	2.739948E-3	5.907627E-3	1.525026E-2	3.671552E-3	8.740086E-4	2.562518E-3	-2.004672E-4	3.481493E-3	2.094099E-3	1.486828E-2	7.753882E-4
5.325120E+2	1.386377E-2	-1.055360E-3	1.268440E-2	1.844770E-2	4.948409E-3	1.995501E-2	1.986095E-2	9.393739E-3	1.008379E-3	2.458835E-3	1.109378E-2	-3.204786E-3	1.263448E-2	3.311916E-3	1.847664E-2	1.105169E-2	1.058168E-2	1.423552E-3	1.690241E-2	3.244097E-3	1.116360E-2	1.630393E-2	7.842980E-3	5.010306E-3	-1.737449E-3	1.396031E-2	1.513002E-2	1.426217E-2	8.892947E-3	3.213799E-3	1.542056E-2	1.829557E-2	1.364851E-2	-3.038605E-3	6.466300E-3	1.165720E-2	1.119989E-2	1.053934E-2	1.437598E-2	2.037433E-2	1.162219E-2	1.322309E-2	9.845818E-3	4.612126E-3	1.746362E-2	1.002728E-2	2.176135E-2	1.571104E-2	3.427968E-3	5.384804E-3	-5.516664E-4	7.114852E-3	-3.733431E-3	9.340900E-3	1.518038E-2	3.869834E-3	8.223955E-3	1.304531E-2	1.567483E-2	1.409534E-2	1.900500E-2	1.034766E-2	1.047487E-2	8.805604E-3	1.546593E-2	1.630327E-2	6.376464E-3	1.594672E-2	2.397521E-2	7.008109E-3	6.384265E-3	2.914945E-3	1.079437E-2	1.590888E-2	7.791840E-3	1.408369E-2	2.039132E-2	1.279597E-2	2.449076E-2	7.656361E-3	3.126758E-3	1.026802E-2	1.163723E-2	8.251252E-3	4.138824E-3	6.485737E-3	8.354469E-3	1.524277E-2	1.169767E-2	2.144894E-2	1.323426E-2	7.938707E-3	1.415799E-2	6.048517E-3	2.062388E-2	2.957725E-3	1.295169E-2	9.622741E-3	1.211028E-2	1.015823E-2	1.526814E-2	1.152010E-2	2.472639E-2	5.168982E-3	7.596178E-3	9.741034E-3	1.855200E-2	6.243428E-3	1.202357E-2	1.873562E-2	8.918615E-3	8.927428E-3	2.805042E-3	9.239302E-3	3.940237E-3	1.497706E-2	1.522856E-2	4.175877E-3	1.887968E-2	1.560486E-3	5.320215E-3	5.320946E-3	1.351790E-2	1.412812E-2	4.269247E-3	1.622841E-2	1.121439E-2	1.020382E-2	6.727522E-3	1.965609E-3	8.513547E-3	1.172020E-2	5.156525E-3	6.916119E-3	1.337477E-2	7.981937E-3	7.114463E-3	1.714705E-2	1.606094E-2	7.050364E-3	7.908264E-3	4.529137E-3	8.565882E-3	1.398765E-2	1.164525E-2	9.666580E-3	1.426068E-2	8.961473E-3	1.223836E-2	1.123290E-2	1.399167E-2	4.671048E-3	2.204683E-2	1.356064E-2	1.104054E-2	8.619614E-3	8.974127E-3	7.055853E-3	9.522125E-3	6.138358E-3	8.700708E-3	1.559114E-2	2.152679E-2	1.650001E-2	1.295031E-2	1.365307E-2	1.376895E-2	1.410847E-2	6.391821E-3	1.886544E-2	1.905254E-3
5.330280E+2	2.600506E-2	1.718483E-2	1.980911E-2	2.950133E-2	1.388268E-2	1.149113E-2	1.300469E-2	2.089030E-2	1.746537E-2	1.758128E-2	2.195464E-2	3.275909E-2	3.571092E-2	2.032861E-2	2.050230E-2	2.152445E-2	1.084823E-2	1.815340E-2	2.511535E-2	3.351781E-2	2.470797E-2	2.110626E-2	2.820774E-2	2.241276E-2	1.739723E-2	1.768877E-2	1.431696E-2	1.576337E-2	1.463419E-2	3.022543E-2	2.264125E-2	1.857927E-2	1.993790E-2	1.467460E-2	2.907476E-2	3.078466E-2	1.367092E-2	2.137551E-2	1.097026E-2	1.546314E-2	1.407919E-2	2.500549E-2	2.321441E-2	1.649203E-2	1.501164E-2	1.870107E-2	1.578898E-2	2.455204E-2	3.357875E-2	2.234126E-2	3.360144E-2	1.325512E-2	2.139824E-2	1.659497E-2	2.310889E-2	1.654810E-2	1.896101E-2	2.321294E-2	1.293585E-2	1.729263E-2	2.068690E-2	1.850285E-2	2.216630E-2	2.951305E-2	3.241962E-2	1.146777E-2	2.560518E-2	3.150530E-2	3.324293E-2	2.189418E-2	2.390409E-2	3.120301E-2	3.627204E-2	1.313204E-2	2.222033E-3	2.718539E-2	2.656170E-2	1.759921E-2	2.157660E-2	1.824297E-2	1.627336E-2	8.720613E-3	8.126323E-3	1.374314E-2	1.998042E-2	2.813924E-2	3.070773E-2	2.588234E-2	1.901084E-2	1.711780E-2	2.295044E-2	1.905907E-2	3.579071E-2	2.582536E-2	2.199086E-2	2.455933E-2	3.043439E-2	1.791699E-2	3.496460E-2	3.275000E-2	2.423109E-2	2.677510E-2	2.579205E-2	1.880258E-2	2.723174E-2	2.171075E-2	2.583854E-2	2.066550E-2	3.469062E-2	3.470219E-2	2.426713E-2	2.573421E-2	2.490518E-2	3.219398E-2	2.890745E-2	2.799545E-2	1.445289E-2	3.847634E-2	3.147146E-2	2.320749E-2	3.493983E-2	1.886735E-2	1.573885E-2	3.186277E-2	2.895618E-2	3.841739E-2	2.578420E-2	2.545259E-2	2.327937E-2	3.735508E-2	2.630243E-2	2.025262E-2	2.860909E-2	1.320206E-2	2.387674E-2	2.954231E-2	3.047918E-2	2.293830E-2	3.160125E-2	8.025125E-3	1.573520E-2	2.242724E-2	1.841948E-2	2.414593E-2	2.622348E-2	3.358630E-2	1.402687E-2	2.834393E-2	1.653806E-2	2.218240E-2	2.384369E-2	3.812633E-2	2.572822E-2	2.854837E-2	1.764405E-2	3.278405E-2	1.672912E-2	2.321679E-2	2.768517E-2	1.796420E-2	2.769515E-2	2.080940E-2	3.569150E-2	2.846900E-2	3.155297E-2	3.479105E-2	2.514774E-2	1.824475E-2	3.539776E-2	1.859248E-2	1.259681E-2
5.331580E+2	3.225163E-2	3.700738E-2	3.615833E-2	2.047100E-2	3.111341E-2	1.852876E-2	2.072706E-2	1.992444E-2	2.949955E-2	2.882231E-2	2.082737E-2	2.419839E-2	2.599827E-2	3.150238E-2	2.804034E-2	2.609066E-2	2.535057E-2	3.618156E-2	2.967400E-2	3.241877E-2	4.175555E-2	2.774082E-2	3.512580E-2	3.102516E-2	2.595787E-2	2.272160E-2	2.141145E-2	2.885573E-2	2.613600E-2	3.235576E-2	2.269024E-2	3.156722E-2	2.415797E-2	3.095574E-2	3.869098E-2	3.881681E-2	2.740690E-2	3.863704E-2	3.631615E-2	3.927171E-2	4.272392E-2	1.460156E-2	3.450743E-2	4.017659E-2	3.031276E-2	1.728038E-2	3.005604E-2	2.815222E-2	1.484597E-2	2.638843E-2	2.734746E-2	3.126844E-2	2.779313E-2	2.520834E-2	3.243371E-2	2.229506E-2	3.680894E-2	1.828293E-2	1.971983E-2	2.367106E-2	2.904412E-2	2.772244E-2	4.920935E-2	4.003950E-2	3.195795E-2	3.315861E-2	3.172521E-2	3.607941E-2	4.286057E-2	2.404005E-2	4.504213E-2	4.012835E-2	3.241254E-2	2.404035E-2	2.809446E-2	2.549318E-2	2.233110E-2	3.277236E-2	3.056439E-2	3.607975E-2	3.786641E-2	3.011296E-2	3.630254E-2	3.159876E-2	3.191898E-2	3.829522E-2	3.537988E-2	2.298828E-2	2.770661E-2	2.504963E-2	3.751811E-2	3.908171E-2	3.519799E-2	1.965888E-2	4.977414E-2	2.878655E-2	3.450793E-2	2.945116E-2	3.856896E-2	4.022200E-2	2.602252E-2	3.240849E-2	3.443898E-2	3.326571E-2	3.155479E-2	3.302142E-2	2.490787E-2	3.830219E-2	4.155031E-2	3.989019E-2	3.553818E-2	2.935454E-2	4.115763E-2	2.192472E-2	2.965898E-2	2.407461E-2	3.702902E-2	4.035600E-2	3.158003E-2	4.187092E-2	2.996830E-2	4.424629E-2	2.806874E-2	3.530796E-2	2.274582E-2	3.190849E-2	3.112151E-2	2.329906E-2	3.966494E-2	3.486479E-2	4.162708E-2	3.722058E-2	2.504414E-2	2.127581E-2	3.076933E-2	2.962964E-2	2.947670E-2	2.781841E-2	5.091288E-2	3.032265E-2	4.401482E-2	2.555385E-2	2.133351E-2	2.429006E-2	4.121644E-2	2.710866E-2	3.433693E-2	3.199537E-2	3.647914E-2	2.288603E-2	2.664307E-2	2.297202E-2	3.314005E-2	3.438078E-2	2.974118E-2	3.011260E-2	3.064021E-2	3.115231E-2	2.383870E-2	3.061919E-2	2.958159E-2	3.465697E-2	2.728466E-2	3.610581E-2	3.649178E-2	3.040367E-2	3.266982E-2	3.646877E-2	3.245182E-2	2.737378E-2	3.882757E-2
5.333130E+2	4.683346E-2	2.881868E-2	3.763767E-2	3.795328E-2	3.325551E-2	3.238513E-2	4.809638E-2	4.385834E-2	4.090814E-2	5.645010E-2	2.705203E-2	3.613082E-2	4.232235E-2	3.247822E-2	4.638324E-2	3.556539E-2	4.477908E-2	3.404253E-2	3.742989E-2	5.193541E-2	2.623134E-2	4.238488E-2	5.731533E-2	4.863563E-2	4.458730E-2	3.810004E-2	2.342593E-2	3.582074E-2	4.134574E-2	2.660597E-2	5.480592E-2	5.635261E-2	3.473724E-2	3.755781E-2	3.646446E-2	4.212751E-2	3.442907E-2	4.133968E-2	4.363341E-2	2.430891E-2	4.481462E-2	4.228757E-2	4.978885E-2	3.947267E-2	1.705788E-2	3.903193E-2	3.674531E-2	3.923448E-2	4.404828E-2	4.343396E-2	4.904143E-2	3.458677E-2	4.888598E-2	4.387310E-2	3.612819E-2	3.568009E-2	4.568337E-2	3.923346E-2	3.363826E-2	4.374030E-2	4.025134E-2	3.428599E-2	4.842319E-2	3.732575E-2	3.656086E-2	3.309057E-2	4.555050E-2	4.276273E-2	4.895874E-2	4.275759E-2	3.992885E-2	3.417092E-2	5.474093E-2	3.898340E-2	3.995910E-2	4.164403E-2	4.475906E-2	3.566358E-2	3.607185E-2	3.796877E-2	3.430520E-2	4.215362E-2	3.493824E-2	4.807034E-2	5.741118E-2	3.965239E-2	4.451533E-2	3.468046E-2	4.328850E-2	3.336670E-2	4.036782E-2	3.355369E-2	3.852197E-2	3.449806E-2	3.109414E-2	4.543310E-2	5.204356E-2	2.691197E-2	3.016834E-2	4.934214E-2	4.122140E-2	2.899830E-2	5.266987E-2	3.321178E-2	4.195508E-2	2.806490E-2	3.384169E-2	4.278558E-2	4.624763E-2	4.444871E-2	4.888758E-2	5.751999E-2	4.725863E-2	4.002587E-2	4.330163E-2	3.588010E-2	4.260941E-2	4.085791E-2	4.388613E-2	2.921499E-2	4.795499E-2	3.082507E-2	3.393803E-2	5.181917E-2	4.342413E-2	4.229575E-2	3.511701E-2	4.794393E-2	4.858092E-2	4.392507E-2	4.515708E-2	4.245312E-2	3.659682E-2	4.383824E-2	2.158955E-2	3.008683E-2	4.313484E-2	3.512044E-2	4.855782E-2	4.768410E-2	4.153561E-2	4.048449E-2	5.081244E-2	2.476723E-2	5.248816E-2	5.577315E-2	4.068235E-2	3.662040E-2	4.552283E-2	3.931750E-2	4.363960E-2	5.412191E-2	5.054370E-2	3.991224E-2	3.915451E-2	4.399066E-2	4.505219E-2	3.596416E-2	3.543798E-2	3.062953E-2	4.587748E-2	4.357557E-2	4.745630E-2	4.769583E-2	4.067905E-2	4.827582E-2	2.525978E-2	4.199548E-2	5.926929E-2	3.515616E-2	4.398613E-2
5.334630E+2	5.467429E-2	3.897607E-2	5.780737E-2	4.348210E-2	3.236966E-2	5.045288E-2	5.861934E-2	5.985310E-2	4.027932E-2	6.289595E-2	5.629940E-2	5.335856E-2	4.989134E-2	6.098820E-2	6.376557E-2	2.555940E-2	4.778330E-2	5.159285E-2	7.673020E-2	3.955415E-2	5.291946E-2	5.772379E-2	5.629551E-2	5.424345E-2	6.338195E-2	5.065088E-2	5.062333E-2	5.358048E-2	5.228471E-2	4.989045E-2	4.882844E-2	5.958147E-2	5.380225E-2	5.438227E-2	4.867045E-2	4.596929E-2	3.424893E-2	5.305098E-2	5.368319E-2	4.732676E-2	4.249337E-2	5.120569E-2	5.918181E-2	6.553562E-2	3.658640E-2	4.851689E-2	4.629609E-2	3.863340E-2	6.464860E-2	5.540476E-2	3.669566E-2	4.369885E-2	5.582887E-2	5.679771E-2	6.302696E-2	3.504885E-2	5.838319E-2	6.433742E-2	3.700756E-2	5.933020E-2	4.766126E-2	4.761015E-2	5.004831E-2	5.468720E-2	4.963743E-2	4.930494E-2	5.452168E-2	5.233803E-2	5.166263E-2	5.006839E-2	5.040745E-2	5.252050E-2	5.295781E-2	4.940368E-2	5.064713E-2	4.201689E-2	4.355320E-2	6.083959E-2	5.070565E-2	5.423313E-2	3.511710E-2	4.902594E-2	4.594126E-2	5.474438E-2	5.662345E-2	5.446978E-2	5.652870E-2	4.554722E-2	5.180809E-2	5.083445E-2	5.848730E-2	5.529500E-2	4.532472E-2	6.415465E-2	5.348879E-2	5.067948E-2	4.836080E-2	5.141348E-2	5.709215E-2	5.582389E-2	5.491038E-2	4.770154E-2	5.375913E-2	6.111786E-2	6.722227E-2	5.440695E-2	4.908790E-2	5.459277E-2	5.304258E-2	5.823442E-2	5.859078E-2	6.876548E-2	6.410542E-2	5.944118E-2	5.357908E-2	4.089007E-2	6.531134E-2	4.714831E-2	5.060703E-2	5.120124E-2	5.471365E-2	4.861042E-2	3.850763E-2	6.706045E-2	4.660686E-2	4.227968E-2	6.002917E-2	6.356203E-2	5.527296E-2	4.895490E-2	4.556878E-2	5.442808E-2	5.466878E-2	5.212997E-2	4.767250E-2	5.085037E-2	5.858923E-2	7.525471E-2	5.454726E-2	4.750920E-2	6.141580E-2	5.203079E-2	5.309203E-2	4.518268E-2	4.751173E-2	6.211268E-2	3.990576E-2	5.140802E-2	4.423754E-2	5.891832E-2	6.513788E-2	5.261835E-2	6.758297E-2	6.414132E-2	6.452098E-2	6.526111E-2	6.009939E-2	4.518151E-2	4.638260E-2	5.333779E-2	6.337157E-2	6.107854E-2	5.068713E-2	6.702619E-2	6.447106E-2	6.169929E-2	4.547646E-2	4.999196E-2	5.578259E-2	5.405778E-2	5.631887E-2
5.336080E+2	9.009646E-2	5.804507E-2	8.503733E-2	6.774304E-2	7.950022E-2	7.124486E-2	7.480825E-2	6.664739E-2	6.835270E-2	7.441799E-2	7.659721E-2	5.939705E-2	7.680971E-2	7.736410E-2	6.053433E-2	6.014258E-2	8.054965E-2	5.795331E-2	8.492894E-2	7.062117E-2	5.201401E-2	5.986563E-2	7.354943E-2	8.075034E-2	7.160489E-2	6.131293E-2	5.847184E-2	5.803614E-2	5.740195E-2	5.729954E-2	7.175475E-2	7.930739E-2	7.988852E-2	7.318413E-2	5.813236E-2	6.980992E-2	6.378506E-2	6.498401E-2	7.357298E-2	7.371045E-2	6.071373E-2	6.194213E-2	5.886797E-2	5.758205E-2	6.871407E-2	5.216597E-2	6.839707E-2	6.385441E-2	6.143298E-2	7.872978E-2	6.714666E-2	6.797358E-2	6.661429E-2	6.612118E-2	6.760636E-2	6.081653E-2	7.165656E-2	7.837974E-2	6.273921E-2	8.331445E-2	7.627327E-2	6.519472E-2	9.215726E-2	6.224735E-2	7.243986E-2	5.201198E-2	6.036337E-2	7.252168E-2	7.117882E-2	6.182806E-2	6.743068E-2	7.889500E-2	6.841105E-2	4.487259E-2	4.794267E-2	7.569231E-2	7.025603E-2	5.746106E-2	5.322139E-2	5.495048E-2	7.382693E-2	7.178138E-2	6.657456E-2	7.288175E-2	6.885957E-2	6.269694E-2	7.943394E-2	7.259003E-2	6.285381E-2	6.637276E-2	5.207004E-2	8.163521E-2	7.755621E-2	7.821864E-2	7.282121E-2	6.082705E-2	5.262734E-2	8.391030E-2	7.854738E-2	7.462516E-2	6.497408E-2	7.010491E-2	5.284052E-2	8.014122E-2	7.409246E-2	7.427827E-2	7.842691E-2	6.923368E-2	6.837372E-2	6.902999E-2	8.409788E-2	5.357740E-2	8.444122E-2	7.337219E-2	7.048572E-2	6.213117E-2	6.546858E-2	7.864517E-2	7.406346E-2	6.464613E-2	7.137638E-2	8.524591E-2	6.673134E-2	7.142724E-2	7.410284E-2	7.685370E-2	7.340994E-2	7.472391E-2	7.131423E-2	7.400055E-2	6.531675E-2	7.800964E-2	8.719563E-2	6.735488E-2	5.135723E-2	5.728969E-2	8.255698E-2	7.851149E-2	6.779520E-2	7.021924E-2	9.242814E-2	6.939363E-2	7.872201E-2	5.815074E-2	7.778786E-2	8.402577E-2	8.587960E-2	7.808710E-2	7.541330E-2	8.217070E-2	7.219181E-2	7.718614E-2	6.659827E-2	9.694499E-2	9.408314E-2	7.715585E-2	8.062105E-2	7.148347E-2	6.133151E-2	6.196467E-2	9.089652E-2	6.180616E-2	7.145005E-2	7.540733E-2	8.677178E-2	6.332808E-2	6.275610E-2	6.865794E-2	6.964079E-2	7.214367E-2	8.631518E-2
5.337630E+2	8.853898E-2	7.846715E-2	9.696865E-2	9.477818E-2	1.045646E-1	8.248124E-2	1.049480E-1	9.312864E-2	1.054856E-1	1.042941E-1	9.795677E-2	1.024641E-1	1.093070E-1	9.666216E-2	1.008331E-1	1.013568E-1	9.850013E-2	1.059273E-1	9.647653E-2	9.571093E-2	9.291460E-2	9.433606E-2	8.867698E-2	1.142053E-1	1.068526E-1	1.003090E-1	9.038779E-2	9.403084E-2	8.563909E-2	8.293580E-2	9.199768E-2	1.084202E-1	7.808967E-2	9.708536E-2	9.049576E-2	9.987190E-2	8.771205E-2	9.151068E-2	1.047695E-1	9.908309E-2	9.193653E-2	1.013270E-1	1.218385E-1	9.726378E-2	9.423321E-2	8.183245E-2	9.790973E-2	9.837162E-2	9.839641E-2	1.136059E-1	1.027495E-1	1.114777E-1	1.192540E-1	1.063898E-1	9.649544E-2	1.102763E-1	1.111541E-1	1.021340E-1	9.623942E-2	1.132846E-1	9.585940E-2	9.114919E-2	1.235823E-1	9.309479E-2	1.080441E-1	1.113151E-1	8.501608E-2	9.839592E-2	1.003121E-1	7.667537E-2	1.029909E-1	1.006447E-1	1.235179E-1	6.999875E-2	1.007654E-1	1.005165E-1	9.750611E-2	9.866550E-2	1.218268E-1	9.157524E-2	1.026360E-1	9.676317E-2	9.572614E-2	1.211676E-1	9.231823E-2	1.068709E-1	9.536239E-2	1.114422E-1	9.083281E-2	1.006584E-1	8.376542E-2	9.221260E-2	9.922025E-2	9.145490E-2	8.397269E-2	1.132134E-1	9.637046E-2	1.107782E-1	1.120079E-1	9.464231E-2	1.003942E-1	1.182672E-1	1.124679E-1	9.605459E-2	1.007291E-1	9.813915E-2	8.537850E-2	1.106593E-1	9.951598E-2	9.884283E-2	8.163587E-2	1.076648E-1	1.049548E-1	1.028381E-1	1.006512E-1	9.027207E-2	1.128948E-1	1.142534E-1	8.930827E-2	1.007879E-1	9.938105E-2	1.153330E-1	9.713069E-2	1.259898E-1	9.635312E-2	1.006832E-1	1.004210E-1	9.518555E-2	1.031537E-1	9.719941E-2	1.104321E-1	1.046449E-1	1.072786E-1	1.127502E-1	7.881144E-2	9.984058E-2	1.116889E-1	1.064952E-1	8.876994E-2	8.907486E-2	1.009764E-1	1.053456E-1	1.073213E-1	1.106492E-1	1.049293E-1	1.003411E-1	1.133784E-1	9.499705E-2	1.117612E-1	8.580098E-2	1.095547E-1	9.293716E-2	1.008605E-1	1.096924E-1	1.152482E-1	1.003674E-1	1.186508E-1	9.026395E-2	8.778464E-2	9.078007E-2	8.975964E-2	1.042229E-1	1.086405E-1	1.079332E-1	1.109238E-1	1.010796E-1	9.404431E-2	1.149845E-1	1.021870E-1	1.038383E-1	1.009571E-1
5.339140E+2	1.611548E-1	1.548796E-1	1.632508E-1	1.480693E-1	1.596277E-1	1.622153E-1	1.487458E-1	1.578648E-1	1.706191E-1	1.644847E-1	1.614189E-1	1.685600E-1	1.592757E-1	1.678201E-1	1.710662E-1	1.754159E-1	1.476319E-1	1.476656E-1	1.584590E-1	1.423853E-1	1.407291E-1	1.343033E-1	1.620343E-1	1.515454E-1	1.459872E-1	1.498404E-1	1.413354E-1	1.600437E-1	1.447909E-1	1.608868E-1	1.457273E-1	1.625442E-1	1.614611E-1	1.445763E-1	1.372494E-1	1.569446E-1	1.520724E-1	1.534085E-1	1.447801E-1	1.546328E-1	1.405068E-1	1.528626E-1	1.570451E-1	1.455825E-1	1.678574E-1	1.421817E-1	1.642550E-1	1.725495E-1	1.418994E-1	1.838834E-1	1.590655E-1	1.523856E-1	1.502829E-1	1.700170E-1	1.685770E-1	1.401444E-1	1.429696E-1	1.662334E-1	1.626384E-1	1.587707E-1	1.584581E-1	1.579067E-1	1.480167E-1	1.665153E-1	1.572922E-1	1.635771E-1	1.725601E-1	1.689701E-1	1.653283E-1	1.513337E-1	1.717661E-1	1.517002E-1	1.500429E-1	1.439823E-1	1.572645E-1	1.635116E-1	1.424845E-1	1.637644E-1	1.480221E-1	1.428843E-1	1.607784E-1	1.666211E-1	1.717590E-1	1.361663E-1	1.488180E-1	1.603022E-1	1.551348E-1	1.644812E-1	1.544246E-1	1.381596E-1	1.529521E-1	1.646960E-1	1.633681E-1	1.662391E-1	1.587265E-1	1.621693E-1	1.516678E-1	1.566359E-1	1.465190E-1	1.537291E-1	1.495565E-1	1.865456E-1	1.505204E-1	1.482147E-1	1.556222E-1	1.414399E-1	1.622426E-1	1.636826E-1	1.643031E-1	1.680559E-1	1.557061E-1	1.509139E-1	1.602522E-1	1.388893E-1	1.397670E-1	1.696035E-1	1.722944E-1	1.578884E-1	1.622909E-1	1.523320E-1	1.413821E-1	1.626336E-1	1.584225E-1	1.660818E-1	1.463871E-1	1.509315E-1	1.633252E-1	1.568254E-1	1.610113E-1	1.643418E-1	1.596498E-1	1.597641E-1	1.457186E-1	1.602606E-1	1.452384E-1	1.456523E-1	1.578238E-1	1.543827E-1	1.691689E-1	1.779779E-1	1.634877E-1	1.463617E-1	1.507868E-1	1.372541E-1	1.650425E-1	1.620012E-1	1.462831E-1	1.623962E-1	1.727772E-1	1.601236E-1	1.684138E-1	1.681077E-1	1.647249E-1	1.578499E-1	1.522423E-1	1.739232E-1	1.678673E-1	1.538244E-1	1.560119E-1	1.494261E-1	1.893447E-1	1.553642E-1	1.604204E-1	1.561700E-1	1.419790E-1	1.480011E-1	1.515791E-1	1.521513E-1	1.728847E-1	1.493903E-1	1.783579E-1
5.340800E+2	2.750807E-1	2.818751E-1	2.524391E-1	2.365651E-1	2.765354E-1	2.383123E-1	2.500703E-1	2.735090E-1	2.786047E-1	2.847931E-1	2.802070E-1	2.462553E-1	2.605185E-1	2.610589E-1	2.661526E-1	2.650715E-1	2.685540E-1	2.576494E-1	2.743067E-1	2.945341E-1	2.703831E-1	2.497455E-1	2.544012E-1	2.777905E-1	2.563625E-1	2.718675E-1	2.754036E-1	2.787201E-1	2.910141E-1	2.720566E-1	2.530130E-1	2.645267E-1	2.780593E-1	2.741506E-1	2.523315E-1	2.719281E-1	2.583238E-1	2.635393E-1	2.789758E-1	2.701367E-1	2.618057E-1	2.851221E-1	2.535418E-1	2.739448E-1	2.804428E-1	2.486280E-1	2.964731E-1	2.802431E-1	2.673631E-1	2.846298E-1	2.526389E-1	2.874586E-1	2.760670E-1	2.663010E-1	2.702267E-1	2.502320E-1	2.665890E-1	2.822587E-1	2.570350E-1	2.978332E-1	2.837273E-1	2.724221E-1	2.673750E-1	2.848274E-1	2.842268E-1	2.700873E-1	2.843904E-1	2.695008E-1	2.738971E-1	2.814251E-1	2.692960E-1	2.579413E-1	2.781112E-1	2.740107E-1	2.671375E-1	2.573265E-1	2.607490E-1	2.820230E-1	2.984028E-1	2.866769E-1	2.952283E-1	2.630908E-1	2.567078E-1	2.721058E-1	2.617775E-1	2.688677E-1	2.721935E-1	2.656333E-1	2.769877E-1	2.698878E-1	2.828707E-1	2.692047E-1	2.757342E-1	2.703775E-1	2.551027E-1	2.717562E-1	2.677281E-1	2.804272E-1	2.719475E-1	2.845232E-1	2.975102E-1	2.601477E-1	2.704549E-1	2.672620E-1	2.603015E-1	2.912765E-1	2.784508E-1	2.936156E-1	2.734564E-1	2.690273E-1	2.623399E-1	2.655462E-1	2.746153E-1	2.620009E-1	2.814949E-1	2.946037E-1	2.660394E-1	2.891241E-1	2.598422E-1	3.066561E-1	2.812183E-1	2.517066E-1	2.589139E-1	2.687055E-1	2.657571E-1	2.768642E-1	2.800555E-1	2.595350E-1	2.828954E-1	2.676444E-1	2.893498E-1	3.048406E-1	2.761103E-1	2.419504E-1	2.602437E-1	2.588743E-1	2.952399E-1	2.678864E-1	2.864456E-1	2.870942E-1	2.767978E-1	2.544675E-1	2.768389E-1	2.856891E-1	2.986204E-1	2.712249E-1	2.945709E-1	2.705567E-1	2.643642E-1	2.701170E-1	2.846329E-1	2.492750E-1	2.854367E-1	2.768569E-1	2.856151E-1	2.831642E-1	2.619442E-1	2.786269E-1	2.812727E-1	2.860892E-1	2.846089E-1	2.885406E-1	2.817471E-1	2.716376E-1	2.805893E-1	2.929349E-1	2.663308E-1	2.690015E-1	2.943514E-1	2.685557E-1	2.342401E-1
5.342090E+2	4.791082E-1	4.656602E-1	4.366369E-1	4.447021E-1	4.551917E-1	4.422150E-1	4.727379E-1	4.608314E-1	4.582391E-1	4.481477E-1	4.445468E-1	4.597576E-1	4.641272E-1	4.722459E-1	4.530355E-1	4.643093E-1	4.619983E-1	4.434332E-1	4.722929E-1	4.717767E-1	4.751544E-1	4.358131E-1	4.791653E-1	4.588110E-1	4.717181E-1	4.714444E-1	4.442511E-1	4.452357E-1	4.602684E-1	4.313040E-1	4.499368E-1	4.608943E-1	4.503625E-1	4.657074E-1	4.450302E-1	4.482221E-1	4.661723E-1	4.545545E-1	4.581884E-1	4.774193E-1	4.451859E-1	4.973975E-1	4.327485E-1	4.440848E-1	4.140170E-1	4.441686E-1	4.433052E-1	4.777041E-1	4.526864E-1	4.428273E-1	4.497459E-1	4.153644E-1	4.405361E-1	4.457064E-1	4.626452E-1	4.666253E-1	4.606586E-1	4.462527E-1	4.480743E-1	4.672939E-1	4.475123E-1	4.407375E-1	4.633603E-1	4.252610E-1	4.932884E-1	4.322995E-1	4.632951E-1	4.670765E-1	4.554756E-1	4.821113E-1	4.398446E-1	4.769330E-1	4.821673E-1	4.595541E-1	4.615055E-1	4.441723E-1	4.355694E-1	4.649247E-1	4.639417E-1	4.635035E-1	4.718082E-1	4.487922E-1	4.428425E-1	4.346264E-1	4.614489E-1	5.013739E-1	4.465583E-1	4.694214E-1	4.328353E-1	4.263950E-1	4.552147E-1	4.506894E-1	4.517500E-1	4.541073E-1	4.366435E-1	4.866489E-1	4.472068E-1	4.522667E-1	4.453073E-1	5.007704E-1	4.369543E-1	4.634893E-1	4.459302E-1	4.739854E-1	4.531870E-1	4.529134E-1	4.551031E-1	4.857649E-1	4.866168E-1	4.531852E-1	4.521891E-1	4.387047E-1	4.552145E-1	4.891815E-1	4.374127E-1	4.905986E-1	4.469533E-1	4.569794E-1	4.652491E-1	4.567811E-1	4.502040E-1	4.358863E-1	4.541563E-1	4.975208E-1	4.369249E-1	4.808925E-1	4.684193E-1	4.300392E-1	4.713850E-1	4.436419E-1	4.685331E-1	4.799411E-1	4.256998E-1	4.328873E-1	4.855839E-1	4.532958E-1	4.498668E-1	4.518617E-1	4.683303E-1	4.394614E-1	4.742613E-1	4.365253E-1	4.925237E-1	4.754519E-1	4.592085E-1	4.651196E-1	4.256103E-1	4.617916E-1	4.496922E-1	4.519272E-1	4.555414E-1	4.660897E-1	4.920634E-1	5.020156E-1	4.415251E-1	4.463010E-1	4.897197E-1	4.723947E-1	4.799603E-1	4.589090E-1	4.541704E-1	4.448725E-1	4.699042E-1	4.559176E-1	4.488154E-1	4.324922E-1	4.480553E-1	4.727162E-1	4.708654E-1	4.658844E-1	4.826134E-1
5.343550E+2	7.960760E-1	7.334549E-1	7.543735E-1	7.624559E-1	8.094790E-1	7.441233E-1	7.924250E-1	8.029827E-1	7.917606E-1	7.947902E-1	7.834900E-1	7.853853E-1	7.623224E-1	7.694709E-1	8.068223E-1	7.911625E-1	7.584959E-1	7.580612E-1	8.113130E-1	7.614958E-1	7.668908E-1	7.689460E-1	7.499373E-1	8.030983E-1	7.912498E-1	7.494549E-1	7.229541E-1	8.434224E-1	7.864081E-1	7.785817E-1	7.561591E-1	7.802520E-1	8.210585E-1	7.582884E-1	7.495488E-1	7.840680E-1	8.200388E-1	7.400425E-1	8.331821E-1	7.557364E-1	7.824983E-1	7.815567E-1	7.863759E-1	7.887603E-1	8.072713E-1	8.239866E-1	7.969326E-1	7.977683E-1	7.398227E-1	8.035659E-1	7.401778E-1	7.823440E-1	7.746233E-1	8.154755E-1	7.845296E-1	8.051204E-1	8.109762E-1	7.643713E-1	7.950058E-1	8.184934E-1	7.699307E-1	7.787441E-1	7.821828E-1	7.700708E-1	8.365004E-1	7.905258E-1	7.689300E-1	7.339145E-1	7.877425E-1	7.957917E-1	7.651043E-1	7.737318E-1	7.961143E-1	7.513936E-1	7.747285E-1	7.553117E-1	7.427956E-1	7.768738E-1	7.622451E-1	8.015395E-1	7.916440E-1	7.973138E-1	7.888666E-1	8.049696E-1	8.290781E-1	7.677875E-1	7.687400E-1	8.019447E-1	7.648690E-1	8.008442E-1	7.760342E-1	7.917202E-1	7.691160E-1	7.477511E-1	8.054986E-1	7.617307E-1	7.816099E-1	7.637561E-1	7.807381E-1	7.713912E-1	7.608611E-1	7.747751E-1	8.461915E-1	8.142000E-1	7.652692E-1	7.778625E-1	7.556837E-1	8.193365E-1	8.124377E-1	7.784320E-1	8.280481E-1	7.711383E-1	7.542346E-1	7.907427E-1	8.244092E-1	7.797431E-1	7.686543E-1	7.578950E-1	7.535767E-1	7.970103E-1	7.819221E-1	7.523151E-1	8.044054E-1	8.426297E-1	7.767333E-1	7.677366E-1	7.828044E-1	7.775663E-1	8.005252E-1	7.684265E-1	7.881889E-1	7.758162E-1	7.902491E-1	7.528867E-1	7.927427E-1	7.707905E-1	7.858170E-1	7.704427E-1	8.005249E-1	7.628650E-1	8.042743E-1	7.265340E-1	7.373741E-1	8.044261E-1	8.101757E-1	7.722047E-1	7.705007E-1	7.951735E-1	7.393616E-1	7.676076E-1	8.043470E-1	8.159193E-1	7.732104E-1	7.631492E-1	7.832245E-1	7.942946E-1	7.760685E-1	7.880754E-1	7.617360E-1	7.802923E-1	7.805835E-1	7.637098E-1	7.589411E-1	7.757960E-1	7.891101E-1	7.707649E-1	7.556985E-1	7.590854E-1	8.245926E-1	7.850157E-1	8.072879E-1
5.345110E+2	1.273673E+0	1.275229E+0	1.139943E+0	1.231723E+0	1.236659E+0	1.226135E+0	1.237875E+0	1.235952E+0	1.216621E+0	1.242349E+0	1.213668E+0	1.269337E+0	1.202222E+0	1.272734E+0	1.233099E+0	1.284605E+0	1.223515E+0	1.226531E+0	1.227141E+0	1.273283E+0	1.246883E+0	1.244011E+0	1.215261E+0	1.234156E+0	1.217263E+0	1.216797E+0	1.234091E+0	1.186760E+0	1.214380E+0	1.255475E+0	1.239178E+0	1.277105E+0	1.188347E+0	1.186675E+0	1.197946E+0	1.238688E+0	1.255636E+0	1.227997E+0	1.207150E+0	1.223991E+0	1.234964E+0	1.194801E+0	1.222189E+0	1.266863E+0	1.186310E+0	1.260947E+0	1.211470E+0	1.212770E+0	1.218845E+0	1.232429E+0	1.209660E+0	1.235453E+0	1.242761E+0	1.228035E+0	1.270106E+0	1.243763E+0	1.263106E+0	1.292401E+0	1.182681E+0	1.215373E+0	1.230769E+0	1.259177E+0	1.197765E+0	1.213877E+0	1.252909E+0	1.221070E+0	1.187671E+0	1.257498E+0	1.209912E+0	1.216315E+0	1.188864E+0	1.218586E+0	1.202481E+0	1.195103E+0	1.232532E+0	1.246482E+0	1.226462E+0	1.213005E+0	1.247127E+0	1.249962E+0	1.220876E+0	1.192183E+0	1.182551E+0	1.213049E+0	1.214569E+0	1.248529E+0	1.224324E+0	1.198500E+0	1.236101E+0	1.234156E+0	1.203892E+0	1.204186E+0	1.227027E+0	1.185658E+0	1.206353E+0	1.229584E+0	1.197990E+0	1.233146E+0	1.250249E+0	1.245675E+0	1.266383E+0	1.214572E+0	1.274497E+0	1.208974E+0	1.217723E+0	1.205709E+0	1.205945E+0	1.237919E+0	1.253076E+0	1.210007E+0	1.221417E+0	1.239819E+0	1.206741E+0	1.203065E+0	1.252233E+0	1.208872E+0	1.247220E+0	1.245401E+0	1.216019E+0	1.198199E+0	1.207531E+0	1.174846E+0	1.200532E+0	1.240186E+0	1.217782E+0	1.227244E+0	1.188600E+0	1.214136E+0	1.236560E+0	1.220161E+0	1.207271E+0	1.215028E+0	1.270919E+0	1.187969E+0	1.261614E+0	1.255122E+0	1.239241E+0	1.215097E+0	1.242340E+0	1.205551E+0	1.260692E+0	1.209830E+0	1.236369E+0	1.207295E+0	1.247631E+0	1.190749E+0	1.204760E+0	1.256511E+0	1.280790E+0	1.199932E+0	1.217244E+0	1.269196E+0	1.218380E+0	1.254373E+0	1.207807E+0	1.237489E+0	1.233822E+0	1.215276E+0	1.248493E+0	1.201247E+0	1.217177E+0	1.184333E+0	1.187704E+0	1.187189E+0	1.285176E+0	1.230948E+0	1.275440E+0	1.238674E+0	1.248088E+0	1.249975E+0	1.280128E+0
5.346620E+2	1.673353E+0	1.693476E+0	1.641402E+0	1.649848E+0	1.670563E+0	1.722141E+0	1.672940E+0	1.695137E+0	1.684905E+0	1.666688E+0	1.671740E+0	1.707078E+0	1.655067E+0	1.653820E+0	1.665250E+0	1.674105E+0	1.650455E+0	1.653026E+0	1.689851E+0	1.677903E+0	1.711608E+0	1.683085E+0	1.692139E+0	1.722831E+0	1.591547E+0	1.673375E+0	1.646106E+0	1.676809E+0	1.741594E+0	1.680689E+0	1.630232E+0	1.724472E+0	1.688914E+0	1.656470E+0	1.657233E+0	1.700261E+0	1.654342E+0	1.664566E+0	1.635286E+0	1.580436E+0	1.616462E+0	1.731587E+0	1.645163E+0	1.712846E+0	1.665363E+0	1.661121E+0	1.642303E+0	1.649366E+0	1.671106E+0	1.673685E+0	1.660734E+0	1.691845E+0	1.617399E+0	1.629206E+0	1.629872E+0	1.699381E+0	1.663871E+0	1.676653E+0	1.652494E+0	1.688211E+0	1.676793E+0	1.672736E+0	1.679456E+0	1.652670E+0	1.712789E+0	1.640262E+0	1.718386E+0	1.652543E+0	1.613712E+0	1.653979E+0	1.710650E+0	1.711242E+0	1.583182E+0	1.663822E+0	1.668122E+0	1.700401E+0	1.661350E+0	1.657599E+0	1.678179E+0	1.701815E+0	1.647404E+0	1.645455E+0	1.639801E+0	1.638894E+0	1.629930E+0	1.575308E+0	1.597853E+0	1.622794E+0	1.620500E+0	1.699170E+0	1.659280E+0	1.644548E+0	1.593539E+0	1.619026E+0	1.686394E+0	1.647793E+0	1.613674E+0	1.636652E+0	1.617733E+0	1.644924E+0	1.645062E+0	1.667746E+0	1.618510E+0	1.631852E+0	1.678535E+0	1.658763E+0	1.652059E+0	1.648566E+0	1.668369E+0	1.612098E+0	1.628387E+0	1.687076E+0	1.656064E+0	1.626224E+0	1.653643E+0	1.686014E+0	1.653933E+0	1.635639E+0	1.665449E+0	1.642032E+0	1.598238E+0	1.581074E+0	1.616939E+0	1.672823E+0	1.603030E+0	1.638106E+0	1.645873E+0	1.627834E+0	1.676797E+0	1.649144E+0	1.649957E+0	1.597841E+0	1.641407E+0	1.656186E+0	1.610533E+0	1.626960E+0	1.710004E+0	1.702295E+0	1.649955E+0	1.586728E+0	1.678823E+0	1.648346E+0	1.613984E+0	1.707172E+0	1.621984E+0	1.682275E+0	1.616701E+0	1.623976E+0	1.628493E+0	1.648856E+0	1.624372E+0	1.614545E+0	1.697534E+0	1.575462E+0	1.674600E+0	1.646605E+0	1.634986E+0	1.596113E+0	1.644715E+0	1.695507E+0	1.664659E+0	1.637179E+0	1.614346E+0	1.622371E+0	1.667813E+0	1.610212E+0	1.600099E+0	1.633764E+0	1.733780E+0	1.572136E+0	1.620185E+0
5.348120E+2	2.047255E+0	2.039649E+0	1.990660E+0	1.996512E+0	2.069697E+0	2.034956E+0	2.000771E+0	1.998448E+0	2.038192E+0	1.987262E+0	2.020373E+0	1.970140E+0	2.057925E+0	2.006299E+0	1.994315E+0	2.071741E+0	2.051044E+0	1.995392E+0	2.029954E+0	2.045308E+0	1.993714E+0	2.018890E+0	1.997129E+0	2.046505E+0	2.014646E+0	2.002934E+0	1.984549E+0	2.060653E+0	2.058273E+0	2.007777E+0	2.018913E+0	2.008013E+0	2.056684E+0	2.021507E+0	1.985901E+0	2.044834E+0	2.063670E+0	1.991547E+0	2.033817E+0	1.941351E+0	1.976503E+0	2.034275E+0	2.018739E+0	1.970638E+0	2.012713E+0	1.992603E+0	1.990420E+0	2.050161E+0	1.937750E+0	2.051659E+0	1.961822E+0	2.052548E+0	2.082248E+0	2.006116E+0	1.974437E+0	2.062498E+0	1.999320E+0	2.074958E+0	1.972477E+0	1.972605E+0	1.983637E+0	2.020522E+0	2.019123E+0	1.985223E+0	1.987543E+0	2.010845E+0	1.993468E+0	1.964277E+0	2.031818E+0	2.010958E+0	2.003974E+0	1.982503E+0	1.955502E+0	2.057925E+0	2.015889E+0	2.026488E+0	2.047437E+0	2.053691E+0	2.019017E+0	1.998774E+0	2.074903E+0	1.997459E+0	2.040320E+0	1.968172E+0	1.994757E+0	2.007619E+0	1.996935E+0	1.978908E+0	1.957808E+0	1.971161E+0	2.002627E+0	1.959310E+0	2.002012E+0	1.951434E+0	2.045505E+0	2.014895E+0	1.963080E+0	1.935192E+0	1.972633E+0	1.896868E+0	2.005125E+0	2.066423E+0	2.072514E+0	1.987707E+0	1.955030E+0	1.979403E+0	2.030605E+0	2.028382E+0	1.955361E+0	1.971711E+0	1.940095E+0	1.955259E+0	1.967221E+0	1.988784E+0	1.987865E+0	1.950556E+0	2.014703E+0	1.935766E+0	1.943387E+0	1.934506E+0	1.960000E+0	1.960863E+0	1.930772E+0	1.998692E+0	1.953701E+0	1.893256E+0	1.964123E+0	1.976698E+0	1.971857E+0	2.040335E+0	1.995404E+0	1.910193E+0	2.037111E+0	1.927681E+0	1.938200E+0	1.966219E+0	1.914307E+0	2.000803E+0	1.942729E+0	1.981610E+0	1.949626E+0	1.958296E+0	1.846454E+0	1.986959E+0	1.982178E+0	1.949983E+0	1.921164E+0	1.913694E+0	2.002187E+0	2.046398E+0	1.950834E+0	1.963437E+0	1.930072E+0	1.971619E+0	1.939579E+0	1.959008E+0	1.980718E+0	1.969856E+0	2.024048E+0	1.944376E+0	1.969065E+0	1.889921E+0	1.995208E+0	1.949046E+0	1.948080E+0	1.932614E+0	1.944095E+0	1.911291E+0	2.003746E+0	1.905023E+0	1.879881E+0
5.349530E+2	2.325293E+0	2.253065E+0	2.276500E+0	2.160841E+0	2.210175E+0	2.204471E+0	2.231955E+0	2.236392E+0	2.304060E+0	2.138508E+0	2.195191E+0	2.213489E+0	2.213405E+0	2.224493E+0	2.219305E+0	2.272320E+0	2.227257E+0	2.140865E+0	2.167121E+0	2.290794E+0	2.251455E+0	2.220891E+0	2.186633E+0	2.235456E+0	2.096604E+0	2.286434E+0	2.081734E+0	2.286686E+0	2.217902E+0	2.162594E+0	2.250607E+0	2.247108E+0	2.315284E+0	2.184138E+0	2.222807E+0	2.204623E+0	2.229386E+0	2.148666E+0	2.184905E+0	2.185006E+0	2.197634E+0	2.205688E+0	2.281838E+0	2.269391E+0	2.169405E+0	2.233460E+0	2.159753E+0	2.234252E+0	2.189716E+0	2.207250E+0	2.162593E+0	2.193490E+0	2.262739E+0	2.229420E+0	2.210754E+0	2.192930E+0	2.192064E+0	2.276754E+0	2.185813E+0	2.230877E+0	2.212467E+0	2.179689E+0	2.196691E+0	2.140103E+0	2.128939E+0	2.203607E+0	2.158831E+0	2.216756E+0	2.216943E+0	2.195168E+0	2.188765E+0	2.290341E+0	2.180027E+0	2.192918E+0	2.155060E+0	2.208659E+0	2.121596E+0	2.236827E+0	2.150733E+0	2.278055E+0	2.201600E+0	2.131944E+0	2.089328E+0	2.148683E+0	2.241498E+0	2.201296E+0	2.173700E+0	2.233423E+0	2.169229E+0	2.186868E+0	2.157949E+0	2.135566E+0	2.205599E+0	2.116468E+0	2.197986E+0	2.080782E+0	2.158984E+0	2.176719E+0	2.095104E+0	2.125215E+0	2.174100E+0	2.211418E+0	2.216742E+0	2.147282E+0	2.181509E+0	2.218580E+0	2.141669E+0	2.210422E+0	2.161234E+0	2.203698E+0	2.089418E+0	2.134588E+0	2.110487E+0	2.213315E+0	2.157556E+0	2.255009E+0	2.200934E+0	2.210058E+0	2.147340E+0	2.207327E+0	2.202826E+0	2.121644E+0	2.188296E+0	2.169052E+0	2.163440E+0	2.174571E+0	2.121155E+0	2.180284E+0	2.146877E+0	2.160539E+0	2.073268E+0	2.197387E+0	2.132715E+0	2.182232E+0	2.169891E+0	2.145333E+0	2.116949E+0	2.203159E+0	2.152084E+0	2.101928E+0	2.160884E+0	2.157384E+0	2.177269E+0	2.166480E+0	2.154704E+0	2.106041E+0	2.061677E+0	2.132691E+0	2.049612E+0	2.185125E+0	2.096382E+0	2.183266E+0	2.126165E+0	2.112737E+0	2.126982E+0	2.110201E+0	2.116294E+0	2.071325E+0	2.123025E+0	2.143627E+0	2.121105E+0	2.104868E+0	2.108335E+0	2.155637E+0	2.168097E+0	2.194243E+0	2.106378E+0	2.101349E+0	2.118672E+0	2.056912E+0	2.158613E+0
5.351140E+2	2.307410E+0	2.178898E+0	2.216844E+0	2.282442E+0	2.263044E+0	2.182051E+0	2.224677E+0	2.194943E+0	2.223878E+0	2.161453E+0	2.217321E+0	2.202505E+0	2.230712E+0	2.261479E+0	2.193099E+0	2.331357E+0	2.206042E+0	2.208048E+0	2.258714E+0	2.242946E+0	2.194794E+0	2.208416E+0	2.218986E+0	2.279245E+0	2.130769E+0	2.219360E+0	2.121658E+0	2.228389E+0	2.243165E+0	2.287250E+0	2.138974E+0	2.234255E+0	2.282943E+0	2.165459E+0	2.171839E+0	2.227559E+0	2.245464E+0	2.216480E+0	2.303607E+0	2.209366E+0	2.259584E+0	2.241368E+0	2.252691E+0	2.143331E+0	2.187908E+0	2.211214E+0	2.161332E+0	2.233172E+0	2.143777E+0	2.192625E+0	2.117020E+0	2.055875E+0	2.216390E+0	2.242842E+0	2.188764E+0	2.140123E+0	2.247940E+0	2.193605E+0	2.152655E+0	2.213604E+0	2.237982E+0	2.209216E+0	2.246319E+0	2.171173E+0	2.158299E+0	2.220128E+0	2.191622E+0	2.221055E+0	2.207008E+0	2.136908E+0	2.154720E+0	2.157719E+0	2.243152E+0	2.179726E+0	2.178201E+0	2.137787E+0	2.187321E+0	2.199398E+0	2.188940E+0	2.208064E+0	2.174011E+0	2.129412E+0	2.226071E+0	2.108947E+0	2.170144E+0	2.108310E+0	2.119543E+0	2.111624E+0	2.111565E+0	2.241369E+0	2.133184E+0	2.153937E+0	2.245482E+0	2.086277E+0	2.128662E+0	2.186318E+0	2.151164E+0	2.192090E+0	2.174929E+0	2.158411E+0	2.146555E+0	2.179458E+0	2.202622E+0	2.138312E+0	2.197943E+0	2.135510E+0	2.141098E+0	2.144153E+0	2.143463E+0	2.178695E+0	2.133946E+0	2.206372E+0	2.117616E+0	2.143916E+0	2.126172E+0	2.225409E+0	2.243411E+0	2.187709E+0	2.152182E+0	2.175978E+0	2.131059E+0	2.089934E+0	2.061764E+0	2.189419E+0	2.168835E+0	2.206940E+0	2.085261E+0	2.138595E+0	2.095868E+0	2.155443E+0	2.166747E+0	2.164626E+0	2.143724E+0	2.106944E+0	2.176205E+0	2.156797E+0	2.081849E+0	2.142992E+0	2.162714E+0	2.088585E+0	2.137042E+0	2.103140E+0	2.138442E+0	2.214788E+0	2.182247E+0	2.151670E+0	2.069827E+0	2.099224E+0	2.131807E+0	2.163300E+0	2.097700E+0	2.152420E+0	2.071672E+0	2.071155E+0	2.125929E+0	2.109698E+0	2.183787E+0	2.199203E+0	2.104018E+0	2.119377E+0	2.101111E+0	2.101240E+0	2.109247E+0	2.149676E+0	2.122045E+0	2.135451E+0	2.147867E+0	2.093301E+0	2.090143E+0	2.104675E+0	2.069099E+0
5.352550E+2	2.039475E+0	1.930142E+0	1.933891E+0	1.964408E+0	2.030524E+0	1.976357E+0	1.968005E+0	2.001694E+0	1.920715E+0	1.929837E+0	1.973442E+0	1.981748E+0	1.972033E+0	1.985829E+0	1.962841E+0	1.915543E+0	1.967191E+0	1.949808E+0	1.935332E+0	1.973492E+0	2.000949E+0	1.947448E+0	1.900029E+0	1.975043E+0	1.922229E+0	1.928322E+0	1.952442E+0	1.962287E+0	1.989828E+0	1.981535E+0	1.895828E+0	1.960636E+0	1.949763E+0	1.932904E+0	1.926084E+0	1.950231E+0	1.966692E+0	1.950418E+0	1.976807E+0	1.941813E+0	1.969920E+0	1.949079E+0	1.948007E+0	1.952286E+0	1.934350E+0	1.938219E+0	1.960368E+0	1.894489E+0	1.916576E+0	1.966631E+0	1.908009E+0	1.922175E+0	1.981974E+0	1.968550E+0	1.926958E+0	1.956984E+0	1.929513E+0	1.940609E+0	2.012133E+0	1.978740E+0	1.922857E+0	1.948749E+0	1.961025E+0	1.895509E+0	1.957530E+0	1.997374E+0	1.951211E+0	1.920282E+0	1.934222E+0	1.917846E+0	1.931885E+0	1.984552E+0	1.891946E+0	1.883511E+0	1.875166E+0	1.951181E+0	1.931882E+0	1.920315E+0	1.950334E+0	2.003605E+0	1.978200E+0	1.860444E+0	1.929695E+0	1.904618E+0	1.898901E+0	1.941161E+0	1.913864E+0	1.961165E+0	1.851903E+0	1.943799E+0	1.925561E+0	1.945262E+0	1.941436E+0	1.850061E+0	1.929964E+0	1.877455E+0	1.943176E+0	1.901574E+0	1.903659E+0	1.897627E+0	1.968167E+0	1.929187E+0	1.941589E+0	1.878444E+0	1.958407E+0	1.917121E+0	1.833873E+0	1.914013E+0	1.905807E+0	1.926535E+0	1.905347E+0	1.908384E+0	1.891674E+0	1.994742E+0	1.875437E+0	1.940963E+0	1.922300E+0	1.935467E+0	1.961103E+0	1.902742E+0	1.908180E+0	1.872970E+0	1.869188E+0	1.924163E+0	1.907001E+0	1.884799E+0	1.883477E+0	1.941270E+0	1.839264E+0	1.908538E+0	1.878006E+0	1.879606E+0	1.905549E+0	1.905356E+0	1.922059E+0	1.889976E+0	1.883526E+0	1.947843E+0	1.950151E+0	1.857059E+0	1.907363E+0	1.920461E+0	1.899764E+0	1.963770E+0	1.893678E+0	1.864875E+0	1.804939E+0	1.897236E+0	1.912853E+0	1.963124E+0	1.894089E+0	1.936356E+0	1.932121E+0	1.927411E+0	1.948119E+0	1.920189E+0	1.958745E+0	1.906108E+0	1.871228E+0	1.959256E+0	1.874621E+0	1.887199E+0	1.883071E+0	1.819497E+0	1.898802E+0	1.948068E+0	1.913372E+0	1.958694E+0	1.908524E+0	1.900674E+0	1.844590E+0
5.354110E+2	1.714936E+0	1.649370E+0	1.688657E+0	1.686976E+0	1.690727E+0	1.693067E+0	1.679456E+0	1.681811E+0	1.667803E+0	1.650881E+0	1.685872E+0	1.597483E+0	1.659282E+0	1.683379E+0	1.616637E+0	1.607674E+0	1.677187E+0	1.642139E+0	1.711017E+0	1.657997E+0	1.637468E+0	1.678995E+0	1.583357E+0	1.716919E+0	1.652727E+0	1.626113E+0	1.642318E+0	1.616621E+0	1.663687E+0	1.704041E+0	1.546056E+0	1.647502E+0	1.683777E+0	1.674697E+0	1.612843E+0	1.597701E+0	1.713901E+0	1.661803E+0	1.593332E+0	1.635989E+0	1.616555E+0	1.639815E+0	1.667379E+0	1.674467E+0	1.654600E+0	1.622486E+0	1.622175E+0	1.631147E+0	1.616729E+0	1.672297E+0	1.625545E+0	1.604509E+0	1.697456E+0	1.621181E+0	1.609368E+0	1.643425E+0	1.677779E+0	1.676391E+0	1.662010E+0	1.677339E+0	1.595646E+0	1.616997E+0	1.635039E+0	1.609053E+0	1.648471E+0	1.665356E+0	1.675125E+0	1.697214E+0	1.666685E+0	1.587677E+0	1.570887E+0	1.634291E+0	1.676832E+0	1.585494E+0	1.680076E+0	1.638758E+0	1.628245E+0	1.683879E+0	1.640713E+0	1.641201E+0	1.667604E+0	1.638748E+0	1.654625E+0	1.663576E+0	1.681905E+0	1.653900E+0	1.619647E+0	1.613682E+0	1.625520E+0	1.646713E+0	1.704402E+0	1.614362E+0	1.671365E+0	1.641888E+0	1.646470E+0	1.579717E+0	1.645114E+0	1.687429E+0	1.607341E+0	1.660697E+0	1.628889E+0	1.614810E+0	1.662323E+0	1.615777E+0	1.605090E+0	1.590469E+0	1.656575E+0	1.637607E+0	1.600180E+0	1.651716E+0	1.632272E+0	1.616965E+0	1.619063E+0	1.642843E+0	1.610937E+0	1.643153E+0	1.666034E+0	1.663863E+0	1.626957E+0	1.612917E+0	1.561953E+0	1.554312E+0	1.599191E+0	1.676825E+0	1.580400E+0	1.618302E+0	1.584075E+0	1.649132E+0	1.669987E+0	1.566291E+0	1.637136E+0	1.604563E+0	1.658961E+0	1.591946E+0	1.685699E+0	1.660899E+0	1.618060E+0	1.655103E+0	1.698159E+0	1.668535E+0	1.612080E+0	1.568629E+0	1.580715E+0	1.632309E+0	1.634692E+0	1.551034E+0	1.540913E+0	1.572775E+0	1.597215E+0	1.654207E+0	1.627767E+0	1.620136E+0	1.656488E+0	1.608375E+0	1.655731E+0	1.631607E+0	1.656179E+0	1.635040E+0	1.658723E+0	1.632706E+0	1.599267E+0	1.631929E+0	1.569955E+0	1.575233E+0	1.683989E+0	1.563363E+0	1.623481E+0	1.550265E+0	1.664106E+0	1.601253E+0	1.679443E+0
5.355580E+2	1.425046E+0	1.363145E+0	1.414703E+0	1.369139E+0	1.418679E+0	1.382554E+0	1.353940E+0	1.372649E+0	1.411872E+0	1.412331E+0	1.409064E+0	1.451268E+0	1.394119E+0	1.412624E+0	1.407168E+0	1.410927E+0	1.439452E+0	1.404687E+0	1.414714E+0	1.401614E+0	1.383385E+0	1.379561E+0	1.373729E+0	1.368888E+0	1.366357E+0	1.363419E+0	1.375949E+0	1.392305E+0	1.422400E+0	1.419701E+0	1.383004E+0	1.429181E+0	1.420723E+0	1.353350E+0	1.365638E+0	1.400564E+0	1.405370E+0	1.384965E+0	1.429689E+0	1.375478E+0	1.410932E+0	1.408912E+0	1.417149E+0	1.379100E+0	1.414747E+0	1.362518E+0	1.399724E+0	1.371760E+0	1.407168E+0	1.409330E+0	1.382495E+0	1.299597E+0	1.364904E+0	1.369326E+0	1.366603E+0	1.398364E+0	1.380700E+0	1.378082E+0	1.400544E+0	1.398511E+0	1.360141E+0	1.405409E+0	1.367244E+0	1.330361E+0	1.371629E+0	1.392423E+0	1.439097E+0	1.350801E+0	1.438226E+0	1.349598E+0	1.423416E+0	1.406235E+0	1.408984E+0	1.363735E+0	1.369438E+0	1.353733E+0	1.377116E+0	1.395778E+0	1.388764E+0	1.394993E+0	1.431130E+0	1.410903E+0	1.372094E+0	1.332624E+0	1.374485E+0	1.432787E+0	1.348365E+0	1.379526E+0	1.345078E+0	1.395159E+0	1.394871E+0	1.396596E+0	1.427390E+0	1.355581E+0	1.414140E+0	1.312784E+0	1.417454E+0	1.346397E+0	1.408443E+0	1.382477E+0	1.381698E+0	1.361547E+0	1.469972E+0	1.357436E+0	1.398020E+0	1.382711E+0	1.448621E+0	1.353868E+0	1.378288E+0	1.317351E+0	1.367586E+0	1.365875E+0	1.327443E+0	1.393183E+0	1.362436E+0	1.415946E+0	1.476785E+0	1.351339E+0	1.365963E+0	1.387366E+0	1.420556E+0	1.412223E+0	1.331731E+0	1.416775E+0	1.355243E+0	1.351784E+0	1.382215E+0	1.373751E+0	1.398392E+0	1.373038E+0	1.343737E+0	1.407352E+0	1.342998E+0	1.354885E+0	1.416362E+0	1.395806E+0	1.403275E+0	1.370595E+0	1.420286E+0	1.392510E+0	1.406748E+0	1.337713E+0	1.377888E+0	1.382288E+0	1.415838E+0	1.324631E+0	1.317074E+0	1.374278E+0	1.391622E+0	1.419998E+0	1.356313E+0	1.473584E+0	1.355246E+0	1.382694E+0	1.366029E+0	1.387529E+0	1.389601E+0	1.382996E+0	1.360141E+0	1.354760E+0	1.356545E+0	1.423278E+0	1.379784E+0	1.351829E+0	1.382882E+0	1.407897E+0	1.350650E+0	1.326611E+0	1.321898E+0	1.431422E+0	1.367797E+0
5.357090E+2	1.230594E+0	1.249862E+0	1.248659E+0	1.209683E+0	1.223943E+0	1.254803E+0	1.203554E+0	1.205118E+0	1.224645E+0	1.168119E+0	1.221193E+0	1.187809E+0	1.229579E+0	1.188544E+0	1.182622E+0	1.177124E+0	1.220202E+0	1.210466E+0	1.200151E+0	1.165402E+0	1.194711E+0	1.187340E+0	1.203665E+0	1.224685E+0	1.175380E+0	1.234546E+0	1.240028E+0	1.254201E+0	1.228301E+0	1.249632E+0	1.179551E+0	1.183187E+0	1.216251E+0	1.191038E+0	1.229627E+0	1.163491E+0	1.207222E+0	1.237095E+0	1.189188E+0	1.183279E+0	1.167739E+0	1.199001E+0	1.210548E+0	1.177751E+0	1.233525E+0	1.154458E+0	1.150952E+0	1.170908E+0	1.218502E+0	1.243849E+0	1.242147E+0	1.173850E+0	1.213284E+0	1.217319E+0	1.191886E+0	1.273849E+0	1.193024E+0	1.229522E+0	1.187715E+0	1.212321E+0	1.193731E+0	1.274844E+0	1.263529E+0	1.145461E+0	1.256635E+0	1.250857E+0	1.184842E+0	1.252416E+0	1.202354E+0	1.176196E+0	1.205228E+0	1.188597E+0	1.220902E+0	1.220723E+0	1.203005E+0	1.202920E+0	1.218243E+0	1.219835E+0	1.171139E+0	1.189258E+0	1.165299E+0	1.216923E+0	1.177254E+0	1.179116E+0	1.262760E+0	1.210630E+0	1.195207E+0	1.201469E+0	1.195342E+0	1.177470E+0	1.242123E+0	1.156372E+0	1.245919E+0	1.182283E+0	1.215487E+0	1.141850E+0	1.228030E+0	1.230979E+0	1.202596E+0	1.150870E+0	1.222387E+0	1.214208E+0	1.147590E+0	1.163580E+0	1.148581E+0	1.243631E+0	1.169986E+0	1.193633E+0	1.240977E+0	1.210025E+0	1.184600E+0	1.198954E+0	1.177778E+0	1.206367E+0	1.187878E+0	1.218141E+0	1.212466E+0	1.151887E+0	1.198518E+0	1.195464E+0	1.224036E+0	1.181435E+0	1.176868E+0	1.150273E+0	1.194344E+0	1.169391E+0	1.179078E+0	1.184207E+0	1.214853E+0	1.133678E+0	1.176500E+0	1.158448E+0	1.159183E+0	1.210840E+0	1.241118E+0	1.217845E+0	1.159533E+0	1.238744E+0	1.186785E+0	1.205810E+0	1.194561E+0	1.222602E+0	1.187132E+0	1.206910E+0	1.197791E+0	1.144286E+0	1.137303E+0	1.228167E+0	1.200103E+0	1.242834E+0	1.171299E+0	1.185446E+0	1.200186E+0	1.164538E+0	1.206851E+0	1.216563E+0	1.178844E+0	1.189873E+0	1.171338E+0	1.222281E+0	1.224510E+0	1.166513E+0	1.192418E+0	1.171815E+0	1.238334E+0	1.159849E+0	1.154425E+0	1.189074E+0	1.200369E+0	1.107806E+0	1.197964E+0
5.358600E+2	1.063571E+0	1.032274E+0	9.861095E-1	1.036555E+0	1.017283E+0	9.969829E-1	9.960775E-1	1.007313E+0	1.020444E+0	1.058966E+0	1.017317E+0	1.049570E+0	1.079863E+0	1.046067E+0	1.061593E+0	1.046125E+0	1.078611E+0	1.006508E+0	1.010441E+0	1.086467E+0	1.001143E+0	1.022604E+0	1.025422E+0	1.036821E+0	1.054858E+0	1.022532E+0	1.017143E+0	1.055151E+0	9.833065E-1	1.017583E+0	1.002596E+0	1.025668E+0	1.040183E+0	9.649908E-1	1.028396E+0	1.013335E+0	1.012499E+0	1.078072E+0	1.052070E+0	1.014521E+0	9.802615E-1	1.075621E+0	1.014267E+0	1.035666E+0	1.050683E+0	1.027935E+0	1.024932E+0	1.024512E+0	1.011686E+0	1.046060E+0	1.018506E+0	1.003737E+0	1.056888E+0	1.055264E+0	9.990707E-1	1.039287E+0	1.067414E+0	1.036095E+0	1.034083E+0	1.019372E+0	1.043167E+0	1.064843E+0	1.062464E+0	1.007498E+0	1.053014E+0	1.002862E+0	9.792938E-1	1.064275E+0	1.052712E+0	1.017461E+0	1.058963E+0	1.060097E+0	1.013000E+0	9.972026E-1	1.068150E+0	9.994676E-1	1.028703E+0	1.025065E+0	1.017303E+0	1.030610E+0	1.043064E+0	1.073374E+0	9.957222E-1	1.008997E+0	1.086595E+0	1.014068E+0	1.034553E+0	1.015028E+0	1.016254E+0	1.060730E+0	1.046840E+0	1.026154E+0	1.069753E+0	1.006066E+0	1.037583E+0	1.029580E+0	1.053503E+0	1.013979E+0	9.929333E-1	1.008579E+0	1.055853E+0	1.044082E+0	1.062181E+0	1.037796E+0	1.009274E+0	1.065032E+0	1.066037E+0	1.084440E+0	1.073040E+0	1.025446E+0	1.032888E+0	9.996206E-1	1.048352E+0	1.077609E+0	1.028969E+0	1.004846E+0	1.003856E+0	1.054434E+0	1.084956E+0	9.955916E-1	1.003352E+0	1.054182E+0	9.852577E-1	1.018511E+0	1.061994E+0	1.056191E+0	1.013897E+0	9.875305E-1	1.010335E+0	1.019050E+0	9.652285E-1	1.003280E+0	1.039942E+0	1.022653E+0	1.043889E+0	1.028998E+0	9.946166E-1	1.011568E+0	1.032909E+0	1.011751E+0	1.029002E+0	1.029229E+0	1.080311E+0	9.812953E-1	1.043915E+0	1.033800E+0	1.015869E+0	1.040075E+0	1.033647E+0	1.039758E+0	1.002190E+0	1.046123E+0	1.036804E+0	1.002103E+0	1.043089E+0	9.928131E-1	1.025190E+0	1.019447E+0	1.029681E+0	1.046029E+0	1.045163E+0	1.053791E+0	1.033920E+0	1.014307E+0	1.038757E+0	1.067479E+0	1.053088E+0	1.042653E+0	1.055238E+0	1.031716E+0	1.036263E+0
5.360120E+2	8.687645E-1	8.630066E-1	8.411853E-1	8.553843E-1	8.876963E-1	9.075951E-1	8.383569E-1	9.024308E-1	8.551832E-1	8.354739E-1	8.571816E-1	8.714129E-1	8.901525E-1	8.822763E-1	8.711287E-1	8.673001E-1	8.699470E-1	8.756350E-1	9.354284E-1	8.571673E-1	8.518908E-1	8.614896E-1	8.375402E-1	8.942344E-1	8.516941E-1	8.881406E-1	8.575260E-1	8.542330E-1	9.153781E-1	8.227721E-1	8.603703E-1	8.451785E-1	8.494562E-1	8.367239E-1	8.641364E-1	8.788785E-1	8.703787E-1	8.837691E-1	8.136668E-1	8.508286E-1	8.601213E-1	8.768751E-1	9.283880E-1	8.348391E-1	8.153109E-1	9.181059E-1	8.619770E-1	8.588440E-1	8.586926E-1	8.738087E-1	8.525676E-1	8.578321E-1	8.862170E-1	8.993783E-1	8.220546E-1	8.715450E-1	8.653745E-1	8.816682E-1	8.684155E-1	8.690380E-1	8.543482E-1	8.665356E-1	8.732519E-1	8.326332E-1	8.700021E-1	8.602255E-1	8.615993E-1	8.445755E-1	8.946459E-1	8.394124E-1	8.217868E-1	8.787729E-1	8.679477E-1	8.727248E-1	8.775638E-1	8.573695E-1	8.896442E-1	8.745846E-1	8.786982E-1	8.760613E-1	8.455118E-1	8.882732E-1	8.653200E-1	8.290608E-1	8.897230E-1	8.797951E-1	8.266207E-1	8.702618E-1	8.715913E-1	8.374999E-1	8.439827E-1	8.800373E-1	8.777645E-1	8.692745E-1	8.247666E-1	8.649880E-1	8.991599E-1	8.622468E-1	8.862046E-1	8.588848E-1	8.862406E-1	8.809134E-1	8.662369E-1	8.545468E-1	8.450151E-1	9.174199E-1	8.816489E-1	8.740251E-1	8.585633E-1	8.774625E-1	8.655006E-1	8.618361E-1	8.722364E-1	8.238386E-1	8.501531E-1	8.262024E-1	9.003274E-1	8.566933E-1	9.014246E-1	8.334525E-1	8.666268E-1	8.082097E-1	8.515779E-1	8.746361E-1	8.874885E-1	8.714023E-1	8.626909E-1	8.599424E-1	8.724429E-1	8.559973E-1	8.449766E-1	8.982189E-1	8.653502E-1	8.430700E-1	8.770587E-1	8.491683E-1	9.086663E-1	8.685128E-1	8.822805E-1	8.237572E-1	8.727633E-1	8.838869E-1	8.919289E-1	8.726441E-1	8.960764E-1	8.429139E-1	8.880155E-1	8.755153E-1	8.790691E-1	8.699504E-1	8.637087E-1	8.706662E-1	8.593888E-1	8.672265E-1	9.175857E-1	8.316595E-1	8.719720E-1	8.672346E-1	8.522918E-1	8.588440E-1	9.095768E-1	8.688285E-1	8.672718E-1	8.650442E-1	8.938429E-1	8.474388E-1	8.529536E-1	8.590291E-1	8.317527E-1	8.536411E-1	9.153285E-1
5.362730E+2	6.530977E-1	6.885364E-1	6.514521E-1	6.591866E-1	6.566607E-1	6.699536E-1	6.421386E-1	6.377140E-1	6.447681E-1	6.235008E-1	6.628751E-1	6.486276E-1	6.717478E-1	6.729128E-1	6.703911E-1	5.953165E-1	6.520842E-1	6.375200E-1	6.451168E-1	6.510823E-1	6.619241E-1	6.292728E-1	6.697111E-1	6.879446E-1	6.366803E-1	6.421058E-1	6.286179E-1	6.284353E-1	6.713693E-1	6.635500E-1	6.520217E-1	6.903683E-1	6.585131E-1	6.697914E-1	6.495598E-1	6.373572E-1	6.895042E-1	6.472652E-1	6.445761E-1	6.900963E-1	6.630868E-1	6.585200E-1	6.507212E-1	6.361311E-1	6.631382E-1	6.435237E-1	6.739052E-1	6.420674E-1	6.866694E-1	6.283440E-1	6.382470E-1	6.784820E-1	7.000135E-1	6.356229E-1	6.434977E-1	6.765108E-1	6.550355E-1	6.444009E-1	6.627217E-1	6.255973E-1	6.788919E-1	6.426504E-1	6.063003E-1	6.548993E-1	6.811231E-1	6.690134E-1	6.692217E-1	6.314121E-1	6.660969E-1	6.565616E-1	6.393481E-1	6.420188E-1	6.026333E-1	6.476758E-1	6.677326E-1	6.262557E-1	6.773208E-1	6.544717E-1	6.527981E-1	6.941467E-1	6.296655E-1	6.495340E-1	6.562213E-1	6.700739E-1	6.819892E-1	6.526856E-1	6.685611E-1	6.639010E-1	6.477399E-1	6.494035E-1	6.907179E-1	6.277391E-1	6.617958E-1	6.394426E-1	6.510208E-1	6.569625E-1	6.166764E-1	6.512185E-1	6.856369E-1	6.783419E-1	6.496877E-1	6.697973E-1	6.895115E-1	6.358321E-1	6.453507E-1	6.414922E-1	6.824416E-1	6.679857E-1	6.969572E-1	6.371622E-1	6.605001E-1	6.141675E-1	6.298750E-1	6.383972E-1	6.857331E-1	6.627259E-1	6.551111E-1	6.709203E-1	6.474900E-1	6.407028E-1	6.648629E-1	6.770457E-1	6.394925E-1	6.827719E-1	6.701804E-1	6.532271E-1	6.548531E-1	6.681281E-1	6.451582E-1	6.551942E-1	6.484514E-1	6.712464E-1	6.547650E-1	6.513529E-1	6.965107E-1	6.833588E-1	6.613879E-1	7.089428E-1	6.840355E-1	6.481064E-1	6.636174E-1	6.530889E-1	6.563927E-1	6.432753E-1	6.815041E-1	7.049183E-1	6.658106E-1	6.421992E-1	6.412505E-1	6.794619E-1	6.940985E-1	7.022498E-1	6.366019E-1	7.086244E-1	7.014151E-1	6.836790E-1	6.657711E-1	6.826517E-1	6.286550E-1	6.383503E-1	6.469422E-1	6.669193E-1	6.915819E-1	6.581204E-1	6.666120E-1	6.634624E-1	6.535997E-1	6.429897E-1	6.520976E-1	6.711559E-1	6.589294E-1
5.365140E+2	5.315466E-1	5.638294E-1	5.426197E-1	5.639725E-1	5.924093E-1	5.483384E-1	5.207035E-1	5.875035E-1	5.698351E-1	5.582573E-1	5.787315E-1	5.564054E-1	5.395746E-1	5.573666E-1	5.338639E-1	5.535577E-1	5.485152E-1	5.407801E-1	5.715682E-1	5.572065E-1	5.745470E-1	5.510906E-1	5.438190E-1	5.542936E-1	5.467891E-1	5.295797E-1	5.292061E-1	5.494653E-1	6.021278E-1	5.715428E-1	5.501827E-1	5.669042E-1	5.727515E-1	5.691425E-1	5.471003E-1	5.509278E-1	5.830519E-1	5.597753E-1	5.789336E-1	5.827418E-1	5.660804E-1	5.748690E-1	5.574027E-1	5.346127E-1	5.882470E-1	5.249073E-1	5.967002E-1	5.347376E-1	5.642844E-1	5.561804E-1	5.412401E-1	5.741206E-1	5.510099E-1	5.670342E-1	5.597253E-1	5.466766E-1	5.633266E-1	5.565010E-1	5.470388E-1	5.835224E-1	5.622385E-1	5.653300E-1	5.361955E-1	5.484727E-1	5.549728E-1	5.684540E-1	5.099842E-1	5.210588E-1	5.870695E-1	5.637132E-1	5.926090E-1	5.533527E-1	5.680772E-1	5.665649E-1	5.859704E-1	5.510245E-1	5.498993E-1	5.968255E-1	5.568782E-1	5.346922E-1	5.521322E-1	6.020436E-1	5.637819E-1	5.256368E-1	5.689737E-1	5.445930E-1	5.331965E-1	5.831899E-1	5.875648E-1	5.611557E-1	5.864797E-1	5.839882E-1	5.877278E-1	5.370908E-1	5.541838E-1	5.484499E-1	5.811647E-1	5.873611E-1	5.524820E-1	5.520547E-1	5.564480E-1	5.767141E-1	5.994826E-1	5.615145E-1	5.886547E-1	5.850916E-1	5.786637E-1	5.279350E-1	5.709513E-1	5.706303E-1	5.760754E-1	5.826712E-1	4.984431E-1	5.585312E-1	5.529823E-1	5.415538E-1	5.555838E-1	5.531263E-1	5.597084E-1	5.590877E-1	5.747084E-1	5.544427E-1	5.599391E-1	5.582717E-1	5.473051E-1	5.683780E-1	5.621041E-1	5.387556E-1	5.487949E-1	5.560653E-1	5.803959E-1	5.782176E-1	5.775247E-1	6.082153E-1	5.900026E-1	5.705123E-1	5.555168E-1	5.675920E-1	5.718211E-1	5.345033E-1	5.711601E-1	5.565423E-1	5.551509E-1	5.751735E-1	5.666521E-1	5.651904E-1	5.684782E-1	5.728796E-1	5.893905E-1	5.819626E-1	5.361876E-1	5.698508E-1	5.668341E-1	5.606953E-1	5.412531E-1	5.652536E-1	5.698180E-1	5.721284E-1	5.429628E-1	5.444947E-1	5.410861E-1	5.448576E-1	5.503058E-1	5.704637E-1	5.727964E-1	5.385175E-1	5.519020E-1	5.589173E-1	5.742417E-1	6.253003E-1	5.557269E-1
5.367710E+2	5.696146E-1	5.599716E-1	5.256137E-1	5.670870E-1	5.418575E-1	5.209064E-1	5.669400E-1	5.299967E-1	5.314551E-1	5.731808E-1	5.626431E-1	5.389047E-1	5.605945E-1	5.675088E-1	5.351177E-1	5.654404E-1	5.370759E-1	5.615519E-1	5.388884E-1	5.514669E-1	5.346679E-1	5.521735E-1	5.531929E-1	5.636221E-1	5.337880E-1	5.848314E-1	5.074896E-1	5.433328E-1	5.539033E-1	5.848338E-1	5.805970E-1	5.350274E-1	5.610399E-1	5.586821E-1	5.326446E-1	5.229423E-1	5.664119E-1	5.429688E-1	5.164244E-1	5.264572E-1	5.406521E-1	5.275643E-1	5.370391E-1	5.196742E-1	5.500010E-1	5.043018E-1	5.213877E-1	5.322285E-1	5.864398E-1	5.323437E-1	5.575003E-1	5.077253E-1	5.809303E-1	5.373306E-1	5.279979E-1	5.549616E-1	5.434050E-1	5.859830E-1	5.349069E-1	5.467118E-1	5.289498E-1	5.586510E-1	5.612358E-1	5.348470E-1	5.499678E-1	5.565379E-1	5.315648E-1	5.484134E-1	5.676814E-1	5.424942E-1	5.633602E-1	5.299869E-1	5.673302E-1	5.695352E-1	5.558679E-1	5.636769E-1	5.617838E-1	5.634534E-1	5.671308E-1	5.537390E-1	5.804984E-1	5.580250E-1	5.678873E-1	5.669485E-1	5.617205E-1	5.628318E-1	4.949115E-1	5.575410E-1	4.872723E-1	5.537736E-1	5.581296E-1	5.193439E-1	5.791768E-1	5.719823E-1	5.460042E-1	5.602818E-1	5.462755E-1	5.483063E-1	5.390065E-1	5.152364E-1	5.409835E-1	5.560976E-1	5.529748E-1	5.342347E-1	5.328458E-1	5.603234E-1	5.858600E-1	5.889405E-1	5.438057E-1	5.435189E-1	5.609402E-1	5.637044E-1	5.099909E-1	5.586955E-1	5.432623E-1	5.537205E-1	5.653924E-1	5.908944E-1	5.594710E-1	5.214297E-1	5.690877E-1	5.440940E-1	5.214603E-1	5.146999E-1	5.594141E-1	5.564866E-1	5.269361E-1	5.438259E-1	5.729560E-1	5.472560E-1	5.005530E-1	5.281335E-1	5.370867E-1	5.313269E-1	5.501447E-1	5.684353E-1	6.045419E-1	5.757276E-1	5.832574E-1	5.335639E-1	5.451753E-1	5.375408E-1	5.254794E-1	5.400144E-1	6.023674E-1	5.551363E-1	5.165202E-1	5.394610E-1	5.401161E-1	5.052850E-1	5.603640E-1	5.371897E-1	5.366560E-1	5.261336E-1	5.619453E-1	5.517176E-1	5.167364E-1	5.631683E-1	5.406795E-1	5.466436E-1	5.793375E-1	5.617676E-1	5.736488E-1	5.498558E-1	5.820274E-1	5.618577E-1	5.640007E-1	5.528859E-1	5.610919E-1	5.596922E-1	4.904030E-1
5.370120E+2	5.787974E-1	6.110586E-1	5.506908E-1	5.959246E-1	5.853425E-1	5.556464E-1	5.882208E-1	5.554919E-1	5.725866E-1	6.113800E-1	5.668306E-1	5.717017E-1	5.854663E-1	5.706271E-1	5.690980E-1	5.778516E-1	5.806872E-1	5.915836E-1	5.909750E-1	5.725975E-1	5.772523E-1	5.903891E-1	5.728737E-1	6.022608E-1	5.533270E-1	5.794090E-1	5.794930E-1	6.068499E-1	5.766099E-1	5.686384E-1	5.878041E-1	5.888457E-1	5.612973E-1	5.616912E-1	5.966824E-1	5.736674E-1	6.411396E-1	6.019856E-1	5.957143E-1	5.805851E-1	5.682808E-1	5.946275E-1	6.059867E-1	5.715636E-1	5.664397E-1	5.960775E-1	5.801963E-1	5.695223E-1	5.767752E-1	5.618679E-1	5.696786E-1	5.832767E-1	6.064657E-1	5.858864E-1	5.682174E-1	5.540013E-1	5.829121E-1	5.916569E-1	5.629150E-1	5.907752E-1	5.541762E-1	5.855301E-1	5.696260E-1	5.838436E-1	5.814264E-1	5.939022E-1	6.060099E-1	5.969424E-1	5.852722E-1	5.578960E-1	5.751618E-1	5.582619E-1	5.799687E-1	5.967264E-1	5.411937E-1	5.728352E-1	5.691622E-1	6.021949E-1	5.826367E-1	5.975343E-1	5.732593E-1	5.993334E-1	5.680524E-1	5.633903E-1	5.830819E-1	5.536921E-1	6.122921E-1	6.059150E-1	5.872670E-1	5.974048E-1	6.118249E-1	5.599176E-1	5.931782E-1	5.838522E-1	5.669981E-1	5.809741E-1	5.918599E-1	5.775800E-1	6.075601E-1	5.725735E-1	5.783678E-1	5.807281E-1	5.935159E-1	5.833745E-1	5.938621E-1	5.710021E-1	5.867044E-1	5.652933E-1	5.877983E-1	5.890214E-1	5.701988E-1	5.711100E-1	5.805751E-1	5.716404E-1	6.387385E-1	5.623556E-1	6.044598E-1	6.136855E-1	5.813446E-1	5.571721E-1	5.660394E-1	5.669681E-1	5.718016E-1	5.947509E-1	6.080021E-1	6.296370E-1	5.949193E-1	5.844617E-1	5.769908E-1	5.997886E-1	5.437428E-1	5.952720E-1	5.905419E-1	5.798433E-1	5.945024E-1	5.581752E-1	6.143129E-1	6.029517E-1	5.817448E-1	5.709342E-1	5.952133E-1	5.662019E-1	5.689833E-1	5.840974E-1	5.758256E-1	5.693500E-1	6.066076E-1	6.068141E-1	5.651637E-1	5.933651E-1	6.033301E-1	5.940264E-1	5.800389E-1	5.686208E-1	5.884798E-1	6.019509E-1	5.903326E-1	5.838476E-1	5.734884E-1	5.684792E-1	5.989239E-1	5.949126E-1	5.942986E-1	6.032433E-1	6.271098E-1	5.732739E-1	5.782016E-1	5.581323E-1	5.969235E-1	5.538112E-1	5.887828E-1
5.372590E+2	6.660526E-1	6.306319E-1	6.463198E-1	6.742709E-1	6.430855E-1	6.589483E-1	6.911356E-1	6.320838E-1	6.586350E-1	6.465834E-1	6.765003E-1	6.717590E-1	6.596455E-1	6.512446E-1	6.416415E-1	6.394221E-1	6.454402E-1	6.498487E-1	6.780866E-1	6.431659E-1	7.037485E-1	6.643146E-1	6.563335E-1	6.513481E-1	6.764630E-1	6.592700E-1	6.021268E-1	6.746880E-1	6.759308E-1	6.998814E-1	6.373553E-1	6.543192E-1	6.384085E-1	6.434008E-1	6.573224E-1	6.463476E-1	6.793779E-1	6.685943E-1	6.221889E-1	6.792913E-1	6.316081E-1	7.017262E-1	6.655353E-1	6.824856E-1	6.472332E-1	6.635803E-1	6.629264E-1	6.545812E-1	6.797563E-1	6.733977E-1	6.215384E-1	6.357208E-1	7.117686E-1	6.959491E-1	6.274091E-1	6.398299E-1	6.935357E-1	6.521175E-1	6.622674E-1	6.496776E-1	6.683692E-1	6.455729E-1	6.767434E-1	6.592163E-1	6.804425E-1	6.684750E-1	6.669526E-1	6.555873E-1	6.173875E-1	6.819394E-1	6.578886E-1	6.570535E-1	6.668063E-1	6.602150E-1	6.504683E-1	6.815375E-1	6.958253E-1	6.306388E-1	6.792943E-1	6.505669E-1	6.627383E-1	6.865305E-1	6.146225E-1	6.544462E-1	6.972578E-1	6.566934E-1	6.218988E-1	6.947881E-1	6.561726E-1	6.912574E-1	6.606789E-1	6.460594E-1	6.705057E-1	6.350233E-1	6.676002E-1	6.607488E-1	6.649221E-1	6.571690E-1	6.856851E-1	6.334521E-1	6.693579E-1	6.607341E-1	6.988649E-1	6.614479E-1	6.555239E-1	6.564542E-1	6.158037E-1	6.694806E-1	6.703587E-1	6.835873E-1	6.433803E-1	6.303775E-1	6.798680E-1	6.556155E-1	6.213908E-1	6.716023E-1	6.702141E-1	6.488267E-1	6.888774E-1	6.903255E-1	6.446087E-1	6.425831E-1	6.098118E-1	6.774967E-1	6.524645E-1	6.686384E-1	6.568250E-1	6.802813E-1	6.709483E-1	6.415605E-1	6.489758E-1	5.996486E-1	6.348896E-1	6.539596E-1	6.954562E-1	6.829473E-1	6.817425E-1	6.711850E-1	6.600355E-1	6.353949E-1	6.677426E-1	6.508970E-1	6.998495E-1	6.489092E-1	6.705788E-1	6.720405E-1	6.430864E-1	6.446569E-1	6.907936E-1	6.784806E-1	6.516123E-1	6.855861E-1	6.880528E-1	6.725468E-1	6.956369E-1	6.743139E-1	6.916487E-1	6.571115E-1	6.942472E-1	6.679070E-1	6.691570E-1	6.580845E-1	6.634068E-1	6.508104E-1	6.512725E-1	6.506760E-1	6.332408E-1	6.412840E-1	6.845272E-1	6.309046E-1	6.211440E-1
5.375110E+2	7.432941E-1	8.076457E-1	7.375675E-1	7.623186E-1	7.380779E-1	7.430590E-1	7.863296E-1	7.683580E-1	7.114116E-1	7.401317E-1	7.677696E-1	7.235326E-1	7.740367E-1	7.774760E-1	7.680272E-1	7.738513E-1	7.153344E-1	7.744708E-1	7.536009E-1	7.681425E-1	7.711277E-1	7.660008E-1	7.556489E-1	7.281705E-1	7.239764E-1	7.618031E-1	7.217817E-1	7.627939E-1	7.803148E-1	7.507107E-1	7.375887E-1	7.448070E-1	7.381004E-1	7.678500E-1	7.669078E-1	7.542746E-1	7.458156E-1	7.849691E-1	7.828118E-1	7.470083E-1	7.535972E-1	7.653875E-1	7.545907E-1	7.809696E-1	7.198965E-1	7.515110E-1	7.371955E-1	7.214750E-1	7.340124E-1	8.052646E-1	7.593013E-1	7.571035E-1	7.376879E-1	7.728764E-1	7.756402E-1	7.706219E-1	7.419238E-1	7.483059E-1	7.612025E-1	7.636938E-1	7.665661E-1	7.574815E-1	7.467056E-1	7.249889E-1	7.723385E-1	7.876431E-1	7.595698E-1	7.803131E-1	7.294535E-1	7.631515E-1	7.658311E-1	7.547792E-1	7.294459E-1	7.405800E-1	7.632475E-1	7.408708E-1	7.402270E-1	7.378314E-1	7.540456E-1	7.934381E-1	7.478240E-1	7.450942E-1	7.764123E-1	7.527127E-1	7.607640E-1	7.911470E-1	7.413270E-1	7.631623E-1	7.012105E-1	7.808177E-1	7.821647E-1	7.908156E-1	7.701173E-1	7.524233E-1	7.654198E-1	7.332636E-1	7.499343E-1	7.553429E-1	8.008407E-1	7.106456E-1	7.415026E-1	7.920113E-1	7.811439E-1	7.607510E-1	7.783026E-1	7.760422E-1	7.713745E-1	7.513007E-1	7.583543E-1	7.705609E-1	7.438786E-1	7.341802E-1	8.123325E-1	7.700820E-1	7.764616E-1	7.640395E-1	7.721647E-1	7.555727E-1	7.471940E-1	7.586960E-1	7.715815E-1	7.324522E-1	7.152007E-1	8.000305E-1	7.289715E-1	7.514625E-1	7.240989E-1	7.520527E-1	7.418275E-1	7.840631E-1	7.631871E-1	7.506691E-1	7.818659E-1	7.622551E-1	7.516395E-1	7.543142E-1	7.785638E-1	7.974582E-1	7.957629E-1	7.643569E-1	8.106577E-1	7.425835E-1	7.223733E-1	7.789693E-1	7.417133E-1	7.479264E-1	7.527668E-1	7.560069E-1	7.427977E-1	8.199152E-1	7.394388E-1	7.596884E-1	7.612512E-1	7.727290E-1	7.709435E-1	8.258537E-1	7.838178E-1	7.627577E-1	7.533934E-1	7.596944E-1	7.856891E-1	7.821761E-1	7.667304E-1	7.337198E-1	7.794579E-1	7.784555E-1	7.754069E-1	7.646415E-1	7.593874E-1	7.569642E-1	7.131341E-1
5.377630E+2	9.192647E-1	9.437721E-1	8.691649E-1	8.975738E-1	8.703659E-1	9.178156E-1	9.077400E-1	8.849514E-1	8.547727E-1	9.014768E-1	9.123536E-1	9.080044E-1	9.056985E-1	8.928510E-1	9.185549E-1	8.875577E-1	8.695415E-1	8.826398E-1	8.991972E-1	8.730830E-1	9.107387E-1	8.908183E-1	8.412190E-1	8.963803E-1	8.574726E-1	9.015263E-1	8.769724E-1	8.866091E-1	8.771043E-1	9.117791E-1	8.878439E-1	9.092746E-1	9.555469E-1	8.754679E-1	8.589994E-1	8.885513E-1	9.026709E-1	9.309356E-1	8.923977E-1	8.722847E-1	8.721032E-1	8.705657E-1	9.305611E-1	8.774603E-1	8.897895E-1	8.934700E-1	8.860549E-1	8.504908E-1	8.679763E-1	8.787097E-1	8.704406E-1	8.668012E-1	8.770688E-1	9.036663E-1	8.939623E-1	8.886989E-1	9.000284E-1	9.006423E-1	8.875101E-1	8.441212E-1	8.965802E-1	9.096125E-1	8.820210E-1	8.840771E-1	9.049264E-1	9.133549E-1	9.006913E-1	8.779270E-1	8.508173E-1	8.933470E-1	9.143912E-1	9.119074E-1	8.828357E-1	8.697735E-1	9.066395E-1	8.939540E-1	8.828755E-1	9.090932E-1	8.488896E-1	8.744257E-1	8.869657E-1	9.185154E-1	8.929166E-1	9.380188E-1	9.204940E-1	9.343925E-1	8.848158E-1	8.891066E-1	8.783610E-1	9.120957E-1	9.064779E-1	8.800035E-1	9.426010E-1	8.786843E-1	8.915102E-1	8.436350E-1	9.199780E-1	8.930371E-1	8.884460E-1	8.814237E-1	8.929908E-1	9.120525E-1	9.264239E-1	8.954851E-1	8.772480E-1	9.026189E-1	8.966533E-1	8.704567E-1	8.930707E-1	8.958117E-1	8.657797E-1	8.928850E-1	9.093936E-1	9.144310E-1	8.754995E-1	9.369848E-1	8.995301E-1	8.946791E-1	8.831147E-1	8.759726E-1	9.340795E-1	8.528584E-1	8.475404E-1	8.978401E-1	8.820021E-1	9.137033E-1	9.249737E-1	8.713969E-1	9.017708E-1	9.077150E-1	8.979982E-1	8.760998E-1	9.101412E-1	9.192796E-1	9.157823E-1	9.291913E-1	9.354563E-1	9.525281E-1	9.369144E-1	8.895376E-1	8.853127E-1	9.058549E-1	8.929747E-1	8.979601E-1	8.770735E-1	8.874166E-1	9.076454E-1	9.019573E-1	9.201206E-1	9.112021E-1	9.340659E-1	9.018839E-1	8.794871E-1	8.954171E-1	9.217794E-1	8.844054E-1	9.135693E-1	9.126024E-1	9.265458E-1	8.526966E-1	9.205377E-1	8.965487E-1	9.142532E-1	8.667941E-1	8.982532E-1	8.990285E-1	9.214230E-1	9.143544E-1	8.594380E-1	9.262463E-1	9.303626E-1
5.380110E+2	1.000192E+0	9.752400E-1	1.017805E+0	9.902319E-1	1.033091E+0	1.022489E+0	1.023086E+0	1.003405E+0	9.592554E-1	1.000655E+0	9.760259E-1	9.737874E-1	9.816903E-1	9.859024E-1	9.896183E-1	9.798836E-1	1.007505E+0	9.757982E-1	9.863269E-1	1.015855E+0	1.010619E+0	9.967625E-1	9.965463E-1	9.571705E-1	9.884276E-1	9.878773E-1	1.008357E+0	9.763505E-1	1.022117E+0	9.808652E-1	9.559236E-1	1.016195E+0	1.009003E+0	9.867199E-1	1.012719E+0	9.826340E-1	9.822331E-1	1.007363E+0	9.541247E-1	1.024472E+0	9.796127E-1	1.017143E+0	1.042928E+0	9.570587E-1	1.002120E+0	9.688888E-1	9.580470E-1	9.259317E-1	9.977182E-1	9.993331E-1	9.643881E-1	9.502856E-1	1.027141E+0	9.599321E-1	9.830052E-1	1.041164E+0	9.899109E-1	1.029989E+0	1.000768E+0	9.787441E-1	9.688841E-1	1.005309E+0	9.606392E-1	9.769315E-1	1.022546E+0	1.013849E+0	1.014329E+0	9.901266E-1	9.829285E-1	9.942724E-1	1.007511E+0	1.018092E+0	9.942488E-1	1.001313E+0	9.895448E-1	1.006484E+0	9.514021E-1	1.058048E+0	1.007522E+0	9.871004E-1	9.967576E-1	9.690123E-1	1.002754E+0	9.867522E-1	9.837617E-1	1.025699E+0	9.425193E-1	1.004663E+0	9.310551E-1	1.029827E+0	9.786166E-1	9.937807E-1	9.914013E-1	9.776061E-1	1.024099E+0	9.965648E-1	1.009462E+0	9.854959E-1	1.060236E+0	9.999992E-1	1.006059E+0	1.011439E+0	1.058353E+0	9.931331E-1	9.486655E-1	1.025879E+0	1.041478E+0	9.966184E-1	9.739438E-1	9.767684E-1	9.833775E-1	9.232219E-1	9.678535E-1	9.785800E-1	9.940113E-1	9.889799E-1	1.031351E+0	1.026049E+0	9.825870E-1	9.843295E-1	9.890482E-1	9.757130E-1	9.116954E-1	1.010606E+0	1.008205E+0	9.702884E-1	1.020566E+0	1.018113E+0	9.565289E-1	9.410546E-1	9.626802E-1	9.833022E-1	9.971160E-1	9.654568E-1	9.937284E-1	1.046973E+0	9.996897E-1	9.969501E-1	9.918774E-1	9.902467E-1	1.026766E+0	1.045848E+0	1.009518E+0	9.925303E-1	1.009249E+0	9.919857E-1	9.411926E-1	9.976611E-1	1.020731E+0	1.039591E+0	1.000173E+0	9.602866E-1	9.183301E-1	1.008775E+0	9.997923E-1	9.303198E-1	1.010753E+0	9.982387E-1	9.660783E-1	9.952498E-1	9.638682E-1	9.616618E-1	9.613738E-1	9.940801E-1	1.066290E+0	9.774904E-1	9.942058E-1	9.809528E-1	9.519620E-1	9.658105E-1	9.221893E-1
5.382690E+2	1.234722E+0	1.176681E+0	1.190104E+0	1.199478E+0	1.227011E+0	1.195158E+0	1.213886E+0	1.181952E+0	1.156364E+0	1.156065E+0	1.186129E+0	1.211531E+0	1.227688E+0	1.241440E+0	1.196167E+0	1.203002E+0	1.228732E+0	1.185149E+0	1.217176E+0	1.183542E+0	1.183394E+0	1.207622E+0	1.179174E+0	1.228189E+0	1.190153E+0	1.218635E+0	1.187687E+0	1.168492E+0	1.202031E+0	1.170338E+0	1.158563E+0	1.191630E+0	1.241401E+0	1.176483E+0	1.184774E+0	1.143432E+0	1.227311E+0	1.183081E+0	1.165125E+0	1.186038E+0	1.194538E+0	1.239913E+0	1.205848E+0	1.171836E+0	1.186889E+0	1.184314E+0	1.181942E+0	1.165824E+0	1.201423E+0	1.247358E+0	1.191500E+0	1.159339E+0	1.185358E+0	1.209128E+0	1.179348E+0	1.219412E+0	1.228886E+0	1.257378E+0	1.229915E+0	1.197320E+0	1.171633E+0	1.223711E+0	1.244863E+0	1.152686E+0	1.145971E+0	1.228137E+0	1.223674E+0	1.258156E+0	1.198073E+0	1.215247E+0	1.221825E+0	1.185477E+0	1.196045E+0	1.239630E+0	1.225486E+0	1.188698E+0	1.199172E+0	1.215299E+0	1.186039E+0	1.212869E+0	1.153126E+0	1.169253E+0	1.176342E+0	1.230306E+0	1.198190E+0	1.194546E+0	1.169938E+0	1.179679E+0	1.141943E+0	1.222384E+0	1.186432E+0	1.181971E+0	1.252960E+0	1.164407E+0	1.214261E+0	1.210452E+0	1.226117E+0	1.222053E+0	1.228230E+0	1.175848E+0	1.224634E+0	1.190342E+0	1.272849E+0	1.130080E+0	1.218790E+0	1.211019E+0	1.224239E+0	1.226315E+0	1.223004E+0	1.157869E+0	1.150405E+0	1.178267E+0	1.147905E+0	1.227462E+0	1.173560E+0	1.169616E+0	1.159425E+0	1.187452E+0	1.177664E+0	1.212632E+0	1.148982E+0	1.175438E+0	1.190412E+0	1.218952E+0	1.144989E+0	1.252277E+0	1.224636E+0	1.200663E+0	1.167581E+0	1.194369E+0	1.195220E+0	1.208898E+0	1.191709E+0	1.200083E+0	1.207309E+0	1.164329E+0	1.238602E+0	1.199902E+0	1.179967E+0	1.104154E+0	1.187479E+0	1.223454E+0	1.132143E+0	1.179524E+0	1.240650E+0	1.200345E+0	1.189615E+0	1.211006E+0	1.192461E+0	1.219647E+0	1.181630E+0	1.213285E+0	1.148787E+0	1.159093E+0	1.222491E+0	1.205414E+0	1.223530E+0	1.181399E+0	1.238185E+0	1.174934E+0	1.228886E+0	1.146995E+0	1.206320E+0	1.155918E+0	1.193583E+0	1.193573E+0	1.191590E+0	1.231079E+0	1.160731E+0	1.165368E+0	1.251311E+0
5.385010E+2	1.427423E+0	1.392277E+0	1.461810E+0	1.413956E+0	1.434841E+0	1.420627E+0	1.476994E+0	1.443297E+0	1.432931E+0	1.382869E+0	1.446323E+0	1.444337E+0	1.439957E+0	1.425155E+0	1.365951E+0	1.416838E+0	1.431897E+0	1.392589E+0	1.385610E+0	1.429546E+0	1.423825E+0	1.391790E+0	1.428336E+0	1.430171E+0	1.371533E+0	1.445489E+0	1.382697E+0	1.430322E+0	1.412229E+0	1.404598E+0	1.357915E+0	1.420981E+0	1.455417E+0	1.438020E+0	1.357121E+0	1.447551E+0	1.473667E+0	1.464478E+0	1.416647E+0	1.439883E+0	1.414228E+0	1.407575E+0	1.420246E+0	1.402154E+0	1.426807E+0	1.382902E+0	1.436887E+0	1.377142E+0	1.369018E+0	1.413550E+0	1.398031E+0	1.346522E+0	1.423619E+0	1.411050E+0	1.392771E+0	1.402821E+0	1.421005E+0	1.472690E+0	1.453460E+0	1.385589E+0	1.395300E+0	1.444174E+0	1.398155E+0	1.386392E+0	1.454658E+0	1.389555E+0	1.425712E+0	1.406734E+0	1.353896E+0	1.444604E+0	1.375117E+0	1.419505E+0	1.375988E+0	1.395240E+0	1.406840E+0	1.407107E+0	1.428239E+0	1.427433E+0	1.434816E+0	1.433685E+0	1.414555E+0	1.444550E+0	1.399496E+0	1.387557E+0	1.448821E+0	1.432582E+0	1.442539E+0	1.455774E+0	1.361632E+0	1.398533E+0	1.467314E+0	1.438462E+0	1.428880E+0	1.348810E+0	1.427724E+0	1.385993E+0	1.434482E+0	1.421487E+0	1.403432E+0	1.391109E+0	1.458103E+0	1.442623E+0	1.404633E+0	1.411240E+0	1.380140E+0	1.437078E+0	1.426268E+0	1.397672E+0	1.454667E+0	1.413107E+0	1.425835E+0	1.337101E+0	1.404218E+0	1.350070E+0	1.410639E+0	1.377872E+0	1.466542E+0	1.425744E+0	1.357919E+0	1.458774E+0	1.401939E+0	1.360886E+0	1.396321E+0	1.414289E+0	1.394055E+0	1.398413E+0	1.409648E+0	1.445638E+0	1.357932E+0	1.385350E+0	1.383344E+0	1.380694E+0	1.361940E+0	1.405415E+0	1.401959E+0	1.407897E+0	1.360260E+0	1.398500E+0	1.422590E+0	1.387659E+0	1.402737E+0	1.412394E+0	1.418519E+0	1.428239E+0	1.377446E+0	1.401736E+0	1.402469E+0	1.354054E+0	1.361189E+0	1.399568E+0	1.395000E+0	1.427438E+0	1.375515E+0	1.382019E+0	1.369161E+0	1.427406E+0	1.397380E+0	1.352365E+0	1.389548E+0	1.389078E+0	1.411749E+0	1.451790E+0	1.409704E+0	1.380621E+0	1.392406E+0	1.401114E+0	1.408195E+0	1.441994E+0	1.407704E+0	1.332861E+0	1.396598E+0
5.387600E+2	1.694118E+0	1.637469E+0	1.684043E+0	1.703427E+0	1.684036E+0	1.721258E+0	1.684687E+0	1.680726E+0	1.648082E+0	1.774530E+0	1.721481E+0	1.761798E+0	1.773073E+0	1.752359E+0	1.697282E+0	1.626758E+0	1.682506E+0	1.651505E+0	1.720261E+0	1.688727E+0	1.661372E+0	1.643253E+0	1.697336E+0	1.669717E+0	1.608122E+0	1.747724E+0	1.666418E+0	1.686720E+0	1.710472E+0	1.694216E+0	1.656236E+0	1.729749E+0	1.698274E+0	1.698391E+0	1.695433E+0	1.631595E+0	1.683437E+0	1.696925E+0	1.656386E+0	1.690668E+0	1.606065E+0	1.674142E+0	1.626510E+0	1.699656E+0	1.649092E+0	1.668394E+0	1.663751E+0	1.671197E+0	1.675136E+0	1.705515E+0	1.743552E+0	1.640563E+0	1.712944E+0	1.668226E+0	1.649172E+0	1.681542E+0	1.673827E+0	1.705243E+0	1.677115E+0	1.727677E+0	1.641469E+0	1.686377E+0	1.692013E+0	1.648146E+0	1.691625E+0	1.734159E+0	1.660906E+0	1.715100E+0	1.628097E+0	1.704591E+0	1.674563E+0	1.595311E+0	1.726617E+0	1.622802E+0	1.686014E+0	1.671333E+0	1.689973E+0	1.667775E+0	1.660150E+0	1.687735E+0	1.636423E+0	1.710434E+0	1.652776E+0	1.612377E+0	1.676464E+0	1.619588E+0	1.704619E+0	1.674336E+0	1.641742E+0	1.690118E+0	1.635722E+0	1.716196E+0	1.729170E+0	1.626234E+0	1.689590E+0	1.647293E+0	1.708340E+0	1.699093E+0	1.630817E+0	1.668930E+0	1.607221E+0	1.697483E+0	1.694091E+0	1.678495E+0	1.626138E+0	1.643859E+0	1.660190E+0	1.700139E+0	1.680374E+0	1.704276E+0	1.673589E+0	1.621523E+0	1.632896E+0	1.661439E+0	1.678246E+0	1.647599E+0	1.614867E+0	1.630372E+0	1.679160E+0	1.597368E+0	1.642366E+0	1.623904E+0	1.669351E+0	1.699819E+0	1.689740E+0	1.664218E+0	1.655226E+0	1.633991E+0	1.705424E+0	1.683043E+0	1.666343E+0	1.607519E+0	1.697357E+0	1.678035E+0	1.657042E+0	1.667948E+0	1.615270E+0	1.763716E+0	1.671068E+0	1.548845E+0	1.663135E+0	1.588677E+0	1.627415E+0	1.639183E+0	1.630877E+0	1.617705E+0	1.593269E+0	1.671433E+0	1.643209E+0	1.648397E+0	1.612802E+0	1.630479E+0	1.643257E+0	1.651390E+0	1.674104E+0	1.697582E+0	1.607843E+0	1.704413E+0	1.664612E+0	1.627048E+0	1.686285E+0	1.685422E+0	1.689619E+0	1.670967E+0	1.687482E+0	1.663880E+0	1.639012E+0	1.652601E+0	1.630400E+0	1.658319E+0	1.605327E+0
5.390290E+2	1.954745E+0	1.864337E+0	1.877848E+0	1.873692E+0	1.889104E+0	1.915793E+0	1.932659E+0	1.926654E+0	1.883895E+0	1.905885E+0	1.930470E+0	1.912382E+0	1.974238E+0	1.990762E+0	1.862580E+0	1.916226E+0	1.896221E+0	1.888649E+0	1.910261E+0	1.875634E+0	1.925399E+0	1.921507E+0	1.899831E+0	1.910138E+0	1.899428E+0	1.944139E+0	1.854455E+0	1.886824E+0	1.856871E+0	2.033238E+0	1.925566E+0	1.929382E+0	1.912101E+0	1.853403E+0	1.868535E+0	1.873861E+0	1.923224E+0	1.933265E+0	1.930928E+0	1.858947E+0	1.850140E+0	1.929151E+0	1.919996E+0	1.881351E+0	1.889684E+0	1.892301E+0	1.883055E+0	1.861967E+0	1.875367E+0	1.918633E+0	1.852847E+0	1.871902E+0	1.864555E+0	1.993331E+0	1.896269E+0	1.912775E+0	1.916139E+0	1.938990E+0	1.880710E+0	1.847662E+0	1.877419E+0	1.887923E+0	1.920144E+0	1.833036E+0	1.852337E+0	1.899880E+0	1.845298E+0	1.956482E+0	1.836379E+0	1.893296E+0	1.905482E+0	1.887028E+0	1.877708E+0	1.843586E+0	1.937107E+0	1.886087E+0	1.821144E+0	1.927126E+0	1.912008E+0	1.860623E+0	1.855093E+0	1.829535E+0	1.866416E+0	1.826709E+0	1.878354E+0	1.833195E+0	1.807322E+0	1.937403E+0	1.791233E+0	1.947802E+0	1.871711E+0	1.869684E+0	1.901059E+0	1.865622E+0	1.873649E+0	1.842122E+0	1.911875E+0	1.868510E+0	1.890562E+0	1.877927E+0	1.877390E+0	1.891174E+0	1.850814E+0	1.957545E+0	1.805345E+0	1.911280E+0	1.900814E+0	1.887046E+0	1.796015E+0	1.867449E+0	1.890605E+0	1.829827E+0	1.831731E+0	1.781563E+0	1.870960E+0	1.841727E+0	1.863832E+0	1.888093E+0	1.838864E+0	1.902378E+0	1.865122E+0	1.843216E+0	1.883284E+0	1.878452E+0	1.831890E+0	1.868619E+0	1.842366E+0	1.830490E+0	1.813387E+0	1.813930E+0	1.831754E+0	1.851455E+0	1.915667E+0	1.924116E+0	1.921579E+0	1.836295E+0	1.859061E+0	1.923761E+0	1.910513E+0	1.834169E+0	1.895941E+0	1.847944E+0	1.806686E+0	1.816802E+0	1.824066E+0	1.856034E+0	1.834443E+0	1.790376E+0	1.820129E+0	1.876904E+0	1.894887E+0	1.819743E+0	1.841870E+0	1.819160E+0	1.855773E+0	1.803839E+0	1.860961E+0	1.905630E+0	1.905471E+0	1.867833E+0	1.917411E+0	1.844066E+0	1.805096E+0	1.808440E+0	1.834465E+0	1.831299E+0	1.856785E+0	1.863225E+0	1.922151E+0	1.825358E+0	1.773843E+0
5.392720E+2	2.046803E+0	2.025986E+0	2.010514E+0	2.088307E+0	2.112372E+0	2.133736E+0	2.038102E+0	2.074696E+0	2.044078E+0	2.116070E+0	2.026381E+0	2.119461E+0	2.100302E+0	2.081493E+0	2.058456E+0	2.018896E+0	2.066175E+0	2.089905E+0	2.073617E+0	2.089772E+0	2.038004E+0	2.068309E+0	2.071688E+0	2.103119E+0	1.998637E+0	2.174975E+0	2.077989E+0	2.100277E+0	2.091957E+0	2.080381E+0	2.047199E+0	2.040780E+0	2.112771E+0	2.120545E+0	2.041099E+0	2.086207E+0	2.082185E+0	2.085814E+0	2.070572E+0	2.028249E+0	2.012371E+0	2.059556E+0	2.020467E+0	2.104329E+0	2.038053E+0	2.007278E+0	2.056184E+0	2.017361E+0	1.959133E+0	2.122231E+0	2.070766E+0	2.061054E+0	2.053475E+0	2.136866E+0	2.025391E+0	2.044175E+0	2.043411E+0	2.103829E+0	2.034225E+0	2.046894E+0	2.029906E+0	2.092278E+0	2.047164E+0	2.019610E+0	2.049175E+0	2.084638E+0	2.048115E+0	2.047272E+0	1.998326E+0	2.009340E+0	2.079552E+0	2.033734E+0	1.941723E+0	2.060667E+0	2.082518E+0	2.123173E+0	2.019766E+0	2.037845E+0	1.985848E+0	2.005942E+0	2.036567E+0	2.029545E+0	1.988287E+0	2.006855E+0	2.030547E+0	1.989405E+0	1.943761E+0	2.020762E+0	1.944212E+0	2.036856E+0	1.998780E+0	2.022009E+0	2.087835E+0	1.932629E+0	2.080555E+0	1.990279E+0	2.038908E+0	1.969850E+0	2.044177E+0	2.009645E+0	2.029391E+0	2.003863E+0	2.080131E+0	2.082708E+0	2.030172E+0	2.059534E+0	2.065629E+0	1.960192E+0	2.039270E+0	1.999979E+0	1.974148E+0	1.935592E+0	1.971833E+0	2.003593E+0	2.065938E+0	2.040880E+0	2.062497E+0	2.113779E+0	2.032851E+0	1.927966E+0	1.981459E+0	1.972103E+0	1.981402E+0	2.016361E+0	1.988686E+0	2.024542E+0	1.982498E+0	1.980546E+0	2.070009E+0	1.980875E+0	2.019823E+0	2.020789E+0	2.020509E+0	2.053134E+0	1.973384E+0	2.004778E+0	1.967536E+0	2.011787E+0	2.076814E+0	1.923874E+0	2.016016E+0	2.059923E+0	1.960630E+0	1.900358E+0	1.985567E+0	2.057992E+0	1.940815E+0	1.971597E+0	1.989317E+0	2.087219E+0	2.005227E+0	2.053026E+0	1.951139E+0	2.012699E+0	1.999632E+0	1.971950E+0	1.977095E+0	2.026733E+0	2.003712E+0	1.992109E+0	2.024156E+0	2.037989E+0	1.969285E+0	1.979205E+0	2.019822E+0	2.002658E+0	1.943100E+0	2.019237E+0	1.978561E+0	1.950428E+0	1.913900E+0
5.395320E+2	2.326004E+0	2.157258E+0	2.138124E+0	2.110453E+0	2.149967E+0	2.164072E+0	2.246196E+0	2.138054E+0	2.124991E+0	2.082735E+0	2.202981E+0	2.168636E+0	2.220471E+0	2.234433E+0	2.149117E+0	2.151923E+0	2.163534E+0	2.142100E+0	2.184099E+0	2.183001E+0	2.132195E+0	2.143497E+0	2.094595E+0	2.127156E+0	2.108927E+0	2.194861E+0	2.155749E+0	2.109044E+0	2.151887E+0	2.240484E+0	2.071376E+0	2.139666E+0	2.153195E+0	2.174443E+0	2.093977E+0	2.144681E+0	2.109285E+0	2.128435E+0	2.227143E+0	2.191630E+0	2.123989E+0	2.163460E+0	2.126840E+0	2.174579E+0	2.155001E+0	2.165980E+0	2.155175E+0	2.108223E+0	2.096730E+0	2.171389E+0	2.152211E+0	2.139797E+0	2.164196E+0	2.145084E+0	2.113425E+0	2.133080E+0	2.179158E+0	2.185700E+0	2.149025E+0	2.120803E+0	2.103083E+0	2.082220E+0	2.120869E+0	2.041890E+0	2.141009E+0	2.121408E+0	2.125321E+0	2.063484E+0	2.053039E+0	2.161399E+0	2.116048E+0	2.095465E+0	2.053859E+0	2.105835E+0	2.096318E+0	2.123674E+0	2.082524E+0	2.142872E+0	2.153442E+0	2.130958E+0	2.067223E+0	2.148493E+0	2.082197E+0	2.080145E+0	2.036968E+0	2.172329E+0	2.119635E+0	2.128436E+0	2.042194E+0	2.213853E+0	2.135941E+0	2.069598E+0	2.187224E+0	2.005800E+0	2.144432E+0	2.083209E+0	2.103780E+0	2.088037E+0	2.059736E+0	2.084713E+0	2.102554E+0	2.148533E+0	2.134399E+0	2.138509E+0	1.989062E+0	2.135264E+0	2.105262E+0	2.163029E+0	2.131222E+0	2.067265E+0	2.133872E+0	2.075896E+0	2.082510E+0	2.066014E+0	2.115487E+0	2.131831E+0	2.081893E+0	2.153025E+0	2.114117E+0	2.095684E+0	2.119615E+0	2.051761E+0	2.009706E+0	2.089905E+0	2.126281E+0	2.042527E+0	2.039889E+0	2.069187E+0	2.046192E+0	2.052529E+0	2.087709E+0	2.040270E+0	2.063383E+0	2.123184E+0	2.088369E+0	1.999904E+0	2.052390E+0	2.098069E+0	2.099410E+0	2.084109E+0	2.098596E+0	2.083164E+0	2.038718E+0	2.044257E+0	2.105976E+0	2.106983E+0	2.050561E+0	1.998052E+0	2.007109E+0	2.135655E+0	2.065801E+0	2.116011E+0	2.063016E+0	2.109799E+0	2.064700E+0	2.111505E+0	2.100020E+0	2.078682E+0	2.094536E+0	2.036311E+0	2.071499E+0	2.090441E+0	2.018512E+0	2.106998E+0	2.080569E+0	2.094243E+0	2.033651E+0	2.041617E+0	1.966333E+0	2.067684E+0	2.046263E+0
5.397860E+2	2.206106E+0	2.172460E+0	2.191886E+0	2.136808E+0	2.188819E+0	2.238857E+0	2.198788E+0	2.185339E+0	2.178605E+0	2.155505E+0	2.124180E+0	2.248435E+0	2.205046E+0	2.179590E+0	2.146628E+0	2.225257E+0	2.177189E+0	2.083056E+0	2.113319E+0	2.169150E+0	2.169307E+0	2.126110E+0	2.219800E+0	2.168675E+0	2.113868E+0	2.089471E+0	2.156188E+0	2.224599E+0	2.181341E+0	2.202165E+0	2.159444E+0	2.162216E+0	2.154333E+0	2.131862E+0	2.108972E+0	2.138023E+0	2.209113E+0	2.108679E+0	2.169062E+0	2.098091E+0	2.148157E+0	2.153970E+0	2.187197E+0	2.200429E+0	2.107236E+0	2.125080E+0	2.094089E+0	2.102832E+0	2.113637E+0	2.118092E+0	2.179351E+0	2.095282E+0	2.180748E+0	2.208823E+0	2.118774E+0	2.164310E+0	2.052239E+0	2.158908E+0	2.102058E+0	2.164227E+0	2.106758E+0	2.159502E+0	2.069348E+0	2.080602E+0	2.092089E+0	2.106569E+0	2.154770E+0	2.067249E+0	2.081482E+0	2.116752E+0	2.152718E+0	2.137884E+0	2.137915E+0	2.112780E+0	2.104565E+0	2.114907E+0	2.063955E+0	2.111459E+0	2.168346E+0	2.098789E+0	2.135801E+0	2.227356E+0	2.054082E+0	2.018754E+0	2.087812E+0	2.164224E+0	2.120979E+0	2.158339E+0	2.093211E+0	2.088013E+0	2.114272E+0	2.130026E+0	2.202222E+0	2.125980E+0	2.178224E+0	1.977918E+0	2.155840E+0	2.143353E+0	2.081748E+0	2.084997E+0	2.116145E+0	2.152388E+0	2.135241E+0	2.107565E+0	2.053481E+0	2.144153E+0	2.135415E+0	2.150257E+0	2.170137E+0	2.102479E+0	2.057537E+0	2.056258E+0	2.101350E+0	2.069001E+0	2.091675E+0	2.127224E+0	2.132838E+0	2.066949E+0	2.077827E+0	2.096753E+0	2.141587E+0	2.074317E+0	2.104461E+0	2.102395E+0	2.076683E+0	2.077939E+0	2.122933E+0	2.065787E+0	2.130181E+0	2.045801E+0	2.119922E+0	2.040244E+0	2.105159E+0	2.078398E+0	2.074771E+0	2.128228E+0	2.026799E+0	2.188887E+0	2.102579E+0	2.093527E+0	2.104266E+0	2.197417E+0	2.060451E+0	2.028364E+0	2.122110E+0	2.078403E+0	2.102441E+0	2.131422E+0	2.028529E+0	2.146743E+0	2.113577E+0	2.102760E+0	2.063814E+0	2.141050E+0	2.072005E+0	2.092591E+0	2.051570E+0	2.071454E+0	2.062073E+0	1.985623E+0	2.138592E+0	2.053675E+0	2.043878E+0	2.108670E+0	2.134618E+0	2.031045E+0	2.000676E+0	2.087649E+0	2.045695E+0	2.091541E+0	2.185249E+0
5.400140E+2	2.184912E+0	2.129356E+0	2.133224E+0	2.151124E+0	2.076991E+0	2.144233E+0	2.157919E+0	2.142042E+0	2.189058E+0	2.121713E+0	2.114902E+0	2.250054E+0	2.149415E+0	2.094078E+0	2.104629E+0	2.110349E+0	2.173915E+0	2.115603E+0	2.220082E+0	2.140130E+0	2.128955E+0	2.118229E+0	2.117242E+0	2.133935E+0	2.067174E+0	2.051641E+0	2.084766E+0	2.077638E+0	2.162200E+0	2.091060E+0	2.046092E+0	2.135820E+0	2.185821E+0	2.117644E+0	2.067154E+0	2.047982E+0	2.102026E+0	2.054109E+0	2.158121E+0	2.026998E+0	2.082930E+0	2.086114E+0	2.148160E+0	2.144425E+0	2.124677E+0	2.021324E+0	2.091273E+0	2.096371E+0	2.048840E+0	2.073354E+0	2.128771E+0	2.093907E+0	2.125674E+0	2.090033E+0	2.124883E+0	2.053092E+0	2.071188E+0	2.081132E+0	2.176489E+0	2.066373E+0	2.057526E+0	2.093943E+0	2.129683E+0	2.077664E+0	2.127519E+0	2.074115E+0	2.149927E+0	2.093723E+0	2.111872E+0	2.104825E+0	2.113994E+0	2.155789E+0	2.075657E+0	2.089095E+0	2.156968E+0	2.105893E+0	2.125084E+0	2.075614E+0	2.094077E+0	2.072769E+0	2.099591E+0	2.138116E+0	2.022067E+0	2.029602E+0	2.126533E+0	2.001114E+0	2.036775E+0	2.120339E+0	2.031278E+0	2.075576E+0	2.108719E+0	2.009200E+0	2.153321E+0	2.057393E+0	2.094858E+0	2.026919E+0	2.102095E+0	2.019674E+0	2.129634E+0	2.093670E+0	2.067227E+0	2.161150E+0	2.173753E+0	2.094714E+0	2.083878E+0	2.048944E+0	2.080751E+0	2.052897E+0	2.056707E+0	2.081612E+0	2.074408E+0	2.094228E+0	2.080111E+0	2.090278E+0	2.081634E+0	2.106781E+0	2.084919E+0	2.128989E+0	2.086092E+0	2.039847E+0	2.112360E+0	2.092214E+0	2.058108E+0	2.074003E+0	2.038832E+0	2.059168E+0	2.028366E+0	2.032160E+0	2.042847E+0	2.005085E+0	1.996042E+0	2.041074E+0	2.103368E+0	2.073118E+0	2.083777E+0	2.098324E+0	1.995626E+0	2.062284E+0	2.123025E+0	1.992458E+0	2.072352E+0	2.074584E+0	2.051046E+0	2.063150E+0	2.059794E+0	2.024566E+0	2.003724E+0	2.037872E+0	2.005389E+0	2.152888E+0	2.046233E+0	2.069449E+0	2.062846E+0	2.026324E+0	2.041560E+0	2.032749E+0	2.051794E+0	2.126832E+0	2.098628E+0	2.014886E+0	2.062882E+0	2.001360E+0	2.055227E+0	1.973766E+0	2.035002E+0	2.067632E+0	2.019644E+0	2.104285E+0	1.943787E+0	2.075876E+0	1.918028E+0
5.402630E+2	2.131611E+0	2.017554E+0	2.104818E+0	2.083282E+0	2.044156E+0	2.082312E+0	2.096774E+0	2.055590E+0	2.031914E+0	2.031986E+0	2.048220E+0	2.111561E+0	2.072031E+0	2.068714E+0	2.098083E+0	2.134248E+0	2.110936E+0	1.983064E+0	2.012649E+0	2.080307E+0	2.020888E+0	1.989449E+0	2.069886E+0	2.106396E+0	1.990563E+0	2.044954E+0	2.007840E+0	2.111258E+0	2.146144E+0	2.052581E+0	2.011952E+0	2.032598E+0	2.077137E+0	1.962582E+0	1.994772E+0	2.054830E+0	2.113836E+0	2.006047E+0	2.099291E+0	2.036419E+0	2.045768E+0	2.025602E+0	2.040720E+0	2.054254E+0	2.014380E+0	1.983966E+0	2.028609E+0	2.076299E+0	2.029054E+0	2.036579E+0	1.974836E+0	1.973685E+0	2.031766E+0	2.022695E+0	2.022963E+0	2.029001E+0	1.966573E+0	2.061321E+0	2.032338E+0	2.027334E+0	2.069821E+0	2.037394E+0	2.020194E+0	2.027328E+0	2.066878E+0	2.041911E+0	2.082175E+0	2.045547E+0	1.974852E+0	1.979513E+0	2.049824E+0	2.050617E+0	2.075114E+0	2.083004E+0	2.024642E+0	2.023001E+0	1.958295E+0	2.057438E+0	2.000383E+0	2.057843E+0	2.004165E+0	2.011158E+0	2.119655E+0	1.955013E+0	2.023389E+0	2.059278E+0	2.000631E+0	2.099946E+0	1.929454E+0	2.119336E+0	2.003143E+0	1.992013E+0	2.085319E+0	1.923282E+0	2.074347E+0	1.961528E+0	2.035388E+0	1.979962E+0	2.020139E+0	1.904081E+0	2.028151E+0	2.017964E+0	2.083043E+0	1.962662E+0	1.968916E+0	2.003063E+0	2.084912E+0	2.023260E+0	2.100291E+0	2.011703E+0	1.968093E+0	1.981563E+0	1.968476E+0	2.022357E+0	1.993452E+0	1.976445E+0	2.034851E+0	2.050140E+0	1.985646E+0	1.969560E+0	2.014131E+0	1.936465E+0	2.000025E+0	2.078170E+0	2.029410E+0	1.999543E+0	1.961317E+0	2.020895E+0	1.934124E+0	1.981397E+0	1.998029E+0	1.949649E+0	1.992863E+0	2.023728E+0	2.034514E+0	2.017473E+0	1.962861E+0	1.996296E+0	2.055985E+0	2.014685E+0	2.004216E+0	1.959152E+0	1.934647E+0	1.972796E+0	2.010278E+0	1.972092E+0	1.963316E+0	1.923914E+0	1.985840E+0	2.066802E+0	1.979820E+0	2.004486E+0	1.959452E+0	2.033495E+0	1.959327E+0	2.022365E+0	2.029265E+0	1.965362E+0	1.960596E+0	1.946020E+0	1.955825E+0	1.974223E+0	1.946041E+0	1.981598E+0	1.945469E+0	2.043117E+0	1.984008E+0	1.940177E+0	2.047857E+0	1.898394E+0	2.022849E+0
5.405080E+2	2.003909E+0	1.947727E+0	1.926785E+0	1.926136E+0	1.978530E+0	1.973536E+0	1.992998E+0	1.988529E+0	1.984619E+0	1.934148E+0	1.995083E+0	2.005583E+0	1.964745E+0	1.927842E+0	1.902547E+0	1.962759E+0	1.987666E+0	1.954037E+0	1.994960E+0	1.976056E+0	1.910237E+0	1.866559E+0	2.000466E+0	1.997680E+0	1.858893E+0	1.921718E+0	1.899214E+0	1.946822E+0	1.935378E+0	1.954615E+0	1.911053E+0	1.935954E+0	1.949914E+0	1.933988E+0	1.878752E+0	1.890980E+0	1.931609E+0	1.949070E+0	1.917051E+0	1.917551E+0	1.852122E+0	1.946372E+0	2.011195E+0	1.948091E+0	1.964265E+0	1.961913E+0	1.916525E+0	1.930353E+0	1.937004E+0	1.888367E+0	1.951809E+0	1.856949E+0	1.973921E+0	1.915115E+0	1.937525E+0	1.961648E+0	1.897504E+0	1.984840E+0	1.942604E+0	1.928026E+0	1.900858E+0	1.954660E+0	2.005585E+0	1.908415E+0	1.868947E+0	2.001741E+0	1.933721E+0	1.884638E+0	1.933631E+0	1.879460E+0	2.034862E+0	1.901688E+0	1.920175E+0	1.918741E+0	1.930811E+0	1.923325E+0	1.934476E+0	1.991514E+0	1.961884E+0	1.910267E+0	1.929645E+0	1.917715E+0	1.901865E+0	1.861155E+0	1.941460E+0	1.941990E+0	1.914131E+0	1.942935E+0	1.872205E+0	1.944998E+0	1.923087E+0	1.908444E+0	2.001226E+0	1.913396E+0	1.981413E+0	1.855141E+0	1.931787E+0	1.858869E+0	1.941560E+0	1.920829E+0	1.884310E+0	1.905071E+0	1.975352E+0	1.906084E+0	1.834996E+0	1.925889E+0	1.956883E+0	1.920741E+0	1.975356E+0	1.853564E+0	1.873318E+0	1.861788E+0	1.808192E+0	1.856266E+0	1.939661E+0	1.866881E+0	1.869414E+0	1.924119E+0	1.939353E+0	1.851883E+0	1.886638E+0	1.836788E+0	1.893907E+0	1.926777E+0	1.868182E+0	1.941968E+0	1.939798E+0	1.928871E+0	1.813675E+0	1.866310E+0	1.870148E+0	1.910284E+0	1.877769E+0	1.864687E+0	1.915819E+0	1.880718E+0	1.868207E+0	1.936515E+0	1.949571E+0	1.848943E+0	1.882322E+0	1.902582E+0	1.840113E+0	1.870485E+0	1.847701E+0	1.856694E+0	1.886094E+0	1.872649E+0	1.820855E+0	1.922207E+0	1.952071E+0	1.934491E+0	1.884193E+0	1.889587E+0	1.872802E+0	1.929467E+0	1.878944E+0	1.877773E+0	1.894279E+0	1.888937E+0	1.951316E+0	1.903856E+0	1.888749E+0	1.850654E+0	1.896727E+0	1.885393E+0	1.910261E+0	1.876478E+0	1.864081E+0	1.784109E+0	1.878446E+0
5.407790E+2	1.911684E+0	1.826827E+0	1.815147E+0	1.838819E+0	1.864885E+0	1.875797E+0	1.765512E+0	1.772770E+0	1.827752E+0	1.768506E+0	1.875741E+0	1.879590E+0	1.831789E+0	1.887278E+0	1.857430E+0	1.798751E+0	1.807072E+0	1.767995E+0	1.842680E+0	1.856766E+0	1.804336E+0	1.761594E+0	1.804797E+0	1.857972E+0	1.707372E+0	1.872846E+0	1.785362E+0	1.823061E+0	1.834104E+0	1.841454E+0	1.814657E+0	1.819157E+0	1.865602E+0	1.818374E+0	1.786916E+0	1.788220E+0	1.819566E+0	1.809932E+0	1.804451E+0	1.829260E+0	1.809218E+0	1.871267E+0	1.847602E+0	1.829453E+0	1.861399E+0	1.740671E+0	1.819864E+0	1.839284E+0	1.759301E+0	1.802465E+0	1.759323E+0	1.791132E+0	1.778771E+0	1.782998E+0	1.779347E+0	1.794304E+0	1.807921E+0	1.795951E+0	1.880429E+0	1.840737E+0	1.798514E+0	1.820507E+0	1.868357E+0	1.836841E+0	1.800364E+0	1.814118E+0	1.831223E+0	1.818237E+0	1.840328E+0	1.728067E+0	1.841217E+0	1.816546E+0	1.804767E+0	1.824517E+0	1.829100E+0	1.800670E+0	1.775129E+0	1.787449E+0	1.850777E+0	1.761466E+0	1.742776E+0	1.896954E+0	1.781807E+0	1.783989E+0	1.788293E+0	1.781463E+0	1.795968E+0	1.792742E+0	1.799324E+0	1.851678E+0	1.816990E+0	1.768777E+0	1.839979E+0	1.775792E+0	1.838815E+0	1.750338E+0	1.879710E+0	1.840130E+0	1.839819E+0	1.762072E+0	1.802015E+0	1.810663E+0	1.847840E+0	1.747578E+0	1.793278E+0	1.808421E+0	1.818623E+0	1.721464E+0	1.863466E+0	1.839846E+0	1.811127E+0	1.707801E+0	1.788258E+0	1.796617E+0	1.763134E+0	1.755671E+0	1.844108E+0	1.832605E+0	1.794790E+0	1.832761E+0	1.810603E+0	1.720314E+0	1.721033E+0	1.773863E+0	1.862143E+0	1.768285E+0	1.763767E+0	1.740838E+0	1.801820E+0	1.809441E+0	1.795213E+0	1.736759E+0	1.845785E+0	1.819624E+0	1.894390E+0	1.781126E+0	1.731721E+0	1.865919E+0	1.814029E+0	1.771550E+0	1.759084E+0	1.768876E+0	1.740144E+0	1.771426E+0	1.771268E+0	1.757241E+0	1.749538E+0	1.778407E+0	1.785806E+0	1.798065E+0	1.800165E+0	1.808119E+0	1.746765E+0	1.712915E+0	1.785992E+0	1.833260E+0	1.733247E+0	1.750587E+0	1.800297E+0	1.802280E+0	1.715465E+0	1.784110E+0	1.760444E+0	1.696548E+0	1.775274E+0	1.766096E+0	1.768782E+0	1.834487E+0	1.734030E+0	1.737512E+0	1.800016E+0
5.410240E+2	1.754438E+0	1.680092E+0	1.703190E+0	1.736750E+0	1.721148E+0	1.746397E+0	1.760159E+0	1.722545E+0	1.748161E+0	1.724107E+0	1.753440E+0	1.798695E+0	1.758455E+0	1.713099E+0	1.722177E+0	1.725569E+0	1.744067E+0	1.679638E+0	1.765115E+0	1.743043E+0	1.720598E+0	1.696788E+0	1.671357E+0	1.695151E+0	1.734523E+0	1.686111E+0	1.672627E+0	1.673293E+0	1.790207E+0	1.734595E+0	1.714486E+0	1.751350E+0	1.761771E+0	1.674626E+0	1.734237E+0	1.745711E+0	1.745259E+0	1.726074E+0	1.747561E+0	1.704977E+0	1.698581E+0	1.691654E+0	1.752125E+0	1.756981E+0	1.719252E+0	1.689555E+0	1.670254E+0	1.739431E+0	1.670551E+0	1.692308E+0	1.712120E+0	1.672210E+0	1.691573E+0	1.729286E+0	1.696870E+0	1.736820E+0	1.662678E+0	1.676990E+0	1.776878E+0	1.724803E+0	1.719193E+0	1.737064E+0	1.736021E+0	1.703750E+0	1.731255E+0	1.696142E+0	1.737857E+0	1.685417E+0	1.703025E+0	1.693588E+0	1.773855E+0	1.798944E+0	1.709731E+0	1.749327E+0	1.729964E+0	1.689513E+0	1.671016E+0	1.710909E+0	1.717273E+0	1.732037E+0	1.715206E+0	1.709773E+0	1.725539E+0	1.616644E+0	1.722932E+0	1.703026E+0	1.658998E+0	1.681444E+0	1.699626E+0	1.738029E+0	1.739861E+0	1.657479E+0	1.791068E+0	1.567182E+0	1.746016E+0	1.682645E+0	1.760348E+0	1.688211E+0	1.707696E+0	1.696845E+0	1.679965E+0	1.723131E+0	1.752414E+0	1.715333E+0	1.705764E+0	1.670894E+0	1.652441E+0	1.693878E+0	1.747128E+0	1.707394E+0	1.709751E+0	1.619171E+0	1.640549E+0	1.746813E+0	1.752734E+0	1.715713E+0	1.745673E+0	1.783755E+0	1.769948E+0	1.652830E+0	1.696737E+0	1.656227E+0	1.672383E+0	1.756961E+0	1.708627E+0	1.679866E+0	1.691952E+0	1.721292E+0	1.679537E+0	1.782366E+0	1.671874E+0	1.713357E+0	1.645531E+0	1.707720E+0	1.764541E+0	1.686364E+0	1.692418E+0	1.704072E+0	1.673650E+0	1.730198E+0	1.670542E+0	1.670642E+0	1.648667E+0	1.675111E+0	1.733830E+0	1.657237E+0	1.668739E+0	1.670155E+0	1.616108E+0	1.710657E+0	1.672224E+0	1.675425E+0	1.634153E+0	1.682779E+0	1.663350E+0	1.679940E+0	1.688060E+0	1.738122E+0	1.726071E+0	1.711906E+0	1.717281E+0	1.669945E+0	1.688082E+0	1.650019E+0	1.628629E+0	1.651885E+0	1.680800E+0	1.672817E+0	1.780410E+0	1.674141E+0	1.702580E+0
5.412850E+2	1.650239E+0	1.579206E+0	1.549290E+0	1.642706E+0	1.593959E+0	1.602477E+0	1.617091E+0	1.574531E+0	1.623313E+0	1.546257E+0	1.587571E+0	1.617575E+0	1.614442E+0	1.562042E+0	1.657304E+0	1.560496E+0	1.595770E+0	1.599790E+0	1.607820E+0	1.606393E+0	1.565174E+0	1.543095E+0	1.617403E+0	1.542594E+0	1.500509E+0	1.601961E+0	1.540952E+0	1.609578E+0	1.590029E+0	1.604738E+0	1.543925E+0	1.582667E+0	1.698230E+0	1.532372E+0	1.609489E+0	1.601653E+0	1.618620E+0	1.546962E+0	1.607818E+0	1.541037E+0	1.508356E+0	1.618540E+0	1.590817E+0	1.580124E+0	1.632227E+0	1.558068E+0	1.565410E+0	1.599553E+0	1.595719E+0	1.570800E+0	1.556910E+0	1.582302E+0	1.598763E+0	1.529898E+0	1.516795E+0	1.592047E+0	1.560855E+0	1.598283E+0	1.594957E+0	1.606111E+0	1.528618E+0	1.557472E+0	1.565803E+0	1.529810E+0	1.589532E+0	1.554034E+0	1.618280E+0	1.592631E+0	1.533879E+0	1.573248E+0	1.605525E+0	1.613531E+0	1.606848E+0	1.646769E+0	1.610830E+0	1.611647E+0	1.579148E+0	1.555103E+0	1.621541E+0	1.575096E+0	1.598194E+0	1.654081E+0	1.590021E+0	1.586045E+0	1.557357E+0	1.604448E+0	1.544197E+0	1.624218E+0	1.573456E+0	1.630515E+0	1.589417E+0	1.520705E+0	1.611274E+0	1.551704E+0	1.588376E+0	1.499236E+0	1.620364E+0	1.591926E+0	1.601961E+0	1.592402E+0	1.556122E+0	1.585658E+0	1.591525E+0	1.564869E+0	1.544638E+0	1.516382E+0	1.600400E+0	1.535015E+0	1.551530E+0	1.552386E+0	1.575415E+0	1.494712E+0	1.558937E+0	1.597563E+0	1.555910E+0	1.585099E+0	1.554383E+0	1.529774E+0	1.581764E+0	1.603235E+0	1.577837E+0	1.542473E+0	1.548708E+0	1.590775E+0	1.545356E+0	1.564705E+0	1.552739E+0	1.607625E+0	1.588485E+0	1.584012E+0	1.553815E+0	1.552142E+0	1.639858E+0	1.544525E+0	1.585475E+0	1.558558E+0	1.550251E+0	1.576147E+0	1.605872E+0	1.496618E+0	1.543541E+0	1.606667E+0	1.530068E+0	1.526346E+0	1.526034E+0	1.561549E+0	1.604037E+0	1.574268E+0	1.515956E+0	1.618255E+0	1.581229E+0	1.577824E+0	1.514180E+0	1.529903E+0	1.560154E+0	1.516643E+0	1.663877E+0	1.597023E+0	1.599654E+0	1.560750E+0	1.549332E+0	1.585904E+0	1.569818E+0	1.520999E+0	1.550688E+0	1.508104E+0	1.568199E+0	1.587150E+0	1.512740E+0	1.562407E+0	1.591287E+0
5.415190E+2	1.534919E+0	1.470891E+0	1.482603E+0	1.482275E+0	1.454385E+0	1.447940E+0	1.480856E+0	1.458956E+0	1.444404E+0	1.442820E+0	1.497613E+0	1.456544E+0	1.502665E+0	1.471572E+0	1.407130E+0	1.467505E+0	1.493330E+0	1.486955E+0	1.481681E+0	1.448317E+0	1.419363E+0	1.420199E+0	1.429145E+0	1.476137E+0	1.429139E+0	1.438052E+0	1.435678E+0	1.438639E+0	1.414933E+0	1.503667E+0	1.451923E+0	1.449595E+0	1.467117E+0	1.398449E+0	1.400432E+0	1.423430E+0	1.507711E+0	1.403544E+0	1.481137E+0	1.470883E+0	1.442884E+0	1.478841E+0	1.459363E+0	1.514121E+0	1.482287E+0	1.497031E+0	1.446041E+0	1.463382E+0	1.410660E+0	1.434710E+0	1.472097E+0	1.450091E+0	1.428475E+0	1.373784E+0	1.401267E+0	1.423365E+0	1.417356E+0	1.496980E+0	1.467603E+0	1.508550E+0	1.436119E+0	1.474114E+0	1.423118E+0	1.432528E+0	1.436922E+0	1.434805E+0	1.477943E+0	1.499260E+0	1.457830E+0	1.416313E+0	1.390040E+0	1.492490E+0	1.442076E+0	1.461395E+0	1.503459E+0	1.419521E+0	1.431042E+0	1.459610E+0	1.480236E+0	1.460879E+0	1.426722E+0	1.494684E+0	1.457242E+0	1.433670E+0	1.445142E+0	1.428317E+0	1.439231E+0	1.497392E+0	1.424191E+0	1.464387E+0	1.453055E+0	1.474613E+0	1.423153E+0	1.427524E+0	1.495823E+0	1.392703E+0	1.381108E+0	1.408144E+0	1.481058E+0	1.444147E+0	1.422582E+0	1.439799E+0	1.466703E+0	1.433043E+0	1.358440E+0	1.484804E+0	1.483749E+0	1.425956E+0	1.460192E+0	1.425562E+0	1.399717E+0	1.442305E+0	1.414065E+0	1.423313E+0	1.433736E+0	1.467163E+0	1.436686E+0	1.413491E+0	1.448376E+0	1.454319E+0	1.394114E+0	1.470608E+0	1.416390E+0	1.459805E+0	1.407421E+0	1.452719E+0	1.421773E+0	1.454606E+0	1.431499E+0	1.444018E+0	1.471779E+0	1.441387E+0	1.470862E+0	1.413169E+0	1.455217E+0	1.437959E+0	1.410608E+0	1.451442E+0	1.498810E+0	1.401077E+0	1.459493E+0	1.443391E+0	1.392324E+0	1.471341E+0	1.426449E+0	1.410209E+0	1.383652E+0	1.372979E+0	1.411171E+0	1.512575E+0	1.484600E+0	1.454612E+0	1.389107E+0	1.508143E+0	1.498022E+0	1.433688E+0	1.455136E+0	1.415974E+0	1.393765E+0	1.426711E+0	1.461149E+0	1.481949E+0	1.477650E+0	1.503974E+0	1.432870E+0	1.498861E+0	1.430081E+0	1.399635E+0	1.505019E+0	1.444701E+0	1.445845E+0
5.417810E+2	1.299610E+0	1.286011E+0	1.259991E+0	1.301215E+0	1.297741E+0	1.305940E+0	1.288510E+0	1.305210E+0	1.282713E+0	1.283519E+0	1.195951E+0	1.251470E+0	1.262604E+0	1.270769E+0	1.293694E+0	1.323152E+0	1.300937E+0	1.297589E+0	1.292616E+0	1.333453E+0	1.303824E+0	1.249005E+0	1.250735E+0	1.271473E+0	1.301418E+0	1.244208E+0	1.239134E+0	1.351939E+0	1.318847E+0	1.309424E+0	1.269392E+0	1.296779E+0	1.368551E+0	1.232982E+0	1.250156E+0	1.289017E+0	1.326745E+0	1.248817E+0	1.305505E+0	1.305829E+0	1.261111E+0	1.311682E+0	1.237375E+0	1.323737E+0	1.281545E+0	1.252886E+0	1.240840E+0	1.268013E+0	1.245451E+0	1.293278E+0	1.278401E+0	1.331791E+0	1.277703E+0	1.282473E+0	1.252925E+0	1.288432E+0	1.250751E+0	1.268538E+0	1.270647E+0	1.266450E+0	1.270655E+0	1.262548E+0	1.296526E+0	1.229259E+0	1.258777E+0	1.310890E+0	1.269433E+0	1.285767E+0	1.232775E+0	1.246669E+0	1.280183E+0	1.298491E+0	1.315468E+0	1.286047E+0	1.315540E+0	1.261295E+0	1.198440E+0	1.317058E+0	1.310047E+0	1.287793E+0	1.269767E+0	1.353743E+0	1.234169E+0	1.270080E+0	1.291753E+0	1.310120E+0	1.302091E+0	1.309924E+0	1.234280E+0	1.294452E+0	1.281591E+0	1.246936E+0	1.251624E+0	1.278011E+0	1.274561E+0	1.252647E+0	1.295951E+0	1.298478E+0	1.257140E+0	1.256724E+0	1.275696E+0	1.261389E+0	1.285991E+0	1.269166E+0	1.251231E+0	1.309448E+0	1.265330E+0	1.253304E+0	1.309646E+0	1.268248E+0	1.267007E+0	1.223589E+0	1.245287E+0	1.297240E+0	1.329787E+0	1.318473E+0	1.291456E+0	1.275556E+0	1.303917E+0	1.271045E+0	1.278631E+0	1.245685E+0	1.272141E+0	1.242906E+0	1.285466E+0	1.276579E+0	1.262268E+0	1.275364E+0	1.244722E+0	1.303239E+0	1.306568E+0	1.287341E+0	1.304860E+0	1.276532E+0	1.287048E+0	1.325005E+0	1.237172E+0	1.301571E+0	1.263447E+0	1.262386E+0	1.297361E+0	1.243737E+0	1.257922E+0	1.257555E+0	1.307800E+0	1.295912E+0	1.263070E+0	1.262274E+0	1.238790E+0	1.255606E+0	1.261952E+0	1.354721E+0	1.242575E+0	1.303970E+0	1.244215E+0	1.286361E+0	1.243939E+0	1.243235E+0	1.287727E+0	1.272068E+0	1.224201E+0	1.272355E+0	1.264461E+0	1.310835E+0	1.275952E+0	1.220428E+0	1.263121E+0	1.292202E+0	1.215912E+0	1.171059E+0	1.373492E+0
5.420160E+2	1.085487E+0	1.082301E+0	1.115987E+0	1.131684E+0	1.106585E+0	1.107841E+0	1.093835E+0	1.098967E+0	1.097815E+0	1.095598E+0	1.084944E+0	1.143498E+0	1.110542E+0	1.123304E+0	1.116481E+0	1.115189E+0	1.047947E+0	1.052297E+0	1.091945E+0	1.130257E+0	1.162440E+0	1.061484E+0	1.133293E+0	1.119496E+0	1.057963E+0	1.075730E+0	1.104586E+0	1.124015E+0	1.057676E+0	1.131158E+0	1.130584E+0	1.113695E+0	1.161456E+0	1.093611E+0	1.095219E+0	1.115775E+0	1.122370E+0	1.122602E+0	1.087596E+0	1.132440E+0	1.058228E+0	1.109798E+0	1.103092E+0	1.094730E+0	1.113728E+0	1.088863E+0	1.120909E+0	1.075603E+0	1.082141E+0	1.118934E+0	1.068098E+0	1.060310E+0	1.098784E+0	1.127626E+0	1.060227E+0	1.097030E+0	1.071168E+0	1.122519E+0	1.107330E+0	1.094380E+0	1.068520E+0	1.082351E+0	1.117207E+0	1.096392E+0	1.091890E+0	1.087072E+0	1.084033E+0	1.114282E+0	1.096827E+0	1.092738E+0	1.079059E+0	1.122437E+0	1.121950E+0	1.093074E+0	1.125756E+0	1.169474E+0	1.088735E+0	1.139726E+0	1.107617E+0	1.109087E+0	1.089409E+0	1.107296E+0	1.082160E+0	1.076195E+0	1.130550E+0	1.068842E+0	1.111878E+0	1.138064E+0	1.081798E+0	1.111610E+0	1.091022E+0	1.102556E+0	1.150231E+0	1.100793E+0	1.134982E+0	1.104331E+0	1.126965E+0	1.069801E+0	1.143280E+0	1.042836E+0	1.109708E+0	1.086547E+0	1.063730E+0	1.130217E+0	1.122469E+0	1.116582E+0	1.132285E+0	1.091382E+0	1.124760E+0	1.087737E+0	1.084735E+0	1.134818E+0	1.095949E+0	1.078081E+0	1.075559E+0	1.076107E+0	1.131409E+0	1.093393E+0	1.078794E+0	1.112594E+0	1.133362E+0	1.066460E+0	1.075529E+0	1.098253E+0	1.117905E+0	1.093254E+0	1.119001E+0	1.099418E+0	1.108199E+0	1.085881E+0	1.097396E+0	1.099736E+0	1.111275E+0	1.073814E+0	1.145195E+0	1.086244E+0	1.099343E+0	1.149019E+0	1.158425E+0	1.108530E+0	1.125020E+0	1.090199E+0	1.116421E+0	1.140710E+0	1.101343E+0	1.107973E+0	1.140484E+0	1.145667E+0	1.070360E+0	1.175058E+0	1.095379E+0	1.136043E+0	1.069132E+0	1.082331E+0	1.094112E+0	1.086447E+0	1.071604E+0	1.096899E+0	1.070301E+0	1.144188E+0	1.100298E+0	1.069392E+0	1.105845E+0	1.124089E+0	1.097981E+0	1.069687E+0	1.118045E+0	1.116049E+0	1.114500E+0	1.075092E+0	1.104686E+0
5.422670E+2	1.007370E+0	9.650177E-1	9.782340E-1	1.024929E+0	1.032346E+0	9.841747E-1	9.809661E-1	1.016657E+0	1.041963E+0	9.847288E-1	9.881018E-1	1.044167E+0	1.007847E+0	9.456232E-1	9.996874E-1	1.004909E+0	1.037294E+0	1.011987E+0	9.693365E-1	1.032819E+0	1.007209E+0	1.015156E+0	9.880293E-1	1.028808E+0	9.479091E-1	1.019735E+0	9.618468E-1	1.033749E+0	1.015406E+0	1.031554E+0	9.703787E-1	9.933103E-1	1.015970E+0	9.470201E-1	9.631785E-1	1.005564E+0	1.014272E+0	9.641811E-1	1.028470E+0	9.536712E-1	9.953577E-1	9.984776E-1	1.029618E+0	1.015605E+0	9.987286E-1	1.018153E+0	9.966778E-1	9.424504E-1	9.751176E-1	1.009230E+0	1.011761E+0	9.742720E-1	1.016081E+0	9.863467E-1	9.869887E-1	1.001024E+0	9.631208E-1	1.043322E+0	9.813495E-1	1.019356E+0	9.934754E-1	1.037020E+0	9.807896E-1	9.985297E-1	9.784288E-1	1.002766E+0	9.590095E-1	9.704810E-1	9.772704E-1	9.580962E-1	1.005111E+0	1.024062E+0	9.908728E-1	9.381687E-1	9.935059E-1	1.005103E+0	9.651598E-1	1.024916E+0	1.020662E+0	9.771365E-1	9.884844E-1	1.011241E+0	9.972907E-1	9.964930E-1	9.498467E-1	1.022152E+0	1.007179E+0	1.032469E+0	9.943376E-1	1.041400E+0	1.051948E+0	9.863020E-1	1.016001E+0	9.694658E-1	1.057523E+0	9.950621E-1	9.751068E-1	9.936369E-1	1.018523E+0	9.805861E-1	9.935516E-1	1.013533E+0	1.000904E+0	9.952179E-1	9.889228E-1	1.016194E+0	1.007441E+0	1.031872E+0	9.615644E-1	1.040222E+0	9.753920E-1	1.036075E+0	1.005342E+0	9.862460E-1	9.913525E-1	9.882929E-1	1.004401E+0	9.925758E-1	1.041853E+0	9.519976E-1	9.505133E-1	9.922010E-1	9.504704E-1	1.009755E+0	9.911248E-1	9.943157E-1	1.041306E+0	9.925642E-1	1.055332E+0	1.003442E+0	1.019742E+0	9.444223E-1	9.605616E-1	1.014424E+0	1.015042E+0	1.029552E+0	9.879799E-1	1.041640E+0	1.032938E+0	9.678733E-1	9.894971E-1	9.904890E-1	9.426190E-1	9.822922E-1	1.040637E+0	1.004721E+0	1.002045E+0	9.759345E-1	9.786202E-1	9.956351E-1	1.020981E+0	9.675566E-1	1.010520E+0	1.011002E+0	9.454703E-1	9.878941E-1	9.903751E-1	9.625258E-1	9.784197E-1	1.003920E+0	1.014098E+0	9.999826E-1	9.976478E-1	1.007010E+0	1.015893E+0	9.802653E-1	1.049198E+0	9.982013E-1	1.021734E+0	1.037769E+0	1.082485E+0
5.425460E+2	1.007552E+0	9.721589E-1	9.556347E-1	1.008304E+0	9.883185E-1	9.541928E-1	9.796003E-1	9.762975E-1	9.846966E-1	9.635760E-1	1.015294E+0	9.345901E-1	1.028207E+0	9.875346E-1	9.542412E-1	9.748182E-1	1.016955E+0	9.692064E-1	9.970827E-1	1.023480E+0	9.668745E-1	9.450982E-1	9.787565E-1	9.454680E-1	9.211487E-1	9.826878E-1	9.372717E-1	1.019665E+0	9.614454E-1	1.012723E+0	9.546929E-1	1.030710E+0	1.009481E+0	9.418539E-1	9.994492E-1	9.808677E-1	9.941055E-1	9.532430E-1	9.367966E-1	9.398362E-1	9.825817E-1	9.766971E-1	9.600858E-1	9.734087E-1	9.843435E-1	1.001969E+0	9.457073E-1	9.472377E-1	9.847933E-1	9.827411E-1	9.339500E-1	9.553650E-1	9.829495E-1	9.639169E-1	9.875393E-1	1.012081E+0	9.240228E-1	1.021079E+0	9.735372E-1	1.011596E+0	9.596404E-1	9.959277E-1	9.565343E-1	9.005414E-1	9.835499E-1	9.765187E-1	1.005440E+0	9.809076E-1	9.698290E-1	9.420233E-1	9.210864E-1	9.992231E-1	9.743825E-1	9.491227E-1	9.361668E-1	1.037916E+0	9.910438E-1	9.883893E-1	9.812234E-1	9.884307E-1	9.692268E-1	9.854863E-1	1.007023E+0	9.453558E-1	9.671861E-1	9.941532E-1	9.833082E-1	9.657530E-1	9.519502E-1	1.021579E+0	1.018268E+0	9.815935E-1	1.044467E+0	9.831092E-1	9.833429E-1	9.692054E-1	1.036180E+0	9.657965E-1	9.748843E-1	9.350913E-1	9.510079E-1	9.465079E-1	9.596702E-1	9.987253E-1	9.426992E-1	9.827527E-1	9.997736E-1	9.946806E-1	9.822595E-1	9.787327E-1	9.654649E-1	9.735847E-1	9.489800E-1	9.658963E-1	9.630263E-1	1.006457E+0	9.683475E-1	9.602832E-1	9.601035E-1	9.568572E-1	1.007910E+0	9.433393E-1	9.268963E-1	9.899334E-1	9.872479E-1	9.792143E-1	1.037051E+0	9.930016E-1	9.837437E-1	9.657836E-1	9.152819E-1	9.487516E-1	9.834663E-1	9.818879E-1	1.009484E+0	1.028695E+0	9.045235E-1	9.990638E-1	1.001648E+0	9.512903E-1	9.806935E-1	1.027221E+0	9.796805E-1	9.708908E-1	9.787062E-1	9.872606E-1	9.459089E-1	9.805899E-1	9.433657E-1	9.704530E-1	9.698136E-1	1.003626E+0	9.271062E-1	9.496164E-1	9.753478E-1	9.363248E-1	9.642108E-1	9.633269E-1	1.004470E+0	1.015198E+0	9.578044E-1	9.699245E-1	9.822631E-1	9.948347E-1	1.015484E+0	9.968359E-1	9.941560E-1	9.608719E-1	1.006239E+0	9.199106E-1	9.344617E-1
5.427710E+2	1.066017E+0	1.050250E+0	1.056251E+0	1.081003E+0	1.090469E+0	1.048165E+0	1.059929E+0	1.070224E+0	1.038852E+0	1.039344E+0	1.107269E+0	1.088812E+0	1.040672E+0	1.077028E+0	1.060140E+0	1.110482E+0	1.047430E+0	1.050568E+0	1.043375E+0	1.065536E+0	1.099049E+0	1.048371E+0	1.069930E+0	1.077128E+0	1.015785E+0	1.040886E+0	1.001637E+0	1.081426E+0	1.081828E+0	1.124800E+0	1.019207E+0	1.102147E+0	1.151883E+0	1.059436E+0	1.062806E+0	1.117765E+0	1.072095E+0	1.077410E+0	1.070261E+0	1.109327E+0	1.017057E+0	1.072714E+0	1.074227E+0	1.076791E+0	1.059070E+0	1.043807E+0	1.060639E+0	1.044697E+0	1.050957E+0	1.048207E+0	1.032412E+0	9.719300E-1	1.087686E+0	1.074164E+0	1.044355E+0	1.055471E+0	1.063433E+0	1.040608E+0	1.081500E+0	1.049318E+0	1.017865E+0	1.050356E+0	1.053282E+0	1.068998E+0	1.062083E+0	1.089116E+0	1.047643E+0	1.034175E+0	1.067665E+0	1.058280E+0	1.097258E+0	1.126802E+0	1.070093E+0	1.017879E+0	1.080760E+0	1.043154E+0	1.066408E+0	1.057777E+0	1.090275E+0	1.064877E+0	1.043629E+0	1.097144E+0	1.049144E+0	1.060397E+0	1.063010E+0	1.037375E+0	1.085043E+0	1.067005E+0	1.058590E+0	1.095896E+0	1.076752E+0	1.003637E+0	1.116446E+0	1.051544E+0	1.074279E+0	1.026631E+0	1.080952E+0	1.064832E+0	1.046153E+0	1.031194E+0	1.046533E+0	1.072233E+0	1.041815E+0	1.093264E+0	1.059503E+0	1.064419E+0	1.050449E+0	1.097819E+0	1.095635E+0	1.057310E+0	1.053138E+0	1.041407E+0	1.098207E+0	1.061982E+0	1.056626E+0	1.083211E+0	1.073088E+0	1.076889E+0	1.055330E+0	1.062798E+0	1.048435E+0	1.047111E+0	1.007349E+0	1.090599E+0	1.068954E+0	1.103263E+0	1.075239E+0	1.056217E+0	1.096898E+0	1.042343E+0	1.034745E+0	1.059613E+0	1.074662E+0	1.063886E+0	1.084270E+0	1.106804E+0	1.055159E+0	1.065255E+0	1.068825E+0	1.086020E+0	1.036607E+0	1.062372E+0	1.072994E+0	1.024998E+0	1.114038E+0	1.085803E+0	1.106211E+0	1.026625E+0	1.012992E+0	1.117777E+0	1.062440E+0	1.131392E+0	1.081931E+0	1.086278E+0	1.095512E+0	1.045331E+0	1.055115E+0	1.083681E+0	1.029518E+0	1.067649E+0	1.087663E+0	1.093300E+0	1.048326E+0	1.050487E+0	1.057607E+0	1.041577E+0	1.050982E+0	1.040014E+0	1.041298E+0	1.142763E+0	1.094231E+0
5.430120E+2	1.194326E+0	1.148604E+0	1.211008E+0	1.189421E+0	1.175010E+0	1.238943E+0	1.210926E+0	1.220597E+0	1.187008E+0	1.229076E+0	1.217958E+0	1.213373E+0	1.220853E+0	1.144826E+0	1.223235E+0	1.176052E+0	1.238478E+0	1.193961E+0	1.255436E+0	1.218355E+0	1.134571E+0	1.216157E+0	1.202328E+0	1.242824E+0	1.152533E+0	1.206703E+0	1.149546E+0	1.247938E+0	1.229479E+0	1.273792E+0	1.197720E+0	1.227345E+0	1.188753E+0	1.184985E+0	1.215041E+0	1.243475E+0	1.258892E+0	1.244158E+0	1.196141E+0	1.178208E+0	1.194449E+0	1.216938E+0	1.247172E+0	1.206588E+0	1.180914E+0	1.169779E+0	1.196537E+0	1.195564E+0	1.224977E+0	1.207152E+0	1.243944E+0	1.189703E+0	1.224639E+0	1.228240E+0	1.209768E+0	1.202967E+0	1.172491E+0	1.255925E+0	1.219124E+0	1.222278E+0	1.173879E+0	1.185917E+0	1.165937E+0	1.206289E+0	1.188085E+0	1.215837E+0	1.208769E+0	1.215187E+0	1.172615E+0	1.213882E+0	1.171534E+0	1.210439E+0	1.160880E+0	1.181403E+0	1.185120E+0	1.193207E+0	1.159096E+0	1.208241E+0	1.247457E+0	1.231127E+0	1.219146E+0	1.236930E+0	1.180070E+0	1.223505E+0	1.173885E+0	1.205258E+0	1.204238E+0	1.235379E+0	1.161438E+0	1.222782E+0	1.203964E+0	1.167739E+0	1.251506E+0	1.190567E+0	1.204292E+0	1.218269E+0	1.254717E+0	1.169738E+0	1.146056E+0	1.240420E+0	1.159470E+0	1.132445E+0	1.203228E+0	1.229749E+0	1.156587E+0	1.232305E+0	1.228134E+0	1.202641E+0	1.197624E+0	1.192483E+0	1.190517E+0	1.186619E+0	1.181463E+0	1.170309E+0	1.179535E+0	1.160183E+0	1.201590E+0	1.193060E+0	1.173736E+0	1.177930E+0	1.215048E+0	1.124656E+0	1.156674E+0	1.237230E+0	1.169782E+0	1.194948E+0	1.217093E+0	1.252261E+0	1.218011E+0	1.187765E+0	1.203292E+0	1.181600E+0	1.147753E+0	1.155494E+0	1.196976E+0	1.188072E+0	1.159394E+0	1.218158E+0	1.188518E+0	1.247779E+0	1.250110E+0	1.209512E+0	1.157278E+0	1.213056E+0	1.203266E+0	1.151802E+0	1.205729E+0	1.148532E+0	1.121198E+0	1.230063E+0	1.239629E+0	1.212278E+0	1.194395E+0	1.255643E+0	1.200038E+0	1.225603E+0	1.202283E+0	1.193961E+0	1.207288E+0	1.221378E+0	1.235209E+0	1.227378E+0	1.187133E+0	1.184901E+0	1.161041E+0	1.196157E+0	1.185824E+0	1.215893E+0	1.164971E+0	1.187800E+0	1.301570E+0
5.433020E+2	1.447339E+0	1.413832E+0	1.368318E+0	1.390057E+0	1.432939E+0	1.418144E+0	1.391784E+0	1.442889E+0	1.394580E+0	1.392957E+0	1.408504E+0	1.470005E+0	1.381721E+0	1.480152E+0	1.460758E+0	1.379280E+0	1.427517E+0	1.386206E+0	1.415503E+0	1.413524E+0	1.436810E+0	1.343498E+0	1.371700E+0	1.398448E+0	1.332404E+0	1.386481E+0	1.383633E+0	1.360758E+0	1.377707E+0	1.466935E+0	1.365190E+0	1.437458E+0	1.441730E+0	1.390619E+0	1.375219E+0	1.393977E+0	1.463743E+0	1.421346E+0	1.382957E+0	1.415362E+0	1.402570E+0	1.435848E+0	1.393280E+0	1.425426E+0	1.447736E+0	1.378363E+0	1.379323E+0	1.397289E+0	1.436510E+0	1.363228E+0	1.375881E+0	1.399169E+0	1.392537E+0	1.398441E+0	1.371592E+0	1.424923E+0	1.444119E+0	1.371641E+0	1.409593E+0	1.405569E+0	1.431938E+0	1.451193E+0	1.388791E+0	1.448666E+0	1.399949E+0	1.443496E+0	1.421475E+0	1.423770E+0	1.416060E+0	1.402587E+0	1.402627E+0	1.453963E+0	1.424478E+0	1.398428E+0	1.360645E+0	1.405943E+0	1.393218E+0	1.459057E+0	1.439685E+0	1.406098E+0	1.386548E+0	1.399957E+0	1.395087E+0	1.382389E+0	1.424523E+0	1.369442E+0	1.392277E+0	1.380005E+0	1.388535E+0	1.406049E+0	1.335455E+0	1.359900E+0	1.470298E+0	1.337349E+0	1.435896E+0	1.338709E+0	1.320880E+0	1.386728E+0	1.379290E+0	1.397807E+0	1.405205E+0	1.384299E+0	1.386553E+0	1.426951E+0	1.369674E+0	1.415007E+0	1.392284E+0	1.380104E+0	1.406503E+0	1.462118E+0	1.465044E+0	1.343550E+0	1.382932E+0	1.386638E+0	1.387751E+0	1.458044E+0	1.438664E+0	1.337878E+0	1.462034E+0	1.368671E+0	1.338638E+0	1.314762E+0	1.338023E+0	1.414595E+0	1.449980E+0	1.423217E+0	1.352656E+0	1.373634E+0	1.368497E+0	1.334761E+0	1.350877E+0	1.361437E+0	1.407530E+0	1.416353E+0	1.325717E+0	1.419608E+0	1.372819E+0	1.425232E+0	1.404091E+0	1.369210E+0	1.416102E+0	1.371148E+0	1.416570E+0	1.428537E+0	1.369410E+0	1.336561E+0	1.357150E+0	1.390697E+0	1.369613E+0	1.391902E+0	1.404425E+0	1.392948E+0	1.354052E+0	1.386915E+0	1.421463E+0	1.411352E+0	1.381537E+0	1.428306E+0	1.390135E+0	1.382872E+0	1.318538E+0	1.325667E+0	1.355161E+0	1.354172E+0	1.395365E+0	1.434953E+0	1.384731E+0	1.393404E+0	1.409204E+0	1.404205E+0	1.344609E+0
5.435270E+2	1.554823E+0	1.580436E+0	1.495330E+0	1.563412E+0	1.550032E+0	1.587295E+0	1.547986E+0	1.604073E+0	1.512532E+0	1.509296E+0	1.502542E+0	1.568358E+0	1.548986E+0	1.565534E+0	1.545777E+0	1.572943E+0	1.536818E+0	1.509098E+0	1.506322E+0	1.541664E+0	1.555177E+0	1.492180E+0	1.523386E+0	1.587631E+0	1.502210E+0	1.478561E+0	1.547856E+0	1.600163E+0	1.539948E+0	1.563885E+0	1.489938E+0	1.507103E+0	1.516548E+0	1.528953E+0	1.489463E+0	1.511021E+0	1.523808E+0	1.548582E+0	1.492233E+0	1.535349E+0	1.549505E+0	1.553702E+0	1.604467E+0	1.578497E+0	1.533960E+0	1.552173E+0	1.522805E+0	1.496471E+0	1.498564E+0	1.512442E+0	1.563608E+0	1.451494E+0	1.527563E+0	1.518151E+0	1.490098E+0	1.556491E+0	1.507197E+0	1.544521E+0	1.519289E+0	1.561566E+0	1.548958E+0	1.548596E+0	1.519245E+0	1.493969E+0	1.546993E+0	1.531669E+0	1.553174E+0	1.511311E+0	1.491999E+0	1.465162E+0	1.486681E+0	1.564548E+0	1.530482E+0	1.569481E+0	1.558411E+0	1.534144E+0	1.491751E+0	1.517552E+0	1.524514E+0	1.485174E+0	1.572066E+0	1.548173E+0	1.500797E+0	1.521416E+0	1.440808E+0	1.526350E+0	1.452799E+0	1.532294E+0	1.523799E+0	1.528441E+0	1.513010E+0	1.429110E+0	1.548028E+0	1.505664E+0	1.564970E+0	1.493459E+0	1.548554E+0	1.532759E+0	1.505590E+0	1.503411E+0	1.490363E+0	1.526158E+0	1.498029E+0	1.510927E+0	1.494257E+0	1.537057E+0	1.507629E+0	1.547710E+0	1.520300E+0	1.477350E+0	1.538489E+0	1.472738E+0	1.478019E+0	1.497974E+0	1.486720E+0	1.495944E+0	1.529571E+0	1.490893E+0	1.520865E+0	1.600121E+0	1.462249E+0	1.492824E+0	1.525954E+0	1.505578E+0	1.527515E+0	1.509745E+0	1.447685E+0	1.516775E+0	1.550389E+0	1.498687E+0	1.486597E+0	1.452819E+0	1.501029E+0	1.521285E+0	1.496855E+0	1.515954E+0	1.465092E+0	1.568030E+0	1.521746E+0	1.458130E+0	1.539911E+0	1.514299E+0	1.501932E+0	1.477756E+0	1.531446E+0	1.485675E+0	1.507683E+0	1.453007E+0	1.491092E+0	1.463093E+0	1.479166E+0	1.522341E+0	1.484069E+0	1.514211E+0	1.502548E+0	1.520120E+0	1.556662E+0	1.530713E+0	1.492189E+0	1.503372E+0	1.520465E+0	1.497328E+0	1.469914E+0	1.483923E+0	1.548283E+0	1.490511E+0	1.450279E+0	1.532642E+0	1.511433E+0	1.455063E+0	1.473383E+0
5.437590E+2	1.685285E+0	1.641210E+0	1.624548E+0	1.652163E+0	1.626042E+0	1.590150E+0	1.656920E+0	1.623586E+0	1.632285E+0	1.640915E+0	1.636672E+0	1.652196E+0	1.742094E+0	1.586195E+0	1.629150E+0	1.634256E+0	1.652146E+0	1.592662E+0	1.588385E+0	1.671100E+0	1.621504E+0	1.625413E+0	1.627989E+0	1.636712E+0	1.599905E+0	1.643415E+0	1.577863E+0	1.676226E+0	1.666191E+0	1.623228E+0	1.560594E+0	1.660778E+0	1.632073E+0	1.583471E+0	1.613318E+0	1.577627E+0	1.719543E+0	1.633066E+0	1.605610E+0	1.664216E+0	1.696286E+0	1.660681E+0	1.651914E+0	1.639924E+0	1.624954E+0	1.593317E+0	1.633244E+0	1.623554E+0	1.631358E+0	1.677056E+0	1.684016E+0	1.606500E+0	1.674234E+0	1.633515E+0	1.601390E+0	1.673292E+0	1.646320E+0	1.666720E+0	1.561943E+0	1.707554E+0	1.543572E+0	1.645510E+0	1.659005E+0	1.575765E+0	1.587308E+0	1.619450E+0	1.559762E+0	1.628727E+0	1.622161E+0	1.640857E+0	1.567603E+0	1.702391E+0	1.618586E+0	1.641282E+0	1.653662E+0	1.632260E+0	1.595474E+0	1.672787E+0	1.607459E+0	1.603935E+0	1.660042E+0	1.579196E+0	1.560358E+0	1.574374E+0	1.651707E+0	1.603363E+0	1.603711E+0	1.660084E+0	1.620807E+0	1.637904E+0	1.619242E+0	1.628574E+0	1.723766E+0	1.569380E+0	1.641248E+0	1.602279E+0	1.623633E+0	1.556231E+0	1.585520E+0	1.600845E+0	1.639603E+0	1.606714E+0	1.604762E+0	1.601400E+0	1.597198E+0	1.594207E+0	1.633690E+0	1.594878E+0	1.635767E+0	1.624783E+0	1.572206E+0	1.570876E+0	1.565374E+0	1.596689E+0	1.572125E+0	1.565729E+0	1.653054E+0	1.629446E+0	1.606348E+0	1.622493E+0	1.649640E+0	1.549985E+0	1.557092E+0	1.638396E+0	1.650253E+0	1.583243E+0	1.601588E+0	1.592522E+0	1.605305E+0	1.574464E+0	1.580629E+0	1.625129E+0	1.604748E+0	1.584454E+0	1.577562E+0	1.629993E+0	1.591053E+0	1.605090E+0	1.628046E+0	1.633338E+0	1.629128E+0	1.588879E+0	1.546780E+0	1.613597E+0	1.657846E+0	1.552978E+0	1.508871E+0	1.624963E+0	1.571171E+0	1.651852E+0	1.550859E+0	1.625271E+0	1.559378E+0	1.601311E+0	1.636862E+0	1.643088E+0	1.612674E+0	1.633162E+0	1.627998E+0	1.584866E+0	1.578460E+0	1.640082E+0	1.596083E+0	1.552468E+0	1.601880E+0	1.617918E+0	1.620746E+0	1.653811E+0	1.567382E+0	1.548647E+0	1.655680E+0
5.440280E+2	1.717285E+0	1.621532E+0	1.674931E+0	1.634557E+0	1.656490E+0	1.648448E+0	1.678148E+0	1.647033E+0	1.715542E+0	1.704428E+0	1.673438E+0	1.649391E+0	1.671638E+0	1.629712E+0	1.687586E+0	1.680944E+0	1.672639E+0	1.662416E+0	1.694953E+0	1.665423E+0	1.648703E+0	1.674883E+0	1.656829E+0	1.673116E+0	1.623182E+0	1.623484E+0	1.562331E+0	1.701678E+0	1.777861E+0	1.750066E+0	1.648457E+0	1.699435E+0	1.687709E+0	1.675980E+0	1.613020E+0	1.683186E+0	1.697575E+0	1.711369E+0	1.685620E+0	1.677558E+0	1.661806E+0	1.715561E+0	1.706438E+0	1.681664E+0	1.688068E+0	1.637934E+0	1.627357E+0	1.624719E+0	1.684050E+0	1.739080E+0	1.636715E+0	1.638307E+0	1.708181E+0	1.700966E+0	1.574475E+0	1.648424E+0	1.677372E+0	1.720328E+0	1.621580E+0	1.656360E+0	1.671191E+0	1.653668E+0	1.693789E+0	1.646082E+0	1.668943E+0	1.643391E+0	1.625207E+0	1.695647E+0	1.645365E+0	1.619744E+0	1.718750E+0	1.701948E+0	1.642234E+0	1.617931E+0	1.644498E+0	1.690265E+0	1.630407E+0	1.684394E+0	1.654151E+0	1.675705E+0	1.693428E+0	1.713896E+0	1.664605E+0	1.648814E+0	1.649241E+0	1.660624E+0	1.648634E+0	1.682458E+0	1.603158E+0	1.700461E+0	1.666629E+0	1.644053E+0	1.693033E+0	1.635385E+0	1.694379E+0	1.644779E+0	1.674735E+0	1.672835E+0	1.651620E+0	1.615581E+0	1.576793E+0	1.605174E+0	1.602193E+0	1.685010E+0	1.628682E+0	1.631383E+0	1.681016E+0	1.664025E+0	1.744234E+0	1.615088E+0	1.651479E+0	1.645423E+0	1.705486E+0	1.715334E+0	1.656865E+0	1.703362E+0	1.653203E+0	1.646883E+0	1.703121E+0	1.645380E+0	1.670291E+0	1.606863E+0	1.637865E+0	1.643051E+0	1.658281E+0	1.620025E+0	1.655164E+0	1.636888E+0	1.617732E+0	1.678946E+0	1.699494E+0	1.631976E+0	1.672044E+0	1.651656E+0	1.689981E+0	1.641454E+0	1.674933E+0	1.687559E+0	1.636224E+0	1.599253E+0	1.631026E+0	1.626237E+0	1.640019E+0	1.651451E+0	1.631884E+0	1.634641E+0	1.612075E+0	1.613112E+0	1.674436E+0	1.700414E+0	1.629940E+0	1.678394E+0	1.598462E+0	1.639389E+0	1.636114E+0	1.670639E+0	1.706097E+0	1.737282E+0	1.670754E+0	1.629312E+0	1.529083E+0	1.654754E+0	1.614448E+0	1.587181E+0	1.608911E+0	1.643198E+0	1.570179E+0	1.630210E+0	1.612035E+0	1.589260E+0	1.623565E+0
5.442650E+2	1.705939E+0	1.691725E+0	1.663194E+0	1.697763E+0	1.665534E+0	1.741387E+0	1.680999E+0	1.698698E+0	1.687912E+0	1.688314E+0	1.670309E+0	1.686984E+0	1.699345E+0	1.644680E+0	1.654693E+0	1.644097E+0	1.681925E+0	1.610603E+0	1.688530E+0	1.704888E+0	1.694651E+0	1.668460E+0	1.659410E+0	1.655221E+0	1.634318E+0	1.658176E+0	1.647087E+0	1.635398E+0	1.696405E+0	1.675811E+0	1.657008E+0	1.672560E+0	1.710535E+0	1.706613E+0	1.601905E+0	1.666621E+0	1.672457E+0	1.595478E+0	1.652571E+0	1.691257E+0	1.709164E+0	1.677350E+0	1.664229E+0	1.690953E+0	1.641697E+0	1.636910E+0	1.622415E+0	1.630346E+0	1.651895E+0	1.651471E+0	1.648742E+0	1.633094E+0	1.638590E+0	1.657305E+0	1.670731E+0	1.633635E+0	1.696639E+0	1.706537E+0	1.596249E+0	1.679951E+0	1.713405E+0	1.674858E+0	1.677345E+0	1.639969E+0	1.618709E+0	1.668912E+0	1.641451E+0	1.570861E+0	1.641208E+0	1.603342E+0	1.664503E+0	1.726690E+0	1.716829E+0	1.666394E+0	1.615318E+0	1.661215E+0	1.693311E+0	1.632457E+0	1.740201E+0	1.618647E+0	1.660892E+0	1.710373E+0	1.645160E+0	1.634534E+0	1.666768E+0	1.641761E+0	1.626897E+0	1.684827E+0	1.622208E+0	1.623486E+0	1.687070E+0	1.630085E+0	1.668033E+0	1.596396E+0	1.704000E+0	1.634647E+0	1.653245E+0	1.660433E+0	1.614339E+0	1.609430E+0	1.664334E+0	1.628861E+0	1.626336E+0	1.630086E+0	1.657358E+0	1.648415E+0	1.644279E+0	1.625674E+0	1.681278E+0	1.646126E+0	1.668270E+0	1.605334E+0	1.673881E+0	1.643165E+0	1.686317E+0	1.588187E+0	1.643335E+0	1.614430E+0	1.643697E+0	1.683954E+0	1.617759E+0	1.613176E+0	1.668617E+0	1.687508E+0	1.681051E+0	1.633053E+0	1.631156E+0	1.635518E+0	1.606244E+0	1.598038E+0	1.602982E+0	1.592541E+0	1.647374E+0	1.623745E+0	1.599481E+0	1.706230E+0	1.658477E+0	1.665363E+0	1.684266E+0	1.615459E+0	1.593688E+0	1.589659E+0	1.595994E+0	1.648040E+0	1.673396E+0	1.663170E+0	1.648122E+0	1.610305E+0	1.651722E+0	1.646112E+0	1.662328E+0	1.689914E+0	1.602348E+0	1.644531E+0	1.606518E+0	1.635310E+0	1.637152E+0	1.605034E+0	1.639516E+0	1.631059E+0	1.670131E+0	1.636080E+0	1.633940E+0	1.604337E+0	1.588243E+0	1.600658E+0	1.555695E+0	1.677942E+0	1.628628E+0	1.624797E+0	1.651042E+0
5.445240E+2	1.725755E+0	1.553555E+0	1.646690E+0	1.625185E+0	1.692444E+0	1.620596E+0	1.649319E+0	1.629593E+0	1.675556E+0	1.626236E+0	1.642010E+0	1.646964E+0	1.659610E+0	1.637412E+0	1.660915E+0	1.629337E+0	1.689984E+0	1.596992E+0	1.657257E+0	1.601832E+0	1.632746E+0	1.672924E+0	1.590883E+0	1.636657E+0	1.641083E+0	1.648263E+0	1.639798E+0	1.619361E+0	1.655609E+0	1.635572E+0	1.615527E+0	1.705125E+0	1.655471E+0	1.644773E+0	1.599351E+0	1.683156E+0	1.640893E+0	1.625363E+0	1.625025E+0	1.603872E+0	1.690808E+0	1.616996E+0	1.582683E+0	1.625881E+0	1.670535E+0	1.581319E+0	1.617464E+0	1.586223E+0	1.602602E+0	1.698515E+0	1.600391E+0	1.614068E+0	1.638230E+0	1.674364E+0	1.561701E+0	1.648381E+0	1.681678E+0	1.685044E+0	1.663566E+0	1.600894E+0	1.641375E+0	1.649860E+0	1.623693E+0	1.616914E+0	1.609734E+0	1.624644E+0	1.664012E+0	1.670779E+0	1.648464E+0	1.593343E+0	1.614557E+0	1.646112E+0	1.590519E+0	1.618042E+0	1.616180E+0	1.592811E+0	1.631423E+0	1.644763E+0	1.620055E+0	1.643164E+0	1.629443E+0	1.653420E+0	1.624023E+0	1.657468E+0	1.706441E+0	1.647563E+0	1.558042E+0	1.615210E+0	1.617508E+0	1.648067E+0	1.647689E+0	1.572948E+0	1.666311E+0	1.626804E+0	1.665245E+0	1.573808E+0	1.567337E+0	1.639641E+0	1.628963E+0	1.615526E+0	1.649351E+0	1.665368E+0	1.579358E+0	1.609235E+0	1.632889E+0	1.673728E+0	1.569428E+0	1.558049E+0	1.626603E+0	1.600347E+0	1.596250E+0	1.626383E+0	1.583813E+0	1.622317E+0	1.655691E+0	1.594092E+0	1.663341E+0	1.581159E+0	1.596571E+0	1.589825E+0	1.645928E+0	1.563557E+0	1.597936E+0	1.641717E+0	1.683226E+0	1.655038E+0	1.628083E+0	1.628391E+0	1.583075E+0	1.599910E+0	1.571945E+0	1.593659E+0	1.616500E+0	1.586924E+0	1.569365E+0	1.632978E+0	1.580630E+0	1.628000E+0	1.653563E+0	1.609587E+0	1.624075E+0	1.628717E+0	1.655475E+0	1.611534E+0	1.560788E+0	1.626730E+0	1.588759E+0	1.588818E+0	1.555153E+0	1.594389E+0	1.538435E+0	1.656710E+0	1.598092E+0	1.567276E+0	1.624800E+0	1.586752E+0	1.681758E+0	1.614293E+0	1.575955E+0	1.568787E+0	1.632350E+0	1.621919E+0	1.631259E+0	1.670657E+0	1.641814E+0	1.560605E+0	1.547470E+0	1.604827E+0	1.579415E+0	1.572406E+0	1.540287E+0
5.447660E+2	1.600251E+0	1.556771E+0	1.523383E+0	1.604296E+0	1.584474E+0	1.572235E+0	1.547075E+0	1.544950E+0	1.564802E+0	1.542528E+0	1.540872E+0	1.506263E+0	1.551338E+0	1.561645E+0	1.566960E+0	1.535389E+0	1.519810E+0	1.550197E+0	1.546535E+0	1.546750E+0	1.607861E+0	1.528129E+0	1.483623E+0	1.556616E+0	1.491402E+0	1.570193E+0	1.511214E+0	1.593122E+0	1.562450E+0	1.544574E+0	1.526489E+0	1.540111E+0	1.582560E+0	1.610060E+0	1.557356E+0	1.571825E+0	1.590862E+0	1.532690E+0	1.537173E+0	1.556652E+0	1.547695E+0	1.556944E+0	1.561556E+0	1.550820E+0	1.593954E+0	1.493904E+0	1.542268E+0	1.506170E+0	1.529480E+0	1.555630E+0	1.500738E+0	1.456464E+0	1.559568E+0	1.569456E+0	1.511716E+0	1.567236E+0	1.551526E+0	1.572069E+0	1.482775E+0	1.533368E+0	1.532213E+0	1.607532E+0	1.534407E+0	1.507671E+0	1.510809E+0	1.580323E+0	1.555532E+0	1.462093E+0	1.555696E+0	1.534930E+0	1.490033E+0	1.546461E+0	1.522190E+0	1.548433E+0	1.528267E+0	1.562034E+0	1.535428E+0	1.524168E+0	1.560411E+0	1.617126E+0	1.528500E+0	1.542875E+0	1.586224E+0	1.501760E+0	1.517195E+0	1.544200E+0	1.472064E+0	1.483998E+0	1.506206E+0	1.533378E+0	1.567701E+0	1.544879E+0	1.580409E+0	1.521794E+0	1.547689E+0	1.486808E+0	1.513854E+0	1.530124E+0	1.532465E+0	1.509957E+0	1.514778E+0	1.533130E+0	1.549708E+0	1.493798E+0	1.491300E+0	1.490968E+0	1.498958E+0	1.464260E+0	1.582593E+0	1.531651E+0	1.515611E+0	1.495815E+0	1.561802E+0	1.538064E+0	1.508452E+0	1.547981E+0	1.532196E+0	1.507851E+0	1.490840E+0	1.531051E+0	1.551129E+0	1.517231E+0	1.503738E+0	1.595526E+0	1.554954E+0	1.517590E+0	1.550867E+0	1.520333E+0	1.520597E+0	1.545376E+0	1.482550E+0	1.517354E+0	1.557507E+0	1.550001E+0	1.507877E+0	1.514344E+0	1.491461E+0	1.595882E+0	1.587378E+0	1.498106E+0	1.523778E+0	1.553791E+0	1.510377E+0	1.542893E+0	1.446702E+0	1.510164E+0	1.536601E+0	1.536625E+0	1.490777E+0	1.568052E+0	1.468674E+0	1.588641E+0	1.462387E+0	1.549614E+0	1.557075E+0	1.489085E+0	1.558593E+0	1.519618E+0	1.533740E+0	1.527627E+0	1.561791E+0	1.526731E+0	1.503782E+0	1.481076E+0	1.524682E+0	1.489773E+0	1.491200E+0	1.560077E+0	1.483681E+0	1.516520E+0	1.528277E+0
5.450200E+2	1.424340E+0	1.428888E+0	1.401409E+0	1.411597E+0	1.463193E+0	1.467659E+0	1.429160E+0	1.491235E+0	1.418207E+0	1.478385E+0	1.413491E+0	1.457459E+0	1.461956E+0	1.392325E+0	1.456548E+0	1.428596E+0	1.458834E+0	1.416254E+0	1.487035E+0	1.457993E+0	1.457328E+0	1.464380E+0	1.446388E+0	1.460291E+0	1.361887E+0	1.425020E+0	1.407250E+0	1.475652E+0	1.473847E+0	1.408348E+0	1.424059E+0	1.454475E+0	1.427101E+0	1.395180E+0	1.367568E+0	1.450834E+0	1.508899E+0	1.456832E+0	1.413836E+0	1.399452E+0	1.453660E+0	1.481581E+0	1.396794E+0	1.427648E+0	1.425782E+0	1.427314E+0	1.413469E+0	1.381391E+0	1.420978E+0	1.484094E+0	1.381025E+0	1.469195E+0	1.434002E+0	1.381751E+0	1.406046E+0	1.460140E+0	1.445147E+0	1.429509E+0	1.419278E+0	1.449259E+0	1.478823E+0	1.415415E+0	1.402562E+0	1.430120E+0	1.451814E+0	1.375523E+0	1.418391E+0	1.421687E+0	1.425996E+0	1.356051E+0	1.430096E+0	1.436861E+0	1.417930E+0	1.429303E+0	1.446637E+0	1.422584E+0	1.476240E+0	1.430557E+0	1.416303E+0	1.449605E+0	1.443984E+0	1.484790E+0	1.383222E+0	1.440003E+0	1.431412E+0	1.433107E+0	1.422807E+0	1.426246E+0	1.418104E+0	1.441356E+0	1.513042E+0	1.399952E+0	1.476309E+0	1.420183E+0	1.467178E+0	1.398525E+0	1.403155E+0	1.369208E+0	1.399333E+0	1.409234E+0	1.386165E+0	1.389190E+0	1.440100E+0	1.392310E+0	1.430180E+0	1.420499E+0	1.402778E+0	1.392729E+0	1.508255E+0	1.379426E+0	1.454287E+0	1.389553E+0	1.365344E+0	1.427995E+0	1.429032E+0	1.457592E+0	1.442532E+0	1.458178E+0	1.398033E+0	1.411088E+0	1.418690E+0	1.379012E+0	1.393319E+0	1.449633E+0	1.418872E+0	1.397405E+0	1.401043E+0	1.417372E+0	1.421248E+0	1.395254E+0	1.393221E+0	1.370989E+0	1.383263E+0	1.424691E+0	1.361317E+0	1.432806E+0	1.388124E+0	1.496976E+0	1.455527E+0	1.372454E+0	1.459640E+0	1.399623E+0	1.438609E+0	1.445437E+0	1.496537E+0	1.433394E+0	1.388917E+0	1.397433E+0	1.353203E+0	1.478691E+0	1.418020E+0	1.429598E+0	1.401062E+0	1.403926E+0	1.396673E+0	1.406556E+0	1.456081E+0	1.428912E+0	1.411426E+0	1.437541E+0	1.426209E+0	1.405462E+0	1.385235E+0	1.384861E+0	1.408343E+0	1.364677E+0	1.370555E+0	1.409293E+0	1.365281E+0	1.352491E+0	1.389111E+0
5.452690E+2	1.392467E+0	1.318308E+0	1.316305E+0	1.346592E+0	1.332757E+0	1.380465E+0	1.342475E+0	1.352343E+0	1.402968E+0	1.405561E+0	1.371540E+0	1.367818E+0	1.358921E+0	1.366401E+0	1.356391E+0	1.326371E+0	1.387330E+0	1.363267E+0	1.370535E+0	1.343601E+0	1.353877E+0	1.324197E+0	1.333238E+0	1.342197E+0	1.334901E+0	1.352823E+0	1.323263E+0	1.323081E+0	1.310600E+0	1.339733E+0	1.282321E+0	1.397735E+0	1.384037E+0	1.377566E+0	1.336674E+0	1.374203E+0	1.413589E+0	1.293722E+0	1.364870E+0	1.278201E+0	1.338487E+0	1.385195E+0	1.422007E+0	1.395462E+0	1.391763E+0	1.340078E+0	1.318351E+0	1.337573E+0	1.327134E+0	1.345952E+0	1.327645E+0	1.330486E+0	1.401587E+0	1.322182E+0	1.321449E+0	1.348065E+0	1.358857E+0	1.378688E+0	1.357301E+0	1.311715E+0	1.381986E+0	1.322177E+0	1.347485E+0	1.363722E+0	1.372030E+0	1.351368E+0	1.281850E+0	1.385459E+0	1.296165E+0	1.351343E+0	1.334029E+0	1.356814E+0	1.361964E+0	1.342892E+0	1.328716E+0	1.392899E+0	1.362534E+0	1.338779E+0	1.353677E+0	1.358226E+0	1.329639E+0	1.406110E+0	1.347946E+0	1.271948E+0	1.372400E+0	1.349845E+0	1.343213E+0	1.391996E+0	1.344948E+0	1.336752E+0	1.346037E+0	1.340341E+0	1.391605E+0	1.339863E+0	1.381269E+0	1.320044E+0	1.348147E+0	1.323516E+0	1.336932E+0	1.312891E+0	1.333811E+0	1.328735E+0	1.325268E+0	1.409028E+0	1.313572E+0	1.350169E+0	1.364026E+0	1.321039E+0	1.344846E+0	1.325246E+0	1.336535E+0	1.344652E+0	1.346530E+0	1.355425E+0	1.361482E+0	1.320696E+0	1.391914E+0	1.309655E+0	1.319298E+0	1.394624E+0	1.376136E+0	1.279318E+0	1.302879E+0	1.355822E+0	1.344996E+0	1.347810E+0	1.380534E+0	1.347291E+0	1.330850E+0	1.366924E+0	1.277229E+0	1.345382E+0	1.407641E+0	1.317836E+0	1.341153E+0	1.355556E+0	1.301097E+0	1.330945E+0	1.363607E+0	1.340255E+0	1.352710E+0	1.334843E+0	1.362052E+0	1.276449E+0	1.304133E+0	1.339397E+0	1.315905E+0	1.355056E+0	1.324061E+0	1.384909E+0	1.257773E+0	1.292940E+0	1.293452E+0	1.375284E+0	1.420246E+0	1.352594E+0	1.379346E+0	1.366848E+0	1.376701E+0	1.294033E+0	1.392599E+0	1.343868E+0	1.340731E+0	1.348142E+0	1.322128E+0	1.313190E+0	1.305370E+0	1.410106E+0	1.315047E+0	1.328525E+0	1.284690E+0
5.455390E+2	1.325270E+0	1.300009E+0	1.235101E+0	1.295810E+0	1.278238E+0	1.288785E+0	1.274566E+0	1.342874E+0	1.291375E+0	1.295753E+0	1.298067E+0	1.340753E+0	1.298527E+0	1.276590E+0	1.297157E+0	1.286154E+0	1.233208E+0	1.269296E+0	1.248069E+0	1.310801E+0	1.289973E+0	1.293448E+0	1.282117E+0	1.245138E+0	1.230839E+0	1.311208E+0	1.270000E+0	1.294811E+0	1.343487E+0	1.316946E+0	1.296101E+0	1.245081E+0	1.324376E+0	1.300278E+0	1.268677E+0	1.325852E+0	1.301680E+0	1.306223E+0	1.293089E+0	1.272711E+0	1.339358E+0	1.320809E+0	1.238135E+0	1.297904E+0	1.297754E+0	1.240148E+0	1.286333E+0	1.260722E+0	1.248942E+0	1.276266E+0	1.280935E+0	1.229801E+0	1.315925E+0	1.336173E+0	1.262357E+0	1.273519E+0	1.289208E+0	1.333597E+0	1.292294E+0	1.334020E+0	1.306444E+0	1.288631E+0	1.309757E+0	1.284059E+0	1.279955E+0	1.315193E+0	1.309707E+0	1.359110E+0	1.198820E+0	1.320375E+0	1.301574E+0	1.302181E+0	1.294483E+0	1.332305E+0	1.240300E+0	1.256070E+0	1.248239E+0	1.299413E+0	1.292644E+0	1.303491E+0	1.303803E+0	1.273605E+0	1.268694E+0	1.232734E+0	1.324621E+0	1.285616E+0	1.292426E+0	1.275584E+0	1.262512E+0	1.279610E+0	1.295028E+0	1.271577E+0	1.338834E+0	1.265779E+0	1.260539E+0	1.263479E+0	1.271232E+0	1.278524E+0	1.276468E+0	1.257752E+0	1.296020E+0	1.267476E+0	1.292408E+0	1.257839E+0	1.296133E+0	1.285458E+0	1.291226E+0	1.281708E+0	1.275792E+0	1.289749E+0	1.208931E+0	1.278755E+0	1.305087E+0	1.292675E+0	1.266324E+0	1.246170E+0	1.256660E+0	1.260935E+0	1.259290E+0	1.254702E+0	1.305606E+0	1.271763E+0	1.269853E+0	1.299974E+0	1.260702E+0	1.277036E+0	1.231325E+0	1.250885E+0	1.303439E+0	1.261575E+0	1.269378E+0	1.294433E+0	1.244456E+0	1.282054E+0	1.292033E+0	1.281895E+0	1.209352E+0	1.278458E+0	1.271664E+0	1.287475E+0	1.304271E+0	1.252261E+0	1.283162E+0	1.293565E+0	1.323190E+0	1.223852E+0	1.265574E+0	1.287417E+0	1.267868E+0	1.288818E+0	1.289453E+0	1.263044E+0	1.272047E+0	1.271968E+0	1.288295E+0	1.286271E+0	1.280270E+0	1.257425E+0	1.282646E+0	1.216200E+0	1.281716E+0	1.323889E+0	1.259225E+0	1.252314E+0	1.242288E+0	1.299873E+0	1.270756E+0	1.303210E+0	1.268381E+0	1.316105E+0	1.215043E+0
5.457780E+2	1.250792E+0	1.277252E+0	1.231289E+0	1.230088E+0	1.242677E+0	1.230149E+0	1.242418E+0	1.220169E+0	1.239831E+0	1.234380E+0	1.227115E+0	1.304485E+0	1.236289E+0	1.218922E+0	1.260068E+0	1.253409E+0	1.251634E+0	1.257112E+0	1.219712E+0	1.206504E+0	1.217597E+0	1.200158E+0	1.200567E+0	1.249286E+0	1.241267E+0	1.259363E+0	1.218860E+0	1.235751E+0	1.249080E+0	1.272817E+0	1.214647E+0	1.250895E+0	1.282211E+0	1.211848E+0	1.283433E+0	1.206653E+0	1.216104E+0	1.303519E+0	1.189000E+0	1.222536E+0	1.278675E+0	1.212506E+0	1.238828E+0	1.250997E+0	1.276877E+0	1.233580E+0	1.286524E+0	1.168513E+0	1.221772E+0	1.254188E+0	1.223491E+0	1.195326E+0	1.258283E+0	1.246475E+0	1.161419E+0	1.243646E+0	1.236680E+0	1.205972E+0	1.249614E+0	1.212522E+0	1.259452E+0	1.236879E+0	1.237658E+0	1.224565E+0	1.216660E+0	1.260804E+0	1.187781E+0	1.234129E+0	1.195134E+0	1.199107E+0	1.199231E+0	1.196692E+0	1.298260E+0	1.230716E+0	1.233272E+0	1.217938E+0	1.217157E+0	1.245091E+0	1.262810E+0	1.248452E+0	1.230319E+0	1.221420E+0	1.233367E+0	1.242260E+0	1.247384E+0	1.255098E+0	1.190338E+0	1.218872E+0	1.211832E+0	1.280571E+0	1.225936E+0	1.188305E+0	1.315680E+0	1.216737E+0	1.267283E+0	1.206416E+0	1.257811E+0	1.196116E+0	1.259892E+0	1.196799E+0	1.205284E+0	1.217257E+0	1.234530E+0	1.193490E+0	1.241672E+0	1.278357E+0	1.276908E+0	1.216152E+0	1.228377E+0	1.202311E+0	1.251696E+0	1.217268E+0	1.228482E+0	1.212257E+0	1.216782E+0	1.227471E+0	1.275844E+0	1.262680E+0	1.214385E+0	1.203439E+0	1.250269E+0	1.196715E+0	1.221821E+0	1.249097E+0	1.262190E+0	1.181988E+0	1.209392E+0	1.263860E+0	1.194044E+0	1.224805E+0	1.272997E+0	1.222226E+0	1.222131E+0	1.208165E+0	1.232015E+0	1.237287E+0	1.192547E+0	1.205623E+0	1.215104E+0	1.223995E+0	1.214860E+0	1.230557E+0	1.171367E+0	1.179251E+0	1.252093E+0	1.253830E+0	1.189025E+0	1.185496E+0	1.216146E+0	1.217992E+0	1.197988E+0	1.224486E+0	1.231808E+0	1.210495E+0	1.214789E+0	1.232725E+0	1.218235E+0	1.192364E+0	1.242958E+0	1.240374E+0	1.202334E+0	1.274302E+0	1.204084E+0	1.219798E+0	1.217828E+0	1.207167E+0	1.250610E+0	1.211238E+0	1.249886E+0	1.219856E+0	1.224525E+0
5.460110E+2	1.241779E+0	1.203697E+0	1.253039E+0	1.214391E+0	1.278328E+0	1.312885E+0	1.211460E+0	1.292136E+0	1.262354E+0	1.231617E+0	1.266843E+0	1.274367E+0	1.263720E+0	1.280625E+0	1.219485E+0	1.268074E+0	1.201318E+0	1.258137E+0	1.227567E+0	1.210663E+0	1.229940E+0	1.231384E+0	1.216328E+0	1.276647E+0	1.228489E+0	1.260219E+0	1.286852E+0	1.276627E+0	1.214981E+0	1.291595E+0	1.268821E+0	1.245529E+0	1.247554E+0	1.247012E+0	1.222449E+0	1.269601E+0	1.265130E+0	1.191374E+0	1.230001E+0	1.233079E+0	1.269324E+0	1.295015E+0	1.239527E+0	1.258948E+0	1.231934E+0	1.235350E+0	1.225304E+0	1.252452E+0	1.219987E+0	1.273248E+0	1.201505E+0	1.236966E+0	1.270603E+0	1.237878E+0	1.250882E+0	1.245685E+0	1.214320E+0	1.330606E+0	1.214549E+0	1.289298E+0	1.254867E+0	1.269232E+0	1.217044E+0	1.216185E+0	1.225529E+0	1.267262E+0	1.236423E+0	1.227008E+0	1.190378E+0	1.198559E+0	1.239609E+0	1.243655E+0	1.274641E+0	1.239230E+0	1.248414E+0	1.201889E+0	1.248814E+0	1.252886E+0	1.320869E+0	1.265922E+0	1.264403E+0	1.288734E+0	1.223283E+0	1.216685E+0	1.224012E+0	1.236885E+0	1.188637E+0	1.237680E+0	1.287315E+0	1.232725E+0	1.293038E+0	1.187812E+0	1.291437E+0	1.202613E+0	1.260264E+0	1.186205E+0	1.274152E+0	1.198090E+0	1.253139E+0	1.201698E+0	1.255606E+0	1.205207E+0	1.288280E+0	1.211696E+0	1.232617E+0	1.215467E+0	1.251123E+0	1.234962E+0	1.276460E+0	1.238884E+0	1.248944E+0	1.238574E+0	1.230413E+0	1.244327E+0	1.225350E+0	1.253035E+0	1.265828E+0	1.225669E+0	1.230884E+0	1.190109E+0	1.282576E+0	1.206089E+0	1.233534E+0	1.262184E+0	1.189031E+0	1.250817E+0	1.216570E+0	1.231257E+0	1.256045E+0	1.238252E+0	1.219755E+0	1.205383E+0	1.199171E+0	1.219558E+0	1.236550E+0	1.251247E+0	1.212525E+0	1.251108E+0	1.225195E+0	1.274267E+0	1.219416E+0	1.204992E+0	1.201971E+0	1.211380E+0	1.240584E+0	1.250952E+0	1.199285E+0	1.246610E+0	1.236849E+0	1.215200E+0	1.220494E+0	1.251882E+0	1.233060E+0	1.197115E+0	1.205132E+0	1.230657E+0	1.278210E+0	1.240003E+0	1.250647E+0	1.200506E+0	1.303994E+0	1.226420E+0	1.215281E+0	1.231779E+0	1.236280E+0	1.237979E+0	1.254743E+0	1.262558E+0	1.202847E+0	1.234608E+0	1.321205E+0
5.467600E+2	1.350911E+0	1.317142E+0	1.317330E+0	1.328817E+0	1.314316E+0	1.348275E+0	1.370023E+0	1.349811E+0	1.330122E+0	1.285695E+0	1.269538E+0	1.301356E+0	1.351880E+0	1.348588E+0	1.302809E+0	1.306137E+0	1.290416E+0	1.328436E+0	1.373521E+0	1.377136E+0	1.284808E+0	1.252461E+0	1.355916E+0	1.329873E+0	1.262386E+0	1.321011E+0	1.297976E+0	1.323840E+0	1.286333E+0	1.387196E+0	1.280646E+0	1.295325E+0	1.264462E+0	1.270140E+0	1.331912E+0	1.269580E+0	1.316515E+0	1.299752E+0	1.302006E+0	1.301482E+0	1.309572E+0	1.364075E+0	1.372567E+0	1.321919E+0	1.290325E+0	1.344177E+0	1.289396E+0	1.297898E+0	1.246777E+0	1.329708E+0	1.322379E+0	1.315749E+0	1.308571E+0	1.374150E+0	1.300247E+0	1.322246E+0	1.365324E+0	1.320802E+0	1.308557E+0	1.292803E+0	1.292283E+0	1.349052E+0	1.330433E+0	1.277889E+0	1.333084E+0	1.269198E+0	1.334513E+0	1.312384E+0	1.287004E+0	1.298652E+0	1.299601E+0	1.268168E+0	1.311024E+0	1.295280E+0	1.280750E+0	1.294361E+0	1.319782E+0	1.297070E+0	1.294110E+0	1.310311E+0	1.335495E+0	1.337795E+0	1.326462E+0	1.338857E+0	1.361484E+0	1.353885E+0	1.297846E+0	1.328602E+0	1.204565E+0	1.305532E+0	1.358595E+0	1.253628E+0	1.345653E+0	1.317513E+0	1.317971E+0	1.282955E+0	1.291665E+0	1.364506E+0	1.298365E+0	1.311026E+0	1.284948E+0	1.277905E+0	1.314970E+0	1.296311E+0	1.307704E+0	1.306512E+0	1.324763E+0	1.320590E+0	1.316052E+0	1.289133E+0	1.327902E+0	1.281659E+0	1.326242E+0	1.314079E+0	1.320435E+0	1.279951E+0	1.361650E+0	1.295086E+0	1.306942E+0	1.288931E+0	1.318456E+0	1.224060E+0	1.278773E+0	1.273870E+0	1.260981E+0	1.301906E+0	1.295868E+0	1.336236E+0	1.310582E+0	1.338976E+0	1.352570E+0	1.271349E+0	1.300415E+0	1.321108E+0	1.305690E+0	1.280164E+0	1.306111E+0	1.316776E+0	1.298309E+0	1.243768E+0	1.306300E+0	1.286270E+0	1.300218E+0	1.307439E+0	1.277057E+0	1.337196E+0	1.301527E+0	1.261625E+0	1.273397E+0	1.333225E+0	1.304637E+0	1.322965E+0	1.304329E+0	1.257682E+0	1.282209E+0	1.379817E+0	1.350875E+0	1.320771E+0	1.316192E+0	1.299913E+0	1.288973E+0	1.313141E+0	1.271416E+0	1.290140E+0	1.346197E+0	1.330602E+0	1.318549E+0	1.328088E+0	1.307420E+0	1.248539E+0	1.159587E+0
5.475070E+2	1.387422E+0	1.369481E+0	1.362844E+0	1.355807E+0	1.376694E+0	1.420793E+0	1.450190E+0	1.377961E+0	1.366772E+0	1.433774E+0	1.451173E+0	1.391813E+0	1.435630E+0	1.404910E+0	1.336869E+0	1.425660E+0	1.353477E+0	1.352681E+0	1.377515E+0	1.380695E+0	1.368171E+0	1.383330E+0	1.392554E+0	1.389818E+0	1.377345E+0	1.419536E+0	1.421843E+0	1.340459E+0	1.416360E+0	1.387594E+0	1.392685E+0	1.398474E+0	1.352105E+0	1.373722E+0	1.376706E+0	1.420405E+0	1.383414E+0	1.404736E+0	1.401866E+0	1.368189E+0	1.341086E+0	1.404539E+0	1.351730E+0	1.405947E+0	1.403049E+0	1.404592E+0	1.371022E+0	1.316052E+0	1.386256E+0	1.415136E+0	1.376130E+0	1.347313E+0	1.406634E+0	1.426116E+0	1.373776E+0	1.414891E+0	1.421042E+0	1.384176E+0	1.384292E+0	1.368715E+0	1.380938E+0	1.395597E+0	1.387515E+0	1.370854E+0	1.344746E+0	1.425474E+0	1.338305E+0	1.370096E+0	1.366258E+0	1.384616E+0	1.370866E+0	1.430536E+0	1.340338E+0	1.377222E+0	1.313352E+0	1.353626E+0	1.341247E+0	1.426515E+0	1.379866E+0	1.360615E+0	1.395339E+0	1.416888E+0	1.394196E+0	1.431559E+0	1.373724E+0	1.346638E+0	1.385739E+0	1.394704E+0	1.379355E+0	1.372389E+0	1.417450E+0	1.365186E+0	1.385231E+0	1.335042E+0	1.382372E+0	1.363581E+0	1.395494E+0	1.431611E+0	1.407724E+0	1.388935E+0	1.433364E+0	1.396562E+0	1.350472E+0	1.340860E+0	1.357593E+0	1.407687E+0	1.373224E+0	1.393133E+0	1.365675E+0	1.377837E+0	1.402908E+0	1.365194E+0	1.366725E+0	1.331735E+0	1.327826E+0	1.385329E+0	1.359145E+0	1.387356E+0	1.348289E+0	1.341952E+0	1.369013E+0	1.306929E+0	1.320295E+0	1.349210E+0	1.377416E+0	1.369918E+0	1.374767E+0	1.357447E+0	1.343236E+0	1.390579E+0	1.404445E+0	1.319166E+0	1.422069E+0	1.398417E+0	1.326177E+0	1.374202E+0	1.388851E+0	1.444105E+0	1.374179E+0	1.355516E+0	1.369823E+0	1.326337E+0	1.356345E+0	1.344435E+0	1.369312E+0	1.307793E+0	1.375899E+0	1.363997E+0	1.358766E+0	1.365588E+0	1.349431E+0	1.395149E+0	1.367350E+0	1.392176E+0	1.384667E+0	1.321548E+0	1.407190E+0	1.374991E+0	1.330104E+0	1.395714E+0	1.391889E+0	1.331853E+0	1.347867E+0	1.320237E+0	1.369161E+0	1.355348E+0	1.367865E+0	1.345666E+0	1.368247E+0	1.407994E+0	1.427076E+0
5.482600E+2	1.495403E+0	1.445238E+0	1.433740E+0	1.452153E+0	1.535434E+0	1.504669E+0	1.476760E+0	1.498607E+0	1.461144E+0	1.468650E+0	1.490568E+0	1.533740E+0	1.488750E+0	1.536198E+0	1.506221E+0	1.429803E+0	1.503998E+0	1.490435E+0	1.493594E+0	1.481081E+0	1.477452E+0	1.456913E+0	1.479717E+0	1.529467E+0	1.456087E+0	1.448729E+0	1.420366E+0	1.477719E+0	1.475200E+0	1.479374E+0	1.478520E+0	1.500945E+0	1.519404E+0	1.462486E+0	1.486230E+0	1.448095E+0	1.501929E+0	1.433748E+0	1.444148E+0	1.469838E+0	1.507952E+0	1.510672E+0	1.514135E+0	1.485941E+0	1.517677E+0	1.463542E+0	1.453095E+0	1.401812E+0	1.416800E+0	1.463341E+0	1.492564E+0	1.502337E+0	1.461157E+0	1.501605E+0	1.523742E+0	1.486171E+0	1.486822E+0	1.443038E+0	1.499686E+0	1.525653E+0	1.462793E+0	1.447008E+0	1.445278E+0	1.457292E+0	1.480938E+0	1.479633E+0	1.423130E+0	1.442873E+0	1.454493E+0	1.404472E+0	1.452419E+0	1.461836E+0	1.525116E+0	1.469655E+0	1.470050E+0	1.425790E+0	1.370475E+0	1.512286E+0	1.487723E+0	1.523972E+0	1.408902E+0	1.470346E+0	1.456514E+0	1.472010E+0	1.447706E+0	1.489968E+0	1.464937E+0	1.498657E+0	1.456413E+0	1.466547E+0	1.496138E+0	1.410338E+0	1.425421E+0	1.455026E+0	1.422833E+0	1.449939E+0	1.459031E+0	1.439237E+0	1.431203E+0	1.367367E+0	1.465637E+0	1.505436E+0	1.431113E+0	1.454331E+0	1.447782E+0	1.377409E+0	1.424696E+0	1.442970E+0	1.433448E+0	1.464709E+0	1.490603E+0	1.421814E+0	1.451306E+0	1.465830E+0	1.543412E+0	1.462395E+0	1.496027E+0	1.409035E+0	1.500218E+0	1.445597E+0	1.441830E+0	1.516665E+0	1.460361E+0	1.455314E+0	1.441376E+0	1.447164E+0	1.479176E+0	1.451266E+0	1.419523E+0	1.479459E+0	1.460599E+0	1.470149E+0	1.483145E+0	1.464167E+0	1.464246E+0	1.445293E+0	1.435204E+0	1.469081E+0	1.548784E+0	1.418504E+0	1.461650E+0	1.482586E+0	1.431799E+0	1.443623E+0	1.414432E+0	1.452850E+0	1.487419E+0	1.450000E+0	1.443806E+0	1.479052E+0	1.414235E+0	1.466138E+0	1.432201E+0	1.454083E+0	1.450319E+0	1.458189E+0	1.444634E+0	1.484684E+0	1.422253E+0	1.423457E+0	1.469855E+0	1.455096E+0	1.430500E+0	1.426160E+0	1.454790E+0	1.478145E+0	1.422766E+0	1.461965E+0	1.461663E+0	1.418664E+0	1.408067E+0
5.490160E+2	1.479836E+0	1.399519E+0	1.388066E+0	1.456035E+0	1.412722E+0	1.463462E+0	1.402220E+0	1.383730E+0	1.459226E+0	1.427790E+0	1.429202E+0	1.427635E+0	1.448653E+0	1.429821E+0	1.452577E+0	1.453336E+0	1.382285E+0	1.416998E+0	1.473497E+0	1.437158E+0	1.377786E+0	1.468353E+0	1.432083E+0	1.429098E+0	1.394867E+0	1.441288E+0	1.402432E+0	1.447868E+0	1.454419E+0	1.480816E+0	1.447578E+0	1.462466E+0	1.458436E+0	1.394196E+0	1.375588E+0	1.444947E+0	1.492985E+0	1.429859E+0	1.444215E+0	1.438670E+0	1.402329E+0	1.415402E+0	1.461073E+0	1.390247E+0	1.425517E+0	1.449593E+0	1.427532E+0	1.431857E+0	1.435774E+0	1.431161E+0	1.395127E+0	1.423320E+0	1.415919E+0	1.441219E+0	1.414524E+0	1.413410E+0	1.449360E+0	1.471539E+0	1.433537E+0	1.447661E+0	1.404516E+0	1.463435E+0	1.452632E+0	1.392376E+0	1.422017E+0	1.406645E+0	1.478381E+0	1.442885E+0	1.312954E+0	1.330286E+0	1.432486E+0	1.432603E+0	1.459690E+0	1.437481E+0	1.414598E+0	1.452348E+0	1.385349E+0	1.434574E+0	1.468537E+0	1.424027E+0	1.387835E+0	1.452166E+0	1.424192E+0	1.407496E+0	1.430158E+0	1.452964E+0	1.440647E+0	1.442320E+0	1.383303E+0	1.406285E+0	1.427197E+0	1.393791E+0	1.392082E+0	1.428843E+0	1.516309E+0	1.406246E+0	1.384899E+0	1.393052E+0	1.399583E+0	1.419921E+0	1.426225E+0	1.473853E+0	1.447745E+0	1.429731E+0	1.424258E+0	1.416238E+0	1.429982E+0	1.411470E+0	1.399977E+0	1.406289E+0	1.461612E+0	1.377542E+0	1.406072E+0	1.389427E+0	1.376163E+0	1.418868E+0	1.397913E+0	1.428980E+0	1.411243E+0	1.436844E+0	1.432999E+0	1.451473E+0	1.384968E+0	1.401350E+0	1.374239E+0	1.391425E+0	1.432642E+0	1.419006E+0	1.438738E+0	1.456609E+0	1.404382E+0	1.376807E+0	1.445461E+0	1.413047E+0	1.412089E+0	1.366071E+0	1.379874E+0	1.459574E+0	1.410450E+0	1.379514E+0	1.407437E+0	1.388738E+0	1.435168E+0	1.392838E+0	1.392664E+0	1.360981E+0	1.397532E+0	1.367031E+0	1.411381E+0	1.372877E+0	1.348933E+0	1.411406E+0	1.376923E+0	1.414018E+0	1.403843E+0	1.410268E+0	1.405954E+0	1.480956E+0	1.408214E+0	1.387318E+0	1.433812E+0	1.383817E+0	1.392100E+0	1.357314E+0	1.435527E+0	1.429438E+0	1.445471E+0	1.365837E+0	1.472800E+0	1.361651E+0	1.406671E+0
5.497740E+2	1.472516E+0	1.410915E+0	1.460372E+0	1.452167E+0	1.428012E+0	1.434284E+0	1.426783E+0	1.418521E+0	1.451784E+0	1.399500E+0	1.435028E+0	1.403355E+0	1.366838E+0	1.482774E+0	1.417568E+0	1.445665E+0	1.472717E+0	1.447725E+0	1.446045E+0	1.454573E+0	1.440099E+0	1.392640E+0	1.356487E+0	1.391129E+0	1.359828E+0	1.414788E+0	1.431854E+0	1.401574E+0	1.450458E+0	1.461882E+0	1.385626E+0	1.411363E+0	1.455560E+0	1.415841E+0	1.363701E+0	1.413382E+0	1.485018E+0	1.428592E+0	1.435635E+0	1.363714E+0	1.478219E+0	1.457096E+0	1.442208E+0	1.411067E+0	1.369237E+0	1.415760E+0	1.394809E+0	1.379091E+0	1.399846E+0	1.462416E+0	1.382194E+0	1.436664E+0	1.463101E+0	1.426489E+0	1.396660E+0	1.371276E+0	1.450806E+0	1.431906E+0	1.442502E+0	1.396357E+0	1.373769E+0	1.474717E+0	1.464937E+0	1.385522E+0	1.415845E+0	1.423399E+0	1.435604E+0	1.443299E+0	1.410060E+0	1.358156E+0	1.453682E+0	1.406386E+0	1.441117E+0	1.439094E+0	1.393121E+0	1.436181E+0	1.352463E+0	1.472374E+0	1.447725E+0	1.427525E+0	1.388931E+0	1.466798E+0	1.414995E+0	1.379802E+0	1.421392E+0	1.424521E+0	1.417886E+0	1.387305E+0	1.392993E+0	1.447323E+0	1.427437E+0	1.357550E+0	1.354688E+0	1.387228E+0	1.449200E+0	1.402258E+0	1.377412E+0	1.429223E+0	1.408687E+0	1.384067E+0	1.349193E+0	1.418213E+0	1.397691E+0	1.377584E+0	1.454881E+0	1.433718E+0	1.495312E+0	1.369334E+0	1.453650E+0	1.411725E+0	1.399538E+0	1.404375E+0	1.419025E+0	1.394047E+0	1.413277E+0	1.454869E+0	1.440428E+0	1.459032E+0	1.447392E+0	1.436745E+0	1.360089E+0	1.425494E+0	1.413959E+0	1.435294E+0	1.387340E+0	1.452434E+0	1.434546E+0	1.410223E+0	1.381079E+0	1.417572E+0	1.366165E+0	1.401539E+0	1.439986E+0	1.416939E+0	1.398651E+0	1.411044E+0	1.363761E+0	1.438452E+0	1.459494E+0	1.367895E+0	1.400391E+0	1.461782E+0	1.371544E+0	1.416404E+0	1.402074E+0	1.384252E+0	1.363971E+0	1.379649E+0	1.390910E+0	1.386464E+0	1.424719E+0	1.440880E+0	1.408559E+0	1.370848E+0	1.385905E+0	1.426397E+0	1.358340E+0	1.405680E+0	1.406856E+0	1.414598E+0	1.379374E+0	1.440034E+0	1.400356E+0	1.420265E+0	1.497488E+0	1.401995E+0	1.362427E+0	1.410012E+0	1.454057E+0	1.369540E+0	1.412225E+0
5.505170E+2	1.410505E+0	1.426932E+0	1.419846E+0	1.452131E+0	1.371922E+0	1.431370E+0	1.414698E+0	1.419157E+0	1.481438E+0	1.393944E+0	1.393482E+0	1.396462E+0	1.448669E+0	1.465260E+0	1.388527E+0	1.369075E+0	1.401878E+0	1.363241E+0	1.367490E+0	1.405330E+0	1.443420E+0	1.436112E+0	1.403989E+0	1.360334E+0	1.371829E+0	1.424273E+0	1.389657E+0	1.401048E+0	1.370138E+0	1.443601E+0	1.379620E+0	1.393090E+0	1.418105E+0	1.434886E+0	1.334616E+0	1.400862E+0	1.408776E+0	1.412301E+0	1.387896E+0	1.421525E+0	1.425453E+0	1.435826E+0	1.423919E+0	1.429422E+0	1.411427E+0	1.372582E+0	1.384955E+0	1.418354E+0	1.364719E+0	1.401658E+0	1.355713E+0	1.368325E+0	1.445247E+0	1.398221E+0	1.369033E+0	1.396522E+0	1.442901E+0	1.421979E+0	1.344689E+0	1.406122E+0	1.452789E+0	1.425390E+0	1.428785E+0	1.365649E+0	1.368071E+0	1.426858E+0	1.427719E+0	1.371936E+0	1.353803E+0	1.353672E+0	1.363975E+0	1.411831E+0	1.376064E+0	1.417519E+0	1.344947E+0	1.447208E+0	1.351808E+0	1.456769E+0	1.411695E+0	1.389155E+0	1.387851E+0	1.397864E+0	1.420221E+0	1.313283E+0	1.423656E+0	1.451426E+0	1.338416E+0	1.336001E+0	1.361105E+0	1.478573E+0	1.393947E+0	1.396771E+0	1.396873E+0	1.441796E+0	1.386964E+0	1.388072E+0	1.393851E+0	1.382169E+0	1.377844E+0	1.391913E+0	1.319423E+0	1.406407E+0	1.373011E+0	1.379164E+0	1.389439E+0	1.427888E+0	1.430918E+0	1.363425E+0	1.394982E+0	1.367918E+0	1.457534E+0	1.373376E+0	1.394749E+0	1.368501E+0	1.420858E+0	1.389270E+0	1.386958E+0	1.429043E+0	1.383685E+0	1.366270E+0	1.471050E+0	1.428844E+0	1.376732E+0	1.355318E+0	1.422368E+0	1.446522E+0	1.348620E+0	1.402559E+0	1.395233E+0	1.397290E+0	1.359084E+0	1.357628E+0	1.405064E+0	1.414057E+0	1.447921E+0	1.365273E+0	1.383333E+0	1.412941E+0	1.492440E+0	1.401469E+0	1.380754E+0	1.398583E+0	1.378227E+0	1.421184E+0	1.387092E+0	1.387678E+0	1.403016E+0	1.364209E+0	1.410367E+0	1.396783E+0	1.394676E+0	1.456961E+0	1.389732E+0	1.468335E+0	1.361597E+0	1.354159E+0	1.433591E+0	1.447011E+0	1.378103E+0	1.355340E+0	1.381719E+0	1.422040E+0	1.404249E+0	1.373956E+0	1.364593E+0	1.381018E+0	1.362030E+0	1.427717E+0	1.399459E+0	1.411464E+0	1.365411E+0
5.512570E+2	1.403054E+0	1.418833E+0	1.395741E+0	1.361686E+0	1.368091E+0	1.361895E+0	1.388373E+0	1.360215E+0	1.337473E+0	1.358198E+0	1.389400E+0	1.359610E+0	1.386396E+0	1.358718E+0	1.410399E+0	1.362459E+0	1.413919E+0	1.377330E+0	1.436884E+0	1.372094E+0	1.413484E+0	1.337196E+0	1.335992E+0	1.414153E+0	1.365447E+0	1.414155E+0	1.335396E+0	1.391298E+0	1.382756E+0	1.410877E+0	1.393546E+0	1.388477E+0	1.354285E+0	1.421513E+0	1.382974E+0	1.336005E+0	1.398047E+0	1.409328E+0	1.376768E+0	1.325818E+0	1.414793E+0	1.359183E+0	1.430527E+0	1.344643E+0	1.391635E+0	1.392364E+0	1.367732E+0	1.379876E+0	1.426812E+0	1.419893E+0	1.394869E+0	1.338546E+0	1.422351E+0	1.389348E+0	1.416029E+0	1.386959E+0	1.419536E+0	1.343980E+0	1.434300E+0	1.372278E+0	1.416538E+0	1.374073E+0	1.357503E+0	1.321689E+0	1.381669E+0	1.418322E+0	1.390558E+0	1.367502E+0	1.422175E+0	1.390716E+0	1.348227E+0	1.414355E+0	1.371744E+0	1.383428E+0	1.373688E+0	1.404674E+0	1.370483E+0	1.414820E+0	1.353341E+0	1.429160E+0	1.373152E+0	1.430119E+0	1.376351E+0	1.348404E+0	1.388307E+0	1.387949E+0	1.386590E+0	1.424045E+0	1.361625E+0	1.382712E+0	1.365143E+0	1.368943E+0	1.355374E+0	1.449214E+0	1.397158E+0	1.342476E+0	1.410734E+0	1.373990E+0	1.364183E+0	1.363835E+0	1.390767E+0	1.409195E+0	1.390486E+0	1.354877E+0	1.375337E+0	1.425081E+0	1.415939E+0	1.344263E+0	1.414786E+0	1.384275E+0	1.385140E+0	1.373145E+0	1.385733E+0	1.363028E+0	1.415832E+0	1.386902E+0	1.392335E+0	1.337299E+0	1.353681E+0	1.350464E+0	1.426029E+0	1.331559E+0	1.301113E+0	1.393585E+0	1.381731E+0	1.372928E+0	1.335695E+0	1.379572E+0	1.356108E+0	1.366192E+0	1.331543E+0	1.329568E+0	1.424057E+0	1.394918E+0	1.393266E+0	1.357745E+0	1.378863E+0	1.410573E+0	1.416833E+0	1.393354E+0	1.339386E+0	1.362190E+0	1.375233E+0	1.321960E+0	1.398270E+0	1.366654E+0	1.357667E+0	1.349341E+0	1.358582E+0	1.424008E+0	1.396569E+0	1.387401E+0	1.364717E+0	1.356760E+0	1.363403E+0	1.403141E+0	1.397583E+0	1.422721E+0	1.378519E+0	1.361370E+0	1.307849E+0	1.405648E+0	1.351976E+0	1.353242E+0	1.346709E+0	1.388241E+0	1.361378E+0	1.382185E+0	1.320812E+0	1.285535E+0	1.375969E+0
5.520210E+2	1.310516E+0	1.313198E+0	1.263008E+0	1.279427E+0	1.296422E+0	1.348416E+0	1.266207E+0	1.297652E+0	1.292088E+0	1.306056E+0	1.308338E+0	1.327062E+0	1.330294E+0	1.330513E+0	1.294149E+0	1.318758E+0	1.324526E+0	1.311136E+0	1.269957E+0	1.279704E+0	1.279283E+0	1.256137E+0	1.278032E+0	1.244556E+0	1.280618E+0	1.284560E+0	1.251355E+0	1.270026E+0	1.288905E+0	1.315063E+0	1.303821E+0	1.306157E+0	1.284108E+0	1.307640E+0	1.284204E+0	1.236842E+0	1.328346E+0	1.314670E+0	1.307208E+0	1.317368E+0	1.319217E+0	1.320485E+0	1.290205E+0	1.314372E+0	1.235909E+0	1.239439E+0	1.274671E+0	1.319063E+0	1.261354E+0	1.278631E+0	1.299708E+0	1.256010E+0	1.305753E+0	1.321423E+0	1.296063E+0	1.283187E+0	1.298401E+0	1.300269E+0	1.273113E+0	1.311110E+0	1.236546E+0	1.331829E+0	1.311430E+0	1.302127E+0	1.262229E+0	1.261122E+0	1.282844E+0	1.256266E+0	1.266416E+0	1.289308E+0	1.254574E+0	1.268931E+0	1.272691E+0	1.305365E+0	1.276263E+0	1.293500E+0	1.278968E+0	1.341272E+0	1.283823E+0	1.262158E+0	1.291873E+0	1.264838E+0	1.309702E+0	1.285866E+0	1.283899E+0	1.284677E+0	1.310715E+0	1.338375E+0	1.298166E+0	1.319366E+0	1.328348E+0	1.270829E+0	1.295351E+0	1.264391E+0	1.229637E+0	1.236939E+0	1.265280E+0	1.328225E+0	1.266780E+0	1.227218E+0	1.289988E+0	1.334863E+0	1.350869E+0	1.315644E+0	1.289221E+0	1.302189E+0	1.321189E+0	1.299056E+0	1.311661E+0	1.292787E+0	1.295134E+0	1.292393E+0	1.247271E+0	1.284606E+0	1.254927E+0	1.279632E+0	1.303385E+0	1.365009E+0	1.292562E+0	1.283528E+0	1.293053E+0	1.242596E+0	1.208477E+0	1.287288E+0	1.301417E+0	1.264367E+0	1.258064E+0	1.286290E+0	1.219882E+0	1.365165E+0	1.289036E+0	1.305034E+0	1.264765E+0	1.314543E+0	1.319255E+0	1.310881E+0	1.262776E+0	1.326206E+0	1.298633E+0	1.253360E+0	1.253041E+0	1.314525E+0	1.272507E+0	1.290062E+0	1.329921E+0	1.313600E+0	1.260333E+0	1.269180E+0	1.302315E+0	1.274319E+0	1.324747E+0	1.289688E+0	1.247548E+0	1.274043E+0	1.269504E+0	1.276749E+0	1.310452E+0	1.319552E+0	1.314225E+0	1.293175E+0	1.280456E+0	1.351794E+0	1.270854E+0	1.287301E+0	1.300888E+0	1.305112E+0	1.324757E+0	1.274310E+0	1.275998E+0	1.283649E+0	1.226693E+0
5.527590E+2	1.385750E+0	1.320080E+0	1.255905E+0	1.321801E+0	1.278920E+0	1.310856E+0	1.312647E+0	1.316903E+0	1.281213E+0	1.379613E+0	1.302508E+0	1.344354E+0	1.278071E+0	1.322772E+0	1.314602E+0	1.304636E+0	1.318522E+0	1.307284E+0	1.327246E+0	1.270616E+0	1.307388E+0	1.260676E+0	1.284353E+0	1.297602E+0	1.300879E+0	1.295312E+0	1.324436E+0	1.338618E+0	1.343088E+0	1.297365E+0	1.315165E+0	1.304170E+0	1.286269E+0	1.334436E+0	1.297893E+0	1.306731E+0	1.347580E+0	1.327764E+0	1.328420E+0	1.276955E+0	1.313416E+0	1.313404E+0	1.369655E+0	1.342826E+0	1.301598E+0	1.300987E+0	1.289059E+0	1.267624E+0	1.257405E+0	1.244441E+0	1.258959E+0	1.327878E+0	1.283889E+0	1.259232E+0	1.233062E+0	1.322971E+0	1.322455E+0	1.294167E+0	1.333652E+0	1.335212E+0	1.313661E+0	1.292941E+0	1.275506E+0	1.248147E+0	1.256623E+0	1.284151E+0	1.277506E+0	1.294546E+0	1.293494E+0	1.293711E+0	1.306928E+0	1.311921E+0	1.240982E+0	1.284554E+0	1.326118E+0	1.307255E+0	1.317421E+0	1.345268E+0	1.312933E+0	1.294791E+0	1.304461E+0	1.349215E+0	1.269687E+0	1.359339E+0	1.316811E+0	1.296417E+0	1.278448E+0	1.294267E+0	1.277744E+0	1.325565E+0	1.273168E+0	1.303233E+0	1.313956E+0	1.287822E+0	1.344364E+0	1.295977E+0	1.317877E+0	1.311950E+0	1.290978E+0	1.267885E+0	1.264950E+0	1.309817E+0	1.306553E+0	1.312963E+0	1.290111E+0	1.301768E+0	1.320725E+0	1.268240E+0	1.278668E+0	1.310357E+0	1.321331E+0	1.272277E+0	1.272869E+0	1.358452E+0	1.342239E+0	1.290668E+0	1.351318E+0	1.270555E+0	1.284533E+0	1.263656E+0	1.263143E+0	1.220505E+0	1.256908E+0	1.267654E+0	1.254509E+0	1.252031E+0	1.325604E+0	1.296336E+0	1.296084E+0	1.263196E+0	1.283973E+0	1.302044E+0	1.311907E+0	1.303083E+0	1.318346E+0	1.301504E+0	1.296885E+0	1.292505E+0	1.318983E+0	1.242068E+0	1.257090E+0	1.330882E+0	1.303295E+0	1.301475E+0	1.306497E+0	1.239585E+0	1.244327E+0	1.302863E+0	1.297035E+0	1.313794E+0	1.283398E+0	1.288987E+0	1.302859E+0	1.329181E+0	1.327246E+0	1.254093E+0	1.270957E+0	1.312934E+0	1.317707E+0	1.280868E+0	1.299675E+0	1.240261E+0	1.255527E+0	1.314817E+0	1.341386E+0	1.277475E+0	1.273492E+0	1.304299E+0	1.345291E+0	1.281602E+0	1.271664E+0
5.535220E+2	1.236882E+0	1.183707E+0	1.236590E+0	1.257288E+0	1.234539E+0	1.199677E+0	1.249535E+0	1.217884E+0	1.211846E+0	1.177537E+0	1.222891E+0	1.199734E+0	1.211137E+0	1.220190E+0	1.247803E+0	1.220300E+0	1.213403E+0	1.214217E+0	1.233482E+0	1.206629E+0	1.154214E+0	1.222833E+0	1.196877E+0	1.197289E+0	1.152335E+0	1.173323E+0	1.221495E+0	1.249868E+0	1.198212E+0	1.187384E+0	1.224150E+0	1.198920E+0	1.198299E+0	1.185805E+0	1.145259E+0	1.183438E+0	1.230742E+0	1.218052E+0	1.155632E+0	1.178672E+0	1.280403E+0	1.219913E+0	1.216983E+0	1.226855E+0	1.204440E+0	1.183866E+0	1.171998E+0	1.260140E+0	1.144185E+0	1.203062E+0	1.225826E+0	1.135538E+0	1.247094E+0	1.215150E+0	1.171389E+0	1.238129E+0	1.223731E+0	1.197286E+0	1.189919E+0	1.232588E+0	1.218474E+0	1.212582E+0	1.158644E+0	1.203599E+0	1.176116E+0	1.233168E+0	1.222815E+0	1.211726E+0	1.185768E+0	1.169757E+0	1.198776E+0	1.175499E+0	1.182083E+0	1.214507E+0	1.183902E+0	1.185709E+0	1.170472E+0	1.193965E+0	1.264428E+0	1.216237E+0	1.264620E+0	1.296463E+0	1.230135E+0	1.157557E+0	1.195587E+0	1.207693E+0	1.174625E+0	1.208175E+0	1.202336E+0	1.246202E+0	1.228386E+0	1.146612E+0	1.228282E+0	1.207832E+0	1.181619E+0	1.184753E+0	1.215389E+0	1.241026E+0	1.277101E+0	1.209805E+0	1.234917E+0	1.179240E+0	1.196735E+0	1.230727E+0	1.199982E+0	1.211396E+0	1.248228E+0	1.163760E+0	1.197142E+0	1.221352E+0	1.246201E+0	1.148502E+0	1.222326E+0	1.234317E+0	1.199657E+0	1.208358E+0	1.187143E+0	1.159449E+0	1.218352E+0	1.160306E+0	1.245839E+0	1.204447E+0	1.141243E+0	1.218671E+0	1.217247E+0	1.163091E+0	1.192154E+0	1.199097E+0	1.202507E+0	1.200362E+0	1.188916E+0	1.162718E+0	1.162859E+0	1.213363E+0	1.183090E+0	1.212217E+0	1.197355E+0	1.248136E+0	1.228139E+0	1.199012E+0	1.174536E+0	1.221089E+0	1.202347E+0	1.189860E+0	1.181414E+0	1.249214E+0	1.225139E+0	1.146674E+0	1.186602E+0	1.200945E+0	1.145843E+0	1.205632E+0	1.197965E+0	1.210066E+0	1.244859E+0	1.146239E+0	1.183887E+0	1.200483E+0	1.274865E+0	1.242321E+0	1.208334E+0	1.220601E+0	1.192793E+0	1.176318E+0	1.194700E+0	1.226191E+0	1.196000E+0	1.228906E+0	1.143566E+0	1.230632E+0	1.125933E+0
5.542580E+2	1.176035E+0	1.152283E+0	1.195997E+0	1.169815E+0	1.217924E+0	1.174690E+0	1.163977E+0	1.157076E+0	1.174067E+0	1.162366E+0	1.138298E+0	1.193757E+0	1.148955E+0	1.134858E+0	1.181352E+0	1.138780E+0	1.170672E+0	1.159965E+0	1.162396E+0	1.152641E+0	1.146524E+0	1.134742E+0	1.165906E+0	1.139128E+0	1.166956E+0	1.200718E+0	1.128195E+0	1.182122E+0	1.166644E+0	1.136201E+0	1.165670E+0	1.138546E+0	1.136163E+0	1.139190E+0	1.120754E+0	1.201169E+0	1.217465E+0	1.137390E+0	1.156120E+0	1.132640E+0	1.160368E+0	1.157592E+0	1.164194E+0	1.186625E+0	1.131930E+0	1.096256E+0	1.111780E+0	1.089640E+0	1.127503E+0	1.177398E+0	1.135833E+0	1.083254E+0	1.145130E+0	1.119382E+0	1.116002E+0	1.179880E+0	1.142280E+0	1.112461E+0	1.118166E+0	1.129108E+0	1.140973E+0	1.204953E+0	1.180176E+0	1.128447E+0	1.167206E+0	1.144463E+0	1.170562E+0	1.174215E+0	1.133888E+0	1.123329E+0	1.133384E+0	1.159004E+0	1.159859E+0	1.163092E+0	1.116574E+0	1.140277E+0	1.100658E+0	1.165888E+0	1.174455E+0	1.121532E+0	1.169952E+0	1.166245E+0	1.164356E+0	1.134056E+0	1.097347E+0	1.139755E+0	1.200165E+0	1.123995E+0	1.132994E+0	1.124513E+0	1.179129E+0	1.099963E+0	1.175061E+0	1.137507E+0	1.236608E+0	1.091073E+0	1.167301E+0	1.184925E+0	1.124451E+0	1.178797E+0	1.105681E+0	1.195337E+0	1.161561E+0	1.180224E+0	1.141482E+0	1.179655E+0	1.125568E+0	1.133468E+0	1.156129E+0	1.126161E+0	1.130082E+0	1.128128E+0	1.149102E+0	1.123743E+0	1.110867E+0	1.168441E+0	1.203090E+0	1.173365E+0	1.122248E+0	1.106398E+0	1.136521E+0	1.140170E+0	1.142305E+0	1.146039E+0	1.176760E+0	1.162494E+0	1.135944E+0	1.155335E+0	1.128616E+0	1.149373E+0	1.191074E+0	1.170761E+0	1.160708E+0	1.160017E+0	1.163928E+0	1.168135E+0	1.130405E+0	1.117999E+0	1.145763E+0	1.134551E+0	1.188080E+0	1.227110E+0	1.137427E+0	1.141984E+0	1.141463E+0	1.163743E+0	1.161845E+0	1.161930E+0	1.133044E+0	1.183495E+0	1.129301E+0	1.137011E+0	1.133142E+0	1.137964E+0	1.177411E+0	1.188871E+0	1.136570E+0	1.181564E+0	1.128437E+0	1.114870E+0	1.117046E+0	1.139847E+0	1.124499E+0	1.167565E+0	1.138037E+0	1.151354E+0	1.183413E+0	1.148768E+0	1.118963E+0	1.121043E+0	1.176317E+0
5.550140E+2	1.047913E+0	1.051941E+0	1.069815E+0	1.066086E+0	1.039301E+0	1.033274E+0	1.054187E+0	1.042313E+0	1.038201E+0	1.064454E+0	1.104743E+0	1.078057E+0	1.075566E+0	1.060123E+0	1.133182E+0	1.053088E+0	1.048711E+0	1.051914E+0	1.120426E+0	1.044197E+0	9.923223E-1	1.018038E+0	1.057401E+0	1.065512E+0	1.038153E+0	1.089954E+0	1.057340E+0	1.067520E+0	1.092465E+0	1.095381E+0	1.063688E+0	1.070898E+0	1.076905E+0	1.062883E+0	1.040990E+0	1.084648E+0	1.095436E+0	1.081626E+0	1.071124E+0	1.047796E+0	1.051759E+0	1.098877E+0	1.040386E+0	1.042055E+0	1.043556E+0	1.067263E+0	1.060569E+0	1.022633E+0	1.025998E+0	1.077091E+0	1.049315E+0	1.037692E+0	1.081932E+0	1.034902E+0	1.050452E+0	1.050344E+0	1.078917E+0	1.117608E+0	1.077988E+0	1.023897E+0	1.000364E+0	1.054475E+0	1.106221E+0	1.038248E+0	1.042113E+0	1.064042E+0	1.086963E+0	1.056446E+0	1.066998E+0	1.027916E+0	1.055809E+0	1.078962E+0	1.037691E+0	1.060777E+0	1.052547E+0	1.103926E+0	1.007516E+0	1.044672E+0	1.097419E+0	1.086373E+0	1.083147E+0	1.104433E+0	1.078379E+0	1.019437E+0	1.099056E+0	1.037366E+0	1.040229E+0	1.133589E+0	1.054178E+0	1.068071E+0	1.048464E+0	1.060944E+0	1.077343E+0	1.073464E+0	1.072131E+0	1.037005E+0	1.072173E+0	1.058990E+0	1.078350E+0	1.032316E+0	1.042572E+0	1.084734E+0	1.063212E+0	1.056462E+0	1.054712E+0	1.047890E+0	1.055933E+0	1.078049E+0	1.039456E+0	1.060063E+0	1.073852E+0	1.044634E+0	1.049937E+0	1.064885E+0	1.102687E+0	1.039677E+0	1.071425E+0	1.054090E+0	1.040981E+0	1.072619E+0	1.021786E+0	1.062748E+0	1.033798E+0	1.070971E+0	1.038329E+0	1.075201E+0	1.059926E+0	1.034752E+0	1.025375E+0	1.070855E+0	1.131119E+0	1.081266E+0	1.053782E+0	1.027807E+0	1.056349E+0	1.123924E+0	1.045549E+0	1.097860E+0	1.090275E+0	9.990896E-1	1.069912E+0	1.029446E+0	1.054758E+0	1.069309E+0	1.074320E+0	1.013808E+0	1.036136E+0	1.060807E+0	1.080817E+0	1.068985E+0	1.084224E+0	1.090737E+0	1.036079E+0	1.082198E+0	1.061956E+0	1.059585E+0	1.018045E+0	1.111099E+0	1.049570E+0	1.022162E+0	1.060085E+0	1.064669E+0	1.041172E+0	1.021129E+0	1.088686E+0	1.103413E+0	1.072323E+0	1.040368E+0	1.027864E+0	1.093848E+0	1.040484E+0
5.557600E+2	1.062368E+0	1.005225E+0	1.016096E+0	1.038996E+0	1.016500E+0	1.010521E+0	9.975414E-1	1.010360E+0	1.008680E+0	1.005133E+0	1.011327E+0	1.016630E+0	1.013419E+0	1.006097E+0	1.026135E+0	1.033973E+0	9.756272E-1	1.008324E+0	9.577528E-1	9.783153E-1	9.912397E-1	1.021902E+0	1.031355E+0	1.055166E+0	9.942174E-1	1.063516E+0	1.003335E+0	1.063785E+0	1.033655E+0	1.002877E+0	1.036645E+0	9.773645E-1	1.002270E+0	9.615109E-1	1.015923E+0	1.007682E+0	1.019141E+0	1.055161E+0	1.003636E+0	1.047706E+0	1.013664E+0	1.036593E+0	1.048259E+0	1.020734E+0	1.006455E+0	1.017126E+0	9.943213E-1	1.029255E+0	1.025185E+0	1.008880E+0	1.022859E+0	9.949595E-1	1.037113E+0	1.016373E+0	9.693955E-1	1.018396E+0	9.695422E-1	1.039387E+0	1.010166E+0	1.090205E+0	1.000964E+0	1.034418E+0	1.062265E+0	1.041587E+0	1.022739E+0	1.063520E+0	1.007019E+0	1.037898E+0	9.992685E-1	1.027464E+0	1.028253E+0	1.025424E+0	1.028417E+0	1.005945E+0	1.064155E+0	1.011270E+0	9.954723E-1	1.058372E+0	1.085546E+0	1.042551E+0	9.745535E-1	9.874209E-1	9.482715E-1	9.588967E-1	1.042291E+0	9.876030E-1	1.002123E+0	1.015287E+0	1.017198E+0	1.011629E+0	1.003210E+0	1.011869E+0	1.034903E+0	1.014218E+0	1.048200E+0	1.002719E+0	9.850156E-1	9.838588E-1	1.053768E+0	1.013255E+0	1.023338E+0	1.012643E+0	1.072061E+0	9.942984E-1	1.026704E+0	1.039936E+0	1.053281E+0	1.025852E+0	1.067959E+0	1.030568E+0	1.033689E+0	9.888896E-1	1.036350E+0	9.907975E-1	1.040639E+0	1.024596E+0	1.041388E+0	1.022045E+0	1.100581E+0	1.027884E+0	1.000373E+0	1.001873E+0	1.024698E+0	1.026569E+0	1.001869E+0	1.019552E+0	1.009179E+0	1.051176E+0	1.058834E+0	1.014143E+0	1.048812E+0	1.038724E+0	9.672369E-1	1.052483E+0	9.800121E-1	1.044695E+0	1.026993E+0	1.098769E+0	9.961668E-1	1.010789E+0	1.025653E+0	1.028899E+0	1.066361E+0	1.017101E+0	9.984309E-1	9.945052E-1	1.008295E+0	1.013391E+0	1.025733E+0	1.041171E+0	9.897544E-1	1.054651E+0	1.042638E+0	1.019602E+0	1.024455E+0	1.036890E+0	1.030670E+0	1.011005E+0	1.073400E+0	1.022691E+0	9.767574E-1	1.037105E+0	1.046298E+0	9.811419E-1	1.071416E+0	1.029849E+0	1.050628E+0	9.976665E-1	1.022456E+0	9.893728E-1	9.987825E-1
5.560130E+2	9.773516E-1	9.692689E-1	9.841584E-1	9.587040E-1	9.569191E-1	9.426652E-1	9.800900E-1	9.279651E-1	9.230763E-1	9.112722E-1	9.127063E-1	9.631860E-1	9.622860E-1	9.291447E-1	9.299914E-1	9.628859E-1	9.587663E-1	9.357950E-1	9.701618E-1	9.444023E-1	9.714457E-1	9.477862E-1	9.322721E-1	9.460396E-1	9.450693E-1	9.935761E-1	9.512202E-1	9.653479E-1	9.409329E-1	9.439329E-1	9.489655E-1	9.461067E-1	9.949345E-1	9.572683E-1	9.232135E-1	9.386527E-1	9.515737E-1	9.636928E-1	9.675357E-1	9.488851E-1	9.177785E-1	9.570426E-1	9.548852E-1	9.374504E-1	9.000523E-1	9.421152E-1	9.216814E-1	9.302272E-1	9.471058E-1	9.348788E-1	9.552384E-1	9.417303E-1	9.273515E-1	9.321175E-1	9.117863E-1	9.488041E-1	9.659334E-1	9.236608E-1	9.280466E-1	9.683133E-1	9.447752E-1	9.456043E-1	9.598696E-1	9.308203E-1	9.382558E-1	1.033626E+0	9.581759E-1	9.289816E-1	9.364181E-1	9.721346E-1	9.403376E-1	9.030115E-1	9.528502E-1	9.308095E-1	9.426078E-1	9.681297E-1	9.609235E-1	9.496463E-1	1.000973E+0	9.918061E-1	9.488477E-1	9.217988E-1	9.976592E-1	9.130983E-1	9.465717E-1	9.436088E-1	8.994513E-1	9.098218E-1	9.070411E-1	9.219677E-1	9.726579E-1	9.739099E-1	9.801425E-1	9.547524E-1	9.928752E-1	9.647664E-1	9.623517E-1	9.780247E-1	9.512499E-1	9.376833E-1	9.395554E-1	9.703096E-1	9.845346E-1	9.364983E-1	9.419829E-1	9.265806E-1	9.056049E-1	9.900464E-1	9.532255E-1	9.658510E-1	9.564420E-1	9.217869E-1	9.674159E-1	9.446926E-1	9.465451E-1	9.533320E-1	9.738172E-1	9.431968E-1	9.690660E-1	9.717738E-1	9.277454E-1	9.311993E-1	9.625545E-1	9.530622E-1	9.541145E-1	9.334910E-1	9.776724E-1	9.582492E-1	9.517630E-1	9.769271E-1	9.667267E-1	9.661230E-1	9.698837E-1	9.305154E-1	9.522907E-1	9.805001E-1	9.428854E-1	9.371889E-1	9.505653E-1	9.446531E-1	9.834668E-1	9.435552E-1	9.683685E-1	9.680289E-1	9.559232E-1	9.865926E-1	9.654774E-1	9.474282E-1	9.742194E-1	9.654436E-1	9.478482E-1	9.633610E-1	9.565934E-1	9.142856E-1	9.635191E-1	9.445743E-1	9.921239E-1	9.725077E-1	9.304184E-1	9.385687E-1	9.891252E-1	9.495487E-1	9.193595E-1	9.340708E-1	9.640250E-1	9.496220E-1	9.341868E-1	9.530532E-1	9.654172E-1	9.259711E-1	9.014938E-1
5.565090E+2	1.019714E+0	1.008110E+0	1.041603E+0	9.992087E-1	1.005984E+0	9.914707E-1	9.608218E-1	9.936268E-1	1.003893E+0	1.023658E+0	1.035331E+0	1.015035E+0	1.022308E+0	1.031866E+0	1.011830E+0	1.002966E+0	1.016665E+0	1.002170E+0	1.029035E+0	1.012905E+0	9.677775E-1	9.784228E-1	9.972673E-1	1.038890E+0	1.028107E+0	1.008646E+0	9.676435E-1	9.905784E-1	1.017835E+0	1.026201E+0	1.036570E+0	9.898477E-1	1.006101E+0	9.790290E-1	1.048668E+0	1.017194E+0	1.022908E+0	9.795197E-1	9.933955E-1	9.991748E-1	1.044435E+0	1.012945E+0	1.026377E+0	1.035972E+0	1.000584E+0	1.018636E+0	9.908105E-1	1.002306E+0	1.054382E+0	9.415177E-1	9.784933E-1	1.045509E+0	1.024895E+0	1.020769E+0	9.964256E-1	9.858059E-1	1.030744E+0	1.023579E+0	1.008268E+0	1.010505E+0	1.052202E+0	9.967100E-1	1.019892E+0	1.005559E+0	1.063009E+0	9.822059E-1	1.014271E+0	1.031481E+0	9.621893E-1	9.964165E-1	9.809401E-1	1.027111E+0	1.011877E+0	9.502109E-1	1.051741E+0	1.008458E+0	1.013947E+0	9.889347E-1	9.953074E-1	9.963417E-1	1.035920E+0	1.026215E+0	9.695001E-1	9.833077E-1	1.024894E+0	1.001367E+0	9.972015E-1	1.004117E+0	1.012228E+0	1.011064E+0	1.015215E+0	1.029588E+0	1.029957E+0	1.041685E+0	1.046586E+0	1.025676E+0	9.939543E-1	9.828608E-1	1.017721E+0	1.010353E+0	1.007196E+0	1.054096E+0	1.003958E+0	1.018622E+0	1.038079E+0	1.006116E+0	1.028850E+0	1.002884E+0	1.012395E+0	1.029244E+0	1.031212E+0	1.014675E+0	1.015800E+0	1.032676E+0	1.070302E+0	1.026815E+0	9.771326E-1	1.001823E+0	9.883913E-1	9.624874E-1	1.014318E+0	1.013095E+0	1.059686E+0	1.027448E+0	9.941919E-1	9.972245E-1	1.013434E+0	9.738617E-1	9.572722E-1	9.590508E-1	1.000352E+0	9.837962E-1	1.012849E+0	1.033747E+0	9.915287E-1	1.057200E+0	1.035613E+0	1.013883E+0	1.001723E+0	1.030569E+0	9.780348E-1	1.028705E+0	1.019500E+0	1.001647E+0	9.629443E-1	9.630462E-1	1.004015E+0	9.778174E-1	1.004114E+0	1.022392E+0	1.010676E+0	9.724309E-1	1.009865E+0	1.043812E+0	9.774228E-1	1.003325E+0	9.977863E-1	1.007863E+0	1.038418E+0	1.005086E+0	9.659254E-1	1.038436E+0	9.974788E-1	1.021536E+0	9.866198E-1	1.011295E+0	1.031161E+0	1.051050E+0	9.610051E-1	9.302116E-1	1.026000E+0
5.570270E+2	9.343856E-1	1.010710E+0	9.605849E-1	9.675779E-1	9.652823E-1	9.718164E-1	9.962464E-1	1.001873E+0	9.785961E-1	1.027384E+0	9.915223E-1	9.714671E-1	9.947157E-1	1.039121E+0	1.001535E+0	9.876828E-1	9.617911E-1	9.737053E-1	9.935507E-1	9.991090E-1	9.538132E-1	9.964397E-1	9.658206E-1	9.844606E-1	9.439978E-1	9.685071E-1	9.792946E-1	1.005324E+0	9.738861E-1	1.005294E+0	9.992288E-1	1.020835E+0	9.758711E-1	9.727846E-1	1.028679E+0	9.277317E-1	9.823777E-1	9.854021E-1	9.721104E-1	1.010070E+0	1.018913E+0	9.617676E-1	9.982014E-1	1.005389E+0	9.842502E-1	1.014685E+0	1.023015E+0	9.545305E-1	9.790416E-1	9.741939E-1	1.000287E+0	9.971852E-1	9.772203E-1	9.767989E-1	9.779532E-1	1.009867E+0	1.024899E+0	9.875114E-1	1.027583E+0	9.480411E-1	9.982298E-1	9.854107E-1	1.007012E+0	1.015850E+0	9.833668E-1	9.714108E-1	1.028969E+0	1.003514E+0	1.026263E+0	9.583934E-1	9.790111E-1	9.793797E-1	1.010807E+0	9.768601E-1	9.997367E-1	9.792197E-1	9.604544E-1	1.003212E+0	9.990575E-1	9.926391E-1	1.008450E+0	9.567778E-1	1.006057E+0	9.821812E-1	9.754593E-1	9.950762E-1	1.027891E+0	9.944568E-1	9.777236E-1	1.004948E+0	9.650720E-1	1.030390E+0	9.930999E-1	9.451729E-1	9.560707E-1	1.002961E+0	1.000325E+0	9.730424E-1	1.021220E+0	9.717069E-1	9.961558E-1	9.963433E-1	1.014370E+0	9.910301E-1	9.839144E-1	9.565306E-1	9.755068E-1	1.023299E+0	1.007345E+0	9.754026E-1	9.866995E-1	9.605821E-1	9.582053E-1	9.917564E-1	1.003755E+0	9.761355E-1	9.825887E-1	9.955196E-1	9.838011E-1	9.422405E-1	9.680259E-1	9.732472E-1	9.941788E-1	9.355023E-1	1.033489E+0	9.741874E-1	1.003026E+0	9.662426E-1	1.004596E+0	9.754943E-1	1.022112E+0	1.003994E+0	9.908250E-1	9.882739E-1	1.036839E+0	9.536361E-1	9.764422E-1	9.957444E-1	9.697843E-1	1.001422E+0	9.864033E-1	1.013970E+0	9.767122E-1	1.000834E+0	9.840147E-1	1.010583E+0	9.800926E-1	9.692393E-1	9.679559E-1	9.934723E-1	1.029123E+0	1.036220E+0	9.776948E-1	9.849406E-1	1.001652E+0	9.937223E-1	9.738544E-1	9.765112E-1	9.925905E-1	9.976530E-1	9.914642E-1	9.639483E-1	9.783850E-1	9.985224E-1	9.741356E-1	1.007925E+0	1.034288E+0	9.932461E-1	9.780128E-1	9.841224E-1	1.004968E+0
5.575470E+2	1.030178E+0	1.014316E+0	1.030372E+0	1.047733E+0	1.041568E+0	1.034145E+0	1.015601E+0	1.055387E+0	1.040045E+0	1.038229E+0	1.048636E+0	1.002834E+0	1.043691E+0	1.042168E+0	1.044881E+0	1.080147E+0	1.015069E+0	1.043464E+0	9.844281E-1	1.019529E+0	1.035592E+0	1.048833E+0	1.082671E+0	1.013786E+0	1.044865E+0	1.019384E+0	1.026516E+0	1.048478E+0	1.051027E+0	9.979370E-1	1.019170E+0	1.020920E+0	1.045040E+0	1.025357E+0	1.020133E+0	1.015971E+0	1.000236E+0	1.028180E+0	1.008576E+0	1.037624E+0	9.952894E-1	1.013833E+0	1.027296E+0	1.048191E+0	1.044180E+0	1.024007E+0	1.078701E+0	1.037606E+0	1.025291E+0	1.043915E+0	1.009717E+0	1.022080E+0	9.883620E-1	1.074112E+0	1.093343E+0	1.014916E+0	1.031579E+0	1.052857E+0	1.023820E+0	1.026994E+0	9.948460E-1	1.025857E+0	1.031898E+0	1.013976E+0	1.004308E+0	1.032734E+0	1.056992E+0	1.034397E+0	1.025640E+0	1.032489E+0	1.043570E+0	1.037541E+0	1.021603E+0	1.057428E+0	1.027181E+0	1.015034E+0	1.029311E+0	1.054480E+0	1.069234E+0	1.006778E+0	1.018642E+0	1.082411E+0	1.037450E+0	1.023623E+0	1.039838E+0	1.049887E+0	1.061218E+0	1.038729E+0	1.013158E+0	1.051699E+0	9.899336E-1	9.980974E-1	1.085544E+0	1.052609E+0	1.069375E+0	1.007247E+0	1.045732E+0	1.080221E+0	1.018213E+0	1.005190E+0	1.009143E+0	9.863122E-1	1.039918E+0	1.049077E+0	1.024580E+0	1.074509E+0	1.025868E+0	9.775168E-1	1.051664E+0	1.030662E+0	1.073398E+0	1.055310E+0	1.024094E+0	1.009844E+0	1.035732E+0	1.019299E+0	1.034370E+0	1.049394E+0	1.028803E+0	1.077191E+0	1.033450E+0	1.020227E+0	9.678775E-1	1.079794E+0	1.042597E+0	1.018554E+0	1.034053E+0	1.012168E+0	1.033283E+0	1.030041E+0	1.083535E+0	1.016802E+0	1.020053E+0	1.050674E+0	1.052379E+0	1.036506E+0	1.030745E+0	1.028740E+0	1.036239E+0	1.022831E+0	1.046601E+0	9.955099E-1	1.072003E+0	9.968092E-1	1.069623E+0	9.939238E-1	1.095675E+0	1.031318E+0	1.057630E+0	1.030615E+0	1.037000E+0	1.048904E+0	1.002531E+0	1.101655E+0	1.022130E+0	1.039048E+0	1.023723E+0	9.988913E-1	1.082087E+0	1.067310E+0	1.034755E+0	1.031156E+0	1.139936E+0	1.002171E+0	9.940581E-1	1.071717E+0	1.012888E+0	1.012173E+0	9.820652E-1	1.002466E+0	1.021733E+0
5.580110E+2	9.997560E-1	9.860405E-1	9.893954E-1	9.921897E-1	9.844109E-1	1.035012E+0	1.020975E+0	9.918075E-1	1.044305E+0	9.691608E-1	9.991952E-1	1.028990E+0	9.607586E-1	1.032534E+0	9.988972E-1	1.020309E+0	1.011179E+0	9.958133E-1	9.956758E-1	1.013067E+0	1.002620E+0	1.021089E+0	1.049398E+0	1.025652E+0	1.016098E+0	9.919923E-1	9.664434E-1	9.955142E-1	1.023984E+0	9.939714E-1	1.016769E+0	9.842094E-1	1.003359E+0	1.033279E+0	9.891043E-1	1.018793E+0	1.018840E+0	9.968594E-1	9.907172E-1	1.003694E+0	9.849037E-1	1.047377E+0	1.032132E+0	9.799627E-1	1.038769E+0	1.016913E+0	9.983732E-1	1.035060E+0	9.988742E-1	1.018069E+0	1.014397E+0	9.823562E-1	1.024319E+0	9.841858E-1	1.029806E+0	9.969808E-1	1.000268E+0	9.989189E-1	1.017152E+0	1.014027E+0	9.752879E-1	9.763343E-1	9.564444E-1	1.006713E+0	1.038220E+0	1.025244E+0	1.038158E+0	1.000580E+0	1.031887E+0	1.029829E+0	1.011068E+0	9.868585E-1	1.032557E+0	1.046631E+0	1.039019E+0	9.882035E-1	1.015023E+0	1.013300E+0	9.815376E-1	1.018070E+0	1.010248E+0	1.002669E+0	9.954228E-1	9.903112E-1	9.661086E-1	9.903736E-1	9.636487E-1	9.895074E-1	1.018831E+0	1.011158E+0	1.000075E+0	9.777180E-1	1.000005E+0	9.950220E-1	9.812848E-1	9.793165E-1	1.014912E+0	9.893694E-1	9.867461E-1	9.889847E-1	9.901363E-1	9.626127E-1	9.829779E-1	1.008151E+0	9.843385E-1	1.019308E+0	1.014107E+0	9.678268E-1	1.011682E+0	1.026277E+0	1.001457E+0	9.945787E-1	1.020229E+0	1.003144E+0	9.467010E-1	1.023307E+0	1.017025E+0	1.023048E+0	1.033781E+0	1.031522E+0	9.833865E-1	1.009539E+0	9.944649E-1	1.020483E+0	1.002276E+0	1.034202E+0	9.815555E-1	9.964574E-1	9.917558E-1	1.000509E+0	1.020164E+0	9.771606E-1	9.863288E-1	1.035931E+0	1.025053E+0	9.770707E-1	9.818438E-1	9.988132E-1	1.034996E+0	9.984566E-1	1.029640E+0	9.793930E-1	1.057137E+0	9.817216E-1	9.999753E-1	9.917463E-1	9.786414E-1	1.034870E+0	9.821133E-1	1.011220E+0	1.010380E+0	9.817355E-1	1.019155E+0	9.848835E-1	9.897123E-1	1.015805E+0	9.807163E-1	1.013636E+0	1.019023E+0	9.932324E-1	1.016322E+0	1.009571E+0	1.026805E+0	1.048068E+0	1.010022E+0	9.514765E-1	1.033757E+0	9.922745E-1	1.037406E+0	1.041130E+0	9.440451E-1
5.585100E+2	9.494426E-1	9.774119E-1	9.643378E-1	9.348916E-1	1.010914E+0	9.406435E-1	9.446833E-1	9.987365E-1	9.545213E-1	1.015147E+0	9.446073E-1	9.962066E-1	9.433409E-1	9.630740E-1	9.523861E-1	9.692609E-1	9.572536E-1	9.834114E-1	9.757670E-1	9.634598E-1	9.530358E-1	9.679598E-1	9.686137E-1	9.902888E-1	9.744088E-1	9.452690E-1	9.724510E-1	9.602790E-1	9.572129E-1	9.482156E-1	9.574692E-1	9.620416E-1	9.773268E-1	9.805105E-1	9.667191E-1	9.576118E-1	9.568524E-1	9.749184E-1	9.951909E-1	9.948346E-1	9.568959E-1	1.012023E+0	9.391543E-1	9.729427E-1	9.472632E-1	9.778449E-1	9.806167E-1	9.543402E-1	9.368627E-1	1.001731E+0	9.905058E-1	9.749521E-1	9.435011E-1	9.702465E-1	9.607262E-1	9.591287E-1	9.212007E-1	9.855526E-1	9.442165E-1	9.826478E-1	9.756147E-1	9.714570E-1	9.681772E-1	9.570504E-1	9.694057E-1	9.409755E-1	9.217800E-1	9.632535E-1	9.637021E-1	9.871631E-1	1.005482E+0	9.779785E-1	9.621549E-1	9.650762E-1	9.819950E-1	9.605211E-1	9.795259E-1	9.523583E-1	9.560817E-1	9.651386E-1	9.631829E-1	9.514797E-1	9.810465E-1	9.946094E-1	9.756415E-1	9.764747E-1	9.373318E-1	9.811152E-1	9.567394E-1	9.888092E-1	9.730751E-1	9.512120E-1	9.420980E-1	9.860490E-1	9.293295E-1	9.804119E-1	9.448375E-1	1.007375E+0	9.587573E-1	9.988285E-1	9.994468E-1	9.706629E-1	9.568694E-1	9.826891E-1	9.821252E-1	9.976359E-1	9.828175E-1	9.915242E-1	9.586181E-1	9.648860E-1	9.810231E-1	9.580911E-1	9.870139E-1	9.611351E-1	9.654386E-1	9.483584E-1	9.521719E-1	9.541105E-1	9.306331E-1	9.226178E-1	9.451438E-1	1.011205E+0	1.028164E+0	9.426715E-1	9.297710E-1	9.820666E-1	9.319449E-1	9.637824E-1	9.692725E-1	9.605118E-1	9.446781E-1	9.474940E-1	9.524632E-1	9.603195E-1	9.808416E-1	9.556083E-1	9.916974E-1	9.736395E-1	9.992675E-1	9.924462E-1	9.423420E-1	9.817927E-1	9.480991E-1	1.018848E+0	9.635224E-1	9.896286E-1	9.431585E-1	1.022786E+0	9.538109E-1	9.352799E-1	9.962876E-1	9.319899E-1	9.791886E-1	9.172801E-1	1.001323E+0	9.429037E-1	1.002300E+0	9.626110E-1	9.654530E-1	9.748090E-1	9.522096E-1	9.939948E-1	9.630672E-1	9.945245E-1	9.370453E-1	9.632847E-1	9.531144E-1	9.707987E-1	1.015524E+0	9.843963E-1	9.208476E-1
5.590040E+2	1.070765E+0	1.036047E+0	1.011984E+0	1.020756E+0	1.035880E+0	1.053617E+0	1.032829E+0	9.919726E-1	1.074933E+0	1.048154E+0	1.052086E+0	9.941791E-1	1.004142E+0	1.017058E+0	1.045610E+0	9.986058E-1	1.044270E+0	1.071739E+0	1.042269E+0	1.055663E+0	1.045915E+0	1.027520E+0	1.049051E+0	1.003840E+0	1.040543E+0	1.040401E+0	1.030456E+0	1.064474E+0	1.000919E+0	1.039139E+0	1.017084E+0	1.056824E+0	1.012441E+0	1.034017E+0	1.044533E+0	1.076991E+0	1.126967E+0	1.050024E+0	1.009760E+0	1.028614E+0	1.068627E+0	1.051610E+0	1.059906E+0	1.052178E+0	1.079978E+0	1.039868E+0	1.030502E+0	1.053471E+0	1.029382E+0	1.067685E+0	1.036785E+0	1.053663E+0	1.054518E+0	1.039015E+0	1.024795E+0	1.027564E+0	1.015789E+0	9.963675E-1	1.009769E+0	1.059546E+0	1.039257E+0	1.058474E+0	1.034734E+0	1.047429E+0	1.039658E+0	9.965879E-1	1.059755E+0	1.012095E+0	1.065999E+0	1.031957E+0	1.029753E+0	1.014779E+0	1.024832E+0	1.027212E+0	1.008665E+0	1.017124E+0	1.042124E+0	1.024504E+0	1.029615E+0	1.084760E+0	1.006215E+0	1.035064E+0	1.031286E+0	1.064633E+0	1.070638E+0	1.061885E+0	1.031572E+0	1.050731E+0	1.058348E+0	1.019207E+0	1.021817E+0	1.026894E+0	1.016616E+0	1.034488E+0	1.059471E+0	1.010717E+0	9.935972E-1	1.048391E+0	9.846666E-1	1.030796E+0	1.073556E+0	1.051240E+0	1.032551E+0	1.046217E+0	1.035522E+0	1.025142E+0	1.040523E+0	1.024074E+0	1.008350E+0	9.871404E-1	9.811565E-1	1.069655E+0	1.003618E+0	1.051545E+0	1.000892E+0	1.063598E+0	1.083652E+0	1.029480E+0	1.034474E+0	1.039323E+0	1.052699E+0	1.008242E+0	1.054449E+0	1.036268E+0	1.034371E+0	1.009058E+0	1.012296E+0	1.041855E+0	1.086893E+0	1.057837E+0	9.806696E-1	1.020492E+0	1.033662E+0	1.001792E+0	1.018636E+0	1.044004E+0	1.088081E+0	1.029808E+0	1.007907E+0	1.052867E+0	1.022307E+0	1.011731E+0	9.902890E-1	1.030218E+0	1.065008E+0	1.024671E+0	1.044819E+0	1.035018E+0	9.958688E-1	1.054947E+0	1.017161E+0	1.069896E+0	1.044499E+0	1.027902E+0	1.041632E+0	1.045424E+0	1.065478E+0	1.048089E+0	1.004280E+0	1.019723E+0	1.025609E+0	1.061533E+0	9.936166E-1	1.035254E+0	1.027290E+0	1.030302E+0	1.025204E+0	1.032004E+0	1.043803E+0	1.038931E+0	1.136926E+0
5.595110E+2	1.038743E+0	1.038612E+0	1.051375E+0	1.059693E+0	1.050426E+0	1.066843E+0	1.036109E+0	1.067419E+0	1.041172E+0	9.987263E-1	1.043504E+0	1.036852E+0	1.067825E+0	9.851268E-1	1.056959E+0	1.028489E+0	1.042151E+0	1.019492E+0	1.037391E+0	1.068468E+0	1.074866E+0	1.051499E+0	1.012996E+0	1.032523E+0	1.057429E+0	1.054976E+0	1.109634E+0	1.030267E+0	1.074961E+0	1.053037E+0	1.054970E+0	1.062378E+0	1.058836E+0	1.085585E+0	1.067524E+0	1.064056E+0	9.984589E-1	1.062486E+0	1.092916E+0	1.033599E+0	1.060069E+0	1.028587E+0	1.056326E+0	9.936386E-1	1.011409E+0	1.041563E+0	1.069938E+0	1.057498E+0	1.048009E+0	1.036058E+0	1.051091E+0	1.033010E+0	1.075487E+0	1.050859E+0	1.050604E+0	1.050293E+0	1.047453E+0	1.068020E+0	1.062231E+0	1.074279E+0	1.049123E+0	1.057406E+0	1.069453E+0	1.079285E+0	1.052352E+0	1.084010E+0	1.077683E+0	1.059063E+0	1.078726E+0	1.027377E+0	1.064709E+0	1.047560E+0	1.035232E+0	1.049905E+0	1.029786E+0	1.066839E+0	1.026610E+0	1.044345E+0	1.031355E+0	1.060023E+0	1.040618E+0	1.042990E+0	1.011019E+0	1.003142E+0	1.061130E+0	1.065582E+0	1.087895E+0	1.070170E+0	1.082575E+0	1.050604E+0	1.049792E+0	1.061945E+0	1.063707E+0	1.050179E+0	1.058090E+0	1.035787E+0	1.049696E+0	1.037749E+0	1.061714E+0	1.072070E+0	1.092845E+0	1.043032E+0	9.953821E-1	1.009442E+0	1.033650E+0	1.051177E+0	1.044123E+0	1.063360E+0	1.022056E+0	1.050090E+0	1.036654E+0	1.073891E+0	1.048978E+0	1.041987E+0	1.003296E+0	1.028223E+0	1.061044E+0	1.021761E+0	1.042048E+0	1.041179E+0	1.085641E+0	1.041459E+0	1.017728E+0	1.043024E+0	1.057299E+0	1.041683E+0	1.066126E+0	1.043231E+0	1.065778E+0	1.098759E+0	1.031523E+0	1.061842E+0	1.062568E+0	1.039987E+0	1.038688E+0	1.025678E+0	1.004291E+0	1.022167E+0	1.092079E+0	1.035990E+0	1.050914E+0	1.058983E+0	1.035306E+0	1.044851E+0	1.047113E+0	1.030056E+0	1.018416E+0	1.022918E+0	1.094836E+0	1.024155E+0	1.032795E+0	1.072061E+0	1.045146E+0	1.058285E+0	1.041271E+0	1.048618E+0	1.041115E+0	1.038498E+0	1.044837E+0	1.038935E+0	1.049806E+0	1.042361E+0	1.044426E+0	1.025701E+0	1.081868E+0	1.022097E+0	1.032772E+0	1.031525E+0	1.071733E+0	1.132610E+0	1.119969E+0
5.600300E+2	9.489424E-1	9.353161E-1	9.521085E-1	9.619005E-1	9.500704E-1	9.111439E-1	9.361642E-1	9.518990E-1	9.365524E-1	9.368071E-1	9.364658E-1	9.642730E-1	9.780421E-1	9.449030E-1	9.238159E-1	9.179326E-1	9.366688E-1	9.092682E-1	9.366484E-1	9.316490E-1	9.430021E-1	9.274779E-1	9.565310E-1	9.319259E-1	9.203539E-1	9.383276E-1	9.710483E-1	9.635993E-1	9.391628E-1	9.696238E-1	9.127968E-1	8.956500E-1	9.045161E-1	9.342147E-1	8.847470E-1	9.930087E-1	9.271216E-1	9.631959E-1	9.316237E-1	9.563430E-1	9.192295E-1	9.288931E-1	9.351606E-1	9.307362E-1	9.385424E-1	9.310450E-1	9.143512E-1	9.851121E-1	9.115888E-1	9.554998E-1	9.020773E-1	9.330802E-1	9.355761E-1	9.579892E-1	9.561608E-1	9.436189E-1	9.199536E-1	9.042960E-1	9.194146E-1	9.195267E-1	9.073705E-1	9.262115E-1	9.503862E-1	9.769973E-1	9.205456E-1	9.576817E-1	8.908229E-1	9.451409E-1	8.726941E-1	9.664003E-1	9.146033E-1	1.001822E+0	9.168486E-1	9.843241E-1	9.239530E-1	9.299321E-1	9.199971E-1	9.018518E-1	9.424798E-1	9.548853E-1	9.217901E-1	9.425515E-1	9.631002E-1	9.834979E-1	9.542733E-1	9.142262E-1	9.285339E-1	9.580484E-1	9.600056E-1	9.181039E-1	9.714264E-1	9.279924E-1	8.965281E-1	9.320569E-1	9.319708E-1	9.526537E-1	9.580311E-1	9.550754E-1	9.627031E-1	9.403939E-1	9.214127E-1	9.665496E-1	9.683105E-1	9.839004E-1	9.729653E-1	9.692653E-1	9.319822E-1	9.018777E-1	9.677817E-1	9.284639E-1	9.318429E-1	9.320314E-1	9.308098E-1	9.733140E-1	9.719560E-1	9.494225E-1	9.503679E-1	9.669558E-1	9.633271E-1	9.594670E-1	9.404988E-1	9.453316E-1	9.467223E-1	9.295177E-1	9.180063E-1	9.538448E-1	9.178392E-1	9.460498E-1	9.327777E-1	8.998818E-1	1.010455E+0	9.428157E-1	9.557416E-1	9.580750E-1	9.156396E-1	9.093633E-1	9.369373E-1	9.228695E-1	9.293101E-1	9.356769E-1	9.315381E-1	9.607614E-1	9.122389E-1	9.334671E-1	9.563164E-1	9.364520E-1	9.460797E-1	9.476781E-1	9.627594E-1	9.302331E-1	9.043943E-1	9.070330E-1	9.466275E-1	9.255036E-1	9.465629E-1	9.681888E-1	9.158562E-1	9.621023E-1	9.403019E-1	9.341033E-1	9.532501E-1	8.906522E-1	8.897998E-1	9.043636E-1	9.440738E-1	9.765077E-1	9.492248E-1	9.518157E-1	9.610638E-1	9.399248E-1	9.163646E-1
5.605090E+2	1.027880E+0	9.951701E-1	1.001682E+0	1.052429E+0	9.723276E-1	1.032045E+0	1.063237E+0	9.927905E-1	1.025533E+0	1.025403E+0	1.014910E+0	1.016217E+0	1.000416E+0	1.000910E+0	1.021988E+0	1.023285E+0	1.027491E+0	1.017649E+0	1.019781E+0	9.845423E-1	1.007461E+0	1.027971E+0	9.932620E-1	1.047862E+0	1.001962E+0	1.002087E+0	1.001727E+0	1.007703E+0	9.988607E-1	9.764203E-1	1.012773E+0	1.048095E+0	1.029329E+0	1.000810E+0	1.043666E+0	9.746420E-1	9.863409E-1	1.000941E+0	1.039221E+0	1.013845E+0	1.009617E+0	9.981846E-1	9.871064E-1	1.005708E+0	1.026235E+0	9.953954E-1	9.748683E-1	1.002271E+0	1.038784E+0	9.874414E-1	1.033554E+0	1.002932E+0	9.987989E-1	9.859143E-1	1.005327E+0	1.028030E+0	1.034570E+0	1.008471E+0	1.041750E+0	9.522288E-1	9.929515E-1	1.031931E+0	9.978440E-1	9.652317E-1	9.807707E-1	9.674455E-1	9.855780E-1	9.971426E-1	1.022072E+0	1.011421E+0	1.009136E+0	1.008048E+0	1.014935E+0	1.041211E+0	9.861900E-1	1.070166E+0	1.017415E+0	1.035932E+0	9.625501E-1	9.669312E-1	1.049306E+0	1.000242E+0	1.009567E+0	1.067015E+0	1.002183E+0	1.011300E+0	1.055595E+0	1.015477E+0	9.884817E-1	9.936577E-1	1.010102E+0	9.945821E-1	9.951538E-1	9.578926E-1	9.857450E-1	9.819466E-1	1.025810E+0	9.474336E-1	9.802984E-1	1.023099E+0	9.653153E-1	9.730788E-1	1.023321E+0	9.722774E-1	9.837559E-1	9.680667E-1	1.021297E+0	1.036603E+0	9.866652E-1	9.742761E-1	9.924904E-1	1.005463E+0	9.842427E-1	9.956008E-1	1.021365E+0	1.025973E+0	9.622889E-1	9.784476E-1	1.015495E+0	1.007971E+0	1.014069E+0	1.051800E+0	9.818264E-1	1.005981E+0	1.033823E+0	1.016642E+0	1.021350E+0	1.044117E+0	1.031361E+0	1.006804E+0	1.003644E+0	1.026144E+0	1.010789E+0	9.914951E-1	9.998657E-1	1.019814E+0	9.951445E-1	1.052635E+0	9.482260E-1	1.002532E+0	9.842791E-1	1.045807E+0	1.014767E+0	9.929237E-1	9.618469E-1	1.019581E+0	9.973738E-1	1.003188E+0	9.938323E-1	1.029631E+0	1.001327E+0	9.917548E-1	9.691082E-1	1.025028E+0	9.690894E-1	9.765591E-1	1.001171E+0	9.802549E-1	1.010194E+0	9.996684E-1	9.933187E-1	1.012190E+0	1.020152E+0	1.037837E+0	1.029069E+0	1.034381E+0	1.011560E+0	9.852109E-1	9.904827E-1	1.025804E+0	1.022736E+0
5.610070E+2	1.002842E+0	1.028997E+0	1.012399E+0	1.004916E+0	1.026218E+0	1.020599E+0	1.013243E+0	1.026523E+0	9.773728E-1	1.006058E+0	1.021037E+0	1.010760E+0	1.022475E+0	1.014095E+0	1.012106E+0	1.008435E+0	1.028695E+0	1.047493E+0	1.015292E+0	1.007206E+0	1.044472E+0	1.005003E+0	9.921182E-1	9.847328E-1	1.027166E+0	1.036833E+0	1.023567E+0	9.684350E-1	1.021219E+0	1.046227E+0	1.024203E+0	1.013093E+0	9.922463E-1	9.971456E-1	9.830125E-1	1.015348E+0	1.028324E+0	9.947803E-1	9.989528E-1	9.733164E-1	1.024242E+0	9.877369E-1	9.834560E-1	1.037831E+0	1.028736E+0	9.979274E-1	1.017143E+0	9.875785E-1	1.030678E+0	1.039011E+0	1.027855E+0	1.013502E+0	1.049971E+0	1.007993E+0	9.930741E-1	1.034991E+0	1.007611E+0	1.050765E+0	1.017749E+0	1.043891E+0	1.070343E+0	1.024603E+0	1.004290E+0	1.001088E+0	1.010109E+0	1.008079E+0	9.678156E-1	1.024352E+0	1.014409E+0	9.864188E-1	1.021390E+0	1.015911E+0	1.016304E+0	9.703317E-1	1.009125E+0	9.963730E-1	1.034669E+0	1.031437E+0	1.031809E+0	9.626270E-1	9.967796E-1	1.037801E+0	9.978912E-1	9.945815E-1	9.832627E-1	9.902189E-1	1.009662E+0	9.878269E-1	1.024869E+0	1.028782E+0	1.030834E+0	1.027671E+0	9.971484E-1	1.050093E+0	9.892021E-1	1.058517E+0	1.010753E+0	1.000457E+0	1.056711E+0	1.020896E+0	1.005238E+0	1.025763E+0	9.978083E-1	1.002095E+0	1.019087E+0	1.005669E+0	1.029321E+0	1.020988E+0	1.020216E+0	1.067706E+0	1.027625E+0	1.013937E+0	1.059593E+0	9.943058E-1	1.034017E+0	9.855368E-1	1.005541E+0	1.036264E+0	1.010181E+0	1.044227E+0	1.035022E+0	9.946542E-1	9.923486E-1	1.026249E+0	1.000062E+0	1.039046E+0	1.040703E+0	1.053986E+0	9.752469E-1	1.034184E+0	9.361400E-1	1.053336E+0	1.004837E+0	1.009190E+0	9.882384E-1	1.040620E+0	1.016320E+0	1.024511E+0	1.029903E+0	9.825570E-1	1.044473E+0	9.797919E-1	1.005580E+0	1.030651E+0	1.033712E+0	1.053719E+0	1.026252E+0	1.007738E+0	1.012861E+0	1.002610E+0	1.013009E+0	1.024614E+0	1.049593E+0	1.016424E+0	1.045685E+0	1.021832E+0	1.005876E+0	1.039034E+0	9.723975E-1	1.030911E+0	1.028215E+0	1.006608E+0	1.026975E+0	9.979501E-1	1.051793E+0	9.813933E-1	9.818446E-1	1.026849E+0	9.934882E-1	9.944327E-1	9.849170E-1
