Photon Energy (eV)	#1	#2	#3	#4	#5	#6	#7	#8	#9	#10	#11	#12	#13	#14	#15	#16	#17	#18	#19	#20	#21	#22	#23	#24	#25	#26	#27	#28	#29	#30	#31	#32	#33	#34	#35	#36	#37	#38	#39	#40	#41	#42	#43	#44	#45	#46	#47	#48	#49	#50	#51	#52	#53	#54	#55	#56	#57	#58	#59	#60	#61	#62	#63	#64	#65	#66	#67	#68	#69	#70	#71	#72	#73	#74	#75	#76	#77	#78	#79	#80	#81	#82	#83	#84	#85	#86	#87	#88	#89	#90	#91	#92	#93	#94	#95	#96	#97	#98	#99	#100	#101	#102	#103	#104	#105	#106	#107	#108	#109	#110	#111	#112	#113	#114	#115	#116	#117	#118	#119	#120	#121	#122	#123	#124	#125	#126	#127	#128	#129	#130	#131	#132	#133	#134	#135	#136	#137	#138	#139	#140	#141	#142	#143	#144	#145	#146	#147	#148	#149	#150	#151	#152	#153	#154	#155	#156	#157	#158	#159	#160	#161	#162	#163	#164	#165	#166	#167	#168	#169	#170	
5.300160E+2	-6.496122E-3	-1.083455E-2	-8.147081E-3	-3.076853E-3	-2.596804E-3	-4.873423E-3	-4.515886E-3	-1.089424E-2	4.445114E-3	-8.102459E-3	-1.049446E-2	-2.556937E-3	-7.606497E-3	-5.213251E-3	-1.159117E-2	-9.334873E-3	-5.344962E-3	-7.748167E-3	-9.917215E-3	-1.429808E-2	5.876612E-3	-1.723053E-3	3.810434E-4	-1.053801E-2	-9.721688E-3	-1.481626E-2	-1.264359E-2	-3.814064E-3	9.355677E-4	-8.369390E-3	-6.409301E-3	6.557853E-4	-9.824431E-3	-9.936792E-3	6.885083E-4	-3.707654E-3	-2.320448E-3	-8.435410E-3	-8.987637E-3	-6.650950E-3	-5.826953E-3	-3.175112E-3	-2.896416E-3	-5.733368E-3	-1.795305E-3	-3.561004E-3	-1.031537E-2	-4.983352E-3	-1.230882E-2	-7.086836E-3	-1.283946E-2	-5.280957E-3	-5.864168E-3	-5.929439E-3	-5.610115E-3	-6.426782E-3	-1.286793E-2	-1.586053E-2	-2.547462E-3	-1.103709E-2	-8.161681E-3	-1.238434E-2	-1.920137E-2	3.166658E-4	-1.000011E-2	5.014070E-4	-7.696965E-3	7.405992E-3	-3.856371E-3	-7.247068E-3	1.142433E-4	-1.139505E-2	-6.532992E-3	-1.961332E-3	-9.648931E-3	-5.088631E-3	-7.498339E-3	-1.262950E-2	-9.683102E-4	-3.999283E-4	-7.368773E-3	-1.596870E-4	-1.342873E-2	-5.670506E-3	-3.176684E-3	-1.369355E-3	-4.636225E-3	-1.258224E-2	1.613409E-3	-1.027436E-2	-7.360429E-3	-1.461391E-2	-1.101121E-2	-1.161629E-2	-7.813859E-4	-3.169607E-3	-4.051341E-3	-8.019705E-3	-9.452925E-3	4.164891E-3	-1.514906E-2	-5.990485E-3	-1.764651E-2	-9.819231E-3	-2.108633E-3	-3.283057E-3	-7.820539E-3	-5.736242E-3	-1.120540E-2	-1.907026E-3	-1.214211E-2	-1.114210E-2	9.595045E-4	1.753471E-3	3.012420E-3	-1.102437E-2	-4.984236E-3	-9.548547E-3	-9.184305E-3	-1.498820E-2	-7.474152E-3	-9.622666E-3	3.068318E-4	-8.215599E-3	-1.211726E-2	-8.329676E-3	-1.281670E-2	-1.403321E-2	-8.311056E-3	-1.160583E-2	-1.060372E-2	-6.814574E-4	6.843116E-5	2.899974E-3	-1.381010E-2	-5.145865E-3	-1.795516E-2	2.987055E-3	-1.142154E-2	-1.317965E-2	-9.503628E-3	-5.809913E-4	-7.469080E-4	-3.694802E-3	1.721940E-3	-1.189534E-2	7.173467E-3	-1.119558E-2	-9.674223E-3	-1.188563E-2	-3.487817E-3	-8.268768E-3	-4.485189E-3	-9.397584E-3	-5.326812E-3	-4.223228E-3	-9.500495E-3	-1.362160E-2	2.611370E-3	-4.404727E-3	-7.913305E-3	-1.029040E-2	-1.235448E-3	-1.658450E-2	-1.251229E-2	-1.263498E-2	-3.147150E-3	-1.368800E-3	2.857090E-3	-1.193904E-3
5.305130E+2	-4.105182E-3	-1.956055E-3	3.194556E-3	-5.807661E-3	8.491823E-3	-5.904281E-3	-1.040071E-3	-8.184832E-3	-3.224145E-3	6.150251E-4	2.138153E-3	-5.326091E-3	-7.488753E-3	-5.682321E-3	-1.440415E-3	-4.622396E-3	-9.722606E-3	-1.138054E-3	-1.096610E-2	-1.472210E-3	-8.081936E-3	-4.709564E-3	1.621352E-3	1.296562E-3	9.435329E-4	-1.415042E-2	-4.218097E-3	-9.662455E-3	-3.276890E-5	1.428636E-3	2.284334E-4	5.656296E-3	-6.438306E-4	-7.974774E-3	-9.346452E-3	-1.276939E-3	1.042974E-3	2.377795E-3	-8.461872E-5	-8.232395E-4	1.437377E-3	-8.373176E-3	-3.865981E-4	1.886691E-3	-2.208403E-3	-1.211788E-2	-3.136625E-4	-4.344147E-3	5.014479E-3	4.863920E-4	-1.157911E-2	-1.170981E-2	-7.339231E-3	3.164255E-4	-2.117524E-3	-3.741736E-3	2.446524E-3	-5.989043E-3	-2.414524E-3	-9.174582E-3	8.016755E-3	-6.108902E-3	5.438331E-4	-9.641568E-3	-1.475150E-3	-5.047808E-3	-6.965803E-3	-8.443538E-3	-4.308458E-3	-7.118713E-3	-3.196383E-4	-1.176332E-2	-1.854377E-3	-1.196666E-2	-1.679757E-2	2.632163E-4	8.589949E-4	3.555939E-3	-6.511483E-3	2.841719E-4	-4.706796E-3	-4.692814E-3	-8.503809E-4	-4.478394E-3	-2.489315E-3	-8.407912E-3	8.076104E-4	-1.903282E-3	-3.213101E-3	2.891980E-3	2.019255E-3	-1.195361E-3	-2.787455E-3	3.722250E-4	-8.712063E-3	-6.717437E-3	-6.827531E-3	7.447936E-3	1.009445E-4	-5.209555E-3	8.303503E-4	3.067607E-3	1.023716E-2	-5.133785E-3	3.392675E-3	-1.936936E-3	3.596293E-4	-4.222258E-3	-5.883087E-3	-8.471104E-3	-1.324678E-2	-5.908981E-3	-5.147984E-3	-7.035290E-3	4.314732E-3	-1.024490E-2	-2.093338E-4	-6.418407E-3	-4.853456E-3	6.128029E-3	6.651304E-3	-9.491982E-3	7.326580E-3	-1.077665E-2	7.147787E-3	-7.591583E-3	-7.222587E-3	-4.286947E-4	-3.060059E-3	-8.385154E-3	-8.039297E-3	2.946869E-3	-1.308877E-2	-2.118135E-3	2.814065E-3	-2.750672E-3	-2.773676E-3	-2.339556E-3	-5.252269E-3	8.704138E-3	1.782595E-3	-8.110666E-3	-2.439257E-3	4.077027E-3	-4.081682E-3	-1.382125E-3	-9.961473E-3	-1.306087E-3	-2.233576E-4	-5.254119E-3	1.014046E-3	1.332725E-3	-1.123261E-2	-1.870491E-3	-2.898353E-3	-2.378883E-3	-8.291230E-3	-3.298491E-3	-6.444597E-3	-1.067332E-2	2.802309E-3	-5.858639E-3	-6.041984E-3	-2.210304E-3	-2.052716E-3	-4.186561E-4	-8.654783E-3	-1.415877E-2	-1.068131E-2	3.338534E-2
5.310100E+2	-3.984636E-3	1.501647E-3	-3.644666E-3	1.743138E-3	-2.952169E-3	1.263293E-2	-5.394079E-3	-1.300796E-3	-2.577178E-3	-6.023829E-3	-1.145820E-2	-2.301719E-3	-3.143227E-3	3.483564E-4	2.831052E-3	-1.627838E-3	1.910413E-3	-4.730330E-3	5.294674E-3	9.088952E-3	-6.872817E-3	-9.807605E-3	6.717878E-4	6.559617E-3	-2.440611E-3	4.073170E-3	-2.423761E-3	7.184478E-3	-2.670708E-3	-1.237249E-2	-7.822974E-3	-7.750868E-3	-5.969589E-3	1.482563E-3	-1.268250E-4	-6.912096E-3	-7.466445E-3	-5.361091E-3	6.283512E-4	-3.035846E-3	-8.909473E-3	-2.890929E-3	-6.234210E-3	-1.446946E-3	-4.534322E-4	-3.873268E-3	-3.103274E-3	-2.152708E-3	-8.069419E-3	-7.424739E-3	1.005536E-2	3.135949E-4	-8.273417E-3	-1.736297E-3	3.100107E-3	3.081497E-3	-2.644856E-3	-1.823269E-3	-9.706901E-3	3.776464E-3	-5.871198E-3	2.339885E-4	1.962220E-3	-5.249542E-3	-9.767752E-3	-1.228002E-3	3.129409E-3	-1.289191E-2	-9.306468E-3	-9.109243E-3	-3.016614E-3	-2.910480E-4	-2.273833E-3	7.340414E-3	8.745378E-4	-9.507205E-3	-3.387688E-3	-3.175484E-4	-6.366245E-3	-7.073563E-3	3.893302E-3	4.193186E-3	-5.732271E-4	-4.811037E-3	-4.710233E-3	-5.405970E-3	5.194408E-3	-1.435398E-2	-7.390434E-3	-6.310662E-3	-8.987051E-3	1.176210E-2	-1.080877E-2	-3.157893E-3	-1.484220E-2	-1.449873E-2	2.045749E-3	-7.796797E-3	-2.053689E-3	-1.006882E-2	-4.222067E-3	-4.612075E-3	-6.296820E-3	9.668509E-5	-9.781332E-3	-3.017626E-3	-8.190681E-3	-6.909824E-3	-1.587167E-3	-9.584998E-3	-1.553260E-3	1.226534E-3	-8.468001E-3	-1.013367E-2	1.564590E-3	5.288914E-3	-4.720899E-3	3.927394E-3	-5.363872E-4	3.510581E-3	-1.003054E-2	-1.777997E-3	-4.445716E-3	-5.271885E-3	-5.846519E-3	-9.303022E-3	1.422641E-3	-4.404083E-3	4.765534E-4	-2.688050E-3	4.890352E-3	5.159755E-3	1.960910E-3	-5.457782E-3	2.381691E-3	-1.494990E-3	-5.993715E-3	-7.711885E-3	8.222754E-3	1.375526E-3	-9.247186E-3	-3.514200E-3	3.208417E-3	5.844014E-3	-6.358280E-3	-2.581965E-3	-1.470144E-3	4.316480E-3	-8.273538E-3	4.354693E-3	-1.515361E-2	-1.011604E-2	9.588326E-4	-7.853238E-3	-6.240946E-3	2.855529E-3	4.197303E-3	-1.905340E-3	-1.718174E-3	1.783249E-3	-3.932860E-3	-1.935166E-4	-1.199906E-2	5.660066E-3	-8.635776E-3	-2.386277E-3	-9.166827E-3	5.800020E-4	-7.425493E-3	-1.279803E-2
5.315180E+2	1.376645E-4	-4.432427E-3	7.578049E-4	3.004736E-3	-8.650258E-3	-4.516474E-3	5.378236E-3	1.029525E-2	5.911794E-3	-4.061050E-3	3.616534E-3	3.637719E-3	1.016785E-2	3.424126E-3	-6.054423E-6	-1.516840E-3	-1.984741E-3	4.573504E-3	-4.428332E-3	-1.798579E-3	-4.039574E-3	5.489402E-3	-6.936413E-3	-4.523949E-4	-1.115951E-2	7.129584E-3	4.951098E-3	-2.265437E-3	-3.667496E-3	-6.804924E-3	3.190408E-3	-5.936225E-4	1.418481E-3	-2.754423E-4	-9.688903E-3	-6.230090E-3	7.274874E-3	-4.120467E-3	-3.080864E-3	-7.655683E-3	2.806334E-3	8.141293E-4	1.673310E-3	-8.867680E-3	-4.154585E-3	3.100360E-4	-6.594801E-4	1.060886E-3	-2.777777E-3	3.945447E-3	2.611173E-3	4.615373E-3	-2.757453E-3	-9.423534E-3	2.682321E-3	-2.450126E-3	-3.040521E-3	-1.120468E-3	5.913131E-3	4.144507E-4	-4.233897E-3	6.036263E-3	-1.256907E-2	2.353547E-3	8.836126E-3	-5.226512E-3	3.884557E-3	-5.315705E-3	-7.494040E-3	1.251522E-2	-5.185698E-3	2.820904E-3	-1.010420E-3	-1.062778E-2	5.860747E-3	6.357373E-3	2.797233E-3	2.716454E-3	-4.525944E-3	-1.181087E-2	-4.490979E-4	-4.287887E-3	7.090830E-4	2.874576E-3	-9.560470E-4	-1.394254E-3	-1.140412E-2	2.101306E-3	-1.218810E-3	-1.815605E-3	-8.028704E-4	-4.251892E-3	2.131226E-3	-4.256619E-3	9.424993E-4	-2.596724E-3	5.107955E-3	1.029615E-3	-3.119937E-3	4.626419E-3	-1.717346E-3	-8.300872E-3	1.416928E-4	2.511332E-3	-1.001992E-3	2.696068E-3	-6.878540E-3	-4.696084E-3	-1.348249E-3	-3.342268E-3	-3.267876E-3	5.211420E-3	1.940381E-3	4.126190E-3	-8.662827E-3	-4.690917E-3	-5.306793E-4	3.464449E-3	3.284025E-3	-1.891009E-3	5.909735E-3	5.325868E-3	-5.593280E-3	9.368666E-4	1.974470E-3	5.407970E-3	-2.762942E-4	1.043512E-2	-2.240227E-3	8.646297E-3	-5.378931E-3	-2.802721E-4	1.566422E-3	-7.073611E-3	-3.202656E-3	-7.574279E-3	-2.500253E-3	-3.924424E-3	-2.604812E-3	-9.862388E-4	1.060178E-3	-9.180303E-3	-4.058578E-3	-1.207338E-2	-6.845556E-3	3.400146E-3	3.460828E-3	4.442211E-3	-2.308271E-3	3.333955E-4	5.131675E-3	-5.243267E-3	1.092210E-3	1.257383E-2	1.062266E-2	2.427029E-3	-1.580017E-3	-1.788522E-3	-5.644936E-3	3.106495E-4	-4.442138E-3	5.483996E-4	-2.457212E-3	-6.750101E-3	1.251066E-3	-1.724418E-3	-2.189253E-4	3.174456E-3	5.252868E-3	-6.613228E-3
5.320120E+2	3.714100E-3	9.146965E-3	5.201088E-3	-7.783838E-3	-3.316363E-3	-2.613979E-3	-3.474499E-3	5.232609E-3	-3.911986E-3	6.000984E-3	9.228584E-3	-2.629908E-3	8.926200E-4	1.835413E-3	2.648850E-3	3.843535E-3	4.721434E-3	-2.503429E-3	1.197096E-2	-5.155037E-3	7.578802E-3	1.366832E-3	-1.820031E-3	-3.900385E-3	6.087383E-3	-2.554850E-3	5.928463E-3	8.122507E-3	1.528638E-3	6.042448E-3	-2.983233E-3	-5.870184E-3	2.850218E-3	3.536986E-3	4.004378E-3	2.021052E-3	-2.327679E-3	1.075918E-3	-2.901290E-3	6.840264E-3	9.622722E-3	3.348912E-3	3.149820E-3	1.749021E-3	2.026677E-3	6.512161E-3	2.564305E-3	2.268984E-3	3.752353E-3	5.619211E-3	2.234196E-3	1.015653E-2	9.310824E-3	2.738077E-3	-1.657377E-3	8.077171E-4	5.583858E-3	9.461998E-3	-7.585531E-3	3.520083E-3	6.546866E-3	3.952862E-3	1.118582E-2	3.594052E-3	-1.063355E-3	5.382254E-3	7.802940E-3	4.635690E-3	1.440531E-2	6.793661E-3	-3.888967E-3	1.031125E-3	6.613325E-3	6.530125E-3	7.259720E-3	6.747373E-4	2.414248E-3	1.218598E-3	1.416390E-3	8.572913E-3	9.765486E-4	6.307485E-3	-4.307353E-3	1.865557E-3	2.839258E-3	4.321103E-3	1.093086E-2	5.862639E-3	4.075392E-5	6.539503E-3	1.216961E-3	-1.795767E-4	4.653338E-3	5.400568E-3	4.614784E-3	4.044665E-3	-2.262185E-3	-1.898661E-3	7.186698E-3	-3.183105E-4	3.799609E-3	1.322382E-2	5.806335E-3	-7.908343E-4	7.118985E-3	-4.529207E-3	1.638871E-2	4.464358E-3	4.565969E-3	9.082012E-3	3.609645E-3	-3.617293E-3	-2.031454E-4	8.155095E-3	-5.088655E-3	4.189308E-3	-3.851276E-4	-4.265806E-3	-1.819321E-3	-7.910379E-5	3.244597E-3	2.289377E-3	1.872536E-4	1.124792E-2	5.444351E-3	1.532697E-2	7.835896E-3	3.548077E-3	4.775405E-3	-2.435996E-3	8.888916E-4	-8.532606E-3	4.938031E-3	4.059690E-3	-2.495494E-3	1.407655E-2	1.451696E-2	3.575999E-3	1.184570E-3	2.915017E-3	5.823811E-3	7.710242E-3	-1.451378E-3	2.855476E-3	4.093541E-3	1.574669E-3	-1.181711E-3	5.194985E-3	5.456618E-3	1.072148E-3	-1.372173E-4	1.026215E-2	-5.116518E-3	2.534262E-3	2.144713E-3	-2.656542E-4	2.360026E-3	1.569466E-2	-2.604615E-3	3.706603E-3	4.466589E-3	1.060957E-2	7.152400E-3	-6.332728E-4	9.970461E-3	1.080758E-5	3.823738E-3	1.712837E-3	2.287245E-3	-1.052113E-2
5.325120E+2	1.073417E-2	6.574421E-3	2.638298E-3	1.192048E-2	9.023771E-3	5.275222E-3	9.046299E-3	4.852014E-3	-6.435986E-4	1.157133E-2	6.969391E-3	9.176938E-3	7.178009E-3	5.287677E-3	7.557742E-3	1.325841E-2	1.042046E-2	1.154648E-2	8.046011E-3	1.363496E-2	5.538914E-3	9.383988E-3	6.082261E-3	7.034609E-3	1.629089E-2	2.031878E-2	8.405889E-3	4.349713E-4	3.906767E-3	2.007572E-2	1.379667E-2	7.902593E-3	1.216915E-2	1.316746E-2	1.446929E-2	1.610573E-2	3.796724E-3	1.446326E-2	1.442606E-2	1.132546E-2	8.699926E-4	1.027618E-2	4.694094E-3	1.241228E-2	6.585049E-3	1.272995E-2	1.182749E-2	8.150338E-3	1.438918E-2	4.460525E-3	9.517845E-3	1.905269E-3	1.492344E-2	1.403477E-2	3.602589E-3	8.729430E-3	1.052292E-2	1.533131E-2	1.634129E-2	1.250067E-2	3.703154E-3	8.270124E-3	1.807857E-2	8.626845E-3	1.347024E-2	5.618660E-3	-1.541388E-4	1.460947E-2	1.056003E-2	4.166140E-3	1.229667E-2	1.959738E-2	5.058296E-3	1.068523E-2	1.245149E-2	7.300509E-3	4.815552E-3	5.456057E-3	1.695559E-2	1.042728E-2	7.654817E-3	-1.360283E-3	1.845061E-2	1.021981E-2	8.493021E-3	1.225639E-2	-8.925293E-4	2.087555E-2	1.016818E-2	8.969144E-3	1.391413E-2	8.478634E-3	1.782287E-2	1.325801E-2	1.877837E-2	2.293784E-2	5.987352E-3	9.237613E-3	7.338908E-3	6.805375E-3	1.645851E-2	2.612008E-3	7.758148E-3	1.313583E-2	2.380297E-3	1.007076E-2	6.141415E-3	1.710005E-2	1.545793E-2	1.422338E-2	2.660037E-2	1.423042E-2	1.091924E-2	3.134205E-3	4.859740E-3	1.648197E-2	1.083028E-2	1.284092E-2	1.310944E-2	7.319705E-3	1.699052E-3	1.327740E-2	2.218331E-3	1.207934E-2	3.397171E-3	4.489338E-3	1.105704E-2	4.882786E-3	8.359385E-3	1.646873E-2	1.824271E-2	1.387712E-3	4.554978E-3	7.689865E-3	1.431249E-2	2.889254E-3	1.470584E-2	7.412811E-3	9.871300E-3	1.171211E-3	1.008423E-2	1.367592E-2	5.487705E-3	2.991669E-3	1.147004E-2	1.088461E-2	1.979033E-3	-1.452004E-3	1.502277E-2	1.137952E-2	1.263292E-2	1.203319E-2	1.878328E-2	4.013222E-3	1.698739E-3	1.585207E-3	1.281441E-2	4.919293E-3	1.380095E-2	9.277544E-3	9.019405E-3	5.184584E-3	1.458130E-2	2.051811E-2	1.197926E-2	1.715352E-2	1.736395E-2	1.006027E-2	7.709604E-3	-2.259048E-3
5.330280E+2	1.202801E-2	2.832573E-2	1.845635E-2	2.247675E-2	2.434176E-2	3.599655E-2	2.897682E-2	3.021271E-2	2.795413E-2	1.963711E-2	2.704004E-2	2.397476E-2	2.584467E-2	1.732329E-2	2.386694E-2	2.155377E-2	2.020654E-2	1.654666E-2	3.150691E-2	2.666881E-2	3.864622E-2	2.745930E-2	2.182768E-2	1.442098E-2	2.832357E-2	1.739912E-2	2.778032E-2	2.592214E-2	1.411993E-2	1.869654E-2	3.555847E-2	2.665613E-2	2.823962E-2	1.914507E-2	2.005515E-2	1.452654E-2	1.430845E-2	2.698087E-2	2.627419E-2	1.583365E-2	3.555998E-2	1.842551E-2	1.819010E-2	2.133617E-2	1.883775E-2	2.146147E-2	3.037578E-2	2.391097E-2	2.967395E-2	2.346149E-2	3.793314E-2	3.211258E-2	2.706180E-2	2.699948E-2	3.048431E-2	1.719609E-2	1.812374E-2	2.561454E-2	3.216022E-2	1.738209E-2	2.622580E-2	2.701546E-2	2.405358E-2	2.764571E-2	1.523425E-2	1.659673E-2	1.822753E-2	9.567941E-3	3.373751E-2	2.161721E-2	2.221714E-2	2.278269E-2	2.767546E-2	1.556084E-2	3.234795E-2	2.983608E-2	2.333440E-2	1.672236E-2	3.187117E-2	5.125859E-3	2.351901E-2	2.116984E-2	3.383976E-2	2.385672E-2	3.923997E-2	2.556248E-2	3.243890E-2	1.494179E-2	1.642627E-2	1.784225E-2	3.388344E-2	2.438881E-2	4.333666E-2	1.553107E-2	3.066925E-2	3.814986E-2	2.371350E-2	1.832645E-2	3.000178E-2	2.294030E-2	1.609200E-2	2.638565E-2	2.993080E-2	2.830721E-2	3.449071E-2	2.659448E-2	1.465991E-2	2.331311E-2	3.011843E-2	1.530066E-2	1.735620E-2	2.983094E-2	2.967341E-2	1.901929E-2	2.780902E-2	1.801025E-2	1.806279E-2	3.084055E-2	2.235190E-2	1.925583E-2	2.515706E-2	1.812762E-2	4.676520E-2	1.977831E-2	2.574510E-2	2.460142E-2	3.048505E-2	2.225550E-2	2.349576E-2	2.716708E-2	1.478297E-2	1.558547E-2	3.008569E-2	3.264322E-2	3.701953E-2	2.526426E-2	2.226943E-2	3.349453E-2	2.477535E-2	3.404964E-2	2.568516E-2	1.903756E-2	2.800034E-2	1.914060E-2	2.008827E-2	2.550576E-2	2.875148E-2	2.774811E-2	1.226500E-2	2.474901E-2	2.990103E-2	2.555346E-2	2.131879E-2	2.462784E-2	1.642039E-2	2.637085E-2	2.442029E-2	3.217113E-2	2.622706E-2	2.951964E-2	3.124163E-2	3.338765E-2	1.479764E-2	6.874266E-3	3.371972E-2	3.228168E-2	2.331156E-2	2.995494E-2	1.317048E-2	1.217181E-2
5.331580E+2	2.660092E-2	2.037146E-2	3.217799E-2	4.002149E-2	3.855855E-2	2.777770E-2	2.237640E-2	2.883894E-2	4.399821E-2	3.322764E-2	2.360301E-2	4.236105E-2	4.032195E-2	3.168101E-2	2.585301E-2	3.338489E-2	2.699108E-2	3.557320E-2	3.520309E-2	3.096338E-2	2.565907E-2	3.452197E-2	1.586655E-2	2.338461E-2	4.695185E-2	3.206529E-2	4.554200E-2	5.153151E-2	2.886632E-2	3.870963E-2	4.964134E-2	3.397465E-2	2.045539E-2	3.389984E-2	2.838569E-2	2.461042E-2	2.979420E-2	4.462188E-2	1.869256E-2	2.518223E-2	3.576412E-2	2.875157E-2	4.210398E-2	2.150926E-2	3.666188E-2	3.325964E-2	3.710753E-2	3.244550E-2	2.753555E-2	2.659220E-2	3.459504E-2	2.928432E-2	2.617994E-2	3.611809E-2	3.125822E-2	3.352320E-2	2.895826E-2	3.205282E-2	3.863219E-2	3.821174E-2	2.848329E-2	3.298980E-2	3.068683E-2	3.054479E-2	3.570804E-2	2.974149E-2	3.920831E-2	3.583617E-2	3.739784E-2	1.801755E-2	3.103492E-2	2.698521E-2	3.249344E-2	4.029967E-2	3.684781E-2	1.467908E-2	2.575211E-2	3.873549E-2	2.791748E-2	3.887346E-2	2.430758E-2	3.054584E-2	4.452753E-2	3.816303E-2	4.067236E-2	3.234703E-2	3.686466E-2	1.462239E-2	3.383492E-2	3.743544E-2	3.027561E-2	3.525072E-2	2.811617E-2	3.784504E-2	3.332902E-2	4.215596E-2	4.028014E-2	3.197793E-2	4.413285E-2	3.273322E-2	3.066965E-2	3.223994E-2	2.583827E-2	3.488100E-2	4.240721E-2	3.370173E-2	5.245044E-2	3.269696E-2	3.411320E-2	2.949464E-2	3.522418E-2	1.765182E-2	4.095683E-2	2.349304E-2	2.694939E-2	4.537067E-2	4.234316E-2	2.396546E-2	4.065840E-2	2.395593E-2	2.708601E-2	2.431168E-2	2.955153E-2	2.139123E-2	3.492606E-2	4.951142E-2	2.258183E-2	4.455271E-2	3.304815E-2	1.813819E-2	3.314578E-2	1.506763E-2	2.655917E-2	3.585073E-2	2.514896E-2	3.747396E-2	1.682694E-2	3.048816E-2	3.763158E-2	2.803401E-2	3.113857E-2	2.647254E-2	2.499112E-2	3.266811E-2	2.460945E-2	3.706416E-2	3.169211E-2	3.602562E-2	2.549348E-2	2.620151E-2	3.021926E-2	2.899333E-2	3.612657E-2	3.896855E-2	3.478753E-2	3.063083E-2	3.284142E-2	2.954236E-2	3.941852E-2	2.106936E-2	3.021519E-2	3.095257E-2	3.019273E-2	2.272606E-2	3.333228E-2	4.816207E-2	4.658056E-2	4.338971E-2	4.407170E-2	1.440810E-2
5.333130E+2	2.794114E-2	3.885639E-2	2.478342E-2	3.502434E-2	3.759994E-2	5.870102E-2	4.186814E-2	3.380634E-2	3.522452E-2	4.076362E-2	4.199020E-2	3.788193E-2	4.294666E-2	4.440209E-2	3.145841E-2	4.177049E-2	4.094468E-2	3.149330E-2	4.654282E-2	2.294940E-2	3.745379E-2	4.321394E-2	5.353506E-2	4.017803E-2	4.182175E-2	4.265606E-2	4.008910E-2	3.053366E-2	4.424814E-2	3.580826E-2	4.041898E-2	4.573729E-2	3.231774E-2	4.697273E-2	3.457935E-2	3.006739E-2	4.206490E-2	4.089755E-2	3.004718E-2	3.941422E-2	4.716964E-2	2.950144E-2	4.293606E-2	3.872152E-2	3.079441E-2	3.045358E-2	4.208486E-2	3.318313E-2	4.116584E-2	3.862461E-2	2.947461E-2	4.941576E-2	3.020516E-2	3.410077E-2	4.289716E-2	4.626871E-2	4.197970E-2	5.048830E-2	5.141662E-2	3.666846E-2	3.432503E-2	1.956221E-2	3.670948E-2	3.725073E-2	4.449470E-2	4.243439E-2	3.308694E-2	4.361627E-2	4.800470E-2	3.123995E-2	4.046424E-2	4.523303E-2	3.269597E-2	4.909210E-2	5.000898E-2	3.435922E-2	3.097720E-2	3.599348E-2	2.169987E-2	3.339507E-2	6.032998E-2	4.685982E-2	4.347263E-2	5.124497E-2	4.517280E-2	3.956974E-2	2.798288E-2	3.064832E-2	3.960775E-2	3.593355E-2	6.333694E-2	3.660416E-2	4.251362E-2	4.189042E-2	4.704313E-2	5.376966E-2	3.985897E-2	4.324579E-2	5.106220E-2	4.447548E-2	3.071610E-2	4.593307E-2	3.303069E-2	4.097952E-2	2.259999E-2	3.120780E-2	3.924154E-2	3.825141E-2	5.305734E-2	3.764920E-2	4.986637E-2	3.346789E-2	4.821126E-2	2.851433E-2	3.653458E-2	4.495225E-2	4.381325E-2	3.861220E-2	2.816722E-2	4.500487E-2	4.215911E-2	2.339170E-2	3.872502E-2	4.558724E-2	4.858040E-2	3.085061E-2	4.466032E-2	3.769203E-2	4.198944E-2	3.407665E-2	3.960981E-2	4.914522E-2	4.959549E-2	2.514256E-2	3.407650E-2	3.601885E-2	4.205519E-2	4.370606E-2	3.305308E-2	3.715346E-2	3.865525E-2	3.960743E-2	3.423111E-2	2.683032E-2	3.155349E-2	4.688728E-2	5.099268E-2	4.248360E-2	4.353932E-2	4.913842E-2	5.541044E-2	3.192006E-2	4.047127E-2	5.107348E-2	5.539398E-2	4.014939E-2	4.246761E-2	4.143472E-2	3.752720E-2	2.628067E-2	3.756897E-2	5.558147E-2	4.377387E-2	3.505290E-2	3.734579E-2	3.090010E-2	3.989093E-2	4.038643E-2	4.438470E-2	2.674273E-2
5.334630E+2	5.477854E-2	4.991558E-2	4.903449E-2	5.966435E-2	5.310143E-2	5.534945E-2	5.296182E-2	5.469860E-2	4.394449E-2	6.737195E-2	5.986622E-2	4.577486E-2	4.942294E-2	5.260784E-2	4.917361E-2	4.551372E-2	6.415148E-2	5.498916E-2	5.799892E-2	4.376305E-2	4.654787E-2	6.204274E-2	5.440815E-2	4.510993E-2	4.146119E-2	5.747909E-2	6.651294E-2	5.871208E-2	5.518574E-2	5.387309E-2	6.184297E-2	6.030812E-2	3.746412E-2	5.484165E-2	5.832161E-2	6.430371E-2	5.275841E-2	5.642322E-2	6.384726E-2	3.871070E-2	6.424646E-2	5.759586E-2	5.661742E-2	5.541487E-2	5.207095E-2	4.487927E-2	6.741584E-2	5.333858E-2	5.077279E-2	6.617091E-2	6.170953E-2	5.390606E-2	5.673506E-2	3.880878E-2	4.715844E-2	6.588880E-2	5.452916E-2	4.960238E-2	5.417573E-2	6.299600E-2	7.093931E-2	4.136113E-2	5.056446E-2	5.323071E-2	4.744547E-2	7.084075E-2	3.773188E-2	5.786808E-2	7.374232E-2	5.326056E-2	5.862637E-2	4.851130E-2	4.741290E-2	4.291688E-2	6.014947E-2	5.473423E-2	5.472596E-2	6.767544E-2	4.469836E-2	5.796020E-2	6.442460E-2	6.609209E-2	4.764008E-2	5.547166E-2	4.534506E-2	5.019881E-2	4.753937E-2	5.248084E-2	6.094196E-2	4.648361E-2	6.234434E-2	5.669950E-2	6.416936E-2	5.853105E-2	5.135371E-2	5.028374E-2	5.693873E-2	6.623860E-2	6.636902E-2	4.905418E-2	3.692063E-2	5.012292E-2	5.281840E-2	5.522408E-2	5.220946E-2	5.833723E-2	6.542109E-2	4.275568E-2	4.641973E-2	5.585865E-2	5.327393E-2	4.498689E-2	6.481679E-2	4.671021E-2	5.730285E-2	5.134086E-2	4.764301E-2	7.079549E-2	5.514609E-2	5.207633E-2	4.700198E-2	6.023905E-2	4.729693E-2	3.967881E-2	4.833203E-2	5.634714E-2	6.246632E-2	3.736462E-2	3.703473E-2	5.419000E-2	5.670167E-2	4.588747E-2	5.806156E-2	6.819029E-2	6.166299E-2	5.522245E-2	5.431332E-2	5.884734E-2	4.944933E-2	6.088613E-2	5.708762E-2	5.771529E-2	5.529393E-2	6.045216E-2	5.615913E-2	5.780713E-2	4.455878E-2	5.520190E-2	5.333750E-2	5.412289E-2	6.406305E-2	4.399275E-2	5.539143E-2	5.195447E-2	4.919074E-2	3.404993E-2	5.975094E-2	4.015703E-2	5.497245E-2	6.317505E-2	6.770844E-2	5.870962E-2	4.689097E-2	4.620898E-2	5.249005E-2	4.996582E-2	4.723245E-2	5.971011E-2	7.129673E-2	6.460466E-2
5.336080E+2	8.522886E-2	6.103322E-2	7.009895E-2	7.217240E-2	6.749441E-2	8.466415E-2	7.379529E-2	7.887238E-2	6.762820E-2	8.672816E-2	6.688168E-2	7.443028E-2	8.857327E-2	8.087619E-2	6.643054E-2	7.452355E-2	7.007454E-2	7.045203E-2	6.841894E-2	4.695419E-2	7.231893E-2	8.256380E-2	6.994307E-2	7.352753E-2	7.705342E-2	8.542797E-2	7.653737E-2	9.374857E-2	6.224109E-2	7.518989E-2	7.283948E-2	7.275253E-2	6.980303E-2	6.332269E-2	6.860958E-2	6.988500E-2	8.831447E-2	8.223237E-2	5.020817E-2	8.222008E-2	7.636168E-2	5.843585E-2	8.695123E-2	7.161865E-2	7.401472E-2	7.412661E-2	7.672679E-2	7.727248E-2	7.686838E-2	7.004215E-2	8.526325E-2	8.574013E-2	8.559467E-2	8.116536E-2	6.813645E-2	8.037786E-2	8.648068E-2	7.046561E-2	7.212683E-2	7.339834E-2	7.693737E-2	8.017250E-2	6.512442E-2	6.766256E-2	8.002544E-2	7.537599E-2	7.988316E-2	6.459660E-2	7.812857E-2	7.048577E-2	6.935711E-2	6.340959E-2	7.269131E-2	7.921732E-2	6.848091E-2	6.094490E-2	8.140890E-2	8.001990E-2	5.844503E-2	7.987835E-2	6.010193E-2	6.912666E-2	8.356075E-2	5.339344E-2	7.890738E-2	6.760328E-2	6.477740E-2	6.209494E-2	6.064641E-2	6.862098E-2	5.563367E-2	8.029487E-2	8.229631E-2	6.483288E-2	6.707129E-2	5.762315E-2	6.778747E-2	8.889403E-2	6.232210E-2	8.716360E-2	8.537168E-2	7.063393E-2	7.713437E-2	7.752817E-2	5.741067E-2	8.322148E-2	6.927875E-2	8.585412E-2	7.350182E-2	6.570940E-2	7.053134E-2	8.602451E-2	8.441565E-2	7.638698E-2	6.523355E-2	8.102889E-2	8.875635E-2	6.326686E-2	7.958597E-2	6.312505E-2	6.045559E-2	6.056951E-2	6.040858E-2	7.228752E-2	8.844046E-2	7.010507E-2	7.783670E-2	7.119004E-2	5.707669E-2	6.091844E-2	7.824286E-2	8.090175E-2	7.475075E-2	8.186179E-2	7.072310E-2	7.969617E-2	6.319146E-2	9.281437E-2	8.213851E-2	7.901037E-2	9.123280E-2	6.454682E-2	7.266311E-2	8.140741E-2	7.965419E-2	7.945086E-2	7.980888E-2	7.609755E-2	5.720028E-2	8.206011E-2	6.495270E-2	8.737773E-2	8.624648E-2	7.670979E-2	7.668579E-2	6.673823E-2	7.161699E-2	5.827681E-2	9.034319E-2	7.611833E-2	7.949743E-2	6.690977E-2	6.875054E-2	8.114324E-2	7.704585E-2	8.643232E-2	8.624588E-2	6.999569E-2	5.991931E-2	6.863585E-2
5.337630E+2	1.082875E-1	1.050153E-1	8.028420E-2	8.825233E-2	9.555414E-2	9.894818E-2	9.184412E-2	1.058213E-1	9.303505E-2	1.037161E-1	1.087486E-1	9.433628E-2	1.188065E-1	1.110333E-1	9.464666E-2	9.485341E-2	8.989858E-2	1.137426E-1	1.136299E-1	8.566672E-2	1.065754E-1	1.032018E-1	1.001916E-1	9.739629E-2	1.153512E-1	1.030802E-1	1.123908E-1	1.118669E-1	1.282933E-1	1.066634E-1	1.147319E-1	1.046561E-1	9.612080E-2	1.160514E-1	9.535864E-2	9.494504E-2	8.591567E-2	1.076226E-1	1.191861E-1	1.157736E-1	1.139760E-1	1.072782E-1	1.082559E-1	1.027221E-1	1.078014E-1	9.843954E-2	9.335064E-2	1.087318E-1	1.083892E-1	1.061302E-1	1.120041E-1	1.159126E-1	9.039383E-2	1.023695E-1	8.408429E-2	1.060308E-1	9.442034E-2	9.548387E-2	1.003368E-1	8.091338E-2	9.895267E-2	1.133646E-1	1.059929E-1	9.309483E-2	1.171013E-1	9.983659E-2	1.097263E-1	1.041904E-1	1.023553E-1	1.031469E-1	1.058204E-1	1.066984E-1	1.109434E-1	1.071064E-1	1.172874E-1	9.760830E-2	1.104920E-1	9.846459E-2	7.526106E-2	9.692452E-2	8.935109E-2	1.033142E-1	9.515440E-2	1.058038E-1	1.268895E-1	1.000650E-1	1.108826E-1	9.562313E-2	8.792254E-2	9.315089E-2	9.920796E-2	8.121487E-2	1.124560E-1	8.484860E-2	1.174114E-1	1.009552E-1	1.175641E-1	1.099290E-1	1.060082E-1	1.063231E-1	1.038926E-1	1.088426E-1	1.040972E-1	1.065544E-1	1.070460E-1	1.009886E-1	1.151761E-1	9.609688E-2	1.012657E-1	1.031760E-1	1.105907E-1	1.021319E-1	1.187805E-1	9.960729E-2	1.174337E-1	1.019462E-1	1.051653E-1	9.384487E-2	1.095153E-1	9.690200E-2	1.021350E-1	1.099817E-1	1.160779E-1	9.331769E-2	1.147136E-1	1.088046E-1	9.581080E-2	1.088150E-1	1.075717E-1	9.528076E-2	9.425677E-2	1.111081E-1	1.046645E-1	1.025854E-1	1.242667E-1	9.449017E-2	1.105290E-1	1.286369E-1	9.811849E-2	1.017026E-1	1.010485E-1	1.072508E-1	1.148543E-1	1.091821E-1	1.179719E-1	9.763675E-2	1.078508E-1	1.090091E-1	1.035456E-1	8.596179E-2	9.935079E-2	1.039926E-1	1.031306E-1	1.224554E-1	9.839517E-2	8.856269E-2	1.122353E-1	1.196348E-1	1.103881E-1	1.050912E-1	1.194738E-1	1.033950E-1	9.584842E-2	9.308290E-2	1.085938E-1	9.997283E-2	1.196530E-1	1.061588E-1	1.234482E-1	5.798542E-2
5.339140E+2	1.407940E-1	1.649316E-1	1.636246E-1	1.553864E-1	1.545527E-1	1.710886E-1	1.650520E-1	1.462275E-1	1.645690E-1	1.504034E-1	1.322642E-1	1.538530E-1	1.757716E-1	1.793168E-1	1.661021E-1	1.790886E-1	1.464158E-1	1.508219E-1	1.695893E-1	1.586711E-1	1.727857E-1	1.694572E-1	1.424949E-1	1.376688E-1	1.967925E-1	1.911333E-1	1.879523E-1	1.797058E-1	1.714276E-1	1.626513E-1	1.692201E-1	1.889382E-1	1.641661E-1	1.844060E-1	1.575347E-1	1.555612E-1	1.599646E-1	1.816159E-1	1.670365E-1	1.465635E-1	1.727090E-1	1.617808E-1	1.543160E-1	1.452597E-1	1.619031E-1	1.673945E-1	1.630196E-1	1.604444E-1	1.577725E-1	1.902296E-1	1.632777E-1	1.889169E-1	1.531975E-1	1.552768E-1	1.671052E-1	1.418554E-1	1.639316E-1	1.735901E-1	1.623531E-1	1.613895E-1	1.665717E-1	1.504725E-1	1.626848E-1	1.585837E-1	1.652035E-1	1.533336E-1	1.702199E-1	1.522116E-1	1.576709E-1	1.662008E-1	1.815363E-1	1.467061E-1	1.593668E-1	1.632930E-1	1.682361E-1	1.583773E-1	1.572509E-1	1.522342E-1	1.747296E-1	1.592080E-1	1.696258E-1	1.678326E-1	1.786600E-1	1.676717E-1	1.404721E-1	1.517063E-1	1.628152E-1	1.758086E-1	1.502945E-1	1.433197E-1	1.641331E-1	1.798470E-1	1.738446E-1	1.729383E-1	1.508419E-1	1.600883E-1	1.505552E-1	1.613725E-1	1.409523E-1	1.760079E-1	1.582124E-1	1.562354E-1	1.675935E-1	1.679276E-1	1.765582E-1	1.636664E-1	1.820919E-1	1.616062E-1	1.647266E-1	1.706047E-1	1.552333E-1	1.605511E-1	1.550666E-1	1.536962E-1	1.462467E-1	1.635330E-1	1.549554E-1	1.482431E-1	1.665286E-1	1.592555E-1	1.763086E-1	1.414701E-1	1.913613E-1	1.531652E-1	1.715641E-1	1.612143E-1	1.618391E-1	1.562551E-1	1.752976E-1	1.639744E-1	1.737893E-1	1.556994E-1	1.786389E-1	1.805560E-1	1.816037E-1	1.602680E-1	1.402729E-1	1.352381E-1	1.624233E-1	1.545566E-1	1.705739E-1	1.665192E-1	1.693356E-1	1.573027E-1	1.484946E-1	1.797097E-1	1.890723E-1	1.722142E-1	1.579188E-1	1.413123E-1	1.473327E-1	1.657518E-1	1.572819E-1	1.770304E-1	1.541188E-1	1.736404E-1	1.547051E-1	1.623412E-1	1.753542E-1	1.547149E-1	1.532010E-1	1.587369E-1	1.704488E-1	1.668369E-1	1.609157E-1	1.462512E-1	1.545223E-1	1.708897E-1	1.798263E-1	1.616451E-1
5.340800E+2	2.610006E-1	2.888147E-1	2.637815E-1	2.703335E-1	2.855614E-1	2.758267E-1	2.638423E-1	2.760599E-1	2.836068E-1	2.585329E-1	2.642728E-1	2.697913E-1	2.862708E-1	2.606190E-1	2.790873E-1	2.864756E-1	2.611056E-1	2.855741E-1	2.984357E-1	2.623873E-1	2.823239E-1	2.655675E-1	2.935225E-1	2.738640E-1	3.333520E-1	3.069447E-1	2.964762E-1	2.963950E-1	3.219679E-1	2.567159E-1	3.144353E-1	2.905526E-1	3.043247E-1	2.901385E-1	2.950093E-1	2.724467E-1	2.954755E-1	2.903424E-1	2.751984E-1	3.065435E-1	2.719600E-1	3.005673E-1	3.054523E-1	2.687696E-1	2.707061E-1	2.942153E-1	2.926843E-1	2.861471E-1	2.844595E-1	2.947393E-1	2.780529E-1	2.769855E-1	2.738756E-1	2.627942E-1	2.806780E-1	2.621303E-1	2.938401E-1	2.636055E-1	3.033681E-1	2.818433E-1	3.169002E-1	2.953214E-1	2.891076E-1	2.501908E-1	2.976702E-1	2.881937E-1	2.854003E-1	2.952917E-1	3.150873E-1	2.785112E-1	2.961735E-1	2.992434E-1	2.859415E-1	3.000481E-1	2.743694E-1	2.805815E-1	2.987620E-1	2.854572E-1	2.769735E-1	2.608674E-1	3.091894E-1	2.876419E-1	2.977931E-1	2.755099E-1	2.945952E-1	2.848708E-1	2.725660E-1	2.943657E-1	2.885510E-1	2.742834E-1	3.074094E-1	2.681100E-1	3.368480E-1	2.895186E-1	2.997946E-1	2.870270E-1	2.817231E-1	3.248680E-1	2.967074E-1	2.725112E-1	3.025675E-1	3.207374E-1	2.912814E-1	2.737291E-1	2.958435E-1	2.947699E-1	2.945495E-1	2.897829E-1	2.690224E-1	3.087314E-1	2.944919E-1	2.817851E-1	2.716161E-1	2.878446E-1	3.025750E-1	3.143862E-1	2.741811E-1	2.966107E-1	2.956868E-1	3.090692E-1	2.774874E-1	2.746714E-1	2.915482E-1	2.839888E-1	2.851938E-1	2.941067E-1	2.654986E-1	3.030059E-1	2.850126E-1	2.648761E-1	2.896170E-1	2.940844E-1	3.063451E-1	2.863889E-1	2.850292E-1	2.751147E-1	3.060972E-1	2.858643E-1	3.024209E-1	2.749529E-1	2.892709E-1	2.943614E-1	3.152377E-1	2.889203E-1	2.930299E-1	2.663828E-1	2.886527E-1	2.773042E-1	2.726784E-1	2.905497E-1	2.841827E-1	2.938560E-1	2.762447E-1	3.082877E-1	2.876121E-1	2.719649E-1	2.932405E-1	2.967940E-1	2.855667E-1	2.939185E-1	3.104084E-1	2.563739E-1	3.077891E-1	2.919057E-1	3.125623E-1	3.010756E-1	3.189967E-1	2.689584E-1	2.892316E-1	2.861486E-1
5.342090E+2	4.484890E-1	4.530771E-1	4.477964E-1	4.458512E-1	4.754967E-1	4.629392E-1	4.414883E-1	4.713702E-1	4.387359E-1	4.527675E-1	4.582451E-1	4.546238E-1	4.671221E-1	4.976241E-1	4.601370E-1	4.987590E-1	4.667919E-1	4.613954E-1	4.468065E-1	4.701012E-1	4.736058E-1	4.756028E-1	4.607624E-1	4.522982E-1	5.051243E-1	5.098173E-1	5.208618E-1	4.767275E-1	5.251184E-1	4.958135E-1	5.033195E-1	5.007275E-1	5.217803E-1	5.376244E-1	4.618209E-1	5.044707E-1	4.828984E-1	5.314284E-1	5.270121E-1	4.776426E-1	5.326690E-1	4.823966E-1	4.782259E-1	5.203614E-1	4.436180E-1	4.439256E-1	5.001892E-1	4.862558E-1	4.850052E-1	5.113744E-1	5.094663E-1	4.751240E-1	5.140076E-1	4.720102E-1	5.141286E-1	4.580871E-1	4.884778E-1	4.814147E-1	4.804493E-1	4.726299E-1	4.938126E-1	4.926168E-1	4.752668E-1	4.899953E-1	4.859866E-1	4.616042E-1	4.936698E-1	4.942670E-1	4.852829E-1	4.735299E-1	4.797965E-1	4.507097E-1	5.044415E-1	4.992442E-1	4.850234E-1	4.996327E-1	4.976160E-1	4.770311E-1	5.159939E-1	4.826605E-1	4.623549E-1	4.808798E-1	4.534093E-1	4.879130E-1	4.801140E-1	4.765904E-1	4.654264E-1	5.079259E-1	5.003920E-1	4.998311E-1	4.988709E-1	4.783395E-1	5.166417E-1	4.836842E-1	4.904667E-1	4.549379E-1	4.684745E-1	4.735045E-1	4.539939E-1	4.482348E-1	5.054745E-1	4.945720E-1	4.729820E-1	4.997244E-1	5.172610E-1	4.512402E-1	4.832813E-1	4.677763E-1	4.554645E-1	4.774128E-1	5.060265E-1	4.820957E-1	5.031684E-1	4.757805E-1	4.797491E-1	4.956088E-1	4.519183E-1	4.864691E-1	4.785749E-1	5.127583E-1	4.736997E-1	4.996933E-1	4.576576E-1	4.918036E-1	4.684629E-1	4.944696E-1	5.243056E-1	4.619030E-1	4.669225E-1	4.774596E-1	4.394331E-1	4.628710E-1	4.700884E-1	4.684447E-1	4.615917E-1	4.900411E-1	4.994107E-1	4.784579E-1	5.079327E-1	5.205540E-1	4.916238E-1	5.065939E-1	4.579563E-1	4.967671E-1	4.777211E-1	4.775978E-1	4.643908E-1	4.927910E-1	5.398761E-1	4.310747E-1	4.583399E-1	4.829510E-1	4.918921E-1	4.828195E-1	5.221932E-1	4.794434E-1	4.930811E-1	4.850304E-1	4.462312E-1	5.136542E-1	4.433517E-1	4.388406E-1	4.803287E-1	4.440440E-1	4.970747E-1	4.636604E-1	4.556541E-1	4.926233E-1	4.748507E-1	4.818282E-1
5.343550E+2	8.139078E-1	7.949106E-1	8.140529E-1	7.677153E-1	7.949686E-1	8.259748E-1	7.983191E-1	8.459013E-1	7.939165E-1	8.542224E-1	8.209224E-1	8.126914E-1	7.894368E-1	8.091300E-1	7.766398E-1	8.352681E-1	8.082433E-1	8.149610E-1	7.907536E-1	8.693554E-1	8.409025E-1	8.440205E-1	8.538678E-1	7.900163E-1	8.997748E-1	9.039114E-1	8.375691E-1	8.534018E-1	8.865847E-1	8.474567E-1	8.314736E-1	8.702656E-1	8.614304E-1	8.641527E-1	8.300540E-1	8.429379E-1	8.574896E-1	8.326729E-1	8.455713E-1	8.135817E-1	8.571393E-1	8.398399E-1	8.220037E-1	8.364131E-1	8.414057E-1	8.437273E-1	8.305217E-1	8.359451E-1	8.045707E-1	8.775176E-1	8.226376E-1	8.292989E-1	8.625126E-1	8.822053E-1	8.478863E-1	8.501803E-1	8.574011E-1	8.571670E-1	8.287018E-1	8.872987E-1	8.390535E-1	8.346219E-1	8.012676E-1	8.363287E-1	8.139685E-1	8.474091E-1	8.165003E-1	8.334813E-1	8.237170E-1	8.081480E-1	7.821869E-1	8.162179E-1	8.292136E-1	8.775209E-1	8.336816E-1	8.284573E-1	8.420314E-1	8.467706E-1	8.043243E-1	8.149341E-1	8.664583E-1	7.849271E-1	8.631093E-1	8.064102E-1	8.014720E-1	8.329043E-1	8.240904E-1	8.411828E-1	8.212801E-1	8.314811E-1	8.557763E-1	8.404598E-1	8.312468E-1	8.276641E-1	8.105939E-1	8.477060E-1	8.136916E-1	7.706408E-1	8.196071E-1	8.143165E-1	7.876340E-1	8.268163E-1	8.251586E-1	8.301693E-1	8.396471E-1	8.407864E-1	8.292474E-1	8.017371E-1	7.754613E-1	8.036318E-1	7.847669E-1	8.062375E-1	8.289759E-1	8.258615E-1	8.089517E-1	8.203821E-1	8.750363E-1	8.332572E-1	8.464802E-1	7.967054E-1	8.243204E-1	7.997204E-1	8.247545E-1	8.859816E-1	8.294718E-1	8.154134E-1	8.228271E-1	7.890178E-1	8.402601E-1	7.925759E-1	8.343378E-1	8.406306E-1	8.501921E-1	8.107941E-1	8.373823E-1	8.352769E-1	8.185090E-1	8.099719E-1	8.394609E-1	8.510316E-1	8.417091E-1	8.165188E-1	8.406554E-1	7.972934E-1	8.178046E-1	8.358661E-1	8.417843E-1	8.118908E-1	8.585566E-1	8.033453E-1	7.861946E-1	8.075505E-1	8.007573E-1	8.266845E-1	8.560973E-1	8.250945E-1	7.936863E-1	8.284950E-1	8.546096E-1	8.124102E-1	8.209629E-1	8.391572E-1	7.866036E-1	7.966076E-1	8.569763E-1	8.278792E-1	8.179160E-1	8.739817E-1	8.325861E-1	8.402099E-1
5.345110E+2	1.272086E+0	1.252900E+0	1.276503E+0	1.176974E+0	1.295188E+0	1.290072E+0	1.232123E+0	1.252981E+0	1.254626E+0	1.220657E+0	1.287265E+0	1.287608E+0	1.251990E+0	1.266138E+0	1.282747E+0	1.258149E+0	1.267020E+0	1.280625E+0	1.267659E+0	1.273495E+0	1.233022E+0	1.273207E+0	1.258930E+0	1.274500E+0	1.330913E+0	1.332409E+0	1.334396E+0	1.315097E+0	1.336582E+0	1.294991E+0	1.324506E+0	1.302634E+0	1.392574E+0	1.300922E+0	1.240627E+0	1.264292E+0	1.298799E+0	1.269045E+0	1.373281E+0	1.296656E+0	1.283825E+0	1.252623E+0	1.321763E+0	1.298294E+0	1.255341E+0	1.211516E+0	1.292063E+0	1.310628E+0	1.277136E+0	1.311191E+0	1.249264E+0	1.285833E+0	1.296956E+0	1.274438E+0	1.296259E+0	1.280017E+0	1.250018E+0	1.291805E+0	1.303907E+0	1.310535E+0	1.296855E+0	1.297501E+0	1.273069E+0	1.281017E+0	1.294076E+0	1.284011E+0	1.259035E+0	1.261771E+0	1.235032E+0	1.277501E+0	1.268081E+0	1.300530E+0	1.265919E+0	1.280698E+0	1.271751E+0	1.306563E+0	1.292297E+0	1.248739E+0	1.267532E+0	1.254747E+0	1.265227E+0	1.238108E+0	1.257779E+0	1.250533E+0	1.278829E+0	1.298975E+0	1.225293E+0	1.312874E+0	1.247536E+0	1.271789E+0	1.315545E+0	1.285018E+0	1.285436E+0	1.272024E+0	1.297680E+0	1.312995E+0	1.261784E+0	1.255544E+0	1.334290E+0	1.313176E+0	1.283328E+0	1.196329E+0	1.268644E+0	1.218560E+0	1.291468E+0	1.290748E+0	1.270605E+0	1.251390E+0	1.300870E+0	1.270778E+0	1.271504E+0	1.335217E+0	1.244275E+0	1.267975E+0	1.223818E+0	1.263788E+0	1.309720E+0	1.266803E+0	1.253947E+0	1.296616E+0	1.218897E+0	1.225217E+0	1.276530E+0	1.319925E+0	1.264348E+0	1.238638E+0	1.301445E+0	1.297235E+0	1.240635E+0	1.299109E+0	1.246165E+0	1.234338E+0	1.270744E+0	1.315459E+0	1.207854E+0	1.260479E+0	1.227858E+0	1.244648E+0	1.210855E+0	1.258242E+0	1.248265E+0	1.287974E+0	1.309392E+0	1.298094E+0	1.268878E+0	1.255295E+0	1.259731E+0	1.288225E+0	1.275266E+0	1.381211E+0	1.257989E+0	1.272708E+0	1.240985E+0	1.277018E+0	1.236361E+0	1.222415E+0	1.304114E+0	1.243183E+0	1.256583E+0	1.278194E+0	1.246828E+0	1.276119E+0	1.267105E+0	1.235647E+0	1.315760E+0	1.249608E+0	1.262319E+0	1.314018E+0	1.332774E+0	1.143324E+0
5.346620E+2	1.760615E+0	1.754031E+0	1.751405E+0	1.659142E+0	1.771778E+0	1.751261E+0	1.772233E+0	1.709704E+0	1.720083E+0	1.775396E+0	1.746651E+0	1.736970E+0	1.733307E+0	1.704086E+0	1.697053E+0	1.786179E+0	1.705412E+0	1.752196E+0	1.706589E+0	1.719737E+0	1.740378E+0	1.704353E+0	1.768700E+0	1.688155E+0	1.788361E+0	1.795383E+0	1.725775E+0	1.776894E+0	1.728146E+0	1.725963E+0	1.743489E+0	1.749370E+0	1.774044E+0	1.715109E+0	1.693963E+0	1.736164E+0	1.779175E+0	1.714395E+0	1.729627E+0	1.739071E+0	1.785210E+0	1.710081E+0	1.745130E+0	1.709292E+0	1.752709E+0	1.720552E+0	1.743464E+0	1.719118E+0	1.741769E+0	1.703926E+0	1.746562E+0	1.729666E+0	1.768795E+0	1.778290E+0	1.751334E+0	1.743529E+0	1.722221E+0	1.693519E+0	1.706245E+0	1.732082E+0	1.736710E+0	1.781622E+0	1.730740E+0	1.707850E+0	1.725588E+0	1.691899E+0	1.708349E+0	1.704087E+0	1.738786E+0	1.778702E+0	1.736335E+0	1.707133E+0	1.692989E+0	1.731883E+0	1.725175E+0	1.697637E+0	1.677918E+0	1.736203E+0	1.708450E+0	1.690860E+0	1.673484E+0	1.661211E+0	1.726046E+0	1.711673E+0	1.752806E+0	1.727202E+0	1.649579E+0	1.718308E+0	1.669129E+0	1.703962E+0	1.707742E+0	1.761328E+0	1.737880E+0	1.665110E+0	1.687816E+0	1.679723E+0	1.642835E+0	1.721349E+0	1.608638E+0	1.674805E+0	1.705171E+0	1.696719E+0	1.728903E+0	1.783902E+0	1.750734E+0	1.699032E+0	1.710012E+0	1.718060E+0	1.621558E+0	1.781538E+0	1.729537E+0	1.717819E+0	1.658148E+0	1.705637E+0	1.705511E+0	1.692190E+0	1.796281E+0	1.686149E+0	1.689336E+0	1.699739E+0	1.707825E+0	1.673989E+0	1.725845E+0	1.675332E+0	1.732811E+0	1.745848E+0	1.727117E+0	1.715849E+0	1.715721E+0	1.683725E+0	1.663752E+0	1.756600E+0	1.703781E+0	1.695653E+0	1.698708E+0	1.674740E+0	1.696720E+0	1.700314E+0	1.674418E+0	1.719264E+0	1.677305E+0	1.705053E+0	1.720523E+0	1.678016E+0	1.680771E+0	1.713295E+0	1.710484E+0	1.776027E+0	1.741299E+0	1.660982E+0	1.724496E+0	1.680992E+0	1.655794E+0	1.725632E+0	1.651196E+0	1.733810E+0	1.748621E+0	1.745457E+0	1.654254E+0	1.755139E+0	1.752604E+0	1.659442E+0	1.695552E+0	1.742376E+0	1.708274E+0	1.668277E+0	1.647823E+0	1.699285E+0	1.606838E+0	1.696523E+0
5.348120E+2	2.160431E+0	2.059233E+0	2.077637E+0	2.091905E+0	2.125141E+0	2.140706E+0	2.087080E+0	2.104623E+0	2.075903E+0	2.012034E+0	2.048184E+0	2.056899E+0	2.076591E+0	2.118169E+0	2.114695E+0	2.075867E+0	2.018254E+0	2.058200E+0	2.100567E+0	2.117320E+0	2.062849E+0	2.067617E+0	2.154504E+0	2.176177E+0	2.069576E+0	2.170951E+0	2.116784E+0	2.122945E+0	2.135621E+0	2.131154E+0	2.126838E+0	2.065338E+0	2.017554E+0	2.152111E+0	2.040424E+0	2.055523E+0	2.065174E+0	2.097830E+0	2.103094E+0	2.075582E+0	2.076238E+0	2.053180E+0	2.076968E+0	2.080074E+0	2.073344E+0	2.048886E+0	2.094401E+0	2.118764E+0	2.137868E+0	2.030426E+0	2.061910E+0	2.054753E+0	2.125360E+0	2.103037E+0	2.094158E+0	2.058026E+0	2.064815E+0	2.110034E+0	2.054772E+0	2.047344E+0	2.068508E+0	2.119402E+0	2.046693E+0	2.105361E+0	2.056999E+0	2.135669E+0	2.052610E+0	2.056403E+0	2.019312E+0	2.097881E+0	2.118760E+0	2.070634E+0	2.069780E+0	2.119939E+0	2.067492E+0	2.054461E+0	2.076268E+0	2.043567E+0	2.034282E+0	2.073037E+0	2.091054E+0	1.971871E+0	2.068424E+0	2.048641E+0	2.000673E+0	2.058839E+0	2.061510E+0	2.060126E+0	1.998137E+0	2.062547E+0	2.092146E+0	2.070036E+0	2.090374E+0	2.062144E+0	2.090023E+0	2.076211E+0	1.982046E+0	2.018927E+0	2.042756E+0	2.074575E+0	2.008209E+0	2.001343E+0	2.096122E+0	2.071977E+0	2.021880E+0	2.047540E+0	2.108488E+0	2.149561E+0	2.073592E+0	2.059345E+0	2.017420E+0	2.085996E+0	2.078651E+0	2.067268E+0	2.058469E+0	2.083587E+0	2.130397E+0	2.046153E+0	2.008260E+0	2.020366E+0	1.992648E+0	2.026066E+0	2.055669E+0	2.013912E+0	2.093360E+0	2.038989E+0	2.071909E+0	2.085462E+0	1.968892E+0	2.034506E+0	2.016173E+0	2.000647E+0	2.030955E+0	2.060788E+0	1.945772E+0	2.016229E+0	1.994082E+0	1.976365E+0	1.985443E+0	2.091635E+0	2.078132E+0	2.019430E+0	1.988317E+0	2.046887E+0	1.949962E+0	1.959679E+0	2.002702E+0	2.069937E+0	2.030263E+0	2.034106E+0	2.034530E+0	1.929498E+0	1.982471E+0	1.993196E+0	2.015050E+0	2.013834E+0	1.959254E+0	1.993740E+0	1.964955E+0	2.064624E+0	2.020733E+0	1.979595E+0	1.989611E+0	2.043362E+0	2.058854E+0	1.966909E+0	1.998266E+0	2.043652E+0	1.956853E+0	1.973286E+0
5.349530E+2	2.300264E+0	2.256217E+0	2.255718E+0	2.331896E+0	2.321089E+0	2.323481E+0	2.308193E+0	2.273175E+0	2.262074E+0	2.260632E+0	2.344735E+0	2.337560E+0	2.262140E+0	2.260127E+0	2.320048E+0	2.293941E+0	2.262854E+0	2.287969E+0	2.325194E+0	2.314886E+0	2.291265E+0	2.360591E+0	2.310010E+0	2.253208E+0	2.256715E+0	2.313373E+0	2.294245E+0	2.329055E+0	2.334105E+0	2.268778E+0	2.230456E+0	2.266296E+0	2.297169E+0	2.268227E+0	2.201882E+0	2.287181E+0	2.287834E+0	2.256254E+0	2.359477E+0	2.257142E+0	2.272311E+0	2.237298E+0	2.240967E+0	2.273594E+0	2.182718E+0	2.261480E+0	2.242113E+0	2.311431E+0	2.387252E+0	2.223659E+0	2.224862E+0	2.281565E+0	2.340428E+0	2.295797E+0	2.264854E+0	2.294718E+0	2.242432E+0	2.351546E+0	2.172964E+0	2.204661E+0	2.203366E+0	2.282545E+0	2.227744E+0	2.256411E+0	2.165701E+0	2.266477E+0	2.245676E+0	2.237619E+0	2.241624E+0	2.230150E+0	2.240589E+0	2.243207E+0	2.260289E+0	2.182607E+0	2.275572E+0	2.170965E+0	2.243531E+0	2.235186E+0	2.303953E+0	2.255965E+0	2.339778E+0	2.224506E+0	2.243392E+0	2.171547E+0	2.226198E+0	2.211424E+0	2.276342E+0	2.235194E+0	2.250983E+0	2.258288E+0	2.296056E+0	2.329520E+0	2.249695E+0	2.193414E+0	2.266706E+0	2.202861E+0	2.249874E+0	2.183938E+0	2.188742E+0	2.271619E+0	2.257757E+0	2.195234E+0	2.254096E+0	2.273706E+0	2.218317E+0	2.242868E+0	2.213253E+0	2.287963E+0	2.205346E+0	2.186452E+0	2.209414E+0	2.294543E+0	2.171785E+0	2.240809E+0	2.141541E+0	2.256475E+0	2.239894E+0	2.261233E+0	2.179298E+0	2.175919E+0	2.176888E+0	2.242944E+0	2.186956E+0	2.206775E+0	2.239309E+0	2.232976E+0	2.249831E+0	2.286770E+0	2.176722E+0	2.170125E+0	2.240724E+0	2.215642E+0	2.225111E+0	2.233506E+0	2.207107E+0	2.173371E+0	2.249123E+0	2.105218E+0	2.279986E+0	2.233264E+0	2.207520E+0	2.199782E+0	2.227678E+0	2.216294E+0	2.173796E+0	2.207375E+0	2.192671E+0	2.273732E+0	2.230228E+0	2.220637E+0	2.184308E+0	2.144980E+0	2.175893E+0	2.210717E+0	2.174231E+0	2.231896E+0	2.187334E+0	2.171766E+0	2.086046E+0	2.262343E+0	2.220095E+0	2.114726E+0	2.186544E+0	2.152867E+0	2.231104E+0	2.153881E+0	2.092876E+0	2.251843E+0	2.203829E+0	2.189826E+0
5.351140E+2	2.396766E+0	2.238006E+0	2.247086E+0	2.295392E+0	2.309158E+0	2.357672E+0	2.191197E+0	2.268109E+0	2.229553E+0	2.228626E+0	2.254309E+0	2.294433E+0	2.238491E+0	2.250578E+0	2.257500E+0	2.267710E+0	2.252315E+0	2.257591E+0	2.286266E+0	2.283624E+0	2.252774E+0	2.245133E+0	2.254683E+0	2.249464E+0	2.292005E+0	2.207119E+0	2.243645E+0	2.277379E+0	2.243295E+0	2.260963E+0	2.207296E+0	2.237567E+0	2.319567E+0	2.304838E+0	2.221607E+0	2.278552E+0	2.221805E+0	2.231721E+0	2.303555E+0	2.257964E+0	2.241190E+0	2.268660E+0	2.286412E+0	2.252937E+0	2.188040E+0	2.145266E+0	2.247638E+0	2.261403E+0	2.298182E+0	2.200608E+0	2.265860E+0	2.265078E+0	2.263696E+0	2.248822E+0	2.206605E+0	2.218952E+0	2.217692E+0	2.326355E+0	2.247472E+0	2.245597E+0	2.225746E+0	2.281520E+0	2.153626E+0	2.127629E+0	2.131168E+0	2.240453E+0	2.240866E+0	2.221361E+0	2.243810E+0	2.213743E+0	2.260968E+0	2.280404E+0	2.232009E+0	2.196577E+0	2.208941E+0	2.213792E+0	2.208318E+0	2.172328E+0	2.237199E+0	2.244624E+0	2.306044E+0	2.203483E+0	2.165846E+0	2.164582E+0	2.281022E+0	2.176102E+0	2.212825E+0	2.271890E+0	2.192984E+0	2.246139E+0	2.262589E+0	2.241908E+0	2.303754E+0	2.193967E+0	2.260308E+0	2.228214E+0	2.223981E+0	2.152424E+0	2.147998E+0	2.295387E+0	2.253253E+0	2.209932E+0	2.229404E+0	2.207086E+0	2.218053E+0	2.188107E+0	2.244427E+0	2.151198E+0	2.245832E+0	2.201099E+0	2.220904E+0	2.289816E+0	2.138968E+0	2.265571E+0	2.180353E+0	2.162666E+0	2.264185E+0	2.256445E+0	2.182724E+0	2.193576E+0	2.136250E+0	2.155204E+0	2.188223E+0	2.195318E+0	2.230732E+0	2.214728E+0	2.283181E+0	2.219940E+0	2.169218E+0	2.171604E+0	2.169734E+0	2.242969E+0	2.194518E+0	2.247523E+0	2.193400E+0	2.178544E+0	2.220844E+0	2.213510E+0	2.228079E+0	2.208648E+0	2.170442E+0	2.277044E+0	2.179914E+0	2.196105E+0	2.183764E+0	2.148516E+0	2.178537E+0	2.268350E+0	2.167269E+0	2.232929E+0	2.197461E+0	2.188243E+0	2.173396E+0	2.242465E+0	2.229936E+0	2.227982E+0	2.153725E+0	2.229039E+0	2.149162E+0	2.191161E+0	2.249976E+0	2.115500E+0	2.172757E+0	2.164900E+0	2.169697E+0	2.118656E+0	2.172549E+0	2.242424E+0	2.101294E+0	2.092147E+0
5.352550E+2	2.086881E+0	1.970110E+0	2.047582E+0	1.992575E+0	2.043608E+0	2.033774E+0	2.045832E+0	2.011287E+0	1.978540E+0	2.013351E+0	2.001638E+0	2.015845E+0	1.992021E+0	1.967977E+0	2.013788E+0	2.005197E+0	1.952374E+0	1.977719E+0	2.059245E+0	1.955395E+0	2.022486E+0	2.020147E+0	2.063937E+0	1.983586E+0	1.977474E+0	2.019825E+0	1.957625E+0	1.988499E+0	2.022467E+0	2.017340E+0	1.952277E+0	1.909994E+0	2.013331E+0	2.047976E+0	1.969160E+0	1.980724E+0	2.023330E+0	1.972843E+0	2.004636E+0	1.951951E+0	1.972185E+0	1.962032E+0	2.070807E+0	1.993201E+0	1.961938E+0	1.933771E+0	1.988271E+0	1.967862E+0	2.054337E+0	1.957239E+0	1.990756E+0	1.939023E+0	2.043420E+0	1.984350E+0	1.967306E+0	1.921123E+0	1.967088E+0	2.006861E+0	1.936348E+0	1.988874E+0	2.006468E+0	2.003421E+0	1.973139E+0	1.887171E+0	1.952525E+0	1.981856E+0	2.003558E+0	2.015114E+0	1.963477E+0	1.896890E+0	1.985633E+0	2.006708E+0	1.996135E+0	1.983595E+0	2.008375E+0	2.024563E+0	2.015661E+0	1.974859E+0	1.943530E+0	1.980748E+0	2.004032E+0	1.968415E+0	1.890997E+0	1.924512E+0	2.001819E+0	1.966948E+0	1.975117E+0	2.014753E+0	1.911511E+0	1.940116E+0	2.027560E+0	1.953575E+0	1.936510E+0	1.979113E+0	2.009870E+0	1.887940E+0	1.991170E+0	1.977363E+0	1.961519E+0	1.989236E+0	1.996425E+0	2.010202E+0	2.062841E+0	1.977197E+0	1.964373E+0	1.964305E+0	2.023577E+0	2.035418E+0	1.936171E+0	1.949630E+0	1.951838E+0	2.053865E+0	1.930292E+0	2.004828E+0	1.918668E+0	1.964941E+0	2.025776E+0	1.977570E+0	1.952164E+0	1.988384E+0	1.918859E+0	1.911049E+0	1.980244E+0	1.985386E+0	1.976956E+0	1.929355E+0	1.933771E+0	1.997178E+0	1.988560E+0	1.914163E+0	1.955288E+0	1.935448E+0	1.940981E+0	2.038632E+0	1.894159E+0	1.980836E+0	1.868391E+0	1.919597E+0	1.934324E+0	1.958457E+0	2.004317E+0	1.911351E+0	1.868968E+0	1.927985E+0	1.944141E+0	2.003098E+0	1.898462E+0	1.966170E+0	1.945141E+0	1.883265E+0	1.912714E+0	1.972624E+0	1.899746E+0	2.041460E+0	1.930954E+0	2.000246E+0	1.819156E+0	1.937517E+0	1.952924E+0	1.979251E+0	1.908139E+0	1.924284E+0	1.916109E+0	1.964980E+0	1.953178E+0	1.893044E+0	1.876977E+0	1.999141E+0	1.888768E+0	1.923500E+0
5.354110E+2	1.786436E+0	1.691537E+0	1.573852E+0	1.652295E+0	1.784743E+0	1.752741E+0	1.764128E+0	1.699348E+0	1.684938E+0	1.656346E+0	1.687643E+0	1.713119E+0	1.722708E+0	1.743283E+0	1.689188E+0	1.663335E+0	1.757210E+0	1.681442E+0	1.656617E+0	1.696355E+0	1.723454E+0	1.748855E+0	1.732424E+0	1.699261E+0	1.689966E+0	1.688132E+0	1.652400E+0	1.698178E+0	1.712725E+0	1.721759E+0	1.685989E+0	1.655486E+0	1.692789E+0	1.702966E+0	1.647960E+0	1.713877E+0	1.654665E+0	1.672631E+0	1.735142E+0	1.649027E+0	1.743275E+0	1.797463E+0	1.624212E+0	1.633861E+0	1.643780E+0	1.656404E+0	1.716486E+0	1.627678E+0	1.659508E+0	1.707303E+0	1.684786E+0	1.642471E+0	1.686953E+0	1.730430E+0	1.700542E+0	1.723754E+0	1.727046E+0	1.737081E+0	1.605422E+0	1.659086E+0	1.748519E+0	1.722501E+0	1.682062E+0	1.608543E+0	1.679462E+0	1.708752E+0	1.698683E+0	1.687476E+0	1.663542E+0	1.641065E+0	1.712808E+0	1.648016E+0	1.687414E+0	1.687988E+0	1.713783E+0	1.709185E+0	1.693714E+0	1.714931E+0	1.648425E+0	1.723589E+0	1.741405E+0	1.691314E+0	1.686086E+0	1.683441E+0	1.727526E+0	1.667780E+0	1.695656E+0	1.705912E+0	1.641370E+0	1.673575E+0	1.675620E+0	1.637588E+0	1.726594E+0	1.668157E+0	1.749025E+0	1.671081E+0	1.652711E+0	1.650740E+0	1.667648E+0	1.695931E+0	1.693958E+0	1.669109E+0	1.759163E+0	1.685292E+0	1.699429E+0	1.671515E+0	1.735442E+0	1.724611E+0	1.681339E+0	1.707567E+0	1.611179E+0	1.753348E+0	1.639270E+0	1.658967E+0	1.638001E+0	1.742657E+0	1.680329E+0	1.723009E+0	1.692049E+0	1.641604E+0	1.651957E+0	1.647390E+0	1.677440E+0	1.673618E+0	1.698895E+0	1.711775E+0	1.718454E+0	1.663903E+0	1.722430E+0	1.637893E+0	1.660998E+0	1.636786E+0	1.688373E+0	1.674909E+0	1.690470E+0	1.692795E+0	1.685750E+0	1.649654E+0	1.703037E+0	1.674512E+0	1.692828E+0	1.655087E+0	1.693910E+0	1.641234E+0	1.644149E+0	1.692318E+0	1.731634E+0	1.700298E+0	1.653454E+0	1.620757E+0	1.682277E+0	1.695475E+0	1.678493E+0	1.736148E+0	1.662258E+0	1.647139E+0	1.670575E+0	1.669374E+0	1.606155E+0	1.723987E+0	1.716742E+0	1.632163E+0	1.674512E+0	1.704144E+0	1.643157E+0	1.678939E+0	1.638675E+0	1.698224E+0	1.683202E+0	1.695397E+0
5.355580E+2	1.447384E+0	1.460397E+0	1.385164E+0	1.398234E+0	1.471752E+0	1.478942E+0	1.390289E+0	1.447907E+0	1.387716E+0	1.460622E+0	1.443263E+0	1.446382E+0	1.436378E+0	1.415603E+0	1.420034E+0	1.388396E+0	1.448927E+0	1.442366E+0	1.433474E+0	1.428080E+0	1.512275E+0	1.463663E+0	1.486970E+0	1.427186E+0	1.374666E+0	1.434803E+0	1.437038E+0	1.375549E+0	1.459670E+0	1.407352E+0	1.407351E+0	1.379114E+0	1.432722E+0	1.436123E+0	1.408760E+0	1.394820E+0	1.402126E+0	1.407533E+0	1.481952E+0	1.391580E+0	1.417299E+0	1.402636E+0	1.482669E+0	1.438735E+0	1.406908E+0	1.408099E+0	1.396909E+0	1.418402E+0	1.470027E+0	1.426098E+0	1.450565E+0	1.460950E+0	1.406691E+0	1.487930E+0	1.428885E+0	1.439318E+0	1.450624E+0	1.415015E+0	1.411641E+0	1.443923E+0	1.446255E+0	1.394928E+0	1.399410E+0	1.392589E+0	1.451970E+0	1.480991E+0	1.434139E+0	1.371519E+0	1.389145E+0	1.414375E+0	1.433646E+0	1.405715E+0	1.468624E+0	1.395190E+0	1.404804E+0	1.367768E+0	1.387914E+0	1.444800E+0	1.452732E+0	1.402405E+0	1.446683E+0	1.441389E+0	1.386457E+0	1.428104E+0	1.469321E+0	1.445221E+0	1.387200E+0	1.448294E+0	1.405288E+0	1.477717E+0	1.393354E+0	1.416666E+0	1.443046E+0	1.413049E+0	1.429074E+0	1.387942E+0	1.462313E+0	1.410744E+0	1.442834E+0	1.423104E+0	1.467604E+0	1.414846E+0	1.451422E+0	1.414377E+0	1.441371E+0	1.427544E+0	1.352913E+0	1.436937E+0	1.481877E+0	1.485907E+0	1.415558E+0	1.404326E+0	1.393458E+0	1.439970E+0	1.386100E+0	1.411018E+0	1.400114E+0	1.372294E+0	1.406972E+0	1.412986E+0	1.415126E+0	1.422158E+0	1.435093E+0	1.393759E+0	1.434731E+0	1.406333E+0	1.419260E+0	1.461061E+0	1.370876E+0	1.380629E+0	1.425138E+0	1.397320E+0	1.406687E+0	1.464024E+0	1.417575E+0	1.409207E+0	1.396045E+0	1.431036E+0	1.433203E+0	1.462952E+0	1.437147E+0	1.451385E+0	1.441048E+0	1.394495E+0	1.424566E+0	1.387423E+0	1.449208E+0	1.429993E+0	1.391271E+0	1.411584E+0	1.466806E+0	1.382099E+0	1.403831E+0	1.437570E+0	1.390438E+0	1.408130E+0	1.405022E+0	1.390233E+0	1.359968E+0	1.470522E+0	1.445322E+0	1.420441E+0	1.375519E+0	1.391698E+0	1.377285E+0	1.378778E+0	1.368099E+0	1.404752E+0	1.365196E+0	1.374838E+0
5.357090E+2	1.241053E+0	1.225481E+0	1.199665E+0	1.231840E+0	1.250461E+0	1.310372E+0	1.282091E+0	1.244714E+0	1.160200E+0	1.256983E+0	1.242504E+0	1.287082E+0	1.230413E+0	1.194733E+0	1.230292E+0	1.222437E+0	1.217404E+0	1.231446E+0	1.243409E+0	1.221341E+0	1.261439E+0	1.215666E+0	1.287942E+0	1.220964E+0	1.187769E+0	1.214922E+0	1.219505E+0	1.233138E+0	1.228910E+0	1.248794E+0	1.269679E+0	1.166218E+0	1.243973E+0	1.252977E+0	1.177321E+0	1.167249E+0	1.188603E+0	1.210437E+0	1.235449E+0	1.201332E+0	1.241977E+0	1.153041E+0	1.236354E+0	1.232559E+0	1.229023E+0	1.222576E+0	1.236682E+0	1.191980E+0	1.283278E+0	1.201623E+0	1.229274E+0	1.170927E+0	1.298645E+0	1.228478E+0	1.288071E+0	1.198290E+0	1.200613E+0	1.254791E+0	1.170600E+0	1.217414E+0	1.250901E+0	1.245316E+0	1.176564E+0	1.203341E+0	1.217811E+0	1.263312E+0	1.241983E+0	1.205515E+0	1.227702E+0	1.191672E+0	1.238616E+0	1.210245E+0	1.241982E+0	1.254483E+0	1.205242E+0	1.229321E+0	1.210130E+0	1.219359E+0	1.318165E+0	1.205982E+0	1.233368E+0	1.212099E+0	1.197402E+0	1.208111E+0	1.256756E+0	1.267889E+0	1.248071E+0	1.227781E+0	1.160082E+0	1.193898E+0	1.261849E+0	1.237351E+0	1.228461E+0	1.196143E+0	1.224920E+0	1.235670E+0	1.233802E+0	1.167598E+0	1.213377E+0	1.219088E+0	1.284926E+0	1.215651E+0	1.279747E+0	1.210904E+0	1.217580E+0	1.205934E+0	1.193476E+0	1.242706E+0	1.222794E+0	1.248855E+0	1.188816E+0	1.255105E+0	1.184347E+0	1.227995E+0	1.255869E+0	1.228198E+0	1.254124E+0	1.201432E+0	1.242165E+0	1.213433E+0	1.205629E+0	1.269529E+0	1.259430E+0	1.213062E+0	1.247244E+0	1.247362E+0	1.236438E+0	1.227289E+0	1.213216E+0	1.223568E+0	1.233355E+0	1.232623E+0	1.236191E+0	1.257622E+0	1.216055E+0	1.209394E+0	1.287373E+0	1.209861E+0	1.265468E+0	1.203269E+0	1.200526E+0	1.244085E+0	1.261698E+0	1.226554E+0	1.228802E+0	1.245120E+0	1.244463E+0	1.269777E+0	1.235262E+0	1.243111E+0	1.208138E+0	1.191778E+0	1.229000E+0	1.217645E+0	1.272921E+0	1.277049E+0	1.208457E+0	1.197235E+0	1.192334E+0	1.196245E+0	1.222369E+0	1.198243E+0	1.222354E+0	1.283003E+0	1.248487E+0	1.203782E+0	1.210858E+0	1.281560E+0	1.268126E+0	1.235765E+0
5.358600E+2	1.063129E+0	1.009081E+0	1.024462E+0	1.082684E+0	1.046980E+0	1.051191E+0	1.045933E+0	1.077381E+0	1.002660E+0	1.015516E+0	1.057810E+0	1.047807E+0	1.014772E+0	1.038509E+0	1.023163E+0	1.022198E+0	1.050721E+0	1.096145E+0	1.059108E+0	1.060241E+0	1.061965E+0	1.085801E+0	1.074919E+0	1.049256E+0	1.036120E+0	1.013449E+0	1.037142E+0	1.027285E+0	1.053513E+0	1.023685E+0	1.007221E+0	1.003242E+0	1.095352E+0	1.059720E+0	1.057709E+0	9.817420E-1	1.033853E+0	1.037840E+0	1.047690E+0	1.066573E+0	1.053096E+0	1.005666E+0	1.043504E+0	1.056924E+0	1.064836E+0	1.002797E+0	1.035074E+0	1.020194E+0	1.075544E+0	1.028282E+0	1.034630E+0	1.022695E+0	1.091165E+0	1.066524E+0	1.011286E+0	1.030180E+0	1.099327E+0	1.045696E+0	1.065532E+0	1.056000E+0	1.076732E+0	1.061607E+0	1.035067E+0	1.000873E+0	1.034890E+0	1.043198E+0	1.033748E+0	1.030776E+0	1.022152E+0	1.061883E+0	1.084297E+0	1.048377E+0	9.917444E-1	1.046164E+0	1.039474E+0	1.069765E+0	1.045902E+0	1.042172E+0	1.053103E+0	1.037932E+0	1.038483E+0	1.068315E+0	1.044010E+0	1.032131E+0	1.035621E+0	1.067640E+0	1.080638E+0	1.088752E+0	1.019191E+0	1.030939E+0	1.086816E+0	1.068518E+0	1.080856E+0	1.070993E+0	1.016650E+0	1.036527E+0	1.034809E+0	1.035536E+0	1.063421E+0	1.076380E+0	1.045925E+0	1.056748E+0	1.052329E+0	1.027575E+0	1.044329E+0	1.048465E+0	1.071416E+0	1.073039E+0	1.076513E+0	1.039628E+0	1.021897E+0	1.070511E+0	1.062963E+0	1.081515E+0	1.049180E+0	1.051344E+0	1.054783E+0	1.049065E+0	1.044937E+0	1.010614E+0	1.007792E+0	9.987462E-1	1.053253E+0	1.045258E+0	1.065738E+0	1.028946E+0	1.092128E+0	1.084097E+0	1.068382E+0	1.028455E+0	1.074393E+0	1.048665E+0	1.065411E+0	1.041439E+0	1.067241E+0	1.090704E+0	1.008616E+0	1.040559E+0	1.048006E+0	1.006494E+0	1.038209E+0	1.062451E+0	1.076251E+0	1.045648E+0	1.076323E+0	1.031666E+0	1.076027E+0	1.044355E+0	1.050768E+0	1.040273E+0	1.055730E+0	1.065685E+0	1.058662E+0	1.067938E+0	1.085000E+0	1.029385E+0	1.052947E+0	9.987177E-1	1.039519E+0	1.064992E+0	1.042191E+0	1.063970E+0	1.015810E+0	1.015161E+0	1.092755E+0	1.032616E+0	1.050907E+0	1.011896E+0	1.004273E+0	1.009637E+0
5.360120E+2	8.727794E-1	8.590807E-1	8.758889E-1	8.955484E-1	8.972948E-1	9.407550E-1	9.033355E-1	8.697696E-1	8.848476E-1	9.057623E-1	9.019566E-1	8.475148E-1	9.172739E-1	8.935970E-1	8.889248E-1	9.021860E-1	9.226625E-1	8.801403E-1	8.837636E-1	9.051346E-1	8.855645E-1	9.012706E-1	8.719757E-1	9.015890E-1	8.833255E-1	9.051480E-1	9.023458E-1	8.698381E-1	8.915997E-1	9.220879E-1	9.015011E-1	8.805003E-1	9.155747E-1	8.896411E-1	9.184463E-1	9.129706E-1	8.981599E-1	9.082209E-1	9.009937E-1	8.883491E-1	8.932459E-1	8.956985E-1	8.961848E-1	9.019312E-1	8.592736E-1	8.785804E-1	8.892791E-1	8.910680E-1	8.668071E-1	9.236079E-1	8.997494E-1	8.916800E-1	9.710987E-1	9.529176E-1	8.706051E-1	8.766671E-1	8.574977E-1	8.939682E-1	8.885859E-1	9.339696E-1	9.075579E-1	8.956397E-1	8.845352E-1	8.901657E-1	9.156360E-1	8.896498E-1	8.730984E-1	9.217254E-1	8.769367E-1	9.318723E-1	8.886752E-1	8.754269E-1	8.625375E-1	9.209198E-1	9.141797E-1	8.950020E-1	8.819059E-1	9.057941E-1	9.036711E-1	8.925620E-1	8.664354E-1	8.795993E-1	8.737180E-1	8.908292E-1	8.694697E-1	8.701624E-1	8.948718E-1	8.792931E-1	9.061490E-1	8.815614E-1	8.808465E-1	8.651920E-1	9.756450E-1	8.867420E-1	8.723542E-1	8.720425E-1	8.855158E-1	8.923511E-1	8.937348E-1	9.150317E-1	9.091531E-1	8.568809E-1	9.533979E-1	8.580138E-1	9.106662E-1	9.322046E-1	9.026800E-1	8.926897E-1	8.611381E-1	9.123145E-1	8.774265E-1	8.819148E-1	9.501163E-1	8.854423E-1	8.840276E-1	8.764978E-1	8.911457E-1	8.814374E-1	8.923968E-1	8.571648E-1	8.871603E-1	8.965662E-1	9.125468E-1	8.789280E-1	9.472287E-1	9.227932E-1	9.050271E-1	9.198103E-1	9.036700E-1	8.968032E-1	9.072106E-1	8.494259E-1	9.053573E-1	8.954058E-1	8.697639E-1	8.749182E-1	9.116432E-1	9.237854E-1	8.963873E-1	8.847385E-1	9.142350E-1	9.053502E-1	9.304983E-1	8.583323E-1	8.685121E-1	8.808246E-1	9.323485E-1	9.107886E-1	9.056202E-1	9.315663E-1	9.100818E-1	9.192282E-1	9.227378E-1	9.191100E-1	9.136081E-1	8.609975E-1	8.848853E-1	9.218058E-1	8.880256E-1	8.922258E-1	9.147900E-1	9.259645E-1	9.262680E-1	8.796485E-1	8.830173E-1	8.752170E-1	9.120667E-1	9.519956E-1	9.428512E-1	8.879481E-1
5.362730E+2	6.738000E-1	7.203842E-1	6.449488E-1	6.634679E-1	7.020910E-1	7.142442E-1	6.522450E-1	6.680894E-1	6.978070E-1	7.149676E-1	6.423323E-1	6.618007E-1	6.723237E-1	6.983654E-1	6.645049E-1	6.724413E-1	6.897045E-1	6.481348E-1	6.529632E-1	6.702855E-1	6.936191E-1	6.844954E-1	6.970585E-1	6.819787E-1	6.875964E-1	6.779235E-1	6.545813E-1	7.066932E-1	6.968214E-1	6.828327E-1	6.784560E-1	6.487067E-1	6.885140E-1	6.957563E-1	6.759835E-1	6.433618E-1	6.548386E-1	6.446571E-1	6.552791E-1	6.730090E-1	6.555756E-1	6.660011E-1	6.648933E-1	6.535059E-1	6.542500E-1	6.443496E-1	6.642782E-1	6.545077E-1	6.952026E-1	6.939652E-1	6.572338E-1	6.625743E-1	6.955182E-1	6.961754E-1	7.162750E-1	6.786918E-1	6.939664E-1	7.209863E-1	6.535739E-1	6.783980E-1	7.016446E-1	6.832856E-1	6.613695E-1	6.593394E-1	6.688742E-1	6.727595E-1	6.824140E-1	6.668125E-1	6.888423E-1	6.726630E-1	6.603302E-1	6.636329E-1	6.735701E-1	7.148246E-1	6.838556E-1	6.594262E-1	6.545355E-1	6.530075E-1	6.654665E-1	6.610714E-1	7.127831E-1	6.617204E-1	6.730008E-1	6.621177E-1	6.586199E-1	6.617089E-1	6.734083E-1	7.149087E-1	6.744729E-1	6.605746E-1	7.204820E-1	6.550216E-1	7.235900E-1	6.930062E-1	6.449846E-1	6.708333E-1	6.747648E-1	7.105169E-1	6.695466E-1	6.871094E-1	7.059776E-1	7.004391E-1	7.146803E-1	6.852449E-1	6.810035E-1	6.876099E-1	6.709617E-1	6.907390E-1	6.693261E-1	6.625019E-1	6.518241E-1	6.731806E-1	6.647217E-1	6.573545E-1	6.927621E-1	6.695949E-1	6.845277E-1	6.868810E-1	6.634104E-1	6.548210E-1	6.803567E-1	7.221813E-1	6.587886E-1	6.689528E-1	7.041921E-1	6.686596E-1	7.317023E-1	6.559271E-1	7.088898E-1	6.378138E-1	6.547236E-1	6.783666E-1	7.210248E-1	7.228291E-1	7.159674E-1	6.650264E-1	6.713154E-1	6.750855E-1	6.946763E-1	7.011332E-1	6.705317E-1	6.505059E-1	6.817859E-1	6.909396E-1	6.971261E-1	6.623907E-1	7.126788E-1	6.584489E-1	7.386508E-1	6.940816E-1	6.893776E-1	6.724335E-1	6.700768E-1	6.913344E-1	6.913370E-1	6.801819E-1	6.517330E-1	7.078114E-1	6.814381E-1	6.865109E-1	7.090139E-1	6.967410E-1	6.731204E-1	6.860306E-1	6.850754E-1	6.406832E-1	6.575503E-1	6.549716E-1	7.061677E-1	7.768210E-1
5.365140E+2	5.886345E-1	5.705386E-1	6.106980E-1	5.488656E-1	6.034675E-1	5.816649E-1	5.610394E-1	5.882707E-1	5.548330E-1	5.355979E-1	5.810002E-1	5.567770E-1	5.779255E-1	5.844366E-1	5.303442E-1	5.738535E-1	5.743644E-1	5.737805E-1	5.822330E-1	6.019588E-1	6.063124E-1	5.721195E-1	5.713856E-1	5.768534E-1	5.560998E-1	5.879782E-1	5.755827E-1	5.644636E-1	6.176201E-1	5.728066E-1	5.897371E-1	5.658721E-1	5.633674E-1	6.083835E-1	5.586082E-1	5.650304E-1	6.101581E-1	6.071133E-1	5.637999E-1	5.714218E-1	5.388338E-1	5.450979E-1	5.745056E-1	5.918249E-1	5.739574E-1	5.532452E-1	5.840307E-1	5.792320E-1	5.973992E-1	5.979341E-1	5.616213E-1	5.468594E-1	6.178170E-1	5.792730E-1	5.554414E-1	5.612812E-1	5.999226E-1	5.683154E-1	5.586206E-1	5.749616E-1	5.754334E-1	5.702605E-1	5.581356E-1	5.678452E-1	5.947259E-1	5.564243E-1	5.850740E-1	5.693188E-1	5.714159E-1	5.565044E-1	5.761819E-1	5.872942E-1	5.570275E-1	5.959358E-1	5.587747E-1	5.909811E-1	6.077436E-1	5.789351E-1	5.633398E-1	5.946235E-1	5.666693E-1	5.832480E-1	5.630024E-1	5.726676E-1	5.732293E-1	5.329699E-1	5.509349E-1	5.561135E-1	5.835278E-1	5.694570E-1	6.211153E-1	5.747465E-1	5.879441E-1	5.765771E-1	5.897630E-1	5.838512E-1	5.844284E-1	5.185541E-1	5.666171E-1	5.671862E-1	5.948996E-1	5.603775E-1	5.773101E-1	6.163110E-1	6.125924E-1	5.945440E-1	5.998611E-1	5.814608E-1	6.257675E-1	5.712986E-1	5.945199E-1	5.934819E-1	5.850303E-1	6.141015E-1	5.800214E-1	5.862911E-1	6.509424E-1	5.896017E-1	5.750155E-1	5.685664E-1	5.605941E-1	5.662710E-1	6.179571E-1	5.631814E-1	5.888409E-1	5.816421E-1	5.833739E-1	5.725549E-1	5.739706E-1	5.727208E-1	5.625185E-1	5.963170E-1	5.846803E-1	6.105022E-1	5.754689E-1	5.876296E-1	6.138398E-1	5.792876E-1	5.875168E-1	5.531593E-1	6.205387E-1	5.774318E-1	5.812257E-1	5.849378E-1	6.512786E-1	6.057871E-1	5.844322E-1	5.841225E-1	5.591431E-1	5.875916E-1	5.917736E-1	5.888279E-1	5.923635E-1	6.330961E-1	5.705503E-1	5.745259E-1	5.675766E-1	5.752524E-1	5.511151E-1	5.725938E-1	6.310781E-1	5.512967E-1	5.744738E-1	5.989148E-1	5.552206E-1	5.913567E-1	5.790875E-1	5.990817E-1	5.618623E-1	5.920996E-1
5.367710E+2	5.587638E-1	5.350863E-1	5.608865E-1	5.332328E-1	5.476306E-1	5.793026E-1	5.947004E-1	5.453291E-1	5.909234E-1	5.798900E-1	5.164221E-1	5.617702E-1	5.594560E-1	5.848436E-1	5.792457E-1	5.611379E-1	5.668650E-1	5.896517E-1	5.452773E-1	5.499188E-1	5.745852E-1	5.847640E-1	5.908079E-1	5.721367E-1	5.330443E-1	5.786620E-1	5.537347E-1	5.571448E-1	5.700782E-1	5.668008E-1	6.044770E-1	5.420928E-1	5.185892E-1	5.760976E-1	6.103141E-1	5.606731E-1	5.636206E-1	5.736574E-1	5.504291E-1	6.049979E-1	5.752452E-1	5.924082E-1	5.501669E-1	5.468479E-1	5.587771E-1	5.780166E-1	5.880021E-1	5.734830E-1	5.657644E-1	5.977892E-1	5.381595E-1	5.314744E-1	5.791053E-1	5.491382E-1	5.406068E-1	5.478398E-1	5.709753E-1	5.934110E-1	5.907610E-1	5.356390E-1	5.870929E-1	5.681880E-1	5.953292E-1	5.200182E-1	5.630822E-1	6.028399E-1	5.927198E-1	5.540613E-1	5.730558E-1	5.478582E-1	5.878690E-1	5.461166E-1	5.649084E-1	5.502318E-1	5.439781E-1	5.986823E-1	6.045069E-1	5.538592E-1	5.460966E-1	5.759998E-1	5.902720E-1	5.561347E-1	6.052420E-1	5.799542E-1	5.942458E-1	5.914973E-1	5.910839E-1	5.908147E-1	5.508053E-1	5.320135E-1	5.605822E-1	5.720718E-1	5.561153E-1	5.316862E-1	5.857015E-1	5.679591E-1	5.649314E-1	5.348284E-1	5.497207E-1	5.344381E-1	5.515262E-1	5.537525E-1	5.475726E-1	5.784840E-1	5.668601E-1	5.959576E-1	5.714350E-1	5.716663E-1	5.909994E-1	5.673658E-1	5.437769E-1	5.661487E-1	5.722997E-1	5.848148E-1	5.535421E-1	5.675384E-1	5.656005E-1	5.822558E-1	5.717680E-1	5.752927E-1	5.496252E-1	5.696852E-1	5.620215E-1	5.373206E-1	6.107584E-1	6.024810E-1	5.623143E-1	5.650087E-1	5.433669E-1	5.453493E-1	5.634293E-1	5.616827E-1	5.630856E-1	5.828589E-1	5.752358E-1	5.750591E-1	5.486645E-1	6.157820E-1	5.618870E-1	5.678663E-1	5.629791E-1	5.757152E-1	5.590644E-1	5.631803E-1	5.694252E-1	5.792988E-1	5.817245E-1	5.840611E-1	5.719624E-1	5.496098E-1	5.643911E-1	5.746768E-1	5.915099E-1	6.039124E-1	5.693991E-1	5.613724E-1	5.797487E-1	5.819620E-1	5.800570E-1	5.606237E-1	6.123856E-1	5.617697E-1	5.789468E-1	5.272252E-1	5.757155E-1	5.759357E-1	5.650488E-1	5.675985E-1	5.827640E-1	6.112720E-1
5.370120E+2	5.952761E-1	5.982679E-1	5.566062E-1	6.061503E-1	5.844545E-1	6.038177E-1	5.856548E-1	6.051484E-1	5.622025E-1	5.784873E-1	5.818263E-1	6.094835E-1	6.347335E-1	6.182705E-1	6.090426E-1	5.948684E-1	6.138894E-1	6.095134E-1	6.087632E-1	5.674222E-1	6.065630E-1	5.858081E-1	6.144367E-1	5.949171E-1	6.145218E-1	6.263801E-1	6.283234E-1	5.951260E-1	6.501541E-1	6.216405E-1	5.809065E-1	5.737477E-1	5.849387E-1	6.147980E-1	5.926989E-1	5.857748E-1	5.903142E-1	6.211500E-1	5.803452E-1	6.048434E-1	6.005163E-1	6.065482E-1	5.896756E-1	5.825714E-1	5.932003E-1	5.915435E-1	6.108035E-1	5.725094E-1	5.848568E-1	5.951311E-1	6.329504E-1	5.803435E-1	6.011565E-1	6.310260E-1	6.098216E-1	5.868414E-1	6.072216E-1	6.197179E-1	5.313506E-1	5.730865E-1	6.084944E-1	5.961707E-1	6.050079E-1	5.903226E-1	5.981835E-1	6.057911E-1	5.843966E-1	5.969644E-1	5.987140E-1	5.886427E-1	6.232348E-1	6.064632E-1	6.051241E-1	5.785155E-1	5.604301E-1	5.974660E-1	6.123659E-1	5.975229E-1	6.100694E-1	5.958564E-1	6.065119E-1	6.014628E-1	5.905177E-1	6.095172E-1	6.040404E-1	5.973931E-1	6.131821E-1	6.256657E-1	5.498491E-1	5.774873E-1	6.141169E-1	6.167695E-1	6.045449E-1	5.961294E-1	5.954203E-1	6.066813E-1	6.332541E-1	5.755609E-1	5.908445E-1	6.242399E-1	5.948195E-1	5.871788E-1	6.499695E-1	6.221808E-1	5.779719E-1	6.100912E-1	5.928624E-1	5.952219E-1	5.713681E-1	5.944371E-1	6.149304E-1	5.984735E-1	6.214523E-1	6.025581E-1	5.960606E-1	6.196884E-1	6.190716E-1	6.102755E-1	6.341718E-1	5.950159E-1	5.981987E-1	5.944475E-1	6.520131E-1	5.938134E-1	6.294366E-1	6.045880E-1	6.362070E-1	5.790538E-1	5.837315E-1	5.991173E-1	5.981715E-1	6.573340E-1	6.262314E-1	6.044664E-1	6.189759E-1	6.530205E-1	6.231213E-1	6.388591E-1	6.044891E-1	6.088366E-1	6.069152E-1	6.026240E-1	6.146832E-1	5.701124E-1	6.096643E-1	5.887622E-1	6.269613E-1	6.086139E-1	6.421550E-1	6.231446E-1	6.065572E-1	6.074781E-1	5.860641E-1	6.620681E-1	6.084238E-1	5.971633E-1	6.215650E-1	6.334616E-1	5.869252E-1	6.234165E-1	6.111160E-1	6.108203E-1	6.184614E-1	6.433656E-1	6.087170E-1	5.924598E-1	6.316032E-1	6.401219E-1	6.194922E-1	6.051776E-1
5.372590E+2	6.639009E-1	7.272278E-1	6.387042E-1	6.723714E-1	6.474248E-1	7.178673E-1	7.053022E-1	6.695330E-1	6.641144E-1	7.118400E-1	6.797209E-1	6.933173E-1	6.519600E-1	6.624614E-1	6.848566E-1	6.717216E-1	6.685581E-1	6.600487E-1	6.746171E-1	6.748702E-1	6.562763E-1	6.917804E-1	6.873096E-1	6.685248E-1	6.876509E-1	6.955309E-1	7.114819E-1	6.641058E-1	6.707026E-1	6.865452E-1	6.640540E-1	6.801055E-1	6.834821E-1	6.669201E-1	6.588881E-1	6.659544E-1	6.961044E-1	6.646117E-1	6.876195E-1	6.651338E-1	6.353577E-1	6.834967E-1	6.643818E-1	7.051081E-1	6.923443E-1	6.342235E-1	7.074758E-1	6.583272E-1	7.042816E-1	7.249240E-1	6.691641E-1	6.879498E-1	7.198647E-1	6.801202E-1	6.892518E-1	6.692962E-1	6.865083E-1	6.979161E-1	6.576090E-1	6.523519E-1	6.821837E-1	6.941259E-1	6.668888E-1	6.527881E-1	6.952410E-1	6.701525E-1	7.206811E-1	6.354693E-1	6.637259E-1	6.830627E-1	6.846022E-1	6.957628E-1	6.926476E-1	6.602875E-1	7.110134E-1	7.002922E-1	6.694015E-1	6.842323E-1	6.726467E-1	7.080868E-1	6.966792E-1	6.849700E-1	6.615357E-1	6.518357E-1	6.786917E-1	6.860065E-1	6.489336E-1	6.914649E-1	6.659015E-1	6.874918E-1	6.911284E-1	6.968347E-1	6.943159E-1	6.601757E-1	6.868658E-1	6.809086E-1	7.368238E-1	6.335852E-1	6.715603E-1	6.945664E-1	6.914884E-1	6.853891E-1	7.307715E-1	6.974289E-1	7.024255E-1	6.935774E-1	7.036108E-1	6.880304E-1	7.104366E-1	6.975507E-1	6.799554E-1	6.820029E-1	6.622463E-1	7.251908E-1	6.599630E-1	6.688876E-1	7.139376E-1	6.749894E-1	6.946008E-1	6.593388E-1	7.078463E-1	6.803641E-1	6.816723E-1	6.954564E-1	7.034638E-1	7.122732E-1	6.912521E-1	6.942956E-1	6.797536E-1	6.589271E-1	6.754358E-1	6.698768E-1	7.290104E-1	7.214954E-1	6.649535E-1	7.080762E-1	6.956398E-1	6.960981E-1	6.684098E-1	7.269114E-1	6.777355E-1	6.787472E-1	7.028677E-1	6.661423E-1	7.002756E-1	6.594672E-1	6.786486E-1	7.075270E-1	6.710129E-1	7.470294E-1	6.974653E-1	6.791007E-1	6.727611E-1	6.691656E-1	6.951227E-1	6.809674E-1	6.682850E-1	6.487793E-1	6.980262E-1	6.707328E-1	7.092644E-1	6.177179E-1	6.819951E-1	6.571551E-1	7.150998E-1	6.714848E-1	7.030651E-1	6.864877E-1	6.212112E-1	6.730770E-1
5.375110E+2	7.745977E-1	8.364092E-1	7.773350E-1	7.901615E-1	7.762257E-1	8.395688E-1	7.588133E-1	7.958034E-1	7.611015E-1	7.609066E-1	8.084113E-1	7.972102E-1	7.932783E-1	7.153541E-1	7.706539E-1	7.493983E-1	7.475815E-1	7.608508E-1	8.063223E-1	8.100901E-1	7.510271E-1	7.874356E-1	7.809396E-1	7.532019E-1	7.554313E-1	7.860125E-1	8.077123E-1	7.934179E-1	8.100231E-1	7.675950E-1	8.009562E-1	7.888689E-1	8.059819E-1	7.761977E-1	7.768095E-1	7.942958E-1	7.739066E-1	7.749072E-1	8.329431E-1	7.636789E-1	7.715829E-1	7.920627E-1	7.842883E-1	8.036805E-1	7.433681E-1	7.694078E-1	7.982737E-1	7.879611E-1	7.559450E-1	7.678226E-1	7.772930E-1	7.485843E-1	8.091124E-1	7.865085E-1	7.874975E-1	7.571645E-1	7.308245E-1	7.861465E-1	7.933538E-1	7.800805E-1	8.008838E-1	8.097208E-1	8.028713E-1	7.668563E-1	7.598198E-1	8.109099E-1	7.912119E-1	7.960650E-1	7.863847E-1	7.636644E-1	8.123189E-1	7.924460E-1	8.022796E-1	8.138337E-1	7.995686E-1	7.217254E-1	7.619785E-1	7.718879E-1	7.726204E-1	7.865360E-1	7.883056E-1	7.669526E-1	7.902603E-1	7.566185E-1	7.897731E-1	7.934933E-1	8.189146E-1	7.971198E-1	7.351984E-1	7.592321E-1	7.626408E-1	7.934858E-1	7.834375E-1	7.653208E-1	7.755436E-1	7.682527E-1	7.905277E-1	7.881638E-1	7.610289E-1	7.980133E-1	7.486171E-1	7.843641E-1	7.724166E-1	7.397434E-1	8.027059E-1	7.453174E-1	7.810299E-1	7.737223E-1	7.931581E-1	7.913151E-1	8.078013E-1	7.933932E-1	7.815381E-1	7.933219E-1	7.933400E-1	7.823558E-1	8.761608E-1	8.116106E-1	7.809541E-1	7.724070E-1	7.604853E-1	7.964372E-1	8.345726E-1	7.665741E-1	8.086892E-1	8.112743E-1	7.830503E-1	7.856778E-1	7.675819E-1	7.655502E-1	7.828378E-1	8.032641E-1	8.335307E-1	8.072106E-1	7.908765E-1	7.699475E-1	8.166665E-1	8.018097E-1	8.092222E-1	7.845478E-1	7.840162E-1	7.690017E-1	7.516790E-1	7.520953E-1	8.097590E-1	7.572384E-1	7.320270E-1	7.903195E-1	7.947871E-1	8.091053E-1	7.300329E-1	7.855687E-1	7.695170E-1	7.623847E-1	7.893696E-1	7.717003E-1	8.270876E-1	8.181247E-1	7.538764E-1	7.968399E-1	8.469165E-1	8.097259E-1	7.885139E-1	8.099913E-1	8.051297E-1	8.064538E-1	7.824562E-1	7.986326E-1	8.178388E-1	8.077668E-1
5.377630E+2	9.190328E-1	9.030016E-1	8.490482E-1	9.099562E-1	9.178453E-1	9.536163E-1	9.273558E-1	9.353749E-1	8.795620E-1	9.076333E-1	8.841226E-1	9.403205E-1	9.142793E-1	8.622599E-1	9.153143E-1	8.741602E-1	8.777491E-1	9.324359E-1	9.128381E-1	9.148443E-1	9.047782E-1	9.580799E-1	9.136996E-1	8.930610E-1	9.030369E-1	9.749665E-1	8.855356E-1	9.147116E-1	9.241644E-1	9.126199E-1	9.297666E-1	8.747619E-1	9.238594E-1	9.197083E-1	9.153092E-1	8.839533E-1	9.201672E-1	9.009918E-1	9.091442E-1	9.143850E-1	9.106309E-1	9.328947E-1	9.076574E-1	8.663395E-1	9.180561E-1	8.850292E-1	9.520900E-1	8.539375E-1	9.287502E-1	9.266539E-1	9.037605E-1	9.418460E-1	9.158305E-1	9.513549E-1	9.412438E-1	9.276955E-1	9.255239E-1	9.536938E-1	9.264589E-1	9.156498E-1	9.355739E-1	8.939874E-1	9.101843E-1	9.087889E-1	9.183559E-1	9.440125E-1	9.101256E-1	9.063199E-1	9.175354E-1	9.203560E-1	9.253075E-1	9.199292E-1	8.632890E-1	9.038346E-1	9.135891E-1	8.742787E-1	9.260123E-1	9.277328E-1	9.199089E-1	9.509061E-1	8.788695E-1	8.960326E-1	8.927831E-1	8.898741E-1	9.737269E-1	9.124836E-1	9.074151E-1	9.325479E-1	9.058189E-1	9.390060E-1	9.088665E-1	8.967297E-1	9.864025E-1	9.171683E-1	8.701328E-1	9.167285E-1	9.261978E-1	9.201952E-1	9.491318E-1	9.240897E-1	9.469703E-1	9.125818E-1	9.470648E-1	9.684549E-1	9.120933E-1	9.462537E-1	9.494851E-1	9.209081E-1	8.773717E-1	9.613300E-1	9.509150E-1	9.350966E-1	9.274160E-1	8.829902E-1	9.443658E-1	9.006210E-1	9.664476E-1	9.417467E-1	9.111021E-1	9.110527E-1	8.751110E-1	9.300239E-1	9.567449E-1	9.039996E-1	9.575335E-1	9.086043E-1	9.095791E-1	9.364746E-1	9.521396E-1	9.120987E-1	9.382714E-1	8.803685E-1	9.384396E-1	9.363895E-1	8.988682E-1	9.254899E-1	9.166647E-1	9.032115E-1	8.904927E-1	9.164410E-1	9.357951E-1	9.209731E-1	9.173659E-1	9.042571E-1	9.412900E-1	8.972999E-1	9.116321E-1	9.139725E-1	9.418368E-1	9.143583E-1	9.057639E-1	9.526342E-1	8.834851E-1	9.441470E-1	9.177692E-1	9.287480E-1	8.835638E-1	9.370822E-1	8.877249E-1	9.265372E-1	9.804604E-1	9.020848E-1	9.523072E-1	9.180660E-1	9.747712E-1	8.892803E-1	9.296868E-1	9.553170E-1	8.670779E-1	9.234932E-1
5.380110E+2	1.037897E+0	1.019759E+0	1.025941E+0	9.612101E-1	1.000083E+0	1.019319E+0	1.003047E+0	9.938342E-1	9.861321E-1	1.024185E+0	9.912244E-1	1.001404E+0	1.054322E+0	1.049103E+0	1.028909E+0	1.001970E+0	1.014433E+0	9.930934E-1	1.040925E+0	9.799146E-1	1.029863E+0	1.050283E+0	1.022482E+0	9.846454E-1	1.004812E+0	9.950821E-1	1.048415E+0	1.054593E+0	1.031008E+0	1.080629E+0	1.037803E+0	9.638419E-1	1.032649E+0	1.048139E+0	9.797884E-1	9.982336E-1	1.024065E+0	1.019862E+0	1.048045E+0	9.912716E-1	1.064317E+0	1.007884E+0	1.018911E+0	1.018839E+0	9.922447E-1	9.892466E-1	1.029047E+0	9.977336E-1	1.071224E+0	9.986027E-1	1.042367E+0	1.023810E+0	1.030272E+0	1.075481E+0	1.036883E+0	9.542162E-1	1.045768E+0	1.034815E+0	9.854714E-1	1.020407E+0	9.887230E-1	1.014696E+0	1.025309E+0	9.894185E-1	1.004809E+0	1.030381E+0	1.032396E+0	9.946177E-1	1.004428E+0	1.052276E+0	1.028569E+0	1.028093E+0	1.007328E+0	1.056943E+0	1.013650E+0	1.052712E+0	1.038376E+0	1.006217E+0	1.010901E+0	9.998321E-1	1.071888E+0	1.008969E+0	1.000391E+0	1.012384E+0	1.032937E+0	9.900629E-1	9.925404E-1	1.084760E+0	9.691322E-1	1.053901E+0	1.073118E+0	1.012842E+0	1.036549E+0	9.979770E-1	1.024963E+0	1.028805E+0	1.040493E+0	9.644479E-1	1.009485E+0	1.031696E+0	1.098413E+0	9.914138E-1	1.048005E+0	9.844273E-1	1.029071E+0	1.009446E+0	1.011717E+0	1.043214E+0	1.009391E+0	1.019609E+0	1.040207E+0	9.795012E-1	1.036764E+0	1.033226E+0	1.000242E+0	1.021595E+0	1.053263E+0	9.611691E-1	1.033485E+0	1.034534E+0	1.033698E+0	9.805512E-1	9.800386E-1	1.044708E+0	1.055037E+0	1.011760E+0	1.015199E+0	1.024973E+0	9.945003E-1	1.012599E+0	1.008271E+0	1.012886E+0	1.006802E+0	1.037120E+0	1.024754E+0	9.998196E-1	1.006568E+0	9.489474E-1	1.034680E+0	9.956606E-1	9.760222E-1	1.025774E+0	1.055983E+0	1.019050E+0	1.030119E+0	9.960733E-1	1.010211E+0	1.048647E+0	1.000104E+0	1.004223E+0	9.919784E-1	9.830846E-1	1.024969E+0	1.059449E+0	1.031584E+0	1.045011E+0	1.012711E+0	9.807541E-1	1.020085E+0	1.044200E+0	1.081621E+0	1.025139E+0	1.034179E+0	1.000536E+0	1.061330E+0	1.036726E+0	1.046846E+0	1.044933E+0	9.780771E-1	1.018077E+0
5.382690E+2	1.208378E+0	1.194344E+0	1.248578E+0	1.196904E+0	1.233862E+0	1.227464E+0	1.230965E+0	1.266816E+0	1.210710E+0	1.271500E+0	1.236786E+0	1.251902E+0	1.219583E+0	1.208171E+0	1.258873E+0	1.235337E+0	1.251874E+0	1.252903E+0	1.212238E+0	1.278812E+0	1.207499E+0	1.253123E+0	1.312459E+0	1.259989E+0	1.232703E+0	1.238408E+0	1.244864E+0	1.256944E+0	1.240236E+0	1.261860E+0	1.292849E+0	1.182669E+0	1.262947E+0	1.190244E+0	1.223752E+0	1.247658E+0	1.265178E+0	1.288570E+0	1.268520E+0	1.260366E+0	1.235265E+0	1.240427E+0	1.259251E+0	1.201799E+0	1.211062E+0	1.205919E+0	1.236264E+0	1.237995E+0	1.256005E+0	1.235711E+0	1.202640E+0	1.207390E+0	1.236083E+0	1.215816E+0	1.254547E+0	1.215659E+0	1.181152E+0	1.275887E+0	1.235000E+0	1.221203E+0	1.248568E+0	1.247324E+0	1.242908E+0	1.178880E+0	1.227323E+0	1.212255E+0	1.240306E+0	1.206310E+0	1.191451E+0	1.279490E+0	1.260428E+0	1.198322E+0	1.212690E+0	1.272446E+0	1.261671E+0	1.232476E+0	1.277388E+0	1.189879E+0	1.221955E+0	1.208056E+0	1.233959E+0	1.172866E+0	1.160121E+0	1.269392E+0	1.221520E+0	1.246384E+0	1.236234E+0	1.249447E+0	1.197662E+0	1.230338E+0	1.237261E+0	1.216389E+0	1.258768E+0	1.239907E+0	1.221488E+0	1.182012E+0	1.214829E+0	1.251129E+0	1.219345E+0	1.189927E+0	1.241968E+0	1.267381E+0	1.244766E+0	1.260501E+0	1.191168E+0	1.217676E+0	1.216262E+0	1.247851E+0	1.228290E+0	1.237182E+0	1.227670E+0	1.239256E+0	1.244002E+0	1.264900E+0	1.229335E+0	1.223952E+0	1.237394E+0	1.222239E+0	1.225486E+0	1.174512E+0	1.221841E+0	1.174698E+0	1.220405E+0	1.234082E+0	1.240631E+0	1.225444E+0	1.252322E+0	1.221070E+0	1.245970E+0	1.227119E+0	1.254201E+0	1.180629E+0	1.227299E+0	1.242131E+0	1.226113E+0	1.189297E+0	1.193515E+0	1.267055E+0	1.191435E+0	1.217041E+0	1.200177E+0	1.215758E+0	1.204483E+0	1.201990E+0	1.175306E+0	1.264589E+0	1.253167E+0	1.221915E+0	1.227829E+0	1.191727E+0	1.224230E+0	1.213833E+0	1.203681E+0	1.293014E+0	1.253022E+0	1.247747E+0	1.220175E+0	1.218468E+0	1.234464E+0	1.271685E+0	1.188083E+0	1.188979E+0	1.231625E+0	1.265034E+0	1.257788E+0	1.185990E+0	1.201843E+0	1.269181E+0	1.257178E+0	1.281401E+0
5.385010E+2	1.420391E+0	1.467546E+0	1.433634E+0	1.427437E+0	1.443289E+0	1.477907E+0	1.449661E+0	1.490302E+0	1.410757E+0	1.457596E+0	1.512464E+0	1.461499E+0	1.500760E+0	1.489985E+0	1.462509E+0	1.468970E+0	1.465004E+0	1.440807E+0	1.533980E+0	1.519969E+0	1.472551E+0	1.510206E+0	1.505606E+0	1.475968E+0	1.433209E+0	1.572049E+0	1.500300E+0	1.433067E+0	1.520278E+0	1.483993E+0	1.467246E+0	1.398367E+0	1.492456E+0	1.460570E+0	1.425821E+0	1.412996E+0	1.438858E+0	1.446252E+0	1.477819E+0	1.472352E+0	1.456057E+0	1.527748E+0	1.476807E+0	1.436264E+0	1.447541E+0	1.435217E+0	1.446282E+0	1.480209E+0	1.457965E+0	1.442217E+0	1.477540E+0	1.438199E+0	1.476751E+0	1.532591E+0	1.468634E+0	1.431112E+0	1.430978E+0	1.508508E+0	1.522354E+0	1.417074E+0	1.507808E+0	1.485284E+0	1.418370E+0	1.453798E+0	1.415637E+0	1.483529E+0	1.463269E+0	1.477732E+0	1.436408E+0	1.464356E+0	1.452164E+0	1.453130E+0	1.453340E+0	1.451529E+0	1.436224E+0	1.452454E+0	1.451577E+0	1.458685E+0	1.449066E+0	1.400580E+0	1.458800E+0	1.494326E+0	1.434862E+0	1.348454E+0	1.416090E+0	1.445357E+0	1.454707E+0	1.459553E+0	1.417967E+0	1.505711E+0	1.456097E+0	1.469059E+0	1.484330E+0	1.394288E+0	1.494638E+0	1.400442E+0	1.457317E+0	1.476896E+0	1.436047E+0	1.455266E+0	1.442067E+0	1.459922E+0	1.496955E+0	1.461496E+0	1.484294E+0	1.479733E+0	1.462887E+0	1.482458E+0	1.439742E+0	1.464971E+0	1.439288E+0	1.420234E+0	1.462467E+0	1.403218E+0	1.437080E+0	1.474097E+0	1.461391E+0	1.484171E+0	1.430277E+0	1.436150E+0	1.421681E+0	1.451952E+0	1.447225E+0	1.466757E+0	1.529552E+0	1.449649E+0	1.527346E+0	1.444194E+0	1.459981E+0	1.424595E+0	1.428762E+0	1.450740E+0	1.496171E+0	1.573009E+0	1.447425E+0	1.488421E+0	1.492825E+0	1.440253E+0	1.478157E+0	1.486224E+0	1.433708E+0	1.509808E+0	1.453441E+0	1.400576E+0	1.353486E+0	1.475014E+0	1.406406E+0	1.489776E+0	1.465783E+0	1.455066E+0	1.458521E+0	1.452436E+0	1.428511E+0	1.458687E+0	1.482468E+0	1.449732E+0	1.415412E+0	1.428918E+0	1.428105E+0	1.420041E+0	1.501059E+0	1.455100E+0	1.493645E+0	1.425187E+0	1.444695E+0	1.401847E+0	1.446461E+0	1.466996E+0	1.482933E+0	1.410628E+0
5.387600E+2	1.777460E+0	1.747389E+0	1.697831E+0	1.777456E+0	1.719692E+0	1.723175E+0	1.782068E+0	1.698825E+0	1.675212E+0	1.695733E+0	1.714212E+0	1.732729E+0	1.717475E+0	1.706627E+0	1.749411E+0	1.769527E+0	1.664552E+0	1.720183E+0	1.715524E+0	1.648074E+0	1.744930E+0	1.756026E+0	1.771870E+0	1.704189E+0	1.672982E+0	1.834307E+0	1.750666E+0	1.765167E+0	1.783162E+0	1.724563E+0	1.684507E+0	1.685988E+0	1.729476E+0	1.732989E+0	1.717207E+0	1.673567E+0	1.746865E+0	1.737912E+0	1.793328E+0	1.705002E+0	1.756894E+0	1.726944E+0	1.685560E+0	1.759671E+0	1.730927E+0	1.676998E+0	1.690415E+0	1.695773E+0	1.684009E+0	1.749204E+0	1.717566E+0	1.676950E+0	1.709897E+0	1.707973E+0	1.744019E+0	1.714923E+0	1.674268E+0	1.699014E+0	1.740744E+0	1.710832E+0	1.719286E+0	1.721873E+0	1.706423E+0	1.710989E+0	1.706833E+0	1.729951E+0	1.737022E+0	1.668229E+0	1.690169E+0	1.698882E+0	1.706559E+0	1.734359E+0	1.694476E+0	1.793002E+0	1.723557E+0	1.663380E+0	1.689732E+0	1.696782E+0	1.801026E+0	1.645770E+0	1.667138E+0	1.679282E+0	1.686794E+0	1.622217E+0	1.697168E+0	1.741780E+0	1.655907E+0	1.702477E+0	1.647002E+0	1.722136E+0	1.740748E+0	1.728881E+0	1.704858E+0	1.689011E+0	1.698006E+0	1.749820E+0	1.705386E+0	1.655964E+0	1.642905E+0	1.751320E+0	1.752241E+0	1.682650E+0	1.759794E+0	1.764639E+0	1.703879E+0	1.721221E+0	1.738383E+0	1.670168E+0	1.674895E+0	1.703192E+0	1.745248E+0	1.732354E+0	1.757207E+0	1.692226E+0	1.734304E+0	1.705476E+0	1.706471E+0	1.746183E+0	1.686734E+0	1.675843E+0	1.706308E+0	1.699251E+0	1.719083E+0	1.702480E+0	1.812260E+0	1.737048E+0	1.734342E+0	1.658497E+0	1.721869E+0	1.580878E+0	1.691149E+0	1.692464E+0	1.703819E+0	1.782469E+0	1.693190E+0	1.711119E+0	1.698690E+0	1.714307E+0	1.713942E+0	1.736957E+0	1.681124E+0	1.684072E+0	1.703152E+0	1.608354E+0	1.703746E+0	1.702028E+0	1.694315E+0	1.732541E+0	1.719452E+0	1.719520E+0	1.657035E+0	1.670823E+0	1.649863E+0	1.653920E+0	1.691038E+0	1.628169E+0	1.684720E+0	1.701648E+0	1.630909E+0	1.726875E+0	1.653820E+0	1.641833E+0	1.726801E+0	1.674358E+0	1.645701E+0	1.711637E+0	1.696146E+0	1.704676E+0	1.661329E+0	1.687779E+0
5.390290E+2	1.977417E+0	1.906952E+0	1.893443E+0	1.950318E+0	1.894000E+0	2.033655E+0	1.940257E+0	1.992775E+0	1.975966E+0	1.945268E+0	1.954674E+0	1.957804E+0	1.963584E+0	1.903600E+0	1.953843E+0	1.891039E+0	1.914533E+0	1.965517E+0	1.969619E+0	1.982633E+0	1.963683E+0	1.999951E+0	1.979988E+0	1.985622E+0	1.933859E+0	1.988434E+0	2.002881E+0	1.933576E+0	2.001306E+0	1.955025E+0	1.987572E+0	1.903166E+0	1.952315E+0	1.973047E+0	1.954789E+0	1.965907E+0	1.935229E+0	1.975001E+0	1.964874E+0	1.876900E+0	1.951844E+0	1.906656E+0	1.979450E+0	1.940233E+0	1.949056E+0	1.923645E+0	1.930718E+0	1.899430E+0	1.952109E+0	1.954867E+0	1.978398E+0	1.895074E+0	1.917331E+0	1.981532E+0	1.983882E+0	1.951765E+0	1.934743E+0	1.966841E+0	1.925316E+0	1.946874E+0	1.938749E+0	1.970476E+0	1.902831E+0	1.957769E+0	1.895829E+0	1.984673E+0	1.948596E+0	1.941216E+0	1.937973E+0	1.928158E+0	1.921812E+0	1.976900E+0	2.012853E+0	1.995182E+0	1.851044E+0	1.881937E+0	1.867823E+0	1.870004E+0	1.884986E+0	1.930619E+0	1.969270E+0	1.896417E+0	1.912756E+0	1.921443E+0	1.987005E+0	2.006722E+0	1.859777E+0	1.961647E+0	1.895640E+0	1.919019E+0	1.934782E+0	1.910945E+0	1.967461E+0	1.924017E+0	1.919464E+0	1.900478E+0	1.915682E+0	1.944605E+0	1.908391E+0	1.889098E+0	1.961939E+0	1.939124E+0	1.885694E+0	2.007471E+0	1.924914E+0	1.926623E+0	1.947892E+0	1.902875E+0	1.851712E+0	1.939600E+0	1.857040E+0	1.984644E+0	1.879862E+0	1.951227E+0	1.897315E+0	1.950998E+0	1.945312E+0	1.899961E+0	1.918571E+0	1.923602E+0	1.820747E+0	1.897921E+0	1.872983E+0	1.851742E+0	1.947662E+0	1.898174E+0	1.970817E+0	1.909990E+0	1.879954E+0	1.902677E+0	1.907975E+0	1.908693E+0	1.942477E+0	1.938993E+0	1.931308E+0	1.908406E+0	1.903661E+0	1.891593E+0	1.910428E+0	1.896832E+0	1.852797E+0	1.927447E+0	1.887075E+0	1.875586E+0	1.827628E+0	1.944016E+0	1.957676E+0	1.920882E+0	1.900673E+0	1.965690E+0	1.927008E+0	1.884283E+0	1.843359E+0	1.937403E+0	1.877546E+0	1.930611E+0	1.938736E+0	1.965162E+0	1.878925E+0	1.951516E+0	1.937953E+0	1.892171E+0	1.907780E+0	1.830119E+0	1.841405E+0	1.914767E+0	1.841794E+0	1.974336E+0	1.836449E+0	1.839271E+0
5.392720E+2	2.150214E+0	2.115973E+0	2.095991E+0	2.161690E+0	2.100116E+0	2.202578E+0	2.089971E+0	2.198147E+0	2.105965E+0	2.099909E+0	2.135461E+0	2.178508E+0	2.092718E+0	2.183851E+0	2.110788E+0	2.119806E+0	2.104837E+0	2.205278E+0	2.096567E+0	2.096829E+0	2.124329E+0	2.233871E+0	2.167797E+0	2.094401E+0	2.053535E+0	2.136488E+0	2.139880E+0	2.099997E+0	2.086100E+0	2.077630E+0	2.121046E+0	2.062894E+0	2.186241E+0	2.152326E+0	2.050361E+0	2.070040E+0	2.062809E+0	2.096301E+0	2.180789E+0	2.083810E+0	2.147725E+0	2.153717E+0	2.128247E+0	2.102806E+0	2.117468E+0	2.072867E+0	2.151997E+0	2.093832E+0	2.123504E+0	2.167253E+0	2.060786E+0	2.088097E+0	2.162332E+0	2.196604E+0	2.062689E+0	2.028799E+0	2.018591E+0	2.170165E+0	2.057436E+0	2.092318E+0	2.153306E+0	2.061768E+0	2.143051E+0	2.040942E+0	2.100511E+0	2.077295E+0	2.123958E+0	2.150857E+0	2.046514E+0	2.119290E+0	2.112202E+0	2.101071E+0	2.127302E+0	2.113030E+0	2.078445E+0	2.041217E+0	2.068572E+0	2.093494E+0	2.151974E+0	2.158853E+0	2.115873E+0	2.075081E+0	2.047376E+0	2.085771E+0	2.104880E+0	2.040397E+0	2.036636E+0	2.091702E+0	1.993118E+0	2.045649E+0	2.113438E+0	2.077580E+0	2.178696E+0	2.100620E+0	2.071095E+0	2.087421E+0	2.127077E+0	2.063064E+0	2.098093E+0	2.143931E+0	2.089231E+0	2.108441E+0	2.146892E+0	2.131170E+0	2.038729E+0	2.068517E+0	2.053829E+0	2.142173E+0	2.059819E+0	2.131446E+0	2.046283E+0	2.133100E+0	2.032540E+0	2.174488E+0	2.066602E+0	2.115624E+0	2.062614E+0	2.102955E+0	2.031158E+0	2.018878E+0	2.012769E+0	2.018378E+0	2.071159E+0	2.153714E+0	2.142776E+0	2.093329E+0	2.151659E+0	2.091779E+0	2.139241E+0	2.004697E+0	2.054291E+0	2.041516E+0	2.032553E+0	2.089647E+0	1.991760E+0	2.054379E+0	2.050759E+0	2.142905E+0	2.104730E+0	2.035792E+0	2.022673E+0	2.062165E+0	2.093539E+0	2.034930E+0	2.063508E+0	2.095506E+0	2.024815E+0	2.026048E+0	1.999740E+0	2.133092E+0	2.094706E+0	1.990939E+0	2.107122E+0	2.162673E+0	2.091852E+0	2.032164E+0	2.051450E+0	2.047716E+0	2.024606E+0	2.025241E+0	2.108758E+0	2.007768E+0	2.059358E+0	2.019502E+0	2.054562E+0	2.070552E+0	2.027359E+0	2.105231E+0	2.007223E+0	1.975773E+0
5.395320E+2	2.215389E+0	2.181940E+0	2.176011E+0	2.219508E+0	2.199501E+0	2.297784E+0	2.243166E+0	2.249913E+0	2.166388E+0	2.144185E+0	2.239961E+0	2.254276E+0	2.182194E+0	2.245855E+0	2.275110E+0	2.212850E+0	2.090077E+0	2.227447E+0	2.219172E+0	2.225997E+0	2.182589E+0	2.272667E+0	2.178145E+0	2.160603E+0	2.176023E+0	2.258904E+0	2.256045E+0	2.163644E+0	2.263562E+0	2.231175E+0	2.131717E+0	2.214811E+0	2.240756E+0	2.201868E+0	2.164770E+0	2.224527E+0	2.193305E+0	2.180246E+0	2.202132E+0	2.181480E+0	2.199401E+0	2.164905E+0	2.249867E+0	2.253510E+0	2.137499E+0	2.173318E+0	2.189806E+0	2.184584E+0	2.203231E+0	2.215339E+0	2.170017E+0	2.131694E+0	2.170922E+0	2.267997E+0	2.214958E+0	2.116476E+0	2.121051E+0	2.265417E+0	2.103246E+0	2.200414E+0	2.160692E+0	2.232311E+0	2.243273E+0	2.118184E+0	2.142645E+0	2.202068E+0	2.226815E+0	2.216059E+0	2.120343E+0	2.141022E+0	2.170863E+0	2.191019E+0	2.136837E+0	2.146016E+0	2.173156E+0	2.143430E+0	2.181897E+0	2.192753E+0	2.188544E+0	2.196065E+0	2.213671E+0	2.177343E+0	2.170340E+0	2.124679E+0	2.179873E+0	2.183438E+0	2.251050E+0	2.251550E+0	2.098547E+0	2.203624E+0	2.136078E+0	2.157916E+0	2.231047E+0	2.182627E+0	2.188804E+0	2.147636E+0	2.138076E+0	2.113098E+0	2.164141E+0	2.188624E+0	2.179087E+0	2.188319E+0	2.155842E+0	2.207384E+0	2.184949E+0	2.164612E+0	2.102181E+0	2.157576E+0	2.183973E+0	2.199058E+0	2.131957E+0	2.142167E+0	2.215687E+0	2.188369E+0	2.187773E+0	2.140851E+0	2.145488E+0	2.152157E+0	2.185400E+0	2.130687E+0	2.162821E+0	2.151395E+0	2.130134E+0	2.148111E+0	2.254268E+0	2.149082E+0	2.195537E+0	2.094745E+0	2.056144E+0	2.075271E+0	2.165221E+0	2.156060E+0	2.159058E+0	2.151204E+0	2.175382E+0	2.099531E+0	2.126656E+0	2.110568E+0	2.172881E+0	2.159252E+0	2.167826E+0	2.154863E+0	2.129270E+0	2.096839E+0	2.129411E+0	2.142122E+0	2.220353E+0	2.160950E+0	2.116086E+0	2.148941E+0	2.145868E+0	2.141913E+0	2.089994E+0	2.154388E+0	2.169961E+0	2.131836E+0	2.115885E+0	2.121796E+0	2.079556E+0	2.060650E+0	2.175554E+0	2.147033E+0	2.179447E+0	2.128521E+0	2.103553E+0	2.145660E+0	2.133871E+0	2.159060E+0	2.050178E+0	2.075914E+0
5.397860E+2	2.304132E+0	2.229083E+0	2.221946E+0	2.215674E+0	2.199282E+0	2.224796E+0	2.200638E+0	2.177827E+0	2.141997E+0	2.120313E+0	2.271509E+0	2.283006E+0	2.216663E+0	2.234834E+0	2.256152E+0	2.241206E+0	2.129048E+0	2.230879E+0	2.227459E+0	2.227448E+0	2.210219E+0	2.217525E+0	2.296420E+0	2.242920E+0	2.140845E+0	2.238626E+0	2.217837E+0	2.212640E+0	2.190261E+0	2.224612E+0	2.207294E+0	2.114058E+0	2.254826E+0	2.211590E+0	2.213522E+0	2.157379E+0	2.171182E+0	2.164259E+0	2.326099E+0	2.162405E+0	2.189668E+0	2.197793E+0	2.153282E+0	2.177343E+0	2.170617E+0	2.234412E+0	2.199136E+0	2.083459E+0	2.238176E+0	2.201546E+0	2.206071E+0	2.136739E+0	2.182572E+0	2.192795E+0	2.188198E+0	2.232822E+0	2.253196E+0	2.143138E+0	2.209069E+0	2.210421E+0	2.202496E+0	2.168264E+0	2.186039E+0	2.057138E+0	2.156403E+0	2.191515E+0	2.157948E+0	2.123992E+0	2.123434E+0	2.226479E+0	2.181024E+0	2.206537E+0	2.112333E+0	2.217476E+0	2.235153E+0	2.226513E+0	2.089041E+0	2.162036E+0	2.167497E+0	2.089384E+0	2.127085E+0	2.127880E+0	2.172642E+0	2.111016E+0	2.119809E+0	2.151414E+0	2.071594E+0	2.131362E+0	2.104669E+0	2.147553E+0	2.262972E+0	2.160289E+0	2.222377E+0	2.137974E+0	2.175693E+0	2.105396E+0	2.147655E+0	2.149825E+0	2.145468E+0	2.095543E+0	2.161475E+0	2.189403E+0	2.178195E+0	2.127621E+0	2.129894E+0	2.144363E+0	2.173104E+0	2.152941E+0	2.155085E+0	2.257206E+0	2.058704E+0	2.160708E+0	2.152574E+0	2.155839E+0	2.061447E+0	2.037941E+0	2.163839E+0	2.155411E+0	2.036671E+0	2.096663E+0	2.064297E+0	2.135964E+0	2.123321E+0	2.105520E+0	2.239900E+0	2.154865E+0	2.136233E+0	2.128723E+0	2.140607E+0	2.133772E+0	2.133088E+0	2.153169E+0	2.093228E+0	2.146518E+0	2.079111E+0	2.098824E+0	2.121111E+0	2.147637E+0	2.081566E+0	2.097047E+0	2.101483E+0	2.135239E+0	2.077941E+0	2.034326E+0	2.117449E+0	2.120390E+0	2.173249E+0	2.144793E+0	2.085486E+0	2.157929E+0	2.090605E+0	2.084604E+0	2.010172E+0	2.184689E+0	2.191420E+0	2.114715E+0	2.057408E+0	2.137861E+0	2.052236E+0	2.119923E+0	2.165341E+0	2.091594E+0	2.144124E+0	2.139466E+0	2.098218E+0	2.110230E+0	2.104582E+0	2.196110E+0	1.995861E+0	2.145032E+0
5.400140E+2	2.209447E+0	2.143353E+0	2.215735E+0	2.202208E+0	2.113068E+0	2.199044E+0	2.168259E+0	2.173626E+0	2.176645E+0	2.170901E+0	2.142765E+0	2.174691E+0	2.139651E+0	2.190492E+0	2.222679E+0	2.176915E+0	2.119455E+0	2.206572E+0	2.176324E+0	2.173855E+0	2.164742E+0	2.146283E+0	2.315579E+0	2.141301E+0	2.131542E+0	2.214654E+0	2.191987E+0	2.191194E+0	2.174929E+0	2.182136E+0	2.107658E+0	2.093219E+0	2.202926E+0	2.181651E+0	2.077378E+0	2.067876E+0	2.111081E+0	2.114799E+0	2.188530E+0	2.120219E+0	2.104915E+0	2.168690E+0	2.219113E+0	2.134779E+0	2.115592E+0	2.094091E+0	2.121125E+0	2.097017E+0	2.200106E+0	2.121285E+0	2.184111E+0	2.168535E+0	2.158720E+0	2.174593E+0	2.186096E+0	2.110372E+0	2.092667E+0	2.163277E+0	2.127744E+0	2.126373E+0	2.163467E+0	2.173335E+0	2.171370E+0	2.134304E+0	2.122582E+0	2.099161E+0	2.136762E+0	2.082971E+0	2.125574E+0	2.106081E+0	2.235171E+0	2.111737E+0	2.131896E+0	2.111331E+0	2.160323E+0	2.112094E+0	2.100234E+0	2.116924E+0	2.073526E+0	2.062123E+0	2.166170E+0	2.085403E+0	2.072841E+0	2.100551E+0	2.137806E+0	2.112666E+0	2.085175E+0	2.162177E+0	2.107910E+0	2.137422E+0	2.081449E+0	2.124403E+0	2.127244E+0	2.113521E+0	2.105655E+0	2.112223E+0	2.100101E+0	2.162054E+0	2.195350E+0	2.095247E+0	2.112190E+0	2.126571E+0	2.178527E+0	2.106936E+0	2.149653E+0	2.197823E+0	2.116705E+0	2.166054E+0	2.153557E+0	2.153376E+0	2.174095E+0	2.124684E+0	2.090996E+0	2.090230E+0	2.145680E+0	2.061729E+0	2.107033E+0	2.144493E+0	2.136072E+0	2.073887E+0	2.038333E+0	2.103429E+0	2.130900E+0	2.148833E+0	2.128996E+0	2.051484E+0	2.156431E+0	2.150183E+0	2.124396E+0	2.062261E+0	2.089935E+0	2.047296E+0	2.116295E+0	2.176380E+0	2.069795E+0	2.085668E+0	2.058231E+0	2.147627E+0	2.108352E+0	2.069173E+0	2.042885E+0	2.135144E+0	2.119503E+0	2.028619E+0	2.066300E+0	2.111804E+0	2.115858E+0	2.175650E+0	2.147423E+0	2.103182E+0	2.107415E+0	2.056228E+0	2.132278E+0	2.040824E+0	2.093349E+0	2.141005E+0	2.087534E+0	2.109094E+0	2.066006E+0	2.083110E+0	2.125159E+0	2.057836E+0	2.144105E+0	2.027100E+0	2.088005E+0	2.056523E+0	2.099464E+0	2.177470E+0	2.053129E+0	2.110765E+0
5.402630E+2	2.157673E+0	2.060334E+0	2.062600E+0	2.070632E+0	2.064819E+0	2.165665E+0	2.081901E+0	2.125496E+0	2.074097E+0	2.045096E+0	2.134578E+0	2.069269E+0	2.070952E+0	2.099963E+0	2.131088E+0	2.135003E+0	2.059179E+0	2.120155E+0	2.087548E+0	2.089613E+0	2.085737E+0	2.066496E+0	2.177843E+0	2.119032E+0	2.065732E+0	2.133021E+0	2.115724E+0	2.084425E+0	2.166107E+0	2.042377E+0	2.048439E+0	2.072829E+0	2.054998E+0	2.059959E+0	2.114766E+0	2.015209E+0	2.031794E+0	2.082092E+0	2.181603E+0	2.106470E+0	2.069471E+0	2.029566E+0	2.117821E+0	2.124526E+0	2.035468E+0	2.005994E+0	2.063654E+0	2.075641E+0	2.123966E+0	2.105232E+0	2.123452E+0	1.960990E+0	2.119238E+0	2.091012E+0	2.129162E+0	2.070569E+0	2.011027E+0	2.085674E+0	2.100170E+0	2.063977E+0	2.024160E+0	2.075635E+0	2.095572E+0	2.015198E+0	2.082484E+0	2.095759E+0	2.084370E+0	2.083201E+0	2.025245E+0	2.049330E+0	2.065147E+0	2.046227E+0	2.075937E+0	2.079086E+0	2.054304E+0	1.996432E+0	2.076632E+0	2.059443E+0	2.149219E+0	2.036705E+0	2.054923E+0	2.088154E+0	2.080796E+0	2.054347E+0	2.006899E+0	2.065627E+0	2.072348E+0	2.116094E+0	2.030980E+0	2.035564E+0	2.135644E+0	2.021657E+0	2.085210E+0	2.007673E+0	2.061883E+0	2.110801E+0	2.068105E+0	2.013997E+0	2.038379E+0	2.024250E+0	2.081687E+0	2.069461E+0	2.100558E+0	2.021550E+0	2.035039E+0	2.032462E+0	2.074251E+0	2.025650E+0	2.061380E+0	2.064528E+0	2.082384E+0	2.078819E+0	2.051908E+0	2.115741E+0	1.986669E+0	2.018000E+0	2.006613E+0	2.038188E+0	2.015488E+0	2.004872E+0	1.950677E+0	2.015457E+0	2.081413E+0	2.015381E+0	2.187072E+0	2.049872E+0	2.042532E+0	2.030606E+0	2.041179E+0	2.012811E+0	2.078531E+0	2.064716E+0	1.983142E+0	2.117046E+0	1.996588E+0	1.993180E+0	1.986090E+0	2.049629E+0	2.002444E+0	2.032415E+0	2.048978E+0	2.039182E+0	2.042883E+0	1.987065E+0	1.994885E+0	2.024871E+0	2.095103E+0	1.966347E+0	2.040953E+0	2.067894E+0	2.023334E+0	1.949925E+0	2.010873E+0	2.090665E+0	1.994534E+0	2.058040E+0	1.951469E+0	2.130670E+0	1.971165E+0	2.016769E+0	2.104700E+0	2.048673E+0	1.989707E+0	1.991860E+0	2.020352E+0	2.062587E+0	2.019028E+0	2.020934E+0	1.986529E+0	1.868924E+0
5.405080E+2	2.064619E+0	1.975285E+0	1.963345E+0	2.040941E+0	1.986681E+0	1.952700E+0	2.079137E+0	1.955543E+0	1.975444E+0	1.966733E+0	2.028218E+0	2.068630E+0	2.060985E+0	1.982525E+0	2.036451E+0	1.954428E+0	1.968615E+0	2.007293E+0	2.019230E+0	1.982456E+0	2.000420E+0	2.037631E+0	2.114966E+0	1.925901E+0	1.934538E+0	2.006145E+0	1.942544E+0	2.094192E+0	2.004534E+0	2.091383E+0	1.979891E+0	1.999062E+0	2.038579E+0	2.001340E+0	1.956970E+0	1.981194E+0	1.904507E+0	1.936239E+0	2.081186E+0	2.026226E+0	1.971326E+0	1.949001E+0	1.930388E+0	1.997068E+0	1.953846E+0	1.939453E+0	1.991114E+0	1.951352E+0	2.048619E+0	1.912357E+0	1.956617E+0	1.991063E+0	1.976903E+0	1.981930E+0	1.996380E+0	1.967532E+0	1.951324E+0	2.026703E+0	2.000081E+0	1.921015E+0	1.942630E+0	1.953145E+0	1.907966E+0	1.929810E+0	1.945025E+0	1.928234E+0	1.957176E+0	1.983691E+0	1.944987E+0	1.964460E+0	1.962966E+0	1.956065E+0	1.963418E+0	1.960441E+0	1.953346E+0	1.883255E+0	2.013197E+0	1.957591E+0	1.938370E+0	1.912777E+0	1.944124E+0	1.876158E+0	1.970953E+0	1.897462E+0	1.934242E+0	1.942395E+0	1.930856E+0	2.047382E+0	1.882751E+0	1.974248E+0	1.988301E+0	2.007155E+0	1.985050E+0	1.999549E+0	2.000922E+0	1.910610E+0	1.974684E+0	1.943111E+0	1.999607E+0	1.922060E+0	1.939843E+0	1.859694E+0	2.079813E+0	1.985732E+0	1.911539E+0	1.940048E+0	2.036378E+0	1.944488E+0	1.975242E+0	1.943000E+0	1.873193E+0	1.973138E+0	1.891231E+0	1.995672E+0	1.930410E+0	1.971098E+0	2.027952E+0	1.980052E+0	1.989549E+0	1.908931E+0	1.964606E+0	1.943503E+0	1.941511E+0	1.956686E+0	2.060313E+0	1.925666E+0	1.983480E+0	1.980789E+0	1.929253E+0	1.906388E+0	1.939852E+0	1.947275E+0	1.938885E+0	1.879074E+0	1.978068E+0	1.933425E+0	1.906031E+0	1.944014E+0	1.934769E+0	1.885108E+0	1.928734E+0	1.918145E+0	1.946358E+0	1.856357E+0	1.922999E+0	1.940044E+0	1.918323E+0	1.911242E+0	1.918709E+0	1.982303E+0	2.021192E+0	1.909075E+0	1.917130E+0	1.951921E+0	1.969698E+0	1.991824E+0	1.916593E+0	1.941701E+0	1.877879E+0	1.938249E+0	1.978955E+0	1.907110E+0	1.955015E+0	1.876073E+0	1.969673E+0	1.867400E+0	1.936470E+0	1.868440E+0	1.867207E+0	1.905856E+0
5.407790E+2	1.824559E+0	1.886983E+0	1.900552E+0	1.918089E+0	1.800858E+0	1.821857E+0	1.869060E+0	1.899387E+0	1.846999E+0	1.831107E+0	1.866253E+0	1.938426E+0	1.853119E+0	1.844742E+0	1.887385E+0	1.822477E+0	1.841581E+0	1.910163E+0	1.904295E+0	1.904280E+0	1.908882E+0	1.863232E+0	1.932851E+0	1.901402E+0	1.824627E+0	1.812764E+0	1.858637E+0	1.849827E+0	1.891425E+0	1.851003E+0	1.847274E+0	1.807536E+0	1.861981E+0	1.826595E+0	1.796157E+0	1.842298E+0	1.797292E+0	1.797115E+0	1.931776E+0	1.884277E+0	1.857450E+0	1.837806E+0	1.918754E+0	1.808822E+0	1.835838E+0	1.835473E+0	1.896033E+0	1.855701E+0	1.854406E+0	1.863584E+0	1.908231E+0	1.777479E+0	1.880242E+0	1.849524E+0	1.832190E+0	1.782198E+0	1.856872E+0	1.904072E+0	1.798040E+0	1.848643E+0	1.911257E+0	1.804431E+0	1.852698E+0	1.797105E+0	1.834741E+0	1.856861E+0	1.896288E+0	1.869437E+0	1.809286E+0	1.841150E+0	1.881529E+0	1.873157E+0	1.915608E+0	1.828463E+0	1.863206E+0	1.778447E+0	1.915588E+0	1.825795E+0	1.935793E+0	1.825681E+0	1.871734E+0	1.787841E+0	1.847112E+0	1.838546E+0	1.935528E+0	1.903759E+0	1.854141E+0	1.900189E+0	1.774108E+0	1.804237E+0	1.919274E+0	1.853998E+0	1.890041E+0	1.863607E+0	1.792197E+0	1.782928E+0	1.823676E+0	1.779610E+0	1.830727E+0	1.823041E+0	1.870894E+0	1.845602E+0	1.925076E+0	1.831286E+0	1.860865E+0	1.788534E+0	1.847967E+0	1.817632E+0	1.844623E+0	1.869193E+0	1.820837E+0	1.865937E+0	1.900221E+0	1.752672E+0	1.852932E+0	1.858208E+0	1.863717E+0	1.853101E+0	1.874990E+0	1.781958E+0	1.807052E+0	1.787471E+0	1.832008E+0	1.831859E+0	1.846490E+0	1.789417E+0	1.823125E+0	1.805638E+0	1.841714E+0	1.839613E+0	1.840193E+0	1.849899E+0	1.831614E+0	1.789255E+0	1.889558E+0	1.812139E+0	1.768831E+0	1.772967E+0	1.807700E+0	1.787963E+0	1.840222E+0	1.809571E+0	1.793411E+0	1.797519E+0	1.787202E+0	1.785332E+0	1.868635E+0	1.863223E+0	1.832612E+0	1.855197E+0	1.842414E+0	1.849229E+0	1.720831E+0	1.821668E+0	1.832627E+0	1.817869E+0	1.824746E+0	1.839091E+0	1.789169E+0	1.836929E+0	1.819440E+0	1.793489E+0	1.833395E+0	1.843544E+0	1.779703E+0	1.801856E+0	1.761682E+0	1.874402E+0	1.761570E+0	1.780193E+0
5.410240E+2	1.739870E+0	1.731830E+0	1.766285E+0	1.826217E+0	1.736634E+0	1.811849E+0	1.765229E+0	1.771878E+0	1.739872E+0	1.715768E+0	1.778303E+0	1.721205E+0	1.740692E+0	1.729223E+0	1.780311E+0	1.800172E+0	1.768221E+0	1.772068E+0	1.765046E+0	1.701443E+0	1.801204E+0	1.753178E+0	1.780844E+0	1.764549E+0	1.687452E+0	1.743713E+0	1.753436E+0	1.775929E+0	1.730372E+0	1.741647E+0	1.729704E+0	1.736015E+0	1.815016E+0	1.711953E+0	1.702937E+0	1.733645E+0	1.672060E+0	1.722281E+0	1.841798E+0	1.748626E+0	1.764117E+0	1.719308E+0	1.810272E+0	1.775770E+0	1.749473E+0	1.732884E+0	1.752653E+0	1.747904E+0	1.787286E+0	1.763519E+0	1.795996E+0	1.735085E+0	1.778862E+0	1.761186E+0	1.768484E+0	1.719657E+0	1.748347E+0	1.746362E+0	1.714618E+0	1.739768E+0	1.737058E+0	1.705743E+0	1.720095E+0	1.687035E+0	1.724087E+0	1.779265E+0	1.726519E+0	1.741081E+0	1.622468E+0	1.727351E+0	1.754034E+0	1.741904E+0	1.748190E+0	1.711725E+0	1.763808E+0	1.669668E+0	1.762092E+0	1.733461E+0	1.705324E+0	1.723272E+0	1.712201E+0	1.743471E+0	1.727979E+0	1.686755E+0	1.717926E+0	1.680652E+0	1.750997E+0	1.823374E+0	1.676692E+0	1.665974E+0	1.730925E+0	1.750766E+0	1.808888E+0	1.743632E+0	1.684494E+0	1.747255E+0	1.729003E+0	1.684422E+0	1.755006E+0	1.680026E+0	1.747010E+0	1.699708E+0	1.802700E+0	1.762428E+0	1.655128E+0	1.719912E+0	1.716845E+0	1.787589E+0	1.714612E+0	1.688977E+0	1.714849E+0	1.683911E+0	1.671783E+0	1.707697E+0	1.732238E+0	1.699229E+0	1.807728E+0	1.699173E+0	1.754532E+0	1.686756E+0	1.702969E+0	1.735401E+0	1.791267E+0	1.692921E+0	1.738404E+0	1.655727E+0	1.750388E+0	1.687289E+0	1.711083E+0	1.658362E+0	1.672103E+0	1.650386E+0	1.717637E+0	1.745816E+0	1.770551E+0	1.691119E+0	1.685226E+0	1.721604E+0	1.732664E+0	1.691689E+0	1.691142E+0	1.730611E+0	1.781511E+0	1.720542E+0	1.639007E+0	1.726634E+0	1.730073E+0	1.724805E+0	1.737835E+0	1.748581E+0	1.775834E+0	1.658560E+0	1.631971E+0	1.675643E+0	1.727040E+0	1.695956E+0	1.699019E+0	1.729438E+0	1.678244E+0	1.732910E+0	1.713622E+0	1.659097E+0	1.793848E+0	1.704996E+0	1.743648E+0	1.691185E+0	1.653078E+0	1.715242E+0	1.778981E+0	1.688725E+0
5.412850E+2	1.615208E+0	1.578617E+0	1.646582E+0	1.595931E+0	1.566210E+0	1.652766E+0	1.651994E+0	1.641394E+0	1.617346E+0	1.642673E+0	1.656592E+0	1.601182E+0	1.635466E+0	1.574264E+0	1.642726E+0	1.637442E+0	1.637347E+0	1.645775E+0	1.626860E+0	1.659383E+0	1.641919E+0	1.643870E+0	1.745550E+0	1.573074E+0	1.575554E+0	1.611757E+0	1.671568E+0	1.621927E+0	1.634607E+0	1.660325E+0	1.661129E+0	1.602879E+0	1.670160E+0	1.594001E+0	1.617680E+0	1.633326E+0	1.578193E+0	1.551623E+0	1.710702E+0	1.625353E+0	1.608010E+0	1.627327E+0	1.540866E+0	1.616354E+0	1.562479E+0	1.604361E+0	1.628500E+0	1.605512E+0	1.619407E+0	1.644894E+0	1.684052E+0	1.603233E+0	1.635579E+0	1.652055E+0	1.684340E+0	1.549597E+0	1.535990E+0	1.594887E+0	1.600850E+0	1.612821E+0	1.601575E+0	1.664772E+0	1.638410E+0	1.571325E+0	1.606408E+0	1.584157E+0	1.634686E+0	1.645461E+0	1.566293E+0	1.599325E+0	1.655072E+0	1.614298E+0	1.562494E+0	1.552579E+0	1.642151E+0	1.658798E+0	1.688978E+0	1.572625E+0	1.574224E+0	1.595647E+0	1.588864E+0	1.572589E+0	1.615119E+0	1.553216E+0	1.607281E+0	1.633432E+0	1.583280E+0	1.605442E+0	1.582056E+0	1.586013E+0	1.664830E+0	1.671024E+0	1.604303E+0	1.593419E+0	1.604753E+0	1.583350E+0	1.600831E+0	1.614759E+0	1.680111E+0	1.595250E+0	1.596192E+0	1.558752E+0	1.631921E+0	1.587029E+0	1.609389E+0	1.627923E+0	1.651137E+0	1.673263E+0	1.562084E+0	1.619830E+0	1.633581E+0	1.609260E+0	1.586586E+0	1.628963E+0	1.552017E+0	1.646156E+0	1.610458E+0	1.588278E+0	1.597380E+0	1.619824E+0	1.565887E+0	1.568886E+0	1.595924E+0	1.564349E+0	1.662542E+0	1.552972E+0	1.608242E+0	1.561586E+0	1.607199E+0	1.602964E+0	1.562065E+0	1.544204E+0	1.548900E+0	1.594040E+0	1.651679E+0	1.580202E+0	1.553721E+0	1.605796E+0	1.565024E+0	1.626414E+0	1.537824E+0	1.561868E+0	1.608008E+0	1.543101E+0	1.610000E+0	1.615354E+0	1.602699E+0	1.589413E+0	1.579039E+0	1.618633E+0	1.636338E+0	1.636423E+0	1.575953E+0	1.542460E+0	1.530530E+0	1.574518E+0	1.635813E+0	1.543896E+0	1.578768E+0	1.626864E+0	1.589880E+0	1.572516E+0	1.638148E+0	1.559182E+0	1.594950E+0	1.583062E+0	1.581777E+0	1.659733E+0	1.590522E+0	1.573676E+0
5.415190E+2	1.438381E+0	1.463004E+0	1.473151E+0	1.492300E+0	1.476507E+0	1.521162E+0	1.527411E+0	1.499112E+0	1.432751E+0	1.465426E+0	1.464755E+0	1.494237E+0	1.457456E+0	1.498513E+0	1.498042E+0	1.462593E+0	1.419053E+0	1.505530E+0	1.492437E+0	1.434809E+0	1.489748E+0	1.485860E+0	1.551931E+0	1.476400E+0	1.459725E+0	1.500814E+0	1.498453E+0	1.515260E+0	1.559033E+0	1.470470E+0	1.504654E+0	1.504924E+0	1.538274E+0	1.487353E+0	1.480720E+0	1.423779E+0	1.419898E+0	1.471336E+0	1.525450E+0	1.494550E+0	1.525935E+0	1.495409E+0	1.510932E+0	1.447995E+0	1.438677E+0	1.481968E+0	1.505377E+0	1.512351E+0	1.520513E+0	1.468286E+0	1.504170E+0	1.497134E+0	1.491412E+0	1.505070E+0	1.494210E+0	1.457527E+0	1.433965E+0	1.480990E+0	1.444234E+0	1.477814E+0	1.563218E+0	1.480180E+0	1.487012E+0	1.462517E+0	1.465652E+0	1.486931E+0	1.528957E+0	1.440057E+0	1.450761E+0	1.438403E+0	1.546652E+0	1.455664E+0	1.468532E+0	1.491365E+0	1.507962E+0	1.517108E+0	1.509518E+0	1.488690E+0	1.488212E+0	1.510654E+0	1.460315E+0	1.436264E+0	1.508800E+0	1.482634E+0	1.492954E+0	1.493037E+0	1.525858E+0	1.521729E+0	1.457579E+0	1.470942E+0	1.508092E+0	1.455439E+0	1.564283E+0	1.518039E+0	1.453825E+0	1.443763E+0	1.440612E+0	1.430830E+0	1.495823E+0	1.430905E+0	1.492621E+0	1.500166E+0	1.553365E+0	1.511892E+0	1.490663E+0	1.441499E+0	1.485146E+0	1.497673E+0	1.504836E+0	1.470460E+0	1.516270E+0	1.522437E+0	1.420926E+0	1.476776E+0	1.455134E+0	1.513602E+0	1.463651E+0	1.487361E+0	1.453460E+0	1.470523E+0	1.483697E+0	1.445274E+0	1.490472E+0	1.445991E+0	1.516498E+0	1.477060E+0	1.510994E+0	1.484085E+0	1.543018E+0	1.438582E+0	1.435439E+0	1.494074E+0	1.455489E+0	1.505153E+0	1.506993E+0	1.463147E+0	1.384900E+0	1.485706E+0	1.503184E+0	1.521589E+0	1.489816E+0	1.475422E+0	1.426429E+0	1.424591E+0	1.418316E+0	1.492009E+0	1.483854E+0	1.542545E+0	1.423422E+0	1.474959E+0	1.541956E+0	1.457665E+0	1.470220E+0	1.455299E+0	1.490793E+0	1.443990E+0	1.476815E+0	1.486332E+0	1.460151E+0	1.434077E+0	1.535604E+0	1.530919E+0	1.524537E+0	1.424078E+0	1.471544E+0	1.471291E+0	1.460902E+0	1.414587E+0	1.414376E+0	1.484241E+0
5.417810E+2	1.339101E+0	1.315892E+0	1.287398E+0	1.339435E+0	1.286599E+0	1.325614E+0	1.239726E+0	1.307914E+0	1.248232E+0	1.264704E+0	1.299381E+0	1.285409E+0	1.280161E+0	1.282586E+0	1.272389E+0	1.273056E+0	1.329921E+0	1.309176E+0	1.328613E+0	1.256163E+0	1.297873E+0	1.302578E+0	1.313193E+0	1.345210E+0	1.262510E+0	1.295460E+0	1.334154E+0	1.311136E+0	1.271275E+0	1.335020E+0	1.263637E+0	1.277043E+0	1.360175E+0	1.261570E+0	1.328775E+0	1.288654E+0	1.318457E+0	1.221992E+0	1.357366E+0	1.259127E+0	1.290713E+0	1.307066E+0	1.344597E+0	1.287764E+0	1.327190E+0	1.298874E+0	1.285251E+0	1.234821E+0	1.307942E+0	1.301637E+0	1.301708E+0	1.272600E+0	1.356699E+0	1.290734E+0	1.310526E+0	1.315117E+0	1.277492E+0	1.374879E+0	1.285940E+0	1.297163E+0	1.330145E+0	1.292463E+0	1.228594E+0	1.240313E+0	1.290760E+0	1.335153E+0	1.319850E+0	1.314664E+0	1.251031E+0	1.293540E+0	1.326243E+0	1.277429E+0	1.278832E+0	1.253888E+0	1.328004E+0	1.325102E+0	1.320105E+0	1.291641E+0	1.317020E+0	1.274557E+0	1.333586E+0	1.296761E+0	1.292329E+0	1.258194E+0	1.326679E+0	1.286314E+0	1.280080E+0	1.299051E+0	1.240372E+0	1.270020E+0	1.321829E+0	1.282721E+0	1.346576E+0	1.314762E+0	1.263277E+0	1.293372E+0	1.295096E+0	1.261995E+0	1.334001E+0	1.260244E+0	1.274763E+0	1.288570E+0	1.352961E+0	1.293203E+0	1.295565E+0	1.246673E+0	1.305146E+0	1.282931E+0	1.289058E+0	1.313433E+0	1.285719E+0	1.281108E+0	1.245121E+0	1.319261E+0	1.296025E+0	1.333155E+0	1.323685E+0	1.270908E+0	1.289211E+0	1.300724E+0	1.256866E+0	1.311446E+0	1.317758E+0	1.271740E+0	1.299464E+0	1.218956E+0	1.298911E+0	1.286025E+0	1.277795E+0	1.268839E+0	1.310684E+0	1.232792E+0	1.271020E+0	1.274943E+0	1.320107E+0	1.318628E+0	1.271630E+0	1.293529E+0	1.300561E+0	1.287417E+0	1.349726E+0	1.345217E+0	1.355987E+0	1.265979E+0	1.297408E+0	1.253640E+0	1.361862E+0	1.280528E+0	1.294770E+0	1.259290E+0	1.329215E+0	1.257319E+0	1.269480E+0	1.290863E+0	1.303382E+0	1.289166E+0	1.291766E+0	1.305792E+0	1.249933E+0	1.314380E+0	1.292835E+0	1.215022E+0	1.314913E+0	1.273880E+0	1.236508E+0	1.295209E+0	1.275328E+0	1.304739E+0	1.238966E+0	1.248500E+0
5.420160E+2	1.151454E+0	1.132560E+0	1.106892E+0	1.124718E+0	1.170200E+0	1.122764E+0	1.132533E+0	1.112937E+0	1.086601E+0	1.084911E+0	1.138468E+0	1.127268E+0	1.097585E+0	1.081993E+0	1.154424E+0	1.103537E+0	1.157912E+0	1.139890E+0	1.149598E+0	1.138411E+0	1.187551E+0	1.119035E+0	1.131726E+0	1.135666E+0	1.095606E+0	1.129266E+0	1.144104E+0	1.114221E+0	1.160634E+0	1.126013E+0	1.152695E+0	1.096821E+0	1.160508E+0	1.118682E+0	1.110028E+0	1.114719E+0	1.122291E+0	1.105075E+0	1.170102E+0	1.141489E+0	1.133076E+0	1.154186E+0	1.131402E+0	1.096375E+0	1.141866E+0	1.090534E+0	1.121101E+0	1.079890E+0	1.139364E+0	1.110188E+0	1.151422E+0	1.110922E+0	1.144393E+0	1.083986E+0	1.094910E+0	1.128890E+0	1.153542E+0	1.127462E+0	1.113298E+0	1.106038E+0	1.104210E+0	1.122407E+0	1.085970E+0	1.127726E+0	1.081466E+0	1.093255E+0	1.104096E+0	1.114415E+0	1.144020E+0	1.135250E+0	1.128089E+0	1.174390E+0	1.153609E+0	1.142225E+0	1.125696E+0	1.087889E+0	1.135297E+0	1.102103E+0	1.117576E+0	1.111296E+0	1.141482E+0	1.117153E+0	1.107589E+0	1.102294E+0	1.121169E+0	1.103160E+0	1.186579E+0	1.173360E+0	1.114892E+0	1.121489E+0	1.144003E+0	1.163303E+0	1.117079E+0	1.135928E+0	1.121817E+0	1.145561E+0	1.141776E+0	1.124764E+0	1.134811E+0	1.147467E+0	1.160330E+0	1.103669E+0	1.124705E+0	1.145343E+0	1.115325E+0	1.103584E+0	1.153540E+0	1.109201E+0	1.121012E+0	1.154975E+0	1.100733E+0	1.149566E+0	1.104253E+0	1.183223E+0	1.109740E+0	1.146708E+0	1.143619E+0	1.138130E+0	1.192260E+0	1.104246E+0	1.115070E+0	1.131809E+0	1.172541E+0	1.131830E+0	1.196752E+0	1.125163E+0	1.087938E+0	1.111134E+0	1.176054E+0	1.081057E+0	1.105136E+0	1.129283E+0	1.140591E+0	1.130290E+0	1.145179E+0	1.102903E+0	1.133793E+0	1.174491E+0	1.147905E+0	1.079493E+0	1.134204E+0	1.159679E+0	1.167206E+0	1.074743E+0	1.090020E+0	1.134012E+0	1.174943E+0	1.113047E+0	1.112591E+0	1.143841E+0	1.152072E+0	1.137653E+0	1.118374E+0	1.112047E+0	1.144803E+0	1.148419E+0	1.171148E+0	1.081529E+0	1.159625E+0	1.185668E+0	1.215216E+0	1.099646E+0	1.172088E+0	1.107699E+0	1.118260E+0	1.107387E+0	1.116512E+0	1.236004E+0	1.109905E+0	1.082363E+0
5.422670E+2	1.066014E+0	1.035194E+0	9.734564E-1	1.026209E+0	1.038041E+0	1.014029E+0	1.031079E+0	1.027927E+0	1.014069E+0	1.021313E+0	1.047412E+0	1.041184E+0	1.030008E+0	1.006903E+0	1.021861E+0	9.858440E-1	9.856773E-1	1.025318E+0	1.030520E+0	1.010284E+0	1.035748E+0	1.021323E+0	1.065206E+0	1.010988E+0	9.970666E-1	1.041912E+0	1.023774E+0	1.055517E+0	1.046482E+0	9.948654E-1	1.061329E+0	1.053946E+0	1.030249E+0	9.998853E-1	1.068026E+0	1.001006E+0	1.010752E+0	9.967276E-1	1.084294E+0	1.010114E+0	1.039495E+0	1.029860E+0	9.844296E-1	1.039995E+0	9.915925E-1	1.024925E+0	9.425111E-1	9.579351E-1	1.034594E+0	1.015738E+0	9.839959E-1	1.022777E+0	1.021669E+0	1.041837E+0	1.007523E+0	1.012084E+0	9.969641E-1	1.017085E+0	1.007111E+0	1.085323E+0	1.050833E+0	1.044726E+0	1.011346E+0	1.003675E+0	1.005316E+0	1.026256E+0	1.032531E+0	1.073392E+0	1.049489E+0	1.001571E+0	1.044287E+0	1.020412E+0	1.014827E+0	1.057207E+0	1.009645E+0	1.045574E+0	1.007768E+0	1.043896E+0	1.037004E+0	9.920116E-1	1.038312E+0	1.023407E+0	1.043327E+0	1.017145E+0	9.957901E-1	1.012651E+0	1.039474E+0	1.056082E+0	1.007408E+0	1.084732E+0	1.033244E+0	1.074447E+0	1.051698E+0	9.862500E-1	1.068483E+0	9.786015E-1	1.066614E+0	1.001501E+0	1.011671E+0	1.014383E+0	1.043294E+0	1.033158E+0	1.040618E+0	1.073734E+0	1.038702E+0	1.040077E+0	1.020260E+0	1.010585E+0	9.882564E-1	1.064795E+0	1.041769E+0	1.032335E+0	1.059669E+0	1.011411E+0	1.040027E+0	1.010281E+0	1.008802E+0	1.082184E+0	1.021713E+0	1.046862E+0	1.013136E+0	9.789357E-1	1.024082E+0	1.026260E+0	1.056983E+0	1.048529E+0	1.023831E+0	9.647877E-1	1.009943E+0	9.856637E-1	9.975167E-1	1.014754E+0	1.013679E+0	1.022261E+0	1.074687E+0	1.009104E+0	1.026459E+0	1.034166E+0	1.053868E+0	1.031871E+0	9.911913E-1	1.064774E+0	1.008856E+0	9.734731E-1	1.048881E+0	1.024806E+0	1.082177E+0	9.887958E-1	1.006214E+0	1.040360E+0	1.048548E+0	1.060769E+0	9.999447E-1	1.040697E+0	1.066778E+0	1.029075E+0	1.033575E+0	1.044229E+0	9.982217E-1	9.983597E-1	1.009802E+0	1.037648E+0	1.029015E+0	1.010709E+0	1.048927E+0	1.016542E+0	9.911043E-1	1.027996E+0	1.032486E+0	9.625483E-1
5.425460E+2	1.011823E+0	9.575508E-1	1.001958E+0	1.021886E+0	1.012790E+0	1.001445E+0	9.558022E-1	1.046856E+0	9.960679E-1	1.009021E+0	9.814731E-1	1.015711E+0	9.996204E-1	9.964705E-1	9.763573E-1	9.632613E-1	9.912480E-1	9.744819E-1	9.821922E-1	9.876383E-1	9.998123E-1	1.042589E+0	1.006438E+0	1.025920E+0	9.799220E-1	1.058541E+0	1.032677E+0	9.991135E-1	1.010215E+0	1.029804E+0	9.945786E-1	1.003002E+0	1.043293E+0	9.689400E-1	1.013373E+0	9.912904E-1	9.850580E-1	9.880909E-1	1.060931E+0	1.036726E+0	9.911228E-1	1.018469E+0	1.004834E+0	9.965706E-1	1.001808E+0	9.550634E-1	1.010289E+0	9.884916E-1	1.023846E+0	9.960860E-1	9.961875E-1	1.041387E+0	9.945347E-1	9.901439E-1	9.797804E-1	1.020457E+0	9.535178E-1	9.820673E-1	9.345071E-1	9.777434E-1	9.775452E-1	1.016711E+0	9.874947E-1	9.824686E-1	9.958065E-1	9.875820E-1	1.031705E+0	1.015025E+0	1.006751E+0	1.008095E+0	9.858879E-1	9.939843E-1	1.042563E+0	1.031406E+0	9.859567E-1	9.779275E-1	9.548566E-1	9.843816E-1	9.974594E-1	9.764864E-1	1.012792E+0	1.018202E+0	9.848950E-1	1.013929E+0	9.691515E-1	1.032290E+0	9.822137E-1	9.900216E-1	1.000239E+0	9.322996E-1	1.019290E+0	9.817183E-1	1.063661E+0	1.003044E+0	9.958804E-1	1.002150E+0	1.052597E+0	9.994167E-1	1.007630E+0	1.033258E+0	1.017756E+0	9.754565E-1	1.037550E+0	1.026513E+0	9.572590E-1	9.773281E-1	1.005050E+0	1.019534E+0	1.007766E+0	1.010921E+0	1.007879E+0	1.017433E+0	9.988073E-1	1.008742E+0	1.032242E+0	1.020834E+0	1.007042E+0	1.020596E+0	9.586015E-1	9.988959E-1	9.420534E-1	9.495361E-1	1.054633E+0	9.970812E-1	9.725592E-1	1.012597E+0	1.003830E+0	9.913203E-1	1.003281E+0	9.333015E-1	9.567218E-1	1.035498E+0	1.035754E+0	1.015953E+0	1.017792E+0	1.005090E+0	1.032501E+0	9.839668E-1	9.946541E-1	9.656665E-1	9.830157E-1	9.982083E-1	9.783733E-1	9.912102E-1	9.784969E-1	9.651425E-1	9.804295E-1	1.003576E+0	9.950054E-1	1.009402E+0	1.026991E+0	1.019816E+0	1.033264E+0	1.014447E+0	9.558416E-1	1.011824E+0	1.015727E+0	1.013586E+0	9.958946E-1	9.854137E-1	1.003123E+0	9.687729E-1	1.027687E+0	9.777619E-1	9.675949E-1	9.788863E-1	9.845261E-1	1.048035E+0	9.860502E-1	9.765400E-1
5.427710E+2	1.106027E+0	1.061078E+0	1.085117E+0	1.077456E+0	1.083483E+0	1.080162E+0	1.062753E+0	1.190989E+0	1.034788E+0	1.090648E+0	1.103026E+0	1.080712E+0	1.130597E+0	1.090858E+0	1.092637E+0	1.095480E+0	1.102286E+0	1.115631E+0	1.091050E+0	1.077110E+0	1.080368E+0	1.058529E+0	1.072485E+0	1.085149E+0	1.102018E+0	1.142875E+0	1.096362E+0	1.110595E+0	1.129520E+0	1.065105E+0	1.086231E+0	1.096443E+0	1.128779E+0	1.111477E+0	1.072161E+0	1.066494E+0	1.076406E+0	1.091252E+0	1.099102E+0	1.090133E+0	1.104524E+0	1.087823E+0	1.099819E+0	1.080416E+0	1.081946E+0	1.066959E+0	1.083238E+0	1.117301E+0	1.110862E+0	1.101057E+0	1.094265E+0	1.087238E+0	1.155669E+0	1.121598E+0	1.086454E+0	1.084508E+0	1.107677E+0	1.060035E+0	1.052195E+0	1.097987E+0	1.100451E+0	1.095503E+0	1.058848E+0	1.046878E+0	1.092657E+0	1.107464E+0	1.114372E+0	1.070719E+0	1.075908E+0	1.043313E+0	1.124490E+0	1.138504E+0	1.101165E+0	1.131620E+0	1.084024E+0	1.094608E+0	1.120692E+0	1.089928E+0	1.080896E+0	1.092946E+0	1.086497E+0	1.105561E+0	1.072916E+0	1.037682E+0	1.119732E+0	1.091845E+0	1.054314E+0	1.116272E+0	1.096517E+0	1.116463E+0	1.115827E+0	1.102083E+0	1.120410E+0	1.117082E+0	1.121307E+0	1.061742E+0	1.068339E+0	1.098103E+0	1.084167E+0	1.070654E+0	1.101766E+0	1.097873E+0	1.067310E+0	1.121861E+0	1.036012E+0	1.082136E+0	1.078455E+0	1.090639E+0	1.100598E+0	1.089527E+0	1.030841E+0	1.088610E+0	1.081787E+0	1.112539E+0	1.080060E+0	1.110561E+0	1.131377E+0	1.037629E+0	1.101114E+0	1.070849E+0	1.078247E+0	1.078932E+0	1.123307E+0	1.082847E+0	1.106409E+0	1.106298E+0	1.109835E+0	1.087059E+0	1.129608E+0	1.094602E+0	1.113220E+0	1.112567E+0	1.070051E+0	1.075192E+0	1.036625E+0	1.126592E+0	1.097774E+0	1.089895E+0	1.081541E+0	1.066657E+0	1.079027E+0	1.138364E+0	1.061447E+0	1.092435E+0	1.046222E+0	1.046590E+0	1.104258E+0	1.054411E+0	1.070239E+0	1.110009E+0	1.051981E+0	1.091524E+0	1.104728E+0	1.093481E+0	1.069777E+0	1.105807E+0	1.126511E+0	1.044976E+0	1.068675E+0	1.106879E+0	1.079414E+0	1.096755E+0	1.135212E+0	1.077089E+0	1.114533E+0	1.092386E+0	1.075558E+0	1.084602E+0	1.089973E+0	1.093197E+0
5.430120E+2	1.211260E+0	1.266740E+0	1.259447E+0	1.281308E+0	1.192035E+0	1.214070E+0	1.250173E+0	1.214662E+0	1.197918E+0	1.252598E+0	1.240112E+0	1.279713E+0	1.236519E+0	1.237134E+0	1.305440E+0	1.183835E+0	1.239041E+0	1.259772E+0	1.243717E+0	1.222720E+0	1.185958E+0	1.213937E+0	1.267927E+0	1.262573E+0	1.191826E+0	1.237919E+0	1.239413E+0	1.246248E+0	1.247618E+0	1.250530E+0	1.216118E+0	1.229320E+0	1.252703E+0	1.221084E+0	1.208233E+0	1.238375E+0	1.175898E+0	1.258491E+0	1.309066E+0	1.251212E+0	1.288732E+0	1.240174E+0	1.229123E+0	1.225388E+0	1.156619E+0	1.223051E+0	1.230021E+0	1.211286E+0	1.266968E+0	1.282496E+0	1.197576E+0	1.190743E+0	1.301039E+0	1.259481E+0	1.201080E+0	1.225118E+0	1.242455E+0	1.275762E+0	1.193438E+0	1.227428E+0	1.270218E+0	1.210073E+0	1.238872E+0	1.235411E+0	1.205199E+0	1.251419E+0	1.223555E+0	1.270855E+0	1.202930E+0	1.238187E+0	1.235318E+0	1.180197E+0	1.223504E+0	1.202080E+0	1.234397E+0	1.170956E+0	1.254491E+0	1.229269E+0	1.224193E+0	1.193296E+0	1.286561E+0	1.212633E+0	1.215694E+0	1.219377E+0	1.275543E+0	1.175707E+0	1.210700E+0	1.265868E+0	1.208919E+0	1.210028E+0	1.225051E+0	1.219102E+0	1.251879E+0	1.251949E+0	1.267328E+0	1.191246E+0	1.236009E+0	1.175562E+0	1.251298E+0	1.240556E+0	1.271856E+0	1.204236E+0	1.270068E+0	1.267846E+0	1.255903E+0	1.211819E+0	1.224067E+0	1.217287E+0	1.289779E+0	1.236225E+0	1.209546E+0	1.245172E+0	1.218561E+0	1.252454E+0	1.235876E+0	1.207954E+0	1.255602E+0	1.237256E+0	1.282958E+0	1.247471E+0	1.221154E+0	1.212062E+0	1.229418E+0	1.215873E+0	1.238004E+0	1.261497E+0	1.226458E+0	1.226110E+0	1.243385E+0	1.201424E+0	1.219415E+0	1.242771E+0	1.217000E+0	1.207926E+0	1.207254E+0	1.242170E+0	1.167328E+0	1.225986E+0	1.232894E+0	1.293092E+0	1.263767E+0	1.289972E+0	1.244153E+0	1.221792E+0	1.222834E+0	1.313556E+0	1.262772E+0	1.221421E+0	1.266490E+0	1.216470E+0	1.247149E+0	1.217215E+0	1.188216E+0	1.246850E+0	1.235712E+0	1.245751E+0	1.274030E+0	1.199280E+0	1.210684E+0	1.244957E+0	1.260841E+0	1.287646E+0	1.281888E+0	1.268045E+0	1.200726E+0	1.186837E+0	1.245308E+0	1.319185E+0	1.210645E+0	1.268471E+0
5.433020E+2	1.433759E+0	1.410113E+0	1.409874E+0	1.433279E+0	1.510573E+0	1.410437E+0	1.434205E+0	1.462441E+0	1.392457E+0	1.410973E+0	1.450102E+0	1.419729E+0	1.444960E+0	1.419822E+0	1.507123E+0	1.468214E+0	1.413333E+0	1.434314E+0	1.432504E+0	1.421448E+0	1.456099E+0	1.424411E+0	1.480126E+0	1.443865E+0	1.450628E+0	1.474630E+0	1.394977E+0	1.397519E+0	1.472303E+0	1.435471E+0	1.414173E+0	1.410433E+0	1.408601E+0	1.452759E+0	1.441131E+0	1.439120E+0	1.403975E+0	1.425572E+0	1.468287E+0	1.455917E+0	1.438713E+0	1.434013E+0	1.446626E+0	1.454280E+0	1.385138E+0	1.461480E+0	1.388003E+0	1.415223E+0	1.409761E+0	1.425416E+0	1.394992E+0	1.385373E+0	1.465749E+0	1.426144E+0	1.455186E+0	1.455704E+0	1.426456E+0	1.506173E+0	1.413931E+0	1.470986E+0	1.456544E+0	1.426956E+0	1.408865E+0	1.373000E+0	1.400801E+0	1.407623E+0	1.463536E+0	1.469556E+0	1.343936E+0	1.453342E+0	1.413164E+0	1.465992E+0	1.429246E+0	1.468704E+0	1.416560E+0	1.447593E+0	1.463125E+0	1.416650E+0	1.455507E+0	1.427421E+0	1.386815E+0	1.436310E+0	1.443342E+0	1.436922E+0	1.424852E+0	1.444319E+0	1.409628E+0	1.469513E+0	1.390174E+0	1.423183E+0	1.418115E+0	1.421394E+0	1.395789E+0	1.437366E+0	1.458414E+0	1.428312E+0	1.432077E+0	1.364458E+0	1.425489E+0	1.370308E+0	1.418004E+0	1.451571E+0	1.372579E+0	1.486370E+0	1.442662E+0	1.422082E+0	1.407887E+0	1.468520E+0	1.450584E+0	1.400725E+0	1.406958E+0	1.406624E+0	1.435887E+0	1.417214E+0	1.395793E+0	1.454821E+0	1.450138E+0	1.423595E+0	1.378934E+0	1.401111E+0	1.378502E+0	1.382805E+0	1.439420E+0	1.444459E+0	1.488368E+0	1.398913E+0	1.429291E+0	1.385794E+0	1.456994E+0	1.437044E+0	1.414385E+0	1.447391E+0	1.452156E+0	1.447706E+0	1.399641E+0	1.413344E+0	1.386602E+0	1.418329E+0	1.437080E+0	1.429965E+0	1.415305E+0	1.421773E+0	1.368633E+0	1.347204E+0	1.441871E+0	1.372338E+0	1.478634E+0	1.400630E+0	1.441519E+0	1.377129E+0	1.436751E+0	1.395965E+0	1.415079E+0	1.424962E+0	1.434541E+0	1.494196E+0	1.496973E+0	1.401620E+0	1.388765E+0	1.446702E+0	1.441454E+0	1.387576E+0	1.452311E+0	1.428193E+0	1.451465E+0	1.359584E+0	1.427460E+0	1.460975E+0	1.435665E+0	1.444324E+0
5.435270E+2	1.527004E+0	1.516969E+0	1.541139E+0	1.565187E+0	1.527014E+0	1.565365E+0	1.522062E+0	1.520683E+0	1.533363E+0	1.589145E+0	1.576585E+0	1.615311E+0	1.526385E+0	1.508819E+0	1.551201E+0	1.549690E+0	1.551422E+0	1.503079E+0	1.553996E+0	1.589384E+0	1.516700E+0	1.556623E+0	1.591847E+0	1.600001E+0	1.566310E+0	1.520006E+0	1.565205E+0	1.530150E+0	1.586994E+0	1.632348E+0	1.578510E+0	1.563188E+0	1.583716E+0	1.526818E+0	1.532726E+0	1.514250E+0	1.495580E+0	1.514961E+0	1.588592E+0	1.572397E+0	1.543728E+0	1.537075E+0	1.566402E+0	1.502409E+0	1.501138E+0	1.478676E+0	1.562325E+0	1.547237E+0	1.575377E+0	1.574997E+0	1.568295E+0	1.559551E+0	1.571182E+0	1.609337E+0	1.533795E+0	1.570561E+0	1.529573E+0	1.569978E+0	1.495957E+0	1.565534E+0	1.562946E+0	1.573486E+0	1.541435E+0	1.477042E+0	1.515912E+0	1.529881E+0	1.556991E+0	1.578540E+0	1.523285E+0	1.516126E+0	1.542992E+0	1.601426E+0	1.599827E+0	1.537529E+0	1.535981E+0	1.515011E+0	1.598143E+0	1.540323E+0	1.566856E+0	1.501113E+0	1.629188E+0	1.528991E+0	1.528567E+0	1.522044E+0	1.565899E+0	1.535621E+0	1.550763E+0	1.589411E+0	1.573304E+0	1.519218E+0	1.550331E+0	1.575777E+0	1.582981E+0	1.583546E+0	1.575424E+0	1.546540E+0	1.507485E+0	1.494356E+0	1.531238E+0	1.538328E+0	1.560565E+0	1.472891E+0	1.544221E+0	1.590017E+0	1.531305E+0	1.556825E+0	1.540185E+0	1.560841E+0	1.537780E+0	1.620979E+0	1.562947E+0	1.498622E+0	1.561229E+0	1.574191E+0	1.510341E+0	1.557672E+0	1.569721E+0	1.557924E+0	1.566990E+0	1.526550E+0	1.490052E+0	1.476844E+0	1.547670E+0	1.556010E+0	1.540181E+0	1.546836E+0	1.535508E+0	1.531480E+0	1.540593E+0	1.547737E+0	1.504204E+0	1.482841E+0	1.536874E+0	1.538881E+0	1.502717E+0	1.559594E+0	1.543568E+0	1.543896E+0	1.561829E+0	1.560317E+0	1.557442E+0	1.503602E+0	1.542904E+0	1.472921E+0	1.482614E+0	1.538581E+0	1.561362E+0	1.560260E+0	1.517810E+0	1.492450E+0	1.524188E+0	1.471176E+0	1.514446E+0	1.544162E+0	1.550642E+0	1.543664E+0	1.488174E+0	1.574744E+0	1.473655E+0	1.551220E+0	1.569484E+0	1.510554E+0	1.558631E+0	1.515625E+0	1.534325E+0	1.525292E+0	1.566402E+0	1.576784E+0	1.542842E+0	1.628078E+0
5.437590E+2	1.704555E+0	1.650554E+0	1.625869E+0	1.664355E+0	1.653200E+0	1.639608E+0	1.634785E+0	1.711607E+0	1.639220E+0	1.652303E+0	1.661353E+0	1.690898E+0	1.717202E+0	1.620869E+0	1.674464E+0	1.672153E+0	1.655243E+0	1.686228E+0	1.645811E+0	1.624101E+0	1.618385E+0	1.687067E+0	1.616543E+0	1.703448E+0	1.595951E+0	1.716809E+0	1.626985E+0	1.663095E+0	1.649336E+0	1.658339E+0	1.676114E+0	1.613345E+0	1.648385E+0	1.686628E+0	1.560286E+0	1.602670E+0	1.618298E+0	1.615344E+0	1.713337E+0	1.663203E+0	1.668523E+0	1.608579E+0	1.665434E+0	1.655837E+0	1.606750E+0	1.616578E+0	1.688359E+0	1.644797E+0	1.670310E+0	1.610024E+0	1.691345E+0	1.670991E+0	1.707788E+0	1.619408E+0	1.611942E+0	1.629281E+0	1.586502E+0	1.633648E+0	1.661768E+0	1.688627E+0	1.686423E+0	1.651876E+0	1.681131E+0	1.663382E+0	1.642469E+0	1.611310E+0	1.652337E+0	1.617776E+0	1.635316E+0	1.623783E+0	1.625094E+0	1.656071E+0	1.644156E+0	1.639156E+0	1.631167E+0	1.652645E+0	1.681942E+0	1.666523E+0	1.637560E+0	1.656414E+0	1.696102E+0	1.719820E+0	1.656285E+0	1.651324E+0	1.668079E+0	1.665749E+0	1.574242E+0	1.691211E+0	1.630049E+0	1.642926E+0	1.665273E+0	1.599364E+0	1.695149E+0	1.596973E+0	1.680230E+0	1.692093E+0	1.620951E+0	1.638781E+0	1.689927E+0	1.676853E+0	1.668461E+0	1.599189E+0	1.574900E+0	1.749596E+0	1.604759E+0	1.607988E+0	1.665125E+0	1.644790E+0	1.620907E+0	1.637251E+0	1.640846E+0	1.626579E+0	1.628807E+0	1.687670E+0	1.634577E+0	1.689916E+0	1.688658E+0	1.646598E+0	1.663522E+0	1.624134E+0	1.619690E+0	1.643317E+0	1.613381E+0	1.606822E+0	1.673937E+0	1.632888E+0	1.710399E+0	1.707973E+0	1.636062E+0	1.648159E+0	1.614884E+0	1.664643E+0	1.599500E+0	1.607313E+0	1.619954E+0	1.641123E+0	1.583919E+0	1.637967E+0	1.604645E+0	1.669240E+0	1.676091E+0	1.621734E+0	1.668735E+0	1.573558E+0	1.653855E+0	1.612216E+0	1.655099E+0	1.645150E+0	1.572077E+0	1.640245E+0	1.672950E+0	1.657550E+0	1.581951E+0	1.673800E+0	1.607940E+0	1.635915E+0	1.630913E+0	1.608065E+0	1.617520E+0	1.628100E+0	1.642627E+0	1.647711E+0	1.616631E+0	1.631220E+0	1.675045E+0	1.593173E+0	1.630932E+0	1.689156E+0	1.561636E+0	1.686077E+0
5.440280E+2	1.729300E+0	1.704714E+0	1.641898E+0	1.657361E+0	1.726350E+0	1.736416E+0	1.722889E+0	1.705168E+0	1.634431E+0	1.618357E+0	1.671589E+0	1.706324E+0	1.657682E+0	1.761409E+0	1.761233E+0	1.667276E+0	1.698066E+0	1.779779E+0	1.747837E+0	1.682058E+0	1.719219E+0	1.671929E+0	1.709483E+0	1.641133E+0	1.701939E+0	1.691109E+0	1.633051E+0	1.682091E+0	1.786555E+0	1.690823E+0	1.698470E+0	1.659220E+0	1.708125E+0	1.721582E+0	1.659078E+0	1.643472E+0	1.665505E+0	1.592717E+0	1.702034E+0	1.706103E+0	1.753119E+0	1.684531E+0	1.638650E+0	1.703131E+0	1.719358E+0	1.700072E+0	1.724377E+0	1.669164E+0	1.661628E+0	1.703605E+0	1.666446E+0	1.626369E+0	1.699681E+0	1.704273E+0	1.697142E+0	1.711013E+0	1.632026E+0	1.680137E+0	1.678206E+0	1.729119E+0	1.742190E+0	1.662003E+0	1.619622E+0	1.606379E+0	1.662634E+0	1.750173E+0	1.721489E+0	1.670384E+0	1.593581E+0	1.700025E+0	1.654344E+0	1.672579E+0	1.676491E+0	1.677884E+0	1.660416E+0	1.734412E+0	1.675653E+0	1.710191E+0	1.670103E+0	1.668498E+0	1.681196E+0	1.672868E+0	1.674361E+0	1.650771E+0	1.689178E+0	1.639523E+0	1.719847E+0	1.658613E+0	1.709971E+0	1.739265E+0	1.638516E+0	1.622270E+0	1.720608E+0	1.693917E+0	1.707962E+0	1.702663E+0	1.634816E+0	1.670122E+0	1.717560E+0	1.739274E+0	1.683127E+0	1.700577E+0	1.644807E+0	1.696168E+0	1.690619E+0	1.658248E+0	1.733633E+0	1.705069E+0	1.655701E+0	1.653589E+0	1.644040E+0	1.645622E+0	1.692017E+0	1.726537E+0	1.699325E+0	1.649128E+0	1.676731E+0	1.696726E+0	1.685400E+0	1.690356E+0	1.627680E+0	1.654904E+0	1.675802E+0	1.651780E+0	1.756293E+0	1.713614E+0	1.635205E+0	1.710582E+0	1.679208E+0	1.597398E+0	1.681854E+0	1.650694E+0	1.666380E+0	1.659471E+0	1.633693E+0	1.624604E+0	1.616037E+0	1.683244E+0	1.694222E+0	1.694727E+0	1.675010E+0	1.629996E+0	1.682707E+0	1.649470E+0	1.613203E+0	1.688834E+0	1.663492E+0	1.642109E+0	1.685702E+0	1.677584E+0	1.649931E+0	1.614541E+0	1.645873E+0	1.632646E+0	1.610199E+0	1.649273E+0	1.643087E+0	1.676068E+0	1.618017E+0	1.735252E+0	1.672937E+0	1.657891E+0	1.673570E+0	1.658273E+0	1.665026E+0	1.651510E+0	1.645868E+0	1.705550E+0	1.630989E+0	1.714401E+0
5.442650E+2	1.728053E+0	1.678437E+0	1.724062E+0	1.762669E+0	1.655597E+0	1.681922E+0	1.683203E+0	1.690501E+0	1.683528E+0	1.715343E+0	1.687988E+0	1.696685E+0	1.696372E+0	1.704401E+0	1.783176E+0	1.707518E+0	1.708033E+0	1.677004E+0	1.759395E+0	1.699800E+0	1.704703E+0	1.740663E+0	1.759981E+0	1.675625E+0	1.644945E+0	1.735492E+0	1.694237E+0	1.632494E+0	1.765378E+0	1.648692E+0	1.670940E+0	1.627516E+0	1.660845E+0	1.744393E+0	1.624907E+0	1.736813E+0	1.660615E+0	1.673231E+0	1.745977E+0	1.603883E+0	1.674264E+0	1.678662E+0	1.731717E+0	1.690914E+0	1.690799E+0	1.628952E+0	1.650518E+0	1.684105E+0	1.706042E+0	1.692332E+0	1.707073E+0	1.616544E+0	1.674969E+0	1.671432E+0	1.705023E+0	1.640792E+0	1.678129E+0	1.710572E+0	1.680019E+0	1.665027E+0	1.739922E+0	1.636046E+0	1.670719E+0	1.624148E+0	1.695750E+0	1.718003E+0	1.657686E+0	1.713478E+0	1.593343E+0	1.646925E+0	1.752344E+0	1.685842E+0	1.699096E+0	1.660747E+0	1.628333E+0	1.710143E+0	1.724254E+0	1.680261E+0	1.711772E+0	1.657947E+0	1.679794E+0	1.708213E+0	1.659713E+0	1.682102E+0	1.698897E+0	1.623360E+0	1.571623E+0	1.739807E+0	1.590378E+0	1.689875E+0	1.712418E+0	1.677626E+0	1.737565E+0	1.647567E+0	1.743684E+0	1.652581E+0	1.672749E+0	1.707467E+0	1.708848E+0	1.677406E+0	1.678825E+0	1.698833E+0	1.604305E+0	1.730769E+0	1.611860E+0	1.687606E+0	1.621426E+0	1.727655E+0	1.651674E+0	1.678281E+0	1.596335E+0	1.670765E+0	1.726219E+0	1.657275E+0	1.661135E+0	1.743388E+0	1.677049E+0	1.652948E+0	1.650927E+0	1.659538E+0	1.660540E+0	1.627642E+0	1.646494E+0	1.667032E+0	1.684109E+0	1.606550E+0	1.706215E+0	1.675252E+0	1.682447E+0	1.670389E+0	1.618015E+0	1.642944E+0	1.663152E+0	1.653593E+0	1.614043E+0	1.719136E+0	1.610862E+0	1.680692E+0	1.694985E+0	1.729392E+0	1.708052E+0	1.670048E+0	1.656328E+0	1.589247E+0	1.669393E+0	1.669040E+0	1.685136E+0	1.651096E+0	1.652244E+0	1.655761E+0	1.596580E+0	1.683926E+0	1.689474E+0	1.620755E+0	1.619266E+0	1.684134E+0	1.675205E+0	1.620290E+0	1.660356E+0	1.598410E+0	1.799331E+0	1.640970E+0	1.685267E+0	1.649867E+0	1.680480E+0	1.659621E+0	1.674442E+0	1.758438E+0	1.645852E+0	1.471250E+0
5.445240E+2	1.668518E+0	1.707616E+0	1.638867E+0	1.702462E+0	1.710680E+0	1.689279E+0	1.697829E+0	1.680408E+0	1.639186E+0	1.639032E+0	1.668365E+0	1.663444E+0	1.734436E+0	1.682578E+0	1.689149E+0	1.641927E+0	1.627889E+0	1.695481E+0	1.702103E+0	1.616149E+0	1.668755E+0	1.717855E+0	1.703413E+0	1.693379E+0	1.649507E+0	1.675219E+0	1.645094E+0	1.692071E+0	1.714130E+0	1.700084E+0	1.674301E+0	1.623289E+0	1.626185E+0	1.672641E+0	1.655669E+0	1.639709E+0	1.673167E+0	1.628904E+0	1.657270E+0	1.613666E+0	1.731833E+0	1.633638E+0	1.646343E+0	1.662583E+0	1.699802E+0	1.635932E+0	1.640644E+0	1.674090E+0	1.728918E+0	1.686723E+0	1.591438E+0	1.661855E+0	1.674377E+0	1.671741E+0	1.669698E+0	1.593529E+0	1.656546E+0	1.707659E+0	1.635297E+0	1.660560E+0	1.660016E+0	1.699627E+0	1.589899E+0	1.586625E+0	1.672837E+0	1.628054E+0	1.638857E+0	1.669266E+0	1.634475E+0	1.616185E+0	1.682998E+0	1.623742E+0	1.723312E+0	1.661106E+0	1.674567E+0	1.649263E+0	1.717086E+0	1.598329E+0	1.646445E+0	1.613611E+0	1.644106E+0	1.638425E+0	1.668390E+0	1.626912E+0	1.709635E+0	1.634417E+0	1.623277E+0	1.678335E+0	1.641460E+0	1.626987E+0	1.696059E+0	1.562017E+0	1.685205E+0	1.700321E+0	1.623177E+0	1.612274E+0	1.683339E+0	1.570121E+0	1.717538E+0	1.649522E+0	1.693913E+0	1.655603E+0	1.666077E+0	1.719870E+0	1.594316E+0	1.648857E+0	1.606801E+0	1.633145E+0	1.594414E+0	1.630770E+0	1.597802E+0	1.635681E+0	1.680417E+0	1.608174E+0	1.658493E+0	1.642470E+0	1.630104E+0	1.631296E+0	1.703335E+0	1.657519E+0	1.614523E+0	1.638808E+0	1.648289E+0	1.661926E+0	1.686401E+0	1.670963E+0	1.661123E+0	1.596604E+0	1.659129E+0	1.628457E+0	1.626611E+0	1.625639E+0	1.621472E+0	1.636744E+0	1.627829E+0	1.707147E+0	1.704239E+0	1.638601E+0	1.583440E+0	1.607076E+0	1.671734E+0	1.673423E+0	1.617796E+0	1.575206E+0	1.605048E+0	1.611646E+0	1.686324E+0	1.634107E+0	1.620288E+0	1.665274E+0	1.636295E+0	1.572063E+0	1.682444E+0	1.648130E+0	1.602878E+0	1.622840E+0	1.611915E+0	1.586771E+0	1.629779E+0	1.673591E+0	1.651295E+0	1.653125E+0	1.637036E+0	1.612394E+0	1.599623E+0	1.631316E+0	1.636004E+0	1.744622E+0	1.656587E+0	1.648502E+0
5.447660E+2	1.582292E+0	1.580225E+0	1.529101E+0	1.566237E+0	1.594897E+0	1.589175E+0	1.631038E+0	1.581106E+0	1.589717E+0	1.553038E+0	1.550084E+0	1.564452E+0	1.612848E+0	1.577531E+0	1.604027E+0	1.551923E+0	1.579870E+0	1.585067E+0	1.616339E+0	1.555682E+0	1.562443E+0	1.585191E+0	1.585012E+0	1.535988E+0	1.579676E+0	1.576993E+0	1.533391E+0	1.617836E+0	1.617918E+0	1.524282E+0	1.562910E+0	1.563444E+0	1.643722E+0	1.588100E+0	1.579749E+0	1.579857E+0	1.501512E+0	1.519886E+0	1.563033E+0	1.594321E+0	1.555625E+0	1.560872E+0	1.546957E+0	1.583338E+0	1.559924E+0	1.514372E+0	1.576427E+0	1.517531E+0	1.640067E+0	1.592657E+0	1.610473E+0	1.589567E+0	1.599415E+0	1.564378E+0	1.586624E+0	1.501572E+0	1.560767E+0	1.576162E+0	1.565522E+0	1.536055E+0	1.600110E+0	1.565542E+0	1.509469E+0	1.560313E+0	1.550133E+0	1.548178E+0	1.584305E+0	1.568086E+0	1.519453E+0	1.599471E+0	1.537063E+0	1.488623E+0	1.536977E+0	1.569022E+0	1.609477E+0	1.568162E+0	1.546642E+0	1.586911E+0	1.530257E+0	1.539469E+0	1.661052E+0	1.531524E+0	1.537427E+0	1.488029E+0	1.591608E+0	1.576937E+0	1.500174E+0	1.531338E+0	1.541244E+0	1.528559E+0	1.575993E+0	1.487712E+0	1.588512E+0	1.566686E+0	1.560350E+0	1.511131E+0	1.553700E+0	1.560633E+0	1.585608E+0	1.548455E+0	1.596809E+0	1.507710E+0	1.538253E+0	1.569513E+0	1.548975E+0	1.545906E+0	1.590044E+0	1.551009E+0	1.543670E+0	1.522749E+0	1.549253E+0	1.602679E+0	1.527027E+0	1.588654E+0	1.524366E+0	1.496061E+0	1.627113E+0	1.566089E+0	1.531298E+0	1.562366E+0	1.540575E+0	1.567654E+0	1.613567E+0	1.528707E+0	1.626288E+0	1.534741E+0	1.570239E+0	1.517306E+0	1.545800E+0	1.548805E+0	1.492039E+0	1.567122E+0	1.562222E+0	1.555313E+0	1.516619E+0	1.568411E+0	1.542569E+0	1.602639E+0	1.466127E+0	1.581805E+0	1.535212E+0	1.566426E+0	1.529627E+0	1.498729E+0	1.597375E+0	1.576099E+0	1.555699E+0	1.595399E+0	1.580273E+0	1.554641E+0	1.517617E+0	1.602836E+0	1.500194E+0	1.532070E+0	1.607127E+0	1.546833E+0	1.565936E+0	1.504351E+0	1.530216E+0	1.516228E+0	1.625390E+0	1.568905E+0	1.564466E+0	1.528501E+0	1.514133E+0	1.557008E+0	1.495070E+0	1.646261E+0	1.541448E+0	1.446672E+0
5.450200E+2	1.469790E+0	1.445908E+0	1.436574E+0	1.456325E+0	1.427722E+0	1.483515E+0	1.443102E+0	1.436439E+0	1.439000E+0	1.456236E+0	1.402675E+0	1.468275E+0	1.477755E+0	1.442509E+0	1.491393E+0	1.436605E+0	1.456027E+0	1.462861E+0	1.418941E+0	1.461773E+0	1.461546E+0	1.457971E+0	1.439325E+0	1.432731E+0	1.492122E+0	1.469813E+0	1.393857E+0	1.436772E+0	1.469869E+0	1.424751E+0	1.462532E+0	1.449608E+0	1.417636E+0	1.468113E+0	1.434769E+0	1.442583E+0	1.436214E+0	1.405667E+0	1.471114E+0	1.444176E+0	1.486394E+0	1.481929E+0	1.442842E+0	1.416650E+0	1.428560E+0	1.413964E+0	1.446015E+0	1.415928E+0	1.465206E+0	1.429500E+0	1.459829E+0	1.391684E+0	1.475209E+0	1.455081E+0	1.433118E+0	1.436727E+0	1.424463E+0	1.448744E+0	1.463419E+0	1.441530E+0	1.474920E+0	1.494639E+0	1.483151E+0	1.378421E+0	1.437838E+0	1.469295E+0	1.422811E+0	1.394769E+0	1.437629E+0	1.404939E+0	1.400031E+0	1.419702E+0	1.451962E+0	1.442187E+0	1.419006E+0	1.425442E+0	1.461796E+0	1.423064E+0	1.481985E+0	1.429264E+0	1.419366E+0	1.415295E+0	1.429317E+0	1.388572E+0	1.475689E+0	1.451066E+0	1.367686E+0	1.407557E+0	1.450639E+0	1.485967E+0	1.493550E+0	1.434840E+0	1.499870E+0	1.419546E+0	1.454360E+0	1.390896E+0	1.423293E+0	1.412336E+0	1.472742E+0	1.449055E+0	1.490365E+0	1.434779E+0	1.444353E+0	1.456192E+0	1.430412E+0	1.446583E+0	1.420684E+0	1.429141E+0	1.426454E+0	1.450146E+0	1.454320E+0	1.458167E+0	1.375870E+0	1.421485E+0	1.383714E+0	1.475491E+0	1.436958E+0	1.445263E+0	1.429971E+0	1.468029E+0	1.435449E+0	1.451291E+0	1.399735E+0	1.439295E+0	1.461528E+0	1.466984E+0	1.390683E+0	1.427101E+0	1.394477E+0	1.400371E+0	1.385298E+0	1.470008E+0	1.395801E+0	1.476061E+0	1.400832E+0	1.446388E+0	1.469790E+0	1.429343E+0	1.477476E+0	1.445373E+0	1.384476E+0	1.508254E+0	1.463734E+0	1.392437E+0	1.417417E+0	1.376734E+0	1.482950E+0	1.442757E+0	1.406127E+0	1.446115E+0	1.427146E+0	1.424906E+0	1.448999E+0	1.419070E+0	1.458737E+0	1.409046E+0	1.370369E+0	1.438189E+0	1.392499E+0	1.434948E+0	1.462202E+0	1.422338E+0	1.439339E+0	1.463473E+0	1.439908E+0	1.411317E+0	1.424587E+0	1.506466E+0	1.467400E+0	1.421107E+0
5.452690E+2	1.388356E+0	1.391137E+0	1.334764E+0	1.408256E+0	1.318460E+0	1.381610E+0	1.358089E+0	1.373610E+0	1.358865E+0	1.359739E+0	1.371330E+0	1.369851E+0	1.393718E+0	1.356226E+0	1.366868E+0	1.343858E+0	1.333191E+0	1.374486E+0	1.397768E+0	1.319003E+0	1.383190E+0	1.408423E+0	1.406809E+0	1.351604E+0	1.384344E+0	1.384662E+0	1.346573E+0	1.325273E+0	1.413687E+0	1.351817E+0	1.385589E+0	1.349406E+0	1.368240E+0	1.403124E+0	1.268005E+0	1.343060E+0	1.329684E+0	1.338288E+0	1.344321E+0	1.350639E+0	1.351600E+0	1.334467E+0	1.383032E+0	1.397234E+0	1.360919E+0	1.285312E+0	1.360816E+0	1.399446E+0	1.449627E+0	1.403354E+0	1.443464E+0	1.348875E+0	1.408180E+0	1.384384E+0	1.362549E+0	1.339878E+0	1.357679E+0	1.377529E+0	1.413629E+0	1.328314E+0	1.383274E+0	1.397022E+0	1.346510E+0	1.339104E+0	1.351086E+0	1.397751E+0	1.323883E+0	1.365820E+0	1.329765E+0	1.347026E+0	1.376842E+0	1.388894E+0	1.395417E+0	1.416782E+0	1.391258E+0	1.313234E+0	1.440817E+0	1.378611E+0	1.387070E+0	1.319547E+0	1.381112E+0	1.360958E+0	1.346762E+0	1.302034E+0	1.356653E+0	1.344419E+0	1.335443E+0	1.376030E+0	1.326602E+0	1.353924E+0	1.393882E+0	1.373951E+0	1.426166E+0	1.347290E+0	1.343430E+0	1.339501E+0	1.382502E+0	1.330505E+0	1.311308E+0	1.360411E+0	1.431597E+0	1.383627E+0	1.351741E+0	1.341925E+0	1.376718E+0	1.366737E+0	1.386498E+0	1.335795E+0	1.386826E+0	1.368732E+0	1.396610E+0	1.323991E+0	1.380110E+0	1.389030E+0	1.364691E+0	1.355393E+0	1.344300E+0	1.333406E+0	1.358331E+0	1.350065E+0	1.380606E+0	1.360995E+0	1.386517E+0	1.321379E+0	1.362190E+0	1.288259E+0	1.352484E+0	1.323354E+0	1.377635E+0	1.354338E+0	1.322194E+0	1.309441E+0	1.370023E+0	1.364706E+0	1.331722E+0	1.364841E+0	1.324844E+0	1.370122E+0	1.404520E+0	1.338136E+0	1.358764E+0	1.376885E+0	1.341433E+0	1.372460E+0	1.365274E+0	1.382248E+0	1.405282E+0	1.351680E+0	1.384706E+0	1.335785E+0	1.398893E+0	1.351650E+0	1.429584E+0	1.379058E+0	1.357600E+0	1.317734E+0	1.337834E+0	1.360495E+0	1.323868E+0	1.405270E+0	1.383394E+0	1.335546E+0	1.360213E+0	1.321092E+0	1.336728E+0	1.344286E+0	1.353036E+0	1.440127E+0	1.349666E+0	1.376029E+0
5.455390E+2	1.300512E+0	1.281200E+0	1.257241E+0	1.323057E+0	1.327892E+0	1.301052E+0	1.289734E+0	1.257488E+0	1.277508E+0	1.293725E+0	1.301399E+0	1.261693E+0	1.347907E+0	1.318521E+0	1.277603E+0	1.267336E+0	1.315273E+0	1.319740E+0	1.316952E+0	1.273932E+0	1.326660E+0	1.273856E+0	1.298781E+0	1.291401E+0	1.338939E+0	1.361329E+0	1.286315E+0	1.281180E+0	1.353377E+0	1.317588E+0	1.286650E+0	1.279205E+0	1.298813E+0	1.295640E+0	1.286427E+0	1.272649E+0	1.281013E+0	1.282155E+0	1.301481E+0	1.290874E+0	1.281788E+0	1.252607E+0	1.295347E+0	1.301787E+0	1.297895E+0	1.261390E+0	1.323473E+0	1.289024E+0	1.310252E+0	1.229856E+0	1.263171E+0	1.301714E+0	1.321516E+0	1.270796E+0	1.254681E+0	1.232416E+0	1.332243E+0	1.295073E+0	1.275245E+0	1.274150E+0	1.310970E+0	1.275990E+0	1.294603E+0	1.305259E+0	1.278705E+0	1.324765E+0	1.334951E+0	1.266090E+0	1.255288E+0	1.260995E+0	1.323155E+0	1.228049E+0	1.316576E+0	1.239831E+0	1.269753E+0	1.276172E+0	1.250395E+0	1.327015E+0	1.230132E+0	1.311428E+0	1.296817E+0	1.269209E+0	1.297943E+0	1.249055E+0	1.315364E+0	1.274266E+0	1.265024E+0	1.287656E+0	1.247790E+0	1.295221E+0	1.320390E+0	1.291722E+0	1.413761E+0	1.247616E+0	1.280911E+0	1.286559E+0	1.322605E+0	1.222766E+0	1.286773E+0	1.283844E+0	1.294478E+0	1.272458E+0	1.288285E+0	1.262024E+0	1.335262E+0	1.301120E+0	1.277583E+0	1.360236E+0	1.294209E+0	1.246059E+0	1.315332E+0	1.279733E+0	1.318733E+0	1.268137E+0	1.279131E+0	1.279625E+0	1.296595E+0	1.293703E+0	1.256438E+0	1.280410E+0	1.252120E+0	1.275414E+0	1.253341E+0	1.334835E+0	1.373099E+0	1.265507E+0	1.291664E+0	1.292188E+0	1.261943E+0	1.277594E+0	1.280954E+0	1.246710E+0	1.347692E+0	1.308680E+0	1.286572E+0	1.264931E+0	1.299586E+0	1.279884E+0	1.321750E+0	1.309400E+0	1.303740E+0	1.256719E+0	1.291222E+0	1.320309E+0	1.335602E+0	1.298871E+0	1.291964E+0	1.257508E+0	1.301345E+0	1.348192E+0	1.265609E+0	1.276886E+0	1.301414E+0	1.309310E+0	1.276512E+0	1.273112E+0	1.259212E+0	1.322610E+0	1.240059E+0	1.267953E+0	1.266468E+0	1.252938E+0	1.280286E+0	1.297103E+0	1.228100E+0	1.249973E+0	1.270693E+0	1.306742E+0	1.325378E+0	1.319034E+0
5.457780E+2	1.260983E+0	1.264009E+0	1.233793E+0	1.267828E+0	1.232740E+0	1.253896E+0	1.286600E+0	1.223449E+0	1.279460E+0	1.233677E+0	1.259413E+0	1.217740E+0	1.264097E+0	1.299582E+0	1.223490E+0	1.262521E+0	1.301340E+0	1.300740E+0	1.287419E+0	1.236201E+0	1.281186E+0	1.255019E+0	1.227002E+0	1.304420E+0	1.259596E+0	1.270870E+0	1.290910E+0	1.251289E+0	1.327438E+0	1.239893E+0	1.264974E+0	1.243130E+0	1.319094E+0	1.259340E+0	1.211217E+0	1.285354E+0	1.233099E+0	1.227918E+0	1.266896E+0	1.276408E+0	1.226620E+0	1.272807E+0	1.243860E+0	1.276521E+0	1.257782E+0	1.233948E+0	1.256588E+0	1.259678E+0	1.323550E+0	1.276967E+0	1.309036E+0	1.237789E+0	1.255808E+0	1.304593E+0	1.268683E+0	1.250284E+0	1.284240E+0	1.249559E+0	1.230273E+0	1.203496E+0	1.315843E+0	1.238621E+0	1.224013E+0	1.287341E+0	1.207293E+0	1.291800E+0	1.210885E+0	1.276518E+0	1.251272E+0	1.282160E+0	1.240935E+0	1.319016E+0	1.262818E+0	1.267889E+0	1.269606E+0	1.241398E+0	1.258451E+0	1.200200E+0	1.278648E+0	1.308366E+0	1.315232E+0	1.271881E+0	1.260888E+0	1.256268E+0	1.272259E+0	1.229981E+0	1.218009E+0	1.276065E+0	1.266546E+0	1.337243E+0	1.320769E+0	1.237333E+0	1.334186E+0	1.298760E+0	1.322797E+0	1.255180E+0	1.289400E+0	1.254799E+0	1.243822E+0	1.236219E+0	1.294108E+0	1.221709E+0	1.239035E+0	1.250520E+0	1.289231E+0	1.262902E+0	1.299820E+0	1.232802E+0	1.286322E+0	1.249518E+0	1.243563E+0	1.314759E+0	1.261706E+0	1.229762E+0	1.266121E+0	1.261503E+0	1.271612E+0	1.269261E+0	1.257070E+0	1.244282E+0	1.210129E+0	1.219593E+0	1.290830E+0	1.289988E+0	1.242428E+0	1.236466E+0	1.218032E+0	1.228782E+0	1.214045E+0	1.286160E+0	1.257806E+0	1.242361E+0	1.266031E+0	1.263550E+0	1.245671E+0	1.266165E+0	1.217876E+0	1.315738E+0	1.219252E+0	1.308182E+0	1.270147E+0	1.300043E+0	1.254644E+0	1.222587E+0	1.239791E+0	1.256218E+0	1.270010E+0	1.281301E+0	1.269880E+0	1.206987E+0	1.253633E+0	1.281723E+0	1.259171E+0	1.253405E+0	1.236026E+0	1.218430E+0	1.258045E+0	1.261950E+0	1.241265E+0	1.283547E+0	1.380338E+0	1.225089E+0	1.252261E+0	1.231277E+0	1.255811E+0	1.246874E+0	1.216469E+0	1.291318E+0	1.271334E+0	1.237935E+0
5.460110E+2	1.295862E+0	1.271170E+0	1.202400E+0	1.239211E+0	1.215509E+0	1.237701E+0	1.240935E+0	1.263803E+0	1.279034E+0	1.252468E+0	1.261877E+0	1.286957E+0	1.248820E+0	1.278742E+0	1.242119E+0	1.243221E+0	1.303185E+0	1.267701E+0	1.300831E+0	1.234000E+0	1.259815E+0	1.248971E+0	1.308630E+0	1.246034E+0	1.268315E+0	1.274017E+0	1.244580E+0	1.240899E+0	1.318857E+0	1.278464E+0	1.242425E+0	1.255832E+0	1.259566E+0	1.261223E+0	1.238749E+0	1.238738E+0	1.211439E+0	1.273977E+0	1.229884E+0	1.268849E+0	1.268536E+0	1.266050E+0	1.278138E+0	1.254312E+0	1.266345E+0	1.238212E+0	1.255189E+0	1.243106E+0	1.278115E+0	1.249768E+0	1.253473E+0	1.247579E+0	1.263247E+0	1.256224E+0	1.259572E+0	1.221180E+0	1.238934E+0	1.265241E+0	1.242736E+0	1.241610E+0	1.323618E+0	1.250043E+0	1.322078E+0	1.218430E+0	1.222125E+0	1.203779E+0	1.260429E+0	1.238272E+0	1.246822E+0	1.247104E+0	1.269797E+0	1.256090E+0	1.300620E+0	1.278798E+0	1.180624E+0	1.299675E+0	1.259496E+0	1.251005E+0	1.190089E+0	1.242265E+0	1.281794E+0	1.205453E+0	1.278759E+0	1.292377E+0	1.242690E+0	1.231927E+0	1.263796E+0	1.274854E+0	1.217543E+0	1.238524E+0	1.252210E+0	1.223601E+0	1.280824E+0	1.295677E+0	1.241522E+0	1.235382E+0	1.230373E+0	1.200549E+0	1.241786E+0	1.279038E+0	1.229667E+0	1.216339E+0	1.256649E+0	1.251457E+0	1.256924E+0	1.246561E+0	1.284191E+0	1.221876E+0	1.267801E+0	1.267589E+0	1.222210E+0	1.208882E+0	1.258821E+0	1.279332E+0	1.191089E+0	1.194147E+0	1.337775E+0	1.252969E+0	1.250181E+0	1.201019E+0	1.225780E+0	1.232257E+0	1.231200E+0	1.229188E+0	1.299230E+0	1.262330E+0	1.264892E+0	1.245650E+0	1.218624E+0	1.147023E+0	1.239792E+0	1.238188E+0	1.184847E+0	1.270479E+0	1.236051E+0	1.221811E+0	1.265897E+0	1.204564E+0	1.259204E+0	1.243606E+0	1.230772E+0	1.211539E+0	1.227375E+0	1.239769E+0	1.221448E+0	1.254617E+0	1.266153E+0	1.238743E+0	1.235260E+0	1.221340E+0	1.274703E+0	1.243626E+0	1.240885E+0	1.288519E+0	1.235177E+0	1.264043E+0	1.325068E+0	1.259684E+0	1.218315E+0	1.232632E+0	1.288168E+0	1.209758E+0	1.231964E+0	1.264230E+0	1.198025E+0	1.232300E+0	1.244005E+0	1.250778E+0	1.188211E+0	1.212347E+0
5.467600E+2	1.315262E+0	1.337207E+0	1.308783E+0	1.313413E+0	1.309471E+0	1.327565E+0	1.279666E+0	1.318821E+0	1.322228E+0	1.272386E+0	1.375009E+0	1.295053E+0	1.323048E+0	1.361144E+0	1.337018E+0	1.334254E+0	1.349213E+0	1.319939E+0	1.295873E+0	1.243795E+0	1.326291E+0	1.322494E+0	1.352933E+0	1.327459E+0	1.311613E+0	1.332009E+0	1.343925E+0	1.320345E+0	1.285169E+0	1.341351E+0	1.339316E+0	1.322861E+0	1.323421E+0	1.332732E+0	1.272475E+0	1.333299E+0	1.345781E+0	1.325956E+0	1.351090E+0	1.333213E+0	1.321285E+0	1.352321E+0	1.355945E+0	1.249787E+0	1.286184E+0	1.351707E+0	1.317849E+0	1.306874E+0	1.321436E+0	1.316701E+0	1.309959E+0	1.369801E+0	1.365373E+0	1.333780E+0	1.323093E+0	1.260516E+0	1.314512E+0	1.405643E+0	1.297818E+0	1.326777E+0	1.326627E+0	1.343067E+0	1.268858E+0	1.341928E+0	1.293949E+0	1.332651E+0	1.335617E+0	1.319830E+0	1.286576E+0	1.304573E+0	1.299924E+0	1.302770E+0	1.291974E+0	1.297320E+0	1.332961E+0	1.287876E+0	1.369351E+0	1.362142E+0	1.293141E+0	1.229578E+0	1.365366E+0	1.303267E+0	1.318063E+0	1.287335E+0	1.350851E+0	1.276940E+0	1.358337E+0	1.284003E+0	1.322596E+0	1.341238E+0	1.344517E+0	1.328895E+0	1.317207E+0	1.386239E+0	1.299374E+0	1.337734E+0	1.346800E+0	1.297991E+0	1.346375E+0	1.274776E+0	1.344792E+0	1.309704E+0	1.273832E+0	1.343320E+0	1.314336E+0	1.320335E+0	1.319593E+0	1.326317E+0	1.328436E+0	1.306922E+0	1.279667E+0	1.310091E+0	1.324815E+0	1.315519E+0	1.336859E+0	1.321449E+0	1.352197E+0	1.343724E+0	1.330560E+0	1.298878E+0	1.266804E+0	1.281953E+0	1.256267E+0	1.296467E+0	1.378790E+0	1.375814E+0	1.318993E+0	1.331608E+0	1.345806E+0	1.325398E+0	1.307558E+0	1.340555E+0	1.314022E+0	1.396023E+0	1.322750E+0	1.262453E+0	1.351787E+0	1.334043E+0	1.361303E+0	1.302497E+0	1.305076E+0	1.307556E+0	1.356027E+0	1.237858E+0	1.319130E+0	1.299556E+0	1.362809E+0	1.310853E+0	1.318481E+0	1.316520E+0	1.298865E+0	1.306827E+0	1.294220E+0	1.291646E+0	1.307195E+0	1.318818E+0	1.306419E+0	1.318932E+0	1.308995E+0	1.322312E+0	1.360420E+0	1.332128E+0	1.302423E+0	1.341551E+0	1.267989E+0	1.290555E+0	1.331559E+0	1.258415E+0	1.316850E+0	1.368782E+0
5.475070E+2	1.451232E+0	1.427632E+0	1.358055E+0	1.393113E+0	1.366521E+0	1.423975E+0	1.409621E+0	1.469898E+0	1.345224E+0	1.353201E+0	1.384244E+0	1.361968E+0	1.385239E+0	1.404000E+0	1.414224E+0	1.387045E+0	1.386009E+0	1.439064E+0	1.423400E+0	1.349915E+0	1.396245E+0	1.384645E+0	1.447946E+0	1.422649E+0	1.353284E+0	1.444517E+0	1.401516E+0	1.426509E+0	1.399854E+0	1.386462E+0	1.421119E+0	1.404687E+0	1.448350E+0	1.482021E+0	1.376073E+0	1.349259E+0	1.356565E+0	1.379149E+0	1.413693E+0	1.396348E+0	1.422061E+0	1.360226E+0	1.436858E+0	1.339284E+0	1.370964E+0	1.407788E+0	1.416280E+0	1.396188E+0	1.459380E+0	1.362815E+0	1.456918E+0	1.369716E+0	1.367360E+0	1.441959E+0	1.405666E+0	1.378781E+0	1.418857E+0	1.453790E+0	1.394864E+0	1.358418E+0	1.412968E+0	1.462643E+0	1.416006E+0	1.368204E+0	1.317909E+0	1.391925E+0	1.388969E+0	1.393514E+0	1.338501E+0	1.381694E+0	1.407870E+0	1.450944E+0	1.398149E+0	1.377087E+0	1.381750E+0	1.441041E+0	1.397719E+0	1.386059E+0	1.436982E+0	1.418152E+0	1.399040E+0	1.369040E+0	1.420940E+0	1.333090E+0	1.398263E+0	1.344720E+0	1.346196E+0	1.423560E+0	1.364943E+0	1.380878E+0	1.364709E+0	1.364587E+0	1.389487E+0	1.484849E+0	1.384325E+0	1.381196E+0	1.378573E+0	1.376474E+0	1.332753E+0	1.378623E+0	1.404084E+0	1.376184E+0	1.432380E+0	1.393013E+0	1.384842E+0	1.333369E+0	1.412912E+0	1.380100E+0	1.368272E+0	1.403871E+0	1.447108E+0	1.441600E+0	1.425315E+0	1.433676E+0	1.443083E+0	1.384923E+0	1.451135E+0	1.318856E+0	1.332548E+0	1.406091E+0	1.375624E+0	1.411240E+0	1.395715E+0	1.364978E+0	1.426997E+0	1.370985E+0	1.439280E+0	1.397823E+0	1.366652E+0	1.392610E+0	1.351851E+0	1.445086E+0	1.368007E+0	1.400166E+0	1.404610E+0	1.318113E+0	1.395200E+0	1.385957E+0	1.352634E+0	1.365462E+0	1.377038E+0	1.375259E+0	1.386865E+0	1.371388E+0	1.358052E+0	1.377551E+0	1.403510E+0	1.409845E+0	1.386703E+0	1.395678E+0	1.342532E+0	1.396114E+0	1.397945E+0	1.405372E+0	1.437907E+0	1.428183E+0	1.392292E+0	1.363601E+0	1.357422E+0	1.377693E+0	1.389014E+0	1.397383E+0	1.364805E+0	1.363076E+0	1.390013E+0	1.368776E+0	1.380803E+0	1.379915E+0	1.370352E+0	1.384595E+0
5.482600E+2	1.511367E+0	1.511162E+0	1.449191E+0	1.529224E+0	1.454869E+0	1.473826E+0	1.455171E+0	1.506006E+0	1.489207E+0	1.488157E+0	1.456325E+0	1.532776E+0	1.471917E+0	1.525661E+0	1.498699E+0	1.450601E+0	1.481313E+0	1.481969E+0	1.504099E+0	1.478245E+0	1.445810E+0	1.530256E+0	1.495328E+0	1.437986E+0	1.494312E+0	1.518309E+0	1.536797E+0	1.465644E+0	1.486259E+0	1.475226E+0	1.391631E+0	1.450247E+0	1.495910E+0	1.538673E+0	1.428896E+0	1.455833E+0	1.469364E+0	1.463536E+0	1.487716E+0	1.481500E+0	1.479254E+0	1.419747E+0	1.519546E+0	1.428151E+0	1.464224E+0	1.390992E+0	1.461232E+0	1.445916E+0	1.475909E+0	1.521663E+0	1.470435E+0	1.499730E+0	1.497550E+0	1.533979E+0	1.447993E+0	1.481378E+0	1.485189E+0	1.525047E+0	1.450026E+0	1.541602E+0	1.497085E+0	1.512788E+0	1.458242E+0	1.510558E+0	1.440304E+0	1.466506E+0	1.533146E+0	1.452813E+0	1.450857E+0	1.496683E+0	1.496572E+0	1.435688E+0	1.432273E+0	1.484243E+0	1.494278E+0	1.416693E+0	1.506309E+0	1.421967E+0	1.481515E+0	1.453909E+0	1.481089E+0	1.509898E+0	1.425043E+0	1.461352E+0	1.480296E+0	1.457246E+0	1.423318E+0	1.477332E+0	1.447975E+0	1.459376E+0	1.504040E+0	1.449685E+0	1.480282E+0	1.478639E+0	1.452654E+0	1.496201E+0	1.467271E+0	1.479369E+0	1.495711E+0	1.469299E+0	1.460607E+0	1.431827E+0	1.444177E+0	1.527482E+0	1.510238E+0	1.428593E+0	1.537593E+0	1.524671E+0	1.418681E+0	1.522299E+0	1.453415E+0	1.480930E+0	1.472179E+0	1.462608E+0	1.504392E+0	1.506096E+0	1.476829E+0	1.454261E+0	1.456281E+0	1.431166E+0	1.438702E+0	1.427670E+0	1.483504E+0	1.437768E+0	1.480595E+0	1.458703E+0	1.486584E+0	1.425189E+0	1.408650E+0	1.451016E+0	1.476436E+0	1.442757E+0	1.476014E+0	1.490909E+0	1.443083E+0	1.457308E+0	1.419819E+0	1.522437E+0	1.474350E+0	1.423358E+0	1.478829E+0	1.510565E+0	1.475632E+0	1.452270E+0	1.443435E+0	1.507688E+0	1.461660E+0	1.464922E+0	1.474367E+0	1.450716E+0	1.471622E+0	1.429665E+0	1.505823E+0	1.421829E+0	1.482645E+0	1.431861E+0	1.426138E+0	1.463295E+0	1.453517E+0	1.552196E+0	1.509290E+0	1.453350E+0	1.481372E+0	1.437179E+0	1.448840E+0	1.509348E+0	1.485052E+0	1.517033E+0	1.486820E+0	1.556618E+0
5.490160E+2	1.414569E+0	1.406103E+0	1.387662E+0	1.402548E+0	1.433898E+0	1.427022E+0	1.430058E+0	1.443970E+0	1.440361E+0	1.432973E+0	1.463268E+0	1.477566E+0	1.431602E+0	1.456656E+0	1.505779E+0	1.370229E+0	1.422305E+0	1.473889E+0	1.437656E+0	1.463900E+0	1.420805E+0	1.426893E+0	1.445139E+0	1.416709E+0	1.418929E+0	1.503958E+0	1.466801E+0	1.442837E+0	1.453225E+0	1.485379E+0	1.380211E+0	1.418975E+0	1.395615E+0	1.423520E+0	1.442166E+0	1.439472E+0	1.426687E+0	1.398128E+0	1.461123E+0	1.453705E+0	1.406060E+0	1.422675E+0	1.468740E+0	1.384284E+0	1.425384E+0	1.412301E+0	1.480557E+0	1.439105E+0	1.463680E+0	1.446104E+0	1.372222E+0	1.436590E+0	1.498309E+0	1.434306E+0	1.423387E+0	1.428066E+0	1.408073E+0	1.462216E+0	1.436233E+0	1.449677E+0	1.434599E+0	1.470245E+0	1.450486E+0	1.411653E+0	1.423546E+0	1.447324E+0	1.417025E+0	1.438630E+0	1.394380E+0	1.421085E+0	1.428894E+0	1.458744E+0	1.436881E+0	1.421651E+0	1.400254E+0	1.361510E+0	1.419510E+0	1.459048E+0	1.458007E+0	1.433059E+0	1.392997E+0	1.380232E+0	1.429561E+0	1.429449E+0	1.424164E+0	1.407189E+0	1.431491E+0	1.414831E+0	1.480440E+0	1.410217E+0	1.452253E+0	1.430015E+0	1.436908E+0	1.425283E+0	1.456363E+0	1.431910E+0	1.395232E+0	1.405869E+0	1.431614E+0	1.405172E+0	1.453314E+0	1.394583E+0	1.428112E+0	1.386555E+0	1.446349E+0	1.454068E+0	1.439906E+0	1.470363E+0	1.379070E+0	1.474485E+0	1.356838E+0	1.436396E+0	1.393598E+0	1.468422E+0	1.431292E+0	1.401083E+0	1.453699E+0	1.405593E+0	1.402817E+0	1.365085E+0	1.377273E+0	1.359599E+0	1.485822E+0	1.387688E+0	1.422946E+0	1.435341E+0	1.464538E+0	1.401006E+0	1.401862E+0	1.411255E+0	1.397971E+0	1.335587E+0	1.416670E+0	1.423214E+0	1.473138E+0	1.398561E+0	1.431680E+0	1.409524E+0	1.408238E+0	1.434762E+0	1.422528E+0	1.466366E+0	1.481459E+0	1.373701E+0	1.353033E+0	1.385495E+0	1.427596E+0	1.376159E+0	1.427863E+0	1.442934E+0	1.454966E+0	1.474142E+0	1.392091E+0	1.418986E+0	1.437521E+0	1.423732E+0	1.348188E+0	1.422141E+0	1.407723E+0	1.439643E+0	1.435599E+0	1.428214E+0	1.486303E+0	1.477393E+0	1.383843E+0	1.388832E+0	1.389394E+0	1.452486E+0	1.420035E+0	1.445344E+0
5.497740E+2	1.380074E+0	1.445629E+0	1.432598E+0	1.439987E+0	1.382995E+0	1.474237E+0	1.439142E+0	1.474167E+0	1.419011E+0	1.440611E+0	1.443475E+0	1.378231E+0	1.442152E+0	1.513238E+0	1.418983E+0	1.439204E+0	1.464656E+0	1.519541E+0	1.426953E+0	1.424527E+0	1.427019E+0	1.524092E+0	1.475032E+0	1.420566E+0	1.431258E+0	1.501150E+0	1.429473E+0	1.426118E+0	1.456380E+0	1.404881E+0	1.423401E+0	1.421588E+0	1.441625E+0	1.448171E+0	1.379265E+0	1.442351E+0	1.428636E+0	1.422848E+0	1.450398E+0	1.428924E+0	1.426995E+0	1.430662E+0	1.436910E+0	1.390473E+0	1.413918E+0	1.428373E+0	1.435113E+0	1.473452E+0	1.441663E+0	1.429270E+0	1.439871E+0	1.386083E+0	1.433833E+0	1.455259E+0	1.447674E+0	1.398639E+0	1.432223E+0	1.453649E+0	1.407836E+0	1.361846E+0	1.391468E+0	1.403351E+0	1.434973E+0	1.413209E+0	1.441387E+0	1.474652E+0	1.455469E+0	1.424923E+0	1.397732E+0	1.462052E+0	1.420786E+0	1.395365E+0	1.444302E+0	1.418044E+0	1.377450E+0	1.405143E+0	1.442760E+0	1.489135E+0	1.426265E+0	1.428718E+0	1.427868E+0	1.420549E+0	1.458161E+0	1.424734E+0	1.442392E+0	1.439652E+0	1.416541E+0	1.469249E+0	1.458876E+0	1.410142E+0	1.475948E+0	1.474933E+0	1.412512E+0	1.517708E+0	1.422112E+0	1.411120E+0	1.354855E+0	1.455672E+0	1.400939E+0	1.417893E+0	1.441860E+0	1.363963E+0	1.404143E+0	1.467240E+0	1.432701E+0	1.414505E+0	1.416981E+0	1.395323E+0	1.483726E+0	1.448489E+0	1.437335E+0	1.425132E+0	1.471277E+0	1.488716E+0	1.382752E+0	1.382439E+0	1.423046E+0	1.450779E+0	1.471344E+0	1.414586E+0	1.379151E+0	1.453041E+0	1.426296E+0	1.393943E+0	1.455136E+0	1.435040E+0	1.493635E+0	1.452667E+0	1.433704E+0	1.409418E+0	1.410070E+0	1.464639E+0	1.456701E+0	1.423624E+0	1.349942E+0	1.382608E+0	1.472760E+0	1.407379E+0	1.410030E+0	1.445837E+0	1.394641E+0	1.465189E+0	1.451567E+0	1.405247E+0	1.435295E+0	1.397456E+0	1.504941E+0	1.434752E+0	1.366571E+0	1.399925E+0	1.420005E+0	1.359535E+0	1.397579E+0	1.421274E+0	1.378739E+0	1.365521E+0	1.357403E+0	1.416154E+0	1.405283E+0	1.443244E+0	1.446157E+0	1.449631E+0	1.438167E+0	1.425263E+0	1.386260E+0	1.373575E+0	1.436370E+0	1.472609E+0	1.389582E+0	1.436597E+0
5.505170E+2	1.447061E+0	1.401667E+0	1.375134E+0	1.427897E+0	1.346533E+0	1.469744E+0	1.482409E+0	1.427773E+0	1.404586E+0	1.408563E+0	1.487257E+0	1.415303E+0	1.428335E+0	1.472519E+0	1.431498E+0	1.381447E+0	1.405659E+0	1.443311E+0	1.442178E+0	1.340543E+0	1.406429E+0	1.406736E+0	1.409766E+0	1.399393E+0	1.424424E+0	1.387099E+0	1.402894E+0	1.392337E+0	1.467705E+0	1.415908E+0	1.395250E+0	1.416761E+0	1.374192E+0	1.445716E+0	1.387167E+0	1.372709E+0	1.410339E+0	1.324620E+0	1.476291E+0	1.417381E+0	1.440813E+0	1.416977E+0	1.404529E+0	1.388725E+0	1.397778E+0	1.433190E+0	1.442128E+0	1.423835E+0	1.454280E+0	1.421155E+0	1.429131E+0	1.365755E+0	1.388797E+0	1.448921E+0	1.391665E+0	1.351547E+0	1.381561E+0	1.426468E+0	1.403348E+0	1.433906E+0	1.408306E+0	1.501411E+0	1.428428E+0	1.403750E+0	1.345103E+0	1.386745E+0	1.367868E+0	1.443483E+0	1.369139E+0	1.376858E+0	1.418653E+0	1.362796E+0	1.417562E+0	1.511337E+0	1.395861E+0	1.422173E+0	1.382860E+0	1.387048E+0	1.426989E+0	1.369818E+0	1.362971E+0	1.426654E+0	1.384001E+0	1.356753E+0	1.429038E+0	1.378603E+0	1.379803E+0	1.412310E+0	1.413829E+0	1.434297E+0	1.409324E+0	1.391681E+0	1.423752E+0	1.430891E+0	1.409097E+0	1.431681E+0	1.350616E+0	1.393904E+0	1.379414E+0	1.402837E+0	1.439290E+0	1.389872E+0	1.427104E+0	1.432483E+0	1.378838E+0	1.442205E+0	1.408554E+0	1.383261E+0	1.385769E+0	1.456423E+0	1.385798E+0	1.440408E+0	1.448056E+0	1.409487E+0	1.370790E+0	1.342742E+0	1.453234E+0	1.401571E+0	1.408166E+0	1.339500E+0	1.387167E+0	1.434629E+0	1.463039E+0	1.363507E+0	1.393068E+0	1.419565E+0	1.455618E+0	1.414887E+0	1.450544E+0	1.415236E+0	1.413955E+0	1.425899E+0	1.403119E+0	1.414306E+0	1.399116E+0	1.452144E+0	1.363621E+0	1.406691E+0	1.392220E+0	1.464000E+0	1.389307E+0	1.424632E+0	1.367828E+0	1.355538E+0	1.386599E+0	1.416305E+0	1.437933E+0	1.438944E+0	1.413192E+0	1.413238E+0	1.378440E+0	1.437717E+0	1.335913E+0	1.353981E+0	1.366622E+0	1.372949E+0	1.383469E+0	1.478402E+0	1.390558E+0	1.413313E+0	1.411429E+0	1.366176E+0	1.432508E+0	1.388195E+0	1.368498E+0	1.370162E+0	1.397293E+0	1.425603E+0	1.304593E+0	1.428456E+0
5.512570E+2	1.383615E+0	1.384354E+0	1.383818E+0	1.427379E+0	1.403683E+0	1.424709E+0	1.422289E+0	1.375654E+0	1.414909E+0	1.451791E+0	1.390110E+0	1.382413E+0	1.437387E+0	1.449413E+0	1.408241E+0	1.473284E+0	1.396168E+0	1.438160E+0	1.434671E+0	1.429029E+0	1.422213E+0	1.362524E+0	1.375911E+0	1.378627E+0	1.387889E+0	1.397276E+0	1.389555E+0	1.391582E+0	1.367135E+0	1.424694E+0	1.420699E+0	1.442691E+0	1.396102E+0	1.455555E+0	1.407105E+0	1.393358E+0	1.347635E+0	1.403542E+0	1.371224E+0	1.381931E+0	1.409607E+0	1.447368E+0	1.437504E+0	1.375352E+0	1.413691E+0	1.373012E+0	1.396255E+0	1.384856E+0	1.455393E+0	1.417795E+0	1.411232E+0	1.386308E+0	1.449818E+0	1.394941E+0	1.440141E+0	1.340506E+0	1.419341E+0	1.427167E+0	1.402936E+0	1.412623E+0	1.466435E+0	1.422071E+0	1.421017E+0	1.357143E+0	1.404145E+0	1.465118E+0	1.382582E+0	1.353281E+0	1.376304E+0	1.437031E+0	1.440485E+0	1.375229E+0	1.432382E+0	1.432339E+0	1.452922E+0	1.336440E+0	1.441761E+0	1.431338E+0	1.435030E+0	1.388044E+0	1.437778E+0	1.409365E+0	1.351121E+0	1.341894E+0	1.388379E+0	1.416581E+0	1.362567E+0	1.365235E+0	1.430036E+0	1.396517E+0	1.467021E+0	1.371730E+0	1.385853E+0	1.403725E+0	1.438514E+0	1.340064E+0	1.348608E+0	1.385734E+0	1.378855E+0	1.409255E+0	1.390613E+0	1.365576E+0	1.412600E+0	1.411248E+0	1.400132E+0	1.410958E+0	1.469763E+0	1.386138E+0	1.421863E+0	1.405370E+0	1.423993E+0	1.424260E+0	1.402805E+0	1.420265E+0	1.419895E+0	1.387170E+0	1.445043E+0	1.409321E+0	1.379665E+0	1.387830E+0	1.356946E+0	1.361652E+0	1.396882E+0	1.395923E+0	1.394482E+0	1.430529E+0	1.440974E+0	1.424883E+0	1.396044E+0	1.387790E+0	1.400292E+0	1.395828E+0	1.381011E+0	1.395108E+0	1.366760E+0	1.402114E+0	1.364643E+0	1.408015E+0	1.439531E+0	1.404057E+0	1.362061E+0	1.398641E+0	1.397057E+0	1.362995E+0	1.348410E+0	1.383740E+0	1.387000E+0	1.361666E+0	1.361476E+0	1.406886E+0	1.487422E+0	1.358535E+0	1.411838E+0	1.409418E+0	1.378435E+0	1.455711E+0	1.380271E+0	1.427505E+0	1.408992E+0	1.371286E+0	1.482279E+0	1.357398E+0	1.374651E+0	1.391210E+0	1.381133E+0	1.409881E+0	1.390406E+0	1.460950E+0	1.354649E+0	1.408091E+0
5.520210E+2	1.298714E+0	1.235573E+0	1.273571E+0	1.336789E+0	1.273850E+0	1.320563E+0	1.297286E+0	1.303295E+0	1.333159E+0	1.280799E+0	1.323656E+0	1.327680E+0	1.362624E+0	1.352107E+0	1.300271E+0	1.282806E+0	1.328771E+0	1.296189E+0	1.302217E+0	1.330030E+0	1.329623E+0	1.299026E+0	1.281092E+0	1.321363E+0	1.266496E+0	1.352755E+0	1.326635E+0	1.350695E+0	1.321995E+0	1.337265E+0	1.325338E+0	1.331252E+0	1.333882E+0	1.358795E+0	1.281054E+0	1.311554E+0	1.314614E+0	1.303155E+0	1.420439E+0	1.339520E+0	1.345862E+0	1.333143E+0	1.326615E+0	1.282959E+0	1.268189E+0	1.262568E+0	1.326278E+0	1.334449E+0	1.327337E+0	1.276691E+0	1.323451E+0	1.302906E+0	1.297121E+0	1.339650E+0	1.298244E+0	1.282474E+0	1.292000E+0	1.291915E+0	1.285107E+0	1.333282E+0	1.264816E+0	1.266778E+0	1.292950E+0	1.290972E+0	1.310678E+0	1.309717E+0	1.355044E+0	1.350119E+0	1.288887E+0	1.254822E+0	1.279840E+0	1.309354E+0	1.312371E+0	1.300379E+0	1.273727E+0	1.287087E+0	1.299693E+0	1.297000E+0	1.281132E+0	1.327107E+0	1.335589E+0	1.367366E+0	1.284121E+0	1.320003E+0	1.317160E+0	1.283379E+0	1.266125E+0	1.342627E+0	1.296465E+0	1.311619E+0	1.344674E+0	1.305622E+0	1.313941E+0	1.366781E+0	1.292347E+0	1.314193E+0	1.288607E+0	1.342600E+0	1.336252E+0	1.289934E+0	1.334699E+0	1.324155E+0	1.344352E+0	1.298549E+0	1.260456E+0	1.347500E+0	1.345854E+0	1.302042E+0	1.276225E+0	1.282890E+0	1.331944E+0	1.282368E+0	1.254545E+0	1.347140E+0	1.309673E+0	1.275848E+0	1.349348E+0	1.360177E+0	1.294666E+0	1.234296E+0	1.241282E+0	1.354559E+0	1.304063E+0	1.254667E+0	1.273716E+0	1.277560E+0	1.318694E+0	1.296391E+0	1.310882E+0	1.281807E+0	1.253409E+0	1.329055E+0	1.260392E+0	1.320300E+0	1.334130E+0	1.317711E+0	1.314567E+0	1.313847E+0	1.283818E+0	1.278542E+0	1.301068E+0	1.317988E+0	1.285687E+0	1.299823E+0	1.233776E+0	1.324044E+0	1.269317E+0	1.324515E+0	1.298122E+0	1.303240E+0	1.302104E+0	1.292733E+0	1.299611E+0	1.292333E+0	1.288518E+0	1.335911E+0	1.290292E+0	1.323778E+0	1.332432E+0	1.307539E+0	1.342713E+0	1.320859E+0	1.332736E+0	1.315683E+0	1.297030E+0	1.252778E+0	1.294418E+0	1.325494E+0	1.333435E+0	1.330508E+0
5.527590E+2	1.374271E+0	1.322051E+0	1.346362E+0	1.299134E+0	1.290855E+0	1.287228E+0	1.289446E+0	1.346763E+0	1.327013E+0	1.292585E+0	1.336727E+0	1.320468E+0	1.403814E+0	1.306639E+0	1.335219E+0	1.329225E+0	1.344932E+0	1.344313E+0	1.330913E+0	1.282375E+0	1.341163E+0	1.320110E+0	1.350805E+0	1.326552E+0	1.346046E+0	1.364616E+0	1.331747E+0	1.344160E+0	1.324004E+0	1.300784E+0	1.328603E+0	1.309183E+0	1.304893E+0	1.357675E+0	1.331759E+0	1.307096E+0	1.318240E+0	1.307748E+0	1.326628E+0	1.320599E+0	1.306967E+0	1.282571E+0	1.362546E+0	1.361213E+0	1.344681E+0	1.314731E+0	1.366356E+0	1.277642E+0	1.358049E+0	1.339881E+0	1.296574E+0	1.344154E+0	1.350126E+0	1.321379E+0	1.276217E+0	1.354203E+0	1.257680E+0	1.301433E+0	1.369529E+0	1.308230E+0	1.341817E+0	1.379688E+0	1.331315E+0	1.288323E+0	1.339186E+0	1.280729E+0	1.332687E+0	1.270002E+0	1.324746E+0	1.307083E+0	1.277733E+0	1.279565E+0	1.314306E+0	1.331018E+0	1.338631E+0	1.312149E+0	1.326582E+0	1.309242E+0	1.332357E+0	1.349620E+0	1.327673E+0	1.293380E+0	1.315844E+0	1.290848E+0	1.333194E+0	1.294165E+0	1.327156E+0	1.262757E+0	1.314240E+0	1.314254E+0	1.395155E+0	1.322695E+0	1.298735E+0	1.323394E+0	1.366579E+0	1.292034E+0	1.304494E+0	1.329890E+0	1.332751E+0	1.337524E+0	1.344408E+0	1.264110E+0	1.316407E+0	1.313595E+0	1.347540E+0	1.324475E+0	1.369543E+0	1.334044E+0	1.327804E+0	1.314317E+0	1.242007E+0	1.287888E+0	1.302419E+0	1.334927E+0	1.249905E+0	1.307213E+0	1.299601E+0	1.294835E+0	1.295306E+0	1.283018E+0	1.345371E+0	1.316426E+0	1.382254E+0	1.302701E+0	1.351558E+0	1.338810E+0	1.334785E+0	1.329546E+0	1.287217E+0	1.310974E+0	1.321107E+0	1.325922E+0	1.346204E+0	1.299726E+0	1.320060E+0	1.246568E+0	1.326225E+0	1.301720E+0	1.306358E+0	1.294836E+0	1.314730E+0	1.349712E+0	1.349428E+0	1.306442E+0	1.306039E+0	1.271928E+0	1.306283E+0	1.317088E+0	1.297943E+0	1.330375E+0	1.352430E+0	1.352850E+0	1.390963E+0	1.344130E+0	1.321240E+0	1.325653E+0	1.317802E+0	1.318276E+0	1.298896E+0	1.341639E+0	1.347063E+0	1.285869E+0	1.330409E+0	1.285932E+0	1.334396E+0	1.293419E+0	1.284716E+0	1.348845E+0	1.398013E+0	1.343518E+0
5.535220E+2	1.210046E+0	1.216038E+0	1.142695E+0	1.189586E+0	1.266623E+0	1.239776E+0	1.239374E+0	1.260646E+0	1.170682E+0	1.181829E+0	1.239449E+0	1.286961E+0	1.241255E+0	1.265739E+0	1.256245E+0	1.184100E+0	1.207736E+0	1.144460E+0	1.263088E+0	1.188866E+0	1.248497E+0	1.242275E+0	1.281722E+0	1.237943E+0	1.156695E+0	1.232390E+0	1.297770E+0	1.243431E+0	1.206405E+0	1.250165E+0	1.258122E+0	1.169217E+0	1.147348E+0	1.178505E+0	1.215618E+0	1.224947E+0	1.181381E+0	1.220982E+0	1.213623E+0	1.251406E+0	1.242566E+0	1.240443E+0	1.268604E+0	1.216588E+0	1.209410E+0	1.229095E+0	1.246415E+0	1.184825E+0	1.212286E+0	1.236655E+0	1.203220E+0	1.265740E+0	1.223224E+0	1.260512E+0	1.181866E+0	1.192949E+0	1.185487E+0	1.240620E+0	1.207696E+0	1.199824E+0	1.240487E+0	1.250847E+0	1.180746E+0	1.224728E+0	1.215518E+0	1.203208E+0	1.215858E+0	1.183113E+0	1.169805E+0	1.235991E+0	1.210375E+0	1.190107E+0	1.239593E+0	1.231832E+0	1.214228E+0	1.221036E+0	1.151606E+0	1.213435E+0	1.284500E+0	1.204477E+0	1.251056E+0	1.275405E+0	1.287081E+0	1.183941E+0	1.220449E+0	1.193478E+0	1.223912E+0	1.219118E+0	1.193964E+0	1.210777E+0	1.206664E+0	1.210489E+0	1.198794E+0	1.212394E+0	1.219206E+0	1.180029E+0	1.193078E+0	1.175021E+0	1.289432E+0	1.245644E+0	1.218375E+0	1.186439E+0	1.227024E+0	1.247428E+0	1.233996E+0	1.240706E+0	1.251956E+0	1.226102E+0	1.189798E+0	1.205196E+0	1.199319E+0	1.212706E+0	1.177618E+0	1.236884E+0	1.197418E+0	1.171526E+0	1.238034E+0	1.193409E+0	1.218665E+0	1.138177E+0	1.196730E+0	1.197753E+0	1.179063E+0	1.188203E+0	1.197809E+0	1.244307E+0	1.224707E+0	1.254163E+0	1.206811E+0	1.221055E+0	1.264163E+0	1.260522E+0	1.210830E+0	1.152080E+0	1.175565E+0	1.219090E+0	1.187671E+0	1.178244E+0	1.271038E+0	1.156650E+0	1.212730E+0	1.209987E+0	1.259597E+0	1.122698E+0	1.213288E+0	1.175556E+0	1.219322E+0	1.180805E+0	1.234254E+0	1.195134E+0	1.213216E+0	1.198789E+0	1.238443E+0	1.234138E+0	1.201339E+0	1.228061E+0	1.190316E+0	1.188020E+0	1.205931E+0	1.175706E+0	1.257095E+0	1.213873E+0	1.252041E+0	1.227052E+0	1.202076E+0	1.217603E+0	1.254062E+0	1.293116E+0	1.144425E+0	1.277480E+0
5.542580E+2	1.134645E+0	1.133174E+0	1.124141E+0	1.171149E+0	1.192108E+0	1.187200E+0	1.151129E+0	1.150677E+0	1.158963E+0	1.165808E+0	1.156213E+0	1.157808E+0	1.164966E+0	1.149150E+0	1.192373E+0	1.125768E+0	1.220396E+0	1.147313E+0	1.170065E+0	1.120782E+0	1.159872E+0	1.159924E+0	1.192294E+0	1.115923E+0	1.156813E+0	1.118536E+0	1.153731E+0	1.145851E+0	1.183371E+0	1.146321E+0	1.122267E+0	1.129723E+0	1.108746E+0	1.182548E+0	1.084645E+0	1.135978E+0	1.145287E+0	1.143042E+0	1.191637E+0	1.112435E+0	1.144353E+0	1.161758E+0	1.131837E+0	1.179368E+0	1.132380E+0	1.142548E+0	1.162765E+0	1.124717E+0	1.164046E+0	1.137773E+0	1.147295E+0	1.131678E+0	1.170316E+0	1.115177E+0	1.160984E+0	1.152378E+0	1.119808E+0	1.181546E+0	1.107408E+0	1.143201E+0	1.141886E+0	1.165711E+0	1.139191E+0	1.104489E+0	1.140004E+0	1.134961E+0	1.139295E+0	1.107523E+0	1.107490E+0	1.126200E+0	1.115597E+0	1.113638E+0	1.154882E+0	1.164013E+0	1.144779E+0	1.131133E+0	1.152083E+0	1.135425E+0	1.159390E+0	1.134629E+0	1.130171E+0	1.116774E+0	1.118578E+0	1.126312E+0	1.087921E+0	1.132370E+0	1.134540E+0	1.163987E+0	1.113050E+0	1.111879E+0	1.192183E+0	1.159606E+0	1.118079E+0	1.165251E+0	1.189278E+0	1.156325E+0	1.105164E+0	1.100800E+0	1.174436E+0	1.160982E+0	1.143026E+0	1.153879E+0	1.145413E+0	1.127518E+0	1.164732E+0	1.159461E+0	1.117173E+0	1.189484E+0	1.114213E+0	1.110760E+0	1.187460E+0	1.164996E+0	1.122992E+0	1.157834E+0	1.141119E+0	1.088440E+0	1.156143E+0	1.088792E+0	1.205153E+0	1.118738E+0	1.130991E+0	1.119779E+0	1.169523E+0	1.060446E+0	1.119719E+0	1.153256E+0	1.170785E+0	1.154207E+0	1.112891E+0	1.185095E+0	1.102053E+0	1.152216E+0	1.168945E+0	1.159282E+0	1.127101E+0	1.132722E+0	1.157558E+0	1.192302E+0	1.188107E+0	1.184960E+0	1.109476E+0	1.135503E+0	1.132853E+0	1.098239E+0	1.061765E+0	1.153409E+0	1.156801E+0	1.153147E+0	1.101223E+0	1.116950E+0	1.169314E+0	1.127011E+0	1.128717E+0	1.149742E+0	1.112352E+0	1.117555E+0	1.103385E+0	1.147506E+0	1.155741E+0	1.173251E+0	1.163375E+0	1.120891E+0	1.149585E+0	1.132001E+0	1.189583E+0	1.122827E+0	1.190089E+0	1.184367E+0	1.131730E+0	1.078431E+0
5.550140E+2	1.082155E+0	1.040622E+0	1.075106E+0	1.043181E+0	1.042362E+0	1.069853E+0	1.046601E+0	1.057419E+0	1.004373E+0	1.074306E+0	1.067754E+0	1.073105E+0	1.056207E+0	1.040133E+0	1.062299E+0	1.106733E+0	1.044999E+0	1.037986E+0	1.081440E+0	1.052923E+0	1.052124E+0	1.078220E+0	1.078990E+0	1.065523E+0	1.027346E+0	1.077235E+0	1.096263E+0	1.015609E+0	1.063438E+0	1.054091E+0	1.043782E+0	1.035468E+0	1.011139E+0	1.092487E+0	1.065242E+0	1.014537E+0	1.044912E+0	1.069106E+0	1.103003E+0	1.051144E+0	1.107686E+0	9.992240E-1	1.085614E+0	1.046010E+0	1.063202E+0	1.020541E+0	1.065611E+0	1.070144E+0	1.054683E+0	1.073781E+0	1.105752E+0	1.039613E+0	1.075513E+0	1.075543E+0	1.067115E+0	1.030075E+0	1.024775E+0	9.852461E-1	1.047810E+0	1.038724E+0	1.064816E+0	1.048250E+0	1.054516E+0	1.026954E+0	1.048081E+0	1.086850E+0	1.063894E+0	1.073690E+0	1.076013E+0	1.045986E+0	1.020567E+0	1.025253E+0	1.016418E+0	1.037284E+0	1.069350E+0	1.087978E+0	1.067180E+0	1.015003E+0	1.046911E+0	1.049529E+0	1.080493E+0	1.090813E+0	1.050160E+0	1.057420E+0	1.115308E+0	1.045473E+0	1.048946E+0	1.053016E+0	1.050262E+0	1.034571E+0	1.083482E+0	1.072869E+0	1.064969E+0	1.056915E+0	1.074775E+0	1.053567E+0	1.107629E+0	1.066539E+0	1.034152E+0	1.044894E+0	1.119961E+0	1.043254E+0	1.096830E+0	1.060530E+0	1.092068E+0	1.003984E+0	1.047117E+0	1.043933E+0	1.055072E+0	1.034198E+0	1.049208E+0	1.113066E+0	1.009300E+0	1.033102E+0	1.065145E+0	1.061950E+0	1.093004E+0	1.044173E+0	1.050841E+0	1.029653E+0	1.023882E+0	1.042903E+0	1.019231E+0	1.070462E+0	1.090639E+0	1.028394E+0	1.101531E+0	1.077568E+0	1.036934E+0	9.847965E-1	1.034109E+0	1.114157E+0	1.025827E+0	1.057405E+0	1.080447E+0	1.056363E+0	1.035077E+0	1.071160E+0	1.051664E+0	1.045017E+0	1.035104E+0	1.108154E+0	1.063811E+0	1.069542E+0	1.073350E+0	1.061613E+0	1.077103E+0	1.093685E+0	1.072921E+0	1.046875E+0	1.086041E+0	1.049924E+0	9.902654E-1	1.053833E+0	1.043923E+0	1.058133E+0	1.009217E+0	1.009381E+0	1.059853E+0	1.036012E+0	1.036614E+0	1.060201E+0	1.103057E+0	1.051534E+0	1.063609E+0	1.019779E+0	1.083755E+0	1.066785E+0	1.021675E+0	1.130264E+0
5.557600E+2	1.013038E+0	1.013899E+0	1.044390E+0	1.063454E+0	1.013523E+0	1.039113E+0	1.012910E+0	1.044401E+0	1.051334E+0	9.799475E-1	1.005334E+0	9.796703E-1	1.021495E+0	1.063045E+0	1.057279E+0	1.018625E+0	1.013391E+0	1.004855E+0	1.014115E+0	1.041176E+0	1.022808E+0	1.003987E+0	1.009529E+0	1.034682E+0	1.011759E+0	1.003590E+0	1.014834E+0	9.916748E-1	1.033316E+0	9.699074E-1	1.000844E+0	1.037706E+0	9.666677E-1	1.003055E+0	9.676599E-1	9.538508E-1	1.012683E+0	9.980250E-1	1.046669E+0	1.045316E+0	1.034429E+0	9.971156E-1	1.063659E+0	9.732237E-1	1.003089E+0	1.049648E+0	9.829542E-1	9.663833E-1	1.029388E+0	9.949627E-1	1.055466E+0	9.645203E-1	1.032688E+0	1.016634E+0	1.011278E+0	1.005229E+0	9.979977E-1	1.011758E+0	9.951449E-1	9.992903E-1	1.004247E+0	9.900949E-1	1.028984E+0	9.558625E-1	1.001685E+0	9.844178E-1	1.032183E+0	9.963744E-1	9.619505E-1	1.040091E+0	1.010662E+0	1.016338E+0	1.001786E+0	1.005667E+0	9.999607E-1	1.028136E+0	9.638715E-1	9.990535E-1	1.010787E+0	9.996444E-1	1.008426E+0	1.046618E+0	1.041235E+0	9.963653E-1	9.793911E-1	1.021049E+0	1.023613E+0	1.066014E+0	1.010155E+0	9.933140E-1	1.017163E+0	1.037027E+0	1.021551E+0	1.005004E+0	1.011628E+0	1.009223E+0	9.976838E-1	1.013982E+0	9.677704E-1	1.020682E+0	1.022966E+0	1.010003E+0	9.994516E-1	1.051048E+0	9.919126E-1	1.043885E+0	9.901593E-1	9.908697E-1	1.008282E+0	1.033686E+0	1.019828E+0	9.996743E-1	9.840039E-1	1.001619E+0	1.070045E+0	1.010117E+0	1.035069E+0	1.018145E+0	1.030133E+0	1.003955E+0	9.735469E-1	9.677421E-1	1.060111E+0	1.055884E+0	1.032979E+0	1.015223E+0	1.053410E+0	1.001414E+0	1.057397E+0	1.012992E+0	1.068280E+0	1.011734E+0	1.024624E+0	1.001728E+0	1.037765E+0	9.731209E-1	9.974227E-1	1.007097E+0	1.031439E+0	1.034136E+0	1.006923E+0	1.001834E+0	9.921024E-1	1.044584E+0	9.904410E-1	9.787675E-1	1.060572E+0	1.016411E+0	1.007806E+0	9.776315E-1	1.006596E+0	1.014635E+0	1.009523E+0	1.016067E+0	1.006674E+0	9.892784E-1	1.002050E+0	9.805396E-1	1.026148E+0	1.030606E+0	1.055639E+0	1.008728E+0	1.040036E+0	9.751720E-1	1.008230E+0	1.006009E+0	9.829702E-1	1.002813E+0	1.052287E+0	1.050743E+0
5.560130E+2	9.535125E-1	9.536694E-1	9.650236E-1	9.712516E-1	9.986435E-1	9.401491E-1	9.680348E-1	9.670965E-1	9.841635E-1	9.623893E-1	9.854598E-1	9.616717E-1	9.214565E-1	9.709579E-1	9.755256E-1	9.442333E-1	9.129289E-1	9.272686E-1	9.074851E-1	9.383151E-1	9.636090E-1	9.691725E-1	9.510301E-1	9.366846E-1	9.212766E-1	9.708702E-1	9.492743E-1	9.365643E-1	9.167976E-1	9.347508E-1	9.180225E-1	9.539039E-1	9.301489E-1	9.586220E-1	9.378982E-1	9.950024E-1	9.754558E-1	9.289348E-1	9.408733E-1	9.246206E-1	9.527739E-1	9.777855E-1	9.582939E-1	9.446199E-1	9.808432E-1	9.477456E-1	9.548071E-1	9.668882E-1	9.056475E-1	9.626387E-1	9.661055E-1	9.442215E-1	9.339292E-1	9.587304E-1	9.496508E-1	9.448768E-1	9.476046E-1	9.718727E-1	9.269320E-1	8.700647E-1	9.273648E-1	9.524220E-1	9.551780E-1	9.411645E-1	9.856037E-1	9.776102E-1	9.687087E-1	9.427817E-1	9.547496E-1	9.355363E-1	9.615492E-1	9.535337E-1	9.646980E-1	9.570239E-1	9.773491E-1	9.558575E-1	9.322965E-1	9.444746E-1	9.809507E-1	9.362631E-1	9.137156E-1	1.004413E+0	9.403738E-1	9.825387E-1	9.227778E-1	9.302571E-1	9.316577E-1	9.289461E-1	9.827593E-1	9.338779E-1	9.487539E-1	9.514794E-1	9.657544E-1	9.614601E-1	9.660519E-1	9.494327E-1	9.184859E-1	9.567273E-1	9.797901E-1	9.362709E-1	9.681661E-1	9.384423E-1	9.828299E-1	9.358793E-1	9.198031E-1	9.426931E-1	9.802209E-1	9.491415E-1	9.522225E-1	9.581005E-1	9.770329E-1	9.218543E-1	9.820306E-1	9.525003E-1	9.560257E-1	9.609101E-1	9.716009E-1	9.260613E-1	9.654269E-1	9.874555E-1	9.996936E-1	9.737402E-1	9.434435E-1	9.407768E-1	9.344029E-1	9.456822E-1	1.014517E+0	9.647085E-1	8.991584E-1	9.481539E-1	9.612304E-1	9.621917E-1	9.402320E-1	9.441534E-1	9.615266E-1	9.814022E-1	9.372880E-1	9.465268E-1	9.513765E-1	9.570858E-1	9.735410E-1	9.645503E-1	9.554889E-1	9.736857E-1	9.645154E-1	9.525581E-1	9.488427E-1	9.394706E-1	9.960318E-1	9.716706E-1	9.317481E-1	1.005712E+0	9.394593E-1	9.807302E-1	9.783224E-1	9.606941E-1	9.339737E-1	9.558821E-1	9.577999E-1	9.738279E-1	1.004048E+0	9.215622E-1	9.498817E-1	9.471060E-1	9.724441E-1	9.299064E-1	9.435532E-1	9.499242E-1	9.517754E-1	9.215746E-1
5.565090E+2	1.006838E+0	9.940565E-1	9.901118E-1	1.021972E+0	9.953818E-1	9.813238E-1	9.926912E-1	9.945871E-1	1.031485E+0	9.814442E-1	1.004387E+0	9.913105E-1	9.882682E-1	1.008365E+0	1.095026E+0	9.710755E-1	1.000009E+0	9.962990E-1	1.029194E+0	1.060215E+0	9.893919E-1	1.000945E+0	1.016403E+0	1.023691E+0	1.037556E+0	9.970119E-1	1.043415E+0	1.018905E+0	9.916978E-1	1.007878E+0	1.020463E+0	9.953331E-1	1.006719E+0	1.021734E+0	1.023601E+0	9.878611E-1	9.977114E-1	9.701456E-1	1.025369E+0	9.976256E-1	1.011983E+0	9.816938E-1	9.827769E-1	9.748561E-1	1.023653E+0	1.041276E+0	1.017924E+0	9.801083E-1	1.010316E+0	9.895346E-1	1.002755E+0	1.022960E+0	9.795932E-1	1.014262E+0	9.970400E-1	9.725020E-1	1.010727E+0	1.000486E+0	1.032309E+0	1.026948E+0	9.926493E-1	1.033673E+0	1.016602E+0	1.001284E+0	9.932148E-1	9.730054E-1	9.959711E-1	1.007281E+0	1.032010E+0	9.843125E-1	9.997556E-1	9.848104E-1	9.672746E-1	9.696985E-1	9.938255E-1	1.024584E+0	1.002292E+0	1.009728E+0	1.035151E+0	9.594453E-1	9.874757E-1	1.015650E+0	9.972375E-1	9.829108E-1	9.847229E-1	1.023738E+0	9.979949E-1	1.004016E+0	9.924579E-1	1.008739E+0	9.848450E-1	9.851143E-1	1.010066E+0	9.881605E-1	1.012760E+0	1.006135E+0	1.025994E+0	1.039485E+0	9.970488E-1	9.581201E-1	1.020361E+0	1.033962E+0	1.041469E+0	1.018428E+0	1.039698E+0	9.907739E-1	1.022929E+0	1.015926E+0	1.001204E+0	1.018370E+0	1.013472E+0	9.989110E-1	1.021333E+0	9.522103E-1	1.021635E+0	1.001894E+0	9.825265E-1	1.026058E+0	1.050737E+0	1.007815E+0	9.741825E-1	1.032239E+0	9.383811E-1	1.023682E+0	1.002036E+0	1.023397E+0	9.713788E-1	9.896903E-1	1.029920E+0	9.829117E-1	1.021070E+0	1.011994E+0	1.003338E+0	1.013092E+0	9.576185E-1	1.007611E+0	9.999790E-1	1.020194E+0	1.045613E+0	1.000488E+0	1.001269E+0	9.883003E-1	1.046295E+0	9.973122E-1	1.013101E+0	9.881818E-1	1.015289E+0	1.001528E+0	9.875122E-1	1.013466E+0	9.963221E-1	1.031082E+0	9.687389E-1	1.013200E+0	9.971930E-1	9.922109E-1	9.849091E-1	9.925668E-1	1.044950E+0	1.006526E+0	9.992623E-1	9.995522E-1	1.044247E+0	9.972229E-1	1.002797E+0	9.934997E-1	9.907812E-1	1.026071E+0	9.430217E-1	1.044327E+0
5.570270E+2	9.981395E-1	9.814992E-1	1.016561E+0	9.845113E-1	9.663086E-1	9.506793E-1	9.696139E-1	9.833698E-1	1.017030E+0	9.757921E-1	9.652572E-1	9.702938E-1	1.009649E+0	9.946997E-1	9.727431E-1	1.004575E+0	9.720495E-1	9.998079E-1	1.025530E+0	1.020848E+0	9.649287E-1	9.587381E-1	1.026849E+0	9.735215E-1	1.024690E+0	9.854986E-1	9.984198E-1	9.878894E-1	9.740704E-1	9.749930E-1	9.790614E-1	9.745772E-1	1.001431E+0	1.006574E+0	9.933245E-1	9.789629E-1	1.003145E+0	9.929182E-1	9.767949E-1	9.787824E-1	9.818343E-1	9.515118E-1	1.019300E+0	9.982834E-1	9.722463E-1	1.010342E+0	9.557562E-1	9.609836E-1	9.756650E-1	1.051077E+0	9.955215E-1	9.637836E-1	1.013732E+0	9.427648E-1	9.582254E-1	9.971424E-1	9.553017E-1	1.006282E+0	1.003820E+0	9.883790E-1	1.010769E+0	9.523495E-1	1.008632E+0	1.005805E+0	1.003965E+0	9.772896E-1	1.027668E+0	9.713317E-1	1.000259E+0	9.737602E-1	9.935902E-1	9.604043E-1	9.747849E-1	9.765442E-1	9.865819E-1	9.952302E-1	9.911815E-1	9.740816E-1	1.033802E+0	1.002092E+0	9.497368E-1	1.023127E+0	9.762775E-1	9.785900E-1	9.683543E-1	9.805609E-1	1.018869E+0	9.860023E-1	1.001478E+0	9.705336E-1	9.738570E-1	9.627850E-1	1.005989E+0	1.000761E+0	1.004115E+0	9.820967E-1	9.781097E-1	9.566331E-1	1.011059E+0	1.011926E+0	9.521409E-1	9.763700E-1	9.884450E-1	9.907042E-1	1.013790E+0	9.767818E-1	9.891593E-1	9.930977E-1	9.602734E-1	9.822291E-1	1.013049E+0	9.727896E-1	9.768481E-1	9.635159E-1	9.704545E-1	9.621042E-1	9.738414E-1	9.969499E-1	9.815314E-1	9.652033E-1	1.013033E+0	9.579950E-1	1.034189E+0	9.698560E-1	9.765585E-1	9.983355E-1	1.051919E+0	9.635311E-1	9.927893E-1	1.017436E+0	1.008047E+0	1.004488E+0	9.467999E-1	9.500248E-1	9.755485E-1	1.007843E+0	9.824525E-1	9.694840E-1	1.018043E+0	9.946313E-1	9.883335E-1	9.805889E-1	9.787469E-1	9.988466E-1	9.824882E-1	1.014693E+0	9.971032E-1	1.029717E+0	9.912693E-1	9.619167E-1	1.019455E+0	9.967190E-1	9.630178E-1	9.903128E-1	1.005706E+0	1.016042E+0	1.046271E+0	9.996686E-1	9.988731E-1	9.595795E-1	1.011127E+0	1.007497E+0	9.822682E-1	9.962810E-1	9.633161E-1	1.006909E+0	1.037934E+0	9.759791E-1	9.410428E-1	1.011728E+0
5.575470E+2	9.662227E-1	1.017361E+0	1.010212E+0	1.021231E+0	9.890857E-1	1.005279E+0	9.804458E-1	1.031094E+0	9.505987E-1	1.010615E+0	9.742429E-1	1.011747E+0	1.002930E+0	1.002311E+0	1.022832E+0	1.030580E+0	1.016797E+0	1.029348E+0	9.977741E-1	1.033997E+0	1.019271E+0	1.013222E+0	1.059499E+0	1.045867E+0	1.003934E+0	1.007843E+0	1.002811E+0	1.021269E+0	1.031453E+0	1.030263E+0	1.042314E+0	1.033183E+0	1.035246E+0	9.713994E-1	1.012823E+0	1.031792E+0	9.871529E-1	9.859249E-1	1.046097E+0	1.072996E+0	1.023946E+0	1.033976E+0	1.017782E+0	1.048984E+0	1.022457E+0	9.988891E-1	1.045665E+0	1.059986E+0	1.060941E+0	1.025809E+0	9.759245E-1	1.001113E+0	1.038400E+0	1.089248E+0	1.031110E+0	1.012479E+0	1.043133E+0	1.017323E+0	1.012414E+0	1.051001E+0	1.018868E+0	9.750027E-1	1.005112E+0	9.982230E-1	1.013163E+0	1.014771E+0	1.028744E+0	1.015211E+0	1.009958E+0	1.028728E+0	9.930866E-1	1.041565E+0	1.043465E+0	1.005636E+0	1.020323E+0	1.027189E+0	1.062823E+0	1.001389E+0	1.006389E+0	1.041663E+0	1.064926E+0	1.011824E+0	1.034286E+0	9.996268E-1	1.030252E+0	1.041662E+0	1.004397E+0	9.879654E-1	1.044842E+0	1.020573E+0	1.054244E+0	1.013313E+0	9.997395E-1	1.037769E+0	1.060801E+0	1.011407E+0	1.049242E+0	1.005116E+0	1.040471E+0	9.940233E-1	1.015715E+0	1.001276E+0	9.960892E-1	1.045476E+0	1.033727E+0	1.035396E+0	1.028078E+0	1.024022E+0	1.032113E+0	1.037857E+0	1.021825E+0	1.027938E+0	1.016774E+0	9.999473E-1	1.059107E+0	1.034669E+0	1.041552E+0	1.008852E+0	1.015726E+0	1.014082E+0	1.033243E+0	9.862303E-1	1.063659E+0	1.026796E+0	1.003441E+0	1.019008E+0	1.036167E+0	1.019161E+0	1.046374E+0	1.004431E+0	1.009730E+0	1.036703E+0	1.033236E+0	9.583788E-1	1.037581E+0	9.978035E-1	1.018370E+0	1.016515E+0	1.024852E+0	1.025245E+0	9.719751E-1	1.026431E+0	1.026646E+0	9.969770E-1	1.052801E+0	1.033043E+0	1.065736E+0	1.036704E+0	1.023313E+0	9.582588E-1	9.879012E-1	1.056920E+0	1.003907E+0	1.009400E+0	1.011697E+0	1.049945E+0	1.000152E+0	1.015720E+0	1.024943E+0	9.815949E-1	1.011066E+0	1.026397E+0	1.042458E+0	1.025845E+0	1.010734E+0	1.016154E+0	9.789057E-1	1.023051E+0	9.772032E-1	1.016389E+0
5.580110E+2	1.016339E+0	1.022191E+0	9.743372E-1	1.014083E+0	9.986015E-1	1.008432E+0	1.008088E+0	9.917965E-1	1.007232E+0	1.043308E+0	9.968701E-1	1.045588E+0	9.647803E-1	1.003371E+0	1.004115E+0	9.803141E-1	9.961881E-1	1.055593E+0	9.834946E-1	9.723038E-1	1.027011E+0	1.019205E+0	9.734848E-1	1.035880E+0	1.020694E+0	1.034743E+0	1.013385E+0	1.018457E+0	1.008691E+0	1.035356E+0	9.807684E-1	1.013842E+0	1.012771E+0	1.040280E+0	9.806402E-1	1.001171E+0	1.009632E+0	1.039659E+0	1.004961E+0	1.039120E+0	1.011745E+0	9.970985E-1	1.041041E+0	1.018781E+0	1.040499E+0	9.837401E-1	9.752322E-1	9.884017E-1	9.904528E-1	1.025982E+0	1.013173E+0	1.013415E+0	9.842656E-1	9.816114E-1	1.009851E+0	1.032114E+0	9.981605E-1	1.016586E+0	1.005140E+0	9.970371E-1	1.020394E+0	1.035982E+0	9.704248E-1	1.021070E+0	9.805237E-1	1.013999E+0	9.976275E-1	1.021512E+0	9.551166E-1	9.685353E-1	9.900230E-1	1.053771E+0	9.785347E-1	1.017598E+0	1.002611E+0	1.038396E+0	1.004390E+0	1.019499E+0	9.929046E-1	9.986318E-1	1.022555E+0	9.654026E-1	1.004690E+0	9.986990E-1	1.052265E+0	1.022304E+0	1.018191E+0	1.040486E+0	1.000304E+0	1.039812E+0	9.981244E-1	9.608814E-1	9.956624E-1	1.059215E+0	9.601290E-1	1.045272E+0	9.887402E-1	1.000671E+0	9.751524E-1	1.015319E+0	1.004456E+0	1.016873E+0	9.722589E-1	9.769847E-1	1.015417E+0	1.008477E+0	9.716570E-1	1.011469E+0	1.012632E+0	9.980855E-1	9.788584E-1	1.009388E+0	1.036682E+0	9.852841E-1	1.001096E+0	9.921346E-1	1.009166E+0	9.835988E-1	1.007916E+0	1.010926E+0	1.015375E+0	1.016585E+0	1.004086E+0	9.622977E-1	1.053036E+0	9.760797E-1	9.656492E-1	9.916836E-1	9.934114E-1	1.066253E+0	1.042589E+0	9.896439E-1	1.033183E+0	1.006910E+0	1.012564E+0	1.036464E+0	1.039537E+0	1.006550E+0	9.605389E-1	9.878041E-1	9.969127E-1	1.021880E+0	1.031865E+0	9.854258E-1	9.706996E-1	9.926415E-1	1.048465E+0	1.018957E+0	1.005083E+0	1.030022E+0	1.024773E+0	9.905188E-1	9.979432E-1	9.904686E-1	1.062456E+0	9.844802E-1	9.845537E-1	1.001108E+0	1.021955E+0	1.019777E+0	1.018993E+0	1.039196E+0	9.950436E-1	1.004702E+0	1.026728E+0	9.523225E-1	1.020821E+0	9.737008E-1	1.034266E+0	9.684968E-1
5.585100E+2	9.671167E-1	9.780431E-1	1.004947E+0	9.674153E-1	9.690285E-1	9.786275E-1	1.017317E+0	1.000063E+0	9.804252E-1	9.739882E-1	9.700440E-1	9.605232E-1	9.834081E-1	9.758540E-1	9.665289E-1	9.826938E-1	9.697914E-1	9.555545E-1	9.859036E-1	9.898657E-1	1.017679E+0	9.472084E-1	9.272186E-1	9.774500E-1	9.910513E-1	1.003039E+0	9.656001E-1	9.845157E-1	1.024075E+0	9.705414E-1	9.550322E-1	9.914540E-1	9.702042E-1	9.452050E-1	9.685224E-1	9.629285E-1	9.971763E-1	9.672892E-1	9.362305E-1	9.776994E-1	9.905597E-1	9.593319E-1	9.561318E-1	9.713748E-1	1.014440E+0	9.873473E-1	9.961854E-1	9.733973E-1	9.645444E-1	1.007881E+0	9.577637E-1	9.479966E-1	9.671974E-1	9.565358E-1	9.771059E-1	9.466714E-1	9.942057E-1	9.964506E-1	9.588917E-1	9.759624E-1	9.493840E-1	9.908958E-1	1.008824E+0	9.585843E-1	1.005302E+0	9.639209E-1	9.136917E-1	9.657529E-1	1.027954E+0	9.928813E-1	9.684907E-1	9.447007E-1	1.009487E+0	9.842879E-1	9.409139E-1	9.693390E-1	9.535728E-1	9.991019E-1	9.538760E-1	9.901467E-1	9.885180E-1	9.685655E-1	9.770040E-1	9.741174E-1	9.901351E-1	9.425971E-1	9.378597E-1	9.828133E-1	9.438456E-1	9.838908E-1	9.790325E-1	1.000838E+0	9.899716E-1	9.733162E-1	9.515021E-1	1.001234E+0	9.608443E-1	9.523020E-1	9.988250E-1	9.925748E-1	9.722894E-1	1.005605E+0	9.648691E-1	1.016744E+0	9.790171E-1	1.000591E+0	9.551160E-1	9.942974E-1	9.587214E-1	9.565589E-1	9.937624E-1	1.005083E+0	9.959500E-1	1.012606E+0	9.451356E-1	9.856977E-1	9.782258E-1	1.019353E+0	9.926721E-1	9.833871E-1	9.688800E-1	1.003147E+0	9.658852E-1	1.013263E+0	9.676904E-1	9.685809E-1	9.667204E-1	9.583696E-1	9.926712E-1	9.749042E-1	9.609300E-1	9.901635E-1	9.679759E-1	9.777454E-1	9.763834E-1	9.702411E-1	9.816454E-1	9.785699E-1	9.930456E-1	1.004233E+0	1.014415E+0	9.716180E-1	9.355872E-1	1.009818E+0	9.456775E-1	9.855934E-1	9.561258E-1	9.899503E-1	9.654494E-1	9.599371E-1	9.933822E-1	9.128270E-1	1.032751E+0	1.008769E+0	9.765594E-1	9.849981E-1	9.712496E-1	9.689570E-1	9.813708E-1	1.006717E+0	9.344592E-1	1.063500E+0	9.753511E-1	9.803489E-1	9.304683E-1	9.914965E-1	9.746432E-1	9.667155E-1	9.227933E-1	9.831033E-1
5.590040E+2	1.100007E+0	1.059508E+0	1.068510E+0	1.037895E+0	1.051687E+0	1.063625E+0	1.062150E+0	1.028928E+0	1.028629E+0	1.054913E+0	1.052801E+0	1.051206E+0	1.091193E+0	1.027888E+0	1.006592E+0	1.015395E+0	1.050285E+0	1.042833E+0	1.067284E+0	1.008728E+0	1.052190E+0	1.025313E+0	1.037978E+0	1.023093E+0	1.031644E+0	1.047014E+0	1.037213E+0	1.016104E+0	1.019979E+0	1.083587E+0	1.052228E+0	1.034451E+0	1.041672E+0	1.044885E+0	1.066196E+0	1.055007E+0	1.028489E+0	1.052006E+0	1.067123E+0	1.086102E+0	1.022162E+0	1.048167E+0	1.036244E+0	1.068447E+0	1.037842E+0	1.063606E+0	1.049797E+0	1.013307E+0	1.103308E+0	1.023702E+0	1.005218E+0	1.054289E+0	1.049505E+0	1.085569E+0	1.053953E+0	1.027333E+0	1.007845E+0	1.067305E+0	1.040289E+0	1.069638E+0	1.091149E+0	1.057066E+0	1.015329E+0	1.006657E+0	1.015922E+0	1.038932E+0	1.071405E+0	1.040318E+0	1.013355E+0	1.045748E+0	1.056850E+0	1.044236E+0	1.023205E+0	1.051467E+0	1.044390E+0	9.921948E-1	1.027388E+0	1.043337E+0	9.890479E-1	1.067137E+0	1.016644E+0	1.043047E+0	1.062039E+0	1.098910E+0	1.041514E+0	1.009904E+0	1.076457E+0	1.054626E+0	1.056077E+0	1.073635E+0	1.025660E+0	1.038419E+0	1.063930E+0	1.049782E+0	1.058672E+0	1.048659E+0	1.023249E+0	1.029834E+0	1.045838E+0	1.030272E+0	1.049390E+0	1.030543E+0	1.053835E+0	1.045475E+0	1.012755E+0	1.048577E+0	1.083983E+0	1.020269E+0	1.080068E+0	1.012898E+0	1.050490E+0	1.050694E+0	1.014098E+0	1.109109E+0	1.056351E+0	1.002801E+0	1.081864E+0	1.068943E+0	1.071966E+0	1.030040E+0	1.024154E+0	1.050799E+0	1.014955E+0	1.041581E+0	1.050614E+0	1.022783E+0	1.027714E+0	1.085387E+0	1.040640E+0	1.021861E+0	9.834765E-1	1.023722E+0	1.050475E+0	1.048729E+0	9.846583E-1	1.025718E+0	1.020434E+0	1.057077E+0	1.044929E+0	1.038392E+0	1.061322E+0	1.024190E+0	1.029311E+0	1.066588E+0	1.055965E+0	1.087648E+0	1.022204E+0	9.874459E-1	1.064585E+0	1.047634E+0	1.096577E+0	1.042792E+0	1.075013E+0	1.027204E+0	1.013386E+0	1.045287E+0	1.042289E+0	1.050543E+0	1.054580E+0	1.042250E+0	1.011018E+0	9.981428E-1	1.059076E+0	1.046593E+0	1.047478E+0	1.027606E+0	1.058633E+0	1.065214E+0	1.116177E+0	9.660532E-1
5.595110E+2	1.037461E+0	1.078231E+0	1.066446E+0	1.076459E+0	1.077248E+0	1.062608E+0	1.058965E+0	1.078541E+0	1.066693E+0	1.053759E+0	1.066352E+0	1.064586E+0	1.065387E+0	1.025499E+0	1.018853E+0	1.076154E+0	1.058955E+0	1.042012E+0	1.060545E+0	1.041735E+0	1.050890E+0	1.080741E+0	1.041761E+0	1.037053E+0	1.058034E+0	1.040068E+0	1.069043E+0	1.103884E+0	1.047145E+0	1.012909E+0	1.074629E+0	1.086685E+0	1.011201E+0	1.063486E+0	1.082556E+0	1.043010E+0	1.043334E+0	1.079666E+0	1.037838E+0	1.010801E+0	9.850142E-1	1.040856E+0	1.037079E+0	1.020936E+0	1.029543E+0	1.033586E+0	1.039989E+0	1.063039E+0	9.956210E-1	1.071201E+0	1.083267E+0	1.051482E+0	1.049619E+0	1.045372E+0	1.037897E+0	1.049540E+0	1.053711E+0	1.021501E+0	1.064761E+0	1.064864E+0	1.029210E+0	1.046277E+0	1.040090E+0	1.095083E+0	1.034672E+0	1.035549E+0	1.062522E+0	1.057322E+0	1.041869E+0	1.078108E+0	1.045647E+0	1.070726E+0	1.062631E+0	1.052982E+0	1.027632E+0	1.027548E+0	1.073340E+0	1.024087E+0	1.065058E+0	1.047827E+0	1.111517E+0	1.016261E+0	1.094084E+0	1.054066E+0	1.054442E+0	1.098235E+0	1.058829E+0	1.049910E+0	1.035366E+0	1.038725E+0	1.076962E+0	1.054379E+0	1.025555E+0	1.069557E+0	1.020450E+0	1.036608E+0	1.062192E+0	1.054055E+0	1.041432E+0	1.090865E+0	1.060550E+0	1.051978E+0	1.035824E+0	1.046585E+0	1.037034E+0	1.056644E+0	1.022420E+0	1.069996E+0	1.041367E+0	1.089922E+0	1.039000E+0	1.008080E+0	1.050552E+0	1.086345E+0	1.073009E+0	1.025269E+0	1.089544E+0	1.046177E+0	1.015942E+0	1.052825E+0	1.042381E+0	1.083113E+0	1.091602E+0	1.079208E+0	1.022143E+0	1.085021E+0	1.063309E+0	1.052733E+0	1.051121E+0	1.069993E+0	1.026345E+0	1.025775E+0	1.067744E+0	1.082688E+0	1.080312E+0	1.006546E+0	1.002155E+0	1.088542E+0	1.027781E+0	1.045926E+0	1.024868E+0	1.037947E+0	1.020210E+0	1.044205E+0	1.034823E+0	1.047955E+0	1.023816E+0	1.034094E+0	1.076784E+0	1.060895E+0	1.060816E+0	1.038226E+0	1.056294E+0	1.049359E+0	1.034516E+0	1.020785E+0	1.089169E+0	1.042388E+0	1.044026E+0	1.048805E+0	1.071928E+0	1.067875E+0	1.045961E+0	1.063720E+0	1.069574E+0	1.120619E+0	1.050450E+0	1.046872E+0	1.034809E+0	1.100772E+0
5.600300E+2	9.602143E-1	9.178030E-1	9.446407E-1	8.885556E-1	9.716317E-1	9.568756E-1	9.313926E-1	9.217163E-1	9.283327E-1	9.220392E-1	9.625483E-1	9.505885E-1	9.510596E-1	9.655872E-1	9.284978E-1	9.657238E-1	9.767050E-1	9.825485E-1	9.484386E-1	9.468399E-1	9.208683E-1	9.442404E-1	9.612276E-1	9.560113E-1	9.183959E-1	8.949758E-1	9.343984E-1	9.424158E-1	9.383555E-1	9.296374E-1	9.417272E-1	9.406476E-1	9.546347E-1	9.249997E-1	8.989257E-1	9.374801E-1	9.601997E-1	9.326983E-1	9.299013E-1	9.082920E-1	9.926526E-1	9.819781E-1	9.594402E-1	9.243164E-1	9.471284E-1	9.362928E-1	9.474392E-1	9.671204E-1	9.565046E-1	9.017013E-1	9.629821E-1	9.692094E-1	9.427028E-1	9.465312E-1	9.399277E-1	9.539346E-1	9.790110E-1	9.274699E-1	9.408978E-1	9.948040E-1	9.479705E-1	9.292701E-1	9.361387E-1	9.442421E-1	9.330736E-1	9.226114E-1	9.484460E-1	9.693162E-1	9.991528E-1	9.571851E-1	9.797756E-1	9.756200E-1	9.601229E-1	9.208838E-1	9.627746E-1	9.822868E-1	9.508475E-1	9.418244E-1	9.587139E-1	9.398419E-1	9.600257E-1	9.413341E-1	9.528325E-1	9.523404E-1	9.899371E-1	9.459692E-1	9.462955E-1	9.619717E-1	9.074323E-1	9.233583E-1	9.532059E-1	9.584386E-1	9.230203E-1	9.289970E-1	9.330255E-1	9.440584E-1	9.427039E-1	9.647480E-1	9.551510E-1	9.401899E-1	9.516082E-1	9.222475E-1	9.541846E-1	9.359467E-1	9.508536E-1	9.273418E-1	9.063111E-1	9.359575E-1	9.598261E-1	9.796713E-1	9.284782E-1	9.645236E-1	9.075369E-1	9.318127E-1	9.155023E-1	9.499622E-1	8.898958E-1	9.366880E-1	9.444998E-1	9.730683E-1	9.214218E-1	9.569454E-1	9.781106E-1	9.205760E-1	9.641387E-1	9.701898E-1	9.495849E-1	9.673694E-1	9.168205E-1	9.199618E-1	9.613169E-1	9.218694E-1	9.346517E-1	9.802785E-1	9.588670E-1	9.696038E-1	9.274223E-1	9.555659E-1	9.318156E-1	9.083301E-1	8.937960E-1	9.675588E-1	9.536507E-1	9.257863E-1	9.373885E-1	9.378462E-1	9.339728E-1	9.432033E-1	8.903696E-1	9.609133E-1	9.179498E-1	9.263272E-1	9.436725E-1	9.367716E-1	9.187523E-1	9.612229E-1	9.461533E-1	9.537082E-1	8.811043E-1	9.616521E-1	9.457236E-1	9.024498E-1	9.373475E-1	9.363881E-1	9.321811E-1	9.312804E-1	9.312086E-1	9.401486E-1	9.858966E-1	9.593912E-1
5.605090E+2	1.012597E+0	9.716638E-1	9.547059E-1	1.016883E+0	9.909078E-1	9.991523E-1	9.933826E-1	9.903417E-1	9.948242E-1	1.036219E+0	1.012071E+0	9.751508E-1	1.001114E+0	9.981195E-1	9.711533E-1	1.024529E+0	1.047715E+0	9.858752E-1	1.000064E+0	9.702393E-1	9.900880E-1	9.891526E-1	9.993770E-1	1.004773E+0	9.897643E-1	9.766338E-1	9.762389E-1	1.006528E+0	1.010269E+0	1.026688E+0	1.025137E+0	9.906744E-1	9.862536E-1	9.929291E-1	1.018041E+0	9.902164E-1	1.018622E+0	1.008621E+0	1.005040E+0	1.004725E+0	9.842643E-1	9.877117E-1	9.704855E-1	1.023621E+0	9.582459E-1	9.877242E-1	1.013222E+0	9.970277E-1	9.932395E-1	9.640651E-1	1.004017E+0	9.915524E-1	1.004733E+0	9.860736E-1	9.933271E-1	1.038952E+0	9.722041E-1	9.977115E-1	1.004038E+0	9.933256E-1	9.918746E-1	1.004451E+0	1.008951E+0	1.003569E+0	9.807814E-1	1.058606E+0	9.713123E-1	1.029697E+0	9.779861E-1	9.839348E-1	9.943829E-1	9.981589E-1	9.896492E-1	1.045991E+0	1.005575E+0	9.856508E-1	9.828959E-1	1.004446E+0	9.640063E-1	1.022326E+0	9.544072E-1	1.017827E+0	9.249550E-1	9.901845E-1	9.881337E-1	1.018548E+0	9.970937E-1	9.742119E-1	9.990279E-1	9.859527E-1	1.017427E+0	1.051440E+0	9.960024E-1	9.446533E-1	9.714175E-1	9.445660E-1	9.946206E-1	9.903862E-1	9.586167E-1	9.938852E-1	1.000833E+0	1.002773E+0	1.004637E+0	9.688694E-1	1.013110E+0	9.801193E-1	9.962265E-1	9.768951E-1	1.016620E+0	9.675134E-1	9.797907E-1	1.025434E+0	1.001029E+0	9.760002E-1	9.714625E-1	1.019471E+0	9.910579E-1	1.028898E+0	9.987446E-1	9.590790E-1	9.841351E-1	9.409435E-1	9.823793E-1	9.734467E-1	1.005516E+0	9.790376E-1	9.919535E-1	1.000596E+0	9.956527E-1	9.764480E-1	1.044051E+0	1.012814E+0	1.019181E+0	1.020097E+0	1.005830E+0	9.493496E-1	1.028013E+0	9.411842E-1	9.820511E-1	1.024868E+0	1.022726E+0	9.970985E-1	1.025431E+0	9.875463E-1	1.011798E+0	9.743203E-1	9.876803E-1	1.021063E+0	9.961509E-1	1.030687E+0	9.599221E-1	9.961739E-1	1.006810E+0	9.750105E-1	1.007641E+0	9.659973E-1	9.885026E-1	1.019214E+0	9.748943E-1	1.014205E+0	1.002448E+0	1.017618E+0	9.763285E-1	1.011758E+0	1.010738E+0	9.962852E-1	9.995800E-1	9.988994E-1	1.038491E+0	9.663367E-1
5.610070E+2	9.815530E-1	1.025974E+0	1.004504E+0	9.997429E-1	9.914755E-1	1.053247E+0	1.017919E+0	1.012466E+0	1.010588E+0	9.855327E-1	1.009967E+0	1.017335E+0	1.020753E+0	1.027348E+0	1.038133E+0	1.004726E+0	9.985759E-1	9.828596E-1	9.942878E-1	1.016914E+0	1.004074E+0	1.052062E+0	1.005172E+0	9.859750E-1	1.002961E+0	1.042303E+0	1.010200E+0	9.634678E-1	1.037467E+0	9.933975E-1	1.010618E+0	9.852478E-1	1.049719E+0	1.029887E+0	1.017471E+0	1.016568E+0	9.790819E-1	1.042137E+0	1.029772E+0	9.992350E-1	1.043065E+0	1.039889E+0	1.021426E+0	1.005781E+0	9.731023E-1	1.009450E+0	1.003983E+0	1.029741E+0	1.043760E+0	9.764071E-1	1.033273E+0	1.039977E+0	1.036323E+0	9.933015E-1	1.051912E+0	1.024454E+0	1.038097E+0	9.770128E-1	1.010507E+0	9.679763E-1	1.020367E+0	1.022611E+0	1.034718E+0	1.024318E+0	1.053779E+0	1.023706E+0	1.013904E+0	9.794773E-1	9.875903E-1	1.051272E+0	1.016849E+0	9.724733E-1	1.026148E+0	1.017888E+0	1.038024E+0	1.001725E+0	1.018973E+0	1.038032E+0	1.020100E+0	9.946271E-1	1.030479E+0	9.925487E-1	1.036221E+0	9.880159E-1	9.774653E-1	9.862246E-1	1.012356E+0	1.029052E+0	1.036411E+0	1.020904E+0	9.878882E-1	1.022911E+0	1.024309E+0	9.863273E-1	1.061076E+0	1.030532E+0	1.055818E+0	1.050042E+0	9.966156E-1	1.036554E+0	1.004491E+0	1.019930E+0	1.005558E+0	1.018907E+0	9.847947E-1	1.032605E+0	1.043899E+0	1.008929E+0	9.849528E-1	9.987941E-1	1.004240E+0	1.015305E+0	9.971667E-1	1.030669E+0	1.030221E+0	1.065088E+0	9.907261E-1	9.584200E-1	9.548372E-1	1.016120E+0	1.023500E+0	9.982636E-1	9.833085E-1	1.048517E+0	1.020423E+0	1.011886E+0	9.610870E-1	1.006770E+0	1.041441E+0	1.017647E+0	9.812156E-1	1.020636E+0	1.003185E+0	1.017904E+0	1.049110E+0	1.047418E+0	1.062703E+0	1.019790E+0	1.019956E+0	1.012996E+0	1.050842E+0	1.019837E+0	9.967687E-1	1.013809E+0	1.030743E+0	9.855208E-1	1.000765E+0	9.978668E-1	1.003451E+0	1.004600E+0	1.011154E+0	1.002702E+0	1.012393E+0	1.018774E+0	9.937703E-1	1.018338E+0	1.012776E+0	1.000244E+0	1.015504E+0	9.850656E-1	9.899267E-1	9.562089E-1	9.920382E-1	9.900336E-1	1.033542E+0	1.033921E+0	1.013489E+0	1.033425E+0	1.054524E+0	1.061827E+0
