Photon Energy (eV)	#1	#2	#3	#4	#5	#6	#7	#8	#9	#10	#11	#12	#13	#14	#15	#16	#17	#18	#19	#20	#21	#22	#23	#24	#25	#26	#27	#28	#29	#30	#31	#32	#33	#34	#35	#36	#37	#38	#39	#40	#41	#42	#43	#44	#45	#46	#47	#48	#49	#50	#51	#52	#53	#54	#55	#56	#57	#58	#59	#60	#61	#62	#63	#64	#65	#66	#67	#68	#69	#70	#71	#72	#73	#74	#75	#76	#77	#78	#79	#80	#81	#82	#83	#84	#85	#86	#87	#88	#89	#90	#91	#92	#93	#94	#95	#96	#97	#98	#99	#100	#101	#102	#103	#104	#105	#106	#107	#108	#109	#110	#111	#112	#113	#114	#115	#116	#117	#118	#119	#120	#121	#122	#123	#124	#125	#126	#127	#128	#129	#130	#131	#132	#133	#134	#135	#136	#137	#138	#139	#140	#141	#142	#143	#144	#145	#146	#147	#148	#149	#150	#151	#152	#153	#154	#155	#156	#157	#158	#159	#160	#161	#162	#163	#164	#165	#166	#167	#168	#169	#170	
5.300160E+2	-6.854619E-3	-1.090926E-2	-8.335630E-3	-3.555448E-3	-3.029891E-3	-5.225124E-3	-4.912447E-3	-1.098308E-2	3.675029E-3	-8.308716E-3	-1.062680E-2	-3.051764E-3	-7.810155E-3	-5.564532E-3	-1.166348E-2	-9.519532E-3	-5.684122E-3	-8.051761E-3	-1.003793E-2	-1.426608E-2	4.971888E-3	-2.238924E-3	-2.461198E-4	-1.064328E-2	-9.866111E-3	-1.470815E-2	-1.261939E-2	-4.201448E-3	3.014179E-4	-8.574128E-3	-6.676387E-3	4.470118E-5	-9.995313E-3	-1.005843E-2	7.198867E-5	-4.164859E-3	-2.799236E-3	-8.608921E-3	-9.247524E-3	-6.964425E-3	-6.076761E-3	-3.679756E-3	-3.342285E-3	-6.061395E-3	-2.274681E-3	-4.021534E-3	-1.040705E-2	-5.343541E-3	-1.233198E-2	-7.355723E-3	-1.283755E-2	-5.610996E-3	-6.237696E-3	-6.288371E-3	-5.968305E-3	-6.707008E-3	-1.285887E-2	-1.572603E-2	-3.100322E-3	-1.118131E-2	-8.384165E-3	-1.242992E-2	-1.891644E-2	-3.464931E-4	-1.012486E-2	-1.536572E-4	-7.930173E-3	6.380516E-3	-4.254401E-3	-7.531866E-3	-4.971433E-4	-1.151494E-2	-6.847380E-3	-2.484708E-3	-9.818333E-3	-5.439334E-3	-7.750380E-3	-1.261716E-2	-1.609556E-3	-1.024101E-3	-7.596330E-3	-7.146160E-4	-1.342755E-2	-6.004107E-3	-3.610242E-3	-1.936173E-3	-5.006680E-3	-1.265859E-2	9.232746E-4	-1.038998E-2	-7.611092E-3	-1.453226E-2	-1.105530E-2	-1.170991E-2	-1.436559E-3	-3.672340E-3	-4.504180E-3	-8.209654E-3	-9.590202E-3	3.371158E-3	-1.507718E-2	-6.271732E-3	-1.741039E-2	-9.956564E-3	-2.610785E-3	-3.762189E-3	-8.057099E-3	-6.125071E-3	-1.131036E-2	-2.472975E-3	-1.222903E-2	-1.130270E-2	2.940916E-4	9.835451E-4	2.297493E-3	-1.110966E-2	-5.386456E-3	-9.720017E-3	-9.411297E-3	-1.492148E-2	-7.704449E-3	-9.836580E-3	-2.817735E-4	-8.505991E-3	-1.213949E-2	-8.561777E-3	-1.282699E-2	-1.403982E-2	-8.543510E-3	-1.170557E-2	-1.075557E-2	-1.311167E-3	-5.483055E-4	2.153829E-3	-1.376515E-2	-5.507294E-3	-1.773945E-2	2.219381E-3	-1.145077E-2	-1.315675E-2	-9.648317E-3	-1.224887E-3	-1.334803E-3	-4.097985E-3	1.004930E-3	-1.192045E-2	6.167061E-3	-1.121044E-2	-9.842032E-3	-1.195296E-2	-3.987860E-3	-8.487190E-3	-4.934019E-3	-9.512150E-3	-5.637811E-3	-4.638343E-3	-9.691162E-3	-1.359035E-2	1.850585E-3	-4.847540E-3	-8.151251E-3	-1.042205E-2	-1.849356E-3	-1.642491E-2	-1.253801E-2	-1.267002E-2	-3.622996E-3	-1.986994E-3	2.099488E-3	-1.783485E-3
5.305130E+2	-4.368070E-3	-2.272392E-3	2.660403E-3	-5.962047E-3	7.736053E-3	-6.025570E-3	-1.403119E-3	-8.228789E-3	-3.427005E-3	1.823488E-4	1.607805E-3	-5.492406E-3	-7.533656E-3	-5.823260E-3	-1.807668E-3	-4.845188E-3	-9.679001E-3	-1.545570E-3	-1.087161E-2	-1.866833E-3	-8.101766E-3	-4.889117E-3	1.152568E-3	8.168582E-4	4.789196E-4	-1.393948E-2	-4.429689E-3	-9.594071E-3	-4.096528E-4	9.449306E-4	-1.745204E-4	5.020642E-3	-1.055821E-3	-8.024244E-3	-9.303294E-3	-1.644759E-3	6.083433E-4	1.872169E-3	-5.558007E-4	-1.211760E-3	1.022811E-3	-8.425078E-3	-7.527205E-4	1.393464E-3	-2.478422E-3	-1.198491E-2	-7.044138E-4	-4.546115E-3	4.356127E-3	5.688541E-5	-1.147826E-2	-1.155993E-2	-7.444178E-3	-1.327514E-4	-2.438504E-3	-3.968016E-3	1.911796E-3	-6.158720E-3	-2.757087E-3	-9.218984E-3	7.237459E-3	-6.271489E-3	6.095832E-5	-9.621097E-3	-1.826583E-3	-5.222865E-3	-7.048130E-3	-8.480055E-3	-4.497211E-3	-7.216085E-3	-7.035339E-4	-1.169208E-2	-2.188035E-3	-1.182681E-2	-1.646421E-2	-1.464260E-4	4.081162E-4	2.983075E-3	-6.668166E-3	-1.470232E-4	-4.885477E-3	-4.837100E-3	-1.266430E-3	-4.681556E-3	-2.763651E-3	-8.439982E-3	3.847662E-4	-2.292835E-3	-3.463319E-3	2.343502E-3	1.514922E-3	-1.574731E-3	-3.061050E-3	-9.507134E-5	-8.770703E-3	-6.853132E-3	-6.944154E-3	6.716146E-3	-3.051653E-4	-5.350274E-3	3.293087E-4	2.552837E-3	9.336164E-3	-5.320161E-3	2.846073E-3	-2.272690E-3	-6.560539E-5	-4.478432E-3	-6.060069E-3	-8.517062E-3	-1.311552E-2	-6.120471E-3	-5.316565E-3	-7.149208E-3	3.753385E-3	-1.020517E-2	-6.298109E-4	-6.560171E-3	-5.089791E-3	5.391222E-3	5.953148E-3	-9.521534E-3	6.623288E-3	-1.074562E-2	6.407109E-3	-7.666439E-3	-7.326496E-3	-8.793895E-4	-3.347601E-3	-8.461019E-3	-8.131069E-3	2.381316E-3	-1.288690E-2	-2.409285E-3	2.249745E-3	-3.023778E-3	-3.106344E-3	-2.631220E-3	-5.413222E-3	7.886130E-3	1.290891E-3	-8.178774E-3	-2.733710E-3	3.510360E-3	-4.304943E-3	-1.732947E-3	-9.914733E-3	-1.621293E-3	-6.480366E-4	-5.456052E-3	5.225896E-4	8.536841E-4	-1.117147E-2	-2.169499E-3	-3.141678E-3	-2.676866E-3	-8.356011E-3	-3.574883E-3	-6.563011E-3	-1.062080E-2	2.256143E-3	-6.014594E-3	-6.208117E-3	-2.566431E-3	-2.392775E-3	-8.496443E-4	-8.680648E-3	-1.395881E-2	-1.059208E-2	3.142706E-2
5.310100E+2	-3.727537E-3	1.549459E-3	-3.390155E-3	1.767340E-3	-2.729653E-3	1.226641E-2	-5.093077E-3	-1.159470E-3	-2.353323E-3	-5.703691E-3	-1.091525E-2	-2.116287E-3	-2.946559E-3	4.402508E-4	2.827170E-3	-1.480017E-3	1.926392E-3	-4.450073E-3	5.187530E-3	8.830274E-3	-6.483026E-3	-9.343674E-3	7.752966E-4	6.416050E-3	-2.262183E-3	3.948193E-3	-2.252020E-3	7.032704E-3	-2.441728E-3	-1.183559E-2	-7.454587E-3	-7.345323E-3	-5.650448E-3	1.499598E-3	-3.426954E-5	-6.558082E-3	-7.071350E-3	-5.079764E-3	7.065220E-4	-2.813503E-3	-8.462550E-3	-2.677401E-3	-5.885173E-3	-1.291321E-3	-3.282057E-4	-3.640611E-3	-2.904056E-3	-1.972383E-3	-7.678569E-3	-7.030499E-3	9.754783E-3	4.078952E-4	-7.869835E-3	-1.566665E-3	3.102879E-3	3.061867E-3	-2.450634E-3	-1.686462E-3	-9.251088E-3	3.723080E-3	-5.516355E-3	3.167067E-4	1.963584E-3	-4.941500E-3	-9.329701E-3	-1.053032E-3	3.130679E-3	-1.229056E-2	-8.856762E-3	-8.661009E-3	-2.800040E-3	-2.222408E-4	-2.068249E-3	7.167025E-3	9.106355E-4	-9.048192E-3	-3.145718E-3	-2.027859E-4	-6.025981E-3	-6.678815E-3	3.840830E-3	4.169808E-3	-4.858007E-4	-4.539604E-3	-4.431721E-3	-5.104992E-3	5.145748E-3	-1.374393E-2	-7.003515E-3	-5.969749E-3	-8.562289E-3	1.141588E-2	-1.035065E-2	-2.942519E-3	-1.419118E-2	-1.388561E-2	2.079584E-3	-7.405877E-3	-1.872873E-3	-9.579772E-3	-3.983462E-3	-4.309797E-3	-5.955788E-3	1.679779E-4	-9.276122E-3	-2.800253E-3	-7.759746E-3	-6.558867E-3	-1.449852E-3	-9.124433E-3	-1.455839E-3	1.266181E-3	-8.047952E-3	-9.609142E-3	1.637226E-3	5.155731E-3	-4.437084E-3	3.857706E-3	-4.268026E-4	3.492046E-3	-9.529302E-3	-1.627236E-3	-4.139129E-3	-4.975237E-3	-5.507150E-3	-8.841594E-3	1.452972E-3	-4.124702E-3	5.651181E-4	-2.523797E-3	4.779628E-3	5.112609E-3	1.999059E-3	-5.128201E-3	2.373303E-3	-1.307310E-3	-5.688207E-3	-7.295061E-3	7.995024E-3	1.453318E-3	-8.804872E-3	-3.270372E-3	3.212688E-3	5.759438E-3	-6.003677E-3	-2.404746E-3	-1.272701E-3	4.265900E-3	-7.875587E-3	4.277691E-3	-1.447710E-2	-9.633554E-3	9.931536E-4	-7.468006E-3	-5.901288E-3	2.874180E-3	4.125608E-3	-1.723032E-3	-1.550811E-3	1.819127E-3	-3.674237E-3	-7.777194E-5	-1.144141E-2	5.506360E-3	-8.223405E-3	-2.221553E-3	-8.747533E-3	6.627856E-4	-7.040261E-3	-1.211393E-2
5.315180E+2	2.804508E-4	-4.134414E-3	8.850700E-4	3.018831E-3	-8.191826E-3	-4.222529E-3	5.321147E-3	1.005045E-2	5.860116E-3	-3.781739E-3	3.641996E-3	3.641319E-3	9.914782E-3	3.439123E-3	1.313020E-4	-1.338658E-3	-1.793613E-3	4.549990E-3	-4.146881E-3	-1.618839E-3	-3.721133E-3	5.427195E-3	-6.520240E-3	-3.022591E-4	-1.063228E-2	6.928487E-3	4.887821E-3	-2.038097E-3	-3.369663E-3	-6.443613E-3	3.187927E-3	-4.183137E-4	1.501413E-3	-1.610195E-4	-9.219068E-3	-5.869649E-3	7.166118E-3	-3.854765E-3	-2.827752E-3	-7.230807E-3	2.855951E-3	9.280123E-4	1.765942E-3	-8.409453E-3	-3.863648E-3	4.235413E-4	-5.174669E-4	1.157416E-3	-2.549179E-3	3.957984E-3	2.619842E-3	4.587732E-3	-2.523144E-3	-8.938743E-3	2.738477E-3	-2.234346E-3	-2.798588E-3	-9.754105E-4	5.831437E-3	5.233370E-4	-3.905507E-3	5.944926E-3	-1.200306E-2	2.418389E-3	8.628733E-3	-4.870438E-3	3.895593E-3	-4.960903E-3	-7.082255E-3	1.220858E-2	-4.858493E-3	2.812546E-3	-8.156304E-4	-1.011158E-2	5.751202E-3	6.269285E-3	2.847775E-3	2.755662E-3	-4.218743E-3	-1.121089E-2	-3.093934E-4	-3.968182E-3	7.849788E-4	2.899490E-3	-7.827342E-4	-1.207118E-3	-1.081062E-2	2.142176E-3	-1.026075E-3	-1.606397E-3	-6.460769E-4	-3.974983E-3	2.147802E-3	-3.966228E-3	1.045757E-3	-2.388402E-3	5.068152E-3	1.129467E-3	-2.867575E-3	4.611610E-3	-1.535523E-3	-7.833664E-3	2.810685E-4	2.528976E-3	-7.867021E-4	2.739983E-3	-6.464293E-3	-4.392993E-3	-1.184955E-3	-3.077958E-3	-3.074207E-3	5.145139E-3	2.012470E-3	4.164648E-3	-8.185143E-3	-4.426047E-3	-3.655446E-4	3.448611E-3	3.291602E-3	-1.672626E-3	5.860855E-3	5.255316E-3	-5.213586E-3	1.042443E-3	2.062043E-3	5.365298E-3	-1.483489E-4	1.020997E-2	-2.016281E-3	8.433737E-3	-5.077285E-3	-8.651972E-5	1.654773E-3	-6.654024E-3	-2.972439E-3	-7.130604E-3	-2.288919E-3	-3.613939E-3	-2.403868E-3	-7.848921E-4	1.158060E-3	-8.694622E-3	-3.751876E-3	-1.147126E-2	-6.441296E-3	3.393140E-3	3.514919E-3	4.422487E-3	-2.096235E-3	4.403828E-4	5.099144E-3	-4.908996E-3	1.157863E-3	1.224931E-2	1.038133E-2	2.499029E-3	-1.403701E-3	-1.575111E-3	-5.300911E-3	4.376726E-4	-4.131687E-3	6.732634E-4	-2.217110E-3	-6.416443E-3	1.334783E-3	-1.549577E-3	-9.476462E-5	3.200948E-3	5.209425E-3	-6.123356E-3
5.320120E+2	3.358807E-3	8.586773E-3	4.825123E-3	-7.649079E-3	-3.326829E-3	-2.676309E-3	-3.508249E-3	4.823695E-3	-3.882851E-3	5.571966E-3	8.657638E-3	-2.700347E-3	6.785554E-4	1.584332E-3	2.344567E-3	3.482191E-3	4.340661E-3	-2.603155E-3	1.128347E-2	-5.156837E-3	7.105897E-3	1.138094E-3	-1.901490E-3	-3.922306E-3	5.640736E-3	-2.678142E-3	5.494738E-3	7.626285E-3	1.315595E-3	5.596423E-3	-3.037272E-3	-5.775729E-3	2.531887E-3	3.192600E-3	3.664011E-3	1.746454E-3	-2.388019E-3	8.516232E-4	-2.993577E-3	6.367450E-3	9.082541E-3	3.014815E-3	2.860705E-3	1.498805E-3	1.786940E-3	6.045280E-3	2.272830E-3	1.998365E-3	3.402271E-3	5.213854E-3	1.934413E-3	9.564490E-3	8.718422E-3	2.431773E-3	-1.764597E-3	5.972781E-4	5.161455E-3	8.851916E-3	-7.471864E-3	3.153193E-3	6.109131E-3	3.583941E-3	1.049772E-2	3.260568E-3	-1.213553E-3	4.989585E-3	7.305611E-3	4.261698E-3	1.363807E-2	6.324131E-3	-3.897169E-3	7.550395E-4	6.159659E-3	6.073760E-3	6.743241E-3	4.770888E-4	2.139575E-3	9.896244E-4	1.151863E-3	8.042146E-3	7.595046E-4	5.903959E-3	-4.346719E-3	1.605522E-3	2.554432E-3	3.953990E-3	1.032410E-2	5.389819E-3	-1.285065E-4	6.085817E-3	9.824767E-4	-3.710719E-4	4.266568E-3	4.970835E-3	4.210484E-3	3.665892E-3	-2.355070E-3	-1.985336E-3	6.712385E-3	-4.604213E-4	3.423176E-3	1.252364E-2	5.376367E-3	-9.561243E-4	6.669652E-3	-4.524451E-3	1.553146E-2	4.071644E-3	4.163455E-3	8.507115E-3	3.212996E-3	-3.692789E-3	-3.690441E-4	7.636943E-3	-5.014926E-3	3.803825E-3	-5.556706E-4	-4.293474E-3	-1.955261E-3	-2.741137E-4	2.952708E-3	1.974845E-3	4.345019E-5	1.056198E-2	5.045907E-3	1.450068E-2	7.304265E-3	3.192313E-3	4.386482E-3	-2.558489E-3	6.285740E-4	-8.341611E-3	4.559559E-3	3.734140E-3	-2.593333E-3	1.332428E-2	1.368967E-2	3.265932E-3	9.474858E-4	2.622622E-3	5.400736E-3	7.192763E-3	-1.558329E-3	2.586883E-3	3.748435E-3	1.318372E-3	-1.295740E-3	4.819921E-3	5.030474E-3	8.209370E-4	-3.230323E-4	9.649501E-3	-5.121360E-3	2.260559E-3	1.897585E-3	-4.223912E-4	2.052674E-3	1.484911E-2	-2.676782E-3	3.355073E-3	4.101229E-3	9.978339E-3	6.656625E-3	-8.334562E-4	9.354770E-3	-2.021961E-4	3.467362E-3	1.437056E-3	2.020433E-3	-1.020140E-2
5.325120E+2	1.131097E-2	7.179836E-3	3.355189E-3	1.238040E-2	9.542147E-3	5.883124E-3	9.595745E-3	5.497195E-3	1.280323E-4	1.203983E-2	7.634619E-3	9.719484E-3	7.697032E-3	5.924086E-3	8.168109E-3	1.370120E-2	1.088968E-2	1.210057E-2	8.585417E-3	1.407831E-2	6.228140E-3	9.906427E-3	6.739985E-3	7.634932E-3	1.664092E-2	2.044909E-2	8.918540E-3	1.174627E-3	4.604031E-3	2.031197E-2	1.415484E-2	8.474023E-3	1.266828E-2	1.355149E-2	1.482063E-2	1.649089E-2	4.484144E-3	1.481966E-2	1.491813E-2	1.185304E-2	1.578007E-3	1.083941E-2	5.353531E-3	1.286990E-2	7.158017E-3	1.317823E-2	1.226015E-2	8.706258E-3	1.480133E-2	5.157498E-3	1.000677E-2	2.610813E-3	1.535643E-2	1.449476E-2	4.330050E-3	9.250225E-3	1.103484E-2	1.569470E-2	1.674892E-2	1.300069E-2	4.459436E-3	8.855832E-3	1.839723E-2	9.230133E-3	1.386597E-2	6.310407E-3	6.464202E-4	1.508931E-2	1.105256E-2	4.876253E-3	1.275638E-2	1.986167E-2	5.759635E-3	1.118232E-2	1.287746E-2	7.887578E-3	5.500631E-3	6.091583E-3	1.737058E-2	1.101868E-2	8.190866E-3	-5.538687E-4	1.874152E-2	1.072025E-2	9.033916E-3	1.273427E-2	-3.731399E-5	2.116336E-2	1.069814E-2	9.536810E-3	1.432206E-2	9.037174E-3	1.805263E-2	1.374290E-2	1.914220E-2	2.313359E-2	6.655668E-3	9.755254E-3	7.923430E-3	7.407699E-3	1.684368E-2	3.338715E-3	8.372578E-3	1.353589E-2	3.157884E-3	1.061960E-2	6.815283E-3	1.748372E-2	1.584179E-2	1.468531E-2	2.666160E-2	1.470464E-2	1.142700E-2	3.973214E-3	5.511965E-3	1.678132E-2	1.137457E-2	1.326734E-2	1.359155E-2	7.984952E-3	2.467039E-3	1.375519E-2	2.967750E-3	1.262243E-2	4.131582E-3	5.203835E-3	1.154460E-2	5.641623E-3	8.955792E-3	1.681513E-2	1.855572E-2	2.245372E-3	5.221818E-3	8.303541E-3	1.470787E-2	3.644705E-3	1.513325E-2	8.054907E-3	1.032535E-2	1.979576E-3	1.060350E-2	1.417589E-2	6.166030E-3	3.712559E-3	1.199655E-2	1.134663E-2	2.801194E-3	-6.765714E-4	1.543142E-2	1.187000E-2	1.316625E-2	1.252655E-2	1.907583E-2	4.639791E-3	2.401858E-3	2.364392E-3	1.327259E-2	5.614258E-3	1.424093E-2	9.856466E-3	9.599802E-3	5.862810E-3	1.505937E-2	2.073488E-2	1.246464E-2	1.749299E-2	1.767858E-2	1.064502E-2	8.302993E-3	-1.204891E-3
5.330280E+2	1.213933E-2	2.789715E-2	1.834683E-2	2.221280E-2	2.403062E-2	3.531780E-2	2.853190E-2	2.971927E-2	2.754681E-2	1.946623E-2	2.669150E-2	2.367913E-2	2.544917E-2	1.723219E-2	2.358463E-2	2.132557E-2	1.999862E-2	1.651408E-2	3.095922E-2	2.628112E-2	3.794385E-2	2.705029E-2	2.162744E-2	1.441885E-2	2.787941E-2	1.719964E-2	2.733579E-2	2.556454E-2	1.415294E-2	1.853451E-2	3.486411E-2	2.628753E-2	2.782295E-2	1.895403E-2	1.984401E-2	1.452633E-2	1.432531E-2	2.655961E-2	2.594197E-2	1.580963E-2	3.490052E-2	1.832520E-2	1.808378E-2	2.111868E-2	1.868843E-2	2.123375E-2	2.985450E-2	2.361061E-2	2.919581E-2	2.320852E-2	3.717294E-2	3.156208E-2	2.668267E-2	2.662855E-2	3.001663E-2	1.708857E-2	1.800607E-2	2.523964E-2	3.162789E-2	1.729969E-2	2.591409E-2	2.663104E-2	2.373883E-2	2.726451E-2	1.517546E-2	1.657020E-2	1.812811E-2	9.761692E-3	3.313947E-2	2.141911E-2	2.197541E-2	2.249155E-2	2.730194E-2	1.551733E-2	3.176056E-2	2.936188E-2	2.308038E-2	1.665051E-2	3.136185E-2	5.464802E-3	2.321151E-2	2.097666E-2	3.321335E-2	2.355516E-2	3.847148E-2	2.522183E-2	3.193257E-2	1.492972E-2	1.637337E-2	1.774752E-2	3.327099E-2	2.407246E-2	4.238403E-2	1.551417E-2	3.019067E-2	3.740458E-2	2.344911E-2	1.819398E-2	2.952158E-2	2.268688E-2	1.603982E-2	2.604184E-2	2.947163E-2	2.784388E-2	3.392008E-2	2.623319E-2	1.468955E-2	2.305163E-2	2.962036E-2	1.529484E-2	1.720798E-2	2.937104E-2	2.920931E-2	1.897016E-2	2.741060E-2	1.784651E-2	1.797302E-2	3.030915E-2	2.211695E-2	1.914628E-2	2.485759E-2	1.802166E-2	4.580601E-2	1.964506E-2	2.542808E-2	2.431957E-2	2.997554E-2	2.207047E-2	2.323076E-2	2.674710E-2	1.475066E-2	1.562575E-2	2.961109E-2	3.211336E-2	3.630177E-2	2.497059E-2	2.202540E-2	3.294826E-2	2.440746E-2	3.348666E-2	2.533713E-2	1.893189E-2	2.760975E-2	1.902105E-2	1.993862E-2	2.513601E-2	2.837222E-2	2.732518E-2	1.232968E-2	2.442225E-2	2.946634E-2	2.522008E-2	2.108335E-2	2.429057E-2	1.634937E-2	2.603407E-2	2.410407E-2	3.164902E-2	2.586774E-2	2.907269E-2	3.074330E-2	3.282286E-2	1.482272E-2	7.057431E-3	3.312490E-2	3.171522E-2	2.301459E-2	2.950411E-2	1.321935E-2	1.239930E-2
5.331580E+2	2.612341E-2	2.006631E-2	3.150889E-2	3.906620E-2	3.766900E-2	2.722117E-2	2.200913E-2	2.825258E-2	4.294706E-2	3.250016E-2	2.322742E-2	4.134501E-2	3.933905E-2	3.101063E-2	2.537562E-2	3.264898E-2	2.644750E-2	3.479795E-2	3.439971E-2	3.030025E-2	2.522372E-2	3.375481E-2	1.573491E-2	2.297968E-2	4.577248E-2	3.128807E-2	4.439646E-2	5.022279E-2	2.831193E-2	3.778556E-2	4.835471E-2	3.324189E-2	2.015317E-2	3.311901E-2	2.779233E-2	2.416986E-2	2.920110E-2	4.350732E-2	1.846617E-2	2.473658E-2	3.496037E-2	2.819253E-2	4.110906E-2	2.116428E-2	3.582626E-2	3.252713E-2	3.623592E-2	3.174413E-2	2.698961E-2	2.610934E-2	3.379502E-2	2.868803E-2	2.569253E-2	3.531464E-2	3.062403E-2	3.277628E-2	2.837162E-2	3.134011E-2	3.774307E-2	3.732926E-2	2.796214E-2	3.227635E-2	3.002704E-2	2.993218E-2	3.487860E-2	2.916870E-2	3.831010E-2	3.506644E-2	3.654243E-2	1.780860E-2	3.038621E-2	2.643029E-2	3.182602E-2	3.934467E-2	3.597510E-2	1.456001E-2	2.529120E-2	3.783724E-2	2.738862E-2	3.801288E-2	2.385312E-2	2.993098E-2	4.341197E-2	3.727572E-2	3.970953E-2	3.165548E-2	3.607163E-2	1.450061E-2	3.310316E-2	3.658796E-2	2.963828E-2	3.445408E-2	2.750258E-2	3.698522E-2	3.261747E-2	4.112962E-2	3.934525E-2	3.129068E-2	4.306090E-2	3.204121E-2	3.002532E-2	3.157745E-2	2.537133E-2	3.407435E-2	4.143221E-2	3.297598E-2	5.113644E-2	3.199938E-2	3.334664E-2	2.890997E-2	3.438151E-2	1.744187E-2	3.999163E-2	2.316639E-2	2.644924E-2	4.420946E-2	4.134480E-2	2.351798E-2	3.969893E-2	2.356555E-2	2.659381E-2	2.388128E-2	2.898656E-2	2.107552E-2	3.417819E-2	4.828815E-2	2.218917E-2	4.350475E-2	3.234283E-2	1.787540E-2	3.240230E-2	1.500095E-2	2.606185E-2	3.507577E-2	2.466688E-2	3.665202E-2	1.663011E-2	2.989374E-2	3.672747E-2	2.751807E-2	3.048514E-2	2.599849E-2	2.456189E-2	3.199336E-2	2.418903E-2	3.619546E-2	3.107441E-2	3.520742E-2	2.501953E-2	2.569714E-2	2.962961E-2	2.841667E-2	3.528873E-2	3.804722E-2	3.401387E-2	3.002172E-2	3.212212E-2	2.896064E-2	3.850012E-2	2.075484E-2	2.960864E-2	3.032075E-2	2.959689E-2	2.229819E-2	3.260479E-2	4.693952E-2	4.540847E-2	4.235718E-2	4.301347E-2	1.443806E-2
5.333130E+2	2.763418E-2	3.818121E-2	2.454476E-2	3.444832E-2	3.695700E-2	5.741870E-2	4.110768E-2	3.327535E-2	3.466589E-2	4.002253E-2	4.126386E-2	3.723555E-2	4.210588E-2	4.356032E-2	3.101420E-2	4.100075E-2	4.017818E-2	3.107398E-2	4.561623E-2	2.274267E-2	3.686510E-2	4.240078E-2	5.244517E-2	3.946143E-2	4.104193E-2	4.176306E-2	3.934336E-2	3.010272E-2	4.343566E-2	3.519436E-2	3.965038E-2	4.486486E-2	3.184890E-2	4.601182E-2	3.399393E-2	2.965976E-2	4.130957E-2	4.012682E-2	2.967299E-2	3.874124E-2	4.623439E-2	2.913155E-2	4.214911E-2	3.804566E-2	3.034699E-2	3.001982E-2	4.128217E-2	3.266924E-2	4.041280E-2	3.798286E-2	2.904145E-2	4.841865E-2	2.980124E-2	3.358581E-2	4.212876E-2	4.535069E-2	4.120826E-2	4.943687E-2	5.037994E-2	3.606942E-2	3.383905E-2	1.946992E-2	3.608182E-2	3.665121E-2	4.361915E-2	4.169224E-2	3.260275E-2	4.284299E-2	4.705246E-2	3.081817E-2	3.974055E-2	4.433563E-2	3.224187E-2	4.810455E-2	4.896480E-2	3.381840E-2	3.055900E-2	3.540411E-2	2.157228E-2	3.293658E-2	5.898782E-2	4.595943E-2	4.263204E-2	5.019170E-2	4.430298E-2	3.887576E-2	2.768311E-2	3.022631E-2	3.891817E-2	3.535767E-2	6.191640E-2	3.598820E-2	4.166147E-2	4.114359E-2	4.614476E-2	5.263477E-2	3.917549E-2	4.242767E-2	5.002192E-2	4.364260E-2	3.028647E-2	4.507069E-2	3.255000E-2	4.020490E-2	2.246187E-2	3.077657E-2	3.859111E-2	3.760856E-2	5.194371E-2	3.703267E-2	4.880696E-2	3.297288E-2	4.726191E-2	2.824669E-2	3.594104E-2	4.404202E-2	4.301368E-2	3.791905E-2	2.782431E-2	4.418672E-2	4.141609E-2	2.319158E-2	3.808911E-2	4.474319E-2	4.764629E-2	3.044889E-2	4.379745E-2	3.711130E-2	4.123462E-2	3.351857E-2	3.889149E-2	4.823409E-2	4.860681E-2	2.490861E-2	3.352204E-2	3.546988E-2	4.128207E-2	4.292800E-2	3.250069E-2	3.657265E-2	3.798573E-2	3.894738E-2	3.372258E-2	2.654146E-2	3.112212E-2	4.594489E-2	5.001413E-2	4.168558E-2	4.272424E-2	4.814977E-2	5.428375E-2	3.146226E-2	3.972821E-2	5.001166E-2	5.421654E-2	3.946712E-2	4.167788E-2	4.070829E-2	3.689625E-2	2.600228E-2	3.695292E-2	5.442592E-2	4.298764E-2	3.444548E-2	3.671619E-2	3.044755E-2	3.916297E-2	3.969523E-2	4.355783E-2	2.659050E-2
5.334630E+2	5.450240E-2	4.966973E-2	4.882380E-2	5.918272E-2	5.275744E-2	5.495122E-2	5.265542E-2	5.434166E-2	4.381995E-2	6.671771E-2	5.946789E-2	4.562465E-2	4.911541E-2	5.229853E-2	4.897045E-2	4.537079E-2	6.354124E-2	5.470229E-2	5.754026E-2	4.366985E-2	4.643737E-2	6.150701E-2	5.409373E-2	4.497707E-2	4.139025E-2	5.692477E-2	6.584337E-2	5.824878E-2	5.484302E-2	5.349980E-2	6.125383E-2	5.982490E-2	3.753333E-2	5.442502E-2	5.782301E-2	6.374716E-2	5.246188E-2	5.597533E-2	6.336448E-2	3.875808E-2	6.363334E-2	5.722609E-2	5.622466E-2	5.503768E-2	5.174299E-2	4.474240E-2	6.672905E-2	5.300158E-2	5.050463E-2	6.559511E-2	6.115475E-2	5.355272E-2	5.636828E-2	3.885482E-2	4.702248E-2	6.524729E-2	5.418185E-2	4.933930E-2	5.387853E-2	6.249606E-2	7.029217E-2	4.133463E-2	5.030301E-2	5.295856E-2	4.721445E-2	7.017862E-2	3.778869E-2	5.751642E-2	7.294388E-2	5.298453E-2	5.817935E-2	4.828106E-2	4.728300E-2	4.282219E-2	5.963649E-2	5.437517E-2	5.440300E-2	6.702899E-2	4.464121E-2	5.761305E-2	6.380691E-2	6.548010E-2	4.742742E-2	5.508805E-2	4.518459E-2	4.995742E-2	4.741014E-2	5.221924E-2	6.045450E-2	4.633683E-2	6.179932E-2	5.630096E-2	6.350171E-2	5.813745E-2	5.113664E-2	5.002683E-2	5.657734E-2	6.559847E-2	6.574806E-2	4.883019E-2	3.699802E-2	4.989296E-2	5.254523E-2	5.481338E-2	5.197439E-2	5.793039E-2	6.487612E-2	4.271431E-2	4.625280E-2	5.552487E-2	5.290478E-2	4.491631E-2	6.424168E-2	4.669314E-2	5.688771E-2	5.099790E-2	4.749499E-2	7.005531E-2	5.482292E-2	5.186350E-2	4.686105E-2	5.980486E-2	4.714333E-2	3.974482E-2	4.817182E-2	5.601242E-2	6.192975E-2	3.752214E-2	3.711511E-2	5.383541E-2	5.629809E-2	4.585467E-2	5.764091E-2	6.756976E-2	6.113161E-2	5.491334E-2	5.399022E-2	5.845752E-2	4.913951E-2	6.045734E-2	5.668041E-2	5.736394E-2	5.496687E-2	5.999501E-2	5.580966E-2	5.734616E-2	4.453358E-2	5.480175E-2	5.302753E-2	5.378952E-2	6.357856E-2	4.390080E-2	5.501558E-2	5.161917E-2	4.893490E-2	3.421297E-2	5.929148E-2	4.018203E-2	5.462312E-2	6.267381E-2	6.709300E-2	5.830370E-2	4.678696E-2	4.600362E-2	5.219946E-2	4.971646E-2	4.702340E-2	5.930759E-2	7.058555E-2	6.424312E-2
5.336080E+2	8.272420E-2	5.931518E-2	6.809903E-2	7.006767E-2	6.557234E-2	8.215712E-2	7.165918E-2	7.655325E-2	6.571356E-2	8.415298E-2	6.499462E-2	7.226678E-2	8.592073E-2	7.849898E-2	6.452725E-2	7.234341E-2	6.803616E-2	6.842905E-2	6.643903E-2	4.568086E-2	7.026156E-2	8.012794E-2	6.794564E-2	7.138693E-2	7.478723E-2	8.282346E-2	7.428150E-2	9.095279E-2	6.050582E-2	7.297671E-2	7.069847E-2	7.066034E-2	6.778720E-2	6.149454E-2	6.661789E-2	6.786958E-2	8.570964E-2	7.979280E-2	4.885614E-2	7.980039E-2	7.414056E-2	5.681233E-2	8.438518E-2	6.954318E-2	7.186893E-2	7.196100E-2	7.446559E-2	7.500851E-2	7.460865E-2	6.804296E-2	8.271022E-2	8.320210E-2	8.305364E-2	7.877847E-2	6.619691E-2	7.800352E-2	8.390998E-2	6.840396E-2	7.003595E-2	7.125800E-2	7.472476E-2	7.781354E-2	6.324364E-2	6.573745E-2	7.765099E-2	7.320612E-2	7.754962E-2	6.278565E-2	7.584707E-2	6.846541E-2	6.736543E-2	6.157303E-2	7.060718E-2	7.688981E-2	6.647914E-2	5.922960E-2	7.902220E-2	7.767067E-2	5.681984E-2	7.756524E-2	5.839729E-2	6.715990E-2	8.106451E-2	5.192265E-2	7.659864E-2	6.566210E-2	6.297414E-2	6.032900E-2	5.894560E-2	6.665632E-2	5.408212E-2	7.792393E-2	7.982926E-2	6.299090E-2	6.514921E-2	5.599842E-2	6.584864E-2	8.624736E-2	6.056171E-2	8.459518E-2	8.283035E-2	6.862234E-2	7.488832E-2	7.523244E-2	5.584880E-2	8.077036E-2	6.730815E-2	8.330706E-2	7.134850E-2	6.384231E-2	6.843917E-2	8.346266E-2	8.192419E-2	7.421968E-2	6.339317E-2	7.860027E-2	8.612732E-2	6.144903E-2	7.724382E-2	6.135552E-2	5.878121E-2	5.886269E-2	5.874604E-2	7.020084E-2	8.583183E-2	6.810230E-2	7.554220E-2	6.915841E-2	5.549156E-2	5.917088E-2	7.591969E-2	7.856237E-2	7.258264E-2	7.948317E-2	6.865888E-2	7.738668E-2	6.138261E-2	9.007279E-2	7.968508E-2	7.671971E-2	8.851275E-2	6.272739E-2	7.057284E-2	7.904143E-2	7.732698E-2	7.710162E-2	7.750028E-2	7.387433E-2	5.560192E-2	7.963211E-2	6.312813E-2	8.478046E-2	8.366889E-2	7.446274E-2	7.444917E-2	6.485022E-2	6.953213E-2	5.666229E-2	8.764860E-2	7.390716E-2	7.717581E-2	6.500577E-2	6.678888E-2	7.871210E-2	7.478685E-2	8.384856E-2	8.367286E-2	6.798500E-2	5.824983E-2	6.677052E-2
5.337630E+2	1.060971E-1	1.028640E-1	7.881138E-2	8.653185E-2	9.364981E-2	9.694161E-2	9.005355E-2	1.036416E-1	9.120874E-2	1.015896E-1	1.065457E-1	9.247107E-2	1.162432E-1	1.087175E-1	9.277744E-2	9.296726E-2	8.811868E-2	1.113931E-1	1.112254E-1	8.402463E-2	1.044278E-1	1.010878E-1	9.818739E-2	9.544378E-2	1.129051E-1	1.008745E-1	1.100061E-1	1.095260E-1	1.255373E-1	1.044348E-1	1.122670E-1	1.025200E-1	9.421556E-2	1.135609E-1	9.342162E-2	9.306776E-2	8.429042E-2	1.053663E-1	1.166846E-1	1.133467E-1	1.115639E-1	1.050919E-1	1.060239E-1	1.006223E-1	1.055619E-1	9.645402E-2	9.147542E-2	1.064679E-1	1.061331E-1	1.039751E-1	1.096303E-1	1.134600E-1	8.864594E-2	1.003039E-1	8.252228E-2	1.038258E-1	9.254844E-2	9.356052E-2	9.832790E-2	7.942420E-2	9.701589E-2	1.109995E-1	1.037992E-1	9.129164E-2	1.145930E-1	9.786232E-2	1.074629E-1	1.021075E-1	1.002695E-1	1.010720E-1	1.036471E-1	1.044744E-1	1.086699E-1	1.048920E-1	1.147698E-1	9.564978E-2	1.082083E-1	9.648735E-2	7.394448E-2	9.504380E-2	8.758698E-2	1.012149E-1	9.324350E-2	1.036261E-1	1.241480E-1	9.804509E-2	1.086200E-1	9.373854E-2	8.623121E-2	9.132881E-2	9.719519E-2	7.969387E-2	1.100354E-1	8.326249E-2	1.149451E-1	9.890192E-2	1.150908E-1	1.076293E-1	1.038283E-1	1.041464E-1	1.017770E-1	1.066092E-1	1.019905E-1	1.043236E-1	1.048810E-1	9.896014E-2	1.127825E-1	9.420170E-2	9.920305E-2	1.010973E-1	1.082378E-1	1.000800E-1	1.162638E-1	9.770937E-2	1.149524E-1	9.981855E-2	1.030365E-1	9.196908E-2	1.072581E-1	9.501651E-2	1.000878E-1	1.077206E-1	1.136605E-1	9.151973E-2	1.123335E-1	1.065847E-1	9.389249E-2	1.066272E-1	1.053612E-1	9.336756E-2	9.237264E-2	1.088636E-1	1.025278E-1	1.005345E-1	1.215763E-1	9.266112E-2	1.082248E-1	1.258961E-1	9.609461E-2	9.968177E-2	9.900320E-2	1.050781E-1	1.124587E-1	1.069464E-1	1.154891E-1	9.565430E-2	1.056796E-1	1.067269E-1	1.014353E-1	8.431928E-2	9.740412E-2	1.018700E-1	1.010178E-1	1.198140E-1	9.640608E-2	8.688229E-2	1.098869E-1	1.171167E-1	1.080931E-1	1.029653E-1	1.169532E-1	1.013097E-1	9.398153E-2	9.120628E-2	1.063461E-1	9.794372E-2	1.170903E-1	1.040076E-1	1.208203E-1	5.726849E-2
5.339140E+2	1.386671E-1	1.622016E-1	1.609423E-1	1.528473E-1	1.520405E-1	1.682019E-1	1.623338E-1	1.439052E-1	1.618451E-1	1.479819E-1	1.303214E-1	1.513696E-1	1.727496E-1	1.762627E-1	1.633482E-1	1.760407E-1	1.440554E-1	1.484574E-1	1.667304E-1	1.560727E-1	1.699319E-1	1.666113E-1	1.402757E-1	1.355360E-1	1.933378E-1	1.877158E-1	1.846722E-1	1.766369E-1	1.685684E-1	1.599332E-1	1.663273E-1	1.856797E-1	1.614624E-1	1.811976E-1	1.549127E-1	1.530455E-1	1.573595E-1	1.784779E-1	1.643049E-1	1.442581E-1	1.697692E-1	1.591550E-1	1.518217E-1	1.429504E-1	1.592180E-1	1.646007E-1	1.602889E-1	1.577950E-1	1.551840E-1	1.869680E-1	1.605478E-1	1.856419E-1	1.507434E-1	1.527796E-1	1.643567E-1	1.396002E-1	1.612191E-1	1.706451E-1	1.597051E-1	1.587629E-1	1.638616E-1	1.480819E-1	1.599933E-1	1.560284E-1	1.624291E-1	1.509023E-1	1.673858E-1	1.498204E-1	1.550915E-1	1.634755E-1	1.784386E-1	1.443592E-1	1.568045E-1	1.605914E-1	1.653936E-1	1.557809E-1	1.547053E-1	1.497827E-1	1.718231E-1	1.566662E-1	1.667547E-1	1.650349E-1	1.756102E-1	1.648787E-1	1.382701E-1	1.492670E-1	1.601797E-1	1.728674E-1	1.478843E-1	1.410816E-1	1.614003E-1	1.767831E-1	1.708360E-1	1.700647E-1	1.484549E-1	1.574607E-1	1.481644E-1	1.586959E-1	1.387478E-1	1.730413E-1	1.556476E-1	1.537136E-1	1.648297E-1	1.650888E-1	1.736078E-1	1.609835E-1	1.790116E-1	1.589755E-1	1.619943E-1	1.677791E-1	1.526699E-1	1.579557E-1	1.525571E-1	1.513500E-1	1.439211E-1	1.607677E-1	1.524813E-1	1.458611E-1	1.637895E-1	1.567148E-1	1.733509E-1	1.393010E-1	1.880715E-1	1.507510E-1	1.687223E-1	1.586072E-1	1.591666E-1	1.538065E-1	1.723468E-1	1.612496E-1	1.708437E-1	1.532581E-1	1.756091E-1	1.775215E-1	1.784808E-1	1.576839E-1	1.380929E-1	1.332163E-1	1.596799E-1	1.521037E-1	1.677198E-1	1.638030E-1	1.665261E-1	1.547680E-1	1.461467E-1	1.766240E-1	1.858614E-1	1.692855E-1	1.553504E-1	1.391119E-1	1.450626E-1	1.630005E-1	1.547193E-1	1.740013E-1	1.516031E-1	1.707462E-1	1.522048E-1	1.597014E-1	1.723919E-1	1.522512E-1	1.507532E-1	1.561734E-1	1.676422E-1	1.640226E-1	1.582775E-1	1.439274E-1	1.520018E-1	1.680684E-1	1.767871E-1	1.591572E-1
5.340800E+2	2.552613E-1	2.823438E-1	2.579595E-1	2.642990E-1	2.791912E-1	2.696748E-1	2.580143E-1	2.698973E-1	2.772866E-1	2.528116E-1	2.584526E-1	2.637970E-1	2.798426E-1	2.548448E-1	2.728293E-1	2.800456E-1	2.553006E-1	2.791890E-1	2.917071E-1	2.565413E-1	2.760495E-1	2.596653E-1	2.869146E-1	2.677456E-1	3.257419E-1	2.999532E-1	2.897856E-1	2.897352E-1	3.146723E-1	2.510128E-1	3.072773E-1	2.840482E-1	2.974376E-1	2.836029E-1	2.883521E-1	2.663774E-1	2.888565E-1	2.838176E-1	2.690534E-1	2.996069E-1	2.658926E-1	2.938032E-1	2.985643E-1	2.627779E-1	2.646883E-1	2.875927E-1	2.860846E-1	2.797214E-1	2.780614E-1	2.881321E-1	2.718243E-1	2.708011E-1	2.677622E-1	2.569631E-1	2.744133E-1	2.562988E-1	2.872271E-1	2.577396E-1	2.965166E-1	2.755344E-1	3.097409E-1	2.886902E-1	2.825987E-1	2.446972E-1	2.909469E-1	2.817464E-1	2.790106E-1	2.886760E-1	3.079639E-1	2.723076E-1	2.895226E-1	2.924793E-1	2.795591E-1	2.932880E-1	2.682162E-1	2.742990E-1	2.920271E-1	2.790634E-1	2.707954E-1	2.551233E-1	3.021892E-1	2.811996E-1	2.910781E-1	2.693805E-1	2.879834E-1	2.784767E-1	2.665280E-1	2.877548E-1	2.820653E-1	2.681764E-1	3.004520E-1	2.621443E-1	3.291387E-1	2.830348E-1	2.930163E-1	2.805888E-1	2.754086E-1	3.174778E-1	2.900350E-1	2.664638E-1	2.957412E-1	3.134793E-1	2.847496E-1	2.675992E-1	2.891999E-1	2.881483E-1	2.879323E-1	2.832820E-1	2.630273E-1	3.017590E-1	2.878272E-1	2.754781E-1	2.655701E-1	2.814776E-1	2.957489E-1	3.072138E-1	2.680886E-1	2.899266E-1	2.890377E-1	3.021097E-1	2.713071E-1	2.685758E-1	2.850271E-1	2.776437E-1	2.788257E-1	2.875116E-1	2.595924E-1	2.962040E-1	2.786144E-1	2.589776E-1	2.830818E-1	2.874957E-1	2.994306E-1	2.800183E-1	2.786225E-1	2.690057E-1	2.991530E-1	2.794998E-1	2.955606E-1	2.688420E-1	2.827884E-1	2.877569E-1	3.080870E-1	2.824738E-1	2.864357E-1	2.604532E-1	2.821881E-1	2.710901E-1	2.666040E-1	2.840370E-1	2.778620E-1	2.872260E-1	2.700858E-1	3.013203E-1	2.811582E-1	2.659200E-1	2.866475E-1	2.901260E-1	2.791594E-1	2.873422E-1	3.033950E-1	2.507259E-1	3.008393E-1	2.853153E-1	3.054791E-1	2.942786E-1	3.117573E-1	2.629843E-1	2.827695E-1	2.798168E-1
5.342090E+2	4.364177E-1	4.408855E-1	4.357833E-1	4.338289E-1	4.627335E-1	4.504863E-1	4.296498E-1	4.586451E-1	4.269960E-1	4.405839E-1	4.459075E-1	4.423881E-1	4.545589E-1	4.841623E-1	4.476686E-1	4.852424E-1	4.542044E-1	4.489138E-1	4.347843E-1	4.573443E-1	4.608472E-1	4.627678E-1	4.482967E-1	4.400861E-1	4.914350E-1	4.960225E-1	5.067535E-1	4.638876E-1	5.108875E-1	4.823868E-1	4.896912E-1	4.872158E-1	5.075700E-1	5.230490E-1	4.493789E-1	4.907974E-1	4.698891E-1	5.170553E-1	5.126103E-1	4.646921E-1	5.182489E-1	4.693375E-1	4.653217E-1	5.062340E-1	4.317237E-1	4.319671E-1	4.866521E-1	4.731020E-1	4.718485E-1	4.975258E-1	4.956758E-1	4.623103E-1	5.000269E-1	4.592233E-1	5.001723E-1	4.457345E-1	4.752554E-1	4.683975E-1	4.674196E-1	4.598227E-1	4.804384E-1	4.792914E-1	4.623931E-1	4.767290E-1	4.728459E-1	4.491381E-1	4.803025E-1	4.808792E-1	4.722036E-1	4.607374E-1	4.668631E-1	4.385390E-1	4.907769E-1	4.857422E-1	4.718804E-1	4.860993E-1	4.841138E-1	4.641506E-1	5.019461E-1	4.696035E-1	4.499010E-1	4.679058E-1	4.411858E-1	4.747692E-1	4.671825E-1	4.636863E-1	4.528801E-1	4.941437E-1	4.868184E-1	4.863006E-1	4.853654E-1	4.654093E-1	5.026701E-1	4.705945E-1	4.771093E-1	4.426730E-1	4.557709E-1	4.607273E-1	4.417722E-1	4.362074E-1	4.917585E-1	4.812168E-1	4.601981E-1	4.861918E-1	5.032075E-1	4.390743E-1	4.701878E-1	4.551242E-1	4.431686E-1	4.644930E-1	4.922858E-1	4.690033E-1	4.895456E-1	4.629583E-1	4.667910E-1	4.821611E-1	4.397412E-1	4.733212E-1	4.656168E-1	4.988448E-1	4.609061E-1	4.861821E-1	4.453455E-1	4.784547E-1	4.558177E-1	4.810748E-1	5.100736E-1	4.494152E-1	4.542727E-1	4.645391E-1	4.275521E-1	4.503338E-1	4.574020E-1	4.558595E-1	4.491210E-1	4.767887E-1	4.858190E-1	4.655595E-1	4.941707E-1	5.064135E-1	4.783447E-1	4.928353E-1	4.455716E-1	4.833715E-1	4.647712E-1	4.647138E-1	4.518055E-1	4.794551E-1	5.252064E-1	4.194979E-1	4.459907E-1	4.698422E-1	4.786065E-1	4.698076E-1	5.080557E-1	4.664713E-1	4.797311E-1	4.719013E-1	4.341934E-1	4.997536E-1	4.314085E-1	4.270344E-1	4.673050E-1	4.320650E-1	4.835994E-1	4.511370E-1	4.433819E-1	4.792456E-1	4.620650E-1	4.687614E-1
5.343550E+2	7.872085E-1	7.689286E-1	7.874806E-1	7.425829E-1	7.691118E-1	7.990227E-1	7.722675E-1	8.182016E-1	7.680693E-1	8.262908E-1	7.940148E-1	7.861187E-1	7.637367E-1	7.826547E-1	7.511036E-1	8.078824E-1	7.818392E-1	7.881486E-1	7.649218E-1	8.407346E-1	8.133699E-1	8.164119E-1	8.257923E-1	7.641151E-1	8.702814E-1	8.744354E-1	8.102012E-1	8.255360E-1	8.575379E-1	8.197124E-1	8.043035E-1	8.418354E-1	8.330821E-1	8.359214E-1	8.029582E-1	8.152966E-1	8.294684E-1	8.055239E-1	8.176404E-1	7.868332E-1	8.291581E-1	8.122540E-1	7.951154E-1	8.089972E-1	8.139790E-1	8.160865E-1	8.033662E-1	8.085682E-1	7.781577E-1	8.487468E-1	7.957523E-1	8.021930E-1	8.341411E-1	8.531795E-1	8.200406E-1	8.223640E-1	8.292887E-1	8.290967E-1	8.014437E-1	8.580936E-1	8.114879E-1	8.072708E-1	7.749747E-1	8.088759E-1	7.873500E-1	8.195693E-1	7.897301E-1	8.061015E-1	7.968302E-1	7.816471E-1	7.566485E-1	7.894590E-1	8.020088E-1	8.487955E-1	8.063539E-1	8.013178E-1	8.143675E-1	8.190463E-1	7.778463E-1	7.881689E-1	8.381507E-1	7.592793E-1	8.348458E-1	7.801082E-1	7.753256E-1	8.055651E-1	7.970773E-1	8.135582E-1	7.943366E-1	8.042363E-1	8.277539E-1	8.129214E-1	8.041558E-1	8.004956E-1	7.838511E-1	8.199403E-1	7.869087E-1	7.454642E-1	7.928030E-1	7.877433E-1	7.617930E-1	7.997743E-1	7.980864E-1	8.030092E-1	8.120508E-1	8.132082E-1	8.019946E-1	7.754118E-1	7.500559E-1	7.772488E-1	7.590560E-1	7.796850E-1	8.018274E-1	7.987430E-1	7.824820E-1	7.935070E-1	8.463220E-1	8.059976E-1	8.186678E-1	7.705412E-1	7.972958E-1	7.735338E-1	7.977723E-1	8.567949E-1	8.022670E-1	7.886461E-1	7.958707E-1	7.630507E-1	8.126213E-1	7.666059E-1	8.069088E-1	8.128959E-1	8.223439E-1	7.843271E-1	8.099386E-1	8.078801E-1	7.915661E-1	7.834604E-1	8.120200E-1	8.230630E-1	8.141765E-1	7.896694E-1	8.130154E-1	7.712602E-1	7.909197E-1	8.085582E-1	8.140224E-1	7.853316E-1	8.304059E-1	7.770676E-1	7.604156E-1	7.810043E-1	7.745842E-1	7.997194E-1	8.281158E-1	7.980081E-1	7.676841E-1	8.012965E-1	8.265633E-1	7.858130E-1	7.940370E-1	8.116417E-1	7.607310E-1	7.705287E-1	8.288512E-1	8.007460E-1	7.911791E-1	8.451939E-1	8.053790E-1	8.124242E-1
5.345110E+2	1.238078E+0	1.219535E+0	1.242554E+0	1.145600E+0	1.260865E+0	1.255783E+0	1.199391E+0	1.219574E+0	1.221349E+0	1.188183E+0	1.252871E+0	1.253299E+0	1.218808E+0	1.232375E+0	1.248319E+0	1.224551E+0	1.233303E+0	1.246264E+0	1.233918E+0	1.239336E+0	1.200146E+0	1.239283E+0	1.225182E+0	1.240423E+0	1.295374E+0	1.297068E+0	1.298863E+0	1.280109E+0	1.300882E+0	1.260454E+0	1.289230E+0	1.267970E+0	1.355162E+0	1.266322E+0	1.207660E+0	1.230520E+0	1.264224E+0	1.235365E+0	1.336229E+0	1.261871E+0	1.249683E+0	1.219103E+0	1.286500E+0	1.263601E+0	1.222034E+0	1.179219E+0	1.257644E+0	1.275635E+0	1.242945E+0	1.276157E+0	1.216033E+0	1.251588E+0	1.262180E+0	1.240274E+0	1.261549E+0	1.245904E+0	1.216644E+0	1.257359E+0	1.268927E+0	1.275385E+0	1.262101E+0	1.262856E+0	1.239022E+0	1.246740E+0	1.259593E+0	1.249615E+0	1.225385E+0	1.227986E+0	1.202215E+0	1.243346E+0	1.234338E+0	1.265792E+0	1.232068E+0	1.246565E+0	1.237795E+0	1.271661E+0	1.257672E+0	1.215448E+0	1.233498E+0	1.221145E+0	1.231582E+0	1.205127E+0	1.224266E+0	1.217328E+0	1.244837E+0	1.264208E+0	1.192567E+0	1.277738E+0	1.214175E+0	1.237832E+0	1.280440E+0	1.250718E+0	1.251336E+0	1.237999E+0	1.262733E+0	1.277960E+0	1.227907E+0	1.222104E+0	1.298705E+0	1.278243E+0	1.249000E+0	1.164476E+0	1.234721E+0	1.186117E+0	1.256835E+0	1.256242E+0	1.236548E+0	1.217900E+0	1.266114E+0	1.236760E+0	1.237573E+0	1.299326E+0	1.211083E+0	1.234034E+0	1.191185E+0	1.230065E+0	1.274698E+0	1.233062E+0	1.220392E+0	1.261879E+0	1.186342E+0	1.192561E+0	1.242481E+0	1.284480E+0	1.230549E+0	1.205503E+0	1.266697E+0	1.262389E+0	1.207379E+0	1.264414E+0	1.212795E+0	1.201130E+0	1.236835E+0	1.280449E+0	1.175641E+0	1.226781E+0	1.194925E+0	1.211451E+0	1.178650E+0	1.224540E+0	1.215023E+0	1.253428E+0	1.274263E+0	1.263530E+0	1.234851E+0	1.221913E+0	1.225836E+0	1.253863E+0	1.241211E+0	1.344356E+0	1.224360E+0	1.238577E+0	1.207972E+0	1.243095E+0	1.203466E+0	1.189719E+0	1.269280E+0	1.209931E+0	1.222989E+0	1.244098E+0	1.213505E+0	1.242025E+0	1.233100E+0	1.202715E+0	1.280562E+0	1.216261E+0	1.228718E+0	1.278727E+0	1.297272E+0	1.112523E+0
5.346620E+2	1.700883E+0	1.694752E+0	1.692289E+0	1.602992E+0	1.712184E+0	1.692214E+0	1.712430E+0	1.651874E+0	1.662163E+0	1.715426E+0	1.687442E+0	1.678265E+0	1.675002E+0	1.646453E+0	1.639351E+0	1.725671E+0	1.647853E+0	1.692587E+0	1.648973E+0	1.661283E+0	1.681456E+0	1.646762E+0	1.708593E+0	1.630940E+0	1.727845E+0	1.735022E+0	1.667540E+0	1.716946E+0	1.669657E+0	1.667616E+0	1.684656E+0	1.690327E+0	1.713733E+0	1.657274E+0	1.636855E+0	1.677342E+0	1.719089E+0	1.656665E+0	1.670585E+0	1.679959E+0	1.725000E+0	1.652032E+0	1.686117E+0	1.651409E+0	1.693679E+0	1.662330E+0	1.684583E+0	1.660952E+0	1.682673E+0	1.646214E+0	1.687608E+0	1.671246E+0	1.708690E+0	1.717855E+0	1.691887E+0	1.684612E+0	1.663897E+0	1.636266E+0	1.648248E+0	1.673215E+0	1.677708E+0	1.721286E+0	1.672056E+0	1.649907E+0	1.667295E+0	1.634447E+0	1.650444E+0	1.646210E+0	1.680129E+0	1.718381E+0	1.677707E+0	1.649334E+0	1.635567E+0	1.673340E+0	1.666782E+0	1.640171E+0	1.620954E+0	1.677473E+0	1.650296E+0	1.633421E+0	1.617040E+0	1.605069E+0	1.667696E+0	1.653972E+0	1.693690E+0	1.668621E+0	1.593664E+0	1.660013E+0	1.612538E+0	1.646262E+0	1.649992E+0	1.701708E+0	1.679412E+0	1.608627E+0	1.630257E+0	1.622909E+0	1.586944E+0	1.663195E+0	1.554284E+0	1.618309E+0	1.647339E+0	1.639347E+0	1.670269E+0	1.723623E+0	1.691231E+0	1.641447E+0	1.651909E+0	1.659739E+0	1.566653E+0	1.721053E+0	1.671017E+0	1.659339E+0	1.602038E+0	1.647678E+0	1.647809E+0	1.634957E+0	1.735377E+0	1.629183E+0	1.631997E+0	1.642002E+0	1.649935E+0	1.617328E+0	1.667454E+0	1.618335E+0	1.674051E+0	1.686583E+0	1.668662E+0	1.657416E+0	1.657406E+0	1.626727E+0	1.607274E+0	1.696652E+0	1.646123E+0	1.638408E+0	1.641214E+0	1.617952E+0	1.639015E+0	1.642749E+0	1.617914E+0	1.660859E+0	1.620626E+0	1.647082E+0	1.662053E+0	1.621345E+0	1.623651E+0	1.655486E+0	1.652152E+0	1.715976E+0	1.682325E+0	1.604839E+0	1.665988E+0	1.623875E+0	1.599882E+0	1.667480E+0	1.595459E+0	1.674959E+0	1.689403E+0	1.686220E+0	1.598183E+0	1.695728E+0	1.693176E+0	1.603217E+0	1.637863E+0	1.683459E+0	1.650368E+0	1.611804E+0	1.592184E+0	1.641469E+0	1.552585E+0	1.638426E+0
5.348120E+2	2.101897E+0	2.003710E+0	2.021695E+0	2.035380E+0	2.068145E+0	2.083119E+0	2.030912E+0	2.047798E+0	2.020152E+0	1.957832E+0	1.992774E+0	2.001437E+0	2.020899E+0	2.060976E+0	2.057228E+0	2.019742E+0	1.963921E+0	2.002277E+0	2.043977E+0	2.059819E+0	2.007107E+0	2.011860E+0	2.095980E+0	2.117247E+0	2.013690E+0	2.112759E+0	2.059787E+0	2.065797E+0	2.077897E+0	2.073641E+0	2.069562E+0	2.009729E+0	1.962785E+0	2.094204E+0	1.985555E+0	1.999934E+0	2.009538E+0	2.041491E+0	2.045694E+0	2.019220E+0	2.020370E+0	1.997528E+0	2.020911E+0	2.023831E+0	2.017658E+0	1.993556E+0	2.037958E+0	2.061525E+0	2.079919E+0	1.975535E+0	2.006400E+0	1.999381E+0	2.067663E+0	2.045942E+0	2.037384E+0	2.002533E+0	2.008995E+0	2.053103E+0	1.998986E+0	1.991782E+0	2.012375E+0	2.062114E+0	1.991299E+0	2.048308E+0	2.001559E+0	2.077713E+0	1.997059E+0	2.000624E+0	1.964989E+0	2.041078E+0	2.061672E+0	2.014685E+0	2.013720E+0	2.062742E+0	2.011637E+0	1.998941E+0	2.019955E+0	1.988406E+0	1.978967E+0	2.016782E+0	2.034779E+0	1.918698E+0	2.012640E+0	1.993574E+0	1.946875E+0	2.003080E+0	2.005698E+0	2.004338E+0	1.944046E+0	2.006794E+0	2.035672E+0	2.014118E+0	2.034299E+0	2.006290E+0	2.033037E+0	2.020168E+0	1.928179E+0	1.964510E+0	1.987666E+0	2.018739E+0	1.953854E+0	1.947344E+0	2.039356E+0	2.016119E+0	1.966994E+0	1.992138E+0	2.051238E+0	2.091269E+0	2.017538E+0	2.003523E+0	1.962970E+0	2.029261E+0	2.022490E+0	2.011173E+0	2.002865E+0	2.027335E+0	2.072724E+0	1.991005E+0	1.953850E+0	1.965576E+0	1.938732E+0	1.971359E+0	2.000151E+0	1.959193E+0	2.036673E+0	1.983727E+0	2.015942E+0	2.028720E+0	1.915460E+0	1.979548E+0	1.961524E+0	1.946091E+0	1.976102E+0	2.005286E+0	1.893242E+0	1.961644E+0	1.939923E+0	1.922983E+0	1.932004E+0	2.034869E+0	2.022088E+0	1.964597E+0	1.934356E+0	1.991728E+0	1.897048E+0	1.906966E+0	1.948118E+0	2.014074E+0	1.975394E+0	1.979256E+0	1.979436E+0	1.877155E+0	1.929097E+0	1.939646E+0	1.960777E+0	1.959258E+0	1.906337E+0	1.939736E+0	1.911794E+0	2.008863E+0	1.966042E+0	1.926071E+0	1.935551E+0	1.988243E+0	2.003137E+0	1.913796E+0	1.944451E+0	1.988108E+0	1.904159E+0	1.919252E+0
5.349530E+2	2.235268E+0	2.192749E+0	2.192353E+0	2.266157E+0	2.256139E+0	2.258280E+0	2.243375E+0	2.209157E+0	2.198690E+0	2.197080E+0	2.278527E+0	2.271780E+0	2.198845E+0	2.196480E+0	2.254290E+0	2.229237E+0	2.199286E+0	2.223112E+0	2.259839E+0	2.249318E+0	2.226661E+0	2.294158E+0	2.244580E+0	2.189599E+0	2.193147E+0	2.248699E+0	2.229807E+0	2.263647E+0	2.268295E+0	2.204927E+0	2.167821E+0	2.202632E+0	2.232097E+0	2.204581E+0	2.140117E+0	2.222646E+0	2.223523E+0	2.193046E+0	2.292299E+0	2.193215E+0	2.208523E+0	2.174039E+0	2.177877E+0	2.209467E+0	2.121574E+0	2.197765E+0	2.179091E+0	2.246297E+0	2.319751E+0	2.160942E+0	2.162381E+0	2.217413E+0	2.274155E+0	2.230788E+0	2.200813E+0	2.230160E+0	2.179198E+0	2.285349E+0	2.111446E+0	2.142259E+0	2.141010E+0	2.218192E+0	2.164851E+0	2.192640E+0	2.104828E+0	2.202342E+0	2.182276E+0	2.174306E+0	2.178697E+0	2.167176E+0	2.177627E+0	2.179984E+0	2.196425E+0	2.121209E+0	2.211441E+0	2.109783E+0	2.180067E+0	2.172243E+0	2.238583E+0	2.192106E+0	2.274075E+0	2.161902E+0	2.180278E+0	2.110661E+0	2.163728E+0	2.148960E+0	2.212044E+0	2.172054E+0	2.187398E+0	2.194605E+0	2.231401E+0	2.263858E+0	2.186744E+0	2.131454E+0	2.202254E+0	2.140846E+0	2.186068E+0	2.122532E+0	2.127172E+0	2.207830E+0	2.193988E+0	2.133436E+0	2.190427E+0	2.209761E+0	2.155498E+0	2.179559E+0	2.150596E+0	2.223262E+0	2.143172E+0	2.124645E+0	2.147205E+0	2.229446E+0	2.110601E+0	2.177377E+0	2.081224E+0	2.192936E+0	2.176664E+0	2.197646E+0	2.117706E+0	2.114367E+0	2.115438E+0	2.179747E+0	2.125354E+0	2.144225E+0	2.176065E+0	2.169841E+0	2.186437E+0	2.221866E+0	2.115093E+0	2.108984E+0	2.177362E+0	2.152610E+0	2.162414E+0	2.170748E+0	2.144921E+0	2.111995E+0	2.185386E+0	2.045903E+0	2.215938E+0	2.170056E+0	2.145429E+0	2.137476E+0	2.164597E+0	2.153987E+0	2.112248E+0	2.145406E+0	2.130335E+0	2.209720E+0	2.167345E+0	2.158163E+0	2.122608E+0	2.084268E+0	2.114766E+0	2.148738E+0	2.113143E+0	2.168789E+0	2.125683E+0	2.110397E+0	2.027185E+0	2.198595E+0	2.157407E+0	2.055085E+0	2.124564E+0	2.092304E+0	2.168125E+0	2.093198E+0	2.034093E+0	2.187997E+0	2.141888E+0	2.127261E+0
5.351140E+2	2.333449E+0	2.179191E+0	2.188117E+0	2.234930E+0	2.248804E+0	2.295852E+0	2.133745E+0	2.208426E+0	2.171204E+0	2.170099E+0	2.194850E+0	2.234115E+0	2.179993E+0	2.191361E+0	2.197705E+0	2.207944E+0	2.193204E+0	2.197784E+0	2.226236E+0	2.223172E+0	2.193431E+0	2.186123E+0	2.195001E+0	2.190120E+0	2.231667E+0	2.149507E+0	2.184781E+0	2.217638E+0	2.184213E+0	2.201509E+0	2.149390E+0	2.178849E+0	2.258142E+0	2.244409E+0	2.163383E+0	2.218474E+0	2.163472E+0	2.173325E+0	2.242250E+0	2.198189E+0	2.182418E+0	2.208704E+0	2.226253E+0	2.193561E+0	2.130786E+0	2.088824E+0	2.188610E+0	2.201867E+0	2.237466E+0	2.142619E+0	2.206403E+0	2.205576E+0	2.203803E+0	2.189316E+0	2.148310E+0	2.160641E+0	2.159261E+0	2.265169E+0	2.187984E+0	2.186183E+0	2.166870E+0	2.221416E+0	2.096831E+0	2.071474E+0	2.075216E+0	2.181206E+0	2.181746E+0	2.162626E+0	2.184965E+0	2.155334E+0	2.201604E+0	2.220340E+0	2.173083E+0	2.138844E+0	2.150787E+0	2.155482E+0	2.149944E+0	2.115188E+0	2.177885E+0	2.185244E+0	2.245550E+0	2.145546E+0	2.108941E+0	2.107895E+0	2.221211E+0	2.118671E+0	2.154432E+0	2.211910E+0	2.135107E+0	2.186954E+0	2.203063E+0	2.182881E+0	2.243525E+0	2.136055E+0	2.200225E+0	2.169600E+0	2.165033E+0	2.095890E+0	2.091557E+0	2.235162E+0	2.193782E+0	2.151800E+0	2.170564E+0	2.149107E+0	2.159344E+0	2.130408E+0	2.185031E+0	2.094386E+0	2.186660E+0	2.142949E+0	2.162476E+0	2.229094E+0	2.082674E+0	2.205630E+0	2.122960E+0	2.105786E+0	2.204451E+0	2.197163E+0	2.125078E+0	2.135585E+0	2.079913E+0	2.098497E+0	2.130630E+0	2.137166E+0	2.171860E+0	2.156214E+0	2.223059E+0	2.161069E+0	2.111820E+0	2.114440E+0	2.112413E+0	2.183307E+0	2.136748E+0	2.188521E+0	2.135659E+0	2.121053E+0	2.162026E+0	2.155209E+0	2.169613E+0	2.150233E+0	2.113417E+0	2.216742E+0	2.122233E+0	2.138431E+0	2.125972E+0	2.092186E+0	2.120643E+0	2.208676E+0	2.110190E+0	2.174237E+0	2.139458E+0	2.130343E+0	2.116363E+0	2.183727E+0	2.171386E+0	2.169108E+0	2.097019E+0	2.170161E+0	2.092480E+0	2.133495E+0	2.190598E+0	2.059756E+0	2.115198E+0	2.108000E+0	2.112483E+0	2.062899E+0	2.115524E+0	2.183000E+0	2.046152E+0	2.036296E+0
5.352550E+2	2.034094E+0	1.920536E+0	1.996111E+0	1.942321E+0	1.992464E+0	1.982721E+0	1.994437E+0	1.960602E+0	1.928962E+0	1.962706E+0	1.951084E+0	1.965101E+0	1.942170E+0	1.918399E+0	1.962692E+0	1.954586E+0	1.903319E+0	1.927551E+0	2.007452E+0	1.905838E+0	1.971461E+0	1.969288E+0	2.011584E+0	1.933471E+0	1.927634E+0	1.969316E+0	1.908450E+0	1.938557E+0	1.971445E+0	1.966530E+0	1.903229E+0	1.862026E+0	1.962277E+0	1.996549E+0	1.919739E+0	1.930722E+0	1.972445E+0	1.923413E+0	1.953546E+0	1.902477E+0	1.922661E+0	1.912392E+0	2.018610E+0	1.942891E+0	1.912776E+0	1.885041E+0	1.938264E+0	1.918257E+0	2.002344E+0	1.907850E+0	1.940736E+0	1.890267E+0	1.991624E+0	1.934064E+0	1.917531E+0	1.872792E+0	1.917455E+0	1.956326E+0	1.887283E+0	1.938478E+0	1.955628E+0	1.952885E+0	1.923286E+0	1.839480E+0	1.903416E+0	1.931668E+0	1.952929E+0	1.964073E+0	1.914178E+0	1.848989E+0	1.935716E+0	1.956092E+0	1.945663E+0	1.933659E+0	1.957720E+0	1.973471E+0	1.964612E+0	1.925101E+0	1.894195E+0	1.930572E+0	1.953697E+0	1.918848E+0	1.843433E+0	1.876257E+0	1.951561E+0	1.917221E+0	1.925203E+0	1.963813E+0	1.863210E+0	1.891179E+0	1.976466E+0	1.904330E+0	1.888054E+0	1.929076E+0	1.958692E+0	1.840414E+0	1.940612E+0	1.927606E+0	1.912148E+0	1.939273E+0	1.945963E+0	1.959549E+0	2.010670E+0	1.927451E+0	1.914579E+0	1.914695E+0	1.972275E+0	1.983895E+0	1.887336E+0	1.900307E+0	1.902666E+0	2.001689E+0	1.881636E+0	1.954043E+0	1.870309E+0	1.915431E+0	1.974589E+0	1.927822E+0	1.902787E+0	1.938033E+0	1.870396E+0	1.862909E+0	1.930323E+0	1.935007E+0	1.926993E+0	1.880555E+0	1.885034E+0	1.946448E+0	1.938143E+0	1.865917E+0	1.905805E+0	1.886163E+0	1.892054E+0	1.987373E+0	1.846425E+0	1.930762E+0	1.821034E+0	1.871203E+0	1.885726E+0	1.908853E+0	1.953866E+0	1.862915E+0	1.821633E+0	1.879514E+0	1.894864E+0	1.952778E+0	1.850160E+0	1.916645E+0	1.896077E+0	1.835900E+0	1.864388E+0	1.922623E+0	1.852024E+0	1.990237E+0	1.882419E+0	1.949618E+0	1.773327E+0	1.888522E+0	1.903584E+0	1.929364E+0	1.859946E+0	1.875718E+0	1.867504E+0	1.915508E+0	1.903846E+0	1.845337E+0	1.829821E+0	1.948399E+0	1.841308E+0	1.874304E+0
5.354110E+2	1.730584E+0	1.638882E+0	1.524955E+0	1.600779E+0	1.729446E+0	1.698299E+0	1.709291E+0	1.646393E+0	1.632685E+0	1.604824E+0	1.634948E+0	1.659783E+0	1.669332E+0	1.688954E+0	1.636256E+0	1.611439E+0	1.702561E+0	1.628741E+0	1.605104E+0	1.643221E+0	1.669698E+0	1.694400E+0	1.678166E+0	1.646191E+0	1.637292E+0	1.635868E+0	1.601046E+0	1.645410E+0	1.659316E+0	1.668131E+0	1.633582E+0	1.604033E+0	1.639766E+0	1.650068E+0	1.596790E+0	1.660378E+0	1.603210E+0	1.620759E+0	1.680542E+0	1.597389E+0	1.689110E+0	1.741218E+0	1.573634E+0	1.582896E+0	1.592805E+0	1.604775E+0	1.663082E+0	1.576956E+0	1.607636E+0	1.654023E+0	1.632408E+0	1.591381E+0	1.634140E+0	1.676238E+0	1.647360E+0	1.670089E+0	1.673153E+0	1.682971E+0	1.555158E+0	1.607142E+0	1.693772E+0	1.668766E+0	1.629519E+0	1.558281E+0	1.627202E+0	1.655277E+0	1.645631E+0	1.634669E+0	1.611861E+0	1.589812E+0	1.659534E+0	1.596621E+0	1.634681E+0	1.635429E+0	1.660336E+0	1.655872E+0	1.640724E+0	1.661487E+0	1.596729E+0	1.669628E+0	1.687286E+0	1.638647E+0	1.633584E+0	1.631177E+0	1.673857E+0	1.615667E+0	1.642688E+0	1.652591E+0	1.590098E+0	1.621368E+0	1.623421E+0	1.586540E+0	1.673088E+0	1.616022E+0	1.694032E+0	1.619014E+0	1.600893E+0	1.599374E+0	1.615730E+0	1.643229E+0	1.641026E+0	1.617119E+0	1.704182E+0	1.632840E+0	1.646207E+0	1.619323E+0	1.681092E+0	1.670664E+0	1.628882E+0	1.654156E+0	1.560975E+0	1.698330E+0	1.588169E+0	1.607042E+0	1.586953E+0	1.688341E+0	1.627856E+0	1.669377E+0	1.639132E+0	1.590239E+0	1.600373E+0	1.596034E+0	1.625160E+0	1.621152E+0	1.645819E+0	1.658235E+0	1.664867E+0	1.611700E+0	1.668474E+0	1.586821E+0	1.609043E+0	1.585326E+0	1.635734E+0	1.622829E+0	1.637756E+0	1.639903E+0	1.632916E+0	1.598213E+0	1.650088E+0	1.622101E+0	1.640127E+0	1.603242E+0	1.640862E+0	1.590184E+0	1.592666E+0	1.639721E+0	1.677193E+0	1.647336E+0	1.601877E+0	1.570304E+0	1.629700E+0	1.642379E+0	1.626284E+0	1.682250E+0	1.610566E+0	1.595638E+0	1.618465E+0	1.617184E+0	1.556006E+0	1.670229E+0	1.663107E+0	1.581223E+0	1.622014E+0	1.651060E+0	1.591851E+0	1.626578E+0	1.587712E+0	1.644976E+0	1.630841E+0	1.641876E+0
5.355580E+2	1.404276E+0	1.417062E+0	1.344147E+0	1.356684E+0	1.428303E+0	1.435158E+0	1.349133E+0	1.404900E+0	1.346719E+0	1.417304E+0	1.400315E+0	1.403465E+0	1.393965E+0	1.373569E+0	1.377621E+0	1.347117E+0	1.405983E+0	1.399274E+0	1.390982E+0	1.385442E+0	1.467304E+0	1.420225E+0	1.442568E+0	1.384704E+0	1.333844E+0	1.392455E+0	1.394460E+0	1.334834E+0	1.416284E+0	1.365582E+0	1.365657E+0	1.338275E+0	1.389944E+0	1.393604E+0	1.367066E+0	1.353339E+0	1.360578E+0	1.365934E+0	1.437492E+0	1.350049E+0	1.375341E+0	1.360836E+0	1.438633E+0	1.395945E+0	1.365328E+0	1.366268E+0	1.355497E+0	1.376263E+0	1.426207E+0	1.383690E+0	1.407575E+0	1.417620E+0	1.364722E+0	1.443503E+0	1.386298E+0	1.396610E+0	1.407479E+0	1.373015E+0	1.369504E+0	1.400822E+0	1.403106E+0	1.353473E+0	1.357750E+0	1.351114E+0	1.408896E+0	1.436805E+0	1.391451E+0	1.330638E+0	1.348025E+0	1.372272E+0	1.391153E+0	1.363929E+0	1.424871E+0	1.353797E+0	1.363053E+0	1.327128E+0	1.346541E+0	1.401887E+0	1.409291E+0	1.360581E+0	1.403835E+0	1.398608E+0	1.345321E+0	1.385851E+0	1.425814E+0	1.402168E+0	1.345923E+0	1.405147E+0	1.363445E+0	1.433763E+0	1.351991E+0	1.374570E+0	1.400422E+0	1.370962E+0	1.386254E+0	1.346735E+0	1.418592E+0	1.368903E+0	1.400014E+0	1.380964E+0	1.423883E+0	1.372848E+0	1.408194E+0	1.372421E+0	1.398346E+0	1.385059E+0	1.312567E+0	1.394101E+0	1.437791E+0	1.441595E+0	1.373502E+0	1.362346E+0	1.352061E+0	1.397018E+0	1.344933E+0	1.369106E+0	1.358454E+0	1.331605E+0	1.365043E+0	1.370849E+0	1.373009E+0	1.379903E+0	1.392465E+0	1.352125E+0	1.392013E+0	1.364425E+0	1.377085E+0	1.417359E+0	1.329970E+0	1.339601E+0	1.382640E+0	1.355452E+0	1.364896E+0	1.420633E+0	1.375444E+0	1.367254E+0	1.354347E+0	1.388504E+0	1.390727E+0	1.419298E+0	1.394506E+0	1.408040E+0	1.398030E+0	1.353164E+0	1.382039E+0	1.346337E+0	1.405785E+0	1.387538E+0	1.349914E+0	1.369700E+0	1.423107E+0	1.340859E+0	1.362223E+0	1.395042E+0	1.349235E+0	1.366167E+0	1.363256E+0	1.348820E+0	1.319503E+0	1.426818E+0	1.402286E+0	1.378183E+0	1.334434E+0	1.350389E+0	1.336305E+0	1.337808E+0	1.327556E+0	1.362782E+0	1.324746E+0	1.333509E+0
5.357090E+2	1.205142E+0	1.190155E+0	1.165149E+0	1.196256E+0	1.214593E+0	1.272655E+0	1.245180E+0	1.208785E+0	1.126915E+0	1.220755E+0	1.206581E+0	1.249952E+0	1.195106E+0	1.160271E+0	1.194579E+0	1.187109E+0	1.182347E+0	1.195702E+0	1.207586E+0	1.185905E+0	1.225005E+0	1.180621E+0	1.250561E+0	1.185648E+0	1.153494E+0	1.180070E+0	1.184395E+0	1.197653E+0	1.193427E+0	1.212758E+0	1.233097E+0	1.132674E+0	1.207875E+0	1.216915E+0	1.143471E+0	1.133534E+0	1.154391E+0	1.175672E+0	1.199446E+0	1.166494E+0	1.206238E+0	1.119679E+0	1.200685E+0	1.196935E+0	1.193721E+0	1.187278E+0	1.201040E+0	1.157579E+0	1.246091E+0	1.166916E+0	1.193873E+0	1.137211E+0	1.260956E+0	1.192852E+0	1.250742E+0	1.163750E+0	1.165930E+0	1.218582E+0	1.136667E+0	1.182111E+0	1.214637E+0	1.209338E+0	1.142539E+0	1.168519E+0	1.182710E+0	1.226691E+0	1.206056E+0	1.170596E+0	1.192377E+0	1.157217E+0	1.202940E+0	1.175283E+0	1.206038E+0	1.218295E+0	1.170432E+0	1.193808E+0	1.175073E+0	1.184174E+0	1.279832E+0	1.171041E+0	1.197869E+0	1.177152E+0	1.162879E+0	1.173387E+0	1.220594E+0	1.231172E+0	1.211967E+0	1.192245E+0	1.126538E+0	1.159420E+0	1.225422E+0	1.201614E+0	1.193196E+0	1.161536E+0	1.189256E+0	1.200005E+0	1.197962E+0	1.133966E+0	1.178396E+0	1.184015E+0	1.247716E+0	1.180591E+0	1.242696E+0	1.175997E+0	1.182276E+0	1.171069E+0	1.158886E+0	1.206705E+0	1.187458E+0	1.212674E+0	1.154499E+0	1.218627E+0	1.150166E+0	1.192421E+0	1.219599E+0	1.192734E+0	1.217846E+0	1.166809E+0	1.206182E+0	1.178278E+0	1.170771E+0	1.232860E+0	1.223069E+0	1.177851E+0	1.211156E+0	1.211230E+0	1.200726E+0	1.191636E+0	1.178026E+0	1.188222E+0	1.197608E+0	1.196728E+0	1.200494E+0	1.221406E+0	1.180934E+0	1.174415E+0	1.249969E+0	1.174935E+0	1.229002E+0	1.168405E+0	1.165926E+0	1.207985E+0	1.225088E+0	1.191224E+0	1.193156E+0	1.209270E+0	1.208233E+0	1.233123E+0	1.199567E+0	1.207258E+0	1.173191E+0	1.157222E+0	1.193596E+0	1.182645E+0	1.236235E+0	1.240042E+0	1.173551E+0	1.162585E+0	1.157854E+0	1.161728E+0	1.187010E+0	1.163617E+0	1.186865E+0	1.245959E+0	1.212365E+0	1.169018E+0	1.175978E+0	1.244324E+0	1.231581E+0	1.199659E+0
5.358600E+2	1.047067E+0	9.939289E-1	1.009106E+0	1.066274E+0	1.031329E+0	1.035399E+0	1.030247E+0	1.061091E+0	9.876858E-1	1.000263E+0	1.041845E+0	1.032028E+0	9.995995E-1	1.022845E+0	1.007613E+0	1.006776E+0	1.034891E+0	1.079442E+0	1.043148E+0	1.044098E+0	1.045940E+0	1.069383E+0	1.058527E+0	1.033358E+0	1.020480E+0	9.982815E-1	1.021535E+0	1.011862E+0	1.037593E+0	1.008252E+0	9.920671E-1	9.882081E-1	1.078636E+0	1.043768E+0	1.041776E+0	9.669782E-1	1.018327E+0	1.022281E+0	1.031681E+0	1.050332E+0	1.037227E+0	9.904872E-1	1.027764E+0	1.040914E+0	1.048847E+0	9.877072E-1	1.019477E+0	1.004804E+0	1.059180E+0	1.012777E+0	1.019076E+0	1.007314E+0	1.074538E+0	1.050298E+0	9.960058E-1	1.014650E+0	1.082643E+0	1.029931E+0	1.049327E+0	1.039966E+0	1.060369E+0	1.045578E+0	1.019406E+0	9.857807E-1	1.019298E+0	1.027382E+0	1.018115E+0	1.015184E+0	1.006822E+0	1.045810E+0	1.067946E+0	1.032540E+0	9.768161E-1	1.030397E+0	1.023758E+0	1.053556E+0	1.030023E+0	1.026452E+0	1.037078E+0	1.022215E+0	1.022865E+0	1.052166E+0	1.028288E+0	1.016676E+0	1.020080E+0	1.051428E+0	1.064255E+0	1.072246E+0	1.003763E+0	1.015385E+0	1.070361E+0	1.052361E+0	1.064597E+0	1.054766E+0	1.001157E+0	1.020913E+0	1.019060E+0	1.019928E+0	1.047374E+0	1.060180E+0	1.030106E+0	1.040799E+0	1.036401E+0	1.012094E+0	1.028462E+0	1.032609E+0	1.055111E+0	1.056753E+0	1.060211E+0	1.023888E+0	1.006489E+0	1.054204E+0	1.046890E+0	1.065154E+0	1.033308E+0	1.035426E+0	1.038838E+0	1.033264E+0	1.029119E+0	9.953682E-1	9.925867E-1	9.837826E-1	1.037351E+0	1.029392E+0	1.049595E+0	1.013387E+0	1.075582E+0	1.067597E+0	1.052106E+0	1.012945E+0	1.058044E+0	1.032662E+0	1.049299E+0	1.025820E+0	1.051084E+0	1.074149E+0	9.933102E-1	1.024883E+0	1.032193E+0	9.912795E-1	1.022583E+0	1.046307E+0	1.059848E+0	1.029929E+0	1.059915E+0	1.016167E+0	1.059560E+0	1.028564E+0	1.034893E+0	1.024629E+0	1.039783E+0	1.049442E+0	1.042747E+0	1.051875E+0	1.068606E+0	1.013801E+0	1.037042E+0	9.836557E-1	1.023779E+0	1.048938E+0	1.026426E+0	1.047878E+0	1.000411E+0	9.998766E-1	1.076161E+0	1.017041E+0	1.035085E+0	9.965623E-1	9.892322E-1	9.942456E-1
5.360120E+2	8.394970E-1	8.264444E-1	8.426593E-1	8.614687E-1	8.633640E-1	9.050891E-1	8.690624E-1	8.366921E-1	8.513584E-1	8.713674E-1	8.675931E-1	8.153141E-1	8.825677E-1	8.596234E-1	8.549583E-1	8.678293E-1	8.876430E-1	8.464918E-1	8.502108E-1	8.705478E-1	8.518777E-1	8.670330E-1	8.386960E-1	8.672394E-1	8.497248E-1	8.708950E-1	8.681041E-1	8.368551E-1	8.576942E-1	8.870367E-1	8.672966E-1	8.471014E-1	8.805975E-1	8.558967E-1	8.836270E-1	8.781998E-1	8.640700E-1	8.738225E-1	8.664362E-1	8.544219E-1	8.593937E-1	8.615239E-1	8.621285E-1	8.676002E-1	8.267403E-1	8.451535E-1	8.555109E-1	8.571787E-1	8.337529E-1	8.884476E-1	8.655889E-1	8.578258E-1	9.340117E-1	9.165269E-1	8.374017E-1	8.433650E-1	8.248536E-1	8.599726E-1	8.546359E-1	8.982851E-1	8.729221E-1	8.615396E-1	8.508107E-1	8.562230E-1	8.808514E-1	8.557070E-1	8.398427E-1	8.865460E-1	8.436801E-1	8.963564E-1	8.549419E-1	8.420835E-1	8.296606E-1	8.859205E-1	8.793814E-1	8.609497E-1	8.482624E-1	8.713512E-1	8.691015E-1	8.584945E-1	8.335724E-1	8.461941E-1	8.404928E-1	8.570559E-1	8.365036E-1	8.369934E-1	8.607889E-1	8.457463E-1	8.716217E-1	8.480063E-1	8.473573E-1	8.322657E-1	9.387183E-1	8.529220E-1	8.389242E-1	8.388673E-1	8.516601E-1	8.584628E-1	8.597763E-1	8.803281E-1	8.744798E-1	8.243247E-1	9.170550E-1	8.254130E-1	8.759067E-1	8.966874E-1	8.682221E-1	8.586243E-1	8.283422E-1	8.775059E-1	8.440218E-1	8.481638E-1	9.139689E-1	8.516356E-1	8.504246E-1	8.431563E-1	8.571904E-1	8.479408E-1	8.583405E-1	8.244386E-1	8.533729E-1	8.624303E-1	8.778599E-1	8.453149E-1	9.111327E-1	8.875915E-1	8.705833E-1	8.846075E-1	8.691552E-1	8.626528E-1	8.725781E-1	8.168808E-1	8.709186E-1	8.614252E-1	8.366610E-1	8.415825E-1	8.767897E-1	8.886356E-1	8.623674E-1	8.509720E-1	8.794973E-1	8.707569E-1	8.949720E-1	8.257522E-1	8.353502E-1	8.473995E-1	8.966403E-1	8.761826E-1	8.711375E-1	8.961461E-1	8.753752E-1	8.841290E-1	8.876782E-1	8.842822E-1	8.789358E-1	8.281648E-1	8.511901E-1	8.866480E-1	8.541898E-1	8.582707E-1	8.799310E-1	8.906922E-1	8.908512E-1	8.461882E-1	8.493680E-1	8.418948E-1	8.774258E-1	9.155898E-1	9.070482E-1	8.538337E-1
5.362730E+2	6.554561E-1	7.007751E-1	6.274905E-1	6.454098E-1	6.830912E-1	6.948450E-1	6.345837E-1	6.499229E-1	6.789067E-1	6.955155E-1	6.248894E-1	6.438330E-1	6.541216E-1	6.793527E-1	6.463407E-1	6.541264E-1	6.709578E-1	6.304522E-1	6.352452E-1	6.519579E-1	6.747536E-1	6.658842E-1	6.779976E-1	6.633805E-1	6.688698E-1	6.595388E-1	6.368188E-1	6.874992E-1	6.778522E-1	6.642458E-1	6.600132E-1	6.311350E-1	6.696826E-1	6.768512E-1	6.576347E-1	6.258668E-1	6.370926E-1	6.272123E-1	6.373241E-1	6.546216E-1	6.378058E-1	6.478460E-1	6.468305E-1	6.357224E-1	6.365501E-1	6.268392E-1	6.462298E-1	6.367113E-1	6.762067E-1	6.750661E-1	6.393944E-1	6.445885E-1	6.765006E-1	6.771400E-1	6.967047E-1	6.602340E-1	6.750502E-1	7.013340E-1	6.357363E-1	6.598627E-1	6.824839E-1	6.646848E-1	6.433397E-1	6.413826E-1	6.506925E-1	6.544117E-1	6.638163E-1	6.486372E-1	6.701494E-1	6.543426E-1	6.424209E-1	6.455599E-1	6.552239E-1	6.953609E-1	6.652126E-1	6.414861E-1	6.366901E-1	6.352675E-1	6.472760E-1	6.430572E-1	6.934042E-1	6.437528E-1	6.546992E-1	6.441869E-1	6.407768E-1	6.436718E-1	6.550809E-1	6.953823E-1	6.560807E-1	6.426088E-1	7.008427E-1	6.372100E-1	7.039398E-1	6.741006E-1	6.273280E-1	6.525876E-1	6.563061E-1	6.911770E-1	6.513568E-1	6.684723E-1	6.867012E-1	6.813868E-1	6.951691E-1	6.665990E-1	6.624097E-1	6.688684E-1	6.526490E-1	6.718804E-1	6.510978E-1	6.444436E-1	6.340790E-1	6.547645E-1	6.466445E-1	6.394806E-1	6.739007E-1	6.513512E-1	6.658792E-1	6.682002E-1	6.453230E-1	6.369832E-1	6.618233E-1	7.025040E-1	6.409021E-1	6.506773E-1	6.849860E-1	6.504354E-1	7.117342E-1	6.380234E-1	6.894859E-1	6.204708E-1	6.368505E-1	6.597875E-1	7.013686E-1	7.031948E-1	6.964324E-1	6.469256E-1	6.529511E-1	6.567382E-1	6.757755E-1	6.819808E-1	6.523186E-1	6.327653E-1	6.631572E-1	6.721832E-1	6.780596E-1	6.444179E-1	6.931259E-1	6.405484E-1	7.184839E-1	6.752035E-1	6.705941E-1	6.540565E-1	6.518846E-1	6.725788E-1	6.725490E-1	6.616293E-1	6.340077E-1	6.884839E-1	6.628555E-1	6.678398E-1	6.896655E-1	6.777528E-1	6.547249E-1	6.673446E-1	6.663932E-1	6.232661E-1	6.397015E-1	6.370857E-1	6.869796E-1	7.554085E-1
5.365140E+2	5.710330E-1	5.535333E-1	5.924999E-1	5.324838E-1	5.855435E-1	5.643508E-1	5.443564E-1	5.707004E-1	5.383759E-1	5.196642E-1	5.636492E-1	5.401912E-1	5.607479E-1	5.669893E-1	5.144690E-1	5.567002E-1	5.572434E-1	5.565799E-1	5.648711E-1	5.838742E-1	5.882083E-1	5.550601E-1	5.542713E-1	5.595976E-1	5.395038E-1	5.704652E-1	5.584256E-1	5.476727E-1	5.991598E-1	5.557041E-1	5.721391E-1	5.490384E-1	5.464830E-1	5.902318E-1	5.419817E-1	5.481509E-1	5.919666E-1	5.890334E-1	5.468443E-1	5.542970E-1	5.228239E-1	5.288101E-1	5.573740E-1	5.741242E-1	5.569012E-1	5.367379E-1	5.666029E-1	5.619315E-1	5.794900E-1	5.800644E-1	5.448843E-1	5.305826E-1	5.992661E-1	5.619104E-1	5.388404E-1	5.445449E-1	5.819753E-1	5.513498E-1	5.418869E-1	5.577253E-1	5.582180E-1	5.532323E-1	5.414391E-1	5.508689E-1	5.769652E-1	5.397913E-1	5.675791E-1	5.522903E-1	5.544126E-1	5.398862E-1	5.590194E-1	5.697195E-1	5.403945E-1	5.781439E-1	5.420754E-1	5.733161E-1	5.895215E-1	5.616552E-1	5.464459E-1	5.768165E-1	5.497951E-1	5.658575E-1	5.462027E-1	5.556356E-1	5.561742E-1	5.170536E-1	5.345059E-1	5.394862E-1	5.660657E-1	5.524549E-1	6.025387E-1	5.575782E-1	5.704425E-1	5.593287E-1	5.720122E-1	5.664111E-1	5.668832E-1	5.031338E-1	5.497274E-1	5.503195E-1	5.770817E-1	5.436873E-1	5.600463E-1	5.978853E-1	5.942214E-1	5.767576E-1	5.818776E-1	5.640480E-1	6.070204E-1	5.542038E-1	5.767208E-1	5.756484E-1	5.675566E-1	5.957207E-1	5.627103E-1	5.687501E-1	6.314291E-1	5.719995E-1	5.578002E-1	5.515568E-1	5.438585E-1	5.493754E-1	5.995005E-1	5.463025E-1	5.712339E-1	5.642375E-1	5.659378E-1	5.553894E-1	5.567640E-1	5.555980E-1	5.456607E-1	5.783886E-1	5.672199E-1	5.923141E-1	5.582678E-1	5.700628E-1	5.953824E-1	5.620088E-1	5.699814E-1	5.366233E-1	6.020022E-1	5.601288E-1	5.638072E-1	5.675194E-1	6.316983E-1	5.877139E-1	5.668734E-1	5.666822E-1	5.424484E-1	5.700539E-1	5.740762E-1	5.711635E-1	5.746899E-1	6.142179E-1	5.535539E-1	5.573397E-1	5.506207E-1	5.580442E-1	5.346504E-1	5.555119E-1	6.121673E-1	5.348461E-1	5.572481E-1	5.810000E-1	5.386293E-1	5.736702E-1	5.618176E-1	5.810928E-1	5.451416E-1	5.742866E-1
5.367710E+2	5.396192E-1	5.168207E-1	5.417640E-1	5.149920E-1	5.290233E-1	5.595480E-1	5.744061E-1	5.266857E-1	5.708121E-1	5.600828E-1	4.987662E-1	5.425796E-1	5.404148E-1	5.648422E-1	5.593338E-1	5.419202E-1	5.475100E-1	5.693771E-1	5.266638E-1	5.310193E-1	5.549442E-1	5.647801E-1	5.705246E-1	5.525302E-1	5.148177E-1	5.589334E-1	5.348345E-1	5.381535E-1	5.505919E-1	5.474158E-1	5.838241E-1	5.236191E-1	5.007917E-1	5.564316E-1	5.894818E-1	5.414742E-1	5.443948E-1	5.541102E-1	5.314537E-1	5.842056E-1	5.556376E-1	5.720780E-1	5.313787E-1	5.281355E-1	5.397569E-1	5.582326E-1	5.679062E-1	5.538640E-1	5.463567E-1	5.773228E-1	5.197850E-1	5.133433E-1	5.592125E-1	5.302902E-1	5.220841E-1	5.291262E-1	5.514245E-1	5.730988E-1	5.704547E-1	5.172468E-1	5.669523E-1	5.487359E-1	5.748980E-1	5.022145E-1	5.438375E-1	5.821527E-1	5.724117E-1	5.350648E-1	5.535130E-1	5.290981E-1	5.677971E-1	5.274060E-1	5.455569E-1	5.314334E-1	5.253517E-1	5.781856E-1	5.837565E-1	5.349270E-1	5.273240E-1	5.562418E-1	5.701235E-1	5.371534E-1	5.845220E-1	5.601791E-1	5.739759E-1	5.712097E-1	5.708462E-1	5.705354E-1	5.319399E-1	5.138216E-1	5.414143E-1	5.524885E-1	5.371724E-1	5.134696E-1	5.655083E-1	5.485237E-1	5.455105E-1	5.165743E-1	5.309464E-1	5.162336E-1	5.326151E-1	5.348483E-1	5.288170E-1	5.587020E-1	5.474178E-1	5.755321E-1	5.518268E-1	5.520489E-1	5.707436E-1	5.479046E-1	5.251465E-1	5.466644E-1	5.527217E-1	5.647608E-1	5.346318E-1	5.481038E-1	5.462289E-1	5.623446E-1	5.521449E-1	5.555486E-1	5.308194E-1	5.501844E-1	5.428287E-1	5.188603E-1	5.898229E-1	5.818089E-1	5.430659E-1	5.455804E-1	5.247144E-1	5.266716E-1	5.440761E-1	5.423497E-1	5.438296E-1	5.629779E-1	5.555358E-1	5.553655E-1	5.298013E-1	5.947092E-1	5.426962E-1	5.483885E-1	5.437470E-1	5.559389E-1	5.398799E-1	5.439712E-1	5.498756E-1	5.595190E-1	5.616992E-1	5.640943E-1	5.523759E-1	5.308239E-1	5.450528E-1	5.549397E-1	5.712862E-1	5.833172E-1	5.499664E-1	5.421322E-1	5.598886E-1	5.620035E-1	5.601761E-1	5.414488E-1	5.913886E-1	5.425362E-1	5.590436E-1	5.091877E-1	5.559813E-1	5.562073E-1	5.457452E-1	5.480850E-1	5.628676E-1	5.901747E-1
5.370120E+2	5.794341E-1	5.823701E-1	5.418910E-1	5.899933E-1	5.690139E-1	5.877944E-1	5.701394E-1	5.890394E-1	5.473594E-1	5.631370E-1	5.663695E-1	5.932757E-1	6.178809E-1	6.018023E-1	5.927392E-1	5.790209E-1	5.975580E-1	5.932182E-1	5.925746E-1	5.522734E-1	5.904379E-1	5.702452E-1	5.980046E-1	5.790553E-1	5.981413E-1	6.097267E-1	6.115956E-1	5.793388E-1	6.328071E-1	6.050667E-1	5.654702E-1	5.585511E-1	5.693152E-1	5.984491E-1	5.769609E-1	5.701824E-1	5.746603E-1	6.046578E-1	5.648006E-1	5.886731E-1	5.845731E-1	5.903627E-1	5.740075E-1	5.670625E-1	5.774890E-1	5.758009E-1	5.945448E-1	5.572913E-1	5.692512E-1	5.792991E-1	6.160931E-1	5.649407E-1	5.850927E-1	6.141335E-1	5.935471E-1	5.712396E-1	5.910357E-1	6.032020E-1	5.172248E-1	5.578026E-1	5.922584E-1	5.803061E-1	5.888558E-1	5.745968E-1	5.822689E-1	5.896259E-1	5.688402E-1	5.810500E-1	5.828298E-1	5.729733E-1	6.066631E-1	5.902880E-1	5.889991E-1	5.631530E-1	5.455227E-1	5.815542E-1	5.960050E-1	5.816280E-1	5.937418E-1	5.799728E-1	5.903949E-1	5.854743E-1	5.748129E-1	5.933490E-1	5.880133E-1	5.814552E-1	5.968469E-1	6.089549E-1	5.352327E-1	5.621366E-1	5.977560E-1	6.003289E-1	5.884987E-1	5.802420E-1	5.794583E-1	5.905280E-1	6.162742E-1	5.602797E-1	5.751460E-1	6.076612E-1	5.789606E-1	5.715889E-1	6.325927E-1	6.055992E-1	5.625692E-1	5.938254E-1	5.770421E-1	5.793443E-1	5.561692E-1	5.785858E-1	5.985158E-1	5.824615E-1	6.048889E-1	5.865267E-1	5.802015E-1	6.031407E-1	6.025642E-1	5.940341E-1	6.172143E-1	5.791554E-1	5.822672E-1	5.786466E-1	6.346286E-1	5.779515E-1	6.126389E-1	5.884630E-1	6.192252E-1	5.636101E-1	5.681445E-1	5.831501E-1	5.821810E-1	6.396692E-1	6.095383E-1	5.884396E-1	6.024612E-1	6.355712E-1	6.064189E-1	6.218374E-1	5.883997E-1	5.925843E-1	5.907775E-1	5.865287E-1	5.982456E-1	5.550187E-1	5.933620E-1	5.731318E-1	6.101439E-1	5.924025E-1	6.250082E-1	6.065553E-1	5.904020E-1	5.912276E-1	5.705074E-1	6.444447E-1	5.922490E-1	5.812404E-1	6.049866E-1	6.165348E-1	5.712862E-1	6.068185E-1	5.948186E-1	5.945443E-1	6.019110E-1	6.261834E-1	5.924767E-1	5.766833E-1	6.147836E-1	6.229648E-1	6.030305E-1	5.889641E-1
5.372590E+2	6.466118E-1	7.082645E-1	6.221634E-1	6.548423E-1	6.306974E-1	6.991925E-1	6.869711E-1	6.521024E-1	6.469217E-1	6.932959E-1	6.620169E-1	6.752678E-1	6.350779E-1	6.452244E-1	6.669126E-1	6.542068E-1	6.511758E-1	6.428014E-1	6.570731E-1	6.571981E-1	6.392247E-1	6.737635E-1	6.693202E-1	6.510809E-1	6.697180E-1	6.774552E-1	6.929465E-1	6.468710E-1	6.532444E-1	6.686472E-1	6.467798E-1	6.624404E-1	6.655868E-1	6.495913E-1	6.417774E-1	6.485978E-1	6.780063E-1	6.473777E-1	6.695491E-1	6.477429E-1	6.188877E-1	6.656432E-1	6.471029E-1	6.866881E-1	6.743781E-1	6.177362E-1	6.890323E-1	6.411867E-1	6.858441E-1	7.059913E-1	6.517656E-1	6.700473E-1	7.009936E-1	6.623287E-1	6.712434E-1	6.518754E-1	6.685967E-1	6.797174E-1	6.404253E-1	6.353144E-1	6.643660E-1	6.760258E-1	6.494792E-1	6.357772E-1	6.771231E-1	6.526580E-1	7.018382E-1	6.189228E-1	6.465036E-1	6.652430E-1	6.668047E-1	6.775941E-1	6.745681E-1	6.431188E-1	6.924285E-1	6.820123E-1	6.519146E-1	6.664078E-1	6.550381E-1	6.895668E-1	6.785529E-1	6.671405E-1	6.443241E-1	6.349485E-1	6.610713E-1	6.680801E-1	6.320515E-1	6.734035E-1	6.485229E-1	6.695660E-1	6.731109E-1	6.786556E-1	6.762783E-1	6.429652E-1	6.688220E-1	6.631701E-1	7.174617E-1	6.171363E-1	6.540917E-1	6.765222E-1	6.734233E-1	6.675517E-1	7.116516E-1	6.792462E-1	6.840400E-1	6.754719E-1	6.851915E-1	6.700480E-1	6.918749E-1	6.793140E-1	6.622098E-1	6.641333E-1	6.450071E-1	7.062440E-1	6.427864E-1	6.514372E-1	6.952881E-1	6.574238E-1	6.764417E-1	6.421447E-1	6.893571E-1	6.626539E-1	6.639314E-1	6.772419E-1	6.850931E-1	6.936446E-1	6.732199E-1	6.761164E-1	6.619622E-1	6.417580E-1	6.577641E-1	6.523221E-1	7.099699E-1	7.027309E-1	6.476221E-1	6.895821E-1	6.773961E-1	6.779668E-1	6.510146E-1	7.078723E-1	6.601052E-1	6.609997E-1	6.844574E-1	6.488532E-1	6.819313E-1	6.423399E-1	6.608525E-1	6.890636E-1	6.535263E-1	7.275278E-1	6.792654E-1	6.613233E-1	6.552751E-1	6.518015E-1	6.770294E-1	6.631832E-1	6.508716E-1	6.318729E-1	6.797844E-1	6.532858E-1	6.907297E-1	6.016763E-1	6.641434E-1	6.400414E-1	6.963996E-1	6.539827E-1	6.847536E-1	6.685104E-1	6.051284E-1	6.554187E-1
5.375110E+2	7.529453E-1	8.130478E-1	7.557034E-1	7.680720E-1	7.546954E-1	8.161668E-1	7.377138E-1	7.735758E-1	7.399780E-1	7.397107E-1	7.858062E-1	7.749685E-1	7.712335E-1	6.954329E-1	7.490269E-1	7.284688E-1	7.267667E-1	7.395212E-1	7.838293E-1	7.873300E-1	7.300945E-1	7.654672E-1	7.590408E-1	7.321462E-1	7.343466E-1	7.641542E-1	7.851845E-1	7.713234E-1	7.873880E-1	7.461717E-1	7.786103E-1	7.669011E-1	7.833492E-1	7.545804E-1	7.551795E-1	7.720794E-1	7.523602E-1	7.533652E-1	8.094428E-1	7.422706E-1	7.501082E-1	7.698761E-1	7.624048E-1	7.811950E-1	7.227347E-1	7.479241E-1	7.759967E-1	7.659461E-1	7.347832E-1	7.463838E-1	7.556293E-1	7.277394E-1	7.864029E-1	7.644497E-1	7.654452E-1	7.360534E-1	7.104314E-1	7.641957E-1	7.710914E-1	7.582043E-1	7.784387E-1	7.870811E-1	7.803784E-1	7.454070E-1	7.386351E-1	7.881761E-1	7.690768E-1	7.737618E-1	7.644924E-1	7.423208E-1	7.896674E-1	7.702801E-1	7.798243E-1	7.911068E-1	7.771986E-1	7.015997E-1	7.406437E-1	7.503478E-1	7.509311E-1	7.645046E-1	7.663436E-1	7.455730E-1	7.681978E-1	7.355922E-1	7.677899E-1	7.712689E-1	7.959970E-1	7.747977E-1	7.146533E-1	7.380358E-1	7.413607E-1	7.713098E-1	7.616533E-1	7.439158E-1	7.537162E-1	7.468114E-1	7.683193E-1	7.661765E-1	7.398165E-1	7.757949E-1	7.276877E-1	7.624855E-1	7.508141E-1	7.191263E-1	7.801915E-1	7.245020E-1	7.591388E-1	7.520576E-1	7.709739E-1	7.691485E-1	7.851983E-1	7.710976E-1	7.597104E-1	7.711246E-1	7.711791E-1	7.604821E-1	8.515944E-1	7.889499E-1	7.590827E-1	7.507831E-1	7.392380E-1	7.741942E-1	8.112487E-1	7.450741E-1	7.860543E-1	7.885408E-1	7.611700E-1	7.636240E-1	7.460581E-1	7.441597E-1	7.608837E-1	7.806529E-1	8.102161E-1	7.847282E-1	7.687639E-1	7.484266E-1	7.937056E-1	7.794173E-1	7.866355E-1	7.625678E-1	7.621510E-1	7.474479E-1	7.306230E-1	7.311721E-1	7.870254E-1	7.361584E-1	7.114809E-1	7.682482E-1	7.725650E-1	7.865166E-1	7.096604E-1	7.635259E-1	7.480776E-1	7.411880E-1	7.673645E-1	7.501022E-1	8.039399E-1	7.951965E-1	7.328010E-1	7.745899E-1	8.231785E-1	7.870724E-1	7.663790E-1	7.873462E-1	7.825862E-1	7.838975E-1	7.606410E-1	7.762028E-1	7.950320E-1	7.849809E-1
5.377630E+2	8.883215E-1	8.729360E-1	8.208398E-1	8.796003E-1	8.874294E-1	9.219190E-1	8.965215E-1	9.041874E-1	8.503971E-1	8.774257E-1	8.546163E-1	9.089978E-1	8.839597E-1	8.335390E-1	8.846454E-1	8.449914E-1	8.485559E-1	9.011832E-1	8.824603E-1	8.841940E-1	8.746171E-1	9.261620E-1	8.831181E-1	8.632375E-1	8.729270E-1	9.426126E-1	8.560862E-1	8.843080E-1	8.933524E-1	8.822075E-1	8.988317E-1	8.456904E-1	8.929125E-1	8.891285E-1	8.848884E-1	8.544526E-1	8.895566E-1	8.710865E-1	8.785727E-1	8.837658E-1	8.803740E-1	9.016897E-1	8.774230E-1	8.374427E-1	8.875884E-1	8.555214E-1	9.203847E-1	8.254827E-1	8.976912E-1	8.957313E-1	8.736886E-1	9.104914E-1	8.851685E-1	9.194927E-1	9.097651E-1	8.967957E-1	8.946326E-1	9.218953E-1	8.954245E-1	8.849839E-1	9.042683E-1	8.641638E-1	8.797647E-1	8.784156E-1	8.877716E-1	9.124275E-1	8.797352E-1	8.760045E-1	8.870359E-1	8.896105E-1	8.945195E-1	8.892170E-1	8.344631E-1	8.737298E-1	8.831015E-1	8.451277E-1	8.950346E-1	8.968064E-1	8.890578E-1	9.190796E-1	8.496578E-1	8.662039E-1	8.630345E-1	8.603177E-1	9.413502E-1	8.819884E-1	8.771227E-1	9.013629E-1	8.755587E-1	9.076683E-1	8.785758E-1	8.668216E-1	9.536580E-1	8.865088E-1	8.409077E-1	8.861617E-1	8.951436E-1	8.895572E-1	9.175100E-1	8.933720E-1	9.153066E-1	8.821864E-1	9.154116E-1	9.361821E-1	8.815704E-1	9.146431E-1	9.176962E-1	8.901027E-1	8.480933E-1	9.291645E-1	9.191730E-1	9.037209E-1	8.964844E-1	8.534667E-1	9.128806E-1	8.705853E-1	9.341555E-1	9.103718E-1	8.806275E-1	8.805687E-1	8.459059E-1	8.989949E-1	9.248520E-1	8.737002E-1	9.255375E-1	8.782260E-1	8.792370E-1	9.050581E-1	9.202418E-1	8.816559E-1	9.068614E-1	8.508050E-1	9.071403E-1	9.052436E-1	8.688818E-1	8.945748E-1	8.859367E-1	8.730983E-1	8.608673E-1	8.857785E-1	9.046244E-1	8.901249E-1	8.866556E-1	8.741769E-1	9.097653E-1	8.674593E-1	8.810203E-1	8.835228E-1	9.103956E-1	8.838928E-1	8.754992E-1	9.207255E-1	8.540798E-1	9.127801E-1	8.872347E-1	8.976927E-1	8.540839E-1	9.057473E-1	8.580787E-1	8.956357E-1	9.476890E-1	8.719721E-1	9.203756E-1	8.874543E-1	9.421902E-1	8.596110E-1	8.987344E-1	9.232801E-1	8.382406E-1	8.923838E-1
5.380110E+2	1.010745E+0	9.931782E-1	9.992437E-1	9.361348E-1	9.741688E-1	9.928109E-1	9.769690E-1	9.679140E-1	9.605534E-1	9.974974E-1	9.653476E-1	9.753129E-1	1.026940E+0	1.021707E+0	1.001887E+0	9.757932E-1	9.880122E-1	9.670521E-1	1.013794E+0	9.542206E-1	1.002980E+0	1.022879E+0	9.956574E-1	9.589070E-1	9.785833E-1	9.692620E-1	1.021093E+0	1.027131E+0	1.004083E+0	1.052391E+0	1.010751E+0	9.387927E-1	1.005543E+0	1.020844E+0	9.543146E-1	9.721538E-1	9.974008E-1	9.933671E-1	1.020407E+0	9.652833E-1	1.036591E+0	9.814989E-1	9.923318E-1	9.922065E-1	9.664903E-1	9.634351E-1	1.002216E+0	9.716925E-1	1.043128E+0	9.725305E-1	1.015205E+0	9.971290E-1	1.003246E+0	1.047237E+0	1.009720E+0	9.293694E-1	1.018421E+0	1.007807E+0	9.596429E-1	9.936462E-1	9.628397E-1	9.882005E-1	9.984717E-1	9.635441E-1	9.786189E-1	1.003379E+0	1.005386E+0	9.685829E-1	9.783053E-1	1.024734E+0	1.001780E+0	1.001222E+0	9.809857E-1	1.029357E+0	9.871631E-1	1.025185E+0	1.011152E+0	9.799667E-1	9.843538E-1	9.736515E-1	1.043955E+0	9.826637E-1	9.743112E-1	9.860756E-1	1.006063E+0	9.641630E-1	9.666095E-1	1.056332E+0	9.437974E-1	1.026347E+0	1.045077E+0	9.863958E-1	1.009620E+0	9.718770E-1	9.979666E-1	1.001951E+0	1.013144E+0	9.393375E-1	9.831697E-1	1.004850E+0	1.069619E+0	9.655757E-1	1.020569E+0	9.587744E-1	1.002079E+0	9.830570E-1	9.851953E-1	1.015876E+0	9.830176E-1	9.929070E-1	1.013021E+0	9.537965E-1	1.009680E+0	1.006177E+0	9.741365E-1	9.949036E-1	1.025704E+0	9.361486E-1	1.006411E+0	1.007426E+0	1.006656E+0	9.549913E-1	9.544939E-1	1.017269E+0	1.027420E+0	9.852753E-1	9.886872E-1	9.980570E-1	9.684223E-1	9.861471E-1	9.818445E-1	9.862264E-1	9.805230E-1	1.010125E+0	9.979776E-1	9.736832E-1	9.801416E-1	9.242294E-1	1.007707E+0	9.695860E-1	9.506076E-1	9.988640E-1	1.028258E+0	9.925150E-1	1.003086E+0	9.701559E-1	9.836292E-1	1.021258E+0	9.739864E-1	9.780518E-1	9.660571E-1	9.573124E-1	9.982709E-1	1.031882E+0	1.004701E+0	1.017627E+0	9.862583E-1	9.551064E-1	9.933941E-1	1.016938E+0	1.053287E+0	9.983422E-1	1.007019E+0	9.744321E-1	1.033540E+0	1.009632E+0	1.019554E+0	1.017481E+0	9.526363E-1	9.912036E-1
5.382690E+2	1.176155E+0	1.162614E+0	1.215434E+0	1.165035E+0	1.201241E+0	1.194916E+0	1.198311E+0	1.233082E+0	1.178667E+0	1.237697E+0	1.203817E+0	1.218611E+0	1.187321E+0	1.176030E+0	1.225147E+0	1.202407E+0	1.218616E+0	1.219349E+0	1.180046E+0	1.244558E+0	1.175365E+0	1.219793E+0	1.277297E+0	1.226356E+0	1.199879E+0	1.205644E+0	1.211803E+0	1.223579E+0	1.207205E+0	1.228270E+0	1.258480E+0	1.151302E+0	1.229129E+0	1.158683E+0	1.191289E+0	1.214387E+0	1.231564E+0	1.254413E+0	1.234397E+0	1.226622E+0	1.202485E+0	1.207288E+0	1.225734E+0	1.169778E+0	1.178998E+0	1.173820E+0	1.203405E+0	1.205025E+0	1.222439E+0	1.202781E+0	1.170718E+0	1.175318E+0	1.203019E+0	1.183301E+0	1.221025E+0	1.183338E+0	1.149698E+0	1.241922E+0	1.201952E+0	1.188542E+0	1.215182E+0	1.214092E+0	1.209730E+0	1.147436E+0	1.194697E+0	1.179867E+0	1.207215E+0	1.174087E+0	1.159860E+0	1.245330E+0	1.226940E+0	1.166408E+0	1.180339E+0	1.238586E+0	1.228038E+0	1.199636E+0	1.243220E+0	1.158233E+0	1.189217E+0	1.175777E+0	1.201208E+0	1.141703E+0	1.129302E+0	1.235727E+0	1.189127E+0	1.213099E+0	1.203257E+0	1.216088E+0	1.165708E+0	1.197557E+0	1.204330E+0	1.184001E+0	1.225436E+0	1.206806E+0	1.188681E+0	1.150580E+0	1.182285E+0	1.217858E+0	1.186927E+0	1.158379E+0	1.208816E+0	1.233647E+0	1.211542E+0	1.226970E+0	1.159325E+0	1.185207E+0	1.183738E+0	1.214507E+0	1.195555E+0	1.204129E+0	1.194976E+0	1.206041E+0	1.210866E+0	1.231093E+0	1.196600E+0	1.191357E+0	1.204392E+0	1.189754E+0	1.192755E+0	1.143157E+0	1.189253E+0	1.143461E+0	1.187929E+0	1.201035E+0	1.207527E+0	1.192717E+0	1.218957E+0	1.188361E+0	1.212617E+0	1.194428E+0	1.220660E+0	1.148944E+0	1.194619E+0	1.209158E+0	1.193451E+0	1.157588E+0	1.161567E+0	1.233297E+0	1.159802E+0	1.184513E+0	1.168286E+0	1.183235E+0	1.172270E+0	1.170081E+0	1.143885E+0	1.231004E+0	1.219501E+0	1.189400E+0	1.195113E+0	1.160060E+0	1.191570E+0	1.181358E+0	1.171726E+0	1.258709E+0	1.219724E+0	1.214407E+0	1.187671E+0	1.185938E+0	1.201521E+0	1.237816E+0	1.156407E+0	1.157305E+0	1.198639E+0	1.231353E+0	1.224218E+0	1.154419E+0	1.169927E+0	1.235167E+0	1.223775E+0	1.246829E+0
5.385010E+2	1.379013E+0	1.424938E+0	1.392085E+0	1.385927E+0	1.401614E+0	1.435100E+0	1.407657E+0	1.446978E+0	1.369976E+0	1.415304E+0	1.468404E+0	1.419066E+0	1.457387E+0	1.446673E+0	1.419752E+0	1.426212E+0	1.422517E+0	1.398691E+0	1.489459E+0	1.475532E+0	1.429721E+0	1.466340E+0	1.461607E+0	1.432964E+0	1.391550E+0	1.526619E+0	1.456789E+0	1.391548E+0	1.476045E+0	1.440874E+0	1.424698E+0	1.357850E+0	1.448834E+0	1.418256E+0	1.384530E+0	1.371876E+0	1.397132E+0	1.404423E+0	1.434437E+0	1.429328E+0	1.413871E+0	1.483156E+0	1.433895E+0	1.394469E+0	1.405674E+0	1.393493E+0	1.404318E+0	1.437163E+0	1.415445E+0	1.400251E+0	1.434690E+0	1.396473E+0	1.433616E+0	1.487800E+0	1.425792E+0	1.389568E+0	1.389343E+0	1.464671E+0	1.477851E+0	1.375698E+0	1.463769E+0	1.442067E+0	1.377053E+0	1.411412E+0	1.374560E+0	1.440220E+0	1.420643E+0	1.434594E+0	1.394794E+0	1.421689E+0	1.410048E+0	1.410854E+0	1.410983E+0	1.409377E+0	1.394452E+0	1.410200E+0	1.409216E+0	1.416290E+0	1.406670E+0	1.359714E+0	1.416523E+0	1.450913E+0	1.393197E+0	1.309452E+0	1.375084E+0	1.403229E+0	1.412330E+0	1.417006E+0	1.376654E+0	1.461881E+0	1.413785E+0	1.426332E+0	1.441424E+0	1.353665E+0	1.450792E+0	1.359762E+0	1.414683E+0	1.434017E+0	1.394353E+0	1.413096E+0	1.400044E+0	1.417507E+0	1.453317E+0	1.419065E+0	1.440925E+0	1.436627E+0	1.420159E+0	1.439202E+0	1.397848E+0	1.422232E+0	1.397445E+0	1.378689E+0	1.419934E+0	1.362284E+0	1.395303E+0	1.431237E+0	1.418826E+0	1.441080E+0	1.388566E+0	1.394239E+0	1.380281E+0	1.409737E+0	1.405161E+0	1.423861E+0	1.484959E+0	1.407367E+0	1.482904E+0	1.401935E+0	1.417321E+0	1.383163E+0	1.387074E+0	1.408185E+0	1.452650E+0	1.527356E+0	1.405327E+0	1.445035E+0	1.449162E+0	1.398370E+0	1.435282E+0	1.442822E+0	1.392091E+0	1.465668E+0	1.410983E+0	1.359963E+0	1.313980E+0	1.432252E+0	1.365189E+0	1.446480E+0	1.423126E+0	1.412811E+0	1.416010E+0	1.410005E+0	1.387082E+0	1.416462E+0	1.439456E+0	1.407446E+0	1.374244E+0	1.387258E+0	1.386506E+0	1.378769E+0	1.457307E+0	1.412734E+0	1.449948E+0	1.383789E+0	1.402614E+0	1.361087E+0	1.404499E+0	1.424089E+0	1.439904E+0	1.369118E+0
5.387600E+2	1.735423E+0	1.706252E+0	1.657954E+0	1.735501E+0	1.679469E+0	1.682736E+0	1.740198E+0	1.658804E+0	1.635980E+0	1.655861E+0	1.673737E+0	1.691942E+0	1.677285E+0	1.666417E+0	1.707879E+0	1.727736E+0	1.625451E+0	1.679369E+0	1.675193E+0	1.609025E+0	1.703765E+0	1.714672E+0	1.729823E+0	1.663922E+0	1.633563E+0	1.791368E+0	1.709515E+0	1.723688E+0	1.741071E+0	1.683941E+0	1.644925E+0	1.646386E+0	1.688454E+0	1.692300E+0	1.676893E+0	1.634074E+0	1.705784E+0	1.697180E+0	1.750540E+0	1.664574E+0	1.715610E+0	1.686069E+0	1.645865E+0	1.718110E+0	1.690356E+0	1.637480E+0	1.650663E+0	1.655797E+0	1.644174E+0	1.707902E+0	1.677208E+0	1.637520E+0	1.669377E+0	1.667492E+0	1.702730E+0	1.674552E+0	1.634772E+0	1.659017E+0	1.699460E+0	1.670290E+0	1.678550E+0	1.681259E+0	1.666098E+0	1.670522E+0	1.666677E+0	1.688970E+0	1.695964E+0	1.628747E+0	1.650492E+0	1.658743E+0	1.666446E+0	1.693442E+0	1.654425E+0	1.750754E+0	1.682898E+0	1.624154E+0	1.649725E+0	1.656807E+0	1.758207E+0	1.606818E+0	1.628004E+0	1.639747E+0	1.647103E+0	1.584213E+0	1.657339E+0	1.700574E+0	1.616802E+0	1.662240E+0	1.608085E+0	1.681495E+0	1.699722E+0	1.688108E+0	1.664953E+0	1.649089E+0	1.657574E+0	1.708581E+0	1.664887E+0	1.617018E+0	1.604261E+0	1.710176E+0	1.710806E+0	1.643024E+0	1.718173E+0	1.723089E+0	1.663481E+0	1.680558E+0	1.697163E+0	1.630666E+0	1.635390E+0	1.662890E+0	1.704101E+0	1.691205E+0	1.715746E+0	1.652174E+0	1.693390E+0	1.665276E+0	1.666165E+0	1.705088E+0	1.646839E+0	1.636181E+0	1.665987E+0	1.659214E+0	1.678553E+0	1.662085E+0	1.769378E+0	1.695930E+0	1.693437E+0	1.619137E+0	1.681031E+0	1.543655E+0	1.651118E+0	1.652149E+0	1.663646E+0	1.740552E+0	1.653265E+0	1.670669E+0	1.658384E+0	1.673875E+0	1.673651E+0	1.695793E+0	1.641574E+0	1.644151E+0	1.662771E+0	1.570581E+0	1.663344E+0	1.662054E+0	1.653973E+0	1.691708E+0	1.678877E+0	1.679047E+0	1.617898E+0	1.631222E+0	1.611117E+0	1.615154E+0	1.651282E+0	1.589675E+0	1.644990E+0	1.661397E+0	1.592401E+0	1.686170E+0	1.614763E+0	1.603101E+0	1.685804E+0	1.634944E+0	1.606850E+0	1.671270E+0	1.656273E+0	1.664217E+0	1.622294E+0	1.647402E+0
5.390290E+2	1.928228E+0	1.859748E+0	1.846655E+0	1.901919E+0	1.847403E+0	1.983412E+0	1.892324E+0	1.943355E+0	1.927236E+0	1.897132E+0	1.906103E+0	1.909320E+0	1.915233E+0	1.856423E+0	1.905068E+0	1.844103E+0	1.867202E+0	1.916447E+0	1.920893E+0	1.933164E+0	1.914946E+0	1.950402E+0	1.930582E+0	1.936244E+0	1.885903E+0	1.939507E+0	1.953349E+0	1.885800E+0	1.951621E+0	1.906582E+0	1.938413E+0	1.856129E+0	1.903608E+0	1.924309E+0	1.906508E+0	1.917066E+0	1.887361E+0	1.926300E+0	1.915597E+0	1.830106E+0	1.903612E+0	1.859198E+0	1.930374E+0	1.892050E+0	1.900995E+0	1.875939E+0	1.882946E+0	1.852330E+0	1.903515E+0	1.906316E+0	1.929478E+0	1.848192E+0	1.869541E+0	1.932106E+0	1.934470E+0	1.903427E+0	1.886707E+0	1.918109E+0	1.877301E+0	1.898333E+0	1.890424E+0	1.921567E+0	1.855537E+0	1.909044E+0	1.848920E+0	1.935201E+0	1.900152E+0	1.892850E+0	1.890093E+0	1.880222E+0	1.874286E+0	1.927832E+0	1.962753E+0	1.945742E+0	1.805148E+0	1.835244E+0	1.821317E+0	1.823670E+0	1.837913E+0	1.882502E+0	1.920601E+0	1.849443E+0	1.865398E+0	1.874030E+0	1.937913E+0	1.956772E+0	1.813565E+0	1.912851E+0	1.848500E+0	1.871386E+0	1.886828E+0	1.863551E+0	1.919001E+0	1.876161E+0	1.871389E+0	1.853388E+0	1.867834E+0	1.896456E+0	1.861135E+0	1.842438E+0	1.913142E+0	1.891059E+0	1.838820E+0	1.957749E+0	1.876902E+0	1.878746E+0	1.899313E+0	1.855515E+0	1.805776E+0	1.891307E+0	1.811028E+0	1.935043E+0	1.833244E+0	1.902602E+0	1.850256E+0	1.902619E+0	1.896963E+0	1.852949E+0	1.870821E+0	1.875684E+0	1.775525E+0	1.850873E+0	1.826552E+0	1.805547E+0	1.899226E+0	1.850931E+0	1.921916E+0	1.862273E+0	1.833080E+0	1.855483E+0	1.860468E+0	1.860863E+0	1.894285E+0	1.891048E+0	1.883393E+0	1.860952E+0	1.856155E+0	1.844669E+0	1.863197E+0	1.849570E+0	1.806951E+0	1.879364E+0	1.840025E+0	1.829199E+0	1.782078E+0	1.895972E+0	1.908620E+0	1.873277E+0	1.853505E+0	1.917002E+0	1.879084E+0	1.837304E+0	1.797809E+0	1.889594E+0	1.831119E+0	1.882540E+0	1.890618E+0	1.916239E+0	1.832230E+0	1.903115E+0	1.889766E+0	1.845181E+0	1.860151E+0	1.784818E+0	1.795672E+0	1.867266E+0	1.796268E+0	1.925020E+0	1.791056E+0	1.793007E+0
5.392720E+2	2.091668E+0	2.058617E+0	2.039266E+0	2.102966E+0	2.043515E+0	2.143012E+0	2.033441E+0	2.138472E+0	2.049113E+0	2.043029E+0	2.077371E+0	2.119434E+0	2.036306E+0	2.124569E+0	2.053141E+0	2.062192E+0	2.047863E+0	2.145011E+0	2.039803E+0	2.039606E+0	2.066618E+0	2.173279E+0	2.108614E+0	2.037426E+0	1.997809E+0	2.078940E+0	2.081965E+0	2.043190E+0	2.029446E+0	2.021296E+0	2.063640E+0	2.007072E+0	2.126542E+0	2.094123E+0	1.994945E+0	2.013773E+0	2.006959E+0	2.039719E+0	2.120947E+0	2.026939E+0	2.089622E+0	2.095016E+0	2.070502E+0	2.045656E+0	2.060298E+0	2.016601E+0	2.093694E+0	2.036990E+0	2.065662E+0	2.108325E+0	2.005028E+0	2.031534E+0	2.103326E+0	2.136642E+0	2.006499E+0	1.973828E+0	1.963762E+0	2.111301E+0	2.001298E+0	2.035238E+0	2.094552E+0	2.005776E+0	2.084730E+0	1.985378E+0	2.043601E+0	2.020660E+0	2.066166E+0	2.092193E+0	1.991174E+0	2.061613E+0	2.055007E+0	2.044006E+0	2.069377E+0	2.055736E+0	2.022010E+0	1.985782E+0	2.012189E+0	2.036686E+0	2.093128E+0	2.099947E+0	2.058636E+0	2.018810E+0	1.991889E+0	2.029413E+0	2.047964E+0	1.984866E+0	1.981230E+0	2.034765E+0	1.938894E+0	1.990080E+0	2.056097E+0	2.021174E+0	2.119935E+0	2.043427E+0	2.014350E+0	2.030790E+0	2.068931E+0	2.007164E+0	2.041209E+0	2.085917E+0	2.032373E+0	2.051233E+0	2.088444E+0	2.073411E+0	1.983103E+0	2.012261E+0	1.997802E+0	2.083793E+0	2.003862E+0	2.073358E+0	1.990768E+0	2.074779E+0	1.977365E+0	2.115149E+0	2.010496E+0	2.058212E+0	2.006517E+0	2.045974E+0	1.975845E+0	1.963855E+0	1.958029E+0	1.963607E+0	2.014937E+0	2.094856E+0	2.084444E+0	2.036293E+0	2.093223E+0	2.034579E+0	2.080839E+0	1.950282E+0	1.998319E+0	1.985553E+0	1.977381E+0	2.033075E+0	1.937703E+0	1.998470E+0	1.994764E+0	2.084677E+0	2.047762E+0	1.980284E+0	1.967868E+0	2.005877E+0	2.036403E+0	1.979821E+0	2.007194E+0	2.038814E+0	1.969346E+0	1.971108E+0	1.945434E+0	2.075254E+0	2.037678E+0	1.936639E+0	2.050069E+0	2.104227E+0	2.035205E+0	1.976810E+0	1.995735E+0	1.991954E+0	1.969538E+0	1.970281E+0	2.051370E+0	1.953201E+0	2.003098E+0	1.964760E+0	1.998684E+0	2.014327E+0	1.972477E+0	2.047707E+0	1.952884E+0	1.921401E+0
5.395320E+2	2.149233E+0	2.117060E+0	2.111395E+0	2.153385E+0	2.134439E+0	2.229610E+0	2.176572E+0	2.182928E+0	2.102218E+0	2.080475E+0	2.173120E+0	2.187224E+0	2.117639E+0	2.178994E+0	2.206965E+0	2.146881E+0	2.028030E+0	2.160721E+0	2.153244E+0	2.159373E+0	2.117554E+0	2.205067E+0	2.112968E+0	2.096144E+0	2.111236E+0	2.192128E+0	2.189054E+0	2.099433E+0	2.196110E+0	2.164794E+0	2.068441E+0	2.149036E+0	2.173679E+0	2.136550E+0	2.100566E+0	2.158185E+0	2.128137E+0	2.115671E+0	2.135914E+0	2.116191E+0	2.134136E+0	2.100214E+0	2.182897E+0	2.186322E+0	2.074187E+0	2.108601E+0	2.124738E+0	2.119531E+0	2.137421E+0	2.149283E+0	2.105589E+0	2.068353E+0	2.105983E+0	2.200122E+0	2.148764E+0	2.053559E+0	2.057844E+0	2.198011E+0	2.040318E+0	2.134576E+0	2.096063E+0	2.165783E+0	2.176317E+0	2.054932E+0	2.078969E+0	2.136216E+0	2.160359E+0	2.149782E+0	2.057429E+0	2.077128E+0	2.106376E+0	2.125742E+0	2.073040E+0	2.082194E+0	2.108428E+0	2.079571E+0	2.116669E+0	2.127478E+0	2.122941E+0	2.130370E+0	2.147971E+0	2.112568E+0	2.105794E+0	2.061689E+0	2.115200E+0	2.118247E+0	2.183841E+0	2.184306E+0	2.035918E+0	2.137939E+0	2.072518E+0	2.093647E+0	2.165031E+0	2.117447E+0	2.123049E+0	2.083721E+0	2.074014E+0	2.050292E+0	2.099777E+0	2.123657E+0	2.114038E+0	2.123188E+0	2.091491E+0	2.141761E+0	2.119555E+0	2.100036E+0	2.039300E+0	2.093108E+0	2.118880E+0	2.133338E+0	2.068503E+0	2.077966E+0	2.149680E+0	2.122893E+0	2.122614E+0	2.077140E+0	2.081480E+0	2.088188E+0	2.120101E+0	2.066979E+0	2.098281E+0	2.087322E+0	2.066710E+0	2.083763E+0	2.186960E+0	2.084868E+0	2.130143E+0	2.031950E+0	1.994635E+0	2.013470E+0	2.100514E+0	2.091252E+0	2.094754E+0	2.087307E+0	2.110586E+0	2.036867E+0	2.062982E+0	2.047690E+0	2.108365E+0	2.094669E+0	2.103363E+0	2.090356E+0	2.065561E+0	2.034536E+0	2.065691E+0	2.078544E+0	2.153633E+0	2.096657E+0	2.053032E+0	2.085031E+0	2.081794E+0	2.077829E+0	2.027923E+0	2.090529E+0	2.105497E+0	2.068140E+0	2.052847E+0	2.058422E+0	2.017520E+0	1.999303E+0	2.110622E+0	2.083002E+0	2.114146E+0	2.065212E+0	2.040807E+0	2.081745E+0	2.070481E+0	2.094377E+0	1.989282E+0	2.013275E+0
5.397860E+2	2.254191E+0	2.181035E+0	2.174141E+0	2.167803E+0	2.152210E+0	2.176998E+0	2.153338E+0	2.130842E+0	2.096080E+0	2.074688E+0	2.222336E+0	2.233771E+0	2.169196E+0	2.186592E+0	2.207058E+0	2.192738E+0	2.083266E+0	2.182351E+0	2.179506E+0	2.179036E+0	2.162463E+0	2.169720E+0	2.246465E+0	2.194347E+0	2.094652E+0	2.190738E+0	2.170126E+0	2.165060E+0	2.142942E+0	2.176628E+0	2.159800E+0	2.068611E+0	2.205796E+0	2.164070E+0	2.165954E+0	2.110739E+0	2.124456E+0	2.117865E+0	2.275194E+0	2.115423E+0	2.142589E+0	2.150134E+0	2.106842E+0	2.130271E+0	2.124071E+0	2.186154E+0	2.151778E+0	2.038514E+0	2.189638E+0	2.153943E+0	2.158620E+0	2.090742E+0	2.135180E+0	2.145165E+0	2.140748E+0	2.184681E+0	2.204465E+0	2.096958E+0	2.161066E+0	2.162413E+0	2.154665E+0	2.121439E+0	2.138721E+0	2.012618E+0	2.109970E+0	2.143947E+0	2.111247E+0	2.077928E+0	2.077817E+0	2.178260E+0	2.134089E+0	2.158875E+0	2.066610E+0	2.169663E+0	2.186860E+0	2.178380E+0	2.043750E+0	2.115392E+0	2.120323E+0	2.044066E+0	2.081383E+0	2.082009E+0	2.125831E+0	2.065733E+0	2.074291E+0	2.104819E+0	2.026786E+0	2.085237E+0	2.059106E+0	2.101156E+0	2.214119E+0	2.113654E+0	2.174774E+0	2.091686E+0	2.128193E+0	2.060016E+0	2.100922E+0	2.103517E+0	2.099237E+0	2.050530E+0	2.114689E+0	2.142163E+0	2.131030E+0	2.081809E+0	2.083629E+0	2.097980E+0	2.125900E+0	2.106278E+0	2.108527E+0	2.208230E+0	2.014337E+0	2.113693E+0	2.106097E+0	2.109069E+0	2.016969E+0	1.994018E+0	2.117027E+0	2.109004E+0	1.992590E+0	2.051211E+0	2.019657E+0	2.089891E+0	2.077497E+0	2.059764E+0	2.191373E+0	2.108154E+0	2.090129E+0	2.082404E+0	2.094107E+0	2.087715E+0	2.086845E+0	2.106135E+0	2.048061E+0	2.100353E+0	2.034252E+0	2.053403E+0	2.075013E+0	2.101256E+0	2.036819E+0	2.051556E+0	2.056234E+0	2.088856E+0	2.032832E+0	1.990584E+0	2.071458E+0	2.074828E+0	2.125791E+0	2.098533E+0	2.040462E+0	2.111441E+0	2.045374E+0	2.039349E+0	1.967000E+0	2.137794E+0	2.144238E+0	2.068883E+0	2.013015E+0	2.091544E+0	2.007860E+0	2.074196E+0	2.118467E+0	2.046396E+0	2.097494E+0	2.093360E+0	2.052846E+0	2.064688E+0	2.059317E+0	2.148329E+0	1.952978E+0	2.097932E+0
5.400140E+2	2.165097E+0	2.100575E+0	2.171565E+0	2.158111E+0	2.071211E+0	2.155280E+0	2.125095E+0	2.130168E+0	2.133405E+0	2.127594E+0	2.099828E+0	2.131272E+0	2.097238E+0	2.146684E+0	2.177840E+0	2.133305E+0	2.077230E+0	2.162077E+0	2.132929E+0	2.130069E+0	2.121412E+0	2.103432E+0	2.268852E+0	2.098355E+0	2.088922E+0	2.170777E+0	2.148301E+0	2.147541E+0	2.131384E+0	2.138530E+0	2.065672E+0	2.051537E+0	2.158530E+0	2.138228E+0	2.036068E+0	2.026483E+0	2.069011E+0	2.072824E+0	2.144162E+0	2.077528E+0	2.063013E+0	2.125106E+0	2.174727E+0	2.092018E+0	2.073588E+0	2.052233E+0	2.078827E+0	2.055089E+0	2.155884E+0	2.078808E+0	2.140590E+0	2.125264E+0	2.115272E+0	2.130806E+0	2.142150E+0	2.068253E+0	2.050784E+0	2.120073E+0	2.084913E+0	2.083596E+0	2.119925E+0	2.129836E+0	2.127809E+0	2.091455E+0	2.080244E+0	2.056963E+0	2.093908E+0	2.041117E+0	2.083267E+0	2.063857E+0	2.190576E+0	2.069503E+0	2.089115E+0	2.069189E+0	2.117089E+0	2.069820E+0	2.058017E+0	2.074620E+0	2.031728E+0	2.020678E+0	2.123031E+0	2.043761E+0	2.031502E+0	2.058816E+0	2.095269E+0	2.070269E+0	2.043367E+0	2.118794E+0	2.065608E+0	2.094628E+0	2.039879E+0	2.081918E+0	2.085069E+0	2.071120E+0	2.063053E+0	2.070034E+0	2.057750E+0	2.118889E+0	2.151490E+0	2.053552E+0	2.069837E+0	2.084074E+0	2.134800E+0	2.064907E+0	2.106350E+0	2.153734E+0	2.074102E+0	2.122529E+0	2.110439E+0	2.110106E+0	2.130628E+0	2.081837E+0	2.049182E+0	2.048234E+0	2.102734E+0	2.020543E+0	2.064810E+0	2.101714E+0	2.093174E+0	2.032229E+0	1.997492E+0	2.061405E+0	2.088277E+0	2.105519E+0	2.086289E+0	2.010312E+0	2.113291E+0	2.106796E+0	2.081617E+0	2.021042E+0	2.047954E+0	2.005874E+0	2.073966E+0	2.132999E+0	2.028416E+0	2.043839E+0	2.016788E+0	2.104643E+0	2.066346E+0	2.027578E+0	2.002156E+0	2.092145E+0	2.076826E+0	1.988212E+0	2.024714E+0	2.069767E+0	2.073032E+0	2.132144E+0	2.104430E+0	2.061225E+0	2.065151E+0	2.014857E+0	2.089800E+0	2.000298E+0	2.051625E+0	2.097977E+0	2.045783E+0	2.066752E+0	2.024596E+0	2.041493E+0	2.082535E+0	2.016642E+0	2.100870E+0	1.986670E+0	2.046163E+0	2.015418E+0	2.057630E+0	2.133551E+0	2.012237E+0	2.067787E+0
5.402630E+2	2.115218E+0	2.020043E+0	2.022345E+0	2.030024E+0	2.024732E+0	2.123409E+0	2.041295E+0	2.083838E+0	2.033735E+0	2.005141E+0	2.092629E+0	2.028798E+0	2.030724E+0	2.058812E+0	2.088958E+0	2.093072E+0	2.018972E+0	2.078261E+0	2.046763E+0	2.048367E+0	2.044828E+0	2.026068E+0	2.134794E+0	2.077357E+0	2.025252E+0	2.091608E+0	2.074402E+0	2.043747E+0	2.123573E+0	2.002410E+0	2.008444E+0	2.032357E+0	2.014444E+0	2.019801E+0	2.073506E+0	1.975671E+0	1.992122E+0	2.041578E+0	2.138218E+0	2.064872E+0	2.029083E+0	1.989628E+0	2.076319E+0	2.082791E+0	1.995872E+0	1.966711E+0	2.023319E+0	2.034947E+0	2.082124E+0	2.063893E+0	2.081980E+0	1.922708E+0	2.077418E+0	2.049752E+0	2.087205E+0	2.030057E+0	1.971590E+0	2.044856E+0	2.058715E+0	2.023280E+0	1.984271E+0	2.034935E+0	2.054372E+0	1.975575E+0	2.041763E+0	2.054436E+0	2.043392E+0	2.042143E+0	1.985758E+0	2.009060E+0	2.024812E+0	2.006121E+0	2.035105E+0	2.038400E+0	2.014028E+0	1.957294E+0	2.035700E+0	2.019104E+0	2.106681E+0	1.996568E+0	2.014836E+0	2.047255E+0	2.040094E+0	2.014341E+0	1.967797E+0	2.024989E+0	2.031600E+0	2.074472E+0	1.991040E+0	1.995641E+0	2.093784E+0	1.982052E+0	2.044684E+0	1.968222E+0	2.020983E+0	2.069452E+0	2.027210E+0	1.974628E+0	1.998509E+0	1.984778E+0	2.040761E+0	2.028926E+0	2.059241E+0	1.982040E+0	1.994885E+0	1.992549E+0	2.033321E+0	1.985794E+0	2.020943E+0	2.023880E+0	2.041591E+0	2.037720E+0	2.011682E+0	2.074032E+0	1.947743E+0	1.978481E+0	1.967226E+0	1.998361E+0	1.975848E+0	1.965409E+0	1.912388E+0	1.976011E+0	2.040603E+0	1.975602E+0	2.144009E+0	2.009522E+0	2.002508E+0	1.990479E+0	2.000902E+0	1.973379E+0	2.037583E+0	2.023727E+0	1.944302E+0	2.075688E+0	1.957474E+0	1.954020E+0	1.946901E+0	2.009443E+0	1.963363E+0	1.992359E+0	2.008911E+0	1.998950E+0	2.002572E+0	1.948270E+0	1.955540E+0	1.985381E+0	2.053513E+0	1.927874E+0	2.000926E+0	2.027453E+0	1.983580E+0	1.911496E+0	1.971644E+0	2.049928E+0	1.955591E+0	2.017511E+0	1.913256E+0	2.088702E+0	1.932460E+0	1.977287E+0	2.063304E+0	2.008455E+0	1.950431E+0	1.952915E+0	1.980675E+0	2.022151E+0	1.979609E+0	1.981029E+0	1.947761E+0	1.831740E+0
5.405080E+2	2.018879E+0	1.931765E+0	1.920172E+0	1.995836E+0	1.943193E+0	1.909821E+0	2.033399E+0	1.912411E+0	1.932122E+0	1.923436E+0	1.983343E+0	2.023010E+0	2.015822E+0	1.938782E+0	1.991151E+0	1.911243E+0	1.925306E+0	1.962664E+0	1.974774E+0	1.938420E+0	1.956230E+0	1.992699E+0	2.067915E+0	1.883303E+0	1.891857E+0	1.962249E+0	1.899834E+0	2.048100E+0	1.960246E+0	2.045219E+0	1.936329E+0	1.955079E+0	1.993263E+0	1.957359E+0	1.913978E+0	1.937389E+0	1.862624E+0	1.893798E+0	2.034643E+0	1.981190E+0	1.927985E+0	1.905813E+0	1.887827E+0	1.952911E+0	1.911002E+0	1.896658E+0	1.947264E+0	1.908280E+0	2.003185E+0	1.870118E+0	1.913593E+0	1.947210E+0	1.933019E+0	1.937921E+0	1.952116E+0	1.924174E+0	1.908210E+0	1.982008E+0	1.955650E+0	1.878400E+0	1.899530E+0	1.910024E+0	1.865772E+0	1.887081E+0	1.902198E+0	1.885476E+0	1.913870E+0	1.939683E+0	1.902248E+0	1.920987E+0	1.919775E+0	1.912878E+0	1.919947E+0	1.917237E+0	1.910218E+0	1.841685E+0	1.968517E+0	1.914408E+0	1.895258E+0	1.870359E+0	1.901399E+0	1.834827E+0	1.927526E+0	1.855844E+0	1.891762E+0	1.899387E+0	1.888135E+0	2.002026E+0	1.841093E+0	1.930624E+0	1.944434E+0	1.962827E+0	1.941567E+0	1.955260E+0	1.956256E+0	1.868499E+0	1.930746E+0	1.900311E+0	1.955523E+0	1.879830E+0	1.896922E+0	1.818722E+0	2.033720E+0	1.941982E+0	1.869104E+0	1.897145E+0	1.991127E+0	1.901404E+0	1.931599E+0	1.899946E+0	1.831908E+0	1.929242E+0	1.849506E+0	1.951396E+0	1.887795E+0	1.927600E+0	1.983065E+0	1.936444E+0	1.945455E+0	1.866624E+0	1.921125E+0	1.900636E+0	1.898663E+0	1.913195E+0	2.014663E+0	1.883006E+0	1.939687E+0	1.936709E+0	1.886416E+0	1.864323E+0	1.896851E+0	1.903804E+0	1.896089E+0	1.837782E+0	1.934385E+0	1.890635E+0	1.863691E+0	1.901092E+0	1.892212E+0	1.843314E+0	1.886257E+0	1.875561E+0	1.903135E+0	1.815538E+0	1.880300E+0	1.897405E+0	1.875534E+0	1.869103E+0	1.876342E+0	1.938623E+0	1.976423E+0	1.866696E+0	1.874980E+0	1.909081E+0	1.926337E+0	1.947656E+0	1.874285E+0	1.898692E+0	1.836356E+0	1.895495E+0	1.935149E+0	1.864971E+0	1.911547E+0	1.834756E+0	1.926093E+0	1.826212E+0	1.893865E+0	1.826943E+0	1.826157E+0	1.863123E+0
5.407790E+2	1.780597E+0	1.841684E+0	1.854997E+0	1.871926E+0	1.757926E+0	1.778274E+0	1.824302E+0	1.853728E+0	1.802869E+0	1.787201E+0	1.821305E+0	1.891868E+0	1.808901E+0	1.800418E+0	1.841699E+0	1.778626E+0	1.797448E+0	1.863920E+0	1.858622E+0	1.858212E+0	1.862946E+0	1.818503E+0	1.886076E+0	1.855563E+0	1.780778E+0	1.769558E+0	1.814102E+0	1.805526E+0	1.845915E+0	1.806551E+0	1.803004E+0	1.764243E+0	1.816949E+0	1.782883E+0	1.753184E+0	1.797946E+0	1.754227E+0	1.754198E+0	1.884781E+0	1.838697E+0	1.812963E+0	1.793459E+0	1.872630E+0	1.765298E+0	1.791973E+0	1.791354E+0	1.850539E+0	1.811081E+0	1.809661E+0	1.818723E+0	1.862487E+0	1.734873E+0	1.834790E+0	1.804820E+0	1.787981E+0	1.739447E+0	1.812181E+0	1.858333E+0	1.754592E+0	1.803969E+0	1.865051E+0	1.761052E+0	1.808049E+0	1.753783E+0	1.790729E+0	1.812009E+0	1.850573E+0	1.824281E+0	1.765978E+0	1.796784E+0	1.836413E+0	1.828095E+0	1.869392E+0	1.784576E+0	1.818388E+0	1.735687E+0	1.869296E+0	1.781932E+0	1.888871E+0	1.781586E+0	1.826900E+0	1.744929E+0	1.802778E+0	1.794577E+0	1.889163E+0	1.857825E+0	1.809450E+0	1.854361E+0	1.731360E+0	1.760842E+0	1.873134E+0	1.809418E+0	1.844915E+0	1.818666E+0	1.748700E+0	1.740125E+0	1.779522E+0	1.736931E+0	1.786786E+0	1.779394E+0	1.825790E+0	1.801264E+0	1.878638E+0	1.787349E+0	1.815862E+0	1.745476E+0	1.803297E+0	1.773783E+0	1.800239E+0	1.824073E+0	1.777090E+0	1.820742E+0	1.854502E+0	1.710396E+0	1.808367E+0	1.813542E+0	1.818816E+0	1.808644E+0	1.829738E+0	1.738959E+0	1.763522E+0	1.744540E+0	1.787972E+0	1.787536E+0	1.801986E+0	1.746260E+0	1.779300E+0	1.761924E+0	1.797180E+0	1.795376E+0	1.795769E+0	1.804948E+0	1.787577E+0	1.746404E+0	1.844098E+0	1.768469E+0	1.726063E+0	1.730357E+0	1.764387E+0	1.744793E+0	1.796060E+0	1.765829E+0	1.750071E+0	1.754432E+0	1.744008E+0	1.742595E+0	1.823241E+0	1.818450E+0	1.788523E+0	1.810668E+0	1.798002E+0	1.804514E+0	1.679641E+0	1.778109E+0	1.788689E+0	1.774005E+0	1.780860E+0	1.794727E+0	1.746073E+0	1.792784E+0	1.775602E+0	1.750327E+0	1.789022E+0	1.799276E+0	1.736854E+0	1.758541E+0	1.719479E+0	1.829019E+0	1.719371E+0	1.736777E+0
5.410240E+2	1.713536E+0	1.705751E+0	1.739732E+0	1.798549E+0	1.710707E+0	1.784616E+0	1.738726E+0	1.745119E+0	1.713822E+0	1.689962E+0	1.751384E+0	1.695295E+0	1.714674E+0	1.703131E+0	1.753133E+0	1.772901E+0	1.741604E+0	1.745057E+0	1.738477E+0	1.675562E+0	1.773954E+0	1.726743E+0	1.753675E+0	1.737787E+0	1.662004E+0	1.717671E+0	1.727063E+0	1.749222E+0	1.704222E+0	1.715371E+0	1.703677E+0	1.709921E+0	1.787316E+0	1.686271E+0	1.677383E+0	1.707416E+0	1.646964E+0	1.696505E+0	1.813471E+0	1.721985E+0	1.737574E+0	1.693230E+0	1.782904E+0	1.748864E+0	1.723265E+0	1.706719E+0	1.726248E+0	1.721485E+0	1.760105E+0	1.736831E+0	1.768965E+0	1.708960E+0	1.751770E+0	1.734366E+0	1.741611E+0	1.693743E+0	1.721894E+0	1.720037E+0	1.688543E+0	1.713313E+0	1.710648E+0	1.680011E+0	1.694046E+0	1.661487E+0	1.698129E+0	1.752188E+0	1.700364E+0	1.714632E+0	1.598185E+0	1.701196E+0	1.727646E+0	1.715590E+0	1.721686E+0	1.685947E+0	1.737129E+0	1.644460E+0	1.735283E+0	1.707303E+0	1.679338E+0	1.697091E+0	1.686492E+0	1.717158E+0	1.701964E+0	1.661517E+0	1.692158E+0	1.655194E+0	1.724453E+0	1.795696E+0	1.651290E+0	1.640840E+0	1.704807E+0	1.724317E+0	1.781786E+0	1.717205E+0	1.658729E+0	1.720901E+0	1.702618E+0	1.659072E+0	1.728543E+0	1.654840E+0	1.720540E+0	1.674088E+0	1.775332E+0	1.735857E+0	1.629982E+0	1.693884E+0	1.690728E+0	1.760424E+0	1.688710E+0	1.663378E+0	1.688986E+0	1.658278E+0	1.646572E+0	1.681823E+0	1.706046E+0	1.673582E+0	1.780313E+0	1.673625E+0	1.727904E+0	1.661190E+0	1.677184E+0	1.709247E+0	1.764170E+0	1.667172E+0	1.712061E+0	1.630661E+0	1.723943E+0	1.661613E+0	1.685040E+0	1.633373E+0	1.646744E+0	1.625163E+0	1.691701E+0	1.719585E+0	1.743771E+0	1.665521E+0	1.659576E+0	1.695615E+0	1.706588E+0	1.666003E+0	1.665703E+0	1.704277E+0	1.754341E+0	1.694668E+0	1.614110E+0	1.700702E+0	1.703568E+0	1.698762E+0	1.711566E+0	1.722250E+0	1.748915E+0	1.633349E+0	1.607532E+0	1.650558E+0	1.701046E+0	1.670230E+0	1.673378E+0	1.703206E+0	1.652846E+0	1.706782E+0	1.687673E+0	1.634057E+0	1.766459E+0	1.679313E+0	1.717232E+0	1.665674E+0	1.628273E+0	1.689118E+0	1.752200E+0	1.662734E+0
5.412850E+2	1.581079E+0	1.545421E+0	1.611984E+0	1.562273E+0	1.533500E+0	1.618073E+0	1.617306E+0	1.606793E+0	1.583471E+0	1.608114E+0	1.621594E+0	1.567498E+0	1.601245E+0	1.541114E+0	1.607827E+0	1.602865E+0	1.602922E+0	1.610828E+0	1.592655E+0	1.624150E+0	1.607281E+0	1.609251E+0	1.708430E+0	1.539847E+0	1.542359E+0	1.578066E+0	1.636416E+0	1.587866E+0	1.600115E+0	1.625327E+0	1.626185E+0	1.569213E+0	1.634689E+0	1.560557E+0	1.583720E+0	1.598826E+0	1.545046E+0	1.519157E+0	1.674146E+0	1.590861E+0	1.574240E+0	1.592874E+0	1.508447E+0	1.582222E+0	1.529776E+0	1.570542E+0	1.594236E+0	1.571658E+0	1.585121E+0	1.610157E+0	1.648635E+0	1.569517E+0	1.600891E+0	1.616999E+0	1.648642E+0	1.517010E+0	1.503613E+0	1.561319E+0	1.566905E+0	1.578633E+0	1.567642E+0	1.629635E+0	1.603762E+0	1.538111E+0	1.572614E+0	1.550613E+0	1.600123E+0	1.610590E+0	1.533440E+0	1.565534E+0	1.620265E+0	1.580249E+0	1.529489E+0	1.519931E+0	1.607490E+0	1.623762E+0	1.653147E+0	1.539510E+0	1.540801E+0	1.561849E+0	1.555512E+0	1.539488E+0	1.581128E+0	1.520690E+0	1.573558E+0	1.598864E+0	1.549833E+0	1.571512E+0	1.548604E+0	1.552561E+0	1.629722E+0	1.635755E+0	1.570733E+0	1.559740E+0	1.570555E+0	1.550016E+0	1.566818E+0	1.580773E+0	1.644705E+0	1.561771E+0	1.562462E+0	1.525947E+0	1.597410E+0	1.553645E+0	1.575249E+0	1.593522E+0	1.616098E+0	1.637811E+0	1.529149E+0	1.585538E+0	1.599139E+0	1.575074E+0	1.553140E+0	1.594474E+0	1.519310E+0	1.611428E+0	1.576442E+0	1.554884E+0	1.563588E+0	1.585520E+0	1.532816E+0	1.535864E+0	1.562288E+0	1.531174E+0	1.627368E+0	1.520140E+0	1.574333E+0	1.528448E+0	1.573101E+0	1.569163E+0	1.529007E+0	1.511326E+0	1.516274E+0	1.560572E+0	1.616817E+0	1.546813E+0	1.520765E+0	1.571938E+0	1.532147E+0	1.591938E+0	1.505508E+0	1.528770E+0	1.573895E+0	1.510701E+0	1.575837E+0	1.581428E+0	1.568546E+0	1.555926E+0	1.545740E+0	1.584573E+0	1.601740E+0	1.601685E+0	1.542866E+0	1.510155E+0	1.498391E+0	1.541206E+0	1.601293E+0	1.511272E+0	1.545410E+0	1.592580E+0	1.556286E+0	1.539336E+0	1.603345E+0	1.526376E+0	1.561256E+0	1.549692E+0	1.548542E+0	1.624459E+0	1.557106E+0	1.540001E+0
5.415190E+2	1.405224E+0	1.429393E+0	1.439364E+0	1.457917E+0	1.442787E+0	1.486281E+0	1.492371E+0	1.464607E+0	1.399997E+0	1.431777E+0	1.431002E+0	1.459891E+0	1.424156E+0	1.464021E+0	1.463316E+0	1.428892E+0	1.386510E+0	1.470642E+0	1.458164E+0	1.401608E+0	1.455443E+0	1.451701E+0	1.515950E+0	1.442331E+0	1.426130E+0	1.466517E+0	1.464055E+0	1.480489E+0	1.523081E+0	1.436650E+0	1.470094E+0	1.470380E+0	1.502617E+0	1.453247E+0	1.446767E+0	1.390986E+0	1.387339E+0	1.437670E+0	1.489918E+0	1.459933E+0	1.490907E+0	1.460847E+0	1.476156E+0	1.414630E+0	1.405774E+0	1.447847E+0	1.470778E+0	1.477507E+0	1.485351E+0	1.434456E+0	1.469639E+0	1.462733E+0	1.456892E+0	1.470220E+0	1.459674E+0	1.424029E+0	1.400942E+0	1.446934E+0	1.410821E+0	1.443619E+0	1.527009E+0	1.446093E+0	1.452688E+0	1.428753E+0	1.431980E+0	1.452542E+0	1.493649E+0	1.406788E+0	1.417509E+0	1.405239E+0	1.511112E+0	1.422146E+0	1.434641E+0	1.457071E+0	1.473206E+0	1.482128E+0	1.474591E+0	1.454428E+0	1.453697E+0	1.475697E+0	1.426828E+0	1.403254E+0	1.474102E+0	1.448677E+0	1.458726E+0	1.458547E+0	1.490622E+0	1.486583E+0	1.423929E+0	1.437055E+0	1.473375E+0	1.421940E+0	1.528471E+0	1.482972E+0	1.420032E+0	1.410569E+0	1.407226E+0	1.397969E+0	1.461426E+0	1.398120E+0	1.458165E+0	1.465645E+0	1.517468E+0	1.477124E+0	1.456144E+0	1.408272E+0	1.450768E+0	1.463056E+0	1.470144E+0	1.436487E+0	1.481346E+0	1.487110E+0	1.388237E+0	1.442656E+0	1.421632E+0	1.478732E+0	1.429905E+0	1.453184E+0	1.419898E+0	1.436536E+0	1.449457E+0	1.412043E+0	1.456157E+0	1.412511E+0	1.481480E+0	1.442934E+0	1.476184E+0	1.449675E+0	1.507248E+0	1.405471E+0	1.402270E+0	1.459312E+0	1.421987E+0	1.470609E+0	1.472266E+0	1.429386E+0	1.352860E+0	1.451493E+0	1.468654E+0	1.486366E+0	1.455572E+0	1.441265E+0	1.393432E+0	1.391912E+0	1.385506E+0	1.457775E+0	1.449348E+0	1.507010E+0	1.390657E+0	1.441065E+0	1.506337E+0	1.423920E+0	1.436483E+0	1.421975E+0	1.456549E+0	1.410640E+0	1.442797E+0	1.451996E+0	1.426460E+0	1.401107E+0	1.500133E+0	1.495593E+0	1.489176E+0	1.391352E+0	1.437596E+0	1.437409E+0	1.427367E+0	1.381843E+0	1.381944E+0	1.449573E+0
5.417810E+2	1.320312E+0	1.297515E+0	1.269501E+0	1.320630E+0	1.268811E+0	1.307156E+0	1.222563E+0	1.289622E+0	1.230964E+0	1.247101E+0	1.281206E+0	1.267490E+0	1.262433E+0	1.264666E+0	1.254442E+0	1.255246E+0	1.311344E+0	1.290717E+0	1.310059E+0	1.238485E+0	1.279734E+0	1.284379E+0	1.294638E+0	1.326271E+0	1.244875E+0	1.277503E+0	1.315521E+0	1.292869E+0	1.253502E+0	1.316312E+0	1.246023E+0	1.259279E+0	1.340922E+0	1.244043E+0	1.310235E+0	1.270604E+0	1.300074E+0	1.205100E+0	1.338035E+0	1.241406E+0	1.272721E+0	1.288694E+0	1.325751E+0	1.269709E+0	1.308739E+0	1.280700E+0	1.267315E+0	1.217590E+0	1.289521E+0	1.283409E+0	1.283571E+0	1.254866E+0	1.337524E+0	1.272551E+0	1.292091E+0	1.296717E+0	1.259610E+0	1.355603E+0	1.267834E+0	1.278905E+0	1.311394E+0	1.274400E+0	1.211419E+0	1.222960E+0	1.272744E+0	1.316325E+0	1.301302E+0	1.296167E+0	1.233670E+0	1.275407E+0	1.307739E+0	1.259573E+0	1.260914E+0	1.236423E+0	1.309365E+0	1.306498E+0	1.301490E+0	1.273588E+0	1.298406E+0	1.256658E+0	1.314974E+0	1.278628E+0	1.274304E+0	1.240770E+0	1.308202E+0	1.268243E+0	1.262143E+0	1.280843E+0	1.222986E+0	1.252266E+0	1.303316E+0	1.264791E+0	1.327842E+0	1.296303E+0	1.245395E+0	1.275311E+0	1.276790E+0	1.244398E+0	1.315337E+0	1.242752E+0	1.256910E+0	1.270568E+0	1.333919E+0	1.275142E+0	1.277296E+0	1.229247E+0	1.286743E+0	1.264923E+0	1.271016E+0	1.294961E+0	1.267744E+0	1.263048E+0	1.227746E+0	1.300755E+0	1.277860E+0	1.314436E+0	1.305112E+0	1.253209E+0	1.271117E+0	1.282455E+0	1.239267E+0	1.293143E+0	1.299302E+0	1.253848E+0	1.281233E+0	1.201916E+0	1.280735E+0	1.267916E+0	1.259787E+0	1.251114E+0	1.292217E+0	1.215389E+0	1.253258E+0	1.257240E+0	1.301596E+0	1.300103E+0	1.253700E+0	1.275454E+0	1.282396E+0	1.269309E+0	1.330842E+0	1.326217E+0	1.336793E+0	1.248375E+0	1.279099E+0	1.236226E+0	1.342476E+0	1.262607E+0	1.276647E+0	1.241774E+0	1.310566E+0	1.239609E+0	1.251849E+0	1.272924E+0	1.285186E+0	1.271045E+0	1.273697E+0	1.287443E+0	1.232426E+0	1.296020E+0	1.274698E+0	1.198092E+0	1.296343E+0	1.256100E+0	1.219222E+0	1.277090E+0	1.257574E+0	1.286326E+0	1.221775E+0	1.230784E+0
5.420160E+2	1.127001E+0	1.108598E+0	1.083544E+0	1.100863E+0	1.145565E+0	1.099078E+0	1.108638E+0	1.089374E+0	1.063749E+0	1.062005E+0	1.114321E+0	1.103422E+0	1.074502E+0	1.059109E+0	1.129770E+0	1.080141E+0	1.133409E+0	1.115587E+0	1.125277E+0	1.114128E+0	1.162345E+0	1.095357E+0	1.107595E+0	1.111529E+0	1.072406E+0	1.105486E+0	1.119909E+0	1.090704E+0	1.136003E+0	1.102158E+0	1.128292E+0	1.073680E+0	1.135739E+0	1.095065E+0	1.086596E+0	1.091073E+0	1.098587E+0	1.081803E+0	1.145003E+0	1.117144E+0	1.109132E+0	1.129621E+0	1.107439E+0	1.073126E+0	1.117795E+0	1.067449E+0	1.097383E+0	1.057030E+0	1.115107E+0	1.086660E+0	1.127071E+0	1.087439E+0	1.120001E+0	1.060929E+0	1.071654E+0	1.104986E+0	1.129044E+0	1.103590E+0	1.089590E+0	1.082503E+0	1.080733E+0	1.098625E+0	1.062928E+0	1.103760E+0	1.058615E+0	1.070021E+0	1.080665E+0	1.090724E+0	1.119857E+0	1.111139E+0	1.104252E+0	1.149445E+0	1.129085E+0	1.118038E+0	1.101812E+0	1.064839E+0	1.111121E+0	1.078777E+0	1.093738E+0	1.087666E+0	1.117357E+0	1.093506E+0	1.084166E+0	1.079078E+0	1.097516E+0	1.079724E+0	1.161335E+0	1.148402E+0	1.091195E+0	1.097710E+0	1.119752E+0	1.138615E+0	1.093550E+0	1.111791E+0	1.097809E+0	1.121287E+0	1.117388E+0	1.100960E+0	1.110788E+0	1.123233E+0	1.135655E+0	1.080320E+0	1.100818E+0	1.121083E+0	1.091571E+0	1.080176E+0	1.128945E+0	1.085629E+0	1.097236E+0	1.130391E+0	1.077416E+0	1.125018E+0	1.080862E+0	1.158045E+0	1.086218E+0	1.122366E+0	1.119335E+0	1.114047E+0	1.166857E+0	1.080787E+0	1.091398E+0	1.107851E+0	1.147663E+0	1.107701E+0	1.171279E+0	1.101243E+0	1.064906E+0	1.087460E+0	1.150940E+0	1.058170E+0	1.081621E+0	1.105118E+0	1.116402E+0	1.106432E+0	1.120875E+0	1.079501E+0	1.109595E+0	1.149571E+0	1.123604E+0	1.056559E+0	1.110205E+0	1.134947E+0	1.142293E+0	1.052079E+0	1.066814E+0	1.110052E+0	1.149760E+0	1.089463E+0	1.089007E+0	1.119634E+0	1.127600E+0	1.113385E+0	1.094758E+0	1.088601E+0	1.120579E+0	1.123974E+0	1.146279E+0	1.058579E+0	1.134956E+0	1.160519E+0	1.189331E+0	1.076340E+0	1.147053E+0	1.084249E+0	1.094516E+0	1.083923E+0	1.092916E+0	1.209549E+0	1.086472E+0	1.059178E+0
5.422670E+2	1.043756E+0	1.013667E+0	9.533141E-1	1.004816E+0	1.016584E+0	9.930120E-1	1.009702E+0	1.006527E+0	9.930918E-1	1.000095E+0	1.025576E+0	1.019527E+0	1.008690E+0	9.859585E-1	1.000440E+0	9.653247E-1	9.652301E-1	1.003854E+0	1.009104E+0	9.891292E-1	1.014186E+0	1.000082E+0	1.042854E+0	9.898919E-1	9.763199E-1	1.020327E+0	1.002506E+0	1.033587E+0	1.024664E+0	9.741762E-1	1.039228E+0	1.032045E+0	1.008664E+0	9.791523E-1	1.045816E+0	9.801541E-1	9.897851E-1	9.761053E-1	1.061421E+0	9.889720E-1	1.017896E+0	1.008342E+0	9.639805E-1	1.018286E+0	9.710874E-1	1.003577E+0	9.229798E-1	9.380336E-1	1.012948E+0	9.945842E-1	9.635942E-1	1.001520E+0	1.000289E+0	1.020013E+0	9.864893E-1	9.910329E-1	9.762026E-1	9.959294E-1	9.860463E-1	1.062557E+0	1.028841E+0	1.022954E+0	9.902397E-1	9.827406E-1	9.844224E-1	1.004801E+0	1.010976E+0	1.050917E+0	1.027696E+0	9.807014E-1	1.022586E+0	9.991485E-1	9.936632E-1	1.035190E+0	9.886029E-1	1.023754E+0	9.867045E-1	1.022149E+0	1.015255E+0	9.713120E-1	1.016743E+0	1.002112E+0	1.021613E+0	9.960825E-1	9.751663E-1	9.915040E-1	1.017780E+0	1.034018E+0	9.863736E-1	1.062073E+0	1.011722E+0	1.052022E+0	1.029892E+0	9.657056E-1	1.045970E+0	9.582795E-1	1.044201E+0	9.806888E-1	9.906440E-1	9.933553E-1	1.021503E+0	1.011656E+0	1.018887E+0	1.051351E+0	1.016946E+0	1.018369E+0	9.989128E-1	9.894851E-1	9.676883E-1	1.042511E+0	1.020045E+0	1.010689E+0	1.037563E+0	9.903385E-1	1.018337E+0	9.892243E-1	9.877846E-1	1.059637E+0	1.000376E+0	1.024976E+0	9.920064E-1	9.586259E-1	1.002767E+0	1.004771E+0	1.034901E+0	1.026606E+0	1.002503E+0	9.446490E-1	9.888015E-1	9.651595E-1	9.766684E-1	9.934396E-1	9.925752E-1	1.001068E+0	1.052241E+0	9.880652E-1	1.004937E+0	1.012637E+0	1.031925E+0	1.010288E+0	9.706175E-1	1.042452E+0	9.877433E-1	9.533120E-1	1.026887E+0	1.003530E+0	1.059374E+0	9.682257E-1	9.852624E-1	1.018725E+0	1.026667E+0	1.038508E+0	9.792125E-1	1.019107E+0	1.044569E+0	1.007566E+0	1.012032E+0	1.022404E+0	9.774026E-1	9.776232E-1	9.887432E-1	1.016007E+0	1.007453E+0	9.896774E-1	1.027013E+0	9.953695E-1	9.705425E-1	1.006456E+0	1.011048E+0	9.423391E-1
5.425460E+2	9.905274E-1	9.374996E-1	9.809808E-1	1.000365E+0	9.916573E-1	9.804833E-1	9.358459E-1	1.024818E+0	9.752635E-1	9.878500E-1	9.608617E-1	9.943862E-1	9.787405E-1	9.755358E-1	9.557208E-1	9.430235E-1	9.704652E-1	9.539190E-1	9.616090E-1	9.667642E-1	9.788155E-1	1.020662E+0	9.851535E-1	1.004275E+0	9.593346E-1	1.036371E+0	1.010993E+0	9.781872E-1	9.889679E-1	1.008134E+0	9.737060E-1	9.819871E-1	1.021194E+0	9.486650E-1	9.921241E-1	9.704348E-1	9.644338E-1	9.674406E-1	1.038342E+0	1.014776E+0	9.703549E-1	9.969789E-1	9.837231E-1	9.755894E-1	9.808654E-1	9.350255E-1	9.890703E-1	9.677111E-1	1.002213E+0	9.751430E-1	9.753057E-1	1.019500E+0	9.735321E-1	9.692352E-1	9.591397E-1	9.990034E-1	9.334941E-1	9.614572E-1	9.148278E-1	9.571184E-1	9.569443E-1	9.953276E-1	9.666935E-1	9.617834E-1	9.749026E-1	9.667574E-1	1.009943E+0	9.936060E-1	9.856635E-1	9.868632E-1	9.652384E-1	9.730790E-1	1.020566E+0	1.009724E+0	9.652151E-1	9.573671E-1	9.347414E-1	9.637133E-1	9.763605E-1	9.559135E-1	9.915543E-1	9.967998E-1	9.642342E-1	9.927163E-1	9.488930E-1	1.010490E+0	9.615559E-1	9.691835E-1	9.791432E-1	9.127554E-1	9.978501E-1	9.610955E-1	1.041368E+0	9.819146E-1	9.747484E-1	9.810984E-1	1.030262E+0	9.784329E-1	9.864710E-1	1.011598E+0	9.963004E-1	9.549969E-1	1.015659E+0	1.004931E+0	9.370783E-1	9.567746E-1	9.838161E-1	9.980170E-1	9.865540E-1	9.895943E-1	9.866717E-1	9.958919E-1	9.778077E-1	9.875069E-1	1.010498E+0	9.993265E-1	9.858435E-1	9.991623E-1	9.384330E-1	9.778409E-1	9.222695E-1	9.296580E-1	1.032424E+0	9.760140E-1	9.521075E-1	9.912386E-1	9.827183E-1	9.703811E-1	9.820666E-1	9.137317E-1	9.365555E-1	1.013499E+0	1.013945E+0	9.946756E-1	9.963617E-1	9.839200E-1	1.010621E+0	9.633164E-1	9.737772E-1	9.453227E-1	9.624054E-1	9.771282E-1	9.577152E-1	9.704488E-1	9.578315E-1	9.449474E-1	9.596553E-1	9.824672E-1	9.740813E-1	9.882186E-1	1.005356E+0	9.982303E-1	1.011586E+0	9.932046E-1	9.358281E-1	9.904718E-1	9.943515E-1	9.922090E-1	9.749095E-1	9.647439E-1	9.819923E-1	9.484223E-1	1.005931E+0	9.572325E-1	9.472431E-1	9.583197E-1	9.638927E-1	1.025828E+0	9.654043E-1	9.558052E-1
5.427710E+2	1.079839E+0	1.036066E+0	1.059569E+0	1.051982E+0	1.058072E+0	1.054748E+0	1.037762E+0	1.162781E+0	1.010517E+0	1.064928E+0	1.076932E+0	1.055222E+0	1.104020E+0	1.065088E+0	1.066652E+0	1.069557E+0	1.076289E+0	1.089104E+0	1.065324E+0	1.051520E+0	1.054855E+0	1.033567E+0	1.047016E+0	1.059448E+0	1.075960E+0	1.115998E+0	1.070514E+0	1.084425E+0	1.102793E+0	1.039961E+0	1.060612E+0	1.070610E+0	1.101927E+0	1.085284E+0	1.046918E+0	1.041274E+0	1.051053E+0	1.065597E+0	1.072862E+0	1.064232E+0	1.078492E+0	1.062035E+0	1.073840E+0	1.054853E+0	1.056522E+0	1.041757E+0	1.057683E+0	1.090867E+0	1.084496E+0	1.075011E+0	1.068469E+0	1.061595E+0	1.128177E+0	1.094938E+0	1.060698E+0	1.058906E+0	1.081458E+0	1.035025E+0	1.027231E+0	1.071911E+0	1.074335E+0	1.069605E+0	1.033784E+0	1.022106E+0	1.066868E+0	1.081179E+0	1.087965E+0	1.045342E+0	1.050585E+0	1.018648E+0	1.097963E+0	1.111541E+0	1.075078E+0	1.104879E+0	1.058382E+0	1.068712E+0	1.094074E+0	1.064181E+0	1.055194E+0	1.067018E+0	1.060902E+0	1.079447E+0	1.047603E+0	1.013315E+0	1.093354E+0	1.065963E+0	1.029385E+0	1.089813E+0	1.070521E+0	1.090041E+0	1.089446E+0	1.076023E+0	1.094059E+0	1.090600E+0	1.094535E+0	1.036685E+0	1.042937E+0	1.072181E+0	1.058583E+0	1.045462E+0	1.075659E+0	1.071947E+0	1.042049E+0	1.095356E+0	1.011451E+0	1.056526E+0	1.052857E+0	1.064779E+0	1.074553E+0	1.063695E+0	1.006508E+0	1.062716E+0	1.056221E+0	1.086168E+0	1.054531E+0	1.084279E+0	1.104571E+0	1.013185E+0	1.075002E+0	1.045474E+0	1.052725E+0	1.053465E+0	1.096747E+0	1.057119E+0	1.080199E+0	1.080061E+0	1.083583E+0	1.061220E+0	1.102736E+0	1.068713E+0	1.086778E+0	1.086019E+0	1.044774E+0	1.049888E+0	1.012146E+0	1.099886E+0	1.071660E+0	1.064147E+0	1.056032E+0	1.041365E+0	1.053577E+0	1.111290E+0	1.036253E+0	1.066687E+0	1.021397E+0	1.021961E+0	1.077919E+0	1.029517E+0	1.044942E+0	1.083806E+0	1.027111E+0	1.065583E+0	1.078684E+0	1.067751E+0	1.044563E+0	1.079574E+0	1.099845E+0	1.020244E+0	1.043373E+0	1.080729E+0	1.053860E+0	1.070802E+0	1.108189E+0	1.051652E+0	1.088121E+0	1.066554E+0	1.050206E+0	1.058822E+0	1.064287E+0	1.067050E+0
5.430120E+2	1.183014E+0	1.237263E+0	1.230199E+0	1.251409E+0	1.164507E+0	1.185924E+0	1.221163E+0	1.186393E+0	1.170205E+0	1.223473E+0	1.211195E+0	1.249925E+0	1.207906E+0	1.208326E+0	1.274787E+0	1.156259E+0	1.210250E+0	1.230241E+0	1.214811E+0	1.194080E+0	1.158373E+0	1.185711E+0	1.238203E+0	1.233074E+0	1.164087E+0	1.209275E+0	1.210620E+0	1.217314E+0	1.218539E+0	1.221406E+0	1.187864E+0	1.200781E+0	1.223343E+0	1.192752E+0	1.180205E+0	1.209486E+0	1.148626E+0	1.229323E+0	1.278201E+0	1.221891E+0	1.258777E+0	1.211183E+0	1.200516E+0	1.196808E+0	1.129877E+0	1.194565E+0	1.201422E+0	1.183075E+0	1.237321E+0	1.252563E+0	1.169782E+0	1.163090E+0	1.270536E+0	1.229974E+0	1.173028E+0	1.196617E+0	1.213475E+0	1.246046E+0	1.165519E+0	1.198701E+0	1.240477E+0	1.181896E+0	1.209937E+0	1.206551E+0	1.177186E+0	1.222137E+0	1.195000E+0	1.241112E+0	1.175035E+0	1.209284E+0	1.206623E+0	1.152720E+0	1.194945E+0	1.174135E+0	1.205616E+0	1.143695E+0	1.225128E+0	1.200649E+0	1.195489E+0	1.165414E+0	1.256658E+0	1.184426E+0	1.187425E+0	1.191124E+0	1.245927E+0	1.148274E+0	1.182461E+0	1.236290E+0	1.180689E+0	1.181837E+0	1.196531E+0	1.190707E+0	1.222883E+0	1.222700E+0	1.237496E+0	1.163542E+0	1.207012E+0	1.148254E+0	1.222178E+0	1.211766E+0	1.242133E+0	1.176229E+0	1.240388E+0	1.238330E+0	1.226479E+0	1.183556E+0	1.195418E+0	1.188845E+0	1.259667E+0	1.207327E+0	1.181378E+0	1.215961E+0	1.190178E+0	1.223182E+0	1.207072E+0	1.179815E+0	1.226293E+0	1.208485E+0	1.252941E+0	1.218296E+0	1.192658E+0	1.183865E+0	1.200792E+0	1.187395E+0	1.209102E+0	1.231995E+0	1.197885E+0	1.197372E+0	1.214250E+0	1.173443E+0	1.190893E+0	1.213537E+0	1.188656E+0	1.179909E+0	1.179130E+0	1.213163E+0	1.140005E+0	1.197437E+0	1.204236E+0	1.262797E+0	1.234358E+0	1.259725E+0	1.215005E+0	1.193416E+0	1.194196E+0	1.283007E+0	1.233059E+0	1.192981E+0	1.236943E+0	1.188193E+0	1.218033E+0	1.188709E+0	1.160649E+0	1.217933E+0	1.206990E+0	1.216620E+0	1.244308E+0	1.171282E+0	1.182427E+0	1.215970E+0	1.231387E+0	1.257576E+0	1.251806E+0	1.238502E+0	1.172718E+0	1.159208E+0	1.216361E+0	1.288202E+0	1.182540E+0	1.238508E+0
5.433020E+2	1.401361E+0	1.378385E+0	1.378211E+0	1.400935E+0	1.476737E+0	1.378790E+0	1.402002E+0	1.429461E+0	1.361276E+0	1.379243E+0	1.417352E+0	1.387778E+0	1.412603E+0	1.387827E+0	1.472863E+0	1.435044E+0	1.381563E+0	1.401770E+0	1.400287E+0	1.389208E+0	1.423248E+0	1.392341E+0	1.446520E+0	1.411218E+0	1.417903E+0	1.441608E+0	1.363638E+0	1.366144E+0	1.439065E+0	1.403123E+0	1.382375E+0	1.378747E+0	1.376662E+0	1.420120E+0	1.408757E+0	1.406615E+0	1.372426E+0	1.393620E+0	1.434788E+0	1.422877E+0	1.406379E+0	1.401556E+0	1.414019E+0	1.421424E+0	1.354114E+0	1.428503E+0	1.356791E+0	1.383309E+0	1.377859E+0	1.393245E+0	1.363656E+0	1.354227E+0	1.432502E+0	1.393813E+0	1.422234E+0	1.422905E+0	1.394255E+0	1.472204E+0	1.381878E+0	1.437619E+0	1.423528E+0	1.394772E+0	1.377027E+0	1.341979E+0	1.369287E+0	1.375753E+0	1.430437E+0	1.436253E+0	1.313802E+0	1.420483E+0	1.381402E+0	1.432894E+0	1.396933E+0	1.435607E+0	1.384600E+0	1.414907E+0	1.429959E+0	1.384727E+0	1.422431E+0	1.395088E+0	1.355680E+0	1.403947E+0	1.410838E+0	1.404686E+0	1.392865E+0	1.411636E+0	1.377783E+0	1.436269E+0	1.358749E+0	1.391068E+0	1.386159E+0	1.389341E+0	1.364542E+0	1.404861E+0	1.425173E+0	1.396128E+0	1.399542E+0	1.333777E+0	1.393393E+0	1.339567E+0	1.385956E+0	1.418851E+0	1.341585E+0	1.452873E+0	1.409936E+0	1.389957E+0	1.375982E+0	1.435259E+0	1.417830E+0	1.369040E+0	1.375246E+0	1.374692E+0	1.403494E+0	1.385155E+0	1.364322E+0	1.421991E+0	1.417368E+0	1.391562E+0	1.347763E+0	1.369408E+0	1.347376E+0	1.351675E+0	1.406960E+0	1.411670E+0	1.454689E+0	1.367274E+0	1.397053E+0	1.354357E+0	1.423926E+0	1.404620E+0	1.382356E+0	1.414402E+0	1.419389E+0	1.415167E+0	1.368079E+0	1.381403E+0	1.355150E+0	1.386350E+0	1.404750E+0	1.397566E+0	1.383455E+0	1.389535E+0	1.337629E+0	1.316957E+0	1.409154E+0	1.341534E+0	1.444922E+0	1.369070E+0	1.408979E+0	1.346163E+0	1.404276E+0	1.364317E+0	1.383280E+0	1.392992E+0	1.402267E+0	1.460331E+0	1.463155E+0	1.369927E+0	1.357391E+0	1.414089E+0	1.408864E+0	1.356269E+0	1.419327E+0	1.396015E+0	1.418649E+0	1.328955E+0	1.395355E+0	1.427789E+0	1.403382E+0	1.411274E+0
5.435270E+2	1.497188E+0	1.487475E+0	1.511223E+0	1.534637E+0	1.497525E+0	1.534993E+0	1.492553E+0	1.491072E+0	1.503684E+0	1.558220E+0	1.545791E+0	1.583839E+0	1.496881E+0	1.479442E+0	1.520724E+0	1.519438E+0	1.521269E+0	1.473608E+0	1.523787E+0	1.558161E+0	1.487151E+0	1.526317E+0	1.560567E+0	1.568684E+0	1.535759E+0	1.490644E+0	1.534785E+0	1.500454E+0	1.556009E+0	1.600496E+0	1.547802E+0	1.532815E+0	1.552606E+0	1.497201E+0	1.502983E+0	1.484703E+0	1.466554E+0	1.485645E+0	1.557208E+0	1.541518E+0	1.513746E+0	1.506994E+0	1.535873E+0	1.473095E+0	1.472095E+0	1.449892E+0	1.531924E+0	1.517059E+0	1.544507E+0	1.544238E+0	1.537819E+0	1.529209E+0	1.540354E+0	1.577726E+0	1.503775E+0	1.539967E+0	1.499725E+0	1.539398E+0	1.466645E+0	1.534827E+0	1.532300E+0	1.542787E+0	1.511303E+0	1.448194E+0	1.486437E+0	1.499913E+0	1.526548E+0	1.547598E+0	1.493735E+0	1.486517E+0	1.513012E+0	1.570154E+0	1.568508E+0	1.507607E+0	1.506018E+0	1.485459E+0	1.566785E+0	1.510312E+0	1.536047E+0	1.471729E+0	1.597502E+0	1.499219E+0	1.498835E+0	1.492566E+0	1.535508E+0	1.505579E+0	1.520447E+0	1.558315E+0	1.542497E+0	1.489590E+0	1.520119E+0	1.545033E+0	1.552330E+0	1.552557E+0	1.544334E+0	1.516418E+0	1.477873E+0	1.465304E+0	1.501442E+0	1.508477E+0	1.530050E+0	1.444247E+0	1.514031E+0	1.559046E+0	1.501264E+0	1.526401E+0	1.509976E+0	1.530278E+0	1.507775E+0	1.589193E+0	1.532473E+0	1.469207E+0	1.530770E+0	1.543367E+0	1.480894E+0	1.527285E+0	1.539043E+0	1.527617E+0	1.536311E+0	1.496672E+0	1.460961E+0	1.448133E+0	1.517496E+0	1.525455E+0	1.510077E+0	1.516557E+0	1.505574E+0	1.501405E+0	1.510357E+0	1.517551E+0	1.474759E+0	1.453640E+0	1.506908E+0	1.509009E+0	1.473430E+0	1.529090E+0	1.513248E+0	1.513795E+0	1.531453E+0	1.529722E+0	1.527132E+0	1.474133E+0	1.512624E+0	1.444341E+0	1.453554E+0	1.508711E+0	1.530560E+0	1.529834E+0	1.488213E+0	1.463454E+0	1.494420E+0	1.442346E+0	1.485055E+0	1.514227E+0	1.520485E+0	1.513436E+0	1.459184E+0	1.543908E+0	1.444886E+0	1.521002E+0	1.538785E+0	1.481085E+0	1.528006E+0	1.486128E+0	1.504346E+0	1.495558E+0	1.535942E+0	1.545792E+0	1.512865E+0	1.595748E+0
5.437590E+2	1.669426E+0	1.616715E+0	1.592618E+0	1.630134E+0	1.619535E+0	1.606104E+0	1.601372E+0	1.676432E+0	1.605780E+0	1.618449E+0	1.627171E+0	1.656208E+0	1.682174E+0	1.587606E+0	1.639798E+0	1.637747E+0	1.621346E+0	1.651331E+0	1.612107E+0	1.590538E+0	1.585154E+0	1.652445E+0	1.583134E+0	1.668329E+0	1.563198E+0	1.681816E+0	1.593693E+0	1.629065E+0	1.615436E+0	1.624300E+0	1.641771E+0	1.580345E+0	1.614302E+0	1.652120E+0	1.528424E+0	1.569723E+0	1.585180E+0	1.582400E+0	1.677673E+0	1.628804E+0	1.634368E+0	1.575426E+0	1.631237E+0	1.621764E+0	1.573983E+0	1.583389E+0	1.653734E+0	1.611001E+0	1.635839E+0	1.576936E+0	1.656705E+0	1.636734E+0	1.672468E+0	1.585962E+0	1.578714E+0	1.595872E+0	1.553908E+0	1.600145E+0	1.627414E+0	1.653721E+0	1.651571E+0	1.617933E+0	1.646484E+0	1.629085E+0	1.608803E+0	1.578067E+0	1.618305E+0	1.584406E+0	1.601878E+0	1.590360E+0	1.591833E+0	1.622033E+0	1.610284E+0	1.605542E+0	1.597646E+0	1.618656E+0	1.647193E+0	1.632296E+0	1.603659E+0	1.622207E+0	1.661375E+0	1.684481E+0	1.622320E+0	1.617598E+0	1.633966E+0	1.631399E+0	1.541864E+0	1.656352E+0	1.596455E+0	1.609148E+0	1.631075E+0	1.566534E+0	1.660566E+0	1.564101E+0	1.645306E+0	1.657340E+0	1.587396E+0	1.605181E+0	1.655242E+0	1.642540E+0	1.634083E+0	1.566393E+0	1.542502E+0	1.713665E+0	1.571609E+0	1.574911E+0	1.630702E+0	1.610869E+0	1.587594E+0	1.603487E+0	1.607155E+0	1.592917E+0	1.595346E+0	1.652834E+0	1.600984E+0	1.655173E+0	1.653876E+0	1.612855E+0	1.629211E+0	1.590637E+0	1.586346E+0	1.609593E+0	1.580259E+0	1.573611E+0	1.639441E+0	1.599220E+0	1.675222E+0	1.672576E+0	1.602239E+0	1.614291E+0	1.581570E+0	1.630039E+0	1.566662E+0	1.574448E+0	1.586675E+0	1.607316E+0	1.551182E+0	1.604318E+0	1.571800E+0	1.634753E+0	1.641711E+0	1.588227E+0	1.634220E+0	1.541370E+0	1.619650E+0	1.579250E+0	1.620712E+0	1.611366E+0	1.539801E+0	1.606625E+0	1.638482E+0	1.623268E+0	1.549611E+0	1.639593E+0	1.575019E+0	1.602171E+0	1.597402E+0	1.574934E+0	1.584214E+0	1.594691E+0	1.608796E+0	1.613810E+0	1.583195E+0	1.597759E+0	1.640537E+0	1.560467E+0	1.597538E+0	1.654175E+0	1.529710E+0	1.650847E+0
5.440280E+2	1.704006E+0	1.679921E+0	1.618131E+0	1.633201E+0	1.701450E+0	1.711239E+0	1.697918E+0	1.680322E+0	1.610854E+0	1.594901E+0	1.647210E+0	1.681507E+0	1.633792E+0	1.735692E+0	1.735246E+0	1.642952E+0	1.673406E+0	1.753541E+0	1.722416E+0	1.657334E+0	1.694135E+0	1.647618E+0	1.684316E+0	1.617158E+0	1.677118E+0	1.666734E+0	1.609391E+0	1.657705E+0	1.760412E+0	1.666199E+0	1.673786E+0	1.635169E+0	1.682994E+0	1.696613E+0	1.635045E+0	1.619503E+0	1.641350E+0	1.569770E+0	1.676822E+0	1.681001E+0	1.727628E+0	1.659856E+0	1.614819E+0	1.678233E+0	1.694484E+0	1.675283E+0	1.699283E+0	1.644830E+0	1.637284E+0	1.678726E+0	1.642290E+0	1.602777E+0	1.674710E+0	1.679221E+0	1.672262E+0	1.686094E+0	1.608240E+0	1.655703E+0	1.653559E+0	1.703706E+0	1.716575E+0	1.637801E+0	1.595986E+0	1.582927E+0	1.638480E+0	1.724441E+0	1.696280E+0	1.645907E+0	1.570555E+0	1.675160E+0	1.630359E+0	1.648204E+0	1.651974E+0	1.653484E+0	1.636208E+0	1.709050E+0	1.651067E+0	1.685260E+0	1.645525E+0	1.644035E+0	1.656819E+0	1.648512E+0	1.650034E+0	1.626929E+0	1.664710E+0	1.615546E+0	1.694664E+0	1.634394E+0	1.684899E+0	1.713843E+0	1.614683E+0	1.598673E+0	1.695745E+0	1.669135E+0	1.682680E+0	1.677872E+0	1.610766E+0	1.645837E+0	1.692551E+0	1.714029E+0	1.658522E+0	1.675799E+0	1.620781E+0	1.671493E+0	1.665757E+0	1.634036E+0	1.708120E+0	1.680078E+0	1.631566E+0	1.629389E+0	1.620123E+0	1.621435E+0	1.667336E+0	1.701233E+0	1.674508E+0	1.625102E+0	1.652244E+0	1.672069E+0	1.660724E+0	1.665585E+0	1.603913E+0	1.630859E+0	1.651378E+0	1.627525E+0	1.730549E+0	1.688487E+0	1.611407E+0	1.685395E+0	1.654520E+0	1.574179E+0	1.657187E+0	1.626300E+0	1.642095E+0	1.635437E+0	1.609902E+0	1.600884E+0	1.592309E+0	1.658713E+0	1.669601E+0	1.669846E+0	1.650668E+0	1.606095E+0	1.657964E+0	1.625548E+0	1.589533E+0	1.664345E+0	1.638901E+0	1.618197E+0	1.661109E+0	1.653218E+0	1.625852E+0	1.590847E+0	1.622045E+0	1.609055E+0	1.586856E+0	1.625123E+0	1.619161E+0	1.651531E+0	1.594392E+0	1.709960E+0	1.648477E+0	1.633705E+0	1.648954E+0	1.634162E+0	1.640699E+0	1.627460E+0	1.622005E+0	1.680441E+0	1.607365E+0	1.688857E+0
5.442650E+2	1.695053E+0	1.646558E+0	1.691358E+0	1.729042E+0	1.624392E+0	1.650079E+0	1.651327E+0	1.658338E+0	1.651710E+0	1.682762E+0	1.655810E+0	1.664449E+0	1.664349E+0	1.671960E+0	1.748899E+0	1.674957E+0	1.675615E+0	1.644858E+0	1.725966E+0	1.667209E+0	1.672234E+0	1.707549E+0	1.726188E+0	1.643641E+0	1.613655E+0	1.702735E+0	1.662099E+0	1.601584E+0	1.731699E+0	1.617358E+0	1.639237E+0	1.596688E+0	1.629023E+0	1.711315E+0	1.594153E+0	1.703662E+0	1.629126E+0	1.641610E+0	1.712269E+0	1.573190E+0	1.642524E+0	1.646574E+0	1.698747E+0	1.658665E+0	1.658831E+0	1.597977E+0	1.619193E+0	1.652034E+0	1.673403E+0	1.660072E+0	1.674691E+0	1.585889E+0	1.642895E+0	1.639420E+0	1.672408E+0	1.609630E+0	1.646145E+0	1.678044E+0	1.647833E+0	1.633158E+0	1.706574E+0	1.604928E+0	1.638833E+0	1.593156E+0	1.663534E+0	1.685100E+0	1.626059E+0	1.680677E+0	1.563207E+0	1.615516E+0	1.719058E+0	1.653736E+0	1.666640E+0	1.629199E+0	1.597346E+0	1.677532E+0	1.691224E+0	1.648294E+0	1.678892E+0	1.626231E+0	1.647956E+0	1.675708E+0	1.628199E+0	1.650282E+0	1.666712E+0	1.592378E+0	1.541695E+0	1.706562E+0	1.560044E+0	1.657670E+0	1.679822E+0	1.645691E+0	1.704723E+0	1.616130E+0	1.710053E+0	1.621175E+0	1.640634E+0	1.675007E+0	1.676356E+0	1.645626E+0	1.646782E+0	1.666509E+0	1.573726E+0	1.697858E+0	1.581011E+0	1.655405E+0	1.590401E+0	1.694600E+0	1.620222E+0	1.646198E+0	1.566012E+0	1.638706E+0	1.693318E+0	1.625616E+0	1.629500E+0	1.710159E+0	1.645064E+0	1.621582E+0	1.619397E+0	1.627816E+0	1.628853E+0	1.596729E+0	1.615172E+0	1.635076E+0	1.651957E+0	1.575888E+0	1.673716E+0	1.643108E+0	1.650194E+0	1.638590E+0	1.587098E+0	1.611311E+0	1.631494E+0	1.622265E+0	1.583343E+0	1.686284E+0	1.580005E+0	1.648693E+0	1.662809E+0	1.696252E+0	1.675590E+0	1.638054E+0	1.624595E+0	1.559145E+0	1.637395E+0	1.637412E+0	1.652669E+0	1.619689E+0	1.620783E+0	1.624331E+0	1.566169E+0	1.651640E+0	1.657438E+0	1.590119E+0	1.588563E+0	1.651924E+0	1.643303E+0	1.589367E+0	1.628665E+0	1.568064E+0	1.764905E+0	1.609708E+0	1.652932E+0	1.618520E+0	1.648411E+0	1.628033E+0	1.642674E+0	1.724653E+0	1.614652E+0	1.442923E+0
5.445240E+2	1.635931E+0	1.674386E+0	1.607082E+0	1.669242E+0	1.677624E+0	1.656523E+0	1.664892E+0	1.647676E+0	1.607485E+0	1.607199E+0	1.635810E+0	1.631099E+0	1.700884E+0	1.649798E+0	1.655966E+0	1.609907E+0	1.596295E+0	1.662192E+0	1.669019E+0	1.584475E+0	1.636231E+0	1.684405E+0	1.669963E+0	1.660272E+0	1.617375E+0	1.642867E+0	1.613167E+0	1.659225E+0	1.680678E+0	1.666967E+0	1.641770E+0	1.591803E+0	1.594306E+0	1.640200E+0	1.623559E+0	1.607721E+0	1.640669E+0	1.597404E+0	1.624575E+0	1.582041E+0	1.698179E+0	1.601693E+0	1.614298E+0	1.630132E+0	1.666884E+0	1.604072E+0	1.608764E+0	1.641452E+0	1.695038E+0	1.653803E+0	1.560589E+0	1.629553E+0	1.641550E+0	1.638958E+0	1.637018E+0	1.562566E+0	1.624230E+0	1.674408E+0	1.603248E+0	1.628019E+0	1.627493E+0	1.666480E+0	1.558879E+0	1.555648E+0	1.640306E+0	1.596187E+0	1.606852E+0	1.636577E+0	1.602789E+0	1.584643E+0	1.650303E+0	1.592114E+0	1.689590E+0	1.628792E+0	1.641907E+0	1.617097E+0	1.683413E+0	1.567241E+0	1.614109E+0	1.582035E+0	1.612215E+0	1.606542E+0	1.635943E+0	1.595427E+0	1.676461E+0	1.602469E+0	1.591585E+0	1.645536E+0	1.609368E+0	1.595276E+0	1.663010E+0	1.531640E+0	1.652613E+0	1.667064E+0	1.591205E+0	1.580922E+0	1.650244E+0	1.539636E+0	1.684092E+0	1.617535E+0	1.660797E+0	1.623372E+0	1.633516E+0	1.686388E+0	1.563085E+0	1.616667E+0	1.575331E+0	1.601210E+0	1.563359E+0	1.598879E+0	1.566718E+0	1.603569E+0	1.647650E+0	1.576750E+0	1.626153E+0	1.610471E+0	1.598299E+0	1.599608E+0	1.669990E+0	1.625077E+0	1.583006E+0	1.606924E+0	1.616179E+0	1.629309E+0	1.653433E+0	1.638263E+0	1.628752E+0	1.565293E+0	1.626580E+0	1.596738E+0	1.594779E+0	1.593606E+0	1.589893E+0	1.604999E+0	1.596114E+0	1.673752E+0	1.670750E+0	1.606681E+0	1.552721E+0	1.575624E+0	1.639221E+0	1.640596E+0	1.586087E+0	1.544659E+0	1.573591E+0	1.580404E+0	1.653062E+0	1.602289E+0	1.588716E+0	1.632897E+0	1.604349E+0	1.541274E+0	1.649777E+0	1.616208E+0	1.571764E+0	1.591100E+0	1.580520E+0	1.555783E+0	1.597946E+0	1.640999E+0	1.619036E+0	1.620867E+0	1.604909E+0	1.581044E+0	1.568416E+0	1.599538E+0	1.604241E+0	1.710313E+0	1.624419E+0	1.615846E+0
5.447660E+2	1.554908E+0	1.552995E+0	1.502851E+0	1.539172E+0	1.567615E+0	1.561878E+0	1.602991E+0	1.553816E+0	1.562461E+0	1.526313E+0	1.523307E+0	1.537506E+0	1.585218E+0	1.550300E+0	1.576069E+0	1.525103E+0	1.552676E+0	1.557486E+0	1.588490E+0	1.528632E+0	1.535472E+0	1.557855E+0	1.557418E+0	1.509406E+0	1.552390E+0	1.550017E+0	1.507038E+0	1.589994E+0	1.589926E+0	1.498016E+0	1.536006E+0	1.536563E+0	1.615072E+0	1.560804E+0	1.552592E+0	1.552522E+0	1.475732E+0	1.493869E+0	1.535685E+0	1.566568E+0	1.528877E+0	1.533809E+0	1.520282E+0	1.555933E+0	1.533192E+0	1.488263E+0	1.549266E+0	1.491351E+0	1.611554E+0	1.565107E+0	1.582751E+0	1.562176E+0	1.571597E+0	1.537188E+0	1.559088E+0	1.475728E+0	1.533785E+0	1.548986E+0	1.538310E+0	1.509396E+0	1.572295E+0	1.538513E+0	1.483371E+0	1.533278E+0	1.523439E+0	1.521312E+0	1.556857E+0	1.540874E+0	1.493381E+0	1.571758E+0	1.510644E+0	1.462968E+0	1.510380E+0	1.541977E+0	1.581631E+0	1.541046E+0	1.519795E+0	1.559512E+0	1.503632E+0	1.512762E+0	1.632432E+0	1.505126E+0	1.510964E+0	1.462567E+0	1.564259E+0	1.549590E+0	1.474250E+0	1.504859E+0	1.514537E+0	1.502169E+0	1.548790E+0	1.462081E+0	1.561294E+0	1.539554E+0	1.533073E+0	1.485112E+0	1.526632E+0	1.533738E+0	1.558265E+0	1.521866E+0	1.569140E+0	1.481742E+0	1.511635E+0	1.542464E+0	1.522047E+0	1.519170E+0	1.562384E+0	1.524126E+0	1.517007E+0	1.496374E+0	1.522525E+0	1.574743E+0	1.500679E+0	1.561106E+0	1.498047E+0	1.470264E+0	1.598918E+0	1.539123E+0	1.504781E+0	1.535271E+0	1.513913E+0	1.540629E+0	1.585670E+0	1.502145E+0	1.598081E+0	1.508152E+0	1.543121E+0	1.490936E+0	1.518925E+0	1.522069E+0	1.466190E+0	1.539715E+0	1.535242E+0	1.528594E+0	1.490451E+0	1.541243E+0	1.515731E+0	1.574941E+0	1.440950E+0	1.554320E+0	1.508788E+0	1.539196E+0	1.503047E+0	1.472989E+0	1.569559E+0	1.549001E+0	1.528506E+0	1.567828E+0	1.552955E+0	1.527878E+0	1.491394E+0	1.574919E+0	1.474456E+0	1.505802E+0	1.579425E+0	1.520010E+0	1.538886E+0	1.478321E+0	1.503733E+0	1.490120E+0	1.597197E+0	1.541773E+0	1.537234E+0	1.502170E+0	1.487959E+0	1.530124E+0	1.469394E+0	1.617544E+0	1.514952E+0	1.421356E+0
5.450200E+2	1.447627E+0	1.424213E+0	1.415086E+0	1.434384E+0	1.406493E+0	1.461304E+0	1.421537E+0	1.414856E+0	1.417537E+0	1.434391E+0	1.381605E+0	1.446226E+0	1.455709E+0	1.420822E+0	1.468706E+0	1.414971E+0	1.434191E+0	1.440674E+0	1.397694E+0	1.439591E+0	1.439556E+0	1.436066E+0	1.417489E+0	1.411112E+0	1.469631E+0	1.447900E+0	1.373012E+0	1.415270E+0	1.447718E+0	1.403349E+0	1.440573E+0	1.427895E+0	1.396163E+0	1.446126E+0	1.413294E+0	1.420845E+0	1.414708E+0	1.384720E+0	1.448639E+0	1.422275E+0	1.464084E+0	1.459503E+0	1.421155E+0	1.395312E+0	1.407251E+0	1.392720E+0	1.424310E+0	1.394636E+0	1.443021E+0	1.407988E+0	1.437953E+0	1.370850E+0	1.452836E+0	1.433024E+0	1.411465E+0	1.415147E+0	1.403019E+0	1.426987E+0	1.441229E+0	1.419712E+0	1.452571E+0	1.472119E+0	1.460734E+0	1.357668E+0	1.416261E+0	1.447039E+0	1.401359E+0	1.373729E+0	1.416124E+0	1.383788E+0	1.379095E+0	1.398361E+0	1.430048E+0	1.420536E+0	1.397655E+0	1.403978E+0	1.439648E+0	1.401689E+0	1.459450E+0	1.407657E+0	1.398132E+0	1.394043E+0	1.407885E+0	1.367890E+0	1.453595E+0	1.429132E+0	1.347123E+0	1.386371E+0	1.428704E+0	1.463555E+0	1.471051E+0	1.413265E+0	1.477454E+0	1.398153E+0	1.432172E+0	1.370051E+0	1.401683E+0	1.391152E+0	1.450606E+0	1.427374E+0	1.467844E+0	1.413223E+0	1.422559E+0	1.434317E+0	1.408735E+0	1.424771E+0	1.399176E+0	1.407562E+0	1.404991E+0	1.428227E+0	1.432442E+0	1.436024E+0	1.355223E+0	1.400068E+0	1.362919E+0	1.453246E+0	1.415310E+0	1.423588E+0	1.408388E+0	1.445827E+0	1.413793E+0	1.429507E+0	1.378718E+0	1.417483E+0	1.439462E+0	1.444798E+0	1.369807E+0	1.405479E+0	1.373372E+0	1.379340E+0	1.364384E+0	1.447567E+0	1.374838E+0	1.453953E+0	1.379779E+0	1.424558E+0	1.447456E+0	1.407866E+0	1.455280E+0	1.423495E+0	1.363755E+0	1.485345E+0	1.441516E+0	1.371617E+0	1.395939E+0	1.356179E+0	1.460299E+0	1.421040E+0	1.384993E+0	1.424430E+0	1.405657E+0	1.403302E+0	1.427312E+0	1.397881E+0	1.436840E+0	1.387771E+0	1.349814E+0	1.416471E+0	1.371519E+0	1.413412E+0	1.440122E+0	1.400932E+0	1.417506E+0	1.441470E+0	1.418190E+0	1.390112E+0	1.403253E+0	1.483554E+0	1.445403E+0	1.399356E+0
5.452690E+2	1.371506E+0	1.374313E+0	1.318734E+0	1.391129E+0	1.302740E+0	1.364977E+0	1.341780E+0	1.356980E+0	1.342569E+0	1.343336E+0	1.354720E+0	1.353309E+0	1.376988E+0	1.339816E+0	1.350125E+0	1.327577E+0	1.317134E+0	1.357694E+0	1.380873E+0	1.302924E+0	1.366436E+0	1.391350E+0	1.389544E+0	1.335176E+0	1.367550E+0	1.368051E+0	1.330347E+0	1.309348E+0	1.396495E+0	1.335462E+0	1.368822E+0	1.333161E+0	1.351507E+0	1.386191E+0	1.252812E+0	1.326784E+0	1.313698E+0	1.322248E+0	1.327795E+0	1.334139E+0	1.335300E+0	1.318261E+0	1.366273E+0	1.380223E+0	1.344585E+0	1.269826E+0	1.344372E+0	1.382439E+0	1.431857E+0	1.386300E+0	1.425992E+0	1.332600E+0	1.390942E+0	1.367454E+0	1.345958E+0	1.323689E+0	1.341211E+0	1.360868E+0	1.396316E+0	1.312155E+0	1.366388E+0	1.380083E+0	1.330160E+0	1.322847E+0	1.334772E+0	1.380672E+0	1.307830E+0	1.349189E+0	1.313794E+0	1.330690E+0	1.360234E+0	1.372045E+0	1.378431E+0	1.399607E+0	1.374351E+0	1.297343E+0	1.423150E+0	1.361910E+0	1.370071E+0	1.303519E+0	1.364448E+0	1.344483E+0	1.330523E+0	1.286472E+0	1.340342E+0	1.328067E+0	1.319250E+0	1.359322E+0	1.310475E+0	1.337521E+0	1.376974E+0	1.357302E+0	1.408991E+0	1.330945E+0	1.326924E+0	1.323336E+0	1.365536E+0	1.314447E+0	1.295514E+0	1.344046E+0	1.414140E+0	1.366865E+0	1.335328E+0	1.325722E+0	1.359873E+0	1.350140E+0	1.369537E+0	1.319572E+0	1.369990E+0	1.352068E+0	1.379668E+0	1.307845E+0	1.363368E+0	1.372154E+0	1.348121E+0	1.338952E+0	1.328015E+0	1.317347E+0	1.341818E+0	1.333662E+0	1.363803E+0	1.344581E+0	1.369699E+0	1.305293E+0	1.345642E+0	1.272666E+0	1.336114E+0	1.307244E+0	1.360771E+0	1.337945E+0	1.306109E+0	1.293402E+0	1.353415E+0	1.348294E+0	1.315607E+0	1.348252E+0	1.308669E+0	1.353540E+0	1.387506E+0	1.321847E+0	1.342363E+0	1.360066E+0	1.325051E+0	1.355908E+0	1.348570E+0	1.365579E+0	1.387945E+0	1.335295E+0	1.367902E+0	1.319705E+0	1.381895E+0	1.335119E+0	1.412318E+0	1.362461E+0	1.341207E+0	1.301728E+0	1.321658E+0	1.343948E+0	1.307803E+0	1.388257E+0	1.366560E+0	1.319382E+0	1.343586E+0	1.305156E+0	1.320514E+0	1.328025E+0	1.336731E+0	1.422436E+0	1.333425E+0	1.359005E+0
5.455390E+2	1.289282E+0	1.270191E+0	1.246520E+0	1.311563E+0	1.316568E+0	1.289901E+0	1.278721E+0	1.246683E+0	1.266621E+0	1.282598E+0	1.290168E+0	1.250880E+0	1.336349E+0	1.307102E+0	1.266420E+0	1.256398E+0	1.303930E+0	1.308198E+0	1.305600E+0	1.262813E+0	1.315181E+0	1.262893E+0	1.287390E+0	1.280179E+0	1.327305E+0	1.349640E+0	1.275259E+0	1.270197E+0	1.341590E+0	1.306172E+0	1.275552E+0	1.268241E+0	1.287446E+0	1.284519E+0	1.275374E+0	1.261654E+0	1.270037E+0	1.271211E+0	1.289994E+0	1.279584E+0	1.270760E+0	1.241781E+0	1.284158E+0	1.290476E+0	1.286799E+0	1.250530E+0	1.312023E+0	1.277866E+0	1.298800E+0	1.219304E+0	1.252362E+0	1.290493E+0	1.309947E+0	1.259727E+0	1.243818E+0	1.221842E+0	1.320655E+0	1.283915E+0	1.264142E+0	1.263079E+0	1.299530E+0	1.265012E+0	1.283364E+0	1.293914E+0	1.267699E+0	1.313183E+0	1.323307E+0	1.255124E+0	1.244572E+0	1.250114E+0	1.311759E+0	1.217522E+0	1.305135E+0	1.229215E+0	1.258779E+0	1.265125E+0	1.239535E+0	1.315517E+0	1.219456E+0	1.299996E+0	1.285670E+0	1.258267E+0	1.286777E+0	1.238450E+0	1.304072E+0	1.263197E+0	1.254091E+0	1.276529E+0	1.236971E+0	1.284016E+0	1.308948E+0	1.280568E+0	1.401541E+0	1.236869E+0	1.269636E+0	1.275486E+0	1.310960E+0	1.212296E+0	1.275693E+0	1.272858E+0	1.283264E+0	1.261502E+0	1.277118E+0	1.251174E+0	1.323528E+0	1.289837E+0	1.266443E+0	1.348334E+0	1.283015E+0	1.235293E+0	1.303945E+0	1.268568E+0	1.307298E+0	1.257233E+0	1.268049E+0	1.268542E+0	1.285375E+0	1.282580E+0	1.245584E+0	1.269324E+0	1.241299E+0	1.264496E+0	1.242559E+0	1.323140E+0	1.361091E+0	1.254550E+0	1.280507E+0	1.280932E+0	1.250940E+0	1.266579E+0	1.269796E+0	1.235799E+0	1.335971E+0	1.297469E+0	1.275443E+0	1.253995E+0	1.288195E+0	1.268869E+0	1.310311E+0	1.297971E+0	1.292510E+0	1.245813E+0	1.279922E+0	1.308942E+0	1.323853E+0	1.287718E+0	1.280578E+0	1.246646E+0	1.290086E+0	1.336551E+0	1.254718E+0	1.265715E+0	1.290269E+0	1.298077E+0	1.265531E+0	1.262054E+0	1.248381E+0	1.311086E+0	1.229345E+0	1.257090E+0	1.255514E+0	1.242156E+0	1.269115E+0	1.285909E+0	1.217528E+0	1.239231E+0	1.259803E+0	1.295307E+0	1.313976E+0	1.307318E+0
5.457780E+2	1.225151E+0	1.228220E+0	1.198928E+0	1.231855E+0	1.198034E+0	1.218483E+0	1.250232E+0	1.188786E+0	1.243369E+0	1.198777E+0	1.223656E+0	1.183279E+0	1.228472E+0	1.262732E+0	1.188622E+0	1.226682E+0	1.264514E+0	1.263638E+0	1.250985E+0	1.200979E+0	1.244846E+0	1.219482E+0	1.192062E+0	1.267339E+0	1.223879E+0	1.235059E+0	1.254391E+0	1.215930E+0	1.289762E+0	1.204768E+0	1.229191E+0	1.207992E+0	1.281476E+0	1.223753E+0	1.177014E+0	1.248848E+0	1.198234E+0	1.193289E+0	1.230630E+0	1.240029E+0	1.191971E+0	1.236592E+0	1.208624E+0	1.240278E+0	1.222301E+0	1.198966E+0	1.221023E+0	1.223955E+0	1.285874E+0	1.240719E+0	1.271992E+0	1.202768E+0	1.220042E+0	1.267411E+0	1.232591E+0	1.214880E+0	1.247779E+0	1.214159E+0	1.195231E+0	1.169239E+0	1.278357E+0	1.203491E+0	1.189240E+0	1.250727E+0	1.173133E+0	1.255019E+0	1.176508E+0	1.240180E+0	1.215916E+0	1.245720E+0	1.205842E+0	1.281560E+0	1.226926E+0	1.231974E+0	1.233578E+0	1.206183E+0	1.222634E+0	1.166207E+0	1.242154E+0	1.271097E+0	1.278033E+0	1.235851E+0	1.225170E+0	1.220799E+0	1.236312E+0	1.195024E+0	1.183429E+0	1.239782E+0	1.230540E+0	1.299262E+0	1.283310E+0	1.202248E+0	1.296544E+0	1.261820E+0	1.284934E+0	1.219604E+0	1.252598E+0	1.219274E+0	1.208603E+0	1.201295E+0	1.257309E+0	1.187113E+0	1.203832E+0	1.215112E+0	1.252493E+0	1.227030E+0	1.262781E+0	1.197742E+0	1.249800E+0	1.213976E+0	1.208299E+0	1.277214E+0	1.225920E+0	1.194787E+0	1.230214E+0	1.225726E+0	1.235490E+0	1.233322E+0	1.221312E+0	1.208875E+0	1.175775E+0	1.185031E+0	1.254225E+0	1.253188E+0	1.207135E+0	1.201306E+0	1.183501E+0	1.193734E+0	1.179470E+0	1.249655E+0	1.222001E+0	1.206834E+0	1.230124E+0	1.227824E+0	1.210336E+0	1.230182E+0	1.183162E+0	1.278396E+0	1.184774E+0	1.270915E+0	1.234178E+0	1.262978E+0	1.218902E+0	1.188016E+0	1.204473E+0	1.220703E+0	1.233693E+0	1.244981E+0	1.233837E+0	1.172826E+0	1.218009E+0	1.245192E+0	1.223548E+0	1.218020E+0	1.201066E+0	1.183790E+0	1.222347E+0	1.226061E+0	1.206001E+0	1.247147E+0	1.341062E+0	1.190320E+0	1.216550E+0	1.196393E+0	1.220134E+0	1.211503E+0	1.182064E+0	1.254474E+0	1.235363E+0	1.202420E+0
5.460110E+2	1.286248E+0	1.261793E+0	1.193670E+0	1.230041E+0	1.206736E+0	1.228660E+0	1.231899E+0	1.254460E+0	1.269672E+0	1.243258E+0	1.252567E+0	1.277448E+0	1.239721E+0	1.269257E+0	1.232796E+0	1.234025E+0	1.293528E+0	1.258219E+0	1.291203E+0	1.224776E+0	1.250522E+0	1.239760E+0	1.298718E+0	1.236768E+0	1.258907E+0	1.264696E+0	1.235431E+0	1.231806E+0	1.309001E+0	1.268973E+0	1.233255E+0	1.246610E+0	1.250117E+0	1.251957E+0	1.229652E+0	1.229577E+0	1.202610E+0	1.264646E+0	1.220621E+0	1.259314E+0	1.259162E+0	1.256621E+0	1.268659E+0	1.244985E+0	1.257080E+0	1.229077E+0	1.245921E+0	1.233902E+0	1.268525E+0	1.240529E+0	1.244272E+0	1.238393E+0	1.253790E+0	1.246821E+0	1.250183E+0	1.212191E+0	1.229767E+0	1.255903E+0	1.233465E+0	1.232370E+0	1.313650E+0	1.240834E+0	1.312161E+0	1.209428E+0	1.213149E+0	1.194868E+0	1.251048E+0	1.229085E+0	1.237692E+0	1.237871E+0	1.260456E+0	1.246804E+0	1.290910E+0	1.269341E+0	1.171958E+0	1.289961E+0	1.250068E+0	1.241767E+0	1.181264E+0	1.233032E+0	1.272337E+0	1.196594E+0	1.269325E+0	1.282907E+0	1.233606E+0	1.222770E+0	1.254403E+0	1.265398E+0	1.208498E+0	1.229378E+0	1.242950E+0	1.214600E+0	1.271424E+0	1.286018E+0	1.232152E+0	1.226307E+0	1.221148E+0	1.191747E+0	1.232648E+0	1.269641E+0	1.220587E+0	1.207405E+0	1.247318E+0	1.242220E+0	1.247497E+0	1.237328E+0	1.274535E+0	1.212837E+0	1.258400E+0	1.258141E+0	1.213217E+0	1.199901E+0	1.249498E+0	1.269868E+0	1.182316E+0	1.185347E+0	1.327760E+0	1.243758E+0	1.240903E+0	1.192188E+0	1.216704E+0	1.223260E+0	1.222124E+0	1.220050E+0	1.289526E+0	1.252932E+0	1.255526E+0	1.236378E+0	1.209531E+0	1.138689E+0	1.230545E+0	1.228867E+0	1.176170E+0	1.261176E+0	1.226915E+0	1.212784E+0	1.256375E+0	1.195755E+0	1.249892E+0	1.234342E+0	1.221746E+0	1.202558E+0	1.218202E+0	1.230692E+0	1.212323E+0	1.245409E+0	1.256563E+0	1.229558E+0	1.226149E+0	1.212424E+0	1.265266E+0	1.234292E+0	1.231834E+0	1.279038E+0	1.226090E+0	1.254604E+0	1.315184E+0	1.250312E+0	1.209291E+0	1.223612E+0	1.278553E+0	1.200871E+0	1.222773E+0	1.254885E+0	1.189203E+0	1.223223E+0	1.234879E+0	1.241423E+0	1.179594E+0	1.203215E+0
5.467600E+2	1.301010E+0	1.322738E+0	1.294707E+0	1.299154E+0	1.295479E+0	1.313271E+0	1.265961E+0	1.304538E+0	1.308034E+0	1.258696E+0	1.360048E+0	1.281090E+0	1.308858E+0	1.346345E+0	1.322324E+0	1.319746E+0	1.334607E+0	1.305509E+0	1.281906E+0	1.230257E+0	1.311925E+0	1.308177E+0	1.338053E+0	1.312988E+0	1.297392E+0	1.317712E+0	1.329387E+0	1.306110E+0	1.271257E+0	1.326785E+0	1.324798E+0	1.308593E+0	1.308920E+0	1.318355E+0	1.258791E+0	1.318797E+0	1.331242E+0	1.311707E+0	1.336145E+0	1.318591E+0	1.307004E+0	1.337548E+0	1.341211E+0	1.236264E+0	1.272404E+0	1.337014E+0	1.303590E+0	1.292695E+0	1.306993E+0	1.302416E+0	1.295842E+0	1.354936E+0	1.350389E+0	1.319170E+0	1.308660E+0	1.246921E+0	1.300235E+0	1.390344E+0	1.283653E+0	1.312280E+0	1.312135E+0	1.328498E+0	1.255103E+0	1.327291E+0	1.279977E+0	1.318083E+0	1.321057E+0	1.305442E+0	1.272754E+0	1.290411E+0	1.285926E+0	1.288663E+0	1.277957E+0	1.283311E+0	1.318462E+0	1.273907E+0	1.354321E+0	1.347336E+0	1.279000E+0	1.216274E+0	1.350587E+0	1.289155E+0	1.303826E+0	1.273553E+0	1.336278E+0	1.263059E+0	1.343516E+0	1.270103E+0	1.308153E+0	1.326656E+0	1.329913E+0	1.314479E+0	1.303059E+0	1.371089E+0	1.285069E+0	1.323243E+0	1.331974E+0	1.283958E+0	1.331780E+0	1.261102E+0	1.330144E+0	1.295528E+0	1.260027E+0	1.328753E+0	1.299946E+0	1.305983E+0	1.305152E+0	1.311859E+0	1.314009E+0	1.292694E+0	1.265839E+0	1.295754E+0	1.310434E+0	1.301256E+0	1.322302E+0	1.307081E+0	1.337477E+0	1.329186E+0	1.316061E+0	1.284765E+0	1.253072E+0	1.268167E+0	1.242716E+0	1.282321E+0	1.363723E+0	1.360757E+0	1.304691E+0	1.317039E+0	1.331028E+0	1.311022E+0	1.293282E+0	1.325756E+0	1.299772E+0	1.380920E+0	1.308384E+0	1.248783E+0	1.336923E+0	1.319583E+0	1.346525E+0	1.288292E+0	1.290989E+0	1.293280E+0	1.341124E+0	1.224599E+0	1.304670E+0	1.285567E+0	1.347728E+0	1.296617E+0	1.304178E+0	1.302319E+0	1.284802E+0	1.292507E+0	1.280322E+0	1.277775E+0	1.293071E+0	1.304427E+0	1.292270E+0	1.304566E+0	1.294743E+0	1.308026E+0	1.345568E+0	1.317654E+0	1.288180E+0	1.327001E+0	1.254252E+0	1.276596E+0	1.317176E+0	1.244710E+0	1.302663E+0	1.353554E+0
5.475070E+2	1.436167E+0	1.412897E+0	1.344168E+0	1.378694E+0	1.352636E+0	1.409349E+0	1.395178E+0	1.454647E+0	1.331525E+0	1.339321E+0	1.369963E+0	1.347984E+0	1.371106E+0	1.389489E+0	1.399399E+0	1.372695E+0	1.371755E+0	1.424008E+0	1.408729E+0	1.335864E+0	1.381835E+0	1.370376E+0	1.432739E+0	1.407844E+0	1.339336E+0	1.429724E+0	1.387092E+0	1.411826E+0	1.385365E+0	1.372148E+0	1.406439E+0	1.390245E+0	1.433159E+0	1.466720E+0	1.361946E+0	1.335336E+0	1.342671E+0	1.365058E+0	1.398788E+0	1.381758E+0	1.407393E+0	1.346136E+0	1.421975E+0	1.325452E+0	1.356965E+0	1.393227E+0	1.401656E+0	1.381736E+0	1.444106E+0	1.348755E+0	1.441887E+0	1.355633E+0	1.353134E+0	1.426861E+0	1.391038E+0	1.364563E+0	1.404137E+0	1.438744E+0	1.380318E+0	1.344315E+0	1.398236E+0	1.447474E+0	1.401290E+0	1.354031E+0	1.304404E+0	1.377434E+0	1.374559E+0	1.379031E+0	1.324826E+0	1.367392E+0	1.393390E+0	1.435891E+0	1.383649E+0	1.362912E+0	1.367456E+0	1.426057E+0	1.383143E+0	1.371757E+0	1.421910E+0	1.403370E+0	1.384658E+0	1.354922E+0	1.406288E+0	1.319527E+0	1.383924E+0	1.330789E+0	1.332290E+0	1.408792E+0	1.350769E+0	1.366609E+0	1.350641E+0	1.350523E+0	1.375280E+0	1.469356E+0	1.369772E+0	1.366974E+0	1.364148E+0	1.362291E+0	1.319081E+0	1.364502E+0	1.389524E+0	1.361997E+0	1.417481E+0	1.378648E+0	1.370386E+0	1.319622E+0	1.398146E+0	1.365781E+0	1.354147E+0	1.389273E+0	1.432107E+0	1.426486E+0	1.410542E+0	1.418798E+0	1.428073E+0	1.370586E+0	1.436051E+0	1.305367E+0	1.318788E+0	1.391484E+0	1.361366E+0	1.396712E+0	1.381288E+0	1.350780E+0	1.412163E+0	1.356769E+0	1.424359E+0	1.383245E+0	1.352402E+0	1.378224E+0	1.337813E+0	1.429828E+0	1.353891E+0	1.385811E+0	1.390065E+0	1.304526E+0	1.380605E+0	1.371665E+0	1.338728E+0	1.351274E+0	1.362878E+0	1.360948E+0	1.372379E+0	1.357320E+0	1.343895E+0	1.363422E+0	1.388731E+0	1.395229E+0	1.372373E+0	1.381330E+0	1.328711E+0	1.381508E+0	1.383612E+0	1.390956E+0	1.423046E+0	1.413284E+0	1.377910E+0	1.349476E+0	1.343362E+0	1.363531E+0	1.374610E+0	1.382922E+0	1.350584E+0	1.349047E+0	1.375601E+0	1.354663E+0	1.366621E+0	1.365522E+0	1.356310E+0	1.369964E+0
5.482600E+2	1.499932E+0	1.499784E+0	1.438405E+0	1.517606E+0	1.444136E+0	1.462836E+0	1.444365E+0	1.494635E+0	1.478124E+0	1.476986E+0	1.445382E+0	1.521215E+0	1.461001E+0	1.514107E+0	1.487173E+0	1.439667E+0	1.470199E+0	1.470655E+0	1.492796E+0	1.466934E+0	1.434964E+0	1.518685E+0	1.483837E+0	1.427111E+0	1.483016E+0	1.507007E+0	1.525214E+0	1.454693E+0	1.475018E+0	1.464107E+0	1.381250E+0	1.439423E+0	1.484441E+0	1.527108E+0	1.418243E+0	1.444847E+0	1.458379E+0	1.452664E+0	1.476202E+0	1.470154E+0	1.468146E+0	1.409035E+0	1.508047E+0	1.417378E+0	1.453343E+0	1.380600E+0	1.450261E+0	1.435021E+0	1.464655E+0	1.510121E+0	1.459443E+0	1.488441E+0	1.486096E+0	1.522193E+0	1.437015E+0	1.470213E+0	1.473947E+0	1.513536E+0	1.438990E+0	1.529782E+0	1.485655E+0	1.501362E+0	1.447207E+0	1.499057E+0	1.429518E+0	1.455343E+0	1.521449E+0	1.441800E+0	1.440047E+0	1.485333E+0	1.485349E+0	1.424913E+0	1.421477E+0	1.473081E+0	1.482959E+0	1.406031E+0	1.494776E+0	1.411316E+0	1.470163E+0	1.442873E+0	1.469995E+0	1.498471E+0	1.414416E+0	1.450509E+0	1.469247E+0	1.446183E+0	1.412594E+0	1.466172E+0	1.436978E+0	1.448375E+0	1.492670E+0	1.438789E+0	1.469268E+0	1.467445E+0	1.441460E+0	1.484937E+0	1.456009E+0	1.468230E+0	1.484447E+0	1.458339E+0	1.449574E+0	1.421092E+0	1.433271E+0	1.515938E+0	1.498637E+0	1.417836E+0	1.525767E+0	1.513038E+0	1.408037E+0	1.510681E+0	1.442492E+0	1.469598E+0	1.461070E+0	1.451589E+0	1.492963E+0	1.494668E+0	1.465669E+0	1.443385E+0	1.445261E+0	1.420369E+0	1.427827E+0	1.417043E+0	1.472301E+0	1.426845E+0	1.469372E+0	1.447646E+0	1.475364E+0	1.414383E+0	1.397944E+0	1.440109E+0	1.465179E+0	1.431662E+0	1.464873E+0	1.479777E+0	1.432219E+0	1.446281E+0	1.409004E+0	1.510924E+0	1.463264E+0	1.412574E+0	1.467729E+0	1.499001E+0	1.464330E+0	1.441426E+0	1.432415E+0	1.496381E+0	1.450382E+0	1.453850E+0	1.463243E+0	1.439886E+0	1.460523E+0	1.418755E+0	1.494563E+0	1.411280E+0	1.471497E+0	1.421014E+0	1.415446E+0	1.452202E+0	1.442503E+0	1.540467E+0	1.497810E+0	1.442401E+0	1.470033E+0	1.426411E+0	1.437893E+0	1.497934E+0	1.473921E+0	1.505382E+0	1.475695E+0	1.544395E+0
5.490160E+2	1.409535E+0	1.401131E+0	1.382835E+0	1.397515E+0	1.428936E+0	1.422002E+0	1.425060E+0	1.438781E+0	1.435312E+0	1.427875E+0	1.457996E+0	1.472251E+0	1.426608E+0	1.451390E+0	1.500075E+0	1.365365E+0	1.417250E+0	1.468423E+0	1.432538E+0	1.458444E+0	1.415740E+0	1.421788E+0	1.439742E+0	1.411563E+0	1.413833E+0	1.498627E+0	1.461538E+0	1.437711E+0	1.447947E+0	1.479967E+0	1.375316E+0	1.413963E+0	1.390503E+0	1.418494E+0	1.437023E+0	1.434260E+0	1.421647E+0	1.393271E+0	1.455580E+0	1.448294E+0	1.401060E+0	1.417513E+0	1.463413E+0	1.379310E+0	1.420396E+0	1.407250E+0	1.475194E+0	1.433891E+0	1.458253E+0	1.440878E+0	1.367440E+0	1.431453E+0	1.492708E+0	1.429016E+0	1.418200E+0	1.422936E+0	1.403011E+0	1.456961E+0	1.430949E+0	1.444350E+0	1.429342E+0	1.464942E+0	1.445195E+0	1.406552E+0	1.418466E+0	1.441996E+0	1.411888E+0	1.433381E+0	1.389504E+0	1.415964E+0	1.423836E+0	1.453476E+0	1.431672E+0	1.416587E+0	1.395228E+0	1.356659E+0	1.414298E+0	1.453776E+0	1.452580E+0	1.427824E+0	1.388099E+0	1.375321E+0	1.424489E+0	1.424465E+0	1.419157E+0	1.402072E+0	1.426298E+0	1.409769E+0	1.474940E+0	1.405164E+0	1.447002E+0	1.424884E+0	1.431857E+0	1.420144E+0	1.450845E+0	1.426805E+0	1.390081E+0	1.400855E+0	1.426498E+0	1.400254E+0	1.448036E+0	1.389625E+0	1.422939E+0	1.381645E+0	1.440973E+0	1.448778E+0	1.434580E+0	1.464963E+0	1.374176E+0	1.469058E+0	1.352067E+0	1.431097E+0	1.388626E+0	1.463116E+0	1.426086E+0	1.396036E+0	1.448432E+0	1.400635E+0	1.397770E+0	1.360237E+0	1.372332E+0	1.354905E+0	1.480398E+0	1.382663E+0	1.417800E+0	1.430112E+0	1.459233E+0	1.395926E+0	1.396710E+0	1.406219E+0	1.392882E+0	1.330714E+0	1.411585E+0	1.418231E+0	1.467767E+0	1.393530E+0	1.426369E+0	1.404516E+0	1.403213E+0	1.429497E+0	1.417476E+0	1.460939E+0	1.475898E+0	1.368913E+0	1.348119E+0	1.380650E+0	1.422223E+0	1.371231E+0	1.422732E+0	1.437817E+0	1.449718E+0	1.468602E+0	1.387262E+0	1.414000E+0	1.432371E+0	1.418531E+0	1.343463E+0	1.416983E+0	1.402619E+0	1.434530E+0	1.430382E+0	1.423078E+0	1.480742E+0	1.472049E+0	1.378887E+0	1.383906E+0	1.384521E+0	1.447102E+0	1.415040E+0	1.439825E+0
5.497740E+2	1.367960E+0	1.432910E+0	1.420066E+0	1.427243E+0	1.371047E+0	1.461303E+0	1.426575E+0	1.461129E+0	1.406657E+0	1.427951E+0	1.430736E+0	1.366182E+0	1.429591E+0	1.499800E+0	1.406287E+0	1.426469E+0	1.451757E+0	1.505888E+0	1.414431E+0	1.411805E+0	1.414451E+0	1.510571E+0	1.461776E+0	1.407968E+0	1.418619E+0	1.488022E+0	1.416926E+0	1.413627E+0	1.443479E+0	1.392515E+0	1.410876E+0	1.409137E+0	1.428730E+0	1.435471E+0	1.367219E+0	1.429578E+0	1.416119E+0	1.410448E+0	1.437299E+0	1.416155E+0	1.414456E+0	1.417962E+0	1.424231E+0	1.378193E+0	1.401603E+0	1.415772E+0	1.422477E+0	1.460378E+0	1.428807E+0	1.416645E+0	1.427243E+0	1.373943E+0	1.421045E+0	1.442245E+0	1.434787E+0	1.386342E+0	1.419551E+0	1.440837E+0	1.395310E+0	1.349806E+0	1.379129E+0	1.391021E+0	1.422246E+0	1.400694E+0	1.428693E+0	1.461471E+0	1.442531E+0	1.412271E+0	1.385534E+0	1.449075E+0	1.408341E+0	1.383094E+0	1.431492E+0	1.405582E+0	1.365323E+0	1.392728E+0	1.429882E+0	1.475941E+0	1.413516E+0	1.416015E+0	1.415350E+0	1.408023E+0	1.445326E+0	1.412325E+0	1.429767E+0	1.426842E+0	1.404004E+0	1.456217E+0	1.445860E+0	1.397707E+0	1.462877E+0	1.461874E+0	1.400212E+0	1.504169E+0	1.409309E+0	1.398728E+0	1.342796E+0	1.442821E+0	1.388644E+0	1.405504E+0	1.429085E+0	1.352014E+0	1.391731E+0	1.454283E+0	1.419893E+0	1.402002E+0	1.404348E+0	1.382980E+0	1.470560E+0	1.435605E+0	1.424654E+0	1.412408E+0	1.458237E+0	1.475494E+0	1.370555E+0	1.370254E+0	1.410475E+0	1.438021E+0	1.458248E+0	1.402062E+0	1.366976E+0	1.440272E+0	1.413709E+0	1.381561E+0	1.442214E+0	1.422294E+0	1.480386E+0	1.439691E+0	1.420883E+0	1.397009E+0	1.397532E+0	1.451409E+0	1.443807E+0	1.411191E+0	1.338100E+0	1.370408E+0	1.459532E+0	1.395008E+0	1.397638E+0	1.432944E+0	1.382426E+0	1.452090E+0	1.438563E+0	1.392954E+0	1.422451E+0	1.385249E+0	1.491288E+0	1.422052E+0	1.354576E+0	1.387683E+0	1.407480E+0	1.347446E+0	1.385402E+0	1.408859E+0	1.366666E+0	1.353450E+0	1.345511E+0	1.403603E+0	1.392835E+0	1.430554E+0	1.433320E+0	1.436800E+0	1.425310E+0	1.412718E+0	1.374026E+0	1.361522E+0	1.423763E+0	1.459406E+0	1.377459E+0	1.423567E+0
5.505170E+2	1.435882E+0	1.390935E+0	1.364692E+0	1.416855E+0	1.336431E+0	1.458478E+0	1.471056E+0	1.416776E+0	1.393926E+0	1.397778E+0	1.475728E+0	1.404455E+0	1.417485E+0	1.461114E+0	1.420262E+0	1.370821E+0	1.394895E+0	1.432033E+0	1.431101E+0	1.330160E+0	1.395627E+0	1.395932E+0	1.398731E+0	1.388558E+0	1.413430E+0	1.376604E+0	1.392160E+0	1.381719E+0	1.456314E+0	1.405000E+0	1.384543E+0	1.405925E+0	1.363505E+0	1.434638E+0	1.376577E+0	1.362155E+0	1.399564E+0	1.314646E+0	1.464566E+0	1.406301E+0	1.429729E+0	1.405988E+0	1.393727E+0	1.378001E+0	1.387166E+0	1.422128E+0	1.431017E+0	1.412830E+0	1.442907E+0	1.410187E+0	1.418190E+0	1.355329E+0	1.378005E+0	1.437577E+0	1.380886E+0	1.341213E+0	1.370926E+0	1.415505E+0	1.392426E+0	1.422731E+0	1.397361E+0	1.489766E+0	1.417350E+0	1.392888E+0	1.334850E+0	1.375990E+0	1.357324E+0	1.432246E+0	1.358739E+0	1.366263E+0	1.407799E+0	1.352363E+0	1.406594E+0	1.499622E+0	1.385098E+0	1.411163E+0	1.372119E+0	1.376405E+0	1.415818E+0	1.359233E+0	1.352599E+0	1.415645E+0	1.373434E+0	1.346515E+0	1.418124E+0	1.367934E+0	1.369167E+0	1.401418E+0	1.402831E+0	1.423210E+0	1.398474E+0	1.380992E+0	1.412913E+0	1.419812E+0	1.397993E+0	1.420671E+0	1.340102E+0	1.383205E+0	1.368861E+0	1.392149E+0	1.428137E+0	1.379205E+0	1.416045E+0	1.421453E+0	1.368107E+0	1.431024E+0	1.397570E+0	1.372576E+0	1.375116E+0	1.445074E+0	1.375164E+0	1.429129E+0	1.436850E+0	1.398637E+0	1.360230E+0	1.332438E+0	1.441972E+0	1.390851E+0	1.397268E+0	1.329226E+0	1.376450E+0	1.423637E+0	1.451704E+0	1.352952E+0	1.382315E+0	1.408551E+0	1.444358E+0	1.403871E+0	1.439160E+0	1.404339E+0	1.402947E+0	1.414651E+0	1.392313E+0	1.403533E+0	1.388336E+0	1.440855E+0	1.353012E+0	1.395887E+0	1.381541E+0	1.452547E+0	1.378684E+0	1.413526E+0	1.357188E+0	1.345239E+0	1.375785E+0	1.405479E+0	1.426563E+0	1.427792E+0	1.402301E+0	1.402431E+0	1.367866E+0	1.426432E+0	1.325827E+0	1.343724E+0	1.356181E+0	1.362328E+0	1.372854E+0	1.466863E+0	1.379799E+0	1.402489E+0	1.400504E+0	1.355697E+0	1.421298E+0	1.377555E+0	1.357962E+0	1.359664E+0	1.386620E+0	1.414460E+0	1.294760E+0	1.417102E+0
5.512570E+2	1.364150E+0	1.364950E+0	1.364479E+0	1.407252E+0	1.384161E+0	1.404775E+0	1.402402E+0	1.356344E+0	1.395164E+0	1.431391E+0	1.370564E+0	1.363040E+0	1.417333E+0	1.428989E+0	1.388229E+0	1.452462E+0	1.376602E+0	1.417739E+0	1.414533E+0	1.408730E+0	1.402201E+0	1.343425E+0	1.356402E+0	1.359183E+0	1.368373E+0	1.377818E+0	1.370094E+0	1.372113E+0	1.347920E+0	1.404643E+0	1.400745E+0	1.422452E+0	1.376302E+0	1.435143E+0	1.387398E+0	1.373729E+0	1.328814E+0	1.383957E+0	1.351678E+0	1.362345E+0	1.389843E+0	1.426871E+0	1.417263E+0	1.355978E+0	1.393954E+0	1.353724E+0	1.376660E+0	1.365372E+0	1.434745E+0	1.397816E+0	1.391462E+0	1.366873E+0	1.429229E+0	1.375176E+0	1.419744E+0	1.321724E+0	1.399325E+0	1.407106E+0	1.383054E+0	1.392613E+0	1.445614E+0	1.402058E+0	1.400942E+0	1.338022E+0	1.384433E+0	1.444319E+0	1.363086E+0	1.334197E+0	1.357074E+0	1.416732E+0	1.420273E+0	1.355903E+0	1.412141E+0	1.412202E+0	1.432408E+0	1.317664E+0	1.421302E+0	1.411188E+0	1.414617E+0	1.368421E+0	1.417613E+0	1.389542E+0	1.332215E+0	1.323224E+0	1.368980E+0	1.396542E+0	1.343382E+0	1.346027E+0	1.409787E+0	1.376858E+0	1.446331E+0	1.352463E+0	1.366537E+0	1.383920E+0	1.417951E+0	1.321302E+0	1.329486E+0	1.366285E+0	1.359517E+0	1.389539E+0	1.371011E+0	1.346417E+0	1.392655E+0	1.391423E+0	1.380273E+0	1.391055E+0	1.448861E+0	1.366567E+0	1.401823E+0	1.385505E+0	1.403946E+0	1.404020E+0	1.383060E+0	1.400222E+0	1.399868E+0	1.367641E+0	1.424638E+0	1.389552E+0	1.360201E+0	1.368239E+0	1.337835E+0	1.342594E+0	1.377236E+0	1.376140E+0	1.374814E+0	1.410286E+0	1.420665E+0	1.404654E+0	1.376241E+0	1.368278E+0	1.380468E+0	1.375923E+0	1.361595E+0	1.375607E+0	1.347547E+0	1.382325E+0	1.345300E+0	1.388215E+0	1.419296E+0	1.384178E+0	1.342989E+0	1.378827E+0	1.377239E+0	1.343937E+0	1.329324E+0	1.364386E+0	1.367227E+0	1.342528E+0	1.342348E+0	1.387160E+0	1.466380E+0	1.339288E+0	1.392081E+0	1.389716E+0	1.359116E+0	1.435069E+0	1.360870E+0	1.407315E+0	1.389085E+0	1.352070E+0	1.461282E+0	1.338321E+0	1.355171E+0	1.371674E+0	1.361666E+0	1.390038E+0	1.370932E+0	1.440160E+0	1.335728E+0	1.387899E+0
5.520210E+2	1.281586E+0	1.219395E+0	1.256908E+0	1.319101E+0	1.257277E+0	1.303243E+0	1.280312E+0	1.286123E+0	1.315702E+0	1.263988E+0	1.306184E+0	1.310198E+0	1.344771E+0	1.334234E+0	1.282951E+0	1.265885E+0	1.311281E+0	1.278978E+0	1.285107E+0	1.312307E+0	1.312080E+0	1.281927E+0	1.264058E+0	1.303849E+0	1.249824E+0	1.335041E+0	1.309181E+0	1.332924E+0	1.304526E+0	1.319600E+0	1.307871E+0	1.313751E+0	1.316105E+0	1.340915E+0	1.264254E+0	1.294218E+0	1.297349E+0	1.286109E+0	1.401289E+0	1.321660E+0	1.328130E+0	1.315453E+0	1.309108E+0	1.266011E+0	1.251635E+0	1.245959E+0	1.308798E+0	1.316798E+0	1.309694E+0	1.259870E+0	1.306058E+0	1.285768E+0	1.279897E+0	1.321807E+0	1.281044E+0	1.265596E+0	1.274943E+0	1.274922E+0	1.268055E+0	1.315555E+0	1.248080E+0	1.250126E+0	1.275850E+0	1.273897E+0	1.293420E+0	1.292333E+0	1.337057E+0	1.332176E+0	1.272000E+0	1.238289E+0	1.263061E+0	1.292076E+0	1.295007E+0	1.283268E+0	1.256930E+0	1.270092E+0	1.282436E+0	1.279912E+0	1.264102E+0	1.309484E+0	1.318021E+0	1.349274E+0	1.267257E+0	1.302724E+0	1.299885E+0	1.266389E+0	1.249423E+0	1.324847E+0	1.279279E+0	1.294298E+0	1.326902E+0	1.288403E+0	1.296745E+0	1.348641E+0	1.275068E+0	1.296882E+0	1.271442E+0	1.324879E+0	1.318631E+0	1.273040E+0	1.317020E+0	1.306687E+0	1.326525E+0	1.281455E+0	1.243739E+0	1.329642E+0	1.327920E+0	1.284798E+0	1.259407E+0	1.265918E+0	1.314352E+0	1.265329E+0	1.238042E+0	1.329302E+0	1.292358E+0	1.259016E+0	1.331478E+0	1.342241E+0	1.277537E+0	1.218036E+0	1.224922E+0	1.336704E+0	1.286865E+0	1.238053E+0	1.256903E+0	1.260668E+0	1.301285E+0	1.279176E+0	1.293431E+0	1.264923E+0	1.236821E+0	1.311252E+0	1.243808E+0	1.302985E+0	1.316485E+0	1.300263E+0	1.297048E+0	1.296528E+0	1.266937E+0	1.261603E+0	1.283961E+0	1.300469E+0	1.268599E+0	1.282761E+0	1.217431E+0	1.306648E+0	1.252376E+0	1.307001E+0	1.280997E+0	1.286119E+0	1.284919E+0	1.275531E+0	1.282580E+0	1.275412E+0	1.271582E+0	1.318161E+0	1.273288E+0	1.306228E+0	1.314756E+0	1.290340E+0	1.324908E+0	1.303403E+0	1.314973E+0	1.298339E+0	1.279880E+0	1.236309E+0	1.277423E+0	1.307839E+0	1.315908E+0	1.312600E+0
5.527590E+2	1.352371E+0	1.301105E+0	1.325066E+0	1.278500E+0	1.270590E+0	1.266932E+0	1.269123E+0	1.325368E+0	1.306096E+0	1.272143E+0	1.315479E+0	1.299551E+0	1.381643E+0	1.285911E+0	1.313815E+0	1.308079E+0	1.323619E+0	1.322795E+0	1.309836E+0	1.261890E+0	1.319859E+0	1.299179E+0	1.329150E+0	1.305409E+0	1.324641E+0	1.343098E+0	1.310660E+0	1.322889E+0	1.302961E+0	1.280153E+0	1.307542E+0	1.288490E+0	1.284029E+0	1.336184E+0	1.310688E+0	1.286317E+0	1.297392E+0	1.287140E+0	1.305272E+0	1.299468E+0	1.286292E+0	1.262158E+0	1.340884E+0	1.339509E+0	1.323460E+0	1.293856E+0	1.344660E+0	1.257374E+0	1.336331E+0	1.318566E+0	1.276086E+0	1.322838E+0	1.328519E+0	1.300252E+0	1.255903E+0	1.332689E+0	1.237735E+0	1.280815E+0	1.347588E+0	1.287345E+0	1.320372E+0	1.357730E+0	1.310097E+0	1.267824E+0	1.317942E+0	1.260319E+0	1.311449E+0	1.249792E+0	1.303809E+0	1.286293E+0	1.257558E+0	1.259274E+0	1.293384E+0	1.309908E+0	1.317327E+0	1.291283E+0	1.305382E+0	1.288472E+0	1.311006E+0	1.328050E+0	1.306668E+0	1.272877E+0	1.295001E+0	1.270520E+0	1.312127E+0	1.273548E+0	1.306020E+0	1.242719E+0	1.293278E+0	1.293371E+0	1.372939E+0	1.301687E+0	1.278282E+0	1.302319E+0	1.344553E+0	1.271570E+0	1.283596E+0	1.308792E+0	1.311611E+0	1.316378E+0	1.322982E+0	1.244106E+0	1.295446E+0	1.292771E+0	1.325956E+0	1.303394E+0	1.347597E+0	1.312760E+0	1.306690E+0	1.293363E+0	1.222353E+0	1.267300E+0	1.281742E+0	1.313669E+0	1.230090E+0	1.286437E+0	1.278951E+0	1.274351E+0	1.274685E+0	1.262602E+0	1.323918E+0	1.295576E+0	1.360247E+0	1.281886E+0	1.330008E+0	1.317446E+0	1.313571E+0	1.308271E+0	1.266648E+0	1.290158E+0	1.300004E+0	1.304597E+0	1.324794E+0	1.279216E+0	1.299077E+0	1.226787E+0	1.304978E+0	1.281079E+0	1.285666E+0	1.274183E+0	1.293906E+0	1.328110E+0	1.327806E+0	1.285785E+0	1.285148E+0	1.251858E+0	1.285292E+0	1.296158E+0	1.277336E+0	1.309302E+0	1.330890E+0	1.331160E+0	1.368916E+0	1.322890E+0	1.300308E+0	1.304495E+0	1.296870E+0	1.297265E+0	1.278216E+0	1.320354E+0	1.325585E+0	1.265457E+0	1.309105E+0	1.265560E+0	1.313135E+0	1.272898E+0	1.264414E+0	1.327229E+0	1.375833E+0	1.321798E+0
5.535220E+2	1.199735E+0	1.205686E+0	1.133112E+0	1.179427E+0	1.255908E+0	1.229240E+0	1.228871E+0	1.249827E+0	1.160849E+0	1.171816E+0	1.228853E+0	1.275917E+0	1.230743E+0	1.254858E+0	1.245294E+0	1.174002E+0	1.197460E+0	1.134699E+0	1.252280E+0	1.178616E+0	1.237810E+0	1.231640E+0	1.270520E+0	1.227269E+0	1.146873E+0	1.221955E+0	1.286620E+0	1.232835E+0	1.196090E+0	1.239429E+0	1.247320E+0	1.159345E+0	1.137517E+0	1.168541E+0	1.205271E+0	1.214442E+0	1.171399E+0	1.210648E+0	1.203049E+0	1.240530E+0	1.231937E+0	1.229756E+0	1.257696E+0	1.206137E+0	1.199189E+0	1.218571E+0	1.235738E+0	1.174712E+0	1.201826E+0	1.226053E+0	1.193014E+0	1.254889E+0	1.212657E+0	1.249564E+0	1.171747E+0	1.182779E+0	1.175368E+0	1.230014E+0	1.197288E+0	1.189515E+0	1.229772E+0	1.240135E+0	1.170655E+0	1.214204E+0	1.205149E+0	1.192860E+0	1.205415E+0	1.172995E+0	1.159941E+0	1.225377E+0	1.200101E+0	1.179971E+0	1.228937E+0	1.221311E+0	1.203819E+0	1.210551E+0	1.141751E+0	1.203075E+0	1.273293E+0	1.194135E+0	1.240372E+0	1.264420E+0	1.276039E+0	1.173987E+0	1.210101E+0	1.183230E+0	1.213406E+0	1.208691E+0	1.183698E+0	1.200426E+0	1.196358E+0	1.200154E+0	1.188662E+0	1.202015E+0	1.208574E+0	1.170023E+0	1.182755E+0	1.165036E+0	1.278344E+0	1.235049E+0	1.207935E+0	1.176347E+0	1.216485E+0	1.236738E+0	1.223297E+0	1.230041E+0	1.241090E+0	1.215557E+0	1.179654E+0	1.194855E+0	1.189090E+0	1.202235E+0	1.167594E+0	1.226312E+0	1.187160E+0	1.161521E+0	1.227414E+0	1.183286E+0	1.208205E+0	1.128532E+0	1.186477E+0	1.187620E+0	1.169032E+0	1.178003E+0	1.187564E+0	1.233580E+0	1.214227E+0	1.243309E+0	1.196377E+0	1.210615E+0	1.253190E+0	1.249488E+0	1.200479E+0	1.142421E+0	1.165548E+0	1.208628E+0	1.177420E+0	1.168254E+0	1.260112E+0	1.146769E+0	1.202411E+0	1.199568E+0	1.248633E+0	1.113289E+0	1.202784E+0	1.165622E+0	1.208692E+0	1.170714E+0	1.223677E+0	1.185014E+0	1.202865E+0	1.188418E+0	1.227932E+0	1.223652E+0	1.191111E+0	1.217470E+0	1.180183E+0	1.177856E+0	1.195573E+0	1.165772E+0	1.246252E+0	1.203495E+0	1.241172E+0	1.216563E+0	1.191779E+0	1.207198E+0	1.243352E+0	1.281836E+0	1.134816E+0	1.266213E+0
5.542580E+2	1.139960E+0	1.138424E+0	1.129411E+0	1.176432E+0	1.197595E+0	1.192611E+0	1.156505E+0	1.155952E+0	1.164315E+0	1.171137E+0	1.161571E+0	1.163130E+0	1.170323E+0	1.154400E+0	1.197618E+0	1.130961E+0	1.225845E+0	1.152558E+0	1.175399E+0	1.125885E+0	1.165208E+0	1.165203E+0	1.197525E+0	1.121042E+0	1.162071E+0	1.123737E+0	1.159001E+0	1.151125E+0	1.188693E+0	1.151541E+0	1.127392E+0	1.134963E+0	1.113822E+0	1.187918E+0	1.089709E+0	1.141196E+0	1.150593E+0	1.148335E+0	1.196886E+0	1.117514E+0	1.149552E+0	1.167045E+0	1.137037E+0	1.184645E+0	1.137646E+0	1.147789E+0	1.168036E+0	1.129870E+0	1.169248E+0	1.143016E+0	1.152587E+0	1.136890E+0	1.175569E+0	1.120285E+0	1.166240E+0	1.157610E+0	1.124970E+0	1.186917E+0	1.112524E+0	1.148430E+0	1.147100E+0	1.171067E+0	1.144401E+0	1.109631E+0	1.145230E+0	1.140141E+0	1.144490E+0	1.112684E+0	1.112681E+0	1.131414E+0	1.120812E+0	1.118827E+0	1.160167E+0	1.169328E+0	1.149986E+0	1.136292E+0	1.157267E+0	1.140650E+0	1.164625E+0	1.139845E+0	1.135385E+0	1.121908E+0	1.123811E+0	1.131614E+0	1.093068E+0	1.137522E+0	1.139752E+0	1.169340E+0	1.118127E+0	1.117045E+0	1.197535E+0	1.164905E+0	1.123264E+0	1.170579E+0	1.194502E+0	1.161647E+0	1.110206E+0	1.105904E+0	1.179774E+0	1.166335E+0	1.148291E+0	1.159147E+0	1.150659E+0	1.132704E+0	1.169935E+0	1.164744E+0	1.122278E+0	1.194840E+0	1.119390E+0	1.115914E+0	1.192824E+0	1.170266E+0	1.128173E+0	1.163253E+0	1.146279E+0	1.093461E+0	1.161448E+0	1.093933E+0	1.210563E+0	1.123966E+0	1.136165E+0	1.125094E+0	1.174822E+0	1.065490E+0	1.124900E+0	1.158518E+0	1.176105E+0	1.159511E+0	1.117965E+0	1.190468E+0	1.107126E+0	1.157389E+0	1.174243E+0	1.164676E+0	1.132279E+0	1.137931E+0	1.162743E+0	1.197724E+0	1.193418E+0	1.190270E+0	1.114665E+0	1.140709E+0	1.137968E+0	1.103422E+0	1.066706E+0	1.158714E+0	1.161949E+0	1.158329E+0	1.106373E+0	1.122207E+0	1.174704E+0	1.132087E+0	1.134034E+0	1.155033E+0	1.117492E+0	1.122689E+0	1.108555E+0	1.152752E+0	1.160962E+0	1.178670E+0	1.168652E+0	1.126104E+0	1.154801E+0	1.137222E+0	1.194923E+0	1.128038E+0	1.195497E+0	1.189671E+0	1.137022E+0	1.083454E+0
5.550140E+2	1.083382E+0	1.041832E+0	1.076332E+0	1.044329E+0	1.043640E+0	1.071054E+0	1.047878E+0	1.058596E+0	1.005641E+0	1.075482E+0	1.068986E+0	1.074296E+0	1.057422E+0	1.041307E+0	1.063352E+0	1.107847E+0	1.046173E+0	1.039163E+0	1.082604E+0	1.054013E+0	1.053343E+0	1.079363E+0	1.080015E+0	1.066631E+0	1.028519E+0	1.078411E+0	1.097398E+0	1.016831E+0	1.064579E+0	1.055229E+0	1.044902E+0	1.036684E+0	1.012275E+0	1.093645E+0	1.066385E+0	1.015736E+0	1.046144E+0	1.070311E+0	1.104016E+0	1.052234E+0	1.108774E+0	1.000446E+0	1.086746E+0	1.047132E+0	1.064415E+0	1.021739E+0	1.066748E+0	1.071260E+0	1.055765E+0	1.074946E+0	1.106914E+0	1.040794E+0	1.076607E+0	1.076628E+0	1.068244E+0	1.031231E+0	1.025950E+0	9.864941E-1	1.048947E+0	1.039893E+0	1.065952E+0	1.049474E+0	1.055661E+0	1.028146E+0	1.049246E+0	1.087948E+0	1.065019E+0	1.074844E+0	1.077207E+0	1.047176E+0	1.021805E+0	1.026464E+0	1.017637E+0	1.038483E+0	1.070466E+0	1.089069E+0	1.068263E+0	1.016208E+0	1.048045E+0	1.050698E+0	1.081647E+0	1.091917E+0	1.051380E+0	1.058682E+0	1.116480E+0	1.046591E+0	1.050114E+0	1.054236E+0	1.051353E+0	1.035761E+0	1.084608E+0	1.074033E+0	1.066142E+0	1.058107E+0	1.075803E+0	1.054775E+0	1.108638E+0	1.067673E+0	1.035350E+0	1.046128E+0	1.121085E+0	1.044433E+0	1.097955E+0	1.061678E+0	1.093115E+0	1.005199E+0	1.048227E+0	1.045109E+0	1.056245E+0	1.035378E+0	1.050381E+0	1.114145E+0	1.010499E+0	1.034425E+0	1.066236E+0	1.063038E+0	1.094163E+0	1.045386E+0	1.052024E+0	1.030888E+0	1.025048E+0	1.044200E+0	1.020424E+0	1.071610E+0	1.091770E+0	1.029584E+0	1.102663E+0	1.078742E+0	1.038033E+0	9.860423E-1	1.035232E+0	1.115172E+0	1.027012E+0	1.058673E+0	1.081570E+0	1.057525E+0	1.036179E+0	1.072365E+0	1.052784E+0	1.046165E+0	1.036321E+0	1.109248E+0	1.064876E+0	1.070755E+0	1.074402E+0	1.062807E+0	1.078131E+0	1.094742E+0	1.074085E+0	1.048125E+0	1.087254E+0	1.050981E+0	9.915854E-1	1.055031E+0	1.045082E+0	1.059257E+0	1.010451E+0	1.010587E+0	1.060968E+0	1.037287E+0	1.037784E+0	1.061388E+0	1.104134E+0	1.052708E+0	1.064750E+0	1.020994E+0	1.084936E+0	1.067904E+0	1.022944E+0	1.131256E+0
5.557600E+2	1.021365E+0	1.022134E+0	1.052841E+0	1.071912E+0	1.021799E+0	1.047492E+0	1.021211E+0	1.052794E+0	1.059796E+0	9.879747E-1	1.013600E+0	9.877184E-1	1.029758E+0	1.071521E+0	1.065639E+0	1.026862E+0	1.021575E+0	1.013048E+0	1.022328E+0	1.049479E+0	1.031128E+0	1.012121E+0	1.017607E+0	1.042962E+0	1.019933E+0	1.011713E+0	1.023024E+0	9.997578E-1	1.041612E+0	9.778219E-1	1.008888E+0	1.046068E+0	9.745629E-1	1.011195E+0	9.755503E-1	9.617248E-1	1.020932E+0	1.006158E+0	1.055011E+0	1.053637E+0	1.042681E+0	1.005256E+0	1.072132E+0	9.811458E-1	1.011255E+0	1.058061E+0	9.909420E-1	9.742757E-1	1.037604E+0	1.003091E+0	1.063936E+0	9.724317E-1	1.040973E+0	1.024820E+0	1.019464E+0	1.013338E+0	1.006101E+0	1.019976E+0	1.003243E+0	1.007437E+0	1.012409E+0	9.982352E-1	1.037268E+0	9.637657E-1	1.009802E+0	9.924485E-1	1.040467E+0	1.004523E+0	9.698842E-1	1.048479E+0	1.018885E+0	1.024588E+0	1.009963E+0	1.013840E+0	1.008048E+0	1.036373E+0	9.717442E-1	1.007178E+0	1.018977E+0	1.007802E+0	1.016585E+0	1.054963E+0	1.049651E+0	1.004556E+0	9.874323E-1	1.029247E+0	1.031884E+0	1.074598E+0	1.018263E+0	1.001417E+0	1.025364E+0	1.045384E+0	1.029773E+0	1.013217E+0	1.019752E+0	1.017450E+0	1.005729E+0	1.022150E+0	9.757215E-1	1.028975E+0	1.031269E+0	1.018184E+0	1.007595E+0	1.059441E+0	9.999386E-1	1.052276E+0	9.981921E-1	9.989750E-1	1.016475E+0	1.042021E+0	1.028073E+0	1.007827E+0	9.920349E-1	1.009952E+0	1.078489E+0	1.018215E+0	1.043444E+0	1.026411E+0	1.038473E+0	1.012190E+0	9.815051E-1	9.758365E-1	1.068570E+0	1.064366E+0	1.041309E+0	1.023460E+0	1.061851E+0	1.009645E+0	1.065779E+0	1.021222E+0	1.076744E+0	1.019904E+0	1.032885E+0	1.009969E+0	1.046087E+0	9.811137E-1	1.005482E+0	1.015334E+0	1.039670E+0	1.042452E+0	1.015120E+0	1.009996E+0	1.000115E+0	1.053019E+0	9.984424E-1	9.867878E-1	1.068960E+0	1.024534E+0	1.016003E+0	9.857160E-1	1.014877E+0	1.022745E+0	1.017813E+0	1.024289E+0	1.014802E+0	9.973268E-1	1.010229E+0	9.885783E-1	1.034383E+0	1.039020E+0	1.064080E+0	1.016948E+0	1.048387E+0	9.831589E-1	1.016399E+0	1.014199E+0	9.910288E-1	1.010966E+0	1.060788E+0	1.059153E+0
5.560130E+2	9.503351E-1	9.504461E-1	9.617815E-1	9.678784E-1	9.952567E-1	9.370104E-1	9.648006E-1	9.637828E-1	9.808173E-1	9.591142E-1	9.821031E-1	9.584118E-1	9.184155E-1	9.676090E-1	9.720548E-1	9.410245E-1	9.098905E-1	9.241510E-1	9.044919E-1	9.350707E-1	9.603499E-1	9.658348E-1	9.476888E-1	9.334788E-1	9.181798E-1	9.675483E-1	9.460450E-1	9.334276E-1	9.137306E-1	9.315718E-1	9.149083E-1	9.506846E-1	9.269550E-1	9.553601E-1	9.347160E-1	9.915213E-1	9.721414E-1	9.258550E-1	9.376012E-1	9.214543E-1	9.494977E-1	9.743982E-1	9.550118E-1	9.413694E-1	9.775006E-1	9.445241E-1	9.515296E-1	9.635324E-1	9.025784E-1	9.593529E-1	9.628168E-1	9.410233E-1	9.307356E-1	9.553936E-1	9.463963E-1	9.416443E-1	9.443673E-1	9.685415E-1	9.237893E-1	8.672532E-1	9.242399E-1	9.492191E-1	9.518933E-1	9.379764E-1	9.821756E-1	9.741943E-1	9.653458E-1	9.395933E-1	9.515335E-1	9.323940E-1	9.582964E-1	9.502924E-1	9.613980E-1	9.537697E-1	9.739330E-1	9.525531E-1	9.290968E-1	9.412751E-1	9.775042E-1	9.331035E-1	9.106797E-1	1.000866E+0	9.372313E-1	9.792238E-1	9.197355E-1	9.270792E-1	9.285237E-1	9.258687E-1	9.792779E-1	9.307357E-1	9.455124E-1	9.482483E-1	9.624521E-1	9.581863E-1	9.626210E-1	9.462357E-1	9.153363E-1	9.534406E-1	9.764124E-1	9.331671E-1	9.648477E-1	9.352766E-1	9.794164E-1	9.327065E-1	9.166685E-1	9.394994E-1	9.767639E-1	9.459089E-1	9.489803E-1	9.548145E-1	9.736507E-1	9.187501E-1	9.786200E-1	9.493717E-1	9.527055E-1	9.575517E-1	9.682752E-1	9.229860E-1	9.621167E-1	9.840514E-1	9.961653E-1	9.704833E-1	9.402455E-1	9.375890E-1	9.312550E-1	9.424691E-1	1.010941E+0	9.614185E-1	8.961271E-1	9.449418E-1	9.578739E-1	9.588181E-1	9.370457E-1	9.410464E-1	9.582107E-1	9.779964E-1	9.340444E-1	9.433624E-1	9.480929E-1	9.537883E-1	9.702136E-1	9.612204E-1	9.521438E-1	9.703825E-1	9.611177E-1	9.493402E-1	9.455163E-1	9.362279E-1	9.925622E-1	9.683879E-1	9.286818E-1	1.002069E+0	9.363689E-1	9.773670E-1	9.749292E-1	9.573681E-1	9.308469E-1	9.526107E-1	9.544821E-1	9.705470E-1	1.000510E+0	9.185046E-1	9.466134E-1	9.438873E-1	9.690719E-1	9.267936E-1	9.403861E-1	9.466578E-1	9.486013E-1	9.184480E-1
5.565090E+2	1.013012E+0	1.000096E+0	9.961764E-1	1.028057E+0	1.001472E+0	9.873143E-1	9.987959E-1	1.000613E+0	1.037680E+0	9.874245E-1	1.010536E+0	9.973481E-1	9.942729E-1	1.014420E+0	1.101306E+0	9.770046E-1	1.006026E+0	1.002347E+0	1.035344E+0	1.066403E+0	9.954467E-1	1.006968E+0	1.022390E+0	1.029767E+0	1.043708E+0	1.003017E+0	1.049595E+0	1.025018E+0	9.976823E-1	1.013902E+0	1.026493E+0	1.001370E+0	1.012722E+0	1.027850E+0	1.029684E+0	9.938537E-1	1.003786E+0	9.760866E-1	1.031439E+0	1.003590E+0	1.017996E+0	9.876838E-1	9.887322E-1	9.807441E-1	1.029805E+0	1.047464E+0	1.023988E+0	9.860258E-1	1.016309E+0	9.955554E-1	1.008822E+0	1.029071E+0	9.855245E-1	1.020306E+0	1.003054E+0	9.783887E-1	1.016785E+0	1.006543E+0	1.038446E+0	1.033091E+0	9.986610E-1	1.039894E+0	1.022686E+0	1.007338E+0	9.992044E-1	9.789271E-1	1.001964E+0	1.013373E+0	1.038195E+0	9.903204E-1	1.005824E+0	9.908141E-1	9.732241E-1	9.756330E-1	9.997963E-1	1.030659E+0	1.008275E+0	1.015800E+0	1.041300E+0	9.653598E-1	9.934490E-1	1.021698E+0	1.003311E+0	9.889651E-1	9.907347E-1	1.029808E+0	1.004029E+0	1.010142E+0	9.983876E-1	1.014815E+0	9.907998E-1	9.911105E-1	1.016115E+0	9.942013E-1	1.018760E+0	1.012236E+0	1.032043E+0	1.045631E+0	1.003080E+0	9.640439E-1	1.026507E+0	1.040119E+0	1.047666E+0	1.024505E+0	1.045810E+0	9.967867E-1	1.028998E+0	1.022038E+0	1.007257E+0	1.024483E+0	1.019559E+0	1.004956E+0	1.027439E+0	9.582568E-1	1.027672E+0	1.007851E+0	9.885419E-1	1.032224E+0	1.056989E+0	1.013951E+0	9.800995E-1	1.038531E+0	9.441809E-1	1.029835E+0	1.008091E+0	1.029531E+0	9.773155E-1	9.957696E-1	1.035992E+0	9.889070E-1	1.027130E+0	1.018035E+0	1.009376E+0	1.019277E+0	9.634743E-1	1.013682E+0	1.005951E+0	1.026366E+0	1.051748E+0	1.006517E+0	1.007338E+0	9.943081E-1	1.052416E+0	1.003389E+0	1.019103E+0	9.941889E-1	1.021300E+0	1.007474E+0	9.935225E-1	1.019631E+0	1.002449E+0	1.037124E+0	9.747586E-1	1.019292E+0	1.003183E+0	9.981928E-1	9.909230E-1	9.985871E-1	1.051106E+0	1.012690E+0	1.005292E+0	1.005623E+0	1.050430E+0	1.003247E+0	1.008833E+0	9.995344E-1	9.968099E-1	1.032195E+0	9.489147E-1	1.050503E+0
5.570270E+2	1.001945E+0	9.852031E-1	1.020360E+0	9.881632E-1	9.700380E-1	9.543368E-1	9.733682E-1	9.870608E-1	1.020810E+0	9.794772E-1	9.690035E-1	9.739887E-1	1.013396E+0	9.983878E-1	9.763198E-1	1.008285E+0	9.756977E-1	1.003527E+0	1.029284E+0	1.024515E+0	9.686381E-1	9.623677E-1	1.030482E+0	9.771426E-1	1.028411E+0	9.891719E-1	1.002109E+0	9.915875E-1	9.777189E-1	9.786235E-1	9.826600E-1	9.782664E-1	1.005076E+0	1.010294E+0	9.969847E-1	9.826370E-1	1.006905E+0	9.966407E-1	9.804087E-1	9.823923E-1	9.854529E-1	9.551639E-1	1.023021E+0	1.001932E+0	9.759391E-1	1.014063E+0	9.593587E-1	9.645892E-1	9.792564E-1	1.054876E+0	9.992438E-1	9.674260E-1	1.017418E+0	9.463470E-1	9.618585E-1	1.000803E+0	9.589249E-1	1.010017E+0	1.007510E+0	9.920715E-1	1.014484E+0	9.560418E-1	1.012334E+0	1.009527E+0	1.007660E+0	9.809413E-1	1.031383E+0	9.750212E-1	1.003997E+0	9.774524E-1	9.973220E-1	9.640716E-1	9.784808E-1	9.802270E-1	9.902264E-1	9.988798E-1	9.948123E-1	9.777497E-1	1.037530E+0	1.005814E+0	9.533537E-1	1.026827E+0	9.799929E-1	9.823471E-1	9.720481E-1	9.841866E-1	1.022603E+0	9.897545E-1	1.005107E+0	9.742033E-1	9.775008E-1	9.664492E-1	1.009691E+0	1.004508E+0	1.007736E+0	9.858154E-1	9.817034E-1	9.602392E-1	1.014789E+0	1.015700E+0	9.558092E-1	9.800382E-1	9.921415E-1	9.943715E-1	1.017446E+0	9.804613E-1	9.927982E-1	9.968054E-1	9.639305E-1	9.859152E-1	1.016773E+0	9.764607E-1	9.805111E-1	9.673351E-1	9.740435E-1	9.656708E-1	9.775472E-1	1.000683E+0	9.852375E-1	9.689241E-1	1.016730E+0	9.617683E-1	1.037937E+0	9.735447E-1	9.802391E-1	1.002048E+0	1.055707E+0	9.672542E-1	9.964116E-1	1.021187E+0	1.011708E+0	1.008150E+0	9.504186E-1	9.537525E-1	9.791946E-1	1.011564E+0	9.860651E-1	9.732044E-1	1.021712E+0	9.983150E-1	9.920503E-1	9.842727E-1	9.823435E-1	1.002603E+0	9.860875E-1	1.018442E+0	1.000719E+0	1.033380E+0	9.949795E-1	9.656401E-1	1.023280E+0	1.000314E+0	9.667645E-1	9.940152E-1	1.009392E+0	1.019739E+0	1.050074E+0	1.003379E+0	1.002533E+0	9.633235E-1	1.014841E+0	1.011246E+0	9.859345E-1	9.999802E-1	9.669570E-1	1.010645E+0	1.041729E+0	9.796412E-1	9.447282E-1	1.015423E+0
5.575470E+2	9.792813E-1	1.030829E+0	1.023645E+0	1.034683E+0	1.002280E+0	1.018608E+0	9.935971E-1	1.044696E+0	9.633475E-1	1.023997E+0	9.873604E-1	1.025167E+0	1.016208E+0	1.015582E+0	1.036256E+0	1.044170E+0	1.030202E+0	1.042976E+0	1.011006E+0	1.047570E+0	1.032804E+0	1.026597E+0	1.073276E+0	1.059567E+0	1.017212E+0	1.021136E+0	1.016065E+0	1.034746E+0	1.045021E+0	1.043794E+0	1.055915E+0	1.046804E+0	1.048835E+0	9.843351E-1	1.026151E+0	1.045397E+0	1.000322E+0	9.990340E-1	1.059823E+0	1.086968E+0	1.037361E+0	1.047635E+0	1.031208E+0	1.062701E+0	1.035961E+0	1.012141E+0	1.059355E+0	1.073829E+0	1.074763E+0	1.039375E+0	9.889431E-1	1.014362E+0	1.052048E+0	1.103413E+0	1.044702E+0	1.025812E+0	1.056835E+0	1.030790E+0	1.025818E+0	1.064834E+0	1.032349E+0	9.880794E-1	1.018428E+0	1.011498E+0	1.026534E+0	1.028185E+0	1.042285E+0	1.028688E+0	1.023340E+0	1.042336E+0	1.006303E+0	1.055301E+0	1.057231E+0	1.018967E+0	1.033755E+0	1.040680E+0	1.076688E+0	1.014665E+0	1.019743E+0	1.055404E+0	1.078845E+0	1.025149E+0	1.047965E+0	1.012963E+0	1.043858E+0	1.055314E+0	1.017721E+0	1.001209E+0	1.058492E+0	1.034066E+0	1.068048E+0	1.026737E+0	1.012938E+0	1.051498E+0	1.074641E+0	1.024840E+0	1.062955E+0	1.018379E+0	1.054163E+0	1.007258E+0	1.029200E+0	1.014541E+0	1.009338E+0	1.059182E+0	1.047287E+0	1.049052E+0	1.041599E+0	1.037577E+0	1.045735E+0	1.051546E+0	1.035323E+0	1.041542E+0	1.030204E+0	1.013441E+0	1.072897E+0	1.048197E+0	1.055310E+0	1.022239E+0	1.029213E+0	1.027599E+0	1.046832E+0	9.995147E-1	1.077576E+0	1.040409E+0	1.016764E+0	1.032504E+0	1.049822E+0	1.032751E+0	1.060063E+0	1.017773E+0	1.023056E+0	1.050345E+0	1.046838E+0	9.713028E-1	1.051216E+0	1.011064E+0	1.031781E+0	1.030026E+0	1.038278E+0	1.038781E+0	9.849672E-1	1.040011E+0	1.040118E+0	1.010255E+0	1.066542E+0	1.046661E+0	1.079625E+0	1.050237E+0	1.036850E+0	9.711688E-1	1.001175E+0	1.070677E+0	1.017322E+0	1.022745E+0	1.025030E+0	1.063714E+0	1.013462E+0	1.029177E+0	1.038427E+0	9.947881E-1	1.024451E+0	1.039987E+0	1.056183E+0	1.039380E+0	1.024109E+0	1.029619E+0	9.919668E-1	1.036582E+0	9.902960E-1	1.029878E+0
5.580110E+2	1.014816E+0	1.020602E+0	9.729546E-1	1.012464E+0	9.971631E-1	1.006906E+0	1.006616E+0	9.902935E-1	1.005731E+0	1.041642E+0	9.954102E-1	1.043925E+0	9.634013E-1	1.001811E+0	1.002455E+0	9.788341E-1	9.946587E-1	1.053834E+0	9.820255E-1	9.707837E-1	1.025420E+0	1.017593E+0	9.719291E-1	1.034162E+0	1.019062E+0	1.033109E+0	1.011798E+0	1.016878E+0	1.007103E+0	1.033664E+0	9.792399E-1	1.012287E+0	1.011108E+0	1.038620E+0	9.791495E-1	9.996184E-1	1.008111E+0	1.038032E+0	1.003304E+0	1.037357E+0	1.010130E+0	9.955638E-1	1.039349E+0	1.017123E+0	1.038874E+0	9.822540E-1	9.737539E-1	9.868647E-1	9.888633E-1	1.024363E+0	1.011617E+0	1.011830E+0	9.827290E-1	9.800768E-1	1.008247E+0	1.030433E+0	9.966062E-1	1.015006E+0	1.003540E+0	9.954876E-1	1.018758E+0	1.034359E+0	9.689635E-1	1.019448E+0	9.790405E-1	1.012371E+0	9.960622E-1	1.019895E+0	9.537689E-1	9.671174E-1	9.885571E-1	1.052055E+0	9.770819E-1	1.016011E+0	1.001022E+0	1.036675E+0	1.002764E+0	1.017892E+0	9.913450E-1	9.970903E-1	1.020944E+0	9.639526E-1	1.003174E+0	9.972531E-1	1.050597E+0	1.020626E+0	1.016580E+0	1.038843E+0	9.986848E-1	1.038132E+0	9.965723E-1	9.594863E-1	9.941470E-1	1.057484E+0	9.586241E-1	1.043608E+0	9.871423E-1	9.991057E-1	9.737091E-1	1.013783E+0	1.002912E+0	1.015275E+0	9.708128E-1	9.755067E-1	1.013744E+0	1.006903E+0	9.701561E-1	1.009881E+0	1.011049E+0	9.965405E-1	9.773859E-1	1.007783E+0	1.035004E+0	9.839186E-1	9.994891E-1	9.905495E-1	1.007616E+0	9.821465E-1	1.006353E+0	1.009380E+0	1.013749E+0	1.015094E+0	1.002526E+0	9.608887E-1	1.051302E+0	9.746189E-1	9.642300E-1	9.901986E-1	9.918099E-1	1.064492E+0	1.040829E+0	9.880638E-1	1.031517E+0	1.005442E+0	1.010956E+0	1.034786E+0	1.037765E+0	1.005035E+0	9.590844E-1	9.862777E-1	9.954126E-1	1.020239E+0	1.030118E+0	9.839898E-1	9.691740E-1	9.911543E-1	1.046631E+0	1.017279E+0	1.003534E+0	1.028445E+0	1.023211E+0	9.889010E-1	9.965011E-1	9.889883E-1	1.060687E+0	9.829561E-1	9.830876E-1	9.995542E-1	1.020289E+0	1.018249E+0	1.017369E+0	1.037537E+0	9.934811E-1	1.003145E+0	1.025072E+0	9.509612E-1	1.019242E+0	9.722199E-1	1.032677E+0	9.670123E-1
5.585100E+2	9.588166E-1	9.696156E-1	9.962884E-1	9.590393E-1	9.607781E-1	9.702199E-1	1.008554E+0	9.913881E-1	9.720266E-1	9.656004E-1	9.617140E-1	9.522790E-1	9.749685E-1	9.674159E-1	9.580771E-1	9.741733E-1	9.614301E-1	9.472876E-1	9.773902E-1	9.811897E-1	1.008849E+0	9.390689E-1	9.191777E-1	9.689477E-1	9.824439E-1	9.943798E-1	9.572824E-1	9.760315E-1	1.015131E+0	9.621404E-1	9.467816E-1	9.829038E-1	9.617383E-1	9.371103E-1	9.601705E-1	9.546116E-1	9.885796E-1	9.590039E-1	9.280814E-1	9.691542E-1	9.819712E-1	9.510440E-1	9.478974E-1	9.629394E-1	1.005684E+0	9.787903E-1	9.875361E-1	9.649581E-1	9.561423E-1	9.991210E-1	9.495472E-1	9.398583E-1	9.587832E-1	9.482268E-1	9.686176E-1	9.385175E-1	9.855595E-1	9.878207E-1	9.505714E-1	9.674807E-1	9.411857E-1	9.823347E-1	1.000012E+0	9.503068E-1	9.965676E-1	9.555604E-1	9.058625E-1	9.574023E-1	1.019042E+0	9.842653E-1	9.601761E-1	9.365849E-1	1.000698E+0	9.757837E-1	9.327996E-1	9.609325E-1	9.452932E-1	9.904316E-1	9.455971E-1	9.815351E-1	9.799769E-1	9.601909E-1	9.685914E-1	9.657933E-1	9.816141E-1	9.344454E-1	9.298050E-1	9.743205E-1	9.356674E-1	9.753693E-1	9.705529E-1	9.921498E-1	9.814354E-1	9.649063E-1	9.431820E-1	9.925648E-1	9.524527E-1	9.440994E-1	9.901709E-1	9.840342E-1	9.638838E-1	9.968728E-1	9.565298E-1	1.007886E+0	9.704647E-1	9.918875E-1	9.468221E-1	9.856445E-1	9.504552E-1	9.482945E-1	9.851338E-1	9.962771E-1	9.872998E-1	1.003859E+0	9.369699E-1	9.771033E-1	9.697732E-1	1.010506E+0	9.840455E-1	9.748763E-1	9.604835E-1	9.945113E-1	9.575531E-1	1.004394E+0	9.593257E-1	9.601970E-1	9.583760E-1	9.500975E-1	9.839652E-1	9.664800E-1	9.525723E-1	9.814648E-1	9.596140E-1	9.693832E-1	9.679194E-1	9.618480E-1	9.730469E-1	9.701439E-1	9.844121E-1	9.954559E-1	1.005616E+0	9.631815E-1	9.274755E-1	1.001092E+0	9.374572E-1	9.770972E-1	9.477666E-1	9.813196E-1	9.571218E-1	9.517213E-1	9.848031E-1	9.049330E-1	1.023817E+0	1.000048E+0	9.681197E-1	9.764189E-1	9.628704E-1	9.605683E-1	9.728290E-1	9.980269E-1	9.264276E-1	1.054168E+0	9.668546E-1	9.718664E-1	9.224725E-1	9.829042E-1	9.662555E-1	9.583108E-1	9.149660E-1	9.744685E-1
5.590040E+2	1.092331E+0	1.052170E+0	1.061142E+0	1.030681E+0	1.044509E+0	1.056282E+0	1.054858E+0	1.021827E+0	1.021606E+0	1.047613E+0	1.045533E+0	1.043944E+0	1.083642E+0	1.020784E+0	9.995574E-1	1.008386E+0	1.043009E+0	1.035557E+0	1.059876E+0	1.001695E+0	1.044917E+0	1.018237E+0	1.030669E+0	1.015980E+0	1.024495E+0	1.039808E+0	1.030049E+0	1.009142E+0	1.012931E+0	1.075993E+0	1.044894E+0	1.027339E+0	1.034358E+0	1.037675E+0	1.058783E+0	1.047659E+0	1.021441E+0	1.044771E+0	1.059537E+0	1.078400E+0	1.015103E+0	1.040866E+0	1.029069E+0	1.060950E+0	1.030730E+0	1.056197E+0	1.042504E+0	1.006299E+0	1.095469E+0	1.016642E+0	9.983465E-1	1.046977E+0	1.042145E+0	1.077889E+0	1.046584E+0	1.020219E+0	1.000893E+0	1.059888E+0	1.033016E+0	1.062129E+0	1.083456E+0	1.049747E+0	1.008299E+0	9.997175E-1	1.008923E+0	1.031682E+0	1.063891E+0	1.033087E+0	1.006431E+0	1.038488E+0	1.049552E+0	1.036998E+0	1.016139E+0	1.044184E+0	1.037110E+0	9.853583E-1	1.020211E+0	1.036108E+0	9.822102E-1	1.059665E+0	1.009662E+0	1.035801E+0	1.054687E+0	1.091312E+0	1.034360E+0	1.002894E+0	1.068921E+0	1.047312E+0	1.048655E+0	1.066138E+0	1.018566E+0	1.031233E+0	1.056573E+0	1.042493E+0	1.051152E+0	1.041410E+0	1.016069E+0	1.022708E+0	1.038601E+0	1.023218E+0	1.042099E+0	1.023427E+0	1.046492E+0	1.038220E+0	1.005695E+0	1.041285E+0	1.076314E+0	1.013207E+0	1.072515E+0	1.005896E+0	1.043190E+0	1.043329E+0	1.007105E+0	1.101375E+0	1.048957E+0	9.958526E-1	1.074306E+0	1.061529E+0	1.064468E+0	1.022924E+0	1.017049E+0	1.043589E+0	1.007963E+0	1.034318E+0	1.043302E+0	1.015700E+0	1.020613E+0	1.077761E+0	1.033328E+0	1.014815E+0	9.766801E-1	1.016539E+0	1.043173E+0	1.041547E+0	9.779028E-1	1.018618E+0	1.013292E+0	1.049764E+0	1.037660E+0	1.031150E+0	1.053970E+0	1.017074E+0	1.022095E+0	1.059217E+0	1.048514E+0	1.080084E+0	1.015013E+0	9.806336E-1	1.057172E+0	1.040426E+0	1.088923E+0	1.035440E+0	1.067600E+0	1.020159E+0	1.006410E+0	1.037983E+0	1.035076E+0	1.043220E+0	1.047197E+0	1.035093E+0	1.004037E+0	9.913051E-1	1.051633E+0	1.039335E+0	1.040179E+0	1.020513E+0	1.051310E+0	1.057719E+0	1.108398E+0	9.593796E-1
5.595110E+2	1.029973E+0	1.070371E+0	1.058736E+0	1.068552E+0	1.069495E+0	1.054916E+0	1.051343E+0	1.070653E+0	1.058993E+0	1.046113E+0	1.058607E+0	1.056850E+0	1.057692E+0	1.018069E+0	1.011365E+0	1.068262E+0	1.051249E+0	1.034389E+0	1.052837E+0	1.034063E+0	1.043273E+0	1.072831E+0	1.034067E+0	1.029470E+0	1.050302E+0	1.032570E+0	1.061250E+0	1.095811E+0	1.039511E+0	1.005573E+0	1.066746E+0	1.078766E+0	1.003809E+0	1.055761E+0	1.074642E+0	1.035412E+0	1.035807E+0	1.071837E+0	1.030158E+0	1.003410E+0	9.779354E-1	1.033266E+0	1.029547E+0	1.013500E+0	1.022153E+0	1.026084E+0	1.032428E+0	1.055249E+0	9.883732E-1	1.063371E+0	1.075373E+0	1.043840E+0	1.041902E+0	1.037686E+0	1.030315E+0	1.041885E+0	1.046010E+0	1.014127E+0	1.056915E+0	1.057035E+0	1.021707E+0	1.038696E+0	1.032495E+0	1.087009E+0	1.027166E+0	1.027977E+0	1.054726E+0	1.049585E+0	1.034352E+0	1.070205E+0	1.038091E+0	1.062900E+0	1.054864E+0	1.045330E+0	1.020148E+0	1.020061E+0	1.065402E+0	1.016675E+0	1.057194E+0	1.040168E+0	1.103363E+0	1.008899E+0	1.086091E+0	1.046488E+0	1.046823E+0	1.090095E+0	1.051087E+0	1.042281E+0	1.027772E+0	1.031176E+0	1.069068E+0	1.046700E+0	1.018172E+0	1.061735E+0	1.012920E+0	1.029111E+0	1.054313E+0	1.046369E+0	1.033881E+0	1.082933E+0	1.052803E+0	1.044323E+0	1.028286E+0	1.038967E+0	1.029412E+0	1.048925E+0	1.014941E+0	1.062142E+0	1.033793E+0	1.081885E+0	1.031446E+0	1.000744E+0	1.042893E+0	1.078441E+0	1.065111E+0	1.017784E+0	1.081552E+0	1.038603E+0	1.008584E+0	1.045154E+0	1.034767E+0	1.075260E+0	1.083587E+0	1.071250E+0	1.014730E+0	1.077033E+0	1.055545E+0	1.045036E+0	1.043362E+0	1.062175E+0	1.018830E+0	1.018225E+0	1.059934E+0	1.074853E+0	1.072376E+0	9.992701E-1	9.948316E-1	1.080592E+0	1.020310E+0	1.038264E+0	1.017479E+0	1.030359E+0	1.012728E+0	1.036671E+0	1.027206E+0	1.040372E+0	1.016262E+0	1.026536E+0	1.068903E+0	1.053216E+0	1.053111E+0	1.030562E+0	1.048683E+0	1.041774E+0	1.027012E+0	1.013347E+0	1.081187E+0	1.034782E+0	1.036381E+0	1.041236E+0	1.064060E+0	1.060077E+0	1.038277E+0	1.055958E+0	1.061724E+0	1.112353E+0	1.042842E+0	1.039182E+0	1.027369E+0	1.092508E+0
5.600300E+2	9.554895E-1	9.133299E-1	9.400268E-1	8.842280E-1	9.668686E-1	9.521550E-1	9.268899E-1	9.171981E-1	9.238252E-1	9.175320E-1	9.578034E-1	9.458987E-1	9.463841E-1	9.607569E-1	9.238273E-1	9.608866E-1	9.718081E-1	9.775805E-1	9.437467E-1	9.420613E-1	9.163920E-1	9.395575E-1	9.563244E-1	9.512034E-1	9.138739E-1	8.906393E-1	9.297859E-1	9.377754E-1	9.337027E-1	9.250300E-1	9.370196E-1	9.360268E-1	9.498071E-1	9.204657E-1	8.945399E-1	9.328377E-1	9.554637E-1	9.281416E-1	9.252234E-1	9.037860E-1	9.876238E-1	9.770276E-1	9.546516E-1	9.197259E-1	9.424818E-1	9.316643E-1	9.427198E-1	9.622516E-1	9.516608E-1	8.973256E-1	9.582043E-1	9.643655E-1	9.379795E-1	9.417746E-1	9.352498E-1	9.491636E-1	9.740733E-1	9.229189E-1	9.361980E-1	9.897461E-1	9.432421E-1	9.247307E-1	9.314866E-1	9.395538E-1	9.284619E-1	9.180464E-1	9.437060E-1	9.644595E-1	9.941462E-1	9.524228E-1	9.748961E-1	9.707321E-1	9.553406E-1	9.163771E-1	9.579299E-1	9.773061E-1	9.460549E-1	9.371634E-1	9.538827E-1	9.351840E-1	9.552491E-1	9.366516E-1	9.481305E-1	9.476927E-1	9.849995E-1	9.412226E-1	9.415970E-1	9.572023E-1	9.029349E-1	9.188227E-1	9.484493E-1	9.536684E-1	9.184960E-1	9.244376E-1	9.283103E-1	9.394090E-1	9.379382E-1	9.599124E-1	9.504096E-1	9.355942E-1	9.468843E-1	9.177227E-1	9.494291E-1	9.313088E-1	9.460554E-1	9.227739E-1	9.018348E-1	9.313245E-1	9.550384E-1	9.747308E-1	9.238966E-1	9.596640E-1	9.031002E-1	9.273258E-1	9.109656E-1	9.451769E-1	8.856098E-1	9.320884E-1	9.398182E-1	9.682134E-1	9.168715E-1	9.522739E-1	9.731979E-1	9.160472E-1	9.593173E-1	9.653201E-1	9.448683E-1	9.625395E-1	9.122497E-1	9.154545E-1	9.564522E-1	9.172692E-1	9.300301E-1	9.754470E-1	9.540641E-1	9.647423E-1	9.227739E-1	9.508536E-1	9.271788E-1	9.038702E-1	8.894871E-1	9.626916E-1	9.488199E-1	9.212855E-1	9.326685E-1	9.332378E-1	9.292595E-1	9.384676E-1	8.860657E-1	9.561813E-1	9.135109E-1	9.216662E-1	9.390792E-1	9.321732E-1	9.142353E-1	9.563866E-1	9.414762E-1	9.489510E-1	8.768147E-1	9.569267E-1	9.410176E-1	8.980745E-1	9.326725E-1	9.317583E-1	9.275627E-1	9.266979E-1	9.266473E-1	9.354558E-1	9.810007E-1	9.545275E-1
5.605090E+2	1.017499E+0	9.763829E-1	9.594214E-1	1.021658E+0	9.957253E-1	1.003944E+0	9.982270E-1	9.950926E-1	9.996182E-1	1.041092E+0	1.016958E+0	9.798872E-1	1.005903E+0	1.002869E+0	9.757601E-1	1.029353E+0	1.052587E+0	9.906268E-1	1.004835E+0	9.748708E-1	9.948843E-1	9.938753E-1	1.004033E+0	1.009503E+0	9.944815E-1	9.813217E-1	9.809248E-1	1.011319E+0	1.015039E+0	1.031481E+0	1.029889E+0	9.954366E-1	9.909267E-1	9.976757E-1	1.022815E+0	9.949570E-1	1.023483E+0	1.013434E+0	1.009757E+0	1.009435E+0	9.889251E-1	9.924631E-1	9.751614E-1	1.028389E+0	9.629293E-1	9.924581E-1	1.017985E+0	1.001742E+0	9.979081E-1	9.687639E-1	1.008814E+0	9.962864E-1	1.009473E+0	9.907610E-1	9.980626E-1	1.043773E+0	9.768834E-1	1.002490E+0	1.008795E+0	9.980814E-1	9.966185E-1	1.009285E+0	1.013723E+0	1.008352E+0	9.854784E-1	1.063486E+0	9.759793E-1	1.034557E+0	9.827235E-1	9.886867E-1	9.991684E-1	1.002941E+0	9.944171E-1	1.050884E+0	1.010312E+0	9.903302E-1	9.875587E-1	1.009223E+0	9.686748E-1	1.027159E+0	9.590421E-1	1.022594E+0	9.295762E-1	9.950086E-1	9.929042E-1	1.023305E+0	1.001856E+0	9.789854E-1	1.003712E+0	9.906907E-1	1.022212E+0	1.056347E+0	1.000737E+0	9.493292E-1	9.760347E-1	9.492328E-1	9.992918E-1	9.950913E-1	9.632845E-1	9.986826E-1	1.005633E+0	1.007542E+0	1.009422E+0	9.735290E-1	1.017840E+0	9.848444E-1	1.000932E+0	9.816200E-1	1.021436E+0	9.722091E-1	9.845041E-1	1.030262E+0	1.005788E+0	9.808783E-1	9.760810E-1	1.024202E+0	9.958407E-1	1.033768E+0	1.003536E+0	9.638149E-1	9.888354E-1	9.456957E-1	9.870917E-1	9.781782E-1	1.010303E+0	9.837648E-1	9.967042E-1	1.005432E+0	1.000336E+0	9.811751E-1	1.048867E+0	1.017564E+0	1.023984E+0	1.025012E+0	1.010586E+0	9.539998E-1	1.032775E+0	9.458658E-1	9.866996E-1	1.029679E+0	1.027577E+0	1.001864E+0	1.030175E+0	9.923315E-1	1.016508E+0	9.790369E-1	9.923364E-1	1.025789E+0	1.000925E+0	1.035607E+0	9.646897E-1	1.000825E+0	1.011693E+0	9.797185E-1	1.012394E+0	9.706536E-1	9.932704E-1	1.024032E+0	9.795551E-1	1.019106E+0	1.007213E+0	1.022460E+0	9.810273E-1	1.016552E+0	1.015518E+0	1.001062E+0	1.004372E+0	1.003653E+0	1.043424E+0	9.710220E-1
5.610070E+2	9.865006E-1	1.030954E+0	1.009468E+0	1.004596E+0	9.964138E-1	1.058307E+0	1.022950E+0	1.017394E+0	1.015545E+0	9.903951E-1	1.014971E+0	1.022301E+0	1.025717E+0	1.032294E+0	1.043020E+0	1.009622E+0	1.003441E+0	9.877237E-1	9.991641E-1	1.021778E+0	1.009026E+0	1.057071E+0	1.009963E+0	9.907784E-1	1.007832E+0	1.047298E+0	1.015096E+0	9.682632E-1	1.042429E+0	9.982268E-1	1.015453E+0	9.901148E-1	1.054666E+0	1.034854E+0	1.022365E+0	1.021496E+0	9.839601E-1	1.047164E+0	1.034667E+0	1.004053E+0	1.048004E+0	1.044889E+0	1.026352E+0	1.010626E+0	9.779422E-1	1.014360E+0	1.008842E+0	1.034660E+0	1.048676E+0	9.812541E-1	1.038271E+0	1.044960E+0	1.041262E+0	9.981259E-1	1.056913E+0	1.029361E+0	1.043063E+0	9.818572E-1	1.015402E+0	9.727905E-1	1.025300E+0	1.027613E+0	1.039677E+0	1.029274E+0	1.058789E+0	1.028629E+0	1.018796E+0	9.843388E-1	9.924716E-1	1.056312E+0	1.021814E+0	9.773093E-1	1.031126E+0	1.022833E+0	1.042967E+0	1.006565E+0	1.023844E+0	1.043018E+0	1.025019E+0	9.995171E-1	1.035436E+0	9.973713E-1	1.041250E+0	9.929535E-1	9.823259E-1	9.910234E-1	1.017276E+0	1.034081E+0	1.041309E+0	1.025851E+0	9.927184E-1	1.027871E+0	1.029244E+0	9.912222E-1	1.066018E+0	1.035538E+0	1.060756E+0	1.055025E+0	1.001499E+0	1.041586E+0	1.009421E+0	1.024863E+0	1.010467E+0	1.023817E+0	9.895780E-1	1.037581E+0	1.048841E+0	1.013852E+0	9.898105E-1	1.003685E+0	1.009137E+0	1.020233E+0	1.002036E+0	1.035798E+0	1.035109E+0	1.070061E+0	9.956280E-1	9.632266E-1	9.596402E-1	1.021112E+0	1.028418E+0	1.003279E+0	9.881420E-1	1.053547E+0	1.025370E+0	1.016813E+0	9.658772E-1	1.011742E+0	1.046356E+0	1.022600E+0	9.860009E-1	1.025526E+0	1.008069E+0	1.022936E+0	1.054100E+0	1.052429E+0	1.067674E+0	1.024787E+0	1.024825E+0	1.017901E+0	1.055890E+0	1.024778E+0	1.001567E+0	1.018783E+0	1.035622E+0	9.903853E-1	1.005571E+0	1.002655E+0	1.008364E+0	1.009575E+0	1.016165E+0	1.007489E+0	1.017412E+0	1.023720E+0	9.986074E-1	1.023241E+0	1.017726E+0	1.005139E+0	1.020385E+0	9.900134E-1	9.947816E-1	9.610176E-1	9.968929E-1	9.948917E-1	1.038501E+0	1.038916E+0	1.018439E+0	1.038382E+0	1.059625E+0	1.066830E+0
