Photon Energy (eV)	#1	#2	#3	#4	#5	#6	#7	#8	#9	#10	#11	#12	#13	#14	#15	#16	#17	#18	#19	#20	#21	#22	#23	#24	#25	#26	#27	#28	#29	#30	#31	#32	#33	#34	#35	#36	#37	#38	#39	#40	#41	#42	#43	#44	#45	#46	#47	#48	#49	#50	#51	#52	#53	#54	#55	#56	#57	#58	#59	#60	#61	#62	#63	#64	#65	#66	#67	#68	#69	#70	#71	#72	#73	#74	#75	#76	#77	#78	#79	#80	#81	#82	#83	#84	#85	#86	#87	#88	#89	#90	#91	#92	#93	#94	#95	#96	#97	#98	#99	#100	#101	#102	#103	#104	#105	#106	#107	#108	#109	#110	#111	#112	#113	#114	#115	#116	#117	#118	#119	#120	#121	#122	#123	#124	#125	#126	#127	#128	#129	#130	#131	#132	#133	#134	#135	#136	#137	#138	#139	#140	#141	#142	#143	#144	#145	#146	#147	#148	#149	#150	#151	#152	#153	#154	#155	#156	#157	#158	#159	#160	#161	#162	#163	#164	#165	#166	#167	#168	#169	#170	#171	#172	
2.790010E+2	-9.587496E-4	-1.114798E-2	-6.509899E-3	-8.124992E-3	4.955796E-3	-7.124259E-3	-3.784512E-3	-4.692947E-3	-6.081617E-5	-8.214741E-3	-2.227146E-3	-4.882410E-3	-8.123921E-3	-8.481058E-3	-5.820030E-3	-3.016063E-3	-8.417222E-3	2.735984E-3	-7.563509E-3	-2.208283E-3	-2.796115E-3	-1.239142E-2	-6.017195E-3	-1.195313E-3	-9.777028E-3	-6.693738E-3	-3.820721E-3	-3.118791E-4	-4.210560E-3	-4.599509E-3	-1.119909E-3	-1.579155E-3	-5.268530E-4	-6.031499E-3	-1.187824E-2	-1.463884E-3	-7.580301E-3	1.185600E-3	4.866085E-3	-3.861355E-3	-2.223279E-3	-6.533457E-3	-2.892646E-3	-2.688115E-3	-9.759716E-3	2.787604E-3	-1.035303E-2	-2.620507E-3	-2.191521E-3	-3.822718E-3	-5.088546E-3	-3.268587E-3	-1.284684E-2	-8.786497E-3	-7.956652E-3	4.548844E-3	-1.811632E-2	-4.313584E-3	-1.104680E-3	-8.459268E-3	4.141284E-3	-1.199275E-2	-6.936382E-3	-6.458207E-3	-5.621606E-3	1.316209E-3	-1.414319E-3	-1.951430E-3	-1.876355E-3	-2.431853E-3	-1.325551E-2	-2.239993E-3	-3.302619E-3	-1.877870E-2	-1.211219E-2	-1.369042E-2	-6.412409E-3	-6.449938E-3	-6.182854E-3	-3.702989E-3	-5.482489E-3	-7.629166E-3	7.388201E-3	-6.583259E-3	-1.046372E-2	5.462081E-3	-8.073943E-3	5.435461E-3	3.548713E-3	-1.019623E-2	5.244583E-3	1.965077E-3	-7.292480E-3	-8.903500E-3	-5.607479E-4	-1.092329E-2	-1.257421E-2	-3.809949E-3	-4.121114E-3	-4.196943E-3	-8.934770E-4	-2.052383E-3	-6.389764E-3	-1.066599E-2	-8.834563E-3	-7.349198E-3	-1.406361E-3	7.959866E-3	-1.019518E-2	1.517122E-3	-9.641881E-3	-9.396280E-3	2.521174E-3	-2.336719E-4	2.086960E-3	-6.367249E-3	-9.002604E-3	2.753227E-3	-8.526999E-3	1.766942E-3	-9.656237E-3	-3.464137E-3	7.095206E-3	6.626938E-3	9.741148E-5	-1.856009E-3	-3.707517E-3	-8.188060E-3	-3.905189E-3	6.853269E-3	2.896881E-3	-9.477756E-3	-1.985944E-3	3.067067E-3	-1.203302E-2	-3.822109E-6	-2.343833E-3	9.041964E-3	-7.285821E-3	4.162816E-3	-2.156219E-3	-9.229900E-3	-7.119905E-4	-7.329929E-3	-1.160952E-2	-7.276076E-3	-9.759296E-3	1.334008E-3	-7.576507E-3	-9.866407E-4	-8.497940E-3	3.092517E-3	-8.522062E-3	-3.805120E-3	-1.076357E-2	-9.286439E-3	-6.574365E-4	-1.769163E-3	-6.460235E-3	5.839317E-3	1.230148E-2	-3.933537E-3	-1.731942E-3	-8.752349E-3	-1.479816E-3	-4.834670E-3	-3.666778E-3	1.329505E-3	-1.307988E-2	6.898838E-3	-1.086882E-3	-1.600224E-3
2.795050E+2	-8.020203E-3	-3.156196E-4	-7.509340E-3	2.601305E-3	-1.028246E-2	-1.612598E-3	-6.734225E-3	1.914946E-3	-1.010404E-3	-1.170646E-2	6.069072E-3	-7.847134E-4	-8.137329E-3	3.274106E-3	-5.109236E-3	-1.539814E-3	5.372813E-3	-8.481598E-3	-8.440628E-3	-1.280039E-2	-2.804145E-3	1.111942E-3	1.140768E-4	1.380084E-4	-6.325545E-3	4.205715E-4	-3.835284E-3	-5.755659E-3	-5.071063E-3	-4.616108E-3	-1.017516E-2	-4.490232E-3	-6.916436E-3	-3.745648E-4	-9.469538E-3	2.214545E-4	6.788584E-3	-3.012347E-3	-2.269755E-3	-1.016860E-4	-4.713625E-3	-1.124860E-2	4.741662E-3	1.017060E-2	-9.712530E-3	-7.802121E-3	1.421006E-4	-3.949349E-3	4.149915E-3	-1.408700E-3	3.798707E-3	-6.594858E-3	-6.120914E-3	3.491385E-4	-2.706072E-3	-1.146926E-2	-2.714473E-3	-5.079443E-3	-6.257862E-3	-2.697895E-3	8.085617E-4	1.445479E-3	-1.157902E-2	-8.287069E-3	-1.010934E-2	-1.624584E-2	-1.087967E-2	-9.167159E-3	-1.498794E-2	-2.406444E-3	-3.766961E-3	3.402257E-3	-1.170487E-2	-9.307663E-3	-1.208346E-2	1.810077E-3	-1.303340E-2	-8.025064E-3	-1.108141E-2	-1.025942E-2	-7.315976E-3	-9.369624E-3	5.426791E-3	3.673631E-3	-7.363026E-3	-5.275099E-3	-1.579450E-3	-4.573722E-3	-3.744006E-3	-3.941952E-3	-2.678705E-4	-2.191024E-2	-6.396913E-3	5.614731E-4	-1.212686E-2	1.561622E-3	-2.724217E-3	9.865641E-3	-4.866378E-3	7.609958E-4	-6.966656E-3	-2.768674E-3	-2.699152E-3	-9.686031E-3	-8.812550E-3	-7.317853E-3	-5.697732E-3	-4.608787E-4	-7.830945E-4	-5.216003E-3	4.558042E-3	3.480690E-3	2.446592E-3	3.326259E-3	-9.518735E-3	2.182353E-3	-1.731929E-2	-1.162775E-2	-1.789624E-2	1.724689E-3	8.118293E-3	-6.754088E-3	7.868128E-3	-7.628797E-3	7.127231E-3	2.873406E-3	-5.441891E-3	-8.205252E-3	-1.025317E-2	-9.479856E-3	-6.746487E-3	-7.756198E-4	6.623968E-3	-6.158750E-3	-6.995547E-3	-9.408700E-4	-7.908729E-3	-4.824258E-3	-7.300042E-3	6.113950E-3	-7.981151E-3	-8.418445E-3	8.701782E-4	-1.142194E-2	-5.537383E-3	-8.110581E-4	7.650319E-4	-1.014188E-2	-4.385201E-3	-4.208542E-3	-1.161944E-2	-1.841540E-2	1.513879E-2	3.111571E-4	5.441421E-3	-1.674115E-3	-3.387862E-3	-1.129880E-4	-1.237079E-4	-3.100486E-3	-1.383207E-3	-2.271112E-3	-1.264926E-2	-5.982230E-3	-5.429375E-3	-3.312134E-3	-4.459344E-3	-1.043798E-2	-7.593243E-3	-4.612572E-3	-4.902141E-3	-2.285806E-2
2.800020E+2	-2.262214E-3	2.177304E-4	-3.914552E-3	1.467420E-3	3.733350E-3	-5.036935E-3	-4.772669E-3	-1.006810E-2	-5.874441E-3	-3.302474E-3	-2.497060E-3	-8.426375E-3	-6.100535E-3	-3.271202E-3	-1.540517E-2	-8.436170E-3	2.480112E-3	7.549761E-3	-4.399668E-3	1.550714E-3	-5.898367E-3	8.343298E-4	-9.411980E-4	-2.091250E-3	-1.393783E-3	-1.431770E-3	-1.115592E-2	-1.342845E-3	-2.795039E-4	-5.670575E-3	-5.888982E-3	-9.779671E-3	5.827131E-5	-3.482084E-3	-4.070675E-3	5.624957E-3	-4.929686E-3	-1.090052E-2	-5.372678E-3	-6.507386E-3	-1.266537E-2	4.187230E-3	-1.494492E-2	-1.304977E-2	-1.127522E-3	-6.505511E-3	-1.137303E-2	-4.214989E-3	-5.148368E-3	2.334919E-3	-5.316367E-3	-9.440574E-3	2.683527E-3	-1.294136E-3	-5.925216E-3	-1.453905E-2	-1.201251E-2	-6.126751E-3	-3.901302E-3	-3.811433E-3	-9.638588E-3	9.004582E-3	1.425451E-3	-6.144832E-3	4.232889E-3	-1.294669E-2	-1.022889E-2	-3.976226E-4	1.056968E-3	-1.483776E-2	-7.342529E-3	-6.867014E-3	-1.524654E-3	-7.952854E-3	-2.963163E-3	8.077586E-3	-4.752460E-3	-1.613766E-2	-3.114777E-3	-1.049666E-2	-1.871586E-3	-8.831705E-4	-6.715528E-3	-7.014733E-4	-7.531168E-3	1.377243E-3	-3.967589E-3	-6.317111E-3	-8.220346E-3	-4.104757E-3	-3.630215E-3	-8.977423E-3	-4.640656E-3	-4.771956E-3	-2.988862E-3	-8.691067E-3	6.503643E-4	-9.340398E-3	-1.849336E-2	-7.527777E-3	-9.767743E-4	-5.256806E-3	2.868248E-3	-6.393777E-3	-1.423984E-2	-1.351179E-2	2.761535E-3	-1.707248E-2	-3.460880E-3	-6.318652E-3	-9.859186E-3	-4.348608E-3	-7.384217E-3	-1.323103E-2	-3.011645E-3	-9.522344E-4	-2.729475E-3	-7.314575E-3	-1.217900E-3	-6.735236E-3	-6.978659E-3	-2.924076E-3	-1.504239E-2	2.451722E-3	-1.340023E-2	4.930305E-3	1.102384E-3	-3.802725E-3	-6.845933E-3	-1.060325E-2	-6.977556E-3	1.808471E-3	-4.605955E-3	-1.824973E-3	-5.797679E-3	-5.725696E-3	-6.312607E-3	-6.785240E-3	1.607124E-3	-1.692482E-2	-7.384472E-3	1.202705E-3	-3.559310E-3	6.149495E-3	2.853606E-3	-7.598256E-3	-1.441516E-2	-8.434121E-3	-1.498375E-2	-4.470547E-3	-7.194907E-3	9.501189E-4	2.067823E-3	-1.600716E-3	-1.183309E-2	-3.845831E-3	-4.535790E-3	-3.845428E-4	-4.341816E-3	-1.222458E-2	-2.628179E-3	-5.032621E-3	-1.286261E-2	-1.088002E-2	-8.022426E-3	-3.552216E-3	-4.726086E-3	4.616392E-3	3.090635E-3	-6.293505E-3	-7.033472E-3	-1.452755E-2
2.805050E+2	-3.478628E-3	1.614525E-3	-5.107663E-3	-1.103534E-2	-9.069651E-3	-1.619046E-2	-1.150209E-2	-1.025472E-2	-6.085879E-3	-4.392118E-3	-1.316725E-2	-1.025094E-2	-7.048505E-3	-1.124687E-2	-9.142340E-3	-8.601562E-3	-9.712954E-3	-5.472186E-3	6.424299E-3	-1.075138E-2	1.773747E-3	-4.595335E-3	-1.256949E-2	-6.895749E-3	-7.686452E-4	-2.444652E-3	-2.718818E-3	-1.549393E-3	-3.020303E-3	4.029752E-3	-3.104299E-3	-5.645833E-3	6.092343E-3	2.834557E-3	-1.888094E-3	-9.978374E-3	-7.970477E-3	-6.902291E-3	-7.695325E-3	-4.656407E-3	-1.780183E-3	-5.387699E-3	-4.211054E-3	-1.319522E-2	-1.248652E-2	-5.938585E-3	2.005119E-3	-5.960481E-3	-4.475731E-3	-1.306333E-2	7.963237E-5	-1.135594E-2	-1.810424E-2	-1.084220E-4	5.317708E-4	8.900541E-3	-5.240361E-3	-3.932193E-3	-6.690848E-3	-4.873578E-3	1.184883E-3	-1.234378E-2	-4.988940E-3	-8.696568E-3	-5.141909E-3	-1.746961E-2	-1.891074E-3	5.103596E-3	-8.392330E-3	-3.506992E-3	-1.490521E-3	-2.404885E-3	-9.344686E-4	-8.154184E-3	-9.311666E-3	-1.747125E-3	-2.451801E-3	-2.113446E-3	-6.583028E-3	-2.230462E-3	1.630855E-3	-3.707010E-3	-1.379980E-2	-3.574504E-3	5.968806E-3	-1.255401E-2	8.230642E-5	-5.047023E-3	-1.023585E-2	-6.131515E-3	-6.981172E-3	-4.906887E-3	-4.049096E-3	-1.614952E-3	-8.566472E-3	-3.731178E-3	-4.016278E-3	-5.059456E-3	-2.803047E-3	-5.723840E-3	-3.680708E-4	3.641823E-3	-3.150699E-3	-2.315631E-3	-3.321864E-3	1.826127E-3	-5.173609E-3	-1.441037E-3	-8.626534E-3	3.471368E-3	-6.694253E-3	-3.825675E-3	-9.420968E-3	-9.809473E-3	-7.947537E-3	-1.837794E-4	1.252290E-3	-9.722669E-3	-8.980908E-3	-1.065547E-2	-2.102770E-3	-2.002716E-2	-1.033328E-2	-1.037041E-2	-3.749015E-3	-2.370155E-3	-4.163273E-3	-1.453168E-2	-6.059476E-3	-3.621669E-3	1.179028E-2	-1.109907E-2	-4.801390E-3	-2.799316E-3	-3.136258E-3	-6.618185E-3	-1.014022E-2	1.353361E-2	3.024946E-3	-6.007625E-3	-9.944143E-4	-1.729352E-3	-7.946198E-3	-9.681902E-3	-1.202796E-2	-9.647996E-3	-6.741432E-3	-1.236959E-2	-4.851634E-5	-1.258479E-2	-8.160048E-3	6.870935E-3	-1.710129E-2	-9.163760E-3	-2.728090E-3	-6.901758E-3	-1.188316E-2	-1.054063E-2	-6.907521E-3	-1.800707E-2	-9.589415E-3	-6.054286E-3	-1.055211E-2	7.327821E-3	5.037969E-3	1.544639E-3	-4.172053E-3	-6.366108E-3	-1.781936E-2	-1.360105E-2	4.053691E-3	-1.047289E-2
2.810050E+2	-1.044601E-2	-1.076745E-2	-1.852966E-2	-4.251703E-4	-5.746066E-3	-4.485576E-3	-6.309510E-4	1.008550E-2	1.188318E-3	1.586424E-3	-4.213678E-3	-1.313919E-3	-2.573585E-3	-1.358284E-2	-2.013350E-3	8.299886E-3	-1.228169E-2	-7.184682E-3	-1.228319E-3	-7.545537E-3	-6.071094E-3	-8.311551E-3	-4.233548E-3	-8.210090E-3	-1.191084E-2	6.148218E-3	-4.295440E-3	-3.094352E-3	-5.541719E-3	-9.166141E-3	4.332110E-3	-4.933573E-3	9.658698E-3	-5.599205E-3	-9.866966E-3	1.312628E-3	-2.303490E-3	1.443571E-5	-5.581405E-3	-5.338106E-3	-3.502898E-3	-7.396368E-4	-2.554903E-3	-5.350483E-3	4.988465E-3	-6.697287E-3	2.785649E-3	-5.211577E-3	-3.604009E-3	-6.701011E-3	-4.725953E-3	-1.817096E-3	4.840944E-3	6.124753E-3	-3.171891E-3	1.028207E-3	-3.282290E-3	-7.938551E-3	-1.185845E-2	-4.055567E-3	-3.427472E-3	8.696951E-3	-3.725397E-4	-6.361024E-3	-7.891869E-3	-1.425189E-4	1.492309E-3	-3.903209E-3	2.835771E-5	-1.495960E-3	1.175116E-3	-8.708085E-4	-1.118297E-2	1.361664E-2	3.741173E-3	1.691394E-3	-6.643684E-3	1.010832E-3	3.130318E-3	8.225784E-4	-3.066076E-3	2.312227E-3	-4.057106E-3	-7.124849E-3	-3.954961E-3	-1.713198E-2	-6.453156E-4	-2.844426E-3	-1.391023E-2	-1.232171E-2	-4.653179E-3	-7.064381E-4	-1.696688E-2	-6.800771E-3	-9.817613E-4	-2.292888E-3	-5.846674E-3	-6.922876E-3	-7.034995E-3	1.015709E-2	-2.012422E-3	-9.168217E-4	-8.957670E-4	-5.278796E-3	3.846418E-3	1.712665E-3	-4.402565E-3	-1.513361E-3	-6.913581E-3	-4.837629E-3	2.479922E-3	-8.270158E-3	-1.031125E-2	-5.267181E-3	5.382633E-3	-1.484892E-2	-4.367031E-3	6.005175E-3	-5.601779E-3	-7.562668E-4	-5.826239E-3	1.632023E-4	-3.073498E-3	-9.367262E-3	-1.245197E-2	-9.409346E-3	-7.576673E-4	-8.357581E-3	-6.034443E-3	-3.405146E-5	5.020948E-3	3.692566E-3	-1.094637E-2	-1.111597E-2	2.614040E-3	-2.829462E-3	6.858087E-3	-1.778439E-3	-3.505787E-3	-3.329147E-3	-3.113311E-3	-8.241818E-4	-8.670126E-3	-6.887279E-3	3.672568E-3	5.769090E-4	-3.167395E-3	1.981601E-3	-3.164935E-3	2.453779E-3	-8.134718E-3	-5.269797E-3	-1.640650E-3	-8.326836E-3	-5.227527E-3	-2.596950E-3	-4.656013E-3	-3.086607E-3	-3.755190E-3	-8.276532E-3	-3.772874E-3	-1.057874E-3	4.377994E-3	-7.434545E-3	-1.953511E-3	-4.491606E-3	-4.935203E-3	-9.048458E-3	2.836111E-3	3.439883E-3	5.934888E-3	-6.291629E-3
2.815000E+2	4.481812E-3	3.329518E-3	-1.236974E-3	-3.541045E-4	1.705355E-4	4.962636E-3	2.346245E-3	-5.103183E-3	-2.398846E-3	-7.780605E-3	2.584347E-3	6.089971E-3	1.022909E-2	5.875458E-3	1.640331E-3	2.494408E-3	3.987096E-3	-5.434358E-3	-3.153203E-4	-5.875574E-3	-3.153873E-3	9.583948E-3	-1.121884E-3	-2.203734E-3	1.847605E-3	4.661021E-3	7.514260E-3	1.578005E-3	-2.139176E-3	4.906952E-3	-1.553797E-3	1.667349E-4	-6.450168E-3	4.749574E-3	2.158857E-3	-1.847481E-3	-1.514673E-3	2.172068E-3	1.005955E-2	6.309387E-3	1.273369E-2	-1.312245E-2	-3.329557E-3	9.998216E-4	1.084658E-3	-6.639992E-3	-2.727883E-3	4.010622E-3	-3.544420E-3	-2.545292E-4	3.327709E-3	6.945771E-3	5.752109E-3	-5.598385E-3	6.521324E-3	-7.478361E-3	6.736339E-3	8.906176E-3	2.273755E-4	4.376164E-3	3.979655E-3	-4.492550E-3	4.341138E-3	-4.727073E-3	2.158158E-3	-9.390218E-4	1.564290E-3	2.700793E-3	7.789687E-3	6.689738E-3	-4.770464E-3	-2.346648E-3	8.223817E-4	5.920129E-3	7.373429E-4	-8.638212E-3	1.761514E-2	-5.220913E-3	2.401307E-3	2.447213E-3	2.587999E-3	6.705828E-3	2.854043E-3	1.748104E-3	2.983584E-3	6.522345E-3	8.659255E-4	-2.763018E-3	1.656718E-3	6.221448E-3	1.688836E-3	1.648184E-2	1.228444E-2	8.448390E-3	3.684164E-3	-2.961194E-3	-8.456882E-3	9.169469E-3	9.625319E-3	2.221381E-3	-1.186577E-2	8.240329E-3	1.352913E-3	7.046573E-4	-6.962791E-3	-9.384225E-3	-2.621244E-3	2.439884E-3	7.604843E-3	-2.250312E-3	2.592179E-3	6.734448E-3	3.195105E-3	1.174668E-3	-4.000335E-3	4.078796E-3	9.701085E-3	-6.373286E-4	5.418900E-3	4.406041E-3	7.806584E-4	2.668174E-3	3.448190E-3	8.188370E-3	2.580961E-3	-2.262984E-3	1.708282E-4	7.775403E-3	1.196392E-2	-6.229416E-3	-2.646005E-3	2.874019E-3	-9.318477E-3	-3.448088E-3	2.004410E-3	-2.021801E-3	8.796143E-3	-1.027837E-2	-4.258408E-3	8.618839E-3	-2.207507E-3	-2.473434E-3	-4.388393E-3	-2.364192E-3	2.900807E-3	1.626407E-3	-4.808288E-3	-3.974766E-3	8.969622E-3	-9.322548E-3	1.279316E-2	-7.689955E-3	-1.245854E-3	-3.318372E-3	4.205555E-3	-3.220467E-3	2.788156E-3	1.977130E-3	-3.648351E-3	3.420352E-3	-9.435576E-3	-1.420423E-4	1.445564E-2	6.609331E-3	6.099522E-4	4.695948E-3	1.406778E-3	-2.082723E-3	7.694807E-3	-2.119151E-3	4.415645E-4	1.019555E-2
2.820040E+2	4.735705E-3	-6.049115E-4	9.549210E-3	-8.370455E-3	1.049950E-2	9.902477E-3	4.016903E-3	3.864186E-3	5.589116E-4	1.008831E-3	4.302407E-3	7.964981E-3	-1.429646E-5	2.208568E-3	4.345771E-4	2.693153E-3	9.393470E-3	1.182346E-2	7.290478E-4	9.664203E-3	7.080315E-3	1.249037E-4	2.143291E-3	-2.279790E-5	1.324845E-2	-1.413872E-3	4.600415E-3	-5.385608E-4	6.452955E-3	-2.344198E-3	9.135960E-3	8.316530E-3	-5.377572E-3	-2.556256E-3	4.774943E-3	-7.341683E-3	2.973570E-3	-1.101164E-3	-6.731398E-3	-5.752863E-3	6.148042E-3	8.127289E-3	-6.138993E-4	7.514079E-3	-3.107192E-4	1.081470E-2	2.283849E-3	1.114153E-2	-1.564051E-3	1.549410E-3	-1.285944E-3	2.803617E-3	2.704943E-3	1.554775E-3	-6.615717E-3	-1.079375E-4	5.970456E-3	-4.504576E-3	-3.895942E-3	1.048837E-2	-5.038877E-3	-1.951861E-3	4.560898E-3	1.200923E-2	-4.905364E-3	9.733877E-3	6.233088E-5	1.261330E-3	5.733425E-3	4.212882E-3	-4.594732E-3	5.677044E-3	1.942628E-4	6.738618E-4	1.098278E-2	9.816963E-3	-7.267919E-3	1.076822E-2	4.252373E-3	1.273601E-2	8.409745E-3	-4.366599E-3	-8.707707E-3	1.063249E-3	-7.506152E-3	-7.774239E-3	4.672950E-3	-3.209619E-4	1.653047E-2	1.706319E-2	1.901286E-3	-1.317846E-3	1.081538E-2	5.300960E-3	8.071659E-4	1.204623E-2	6.671818E-3	7.598179E-3	1.405573E-2	-9.199887E-3	1.334133E-3	-8.329274E-3	-1.083647E-2	8.279092E-3	4.760109E-4	8.032625E-3	5.336242E-3	-5.110000E-3	1.388326E-2	5.480325E-3	4.490158E-3	-4.275207E-3	-2.295756E-3	5.978137E-3	5.483057E-5	-8.547148E-4	7.542110E-3	-9.456044E-3	-2.327769E-4	6.125664E-3	8.525218E-3	9.391197E-3	2.880436E-3	1.293500E-3	3.715378E-3	-1.250414E-3	-3.866843E-3	7.149393E-4	-1.308072E-3	5.663898E-3	-2.446208E-3	3.752042E-4	4.179614E-3	-1.708434E-3	9.455241E-3	-3.622392E-4	7.199480E-3	-6.455588E-4	2.619812E-3	1.049766E-2	-1.161606E-3	1.309848E-3	5.897112E-3	9.754636E-3	5.377895E-4	3.768774E-3	5.103656E-3	8.310094E-3	1.003707E-2	6.793599E-3	4.562715E-3	9.224503E-3	1.727602E-3	1.664488E-2	4.444333E-3	3.497824E-3	6.626721E-3	-2.798308E-3	-6.604892E-3	1.513802E-2	4.522940E-4	-5.800726E-3	5.572854E-3	5.601700E-3	-6.927675E-4	3.653732E-4	6.357445E-3	1.074777E-2	3.512598E-4	3.824826E-3	6.866158E-4	2.525893E-2
2.825040E+2	8.664870E-3	1.012268E-2	1.526058E-2	5.549614E-3	-4.590881E-4	1.377677E-2	9.810877E-3	8.983374E-4	5.130729E-3	1.903984E-2	3.511259E-3	3.005967E-3	1.280820E-2	2.008701E-2	1.403766E-2	4.137949E-3	-9.098727E-4	-1.938770E-4	9.212923E-3	2.092238E-2	4.189954E-3	-2.894138E-3	1.339888E-3	9.235279E-3	5.478022E-3	5.636993E-3	3.770181E-3	4.824075E-3	-2.750248E-3	3.415390E-3	-6.444397E-4	9.719024E-3	5.589914E-5	3.023406E-3	1.514481E-2	8.044098E-3	1.031033E-4	1.279680E-2	7.453255E-3	1.132322E-2	2.685900E-3	1.043056E-2	1.197052E-2	5.107027E-3	1.324546E-2	7.017057E-3	5.450573E-3	-3.849407E-4	9.162049E-3	7.919264E-3	1.085404E-3	1.585810E-2	1.886230E-4	8.508389E-3	1.193577E-2	9.214382E-3	7.912432E-3	5.892111E-3	1.419012E-2	-2.986333E-3	4.138495E-3	3.654138E-4	7.629100E-3	1.039071E-2	2.056587E-2	2.101037E-2	9.442224E-3	-2.058922E-3	-5.874160E-3	4.867895E-3	6.828324E-3	2.517431E-3	1.471004E-2	6.113797E-3	9.402434E-3	4.544580E-3	9.453378E-3	6.772257E-3	1.481647E-2	-2.768499E-3	8.650592E-4	1.470308E-2	5.979294E-3	5.449247E-3	1.007896E-2	2.431400E-2	-6.080338E-3	2.626254E-3	8.925502E-4	8.168159E-3	3.440948E-3	1.239151E-2	4.171258E-4	1.733636E-4	6.942802E-3	7.564072E-3	1.366743E-2	5.756351E-3	5.656578E-3	1.494508E-3	8.202980E-3	2.306818E-3	7.327977E-3	1.571990E-2	1.770371E-2	1.659514E-2	2.702250E-3	6.527931E-3	7.836095E-3	4.231243E-4	2.892766E-4	4.698744E-3	-4.108917E-4	2.287162E-3	8.587895E-3	6.861139E-3	6.605168E-5	1.385588E-2	9.895014E-3	2.469333E-3	-2.828422E-3	1.585353E-2	2.844913E-3	6.051421E-3	5.438294E-3	-2.859503E-3	1.397021E-2	1.095733E-2	7.669043E-3	1.013177E-2	2.738357E-3	4.028441E-3	5.713397E-3	1.429408E-2	2.955378E-3	1.102372E-2	-3.055099E-3	5.344904E-3	3.419264E-3	4.112825E-3	1.378929E-2	1.464279E-2	6.712322E-3	8.982396E-3	9.191868E-3	1.397461E-2	1.560645E-2	1.601581E-2	-2.017134E-3	5.165089E-3	5.307745E-3	4.922739E-4	2.596422E-3	-4.800462E-3	-2.395162E-3	6.720420E-3	2.965111E-3	7.167388E-3	1.391787E-2	5.931424E-3	1.108810E-2	1.175473E-2	1.053694E-2	8.066255E-3	-7.214473E-4	1.176188E-2	4.760037E-3	2.715090E-3	1.687713E-2	1.093200E-2	2.554678E-3	8.090677E-3
2.830060E+2	7.283414E-3	7.551503E-3	1.799830E-2	1.869173E-2	6.198088E-3	5.807943E-3	1.125042E-2	1.335598E-2	8.552427E-3	1.376131E-2	5.638045E-3	8.597436E-3	8.960881E-3	5.136824E-3	2.137756E-2	3.968214E-3	1.008825E-2	4.657493E-3	5.581175E-3	7.043866E-3	7.679579E-3	1.653732E-2	2.128606E-2	1.124565E-2	9.601765E-3	-4.882771E-3	9.941332E-3	6.190608E-3	1.655962E-2	1.404444E-2	9.018511E-3	8.226175E-3	3.405818E-3	7.436072E-3	1.509490E-2	5.428286E-3	1.443337E-2	5.747422E-3	5.271669E-3	8.585197E-3	3.317724E-3	1.428677E-2	1.183480E-2	1.049206E-2	1.407842E-2	1.296414E-2	1.178665E-2	7.189689E-3	7.216135E-3	1.344670E-2	8.125356E-3	6.869572E-3	2.090185E-2	-7.496158E-4	7.386689E-3	9.902638E-3	2.074673E-2	1.709681E-2	1.929159E-2	1.201954E-2	3.852059E-3	1.126851E-2	5.920295E-3	1.827482E-2	6.713171E-3	1.568323E-2	1.185280E-2	8.412625E-3	1.652234E-2	8.908490E-3	2.721727E-2	3.132618E-3	1.292290E-2	1.786897E-2	1.160675E-2	-1.864842E-3	1.349316E-2	1.939570E-2	2.361596E-3	1.345223E-2	4.242469E-3	2.234437E-3	1.163181E-2	6.049854E-3	1.778768E-2	5.059656E-3	1.472545E-2	1.380455E-2	1.348198E-2	5.243362E-3	3.256784E-3	6.980404E-3	1.582908E-2	7.606994E-3	1.379057E-2	7.427690E-3	1.262865E-2	-7.256961E-3	7.981267E-3	1.201447E-2	1.354606E-2	5.134990E-3	1.242272E-2	9.636577E-3	2.014547E-2	9.396510E-3	8.501483E-3	8.670078E-3	6.550683E-4	7.730657E-3	1.178574E-2	1.520205E-2	2.166022E-2	1.577513E-2	8.365934E-3	1.008461E-2	1.485687E-2	1.614409E-2	2.714269E-2	1.654308E-3	9.968157E-3	5.093363E-3	4.312292E-3	2.754521E-3	1.064194E-2	1.220470E-2	2.693766E-3	2.363762E-2	1.477333E-2	7.319307E-3	-3.630207E-3	8.573743E-3	1.514115E-2	9.694382E-3	1.093343E-2	7.478356E-3	6.906776E-3	-3.608613E-3	1.167891E-2	-7.244499E-3	1.120939E-2	5.519966E-3	1.179641E-2	1.279871E-2	1.001822E-2	5.386682E-3	1.741643E-2	7.278839E-3	1.316936E-2	1.716060E-2	2.094344E-2	1.074480E-2	6.979214E-3	1.405923E-2	1.885613E-2	1.730732E-2	1.274028E-2	9.547718E-3	1.792384E-2	1.127956E-2	2.967374E-3	1.253747E-2	2.852494E-3	5.444035E-3	1.265142E-2	-2.177216E-3	9.435204E-3	8.526515E-3	7.642539E-3	1.530733E-3	-6.489421E-4	1.220518E-2
2.835010E+2	2.049992E-2	1.529232E-2	2.509682E-2	2.153782E-2	1.317157E-2	2.537436E-2	1.225106E-2	3.406032E-2	2.465418E-2	2.549422E-2	2.744782E-2	3.741823E-2	1.380886E-2	2.371524E-2	1.002675E-2	9.547477E-4	3.055416E-2	2.662244E-2	1.967348E-2	7.148171E-3	2.337629E-2	1.380330E-2	1.152186E-2	3.207491E-2	2.567710E-2	1.450172E-2	2.063257E-2	2.694564E-2	2.633636E-2	3.040983E-2	2.002356E-2	1.588599E-2	1.922409E-2	2.871197E-2	7.077862E-3	2.978799E-2	2.586163E-2	3.179633E-2	2.383494E-2	4.634044E-3	2.713501E-2	2.420377E-2	2.502401E-2	1.305710E-2	3.249098E-2	2.094109E-2	1.202168E-2	2.794347E-2	2.672061E-2	1.285851E-2	1.318277E-2	1.949101E-2	6.886049E-3	3.386638E-2	1.678661E-2	2.352901E-2	1.582889E-2	2.319897E-2	1.511099E-2	2.608408E-2	1.243275E-2	1.959436E-2	1.645288E-2	3.163706E-2	3.104299E-3	1.863753E-2	2.349760E-2	1.611392E-2	1.850129E-2	3.439548E-2	1.530781E-2	8.882504E-3	2.827605E-2	7.767509E-3	2.534850E-2	2.318998E-2	9.439042E-3	3.033122E-2	3.185983E-2	1.379621E-2	2.739753E-2	2.367597E-2	1.579878E-2	3.251532E-2	2.773405E-2	1.388839E-2	2.179551E-2	1.802595E-2	2.208099E-2	2.349477E-2	2.121877E-2	2.562560E-2	1.968581E-2	1.647759E-2	2.516716E-2	2.439968E-2	1.285609E-2	1.744427E-2	2.879715E-2	1.398594E-2	2.734227E-2	1.621496E-2	2.257942E-2	1.526860E-2	2.044327E-2	3.628683E-2	2.468408E-2	2.501554E-2	2.807550E-2	1.136850E-2	8.508005E-3	1.394740E-2	2.492270E-2	1.048524E-2	2.216053E-2	1.116651E-2	2.113630E-2	1.961363E-2	1.098122E-2	6.285293E-3	2.854946E-2	2.354084E-2	2.356233E-2	2.015936E-2	1.626897E-2	1.972170E-2	2.635392E-2	2.490695E-2	2.031880E-2	3.146534E-2	2.124334E-2	2.190082E-2	2.271294E-2	1.306369E-2	2.165305E-2	1.583166E-2	1.168057E-2	2.196831E-2	9.261423E-3	1.399779E-2	3.199791E-2	2.764412E-2	2.058215E-2	1.777990E-2	1.370609E-2	1.686266E-2	2.758622E-2	2.861079E-2	2.248070E-2	1.010738E-2	2.458397E-2	1.036444E-2	3.251840E-2	2.358354E-2	2.001255E-2	2.179355E-2	2.868101E-2	1.740573E-2	2.152840E-2	2.022098E-2	2.286782E-2	1.261939E-2	1.236523E-2	2.453855E-2	1.615992E-2	2.843266E-2	2.180266E-2	1.703567E-2	9.774082E-3	2.304611E-2	-1.783661E-3	6.103394E-3
2.840000E+2	5.820745E-2	5.292628E-2	4.654557E-2	5.808086E-2	3.982902E-2	4.231859E-2	7.149305E-2	5.086618E-2	4.243808E-2	6.115308E-2	5.081573E-2	6.211732E-2	4.813396E-2	5.710849E-2	7.067235E-2	4.833750E-2	4.923736E-2	4.770412E-2	6.830418E-2	5.818274E-2	7.012075E-2	3.998342E-2	5.266692E-2	5.504867E-2	3.773903E-2	4.780984E-2	4.737566E-2	4.762309E-2	6.384161E-2	7.429599E-2	4.635681E-2	4.731869E-2	5.931652E-2	3.297447E-2	5.260460E-2	6.608989E-2	5.192257E-2	6.022654E-2	5.425892E-2	5.012218E-2	4.279658E-2	4.676731E-2	5.193410E-2	5.052625E-2	6.078652E-2	4.587342E-2	5.180280E-2	5.263145E-2	6.861182E-2	4.253272E-2	6.476918E-2	5.547414E-2	5.212781E-2	6.754652E-2	4.290121E-2	5.955590E-2	5.476365E-2	5.983602E-2	5.515803E-2	5.561969E-2	6.100037E-2	4.467179E-2	4.610540E-2	4.296331E-2	5.965621E-2	3.172879E-2	3.283537E-2	4.390961E-2	6.187818E-2	5.222551E-2	6.165286E-2	5.259634E-2	4.413065E-2	5.727126E-2	2.818412E-2	4.547378E-2	3.508872E-2	5.740797E-2	5.984872E-2	4.335731E-2	5.821808E-2	6.503287E-2	4.276674E-2	5.620467E-2	5.328350E-2	4.793242E-2	4.864223E-2	7.005812E-2	6.661418E-2	5.446724E-2	5.635088E-2	6.476847E-2	5.002450E-2	3.453118E-2	6.121344E-2	5.909705E-2	5.571410E-2	6.750204E-2	7.229161E-2	4.789837E-2	6.421851E-2	5.880582E-2	4.606057E-2	5.852736E-2	4.077125E-2	7.306543E-2	4.316606E-2	5.091368E-2	3.480839E-2	3.621994E-2	5.685591E-2	3.948384E-2	4.233115E-2	4.299487E-2	6.049813E-2	4.836661E-2	5.095167E-2	6.589583E-2	5.017716E-2	4.852211E-2	7.136685E-2	4.690021E-2	4.349397E-2	4.908837E-2	4.807310E-2	4.829085E-2	7.947446E-2	6.166949E-2	3.936586E-2	4.786528E-2	4.522562E-2	6.452187E-2	5.357638E-2	5.265266E-2	3.803340E-2	4.545685E-2	5.071124E-2	5.569143E-2	5.143575E-2	5.186063E-2	5.089108E-2	6.927237E-2	4.027089E-2	4.787688E-2	4.953092E-2	3.563504E-2	7.235902E-2	5.972408E-2	5.147929E-2	4.712536E-2	5.277668E-2	5.038922E-2	6.182919E-2	6.467395E-2	6.137804E-2	4.607464E-2	5.180798E-2	5.271492E-2	5.679382E-2	4.713128E-2	6.691337E-2	7.259298E-2	4.498835E-2	2.937177E-2	5.039411E-2	4.653428E-2	3.540704E-2	4.191078E-2	6.533103E-2	5.883659E-2	6.079222E-2	5.013096E-2
2.841030E+2	6.506455E-2	5.625042E-2	7.054522E-2	6.146837E-2	7.255935E-2	6.884737E-2	6.943603E-2	6.880112E-2	4.358306E-2	5.742433E-2	5.552471E-2	5.685539E-2	6.282776E-2	6.695587E-2	6.420156E-2	7.041328E-2	6.495772E-2	6.419893E-2	5.554490E-2	6.334226E-2	6.500735E-2	6.378822E-2	6.321403E-2	6.088553E-2	7.124258E-2	6.295329E-2	8.997783E-2	6.721417E-2	5.730092E-2	8.264232E-2	7.274634E-2	8.370213E-2	4.752873E-2	4.885906E-2	7.728304E-2	7.576227E-2	7.690678E-2	6.877574E-2	6.501050E-2	6.047335E-2	5.773334E-2	6.828958E-2	6.339637E-2	6.636553E-2	6.319847E-2	6.910866E-2	6.195689E-2	5.507897E-2	5.575938E-2	7.480271E-2	6.219161E-2	6.821820E-2	5.331448E-2	6.562607E-2	6.020443E-2	6.357038E-2	6.596702E-2	4.611870E-2	7.889002E-2	6.982931E-2	6.368557E-2	6.707740E-2	7.325814E-2	7.465027E-2	4.679425E-2	6.091615E-2	4.687101E-2	7.245908E-2	6.529102E-2	6.249283E-2	6.767154E-2	6.756427E-2	5.848054E-2	7.068378E-2	7.802794E-2	5.253229E-2	6.949713E-2	5.817983E-2	7.025959E-2	6.959582E-2	6.784079E-2	8.347384E-2	5.368474E-2	5.591619E-2	6.639937E-2	5.600242E-2	6.245391E-2	6.642398E-2	5.759812E-2	5.512805E-2	5.968109E-2	6.649773E-2	8.476946E-2	6.297051E-2	7.028508E-2	6.233666E-2	7.150531E-2	6.165482E-2	7.867437E-2	5.990738E-2	6.686489E-2	5.568590E-2	6.168502E-2	5.872285E-2	6.833491E-2	6.023555E-2	5.932734E-2	5.170156E-2	6.076373E-2	7.070632E-2	5.673361E-2	4.170047E-2	6.021337E-2	7.445022E-2	6.518238E-2	6.365442E-2	8.065948E-2	6.041621E-2	7.336497E-2	7.101989E-2	5.627012E-2	7.519337E-2	5.698655E-2	6.941550E-2	5.716144E-2	6.246633E-2	6.964306E-2	8.223316E-2	4.446521E-2	8.295768E-2	5.589669E-2	8.096621E-2	7.021978E-2	4.281032E-2	8.168826E-2	6.676924E-2	6.410848E-2	6.370142E-2	8.060245E-2	6.112601E-2	7.466958E-2	6.829033E-2	6.230191E-2	6.849813E-2	6.873391E-2	6.679551E-2	6.109890E-2	6.231874E-2	6.927440E-2	6.570625E-2	5.108213E-2	6.831905E-2	7.920457E-2	7.993641E-2	9.209951E-2	6.491612E-2	6.682663E-2	6.869456E-2	7.614244E-2	5.353404E-2	6.453342E-2	7.181347E-2	8.386620E-2	6.006249E-2	5.698624E-2	6.350885E-2	7.186986E-2	7.836994E-2	5.413902E-2	6.245135E-2	6.448638E-2	5.889551E-2
2.842040E+2	7.285199E-2	6.901133E-2	7.091051E-2	6.974232E-2	7.565285E-2	7.092773E-2	6.592969E-2	7.861278E-2	8.376938E-2	6.514777E-2	6.954977E-2	7.472994E-2	6.796879E-2	7.491857E-2	6.921848E-2	8.032800E-2	7.667247E-2	6.822096E-2	8.147493E-2	6.544918E-2	8.610664E-2	5.616143E-2	7.259102E-2	7.550952E-2	6.567110E-2	6.085752E-2	8.033887E-2	7.588276E-2	7.992622E-2	8.161735E-2	9.249863E-2	8.423124E-2	7.561020E-2	6.151078E-2	6.054154E-2	5.444673E-2	6.212618E-2	6.549389E-2	9.059489E-2	7.116059E-2	7.173335E-2	5.827011E-2	7.560091E-2	8.126308E-2	8.937662E-2	1.090375E-1	6.165104E-2	8.937603E-2	8.132835E-2	6.048341E-2	6.091175E-2	7.249288E-2	9.043330E-2	7.077039E-2	5.902882E-2	7.330197E-2	9.281012E-2	7.924812E-2	6.178522E-2	7.481668E-2	7.959922E-2	8.296014E-2	7.543280E-2	8.023843E-2	8.215899E-2	6.804409E-2	7.842825E-2	8.170919E-2	5.454245E-2	7.027391E-2	5.800347E-2	6.467116E-2	6.159035E-2	7.705055E-2	7.519195E-2	8.088808E-2	7.621678E-2	5.773644E-2	8.906879E-2	5.428847E-2	5.517746E-2	7.371710E-2	9.507291E-2	6.859466E-2	6.519887E-2	7.200763E-2	5.830260E-2	7.168312E-2	7.958267E-2	6.310872E-2	7.612981E-2	5.217725E-2	6.952861E-2	5.885103E-2	7.980500E-2	5.797007E-2	8.045483E-2	7.742861E-2	5.768317E-2	6.795602E-2	7.720495E-2	9.863680E-2	6.456996E-2	7.678861E-2	6.876818E-2	6.246989E-2	8.842123E-2	7.212652E-2	7.488799E-2	5.503631E-2	9.471088E-2	9.115497E-2	9.045872E-2	6.516125E-2	8.998946E-2	6.497197E-2	6.690332E-2	8.502560E-2	7.734564E-2	7.769383E-2	5.464162E-2	6.688386E-2	8.854063E-2	7.754595E-2	8.025844E-2	5.862786E-2	7.826083E-2	8.509266E-2	7.369720E-2	8.244700E-2	7.112275E-2	3.908829E-2	7.315413E-2	6.524213E-2	7.676910E-2	6.797027E-2	7.738864E-2	6.130363E-2	7.478143E-2	9.135673E-2	6.260978E-2	6.680191E-2	7.079910E-2	7.135605E-2	8.499577E-2	9.113538E-2	6.805842E-2	6.726775E-2	8.257136E-2	6.270079E-2	6.640784E-2	6.099566E-2	9.630189E-2	7.330504E-2	6.071913E-2	7.492534E-2	6.819948E-2	8.433438E-2	7.321416E-2	5.882665E-2	6.802858E-2	6.955207E-2	7.271774E-2	7.120241E-2	6.581775E-2	7.949079E-2	5.555199E-2	8.120966E-2	6.988186E-2	7.992670E-2	7.911662E-2	8.130016E-2
2.843030E+2	9.805015E-2	5.343413E-2	8.075124E-2	5.164599E-2	6.635354E-2	8.011021E-2	7.448967E-2	8.183143E-2	8.541779E-2	8.059791E-2	7.509898E-2	6.741566E-2	7.015013E-2	7.903631E-2	8.088405E-2	6.744442E-2	7.171829E-2	7.243485E-2	7.661184E-2	9.759975E-2	7.953455E-2	7.695209E-2	8.325619E-2	6.480457E-2	5.837027E-2	7.934648E-2	6.913231E-2	8.076284E-2	6.954505E-2	8.411067E-2	7.473630E-2	7.178141E-2	8.878345E-2	6.082592E-2	6.712161E-2	6.719800E-2	6.501498E-2	7.980543E-2	8.389747E-2	7.045896E-2	5.352939E-2	9.370492E-2	6.983565E-2	8.715283E-2	8.771942E-2	9.528805E-2	6.915829E-2	7.367548E-2	7.064816E-2	6.534338E-2	7.357556E-2	6.259478E-2	7.035458E-2	7.833619E-2	7.250334E-2	5.138900E-2	7.392260E-2	8.711262E-2	6.785966E-2	6.548690E-2	6.563415E-2	6.469637E-2	8.045621E-2	7.513976E-2	7.473799E-2	6.991830E-2	7.633752E-2	9.230496E-2	6.560959E-2	7.482815E-2	6.373042E-2	8.738604E-2	6.807661E-2	7.916587E-2	8.352486E-2	7.606121E-2	8.383157E-2	8.005226E-2	9.813393E-2	8.106549E-2	6.496537E-2	7.229309E-2	6.614293E-2	9.904430E-2	7.077154E-2	8.552717E-2	7.919719E-2	8.710034E-2	9.769467E-2	8.585090E-2	7.693730E-2	8.428213E-2	7.630373E-2	6.425763E-2	7.981710E-2	7.224782E-2	6.971751E-2	9.015390E-2	7.274155E-2	6.560495E-2	6.344432E-2	6.013181E-2	7.397728E-2	7.844991E-2	6.521249E-2	7.985391E-2	8.084042E-2	7.458764E-2	6.816977E-2	7.277338E-2	8.465255E-2	7.012664E-2	6.288357E-2	7.348573E-2	7.731279E-2	6.453676E-2	7.283236E-2	7.613669E-2	7.259226E-2	7.540529E-2	6.112556E-2	8.950001E-2	7.098083E-2	8.008636E-2	5.410767E-2	9.262717E-2	7.063213E-2	8.523842E-2	7.909636E-2	6.849832E-2	8.583805E-2	8.002843E-2	6.282165E-2	7.917746E-2	7.765060E-2	8.578808E-2	8.099426E-2	7.949618E-2	8.631204E-2	8.372854E-2	7.940277E-2	6.154330E-2	9.150891E-2	7.783603E-2	9.243067E-2	7.477716E-2	6.860700E-2	7.242635E-2	8.774759E-2	7.108904E-2	6.875202E-2	7.748648E-2	6.544700E-2	9.817412E-2	6.856880E-2	7.741304E-2	9.714048E-2	9.785058E-2	7.995633E-2	8.101624E-2	8.532237E-2	5.921604E-2	9.423638E-2	8.369694E-2	8.527432E-2	8.277369E-2	6.713042E-2	8.212543E-2	9.299955E-2	7.222257E-2	6.841773E-2	9.410158E-2
2.844010E+2	9.427207E-2	8.454875E-2	1.063868E-1	8.783892E-2	9.339029E-2	1.148589E-1	1.068207E-1	9.675265E-2	1.139859E-1	9.991868E-2	7.971240E-2	1.089220E-1	9.066553E-2	9.072096E-2	1.159587E-1	9.215392E-2	9.858965E-2	1.047350E-1	1.022395E-1	9.293428E-2	1.026621E-1	8.809158E-2	9.962840E-2	1.015373E-1	1.060771E-1	8.418237E-2	1.082015E-1	9.140565E-2	9.643184E-2	1.029333E-1	8.425350E-2	1.094114E-1	9.352277E-2	1.045793E-1	9.470688E-2	9.780943E-2	1.140939E-1	9.635210E-2	1.038967E-1	1.038762E-1	8.615901E-2	9.001652E-2	1.033954E-1	1.084146E-1	1.001418E-1	9.588022E-2	1.134417E-1	9.262077E-2	8.688528E-2	8.429211E-2	8.809869E-2	1.106811E-1	8.187358E-2	1.080402E-1	1.095367E-1	8.796006E-2	9.207245E-2	1.113932E-1	1.106957E-1	1.007810E-1	1.240259E-1	8.844978E-2	1.064457E-1	1.057813E-1	9.490436E-2	8.377509E-2	1.020686E-1	1.081114E-1	9.292127E-2	9.838942E-2	1.090880E-1	9.991274E-2	1.002163E-1	9.603677E-2	1.161560E-1	9.367473E-2	1.032060E-1	1.007177E-1	1.281774E-1	9.516143E-2	1.102519E-1	1.004977E-1	7.946782E-2	1.141427E-1	1.007865E-1	8.862394E-2	9.306090E-2	9.257722E-2	1.156051E-1	1.082351E-1	1.136438E-1	1.130608E-1	9.096481E-2	5.827032E-2	1.091198E-1	9.806619E-2	1.010271E-1	1.155460E-1	1.198520E-1	1.062650E-1	9.443082E-2	1.100867E-1	8.081838E-2	1.058217E-1	9.806521E-2	9.551902E-2	8.420313E-2	1.091680E-1	7.841884E-2	9.272666E-2	7.798336E-2	1.182280E-1	1.003428E-1	7.714685E-2	9.556264E-2	9.230211E-2	9.556141E-2	1.006159E-1	9.896132E-2	1.149550E-1	1.127280E-1	1.131698E-1	1.032940E-1	9.290687E-2	9.119413E-2	9.933270E-2	8.787136E-2	1.139146E-1	1.041525E-1	1.004284E-1	9.970945E-2	1.165666E-1	1.060761E-1	8.811806E-2	8.140709E-2	8.799923E-2	8.560193E-2	1.242101E-1	8.509922E-2	9.649123E-2	1.226715E-1	8.830262E-2	1.105199E-1	9.790485E-2	1.177335E-1	1.129725E-1	1.209505E-1	1.142511E-1	1.049971E-1	8.904730E-2	8.454315E-2	1.034950E-1	9.886652E-2	9.432818E-2	1.071092E-1	1.001911E-1	1.016986E-1	1.103729E-1	1.003753E-1	1.016531E-1	1.112845E-1	1.118359E-1	8.487528E-2	9.070081E-2	1.177126E-1	8.836552E-2	1.112223E-1	9.628576E-2	1.153122E-1	1.056806E-1	1.041129E-1	1.283701E-1
2.845030E+2	1.578243E-1	1.683887E-1	1.762515E-1	1.476011E-1	1.730774E-1	1.721704E-1	1.609235E-1	1.941732E-1	1.727788E-1	1.749331E-1	1.805171E-1	1.713080E-1	1.638866E-1	1.729839E-1	1.748823E-1	1.697220E-1	1.859625E-1	1.475674E-1	1.700149E-1	1.580998E-1	1.841481E-1	1.868715E-1	1.553274E-1	1.698414E-1	1.901564E-1	1.900709E-1	1.707763E-1	1.908372E-1	1.807179E-1	1.860824E-1	1.800943E-1	1.607963E-1	1.757840E-1	1.651885E-1	2.111080E-1	1.659844E-1	1.975584E-1	1.749761E-1	1.629881E-1	2.051143E-1	1.563184E-1	1.894716E-1	1.666763E-1	1.748171E-1	1.404826E-1	1.573112E-1	1.589138E-1	1.940396E-1	1.705276E-1	2.049990E-1	1.976498E-1	1.877880E-1	1.707777E-1	1.724934E-1	1.908474E-1	1.879366E-1	1.697330E-1	1.957258E-1	1.651718E-1	1.767879E-1	1.398888E-1	1.625665E-1	1.513321E-1	1.806962E-1	1.563766E-1	1.676783E-1	1.860989E-1	1.770907E-1	1.481761E-1	1.959742E-1	1.658778E-1	2.101808E-1	1.819920E-1	1.629435E-1	1.956439E-1	1.580889E-1	1.633652E-1	1.783420E-1	1.932991E-1	1.721139E-1	1.865415E-1	1.738310E-1	1.605506E-1	1.932951E-1	1.844950E-1	1.791234E-1	1.564707E-1	1.723522E-1	1.726241E-1	1.652674E-1	1.919839E-1	1.739459E-1	1.641012E-1	1.901658E-1	1.909403E-1	1.540039E-1	1.783356E-1	1.568078E-1	1.818785E-1	1.734830E-1	1.755304E-1	1.783999E-1	1.587516E-1	1.813541E-1	1.875419E-1	1.636972E-1	1.700153E-1	1.714532E-1	1.823584E-1	1.610940E-1	1.579497E-1	1.915055E-1	1.814832E-1	1.905853E-1	1.762924E-1	2.186117E-1	1.814984E-1	1.941307E-1	1.643880E-1	1.867740E-1	1.790898E-1	1.722849E-1	1.811109E-1	1.619386E-1	1.625727E-1	1.634179E-1	1.724849E-1	1.768018E-1	1.773319E-1	1.944646E-1	1.477681E-1	1.705405E-1	1.707181E-1	1.676636E-1	1.617321E-1	2.013954E-1	1.751496E-1	1.635864E-1	1.770274E-1	1.581068E-1	1.780986E-1	1.894465E-1	1.700798E-1	1.612410E-1	1.593201E-1	1.839691E-1	1.783386E-1	1.939995E-1	1.899699E-1	1.787611E-1	2.058763E-1	1.679353E-1	1.585323E-1	1.782481E-1	1.896905E-1	1.864181E-1	1.863471E-1	1.805760E-1	1.824105E-1	1.919356E-1	1.883904E-1	1.859551E-1	1.612834E-1	1.791560E-1	1.806013E-1	1.918129E-1	1.719436E-1	1.697059E-1	1.800660E-1	1.944783E-1	2.231404E-1	1.853612E-1
2.846030E+2	3.344744E-1	2.959969E-1	3.195778E-1	3.065145E-1	3.257313E-1	3.011049E-1	2.962042E-1	3.042938E-1	3.288497E-1	3.257653E-1	3.091524E-1	3.182902E-1	3.143798E-1	3.108524E-1	3.164472E-1	2.989368E-1	3.320488E-1	3.003944E-1	3.221823E-1	3.077765E-1	3.256135E-1	2.960251E-1	2.950287E-1	2.890893E-1	2.956108E-1	3.216888E-1	3.173776E-1	3.453106E-1	3.205004E-1	3.330586E-1	2.621460E-1	3.103937E-1	3.061524E-1	3.126831E-1	3.272679E-1	3.389848E-1	3.084957E-1	3.265756E-1	3.164861E-1	3.322563E-1	2.991886E-1	3.110096E-1	3.412275E-1	3.118044E-1	2.875543E-1	3.186583E-1	3.183146E-1	3.392540E-1	3.239738E-1	3.344413E-1	3.147527E-1	2.935815E-1	3.380179E-1	3.270108E-1	3.226855E-1	3.292190E-1	3.004438E-1	3.362489E-1	3.182231E-1	3.278270E-1	3.206694E-1	3.143508E-1	3.272380E-1	3.350107E-1	3.296130E-1	3.404014E-1	3.514869E-1	2.993903E-1	3.465549E-1	3.214719E-1	3.182563E-1	3.245865E-1	2.949832E-1	3.253227E-1	3.103784E-1	3.663489E-1	3.201219E-1	2.992375E-1	3.142809E-1	3.623015E-1	3.041174E-1	3.154375E-1	3.288206E-1	3.094257E-1	3.021704E-1	3.131918E-1	3.158353E-1	2.894090E-1	3.259228E-1	3.424940E-1	3.323553E-1	3.208706E-1	3.327133E-1	2.903848E-1	3.036955E-1	3.149503E-1	3.184058E-1	3.132975E-1	3.250283E-1	3.173673E-1	3.314700E-1	3.262435E-1	2.989096E-1	2.859770E-1	3.214043E-1	3.133332E-1	3.032846E-1	3.214839E-1	3.352524E-1	3.355611E-1	3.236483E-1	3.446995E-1	2.954586E-1	3.330956E-1	3.083763E-1	3.302206E-1	3.039386E-1	3.413939E-1	3.163215E-1	3.410837E-1	3.543376E-1	3.114690E-1	3.180206E-1	3.024663E-1	3.360881E-1	3.068355E-1	3.211033E-1	3.350077E-1	3.438882E-1	3.397563E-1	3.200089E-1	3.302604E-1	2.930030E-1	3.202709E-1	3.308582E-1	3.205355E-1	3.029031E-1	3.161677E-1	3.107978E-1	3.130215E-1	3.275665E-1	2.997810E-1	2.945316E-1	3.412755E-1	3.225199E-1	3.256257E-1	3.279185E-1	3.443156E-1	3.175005E-1	3.119343E-1	3.006147E-1	3.090574E-1	3.365938E-1	3.134968E-1	3.437426E-1	3.278301E-1	3.322391E-1	3.438788E-1	2.970164E-1	3.064523E-1	3.231185E-1	3.373797E-1	3.103293E-1	2.908252E-1	3.632293E-1	2.798935E-1	3.477055E-1	3.451604E-1	2.922571E-1	2.878140E-1	3.436348E-1	3.091749E-1
2.847020E+2	6.423293E-1	5.793658E-1	6.487513E-1	6.114612E-1	6.586998E-1	5.954442E-1	5.835420E-1	6.214392E-1	6.739039E-1	6.496923E-1	6.216838E-1	6.187834E-1	6.088880E-1	6.230600E-1	6.466540E-1	6.407134E-1	6.478873E-1	6.034216E-1	6.223059E-1	5.888769E-1	6.138009E-1	6.773730E-1	6.276859E-1	6.349470E-1	6.235185E-1	6.430067E-1	6.072174E-1	6.341778E-1	6.220919E-1	6.382963E-1	6.640778E-1	6.869556E-1	6.162925E-1	6.319280E-1	6.201337E-1	5.802140E-1	6.484420E-1	5.966572E-1	6.073536E-1	6.321337E-1	6.160330E-1	6.545169E-1	6.544850E-1	6.068875E-1	6.123476E-1	6.221335E-1	6.639969E-1	6.383273E-1	6.398451E-1	6.293146E-1	6.108443E-1	6.388368E-1	6.070410E-1	6.307685E-1	6.547519E-1	5.910448E-1	6.084177E-1	6.444714E-1	6.469656E-1	6.375358E-1	6.486392E-1	6.303144E-1	6.440355E-1	6.546878E-1	6.212510E-1	6.466786E-1	6.614940E-1	5.915820E-1	5.893134E-1	5.969069E-1	5.992663E-1	6.434017E-1	6.370699E-1	6.379568E-1	6.455310E-1	6.180508E-1	6.470863E-1	6.612153E-1	6.490174E-1	6.137719E-1	6.198898E-1	6.137692E-1	6.808635E-1	6.594307E-1	6.230267E-1	6.319218E-1	6.461269E-1	6.625022E-1	6.525714E-1	6.181369E-1	6.456574E-1	6.560402E-1	6.661838E-1	6.502233E-1	6.133429E-1	6.245218E-1	6.507045E-1	6.233881E-1	6.345149E-1	6.374854E-1	6.807506E-1	6.721064E-1	6.602011E-1	6.244073E-1	6.527684E-1	6.504802E-1	6.239078E-1	6.374873E-1	6.052918E-1	6.542594E-1	6.557888E-1	6.297378E-1	6.521236E-1	6.749534E-1	5.867177E-1	6.275417E-1	6.675008E-1	6.061099E-1	6.423923E-1	6.812325E-1	6.489923E-1	6.409214E-1	6.473195E-1	6.775218E-1	6.308194E-1	6.524393E-1	6.573676E-1	6.735244E-1	6.084522E-1	6.497612E-1	6.196469E-1	6.759214E-1	6.431813E-1	6.420939E-1	5.963132E-1	7.111494E-1	6.109160E-1	6.192450E-1	6.310353E-1	6.501291E-1	6.609971E-1	6.738873E-1	6.436022E-1	6.344629E-1	6.545097E-1	6.828358E-1	6.450185E-1	6.897843E-1	6.973337E-1	6.204797E-1	6.543037E-1	6.568137E-1	6.372148E-1	6.087076E-1	6.604997E-1	5.917980E-1	6.453587E-1	6.782059E-1	6.106925E-1	6.287833E-1	6.196806E-1	6.219039E-1	6.073526E-1	6.941530E-1	6.464076E-1	6.750487E-1	7.042347E-1	6.682603E-1	6.149786E-1	6.035875E-1	7.119641E-1	6.383176E-1
2.848000E+2	1.123272E+0	1.246161E+0	1.212012E+0	1.133993E+0	1.123338E+0	1.084537E+0	1.100999E+0	1.180814E+0	1.215606E+0	1.220350E+0	1.142988E+0	1.119007E+0	1.165490E+0	1.158203E+0	1.190025E+0	1.170353E+0	1.156943E+0	1.153258E+0	1.199072E+0	1.141137E+0	1.200677E+0	1.153658E+0	1.083629E+0	1.201082E+0	1.179726E+0	1.156664E+0	1.143124E+0	1.102488E+0	1.193700E+0	1.245452E+0	1.171758E+0	1.143511E+0	1.159831E+0	1.229316E+0	1.147012E+0	1.196840E+0	1.170308E+0	1.131704E+0	1.139047E+0	1.196316E+0	1.163442E+0	1.174658E+0	1.095955E+0	1.181632E+0	1.155245E+0	1.149741E+0	1.160959E+0	1.216254E+0	1.177891E+0	1.112637E+0	1.103862E+0	1.159609E+0	1.261085E+0	1.152737E+0	1.207391E+0	1.164287E+0	1.173244E+0	1.216125E+0	1.150050E+0	1.197973E+0	1.123273E+0	1.160698E+0	1.164128E+0	1.187691E+0	1.161702E+0	1.157854E+0	1.221567E+0	1.154275E+0	1.145733E+0	1.083317E+0	1.168559E+0	1.193631E+0	1.133816E+0	1.137708E+0	1.129821E+0	1.127194E+0	1.146058E+0	1.132913E+0	1.139380E+0	1.129553E+0	1.128162E+0	1.151442E+0	1.182789E+0	1.164691E+0	1.110671E+0	1.157155E+0	1.214467E+0	1.206910E+0	1.178155E+0	1.145693E+0	1.159728E+0	1.132671E+0	1.144360E+0	1.198563E+0	1.200960E+0	1.126098E+0	1.222029E+0	1.160067E+0	1.232740E+0	1.120194E+0	1.122431E+0	1.142008E+0	1.145515E+0	1.181856E+0	1.197090E+0	1.165526E+0	1.175902E+0	1.190841E+0	1.135889E+0	1.204082E+0	1.157364E+0	1.161961E+0	1.169330E+0	1.226617E+0	1.225878E+0	1.194746E+0	1.194144E+0	1.180032E+0	1.194860E+0	1.264878E+0	1.181910E+0	1.179968E+0	1.090087E+0	1.203516E+0	1.196169E+0	1.221848E+0	1.167372E+0	1.166168E+0	1.181185E+0	1.228773E+0	1.151892E+0	1.196822E+0	1.155382E+0	1.159642E+0	1.233091E+0	1.186289E+0	1.128894E+0	1.180657E+0	1.127736E+0	1.179864E+0	1.201928E+0	1.148183E+0	1.221202E+0	1.213952E+0	1.171960E+0	1.183302E+0	1.151705E+0	1.235810E+0	1.201676E+0	1.162093E+0	1.205536E+0	1.203931E+0	1.197788E+0	1.167911E+0	1.197463E+0	1.129195E+0	1.171192E+0	1.206078E+0	1.225025E+0	1.156453E+0	1.240253E+0	1.095098E+0	1.229407E+0	1.199470E+0	1.219509E+0	1.189074E+0	1.187138E+0	1.214007E+0	1.280245E+0	1.206234E+0	1.184072E+0	1.161787E+0
2.849010E+2	1.615818E+0	1.552452E+0	1.525614E+0	1.531373E+0	1.579199E+0	1.452566E+0	1.474555E+0	1.457521E+0	1.553520E+0	1.539412E+0	1.536900E+0	1.512493E+0	1.546948E+0	1.587676E+0	1.499762E+0	1.512822E+0	1.570288E+0	1.506622E+0	1.553335E+0	1.473265E+0	1.547645E+0	1.481202E+0	1.508122E+0	1.494934E+0	1.502104E+0	1.449411E+0	1.474619E+0	1.504843E+0	1.535292E+0	1.557576E+0	1.576390E+0	1.507297E+0	1.438629E+0	1.559921E+0	1.522135E+0	1.544565E+0	1.505926E+0	1.480801E+0	1.553654E+0	1.524371E+0	1.428182E+0	1.552797E+0	1.541081E+0	1.584766E+0	1.534745E+0	1.479216E+0	1.517199E+0	1.483787E+0	1.518205E+0	1.470830E+0	1.533793E+0	1.492024E+0	1.571977E+0	1.510273E+0	1.565008E+0	1.517735E+0	1.579669E+0	1.492935E+0	1.460259E+0	1.539907E+0	1.528045E+0	1.527264E+0	1.516151E+0	1.516972E+0	1.537392E+0	1.471606E+0	1.533239E+0	1.517032E+0	1.532003E+0	1.469019E+0	1.475042E+0	1.466491E+0	1.539756E+0	1.555521E+0	1.560038E+0	1.572116E+0	1.509200E+0	1.508080E+0	1.601546E+0	1.563637E+0	1.533511E+0	1.497779E+0	1.569036E+0	1.523131E+0	1.501999E+0	1.509684E+0	1.584621E+0	1.553671E+0	1.499353E+0	1.576222E+0	1.502677E+0	1.485764E+0	1.480641E+0	1.474556E+0	1.532642E+0	1.457021E+0	1.495964E+0	1.552773E+0	1.482622E+0	1.501243E+0	1.450526E+0	1.557964E+0	1.493295E+0	1.498193E+0	1.515782E+0	1.522596E+0	1.617772E+0	1.498042E+0	1.479813E+0	1.558688E+0	1.561020E+0	1.497533E+0	1.556462E+0	1.584250E+0	1.578689E+0	1.573851E+0	1.566934E+0	1.537886E+0	1.501511E+0	1.472600E+0	1.557109E+0	1.496744E+0	1.528320E+0	1.551109E+0	1.534529E+0	1.536739E+0	1.578380E+0	1.574490E+0	1.444978E+0	1.473339E+0	1.549673E+0	1.528999E+0	1.491507E+0	1.489450E+0	1.435672E+0	1.541218E+0	1.508289E+0	1.504710E+0	1.547050E+0	1.561344E+0	1.497926E+0	1.605989E+0	1.571187E+0	1.545500E+0	1.548440E+0	1.576452E+0	1.553765E+0	1.591998E+0	1.533710E+0	1.558421E+0	1.547473E+0	1.523953E+0	1.523928E+0	1.514560E+0	1.478395E+0	1.544197E+0	1.439941E+0	1.546276E+0	1.502491E+0	1.523731E+0	1.477218E+0	1.595027E+0	1.465306E+0	1.458288E+0	1.568967E+0	1.533393E+0	1.538728E+0	1.506758E+0	1.531846E+0	1.567223E+0	1.472705E+0	1.479396E+0
2.850010E+2	1.574021E+0	1.540455E+0	1.535887E+0	1.546424E+0	1.642451E+0	1.500346E+0	1.506082E+0	1.554188E+0	1.535081E+0	1.463603E+0	1.563021E+0	1.495566E+0	1.467099E+0	1.545257E+0	1.597022E+0	1.489304E+0	1.530217E+0	1.497628E+0	1.575651E+0	1.495915E+0	1.557262E+0	1.515396E+0	1.508437E+0	1.569131E+0	1.579682E+0	1.463024E+0	1.473109E+0	1.518877E+0	1.523563E+0	1.546102E+0	1.550985E+0	1.545979E+0	1.477650E+0	1.516995E+0	1.484178E+0	1.538532E+0	1.537780E+0	1.553099E+0	1.533627E+0	1.585014E+0	1.488045E+0	1.547316E+0	1.588796E+0	1.502798E+0	1.507204E+0	1.566191E+0	1.626049E+0	1.542726E+0	1.519180E+0	1.583975E+0	1.559640E+0	1.524941E+0	1.538913E+0	1.490242E+0	1.587750E+0	1.549992E+0	1.525898E+0	1.490923E+0	1.561561E+0	1.500119E+0	1.549508E+0	1.547568E+0	1.505382E+0	1.546828E+0	1.503247E+0	1.552933E+0	1.525817E+0	1.494491E+0	1.590871E+0	1.556024E+0	1.577846E+0	1.558422E+0	1.526218E+0	1.597945E+0	1.536226E+0	1.491295E+0	1.467443E+0	1.498581E+0	1.583746E+0	1.588029E+0	1.539075E+0	1.576138E+0	1.520281E+0	1.531980E+0	1.478424E+0	1.493849E+0	1.546893E+0	1.618380E+0	1.560025E+0	1.563493E+0	1.516820E+0	1.524895E+0	1.579745E+0	1.523035E+0	1.543134E+0	1.501791E+0	1.536133E+0	1.544772E+0	1.589209E+0	1.615998E+0	1.507080E+0	1.510040E+0	1.531575E+0	1.601555E+0	1.539658E+0	1.494471E+0	1.480147E+0	1.513673E+0	1.525659E+0	1.478739E+0	1.605511E+0	1.583480E+0	1.460603E+0	1.590597E+0	1.562982E+0	1.538140E+0	1.575909E+0	1.484330E+0	1.519862E+0	1.499448E+0	1.546101E+0	1.500097E+0	1.533256E+0	1.670013E+0	1.544922E+0	1.522189E+0	1.596966E+0	1.531098E+0	1.491458E+0	1.541546E+0	1.510342E+0	1.555894E+0	1.531755E+0	1.580039E+0	1.506777E+0	1.543568E+0	1.538125E+0	1.423814E+0	1.522475E+0	1.523146E+0	1.568868E+0	1.590384E+0	1.538769E+0	1.575021E+0	1.537729E+0	1.637781E+0	1.548580E+0	1.494778E+0	1.568621E+0	1.498667E+0	1.483531E+0	1.660313E+0	1.536809E+0	1.486318E+0	1.547506E+0	1.508748E+0	1.456864E+0	1.569047E+0	1.503003E+0	1.530175E+0	1.469153E+0	1.562279E+0	1.504371E+0	1.525404E+0	1.547610E+0	1.532255E+0	1.582511E+0	1.546305E+0	1.502293E+0	1.510546E+0	1.543704E+0	1.459895E+0
2.851020E+2	1.400547E+0	1.409257E+0	1.491144E+0	1.404011E+0	1.409631E+0	1.338935E+0	1.346333E+0	1.400481E+0	1.514110E+0	1.376939E+0	1.405331E+0	1.391573E+0	1.440071E+0	1.387962E+0	1.457083E+0	1.427091E+0	1.379126E+0	1.360376E+0	1.489612E+0	1.367090E+0	1.381615E+0	1.427586E+0	1.453388E+0	1.368297E+0	1.464150E+0	1.361877E+0	1.358288E+0	1.420820E+0	1.399494E+0	1.491325E+0	1.389113E+0	1.432147E+0	1.403587E+0	1.462927E+0	1.414801E+0	1.398366E+0	1.393629E+0	1.404394E+0	1.439811E+0	1.453141E+0	1.363423E+0	1.420467E+0	1.412800E+0	1.371872E+0	1.400415E+0	1.410290E+0	1.489928E+0	1.494349E+0	1.367180E+0	1.437246E+0	1.358832E+0	1.403241E+0	1.411007E+0	1.384575E+0	1.480676E+0	1.423232E+0	1.417357E+0	1.417084E+0	1.397473E+0	1.462972E+0	1.426841E+0	1.408277E+0	1.396068E+0	1.405332E+0	1.369084E+0	1.410996E+0	1.385637E+0	1.442483E+0	1.425849E+0	1.372085E+0	1.395563E+0	1.394676E+0	1.457847E+0	1.423275E+0	1.449598E+0	1.408262E+0	1.409447E+0	1.459293E+0	1.554714E+0	1.458167E+0	1.407741E+0	1.448153E+0	1.494821E+0	1.374011E+0	1.402947E+0	1.395854E+0	1.425963E+0	1.449666E+0	1.334512E+0	1.463663E+0	1.416053E+0	1.417777E+0	1.445774E+0	1.423850E+0	1.387226E+0	1.442087E+0	1.427612E+0	1.481012E+0	1.344612E+0	1.445337E+0	1.360249E+0	1.473160E+0	1.415924E+0	1.402673E+0	1.471440E+0	1.351734E+0	1.444351E+0	1.398399E+0	1.413950E+0	1.370533E+0	1.395919E+0	1.390498E+0	1.358334E+0	1.422234E+0	1.492423E+0	1.423903E+0	1.386678E+0	1.405743E+0	1.304861E+0	1.445324E+0	1.499979E+0	1.412112E+0	1.386818E+0	1.457999E+0	1.358142E+0	1.468907E+0	1.532446E+0	1.430026E+0	1.405643E+0	1.462324E+0	1.383261E+0	1.481733E+0	1.422509E+0	1.432146E+0	1.437233E+0	1.426355E+0	1.403547E+0	1.432797E+0	1.413841E+0	1.366822E+0	1.446063E+0	1.452683E+0	1.468856E+0	1.404336E+0	1.406628E+0	1.440673E+0	1.436406E+0	1.429943E+0	1.426344E+0	1.358374E+0	1.417920E+0	1.477019E+0	1.467334E+0	1.400487E+0	1.430306E+0	1.452537E+0	1.391908E+0	1.430356E+0	1.397286E+0	1.368596E+0	1.378086E+0	1.414666E+0	1.320021E+0	1.411014E+0	1.435976E+0	1.436120E+0	1.419897E+0	1.437579E+0	1.458117E+0	1.367715E+0	1.446492E+0	1.482057E+0
2.851990E+2	1.222866E+0	1.143847E+0	1.211392E+0	1.183723E+0	1.231471E+0	1.148098E+0	1.131151E+0	1.200966E+0	1.206685E+0	1.103590E+0	1.185389E+0	1.176524E+0	1.164967E+0	1.198553E+0	1.203706E+0	1.183393E+0	1.186515E+0	1.174392E+0	1.253277E+0	1.148073E+0	1.227601E+0	1.163615E+0	1.218304E+0	1.148747E+0	1.256646E+0	1.181479E+0	1.164668E+0	1.160738E+0	1.200556E+0	1.164428E+0	1.185280E+0	1.229978E+0	1.172498E+0	1.190633E+0	1.197406E+0	1.212482E+0	1.202172E+0	1.135630E+0	1.237260E+0	1.283823E+0	1.218327E+0	1.236550E+0	1.181194E+0	1.192969E+0	1.186258E+0	1.142173E+0	1.172357E+0	1.224013E+0	1.196480E+0	1.181838E+0	1.177125E+0	1.238171E+0	1.252647E+0	1.140339E+0	1.202810E+0	1.186343E+0	1.177748E+0	1.195082E+0	1.211816E+0	1.165345E+0	1.204547E+0	1.220630E+0	1.197058E+0	1.204364E+0	1.167704E+0	1.253246E+0	1.188001E+0	1.197671E+0	1.240184E+0	1.239851E+0	1.172354E+0	1.217096E+0	1.208256E+0	1.189820E+0	1.177973E+0	1.207783E+0	1.217022E+0	1.195820E+0	1.264497E+0	1.194775E+0	1.197456E+0	1.131755E+0	1.115854E+0	1.183487E+0	1.209328E+0	1.176822E+0	1.151388E+0	1.167659E+0	1.159791E+0	1.194160E+0	1.223346E+0	1.154867E+0	1.244065E+0	1.186307E+0	1.249709E+0	1.226464E+0	1.159342E+0	1.198907E+0	1.206283E+0	1.245739E+0	1.182904E+0	1.274455E+0	1.190134E+0	1.182712E+0	1.190177E+0	1.222318E+0	1.209540E+0	1.192443E+0	1.196119E+0	1.229958E+0	1.240295E+0	1.235840E+0	1.160463E+0	1.251238E+0	1.213154E+0	1.197429E+0	1.150209E+0	1.136324E+0	1.260722E+0	1.150210E+0	1.200062E+0	1.284748E+0	1.162649E+0	1.232083E+0	1.244333E+0	1.304726E+0	1.308923E+0	1.252434E+0	1.216031E+0	1.236899E+0	1.182600E+0	1.220172E+0	1.212825E+0	1.239649E+0	1.212213E+0	1.210327E+0	1.169930E+0	1.149329E+0	1.205008E+0	1.232157E+0	1.211745E+0	1.172026E+0	1.187675E+0	1.191290E+0	1.189727E+0	1.246216E+0	1.199080E+0	1.193893E+0	1.199303E+0	1.207059E+0	1.197096E+0	1.192608E+0	1.208618E+0	1.181916E+0	1.227168E+0	1.131184E+0	1.202694E+0	1.297079E+0	1.189725E+0	1.196585E+0	1.201827E+0	1.200798E+0	1.151968E+0	1.233336E+0	1.200300E+0	1.223026E+0	1.211209E+0	1.178968E+0	1.206192E+0	1.183397E+0	1.226974E+0	1.152905E+0
2.853000E+2	8.796212E-1	8.587531E-1	9.210677E-1	8.493975E-1	8.757445E-1	8.459173E-1	8.726458E-1	8.914695E-1	8.795828E-1	8.552823E-1	9.246208E-1	8.801382E-1	8.826958E-1	8.622652E-1	8.835760E-1	8.998681E-1	8.638921E-1	8.014570E-1	8.366096E-1	9.157603E-1	9.268240E-1	8.977529E-1	8.684351E-1	8.546859E-1	8.768095E-1	8.694252E-1	8.944868E-1	8.855008E-1	8.978603E-1	9.356571E-1	8.857643E-1	8.838758E-1	8.796099E-1	8.434186E-1	8.871561E-1	8.713345E-1	8.382756E-1	8.306764E-1	8.665795E-1	8.913966E-1	8.924562E-1	9.026138E-1	8.415065E-1	8.423189E-1	8.559277E-1	9.042271E-1	8.375549E-1	8.689126E-1	8.780219E-1	8.934685E-1	8.220525E-1	8.663671E-1	9.035878E-1	8.437263E-1	8.960674E-1	8.447216E-1	8.927130E-1	9.375275E-1	8.770959E-1	9.060456E-1	8.868840E-1	8.904086E-1	9.018477E-1	8.428975E-1	8.238542E-1	8.576122E-1	8.698049E-1	8.414300E-1	8.637325E-1	8.216812E-1	7.664840E-1	8.637494E-1	9.369632E-1	8.467976E-1	9.012183E-1	8.768291E-1	8.865893E-1	8.744217E-1	9.614521E-1	8.926564E-1	8.749585E-1	9.106388E-1	9.415007E-1	8.782854E-1	8.068987E-1	8.494247E-1	8.615048E-1	8.943882E-1	8.886363E-1	8.689056E-1	9.145388E-1	9.388532E-1	8.911822E-1	9.415157E-1	9.058942E-1	8.536502E-1	8.799075E-1	8.721905E-1	8.779026E-1	9.293422E-1	8.373485E-1	8.892529E-1	8.804018E-1	8.639127E-1	8.490002E-1	8.508115E-1	8.958799E-1	8.583600E-1	8.389655E-1	8.921777E-1	8.408923E-1	8.866906E-1	8.467959E-1	9.581127E-1	9.074109E-1	8.852103E-1	8.468443E-1	8.687102E-1	8.409256E-1	8.549159E-1	8.851183E-1	8.186350E-1	8.968172E-1	9.568106E-1	8.836727E-1	9.005203E-1	8.993370E-1	8.751765E-1	8.661556E-1	8.979253E-1	9.017022E-1	8.867529E-1	9.191919E-1	8.571032E-1	8.337942E-1	9.091639E-1	8.317588E-1	9.000570E-1	9.095769E-1	8.630611E-1	9.532501E-1	9.350613E-1	8.967656E-1	8.761937E-1	8.929973E-1	9.163328E-1	8.842982E-1	9.069528E-1	8.718841E-1	8.709570E-1	8.597144E-1	8.708724E-1	9.299840E-1	9.016433E-1	8.697908E-1	8.687319E-1	9.038763E-1	9.343541E-1	8.644818E-1	8.910158E-1	8.904668E-1	8.730014E-1	8.911951E-1	9.029924E-1	8.752415E-1	8.675869E-1	8.909244E-1	9.428774E-1	8.960838E-1	9.430423E-1	9.566804E-1	8.545952E-1
2.854020E+2	5.787370E-1	5.395929E-1	5.334202E-1	5.074130E-1	5.715922E-1	5.618585E-1	5.338117E-1	5.629082E-1	5.445498E-1	5.794867E-1	5.761737E-1	5.848994E-1	5.589384E-1	5.514612E-1	5.866133E-1	5.511281E-1	5.550670E-1	5.580665E-1	5.462895E-1	5.401002E-1	5.412527E-1	5.612796E-1	5.637767E-1	5.738710E-1	5.496541E-1	5.510903E-1	5.680198E-1	5.513598E-1	5.569036E-1	5.539116E-1	5.599190E-1	5.564226E-1	5.506415E-1	5.563139E-1	5.349181E-1	5.921512E-1	5.710672E-1	5.947122E-1	5.764131E-1	5.987477E-1	5.988414E-1	5.678909E-1	5.862020E-1	5.588945E-1	5.274772E-1	5.692415E-1	5.665584E-1	5.636159E-1	5.848667E-1	5.420843E-1	5.425360E-1	5.728796E-1	5.638995E-1	5.524753E-1	5.868263E-1	5.541695E-1	5.887802E-1	6.019216E-1	5.705725E-1	5.631441E-1	5.742396E-1	6.164801E-1	5.910736E-1	5.781155E-1	5.846422E-1	5.864522E-1	6.459905E-1	5.856338E-1	5.895833E-1	5.497955E-1	5.510650E-1	5.631483E-1	5.329613E-1	5.799740E-1	5.603092E-1	5.580486E-1	5.607785E-1	5.855620E-1	5.833992E-1	5.563677E-1	5.530249E-1	6.068610E-1	6.234497E-1	5.560145E-1	5.953465E-1	5.243324E-1	5.573466E-1	5.946475E-1	5.522157E-1	5.688397E-1	5.508907E-1	5.670459E-1	5.671323E-1	5.808401E-1	6.202228E-1	5.506610E-1	5.710615E-1	5.808263E-1	6.009563E-1	5.515789E-1	5.529756E-1	5.995877E-1	5.319426E-1	5.993953E-1	5.862108E-1	5.356720E-1	6.147264E-1	5.687485E-1	5.473992E-1	6.089474E-1	6.131646E-1	5.746335E-1	5.056913E-1	6.131953E-1	5.864897E-1	5.376478E-1	5.669742E-1	6.066316E-1	5.877749E-1	6.055260E-1	5.859638E-1	5.629663E-1	5.793533E-1	6.056352E-1	5.716243E-1	5.943616E-1	5.879678E-1	6.035706E-1	5.809472E-1	6.148165E-1	5.136772E-1	5.803291E-1	5.845701E-1	5.755328E-1	5.917823E-1	5.961573E-1	5.663113E-1	5.681619E-1	5.930797E-1	6.418306E-1	5.549911E-1	5.514086E-1	5.766856E-1	5.718953E-1	5.508238E-1	5.962256E-1	5.751630E-1	6.367586E-1	5.982241E-1	6.001936E-1	5.501045E-1	6.056130E-1	5.806198E-1	5.957021E-1	5.931219E-1	5.799912E-1	5.477398E-1	5.802411E-1	5.810374E-1	5.562062E-1	5.667306E-1	5.326461E-1	5.266395E-1	5.867598E-1	5.644978E-1	5.799105E-1	5.345444E-1	5.636037E-1	5.941896E-1	5.810623E-1	5.466847E-1	6.343541E-1
2.855030E+2	4.835583E-1	4.889610E-1	4.752419E-1	4.792165E-1	4.844514E-1	5.001529E-1	4.459796E-1	4.723084E-1	5.100876E-1	4.523570E-1	4.719905E-1	4.638502E-1	4.845820E-1	4.778951E-1	5.101603E-1	4.731522E-1	4.805937E-1	4.510607E-1	5.119611E-1	5.148111E-1	4.609035E-1	4.724692E-1	4.236129E-1	4.685661E-1	4.768024E-1	4.854421E-1	4.626440E-1	4.693512E-1	4.649151E-1	5.025715E-1	4.869443E-1	4.697617E-1	4.679804E-1	5.011866E-1	4.836428E-1	4.860492E-1	4.468336E-1	4.506615E-1	5.059176E-1	4.930991E-1	4.940373E-1	4.824843E-1	4.747334E-1	4.819287E-1	4.688838E-1	5.007384E-1	4.666914E-1	5.227776E-1	5.193928E-1	4.862826E-1	5.032256E-1	4.889843E-1	5.149128E-1	4.903002E-1	4.921805E-1	4.663978E-1	5.079267E-1	4.704942E-1	4.371000E-1	5.087466E-1	4.573166E-1	4.549264E-1	5.036987E-1	5.283051E-1	4.540509E-1	4.768892E-1	5.421908E-1	4.943614E-1	5.069362E-1	4.691627E-1	5.004558E-1	4.889385E-1	4.747008E-1	4.887754E-1	5.056332E-1	4.918026E-1	4.665670E-1	5.006717E-1	5.245507E-1	4.777427E-1	4.515071E-1	4.905249E-1	4.823213E-1	4.730423E-1	4.891096E-1	4.899520E-1	4.829124E-1	4.883361E-1	5.035273E-1	5.156518E-1	4.961736E-1	4.779894E-1	4.771943E-1	5.126298E-1	5.033527E-1	4.906452E-1	4.690543E-1	5.026531E-1	5.206955E-1	4.854791E-1	4.792580E-1	4.434961E-1	4.598328E-1	4.839965E-1	4.812992E-1	4.934862E-1	5.050008E-1	4.740488E-1	4.944239E-1	4.789273E-1	4.758296E-1	4.645950E-1	4.896111E-1	5.092398E-1	5.124979E-1	4.880121E-1	4.752350E-1	4.708415E-1	4.624165E-1	4.786478E-1	5.211088E-1	4.824761E-1	4.903391E-1	5.032369E-1	4.779918E-1	4.584429E-1	5.205311E-1	5.210439E-1	4.821283E-1	5.100549E-1	4.672212E-1	4.865811E-1	4.876751E-1	4.999433E-1	4.822504E-1	5.238060E-1	4.659646E-1	4.305704E-1	4.352903E-1	5.340923E-1	4.709592E-1	4.730312E-1	5.010239E-1	4.777838E-1	4.970850E-1	4.810397E-1	4.643611E-1	4.839813E-1	5.005502E-1	4.745263E-1	4.974472E-1	4.756692E-1	4.770255E-1	4.910876E-1	4.784912E-1	5.122389E-1	5.039377E-1	4.851554E-1	4.686714E-1	4.824147E-1	4.285924E-1	5.097410E-1	4.721217E-1	4.914710E-1	4.953753E-1	4.597138E-1	4.694501E-1	4.494738E-1	5.137887E-1	4.494275E-1	4.447530E-1	4.213404E-1
2.856010E+2	4.185091E-1	4.375124E-1	4.459334E-1	3.962120E-1	4.198119E-1	3.992582E-1	4.233922E-1	4.150950E-1	4.313974E-1	4.176644E-1	4.147041E-1	4.502597E-1	4.076553E-1	4.045208E-1	4.404199E-1	4.289760E-1	4.413539E-1	4.261017E-1	4.525223E-1	4.347401E-1	4.318105E-1	4.350681E-1	3.966926E-1	4.258589E-1	4.281636E-1	3.913274E-1	4.089093E-1	4.013952E-1	4.265041E-1	4.250904E-1	4.401310E-1	4.185778E-1	4.100262E-1	4.308204E-1	4.389368E-1	4.430268E-1	4.428640E-1	3.971541E-1	4.419460E-1	4.738532E-1	4.512718E-1	4.624132E-1	4.069221E-1	4.626229E-1	4.285820E-1	3.866921E-1	4.763362E-1	4.337683E-1	4.638815E-1	4.525313E-1	4.220880E-1	4.198675E-1	4.718646E-1	4.288981E-1	4.024133E-1	4.138250E-1	4.441622E-1	4.253729E-1	4.409759E-1	4.236462E-1	4.258511E-1	4.635581E-1	4.670661E-1	4.471926E-1	3.918930E-1	4.117701E-1	4.461016E-1	4.391014E-1	4.368418E-1	4.256986E-1	4.165343E-1	4.319159E-1	4.307095E-1	4.368159E-1	4.306256E-1	4.047689E-1	4.315640E-1	4.149295E-1	4.673773E-1	4.250401E-1	4.230525E-1	4.380743E-1	4.094182E-1	3.924940E-1	4.571759E-1	4.424593E-1	4.236009E-1	4.224337E-1	3.794931E-1	4.121370E-1	4.298726E-1	4.085480E-1	4.638515E-1	4.172834E-1	4.091667E-1	4.591699E-1	4.075069E-1	4.069598E-1	4.445245E-1	4.015623E-1	4.131013E-1	3.916741E-1	4.353262E-1	4.372882E-1	4.427520E-1	4.320272E-1	4.246953E-1	4.363727E-1	4.162849E-1	4.285277E-1	4.291755E-1	4.480360E-1	4.324247E-1	4.588633E-1	4.644744E-1	4.614564E-1	4.752072E-1	4.166041E-1	4.401901E-1	4.360141E-1	4.331251E-1	4.419713E-1	4.139791E-1	4.364042E-1	4.660288E-1	4.294300E-1	4.456451E-1	4.299615E-1	4.506925E-1	4.112157E-1	4.254494E-1	4.160027E-1	4.118073E-1	4.331858E-1	4.408671E-1	4.392182E-1	4.315289E-1	4.535403E-1	4.033751E-1	4.436414E-1	4.385039E-1	4.207867E-1	4.481061E-1	4.358087E-1	4.418395E-1	4.863606E-1	4.048344E-1	4.471058E-1	4.638685E-1	4.322990E-1	4.528376E-1	4.707194E-1	4.673610E-1	4.461256E-1	4.946947E-1	4.037035E-1	4.102856E-1	4.350837E-1	4.433542E-1	4.300123E-1	4.306783E-1	4.756377E-1	4.538400E-1	4.656946E-1	4.399614E-1	4.478909E-1	4.487115E-1	4.220378E-1	4.528967E-1	4.191303E-1	3.885708E-1	4.310056E-1
2.858010E+2	5.247480E-1	5.442704E-1	4.796301E-1	4.566915E-1	5.526606E-1	5.037561E-1	5.139572E-1	5.219573E-1	4.740884E-1	4.959686E-1	5.043674E-1	5.367325E-1	4.870219E-1	5.364570E-1	5.527278E-1	5.179274E-1	4.924248E-1	5.078834E-1	5.601212E-1	5.255510E-1	5.676039E-1	5.109851E-1	5.094158E-1	5.238846E-1	5.079293E-1	4.848223E-1	5.130104E-1	5.026742E-1	5.164527E-1	5.329561E-1	5.127847E-1	4.961212E-1	4.875355E-1	4.820036E-1	5.222160E-1	5.069365E-1	4.906801E-1	4.915481E-1	5.065431E-1	4.929638E-1	4.949828E-1	5.053271E-1	5.344784E-1	5.099832E-1	4.681416E-1	5.089939E-1	4.664326E-1	5.143395E-1	5.575904E-1	5.224149E-1	5.573778E-1	5.278319E-1	5.336011E-1	5.422063E-1	5.445374E-1	5.052250E-1	4.891355E-1	5.357568E-1	5.150278E-1	5.321637E-1	5.387175E-1	4.897388E-1	5.322553E-1	5.248248E-1	5.183298E-1	5.495873E-1	5.376660E-1	4.768791E-1	5.240522E-1	5.748250E-1	5.128094E-1	5.285480E-1	5.220508E-1	5.154919E-1	4.958688E-1	4.820655E-1	5.233667E-1	5.257623E-1	5.562556E-1	5.335428E-1	5.021841E-1	5.707940E-1	5.066211E-1	5.146218E-1	5.138674E-1	5.167848E-1	5.303772E-1	5.235589E-1	4.994691E-1	5.350362E-1	5.539064E-1	5.027930E-1	5.347554E-1	5.435475E-1	5.178815E-1	5.420259E-1	5.345593E-1	5.246017E-1	5.600374E-1	5.270282E-1	5.286664E-1	5.482458E-1	5.560238E-1	5.629190E-1	5.349220E-1	5.130395E-1	5.515870E-1	5.376327E-1	4.669520E-1	5.339750E-1	5.308409E-1	5.234731E-1	5.283815E-1	5.576661E-1	5.475533E-1	5.381983E-1	5.194307E-1	5.291945E-1	5.117606E-1	5.112033E-1	5.530016E-1	5.285540E-1	4.885428E-1	5.188078E-1	5.476211E-1	5.261342E-1	5.162014E-1	4.931245E-1	5.056476E-1	5.107613E-1	4.781191E-1	5.690889E-1	5.300640E-1	4.932001E-1	5.275489E-1	5.152650E-1	5.148103E-1	5.190908E-1	5.042030E-1	5.561726E-1	5.244633E-1	5.171889E-1	4.953380E-1	5.524904E-1	5.398932E-1	5.252688E-1	4.725864E-1	5.755115E-1	5.685236E-1	5.093720E-1	5.218771E-1	4.801587E-1	5.153487E-1	5.406313E-1	5.807963E-1	4.993134E-1	5.242019E-1	5.440004E-1	5.641796E-1	4.971946E-1	5.424817E-1	5.218102E-1	5.206264E-1	5.626692E-1	5.524248E-1	5.248598E-1	5.131131E-1	5.326346E-1	5.509083E-1	5.222001E-1	5.675908E-1	5.296878E-1
2.860040E+2	8.264372E-1	8.721931E-1	8.188292E-1	8.998110E-1	8.735668E-1	8.698070E-1	8.611558E-1	7.920867E-1	8.392009E-1	8.446586E-1	8.538797E-1	8.733924E-1	8.362035E-1	8.282197E-1	8.850169E-1	8.072713E-1	8.669936E-1	8.242257E-1	8.318096E-1	8.409808E-1	8.929928E-1	8.715901E-1	8.400008E-1	8.390131E-1	8.778112E-1	8.938034E-1	8.400595E-1	8.727752E-1	8.888179E-1	8.667009E-1	9.058241E-1	8.287551E-1	8.926944E-1	8.817567E-1	8.593076E-1	8.703978E-1	9.176359E-1	8.422617E-1	9.022542E-1	8.600169E-1	8.828287E-1	8.460904E-1	8.920684E-1	8.217716E-1	8.393377E-1	8.720981E-1	8.774047E-1	8.712214E-1	8.347252E-1	8.995753E-1	8.846796E-1	9.013636E-1	8.875681E-1	8.485054E-1	9.057872E-1	8.542757E-1	8.628469E-1	8.900860E-1	8.948637E-1	8.407811E-1	9.298463E-1	8.188023E-1	8.798854E-1	9.354277E-1	8.148491E-1	9.011333E-1	8.687134E-1	8.732761E-1	9.062048E-1	8.484538E-1	8.078782E-1	8.709356E-1	8.443232E-1	8.552154E-1	8.419561E-1	8.510886E-1	8.699657E-1	8.633370E-1	8.946662E-1	8.442332E-1	8.254117E-1	8.795492E-1	8.877864E-1	8.599010E-1	8.755559E-1	9.042460E-1	8.756317E-1	8.637305E-1	8.670905E-1	8.517395E-1	8.791104E-1	8.674352E-1	8.432973E-1	8.689374E-1	8.621651E-1	8.876912E-1	8.969695E-1	8.462435E-1	8.871842E-1	8.510513E-1	8.395515E-1	8.913405E-1	8.742297E-1	8.667964E-1	8.675704E-1	8.546624E-1	8.683048E-1	8.549197E-1	8.686536E-1	8.726166E-1	9.420424E-1	9.450374E-1	8.822007E-1	9.422187E-1	8.670688E-1	8.805719E-1	9.057295E-1	8.104552E-1	8.822214E-1	8.787153E-1	8.666495E-1	8.834935E-1	8.244012E-1	8.985617E-1	8.780285E-1	8.950891E-1	9.250790E-1	8.880501E-1	8.525844E-1	8.576961E-1	8.526215E-1	9.103356E-1	8.696795E-1	8.580077E-1	8.806310E-1	8.913206E-1	8.283438E-1	8.586339E-1	8.895493E-1	8.237565E-1	8.733531E-1	8.559845E-1	9.068947E-1	9.035817E-1	8.285106E-1	8.753912E-1	8.892472E-1	8.712642E-1	8.629643E-1	8.481165E-1	8.811166E-1	8.910442E-1	8.581040E-1	8.725827E-1	8.851242E-1	8.602537E-1	8.399785E-1	8.865224E-1	8.734604E-1	8.902146E-1	8.571356E-1	8.977109E-1	8.599978E-1	9.389385E-1	8.755570E-1	9.264001E-1	8.947701E-1	8.374728E-1	8.370342E-1	9.277465E-1	8.849854E-1	8.648094E-1
2.862050E+2	1.206689E+0	1.237798E+0	1.265814E+0	1.140073E+0	1.221702E+0	1.198121E+0	1.187322E+0	1.187933E+0	1.279481E+0	1.197116E+0	1.246203E+0	1.209969E+0	1.279782E+0	1.245980E+0	1.226975E+0	1.242886E+0	1.281743E+0	1.176282E+0	1.199280E+0	1.227493E+0	1.256421E+0	1.167805E+0	1.208684E+0	1.255649E+0	1.209118E+0	1.217456E+0	1.209103E+0	1.204744E+0	1.255455E+0	1.231179E+0	1.282882E+0	1.270330E+0	1.250482E+0	1.182092E+0	1.207585E+0	1.255026E+0	1.234825E+0	1.190970E+0	1.316827E+0	1.224223E+0	1.209351E+0	1.227708E+0	1.314456E+0	1.223465E+0	1.231519E+0	1.224508E+0	1.240821E+0	1.247965E+0	1.298315E+0	1.190434E+0	1.159180E+0	1.214607E+0	1.221800E+0	1.253900E+0	1.242179E+0	1.112071E+0	1.262876E+0	1.191276E+0	1.234234E+0	1.172541E+0	1.206633E+0	1.185769E+0	1.278426E+0	1.197120E+0	1.225928E+0	1.267518E+0	1.240623E+0	1.246402E+0	1.202306E+0	1.235542E+0	1.168305E+0	1.231370E+0	1.226012E+0	1.233518E+0	1.228988E+0	1.173168E+0	1.216973E+0	1.194139E+0	1.224215E+0	1.216513E+0	1.258310E+0	1.265529E+0	1.263592E+0	1.175900E+0	1.256336E+0	1.197126E+0	1.282520E+0	1.227339E+0	1.247971E+0	1.202174E+0	1.256063E+0	1.264725E+0	1.174355E+0	1.226655E+0	1.191715E+0	1.219867E+0	1.229070E+0	1.255055E+0	1.238008E+0	1.242547E+0	1.189693E+0	1.219146E+0	1.262794E+0	1.214381E+0	1.249098E+0	1.176876E+0	1.284463E+0	1.216712E+0	1.244130E+0	1.196104E+0	1.293692E+0	1.184960E+0	1.269975E+0	1.252215E+0	1.223940E+0	1.203895E+0	1.203418E+0	1.197518E+0	1.247788E+0	1.227483E+0	1.267683E+0	1.190679E+0	1.178833E+0	1.275812E+0	1.186563E+0	1.215832E+0	1.235682E+0	1.257681E+0	1.221739E+0	1.181544E+0	1.223884E+0	1.278899E+0	1.238526E+0	1.260382E+0	1.251857E+0	1.234831E+0	1.186601E+0	1.202137E+0	1.186999E+0	1.218815E+0	1.222482E+0	1.170512E+0	1.277036E+0	1.260791E+0	1.210002E+0	1.200723E+0	1.172468E+0	1.233245E+0	1.270028E+0	1.235976E+0	1.237360E+0	1.239180E+0	1.271191E+0	1.212101E+0	1.246288E+0	1.224893E+0	1.205862E+0	1.275019E+0	1.211871E+0	1.245206E+0	1.227049E+0	1.224166E+0	1.174975E+0	1.234736E+0	1.250510E+0	1.193867E+0	1.251923E+0	1.183524E+0	1.225674E+0	1.230113E+0	1.209355E+0	1.264819E+0
2.864190E+2	1.334945E+0	1.298004E+0	1.307377E+0	1.296864E+0	1.328328E+0	1.341446E+0	1.226266E+0	1.263037E+0	1.338371E+0	1.259678E+0	1.363870E+0	1.338140E+0	1.305474E+0	1.270548E+0	1.311075E+0	1.337343E+0	1.281677E+0	1.285868E+0	1.301739E+0	1.175136E+0	1.327221E+0	1.320592E+0	1.295778E+0	1.371012E+0	1.283047E+0	1.297322E+0	1.280672E+0	1.304594E+0	1.366159E+0	1.305644E+0	1.293183E+0	1.351779E+0	1.253055E+0	1.311175E+0	1.295352E+0	1.318566E+0	1.317090E+0	1.235039E+0	1.375220E+0	1.323272E+0	1.312688E+0	1.265798E+0	1.298683E+0	1.272052E+0	1.315082E+0	1.318168E+0	1.319889E+0	1.319233E+0	1.399922E+0	1.294473E+0	1.309718E+0	1.264989E+0	1.364189E+0	1.365617E+0	1.363021E+0	1.299943E+0	1.302083E+0	1.250150E+0	1.358026E+0	1.318694E+0	1.278434E+0	1.270881E+0	1.332045E+0	1.304488E+0	1.307578E+0	1.355488E+0	1.356186E+0	1.279300E+0	1.305733E+0	1.284421E+0	1.320542E+0	1.314151E+0	1.330221E+0	1.297206E+0	1.320005E+0	1.279081E+0	1.258884E+0	1.263250E+0	1.398945E+0	1.376763E+0	1.256738E+0	1.278842E+0	1.360496E+0	1.267680E+0	1.308999E+0	1.284268E+0	1.303416E+0	1.345663E+0	1.337062E+0	1.349537E+0	1.263784E+0	1.216160E+0	1.301280E+0	1.290744E+0	1.309251E+0	1.339389E+0	1.308157E+0	1.364654E+0	1.344658E+0	1.354935E+0	1.239808E+0	1.289343E+0	1.333949E+0	1.275398E+0	1.337455E+0	1.299057E+0	1.283923E+0	1.331781E+0	1.304876E+0	1.249493E+0	1.273991E+0	1.320953E+0	1.310373E+0	1.348109E+0	1.386461E+0	1.301616E+0	1.314648E+0	1.292493E+0	1.270788E+0	1.284516E+0	1.283683E+0	1.315268E+0	1.319015E+0	1.331220E+0	1.277437E+0	1.328477E+0	1.359489E+0	1.316391E+0	1.289118E+0	1.304299E+0	1.271050E+0	1.338967E+0	1.331982E+0	1.285361E+0	1.267628E+0	1.296343E+0	1.269942E+0	1.254705E+0	1.290646E+0	1.320273E+0	1.333760E+0	1.262815E+0	1.343497E+0	1.377909E+0	1.344172E+0	1.395014E+0	1.318827E+0	1.277300E+0	1.343106E+0	1.305689E+0	1.294858E+0	1.352438E+0	1.344423E+0	1.306054E+0	1.413354E+0	1.304290E+0	1.244139E+0	1.310363E+0	1.383404E+0	1.320221E+0	1.254045E+0	1.325056E+0	1.294313E+0	1.328754E+0	1.280366E+0	1.302238E+0	1.290443E+0	1.282708E+0	1.310135E+0	1.299092E+0	1.351179E+0	1.285659E+0
2.866120E+2	1.235482E+0	1.235634E+0	1.285426E+0	1.238808E+0	1.270381E+0	1.246849E+0	1.230352E+0	1.222806E+0	1.273915E+0	1.247647E+0	1.278920E+0	1.222491E+0	1.256235E+0	1.232295E+0	1.347505E+0	1.246263E+0	1.225414E+0	1.166896E+0	1.232270E+0	1.190535E+0	1.281352E+0	1.274170E+0	1.230735E+0	1.299414E+0	1.281289E+0	1.206259E+0	1.236968E+0	1.220459E+0	1.235955E+0	1.254964E+0	1.316395E+0	1.252107E+0	1.291820E+0	1.222677E+0	1.260491E+0	1.285948E+0	1.229948E+0	1.254291E+0	1.225055E+0	1.271838E+0	1.232550E+0	1.231864E+0	1.261941E+0	1.238936E+0	1.246240E+0	1.212623E+0	1.277993E+0	1.285773E+0	1.210153E+0	1.225664E+0	1.230768E+0	1.197556E+0	1.280871E+0	1.248652E+0	1.277690E+0	1.238801E+0	1.362938E+0	1.223986E+0	1.284088E+0	1.218955E+0	1.196381E+0	1.213062E+0	1.261753E+0	1.269097E+0	1.184960E+0	1.280195E+0	1.313065E+0	1.234232E+0	1.210321E+0	1.205722E+0	1.236767E+0	1.291989E+0	1.268517E+0	1.251700E+0	1.288182E+0	1.229834E+0	1.226866E+0	1.229017E+0	1.350300E+0	1.244650E+0	1.238515E+0	1.229752E+0	1.296607E+0	1.246741E+0	1.150660E+0	1.237266E+0	1.256097E+0	1.252818E+0	1.265683E+0	1.203682E+0	1.212356E+0	1.297732E+0	1.267476E+0	1.222132E+0	1.233047E+0	1.213771E+0	1.211114E+0	1.286847E+0	1.235090E+0	1.258644E+0	1.239498E+0	1.223928E+0	1.229461E+0	1.204817E+0	1.237174E+0	1.212935E+0	1.262486E+0	1.245442E+0	1.219573E+0	1.195512E+0	1.282363E+0	1.229254E+0	1.238773E+0	1.290119E+0	1.260417E+0	1.218258E+0	1.215669E+0	1.270310E+0	1.270661E+0	1.212667E+0	1.251877E+0	1.228984E+0	1.258226E+0	1.286281E+0	1.207286E+0	1.225333E+0	1.233240E+0	1.255441E+0	1.221902E+0	1.236133E+0	1.229153E+0	1.255265E+0	1.244537E+0	1.222829E+0	1.199113E+0	1.263345E+0	1.210790E+0	1.243796E+0	1.195330E+0	1.276828E+0	1.300725E+0	1.250700E+0	1.315143E+0	1.277875E+0	1.277177E+0	1.208818E+0	1.247698E+0	1.229132E+0	1.289850E+0	1.198460E+0	1.208751E+0	1.282179E+0	1.294369E+0	1.227979E+0	1.279184E+0	1.278497E+0	1.230896E+0	1.221489E+0	1.305829E+0	1.303328E+0	1.232143E+0	1.216199E+0	1.205365E+0	1.278504E+0	1.310567E+0	1.252586E+0	1.188032E+0	1.228708E+0	1.280712E+0	1.274056E+0	1.133334E+0	1.229195E+0
2.868030E+2	1.469450E+0	1.425638E+0	1.403179E+0	1.427260E+0	1.489472E+0	1.429192E+0	1.453072E+0	1.390334E+0	1.458028E+0	1.425545E+0	1.388683E+0	1.383625E+0	1.348645E+0	1.411577E+0	1.461945E+0	1.405960E+0	1.385047E+0	1.369558E+0	1.400612E+0	1.326874E+0	1.477448E+0	1.405648E+0	1.386849E+0	1.405338E+0	1.470948E+0	1.451278E+0	1.353828E+0	1.374816E+0	1.421556E+0	1.377600E+0	1.449784E+0	1.455129E+0	1.398700E+0	1.372006E+0	1.442446E+0	1.440478E+0	1.391600E+0	1.430009E+0	1.439407E+0	1.401967E+0	1.417418E+0	1.415262E+0	1.445191E+0	1.419975E+0	1.374436E+0	1.392386E+0	1.489920E+0	1.422842E+0	1.460310E+0	1.410377E+0	1.426369E+0	1.430570E+0	1.437030E+0	1.422040E+0	1.439261E+0	1.390852E+0	1.396870E+0	1.441367E+0	1.397685E+0	1.390828E+0	1.345546E+0	1.457615E+0	1.418387E+0	1.392409E+0	1.379331E+0	1.367582E+0	1.450202E+0	1.405847E+0	1.395800E+0	1.444278E+0	1.414226E+0	1.394336E+0	1.474726E+0	1.383797E+0	1.418194E+0	1.315557E+0	1.411138E+0	1.401745E+0	1.407994E+0	1.439657E+0	1.381569E+0	1.413787E+0	1.516870E+0	1.491204E+0	1.386587E+0	1.352962E+0	1.408022E+0	1.453958E+0	1.452662E+0	1.391686E+0	1.369107E+0	1.393570E+0	1.515082E+0	1.407539E+0	1.425943E+0	1.400315E+0	1.375443E+0	1.369364E+0	1.386632E+0	1.359874E+0	1.385856E+0	1.366708E+0	1.339218E+0	1.429011E+0	1.409210E+0	1.336835E+0	1.421049E+0	1.359761E+0	1.393181E+0	1.393731E+0	1.450507E+0	1.413138E+0	1.429353E+0	1.444580E+0	1.402955E+0	1.445081E+0	1.430503E+0	1.370797E+0	1.461856E+0	1.489933E+0	1.419214E+0	1.410093E+0	1.367676E+0	1.415116E+0	1.386793E+0	1.356474E+0	1.487805E+0	1.445754E+0	1.428272E+0	1.424120E+0	1.423450E+0	1.449575E+0	1.439472E+0	1.394243E+0	1.425701E+0	1.475808E+0	1.448748E+0	1.423820E+0	1.414335E+0	1.475504E+0	1.427513E+0	1.350194E+0	1.516005E+0	1.401291E+0	1.448796E+0	1.491911E+0	1.376483E+0	1.427331E+0	1.416344E+0	1.340690E+0	1.448443E+0	1.420030E+0	1.412606E+0	1.426124E+0	1.442878E+0	1.474426E+0	1.400955E+0	1.409411E+0	1.401243E+0	1.416416E+0	1.472566E+0	1.376075E+0	1.372307E+0	1.418914E+0	1.486485E+0	1.334666E+0	1.489024E+0	1.445455E+0	1.400404E+0	1.485555E+0	1.371523E+0	1.403457E+0
2.870210E+2	1.229678E+0	1.221874E+0	1.284739E+0	1.184481E+0	1.318834E+0	1.241656E+0	1.136368E+0	1.225324E+0	1.281601E+0	1.254607E+0	1.207045E+0	1.239284E+0	1.196075E+0	1.241597E+0	1.276666E+0	1.251999E+0	1.211541E+0	1.268487E+0	1.278262E+0	1.240449E+0	1.262317E+0	1.229622E+0	1.207241E+0	1.253238E+0	1.294594E+0	1.264080E+0	1.243439E+0	1.256711E+0	1.188355E+0	1.221532E+0	1.290091E+0	1.242777E+0	1.260322E+0	1.246700E+0	1.296761E+0	1.309061E+0	1.282392E+0	1.251547E+0	1.283760E+0	1.317192E+0	1.278418E+0	1.230578E+0	1.226221E+0	1.214765E+0	1.201242E+0	1.204742E+0	1.294365E+0	1.285688E+0	1.155259E+0	1.227172E+0	1.232152E+0	1.301000E+0	1.325356E+0	1.292705E+0	1.268244E+0	1.254519E+0	1.276301E+0	1.273523E+0	1.267195E+0	1.274884E+0	1.221378E+0	1.258748E+0	1.270236E+0	1.226208E+0	1.224349E+0	1.255044E+0	1.253889E+0	1.270968E+0	1.307969E+0	1.214822E+0	1.221564E+0	1.248446E+0	1.238308E+0	1.230395E+0	1.291549E+0	1.225977E+0	1.192648E+0	1.265696E+0	1.255017E+0	1.261876E+0	1.284790E+0	1.226927E+0	1.256816E+0	1.268274E+0	1.308251E+0	1.232513E+0	1.251326E+0	1.259886E+0	1.217503E+0	1.263470E+0	1.241907E+0	1.299064E+0	1.249101E+0	1.192537E+0	1.285492E+0	1.266691E+0	1.237629E+0	1.207049E+0	1.255151E+0	1.222714E+0	1.229338E+0	1.291737E+0	1.258958E+0	1.264769E+0	1.261317E+0	1.298094E+0	1.254504E+0	1.323610E+0	1.244655E+0	1.258093E+0	1.232094E+0	1.241971E+0	1.278133E+0	1.330645E+0	1.270541E+0	1.254422E+0	1.264665E+0	1.196948E+0	1.258942E+0	1.237818E+0	1.237150E+0	1.171869E+0	1.216191E+0	1.277693E+0	1.286861E+0	1.240732E+0	1.364966E+0	1.272802E+0	1.225641E+0	1.297106E+0	1.237521E+0	1.247733E+0	1.242079E+0	1.249838E+0	1.246030E+0	1.269965E+0	1.274175E+0	1.274731E+0	1.245778E+0	1.263025E+0	1.262332E+0	1.214934E+0	1.262458E+0	1.222757E+0	1.249643E+0	1.253056E+0	1.313585E+0	1.256208E+0	1.271084E+0	1.219849E+0	1.241820E+0	1.272758E+0	1.289840E+0	1.255684E+0	1.217725E+0	1.231277E+0	1.248300E+0	1.236980E+0	1.258753E+0	1.310681E+0	1.280325E+0	1.245789E+0	1.239826E+0	1.233964E+0	1.307660E+0	1.269289E+0	1.277379E+0	1.243740E+0	1.270898E+0	1.202230E+0	1.253124E+0	1.273333E+0
2.872090E+2	8.637802E-1	9.084026E-1	9.552546E-1	9.537842E-1	9.867288E-1	8.935414E-1	9.205340E-1	9.253739E-1	9.420703E-1	9.424280E-1	9.416364E-1	1.011260E+0	9.373853E-1	9.135159E-1	9.906280E-1	1.005276E+0	9.600555E-1	9.278410E-1	9.692501E-1	9.635960E-1	9.578252E-1	9.524608E-1	9.714787E-1	9.487087E-1	9.468087E-1	9.600633E-1	8.970097E-1	8.677999E-1	9.268308E-1	9.502127E-1	9.579579E-1	9.407216E-1	9.327016E-1	9.773754E-1	9.186808E-1	9.743438E-1	9.073202E-1	9.181552E-1	9.496767E-1	9.311360E-1	9.306272E-1	9.724321E-1	9.310176E-1	9.369946E-1	9.261160E-1	9.169603E-1	9.589308E-1	9.841528E-1	9.020354E-1	9.233285E-1	9.252740E-1	9.427764E-1	9.523137E-1	9.620116E-1	9.831697E-1	9.419671E-1	9.705788E-1	9.456028E-1	9.489258E-1	9.744989E-1	9.189409E-1	8.927345E-1	9.622667E-1	9.426185E-1	9.322256E-1	9.313986E-1	9.421482E-1	9.051503E-1	9.993458E-1	9.415204E-1	9.143544E-1	9.733001E-1	9.310211E-1	9.354192E-1	9.388315E-1	9.051430E-1	8.928561E-1	8.810920E-1	9.639623E-1	9.267272E-1	8.900954E-1	9.320184E-1	9.562906E-1	9.177140E-1	9.588827E-1	9.774307E-1	9.442928E-1	9.776499E-1	9.772188E-1	9.109938E-1	1.015197E+0	8.957854E-1	9.653352E-1	8.657606E-1	9.413845E-1	9.480943E-1	9.463744E-1	9.723991E-1	1.017056E+0	9.585628E-1	9.160581E-1	9.209252E-1	9.076699E-1	9.270285E-1	9.764086E-1	9.099065E-1	9.463595E-1	9.314120E-1	9.581400E-1	9.536563E-1	9.683006E-1	9.411656E-1	9.584079E-1	1.007938E+0	9.582369E-1	9.356541E-1	9.210565E-1	9.425772E-1	9.436920E-1	1.010066E+0	9.581072E-1	9.212988E-1	8.946775E-1	9.674660E-1	9.767911E-1	9.644461E-1	9.664341E-1	9.824840E-1	9.468603E-1	9.638774E-1	9.380381E-1	9.353332E-1	9.646900E-1	9.780981E-1	9.259949E-1	9.298864E-1	9.924270E-1	9.503524E-1	9.413508E-1	9.228220E-1	9.509052E-1	9.514793E-1	9.306306E-1	9.864467E-1	9.040165E-1	8.977540E-1	1.036686E+0	8.968399E-1	9.506411E-1	9.435958E-1	9.600206E-1	9.120523E-1	9.734865E-1	9.323699E-1	9.435203E-1	9.449188E-1	9.269929E-1	9.450417E-1	9.620000E-1	9.505660E-1	9.306302E-1	9.555002E-1	9.709624E-1	9.663741E-1	9.603028E-1	9.278056E-1	9.464438E-1	9.663685E-1	9.240459E-1	9.571467E-1	9.705657E-1	8.853441E-1
2.874030E+2	8.971166E-1	8.834886E-1	8.163432E-1	8.382893E-1	8.279831E-1	8.648224E-1	8.943627E-1	8.663066E-1	8.496089E-1	8.243406E-1	8.525024E-1	8.780318E-1	8.811923E-1	8.292503E-1	8.801611E-1	8.815340E-1	8.973203E-1	8.024971E-1	8.732172E-1	8.791109E-1	9.638300E-1	8.637252E-1	8.884185E-1	8.541178E-1	8.633673E-1	8.109152E-1	8.143786E-1	8.391847E-1	9.035670E-1	9.064369E-1	8.962057E-1	9.077472E-1	9.007709E-1	8.975872E-1	8.582652E-1	8.786452E-1	9.093830E-1	8.855123E-1	9.071913E-1	8.841060E-1	8.645213E-1	8.369701E-1	8.516528E-1	8.344768E-1	8.817162E-1	8.321439E-1	8.341278E-1	9.339453E-1	8.659389E-1	8.570592E-1	8.486316E-1	8.224013E-1	8.569448E-1	8.485909E-1	9.115694E-1	8.905980E-1	9.140558E-1	8.558234E-1	8.485990E-1	8.437844E-1	8.412525E-1	8.624451E-1	8.729068E-1	8.778222E-1	8.327206E-1	8.378306E-1	9.441843E-1	8.090694E-1	8.816959E-1	9.038912E-1	8.610602E-1	9.367552E-1	8.766042E-1	8.596739E-1	8.485035E-1	8.697110E-1	8.513049E-1	8.285415E-1	8.442120E-1	8.655208E-1	8.705520E-1	8.364252E-1	9.292448E-1	8.470148E-1	8.688656E-1	8.416385E-1	8.436122E-1	8.584969E-1	8.448255E-1	8.776989E-1	8.673542E-1	8.722269E-1	8.362579E-1	8.565868E-1	8.487212E-1	9.078105E-1	8.729532E-1	8.562799E-1	8.915693E-1	8.764293E-1	8.514793E-1	8.408237E-1	8.124177E-1	8.852334E-1	9.014528E-1	8.625456E-1	8.776720E-1	8.391114E-1	8.599595E-1	8.746207E-1	8.553171E-1	8.772581E-1	8.769469E-1	9.280094E-1	8.838839E-1	9.047758E-1	8.702807E-1	8.583530E-1	8.464881E-1	8.585771E-1	8.565613E-1	8.019475E-1	8.468260E-1	8.700260E-1	9.090814E-1	9.103017E-1	9.197162E-1	9.179000E-1	8.861938E-1	9.460439E-1	8.969606E-1	8.652989E-1	8.973645E-1	8.492331E-1	8.249544E-1	8.921275E-1	8.863432E-1	8.772487E-1	8.879947E-1	8.812589E-1	8.721461E-1	8.291968E-1	9.260708E-1	8.828704E-1	9.022610E-1	9.195035E-1	9.321265E-1	8.972664E-1	9.396621E-1	8.376787E-1	8.889124E-1	9.078850E-1	8.733064E-1	8.404321E-1	9.024098E-1	8.695940E-1	8.958362E-1	8.472587E-1	9.039205E-1	9.323286E-1	8.791043E-1	8.812723E-1	8.777449E-1	8.979872E-1	8.923720E-1	9.135723E-1	8.796616E-1	8.375236E-1	8.774940E-1	9.090156E-1	9.341901E-1	8.515541E-1
2.876140E+2	8.235563E-1	7.964471E-1	8.318862E-1	8.206236E-1	8.096728E-1	8.318077E-1	8.581309E-1	8.309963E-1	8.553441E-1	8.238321E-1	8.595584E-1	8.222209E-1	7.814325E-1	7.797255E-1	8.797483E-1	8.780254E-1	7.923521E-1	7.990915E-1	8.737587E-1	7.628847E-1	8.441647E-1	8.363752E-1	7.848779E-1	8.241231E-1	8.345490E-1	7.863918E-1	7.947639E-1	8.250301E-1	8.496883E-1	8.354373E-1	8.570897E-1	8.661342E-1	8.903169E-1	7.705114E-1	8.798865E-1	8.587403E-1	8.367205E-1	8.241766E-1	8.079406E-1	8.083918E-1	8.272874E-1	7.807189E-1	8.447995E-1	8.073355E-1	8.103024E-1	8.323335E-1	8.512515E-1	8.719559E-1	8.573213E-1	8.365472E-1	8.127131E-1	8.848058E-1	8.265380E-1	8.270399E-1	8.206786E-1	7.926589E-1	8.053640E-1	8.032148E-1	8.695847E-1	8.232431E-1	8.180108E-1	7.862048E-1	8.284108E-1	8.518776E-1	7.828876E-1	8.249287E-1	8.650217E-1	8.345844E-1	8.267578E-1	8.643700E-1	8.333863E-1	8.376921E-1	8.198470E-1	8.461963E-1	8.041762E-1	8.281588E-1	8.256773E-1	7.821656E-1	8.673015E-1	8.293430E-1	8.209893E-1	8.531937E-1	8.315519E-1	8.403445E-1	8.313122E-1	8.676350E-1	8.307124E-1	8.704972E-1	7.811446E-1	8.231485E-1	7.782975E-1	8.420269E-1	8.867275E-1	8.128089E-1	8.406339E-1	8.204102E-1	8.545562E-1	8.446353E-1	8.792109E-1	8.002189E-1	7.872140E-1	7.809540E-1	8.340245E-1	8.118368E-1	7.934792E-1	8.015657E-1	8.348306E-1	7.830226E-1	8.505038E-1	7.939279E-1	8.250528E-1	8.133662E-1	8.339537E-1	8.693904E-1	9.119835E-1	7.870789E-1	7.638539E-1	7.653440E-1	8.659032E-1	8.122061E-1	8.575499E-1	8.114301E-1	8.266017E-1	8.357757E-1	8.320932E-1	8.250626E-1	8.769424E-1	8.483603E-1	7.976782E-1	8.775751E-1	7.868292E-1	8.991427E-1	8.308046E-1	7.938493E-1	7.747224E-1	8.379859E-1	8.161392E-1	7.824221E-1	8.104852E-1	8.866168E-1	8.721029E-1	8.493513E-1	8.669961E-1	8.455979E-1	7.974649E-1	8.509377E-1	8.149496E-1	8.331689E-1	8.382053E-1	8.135701E-1	8.273775E-1	8.604109E-1	8.179798E-1	8.021473E-1	8.195706E-1	8.523079E-1	8.290798E-1	8.035445E-1	8.793314E-1	8.124787E-1	8.094099E-1	8.140756E-1	7.877551E-1	8.391734E-1	8.595250E-1	8.427842E-1	8.481659E-1	8.576962E-1	8.822107E-1	8.278999E-1	8.212416E-1	8.060058E-1
2.878000E+2	8.236094E-1	7.730784E-1	7.799524E-1	7.438545E-1	8.149610E-1	7.957947E-1	7.449056E-1	8.161995E-1	8.314285E-1	7.949873E-1	8.001704E-1	7.499243E-1	8.053878E-1	8.063646E-1	8.445168E-1	8.177739E-1	8.195813E-1	7.776414E-1	8.344109E-1	7.923300E-1	8.379614E-1	8.074901E-1	7.809754E-1	7.696265E-1	8.076640E-1	7.426491E-1	7.772783E-1	8.110812E-1	8.014812E-1	8.094973E-1	7.803716E-1	7.853394E-1	8.075576E-1	8.192277E-1	8.133514E-1	7.737698E-1	7.659132E-1	7.542653E-1	7.874327E-1	8.123654E-1	7.845647E-1	7.648659E-1	7.842033E-1	7.948703E-1	8.279589E-1	7.754450E-1	8.448800E-1	8.474256E-1	8.166971E-1	7.840659E-1	7.643629E-1	8.581570E-1	8.593832E-1	7.817637E-1	8.117313E-1	7.548901E-1	8.379967E-1	7.993332E-1	8.151296E-1	8.152002E-1	7.667391E-1	7.984848E-1	7.920352E-1	8.069709E-1	7.987120E-1	7.723128E-1	7.962898E-1	8.347889E-1	8.291113E-1	7.772406E-1	8.121886E-1	8.361064E-1	7.930572E-1	8.003486E-1	7.909259E-1	7.586249E-1	8.216694E-1	8.038402E-1	8.682266E-1	8.065258E-1	7.743840E-1	8.152399E-1	8.338142E-1	7.409813E-1	7.985569E-1	7.866660E-1	7.942585E-1	7.885354E-1	8.155696E-1	8.173214E-1	8.091531E-1	7.863234E-1	7.967825E-1	8.017973E-1	8.179388E-1	8.020798E-1	7.855573E-1	8.171946E-1	8.051468E-1	8.084952E-1	7.968913E-1	7.554408E-1	8.242294E-1	7.796468E-1	8.295557E-1	8.312633E-1	7.740237E-1	7.979860E-1	7.955648E-1	8.045320E-1	8.143061E-1	7.793245E-1	7.752148E-1	8.349403E-1	8.190925E-1	7.987091E-1	8.048922E-1	8.067365E-1	8.426216E-1	7.853493E-1	8.276056E-1	7.814523E-1	7.710582E-1	8.622753E-1	7.914909E-1	7.678672E-1	8.292432E-1	7.673257E-1	8.061182E-1	8.486556E-1	8.602630E-1	8.295546E-1	8.289819E-1	8.063574E-1	8.160804E-1	8.280689E-1	7.577289E-1	7.934370E-1	7.972628E-1	8.249359E-1	8.416164E-1	8.332894E-1	8.222391E-1	7.908039E-1	8.087416E-1	7.921850E-1	8.429442E-1	7.941600E-1	8.671102E-1	7.773362E-1	8.353573E-1	8.197458E-1	8.006598E-1	8.154611E-1	8.231220E-1	7.907410E-1	8.173349E-1	8.143433E-1	8.414622E-1	8.771968E-1	7.767201E-1	8.190093E-1	8.115431E-1	8.392038E-1	8.894999E-1	7.894616E-1	8.249954E-1	8.039527E-1	8.099045E-1	8.070121E-1	8.087152E-1	7.533956E-1
2.880040E+2	7.798919E-1	7.802521E-1	7.985848E-1	7.438880E-1	7.683039E-1	7.682960E-1	7.484782E-1	7.406053E-1	8.188455E-1	7.666522E-1	8.308529E-1	8.178523E-1	7.773313E-1	7.894943E-1	7.962541E-1	7.798247E-1	7.703319E-1	7.769790E-1	8.285832E-1	7.621979E-1	8.144785E-1	8.179539E-1	7.556399E-1	7.913994E-1	7.796925E-1	8.033934E-1	7.847404E-1	7.606211E-1	7.581179E-1	7.402929E-1	7.706482E-1	7.665959E-1	7.460381E-1	7.648356E-1	7.828623E-1	8.408679E-1	8.077692E-1	7.335154E-1	8.149799E-1	8.026849E-1	8.177302E-1	7.591558E-1	7.813548E-1	7.257975E-1	7.690353E-1	7.377609E-1	7.972424E-1	8.105993E-1	7.940540E-1	7.598499E-1	7.449675E-1	7.765138E-1	8.153401E-1	7.549621E-1	7.875620E-1	7.521484E-1	7.615678E-1	7.370302E-1	7.868980E-1	7.613683E-1	7.566530E-1	7.196509E-1	8.151217E-1	7.775600E-1	7.506552E-1	7.347701E-1	7.912520E-1	8.350002E-1	7.836977E-1	7.809587E-1	7.311649E-1	7.965443E-1	8.022475E-1	7.901812E-1	7.417136E-1	7.798131E-1	7.800572E-1	7.729252E-1	8.297352E-1	8.192882E-1	7.855259E-1	7.715770E-1	7.817721E-1	7.704063E-1	7.710696E-1	7.909436E-1	7.522801E-1	8.060924E-1	7.803729E-1	8.169416E-1	7.479983E-1	8.082337E-1	7.754624E-1	7.657625E-1	7.517043E-1	7.648140E-1	7.711528E-1	8.187836E-1	7.593529E-1	8.143673E-1	7.797064E-1	7.951198E-1	7.877736E-1	8.010828E-1	7.583351E-1	7.805134E-1	7.773529E-1	7.656813E-1	7.815375E-1	7.814463E-1	7.711549E-1	8.124537E-1	7.614348E-1	7.915936E-1	7.403237E-1	7.810964E-1	7.548710E-1	7.381887E-1	7.452883E-1	7.777166E-1	8.008016E-1	7.652759E-1	7.724813E-1	7.907046E-1	8.158649E-1	7.838201E-1	8.033832E-1	7.230079E-1	7.985847E-1	7.729102E-1	7.687234E-1	8.023356E-1	8.203466E-1	7.546400E-1	7.634412E-1	8.082934E-1	7.579836E-1	8.072077E-1	7.808583E-1	7.962216E-1	7.876595E-1	7.799131E-1	8.085940E-1	7.619803E-1	7.675394E-1	8.107586E-1	8.297029E-1	7.928848E-1	7.655998E-1	7.698099E-1	8.055686E-1	8.269592E-1	8.053871E-1	7.170851E-1	7.902978E-1	7.895622E-1	7.458280E-1	7.647642E-1	8.240784E-1	8.094427E-1	7.786996E-1	8.107901E-1	8.073933E-1	7.969000E-1	7.960955E-1	8.079687E-1	8.105477E-1	7.974517E-1	7.861745E-1	7.278005E-1	8.060891E-1	7.634814E-1
2.882060E+2	7.830742E-1	7.267628E-1	7.275346E-1	7.057452E-1	7.408277E-1	6.720465E-1	7.032099E-1	7.232478E-1	7.379179E-1	7.219943E-1	7.342979E-1	7.282317E-1	7.122028E-1	7.539232E-1	7.416072E-1	7.232565E-1	7.312131E-1	7.376973E-1	7.478223E-1	7.211118E-1	7.928849E-1	7.063221E-1	7.724483E-1	7.540436E-1	7.623742E-1	7.731384E-1	7.311352E-1	7.101862E-1	7.908039E-1	7.418235E-1	7.526917E-1	7.326131E-1	7.224545E-1	7.067384E-1	7.382306E-1	7.395012E-1	7.136076E-1	7.016569E-1	7.683887E-1	7.463095E-1	7.550292E-1	7.115509E-1	6.966051E-1	7.424057E-1	6.973634E-1	7.239581E-1	7.586102E-1	7.616033E-1	7.546865E-1	7.536337E-1	7.535897E-1	7.085784E-1	7.349475E-1	7.571152E-1	7.934475E-1	7.845168E-1	7.579560E-1	7.283010E-1	7.422733E-1	7.659222E-1	7.248869E-1	7.549155E-1	7.373305E-1	7.776836E-1	7.313488E-1	7.145381E-1	7.453521E-1	8.393514E-1	7.459050E-1	7.184875E-1	7.488022E-1	7.673829E-1	7.214504E-1	7.517282E-1	7.093711E-1	7.330741E-1	6.962050E-1	7.135049E-1	7.534771E-1	7.625913E-1	7.190196E-1	7.549001E-1	7.330770E-1	7.390047E-1	7.343901E-1	7.713872E-1	7.389859E-1	7.813197E-1	7.636599E-1	7.195328E-1	7.008669E-1	7.325468E-1	7.506917E-1	6.893006E-1	7.096306E-1	7.502145E-1	7.355565E-1	7.458638E-1	7.470250E-1	7.521463E-1	7.227350E-1	7.459181E-1	7.563329E-1	7.180647E-1	7.359464E-1	7.640624E-1	7.296613E-1	7.451080E-1	7.147514E-1	7.214478E-1	7.286422E-1	7.029040E-1	7.325467E-1	7.887685E-1	7.568527E-1	7.337726E-1	7.402915E-1	7.216674E-1	7.690018E-1	7.335240E-1	7.312866E-1	7.483753E-1	6.991216E-1	7.302420E-1	7.877993E-1	7.559482E-1	7.914414E-1	7.432750E-1	7.058527E-1	7.690824E-1	7.288728E-1	7.344197E-1	7.739629E-1	7.430482E-1	7.133569E-1	7.096265E-1	7.231914E-1	7.541089E-1	7.508377E-1	7.394160E-1	7.253624E-1	7.553272E-1	7.289514E-1	7.518147E-1	7.558347E-1	7.802568E-1	7.477120E-1	7.313719E-1	7.835403E-1	7.381204E-1	7.557414E-1	7.262191E-1	7.395766E-1	7.260052E-1	7.768473E-1	7.369083E-1	7.376321E-1	7.813896E-1	7.707881E-1	8.007286E-1	7.735653E-1	7.431391E-1	7.803331E-1	7.675878E-1	7.550328E-1	7.528030E-1	7.395623E-1	7.641496E-1	8.077838E-1	7.683873E-1	8.361769E-1	7.621452E-1
2.884230E+2	9.128699E-1	9.439232E-1	9.044060E-1	9.000769E-1	9.284048E-1	9.206163E-1	8.761111E-1	9.314755E-1	9.527436E-1	9.394429E-1	9.321654E-1	9.162101E-1	9.213853E-1	9.329259E-1	9.235823E-1	9.436955E-1	9.217809E-1	9.206391E-1	9.426069E-1	9.590082E-1	9.483111E-1	9.234456E-1	9.269648E-1	9.382077E-1	9.316952E-1	9.247847E-1	8.847745E-1	9.344185E-1	8.799917E-1	9.783414E-1	9.392785E-1	9.743839E-1	9.413937E-1	9.474805E-1	9.799331E-1	9.660345E-1	9.411142E-1	9.533120E-1	8.907878E-1	1.013419E+0	8.980804E-1	9.424370E-1	9.114477E-1	9.917910E-1	9.487037E-1	9.391572E-1	9.278588E-1	9.750547E-1	9.758783E-1	9.623660E-1	9.233540E-1	8.921787E-1	9.380382E-1	9.412903E-1	9.730164E-1	9.079616E-1	9.255930E-1	9.364175E-1	9.709870E-1	8.957592E-1	9.200629E-1	9.591287E-1	9.184961E-1	9.280991E-1	9.715626E-1	9.550716E-1	9.057537E-1	9.728668E-1	9.755482E-1	8.897626E-1	8.804806E-1	9.163760E-1	9.241013E-1	9.703170E-1	9.230060E-1	8.992205E-1	9.033767E-1	9.131062E-1	9.685684E-1	9.634432E-1	9.128500E-1	8.994742E-1	9.853696E-1	9.233067E-1	9.370652E-1	9.699094E-1	9.122988E-1	9.599076E-1	8.999394E-1	9.507886E-1	9.373442E-1	8.923542E-1	8.867841E-1	8.744699E-1	9.327101E-1	9.985859E-1	1.001639E+0	9.251098E-1	9.306661E-1	9.814641E-1	9.439037E-1	9.324883E-1	9.438047E-1	9.186438E-1	9.692390E-1	8.314760E-1	9.214665E-1	9.616676E-1	9.271986E-1	9.225418E-1	9.444952E-1	9.973010E-1	9.524756E-1	9.753014E-1	9.577660E-1	9.457949E-1	9.181429E-1	9.492521E-1	9.359683E-1	1.005545E+0	9.432470E-1	9.647247E-1	9.120209E-1	9.948566E-1	9.381984E-1	9.801241E-1	9.733765E-1	1.013897E+0	9.450578E-1	9.669045E-1	8.804197E-1	9.360005E-1	9.179035E-1	8.979526E-1	9.729999E-1	9.868869E-1	9.528454E-1	9.109811E-1	9.102884E-1	9.266950E-1	9.360962E-1	8.957271E-1	9.627549E-1	9.501576E-1	9.452889E-1	9.571580E-1	9.284601E-1	8.891599E-1	9.975124E-1	9.044258E-1	9.324983E-1	9.519380E-1	9.913039E-1	9.777699E-1	1.030874E+0	9.805647E-1	9.000468E-1	9.261767E-1	9.421660E-1	9.340014E-1	9.779423E-1	9.344440E-1	9.825981E-1	9.116194E-1	9.529802E-1	9.391596E-1	9.749228E-1	9.385406E-1	1.014929E+0	1.013646E+0	1.015819E+0	8.891816E-1
2.886030E+2	1.201496E+0	1.242579E+0	1.172852E+0	1.116610E+0	1.200661E+0	1.189595E+0	1.156056E+0	1.205941E+0	1.190956E+0	1.186917E+0	1.210798E+0	1.134853E+0	1.188817E+0	1.137126E+0	1.211886E+0	1.211741E+0	1.180724E+0	1.125662E+0	1.210963E+0	1.158402E+0	1.225241E+0	1.123191E+0	1.224176E+0	1.144721E+0	1.174765E+0	1.149522E+0	1.140433E+0	1.201639E+0	1.152673E+0	1.206101E+0	1.241478E+0	1.145225E+0	1.247631E+0	1.205458E+0	1.195538E+0	1.259512E+0	1.204830E+0	1.162385E+0	1.203596E+0	1.200690E+0	1.150994E+0	1.191591E+0	1.118891E+0	1.155744E+0	1.139920E+0	1.161733E+0	1.178435E+0	1.245140E+0	1.152177E+0	1.169218E+0	1.127112E+0	1.230188E+0	1.211287E+0	1.204640E+0	1.184529E+0	1.204201E+0	1.217707E+0	1.166439E+0	1.204024E+0	1.196360E+0	1.168865E+0	1.142156E+0	1.266997E+0	1.218906E+0	1.241506E+0	1.146366E+0	1.207717E+0	1.209759E+0	1.216916E+0	1.162909E+0	1.179854E+0	1.161374E+0	1.219225E+0	1.188879E+0	1.143472E+0	1.196290E+0	1.218118E+0	1.180541E+0	1.192840E+0	1.217102E+0	1.146243E+0	1.144631E+0	1.238773E+0	1.158713E+0	1.115692E+0	1.125031E+0	1.199308E+0	1.174345E+0	1.212148E+0	1.204895E+0	1.151998E+0	1.212115E+0	1.208720E+0	1.148612E+0	1.196850E+0	1.200043E+0	1.216321E+0	1.158831E+0	1.233107E+0	1.246945E+0	1.172380E+0	1.115553E+0	1.204999E+0	1.204994E+0	1.179904E+0	1.127651E+0	1.222387E+0	1.225374E+0	1.175322E+0	1.202626E+0	1.197906E+0	1.226528E+0	1.144193E+0	1.270496E+0	1.167229E+0	1.208927E+0	1.144062E+0	1.147427E+0	1.192075E+0	1.239774E+0	1.227833E+0	1.163525E+0	1.187865E+0	1.243153E+0	1.189256E+0	1.204306E+0	1.211672E+0	1.183615E+0	1.212648E+0	1.187126E+0	1.161226E+0	1.085527E+0	1.175390E+0	1.097536E+0	1.154278E+0	1.207929E+0	1.150298E+0	1.176711E+0	1.156593E+0	1.206095E+0	1.217066E+0	1.105080E+0	1.238611E+0	1.182866E+0	1.148193E+0	1.109435E+0	1.174391E+0	1.291794E+0	1.181794E+0	1.121255E+0	1.185494E+0	1.182853E+0	1.256858E+0	1.194916E+0	1.226076E+0	1.208254E+0	1.113914E+0	1.198098E+0	1.158497E+0	1.237659E+0	1.170626E+0	1.154627E+0	1.184680E+0	1.234233E+0	1.191014E+0	1.157911E+0	1.217865E+0	1.208843E+0	1.225330E+0	1.150496E+0	1.191914E+0	1.189645E+0
2.888170E+2	1.317088E+0	1.235003E+0	1.260555E+0	1.259579E+0	1.283989E+0	1.167923E+0	1.216655E+0	1.245878E+0	1.250940E+0	1.275785E+0	1.276571E+0	1.314647E+0	1.209403E+0	1.232672E+0	1.247506E+0	1.281326E+0	1.236794E+0	1.138598E+0	1.252265E+0	1.252122E+0	1.303207E+0	1.251400E+0	1.189223E+0	1.236100E+0	1.271007E+0	1.224310E+0	1.222543E+0	1.289060E+0	1.282902E+0	1.257833E+0	1.275771E+0	1.279339E+0	1.248765E+0	1.265076E+0	1.234237E+0	1.195821E+0	1.269443E+0	1.255830E+0	1.242580E+0	1.320710E+0	1.263638E+0	1.265257E+0	1.239974E+0	1.257390E+0	1.274734E+0	1.217422E+0	1.291356E+0	1.297135E+0	1.293985E+0	1.268610E+0	1.201926E+0	1.283905E+0	1.343153E+0	1.285131E+0	1.317713E+0	1.251295E+0	1.282440E+0	1.200484E+0	1.247290E+0	1.309989E+0	1.242003E+0	1.289176E+0	1.254198E+0	1.272102E+0	1.268052E+0	1.265308E+0	1.305243E+0	1.227116E+0	1.316738E+0	1.227887E+0	1.216345E+0	1.255429E+0	1.295178E+0	1.206839E+0	1.227182E+0	1.230689E+0	1.273646E+0	1.258520E+0	1.272566E+0	1.222410E+0	1.300176E+0	1.237184E+0	1.262255E+0	1.282842E+0	1.236083E+0	1.244415E+0	1.208972E+0	1.273200E+0	1.312474E+0	1.300708E+0	1.220319E+0	1.266853E+0	1.243128E+0	1.241279E+0	1.233627E+0	1.309234E+0	1.245399E+0	1.208484E+0	1.287484E+0	1.174216E+0	1.264465E+0	1.261564E+0	1.250417E+0	1.263031E+0	1.243785E+0	1.226130E+0	1.252911E+0	1.205259E+0	1.211623E+0	1.287432E+0	1.270450E+0	1.296972E+0	1.252277E+0	1.259716E+0	1.263567E+0	1.279248E+0	1.237197E+0	1.212194E+0	1.235225E+0	1.282063E+0	1.248609E+0	1.190757E+0	1.258171E+0	1.301031E+0	1.229552E+0	1.258786E+0	1.303216E+0	1.242857E+0	1.240304E+0	1.212873E+0	1.263314E+0	1.236681E+0	1.325728E+0	1.217155E+0	1.210525E+0	1.266905E+0	1.249934E+0	1.245796E+0	1.268282E+0	1.299721E+0	1.274406E+0	1.225124E+0	1.275686E+0	1.271733E+0	1.225551E+0	1.227834E+0	1.283137E+0	1.187659E+0	1.259553E+0	1.260324E+0	1.228981E+0	1.330436E+0	1.316054E+0	1.245109E+0	1.287666E+0	1.242887E+0	1.253605E+0	1.269745E+0	1.303046E+0	1.254987E+0	1.299265E+0	1.271511E+0	1.218492E+0	1.320039E+0	1.257409E+0	1.270893E+0	1.283670E+0	1.307561E+0	1.332805E+0	1.214696E+0	1.253749E+0	1.144017E+0
2.890150E+2	1.093524E+0	1.039123E+0	1.094515E+0	1.120960E+0	1.043821E+0	1.036415E+0	1.087109E+0	1.088817E+0	1.076412E+0	1.048467E+0	1.113424E+0	1.012333E+0	1.093977E+0	1.107936E+0	1.112319E+0	1.125089E+0	1.102727E+0	1.070024E+0	1.109000E+0	1.105898E+0	1.095098E+0	1.041562E+0	1.106208E+0	1.101256E+0	1.070710E+0	1.074508E+0	1.078011E+0	1.117652E+0	1.138018E+0	1.173829E+0	1.063922E+0	1.131940E+0	1.064725E+0	1.030012E+0	1.060589E+0	1.097686E+0	1.079384E+0	1.135405E+0	1.104362E+0	1.097006E+0	1.068075E+0	1.097463E+0	1.089150E+0	1.090928E+0	1.088597E+0	1.091044E+0	1.077996E+0	1.126605E+0	1.105955E+0	1.091718E+0	9.898712E-1	1.128335E+0	1.096457E+0	1.098902E+0	1.155545E+0	1.058307E+0	1.163619E+0	1.071247E+0	1.036555E+0	1.066263E+0	1.067773E+0	1.086152E+0	1.093094E+0	1.099489E+0	1.083271E+0	1.108642E+0	1.153945E+0	1.108595E+0	1.137816E+0	1.131674E+0	1.094917E+0	1.082986E+0	1.189264E+0	1.068726E+0	1.081486E+0	1.113844E+0	1.065254E+0	1.072297E+0	1.090219E+0	1.093929E+0	1.061072E+0	1.102896E+0	1.130828E+0	1.151993E+0	1.034765E+0	1.102487E+0	1.064317E+0	1.095905E+0	1.089903E+0	1.109166E+0	1.129392E+0	1.096624E+0	1.134345E+0	1.042965E+0	1.084646E+0	1.103357E+0	1.099096E+0	1.061181E+0	1.047157E+0	1.092112E+0	1.032805E+0	1.109711E+0	1.093321E+0	1.103377E+0	1.122999E+0	1.029590E+0	1.131305E+0	1.067898E+0	1.145467E+0	1.094674E+0	1.136498E+0	1.095374E+0	1.112710E+0	1.211108E+0	1.106126E+0	1.059811E+0	1.120571E+0	1.049912E+0	1.116078E+0	1.096261E+0	1.145939E+0	1.054260E+0	1.055075E+0	1.070208E+0	1.084275E+0	1.099825E+0	1.113583E+0	1.161620E+0	1.099590E+0	1.105672E+0	1.115749E+0	1.102881E+0	1.156834E+0	1.141995E+0	1.089003E+0	1.093437E+0	1.100998E+0	1.039151E+0	1.055166E+0	1.176027E+0	1.107935E+0	1.113177E+0	1.092293E+0	1.113402E+0	1.128808E+0	1.082904E+0	1.124914E+0	1.106485E+0	1.067867E+0	1.044591E+0	1.083971E+0	1.141433E+0	1.130006E+0	1.126427E+0	1.059554E+0	1.122247E+0	1.024851E+0	1.140982E+0	1.049401E+0	1.130245E+0	1.146927E+0	1.072477E+0	1.086038E+0	1.157380E+0	1.160648E+0	1.057412E+0	1.075949E+0	1.103170E+0	1.121896E+0	1.103177E+0	1.141780E+0	1.064975E+0
2.892020E+2	8.755413E-1	7.942942E-1	8.419066E-1	7.938904E-1	8.424612E-1	8.048921E-1	8.050322E-1	7.812534E-1	8.797154E-1	8.414532E-1	8.140919E-1	7.610195E-1	7.979459E-1	8.654086E-1	8.139155E-1	8.512315E-1	8.786989E-1	8.216951E-1	8.633588E-1	8.333148E-1	8.021165E-1	8.702109E-1	8.817579E-1	9.021180E-1	8.357509E-1	8.092303E-1	7.728047E-1	8.115416E-1	8.569651E-1	8.543364E-1	8.386584E-1	8.475783E-1	8.197031E-1	7.957054E-1	8.240407E-1	8.390789E-1	8.134610E-1	8.149727E-1	8.684642E-1	8.607705E-1	8.798091E-1	8.047001E-1	8.647613E-1	8.547204E-1	8.853833E-1	8.415037E-1	8.312537E-1	8.114820E-1	8.417844E-1	8.510766E-1	8.292116E-1	8.729845E-1	8.621874E-1	8.481445E-1	8.162471E-1	8.216737E-1	8.361822E-1	8.034456E-1	8.909846E-1	8.595544E-1	8.521021E-1	8.596686E-1	8.455128E-1	8.850733E-1	8.158271E-1	8.491288E-1	8.745825E-1	8.419066E-1	8.546371E-1	8.571237E-1	7.984258E-1	8.335974E-1	9.036904E-1	8.726394E-1	8.113774E-1	8.030713E-1	8.429410E-1	8.704460E-1	8.897013E-1	8.480367E-1	8.241705E-1	7.788438E-1	8.758144E-1	8.829483E-1	8.136249E-1	8.224847E-1	8.051945E-1	8.551446E-1	7.908599E-1	8.331634E-1	8.349284E-1	8.022600E-1	8.422864E-1	8.528858E-1	8.367966E-1	8.451098E-1	8.105474E-1	8.697027E-1	8.612122E-1	8.430516E-1	8.194507E-1	8.792979E-1	8.150175E-1	8.427182E-1	8.101441E-1	8.322028E-1	8.597777E-1	8.876361E-1	8.359156E-1	8.791737E-1	8.324933E-1	8.956376E-1	8.609411E-1	8.681766E-1	8.807978E-1	8.455885E-1	8.270007E-1	8.157520E-1	8.402649E-1	8.586731E-1	8.741036E-1	8.485076E-1	7.955427E-1	8.410819E-1	8.507040E-1	8.432137E-1	8.496860E-1	8.204475E-1	8.292876E-1	8.534745E-1	8.161313E-1	8.952370E-1	8.540060E-1	8.508067E-1	8.456490E-1	8.554576E-1	8.483174E-1	8.614294E-1	7.944830E-1	9.152994E-1	8.907670E-1	8.206381E-1	8.435922E-1	8.622323E-1	8.566879E-1	8.085869E-1	8.486712E-1	9.530596E-1	8.057386E-1	8.580554E-1	7.889100E-1	8.480373E-1	8.863222E-1	8.094934E-1	8.926049E-1	8.371876E-1	8.647074E-1	8.654854E-1	8.137812E-1	8.797664E-1	8.458299E-1	8.107611E-1	8.175687E-1	8.911582E-1	8.691044E-1	8.059861E-1	8.268319E-1	8.473671E-1	8.915391E-1	8.542024E-1	8.216662E-1	7.977150E-1
2.894020E+2	8.290834E-1	8.554021E-1	8.321272E-1	8.192157E-1	8.569988E-1	8.411981E-1	8.168968E-1	8.560331E-1	8.550508E-1	8.420117E-1	8.532805E-1	8.454221E-1	8.528024E-1	8.503109E-1	8.561680E-1	8.484403E-1	8.416527E-1	8.090885E-1	8.784090E-1	8.288163E-1	8.128612E-1	7.828335E-1	8.554742E-1	8.238217E-1	8.170792E-1	8.116134E-1	7.968654E-1	8.461349E-1	8.246683E-1	9.175983E-1	8.157531E-1	8.641661E-1	8.340944E-1	8.475822E-1	8.002453E-1	8.114244E-1	8.347424E-1	7.995313E-1	8.114848E-1	8.900353E-1	8.558727E-1	8.178463E-1	8.513818E-1	8.166311E-1	8.415591E-1	8.388093E-1	8.387553E-1	8.934455E-1	8.301226E-1	8.458599E-1	8.316452E-1	7.997485E-1	8.843669E-1	8.563750E-1	8.549309E-1	8.457248E-1	8.708370E-1	8.261506E-1	7.951135E-1	8.372158E-1	8.314772E-1	8.354221E-1	8.448698E-1	7.898750E-1	8.692642E-1	7.994367E-1	8.272194E-1	8.614808E-1	8.732946E-1	8.236512E-1	8.403565E-1	8.026638E-1	8.775591E-1	8.465660E-1	8.134653E-1	8.268048E-1	7.806352E-1	8.012911E-1	8.281816E-1	8.364679E-1	8.598407E-1	8.455012E-1	8.236829E-1	8.646420E-1	8.392832E-1	8.601163E-1	8.065509E-1	8.335653E-1	8.662307E-1	8.128336E-1	8.235577E-1	8.177157E-1	8.766857E-1	8.140503E-1	8.144618E-1	8.933692E-1	9.062287E-1	8.265161E-1	8.338908E-1	8.638012E-1	7.992442E-1	8.386836E-1	8.260074E-1	8.716543E-1	7.928322E-1	8.099695E-1	8.651455E-1	8.639118E-1	8.661975E-1	8.303731E-1	8.388502E-1	8.358285E-1	8.389671E-1	9.082510E-1	8.302441E-1	7.966960E-1	8.232820E-1	8.124477E-1	8.121194E-1	8.747962E-1	8.166185E-1	8.186406E-1	8.079547E-1	8.758940E-1	8.823744E-1	8.063075E-1	8.433549E-1	8.713314E-1	8.670347E-1	8.585458E-1	8.406887E-1	8.843461E-1	8.805832E-1	8.096408E-1	8.620091E-1	8.554066E-1	8.564924E-1	8.477287E-1	8.305114E-1	9.014919E-1	8.290132E-1	8.076968E-1	7.911798E-1	8.474945E-1	8.292940E-1	8.679745E-1	8.829371E-1	8.437724E-1	8.589657E-1	8.182637E-1	8.346429E-1	8.871151E-1	8.802711E-1	8.124816E-1	8.248524E-1	7.694985E-1	8.700891E-1	8.413992E-1	8.326159E-1	8.475633E-1	8.006251E-1	8.345231E-1	8.156419E-1	8.320134E-1	8.639146E-1	8.535568E-1	8.235750E-1	8.371726E-1	9.419135E-1	8.028777E-1	8.872349E-1	8.326170E-1
2.896060E+2	8.573571E-1	8.844739E-1	9.354278E-1	8.847062E-1	9.133006E-1	8.369282E-1	8.761644E-1	8.465238E-1	8.623110E-1	8.616881E-1	8.769902E-1	8.885515E-1	8.439249E-1	8.693396E-1	9.098691E-1	9.417482E-1	8.663946E-1	8.568349E-1	8.718908E-1	8.851923E-1	9.448195E-1	8.350319E-1	8.722589E-1	8.932096E-1	9.010841E-1	8.754505E-1	8.650590E-1	8.894734E-1	8.591044E-1	8.726206E-1	8.957175E-1	8.891635E-1	8.563368E-1	8.621701E-1	9.036597E-1	9.031361E-1	9.379462E-1	8.721510E-1	8.904429E-1	9.062708E-1	8.310181E-1	8.873502E-1	8.350068E-1	8.365788E-1	8.557995E-1	8.860993E-1	9.169039E-1	8.971021E-1	8.693312E-1	8.644278E-1	8.996496E-1	9.328773E-1	8.825626E-1	8.654772E-1	8.809921E-1	8.340092E-1	9.032714E-1	8.723431E-1	9.211462E-1	9.006331E-1	8.827159E-1	8.975352E-1	9.258493E-1	9.256089E-1	8.330375E-1	8.744071E-1	9.003973E-1	9.358653E-1	8.716905E-1	8.821596E-1	8.677904E-1	8.852512E-1	8.930547E-1	8.787190E-1	8.916910E-1	9.250607E-1	8.685276E-1	8.477487E-1	8.702218E-1	9.271942E-1	8.280602E-1	8.262837E-1	9.054990E-1	8.959183E-1	9.073161E-1	8.983473E-1	9.198350E-1	8.689497E-1	8.938297E-1	8.614806E-1	8.768735E-1	8.702193E-1	8.970626E-1	8.597488E-1	9.038985E-1	9.163203E-1	8.855919E-1	8.442380E-1	8.453371E-1	8.602855E-1	8.840785E-1	8.704278E-1	8.538580E-1	9.018239E-1	9.341920E-1	8.961331E-1	8.653360E-1	8.425971E-1	9.108600E-1	8.530676E-1	9.399319E-1	8.503561E-1	9.195242E-1	9.144406E-1	8.823099E-1	9.257362E-1	9.042704E-1	8.533807E-1	8.945842E-1	8.704698E-1	9.106309E-1	8.967702E-1	8.801182E-1	9.102574E-1	8.922693E-1	8.728176E-1	9.627191E-1	8.949175E-1	8.713642E-1	8.961197E-1	8.269987E-1	8.509896E-1	9.126828E-1	8.678626E-1	8.894214E-1	8.828927E-1	8.780608E-1	8.852912E-1	8.553639E-1	8.765571E-1	9.035027E-1	8.838709E-1	9.342831E-1	8.857326E-1	8.907373E-1	9.326771E-1	9.087136E-1	9.262676E-1	9.168678E-1	8.771567E-1	8.926892E-1	8.944075E-1	9.142939E-1	8.807883E-1	8.963812E-1	9.285121E-1	9.324015E-1	9.097039E-1	9.238233E-1	9.059251E-1	9.139561E-1	8.645727E-1	8.917404E-1	9.236019E-1	8.717972E-1	8.694169E-1	8.817548E-1	8.727760E-1	8.784048E-1	9.313022E-1	8.048330E-1	8.907559E-1
2.898050E+2	8.960820E-1	9.085012E-1	9.282514E-1	8.805174E-1	8.807675E-1	8.876119E-1	9.069626E-1	8.947677E-1	8.877307E-1	8.696562E-1	9.477180E-1	9.238789E-1	8.667111E-1	8.399782E-1	9.014869E-1	9.122356E-1	9.014674E-1	8.796768E-1	8.589258E-1	8.929928E-1	9.126437E-1	8.846237E-1	9.107501E-1	9.002048E-1	8.493534E-1	8.531422E-1	8.904731E-1	8.754594E-1	9.046970E-1	8.950779E-1	9.299930E-1	9.082584E-1	9.151253E-1	8.929055E-1	9.010408E-1	8.932502E-1	8.969467E-1	9.222114E-1	9.432660E-1	9.313383E-1	9.112513E-1	9.207061E-1	8.334368E-1	8.617425E-1	8.839892E-1	8.783663E-1	9.074724E-1	8.751760E-1	8.511521E-1	8.792322E-1	8.272722E-1	9.341822E-1	9.529979E-1	8.309244E-1	8.741264E-1	8.843255E-1	9.395611E-1	8.657357E-1	9.321522E-1	8.264711E-1	9.277516E-1	9.003832E-1	9.358928E-1	9.126047E-1	9.123328E-1	8.950452E-1	8.743398E-1	9.032494E-1	9.249124E-1	8.790327E-1	8.889966E-1	8.752993E-1	8.762409E-1	8.628283E-1	8.344331E-1	9.017603E-1	8.677966E-1	9.673937E-1	9.532313E-1	9.170393E-1	8.881113E-1	8.943663E-1	8.940185E-1	9.417068E-1	8.557354E-1	8.425910E-1	8.742979E-1	9.374263E-1	8.960884E-1	8.592769E-1	9.270316E-1	9.392481E-1	9.000775E-1	8.884908E-1	9.374777E-1	9.173969E-1	9.340165E-1	9.300006E-1	8.645250E-1	9.028802E-1	8.743009E-1	8.278666E-1	9.203618E-1	8.358718E-1	8.974846E-1	8.491470E-1	9.202655E-1	8.638618E-1	8.702548E-1	9.441297E-1	9.099604E-1	8.977939E-1	9.432808E-1	9.588136E-1	9.280494E-1	9.491858E-1	8.952545E-1	8.982865E-1	8.580603E-1	9.196258E-1	8.805273E-1	8.990859E-1	8.968804E-1	9.160068E-1	9.096696E-1	8.677304E-1	9.224179E-1	9.467923E-1	8.972351E-1	8.992795E-1	9.032182E-1	9.146038E-1	8.988220E-1	9.099077E-1	8.887109E-1	9.095359E-1	8.908195E-1	8.865725E-1	8.962444E-1	9.322254E-1	9.938558E-1	9.208033E-1	9.111413E-1	9.018321E-1	8.853845E-1	9.205320E-1	8.780718E-1	9.207391E-1	9.314030E-1	8.866462E-1	8.691740E-1	9.247076E-1	9.233109E-1	8.829736E-1	9.656175E-1	8.967959E-1	8.873641E-1	9.177894E-1	9.154910E-1	8.920691E-1	8.878227E-1	8.881323E-1	8.984801E-1	8.969151E-1	9.647918E-1	9.007233E-1	8.727331E-1	9.234835E-1	8.915185E-1	9.312196E-1	8.664204E-1	8.470141E-1
2.900030E+2	8.520538E-1	8.220256E-1	8.335744E-1	8.178386E-1	7.775610E-1	8.143858E-1	8.144130E-1	8.098412E-1	8.594138E-1	8.101663E-1	8.322747E-1	7.933713E-1	7.952180E-1	8.270477E-1	8.602805E-1	8.207507E-1	8.580771E-1	7.530642E-1	7.795644E-1	8.447797E-1	8.938930E-1	8.172924E-1	8.099110E-1	8.115547E-1	8.206866E-1	8.458492E-1	8.481854E-1	8.256882E-1	8.369089E-1	8.132605E-1	8.117689E-1	8.513495E-1	8.523212E-1	8.115232E-1	8.100217E-1	8.403107E-1	7.949759E-1	8.064681E-1	8.506669E-1	8.964405E-1	8.180949E-1	8.114270E-1	8.300988E-1	8.066939E-1	7.923782E-1	8.215545E-1	8.309587E-1	8.166580E-1	8.132747E-1	8.731054E-1	8.365773E-1	8.522871E-1	8.677869E-1	8.318915E-1	8.445950E-1	8.042472E-1	8.779936E-1	7.939407E-1	8.185283E-1	8.583437E-1	8.729809E-1	8.522722E-1	8.451518E-1	8.702401E-1	8.407266E-1	8.485482E-1	8.476623E-1	7.915842E-1	8.248980E-1	7.994947E-1	8.369443E-1	8.161055E-1	8.667750E-1	7.885879E-1	7.823404E-1	8.576839E-1	8.046144E-1	8.080173E-1	8.552304E-1	8.006017E-1	8.529117E-1	8.809992E-1	8.533025E-1	8.502781E-1	8.430315E-1	8.616526E-1	8.707299E-1	8.484181E-1	8.447326E-1	8.401168E-1	8.027903E-1	8.649014E-1	8.359268E-1	8.178850E-1	8.332239E-1	7.967321E-1	8.203224E-1	8.242143E-1	7.995339E-1	8.627557E-1	8.205768E-1	8.182926E-1	8.411567E-1	8.298571E-1	8.362622E-1	8.500823E-1	8.125549E-1	8.046209E-1	8.163287E-1	8.007980E-1	8.356959E-1	8.709585E-1	8.916233E-1	8.851483E-1	8.108427E-1	8.519592E-1	8.314040E-1	7.458124E-1	8.290445E-1	8.229598E-1	8.319678E-1	7.822915E-1	8.154405E-1	8.507625E-1	8.319264E-1	8.024340E-1	8.646241E-1	8.968214E-1	8.725304E-1	8.589478E-1	8.070280E-1	8.645935E-1	8.597859E-1	8.214375E-1	8.193556E-1	8.605792E-1	8.456926E-1	8.212480E-1	8.241144E-1	8.351460E-1	8.372639E-1	7.929031E-1	8.435196E-1	8.375338E-1	8.725355E-1	8.497961E-1	8.435037E-1	8.404290E-1	8.794011E-1	8.146297E-1	8.180318E-1	8.151915E-1	8.258335E-1	8.228775E-1	8.578467E-1	8.082042E-1	8.391792E-1	8.513379E-1	8.517371E-1	8.442388E-1	8.781969E-1	8.548579E-1	7.916063E-1	8.508075E-1	8.600435E-1	7.785203E-1	8.132108E-1	7.846697E-1	8.427837E-1	8.376823E-1	8.687256E-1	7.741778E-1
2.905230E+2	7.653466E-1	7.703358E-1	7.493009E-1	7.276068E-1	8.149882E-1	7.629760E-1	7.183715E-1	7.718578E-1	7.727265E-1	7.771255E-1	7.645684E-1	7.927426E-1	7.791935E-1	7.654487E-1	8.340996E-1	7.692337E-1	7.940757E-1	7.359113E-1	7.706545E-1	8.087076E-1	8.050078E-1	7.947284E-1	7.181880E-1	7.683727E-1	7.626985E-1	8.081569E-1	8.001191E-1	8.020298E-1	7.746076E-1	7.828557E-1	7.948500E-1	8.118653E-1	8.003685E-1	7.206374E-1	8.410659E-1	7.991468E-1	7.725484E-1	7.479088E-1	7.657840E-1	8.036327E-1	7.805776E-1	7.744302E-1	7.574094E-1	7.787366E-1	7.926658E-1	7.593301E-1	7.892873E-1	7.748286E-1	7.413553E-1	7.897949E-1	7.601496E-1	8.322591E-1	7.462071E-1	7.962616E-1	7.654429E-1	7.795163E-1	7.851228E-1	7.389322E-1	8.332389E-1	7.399181E-1	7.705220E-1	7.695567E-1	7.814458E-1	7.943914E-1	7.633285E-1	7.924578E-1	7.783721E-1	7.636117E-1	8.044428E-1	7.981381E-1	7.488213E-1	7.902555E-1	7.338444E-1	7.356708E-1	7.488687E-1	7.808648E-1	7.790513E-1	7.609376E-1	7.919335E-1	7.694978E-1	7.530447E-1	7.561234E-1	7.958650E-1	7.852535E-1	7.837360E-1	7.689155E-1	8.024901E-1	8.352221E-1	7.425492E-1	7.789388E-1	7.834303E-1	7.601467E-1	7.889518E-1	8.087704E-1	7.577605E-1	7.449355E-1	8.491630E-1	7.869914E-1	7.717210E-1	7.832086E-1	7.620704E-1	7.720818E-1	7.892572E-1	7.565875E-1	8.046319E-1	7.929562E-1	8.260676E-1	7.918310E-1	8.258823E-1	7.995811E-1	8.281804E-1	7.724468E-1	7.995320E-1	8.720337E-1	8.055691E-1	7.901107E-1	7.789914E-1	7.721219E-1	7.525809E-1	7.794375E-1	7.780111E-1	8.099653E-1	7.994892E-1	8.387063E-1	7.903231E-1	8.234656E-1	8.494802E-1	7.780966E-1	7.769762E-1	7.564089E-1	7.317849E-1	7.778066E-1	7.777489E-1	7.609788E-1	8.126469E-1	8.288248E-1	8.193465E-1	7.312740E-1	7.695213E-1	7.629281E-1	8.173679E-1	7.674832E-1	8.311006E-1	8.111362E-1	7.910613E-1	7.800539E-1	8.124821E-1	8.062788E-1	8.128122E-1	7.646758E-1	7.585550E-1	7.496765E-1	8.234037E-1	7.731943E-1	8.126766E-1	7.822655E-1	7.442953E-1	8.035729E-1	7.648844E-1	7.855302E-1	7.675084E-1	7.716668E-1	7.751790E-1	7.756824E-1	8.214151E-1	7.697144E-1	7.673935E-1	7.922854E-1	8.348273E-1	7.547162E-1	7.083023E-1	7.752961E-1
2.910010E+2	9.886188E-1	1.016015E+0	1.037741E+0	9.140148E-1	1.042455E+0	9.548157E-1	9.510629E-1	9.856322E-1	9.757187E-1	1.017345E+0	9.875237E-1	9.796119E-1	9.901762E-1	9.608942E-1	9.761085E-1	9.945412E-1	9.663381E-1	9.535242E-1	9.725906E-1	9.709255E-1	1.041398E+0	9.278444E-1	9.172964E-1	9.862769E-1	9.938727E-1	9.582028E-1	9.196013E-1	9.440784E-1	9.966018E-1	1.005580E+0	1.008693E+0	9.986546E-1	9.621036E-1	9.714264E-1	9.901958E-1	1.002862E+0	1.004491E+0	9.292756E-1	1.035724E+0	1.003286E+0	9.938079E-1	9.615416E-1	1.001373E+0	9.901843E-1	1.012969E+0	9.880851E-1	9.954264E-1	9.796644E-1	9.480142E-1	1.012562E+0	9.391934E-1	9.987135E-1	1.061165E+0	9.894310E-1	1.003648E+0	9.654965E-1	9.353359E-1	1.005746E+0	1.004952E+0	9.782218E-1	9.188548E-1	9.349792E-1	9.714984E-1	9.957957E-1	9.852343E-1	9.866935E-1	1.041305E+0	9.567625E-1	1.000981E+0	9.472344E-1	9.725611E-1	1.024407E+0	9.596924E-1	9.010403E-1	9.917723E-1	9.916274E-1	9.684937E-1	9.556855E-1	9.946511E-1	9.635972E-1	9.775456E-1	9.739933E-1	9.618365E-1	9.807052E-1	9.830698E-1	9.363558E-1	9.866682E-1	1.050851E+0	9.599371E-1	9.682149E-1	1.022106E+0	9.961973E-1	9.817030E-1	9.242435E-1	9.824500E-1	9.346181E-1	9.625703E-1	9.744361E-1	9.541230E-1	9.293185E-1	9.606833E-1	9.826507E-1	9.678173E-1	9.611528E-1	1.009086E+0	9.566989E-1	9.600264E-1	9.746564E-1	1.003705E+0	9.622802E-1	9.758198E-1	9.431355E-1	9.612880E-1	1.007727E+0	9.878278E-1	9.578468E-1	9.627657E-1	9.604345E-1	9.686757E-1	9.404518E-1	9.831044E-1	9.253114E-1	9.849418E-1	9.540186E-1	9.511514E-1	9.723309E-1	1.031699E+0	9.756423E-1	9.980807E-1	9.654074E-1	9.863153E-1	9.655423E-1	1.036342E+0	9.587588E-1	9.522450E-1	9.624114E-1	9.836208E-1	1.008540E+0	9.817872E-1	1.003900E+0	1.007884E+0	1.011023E+0	9.324277E-1	1.040057E+0	9.765949E-1	9.880644E-1	1.013032E+0	9.756188E-1	1.037103E+0	1.003489E+0	9.768928E-1	9.865383E-1	1.018480E+0	9.947939E-1	1.041199E+0	9.510692E-1	9.772704E-1	1.004834E+0	1.029192E+0	1.001194E+0	9.658931E-1	1.032429E+0	9.863190E-1	1.021060E+0	1.048804E+0	9.708084E-1	1.018693E+0	9.481291E-1	1.022358E+0	1.001446E+0	1.010712E+0	1.035240E+0
2.915150E+2	1.149154E+0	1.176684E+0	1.166181E+0	1.157051E+0	1.168589E+0	1.206505E+0	1.173165E+0	1.147126E+0	1.201107E+0	1.157446E+0	1.196459E+0	1.154653E+0	1.156677E+0	1.211718E+0	1.193053E+0	1.180955E+0	1.226660E+0	1.131283E+0	1.230505E+0	1.217927E+0	1.213137E+0	1.192174E+0	1.109914E+0	1.162394E+0	1.216520E+0	1.151979E+0	1.127809E+0	1.140655E+0	1.220865E+0	1.209874E+0	1.192431E+0	1.171332E+0	1.220847E+0	1.134206E+0	1.144111E+0	1.153559E+0	1.165964E+0	1.160131E+0	1.216821E+0	1.170861E+0	1.133709E+0	1.220248E+0	1.168659E+0	1.141371E+0	1.157940E+0	1.128886E+0	1.148187E+0	1.172660E+0	1.172147E+0	1.135565E+0	1.104805E+0	1.211584E+0	1.239296E+0	1.162035E+0	1.213486E+0	1.195157E+0	1.198734E+0	1.157586E+0	1.220929E+0	1.189762E+0	1.122508E+0	1.164434E+0	1.146525E+0	1.138076E+0	1.228587E+0	1.193083E+0	1.172306E+0	1.115583E+0	1.213419E+0	1.246913E+0	1.132670E+0	1.235540E+0	1.256103E+0	1.163304E+0	1.102974E+0	1.176082E+0	1.158193E+0	1.141973E+0	1.270945E+0	1.137787E+0	1.160074E+0	1.161914E+0	1.184854E+0	1.202501E+0	1.163903E+0	1.201730E+0	1.109132E+0	1.234254E+0	1.179572E+0	1.170833E+0	1.177958E+0	1.165099E+0	1.222835E+0	1.187301E+0	1.166591E+0	1.180688E+0	1.168810E+0	1.232041E+0	1.166015E+0	1.155676E+0	1.235374E+0	1.161276E+0	1.199970E+0	1.128916E+0	1.177185E+0	1.185018E+0	1.227178E+0	1.140101E+0	1.183472E+0	1.203393E+0	1.202797E+0	1.204317E+0	1.207713E+0	1.215975E+0	1.184736E+0	1.253764E+0	1.235930E+0	1.167470E+0	1.203354E+0	1.106232E+0	1.249962E+0	1.195506E+0	1.096490E+0	1.241394E+0	1.170420E+0	1.133376E+0	1.262642E+0	1.201427E+0	1.158787E+0	1.159544E+0	1.212919E+0	1.155435E+0	1.222420E+0	1.139778E+0	1.289511E+0	1.154325E+0	1.266964E+0	1.145825E+0	1.178654E+0	1.174236E+0	1.194938E+0	1.143285E+0	1.170071E+0	1.195973E+0	1.195823E+0	1.173076E+0	1.195582E+0	1.147563E+0	1.256056E+0	1.207159E+0	1.127061E+0	1.132948E+0	1.238740E+0	1.136006E+0	1.206531E+0	1.228722E+0	1.190870E+0	1.146034E+0	1.194607E+0	1.124512E+0	1.250866E+0	1.202548E+0	1.150338E+0	1.165268E+0	1.219259E+0	1.159507E+0	1.231824E+0	1.152962E+0	1.157303E+0	1.093603E+0	1.131900E+0	1.154733E+0
2.920030E+2	1.004190E+0	1.055701E+0	1.058630E+0	1.051654E+0	1.084892E+0	1.058428E+0	1.049692E+0	1.018119E+0	1.158074E+0	1.020321E+0	1.088336E+0	1.001752E+0	1.025793E+0	1.061665E+0	1.083242E+0	1.056334E+0	1.048876E+0	1.039440E+0	1.080562E+0	9.995254E-1	1.097657E+0	1.012346E+0	1.034843E+0	1.059192E+0	1.024931E+0	1.023629E+0	1.020837E+0	1.099473E+0	1.105866E+0	1.115524E+0	1.068869E+0	1.053526E+0	1.065536E+0	1.077412E+0	1.028122E+0	1.012728E+0	1.097873E+0	9.930361E-1	1.068949E+0	1.054742E+0	1.027436E+0	1.045068E+0	1.016633E+0	1.013548E+0	1.025246E+0	1.063775E+0	1.081521E+0	1.045637E+0	1.075423E+0	1.079322E+0	1.047471E+0	1.063299E+0	1.091166E+0	1.078970E+0	1.084880E+0	1.036775E+0	1.104414E+0	1.004702E+0	1.079437E+0	1.123212E+0	1.103654E+0	1.037283E+0	1.082686E+0	1.085764E+0	1.021639E+0	1.040635E+0	1.098485E+0	1.056881E+0	1.123250E+0	1.058229E+0	1.022602E+0	1.149531E+0	1.092380E+0	1.030308E+0	1.038663E+0	1.056503E+0	1.070959E+0	1.070143E+0	1.086716E+0	1.051880E+0	1.052736E+0	1.024637E+0	1.076454E+0	1.056314E+0	1.083966E+0	1.007910E+0	1.062621E+0	1.116196E+0	1.029788E+0	1.050744E+0	1.079304E+0	1.084799E+0	1.125310E+0	1.053572E+0	1.034059E+0	1.045010E+0	1.018607E+0	1.053195E+0	1.079298E+0	1.048651E+0	1.071067E+0	1.002115E+0	1.098048E+0	1.093469E+0	1.014524E+0	1.055667E+0	1.027513E+0	1.059113E+0	1.015258E+0	1.060302E+0	1.046792E+0	1.055300E+0	1.015944E+0	1.073878E+0	1.075734E+0	1.079542E+0	1.110763E+0	1.042306E+0	1.091562E+0	1.072400E+0	1.078935E+0	1.131448E+0	1.046896E+0	1.056243E+0	1.123980E+0	1.076426E+0	1.103775E+0	1.084732E+0	1.075766E+0	1.040453E+0	9.969416E-1	1.050161E+0	1.092030E+0	1.102757E+0	1.079245E+0	1.059477E+0	1.013335E+0	1.048389E+0	1.044979E+0	1.066864E+0	1.060443E+0	1.116999E+0	1.127490E+0	1.109597E+0	1.030112E+0	1.089558E+0	1.103547E+0	1.060144E+0	1.124782E+0	1.006709E+0	1.076372E+0	1.025724E+0	1.100025E+0	1.048969E+0	1.107389E+0	1.019647E+0	1.083248E+0	1.023195E+0	1.030602E+0	1.019964E+0	1.143247E+0	1.072622E+0	1.034882E+0	1.074502E+0	1.080333E+0	1.084658E+0	1.049745E+0	1.063163E+0	1.065769E+0	1.041336E+0	9.586826E-1	1.011424E+0
2.925030E+2	1.008128E+0	1.010521E+0	9.708313E-1	1.001937E+0	1.023469E+0	1.002771E+0	1.004675E+0	9.851600E-1	1.057494E+0	1.012905E+0	9.919060E-1	1.024126E+0	1.010485E+0	9.980521E-1	1.035726E+0	1.016433E+0	9.779951E-1	1.005342E+0	1.018085E+0	9.947511E-1	1.062923E+0	1.043305E+0	1.036729E+0	1.065941E+0	9.839361E-1	9.810663E-1	1.028890E+0	1.006600E+0	1.051993E+0	1.041739E+0	1.027560E+0	1.043898E+0	1.026812E+0	1.010860E+0	1.001793E+0	1.029533E+0	1.059317E+0	1.039446E+0	1.059035E+0	1.069716E+0	9.920941E-1	1.010014E+0	1.001922E+0	1.002606E+0	1.025950E+0	9.639457E-1	1.045337E+0	1.048818E+0	9.911597E-1	1.025793E+0	1.023781E+0	1.031189E+0	1.036120E+0	1.020416E+0	1.063801E+0	1.053805E+0	1.059082E+0	9.958750E-1	1.077679E+0	9.927904E-1	1.013756E+0	1.009741E+0	9.742035E-1	1.023659E+0	1.059511E+0	1.047786E+0	1.053059E+0	1.005840E+0	1.012471E+0	1.022549E+0	9.774432E-1	1.085798E+0	1.054469E+0	9.837819E-1	1.027274E+0	1.022601E+0	1.025150E+0	1.047249E+0	1.063141E+0	1.039519E+0	9.940210E-1	1.019757E+0	1.081712E+0	1.059896E+0	1.033164E+0	1.019532E+0	1.028107E+0	1.081189E+0	1.032309E+0	1.036967E+0	9.979112E-1	1.023301E+0	1.015528E+0	1.032881E+0	1.000362E+0	1.060738E+0	1.036202E+0	1.009127E+0	1.014569E+0	1.010269E+0	1.044040E+0	1.011292E+0	1.077862E+0	1.062429E+0	1.029287E+0	9.931084E-1	1.020339E+0	1.023283E+0	1.068289E+0	1.026713E+0	1.084307E+0	1.001847E+0	9.890565E-1	1.042110E+0	1.049825E+0	9.731950E-1	1.038555E+0	9.811451E-1	9.873244E-1	9.923828E-1	1.106041E+0	1.010694E+0	9.841789E-1	1.056673E+0	1.043582E+0	1.001673E+0	1.079406E+0	1.014564E+0	9.952535E-1	1.062904E+0	1.014554E+0	1.048465E+0	9.840860E-1	1.022692E+0	1.030860E+0	1.060380E+0	9.957894E-1	1.020089E+0	9.944790E-1	1.049452E+0	1.018171E+0	9.780340E-1	1.073037E+0	1.020308E+0	1.023270E+0	1.043489E+0	1.016876E+0	1.021758E+0	1.082386E+0	1.024205E+0	1.048661E+0	1.068979E+0	1.029912E+0	9.825347E-1	1.037209E+0	9.791136E-1	1.014349E+0	1.012766E+0	1.094633E+0	1.013380E+0	9.965322E-1	1.040010E+0	1.003153E+0	1.045428E+0	1.068845E+0	1.030870E+0	1.001112E+0	1.042635E+0	9.961951E-1	9.617438E-1	1.049579E+0	1.033936E+0
2.930040E+2	9.115218E-1	9.162696E-1	9.305933E-1	9.248614E-1	9.642439E-1	9.163402E-1	8.862003E-1	9.241868E-1	9.159860E-1	9.688836E-1	9.196453E-1	9.488188E-1	8.965986E-1	9.881406E-1	9.226847E-1	9.139009E-1	9.510480E-1	9.205214E-1	9.786901E-1	9.426368E-1	9.691443E-1	9.235021E-1	9.289404E-1	9.289148E-1	9.476595E-1	8.956080E-1	9.461209E-1	9.386861E-1	9.620463E-1	9.380854E-1	9.503404E-1	8.758143E-1	9.467814E-1	8.957693E-1	9.102535E-1	9.746790E-1	9.441724E-1	8.965647E-1	9.862187E-1	9.424166E-1	9.538015E-1	9.436026E-1	9.108286E-1	9.478423E-1	9.253236E-1	9.073483E-1	8.834088E-1	9.522672E-1	9.757087E-1	8.851773E-1	9.285197E-1	9.153463E-1	9.461936E-1	9.590290E-1	9.504441E-1	9.068171E-1	9.606635E-1	9.703697E-1	9.127575E-1	9.758029E-1	9.413211E-1	1.010732E+0	9.374752E-1	9.188933E-1	9.265492E-1	9.184379E-1	9.460531E-1	9.647085E-1	9.405118E-1	9.560387E-1	9.472687E-1	9.645920E-1	9.331568E-1	9.646095E-1	9.514504E-1	9.479158E-1	9.544529E-1	9.126924E-1	9.071213E-1	9.399386E-1	9.074001E-1	9.506184E-1	9.733197E-1	1.037083E+0	9.035533E-1	8.886615E-1	9.981445E-1	1.006780E+0	9.680123E-1	8.878211E-1	9.112557E-1	8.951863E-1	9.364748E-1	9.306294E-1	9.319299E-1	9.430003E-1	9.317476E-1	9.116784E-1	9.399851E-1	9.581086E-1	9.227731E-1	9.194704E-1	9.640942E-1	9.263634E-1	9.591953E-1	8.929768E-1	9.988470E-1	9.610011E-1	9.233526E-1	9.880291E-1	9.476090E-1	9.595171E-1	9.761972E-1	9.680962E-1	1.001170E+0	9.847100E-1	1.002953E+0	9.358621E-1	8.952415E-1	9.691732E-1	9.963187E-1	8.600596E-1	8.728242E-1	9.485991E-1	9.711587E-1	9.421152E-1	9.749299E-1	1.011792E+0	9.121700E-1	9.096369E-1	9.164186E-1	8.739996E-1	9.332155E-1	8.866397E-1	9.003915E-1	9.541910E-1	9.505115E-1	9.035986E-1	8.755149E-1	9.338151E-1	9.393802E-1	9.274878E-1	9.646219E-1	9.251045E-1	9.537623E-1	9.691356E-1	9.786984E-1	9.410364E-1	9.834308E-1	9.174737E-1	9.360205E-1	9.503105E-1	1.016945E+0	9.399537E-1	1.015974E+0	9.453041E-1	9.199947E-1	9.927770E-1	9.354958E-1	9.549663E-1	9.158465E-1	9.518421E-1	9.959995E-1	9.541761E-1	1.020549E+0	9.543836E-1	9.468775E-1	9.024360E-1	1.033991E+0	9.871803E-1	9.340349E-1	9.386809E-1
2.935110E+2	1.006558E+0	1.045531E+0	1.103062E+0	1.047229E+0	1.032116E+0	1.015285E+0	1.015626E+0	1.092873E+0	1.110155E+0	1.059668E+0	1.013427E+0	1.107884E+0	1.028144E+0	1.042608E+0	1.115431E+0	1.066061E+0	1.009213E+0	1.033284E+0	1.044231E+0	1.009076E+0	1.065960E+0	1.058860E+0	1.063937E+0	1.104554E+0	1.091042E+0	1.048607E+0	9.803416E-1	1.029245E+0	1.054381E+0	1.062933E+0	1.063446E+0	1.033307E+0	1.077497E+0	1.062427E+0	1.112658E+0	1.089742E+0	1.089209E+0	1.026323E+0	1.051118E+0	1.086322E+0	1.031727E+0	1.125771E+0	1.049843E+0	1.074164E+0	1.068737E+0	1.045704E+0	1.068573E+0	1.124057E+0	1.080720E+0	1.077538E+0	1.076960E+0	1.116786E+0	1.125966E+0	1.087025E+0	1.107912E+0	1.093350E+0	1.055928E+0	1.048855E+0	1.059852E+0	1.151682E+0	1.107831E+0	1.019349E+0	1.073449E+0	1.052180E+0	1.120704E+0	1.062893E+0	1.075287E+0	1.066525E+0	1.114300E+0	1.043896E+0	1.080868E+0	1.108692E+0	1.102345E+0	1.083828E+0	1.031011E+0	1.073332E+0	1.023735E+0	1.054942E+0	1.115515E+0	1.039090E+0	1.091848E+0	1.034341E+0	1.048035E+0	1.103788E+0	1.044145E+0	1.025981E+0	1.073945E+0	1.092237E+0	1.092792E+0	1.104107E+0	1.079436E+0	1.060350E+0	1.056199E+0	1.012795E+0	1.077017E+0	1.016986E+0	1.048390E+0	1.128188E+0	1.064772E+0	1.047465E+0	1.034669E+0	1.059440E+0	1.057860E+0	1.109047E+0	1.098410E+0	1.096189E+0	1.078759E+0	1.054756E+0	1.095510E+0	1.035384E+0	1.111694E+0	1.087312E+0	1.088272E+0	1.108681E+0	1.071907E+0	1.047972E+0	1.082371E+0	1.048833E+0	1.039583E+0	1.113962E+0	1.145122E+0	1.083894E+0	1.085735E+0	1.087975E+0	1.049281E+0	1.075439E+0	1.125607E+0	1.104225E+0	1.159694E+0	1.041714E+0	1.066442E+0	1.082608E+0	1.136139E+0	1.036503E+0	1.138550E+0	1.096536E+0	1.057757E+0	9.850236E-1	1.076056E+0	1.083970E+0	1.074013E+0	1.056449E+0	1.021689E+0	1.093583E+0	1.094937E+0	1.142103E+0	1.079895E+0	1.051930E+0	1.164494E+0	1.117447E+0	1.105853E+0	1.126434E+0	1.112699E+0	1.071799E+0	1.094627E+0	1.061569E+0	1.087851E+0	1.088915E+0	1.050348E+0	1.061415E+0	1.047019E+0	1.122478E+0	1.133839E+0	1.092111E+0	1.114201E+0	1.112087E+0	1.014494E+0	1.058026E+0	1.138166E+0	1.058743E+0	1.113858E+0	1.029644E+0
2.940070E+2	1.116026E+0	1.081717E+0	1.173796E+0	1.130815E+0	1.165984E+0	1.073314E+0	1.028295E+0	1.088032E+0	1.135890E+0	1.102277E+0	1.092737E+0	1.115298E+0	1.096124E+0	1.077893E+0	1.155066E+0	1.148243E+0	1.111865E+0	1.057106E+0	1.150176E+0	1.111743E+0	1.134342E+0	1.131572E+0	1.208091E+0	1.083593E+0	1.116581E+0	1.059810E+0	1.018925E+0	1.098464E+0	1.080078E+0	1.119259E+0	1.101801E+0	1.123906E+0	1.104372E+0	1.099289E+0	1.101690E+0	1.099869E+0	1.128047E+0	1.118044E+0	1.130932E+0	1.138368E+0	1.084846E+0	1.126735E+0	1.142180E+0	1.117515E+0	1.090579E+0	1.101986E+0	1.110390E+0	1.143989E+0	1.113659E+0	1.143702E+0	1.085682E+0	1.149215E+0	1.140805E+0	1.056195E+0	1.158623E+0	1.108899E+0	1.145141E+0	1.100302E+0	1.161788E+0	1.100675E+0	1.143877E+0	1.069155E+0	1.120833E+0	1.154390E+0	1.145617E+0	1.144591E+0	1.102828E+0	1.111249E+0	1.136962E+0	1.073457E+0	1.099278E+0	1.108897E+0	1.139130E+0	1.135877E+0	1.109705E+0	1.105889E+0	1.074275E+0	1.112601E+0	1.133672E+0	1.109527E+0	1.092036E+0	1.094417E+0	1.094165E+0	1.149135E+0	1.136865E+0	1.110823E+0	1.121316E+0	1.102017E+0	1.107374E+0	1.125508E+0	1.069289E+0	1.096695E+0	1.127392E+0	1.137939E+0	1.107016E+0	1.100810E+0	1.167816E+0	1.103040E+0	1.148250E+0	1.096686E+0	1.109595E+0	1.073973E+0	1.122589E+0	1.094236E+0	1.177035E+0	1.117301E+0	1.085084E+0	1.093156E+0	1.088361E+0	1.111629E+0	1.132020E+0	1.124526E+0	1.149906E+0	1.146776E+0	1.141041E+0	1.112220E+0	1.170001E+0	1.095269E+0	1.080097E+0	1.164859E+0	1.139624E+0	1.098434E+0	1.096366E+0	1.087132E+0	1.067522E+0	1.117818E+0	1.182773E+0	1.159352E+0	1.146258E+0	1.127450E+0	1.091678E+0	1.094195E+0	1.158629E+0	1.109312E+0	1.103814E+0	1.126052E+0	1.126973E+0	1.112648E+0	1.096213E+0	1.066256E+0	1.134372E+0	1.044292E+0	1.110831E+0	1.111150E+0	1.076592E+0	1.113044E+0	1.098330E+0	1.095474E+0	1.179906E+0	1.101264E+0	1.108133E+0	1.165570E+0	1.106036E+0	1.107061E+0	1.150097E+0	1.085542E+0	1.097513E+0	1.114736E+0	1.165065E+0	1.056816E+0	1.102603E+0	1.073229E+0	1.081090E+0	1.084511E+0	1.128077E+0	1.041957E+0	1.096411E+0	1.087371E+0	1.118519E+0	1.126670E+0	1.159961E+0	1.091436E+0
2.945010E+2	1.093716E+0	1.025229E+0	1.034495E+0	1.058338E+0	1.063206E+0	1.033944E+0	1.031964E+0	1.094839E+0	1.073881E+0	1.066343E+0	1.095389E+0	1.066618E+0	1.067085E+0	1.014607E+0	1.097291E+0	1.069617E+0	1.092210E+0	1.077166E+0	1.084517E+0	1.095249E+0	1.099767E+0	1.096268E+0	1.007811E+0	1.106597E+0	1.060622E+0	1.043243E+0	1.036299E+0	1.052856E+0	1.102817E+0	1.057244E+0	1.058493E+0	1.051787E+0	1.083595E+0	1.072037E+0	1.142226E+0	1.047351E+0	1.040060E+0	1.080398E+0	1.042847E+0	1.117884E+0	1.056736E+0	1.090181E+0	1.048478E+0	1.071070E+0	1.060752E+0	1.040006E+0	1.097359E+0	1.053529E+0	1.121323E+0	1.012847E+0	1.052966E+0	1.081779E+0	1.102568E+0	1.034436E+0	1.076807E+0	1.139361E+0	1.061728E+0	1.051130E+0	1.100719E+0	1.064172E+0	1.064025E+0	1.081714E+0	1.117970E+0	1.048023E+0	1.052147E+0	1.099083E+0	1.067573E+0	1.029392E+0	1.066366E+0	1.062278E+0	1.080769E+0	1.034829E+0	1.063936E+0	1.036739E+0	1.049945E+0	1.083532E+0	1.125736E+0	1.072488E+0	1.111251E+0	1.027341E+0	1.102825E+0	1.064194E+0	1.083689E+0	1.068095E+0	1.046182E+0	1.017371E+0	1.043591E+0	1.074603E+0	1.062631E+0	1.083979E+0	1.047670E+0	1.008042E+0	1.115001E+0	1.110775E+0	1.093174E+0	1.054378E+0	1.085804E+0	1.085946E+0	1.095431E+0	1.031098E+0	1.066110E+0	1.078143E+0	1.091352E+0	1.032547E+0	1.044326E+0	1.049226E+0	1.077792E+0	1.057237E+0	1.060022E+0	1.075977E+0	1.071747E+0	1.104921E+0	1.062017E+0	1.089557E+0	1.115490E+0	1.067633E+0	1.075101E+0	1.082424E+0	1.018519E+0	1.094565E+0	1.085967E+0	1.083743E+0	1.057089E+0	1.062912E+0	1.103080E+0	1.096411E+0	1.034735E+0	1.095909E+0	1.126401E+0	1.071348E+0	1.031706E+0	1.077015E+0	1.099441E+0	1.069612E+0	1.083300E+0	1.034892E+0	1.121639E+0	1.034692E+0	1.057962E+0	1.089712E+0	1.078623E+0	1.095712E+0	1.108862E+0	1.060758E+0	1.098535E+0	1.106583E+0	1.075640E+0	1.067516E+0	1.110680E+0	1.000982E+0	1.103081E+0	1.069453E+0	1.063717E+0	1.056382E+0	1.134241E+0	1.074618E+0	1.027565E+0	1.078362E+0	1.024225E+0	1.087306E+0	1.095494E+0	1.067820E+0	1.039362E+0	1.080503E+0	1.112676E+0	1.027445E+0	1.032019E+0	1.045203E+0	1.088741E+0	1.041616E+0	1.104509E+0	1.014298E+0
2.950050E+2	1.036848E+0	9.560079E-1	1.030901E+0	1.055227E+0	1.050483E+0	1.041178E+0	1.001525E+0	1.015010E+0	1.006460E+0	9.974285E-1	1.044955E+0	9.533031E-1	1.024768E+0	1.012805E+0	1.018124E+0	1.049257E+0	9.714267E-1	1.046556E+0	1.089314E+0	9.954490E-1	1.065430E+0	1.000078E+0	9.764217E-1	9.638735E-1	1.005538E+0	9.704704E-1	1.003138E+0	9.865399E-1	1.027346E+0	1.020386E+0	1.034184E+0	1.049957E+0	1.028791E+0	1.001948E+0	1.031547E+0	1.065761E+0	1.059960E+0	9.298850E-1	1.041326E+0	1.079893E+0	1.016555E+0	1.015296E+0	9.625264E-1	1.001066E+0	9.847077E-1	9.953206E-1	1.002342E+0	1.010868E+0	1.059906E+0	1.036302E+0	9.977416E-1	9.992113E-1	1.079034E+0	1.067668E+0	1.046652E+0	1.022281E+0	1.070419E+0	1.023273E+0	1.049733E+0	1.004589E+0	1.000115E+0	1.028503E+0	1.089613E+0	1.022977E+0	1.038359E+0	1.031287E+0	1.062594E+0	9.586367E-1	1.056309E+0	9.704232E-1	9.566663E-1	1.049531E+0	1.069364E+0	1.025506E+0	1.045898E+0	9.784110E-1	1.014595E+0	1.004876E+0	1.060080E+0	9.785350E-1	1.009067E+0	1.000109E+0	1.062906E+0	1.001671E+0	1.006443E+0	1.018452E+0	1.085952E+0	1.049978E+0	1.021259E+0	1.082506E+0	9.788945E-1	1.000568E+0	1.038503E+0	9.813242E-1	9.677976E-1	9.994449E-1	9.985405E-1	1.019715E+0	1.015341E+0	9.981898E-1	1.004240E+0	9.755246E-1	1.008223E+0	1.018921E+0	1.032558E+0	1.017980E+0	1.044784E+0	1.043892E+0	1.048481E+0	1.047823E+0	1.035342E+0	1.025986E+0	1.051231E+0	1.060595E+0	9.954134E-1	1.046291E+0	1.048411E+0	1.002052E+0	1.005962E+0	1.040738E+0	1.054810E+0	9.884265E-1	9.711966E-1	1.056310E+0	1.021969E+0	1.015741E+0	1.031357E+0	1.007912E+0	1.050730E+0	9.894670E-1	9.968867E-1	1.030259E+0	1.035409E+0	1.023913E+0	1.042571E+0	1.030195E+0	9.829001E-1	9.651552E-1	1.019163E+0	1.009580E+0	1.063106E+0	1.015133E+0	1.024367E+0	1.031385E+0	1.028295E+0	1.013520E+0	1.034379E+0	9.943540E-1	1.065334E+0	9.970283E-1	9.997777E-1	1.039547E+0	1.042342E+0	9.921378E-1	1.053176E+0	1.046306E+0	1.024618E+0	1.043947E+0	1.034121E+0	1.024448E+0	1.024301E+0	1.036783E+0	9.919308E-1	9.759056E-1	1.059055E+0	9.971341E-1	1.004741E+0	1.056252E+0	1.002431E+0	1.026603E+0	1.032199E+0	9.822302E-1
2.955050E+2	1.045108E+0	1.073777E+0	1.006495E+0	1.009037E+0	9.702080E-1	9.865366E-1	9.955917E-1	9.956419E-1	1.018552E+0	1.041557E+0	1.037858E+0	1.031172E+0	9.822318E-1	1.058758E+0	1.034222E+0	1.060741E+0	9.787987E-1	9.888808E-1	9.898315E-1	1.006093E+0	1.004326E+0	1.038901E+0	1.019601E+0	1.021375E+0	9.810793E-1	1.000622E+0	9.939239E-1	1.001464E+0	1.010325E+0	1.023788E+0	1.004290E+0	1.037015E+0	9.953930E-1	1.013372E+0	9.743126E-1	9.981096E-1	9.766680E-1	1.046500E+0	9.814170E-1	1.048837E+0	9.800057E-1	1.031023E+0	9.904740E-1	9.935687E-1	1.054959E+0	9.997618E-1	9.842375E-1	1.047597E+0	1.012236E+0	1.029825E+0	9.727958E-1	1.014163E+0	1.043287E+0	9.739458E-1	1.002879E+0	1.038485E+0	1.013621E+0	1.062278E+0	1.031337E+0	1.042060E+0	1.025759E+0	1.051139E+0	1.006988E+0	1.052270E+0	1.003224E+0	9.765228E-1	9.955300E-1	1.054793E+0	1.040028E+0	1.069245E+0	9.810470E-1	9.893469E-1	1.095725E+0	9.875118E-1	1.036386E+0	9.858074E-1	1.021939E+0	1.016983E+0	1.048309E+0	1.031667E+0	1.001895E+0	1.052976E+0	1.030967E+0	1.033668E+0	9.759722E-1	9.992734E-1	1.056365E+0	1.108028E+0	1.035082E+0	9.534091E-1	1.040278E+0	9.767449E-1	1.041470E+0	1.058827E+0	1.026950E+0	9.760233E-1	1.031691E+0	9.875998E-1	1.017951E+0	9.609449E-1	1.003400E+0	1.036827E+0	1.008250E+0	1.031549E+0	1.074532E+0	1.039124E+0	1.043822E+0	9.824918E-1	1.027095E+0	1.059317E+0	1.039383E+0	9.931512E-1	1.029253E+0	1.109665E+0	1.006115E+0	1.015721E+0	9.915154E-1	1.024295E+0	9.809665E-1	1.041510E+0	1.025878E+0	1.027630E+0	1.019616E+0	1.022351E+0	1.076248E+0	1.021848E+0	1.074451E+0	1.059188E+0	1.052312E+0	1.041855E+0	1.017179E+0	1.000993E+0	1.069315E+0	1.001938E+0	1.003828E+0	1.041421E+0	9.589933E-1	9.760491E-1	1.032889E+0	1.005459E+0	1.035134E+0	1.085027E+0	9.928683E-1	1.049640E+0	1.077124E+0	1.030936E+0	1.028999E+0	1.032929E+0	1.043731E+0	1.043264E+0	1.074945E+0	1.008564E+0	1.034819E+0	1.050164E+0	1.068642E+0	1.031304E+0	1.009180E+0	9.802971E-1	1.018938E+0	1.029387E+0	1.017674E+0	1.066284E+0	1.002921E+0	1.022402E+0	1.043256E+0	9.667345E-1	9.958595E-1	1.018174E+0	1.066857E+0	1.030491E+0	1.050440E+0	1.007462E+0
2.960050E+2	1.074637E+0	1.128373E+0	1.083195E+0	1.060682E+0	1.101296E+0	1.128794E+0	1.081061E+0	1.112124E+0	1.151427E+0	1.098662E+0	1.108186E+0	1.072828E+0	1.075593E+0	1.104810E+0	1.097970E+0	1.131149E+0	1.051518E+0	1.097902E+0	1.086089E+0	1.126152E+0	1.128497E+0	1.131193E+0	1.088766E+0	1.156358E+0	1.066426E+0	1.096240E+0	1.092085E+0	1.122239E+0	1.128575E+0	1.095195E+0	1.083536E+0	1.155080E+0	1.134129E+0	1.097677E+0	1.141016E+0	1.109645E+0	1.074749E+0	1.075332E+0	1.140812E+0	1.155848E+0	1.085295E+0	1.072211E+0	1.095515E+0	1.075604E+0	1.122339E+0	1.080924E+0	1.023794E+0	1.099796E+0	1.144374E+0	1.138671E+0	1.100626E+0	1.117235E+0	1.115021E+0	1.115451E+0	1.153199E+0	1.109775E+0	1.150182E+0	1.128439E+0	1.079532E+0	1.146825E+0	1.058837E+0	1.091856E+0	1.112552E+0	1.118718E+0	1.081011E+0	1.119936E+0	1.175405E+0	1.076265E+0	1.137635E+0	1.089981E+0	1.108862E+0	1.151113E+0	1.136725E+0	1.062756E+0	1.128009E+0	1.066312E+0	1.065479E+0	1.104740E+0	1.131286E+0	1.111068E+0	1.103395E+0	1.100277E+0	1.086192E+0	1.160682E+0	1.074850E+0	1.118245E+0	1.067687E+0	1.112151E+0	1.102336E+0	1.095281E+0	1.059509E+0	1.081734E+0	1.095877E+0	1.080326E+0	1.091647E+0	1.104223E+0	1.140477E+0	1.089590E+0	1.161839E+0	1.108633E+0	1.098689E+0	1.069445E+0	1.122174E+0	1.107315E+0	1.177697E+0	1.123901E+0	1.095355E+0	1.135483E+0	1.123131E+0	1.142852E+0	1.045113E+0	1.126842E+0	1.093598E+0	1.144591E+0	1.076545E+0	1.123686E+0	1.132221E+0	1.155113E+0	1.115994E+0	1.124925E+0	1.150968E+0	1.073962E+0	1.120616E+0	1.131255E+0	1.157687E+0	1.124215E+0	1.122597E+0	1.139697E+0	1.078542E+0	1.088043E+0	1.096942E+0	1.133665E+0	1.099022E+0	1.108199E+0	1.099380E+0	1.168158E+0	1.119725E+0	1.169917E+0	1.115872E+0	1.112657E+0	1.110087E+0	1.096678E+0	1.134728E+0	1.114802E+0	1.110927E+0	1.138485E+0	1.064718E+0	1.101322E+0	1.165629E+0	1.145928E+0	1.127312E+0	1.121010E+0	1.112561E+0	1.108876E+0	1.107983E+0	1.107211E+0	1.069994E+0	1.122457E+0	1.128484E+0	1.091852E+0	1.160698E+0	1.102539E+0	1.099900E+0	1.189755E+0	1.148930E+0	1.145475E+0	1.115858E+0	1.126091E+0	1.168402E+0	1.108004E+0	1.054517E+0	1.043494E+0
2.965010E+2	1.092214E+0	1.038439E+0	1.077600E+0	1.060417E+0	1.049272E+0	1.107366E+0	1.066586E+0	1.068180E+0	1.076637E+0	1.072823E+0	1.109136E+0	1.074197E+0	1.051856E+0	1.017267E+0	1.104570E+0	1.074188E+0	1.112135E+0	1.030513E+0	1.054778E+0	1.051447E+0	1.108115E+0	1.087335E+0	1.075350E+0	1.076174E+0	1.077431E+0	1.015859E+0	1.007537E+0	1.091706E+0	1.063358E+0	1.078616E+0	1.112804E+0	1.017800E+0	1.087581E+0	1.068067E+0	1.052306E+0	1.104216E+0	1.045902E+0	1.054619E+0	1.042437E+0	1.113888E+0	1.034232E+0	1.075101E+0	1.087619E+0	1.078379E+0	1.107540E+0	1.079036E+0	1.079923E+0	1.087294E+0	1.051694E+0	1.065891E+0	1.008548E+0	1.050947E+0	1.070663E+0	1.128768E+0	1.154386E+0	1.079900E+0	1.081104E+0	1.078521E+0	1.112886E+0	1.084960E+0	1.083555E+0	1.112769E+0	1.132145E+0	1.060537E+0	1.047139E+0	1.109438E+0	1.092390E+0	1.089322E+0	1.065197E+0	1.117783E+0	1.060359E+0	1.106616E+0	1.057873E+0	1.085923E+0	1.039566E+0	1.151452E+0	1.067932E+0	1.067746E+0	1.073592E+0	1.107475E+0	1.039701E+0	1.013771E+0	1.098416E+0	1.081908E+0	1.043557E+0	1.095251E+0	1.065457E+0	1.149805E+0	1.061079E+0	1.035471E+0	1.065144E+0	1.061296E+0	1.084988E+0	1.059325E+0	1.061992E+0	1.063920E+0	1.063364E+0	1.068716E+0	1.091682E+0	1.061476E+0	1.111166E+0	1.055675E+0	1.060127E+0	1.060986E+0	1.035946E+0	1.103696E+0	1.044956E+0	1.062505E+0	1.059620E+0	1.049868E+0	1.067053E+0	1.055295E+0	1.088131E+0	1.104794E+0	1.077488E+0	1.113992E+0	1.085513E+0	1.104103E+0	1.064603E+0	1.076833E+0	1.120954E+0	1.026524E+0	1.038945E+0	1.062421E+0	1.113434E+0	1.072213E+0	1.057955E+0	1.060084E+0	1.061472E+0	1.106439E+0	1.063148E+0	1.049453E+0	1.123312E+0	1.083979E+0	1.037913E+0	1.043193E+0	1.021319E+0	1.057206E+0	1.097547E+0	1.059582E+0	1.052085E+0	1.047606E+0	1.115734E+0	1.109017E+0	1.075048E+0	1.117031E+0	1.096896E+0	1.069715E+0	1.104477E+0	1.102869E+0	1.068229E+0	1.067236E+0	1.071147E+0	1.104544E+0	1.133863E+0	1.023925E+0	1.096033E+0	1.083236E+0	1.033462E+0	1.084269E+0	1.121336E+0	1.102605E+0	1.053207E+0	1.067747E+0	1.117974E+0	1.103646E+0	1.025028E+0	1.072397E+0	1.107308E+0	1.102085E+0	1.074334E+0	1.026873E+0
2.970020E+2	1.054187E+0	1.036638E+0	9.944801E-1	9.862785E-1	9.878136E-1	1.001786E+0	9.638622E-1	9.940248E-1	1.005424E+0	9.775912E-1	1.008822E+0	1.010760E+0	1.004415E+0	1.007055E+0	1.016661E+0	1.046211E+0	1.004424E+0	9.694750E-1	1.045014E+0	1.011488E+0	1.040277E+0	1.026165E+0	1.007164E+0	1.026942E+0	9.811554E-1	1.011145E+0	1.025042E+0	1.011095E+0	1.018463E+0	1.050683E+0	9.992859E-1	1.015450E+0	1.035423E+0	1.017970E+0	1.021278E+0	1.030580E+0	9.811121E-1	9.862338E-1	1.096996E+0	1.065207E+0	1.006363E+0	1.014704E+0	9.906941E-1	1.015536E+0	1.001427E+0	1.039925E+0	1.038247E+0	1.039453E+0	9.995153E-1	1.021285E+0	1.019731E+0	9.954601E-1	1.038643E+0	1.044390E+0	1.079496E+0	1.029991E+0	1.006068E+0	1.094439E+0	1.064559E+0	1.054443E+0	1.020002E+0	1.074777E+0	1.037082E+0	1.033116E+0	1.015329E+0	9.849592E-1	1.035925E+0	1.052586E+0	1.025765E+0	1.013758E+0	1.064766E+0	1.024680E+0	1.008742E+0	1.055484E+0	1.023805E+0	1.055678E+0	9.964221E-1	9.966708E-1	1.047173E+0	1.012859E+0	1.010971E+0	1.034867E+0	1.018609E+0	1.032922E+0	1.027493E+0	1.059459E+0	1.000749E+0	1.092889E+0	9.852969E-1	1.045336E+0	1.032162E+0	1.061605E+0	1.042301E+0	1.016229E+0	1.011711E+0	1.006208E+0	1.008628E+0	9.885131E-1	9.993699E-1	1.013671E+0	1.032889E+0	1.005837E+0	1.008259E+0	1.044619E+0	1.021226E+0	1.027112E+0	1.036166E+0	1.007271E+0	9.770151E-1	1.005789E+0	9.957191E-1	9.932818E-1	1.000097E+0	1.101622E+0	1.094676E+0	1.052968E+0	1.002464E+0	1.054006E+0	9.980186E-1	1.050854E+0	1.022536E+0	1.023910E+0	9.926726E-1	1.020649E+0	1.016557E+0	9.913628E-1	1.054432E+0	1.043323E+0	1.015191E+0	9.994342E-1	1.012044E+0	9.880744E-1	1.030425E+0	9.935288E-1	9.741647E-1	1.042239E+0	1.016746E+0	1.010331E+0	1.000502E+0	1.000339E+0	1.012734E+0	1.025550E+0	1.040966E+0	1.004714E+0	9.724685E-1	1.033896E+0	9.996809E-1	1.038346E+0	1.036137E+0	1.001614E+0	1.091680E+0	1.016682E+0	1.091250E+0	1.039428E+0	1.052919E+0	1.008006E+0	9.888972E-1	1.046132E+0	1.014535E+0	1.017572E+0	1.048141E+0	1.058634E+0	1.014027E+0	1.004415E+0	1.063483E+0	1.039193E+0	1.001003E+0	1.019603E+0	1.013213E+0	1.012281E+0	9.215708E-1	9.578334E-1
2.975010E+2	9.528578E-1	1.018352E+0	9.625974E-1	9.594285E-1	1.008835E+0	1.010237E+0	9.807037E-1	9.458650E-1	1.000095E+0	9.656426E-1	9.757634E-1	9.654334E-1	9.373143E-1	9.309828E-1	9.892440E-1	1.012249E+0	9.583655E-1	1.002263E+0	1.008582E+0	9.191393E-1	9.893036E-1	9.614028E-1	9.723730E-1	1.030141E+0	9.710138E-1	9.938005E-1	9.660184E-1	9.841209E-1	9.981817E-1	9.626033E-1	9.601991E-1	9.956586E-1	9.421681E-1	9.734038E-1	9.602300E-1	1.008053E+0	9.826745E-1	1.009311E+0	9.756035E-1	9.483258E-1	9.493062E-1	9.706156E-1	9.484668E-1	9.253260E-1	9.690970E-1	9.699411E-1	9.763908E-1	9.848025E-1	9.601283E-1	9.745778E-1	9.677421E-1	9.705047E-1	9.936931E-1	1.008308E+0	1.029902E+0	9.759632E-1	1.003385E+0	1.019446E+0	9.918766E-1	9.615526E-1	9.434583E-1	9.716465E-1	9.726361E-1	9.166090E-1	9.688229E-1	9.939019E-1	9.913355E-1	9.551715E-1	9.790556E-1	9.786912E-1	9.431179E-1	9.783686E-1	9.933570E-1	9.856324E-1	9.806593E-1	9.852118E-1	9.254096E-1	9.713527E-1	9.975369E-1	1.010583E+0	9.922039E-1	9.799793E-1	9.837573E-1	9.686345E-1	9.537683E-1	1.000964E+0	9.754091E-1	9.827223E-1	9.475356E-1	9.509915E-1	9.790905E-1	9.411321E-1	9.737494E-1	1.009502E+0	9.245419E-1	9.776912E-1	9.609085E-1	9.948563E-1	9.918320E-1	9.211094E-1	9.866881E-1	9.561824E-1	9.764941E-1	1.002521E+0	9.367866E-1	9.555025E-1	9.546039E-1	9.600180E-1	9.150509E-1	9.519399E-1	9.756923E-1	9.188281E-1	9.379438E-1	9.545576E-1	1.010226E+0	9.517684E-1	9.550614E-1	9.729156E-1	9.790209E-1	1.035730E+0	9.274700E-1	9.601169E-1	9.865915E-1	9.881348E-1	9.685330E-1	9.723554E-1	9.739817E-1	1.001381E+0	9.973006E-1	9.730201E-1	9.165180E-1	9.625938E-1	9.929456E-1	9.867812E-1	9.698893E-1	9.863885E-1	9.190525E-1	9.740148E-1	9.685431E-1	9.843339E-1	9.948026E-1	9.432714E-1	1.002782E+0	1.000181E+0	9.461104E-1	9.600910E-1	9.821292E-1	9.883056E-1	9.648023E-1	9.670774E-1	1.024255E+0	9.662463E-1	9.910356E-1	9.874698E-1	1.005759E+0	9.771233E-1	9.795711E-1	1.023470E+0	9.959736E-1	9.452040E-1	9.855851E-1	9.827996E-1	9.285328E-1	9.993789E-1	9.842071E-1	9.388424E-1	9.862686E-1	9.916831E-1	9.515391E-1	1.024668E+0	9.198269E-1	9.194595E-1
2.980020E+2	9.103786E-1	9.098487E-1	8.919037E-1	9.066645E-1	9.162718E-1	9.142701E-1	9.400827E-1	9.322835E-1	8.943811E-1	8.844798E-1	9.488096E-1	9.454152E-1	9.087782E-1	8.979694E-1	9.011758E-1	9.435024E-1	9.104319E-1	9.225398E-1	9.081893E-1	9.018176E-1	9.332812E-1	9.242036E-1	9.250909E-1	9.677328E-1	8.849803E-1	9.320797E-1	9.119586E-1	9.024160E-1	9.175668E-1	9.088328E-1	9.424949E-1	8.963355E-1	9.577508E-1	9.140267E-1	8.910544E-1	9.237521E-1	9.408407E-1	9.333036E-1	8.932004E-1	9.371458E-1	9.445620E-1	9.334448E-1	9.275200E-1	8.929961E-1	9.459001E-1	9.307797E-1	9.179562E-1	9.229700E-1	9.171872E-1	9.067842E-1	9.459344E-1	9.369436E-1	9.612794E-1	9.140847E-1	9.265498E-1	9.227137E-1	9.258988E-1	9.140402E-1	9.325194E-1	9.150238E-1	8.907954E-1	9.018314E-1	9.646275E-1	8.881936E-1	9.219460E-1	9.256339E-1	9.066562E-1	9.125489E-1	9.129700E-1	8.947138E-1	9.233391E-1	9.511147E-1	9.304546E-1	9.601039E-1	9.083162E-1	9.552294E-1	8.884921E-1	8.901362E-1	9.260958E-1	9.257363E-1	9.726662E-1	8.991989E-1	8.844665E-1	9.008890E-1	9.110606E-1	9.459768E-1	9.124531E-1	9.102072E-1	9.154339E-1	9.398355E-1	9.223798E-1	9.300570E-1	9.077040E-1	9.651736E-1	9.182117E-1	9.221855E-1	9.634866E-1	8.866077E-1	9.094955E-1	9.509185E-1	9.467960E-1	9.536943E-1	9.388410E-1	9.303475E-1	9.249465E-1	8.802385E-1	8.854385E-1	9.360304E-1	8.974072E-1	8.925958E-1	9.658340E-1	9.288151E-1	9.499142E-1	9.173301E-1	9.407437E-1	9.275431E-1	9.353744E-1	9.057877E-1	9.322738E-1	9.294022E-1	8.964455E-1	9.230458E-1	9.149274E-1	9.398027E-1	9.107690E-1	8.902590E-1	9.309610E-1	9.192677E-1	9.372694E-1	9.167682E-1	9.300646E-1	9.538108E-1	9.169098E-1	9.161012E-1	9.325356E-1	9.140031E-1	9.259462E-1	9.033750E-1	9.085193E-1	9.548383E-1	9.331204E-1	9.331204E-1	9.531566E-1	8.887519E-1	9.276098E-1	9.197109E-1	9.424003E-1	9.346142E-1	9.213194E-1	9.431062E-1	9.565176E-1	9.002641E-1	8.972836E-1	9.392055E-1	9.043445E-1	8.956145E-1	9.036752E-1	9.652560E-1	9.149582E-1	9.146562E-1	8.974593E-1	8.894117E-1	9.227559E-1	9.054861E-1	9.590504E-1	9.441456E-1	9.471274E-1	8.935687E-1	9.197987E-1	9.248646E-1	8.854691E-1	9.268793E-1
2.985010E+2	9.773987E-1	1.005292E+0	9.670717E-1	9.879386E-1	9.638514E-1	9.517842E-1	9.558712E-1	1.015895E+0	9.481009E-1	9.718617E-1	9.790296E-1	9.697003E-1	9.590570E-1	9.455300E-1	9.744256E-1	9.787480E-1	9.697837E-1	9.531206E-1	9.258596E-1	9.575571E-1	9.321687E-1	9.617165E-1	9.919079E-1	9.200095E-1	9.479006E-1	9.140078E-1	9.595328E-1	9.554587E-1	9.908035E-1	9.772904E-1	9.428055E-1	9.456603E-1	9.352339E-1	9.557518E-1	9.789679E-1	9.247917E-1	9.378396E-1	9.410875E-1	9.430506E-1	9.275191E-1	9.409127E-1	9.320679E-1	9.350291E-1	9.376672E-1	9.483811E-1	9.481665E-1	9.221352E-1	9.811322E-1	9.532742E-1	9.513518E-1	9.498903E-1	9.472389E-1	9.372719E-1	9.379548E-1	9.504897E-1	1.000297E+0	9.702272E-1	9.593883E-1	9.203471E-1	9.496224E-1	9.490123E-1	9.771657E-1	9.158391E-1	9.597079E-1	9.246332E-1	9.130386E-1	9.663575E-1	9.359905E-1	9.427609E-1	9.570685E-1	9.356243E-1	9.882607E-1	9.383124E-1	9.627872E-1	9.371762E-1	9.401621E-1	9.714141E-1	9.808216E-1	9.830494E-1	9.394105E-1	9.271251E-1	9.678402E-1	9.852274E-1	9.454784E-1	9.663850E-1	9.438217E-1	9.485242E-1	9.306175E-1	9.760969E-1	9.327638E-1	9.551945E-1	9.621381E-1	9.388025E-1	9.546593E-1	9.918093E-1	9.487911E-1	9.385244E-1	9.684245E-1	9.249710E-1	9.612008E-1	9.196684E-1	9.382185E-1	9.615927E-1	9.427266E-1	9.405520E-1	9.604108E-1	9.323041E-1	9.618121E-1	9.429054E-1	9.749283E-1	9.313101E-1	9.656534E-1	9.429968E-1	9.466540E-1	9.025070E-1	9.540857E-1	9.428600E-1	9.263992E-1	9.478429E-1	9.651916E-1	9.568817E-1	9.687527E-1	9.651862E-1	9.531811E-1	9.651525E-1	9.724391E-1	9.680064E-1	9.695229E-1	9.554809E-1	9.677366E-1	9.645569E-1	9.390777E-1	9.844146E-1	9.367738E-1	9.476499E-1	9.748251E-1	9.486534E-1	9.781148E-1	9.494794E-1	9.648656E-1	1.006740E+0	1.001691E+0	9.694173E-1	9.896674E-1	9.501309E-1	9.045265E-1	9.176417E-1	9.317544E-1	9.449720E-1	9.666038E-1	9.456783E-1	9.281677E-1	9.624601E-1	9.846377E-1	9.805184E-1	9.841157E-1	9.735579E-1	9.954602E-1	9.580886E-1	9.643798E-1	9.408021E-1	9.722993E-1	9.606760E-1	9.531200E-1	9.670402E-1	9.608542E-1	9.432337E-1	9.760443E-1	9.522038E-1	9.571682E-1	1.033751E+0	1.004960E+0
2.990020E+2	1.010946E+0	9.876261E-1	1.066752E+0	1.028180E+0	1.021061E+0	1.060089E+0	1.012750E+0	1.004887E+0	1.036875E+0	1.047346E+0	1.004392E+0	1.040923E+0	1.091048E+0	1.031334E+0	1.012750E+0	1.044993E+0	1.035433E+0	1.087491E+0	1.048764E+0	1.044239E+0	1.082195E+0	1.060448E+0	1.046490E+0	1.020617E+0	1.091037E+0	1.069571E+0	1.068952E+0	1.016382E+0	1.028514E+0	1.017842E+0	1.047154E+0	1.057196E+0	1.007882E+0	1.026501E+0	1.027772E+0	1.053929E+0	1.043956E+0	1.024489E+0	1.051258E+0	1.003169E+0	1.031193E+0	1.063373E+0	1.034189E+0	1.056690E+0	1.044349E+0	1.035288E+0	1.014362E+0	1.047638E+0	1.048871E+0	1.086161E+0	1.054927E+0	1.045243E+0	1.023623E+0	1.019704E+0	1.011911E+0	9.907586E-1	1.046057E+0	1.049694E+0	1.057833E+0	1.054382E+0	1.064277E+0	1.029196E+0	1.031015E+0	1.058619E+0	1.040113E+0	1.087735E+0	1.043775E+0	1.040414E+0	1.045452E+0	1.035073E+0	1.053099E+0	1.042454E+0	1.039119E+0	1.033341E+0	1.023599E+0	1.037889E+0	1.040912E+0	1.043062E+0	1.032352E+0	1.031228E+0	1.030487E+0	1.038847E+0	1.055788E+0	1.023492E+0	1.019739E+0	1.022859E+0	1.033421E+0	1.032246E+0	1.040123E+0	1.058269E+0	1.032529E+0	1.029233E+0	1.071186E+0	1.017790E+0	1.024766E+0	1.001035E+0	1.029609E+0	1.035043E+0	1.045288E+0	1.047267E+0	1.029671E+0	1.029992E+0	1.057310E+0	1.015058E+0	1.050074E+0	1.039634E+0	1.037365E+0	1.067775E+0	1.084149E+0	1.000213E+0	1.031371E+0	1.036648E+0	1.023003E+0	1.053689E+0	1.037758E+0	1.029500E+0	1.057262E+0	1.045780E+0	1.052768E+0	1.019195E+0	1.045459E+0	1.024678E+0	1.059629E+0	1.034169E+0	1.056674E+0	1.044008E+0	1.030146E+0	9.924915E-1	1.037945E+0	1.029661E+0	1.024171E+0	1.017755E+0	1.022567E+0	1.111362E+0	1.051474E+0	1.003624E+0	1.042156E+0	1.039723E+0	1.032538E+0	1.052449E+0	1.006744E+0	1.007568E+0	1.015902E+0	1.069711E+0	1.022820E+0	1.117959E+0	1.027095E+0	1.058301E+0	1.040996E+0	9.942855E-1	1.023294E+0	1.063584E+0	1.037748E+0	1.014080E+0	1.038142E+0	1.039071E+0	9.935915E-1	1.038599E+0	1.063315E+0	1.044430E+0	1.066038E+0	1.045470E+0	1.029383E+0	1.056567E+0	1.008867E+0	1.039919E+0	1.011748E+0	1.023805E+0	1.078825E+0	1.052776E+0	9.771687E-1	1.040430E+0
2.995060E+2	1.098406E+0	1.087872E+0	1.047492E+0	1.082271E+0	1.051587E+0	1.044040E+0	1.054910E+0	1.009068E+0	1.055678E+0	1.060201E+0	1.037399E+0	1.033380E+0	1.003113E+0	1.065663E+0	1.050986E+0	1.018234E+0	1.056605E+0	1.036302E+0	1.081352E+0	1.069477E+0	1.032542E+0	1.034369E+0	1.028680E+0	1.071013E+0	1.046796E+0	1.074690E+0	1.079949E+0	1.066047E+0	1.047031E+0	1.052622E+0	1.043735E+0	1.028952E+0	1.026220E+0	1.067652E+0	1.063875E+0	1.059287E+0	1.036518E+0	1.060940E+0	1.073667E+0	1.095590E+0	1.062610E+0	1.051040E+0	1.044129E+0	1.078122E+0	1.016288E+0	1.077203E+0	1.136194E+0	1.029511E+0	1.047734E+0	1.025662E+0	1.054414E+0	1.057328E+0	1.048208E+0	1.065981E+0	1.078110E+0	1.070994E+0	1.058228E+0	1.064485E+0	1.046582E+0	1.039510E+0	1.057451E+0	1.060731E+0	1.059914E+0	1.054729E+0	1.052529E+0	1.040382E+0	1.053716E+0	1.040158E+0	1.042390E+0	1.064368E+0	1.073961E+0	1.020689E+0	1.047499E+0	1.044576E+0	1.093422E+0	1.028541E+0	1.075357E+0	1.039104E+0	1.050710E+0	1.058648E+0	1.059604E+0	1.058053E+0	1.069595E+0	1.069226E+0	1.068196E+0	1.043720E+0	1.059600E+0	1.063342E+0	1.019781E+0	1.018370E+0	1.061533E+0	1.043739E+0	1.072618E+0	1.052317E+0	1.040284E+0	1.093344E+0	1.029958E+0	1.073126E+0	1.069934E+0	1.046948E+0	1.068215E+0	1.082139E+0	1.023838E+0	1.049792E+0	1.035920E+0	1.055127E+0	1.082710E+0	1.034162E+0	1.073003E+0	1.086254E+0	1.037104E+0	1.043283E+0	1.075728E+0	1.061972E+0	1.062154E+0	1.060945E+0	1.052409E+0	1.062879E+0	1.050456E+0	1.021431E+0	1.065594E+0	1.041447E+0	1.039572E+0	1.040368E+0	1.037310E+0	1.037197E+0	1.078353E+0	1.077307E+0	1.045868E+0	1.042378E+0	1.077794E+0	1.068202E+0	1.059467E+0	9.941243E-1	1.022261E+0	1.053439E+0	1.033746E+0	1.073417E+0	1.054861E+0	1.034539E+0	9.840478E-1	1.045207E+0	1.030778E+0	1.049043E+0	1.050692E+0	1.055116E+0	1.068062E+0	1.025654E+0	1.061348E+0	1.069807E+0	1.036632E+0	1.081590E+0	1.053596E+0	1.065177E+0	1.046520E+0	1.059452E+0	1.097036E+0	9.881986E-1	1.053772E+0	1.062434E+0	1.024417E+0	1.045156E+0	1.058983E+0	1.032545E+0	1.023894E+0	1.041358E+0	1.053626E+0	1.073881E+0	1.039210E+0	1.045906E+0	1.032157E+0	1.085488E+0
3.000060E+2	1.002870E+0	1.009361E+0	1.026780E+0	9.949459E-1	1.047229E+0	1.029817E+0	1.036385E+0	1.037867E+0	1.064965E+0	1.036112E+0	1.030370E+0	1.010581E+0	1.038004E+0	1.059504E+0	1.060663E+0	1.014523E+0	1.027746E+0	1.000546E+0	1.035835E+0	1.026909E+0	1.019813E+0	1.019262E+0	1.007832E+0	1.020627E+0	1.029287E+0	1.009651E+0	9.796084E-1	1.059697E+0	1.016085E+0	1.043413E+0	1.023811E+0	1.071856E+0	1.072913E+0	1.036068E+0	1.038330E+0	1.038240E+0	1.040846E+0	1.040181E+0	1.038823E+0	1.036575E+0	1.020722E+0	1.020074E+0	1.059133E+0	1.034524E+0	1.045081E+0	1.008563E+0	1.009352E+0	1.018749E+0	1.032934E+0	1.030042E+0	9.948348E-1	1.013246E+0	1.029618E+0	1.062276E+0	1.032939E+0	1.015237E+0	9.995888E-1	1.012392E+0	1.042718E+0	1.041463E+0	1.038463E+0	1.031076E+0	1.028604E+0	1.038751E+0	1.060779E+0	1.033210E+0	1.029496E+0	1.070888E+0	1.056428E+0	1.048777E+0	1.013977E+0	9.974810E-1	1.044615E+0	9.991912E-1	1.037487E+0	1.038179E+0	1.023826E+0	1.046876E+0	1.007792E+0	1.044977E+0	1.010117E+0	1.036061E+0	1.004923E+0	1.060915E+0	1.034620E+0	1.043622E+0	1.046002E+0	1.063588E+0	1.048566E+0	1.050761E+0	1.028363E+0	1.034833E+0	1.009689E+0	1.010061E+0	1.024929E+0	1.034645E+0	1.038421E+0	1.036800E+0	1.050311E+0	9.936657E-1	1.035649E+0	9.959554E-1	1.018419E+0	1.062076E+0	1.048508E+0	1.064590E+0	1.062182E+0	1.000220E+0	1.002536E+0	1.046009E+0	1.034381E+0	1.025600E+0	1.008357E+0	1.020356E+0	1.056838E+0	1.027926E+0	1.012095E+0	1.059154E+0	1.016659E+0	1.064780E+0	1.035619E+0	1.042077E+0	1.020685E+0	1.032479E+0	1.030094E+0	1.056097E+0	9.925328E-1	1.041411E+0	1.023437E+0	1.043457E+0	1.003414E+0	1.021155E+0	1.016641E+0	1.041638E+0	1.046079E+0	1.054110E+0	1.049498E+0	1.005371E+0	1.054602E+0	9.933081E-1	1.069348E+0	1.012413E+0	1.030747E+0	1.002826E+0	1.048748E+0	1.002688E+0	1.044801E+0	1.049676E+0	1.031364E+0	1.026198E+0	1.037877E+0	1.026394E+0	1.048912E+0	9.968993E-1	1.030475E+0	1.021748E+0	1.032139E+0	1.012486E+0	1.009866E+0	1.014100E+0	1.071283E+0	1.047663E+0	1.028203E+0	1.052282E+0	1.041148E+0	1.013723E+0	1.044265E+0	1.032701E+0	1.009963E+0	1.019286E+0	1.071454E+0	9.422425E-1
