Photon Energy (eV)	#1	#2	#3	#4	#5	#6	#7	#8	#9	#10	#11	#12	#13	#14	#15	#16	#17	#18	#19	#20	#21	#22	#23	#24	#25	#26	#27	#28	#29	#30	#31	#32	#33	#34	#35	#36	#37	#38	#39	#40	#41	#42	#43	#44	#45	#46	#47	#48	#49	#50	#51	#52	#53	#54	#55	#56	#57	#58	#59	#60	#61	#62	#63	#64	#65	#66	#67	#68	#69	#70	#71	#72	#73	#74	#75	#76	#77	#78	#79	#80	#81	#82	#83	#84	#85	#86	#87	#88	#89	#90	#91	#92	#93	#94	#95	#96	#97	#98	#99	#100	#101	#102	#103	#104	#105	#106	#107	#108	#109	#110	#111	#112	#113	#114	#115	#116	#117	#118	#119	#120	#121	#122	#123	#124	#125	#126	#127	#128	#129	#130	#131	#132	#133	#134	#135	#136	#137	#138	#139	#140	#141	#142	#143	#144	#145	#146	#147	#148	#149	#150	#151	#152	#153	#154	#155	#156	#157	#158	#159	#160	#161	#162	#163	#164	#165	#166	#167	#168	#169	#170	#171	
2.790010E+2	-2.451096E-3	-6.032093E-3	-1.130331E-2	2.854679E-3	-1.266609E-2	-3.814418E-3	-8.642088E-3	2.857790E-3	-3.482623E-3	-9.762328E-3	-5.403044E-4	-3.079172E-3	-8.839997E-5	-4.522513E-3	-3.165508E-3	3.784366E-3	-3.592477E-3	-2.083323E-3	4.887249E-3	7.285297E-3	-3.568937E-4	-8.509211E-3	-7.901989E-3	-7.893704E-3	-3.150368E-3	-3.430132E-3	-1.190881E-2	2.907354E-3	-1.443558E-2	4.269836E-3	-1.002020E-2	-6.726457E-3	-8.279182E-3	6.464218E-3	-9.990732E-3	-1.500426E-2	-1.128066E-2	3.904374E-3	-8.385001E-3	-9.190307E-3	-8.475668E-3	9.668102E-4	-1.286638E-2	-1.324405E-2	-1.374931E-2	6.363168E-3	-4.348995E-3	-1.169017E-2	1.413729E-2	-1.043819E-2	-3.281177E-4	6.950661E-4	-1.599802E-3	-1.863980E-3	1.218750E-3	-3.382687E-3	-1.230482E-2	1.091510E-3	-1.183558E-4	5.613534E-3	-5.625360E-3	-4.615119E-3	-5.703191E-3	-4.894155E-3	-1.068316E-3	-3.518239E-3	-5.831841E-3	-6.614454E-3	-1.644416E-3	-3.660372E-3	-7.074108E-3	2.617159E-3	-6.001508E-3	-3.663496E-3	-3.963165E-3	-6.301823E-3	7.787530E-4	-1.437831E-3	2.141168E-3	3.627086E-3	-2.804828E-3	-5.188009E-3	-6.555528E-3	-9.864680E-3	-3.760448E-3	-1.713273E-3	-1.250914E-2	7.128358E-4	-4.000053E-4	1.143651E-3	-8.341380E-4	-1.147826E-3	-4.892642E-3	-1.392674E-2	1.067045E-3	-1.889071E-3	-5.463356E-3	-3.094083E-3	3.833105E-3	-4.474564E-3	7.445618E-4	-1.279194E-3	1.011891E-2	-2.539240E-3	-1.935159E-3	-1.123483E-2	8.251951E-4	4.036642E-3	-2.727789E-3	9.065955E-3	-2.578294E-3	-6.810302E-3	-2.367725E-3	-3.843449E-3	-1.201183E-2	1.456037E-2	-4.869994E-3	-6.644015E-3	1.837897E-3	-1.642528E-3	-2.654788E-3	-2.966562E-4	1.529023E-3	5.898928E-3	-1.262217E-2	-8.842417E-3	1.857683E-3	-5.809505E-3	9.623022E-4	-7.809166E-3	-7.207899E-3	8.080553E-4	-9.151828E-3	-9.381747E-3	-9.372144E-3	-6.785708E-4	1.170784E-3	-1.348544E-2	-2.910451E-3	3.385367E-3	-1.594992E-2	-1.396692E-2	7.040482E-3	-1.343487E-3	-1.020923E-2	6.326062E-3	-2.383528E-3	-1.461050E-2	-1.160175E-2	-6.619658E-3	-3.718204E-3	1.076739E-2	-4.110779E-3	1.915323E-3	5.049809E-3	-5.739965E-3	-1.938034E-3	-8.669809E-3	-6.639385E-3	-3.609898E-3	-4.816034E-3	6.757806E-3	1.043558E-3	-2.931510E-3	-9.210178E-3	-3.497041E-3	-2.892858E-3	-1.045901E-2	2.868972E-3	1.196939E-3	-1.159672E-2
2.795050E+2	-1.937857E-2	-6.888284E-3	-7.457967E-3	-4.684343E-3	6.099109E-3	-5.429297E-3	-8.655396E-3	2.847333E-3	-3.506530E-3	-1.231375E-2	-7.418451E-3	-1.444638E-3	1.001022E-2	1.026083E-3	-6.682953E-3	-2.083802E-3	-1.664587E-4	-1.097371E-2	-3.713659E-3	1.558149E-3	-1.472008E-2	5.144394E-3	-9.490073E-3	-7.220082E-3	-8.422935E-3	2.962810E-3	1.954411E-3	4.421213E-3	-3.315738E-3	-6.520425E-3	-6.286498E-3	-5.265849E-3	4.170556E-3	-9.649586E-3	5.316814E-3	-5.738708E-3	-4.774278E-3	-1.111566E-2	2.779683E-3	-1.283200E-2	-5.777408E-3	-3.026846E-3	2.748689E-3	-2.277511E-3	-4.550615E-3	2.080435E-4	-1.941829E-3	-2.133578E-3	-1.188461E-3	2.483416E-3	4.981439E-4	-1.102990E-2	-4.786121E-3	-1.510057E-2	-1.760123E-2	6.224188E-3	-5.858846E-3	3.583147E-3	-4.399047E-3	-2.613784E-3	1.054257E-2	-5.372812E-3	-1.276542E-2	-6.048544E-3	1.774393E-3	5.172837E-3	-2.420780E-3	-6.942158E-3	-9.867835E-3	-8.430802E-3	6.761003E-3	9.714731E-4	-1.571311E-3	-8.446748E-3	5.572559E-3	-6.202980E-3	3.499716E-3	-1.038756E-2	-5.914890E-3	-7.192971E-3	-4.655494E-3	5.177655E-3	5.105340E-3	1.067038E-2	-5.316835E-3	6.048455E-4	1.674138E-3	-2.996204E-3	-3.677552E-4	-3.260078E-3	-5.599333E-3	-6.328283E-3	2.284334E-4	-7.775345E-3	-2.797869E-3	-3.466530E-3	-8.831132E-3	-6.599937E-3	-7.878010E-3	5.323007E-4	-7.430510E-4	-1.417366E-2	-6.345168E-3	-5.803368E-4	1.788456E-3	1.847054E-4	-7.036155E-3	-6.288628E-3	-1.842185E-3	-8.836519E-3	-1.179345E-2	9.767038E-3	-5.290001E-3	5.098057E-4	3.783127E-4	-3.368280E-3	-3.311910E-3	6.198802E-3	-1.073915E-2	-7.964137E-3	-1.023034E-2	-1.116324E-2	-5.056490E-3	1.215044E-3	-9.094177E-3	-5.682061E-3	-6.523333E-3	-1.136685E-2	-9.012413E-3	1.931948E-4	-7.258900E-3	-7.844070E-3	2.520285E-3	5.259263E-3	-2.128461E-3	-6.247217E-3	5.833521E-3	-3.974572E-3	-9.613134E-3	-3.544229E-3	-2.741005E-3	-1.648955E-3	-3.962706E-3	-1.111312E-2	-1.416051E-3	-3.697519E-3	2.047046E-4	1.478013E-3	-5.380490E-4	3.815994E-3	-4.499959E-3	-9.712231E-3	-3.222152E-3	-5.619544E-3	-8.259129E-3	-2.870370E-3	4.362330E-3	3.785263E-3	1.195865E-3	-4.449024E-3	-6.830045E-3	-9.949763E-3	-4.908948E-3	-2.957085E-3	-6.039354E-3	-2.752309E-3	-4.001955E-4	3.545538E-3	5.876466E-3	1.182219E-3	5.987514E-4
2.800020E+2	1.400349E-2	-1.127608E-2	-7.735705E-3	-9.094271E-3	-1.035485E-2	-9.185386E-4	3.730875E-3	1.803509E-3	-5.564276E-3	-1.083304E-2	-8.417468E-3	-8.852601E-4	-9.647558E-3	-8.453490E-4	-6.121606E-4	-8.167778E-3	-7.297731E-3	2.384070E-4	-1.505076E-2	-1.086568E-2	2.196669E-3	-4.259324E-4	-2.667610E-3	3.901529E-3	-2.568109E-3	-3.685933E-3	-8.890248E-3	-1.167123E-3	-8.687750E-3	-1.745385E-2	-2.048261E-3	3.327665E-4	-4.098499E-3	-5.180713E-3	-1.101302E-2	2.958897E-3	-4.278434E-3	-3.484964E-3	-3.015240E-3	4.025682E-4	-3.406164E-3	-1.047236E-2	-1.875399E-3	8.861961E-3	-3.157157E-3	-8.398339E-4	-7.766507E-3	-1.234052E-2	-4.182819E-3	5.768435E-4	-8.833272E-3	-6.877486E-3	6.744627E-4	-9.034117E-3	-2.646300E-3	-1.204473E-2	-8.787151E-5	-1.572308E-3	2.261320E-3	-2.883296E-3	-1.020642E-2	4.523519E-3	-1.188055E-3	-7.073892E-3	-3.967759E-3	-1.193501E-3	9.966351E-3	1.004044E-3	4.201332E-3	-2.506037E-3	-2.455219E-3	-2.875431E-3	6.088206E-6	-3.059851E-3	-9.650960E-3	-3.609499E-3	-6.095140E-3	-1.665345E-3	-6.112071E-3	-3.641582E-3	-5.798903E-3	-7.961373E-3	-1.969674E-3	-7.041212E-3	-1.415268E-2	-5.729912E-3	-4.922670E-3	-8.572395E-3	-9.496794E-3	-8.726639E-3	-6.573451E-3	-1.097936E-2	-3.989851E-3	-5.346300E-3	-4.545150E-3	-1.002754E-2	-1.068799E-2	-1.483690E-2	-4.728131E-3	-8.887244E-3	-4.810761E-3	-4.472260E-3	-1.297152E-2	-1.034297E-2	-1.298345E-2	-8.694743E-4	6.705476E-4	-1.200437E-2	-1.220187E-2	-5.658059E-3	4.904170E-4	-1.330312E-2	-6.431323E-3	6.396636E-3	-1.225610E-2	-1.931835E-2	-3.550034E-3	-8.394875E-3	-9.664257E-4	-5.528152E-3	-2.791361E-3	-3.915380E-3	-9.394504E-3	-1.200263E-2	1.712534E-2	-1.545086E-2	-2.649573E-3	-4.532220E-3	-9.247554E-3	-1.251638E-2	3.294423E-3	-5.238344E-3	-9.372821E-3	-1.650246E-2	9.154791E-3	3.568338E-3	-1.502290E-2	-5.963145E-3	1.244744E-4	2.029223E-3	-1.392283E-3	-5.378894E-3	3.308688E-3	-1.051381E-2	-5.219361E-3	-3.581074E-4	-6.211073E-3	1.226312E-3	-1.581988E-3	-4.894750E-4	-4.736148E-3	-9.952046E-3	-1.347907E-2	-8.343846E-3	-5.177589E-3	1.686036E-3	4.952384E-3	-4.793645E-3	-7.669219E-3	-1.442986E-3	-1.003575E-2	-7.649648E-3	-1.443040E-2	1.379424E-3	-8.676585E-3	-4.486016E-3	-2.324153E-3	-8.343555E-3	-4.966148E-3	1.657366E-2	-1.180081E-2
2.805050E+2	-8.909446E-3	6.634681E-3	-7.008859E-3	-4.341208E-3	-2.952659E-3	-6.655989E-3	-1.680209E-3	-7.335802E-3	-5.776579E-3	-3.511613E-3	-4.097844E-3	-1.255990E-2	-3.672006E-3	-2.925977E-4	-6.361364E-3	-5.465441E-3	-6.823517E-4	-7.896839E-3	-4.191994E-3	-1.424993E-2	-7.988325E-3	1.606531E-3	-2.116707E-3	-1.031569E-2	-8.863137E-3	-4.683827E-3	4.622629E-3	-4.393468E-3	-2.115456E-3	-3.681807E-3	-1.517643E-3	1.560275E-3	-9.590819E-3	-1.381464E-2	-5.608988E-3	-5.434540E-4	-1.017042E-2	-6.513390E-3	-8.021134E-3	-3.842252E-3	7.019281E-4	-3.567401E-3	-6.399858E-3	-1.337975E-2	-3.385649E-3	-4.113985E-3	-2.402401E-3	-7.198811E-3	-1.156243E-2	-6.859115E-3	-7.385917E-3	-1.871840E-3	-6.093924E-3	-1.059290E-2	-1.075244E-2	-9.330121E-3	-7.374616E-3	-2.601481E-3	-3.135531E-3	-6.397009E-3	-1.176433E-3	-2.721997E-3	-1.422784E-3	-2.587422E-3	-6.896503E-3	-7.448417E-3	-6.262825E-3	4.092452E-3	-5.336394E-4	-3.760473E-6	-6.076257E-3	-1.003940E-2	-6.167787E-3	-2.479772E-3	-4.387877E-4	2.300163E-3	-4.601058E-3	-8.333226E-3	-9.494633E-3	-1.396728E-2	-2.231779E-3	-9.837943E-3	-1.277125E-2	-1.071935E-2	-7.252663E-3	-1.121799E-2	6.075959E-3	-6.537165E-3	2.271043E-3	-3.688242E-3	-2.029063E-3	-1.487486E-3	2.524959E-3	-3.821927E-3	-1.098641E-2	-1.379367E-3	-4.865542E-3	-2.549036E-3	-4.963331E-3	9.406079E-4	-8.057705E-3	9.657125E-3	-3.873630E-3	-9.623658E-3	-5.540143E-3	-8.008223E-3	-3.652237E-4	-3.779630E-3	3.945345E-3	-8.364285E-3	-7.141256E-3	-3.536826E-3	-9.386740E-3	-1.310203E-2	-9.562678E-3	-1.762164E-3	-5.281072E-3	-1.080364E-2	-4.456163E-3	3.902725E-3	5.047401E-3	8.677615E-4	1.807502E-3	-4.055905E-3	-1.109122E-2	-3.799339E-3	-1.688858E-2	4.697147E-3	7.636356E-3	-4.750811E-3	-4.974563E-3	-7.530370E-3	-3.369300E-3	3.968232E-3	-9.042980E-3	3.326556E-3	-1.144633E-2	-2.739866E-3	-2.585685E-3	-3.834905E-3	-1.551634E-2	-9.119960E-3	-1.683839E-2	-4.517224E-3	-1.995503E-4	-1.128104E-2	-7.279486E-3	-1.032408E-2	5.667686E-4	-1.343939E-2	-7.978008E-3	-8.395826E-3	-1.365593E-2	-1.677646E-2	-1.030880E-2	-6.205814E-3	-1.558660E-3	-1.980856E-2	-7.090895E-3	1.131672E-2	-5.304353E-3	-1.028541E-2	-6.217940E-3	-5.295685E-3	-1.280802E-2	-9.590264E-4	-6.697087E-5	-9.673987E-3	-9.663198E-3	-1.266717E-2	-3.925533E-3
2.810050E+2	1.848715E-3	-4.894864E-3	-1.292912E-3	3.067805E-3	-1.477453E-2	3.568124E-3	4.948265E-3	-7.341268E-3	-6.690925E-3	1.470986E-3	-7.119422E-3	-1.946087E-3	-2.916053E-3	-3.448718E-3	-2.899146E-3	-9.086090E-3	5.262964E-3	-1.783974E-3	-1.521443E-2	-2.173297E-3	-5.151343E-3	-1.565376E-2	3.319245E-3	-8.317584E-3	-8.014194E-3	-7.402509E-4	-8.295201E-3	-1.043272E-2	-1.287227E-3	-2.879183E-3	-1.527818E-3	-6.422068E-3	-8.728324E-3	-5.423144E-3	8.718226E-3	1.062486E-3	4.077165E-3	-7.932869E-3	-5.266161E-3	-3.176633E-3	1.542514E-3	4.316564E-3	-7.274951E-3	4.166360E-4	3.993992E-3	-5.647595E-3	-1.429470E-2	-4.171540E-3	-1.782082E-2	-3.683530E-3	-3.310004E-3	5.059085E-3	-4.486695E-3	-5.771521E-3	-4.312641E-3	2.823016E-3	1.606901E-3	-1.146933E-2	-5.728038E-3	8.366927E-3	-8.570366E-3	4.240098E-3	-1.002899E-2	5.186263E-4	-5.115121E-3	-8.328907E-3	-6.283586E-3	3.236842E-3	-5.770904E-3	-1.153455E-2	-8.814537E-3	-2.348386E-3	-2.810629E-3	-4.879891E-3	3.454633E-3	-2.107289E-3	-2.924564E-3	1.316111E-3	8.770561E-4	-2.345956E-3	-3.207742E-3	-3.891836E-3	-6.089339E-3	-1.963044E-3	9.190271E-3	-1.199064E-2	4.551346E-4	-3.611717E-3	3.151106E-3	-1.092296E-3	-4.419497E-3	6.346314E-3	4.999602E-3	1.225520E-3	-3.272224E-3	-2.160381E-3	1.924980E-3	-6.173934E-3	1.640370E-3	-7.292429E-3	4.060086E-4	-3.168971E-3	-9.480153E-4	-1.187500E-2	-6.539179E-3	-2.897092E-3	-1.328335E-3	2.804144E-5	-4.565545E-3	-1.003889E-2	2.857408E-3	-9.358120E-3	5.826902E-3	-8.112675E-4	5.702089E-3	-1.045408E-4	-7.631531E-3	5.699967E-3	-1.128020E-3	1.598141E-3	-2.550129E-3	-8.184335E-3	-7.074525E-3	-1.101784E-2	-4.838741E-3	9.487240E-4	4.805288E-4	-7.078803E-3	-3.968449E-3	-2.095459E-3	-5.777505E-3	-7.410015E-3	-9.471169E-3	-6.691842E-3	-1.404028E-2	-7.166969E-3	6.782394E-3	-4.387562E-3	-7.463354E-3	-5.614321E-3	4.316245E-4	-4.722255E-3	-9.687357E-4	4.822454E-3	-4.383511E-3	-5.260942E-4	5.884962E-3	1.211865E-3	2.195556E-3	-7.858057E-3	-1.177181E-2	6.034214E-3	-3.583938E-3	-2.425890E-4	-4.530099E-3	-8.987939E-3	-1.398687E-2	-5.829206E-3	-1.095795E-2	-1.046559E-2	-6.252833E-3	-3.874854E-4	-3.692305E-3	2.001642E-3	-1.777876E-3	3.509449E-3	-4.174126E-3	-4.434845E-4	-2.186454E-3	5.135601E-3	8.141440E-3
2.815000E+2	-5.219120E-5	2.585559E-3	1.312786E-2	-5.935860E-3	6.392501E-3	1.152367E-2	-5.308094E-3	-8.016767E-3	-1.266952E-3	3.203722E-3	-1.016722E-3	3.850499E-3	-2.079713E-3	1.335948E-3	8.280877E-3	5.460586E-3	2.778076E-3	1.317905E-2	-5.840597E-3	7.573937E-3	4.162385E-3	-4.338347E-3	4.181621E-3	-2.445508E-4	5.901255E-3	-1.467099E-3	-5.812202E-3	-5.677412E-4	-1.221065E-3	7.017140E-3	5.209982E-3	-5.630289E-3	1.884999E-3	-4.431127E-3	-7.152480E-3	6.006532E-3	7.731058E-3	1.342368E-3	1.015060E-3	2.573499E-4	-1.211625E-4	9.157376E-3	3.080218E-3	4.987701E-4	6.543742E-3	-4.820127E-3	-3.146918E-3	9.602513E-3	6.323828E-3	3.818893E-4	9.046381E-3	3.398478E-3	-3.416203E-4	1.212002E-3	6.535523E-3	1.473373E-3	6.716833E-4	1.276229E-2	2.064507E-3	2.328162E-4	2.550158E-3	-1.121357E-2	1.036748E-2	4.507327E-3	2.173100E-3	2.901603E-3	-2.025978E-3	5.812326E-3	2.513877E-3	-3.325531E-3	4.249037E-3	-1.307970E-2	-1.047116E-3	-4.021849E-3	2.752196E-3	-2.917008E-3	-5.416316E-3	-1.840853E-3	4.951428E-3	8.444193E-4	3.449546E-3	-5.546392E-3	1.644061E-3	1.606211E-3	-4.066617E-3	-4.366395E-3	-7.173498E-3	-5.985889E-4	2.299129E-3	-5.421599E-3	-3.561935E-3	-4.145249E-3	-5.058386E-3	2.148596E-3	-9.456041E-3	-2.081091E-3	7.099109E-3	1.423354E-2	-5.854856E-3	-2.741657E-3	-4.194193E-3	3.680121E-3	-6.588823E-3	-4.326259E-3	-4.631332E-3	1.017893E-2	3.958277E-3	-3.773766E-3	-2.806609E-3	1.010250E-3	-1.185988E-3	1.047435E-2	-3.553893E-3	8.097885E-3	1.157045E-2	-3.531845E-3	-9.876649E-4	9.556542E-3	-1.879289E-3	9.893075E-4	-2.496159E-3	-1.506921E-3	-1.310607E-3	4.617334E-3	-3.878247E-3	-6.845670E-3	-1.081183E-3	2.657072E-3	-6.585310E-3	7.703987E-3	3.301495E-3	8.873824E-3	4.529324E-3	-6.619187E-3	9.781742E-3	-4.905601E-3	6.872294E-3	1.544951E-2	2.561487E-3	7.023034E-3	-3.603985E-3	1.560534E-2	-2.513484E-3	9.350571E-3	-1.669678E-3	-4.891467E-3	-1.060199E-2	-1.174409E-2	8.111283E-4	-5.934480E-4	5.141266E-3	-1.149405E-3	-2.298352E-3	-2.612872E-3	3.006667E-3	1.075532E-3	-2.093662E-3	4.969087E-3	1.580898E-3	-1.645071E-3	2.763282E-3	-3.094504E-4	7.315135E-3	-9.162034E-3	-7.867441E-3	1.386698E-3	-7.372590E-3	3.353099E-3	2.756502E-3	-5.889622E-3	8.314254E-3
2.820040E+2	6.123146E-3	6.103867E-3	-4.868099E-3	5.850883E-3	8.357258E-3	1.471870E-3	-8.098999E-3	3.343330E-3	2.540431E-3	1.742206E-3	1.056788E-2	9.826975E-3	-8.820789E-3	-5.568115E-3	4.323881E-3	-2.310476E-3	1.310552E-3	-3.284629E-3	-3.969113E-3	7.796070E-3	6.561858E-3	-4.166120E-3	3.628694E-3	5.344278E-3	7.010170E-3	-5.262439E-3	5.736413E-3	-4.168136E-3	7.489040E-3	-1.250629E-2	-1.266659E-3	6.953656E-3	1.091951E-2	4.431061E-4	6.645240E-3	-3.528572E-3	-1.361302E-3	4.402530E-3	5.116470E-4	9.912843E-3	7.019358E-3	6.861420E-4	4.170485E-3	5.632518E-3	5.131580E-3	2.248854E-3	7.389821E-3	4.511506E-3	2.084762E-3	9.427732E-3	1.882813E-3	1.002968E-3	9.698736E-3	1.254422E-2	1.022867E-3	6.722224E-3	6.928557E-3	-3.173902E-3	3.130749E-3	-1.112580E-2	8.992883E-4	-6.374715E-3	-4.303482E-3	3.950701E-3	-3.471564E-4	1.261441E-2	3.231298E-3	1.834195E-4	1.997429E-3	-3.971546E-4	-3.247734E-4	7.246009E-3	1.097292E-5	1.052946E-2	-9.692671E-4	7.963542E-4	5.895865E-3	-4.088551E-3	5.163181E-3	-4.863691E-4	-4.877326E-3	7.470185E-3	-3.925481E-3	4.431192E-3	7.167302E-3	1.939197E-2	-1.345264E-3	-4.041446E-4	4.376019E-3	4.456691E-3	2.180143E-3	5.754641E-3	-1.168561E-2	1.482145E-3	8.828831E-4	-4.106279E-3	3.851794E-3	4.672454E-3	5.235926E-3	-2.539033E-3	-8.909746E-4	4.575864E-3	2.131946E-3	1.235254E-2	7.625193E-3	2.586993E-3	-7.219076E-3	9.693770E-3	2.561180E-3	-5.057466E-4	-5.157400E-3	1.889659E-3	-4.520395E-4	-5.732697E-3	2.297107E-3	9.071281E-3	9.179353E-5	2.259364E-5	7.487320E-3	-3.063882E-3	3.454644E-3	3.620348E-4	-2.712345E-3	-4.508282E-3	5.225618E-3	6.066311E-3	1.654588E-3	8.147296E-3	3.525040E-3	1.417962E-2	-3.693304E-3	5.526556E-3	7.882732E-3	2.020736E-3	-5.128146E-3	-3.951887E-3	9.960832E-3	1.066122E-3	2.990883E-4	-6.094184E-3	6.588285E-3	-3.520713E-3	1.276304E-2	1.485762E-3	-2.317186E-3	-1.970708E-3	1.158050E-2	8.344373E-3	-4.504711E-3	3.637871E-3	1.153817E-2	2.701447E-3	1.076650E-2	8.407220E-3	2.406675E-3	2.940833E-3	-1.890848E-3	1.102129E-2	1.432912E-2	-1.416053E-3	6.952348E-3	9.847688E-3	3.357044E-3	5.168236E-3	1.226438E-2	2.356202E-3	5.276550E-3	1.186859E-2	7.075752E-5	-5.706825E-3	-3.574014E-3
2.825040E+2	3.100237E-3	-5.599239E-4	9.489506E-3	4.971963E-3	1.425088E-2	-1.499965E-4	1.559357E-2	-1.913447E-3	1.151638E-2	2.179404E-2	2.945191E-3	-1.727697E-3	1.258529E-3	7.820308E-3	-1.287187E-3	4.927065E-3	-2.978561E-3	-4.213074E-3	1.812180E-2	2.888843E-3	2.255509E-3	7.118737E-3	-1.109306E-3	1.602002E-2	1.307577E-2	9.033522E-3	1.541668E-2	8.681341E-3	6.686766E-3	4.734480E-3	3.904936E-3	9.101992E-3	2.974963E-3	1.446170E-2	3.395462E-3	2.129348E-3	1.727123E-2	7.926078E-3	6.731731E-3	9.886022E-3	2.635171E-3	1.439995E-3	9.289188E-3	8.855365E-3	1.087910E-2	6.834577E-4	1.531048E-2	1.287612E-2	-6.919843E-3	6.971621E-3	1.841093E-3	-1.662507E-3	-1.631820E-4	9.734649E-3	1.397167E-2	1.655946E-3	1.089356E-2	4.072293E-3	5.012292E-4	9.486763E-3	8.257539E-3	2.171118E-3	1.215297E-2	4.698268E-3	8.683033E-3	4.835426E-4	-3.551498E-3	-5.708925E-3	1.964057E-3	1.935446E-2	4.463905E-3	3.334454E-3	1.271513E-2	8.891129E-3	6.083338E-3	8.680466E-3	6.706099E-3	1.612817E-2	5.931128E-3	8.060997E-3	1.117206E-2	7.429085E-3	1.240380E-2	4.393432E-3	8.260715E-4	7.190531E-3	4.973905E-3	8.438778E-3	-4.930182E-3	2.649137E-3	1.087800E-2	8.362964E-3	5.225159E-3	1.440576E-2	8.684880E-3	1.667285E-2	-4.940094E-4	2.848590E-3	7.710944E-3	9.140248E-3	1.002809E-2	-2.996457E-3	1.071521E-2	1.086461E-2	8.489643E-3	-6.172821E-3	7.609177E-3	2.632129E-3	5.084749E-3	7.100916E-3	1.067394E-2	1.068911E-2	1.000166E-2	2.153216E-3	1.262972E-3	3.720160E-3	1.074785E-2	1.498699E-3	4.969922E-3	4.789421E-3	-6.182148E-3	9.461945E-3	1.194135E-2	8.756172E-3	4.291914E-3	1.950991E-2	1.408666E-2	5.882160E-3	1.520074E-2	-5.978803E-5	6.205524E-3	9.835587E-4	5.516942E-3	3.529504E-3	1.510622E-2	9.840549E-3	-4.262797E-3	1.890786E-3	1.026204E-2	-1.391247E-3	1.898459E-2	1.143660E-2	-4.834593E-3	7.219272E-4	2.838747E-4	1.508095E-2	7.137638E-3	8.315451E-3	-5.770184E-4	1.321424E-2	6.893566E-3	2.679016E-3	1.437992E-2	1.252696E-2	1.230456E-2	4.558875E-3	7.105799E-3	1.594337E-2	5.693316E-3	8.618199E-3	5.906541E-3	5.660925E-3	5.005101E-3	5.129514E-3	1.460906E-2	6.072004E-3	8.566476E-3	9.023680E-3	3.067493E-3	7.707356E-3	4.559479E-4
2.830060E+2	5.715714E-3	1.432714E-2	1.704948E-2	7.310351E-3	5.648388E-3	4.045721E-4	8.112074E-3	1.375532E-2	1.223107E-2	8.209776E-3	1.509714E-2	7.965280E-3	1.595577E-2	4.494953E-3	8.403561E-3	1.294157E-2	5.365987E-3	1.681810E-2	2.497150E-2	1.866100E-4	1.304022E-2	1.922371E-2	1.215612E-2	8.725781E-3	5.031544E-3	7.273348E-3	7.176321E-3	4.719280E-3	1.688701E-2	2.702010E-2	1.355216E-2	6.095974E-3	1.074679E-2	1.713018E-2	9.689475E-3	1.265773E-2	2.785644E-3	1.147153E-2	1.364942E-2	8.582412E-3	5.881432E-3	4.997248E-4	9.128010E-3	4.636065E-3	-1.705685E-3	5.918018E-3	1.120105E-2	1.054447E-2	1.912850E-2	1.139328E-3	6.588880E-3	1.128613E-2	7.098146E-3	1.887221E-2	1.256380E-2	5.858796E-3	5.525454E-3	-2.692213E-3	5.423167E-3	-6.801516E-4	3.329030E-3	1.936348E-2	1.289146E-2	6.929092E-3	4.764331E-3	-6.833242E-4	1.317886E-2	4.936453E-3	7.140100E-3	1.050374E-2	9.270950E-3	1.417382E-2	4.866164E-3	7.131013E-3	-2.840546E-3	9.361615E-3	2.156646E-3	1.030909E-2	2.457632E-3	1.510166E-2	8.954466E-3	1.234863E-2	1.215807E-2	8.487063E-3	1.736560E-2	7.830864E-3	1.277144E-2	1.356860E-2	3.097440E-3	1.393937E-2	9.959276E-3	3.624286E-3	1.264834E-2	1.160829E-2	2.042289E-2	8.437401E-3	1.746614E-2	1.149930E-2	5.003983E-3	1.532177E-2	7.518024E-3	8.177430E-3	7.761088E-3	1.607031E-2	1.372597E-2	1.623181E-2	2.885593E-3	9.455815E-3	1.255273E-2	1.622638E-2	1.383462E-2	1.882075E-4	1.165316E-2	6.331903E-3	1.261969E-2	7.333655E-4	1.479257E-2	2.865922E-3	4.873906E-3	6.919105E-3	1.840289E-2	1.437479E-2	1.027060E-2	1.109717E-2	1.488169E-2	1.409540E-2	9.063210E-3	7.403706E-3	1.489291E-3	5.154805E-3	1.611073E-2	1.183081E-2	1.091584E-2	2.441750E-2	5.669257E-3	6.214802E-3	1.122030E-4	1.214417E-2	9.325536E-3	8.041261E-3	1.319904E-2	1.131577E-2	6.005703E-3	1.110693E-2	2.513070E-2	1.317925E-3	1.668276E-3	1.610265E-2	1.523006E-2	8.331926E-3	9.131120E-3	7.027446E-3	1.520380E-2	1.074581E-2	5.507907E-3	1.354281E-2	5.047559E-3	3.382216E-3	9.558253E-3	3.093708E-3	1.761684E-2	6.315341E-3	1.252875E-2	6.667498E-3	1.950602E-2	-1.629963E-3	3.387867E-3	1.129131E-3	2.175609E-3	-7.532158E-3	1.338668E-2
2.835010E+2	2.901559E-2	1.278386E-2	7.334497E-3	1.766110E-2	3.188106E-2	1.425153E-2	2.359732E-2	2.100688E-2	1.882008E-2	1.001135E-2	1.465639E-2	1.652794E-2	2.422351E-2	2.492297E-2	1.648195E-2	2.974421E-2	8.908302E-3	1.432701E-2	1.480595E-2	3.270265E-2	1.563009E-2	3.436704E-2	2.211529E-2	2.083078E-2	3.020790E-2	1.473900E-2	1.232990E-2	2.276675E-2	1.625366E-2	3.255085E-2	1.150232E-2	1.905102E-2	3.089245E-2	1.148707E-2	2.224989E-2	1.963313E-2	3.693760E-2	7.341734E-3	1.390758E-2	6.149680E-3	3.008052E-2	1.290972E-2	2.081169E-2	1.151751E-2	1.448887E-2	1.474795E-2	1.710981E-2	2.816640E-2	1.111816E-2	1.442736E-2	2.110821E-2	2.316248E-2	2.500829E-2	2.436447E-2	2.410051E-2	1.565950E-2	1.380112E-2	3.563969E-2	2.679183E-2	1.292234E-2	1.766862E-2	2.217375E-2	1.560640E-2	2.167534E-2	2.724710E-2	1.705518E-2	1.425433E-2	3.864238E-2	1.356460E-2	1.153851E-2	1.453863E-2	2.010055E-2	1.989813E-2	1.713956E-2	1.660531E-2	1.582594E-2	2.435287E-2	3.469872E-2	2.482556E-2	5.025675E-3	2.559622E-2	2.126195E-2	1.622719E-2	2.298404E-2	2.749937E-2	2.212694E-2	2.771178E-2	2.376530E-2	1.646820E-2	1.319611E-2	1.997251E-2	1.816334E-2	2.590300E-2	2.688045E-2	2.321500E-2	2.710664E-2	1.242718E-2	1.706386E-2	1.289651E-2	3.323656E-2	1.895283E-2	1.380487E-2	2.278368E-2	2.812420E-2	2.255527E-2	3.455489E-2	1.638162E-2	2.261636E-2	1.281289E-2	2.345527E-2	4.583635E-2	2.442277E-2	1.858474E-2	1.738279E-2	2.457465E-2	3.271181E-2	2.359961E-2	1.388068E-2	1.517272E-2	8.617518E-3	2.564329E-2	1.884277E-2	1.973450E-2	2.262768E-2	2.699484E-2	2.254828E-2	1.095395E-2	1.691313E-2	1.622949E-2	2.529366E-2	2.268805E-2	2.688006E-2	2.555810E-2	6.599836E-3	2.827073E-2	2.673157E-2	2.920618E-2	1.674682E-2	1.289962E-2	1.721280E-2	1.093379E-2	3.277730E-3	2.935966E-2	1.672834E-2	5.509235E-3	1.972505E-2	1.244976E-2	1.366805E-2	1.793091E-2	1.263205E-2	1.484853E-2	1.250937E-2	1.350168E-2	2.288317E-2	1.409210E-2	2.732043E-2	2.180125E-2	3.869853E-5	1.702499E-2	1.999817E-2	2.487970E-2	2.509267E-2	2.839540E-2	2.053864E-2	2.160117E-2	3.232698E-2	2.655102E-2	5.807358E-3	2.500137E-2	3.472309E-2	3.957419E-2
2.840000E+2	4.275272E-2	5.027614E-2	3.856476E-2	4.140906E-2	7.157207E-2	5.517241E-2	6.143205E-2	4.961548E-2	5.679761E-2	5.760828E-2	5.396079E-2	6.940604E-2	5.306238E-2	7.123732E-2	6.518132E-2	3.646648E-2	6.096496E-2	5.343000E-2	4.984404E-2	4.852485E-2	4.950634E-2	5.959045E-2	5.378277E-2	4.884177E-2	4.890677E-2	4.335940E-2	3.893227E-2	5.817179E-2	4.152989E-2	5.637817E-2	4.999734E-2	4.702392E-2	4.429423E-2	4.402913E-2	3.522681E-2	5.162766E-2	4.516394E-2	4.640398E-2	5.208552E-2	4.745190E-2	5.055728E-2	3.910505E-2	5.822876E-2	3.577715E-2	7.474295E-2	4.487111E-2	5.831914E-2	5.361468E-2	4.801211E-2	5.263903E-2	5.427047E-2	5.287327E-2	4.009179E-2	4.315618E-2	7.392888E-2	4.471708E-2	4.557969E-2	4.983587E-2	4.800071E-2	5.909293E-2	5.288346E-2	4.389448E-2	4.313657E-2	6.085873E-2	6.097522E-2	5.443977E-2	5.429383E-2	5.685327E-2	6.198863E-2	5.057564E-2	4.670219E-2	4.331777E-2	4.793783E-2	7.192378E-2	5.576234E-2	6.319341E-2	5.177324E-2	4.292553E-2	5.306036E-2	4.784020E-2	5.172034E-2	7.367466E-2	5.277503E-2	4.817795E-2	7.027862E-2	4.171965E-2	3.946402E-2	5.061907E-2	4.587686E-2	4.945241E-2	6.535054E-2	6.291046E-2	4.326006E-2	3.359233E-2	4.910286E-2	5.189151E-2	6.062264E-2	6.204452E-2	4.041380E-2	4.323303E-2	5.382890E-2	3.073054E-2	5.263105E-2	4.532989E-2	4.728228E-2	6.253027E-2	5.690727E-2	6.489215E-2	3.454925E-2	4.161614E-2	5.016204E-2	4.808361E-2	5.269598E-2	5.560701E-2	4.091802E-2	3.413623E-2	5.076374E-2	4.428157E-2	3.450488E-2	5.024332E-2	6.815494E-2	5.397789E-2	6.039473E-2	3.866584E-2	4.230962E-2	5.218344E-2	5.658825E-2	4.556927E-2	6.184059E-2	3.860426E-2	7.223996E-2	4.805355E-2	5.051214E-2	4.789459E-2	4.406981E-2	4.109393E-2	5.337259E-2	6.048001E-2	4.809625E-2	6.148775E-2	5.388235E-2	4.588285E-2	5.968188E-2	5.677260E-2	6.386985E-2	5.489178E-2	4.213198E-2	6.377646E-2	6.143036E-2	4.569096E-2	6.036240E-2	4.318297E-2	5.696591E-2	6.088605E-2	5.339772E-2	4.502905E-2	6.855395E-2	5.573495E-2	6.251939E-2	4.644559E-2	5.524411E-2	3.673903E-2	5.455385E-2	4.977041E-2	5.047421E-2	6.042860E-2	4.965837E-2	4.230218E-2	6.617702E-2	4.081671E-2	5.389121E-2
2.841030E+2	6.198856E-2	6.853861E-2	6.347078E-2	5.515819E-2	7.161463E-2	6.432727E-2	7.023577E-2	6.625644E-2	7.540682E-2	7.451288E-2	7.012345E-2	7.209818E-2	7.908604E-2	7.129528E-2	7.291298E-2	7.284587E-2	6.698249E-2	5.264736E-2	5.863269E-2	7.078994E-2	6.144218E-2	6.296587E-2	6.122083E-2	6.903137E-2	7.965049E-2	6.023790E-2	7.494391E-2	7.115716E-2	6.693806E-2	5.721282E-2	5.955881E-2	6.269062E-2	6.669241E-2	4.909199E-2	7.160281E-2	5.938416E-2	5.957991E-2	7.086377E-2	5.653142E-2	7.276776E-2	6.851263E-2	6.605793E-2	6.913959E-2	4.938585E-2	9.199854E-2	5.789234E-2	8.036119E-2	5.607109E-2	6.065883E-2	6.543172E-2	6.814844E-2	6.097629E-2	5.068997E-2	5.129395E-2	6.665719E-2	7.076077E-2	7.068734E-2	6.780794E-2	6.976001E-2	6.344402E-2	7.029023E-2	6.534381E-2	5.715374E-2	5.334083E-2	7.135957E-2	7.448144E-2	6.668030E-2	6.651172E-2	5.493548E-2	7.037141E-2	7.686057E-2	4.974992E-2	6.765176E-2	6.445458E-2	6.243315E-2	7.623433E-2	5.517054E-2	5.988770E-2	9.148513E-2	5.690334E-2	7.244246E-2	5.812693E-2	5.643726E-2	8.911012E-2	8.564599E-2	6.261832E-2	6.197736E-2	7.425468E-2	5.629158E-2	7.073761E-2	8.068789E-2	7.688175E-2	6.997177E-2	6.526668E-2	6.814644E-2	5.907213E-2	7.613160E-2	6.088262E-2	5.974806E-2	6.493802E-2	5.959833E-2	6.352299E-2	6.885274E-2	7.264049E-2	5.475072E-2	5.680900E-2	6.875971E-2	5.423586E-2	8.525970E-2	7.200040E-2	8.377673E-2	6.373267E-2	5.525804E-2	8.452237E-2	6.067152E-2	7.510796E-2	6.719252E-2	6.665144E-2	6.147773E-2	8.084683E-2	7.107470E-2	7.590871E-2	5.339661E-2	7.177190E-2	6.080268E-2	4.958703E-2	5.650835E-2	7.182812E-2	7.221972E-2	5.415268E-2	7.791826E-2	7.559935E-2	5.949614E-2	6.002927E-2	6.406896E-2	7.441151E-2	5.493238E-2	4.651382E-2	5.849928E-2	4.391226E-2	7.151171E-2	5.396906E-2	5.424892E-2	6.950784E-2	5.816653E-2	6.413132E-2	6.603879E-2	8.586458E-2	8.169711E-2	7.975112E-2	6.286973E-2	6.856339E-2	5.765353E-2	7.800791E-2	7.348721E-2	8.780631E-2	5.299875E-2	5.047758E-2	6.424198E-2	7.359722E-2	6.105511E-2	7.524520E-2	6.426924E-2	5.576514E-2	6.312806E-2	7.256312E-2	6.538786E-2	8.190865E-2	6.633794E-2	5.688296E-2	7.276004E-2
2.842040E+2	6.653689E-2	6.096229E-2	7.101215E-2	7.856327E-2	6.564390E-2	7.741205E-2	7.381808E-2	6.266798E-2	6.557470E-2	6.772385E-2	8.838889E-2	6.721511E-2	8.580910E-2	7.766685E-2	8.005298E-2	7.092260E-2	6.011213E-2	5.581073E-2	7.996279E-2	7.465356E-2	6.699905E-2	8.683180E-2	8.424430E-2	6.588711E-2	7.738909E-2	7.263011E-2	6.147386E-2	5.531867E-2	6.320930E-2	7.836365E-2	8.711085E-2	7.645474E-2	6.566014E-2	7.593192E-2	7.889172E-2	6.590047E-2	7.396923E-2	8.587325E-2	6.955256E-2	5.373229E-2	8.610791E-2	5.932211E-2	5.948045E-2	6.911884E-2	7.295104E-2	7.430089E-2	8.526445E-2	8.046265E-2	4.196317E-2	5.014299E-2	7.127347E-2	6.898405E-2	7.944144E-2	5.709431E-2	7.562695E-2	6.583871E-2	8.704652E-2	7.004230E-2	7.852107E-2	7.718203E-2	6.728587E-2	7.023555E-2	7.697620E-2	6.977190E-2	9.377175E-2	7.235094E-2	7.975624E-2	6.873915E-2	6.124136E-2	6.651312E-2	7.367301E-2	7.010038E-2	8.078139E-2	7.946262E-2	7.974541E-2	8.142496E-2	9.415402E-2	7.506720E-2	8.510619E-2	6.232057E-2	7.893401E-2	6.400572E-2	6.712708E-2	8.389178E-2	6.669583E-2	7.039647E-2	6.696919E-2	8.028699E-2	8.843175E-2	4.566929E-2	6.840783E-2	9.343602E-2	7.312003E-2	8.791104E-2	8.284732E-2	7.462955E-2	6.087563E-2	7.367162E-2	9.165110E-2	6.245959E-2	8.352172E-2	6.568835E-2	5.709787E-2	9.100651E-2	6.508608E-2	4.878224E-2	8.042637E-2	7.303315E-2	8.296643E-2	8.974866E-2	6.368938E-2	8.391629E-2	9.334696E-2	7.458251E-2	7.220322E-2	9.356695E-2	5.256102E-2	6.059179E-2	5.464922E-2	8.976183E-2	5.102696E-2	6.296970E-2	7.997794E-2	6.381510E-2	6.498278E-2	8.055603E-2	7.382105E-2	5.549404E-2	6.587933E-2	6.686851E-2	6.478925E-2	5.171669E-2	6.903774E-2	7.689228E-2	7.146607E-2	7.332271E-2	8.966389E-2	6.532441E-2	6.689711E-2	8.314797E-2	7.284316E-2	6.851475E-2	6.896200E-2	7.552361E-2	7.459813E-2	5.773742E-2	8.525190E-2	8.629331E-2	7.197511E-2	9.052403E-2	8.305198E-2	8.295221E-2	7.176495E-2	9.635673E-2	4.997554E-2	5.649035E-2	6.884387E-2	8.195858E-2	6.884916E-2	7.488298E-2	8.898423E-2	8.369250E-2	7.370634E-2	7.578605E-2	8.316132E-2	8.027642E-2	9.875772E-2	7.634369E-2	6.185837E-2	4.771602E-2	3.842531E-2
2.843030E+2	8.825049E-2	6.414056E-2	5.902922E-2	8.377067E-2	8.824879E-2	7.983357E-2	7.858048E-2	8.269450E-2	6.038499E-2	6.370479E-2	6.877249E-2	6.865778E-2	7.626002E-2	6.888243E-2	7.783852E-2	6.532623E-2	6.475935E-2	8.016529E-2	6.401038E-2	7.088853E-2	6.553222E-2	7.374646E-2	7.318812E-2	7.467808E-2	5.784881E-2	7.757888E-2	7.959348E-2	7.634576E-2	8.188840E-2	6.187251E-2	7.667700E-2	9.075132E-2	8.407931E-2	6.312648E-2	7.527820E-2	8.241303E-2	8.139688E-2	8.292173E-2	7.776636E-2	6.384753E-2	6.357845E-2	6.855640E-2	7.769494E-2	6.889140E-2	7.598401E-2	6.744960E-2	8.000183E-2	9.461368E-2	7.112263E-2	7.069953E-2	8.885905E-2	8.945866E-2	6.522306E-2	7.356935E-2	7.959129E-2	7.431229E-2	7.228518E-2	6.461056E-2	9.418399E-2	7.522951E-2	7.049996E-2	7.490746E-2	7.696784E-2	6.797484E-2	7.191928E-2	8.275059E-2	6.676212E-2	9.390459E-2	6.796653E-2	5.842555E-2	7.601080E-2	7.249570E-2	6.568142E-2	8.331740E-2	7.889587E-2	7.364116E-2	6.545325E-2	7.785090E-2	6.597568E-2	7.164141E-2	8.059392E-2	7.360085E-2	8.542538E-2	7.700297E-2	7.913042E-2	5.645452E-2	6.775003E-2	7.153370E-2	7.821116E-2	7.480815E-2	6.908139E-2	7.034317E-2	8.237234E-2	8.815774E-2	7.096142E-2	7.469904E-2	6.358569E-2	8.525442E-2	9.632043E-2	7.963146E-2	8.275099E-2	7.141060E-2	9.585838E-2	6.504053E-2	7.250379E-2	6.993326E-2	9.157684E-2	6.193041E-2	8.373890E-2	6.294292E-2	8.946778E-2	6.478654E-2	9.603744E-2	7.993962E-2	8.836865E-2	6.754378E-2	9.220907E-2	6.529425E-2	7.581840E-2	8.846455E-2	8.559354E-2	9.864225E-2	6.305552E-2	6.612415E-2	7.125518E-2	8.229419E-2	7.454102E-2	6.337718E-2	8.202454E-2	6.547544E-2	7.699219E-2	6.378441E-2	8.321435E-2	8.184218E-2	7.303441E-2	7.415783E-2	8.116947E-2	7.802696E-2	8.555723E-2	6.692062E-2	6.816439E-2	7.963189E-2	7.048931E-2	8.520817E-2	8.677086E-2	6.105560E-2	7.169918E-2	6.643533E-2	9.585971E-2	6.796911E-2	8.222145E-2	8.079355E-2	8.726176E-2	7.553157E-2	7.277734E-2	6.229322E-2	7.819124E-2	8.820064E-2	7.548227E-2	7.569524E-2	8.216184E-2	8.173671E-2	8.079479E-2	7.108678E-2	6.765408E-2	6.806166E-2	7.358699E-2	7.999191E-2	8.141759E-2	7.091816E-2	8.356956E-2
2.844010E+2	9.199970E-2	9.972370E-2	9.499277E-2	1.014776E-1	1.018020E-1	8.984039E-2	8.154692E-2	8.245850E-2	1.242719E-1	7.877890E-2	9.240498E-2	1.121412E-1	8.957067E-2	1.075910E-1	9.513731E-2	9.838273E-2	9.484975E-2	1.163548E-1	9.788572E-2	1.049606E-1	8.626536E-2	8.580511E-2	1.121179E-1	1.023174E-1	1.025335E-1	9.810655E-2	1.013613E-1	1.215337E-1	1.005257E-1	9.864287E-2	9.182667E-2	1.144973E-1	9.926036E-2	1.048175E-1	9.153602E-2	9.986192E-2	1.108082E-1	1.045069E-1	9.270172E-2	9.377046E-2	1.034711E-1	9.869590E-2	1.139393E-1	1.077635E-1	9.951930E-2	9.834886E-2	1.074905E-1	1.077702E-1	1.088309E-1	9.323186E-2	1.038114E-1	8.240687E-2	1.085253E-1	9.398010E-2	9.432355E-2	8.977178E-2	1.031003E-1	8.633055E-2	8.817800E-2	1.090955E-1	9.797692E-2	9.943574E-2	1.049581E-1	1.199396E-1	7.597262E-2	9.746195E-2	1.021680E-1	9.814589E-2	8.822372E-2	1.163704E-1	1.261309E-1	9.163708E-2	9.841816E-2	1.328914E-1	1.035002E-1	1.001000E-1	9.736540E-2	1.079371E-1	1.305444E-1	8.753524E-2	1.043986E-1	1.202552E-1	1.006739E-1	1.265906E-1	1.059794E-1	1.035103E-1	1.083296E-1	1.116256E-1	9.111407E-2	1.260635E-1	9.043817E-2	9.793415E-2	9.564159E-2	1.147396E-1	9.554854E-2	9.575612E-2	1.072381E-1	1.172557E-1	8.142736E-2	9.021065E-2	1.041727E-1	1.129157E-1	9.406439E-2	9.105221E-2	1.297771E-1	1.218508E-1	1.026358E-1	9.566079E-2	9.987910E-2	1.034422E-1	1.037537E-1	8.862416E-2	8.997776E-2	1.076109E-1	1.035862E-1	9.607537E-2	9.344235E-2	9.635324E-2	8.181314E-2	9.696175E-2	8.922388E-2	9.116194E-2	1.134297E-1	1.033778E-1	7.953499E-2	8.466258E-2	1.077698E-1	7.451057E-2	8.160123E-2	9.211812E-2	8.936584E-2	1.096099E-1	1.126746E-1	1.227407E-1	1.076181E-1	7.714452E-2	1.043824E-1	9.367509E-2	9.070806E-2	8.639834E-2	9.676465E-2	8.791041E-2	1.002808E-1	9.796198E-2	1.037232E-1	9.294687E-2	1.182862E-1	1.056216E-1	1.206941E-1	9.476426E-2	9.877542E-2	9.245415E-2	8.687249E-2	9.795836E-2	1.067128E-1	9.517055E-2	1.043420E-1	1.024231E-1	9.992775E-2	8.727145E-2	1.075290E-1	1.231013E-1	1.043812E-1	8.982807E-2	9.251633E-2	1.078621E-1	8.954782E-2	9.602285E-2	7.868296E-2	1.058276E-1	9.743356E-2
2.845030E+2	1.516604E-1	1.770842E-1	1.972182E-1	1.527744E-1	1.461676E-1	1.717381E-1	1.591749E-1	1.498784E-1	1.667385E-1	1.626764E-1	1.518523E-1	1.559313E-1	1.733462E-1	1.666044E-1	2.073908E-1	1.555840E-1	1.556750E-1	1.856564E-1	1.878685E-1	1.782983E-1	1.860956E-1	1.914578E-1	1.881504E-1	1.837697E-1	1.875060E-1	1.833902E-1	1.942549E-1	1.720313E-1	1.772170E-1	1.912527E-1	1.731773E-1	1.800587E-1	1.961158E-1	2.047350E-1	2.017657E-1	1.727192E-1	1.872290E-1	1.676642E-1	1.830825E-1	1.800483E-1	1.975497E-1	1.946422E-1	1.626759E-1	2.051081E-1	2.118065E-1	1.930795E-1	1.718225E-1	2.023639E-1	1.634152E-1	1.707838E-1	1.782991E-1	1.948744E-1	1.580456E-1	1.901353E-1	1.779444E-1	1.843169E-1	1.876270E-1	1.828033E-1	1.746611E-1	1.721442E-1	1.780970E-1	1.792192E-1	2.080610E-1	1.679789E-1	1.789805E-1	1.938184E-1	1.978032E-1	1.885341E-1	1.641529E-1	2.025134E-1	1.713547E-1	1.729544E-1	1.837721E-1	1.757756E-1	1.696902E-1	1.778585E-1	1.978373E-1	1.919697E-1	1.779563E-1	2.174411E-1	1.779653E-1	1.964649E-1	1.813395E-1	1.726440E-1	1.929737E-1	1.918606E-1	1.817082E-1	1.909584E-1	1.477140E-1	1.742898E-1	1.858744E-1	1.885994E-1	1.829234E-1	1.833759E-1	1.631644E-1	1.788127E-1	1.889495E-1	1.690506E-1	1.968050E-1	1.549908E-1	2.039273E-1	1.809315E-1	1.834524E-1	1.864763E-1	1.628104E-1	1.717844E-1	1.828336E-1	1.597062E-1	1.549997E-1	2.121248E-1	1.582144E-1	1.918435E-1	1.535321E-1	1.842344E-1	1.939472E-1	1.880013E-1	1.808633E-1	1.717692E-1	1.616718E-1	1.754552E-1	1.740978E-1	1.687358E-1	1.696306E-1	1.839303E-1	1.692502E-1	1.594093E-1	1.614148E-1	1.824965E-1	1.468674E-1	1.789487E-1	1.866366E-1	1.747007E-1	1.618137E-1	1.987665E-1	1.623123E-1	1.783539E-1	1.791032E-1	1.689537E-1	1.962427E-1	1.622002E-1	1.818898E-1	1.870012E-1	1.714724E-1	1.993104E-1	1.968993E-1	1.810928E-1	1.814194E-1	1.668130E-1	1.759949E-1	1.885477E-1	1.744642E-1	1.603715E-1	1.827423E-1	1.809359E-1	2.007130E-1	1.824621E-1	2.058052E-1	1.648664E-1	1.656363E-1	1.803678E-1	1.622867E-1	1.874873E-1	1.807724E-1	1.826182E-1	1.611326E-1	1.857779E-1	1.656945E-1	1.813864E-1	1.739825E-1	1.755260E-1	1.513295E-1
2.846030E+2	3.427334E-1	3.236337E-1	3.003127E-1	3.012789E-1	3.367606E-1	2.964142E-1	3.270215E-1	2.987172E-1	3.033617E-1	3.602605E-1	3.232230E-1	3.261151E-1	3.144181E-1	2.824377E-1	3.058825E-1	3.374008E-1	3.104215E-1	3.463321E-1	3.276867E-1	3.258102E-1	3.231372E-1	3.177231E-1	3.586152E-1	3.414518E-1	3.622784E-1	3.507923E-1	3.554996E-1	3.354142E-1	3.655955E-1	3.373364E-1	3.651208E-1	3.532782E-1	3.330169E-1	3.494600E-1	3.621488E-1	3.490343E-1	3.413567E-1	3.690675E-1	3.277984E-1	3.288146E-1	3.694814E-1	3.678325E-1	3.707274E-1	3.742661E-1	3.595315E-1	3.832862E-1	3.611148E-1	3.601326E-1	3.568284E-1	3.555227E-1	3.545386E-1	3.578924E-1	3.101755E-1	3.231996E-1	3.514185E-1	3.152957E-1	3.480352E-1	3.261275E-1	3.554210E-1	3.655085E-1	3.608793E-1	3.582005E-1	3.682984E-1	3.556339E-1	3.435233E-1	3.305078E-1	3.542165E-1	3.234066E-1	3.420141E-1	3.544613E-1	3.627971E-1	3.195902E-1	3.481311E-1	3.369984E-1	3.437584E-1	3.137544E-1	3.644217E-1	3.385910E-1	3.593418E-1	3.250557E-1	3.508923E-1	3.297376E-1	3.668527E-1	3.799060E-1	3.248254E-1	3.455391E-1	3.202553E-1	3.344933E-1	3.479808E-1	3.315687E-1	3.343645E-1	3.770600E-1	3.331570E-1	3.299752E-1	3.087063E-1	3.636518E-1	3.375975E-1	3.454042E-1	3.229021E-1	3.478869E-1	3.271544E-1	3.070878E-1	3.082613E-1	3.550557E-1	3.067135E-1	3.366470E-1	3.322913E-1	3.220007E-1	3.334771E-1	3.646293E-1	3.183315E-1	3.159869E-1	3.162616E-1	3.159621E-1	3.413458E-1	3.444350E-1	3.141414E-1	3.198837E-1	3.297009E-1	3.272876E-1	3.584291E-1	3.201178E-1	2.976895E-1	3.053773E-1	3.458735E-1	3.344908E-1	3.139988E-1	3.368076E-1	3.415423E-1	3.191008E-1	3.688634E-1	3.322952E-1	3.268390E-1	3.159881E-1	3.267909E-1	3.633488E-1	3.138493E-1	3.124330E-1	3.079244E-1	3.063761E-1	3.237276E-1	3.659106E-1	3.371634E-1	3.381967E-1	3.123581E-1	3.218236E-1	3.125351E-1	3.309787E-1	3.328472E-1	3.368726E-1	3.055863E-1	3.260878E-1	3.221170E-1	3.342632E-1	3.371084E-1	3.666820E-1	3.440753E-1	3.499484E-1	3.238518E-1	3.348631E-1	3.183699E-1	3.016293E-1	3.456269E-1	3.337239E-1	3.603067E-1	2.980733E-1	3.198151E-1	3.113429E-1	3.777360E-1	3.026058E-1	2.791848E-1
2.847020E+2	6.602756E-1	6.208007E-1	6.311108E-1	6.419042E-1	6.584176E-1	6.542430E-1	6.174697E-1	6.179233E-1	6.080765E-1	5.994873E-1	6.476412E-1	6.306906E-1	6.336781E-1	6.560396E-1	6.368425E-1	6.340312E-1	6.300510E-1	6.124261E-1	6.525386E-1	6.370439E-1	6.227055E-1	6.774147E-1	7.412771E-1	7.645113E-1	7.168407E-1	7.285009E-1	7.124507E-1	7.046646E-1	7.272403E-1	7.406078E-1	7.122672E-1	6.973744E-1	6.907867E-1	6.810162E-1	7.521911E-1	7.393724E-1	7.203992E-1	6.977729E-1	7.177983E-1	7.296011E-1	7.354212E-1	7.055522E-1	6.806849E-1	6.928701E-1	7.257893E-1	7.490974E-1	7.324780E-1	7.415336E-1	6.913613E-1	7.408847E-1	7.087898E-1	7.205438E-1	7.139394E-1	7.016151E-1	7.110695E-1	6.929441E-1	6.949929E-1	6.620140E-1	7.020128E-1	6.965301E-1	6.909760E-1	6.818636E-1	7.007756E-1	7.055079E-1	7.219492E-1	7.043314E-1	6.993093E-1	6.967629E-1	6.660260E-1	6.833317E-1	6.297963E-1	7.053168E-1	7.062021E-1	6.797347E-1	6.874484E-1	6.912154E-1	7.105059E-1	7.120847E-1	6.774613E-1	6.679725E-1	7.001226E-1	6.650325E-1	6.791253E-1	6.847129E-1	7.036531E-1	6.690478E-1	6.440980E-1	7.288703E-1	7.042312E-1	6.976018E-1	6.590874E-1	6.778250E-1	6.718714E-1	7.268944E-1	6.728058E-1	6.632890E-1	6.654356E-1	6.689945E-1	7.305842E-1	7.314676E-1	6.724364E-1	6.858760E-1	6.720490E-1	6.933987E-1	7.358056E-1	7.285516E-1	7.088138E-1	6.325657E-1	6.774218E-1	6.769380E-1	6.771331E-1	6.615390E-1	6.610914E-1	7.051573E-1	6.962658E-1	6.919237E-1	6.721150E-1	6.269089E-1	6.885706E-1	6.495088E-1	7.154140E-1	7.369644E-1	6.958181E-1	6.147490E-1	6.517370E-1	6.594588E-1	6.913136E-1	7.248759E-1	6.821989E-1	6.720899E-1	7.168723E-1	6.822220E-1	6.449931E-1	7.081569E-1	6.443290E-1	7.011749E-1	6.979930E-1	6.842854E-1	6.185652E-1	6.670938E-1	6.792995E-1	6.593507E-1	7.263604E-1	6.438168E-1	6.576402E-1	6.685103E-1	7.099996E-1	6.934647E-1	6.763538E-1	7.023240E-1	6.691403E-1	6.691021E-1	6.607475E-1	6.796900E-1	6.582588E-1	7.023380E-1	6.593281E-1	6.589504E-1	6.850415E-1	6.948347E-1	6.841092E-1	6.416319E-1	6.793760E-1	6.806808E-1	6.937709E-1	6.166099E-1	6.598426E-1	7.363714E-1	6.885796E-1	6.075248E-1	5.566158E-1
2.848000E+2	1.163363E+0	1.174113E+0	1.197666E+0	1.151906E+0	1.179864E+0	1.165889E+0	1.133813E+0	1.188081E+0	1.212851E+0	1.163749E+0	1.171889E+0	1.218722E+0	1.161209E+0	1.209039E+0	1.166484E+0	1.200139E+0	1.152569E+0	1.129537E+0	1.280981E+0	1.158443E+0	1.163975E+0	1.211770E+0	1.247550E+0	1.206980E+0	1.232609E+0	1.208439E+0	1.245595E+0	1.190304E+0	1.224396E+0	1.233412E+0	1.232383E+0	1.216318E+0	1.213986E+0	1.217711E+0	1.195113E+0	1.275338E+0	1.235335E+0	1.193321E+0	1.184334E+0	1.228200E+0	1.206753E+0	1.247928E+0	1.191510E+0	1.244981E+0	1.245946E+0	1.247523E+0	1.249217E+0	1.231396E+0	1.206934E+0	1.229770E+0	1.212530E+0	1.217712E+0	1.251373E+0	1.243471E+0	1.185229E+0	1.206353E+0	1.260725E+0	1.262704E+0	1.210778E+0	1.197753E+0	1.177987E+0	1.216485E+0	1.281872E+0	1.201285E+0	1.162031E+0	1.221854E+0	1.242307E+0	1.247085E+0	1.190453E+0	1.190604E+0	1.184303E+0	1.216170E+0	1.269590E+0	1.203688E+0	1.241626E+0	1.177500E+0	1.238726E+0	1.206357E+0	1.191903E+0	1.186210E+0	1.195470E+0	1.236854E+0	1.236474E+0	1.209812E+0	1.220793E+0	1.156642E+0	1.156320E+0	1.184683E+0	1.209591E+0	1.200609E+0	1.270857E+0	1.196624E+0	1.233922E+0	1.261237E+0	1.251900E+0	1.171414E+0	1.175194E+0	1.223750E+0	1.223054E+0	1.214635E+0	1.228597E+0	1.205135E+0	1.186751E+0	1.216347E+0	1.194295E+0	1.207767E+0	1.206616E+0	1.186954E+0	1.188593E+0	1.245181E+0	1.203743E+0	1.181344E+0	1.157614E+0	1.214468E+0	1.288744E+0	1.196216E+0	1.183081E+0	1.157359E+0	1.090529E+0	1.142028E+0	1.245008E+0	1.194647E+0	1.196216E+0	1.216785E+0	1.201103E+0	1.204799E+0	1.216638E+0	1.233466E+0	1.212565E+0	1.176815E+0	1.165814E+0	1.225279E+0	1.238371E+0	1.161800E+0	1.183654E+0	1.260076E+0	1.222035E+0	1.174275E+0	1.200604E+0	1.181458E+0	1.196269E+0	1.181775E+0	1.216356E+0	1.167494E+0	1.174242E+0	1.188691E+0	1.206287E+0	1.211441E+0	1.206905E+0	1.212654E+0	1.181763E+0	1.176534E+0	1.254756E+0	1.193969E+0	1.216818E+0	1.265382E+0	1.217578E+0	1.151660E+0	1.194721E+0	1.183970E+0	1.166882E+0	1.196707E+0	1.190620E+0	1.220768E+0	1.233266E+0	1.125732E+0	1.114076E+0	1.204294E+0	1.201743E+0	1.121673E+0	1.107896E+0
2.849010E+2	1.474810E+0	1.504498E+0	1.461072E+0	1.525394E+0	1.456514E+0	1.484316E+0	1.471774E+0	1.537773E+0	1.531540E+0	1.459332E+0	1.606911E+0	1.522142E+0	1.515244E+0	1.563165E+0	1.440435E+0	1.468409E+0	1.529511E+0	1.538448E+0	1.557294E+0	1.469812E+0	1.509166E+0	1.597399E+0	1.546132E+0	1.552596E+0	1.550317E+0	1.516793E+0	1.479731E+0	1.418531E+0	1.583538E+0	1.571040E+0	1.556696E+0	1.504527E+0	1.480165E+0	1.520923E+0	1.528452E+0	1.478897E+0	1.507965E+0	1.508066E+0	1.556858E+0	1.482151E+0	1.536127E+0	1.605004E+0	1.562955E+0	1.585018E+0	1.515873E+0	1.498570E+0	1.583465E+0	1.548454E+0	1.547510E+0	1.520366E+0	1.503782E+0	1.518340E+0	1.488213E+0	1.495421E+0	1.490687E+0	1.469885E+0	1.581853E+0	1.614440E+0	1.542687E+0	1.508512E+0	1.423636E+0	1.610522E+0	1.562065E+0	1.491210E+0	1.468507E+0	1.530280E+0	1.472566E+0	1.530405E+0	1.422338E+0	1.468888E+0	1.510911E+0	1.500574E+0	1.529973E+0	1.536551E+0	1.561715E+0	1.581030E+0	1.507883E+0	1.610601E+0	1.518883E+0	1.567211E+0	1.493207E+0	1.508801E+0	1.634361E+0	1.489879E+0	1.547861E+0	1.467398E+0	1.456136E+0	1.593241E+0	1.541240E+0	1.571227E+0	1.398440E+0	1.474720E+0	1.537429E+0	1.512727E+0	1.476894E+0	1.405024E+0	1.495564E+0	1.474261E+0	1.508031E+0	1.512021E+0	1.548206E+0	1.489489E+0	1.514963E+0	1.554161E+0	1.589701E+0	1.529004E+0	1.458301E+0	1.507716E+0	1.559884E+0	1.518135E+0	1.527705E+0	1.476872E+0	1.517993E+0	1.528867E+0	1.441913E+0	1.512164E+0	1.573726E+0	1.500728E+0	1.484237E+0	1.543998E+0	1.506970E+0	1.528518E+0	1.496926E+0	1.574675E+0	1.529362E+0	1.561058E+0	1.493629E+0	1.527518E+0	1.521145E+0	1.536681E+0	1.611037E+0	1.493578E+0	1.442996E+0	1.441691E+0	1.539420E+0	1.509599E+0	1.553455E+0	1.439618E+0	1.476189E+0	1.531991E+0	1.528571E+0	1.439262E+0	1.460592E+0	1.534512E+0	1.575307E+0	1.500756E+0	1.479442E+0	1.492521E+0	1.527895E+0	1.514166E+0	1.463751E+0	1.503266E+0	1.484386E+0	1.492174E+0	1.468237E+0	1.508957E+0	1.525944E+0	1.559165E+0	1.510742E+0	1.601612E+0	1.498939E+0	1.551421E+0	1.558982E+0	1.552838E+0	1.524741E+0	1.403361E+0	1.480132E+0	1.477233E+0	1.526823E+0	1.470620E+0	1.470646E+0
2.850010E+2	1.548468E+0	1.505447E+0	1.575991E+0	1.604746E+0	1.502782E+0	1.532475E+0	1.549746E+0	1.545636E+0	1.607466E+0	1.456882E+0	1.582142E+0	1.522388E+0	1.510852E+0	1.617981E+0	1.470031E+0	1.559643E+0	1.528688E+0	1.555669E+0	1.612446E+0	1.490733E+0	1.519498E+0	1.554061E+0	1.555110E+0	1.486340E+0	1.532730E+0	1.498779E+0	1.481774E+0	1.438211E+0	1.524040E+0	1.540309E+0	1.589997E+0	1.553335E+0	1.463131E+0	1.581871E+0	1.517961E+0	1.470172E+0	1.554247E+0	1.543161E+0	1.541908E+0	1.582884E+0	1.473566E+0	1.591468E+0	1.563217E+0	1.521957E+0	1.563195E+0	1.525340E+0	1.496665E+0	1.524228E+0	1.493154E+0	1.547786E+0	1.504836E+0	1.523249E+0	1.539743E+0	1.460807E+0	1.487184E+0	1.477444E+0	1.588064E+0	1.563050E+0	1.509473E+0	1.586287E+0	1.489677E+0	1.518513E+0	1.591183E+0	1.556645E+0	1.475962E+0	1.447880E+0	1.620865E+0	1.544463E+0	1.570187E+0	1.498661E+0	1.560185E+0	1.563427E+0	1.534521E+0	1.494646E+0	1.540973E+0	1.548888E+0	1.523704E+0	1.579103E+0	1.663409E+0	1.557219E+0	1.518388E+0	1.493606E+0	1.428084E+0	1.434360E+0	1.557346E+0	1.536909E+0	1.544117E+0	1.574732E+0	1.500284E+0	1.513464E+0	1.502427E+0	1.513053E+0	1.524793E+0	1.489666E+0	1.447647E+0	1.493666E+0	1.523224E+0	1.427616E+0	1.478535E+0	1.552973E+0	1.518952E+0	1.481351E+0	1.543920E+0	1.622130E+0	1.566584E+0	1.539237E+0	1.555074E+0	1.530286E+0	1.477884E+0	1.660448E+0	1.532432E+0	1.519460E+0	1.551958E+0	1.593002E+0	1.625472E+0	1.583331E+0	1.527863E+0	1.476489E+0	1.543018E+0	1.521885E+0	1.515504E+0	1.517166E+0	1.525445E+0	1.573776E+0	1.543796E+0	1.530468E+0	1.550546E+0	1.591227E+0	1.490554E+0	1.515876E+0	1.585213E+0	1.492942E+0	1.510096E+0	1.486755E+0	1.518500E+0	1.538679E+0	1.526199E+0	1.555302E+0	1.533826E+0	1.594727E+0	1.486964E+0	1.529426E+0	1.570743E+0	1.548315E+0	1.485350E+0	1.566978E+0	1.504488E+0	1.634060E+0	1.575519E+0	1.524447E+0	1.551351E+0	1.548942E+0	1.610956E+0	1.559348E+0	1.529089E+0	1.527970E+0	1.526654E+0	1.555819E+0	1.469624E+0	1.540195E+0	1.527228E+0	1.588324E+0	1.498547E+0	1.544010E+0	1.541486E+0	1.492160E+0	1.582808E+0	1.496984E+0	1.506365E+0	1.439855E+0	1.366853E+0
2.851020E+2	1.429912E+0	1.407593E+0	1.465823E+0	1.357512E+0	1.418533E+0	1.431773E+0	1.399601E+0	1.430983E+0	1.421025E+0	1.330008E+0	1.418052E+0	1.401576E+0	1.421947E+0	1.396035E+0	1.426790E+0	1.377667E+0	1.463593E+0	1.457485E+0	1.440176E+0	1.368771E+0	1.439742E+0	1.360647E+0	1.363724E+0	1.412133E+0	1.444685E+0	1.392077E+0	1.409078E+0	1.384646E+0	1.410834E+0	1.426103E+0	1.411886E+0	1.363894E+0	1.401337E+0	1.417651E+0	1.397224E+0	1.412454E+0	1.419884E+0	1.408646E+0	1.373364E+0	1.427015E+0	1.369926E+0	1.472179E+0	1.388920E+0	1.438060E+0	1.481185E+0	1.431035E+0	1.421494E+0	1.385323E+0	1.385795E+0	1.441138E+0	1.406358E+0	1.413060E+0	1.428179E+0	1.403630E+0	1.400077E+0	1.405644E+0	1.475568E+0	1.380972E+0	1.366457E+0	1.421883E+0	1.402417E+0	1.419130E+0	1.445800E+0	1.422540E+0	1.343313E+0	1.440657E+0	1.479087E+0	1.375892E+0	1.336825E+0	1.422311E+0	1.371841E+0	1.415546E+0	1.394812E+0	1.375110E+0	1.479806E+0	1.439517E+0	1.382457E+0	1.453722E+0	1.445227E+0	1.420113E+0	1.423817E+0	1.404480E+0	1.472205E+0	1.366650E+0	1.441764E+0	1.393078E+0	1.400728E+0	1.413666E+0	1.378365E+0	1.450121E+0	1.407866E+0	1.448826E+0	1.388741E+0	1.408846E+0	1.451528E+0	1.368679E+0	1.393953E+0	1.387273E+0	1.414075E+0	1.450651E+0	1.447481E+0	1.356389E+0	1.434737E+0	1.432400E+0	1.496049E+0	1.406436E+0	1.432865E+0	1.397520E+0	1.403583E+0	1.451475E+0	1.416306E+0	1.450373E+0	1.384021E+0	1.506626E+0	1.323817E+0	1.505083E+0	1.431426E+0	1.376823E+0	1.376690E+0	1.424818E+0	1.443444E+0	1.429108E+0	1.429394E+0	1.368615E+0	1.424520E+0	1.366959E+0	1.491193E+0	1.491814E+0	1.340676E+0	1.357571E+0	1.470240E+0	1.469091E+0	1.398301E+0	1.400254E+0	1.448543E+0	1.438550E+0	1.474664E+0	1.394437E+0	1.330115E+0	1.436090E+0	1.414525E+0	1.516607E+0	1.469479E+0	1.418413E+0	1.436631E+0	1.337622E+0	1.448954E+0	1.447858E+0	1.437658E+0	1.406471E+0	1.415464E+0	1.427790E+0	1.483044E+0	1.405719E+0	1.443385E+0	1.427981E+0	1.381495E+0	1.408796E+0	1.370290E+0	1.443570E+0	1.429568E+0	1.371715E+0	1.448439E+0	1.417894E+0	1.439009E+0	1.420993E+0	1.435056E+0	1.433988E+0	1.424265E+0	1.414101E+0	1.541515E+0
2.851990E+2	1.176122E+0	1.146521E+0	1.245659E+0	1.165493E+0	1.213075E+0	1.185239E+0	1.218543E+0	1.241619E+0	1.213641E+0	1.101116E+0	1.196196E+0	1.193715E+0	1.243465E+0	1.220814E+0	1.175136E+0	1.175026E+0	1.157933E+0	1.212050E+0	1.210865E+0	1.123278E+0	1.221197E+0	1.220971E+0	1.200311E+0	1.173482E+0	1.260046E+0	1.139928E+0	1.235430E+0	1.173556E+0	1.186610E+0	1.185160E+0	1.189663E+0	1.223469E+0	1.173531E+0	1.175303E+0	1.229588E+0	1.227836E+0	1.196673E+0	1.151573E+0	1.200125E+0	1.170015E+0	1.206311E+0	1.245382E+0	1.132896E+0	1.204210E+0	1.272907E+0	1.208050E+0	1.200424E+0	1.184022E+0	1.217066E+0	1.220293E+0	1.185573E+0	1.205405E+0	1.191891E+0	1.218768E+0	1.194360E+0	1.182867E+0	1.253428E+0	1.198365E+0	1.285754E+0	1.158316E+0	1.157789E+0	1.236016E+0	1.215838E+0	1.205698E+0	1.144599E+0	1.211685E+0	1.179379E+0	1.318929E+0	1.152257E+0	1.156583E+0	1.216419E+0	1.150939E+0	1.230208E+0	1.207968E+0	1.265234E+0	1.234660E+0	1.198719E+0	1.200956E+0	1.256295E+0	1.205242E+0	1.159746E+0	1.206963E+0	1.240789E+0	1.162146E+0	1.163329E+0	1.193103E+0	1.202960E+0	1.186706E+0	1.218381E+0	1.212611E+0	1.266271E+0	1.175392E+0	1.150373E+0	1.196448E+0	1.211936E+0	1.230745E+0	1.232312E+0	1.238395E+0	1.262416E+0	1.215431E+0	1.173473E+0	1.139784E+0	1.182177E+0	1.238036E+0	1.215767E+0	1.242871E+0	1.154583E+0	1.188578E+0	1.173414E+0	1.229731E+0	1.159809E+0	1.177662E+0	1.179904E+0	1.249192E+0	1.241971E+0	1.232347E+0	1.226269E+0	1.221056E+0	1.180349E+0	1.166167E+0	1.215648E+0	1.198220E+0	1.156081E+0	1.163819E+0	1.250326E+0	1.225046E+0	1.274628E+0	1.239823E+0	1.145676E+0	1.211541E+0	1.253842E+0	1.205055E+0	1.210675E+0	1.197888E+0	1.180356E+0	1.206899E+0	1.198658E+0	1.182237E+0	1.206593E+0	1.181673E+0	1.194294E+0	1.192584E+0	1.232307E+0	1.190232E+0	1.220279E+0	1.227261E+0	1.203886E+0	1.205846E+0	1.164152E+0	1.198130E+0	1.206695E+0	1.211824E+0	1.244160E+0	1.241582E+0	1.148511E+0	1.164833E+0	1.194736E+0	1.236532E+0	1.193659E+0	1.177291E+0	1.234505E+0	1.230227E+0	1.081590E+0	1.236967E+0	1.265816E+0	1.233251E+0	1.126870E+0	1.166408E+0	1.185168E+0	1.144774E+0	1.156179E+0
2.853000E+2	8.484941E-1	8.849824E-1	8.998682E-1	8.646596E-1	8.928266E-1	8.788088E-1	8.917670E-1	8.742765E-1	8.709619E-1	8.591116E-1	9.130320E-1	8.696768E-1	8.943058E-1	8.424457E-1	9.114975E-1	8.824805E-1	8.407509E-1	8.304008E-1	9.062115E-1	8.699243E-1	8.885595E-1	9.023793E-1	8.352659E-1	8.566192E-1	9.235993E-1	8.201590E-1	9.227711E-1	8.335464E-1	8.888633E-1	8.833005E-1	8.575267E-1	8.907185E-1	8.572037E-1	8.908855E-1	8.668561E-1	8.856488E-1	9.240917E-1	8.455292E-1	8.973717E-1	9.355504E-1	8.684789E-1	9.137489E-1	8.358980E-1	8.975440E-1	8.496823E-1	9.077536E-1	8.889867E-1	8.778317E-1	8.572187E-1	8.661921E-1	9.097601E-1	8.825960E-1	9.052561E-1	8.425204E-1	8.798581E-1	8.704107E-1	9.251188E-1	9.225720E-1	8.225553E-1	8.703844E-1	9.080345E-1	8.380630E-1	8.937911E-1	9.148356E-1	8.921552E-1	8.796291E-1	8.178376E-1	8.838000E-1	8.928334E-1	8.388966E-1	8.363337E-1	9.342125E-1	9.302282E-1	8.865232E-1	8.728737E-1	8.831253E-1	8.900358E-1	9.205858E-1	8.457019E-1	8.752140E-1	8.258820E-1	8.846004E-1	8.679432E-1	8.784682E-1	8.560044E-1	8.962952E-1	8.391252E-1	9.020232E-1	8.633687E-1	8.411218E-1	8.775718E-1	8.809800E-1	8.647161E-1	9.197532E-1	8.470369E-1	9.210799E-1	8.485651E-1	8.683067E-1	8.736991E-1	8.446539E-1	8.931052E-1	8.482365E-1	8.231391E-1	9.068137E-1	8.876155E-1	8.962574E-1	8.942573E-1	8.909540E-1	9.244187E-1	8.961733E-1	9.500039E-1	9.096063E-1	8.912679E-1	8.964031E-1	9.216962E-1	9.957136E-1	8.881724E-1	8.380400E-1	8.880168E-1	8.721730E-1	9.071814E-1	9.360743E-1	8.227798E-1	8.691158E-1	9.346770E-1	8.997999E-1	9.149588E-1	9.101166E-1	9.043231E-1	9.049976E-1	9.120699E-1	8.500928E-1	9.018236E-1	9.041823E-1	8.929286E-1	8.893284E-1	9.015880E-1	8.451062E-1	9.493189E-1	9.221084E-1	8.685654E-1	9.097950E-1	8.719168E-1	9.088141E-1	8.892814E-1	8.087312E-1	8.891724E-1	9.721167E-1	9.349449E-1	8.707346E-1	8.874117E-1	8.857688E-1	8.843801E-1	9.044762E-1	8.482891E-1	8.907367E-1	8.854579E-1	9.429775E-1	8.624964E-1	9.141726E-1	9.036167E-1	9.348471E-1	8.880290E-1	8.705639E-1	9.137670E-1	8.747553E-1	8.938111E-1	9.164220E-1	8.842945E-1	8.947388E-1	1.006552E+0
2.854020E+2	5.637797E-1	5.748338E-1	5.970582E-1	5.705928E-1	5.039387E-1	5.671612E-1	5.390861E-1	5.549817E-1	5.339787E-1	5.568477E-1	5.825158E-1	5.395833E-1	5.751564E-1	5.441748E-1	5.598319E-1	5.628237E-1	6.098105E-1	5.457880E-1	5.305982E-1	5.327200E-1	5.718199E-1	5.472599E-1	5.728789E-1	5.761599E-1	5.248915E-1	5.723787E-1	5.458314E-1	5.278354E-1	5.698872E-1	5.420792E-1	5.710822E-1	5.581870E-1	5.813375E-1	5.592461E-1	5.683144E-1	5.822340E-1	6.067552E-1	5.734866E-1	5.762775E-1	5.626318E-1	5.565668E-1	6.027922E-1	5.698746E-1	5.782318E-1	6.003919E-1	5.605716E-1	5.830489E-1	5.950913E-1	5.678499E-1	5.713501E-1	5.698333E-1	5.465292E-1	5.444855E-1	5.575595E-1	5.805898E-1	5.468751E-1	5.800505E-1	5.736170E-1	6.351597E-1	5.768223E-1	5.573889E-1	5.918308E-1	5.577497E-1	6.005247E-1	5.785364E-1	5.978299E-1	5.501335E-1	5.539873E-1	5.606668E-1	5.656742E-1	5.585213E-1	5.468416E-1	6.072057E-1	5.825152E-1	5.658950E-1	5.692066E-1	5.799326E-1	5.857320E-1	5.683716E-1	5.642441E-1	5.890878E-1	5.142830E-1	5.506850E-1	5.475741E-1	5.970810E-1	5.613150E-1	5.566363E-1	5.615958E-1	5.700707E-1	5.398058E-1	6.311217E-1	5.813854E-1	5.634497E-1	5.711540E-1	5.801100E-1	6.007478E-1	5.814475E-1	5.642005E-1	5.783442E-1	5.919511E-1	5.866910E-1	5.952014E-1	5.465190E-1	5.865079E-1	6.091465E-1	5.960721E-1	5.528417E-1	5.429754E-1	5.895374E-1	5.526817E-1	5.976507E-1	5.806894E-1	5.663725E-1	5.668314E-1	6.116381E-1	5.966153E-1	5.632857E-1	5.654089E-1	5.399445E-1	5.558775E-1	5.699162E-1	5.743390E-1	5.640605E-1	5.390800E-1	6.010161E-1	5.878413E-1	5.857942E-1	5.552374E-1	5.621100E-1	5.705703E-1	5.810256E-1	6.029983E-1	5.802334E-1	5.635876E-1	5.571454E-1	5.967842E-1	5.811563E-1	5.583624E-1	5.502647E-1	5.854922E-1	5.979881E-1	6.307320E-1	6.098383E-1	5.904574E-1	6.209412E-1	5.609322E-1	6.122292E-1	5.491292E-1	5.793767E-1	5.485779E-1	5.274501E-1	5.750348E-1	6.078848E-1	5.647563E-1	5.596355E-1	5.691324E-1	5.318059E-1	5.875457E-1	5.865454E-1	5.595438E-1	5.917656E-1	5.559559E-1	5.829077E-1	5.809307E-1	6.034771E-1	5.729442E-1	5.899405E-1	6.123815E-1	5.122461E-1	6.023063E-1	6.176225E-1
2.855030E+2	4.890116E-1	4.887169E-1	4.180641E-1	4.656031E-1	5.093457E-1	4.684341E-1	4.612138E-1	4.446198E-1	4.858954E-1	4.559797E-1	4.539876E-1	4.921972E-1	4.406236E-1	4.491500E-1	4.560340E-1	4.756432E-1	4.779638E-1	4.604212E-1	5.236771E-1	4.851101E-1	4.872614E-1	5.155234E-1	4.618938E-1	4.868975E-1	4.682875E-1	4.809097E-1	4.792664E-1	4.681651E-1	4.715906E-1	4.813987E-1	5.093371E-1	4.633571E-1	4.345962E-1	4.593612E-1	4.633830E-1	4.875096E-1	4.938470E-1	4.890460E-1	4.928072E-1	4.721419E-1	4.739370E-1	4.621141E-1	4.815756E-1	4.841971E-1	4.967846E-1	4.765903E-1	4.767719E-1	4.536680E-1	4.958036E-1	4.822380E-1	5.240605E-1	4.607056E-1	4.721399E-1	4.811958E-1	4.991100E-1	4.956462E-1	5.303008E-1	4.518501E-1	5.000762E-1	5.260154E-1	4.928762E-1	4.853564E-1	4.760156E-1	5.091891E-1	5.509604E-1	4.380885E-1	5.007597E-1	4.997914E-1	4.731230E-1	5.164669E-1	5.060905E-1	4.997700E-1	4.733229E-1	4.931245E-1	4.737324E-1	4.604291E-1	4.836695E-1	4.817474E-1	5.148406E-1	4.658949E-1	4.430714E-1	4.685056E-1	4.822362E-1	4.891814E-1	5.304056E-1	4.824394E-1	4.590993E-1	4.453795E-1	4.872228E-1	4.731398E-1	4.636264E-1	5.141152E-1	4.743513E-1	5.122215E-1	4.692064E-1	4.755164E-1	4.523975E-1	5.590031E-1	4.553452E-1	4.795377E-1	4.841473E-1	4.952665E-1	4.857757E-1	5.029562E-1	4.717981E-1	4.849554E-1	5.093365E-1	4.843407E-1	4.731669E-1	4.861482E-1	4.658925E-1	4.833359E-1	4.847332E-1	4.638359E-1	4.762593E-1	5.221142E-1	4.813756E-1	4.278567E-1	4.901506E-1	5.142837E-1	5.338175E-1	4.874934E-1	4.905304E-1	4.804154E-1	4.909331E-1	4.778265E-1	4.473462E-1	4.573708E-1	4.964075E-1	4.693468E-1	4.359683E-1	5.094579E-1	4.856589E-1	4.858283E-1	4.927191E-1	5.069002E-1	4.993212E-1	4.997214E-1	4.892556E-1	4.813015E-1	4.680446E-1	4.685076E-1	5.140324E-1	4.825939E-1	4.702723E-1	4.697853E-1	5.061811E-1	5.392496E-1	4.863090E-1	4.666330E-1	5.093158E-1	4.715789E-1	4.817702E-1	4.535650E-1	4.829468E-1	4.951007E-1	4.912666E-1	4.598404E-1	4.927282E-1	5.113525E-1	4.623816E-1	4.770599E-1	4.858183E-1	4.693377E-1	5.260027E-1	4.987720E-1	5.226420E-1	4.682857E-1	4.973847E-1	4.988467E-1	4.321841E-1
2.856010E+2	4.235181E-1	4.183110E-1	4.601297E-1	4.245423E-1	3.946520E-1	4.231866E-1	4.309058E-1	4.624481E-1	4.601147E-1	4.036822E-1	4.229497E-1	4.298361E-1	4.246572E-1	4.474693E-1	4.263573E-1	4.521355E-1	4.520368E-1	4.059396E-1	4.483610E-1	4.298469E-1	4.189196E-1	4.197672E-1	4.513821E-1	4.555280E-1	4.325145E-1	4.323820E-1	4.443203E-1	4.471373E-1	4.640034E-1	4.163856E-1	4.305630E-1	4.510799E-1	4.279206E-1	4.391548E-1	4.436721E-1	4.076694E-1	4.299340E-1	4.570525E-1	4.219317E-1	4.057721E-1	4.221534E-1	4.177054E-1	4.321288E-1	4.301463E-1	4.369360E-1	4.211818E-1	4.765771E-1	4.838253E-1	4.271102E-1	4.477058E-1	4.235706E-1	4.366873E-1	4.219716E-1	4.094317E-1	4.596675E-1	4.849523E-1	4.292718E-1	4.294574E-1	4.209017E-1	4.240564E-1	4.297174E-1	4.325662E-1	4.644331E-1	4.387750E-1	4.376980E-1	4.252614E-1	4.398760E-1	4.012525E-1	4.544608E-1	4.488903E-1	4.211888E-1	4.243796E-1	4.637103E-1	4.445861E-1	4.364984E-1	4.584997E-1	4.320142E-1	4.277503E-1	4.522797E-1	3.826477E-1	3.931736E-1	4.160400E-1	4.488058E-1	4.436846E-1	4.459150E-1	4.444079E-1	4.388272E-1	4.411503E-1	3.837627E-1	4.118402E-1	4.564108E-1	4.426107E-1	4.057507E-1	4.735803E-1	4.437710E-1	3.980393E-1	4.268989E-1	4.416922E-1	4.585402E-1	4.058058E-1	4.798357E-1	4.250217E-1	4.513177E-1	4.489772E-1	4.060825E-1	4.486783E-1	4.828046E-1	4.121963E-1	4.278606E-1	4.240056E-1	4.587840E-1	4.093289E-1	4.299486E-1	4.335506E-1	4.324484E-1	4.490593E-1	4.425407E-1	4.170062E-1	4.250588E-1	4.326563E-1	4.796166E-1	4.470361E-1	4.152945E-1	4.270527E-1	4.772938E-1	4.547715E-1	4.530254E-1	4.440766E-1	4.266463E-1	4.895996E-1	4.752264E-1	4.337664E-1	4.446033E-1	4.475296E-1	4.662514E-1	4.416133E-1	4.558669E-1	4.092435E-1	3.921605E-1	4.368859E-1	4.108727E-1	4.285607E-1	4.612829E-1	4.611691E-1	3.824987E-1	3.992873E-1	4.504186E-1	4.629216E-1	4.149546E-1	4.409912E-1	4.158215E-1	3.965812E-1	4.701455E-1	4.129082E-1	4.593779E-1	4.079320E-1	4.153823E-1	4.396044E-1	4.356550E-1	4.189159E-1	4.625152E-1	4.314351E-1	4.098076E-1	4.354582E-1	4.260148E-1	4.655052E-1	4.886744E-1	4.499104E-1	4.159847E-1	4.323654E-1	3.498892E-1
2.858010E+2	5.392133E-1	4.895864E-1	5.175906E-1	5.703551E-1	5.383933E-1	4.905198E-1	5.140942E-1	5.167047E-1	5.036382E-1	5.191667E-1	5.208174E-1	5.123580E-1	5.133362E-1	5.396396E-1	5.555660E-1	5.219298E-1	4.939209E-1	4.829332E-1	4.484747E-1	4.820533E-1	5.322342E-1	5.176323E-1	5.120564E-1	5.366884E-1	5.582539E-1	5.441331E-1	5.081336E-1	5.041440E-1	5.774070E-1	4.976462E-1	5.282142E-1	5.268998E-1	5.280920E-1	5.361930E-1	5.437255E-1	5.342376E-1	5.531686E-1	5.247265E-1	5.331123E-1	5.481012E-1	5.264353E-1	5.653784E-1	5.578138E-1	4.989936E-1	5.175573E-1	5.454256E-1	5.829471E-1	5.556123E-1	5.092293E-1	5.384206E-1	5.142838E-1	5.360266E-1	5.036614E-1	5.079941E-1	5.441481E-1	5.398020E-1	5.477368E-1	5.873502E-1	5.224798E-1	5.091125E-1	5.329010E-1	5.244506E-1	5.251823E-1	5.144731E-1	5.313022E-1	5.079563E-1	5.800578E-1	5.222013E-1	5.010266E-1	5.082966E-1	4.839067E-1	5.177208E-1	5.262234E-1	5.550479E-1	5.528897E-1	5.518586E-1	5.498906E-1	5.389410E-1	5.735341E-1	5.283392E-1	5.260079E-1	5.242647E-1	5.386348E-1	5.266540E-1	5.190878E-1	4.985542E-1	5.052252E-1	5.326392E-1	5.355315E-1	5.019792E-1	5.429515E-1	5.384910E-1	4.977651E-1	5.310290E-1	5.298483E-1	5.116269E-1	5.095822E-1	5.304123E-1	5.401227E-1	4.801441E-1	5.601915E-1	5.256538E-1	5.125907E-1	5.489373E-1	5.341468E-1	5.406814E-1	5.132355E-1	5.197475E-1	5.146201E-1	5.123445E-1	5.016053E-1	5.255079E-1	5.158954E-1	5.389472E-1	5.157078E-1	5.667157E-1	5.811327E-1	5.036494E-1	5.211905E-1	5.121750E-1	5.375293E-1	5.277105E-1	4.994586E-1	5.009273E-1	5.687659E-1	5.470366E-1	5.548390E-1	5.517221E-1	4.817023E-1	5.376302E-1	5.585319E-1	5.381008E-1	5.375019E-1	5.381270E-1	5.247190E-1	5.343825E-1	5.167403E-1	5.404721E-1	5.229884E-1	5.347364E-1	5.416575E-1	5.248168E-1	5.109895E-1	5.619876E-1	5.749987E-1	5.242994E-1	5.910010E-1	5.293097E-1	5.713477E-1	5.228929E-1	5.596104E-1	5.473902E-1	5.527276E-1	5.461871E-1	5.551212E-1	5.291258E-1	5.444711E-1	5.495589E-1	5.731761E-1	5.490603E-1	5.308733E-1	5.339870E-1	5.486291E-1	5.022639E-1	5.211164E-1	5.368994E-1	5.315296E-1	5.261109E-1	5.352092E-1	5.261129E-1	5.394374E-1
2.860040E+2	7.720400E-1	8.960086E-1	8.856045E-1	8.412510E-1	9.070028E-1	8.810709E-1	8.464025E-1	8.630280E-1	8.563874E-1	8.033824E-1	8.584479E-1	8.269542E-1	8.897611E-1	8.797647E-1	8.425563E-1	8.425221E-1	8.736797E-1	8.527439E-1	9.108952E-1	8.415475E-1	9.126914E-1	8.891959E-1	9.157113E-1	8.822065E-1	9.132233E-1	9.456990E-1	9.121490E-1	8.562082E-1	9.260063E-1	8.835771E-1	8.575043E-1	8.746562E-1	8.717404E-1	8.951085E-1	8.822750E-1	8.606272E-1	8.411608E-1	8.763159E-1	9.101996E-1	8.880529E-1	9.011507E-1	9.041877E-1	9.328355E-1	8.897105E-1	8.781825E-1	9.057263E-1	9.140652E-1	8.757872E-1	8.922513E-1	8.998439E-1	9.201791E-1	9.162517E-1	9.008675E-1	8.241638E-1	8.717919E-1	8.443818E-1	9.223308E-1	8.558233E-1	9.535510E-1	8.592882E-1	8.747257E-1	9.056383E-1	9.689351E-1	9.085391E-1	8.687023E-1	8.561867E-1	9.181568E-1	8.469398E-1	8.600810E-1	9.427914E-1	9.060990E-1	8.767684E-1	8.576135E-1	8.645147E-1	9.216809E-1	8.771641E-1	9.283645E-1	9.204522E-1	8.848115E-1	8.615342E-1	8.568908E-1	9.006430E-1	8.600427E-1	8.887359E-1	8.763503E-1	8.286091E-1	9.252076E-1	8.753985E-1	9.010487E-1	9.095885E-1	9.186037E-1	9.134266E-1	8.587710E-1	9.114195E-1	9.020043E-1	9.207457E-1	8.594197E-1	9.017718E-1	9.232957E-1	8.357373E-1	8.962387E-1	9.003379E-1	8.638643E-1	9.000962E-1	9.032820E-1	8.939337E-1	9.217157E-1	9.013292E-1	8.733657E-1	9.023918E-1	9.276195E-1	8.717420E-1	8.796978E-1	8.768514E-1	9.111999E-1	9.048676E-1	8.397648E-1	8.491657E-1	8.624699E-1	8.879377E-1	8.928560E-1	9.127563E-1	9.046526E-1	8.195670E-1	8.727173E-1	8.665687E-1	9.022604E-1	8.837649E-1	8.906808E-1	8.646687E-1	9.175151E-1	8.818097E-1	8.698159E-1	8.832404E-1	8.610357E-1	9.027482E-1	8.933355E-1	8.481893E-1	8.470398E-1	8.637712E-1	8.839660E-1	8.522733E-1	8.667763E-1	9.040904E-1	9.058239E-1	8.447240E-1	8.377007E-1	8.673583E-1	8.851523E-1	8.740544E-1	8.946784E-1	9.281709E-1	9.281529E-1	8.876658E-1	8.325469E-1	9.114190E-1	8.591926E-1	9.139526E-1	8.371029E-1	9.316163E-1	9.129161E-1	8.518303E-1	8.814741E-1	9.116143E-1	8.875880E-1	8.754945E-1	9.007890E-1	8.449817E-1	8.995098E-1	9.630933E-1	9.082092E-1
2.862050E+2	1.221757E+0	1.234736E+0	1.251746E+0	1.220597E+0	1.302282E+0	1.223015E+0	1.224262E+0	1.207064E+0	1.206147E+0	1.219344E+0	1.236306E+0	1.212940E+0	1.264561E+0	1.194146E+0	1.211341E+0	1.187009E+0	1.242582E+0	1.252858E+0	1.253107E+0	1.180528E+0	1.235633E+0	1.255719E+0	1.289325E+0	1.241152E+0	1.194065E+0	1.250725E+0	1.232347E+0	1.180771E+0	1.241659E+0	1.214884E+0	1.180104E+0	1.282918E+0	1.187628E+0	1.189217E+0	1.204258E+0	1.248236E+0	1.219007E+0	1.180828E+0	1.178137E+0	1.211201E+0	1.206526E+0	1.197068E+0	1.300971E+0	1.153337E+0	1.251759E+0	1.236762E+0	1.230609E+0	1.277290E+0	1.240708E+0	1.219411E+0	1.170316E+0	1.241654E+0	1.227286E+0	1.150188E+0	1.235550E+0	1.221691E+0	1.296932E+0	1.163760E+0	1.241202E+0	1.154400E+0	1.255969E+0	1.191345E+0	1.298842E+0	1.233708E+0	1.250442E+0	1.249181E+0	1.178189E+0	1.231871E+0	1.260086E+0	1.212323E+0	1.263645E+0	1.225086E+0	1.208747E+0	1.186972E+0	1.266023E+0	1.229414E+0	1.266297E+0	1.271341E+0	1.280624E+0	1.222155E+0	1.259863E+0	1.150348E+0	1.318461E+0	1.234508E+0	1.223196E+0	1.225142E+0	1.246612E+0	1.221508E+0	1.208566E+0	1.135511E+0	1.175169E+0	1.259511E+0	1.188831E+0	1.231358E+0	1.195046E+0	1.235154E+0	1.151138E+0	1.198014E+0	1.249455E+0	1.267462E+0	1.182250E+0	1.242485E+0	1.218806E+0	1.243763E+0	1.212336E+0	1.231498E+0	1.221896E+0	1.170383E+0	1.278623E+0	1.218689E+0	1.255012E+0	1.200244E+0	1.179366E+0	1.201220E+0	1.196366E+0	1.303416E+0	1.222875E+0	1.203153E+0	1.219081E+0	1.217237E+0	1.270175E+0	1.239013E+0	1.251025E+0	1.234257E+0	1.266651E+0	1.236439E+0	1.229161E+0	1.242864E+0	1.226494E+0	1.213516E+0	1.242496E+0	1.266866E+0	1.177804E+0	1.156254E+0	1.248760E+0	1.248399E+0	1.234331E+0	1.198411E+0	1.202874E+0	1.235021E+0	1.250176E+0	1.181714E+0	1.237490E+0	1.259637E+0	1.215507E+0	1.143514E+0	1.262341E+0	1.218194E+0	1.265696E+0	1.230624E+0	1.245362E+0	1.276744E+0	1.300196E+0	1.205541E+0	1.208478E+0	1.245008E+0	1.273638E+0	1.307551E+0	1.217793E+0	1.273481E+0	1.231069E+0	1.250295E+0	1.287581E+0	1.259692E+0	1.301548E+0	1.150861E+0	1.294638E+0	1.253656E+0	1.215368E+0	1.255306E+0	1.163481E+0
2.864190E+2	1.302789E+0	1.299193E+0	1.287075E+0	1.292217E+0	1.320495E+0	1.294430E+0	1.327900E+0	1.322456E+0	1.346905E+0	1.254600E+0	1.326839E+0	1.353055E+0	1.353000E+0	1.248188E+0	1.290733E+0	1.301805E+0	1.270849E+0	1.302454E+0	1.271445E+0	1.298635E+0	1.343432E+0	1.335553E+0	1.312568E+0	1.293357E+0	1.293084E+0	1.336206E+0	1.285543E+0	1.293401E+0	1.325724E+0	1.244188E+0	1.278100E+0	1.283428E+0	1.221337E+0	1.329387E+0	1.279970E+0	1.310287E+0	1.352548E+0	1.268122E+0	1.313873E+0	1.253933E+0	1.302689E+0	1.312318E+0	1.323685E+0	1.364245E+0	1.351666E+0	1.325464E+0	1.311738E+0	1.256038E+0	1.292441E+0	1.262148E+0	1.304451E+0	1.238996E+0	1.271735E+0	1.275070E+0	1.221461E+0	1.318369E+0	1.376855E+0	1.291841E+0	1.308695E+0	1.241072E+0	1.359048E+0	1.316864E+0	1.328475E+0	1.389863E+0	1.325500E+0	1.307099E+0	1.333729E+0	1.313652E+0	1.216387E+0	1.303606E+0	1.306484E+0	1.299752E+0	1.308084E+0	1.296958E+0	1.291425E+0	1.280214E+0	1.286246E+0	1.369294E+0	1.317878E+0	1.308192E+0	1.302787E+0	1.209517E+0	1.306523E+0	1.286257E+0	1.343716E+0	1.236328E+0	1.279373E+0	1.320957E+0	1.303248E+0	1.292956E+0	1.289875E+0	1.313232E+0	1.282470E+0	1.353974E+0	1.308705E+0	1.219048E+0	1.255659E+0	1.290550E+0	1.308679E+0	1.335672E+0	1.350691E+0	1.281265E+0	1.328226E+0	1.317482E+0	1.372204E+0	1.321726E+0	1.324803E+0	1.201323E+0	1.270969E+0	1.294280E+0	1.385157E+0	1.272747E+0	1.290311E+0	1.290455E+0	1.332828E+0	1.366547E+0	1.351963E+0	1.295949E+0	1.305067E+0	1.307117E+0	1.408061E+0	1.298531E+0	1.323110E+0	1.298656E+0	1.335264E+0	1.336306E+0	1.268446E+0	1.283569E+0	1.318345E+0	1.332638E+0	1.380680E+0	1.339601E+0	1.332778E+0	1.290708E+0	1.324518E+0	1.347833E+0	1.346764E+0	1.256875E+0	1.311631E+0	1.349864E+0	1.260043E+0	1.286015E+0	1.381385E+0	1.311278E+0	1.306881E+0	1.303349E+0	1.330063E+0	1.437093E+0	1.359173E+0	1.274739E+0	1.297342E+0	1.266081E+0	1.253883E+0	1.323564E+0	1.288366E+0	1.327165E+0	1.224677E+0	1.282675E+0	1.356804E+0	1.302979E+0	1.392949E+0	1.253873E+0	1.278676E+0	1.407522E+0	1.332229E+0	1.324069E+0	1.302846E+0	1.348346E+0	1.266486E+0	1.378954E+0	1.300615E+0
2.866120E+2	1.189296E+0	1.193596E+0	1.255700E+0	1.171343E+0	1.272969E+0	1.209904E+0	1.170758E+0	1.166272E+0	1.232524E+0	1.199188E+0	1.279238E+0	1.241913E+0	1.268809E+0	1.243671E+0	1.317105E+0	1.187953E+0	1.183222E+0	1.197481E+0	1.251757E+0	1.206439E+0	1.270667E+0	1.288650E+0	1.325761E+0	1.287180E+0	1.293029E+0	1.256465E+0	1.270686E+0	1.173241E+0	1.278176E+0	1.242149E+0	1.268209E+0	1.239989E+0	1.210984E+0	1.292000E+0	1.303043E+0	1.206982E+0	1.266002E+0	1.269460E+0	1.148746E+0	1.206150E+0	1.304739E+0	1.284967E+0	1.263562E+0	1.344516E+0	1.280586E+0	1.289741E+0	1.249931E+0	1.293456E+0	1.226190E+0	1.250507E+0	1.280462E+0	1.335229E+0	1.222656E+0	1.198117E+0	1.257861E+0	1.236517E+0	1.325087E+0	1.252864E+0	1.299022E+0	1.239814E+0	1.263326E+0	1.234482E+0	1.362606E+0	1.241056E+0	1.219355E+0	1.217269E+0	1.255776E+0	1.296425E+0	1.208801E+0	1.231634E+0	1.261494E+0	1.264812E+0	1.242219E+0	1.289875E+0	1.306883E+0	1.278480E+0	1.236191E+0	1.255693E+0	1.248069E+0	1.250673E+0	1.256120E+0	1.211607E+0	1.291655E+0	1.301022E+0	1.286930E+0	1.229631E+0	1.255826E+0	1.241461E+0	1.300009E+0	1.255570E+0	1.311421E+0	1.293521E+0	1.256336E+0	1.249182E+0	1.270637E+0	1.207547E+0	1.248604E+0	1.285118E+0	1.258691E+0	1.287067E+0	1.230860E+0	1.207276E+0	1.180574E+0	1.233732E+0	1.294850E+0	1.238503E+0	1.311906E+0	1.260030E+0	1.274589E+0	1.255313E+0	1.293922E+0	1.258443E+0	1.259465E+0	1.250683E+0	1.291003E+0	1.247106E+0	1.247703E+0	1.206807E+0	1.239274E+0	1.268229E+0	1.305031E+0	1.256530E+0	1.293709E+0	1.234099E+0	1.277504E+0	1.251054E+0	1.308190E+0	1.275171E+0	1.279781E+0	1.260763E+0	1.304827E+0	1.286306E+0	1.221574E+0	1.213338E+0	1.239580E+0	1.289980E+0	1.266339E+0	1.194256E+0	1.193231E+0	1.236400E+0	1.300773E+0	1.224560E+0	1.303637E+0	1.283787E+0	1.260223E+0	1.214166E+0	1.304291E+0	1.309060E+0	1.291245E+0	1.289755E+0	1.315821E+0	1.301003E+0	1.298041E+0	1.296224E+0	1.244981E+0	1.205712E+0	1.238663E+0	1.308178E+0	1.250242E+0	1.305158E+0	1.256765E+0	1.253775E+0	1.257145E+0	1.268653E+0	1.260225E+0	1.133381E+0	1.289092E+0	1.256689E+0	1.233101E+0	1.305925E+0	1.369907E+0
2.868030E+2	1.411571E+0	1.416033E+0	1.440845E+0	1.385787E+0	1.515785E+0	1.404434E+0	1.442041E+0	1.424417E+0	1.438306E+0	1.351368E+0	1.409851E+0	1.352285E+0	1.374699E+0	1.424003E+0	1.346196E+0	1.341165E+0	1.412962E+0	1.370822E+0	1.470907E+0	1.381220E+0	1.413086E+0	1.420845E+0	1.452297E+0	1.402523E+0	1.433812E+0	1.362928E+0	1.405632E+0	1.386043E+0	1.369392E+0	1.393798E+0	1.402204E+0	1.422848E+0	1.338982E+0	1.408297E+0	1.443386E+0	1.388338E+0	1.409222E+0	1.430722E+0	1.403396E+0	1.389393E+0	1.449899E+0	1.460788E+0	1.464568E+0	1.462463E+0	1.413830E+0	1.377046E+0	1.481477E+0	1.464070E+0	1.398778E+0	1.462518E+0	1.452297E+0	1.400457E+0	1.382349E+0	1.380739E+0	1.402534E+0	1.432632E+0	1.388224E+0	1.401554E+0	1.398063E+0	1.482492E+0	1.417232E+0	1.406052E+0	1.419386E+0	1.394485E+0	1.402659E+0	1.381595E+0	1.383567E+0	1.388935E+0	1.476680E+0	1.369855E+0	1.356852E+0	1.378539E+0	1.418353E+0	1.482542E+0	1.423507E+0	1.409492E+0	1.499547E+0	1.407837E+0	1.410915E+0	1.481980E+0	1.414193E+0	1.356977E+0	1.423067E+0	1.372325E+0	1.476851E+0	1.428214E+0	1.422629E+0	1.446765E+0	1.390361E+0	1.433357E+0	1.423525E+0	1.485588E+0	1.387120E+0	1.422956E+0	1.469191E+0	1.325736E+0	1.425498E+0	1.397400E+0	1.371718E+0	1.421266E+0	1.441125E+0	1.344938E+0	1.394510E+0	1.451277E+0	1.438953E+0	1.385947E+0	1.429174E+0	1.396684E+0	1.414414E+0	1.370524E+0	1.511470E+0	1.412451E+0	1.336214E+0	1.431105E+0	1.422806E+0	1.428257E+0	1.358025E+0	1.353052E+0	1.428459E+0	1.392200E+0	1.431116E+0	1.433481E+0	1.379164E+0	1.437947E+0	1.439911E+0	1.418365E+0	1.495254E+0	1.473431E+0	1.398714E+0	1.428065E+0	1.484712E+0	1.475148E+0	1.424520E+0	1.412643E+0	1.433074E+0	1.456663E+0	1.491956E+0	1.406182E+0	1.416369E+0	1.482560E+0	1.433404E+0	1.366980E+0	1.509878E+0	1.448625E+0	1.419072E+0	1.407633E+0	1.376410E+0	1.426324E+0	1.446668E+0	1.368994E+0	1.403143E+0	1.375466E+0	1.436793E+0	1.401766E+0	1.471880E+0	1.412613E+0	1.407937E+0	1.440191E+0	1.445532E+0	1.423787E+0	1.398785E+0	1.364470E+0	1.371386E+0	1.418341E+0	1.534031E+0	1.389248E+0	1.447979E+0	1.431748E+0	1.474447E+0	1.467574E+0	1.444594E+0
2.870210E+2	1.259933E+0	1.198132E+0	1.301132E+0	1.224069E+0	1.224820E+0	1.278152E+0	1.246745E+0	1.266306E+0	1.285192E+0	1.180412E+0	1.282938E+0	1.302399E+0	1.340570E+0	1.235649E+0	1.204734E+0	1.211930E+0	1.277414E+0	1.252781E+0	1.265421E+0	1.210022E+0	1.235904E+0	1.246583E+0	1.296609E+0	1.211792E+0	1.207510E+0	1.218298E+0	1.225674E+0	1.179613E+0	1.265349E+0	1.204695E+0	1.239777E+0	1.252049E+0	1.202088E+0	1.144443E+0	1.216305E+0	1.252463E+0	1.209052E+0	1.231669E+0	1.214161E+0	1.198536E+0	1.233901E+0	1.236208E+0	1.269463E+0	1.282659E+0	1.243059E+0	1.269977E+0	1.278017E+0	1.258086E+0	1.243539E+0	1.218680E+0	1.175265E+0	1.252698E+0	1.249976E+0	1.194367E+0	1.243369E+0	1.222824E+0	1.255925E+0	1.255909E+0	1.271250E+0	1.242118E+0	1.226848E+0	1.173951E+0	1.280394E+0	1.225495E+0	1.206578E+0	1.191713E+0	1.330666E+0	1.250801E+0	1.241464E+0	1.226098E+0	1.283689E+0	1.221645E+0	1.271388E+0	1.280504E+0	1.257545E+0	1.253380E+0	1.234381E+0	1.267035E+0	1.249145E+0	1.285249E+0	1.209775E+0	1.224784E+0	1.271743E+0	1.228595E+0	1.243399E+0	1.247706E+0	1.197084E+0	1.336900E+0	1.260764E+0	1.293044E+0	1.217455E+0	1.202719E+0	1.207244E+0	1.288228E+0	1.255100E+0	1.205221E+0	1.278821E+0	1.286631E+0	1.233710E+0	1.202823E+0	1.235412E+0	1.231832E+0	1.223253E+0	1.213179E+0	1.213794E+0	1.218707E+0	1.293651E+0	1.191433E+0	1.274105E+0	1.252994E+0	1.336909E+0	1.198819E+0	1.250758E+0	1.207905E+0	1.253862E+0	1.265802E+0	1.268536E+0	1.144808E+0	1.233027E+0	1.230238E+0	1.290842E+0	1.204636E+0	1.238357E+0	1.261159E+0	1.288732E+0	1.310092E+0	1.335464E+0	1.265287E+0	1.285080E+0	1.283911E+0	1.316315E+0	1.236993E+0	1.190244E+0	1.210804E+0	1.199631E+0	1.291359E+0	1.313250E+0	1.192307E+0	1.258527E+0	1.303979E+0	1.262515E+0	1.205744E+0	1.245861E+0	1.308086E+0	1.256639E+0	1.210775E+0	1.213469E+0	1.330657E+0	1.308745E+0	1.282375E+0	1.234022E+0	1.254363E+0	1.230190E+0	1.230441E+0	1.214023E+0	1.255767E+0	1.231441E+0	1.261285E+0	1.252021E+0	1.249897E+0	1.262236E+0	1.255296E+0	1.269613E+0	1.287998E+0	1.296921E+0	1.283765E+0	1.218471E+0	1.279593E+0	1.283241E+0	1.276737E+0	1.196178E+0
2.872090E+2	9.862928E-1	8.940933E-1	8.835165E-1	9.116822E-1	9.094513E-1	9.387310E-1	9.280342E-1	9.387549E-1	9.190399E-1	9.191073E-1	9.607006E-1	9.200532E-1	9.656170E-1	9.340510E-1	9.242701E-1	8.911592E-1	9.064755E-1	9.591700E-1	9.652383E-1	8.942776E-1	9.171793E-1	9.745080E-1	9.088521E-1	9.093006E-1	9.735534E-1	9.559869E-1	9.260705E-1	8.758532E-1	9.705990E-1	9.260099E-1	9.240460E-1	9.667025E-1	9.468543E-1	9.140551E-1	9.061364E-1	1.011103E+0	9.445571E-1	9.442393E-1	8.930155E-1	9.311100E-1	9.207392E-1	8.858270E-1	9.115578E-1	8.946552E-1	9.613308E-1	9.266656E-1	9.777180E-1	9.226349E-1	8.986765E-1	9.094442E-1	9.578176E-1	8.815612E-1	8.767546E-1	9.545776E-1	9.849129E-1	9.152497E-1	9.341970E-1	9.464411E-1	9.865891E-1	9.405875E-1	9.474062E-1	9.503273E-1	9.398179E-1	9.682914E-1	9.370217E-1	9.574354E-1	9.501723E-1	9.104813E-1	9.262579E-1	8.822259E-1	9.367094E-1	9.405700E-1	9.308982E-1	9.582302E-1	9.595261E-1	8.643908E-1	9.684153E-1	8.992406E-1	9.640865E-1	9.640899E-1	9.382952E-1	9.354564E-1	8.920377E-1	9.076438E-1	9.521834E-1	9.485159E-1	9.178218E-1	1.020819E+0	9.647100E-1	8.980838E-1	9.237328E-1	9.575714E-1	9.129655E-1	9.432196E-1	9.675620E-1	9.278530E-1	8.973308E-1	8.612137E-1	9.294645E-1	1.028509E+0	9.077794E-1	9.604678E-1	9.518891E-1	9.358499E-1	9.509267E-1	9.092708E-1	9.882279E-1	9.315079E-1	9.296011E-1	9.563368E-1	9.244892E-1	9.603165E-1	9.143572E-1	9.526552E-1	9.478487E-1	9.549610E-1	9.302043E-1	9.067180E-1	9.225026E-1	9.290687E-1	1.004989E+0	9.000682E-1	9.286091E-1	9.745506E-1	9.860214E-1	9.562464E-1	1.003236E+0	9.850228E-1	9.196416E-1	9.333807E-1	9.795960E-1	9.668661E-1	9.257500E-1	9.685366E-1	9.418805E-1	9.782867E-1	9.094497E-1	9.477054E-1	8.913534E-1	9.531141E-1	9.355015E-1	9.120200E-1	9.854885E-1	9.789469E-1	9.918545E-1	9.045483E-1	9.802224E-1	9.594827E-1	9.792766E-1	9.399235E-1	9.504712E-1	9.683034E-1	9.140779E-1	9.599702E-1	9.322073E-1	9.727241E-1	9.286405E-1	9.036539E-1	9.544099E-1	9.559586E-1	9.784339E-1	9.299283E-1	9.568180E-1	9.712921E-1	9.930674E-1	9.251627E-1	9.616994E-1	8.796204E-1	9.258872E-1	9.084800E-1	9.988568E-1
2.874030E+2	9.063530E-1	8.091991E-1	8.825846E-1	8.297991E-1	9.005605E-1	8.637161E-1	8.253392E-1	8.816646E-1	8.661011E-1	8.161590E-1	9.092444E-1	8.684982E-1	8.949598E-1	8.426067E-1	8.636527E-1	8.926623E-1	8.283177E-1	8.542748E-1	8.904887E-1	8.604391E-1	8.566720E-1	8.751206E-1	8.626281E-1	8.665688E-1	8.672483E-1	8.714281E-1	8.593677E-1	8.255778E-1	8.964192E-1	9.023448E-1	8.998528E-1	8.897044E-1	8.479766E-1	8.768307E-1	8.906187E-1	8.386086E-1	8.784764E-1	8.794795E-1	8.104746E-1	8.389758E-1	8.712852E-1	9.082970E-1	8.979691E-1	8.722031E-1	8.981715E-1	8.875891E-1	8.749184E-1	8.838322E-1	8.665818E-1	8.769957E-1	8.871183E-1	8.519956E-1	9.186368E-1	8.905455E-1	8.582148E-1	8.323413E-1	9.429660E-1	8.092768E-1	9.005212E-1	8.593041E-1	8.572203E-1	8.565204E-1	8.843344E-1	9.084933E-1	8.447206E-1	8.534426E-1	8.743647E-1	8.691371E-1	8.906132E-1	8.499707E-1	9.075587E-1	9.181412E-1	8.672186E-1	9.023359E-1	8.215921E-1	8.607307E-1	8.991991E-1	8.372050E-1	9.278236E-1	9.046283E-1	8.373926E-1	8.135009E-1	8.520178E-1	8.825213E-1	8.945986E-1	8.708363E-1	8.588465E-1	8.976049E-1	8.362178E-1	8.779342E-1	8.831575E-1	9.368596E-1	8.734102E-1	9.409079E-1	8.873799E-1	8.704278E-1	8.454025E-1	8.236852E-1	9.043659E-1	9.482033E-1	8.834521E-1	8.761302E-1	8.916582E-1	9.100227E-1	8.951241E-1	8.952538E-1	8.940037E-1	8.951017E-1	8.792575E-1	8.297976E-1	8.835110E-1	8.843831E-1	8.657545E-1	9.317237E-1	8.813710E-1	9.434707E-1	8.918147E-1	8.534759E-1	8.503500E-1	8.087272E-1	9.076469E-1	8.451319E-1	8.759186E-1	8.568431E-1	9.194408E-1	8.475273E-1	9.064874E-1	8.998191E-1	8.772580E-1	8.510013E-1	9.094987E-1	9.116421E-1	8.482059E-1	8.738171E-1	8.470488E-1	9.549223E-1	8.867337E-1	8.672110E-1	8.993560E-1	8.993307E-1	9.078346E-1	8.528232E-1	9.197693E-1	8.483634E-1	8.939673E-1	9.036491E-1	8.326408E-1	9.063338E-1	9.378483E-1	8.636115E-1	9.356892E-1	8.495100E-1	8.997756E-1	9.019695E-1	8.973437E-1	8.808002E-1	8.844676E-1	8.944631E-1	8.903350E-1	8.805863E-1	9.158171E-1	9.095946E-1	8.795521E-1	9.387423E-1	9.452572E-1	8.652643E-1	8.910247E-1	8.753718E-1	8.736553E-1	8.005801E-1	9.048316E-1
2.876140E+2	8.042489E-1	8.133977E-1	7.911916E-1	8.593204E-1	7.897653E-1	7.836889E-1	8.261835E-1	8.309526E-1	8.376417E-1	7.910079E-1	7.898990E-1	7.893593E-1	8.562323E-1	8.493069E-1	8.200105E-1	8.310085E-1	8.075133E-1	8.398524E-1	8.535830E-1	8.116594E-1	8.042066E-1	8.333835E-1	8.436387E-1	8.461320E-1	8.482236E-1	8.190596E-1	8.172588E-1	8.124664E-1	8.362957E-1	7.943802E-1	8.268176E-1	8.706454E-1	8.485917E-1	8.023989E-1	8.534511E-1	8.424342E-1	8.252828E-1	8.293536E-1	8.248070E-1	8.632893E-1	8.030241E-1	8.465728E-1	8.606404E-1	8.416452E-1	8.733103E-1	8.263524E-1	8.135928E-1	8.553862E-1	8.302901E-1	8.466008E-1	8.065198E-1	8.817736E-1	8.604825E-1	8.427328E-1	8.359291E-1	8.329451E-1	8.901748E-1	8.277682E-1	8.154489E-1	8.202197E-1	8.540373E-1	8.131146E-1	8.087201E-1	7.922683E-1	7.832450E-1	8.271824E-1	8.321338E-1	8.359863E-1	8.130425E-1	8.174788E-1	8.397784E-1	8.165998E-1	9.077242E-1	8.351709E-1	8.618303E-1	8.342040E-1	8.507953E-1	8.517110E-1	8.418225E-1	8.868899E-1	8.265329E-1	7.965856E-1	8.689374E-1	8.268787E-1	8.644775E-1	8.402312E-1	8.188776E-1	8.251958E-1	8.165117E-1	7.974481E-1	8.732592E-1	8.617059E-1	8.175652E-1	7.706198E-1	8.742261E-1	7.461745E-1	8.332601E-1	7.819183E-1	8.505533E-1	8.179990E-1	8.393993E-1	8.106652E-1	7.896894E-1	8.569446E-1	8.696735E-1	8.092362E-1	8.442535E-1	8.422580E-1	8.318805E-1	8.819753E-1	8.602703E-1	8.340783E-1	8.429822E-1	8.050645E-1	9.045342E-1	8.253651E-1	8.177140E-1	8.351158E-1	7.667757E-1	8.344413E-1	8.928606E-1	8.403406E-1	8.034017E-1	7.937662E-1	8.510787E-1	8.421070E-1	8.541809E-1	8.416251E-1	8.110172E-1	8.342721E-1	8.546778E-1	8.610611E-1	8.682876E-1	8.355436E-1	8.688085E-1	8.072946E-1	8.441117E-1	8.419530E-1	8.350354E-1	8.287187E-1	8.333528E-1	8.140056E-1	8.653534E-1	8.533223E-1	8.400303E-1	8.359410E-1	8.325338E-1	8.139129E-1	8.315145E-1	8.835251E-1	8.625584E-1	8.296185E-1	8.744700E-1	8.244261E-1	8.410777E-1	8.572257E-1	7.824948E-1	7.659281E-1	8.751301E-1	8.819862E-1	8.031512E-1	7.933964E-1	8.782039E-1	8.356824E-1	8.695381E-1	8.136037E-1	8.174657E-1	8.011347E-1	7.813130E-1	8.253100E-1	8.627759E-1
2.878000E+2	7.801355E-1	8.097096E-1	7.986750E-1	8.298107E-1	8.197416E-1	7.696379E-1	7.953947E-1	7.587759E-1	8.204603E-1	7.740860E-1	8.409317E-1	8.190513E-1	7.920148E-1	7.726951E-1	8.047815E-1	8.504941E-1	7.845358E-1	7.647715E-1	7.755246E-1	8.258437E-1	8.452682E-1	7.975683E-1	8.095203E-1	8.078718E-1	8.512465E-1	7.763313E-1	7.911005E-1	7.687177E-1	8.199861E-1	8.095744E-1	8.291026E-1	8.296018E-1	7.862472E-1	7.912469E-1	7.576451E-1	8.065045E-1	8.348093E-1	8.066868E-1	7.672714E-1	8.149045E-1	7.812912E-1	8.006509E-1	7.527952E-1	8.133703E-1	8.598068E-1	8.486027E-1	8.385907E-1	8.510570E-1	8.103092E-1	7.580487E-1	7.896052E-1	8.441723E-1	8.241652E-1	7.698845E-1	8.046848E-1	7.980389E-1	8.455445E-1	7.907320E-1	8.373223E-1	8.097096E-1	8.112998E-1	8.064942E-1	8.054592E-1	7.779157E-1	8.049290E-1	7.645888E-1	8.303927E-1	8.344476E-1	8.251087E-1	7.903498E-1	7.881491E-1	8.304028E-1	7.980184E-1	8.008005E-1	8.341273E-1	7.922134E-1	8.459638E-1	7.992250E-1	8.389730E-1	8.059249E-1	8.495359E-1	7.808972E-1	7.781925E-1	8.161557E-1	8.043734E-1	8.091182E-1	8.015603E-1	7.731570E-1	8.161034E-1	8.071284E-1	8.420212E-1	8.190931E-1	8.268633E-1	8.095529E-1	8.120001E-1	7.752366E-1	7.687439E-1	7.741064E-1	8.245739E-1	8.047985E-1	7.841957E-1	8.058255E-1	8.161249E-1	8.007471E-1	7.772736E-1	8.007337E-1	8.182865E-1	8.173577E-1	7.993529E-1	7.712439E-1	8.424016E-1	8.420428E-1	8.062480E-1	7.878154E-1	8.005111E-1	8.418695E-1	8.649761E-1	7.791757E-1	7.788392E-1	8.198834E-1	8.562004E-1	8.193332E-1	7.959457E-1	7.774193E-1	8.305039E-1	8.165022E-1	8.162941E-1	8.577167E-1	7.765686E-1	7.621979E-1	7.781810E-1	7.426775E-1	7.982715E-1	8.147127E-1	8.069825E-1	8.369274E-1	8.186058E-1	7.880161E-1	7.521483E-1	7.544955E-1	7.544878E-1	8.146199E-1	8.427239E-1	8.390897E-1	8.140602E-1	7.931477E-1	7.824888E-1	8.440929E-1	7.723307E-1	8.206293E-1	8.075281E-1	8.059349E-1	8.469243E-1	8.316271E-1	8.617505E-1	8.078599E-1	7.907336E-1	8.202228E-1	7.996758E-1	8.419177E-1	8.285214E-1	8.061069E-1	7.905304E-1	7.870928E-1	8.717347E-1	7.712546E-1	7.931392E-1	8.254497E-1	8.221116E-1	7.940930E-1	8.176020E-1
2.880040E+2	7.600691E-1	7.603774E-1	7.572511E-1	7.723210E-1	7.865918E-1	7.721676E-1	7.825013E-1	7.604802E-1	7.965078E-1	7.172057E-1	7.714717E-1	8.029957E-1	8.247748E-1	8.029817E-1	8.145883E-1	7.436899E-1	7.784194E-1	7.718932E-1	7.592959E-1	7.661065E-1	7.826281E-1	7.786204E-1	7.475341E-1	7.605592E-1	7.877191E-1	7.725550E-1	7.855049E-1	7.460086E-1	7.719223E-1	7.880175E-1	7.742515E-1	8.037485E-1	8.150016E-1	8.068094E-1	7.844043E-1	7.779098E-1	7.778690E-1	7.847753E-1	7.615301E-1	7.983370E-1	8.006436E-1	7.773644E-1	7.475420E-1	8.381559E-1	8.257077E-1	7.611948E-1	7.799874E-1	8.150965E-1	7.648356E-1	7.493156E-1	7.964895E-1	7.479165E-1	7.852893E-1	8.136003E-1	7.840253E-1	8.260969E-1	8.378362E-1	7.722446E-1	8.185812E-1	7.490300E-1	7.810711E-1	7.862867E-1	7.762167E-1	8.038113E-1	8.120579E-1	7.529470E-1	8.100272E-1	7.553283E-1	7.364677E-1	7.702304E-1	7.741096E-1	8.226505E-1	8.384875E-1	8.010965E-1	7.982991E-1	7.770270E-1	8.421278E-1	8.197564E-1	8.201622E-1	7.917193E-1	8.107138E-1	7.319831E-1	7.499781E-1	7.887136E-1	7.621263E-1	7.624771E-1	7.940799E-1	7.712509E-1	7.797035E-1	7.823774E-1	8.009285E-1	8.324540E-1	7.659246E-1	7.814950E-1	7.774267E-1	8.058602E-1	7.444397E-1	7.818321E-1	7.802749E-1	8.059673E-1	7.600132E-1	7.996433E-1	7.495611E-1	7.736588E-1	8.284588E-1	7.533057E-1	8.395312E-1	8.095300E-1	7.925652E-1	8.139574E-1	7.869979E-1	8.069665E-1	7.840569E-1	7.844615E-1	7.844533E-1	9.021374E-1	7.661476E-1	8.138152E-1	7.267452E-1	7.689221E-1	8.051852E-1	7.810685E-1	7.421519E-1	8.509423E-1	8.084374E-1	7.707798E-1	8.110795E-1	8.032272E-1	7.698579E-1	7.109371E-1	8.084187E-1	7.675544E-1	8.013025E-1	7.898942E-1	7.957376E-1	8.403721E-1	7.987855E-1	7.378752E-1	7.905610E-1	7.860778E-1	7.978864E-1	7.289910E-1	7.861224E-1	8.118937E-1	7.878626E-1	7.336656E-1	7.986140E-1	8.158226E-1	7.870238E-1	7.883309E-1	7.723631E-1	7.949639E-1	7.861345E-1	7.918040E-1	8.254094E-1	8.196222E-1	7.612135E-1	7.988237E-1	7.643573E-1	7.781711E-1	8.512374E-1	7.696837E-1	7.863587E-1	7.969981E-1	8.351195E-1	7.644267E-1	7.257472E-1	7.668010E-1	7.564633E-1	7.780394E-1	8.169520E-1
2.882060E+2	7.351141E-1	7.523259E-1	7.192828E-1	7.141080E-1	7.343276E-1	7.175324E-1	7.146562E-1	6.757717E-1	7.492967E-1	6.991279E-1	7.444072E-1	7.223482E-1	7.591381E-1	7.782499E-1	7.596573E-1	7.436861E-1	7.237147E-1	7.540042E-1	7.205480E-1	7.266086E-1	7.148575E-1	7.631471E-1	7.408837E-1	7.438645E-1	7.760712E-1	7.381184E-1	7.133085E-1	7.405938E-1	7.650629E-1	7.346065E-1	7.457920E-1	7.556047E-1	7.299926E-1	7.442958E-1	7.309888E-1	7.517234E-1	7.969316E-1	7.660607E-1	7.629495E-1	7.168689E-1	7.322204E-1	7.319648E-1	7.887133E-1	8.322038E-1	7.803974E-1	7.632498E-1	7.489411E-1	7.830272E-1	7.240013E-1	7.614054E-1	7.388232E-1	7.299833E-1	7.191515E-1	7.244340E-1	7.463116E-1	7.225230E-1	7.126351E-1	7.438955E-1	7.532449E-1	7.261221E-1	7.900135E-1	7.256936E-1	8.019409E-1	7.857872E-1	7.522060E-1	7.411219E-1	7.701743E-1	7.494900E-1	7.674994E-1	7.742928E-1	7.543633E-1	7.380360E-1	7.783214E-1	7.618960E-1	7.517472E-1	7.598960E-1	7.213430E-1	7.685125E-1	7.830295E-1	7.558524E-1	7.326348E-1	7.205888E-1	7.358893E-1	7.592450E-1	7.708579E-1	7.337042E-1	7.543447E-1	7.675661E-1	7.790541E-1	7.168905E-1	7.836378E-1	7.628553E-1	7.514003E-1	7.469613E-1	7.607619E-1	7.363953E-1	7.672650E-1	7.187668E-1	7.738250E-1	7.770875E-1	7.395977E-1	7.270922E-1	7.749195E-1	7.863729E-1	7.930562E-1	7.516828E-1	7.539776E-1	7.472968E-1	7.452114E-1	7.727940E-1	7.761259E-1	7.607880E-1	7.374008E-1	7.445390E-1	8.007487E-1	8.029253E-1	7.304174E-1	7.662576E-1	7.497395E-1	7.381424E-1	7.950985E-1	7.485344E-1	7.311190E-1	8.071628E-1	7.734879E-1	7.299228E-1	7.426299E-1	7.770729E-1	7.510847E-1	7.087591E-1	7.612143E-1	6.836675E-1	7.082027E-1	7.660953E-1	7.643789E-1	7.283228E-1	7.537362E-1	7.150795E-1	7.315766E-1	7.338200E-1	7.274853E-1	7.083104E-1	7.850416E-1	7.597636E-1	7.728930E-1	7.181967E-1	7.250163E-1	7.710442E-1	7.581984E-1	7.225191E-1	7.698762E-1	7.462822E-1	7.265719E-1	7.327242E-1	7.680676E-1	7.507433E-1	7.621295E-1	7.148788E-1	7.652868E-1	8.212103E-1	7.883248E-1	7.020007E-1	8.022999E-1	7.564965E-1	7.440429E-1	7.359531E-1	7.269349E-1	7.577090E-1	7.348527E-1	7.107469E-1	8.238113E-1
2.884230E+2	9.047123E-1	8.843176E-1	9.085311E-1	8.725335E-1	9.458282E-1	8.783962E-1	9.167740E-1	9.527333E-1	9.375686E-1	9.375683E-1	9.403458E-1	9.383797E-1	9.525525E-1	9.416674E-1	9.454356E-1	9.376608E-1	9.280976E-1	9.788997E-1	9.626577E-1	9.212526E-1	9.643042E-1	9.524884E-1	9.075921E-1	9.696001E-1	9.698528E-1	9.714734E-1	9.396075E-1	9.538720E-1	9.581482E-1	9.660012E-1	9.344382E-1	1.000714E+0	9.172484E-1	9.435105E-1	9.337764E-1	9.552121E-1	1.001650E+0	9.342061E-1	9.443890E-1	9.423384E-1	9.516543E-1	9.531180E-1	9.659561E-1	9.634352E-1	9.392513E-1	9.473175E-1	9.143521E-1	9.776564E-1	9.582098E-1	9.408495E-1	9.641197E-1	9.610349E-1	9.317781E-1	9.556132E-1	9.541852E-1	9.241682E-1	1.039456E+0	9.492438E-1	9.128764E-1	9.343595E-1	9.555808E-1	9.358569E-1	9.340536E-1	9.637319E-1	9.229265E-1	9.049312E-1	9.542385E-1	9.847031E-1	9.388224E-1	9.272619E-1	9.491959E-1	9.560389E-1	9.906985E-1	9.774349E-1	9.021347E-1	9.116214E-1	9.229909E-1	1.023747E+0	9.861621E-1	1.007000E+0	9.644169E-1	9.324790E-1	9.716880E-1	1.013528E+0	9.834274E-1	9.576092E-1	8.613030E-1	9.604908E-1	8.893441E-1	9.167391E-1	9.174932E-1	9.769366E-1	9.222976E-1	9.264713E-1	9.144286E-1	9.690278E-1	9.193607E-1	9.507529E-1	9.721838E-1	9.378114E-1	9.673514E-1	9.209125E-1	9.303949E-1	9.729802E-1	9.740814E-1	9.604683E-1	9.621542E-1	9.626318E-1	9.729805E-1	9.910336E-1	9.607887E-1	9.510411E-1	9.689060E-1	9.655737E-1	9.803287E-1	9.672146E-1	9.549583E-1	9.173278E-1	9.571876E-1	9.497107E-1	9.721773E-1	1.009018E+0	9.647021E-1	9.063071E-1	9.389451E-1	9.190545E-1	9.248185E-1	9.824016E-1	9.542765E-1	9.536170E-1	9.544691E-1	9.313536E-1	8.757648E-1	9.099476E-1	9.226177E-1	9.501061E-1	9.327401E-1	9.338372E-1	9.586620E-1	9.559571E-1	9.270331E-1	8.977996E-1	9.342911E-1	9.325158E-1	9.290200E-1	9.267892E-1	9.651425E-1	1.014753E+0	9.700595E-1	9.461739E-1	9.422000E-1	9.667942E-1	1.014306E+0	9.019051E-1	9.425100E-1	9.836954E-1	9.466909E-1	9.646182E-1	9.018310E-1	9.139369E-1	9.939893E-1	9.608280E-1	9.464193E-1	8.949151E-1	9.806711E-1	8.754658E-1	9.232011E-1	9.538975E-1	9.353462E-1	9.404518E-1	1.054615E+0
2.886030E+2	1.148738E+0	1.094570E+0	1.173178E+0	1.130472E+0	1.214145E+0	1.156798E+0	1.171311E+0	1.213177E+0	1.212158E+0	1.141857E+0	1.197199E+0	1.210903E+0	1.224753E+0	1.155282E+0	1.141640E+0	1.167699E+0	1.180441E+0	1.179161E+0	1.226027E+0	1.137920E+0	1.194087E+0	1.169277E+0	1.224476E+0	1.220130E+0	1.187038E+0	1.230242E+0	1.142625E+0	1.166693E+0	1.215789E+0	1.123786E+0	1.136085E+0	1.176451E+0	1.185224E+0	1.159818E+0	1.153674E+0	1.230023E+0	1.184646E+0	1.218840E+0	1.160762E+0	1.175099E+0	1.220653E+0	1.133507E+0	1.134720E+0	1.204511E+0	1.251332E+0	1.176283E+0	1.171833E+0	1.223139E+0	1.195776E+0	1.185382E+0	1.195439E+0	1.226447E+0	1.198830E+0	1.215542E+0	1.190361E+0	1.129651E+0	1.282238E+0	1.187197E+0	1.181130E+0	1.154637E+0	1.259317E+0	1.172921E+0	1.161068E+0	1.207508E+0	1.161995E+0	1.195549E+0	1.205319E+0	1.245196E+0	1.129701E+0	1.152670E+0	1.183373E+0	1.203213E+0	1.179779E+0	1.124856E+0	1.193714E+0	1.232460E+0	1.210833E+0	1.174696E+0	1.171764E+0	1.217101E+0	1.206236E+0	1.134333E+0	1.154786E+0	1.235213E+0	1.198413E+0	1.231666E+0	1.245274E+0	1.202258E+0	1.176383E+0	1.118967E+0	1.169625E+0	1.183526E+0	1.184526E+0	1.236665E+0	1.148547E+0	1.207879E+0	1.164932E+0	1.143316E+0	1.174200E+0	1.250762E+0	1.209960E+0	1.154803E+0	1.180708E+0	1.215750E+0	1.207661E+0	1.114479E+0	1.195581E+0	1.247275E+0	1.162207E+0	1.176455E+0	1.153046E+0	1.181298E+0	1.175887E+0	1.222695E+0	1.218196E+0	1.216219E+0	1.167963E+0	1.113562E+0	1.133848E+0	1.181655E+0	1.177534E+0	1.215443E+0	1.116909E+0	1.168976E+0	1.198140E+0	1.175406E+0	1.178498E+0	1.251751E+0	1.138656E+0	1.184041E+0	1.194422E+0	1.206264E+0	1.185629E+0	1.224696E+0	1.185525E+0	1.243385E+0	1.222792E+0	1.177046E+0	1.112404E+0	1.201057E+0	1.139441E+0	1.168151E+0	1.175570E+0	1.218957E+0	1.184315E+0	1.128150E+0	1.174536E+0	1.223012E+0	1.151852E+0	1.167469E+0	1.188679E+0	1.185577E+0	1.178443E+0	1.164559E+0	1.149732E+0	1.206453E+0	1.161394E+0	1.140786E+0	1.190508E+0	1.271316E+0	1.194045E+0	1.201801E+0	1.149134E+0	1.173961E+0	1.218592E+0	1.118985E+0	1.181405E+0	1.162961E+0	1.180355E+0	1.186637E+0	1.150698E+0
2.888170E+2	1.259488E+0	1.267187E+0	1.286990E+0	1.285982E+0	1.296774E+0	1.298691E+0	1.210313E+0	1.315067E+0	1.281703E+0	1.149753E+0	1.264263E+0	1.273023E+0	1.284596E+0	1.242747E+0	1.195771E+0	1.228443E+0	1.302306E+0	1.204963E+0	1.240332E+0	1.289344E+0	1.233713E+0	1.245661E+0	1.227653E+0	1.256334E+0	1.229723E+0	1.268152E+0	1.247253E+0	1.231983E+0	1.223186E+0	1.257008E+0	1.258003E+0	1.237593E+0	1.195601E+0	1.180673E+0	1.249686E+0	1.236649E+0	1.242468E+0	1.228538E+0	1.239734E+0	1.221200E+0	1.287199E+0	1.228141E+0	1.288680E+0	1.276390E+0	1.225882E+0	1.279559E+0	1.211314E+0	1.271803E+0	1.285267E+0	1.220620E+0	1.202537E+0	1.217290E+0	1.238351E+0	1.213526E+0	1.252895E+0	1.210623E+0	1.303887E+0	1.196685E+0	1.220039E+0	1.215731E+0	1.235492E+0	1.206937E+0	1.240292E+0	1.268780E+0	1.228165E+0	1.231353E+0	1.235019E+0	1.276861E+0	1.289394E+0	1.256488E+0	1.247457E+0	1.208393E+0	1.221266E+0	1.248977E+0	1.222248E+0	1.251714E+0	1.234490E+0	1.262771E+0	1.280975E+0	1.348271E+0	1.249914E+0	1.176320E+0	1.194298E+0	1.320813E+0	1.194232E+0	1.172446E+0	1.263546E+0	1.278794E+0	1.245972E+0	1.230755E+0	1.258302E+0	1.317198E+0	1.218320E+0	1.332717E+0	1.234947E+0	1.216944E+0	1.243825E+0	1.248373E+0	1.280158E+0	1.295285E+0	1.326090E+0	1.252178E+0	1.235202E+0	1.289487E+0	1.258592E+0	1.228950E+0	1.234982E+0	1.276267E+0	1.265719E+0	1.273232E+0	1.242909E+0	1.258904E+0	1.232147E+0	1.266625E+0	1.265794E+0	1.246744E+0	1.241139E+0	1.215482E+0	1.196700E+0	1.236101E+0	1.305026E+0	1.218268E+0	1.246986E+0	1.220711E+0	1.262786E+0	1.243042E+0	1.240326E+0	1.317557E+0	1.288531E+0	1.211004E+0	1.269681E+0	1.242118E+0	1.251910E+0	1.243445E+0	1.292236E+0	1.288247E+0	1.220322E+0	1.216635E+0	1.245004E+0	1.230268E+0	1.258493E+0	1.207906E+0	1.269679E+0	1.271373E+0	1.231486E+0	1.222238E+0	1.276393E+0	1.246295E+0	1.264362E+0	1.236867E+0	1.281916E+0	1.316212E+0	1.331628E+0	1.248686E+0	1.266910E+0	1.304810E+0	1.260545E+0	1.257605E+0	1.257777E+0	1.248771E+0	1.220317E+0	1.283594E+0	1.269274E+0	1.243803E+0	1.320165E+0	1.231424E+0	1.254589E+0	1.290077E+0	1.291491E+0	1.161171E+0	1.338322E+0
2.890150E+2	1.134409E+0	1.130485E+0	1.084845E+0	1.054999E+0	1.125093E+0	1.056311E+0	1.087009E+0	1.100036E+0	1.115592E+0	1.053766E+0	1.145786E+0	1.133165E+0	1.136699E+0	1.083149E+0	1.065699E+0	1.119826E+0	1.038672E+0	1.130247E+0	1.108559E+0	1.138367E+0	1.107368E+0	1.135812E+0	1.080499E+0	1.052437E+0	1.081021E+0	1.086783E+0	1.073287E+0	1.046478E+0	1.164926E+0	1.019863E+0	1.072143E+0	1.085918E+0	1.042606E+0	1.054319E+0	1.065000E+0	1.144786E+0	1.060152E+0	1.048328E+0	1.065317E+0	1.073812E+0	1.104369E+0	1.126633E+0	1.079171E+0	1.121281E+0	1.110788E+0	1.081224E+0	1.122433E+0	1.081710E+0	1.072443E+0	1.108383E+0	1.138119E+0	1.082821E+0	1.064269E+0	1.052294E+0	1.111021E+0	1.084363E+0	1.086852E+0	1.110606E+0	1.077388E+0	1.081392E+0	1.071008E+0	1.080933E+0	1.054072E+0	1.134395E+0	1.029338E+0	1.138459E+0	1.082601E+0	1.091763E+0	1.027593E+0	1.029578E+0	1.055035E+0	1.113087E+0	1.131840E+0	1.064008E+0	1.053826E+0	1.100651E+0	1.049837E+0	1.134521E+0	1.121491E+0	1.092824E+0	1.098287E+0	1.018396E+0	1.071161E+0	1.124538E+0	1.097080E+0	1.052831E+0	1.037718E+0	1.048615E+0	1.139097E+0	1.053871E+0	1.110531E+0	1.116351E+0	1.116396E+0	1.134352E+0	1.086335E+0	1.127227E+0	1.059947E+0	1.147235E+0	1.126655E+0	1.111467E+0	1.080811E+0	1.092229E+0	1.056199E+0	1.119912E+0	1.070024E+0	1.097581E+0	1.090480E+0	1.085328E+0	1.075117E+0	1.087658E+0	1.066296E+0	1.075176E+0	1.082092E+0	1.069052E+0	1.048447E+0	1.133060E+0	1.083407E+0	1.120558E+0	1.100524E+0	1.096798E+0	1.137410E+0	1.081979E+0	1.087523E+0	1.064372E+0	1.201222E+0	1.085511E+0	1.078937E+0	1.119441E+0	1.066095E+0	1.130076E+0	1.146389E+0	1.140977E+0	1.078284E+0	1.069541E+0	1.073666E+0	1.146325E+0	1.048155E+0	1.039941E+0	1.106441E+0	1.086523E+0	1.076065E+0	1.035662E+0	1.127034E+0	1.081321E+0	1.083191E+0	1.084482E+0	1.065223E+0	1.090417E+0	1.173403E+0	1.125576E+0	1.089421E+0	1.114903E+0	1.075334E+0	1.109494E+0	1.032027E+0	1.108204E+0	1.080450E+0	1.080881E+0	1.100687E+0	1.159961E+0	1.169882E+0	1.135655E+0	1.135141E+0	1.115840E+0	1.159904E+0	1.031727E+0	1.072325E+0	1.069969E+0	1.072718E+0	1.092087E+0	9.950820E-1
2.892020E+2	8.782236E-1	8.463701E-1	8.427541E-1	8.478726E-1	8.134667E-1	8.253967E-1	8.159239E-1	8.722531E-1	8.312172E-1	8.264094E-1	7.890061E-1	8.258824E-1	8.344740E-1	8.271672E-1	8.578766E-1	8.391057E-1	8.623925E-1	8.016298E-1	8.574533E-1	8.627213E-1	8.374335E-1	7.997329E-1	8.379705E-1	8.624279E-1	7.941182E-1	8.561937E-1	8.337721E-1	8.568721E-1	7.864023E-1	8.470638E-1	8.391534E-1	9.055220E-1	7.370756E-1	8.456983E-1	8.329145E-1	8.694654E-1	8.267159E-1	8.436542E-1	7.953644E-1	8.146211E-1	8.414271E-1	8.472154E-1	8.810713E-1	8.148368E-1	8.737208E-1	8.234122E-1	8.190650E-1	8.545718E-1	8.266901E-1	8.420800E-1	8.083074E-1	8.608285E-1	8.852914E-1	8.880442E-1	8.160864E-1	8.325463E-1	8.594983E-1	8.226846E-1	8.450156E-1	7.787579E-1	8.295571E-1	8.272025E-1	8.096747E-1	8.426015E-1	8.168945E-1	8.435981E-1	8.128115E-1	8.600219E-1	8.031868E-1	8.334829E-1	8.482952E-1	8.860885E-1	8.732167E-1	8.475464E-1	8.375278E-1	8.005877E-1	7.852798E-1	8.615108E-1	8.486213E-1	8.330672E-1	8.555919E-1	7.959076E-1	8.408139E-1	8.729897E-1	8.842243E-1	8.454715E-1	8.382840E-1	8.300619E-1	8.330004E-1	8.351237E-1	8.422904E-1	8.391721E-1	8.273605E-1	9.037439E-1	8.679547E-1	8.151228E-1	8.406269E-1	8.254363E-1	8.735029E-1	8.462086E-1	8.308355E-1	8.274216E-1	8.146714E-1	8.583409E-1	8.978910E-1	8.213704E-1	8.131269E-1	7.799504E-1	7.990901E-1	8.293014E-1	8.509068E-1	8.366429E-1	8.293271E-1	8.516731E-1	9.208833E-1	9.214542E-1	8.363870E-1	8.070289E-1	8.451106E-1	8.621994E-1	8.789723E-1	8.452052E-1	8.010369E-1	8.186387E-1	8.344220E-1	8.868728E-1	8.963634E-1	8.918598E-1	8.352062E-1	7.582248E-1	8.851695E-1	8.977698E-1	8.160378E-1	8.624955E-1	8.810349E-1	8.885134E-1	8.489340E-1	8.289459E-1	8.520032E-1	8.678951E-1	8.011577E-1	8.602989E-1	8.652783E-1	8.738988E-1	8.703948E-1	8.005336E-1	8.625994E-1	8.364729E-1	8.906136E-1	8.585640E-1	8.184747E-1	8.636157E-1	8.454149E-1	8.877921E-1	8.302038E-1	8.566488E-1	8.678744E-1	8.751509E-1	8.220591E-1	9.062815E-1	8.367411E-1	8.206100E-1	8.696813E-1	8.492357E-1	9.136592E-1	8.039571E-1	8.897348E-1	7.941343E-1	8.231963E-1	9.452607E-1	8.176542E-1
2.894020E+2	8.367426E-1	8.162360E-1	8.194198E-1	8.364352E-1	8.237344E-1	8.933350E-1	7.833657E-1	8.563885E-1	8.158089E-1	8.142496E-1	8.785091E-1	8.305632E-1	7.994914E-1	8.114867E-1	8.296209E-1	8.089120E-1	8.386723E-1	8.149708E-1	8.348588E-1	7.913916E-1	8.786912E-1	8.349731E-1	8.807120E-1	8.911058E-1	8.752972E-1	8.636093E-1	8.603599E-1	8.173003E-1	8.845991E-1	8.318071E-1	8.720733E-1	8.647734E-1	8.464499E-1	8.237988E-1	8.735019E-1	8.701792E-1	8.467211E-1	8.742605E-1	8.270429E-1	8.091031E-1	8.504210E-1	8.310217E-1	8.020813E-1	8.555907E-1	9.127924E-1	8.204430E-1	8.022982E-1	8.306009E-1	8.189406E-1	8.197341E-1	8.462251E-1	8.664516E-1	8.471583E-1	8.174459E-1	8.418278E-1	8.225390E-1	8.774614E-1	8.267217E-1	8.539397E-1	8.340152E-1	8.060317E-1	8.061183E-1	8.219480E-1	8.545194E-1	7.875364E-1	8.246832E-1	8.100125E-1	8.439385E-1	8.249193E-1	7.842683E-1	8.318194E-1	8.607502E-1	8.398072E-1	8.568940E-1	8.663676E-1	8.677992E-1	8.712887E-1	8.092073E-1	9.029775E-1	8.567759E-1	8.263242E-1	8.694268E-1	8.061823E-1	9.305116E-1	8.594272E-1	8.436794E-1	8.218648E-1	8.482323E-1	8.259507E-1	8.663990E-1	7.994650E-1	8.848015E-1	8.391800E-1	8.819084E-1	8.169624E-1	8.325193E-1	8.373806E-1	8.749250E-1	8.326870E-1	8.851582E-1	8.161101E-1	8.534700E-1	8.136356E-1	8.425026E-1	8.101638E-1	8.050683E-1	8.385246E-1	8.605698E-1	8.452778E-1	8.401948E-1	8.867955E-1	8.330970E-1	8.281286E-1	8.368322E-1	8.594471E-1	8.307605E-1	8.377123E-1	8.393957E-1	8.789523E-1	7.916847E-1	8.433192E-1	8.412772E-1	8.272462E-1	8.650979E-1	8.744132E-1	8.275198E-1	8.689384E-1	8.346454E-1	7.998518E-1	8.349980E-1	8.508315E-1	8.291930E-1	8.875402E-1	8.783963E-1	8.435342E-1	8.524316E-1	8.527550E-1	8.012738E-1	8.565865E-1	8.780246E-1	8.329748E-1	8.420450E-1	9.066086E-1	8.671941E-1	8.277787E-1	8.094229E-1	8.386738E-1	8.964428E-1	8.347848E-1	8.629300E-1	8.151900E-1	8.490172E-1	8.756860E-1	8.373108E-1	8.465887E-1	8.571369E-1	8.609724E-1	8.403863E-1	8.251576E-1	8.408527E-1	8.695160E-1	8.364074E-1	8.364486E-1	8.741110E-1	8.352372E-1	8.096671E-1	8.397290E-1	8.264016E-1	8.864352E-1	8.307382E-1	8.526325E-1
2.896060E+2	8.965682E-1	8.857921E-1	8.658952E-1	9.069902E-1	8.573066E-1	8.545383E-1	8.591978E-1	9.069927E-1	8.589495E-1	7.754782E-1	9.122722E-1	9.149438E-1	8.812494E-1	8.534017E-1	8.570705E-1	9.165123E-1	9.169126E-1	8.940313E-1	8.954990E-1	8.229239E-1	8.653958E-1	9.225982E-1	9.070802E-1	8.905709E-1	9.444780E-1	9.380667E-1	8.567207E-1	8.587673E-1	8.567211E-1	8.724211E-1	9.033572E-1	8.701210E-1	8.473187E-1	9.004249E-1	9.111966E-1	8.600071E-1	8.818601E-1	8.753661E-1	8.975003E-1	8.095146E-1	8.784903E-1	8.778382E-1	9.421611E-1	8.897952E-1	8.795730E-1	9.044464E-1	8.680973E-1	9.496368E-1	9.029299E-1	8.897242E-1	8.430551E-1	8.930213E-1	9.360443E-1	8.606467E-1	8.893553E-1	8.919198E-1	8.737571E-1	8.931858E-1	9.287277E-1	9.200286E-1	8.482773E-1	8.953626E-1	8.901975E-1	9.100075E-1	8.932148E-1	8.884771E-1	8.945123E-1	8.875359E-1	8.706458E-1	8.548358E-1	8.826740E-1	9.292816E-1	8.867422E-1	9.087341E-1	8.873140E-1	9.043355E-1	8.983561E-1	8.483639E-1	9.056959E-1	9.192818E-1	9.064382E-1	8.803822E-1	8.667971E-1	8.951530E-1	8.750491E-1	8.760091E-1	8.369246E-1	8.583207E-1	9.280972E-1	8.972511E-1	8.776226E-1	9.018285E-1	9.060712E-1	9.082728E-1	9.063957E-1	8.343560E-1	8.494366E-1	8.906123E-1	8.910838E-1	8.922885E-1	8.950765E-1	8.687495E-1	8.474079E-1	9.175036E-1	8.750729E-1	9.071983E-1	8.843301E-1	9.386883E-1	8.787657E-1	9.015811E-1	9.134339E-1	9.112162E-1	9.043461E-1	9.222834E-1	8.999075E-1	8.949665E-1	8.646663E-1	8.322906E-1	8.748411E-1	8.740727E-1	8.972798E-1	8.876362E-1	8.790713E-1	9.029803E-1	9.087040E-1	9.415604E-1	8.829673E-1	9.173858E-1	8.850359E-1	8.941811E-1	8.809741E-1	9.069370E-1	9.368475E-1	9.498248E-1	9.232469E-1	9.408131E-1	8.887187E-1	9.214971E-1	8.577906E-1	9.227782E-1	8.478719E-1	8.381277E-1	9.089407E-1	8.711071E-1	9.057304E-1	8.558303E-1	8.702434E-1	8.988082E-1	9.337033E-1	8.769074E-1	9.075239E-1	9.061387E-1	8.607272E-1	7.651738E-1	8.662606E-1	9.104838E-1	9.410935E-1	9.083021E-1	8.794543E-1	9.604180E-1	9.644649E-1	9.044502E-1	9.117922E-1	9.269204E-1	9.528649E-1	9.043325E-1	9.150630E-1	8.690619E-1	8.568702E-1	8.784417E-1	8.356125E-1
2.898050E+2	9.418974E-1	9.367169E-1	8.947512E-1	8.730189E-1	8.354540E-1	8.650013E-1	8.485313E-1	9.184930E-1	9.281818E-1	8.917129E-1	9.225924E-1	9.034546E-1	8.764412E-1	9.111725E-1	8.627592E-1	8.678305E-1	8.751930E-1	8.930560E-1	9.159458E-1	8.996503E-1	9.649776E-1	9.367382E-1	8.551875E-1	9.208739E-1	8.777158E-1	8.971598E-1	8.731716E-1	8.679843E-1	8.958598E-1	9.090531E-1	9.658171E-1	9.098748E-1	9.001064E-1	9.222677E-1	8.667510E-1	8.982642E-1	9.179868E-1	9.045670E-1	9.110120E-1	9.054860E-1	9.478471E-1	8.593027E-1	8.642477E-1	8.642609E-1	8.953637E-1	9.090887E-1	8.878091E-1	9.488921E-1	9.288490E-1	9.210955E-1	8.918110E-1	8.298196E-1	8.836107E-1	8.931013E-1	8.413455E-1	8.713160E-1	9.223144E-1	8.550354E-1	9.160509E-1	8.889304E-1	8.878736E-1	8.849935E-1	8.939658E-1	9.337350E-1	8.600618E-1	8.646582E-1	9.072467E-1	9.415952E-1	8.685766E-1	9.198400E-1	9.162147E-1	9.137523E-1	8.905380E-1	9.041842E-1	9.026831E-1	8.660921E-1	8.779284E-1	8.829670E-1	8.829657E-1	8.709586E-1	9.476982E-1	8.713097E-1	8.330958E-1	9.013080E-1	8.770700E-1	9.000950E-1	8.861613E-1	9.248051E-1	9.060792E-1	9.140429E-1	9.035122E-1	9.186967E-1	8.861910E-1	9.774600E-1	9.671631E-1	8.274508E-1	8.937884E-1	8.618505E-1	8.845992E-1	9.515185E-1	9.542431E-1	9.110790E-1	8.952170E-1	9.283443E-1	9.467217E-1	8.828462E-1	9.041985E-1	9.310065E-1	8.594590E-1	8.887510E-1	8.629710E-1	9.199488E-1	8.990939E-1	9.086519E-1	9.380582E-1	9.499930E-1	8.971570E-1	8.550039E-1	8.644536E-1	9.025831E-1	8.942316E-1	9.448045E-1	8.838276E-1	8.877674E-1	9.399782E-1	8.907893E-1	9.026898E-1	9.373519E-1	8.597818E-1	8.417550E-1	9.075473E-1	9.313965E-1	8.947137E-1	8.842828E-1	9.028033E-1	9.369492E-1	9.265074E-1	8.691095E-1	8.887501E-1	9.125845E-1	9.074525E-1	8.929298E-1	9.357623E-1	8.983608E-1	8.931904E-1	8.954204E-1	9.254728E-1	9.107335E-1	9.464447E-1	9.446343E-1	8.788924E-1	9.408681E-1	9.344704E-1	9.047301E-1	8.955317E-1	9.215140E-1	9.388841E-1	9.101006E-1	8.690457E-1	9.140128E-1	9.066323E-1	8.708452E-1	8.724935E-1	9.321280E-1	9.310703E-1	8.666812E-1	8.680722E-1	8.953263E-1	9.130129E-1	8.515690E-1	8.603497E-1
2.900030E+2	7.817254E-1	8.638971E-1	8.224537E-1	8.228670E-1	7.966894E-1	8.594736E-1	7.822399E-1	8.129712E-1	8.690010E-1	7.912856E-1	8.426604E-1	8.332820E-1	8.062734E-1	7.931644E-1	8.176788E-1	8.234563E-1	8.816308E-1	8.104324E-1	8.556506E-1	8.044676E-1	8.442102E-1	8.432855E-1	8.209148E-1	8.528869E-1	8.000178E-1	8.755887E-1	8.019241E-1	8.491255E-1	8.759889E-1	8.482426E-1	8.187300E-1	8.170880E-1	7.937775E-1	7.970424E-1	8.696543E-1	8.350535E-1	8.565120E-1	8.688251E-1	8.169298E-1	8.635647E-1	8.631954E-1	8.463917E-1	8.325851E-1	8.402038E-1	8.600253E-1	7.910461E-1	8.683896E-1	8.553386E-1	8.566494E-1	8.030631E-1	8.132690E-1	8.293900E-1	8.538379E-1	8.147665E-1	8.241845E-1	8.378203E-1	8.618781E-1	8.685020E-1	8.359638E-1	8.031902E-1	8.650694E-1	8.443848E-1	8.501053E-1	8.331823E-1	7.776170E-1	8.153690E-1	7.794927E-1	8.498265E-1	7.437321E-1	7.755551E-1	8.582410E-1	8.028570E-1	8.449337E-1	7.799548E-1	8.362324E-1	8.171661E-1	8.251057E-1	8.327136E-1	8.068024E-1	8.509128E-1	8.716297E-1	8.331244E-1	8.429591E-1	8.181346E-1	8.150084E-1	8.224916E-1	8.336343E-1	8.727745E-1	8.270499E-1	8.196572E-1	8.230833E-1	8.807549E-1	7.863171E-1	8.300739E-1	8.109704E-1	7.891599E-1	8.193075E-1	8.379493E-1	8.334058E-1	8.374633E-1	8.247936E-1	8.274713E-1	7.941453E-1	8.338438E-1	7.959843E-1	8.034347E-1	8.406199E-1	8.730296E-1	8.612974E-1	8.190846E-1	8.417446E-1	8.574131E-1	8.140665E-1	8.542180E-1	8.794624E-1	8.536862E-1	8.268673E-1	8.507382E-1	8.160142E-1	8.389967E-1	8.492707E-1	8.562483E-1	8.358398E-1	8.481372E-1	8.720676E-1	8.764093E-1	7.881780E-1	8.250372E-1	8.719863E-1	8.424336E-1	8.738698E-1	8.784584E-1	8.583414E-1	8.609972E-1	8.407539E-1	8.526691E-1	8.521302E-1	8.904861E-1	8.324229E-1	8.347628E-1	8.449991E-1	8.193606E-1	8.665977E-1	8.704758E-1	8.146971E-1	8.088807E-1	8.320023E-1	8.503385E-1	8.395778E-1	8.591705E-1	8.390131E-1	8.649817E-1	8.648206E-1	8.473092E-1	8.287009E-1	8.798111E-1	8.526923E-1	8.546069E-1	8.760309E-1	8.798914E-1	7.922237E-1	8.668762E-1	8.309564E-1	8.543391E-1	8.800579E-1	8.096032E-1	7.963957E-1	7.993588E-1	8.786210E-1	7.895343E-1	8.476762E-1
2.905230E+2	7.990748E-1	7.900408E-1	7.487744E-1	8.031570E-1	7.686480E-1	7.819435E-1	7.805650E-1	8.014948E-1	7.912445E-1	7.400743E-1	7.883603E-1	8.220198E-1	7.738125E-1	7.611776E-1	7.163057E-1	8.174591E-1	7.968273E-1	7.798427E-1	7.396443E-1	7.804503E-1	7.886885E-1	7.812889E-1	7.910512E-1	7.957210E-1	7.926021E-1	7.860049E-1	7.537315E-1	7.426163E-1	8.150602E-1	8.146883E-1	7.959158E-1	8.295546E-1	7.681648E-1	7.863471E-1	7.886592E-1	7.557167E-1	8.016410E-1	7.588707E-1	7.657509E-1	7.985222E-1	7.964362E-1	8.022820E-1	7.918818E-1	8.124305E-1	8.068695E-1	7.879893E-1	7.740609E-1	7.846430E-1	8.462669E-1	8.203502E-1	7.681820E-1	7.775677E-1	7.981576E-1	8.075998E-1	7.276564E-1	7.592003E-1	7.965038E-1	7.797585E-1	7.903696E-1	7.801198E-1	7.928718E-1	7.805004E-1	8.300947E-1	7.813567E-1	7.474527E-1	8.097870E-1	7.747545E-1	8.126999E-1	7.655820E-1	7.658677E-1	7.923223E-1	7.973333E-1	7.863576E-1	7.863930E-1	7.413186E-1	7.560209E-1	7.575345E-1	7.783182E-1	7.706978E-1	7.814364E-1	8.107773E-1	7.642264E-1	8.281253E-1	8.114537E-1	8.526266E-1	7.952406E-1	7.370436E-1	7.777068E-1	7.863979E-1	7.666854E-1	8.014551E-1	7.986165E-1	7.732170E-1	7.365362E-1	8.260686E-1	7.708822E-1	7.641452E-1	7.990208E-1	7.765449E-1	7.495077E-1	8.242759E-1	8.182662E-1	7.537975E-1	7.780607E-1	7.838487E-1	7.739729E-1	8.044903E-1	7.721537E-1	7.764599E-1	7.436249E-1	8.094903E-1	8.060139E-1	7.779057E-1	8.208093E-1	8.298211E-1	7.919416E-1	7.883903E-1	7.850680E-1	7.405471E-1	7.275253E-1	8.361586E-1	8.292725E-1	8.008617E-1	7.676712E-1	7.970246E-1	8.084178E-1	7.877981E-1	8.035014E-1	8.129419E-1	7.740839E-1	8.076388E-1	7.995501E-1	7.728859E-1	8.295651E-1	7.865132E-1	7.801452E-1	7.865950E-1	7.758993E-1	7.976904E-1	7.857938E-1	7.794728E-1	7.716491E-1	7.846854E-1	8.118327E-1	8.368484E-1	7.151480E-1	7.542941E-1	8.238300E-1	8.156854E-1	7.854885E-1	7.994506E-1	8.044160E-1	8.202911E-1	7.836257E-1	7.308319E-1	8.623161E-1	7.984431E-1	7.809548E-1	7.345218E-1	7.712710E-1	7.830490E-1	7.938199E-1	7.778031E-1	8.078160E-1	7.993278E-1	7.757109E-1	8.430841E-1	7.660682E-1	7.934630E-1	8.352420E-1	7.675477E-1
2.910010E+2	9.846094E-1	9.708437E-1	1.001930E+0	9.709800E-1	1.025613E+0	9.788605E-1	9.570402E-1	9.631386E-1	9.480911E-1	9.106603E-1	9.862793E-1	9.583524E-1	9.739586E-1	1.011448E+0	1.004779E+0	9.562289E-1	1.015499E+0	9.909447E-1	9.970709E-1	9.227687E-1	1.023815E+0	9.695964E-1	9.703575E-1	1.023929E+0	9.989811E-1	1.040406E+0	1.009313E+0	9.500631E-1	1.064328E+0	1.038454E+0	1.001312E+0	9.794218E-1	9.528022E-1	9.950805E-1	9.754997E-1	9.941761E-1	9.926887E-1	1.042226E+0	1.023702E+0	9.971368E-1	1.020696E+0	1.000757E+0	9.320227E-1	1.036227E+0	1.038246E+0	1.003661E+0	9.807921E-1	1.019373E+0	1.019692E+0	9.995491E-1	9.477734E-1	9.799856E-1	1.001948E+0	9.855127E-1	9.773321E-1	9.355241E-1	1.034328E+0	9.906432E-1	1.024691E+0	9.748760E-1	9.493512E-1	1.010520E+0	1.002788E+0	1.013750E+0	1.050562E+0	9.942135E-1	1.005056E+0	1.016533E+0	1.000002E+0	9.477850E-1	1.006369E+0	9.598352E-1	9.997264E-1	9.578728E-1	9.300855E-1	9.970422E-1	9.850836E-1	9.849439E-1	9.630965E-1	9.995731E-1	1.005920E+0	9.439592E-1	9.363844E-1	9.610370E-1	9.961884E-1	9.362194E-1	1.001496E+0	9.938693E-1	1.092384E+0	9.829390E-1	9.553833E-1	9.535974E-1	1.035601E+0	9.844323E-1	1.009212E+0	9.484919E-1	9.909347E-1	1.013871E+0	1.005364E+0	9.772993E-1	1.095045E+0	9.829070E-1	9.346632E-1	9.712411E-1	1.099057E+0	9.642964E-1	9.845214E-1	1.007530E+0	1.015047E+0	1.010482E+0	9.864555E-1	9.569710E-1	9.599166E-1	9.946630E-1	9.482290E-1	1.027930E+0	1.008210E+0	9.961993E-1	9.999446E-1	9.469109E-1	1.005992E+0	1.023052E+0	9.709926E-1	1.002288E+0	1.021245E+0	9.628670E-1	9.971483E-1	1.011428E+0	9.705213E-1	1.039213E+0	1.022214E+0	9.888576E-1	9.734785E-1	1.003483E+0	9.788888E-1	1.010104E+0	1.024642E+0	9.863737E-1	9.790866E-1	9.776535E-1	1.017760E+0	9.813808E-1	1.004488E+0	1.063354E+0	1.008625E+0	9.748482E-1	9.825086E-1	9.796246E-1	1.004074E+0	1.011921E+0	9.997660E-1	9.930484E-1	1.064007E+0	1.052066E+0	9.626146E-1	1.006216E+0	1.043202E+0	9.930331E-1	9.440108E-1	1.014637E+0	9.757483E-1	9.915393E-1	9.763452E-1	1.030729E+0	1.021015E+0	1.000040E+0	9.967381E-1	1.060639E+0	9.778921E-1	9.630896E-1	9.581709E-1
2.915150E+2	1.215265E+0	1.122273E+0	1.171765E+0	1.163996E+0	1.203822E+0	1.194226E+0	1.204113E+0	1.166811E+0	1.157720E+0	1.109902E+0	1.216246E+0	1.202908E+0	1.184995E+0	1.208037E+0	1.139016E+0	1.143140E+0	1.177374E+0	1.128792E+0	1.207632E+0	1.184250E+0	1.199205E+0	1.163597E+0	1.206120E+0	1.242876E+0	1.208928E+0	1.182316E+0	1.159852E+0	1.202040E+0	1.200298E+0	1.186293E+0	1.170379E+0	1.147527E+0	1.195212E+0	1.133090E+0	1.172874E+0	1.160622E+0	1.222918E+0	1.177413E+0	1.186445E+0	1.217702E+0	1.221080E+0	1.192680E+0	1.191698E+0	1.148930E+0	1.186959E+0	1.174419E+0	1.172767E+0	1.255346E+0	1.200477E+0	1.131507E+0	1.174187E+0	1.154830E+0	1.202826E+0	1.158203E+0	1.229888E+0	1.171488E+0	1.183936E+0	1.251925E+0	1.210876E+0	1.158164E+0	1.197577E+0	1.218361E+0	1.218105E+0	1.234379E+0	1.241898E+0	1.183449E+0	1.133005E+0	1.191771E+0	1.106392E+0	1.163639E+0	1.207504E+0	1.152319E+0	1.215323E+0	1.187070E+0	1.176377E+0	1.189012E+0	1.186788E+0	1.207691E+0	1.176458E+0	1.106882E+0	1.210095E+0	1.130187E+0	1.168540E+0	1.174870E+0	1.206517E+0	1.161880E+0	1.148272E+0	1.165090E+0	1.147252E+0	1.117197E+0	1.174494E+0	1.198634E+0	1.187284E+0	1.129194E+0	1.184159E+0	1.134962E+0	1.197539E+0	1.158087E+0	1.201405E+0	1.129676E+0	1.249617E+0	1.155214E+0	1.123272E+0	1.187829E+0	1.210700E+0	1.132766E+0	1.269308E+0	1.191214E+0	1.134485E+0	1.185578E+0	1.189033E+0	1.204091E+0	1.200286E+0	1.181653E+0	1.212337E+0	1.201025E+0	1.159315E+0	1.143897E+0	1.152409E+0	1.111204E+0	1.196421E+0	1.214417E+0	1.102069E+0	1.142515E+0	1.179200E+0	1.220654E+0	1.205918E+0	1.212965E+0	1.171949E+0	1.156023E+0	1.213323E+0	1.140349E+0	1.220473E+0	1.163888E+0	1.227477E+0	1.238218E+0	1.197424E+0	1.136270E+0	1.148573E+0	1.155103E+0	1.256569E+0	1.170677E+0	1.264228E+0	1.231054E+0	1.201195E+0	1.165663E+0	1.147177E+0	1.160681E+0	1.254821E+0	1.184108E+0	1.148511E+0	1.194229E+0	1.124150E+0	1.164235E+0	1.126626E+0	1.218541E+0	1.147476E+0	1.181142E+0	1.159755E+0	1.155853E+0	1.276871E+0	1.157491E+0	1.214658E+0	1.229819E+0	1.288328E+0	1.172744E+0	1.208513E+0	1.258583E+0	1.146653E+0	1.106144E+0	1.006659E+0
2.920030E+2	1.053026E+0	1.036771E+0	1.039985E+0	1.033761E+0	1.111570E+0	1.076201E+0	1.057817E+0	1.061763E+0	1.071701E+0	9.743759E-1	1.083586E+0	1.111351E+0	1.061352E+0	1.086372E+0	9.957383E-1	1.031563E+0	1.114605E+0	1.043992E+0	1.134095E+0	1.028339E+0	1.019424E+0	1.083379E+0	1.072045E+0	1.108549E+0	1.081831E+0	1.091943E+0	1.107672E+0	1.044083E+0	1.091199E+0	1.086689E+0	1.050561E+0	1.043408E+0	1.041211E+0	1.054540E+0	1.080073E+0	1.063771E+0	1.025276E+0	1.095129E+0	1.034102E+0	1.051867E+0	1.066421E+0	1.066841E+0	1.064275E+0	1.117264E+0	1.107725E+0	1.070850E+0	1.040957E+0	1.023211E+0	1.071157E+0	1.036104E+0	1.059675E+0	1.020373E+0	1.128817E+0	1.071162E+0	1.044534E+0	1.073047E+0	1.137235E+0	1.065914E+0	1.105811E+0	1.035350E+0	1.044727E+0	1.060556E+0	1.075786E+0	1.027718E+0	1.140744E+0	1.006773E+0	1.032262E+0	1.095975E+0	1.108855E+0	1.053488E+0	1.093236E+0	1.028122E+0	1.096716E+0	1.059060E+0	1.041930E+0	1.066756E+0	1.044798E+0	1.077964E+0	1.054463E+0	1.127431E+0	1.054906E+0	1.005294E+0	1.049335E+0	1.055042E+0	1.117005E+0	1.085407E+0	1.076950E+0	1.063863E+0	1.075051E+0	1.105151E+0	1.034934E+0	1.109683E+0	1.028716E+0	1.037776E+0	1.059818E+0	1.061290E+0	1.010486E+0	1.006314E+0	1.077641E+0	1.031091E+0	1.130884E+0	1.039021E+0	1.028423E+0	1.110141E+0	1.068061E+0	1.121116E+0	1.069929E+0	1.082023E+0	1.074450E+0	1.051789E+0	1.085329E+0	1.042726E+0	1.082994E+0	1.075287E+0	1.073642E+0	1.047851E+0	1.040259E+0	1.098840E+0	1.049287E+0	1.019254E+0	1.094675E+0	1.056192E+0	1.060499E+0	1.056267E+0	1.109002E+0	1.090500E+0	1.032175E+0	1.073243E+0	1.023672E+0	1.009788E+0	1.062151E+0	1.070392E+0	1.053166E+0	1.046915E+0	1.053688E+0	1.134916E+0	1.034767E+0	1.029260E+0	1.014947E+0	1.117337E+0	1.014998E+0	1.024402E+0	1.080482E+0	1.103529E+0	1.078757E+0	9.991097E-1	1.084423E+0	1.086114E+0	1.122687E+0	1.095819E+0	1.117189E+0	1.050731E+0	1.073795E+0	1.070974E+0	1.108371E+0	1.063035E+0	1.087299E+0	1.080422E+0	1.024856E+0	1.091034E+0	1.027481E+0	1.090683E+0	1.108481E+0	1.080747E+0	1.087776E+0	9.988168E-1	1.091553E+0	9.995298E-1	1.166190E+0	1.031072E+0	1.169073E+0
2.925030E+2	9.948492E-1	1.020385E+0	1.061869E+0	1.040895E+0	1.064634E+0	1.108397E+0	1.026923E+0	9.939990E-1	1.049620E+0	9.746446E-1	1.024529E+0	1.039027E+0	9.781687E-1	9.997137E-1	1.021776E+0	1.014737E+0	1.079418E+0	1.030274E+0	1.076170E+0	1.041189E+0	1.003605E+0	9.918560E-1	1.093411E+0	1.060591E+0	1.089182E+0	1.012928E+0	1.024199E+0	9.344144E-1	1.060887E+0	9.816907E-1	1.057015E+0	1.034502E+0	9.731661E-1	9.903169E-1	9.888452E-1	9.795513E-1	1.036434E+0	1.020040E+0	1.037665E+0	1.025330E+0	1.021159E+0	1.046473E+0	1.035177E+0	1.027311E+0	1.080499E+0	1.049857E+0	1.011984E+0	9.816958E-1	1.036503E+0	9.972325E-1	9.789825E-1	1.031553E+0	1.024600E+0	9.803873E-1	1.036082E+0	9.558433E-1	1.085059E+0	1.061811E+0	1.010237E+0	1.038025E+0	1.068400E+0	9.841202E-1	1.043712E+0	1.062215E+0	1.025114E+0	1.033826E+0	1.066227E+0	1.022646E+0	1.067502E+0	1.013006E+0	9.991433E-1	9.742057E-1	1.033279E+0	1.050388E+0	1.044637E+0	1.035561E+0	1.050854E+0	1.015129E+0	1.042443E+0	1.103129E+0	1.024355E+0	1.045624E+0	1.048134E+0	1.069200E+0	1.013753E+0	9.999735E-1	9.784783E-1	9.823729E-1	1.019567E+0	1.041517E+0	1.001407E+0	1.051777E+0	1.033809E+0	1.026801E+0	1.028713E+0	9.657162E-1	1.047295E+0	1.035080E+0	1.007093E+0	9.713238E-1	1.043746E+0	1.060090E+0	1.023295E+0	1.083091E+0	1.049877E+0	1.015780E+0	1.056479E+0	1.032521E+0	1.010868E+0	1.044019E+0	1.049633E+0	9.864040E-1	1.024259E+0	1.049567E+0	1.022469E+0	1.028913E+0	1.026759E+0	1.032951E+0	9.922512E-1	1.001440E+0	1.041307E+0	1.048866E+0	1.048322E+0	1.080753E+0	1.064299E+0	1.023685E+0	1.016937E+0	1.010132E+0	1.013847E+0	1.017235E+0	1.027918E+0	1.027156E+0	1.014169E+0	1.024896E+0	1.088879E+0	1.101237E+0	1.038143E+0	1.012015E+0	1.003457E+0	9.912939E-1	1.050023E+0	1.001572E+0	9.994632E-1	1.021427E+0	1.038705E+0	9.730790E-1	1.056013E+0	1.044264E+0	1.060800E+0	1.006150E+0	9.742098E-1	1.049586E+0	1.078712E+0	1.029887E+0	1.066477E+0	9.906395E-1	1.033404E+0	1.060103E+0	1.046747E+0	1.048251E+0	1.032812E+0	1.051078E+0	1.039099E+0	1.064012E+0	1.045534E+0	1.062234E+0	1.043877E+0	1.078555E+0	1.047180E+0	9.961549E-1	1.153096E+0
2.930040E+2	9.185277E-1	9.223956E-1	8.530257E-1	9.272045E-1	9.754647E-1	9.251340E-1	8.821469E-1	1.000613E+0	8.589389E-1	8.483321E-1	9.705220E-1	9.539540E-1	9.569364E-1	9.703782E-1	8.998388E-1	9.331073E-1	9.146657E-1	8.648446E-1	9.278246E-1	9.825329E-1	9.091052E-1	9.643092E-1	9.103688E-1	9.349360E-1	1.009091E+0	9.562107E-1	9.353309E-1	8.466526E-1	9.303681E-1	9.644171E-1	9.447622E-1	9.851226E-1	9.392399E-1	9.224369E-1	9.383886E-1	9.766367E-1	9.209472E-1	9.568550E-1	9.804382E-1	8.935844E-1	9.598504E-1	9.695200E-1	9.596005E-1	9.126291E-1	9.768766E-1	9.600097E-1	9.781150E-1	9.564507E-1	9.462529E-1	8.820968E-1	9.552160E-1	9.132431E-1	9.418436E-1	9.593927E-1	9.871307E-1	9.412311E-1	9.650254E-1	9.502786E-1	9.441131E-1	9.281191E-1	9.418243E-1	9.009890E-1	9.854776E-1	9.701362E-1	8.681434E-1	9.027355E-1	9.451727E-1	9.676077E-1	9.624086E-1	8.788993E-1	9.459332E-1	9.544399E-1	9.350758E-1	8.979889E-1	9.482009E-1	9.463168E-1	9.236407E-1	9.573111E-1	1.004995E+0	9.696646E-1	9.067052E-1	9.054530E-1	8.996364E-1	9.308074E-1	9.560082E-1	9.153310E-1	9.593867E-1	9.342012E-1	9.717662E-1	9.410875E-1	9.728786E-1	9.926017E-1	9.127166E-1	9.923213E-1	9.628680E-1	9.727857E-1	8.988009E-1	9.283180E-1	9.360185E-1	9.539506E-1	9.375746E-1	9.162280E-1	9.274941E-1	9.658965E-1	9.579178E-1	9.128330E-1	9.230014E-1	9.294741E-1	9.548924E-1	9.814339E-1	9.340924E-1	9.528257E-1	9.819062E-1	9.225001E-1	9.335423E-1	9.356783E-1	1.000511E+0	9.677267E-1	8.870497E-1	9.029207E-1	9.393013E-1	9.015878E-1	8.831030E-1	9.178629E-1	9.380246E-1	9.274476E-1	1.003210E+0	9.158851E-1	9.149103E-1	9.101469E-1	9.565720E-1	9.597656E-1	9.921599E-1	8.908767E-1	9.444060E-1	1.001150E+0	9.237003E-1	9.347189E-1	9.454538E-1	9.343478E-1	9.500278E-1	9.073449E-1	9.087980E-1	8.806060E-1	1.010108E+0	9.635215E-1	9.749764E-1	9.449337E-1	9.432576E-1	9.417856E-1	9.902211E-1	9.269257E-1	1.008799E+0	9.315364E-1	9.154219E-1	1.001644E+0	9.703413E-1	9.322462E-1	9.830949E-1	9.055289E-1	1.060848E+0	9.106280E-1	9.248989E-1	9.468626E-1	1.019521E+0	9.393688E-1	9.490068E-1	9.889827E-1	9.327792E-1	9.056044E-1	9.430147E-1
2.935110E+2	1.042243E+0	1.012627E+0	1.059178E+0	1.046518E+0	1.104175E+0	1.106391E+0	1.088061E+0	1.025907E+0	1.031100E+0	1.037688E+0	1.062469E+0	1.144577E+0	1.119954E+0	1.067136E+0	1.046481E+0	1.079095E+0	1.053757E+0	1.059909E+0	1.052467E+0	1.076476E+0	1.070290E+0	1.120660E+0	1.033122E+0	1.106502E+0	1.063591E+0	1.021176E+0	1.051268E+0	9.874948E-1	1.054846E+0	1.084248E+0	1.066728E+0	1.037455E+0	1.146909E+0	1.080779E+0	1.041750E+0	1.153212E+0	1.102146E+0	1.080187E+0	1.045837E+0	1.059475E+0	1.111115E+0	1.031005E+0	1.089455E+0	1.103942E+0	1.100889E+0	1.091913E+0	1.079551E+0	1.076284E+0	1.079920E+0	1.054567E+0	1.036776E+0	1.065107E+0	1.110135E+0	1.031589E+0	1.071079E+0	1.033760E+0	1.114135E+0	1.010275E+0	1.122620E+0	1.023599E+0	1.053328E+0	1.089128E+0	1.106235E+0	1.085557E+0	1.039569E+0	1.063798E+0	1.061542E+0	1.133705E+0	1.101457E+0	1.036681E+0	1.072568E+0	1.062134E+0	1.095118E+0	1.056983E+0	1.112177E+0	1.062344E+0	1.096589E+0	1.103487E+0	1.094048E+0	1.075014E+0	1.053035E+0	1.060895E+0	1.076600E+0	1.087839E+0	1.137876E+0	1.098485E+0	1.070423E+0	1.071848E+0	1.053074E+0	1.058026E+0	9.950738E-1	1.115137E+0	1.053384E+0	1.171069E+0	1.120088E+0	1.046124E+0	1.034576E+0	1.128290E+0	1.069066E+0	1.048295E+0	1.053281E+0	1.054661E+0	1.133192E+0	1.078998E+0	1.054032E+0	1.085943E+0	1.112963E+0	1.088475E+0	1.069979E+0	1.099807E+0	1.066146E+0	1.056091E+0	1.025285E+0	1.070098E+0	1.024001E+0	1.095480E+0	1.106019E+0	1.086430E+0	1.040997E+0	1.095421E+0	1.162355E+0	1.019941E+0	1.061907E+0	1.030131E+0	1.090208E+0	1.048425E+0	1.055453E+0	1.064260E+0	1.106211E+0	1.063264E+0	1.112084E+0	1.099283E+0	1.101834E+0	1.106288E+0	1.108212E+0	1.053578E+0	1.068203E+0	1.095415E+0	1.008236E+0	1.105530E+0	1.086980E+0	1.093605E+0	1.091997E+0	1.030809E+0	1.100795E+0	1.053534E+0	1.063862E+0	1.105472E+0	1.142687E+0	1.054365E+0	1.057580E+0	1.051650E+0	1.100742E+0	1.050872E+0	1.114714E+0	1.084259E+0	1.068477E+0	1.076475E+0	1.069901E+0	1.066923E+0	1.058886E+0	1.063201E+0	1.150985E+0	1.134446E+0	1.134477E+0	1.033589E+0	1.074296E+0	1.061735E+0	1.047665E+0	1.026768E+0	1.008189E+0
2.940070E+2	1.100490E+0	1.068186E+0	1.042220E+0	1.088431E+0	1.124855E+0	1.177263E+0	1.156144E+0	1.122088E+0	1.112612E+0	1.057518E+0	1.068577E+0	1.056541E+0	1.139838E+0	1.100448E+0	1.087168E+0	1.070120E+0	1.088606E+0	1.105714E+0	1.101407E+0	1.097275E+0	1.083668E+0	1.075251E+0	1.144242E+0	1.062548E+0	1.192013E+0	1.094196E+0	1.095390E+0	1.119012E+0	1.104706E+0	1.110838E+0	1.120650E+0	1.113054E+0	1.092129E+0	1.054614E+0	1.088751E+0	1.133040E+0	1.122542E+0	1.080789E+0	1.137611E+0	1.129677E+0	1.164173E+0	1.150900E+0	1.113902E+0	1.106466E+0	1.120448E+0	1.138416E+0	1.072930E+0	1.116877E+0	1.143477E+0	1.075087E+0	1.079722E+0	1.104793E+0	1.165268E+0	1.080102E+0	1.131301E+0	1.146921E+0	1.166842E+0	1.055259E+0	1.090545E+0	1.084362E+0	1.155107E+0	1.139877E+0	1.096403E+0	1.055298E+0	1.115143E+0	1.139575E+0	1.151498E+0	1.116019E+0	1.071989E+0	1.090401E+0	1.085273E+0	1.135020E+0	1.169633E+0	1.125811E+0	1.137214E+0	1.121643E+0	1.111658E+0	1.151870E+0	1.170437E+0	1.188494E+0	1.163256E+0	1.052903E+0	1.104097E+0	1.084750E+0	1.136165E+0	1.109340E+0	1.024657E+0	1.097305E+0	1.102444E+0	1.092557E+0	1.115823E+0	1.137788E+0	1.086132E+0	1.164778E+0	1.084842E+0	1.091441E+0	1.096106E+0	1.112363E+0	1.068308E+0	1.108885E+0	1.155340E+0	1.081412E+0	1.159209E+0	1.110854E+0	1.132108E+0	1.082249E+0	1.159231E+0	1.124710E+0	1.138382E+0	1.148052E+0	1.078997E+0	1.062955E+0	1.151306E+0	1.149507E+0	1.104083E+0	1.145632E+0	1.091991E+0	1.050952E+0	1.145687E+0	1.123777E+0	1.122781E+0	1.130953E+0	1.098247E+0	1.121923E+0	1.154982E+0	1.103123E+0	1.063854E+0	1.131327E+0	1.132596E+0	1.091190E+0	1.158614E+0	1.077783E+0	1.129749E+0	1.107778E+0	1.121145E+0	1.121894E+0	1.142410E+0	1.084533E+0	1.040150E+0	1.177298E+0	1.052574E+0	1.077217E+0	1.126293E+0	1.058470E+0	1.143115E+0	1.072607E+0	1.092527E+0	1.130716E+0	1.121035E+0	1.108639E+0	1.120558E+0	1.106753E+0	1.094083E+0	1.086453E+0	1.075800E+0	1.127216E+0	1.097564E+0	1.129090E+0	1.108707E+0	1.120495E+0	1.088907E+0	1.101353E+0	1.146595E+0	1.076175E+0	1.113621E+0	1.103786E+0	1.112029E+0	1.125054E+0	1.085601E+0	1.149327E+0	1.065740E+0
2.945010E+2	9.800610E-1	1.064977E+0	1.055860E+0	1.100239E+0	1.081071E+0	1.094779E+0	1.096588E+0	1.108309E+0	1.029402E+0	1.052142E+0	1.068609E+0	1.111673E+0	1.092443E+0	1.055352E+0	1.063959E+0	1.091221E+0	1.043935E+0	1.057845E+0	1.035948E+0	1.063310E+0	1.101771E+0	1.104082E+0	1.042549E+0	1.083047E+0	1.090681E+0	1.077300E+0	1.105576E+0	9.639922E-1	1.072970E+0	1.048457E+0	1.082651E+0	1.068798E+0	1.070620E+0	1.118586E+0	1.021547E+0	1.097982E+0	1.088726E+0	1.088114E+0	1.110095E+0	1.053500E+0	1.038201E+0	1.014810E+0	1.075071E+0	1.050911E+0	1.104754E+0	1.082261E+0	1.069652E+0	1.094950E+0	1.095234E+0	1.056070E+0	1.103809E+0	1.129552E+0	1.098745E+0	1.078413E+0	1.045482E+0	1.007414E+0	1.063044E+0	1.088581E+0	1.089083E+0	1.090997E+0	1.040597E+0	1.056394E+0	1.054331E+0	1.028549E+0	1.096878E+0	1.050084E+0	1.142369E+0	1.047972E+0	1.093629E+0	1.045636E+0	1.092435E+0	1.044628E+0	1.119613E+0	1.124042E+0	1.060398E+0	1.152129E+0	1.130546E+0	1.032930E+0	1.098191E+0	1.037446E+0	1.099099E+0	1.012065E+0	1.064687E+0	1.068121E+0	1.082558E+0	1.054925E+0	1.077779E+0	1.110929E+0	1.076913E+0	1.097993E+0	1.092339E+0	1.074703E+0	1.042965E+0	1.110649E+0	1.008505E+0	1.041054E+0	1.058124E+0	1.082373E+0	1.087440E+0	1.054424E+0	1.080121E+0	1.116663E+0	1.042023E+0	1.084108E+0	1.071398E+0	1.061884E+0	1.087220E+0	1.103781E+0	1.070327E+0	1.086689E+0	1.064939E+0	1.043929E+0	1.099346E+0	1.138425E+0	1.045561E+0	1.109675E+0	1.090563E+0	1.073396E+0	9.651676E-1	1.028853E+0	1.109325E+0	1.055449E+0	1.038006E+0	1.070777E+0	1.150318E+0	1.100256E+0	1.078789E+0	1.085637E+0	1.061836E+0	1.057173E+0	1.159968E+0	1.054522E+0	1.069114E+0	1.120842E+0	1.091017E+0	1.107789E+0	1.077748E+0	1.073596E+0	1.084817E+0	1.074178E+0	1.029178E+0	1.036225E+0	1.067160E+0	1.065502E+0	1.063016E+0	1.014530E+0	1.008939E+0	1.065285E+0	1.085455E+0	1.112843E+0	9.967428E-1	1.068305E+0	1.094977E+0	1.006158E+0	1.080767E+0	1.016204E+0	1.064099E+0	1.033005E+0	1.040224E+0	1.047600E+0	1.103814E+0	1.070423E+0	1.063362E+0	1.072542E+0	1.151139E+0	1.047618E+0	1.092033E+0	1.053622E+0	1.085963E+0	1.060650E+0	1.031912E+0
2.950050E+2	9.910633E-1	9.968245E-1	1.013488E+0	1.009351E+0	1.018741E+0	9.951468E-1	9.780884E-1	1.048099E+0	1.041612E+0	1.025495E+0	1.017533E+0	1.004875E+0	1.003474E+0	1.021248E+0	1.011379E+0	9.993044E-1	1.003951E+0	1.022128E+0	1.017331E+0	1.073924E+0	1.034378E+0	1.025149E+0	9.925628E-1	1.038827E+0	1.037700E+0	1.013044E+0	1.036784E+0	9.983904E-1	1.049262E+0	1.011784E+0	1.039462E+0	1.078982E+0	9.894604E-1	1.002851E+0	9.950527E-1	1.058590E+0	1.022735E+0	1.019593E+0	9.987831E-1	1.026527E+0	1.064838E+0	1.060795E+0	1.020498E+0	1.014153E+0	1.037472E+0	9.954573E-1	1.026660E+0	1.025203E+0	9.959341E-1	1.059652E+0	1.009056E+0	9.713985E-1	1.060095E+0	1.032532E+0	1.005288E+0	1.042306E+0	1.051770E+0	9.852107E-1	1.017521E+0	1.017432E+0	1.054617E+0	1.044662E+0	1.044407E+0	1.041159E+0	1.010132E+0	1.020842E+0	1.051024E+0	1.023589E+0	1.057206E+0	1.024805E+0	1.021352E+0	1.013760E+0	9.716382E-1	1.043378E+0	1.021050E+0	1.046226E+0	1.039667E+0	9.799806E-1	9.923074E-1	1.020668E+0	1.033739E+0	1.021645E+0	1.009342E+0	1.030777E+0	1.067702E+0	1.030617E+0	9.731696E-1	1.042538E+0	1.058761E+0	1.018441E+0	1.014325E+0	1.027182E+0	9.754273E-1	1.006389E+0	1.004920E+0	1.002487E+0	1.020950E+0	1.050033E+0	1.033684E+0	9.866045E-1	1.062585E+0	1.032379E+0	9.802490E-1	9.856445E-1	1.054261E+0	1.028148E+0	1.042068E+0	9.719382E-1	1.040790E+0	1.065048E+0	1.037623E+0	1.029333E+0	1.096495E+0	1.035997E+0	1.013679E+0	1.010467E+0	1.026283E+0	9.727840E-1	9.777493E-1	9.831704E-1	1.032284E+0	1.036660E+0	1.002676E+0	1.022060E+0	1.062672E+0	1.024092E+0	1.054153E+0	1.020734E+0	1.001580E+0	1.041258E+0	1.016295E+0	1.027448E+0	1.007731E+0	1.006987E+0	1.035893E+0	1.069164E+0	1.064730E+0	1.027207E+0	1.008488E+0	1.063240E+0	1.040932E+0	9.724392E-1	1.031767E+0	1.026792E+0	1.031075E+0	1.049751E+0	1.042204E+0	9.885322E-1	1.026220E+0	1.014995E+0	9.940950E-1	1.017968E+0	1.076736E+0	1.033384E+0	1.010327E+0	1.030296E+0	1.048116E+0	9.980624E-1	1.022210E+0	9.711591E-1	1.004509E+0	1.032909E+0	1.016516E+0	1.047303E+0	1.076998E+0	9.750793E-1	1.041015E+0	1.022542E+0	1.016887E+0	1.044711E+0	1.025374E+0
2.955050E+2	9.968623E-1	1.004795E+0	1.023000E+0	9.664485E-1	1.015772E+0	1.057257E+0	1.036110E+0	1.013077E+0	1.028146E+0	9.827564E-1	1.000316E+0	1.048930E+0	1.041084E+0	9.663607E-1	1.010420E+0	9.906706E-1	1.045087E+0	1.012795E+0	9.707589E-1	1.063393E+0	1.028431E+0	1.016475E+0	1.087117E+0	1.006902E+0	1.039052E+0	1.031267E+0	1.033155E+0	1.032080E+0	1.023120E+0	1.039720E+0	9.929964E-1	1.060230E+0	9.690074E-1	1.043592E+0	9.683809E-1	1.057156E+0	1.031832E+0	1.042115E+0	1.036721E+0	1.010642E+0	9.915085E-1	1.006269E+0	1.018388E+0	1.038119E+0	1.055999E+0	1.021612E+0	1.014928E+0	1.073283E+0	1.024589E+0	1.052336E+0	1.029562E+0	1.031805E+0	1.024952E+0	1.021369E+0	1.000535E+0	9.629522E-1	9.963039E-1	1.104940E+0	1.010997E+0	1.029378E+0	1.010775E+0	1.017996E+0	1.081757E+0	1.015373E+0	1.027673E+0	9.720250E-1	1.037878E+0	1.062936E+0	1.016393E+0	1.007451E+0	1.003300E+0	1.010633E+0	1.023075E+0	1.069141E+0	1.041450E+0	9.863624E-1	1.030712E+0	1.035544E+0	1.047766E+0	9.867396E-1	1.045831E+0	9.864217E-1	1.047564E+0	1.017195E+0	1.022091E+0	1.020440E+0	9.629394E-1	1.104829E+0	1.013529E+0	1.030717E+0	1.059014E+0	1.036207E+0	9.851719E-1	1.067270E+0	1.062401E+0	1.024612E+0	1.006761E+0	1.040559E+0	1.044778E+0	1.047561E+0	1.052696E+0	1.029514E+0	9.848155E-1	1.000164E+0	9.792863E-1	9.611293E-1	9.632577E-1	1.028952E+0	1.031253E+0	1.040262E+0	9.980578E-1	9.804372E-1	1.033251E+0	1.008455E+0	1.022701E+0	1.048218E+0	1.023254E+0	1.029117E+0	9.940045E-1	1.086902E+0	1.052718E+0	1.041258E+0	1.042683E+0	9.928965E-1	9.913601E-1	1.016121E+0	1.011670E+0	1.031076E+0	1.088968E+0	9.735683E-1	1.007114E+0	1.019020E+0	1.024947E+0	1.021761E+0	1.041142E+0	1.042953E+0	1.041227E+0	1.018080E+0	1.008546E+0	1.015439E+0	1.001962E+0	1.004472E+0	1.021638E+0	1.015719E+0	9.915751E-1	9.950334E-1	1.006802E+0	1.018665E+0	1.057565E+0	1.020498E+0	9.919217E-1	1.061035E+0	1.065584E+0	1.033890E+0	1.022506E+0	1.076681E+0	1.007739E+0	1.057003E+0	1.025527E+0	1.056686E+0	1.077993E+0	1.000253E+0	1.014965E+0	1.065412E+0	1.092653E+0	1.013920E+0	1.022781E+0	1.027373E+0	9.506179E-1	9.831863E-1	1.107159E+0
2.960050E+2	1.084823E+0	1.141372E+0	1.090388E+0	1.086392E+0	1.124647E+0	1.134082E+0	1.100896E+0	1.116971E+0	1.088844E+0	1.107141E+0	1.107267E+0	1.131778E+0	1.138252E+0	1.177524E+0	1.111989E+0	1.120417E+0	1.141389E+0	1.149058E+0	1.111632E+0	1.149719E+0	1.157521E+0	1.080341E+0	1.132470E+0	1.083732E+0	1.059425E+0	1.050318E+0	1.097929E+0	1.067818E+0	1.108822E+0	1.112694E+0	1.094025E+0	1.136159E+0	1.082781E+0	1.057441E+0	1.108057E+0	1.185483E+0	1.099677E+0	1.106550E+0	1.078043E+0	1.073379E+0	1.097993E+0	1.101659E+0	1.151378E+0	1.082660E+0	1.156019E+0	1.113752E+0	1.073595E+0	1.089614E+0	1.163875E+0	1.151630E+0	1.053051E+0	1.059427E+0	1.085239E+0	1.081752E+0	1.011907E+0	1.063389E+0	1.099174E+0	1.107600E+0	1.061007E+0	1.071461E+0	1.101662E+0	1.099088E+0	1.086181E+0	1.110792E+0	1.105978E+0	1.125099E+0	1.069908E+0	1.071140E+0	1.069523E+0	1.065015E+0	1.093721E+0	1.105421E+0	1.108551E+0	1.132852E+0	1.117643E+0	1.115114E+0	1.124318E+0	1.102568E+0	1.126929E+0	1.157035E+0	1.090681E+0	1.082281E+0	1.061670E+0	1.102309E+0	1.101304E+0	1.076229E+0	1.061627E+0	1.137729E+0	1.121622E+0	1.139155E+0	1.079613E+0	1.113840E+0	1.104706E+0	1.083699E+0	1.109495E+0	1.116987E+0	1.117033E+0	1.057962E+0	1.117197E+0	1.104418E+0	1.102472E+0	1.087316E+0	1.064714E+0	1.145191E+0	1.115327E+0	1.098650E+0	1.156755E+0	1.086938E+0	1.108450E+0	1.096655E+0	1.056560E+0	1.055588E+0	1.088425E+0	1.100509E+0	1.099742E+0	1.117960E+0	1.066381E+0	1.081838E+0	1.082343E+0	1.102848E+0	1.147515E+0	1.104268E+0	1.057340E+0	1.101035E+0	1.147131E+0	1.119063E+0	1.105148E+0	1.127141E+0	1.171453E+0	1.106407E+0	1.160863E+0	1.124451E+0	1.146138E+0	1.109900E+0	1.165035E+0	1.166868E+0	1.108824E+0	1.113891E+0	1.140233E+0	1.124882E+0	1.078236E+0	1.085717E+0	1.049968E+0	1.047287E+0	1.166760E+0	1.080940E+0	1.097797E+0	1.133884E+0	1.115535E+0	1.071057E+0	1.160660E+0	1.115027E+0	1.168684E+0	1.099125E+0	1.135295E+0	1.099376E+0	1.096182E+0	1.069751E+0	1.150355E+0	1.085829E+0	1.109443E+0	1.130614E+0	1.168070E+0	1.118400E+0	1.202184E+0	1.078029E+0	1.050094E+0	1.104444E+0	1.075922E+0	1.053533E+0	1.074547E+0
2.965010E+2	1.077402E+0	1.126636E+0	1.036907E+0	1.108586E+0	1.065077E+0	1.110683E+0	1.098132E+0	1.081328E+0	1.051468E+0	1.083175E+0	1.112230E+0	1.073170E+0	1.106232E+0	1.122078E+0	1.071782E+0	1.029583E+0	1.085695E+0	1.100474E+0	1.046558E+0	1.046925E+0	1.081445E+0	1.076882E+0	1.077158E+0	1.073734E+0	1.118531E+0	1.090163E+0	1.088272E+0	1.056819E+0	1.077910E+0	1.058780E+0	1.068494E+0	1.071297E+0	1.048393E+0	1.084832E+0	1.125905E+0	1.030815E+0	1.090911E+0	1.108164E+0	1.098096E+0	1.087456E+0	1.066579E+0	1.082005E+0	1.102785E+0	1.053982E+0	1.100338E+0	1.085327E+0	1.082190E+0	1.078567E+0	1.088076E+0	1.039960E+0	1.131549E+0	1.009098E+0	1.084032E+0	1.046252E+0	1.084165E+0	1.081727E+0	1.094403E+0	1.075824E+0	1.074034E+0	1.064038E+0	1.061515E+0	1.048247E+0	1.069972E+0	1.085412E+0	1.095747E+0	1.096901E+0	1.037087E+0	1.066059E+0	1.042458E+0	1.067451E+0	1.056682E+0	1.065210E+0	1.082970E+0	1.087272E+0	1.059289E+0	1.070831E+0	1.064718E+0	1.093591E+0	1.102002E+0	1.066766E+0	1.071491E+0	1.016249E+0	1.059859E+0	1.075454E+0	1.068016E+0	1.091361E+0	1.059036E+0	1.043822E+0	1.086858E+0	1.074255E+0	1.111171E+0	1.071456E+0	1.060999E+0	1.074858E+0	1.073098E+0	1.049540E+0	1.092602E+0	1.047997E+0	1.144388E+0	1.063638E+0	1.073750E+0	1.036438E+0	1.095547E+0	1.077215E+0	1.061190E+0	1.074764E+0	1.127106E+0	1.127184E+0	1.065936E+0	1.099940E+0	1.060423E+0	1.082000E+0	1.061448E+0	1.103399E+0	1.083415E+0	1.060256E+0	1.096350E+0	1.102493E+0	1.031936E+0	1.050377E+0	1.138871E+0	1.113984E+0	1.068011E+0	1.093097E+0	1.090083E+0	1.097703E+0	1.079200E+0	1.092820E+0	1.088005E+0	1.057880E+0	1.069505E+0	1.122722E+0	1.074118E+0	1.067322E+0	1.083263E+0	1.179504E+0	1.090091E+0	1.030235E+0	1.046375E+0	1.030711E+0	1.076225E+0	1.020645E+0	1.068260E+0	1.090503E+0	1.126063E+0	1.022720E+0	1.016809E+0	1.100923E+0	1.177961E+0	1.065736E+0	1.097329E+0	1.020999E+0	1.155021E+0	1.050208E+0	1.027263E+0	1.082898E+0	1.072577E+0	1.098961E+0	1.067527E+0	1.087073E+0	1.123037E+0	1.072011E+0	1.102659E+0	1.021860E+0	1.107094E+0	1.080651E+0	1.057478E+0	1.039527E+0	1.089648E+0	1.054183E+0	1.019593E+0
2.970020E+2	1.028158E+0	9.740146E-1	1.049665E+0	1.013960E+0	1.018186E+0	9.810864E-1	9.989728E-1	1.006183E+0	9.917123E-1	9.916424E-1	1.017074E+0	1.001835E+0	1.019860E+0	1.058866E+0	1.012796E+0	1.000031E+0	1.047011E+0	1.021618E+0	1.036518E+0	1.040687E+0	1.052417E+0	9.949844E-1	1.067272E+0	1.053188E+0	1.052302E+0	1.046401E+0	1.005828E+0	9.742001E-1	1.015551E+0	1.027563E+0	1.014127E+0	1.048042E+0	1.010139E+0	1.007558E+0	1.035241E+0	1.010054E+0	9.956632E-1	1.047881E+0	1.023851E+0	1.046235E+0	1.014078E+0	1.044582E+0	1.022981E+0	1.041422E+0	1.024129E+0	1.035090E+0	9.914277E-1	1.014070E+0	1.014100E+0	1.042514E+0	1.023102E+0	1.045395E+0	1.015989E+0	1.003404E+0	1.074949E+0	9.919867E-1	1.031328E+0	1.026878E+0	1.043573E+0	1.033562E+0	1.038244E+0	1.059456E+0	1.060393E+0	1.014820E+0	1.003453E+0	1.005078E+0	1.000076E+0	1.055409E+0	9.969013E-1	1.001182E+0	1.064066E+0	1.045535E+0	1.034222E+0	1.033805E+0	1.046059E+0	1.033317E+0	1.045969E+0	1.048277E+0	1.027966E+0	1.047809E+0	1.014926E+0	1.024354E+0	9.903407E-1	1.031410E+0	1.014172E+0	1.039970E+0	9.701904E-1	1.081195E+0	1.050386E+0	1.063724E+0	9.984446E-1	1.042927E+0	1.022281E+0	1.022724E+0	1.013706E+0	1.012770E+0	9.706659E-1	1.036645E+0	1.036542E+0	1.037937E+0	1.038795E+0	1.078771E+0	1.003933E+0	1.020643E+0	1.067666E+0	1.005249E+0	1.055392E+0	1.024611E+0	1.009009E+0	1.071203E+0	1.075314E+0	1.011706E+0	1.047318E+0	1.041772E+0	1.070041E+0	1.071817E+0	1.024569E+0	9.723044E-1	1.008418E+0	9.894777E-1	1.026306E+0	1.025960E+0	1.015057E+0	1.009972E+0	1.039953E+0	1.051962E+0	9.518998E-1	1.088192E+0	9.781645E-1	1.022843E+0	1.027434E+0	1.036852E+0	1.024607E+0	1.047768E+0	1.042330E+0	1.001308E+0	1.025930E+0	9.935461E-1	9.967012E-1	1.032900E+0	1.059949E+0	9.978703E-1	1.039774E+0	1.032373E+0	9.917202E-1	9.761237E-1	1.035963E+0	1.027070E+0	9.831651E-1	1.041962E+0	1.023804E+0	1.048781E+0	9.911359E-1	1.037111E+0	1.026080E+0	1.047999E+0	1.035159E+0	1.039338E+0	1.005033E+0	9.979525E-1	1.051708E+0	9.953860E-1	9.925951E-1	1.030324E+0	1.090447E+0	9.709809E-1	1.015510E+0	1.019151E+0	1.065202E+0	1.103105E+0	1.040883E+0
2.975010E+2	9.517153E-1	1.002693E+0	9.975604E-1	9.624621E-1	1.004835E+0	9.553732E-1	1.005614E+0	9.947127E-1	9.268902E-1	9.498590E-1	9.954449E-1	9.967779E-1	1.008888E+0	9.577517E-1	9.721909E-1	9.859760E-1	9.844503E-1	1.008765E+0	9.625139E-1	9.430141E-1	9.989942E-1	9.746282E-1	1.019472E+0	1.032105E+0	9.628122E-1	1.012352E+0	9.269091E-1	9.385757E-1	1.013775E+0	9.872389E-1	9.822359E-1	9.950793E-1	9.789225E-1	9.925670E-1	9.838328E-1	9.550079E-1	9.775148E-1	1.007847E+0	9.481958E-1	9.815676E-1	9.796584E-1	9.585464E-1	9.611881E-1	9.868647E-1	9.915647E-1	9.891603E-1	1.017352E+0	1.004856E+0	9.958028E-1	9.802223E-1	9.794869E-1	9.801183E-1	9.588889E-1	9.913541E-1	9.997015E-1	9.534962E-1	9.977864E-1	1.007379E+0	9.875658E-1	9.386862E-1	9.789088E-1	9.521888E-1	9.952573E-1	9.323542E-1	9.636804E-1	9.792141E-1	9.722678E-1	9.627775E-1	9.491199E-1	1.004244E+0	9.974332E-1	9.642121E-1	9.931386E-1	9.978446E-1	1.007705E+0	9.908140E-1	9.839037E-1	1.017321E+0	1.009819E+0	1.006682E+0	9.794365E-1	9.450804E-1	9.203062E-1	9.554696E-1	1.006958E+0	9.738680E-1	9.360114E-1	1.000666E+0	1.022250E+0	9.488001E-1	9.681641E-1	9.685125E-1	9.963204E-1	1.013186E+0	9.749663E-1	9.301565E-1	9.414098E-1	1.010538E+0	9.891453E-1	9.276226E-1	1.004938E+0	9.914698E-1	9.519245E-1	9.912049E-1	9.964132E-1	9.865282E-1	9.877268E-1	9.801135E-1	9.776442E-1	1.057669E+0	1.005751E+0	9.677984E-1	1.003525E+0	9.604271E-1	9.831160E-1	9.912224E-1	9.718021E-1	9.584895E-1	9.482707E-1	9.573759E-1	9.557926E-1	9.758123E-1	9.831515E-1	9.584658E-1	9.954875E-1	9.826977E-1	9.869033E-1	1.002898E+0	9.645766E-1	9.851070E-1	1.021646E+0	9.800130E-1	9.796712E-1	9.792345E-1	9.735986E-1	9.843936E-1	9.816684E-1	9.701262E-1	9.685880E-1	9.607108E-1	9.524361E-1	9.639469E-1	9.478440E-1	9.826758E-1	1.019465E+0	9.813495E-1	9.554800E-1	9.772747E-1	9.951667E-1	9.857386E-1	9.723756E-1	9.395325E-1	9.768111E-1	1.006735E+0	9.604668E-1	1.002489E+0	9.609919E-1	9.769891E-1	9.740263E-1	9.451467E-1	9.456166E-1	9.491812E-1	9.975397E-1	9.780029E-1	1.033453E+0	9.751514E-1	9.161631E-1	9.786347E-1	9.130250E-1	9.073953E-1	9.080044E-1
2.980020E+2	8.801911E-1	8.992470E-1	9.166500E-1	9.177328E-1	9.126598E-1	9.398717E-1	9.269042E-1	9.414016E-1	9.163934E-1	9.076738E-1	9.514583E-1	9.383561E-1	9.190713E-1	9.431111E-1	9.222074E-1	8.969067E-1	9.289059E-1	9.253600E-1	9.328332E-1	9.217034E-1	9.006025E-1	9.051531E-1	8.900641E-1	9.039560E-1	8.773111E-1	8.901462E-1	9.497456E-1	9.224363E-1	9.132585E-1	9.134060E-1	9.555056E-1	9.319959E-1	9.210601E-1	9.250602E-1	9.223957E-1	9.232906E-1	9.659199E-1	9.159298E-1	9.166837E-1	8.950411E-1	9.097546E-1	9.619493E-1	9.375685E-1	9.112499E-1	9.089874E-1	9.144241E-1	8.945657E-1	9.187139E-1	8.887838E-1	9.100629E-1	9.606479E-1	9.775897E-1	9.131582E-1	9.287411E-1	9.246785E-1	9.488936E-1	9.358041E-1	9.015809E-1	9.600035E-1	9.238756E-1	9.552156E-1	9.066610E-1	9.225831E-1	9.306017E-1	9.536528E-1	9.298898E-1	9.266001E-1	9.136306E-1	9.424677E-1	9.036881E-1	9.214025E-1	9.389781E-1	9.234262E-1	9.262580E-1	9.360587E-1	8.929188E-1	9.293147E-1	8.970774E-1	9.368478E-1	9.400727E-1	9.557080E-1	9.219443E-1	8.927120E-1	9.626792E-1	9.094949E-1	9.321630E-1	9.314016E-1	9.248883E-1	9.403286E-1	8.972739E-1	9.086017E-1	9.354843E-1	9.219947E-1	9.591436E-1	9.220714E-1	8.822491E-1	9.370466E-1	9.177495E-1	9.021539E-1	9.746790E-1	9.366617E-1	8.972361E-1	9.314444E-1	9.091412E-1	9.087245E-1	9.367943E-1	9.507531E-1	9.264478E-1	9.276408E-1	9.625436E-1	9.542586E-1	9.052115E-1	8.756241E-1	9.460866E-1	9.160061E-1	9.429269E-1	9.356750E-1	9.316630E-1	9.118979E-1	9.115718E-1	9.182512E-1	8.839572E-1	9.332990E-1	9.069015E-1	9.138189E-1	9.345997E-1	9.180843E-1	9.254707E-1	9.616139E-1	9.101212E-1	8.868710E-1	8.994459E-1	9.104714E-1	9.292249E-1	9.496363E-1	9.190841E-1	9.520384E-1	8.981767E-1	9.116475E-1	9.179205E-1	8.937435E-1	9.553850E-1	9.428363E-1	9.361213E-1	9.527761E-1	9.335483E-1	9.209736E-1	9.326681E-1	9.083839E-1	9.064162E-1	9.282063E-1	9.273999E-1	9.185834E-1	9.306306E-1	9.468116E-1	9.097530E-1	9.552340E-1	9.411925E-1	9.453358E-1	8.945784E-1	8.828572E-1	9.052490E-1	8.898525E-1	9.355387E-1	9.038655E-1	9.351941E-1	1.005859E+0	9.128867E-1	9.240151E-1	9.409809E-1	9.871159E-1
2.985010E+2	9.694819E-1	9.871324E-1	9.588068E-1	9.520682E-1	9.716070E-1	9.691278E-1	9.322340E-1	9.056754E-1	9.374262E-1	9.814997E-1	9.501802E-1	9.797853E-1	9.743849E-1	9.340956E-1	9.622638E-1	9.835581E-1	9.500718E-1	9.434884E-1	9.229915E-1	9.206965E-1	1.011400E+0	9.454932E-1	9.703470E-1	9.865099E-1	9.659271E-1	9.501834E-1	9.416542E-1	9.027052E-1	9.827206E-1	9.299594E-1	9.408306E-1	9.540424E-1	9.766705E-1	9.252011E-1	9.866696E-1	9.696279E-1	9.613380E-1	9.244520E-1	9.508073E-1	9.641689E-1	9.730956E-1	9.369884E-1	9.715428E-1	9.418264E-1	9.502031E-1	9.699332E-1	9.594907E-1	9.440650E-1	9.521174E-1	1.003904E+0	9.397532E-1	9.090827E-1	9.607800E-1	9.554057E-1	9.531260E-1	9.470361E-1	9.719707E-1	9.690578E-1	9.665353E-1	9.810238E-1	9.684979E-1	9.368803E-1	9.360967E-1	9.676706E-1	9.418138E-1	9.623634E-1	9.664749E-1	9.231499E-1	9.620106E-1	9.510765E-1	9.520958E-1	9.446600E-1	9.499219E-1	9.696412E-1	9.437722E-1	9.673030E-1	9.501841E-1	9.573252E-1	9.468851E-1	9.414558E-1	9.540690E-1	9.473787E-1	9.427743E-1	9.378832E-1	9.479292E-1	9.076896E-1	9.740055E-1	9.609062E-1	9.545203E-1	1.026764E+0	9.604608E-1	9.369628E-1	9.466948E-1	9.286006E-1	9.591821E-1	9.679701E-1	9.361304E-1	9.657862E-1	9.699122E-1	9.709187E-1	9.762733E-1	9.709181E-1	9.586937E-1	9.672185E-1	9.343787E-1	9.218915E-1	9.370384E-1	9.420586E-1	9.658838E-1	9.314450E-1	9.360810E-1	9.193375E-1	9.237207E-1	9.314140E-1	9.428626E-1	9.343952E-1	9.748143E-1	9.654457E-1	9.413413E-1	1.005181E+0	9.549351E-1	9.477762E-1	9.762585E-1	9.587105E-1	9.520177E-1	9.837563E-1	9.762057E-1	9.564214E-1	9.655422E-1	9.797200E-1	9.899216E-1	9.678230E-1	9.789188E-1	9.535973E-1	9.455415E-1	9.439338E-1	9.244663E-1	9.724133E-1	9.588281E-1	9.807353E-1	9.840819E-1	9.683674E-1	9.489907E-1	9.413055E-1	9.595073E-1	9.580805E-1	9.081164E-1	9.660030E-1	9.653064E-1	9.306681E-1	9.422549E-1	9.492415E-1	9.676643E-1	9.403019E-1	9.737830E-1	9.760560E-1	9.787073E-1	9.442409E-1	9.431400E-1	9.371377E-1	1.006603E+0	9.531692E-1	9.854687E-1	9.577538E-1	9.960822E-1	9.312413E-1	9.219799E-1	9.364359E-1	9.106827E-1	1.002964E+0	9.316149E-1
2.990020E+2	1.071597E+0	1.014585E+0	1.065373E+0	1.058672E+0	1.026437E+0	1.074546E+0	1.051269E+0	1.072122E+0	1.079254E+0	1.019568E+0	1.048633E+0	9.997706E-1	1.029565E+0	1.037903E+0	1.046539E+0	1.035997E+0	1.029450E+0	1.051603E+0	1.041677E+0	1.047848E+0	1.036469E+0	1.050445E+0	1.096450E+0	1.020397E+0	1.057457E+0	1.016430E+0	1.040500E+0	1.079821E+0	1.035448E+0	1.078297E+0	1.025199E+0	1.019887E+0	1.049965E+0	1.076561E+0	1.015899E+0	1.041456E+0	1.014983E+0	1.031066E+0	1.065298E+0	1.038542E+0	1.056999E+0	1.022831E+0	1.048373E+0	1.044040E+0	1.032867E+0	1.050606E+0	1.056126E+0	1.070331E+0	1.036525E+0	1.051951E+0	1.028676E+0	1.030408E+0	1.077596E+0	1.016339E+0	1.027686E+0	1.014076E+0	1.036603E+0	1.052002E+0	1.001214E+0	1.018102E+0	1.008032E+0	1.046404E+0	1.033001E+0	1.032937E+0	1.047240E+0	1.018794E+0	1.042651E+0	1.033902E+0	1.041915E+0	1.054522E+0	1.049958E+0	1.028418E+0	1.029129E+0	1.049128E+0	1.018539E+0	1.057799E+0	1.048325E+0	1.003505E+0	1.054808E+0	1.038147E+0	1.004060E+0	1.039742E+0	1.064740E+0	1.090325E+0	1.062131E+0	1.029458E+0	1.033162E+0	1.048005E+0	9.915162E-1	1.054593E+0	1.039029E+0	1.039249E+0	1.005603E+0	1.041268E+0	1.016351E+0	1.023761E+0	1.045480E+0	1.020113E+0	1.057573E+0	9.870571E-1	1.002321E+0	1.032156E+0	1.066280E+0	1.062339E+0	1.079943E+0	1.045428E+0	1.046927E+0	1.018097E+0	1.023653E+0	1.024361E+0	1.055828E+0	1.063811E+0	1.069566E+0	1.029330E+0	1.034757E+0	1.020668E+0	1.006730E+0	1.024042E+0	1.014392E+0	1.027237E+0	1.044555E+0	1.000057E+0	1.030784E+0	1.054917E+0	1.041326E+0	1.001280E+0	1.043714E+0	1.048772E+0	1.054857E+0	1.040755E+0	1.034426E+0	1.066023E+0	1.052170E+0	1.046987E+0	1.004247E+0	1.038040E+0	1.064849E+0	1.043406E+0	1.020112E+0	1.043044E+0	1.033279E+0	1.012318E+0	1.020408E+0	1.027087E+0	1.023364E+0	1.020897E+0	1.029787E+0	1.010852E+0	1.047740E+0	1.066827E+0	1.046630E+0	1.030645E+0	1.052782E+0	1.051536E+0	1.030518E+0	1.012840E+0	1.037675E+0	1.026444E+0	1.030451E+0	1.050199E+0	1.014984E+0	1.064612E+0	1.037943E+0	1.014466E+0	1.038293E+0	1.017795E+0	1.022193E+0	1.082040E+0	1.053861E+0	1.077602E+0	1.079533E+0
2.995060E+2	1.024140E+0	1.041837E+0	1.054026E+0	1.082925E+0	1.064921E+0	9.701036E-1	1.031742E+0	1.054940E+0	1.047882E+0	1.072509E+0	1.044639E+0	1.050365E+0	1.057832E+0	1.067568E+0	1.054206E+0	1.039580E+0	1.078384E+0	1.067596E+0	1.038788E+0	1.094622E+0	1.049167E+0	1.051138E+0	1.013172E+0	1.047956E+0	1.089833E+0	1.062150E+0	1.031215E+0	1.048858E+0	1.036044E+0	1.059003E+0	1.054165E+0	1.049154E+0	1.041810E+0	1.063875E+0	1.027593E+0	1.037929E+0	1.033095E+0	1.081762E+0	1.029938E+0	1.062745E+0	1.047989E+0	1.040158E+0	1.020068E+0	1.103424E+0	1.079876E+0	1.035723E+0	1.041152E+0	1.031342E+0	1.084081E+0	1.034757E+0	1.058681E+0	1.052211E+0	1.016527E+0	1.081826E+0	1.103609E+0	1.029665E+0	1.048885E+0	1.044760E+0	1.031706E+0	1.033053E+0	1.045557E+0	1.086105E+0	1.061997E+0	1.070602E+0	1.054817E+0	1.087938E+0	1.069943E+0	1.091762E+0	1.051406E+0	1.079932E+0	1.050249E+0	1.046815E+0	1.073199E+0	1.020365E+0	1.074822E+0	1.078688E+0	1.054298E+0	1.106612E+0	1.019965E+0	1.080854E+0	1.054205E+0	1.059519E+0	1.040177E+0	1.000929E+0	1.055082E+0	1.077565E+0	1.025974E+0	1.059051E+0	1.079714E+0	1.015451E+0	1.083463E+0	1.062582E+0	1.078944E+0	1.062632E+0	1.070682E+0	1.062754E+0	1.054320E+0	1.053101E+0	1.063247E+0	1.067220E+0	1.032779E+0	1.052614E+0	1.030508E+0	1.048342E+0	1.004711E+0	1.067115E+0	1.059219E+0	1.081080E+0	1.087888E+0	1.045294E+0	1.038125E+0	1.056607E+0	1.076780E+0	1.048576E+0	1.073585E+0	1.055371E+0	1.069927E+0	1.036958E+0	1.064425E+0	1.067321E+0	1.057951E+0	1.120790E+0	1.058759E+0	1.056859E+0	1.075957E+0	1.041385E+0	1.019400E+0	1.041925E+0	1.007741E+0	1.033793E+0	1.054369E+0	1.031917E+0	1.038678E+0	1.062319E+0	1.058953E+0	1.090918E+0	1.011554E+0	1.043834E+0	1.061876E+0	1.037147E+0	1.039524E+0	1.026601E+0	1.058611E+0	1.059364E+0	1.062453E+0	1.052817E+0	1.081920E+0	1.052541E+0	1.019167E+0	1.071802E+0	1.096258E+0	1.057103E+0	1.044118E+0	1.042155E+0	1.030404E+0	1.084796E+0	1.019443E+0	1.047765E+0	1.066018E+0	1.086242E+0	1.070275E+0	1.015772E+0	1.060726E+0	1.040497E+0	1.040993E+0	1.052416E+0	1.015877E+0	1.046564E+0	1.077214E+0	1.037855E+0	1.030091E+0
3.000060E+2	1.054590E+0	1.057198E+0	1.005144E+0	9.886023E-1	1.024375E+0	1.046351E+0	1.057851E+0	1.025861E+0	1.019045E+0	1.018749E+0	1.005090E+0	1.031723E+0	1.019147E+0	1.017322E+0	1.014784E+0	1.043958E+0	1.013188E+0	1.011953E+0	1.063711E+0	1.015130E+0	1.002362E+0	1.047771E+0	1.029968E+0	1.041181E+0	1.009471E+0	1.081090E+0	1.036885E+0	1.046180E+0	1.032530E+0	1.019334E+0	1.024299E+0	1.044921E+0	1.010494E+0	1.009302E+0	1.047442E+0	1.027697E+0	1.024664E+0	1.046790E+0	1.037273E+0	1.039503E+0	1.012162E+0	1.038073E+0	1.022448E+0	9.994594E-1	1.028066E+0	1.029314E+0	1.048666E+0	1.035548E+0	1.038493E+0	9.993248E-1	1.012241E+0	1.030709E+0	1.031939E+0	1.017688E+0	9.909010E-1	1.060329E+0	1.006737E+0	1.032600E+0	1.040541E+0	1.043946E+0	1.022698E+0	1.023949E+0	1.046323E+0	9.981895E-1	1.002477E+0	1.001014E+0	9.943309E-1	1.037555E+0	1.002201E+0	1.010782E+0	1.026294E+0	1.041129E+0	1.024324E+0	1.034608E+0	1.026808E+0	1.003291E+0	1.017878E+0	1.035480E+0	1.041494E+0	9.994708E-1	1.031958E+0	1.031416E+0	1.059597E+0	1.008184E+0	1.025364E+0	1.053124E+0	1.035457E+0	1.007149E+0	1.033921E+0	1.005918E+0	1.008446E+0	1.025722E+0	1.046763E+0	1.008356E+0	1.031713E+0	1.063266E+0	1.027023E+0	1.043250E+0	1.007114E+0	1.000126E+0	1.051965E+0	1.047076E+0	1.013074E+0	1.012959E+0	1.072243E+0	1.028771E+0	1.006063E+0	1.032317E+0	9.949349E-1	1.036357E+0	1.015708E+0	1.055033E+0	1.054309E+0	1.044594E+0	1.032790E+0	1.046638E+0	1.012853E+0	1.041891E+0	1.067943E+0	9.886893E-1	1.024309E+0	1.047420E+0	1.000900E+0	1.022612E+0	1.016880E+0	1.038980E+0	1.042595E+0	1.027411E+0	1.010246E+0	1.035611E+0	1.034412E+0	1.034791E+0	1.019763E+0	1.007872E+0	1.041623E+0	1.008024E+0	1.047092E+0	1.042170E+0	1.047537E+0	1.021153E+0	1.049371E+0	1.037329E+0	1.029154E+0	1.036123E+0	1.001899E+0	1.034657E+0	1.059203E+0	1.037935E+0	1.059403E+0	1.024287E+0	9.866505E-1	1.035611E+0	1.016852E+0	1.035376E+0	1.018483E+0	1.016555E+0	1.008941E+0	1.040357E+0	1.015055E+0	1.031843E+0	1.025281E+0	1.061197E+0	1.026009E+0	1.051744E+0	1.020767E+0	1.063354E+0	1.034091E+0	1.022073E+0	1.034228E+0	9.405976E-1	9.716448E-1
