Photon Energy (eV)	#1	#2	#3	#4	#5	#6	#7	#8	#9	#10	#11	#12	#13	#14	#15	#16	#17	#18	#19	#20	#21	#22	#23	#24	#25	#26	#27	#28	#29	#30	#31	#32	#33	#34	#35	#36	#37	#38	#39	#40	#41	#42	#43	#44	#45	#46	#47	#48	#49	#50	#51	#52	#53	#54	#55	#56	#57	#58	#59	#60	#61	#62	#63	#64	#65	#66	#67	#68	#69	#70	#71	#72	#73	#74	#75	#76	#77	#78	#79	#80	#81	#82	#83	#84	#85	#86	#87	#88	#89	#90	#91	#92	#93	#94	#95	#96	#97	#98	#99	#100	#101	#102	#103	#104	#105	#106	#107	#108	#109	#110	#111	#112	#113	#114	#115	#116	#117	#118	#119	#120	#121	#122	#123	#124	#125	#126	#127	#128	#129	#130	#131	#132	#133	#134	#135	#136	#137	#138	#139	#140	#141	#142	#143	#144	#145	#146	#147	#148	#149	#150	#151	#152	#153	#154	#155	#156	#157	#158	#159	#160	#161	#162	#163	#164	#165	#166	
2.790040E+2	-7.795446E-3	3.600573E-3	-4.751298E-3	-7.538559E-3	-1.019335E-2	4.847927E-3	1.964550E-3	-3.965382E-3	3.471993E-3	-1.827151E-3	-5.831572E-3	1.201271E-3	-4.544605E-3	7.532986E-3	-5.273896E-3	-1.252063E-2	-4.962198E-3	-1.850917E-2	-3.717289E-4	-8.889160E-3	-9.977335E-3	-4.820952E-5	-9.761990E-3	-4.396837E-3	-1.890717E-3	-1.184028E-2	-1.003065E-2	-4.704001E-3	-9.891327E-3	-8.272994E-3	-5.282227E-3	-9.105899E-3	-9.079433E-3	-1.171163E-2	-9.677454E-3	-1.437998E-2	-4.997431E-3	5.782669E-5	5.186499E-3	-1.076189E-2	-5.069691E-3	-5.144035E-3	-1.014365E-2	3.087471E-3	-3.791746E-3	-9.485942E-3	-6.512685E-3	-5.686568E-3	-7.316851E-3	-4.271695E-3	-7.495545E-3	-5.250364E-4	7.780734E-5	-6.828667E-4	2.407063E-4	-8.757293E-3	-8.211770E-3	-2.675603E-3	-6.479802E-3	-1.078345E-2	4.572539E-3	-6.895842E-4	-7.778227E-3	-7.184749E-3	-9.887061E-3	-1.010851E-2	-5.281463E-3	-1.411932E-2	6.612870E-3	-3.725758E-3	-3.132449E-3	-9.544846E-3	-8.652059E-3	-1.024668E-2	-3.037827E-3	-8.112047E-3	-4.766936E-3	-3.912921E-3	-1.079410E-3	-1.041495E-2	-4.643381E-3	-1.052118E-2	-6.720769E-3	-1.100685E-2	-4.606506E-3	-1.232766E-2	-7.266951E-3	-1.548618E-2	5.455673E-3	-8.150146E-3	-4.808690E-3	-6.871622E-3	-7.096527E-3	2.535637E-3	-1.124457E-3	-5.578821E-3	-2.479294E-3	8.051980E-3	-5.291703E-3	-5.601995E-3	-1.490700E-3	1.700985E-3	-6.087582E-3	-2.471186E-3	-1.014799E-2	-8.592551E-3	5.414882E-4	2.664827E-3	-5.619533E-3	-7.202498E-3	-1.084764E-2	-6.050017E-3	-6.923975E-4	-1.083934E-2	-7.814748E-3	-1.548416E-2	-5.707780E-3	-4.472387E-3	-2.036687E-3	-4.987050E-4	-3.259016E-3	-6.216906E-3	1.663079E-3	-5.211698E-4	-4.783541E-3	-5.205418E-4	-1.204063E-2	-1.697595E-3	-8.215736E-3	2.585787E-3	-7.662774E-3	-2.947341E-3	-2.032181E-3	-6.884450E-3	1.423085E-3	1.689237E-4	9.106030E-3	5.944922E-4	-1.792787E-2	-1.569571E-2	-3.605472E-3	-1.270627E-3	-9.867861E-3	-1.528355E-2	-1.242701E-2	-7.264461E-4	-3.514328E-3	-1.661043E-3	-3.882624E-3	-2.746009E-3	-6.991036E-3	-6.430815E-3	-1.478809E-2	-1.228918E-2	-1.989426E-3	-3.068063E-3	-9.516387E-3	-1.631371E-2	-9.072114E-3	-7.670583E-3	-9.347629E-3	-3.305791E-3	-1.124420E-2	2.984083E-3	-8.823168E-3	1.466791E-3
2.795040E+2	-1.064895E-2	-1.679351E-3	-7.188583E-3	1.804575E-3	-1.187813E-2	-5.808410E-3	-6.076380E-3	-1.179203E-2	-4.370822E-3	-1.091112E-2	-2.618943E-3	-1.589276E-3	-6.793876E-3	-4.829903E-3	-2.854633E-3	-1.583822E-3	-3.167602E-3	3.758701E-3	2.958795E-4	-4.032108E-3	-7.625893E-3	-4.552836E-3	-1.165694E-3	-4.944332E-3	-6.535989E-3	-8.057790E-4	-7.282885E-3	-1.634283E-2	7.944475E-3	-1.021044E-2	-8.206381E-3	-4.801989E-3	-8.545144E-4	7.035980E-3	1.267969E-2	-4.503445E-4	-3.290965E-3	-1.566681E-2	1.610922E-4	3.521984E-3	-4.052585E-3	-6.659640E-3	-8.320918E-3	-2.689565E-3	-3.638025E-3	-1.403480E-3	2.190191E-3	-6.329766E-3	2.693973E-3	-1.189028E-2	-8.141703E-4	3.056487E-3	-1.213913E-2	-1.277663E-3	-3.737618E-3	-6.299356E-3	-5.590470E-3	-4.968481E-3	2.074495E-3	-4.358851E-3	-9.150595E-3	-4.581263E-3	-6.091213E-3	2.525155E-3	7.335069E-3	-1.005640E-2	2.304518E-3	-1.758163E-3	6.695944E-3	-5.209150E-3	-3.852367E-3	6.665688E-3	-3.579739E-3	-6.476125E-4	1.651228E-3	6.609240E-4	1.002562E-2	-5.084151E-4	-1.875531E-3	-9.473111E-4	-8.628507E-3	1.071232E-3	-2.607481E-3	-2.003517E-3	2.186335E-4	-7.926281E-3	2.908476E-3	-1.696475E-4	-2.489971E-3	3.061914E-3	1.324156E-3	2.507096E-3	6.050068E-3	-5.393118E-3	-4.235434E-3	-4.681672E-3	-5.025273E-3	2.731838E-3	-2.573632E-3	-8.327056E-3	1.027771E-3	1.829639E-3	-2.655108E-3	7.575118E-3	-1.821146E-4	-4.944981E-3	2.546335E-3	-7.668891E-3	3.961853E-3	-1.233342E-3	-9.135471E-3	-5.185957E-3	-2.243161E-3	5.996292E-3	9.039846E-3	4.935959E-4	-1.101756E-2	-4.815712E-4	-7.312150E-3	-4.281240E-3	3.248263E-4	3.563639E-4	-1.234954E-2	-5.507939E-3	-7.125547E-3	1.969247E-3	-1.240800E-3	-9.232667E-3	-3.227873E-3	-7.255812E-3	6.340046E-3	1.370825E-3	-4.985029E-3	-1.103002E-2	-1.878355E-2	-6.155657E-3	-1.173254E-2	-1.275332E-2	-1.451509E-4	-6.206847E-3	-5.948588E-3	-5.616714E-3	-8.888139E-3	9.846146E-3	3.071428E-3	-6.334636E-3	-6.834954E-3	-4.261788E-3	-4.561035E-3	-1.052755E-2	-9.600926E-3	-1.041723E-2	1.073752E-3	-3.758903E-3	-8.920093E-3	-2.070149E-3	-9.399541E-3	-4.091195E-3	-5.420317E-3	-3.539697E-3	2.053575E-3	-6.620876E-3	-2.106004E-4	-9.627476E-3	-8.711803E-3	-8.103788E-3
2.800030E+2	1.886707E-3	-1.050370E-3	-6.559515E-3	-2.899707E-3	1.374093E-3	-3.779946E-3	4.829451E-3	-3.662647E-3	-8.399798E-5	-1.803496E-3	-2.744974E-3	-9.419883E-4	-1.387171E-3	-6.335242E-3	-5.043044E-3	-5.300529E-3	-2.486728E-3	1.130427E-3	-5.499770E-3	6.109576E-3	-5.497185E-3	-1.347698E-3	9.425004E-5	-4.104513E-3	-5.854186E-3	-3.817950E-3	-6.726704E-3	7.973607E-3	-2.975462E-3	-2.767989E-3	-4.319672E-3	-1.043266E-2	-4.236660E-3	8.425002E-3	4.830685E-3	-2.877393E-3	2.065368E-3	-1.334740E-3	-2.004090E-3	-3.561119E-4	-6.959204E-4	1.453150E-3	-1.242702E-3	-9.354600E-3	-2.926153E-3	-2.284451E-3	-3.780668E-3	-6.333865E-3	-3.163007E-3	7.743495E-3	3.245972E-3	2.076254E-3	-6.080339E-3	2.279596E-3	-2.612538E-3	1.449424E-3	3.401878E-3	-1.817267E-3	-4.639375E-3	-8.558703E-4	-9.274509E-3	8.116361E-5	-3.413043E-3	3.797192E-3	-6.070456E-4	3.346933E-3	-3.802299E-4	2.996661E-3	-1.617299E-2	-6.905288E-3	-2.353134E-3	-1.582905E-3	-1.282918E-2	1.038714E-2	-1.127144E-2	1.376322E-3	2.896368E-3	-7.316866E-3	1.580076E-3	4.358145E-3	1.076515E-2	4.146680E-3	-1.881105E-2	-2.950804E-3	-3.847001E-3	3.392489E-3	1.072979E-3	2.090601E-3	-4.466155E-3	-4.398832E-5	-3.940633E-3	-3.540394E-3	-3.059126E-3	3.250127E-3	2.923365E-3	-4.815313E-3	-2.524272E-3	-7.301577E-3	-2.011909E-4	-4.776497E-3	-3.948888E-3	4.070556E-3	3.868268E-3	8.077622E-4	2.155577E-3	3.716937E-3	8.042971E-3	3.506773E-3	-7.207630E-3	-4.712879E-3	-1.006025E-2	1.271937E-2	-1.550279E-3	-9.191750E-3	-1.312257E-2	-7.155192E-3	4.531517E-4	-7.566225E-3	7.777425E-3	-2.071311E-3	-7.576125E-3	-2.224090E-3	-2.125723E-3	3.064635E-4	-4.805413E-3	-4.458293E-3	4.017886E-4	1.360444E-3	6.366274E-3	-1.581578E-3	2.290068E-4	-6.319646E-3	-5.042398E-4	-1.920817E-3	4.153620E-3	9.599766E-4	-5.151716E-3	7.313036E-3	-2.155267E-3	2.210131E-4	-3.620411E-3	-6.485655E-3	1.470387E-3	-8.602702E-3	-4.358843E-3	-7.396198E-4	-6.101167E-3	-1.553253E-3	-7.968442E-4	8.010830E-3	-4.330827E-3	7.835034E-3	-6.416803E-4	-6.173289E-3	5.879480E-3	2.971844E-3	-1.032031E-2	-3.450829E-3	8.548663E-3	-2.847210E-3	-5.177516E-4	1.798780E-3	2.903591E-3	1.674607E-3	6.218671E-3	-4.995940E-3
2.805050E+2	-5.082630E-5	-2.552942E-3	-3.910773E-4	1.255141E-2	-3.756438E-4	-4.453967E-3	-6.839739E-3	-1.971758E-3	-4.631367E-5	-9.989020E-4	-4.658626E-3	2.252637E-3	6.596592E-3	-7.690004E-3	-1.946950E-4	-9.554348E-4	-1.613701E-3	-6.204312E-3	-3.137998E-3	2.231838E-3	2.755156E-3	-1.955729E-3	6.249265E-3	-1.514468E-2	1.340402E-3	-1.353789E-4	7.033923E-3	6.413161E-3	-6.776080E-3	4.150902E-3	-3.526454E-3	4.575623E-5	5.575424E-3	6.962142E-3	3.680055E-4	3.721559E-3	-1.013323E-3	9.101535E-5	-4.253510E-3	2.068442E-3	-5.836110E-3	6.431503E-3	4.458060E-3	-8.420580E-3	2.821987E-3	-8.586168E-3	4.875830E-3	6.914448E-3	-9.675086E-3	-8.518328E-3	-6.682937E-3	-1.176469E-3	-6.831048E-3	-1.098630E-2	-1.731013E-3	1.635453E-3	9.289795E-3	-2.547895E-3	-2.481042E-3	3.838045E-3	7.879815E-3	-1.458880E-3	7.797865E-5	6.782401E-3	-7.557613E-3	8.231666E-4	-1.075183E-3	8.848067E-3	-3.633463E-3	7.309199E-3	6.891152E-3	5.902919E-3	1.112816E-2	-1.451252E-2	-9.652202E-3	4.173130E-3	-3.301058E-3	-2.261503E-3	2.540668E-3	-2.498593E-3	-7.890953E-3	1.732183E-3	6.805967E-3	2.742980E-3	-6.683400E-4	3.471980E-3	-8.124180E-3	-2.672476E-3	-1.160162E-2	2.956108E-3	-8.183986E-3	-2.665224E-3	2.261429E-4	6.955459E-3	-2.868717E-4	3.810715E-3	-4.254157E-3	-4.583115E-3	3.222835E-3	-7.521484E-3	-1.506779E-3	-1.471352E-3	-1.024030E-2	2.504676E-3	1.368587E-3	4.634622E-3	2.414228E-3	-4.281494E-3	1.251216E-2	3.396590E-4	2.087495E-3	1.507034E-3	5.129906E-3	-1.645723E-3	9.832832E-4	-2.942403E-3	1.277601E-3	-3.661597E-3	-7.407626E-3	4.989910E-3	-9.260922E-3	5.005034E-3	3.544422E-3	4.600700E-3	9.379900E-4	-1.699947E-2	-4.013597E-3	1.213127E-2	-7.706458E-5	-4.027214E-3	-5.680777E-3	6.302399E-3	4.923025E-3	-6.827197E-3	1.065184E-2	7.469165E-3	7.566395E-4	-5.328685E-3	9.972989E-3	1.716986E-2	1.206562E-2	-7.178090E-3	5.894451E-3	3.911061E-3	6.200874E-3	-5.596371E-3	1.623011E-3	-8.144617E-3	-3.855532E-3	-4.115895E-3	5.590626E-3	-4.594654E-4	-1.373086E-3	5.374381E-3	6.814705E-3	4.744043E-3	1.108355E-2	4.180134E-3	3.310158E-3	4.052847E-4	1.950015E-3	-4.991215E-3	-9.043535E-3	3.147446E-3	6.287585E-3	7.996528E-3
2.810040E+2	2.747870E-3	-4.958181E-3	-7.393390E-3	-1.112891E-2	3.946586E-3	1.412228E-2	2.015800E-3	-4.522831E-4	-5.528387E-3	1.191687E-3	-8.362576E-4	-8.109176E-3	-1.176858E-2	5.509225E-4	3.121286E-3	-3.211290E-3	-5.891072E-3	-6.313736E-3	2.170146E-3	2.882848E-3	1.143268E-3	-2.056792E-3	4.055322E-5	-5.765068E-3	3.606909E-3	1.921242E-3	4.231894E-4	2.436603E-3	7.878335E-4	6.003213E-4	-2.902361E-3	1.324238E-3	-6.748040E-3	-3.257294E-3	-4.740683E-3	-5.590780E-4	-1.048193E-2	1.480864E-3	-9.993003E-3	2.745640E-3	2.646467E-3	-4.345201E-3	9.295488E-3	1.757552E-3	-3.810148E-3	-3.933499E-3	-8.205473E-4	-5.620904E-3	-2.422331E-3	1.023199E-2	2.347479E-3	1.270504E-3	7.865421E-4	7.913639E-4	-3.929788E-3	-1.020786E-2	-3.257068E-3	5.788962E-4	-1.793331E-3	-2.596845E-3	-4.437442E-3	3.237660E-3	-4.592293E-3	-8.005665E-3	6.315233E-3	2.479680E-3	4.676891E-3	-2.460148E-4	4.113568E-3	-5.358611E-3	-7.738999E-3	-4.608345E-3	-5.177685E-4	7.260497E-5	-7.968837E-4	-1.921611E-3	-8.738340E-3	1.827068E-3	-9.399360E-3	-1.768643E-3	1.782468E-3	1.799762E-6	7.312342E-4	-1.375333E-3	-1.535095E-3	-1.160379E-2	-7.226168E-3	-8.220386E-3	5.266190E-3	-3.741806E-3	7.317936E-3	-7.702977E-3	9.420575E-4	-1.139327E-2	-3.682355E-3	2.190281E-3	4.705705E-5	-1.082346E-3	4.496934E-4	-1.084782E-3	-7.641482E-4	-7.916387E-3	-2.861699E-3	-1.560176E-2	2.942815E-3	-7.765353E-3	-1.132935E-2	-3.382203E-3	-1.274399E-2	-2.248588E-3	-1.547413E-3	-8.006286E-4	5.853412E-3	1.598126E-3	-4.716789E-3	1.538389E-2	7.356439E-3	8.605969E-3	2.865216E-3	9.680221E-3	7.884752E-3	-7.968493E-3	-7.922143E-3	-4.748073E-3	-1.596605E-3	1.789366E-3	2.572954E-3	-1.686843E-3	-5.843720E-3	-7.425562E-3	2.101696E-3	2.005400E-3	-2.082026E-3	-1.243103E-3	-7.886315E-3	2.513377E-3	3.983936E-3	-6.165559E-3	1.479342E-3	-7.767173E-4	4.315123E-4	1.669686E-3	3.149522E-3	1.308021E-3	5.275920E-3	-7.315978E-3	5.776462E-3	-7.285850E-3	7.085019E-4	-4.918029E-3	-2.601516E-3	3.601500E-3	-1.169026E-2	6.806477E-4	-6.462592E-3	-1.378204E-3	3.843856E-3	2.990475E-4	-1.268098E-2	-5.279990E-3	1.146546E-2	8.819260E-4	3.926248E-3	7.274719E-3	-7.005573E-3	-5.031086E-3
2.815060E+2	9.716155E-3	-3.286461E-3	-1.031744E-2	4.412162E-3	5.897649E-3	-5.844509E-3	7.995343E-4	3.841427E-3	-5.373175E-3	-5.580941E-3	2.597342E-3	6.978724E-4	2.661249E-3	3.485768E-3	1.234700E-3	3.403744E-3	3.419723E-3	-3.717188E-3	-3.098953E-3	-1.030836E-2	1.401231E-2	-1.899193E-3	2.279322E-3	7.317810E-4	-1.000039E-3	-8.153384E-4	1.307965E-3	-6.065132E-3	1.843213E-4	-1.969466E-3	4.713479E-3	1.488042E-3	-2.557664E-3	-4.655197E-3	-1.123248E-2	-1.227529E-3	2.926578E-3	-1.982521E-3	-6.295017E-3	-6.570167E-3	-2.374474E-3	7.321183E-4	1.628749E-3	-1.503756E-3	4.484750E-3	-4.572313E-3	-2.736706E-3	-5.473625E-3	6.784433E-3	-7.376541E-4	-2.876042E-3	-7.077530E-3	2.484294E-3	-1.271446E-3	-3.794988E-3	1.751896E-3	-5.993229E-4	-1.719292E-3	-4.739958E-3	4.807057E-3	-2.645436E-3	-2.186689E-3	1.170574E-2	-4.140926E-3	-4.370341E-3	5.208397E-3	6.449156E-3	-6.727323E-5	3.739605E-4	8.988548E-3	7.334213E-3	-1.217472E-3	1.128286E-2	-1.482205E-3	8.565245E-3	-1.220485E-2	2.179516E-3	1.034797E-2	1.513543E-3	-2.944058E-5	3.577626E-3	-5.561101E-3	1.125448E-2	5.276219E-3	-6.099878E-3	-5.720316E-3	1.986296E-3	-4.058154E-3	5.462076E-3	3.830941E-3	3.396446E-3	5.949377E-3	-1.028240E-2	-5.387889E-3	-7.534901E-3	7.857057E-3	-1.551418E-3	-5.419937E-3	-3.250370E-3	1.299011E-2	-6.242400E-3	3.419986E-3	-8.287855E-4	1.168711E-3	-4.308022E-3	3.530189E-4	4.304624E-3	2.064958E-3	-7.809050E-4	3.781590E-3	1.621389E-2	-1.041778E-2	-8.922811E-3	-4.081165E-3	-8.663902E-4	7.327366E-3	-1.666832E-4	-9.759490E-3	-2.397277E-3	-8.741269E-4	-1.434317E-2	-4.572075E-3	-4.403686E-3	7.008784E-4	2.666490E-3	-1.160701E-3	-2.763478E-3	-3.742681E-3	-8.002738E-4	-6.108082E-4	-3.418305E-3	-6.163360E-3	-3.444591E-3	6.060069E-3	-1.273470E-3	1.407738E-3	-9.206825E-3	7.882332E-4	-5.547709E-4	-3.164593E-3	-3.477722E-3	1.313035E-2	3.918303E-4	-6.704882E-3	6.302309E-3	6.768535E-3	-2.073145E-3	1.279056E-2	8.672085E-3	2.449295E-3	-5.762640E-3	-2.028192E-3	7.387648E-3	3.937873E-3	5.390750E-3	3.114116E-3	9.014719E-4	1.993696E-3	5.743767E-3	1.251080E-2	-5.220671E-3	-4.928926E-3	4.120488E-3	1.809776E-3	8.271729E-3	-1.781245E-2
2.820030E+2	8.927648E-3	7.657039E-3	1.366673E-2	-3.626747E-3	8.741220E-3	8.081411E-4	-4.375226E-4	3.176691E-3	8.192128E-3	6.871049E-3	9.333932E-3	3.214886E-3	9.999306E-3	-1.255446E-3	1.242711E-2	2.840368E-3	3.583207E-3	9.577252E-3	4.816658E-3	3.223374E-3	-2.287382E-3	-4.185234E-4	-7.061351E-3	1.839082E-2	6.359410E-3	9.561871E-3	3.635906E-3	1.184603E-3	1.107158E-3	5.083401E-3	4.146149E-3	1.492852E-2	1.381009E-2	-9.188013E-3	4.697177E-3	4.610787E-3	6.188603E-3	3.210648E-3	3.160688E-3	-2.483475E-3	3.778980E-3	5.013180E-5	1.044368E-3	-5.294360E-4	-1.085866E-3	4.330031E-3	2.196451E-4	-4.595197E-3	2.814811E-3	-1.454528E-3	3.548930E-4	-1.040542E-4	1.044520E-2	4.810430E-3	1.488058E-2	6.630757E-3	2.895254E-3	2.477733E-3	8.329146E-4	1.498516E-2	9.801373E-3	4.403041E-3	2.699984E-3	8.671389E-3	5.161310E-3	-2.256103E-3	-4.549308E-3	-4.018914E-3	-2.556096E-3	-3.494620E-3	3.459194E-3	-1.001043E-2	-8.918184E-5	7.348810E-3	8.796998E-3	5.392452E-3	1.599875E-3	2.172678E-3	3.354721E-3	4.857630E-3	-6.892241E-3	6.212951E-3	6.668865E-3	9.530176E-3	1.458859E-2	8.135057E-3	6.007803E-3	8.197014E-3	-2.402572E-3	2.525283E-3	4.461183E-3	1.081394E-3	6.197319E-3	3.601954E-3	7.762606E-3	2.565600E-3	-1.401076E-3	-7.121653E-4	1.524222E-4	1.982612E-4	1.010238E-2	6.002703E-3	5.290243E-3	3.004863E-3	-8.813533E-4	1.383378E-2	-1.100951E-2	4.861965E-3	1.762491E-3	-1.107855E-3	7.811327E-3	6.376010E-3	-8.803164E-3	1.201309E-2	6.613086E-3	-1.767056E-3	9.337613E-3	9.043706E-3	3.097990E-3	-2.296187E-3	1.093884E-2	7.792874E-3	1.119345E-2	5.156932E-3	-4.403872E-4	1.166027E-2	9.772820E-3	2.583124E-3	5.073994E-3	1.221916E-3	7.320392E-3	-9.065069E-5	8.300900E-3	4.120960E-3	9.221853E-3	-4.007702E-3	5.270871E-3	8.515460E-3	7.209925E-4	6.600764E-3	9.105858E-3	-8.931221E-4	-2.964120E-3	5.237758E-3	-4.886662E-3	1.208578E-3	1.154556E-2	3.621083E-3	4.974138E-3	4.864368E-4	8.782366E-3	9.777352E-4	2.074396E-3	3.152773E-4	-3.870714E-3	1.761308E-3	5.100263E-3	1.058629E-2	-1.933977E-3	1.205494E-2	1.418562E-3	1.502894E-2	1.221332E-2	-3.663746E-3	8.503689E-3	-4.677091E-3
2.825040E+2	-4.783156E-3	2.269692E-3	2.293457E-2	6.425776E-3	2.487579E-3	1.084809E-4	3.744306E-3	1.482599E-2	3.738574E-3	1.305887E-2	4.759098E-3	3.273774E-3	5.237086E-3	8.540919E-3	-3.416829E-3	1.732759E-2	1.111837E-2	2.027802E-2	4.825767E-3	8.781990E-3	7.477062E-3	1.227898E-2	9.325646E-3	1.523283E-2	3.974208E-3	5.931616E-3	1.163926E-2	9.103990E-3	9.619081E-3	1.338626E-2	1.537747E-2	6.553994E-3	4.090797E-3	6.389010E-3	3.075059E-3	1.116198E-2	8.603102E-3	1.414372E-2	1.403734E-2	1.183558E-2	1.160333E-2	7.481974E-3	3.280603E-3	1.765291E-2	7.945201E-3	2.593582E-2	6.564940E-3	2.712548E-2	1.028406E-2	8.896998E-3	1.192035E-2	2.479845E-3	1.125668E-2	6.336886E-3	6.846579E-4	1.379698E-2	2.071705E-3	1.067191E-2	1.722610E-2	-5.035255E-3	3.254255E-3	1.194553E-3	7.391073E-3	-2.444796E-3	3.610449E-3	1.056283E-2	-2.144381E-3	8.364960E-3	4.566210E-3	8.395679E-3	-6.076095E-4	1.439539E-2	3.256916E-3	9.080455E-3	5.744883E-3	1.063568E-2	1.049502E-4	-3.480108E-4	3.365294E-3	6.443159E-3	1.192984E-2	2.917437E-3	2.678755E-3	-2.128713E-4	1.949601E-3	2.257851E-2	1.064175E-2	2.031923E-2	4.776376E-3	-4.383048E-4	4.335890E-4	1.124235E-2	7.022468E-3	5.831102E-3	6.178046E-3	-1.347846E-3	1.718843E-2	8.315322E-3	7.491946E-3	1.412344E-2	2.822762E-3	-7.636129E-3	1.351496E-2	3.011819E-3	9.052497E-3	-1.235475E-3	4.489208E-3	2.234066E-3	8.115557E-3	1.238391E-2	5.478063E-3	1.851973E-3	1.122849E-2	6.150472E-3	9.884286E-3	4.143959E-3	-1.532778E-3	8.291596E-3	5.413110E-3	-4.648560E-3	1.529082E-2	7.827292E-3	1.040014E-2	1.220884E-5	1.514701E-2	7.720119E-3	7.310938E-3	2.849452E-4	6.724399E-3	1.709327E-2	7.707150E-4	5.842374E-3	-1.758581E-4	1.772456E-2	2.492937E-3	-2.355822E-3	6.973606E-3	7.036348E-3	8.609730E-3	1.852227E-3	-4.950795E-3	6.644173E-3	1.081393E-2	1.028815E-2	8.219779E-4	1.273594E-2	-4.214440E-4	6.494904E-3	-1.258690E-3	1.136092E-2	1.491395E-2	6.921430E-3	1.795732E-2	1.191319E-2	3.157891E-3	-6.074896E-3	8.307099E-3	6.796568E-3	1.150480E-2	-5.633550E-3	-1.801565E-3	2.137162E-3	-2.665311E-3	-3.599409E-3	-4.741130E-3	3.115704E-2
2.830070E+2	1.353139E-2	1.380089E-2	5.900165E-3	9.843515E-3	1.214757E-2	7.019356E-4	1.486673E-2	1.478800E-2	-6.443706E-3	1.060901E-2	1.070216E-2	1.675723E-2	2.678679E-3	1.270894E-2	9.679687E-3	1.594603E-2	5.927721E-3	1.527727E-2	1.567793E-2	4.697600E-3	9.659771E-3	1.096720E-2	-3.071715E-3	7.226452E-3	-1.045084E-3	3.623132E-3	1.601927E-2	1.064654E-2	1.189013E-2	-3.316534E-3	2.300671E-2	9.359702E-3	8.048064E-3	-5.564071E-3	1.214925E-2	1.850690E-2	1.082704E-2	2.508382E-2	8.949361E-3	1.178981E-2	1.666334E-2	3.163573E-3	4.587697E-3	-3.402119E-3	2.854212E-3	6.609285E-3	2.979266E-3	1.839219E-2	4.230691E-3	1.131856E-2	1.888880E-2	1.697099E-2	4.914825E-3	1.296626E-2	1.426786E-2	3.316490E-3	-3.220510E-3	1.220247E-2	1.722945E-2	6.721377E-5	9.708358E-3	8.314834E-3	4.959481E-3	-2.630720E-3	1.060610E-2	1.038822E-2	9.733590E-3	9.953281E-3	1.714611E-2	1.306949E-2	1.655151E-2	1.682510E-2	6.428108E-3	4.517386E-3	6.486541E-3	2.024298E-2	1.713785E-2	1.555642E-2	1.581885E-2	5.534704E-3	2.505362E-2	2.121263E-2	3.332087E-3	1.109657E-2	5.742639E-3	8.870471E-3	1.290912E-2	7.239863E-3	4.617253E-3	-5.141455E-3	2.783867E-4	8.621542E-3	4.398574E-3	1.173353E-2	1.998425E-3	6.406212E-3	4.537300E-3	2.550331E-2	7.345337E-3	8.329210E-3	2.154370E-2	1.316671E-2	1.650170E-2	2.053890E-2	2.474593E-2	-2.417239E-3	1.819228E-2	7.285731E-3	1.524154E-2	7.105157E-3	2.204994E-2	1.628840E-2	4.321729E-3	2.211096E-2	1.140641E-2	1.497904E-2	2.821896E-2	2.675258E-3	7.619378E-3	1.506021E-2	5.548039E-3	2.334925E-2	1.769970E-2	9.294649E-3	9.278769E-3	1.159894E-2	1.130065E-2	1.651716E-2	8.228047E-3	6.076613E-3	1.082667E-2	3.045336E-3	1.684483E-2	5.519046E-3	-2.954026E-3	4.049255E-3	2.646801E-2	1.307131E-2	1.888894E-2	1.307883E-2	4.841037E-3	2.258246E-2	-7.229756E-4	1.702373E-2	1.215722E-2	1.098065E-2	7.425382E-3	2.358881E-2	7.201623E-3	9.897254E-3	5.646510E-3	4.187389E-3	1.073099E-2	2.202336E-2	1.248488E-2	3.498493E-2	2.212044E-4	1.254191E-3	1.996659E-2	2.428422E-2	1.602369E-2	1.583447E-2	1.052289E-2	5.663655E-3	1.889414E-2	2.506247E-3
2.835050E+2	6.622214E-3	2.457223E-2	3.252484E-2	1.004306E-2	2.629479E-2	1.817843E-2	1.606601E-2	-2.415345E-4	6.516480E-3	1.006513E-2	2.136433E-2	1.139873E-2	8.677151E-3	3.334689E-2	2.294094E-2	1.121059E-2	1.221619E-2	5.473464E-3	1.367361E-2	1.311755E-2	8.453880E-3	1.625583E-2	1.979222E-2	8.424063E-3	1.484378E-2	2.204138E-2	1.125745E-2	1.506612E-2	1.549346E-2	2.044264E-2	1.211821E-2	1.045066E-2	1.343105E-2	2.347378E-2	1.680360E-2	3.158770E-2	1.516692E-2	2.350934E-2	3.166792E-2	2.373019E-2	9.000285E-3	2.288488E-2	1.598993E-2	1.627900E-2	2.750153E-2	1.014342E-2	1.125085E-2	1.453509E-2	1.720153E-2	1.693123E-2	2.344662E-2	1.386518E-2	4.358363E-3	1.025148E-2	6.588349E-3	5.124710E-3	1.840393E-2	3.093994E-2	1.528299E-2	2.081569E-2	3.376944E-2	2.943590E-2	1.645368E-2	2.297821E-2	2.155308E-2	3.564202E-3	1.500957E-2	1.474434E-2	1.919758E-2	2.327240E-2	7.307946E-3	1.987851E-2	1.356706E-2	5.591487E-3	3.757382E-3	2.258728E-2	2.563069E-2	9.898989E-3	1.800816E-2	1.152983E-2	4.088494E-2	9.752136E-3	9.415696E-3	1.738585E-2	1.660428E-2	1.154718E-2	3.166076E-2	2.838631E-2	1.057153E-3	1.957545E-2	1.052187E-2	3.767585E-3	8.008616E-3	1.068010E-2	1.210024E-2	1.811477E-2	2.480852E-2	2.610082E-2	1.097038E-2	2.297263E-2	1.624401E-2	9.394399E-3	1.542028E-2	3.143771E-2	2.436888E-2	7.744936E-3	1.594416E-2	1.747476E-2	2.146540E-2	1.685239E-2	1.130830E-2	1.681918E-2	1.482063E-2	1.483202E-2	9.211504E-3	3.100783E-2	1.128167E-2	1.254857E-2	5.589350E-3	8.965578E-3	6.665896E-3	2.988413E-2	1.394358E-2	7.766868E-3	1.720824E-2	2.179268E-2	2.441027E-2	1.302480E-2	1.613267E-2	1.409462E-2	2.165981E-2	1.802132E-2	1.415201E-2	9.550035E-3	4.972919E-3	9.404868E-3	1.493654E-2	1.588996E-2	1.374893E-2	2.615462E-2	2.996928E-2	1.318880E-2	1.117519E-2	8.047487E-3	7.519889E-3	3.650770E-3	2.257074E-2	2.302960E-2	2.849863E-2	2.228772E-2	2.645737E-2	2.455170E-2	2.750318E-2	2.741872E-2	2.019097E-2	1.855040E-2	7.096521E-3	1.397569E-3	1.453105E-2	2.514536E-3	1.571657E-2	1.446605E-2	2.034223E-2	1.122496E-2	2.622976E-2	2.715344E-2
2.840030E+2	6.103504E-2	6.510117E-2	5.116491E-2	3.715540E-2	3.305401E-2	3.386929E-2	2.950958E-2	4.417771E-2	4.159291E-2	5.335044E-2	4.701267E-2	3.924124E-2	5.192939E-2	4.212730E-2	3.878515E-2	4.452172E-2	4.062123E-2	4.278108E-2	4.177067E-2	5.508056E-2	5.624601E-2	3.924499E-2	4.854349E-2	3.292800E-2	2.937998E-2	4.260483E-2	4.446335E-2	3.777227E-2	4.022654E-2	4.584600E-2	3.768261E-2	5.294405E-2	3.847699E-2	2.212344E-2	3.805592E-2	5.278927E-2	3.843626E-2	4.918043E-2	3.997544E-2	3.327881E-2	4.709626E-2	4.053749E-2	3.975914E-2	3.637826E-2	3.129205E-2	3.286145E-2	5.395582E-2	4.929645E-2	4.617117E-2	4.618486E-2	3.769357E-2	3.287736E-2	4.872727E-2	4.488257E-2	4.218817E-2	5.465007E-2	3.622903E-2	5.465976E-2	4.097587E-2	5.374064E-2	5.000080E-2	4.012985E-2	4.376738E-2	3.534217E-2	3.681516E-2	5.124405E-2	4.397104E-2	3.949975E-2	4.528193E-2	4.454474E-2	4.219640E-2	3.913441E-2	4.100294E-2	4.582983E-2	4.872241E-2	4.995624E-2	3.993018E-2	3.377774E-2	3.142887E-2	3.583452E-2	4.233032E-2	3.512765E-2	5.964592E-2	3.652243E-2	3.680219E-2	4.931248E-2	4.364472E-2	5.199451E-2	3.405371E-2	4.121523E-2	2.600953E-2	4.240955E-2	3.826636E-2	5.308495E-2	4.432100E-2	3.929779E-2	4.088643E-2	3.289324E-2	3.773942E-2	6.771229E-2	6.208151E-2	4.936634E-2	4.007725E-2	4.427388E-2	5.343561E-2	4.522681E-2	5.245125E-2	5.100021E-2	4.194016E-2	4.988780E-2	4.217730E-2	4.198766E-2	5.464178E-2	4.242275E-2	3.584057E-2	5.818846E-2	4.522582E-2	3.987297E-2	3.626324E-2	4.072829E-2	5.158086E-2	3.634101E-2	3.896403E-2	4.217904E-2	3.728251E-2	2.786389E-2	4.917118E-2	5.660115E-2	4.309903E-2	4.156286E-2	5.340591E-2	6.205235E-2	4.956506E-2	6.968814E-2	4.404942E-2	5.634658E-2	4.720521E-2	4.091524E-2	3.721790E-2	6.364104E-2	4.012986E-2	3.092204E-2	5.422499E-2	4.096245E-2	4.718296E-2	5.403984E-2	4.402122E-2	4.681291E-2	4.243526E-2	3.730758E-2	4.476372E-2	3.685204E-2	4.146611E-2	5.655260E-2	4.448130E-2	5.081575E-2	4.267777E-2	5.382898E-2	4.674427E-2	4.680490E-2	5.544781E-2	3.999001E-2	2.669813E-2	4.183124E-2	4.452349E-2	5.353203E-2
2.841030E+2	6.785804E-2	5.826812E-2	6.244724E-2	6.535247E-2	7.393616E-2	6.384606E-2	9.087500E-2	6.297138E-2	6.319517E-2	6.474357E-2	5.754078E-2	6.160198E-2	6.001217E-2	5.316285E-2	5.491507E-2	6.763892E-2	5.947330E-2	4.861449E-2	6.819500E-2	6.427839E-2	7.704222E-2	5.978839E-2	7.093342E-2	5.499382E-2	5.147963E-2	6.277530E-2	8.318122E-2	6.261516E-2	4.521249E-2	6.791548E-2	6.791799E-2	6.563989E-2	5.051893E-2	9.011982E-2	5.211313E-2	8.477017E-2	5.675234E-2	8.020697E-2	4.916233E-2	6.767083E-2	8.849430E-2	7.200829E-2	8.424195E-2	7.039335E-2	5.902309E-2	4.973554E-2	6.811389E-2	6.493693E-2	7.956889E-2	6.150647E-2	5.886707E-2	7.471232E-2	5.925428E-2	5.827730E-2	7.115166E-2	5.356908E-2	6.984079E-2	7.198151E-2	5.330685E-2	6.501515E-2	5.764102E-2	5.096054E-2	6.987855E-2	6.197883E-2	6.073102E-2	6.183560E-2	6.399551E-2	6.560157E-2	7.019711E-2	6.285507E-2	6.535869E-2	5.688589E-2	6.825682E-2	5.471049E-2	5.325964E-2	6.927077E-2	6.948469E-2	6.552069E-2	4.868373E-2	4.979566E-2	6.559779E-2	7.814918E-2	6.093492E-2	6.051011E-2	6.860139E-2	4.677604E-2	6.561178E-2	6.814520E-2	6.990043E-2	5.447459E-2	6.542865E-2	5.935294E-2	6.678171E-2	6.393158E-2	5.852925E-2	6.344044E-2	5.841244E-2	6.616660E-2	9.142709E-2	5.045179E-2	8.248773E-2	7.827607E-2	6.215234E-2	8.052546E-2	7.700798E-2	6.191148E-2	4.471982E-2	8.444379E-2	7.981308E-2	8.739924E-2	5.194627E-2	5.792750E-2	6.682513E-2	6.449184E-2	6.942922E-2	6.508583E-2	7.244963E-2	7.039675E-2	7.353269E-2	5.560691E-2	3.917735E-2	6.034212E-2	6.212575E-2	8.226039E-2	6.234914E-2	6.475387E-2	7.095052E-2	5.555594E-2	6.289280E-2	7.513809E-2	7.101370E-2	6.357031E-2	6.920189E-2	5.891113E-2	5.024607E-2	7.012289E-2	6.131425E-2	5.840283E-2	7.143781E-2	7.751105E-2	8.410054E-2	6.602947E-2	7.390856E-2	6.485971E-2	6.698538E-2	8.193793E-2	6.509041E-2	6.775910E-2	7.183246E-2	5.718002E-2	5.430030E-2	7.105967E-2	7.374580E-2	8.193146E-2	5.086886E-2	5.786317E-2	4.763560E-2	7.482313E-2	5.450434E-2	5.858115E-2	6.823853E-2	5.893303E-2	8.708828E-2	5.767353E-2	8.789739E-2	9.597505E-2
2.842030E+2	9.324330E-2	8.782668E-2	7.193528E-2	9.858693E-2	8.968939E-2	9.029568E-2	7.964034E-2	7.623649E-2	7.012464E-2	1.086766E-1	7.946046E-2	9.178409E-2	1.040768E-1	1.028634E-1	9.886730E-2	8.688827E-2	9.887788E-2	8.971874E-2	8.799299E-2	1.072421E-1	8.994395E-2	9.077670E-2	7.404102E-2	7.183942E-2	8.412585E-2	8.707694E-2	7.838301E-2	9.434971E-2	7.258951E-2	8.131048E-2	7.576805E-2	8.695450E-2	7.909988E-2	1.019094E-1	1.011746E-1	9.780884E-2	9.453059E-2	9.261611E-2	9.086247E-2	8.507643E-2	7.988193E-2	7.509930E-2	8.270324E-2	1.001977E-1	7.912712E-2	1.220196E-1	9.323733E-2	9.526257E-2	8.472831E-2	8.410357E-2	9.354450E-2	8.480603E-2	1.002282E-1	9.493731E-2	8.723814E-2	9.090661E-2	8.777668E-2	8.653338E-2	8.908562E-2	9.670251E-2	9.373019E-2	1.044759E-1	9.060351E-2	7.414172E-2	8.576420E-2	8.327512E-2	7.915935E-2	7.285827E-2	7.922971E-2	8.897301E-2	1.165484E-1	7.435115E-2	8.875997E-2	9.727064E-2	8.208538E-2	1.119564E-1	7.679490E-2	9.506909E-2	9.503844E-2	8.617677E-2	1.061437E-1	1.002957E-1	9.014716E-2	6.510564E-2	9.053411E-2	9.572532E-2	8.609443E-2	7.811169E-2	6.433749E-2	9.849306E-2	6.928091E-2	1.020175E-1	9.022642E-2	8.362109E-2	9.174339E-2	1.014816E-1	1.027307E-1	7.901917E-2	7.790337E-2	8.669078E-2	8.142330E-2	7.172956E-2	6.648911E-2	1.155483E-1	1.169847E-1	9.968351E-2	8.010194E-2	9.920632E-2	1.028672E-1	7.502669E-2	7.940489E-2	7.634156E-2	9.064158E-2	7.835139E-2	7.590820E-2	9.641351E-2	9.752931E-2	9.541694E-2	8.152146E-2	8.667702E-2	7.958444E-2	8.972522E-2	8.979272E-2	9.392180E-2	8.664536E-2	7.708368E-2	6.939903E-2	7.170590E-2	8.891113E-2	8.914673E-2	1.139053E-1	1.023556E-1	1.142872E-1	8.341039E-2	9.055674E-2	8.030439E-2	8.994387E-2	9.648567E-2	9.676032E-2	9.633252E-2	9.103728E-2	1.025568E-1	1.088124E-1	1.044560E-1	9.038000E-2	9.229719E-2	9.669874E-2	9.390640E-2	9.795025E-2	7.956101E-2	8.359653E-2	9.223914E-2	1.028218E-1	9.011828E-2	6.199302E-2	1.204271E-1	9.900112E-2	1.052802E-1	1.103770E-1	8.949553E-2	9.160269E-2	1.049235E-1	9.632244E-2	9.545018E-2	1.050531E-1	8.083333E-2
2.843040E+2	1.135129E-1	1.005840E-1	1.056313E-1	1.224117E-1	9.859057E-2	1.157410E-1	1.024833E-1	1.231292E-1	9.879635E-2	9.871475E-2	1.011971E-1	1.086754E-1	7.875681E-2	1.068220E-1	1.103489E-1	9.424921E-2	1.191636E-1	1.158570E-1	9.661399E-2	1.165124E-1	9.337455E-2	9.240039E-2	1.129323E-1	1.078193E-1	1.071012E-1	1.175736E-1	1.221650E-1	1.183416E-1	1.024270E-1	8.976737E-2	1.134931E-1	1.062387E-1	1.104184E-1	1.149000E-1	9.223971E-2	1.121121E-1	1.238904E-1	1.268841E-1	1.091936E-1	1.261466E-1	1.178311E-1	1.057719E-1	9.940128E-2	1.013891E-1	1.069755E-1	1.082524E-1	1.264001E-1	1.313897E-1	1.213315E-1	1.321282E-1	1.284656E-1	1.117801E-1	9.213728E-2	1.023842E-1	1.295594E-1	1.119815E-1	1.300249E-1	1.117123E-1	1.071149E-1	1.012854E-1	1.118473E-1	1.063476E-1	9.408915E-2	1.146720E-1	1.046498E-1	1.150287E-1	1.203254E-1	1.002536E-1	1.258333E-1	1.176010E-1	1.286035E-1	9.058586E-2	1.301884E-1	9.553849E-2	1.182897E-1	1.296400E-1	1.152777E-1	1.261566E-1	1.088287E-1	1.024126E-1	1.028597E-1	1.175499E-1	1.146254E-1	1.069757E-1	1.072210E-1	1.376644E-1	8.961320E-2	1.074072E-1	1.247752E-1	1.182587E-1	1.057683E-1	1.074288E-1	8.860448E-2	9.750607E-2	1.068453E-1	9.385437E-2	1.044503E-1	1.045089E-1	1.144973E-1	1.143203E-1	1.134697E-1	1.165283E-1	1.163627E-1	1.111663E-1	1.130016E-1	9.696484E-2	9.437033E-2	1.242104E-1	1.051109E-1	1.054931E-1	1.078785E-1	9.812872E-2	1.237646E-1	1.270337E-1	1.160332E-1	1.341003E-1	9.091510E-2	9.728437E-2	1.058373E-1	1.298962E-1	1.016189E-1	1.340709E-1	1.059249E-1	1.305994E-1	1.190226E-1	1.342550E-1	9.744945E-2	1.224441E-1	1.202989E-1	1.175235E-1	1.303929E-1	1.329468E-1	1.170457E-1	1.093520E-1	1.186473E-1	1.340433E-1	1.214031E-1	1.361711E-1	9.519907E-2	1.151197E-1	1.047534E-1	1.084844E-1	1.213630E-1	1.229458E-1	1.101143E-1	1.220834E-1	1.143081E-1	9.792373E-2	8.696321E-2	1.137201E-1	1.112818E-1	1.105386E-1	1.169175E-1	1.113577E-1	9.445999E-2	1.167929E-1	9.484670E-2	1.171462E-1	1.169781E-1	1.265822E-1	1.050566E-1	8.819380E-2	8.857886E-2	1.065510E-1	1.135544E-1	1.165455E-1
2.844010E+2	1.236906E-1	1.224653E-1	9.870978E-2	1.135440E-1	1.296369E-1	1.246077E-1	1.200397E-1	1.264252E-1	1.430835E-1	1.077804E-1	1.397861E-1	1.153896E-1	1.235251E-1	1.337997E-1	1.256722E-1	1.240759E-1	1.217716E-1	1.265500E-1	1.246583E-1	1.206887E-1	1.387014E-1	1.240209E-1	1.358162E-1	1.317980E-1	1.281364E-1	1.079548E-1	1.134559E-1	1.207919E-1	1.159530E-1	1.262512E-1	1.308499E-1	1.149549E-1	1.236897E-1	1.250792E-1	1.332582E-1	1.508082E-1	1.334045E-1	1.349759E-1	1.250892E-1	1.112786E-1	1.290758E-1	1.282549E-1	1.262283E-1	1.363931E-1	1.059058E-1	1.566005E-1	1.298090E-1	1.364801E-1	1.457304E-1	1.149451E-1	1.131431E-1	1.237475E-1	1.140834E-1	1.547498E-1	1.187922E-1	1.200375E-1	1.244744E-1	1.250114E-1	1.009838E-1	1.426201E-1	1.189286E-1	1.336621E-1	1.314395E-1	1.228945E-1	1.278005E-1	1.260655E-1	1.459497E-1	1.332023E-1	1.215497E-1	1.262832E-1	1.214418E-1	1.264624E-1	1.227490E-1	1.477031E-1	1.319945E-1	1.281001E-1	1.306988E-1	1.186691E-1	1.325756E-1	1.210485E-1	1.224644E-1	1.292884E-1	1.057956E-1	1.282764E-1	1.210423E-1	1.252907E-1	1.360935E-1	1.300630E-1	1.156557E-1	1.347891E-1	1.314622E-1	1.245174E-1	1.345269E-1	1.494735E-1	1.172614E-1	1.149222E-1	1.148105E-1	1.389673E-1	1.449753E-1	1.349290E-1	1.349683E-1	1.023033E-1	1.221948E-1	1.227806E-1	1.592936E-1	1.191146E-1	1.225327E-1	1.260268E-1	1.372000E-1	1.359058E-1	1.243404E-1	1.143572E-1	1.359858E-1	1.381123E-1	1.006952E-1	1.231266E-1	1.296496E-1	1.375052E-1	1.403821E-1	1.378025E-1	1.120602E-1	1.385104E-1	1.499610E-1	1.200594E-1	1.271489E-1	1.589627E-1	1.300878E-1	1.545797E-1	1.495771E-1	1.284707E-1	1.312533E-1	1.237722E-1	1.265923E-1	1.426088E-1	1.536819E-1	1.352974E-1	1.395175E-1	1.273764E-1	1.428440E-1	1.425450E-1	1.159543E-1	1.533678E-1	1.527368E-1	1.150308E-1	1.165025E-1	1.211569E-1	1.292713E-1	1.246652E-1	1.274658E-1	1.138460E-1	1.230947E-1	1.241413E-1	1.423990E-1	1.530829E-1	1.226129E-1	1.510998E-1	1.237078E-1	1.197141E-1	1.418741E-1	1.320064E-1	1.344329E-1	1.389999E-1	1.415151E-1	1.176528E-1	1.489070E-1	1.183259E-1
2.845030E+2	2.220552E-1	2.174095E-1	1.996986E-1	2.207882E-1	2.405275E-1	2.144643E-1	1.874387E-1	2.014141E-1	2.053669E-1	2.279818E-1	2.254977E-1	1.979851E-1	2.281307E-1	2.080847E-1	2.222182E-1	2.089643E-1	2.216758E-1	2.180612E-1	1.845187E-1	2.356587E-1	2.276794E-1	2.292958E-1	2.161308E-1	2.162094E-1	2.061933E-1	1.927364E-1	2.098720E-1	2.379943E-1	2.242321E-1	2.066583E-1	1.886267E-1	1.853202E-1	1.892272E-1	2.163802E-1	2.363007E-1	2.290412E-1	2.079020E-1	2.055686E-1	1.902994E-1	2.004030E-1	2.549550E-1	2.116063E-1	2.041035E-1	2.265941E-1	2.333366E-1	2.271662E-1	2.193590E-1	2.029604E-1	2.172758E-1	2.067553E-1	1.940104E-1	2.289236E-1	1.981487E-1	2.048302E-1	2.185055E-1	1.899912E-1	2.288330E-1	2.149235E-1	2.257407E-1	2.125376E-1	2.221859E-1	2.188602E-1	2.082549E-1	2.137015E-1	2.010409E-1	2.313912E-1	2.130059E-1	2.102917E-1	2.348779E-1	2.401660E-1	2.137703E-1	2.152513E-1	1.953325E-1	1.873683E-1	1.869386E-1	2.036069E-1	2.080457E-1	2.342425E-1	2.243085E-1	2.163733E-1	2.110070E-1	2.170187E-1	2.322059E-1	2.032122E-1	2.243175E-1	2.188792E-1	2.290615E-1	2.133812E-1	2.216411E-1	1.989604E-1	2.091989E-1	1.818614E-1	2.088746E-1	2.378474E-1	2.240140E-1	1.960039E-1	2.094557E-1	2.120156E-1	2.068520E-1	2.033471E-1	2.364269E-1	2.156806E-1	2.063843E-1	2.151365E-1	1.863905E-1	2.028989E-1	2.356472E-1	2.205805E-1	2.040175E-1	2.109891E-1	2.373977E-1	2.219638E-1	2.068570E-1	2.008171E-1	2.201981E-1	2.175352E-1	1.828570E-1	2.123839E-1	1.934406E-1	2.231020E-1	2.231044E-1	2.083012E-1	2.556236E-1	1.871552E-1	2.118145E-1	2.450067E-1	2.213415E-1	2.139954E-1	2.283887E-1	2.316624E-1	2.301415E-1	2.139949E-1	1.925658E-1	2.148747E-1	2.246859E-1	2.112865E-1	2.085385E-1	1.983321E-1	2.012342E-1	2.180012E-1	2.131113E-1	1.926196E-1	1.920277E-1	1.963762E-1	2.633779E-1	2.054759E-1	2.390687E-1	2.033384E-1	2.005842E-1	2.561294E-1	2.092924E-1	2.328519E-1	2.453024E-1	2.406624E-1	2.202547E-1	1.930321E-1	1.845329E-1	2.458974E-1	2.039786E-1	2.180114E-1	2.501162E-1	2.264063E-1	2.211024E-1	2.266389E-1	2.254470E-1	2.181823E-1
2.846060E+2	4.053791E-1	3.954326E-1	4.037304E-1	4.252092E-1	3.687563E-1	3.986388E-1	3.858608E-1	4.191288E-1	4.111693E-1	3.902414E-1	4.119703E-1	3.841583E-1	4.270745E-1	4.073388E-1	3.915238E-1	4.073999E-1	4.282569E-1	3.771141E-1	4.089896E-1	4.195734E-1	4.209232E-1	4.137182E-1	4.056833E-1	4.167655E-1	4.012287E-1	4.045297E-1	4.226523E-1	4.140535E-1	4.259209E-1	3.636588E-1	4.061450E-1	4.201166E-1	4.007190E-1	3.628375E-1	4.013441E-1	4.067195E-1	3.932462E-1	4.131627E-1	3.995710E-1	4.299107E-1	3.848049E-1	4.140549E-1	4.073516E-1	4.323444E-1	4.382994E-1	4.164982E-1	4.377528E-1	3.984341E-1	3.714514E-1	3.983093E-1	3.992351E-1	4.259647E-1	3.574030E-1	4.033959E-1	4.167774E-1	4.007587E-1	4.215742E-1	3.710807E-1	4.085722E-1	4.143462E-1	4.450944E-1	4.103776E-1	4.123028E-1	3.871286E-1	3.889866E-1	3.708330E-1	4.074926E-1	3.677741E-1	3.869608E-1	4.350932E-1	4.221292E-1	3.985712E-1	4.354069E-1	4.151153E-1	4.223908E-1	3.887808E-1	4.049143E-1	4.376758E-1	4.175679E-1	3.934820E-1	4.575858E-1	4.254504E-1	4.401179E-1	3.953666E-1	4.528581E-1	4.006697E-1	3.800968E-1	4.056764E-1	4.241638E-1	3.806756E-1	4.074827E-1	3.947981E-1	4.287957E-1	4.037496E-1	4.152138E-1	3.995079E-1	4.258213E-1	3.908481E-1	3.968301E-1	4.578329E-1	3.801547E-1	3.944373E-1	4.011284E-1	4.137186E-1	4.088346E-1	4.289736E-1	4.159167E-1	4.309557E-1	4.154251E-1	4.145270E-1	4.202807E-1	4.233445E-1	4.341391E-1	4.129098E-1	4.286948E-1	3.783861E-1	4.010387E-1	4.128066E-1	3.959082E-1	4.031585E-1	4.335080E-1	4.018888E-1	4.190052E-1	4.113393E-1	3.835670E-1	4.329182E-1	3.797414E-1	4.229424E-1	4.117194E-1	4.201735E-1	4.730245E-1	4.109441E-1	4.387339E-1	4.197986E-1	4.385509E-1	3.886010E-1	4.175098E-1	4.195216E-1	4.340164E-1	4.345416E-1	3.977175E-1	3.844767E-1	4.473933E-1	4.139703E-1	4.352690E-1	3.878259E-1	4.020413E-1	4.375780E-1	4.235720E-1	4.457950E-1	4.017109E-1	4.343441E-1	4.149281E-1	4.232027E-1	4.122910E-1	4.186936E-1	4.285124E-1	4.347996E-1	3.750098E-1	4.517215E-1	4.420512E-1	4.650758E-1	4.302189E-1	3.593732E-1	4.462607E-1	4.323222E-1
2.847030E+2	8.633596E-1	8.444519E-1	7.967893E-1	8.427893E-1	8.814738E-1	8.072502E-1	8.233260E-1	8.613368E-1	8.644864E-1	8.359833E-1	8.112267E-1	8.536533E-1	7.966818E-1	7.607345E-1	8.701953E-1	8.527661E-1	8.523423E-1	8.147003E-1	8.413841E-1	8.763867E-1	8.309520E-1	8.496527E-1	8.370540E-1	8.229568E-1	7.809352E-1	8.070868E-1	8.452470E-1	8.448501E-1	8.241994E-1	8.383309E-1	8.554645E-1	7.845656E-1	8.106098E-1	8.677472E-1	8.257018E-1	8.130876E-1	8.535482E-1	8.443101E-1	8.230047E-1	8.782284E-1	8.875291E-1	8.553909E-1	8.580290E-1	8.415904E-1	8.651132E-1	8.510968E-1	7.901566E-1	8.582492E-1	8.631395E-1	8.549313E-1	8.295733E-1	8.110538E-1	8.061728E-1	8.507041E-1	8.449549E-1	8.624846E-1	8.816534E-1	8.111849E-1	8.446807E-1	8.953925E-1	8.570577E-1	8.174630E-1	8.645391E-1	7.932868E-1	8.373032E-1	8.106692E-1	7.861874E-1	8.572193E-1	8.567970E-1	8.711506E-1	8.251291E-1	8.893958E-1	8.650374E-1	8.450015E-1	8.390086E-1	8.668988E-1	8.420262E-1	8.593580E-1	8.902585E-1	8.499365E-1	8.262789E-1	8.652896E-1	8.485084E-1	8.407223E-1	8.632922E-1	8.339431E-1	8.697841E-1	8.554115E-1	8.696242E-1	8.140155E-1	8.444736E-1	8.808807E-1	8.492400E-1	8.560137E-1	8.617818E-1	8.777040E-1	7.945618E-1	8.781988E-1	8.434542E-1	8.806097E-1	9.023258E-1	8.449618E-1	7.764726E-1	8.257841E-1	9.289061E-1	9.155246E-1	7.979189E-1	7.966539E-1	8.774249E-1	8.456190E-1	8.070583E-1	8.655936E-1	8.286898E-1	8.030077E-1	8.383282E-1	8.468520E-1	8.610104E-1	8.371818E-1	8.624747E-1	8.326894E-1	8.067063E-1	8.984827E-1	8.985019E-1	8.124936E-1	8.759004E-1	8.378563E-1	8.113272E-1	8.225116E-1	8.228713E-1	8.302930E-1	8.923546E-1	8.045668E-1	8.543093E-1	8.597813E-1	7.991883E-1	8.471504E-1	8.607115E-1	8.080272E-1	8.238398E-1	9.067089E-1	8.428483E-1	7.673790E-1	9.114632E-1	8.353895E-1	8.097102E-1	8.521433E-1	8.590707E-1	8.696710E-1	8.272208E-1	7.775619E-1	8.189243E-1	8.376251E-1	8.519808E-1	8.547151E-1	8.293556E-1	8.356082E-1	8.697354E-1	8.673459E-1	7.959854E-1	8.088871E-1	9.054970E-1	8.160467E-1	8.283766E-1	8.123464E-1	7.662082E-1	9.488771E-1
2.848030E+2	1.284071E+0	1.329814E+0	1.306241E+0	1.304783E+0	1.305075E+0	1.330022E+0	1.226597E+0	1.290862E+0	1.409321E+0	1.260552E+0	1.276428E+0	1.321336E+0	1.378460E+0	1.242931E+0	1.298276E+0	1.346276E+0	1.277778E+0	1.295155E+0	1.288000E+0	1.284157E+0	1.242028E+0	1.324631E+0	1.283963E+0	1.335172E+0	1.249408E+0	1.390295E+0	1.265140E+0	1.279883E+0	1.361375E+0	1.322102E+0	1.300706E+0	1.250210E+0	1.299582E+0	1.256086E+0	1.282475E+0	1.352254E+0	1.382781E+0	1.287033E+0	1.316690E+0	1.312294E+0	1.361466E+0	1.322752E+0	1.305660E+0	1.366517E+0	1.293285E+0	1.323668E+0	1.317464E+0	1.262772E+0	1.241958E+0	1.257978E+0	1.282826E+0	1.336115E+0	1.281603E+0	1.329195E+0	1.323356E+0	1.270108E+0	1.401722E+0	1.263538E+0	1.270893E+0	1.241057E+0	1.284124E+0	1.239943E+0	1.315961E+0	1.338789E+0	1.293617E+0	1.355494E+0	1.296711E+0	1.303561E+0	1.325876E+0	1.345305E+0	1.301158E+0	1.267496E+0	1.343378E+0	1.282113E+0	1.302382E+0	1.303001E+0	1.340814E+0	1.402838E+0	1.359962E+0	1.219444E+0	1.365272E+0	1.342641E+0	1.216558E+0	1.311872E+0	1.305221E+0	1.283545E+0	1.295368E+0	1.281863E+0	1.283756E+0	1.247953E+0	1.296889E+0	1.309030E+0	1.326653E+0	1.243505E+0	1.349116E+0	1.274030E+0	1.327453E+0	1.285968E+0	1.294894E+0	1.342412E+0	1.316994E+0	1.284736E+0	1.322904E+0	1.256781E+0	1.377181E+0	1.241856E+0	1.337367E+0	1.267759E+0	1.352597E+0	1.335535E+0	1.254489E+0	1.308792E+0	1.255373E+0	1.245207E+0	1.278172E+0	1.355669E+0	1.287888E+0	1.287695E+0	1.351082E+0	1.287030E+0	1.316138E+0	1.272450E+0	1.286067E+0	1.248597E+0	1.303005E+0	1.351713E+0	1.239015E+0	1.352611E+0	1.288413E+0	1.293049E+0	1.310435E+0	1.281222E+0	1.337456E+0	1.367394E+0	1.270991E+0	1.278522E+0	1.365008E+0	1.292045E+0	1.357461E+0	1.388750E+0	1.344231E+0	1.308977E+0	1.303791E+0	1.279438E+0	1.337868E+0	1.325064E+0	1.321617E+0	1.289703E+0	1.325224E+0	1.335266E+0	1.307175E+0	1.314482E+0	1.359821E+0	1.391543E+0	1.288354E+0	1.309686E+0	1.263507E+0	1.351763E+0	1.276832E+0	1.288821E+0	1.335337E+0	1.261093E+0	1.270410E+0	1.219374E+0	1.250747E+0	1.295099E+0
2.849040E+2	1.456759E+0	1.453197E+0	1.456425E+0	1.430089E+0	1.462011E+0	1.490747E+0	1.394730E+0	1.407800E+0	1.548689E+0	1.359734E+0	1.363349E+0	1.389112E+0	1.498893E+0	1.393543E+0	1.502790E+0	1.451158E+0	1.421086E+0	1.360593E+0	1.414159E+0	1.394588E+0	1.467094E+0	1.445050E+0	1.406252E+0	1.473535E+0	1.422245E+0	1.398668E+0	1.470736E+0	1.425768E+0	1.474223E+0	1.494869E+0	1.377147E+0	1.442418E+0	1.406021E+0	1.433167E+0	1.335366E+0	1.421747E+0	1.416851E+0	1.379239E+0	1.368219E+0	1.403831E+0	1.463048E+0	1.468380E+0	1.408492E+0	1.448470E+0	1.477573E+0	1.487711E+0	1.382327E+0	1.470366E+0	1.311741E+0	1.443952E+0	1.450280E+0	1.435863E+0	1.384550E+0	1.472930E+0	1.389590E+0	1.367083E+0	1.420716E+0	1.359839E+0	1.474297E+0	1.418910E+0	1.391886E+0	1.428415E+0	1.518758E+0	1.430144E+0	1.415078E+0	1.376982E+0	1.424997E+0	1.426273E+0	1.474250E+0	1.424276E+0	1.421986E+0	1.425525E+0	1.430042E+0	1.443508E+0	1.408196E+0	1.420113E+0	1.477338E+0	1.415077E+0	1.436771E+0	1.428825E+0	1.419883E+0	1.426549E+0	1.420464E+0	1.477613E+0	1.457773E+0	1.440316E+0	1.452026E+0	1.420141E+0	1.487772E+0	1.406373E+0	1.404423E+0	1.408913E+0	1.398988E+0	1.465108E+0	1.473411E+0	1.451058E+0	1.447891E+0	1.532000E+0	1.406102E+0	1.460586E+0	1.454925E+0	1.421540E+0	1.449386E+0	1.456411E+0	1.433223E+0	1.402074E+0	1.442935E+0	1.409355E+0	1.468796E+0	1.421001E+0	1.485199E+0	1.431232E+0	1.358298E+0	1.443899E+0	1.390050E+0	1.378360E+0	1.389865E+0	1.332364E+0	1.471833E+0	1.382626E+0	1.474677E+0	1.408671E+0	1.453503E+0	1.466636E+0	1.496224E+0	1.456459E+0	1.432314E+0	1.467443E+0	1.497087E+0	1.364252E+0	1.451892E+0	1.359357E+0	1.509402E+0	1.452602E+0	1.425928E+0	1.485106E+0	1.450439E+0	1.463686E+0	1.443222E+0	1.546278E+0	1.432821E+0	1.486486E+0	1.460321E+0	1.447857E+0	1.433123E+0	1.416107E+0	1.440473E+0	1.374219E+0	1.421209E+0	1.403858E+0	1.414349E+0	1.380937E+0	1.485283E+0	1.385855E+0	1.452610E+0	1.454653E+0	1.442547E+0	1.436275E+0	1.401109E+0	1.356287E+0	1.495251E+0	1.514294E+0	1.487446E+0	1.524326E+0	1.435980E+0	1.378821E+0
2.850030E+2	1.372888E+0	1.371935E+0	1.410126E+0	1.357998E+0	1.492065E+0	1.382347E+0	1.360415E+0	1.378842E+0	1.407585E+0	1.388045E+0	1.331101E+0	1.353551E+0	1.330884E+0	1.379034E+0	1.327269E+0	1.362988E+0	1.415577E+0	1.398272E+0	1.416951E+0	1.395134E+0	1.452653E+0	1.393930E+0	1.430338E+0	1.452874E+0	1.416943E+0	1.417815E+0	1.456804E+0	1.343025E+0	1.413280E+0	1.370318E+0	1.425680E+0	1.366745E+0	1.397384E+0	1.404302E+0	1.407972E+0	1.434035E+0	1.418879E+0	1.357089E+0	1.448971E+0	1.385370E+0	1.467595E+0	1.437326E+0	1.427793E+0	1.409997E+0	1.427110E+0	1.407242E+0	1.360234E+0	1.381056E+0	1.417490E+0	1.417462E+0	1.360091E+0	1.423232E+0	1.365346E+0	1.361900E+0	1.410679E+0	1.423973E+0	1.396864E+0	1.368862E+0	1.383099E+0	1.428241E+0	1.447616E+0	1.496796E+0	1.432138E+0	1.389023E+0	1.385516E+0	1.386244E+0	1.385656E+0	1.343324E+0	1.446267E+0	1.456261E+0	1.372642E+0	1.339486E+0	1.447222E+0	1.383154E+0	1.440812E+0	1.446110E+0	1.431123E+0	1.403617E+0	1.341396E+0	1.363783E+0	1.442189E+0	1.433540E+0	1.447365E+0	1.386969E+0	1.461731E+0	1.420103E+0	1.410114E+0	1.389644E+0	1.413696E+0	1.395975E+0	1.408103E+0	1.398538E+0	1.457252E+0	1.404626E+0	1.431923E+0	1.380005E+0	1.410550E+0	1.364484E+0	1.364760E+0	1.332965E+0	1.424617E+0	1.419666E+0	1.441990E+0	1.351436E+0	1.438142E+0	1.372264E+0	1.404795E+0	1.351981E+0	1.410357E+0	1.368592E+0	1.412341E+0	1.423098E+0	1.428325E+0	1.318217E+0	1.351168E+0	1.435954E+0	1.387074E+0	1.371976E+0	1.396483E+0	1.344843E+0	1.431161E+0	1.346550E+0	1.438715E+0	1.336221E+0	1.396742E+0	1.393960E+0	1.399114E+0	1.398697E+0	1.382922E+0	1.345442E+0	1.382879E+0	1.387557E+0	1.455472E+0	1.431433E+0	1.448857E+0	1.427223E+0	1.422889E+0	1.403650E+0	1.395969E+0	1.372174E+0	1.440342E+0	1.406979E+0	1.454698E+0	1.352308E+0	1.434993E+0	1.386676E+0	1.382161E+0	1.403945E+0	1.441045E+0	1.324968E+0	1.394964E+0	1.432941E+0	1.361596E+0	1.458363E+0	1.426294E+0	1.316048E+0	1.478752E+0	1.415296E+0	1.430972E+0	1.373596E+0	1.483378E+0	1.462816E+0	1.475586E+0	1.346389E+0	1.322357E+0	1.390177E+0
2.851030E+2	1.258152E+0	1.312646E+0	1.271150E+0	1.383357E+0	1.296660E+0	1.291742E+0	1.248260E+0	1.295305E+0	1.306532E+0	1.243716E+0	1.293753E+0	1.267151E+0	1.309857E+0	1.212101E+0	1.305559E+0	1.298367E+0	1.321819E+0	1.274351E+0	1.292023E+0	1.236065E+0	1.249534E+0	1.291382E+0	1.225009E+0	1.259523E+0	1.275431E+0	1.297333E+0	1.259479E+0	1.244530E+0	1.299445E+0	1.355115E+0	1.326776E+0	1.214049E+0	1.243064E+0	1.316386E+0	1.264791E+0	1.359189E+0	1.255284E+0	1.207135E+0	1.314365E+0	1.255719E+0	1.337247E+0	1.305678E+0	1.263537E+0	1.254115E+0	1.252448E+0	1.286911E+0	1.296523E+0	1.299061E+0	1.229203E+0	1.270184E+0	1.246306E+0	1.286215E+0	1.354841E+0	1.303128E+0	1.291991E+0	1.266873E+0	1.263638E+0	1.339922E+0	1.265742E+0	1.290570E+0	1.312452E+0	1.250688E+0	1.262615E+0	1.229312E+0	1.340743E+0	1.334942E+0	1.302153E+0	1.294286E+0	1.322313E+0	1.264361E+0	1.266536E+0	1.224978E+0	1.359960E+0	1.316488E+0	1.300954E+0	1.287666E+0	1.343557E+0	1.310488E+0	1.323868E+0	1.257416E+0	1.332376E+0	1.284335E+0	1.274243E+0	1.301677E+0	1.262840E+0	1.260138E+0	1.249438E+0	1.339700E+0	1.355421E+0	1.217519E+0	1.391510E+0	1.291820E+0	1.261718E+0	1.287793E+0	1.366735E+0	1.270062E+0	1.266588E+0	1.359643E+0	1.251626E+0	1.351588E+0	1.288278E+0	1.258568E+0	1.240532E+0	1.305511E+0	1.325882E+0	1.353945E+0	1.326950E+0	1.256422E+0	1.318320E+0	1.321015E+0	1.285461E+0	1.318365E+0	1.237358E+0	1.258306E+0	1.243009E+0	1.272970E+0	1.346376E+0	1.277093E+0	1.276953E+0	1.265258E+0	1.296414E+0	1.320281E+0	1.286777E+0	1.304223E+0	1.281775E+0	1.225962E+0	1.277261E+0	1.324008E+0	1.294666E+0	1.321117E+0	1.319766E+0	1.232333E+0	1.316949E+0	1.257389E+0	1.373061E+0	1.236919E+0	1.315022E+0	1.319692E+0	1.293564E+0	1.284076E+0	1.236381E+0	1.311341E+0	1.295891E+0	1.346944E+0	1.347512E+0	1.266729E+0	1.304382E+0	1.228614E+0	1.321355E+0	1.249365E+0	1.278867E+0	1.294942E+0	1.267271E+0	1.323515E+0	1.309665E+0	1.290920E+0	1.314792E+0	1.241494E+0	1.269068E+0	1.340177E+0	1.338097E+0	1.260660E+0	1.294826E+0	1.263568E+0	1.286918E+0	1.365314E+0
2.852040E+2	1.016790E+0	1.056578E+0	1.085064E+0	1.138408E+0	1.146410E+0	1.087660E+0	9.916936E-1	1.045537E+0	1.154691E+0	1.127795E+0	1.074188E+0	1.064957E+0	1.076567E+0	1.077129E+0	1.129022E+0	1.063583E+0	1.075900E+0	1.057206E+0	1.158560E+0	1.056156E+0	1.106830E+0	1.050441E+0	1.085940E+0	1.074460E+0	1.088635E+0	1.132950E+0	1.124191E+0	1.055530E+0	1.071518E+0	1.038487E+0	1.072201E+0	9.990480E-1	1.036956E+0	1.120430E+0	1.184299E+0	1.169405E+0	1.064180E+0	1.138844E+0	1.098824E+0	1.083225E+0	1.101279E+0	1.105914E+0	1.089629E+0	1.083693E+0	1.091873E+0	1.073324E+0	1.090533E+0	1.109489E+0	1.064249E+0	1.083207E+0	1.089787E+0	1.137492E+0	1.075932E+0	1.106589E+0	1.110948E+0	1.046724E+0	1.066573E+0	1.143732E+0	1.152938E+0	1.098147E+0	1.088420E+0	1.148622E+0	1.098596E+0	1.113143E+0	1.150590E+0	1.115043E+0	1.083742E+0	1.051118E+0	1.141921E+0	1.087467E+0	1.095591E+0	1.021750E+0	1.092815E+0	1.055610E+0	1.107063E+0	1.100163E+0	1.032983E+0	1.046843E+0	1.113974E+0	1.069654E+0	1.134954E+0	9.955750E-1	1.102930E+0	1.092464E+0	1.104885E+0	1.088827E+0	1.101680E+0	1.086010E+0	1.105803E+0	1.046809E+0	1.075398E+0	1.104088E+0	1.103796E+0	1.085289E+0	1.129247E+0	1.129724E+0	1.111400E+0	1.100469E+0	1.025310E+0	1.066574E+0	1.171000E+0	1.082838E+0	1.164164E+0	1.069813E+0	1.072339E+0	1.118162E+0	1.095589E+0	1.062203E+0	1.135064E+0	1.117963E+0	1.167283E+0	1.091763E+0	1.102545E+0	1.056094E+0	1.021432E+0	1.131435E+0	1.128141E+0	1.075540E+0	1.157626E+0	1.072467E+0	1.087736E+0	1.076601E+0	1.088499E+0	1.061331E+0	1.050737E+0	1.089323E+0	1.117828E+0	1.045102E+0	1.083371E+0	1.068693E+0	1.123128E+0	1.097968E+0	1.110455E+0	1.118878E+0	1.103792E+0	1.042781E+0	1.055305E+0	1.098221E+0	1.106750E+0	1.138578E+0	1.115071E+0	1.113914E+0	1.109548E+0	1.128189E+0	1.190557E+0	1.078826E+0	1.119477E+0	1.111368E+0	1.126689E+0	1.063496E+0	1.168797E+0	1.156919E+0	1.115506E+0	1.144061E+0	1.078401E+0	1.111594E+0	1.148177E+0	1.025953E+0	1.093388E+0	1.061975E+0	1.088442E+0	1.123100E+0	1.165207E+0	1.108316E+0	1.150274E+0	1.161355E+0
2.852990E+2	7.756066E-1	8.287245E-1	7.977657E-1	8.351065E-1	8.191332E-1	8.171671E-1	8.192226E-1	8.048421E-1	8.666326E-1	8.701624E-1	7.919450E-1	8.299350E-1	7.989168E-1	8.144824E-1	8.812145E-1	8.149923E-1	8.366841E-1	8.055828E-1	8.110703E-1	8.145077E-1	8.626040E-1	8.229887E-1	8.157969E-1	8.271435E-1	8.052881E-1	8.187043E-1	8.180842E-1	8.456023E-1	8.402815E-1	8.573323E-1	7.858076E-1	7.779527E-1	7.796925E-1	8.503874E-1	8.469335E-1	8.686366E-1	8.349581E-1	8.433140E-1	8.413469E-1	8.804420E-1	8.756265E-1	8.544727E-1	7.374137E-1	8.635484E-1	8.552933E-1	8.795543E-1	8.581069E-1	8.439141E-1	8.263993E-1	8.283440E-1	8.317728E-1	8.459635E-1	8.308498E-1	8.757757E-1	8.339867E-1	8.250352E-1	8.284631E-1	8.630373E-1	8.325129E-1	8.897508E-1	8.124767E-1	8.175742E-1	8.011002E-1	7.882421E-1	8.226588E-1	8.649147E-1	8.172961E-1	8.001681E-1	8.585823E-1	8.610932E-1	8.306170E-1	8.436164E-1	8.323000E-1	8.463298E-1	8.430008E-1	8.380139E-1	8.171449E-1	8.238567E-1	8.206457E-1	8.125990E-1	9.076064E-1	8.171917E-1	8.119738E-1	8.416269E-1	9.023596E-1	8.322791E-1	8.328787E-1	7.915365E-1	8.572369E-1	8.302652E-1	8.790459E-1	8.185541E-1	8.402675E-1	8.042966E-1	8.120089E-1	8.386463E-1	8.459958E-1	8.310145E-1	8.496811E-1	7.962231E-1	8.471574E-1	8.368341E-1	8.105109E-1	8.037868E-1	8.457012E-1	8.347568E-1	8.658792E-1	8.271716E-1	8.478664E-1	8.389433E-1	8.624747E-1	8.265904E-1	8.165424E-1	8.098337E-1	8.253705E-1	8.620528E-1	8.429979E-1	8.689502E-1	8.451741E-1	7.244791E-1	7.875912E-1	8.422748E-1	8.738524E-1	8.252190E-1	8.412033E-1	8.131178E-1	8.772012E-1	7.847898E-1	8.632400E-1	8.194319E-1	8.322668E-1	8.813708E-1	8.356895E-1	8.105703E-1	8.617324E-1	8.490005E-1	8.480601E-1	7.908959E-1	8.601611E-1	8.669939E-1	8.524329E-1	8.315046E-1	8.405415E-1	8.418579E-1	9.331999E-1	8.388987E-1	8.484530E-1	8.465310E-1	8.243736E-1	8.416457E-1	8.114629E-1	8.840846E-1	8.497393E-1	8.968124E-1	8.309591E-1	8.470796E-1	8.614270E-1	8.741896E-1	8.656045E-1	8.374215E-1	8.779787E-1	8.998262E-1	9.225186E-1	8.540516E-1	8.464130E-1	8.068310E-1
2.854020E+2	5.946273E-1	5.940290E-1	5.925157E-1	6.003120E-1	5.814003E-1	6.189385E-1	5.898096E-1	5.684821E-1	5.654712E-1	6.374750E-1	5.669951E-1	5.433858E-1	5.411898E-1	5.760583E-1	5.620948E-1	5.406114E-1	5.727275E-1	5.718517E-1	5.927261E-1	5.889591E-1	6.070157E-1	5.582007E-1	5.800122E-1	5.880359E-1	5.966197E-1	5.920620E-1	5.522625E-1	5.609339E-1	5.621986E-1	5.838538E-1	5.816482E-1	5.842523E-1	5.503904E-1	5.101489E-1	6.067126E-1	5.910014E-1	5.628664E-1	5.769701E-1	5.446193E-1	5.811114E-1	5.871359E-1	5.651477E-1	5.568883E-1	5.764252E-1	6.072492E-1	5.578869E-1	5.382905E-1	6.155808E-1	5.507265E-1	6.166459E-1	5.790788E-1	6.253414E-1	5.508329E-1	5.955306E-1	5.713813E-1	5.930710E-1	5.913088E-1	5.701833E-1	5.694672E-1	5.918594E-1	6.094769E-1	6.222522E-1	5.779729E-1	5.045171E-1	6.026643E-1	5.887312E-1	5.854695E-1	6.204123E-1	5.828170E-1	5.758520E-1	5.897585E-1	5.348296E-1	5.999880E-1	5.846952E-1	5.774479E-1	5.316322E-1	5.736369E-1	5.927320E-1	5.977271E-1	5.959876E-1	6.085668E-1	5.619150E-1	5.780734E-1	6.144337E-1	5.991586E-1	5.100350E-1	5.686501E-1	5.639804E-1	5.868720E-1	5.441593E-1	6.081777E-1	5.714232E-1	5.904049E-1	6.075660E-1	5.581201E-1	5.320799E-1	5.677471E-1	5.665329E-1	5.847942E-1	5.807584E-1	6.367690E-1	5.504576E-1	5.983746E-1	5.785254E-1	6.355168E-1	5.542073E-1	6.223299E-1	5.526046E-1	5.936645E-1	6.150084E-1	5.834276E-1	5.466165E-1	5.604196E-1	5.936584E-1	6.134355E-1	5.740802E-1	5.788066E-1	6.075572E-1	6.102805E-1	5.560440E-1	5.543515E-1	5.976708E-1	6.003570E-1	5.977506E-1	6.439917E-1	5.690213E-1	6.306146E-1	6.229255E-1	5.909125E-1	6.114315E-1	6.161173E-1	5.711603E-1	5.938505E-1	5.820016E-1	5.912182E-1	6.323995E-1	5.736427E-1	5.701489E-1	5.850864E-1	5.898639E-1	5.381030E-1	5.730030E-1	6.192903E-1	5.890820E-1	5.726375E-1	5.862888E-1	5.684670E-1	5.988216E-1	5.503200E-1	5.995712E-1	6.092452E-1	6.365070E-1	5.995438E-1	6.116223E-1	5.885423E-1	6.054833E-1	6.183236E-1	5.988925E-1	5.690982E-1	6.103121E-1	5.850109E-1	5.851152E-1	5.975192E-1	5.862617E-1	6.231610E-1	5.004991E-1
2.855070E+2	4.987029E-1	4.589372E-1	5.096683E-1	5.026970E-1	5.173245E-1	4.950362E-1	4.458098E-1	5.113657E-1	5.342679E-1	4.710667E-1	5.188508E-1	4.564423E-1	5.062367E-1	4.944533E-1	5.250508E-1	4.602739E-1	4.555826E-1	5.175201E-1	4.751699E-1	4.649947E-1	4.981643E-1	5.019649E-1	4.934774E-1	4.981804E-1	4.852854E-1	5.202399E-1	4.538839E-1	4.955169E-1	4.904769E-1	4.722023E-1	4.842778E-1	4.663796E-1	4.884178E-1	4.652680E-1	4.932453E-1	5.070043E-1	4.643462E-1	4.721457E-1	5.160780E-1	5.239227E-1	4.864969E-1	5.175203E-1	4.739284E-1	4.861558E-1	4.852668E-1	5.033384E-1	4.672802E-1	5.154144E-1	4.481304E-1	5.046209E-1	4.772786E-1	5.291731E-1	4.985725E-1	5.461202E-1	5.011691E-1	4.858695E-1	4.730806E-1	5.091053E-1	5.092967E-1	5.210957E-1	5.044479E-1	5.412762E-1	5.258220E-1	4.922877E-1	5.074552E-1	5.005742E-1	4.834699E-1	4.740835E-1	4.884230E-1	4.693220E-1	4.694451E-1	4.854170E-1	5.213741E-1	4.812079E-1	4.841794E-1	4.892165E-1	5.181885E-1	5.259263E-1	4.932621E-1	4.965069E-1	5.349116E-1	5.175829E-1	5.116223E-1	4.600145E-1	4.918275E-1	4.914304E-1	4.890779E-1	5.111772E-1	5.382082E-1	4.756105E-1	5.223261E-1	4.724641E-1	4.917141E-1	4.864886E-1	4.895471E-1	4.932555E-1	4.794783E-1	5.702030E-1	4.672697E-1	5.034485E-1	4.760925E-1	4.958916E-1	4.943075E-1	5.007121E-1	4.707985E-1	4.795825E-1	4.753007E-1	4.678485E-1	5.264931E-1	4.861713E-1	4.638536E-1	5.319309E-1	4.718439E-1	4.863539E-1	4.859488E-1	4.956097E-1	4.816934E-1	4.693566E-1	5.047437E-1	5.002737E-1	4.685462E-1	4.737294E-1	5.037954E-1	4.564205E-1	5.135995E-1	5.253258E-1	4.889765E-1	4.893689E-1	4.740011E-1	4.959294E-1	4.882720E-1	5.047755E-1	5.024228E-1	5.018629E-1	5.468982E-1	4.895634E-1	5.166566E-1	5.060628E-1	4.793492E-1	4.912298E-1	5.102921E-1	5.305520E-1	4.887407E-1	5.045367E-1	4.831738E-1	4.996983E-1	5.033802E-1	4.848609E-1	4.982703E-1	4.749363E-1	5.310166E-1	5.109190E-1	4.825469E-1	4.953700E-1	4.865665E-1	4.977634E-1	5.124656E-1	5.026581E-1	5.090899E-1	4.832984E-1	5.047513E-1	4.920617E-1	5.034654E-1	4.832189E-1	5.284062E-1	5.077580E-1
2.856010E+2	4.203015E-1	4.240539E-1	4.291240E-1	4.472088E-1	4.360457E-1	4.181459E-1	4.543597E-1	4.445170E-1	4.304360E-1	3.952281E-1	3.909299E-1	4.178757E-1	4.019188E-1	4.081942E-1	4.110246E-1	4.516739E-1	4.475384E-1	4.336428E-1	4.064254E-1	4.226049E-1	4.324480E-1	4.244230E-1	3.942338E-1	4.344237E-1	4.323429E-1	4.043590E-1	4.214261E-1	4.264642E-1	4.570957E-1	4.211919E-1	4.015709E-1	4.434540E-1	4.103365E-1	4.277739E-1	4.503365E-1	4.195116E-1	4.253370E-1	4.284078E-1	4.324254E-1	4.361843E-1	4.190131E-1	4.430163E-1	3.984482E-1	4.178143E-1	4.441607E-1	4.154723E-1	3.643607E-1	4.186800E-1	4.231394E-1	4.444292E-1	4.274849E-1	4.444329E-1	4.000742E-1	4.293251E-1	4.433797E-1	4.473907E-1	4.307317E-1	4.466053E-1	4.493574E-1	4.250137E-1	4.665037E-1	4.335889E-1	4.256058E-1	4.355841E-1	4.528247E-1	4.361974E-1	4.063877E-1	4.410642E-1	4.510764E-1	4.522856E-1	4.160502E-1	4.346277E-1	4.337735E-1	4.304185E-1	4.273628E-1	4.534499E-1	4.523953E-1	4.296125E-1	4.184119E-1	4.166938E-1	4.579460E-1	4.358501E-1	4.354897E-1	4.126221E-1	4.515053E-1	3.870709E-1	4.540885E-1	4.210572E-1	4.401292E-1	4.539591E-1	4.499685E-1	4.597572E-1	4.561486E-1	4.466923E-1	4.698852E-1	4.273951E-1	4.346631E-1	4.476802E-1	4.625857E-1	4.579501E-1	3.989828E-1	4.043569E-1	3.965545E-1	4.180457E-1	4.124854E-1	4.246848E-1	4.471464E-1	4.595236E-1	4.441868E-1	4.765103E-1	4.611608E-1	4.258121E-1	4.439737E-1	4.607084E-1	4.485759E-1	4.223793E-1	4.613722E-1	4.352270E-1	4.527687E-1	4.207986E-1	4.558244E-1	4.333932E-1	4.728012E-1	4.648885E-1	4.406470E-1	4.316214E-1	4.639049E-1	4.341997E-1	3.843702E-1	4.704408E-1	4.868258E-1	4.184337E-1	4.645371E-1	4.619307E-1	4.806523E-1	4.494398E-1	4.389326E-1	4.248402E-1	4.149244E-1	4.322967E-1	4.380328E-1	4.007018E-1	4.234007E-1	4.305632E-1	4.327685E-1	4.635103E-1	4.255127E-1	4.316836E-1	4.114607E-1	4.376259E-1	4.585199E-1	4.117152E-1	4.615331E-1	4.537112E-1	4.185110E-1	4.722559E-1	4.160272E-1	4.708242E-1	4.320540E-1	4.277119E-1	3.798907E-1	4.675581E-1	4.611637E-1	4.384460E-1	4.661415E-1	5.022964E-1
2.858030E+2	5.694292E-1	5.584376E-1	5.221625E-1	5.096788E-1	6.148230E-1	5.676941E-1	5.566936E-1	5.428332E-1	5.575956E-1	5.603520E-1	5.006133E-1	5.143955E-1	5.230450E-1	5.462171E-1	5.527279E-1	5.046072E-1	5.365682E-1	5.167561E-1	5.645913E-1	5.186366E-1	5.307134E-1	5.680196E-1	5.335273E-1	5.339940E-1	5.683477E-1	5.459325E-1	5.677937E-1	5.394880E-1	5.782138E-1	5.211332E-1	5.586238E-1	5.478337E-1	5.600759E-1	5.244847E-1	5.395476E-1	5.338428E-1	5.550953E-1	5.651771E-1	5.258592E-1	5.274143E-1	5.172809E-1	5.285130E-1	5.293217E-1	5.604669E-1	5.791818E-1	5.406730E-1	5.495789E-1	5.339383E-1	5.296458E-1	5.535561E-1	5.292549E-1	5.364360E-1	5.654847E-1	5.355576E-1	5.347845E-1	5.343112E-1	5.097998E-1	5.976503E-1	5.563091E-1	5.315173E-1	5.155844E-1	5.721580E-1	5.697802E-1	5.407784E-1	5.490379E-1	5.290895E-1	5.462864E-1	5.549434E-1	5.211844E-1	5.631854E-1	5.494052E-1	5.037622E-1	5.844057E-1	5.506790E-1	5.582359E-1	5.301966E-1	5.335257E-1	5.090958E-1	5.901659E-1	5.304625E-1	5.630648E-1	5.412837E-1	5.936896E-1	5.614271E-1	5.603552E-1	5.351978E-1	5.553668E-1	5.299559E-1	5.656430E-1	5.292775E-1	5.091454E-1	5.482379E-1	5.087304E-1	5.438240E-1	5.681251E-1	5.144638E-1	5.582895E-1	5.440326E-1	5.217910E-1	5.621666E-1	5.767401E-1	5.436291E-1	5.842004E-1	5.545110E-1	5.681014E-1	5.038394E-1	5.319677E-1	5.268346E-1	5.184053E-1	5.522794E-1	5.267338E-1	5.479055E-1	5.147793E-1	4.998621E-1	5.527689E-1	5.240227E-1	5.870741E-1	5.594227E-1	5.359483E-1	5.371284E-1	5.262117E-1	5.381072E-1	5.625486E-1	5.549189E-1	5.600821E-1	5.481334E-1	5.396403E-1	5.417013E-1	5.246043E-1	5.871709E-1	5.450511E-1	5.502215E-1	5.699806E-1	5.636608E-1	5.522362E-1	5.568197E-1	5.874765E-1	5.310311E-1	5.476012E-1	5.417105E-1	5.380981E-1	5.369417E-1	5.983338E-1	5.863646E-1	5.435004E-1	5.319429E-1	5.530019E-1	5.643802E-1	5.584376E-1	5.313837E-1	5.839294E-1	5.512932E-1	5.627223E-1	5.358346E-1	5.608229E-1	5.864929E-1	5.527736E-1	5.998334E-1	5.556259E-1	5.559023E-1	5.533733E-1	5.481934E-1	5.589068E-1	5.928274E-1	5.501075E-1	5.784649E-1
2.860040E+2	7.780067E-1	7.891559E-1	7.500665E-1	7.807939E-1	7.706861E-1	8.333213E-1	7.913109E-1	7.806751E-1	8.231330E-1	7.973406E-1	8.082096E-1	7.754271E-1	8.280148E-1	7.837532E-1	7.809772E-1	7.959708E-1	8.112310E-1	7.876390E-1	7.491314E-1	7.882721E-1	7.524753E-1	7.884971E-1	7.770066E-1	7.931451E-1	7.647159E-1	8.141596E-1	8.010276E-1	7.511718E-1	7.752481E-1	7.954311E-1	7.991128E-1	7.613077E-1	8.068462E-1	7.756068E-1	8.346699E-1	8.325918E-1	7.712247E-1	7.579246E-1	8.091147E-1	7.954885E-1	7.670202E-1	8.368660E-1	8.240917E-1	7.950487E-1	8.079157E-1	8.191670E-1	8.027038E-1	7.730484E-1	7.413181E-1	7.977224E-1	8.037649E-1	8.666082E-1	7.941343E-1	7.756342E-1	8.091898E-1	7.483021E-1	7.885139E-1	7.553619E-1	7.775737E-1	8.172525E-1	8.261398E-1	8.329993E-1	7.652284E-1	8.033566E-1	8.247574E-1	7.871266E-1	8.039000E-1	8.069779E-1	7.991059E-1	7.716887E-1	7.884385E-1	7.763401E-1	7.756257E-1	8.222351E-1	7.705805E-1	8.007192E-1	8.084722E-1	8.524524E-1	8.140107E-1	7.961233E-1	7.546485E-1	8.121044E-1	7.981063E-1	7.904800E-1	8.109878E-1	7.743224E-1	7.984234E-1	7.841772E-1	8.122993E-1	8.165976E-1	8.249193E-1	7.932872E-1	7.994190E-1	8.041548E-1	7.358897E-1	8.294150E-1	8.461765E-1	8.221700E-1	7.890032E-1	8.139429E-1	7.475129E-1	7.995153E-1	7.704834E-1	8.088320E-1	7.934416E-1	7.983492E-1	7.518285E-1	7.995633E-1	8.176940E-1	8.141638E-1	8.194448E-1	7.630716E-1	8.236714E-1	7.866407E-1	7.486532E-1	8.162007E-1	8.256666E-1	8.020525E-1	7.592613E-1	7.509882E-1	8.128532E-1	8.412479E-1	8.738715E-1	8.422090E-1	7.766461E-1	7.577949E-1	8.339838E-1	8.317338E-1	7.915335E-1	7.613821E-1	7.839275E-1	8.168365E-1	7.971672E-1	8.379027E-1	7.869381E-1	8.132372E-1	7.795804E-1	7.655448E-1	7.597614E-1	8.619776E-1	7.665106E-1	7.729264E-1	7.938376E-1	8.127060E-1	8.301475E-1	7.384396E-1	7.953590E-1	8.073621E-1	8.006976E-1	7.479626E-1	7.681700E-1	8.363876E-1	7.622411E-1	8.188823E-1	8.182153E-1	8.007738E-1	8.009089E-1	8.506433E-1	7.766544E-1	7.872828E-1	8.493295E-1	8.406289E-1	8.198908E-1	8.351640E-1	8.192089E-1	8.877007E-1
2.862030E+2	1.238014E+0	1.172557E+0	1.164008E+0	1.164966E+0	1.179852E+0	1.176087E+0	1.091252E+0	1.130361E+0	1.211226E+0	1.158078E+0	1.108371E+0	1.117678E+0	1.144463E+0	1.106867E+0	1.150428E+0	1.176097E+0	1.219290E+0	1.150269E+0	1.166065E+0	1.197343E+0	1.133477E+0	1.145726E+0	1.111621E+0	1.182391E+0	1.228886E+0	1.171008E+0	1.143610E+0	1.112559E+0	1.088955E+0	1.200168E+0	1.181870E+0	1.090640E+0	1.157085E+0	1.194607E+0	1.156925E+0	1.189952E+0	1.143046E+0	1.110504E+0	1.150024E+0	1.171960E+0	1.167831E+0	1.185987E+0	1.170394E+0	1.158258E+0	1.201952E+0	1.171841E+0	1.169794E+0	1.149829E+0	1.170469E+0	1.194226E+0	1.092606E+0	1.277699E+0	1.146402E+0	1.209740E+0	1.218248E+0	1.174365E+0	1.177623E+0	1.175743E+0	1.193895E+0	1.209573E+0	1.143246E+0	1.194709E+0	1.177967E+0	1.134824E+0	1.164520E+0	1.178801E+0	1.176246E+0	1.123666E+0	1.169752E+0	1.183489E+0	1.174577E+0	1.120518E+0	1.199775E+0	1.164365E+0	1.218281E+0	1.157781E+0	1.137044E+0	1.194971E+0	1.119945E+0	1.148869E+0	1.165534E+0	1.195129E+0	1.164298E+0	1.139723E+0	1.174052E+0	1.089729E+0	1.119305E+0	1.123788E+0	1.188189E+0	1.126584E+0	1.211559E+0	1.167729E+0	1.095151E+0	1.167131E+0	1.209453E+0	1.153438E+0	1.143934E+0	1.209118E+0	1.153234E+0	1.193114E+0	1.177985E+0	1.152925E+0	1.144887E+0	1.207103E+0	1.187790E+0	1.197201E+0	1.109449E+0	1.142481E+0	1.121533E+0	1.192918E+0	1.110415E+0	1.190106E+0	1.163003E+0	1.122875E+0	1.128391E+0	1.175627E+0	1.188932E+0	1.209236E+0	1.197634E+0	1.201126E+0	1.128340E+0	1.202322E+0	1.197953E+0	1.178751E+0	1.187158E+0	1.207678E+0	1.137836E+0	1.184674E+0	1.189676E+0	1.140713E+0	1.242283E+0	1.171916E+0	1.137301E+0	1.145649E+0	1.170763E+0	1.189478E+0	1.182681E+0	1.155872E+0	1.192039E+0	1.175795E+0	1.180108E+0	1.090604E+0	1.142709E+0	1.187775E+0	1.090670E+0	1.179273E+0	1.211926E+0	1.180011E+0	1.201171E+0	1.194074E+0	1.187121E+0	1.199453E+0	1.178188E+0	1.159163E+0	1.198300E+0	1.168386E+0	1.184948E+0	1.132124E+0	1.182297E+0	1.188234E+0	1.178809E+0	1.194190E+0	1.175376E+0	1.140718E+0	1.149688E+0	1.113099E+0
2.864180E+2	1.277634E+0	1.259919E+0	1.231695E+0	1.293310E+0	1.374178E+0	1.266754E+0	1.206271E+0	1.215340E+0	1.256427E+0	1.255644E+0	1.238997E+0	1.233533E+0	1.215447E+0	1.201902E+0	1.273606E+0	1.286345E+0	1.312189E+0	1.222310E+0	1.196643E+0	1.232721E+0	1.288896E+0	1.219292E+0	1.281991E+0	1.326538E+0	1.251305E+0	1.302706E+0	1.267045E+0	1.206709E+0	1.305613E+0	1.257350E+0	1.222846E+0	1.224793E+0	1.246487E+0	1.215677E+0	1.375264E+0	1.278876E+0	1.237540E+0	1.189793E+0	1.267371E+0	1.205513E+0	1.222283E+0	1.257116E+0	1.213836E+0	1.310294E+0	1.260216E+0	1.194389E+0	1.262958E+0	1.277455E+0	1.235900E+0	1.260309E+0	1.259211E+0	1.242695E+0	1.187419E+0	1.266726E+0	1.180957E+0	1.284963E+0	1.254026E+0	1.193572E+0	1.252357E+0	1.312376E+0	1.338870E+0	1.288058E+0	1.261081E+0	1.289930E+0	1.312966E+0	1.226049E+0	1.227598E+0	1.251761E+0	1.301205E+0	1.297017E+0	1.263247E+0	1.232068E+0	1.276906E+0	1.247978E+0	1.242220E+0	1.319868E+0	1.239680E+0	1.327110E+0	1.263999E+0	1.251887E+0	1.218606E+0	1.264586E+0	1.225272E+0	1.271573E+0	1.290696E+0	1.203682E+0	1.211138E+0	1.243394E+0	1.289155E+0	1.264103E+0	1.267505E+0	1.242407E+0	1.256086E+0	1.267074E+0	1.230880E+0	1.285428E+0	1.265489E+0	1.314084E+0	1.268144E+0	1.279532E+0	1.228658E+0	1.238789E+0	1.257210E+0	1.214094E+0	1.234632E+0	1.280189E+0	1.221582E+0	1.254029E+0	1.248992E+0	1.263206E+0	1.267225E+0	1.270014E+0	1.264049E+0	1.226496E+0	1.255705E+0	1.324654E+0	1.295174E+0	1.225369E+0	1.234131E+0	1.316248E+0	1.233942E+0	1.313526E+0	1.301634E+0	1.205484E+0	1.283618E+0	1.299024E+0	1.261988E+0	1.314664E+0	1.283060E+0	1.264000E+0	1.208256E+0	1.225791E+0	1.236212E+0	1.255382E+0	1.281743E+0	1.249518E+0	1.251347E+0	1.274642E+0	1.295227E+0	1.184054E+0	1.271436E+0	1.287704E+0	1.265379E+0	1.289860E+0	1.229016E+0	1.277650E+0	1.255493E+0	1.262769E+0	1.240130E+0	1.288860E+0	1.248770E+0	1.259458E+0	1.286124E+0	1.310396E+0	1.262757E+0	1.319551E+0	1.299205E+0	1.217494E+0	1.253697E+0	1.305823E+0	1.198980E+0	1.271298E+0	1.323646E+0	1.328109E+0	1.252827E+0	1.282024E+0
2.866150E+2	1.253961E+0	1.221949E+0	1.243758E+0	1.216252E+0	1.298947E+0	1.254358E+0	1.206258E+0	1.241392E+0	1.314751E+0	1.193082E+0	1.203988E+0	1.220307E+0	1.244607E+0	1.197755E+0	1.249727E+0	1.225307E+0	1.270599E+0	1.221107E+0	1.178759E+0	1.214850E+0	1.194267E+0	1.245863E+0	1.236535E+0	1.272835E+0	1.245406E+0	1.230791E+0	1.283712E+0	1.270020E+0	1.231469E+0	1.207531E+0	1.233754E+0	1.226112E+0	1.245379E+0	1.189484E+0	1.213868E+0	1.249391E+0	1.269623E+0	1.202096E+0	1.284797E+0	1.226765E+0	1.250823E+0	1.271960E+0	1.251903E+0	1.292127E+0	1.324115E+0	1.268666E+0	1.258200E+0	1.268096E+0	1.198644E+0	1.256229E+0	1.245290E+0	1.290210E+0	1.157183E+0	1.270348E+0	1.229084E+0	1.244546E+0	1.182126E+0	1.261049E+0	1.220595E+0	1.301823E+0	1.270745E+0	1.242303E+0	1.275997E+0	1.232062E+0	1.289572E+0	1.207277E+0	1.225588E+0	1.243475E+0	1.256618E+0	1.231352E+0	1.270181E+0	1.297242E+0	1.265621E+0	1.231409E+0	1.268628E+0	1.241127E+0	1.198978E+0	1.250055E+0	1.286910E+0	1.263715E+0	1.262357E+0	1.253783E+0	1.257287E+0	1.255906E+0	1.260224E+0	1.179664E+0	1.226022E+0	1.272672E+0	1.274430E+0	1.197487E+0	1.173937E+0	1.219582E+0	1.216882E+0	1.211227E+0	1.184595E+0	1.244603E+0	1.249946E+0	1.276718E+0	1.229143E+0	1.292871E+0	1.248169E+0	1.252519E+0	1.254151E+0	1.223000E+0	1.222668E+0	1.239863E+0	1.216122E+0	1.273858E+0	1.278550E+0	1.305778E+0	1.242042E+0	1.215793E+0	1.223182E+0	1.236980E+0	1.236553E+0	1.228975E+0	1.212850E+0	1.269362E+0	1.249357E+0	1.200573E+0	1.224587E+0	1.227609E+0	1.206024E+0	1.172732E+0	1.197776E+0	1.297515E+0	1.245499E+0	1.222406E+0	1.254410E+0	1.312987E+0	1.238466E+0	1.259748E+0	1.231850E+0	1.208139E+0	1.258940E+0	1.255214E+0	1.258548E+0	1.225269E+0	1.227639E+0	1.247537E+0	1.245046E+0	1.281396E+0	1.266639E+0	1.250127E+0	1.278032E+0	1.226565E+0	1.263698E+0	1.262753E+0	1.261341E+0	1.242082E+0	1.252433E+0	1.241669E+0	1.264711E+0	1.263867E+0	1.230059E+0	1.229545E+0	1.240755E+0	1.277384E+0	1.208650E+0	1.216891E+0	1.264468E+0	1.259317E+0	1.307392E+0	1.193628E+0	1.225840E+0	1.200817E+0
2.868020E+2	1.467351E+0	1.416779E+0	1.453817E+0	1.486976E+0	1.506394E+0	1.440002E+0	1.437739E+0	1.432771E+0	1.526582E+0	1.425628E+0	1.440889E+0	1.436804E+0	1.466593E+0	1.384291E+0	1.487785E+0	1.415812E+0	1.388264E+0	1.400155E+0	1.470423E+0	1.396736E+0	1.453089E+0	1.436097E+0	1.433620E+0	1.404500E+0	1.409966E+0	1.415779E+0	1.425272E+0	1.387767E+0	1.478996E+0	1.456160E+0	1.463214E+0	1.389339E+0	1.426908E+0	1.485841E+0	1.475266E+0	1.484790E+0	1.464096E+0	1.417811E+0	1.428605E+0	1.413519E+0	1.498609E+0	1.464708E+0	1.417723E+0	1.460716E+0	1.379476E+0	1.443287E+0	1.442662E+0	1.375948E+0	1.462686E+0	1.439000E+0	1.426051E+0	1.464935E+0	1.400787E+0	1.410385E+0	1.392604E+0	1.437909E+0	1.433611E+0	1.391073E+0	1.480603E+0	1.474430E+0	1.444783E+0	1.473769E+0	1.498556E+0	1.483441E+0	1.471276E+0	1.390800E+0	1.459080E+0	1.409081E+0	1.450218E+0	1.453259E+0	1.455802E+0	1.447599E+0	1.452748E+0	1.469617E+0	1.466641E+0	1.456258E+0	1.426836E+0	1.427838E+0	1.503474E+0	1.457995E+0	1.452738E+0	1.414400E+0	1.436070E+0	1.441910E+0	1.531455E+0	1.443275E+0	1.444317E+0	1.452078E+0	1.474124E+0	1.444036E+0	1.497989E+0	1.419390E+0	1.470906E+0	1.441147E+0	1.470690E+0	1.468741E+0	1.383094E+0	1.395661E+0	1.521277E+0	1.503118E+0	1.465937E+0	1.355831E+0	1.477789E+0	1.422534E+0	1.452151E+0	1.551736E+0	1.529669E+0	1.448644E+0	1.512493E+0	1.514413E+0	1.418292E+0	1.439252E+0	1.399763E+0	1.434458E+0	1.412242E+0	1.452025E+0	1.394338E+0	1.430942E+0	1.381594E+0	1.489375E+0	1.401141E+0	1.395955E+0	1.473986E+0	1.426089E+0	1.442892E+0	1.426912E+0	1.474520E+0	1.436757E+0	1.375618E+0	1.481774E+0	1.445120E+0	1.409851E+0	1.494857E+0	1.406145E+0	1.422539E+0	1.461816E+0	1.460758E+0	1.432774E+0	1.422545E+0	1.464760E+0	1.439997E+0	1.413486E+0	1.565726E+0	1.452575E+0	1.448222E+0	1.457970E+0	1.458891E+0	1.445106E+0	1.431666E+0	1.476175E+0	1.430813E+0	1.464555E+0	1.404729E+0	1.512337E+0	1.496771E+0	1.427269E+0	1.414064E+0	1.429566E+0	1.424762E+0	1.579871E+0	1.418799E+0	1.398913E+0	1.437714E+0	1.443815E+0	1.486409E+0	1.420818E+0
2.870160E+2	1.218399E+0	1.204640E+0	1.193455E+0	1.232054E+0	1.182052E+0	1.194622E+0	1.183120E+0	1.190523E+0	1.189904E+0	1.214483E+0	1.157481E+0	1.189211E+0	1.186369E+0	1.142627E+0	1.191348E+0	1.199934E+0	1.208440E+0	1.124526E+0	1.177618E+0	1.199364E+0	1.241928E+0	1.173942E+0	1.157219E+0	1.213987E+0	1.206815E+0	1.170817E+0	1.240727E+0	1.185817E+0	1.159140E+0	1.174842E+0	1.127718E+0	1.167568E+0	1.178050E+0	1.187609E+0	1.209677E+0	1.220374E+0	1.217221E+0	1.190228E+0	1.214023E+0	1.235751E+0	1.190745E+0	1.153114E+0	1.195331E+0	1.145249E+0	1.265637E+0	1.245724E+0	1.185166E+0	1.164011E+0	1.196134E+0	1.183014E+0	1.232792E+0	1.275545E+0	1.177922E+0	1.286487E+0	1.211235E+0	1.149612E+0	1.190990E+0	1.206789E+0	1.234756E+0	1.233262E+0	1.179649E+0	1.234332E+0	1.259521E+0	1.204833E+0	1.163449E+0	1.162695E+0	1.198707E+0	1.186964E+0	1.174241E+0	1.205454E+0	1.175970E+0	1.194186E+0	1.171894E+0	1.184589E+0	1.194048E+0	1.126616E+0	1.187739E+0	1.217558E+0	1.189795E+0	1.172698E+0	1.212484E+0	1.167421E+0	1.233664E+0	1.185674E+0	1.237274E+0	1.169061E+0	1.175585E+0	1.186648E+0	1.174838E+0	1.153980E+0	1.243994E+0	1.195312E+0	1.169100E+0	1.199626E+0	1.258875E+0	1.231722E+0	1.215008E+0	1.186503E+0	1.163826E+0	1.261770E+0	1.266335E+0	1.194591E+0	1.151790E+0	1.152603E+0	1.221083E+0	1.207791E+0	1.225721E+0	1.157579E+0	1.226172E+0	1.186863E+0	1.184681E+0	1.208169E+0	1.184370E+0	1.130072E+0	1.214514E+0	1.236114E+0	1.186262E+0	1.182648E+0	1.257372E+0	1.190895E+0	1.214438E+0	1.273480E+0	1.218912E+0	1.172374E+0	1.206123E+0	1.157947E+0	1.187814E+0	1.187361E+0	1.172743E+0	1.214934E+0	1.240783E+0	1.195704E+0	1.233648E+0	1.178110E+0	1.206837E+0	1.223598E+0	1.142210E+0	1.179042E+0	1.244736E+0	1.197458E+0	1.142444E+0	1.266934E+0	1.191430E+0	1.148374E+0	1.194895E+0	1.171608E+0	1.236423E+0	1.172903E+0	1.239392E+0	1.186062E+0	1.183208E+0	1.219915E+0	1.191097E+0	1.226331E+0	1.157922E+0	1.238192E+0	1.184354E+0	1.222131E+0	1.202160E+0	1.218069E+0	1.204144E+0	1.201543E+0	1.236102E+0	1.178189E+0	1.203565E+0	1.194909E+0
2.872070E+2	1.105253E+0	1.059368E+0	1.033352E+0	1.006282E+0	1.087226E+0	1.065556E+0	1.050052E+0	1.066276E+0	1.109375E+0	1.068534E+0	1.039321E+0	1.031130E+0	9.749133E-1	1.034520E+0	1.044667E+0	1.095145E+0	1.029942E+0	1.003956E+0	1.058277E+0	1.044699E+0	1.088716E+0	1.029853E+0	1.076811E+0	1.029164E+0	1.052377E+0	1.028330E+0	1.034996E+0	1.018974E+0	1.064691E+0	1.089348E+0	1.048626E+0	1.028313E+0	1.029684E+0	9.825155E-1	1.009791E+0	1.056935E+0	1.066400E+0	1.087299E+0	1.081935E+0	1.114518E+0	1.070794E+0	1.072924E+0	1.039021E+0	1.073897E+0	1.068184E+0	1.043824E+0	1.110854E+0	1.036853E+0	1.008230E+0	1.021771E+0	1.028068E+0	1.037752E+0	9.935712E-1	1.057321E+0	1.014709E+0	1.008532E+0	1.098927E+0	9.890955E-1	1.071410E+0	1.045060E+0	1.105072E+0	1.038014E+0	1.059466E+0	1.043636E+0	1.114459E+0	1.041067E+0	1.070792E+0	1.076151E+0	1.088366E+0	1.079005E+0	1.043531E+0	9.877460E-1	1.077354E+0	1.048240E+0	1.043426E+0	1.060472E+0	1.035183E+0	1.133581E+0	1.105940E+0	1.054525E+0	1.029728E+0	1.036453E+0	1.080087E+0	1.042063E+0	1.110414E+0	1.089798E+0	1.045854E+0	1.149743E+0	1.085387E+0	1.020809E+0	1.064210E+0	1.078907E+0	1.079794E+0	9.941243E-1	1.056674E+0	1.064943E+0	1.076720E+0	1.083284E+0	1.032574E+0	1.093322E+0	1.096289E+0	1.090806E+0	1.081862E+0	1.070588E+0	1.060540E+0	1.043114E+0	1.087004E+0	1.088440E+0	1.079059E+0	1.077090E+0	1.075861E+0	1.116118E+0	1.085920E+0	1.070727E+0	1.066800E+0	1.079577E+0	1.041045E+0	9.836645E-1	1.096830E+0	1.059534E+0	1.078885E+0	1.021123E+0	1.102211E+0	1.062946E+0	1.081037E+0	1.059468E+0	1.164902E+0	1.062967E+0	1.074894E+0	1.173300E+0	1.111778E+0	1.059676E+0	1.114274E+0	1.088252E+0	1.075746E+0	1.077349E+0	1.096217E+0	1.033650E+0	1.081912E+0	1.069124E+0	1.043511E+0	1.074576E+0	1.110844E+0	1.059291E+0	1.011461E+0	1.048181E+0	1.077781E+0	1.015500E+0	1.086441E+0	1.030701E+0	1.106365E+0	1.096191E+0	1.093848E+0	1.087769E+0	1.097735E+0	1.098274E+0	1.061187E+0	1.062176E+0	1.070720E+0	1.093842E+0	1.090017E+0	1.015431E+0	1.079098E+0	1.121440E+0	1.023977E+0	1.028063E+0
2.874000E+2	9.466046E-1	8.538396E-1	9.073238E-1	9.138937E-1	9.431636E-1	9.258528E-1	8.994849E-1	9.247149E-1	9.060400E-1	9.321350E-1	8.930704E-1	8.664920E-1	9.422813E-1	8.434972E-1	9.105016E-1	9.030075E-1	8.837688E-1	8.716993E-1	9.465440E-1	9.088449E-1	8.878664E-1	8.812816E-1	8.639137E-1	8.995660E-1	9.215194E-1	8.820794E-1	9.207643E-1	9.054493E-1	9.305254E-1	9.126969E-1	9.073699E-1	9.231189E-1	8.986324E-1	8.964892E-1	9.480846E-1	9.534869E-1	8.620844E-1	8.741268E-1	8.772582E-1	9.399342E-1	9.049124E-1	9.162931E-1	8.560750E-1	8.995579E-1	8.819925E-1	9.149230E-1	9.143109E-1	9.294260E-1	9.135935E-1	9.090592E-1	9.013561E-1	9.112884E-1	8.814272E-1	9.325390E-1	9.163111E-1	8.993329E-1	9.055837E-1	9.248857E-1	9.528770E-1	9.016519E-1	8.788725E-1	9.402323E-1	9.560693E-1	8.922579E-1	9.445262E-1	9.379243E-1	9.049544E-1	9.407115E-1	9.009757E-1	9.610135E-1	8.755111E-1	9.036575E-1	9.356359E-1	8.919437E-1	8.732554E-1	8.749570E-1	8.538643E-1	9.319756E-1	9.421596E-1	9.434165E-1	9.401522E-1	9.004927E-1	9.469582E-1	8.875541E-1	9.819297E-1	8.896101E-1	9.215726E-1	8.541568E-1	9.676004E-1	8.832361E-1	9.380424E-1	9.080369E-1	9.187074E-1	9.521002E-1	9.174880E-1	9.550238E-1	9.192704E-1	9.250967E-1	9.476376E-1	8.880243E-1	9.782767E-1	9.351293E-1	9.523244E-1	9.069531E-1	9.022226E-1	9.204842E-1	9.028223E-1	9.090554E-1	8.407559E-1	8.927282E-1	9.437181E-1	9.350070E-1	9.300023E-1	9.082476E-1	8.654365E-1	9.067173E-1	8.730964E-1	9.476304E-1	9.020868E-1	8.823924E-1	9.280742E-1	8.780798E-1	9.329200E-1	9.227717E-1	9.334258E-1	9.360913E-1	9.477368E-1	9.361582E-1	8.605949E-1	8.983395E-1	9.365707E-1	8.867280E-1	9.436640E-1	9.101671E-1	9.131928E-1	8.866368E-1	8.889626E-1	9.505005E-1	9.051853E-1	9.412213E-1	8.989969E-1	8.812940E-1	9.334719E-1	9.059576E-1	9.028070E-1	9.127857E-1	9.306457E-1	9.144751E-1	9.498873E-1	9.062033E-1	8.946429E-1	9.078701E-1	8.946803E-1	9.257353E-1	9.223810E-1	9.409615E-1	9.043752E-1	9.408464E-1	9.349568E-1	9.201783E-1	9.215536E-1	9.112748E-1	9.655827E-1	8.854750E-1	9.216841E-1	1.006874E+0
2.876030E+2	7.857108E-1	7.312238E-1	7.041901E-1	7.931073E-1	7.940569E-1	7.531024E-1	7.598321E-1	7.769158E-1	7.666350E-1	7.343431E-1	7.552785E-1	7.855697E-1	7.688358E-1	7.362172E-1	7.750680E-1	7.781721E-1	8.230303E-1	7.634815E-1	7.781969E-1	7.611629E-1	7.787004E-1	7.605771E-1	7.242045E-1	7.883040E-1	7.870375E-1	7.808110E-1	7.573569E-1	7.595993E-1	7.801066E-1	7.491476E-1	7.773899E-1	7.484776E-1	7.825853E-1	7.674915E-1	7.170967E-1	7.667039E-1	7.831674E-1	7.305101E-1	7.863879E-1	7.705367E-1	7.521541E-1	7.401344E-1	7.182699E-1	7.610150E-1	7.801131E-1	7.655867E-1	7.391291E-1	7.652882E-1	7.488346E-1	7.719332E-1	7.948539E-1	7.555632E-1	7.292554E-1	8.072030E-1	7.368671E-1	7.537998E-1	7.682461E-1	7.859105E-1	7.813389E-1	7.527074E-1	7.951132E-1	7.780916E-1	7.583419E-1	8.047968E-1	7.547536E-1	7.196704E-1	7.515871E-1	7.859072E-1	7.740485E-1	7.980845E-1	7.843421E-1	7.545107E-1	7.868768E-1	7.796358E-1	7.621573E-1	7.708010E-1	7.657873E-1	7.621870E-1	7.887062E-1	7.765129E-1	7.435366E-1	7.595790E-1	8.343398E-1	7.649544E-1	7.430658E-1	8.089765E-1	7.856446E-1	7.470552E-1	8.230580E-1	6.994762E-1	8.115816E-1	8.008136E-1	7.305688E-1	7.672230E-1	8.000840E-1	7.720777E-1	7.604240E-1	7.899111E-1	7.454489E-1	7.979490E-1	7.831689E-1	7.483438E-1	8.015795E-1	7.888441E-1	7.673807E-1	7.822686E-1	7.504653E-1	7.440915E-1	7.956776E-1	7.883311E-1	7.988959E-1	7.831184E-1	7.355439E-1	7.305928E-1	7.863273E-1	7.573201E-1	7.929600E-1	7.149400E-1	8.144210E-1	7.480371E-1	7.754694E-1	7.618100E-1	7.764338E-1	7.287725E-1	7.720369E-1	7.891563E-1	7.619784E-1	7.189676E-1	7.437801E-1	7.318362E-1	7.569637E-1	7.462848E-1	8.213364E-1	7.817112E-1	7.518930E-1	7.650115E-1	7.426070E-1	7.851468E-1	8.173360E-1	8.049359E-1	7.727475E-1	8.057765E-1	8.195162E-1	7.772322E-1	7.564431E-1	7.157942E-1	7.792897E-1	8.068799E-1	7.745438E-1	6.871063E-1	7.544375E-1	8.245263E-1	7.605262E-1	7.881322E-1	7.567571E-1	8.285012E-1	7.750468E-1	7.769909E-1	7.969694E-1	8.027383E-1	8.211565E-1	8.055502E-1	7.831592E-1	7.953060E-1	7.915508E-1	6.983315E-1
2.878050E+2	6.852711E-1	6.087646E-1	6.285894E-1	6.164555E-1	6.571088E-1	6.154160E-1	6.069987E-1	6.450430E-1	6.409969E-1	6.146659E-1	6.616880E-1	6.253877E-1	6.289744E-1	6.353863E-1	6.438532E-1	6.198471E-1	6.546072E-1	6.747631E-1	6.007865E-1	6.849143E-1	6.415222E-1	6.339227E-1	6.188510E-1	6.121396E-1	6.226816E-1	6.354794E-1	6.595879E-1	6.192532E-1	6.463426E-1	6.217053E-1	6.486064E-1	6.849985E-1	6.276743E-1	6.478389E-1	6.857571E-1	6.711143E-1	6.546560E-1	6.331649E-1	6.612113E-1	6.714534E-1	6.195305E-1	6.300188E-1	6.413465E-1	6.503192E-1	6.814423E-1	6.413387E-1	6.827608E-1	6.434909E-1	6.154013E-1	6.677978E-1	6.560334E-1	6.813705E-1	6.310168E-1	6.534587E-1	5.740619E-1	6.501154E-1	6.300392E-1	6.033291E-1	6.474100E-1	6.307480E-1	6.216673E-1	6.445576E-1	6.377021E-1	6.178693E-1	6.402799E-1	6.115714E-1	6.213781E-1	6.640638E-1	6.375996E-1	6.672013E-1	6.201674E-1	6.447700E-1	6.609929E-1	6.586454E-1	6.135931E-1	6.784686E-1	6.323493E-1	6.271748E-1	6.373629E-1	6.964792E-1	6.636957E-1	6.006470E-1	6.601008E-1	6.757659E-1	6.633655E-1	6.242143E-1	6.364176E-1	6.123438E-1	6.643831E-1	6.144989E-1	6.822012E-1	5.859301E-1	6.525863E-1	6.456697E-1	6.589496E-1	6.330256E-1	6.413134E-1	6.203320E-1	5.968682E-1	6.803358E-1	6.476590E-1	6.472282E-1	6.344345E-1	6.067926E-1	5.906335E-1	6.646409E-1	6.735533E-1	6.152412E-1	6.221284E-1	6.376380E-1	6.455556E-1	6.511582E-1	6.575221E-1	6.279624E-1	5.952361E-1	6.682087E-1	6.491010E-1	6.526078E-1	6.893243E-1	6.452421E-1	6.354352E-1	6.413509E-1	6.861041E-1	6.557314E-1	6.572701E-1	6.290594E-1	6.550543E-1	6.506555E-1	6.376745E-1	6.418237E-1	6.056456E-1	6.593554E-1	6.752957E-1	6.514153E-1	6.364236E-1	6.214072E-1	6.208026E-1	6.497502E-1	6.569812E-1	6.813084E-1	6.067370E-1	6.276538E-1	7.319647E-1	6.335386E-1	6.711470E-1	6.436308E-1	6.903860E-1	6.575229E-1	6.449804E-1	6.871549E-1	6.656878E-1	6.634186E-1	6.579117E-1	6.316642E-1	6.965611E-1	6.450937E-1	6.735171E-1	6.360182E-1	6.473569E-1	6.493330E-1	6.305461E-1	6.553759E-1	6.547337E-1	6.473153E-1	7.173156E-1	6.753724E-1
2.880020E+2	6.355346E-1	6.126302E-1	6.083030E-1	6.658327E-1	6.375759E-1	6.010063E-1	5.684442E-1	6.344001E-1	6.848093E-1	6.441649E-1	6.110229E-1	6.340921E-1	5.961975E-1	5.809083E-1	6.297463E-1	6.411122E-1	6.161578E-1	5.731136E-1	6.720950E-1	6.175279E-1	6.134727E-1	6.570739E-1	5.982195E-1	6.330212E-1	6.309777E-1	6.402117E-1	6.332640E-1	6.044313E-1	6.341253E-1	6.224933E-1	6.756962E-1	5.999286E-1	6.527917E-1	6.087127E-1	6.237688E-1	6.125088E-1	6.181528E-1	5.939241E-1	6.078769E-1	6.246302E-1	5.929361E-1	6.014320E-1	5.926496E-1	6.281267E-1	6.127670E-1	6.258284E-1	6.364358E-1	6.296477E-1	5.593236E-1	6.179247E-1	6.620026E-1	6.380635E-1	6.165310E-1	6.177257E-1	6.067442E-1	6.492088E-1	6.728819E-1	6.126991E-1	6.205266E-1	6.208713E-1	6.214726E-1	6.059024E-1	6.454635E-1	6.210714E-1	6.319392E-1	5.953337E-1	6.529258E-1	6.166214E-1	6.770889E-1	6.235066E-1	6.390275E-1	6.136525E-1	6.381471E-1	5.857826E-1	5.801450E-1	6.547032E-1	6.027969E-1	6.687666E-1	6.686850E-1	6.173505E-1	6.433169E-1	6.137231E-1	6.444985E-1	6.550809E-1	6.606978E-1	6.125391E-1	6.500180E-1	6.406728E-1	6.306118E-1	6.227191E-1	6.231529E-1	6.368889E-1	6.197763E-1	6.408125E-1	6.498392E-1	5.952910E-1	6.502440E-1	6.072161E-1	5.833947E-1	5.835001E-1	6.566412E-1	6.151537E-1	6.599446E-1	6.487795E-1	6.264531E-1	6.497885E-1	6.367712E-1	6.080766E-1	6.046640E-1	6.144640E-1	6.354617E-1	6.026270E-1	6.038976E-1	6.128034E-1	6.000803E-1	6.294678E-1	6.167433E-1	6.460826E-1	6.296414E-1	6.223526E-1	6.475485E-1	6.493199E-1	6.360167E-1	6.432871E-1	5.910416E-1	6.273687E-1	6.276148E-1	6.108247E-1	6.189484E-1	5.749246E-1	6.676377E-1	6.310532E-1	6.326552E-1	6.168208E-1	6.326367E-1	6.269346E-1	6.512759E-1	6.157823E-1	6.636376E-1	6.530900E-1	6.211713E-1	6.723042E-1	6.641321E-1	6.508016E-1	7.068824E-1	5.963168E-1	6.717541E-1	6.707890E-1	6.221322E-1	6.647422E-1	6.019011E-1	6.530291E-1	6.189755E-1	6.115624E-1	6.312922E-1	6.467559E-1	6.371157E-1	6.468781E-1	6.291015E-1	6.420029E-1	6.007287E-1	6.252810E-1	6.857551E-1	6.222843E-1	5.799863E-1	6.907713E-1
2.882230E+2	8.117833E-1	7.990224E-1	7.957135E-1	7.968083E-1	7.899878E-1	7.974966E-1	7.645198E-1	7.893542E-1	7.712382E-1	7.875419E-1	7.768695E-1	7.750274E-1	8.343536E-1	8.151287E-1	8.108199E-1	8.168254E-1	7.976493E-1	7.688419E-1	8.107468E-1	8.056672E-1	8.172345E-1	8.199963E-1	8.264365E-1	7.791014E-1	7.867379E-1	7.878978E-1	8.682962E-1	7.810577E-1	8.683594E-1	8.119743E-1	8.213613E-1	7.584166E-1	7.876046E-1	7.864548E-1	8.045204E-1	8.196277E-1	7.787912E-1	7.937523E-1	7.726179E-1	8.083713E-1	8.296088E-1	7.728862E-1	7.976510E-1	7.893472E-1	8.830920E-1	8.126211E-1	8.093384E-1	8.155859E-1	8.195821E-1	8.261018E-1	7.644891E-1	8.283975E-1	7.961501E-1	8.125756E-1	8.426247E-1	7.972605E-1	8.205378E-1	7.912027E-1	8.001180E-1	7.930388E-1	8.277455E-1	7.940734E-1	8.077413E-1	7.737335E-1	8.135692E-1	7.789914E-1	8.329217E-1	8.000413E-1	8.387201E-1	8.695441E-1	8.068910E-1	7.997452E-1	8.852237E-1	8.209856E-1	8.166399E-1	8.028348E-1	8.252972E-1	8.392599E-1	8.222633E-1	8.135131E-1	7.956607E-1	8.282291E-1	8.017812E-1	7.761041E-1	7.876482E-1	7.955399E-1	7.912626E-1	7.777336E-1	8.461912E-1	8.171561E-1	7.871693E-1	7.930000E-1	8.388528E-1	8.133604E-1	7.987587E-1	7.957328E-1	8.192582E-1	8.546310E-1	8.026420E-1	8.213681E-1	7.786914E-1	7.954896E-1	8.146731E-1	7.383104E-1	8.225799E-1	7.920026E-1	7.965275E-1	7.615155E-1	7.968082E-1	9.021885E-1	7.939875E-1	8.128486E-1	7.967786E-1	7.731349E-1	8.472323E-1	8.445859E-1	8.058820E-1	8.532675E-1	8.264291E-1	8.157274E-1	8.014320E-1	8.043647E-1	8.017169E-1	7.738945E-1	7.978109E-1	8.196066E-1	7.966156E-1	8.401450E-1	7.812958E-1	7.886842E-1	8.449660E-1	8.374320E-1	8.331130E-1	8.290362E-1	7.824585E-1	7.794331E-1	8.282473E-1	7.852328E-1	8.009342E-1	7.918493E-1	8.359265E-1	8.297272E-1	8.725616E-1	8.729791E-1	8.072803E-1	8.344749E-1	8.326013E-1	7.885607E-1	7.953782E-1	8.105823E-1	7.989513E-1	8.366817E-1	8.177476E-1	8.474832E-1	7.947957E-1	8.534316E-1	7.857408E-1	8.417816E-1	8.494741E-1	8.273238E-1	8.171469E-1	8.448860E-1	8.564389E-1	8.118389E-1	8.485129E-1	7.902823E-1
2.884070E+2	9.573661E-1	1.004968E+0	9.880955E-1	1.014994E+0	1.027240E+0	1.033077E+0	9.817813E-1	9.982571E-1	9.677443E-1	9.828449E-1	9.879942E-1	1.000743E+0	1.016121E+0	9.581262E-1	9.911898E-1	1.054114E+0	9.739636E-1	1.024659E+0	9.706768E-1	1.065303E+0	9.757563E-1	1.046178E+0	9.999252E-1	1.022060E+0	9.310440E-1	1.032523E+0	9.956521E-1	1.015384E+0	9.866181E-1	9.810571E-1	9.952161E-1	9.705964E-1	1.016004E+0	9.803062E-1	1.015405E+0	1.033162E+0	1.025940E+0	9.597551E-1	1.009837E+0	9.846512E-1	1.043853E+0	1.002876E+0	1.006908E+0	1.006045E+0	9.831681E-1	1.030957E+0	9.777824E-1	1.071397E+0	9.516314E-1	9.325593E-1	9.590730E-1	1.051795E+0	9.909707E-1	1.029602E+0	1.002591E+0	1.022768E+0	1.036109E+0	9.362372E-1	9.653696E-1	1.028700E+0	1.044896E+0	1.034823E+0	9.873579E-1	9.903817E-1	1.035843E+0	1.029134E+0	1.005605E+0	9.783460E-1	1.054949E+0	1.052207E+0	1.040810E+0	9.545868E-1	1.016666E+0	1.004153E+0	1.028561E+0	1.019043E+0	9.612224E-1	1.036175E+0	9.971492E-1	9.876769E-1	9.501925E-1	1.022308E+0	1.053648E+0	1.003297E+0	1.003679E+0	1.012652E+0	1.002982E+0	1.009247E+0	1.032255E+0	9.825337E-1	9.991525E-1	9.981598E-1	9.829573E-1	9.639881E-1	9.775497E-1	9.696518E-1	9.942965E-1	1.022180E+0	1.022419E+0	1.016265E+0	1.011649E+0	1.002178E+0	1.050406E+0	9.768153E-1	1.035165E+0	1.049369E+0	9.983606E-1	9.292801E-1	1.012311E+0	1.007118E+0	9.953974E-1	1.027285E+0	9.806888E-1	1.020568E+0	9.472371E-1	1.041867E+0	9.483324E-1	9.844502E-1	1.003224E+0	1.054819E+0	1.008959E+0	9.895718E-1	1.040762E+0	9.743139E-1	9.980457E-1	9.910513E-1	1.063480E+0	9.956096E-1	1.041554E+0	9.938907E-1	9.934004E-1	1.052498E+0	1.001476E+0	9.720293E-1	1.035090E+0	9.997711E-1	1.003277E+0	1.020999E+0	1.007971E+0	9.884101E-1	9.960028E-1	1.018314E+0	1.003203E+0	9.682870E-1	9.963469E-1	1.054802E+0	1.026648E+0	1.001590E+0	1.064973E+0	9.797506E-1	1.037824E+0	1.007361E+0	1.039243E+0	1.079910E+0	1.040953E+0	1.033823E+0	1.048095E+0	1.029978E+0	1.024475E+0	1.035045E+0	1.001487E+0	1.039140E+0	9.971847E-1	8.975947E-1	1.002000E+0	1.035107E+0
2.886030E+2	1.188833E+0	1.163941E+0	1.205985E+0	1.181551E+0	1.239273E+0	1.222132E+0	1.114316E+0	1.141925E+0	1.188538E+0	1.124000E+0	1.185980E+0	1.194206E+0	1.201170E+0	1.093476E+0	1.169192E+0	1.224525E+0	1.181323E+0	1.119676E+0	1.177307E+0	1.248427E+0	1.213908E+0	1.150420E+0	1.182704E+0	1.204325E+0	1.182115E+0	1.166267E+0	1.132794E+0	1.156035E+0	1.193397E+0	1.171686E+0	1.177274E+0	1.183060E+0	1.175229E+0	1.192462E+0	1.164314E+0	1.272426E+0	1.156535E+0	1.105109E+0	1.163994E+0	1.165918E+0	1.116290E+0	1.190325E+0	1.118961E+0	1.180726E+0	1.234937E+0	1.189522E+0	1.193669E+0	1.147535E+0	1.158585E+0	1.162005E+0	1.213618E+0	1.209159E+0	1.125865E+0	1.135833E+0	1.201710E+0	1.233551E+0	1.109591E+0	1.161803E+0	1.152600E+0	1.200514E+0	1.176127E+0	1.186804E+0	1.205687E+0	1.192875E+0	1.212052E+0	1.168161E+0	1.193635E+0	1.129181E+0	1.147971E+0	1.179945E+0	1.208779E+0	1.124946E+0	1.233019E+0	1.101340E+0	1.208892E+0	1.188720E+0	1.125298E+0	1.174240E+0	1.280049E+0	1.236547E+0	1.167254E+0	1.176902E+0	1.184428E+0	1.197435E+0	1.247065E+0	1.183169E+0	1.131588E+0	1.156535E+0	1.222644E+0	1.134645E+0	1.133504E+0	1.173302E+0	1.143388E+0	1.168219E+0	1.184794E+0	1.208927E+0	1.137869E+0	1.178511E+0	1.183622E+0	1.257229E+0	1.154305E+0	1.160635E+0	1.170047E+0	1.172375E+0	1.172712E+0	1.236892E+0	1.170582E+0	1.128266E+0	1.207312E+0	1.203160E+0	1.191292E+0	1.154729E+0	1.170543E+0	1.153912E+0	1.189221E+0	1.224210E+0	1.168541E+0	1.183608E+0	1.181586E+0	1.156936E+0	1.158185E+0	1.133031E+0	1.195322E+0	1.158961E+0	1.166822E+0	1.204107E+0	1.151241E+0	1.130948E+0	1.186741E+0	1.169218E+0	1.212088E+0	1.194531E+0	1.174261E+0	1.171777E+0	1.135472E+0	1.214685E+0	1.178888E+0	1.196796E+0	1.186658E+0	1.158336E+0	1.178974E+0	1.190001E+0	1.185917E+0	1.196393E+0	1.196789E+0	1.167091E+0	1.182198E+0	1.164370E+0	1.201542E+0	1.186538E+0	1.190286E+0	1.171317E+0	1.139797E+0	1.218489E+0	1.218120E+0	1.191213E+0	1.193124E+0	1.152875E+0	1.213961E+0	1.159936E+0	1.180923E+0	1.162370E+0	1.175160E+0	1.172340E+0	1.110182E+0	1.191358E+0
2.887980E+2	1.165284E+0	1.050096E+0	1.045091E+0	1.210946E+0	1.143112E+0	1.095593E+0	1.103863E+0	1.108219E+0	1.145749E+0	1.153344E+0	1.120898E+0	1.177865E+0	1.066578E+0	1.093496E+0	1.142212E+0	1.113152E+0	1.148752E+0	1.088917E+0	1.115407E+0	1.149993E+0	1.127838E+0	1.137655E+0	1.169784E+0	1.193123E+0	1.119227E+0	1.096521E+0	1.182272E+0	1.134848E+0	1.200657E+0	1.084244E+0	1.159035E+0	1.138535E+0	1.193535E+0	1.071448E+0	1.095347E+0	1.169078E+0	1.116273E+0	1.163358E+0	1.106396E+0	1.098202E+0	1.159742E+0	1.081997E+0	1.101508E+0	1.177724E+0	1.185841E+0	1.183099E+0	1.090502E+0	1.158096E+0	1.132724E+0	1.051939E+0	1.127759E+0	1.176319E+0	1.124154E+0	1.158523E+0	1.183726E+0	1.083265E+0	1.145034E+0	1.042004E+0	1.095148E+0	1.138028E+0	1.125966E+0	1.147908E+0	1.110207E+0	1.125195E+0	1.181313E+0	1.160798E+0	1.097775E+0	1.221978E+0	1.149075E+0	1.200053E+0	1.112721E+0	1.142181E+0	1.091605E+0	1.162287E+0	1.155544E+0	1.100558E+0	1.101641E+0	1.142372E+0	1.142067E+0	1.119625E+0	1.169494E+0	1.127323E+0	1.122496E+0	1.123485E+0	1.121636E+0	1.111399E+0	1.215478E+0	1.136280E+0	1.190959E+0	1.099801E+0	1.155539E+0	1.153856E+0	1.175540E+0	1.135836E+0	1.138746E+0	1.125814E+0	1.127077E+0	1.140579E+0	1.122566E+0	1.100473E+0	1.129425E+0	1.072991E+0	1.149268E+0	1.135964E+0	1.167273E+0	1.175460E+0	1.202064E+0	1.155534E+0	1.170479E+0	1.137403E+0	1.085362E+0	1.172813E+0	1.097264E+0	1.098737E+0	1.099840E+0	1.193902E+0	1.133606E+0	1.161477E+0	1.173952E+0	1.153549E+0	1.122262E+0	1.145070E+0	1.109550E+0	1.141099E+0	1.088727E+0	1.146043E+0	1.157081E+0	1.153999E+0	1.096719E+0	1.115280E+0	1.122734E+0	1.126747E+0	1.133063E+0	1.105504E+0	1.149836E+0	1.145276E+0	1.161648E+0	1.113834E+0	1.173184E+0	1.180161E+0	1.094519E+0	1.139089E+0	1.222214E+0	1.123879E+0	1.174637E+0	1.110116E+0	1.131042E+0	1.157981E+0	1.119127E+0	1.109666E+0	1.107473E+0	1.141238E+0	1.148846E+0	1.167212E+0	1.087071E+0	1.093203E+0	1.123897E+0	1.121684E+0	1.120574E+0	1.130543E+0	1.178404E+0	1.125896E+0	1.151622E+0	1.152671E+0	1.166822E+0	1.060733E+0
2.890060E+2	1.105958E+0	1.033948E+0	1.107356E+0	1.049363E+0	1.092126E+0	1.093976E+0	1.030542E+0	1.056265E+0	1.087099E+0	1.036335E+0	1.042739E+0	1.046287E+0	1.029711E+0	1.016583E+0	1.062729E+0	1.067094E+0	1.094160E+0	1.036612E+0	1.079592E+0	1.096118E+0	1.113607E+0	1.028912E+0	1.082139E+0	1.075877E+0	1.060358E+0	1.035982E+0	1.072770E+0	1.014514E+0	1.078905E+0	1.010659E+0	1.095720E+0	1.009956E+0	1.091057E+0	1.059608E+0	1.048724E+0	1.051998E+0	1.070595E+0	1.068365E+0	1.082928E+0	1.091892E+0	1.078182E+0	1.012923E+0	1.059390E+0	1.087343E+0	1.068987E+0	1.043719E+0	1.030307E+0	1.101176E+0	1.036064E+0	1.090294E+0	1.049775E+0	1.069491E+0	1.021274E+0	1.064620E+0	1.070574E+0	1.037667E+0	1.086002E+0	1.082246E+0	1.059842E+0	1.056743E+0	1.118350E+0	1.106982E+0	1.089861E+0	1.068056E+0	1.047435E+0	1.050490E+0	1.050372E+0	1.043386E+0	1.065600E+0	1.068618E+0	1.041322E+0	1.055739E+0	1.142097E+0	1.065599E+0	1.064498E+0	1.075134E+0	1.004246E+0	1.079951E+0	1.082702E+0	1.059250E+0	1.096107E+0	1.071218E+0	1.068171E+0	1.114898E+0	1.068416E+0	1.108537E+0	1.092542E+0	1.074176E+0	9.836297E-1	1.098288E+0	1.054985E+0	1.065722E+0	1.061554E+0	1.066730E+0	1.072187E+0	1.054434E+0	1.068054E+0	1.014287E+0	1.023493E+0	1.126685E+0	1.106287E+0	1.058348E+0	1.082487E+0	1.098783E+0	1.096979E+0	1.095739E+0	1.087471E+0	1.100457E+0	1.055358E+0	1.076275E+0	1.093200E+0	1.051414E+0	1.089327E+0	1.027467E+0	1.050157E+0	1.098132E+0	1.130857E+0	1.103534E+0	1.095365E+0	1.083060E+0	1.030429E+0	1.077318E+0	1.082433E+0	1.090576E+0	1.029025E+0	1.064164E+0	1.104712E+0	1.070501E+0	1.063285E+0	1.044068E+0	1.062470E+0	1.079023E+0	1.089839E+0	1.085449E+0	1.071512E+0	1.075103E+0	1.029749E+0	1.081199E+0	1.004982E+0	1.076702E+0	1.044109E+0	1.038101E+0	1.088756E+0	1.082584E+0	1.155103E+0	1.096553E+0	1.107576E+0	1.086312E+0	1.052505E+0	1.110307E+0	1.057277E+0	1.070953E+0	1.054978E+0	1.099174E+0	1.069127E+0	1.040767E+0	1.058246E+0	1.056460E+0	1.109375E+0	1.075783E+0	1.065563E+0	1.069632E+0	1.158961E+0	1.120126E+0	1.122666E+0	1.051194E+0
2.892040E+2	9.609785E-1	9.970397E-1	9.770372E-1	1.024950E+0	1.040865E+0	9.780091E-1	9.466009E-1	1.023634E+0	1.007192E+0	9.350350E-1	1.040076E+0	9.744407E-1	1.019719E+0	9.691218E-1	1.003689E+0	1.055598E+0	1.031828E+0	9.798323E-1	1.010592E+0	9.902318E-1	1.063190E+0	9.987580E-1	1.012787E+0	9.996820E-1	9.514326E-1	1.007753E+0	9.667440E-1	9.855337E-1	1.046503E+0	1.038814E+0	9.987854E-1	9.880137E-1	1.001116E+0	9.881960E-1	1.008173E+0	1.052839E+0	9.630565E-1	9.438541E-1	9.977327E-1	1.042820E+0	1.008445E+0	9.704411E-1	9.248512E-1	1.022023E+0	9.798131E-1	9.767798E-1	1.021895E+0	9.872419E-1	9.358357E-1	9.903471E-1	9.711467E-1	1.058970E+0	9.653523E-1	1.051138E+0	9.704466E-1	9.738578E-1	9.527776E-1	9.738527E-1	1.045332E+0	1.020357E+0	1.003222E+0	1.022447E+0	1.042785E+0	9.415257E-1	1.025242E+0	1.016438E+0	9.524513E-1	9.891949E-1	9.887922E-1	1.009775E+0	9.810164E-1	1.002294E+0	1.059535E+0	9.888722E-1	9.918700E-1	9.734637E-1	1.001752E+0	1.015664E+0	9.693002E-1	1.024037E+0	1.005356E+0	9.597769E-1	9.936530E-1	1.033398E+0	9.763145E-1	9.786614E-1	1.006414E+0	9.706707E-1	1.056549E+0	9.702472E-1	9.952852E-1	1.007097E+0	1.016649E+0	9.383258E-1	9.894601E-1	1.033516E+0	9.619762E-1	9.895990E-1	1.005878E+0	1.038405E+0	9.816287E-1	9.971430E-1	9.874342E-1	9.814866E-1	9.414680E-1	9.968029E-1	1.015198E+0	1.001198E+0	1.003497E+0	1.008235E+0	1.015755E+0	9.631702E-1	9.918178E-1	9.352908E-1	1.010502E+0	1.003881E+0	9.697157E-1	9.939941E-1	1.002238E+0	1.007518E+0	9.972976E-1	9.853009E-1	1.010248E+0	1.059915E+0	1.065589E+0	9.923914E-1	1.024373E+0	1.023888E+0	9.795643E-1	9.933903E-1	1.065120E+0	9.747256E-1	9.695913E-1	1.025032E+0	9.904021E-1	1.025854E+0	1.056233E+0	9.793094E-1	9.671979E-1	1.003311E+0	1.075106E+0	1.011871E+0	1.024243E+0	1.007819E+0	1.040896E+0	1.002618E+0	1.005952E+0	1.004250E+0	9.818514E-1	9.859116E-1	9.670263E-1	1.015664E+0	9.589431E-1	9.927354E-1	9.939538E-1	9.742392E-1	9.997925E-1	1.036613E+0	1.031093E+0	9.880939E-1	1.018685E+0	9.389649E-1	1.012043E+0	1.071224E+0	1.094577E+0	1.058382E+0
2.894020E+2	9.155451E-1	9.151097E-1	9.078778E-1	9.193150E-1	9.506143E-1	9.260251E-1	8.822201E-1	8.638744E-1	9.433834E-1	8.686425E-1	8.826027E-1	9.116860E-1	9.348058E-1	8.962927E-1	8.971331E-1	9.344705E-1	9.216809E-1	8.832784E-1	8.940831E-1	8.843685E-1	8.819263E-1	8.887866E-1	8.809533E-1	9.434491E-1	8.917701E-1	8.990037E-1	9.094982E-1	8.650162E-1	8.850885E-1	9.150526E-1	9.232415E-1	9.353819E-1	9.270885E-1	8.981808E-1	9.193789E-1	9.573618E-1	9.118392E-1	9.098169E-1	9.030667E-1	9.230882E-1	8.825978E-1	9.556851E-1	8.572731E-1	8.917084E-1	8.942836E-1	8.658750E-1	9.342580E-1	9.310829E-1	9.149842E-1	9.241119E-1	9.167734E-1	9.523802E-1	8.504849E-1	9.128370E-1	9.029297E-1	9.334944E-1	9.000686E-1	9.024898E-1	9.028520E-1	9.475797E-1	9.039956E-1	9.289201E-1	8.955071E-1	9.431306E-1	9.439227E-1	9.426211E-1	8.939493E-1	8.449468E-1	9.475215E-1	8.894353E-1	8.823534E-1	9.408374E-1	9.567853E-1	8.693364E-1	9.133080E-1	9.379206E-1	8.585798E-1	8.978499E-1	9.170659E-1	9.398251E-1	8.901624E-1	9.341789E-1	9.160915E-1	9.219716E-1	9.509318E-1	9.117376E-1	9.230600E-1	9.466213E-1	9.414676E-1	8.939612E-1	8.747068E-1	9.050539E-1	9.126854E-1	9.248659E-1	9.159014E-1	9.610591E-1	9.455150E-1	9.024250E-1	9.342006E-1	9.303586E-1	9.313530E-1	8.614469E-1	9.205441E-1	9.409239E-1	9.041711E-1	9.414982E-1	9.501541E-1	9.433099E-1	9.119814E-1	9.306797E-1	9.034843E-1	8.510377E-1	8.563752E-1	9.079435E-1	8.696122E-1	9.189667E-1	8.880172E-1	9.208708E-1	9.578259E-1	9.110090E-1	8.764972E-1	9.180383E-1	9.275888E-1	9.023891E-1	9.303545E-1	8.832024E-1	9.203990E-1	9.378395E-1	8.517849E-1	9.426050E-1	9.212375E-1	9.336661E-1	9.448614E-1	9.552839E-1	8.910980E-1	9.052139E-1	8.980169E-1	9.015554E-1	9.190015E-1	9.898399E-1	9.467914E-1	8.764053E-1	9.404885E-1	9.462794E-1	8.885569E-1	8.499540E-1	9.473943E-1	9.021151E-1	8.815260E-1	8.876209E-1	9.602003E-1	9.601509E-1	8.947610E-1	9.110594E-1	9.836520E-1	9.608402E-1	9.740559E-1	9.141350E-1	9.522244E-1	9.105373E-1	9.133133E-1	8.899557E-1	9.245778E-1	8.766828E-1	8.822853E-1	8.803842E-1
2.896060E+2	7.675133E-1	7.707386E-1	7.562553E-1	8.166330E-1	8.065570E-1	7.768513E-1	7.930443E-1	7.834832E-1	7.988752E-1	8.780749E-1	7.686774E-1	8.137146E-1	7.523505E-1	7.935379E-1	8.084699E-1	7.806680E-1	8.024622E-1	8.120956E-1	7.915177E-1	8.114933E-1	8.058833E-1	7.823053E-1	8.283506E-1	8.330387E-1	7.773111E-1	7.539163E-1	8.009648E-1	8.064225E-1	7.751813E-1	8.144217E-1	7.906606E-1	8.331798E-1	8.154705E-1	7.680459E-1	8.051892E-1	8.145917E-1	7.763101E-1	7.712294E-1	8.197700E-1	8.262032E-1	8.081475E-1	7.662463E-1	7.264520E-1	7.863989E-1	8.042231E-1	8.227738E-1	7.931318E-1	8.134402E-1	7.874656E-1	7.882199E-1	8.279879E-1	8.942825E-1	8.147488E-1	7.897015E-1	7.809038E-1	8.091901E-1	8.146836E-1	7.640201E-1	8.277263E-1	8.139559E-1	8.417653E-1	7.884461E-1	7.830162E-1	7.884736E-1	7.705419E-1	7.892222E-1	8.283609E-1	8.278983E-1	8.063526E-1	7.871162E-1	7.887351E-1	8.175953E-1	8.397969E-1	8.370715E-1	8.216845E-1	7.993859E-1	8.227863E-1	8.547832E-1	8.488333E-1	7.833039E-1	8.095152E-1	7.955186E-1	8.367968E-1	7.836296E-1	8.435056E-1	7.960677E-1	8.124702E-1	8.110741E-1	8.013544E-1	7.855995E-1	7.826457E-1	8.145972E-1	7.675284E-1	7.777118E-1	7.983192E-1	8.586233E-1	8.417602E-1	8.350035E-1	7.936209E-1	8.128661E-1	8.322590E-1	9.119142E-1	8.055384E-1	8.112248E-1	8.329247E-1	7.909120E-1	8.298091E-1	7.827797E-1	8.083286E-1	8.259604E-1	7.760688E-1	8.324978E-1	8.596309E-1	7.728589E-1	7.917950E-1	8.563160E-1	8.365944E-1	7.430653E-1	8.143176E-1	7.870313E-1	7.802170E-1	8.277233E-1	8.658320E-1	8.459320E-1	8.376675E-1	7.725614E-1	7.635851E-1	7.991822E-1	8.167042E-1	7.862642E-1	8.079149E-1	8.331415E-1	7.591562E-1	8.178732E-1	8.059178E-1	8.577565E-1	8.319473E-1	8.128039E-1	7.905113E-1	8.103889E-1	7.936914E-1	8.288233E-1	8.219563E-1	8.201547E-1	8.082674E-1	7.701662E-1	8.461184E-1	8.418273E-1	8.297422E-1	8.471313E-1	8.331791E-1	7.615236E-1	8.710315E-1	7.975754E-1	8.212821E-1	8.068817E-1	7.950609E-1	8.128168E-1	8.659873E-1	8.463766E-1	8.057239E-1	8.653339E-1	8.276680E-1	8.112704E-1	8.561077E-1	7.699889E-1
2.898020E+2	6.331006E-1	7.109778E-1	6.339120E-1	6.644674E-1	6.987840E-1	6.475438E-1	6.397181E-1	6.916550E-1	7.166983E-1	7.012926E-1	6.379427E-1	6.722101E-1	6.698663E-1	6.319087E-1	6.349538E-1	7.187085E-1	7.100189E-1	6.802066E-1	6.743959E-1	7.060531E-1	7.282819E-1	6.386193E-1	6.712465E-1	6.873357E-1	6.356464E-1	6.802794E-1	6.837417E-1	6.817664E-1	7.370469E-1	6.723710E-1	6.617286E-1	6.845795E-1	7.148418E-1	6.613347E-1	6.883470E-1	7.119010E-1	6.794090E-1	6.665845E-1	6.581225E-1	6.783490E-1	6.511106E-1	6.634516E-1	6.984669E-1	6.494201E-1	6.850329E-1	6.623739E-1	6.747120E-1	6.641911E-1	6.599761E-1	6.722348E-1	6.932332E-1	6.353518E-1	6.384934E-1	7.069931E-1	7.114306E-1	6.818520E-1	6.619541E-1	6.605412E-1	6.648929E-1	6.931077E-1	6.947223E-1	7.348027E-1	6.734923E-1	6.921741E-1	7.162112E-1	6.830021E-1	6.786747E-1	6.493103E-1	6.776877E-1	8.032084E-1	6.970842E-1	6.526705E-1	7.148322E-1	7.054998E-1	6.947746E-1	6.844590E-1	6.837293E-1	7.281973E-1	6.869112E-1	6.841714E-1	7.209450E-1	6.203699E-1	6.765957E-1	7.102560E-1	7.095760E-1	6.774090E-1	7.585312E-1	6.824866E-1	7.040017E-1	7.104250E-1	6.563748E-1	6.893847E-1	6.879903E-1	6.712310E-1	6.713177E-1	6.913535E-1	7.023556E-1	6.357326E-1	6.547775E-1	7.625748E-1	6.622144E-1	7.051048E-1	6.736101E-1	6.834052E-1	6.537701E-1	7.143756E-1	6.584702E-1	6.941517E-1	6.965654E-1	7.103974E-1	6.780790E-1	7.003080E-1	6.229262E-1	6.712790E-1	6.594382E-1	7.251636E-1	7.244640E-1	7.335140E-1	7.288958E-1	6.696812E-1	7.036947E-1	6.659556E-1	7.257949E-1	6.834443E-1	7.199383E-1	6.780987E-1	7.154623E-1	6.776443E-1	7.022203E-1	6.663546E-1	7.004684E-1	6.954221E-1	7.118393E-1	6.658119E-1	6.951717E-1	7.019252E-1	7.248477E-1	6.515764E-1	6.926892E-1	6.996006E-1	6.755569E-1	6.939247E-1	6.956750E-1	7.099529E-1	6.785744E-1	6.889901E-1	6.947305E-1	6.629111E-1	6.874970E-1	7.194683E-1	6.916458E-1	7.004737E-1	7.040560E-1	6.944956E-1	6.797247E-1	7.350016E-1	6.601369E-1	6.991666E-1	6.631642E-1	7.299876E-1	6.787068E-1	6.873914E-1	7.208945E-1	6.762954E-1	7.007200E-1	6.322209E-1
2.900020E+2	7.461335E-1	7.404534E-1	7.161500E-1	7.461494E-1	8.004054E-1	7.961917E-1	7.630343E-1	7.316390E-1	7.288852E-1	7.203085E-1	7.481788E-1	7.099989E-1	7.661156E-1	7.437889E-1	7.552274E-1	7.072973E-1	7.485168E-1	7.332104E-1	7.153747E-1	7.701189E-1	7.153068E-1	7.459650E-1	7.488840E-1	7.468527E-1	7.609684E-1	7.022483E-1	7.269528E-1	7.618202E-1	7.423993E-1	7.441964E-1	7.521964E-1	7.521113E-1	7.737468E-1	7.810673E-1	7.391676E-1	7.988181E-1	7.157967E-1	7.306933E-1	7.479400E-1	7.329992E-1	7.833080E-1	7.758570E-1	7.201731E-1	7.480547E-1	7.777668E-1	7.507937E-1	7.443089E-1	7.459316E-1	7.087820E-1	7.436692E-1	7.430879E-1	7.591302E-1	7.540696E-1	8.208891E-1	7.355106E-1	7.901885E-1	7.610419E-1	7.143553E-1	7.929607E-1	7.654334E-1	7.668469E-1	7.889504E-1	7.327785E-1	7.395681E-1	8.011751E-1	7.346596E-1	7.505819E-1	7.922353E-1	6.986828E-1	7.198027E-1	7.824904E-1	7.539456E-1	7.843833E-1	7.380016E-1	7.880366E-1	7.472693E-1	7.455633E-1	7.769582E-1	8.135974E-1	7.493041E-1	8.051865E-1	7.433857E-1	7.141897E-1	8.057272E-1	7.886920E-1	7.829937E-1	7.848635E-1	8.009398E-1	7.754722E-1	7.528029E-1	7.549864E-1	7.785202E-1	7.320013E-1	7.306093E-1	7.647544E-1	7.363739E-1	7.363281E-1	7.164760E-1	7.650412E-1	7.838744E-1	7.642958E-1	7.833778E-1	7.279300E-1	7.497755E-1	6.997642E-1	7.766787E-1	7.534801E-1	7.677289E-1	7.579972E-1	7.870394E-1	7.694848E-1	7.447188E-1	8.129513E-1	7.527737E-1	7.445245E-1	7.318123E-1	7.021454E-1	7.593625E-1	7.574267E-1	7.616737E-1	7.327587E-1	7.495483E-1	7.694667E-1	7.342305E-1	7.711298E-1	7.715588E-1	7.691579E-1	7.776964E-1	7.547405E-1	7.247898E-1	7.611416E-1	7.519368E-1	7.884256E-1	7.813099E-1	7.798517E-1	7.563017E-1	7.950539E-1	7.941060E-1	7.542933E-1	8.013977E-1	7.915866E-1	7.286527E-1	7.830499E-1	8.112564E-1	7.475668E-1	7.043254E-1	7.456238E-1	7.749320E-1	7.418926E-1	8.044929E-1	7.498786E-1	7.539654E-1	7.735666E-1	8.043705E-1	7.567028E-1	7.753941E-1	8.004028E-1	7.551640E-1	8.139953E-1	8.060688E-1	7.988091E-1	7.440192E-1	7.896011E-1	7.626117E-1	8.176039E-1	7.072634E-1
2.905120E+2	8.387912E-1	8.571422E-1	8.615129E-1	9.142184E-1	8.751253E-1	8.458162E-1	8.259944E-1	8.113314E-1	8.582682E-1	8.367102E-1	8.158863E-1	8.018484E-1	8.074929E-1	8.587543E-1	8.721582E-1	8.543922E-1	8.758967E-1	7.784686E-1	7.877770E-1	8.550763E-1	8.332390E-1	8.408135E-1	8.420314E-1	8.790398E-1	8.757737E-1	8.290531E-1	8.322158E-1	8.216564E-1	8.712842E-1	7.892222E-1	8.153153E-1	8.345641E-1	8.190067E-1	8.651092E-1	7.895258E-1	8.895695E-1	8.395343E-1	8.262443E-1	7.999038E-1	8.397759E-1	8.358564E-1	8.112578E-1	8.091208E-1	8.773886E-1	8.587986E-1	8.697904E-1	7.814334E-1	8.586125E-1	8.393279E-1	8.312419E-1	8.230655E-1	8.714980E-1	8.218273E-1	8.175448E-1	8.398635E-1	8.358877E-1	8.212402E-1	8.575952E-1	8.561404E-1	8.299390E-1	8.312117E-1	8.052240E-1	8.420026E-1	8.513689E-1	8.657052E-1	8.503532E-1	8.821739E-1	8.589200E-1	8.608538E-1	8.458332E-1	8.197017E-1	8.497277E-1	8.555725E-1	8.241433E-1	8.434881E-1	8.462565E-1	8.949803E-1	8.980326E-1	8.705781E-1	8.404639E-1	8.339089E-1	8.329864E-1	8.615394E-1	8.484932E-1	8.891612E-1	7.834431E-1	8.566393E-1	8.527123E-1	8.381634E-1	8.292003E-1	8.807289E-1	8.980013E-1	8.329760E-1	8.464154E-1	8.211106E-1	8.674963E-1	8.369430E-1	8.725094E-1	8.548534E-1	9.109005E-1	8.739662E-1	8.424365E-1	8.293818E-1	8.460199E-1	8.498324E-1	8.834391E-1	8.221440E-1	8.645106E-1	8.369721E-1	8.484171E-1	8.368075E-1	8.319658E-1	8.195473E-1	8.420643E-1	7.935962E-1	8.379214E-1	8.535881E-1	7.933686E-1	8.890366E-1	8.294997E-1	9.009132E-1	8.574029E-1	8.557690E-1	8.217522E-1	8.768400E-1	9.090599E-1	8.493045E-1	8.986232E-1	8.416858E-1	8.575338E-1	8.625505E-1	8.779069E-1	8.683599E-1	8.500846E-1	8.407865E-1	9.048829E-1	8.651914E-1	8.289176E-1	8.934447E-1	9.035119E-1	8.512425E-1	8.939617E-1	8.535565E-1	8.432557E-1	8.017293E-1	8.266152E-1	8.937864E-1	8.489415E-1	8.389901E-1	8.957583E-1	8.703819E-1	8.994289E-1	8.762210E-1	8.657396E-1	8.022857E-1	9.021788E-1	8.731539E-1	8.119671E-1	8.279348E-1	8.033589E-1	8.403006E-1	9.103406E-1	8.114300E-1	9.112869E-1	8.835018E-1	8.804820E-1
2.910060E+2	9.685277E-1	1.038451E+0	9.927134E-1	9.993936E-1	1.061034E+0	1.008714E+0	9.796252E-1	1.049870E+0	1.024720E+0	9.725163E-1	1.009307E+0	9.720225E-1	1.028818E+0	1.036649E+0	1.047335E+0	1.029604E+0	1.058774E+0	9.738348E-1	9.906881E-1	1.023261E+0	9.767098E-1	1.014694E+0	9.808109E-1	1.000790E+0	1.063744E+0	1.064100E+0	1.039070E+0	1.024175E+0	1.078106E+0	1.026425E+0	1.006410E+0	1.058344E+0	1.060271E+0	1.038202E+0	1.084584E+0	1.057887E+0	1.065939E+0	1.025580E+0	1.013589E+0	1.090703E+0	1.035403E+0	9.943395E-1	1.032545E+0	1.073402E+0	1.038722E+0	1.071998E+0	1.015554E+0	1.051930E+0	1.026997E+0	1.031351E+0	1.063791E+0	1.098037E+0	1.014880E+0	1.071183E+0	1.011988E+0	1.046865E+0	1.032455E+0	1.025438E+0	1.062133E+0	1.085728E+0	1.022136E+0	1.033879E+0	1.061100E+0	1.083367E+0	1.055680E+0	1.011844E+0	1.017797E+0	1.059980E+0	1.057880E+0	1.035526E+0	1.052431E+0	1.033435E+0	1.012287E+0	1.018058E+0	1.089182E+0	1.052474E+0	1.001957E+0	1.031046E+0	1.001969E+0	1.019947E+0	1.079907E+0	1.046710E+0	9.722290E-1	1.021021E+0	1.061727E+0	1.075278E+0	1.011988E+0	1.046675E+0	1.034667E+0	1.063547E+0	1.047004E+0	1.040332E+0	1.023182E+0	1.047314E+0	1.020909E+0	1.035196E+0	9.825087E-1	1.002398E+0	1.000340E+0	1.026071E+0	1.049118E+0	1.029146E+0	1.059320E+0	1.050252E+0	1.059783E+0	1.051658E+0	1.077267E+0	1.026370E+0	1.037681E+0	9.921429E-1	1.027164E+0	1.020593E+0	1.023968E+0	9.922660E-1	1.013466E+0	1.007620E+0	1.043318E+0	1.078003E+0	1.045339E+0	9.863017E-1	1.015004E+0	1.017274E+0	1.101897E+0	1.033790E+0	9.860509E-1	1.039454E+0	1.053269E+0	9.959390E-1	1.052911E+0	1.017011E+0	1.020330E+0	1.035649E+0	1.085307E+0	9.819843E-1	1.022037E+0	1.046409E+0	1.054921E+0	1.050726E+0	1.003225E+0	1.026975E+0	1.045914E+0	1.021815E+0	1.053756E+0	1.064525E+0	1.009043E+0	1.057737E+0	1.050120E+0	1.071194E+0	1.047813E+0	1.027649E+0	1.015883E+0	1.002837E+0	1.043427E+0	1.010191E+0	1.016585E+0	1.009060E+0	1.088556E+0	1.059489E+0	1.015582E+0	1.054821E+0	1.033530E+0	1.089379E+0	1.033554E+0	1.070454E+0	1.152808E+0	9.587179E-1
2.915040E+2	1.135585E+0	1.109572E+0	1.142498E+0	1.180224E+0	1.230891E+0	1.196097E+0	1.096126E+0	1.127725E+0	1.182816E+0	1.114578E+0	1.116788E+0	1.174424E+0	1.146469E+0	1.102761E+0	1.160753E+0	1.147705E+0	1.223644E+0	1.099744E+0	1.100422E+0	1.187140E+0	1.124867E+0	1.164868E+0	1.123032E+0	1.270166E+0	1.198123E+0	1.172416E+0	1.151272E+0	1.133478E+0	1.206750E+0	1.135359E+0	1.200841E+0	1.168003E+0	1.183021E+0	1.184059E+0	1.145146E+0	1.178915E+0	1.143687E+0	1.110430E+0	1.148605E+0	1.127078E+0	1.158152E+0	1.111877E+0	1.074802E+0	1.119139E+0	1.209172E+0	1.154154E+0	1.131143E+0	1.176931E+0	1.131669E+0	1.181077E+0	1.184479E+0	1.205422E+0	1.174982E+0	1.189783E+0	1.172517E+0	1.102690E+0	1.211312E+0	1.089677E+0	1.148601E+0	1.226802E+0	1.177496E+0	1.142408E+0	1.143198E+0	1.167968E+0	1.169958E+0	1.101875E+0	1.122075E+0	1.125583E+0	1.198907E+0	1.140891E+0	1.177500E+0	1.128016E+0	1.161907E+0	1.190056E+0	1.120121E+0	1.115552E+0	1.161160E+0	1.163036E+0	1.155459E+0	1.182867E+0	1.189168E+0	1.147781E+0	1.183751E+0	1.170228E+0	1.206577E+0	1.171440E+0	1.146262E+0	1.104470E+0	1.175893E+0	1.071372E+0	1.174670E+0	1.176762E+0	1.137304E+0	1.129673E+0	1.195249E+0	1.195916E+0	1.162377E+0	1.214574E+0	1.122675E+0	1.196184E+0	1.179082E+0	1.145676E+0	1.162430E+0	1.179655E+0	1.138459E+0	1.135389E+0	1.238921E+0	1.108877E+0	1.106539E+0	1.228785E+0	1.123134E+0	1.179336E+0	1.119553E+0	1.158677E+0	1.114418E+0	1.144783E+0	1.130310E+0	1.087730E+0	1.164421E+0	1.154429E+0	1.166662E+0	1.093938E+0	1.261467E+0	1.085464E+0	1.115985E+0	1.120258E+0	1.146293E+0	1.154774E+0	1.132697E+0	1.170316E+0	1.235734E+0	1.212799E+0	1.120287E+0	1.186406E+0	1.182589E+0	1.148564E+0	1.104766E+0	1.132730E+0	1.146347E+0	1.214142E+0	1.190986E+0	1.136646E+0	1.172932E+0	1.097124E+0	1.113974E+0	1.144668E+0	1.148136E+0	1.210710E+0	1.079004E+0	1.132712E+0	1.140118E+0	1.183758E+0	1.150830E+0	1.193716E+0	1.153349E+0	1.163430E+0	1.090829E+0	1.183968E+0	1.116619E+0	1.189039E+0	1.124198E+0	1.128999E+0	1.216145E+0	1.149489E+0	1.106598E+0	1.141196E+0
2.920010E+2	1.031144E+0	9.675752E-1	1.006217E+0	9.515368E-1	1.017477E+0	9.946190E-1	9.318838E-1	9.796981E-1	1.019173E+0	9.990044E-1	9.682929E-1	9.604857E-1	9.508468E-1	9.993852E-1	9.248255E-1	9.889270E-1	1.009004E+0	9.949903E-1	9.872854E-1	9.951858E-1	1.002391E+0	9.863161E-1	1.020729E+0	1.024394E+0	9.619329E-1	9.777171E-1	9.249603E-1	9.906820E-1	9.803369E-1	9.761104E-1	9.987210E-1	9.956047E-1	1.032024E+0	1.030710E+0	9.983603E-1	9.695466E-1	9.620549E-1	9.307970E-1	9.642639E-1	1.059283E+0	9.877374E-1	1.020796E+0	9.432784E-1	9.739194E-1	9.818894E-1	1.004061E+0	1.005625E+0	9.895504E-1	9.762389E-1	9.794523E-1	1.009155E+0	9.716541E-1	9.410996E-1	9.852595E-1	9.555402E-1	9.435342E-1	9.699034E-1	9.710864E-1	1.024917E+0	9.667215E-1	1.022645E+0	9.685222E-1	9.885595E-1	9.866915E-1	1.030118E+0	1.023521E+0	9.476774E-1	9.909126E-1	9.406294E-1	1.043559E+0	1.050018E+0	9.809555E-1	1.001943E+0	9.695605E-1	9.765074E-1	9.640048E-1	9.702515E-1	9.914993E-1	1.033530E+0	1.000132E+0	9.557552E-1	9.619186E-1	1.020377E+0	1.039952E+0	9.696871E-1	9.809787E-1	9.611309E-1	1.031937E+0	9.914393E-1	1.000744E+0	9.459431E-1	9.540271E-1	9.709153E-1	9.901249E-1	9.401229E-1	1.019035E+0	9.723385E-1	9.760804E-1	9.998478E-1	1.034044E+0	1.078475E+0	1.024197E+0	9.938938E-1	9.782981E-1	9.978016E-1	1.006622E+0	1.000408E+0	9.718776E-1	9.697555E-1	9.919396E-1	1.010273E+0	1.020218E+0	9.928683E-1	9.643798E-1	9.501485E-1	1.044411E+0	1.009548E+0	9.505819E-1	9.804972E-1	9.972104E-1	1.001084E+0	9.898196E-1	9.875652E-1	1.022232E+0	1.016248E+0	9.954390E-1	9.732639E-1	1.057191E+0	1.016381E+0	1.005411E+0	9.611838E-1	9.814166E-1	1.013503E+0	1.010819E+0	1.002271E+0	1.012406E+0	1.042484E+0	9.753307E-1	1.029163E+0	1.025702E+0	1.008031E+0	9.645815E-1	9.861697E-1	1.044945E+0	1.019643E+0	9.888065E-1	1.037043E+0	9.901846E-1	9.959891E-1	9.960283E-1	9.617030E-1	1.058790E+0	9.632728E-1	1.014412E+0	1.013335E+0	9.558597E-1	1.022198E+0	9.948220E-1	1.016411E+0	1.021356E+0	1.033341E+0	9.550189E-1	1.019289E+0	9.437817E-1	1.108819E+0	1.037307E+0
2.925000E+2	1.127149E+0	1.032223E+0	1.100619E+0	1.101812E+0	1.126535E+0	1.193383E+0	1.068628E+0	1.086430E+0	1.199438E+0	1.097436E+0	1.101755E+0	1.064655E+0	1.050060E+0	1.090379E+0	1.081088E+0	1.142644E+0	1.094351E+0	1.045938E+0	1.097273E+0	1.110562E+0	1.083045E+0	1.098277E+0	1.109113E+0	1.079304E+0	1.098329E+0	1.056177E+0	1.116488E+0	1.071590E+0	1.087021E+0	1.138120E+0	1.142285E+0	1.095110E+0	1.106457E+0	1.059177E+0	1.079818E+0	1.103957E+0	1.180917E+0	1.066758E+0	1.015697E+0	1.086234E+0	1.069966E+0	1.126924E+0	1.047242E+0	1.179241E+0	1.104773E+0	1.098847E+0	1.117502E+0	1.084932E+0	1.114051E+0	1.128211E+0	1.057244E+0	1.105508E+0	1.139834E+0	1.137157E+0	1.066629E+0	1.053957E+0	1.085262E+0	1.055644E+0	1.093928E+0	1.061433E+0	1.019951E+0	1.120305E+0	1.135422E+0	1.057025E+0	1.122664E+0	1.080355E+0	1.131275E+0	1.007879E+0	1.144345E+0	1.101380E+0	1.140278E+0	1.044856E+0	1.130155E+0	1.083475E+0	1.153059E+0	1.102688E+0	1.051169E+0	1.142476E+0	1.126652E+0	1.098155E+0	1.096457E+0	1.092131E+0	1.077808E+0	1.141433E+0	1.099620E+0	1.069741E+0	1.113372E+0	1.084342E+0	1.130164E+0	9.864033E-1	1.138801E+0	1.073914E+0	1.076660E+0	1.076943E+0	1.059603E+0	1.079032E+0	1.062459E+0	1.124013E+0	1.054469E+0	1.093335E+0	1.113822E+0	1.067234E+0	1.100835E+0	1.098519E+0	1.110889E+0	1.069638E+0	1.167122E+0	1.077429E+0	1.091245E+0	1.108156E+0	1.109044E+0	1.089597E+0	1.076782E+0	1.055296E+0	1.096176E+0	1.054952E+0	1.110030E+0	1.095933E+0	1.171185E+0	1.145921E+0	1.032329E+0	1.134027E+0	1.117103E+0	1.109034E+0	1.128509E+0	1.090879E+0	1.121364E+0	1.085679E+0	1.129401E+0	1.063560E+0	1.069644E+0	1.147675E+0	1.094652E+0	1.119660E+0	1.095605E+0	1.098902E+0	1.142316E+0	1.100895E+0	1.085571E+0	1.173866E+0	1.113801E+0	1.034967E+0	1.165392E+0	1.091380E+0	1.086005E+0	1.124550E+0	1.135270E+0	1.134203E+0	1.085176E+0	1.115440E+0	1.087799E+0	1.098257E+0	1.078951E+0	1.189501E+0	1.139459E+0	1.058236E+0	1.125506E+0	1.100471E+0	1.114931E+0	1.067114E+0	1.107192E+0	1.102371E+0	1.149726E+0	1.175076E+0	1.102320E+0	1.030861E+0
2.930070E+2	1.180998E+0	1.151463E+0	1.122962E+0	1.119693E+0	1.167338E+0	1.082126E+0	1.102788E+0	1.115504E+0	1.216575E+0	1.085270E+0	1.082141E+0	1.091319E+0	1.123037E+0	1.135520E+0	1.136620E+0	1.127185E+0	1.175295E+0	1.112798E+0	1.171963E+0	1.134945E+0	1.129456E+0	1.064133E+0	1.066443E+0	1.122355E+0	1.111787E+0	1.136872E+0	1.130075E+0	1.114189E+0	1.122394E+0	1.122425E+0	1.175323E+0	1.094415E+0	1.163089E+0	1.191965E+0	1.145416E+0	1.089090E+0	1.117371E+0	1.148277E+0	1.134288E+0	1.167004E+0	1.106660E+0	1.177878E+0	1.154166E+0	1.201776E+0	1.206652E+0	1.166723E+0	1.122546E+0	1.101079E+0	1.120932E+0	1.136603E+0	1.123564E+0	1.118296E+0	1.076996E+0	1.144795E+0	1.117927E+0	1.137924E+0	1.167450E+0	1.067516E+0	1.123425E+0	1.162355E+0	1.152609E+0	1.062131E+0	1.142859E+0	1.119624E+0	1.133297E+0	1.179901E+0	1.139030E+0	1.081607E+0	1.148707E+0	1.145181E+0	1.131528E+0	1.132278E+0	1.156285E+0	1.134077E+0	1.154261E+0	1.183790E+0	1.134022E+0	1.198167E+0	1.178247E+0	1.113076E+0	1.122020E+0	1.144002E+0	1.144353E+0	1.117926E+0	1.202474E+0	1.078969E+0	1.105170E+0	1.117137E+0	1.185432E+0	1.132493E+0	1.140216E+0	1.136248E+0	1.118033E+0	1.178821E+0	1.100618E+0	1.099467E+0	1.098601E+0	1.098979E+0	1.101271E+0	1.155064E+0	1.197164E+0	1.111567E+0	1.137829E+0	1.102829E+0	1.072033E+0	1.160539E+0	1.153234E+0	1.171306E+0	1.118450E+0	1.177117E+0	1.134361E+0	1.138259E+0	1.161026E+0	1.086274E+0	1.092398E+0	1.093660E+0	1.128451E+0	1.133434E+0	1.130097E+0	1.093428E+0	1.059797E+0	1.171067E+0	1.168404E+0	1.078880E+0	1.113617E+0	1.171663E+0	1.122673E+0	1.117408E+0	1.162123E+0	1.100827E+0	1.110254E+0	1.089190E+0	1.111688E+0	1.126019E+0	1.168225E+0	1.138578E+0	1.095659E+0	1.142006E+0	1.120824E+0	1.176723E+0	1.154092E+0	1.137824E+0	1.163129E+0	1.153513E+0	1.056398E+0	1.142426E+0	1.156900E+0	1.107715E+0	1.152814E+0	1.176663E+0	1.184877E+0	1.145245E+0	1.149642E+0	1.122366E+0	1.125765E+0	1.168511E+0	1.153856E+0	1.149555E+0	1.158557E+0	1.139589E+0	1.156812E+0	1.129780E+0	1.125344E+0	1.147791E+0	1.174270E+0	1.189110E+0
2.935070E+2	1.135346E+0	1.111192E+0	1.098483E+0	1.132294E+0	1.169010E+0	1.145953E+0	1.100706E+0	1.136654E+0	1.184646E+0	1.128941E+0	1.136901E+0	1.091820E+0	1.109456E+0	1.065920E+0	1.123289E+0	1.169767E+0	1.154336E+0	1.158939E+0	1.114260E+0	1.146037E+0	1.080399E+0	1.112005E+0	1.145657E+0	1.178079E+0	1.086400E+0	1.072644E+0	1.137968E+0	1.070548E+0	1.158128E+0	1.182454E+0	1.115420E+0	1.087134E+0	1.120916E+0	1.164085E+0	1.136806E+0	1.137320E+0	1.107823E+0	1.106241E+0	1.116440E+0	1.133096E+0	1.144699E+0	1.123102E+0	1.097762E+0	1.122424E+0	1.240609E+0	1.128941E+0	1.101810E+0	1.108010E+0	1.178254E+0	1.129594E+0	1.160688E+0	1.151654E+0	1.026830E+0	1.099251E+0	1.177633E+0	1.108993E+0	1.116804E+0	1.112140E+0	1.137742E+0	1.161978E+0	1.159573E+0	1.160701E+0	1.115375E+0	1.092233E+0	1.139760E+0	1.093307E+0	1.131324E+0	1.137527E+0	1.201269E+0	1.105972E+0	1.093237E+0	1.101980E+0	1.166432E+0	1.131637E+0	1.109420E+0	1.137211E+0	1.094311E+0	1.139567E+0	1.150797E+0	1.154482E+0	1.194985E+0	1.089937E+0	1.112341E+0	1.154220E+0	1.094607E+0	1.137188E+0	1.068331E+0	1.174885E+0	1.149233E+0	1.151763E+0	1.137045E+0	1.115081E+0	1.119803E+0	1.098945E+0	1.131063E+0	1.135570E+0	1.160403E+0	1.102376E+0	1.138012E+0	1.166515E+0	1.185846E+0	1.164471E+0	1.127159E+0	1.189949E+0	1.137239E+0	1.158318E+0	1.177434E+0	1.129627E+0	1.162474E+0	1.122205E+0	1.146682E+0	1.107215E+0	1.158149E+0	1.122857E+0	1.109898E+0	1.117668E+0	1.172238E+0	1.145054E+0	1.155105E+0	1.136172E+0	1.146967E+0	1.145512E+0	1.198687E+0	1.080106E+0	1.116272E+0	1.084989E+0	1.199378E+0	1.099433E+0	1.173411E+0	1.107108E+0	1.154910E+0	1.154028E+0	1.138854E+0	1.156995E+0	1.097624E+0	1.154487E+0	1.147304E+0	1.151542E+0	1.104042E+0	1.187825E+0	1.128353E+0	1.095355E+0	1.200386E+0	1.119096E+0	1.156249E+0	1.120049E+0	1.125885E+0	1.134765E+0	1.181055E+0	1.138205E+0	1.140467E+0	1.133744E+0	1.147477E+0	1.115325E+0	1.143615E+0	1.123004E+0	1.118188E+0	1.177711E+0	1.136270E+0	1.153429E+0	1.167560E+0	1.137978E+0	1.186003E+0	1.096266E+0	1.149280E+0	1.132387E+0
2.940070E+2	1.053790E+0	1.004940E+0	9.451762E-1	1.016637E+0	1.032301E+0	1.007240E+0	9.535174E-1	9.842250E-1	9.993830E-1	9.931792E-1	1.042874E+0	1.001991E+0	1.000829E+0	9.583025E-1	1.013997E+0	9.968419E-1	1.024623E+0	1.018239E+0	1.052406E+0	1.059838E+0	1.047316E+0	9.785997E-1	9.816024E-1	1.021167E+0	1.010250E+0	9.916493E-1	1.031261E+0	9.799689E-1	1.017256E+0	9.772714E-1	1.001315E+0	9.980933E-1	1.004998E+0	1.006206E+0	1.018100E+0	1.003860E+0	1.032932E+0	1.021059E+0	1.032679E+0	1.036275E+0	9.732821E-1	9.801590E-1	1.018037E+0	1.039608E+0	1.044227E+0	1.006142E+0	9.969831E-1	9.971877E-1	9.868488E-1	1.021623E+0	9.770903E-1	1.045773E+0	9.755668E-1	1.003392E+0	1.050322E+0	9.998101E-1	1.019599E+0	1.017396E+0	1.026198E+0	9.919333E-1	9.857885E-1	1.026137E+0	1.020226E+0	9.675291E-1	1.012222E+0	1.007754E+0	9.565977E-1	1.017398E+0	1.022398E+0	1.052781E+0	9.932933E-1	9.510124E-1	1.012859E+0	9.557798E-1	1.038588E+0	1.027407E+0	1.012137E+0	1.020576E+0	1.088489E+0	1.020579E+0	1.025289E+0	1.059420E+0	9.824606E-1	1.022848E+0	1.066865E+0	1.036612E+0	1.018591E+0	1.041370E+0	1.073682E+0	9.705799E-1	1.062289E+0	1.017752E+0	1.009825E+0	9.566759E-1	9.797994E-1	1.053962E+0	1.048833E+0	9.929448E-1	1.005678E+0	1.071327E+0	9.956531E-1	9.260846E-1	1.035810E+0	1.010386E+0	9.256971E-1	1.066801E+0	1.014882E+0	1.039383E+0	1.020411E+0	1.001427E+0	9.874499E-1	1.019394E+0	9.938768E-1	9.493283E-1	9.363739E-1	1.045490E+0	1.060077E+0	9.548974E-1	1.043536E+0	1.014646E+0	1.010442E+0	1.065131E+0	1.018573E+0	1.038984E+0	1.028942E+0	1.048650E+0	1.016049E+0	1.005934E+0	1.010051E+0	9.704004E-1	1.025969E+0	9.960039E-1	9.987567E-1	1.009152E+0	1.055111E+0	1.017341E+0	9.746875E-1	1.002888E+0	9.858982E-1	1.056403E+0	1.021813E+0	1.018732E+0	1.044497E+0	9.489927E-1	1.013472E+0	1.042597E+0	1.042270E+0	9.987840E-1	1.017025E+0	1.007412E+0	9.950446E-1	1.030877E+0	1.027645E+0	9.950738E-1	1.016748E+0	1.031960E+0	1.021811E+0	1.023882E+0	1.073105E+0	1.020549E+0	1.052867E+0	9.671954E-1	9.727429E-1	1.010885E+0	9.692747E-1	1.038541E+0
2.945030E+2	9.232694E-1	9.117658E-1	8.728486E-1	9.091106E-1	8.475602E-1	8.504149E-1	8.501879E-1	8.728116E-1	8.900731E-1	8.357185E-1	8.765413E-1	8.747514E-1	9.187054E-1	8.747702E-1	9.016610E-1	8.608993E-1	8.864836E-1	8.582245E-1	9.483094E-1	8.783606E-1	8.787982E-1	8.737303E-1	9.104142E-1	8.548401E-1	8.820632E-1	8.526994E-1	8.470789E-1	9.122040E-1	8.083979E-1	8.621311E-1	8.634705E-1	8.647175E-1	8.453285E-1	8.555726E-1	8.379826E-1	9.170821E-1	9.221796E-1	8.470312E-1	8.682290E-1	8.887986E-1	9.172466E-1	8.784756E-1	8.713685E-1	8.880637E-1	9.040605E-1	8.997523E-1	8.753196E-1	8.615973E-1	8.744011E-1	8.674550E-1	8.965387E-1	8.815884E-1	8.287353E-1	8.896726E-1	8.798690E-1	8.678230E-1	8.859957E-1	8.444585E-1	8.794247E-1	8.530443E-1	8.961754E-1	8.858019E-1	8.965945E-1	8.593830E-1	9.174460E-1	8.375653E-1	8.802316E-1	9.219721E-1	9.366721E-1	8.663743E-1	8.479561E-1	8.188060E-1	8.710502E-1	8.989561E-1	9.276355E-1	9.244346E-1	8.949207E-1	8.782294E-1	8.915476E-1	8.677470E-1	8.830884E-1	8.706090E-1	8.640934E-1	8.832345E-1	8.720776E-1	8.562384E-1	8.851994E-1	8.292298E-1	8.949936E-1	8.546617E-1	8.954082E-1	9.049373E-1	8.731605E-1	8.467553E-1	8.692439E-1	8.835553E-1	8.459239E-1	8.981989E-1	8.421012E-1	9.186901E-1	9.037639E-1	8.562737E-1	8.827485E-1	9.114974E-1	9.091903E-1	9.123345E-1	9.412803E-1	8.301007E-1	8.553610E-1	8.654127E-1	8.988011E-1	9.116511E-1	8.765410E-1	9.103147E-1	8.340034E-1	8.870749E-1	8.539291E-1	8.564271E-1	8.867431E-1	8.284817E-1	8.507378E-1	8.506957E-1	8.302333E-1	8.808259E-1	8.632166E-1	8.580851E-1	9.200158E-1	8.969669E-1	8.462932E-1	9.125717E-1	8.565342E-1	8.555957E-1	8.947904E-1	9.001418E-1	8.928701E-1	9.192966E-1	9.056680E-1	9.187276E-1	8.951703E-1	8.680295E-1	8.873045E-1	8.671358E-1	8.705792E-1	8.848615E-1	8.887823E-1	8.833921E-1	9.007792E-1	8.742235E-1	9.256816E-1	9.286769E-1	9.186487E-1	9.159789E-1	8.627188E-1	9.136143E-1	8.857835E-1	8.631753E-1	8.991843E-1	8.296934E-1	9.005137E-1	8.663548E-1	8.984857E-1	9.257506E-1	9.358985E-1	8.710836E-1	8.759124E-1	9.269700E-1
2.950130E+2	9.598865E-1	9.084730E-1	9.719077E-1	9.223371E-1	9.686033E-1	9.932358E-1	9.392835E-1	9.488390E-1	9.550878E-1	9.591434E-1	9.852035E-1	9.623953E-1	9.361766E-1	9.331313E-1	9.848388E-1	9.558364E-1	9.880503E-1	9.342970E-1	9.757922E-1	9.195614E-1	9.507310E-1	9.730409E-1	9.484818E-1	9.824207E-1	9.488784E-1	9.953442E-1	9.836078E-1	1.004704E+0	9.472268E-1	9.362442E-1	9.688497E-1	9.004670E-1	9.806512E-1	9.693657E-1	9.639669E-1	9.576644E-1	9.358779E-1	9.759971E-1	9.480453E-1	9.900180E-1	9.446703E-1	9.771906E-1	9.436578E-1	9.565005E-1	9.686448E-1	9.885068E-1	9.640488E-1	9.908652E-1	9.648054E-1	9.604039E-1	9.908211E-1	1.056048E+0	9.979821E-1	9.411586E-1	9.763972E-1	9.914207E-1	9.681859E-1	9.703332E-1	9.577931E-1	9.877143E-1	9.958122E-1	9.691141E-1	9.814406E-1	9.656663E-1	1.000698E+0	9.107308E-1	9.193794E-1	1.013994E+0	1.001160E+0	9.746475E-1	9.326364E-1	9.642399E-1	9.732865E-1	9.190260E-1	9.848294E-1	9.782411E-1	9.401221E-1	9.546471E-1	9.701567E-1	9.547259E-1	9.942644E-1	9.343728E-1	9.505653E-1	9.910840E-1	9.982271E-1	9.503077E-1	9.937102E-1	9.384434E-1	1.006313E+0	1.002054E+0	9.842746E-1	1.013782E+0	9.954337E-1	9.353802E-1	9.594518E-1	9.165760E-1	9.290016E-1	9.507027E-1	9.417779E-1	9.818100E-1	9.594371E-1	1.003739E+0	1.006889E+0	9.533239E-1	1.000946E+0	1.007806E+0	9.380980E-1	9.234202E-1	9.863623E-1	9.742861E-1	9.939814E-1	9.345340E-1	9.796208E-1	9.699184E-1	9.933983E-1	9.749355E-1	9.570192E-1	9.610377E-1	9.629529E-1	9.748388E-1	1.008291E+0	9.409984E-1	9.805213E-1	9.700831E-1	9.730872E-1	9.400266E-1	9.579680E-1	9.947993E-1	9.967004E-1	9.182303E-1	9.615258E-1	9.600770E-1	1.009805E+0	9.725438E-1	9.454592E-1	9.808090E-1	9.442240E-1	9.632111E-1	9.436203E-1	9.945486E-1	9.664973E-1	9.226048E-1	9.899192E-1	9.805010E-1	9.944894E-1	1.019502E+0	1.017138E+0	1.020616E+0	9.699220E-1	9.470071E-1	9.591345E-1	9.993184E-1	9.452105E-1	9.914712E-1	9.843464E-1	9.763703E-1	9.665017E-1	9.931494E-1	9.165507E-1	9.399736E-1	9.681465E-1	1.018311E+0	9.729645E-1	1.036654E+0	9.850312E-1	8.585489E-1
2.955070E+2	1.119520E+0	1.045910E+0	1.057981E+0	1.103708E+0	1.152261E+0	1.092688E+0	1.091658E+0	1.086569E+0	1.124140E+0	1.062750E+0	1.083481E+0	1.021256E+0	1.018811E+0	1.047883E+0	1.079124E+0	1.079682E+0	1.097990E+0	1.075273E+0	1.125877E+0	1.079332E+0	1.129847E+0	1.053529E+0	1.043069E+0	1.079842E+0	1.034852E+0	1.096034E+0	1.128352E+0	1.066953E+0	1.083027E+0	1.121683E+0	1.128338E+0	1.035382E+0	1.077813E+0	1.100143E+0	1.122097E+0	1.111717E+0	1.114142E+0	1.037496E+0	1.103729E+0	1.100405E+0	1.045646E+0	1.107843E+0	1.036158E+0	1.118494E+0	1.038217E+0	1.063964E+0	1.048909E+0	1.089493E+0	1.076154E+0	1.074715E+0	1.078853E+0	1.117050E+0	1.074895E+0	1.127932E+0	1.145057E+0	1.093505E+0	1.087628E+0	1.055538E+0	1.050586E+0	1.094883E+0	1.078459E+0	1.095660E+0	1.089588E+0	1.083923E+0	1.081628E+0	1.107375E+0	1.062614E+0	1.095790E+0	1.196622E+0	1.136191E+0	1.112577E+0	1.077419E+0	1.165018E+0	1.020943E+0	1.128793E+0	1.095583E+0	1.081098E+0	1.082643E+0	1.116679E+0	1.105354E+0	1.096767E+0	1.085179E+0	1.114387E+0	1.058408E+0	1.120469E+0	1.080098E+0	1.131488E+0	1.050212E+0	1.148628E+0	1.034472E+0	1.046090E+0	1.052538E+0	1.119230E+0	1.117212E+0	1.128344E+0	1.091519E+0	1.047714E+0	1.070465E+0	1.127516E+0	1.163835E+0	1.088815E+0	1.055964E+0	1.079112E+0	1.124165E+0	1.087446E+0	1.096949E+0	1.079940E+0	1.072219E+0	1.093713E+0	1.105741E+0	1.089675E+0	1.084990E+0	1.086507E+0	1.059657E+0	1.058778E+0	1.098367E+0	1.107959E+0	1.026331E+0	1.158059E+0	1.080671E+0	1.115766E+0	1.067590E+0	1.133524E+0	1.093026E+0	1.103623E+0	1.108314E+0	1.039490E+0	1.086730E+0	1.110708E+0	1.034824E+0	1.107249E+0	1.132348E+0	1.156969E+0	1.070035E+0	1.107709E+0	1.131891E+0	1.092817E+0	1.082996E+0	1.094014E+0	1.097264E+0	1.071438E+0	1.076341E+0	1.068650E+0	1.111875E+0	1.066172E+0	1.086938E+0	1.080697E+0	1.030428E+0	1.120647E+0	1.089256E+0	1.124796E+0	1.064778E+0	1.033852E+0	1.124307E+0	1.096199E+0	1.069046E+0	1.084991E+0	1.043466E+0	1.111194E+0	1.122700E+0	1.110376E+0	1.006632E+0	1.095655E+0	1.029844E+0	1.112958E+0	1.159471E+0
2.960050E+2	1.191519E+0	1.137353E+0	1.141543E+0	1.123871E+0	1.119001E+0	1.132379E+0	1.066399E+0	1.150496E+0	1.164409E+0	1.146767E+0	1.142007E+0	1.109638E+0	1.150878E+0	1.133788E+0	1.182976E+0	1.116456E+0	1.161123E+0	1.136524E+0	1.121035E+0	1.169904E+0	1.114909E+0	1.097809E+0	1.099321E+0	1.173900E+0	1.155338E+0	1.162352E+0	1.120023E+0	1.139527E+0	1.171108E+0	1.162426E+0	1.103416E+0	1.108536E+0	1.133076E+0	1.182187E+0	1.146331E+0	1.149106E+0	1.169469E+0	1.147148E+0	1.173460E+0	1.171642E+0	1.148932E+0	1.149013E+0	1.066244E+0	1.128324E+0	1.151026E+0	1.098077E+0	1.164207E+0	1.122497E+0	1.109893E+0	1.089769E+0	1.155042E+0	1.139354E+0	1.132692E+0	1.198154E+0	1.185666E+0	1.118285E+0	1.146936E+0	1.091208E+0	1.121197E+0	1.209920E+0	1.184240E+0	1.135819E+0	1.176439E+0	1.129035E+0	1.147216E+0	1.120938E+0	1.176559E+0	1.178377E+0	1.179606E+0	1.171727E+0	1.136416E+0	1.159445E+0	1.173568E+0	1.096529E+0	1.123921E+0	1.109080E+0	1.198682E+0	1.175966E+0	1.121341E+0	1.122284E+0	1.196783E+0	1.116547E+0	1.145219E+0	1.174203E+0	1.124587E+0	1.145479E+0	1.114857E+0	1.170483E+0	1.167972E+0	1.074142E+0	1.140337E+0	1.127634E+0	1.186909E+0	1.173785E+0	1.104496E+0	1.090950E+0	1.157340E+0	1.168078E+0	1.132840E+0	1.189055E+0	1.142356E+0	1.155514E+0	1.141651E+0	1.120446E+0	1.128965E+0	1.139479E+0	1.204140E+0	1.077697E+0	1.111025E+0	1.188064E+0	1.141531E+0	1.126893E+0	1.150292E+0	1.143371E+0	1.146774E+0	1.124162E+0	1.116798E+0	1.116953E+0	1.120420E+0	1.146587E+0	1.167964E+0	1.153201E+0	1.120864E+0	1.100444E+0	1.132518E+0	1.110830E+0	1.138834E+0	1.092448E+0	1.162138E+0	1.179496E+0	1.160458E+0	1.121572E+0	1.171913E+0	1.154068E+0	1.145223E+0	1.151660E+0	1.205442E+0	1.083819E+0	1.188939E+0	1.126349E+0	1.214855E+0	1.157170E+0	1.159146E+0	1.122599E+0	1.145442E+0	1.130446E+0	1.158603E+0	1.089423E+0	1.164112E+0	1.152577E+0	1.169663E+0	1.105726E+0	1.110782E+0	1.140441E+0	1.105042E+0	1.210596E+0	1.131503E+0	1.142875E+0	1.120976E+0	1.075285E+0	1.145840E+0	1.126377E+0	1.090906E+0	1.126789E+0	1.136040E+0	1.110973E+0
2.965040E+2	9.884179E-1	1.045576E+0	1.036438E+0	1.062801E+0	1.009614E+0	1.045739E+0	1.012118E+0	1.028008E+0	1.035394E+0	9.805428E-1	1.036931E+0	1.012300E+0	1.063099E+0	1.010316E+0	1.046567E+0	1.060884E+0	1.050006E+0	1.063420E+0	1.052597E+0	1.065623E+0	1.088756E+0	1.058689E+0	1.039591E+0	1.041778E+0	1.069391E+0	1.030891E+0	1.028067E+0	1.007935E+0	1.046032E+0	1.006038E+0	1.022498E+0	1.009270E+0	1.056582E+0	1.042669E+0	1.084615E+0	1.087755E+0	1.077560E+0	1.035200E+0	1.034730E+0	1.058414E+0	1.033084E+0	1.008360E+0	1.066538E+0	1.046773E+0	1.092742E+0	1.023200E+0	9.730231E-1	1.019535E+0	1.034453E+0	1.021449E+0	1.041473E+0	1.053207E+0	1.022910E+0	1.036826E+0	1.042221E+0	1.003527E+0	9.769500E-1	1.036686E+0	1.051656E+0	1.019842E+0	1.050464E+0	1.099750E+0	1.016502E+0	1.046091E+0	1.026795E+0	1.043391E+0	1.000671E+0	1.046828E+0	1.064133E+0	1.058108E+0	1.027127E+0	1.002317E+0	1.095892E+0	1.050048E+0	1.075814E+0	9.821110E-1	1.092421E+0	1.048787E+0	1.061327E+0	1.026418E+0	1.070582E+0	1.036351E+0	1.047875E+0	9.881259E-1	1.095824E+0	1.039936E+0	1.060862E+0	1.023582E+0	1.103548E+0	9.939928E-1	1.062980E+0	1.058101E+0	1.009385E+0	1.050404E+0	1.024139E+0	1.065251E+0	1.051314E+0	1.051587E+0	1.067653E+0	1.095840E+0	1.054532E+0	1.068278E+0	1.061095E+0	9.978522E-1	1.061327E+0	1.007958E+0	1.062164E+0	9.884226E-1	1.039969E+0	1.013250E+0	1.062713E+0	1.048450E+0	1.026372E+0	9.914731E-1	1.069478E+0	1.051264E+0	1.101165E+0	1.041547E+0	1.079479E+0	1.009395E+0	1.012572E+0	1.058113E+0	1.024698E+0	1.041615E+0	1.059772E+0	1.003199E+0	1.057142E+0	1.040587E+0	1.077580E+0	1.047749E+0	1.053401E+0	1.029378E+0	1.090641E+0	1.010500E+0	1.103826E+0	1.034925E+0	1.039824E+0	1.035689E+0	1.001021E+0	1.056175E+0	1.025833E+0	1.005452E+0	1.039028E+0	9.978975E-1	1.042266E+0	1.060436E+0	1.046463E+0	1.071718E+0	1.056025E+0	1.038080E+0	1.048417E+0	1.047633E+0	1.024439E+0	1.051438E+0	1.057229E+0	1.018436E+0	1.026667E+0	1.069349E+0	1.042751E+0	1.049863E+0	1.053867E+0	1.060141E+0	1.041952E+0	1.001703E+0	1.048396E+0	1.112566E+0
2.970020E+2	9.612257E-1	9.877351E-1	9.104681E-1	9.504585E-1	9.625954E-1	9.397086E-1	9.267438E-1	9.671282E-1	9.607208E-1	9.562890E-1	9.435063E-1	9.663465E-1	8.948244E-1	9.023485E-1	9.680664E-1	9.700126E-1	9.846621E-1	9.584304E-1	9.439498E-1	9.612516E-1	9.492023E-1	9.555254E-1	9.851637E-1	9.574606E-1	9.754709E-1	9.548237E-1	9.848420E-1	9.316395E-1	9.981920E-1	9.728092E-1	9.830378E-1	9.708862E-1	9.353623E-1	9.370725E-1	9.440972E-1	9.923309E-1	9.363390E-1	9.441646E-1	9.985988E-1	9.807177E-1	9.585970E-1	9.636249E-1	9.890490E-1	9.857232E-1	9.576228E-1	9.302014E-1	9.408269E-1	9.616938E-1	9.506506E-1	9.904030E-1	9.557608E-1	9.967909E-1	9.302628E-1	9.694519E-1	9.956697E-1	9.359234E-1	8.868984E-1	9.520644E-1	9.726559E-1	9.726339E-1	1.018064E+0	9.794142E-1	9.749278E-1	9.262297E-1	9.713435E-1	9.605133E-1	9.318426E-1	9.339685E-1	9.907314E-1	9.943353E-1	9.487576E-1	9.542417E-1	9.450999E-1	9.961761E-1	9.500928E-1	9.724726E-1	9.318007E-1	1.002381E+0	9.635879E-1	9.802482E-1	9.554901E-1	9.850197E-1	9.700941E-1	9.505905E-1	9.727117E-1	9.424094E-1	9.605031E-1	9.746076E-1	9.734844E-1	9.432348E-1	9.659584E-1	9.688957E-1	9.538059E-1	9.868780E-1	9.642670E-1	9.871374E-1	9.326426E-1	9.557339E-1	9.440713E-1	9.725443E-1	9.902049E-1	9.873172E-1	9.416514E-1	9.524233E-1	9.733605E-1	9.729578E-1	9.244719E-1	9.222460E-1	9.442850E-1	9.426199E-1	9.654981E-1	9.489885E-1	9.601145E-1	9.714468E-1	9.368097E-1	9.745887E-1	9.807796E-1	9.562300E-1	9.653117E-1	9.808835E-1	9.686337E-1	9.993156E-1	9.637676E-1	9.635829E-1	9.330004E-1	9.459700E-1	9.673168E-1	9.962801E-1	1.007294E+0	9.352653E-1	9.599315E-1	9.444386E-1	9.822510E-1	9.495194E-1	9.426998E-1	9.697096E-1	9.638369E-1	9.161994E-1	9.439087E-1	9.564935E-1	9.891178E-1	1.003482E+0	9.842974E-1	9.698478E-1	9.388762E-1	9.448509E-1	9.337883E-1	9.264952E-1	9.561189E-1	9.208769E-1	9.603533E-1	9.989749E-1	9.865163E-1	9.809250E-1	9.659152E-1	9.831812E-1	9.567124E-1	9.410470E-1	9.882834E-1	9.390602E-1	9.426469E-1	8.998239E-1	9.905218E-1	9.501062E-1	1.004699E+0	9.678772E-1
2.975020E+2	1.013687E+0	9.541858E-1	1.012779E+0	1.017568E+0	1.025094E+0	9.992997E-1	1.008648E+0	1.048826E+0	1.017873E+0	1.006032E+0	1.027924E+0	9.874667E-1	1.012186E+0	1.010855E+0	9.878113E-1	1.009265E+0	1.034431E+0	1.014404E+0	1.037774E+0	1.016521E+0	1.061078E+0	9.945202E-1	1.035044E+0	9.885972E-1	1.023972E+0	1.033159E+0	1.058220E+0	1.013683E+0	1.014664E+0	1.005165E+0	1.040233E+0	9.999749E-1	9.781055E-1	9.954916E-1	1.001654E+0	1.036598E+0	1.028522E+0	1.005311E+0	9.935515E-1	1.011636E+0	1.034523E+0	9.844334E-1	1.023586E+0	1.013272E+0	1.001970E+0	1.019982E+0	1.023665E+0	9.908500E-1	1.022953E+0	1.031094E+0	1.043327E+0	1.027167E+0	1.021577E+0	9.878388E-1	1.038730E+0	1.013559E+0	1.011398E+0	1.013916E+0	1.008474E+0	1.028215E+0	1.026298E+0	1.050593E+0	9.848871E-1	1.016596E+0	1.020015E+0	1.008749E+0	1.013844E+0	9.995358E-1	1.000140E+0	1.068861E+0	1.035241E+0	1.030806E+0	1.015588E+0	1.066136E+0	9.882047E-1	9.888574E-1	1.012272E+0	1.021206E+0	1.017641E+0	1.014040E+0	1.057291E+0	1.031404E+0	1.020639E+0	1.020544E+0	1.007561E+0	1.063538E+0	9.816131E-1	1.037949E+0	1.018236E+0	1.004392E+0	1.005936E+0	1.013700E+0	1.047918E+0	9.821746E-1	9.871416E-1	9.966600E-1	9.927842E-1	1.033983E+0	1.013028E+0	1.015182E+0	1.012845E+0	1.014009E+0	1.020836E+0	1.053639E+0	9.932977E-1	9.850330E-1	1.002695E+0	9.865879E-1	1.017392E+0	1.063757E+0	1.024370E+0	9.938661E-1	1.010467E+0	1.056853E+0	9.715053E-1	1.040977E+0	1.049605E+0	9.792317E-1	9.979748E-1	1.060098E+0	1.037815E+0	1.025683E+0	1.010010E+0	1.054352E+0	9.984831E-1	1.065145E+0	1.023964E+0	1.032834E+0	9.889714E-1	1.015787E+0	1.020812E+0	9.959303E-1	9.845543E-1	1.030268E+0	1.021042E+0	9.901232E-1	9.980012E-1	1.040001E+0	9.794459E-1	9.986958E-1	1.042816E+0	9.952078E-1	9.856084E-1	1.004398E+0	1.015251E+0	1.007028E+0	9.817814E-1	1.044204E+0	1.067634E+0	1.004041E+0	1.058608E+0	1.021425E+0	1.054540E+0	1.022090E+0	1.003175E+0	9.932309E-1	1.054554E+0	9.798681E-1	1.041915E+0	1.023484E+0	1.001564E+0	1.022832E+0	1.018617E+0	1.023669E+0	9.909808E-1	1.044323E+0
2.980050E+2	1.056020E+0	1.037069E+0	1.062667E+0	1.001545E+0	1.007139E+0	1.029253E+0	1.047731E+0	1.018555E+0	1.070935E+0	1.047022E+0	9.941516E-1	1.081376E+0	1.042862E+0	1.057342E+0	1.045614E+0	1.051051E+0	1.056553E+0	1.045672E+0	1.018051E+0	1.044322E+0	9.777434E-1	1.013545E+0	1.026230E+0	1.037694E+0	1.030367E+0	1.024959E+0	1.067564E+0	1.023372E+0	1.034338E+0	1.007168E+0	1.065824E+0	1.013826E+0	1.052926E+0	1.076155E+0	1.031966E+0	1.011238E+0	1.094469E+0	1.049984E+0	1.066664E+0	1.040915E+0	1.025664E+0	1.023968E+0	1.039422E+0	1.057608E+0	1.024862E+0	1.069969E+0	1.046268E+0	1.027736E+0	1.046193E+0	1.036988E+0	1.052252E+0	1.048272E+0	1.069461E+0	1.025601E+0	1.012806E+0	1.030683E+0	1.037740E+0	1.049849E+0	1.050229E+0	1.036878E+0	1.050648E+0	1.060163E+0	1.065752E+0	1.007729E+0	1.026655E+0	1.067395E+0	1.024736E+0	1.030888E+0	9.982360E-1	1.020436E+0	1.035299E+0	1.056792E+0	1.073293E+0	1.053741E+0	1.050488E+0	1.080779E+0	1.018456E+0	1.069941E+0	1.039494E+0	9.929086E-1	1.001703E+0	1.060581E+0	1.032689E+0	1.028847E+0	1.058509E+0	1.036607E+0	1.055843E+0	1.003694E+0	1.047254E+0	1.061361E+0	1.016240E+0	1.010919E+0	1.043431E+0	1.027780E+0	1.031703E+0	1.028528E+0	1.047286E+0	1.013801E+0	1.041163E+0	1.032154E+0	1.055482E+0	1.041280E+0	1.048189E+0	1.025803E+0	9.902616E-1	1.013097E+0	1.020440E+0	1.015299E+0	1.011009E+0	1.060250E+0	1.024034E+0	1.029786E+0	1.078765E+0	1.034277E+0	1.053559E+0	1.023749E+0	9.937565E-1	1.012545E+0	1.047315E+0	1.023983E+0	1.054224E+0	1.010475E+0	1.001904E+0	1.017198E+0	1.038831E+0	1.028185E+0	1.065980E+0	1.034859E+0	1.042904E+0	1.052976E+0	1.018825E+0	1.008553E+0	1.079091E+0	9.955043E-1	1.035853E+0	1.057082E+0	1.063407E+0	1.041080E+0	1.036051E+0	1.025215E+0	1.016307E+0	1.031540E+0	1.063826E+0	1.009175E+0	1.016196E+0	1.012310E+0	1.054685E+0	1.013476E+0	1.031771E+0	1.046155E+0	1.029003E+0	1.066511E+0	1.066667E+0	1.048642E+0	1.023892E+0	1.043263E+0	1.045609E+0	1.040107E+0	1.041398E+0	1.066705E+0	1.059241E+0	1.037532E+0	1.007689E+0	1.023878E+0	1.068391E+0	9.920365E-1
2.985020E+2	1.058066E+0	1.031500E+0	1.028903E+0	1.042314E+0	1.050232E+0	1.016047E+0	1.076084E+0	1.002563E+0	1.039158E+0	1.033928E+0	1.050738E+0	1.033701E+0	1.057178E+0	1.047942E+0	1.048669E+0	1.032157E+0	1.058422E+0	1.050955E+0	1.045093E+0	1.011938E+0	1.078163E+0	1.054069E+0	1.004281E+0	1.052598E+0	1.045896E+0	1.013984E+0	1.018610E+0	1.065966E+0	1.034736E+0	1.083415E+0	9.985931E-1	1.014278E+0	1.041388E+0	1.062852E+0	1.078916E+0	1.014854E+0	1.038483E+0	1.084892E+0	1.046315E+0	1.053553E+0	1.036340E+0	1.054040E+0	1.029609E+0	1.025638E+0	1.070857E+0	1.022089E+0	1.017143E+0	9.876090E-1	1.064043E+0	1.061898E+0	1.050293E+0	1.020532E+0	1.033841E+0	1.055024E+0	1.065831E+0	1.040788E+0	1.023162E+0	1.043240E+0	1.046627E+0	1.024314E+0	1.036975E+0	1.022217E+0	1.017966E+0	1.023403E+0	1.020396E+0	1.039123E+0	1.057945E+0	1.076516E+0	1.067909E+0	1.021251E+0	1.029567E+0	1.016896E+0	1.038621E+0	1.024118E+0	1.068857E+0	1.011627E+0	1.009020E+0	1.016908E+0	1.020641E+0	1.063961E+0	1.054840E+0	1.071039E+0	1.024000E+0	1.049577E+0	1.022142E+0	1.048131E+0	1.020950E+0	1.059902E+0	1.041876E+0	1.001716E+0	1.046147E+0	1.051501E+0	1.025792E+0	1.068543E+0	1.062774E+0	1.027614E+0	1.042705E+0	1.033629E+0	1.027216E+0	1.036062E+0	1.021414E+0	1.056711E+0	1.051197E+0	1.038722E+0	1.079749E+0	1.088674E+0	1.098256E+0	1.061139E+0	1.038021E+0	1.029403E+0	1.032615E+0	1.063221E+0	1.026137E+0	1.033431E+0	9.951411E-1	1.036516E+0	1.054295E+0	1.065387E+0	1.054538E+0	1.046582E+0	1.024305E+0	1.072864E+0	1.057196E+0	1.057675E+0	1.032593E+0	1.004376E+0	1.038664E+0	1.064877E+0	1.036473E+0	1.074046E+0	1.066161E+0	1.068385E+0	1.047098E+0	1.040583E+0	1.042407E+0	1.059868E+0	1.020470E+0	1.035062E+0	1.036521E+0	1.052213E+0	1.046025E+0	1.061424E+0	1.026795E+0	1.078979E+0	1.060965E+0	1.085668E+0	1.057018E+0	1.045178E+0	1.048909E+0	1.057203E+0	1.058052E+0	1.032607E+0	1.005089E+0	1.007930E+0	1.071619E+0	1.047655E+0	1.033328E+0	1.046528E+0	1.050083E+0	1.070155E+0	1.018907E+0	1.030294E+0	1.025204E+0	1.041451E+0	1.017221E+0	1.067568E+0
2.990040E+2	9.499652E-1	9.822138E-1	9.554804E-1	9.664563E-1	9.834792E-1	9.897835E-1	9.758131E-1	9.614339E-1	9.290010E-1	9.825529E-1	9.555394E-1	9.503439E-1	9.829019E-1	9.501862E-1	9.936907E-1	9.898061E-1	9.305967E-1	1.024764E+0	9.623929E-1	1.008626E+0	9.731945E-1	9.974299E-1	9.610071E-1	1.003735E+0	9.662991E-1	9.661067E-1	9.551434E-1	9.873621E-1	9.753169E-1	9.699463E-1	9.690651E-1	1.008644E+0	9.997264E-1	9.642965E-1	9.920599E-1	9.600965E-1	9.819693E-1	9.432489E-1	9.608949E-1	9.740459E-1	9.680533E-1	9.972368E-1	9.567266E-1	9.812959E-1	9.605428E-1	9.485728E-1	9.925361E-1	1.004879E+0	9.628817E-1	9.187315E-1	9.868245E-1	9.493543E-1	9.743964E-1	9.604995E-1	9.948212E-1	9.560892E-1	1.000017E+0	9.524106E-1	9.870598E-1	9.761816E-1	9.765801E-1	9.458426E-1	9.674619E-1	9.887136E-1	9.981771E-1	1.013139E+0	9.708689E-1	9.977480E-1	9.843722E-1	9.760614E-1	9.767891E-1	9.728504E-1	9.584204E-1	9.357495E-1	9.817311E-1	9.711495E-1	1.023939E+0	9.957349E-1	9.492405E-1	9.814447E-1	9.508292E-1	9.803633E-1	1.016585E+0	9.557063E-1	9.808092E-1	9.454675E-1	9.812988E-1	9.476207E-1	9.862898E-1	1.020803E+0	9.806077E-1	1.007847E+0	9.097197E-1	9.958541E-1	9.612696E-1	9.578273E-1	9.885201E-1	9.645163E-1	9.794080E-1	9.761015E-1	9.841314E-1	9.233087E-1	9.847760E-1	9.439921E-1	1.007151E+0	9.783760E-1	9.944424E-1	1.008585E+0	9.723753E-1	9.572502E-1	9.976604E-1	9.989040E-1	9.418469E-1	9.480560E-1	1.012460E+0	9.603545E-1	9.832436E-1	9.899981E-1	9.764543E-1	9.377333E-1	9.687798E-1	9.757952E-1	9.439935E-1	9.559992E-1	9.869852E-1	9.700692E-1	9.704777E-1	9.545590E-1	9.988678E-1	9.586387E-1	9.933458E-1	9.870987E-1	9.642677E-1	1.010957E+0	9.619806E-1	9.652245E-1	1.003223E+0	9.704788E-1	9.936111E-1	9.880115E-1	9.577891E-1	9.908383E-1	9.866092E-1	9.700879E-1	9.629482E-1	9.570534E-1	9.658768E-1	9.734746E-1	9.918795E-1	9.823983E-1	9.583298E-1	9.743690E-1	9.506660E-1	9.621241E-1	1.006756E+0	9.876042E-1	9.933141E-1	9.858002E-1	9.247011E-1	9.419849E-1	9.949073E-1	1.002668E+0	9.613518E-1	9.714198E-1	9.718654E-1	9.644066E-1
2.995020E+2	9.335058E-1	9.437768E-1	9.230951E-1	9.910788E-1	9.409139E-1	9.592087E-1	8.966639E-1	9.311445E-1	9.422579E-1	9.159458E-1	9.822632E-1	9.079738E-1	9.188266E-1	9.373819E-1	9.321433E-1	9.182755E-1	9.482322E-1	9.238254E-1	9.147843E-1	9.113926E-1	9.441500E-1	9.345367E-1	9.755076E-1	9.429042E-1	9.215539E-1	9.402163E-1	8.940953E-1	9.309081E-1	9.377399E-1	9.399115E-1	9.318762E-1	9.673110E-1	9.534402E-1	9.250837E-1	8.938775E-1	9.440071E-1	8.880314E-1	9.157598E-1	9.287055E-1	9.221356E-1	9.303517E-1	9.246102E-1	9.363615E-1	9.580003E-1	9.251125E-1	9.099570E-1	9.425808E-1	9.754888E-1	9.382294E-1	9.497034E-1	9.124474E-1	9.678853E-1	9.422983E-1	9.313302E-1	8.916946E-1	9.573199E-1	9.132828E-1	9.373296E-1	9.281820E-1	9.461669E-1	9.095382E-1	9.201792E-1	9.180247E-1	9.332777E-1	9.324922E-1	8.864530E-1	9.338354E-1	8.932997E-1	9.342689E-1	9.424598E-1	9.169303E-1	9.234006E-1	9.578442E-1	9.119698E-1	9.222863E-1	9.479717E-1	9.386526E-1	9.162362E-1	9.400690E-1	9.607837E-1	9.271069E-1	9.081193E-1	9.538353E-1	9.573478E-1	9.182405E-1	9.177961E-1	9.531631E-1	9.776715E-1	9.258254E-1	9.143765E-1	9.753184E-1	9.767100E-1	9.623285E-1	9.417205E-1	9.455025E-1	9.462511E-1	9.160994E-1	9.473356E-1	9.293966E-1	9.353166E-1	9.347663E-1	9.558348E-1	9.264263E-1	9.052829E-1	9.362059E-1	9.132732E-1	9.090003E-1	9.423836E-1	9.885063E-1	9.164941E-1	9.289839E-1	9.330684E-1	9.457672E-1	9.034730E-1	9.531382E-1	9.041298E-1	9.248827E-1	9.602888E-1	9.460359E-1	9.380555E-1	9.423678E-1	9.177508E-1	9.584910E-1	9.181276E-1	9.402277E-1	9.306784E-1	9.062462E-1	9.540553E-1	9.045932E-1	9.127479E-1	9.005848E-1	9.176294E-1	9.313348E-1	9.323735E-1	9.339561E-1	9.244779E-1	9.406528E-1	9.128406E-1	9.197481E-1	9.030662E-1	9.361946E-1	9.140023E-1	9.241951E-1	9.362632E-1	9.485882E-1	9.338735E-1	9.297801E-1	9.331696E-1	8.869746E-1	9.155217E-1	9.202486E-1	9.189824E-1	9.029512E-1	9.480031E-1	9.025879E-1	9.242720E-1	9.115097E-1	9.312355E-1	9.652222E-1	9.185502E-1	9.404551E-1	9.075558E-1	9.546250E-1	9.692422E-1	9.397193E-1	8.944180E-1
3.000040E+2	9.887561E-1	1.051254E+0	1.017076E+0	9.810376E-1	9.931420E-1	1.006409E+0	9.950599E-1	1.037478E+0	1.000775E+0	1.014519E+0	9.893842E-1	1.039139E+0	9.860450E-1	9.962938E-1	9.920720E-1	9.994453E-1	9.717649E-1	9.403805E-1	1.021904E+0	1.007200E+0	9.656713E-1	1.005899E+0	9.979293E-1	9.744719E-1	1.011912E+0	1.021575E+0	1.006368E+0	9.787080E-1	1.003206E+0	9.943940E-1	9.944093E-1	9.959662E-1	9.744142E-1	9.761213E-1	1.001527E+0	1.033207E+0	9.685249E-1	1.000804E+0	1.003869E+0	9.977151E-1	1.005069E+0	1.015712E+0	1.014295E+0	9.641869E-1	1.016656E+0	1.029430E+0	9.778071E-1	1.013437E+0	9.657000E-1	1.001584E+0	9.548548E-1	9.867899E-1	9.584254E-1	1.039707E+0	9.961177E-1	1.001561E+0	1.014399E+0	1.003254E+0	9.794291E-1	9.882447E-1	9.999610E-1	1.001005E+0	1.045908E+0	1.030280E+0	1.002264E+0	9.851409E-1	9.987707E-1	1.002013E+0	1.015074E+0	9.709309E-1	1.006174E+0	9.992551E-1	9.562335E-1	1.008286E+0	9.884326E-1	9.996152E-1	9.976599E-1	9.799730E-1	1.032915E+0	9.868624E-1	1.008230E+0	9.484924E-1	9.522511E-1	9.879778E-1	1.012738E+0	9.884602E-1	1.007132E+0	9.731625E-1	9.805189E-1	9.973523E-1	9.757510E-1	9.393227E-1	1.010811E+0	9.839278E-1	1.011609E+0	1.043120E+0	1.012605E+0	1.006736E+0	1.009788E+0	1.005184E+0	9.913616E-1	1.008856E+0	9.685766E-1	1.032561E+0	9.933355E-1	1.021547E+0	9.751663E-1	9.860057E-1	9.726971E-1	9.728462E-1	9.923362E-1	9.811549E-1	9.970174E-1	1.023910E+0	1.014197E+0	1.034274E+0	9.942171E-1	9.925490E-1	9.776821E-1	9.935485E-1	9.725079E-1	9.974316E-1	1.028405E+0	9.966483E-1	1.002881E+0	1.001546E+0	9.946678E-1	9.588153E-1	1.028191E+0	9.858046E-1	1.000271E+0	1.022404E+0	9.936539E-1	9.903147E-1	1.004760E+0	1.003225E+0	9.742462E-1	1.000537E+0	1.034622E+0	1.032799E+0	1.000869E+0	1.006987E+0	1.012966E+0	1.001097E+0	9.960513E-1	1.004068E+0	1.010858E+0	9.904977E-1	9.728320E-1	9.946801E-1	9.757578E-1	9.861057E-1	1.020087E+0	1.011211E+0	9.919691E-1	1.003975E+0	9.616854E-1	1.016461E+0	9.766815E-1	9.791207E-1	9.849259E-1	9.991169E-1	1.032512E+0	9.703397E-1	1.011822E+0	1.037248E+0
