Photon Energy (eV)	#1	#2	#3	#4	#5	#6	#7	#8	#9	#10	#11	#12	#13	#14	#15	#16	#17	#18	#19	#20	#21	#22	#23	#24	#25	#26	#27	#28	#29	#30	#31	#32	#33	#34	#35	#36	#37	#38	#39	#40	#41	#42	#43	#44	#45	#46	#47	#48	#49	#50	#51	#52	#53	#54	#55	#56	#57	#58	#59	#60	#61	#62	#63	#64	#65	#66	#67	#68	#69	#70	#71	#72	#73	#74	#75	#76	#77	#78	#79	#80	#81	#82	#83	#84	#85	#86	#87	#88	#89	#90	#91	#92	#93	#94	#95	#96	#97	#98	#99	#100	#101	#102	#103	#104	#105	#106	#107	#108	#109	#110	#111	#112	#113	#114	#115	#116	#117	#118	#119	#120	#121	#122	#123	#124	#125	#126	#127	#128	#129	#130	#131	#132	#133	#134	#135	#136	#137	#138	#139	#140	#141	#142	#143	#144	#145	#146	#147	#148	#149	#150	#151	#152	#153	#154	#155	#156	#157	#158	#159	#160	#161	#162	#163	#164	#165	#166	#167	#168	#169	#170	#171	
5.300160E+2	-5.569525E-3	-6.531048E-3	-1.364386E-2	-6.425613E-3	-4.873592E-3	-4.829800E-3	-3.459020E-3	-2.845047E-3	-4.072485E-3	-7.315168E-3	-3.805726E-3	-6.985689E-5	-7.421554E-3	-3.910571E-3	2.662137E-3	-6.649663E-3	1.969048E-3	-5.908613E-3	-6.138135E-3	-4.846270E-3	-3.716125E-3	-1.219953E-2	-9.479408E-3	-3.176241E-3	-4.034030E-3	-8.708685E-3	-1.186939E-5	-7.071217E-3	2.742132E-3	-1.278068E-3	-5.475804E-3	-9.039846E-3	-1.534417E-2	-9.180600E-3	-9.328095E-3	-5.965742E-4	-7.539784E-3	-9.350944E-3	-1.603069E-2	-9.872598E-4	6.448061E-3	-1.244684E-2	-8.539258E-3	-5.265351E-3	-3.525994E-3	-1.314266E-2	-5.874090E-3	-1.105748E-2	-1.115483E-2	-9.579515E-3	-4.136723E-3	-1.291078E-2	3.373410E-3	-8.012363E-3	-1.463772E-2	3.948067E-3	-1.878366E-3	-7.447175E-3	-3.833370E-3	-1.067136E-2	-8.874300E-3	-8.264778E-3	7.216471E-3	-3.549658E-3	-6.828432E-3	-3.393555E-3	-2.668641E-3	-3.199613E-3	-4.653051E-3	-5.777766E-4	-4.553995E-3	-2.749399E-3	-9.482576E-3	-1.528406E-2	-1.214828E-2	2.540972E-3	-8.879440E-3	-6.881620E-3	-8.977798E-3	-1.221358E-2	-5.161669E-3	-4.425069E-3	-6.703763E-3	5.311177E-5	-4.755236E-3	-5.698995E-3	-8.043441E-3	-8.547967E-3	-1.229286E-2	-5.693775E-3	-4.292537E-3	-8.669271E-3	-4.398469E-3	-9.177138E-3	-7.271462E-3	-1.185942E-2	3.401012E-3	-7.492427E-3	-1.498960E-3	-4.977105E-3	-7.600049E-3	-1.231700E-2	-3.664614E-3	-5.153079E-3	-8.706629E-3	-3.151026E-3	-8.865080E-3	-4.735282E-3	-7.861486E-3	-9.493089E-3	5.736837E-4	-1.115178E-2	-1.145093E-2	-7.122051E-3	-1.013251E-2	-7.925102E-3	-1.028544E-2	-3.188281E-3	-7.742022E-3	-1.220463E-2	-9.821133E-3	-1.284925E-2	-9.504091E-3	-6.541356E-3	-3.018050E-3	-1.860482E-3	-5.143521E-3	-1.201938E-2	-7.603377E-4	-1.116937E-2	-4.598431E-3	-1.601917E-2	-8.110488E-3	-6.718011E-3	-9.559697E-3	-9.299429E-3	8.776198E-4	-7.070303E-3	-5.340273E-3	-1.011121E-2	-9.457883E-3	-4.218796E-3	6.515706E-5	-1.023826E-2	-1.295829E-2	-3.087633E-3	-2.924358E-3	-4.235901E-3	3.893919E-3	1.501265E-3	-8.333743E-3	-3.885531E-3	-6.829707E-3	-8.202706E-3	-2.552811E-3	-5.458981E-3	-1.523076E-2	-4.129531E-3	-7.764679E-3	-7.261341E-3	-3.051721E-3	-1.947681E-2	3.668599E-3	-1.480694E-2	-6.523212E-3	-8.020961E-3	-1.141745E-2	-6.256941E-3	-7.880526E-3	-9.606034E-3	-1.775536E-2
5.305130E+2	-8.659611E-3	-4.444039E-3	-1.594665E-2	-9.284011E-3	-7.892977E-3	7.728493E-4	-5.540986E-3	-4.873893E-3	-4.865368E-3	-2.887712E-3	2.477041E-3	-1.074566E-2	-3.037757E-3	-2.956906E-3	-4.804729E-3	4.011874E-3	-6.725388E-3	-3.873623E-3	-8.301337E-3	-2.348968E-3	-3.280612E-3	2.031726E-3	-1.359526E-3	-1.472049E-2	-7.427413E-3	1.430416E-4	-8.536765E-5	-3.845858E-3	1.881132E-4	-4.742245E-3	-3.582746E-3	1.385003E-3	3.194805E-3	-5.084890E-3	1.029858E-3	-6.597601E-3	-7.642566E-3	-5.061426E-3	-1.066029E-2	-1.045584E-2	-4.600082E-3	-1.494409E-3	-4.310192E-3	-3.118042E-3	-1.184586E-2	-1.089445E-4	-4.982310E-3	-1.155261E-3	-6.695483E-3	-9.226056E-3	3.533399E-3	7.529073E-4	-1.820225E-3	-7.200554E-3	-7.467143E-3	-2.205048E-3	-7.116948E-3	2.726318E-3	-8.348097E-3	-4.958120E-3	-6.377115E-3	-1.438445E-3	-4.392152E-3	-2.672025E-3	-1.087565E-2	-1.129114E-2	-9.557114E-3	-1.646698E-3	-1.281445E-2	-1.193832E-2	-3.657671E-3	-3.332265E-3	-8.024842E-3	-2.695177E-3	-5.854557E-3	1.335688E-3	1.043782E-3	-3.539572E-3	-1.069832E-3	9.460485E-5	3.648337E-3	-4.028027E-3	-7.539740E-3	-7.596160E-3	-1.141303E-2	-9.403081E-3	-7.439539E-3	-9.058082E-3	-2.113863E-3	-2.868678E-3	1.835726E-3	-3.235967E-3	-8.255230E-3	-1.965692E-3	-4.660467E-3	-3.677950E-3	-5.993463E-3	-8.817833E-3	-6.170998E-3	-7.155165E-4	-7.152717E-3	-2.814501E-3	-6.236352E-3	4.852685E-4	-4.294265E-3	-1.058846E-2	-2.778558E-3	-9.011833E-4	6.177359E-5	9.408692E-4	3.647694E-3	2.514760E-4	8.526604E-4	-1.078361E-2	-4.366649E-3	-4.487801E-3	-8.041170E-3	-9.257491E-3	1.427059E-3	-5.739514E-3	2.936082E-3	8.696814E-3	-2.549332E-3	-7.158021E-3	-2.593124E-3	1.367338E-4	-6.315559E-3	-3.812792E-3	-1.041344E-2	-2.676225E-3	2.675155E-3	-9.633801E-3	-1.094663E-2	-8.686307E-3	-7.156034E-3	-1.367777E-2	1.932695E-3	-9.288481E-3	-5.588945E-3	-2.669855E-3	-3.465597E-3	2.160896E-3	-3.377232E-3	-1.559415E-3	-1.193510E-2	-8.020398E-3	-1.774584E-4	-1.061422E-2	-5.849917E-3	-4.637336E-3	3.695962E-3	-5.404010E-3	-1.082940E-2	-4.343147E-3	-3.986926E-3	-8.426782E-3	-5.079883E-3	-3.154937E-3	-8.573365E-3	-2.649719E-3	-3.606545E-3	2.820474E-3	-1.398862E-2	-6.661674E-3	-5.128018E-3	-1.163767E-3	-4.833445E-3	-1.956000E-4	-9.132135E-3	1.050381E-3	-5.956090E-3
5.310150E+2	-7.132055E-3	-8.147885E-5	1.537316E-3	-3.459329E-3	2.664521E-3	1.693076E-3	-2.653728E-3	-1.563447E-3	-9.168932E-4	-4.520557E-3	-1.905079E-3	-2.983137E-3	-3.188308E-3	-9.961700E-4	-6.300311E-3	-7.660915E-3	3.397449E-3	5.972914E-3	-5.346405E-3	-1.181317E-2	-1.662569E-4	2.905790E-3	-1.831099E-3	-5.683690E-3	-2.164182E-3	3.546012E-3	-1.008294E-2	1.106742E-3	-1.319291E-2	-2.410239E-3	-2.113569E-4	3.993227E-3	-2.861452E-3	1.077877E-4	3.554422E-3	4.135656E-3	2.727450E-3	-4.176033E-3	3.196575E-4	5.626364E-3	-1.005672E-2	-2.805741E-3	1.039298E-3	1.802384E-4	-3.284713E-3	-4.144833E-3	-4.131214E-3	-4.403006E-3	-6.866549E-3	-1.050816E-2	-7.240831E-3	5.912984E-4	-1.920689E-3	3.808559E-3	-2.526718E-3	-1.058242E-2	1.871512E-3	-1.395765E-2	-4.130966E-3	6.161485E-3	-6.904332E-4	1.951203E-3	-8.086300E-3	2.235266E-3	1.672466E-3	7.710023E-4	1.532335E-3	2.632051E-3	1.006202E-3	-2.013134E-4	-9.767611E-3	1.663571E-3	2.328344E-3	-1.603608E-4	-6.026500E-3	1.027848E-2	-5.359147E-3	-7.002217E-4	6.908189E-3	-5.462916E-3	-9.246222E-3	-4.283439E-3	3.309357E-3	-1.224631E-3	7.262905E-3	2.380878E-3	4.820199E-3	-9.312210E-4	-2.872938E-3	-8.579721E-3	-5.233326E-3	-5.119909E-3	-5.045184E-3	-5.329493E-3	-2.288805E-3	-1.347292E-3	-2.246632E-3	-2.732027E-4	-6.397751E-3	-6.437456E-3	-4.328251E-3	-2.845869E-3	-6.443630E-4	-1.654676E-3	6.348987E-3	-2.323658E-3	1.065339E-2	-3.281545E-3	4.306172E-3	-8.260631E-3	-1.471317E-3	-3.214550E-4	-1.142836E-2	-4.262047E-3	-5.085595E-3	-6.527750E-3	-3.474885E-3	4.389010E-3	1.444569E-3	-1.287863E-3	-2.288898E-3	-5.686451E-3	-3.130709E-3	-1.550870E-2	-2.212665E-3	-3.021638E-3	2.228402E-3	-3.391103E-3	-5.276889E-3	-5.499289E-3	-4.694810E-3	-7.924138E-4	-3.103177E-3	-2.965221E-3	-7.533396E-3	-9.853863E-3	-2.982480E-3	1.807005E-3	-3.680410E-3	7.759954E-3	5.537404E-4	-5.836329E-3	4.588137E-3	-2.973582E-3	-9.688278E-3	-7.648139E-3	-8.996816E-3	1.239148E-4	-7.422194E-3	-8.069102E-3	-4.406904E-3	-1.264245E-3	1.229176E-3	1.396582E-2	1.515748E-3	-1.679114E-3	1.570902E-3	-6.373769E-3	-2.133985E-3	-5.398928E-3	-6.336845E-3	-2.811764E-4	-2.850353E-3	5.849102E-4	-4.233383E-3	-8.161704E-3	-8.370843E-3	1.951868E-3	-1.927538E-4	-6.469580E-3	-1.120491E-2
5.315130E+2	6.301954E-3	5.549118E-3	4.660140E-3	-2.517355E-4	-4.245593E-3	-1.009552E-3	-7.168630E-4	-3.101234E-3	8.592366E-3	-1.058726E-3	3.875509E-3	7.384563E-4	-2.762310E-3	-4.219466E-3	1.187100E-3	6.985090E-3	-3.747652E-3	-4.727034E-3	3.931109E-3	2.649444E-3	2.480900E-3	-3.224882E-3	5.034223E-3	5.369107E-3	-4.434828E-3	-1.567314E-3	7.365487E-4	-7.507658E-5	3.053480E-3	-5.932648E-3	3.209574E-3	-3.550398E-3	2.856932E-4	4.331278E-3	8.212560E-4	-5.208610E-3	-2.607956E-3	-4.741785E-3	3.484489E-3	4.111742E-3	2.699425E-3	3.292665E-3	-2.913711E-3	-3.988940E-3	9.279183E-3	4.094420E-3	1.177740E-3	-4.004831E-3	1.213426E-2	4.771130E-3	4.992134E-3	-2.993629E-3	2.772627E-3	-1.593604E-3	-1.210248E-3	-1.399851E-3	-1.672782E-3	-4.065820E-5	4.637892E-3	1.284865E-3	9.895394E-3	8.737202E-4	-3.056273E-3	-4.622605E-3	1.587897E-3	6.826210E-3	3.116989E-4	1.982082E-3	6.708018E-3	4.964545E-3	-1.947397E-3	3.121137E-3	1.481094E-5	-2.924885E-3	4.725300E-3	-6.302642E-3	2.137421E-4	-6.193423E-3	-6.436509E-3	-2.542154E-3	2.751744E-3	-4.369553E-3	-9.016776E-3	1.967734E-3	-1.484489E-3	7.497666E-3	-9.492356E-3	8.721828E-3	1.094140E-2	2.239848E-3	-1.313315E-3	-7.398374E-3	7.969254E-3	5.701427E-3	-4.805761E-3	7.388637E-6	-1.112209E-2	3.730011E-3	5.763074E-3	-4.116350E-4	1.458462E-3	1.266550E-3	3.054484E-3	8.629688E-4	-7.543097E-3	1.032700E-2	-7.183208E-3	-6.206481E-3	-6.086490E-3	2.313742E-3	-1.108460E-2	-3.952360E-4	7.480036E-3	9.017057E-3	8.916060E-3	-3.594680E-3	1.043419E-2	-7.506327E-3	-3.186357E-3	4.419778E-3	-1.144979E-4	2.257177E-3	3.306899E-3	5.534462E-3	-1.174379E-3	4.860551E-4	1.155942E-4	-3.946630E-3	3.026584E-3	3.926986E-4	-5.012586E-4	1.173151E-2	-3.582117E-4	3.687399E-4	7.041493E-3	7.486531E-3	-3.059445E-3	-9.511050E-4	6.858303E-3	-6.964091E-3	-1.054514E-3	-6.399034E-3	2.828697E-6	-2.572967E-4	6.461447E-3	-7.121132E-3	-8.479633E-3	6.068923E-4	2.379720E-3	9.522908E-4	1.459156E-3	7.888490E-3	5.590772E-3	2.925660E-3	-2.279733E-4	-4.058141E-5	1.487224E-3	6.578074E-3	5.422571E-3	5.156932E-3	2.526311E-3	3.207129E-3	2.776139E-3	-4.564322E-3	-2.823725E-3	1.222325E-2	1.301283E-2	-6.706449E-4	-2.787428E-4	3.572454E-4	-9.234016E-4
5.320070E+2	3.203875E-3	-8.607077E-4	1.200748E-2	5.094126E-3	1.323763E-2	-2.161783E-3	2.698037E-3	8.614839E-3	-5.914954E-3	5.891821E-3	-2.658482E-3	2.747918E-3	7.207199E-3	5.048682E-3	4.363601E-3	-1.309588E-3	2.629405E-3	1.856042E-3	2.768173E-3	5.114281E-3	2.374716E-3	2.717305E-3	6.656332E-3	7.177235E-3	9.639887E-3	-3.681665E-3	-3.517137E-3	-4.761004E-3	8.007555E-3	3.779406E-3	5.932843E-4	-5.510256E-4	3.385500E-3	1.066474E-2	-1.402252E-3	1.744693E-3	1.587183E-3	9.717347E-3	1.167964E-2	5.430716E-3	3.723751E-3	4.277613E-3	4.667276E-3	4.732144E-3	-4.031674E-3	5.059737E-3	-1.867787E-3	5.051330E-3	-3.586703E-4	6.226616E-3	-1.846258E-3	6.188772E-3	-2.092190E-3	4.964542E-3	1.016203E-2	-9.889557E-4	9.081193E-3	5.515692E-3	-6.537716E-3	5.974691E-3	1.687595E-4	2.551538E-4	3.442338E-3	5.689384E-3	9.027656E-4	-1.123077E-3	7.466945E-4	-9.035385E-4	8.100939E-4	-4.653466E-3	5.341109E-3	-8.270715E-3	7.666578E-3	1.139016E-2	1.160495E-2	-8.099776E-3	3.466876E-3	6.477484E-3	-2.282307E-3	7.307819E-3	7.980713E-4	2.779997E-4	3.640194E-3	2.375070E-3	5.507205E-3	1.645199E-3	2.245318E-3	1.787244E-3	3.671212E-4	-1.524986E-3	5.541631E-5	1.112025E-2	4.419925E-3	1.775273E-3	4.425135E-3	1.199809E-3	4.177600E-3	4.174286E-3	2.303751E-3	-4.951036E-3	2.764633E-3	1.045702E-2	-7.206302E-4	7.328858E-4	1.351111E-2	2.675562E-3	9.649529E-4	-1.758773E-3	-7.975312E-4	3.228389E-3	-5.459494E-4	-3.511320E-3	6.216318E-3	2.753701E-3	9.347900E-3	1.189395E-2	1.033437E-3	1.383728E-3	8.343314E-4	7.185558E-3	5.869471E-3	2.706940E-3	1.708746E-3	1.036627E-2	9.485886E-4	-2.159923E-3	1.539514E-3	1.060541E-2	4.102145E-3	2.990670E-3	1.219359E-3	1.985656E-4	4.691277E-3	5.606370E-3	1.758447E-3	5.106848E-3	-5.842436E-3	-2.124647E-3	1.715952E-3	4.607218E-3	-3.195759E-3	7.901790E-3	-5.590932E-3	2.423566E-3	1.130089E-2	1.205445E-2	4.567310E-3	-2.951914E-3	1.781184E-3	3.241679E-3	1.361351E-3	-4.009163E-3	2.686665E-3	-3.516665E-3	-8.941255E-4	4.156568E-4	1.891730E-3	4.375020E-3	8.355434E-3	-4.176773E-3	8.700548E-3	9.030629E-3	4.739586E-3	2.634011E-3	2.480024E-3	3.758719E-3	-4.932179E-3	4.817149E-4	3.836609E-3	9.417921E-3	-1.137257E-2
5.325170E+2	1.185536E-2	6.368155E-3	1.138558E-2	1.432656E-2	1.110013E-3	5.535210E-3	9.672560E-3	3.768782E-3	7.177335E-3	9.890342E-3	2.016737E-3	1.031228E-2	9.202730E-3	7.034432E-3	2.892201E-3	4.623202E-3	2.477138E-3	6.680314E-3	1.308660E-2	1.124469E-2	2.307378E-3	7.769595E-3	9.794776E-4	1.103408E-2	8.420565E-3	1.026861E-2	1.296076E-2	1.464641E-2	-7.983673E-4	1.058379E-2	5.467048E-3	7.763038E-3	1.133962E-2	-8.383176E-4	5.324811E-3	6.522436E-3	1.347567E-2	1.361284E-2	1.120720E-2	-3.725723E-3	1.785560E-3	9.176711E-3	1.005659E-2	7.459951E-3	1.340906E-2	8.242280E-3	1.567766E-2	1.556925E-2	1.294128E-2	1.831598E-2	4.698279E-3	8.371429E-3	-3.129325E-4	8.033420E-3	1.567980E-2	1.122820E-2	-2.846092E-4	1.320348E-2	1.821226E-2	2.208438E-3	5.877694E-3	6.623145E-3	4.875917E-3	2.919639E-3	1.354096E-2	8.210562E-3	9.635027E-3	1.135717E-3	8.943184E-3	1.240633E-2	1.458556E-2	9.567672E-3	7.497685E-3	9.674320E-3	7.699084E-3	2.472756E-4	9.514187E-3	1.083735E-2	1.185826E-2	1.281623E-2	7.209738E-3	1.682809E-2	1.631073E-2	4.424876E-3	4.882645E-3	3.578332E-3	1.790982E-2	8.028198E-3	5.971132E-3	1.642731E-2	8.948035E-3	1.330327E-2	5.309705E-3	8.995623E-3	1.460136E-2	1.567746E-2	1.178358E-2	8.679166E-3	6.000884E-3	1.749275E-2	1.485792E-2	6.253805E-3	8.211475E-3	4.726632E-3	6.838964E-4	3.060582E-3	7.208500E-3	1.688326E-2	1.037756E-2	1.127072E-2	8.880491E-3	1.512831E-2	8.330280E-3	1.039695E-2	1.320794E-3	1.064138E-2	1.033387E-2	1.417936E-2	7.222420E-3	7.626673E-3	3.418976E-3	4.874766E-3	1.016849E-2	1.330735E-2	8.049629E-3	6.419255E-3	7.575569E-3	1.256450E-2	9.321936E-3	1.596151E-2	5.899986E-3	1.451531E-2	1.782723E-2	1.239443E-2	1.544919E-2	2.023768E-2	9.074045E-3	1.762753E-2	6.035373E-3	7.377984E-3	1.662001E-2	6.391472E-3	4.312040E-3	1.260498E-2	1.681933E-2	1.382286E-2	1.601096E-2	1.707123E-2	5.217288E-3	7.011204E-3	6.224177E-3	6.674458E-3	8.152494E-3	-8.289650E-4	6.146087E-3	1.518980E-2	1.536079E-2	2.705145E-3	4.694023E-3	1.432983E-2	1.768252E-3	4.699753E-3	5.654647E-3	2.281401E-2	1.622831E-2	1.364464E-3	1.654109E-2	4.689603E-3	1.364755E-2	5.250067E-3	4.721233E-2
5.330280E+2	2.742949E-2	2.208237E-2	1.373575E-2	1.919304E-2	2.483191E-2	1.520775E-2	1.140445E-2	2.799357E-2	3.225976E-2	2.649677E-2	9.280207E-3	2.619990E-2	1.581078E-2	1.567184E-2	1.981928E-2	1.657131E-2	1.914969E-2	2.934328E-2	7.534986E-3	2.111277E-2	2.589440E-2	1.830004E-2	2.611031E-2	1.453264E-2	1.849758E-2	2.269023E-2	3.629434E-2	2.559653E-2	2.433413E-2	1.526544E-2	2.132336E-2	3.479121E-2	1.106942E-2	3.733093E-2	1.565168E-2	1.420035E-2	2.045450E-2	2.368487E-2	2.404751E-2	2.908134E-2	1.205342E-2	2.128318E-2	2.585111E-2	2.087473E-2	1.420681E-2	6.758190E-3	4.056071E-2	1.887276E-2	5.893069E-3	3.135418E-2	2.972026E-2	2.030800E-2	2.535307E-2	2.170693E-2	1.406638E-2	2.749796E-2	1.032182E-2	1.029197E-2	1.453591E-2	3.006229E-2	2.219952E-2	3.492632E-2	8.155799E-3	2.867999E-2	1.992475E-2	2.136759E-2	2.753573E-2	2.421011E-2	2.667770E-2	4.048314E-2	2.978747E-2	2.168657E-2	1.723019E-2	1.744407E-2	2.973370E-2	2.163360E-2	2.566814E-2	2.546254E-2	2.642211E-2	1.912286E-2	1.532048E-2	1.946733E-2	2.417961E-2	1.399391E-2	2.563618E-2	1.582246E-2	1.004521E-2	2.442813E-2	1.260486E-2	3.067798E-2	1.874109E-2	1.358242E-2	3.439224E-2	2.950314E-2	2.983678E-2	1.090390E-2	2.981398E-2	2.186581E-2	1.907097E-2	1.670573E-2	1.771572E-2	2.044123E-2	2.225645E-2	3.195318E-2	2.637758E-2	2.836981E-2	1.524181E-2	1.718353E-2	1.945714E-2	1.810655E-2	2.490298E-2	1.940559E-2	2.006860E-2	2.767193E-2	1.509975E-2	2.237267E-2	2.086731E-2	2.537685E-2	2.032730E-2	2.999453E-2	1.563270E-2	2.587043E-2	2.249243E-2	2.726742E-2	1.442745E-2	2.721616E-2	2.265202E-2	1.425534E-2	1.856178E-2	1.507966E-2	1.898937E-2	2.377824E-2	2.373268E-2	2.779990E-2	1.662699E-2	1.311476E-2	3.092785E-2	2.649854E-2	1.973525E-2	1.759146E-2	1.174180E-2	2.560592E-2	2.569492E-2	2.449609E-2	3.282531E-2	1.947864E-2	2.652073E-2	2.192033E-2	2.504957E-2	3.225748E-2	2.336730E-2	4.670857E-2	2.421130E-2	2.599159E-2	1.858248E-2	2.752611E-2	1.876685E-2	3.596524E-2	2.178895E-2	1.736771E-2	9.398155E-3	2.235245E-2	2.514731E-2	3.324579E-2	2.656616E-2	3.997261E-2	2.129702E-2	2.343584E-2	1.741345E-2	2.512487E-2	1.832490E-2
5.331580E+2	2.159304E-2	2.736645E-2	2.681035E-2	2.783403E-2	2.607522E-2	3.062203E-2	2.220653E-2	2.647048E-2	2.563858E-2	1.945363E-2	3.531628E-2	3.757852E-2	2.668108E-2	3.107182E-2	2.328338E-2	3.344131E-2	2.637560E-2	2.606801E-2	2.284995E-2	1.844416E-2	2.835121E-2	3.440277E-2	3.589556E-2	2.753453E-2	3.111683E-2	3.349955E-2	1.969050E-2	2.768494E-2	2.925846E-2	1.885897E-2	3.511203E-2	2.974961E-2	3.135370E-2	2.440311E-2	1.842593E-2	1.711387E-2	2.157249E-2	1.742937E-2	3.261626E-2	3.288047E-2	2.566718E-2	3.282752E-2	2.217502E-2	2.359699E-2	1.620796E-2	2.759079E-2	3.236529E-2	3.573116E-2	3.467823E-2	2.613883E-2	1.347121E-2	2.365451E-2	2.176262E-2	2.951081E-2	3.283170E-2	4.149545E-2	2.857345E-2	2.775214E-2	2.315361E-2	3.065572E-2	3.238343E-2	2.806916E-2	3.048636E-2	2.739394E-2	3.365043E-2	1.811962E-2	1.568477E-2	2.274893E-2	2.153588E-2	3.202738E-2	3.325996E-2	4.159538E-2	1.756534E-2	2.357432E-2	3.759528E-2	2.288979E-2	2.423042E-2	3.258733E-2	3.520792E-2	2.756840E-2	1.974587E-2	2.450916E-2	1.846340E-2	2.734381E-2	2.581945E-2	2.752214E-2	2.698861E-2	2.606856E-2	2.797219E-2	2.722372E-2	2.443897E-2	2.273943E-2	3.368870E-2	3.718309E-2	2.600516E-2	1.901457E-2	2.330543E-2	3.086692E-2	3.043648E-2	1.516738E-2	3.169752E-2	2.854272E-2	2.527774E-2	2.276907E-2	2.776329E-2	2.860528E-2	3.561838E-2	2.419344E-2	3.545642E-2	3.100558E-2	2.841293E-2	1.646118E-2	3.467731E-2	2.001855E-2	1.860487E-2	2.782762E-2	3.041145E-2	2.455690E-2	3.615392E-2	3.302588E-2	2.665867E-2	1.676327E-3	3.324468E-2	3.301642E-2	2.578538E-2	3.199564E-2	3.512725E-2	2.377101E-2	2.712759E-2	2.121096E-2	3.757747E-2	3.177156E-2	2.528402E-2	2.695206E-2	3.202113E-2	2.683839E-2	3.269140E-2	4.341091E-2	2.380783E-2	1.830194E-2	1.136040E-2	3.127069E-2	1.723622E-2	2.323609E-2	1.215002E-2	2.441035E-2	3.262030E-2	1.854934E-2	3.969987E-2	4.206129E-2	3.399958E-2	2.978335E-2	2.377451E-2	2.903361E-2	2.708083E-2	3.055805E-2	3.727522E-2	3.139565E-2	2.448761E-2	1.844154E-2	2.706377E-2	2.126261E-2	2.474906E-2	4.132531E-2	2.629505E-2	3.638353E-2	2.009578E-2	2.998584E-2	3.908819E-2	1.829644E-2	1.736234E-3
5.333130E+2	5.177355E-2	4.105152E-2	3.646803E-2	3.034988E-2	2.979203E-2	3.099767E-2	3.952644E-2	4.882978E-2	3.388674E-2	3.577163E-2	4.339706E-2	5.088031E-2	4.516186E-2	3.839927E-2	3.721430E-2	4.327213E-2	3.388161E-2	4.510959E-2	3.432052E-2	4.533294E-2	4.226438E-2	4.486518E-2	4.308936E-2	4.158489E-2	3.766073E-2	5.085452E-2	3.637280E-2	3.924875E-2	3.643889E-2	4.626872E-2	4.680783E-2	4.543126E-2	3.283349E-2	2.576185E-2	2.676877E-2	3.213357E-2	4.337383E-2	4.312600E-2	4.208501E-2	3.900178E-2	4.936971E-2	3.661798E-2	6.024978E-2	3.205541E-2	5.189501E-2	2.736011E-2	3.530488E-2	3.950038E-2	3.037179E-2	5.238255E-2	3.136126E-2	2.878265E-2	5.042384E-2	4.268588E-2	3.048185E-2	4.100907E-2	3.498357E-2	3.608423E-2	4.834643E-2	4.917601E-2	4.764279E-2	4.628049E-2	3.668540E-2	3.804988E-2	4.427287E-2	3.830463E-2	3.897982E-2	3.343687E-2	3.334305E-2	3.493030E-2	4.184605E-2	4.055047E-2	4.767771E-2	3.550205E-2	3.102497E-2	3.547390E-2	3.242058E-2	4.516378E-2	3.092193E-2	3.530078E-2	4.284944E-2	4.679249E-2	3.711375E-2	4.313218E-2	3.872925E-2	3.801157E-2	4.108461E-2	3.889273E-2	4.309386E-2	3.883213E-2	4.023956E-2	3.651408E-2	4.446555E-2	4.254561E-2	4.247431E-2	3.807543E-2	3.612611E-2	5.876976E-2	2.852299E-2	4.418999E-2	3.624328E-2	4.378302E-2	3.380684E-2	4.846760E-2	5.533634E-2	4.365910E-2	4.387015E-2	4.097803E-2	4.037330E-2	3.658072E-2	2.133606E-2	4.162224E-2	3.853722E-2	3.396028E-2	4.414796E-2	4.270286E-2	3.661288E-2	2.644568E-2	3.299595E-2	3.163187E-2	4.257781E-2	2.691736E-2	5.159839E-2	3.583807E-2	5.223032E-2	2.666427E-2	4.756105E-2	2.716002E-2	3.658541E-2	3.704535E-2	5.478683E-2	2.969021E-2	4.198088E-2	5.120038E-2	5.325097E-2	3.694008E-2	4.462250E-2	3.680650E-2	4.347783E-2	4.239172E-2	3.916508E-2	3.426316E-2	4.514296E-2	3.973441E-2	3.334949E-2	4.992574E-2	3.660047E-2	3.171130E-2	3.925478E-2	4.411141E-2	3.850998E-2	2.497187E-2	4.115133E-2	4.113992E-2	3.476048E-2	2.387291E-2	3.886379E-2	3.769658E-2	4.249565E-2	4.577812E-2	4.037768E-2	2.945109E-2	4.040289E-2	5.040595E-2	4.635749E-2	3.406395E-2	3.785856E-2	5.426994E-2	4.103336E-2	3.672643E-2	2.991543E-2
5.334630E+2	5.354983E-2	6.083625E-2	3.977879E-2	4.707938E-2	5.709777E-2	5.023692E-2	5.032953E-2	5.086231E-2	5.126111E-2	3.838567E-2	4.830521E-2	6.215462E-2	5.445952E-2	3.896250E-2	5.883181E-2	4.492136E-2	4.609285E-2	6.159086E-2	4.124512E-2	5.142416E-2	5.749657E-2	6.094203E-2	4.659630E-2	4.884907E-2	5.626397E-2	4.674796E-2	4.223929E-2	5.905943E-2	6.148121E-2	3.725351E-2	3.612449E-2	5.361438E-2	5.156199E-2	5.217196E-2	6.395641E-2	4.797792E-2	6.428657E-2	3.816250E-2	5.196694E-2	5.131571E-2	3.745669E-2	5.670841E-2	4.673352E-2	6.899975E-2	6.031087E-2	5.172472E-2	5.177234E-2	4.682233E-2	5.143814E-2	5.507622E-2	4.001557E-2	5.286792E-2	6.739712E-2	4.585312E-2	5.630580E-2	6.727613E-2	5.394906E-2	4.299812E-2	4.331076E-2	4.436751E-2	5.639162E-2	5.944762E-2	6.009732E-2	6.381538E-2	4.265069E-2	5.656527E-2	4.943150E-2	4.585391E-2	5.892503E-2	6.404221E-2	5.034609E-2	5.113594E-2	5.918464E-2	4.813238E-2	5.097949E-2	5.620184E-2	6.146603E-2	6.121964E-2	5.318705E-2	5.251964E-2	5.897500E-2	5.784246E-2	8.049738E-2	5.195773E-2	5.905287E-2	5.765048E-2	4.592486E-2	5.656999E-2	4.821567E-2	5.439057E-2	4.955221E-2	6.167407E-2	5.293786E-2	5.606076E-2	5.402981E-2	5.567236E-2	4.016503E-2	5.825920E-2	6.436178E-2	6.194612E-2	5.039604E-2	6.667738E-2	5.120209E-2	4.706289E-2	6.106827E-2	6.598434E-2	5.496916E-2	4.466534E-2	5.174223E-2	5.107301E-2	5.345468E-2	6.565900E-2	5.572073E-2	4.341880E-2	4.592732E-2	5.647102E-2	5.285698E-2	6.070486E-2	5.165867E-2	4.664540E-2	4.434747E-2	5.623897E-2	4.911383E-2	5.811550E-2	7.575860E-2	6.677218E-2	4.084946E-2	3.259070E-2	5.995033E-2	4.261800E-2	3.936774E-2	5.555261E-2	5.346138E-2	4.525103E-2	6.379646E-2	5.429993E-2	4.528499E-2	5.214883E-2	4.524238E-2	5.665158E-2	6.196306E-2	4.492768E-2	5.277591E-2	6.998908E-2	4.811894E-2	5.305921E-2	4.941719E-2	5.460518E-2	5.340987E-2	5.481773E-2	4.861543E-2	6.627929E-2	5.538882E-2	4.178139E-2	6.066009E-2	4.732682E-2	6.003108E-2	6.528607E-2	4.821922E-2	5.279325E-2	5.005792E-2	5.325156E-2	6.362256E-2	6.359750E-2	5.742506E-2	5.775730E-2	5.334340E-2	5.370839E-2	7.079418E-2	5.143985E-2	5.681398E-2
5.336080E+2	9.614396E-2	7.319546E-2	5.789121E-2	5.744260E-2	7.809829E-2	5.729624E-2	6.956695E-2	6.293245E-2	6.859123E-2	5.501596E-2	5.605111E-2	7.047445E-2	7.120863E-2	5.822544E-2	4.408095E-2	6.250866E-2	5.613060E-2	8.221698E-2	6.523189E-2	7.769124E-2	7.402325E-2	7.022924E-2	7.921133E-2	6.225837E-2	7.669297E-2	8.437692E-2	8.317985E-2	7.148059E-2	6.952504E-2	7.000272E-2	7.505700E-2	6.517704E-2	5.936674E-2	6.270908E-2	8.036471E-2	7.324189E-2	7.137414E-2	6.565194E-2	6.875224E-2	8.841342E-2	6.085046E-2	6.714104E-2	7.107331E-2	6.812224E-2	7.622793E-2	7.392412E-2	7.795726E-2	7.003013E-2	5.313520E-2	7.466540E-2	6.519316E-2	1.023359E-1	7.156660E-2	8.017969E-2	7.677886E-2	6.371411E-2	7.239620E-2	7.222071E-2	6.032613E-2	5.197362E-2	8.063504E-2	6.881175E-2	5.768151E-2	6.053626E-2	8.649095E-2	7.550423E-2	7.782994E-2	7.236208E-2	6.804305E-2	7.889935E-2	8.470897E-2	8.167011E-2	5.753208E-2	6.138336E-2	7.437876E-2	7.869335E-2	8.657061E-2	8.310192E-2	7.277905E-2	7.938924E-2	5.896530E-2	5.891270E-2	6.038308E-2	7.286954E-2	7.118711E-2	5.884826E-2	6.310352E-2	6.571765E-2	6.599950E-2	7.343694E-2	5.776495E-2	6.849136E-2	7.041631E-2	7.832069E-2	8.195084E-2	7.370010E-2	7.180742E-2	7.258856E-2	7.180167E-2	6.807266E-2	6.764595E-2	7.374283E-2	7.665244E-2	6.822236E-2	7.738211E-2	7.920812E-2	6.658455E-2	6.975300E-2	6.655126E-2	7.406717E-2	6.223469E-2	6.699184E-2	8.700493E-2	7.561299E-2	6.272840E-2	8.745616E-2	8.140744E-2	6.444704E-2	7.209881E-2	7.419931E-2	7.049503E-2	7.642402E-2	8.271465E-2	7.889623E-2	7.168559E-2	7.020521E-2	7.487792E-2	6.583751E-2	6.754303E-2	7.270156E-2	5.934360E-2	6.075038E-2	7.644691E-2	7.381668E-2	7.625075E-2	6.018363E-2	7.559656E-2	7.601929E-2	8.954762E-2	6.570941E-2	6.902779E-2	7.820011E-2	6.946684E-2	6.725225E-2	7.713515E-2	7.105152E-2	7.668576E-2	7.683666E-2	6.035497E-2	6.634386E-2	7.466237E-2	7.919514E-2	7.573714E-2	7.017845E-2	5.873247E-2	8.111600E-2	6.384162E-2	6.556749E-2	7.235924E-2	7.123940E-2	5.953533E-2	5.520763E-2	7.501988E-2	9.003133E-2	7.689922E-2	8.327464E-2	8.479995E-2	7.603446E-2	7.689394E-2	7.565990E-2	5.120821E-2
5.337630E+2	1.060127E-1	1.043676E-1	9.315408E-2	1.196492E-1	1.045251E-1	9.070292E-2	1.063335E-1	8.750648E-2	9.125787E-2	7.808368E-2	8.206212E-2	9.719975E-2	1.046346E-1	8.094874E-2	9.644217E-2	9.061210E-2	9.026607E-2	1.148761E-1	1.004793E-1	1.059454E-1	8.904611E-2	9.039492E-2	9.439848E-2	9.831978E-2	9.502815E-2	9.741989E-2	9.773576E-2	1.154334E-1	9.747764E-2	9.231603E-2	9.928231E-2	1.139296E-1	9.489594E-2	1.118538E-1	1.021703E-1	9.804386E-2	8.333858E-2	9.468026E-2	9.825078E-2	9.745017E-2	9.360659E-2	9.559843E-2	1.062900E-1	1.080970E-1	1.040832E-1	8.896832E-2	9.065703E-2	9.316686E-2	8.923945E-2	9.760412E-2	8.839277E-2	1.003167E-1	8.984692E-2	9.941690E-2	9.015601E-2	9.717669E-2	9.346425E-2	9.048811E-2	1.035796E-1	9.949717E-2	8.586832E-2	1.035728E-1	1.027423E-1	1.039173E-1	1.021117E-1	9.349905E-2	1.012482E-1	9.953296E-2	9.390307E-2	9.708986E-2	8.963166E-2	1.047430E-1	9.870944E-2	8.473964E-2	9.404449E-2	1.137668E-1	9.790029E-2	9.888684E-2	1.073211E-1	8.255811E-2	9.646588E-2	1.123102E-1	9.825672E-2	9.894199E-2	1.067785E-1	8.633415E-2	8.324324E-2	1.025480E-1	9.077529E-2	8.865678E-2	1.034250E-1	8.487108E-2	1.013724E-1	1.032167E-1	1.032424E-1	9.753786E-2	1.064128E-1	8.311719E-2	9.201729E-2	1.162408E-1	8.439691E-2	1.015439E-1	9.960533E-2	1.118120E-1	1.155789E-1	1.053657E-1	1.002258E-1	1.019889E-1	9.922926E-2	8.011153E-2	8.326697E-2	9.864695E-2	9.094236E-2	1.068013E-1	1.033113E-1	1.022761E-1	9.164324E-2	9.853905E-2	8.402365E-2	9.152899E-2	9.127986E-2	9.668194E-2	1.090582E-1	9.904335E-2	1.028560E-1	9.350231E-2	1.042623E-1	1.024981E-1	1.132197E-1	1.012436E-1	9.719665E-2	7.235906E-2	1.034971E-1	1.127435E-1	1.044691E-1	9.291263E-2	1.195388E-1	9.333330E-2	7.624218E-2	9.250465E-2	9.276669E-2	9.572822E-2	1.060490E-1	1.013297E-1	8.844668E-2	1.034777E-1	1.040526E-1	8.885717E-2	8.810795E-2	9.835671E-2	9.617358E-2	1.016870E-1	7.727676E-2	1.081861E-1	9.762940E-2	9.061891E-2	1.054444E-1	8.931274E-2	1.022994E-1	9.662147E-2	9.065094E-2	9.220783E-2	1.007142E-1	9.934003E-2	1.070738E-1	9.064679E-2	9.006771E-2	1.236547E-1	1.172539E-1	1.066999E-1	1.013904E-1
5.339090E+2	1.493771E-1	1.313733E-1	1.229478E-1	1.335846E-1	1.407754E-1	1.508995E-1	1.413187E-1	1.382548E-1	1.508006E-1	1.404666E-1	1.253799E-1	1.484312E-1	1.417169E-1	1.436090E-1	1.345897E-1	1.446142E-1	1.378479E-1	1.293592E-1	1.294861E-1	1.452825E-1	1.486404E-1	1.345732E-1	1.580302E-1	1.412093E-1	1.240175E-1	1.455833E-1	1.580375E-1	1.551544E-1	1.599754E-1	1.605852E-1	1.492941E-1	1.682115E-1	1.355201E-1	1.385615E-1	1.375971E-1	1.530597E-1	1.428797E-1	1.458812E-1	1.442030E-1	1.430375E-1	1.345648E-1	1.377171E-1	1.613751E-1	1.558901E-1	1.394064E-1	1.435741E-1	1.565879E-1	1.516978E-1	1.502358E-1	1.465378E-1	1.434573E-1	1.257744E-1	1.488857E-1	1.692480E-1	1.698408E-1	1.441490E-1	1.457777E-1	1.373810E-1	1.633221E-1	1.320690E-1	1.634017E-1	1.345251E-1	1.522554E-1	1.693549E-1	1.393049E-1	1.353448E-1	1.355520E-1	1.283887E-1	1.526415E-1	1.677555E-1	1.494202E-1	1.450867E-1	1.460994E-1	1.464179E-1	1.781550E-1	1.375465E-1	1.451492E-1	1.512137E-1	1.597721E-1	1.516086E-1	1.436206E-1	1.525990E-1	1.360191E-1	1.283817E-1	1.377816E-1	1.671497E-1	1.458882E-1	1.544207E-1	1.672847E-1	1.710551E-1	1.468067E-1	1.567882E-1	1.351500E-1	1.556761E-1	1.604807E-1	1.509637E-1	1.569783E-1	1.543651E-1	1.433382E-1	1.527242E-1	1.563997E-1	1.583318E-1	1.559306E-1	1.321805E-1	1.566811E-1	1.587244E-1	1.578610E-1	1.381193E-1	1.593446E-1	1.525578E-1	1.535340E-1	1.546257E-1	1.476000E-1	1.329974E-1	1.422211E-1	1.529239E-1	1.572466E-1	1.651384E-1	1.421614E-1	1.517939E-1	1.337302E-1	1.433418E-1	1.769576E-1	1.538309E-1	1.660895E-1	1.530603E-1	1.595325E-1	1.593983E-1	1.589106E-1	1.371269E-1	1.347875E-1	1.571286E-1	1.425222E-1	1.606618E-1	1.627097E-1	1.662832E-1	1.399349E-1	1.639900E-1	1.519675E-1	1.353198E-1	1.460055E-1	1.466003E-1	1.676643E-1	1.400410E-1	1.519055E-1	1.648484E-1	1.478838E-1	1.514974E-1	1.607296E-1	1.542379E-1	1.518715E-1	1.512150E-1	1.500757E-1	1.491467E-1	1.489165E-1	1.592393E-1	1.556403E-1	1.552748E-1	1.329010E-1	1.533961E-1	1.482152E-1	1.369405E-1	1.578677E-1	1.615138E-1	1.440363E-1	1.669343E-1	1.534729E-1	1.543295E-1	1.275250E-1	1.529555E-1	1.559374E-1
5.340690E+2	2.653403E-1	2.542263E-1	2.218756E-1	2.565667E-1	2.458240E-1	2.362752E-1	2.541707E-1	2.542260E-1	2.577110E-1	2.474575E-1	2.444178E-1	2.393965E-1	2.388484E-1	2.399858E-1	2.398391E-1	2.781446E-1	2.498237E-1	2.579418E-1	2.637861E-1	2.449097E-1	2.420033E-1	2.425443E-1	2.489241E-1	2.575209E-1	2.674135E-1	2.487539E-1	2.395814E-1	2.773156E-1	2.584408E-1	2.412929E-1	2.560460E-1	2.594429E-1	2.600915E-1	2.457093E-1	2.601515E-1	2.496551E-1	2.611751E-1	2.528179E-1	2.535495E-1	2.435901E-1	2.630542E-1	2.404706E-1	2.548509E-1	2.559421E-1	2.564544E-1	2.550282E-1	2.659715E-1	2.578819E-1	2.573591E-1	2.485772E-1	2.405389E-1	2.400495E-1	2.578136E-1	2.428840E-1	2.606277E-1	2.411704E-1	2.423286E-1	2.586406E-1	2.400623E-1	2.351714E-1	2.436067E-1	2.515195E-1	2.632864E-1	2.580589E-1	2.544021E-1	2.933282E-1	2.337883E-1	2.242818E-1	2.365400E-1	2.460446E-1	2.276139E-1	2.414440E-1	2.501769E-1	2.296905E-1	2.538729E-1	2.550673E-1	2.399140E-1	2.544070E-1	2.658772E-1	2.334485E-1	2.454570E-1	2.269285E-1	2.442784E-1	2.615984E-1	2.674911E-1	2.702081E-1	2.488518E-1	2.422645E-1	2.666287E-1	2.531378E-1	2.612087E-1	2.663299E-1	2.555786E-1	2.456532E-1	2.656296E-1	2.583021E-1	2.217506E-1	2.486739E-1	2.614317E-1	2.584168E-1	2.656034E-1	2.707319E-1	2.450506E-1	2.604409E-1	2.553116E-1	2.751674E-1	2.854982E-1	2.536844E-1	2.651983E-1	2.690960E-1	2.583255E-1	2.718605E-1	2.521910E-1	2.422095E-1	2.520677E-1	2.428392E-1	2.666284E-1	2.459519E-1	2.376634E-1	2.456558E-1	2.550736E-1	2.400461E-1	2.547848E-1	2.376092E-1	2.414068E-1	2.633071E-1	2.651755E-1	2.606675E-1	2.617585E-1	2.408005E-1	2.383314E-1	2.574134E-1	2.659874E-1	2.491121E-1	2.501984E-1	2.421370E-1	2.418178E-1	2.757881E-1	2.422543E-1	2.641655E-1	2.582327E-1	2.467675E-1	2.397722E-1	2.777105E-1	2.361768E-1	2.455020E-1	2.630502E-1	2.602401E-1	2.652372E-1	2.515591E-1	2.515502E-1	2.530090E-1	2.548278E-1	2.402523E-1	2.308884E-1	2.564559E-1	2.484717E-1	2.372087E-1	2.536582E-1	2.446114E-1	2.511173E-1	2.454616E-1	2.525986E-1	2.443005E-1	2.482333E-1	2.434657E-1	2.831661E-1	2.535352E-1	2.672460E-1	2.546755E-1	2.591386E-1
5.342040E+2	4.558231E-1	4.466478E-1	4.472037E-1	4.073630E-1	4.674634E-1	4.529779E-1	4.474411E-1	4.499541E-1	4.450540E-1	4.236062E-1	4.510873E-1	4.692799E-1	4.791749E-1	4.310871E-1	4.412292E-1	4.501890E-1	4.530063E-1	4.581578E-1	4.568944E-1	4.355464E-1	4.450009E-1	4.428243E-1	4.536992E-1	4.383543E-1	4.604999E-1	4.007774E-1	4.430183E-1	4.722727E-1	4.814813E-1	4.258527E-1	4.643050E-1	4.237760E-1	4.068663E-1	4.435982E-1	4.504753E-1	4.747072E-1	4.671253E-1	4.457273E-1	4.637048E-1	4.560375E-1	4.372193E-1	4.237298E-1	4.317340E-1	4.317905E-1	4.511081E-1	4.611541E-1	4.501740E-1	4.398543E-1	4.064902E-1	4.508886E-1	4.403856E-1	4.400456E-1	4.760132E-1	4.380741E-1	4.259019E-1	4.596343E-1	4.566758E-1	4.545281E-1	4.732528E-1	4.215845E-1	4.740128E-1	4.737947E-1	4.511362E-1	4.406273E-1	4.283355E-1	4.680225E-1	4.323184E-1	4.820990E-1	4.618840E-1	4.501263E-1	4.407683E-1	4.535172E-1	5.050763E-1	4.270976E-1	4.428765E-1	4.067124E-1	4.701633E-1	4.617905E-1	4.776041E-1	4.455770E-1	4.148210E-1	4.551623E-1	4.679463E-1	4.248955E-1	4.676828E-1	4.434493E-1	4.496082E-1	4.547100E-1	4.547220E-1	4.378413E-1	4.400615E-1	4.617882E-1	4.633272E-1	4.749090E-1	4.607514E-1	4.337029E-1	4.224915E-1	4.513196E-1	4.388577E-1	4.102682E-1	4.508870E-1	4.593865E-1	4.508856E-1	4.264042E-1	4.647760E-1	4.357178E-1	4.195212E-1	4.355415E-1	4.410624E-1	4.379756E-1	4.328931E-1	4.534462E-1	4.047651E-1	4.533493E-1	4.347520E-1	4.171048E-1	4.633557E-1	4.196723E-1	4.477539E-1	4.254435E-1	4.557156E-1	4.693892E-1	4.369599E-1	4.306434E-1	4.528265E-1	4.526141E-1	4.449043E-1	4.593510E-1	4.716234E-1	4.758715E-1	4.535256E-1	4.645944E-1	4.763666E-1	4.514818E-1	4.618872E-1	4.783338E-1	4.216892E-1	4.571298E-1	4.226051E-1	4.599202E-1	4.521444E-1	4.505405E-1	4.578286E-1	4.469280E-1	4.539803E-1	4.620754E-1	4.743363E-1	4.516538E-1	4.430858E-1	4.458330E-1	4.589765E-1	4.244663E-1	4.138349E-1	4.578428E-1	4.315628E-1	4.268956E-1	4.681083E-1	4.631684E-1	4.309355E-1	4.852464E-1	4.477057E-1	4.486796E-1	4.591773E-1	4.716507E-1	4.626921E-1	4.502480E-1	4.360798E-1	4.347969E-1	4.668723E-1	4.652872E-1	4.771524E-1
5.343600E+2	8.288141E-1	7.493584E-1	7.673174E-1	7.496463E-1	8.131868E-1	8.307963E-1	7.760964E-1	7.683152E-1	8.453593E-1	7.411674E-1	7.998707E-1	7.989644E-1	7.415219E-1	7.928924E-1	7.603147E-1	7.963175E-1	7.559360E-1	8.238441E-1	8.060801E-1	7.716804E-1	7.797197E-1	7.615672E-1	7.813908E-1	7.871301E-1	7.507236E-1	7.956852E-1	8.131082E-1	8.114532E-1	8.209422E-1	7.583415E-1	8.081198E-1	7.962495E-1	7.730891E-1	7.668753E-1	8.134436E-1	8.245500E-1	7.628175E-1	7.758092E-1	7.994660E-1	7.863860E-1	7.884351E-1	7.775342E-1	7.686059E-1	7.830763E-1	7.761605E-1	8.003896E-1	7.597390E-1	8.194790E-1	7.744242E-1	8.049762E-1	7.589649E-1	7.723259E-1	7.821823E-1	7.839459E-1	8.042965E-1	8.062844E-1	8.035332E-1	8.074635E-1	7.897595E-1	7.903313E-1	7.871914E-1	7.942984E-1	8.023764E-1	7.820740E-1	7.576995E-1	7.912439E-1	7.574592E-1	7.792147E-1	7.875143E-1	7.905755E-1	7.925891E-1	8.024619E-1	7.764566E-1	7.869022E-1	8.051158E-1	7.812010E-1	8.268316E-1	7.836440E-1	7.673708E-1	8.018548E-1	7.705707E-1	7.842408E-1	8.152535E-1	7.687776E-1	7.397599E-1	8.107195E-1	8.172825E-1	7.899038E-1	8.290906E-1	8.062712E-1	7.633008E-1	7.771935E-1	7.835823E-1	8.080389E-1	8.224241E-1	7.918369E-1	8.018490E-1	8.327823E-1	7.732837E-1	8.171766E-1	7.966982E-1	8.108273E-1	7.956137E-1	7.813252E-1	7.991699E-1	7.967055E-1	7.864052E-1	7.928023E-1	7.749054E-1	7.682222E-1	8.332198E-1	7.894296E-1	8.081915E-1	7.726133E-1	7.493442E-1	7.883643E-1	7.899081E-1	8.136000E-1	7.952067E-1	7.873500E-1	7.886419E-1	8.206449E-1	7.888448E-1	8.230576E-1	7.659109E-1	8.265447E-1	8.206404E-1	7.711427E-1	7.495626E-1	7.938330E-1	7.698232E-1	7.587737E-1	8.074416E-1	7.706873E-1	7.894673E-1	8.017939E-1	7.413410E-1	7.787994E-1	7.751927E-1	8.080186E-1	8.331097E-1	8.093901E-1	7.855549E-1	7.935654E-1	8.451847E-1	8.070616E-1	7.943293E-1	8.026128E-1	7.789955E-1	7.544468E-1	7.847874E-1	7.820110E-1	7.873972E-1	7.956901E-1	7.938715E-1	7.683261E-1	7.737834E-1	8.255690E-1	8.035414E-1	8.120617E-1	7.769294E-1	7.698278E-1	8.174586E-1	7.481656E-1	7.906985E-1	7.874536E-1	8.203470E-1	7.663441E-1	7.767836E-1	8.206916E-1	8.732283E-1
5.345110E+2	1.285879E+0	1.127863E+0	1.150593E+0	1.120965E+0	1.204153E+0	1.160729E+0	1.196402E+0	1.226601E+0	1.217067E+0	1.190836E+0	1.171883E+0	1.182386E+0	1.155475E+0	1.202157E+0	1.190625E+0	1.211844E+0	1.162593E+0	1.227495E+0	1.153877E+0	1.212676E+0	1.176587E+0	1.177674E+0	1.177492E+0	1.206538E+0	1.134498E+0	1.220241E+0	1.184599E+0	1.245504E+0	1.193204E+0	1.220572E+0	1.214599E+0	1.227606E+0	1.177180E+0	1.220946E+0	1.227158E+0	1.171479E+0	1.186634E+0	1.189770E+0	1.205719E+0	1.202124E+0	1.150499E+0	1.197046E+0	1.204262E+0	1.214739E+0	1.167648E+0	1.195165E+0	1.236873E+0	1.199357E+0	1.189541E+0	1.224741E+0	1.212980E+0	1.167101E+0	1.200358E+0	1.217538E+0	1.179201E+0	1.157180E+0	1.212824E+0	1.198948E+0	1.208406E+0	1.145124E+0	1.179289E+0	1.197626E+0	1.221730E+0	1.196195E+0	1.226091E+0	1.160169E+0	1.162294E+0	1.186216E+0	1.195044E+0	1.176504E+0	1.196734E+0	1.171470E+0	1.236857E+0	1.199611E+0	1.231010E+0	1.148935E+0	1.154727E+0	1.235241E+0	1.180634E+0	1.245554E+0	1.184750E+0	1.207285E+0	1.200644E+0	1.210940E+0	1.193349E+0	1.200554E+0	1.258546E+0	1.157803E+0	1.211099E+0	1.242079E+0	1.148141E+0	1.082441E+0	1.206236E+0	1.162979E+0	1.217904E+0	1.188642E+0	1.186870E+0	1.176129E+0	1.197476E+0	1.185456E+0	1.196424E+0	1.178072E+0	1.193110E+0	1.157903E+0	1.212873E+0	1.140739E+0	1.172453E+0	1.199152E+0	1.210067E+0	1.180302E+0	1.214023E+0	1.192591E+0	1.148567E+0	1.184367E+0	1.128678E+0	1.194298E+0	1.189928E+0	1.170123E+0	1.180069E+0	1.167875E+0	1.185141E+0	1.235878E+0	1.212999E+0	1.172340E+0	1.209371E+0	1.199520E+0	1.166900E+0	1.149938E+0	1.228577E+0	1.162897E+0	1.211299E+0	1.168090E+0	1.202388E+0	1.181940E+0	1.171302E+0	1.186093E+0	1.226292E+0	1.156447E+0	1.138469E+0	1.173504E+0	1.210655E+0	1.146344E+0	1.152408E+0	1.229448E+0	1.210330E+0	1.170875E+0	1.200677E+0	1.181571E+0	1.199065E+0	1.193240E+0	1.188820E+0	1.161499E+0	1.176028E+0	1.196946E+0	1.162054E+0	1.179691E+0	1.240440E+0	1.191693E+0	1.218915E+0	1.199518E+0	1.160545E+0	1.197668E+0	1.161227E+0	1.167935E+0	1.171004E+0	1.190735E+0	1.143738E+0	1.215366E+0	1.229422E+0	1.216908E+0	1.218478E+0
5.346620E+2	1.681563E+0	1.571881E+0	1.588210E+0	1.551581E+0	1.597469E+0	1.611633E+0	1.590689E+0	1.594129E+0	1.659686E+0	1.572937E+0	1.559611E+0	1.611639E+0	1.592318E+0	1.635913E+0	1.580990E+0	1.569366E+0	1.620916E+0	1.674481E+0	1.549765E+0	1.602423E+0	1.566840E+0	1.611508E+0	1.598835E+0	1.576416E+0	1.567975E+0	1.530295E+0	1.535291E+0	1.586010E+0	1.621868E+0	1.576918E+0	1.581059E+0	1.576084E+0	1.580283E+0	1.569860E+0	1.579134E+0	1.615230E+0	1.566932E+0	1.556710E+0	1.583298E+0	1.599316E+0	1.603900E+0	1.585886E+0	1.603749E+0	1.645768E+0	1.617721E+0	1.621552E+0	1.602540E+0	1.602628E+0	1.633060E+0	1.659814E+0	1.624662E+0	1.620021E+0	1.572199E+0	1.620712E+0	1.546728E+0	1.551270E+0	1.596173E+0	1.625903E+0	1.546509E+0	1.631130E+0	1.601840E+0	1.621422E+0	1.568950E+0	1.518735E+0	1.581917E+0	1.568676E+0	1.579880E+0	1.546793E+0	1.633399E+0	1.561403E+0	1.627997E+0	1.559208E+0	1.567129E+0	1.574151E+0	1.523506E+0	1.552620E+0	1.616308E+0	1.660554E+0	1.587447E+0	1.621827E+0	1.558668E+0	1.607906E+0	1.604981E+0	1.545623E+0	1.559707E+0	1.557020E+0	1.625809E+0	1.587649E+0	1.587046E+0	1.624128E+0	1.533282E+0	1.567103E+0	1.536958E+0	1.576964E+0	1.595134E+0	1.545654E+0	1.498422E+0	1.614327E+0	1.562525E+0	1.562049E+0	1.571107E+0	1.617863E+0	1.610332E+0	1.578006E+0	1.653386E+0	1.596054E+0	1.587642E+0	1.553207E+0	1.588032E+0	1.578886E+0	1.599722E+0	1.619623E+0	1.553983E+0	1.561143E+0	1.533427E+0	1.580252E+0	1.595417E+0	1.636917E+0	1.582176E+0	1.543734E+0	1.556555E+0	1.580641E+0	1.543670E+0	1.576800E+0	1.589212E+0	1.606375E+0	1.623350E+0	1.610710E+0	1.600326E+0	1.534649E+0	1.616432E+0	1.628895E+0	1.610787E+0	1.552045E+0	1.567663E+0	1.556758E+0	1.522868E+0	1.546590E+0	1.553130E+0	1.581042E+0	1.575185E+0	1.554824E+0	1.555308E+0	1.570060E+0	1.643373E+0	1.636156E+0	1.579928E+0	1.571838E+0	1.534235E+0	1.536752E+0	1.580036E+0	1.556947E+0	1.550478E+0	1.592008E+0	1.519487E+0	1.562325E+0	1.560370E+0	1.601209E+0	1.534095E+0	1.614062E+0	1.587583E+0	1.555909E+0	1.523146E+0	1.530178E+0	1.481689E+0	1.568248E+0	1.553680E+0	1.558122E+0	1.600991E+0	1.536354E+0	1.549463E+0
5.348070E+2	2.021025E+0	1.883666E+0	1.824718E+0	1.799921E+0	1.891046E+0	1.838674E+0	1.926522E+0	1.877527E+0	1.927578E+0	1.874042E+0	1.876384E+0	1.922573E+0	1.888836E+0	1.934602E+0	1.894274E+0	1.922849E+0	1.901198E+0	1.874279E+0	1.893883E+0	1.901202E+0	1.891184E+0	1.869107E+0	1.894189E+0	1.907956E+0	1.841149E+0	1.873384E+0	1.995541E+0	1.886689E+0	1.916453E+0	1.901499E+0	1.883159E+0	1.902388E+0	1.870011E+0	1.837207E+0	1.929805E+0	1.922963E+0	1.898739E+0	1.880817E+0	1.897875E+0	1.951996E+0	1.891503E+0	1.890116E+0	1.870372E+0	1.845532E+0	1.871601E+0	1.990965E+0	1.892485E+0	1.892563E+0	1.852056E+0	1.854821E+0	1.850340E+0	1.897842E+0	1.846761E+0	1.884334E+0	1.847113E+0	1.881179E+0	1.883378E+0	1.906702E+0	1.886269E+0	1.878648E+0	1.901667E+0	1.868598E+0	1.896901E+0	1.881032E+0	1.835612E+0	1.820501E+0	1.827583E+0	1.813013E+0	1.848561E+0	1.852161E+0	1.943085E+0	1.834464E+0	1.883022E+0	1.908227E+0	1.938155E+0	1.898389E+0	1.881907E+0	1.875606E+0	1.866610E+0	1.843280E+0	1.842434E+0	1.931625E+0	1.833700E+0	1.808526E+0	1.876839E+0	1.859128E+0	1.926995E+0	1.869058E+0	1.858537E+0	1.895113E+0	1.863212E+0	1.868584E+0	1.863805E+0	1.837887E+0	1.835122E+0	1.863468E+0	1.855061E+0	1.906353E+0	1.859768E+0	1.846063E+0	1.812205E+0	1.864364E+0	1.793089E+0	1.830908E+0	1.823055E+0	1.836362E+0	1.939029E+0	1.818832E+0	1.825917E+0	1.850171E+0	1.851820E+0	1.875812E+0	1.745594E+0	1.834407E+0	1.822583E+0	1.802164E+0	1.863131E+0	1.870955E+0	1.827020E+0	1.794700E+0	1.879735E+0	1.867965E+0	1.922359E+0	1.866447E+0	1.819154E+0	1.827063E+0	1.815016E+0	1.893040E+0	1.882375E+0	1.862369E+0	1.882161E+0	1.818264E+0	1.872366E+0	1.868231E+0	1.800923E+0	1.803431E+0	1.829449E+0	1.858088E+0	1.823994E+0	1.863313E+0	1.803784E+0	1.795301E+0	1.808146E+0	1.852756E+0	1.866914E+0	1.880567E+0	1.871833E+0	1.765266E+0	1.866852E+0	1.808685E+0	1.821535E+0	1.841707E+0	1.831213E+0	1.834868E+0	1.759378E+0	1.778781E+0	1.849291E+0	1.763665E+0	1.799120E+0	1.867962E+0	1.820974E+0	1.864379E+0	1.879302E+0	1.765410E+0	1.833204E+0	1.823309E+0	1.844758E+0	1.846474E+0	1.818261E+0	1.905090E+0	1.846069E+0
5.349580E+2	2.193241E+0	2.068557E+0	2.119657E+0	2.046335E+0	2.130848E+0	2.139727E+0	2.154431E+0	2.053966E+0	2.174585E+0	2.108353E+0	2.093563E+0	2.109461E+0	2.042200E+0	2.075031E+0	2.130324E+0	2.148264E+0	2.163800E+0	2.155389E+0	2.054439E+0	2.125651E+0	2.143926E+0	2.058935E+0	2.006701E+0	2.057967E+0	2.024779E+0	2.109375E+0	2.162398E+0	2.180806E+0	2.033565E+0	2.072596E+0	2.131182E+0	2.073869E+0	2.082181E+0	2.051360E+0	2.018134E+0	2.119392E+0	2.038308E+0	2.023503E+0	2.109791E+0	2.133873E+0	2.087180E+0	2.144481E+0	2.069274E+0	2.111255E+0	2.070092E+0	2.084106E+0	2.101794E+0	2.114055E+0	2.073278E+0	2.095844E+0	2.088977E+0	2.074015E+0	2.061437E+0	2.123949E+0	2.038740E+0	2.064087E+0	2.060852E+0	2.087176E+0	2.051151E+0	2.096533E+0	2.070461E+0	2.138534E+0	2.081791E+0	2.044007E+0	2.076686E+0	2.102905E+0	2.018022E+0	2.046120E+0	2.052210E+0	2.044665E+0	2.089858E+0	2.030244E+0	2.048043E+0	2.092936E+0	2.054197E+0	2.073829E+0	1.994310E+0	2.089865E+0	2.085144E+0	2.108504E+0	2.025220E+0	2.061738E+0	2.057412E+0	2.024550E+0	1.998450E+0	2.026577E+0	2.040131E+0	2.060547E+0	2.058490E+0	2.173012E+0	2.033108E+0	2.018150E+0	2.103193E+0	2.095158E+0	2.075173E+0	2.033312E+0	1.984435E+0	2.107113E+0	2.085882E+0	2.038356E+0	2.041644E+0	2.017064E+0	2.055249E+0	1.973682E+0	2.122552E+0	2.023756E+0	2.055532E+0	2.052062E+0	2.057955E+0	2.047643E+0	2.058137E+0	2.071451E+0	2.009740E+0	2.022112E+0	2.017322E+0	2.023947E+0	2.005413E+0	2.040362E+0	2.035904E+0	2.007071E+0	2.071328E+0	2.054293E+0	2.076671E+0	2.010223E+0	2.004657E+0	2.068516E+0	2.059575E+0	2.046422E+0	2.006128E+0	2.043684E+0	2.135315E+0	2.025661E+0	2.045088E+0	1.964221E+0	2.051084E+0	2.002541E+0	1.947379E+0	2.053632E+0	1.985182E+0	2.052783E+0	1.965959E+0	2.041083E+0	2.030997E+0	2.045726E+0	2.147997E+0	2.062192E+0	2.064093E+0	1.991537E+0	1.969256E+0	2.026735E+0	2.059147E+0	1.962797E+0	2.067550E+0	2.001124E+0	2.005912E+0	2.016656E+0	2.012044E+0	2.024114E+0	2.050738E+0	2.056161E+0	1.961575E+0	2.025379E+0	2.001815E+0	2.052292E+0	1.956489E+0	2.012817E+0	2.014591E+0	1.980036E+0	1.988262E+0	2.035032E+0	2.061267E+0
5.351140E+2	2.285101E+0	2.030572E+0	2.046875E+0	2.068782E+0	2.067897E+0	2.063371E+0	2.088520E+0	2.106845E+0	2.075993E+0	2.080243E+0	2.106501E+0	2.085474E+0	2.059165E+0	2.136156E+0	2.044599E+0	2.030063E+0	2.049812E+0	2.103861E+0	2.066430E+0	2.126791E+0	2.027049E+0	2.064927E+0	2.013383E+0	2.088476E+0	2.016914E+0	2.065859E+0	2.086932E+0	2.122671E+0	2.049686E+0	2.025858E+0	2.117768E+0	2.078734E+0	2.032514E+0	2.010794E+0	2.046707E+0	2.100983E+0	2.049024E+0	2.036985E+0	2.001307E+0	2.086867E+0	2.059587E+0	2.080300E+0	2.055267E+0	2.052771E+0	1.960905E+0	2.248213E+0	1.995797E+0	2.106645E+0	2.016378E+0	2.079999E+0	2.012311E+0	2.060365E+0	2.032613E+0	1.992437E+0	2.077598E+0	2.083501E+0	2.098061E+0	2.064868E+0	2.026916E+0	2.038569E+0	2.020052E+0	2.155973E+0	2.044515E+0	1.985155E+0	2.079189E+0	2.109767E+0	1.968994E+0	2.082907E+0	2.108632E+0	2.049272E+0	2.068130E+0	2.066164E+0	2.093371E+0	2.108052E+0	2.061546E+0	2.046486E+0	2.015323E+0	2.122727E+0	2.062353E+0	2.042006E+0	2.025422E+0	2.036919E+0	2.102836E+0	1.999527E+0	2.010621E+0	2.016597E+0	2.073420E+0	1.967273E+0	2.067460E+0	2.052438E+0	1.992742E+0	1.985533E+0	2.048877E+0	2.078833E+0	2.043574E+0	2.070067E+0	2.033575E+0	2.090297E+0	1.995531E+0	2.027347E+0	2.036954E+0	2.013492E+0	1.998277E+0	2.096824E+0	2.048933E+0	2.058799E+0	2.112516E+0	2.043601E+0	2.030257E+0	1.993858E+0	2.063511E+0	2.006374E+0	1.971441E+0	1.983978E+0	1.970217E+0	2.083335E+0	1.963150E+0	1.981999E+0	2.047315E+0	2.031155E+0	1.962201E+0	2.040473E+0	2.126213E+0	2.082179E+0	2.025114E+0	2.004726E+0	1.970291E+0	2.038067E+0	2.038310E+0	1.962062E+0	2.059709E+0	2.046562E+0	1.985618E+0	2.027159E+0	1.956537E+0	1.977800E+0	1.995704E+0	1.959059E+0	2.000281E+0	2.025288E+0	2.013077E+0	2.032676E+0	1.993265E+0	2.056616E+0	2.096018E+0	2.067340E+0	2.070038E+0	1.955182E+0	2.021248E+0	2.026467E+0	1.982429E+0	2.019399E+0	1.994771E+0	2.078237E+0	1.958517E+0	2.003468E+0	1.966569E+0	2.081458E+0	1.993438E+0	2.000302E+0	1.990843E+0	2.042067E+0	1.952285E+0	1.948039E+0	1.958358E+0	2.007797E+0	1.998661E+0	1.914755E+0	2.124987E+0	1.974611E+0	1.999366E+0
5.352600E+2	2.009989E+0	1.858177E+0	1.867739E+0	1.832086E+0	1.872684E+0	1.896449E+0	1.912626E+0	1.898339E+0	1.890011E+0	1.866558E+0	1.883514E+0	1.838271E+0	1.844422E+0	1.919377E+0	1.847838E+0	1.914602E+0	1.879029E+0	1.899555E+0	1.836073E+0	1.886909E+0	1.887726E+0	1.862660E+0	1.856718E+0	1.875833E+0	1.808691E+0	1.843045E+0	1.971747E+0	1.891184E+0	1.874781E+0	1.907794E+0	1.901670E+0	1.852336E+0	1.807450E+0	1.893608E+0	1.959677E+0	1.887531E+0	1.829332E+0	1.874401E+0	1.897727E+0	1.879617E+0	1.856201E+0	1.861464E+0	1.850464E+0	1.833414E+0	1.822804E+0	1.960749E+0	1.880274E+0	1.906205E+0	1.848333E+0	1.866272E+0	1.828806E+0	1.862939E+0	1.875763E+0	1.906297E+0	1.797667E+0	1.849375E+0	1.858615E+0	1.806218E+0	1.859842E+0	1.829238E+0	1.842608E+0	1.910608E+0	1.841145E+0	1.823536E+0	1.834017E+0	1.918956E+0	1.857748E+0	1.812470E+0	1.939333E+0	1.873542E+0	1.837965E+0	1.852731E+0	1.828978E+0	1.859335E+0	1.911756E+0	1.853994E+0	1.850493E+0	1.895591E+0	1.827866E+0	1.873226E+0	1.770925E+0	1.906990E+0	1.816791E+0	1.910631E+0	1.841669E+0	1.818309E+0	1.858701E+0	1.878946E+0	1.908040E+0	1.930300E+0	1.861715E+0	1.846069E+0	1.888584E+0	1.839918E+0	1.800731E+0	1.852077E+0	1.782772E+0	1.934105E+0	1.803579E+0	1.806929E+0	1.847950E+0	1.843223E+0	1.836892E+0	1.773783E+0	1.886236E+0	1.804797E+0	1.970687E+0	1.849214E+0	1.786432E+0	1.845512E+0	1.881575E+0	1.865074E+0	1.770147E+0	1.861219E+0	1.883561E+0	1.810783E+0	1.829119E+0	1.804767E+0	1.852378E+0	1.831184E+0	1.860993E+0	1.853401E+0	1.885364E+0	1.832758E+0	1.756307E+0	1.883253E+0	1.791744E+0	1.829837E+0	1.830886E+0	1.878653E+0	1.901388E+0	1.837168E+0	1.809290E+0	1.825101E+0	1.818251E+0	1.849663E+0	1.757558E+0	1.823518E+0	1.801091E+0	1.835994E+0	1.785784E+0	1.843696E+0	1.802625E+0	1.877108E+0	1.902307E+0	1.912008E+0	1.816784E+0	1.895848E+0	1.866929E+0	1.832970E+0	1.883133E+0	1.771903E+0	1.855645E+0	1.850171E+0	1.848162E+0	1.838001E+0	1.825445E+0	1.829435E+0	1.812842E+0	1.866522E+0	1.796473E+0	1.875722E+0	1.836975E+0	1.849250E+0	1.745852E+0	1.859970E+0	1.828172E+0	1.777750E+0	1.853988E+0	1.880060E+0	1.858766E+0
5.354060E+2	1.632055E+0	1.617701E+0	1.562978E+0	1.586544E+0	1.599612E+0	1.587720E+0	1.593076E+0	1.558806E+0	1.621795E+0	1.545981E+0	1.563641E+0	1.566694E+0	1.601385E+0	1.581720E+0	1.603657E+0	1.606786E+0	1.508294E+0	1.667417E+0	1.525743E+0	1.568966E+0	1.638332E+0	1.558877E+0	1.567903E+0	1.595010E+0	1.569527E+0	1.584568E+0	1.633828E+0	1.677788E+0	1.583878E+0	1.653906E+0	1.593243E+0	1.560938E+0	1.536674E+0	1.567486E+0	1.612162E+0	1.562358E+0	1.562031E+0	1.570783E+0	1.539860E+0	1.591219E+0	1.554134E+0	1.581881E+0	1.593749E+0	1.512427E+0	1.576034E+0	1.607597E+0	1.561301E+0	1.602856E+0	1.552053E+0	1.621287E+0	1.618909E+0	1.669497E+0	1.585753E+0	1.605696E+0	1.559037E+0	1.564859E+0	1.644578E+0	1.545031E+0	1.578400E+0	1.534938E+0	1.562281E+0	1.598124E+0	1.623486E+0	1.531095E+0	1.549500E+0	1.602621E+0	1.495464E+0	1.540377E+0	1.537037E+0	1.510769E+0	1.608225E+0	1.559231E+0	1.505471E+0	1.610951E+0	1.605040E+0	1.566973E+0	1.615291E+0	1.546987E+0	1.558873E+0	1.632850E+0	1.551195E+0	1.561302E+0	1.499875E+0	1.547461E+0	1.572412E+0	1.623041E+0	1.547173E+0	1.518285E+0	1.580297E+0	1.612403E+0	1.546023E+0	1.560963E+0	1.546352E+0	1.586972E+0	1.570265E+0	1.577706E+0	1.484071E+0	1.662974E+0	1.572922E+0	1.595787E+0	1.562996E+0	1.590845E+0	1.605715E+0	1.552841E+0	1.593681E+0	1.523685E+0	1.629185E+0	1.564085E+0	1.565485E+0	1.561358E+0	1.655523E+0	1.569671E+0	1.531143E+0	1.573190E+0	1.596168E+0	1.576604E+0	1.577113E+0	1.573511E+0	1.578185E+0	1.533886E+0	1.483181E+0	1.571527E+0	1.571165E+0	1.581312E+0	1.537605E+0	1.561931E+0	1.538691E+0	1.519315E+0	1.533323E+0	1.605521E+0	1.599204E+0	1.633158E+0	1.570745E+0	1.592554E+0	1.504596E+0	1.543977E+0	1.550835E+0	1.470730E+0	1.569583E+0	1.549319E+0	1.548645E+0	1.555881E+0	1.492611E+0	1.529907E+0	1.587252E+0	1.573624E+0	1.623365E+0	1.539914E+0	1.504836E+0	1.488929E+0	1.515919E+0	1.565598E+0	1.617925E+0	1.595647E+0	1.545112E+0	1.471656E+0	1.589858E+0	1.569779E+0	1.506533E+0	1.538039E+0	1.493717E+0	1.563618E+0	1.489560E+0	1.538691E+0	1.501551E+0	1.524522E+0	1.515843E+0	1.583980E+0	1.599799E+0	1.560572E+0	1.586600E+0
5.355630E+2	1.374185E+0	1.298055E+0	1.256953E+0	1.317079E+0	1.316994E+0	1.244311E+0	1.341754E+0	1.274424E+0	1.337085E+0	1.282098E+0	1.289979E+0	1.280013E+0	1.290655E+0	1.300788E+0	1.273104E+0	1.274077E+0	1.277191E+0	1.288237E+0	1.305184E+0	1.328944E+0	1.333455E+0	1.304562E+0	1.327812E+0	1.288233E+0	1.321180E+0	1.277211E+0	1.339510E+0	1.308517E+0	1.293849E+0	1.288116E+0	1.348162E+0	1.288367E+0	1.255398E+0	1.276486E+0	1.280495E+0	1.268617E+0	1.339730E+0	1.358174E+0	1.294024E+0	1.285058E+0	1.276602E+0	1.314495E+0	1.300180E+0	1.279122E+0	1.249293E+0	1.295552E+0	1.276027E+0	1.321579E+0	1.301260E+0	1.278171E+0	1.269047E+0	1.341862E+0	1.320358E+0	1.262204E+0	1.296580E+0	1.291138E+0	1.287951E+0	1.272317E+0	1.292998E+0	1.294982E+0	1.245348E+0	1.355834E+0	1.332441E+0	1.252976E+0	1.280667E+0	1.327525E+0	1.257605E+0	1.282257E+0	1.299503E+0	1.261025E+0	1.319631E+0	1.328833E+0	1.307812E+0	1.296601E+0	1.313494E+0	1.321302E+0	1.313586E+0	1.314308E+0	1.303146E+0	1.290253E+0	1.260930E+0	1.294198E+0	1.368409E+0	1.212382E+0	1.314829E+0	1.275096E+0	1.340724E+0	1.273103E+0	1.347145E+0	1.338269E+0	1.253325E+0	1.285170E+0	1.303108E+0	1.291858E+0	1.306594E+0	1.309282E+0	1.286537E+0	1.325943E+0	1.244445E+0	1.273139E+0	1.278057E+0	1.276184E+0	1.329744E+0	1.282192E+0	1.284008E+0	1.320503E+0	1.321677E+0	1.324968E+0	1.271150E+0	1.290482E+0	1.300150E+0	1.286733E+0	1.236535E+0	1.254487E+0	1.281276E+0	1.284516E+0	1.264680E+0	1.280102E+0	1.326147E+0	1.235617E+0	1.289009E+0	1.342059E+0	1.300851E+0	1.295853E+0	1.240702E+0	1.303559E+0	1.248083E+0	1.294649E+0	1.288862E+0	1.341462E+0	1.315657E+0	1.334167E+0	1.295500E+0	1.253708E+0	1.311447E+0	1.322379E+0	1.269842E+0	1.301080E+0	1.299685E+0	1.327927E+0	1.290339E+0	1.333285E+0	1.261597E+0	1.360144E+0	1.300128E+0	1.292982E+0	1.323140E+0	1.318284E+0	1.289888E+0	1.263607E+0	1.264133E+0	1.300461E+0	1.304143E+0	1.321709E+0	1.230730E+0	1.263389E+0	1.268206E+0	1.345664E+0	1.305215E+0	1.315798E+0	1.239783E+0	1.337325E+0	1.291983E+0	1.215855E+0	1.294494E+0	1.268726E+0	1.236955E+0	1.267514E+0	1.265971E+0	1.254076E+0	1.200746E+0
5.357140E+2	1.125791E+0	1.106988E+0	1.114353E+0	1.029363E+0	1.137841E+0	1.093162E+0	1.133860E+0	1.116909E+0	1.074436E+0	1.098808E+0	1.064667E+0	1.123064E+0	1.132804E+0	1.092952E+0	1.093823E+0	1.108085E+0	1.092629E+0	1.131011E+0	1.064464E+0	1.165103E+0	1.107876E+0	1.066418E+0	1.094112E+0	1.103230E+0	1.084948E+0	1.139191E+0	1.107900E+0	1.175904E+0	1.107319E+0	1.096444E+0	1.081965E+0	1.116481E+0	1.002815E+0	1.103855E+0	1.138611E+0	1.112920E+0	1.090447E+0	1.084631E+0	1.054432E+0	1.091456E+0	1.113208E+0	1.116844E+0	1.087587E+0	1.084959E+0	1.056217E+0	1.096465E+0	1.100932E+0	1.156793E+0	1.087603E+0	1.143892E+0	1.113673E+0	1.123499E+0	1.090939E+0	1.109948E+0	1.116191E+0	1.127197E+0	1.118542E+0	1.055795E+0	1.096109E+0	1.122487E+0	1.042418E+0	1.115695E+0	1.172499E+0	1.100815E+0	1.090670E+0	1.131351E+0	1.058460E+0	1.122200E+0	1.095467E+0	1.066182E+0	1.069077E+0	1.092648E+0	1.098388E+0	1.107493E+0	1.083741E+0	1.099702E+0	1.087346E+0	1.149380E+0	1.125374E+0	1.090858E+0	1.048267E+0	1.111794E+0	1.072060E+0	1.127160E+0	1.087306E+0	1.126112E+0	1.140197E+0	1.067657E+0	1.134249E+0	1.110862E+0	1.048908E+0	1.081420E+0	1.146930E+0	1.096356E+0	1.078173E+0	1.123877E+0	1.082456E+0	1.151528E+0	1.142610E+0	1.109778E+0	1.084086E+0	1.108952E+0	1.097206E+0	1.095472E+0	1.095431E+0	1.065069E+0	1.148492E+0	1.097989E+0	1.072296E+0	1.085333E+0	1.087458E+0	1.083996E+0	1.057783E+0	1.081751E+0	1.091978E+0	1.124542E+0	1.079803E+0	1.065408E+0	1.119206E+0	1.093745E+0	1.070111E+0	1.101004E+0	1.136638E+0	1.150978E+0	1.097712E+0	1.141550E+0	1.102102E+0	1.110255E+0	1.107360E+0	1.094795E+0	1.162340E+0	1.133767E+0	1.100129E+0	1.068362E+0	1.085345E+0	1.098703E+0	1.078969E+0	1.105910E+0	1.105982E+0	1.112074E+0	1.106812E+0	1.087576E+0	1.086734E+0	1.097237E+0	1.118030E+0	1.127142E+0	1.096624E+0	1.133192E+0	1.092519E+0	1.148159E+0	1.114838E+0	1.100038E+0	1.156626E+0	1.135345E+0	1.061143E+0	1.102500E+0	1.103842E+0	1.091357E+0	1.132887E+0	1.121665E+0	1.094524E+0	1.113639E+0	1.118229E+0	1.099322E+0	1.129839E+0	1.116814E+0	1.101422E+0	1.142664E+0	1.082237E+0	1.140272E+0	1.175961E+0
5.358600E+2	9.738312E-1	9.887902E-1	9.311160E-1	9.072206E-1	9.842810E-1	9.277576E-1	9.581912E-1	9.278833E-1	9.634830E-1	9.198196E-1	9.480225E-1	9.559510E-1	9.139163E-1	9.402911E-1	9.810775E-1	9.549088E-1	9.296299E-1	9.294698E-1	9.024029E-1	9.222237E-1	9.415422E-1	9.452560E-1	9.601942E-1	9.547457E-1	9.572724E-1	9.766884E-1	9.807432E-1	9.691608E-1	9.586699E-1	9.115304E-1	9.578298E-1	9.446274E-1	9.534891E-1	9.685548E-1	9.289761E-1	9.573665E-1	9.679902E-1	9.449904E-1	9.177231E-1	9.403687E-1	9.304288E-1	9.195941E-1	9.930756E-1	9.377232E-1	9.541574E-1	9.703962E-1	9.914095E-1	9.598210E-1	9.255309E-1	9.526288E-1	9.703115E-1	9.499517E-1	9.252805E-1	9.452441E-1	9.977159E-1	9.683639E-1	9.928702E-1	9.495420E-1	9.575339E-1	9.637013E-1	9.235006E-1	9.311249E-1	9.658851E-1	9.465387E-1	9.073704E-1	9.751468E-1	9.350834E-1	9.178012E-1	9.657191E-1	9.107466E-1	9.519544E-1	9.518204E-1	1.007582E+0	9.440757E-1	9.072129E-1	9.600287E-1	9.310803E-1	9.412935E-1	9.407549E-1	9.588154E-1	9.586013E-1	8.977340E-1	9.861846E-1	9.265563E-1	9.003766E-1	9.388205E-1	9.656390E-1	9.705069E-1	9.738562E-1	9.986843E-1	9.271956E-1	9.482093E-1	9.447373E-1	9.516666E-1	9.576710E-1	1.000123E+0	9.364029E-1	9.244507E-1	9.709612E-1	9.577685E-1	9.345075E-1	9.492252E-1	9.485151E-1	9.249670E-1	9.314180E-1	9.162798E-1	9.540860E-1	9.294865E-1	9.441909E-1	9.644843E-1	9.898577E-1	9.212637E-1	8.837450E-1	9.417674E-1	9.345467E-1	9.518211E-1	9.726196E-1	9.799090E-1	9.871730E-1	9.444131E-1	9.265347E-1	9.532133E-1	9.941243E-1	9.860261E-1	9.267621E-1	9.108293E-1	9.322412E-1	1.005278E+0	9.318902E-1	9.440373E-1	9.805780E-1	1.008933E+0	9.566941E-1	9.437827E-1	9.906667E-1	9.318810E-1	9.544762E-1	9.544434E-1	9.339178E-1	9.525186E-1	9.517732E-1	9.396165E-1	9.685187E-1	9.633665E-1	9.943017E-1	9.494777E-1	9.890193E-1	9.904989E-1	9.471351E-1	9.601711E-1	9.861519E-1	8.954515E-1	9.558004E-1	9.777971E-1	9.191617E-1	9.067994E-1	9.685128E-1	9.731662E-1	9.641562E-1	9.480201E-1	9.328921E-1	9.995717E-1	9.679042E-1	9.883656E-1	8.993882E-1	9.876682E-1	9.393215E-1	9.029058E-1	9.411083E-1	9.392945E-1	9.622055E-1
5.360070E+2	8.814616E-1	8.201164E-1	8.188157E-1	8.046774E-1	8.265187E-1	8.129070E-1	8.353395E-1	7.932723E-1	8.261405E-1	7.687684E-1	8.057577E-1	8.283310E-1	8.182886E-1	8.197741E-1	8.350102E-1	7.902607E-1	8.542934E-1	8.086470E-1	7.843323E-1	7.870661E-1	8.122970E-1	8.135042E-1	7.912088E-1	8.119024E-1	8.251208E-1	7.796470E-1	7.660213E-1	8.317230E-1	8.091624E-1	8.056329E-1	8.511514E-1	8.376901E-1	7.717771E-1	8.174480E-1	8.370503E-1	8.384571E-1	7.837603E-1	8.169053E-1	8.355889E-1	7.724304E-1	8.147121E-1	7.900720E-1	8.024681E-1	7.943452E-1	8.177488E-1	8.415336E-1	8.019349E-1	8.055867E-1	7.707470E-1	8.051360E-1	8.309363E-1	8.100072E-1	8.066331E-1	8.317209E-1	8.198883E-1	8.591899E-1	8.159243E-1	7.866071E-1	8.124361E-1	8.271472E-1	8.162959E-1	8.124701E-1	8.083750E-1	8.046077E-1	7.956304E-1	8.338635E-1	7.937097E-1	7.803988E-1	7.817547E-1	8.140848E-1	8.300483E-1	8.167806E-1	8.610665E-1	8.110125E-1	8.444806E-1	8.389224E-1	8.297091E-1	8.253900E-1	8.211812E-1	8.298031E-1	8.106504E-1	8.413021E-1	8.570852E-1	8.143761E-1	8.230340E-1	7.796571E-1	8.363844E-1	8.333810E-1	8.398947E-1	8.685691E-1	7.929584E-1	8.473439E-1	7.938585E-1	8.229932E-1	8.354595E-1	8.361425E-1	7.959306E-1	8.041587E-1	7.847741E-1	7.673630E-1	8.145404E-1	8.262465E-1	8.284585E-1	7.744458E-1	8.132129E-1	8.232917E-1	8.746738E-1	8.293891E-1	8.265345E-1	8.325722E-1	8.396302E-1	7.865329E-1	7.685988E-1	8.199041E-1	7.938688E-1	8.284725E-1	8.277909E-1	8.211332E-1	8.378971E-1	7.838652E-1	8.012125E-1	7.598882E-1	8.519985E-1	7.881859E-1	8.091484E-1	8.189124E-1	8.158982E-1	8.503671E-1	7.773324E-1	8.442324E-1	8.332790E-1	8.609179E-1	7.924910E-1	8.080909E-1	7.936457E-1	8.313196E-1	8.148484E-1	8.265628E-1	8.007807E-1	8.393887E-1	8.094074E-1	8.033088E-1	8.073938E-1	8.078321E-1	8.361604E-1	8.323832E-1	8.063094E-1	8.167833E-1	8.314520E-1	7.919710E-1	8.528628E-1	7.791368E-1	8.544395E-1	8.289004E-1	8.360376E-1	8.288869E-1	8.205469E-1	8.059351E-1	8.906966E-1	8.144103E-1	8.411176E-1	8.729390E-1	8.029579E-1	8.522673E-1	8.246364E-1	8.394551E-1	7.848247E-1	8.273977E-1	8.329363E-1	7.910323E-1	8.621850E-1
5.362680E+2	6.454289E-1	5.832802E-1	5.774795E-1	6.353231E-1	6.355796E-1	6.333313E-1	6.482353E-1	6.219446E-1	6.143933E-1	6.609027E-1	6.726421E-1	6.476883E-1	6.544464E-1	6.151869E-1	6.231013E-1	6.163601E-1	6.229355E-1	6.559916E-1	6.236552E-1	6.495218E-1	5.755599E-1	6.143225E-1	6.017120E-1	6.504230E-1	5.958356E-1	6.198950E-1	6.365440E-1	6.336288E-1	6.252765E-1	6.393713E-1	6.309889E-1	6.296787E-1	6.110453E-1	6.340252E-1	6.249089E-1	6.652592E-1	6.576847E-1	6.342023E-1	6.121453E-1	6.511008E-1	6.291343E-1	6.049384E-1	6.124324E-1	6.337217E-1	6.104538E-1	6.402368E-1	6.803605E-1	6.482948E-1	6.168493E-1	5.939022E-1	6.287234E-1	6.470797E-1	6.093880E-1	6.383031E-1	6.506776E-1	6.185760E-1	6.397806E-1	6.362936E-1	6.427811E-1	6.633453E-1	6.218891E-1	6.238222E-1	6.410798E-1	6.191309E-1	6.496152E-1	6.392208E-1	6.578538E-1	6.444444E-1	6.487889E-1	6.324672E-1	6.340557E-1	6.288816E-1	6.328862E-1	6.434042E-1	6.263460E-1	6.306132E-1	5.853533E-1	6.177657E-1	6.394099E-1	6.332836E-1	6.153997E-1	6.544198E-1	6.136753E-1	6.564229E-1	6.148376E-1	6.238033E-1	6.186966E-1	6.273903E-1	6.423950E-1	6.797730E-1	6.549830E-1	6.183415E-1	6.507716E-1	6.392700E-1	6.503115E-1	6.282935E-1	6.270521E-1	6.707388E-1	6.126994E-1	6.270800E-1	6.418799E-1	6.681391E-1	6.273737E-1	6.358270E-1	6.528064E-1	6.426189E-1	6.790817E-1	6.506392E-1	6.274658E-1	6.262043E-1	6.189599E-1	6.603910E-1	6.170884E-1	6.407763E-1	6.534966E-1	6.508039E-1	6.374671E-1	6.008667E-1	6.381335E-1	6.241060E-1	6.240778E-1	6.399169E-1	6.436668E-1	6.325100E-1	6.118353E-1	6.513478E-1	6.536178E-1	6.377266E-1	6.220042E-1	5.982589E-1	6.438503E-1	6.652578E-1	6.407051E-1	6.484410E-1	6.270381E-1	6.146239E-1	6.173502E-1	6.691662E-1	6.073398E-1	5.889722E-1	6.250649E-1	6.142144E-1	6.070932E-1	6.545926E-1	6.589852E-1	6.544059E-1	6.292704E-1	6.489525E-1	5.970712E-1	6.006894E-1	6.491364E-1	6.444456E-1	6.331911E-1	6.499771E-1	6.405700E-1	6.356814E-1	6.008484E-1	6.533594E-1	6.147326E-1	6.188827E-1	6.376669E-1	6.310793E-1	6.397785E-1	6.159454E-1	6.608367E-1	6.469870E-1	6.579511E-1	5.924676E-1	6.580748E-1	6.263724E-1	6.108965E-1
5.365140E+2	5.573908E-1	5.463625E-1	5.236937E-1	5.451907E-1	5.535758E-1	5.036811E-1	5.547783E-1	5.397335E-1	5.241276E-1	5.046672E-1	5.174679E-1	5.162874E-1	5.377965E-1	5.056322E-1	4.867339E-1	5.429515E-1	5.165963E-1	5.450596E-1	4.797304E-1	5.149348E-1	4.972200E-1	5.509066E-1	5.379551E-1	5.279285E-1	5.275721E-1	5.623873E-1	5.438947E-1	5.436748E-1	4.952474E-1	5.111268E-1	5.230678E-1	5.340982E-1	5.131805E-1	5.252789E-1	5.625354E-1	5.419955E-1	4.966596E-1	5.511626E-1	5.356019E-1	5.194115E-1	5.473925E-1	5.170265E-1	5.333214E-1	5.534248E-1	5.333846E-1	5.123789E-1	5.284289E-1	5.336332E-1	4.969663E-1	5.789292E-1	5.431210E-1	5.416373E-1	5.065222E-1	5.435484E-1	5.363731E-1	5.393614E-1	4.896301E-1	5.404130E-1	5.507485E-1	5.334878E-1	5.057280E-1	5.424990E-1	5.435250E-1	5.251088E-1	5.598346E-1	5.357367E-1	5.406328E-1	4.979449E-1	5.411218E-1	5.128469E-1	5.367049E-1	5.433057E-1	5.221307E-1	5.501667E-1	5.408782E-1	4.920490E-1	5.371317E-1	5.319102E-1	5.179231E-1	5.178027E-1	5.183764E-1	5.132996E-1	5.406962E-1	5.345621E-1	5.400137E-1	5.477905E-1	5.503643E-1	5.238680E-1	5.248584E-1	5.557803E-1	5.096419E-1	5.236681E-1	5.228119E-1	5.446565E-1	5.309356E-1	5.273511E-1	5.063062E-1	5.358868E-1	5.291535E-1	5.565131E-1	5.657578E-1	5.322679E-1	5.208255E-1	5.563009E-1	5.603252E-1	5.196440E-1	5.624170E-1	5.135447E-1	5.644817E-1	5.458151E-1	5.737722E-1	5.646656E-1	5.069602E-1	5.237283E-1	5.244360E-1	5.413513E-1	5.300488E-1	5.460838E-1	5.382333E-1	5.162095E-1	5.617960E-1	5.566242E-1	5.383867E-1	5.745963E-1	5.716358E-1	5.446982E-1	5.317138E-1	5.462320E-1	5.435451E-1	5.244139E-1	5.593024E-1	5.348741E-1	5.571752E-1	5.477013E-1	5.298693E-1	5.442358E-1	5.042072E-1	5.138554E-1	5.330089E-1	5.257693E-1	5.376643E-1	5.241759E-1	5.103760E-1	5.420415E-1	5.734018E-1	5.539890E-1	5.612156E-1	5.272350E-1	5.168352E-1	5.188421E-1	5.377102E-1	5.629873E-1	5.306601E-1	5.395674E-1	4.959574E-1	5.408974E-1	5.391893E-1	5.076093E-1	5.395172E-1	5.166067E-1	5.632320E-1	5.376557E-1	5.626057E-1	5.666015E-1	5.497782E-1	5.212849E-1	5.291338E-1	5.704574E-1	5.465141E-1	5.654158E-1	5.621303E-1
5.367710E+2	5.451586E-1	5.368534E-1	4.866467E-1	4.883433E-1	4.888263E-1	4.858939E-1	5.423781E-1	4.879481E-1	5.464031E-1	4.848539E-1	5.056594E-1	4.831256E-1	5.158815E-1	5.109413E-1	5.186675E-1	5.055854E-1	5.139834E-1	5.364755E-1	5.380159E-1	5.331544E-1	4.949382E-1	4.953058E-1	4.994247E-1	5.026166E-1	5.394171E-1	4.969433E-1	5.690589E-1	5.556431E-1	5.169099E-1	5.042122E-1	5.223523E-1	5.030904E-1	4.647904E-1	5.242484E-1	5.128611E-1	4.758734E-1	5.252166E-1	5.080120E-1	5.131049E-1	4.988398E-1	4.927675E-1	5.060626E-1	5.313464E-1	5.119707E-1	5.086922E-1	5.465837E-1	5.165029E-1	4.897624E-1	5.144375E-1	5.240494E-1	5.093601E-1	5.008035E-1	4.852353E-1	5.219346E-1	5.118862E-1	5.131364E-1	5.498114E-1	5.150086E-1	5.254633E-1	5.038946E-1	4.972893E-1	5.256602E-1	5.329555E-1	5.281227E-1	5.192852E-1	5.396578E-1	4.712356E-1	4.948056E-1	5.327193E-1	5.125631E-1	5.271722E-1	5.030844E-1	4.916023E-1	5.251980E-1	5.342007E-1	5.411674E-1	4.996786E-1	5.178703E-1	5.617510E-1	5.081711E-1	5.117693E-1	5.017662E-1	5.097777E-1	5.354061E-1	5.218967E-1	5.105042E-1	5.182453E-1	4.984003E-1	5.150733E-1	5.178143E-1	5.120136E-1	5.216363E-1	5.244060E-1	5.183868E-1	5.582435E-1	5.162837E-1	5.140430E-1	5.161077E-1	4.655389E-1	5.172863E-1	4.896031E-1	5.169892E-1	5.263067E-1	5.168573E-1	4.882598E-1	4.870977E-1	5.346622E-1	5.049569E-1	5.030906E-1	5.146589E-1	5.133448E-1	5.143295E-1	5.043567E-1	5.254406E-1	5.447363E-1	5.534414E-1	4.896360E-1	5.090648E-1	4.845858E-1	4.958330E-1	5.230340E-1	5.132758E-1	4.878363E-1	4.986874E-1	4.999188E-1	5.167377E-1	5.451648E-1	5.297058E-1	5.306198E-1	5.235906E-1	5.242461E-1	5.438398E-1	5.080990E-1	5.177368E-1	5.412661E-1	5.195791E-1	4.962343E-1	5.483633E-1	5.446637E-1	5.254796E-1	5.249033E-1	5.100407E-1	5.447468E-1	5.078145E-1	5.234432E-1	5.132068E-1	5.410991E-1	5.270653E-1	5.138390E-1	5.069733E-1	5.219104E-1	5.458715E-1	5.042127E-1	5.091956E-1	4.908968E-1	5.195800E-1	5.511457E-1	4.939591E-1	5.391847E-1	5.211400E-1	5.180348E-1	5.035577E-1	5.376730E-1	5.078987E-1	5.007698E-1	5.244604E-1	5.105061E-1	5.292222E-1	5.211372E-1	5.434068E-1	5.633644E-1
5.370170E+2	5.914166E-1	5.529715E-1	5.136354E-1	5.400516E-1	5.762510E-1	5.688085E-1	5.327908E-1	5.359342E-1	5.494580E-1	5.469287E-1	5.564601E-1	5.790405E-1	5.344982E-1	5.201513E-1	5.290030E-1	5.589424E-1	5.496262E-1	5.527343E-1	5.561827E-1	5.541671E-1	5.494042E-1	5.615733E-1	5.486566E-1	5.353932E-1	5.518883E-1	5.386247E-1	5.786314E-1	5.830386E-1	5.298325E-1	5.482495E-1	5.712786E-1	5.561159E-1	4.924378E-1	5.562440E-1	5.808624E-1	5.283419E-1	5.116785E-1	5.616751E-1	5.572049E-1	5.624255E-1	5.293083E-1	5.698671E-1	5.547291E-1	5.487001E-1	5.735944E-1	5.897993E-1	5.827437E-1	5.645238E-1	5.477080E-1	5.084798E-1	5.633791E-1	5.808362E-1	5.851092E-1	5.541566E-1	5.618532E-1	5.616155E-1	5.162266E-1	5.324325E-1	5.682742E-1	5.459835E-1	5.644383E-1	5.141551E-1	5.226933E-1	5.351207E-1	5.457395E-1	5.569607E-1	5.658920E-1	5.725370E-1	5.530406E-1	5.759711E-1	5.494044E-1	5.535883E-1	5.557965E-1	5.475984E-1	5.500621E-1	5.784829E-1	5.324427E-1	5.497019E-1	5.644180E-1	5.533240E-1	5.501124E-1	5.505683E-1	5.540037E-1	5.425960E-1	5.253380E-1	5.540354E-1	5.759714E-1	5.785240E-1	5.958359E-1	5.867943E-1	5.150362E-1	5.456781E-1	5.480488E-1	5.359149E-1	6.081321E-1	5.686297E-1	5.455240E-1	5.278735E-1	5.552170E-1	5.886927E-1	5.409169E-1	5.619174E-1	5.380485E-1	5.378452E-1	5.740358E-1	5.649016E-1	5.532420E-1	5.639273E-1	5.268458E-1	5.780739E-1	5.490746E-1	5.631785E-1	5.564554E-1	5.552155E-1	5.634763E-1	5.606397E-1	5.741657E-1	5.311248E-1	5.451143E-1	5.391030E-1	5.624411E-1	5.476982E-1	5.847095E-1	5.770439E-1	5.596424E-1	5.272679E-1	6.022974E-1	5.555044E-1	5.546338E-1	5.517775E-1	5.717127E-1	5.655132E-1	5.831186E-1	5.330650E-1	5.625243E-1	5.519920E-1	5.480480E-1	5.189535E-1	5.478427E-1	5.723124E-1	5.398309E-1	5.388523E-1	5.390669E-1	5.526380E-1	5.645077E-1	5.913261E-1	5.756203E-1	5.686877E-1	5.476035E-1	5.632896E-1	5.667847E-1	5.595422E-1	5.934401E-1	5.436427E-1	5.712054E-1	5.463676E-1	5.766349E-1	5.772894E-1	5.916664E-1	5.537044E-1	5.753493E-1	5.676542E-1	5.692168E-1	5.758175E-1	5.307471E-1	5.996282E-1	5.729609E-1	5.471202E-1	5.190438E-1	5.053240E-1	5.547210E-1
5.372640E+2	6.697351E-1	6.728807E-1	6.296961E-1	6.378932E-1	6.460623E-1	6.033915E-1	6.502636E-1	6.212463E-1	6.247434E-1	6.036064E-1	5.918535E-1	6.620714E-1	6.075073E-1	5.939771E-1	6.297297E-1	6.274383E-1	6.226111E-1	5.867788E-1	6.005882E-1	6.359259E-1	6.332127E-1	6.237081E-1	6.472990E-1	6.136316E-1	6.403477E-1	6.398049E-1	6.467410E-1	6.392534E-1	6.221646E-1	6.018881E-1	6.059109E-1	6.554960E-1	6.269027E-1	6.320776E-1	6.236669E-1	5.854900E-1	6.101628E-1	6.193993E-1	6.079016E-1	6.658707E-1	6.104603E-1	6.397567E-1	6.349141E-1	6.080556E-1	6.126613E-1	6.666346E-1	6.546287E-1	6.441254E-1	6.379768E-1	6.368034E-1	6.108205E-1	6.576295E-1	6.219681E-1	6.192399E-1	5.972009E-1	6.272148E-1	6.209011E-1	6.260116E-1	6.342654E-1	6.084734E-1	6.311137E-1	6.598061E-1	6.191234E-1	6.122831E-1	6.678839E-1	6.097364E-1	6.310070E-1	6.368159E-1	6.229148E-1	6.241248E-1	6.238096E-1	6.273662E-1	6.173291E-1	6.054263E-1	6.360401E-1	6.780774E-1	6.031443E-1	5.996503E-1	6.596029E-1	6.463051E-1	6.233645E-1	6.201730E-1	6.370351E-1	6.137228E-1	6.219527E-1	5.927238E-1	6.422890E-1	6.194156E-1	6.361962E-1	6.108892E-1	6.112057E-1	6.224254E-1	6.242446E-1	6.123725E-1	6.413732E-1	6.325980E-1	6.090808E-1	6.311399E-1	6.355854E-1	6.107738E-1	6.521765E-1	6.570320E-1	6.500718E-1	6.247202E-1	6.078519E-1	6.121406E-1	6.486308E-1	6.406349E-1	6.327513E-1	5.993429E-1	6.379970E-1	6.220000E-1	6.286134E-1	6.360845E-1	6.285716E-1	6.368390E-1	6.502682E-1	6.493023E-1	6.281286E-1	6.537110E-1	6.450944E-1	6.246501E-1	6.293466E-1	6.617454E-1	6.319091E-1	6.370094E-1	6.472199E-1	6.336146E-1	6.584685E-1	6.588700E-1	6.735267E-1	6.547956E-1	6.212643E-1	6.251811E-1	6.343805E-1	6.121169E-1	6.393226E-1	6.522240E-1	5.884102E-1	6.465219E-1	6.211506E-1	6.010010E-1	6.665641E-1	6.233760E-1	6.396336E-1	6.172439E-1	6.354338E-1	6.374804E-1	6.705115E-1	6.281231E-1	6.334937E-1	6.480228E-1	6.403579E-1	6.153267E-1	6.100590E-1	6.169578E-1	6.279301E-1	6.570008E-1	6.645570E-1	6.075989E-1	5.954647E-1	6.413821E-1	6.185189E-1	6.432837E-1	6.524177E-1	6.285370E-1	6.497394E-1	6.458466E-1	6.593493E-1	6.385120E-1	6.717020E-1
5.375060E+2	7.248222E-1	7.133672E-1	7.106070E-1	7.275105E-1	7.450006E-1	7.322530E-1	7.255973E-1	7.228905E-1	7.290482E-1	7.010165E-1	6.815591E-1	7.555749E-1	6.864643E-1	7.145750E-1	7.369456E-1	7.376363E-1	7.031916E-1	7.093542E-1	6.929756E-1	7.614218E-1	7.198960E-1	7.192910E-1	7.070353E-1	7.088915E-1	6.878572E-1	7.042669E-1	7.220563E-1	7.330262E-1	7.416127E-1	7.181750E-1	7.027842E-1	7.272396E-1	7.115866E-1	7.273998E-1	7.485407E-1	7.257195E-1	7.179063E-1	7.291473E-1	7.712479E-1	7.345008E-1	7.220216E-1	7.309396E-1	7.342152E-1	7.288970E-1	7.297995E-1	7.613523E-1	7.089552E-1	7.466997E-1	7.108329E-1	7.024602E-1	7.577163E-1	7.710546E-1	7.147255E-1	7.208985E-1	7.163245E-1	7.324489E-1	7.456551E-1	6.813010E-1	7.305186E-1	7.362342E-1	7.488549E-1	7.465674E-1	7.138187E-1	7.168381E-1	7.301774E-1	7.240579E-1	7.459291E-1	7.166739E-1	7.073919E-1	7.350670E-1	7.092274E-1	7.557851E-1	6.943740E-1	7.381742E-1	7.110168E-1	7.164261E-1	7.510606E-1	6.993398E-1	7.215542E-1	7.854496E-1	7.251872E-1	6.968557E-1	7.400653E-1	7.381359E-1	7.517205E-1	7.508206E-1	7.647652E-1	7.328319E-1	7.603500E-1	7.501714E-1	6.995943E-1	7.422883E-1	7.491001E-1	6.886808E-1	7.150066E-1	7.389034E-1	7.285963E-1	7.512543E-1	7.588282E-1	7.413174E-1	7.258854E-1	7.442849E-1	7.302014E-1	7.313372E-1	7.554530E-1	6.991114E-1	7.808568E-1	7.497667E-1	7.043337E-1	7.433447E-1	7.718187E-1	7.459228E-1	7.207420E-1	7.555432E-1	7.374779E-1	7.331636E-1	7.116324E-1	7.209983E-1	7.109864E-1	7.490795E-1	7.639913E-1	7.492033E-1	7.227450E-1	7.016661E-1	7.230890E-1	7.103964E-1	7.564062E-1	7.047791E-1	7.361170E-1	7.278060E-1	7.603282E-1	7.217365E-1	7.091759E-1	7.059026E-1	7.342922E-1	7.047868E-1	7.080775E-1	7.103173E-1	7.549583E-1	7.288121E-1	7.488276E-1	7.305702E-1	7.275822E-1	7.747369E-1	7.361634E-1	7.653136E-1	7.335533E-1	7.386237E-1	7.418023E-1	7.100462E-1	7.270672E-1	7.514962E-1	7.146002E-1	7.260230E-1	7.067620E-1	7.041588E-1	7.434176E-1	7.559570E-1	7.472926E-1	7.321959E-1	7.295967E-1	7.478434E-1	7.329174E-1	7.279396E-1	6.971644E-1	7.305578E-1	7.236804E-1	7.634469E-1	7.248700E-1	7.396775E-1	7.434432E-1
5.377580E+2	8.565645E-1	8.216564E-1	7.850435E-1	8.231937E-1	8.075168E-1	8.368175E-1	8.823516E-1	8.318997E-1	7.666078E-1	8.426026E-1	8.285896E-1	8.718256E-1	8.269044E-1	8.421113E-1	8.468810E-1	8.216405E-1	7.906019E-1	8.324868E-1	8.457505E-1	8.130230E-1	8.260174E-1	8.110668E-1	8.355956E-1	7.796541E-1	7.945402E-1	8.688520E-1	8.686315E-1	8.404539E-1	8.363861E-1	8.259939E-1	8.230478E-1	8.500589E-1	7.883154E-1	8.228256E-1	8.300241E-1	8.318338E-1	8.298713E-1	8.216007E-1	8.174668E-1	8.321973E-1	8.484030E-1	8.464988E-1	8.490087E-1	8.370212E-1	8.227657E-1	8.012565E-1	8.226881E-1	8.510958E-1	7.846870E-1	8.506782E-1	8.545420E-1	8.996470E-1	8.428224E-1	8.422302E-1	8.366382E-1	8.175263E-1	8.187043E-1	8.584332E-1	8.554206E-1	8.414578E-1	8.160485E-1	8.384333E-1	8.295762E-1	8.329393E-1	8.203657E-1	8.293051E-1	8.047449E-1	8.492694E-1	8.216636E-1	8.176914E-1	8.548773E-1	8.501897E-1	8.388471E-1	8.239995E-1	8.606238E-1	8.293999E-1	8.003787E-1	7.903103E-1	8.096426E-1	8.433112E-1	8.261859E-1	8.454575E-1	7.943313E-1	8.742643E-1	8.145016E-1	8.015956E-1	8.646802E-1	8.314190E-1	8.343366E-1	8.146868E-1	8.282290E-1	8.380658E-1	8.567070E-1	8.322853E-1	8.694380E-1	8.310741E-1	8.592959E-1	8.238191E-1	7.966526E-1	8.169175E-1	8.287845E-1	8.373980E-1	8.550922E-1	8.545661E-1	8.968915E-1	8.105218E-1	8.029796E-1	8.580884E-1	7.960773E-1	8.192444E-1	8.541668E-1	8.382953E-1	7.955699E-1	8.936594E-1	8.339694E-1	8.394148E-1	8.273607E-1	8.628628E-1	8.739428E-1	8.319784E-1	8.445770E-1	8.240035E-1	8.444066E-1	8.195778E-1	8.608710E-1	8.595493E-1	8.461352E-1	8.053532E-1	8.282091E-1	7.944205E-1	8.798990E-1	8.499308E-1	8.242462E-1	8.135161E-1	8.041617E-1	8.630111E-1	8.494344E-1	8.669010E-1	8.550095E-1	8.432230E-1	8.460749E-1	8.380480E-1	8.585767E-1	8.818573E-1	8.880846E-1	8.971526E-1	8.055728E-1	8.198713E-1	8.097463E-1	8.017364E-1	8.409686E-1	8.504068E-1	8.515238E-1	8.108247E-1	8.026387E-1	8.149179E-1	8.409646E-1	8.660977E-1	8.715575E-1	8.251678E-1	8.554481E-1	8.328676E-1	8.279544E-1	8.019338E-1	8.662578E-1	8.366901E-1	8.545360E-1	7.965439E-1	8.380687E-1	8.355097E-1	9.363147E-1
5.380160E+2	1.020997E+0	9.613223E-1	9.607653E-1	1.012039E+0	9.291953E-1	1.001594E+0	1.027347E+0	9.934349E-1	1.024529E+0	9.666311E-1	9.543470E-1	9.385811E-1	9.729666E-1	9.765570E-1	9.721916E-1	9.600503E-1	1.008910E+0	1.049345E+0	9.955650E-1	9.974466E-1	9.863915E-1	9.405636E-1	9.561218E-1	1.012238E+0	9.723639E-1	9.834531E-1	9.892498E-1	9.811557E-1	9.541082E-1	9.820035E-1	9.875673E-1	1.002565E+0	9.897694E-1	9.822415E-1	9.995692E-1	1.029191E+0	9.845311E-1	9.733587E-1	1.005092E+0	1.009993E+0	1.022022E+0	1.000753E+0	9.604100E-1	9.872223E-1	9.624716E-1	9.724147E-1	9.617739E-1	1.010548E+0	9.662431E-1	9.866592E-1	9.909368E-1	9.844447E-1	9.571785E-1	9.874491E-1	9.704435E-1	9.497907E-1	9.481660E-1	1.056266E+0	9.769653E-1	1.013717E+0	9.737288E-1	9.701922E-1	1.028258E+0	9.910631E-1	1.002039E+0	1.020353E+0	9.748617E-1	9.574000E-1	9.591957E-1	9.827193E-1	1.042768E+0	9.754075E-1	9.621285E-1	9.967653E-1	1.042842E+0	1.002916E+0	1.002144E+0	9.585804E-1	9.950246E-1	1.020021E+0	8.988862E-1	9.643228E-1	9.983170E-1	9.829853E-1	9.336019E-1	9.751344E-1	9.905280E-1	9.593983E-1	9.572166E-1	1.007386E+0	9.879420E-1	9.851800E-1	1.017016E+0	9.583555E-1	9.694550E-1	1.002704E+0	9.308736E-1	1.014001E+0	9.321405E-1	9.681444E-1	1.002197E+0	9.814099E-1	1.015415E+0	9.683642E-1	1.012247E+0	9.988327E-1	9.915719E-1	9.905677E-1	9.305748E-1	9.908101E-1	9.929638E-1	9.620090E-1	9.776442E-1	9.506119E-1	9.357276E-1	9.631679E-1	9.791553E-1	1.001284E+0	9.977361E-1	9.499134E-1	9.760963E-1	9.964391E-1	9.985692E-1	1.005623E+0	9.991247E-1	1.007343E+0	9.918531E-1	9.963597E-1	9.806016E-1	1.011786E+0	9.472752E-1	9.675306E-1	1.019246E+0	9.641244E-1	9.789827E-1	1.013596E+0	9.757941E-1	9.897001E-1	9.980531E-1	9.981067E-1	9.807995E-1	9.777198E-1	9.643883E-1	1.024521E+0	9.987136E-1	1.025896E+0	9.601415E-1	1.016194E+0	9.588761E-1	1.001238E+0	9.767768E-1	9.922004E-1	9.939055E-1	9.747333E-1	9.553070E-1	9.832536E-1	9.593960E-1	9.993533E-1	9.810666E-1	1.008009E+0	1.022893E+0	9.969629E-1	1.000968E+0	9.573631E-1	9.567367E-1	1.024628E+0	9.677785E-1	9.707916E-1	9.951038E-1	1.003378E+0	9.713461E-1
5.382740E+2	1.225578E+0	1.205310E+0	1.178290E+0	1.195122E+0	1.180965E+0	1.138308E+0	1.169745E+0	1.191369E+0	1.196886E+0	1.164252E+0	1.153164E+0	1.158154E+0	1.156460E+0	1.169629E+0	1.190728E+0	1.191296E+0	1.171782E+0	1.155288E+0	1.216464E+0	1.170953E+0	1.233836E+0	1.206598E+0	1.221660E+0	1.210221E+0	1.111043E+0	1.165573E+0	1.203998E+0	1.221615E+0	1.236574E+0	1.149615E+0	1.178119E+0	1.167190E+0	1.168150E+0	1.135152E+0	1.166331E+0	1.148735E+0	1.182151E+0	1.183417E+0	1.223991E+0	1.201741E+0	1.164666E+0	1.113644E+0	1.166571E+0	1.166508E+0	1.169292E+0	1.185489E+0	1.206082E+0	1.180129E+0	1.194746E+0	1.160089E+0	1.132466E+0	1.179620E+0	1.149921E+0	1.183290E+0	1.156051E+0	1.224648E+0	1.196401E+0	1.210542E+0	1.170913E+0	1.151784E+0	1.199037E+0	1.202672E+0	1.184106E+0	1.153117E+0	1.238398E+0	1.186458E+0	1.193930E+0	1.213783E+0	1.155221E+0	1.189343E+0	1.222979E+0	1.236786E+0	1.149591E+0	1.186749E+0	1.163249E+0	1.143739E+0	1.198193E+0	1.179943E+0	1.181404E+0	1.180168E+0	1.161100E+0	1.187158E+0	1.157459E+0	1.167655E+0	1.185787E+0	1.203077E+0	1.214045E+0	1.201184E+0	1.215334E+0	1.191557E+0	1.157145E+0	1.192558E+0	1.153898E+0	1.166244E+0	1.190846E+0	1.194474E+0	1.152051E+0	1.134535E+0	1.169460E+0	1.173096E+0	1.156427E+0	1.178885E+0	1.191351E+0	1.143392E+0	1.153640E+0	1.182895E+0	1.218032E+0	1.200053E+0	1.166619E+0	1.157508E+0	1.169881E+0	1.133409E+0	1.140477E+0	1.182916E+0	1.136140E+0	1.171799E+0	1.180574E+0	1.164065E+0	1.154578E+0	1.173956E+0	1.136946E+0	1.183533E+0	1.201609E+0	1.203892E+0	1.176643E+0	1.219458E+0	1.159102E+0	1.175627E+0	1.142396E+0	1.205828E+0	1.215209E+0	1.235346E+0	1.163324E+0	1.170541E+0	1.145431E+0	1.211667E+0	1.151621E+0	1.219273E+0	1.171195E+0	1.165735E+0	1.179490E+0	1.148024E+0	1.209414E+0	1.168577E+0	1.219963E+0	1.195376E+0	1.188320E+0	1.166852E+0	1.171476E+0	1.177440E+0	1.159859E+0	1.178451E+0	1.134064E+0	1.168836E+0	1.159895E+0	1.195140E+0	1.205953E+0	1.199519E+0	1.144650E+0	1.165002E+0	1.147957E+0	1.183192E+0	1.166877E+0	1.156343E+0	1.163567E+0	1.210889E+0	1.209175E+0	1.172787E+0	1.183123E+0	1.081427E+0	1.217557E+0
5.385060E+2	1.421135E+0	1.434600E+0	1.413881E+0	1.389755E+0	1.442475E+0	1.394009E+0	1.404959E+0	1.345654E+0	1.396176E+0	1.391969E+0	1.473072E+0	1.427328E+0	1.363680E+0	1.387389E+0	1.382659E+0	1.436551E+0	1.441951E+0	1.444192E+0	1.385423E+0	1.467579E+0	1.353800E+0	1.367091E+0	1.474613E+0	1.398263E+0	1.367474E+0	1.392098E+0	1.427644E+0	1.443415E+0	1.376946E+0	1.361154E+0	1.336123E+0	1.361075E+0	1.373784E+0	1.321423E+0	1.397511E+0	1.368148E+0	1.360261E+0	1.364180E+0	1.358483E+0	1.382127E+0	1.336101E+0	1.400161E+0	1.345317E+0	1.394991E+0	1.374482E+0	1.405673E+0	1.414618E+0	1.424962E+0	1.396968E+0	1.406846E+0	1.352389E+0	1.404347E+0	1.334396E+0	1.400391E+0	1.407725E+0	1.368576E+0	1.357614E+0	1.395766E+0	1.380465E+0	1.384813E+0	1.397242E+0	1.357576E+0	1.370128E+0	1.362786E+0	1.370383E+0	1.359770E+0	1.359769E+0	1.332800E+0	1.369597E+0	1.356863E+0	1.430891E+0	1.409161E+0	1.334435E+0	1.370971E+0	1.384319E+0	1.370009E+0	1.382723E+0	1.367823E+0	1.355631E+0	1.391049E+0	1.371330E+0	1.401000E+0	1.432393E+0	1.333831E+0	1.395660E+0	1.336035E+0	1.413320E+0	1.395069E+0	1.395921E+0	1.387590E+0	1.323246E+0	1.403189E+0	1.390812E+0	1.418855E+0	1.389492E+0	1.403661E+0	1.341717E+0	1.426617E+0	1.363508E+0	1.404491E+0	1.390910E+0	1.446337E+0	1.361478E+0	1.377605E+0	1.389429E+0	1.371393E+0	1.348241E+0	1.402367E+0	1.393681E+0	1.461842E+0	1.359565E+0	1.381740E+0	1.407484E+0	1.362526E+0	1.379222E+0	1.346881E+0	1.396108E+0	1.347095E+0	1.382289E+0	1.387851E+0	1.370536E+0	1.409235E+0	1.383836E+0	1.352488E+0	1.374372E+0	1.422208E+0	1.372257E+0	1.352620E+0	1.368836E+0	1.358873E+0	1.441845E+0	1.415169E+0	1.377105E+0	1.354551E+0	1.398965E+0	1.422828E+0	1.358813E+0	1.413856E+0	1.383486E+0	1.396424E+0	1.404631E+0	1.361636E+0	1.337255E+0	1.400872E+0	1.373446E+0	1.371060E+0	1.307635E+0	1.466437E+0	1.391998E+0	1.393026E+0	1.385039E+0	1.359988E+0	1.363458E+0	1.359803E+0	1.402268E+0	1.338328E+0	1.403398E+0	1.413455E+0	1.380611E+0	1.401744E+0	1.370444E+0	1.398104E+0	1.426185E+0	1.346967E+0	1.332037E+0	1.348772E+0	1.373998E+0	1.406898E+0	1.398834E+0	1.311107E+0	1.433619E+0
5.387650E+2	1.747870E+0	1.627542E+0	1.657126E+0	1.659009E+0	1.621505E+0	1.657024E+0	1.653905E+0	1.683887E+0	1.610558E+0	1.657475E+0	1.592768E+0	1.607507E+0	1.645149E+0	1.675091E+0	1.650885E+0	1.660536E+0	1.592289E+0	1.623980E+0	1.650477E+0	1.700463E+0	1.633895E+0	1.573216E+0	1.616928E+0	1.637142E+0	1.584230E+0	1.623723E+0	1.659800E+0	1.703550E+0	1.649599E+0	1.611391E+0	1.648942E+0	1.667941E+0	1.634731E+0	1.634287E+0	1.641004E+0	1.613523E+0	1.639766E+0	1.658557E+0	1.616460E+0	1.638467E+0	1.646519E+0	1.616821E+0	1.663971E+0	1.633125E+0	1.640330E+0	1.623934E+0	1.698602E+0	1.623318E+0	1.679653E+0	1.653649E+0	1.640198E+0	1.656945E+0	1.619493E+0	1.652939E+0	1.649073E+0	1.660948E+0	1.667089E+0	1.606131E+0	1.596109E+0	1.643183E+0	1.661848E+0	1.620109E+0	1.654171E+0	1.595608E+0	1.651692E+0	1.666487E+0	1.600303E+0	1.592984E+0	1.587653E+0	1.657280E+0	1.675043E+0	1.648890E+0	1.663004E+0	1.648617E+0	1.638466E+0	1.612539E+0	1.595107E+0	1.668199E+0	1.727580E+0	1.641243E+0	1.536087E+0	1.590661E+0	1.561220E+0	1.687927E+0	1.613850E+0	1.559936E+0	1.690370E+0	1.603601E+0	1.659226E+0	1.644239E+0	1.638886E+0	1.649428E+0	1.654614E+0	1.633918E+0	1.633105E+0	1.639037E+0	1.566952E+0	1.663362E+0	1.577318E+0	1.598218E+0	1.618886E+0	1.612369E+0	1.676776E+0	1.612850E+0	1.651725E+0	1.605650E+0	1.635307E+0	1.619391E+0	1.529650E+0	1.633686E+0	1.604291E+0	1.643661E+0	1.618317E+0	1.624986E+0	1.605506E+0	1.559143E+0	1.591010E+0	1.582838E+0	1.658836E+0	1.602797E+0	1.605995E+0	1.596794E+0	1.645495E+0	1.590787E+0	1.607578E+0	1.669183E+0	1.584353E+0	1.623548E+0	1.593016E+0	1.652972E+0	1.660882E+0	1.647112E+0	1.603359E+0	1.596706E+0	1.595278E+0	1.587773E+0	1.651438E+0	1.584798E+0	1.590951E+0	1.635389E+0	1.612480E+0	1.638208E+0	1.593469E+0	1.563379E+0	1.647870E+0	1.661589E+0	1.570838E+0	1.595234E+0	1.690529E+0	1.621672E+0	1.685800E+0	1.658049E+0	1.604487E+0	1.684694E+0	1.579598E+0	1.607429E+0	1.683493E+0	1.643395E+0	1.615536E+0	1.576285E+0	1.623469E+0	1.588294E+0	1.606720E+0	1.586587E+0	1.610162E+0	1.581834E+0	1.662151E+0	1.580104E+0	1.627531E+0	1.511307E+0	1.643499E+0
5.390450E+2	1.905032E+0	1.849961E+0	1.762970E+0	1.848668E+0	1.870565E+0	1.800270E+0	1.858337E+0	1.876721E+0	1.835417E+0	1.799793E+0	1.832983E+0	1.834198E+0	1.798926E+0	1.809602E+0	1.804670E+0	1.863851E+0	1.847717E+0	1.874677E+0	1.832538E+0	1.844570E+0	1.834379E+0	1.815372E+0	1.883967E+0	1.848568E+0	1.787526E+0	1.822552E+0	1.921641E+0	1.836596E+0	1.839626E+0	1.840382E+0	1.796428E+0	1.844812E+0	1.849260E+0	1.848770E+0	1.865781E+0	1.813447E+0	1.743365E+0	1.807220E+0	1.806363E+0	1.884339E+0	1.821397E+0	1.796761E+0	1.888415E+0	1.850666E+0	1.833273E+0	1.882701E+0	1.860654E+0	1.812951E+0	1.794519E+0	1.850044E+0	1.850609E+0	1.757527E+0	1.797745E+0	1.847350E+0	1.884000E+0	1.841786E+0	1.776631E+0	1.871088E+0	1.836502E+0	1.800352E+0	1.823429E+0	1.821984E+0	1.822441E+0	1.741761E+0	1.812563E+0	1.809100E+0	1.775151E+0	1.744632E+0	1.827133E+0	1.828386E+0	1.805205E+0	1.827959E+0	1.833655E+0	1.856825E+0	1.841076E+0	1.754550E+0	1.749893E+0	1.727624E+0	1.796863E+0	1.829332E+0	1.808377E+0	1.796259E+0	1.884600E+0	1.840362E+0	1.765438E+0	1.769517E+0	1.868420E+0	1.802912E+0	1.776647E+0	1.792777E+0	1.816967E+0	1.826237E+0	1.752094E+0	1.812174E+0	1.838224E+0	1.846366E+0	1.796297E+0	1.827301E+0	1.792318E+0	1.778305E+0	1.824766E+0	1.765745E+0	1.825654E+0	1.773421E+0	1.782357E+0	1.729407E+0	1.824504E+0	1.755227E+0	1.779778E+0	1.789964E+0	1.807657E+0	1.805847E+0	1.784266E+0	1.763735E+0	1.817046E+0	1.806002E+0	1.791259E+0	1.747656E+0	1.804698E+0	1.774355E+0	1.738612E+0	1.827896E+0	1.870669E+0	1.802077E+0	1.772758E+0	1.819642E+0	1.812449E+0	1.769475E+0	1.812895E+0	1.786534E+0	1.763655E+0	1.816335E+0	1.849150E+0	1.821097E+0	1.733066E+0	1.756662E+0	1.710401E+0	1.759106E+0	1.784012E+0	1.790161E+0	1.805764E+0	1.764118E+0	1.759918E+0	1.773831E+0	1.830392E+0	1.785443E+0	1.731257E+0	1.736338E+0	1.793073E+0	1.786073E+0	1.760533E+0	1.769160E+0	1.724395E+0	1.785572E+0	1.738626E+0	1.762097E+0	1.861706E+0	1.785743E+0	1.798302E+0	1.733707E+0	1.800172E+0	1.757911E+0	1.783935E+0	1.742361E+0	1.733653E+0	1.734666E+0	1.756316E+0	1.785935E+0	1.767616E+0	1.700747E+0	1.734961E+0
5.392720E+2	2.086432E+0	1.987736E+0	1.958088E+0	1.934476E+0	2.031498E+0	1.956751E+0	2.015140E+0	1.983328E+0	2.006015E+0	1.926910E+0	2.030134E+0	2.021961E+0	1.981996E+0	1.964938E+0	1.976771E+0	1.978379E+0	2.047169E+0	2.002069E+0	2.004584E+0	2.052889E+0	2.004973E+0	1.985532E+0	2.000127E+0	2.019819E+0	1.959878E+0	1.949884E+0	2.056935E+0	2.036112E+0	2.048230E+0	2.019155E+0	1.969029E+0	1.979557E+0	1.947428E+0	1.942762E+0	2.005807E+0	2.042696E+0	1.990868E+0	1.977515E+0	2.014470E+0	1.974050E+0	2.075411E+0	1.920183E+0	2.049212E+0	1.970715E+0	2.036115E+0	2.017919E+0	1.973705E+0	1.960579E+0	1.989294E+0	2.021194E+0	1.984428E+0	2.005848E+0	1.979594E+0	1.941127E+0	2.019630E+0	1.945026E+0	1.966407E+0	2.016518E+0	2.066030E+0	1.952865E+0	1.936978E+0	2.010292E+0	1.995207E+0	1.994303E+0	1.994041E+0	1.987024E+0	1.984009E+0	1.973708E+0	2.016648E+0	1.947639E+0	2.019318E+0	1.972095E+0	1.940958E+0	1.984645E+0	2.041319E+0	1.991256E+0	2.022096E+0	1.974743E+0	2.015059E+0	2.000385E+0	1.960122E+0	1.936484E+0	1.915213E+0	1.975464E+0	1.923763E+0	1.973593E+0	2.105338E+0	1.955361E+0	2.040279E+0	2.049122E+0	1.996270E+0	1.931358E+0	2.065945E+0	1.969681E+0	1.952697E+0	1.948846E+0	1.951659E+0	2.003927E+0	1.938290E+0	1.941870E+0	1.936117E+0	1.917980E+0	1.998039E+0	1.954715E+0	1.998224E+0	1.958750E+0	1.967838E+0	1.992113E+0	1.914017E+0	1.933911E+0	2.031805E+0	1.959338E+0	1.960618E+0	1.996604E+0	1.964658E+0	1.968726E+0	1.921482E+0	1.979037E+0	1.971803E+0	1.955323E+0	1.868587E+0	1.966486E+0	1.961502E+0	1.899743E+0	1.946461E+0	1.906887E+0	2.007721E+0	1.980285E+0	1.958180E+0	1.948233E+0	2.019374E+0	1.997663E+0	1.918038E+0	1.914544E+0	2.018300E+0	1.974799E+0	1.897098E+0	2.000556E+0	1.894640E+0	1.990939E+0	2.005603E+0	1.953431E+0	1.918787E+0	1.923867E+0	2.015766E+0	1.999018E+0	1.916213E+0	1.955369E+0	1.949249E+0	1.865172E+0	1.984693E+0	1.929243E+0	1.955745E+0	1.937350E+0	1.929083E+0	1.924145E+0	1.924223E+0	1.906504E+0	1.975546E+0	1.915889E+0	1.926229E+0	1.867467E+0	1.981396E+0	1.950349E+0	1.896160E+0	1.822000E+0	1.954825E+0	1.896540E+0	1.964568E+0	1.794606E+0	1.926229E+0
5.395160E+2	2.184124E+0	2.114661E+0	2.051687E+0	2.150425E+0	2.149829E+0	2.156538E+0	2.119730E+0	2.109534E+0	2.156953E+0	2.074118E+0	2.083816E+0	2.132368E+0	2.098032E+0	2.082891E+0	2.119574E+0	2.122216E+0	2.139293E+0	2.149752E+0	2.036561E+0	2.108723E+0	2.082313E+0	2.119204E+0	2.137153E+0	2.165167E+0	2.044422E+0	2.030951E+0	2.192187E+0	2.211090E+0	2.152995E+0	2.089966E+0	2.132593E+0	2.148378E+0	2.079275E+0	2.056264E+0	2.116323E+0	2.064121E+0	2.096386E+0	2.073079E+0	2.126927E+0	2.118624E+0	2.126506E+0	2.002176E+0	2.050479E+0	2.091181E+0	2.131323E+0	2.086170E+0	2.088329E+0	2.210316E+0	2.094305E+0	2.129300E+0	2.132224E+0	2.083723E+0	2.033002E+0	2.091843E+0	2.117334E+0	2.081132E+0	2.098802E+0	2.070189E+0	2.136368E+0	2.103633E+0	2.137010E+0	2.095600E+0	2.090743E+0	2.065729E+0	2.077927E+0	2.068324E+0	2.029106E+0	2.064503E+0	2.029152E+0	2.074581E+0	2.126466E+0	2.099266E+0	2.034079E+0	2.086923E+0	2.087630E+0	2.029163E+0	2.032659E+0	2.072599E+0	2.040395E+0	2.112342E+0	2.053568E+0	2.072090E+0	2.089457E+0	2.034364E+0	2.059763E+0	2.056937E+0	2.087888E+0	2.070992E+0	2.134743E+0	2.012770E+0	2.069439E+0	2.047555E+0	2.071482E+0	2.064769E+0	2.093648E+0	2.046303E+0	2.061231E+0	2.124436E+0	2.047268E+0	2.073111E+0	2.057050E+0	2.091389E+0	2.088839E+0	2.005585E+0	2.068786E+0	1.971574E+0	2.104795E+0	2.108713E+0	2.090114E+0	2.085431E+0	2.120542E+0	2.078616E+0	2.010885E+0	2.102778E+0	1.987870E+0	2.066737E+0	2.050650E+0	1.976336E+0	2.034557E+0	2.016505E+0	2.028107E+0	2.062048E+0	2.098727E+0	2.026389E+0	2.068358E+0	2.079941E+0	2.014049E+0	2.109563E+0	2.093579E+0	2.082163E+0	2.130070E+0	2.090812E+0	2.098760E+0	2.069282E+0	2.055453E+0	2.035533E+0	2.011434E+0	2.050776E+0	2.028915E+0	2.036851E+0	2.027087E+0	2.050819E+0	2.017996E+0	2.052428E+0	2.100807E+0	2.051423E+0	2.044843E+0	2.080984E+0	2.022419E+0	2.018770E+0	2.081592E+0	2.064160E+0	2.023209E+0	2.070495E+0	1.983980E+0	2.066816E+0	2.048116E+0	2.045762E+0	2.045145E+0	1.982576E+0	2.015564E+0	2.014182E+0	2.018449E+0	2.021468E+0	1.981552E+0	2.001622E+0	2.029057E+0	2.024147E+0	2.050693E+0	1.967813E+0	2.058283E+0
5.397810E+2	2.183700E+0	2.134671E+0	1.979907E+0	2.093114E+0	2.042455E+0	2.032121E+0	2.164397E+0	2.102738E+0	2.090964E+0	2.035337E+0	2.103570E+0	2.144549E+0	2.008620E+0	2.071224E+0	2.066973E+0	2.132959E+0	2.139383E+0	2.142184E+0	2.085286E+0	2.131180E+0	2.139854E+0	2.055866E+0	2.038465E+0	2.126645E+0	2.076576E+0	2.021560E+0	2.072799E+0	2.115057E+0	2.081324E+0	2.106675E+0	2.064335E+0	2.063961E+0	2.067301E+0	1.995810E+0	2.143108E+0	2.059994E+0	2.064374E+0	2.017180E+0	2.082744E+0	2.122713E+0	2.042661E+0	2.117480E+0	2.057045E+0	2.062491E+0	1.963008E+0	2.099334E+0	2.124545E+0	2.143206E+0	2.064586E+0	2.067773E+0	2.051040E+0	2.121140E+0	2.089929E+0	2.085193E+0	2.092653E+0	2.111478E+0	2.076305E+0	2.098432E+0	2.085879E+0	2.125250E+0	2.065885E+0	2.132343E+0	2.023397E+0	2.002415E+0	2.025842E+0	2.081359E+0	2.057855E+0	2.051366E+0	2.070200E+0	2.029987E+0	2.071416E+0	2.121419E+0	2.051509E+0	2.048358E+0	2.097853E+0	2.040264E+0	2.014942E+0	2.036788E+0	2.091471E+0	2.130219E+0	2.039333E+0	1.996562E+0	2.064568E+0	2.025380E+0	2.047044E+0	2.001696E+0	2.140490E+0	2.013686E+0	2.097919E+0	2.049744E+0	2.035760E+0	2.086685E+0	2.066511E+0	2.022520E+0	2.141260E+0	2.088822E+0	2.052227E+0	2.066021E+0	2.063980E+0	2.003634E+0	2.037348E+0	2.038494E+0	2.059404E+0	2.057226E+0	2.063235E+0	2.008647E+0	2.044885E+0	2.110644E+0	2.000895E+0	2.034935E+0	1.999602E+0	2.006395E+0	2.021813E+0	2.037461E+0	2.031634E+0	2.022542E+0	2.053948E+0	2.040021E+0	2.102167E+0	2.037597E+0	2.065473E+0	2.007028E+0	2.060879E+0	2.067076E+0	2.008463E+0	2.037896E+0	2.022490E+0	2.041644E+0	2.043181E+0	2.015351E+0	2.137577E+0	2.069808E+0	1.994878E+0	2.022405E+0	1.964504E+0	2.056753E+0	1.947370E+0	2.004273E+0	2.066605E+0	2.029279E+0	2.043101E+0	2.000459E+0	2.042402E+0	2.056136E+0	2.127976E+0	2.098059E+0	1.989663E+0	2.073528E+0	2.068581E+0	1.996781E+0	2.064910E+0	2.003107E+0	2.037386E+0	2.001943E+0	1.986338E+0	1.967328E+0	2.031665E+0	2.032727E+0	2.016822E+0	1.994280E+0	2.018982E+0	2.045816E+0	2.057781E+0	2.023323E+0	1.974043E+0	2.031444E+0	1.979081E+0	2.012930E+0	2.005883E+0	1.891264E+0	1.941146E+0
5.400190E+2	2.021200E+0	1.913711E+0	1.951967E+0	2.035009E+0	1.966572E+0	1.987351E+0	1.967305E+0	1.953420E+0	1.973834E+0	1.953280E+0	1.933699E+0	2.004017E+0	2.053770E+0	2.023698E+0	1.958270E+0	1.997387E+0	2.043251E+0	1.958039E+0	1.984842E+0	1.989866E+0	1.943197E+0	1.946677E+0	1.958979E+0	1.976416E+0	1.959087E+0	1.975532E+0	2.005762E+0	2.015307E+0	2.031067E+0	1.928209E+0	1.989925E+0	2.025949E+0	1.977347E+0	1.918001E+0	1.987823E+0	1.956548E+0	1.923839E+0	1.995160E+0	1.940733E+0	1.991749E+0	1.986244E+0	1.964890E+0	2.016854E+0	2.017661E+0	1.977475E+0	2.012352E+0	1.957634E+0	1.980924E+0	1.933149E+0	1.979985E+0	2.000804E+0	1.993601E+0	1.956299E+0	1.960276E+0	1.962395E+0	2.044957E+0	1.949814E+0	1.955940E+0	2.000247E+0	1.974494E+0	1.949138E+0	1.945736E+0	1.964567E+0	1.892196E+0	2.011981E+0	1.976198E+0	1.902436E+0	1.923047E+0	2.021536E+0	1.906443E+0	1.929604E+0	1.938606E+0	1.925258E+0	2.007135E+0	1.979091E+0	2.028963E+0	1.939880E+0	1.941784E+0	1.979505E+0	1.903457E+0	1.964031E+0	1.912048E+0	1.978350E+0	1.898881E+0	1.902173E+0	1.943892E+0	2.024005E+0	1.948760E+0	1.953563E+0	1.981108E+0	1.939866E+0	1.981229E+0	1.875522E+0	1.895989E+0	1.957880E+0	2.008568E+0	1.879932E+0	1.969866E+0	1.918774E+0	1.957895E+0	1.977463E+0	1.966193E+0	1.993384E+0	1.924041E+0	1.931439E+0	1.945918E+0	1.979992E+0	1.900054E+0	1.976940E+0	1.963990E+0	1.998637E+0	1.956809E+0	1.894103E+0	1.979172E+0	1.915250E+0	1.910995E+0	1.900099E+0	1.982105E+0	1.943604E+0	1.888559E+0	1.831012E+0	1.985651E+0	2.004081E+0	1.915556E+0	1.897946E+0	1.924418E+0	2.054680E+0	1.933504E+0	1.912993E+0	1.933645E+0	2.019476E+0	2.020413E+0	1.932753E+0	1.910631E+0	1.924333E+0	1.934182E+0	1.853105E+0	1.907582E+0	1.964396E+0	1.901210E+0	1.878465E+0	1.964425E+0	1.862641E+0	1.906624E+0	1.949339E+0	2.005338E+0	1.888346E+0	1.969023E+0	1.932804E+0	1.886279E+0	1.985165E+0	1.937299E+0	1.891323E+0	1.933824E+0	1.935073E+0	1.920093E+0	1.962550E+0	1.963638E+0	1.948915E+0	1.890364E+0	1.897059E+0	1.932752E+0	1.880045E+0	1.910048E+0	1.868760E+0	1.851831E+0	1.912788E+0	1.865933E+0	1.917573E+0	1.877628E+0	1.919830E+0
5.402740E+2	1.967095E+0	1.858495E+0	1.848079E+0	1.874614E+0	1.836878E+0	1.744258E+0	1.768325E+0	1.819241E+0	1.864712E+0	1.809910E+0	1.788935E+0	1.839659E+0	1.862504E+0	1.859172E+0	1.794378E+0	1.864994E+0	1.898300E+0	1.841475E+0	1.869689E+0	1.859361E+0	1.854984E+0	1.811260E+0	1.839232E+0	1.816886E+0	1.740784E+0	1.809315E+0	1.848965E+0	1.888408E+0	1.857401E+0	1.814630E+0	1.835934E+0	1.833843E+0	1.806998E+0	1.827751E+0	1.873804E+0	1.849548E+0	1.860822E+0	1.814846E+0	1.809952E+0	1.845274E+0	1.795205E+0	1.782363E+0	1.851831E+0	1.863076E+0	1.827283E+0	1.888566E+0	1.804512E+0	1.875896E+0	1.821352E+0	1.838443E+0	1.793426E+0	1.866339E+0	1.837715E+0	1.854896E+0	1.849806E+0	1.894799E+0	1.816814E+0	1.793719E+0	1.845022E+0	1.841080E+0	1.847036E+0	1.901673E+0	1.846679E+0	1.843523E+0	1.773758E+0	1.833814E+0	1.794344E+0	1.787772E+0	1.844335E+0	1.824491E+0	1.839829E+0	1.856973E+0	1.782279E+0	1.866530E+0	1.816725E+0	1.787264E+0	1.831484E+0	1.829187E+0	1.809881E+0	1.748942E+0	1.722032E+0	1.786268E+0	1.839260E+0	1.833154E+0	1.840361E+0	1.796437E+0	1.867848E+0	1.798182E+0	1.849996E+0	1.841971E+0	1.767191E+0	1.844051E+0	1.855691E+0	1.773207E+0	1.814900E+0	1.833642E+0	1.821819E+0	1.860562E+0	1.842788E+0	1.850392E+0	1.803429E+0	1.814634E+0	1.759288E+0	1.796401E+0	1.914349E+0	1.759618E+0	1.850110E+0	1.808405E+0	1.796376E+0	1.801925E+0	1.821513E+0	1.780890E+0	1.745052E+0	1.775706E+0	1.789654E+0	1.847773E+0	1.840576E+0	1.746461E+0	1.845926E+0	1.818973E+0	1.755073E+0	1.795530E+0	1.833740E+0	1.841469E+0	1.785118E+0	1.823461E+0	1.782821E+0	1.809149E+0	1.833966E+0	1.835354E+0	1.848975E+0	1.840956E+0	1.771427E+0	1.822523E+0	1.812753E+0	1.774761E+0	1.773641E+0	1.736858E+0	1.740188E+0	1.828615E+0	1.836319E+0	1.767060E+0	1.778853E+0	1.812886E+0	1.832305E+0	1.807825E+0	1.760728E+0	1.798161E+0	1.785704E+0	1.757594E+0	1.782346E+0	1.819773E+0	1.801592E+0	1.815718E+0	1.772223E+0	1.788981E+0	1.819125E+0	1.786528E+0	1.848894E+0	1.793620E+0	1.778070E+0	1.781669E+0	1.866331E+0	1.789261E+0	1.769585E+0	1.773172E+0	1.833537E+0	1.785018E+0	1.839392E+0	1.760581E+0	1.863239E+0
5.405080E+2	1.861061E+0	1.783095E+0	1.735509E+0	1.785843E+0	1.777287E+0	1.760166E+0	1.807976E+0	1.815757E+0	1.769014E+0	1.811969E+0	1.729454E+0	1.823278E+0	1.797265E+0	1.841862E+0	1.763350E+0	1.756549E+0	1.788760E+0	1.887130E+0	1.777598E+0	1.788852E+0	1.798821E+0	1.740118E+0	1.770998E+0	1.873060E+0	1.731327E+0	1.814338E+0	1.818421E+0	1.863932E+0	1.767726E+0	1.730632E+0	1.816947E+0	1.818772E+0	1.767372E+0	1.821984E+0	1.835362E+0	1.827481E+0	1.789497E+0	1.780400E+0	1.773590E+0	1.811849E+0	1.845640E+0	1.712702E+0	1.828374E+0	1.810059E+0	1.773985E+0	1.741631E+0	1.766148E+0	1.800092E+0	1.829104E+0	1.777401E+0	1.775215E+0	1.797562E+0	1.752946E+0	1.714385E+0	1.767647E+0	1.808050E+0	1.708461E+0	1.782188E+0	1.691325E+0	1.787912E+0	1.800729E+0	1.796664E+0	1.821691E+0	1.764692E+0	1.772760E+0	1.745318E+0	1.765416E+0	1.799276E+0	1.818860E+0	1.708667E+0	1.768556E+0	1.801958E+0	1.777007E+0	1.788919E+0	1.830037E+0	1.748651E+0	1.788225E+0	1.797743E+0	1.797342E+0	1.802042E+0	1.753992E+0	1.718425E+0	1.704715E+0	1.800844E+0	1.755978E+0	1.702018E+0	1.846781E+0	1.841245E+0	1.802315E+0	1.840231E+0	1.750058E+0	1.757082E+0	1.799605E+0	1.740560E+0	1.748535E+0	1.714364E+0	1.740226E+0	1.779988E+0	1.719254E+0	1.728157E+0	1.788882E+0	1.742986E+0	1.752270E+0	1.729241E+0	1.808954E+0	1.701228E+0	1.729718E+0	1.796906E+0	1.786838E+0	1.727043E+0	1.795389E+0	1.811495E+0	1.748620E+0	1.807706E+0	1.773336E+0	1.753815E+0	1.734577E+0	1.735705E+0	1.759962E+0	1.769910E+0	1.814429E+0	1.741825E+0	1.823871E+0	1.716091E+0	1.757627E+0	1.762179E+0	1.797365E+0	1.772914E+0	1.740014E+0	1.722601E+0	1.828202E+0	1.821236E+0	1.727620E+0	1.699178E+0	1.756153E+0	1.806048E+0	1.774340E+0	1.778011E+0	1.695661E+0	1.787231E+0	1.775800E+0	1.680728E+0	1.694992E+0	1.795526E+0	1.788336E+0	1.742567E+0	1.699011E+0	1.790999E+0	1.747449E+0	1.733951E+0	1.779751E+0	1.751809E+0	1.741322E+0	1.757328E+0	1.655565E+0	1.726554E+0	1.737786E+0	1.788901E+0	1.760624E+0	1.717577E+0	1.706484E+0	1.722966E+0	1.729915E+0	1.728071E+0	1.705450E+0	1.649196E+0	1.735389E+0	1.780543E+0	1.787511E+0	1.699583E+0	1.828912E+0
5.407680E+2	1.810031E+0	1.755486E+0	1.703531E+0	1.684508E+0	1.688852E+0	1.735751E+0	1.702506E+0	1.705484E+0	1.727555E+0	1.690165E+0	1.731977E+0	1.773410E+0	1.680936E+0	1.779241E+0	1.708511E+0	1.738360E+0	1.740585E+0	1.765499E+0	1.747204E+0	1.748858E+0	1.708925E+0	1.714118E+0	1.716722E+0	1.722012E+0	1.725027E+0	1.737913E+0	1.754653E+0	1.794349E+0	1.737393E+0	1.750701E+0	1.737401E+0	1.734378E+0	1.724149E+0	1.665393E+0	1.732964E+0	1.705305E+0	1.658685E+0	1.728572E+0	1.721917E+0	1.722033E+0	1.726538E+0	1.664954E+0	1.713268E+0	1.690629E+0	1.721298E+0	1.787233E+0	1.741700E+0	1.742320E+0	1.753582E+0	1.746193E+0	1.730347E+0	1.753706E+0	1.731330E+0	1.692339E+0	1.684775E+0	1.738501E+0	1.724873E+0	1.680770E+0	1.727479E+0	1.720740E+0	1.696183E+0	1.799617E+0	1.693634E+0	1.691487E+0	1.705937E+0	1.720932E+0	1.697633E+0	1.710396E+0	1.684526E+0	1.687175E+0	1.718296E+0	1.725443E+0	1.725136E+0	1.671015E+0	1.809639E+0	1.734321E+0	1.740218E+0	1.746430E+0	1.717139E+0	1.701264E+0	1.675226E+0	1.686502E+0	1.680052E+0	1.683079E+0	1.690277E+0	1.696843E+0	1.750058E+0	1.727503E+0	1.740157E+0	1.722881E+0	1.696937E+0	1.794317E+0	1.723313E+0	1.692812E+0	1.678126E+0	1.665457E+0	1.744712E+0	1.740065E+0	1.682700E+0	1.711651E+0	1.656057E+0	1.698805E+0	1.666022E+0	1.705402E+0	1.705441E+0	1.723991E+0	1.689609E+0	1.715792E+0	1.702386E+0	1.718573E+0	1.733177E+0	1.689543E+0	1.685042E+0	1.702543E+0	1.652819E+0	1.738426E+0	1.698314E+0	1.710059E+0	1.675890E+0	1.704920E+0	1.714331E+0	1.704168E+0	1.711563E+0	1.734710E+0	1.699648E+0	1.732003E+0	1.698596E+0	1.741263E+0	1.676082E+0	1.738055E+0	1.725069E+0	1.766327E+0	1.722644E+0	1.689488E+0	1.675578E+0	1.724973E+0	1.660976E+0	1.663297E+0	1.692161E+0	1.709003E+0	1.702452E+0	1.663109E+0	1.625585E+0	1.715709E+0	1.823073E+0	1.766205E+0	1.662971E+0	1.729588E+0	1.654023E+0	1.672972E+0	1.719380E+0	1.678448E+0	1.704010E+0	1.767610E+0	1.648106E+0	1.677924E+0	1.738477E+0	1.671015E+0	1.710446E+0	1.710006E+0	1.639315E+0	1.687626E+0	1.671204E+0	1.688111E+0	1.642476E+0	1.713047E+0	1.692064E+0	1.670335E+0	1.659286E+0	1.598241E+0	1.666170E+0
5.410130E+2	1.754837E+0	1.695021E+0	1.653629E+0	1.691131E+0	1.632758E+0	1.676743E+0	1.644438E+0	1.713144E+0	1.647734E+0	1.671576E+0	1.674072E+0	1.720059E+0	1.666794E+0	1.642725E+0	1.655653E+0	1.666341E+0	1.720497E+0	1.696697E+0	1.633586E+0	1.673462E+0	1.645604E+0	1.657679E+0	1.646883E+0	1.718162E+0	1.686763E+0	1.588090E+0	1.706080E+0	1.708034E+0	1.673516E+0	1.700624E+0	1.661769E+0	1.678078E+0	1.672910E+0	1.693600E+0	1.660266E+0	1.697609E+0	1.649172E+0	1.699814E+0	1.644223E+0	1.629179E+0	1.666354E+0	1.606995E+0	1.682081E+0	1.656513E+0	1.691848E+0	1.718031E+0	1.674084E+0	1.663856E+0	1.676749E+0	1.668423E+0	1.634726E+0	1.691503E+0	1.609973E+0	1.664223E+0	1.671674E+0	1.646917E+0	1.690244E+0	1.629892E+0	1.693884E+0	1.707821E+0	1.699379E+0	1.710346E+0	1.639246E+0	1.622019E+0	1.578541E+0	1.664211E+0	1.574956E+0	1.626517E+0	1.660985E+0	1.624598E+0	1.679309E+0	1.671594E+0	1.620053E+0	1.672632E+0	1.676414E+0	1.666195E+0	1.676345E+0	1.665909E+0	1.644212E+0	1.669803E+0	1.580771E+0	1.595348E+0	1.686079E+0	1.668872E+0	1.650999E+0	1.661293E+0	1.713987E+0	1.630196E+0	1.668946E+0	1.633036E+0	1.632338E+0	1.646977E+0	1.678106E+0	1.634065E+0	1.668773E+0	1.713841E+0	1.618917E+0	1.655482E+0	1.604276E+0	1.741643E+0	1.640230E+0	1.650140E+0	1.602592E+0	1.632926E+0	1.662941E+0	1.630030E+0	1.624625E+0	1.630400E+0	1.707519E+0	1.634143E+0	1.683566E+0	1.642968E+0	1.617289E+0	1.603553E+0	1.615817E+0	1.630190E+0	1.656142E+0	1.600313E+0	1.632748E+0	1.581410E+0	1.634262E+0	1.659901E+0	1.688885E+0	1.684790E+0	1.651018E+0	1.656163E+0	1.697986E+0	1.680160E+0	1.665991E+0	1.633139E+0	1.722179E+0	1.712741E+0	1.672057E+0	1.666816E+0	1.577125E+0	1.662961E+0	1.589863E+0	1.629020E+0	1.605871E+0	1.584624E+0	1.648883E+0	1.634643E+0	1.653186E+0	1.594392E+0	1.654223E+0	1.657802E+0	1.615581E+0	1.681356E+0	1.632986E+0	1.638704E+0	1.665419E+0	1.661687E+0	1.634407E+0	1.680457E+0	1.572301E+0	1.645153E+0	1.666466E+0	1.687940E+0	1.635816E+0	1.601155E+0	1.643762E+0	1.670436E+0	1.548494E+0	1.578782E+0	1.617631E+0	1.612177E+0	1.640590E+0	1.662023E+0	1.607800E+0	1.611496E+0	1.750067E+0
5.412690E+2	1.582612E+0	1.546327E+0	1.524051E+0	1.491268E+0	1.500176E+0	1.571253E+0	1.565092E+0	1.512032E+0	1.523585E+0	1.498105E+0	1.533974E+0	1.527231E+0	1.534852E+0	1.518890E+0	1.535225E+0	1.519193E+0	1.602556E+0	1.509714E+0	1.508227E+0	1.537576E+0	1.519469E+0	1.515794E+0	1.480371E+0	1.531128E+0	1.508623E+0	1.513591E+0	1.560902E+0	1.543310E+0	1.562037E+0	1.536825E+0	1.529944E+0	1.521472E+0	1.465217E+0	1.491936E+0	1.482019E+0	1.557036E+0	1.565540E+0	1.525492E+0	1.481375E+0	1.557364E+0	1.537946E+0	1.499016E+0	1.509017E+0	1.503957E+0	1.512012E+0	1.613659E+0	1.558335E+0	1.544021E+0	1.516241E+0	1.554355E+0	1.527634E+0	1.525338E+0	1.467710E+0	1.553696E+0	1.506394E+0	1.556318E+0	1.574097E+0	1.530518E+0	1.496119E+0	1.609631E+0	1.512285E+0	1.528829E+0	1.576328E+0	1.503080E+0	1.561357E+0	1.512447E+0	1.461160E+0	1.511086E+0	1.534675E+0	1.494971E+0	1.495435E+0	1.574006E+0	1.462767E+0	1.478220E+0	1.512488E+0	1.580098E+0	1.513734E+0	1.546946E+0	1.511546E+0	1.524360E+0	1.504710E+0	1.512993E+0	1.497838E+0	1.479648E+0	1.524149E+0	1.481559E+0	1.539488E+0	1.520259E+0	1.527927E+0	1.516263E+0	1.443385E+0	1.566651E+0	1.549469E+0	1.469436E+0	1.517161E+0	1.561323E+0	1.488062E+0	1.518675E+0	1.494714E+0	1.526456E+0	1.485375E+0	1.547336E+0	1.510369E+0	1.525972E+0	1.545568E+0	1.501401E+0	1.525745E+0	1.537754E+0	1.563221E+0	1.449397E+0	1.519009E+0	1.517875E+0	1.516384E+0	1.475927E+0	1.496723E+0	1.508719E+0	1.538418E+0	1.553512E+0	1.536346E+0	1.444386E+0	1.482539E+0	1.529884E+0	1.494258E+0	1.576855E+0	1.493747E+0	1.501018E+0	1.497155E+0	1.524573E+0	1.534119E+0	1.492140E+0	1.503851E+0	1.516676E+0	1.548500E+0	1.503830E+0	1.471327E+0	1.536733E+0	1.508628E+0	1.482118E+0	1.507869E+0	1.538320E+0	1.524327E+0	1.497341E+0	1.541376E+0	1.507190E+0	1.513871E+0	1.524548E+0	1.519945E+0	1.559296E+0	1.506023E+0	1.511518E+0	1.499928E+0	1.550778E+0	1.504539E+0	1.526779E+0	1.526079E+0	1.547134E+0	1.590227E+0	1.531807E+0	1.498556E+0	1.513104E+0	1.488139E+0	1.520204E+0	1.485274E+0	1.486537E+0	1.472873E+0	1.470511E+0	1.482767E+0	1.486590E+0	1.498824E+0	1.463623E+0	1.535228E+0
5.415140E+2	1.392579E+0	1.264222E+0	1.335126E+0	1.344009E+0	1.310890E+0	1.311494E+0	1.321472E+0	1.333645E+0	1.405035E+0	1.283890E+0	1.311804E+0	1.314270E+0	1.312898E+0	1.357727E+0	1.350348E+0	1.341062E+0	1.337775E+0	1.335029E+0	1.341696E+0	1.332227E+0	1.325490E+0	1.326658E+0	1.339015E+0	1.334196E+0	1.326021E+0	1.330985E+0	1.347388E+0	1.353282E+0	1.379819E+0	1.304897E+0	1.353099E+0	1.331235E+0	1.341004E+0	1.299240E+0	1.359384E+0	1.322878E+0	1.308032E+0	1.368454E+0	1.325567E+0	1.370394E+0	1.370429E+0	1.301836E+0	1.332973E+0	1.341211E+0	1.333496E+0	1.336547E+0	1.347524E+0	1.331535E+0	1.305667E+0	1.310719E+0	1.316138E+0	1.378591E+0	1.283530E+0	1.349443E+0	1.315982E+0	1.363989E+0	1.326202E+0	1.327979E+0	1.334464E+0	1.370812E+0	1.329650E+0	1.342033E+0	1.298387E+0	1.272077E+0	1.350494E+0	1.302226E+0	1.268249E+0	1.292506E+0	1.352675E+0	1.325428E+0	1.314719E+0	1.332913E+0	1.325963E+0	1.323401E+0	1.321457E+0	1.362566E+0	1.287739E+0	1.298992E+0	1.343201E+0	1.325428E+0	1.302612E+0	1.352752E+0	1.334902E+0	1.313339E+0	1.292474E+0	1.367099E+0	1.361979E+0	1.336611E+0	1.388481E+0	1.285546E+0	1.314701E+0	1.367818E+0	1.375660E+0	1.319576E+0	1.359053E+0	1.325275E+0	1.331188E+0	1.360510E+0	1.330420E+0	1.323447E+0	1.334424E+0	1.319587E+0	1.326554E+0	1.308375E+0	1.355971E+0	1.311961E+0	1.335391E+0	1.330105E+0	1.342436E+0	1.338309E+0	1.374212E+0	1.309414E+0	1.248484E+0	1.320441E+0	1.355257E+0	1.226713E+0	1.368394E+0	1.281597E+0	1.401394E+0	1.412594E+0	1.267515E+0	1.261889E+0	1.364871E+0	1.350397E+0	1.256714E+0	1.331404E+0	1.330326E+0	1.306547E+0	1.301655E+0	1.339014E+0	1.366896E+0	1.336837E+0	1.338119E+0	1.300389E+0	1.347745E+0	1.319900E+0	1.255096E+0	1.348090E+0	1.315434E+0	1.325745E+0	1.302689E+0	1.322879E+0	1.355638E+0	1.353785E+0	1.360089E+0	1.365012E+0	1.299720E+0	1.359385E+0	1.288136E+0	1.300550E+0	1.296662E+0	1.352110E+0	1.358796E+0	1.352569E+0	1.289565E+0	1.328167E+0	1.335778E+0	1.311191E+0	1.338109E+0	1.302704E+0	1.350867E+0	1.257573E+0	1.306748E+0	1.326527E+0	1.273161E+0	1.353202E+0	1.348016E+0	1.311004E+0	1.262954E+0	1.250327E+0	1.260580E+0
5.417700E+2	1.173189E+0	1.138606E+0	1.144869E+0	1.138695E+0	1.148918E+0	1.141272E+0	1.111669E+0	1.142243E+0	1.172162E+0	1.127928E+0	1.129795E+0	1.135243E+0	1.111723E+0	1.151383E+0	1.062391E+0	1.116116E+0	1.157987E+0	1.134507E+0	1.131654E+0	1.129067E+0	1.074425E+0	1.158495E+0	1.101769E+0	1.125558E+0	1.173394E+0	1.171367E+0	1.167133E+0	1.154370E+0	1.194928E+0	1.120348E+0	1.135021E+0	1.156340E+0	1.145193E+0	1.106655E+0	1.130036E+0	1.201862E+0	1.140603E+0	1.153054E+0	1.158914E+0	1.133613E+0	1.151144E+0	1.120635E+0	1.138778E+0	1.134800E+0	1.140488E+0	1.133587E+0	1.160356E+0	1.135534E+0	1.101367E+0	1.189440E+0	1.120104E+0	1.158364E+0	1.089726E+0	1.120757E+0	1.133023E+0	1.131446E+0	1.183259E+0	1.149592E+0	1.156006E+0	1.123778E+0	1.149803E+0	1.178146E+0	1.145711E+0	1.187940E+0	1.162604E+0	1.161387E+0	1.162102E+0	1.118472E+0	1.106801E+0	1.162384E+0	1.134852E+0	1.182962E+0	1.109518E+0	1.164983E+0	1.150779E+0	1.181146E+0	1.127121E+0	1.154854E+0	1.161897E+0	1.178470E+0	1.120458E+0	1.133069E+0	1.126865E+0	1.099148E+0	1.099694E+0	1.117549E+0	1.171623E+0	1.179291E+0	1.171405E+0	1.154764E+0	1.093736E+0	1.142017E+0	1.150812E+0	1.114832E+0	1.154529E+0	1.152439E+0	1.143394E+0	1.149799E+0	1.180412E+0	1.153169E+0	1.180012E+0	1.145321E+0	1.137003E+0	1.126277E+0	1.138451E+0	1.155419E+0	1.194393E+0	1.130062E+0	1.197547E+0	1.115253E+0	1.117225E+0	1.129833E+0	1.111128E+0	1.162285E+0	1.143295E+0	1.128459E+0	1.112467E+0	1.132000E+0	1.139566E+0	1.149078E+0	1.146473E+0	1.136938E+0	1.163869E+0	1.136352E+0	1.131980E+0	1.175535E+0	1.117455E+0	1.187641E+0	1.144723E+0	1.131498E+0	1.199611E+0	1.165877E+0	1.138312E+0	1.147646E+0	1.111107E+0	1.181290E+0	1.170136E+0	1.126029E+0	1.133873E+0	1.162774E+0	1.138199E+0	1.143231E+0	1.149433E+0	1.148691E+0	1.166555E+0	1.100409E+0	1.200244E+0	1.136730E+0	1.129981E+0	1.160636E+0	1.130401E+0	1.124229E+0	1.141165E+0	1.191962E+0	1.113648E+0	1.155884E+0	1.132175E+0	1.228579E+0	1.153778E+0	1.140678E+0	1.120203E+0	1.168697E+0	1.196980E+0	1.190727E+0	1.145253E+0	1.094634E+0	1.097117E+0	1.177345E+0	1.145664E+0	1.123786E+0	1.110602E+0
5.420270E+2	1.074576E+0	1.040233E+0	9.639358E-1	9.978079E-1	1.001126E+0	1.027528E+0	9.987645E-1	9.769635E-1	1.038319E+0	1.005868E+0	1.032324E+0	1.028836E+0	1.023275E+0	1.031708E+0	9.849165E-1	9.929679E-1	1.044621E+0	1.035222E+0	1.037241E+0	9.968101E-1	1.025575E+0	1.041566E+0	9.937331E-1	1.018135E+0	9.984387E-1	1.022372E+0	1.013306E+0	1.064393E+0	1.030061E+0	1.002648E+0	1.006631E+0	1.036929E+0	9.991376E-1	9.972142E-1	9.904877E-1	1.014546E+0	1.024858E+0	9.948642E-1	1.020745E+0	1.061054E+0	1.035961E+0	1.056967E+0	9.981846E-1	1.004353E+0	9.987082E-1	1.048620E+0	1.028703E+0	1.002158E+0	1.029311E+0	1.003898E+0	1.027571E+0	1.054723E+0	9.877665E-1	1.011247E+0	1.049164E+0	1.013753E+0	9.858717E-1	1.041183E+0	1.001473E+0	9.897229E-1	1.039425E+0	1.009154E+0	1.049462E+0	1.027254E+0	1.021392E+0	9.984775E-1	1.012048E+0	1.014259E+0	9.655263E-1	1.027255E+0	1.041702E+0	1.039261E+0	9.866799E-1	1.010660E+0	1.021795E+0	1.015417E+0	1.012350E+0	9.957406E-1	1.024083E+0	1.040814E+0	9.777300E-1	1.003953E+0	1.036796E+0	1.019070E+0	9.904215E-1	9.903851E-1	1.006521E+0	9.901596E-1	1.035101E+0	1.024294E+0	9.898959E-1	1.030788E+0	1.025808E+0	9.884616E-1	9.914448E-1	9.949071E-1	9.880244E-1	1.053339E+0	1.050999E+0	1.037888E+0	1.036400E+0	1.019779E+0	1.029080E+0	9.980834E-1	1.044529E+0	1.033873E+0	9.994053E-1	1.013109E+0	1.058064E+0	1.033928E+0	1.030555E+0	9.913030E-1	9.863297E-1	1.019835E+0	1.009293E+0	1.003029E+0	1.005517E+0	1.021929E+0	1.033224E+0	1.040143E+0	1.007614E+0	1.013606E+0	1.061083E+0	1.032371E+0	1.000469E+0	1.035752E+0	1.014135E+0	1.028744E+0	1.041140E+0	1.029753E+0	1.064763E+0	1.019708E+0	9.714539E-1	1.044091E+0	9.920960E-1	1.057471E+0	1.009795E+0	1.005335E+0	1.011142E+0	1.030012E+0	1.021553E+0	1.034994E+0	1.007249E+0	1.006405E+0	1.094246E+0	1.023020E+0	1.014410E+0	1.031466E+0	1.055464E+0	1.007506E+0	9.818540E-1	1.026384E+0	1.048694E+0	1.049019E+0	9.844581E-1	9.816458E-1	1.030101E+0	1.039477E+0	1.000397E+0	1.017121E+0	1.010530E+0	1.005744E+0	1.042626E+0	1.033856E+0	9.746604E-1	1.003940E+0	9.919553E-1	1.006569E+0	1.073140E+0	1.082408E+0	1.114000E+0
5.422780E+2	9.240357E-1	9.716739E-1	9.007591E-1	9.165380E-1	9.706946E-1	9.515349E-1	9.251986E-1	9.577784E-1	8.931199E-1	8.784282E-1	9.437476E-1	9.460054E-1	9.489037E-1	9.833126E-1	9.431547E-1	9.475601E-1	9.529778E-1	9.528888E-1	9.094530E-1	9.561669E-1	9.264051E-1	9.787553E-1	9.550252E-1	9.550326E-1	9.270124E-1	9.872895E-1	9.537538E-1	9.695802E-1	9.395813E-1	9.909986E-1	9.631544E-1	9.670201E-1	9.181025E-1	9.475436E-1	9.270968E-1	9.670375E-1	9.870033E-1	9.324331E-1	9.767607E-1	9.562621E-1	9.468404E-1	9.203628E-1	9.379058E-1	9.290376E-1	9.432692E-1	9.586564E-1	9.566088E-1	9.650071E-1	9.065368E-1	9.697470E-1	9.919958E-1	9.295345E-1	9.431485E-1	9.314879E-1	9.121146E-1	9.474798E-1	9.614040E-1	9.320903E-1	9.554323E-1	9.483708E-1	9.451195E-1	9.645355E-1	9.779562E-1	9.581230E-1	8.926226E-1	9.561101E-1	9.382608E-1	9.406332E-1	9.531033E-1	9.386042E-1	9.855727E-1	9.568971E-1	9.621989E-1	9.557908E-1	9.185419E-1	9.435992E-1	9.765575E-1	9.554402E-1	9.290361E-1	9.497315E-1	9.605173E-1	9.225043E-1	9.544042E-1	9.353990E-1	9.227783E-1	9.212985E-1	9.572126E-1	9.648739E-1	9.715844E-1	9.873143E-1	9.457445E-1	9.545055E-1	9.652617E-1	9.820723E-1	9.444354E-1	9.450089E-1	8.915777E-1	9.555701E-1	9.334291E-1	9.762710E-1	9.614556E-1	9.472564E-1	9.590581E-1	9.659494E-1	1.019206E+0	9.669462E-1	9.607223E-1	9.658588E-1	9.886877E-1	9.413489E-1	9.568964E-1	9.497573E-1	9.217759E-1	9.649183E-1	9.564489E-1	9.891134E-1	9.323917E-1	9.534305E-1	9.440564E-1	9.292568E-1	9.381219E-1	9.533365E-1	9.922021E-1	9.021381E-1	9.868712E-1	9.940222E-1	9.656749E-1	9.632078E-1	9.880916E-1	9.587770E-1	9.600999E-1	9.543657E-1	9.396220E-1	9.362202E-1	9.412784E-1	9.900308E-1	9.480843E-1	9.589216E-1	9.545797E-1	9.600786E-1	1.001191E+0	9.630541E-1	9.902835E-1	9.551945E-1	9.309635E-1	9.740951E-1	9.348969E-1	9.591201E-1	9.262712E-1	9.992738E-1	9.351314E-1	1.038659E+0	9.548952E-1	9.732416E-1	9.649230E-1	9.703949E-1	9.789528E-1	9.818326E-1	9.722962E-1	9.529797E-1	9.552262E-1	1.027602E+0	9.765432E-1	9.618106E-1	9.841337E-1	9.429618E-1	9.324343E-1	9.544473E-1	1.010204E+0	9.849785E-1	9.927596E-1
5.425300E+2	9.897530E-1	9.318026E-1	9.442342E-1	1.000777E+0	9.360539E-1	9.254744E-1	9.594071E-1	9.489677E-1	9.791410E-1	1.002822E+0	9.344589E-1	1.001939E+0	9.499545E-1	9.410644E-1	9.567073E-1	9.452985E-1	9.531820E-1	9.524941E-1	9.349244E-1	9.427373E-1	9.353435E-1	9.634862E-1	9.238667E-1	9.821611E-1	9.142394E-1	9.477175E-1	9.814385E-1	9.748125E-1	9.669237E-1	9.809232E-1	9.389944E-1	9.763912E-1	9.555474E-1	9.150586E-1	9.498996E-1	9.785384E-1	9.614794E-1	9.526871E-1	9.758289E-1	1.006526E+0	9.614997E-1	9.776120E-1	9.682354E-1	9.384366E-1	9.260994E-1	9.666522E-1	9.984018E-1	9.685019E-1	9.600519E-1	9.618230E-1	9.550712E-1	9.637195E-1	9.682686E-1	9.663445E-1	9.419949E-1	9.634675E-1	9.413602E-1	9.300930E-1	9.812918E-1	9.445713E-1	9.487965E-1	1.024584E+0	9.737959E-1	9.722342E-1	9.348604E-1	9.317890E-1	9.261742E-1	9.358474E-1	9.670655E-1	9.713167E-1	9.836162E-1	9.818988E-1	9.569531E-1	9.902202E-1	9.695484E-1	9.962131E-1	9.440223E-1	9.638889E-1	9.651589E-1	9.544988E-1	9.336122E-1	9.704605E-1	9.480893E-1	9.429677E-1	9.555638E-1	9.474945E-1	9.936831E-1	9.510733E-1	9.909333E-1	9.856877E-1	9.712584E-1	9.563603E-1	9.795269E-1	9.138591E-1	9.982742E-1	9.713501E-1	9.569486E-1	9.745012E-1	9.550708E-1	9.838600E-1	9.316236E-1	9.506776E-1	9.779852E-1	9.822426E-1	9.650459E-1	9.933283E-1	9.483025E-1	9.576574E-1	9.436342E-1	9.682751E-1	9.846639E-1	9.612200E-1	9.189346E-1	9.927916E-1	9.915670E-1	9.260365E-1	9.431382E-1	9.586646E-1	9.404582E-1	9.494139E-1	9.473219E-1	9.379687E-1	9.874432E-1	9.619605E-1	9.635580E-1	9.675141E-1	9.641237E-1	9.763640E-1	9.532744E-1	9.685028E-1	9.780872E-1	9.449852E-1	9.921788E-1	9.793750E-1	1.001681E+0	9.731020E-1	9.762953E-1	9.958332E-1	9.585652E-1	9.339912E-1	9.567934E-1	9.733350E-1	9.567232E-1	9.560335E-1	9.819163E-1	9.724773E-1	9.535226E-1	9.147953E-1	9.193292E-1	9.408907E-1	9.837323E-1	9.343365E-1	9.821186E-1	9.717166E-1	9.205708E-1	9.524179E-1	9.790808E-1	9.671872E-1	9.852745E-1	9.533186E-1	9.768260E-1	9.577712E-1	9.995042E-1	9.579237E-1	9.558520E-1	9.482925E-1	9.514654E-1	9.306918E-1	1.028640E+0	9.849434E-1	9.314073E-1
5.427650E+2	1.093664E+0	1.047617E+0	9.776716E-1	9.834114E-1	1.052389E+0	1.017614E+0	1.073364E+0	1.045400E+0	1.058007E+0	9.581755E-1	1.056279E+0	1.049878E+0	1.017964E+0	1.042094E+0	1.046207E+0	1.028100E+0	1.039536E+0	1.068420E+0	1.012075E+0	1.048116E+0	1.054617E+0	1.045333E+0	1.034099E+0	1.048326E+0	1.051039E+0	1.085133E+0	1.054651E+0	1.050573E+0	1.046632E+0	1.021368E+0	1.020886E+0	1.054606E+0	1.075431E+0	1.093884E+0	1.043491E+0	1.053422E+0	1.063001E+0	1.028492E+0	1.051406E+0	1.006186E+0	1.058709E+0	1.044815E+0	1.016723E+0	9.873691E-1	1.010772E+0	1.051400E+0	1.047366E+0	1.049282E+0	1.028852E+0	1.056629E+0	1.042195E+0	1.088740E+0	1.019695E+0	1.016298E+0	1.033586E+0	1.054836E+0	1.026370E+0	1.040425E+0	1.045499E+0	1.009044E+0	1.038603E+0	1.084662E+0	1.033091E+0	1.045626E+0	1.038792E+0	1.036238E+0	1.047738E+0	1.012787E+0	1.055341E+0	1.014237E+0	1.018899E+0	1.026058E+0	1.041328E+0	1.047381E+0	1.037323E+0	1.025704E+0	1.050662E+0	1.000402E+0	1.040314E+0	1.044265E+0	1.031844E+0	1.040520E+0	1.043585E+0	1.033434E+0	1.058819E+0	9.978011E-1	1.081525E+0	1.009252E+0	9.728880E-1	1.089176E+0	1.022856E+0	1.034439E+0	1.024273E+0	1.060196E+0	1.014010E+0	1.044815E+0	1.094919E+0	1.053596E+0	1.002336E+0	1.059647E+0	1.019558E+0	1.014575E+0	1.025231E+0	1.049292E+0	1.008746E+0	1.015897E+0	1.018233E+0	1.094791E+0	1.064045E+0	1.054301E+0	1.026867E+0	1.020899E+0	9.817959E-1	1.011251E+0	1.014662E+0	9.862669E-1	1.060967E+0	9.945343E-1	1.030172E+0	9.850034E-1	1.087077E+0	1.034395E+0	1.021957E+0	1.032047E+0	1.034738E+0	1.053544E+0	1.054854E+0	1.064512E+0	1.074298E+0	1.063316E+0	1.086747E+0	1.054212E+0	1.012456E+0	1.021441E+0	1.030893E+0	1.034471E+0	1.038418E+0	1.042171E+0	1.054624E+0	1.035489E+0	1.027923E+0	1.036284E+0	1.084222E+0	1.085023E+0	1.061999E+0	1.006783E+0	1.040915E+0	1.098370E+0	1.030587E+0	1.037605E+0	1.043283E+0	1.054171E+0	1.061753E+0	1.049402E+0	1.010498E+0	1.072614E+0	1.086232E+0	1.087596E+0	1.054506E+0	1.071371E+0	1.083749E+0	1.023592E+0	1.042485E+0	1.050780E+0	1.038686E+0	1.012784E+0	1.027101E+0	1.032954E+0	1.011075E+0	1.071967E+0	1.048536E+0
5.430070E+2	1.243631E+0	1.211648E+0	1.183875E+0	1.187222E+0	1.204094E+0	1.189737E+0	1.206178E+0	1.225176E+0	1.199784E+0	1.210762E+0	1.186805E+0	1.192530E+0	1.156563E+0	1.187013E+0	1.110346E+0	1.160968E+0	1.265864E+0	1.181644E+0	1.201612E+0	1.179997E+0	1.199257E+0	1.130364E+0	1.195793E+0	1.172187E+0	1.166797E+0	1.189560E+0	1.216464E+0	1.222615E+0	1.214751E+0	1.176636E+0	1.183309E+0	1.189051E+0	1.152273E+0	1.150572E+0	1.174322E+0	1.245908E+0	1.149241E+0	1.167333E+0	1.170017E+0	1.179144E+0	1.179271E+0	1.130578E+0	1.185687E+0	1.182457E+0	1.167523E+0	1.182002E+0	1.192415E+0	1.193598E+0	1.174614E+0	1.227232E+0	1.159073E+0	1.179533E+0	1.161065E+0	1.184405E+0	1.185403E+0	1.167793E+0	1.181107E+0	1.230184E+0	1.176149E+0	1.212929E+0	1.211167E+0	1.233795E+0	1.179060E+0	1.154743E+0	1.182928E+0	1.217776E+0	1.188453E+0	1.185870E+0	1.201477E+0	1.201959E+0	1.165899E+0	1.165971E+0	1.201310E+0	1.221991E+0	1.179640E+0	1.141965E+0	1.209274E+0	1.171182E+0	1.209887E+0	1.142355E+0	1.166664E+0	1.197754E+0	1.197911E+0	1.192492E+0	1.187932E+0	1.189955E+0	1.223530E+0	1.173974E+0	1.235249E+0	1.256835E+0	1.182833E+0	1.158891E+0	1.229899E+0	1.197037E+0	1.210623E+0	1.191089E+0	1.179850E+0	1.230420E+0	1.231188E+0	1.211704E+0	1.131489E+0	1.152983E+0	1.179182E+0	1.170481E+0	1.202218E+0	1.136060E+0	1.163092E+0	1.156972E+0	1.207759E+0	1.219512E+0	1.246532E+0	1.221711E+0	1.153116E+0	1.197524E+0	1.156470E+0	1.142200E+0	1.194658E+0	1.178148E+0	1.167116E+0	1.184445E+0	1.144402E+0	1.208625E+0	1.248118E+0	1.222848E+0	1.171221E+0	1.183312E+0	1.163161E+0	1.209651E+0	1.171868E+0	1.189721E+0	1.207843E+0	1.158431E+0	1.152620E+0	1.158078E+0	1.186252E+0	1.152772E+0	1.168729E+0	1.170914E+0	1.117912E+0	1.220906E+0	1.195080E+0	1.197961E+0	1.159222E+0	1.221541E+0	1.164562E+0	1.165120E+0	1.224240E+0	1.137698E+0	1.207829E+0	1.150450E+0	1.152458E+0	1.184105E+0	1.193595E+0	1.123696E+0	1.134246E+0	1.183424E+0	1.166292E+0	1.241096E+0	1.177803E+0	1.239008E+0	1.250021E+0	1.133762E+0	1.226352E+0	1.159518E+0	1.142498E+0	1.174808E+0	1.180142E+0	1.166618E+0	1.153652E+0	1.212845E+0	1.191734E+0
5.432800E+2	1.419043E+0	1.314299E+0	1.284355E+0	1.355565E+0	1.356262E+0	1.296216E+0	1.316945E+0	1.328598E+0	1.343576E+0	1.328257E+0	1.296261E+0	1.341529E+0	1.305507E+0	1.352132E+0	1.309946E+0	1.371133E+0	1.313717E+0	1.323032E+0	1.293682E+0	1.355997E+0	1.338260E+0	1.331775E+0	1.317449E+0	1.303737E+0	1.307720E+0	1.310498E+0	1.333745E+0	1.333404E+0	1.343642E+0	1.311155E+0	1.348263E+0	1.359526E+0	1.347016E+0	1.292025E+0	1.343496E+0	1.299547E+0	1.327613E+0	1.323921E+0	1.352130E+0	1.329986E+0	1.276086E+0	1.311393E+0	1.309716E+0	1.302210E+0	1.348741E+0	1.358781E+0	1.347670E+0	1.374466E+0	1.311807E+0	1.359437E+0	1.335172E+0	1.378873E+0	1.356834E+0	1.312924E+0	1.369950E+0	1.329117E+0	1.346781E+0	1.354531E+0	1.337678E+0	1.314570E+0	1.329924E+0	1.348494E+0	1.351766E+0	1.314062E+0	1.305574E+0	1.302702E+0	1.324467E+0	1.307408E+0	1.324356E+0	1.294906E+0	1.349643E+0	1.343559E+0	1.305206E+0	1.392605E+0	1.341832E+0	1.318014E+0	1.409959E+0	1.336035E+0	1.317332E+0	1.361981E+0	1.299936E+0	1.360000E+0	1.275598E+0	1.341504E+0	1.342894E+0	1.313873E+0	1.289487E+0	1.349498E+0	1.368235E+0	1.305623E+0	1.363375E+0	1.371247E+0	1.390082E+0	1.345753E+0	1.342246E+0	1.341788E+0	1.306767E+0	1.360448E+0	1.298269E+0	1.331021E+0	1.362443E+0	1.324464E+0	1.298869E+0	1.304684E+0	1.366489E+0	1.368194E+0	1.269047E+0	1.321746E+0	1.360312E+0	1.320698E+0	1.329701E+0	1.367459E+0	1.353301E+0	1.336215E+0	1.284907E+0	1.333275E+0	1.310792E+0	1.333908E+0	1.329533E+0	1.325822E+0	1.322977E+0	1.363729E+0	1.339751E+0	1.317873E+0	1.352602E+0	1.310995E+0	1.296163E+0	1.343535E+0	1.251963E+0	1.335855E+0	1.362557E+0	1.300091E+0	1.264211E+0	1.294781E+0	1.328312E+0	1.331753E+0	1.304909E+0	1.319638E+0	1.292714E+0	1.276255E+0	1.364578E+0	1.293590E+0	1.289294E+0	1.300492E+0	1.369450E+0	1.317390E+0	1.344062E+0	1.312751E+0	1.321133E+0	1.302642E+0	1.399411E+0	1.287194E+0	1.274795E+0	1.287540E+0	1.277073E+0	1.304776E+0	1.378826E+0	1.308732E+0	1.334700E+0	1.350022E+0	1.367252E+0	1.258425E+0	1.329063E+0	1.324769E+0	1.281586E+0	1.317473E+0	1.319072E+0	1.279404E+0	1.365860E+0	1.305093E+0	1.402042E+0
5.435540E+2	1.529791E+0	1.467328E+0	1.433442E+0	1.540345E+0	1.480891E+0	1.518917E+0	1.504009E+0	1.476069E+0	1.508814E+0	1.445557E+0	1.507987E+0	1.520373E+0	1.500203E+0	1.532173E+0	1.502776E+0	1.522423E+0	1.482508E+0	1.476333E+0	1.492639E+0	1.495519E+0	1.471503E+0	1.562682E+0	1.497490E+0	1.485367E+0	1.495193E+0	1.475230E+0	1.533781E+0	1.496441E+0	1.511231E+0	1.473381E+0	1.484793E+0	1.487966E+0	1.498865E+0	1.464193E+0	1.504616E+0	1.471314E+0	1.497348E+0	1.532183E+0	1.451719E+0	1.493828E+0	1.490855E+0	1.530578E+0	1.506376E+0	1.443632E+0	1.531741E+0	1.494905E+0	1.477514E+0	1.533139E+0	1.511609E+0	1.517193E+0	1.489013E+0	1.530462E+0	1.505051E+0	1.495756E+0	1.520863E+0	1.472483E+0	1.494904E+0	1.513231E+0	1.549142E+0	1.452096E+0	1.496484E+0	1.488754E+0	1.532712E+0	1.502363E+0	1.488968E+0	1.501334E+0	1.493907E+0	1.468408E+0	1.533607E+0	1.451982E+0	1.475664E+0	1.439738E+0	1.477511E+0	1.511415E+0	1.470401E+0	1.496600E+0	1.484656E+0	1.522554E+0	1.496377E+0	1.492512E+0	1.493979E+0	1.489999E+0	1.510578E+0	1.488013E+0	1.460820E+0	1.445978E+0	1.499274E+0	1.492520E+0	1.529184E+0	1.510344E+0	1.493128E+0	1.496718E+0	1.514191E+0	1.482658E+0	1.490866E+0	1.455006E+0	1.443984E+0	1.530739E+0	1.461482E+0	1.501313E+0	1.490339E+0	1.462696E+0	1.435625E+0	1.476524E+0	1.603756E+0	1.427425E+0	1.519919E+0	1.456487E+0	1.500074E+0	1.495084E+0	1.555519E+0	1.483267E+0	1.443593E+0	1.462273E+0	1.461740E+0	1.482243E+0	1.530600E+0	1.459354E+0	1.497450E+0	1.439392E+0	1.474409E+0	1.490270E+0	1.531687E+0	1.445158E+0	1.487115E+0	1.456497E+0	1.486825E+0	1.470211E+0	1.487292E+0	1.457082E+0	1.571134E+0	1.497517E+0	1.466625E+0	1.494720E+0	1.450593E+0	1.459462E+0	1.498623E+0	1.477821E+0	1.482901E+0	1.454087E+0	1.477660E+0	1.485818E+0	1.493307E+0	1.455832E+0	1.501305E+0	1.491889E+0	1.504206E+0	1.479010E+0	1.471235E+0	1.465229E+0	1.468987E+0	1.466322E+0	1.490574E+0	1.522299E+0	1.508774E+0	1.463312E+0	1.562457E+0	1.483283E+0	1.465960E+0	1.492327E+0	1.507588E+0	1.440305E+0	1.481327E+0	1.452843E+0	1.489918E+0	1.505570E+0	1.427714E+0	1.488354E+0	1.583876E+0	1.453085E+0	1.590139E+0
5.437590E+2	1.636744E+0	1.552375E+0	1.551983E+0	1.622781E+0	1.546176E+0	1.584797E+0	1.532310E+0	1.586694E+0	1.543991E+0	1.562716E+0	1.526054E+0	1.663403E+0	1.552078E+0	1.563564E+0	1.598189E+0	1.590844E+0	1.540931E+0	1.650737E+0	1.604685E+0	1.563714E+0	1.554183E+0	1.621161E+0	1.609443E+0	1.546225E+0	1.608753E+0	1.549625E+0	1.610256E+0	1.613771E+0	1.549073E+0	1.556464E+0	1.543669E+0	1.542377E+0	1.547019E+0	1.561081E+0	1.590317E+0	1.615593E+0	1.551402E+0	1.573902E+0	1.571322E+0	1.572366E+0	1.578184E+0	1.580309E+0	1.554782E+0	1.557781E+0	1.562522E+0	1.603066E+0	1.579989E+0	1.613619E+0	1.569812E+0	1.596350E+0	1.591463E+0	1.640329E+0	1.561622E+0	1.530792E+0	1.528849E+0	1.595055E+0	1.609266E+0	1.564548E+0	1.565564E+0	1.524134E+0	1.616273E+0	1.666322E+0	1.576594E+0	1.558436E+0	1.521358E+0	1.569884E+0	1.481351E+0	1.574738E+0	1.558430E+0	1.557976E+0	1.635140E+0	1.527588E+0	1.573823E+0	1.580723E+0	1.613831E+0	1.577227E+0	1.518034E+0	1.556668E+0	1.559254E+0	1.555484E+0	1.552435E+0	1.582619E+0	1.549526E+0	1.597328E+0	1.579384E+0	1.533011E+0	1.631944E+0	1.541725E+0	1.613424E+0	1.572514E+0	1.516411E+0	1.523062E+0	1.547856E+0	1.531341E+0	1.512394E+0	1.634554E+0	1.583119E+0	1.607239E+0	1.539795E+0	1.586866E+0	1.574243E+0	1.569503E+0	1.559244E+0	1.472636E+0	1.630315E+0	1.549179E+0	1.570972E+0	1.596706E+0	1.583645E+0	1.571287E+0	1.576008E+0	1.557516E+0	1.581016E+0	1.499042E+0	1.583899E+0	1.517461E+0	1.523803E+0	1.591618E+0	1.533071E+0	1.516596E+0	1.585141E+0	1.538387E+0	1.667482E+0	1.565506E+0	1.508451E+0	1.549006E+0	1.604221E+0	1.558802E+0	1.601763E+0	1.579006E+0	1.622417E+0	1.608473E+0	1.610524E+0	1.521025E+0	1.511218E+0	1.533524E+0	1.522598E+0	1.560994E+0	1.477380E+0	1.509130E+0	1.564473E+0	1.569018E+0	1.514831E+0	1.547518E+0	1.526944E+0	1.563217E+0	1.603828E+0	1.538627E+0	1.545124E+0	1.514846E+0	1.552807E+0	1.530811E+0	1.522803E+0	1.582588E+0	1.428892E+0	1.505433E+0	1.580912E+0	1.543708E+0	1.535671E+0	1.563165E+0	1.544637E+0	1.599610E+0	1.505496E+0	1.489019E+0	1.521824E+0	1.546790E+0	1.554455E+0	1.560887E+0	1.563656E+0	1.537137E+0	1.583850E+0
5.440170E+2	1.646544E+0	1.646093E+0	1.558972E+0	1.622724E+0	1.622474E+0	1.583813E+0	1.645112E+0	1.620312E+0	1.583734E+0	1.614711E+0	1.609188E+0	1.637207E+0	1.608307E+0	1.598309E+0	1.636522E+0	1.565371E+0	1.572544E+0	1.565687E+0	1.630614E+0	1.636062E+0	1.641111E+0	1.588936E+0	1.581600E+0	1.636813E+0	1.568660E+0	1.605656E+0	1.607623E+0	1.613058E+0	1.579095E+0	1.624621E+0	1.627651E+0	1.641797E+0	1.569661E+0	1.602859E+0	1.639211E+0	1.635917E+0	1.615677E+0	1.577350E+0	1.659256E+0	1.648424E+0	1.628930E+0	1.578810E+0	1.602644E+0	1.590417E+0	1.577535E+0	1.664060E+0	1.622430E+0	1.593118E+0	1.626758E+0	1.653297E+0	1.639029E+0	1.626750E+0	1.547569E+0	1.631872E+0	1.615445E+0	1.682276E+0	1.575570E+0	1.626097E+0	1.602560E+0	1.618250E+0	1.574436E+0	1.552339E+0	1.640178E+0	1.591413E+0	1.552831E+0	1.640326E+0	1.606139E+0	1.644033E+0	1.659728E+0	1.606925E+0	1.584673E+0	1.668592E+0	1.612725E+0	1.646911E+0	1.642540E+0	1.586289E+0	1.598387E+0	1.679582E+0	1.588496E+0	1.660985E+0	1.579455E+0	1.592201E+0	1.524075E+0	1.619043E+0	1.608103E+0	1.594629E+0	1.639526E+0	1.586832E+0	1.656222E+0	1.620045E+0	1.592192E+0	1.633342E+0	1.612636E+0	1.603195E+0	1.595997E+0	1.603409E+0	1.608715E+0	1.618804E+0	1.559688E+0	1.600379E+0	1.597040E+0	1.613400E+0	1.613335E+0	1.500793E+0	1.582365E+0	1.562076E+0	1.664109E+0	1.564057E+0	1.578204E+0	1.578626E+0	1.604588E+0	1.598774E+0	1.621351E+0	1.604719E+0	1.586192E+0	1.610475E+0	1.647514E+0	1.587941E+0	1.570378E+0	1.573906E+0	1.644052E+0	1.628320E+0	1.607035E+0	1.545860E+0	1.628646E+0	1.586308E+0	1.565208E+0	1.589387E+0	1.604522E+0	1.561518E+0	1.597618E+0	1.616723E+0	1.595951E+0	1.612272E+0	1.580893E+0	1.561163E+0	1.585934E+0	1.633905E+0	1.541141E+0	1.595202E+0	1.656860E+0	1.562875E+0	1.610424E+0	1.605935E+0	1.627343E+0	1.547872E+0	1.623461E+0	1.614685E+0	1.558803E+0	1.604550E+0	1.581090E+0	1.586182E+0	1.581187E+0	1.554768E+0	1.598476E+0	1.528454E+0	1.611800E+0	1.645393E+0	1.588850E+0	1.560557E+0	1.533881E+0	1.566987E+0	1.621414E+0	1.591287E+0	1.637713E+0	1.600626E+0	1.567427E+0	1.544691E+0	1.639120E+0	1.541349E+0	1.677197E+0
5.442700E+2	1.682144E+0	1.558779E+0	1.564114E+0	1.547215E+0	1.583854E+0	1.539632E+0	1.562737E+0	1.613232E+0	1.627816E+0	1.595316E+0	1.584416E+0	1.624105E+0	1.578316E+0	1.532724E+0	1.554914E+0	1.615574E+0	1.626203E+0	1.614704E+0	1.655723E+0	1.566088E+0	1.606185E+0	1.587097E+0	1.583062E+0	1.585987E+0	1.550372E+0	1.599270E+0	1.626338E+0	1.589925E+0	1.574515E+0	1.574774E+0	1.593520E+0	1.621899E+0	1.566725E+0	1.586525E+0	1.607159E+0	1.587759E+0	1.540426E+0	1.582917E+0	1.598713E+0	1.573798E+0	1.592176E+0	1.570132E+0	1.630946E+0	1.546946E+0	1.551080E+0	1.650132E+0	1.570832E+0	1.617042E+0	1.546965E+0	1.650467E+0	1.612178E+0	1.581993E+0	1.618332E+0	1.568708E+0	1.568241E+0	1.558933E+0	1.539843E+0	1.565436E+0	1.610562E+0	1.581440E+0	1.565913E+0	1.630316E+0	1.576421E+0	1.565371E+0	1.505182E+0	1.585850E+0	1.546080E+0	1.551471E+0	1.545718E+0	1.557390E+0	1.561069E+0	1.535899E+0	1.574554E+0	1.581025E+0	1.586438E+0	1.552063E+0	1.527643E+0	1.599875E+0	1.564977E+0	1.586523E+0	1.560101E+0	1.577828E+0	1.542074E+0	1.540226E+0	1.523780E+0	1.544158E+0	1.578209E+0	1.554695E+0	1.608401E+0	1.614687E+0	1.577353E+0	1.564897E+0	1.579592E+0	1.625417E+0	1.525955E+0	1.581831E+0	1.561876E+0	1.533656E+0	1.501898E+0	1.632757E+0	1.559764E+0	1.562787E+0	1.574401E+0	1.496627E+0	1.598115E+0	1.558283E+0	1.596522E+0	1.536014E+0	1.520239E+0	1.574003E+0	1.599077E+0	1.568020E+0	1.514376E+0	1.557279E+0	1.516911E+0	1.569485E+0	1.576129E+0	1.527142E+0	1.535411E+0	1.556181E+0	1.531597E+0	1.548647E+0	1.599093E+0	1.555714E+0	1.579807E+0	1.582917E+0	1.573960E+0	1.630442E+0	1.602061E+0	1.531284E+0	1.556711E+0	1.630782E+0	1.575116E+0	1.595852E+0	1.504950E+0	1.619651E+0	1.501436E+0	1.573924E+0	1.545338E+0	1.565026E+0	1.604460E+0	1.577291E+0	1.506600E+0	1.623470E+0	1.570266E+0	1.606317E+0	1.583850E+0	1.567113E+0	1.518307E+0	1.566961E+0	1.527100E+0	1.554123E+0	1.547998E+0	1.612306E+0	1.538885E+0	1.563752E+0	1.539709E+0	1.524694E+0	1.558128E+0	1.566908E+0	1.527365E+0	1.554163E+0	1.566971E+0	1.538171E+0	1.573819E+0	1.558680E+0	1.564690E+0	1.532602E+0	1.656965E+0	1.549853E+0	1.539564E+0
5.445290E+2	1.568353E+0	1.500379E+0	1.481449E+0	1.567118E+0	1.467641E+0	1.529045E+0	1.523622E+0	1.555330E+0	1.521110E+0	1.533882E+0	1.493290E+0	1.485819E+0	1.462576E+0	1.552925E+0	1.518208E+0	1.529347E+0	1.534055E+0	1.541111E+0	1.518971E+0	1.537934E+0	1.472253E+0	1.494157E+0	1.505823E+0	1.543146E+0	1.486263E+0	1.535263E+0	1.488007E+0	1.552300E+0	1.506693E+0	1.515133E+0	1.471716E+0	1.528952E+0	1.473705E+0	1.478105E+0	1.516138E+0	1.544685E+0	1.497603E+0	1.596424E+0	1.535797E+0	1.553949E+0	1.493288E+0	1.453538E+0	1.541279E+0	1.480210E+0	1.553629E+0	1.513813E+0	1.566048E+0	1.544877E+0	1.470309E+0	1.547263E+0	1.521734E+0	1.526960E+0	1.482957E+0	1.446796E+0	1.526311E+0	1.492257E+0	1.500500E+0	1.502651E+0	1.490825E+0	1.506995E+0	1.499251E+0	1.493968E+0	1.522386E+0	1.491234E+0	1.470208E+0	1.585028E+0	1.500668E+0	1.473083E+0	1.474056E+0	1.513950E+0	1.536394E+0	1.484947E+0	1.520011E+0	1.589042E+0	1.534804E+0	1.484194E+0	1.462394E+0	1.526137E+0	1.525302E+0	1.525276E+0	1.493870E+0	1.494574E+0	1.551786E+0	1.499503E+0	1.516318E+0	1.488820E+0	1.508584E+0	1.515750E+0	1.474501E+0	1.513930E+0	1.466939E+0	1.532962E+0	1.453020E+0	1.522887E+0	1.546040E+0	1.550872E+0	1.483171E+0	1.525171E+0	1.484676E+0	1.547665E+0	1.515677E+0	1.485673E+0	1.491352E+0	1.449449E+0	1.518333E+0	1.450067E+0	1.476619E+0	1.498211E+0	1.481251E+0	1.511698E+0	1.549761E+0	1.495903E+0	1.507777E+0	1.525052E+0	1.485049E+0	1.468548E+0	1.524679E+0	1.475985E+0	1.489367E+0	1.506824E+0	1.502536E+0	1.538390E+0	1.533358E+0	1.458563E+0	1.471543E+0	1.521212E+0	1.475589E+0	1.565306E+0	1.524526E+0	1.550700E+0	1.562540E+0	1.559648E+0	1.447613E+0	1.523830E+0	1.508526E+0	1.497611E+0	1.500252E+0	1.526565E+0	1.507929E+0	1.504394E+0	1.535706E+0	1.446269E+0	1.483631E+0	1.472618E+0	1.497428E+0	1.493646E+0	1.479838E+0	1.498906E+0	1.497658E+0	1.537453E+0	1.540156E+0	1.509439E+0	1.483369E+0	1.523739E+0	1.517049E+0	1.503922E+0	1.540081E+0	1.510044E+0	1.520967E+0	1.460184E+0	1.485596E+0	1.471761E+0	1.484207E+0	1.460076E+0	1.515287E+0	1.506315E+0	1.483449E+0	1.510327E+0	1.497667E+0	1.511182E+0	1.566523E+0
5.447720E+2	1.472688E+0	1.429266E+0	1.435109E+0	1.477920E+0	1.436465E+0	1.462696E+0	1.409390E+0	1.444098E+0	1.380740E+0	1.463357E+0	1.431724E+0	1.473323E+0	1.461842E+0	1.459549E+0	1.462009E+0	1.458055E+0	1.436129E+0	1.445284E+0	1.493405E+0	1.424699E+0	1.439179E+0	1.453957E+0	1.419650E+0	1.451802E+0	1.387170E+0	1.437967E+0	1.479138E+0	1.466231E+0	1.442740E+0	1.411064E+0	1.412185E+0	1.428102E+0	1.414349E+0	1.432680E+0	1.474593E+0	1.417821E+0	1.406823E+0	1.438040E+0	1.412337E+0	1.488554E+0	1.387531E+0	1.387634E+0	1.413392E+0	1.368998E+0	1.444220E+0	1.458938E+0	1.423295E+0	1.476387E+0	1.419595E+0	1.471692E+0	1.404806E+0	1.386317E+0	1.416664E+0	1.434881E+0	1.419837E+0	1.476900E+0	1.451108E+0	1.484790E+0	1.435831E+0	1.411993E+0	1.436312E+0	1.446894E+0	1.451989E+0	1.426757E+0	1.395788E+0	1.428695E+0	1.426233E+0	1.451654E+0	1.461020E+0	1.401766E+0	1.407652E+0	1.420211E+0	1.405735E+0	1.447166E+0	1.397912E+0	1.457541E+0	1.451902E+0	1.441513E+0	1.415454E+0	1.416257E+0	1.405219E+0	1.461610E+0	1.398633E+0	1.472167E+0	1.397878E+0	1.427035E+0	1.452986E+0	1.427238E+0	1.421943E+0	1.437170E+0	1.415604E+0	1.382699E+0	1.447543E+0	1.443171E+0	1.447581E+0	1.452521E+0	1.400423E+0	1.461696E+0	1.505467E+0	1.399260E+0	1.453933E+0	1.459504E+0	1.410623E+0	1.370228E+0	1.459545E+0	1.466195E+0	1.458216E+0	1.434668E+0	1.403184E+0	1.425520E+0	1.424051E+0	1.424570E+0	1.404323E+0	1.412827E+0	1.350743E+0	1.380684E+0	1.471563E+0	1.422822E+0	1.378784E+0	1.350628E+0	1.444458E+0	1.501374E+0	1.474216E+0	1.419150E+0	1.391629E+0	1.442663E+0	1.411159E+0	1.395651E+0	1.383706E+0	1.445753E+0	1.413527E+0	1.463478E+0	1.386713E+0	1.439959E+0	1.407560E+0	1.458638E+0	1.393829E+0	1.427183E+0	1.362386E+0	1.462564E+0	1.422202E+0	1.424454E+0	1.440917E+0	1.439709E+0	1.454049E+0	1.478926E+0	1.414672E+0	1.430848E+0	1.382165E+0	1.381776E+0	1.396351E+0	1.411905E+0	1.420234E+0	1.463008E+0	1.421140E+0	1.464337E+0	1.407962E+0	1.453881E+0	1.425328E+0	1.381616E+0	1.423387E+0	1.469924E+0	1.395447E+0	1.409180E+0	1.399595E+0	1.387398E+0	1.395160E+0	1.375912E+0	1.410371E+0	1.454078E+0	1.444754E+0
5.450150E+2	1.416827E+0	1.299664E+0	1.370955E+0	1.339675E+0	1.342135E+0	1.334246E+0	1.349499E+0	1.347295E+0	1.325465E+0	1.425171E+0	1.329302E+0	1.372509E+0	1.323172E+0	1.373434E+0	1.320444E+0	1.402842E+0	1.315482E+0	1.374811E+0	1.333195E+0	1.356420E+0	1.369491E+0	1.343420E+0	1.392785E+0	1.368456E+0	1.347807E+0	1.358837E+0	1.355480E+0	1.367339E+0	1.316682E+0	1.331909E+0	1.365739E+0	1.351923E+0	1.335033E+0	1.344597E+0	1.376145E+0	1.329896E+0	1.352143E+0	1.369377E+0	1.398272E+0	1.342352E+0	1.336919E+0	1.340560E+0	1.344692E+0	1.305482E+0	1.342538E+0	1.376997E+0	1.314167E+0	1.372934E+0	1.337919E+0	1.379051E+0	1.370214E+0	1.384072E+0	1.348939E+0	1.341165E+0	1.347148E+0	1.392748E+0	1.376383E+0	1.337157E+0	1.366494E+0	1.307472E+0	1.323949E+0	1.407470E+0	1.461252E+0	1.355509E+0	1.366635E+0	1.384091E+0	1.320460E+0	1.366875E+0	1.381270E+0	1.340656E+0	1.374943E+0	1.402407E+0	1.340361E+0	1.435783E+0	1.347738E+0	1.331991E+0	1.367201E+0	1.393263E+0	1.345278E+0	1.367980E+0	1.360426E+0	1.369025E+0	1.347294E+0	1.371667E+0	1.334686E+0	1.335991E+0	1.354826E+0	1.371459E+0	1.353325E+0	1.355015E+0	1.335016E+0	1.336816E+0	1.357336E+0	1.360513E+0	1.367546E+0	1.426745E+0	1.327334E+0	1.351289E+0	1.284956E+0	1.361407E+0	1.308327E+0	1.362072E+0	1.355972E+0	1.312320E+0	1.419113E+0	1.329620E+0	1.371226E+0	1.374394E+0	1.337679E+0	1.395702E+0	1.373703E+0	1.367350E+0	1.322910E+0	1.348416E+0	1.326332E+0	1.328519E+0	1.339654E+0	1.345102E+0	1.310569E+0	1.362186E+0	1.311923E+0	1.307840E+0	1.358173E+0	1.361939E+0	1.344984E+0	1.358634E+0	1.344598E+0	1.354907E+0	1.320577E+0	1.324905E+0	1.379259E+0	1.328625E+0	1.355149E+0	1.391233E+0	1.335886E+0	1.332275E+0	1.303698E+0	1.381295E+0	1.293484E+0	1.352070E+0	1.330776E+0	1.333114E+0	1.348697E+0	1.322466E+0	1.322435E+0	1.385997E+0	1.346753E+0	1.370282E+0	1.340627E+0	1.373896E+0	1.346546E+0	1.303576E+0	1.361512E+0	1.315535E+0	1.307831E+0	1.338021E+0	1.371586E+0	1.354236E+0	1.334132E+0	1.342445E+0	1.321440E+0	1.358877E+0	1.394611E+0	1.351415E+0	1.280102E+0	1.315922E+0	1.350439E+0	1.354589E+0	1.334742E+0	1.267118E+0	1.470168E+0
5.452690E+2	1.319969E+0	1.314178E+0	1.331577E+0	1.303131E+0	1.318016E+0	1.302182E+0	1.346366E+0	1.272785E+0	1.247513E+0	1.304369E+0	1.292652E+0	1.343686E+0	1.291852E+0	1.322204E+0	1.301470E+0	1.317203E+0	1.288784E+0	1.337943E+0	1.293701E+0	1.320708E+0	1.305960E+0	1.320697E+0	1.315311E+0	1.307301E+0	1.278212E+0	1.317247E+0	1.295054E+0	1.366668E+0	1.298861E+0	1.287092E+0	1.268789E+0	1.303337E+0	1.244506E+0	1.299840E+0	1.309619E+0	1.328186E+0	1.353323E+0	1.268498E+0	1.288767E+0	1.292795E+0	1.270246E+0	1.292251E+0	1.353229E+0	1.277087E+0	1.351574E+0	1.264402E+0	1.305929E+0	1.332779E+0	1.267609E+0	1.389513E+0	1.267695E+0	1.310150E+0	1.281379E+0	1.323158E+0	1.297665E+0	1.335019E+0	1.281694E+0	1.348441E+0	1.259718E+0	1.268793E+0	1.321785E+0	1.338661E+0	1.311549E+0	1.277899E+0	1.329708E+0	1.315029E+0	1.291906E+0	1.374180E+0	1.338992E+0	1.289265E+0	1.275274E+0	1.290546E+0	1.283428E+0	1.349739E+0	1.317506E+0	1.296576E+0	1.321254E+0	1.272427E+0	1.302020E+0	1.290818E+0	1.294906E+0	1.266826E+0	1.339115E+0	1.303058E+0	1.340595E+0	1.306904E+0	1.291793E+0	1.355626E+0	1.255503E+0	1.314691E+0	1.307891E+0	1.361403E+0	1.316679E+0	1.312839E+0	1.300814E+0	1.327752E+0	1.296279E+0	1.318219E+0	1.293490E+0	1.294088E+0	1.331299E+0	1.320163E+0	1.263750E+0	1.274041E+0	1.301593E+0	1.298065E+0	1.297671E+0	1.291700E+0	1.290797E+0	1.308316E+0	1.266084E+0	1.323331E+0	1.307871E+0	1.328109E+0	1.244114E+0	1.301911E+0	1.306540E+0	1.279954E+0	1.311062E+0	1.285766E+0	1.339063E+0	1.323792E+0	1.351906E+0	1.319787E+0	1.272062E+0	1.255713E+0	1.322071E+0	1.284017E+0	1.283302E+0	1.369667E+0	1.323476E+0	1.353590E+0	1.312203E+0	1.320675E+0	1.309054E+0	1.337610E+0	1.272977E+0	1.294303E+0	1.232831E+0	1.323777E+0	1.304037E+0	1.302989E+0	1.264001E+0	1.287224E+0	1.320503E+0	1.275046E+0	1.308945E+0	1.325962E+0	1.274722E+0	1.278240E+0	1.305125E+0	1.277486E+0	1.294255E+0	1.345217E+0	1.314883E+0	1.315968E+0	1.318117E+0	1.313254E+0	1.317597E+0	1.276524E+0	1.338685E+0	1.287005E+0	1.341511E+0	1.287457E+0	1.264867E+0	1.272069E+0	1.307091E+0	1.260094E+0	1.305899E+0	1.425678E+0	1.230383E+0
5.455450E+2	1.279182E+0	1.282524E+0	1.227303E+0	1.251504E+0	1.251518E+0	1.208929E+0	1.274117E+0	1.242197E+0	1.272519E+0	1.233972E+0	1.286928E+0	1.251227E+0	1.235954E+0	1.279491E+0	1.247176E+0	1.233818E+0	1.273581E+0	1.291356E+0	1.247397E+0	1.268992E+0	1.269821E+0	1.233178E+0	1.258377E+0	1.242542E+0	1.234300E+0	1.291715E+0	1.309357E+0	1.235993E+0	1.211707E+0	1.235298E+0	1.241192E+0	1.275665E+0	1.173820E+0	1.211631E+0	1.260754E+0	1.252196E+0	1.226685E+0	1.301193E+0	1.251322E+0	1.276958E+0	1.264451E+0	1.245258E+0	1.271171E+0	1.288425E+0	1.232211E+0	1.225846E+0	1.234674E+0	1.294744E+0	1.261787E+0	1.265934E+0	1.267391E+0	1.250756E+0	1.266184E+0	1.203541E+0	1.218536E+0	1.233064E+0	1.248638E+0	1.206280E+0	1.225683E+0	1.218406E+0	1.247706E+0	1.284393E+0	1.223317E+0	1.224590E+0	1.232224E+0	1.231724E+0	1.205686E+0	1.192139E+0	1.265162E+0	1.222410E+0	1.256575E+0	1.233406E+0	1.235068E+0	1.209936E+0	1.268048E+0	1.210835E+0	1.225624E+0	1.234609E+0	1.269538E+0	1.256232E+0	1.216376E+0	1.220478E+0	1.230098E+0	1.276398E+0	1.199898E+0	1.224910E+0	1.256983E+0	1.238566E+0	1.269011E+0	1.250085E+0	1.173964E+0	1.310184E+0	1.238241E+0	1.247250E+0	1.254638E+0	1.236668E+0	1.223438E+0	1.293828E+0	1.212194E+0	1.253933E+0	1.245979E+0	1.187887E+0	1.253047E+0	1.269419E+0	1.244298E+0	1.237480E+0	1.230080E+0	1.244942E+0	1.200856E+0	1.229160E+0	1.257785E+0	1.232008E+0	1.228421E+0	1.218742E+0	1.200343E+0	1.256553E+0	1.300344E+0	1.259770E+0	1.192507E+0	1.201647E+0	1.217150E+0	1.267431E+0	1.253061E+0	1.263869E+0	1.223342E+0	1.256023E+0	1.217844E+0	1.261897E+0	1.267186E+0	1.325841E+0	1.268983E+0	1.259959E+0	1.165343E+0	1.273331E+0	1.222215E+0	1.247298E+0	1.235562E+0	1.242036E+0	1.283217E+0	1.251680E+0	1.270049E+0	1.229507E+0	1.265448E+0	1.256945E+0	1.241411E+0	1.244082E+0	1.226010E+0	1.239518E+0	1.225163E+0	1.246430E+0	1.220887E+0	1.228659E+0	1.254530E+0	1.330191E+0	1.212762E+0	1.221439E+0	1.210363E+0	1.266220E+0	1.279053E+0	1.245819E+0	1.176023E+0	1.233900E+0	1.230187E+0	1.264823E+0	1.199106E+0	1.210457E+0	1.267604E+0	1.224845E+0	1.163413E+0	1.232794E+0	1.174331E+0
5.457780E+2	1.199837E+0	1.169988E+0	1.159857E+0	1.189554E+0	1.201768E+0	1.154506E+0	1.196165E+0	1.197906E+0	1.205444E+0	1.125779E+0	1.156981E+0	1.209996E+0	1.169397E+0	1.187614E+0	1.170669E+0	1.182192E+0	1.186758E+0	1.169742E+0	1.202640E+0	1.175784E+0	1.211958E+0	1.155269E+0	1.197708E+0	1.226466E+0	1.162905E+0	1.196846E+0	1.168455E+0	1.193559E+0	1.217773E+0	1.171557E+0	1.167614E+0	1.182165E+0	1.107007E+0	1.167584E+0	1.215331E+0	1.195936E+0	1.211003E+0	1.186026E+0	1.192844E+0	1.198075E+0	1.147737E+0	1.164859E+0	1.197435E+0	1.227819E+0	1.154223E+0	1.216909E+0	1.213752E+0	1.202717E+0	1.167612E+0	1.178167E+0	1.208503E+0	1.199316E+0	1.178042E+0	1.182029E+0	1.173225E+0	1.152063E+0	1.200213E+0	1.133883E+0	1.225791E+0	1.205598E+0	1.166946E+0	1.176261E+0	1.182342E+0	1.181455E+0	1.201052E+0	1.195228E+0	1.148550E+0	1.147534E+0	1.158032E+0	1.165308E+0	1.173857E+0	1.131442E+0	1.205875E+0	1.199244E+0	1.165296E+0	1.230084E+0	1.166801E+0	1.219086E+0	1.210608E+0	1.182657E+0	1.133587E+0	1.129253E+0	1.198151E+0	1.177084E+0	1.187350E+0	1.188131E+0	1.237147E+0	1.186976E+0	1.180432E+0	1.185094E+0	1.195372E+0	1.171125E+0	1.199018E+0	1.155564E+0	1.223032E+0	1.173808E+0	1.097188E+0	1.202314E+0	1.151388E+0	1.190909E+0	1.165435E+0	1.190727E+0	1.177351E+0	1.193716E+0	1.138474E+0	1.164654E+0	1.197867E+0	1.211169E+0	1.167563E+0	1.166703E+0	1.243060E+0	1.159337E+0	1.149964E+0	1.213390E+0	1.186608E+0	1.165148E+0	1.205628E+0	1.176815E+0	1.191244E+0	1.176836E+0	1.163228E+0	1.145504E+0	1.214771E+0	1.218107E+0	1.147807E+0	1.216934E+0	1.182224E+0	1.176261E+0	1.156173E+0	1.178866E+0	1.200366E+0	1.160128E+0	1.168308E+0	1.152476E+0	1.142148E+0	1.153199E+0	1.113291E+0	1.127551E+0	1.141301E+0	1.180341E+0	1.186731E+0	1.201560E+0	1.217790E+0	1.166210E+0	1.139973E+0	1.217418E+0	1.188217E+0	1.195513E+0	1.147507E+0	1.167450E+0	1.150363E+0	1.167400E+0	1.169366E+0	1.237916E+0	1.173854E+0	1.220908E+0	1.195786E+0	1.216951E+0	1.212899E+0	1.183169E+0	1.156474E+0	1.185296E+0	1.144872E+0	1.169441E+0	1.121438E+0	1.153091E+0	1.202805E+0	1.186448E+0	1.202664E+0	1.216734E+0	1.233954E+0
5.460220E+2	1.202106E+0	1.166297E+0	1.158632E+0	1.173306E+0	1.161944E+0	1.147810E+0	1.161872E+0	1.125187E+0	1.207802E+0	1.109909E+0	1.139041E+0	1.170241E+0	1.146680E+0	1.166349E+0	1.129754E+0	1.185645E+0	1.211899E+0	1.149514E+0	1.141562E+0	1.151151E+0	1.133927E+0	1.165457E+0	1.148365E+0	1.178827E+0	1.114571E+0	1.188497E+0	1.185390E+0	1.185516E+0	1.151225E+0	1.153546E+0	1.116498E+0	1.160219E+0	1.109456E+0	1.128556E+0	1.140960E+0	1.200097E+0	1.129372E+0	1.121122E+0	1.165140E+0	1.136235E+0	1.170220E+0	1.134029E+0	1.128248E+0	1.183899E+0	1.173045E+0	1.144683E+0	1.184115E+0	1.181814E+0	1.132762E+0	1.161037E+0	1.179018E+0	1.152380E+0	1.162013E+0	1.141378E+0	1.161931E+0	1.157676E+0	1.150893E+0	1.159322E+0	1.183931E+0	1.151263E+0	1.164685E+0	1.166869E+0	1.156024E+0	1.142364E+0	1.133600E+0	1.139319E+0	1.120682E+0	1.151084E+0	1.203339E+0	1.169732E+0	1.183252E+0	1.153534E+0	1.176695E+0	1.156142E+0	1.167298E+0	1.221418E+0	1.142478E+0	1.167296E+0	1.208931E+0	1.190329E+0	1.165240E+0	1.142049E+0	1.166236E+0	1.124458E+0	1.174847E+0	1.140789E+0	1.183018E+0	1.168249E+0	1.168275E+0	1.170105E+0	1.151149E+0	1.150132E+0	1.147081E+0	1.119874E+0	1.191286E+0	1.225318E+0	1.135574E+0	1.208787E+0	1.160601E+0	1.199645E+0	1.157923E+0	1.149607E+0	1.183685E+0	1.123273E+0	1.205343E+0	1.153088E+0	1.153815E+0	1.205883E+0	1.146701E+0	1.129826E+0	1.230055E+0	1.135956E+0	1.145269E+0	1.164784E+0	1.129281E+0	1.147074E+0	1.142962E+0	1.178118E+0	1.189470E+0	1.175607E+0	1.188159E+0	1.167425E+0	1.189974E+0	1.116443E+0	1.142688E+0	1.194007E+0	1.160725E+0	1.204472E+0	1.163384E+0	1.155502E+0	1.128114E+0	1.187525E+0	1.180062E+0	1.170549E+0	1.174040E+0	1.207796E+0	1.131165E+0	1.183684E+0	1.180076E+0	1.159009E+0	1.165574E+0	1.137231E+0	1.210067E+0	1.177110E+0	1.193714E+0	1.152024E+0	1.156943E+0	1.205331E+0	1.098715E+0	1.169607E+0	1.154722E+0	1.155963E+0	1.169638E+0	1.211345E+0	1.118114E+0	1.157920E+0	1.141080E+0	1.130796E+0	1.189107E+0	1.158481E+0	1.142320E+0	1.204644E+0	1.176203E+0	1.167432E+0	1.180616E+0	1.166428E+0	1.128998E+0	1.111923E+0	1.194336E+0	1.193264E+0	1.190417E+0
5.467710E+2	1.294523E+0	1.231229E+0	1.207925E+0	1.253101E+0	1.250302E+0	1.223210E+0	1.202144E+0	1.243176E+0	1.233146E+0	1.229267E+0	1.217841E+0	1.229824E+0	1.208034E+0	1.216470E+0	1.295523E+0	1.238305E+0	1.189602E+0	1.266915E+0	1.203763E+0	1.251092E+0	1.224181E+0	1.229851E+0	1.247730E+0	1.228405E+0	1.246193E+0	1.162700E+0	1.255200E+0	1.266986E+0	1.225707E+0	1.238789E+0	1.229145E+0	1.191566E+0	1.222081E+0	1.216897E+0	1.280579E+0	1.229341E+0	1.222415E+0	1.204955E+0	1.213667E+0	1.244017E+0	1.180057E+0	1.212228E+0	1.249303E+0	1.285707E+0	1.220607E+0	1.199884E+0	1.283023E+0	1.277297E+0	1.201753E+0	1.209825E+0	1.219119E+0	1.242477E+0	1.214435E+0	1.212898E+0	1.258483E+0	1.231559E+0	1.216455E+0	1.273239E+0	1.288896E+0	1.246442E+0	1.244831E+0	1.245692E+0	1.251737E+0	1.198352E+0	1.250450E+0	1.226094E+0	1.260545E+0	1.218907E+0	1.260741E+0	1.241436E+0	1.237967E+0	1.263098E+0	1.217783E+0	1.290068E+0	1.232861E+0	1.256627E+0	1.242745E+0	1.242424E+0	1.241580E+0	1.173401E+0	1.220163E+0	1.222177E+0	1.190766E+0	1.248196E+0	1.216779E+0	1.207357E+0	1.276235E+0	1.292970E+0	1.256210E+0	1.207913E+0	1.234979E+0	1.235881E+0	1.219714E+0	1.240998E+0	1.248332E+0	1.258319E+0	1.228669E+0	1.199020E+0	1.246720E+0	1.222487E+0	1.229772E+0	1.233022E+0	1.250277E+0	1.211577E+0	1.251499E+0	1.214582E+0	1.285550E+0	1.270473E+0	1.237706E+0	1.196880E+0	1.259353E+0	1.239641E+0	1.222188E+0	1.200941E+0	1.238757E+0	1.200047E+0	1.298954E+0	1.250688E+0	1.242792E+0	1.209246E+0	1.264950E+0	1.273702E+0	1.276819E+0	1.185313E+0	1.203255E+0	1.219186E+0	1.247192E+0	1.243334E+0	1.203950E+0	1.229808E+0	1.281762E+0	1.288096E+0	1.254896E+0	1.263225E+0	1.243715E+0	1.219585E+0	1.230750E+0	1.214426E+0	1.259092E+0	1.212369E+0	1.239257E+0	1.206660E+0	1.275147E+0	1.255465E+0	1.293369E+0	1.222068E+0	1.183345E+0	1.259246E+0	1.215486E+0	1.188018E+0	1.237446E+0	1.233927E+0	1.236652E+0	1.267007E+0	1.250171E+0	1.181119E+0	1.263478E+0	1.264255E+0	1.251444E+0	1.247472E+0	1.191747E+0	1.257989E+0	1.255200E+0	1.218544E+0	1.250391E+0	1.202463E+0	1.253325E+0	1.274006E+0	1.240170E+0	1.188892E+0	1.289927E+0
5.475120E+2	1.457124E+0	1.363177E+0	1.319189E+0	1.365005E+0	1.415950E+0	1.383974E+0	1.344897E+0	1.353588E+0	1.366305E+0	1.336958E+0	1.434732E+0	1.399573E+0	1.373485E+0	1.356657E+0	1.360718E+0	1.366775E+0	1.344666E+0	1.422931E+0	1.317418E+0	1.375629E+0	1.369972E+0	1.371628E+0	1.389815E+0	1.363494E+0	1.327395E+0	1.336744E+0	1.354638E+0	1.385430E+0	1.341700E+0	1.390519E+0	1.399941E+0	1.401976E+0	1.347859E+0	1.358954E+0	1.434799E+0	1.320699E+0	1.335167E+0	1.368217E+0	1.383925E+0	1.375120E+0	1.338681E+0	1.346172E+0	1.459730E+0	1.378973E+0	1.434583E+0	1.351566E+0	1.394372E+0	1.390110E+0	1.313248E+0	1.363795E+0	1.376305E+0	1.407113E+0	1.375222E+0	1.361290E+0	1.401631E+0	1.375207E+0	1.343586E+0	1.367223E+0	1.411185E+0	1.354265E+0	1.372298E+0	1.318608E+0	1.296076E+0	1.407808E+0	1.348597E+0	1.357062E+0	1.342570E+0	1.335692E+0	1.379649E+0	1.345535E+0	1.334148E+0	1.344086E+0	1.342225E+0	1.406335E+0	1.399706E+0	1.367757E+0	1.381088E+0	1.364194E+0	1.364601E+0	1.385725E+0	1.384048E+0	1.332438E+0	1.389109E+0	1.391335E+0	1.336888E+0	1.391592E+0	1.367514E+0	1.365893E+0	1.396450E+0	1.342275E+0	1.337660E+0	1.367123E+0	1.366587E+0	1.362279E+0	1.426959E+0	1.327584E+0	1.384886E+0	1.362191E+0	1.349526E+0	1.397764E+0	1.312731E+0	1.373505E+0	1.368863E+0	1.337394E+0	1.400506E+0	1.331053E+0	1.348206E+0	1.366007E+0	1.367892E+0	1.372314E+0	1.386951E+0	1.371586E+0	1.338935E+0	1.371944E+0	1.290215E+0	1.343033E+0	1.385995E+0	1.352034E+0	1.348672E+0	1.364922E+0	1.339537E+0	1.315855E+0	1.375099E+0	1.369786E+0	1.374644E+0	1.302949E+0	1.329195E+0	1.420424E+0	1.397471E+0	1.350466E+0	1.459529E+0	1.341900E+0	1.349541E+0	1.382203E+0	1.375296E+0	1.401957E+0	1.345095E+0	1.380117E+0	1.325851E+0	1.362199E+0	1.343389E+0	1.346802E+0	1.382030E+0	1.351503E+0	1.347071E+0	1.344514E+0	1.288564E+0	1.385677E+0	1.310405E+0	1.338572E+0	1.362765E+0	1.336622E+0	1.363908E+0	1.334775E+0	1.316826E+0	1.357627E+0	1.381640E+0	1.363592E+0	1.410695E+0	1.348569E+0	1.380356E+0	1.380667E+0	1.385806E+0	1.350928E+0	1.324175E+0	1.314357E+0	1.352221E+0	1.325766E+0	1.360990E+0	1.337445E+0	1.529102E+0
5.482600E+2	1.516336E+0	1.443750E+0	1.453096E+0	1.429772E+0	1.482591E+0	1.462328E+0	1.424325E+0	1.437154E+0	1.470951E+0	1.427110E+0	1.460915E+0	1.463351E+0	1.442435E+0	1.415455E+0	1.469813E+0	1.452175E+0	1.465023E+0	1.502285E+0	1.448061E+0	1.459512E+0	1.479997E+0	1.466821E+0	1.468030E+0	1.463507E+0	1.465291E+0	1.449526E+0	1.464126E+0	1.453677E+0	1.456023E+0	1.431895E+0	1.421581E+0	1.483837E+0	1.451880E+0	1.499584E+0	1.486762E+0	1.496271E+0	1.415567E+0	1.456376E+0	1.437726E+0	1.505850E+0	1.456133E+0	1.420706E+0	1.525335E+0	1.418579E+0	1.443390E+0	1.433176E+0	1.473695E+0	1.486041E+0	1.418118E+0	1.493564E+0	1.401965E+0	1.482174E+0	1.447674E+0	1.480372E+0	1.435532E+0	1.469969E+0	1.518813E+0	1.453277E+0	1.480481E+0	1.439864E+0	1.476756E+0	1.426143E+0	1.493644E+0	1.476958E+0	1.443025E+0	1.428653E+0	1.479280E+0	1.486972E+0	1.451875E+0	1.492946E+0	1.461491E+0	1.430128E+0	1.439813E+0	1.522006E+0	1.466670E+0	1.439155E+0	1.458811E+0	1.416927E+0	1.440152E+0	1.439477E+0	1.421178E+0	1.460370E+0	1.459310E+0	1.471474E+0	1.464411E+0	1.492957E+0	1.493943E+0	1.484982E+0	1.409269E+0	1.470216E+0	1.445310E+0	1.480676E+0	1.469803E+0	1.415893E+0	1.492914E+0	1.407026E+0	1.368161E+0	1.481580E+0	1.399220E+0	1.482936E+0	1.467117E+0	1.495989E+0	1.416850E+0	1.411014E+0	1.426094E+0	1.459871E+0	1.495777E+0	1.456800E+0	1.421601E+0	1.462878E+0	1.470238E+0	1.444301E+0	1.369954E+0	1.417827E+0	1.436164E+0	1.419511E+0	1.518553E+0	1.444050E+0	1.473214E+0	1.426635E+0	1.472112E+0	1.405077E+0	1.494868E+0	1.436352E+0	1.446434E+0	1.413576E+0	1.462497E+0	1.477433E+0	1.438814E+0	1.461497E+0	1.525366E+0	1.502970E+0	1.423577E+0	1.468836E+0	1.472210E+0	1.458190E+0	1.429507E+0	1.472806E+0	1.441570E+0	1.444842E+0	1.450509E+0	1.408721E+0	1.460664E+0	1.516484E+0	1.448246E+0	1.493256E+0	1.461979E+0	1.456311E+0	1.412426E+0	1.469485E+0	1.483042E+0	1.472739E+0	1.462709E+0	1.422865E+0	1.461246E+0	1.467367E+0	1.462911E+0	1.439467E+0	1.433800E+0	1.466090E+0	1.418865E+0	1.418425E+0	1.476976E+0	1.397440E+0	1.380793E+0	1.413801E+0	1.435494E+0	1.421945E+0	1.457631E+0	1.441040E+0	1.451555E+0
5.490100E+2	1.500223E+0	1.379346E+0	1.493549E+0	1.455755E+0	1.457966E+0	1.416508E+0	1.449658E+0	1.445795E+0	1.417946E+0	1.398369E+0	1.457243E+0	1.502354E+0	1.433411E+0	1.432885E+0	1.458297E+0	1.432673E+0	1.413833E+0	1.467667E+0	1.384108E+0	1.418928E+0	1.373030E+0	1.435921E+0	1.450488E+0	1.405411E+0	1.419265E+0	1.447420E+0	1.449358E+0	1.482399E+0	1.401464E+0	1.445248E+0	1.419176E+0	1.416490E+0	1.407282E+0	1.414208E+0	1.428968E+0	1.436307E+0	1.417703E+0	1.440843E+0	1.419707E+0	1.410059E+0	1.405709E+0	1.419993E+0	1.420077E+0	1.442277E+0	1.456821E+0	1.463558E+0	1.470031E+0	1.498595E+0	1.410924E+0	1.415529E+0	1.451372E+0	1.398211E+0	1.416570E+0	1.375487E+0	1.375944E+0	1.396268E+0	1.415918E+0	1.455007E+0	1.433806E+0	1.423338E+0	1.425871E+0	1.421426E+0	1.406550E+0	1.451757E+0	1.379268E+0	1.428411E+0	1.382087E+0	1.411564E+0	1.436965E+0	1.353831E+0	1.419647E+0	1.399020E+0	1.407184E+0	1.403170E+0	1.468380E+0	1.373990E+0	1.432637E+0	1.434958E+0	1.453689E+0	1.413360E+0	1.395351E+0	1.412081E+0	1.397537E+0	1.419868E+0	1.413242E+0	1.425032E+0	1.428888E+0	1.440282E+0	1.420953E+0	1.430919E+0	1.439247E+0	1.393071E+0	1.400176E+0	1.388353E+0	1.448010E+0	1.423622E+0	1.362257E+0	1.456766E+0	1.440597E+0	1.442162E+0	1.447842E+0	1.419839E+0	1.451125E+0	1.424342E+0	1.454780E+0	1.406456E+0	1.385928E+0	1.425763E+0	1.407701E+0	1.397785E+0	1.475668E+0	1.434546E+0	1.404327E+0	1.392544E+0	1.365141E+0	1.408431E+0	1.403165E+0	1.430045E+0	1.384549E+0	1.399645E+0	1.390310E+0	1.390179E+0	1.433391E+0	1.389012E+0	1.423253E+0	1.361390E+0	1.470115E+0	1.440075E+0	1.367484E+0	1.407278E+0	1.423136E+0	1.434783E+0	1.344249E+0	1.442871E+0	1.394958E+0	1.344291E+0	1.394496E+0	1.413570E+0	1.426668E+0	1.434278E+0	1.365722E+0	1.387946E+0	1.370304E+0	1.428340E+0	1.426449E+0	1.441853E+0	1.439923E+0	1.401947E+0	1.380659E+0	1.461216E+0	1.403205E+0	1.449590E+0	1.416975E+0	1.447708E+0	1.404237E+0	1.454499E+0	1.423990E+0	1.427027E+0	1.458770E+0	1.435225E+0	1.400550E+0	1.429426E+0	1.368546E+0	1.444808E+0	1.402633E+0	1.453085E+0	1.443209E+0	1.339158E+0	1.362250E+0	1.406455E+0	1.465512E+0
5.497740E+2	1.395941E+0	1.316097E+0	1.346751E+0	1.319725E+0	1.405641E+0	1.389862E+0	1.344025E+0	1.403980E+0	1.391987E+0	1.302835E+0	1.364345E+0	1.321308E+0	1.350031E+0	1.339913E+0	1.388325E+0	1.328582E+0	1.403781E+0	1.356136E+0	1.292754E+0	1.359920E+0	1.347780E+0	1.344448E+0	1.358665E+0	1.342057E+0	1.345710E+0	1.361488E+0	1.350418E+0	1.411825E+0	1.346547E+0	1.392659E+0	1.354083E+0	1.356287E+0	1.299302E+0	1.305650E+0	1.368891E+0	1.375766E+0	1.360816E+0	1.335537E+0	1.379175E+0	1.367218E+0	1.287686E+0	1.331160E+0	1.419558E+0	1.372729E+0	1.371683E+0	1.394643E+0	1.383571E+0	1.420014E+0	1.315398E+0	1.365653E+0	1.372620E+0	1.337452E+0	1.343669E+0	1.327631E+0	1.337935E+0	1.316574E+0	1.319734E+0	1.330173E+0	1.358252E+0	1.333595E+0	1.355553E+0	1.342071E+0	1.414601E+0	1.283839E+0	1.436212E+0	1.397112E+0	1.321646E+0	1.339613E+0	1.395767E+0	1.371427E+0	1.308385E+0	1.356076E+0	1.372744E+0	1.343540E+0	1.321069E+0	1.359216E+0	1.357335E+0	1.378032E+0	1.374337E+0	1.380005E+0	1.314368E+0	1.378089E+0	1.360538E+0	1.322128E+0	1.307671E+0	1.348531E+0	1.388455E+0	1.370927E+0	1.327826E+0	1.326606E+0	1.330601E+0	1.324795E+0	1.317718E+0	1.321920E+0	1.343878E+0	1.361753E+0	1.338301E+0	1.339272E+0	1.350823E+0	1.373408E+0	1.317561E+0	1.388522E+0	1.315830E+0	1.351544E+0	1.362076E+0	1.341337E+0	1.384574E+0	1.352564E+0	1.363683E+0	1.347195E+0	1.318695E+0	1.372719E+0	1.317606E+0	1.306621E+0	1.241223E+0	1.325264E+0	1.330851E+0	1.307585E+0	1.407097E+0	1.321086E+0	1.364839E+0	1.313318E+0	1.335715E+0	1.339149E+0	1.353856E+0	1.340369E+0	1.339479E+0	1.356023E+0	1.332087E+0	1.326261E+0	1.361991E+0	1.311438E+0	1.340507E+0	1.383486E+0	1.330904E+0	1.373401E+0	1.350921E+0	1.356228E+0	1.329593E+0	1.290680E+0	1.341271E+0	1.319108E+0	1.328899E+0	1.330883E+0	1.350951E+0	1.334986E+0	1.315594E+0	1.357436E+0	1.308370E+0	1.342008E+0	1.350005E+0	1.371275E+0	1.323979E+0	1.330601E+0	1.337565E+0	1.336878E+0	1.368493E+0	1.315164E+0	1.294142E+0	1.351944E+0	1.321581E+0	1.347125E+0	1.334704E+0	1.299449E+0	1.364627E+0	1.369195E+0	1.373012E+0	1.329925E+0	1.315322E+0	1.358405E+0	1.408415E+0
5.505170E+2	1.385766E+0	1.347606E+0	1.375215E+0	1.290903E+0	1.273461E+0	1.281630E+0	1.363087E+0	1.318109E+0	1.281811E+0	1.334620E+0	1.276202E+0	1.360546E+0	1.350616E+0	1.321725E+0	1.328155E+0	1.349616E+0	1.325599E+0	1.331294E+0	1.286027E+0	1.352105E+0	1.306275E+0	1.307091E+0	1.283580E+0	1.321561E+0	1.251755E+0	1.284644E+0	1.392689E+0	1.326447E+0	1.316474E+0	1.296865E+0	1.297081E+0	1.305542E+0	1.338882E+0	1.315145E+0	1.309480E+0	1.331981E+0	1.302586E+0	1.306792E+0	1.338220E+0	1.269617E+0	1.342227E+0	1.277780E+0	1.319294E+0	1.326279E+0	1.315227E+0	1.366146E+0	1.367689E+0	1.324224E+0	1.251649E+0	1.357188E+0	1.290676E+0	1.307448E+0	1.276540E+0	1.291790E+0	1.317445E+0	1.364981E+0	1.310682E+0	1.325859E+0	1.302482E+0	1.332168E+0	1.240252E+0	1.321542E+0	1.314289E+0	1.322579E+0	1.323957E+0	1.330608E+0	1.292767E+0	1.299230E+0	1.365262E+0	1.308572E+0	1.286669E+0	1.304097E+0	1.306953E+0	1.308840E+0	1.351305E+0	1.337076E+0	1.278187E+0	1.316623E+0	1.358148E+0	1.349248E+0	1.270887E+0	1.257937E+0	1.324896E+0	1.300232E+0	1.257745E+0	1.284439E+0	1.361497E+0	1.257109E+0	1.343968E+0	1.346639E+0	1.244572E+0	1.300510E+0	1.316544E+0	1.316722E+0	1.361712E+0	1.342417E+0	1.293557E+0	1.352417E+0	1.268564E+0	1.286383E+0	1.351269E+0	1.328526E+0	1.315415E+0	1.295093E+0	1.335330E+0	1.280256E+0	1.312221E+0	1.343597E+0	1.290063E+0	1.324861E+0	1.337245E+0	1.368975E+0	1.295714E+0	1.405758E+0	1.278725E+0	1.296358E+0	1.304419E+0	1.286822E+0	1.271155E+0	1.287096E+0	1.314773E+0	1.305865E+0	1.342950E+0	1.301177E+0	1.266237E+0	1.366403E+0	1.278293E+0	1.327365E+0	1.329580E+0	1.343696E+0	1.380106E+0	1.354135E+0	1.333857E+0	1.287653E+0	1.288371E+0	1.291887E+0	1.342395E+0	1.324064E+0	1.266303E+0	1.324332E+0	1.308260E+0	1.252944E+0	1.335844E+0	1.302732E+0	1.354971E+0	1.269923E+0	1.300284E+0	1.324563E+0	1.305034E+0	1.272554E+0	1.283758E+0	1.326730E+0	1.292303E+0	1.313616E+0	1.338492E+0	1.302111E+0	1.278435E+0	1.329979E+0	1.270618E+0	1.330597E+0	1.260170E+0	1.310530E+0	1.340920E+0	1.260402E+0	1.243113E+0	1.297921E+0	1.369295E+0	1.315287E+0	1.371389E+0	1.346974E+0	1.266502E+0
5.512620E+2	1.345049E+0	1.321090E+0	1.324208E+0	1.266696E+0	1.299131E+0	1.276368E+0	1.304802E+0	1.297333E+0	1.284611E+0	1.294515E+0	1.311543E+0	1.307536E+0	1.264258E+0	1.271047E+0	1.301983E+0	1.292621E+0	1.275252E+0	1.264914E+0	1.260543E+0	1.349304E+0	1.259977E+0	1.318990E+0	1.277805E+0	1.305899E+0	1.262817E+0	1.289242E+0	1.334601E+0	1.288288E+0	1.293116E+0	1.268605E+0	1.279625E+0	1.324602E+0	1.332104E+0	1.293765E+0	1.315868E+0	1.300628E+0	1.292684E+0	1.259882E+0	1.324181E+0	1.324757E+0	1.322277E+0	1.287255E+0	1.250429E+0	1.256926E+0	1.332996E+0	1.334256E+0	1.288232E+0	1.323391E+0	1.308270E+0	1.316018E+0	1.229259E+0	1.352642E+0	1.263438E+0	1.279953E+0	1.309973E+0	1.289534E+0	1.346948E+0	1.346611E+0	1.343364E+0	1.300812E+0	1.299418E+0	1.277142E+0	1.287433E+0	1.342484E+0	1.306881E+0	1.325302E+0	1.270029E+0	1.269396E+0	1.319401E+0	1.288239E+0	1.297421E+0	1.296327E+0	1.212053E+0	1.332316E+0	1.312385E+0	1.254029E+0	1.307445E+0	1.291078E+0	1.281333E+0	1.295516E+0	1.237091E+0	1.274447E+0	1.246435E+0	1.311832E+0	1.302814E+0	1.321790E+0	1.284614E+0	1.291274E+0	1.317264E+0	1.277653E+0	1.271876E+0	1.301757E+0	1.341963E+0	1.268238E+0	1.258824E+0	1.315935E+0	1.302396E+0	1.292224E+0	1.340926E+0	1.285124E+0	1.278826E+0	1.351884E+0	1.228107E+0	1.298404E+0	1.325905E+0	1.270515E+0	1.316543E+0	1.312460E+0	1.342686E+0	1.296310E+0	1.301023E+0	1.319643E+0	1.275815E+0	1.270597E+0	1.304455E+0	1.348696E+0	1.330919E+0	1.327228E+0	1.283143E+0	1.280128E+0	1.338698E+0	1.247714E+0	1.306550E+0	1.375926E+0	1.278674E+0	1.307699E+0	1.330222E+0	1.279127E+0	1.271517E+0	1.342514E+0	1.342556E+0	1.307752E+0	1.232458E+0	1.358165E+0	1.270899E+0	1.308419E+0	1.284387E+0	1.333225E+0	1.245901E+0	1.254424E+0	1.295146E+0	1.233686E+0	1.291866E+0	1.309754E+0	1.283297E+0	1.272087E+0	1.298455E+0	1.301034E+0	1.316591E+0	1.268644E+0	1.295032E+0	1.306410E+0	1.242949E+0	1.277332E+0	1.307231E+0	1.306067E+0	1.253191E+0	1.279668E+0	1.317047E+0	1.288628E+0	1.247375E+0	1.293156E+0	1.296252E+0	1.311193E+0	1.282092E+0	1.254447E+0	1.292825E+0	1.355186E+0	1.277584E+0	1.266801E+0	1.341958E+0
5.520150E+2	1.372009E+0	1.319982E+0	1.260899E+0	1.289963E+0	1.303476E+0	1.298751E+0	1.295729E+0	1.331741E+0	1.319005E+0	1.300576E+0	1.309861E+0	1.325224E+0	1.290531E+0	1.268644E+0	1.306247E+0	1.344276E+0	1.288195E+0	1.323712E+0	1.261656E+0	1.304617E+0	1.255928E+0	1.286778E+0	1.288338E+0	1.296852E+0	1.280666E+0	1.348467E+0	1.307988E+0	1.276847E+0	1.333421E+0	1.290372E+0	1.290598E+0	1.309596E+0	1.284720E+0	1.296232E+0	1.289633E+0	1.274594E+0	1.311035E+0	1.275691E+0	1.291088E+0	1.298882E+0	1.307187E+0	1.345953E+0	1.268092E+0	1.339720E+0	1.338538E+0	1.359371E+0	1.299879E+0	1.309024E+0	1.308084E+0	1.275308E+0	1.277112E+0	1.354897E+0	1.292205E+0	1.297595E+0	1.290692E+0	1.318724E+0	1.325899E+0	1.336798E+0	1.287759E+0	1.287820E+0	1.317728E+0	1.294098E+0	1.290496E+0	1.290136E+0	1.276564E+0	1.299861E+0	1.315683E+0	1.247505E+0	1.316945E+0	1.293509E+0	1.277484E+0	1.290855E+0	1.277151E+0	1.291536E+0	1.323099E+0	1.323683E+0	1.282483E+0	1.325408E+0	1.352568E+0	1.310636E+0	1.267640E+0	1.292426E+0	1.273423E+0	1.304783E+0	1.296630E+0	1.292961E+0	1.323228E+0	1.327560E+0	1.325458E+0	1.318369E+0	1.304817E+0	1.324123E+0	1.318253E+0	1.280831E+0	1.299298E+0	1.319792E+0	1.261810E+0	1.303782E+0	1.283542E+0	1.338098E+0	1.316989E+0	1.293899E+0	1.342087E+0	1.298180E+0	1.320010E+0	1.295592E+0	1.292604E+0	1.292929E+0	1.280427E+0	1.272813E+0	1.304733E+0	1.313627E+0	1.299364E+0	1.278633E+0	1.338984E+0	1.328965E+0	1.278543E+0	1.255937E+0	1.257913E+0	1.269684E+0	1.355147E+0	1.286402E+0	1.352645E+0	1.319259E+0	1.301192E+0	1.272997E+0	1.326334E+0	1.332197E+0	1.278402E+0	1.327840E+0	1.301856E+0	1.298458E+0	1.296649E+0	1.284210E+0	1.257741E+0	1.287288E+0	1.267918E+0	1.230061E+0	1.282884E+0	1.317490E+0	1.313287E+0	1.278470E+0	1.317509E+0	1.218474E+0	1.282976E+0	1.308555E+0	1.292165E+0	1.266439E+0	1.266296E+0	1.313526E+0	1.245337E+0	1.340521E+0	1.282086E+0	1.339747E+0	1.254027E+0	1.289046E+0	1.297646E+0	1.307495E+0	1.348549E+0	1.298584E+0	1.321297E+0	1.236226E+0	1.268327E+0	1.267830E+0	1.302888E+0	1.244935E+0	1.261914E+0	1.236888E+0	1.261393E+0	1.359612E+0	1.374770E+0
5.527650E+2	1.319484E+0	1.276994E+0	1.244799E+0	1.256715E+0	1.290500E+0	1.215352E+0	1.299385E+0	1.284309E+0	1.261028E+0	1.310768E+0	1.242233E+0	1.293078E+0	1.259161E+0	1.312000E+0	1.199544E+0	1.313953E+0	1.279457E+0	1.287642E+0	1.255514E+0	1.286111E+0	1.294797E+0	1.318062E+0	1.283574E+0	1.270326E+0	1.308093E+0	1.221493E+0	1.237469E+0	1.287184E+0	1.266070E+0	1.205767E+0	1.235979E+0	1.292897E+0	1.250792E+0	1.286862E+0	1.260920E+0	1.295031E+0	1.275617E+0	1.290916E+0	1.250743E+0	1.217572E+0	1.278673E+0	1.197428E+0	1.231799E+0	1.288343E+0	1.230586E+0	1.204132E+0	1.266961E+0	1.320781E+0	1.245672E+0	1.229159E+0	1.291969E+0	1.262087E+0	1.232716E+0	1.264966E+0	1.217100E+0	1.264186E+0	1.246805E+0	1.257115E+0	1.286424E+0	1.276519E+0	1.268564E+0	1.258378E+0	1.250920E+0	1.269597E+0	1.271906E+0	1.260530E+0	1.271237E+0	1.261030E+0	1.225443E+0	1.284123E+0	1.253140E+0	1.295399E+0	1.280667E+0	1.257634E+0	1.265609E+0	1.234843E+0	1.256586E+0	1.256227E+0	1.218757E+0	1.271346E+0	1.257951E+0	1.269108E+0	1.213076E+0	1.318158E+0	1.275512E+0	1.272845E+0	1.300419E+0	1.264376E+0	1.240907E+0	1.280847E+0	1.230075E+0	1.361748E+0	1.274961E+0	1.243701E+0	1.273988E+0	1.279286E+0	1.209278E+0	1.289729E+0	1.300966E+0	1.266640E+0	1.289789E+0	1.258619E+0	1.271956E+0	1.290758E+0	1.305010E+0	1.292056E+0	1.289687E+0	1.302867E+0	1.307379E+0	1.244989E+0	1.274993E+0	1.267191E+0	1.238028E+0	1.246667E+0	1.265088E+0	1.237698E+0	1.204886E+0	1.261974E+0	1.279025E+0	1.278209E+0	1.235636E+0	1.293878E+0	1.229835E+0	1.278143E+0	1.299754E+0	1.281471E+0	1.268392E+0	1.245971E+0	1.285708E+0	1.309099E+0	1.258493E+0	1.353500E+0	1.287001E+0	1.273512E+0	1.265697E+0	1.285127E+0	1.252818E+0	1.231380E+0	1.283801E+0	1.290248E+0	1.243902E+0	1.244569E+0	1.299589E+0	1.286425E+0	1.256982E+0	1.314771E+0	1.275000E+0	1.344109E+0	1.240263E+0	1.264879E+0	1.291255E+0	1.256231E+0	1.263406E+0	1.256287E+0	1.271214E+0	1.261786E+0	1.265983E+0	1.205530E+0	1.326068E+0	1.260873E+0	1.285227E+0	1.255783E+0	1.300658E+0	1.275083E+0	1.216028E+0	1.267016E+0	1.301197E+0	1.277482E+0	1.278160E+0	1.258130E+0	1.182555E+0
5.535270E+2	1.208281E+0	1.129131E+0	1.223029E+0	1.178095E+0	1.227042E+0	1.210328E+0	1.233479E+0	1.269391E+0	1.210876E+0	1.201863E+0	1.148745E+0	1.259837E+0	1.174533E+0	1.179167E+0	1.177821E+0	1.230614E+0	1.182898E+0	1.171633E+0	1.201538E+0	1.236248E+0	1.224105E+0	1.204695E+0	1.179526E+0	1.229974E+0	1.153566E+0	1.177824E+0	1.183088E+0	1.245335E+0	1.199442E+0	1.212277E+0	1.180868E+0	1.192199E+0	1.182424E+0	1.146714E+0	1.246987E+0	1.181710E+0	1.176295E+0	1.175227E+0	1.182861E+0	1.219570E+0	1.204106E+0	1.178418E+0	1.184543E+0	1.183991E+0	1.187774E+0	1.252047E+0	1.179546E+0	1.234446E+0	1.232690E+0	1.226412E+0	1.170367E+0	1.170566E+0	1.190060E+0	1.205849E+0	1.140255E+0	1.237763E+0	1.181313E+0	1.205576E+0	1.198319E+0	1.201573E+0	1.168201E+0	1.226628E+0	1.196293E+0	1.240158E+0	1.203989E+0	1.174418E+0	1.159709E+0	1.186424E+0	1.205614E+0	1.166591E+0	1.199063E+0	1.211072E+0	1.145927E+0	1.182327E+0	1.200032E+0	1.218047E+0	1.186913E+0	1.168858E+0	1.201447E+0	1.238805E+0	1.197104E+0	1.172060E+0	1.176763E+0	1.195895E+0	1.204357E+0	1.198386E+0	1.210727E+0	1.160028E+0	1.181962E+0	1.157026E+0	1.153148E+0	1.195202E+0	1.160069E+0	1.218053E+0	1.204312E+0	1.221147E+0	1.167434E+0	1.213526E+0	1.194080E+0	1.181413E+0	1.168762E+0	1.208185E+0	1.189840E+0	1.153913E+0	1.161174E+0	1.146057E+0	1.205078E+0	1.193792E+0	1.221675E+0	1.163103E+0	1.187888E+0	1.179036E+0	1.159331E+0	1.214533E+0	1.183468E+0	1.205130E+0	1.180951E+0	1.230407E+0	1.172724E+0	1.173660E+0	1.266252E+0	1.235860E+0	1.244689E+0	1.230947E+0	1.218347E+0	1.203525E+0	1.183658E+0	1.210042E+0	1.187959E+0	1.204267E+0	1.229051E+0	1.251924E+0	1.202308E+0	1.216008E+0	1.168818E+0	1.211584E+0	1.171952E+0	1.170138E+0	1.173104E+0	1.246152E+0	1.230971E+0	1.179173E+0	1.154488E+0	1.237941E+0	1.181659E+0	1.212616E+0	1.209193E+0	1.236844E+0	1.182856E+0	1.169334E+0	1.215480E+0	1.234143E+0	1.158246E+0	1.204727E+0	1.223778E+0	1.215840E+0	1.189332E+0	1.216677E+0	1.142282E+0	1.224822E+0	1.172829E+0	1.178162E+0	1.174242E+0	1.170206E+0	1.146429E+0	1.153169E+0	1.181428E+0	1.176771E+0	1.228704E+0	1.180318E+0	1.187429E+0
5.542580E+2	1.120348E+0	1.102114E+0	1.124594E+0	1.107766E+0	1.102373E+0	1.116823E+0	1.131735E+0	1.086643E+0	1.101658E+0	1.107148E+0	1.127897E+0	1.145138E+0	1.085023E+0	1.082604E+0	1.082074E+0	1.136872E+0	1.106193E+0	1.083793E+0	1.122631E+0	1.116222E+0	1.037966E+0	1.104132E+0	1.084408E+0	1.112515E+0	1.067772E+0	1.055127E+0	1.093647E+0	1.072918E+0	1.133646E+0	1.105375E+0	1.063979E+0	1.067322E+0	1.093843E+0	1.066478E+0	1.069084E+0	1.087817E+0	1.108315E+0	1.114053E+0	1.054363E+0	1.089565E+0	1.089247E+0	1.109828E+0	1.109995E+0	1.135602E+0	1.073156E+0	1.075503E+0	1.063163E+0	1.106876E+0	1.087564E+0	1.119970E+0	1.065413E+0	1.108835E+0	1.114681E+0	1.096126E+0	1.141946E+0	1.155331E+0	1.095323E+0	1.090229E+0	1.070948E+0	1.083400E+0	1.056814E+0	1.090076E+0	1.108573E+0	1.112556E+0	1.069190E+0	1.124921E+0	1.059721E+0	1.036946E+0	1.115339E+0	1.076168E+0	1.090587E+0	1.117701E+0	1.079668E+0	1.151869E+0	1.100606E+0	1.113034E+0	1.057106E+0	1.097682E+0	1.101806E+0	1.111161E+0	1.070003E+0	1.054067E+0	1.073554E+0	1.145192E+0	1.114190E+0	1.050355E+0	1.110653E+0	1.085107E+0	1.108181E+0	1.111027E+0	1.108673E+0	1.106315E+0	1.104875E+0	1.082203E+0	1.106290E+0	1.095829E+0	1.080691E+0	1.050397E+0	1.089743E+0	1.119483E+0	1.115589E+0	1.080000E+0	1.101141E+0	1.096787E+0	1.108683E+0	1.064110E+0	1.091761E+0	1.145256E+0	1.054867E+0	1.112418E+0	1.133936E+0	1.063279E+0	1.079004E+0	1.107186E+0	1.067609E+0	1.076481E+0	1.130092E+0	1.049003E+0	1.070878E+0	1.060699E+0	1.133228E+0	1.091523E+0	1.078787E+0	1.091235E+0	1.144259E+0	1.105088E+0	1.038295E+0	1.085120E+0	1.071250E+0	1.092852E+0	1.091632E+0	1.153373E+0	1.078912E+0	1.101250E+0	1.091866E+0	1.049721E+0	1.105849E+0	1.085878E+0	1.104048E+0	1.069719E+0	1.108754E+0	1.117335E+0	1.074675E+0	1.128493E+0	1.100227E+0	1.104345E+0	1.091296E+0	1.116022E+0	1.087126E+0	1.062280E+0	1.094512E+0	1.072628E+0	1.082041E+0	1.114012E+0	1.066954E+0	1.056226E+0	1.092577E+0	1.037104E+0	1.109163E+0	1.118396E+0	1.096175E+0	1.071236E+0	1.113154E+0	1.080152E+0	1.090149E+0	1.068308E+0	1.120361E+0	1.081782E+0	1.157896E+0	1.106736E+0	1.144830E+0
5.550250E+2	1.016309E+0	9.877490E-1	1.016268E+0	1.041091E+0	1.005606E+0	9.941247E-1	1.012977E+0	9.672159E-1	9.906482E-1	1.023255E+0	1.012745E+0	9.949693E-1	9.904393E-1	1.040564E+0	9.929593E-1	9.984427E-1	9.791906E-1	1.001312E+0	1.055538E+0	1.011623E+0	9.750967E-1	1.030940E+0	9.933486E-1	9.527861E-1	9.890724E-1	1.034752E+0	9.944485E-1	1.027262E+0	1.007154E+0	1.038720E+0	1.006337E+0	1.022140E+0	1.016672E+0	1.003910E+0	1.015814E+0	1.020453E+0	1.050010E+0	1.045258E+0	9.804375E-1	1.010356E+0	9.981583E-1	9.954612E-1	9.818150E-1	1.005119E+0	9.993663E-1	9.744088E-1	1.008119E+0	1.035033E+0	1.013522E+0	9.909528E-1	1.014403E+0	1.014991E+0	1.015685E+0	9.787357E-1	1.002166E+0	9.940742E-1	1.062407E+0	9.891472E-1	1.054574E+0	1.027964E+0	1.004078E+0	1.020443E+0	1.020543E+0	9.796092E-1	1.023497E+0	1.050616E+0	9.599306E-1	1.011895E+0	9.815010E-1	1.024604E+0	9.581953E-1	1.013708E+0	9.832360E-1	1.012170E+0	1.021873E+0	9.843947E-1	1.013886E+0	9.988054E-1	1.023880E+0	1.045872E+0	1.017678E+0	9.849726E-1	1.020939E+0	9.987514E-1	1.019399E+0	9.733622E-1	1.011098E+0	1.058253E+0	1.004571E+0	1.034284E+0	9.774833E-1	1.019052E+0	1.005884E+0	1.040919E+0	1.032265E+0	9.903625E-1	9.851306E-1	1.012149E+0	9.967302E-1	1.033051E+0	1.027712E+0	1.014944E+0	1.030076E+0	9.997681E-1	1.077294E+0	1.005598E+0	1.036304E+0	1.002070E+0	9.985180E-1	1.022303E+0	1.042332E+0	1.023764E+0	1.022270E+0	1.008776E+0	1.014732E+0	1.007098E+0	1.020815E+0	1.021035E+0	1.011804E+0	1.030026E+0	1.017853E+0	1.024774E+0	1.002305E+0	1.016666E+0	1.051932E+0	1.029569E+0	1.043908E+0	9.971879E-1	9.752507E-1	1.012811E+0	9.874629E-1	1.003101E+0	9.918344E-1	1.039669E+0	9.946644E-1	1.023194E+0	9.512889E-1	1.062872E+0	1.035237E+0	9.951773E-1	9.585143E-1	9.769075E-1	1.027872E+0	1.007850E+0	1.028226E+0	1.007305E+0	1.014481E+0	1.007317E+0	9.659763E-1	1.017375E+0	1.050435E+0	1.009177E+0	1.039524E+0	9.866186E-1	1.021068E+0	1.009761E+0	1.026177E+0	9.967866E-1	9.951209E-1	1.012502E+0	1.021621E+0	9.865359E-1	1.022877E+0	1.015512E+0	9.857822E-1	9.950385E-1	1.027975E+0	1.016865E+0	1.037777E+0	9.419771E-1	1.071895E+0
5.557600E+2	9.718466E-1	9.425522E-1	9.426841E-1	9.889238E-1	9.811554E-1	9.579553E-1	9.401239E-1	9.486488E-1	9.690070E-1	9.303303E-1	9.623347E-1	9.780505E-1	9.075905E-1	9.608090E-1	9.579491E-1	9.779963E-1	9.036451E-1	9.633308E-1	9.499528E-1	9.948915E-1	9.146747E-1	1.002513E+0	9.476329E-1	9.874267E-1	9.199894E-1	9.364149E-1	9.761426E-1	1.000629E+0	9.678852E-1	9.701451E-1	9.389360E-1	9.376824E-1	8.999775E-1	9.527311E-1	9.738099E-1	9.159771E-1	9.855112E-1	9.675256E-1	9.396678E-1	9.749483E-1	9.558145E-1	9.433871E-1	9.543686E-1	1.001623E+0	9.589092E-1	9.598267E-1	9.524421E-1	9.951712E-1	9.813646E-1	9.409573E-1	9.507684E-1	9.833941E-1	9.474880E-1	9.492000E-1	9.544107E-1	9.503586E-1	1.007624E+0	9.637426E-1	9.796023E-1	9.580153E-1	9.306756E-1	9.776896E-1	9.788531E-1	9.613991E-1	9.425261E-1	9.472780E-1	9.223729E-1	9.146162E-1	9.887369E-1	9.424538E-1	9.869883E-1	9.616327E-1	9.408826E-1	9.798456E-1	9.396737E-1	1.005475E+0	9.643139E-1	9.724227E-1	9.666559E-1	9.822162E-1	9.394802E-1	9.653719E-1	9.414278E-1	9.525026E-1	9.447711E-1	9.324135E-1	9.602323E-1	9.275945E-1	9.812639E-1	9.756182E-1	9.497479E-1	9.550843E-1	9.751853E-1	9.261837E-1	9.636185E-1	1.027331E+0	9.329232E-1	9.097744E-1	9.212315E-1	9.521408E-1	9.591503E-1	1.000412E+0	9.664317E-1	9.744485E-1	9.485869E-1	9.748119E-1	9.939536E-1	9.275022E-1	9.340951E-1	9.181964E-1	9.324425E-1	9.741345E-1	9.210411E-1	9.911060E-1	9.407667E-1	9.461735E-1	9.438822E-1	9.816388E-1	9.143223E-1	9.309017E-1	9.476195E-1	9.445953E-1	1.008535E+0	9.933176E-1	9.475080E-1	9.533272E-1	9.548542E-1	9.979602E-1	9.864919E-1	9.912965E-1	9.755360E-1	1.039614E+0	9.718106E-1	9.662407E-1	9.544137E-1	9.906550E-1	9.870390E-1	9.025622E-1	9.555378E-1	9.837292E-1	9.255597E-1	9.650551E-1	9.354003E-1	9.802274E-1	9.559369E-1	9.493969E-1	9.527781E-1	9.849730E-1	9.480616E-1	9.906949E-1	9.890191E-1	9.598770E-1	9.511710E-1	9.615526E-1	8.849272E-1	9.513873E-1	9.530268E-1	9.732775E-1	9.920007E-1	9.453853E-1	9.425062E-1	9.460980E-1	9.561129E-1	9.903919E-1	9.590219E-1	9.324034E-1	9.785389E-1	9.567010E-1	9.675152E-1	9.399415E-1	9.412946E-1
5.560190E+2	9.742035E-1	9.962910E-1	9.823927E-1	9.642947E-1	9.695352E-1	9.844135E-1	9.746659E-1	9.817319E-1	9.708439E-1	9.656469E-1	9.612403E-1	9.304273E-1	9.399702E-1	9.626432E-1	9.722492E-1	1.009888E+0	9.894185E-1	9.618531E-1	9.995415E-1	9.715571E-1	9.726326E-1	9.658753E-1	9.831250E-1	9.716855E-1	9.566954E-1	9.581090E-1	9.610723E-1	9.883678E-1	9.905738E-1	9.609341E-1	9.611932E-1	9.939689E-1	9.421391E-1	9.742844E-1	9.255784E-1	9.455911E-1	9.679111E-1	9.782513E-1	9.799523E-1	9.486794E-1	9.785406E-1	9.828874E-1	9.632836E-1	9.342374E-1	9.777293E-1	9.795473E-1	9.574599E-1	9.743969E-1	9.134881E-1	9.935791E-1	9.835122E-1	9.455881E-1	9.658536E-1	9.667793E-1	9.734924E-1	1.002110E+0	9.949341E-1	9.910587E-1	9.824074E-1	9.856239E-1	9.663403E-1	9.688328E-1	9.536038E-1	9.941330E-1	9.575936E-1	9.801881E-1	9.939663E-1	9.776637E-1	9.826869E-1	9.512398E-1	9.735366E-1	9.412556E-1	9.808391E-1	9.906761E-1	9.492199E-1	9.387769E-1	9.922326E-1	9.431947E-1	1.023540E+0	1.004695E+0	9.361177E-1	9.477014E-1	9.769729E-1	1.003600E+0	9.878319E-1	9.978628E-1	1.004165E+0	9.447683E-1	9.625106E-1	9.828042E-1	9.541995E-1	1.036975E+0	9.582262E-1	9.930025E-1	1.000901E+0	9.935240E-1	9.821259E-1	9.831386E-1	1.025215E+0	9.535831E-1	9.369489E-1	9.714688E-1	9.491678E-1	9.868031E-1	1.013530E+0	9.176740E-1	9.421325E-1	9.666067E-1	9.691665E-1	9.721327E-1	9.534066E-1	1.003910E+0	9.355860E-1	9.507589E-1	9.695322E-1	9.657574E-1	9.236823E-1	9.451888E-1	9.899263E-1	9.930733E-1	9.767767E-1	9.660506E-1	9.831091E-1	9.158978E-1	1.014303E+0	1.017912E+0	9.742518E-1	9.861708E-1	9.489590E-1	9.531065E-1	9.474176E-1	9.604955E-1	9.246244E-1	9.659832E-1	9.695652E-1	9.812587E-1	9.606065E-1	9.383374E-1	9.515763E-1	9.921143E-1	9.886156E-1	9.776908E-1	9.411510E-1	9.790660E-1	9.428531E-1	9.922851E-1	9.820941E-1	9.975349E-1	9.399168E-1	9.664451E-1	9.735755E-1	9.505971E-1	9.717867E-1	9.485074E-1	9.499423E-1	9.548112E-1	9.905882E-1	9.884922E-1	9.502379E-1	1.030741E+0	9.821218E-1	9.815853E-1	9.908551E-1	9.648683E-1	9.673224E-1	9.670932E-1	9.465222E-1	9.592393E-1	9.379390E-1	9.764574E-1	9.399402E-1
5.565200E+2	9.887574E-1	9.728227E-1	1.000301E+0	9.772685E-1	9.896841E-1	9.768678E-1	9.600493E-1	9.761079E-1	9.490070E-1	9.388539E-1	9.845157E-1	1.006609E+0	1.011901E+0	9.688536E-1	9.853081E-1	9.817323E-1	9.723239E-1	9.711521E-1	9.102636E-1	9.998893E-1	9.980677E-1	1.017702E+0	1.028934E+0	9.856131E-1	9.459221E-1	9.792355E-1	1.007240E+0	9.857784E-1	9.978636E-1	9.971255E-1	1.000571E+0	9.704340E-1	9.493882E-1	9.730565E-1	9.894573E-1	9.666354E-1	1.024268E+0	9.879395E-1	9.596621E-1	9.720401E-1	9.467875E-1	1.002265E+0	9.782429E-1	9.890670E-1	9.578883E-1	9.806407E-1	9.809508E-1	9.836199E-1	1.027924E+0	9.978883E-1	1.004327E+0	9.865291E-1	9.570886E-1	9.728242E-1	9.888400E-1	9.669979E-1	9.945518E-1	9.480560E-1	9.821359E-1	1.022097E+0	1.003351E+0	9.898050E-1	9.774266E-1	9.929025E-1	9.648865E-1	9.446869E-1	1.006843E+0	9.601379E-1	9.879474E-1	1.029524E+0	1.002505E+0	9.765725E-1	9.746473E-1	1.043592E+0	9.903491E-1	9.581231E-1	9.988779E-1	1.042084E+0	1.001232E+0	1.009112E+0	9.849485E-1	9.778872E-1	1.000463E+0	1.043906E+0	9.917214E-1	9.551423E-1	9.742318E-1	1.034473E+0	9.890356E-1	9.706933E-1	1.022294E+0	9.924557E-1	9.696239E-1	9.523887E-1	1.002770E+0	9.950693E-1	9.652894E-1	1.010775E+0	1.016249E+0	1.014770E+0	1.010497E+0	9.852525E-1	1.010121E+0	9.957026E-1	1.027421E+0	9.766601E-1	1.006713E+0	9.755781E-1	9.788947E-1	9.740335E-1	9.965844E-1	9.584316E-1	1.005443E+0	9.902865E-1	9.589516E-1	9.557730E-1	9.875892E-1	9.942348E-1	9.664034E-1	9.901061E-1	9.597195E-1	1.015244E+0	9.565950E-1	9.690689E-1	9.868764E-1	9.584866E-1	9.638320E-1	1.020756E+0	9.998749E-1	9.527262E-1	9.749296E-1	9.774772E-1	9.584981E-1	9.778278E-1	1.028118E+0	1.025187E+0	1.036866E+0	1.005989E+0	9.730755E-1	1.001753E+0	9.527103E-1	9.980296E-1	9.521642E-1	9.710391E-1	1.012428E+0	9.835113E-1	9.529955E-1	1.045624E+0	9.921348E-1	9.910362E-1	9.898432E-1	9.867338E-1	9.903948E-1	9.953160E-1	1.031796E+0	9.538722E-1	1.003894E+0	1.006707E+0	1.014846E+0	9.930999E-1	9.727534E-1	1.012393E+0	9.876140E-1	1.013851E+0	9.760863E-1	9.818129E-1	9.630504E-1	1.017534E+0	9.590080E-1	1.027783E+0	1.065982E+0
5.570500E+2	1.025222E+0	9.680534E-1	9.928642E-1	1.037604E+0	1.007345E+0	9.688352E-1	9.738227E-1	1.013221E+0	9.677020E-1	1.022707E+0	1.044572E+0	9.687713E-1	9.834803E-1	1.006809E+0	9.642442E-1	9.785860E-1	1.023143E+0	9.904400E-1	9.675412E-1	1.032066E+0	9.451355E-1	9.751847E-1	9.941524E-1	1.026238E+0	9.844653E-1	9.891556E-1	9.692170E-1	1.010088E+0	9.621003E-1	9.909435E-1	9.864785E-1	1.014756E+0	9.918151E-1	1.013417E+0	9.276580E-1	1.031205E+0	9.804739E-1	1.006651E+0	9.956377E-1	1.026307E+0	1.006932E+0	9.917569E-1	9.635820E-1	9.621624E-1	1.018528E+0	9.807483E-1	9.953681E-1	1.016581E+0	1.019139E+0	1.013140E+0	9.859077E-1	9.842178E-1	9.850704E-1	9.761287E-1	9.893600E-1	9.773225E-1	9.782420E-1	9.907505E-1	1.026898E+0	1.025343E+0	9.731207E-1	9.889401E-1	1.016472E+0	1.006381E+0	9.945236E-1	9.352571E-1	9.686155E-1	9.518667E-1	9.550343E-1	9.649088E-1	1.000021E+0	1.015851E+0	1.005145E+0	9.667095E-1	9.954254E-1	9.905951E-1	9.937667E-1	9.833645E-1	9.860243E-1	9.648004E-1	1.035444E+0	9.577632E-1	9.366987E-1	1.001443E+0	9.734411E-1	9.706689E-1	1.009611E+0	9.898295E-1	9.943723E-1	9.726624E-1	1.003056E+0	9.712183E-1	1.055948E+0	9.998124E-1	9.499158E-1	1.010158E+0	9.398184E-1	9.633390E-1	1.018447E+0	9.855634E-1	9.875543E-1	9.888144E-1	9.880517E-1	9.371605E-1	1.007767E+0	1.000533E+0	1.008779E+0	9.997110E-1	9.774552E-1	9.837522E-1	9.938786E-1	1.013442E+0	1.022650E+0	9.781120E-1	1.010263E+0	9.765077E-1	9.892723E-1	1.037161E+0	9.873927E-1	9.935453E-1	9.925827E-1	9.694665E-1	9.866065E-1	1.037333E+0	9.677676E-1	1.012472E+0	1.031693E+0	1.020021E+0	9.852893E-1	9.819529E-1	9.650292E-1	9.912115E-1	1.036175E+0	9.862904E-1	9.548060E-1	9.899802E-1	9.277094E-1	9.679537E-1	9.826288E-1	9.859327E-1	9.884486E-1	1.001218E+0	1.016617E+0	1.013055E+0	9.834887E-1	1.018829E+0	9.986810E-1	9.820744E-1	1.026598E+0	9.937057E-1	9.525517E-1	9.857560E-1	9.659641E-1	9.666172E-1	1.007659E+0	9.522440E-1	9.855438E-1	9.983418E-1	9.795261E-1	1.010249E+0	9.912593E-1	1.048549E+0	9.777850E-1	1.051462E+0	9.795911E-1	1.031015E+0	1.015502E+0	1.002547E+0	1.009021E+0	9.479155E-1	9.492350E-1
5.575420E+2	1.006135E+0	9.551957E-1	9.700146E-1	9.743508E-1	1.020385E+0	9.702288E-1	1.032354E+0	9.835845E-1	1.017350E+0	1.001466E+0	9.831296E-1	1.002440E+0	1.015228E+0	1.018495E+0	1.011117E+0	9.940370E-1	9.832791E-1	9.754609E-1	9.872580E-1	1.005776E+0	1.023141E+0	9.752587E-1	1.020486E+0	9.723430E-1	9.759392E-1	1.024481E+0	9.841313E-1	9.731349E-1	9.975755E-1	9.794152E-1	9.862897E-1	9.770503E-1	9.804690E-1	1.004490E+0	9.669411E-1	1.003349E+0	9.819645E-1	9.944716E-1	1.011391E+0	9.832679E-1	1.019976E+0	9.641545E-1	1.002729E+0	9.950984E-1	1.009019E+0	9.639706E-1	1.013405E+0	1.011538E+0	9.642907E-1	1.002584E+0	9.747322E-1	9.779588E-1	9.693355E-1	9.670116E-1	9.929044E-1	1.024053E+0	1.002565E+0	1.031373E+0	9.791535E-1	1.003171E+0	9.874532E-1	1.005906E+0	1.001580E+0	1.003904E+0	1.020190E+0	1.007688E+0	1.015360E+0	1.020127E+0	9.980213E-1	9.963898E-1	1.006645E+0	1.017332E+0	9.886256E-1	9.716669E-1	9.748719E-1	1.011195E+0	9.675617E-1	9.943200E-1	9.972599E-1	1.015772E+0	1.008444E+0	1.018902E+0	9.834907E-1	9.900587E-1	9.509265E-1	1.002385E+0	9.900805E-1	1.013127E+0	9.626991E-1	1.013591E+0	9.890703E-1	9.786065E-1	9.774644E-1	1.016506E+0	9.756412E-1	9.959830E-1	1.015412E+0	1.039237E+0	9.770207E-1	9.670624E-1	9.797250E-1	1.018185E+0	1.021934E+0	1.049668E+0	9.657721E-1	1.030824E+0	9.562881E-1	9.896923E-1	9.630004E-1	1.020378E+0	1.022892E+0	9.817517E-1	9.980802E-1	1.003283E+0	1.008921E+0	9.957347E-1	9.680431E-1	1.005763E+0	9.990588E-1	1.003939E+0	9.969722E-1	1.010420E+0	1.033102E+0	1.022848E+0	9.812956E-1	9.954199E-1	9.714777E-1	9.813814E-1	9.783939E-1	9.863833E-1	1.021284E+0	9.713429E-1	9.646934E-1	9.744487E-1	1.032036E+0	9.952862E-1	1.001896E+0	1.002884E+0	9.922822E-1	1.004580E+0	9.772194E-1	9.897469E-1	9.735939E-1	9.879787E-1	9.892382E-1	9.845836E-1	9.774985E-1	9.996043E-1	1.015101E+0	9.858325E-1	1.062195E+0	9.899841E-1	1.038426E+0	9.992937E-1	9.936528E-1	1.013403E+0	1.008804E+0	9.869654E-1	9.986893E-1	9.994307E-1	9.680995E-1	9.790399E-1	9.657867E-1	9.913961E-1	9.797657E-1	1.031414E+0	1.003758E+0	1.004959E+0	1.065759E+0	1.056755E+0	1.073385E+0
5.580060E+2	1.007091E+0	1.012483E+0	9.826271E-1	1.013045E+0	9.885919E-1	9.919069E-1	1.008127E+0	1.013500E+0	9.595489E-1	9.848815E-1	9.780799E-1	1.006878E+0	9.984105E-1	9.956077E-1	9.707052E-1	9.939673E-1	1.004802E+0	9.914188E-1	1.016599E+0	9.814389E-1	1.003607E+0	1.030431E+0	9.839038E-1	1.002504E+0	1.004847E+0	9.852740E-1	1.029640E+0	9.849669E-1	1.021223E+0	9.528401E-1	9.902627E-1	1.006385E+0	9.853590E-1	1.008941E+0	1.029457E+0	1.036252E+0	1.068087E+0	1.003657E+0	1.024746E+0	9.827535E-1	1.010363E+0	9.940692E-1	1.073426E+0	9.474914E-1	9.884181E-1	1.005638E+0	9.972677E-1	9.702013E-1	9.933241E-1	9.474172E-1	1.003066E+0	1.012991E+0	1.007348E+0	1.030941E+0	9.907675E-1	1.008852E+0	9.811785E-1	9.805042E-1	1.006304E+0	1.018096E+0	1.023580E+0	9.689575E-1	1.022892E+0	9.876377E-1	1.017788E+0	1.011771E+0	9.972934E-1	1.004581E+0	1.002870E+0	9.776542E-1	9.915619E-1	1.015564E+0	9.970476E-1	9.998981E-1	1.015490E+0	1.008182E+0	1.024460E+0	1.025713E+0	9.716832E-1	1.004195E+0	9.967947E-1	1.000759E+0	1.022248E+0	9.882439E-1	1.011684E+0	1.009817E+0	1.020990E+0	9.678925E-1	9.735106E-1	1.017928E+0	1.002505E+0	9.674544E-1	9.757714E-1	1.034741E+0	9.911565E-1	9.874453E-1	1.038676E+0	9.911346E-1	9.660562E-1	9.944927E-1	1.015867E+0	1.008848E+0	9.880217E-1	9.899074E-1	1.020125E+0	1.015893E+0	1.046884E+0	1.000586E+0	9.600548E-1	9.985521E-1	1.004322E+0	9.932297E-1	1.006000E+0	1.046916E+0	1.018661E+0	9.838524E-1	1.028136E+0	9.768069E-1	1.011623E+0	9.786523E-1	1.042167E+0	1.019867E+0	9.596646E-1	9.535474E-1	9.858596E-1	1.007538E+0	1.040254E+0	9.683093E-1	1.067233E+0	1.020719E+0	1.009620E+0	9.802884E-1	9.683718E-1	9.675487E-1	1.012466E+0	9.885391E-1	1.012840E+0	9.908391E-1	1.034157E+0	9.749880E-1	9.698755E-1	1.048323E+0	1.032705E+0	1.033961E+0	1.002138E+0	9.506955E-1	9.972102E-1	9.847376E-1	9.807567E-1	9.960936E-1	9.918859E-1	1.007250E+0	9.965252E-1	1.028796E+0	1.003123E+0	1.023234E+0	9.996144E-1	1.025169E+0	9.860789E-1	9.586601E-1	1.024901E+0	9.928898E-1	1.042580E+0	9.737055E-1	1.038582E+0	1.009096E+0	1.018365E+0	1.020200E+0	9.875135E-1	9.869853E-1	9.916845E-1
5.585160E+2	1.014198E+0	1.078985E+0	1.009923E+0	1.008261E+0	9.978906E-1	9.861793E-1	9.816758E-1	1.011383E+0	1.000575E+0	1.034638E+0	9.849573E-1	1.010989E+0	9.950518E-1	9.611071E-1	1.049987E+0	9.899076E-1	1.013740E+0	1.034186E+0	9.978561E-1	9.977193E-1	1.007296E+0	1.017703E+0	1.004390E+0	9.780624E-1	1.018139E+0	9.890963E-1	1.012528E+0	1.011000E+0	1.038608E+0	1.003194E+0	1.001635E+0	9.816806E-1	1.016365E+0	9.814374E-1	1.075956E+0	1.047591E+0	9.820974E-1	9.986121E-1	1.019626E+0	9.809871E-1	1.001685E+0	1.037427E+0	9.897702E-1	9.904663E-1	1.063062E+0	1.059210E+0	9.990992E-1	1.011172E+0	1.007309E+0	9.786428E-1	1.008897E+0	9.981520E-1	1.005721E+0	9.990843E-1	9.811295E-1	1.024975E+0	9.693194E-1	1.018195E+0	1.019074E+0	9.527979E-1	1.020512E+0	9.908227E-1	1.012672E+0	1.030755E+0	1.015539E+0	1.042789E+0	1.041167E+0	9.865812E-1	1.023961E+0	1.014555E+0	1.027530E+0	1.000249E+0	1.010595E+0	9.828719E-1	1.055738E+0	1.044697E+0	9.824579E-1	9.714460E-1	1.019010E+0	9.871891E-1	1.011844E+0	1.029312E+0	1.021341E+0	9.863601E-1	9.992756E-1	1.036591E+0	9.751170E-1	9.784254E-1	1.008584E+0	9.867733E-1	1.021682E+0	1.017432E+0	1.006822E+0	9.871496E-1	9.956365E-1	1.053476E+0	9.401346E-1	9.643780E-1	1.040824E+0	1.027941E+0	1.011006E+0	1.000989E+0	1.028648E+0	1.011121E+0	1.006969E+0	9.993339E-1	9.847940E-1	1.032830E+0	1.042653E+0	9.808385E-1	1.018015E+0	1.008988E+0	9.989590E-1	9.812105E-1	1.007644E+0	9.878965E-1	1.032630E+0	9.652835E-1	9.855064E-1	1.040453E+0	1.027979E+0	1.019565E+0	1.039790E+0	1.001551E+0	1.025711E+0	1.031365E+0	9.929612E-1	1.034095E+0	9.887318E-1	9.823686E-1	1.000255E+0	1.002060E+0	9.833254E-1	1.029580E+0	9.621090E-1	9.874511E-1	1.048966E+0	1.019548E+0	9.572171E-1	9.891814E-1	1.045207E+0	1.014313E+0	1.060716E+0	9.945408E-1	1.038320E+0	1.032674E+0	1.035665E+0	9.948782E-1	1.035566E+0	9.961528E-1	1.005138E+0	9.919204E-1	1.025115E+0	1.012491E+0	1.027031E+0	1.018125E+0	9.801904E-1	9.857921E-1	1.011970E+0	9.911081E-1	1.006427E+0	1.000951E+0	9.861738E-1	1.018581E+0	1.011210E+0	9.729260E-1	1.014568E+0	9.752749E-1	9.935848E-1	1.016418E+0	9.572408E-1
5.590160E+2	1.005675E+0	9.829042E-1	1.047995E+0	1.004162E+0	9.915281E-1	1.049174E+0	1.028785E+0	1.053009E+0	1.048163E+0	1.016819E+0	1.022684E+0	1.010424E+0	1.011409E+0	1.027854E+0	1.039803E+0	1.029176E+0	1.070232E+0	9.761871E-1	1.029323E+0	1.028089E+0	1.038515E+0	9.989419E-1	1.043055E+0	1.011768E+0	1.035370E+0	1.016894E+0	1.015151E+0	1.015339E+0	1.034152E+0	9.930675E-1	1.039298E+0	1.034971E+0	1.024918E+0	1.031322E+0	1.026572E+0	9.839946E-1	1.019999E+0	1.051852E+0	9.995123E-1	9.930104E-1	9.916041E-1	1.019574E+0	1.024119E+0	1.008380E+0	1.016002E+0	1.061487E+0	1.000423E+0	1.037950E+0	1.053821E+0	1.041270E+0	9.841256E-1	1.056977E+0	1.033692E+0	1.012073E+0	1.041972E+0	9.739415E-1	1.029237E+0	1.070060E+0	1.040950E+0	1.008144E+0	9.961442E-1	1.018580E+0	1.052495E+0	1.012012E+0	1.008993E+0	1.051951E+0	9.845377E-1	1.016664E+0	1.037064E+0	9.916729E-1	9.792152E-1	1.030482E+0	1.062957E+0	1.023468E+0	1.039533E+0	1.027881E+0	1.062100E+0	9.973400E-1	1.014037E+0	1.065756E+0	1.036576E+0	1.040329E+0	1.034142E+0	9.914740E-1	1.015789E+0	1.032152E+0	1.047567E+0	1.052268E+0	1.022658E+0	1.021686E+0	1.024508E+0	1.056898E+0	9.750589E-1	1.014402E+0	1.004450E+0	1.019557E+0	1.016013E+0	1.014538E+0	9.667917E-1	1.053778E+0	9.988778E-1	9.969643E-1	1.016638E+0	1.011846E+0	1.020224E+0	1.004105E+0	9.445029E-1	9.910502E-1	1.010446E+0	9.885184E-1	1.019649E+0	1.016174E+0	9.750270E-1	1.047156E+0	1.018962E+0	1.017998E+0	1.028285E+0	1.017518E+0	1.033557E+0	9.921513E-1	1.017966E+0	1.004403E+0	1.049342E+0	1.047352E+0	1.055132E+0	1.014677E+0	1.026641E+0	1.037596E+0	9.615829E-1	1.045478E+0	1.004125E+0	1.047509E+0	1.077724E+0	1.023162E+0	1.026334E+0	1.011505E+0	9.854753E-1	1.009799E+0	1.026928E+0	1.086301E+0	9.991236E-1	1.027666E+0	1.015830E+0	9.980344E-1	1.009973E+0	1.008348E+0	1.021742E+0	9.587990E-1	1.007889E+0	1.050739E+0	9.815954E-1	1.033103E+0	1.004836E+0	1.020146E+0	1.032762E+0	1.018477E+0	1.016517E+0	9.687440E-1	1.031096E+0	1.003793E+0	1.052770E+0	9.980198E-1	1.073200E+0	1.013321E+0	1.003272E+0	9.999594E-1	1.023946E+0	1.005110E+0	1.013147E+0	1.018665E+0	1.006659E+0
5.595110E+2	1.031066E+0	1.027101E+0	1.076582E+0	1.036738E+0	1.026013E+0	1.021363E+0	9.831455E-1	9.976120E-1	1.032180E+0	1.027935E+0	1.012747E+0	1.065628E+0	1.032387E+0	1.028372E+0	9.833266E-1	9.931228E-1	1.024519E+0	1.047958E+0	1.061980E+0	9.902900E-1	1.037995E+0	1.009153E+0	1.015637E+0	1.013614E+0	1.029762E+0	1.035797E+0	9.842732E-1	1.002249E+0	1.027571E+0	1.071968E+0	9.877484E-1	1.003489E+0	1.056009E+0	1.016229E+0	1.012412E+0	1.012769E+0	1.014529E+0	1.035325E+0	1.024883E+0	1.081749E+0	9.928897E-1	1.031255E+0	1.011054E+0	1.084143E+0	9.915628E-1	9.989530E-1	1.055917E+0	1.023332E+0	1.037001E+0	9.985119E-1	9.895563E-1	1.014098E+0	1.048868E+0	1.019216E+0	1.023188E+0	1.011485E+0	1.019512E+0	9.983745E-1	9.760122E-1	1.000138E+0	1.030425E+0	1.021589E+0	1.001905E+0	1.003169E+0	1.012812E+0	1.007500E+0	9.830618E-1	1.103978E+0	9.947477E-1	1.035681E+0	9.990608E-1	1.039750E+0	9.949731E-1	1.032031E+0	1.014613E+0	1.035258E+0	1.034197E+0	1.032025E+0	1.008515E+0	9.769199E-1	1.010634E+0	9.991491E-1	1.027851E+0	1.005063E+0	1.013872E+0	9.899259E-1	9.897944E-1	1.016616E+0	1.025719E+0	1.037639E+0	1.003277E+0	9.774676E-1	1.054056E+0	9.957585E-1	1.068104E+0	1.014529E+0	1.034149E+0	1.028551E+0	1.023868E+0	1.055126E+0	1.061997E+0	1.021391E+0	1.019671E+0	1.032782E+0	9.823002E-1	1.008443E+0	1.039712E+0	1.011125E+0	1.025507E+0	1.042923E+0	9.600044E-1	1.000686E+0	1.057429E+0	1.008813E+0	9.989410E-1	1.038676E+0	1.027230E+0	1.079852E+0	1.003434E+0	1.020392E+0	1.055385E+0	1.026398E+0	9.965037E-1	1.078772E+0	9.942242E-1	1.000566E+0	1.027127E+0	9.989379E-1	1.056504E+0	1.054541E+0	1.050636E+0	1.007741E+0	1.035568E+0	1.040547E+0	1.008400E+0	1.028472E+0	1.054801E+0	9.977618E-1	1.028243E+0	9.990045E-1	1.045286E+0	9.658858E-1	9.912764E-1	9.962909E-1	1.022549E+0	9.995584E-1	1.003712E+0	1.030630E+0	1.010043E+0	9.935767E-1	1.035785E+0	1.023725E+0	9.893999E-1	9.954034E-1	9.922962E-1	1.029632E+0	1.030763E+0	1.024280E+0	1.026492E+0	1.007208E+0	9.894903E-1	1.017346E+0	1.011686E+0	9.760363E-1	1.036598E+0	9.977274E-1	1.039140E+0	1.012370E+0	1.016512E+0	1.014202E+0	1.027802E+0
5.600520E+2	1.008192E+0	1.008766E+0	1.004106E+0	9.161209E-1	1.041798E+0	1.030094E+0	9.801463E-1	9.482176E-1	1.013146E+0	9.925968E-1	1.010783E+0	1.017099E+0	1.021819E+0	1.015056E+0	1.033569E+0	9.995168E-1	1.001778E+0	1.042716E+0	9.809427E-1	1.010385E+0	1.011006E+0	1.037829E+0	9.628587E-1	1.038974E+0	1.037143E+0	9.834947E-1	1.021993E+0	1.029833E+0	9.682032E-1	1.019529E+0	9.916551E-1	1.015477E+0	1.002272E+0	9.909559E-1	1.032621E+0	9.821931E-1	1.013899E+0	9.730430E-1	9.978939E-1	1.019293E+0	1.036821E+0	9.841730E-1	1.017712E+0	1.042229E+0	1.006915E+0	9.821427E-1	1.018861E+0	9.953726E-1	1.002524E+0	9.970279E-1	9.978516E-1	1.045544E+0	1.020244E+0	1.033724E+0	9.944346E-1	9.973054E-1	1.058632E+0	1.001087E+0	9.855436E-1	1.003719E+0	9.892263E-1	9.907849E-1	1.005190E+0	9.916862E-1	1.024005E+0	9.787049E-1	1.014043E+0	1.041502E+0	9.988789E-1	1.032676E+0	1.004122E+0	1.021509E+0	1.047903E+0	9.479621E-1	9.856480E-1	1.012463E+0	9.582762E-1	9.883784E-1	9.982073E-1	1.000709E+0	9.915019E-1	9.887998E-1	1.000309E+0	1.033962E+0	1.056941E+0	1.000154E+0	9.598042E-1	1.000360E+0	1.078681E+0	1.007353E+0	1.013112E+0	9.883696E-1	9.380648E-1	9.916074E-1	1.007410E+0	9.707208E-1	1.008883E+0	9.817167E-1	9.693904E-1	1.004720E+0	9.859346E-1	9.859943E-1	9.850969E-1	1.030378E+0	9.811992E-1	1.025745E+0	1.017153E+0	9.997287E-1	1.033583E+0	1.022358E+0	1.046272E+0	9.924642E-1	1.037851E+0	1.044177E+0	1.026365E+0	1.032545E+0	9.878962E-1	9.668071E-1	1.032699E+0	9.948392E-1	9.869221E-1	9.851172E-1	1.033568E+0	1.006405E+0	9.734191E-1	9.977189E-1	1.008107E+0	1.009042E+0	9.996650E-1	9.809677E-1	9.873621E-1	9.947002E-1	9.829784E-1	1.039794E+0	1.000164E+0	1.010236E+0	9.954262E-1	1.005446E+0	1.028067E+0	9.990050E-1	1.032212E+0	9.892263E-1	1.017386E+0	9.948211E-1	9.997527E-1	1.007433E+0	1.030184E+0	1.007143E+0	9.971219E-1	1.008515E+0	1.009030E+0	1.014264E+0	1.002554E+0	1.006388E+0	1.024491E+0	1.000016E+0	9.950297E-1	1.009271E+0	1.010038E+0	1.006728E+0	1.026233E+0	9.952128E-1	9.884447E-1	1.012181E+0	1.001613E+0	9.800985E-1	9.727334E-1	1.001241E+0	1.027576E+0	9.492682E-1	9.844422E-1
5.605090E+2	9.752357E-1	9.950011E-1	9.663845E-1	1.056432E+0	9.616719E-1	1.014663E+0	1.033675E+0	1.000305E+0	1.009205E+0	1.025016E+0	9.993003E-1	9.889300E-1	1.000183E+0	1.008006E+0	9.942651E-1	1.022900E+0	9.649667E-1	1.007398E+0	1.042234E+0	9.924119E-1	9.600006E-1	9.896643E-1	9.528045E-1	1.009859E+0	9.815572E-1	1.042184E+0	1.015500E+0	1.010373E+0	9.859890E-1	9.932528E-1	1.017538E+0	9.704927E-1	1.057697E+0	1.002416E+0	1.009089E+0	1.017793E+0	9.690651E-1	9.893627E-1	9.694433E-1	1.047382E+0	9.852272E-1	1.009064E+0	9.895353E-1	9.842273E-1	9.714717E-1	1.004206E+0	1.014808E+0	9.856351E-1	1.007432E+0	1.014161E+0	1.033647E+0	9.913109E-1	1.020794E+0	9.868227E-1	1.028724E+0	1.023551E+0	1.004172E+0	9.844076E-1	9.942412E-1	9.943171E-1	9.963369E-1	1.045533E+0	9.480675E-1	9.707821E-1	1.024965E+0	1.003965E+0	9.931619E-1	9.764429E-1	1.037354E+0	9.734915E-1	9.834401E-1	9.761868E-1	9.744780E-1	1.008319E+0	1.010000E+0	9.816229E-1	9.972433E-1	1.029131E+0	1.008791E+0	9.404783E-1	9.965551E-1	1.019281E+0	1.020061E+0	9.652067E-1	1.013639E+0	1.020482E+0	9.939311E-1	1.004365E+0	9.899418E-1	9.998302E-1	9.992680E-1	9.975586E-1	1.052428E+0	1.020249E+0	1.016379E+0	9.581224E-1	1.066426E+0	1.009917E+0	9.724270E-1	9.588017E-1	1.011243E+0	9.970874E-1	9.991684E-1	1.000108E+0	9.819570E-1	1.013116E+0	1.022235E+0	9.897994E-1	1.016259E+0	1.006830E+0	9.677291E-1	1.014741E+0	9.497002E-1	9.770162E-1	9.752844E-1	1.048256E+0	1.000751E+0	9.650821E-1	1.021524E+0	9.884895E-1	9.382249E-1	9.619674E-1	9.595850E-1	9.740627E-1	1.026436E+0	9.511859E-1	9.473651E-1	9.620118E-1	9.930346E-1	1.013728E+0	1.009940E+0	1.004369E+0	1.006785E+0	9.888854E-1	1.008234E+0	1.003903E+0	9.751006E-1	1.020363E+0	1.008641E+0	9.644446E-1	9.801977E-1	1.019002E+0	1.019311E+0	1.010051E+0	1.007275E+0	1.003585E+0	9.881748E-1	1.010608E+0	9.910475E-1	1.035265E+0	1.018271E+0	1.017150E+0	9.900432E-1	9.987407E-1	9.534932E-1	1.012690E+0	9.930640E-1	9.900254E-1	9.960642E-1	9.875252E-1	9.681894E-1	9.816897E-1	9.890875E-1	9.963286E-1	9.826625E-1	1.021679E+0	9.898526E-1	9.932371E-1	9.954161E-1	9.915543E-1	9.327439E-1
5.610010E+2	9.642229E-1	1.002397E+0	9.668100E-1	1.011723E+0	1.005557E+0	1.006275E+0	1.043554E+0	1.021328E+0	1.032279E+0	9.894407E-1	1.017991E+0	9.918052E-1	9.901617E-1	1.007197E+0	9.954260E-1	1.007167E+0	9.517987E-1	1.001230E+0	1.006461E+0	9.903776E-1	1.002604E+0	9.822563E-1	1.010653E+0	9.893388E-1	1.030161E+0	9.962791E-1	9.992538E-1	9.888713E-1	9.761395E-1	1.037730E+0	1.037330E+0	1.031296E+0	9.935672E-1	1.003450E+0	1.004258E+0	9.726280E-1	9.777054E-1	9.808344E-1	1.017253E+0	9.645305E-1	1.029174E+0	9.833744E-1	9.865446E-1	1.062497E+0	9.994040E-1	9.834576E-1	9.664398E-1	9.902001E-1	9.737477E-1	1.015778E+0	1.034377E+0	9.866337E-1	9.859854E-1	1.035395E+0	9.951880E-1	9.894072E-1	9.676560E-1	9.861329E-1	1.007281E+0	9.865526E-1	1.013510E+0	1.010250E+0	1.007696E+0	1.006638E+0	9.587046E-1	1.035498E+0	1.001951E+0	9.604559E-1	9.814348E-1	1.032207E+0	1.032362E+0	9.652479E-1	9.627889E-1	1.032805E+0	9.691115E-1	9.912065E-1	9.888260E-1	9.930025E-1	9.717009E-1	1.030373E+0	9.911405E-1	1.020116E+0	9.764223E-1	9.906826E-1	9.848795E-1	9.848191E-1	1.034708E+0	9.978749E-1	9.922879E-1	9.890388E-1	9.670275E-1	1.015564E+0	1.036536E+0	9.943828E-1	9.876362E-1	1.001415E+0	9.930727E-1	1.013274E+0	1.023711E+0	9.841619E-1	1.000349E+0	1.025006E+0	9.934828E-1	9.545242E-1	9.927364E-1	1.007673E+0	1.030808E+0	1.043292E+0	1.022979E+0	1.009683E+0	1.017246E+0	1.016182E+0	1.013274E+0	9.722709E-1	1.006476E+0	9.970030E-1	1.026484E+0	1.046303E+0	9.688745E-1	1.004359E+0	1.005304E+0	1.021501E+0	1.002133E+0	9.931632E-1	9.889756E-1	1.012657E+0	1.016291E+0	9.816787E-1	1.020732E+0	1.028029E+0	1.029402E+0	1.062805E+0	1.061255E+0	1.005932E+0	9.977676E-1	9.781815E-1	1.000313E+0	1.041079E+0	1.017183E+0	1.002695E+0	1.021104E+0	9.688987E-1	9.792501E-1	1.021161E+0	9.919833E-1	1.018497E+0	1.012042E+0	9.883659E-1	1.003826E+0	9.826381E-1	9.801293E-1	9.995168E-1	1.024955E+0	1.028301E+0	9.837538E-1	1.023496E+0	9.959914E-1	1.016212E+0	9.949620E-1	1.011456E+0	1.017754E+0	9.923238E-1	9.867866E-1	9.882698E-1	1.023297E+0	1.007178E+0	1.012563E+0	1.008288E+0	9.945231E-1	1.013997E+0	1.070884E+0
