Photon Energy (eV)	#1	#2	#3	#4	#5	#6	#7	#8	#9	#10	#11	#12	#13	#14	#15	#16	#17	#18	#19	#20	#21	#22	#23	#24	#25	#26	#27	#28	#29	#30	#31	#32	#33	#34	#35	#36	#37	#38	#39	#40	#41	#42	#43	#44	#45	#46	#47	#48	#49	#50	#51	#52	#53	#54	#55	#56	#57	#58	#59	#60	#61	#62	#63	#64	#65	#66	#67	#68	#69	#70	#71	#72	#73	#74	#75	#76	#77	#78	#79	#80	#81	#82	#83	#84	#85	#86	#87	#88	#89	#90	#91	#92	#93	#94	#95	#96	#97	#98	#99	#100	#101	#102	#103	#104	#105	#106	#107	#108	#109	#110	#111	#112	#113	#114	#115	#116	#117	#118	#119	#120	#121	#122	#123	#124	#125	#126	#127	#128	#129	#130	#131	#132	#133	#134	#135	#136	#137	#138	#139	#140	#141	#142	#143	#144	#145	#146	#147	#148	#149	#150	#151	#152	#153	#154	#155	#156	#157	#158	#159	#160	#161	#162	#163	#164	#165	#166	#167	#168	#169	#170	#171	
5.300160E+2	-5.436518E-3	-6.456566E-3	-1.382416E-2	-6.337949E-3	-4.759370E-3	-4.689502E-3	-3.264412E-3	-2.641590E-3	-3.901243E-3	-7.266023E-3	-3.607719E-3	2.420387E-4	-7.401158E-3	-3.724472E-3	3.118002E-3	-6.601922E-3	2.381170E-3	-5.822538E-3	-6.036370E-3	-4.697218E-3	-3.526749E-3	-1.235350E-2	-9.527846E-3	-2.948099E-3	-3.869299E-3	-8.724949E-3	3.046391E-4	-7.023137E-3	3.167000E-3	-1.002388E-3	-5.362003E-3	-9.072965E-3	-1.561169E-2	-9.230474E-3	-9.354544E-3	-2.577760E-4	-7.514828E-3	-9.365370E-3	-1.633236E-2	-6.813713E-4	7.052661E-3	-1.260731E-2	-8.533185E-3	-5.141752E-3	-3.327391E-3	-1.331772E-2	-5.773668E-3	-1.115675E-2	-1.125841E-2	-9.643148E-3	-3.957484E-3	-1.306866E-2	3.824938E-3	-8.013091E-3	-1.489608E-2	4.413998E-3	-1.602614E-3	-7.416312E-3	-3.638871E-3	-1.073841E-2	-8.888264E-3	-8.248130E-3	7.845775E-3	-3.365850E-3	-6.773136E-3	-3.185722E-3	-2.441489E-3	-2.975137E-3	-4.486348E-3	-2.702616E-4	-4.409990E-3	-2.517925E-3	-9.536162E-3	-1.554516E-2	-1.228528E-2	2.989124E-3	-8.903212E-3	-6.822829E-3	-8.993933E-3	-1.233636E-2	-5.040965E-3	-4.277959E-3	-6.615174E-3	4.029664E-4	-4.603283E-3	-5.578824E-3	-7.995913E-3	-8.541745E-3	-1.241781E-2	-5.589596E-3	-4.114508E-3	-8.652939E-3	-4.229670E-3	-9.212874E-3	-7.236903E-3	-1.196324E-2	3.885473E-3	-7.438353E-3	-1.242913E-3	-4.849196E-3	-7.541263E-3	-1.249201E-2	-3.472138E-3	-5.006245E-3	-8.725373E-3	-2.939754E-3	-8.854974E-3	-4.563102E-3	-7.823046E-3	-9.541674E-3	9.611621E-4	-1.124369E-2	-1.160423E-2	-7.057182E-3	-1.018356E-2	-7.921521E-3	-1.035006E-2	-2.948986E-3	-7.693376E-3	-1.233149E-2	-9.877378E-3	-1.298045E-2	-9.535214E-3	-6.476820E-3	-2.815779E-3	-1.601404E-3	-4.995898E-3	-1.214418E-2	-4.536241E-4	-1.124903E-2	-4.440101E-3	-1.627742E-2	-8.093997E-3	-6.643213E-3	-9.604574E-3	-9.302940E-3	1.257884E-3	-7.004549E-3	-5.215485E-3	-1.015425E-2	-9.444747E-3	-4.048968E-3	4.147067E-4	-1.030235E-2	-1.309976E-2	-2.870748E-3	-2.684157E-3	-4.034210E-3	4.394175E-3	1.887926E-3	-8.329032E-3	-3.677952E-3	-6.752050E-3	-8.143988E-3	-2.303669E-3	-5.333538E-3	-1.546571E-2	-3.944745E-3	-7.745020E-3	-7.169039E-3	-2.815510E-3	-1.987073E-2	4.129635E-3	-1.504990E-2	-6.446870E-3	-8.009933E-3	-1.152065E-2	-6.158467E-3	-7.827991E-3	-9.644694E-3	-1.807056E-2
5.305130E+2	-8.961464E-3	-4.594822E-3	-1.648057E-2	-9.604012E-3	-8.168837E-3	7.951731E-4	-5.738078E-3	-5.052568E-3	-5.030194E-3	-2.995544E-3	2.551822E-3	-1.111869E-2	-3.148961E-3	-3.068612E-3	-4.991162E-3	4.137079E-3	-6.963948E-3	-4.003718E-3	-8.589957E-3	-2.447009E-3	-3.399785E-3	2.102841E-3	-1.410953E-3	-1.523100E-2	-7.692303E-3	1.527322E-4	-1.054754E-4	-3.971339E-3	1.611286E-4	-4.916431E-3	-3.707740E-3	1.434076E-3	3.304168E-3	-5.261552E-3	1.067482E-3	-6.829402E-3	-7.896385E-3	-5.242390E-3	-1.101447E-2	-1.081611E-2	-4.787630E-3	-1.545230E-3	-4.458439E-3	-3.231968E-3	-1.224629E-2	-1.151567E-4	-5.153991E-3	-1.199257E-3	-6.919563E-3	-9.543550E-3	3.639357E-3	7.771170E-4	-1.897706E-3	-7.442264E-3	-7.717087E-3	-2.303259E-3	-7.371363E-3	2.799079E-3	-8.631021E-3	-5.121864E-3	-6.589967E-3	-1.487033E-3	-4.571529E-3	-2.771679E-3	-1.123838E-2	-1.167456E-2	-9.882627E-3	-1.708192E-3	-1.324745E-2	-1.234273E-2	-3.797644E-3	-3.444001E-3	-8.294425E-3	-2.786634E-3	-6.060035E-3	1.377130E-3	1.070780E-3	-3.666509E-3	-1.099025E-3	9.008100E-5	3.755992E-3	-4.172025E-3	-7.795966E-3	-7.864795E-3	-1.179823E-2	-9.720684E-3	-7.689164E-3	-9.361970E-3	-2.183729E-3	-2.974147E-3	1.884738E-3	-3.359569E-3	-8.545013E-3	-2.036375E-3	-4.823053E-3	-3.800131E-3	-6.217849E-3	-9.117820E-3	-6.391978E-3	-7.458218E-4	-7.400325E-3	-2.913772E-3	-6.451106E-3	4.927805E-4	-4.443588E-3	-1.095344E-2	-2.866073E-3	-9.401903E-4	6.466401E-5	9.634927E-4	3.753103E-3	2.643006E-4	8.713521E-4	-1.115111E-2	-4.523521E-3	-4.653779E-3	-8.311272E-3	-9.574375E-3	1.471528E-3	-5.934425E-3	3.027412E-3	8.983617E-3	-2.638271E-3	-7.420200E-3	-2.690026E-3	1.301642E-4	-6.532166E-3	-3.948054E-3	-1.077975E-2	-2.771311E-3	2.752567E-3	-9.949277E-3	-1.132034E-2	-8.986764E-3	-7.399802E-3	-1.414586E-2	1.984447E-3	-9.598247E-3	-5.784982E-3	-2.756751E-3	-3.580927E-3	2.213736E-3	-3.495296E-3	-1.614800E-3	-1.234716E-2	-8.312989E-3	-2.044844E-4	-1.097286E-2	-6.071055E-3	-4.815335E-3	3.812471E-3	-5.590434E-3	-1.119494E-2	-4.478296E-3	-4.127602E-3	-8.715280E-3	-5.242357E-3	-3.276373E-3	-8.868146E-3	-2.743425E-3	-3.749181E-3	2.918885E-3	-1.447565E-2	-6.876744E-3	-5.308183E-3	-1.213158E-3	-4.993855E-3	-2.060421E-4	-9.443736E-3	1.072234E-3	-6.144123E-3
5.310150E+2	-7.652218E-3	-3.715919E-4	1.268413E-3	-3.863694E-3	2.453715E-3	1.451831E-3	-3.029141E-3	-1.903212E-3	-1.227668E-3	-4.955921E-3	-2.268628E-3	-3.356342E-3	-3.562368E-3	-1.336065E-3	-6.813955E-3	-8.152217E-3	3.185201E-3	5.864262E-3	-5.807073E-3	-1.246538E-2	-4.732865E-4	2.709272E-3	-2.172001E-3	-6.171254E-3	-2.528327E-3	3.372053E-3	-1.065930E-2	8.628782E-4	-1.388236E-2	-2.780166E-3	-5.078822E-4	3.830623E-3	-3.233566E-3	-1.707588E-4	3.364085E-3	3.926152E-3	2.527648E-3	-4.617947E-3	4.301148E-5	5.473280E-3	-1.068532E-2	-3.170874E-3	7.661020E-4	-1.145410E-4	-3.669929E-3	-4.562792E-3	-4.538183E-3	-4.825594E-3	-7.347423E-3	-1.108619E-2	-7.755789E-3	2.997066E-4	-2.269382E-3	3.641251E-3	-2.875843E-3	-1.117752E-2	1.598627E-3	-1.465620E-2	-4.545456E-3	6.029985E-3	-9.978307E-4	1.710177E-3	-8.653096E-3	2.003018E-3	1.441046E-3	4.943931E-4	1.281278E-3	2.396239E-3	7.287748E-4	-4.949150E-4	-1.034551E-2	1.421052E-3	2.113063E-3	-4.655154E-4	-6.507715E-3	1.026692E-2	-5.801230E-3	-1.017920E-3	6.820477E-3	-5.940484E-3	-9.803760E-3	-4.692525E-3	3.092339E-3	-1.578142E-3	7.168929E-3	2.147342E-3	4.640737E-3	-1.254063E-3	-3.263935E-3	-9.114866E-3	-5.695654E-3	-5.598133E-3	-5.500094E-3	-5.766527E-3	-2.639917E-3	-1.697840E-3	-2.642495E-3	-5.892629E-4	-6.868050E-3	-6.902307E-3	-4.770023E-3	-3.203657E-3	-9.599168E-4	-2.014488E-3	6.233473E-3	-2.691151E-3	1.065009E-2	-3.694830E-3	4.127761E-3	-8.786671E-3	-1.850039E-3	-6.233506E-4	-1.201869E-2	-4.688035E-3	-5.547433E-3	-7.009394E-3	-3.867149E-3	4.190637E-3	1.174791E-3	-1.635977E-3	-2.650510E-3	-6.182653E-3	-3.520392E-3	-1.625587E-2	-2.564789E-3	-3.406297E-3	1.982587E-3	-3.801429E-3	-5.738432E-3	-5.975775E-3	-5.137425E-3	-1.126904E-3	-3.489975E-3	-3.355255E-3	-8.035938E-3	-1.045763E-2	-3.378449E-3	1.564717E-3	-4.084575E-3	7.672490E-3	2.382395E-4	-6.318752E-3	4.414875E-3	-3.355264E-3	-1.029993E-2	-8.190826E-3	-9.588031E-3	-1.922297E-4	-7.962057E-3	-8.608376E-3	-4.827542E-3	-1.615011E-3	9.610885E-4	1.404618E-2	1.248067E-3	-2.026960E-3	1.309190E-3	-6.874825E-3	-2.487862E-3	-5.882154E-3	-6.854963E-3	-6.123347E-4	-3.229893E-3	3.176293E-4	-4.651602E-3	-8.687148E-3	-8.900852E-3	1.703972E-3	-5.190031E-4	-6.965596E-3	-1.183332E-2
5.315130E+2	6.405326E-3	5.645186E-3	4.723014E-3	-3.513128E-4	-4.467718E-3	-1.123456E-3	-8.309243E-4	-3.292932E-3	8.786976E-3	-1.185701E-3	3.907875E-3	6.715302E-4	-2.935866E-3	-4.449148E-3	1.113951E-3	7.123544E-3	-3.961082E-3	-4.953123E-3	3.964556E-3	2.630399E-3	2.469943E-3	-3.400741E-3	5.109400E-3	5.438392E-3	-4.671452E-3	-1.688186E-3	6.655443E-4	-1.508817E-4	3.037023E-3	-6.216379E-3	3.228177E-3	-3.736166E-3	2.159663E-4	4.386235E-3	7.703148E-4	-5.471758E-3	-2.765804E-3	-4.991004E-3	3.518717E-3	4.150733E-3	2.666832E-3	3.317446E-3	-3.092471E-3	-4.205673E-3	9.490527E-3	4.139734E-3	1.130858E-3	-4.218896E-3	1.243934E-2	4.836114E-3	5.056185E-3	-3.174727E-3	2.767685E-3	-1.719961E-3	-1.326145E-3	-1.545528E-3	-1.826982E-3	-1.411735E-4	4.700288E-3	1.244108E-3	1.013126E-2	8.201683E-4	-3.271196E-3	-4.857789E-3	1.561951E-3	6.959420E-3	2.361792E-4	1.955943E-3	6.835069E-3	5.039389E-3	-2.106801E-3	3.140724E-3	-6.310714E-5	-3.101619E-3	4.782709E-3	-6.587567E-3	1.339554E-4	-6.478599E-3	-6.712069E-3	-2.718541E-3	2.745918E-3	-4.595338E-3	-9.391933E-3	1.931581E-3	-1.615257E-3	7.652364E-3	-9.881829E-3	8.916481E-3	1.120702E-2	2.222321E-3	-1.451386E-3	-7.738174E-3	8.128104E-3	5.799488E-3	-5.042742E-3	-7.776588E-5	-1.158654E-2	3.760533E-3	5.853506E-3	-5.083975E-4	1.411274E-3	1.226100E-3	3.065005E-3	7.978359E-4	-7.866327E-3	1.056606E-2	-7.490955E-3	-6.500155E-3	-6.362482E-3	2.299347E-3	-1.154507E-2	-4.851670E-4	7.634462E-3	9.215269E-3	9.105852E-3	-3.803359E-3	1.068587E-2	-7.838863E-3	-3.375640E-3	4.473098E-3	-2.051154E-4	2.232508E-3	3.326663E-3	5.607646E-3	-1.299265E-3	4.106854E-4	3.122047E-5	-4.164943E-3	3.024118E-3	3.129972E-4	-6.120732E-4	1.202933E-2	-4.564393E-4	2.894016E-4	7.180491E-3	7.627619E-3	-3.252421E-3	-1.060691E-3	6.988182E-3	-7.267186E-3	-1.178179E-3	-6.704996E-3	-8.319462E-5	-3.500470E-4	6.567015E-3	-7.456552E-3	-8.860559E-3	5.358235E-4	2.345910E-3	8.791585E-4	1.418384E-3	8.050490E-3	5.684065E-3	2.942547E-3	-3.257314E-4	-1.286656E-4	1.456304E-3	6.687625E-3	5.507716E-3	5.226964E-3	2.498104E-3	3.223483E-3	2.766758E-3	-4.782020E-3	-3.002577E-3	1.252192E-2	1.334744E-2	-7.777740E-4	-3.792443E-4	2.718260E-4	-1.031311E-3
5.320070E+2	3.497481E-3	-7.224349E-4	1.263882E-2	5.453531E-3	1.387581E-2	-2.073649E-3	2.961656E-3	9.085567E-3	-5.964641E-3	6.279156E-3	-2.582768E-3	3.001490E-3	7.629219E-3	5.403669E-3	4.689382E-3	-1.202377E-3	2.887834E-3	2.088367E-3	3.043811E-3	5.468209E-3	2.629563E-3	2.989507E-3	7.066304E-3	7.615822E-3	1.015578E-2	-3.645623E-3	-3.494823E-3	-4.766576E-3	8.445653E-3	4.077448E-3	7.821373E-4	-4.023435E-4	3.690810E-3	1.121574E-2	-1.275035E-3	1.987905E-3	1.811531E-3	1.025522E-2	1.228684E-2	5.801730E-3	4.019811E-3	4.607132E-3	5.015572E-3	5.073832E-3	-4.010116E-3	5.425415E-3	-1.768587E-3	5.410524E-3	-1.972048E-4	6.613971E-3	-1.745322E-3	6.602027E-3	-2.017894E-3	5.310652E-3	1.070344E-2	-8.820872E-4	9.587389E-3	5.878194E-3	-6.604201E-3	6.379432E-3	3.491894E-4	4.417190E-4	3.724987E-3	6.059137E-3	1.103075E-3	-9.920633E-4	9.403835E-4	-7.609118E-4	1.017596E-3	-4.660375E-3	5.695632E-3	-8.402591E-3	8.113606E-3	1.198950E-2	1.220826E-2	-8.225991E-3	3.759553E-3	6.881832E-3	-2.188608E-3	7.762618E-3	9.869594E-4	4.486017E-4	3.954943E-3	2.631370E-3	5.883205E-3	1.881975E-3	2.517278E-3	2.029981E-3	5.701464E-4	-1.416984E-3	2.291805E-4	1.171098E-2	4.752878E-3	2.007453E-3	4.750429E-3	1.434527E-3	4.496930E-3	4.506602E-3	2.540941E-3	-4.970362E-3	3.048860E-3	1.100203E-2	-5.782129E-4	9.352979E-4	1.417183E-2	2.941063E-3	1.190316E-3	-1.643960E-3	-6.461012E-4	3.512768E-3	-3.902643E-4	-3.457482E-3	6.595772E-3	3.030777E-3	9.871307E-3	1.249029E-2	1.249338E-3	1.618666E-3	1.046600E-3	7.635569E-3	6.255081E-3	3.001913E-3	1.948936E-3	1.090522E-2	1.142271E-3	-2.075949E-3	1.774157E-3	1.117515E-2	4.416376E-3	3.288767E-3	1.432860E-3	4.092356E-4	5.037205E-3	5.985035E-3	1.992883E-3	5.479531E-3	-5.889976E-3	-2.024506E-3	1.947802E-3	4.963302E-3	-3.112583E-3	8.355986E-3	-5.624514E-3	2.688564E-3	1.190975E-2	1.266243E-2	4.908479E-3	-2.874027E-3	2.008460E-3	3.515275E-3	1.580617E-3	-3.975458E-3	2.963661E-3	-3.443732E-3	-7.525421E-4	6.037506E-4	2.157881E-3	4.707314E-3	8.827664E-3	-4.138352E-3	9.195654E-3	9.566023E-3	5.062824E-3	2.912914E-3	2.739798E-3	4.061414E-3	-4.932550E-3	6.751993E-4	4.164885E-3	9.935554E-3	-1.158394E-2
5.325170E+2	1.214739E-2	6.500229E-3	1.167447E-2	1.470344E-2	1.066405E-3	5.639604E-3	9.900900E-3	3.804736E-3	7.336770E-3	1.012403E-2	1.999418E-3	1.055998E-2	9.419134E-3	7.174628E-3	2.883781E-3	4.695892E-3	2.470826E-3	6.826750E-3	1.342503E-2	1.151100E-2	2.300314E-3	7.952625E-3	9.350957E-4	1.129614E-2	8.605598E-3	1.053397E-2	1.328942E-2	1.504906E-2	-9.284480E-4	1.083792E-2	5.567312E-3	7.946776E-3	1.163431E-2	-9.391890E-4	5.427697E-3	6.644879E-3	1.383784E-2	1.396149E-2	1.149826E-2	-3.928258E-3	1.733650E-3	9.398832E-3	1.030242E-2	7.620101E-3	1.376320E-2	8.430520E-3	1.610357E-2	1.598997E-2	1.328326E-2	1.882281E-2	4.763054E-3	8.564539E-3	-4.076422E-4	8.223414E-3	1.611171E-2	1.149439E-2	-3.850575E-4	1.353641E-2	1.871926E-2	2.206751E-3	5.995615E-3	6.763099E-3	4.925059E-3	2.933163E-3	1.390545E-2	8.398533E-3	9.866276E-3	1.092058E-3	9.152356E-3	1.272890E-2	1.496431E-2	9.802741E-3	7.667025E-3	9.909429E-3	7.862063E-3	1.803874E-4	9.740153E-3	1.110402E-2	1.217316E-2	1.314268E-2	7.355855E-3	1.728924E-2	1.675579E-2	4.477020E-3	4.964636E-3	3.617827E-3	1.840889E-2	8.211316E-3	6.088305E-3	1.687327E-2	9.147630E-3	1.363783E-2	5.393795E-3	9.208835E-3	1.499219E-2	1.610445E-2	1.206448E-2	8.878301E-3	6.108494E-3	1.797608E-2	1.525148E-2	6.381304E-3	8.396369E-3	4.794819E-3	6.299886E-4	3.077224E-3	7.371600E-3	1.734224E-2	1.063920E-2	1.155274E-2	9.071106E-3	1.554539E-2	8.521340E-3	1.065028E-2	1.277352E-3	1.089776E-2	1.059327E-2	1.455292E-2	7.376096E-3	7.793229E-3	3.450511E-3	4.945062E-3	1.041828E-2	1.364002E-2	8.227587E-3	6.542800E-3	7.740100E-3	1.288345E-2	9.531317E-3	1.639435E-2	6.004173E-3	1.491504E-2	1.832355E-2	1.271080E-2	1.586694E-2	2.079928E-2	9.278515E-3	1.812328E-2	6.149059E-3	7.542392E-3	1.707820E-2	6.502994E-3	4.373423E-3	1.293390E-2	1.727009E-2	1.416869E-2	1.642875E-2	1.753750E-2	5.284566E-3	7.141350E-3	6.345102E-3	6.808366E-3	8.338172E-3	-9.227074E-4	6.261478E-3	1.560069E-2	1.578469E-2	2.701004E-3	4.765648E-3	1.470601E-2	1.725895E-3	4.774677E-3	5.746325E-3	2.347812E-2	1.666943E-2	1.326905E-3	1.700047E-2	4.763112E-3	1.400509E-2	5.330675E-3	4.866325E-2
5.330280E+2	2.813966E-2	2.264641E-2	1.403256E-2	1.965509E-2	2.547378E-2	1.555782E-2	1.162690E-2	2.872741E-2	3.314326E-2	2.718579E-2	9.434634E-3	2.688152E-2	1.617467E-2	1.602206E-2	2.028178E-2	1.696181E-2	1.960645E-2	3.013842E-2	7.634856E-3	2.162150E-2	2.656639E-2	1.875254E-2	2.679157E-2	1.483864E-2	1.893855E-2	2.328192E-2	3.728445E-2	2.627536E-2	2.493289E-2	1.560491E-2	2.186097E-2	3.575668E-2	1.129350E-2	3.836398E-2	1.602034E-2	1.450114E-2	2.097097E-2	2.427879E-2	2.467619E-2	2.985074E-2	1.226648E-2	2.182124E-2	2.652623E-2	2.139584E-2	1.452228E-2	6.840238E-3	4.169231E-2	1.932936E-2	5.953734E-3	3.219787E-2	3.050696E-2	2.081154E-2	2.600708E-2	2.226624E-2	1.438464E-2	2.820855E-2	1.049819E-2	1.047062E-2	1.485953E-2	3.086850E-2	2.276783E-2	3.588780E-2	8.248744E-3	2.943852E-2	2.042531E-2	2.190664E-2	2.826198E-2	2.483095E-2	2.737686E-2	4.161504E-2	3.057336E-2	2.223771E-2	1.764502E-2	1.785874E-2	3.052091E-2	2.218070E-2	2.633470E-2	2.612104E-2	2.712564E-2	1.957796E-2	1.566104E-2	1.994506E-2	2.480032E-2	1.428551E-2	2.630737E-2	1.618754E-2	1.022747E-2	2.506027E-2	1.286912E-2	3.149979E-2	1.918281E-2	1.385701E-2	3.532447E-2	3.029375E-2	3.063609E-2	1.111272E-2	3.059229E-2	2.241335E-2	1.952798E-2	1.709877E-2	1.812929E-2	2.095422E-2	2.281791E-2	3.280902E-2	2.706655E-2	2.912006E-2	1.559537E-2	1.758098E-2	1.993981E-2	1.853984E-2	2.552962E-2	1.988918E-2	2.056813E-2	2.839958E-2	1.543102E-2	2.293406E-2	2.139325E-2	2.603111E-2	2.082844E-2	3.079555E-2	1.598967E-2	2.653417E-2	2.306367E-2	2.796995E-2	1.474615E-2	2.792816E-2	2.322586E-2	1.456089E-2	1.899791E-2	1.541408E-2	1.944385E-2	2.439794E-2	2.434459E-2	2.853204E-2	1.701577E-2	1.337926E-2	3.174975E-2	2.720191E-2	2.021872E-2	1.801292E-2	1.197304E-2	2.625473E-2	2.636599E-2	2.513090E-2	3.370204E-2	1.993384E-2	2.719617E-2	2.246556E-2	2.567568E-2	3.311357E-2	2.396303E-2	4.802997E-2	2.483634E-2	2.668094E-2	1.902504E-2	2.825531E-2	1.922727E-2	3.693986E-2	2.233598E-2	1.776762E-2	9.537233E-3	2.291552E-2	2.578808E-2	3.415951E-2	2.726207E-2	4.108003E-2	2.183612E-2	2.403466E-2	1.782029E-2	2.576412E-2	1.877125E-2
5.331580E+2	2.217957E-2	2.815315E-2	2.757493E-2	2.862528E-2	2.681135E-2	3.151169E-2	2.282042E-2	2.721451E-2	2.637324E-2	1.997786E-2	3.634761E-2	3.867775E-2	2.743806E-2	3.196462E-2	2.391315E-2	3.441481E-2	2.711467E-2	2.681764E-2	2.348543E-2	1.892457E-2	2.915984E-2	3.541638E-2	3.694388E-2	2.830814E-2	3.201312E-2	3.448785E-2	2.021842E-2	2.848615E-2	3.007073E-2	1.936264E-2	3.614213E-2	3.061813E-2	3.227245E-2	2.509129E-2	1.893366E-2	1.755992E-2	2.217628E-2	1.788373E-2	3.357384E-2	3.383263E-2	2.636743E-2	3.378579E-2	2.279228E-2	2.425951E-2	1.663624E-2	2.838062E-2	3.330574E-2	3.677683E-2	3.569508E-2	2.687806E-2	1.380243E-2	2.432095E-2	2.235873E-2	3.037071E-2	3.379251E-2	4.270793E-2	2.938004E-2	2.853296E-2	2.380147E-2	3.154383E-2	3.333041E-2	2.887809E-2	3.133940E-2	2.817109E-2	3.463790E-2	1.861015E-2	1.609408E-2	2.338171E-2	2.213161E-2	3.295897E-2	3.421740E-2	4.283293E-2	1.804059E-2	2.423663E-2	3.869578E-2	2.353219E-2	2.490895E-2	3.352950E-2	3.624706E-2	2.834960E-2	2.027674E-2	2.519931E-2	1.896090E-2	2.811019E-2	2.655463E-2	2.831091E-2	2.776049E-2	2.681055E-2	2.877845E-2	2.799734E-2	2.511647E-2	2.335921E-2	3.466472E-2	3.827780E-2	2.674292E-2	1.953146E-2	2.393948E-2	3.175768E-2	3.130449E-2	1.556160E-2	3.261243E-2	2.936443E-2	2.599060E-2	2.339762E-2	2.855368E-2	2.942346E-2	3.667434E-2	2.486971E-2	3.650432E-2	3.190134E-2	2.921323E-2	1.690516E-2	3.568993E-2	2.056358E-2	1.910064E-2	2.861761E-2	3.129676E-2	2.524594E-2	3.721543E-2	3.398738E-2	2.741680E-2	1.629763E-3	3.421529E-2	3.396194E-2	2.651209E-2	3.291866E-2	3.615617E-2	2.443063E-2	2.789035E-2	2.179550E-2	3.867957E-2	3.270832E-2	2.600263E-2	2.771790E-2	3.294912E-2	2.759265E-2	3.363279E-2	4.471242E-2	2.447507E-2	1.879968E-2	1.163234E-2	3.215896E-2	1.769649E-2	2.388866E-2	1.243407E-2	2.507835E-2	3.355365E-2	1.904589E-2	4.085323E-2	4.329259E-2	3.498947E-2	3.064109E-2	2.444374E-2	2.988237E-2	2.784739E-2	3.144420E-2	3.838061E-2	3.229293E-2	2.517483E-2	1.893245E-2	2.781798E-2	2.185128E-2	2.543351E-2	4.255878E-2	2.704132E-2	3.744585E-2	2.065248E-2	3.085012E-2	4.024292E-2	1.877811E-2	1.710179E-3
5.333130E+2	5.235897E-2	4.144920E-2	3.671725E-2	3.047314E-2	2.994697E-2	3.116858E-2	3.987461E-2	4.939617E-2	3.412871E-2	3.601923E-2	4.381394E-2	5.150233E-2	4.565771E-2	3.870362E-2	3.745626E-2	4.373444E-2	3.409053E-2	4.562298E-2	3.453377E-2	4.577392E-2	4.266872E-2	4.536041E-2	4.352463E-2	4.193446E-2	3.796824E-2	5.149387E-2	3.665649E-2	3.962231E-2	3.668687E-2	4.677054E-2	4.733351E-2	4.594923E-2	3.303581E-2	2.582618E-2	2.683861E-2	3.227158E-2	4.383821E-2	4.351010E-2	4.250675E-2	3.932258E-2	4.988257E-2	3.691096E-2	6.106053E-2	3.223828E-2	5.252781E-2	2.741967E-2	3.556387E-2	3.984026E-2	3.051715E-2	5.303721E-2	3.150203E-2	2.886690E-2	5.103236E-2	4.314767E-2	3.065159E-2	4.139356E-2	3.518914E-2	3.633835E-2	4.888748E-2	4.972597E-2	4.818580E-2	4.678309E-2	3.691330E-2	3.837183E-2	4.475665E-2	3.862785E-2	3.932124E-2	3.362908E-2	3.353621E-2	3.519074E-2	4.223815E-2	4.093181E-2	4.823558E-2	3.574824E-2	3.115339E-2	3.573219E-2	3.261170E-2	4.563713E-2	3.109645E-2	3.550562E-2	4.326968E-2	4.732164E-2	3.738652E-2	4.352670E-2	3.906279E-2	3.832055E-2	4.143834E-2	3.922160E-2	4.349871E-2	3.916645E-2	4.057153E-2	3.673521E-2	4.490434E-2	4.297419E-2	4.290484E-2	3.835715E-2	3.635179E-2	5.953441E-2	2.863142E-2	4.465843E-2	3.647832E-2	4.425745E-2	3.402362E-2	4.899076E-2	5.604762E-2	4.409764E-2	4.430924E-2	4.132443E-2	4.073942E-2	3.686605E-2	2.121076E-2	4.201962E-2	3.890174E-2	3.416472E-2	4.456844E-2	4.312853E-2	3.689692E-2	2.645873E-2	3.317338E-2	3.177266E-2	4.299521E-2	2.690984E-2	5.221191E-2	3.608220E-2	5.287680E-2	2.671807E-2	4.807596E-2	2.719344E-2	3.684687E-2	3.729871E-2	5.546679E-2	2.978286E-2	4.238636E-2	5.180262E-2	5.391041E-2	3.717415E-2	4.506324E-2	3.709903E-2	4.391388E-2	4.278953E-2	3.944901E-2	3.445886E-2	4.561544E-2	4.008374E-2	3.348611E-2	5.046933E-2	3.682497E-2	3.183974E-2	3.954949E-2	4.454403E-2	3.883230E-2	2.495904E-2	4.152742E-2	4.149777E-2	3.497840E-2	2.386235E-2	3.917278E-2	3.796501E-2	4.291597E-2	4.620755E-2	4.068565E-2	2.951704E-2	4.077364E-2	5.101042E-2	4.685965E-2	3.428606E-2	3.816441E-2	5.494202E-2	4.137817E-2	3.698021E-2	2.999875E-2
5.334630E+2	5.502595E-2	6.255651E-2	4.084518E-2	4.836591E-2	5.869349E-2	5.163273E-2	5.172070E-2	5.226246E-2	5.269346E-2	3.940681E-2	4.963130E-2	6.390328E-2	5.597563E-2	3.999929E-2	6.046343E-2	4.614957E-2	4.734271E-2	6.333982E-2	4.235817E-2	5.283028E-2	5.910372E-2	6.266679E-2	4.786962E-2	5.018107E-2	5.783760E-2	4.804423E-2	4.337541E-2	6.072810E-2	6.318346E-2	3.824010E-2	3.708550E-2	5.512022E-2	5.300404E-2	5.362212E-2	6.578076E-2	4.928716E-2	6.610767E-2	3.916766E-2	5.341927E-2	5.273297E-2	3.842572E-2	5.829788E-2	4.801617E-2	7.097229E-2	6.201006E-2	5.315958E-2	5.320865E-2	4.810431E-2	5.286617E-2	5.661016E-2	4.108391E-2	5.434098E-2	6.930736E-2	4.712253E-2	5.788707E-2	6.916964E-2	5.543694E-2	4.415279E-2	4.448730E-2	4.557596E-2	5.797537E-2	6.112422E-2	6.176082E-2	6.561327E-2	4.381604E-2	5.815588E-2	5.079390E-2	4.710682E-2	6.057924E-2	6.585707E-2	5.172774E-2	5.255665E-2	6.085107E-2	4.945642E-2	5.238315E-2	5.777858E-2	6.319296E-2	6.293792E-2	5.467360E-2	5.396931E-2	6.062261E-2	5.946646E-2	8.281239E-2	5.338148E-2	6.071562E-2	5.926908E-2	4.718226E-2	5.815259E-2	4.954774E-2	5.590405E-2	5.090655E-2	6.339809E-2	5.440336E-2	5.763014E-2	5.553478E-2	5.722582E-2	4.122697E-2	5.989020E-2	6.616968E-2	6.369165E-2	5.178373E-2	6.857311E-2	5.261738E-2	4.834573E-2	6.278091E-2	6.785551E-2	5.651516E-2	4.587947E-2	5.318757E-2	5.248773E-2	5.492686E-2	6.753082E-2	5.727911E-2	4.459551E-2	4.717776E-2	5.804834E-2	5.433486E-2	6.241219E-2	5.309021E-2	4.792207E-2	4.555596E-2	5.780322E-2	5.047054E-2	5.973127E-2	7.792145E-2	6.866165E-2	4.195037E-2	3.342867E-2	6.162727E-2	4.377305E-2	4.041893E-2	5.712028E-2	5.495694E-2	4.648583E-2	6.559713E-2	5.579918E-2	4.651168E-2	5.360680E-2	4.647949E-2	5.823920E-2	6.371867E-2	4.613475E-2	5.424552E-2	7.198685E-2	4.942903E-2	5.451545E-2	5.076477E-2	5.611908E-2	5.487388E-2	5.632965E-2	4.995212E-2	6.816022E-2	5.693792E-2	4.292294E-2	6.235922E-2	4.863177E-2	6.172571E-2	6.712300E-2	4.954384E-2	5.425151E-2	5.142340E-2	5.472996E-2	6.540668E-2	6.540166E-2	5.903518E-2	5.937047E-2	5.483490E-2	5.520186E-2	7.281361E-2	5.285144E-2	5.841258E-2
5.336080E+2	9.830249E-2	7.478507E-2	5.904878E-2	5.859329E-2	7.981544E-2	5.846613E-2	7.105117E-2	6.423856E-2	7.006698E-2	5.610463E-2	5.716507E-2	7.198616E-2	7.274171E-2	5.939665E-2	4.485078E-2	6.381848E-2	5.724447E-2	8.405933E-2	6.659583E-2	7.935984E-2	7.561865E-2	7.174470E-2	8.094465E-2	6.351915E-2	7.836924E-2	8.627269E-2	8.502011E-2	7.303252E-2	7.097475E-2	7.149660E-2	7.669324E-2	6.656768E-2	6.059047E-2	6.402343E-2	8.214963E-2	7.479759E-2	7.291717E-2	6.700175E-2	7.022636E-2	9.038655E-2	6.206232E-2	6.856433E-2	7.259295E-2	6.957625E-2	7.788953E-2	7.551628E-2	7.966375E-2	7.151899E-2	5.418574E-2	7.628697E-2	6.654724E-2	1.046835E-1	7.310711E-2	8.197172E-2	7.846625E-2	6.503438E-2	7.392769E-2	7.375957E-2	6.156012E-2	5.298101E-2	8.241834E-2	7.027807E-2	5.880860E-2	6.177947E-2	8.843562E-2	7.715267E-2	7.953054E-2	7.391090E-2	6.947793E-2	8.063819E-2	8.658259E-2	8.347784E-2	5.871038E-2	6.264294E-2	7.597185E-2	8.042269E-2	8.849818E-2	8.493534E-2	7.435604E-2	8.110610E-2	6.016107E-2	6.012293E-2	6.161182E-2	7.441110E-2	7.271662E-2	6.004634E-2	6.440176E-2	6.709472E-2	6.738062E-2	7.502125E-2	5.891159E-2	6.991016E-2	7.190951E-2	8.004091E-2	8.376636E-2	7.527454E-2	7.332260E-2	7.413919E-2	7.333794E-2	6.952072E-2	6.905750E-2	7.535143E-2	7.831802E-2	6.965064E-2	7.906643E-2	8.094587E-2	6.799216E-2	7.122558E-2	6.796101E-2	7.567175E-2	6.348881E-2	6.841292E-2	8.896460E-2	7.724602E-2	6.401237E-2	8.941623E-2	8.321183E-2	6.577616E-2	7.363809E-2	7.579072E-2	7.200232E-2	7.805433E-2	8.454380E-2	8.061003E-2	7.322512E-2	7.170004E-2	7.649512E-2	6.719746E-2	6.895868E-2	7.425501E-2	6.054732E-2	6.199539E-2	7.812097E-2	7.540802E-2	7.790703E-2	6.138322E-2	7.722178E-2	7.768309E-2	9.156273E-2	6.708297E-2	7.047647E-2	7.988350E-2	7.094793E-2	6.867432E-2	7.878122E-2	7.254517E-2	7.832714E-2	7.848546E-2	6.155990E-2	6.772276E-2	7.627594E-2	8.092135E-2	7.738085E-2	7.167396E-2	5.991206E-2	8.291078E-2	6.516344E-2	6.691930E-2	7.391543E-2	7.273341E-2	6.071594E-2	5.628201E-2	7.663907E-2	9.205937E-2	7.857746E-2	8.511416E-2	8.668938E-2	7.768143E-2	7.855483E-2	7.728006E-2	5.218570E-2
5.337630E+2	1.097900E-1	1.080886E-1	9.649472E-2	1.239039E-1	1.082254E-1	9.394609E-2	1.101239E-1	9.061700E-2	9.452722E-2	8.088753E-2	8.500806E-2	1.006490E-1	1.083436E-1	8.385134E-2	9.988564E-2	9.383157E-2	9.347555E-2	1.189587E-1	1.040808E-1	1.097119E-1	9.222614E-2	9.362099E-2	9.775105E-2	1.018353E-1	9.842376E-2	1.008938E-1	1.012035E-1	1.195316E-1	1.009228E-1	9.560913E-2	1.028228E-1	1.179803E-1	9.830337E-2	1.158169E-1	1.058318E-1	1.015524E-1	8.630793E-2	9.806704E-2	1.017633E-1	1.009303E-1	9.695237E-2	9.900585E-2	1.100840E-1	1.119613E-1	1.077921E-1	9.215671E-2	9.389192E-2	9.649320E-2	9.242834E-2	1.010690E-1	9.155700E-2	1.039142E-1	9.304459E-2	1.029618E-1	9.337154E-2	1.006150E-1	9.680256E-2	9.371137E-2	1.072735E-1	1.030496E-1	8.894362E-2	1.072727E-1	1.063963E-1	1.076032E-1	1.057433E-1	9.685198E-2	1.048482E-1	1.030932E-1	9.726360E-2	1.005497E-1	9.282352E-2	1.084729E-1	1.022180E-1	8.777632E-2	9.740574E-2	1.178235E-1	1.013795E-1	1.024023E-1	1.111354E-1	8.552835E-2	9.989520E-2	1.163014E-1	1.017725E-1	1.024605E-1	1.105863E-1	8.942980E-2	8.624415E-2	1.062035E-1	9.404621E-2	9.182074E-2	1.071066E-1	8.791836E-2	1.049932E-1	1.068902E-1	1.069096E-1	1.010344E-1	1.102104E-1	8.609894E-2	9.527671E-2	1.203588E-1	8.743237E-2	1.051510E-1	1.031512E-1	1.157927E-1	1.196651E-1	1.091233E-1	1.038276E-1	1.056477E-1	1.027904E-1	8.298090E-2	8.626007E-2	1.021823E-1	9.416941E-2	1.106113E-1	1.070088E-1	1.059174E-1	9.493229E-2	1.020747E-1	8.704361E-2	9.481308E-2	9.454115E-2	1.001619E-1	1.129528E-1	1.025666E-1	1.065033E-1	9.683374E-2	1.079904E-1	1.061519E-1	1.172475E-1	1.048876E-1	1.006734E-1	7.500206E-2	1.072041E-1	1.167659E-1	1.081832E-1	9.624149E-2	1.237846E-1	9.668161E-2	7.898308E-2	9.582061E-2	9.612841E-2	9.913186E-2	1.098361E-1	1.049513E-1	9.163279E-2	1.071631E-1	1.077782E-1	9.204354E-2	9.125259E-2	1.018494E-1	9.960180E-2	1.053321E-1	8.005779E-2	1.120833E-1	1.011100E-1	9.387098E-2	1.092244E-1	9.250714E-2	1.059362E-1	1.000944E-1	9.390270E-2	9.552869E-2	1.042789E-1	1.028840E-1	1.108922E-1	9.387681E-2	9.330240E-2	1.280494E-1	1.214506E-1	1.104941E-1	1.050480E-1
5.339090E+2	1.535729E-1	1.350609E-1	1.263749E-1	1.373245E-1	1.447239E-1	1.551659E-1	1.452991E-1	1.421260E-1	1.550751E-1	1.444176E-1	1.288826E-1	1.526068E-1	1.456936E-1	1.476506E-1	1.383517E-1	1.486789E-1	1.416984E-1	1.329929E-1	1.331242E-1	1.493533E-1	1.528260E-1	1.383491E-1	1.624763E-1	1.451731E-1	1.274902E-1	1.496906E-1	1.624930E-1	1.595389E-1	1.644636E-1	1.651316E-1	1.535087E-1	1.729891E-1	1.393437E-1	1.424497E-1	1.414834E-1	1.573757E-1	1.468893E-1	1.499778E-1	1.482731E-1	1.470607E-1	1.383299E-1	1.415803E-1	1.659457E-1	1.603184E-1	1.433248E-1	1.476152E-1	1.610088E-1	1.559720E-1	1.544684E-1	1.506553E-1	1.474935E-1	1.292976E-1	1.530815E-1	1.740643E-1	1.746559E-1	1.481859E-1	1.498711E-1	1.412266E-1	1.679436E-1	1.357603E-1	1.680320E-1	1.383049E-1	1.565331E-1	1.741412E-1	1.432203E-1	1.391594E-1	1.393475E-1	1.319828E-1	1.569502E-1	1.725123E-1	1.536230E-1	1.491706E-1	1.502096E-1	1.505373E-1	1.832111E-1	1.414180E-1	1.492222E-1	1.554655E-1	1.642817E-1	1.558824E-1	1.476504E-1	1.569105E-1	1.398361E-1	1.319488E-1	1.416560E-1	1.718918E-1	1.500039E-1	1.587754E-1	1.720459E-1	1.759037E-1	1.509248E-1	1.612110E-1	1.389420E-1	1.600732E-1	1.650137E-1	1.552197E-1	1.614134E-1	1.587203E-1	1.473478E-1	1.570251E-1	1.608216E-1	1.628068E-1	1.603267E-1	1.358731E-1	1.610843E-1	1.632190E-1	1.623459E-1	1.420085E-1	1.638741E-1	1.568670E-1	1.578666E-1	1.590063E-1	1.517534E-1	1.367231E-1	1.462251E-1	1.572456E-1	1.617085E-1	1.698249E-1	1.461625E-1	1.560781E-1	1.374803E-1	1.473762E-1	1.819935E-1	1.581651E-1	1.707798E-1	1.573736E-1	1.640516E-1	1.638893E-1	1.634015E-1	1.409955E-1	1.385740E-1	1.616076E-1	1.465537E-1	1.652164E-1	1.673041E-1	1.709829E-1	1.438561E-1	1.686520E-1	1.562667E-1	1.391161E-1	1.501448E-1	1.507061E-1	1.724265E-1	1.439836E-1	1.561916E-1	1.695073E-1	1.520541E-1	1.557595E-1	1.652619E-1	1.585761E-1	1.561507E-1	1.554900E-1	1.543140E-1	1.533783E-1	1.531003E-1	1.637619E-1	1.600430E-1	1.596520E-1	1.366194E-1	1.577254E-1	1.523910E-1	1.407825E-1	1.623093E-1	1.660791E-1	1.480968E-1	1.716543E-1	1.578184E-1	1.586830E-1	1.310971E-1	1.572545E-1	1.603590E-1
5.340690E+2	2.748711E-1	2.633579E-1	2.298760E-1	2.657857E-1	2.546134E-1	2.447712E-1	2.633134E-1	2.633247E-1	2.669850E-1	2.563667E-1	2.532198E-1	2.479695E-1	2.473972E-1	2.486268E-1	2.484842E-1	2.880814E-1	2.587665E-1	2.671934E-1	2.733068E-1	2.537056E-1	2.506959E-1	2.512360E-1	2.578217E-1	2.667990E-1	2.770395E-1	2.576721E-1	2.481634E-1	2.872395E-1	2.676785E-1	2.499682E-1	2.652398E-1	2.687452E-1	2.694686E-1	2.545036E-1	2.695275E-1	2.586504E-1	2.705013E-1	2.619167E-1	2.626628E-1	2.523540E-1	2.725458E-1	2.490936E-1	2.640177E-1	2.651735E-1	2.656619E-1	2.641994E-1	2.755055E-1	2.671367E-1	2.665875E-1	2.574719E-1	2.492010E-1	2.487136E-1	2.670570E-1	2.516073E-1	2.699619E-1	2.497956E-1	2.510481E-1	2.679201E-1	2.486911E-1	2.436202E-1	2.523582E-1	2.605662E-1	2.727525E-1	2.672916E-1	2.635129E-1	3.038870E-1	2.421717E-1	2.323694E-1	2.450549E-1	2.548744E-1	2.357869E-1	2.501088E-1	2.591301E-1	2.379492E-1	2.630007E-1	2.642444E-1	2.485064E-1	2.635182E-1	2.753856E-1	2.418725E-1	2.542555E-1	2.350831E-1	2.530740E-1	2.709728E-1	2.771001E-1	2.799196E-1	2.578313E-1	2.509630E-1	2.762571E-1	2.622209E-1	2.705814E-1	2.759269E-1	2.647809E-1	2.544672E-1	2.751382E-1	2.676016E-1	2.297569E-1	2.576169E-1	2.707617E-1	2.676634E-1	2.751769E-1	2.804186E-1	2.538396E-1	2.697957E-1	2.644283E-1	2.850578E-1	2.957914E-1	2.628507E-1	2.747631E-1	2.787576E-1	2.676487E-1	2.816422E-1	2.612024E-1	2.509248E-1	2.611599E-1	2.515692E-1	2.762307E-1	2.548325E-1	2.462294E-1	2.545073E-1	2.642354E-1	2.487342E-1	2.639572E-1	2.461482E-1	2.500463E-1	2.727484E-1	2.747224E-1	2.700247E-1	2.711684E-1	2.495268E-1	2.469249E-1	2.667537E-1	2.755817E-1	2.580866E-1	2.591647E-1	2.508615E-1	2.505057E-1	2.857134E-1	2.509806E-1	2.736618E-1	2.676111E-1	2.556165E-1	2.484078E-1	2.876929E-1	2.447235E-1	2.543367E-1	2.725533E-1	2.695978E-1	2.747717E-1	2.605793E-1	2.605757E-1	2.621384E-1	2.639985E-1	2.489588E-1	2.391823E-1	2.657021E-1	2.574289E-1	2.457495E-1	2.627493E-1	2.534499E-1	2.601879E-1	2.543242E-1	2.616296E-1	2.530616E-1	2.571648E-1	2.521972E-1	2.933539E-1	2.626408E-1	2.768934E-1	2.638135E-1	2.685131E-1
5.342040E+2	4.675583E-1	4.581700E-1	4.587258E-1	4.178284E-1	4.794922E-1	4.646754E-1	4.590052E-1	4.615260E-1	4.565692E-1	4.345292E-1	4.627358E-1	4.813703E-1	4.915138E-1	4.422056E-1	4.526198E-1	4.617620E-1	4.646379E-1	4.699867E-1	4.687487E-1	4.467417E-1	4.564632E-1	4.542058E-1	4.653318E-1	4.496658E-1	4.724385E-1	4.110625E-1	4.544119E-1	4.844405E-1	4.938626E-1	4.368339E-1	4.762945E-1	4.346818E-1	4.173710E-1	4.550018E-1	4.621421E-1	4.869788E-1	4.791164E-1	4.572091E-1	4.756829E-1	4.678101E-1	4.485342E-1	4.346054E-1	4.428609E-1	4.429786E-1	4.627368E-1	4.730543E-1	4.617634E-1	4.511692E-1	4.169131E-1	4.624776E-1	4.517508E-1	4.514180E-1	4.883111E-1	4.493836E-1	4.368447E-1	4.714543E-1	4.684528E-1	4.662412E-1	4.854635E-1	4.323954E-1	4.862487E-1	4.860408E-1	4.627758E-1	4.519404E-1	4.393397E-1	4.801601E-1	4.434212E-1	4.945766E-1	4.738056E-1	4.617291E-1	4.521147E-1	4.651927E-1	5.180977E-1	4.380723E-1	4.542841E-1	4.171861E-1	4.822539E-1	4.736650E-1	4.898789E-1	4.570726E-1	4.254655E-1	4.669115E-1	4.800325E-1	4.357832E-1	4.797645E-1	4.548872E-1	4.612265E-1	4.664119E-1	4.665035E-1	4.491130E-1	4.513688E-1	4.737189E-1	4.753117E-1	4.871609E-1	4.726121E-1	4.448666E-1	4.333977E-1	4.629506E-1	4.500983E-1	4.207812E-1	4.625382E-1	4.712177E-1	4.624833E-1	4.373618E-1	4.766909E-1	4.469649E-1	4.303600E-1	4.468154E-1	4.524822E-1	4.492694E-1	4.440741E-1	4.651629E-1	4.151375E-1	4.650435E-1	4.459833E-1	4.278576E-1	4.753546E-1	4.305014E-1	4.593104E-1	4.364008E-1	4.674719E-1	4.815481E-1	4.482366E-1	4.417354E-1	4.644609E-1	4.642712E-1	4.563951E-1	4.711673E-1	4.838175E-1	4.882513E-1	4.652633E-1	4.766890E-1	4.887442E-1	4.631581E-1	4.737682E-1	4.906819E-1	4.325244E-1	4.689588E-1	4.335139E-1	4.717778E-1	4.639059E-1	4.621184E-1	4.696648E-1	4.584662E-1	4.657265E-1	4.740107E-1	4.866511E-1	4.632765E-1	4.545061E-1	4.573063E-1	4.707986E-1	4.354248E-1	4.244903E-1	4.697223E-1	4.426425E-1	4.379359E-1	4.801976E-1	4.751253E-1	4.420091E-1	4.978105E-1	4.592949E-1	4.602511E-1	4.709795E-1	4.837856E-1	4.746566E-1	4.618329E-1	4.473382E-1	4.459809E-1	4.789704E-1	4.772626E-1	4.895181E-1
5.343600E+2	8.532407E-1	7.714342E-1	7.899356E-1	7.717333E-1	8.370654E-1	8.553041E-1	7.990164E-1	7.908917E-1	8.703508E-1	7.630482E-1	8.234914E-1	8.224536E-1	7.632846E-1	8.163097E-1	7.827931E-1	8.196965E-1	7.781238E-1	8.481141E-1	8.299769E-1	7.944054E-1	8.026851E-1	7.839260E-1	8.042864E-1	8.103980E-1	7.729314E-1	8.190774E-1	8.370237E-1	8.352976E-1	8.450625E-1	7.807179E-1	8.319403E-1	8.196811E-1	7.959555E-1	7.893939E-1	8.375064E-1	8.489130E-1	7.851548E-1	7.986915E-1	8.230350E-1	8.095879E-1	8.118191E-1	8.003781E-1	7.912747E-1	8.062773E-1	7.990195E-1	8.239904E-1	7.820833E-1	8.436063E-1	7.971893E-1	8.286178E-1	7.813722E-1	7.951590E-1	8.052267E-1	8.070544E-1	8.279380E-1	8.299751E-1	8.272422E-1	8.312576E-1	8.130207E-1	8.135630E-1	8.103713E-1	8.177250E-1	8.260835E-1	8.050372E-1	7.799533E-1	8.146572E-1	7.797123E-1	8.022239E-1	8.107376E-1	8.138530E-1	8.159330E-1	8.260655E-1	7.992460E-1	8.100617E-1	8.288569E-1	8.042596E-1	8.511155E-1	8.066634E-1	7.898620E-1	8.255466E-1	7.932305E-1	8.073533E-1	8.393125E-1	7.913666E-1	7.615597E-1	8.346368E-1	8.414481E-1	8.131379E-1	8.536550E-1	8.300177E-1	7.857567E-1	8.001638E-1	8.067373E-1	8.318231E-1	8.466025E-1	8.151890E-1	8.255919E-1	8.573384E-1	7.959385E-1	8.411779E-1	8.202550E-1	8.346625E-1	8.190095E-1	8.043370E-1	8.225723E-1	8.202335E-1	8.096750E-1	8.163014E-1	7.978381E-1	7.908708E-1	8.579050E-1	8.127320E-1	8.319139E-1	7.953946E-1	7.715034E-1	8.116390E-1	8.132571E-1	8.376815E-1	8.186847E-1	8.105895E-1	8.118847E-1	8.449652E-1	8.121367E-1	8.473469E-1	7.883894E-1	8.508845E-1	8.448902E-1	7.938280E-1	7.716823E-1	8.174118E-1	7.925893E-1	7.813255E-1	8.313702E-1	7.934636E-1	8.126635E-1	8.254536E-1	7.631658E-1	8.018071E-1	7.980997E-1	8.318306E-1	8.579156E-1	8.332013E-1	8.087510E-1	8.169860E-1	8.702409E-1	8.309039E-1	8.178951E-1	8.262585E-1	8.019901E-1	7.766522E-1	8.078806E-1	8.051450E-1	8.106349E-1	8.192853E-1	8.172223E-1	7.910602E-1	7.966094E-1	8.499461E-1	8.271753E-1	8.360877E-1	7.999552E-1	7.925574E-1	8.414699E-1	7.701245E-1	8.140441E-1	8.106152E-1	8.445825E-1	7.889024E-1	7.997813E-1	8.448476E-1	8.990998E-1
5.345110E+2	1.324419E+0	1.161645E+0	1.185082E+0	1.154552E+0	1.240093E+0	1.195518E+0	1.232331E+0	1.263262E+0	1.253625E+0	1.226603E+0	1.207063E+0	1.217723E+0	1.189964E+0	1.238260E+0	1.226442E+0	1.248012E+0	1.197301E+0	1.264242E+0	1.188646E+0	1.249008E+0	1.211823E+0	1.212827E+0	1.212570E+0	1.242814E+0	1.168626E+0	1.256704E+0	1.220015E+0	1.282704E+0	1.228850E+0	1.257208E+0	1.250992E+0	1.264326E+0	1.212578E+0	1.257405E+0	1.264055E+0	1.206663E+0	1.221964E+0	1.225464E+0	1.241851E+0	1.238190E+0	1.185203E+0	1.232804E+0	1.240384E+0	1.251334E+0	1.202611E+0	1.230992E+0	1.273875E+0	1.235250E+0	1.225096E+0	1.261309E+0	1.249412E+0	1.202185E+0	1.236317E+0	1.254020E+0	1.214428E+0	1.191742E+0	1.249216E+0	1.234869E+0	1.244595E+0	1.179341E+0	1.214589E+0	1.233534E+0	1.258449E+0	1.231908E+0	1.262711E+0	1.195064E+0	1.197018E+0	1.221834E+0	1.230877E+0	1.211717E+0	1.232574E+0	1.206492E+0	1.273770E+0	1.235509E+0	1.267922E+0	1.183409E+0	1.189190E+0	1.272143E+0	1.215815E+0	1.282984E+0	1.220181E+0	1.243461E+0	1.236662E+0	1.247138E+0	1.229121E+0	1.236556E+0	1.296382E+0	1.192422E+0	1.247570E+0	1.279274E+0	1.182495E+0	1.114966E+0	1.242485E+0	1.197768E+0	1.254296E+0	1.224285E+0	1.222607E+0	1.211373E+0	1.233154E+0	1.220843E+0	1.232395E+0	1.213266E+0	1.228779E+0	1.192580E+0	1.248982E+0	1.174980E+0	1.207720E+0	1.235295E+0	1.246480E+0	1.215686E+0	1.250590E+0	1.228377E+0	1.182825E+0	1.219881E+0	1.162625E+0	1.230148E+0	1.225685E+0	1.205329E+0	1.215491E+0	1.202922E+0	1.220651E+0	1.273123E+0	1.249416E+0	1.207506E+0	1.245468E+0	1.235422E+0	1.201944E+0	1.184340E+0	1.265468E+0	1.198013E+0	1.247734E+0	1.203394E+0	1.238608E+0	1.217462E+0	1.206289E+0	1.221684E+0	1.263030E+0	1.191175E+0	1.172670E+0	1.208655E+0	1.247296E+0	1.180626E+0	1.187000E+0	1.266341E+0	1.246805E+0	1.206044E+0	1.236906E+0	1.216964E+0	1.235071E+0	1.228971E+0	1.224389E+0	1.196436E+0	1.211313E+0	1.233029E+0	1.196805E+0	1.215184E+0	1.277656E+0	1.227464E+0	1.255363E+0	1.235603E+0	1.195530E+0	1.233636E+0	1.195895E+0	1.202792E+0	1.206152E+0	1.226345E+0	1.178072E+0	1.251753E+0	1.266446E+0	1.253325E+0	1.255157E+0
5.346620E+2	1.731122E+0	1.618189E+0	1.635035E+0	1.597311E+0	1.644352E+0	1.659142E+0	1.637668E+0	1.640977E+0	1.708715E+0	1.619398E+0	1.605658E+0	1.659008E+0	1.639060E+0	1.684235E+0	1.627771E+0	1.615417E+0	1.668514E+0	1.723777E+0	1.595696E+0	1.649638E+0	1.612986E+0	1.658810E+0	1.645674E+0	1.623029E+0	1.614374E+0	1.575245E+0	1.580425E+0	1.632577E+0	1.669526E+0	1.623461E+0	1.627639E+0	1.622431E+0	1.627016E+0	1.615947E+0	1.625816E+0	1.662950E+0	1.612800E+0	1.602639E+0	1.629950E+0	1.646505E+0	1.651505E+0	1.632467E+0	1.651054E+0	1.694533E+0	1.665363E+0	1.669357E+0	1.649676E+0	1.649793E+0	1.681063E+0	1.708549E+0	1.672653E+0	1.667924E+0	1.618514E+0	1.668465E+0	1.592159E+0	1.596838E+0	1.643274E+0	1.673815E+0	1.592045E+0	1.679071E+0	1.648993E+0	1.669231E+0	1.615324E+0	1.563313E+0	1.628368E+0	1.615080E+0	1.626298E+0	1.592465E+0	1.681568E+0	1.607358E+0	1.675951E+0	1.605044E+0	1.613106E+0	1.620470E+0	1.568417E+0	1.598437E+0	1.663754E+0	1.709336E+0	1.633957E+0	1.669753E+0	1.604505E+0	1.655285E+0	1.652331E+0	1.591051E+0	1.605680E+0	1.602930E+0	1.673870E+0	1.634336E+0	1.634044E+0	1.671951E+0	1.578402E+0	1.613441E+0	1.582375E+0	1.623356E+0	1.642000E+0	1.591228E+0	1.542790E+0	1.661908E+0	1.608299E+0	1.607897E+0	1.617561E+0	1.665394E+0	1.657676E+0	1.624486E+0	1.701791E+0	1.643181E+0	1.634609E+0	1.599245E+0	1.635024E+0	1.625436E+0	1.647114E+0	1.667418E+0	1.599563E+0	1.607177E+0	1.578793E+0	1.626901E+0	1.642565E+0	1.685366E+0	1.628883E+0	1.589293E+0	1.602418E+0	1.627482E+0	1.589237E+0	1.623323E+0	1.635853E+0	1.653658E+0	1.671305E+0	1.658110E+0	1.647582E+0	1.580228E+0	1.664252E+0	1.677323E+0	1.658509E+0	1.597916E+0	1.613710E+0	1.602697E+0	1.567721E+0	1.592265E+0	1.599022E+0	1.627615E+0	1.622071E+0	1.600560E+0	1.601223E+0	1.616383E+0	1.692090E+0	1.684506E+0	1.626820E+0	1.618140E+0	1.579541E+0	1.582003E+0	1.626523E+0	1.603007E+0	1.596225E+0	1.639205E+0	1.564169E+0	1.608553E+0	1.606394E+0	1.648483E+0	1.579192E+0	1.661820E+0	1.634665E+0	1.601857E+0	1.567862E+0	1.575080E+0	1.525416E+0	1.614368E+0	1.599550E+0	1.603988E+0	1.648404E+0	1.581558E+0	1.595323E+0
5.348070E+2	2.076907E+0	1.935726E+0	1.875172E+0	1.849677E+0	1.943101E+0	1.889513E+0	1.979912E+0	1.929281E+0	1.981002E+0	1.925978E+0	1.928362E+0	1.975581E+0	1.940841E+0	1.988218E+0	1.946871E+0	1.975777E+0	1.953557E+0	1.926027E+0	1.946564E+0	1.953752E+0	1.943438E+0	1.920555E+0	1.946227E+0	1.960896E+0	1.892273E+0	1.925002E+0	2.050596E+0	1.938645E+0	1.969277E+0	1.954160E+0	1.935206E+0	1.954866E+0	1.921897E+0	1.887791E+0	1.983340E+0	1.976265E+0	1.950864E+0	1.932878E+0	1.950335E+0	2.006039E+0	1.944192E+0	1.942187E+0	1.922123E+0	1.896835E+0	1.923300E+0	2.046039E+0	1.944696E+0	1.944807E+0	1.903106E+0	1.905886E+0	1.901610E+0	1.950491E+0	1.897796E+0	1.936415E+0	1.898000E+0	1.933018E+0	1.935516E+0	1.959410E+0	1.938373E+0	1.930427E+0	1.954177E+0	1.920278E+0	1.949515E+0	1.932826E+0	1.886160E+0	1.871027E+0	1.877939E+0	1.863232E+0	1.899689E+0	1.903295E+0	1.996781E+0	1.885042E+0	1.934838E+0	1.960900E+0	1.991772E+0	1.950953E+0	1.933713E+0	1.927275E+0	1.917892E+0	1.894370E+0	1.893256E+0	1.985026E+0	1.884440E+0	1.858375E+0	1.928738E+0	1.910555E+0	1.980439E+0	1.920607E+0	1.910175E+0	1.947455E+0	1.914647E+0	1.920425E+0	1.915485E+0	1.888598E+0	1.885685E+0	1.915011E+0	1.906614E+0	1.959060E+0	1.910863E+0	1.896879E+0	1.862469E+0	1.915733E+0	1.842519E+0	1.881489E+0	1.873086E+0	1.887226E+0	1.992857E+0	1.869416E+0	1.876605E+0	1.901341E+0	1.903291E+0	1.927737E+0	1.793599E+0	1.885147E+0	1.873175E+0	1.852067E+0	1.914784E+0	1.922904E+0	1.877610E+0	1.844380E+0	1.931695E+0	1.919904E+0	1.975609E+0	1.918112E+0	1.869219E+0	1.877498E+0	1.865303E+0	1.945290E+0	1.934524E+0	1.914284E+0	1.934403E+0	1.868980E+0	1.924415E+0	1.920041E+0	1.850527E+0	1.853346E+0	1.879996E+0	1.909573E+0	1.874558E+0	1.914796E+0	1.854162E+0	1.844827E+0	1.858219E+0	1.904037E+0	1.918833E+0	1.932701E+0	1.923970E+0	1.814024E+0	1.918581E+0	1.858643E+0	1.871796E+0	1.892825E+0	1.881897E+0	1.885901E+0	1.807893E+0	1.828155E+0	1.900456E+0	1.812494E+0	1.848724E+0	1.919811E+0	1.871642E+0	1.916029E+0	1.931061E+0	1.813982E+0	1.883969E+0	1.873599E+0	1.895852E+0	1.897456E+0	1.868774E+0	1.957679E+0	1.897329E+0
5.349580E+2	2.240426E+0	2.113044E+0	2.165271E+0	2.090353E+0	2.176471E+0	2.185799E+0	2.200941E+0	2.097994E+0	2.221544E+0	2.153856E+0	2.138713E+0	2.154703E+0	2.085909E+0	2.119796E+0	2.176405E+0	2.194256E+0	2.210145E+0	2.201721E+0	2.098967E+0	2.171368E+0	2.190032E+0	2.102990E+0	2.049511E+0	2.102418E+0	2.068578E+0	2.154584E+0	2.208812E+0	2.227529E+0	2.077130E+0	2.117283E+0	2.177035E+0	2.118370E+0	2.127183E+0	2.095277E+0	2.061716E+0	2.165124E+0	2.081768E+0	2.067066E+0	2.155180E+0	2.179862E+0	2.132499E+0	2.190431E+0	2.113832E+0	2.157012E+0	2.114580E+0	2.128949E+0	2.146900E+0	2.159453E+0	2.117716E+0	2.140716E+0	2.134048E+0	2.118812E+0	2.105776E+0	2.169658E+0	2.082411E+0	2.108319E+0	2.105243E+0	2.132070E+0	2.095219E+0	2.141455E+0	2.114933E+0	2.184581E+0	2.126749E+0	2.087753E+0	2.121158E+0	2.148387E+0	2.061247E+0	2.090239E+0	2.096374E+0	2.088579E+0	2.134790E+0	2.073767E+0	2.091846E+0	2.137864E+0	2.098397E+0	2.118527E+0	2.036962E+0	2.134627E+0	2.129655E+0	2.154006E+0	2.068660E+0	2.106090E+0	2.101714E+0	2.067925E+0	2.041434E+0	2.070192E+0	2.084162E+0	2.104735E+0	2.103037E+0	2.219732E+0	2.076743E+0	2.061720E+0	2.148613E+0	2.140139E+0	2.119643E+0	2.077052E+0	2.027373E+0	2.152441E+0	2.130417E+0	2.081972E+0	2.085732E+0	2.060274E+0	2.099312E+0	2.016069E+0	2.167819E+0	2.067390E+0	2.099958E+0	2.096530E+0	2.102459E+0	2.091718E+0	2.102693E+0	2.116080E+0	2.052715E+0	2.065626E+0	2.060923E+0	2.067585E+0	2.048690E+0	2.084470E+0	2.079775E+0	2.050298E+0	2.115880E+0	2.098770E+0	2.121444E+0	2.053521E+0	2.047535E+0	2.112941E+0	2.104003E+0	2.090329E+0	2.049376E+0	2.088085E+0	2.181497E+0	2.069703E+0	2.089385E+0	2.006609E+0	2.095009E+0	2.045651E+0	1.989204E+0	2.097934E+0	2.028021E+0	2.096895E+0	2.008748E+0	2.084870E+0	2.074781E+0	2.089794E+0	2.194546E+0	2.106696E+0	2.108898E+0	2.034305E+0	2.011700E+0	2.070285E+0	2.103343E+0	2.005193E+0	2.112094E+0	2.044465E+0	2.048916E+0	2.060261E+0	2.055337E+0	2.067732E+0	2.094715E+0	2.100583E+0	2.004074E+0	2.069021E+0	2.044663E+0	2.096185E+0	1.998643E+0	2.055984E+0	2.058014E+0	2.022535E+0	2.031264E+0	2.078700E+0	2.105825E+0
5.351140E+2	2.335957E+0	2.075714E+0	2.092400E+0	2.114802E+0	2.113664E+0	2.109285E+0	2.135115E+0	2.153558E+0	2.122313E+0	2.126653E+0	2.153474E+0	2.131717E+0	2.104744E+0	2.183819E+0	2.090297E+0	2.074974E+0	2.095183E+0	2.150606E+0	2.112732E+0	2.174088E+0	2.072090E+0	2.110619E+0	2.057809E+0	2.135124E+0	2.062016E+0	2.111632E+0	2.133229E+0	2.169682E+0	2.095099E+0	2.071005E+0	2.164874E+0	2.124858E+0	2.077915E+0	2.055300E+0	2.092411E+0	2.147850E+0	2.094210E+0	2.082335E+0	2.045796E+0	2.133355E+0	2.105806E+0	2.126376E+0	2.101023E+0	2.098744E+0	2.004450E+0	2.298277E+0	2.040058E+0	2.153421E+0	2.061054E+0	2.126045E+0	2.057178E+0	2.106371E+0	2.077809E+0	2.036736E+0	2.123629E+0	2.129675E+0	2.144801E+0	2.110786E+0	2.071939E+0	2.083724E+0	2.064903E+0	2.203975E+0	2.090153E+0	2.029076E+0	2.125233E+0	2.156940E+0	2.012594E+0	2.129354E+0	2.155568E+0	2.094783E+0	2.114099E+0	2.111977E+0	2.139683E+0	2.154850E+0	2.107415E+0	2.092083E+0	2.059904E+0	2.169752E+0	2.107877E+0	2.087549E+0	2.070347E+0	2.082218E+0	2.149668E+0	2.043822E+0	2.055341E+0	2.061469E+0	2.119697E+0	2.010873E+0	2.113717E+0	2.098032E+0	2.036957E+0	2.029845E+0	2.094607E+0	2.124977E+0	2.088850E+0	2.116125E+0	2.079081E+0	2.136787E+0	2.039570E+0	2.072205E+0	2.082431E+0	2.058094E+0	2.042563E+0	2.143429E+0	2.094106E+0	2.104705E+0	2.159735E+0	2.089380E+0	2.075640E+0	2.038217E+0	2.109697E+0	2.051051E+0	2.015025E+0	2.028112E+0	2.014228E+0	2.129792E+0	2.006940E+0	2.026280E+0	2.092934E+0	2.076396E+0	2.005810E+0	2.086142E+0	2.173623E+0	2.128571E+0	2.069915E+0	2.049229E+0	2.014209E+0	2.083284E+0	2.083753E+0	2.006103E+0	2.105740E+0	2.092565E+0	2.030062E+0	2.072408E+0	1.999842E+0	2.021819E+0	2.040043E+0	2.002727E+0	2.044914E+0	2.070283E+0	2.058385E+0	2.077767E+0	2.037683E+0	2.102425E+0	2.142961E+0	2.113470E+0	2.116490E+0	1.998591E+0	2.066310E+0	2.071493E+0	2.026406E+0	2.064515E+0	2.039186E+0	2.124794E+0	2.001925E+0	2.048250E+0	2.010311E+0	2.127852E+0	2.037627E+0	2.044968E+0	2.035446E+0	2.087571E+0	1.995486E+0	1.991099E+0	2.001986E+0	2.052322E+0	2.043198E+0	1.957236E+0	2.172545E+0	2.018411E+0	2.044034E+0
5.352600E+2	2.063263E+0	1.907402E+0	1.917247E+0	1.880637E+0	1.922091E+0	1.946725E+0	1.963441E+0	1.948500E+0	1.940226E+0	1.916147E+0	1.933532E+0	1.886839E+0	1.893088E+0	1.970371E+0	1.897018E+0	1.965115E+0	1.928624E+0	1.949834E+0	1.885032E+0	1.936899E+0	1.937722E+0	1.911800E+0	1.905596E+0	1.925725E+0	1.856836E+0	1.891716E+0	2.023890E+0	1.941103E+0	1.924303E+0	1.958448E+0	1.952056E+0	1.901309E+0	1.855519E+0	1.943590E+0	2.011804E+0	1.937680E+0	1.877450E+0	1.924133E+0	1.948012E+0	1.929492E+0	1.905770E+0	1.910610E+0	1.899541E+0	1.882277E+0	1.871060E+0	2.012738E+0	1.929995E+0	1.956645E+0	1.897163E+0	1.915521E+0	1.877379E+0	1.912477E+0	1.925459E+0	1.956811E+0	1.845127E+0	1.898217E+0	1.907932E+0	1.854061E+0	1.909082E+0	1.877550E+0	1.891369E+0	1.961270E+0	1.890091E+0	1.871650E+0	1.882423E+0	1.970034E+0	1.906813E+0	1.860594E+0	1.990765E+0	1.923126E+0	1.886635E+0	1.901694E+0	1.877206E+0	1.908520E+0	1.962448E+0	1.903199E+0	1.899311E+0	1.945644E+0	1.875986E+0	1.923002E+0	1.817733E+0	1.957527E+0	1.864976E+0	1.961124E+0	1.890480E+0	1.866516E+0	1.908109E+0	1.928617E+0	1.958874E+0	1.981412E+0	1.910974E+0	1.895161E+0	1.938791E+0	1.888580E+0	1.848280E+0	1.901178E+0	1.830256E+0	1.985368E+0	1.851057E+0	1.854594E+0	1.897091E+0	1.891899E+0	1.885432E+0	1.820740E+0	1.935854E+0	1.852714E+0	2.023143E+0	1.898526E+0	1.833968E+0	1.894439E+0	1.931719E+0	1.914563E+0	1.816807E+0	1.910572E+0	1.933696E+0	1.858853E+0	1.877728E+0	1.852794E+0	1.901550E+0	1.879778E+0	1.910301E+0	1.902802E+0	1.935424E+0	1.881385E+0	1.802620E+0	1.933094E+0	1.839327E+0	1.878233E+0	1.879502E+0	1.928868E+0	1.951989E+0	1.886304E+0	1.857502E+0	1.873615E+0	1.866253E+0	1.898742E+0	1.804088E+0	1.871950E+0	1.848952E+0	1.884612E+0	1.833601E+0	1.892452E+0	1.850478E+0	1.926917E+0	1.953031E+0	1.962828E+0	1.865291E+0	1.946062E+0	1.916519E+0	1.881503E+0	1.932948E+0	1.819037E+0	1.904882E+0	1.899508E+0	1.897022E+0	1.886922E+0	1.873850E+0	1.877998E+0	1.860749E+0	1.916186E+0	1.844389E+0	1.925534E+0	1.885460E+0	1.898025E+0	1.792182E+0	1.909147E+0	1.876708E+0	1.824784E+0	1.903371E+0	1.929799E+0	1.908244E+0
5.354060E+2	1.662980E+0	1.648387E+0	1.592589E+0	1.616624E+0	1.629792E+0	1.617851E+0	1.623389E+0	1.588243E+0	1.652683E+0	1.575370E+0	1.593349E+0	1.596296E+0	1.631601E+0	1.611797E+0	1.634226E+0	1.637098E+0	1.536697E+0	1.699042E+0	1.554885E+0	1.598673E+0	1.669392E+0	1.588260E+0	1.597366E+0	1.625379E+0	1.599479E+0	1.614496E+0	1.664739E+0	1.709488E+0	1.613771E+0	1.685380E+0	1.623455E+0	1.590457E+0	1.565942E+0	1.597058E+0	1.642891E+0	1.592043E+0	1.591365E+0	1.600576E+0	1.569038E+0	1.621436E+0	1.583868E+0	1.611730E+0	1.624001E+0	1.541307E+0	1.605883E+0	1.638087E+0	1.590813E+0	1.633184E+0	1.581347E+0	1.651885E+0	1.649710E+0	1.701324E+0	1.615828E+0	1.636173E+0	1.588464E+0	1.594402E+0	1.675821E+0	1.574296E+0	1.608283E+0	1.563876E+0	1.591847E+0	1.628449E+0	1.654399E+0	1.559948E+0	1.578728E+0	1.633194E+0	1.523658E+0	1.569638E+0	1.566168E+0	1.539344E+0	1.638705E+0	1.588682E+0	1.533814E+0	1.641425E+0	1.635482E+0	1.596741E+0	1.645753E+0	1.576156E+0	1.588170E+0	1.663912E+0	1.580508E+0	1.590907E+0	1.528298E+0	1.576648E+0	1.602234E+0	1.653855E+0	1.576589E+0	1.546942E+0	1.610449E+0	1.642950E+0	1.575237E+0	1.590654E+0	1.575767E+0	1.616997E+0	1.599912E+0	1.607608E+0	1.512348E+0	1.694523E+0	1.602495E+0	1.625885E+0	1.592737E+0	1.620897E+0	1.636058E+0	1.582225E+0	1.623605E+0	1.552632E+0	1.660255E+0	1.593963E+0	1.595335E+0	1.590979E+0	1.687149E+0	1.599476E+0	1.559990E+0	1.603028E+0	1.626596E+0	1.606586E+0	1.607134E+0	1.603495E+0	1.608160E+0	1.562985E+0	1.511254E+0	1.601504E+0	1.601019E+0	1.611344E+0	1.566573E+0	1.591483E+0	1.567930E+0	1.547997E+0	1.562450E+0	1.636300E+0	1.629695E+0	1.664511E+0	1.600757E+0	1.622881E+0	1.532951E+0	1.573247E+0	1.580193E+0	1.498659E+0	1.599461E+0	1.578639E+0	1.578375E+0	1.585272E+0	1.520945E+0	1.558938E+0	1.617546E+0	1.603550E+0	1.654454E+0	1.569032E+0	1.533399E+0	1.517085E+0	1.544560E+0	1.595421E+0	1.648665E+0	1.626137E+0	1.574284E+0	1.499679E+0	1.620013E+0	1.599589E+0	1.534971E+0	1.567294E+0	1.522223E+0	1.593293E+0	1.517623E+0	1.567664E+0	1.530059E+0	1.553315E+0	1.544625E+0	1.613954E+0	1.630324E+0	1.590063E+0	1.616824E+0
5.355630E+2	1.408140E+0	1.330124E+0	1.287996E+0	1.349630E+0	1.349399E+0	1.275054E+0	1.375007E+0	1.305809E+0	1.370232E+0	1.313853E+0	1.321913E+0	1.311546E+0	1.322408E+0	1.333005E+0	1.304681E+0	1.305409E+0	1.308604E+0	1.320036E+0	1.337648E+0	1.361767E+0	1.366392E+0	1.336656E+0	1.360405E+0	1.320168E+0	1.353997E+0	1.308662E+0	1.372540E+0	1.340726E+0	1.325698E+0	1.320001E+0	1.381485E+0	1.320135E+0	1.286531E+0	1.307894E+0	1.312249E+0	1.300022E+0	1.372602E+0	1.391781E+0	1.325995E+0	1.316843E+0	1.308377E+0	1.346858E+0	1.332334E+0	1.310920E+0	1.280120E+0	1.327566E+0	1.307479E+0	1.354183E+0	1.333313E+0	1.309612E+0	1.300468E+0	1.375148E+0	1.352986E+0	1.293388E+0	1.328508E+0	1.322929E+0	1.319803E+0	1.303735E+0	1.324913E+0	1.326865E+0	1.276064E+0	1.389371E+0	1.365473E+0	1.283787E+0	1.312185E+0	1.360486E+0	1.288559E+0	1.314002E+0	1.331626E+0	1.292134E+0	1.352221E+0	1.361588E+0	1.339975E+0	1.328576E+0	1.345960E+0	1.354012E+0	1.345899E+0	1.346661E+0	1.335135E+0	1.322207E+0	1.292001E+0	1.326177E+0	1.402275E+0	1.242205E+0	1.347333E+0	1.306615E+0	1.373966E+0	1.304468E+0	1.380623E+0	1.371315E+0	1.284218E+0	1.317022E+0	1.335407E+0	1.323718E+0	1.338774E+0	1.341643E+0	1.318491E+0	1.358707E+0	1.274972E+0	1.304450E+0	1.309736E+0	1.307608E+0	1.362516E+0	1.313837E+0	1.315484E+0	1.353211E+0	1.354480E+0	1.357924E+0	1.302698E+0	1.322385E+0	1.332447E+0	1.318568E+0	1.266923E+0	1.285485E+0	1.313065E+0	1.316319E+0	1.296018E+0	1.311863E+0	1.358979E+0	1.266167E+0	1.320852E+0	1.375419E+0	1.333056E+0	1.327912E+0	1.271199E+0	1.335723E+0	1.278979E+0	1.326564E+0	1.320772E+0	1.374913E+0	1.348308E+0	1.367463E+0	1.327706E+0	1.284774E+0	1.343734E+0	1.355090E+0	1.301185E+0	1.333314E+0	1.331902E+0	1.360722E+0	1.322564E+0	1.366161E+0	1.292822E+0	1.393817E+0	1.332436E+0	1.325011E+0	1.356092E+0	1.350828E+0	1.321821E+0	1.294789E+0	1.295297E+0	1.332728E+0	1.336412E+0	1.354585E+0	1.261036E+0	1.294744E+0	1.299551E+0	1.378984E+0	1.337383E+0	1.348435E+0	1.270598E+0	1.370438E+0	1.323774E+0	1.245727E+0	1.326542E+0	1.299991E+0	1.267562E+0	1.298778E+0	1.297400E+0	1.284982E+0	1.230507E+0
5.357140E+2	1.152378E+0	1.133151E+0	1.140687E+0	1.053655E+0	1.164630E+0	1.119010E+0	1.160743E+0	1.143230E+0	1.099898E+0	1.124840E+0	1.089860E+0	1.149541E+0	1.159475E+0	1.118837E+0	1.119770E+0	1.134159E+0	1.118328E+0	1.157735E+0	1.089771E+0	1.192639E+0	1.134041E+0	1.091496E+0	1.119784E+0	1.129386E+0	1.110716E+0	1.166046E+0	1.134020E+0	1.203619E+0	1.133385E+0	1.122406E+0	1.107526E+0	1.142825E+0	1.026573E+0	1.129841E+0	1.165643E+0	1.139278E+0	1.116022E+0	1.110268E+0	1.079334E+0	1.117274E+0	1.139718E+0	1.143144E+0	1.113305E+0	1.110761E+0	1.081138E+0	1.122376E+0	1.126891E+0	1.184104E+0	1.113217E+0	1.170829E+0	1.140058E+0	1.150152E+0	1.116717E+0	1.136198E+0	1.142488E+0	1.153754E+0	1.145004E+0	1.080715E+0	1.121982E+0	1.148922E+0	1.066998E+0	1.142082E+0	1.200316E+0	1.126716E+0	1.116345E+0	1.158227E+0	1.083368E+0	1.148785E+0	1.121361E+0	1.091336E+0	1.094308E+0	1.118396E+0	1.124221E+0	1.133613E+0	1.109344E+0	1.125736E+0	1.112915E+0	1.176454E+0	1.151801E+0	1.116687E+0	1.072957E+0	1.138079E+0	1.097402E+0	1.153708E+0	1.113005E+0	1.152752E+0	1.167237E+0	1.092803E+0	1.161210E+0	1.137091E+0	1.073616E+0	1.107040E+0	1.174139E+0	1.122218E+0	1.103559E+0	1.150444E+0	1.108161E+0	1.178753E+0	1.169447E+0	1.135892E+0	1.109779E+0	1.135081E+0	1.123057E+0	1.121327E+0	1.121111E+0	1.090281E+0	1.175772E+0	1.124100E+0	1.097748E+0	1.110993E+0	1.113281E+0	1.109644E+0	1.082648E+0	1.107317E+0	1.117888E+0	1.151190E+0	1.105398E+0	1.090676E+0	1.145705E+0	1.119620E+0	1.095384E+0	1.127158E+0	1.163567E+0	1.178234E+0	1.123532E+0	1.168504E+0	1.128210E+0	1.136428E+0	1.133586E+0	1.120891E+0	1.189954E+0	1.160836E+0	1.126294E+0	1.093681E+0	1.110888E+0	1.124679E+0	1.104434E+0	1.132121E+0	1.132208E+0	1.138335E+0	1.133253E+0	1.113201E+0	1.112465E+0	1.123201E+0	1.144601E+0	1.153855E+0	1.122731E+0	1.159947E+0	1.118380E+0	1.175285E+0	1.141137E+0	1.126140E+0	1.184020E+0	1.162364E+0	1.086129E+0	1.128684E+0	1.129940E+0	1.117179E+0	1.159602E+0	1.148271E+0	1.120553E+0	1.139996E+0	1.144553E+0	1.125174E+0	1.156609E+0	1.143149E+0	1.127507E+0	1.169644E+0	1.107932E+0	1.167173E+0	1.203900E+0
5.358600E+2	1.001045E+0	1.016439E+0	9.571442E-1	9.325701E-1	1.011694E+0	9.536982E-1	9.850395E-1	9.537412E-1	9.904904E-1	9.455825E-1	9.745718E-1	9.826045E-1	9.393557E-1	9.666281E-1	1.008613E+0	9.814943E-1	9.555086E-1	9.554254E-1	9.277633E-1	9.479779E-1	9.678431E-1	9.715766E-1	9.868752E-1	9.815181E-1	9.841515E-1	1.003922E+0	1.008103E+0	9.961650E-1	9.853771E-1	9.370414E-1	9.846041E-1	9.709860E-1	9.802450E-1	9.955370E-1	9.550297E-1	9.841873E-1	9.948769E-1	9.714268E-1	9.433703E-1	9.666817E-1	9.566052E-1	9.452081E-1	1.020872E+0	9.640791E-1	9.808128E-1	9.975351E-1	1.019081E+0	9.866142E-1	9.513272E-1	9.791570E-1	9.974992E-1	9.765938E-1	9.511325E-1	9.716715E-1	1.025535E+0	9.953501E-1	1.020664E+0	9.760754E-1	9.842816E-1	9.905645E-1	9.492826E-1	9.571628E-1	9.929580E-1	9.728948E-1	9.326384E-1	1.002525E+0	9.611393E-1	9.434993E-1	9.927325E-1	9.361674E-1	9.785466E-1	9.783661E-1	1.035643E+0	9.704226E-1	9.325668E-1	9.869105E-1	9.569956E-1	9.675127E-1	9.668997E-1	9.856825E-1	9.853434E-1	9.228151E-1	1.013789E+0	9.523722E-1	9.255407E-1	9.650788E-1	9.927150E-1	9.975817E-1	1.001220E+0	1.026589E+0	9.530644E-1	9.747937E-1	9.712181E-1	9.782272E-1	9.843639E-1	1.028106E+0	9.626985E-1	9.502827E-1	9.979457E-1	9.844387E-1	9.607083E-1	9.756816E-1	9.749629E-1	9.507967E-1	9.572702E-1	9.419344E-1	9.808645E-1	9.556139E-1	9.706979E-1	9.914642E-1	1.017675E+0	9.470459E-1	9.083230E-1	9.681060E-1	9.607685E-1	9.784777E-1	9.998949E-1	1.007421E+0	1.014824E+0	9.708482E-1	9.524263E-1	9.799984E-1	1.021977E+0	1.013628E+0	9.525549E-1	9.362458E-1	9.583554E-1	1.033344E+0	9.579823E-1	9.706348E-1	1.008102E+0	1.037406E+0	9.835869E-1	9.702431E-1	1.018280E+0	9.579498E-1	9.811421E-1	9.811911E-1	9.600949E-1	9.791325E-1	9.786450E-1	9.658220E-1	9.956502E-1	9.903348E-1	1.022258E+0	9.760789E-1	1.016867E+0	1.018178E+0	9.736569E-1	9.869898E-1	1.013683E+0	9.205629E-1	9.825552E-1	1.005304E+0	9.447888E-1	9.322449E-1	9.956150E-1	1.000417E+0	9.910491E-1	9.746141E-1	9.591196E-1	1.027580E+0	9.948640E-1	1.015892E+0	9.245608E-1	1.015230E+0	9.656293E-1	9.281031E-1	9.675378E-1	9.655003E-1	9.892216E-1
5.360070E+2	9.094564E-1	8.461567E-1	8.448345E-1	8.302350E-1	8.526625E-1	8.387295E-1	8.619212E-1	8.183914E-1	8.524342E-1	7.932291E-1	8.313916E-1	8.545670E-1	8.441785E-1	8.458592E-1	8.616241E-1	8.152535E-1	8.813320E-1	8.342990E-1	8.093711E-1	8.120476E-1	8.380784E-1	8.392458E-1	8.161941E-1	8.377647E-1	8.514238E-1	8.043363E-1	7.902850E-1	8.580513E-1	8.347746E-1	8.312495E-1	8.781791E-1	8.642464E-1	7.963668E-1	8.433160E-1	8.637178E-1	8.651468E-1	8.084958E-1	8.428773E-1	8.621275E-1	7.969820E-1	8.407456E-1	8.150855E-1	8.279734E-1	8.196921E-1	8.437018E-1	8.682715E-1	8.273549E-1	8.311364E-1	7.951615E-1	8.306098E-1	8.573796E-1	8.358127E-1	8.322350E-1	8.581303E-1	8.458508E-1	8.863918E-1	8.418643E-1	8.115748E-1	8.382207E-1	8.533539E-1	8.421949E-1	8.382862E-1	8.341076E-1	8.300661E-1	8.208138E-1	8.604433E-1	8.188430E-1	8.052269E-1	8.065926E-1	8.399082E-1	8.563904E-1	8.426646E-1	8.883056E-1	8.367353E-1	8.713143E-1	8.656045E-1	8.559612E-1	8.515211E-1	8.471257E-1	8.562235E-1	8.363421E-1	8.680163E-1	8.843378E-1	8.401745E-1	8.491803E-1	8.044303E-1	8.630270E-1	8.597989E-1	8.666967E-1	8.961328E-1	8.181064E-1	8.743415E-1	8.191322E-1	8.490891E-1	8.619174E-1	8.627198E-1	8.213167E-1	8.296986E-1	8.095523E-1	7.916373E-1	8.404904E-1	8.524094E-1	8.547104E-1	7.990250E-1	8.388763E-1	8.494835E-1	9.025634E-1	8.558751E-1	8.528890E-1	8.590245E-1	8.664244E-1	8.115439E-1	7.928947E-1	8.459599E-1	8.191726E-1	8.548217E-1	8.541515E-1	8.473150E-1	8.645545E-1	8.087946E-1	8.266528E-1	7.841424E-1	8.791066E-1	8.132345E-1	8.347435E-1	8.448870E-1	8.418665E-1	8.773399E-1	8.020546E-1	8.712479E-1	8.598346E-1	8.884957E-1	8.177796E-1	8.338240E-1	8.187727E-1	8.577581E-1	8.407143E-1	8.528724E-1	8.262744E-1	8.660433E-1	8.353589E-1	8.287717E-1	8.330790E-1	8.335171E-1	8.628606E-1	8.588770E-1	8.320797E-1	8.427165E-1	8.579055E-1	8.170963E-1	8.799109E-1	8.039690E-1	8.816134E-1	8.553825E-1	8.625419E-1	8.553134E-1	8.466375E-1	8.315679E-1	9.189285E-1	8.403726E-1	8.679851E-1	9.007317E-1	8.283633E-1	8.792394E-1	8.508672E-1	8.660644E-1	8.097944E-1	8.536512E-1	8.595129E-1	8.161145E-1	8.896954E-1
5.362680E+2	6.619129E-1	5.981681E-1	5.922030E-1	6.515631E-1	6.517706E-1	6.495379E-1	6.648579E-1	6.377940E-1	6.301426E-1	6.778529E-1	6.898904E-1	6.642158E-1	6.711298E-1	6.309332E-1	6.390688E-1	6.320510E-1	6.387852E-1	6.727757E-1	6.396891E-1	6.661126E-1	5.902292E-1	6.299633E-1	6.169807E-1	6.671013E-1	6.111191E-1	6.357021E-1	6.527826E-1	6.497814E-1	6.411876E-1	6.557504E-1	6.471228E-1	6.457589E-1	6.267205E-1	6.501833E-1	6.409451E-1	6.823109E-1	6.744069E-1	6.504153E-1	6.277908E-1	6.677723E-1	6.453097E-1	6.203384E-1	6.280897E-1	6.500230E-1	6.260381E-1	6.566097E-1	6.977493E-1	6.648494E-1	6.325674E-1	6.090076E-1	6.448240E-1	6.636830E-1	6.249552E-1	6.546443E-1	6.672797E-1	6.343285E-1	6.561444E-1	6.525516E-1	6.592044E-1	6.802632E-1	6.377691E-1	6.397759E-1	6.574992E-1	6.348895E-1	6.661840E-1	6.556399E-1	6.746353E-1	6.609567E-1	6.653891E-1	6.486246E-1	6.502518E-1	6.449215E-1	6.490031E-1	6.598283E-1	6.423505E-1	6.467626E-1	6.002269E-1	6.334920E-1	6.556687E-1	6.494976E-1	6.310864E-1	6.711699E-1	6.293617E-1	6.731535E-1	6.305536E-1	6.397563E-1	6.345439E-1	6.433875E-1	6.589015E-1	6.971638E-1	6.717010E-1	6.341705E-1	6.674620E-1	6.555943E-1	6.669009E-1	6.443489E-1	6.431450E-1	6.879010E-1	6.282548E-1	6.430473E-1	6.583376E-1	6.851989E-1	6.433668E-1	6.520619E-1	6.693882E-1	6.590879E-1	6.965422E-1	6.673753E-1	6.435787E-1	6.422212E-1	6.348368E-1	6.773178E-1	6.327965E-1	6.571673E-1	6.702749E-1	6.674883E-1	6.538200E-1	6.162623E-1	6.544719E-1	6.400706E-1	6.400269E-1	6.563480E-1	6.601582E-1	6.486915E-1	6.274009E-1	6.679873E-1	6.703760E-1	6.539891E-1	6.379242E-1	6.136490E-1	6.603786E-1	6.824368E-1	6.571875E-1	6.650782E-1	6.430100E-1	6.303225E-1	6.331056E-1	6.863433E-1	6.228992E-1	6.039906E-1	6.411906E-1	6.298581E-1	6.226301E-1	6.713630E-1	6.759196E-1	6.711758E-1	6.454532E-1	6.655249E-1	6.123256E-1	6.160054E-1	6.657118E-1	6.609862E-1	6.493991E-1	6.667028E-1	6.569045E-1	6.520096E-1	6.161961E-1	6.700888E-1	6.304013E-1	6.347342E-1	6.540550E-1	6.472248E-1	6.560752E-1	6.316188E-1	6.777810E-1	6.634985E-1	6.748222E-1	6.075688E-1	6.749865E-1	6.423405E-1	6.265563E-1
5.365140E+2	5.713201E-1	5.600403E-1	5.367719E-1	5.588266E-1	5.673853E-1	5.162687E-1	5.687014E-1	5.531973E-1	5.372747E-1	5.172901E-1	5.304131E-1	5.291565E-1	5.512018E-1	5.182757E-1	4.988926E-1	5.564894E-1	5.294422E-1	5.587036E-1	4.917553E-1	5.277707E-1	5.096159E-1	5.646505E-1	5.513260E-1	5.411491E-1	5.408239E-1	5.764454E-1	5.574723E-1	5.572420E-1	5.075420E-1	5.239142E-1	5.361446E-1	5.474462E-1	5.260542E-1	5.383697E-1	5.766826E-1	5.555674E-1	5.089792E-1	5.649504E-1	5.490054E-1	5.323982E-1	5.611630E-1	5.299031E-1	5.466668E-1	5.673649E-1	5.467149E-1	5.251740E-1	5.416149E-1	5.469528E-1	5.093333E-1	5.933870E-1	5.567314E-1	5.552275E-1	5.191716E-1	5.571702E-1	5.497566E-1	5.528071E-1	5.018352E-1	5.539196E-1	5.645189E-1	5.467787E-1	5.183457E-1	5.560807E-1	5.571361E-1	5.381826E-1	5.738155E-1	5.491961E-1	5.541160E-1	5.103893E-1	5.546598E-1	5.256491E-1	5.501142E-1	5.568698E-1	5.351314E-1	5.639085E-1	5.544011E-1	5.043450E-1	5.505086E-1	5.451598E-1	5.307929E-1	5.307500E-1	5.312969E-1	5.261284E-1	5.542271E-1	5.478714E-1	5.535293E-1	5.615075E-1	5.641693E-1	5.369276E-1	5.380351E-1	5.696820E-1	5.223310E-1	5.367712E-1	5.359068E-1	5.582668E-1	5.441753E-1	5.405245E-1	5.189903E-1	5.492789E-1	5.423005E-1	5.703943E-1	5.799611E-1	5.455489E-1	5.338043E-1	5.702058E-1	5.742560E-1	5.326544E-1	5.765600E-1	5.264361E-1	5.786862E-1	5.594832E-1	5.882007E-1	5.788319E-1	5.195761E-1	5.368180E-1	5.375839E-1	5.549239E-1	5.433445E-1	5.597922E-1	5.517099E-1	5.291120E-1	5.758646E-1	5.706089E-1	5.518759E-1	5.890030E-1	5.858999E-1	5.583071E-1	5.450344E-1	5.598579E-1	5.571629E-1	5.376160E-1	5.733579E-1	5.483659E-1	5.712096E-1	5.614475E-1	5.430704E-1	5.578426E-1	5.167747E-1	5.267281E-1	5.463778E-1	5.388974E-1	5.512322E-1	5.372309E-1	5.231469E-1	5.556199E-1	5.878221E-1	5.678731E-1	5.753490E-1	5.403845E-1	5.297497E-1	5.317837E-1	5.511343E-1	5.771337E-1	5.439427E-1	5.531410E-1	5.082914E-1	5.544913E-1	5.526785E-1	5.202859E-1	5.529815E-1	5.295337E-1	5.774033E-1	5.511064E-1	5.766403E-1	5.807370E-1	5.635649E-1	5.342807E-1	5.423895E-1	5.847280E-1	5.602434E-1	5.795374E-1	5.762535E-1
5.367710E+2	5.612732E-1	5.527341E-1	5.010268E-1	5.027697E-1	5.032133E-1	5.002575E-1	5.584554E-1	5.023223E-1	5.626111E-1	4.992054E-1	5.206294E-1	4.973600E-1	5.310781E-1	5.260716E-1	5.340449E-1	5.204729E-1	5.291184E-1	5.523357E-1	5.540167E-1	5.489062E-1	5.095532E-1	5.098950E-1	5.141004E-1	5.175074E-1	5.554361E-1	5.115973E-1	5.858612E-1	5.720366E-1	5.321296E-1	5.191342E-1	5.377975E-1	5.179416E-1	4.785668E-1	5.396994E-1	5.280772E-1	4.899507E-1	5.406564E-1	5.230349E-1	5.282794E-1	5.135944E-1	5.074041E-1	5.209777E-1	5.470745E-1	5.271846E-1	5.237204E-1	5.627589E-1	5.317464E-1	5.042121E-1	5.296105E-1	5.394894E-1	5.244432E-1	5.156508E-1	4.995640E-1	5.373754E-1	5.269797E-1	5.282524E-1	5.660876E-1	5.302233E-1	5.409909E-1	5.187483E-1	5.119744E-1	5.412154E-1	5.487425E-1	5.436828E-1	5.345946E-1	5.556839E-1	4.851124E-1	5.094532E-1	5.484824E-1	5.277018E-1	5.427465E-1	5.179240E-1	5.060733E-1	5.407067E-1	5.500020E-1	5.572011E-1	5.143883E-1	5.331306E-1	5.782913E-1	5.232212E-1	5.268645E-1	5.165960E-1	5.248600E-1	5.511922E-1	5.373352E-1	5.256060E-1	5.336102E-1	5.130999E-1	5.303727E-1	5.331095E-1	5.271216E-1	5.370967E-1	5.399497E-1	5.336919E-1	5.747170E-1	5.315542E-1	5.292982E-1	5.313643E-1	4.792035E-1	5.325246E-1	5.041083E-1	5.322343E-1	5.418337E-1	5.321250E-1	5.025922E-1	5.015135E-1	5.505401E-1	5.199602E-1	5.180235E-1	5.298814E-1	5.285819E-1	5.295602E-1	5.192034E-1	5.409858E-1	5.609080E-1	5.698425E-1	5.041456E-1	5.241678E-1	4.989227E-1	5.105036E-1	5.384986E-1	5.285196E-1	5.022741E-1	5.134311E-1	5.146346E-1	5.319943E-1	5.613275E-1	5.453412E-1	5.463345E-1	5.391875E-1	5.398001E-1	5.600681E-1	5.231965E-1	5.330860E-1	5.572283E-1	5.349506E-1	5.108853E-1	5.646283E-1	5.608196E-1	5.410139E-1	5.405709E-1	5.250795E-1	5.608923E-1	5.228443E-1	5.389927E-1	5.284013E-1	5.572000E-1	5.426391E-1	5.290445E-1	5.219376E-1	5.373180E-1	5.620786E-1	5.191346E-1	5.243386E-1	5.053681E-1	5.350053E-1	5.674701E-1	5.085685E-1	5.550982E-1	5.365975E-1	5.334273E-1	5.184666E-1	5.535153E-1	5.228601E-1	5.155940E-1	5.399363E-1	5.256288E-1	5.448568E-1	5.366134E-1	5.594505E-1	5.801093E-1
5.370170E+2	6.028010E-1	5.636251E-1	5.234451E-1	5.504167E-1	5.873371E-1	5.797958E-1	5.430544E-1	5.462013E-1	5.600848E-1	5.574683E-1	5.671832E-1	5.901963E-1	5.447315E-1	5.301364E-1	5.391629E-1	5.696769E-1	5.601373E-1	5.633944E-1	5.669624E-1	5.647942E-1	5.599610E-1	5.723561E-1	5.591314E-1	5.456801E-1	5.625777E-1	5.489637E-1	5.897753E-1	5.942691E-1	5.399378E-1	5.588231E-1	5.823049E-1	5.668275E-1	5.018933E-1	5.669274E-1	5.921348E-1	5.384716E-1	5.214167E-1	5.724667E-1	5.679458E-1	5.732647E-1	5.395122E-1	5.808141E-1	5.654111E-1	5.593410E-1	5.846515E-1	6.011851E-1	5.939710E-1	5.753729E-1	5.582065E-1	5.181803E-1	5.742483E-1	5.920776E-1	5.964226E-1	5.648635E-1	5.726555E-1	5.723989E-1	5.260970E-1	5.426406E-1	5.792100E-1	5.564219E-1	5.753076E-1	5.240100E-1	5.327091E-1	5.453539E-1	5.562110E-1	5.677458E-1	5.767598E-1	5.835930E-1	5.636767E-1	5.870827E-1	5.599611E-1	5.642169E-1	5.664581E-1	5.580960E-1	5.606252E-1	5.896713E-1	5.426133E-1	5.602276E-1	5.752235E-1	5.639629E-1	5.606672E-1	5.611787E-1	5.646601E-1	5.529549E-1	5.354225E-1	5.647032E-1	5.870962E-1	5.896485E-1	6.074041E-1	5.981175E-1	5.248528E-1	5.561622E-1	5.586123E-1	5.461976E-1	6.198700E-1	5.795633E-1	5.560464E-1	5.379815E-1	5.658311E-1	6.000194E-1	5.513212E-1	5.727280E-1	5.483494E-1	5.481428E-1	5.850136E-1	5.758155E-1	5.639339E-1	5.748469E-1	5.370086E-1	5.892429E-1	5.596568E-1	5.740471E-1	5.671441E-1	5.658958E-1	5.743615E-1	5.714753E-1	5.852849E-1	5.413409E-1	5.555966E-1	5.494531E-1	5.732765E-1	5.582421E-1	5.960185E-1	5.881831E-1	5.703743E-1	5.373667E-1	6.139686E-1	5.661400E-1	5.653232E-1	5.624725E-1	5.827821E-1	5.765071E-1	5.944620E-1	5.433321E-1	5.733145E-1	5.625775E-1	5.585623E-1	5.289361E-1	5.584202E-1	5.833242E-1	5.502866E-1	5.491505E-1	5.494482E-1	5.632873E-1	5.753995E-1	6.027577E-1	5.867821E-1	5.795990E-1	5.581253E-1	5.741193E-1	5.776828E-1	5.703470E-1	6.049200E-1	5.541456E-1	5.821670E-1	5.569342E-1	5.877446E-1	5.884201E-1	6.030698E-1	5.643537E-1	5.864898E-1	5.785690E-1	5.801455E-1	5.868697E-1	5.409598E-1	6.111914E-1	5.840342E-1	5.576160E-1	5.290187E-1	5.149420E-1	5.654087E-1
5.372640E+2	6.893499E-1	6.926019E-1	6.481434E-1	6.565786E-1	6.649157E-1	6.210653E-1	6.693553E-1	6.393870E-1	6.430876E-1	6.213135E-1	6.092048E-1	6.814218E-1	6.252279E-1	6.113942E-1	6.482303E-1	6.457431E-1	6.407731E-1	6.039417E-1	6.182664E-1	6.545363E-1	6.517475E-1	6.419107E-1	6.661534E-1	6.316464E-1	6.591819E-1	6.585019E-1	6.656432E-1	6.579219E-1	6.403141E-1	6.195321E-1	6.236487E-1	6.746743E-1	6.453322E-1	6.505280E-1	6.419955E-1	6.026547E-1	6.279194E-1	6.375481E-1	6.257040E-1	6.854037E-1	6.284365E-1	6.584410E-1	6.535274E-1	6.259519E-1	6.305889E-1	6.861765E-1	6.737748E-1	6.629685E-1	6.566190E-1	6.553880E-1	6.287378E-1	6.769609E-1	6.401755E-1	6.373802E-1	6.146349E-1	6.455215E-1	6.390954E-1	6.443346E-1	6.528300E-1	6.262393E-1	6.495830E-1	6.791525E-1	6.372863E-1	6.301434E-1	6.873969E-1	6.276589E-1	6.494354E-1	6.555047E-1	6.411656E-1	6.423850E-1	6.420619E-1	6.457015E-1	6.353349E-1	6.231248E-1	6.546736E-1	6.979836E-1	6.207318E-1	6.171448E-1	6.788298E-1	6.652796E-1	6.415804E-1	6.383339E-1	6.557121E-1	6.316371E-1	6.401736E-1	6.100841E-1	6.611575E-1	6.375169E-1	6.549201E-1	6.287584E-1	6.290695E-1	6.406998E-1	6.425717E-1	6.302761E-1	6.601087E-1	6.511350E-1	6.269865E-1	6.496235E-1	6.540932E-1	6.285901E-1	6.713412E-1	6.762312E-1	6.690723E-1	6.430010E-1	6.255315E-1	6.300962E-1	6.677102E-1	6.595038E-1	6.513636E-1	6.168956E-1	6.567668E-1	6.402435E-1	6.469474E-1	6.547259E-1	6.470475E-1	6.555236E-1	6.693758E-1	6.683983E-1	6.465537E-1	6.728907E-1	6.639916E-1	6.430315E-1	6.478114E-1	6.811511E-1	6.503435E-1	6.556439E-1	6.662229E-1	6.521387E-1	6.777933E-1	6.783227E-1	6.933365E-1	6.741487E-1	6.395535E-1	6.435419E-1	6.529040E-1	6.300520E-1	6.580367E-1	6.713815E-1	6.056770E-1	6.654560E-1	6.395137E-1	6.185520E-1	6.861350E-1	6.416550E-1	6.584619E-1	6.353498E-1	6.541613E-1	6.561394E-1	6.901898E-1	6.464973E-1	6.520191E-1	6.670777E-1	6.591405E-1	6.334526E-1	6.278807E-1	6.350980E-1	6.463390E-1	6.762755E-1	6.839880E-1	6.254452E-1	6.129849E-1	6.602050E-1	6.365616E-1	6.620598E-1	6.715658E-1	6.469070E-1	6.688147E-1	6.647473E-1	6.787571E-1	6.571804E-1	6.914733E-1
5.375060E+2	7.409946E-1	7.293158E-1	7.264694E-1	7.437718E-1	7.616104E-1	7.486496E-1	7.418681E-1	7.390055E-1	7.454158E-1	7.167093E-1	6.967892E-1	7.724509E-1	7.017287E-1	7.305765E-1	7.534793E-1	7.540763E-1	7.188202E-1	7.252102E-1	7.085479E-1	7.784420E-1	7.359745E-1	7.353087E-1	7.227203E-1	7.247644E-1	7.032957E-1	7.199648E-1	7.381618E-1	7.493710E-1	7.581284E-1	7.342629E-1	7.184875E-1	7.434871E-1	7.275618E-1	7.436121E-1	7.653697E-1	7.419643E-1	7.338431E-1	7.454441E-1	7.885343E-1	7.509449E-1	7.382653E-1	7.472280E-1	7.506503E-1	7.453116E-1	7.461098E-1	7.783989E-1	7.247624E-1	7.633766E-1	7.266664E-1	7.180896E-1	7.747156E-1	7.883842E-1	7.307062E-1	7.370425E-1	7.322914E-1	7.487754E-1	7.623419E-1	6.964900E-1	7.468362E-1	7.526331E-1	7.656004E-1	7.632862E-1	7.297940E-1	7.327919E-1	7.464569E-1	7.403281E-1	7.625658E-1	7.327206E-1	7.231958E-1	7.514987E-1	7.250589E-1	7.726633E-1	7.098134E-1	7.546495E-1	7.268945E-1	7.324699E-1	7.677928E-1	7.148928E-1	7.375825E-1	8.030785E-1	7.413618E-1	7.124280E-1	7.566296E-1	7.545723E-1	7.685566E-1	7.676373E-1	7.819340E-1	7.491751E-1	7.774604E-1	7.669469E-1	7.151694E-1	7.589260E-1	7.659127E-1	7.040307E-1	7.309394E-1	7.554208E-1	7.449616E-1	7.680569E-1	7.757050E-1	7.578356E-1	7.421556E-1	7.608999E-1	7.464820E-1	7.476638E-1	7.722313E-1	7.147608E-1	7.984328E-1	7.666469E-1	7.201466E-1	7.599935E-1	7.891819E-1	7.626431E-1	7.367941E-1	7.724607E-1	7.540361E-1	7.496058E-1	7.275906E-1	7.371728E-1	7.268903E-1	7.658567E-1	7.811011E-1	7.660374E-1	7.389325E-1	7.173502E-1	7.391837E-1	7.262449E-1	7.733789E-1	7.204669E-1	7.526127E-1	7.442140E-1	7.774248E-1	7.380218E-1	7.251272E-1	7.217235E-1	7.506526E-1	7.205161E-1	7.238737E-1	7.262377E-1	7.719190E-1	7.450890E-1	7.657539E-1	7.468514E-1	7.438881E-1	7.921199E-1	7.526962E-1	7.824837E-1	7.500673E-1	7.551074E-1	7.584146E-1	7.258876E-1	7.432916E-1	7.683793E-1	7.305894E-1	7.423537E-1	7.224956E-1	7.199689E-1	7.600516E-1	7.728934E-1	7.639750E-1	7.486051E-1	7.459995E-1	7.645833E-1	7.492434E-1	7.441406E-1	7.127664E-1	7.468554E-1	7.398949E-1	7.805150E-1	7.411468E-1	7.561750E-1	7.601320E-1
5.377580E+2	8.774213E-1	8.416749E-1	8.041389E-1	8.432434E-1	8.271030E-1	8.572267E-1	9.039342E-1	8.521107E-1	7.853160E-1	8.631881E-1	8.488126E-1	8.930349E-1	8.469723E-1	8.626790E-1	8.675938E-1	8.415755E-1	8.097565E-1	8.527666E-1	8.664972E-1	8.327967E-1	8.461258E-1	8.307415E-1	8.558218E-1	7.986730E-1	8.139787E-1	8.899860E-1	8.897660E-1	8.608684E-1	8.566829E-1	8.461562E-1	8.431000E-1	8.707520E-1	8.075836E-1	8.427995E-1	8.503298E-1	8.521357E-1	8.499524E-1	8.416167E-1	8.373838E-1	8.524952E-1	8.692234E-1	8.670596E-1	8.697216E-1	8.575498E-1	8.427946E-1	8.207637E-1	8.426879E-1	8.718061E-1	8.037255E-1	8.713337E-1	8.754195E-1	9.216770E-1	8.633668E-1	8.627770E-1	8.569664E-1	8.373711E-1	8.386545E-1	8.793527E-1	8.762547E-1	8.618897E-1	8.359045E-1	8.588784E-1	8.498305E-1	8.531513E-1	8.402831E-1	8.496046E-1	8.242750E-1	8.700124E-1	8.416841E-1	8.375903E-1	8.757026E-1	8.708636E-1	8.592016E-1	8.440321E-1	8.816064E-1	8.496441E-1	8.197765E-1	8.094704E-1	8.292374E-1	8.639016E-1	8.462667E-1	8.660725E-1	8.136781E-1	8.955070E-1	8.343476E-1	8.211239E-1	8.858226E-1	8.516238E-1	8.547685E-1	8.345094E-1	8.483597E-1	8.585381E-1	8.776536E-1	8.525332E-1	8.905778E-1	8.513187E-1	8.803475E-1	8.438780E-1	8.159198E-1	8.367331E-1	8.490346E-1	8.577492E-1	8.758806E-1	8.753738E-1	9.186129E-1	8.303035E-1	8.226122E-1	8.791351E-1	8.155485E-1	8.392143E-1	8.750863E-1	8.587562E-1	8.148565E-1	9.154751E-1	8.543691E-1	8.599189E-1	8.475846E-1	8.839863E-1	8.952901E-1	8.522711E-1	8.651614E-1	8.441682E-1	8.650261E-1	8.395603E-1	8.817701E-1	8.804772E-1	8.668066E-1	8.249084E-1	8.484241E-1	8.139151E-1	9.014511E-1	8.708428E-1	8.444509E-1	8.333922E-1	8.236693E-1	8.840593E-1	8.701198E-1	8.881018E-1	8.759223E-1	8.637559E-1	8.669066E-1	8.584122E-1	8.795552E-1	9.034004E-1	9.098590E-1	9.190932E-1	8.253190E-1	8.398080E-1	8.294899E-1	8.212316E-1	8.614254E-1	8.712167E-1	8.723089E-1	8.306906E-1	8.221228E-1	8.348610E-1	8.614680E-1	8.872429E-1	8.927617E-1	8.453266E-1	8.764259E-1	8.531811E-1	8.480457E-1	8.213703E-1	8.874266E-1	8.570313E-1	8.754137E-1	8.159047E-1	8.585868E-1	8.558183E-1	9.592742E-1
5.380160E+2	1.050491E+0	9.890878E-1	9.885266E-1	1.041288E+0	9.559208E-1	1.030548E+0	1.057104E+0	1.022058E+0	1.054211E+0	9.946181E-1	9.819637E-1	9.656159E-1	1.000967E+0	1.004828E+0	1.000381E+0	9.876689E-1	1.037954E+0	1.079648E+0	1.024498E+0	1.026252E+0	1.014873E+0	9.676249E-1	9.835756E-1	1.041582E+0	1.000573E+0	1.011787E+0	1.017765E+0	1.009405E+0	9.815734E-1	1.010419E+0	1.016096E+0	1.031482E+0	1.018472E+0	1.010517E+0	1.028549E+0	1.059002E+0	1.012792E+0	1.001505E+0	1.034137E+0	1.039212E+0	1.051757E+0	1.029577E+0	9.881765E-1	1.015899E+0	9.902552E-1	1.000515E+0	9.895030E-1	1.039709E+0	9.940828E-1	1.015058E+0	1.019629E+0	1.012980E+0	9.848183E-1	1.015980E+0	9.983941E-1	9.771348E-1	9.755793E-1	1.086791E+0	1.005169E+0	1.042929E+0	1.001831E+0	9.982350E-1	1.058054E+0	1.019589E+0	1.030896E+0	1.049958E+0	1.002941E+0	9.851100E-1	9.869172E-1	1.011080E+0	1.072888E+0	1.003522E+0	9.898038E-1	1.025523E+0	1.072995E+0	1.031940E+0	1.030985E+0	9.861761E-1	1.023613E+0	1.049571E+0	9.247825E-1	9.921776E-1	1.027192E+0	1.011305E+0	9.605728E-1	1.003325E+0	1.019231E+0	9.870519E-1	9.850003E-1	1.036469E+0	1.016443E+0	1.013731E+0	1.046488E+0	9.859939E-1	9.973779E-1	1.031693E+0	9.578812E-1	1.043304E+0	9.589005E-1	9.960035E-1	1.031249E+0	1.009680E+0	1.044688E+0	9.963203E-1	1.041302E+0	1.027750E+0	1.020335E+0	1.019353E+0	9.575625E-1	1.019452E+0	1.021794E+0	9.898375E-1	1.005763E+0	9.780853E-1	9.628561E-1	9.910391E-1	1.007525E+0	1.030334E+0	1.026613E+0	9.773898E-1	1.004293E+0	1.025383E+0	1.027475E+0	1.034712E+0	1.027876E+0	1.036415E+0	1.020576E+0	1.025100E+0	1.008983E+0	1.041255E+0	9.747361E-1	9.957264E-1	1.048859E+0	9.920576E-1	1.007175E+0	1.042920E+0	1.003969E+0	1.018364E+0	1.026972E+0	1.026935E+0	1.009417E+0	1.005909E+0	9.922993E-1	1.054168E+0	1.027727E+0	1.055614E+0	9.880637E-1	1.045544E+0	9.866238E-1	1.030144E+0	1.004950E+0	1.020979E+0	1.022661E+0	1.003063E+0	9.828420E-1	1.011780E+0	9.871349E-1	1.028274E+0	1.009345E+0	1.037245E+0	1.052633E+0	1.025827E+0	1.029785E+0	9.849070E-1	9.844206E-1	1.054179E+0	9.957912E-1	9.988060E-1	1.023993E+0	1.032323E+0	9.995290E-1
5.382740E+2	1.278143E+0	1.256961E+0	1.228871E+0	1.246384E+0	1.231413E+0	1.187128E+0	1.219978E+0	1.242324E+0	1.248264E+0	1.214275E+0	1.202708E+0	1.207695E+0	1.205889E+0	1.219876E+0	1.241966E+0	1.242180E+0	1.221900E+0	1.204755E+0	1.268843E+0	1.221183E+0	1.286702E+0	1.258157E+0	1.273795E+0	1.262268E+0	1.158840E+0	1.215421E+0	1.255507E+0	1.273818E+0	1.289460E+0	1.198964E+0	1.228613E+0	1.217138E+0	1.218374E+0	1.183679E+0	1.216459E+0	1.198130E+0	1.232572E+0	1.234249E+0	1.276446E+0	1.253318E+0	1.214900E+0	1.161303E+0	1.216641E+0	1.216713E+0	1.219405E+0	1.236350E+0	1.257708E+0	1.230690E+0	1.245874E+0	1.209678E+0	1.181137E+0	1.230349E+0	1.199199E+0	1.233976E+0	1.205494E+0	1.276997E+0	1.247775E+0	1.262432E+0	1.221108E+0	1.201113E+0	1.250397E+0	1.254257E+0	1.235017E+0	1.202422E+0	1.291316E+0	1.237471E+0	1.245001E+0	1.265913E+0	1.204804E+0	1.240274E+0	1.275375E+0	1.289701E+0	1.198716E+0	1.237597E+0	1.213178E+0	1.192848E+0	1.249409E+0	1.230415E+0	1.231843E+0	1.230919E+0	1.210814E+0	1.238031E+0	1.207162E+0	1.217663E+0	1.236639E+0	1.254689E+0	1.266244E+0	1.252614E+0	1.267653E+0	1.242604E+0	1.206753E+0	1.243870E+0	1.203504E+0	1.216183E+0	1.241773E+0	1.245757E+0	1.201667E+0	1.183226E+0	1.219375E+0	1.223238E+0	1.206184E+0	1.229287E+0	1.242343E+0	1.192444E+0	1.202868E+0	1.233684E+0	1.270415E+0	1.251758E+0	1.216807E+0	1.207157E+0	1.220287E+0	1.182084E+0	1.189183E+0	1.233681E+0	1.185047E+0	1.222091E+0	1.231302E+0	1.214178E+0	1.204185E+0	1.224389E+0	1.185708E+0	1.234561E+0	1.253205E+0	1.255551E+0	1.226929E+0	1.271682E+0	1.208914E+0	1.226021E+0	1.191471E+0	1.257864E+0	1.267455E+0	1.288683E+0	1.213401E+0	1.220854E+0	1.194444E+0	1.263722E+0	1.201015E+0	1.271626E+0	1.221517E+0	1.215740E+0	1.230505E+0	1.197220E+0	1.261336E+0	1.218741E+0	1.272549E+0	1.246747E+0	1.239577E+0	1.216927E+0	1.221818E+0	1.227904E+0	1.209545E+0	1.229160E+0	1.182769E+0	1.219228E+0	1.209589E+0	1.246535E+0	1.257735E+0	1.251042E+0	1.193654E+0	1.215175E+0	1.197464E+0	1.234078E+0	1.216764E+0	1.205792E+0	1.213526E+0	1.262720E+0	1.261099E+0	1.223054E+0	1.234076E+0	1.127811E+0	1.269992E+0
5.385060E+2	1.471418E+0	1.485332E+0	1.463935E+0	1.438936E+0	1.493306E+0	1.443329E+0	1.454750E+0	1.393140E+0	1.445655E+0	1.441316E+0	1.525275E+0	1.477691E+0	1.411753E+0	1.436568E+0	1.431759E+0	1.487170E+0	1.492803E+0	1.495210E+0	1.434684E+0	1.519496E+0	1.401674E+0	1.415283E+0	1.526509E+0	1.447889E+0	1.416020E+0	1.441206E+0	1.478040E+0	1.494305E+0	1.425535E+0	1.409368E+0	1.383379E+0	1.409130E+0	1.422532E+0	1.368013E+0	1.447082E+0	1.416668E+0	1.408103E+0	1.412512E+0	1.406535E+0	1.431079E+0	1.383671E+0	1.449553E+0	1.392954E+0	1.444559E+0	1.423077E+0	1.455422E+0	1.464575E+0	1.475315E+0	1.446277E+0	1.456442E+0	1.400333E+0	1.454180E+0	1.381580E+0	1.449903E+0	1.457381E+0	1.416853E+0	1.405711E+0	1.445137E+0	1.429277E+0	1.433702E+0	1.446623E+0	1.405627E+0	1.418737E+0	1.410838E+0	1.418707E+0	1.408035E+0	1.407751E+0	1.380045E+0	1.418083E+0	1.404809E+0	1.481482E+0	1.458909E+0	1.381461E+0	1.419421E+0	1.433324E+0	1.418537E+0	1.431472E+0	1.416077E+0	1.403354E+0	1.440394E+0	1.419759E+0	1.450546E+0	1.483122E+0	1.380932E+0	1.445046E+0	1.383334E+0	1.463464E+0	1.444338E+0	1.445526E+0	1.436637E+0	1.370024E+0	1.452998E+0	1.440142E+0	1.468971E+0	1.438513E+0	1.453366E+0	1.389401E+0	1.477098E+0	1.411498E+0	1.454003E+0	1.440276E+0	1.497349E+0	1.409547E+0	1.426335E+0	1.438299E+0	1.419989E+0	1.396108E+0	1.452242E+0	1.443163E+0	1.513570E+0	1.407900E+0	1.430682E+0	1.457060E+0	1.410766E+0	1.428199E+0	1.394594E+0	1.445616E+0	1.394943E+0	1.431276E+0	1.437031E+0	1.419018E+0	1.459360E+0	1.432873E+0	1.400388E+0	1.422817E+0	1.472465E+0	1.420909E+0	1.400430E+0	1.417347E+0	1.407293E+0	1.493018E+0	1.465628E+0	1.426041E+0	1.402600E+0	1.448321E+0	1.473249E+0	1.406878E+0	1.463970E+0	1.432545E+0	1.445821E+0	1.454779E+0	1.409746E+0	1.384644E+0	1.450486E+0	1.422306E+0	1.419683E+0	1.354199E+0	1.518317E+0	1.441347E+0	1.442280E+0	1.433972E+0	1.408279E+0	1.411755E+0	1.408180E+0	1.451803E+0	1.385844E+0	1.453106E+0	1.463548E+0	1.429354E+0	1.451532E+0	1.419209E+0	1.447688E+0	1.476473E+0	1.394457E+0	1.379233E+0	1.396407E+0	1.422693E+0	1.456632E+0	1.448545E+0	1.357449E+0	1.484558E+0
5.387650E+2	1.785411E+0	1.662483E+0	1.692713E+0	1.694643E+0	1.656151E+0	1.692636E+0	1.689535E+0	1.719942E+0	1.645250E+0	1.693181E+0	1.627032E+0	1.641909E+0	1.680313E+0	1.711173E+0	1.686511E+0	1.696023E+0	1.626296E+0	1.658815E+0	1.686191E+0	1.736974E+0	1.668952E+0	1.606807E+0	1.651372E+0	1.672433E+0	1.618430E+0	1.658459E+0	1.695354E+0	1.739992E+0	1.684884E+0	1.646064E+0	1.684352E+0	1.703688E+0	1.669998E+0	1.669224E+0	1.676396E+0	1.648249E+0	1.674683E+0	1.694211E+0	1.651162E+0	1.673700E+0	1.682192E+0	1.651384E+0	1.699748E+0	1.668448E+0	1.675523E+0	1.658805E+0	1.735009E+0	1.658101E+0	1.715608E+0	1.688997E+0	1.675517E+0	1.692672E+0	1.654265E+0	1.688453E+0	1.684353E+0	1.696491E+0	1.702942E+0	1.640599E+0	1.630328E+0	1.678323E+0	1.697492E+0	1.654912E+0	1.689822E+0	1.629692E+0	1.687012E+0	1.702470E+0	1.634522E+0	1.627258E+0	1.621743E+0	1.692828E+0	1.711001E+0	1.684192E+0	1.698531E+0	1.683943E+0	1.673657E+0	1.647224E+0	1.629166E+0	1.703874E+0	1.764427E+0	1.676581E+0	1.568951E+0	1.624809E+0	1.594749E+0	1.724051E+0	1.648510E+0	1.593430E+0	1.726808E+0	1.637919E+0	1.695075E+0	1.679510E+0	1.674002E+0	1.684981E+0	1.690278E+0	1.668932E+0	1.668042E+0	1.674236E+0	1.600780E+0	1.699078E+0	1.610915E+0	1.632353E+0	1.653774E+0	1.646860E+0	1.712680E+0	1.647436E+0	1.686886E+0	1.640207E+0	1.670589E+0	1.654411E+0	1.562634E+0	1.668793E+0	1.638937E+0	1.679014E+0	1.652878E+0	1.659896E+0	1.640138E+0	1.592684E+0	1.625283E+0	1.616973E+0	1.694530E+0	1.637252E+0	1.640466E+0	1.631276E+0	1.680909E+0	1.624983E+0	1.641911E+0	1.704981E+0	1.618449E+0	1.658314E+0	1.627293E+0	1.688824E+0	1.696730E+0	1.682868E+0	1.638020E+0	1.631110E+0	1.629372E+0	1.621879E+0	1.686877E+0	1.618912E+0	1.625225E+0	1.670471E+0	1.647518E+0	1.673291E+0	1.627753E+0	1.596975E+0	1.683486E+0	1.697388E+0	1.604837E+0	1.629425E+0	1.726940E+0	1.656458E+0	1.721940E+0	1.693828E+0	1.638981E+0	1.721147E+0	1.613393E+0	1.642125E+0	1.719681E+0	1.678752E+0	1.650119E+0	1.610246E+0	1.658590E+0	1.622438E+0	1.641058E+0	1.620450E+0	1.644810E+0	1.615692E+0	1.697936E+0	1.613958E+0	1.662677E+0	1.543634E+0	1.678957E+0
5.390450E+2	1.974899E+0	1.917773E+0	1.827671E+0	1.916479E+0	1.938899E+0	1.866291E+0	1.926598E+0	1.945367E+0	1.902831E+0	1.865929E+0	1.900318E+0	1.901291E+0	1.864667E+0	1.876090E+0	1.871099E+0	1.931935E+0	1.915272E+0	1.943323E+0	1.900067E+0	1.912218E+0	1.901616E+0	1.881708E+0	1.952706E+0	1.916571E+0	1.853299E+0	1.889196E+0	1.991956E+0	1.903722E+0	1.906927E+0	1.907950E+0	1.862283E+0	1.912322E+0	1.917266E+0	1.916333E+0	1.934370E+0	1.880107E+0	1.806935E+0	1.873589E+0	1.872590E+0	1.953510E+0	1.888608E+0	1.862467E+0	1.957715E+0	1.918818E+0	1.900455E+0	1.951764E+0	1.928767E+0	1.879363E+0	1.860182E+0	1.917654E+0	1.918606E+0	1.822171E+0	1.863637E+0	1.915047E+0	1.952884E+0	1.909139E+0	1.841877E+0	1.939693E+0	1.903811E+0	1.866239E+0	1.890227E+0	1.888825E+0	1.889463E+0	1.805432E+0	1.878818E+0	1.875651E+0	1.840086E+0	1.808735E+0	1.894177E+0	1.895354E+0	1.871372E+0	1.894855E+0	1.900635E+0	1.924840E+0	1.908632E+0	1.818972E+0	1.813854E+0	1.790811E+0	1.862436E+0	1.896592E+0	1.874580E+0	1.862108E+0	1.953780E+0	1.907727E+0	1.830195E+0	1.834450E+0	1.937125E+0	1.868916E+0	1.842084E+0	1.858467E+0	1.883546E+0	1.893432E+0	1.816513E+0	1.878527E+0	1.905451E+0	1.914135E+0	1.862465E+0	1.894327E+0	1.857718E+0	1.843297E+0	1.891893E+0	1.830311E+0	1.892469E+0	1.838450E+0	1.847353E+0	1.792933E+0	1.891632E+0	1.819932E+0	1.845273E+0	1.855626E+0	1.874265E+0	1.872144E+0	1.849421E+0	1.828464E+0	1.883922E+0	1.872315E+0	1.857098E+0	1.811997E+0	1.870990E+0	1.839530E+0	1.802368E+0	1.895282E+0	1.939371E+0	1.868233E+0	1.837540E+0	1.886300E+0	1.879051E+0	1.834311E+0	1.879491E+0	1.852506E+0	1.828543E+0	1.883449E+0	1.917249E+0	1.888049E+0	1.796457E+0	1.821198E+0	1.773123E+0	1.823737E+0	1.849584E+0	1.855803E+0	1.872575E+0	1.828737E+0	1.824562E+0	1.838952E+0	1.897878E+0	1.851080E+0	1.795154E+0	1.800029E+0	1.858970E+0	1.851541E+0	1.825013E+0	1.834271E+0	1.787712E+0	1.851402E+0	1.802300E+0	1.826939E+0	1.930050E+0	1.851348E+0	1.864118E+0	1.797540E+0	1.866565E+0	1.822538E+0	1.849152E+0	1.806043E+0	1.797324E+0	1.798177E+0	1.820834E+0	1.851380E+0	1.832727E+0	1.763067E+0	1.798863E+0
5.392720E+2	2.145327E+0	2.043825E+0	2.013375E+0	1.989084E+0	2.088599E+0	2.011992E+0	2.072153E+0	2.039148E+0	2.062770E+0	1.981425E+0	2.087558E+0	2.078879E+0	2.037713E+0	2.020524E+0	2.032807E+0	2.033973E+0	2.104742E+0	2.058508E+0	2.061511E+0	2.110833E+0	2.061535E+0	2.041336E+0	2.056235E+0	2.077040E+0	2.015439E+0	2.004737E+0	2.114867E+0	2.093367E+0	2.105880E+0	2.076247E+0	2.024588E+0	2.035307E+0	2.002590E+0	1.997378E+0	2.062609E+0	2.100506E+0	2.046671E+0	2.033403E+0	2.071323E+0	2.029837E+0	2.134446E+0	1.974186E+0	2.107112E+0	2.026645E+0	2.093548E+0	2.074897E+0	2.029298E+0	2.015833E+0	2.045286E+0	2.078020E+0	2.040572E+0	2.062659E+0	2.035452E+0	1.995895E+0	2.076449E+0	1.999747E+0	2.021985E+0	2.073432E+0	2.124310E+0	2.007820E+0	1.991577E+0	2.067064E+0	2.051709E+0	2.050373E+0	2.050114E+0	2.043335E+0	2.039834E+0	2.029535E+0	2.073606E+0	2.002538E+0	2.076287E+0	2.027616E+0	1.995485E+0	2.040574E+0	2.098974E+0	2.047546E+0	2.078939E+0	2.030287E+0	2.071593E+0	2.057005E+0	2.015331E+0	1.991128E+0	1.969320E+0	2.031075E+0	1.978069E+0	2.029334E+0	2.164962E+0	2.010423E+0	2.098165E+0	2.106913E+0	2.052543E+0	1.986060E+0	2.124445E+0	2.025176E+0	2.007634E+0	2.003883E+0	2.007033E+0	2.060494E+0	1.992662E+0	1.996449E+0	1.990950E+0	1.971930E+0	2.054295E+0	2.009857E+0	2.054232E+0	2.014145E+0	2.023598E+0	2.048689E+0	1.968262E+0	1.988517E+0	2.089475E+0	2.014709E+0	2.015690E+0	2.053000E+0	2.020344E+0	2.024395E+0	1.975863E+0	2.035139E+0	2.027556E+0	2.010598E+0	1.921308E+0	2.022311E+0	2.016965E+0	1.953424E+0	2.001163E+0	1.960631E+0	2.064530E+0	2.036092E+0	2.013563E+0	2.003674E+0	2.076603E+0	2.054559E+0	1.972463E+0	1.968743E+0	2.075080E+0	2.030621E+0	1.950613E+0	2.057155E+0	1.948260E+0	2.047109E+0	2.062806E+0	2.008466E+0	1.973042E+0	1.978230E+0	2.073008E+0	2.055602E+0	1.970694E+0	2.010533E+0	2.004393E+0	1.917769E+0	2.040618E+0	1.983912E+0	2.011016E+0	1.992362E+0	1.983413E+0	1.978681E+0	1.978577E+0	1.960407E+0	2.031171E+0	1.970177E+0	1.980951E+0	1.920277E+0	2.037115E+0	2.005155E+0	1.949766E+0	1.873298E+0	2.010105E+0	1.950000E+0	2.020297E+0	1.845157E+0	1.980835E+0
5.395160E+2	2.260298E+0	2.188376E+0	2.123280E+0	2.225436E+0	2.224511E+0	2.231745E+0	2.193785E+0	2.182912E+0	2.232300E+0	2.146601E+0	2.156615E+0	2.206541E+0	2.170935E+0	2.155672E+0	2.193775E+0	2.195932E+0	2.213664E+0	2.224614E+0	2.107944E+0	2.182264E+0	2.154896E+0	2.192834E+0	2.211294E+0	2.240916E+0	2.115971E+0	2.101569E+0	2.268472E+0	2.287930E+0	2.227893E+0	2.162942E+0	2.206935E+0	2.223138E+0	2.152001E+0	2.127723E+0	2.190317E+0	2.136276E+0	2.169057E+0	2.145475E+0	2.201079E+0	2.192588E+0	2.201145E+0	2.071796E+0	2.122043E+0	2.164432E+0	2.205596E+0	2.158947E+0	2.161027E+0	2.287303E+0	2.167169E+0	2.203294E+0	2.206733E+0	2.156605E+0	2.103867E+0	2.164748E+0	2.190951E+0	2.153505E+0	2.172095E+0	2.142377E+0	2.210824E+0	2.176829E+0	2.211451E+0	2.168708E+0	2.163869E+0	2.137525E+0	2.150151E+0	2.140690E+0	2.099681E+0	2.136635E+0	2.099959E+0	2.146840E+0	2.200584E+0	2.172317E+0	2.104731E+0	2.159614E+0	2.160476E+0	2.100014E+0	2.103297E+0	2.144669E+0	2.111187E+0	2.186199E+0	2.125057E+0	2.144328E+0	2.162400E+0	2.105172E+0	2.131607E+0	2.128711E+0	2.160904E+0	2.143083E+0	2.209514E+0	2.082903E+0	2.141544E+0	2.119202E+0	2.143909E+0	2.136660E+0	2.166456E+0	2.117725E+0	2.133444E+0	2.198535E+0	2.118295E+0	2.145150E+0	2.129015E+0	2.164104E+0	2.161531E+0	2.075514E+0	2.140508E+0	2.040445E+0	2.178443E+0	2.182642E+0	2.163261E+0	2.158180E+0	2.194854E+0	2.151184E+0	2.080709E+0	2.176160E+0	2.057454E+0	2.138911E+0	2.122332E+0	2.045529E+0	2.105627E+0	2.086939E+0	2.098827E+0	2.134343E+0	2.172032E+0	2.097137E+0	2.140223E+0	2.152396E+0	2.084435E+0	2.183054E+0	2.166718E+0	2.155293E+0	2.204598E+0	2.164293E+0	2.172277E+0	2.141635E+0	2.126933E+0	2.106638E+0	2.081568E+0	2.122428E+0	2.099838E+0	2.107869E+0	2.098425E+0	2.122246E+0	2.088485E+0	2.124079E+0	2.174470E+0	2.123143E+0	2.116619E+0	2.153556E+0	2.093103E+0	2.089138E+0	2.154083E+0	2.136404E+0	2.093849E+0	2.143090E+0	2.053064E+0	2.139148E+0	2.119616E+0	2.117234E+0	2.116319E+0	2.051988E+0	2.086267E+0	2.084588E+0	2.088614E+0	2.091711E+0	2.050759E+0	2.071304E+0	2.099938E+0	2.094678E+0	2.122529E+0	2.036369E+0	2.130367E+0
5.397810E+2	2.250554E+0	2.200000E+0	2.040540E+0	2.157208E+0	2.104722E+0	2.094337E+0	2.230800E+0	2.166934E+0	2.155108E+0	2.097786E+0	2.168092E+0	2.210028E+0	2.069867E+0	2.134767E+0	2.130511E+0	2.197983E+0	2.204651E+0	2.207678E+0	2.149485E+0	2.196421E+0	2.205331E+0	2.118547E+0	2.100505E+0	2.191977E+0	2.140405E+0	2.083247E+0	2.136110E+0	2.179568E+0	2.144864E+0	2.171266E+0	2.127509E+0	2.127005E+0	2.130798E+0	2.056673E+0	2.208915E+0	2.123211E+0	2.127155E+0	2.079009E+0	2.146488E+0	2.187776E+0	2.105634E+0	2.182094E+0	2.120069E+0	2.125950E+0	2.023049E+0	2.163622E+0	2.189461E+0	2.208732E+0	2.127622E+0	2.130832E+0	2.113967E+0	2.186286E+0	2.153885E+0	2.149000E+0	2.156511E+0	2.175925E+0	2.139956E+0	2.162665E+0	2.149689E+0	2.190141E+0	2.129053E+0	2.197652E+0	2.085529E+0	2.063482E+0	2.087633E+0	2.145313E+0	2.120665E+0	2.114290E+0	2.133611E+0	2.092048E+0	2.134794E+0	2.186210E+0	2.114036E+0	2.110973E+0	2.162111E+0	2.102805E+0	2.076380E+0	2.098936E+0	2.155133E+0	2.195611E+0	2.101639E+0	2.057662E+0	2.127837E+0	2.087234E+0	2.109721E+0	2.063006E+0	2.206216E+0	2.075198E+0	2.162451E+0	2.112433E+0	2.098007E+0	2.150791E+0	2.129952E+0	2.084326E+0	2.206617E+0	2.152813E+0	2.115365E+0	2.129274E+0	2.126803E+0	2.064727E+0	2.099925E+0	2.100698E+0	2.122299E+0	2.120179E+0	2.125982E+0	2.070247E+0	2.107714E+0	2.175636E+0	2.062385E+0	2.097253E+0	2.061131E+0	2.067886E+0	2.083417E+0	2.099874E+0	2.094076E+0	2.084556E+0	2.116989E+0	2.102731E+0	2.166634E+0	2.100069E+0	2.128695E+0	2.068809E+0	2.124077E+0	2.130434E+0	2.069695E+0	2.100204E+0	2.084542E+0	2.104059E+0	2.105850E+0	2.077525E+0	2.203262E+0	2.133711E+0	2.056250E+0	2.084494E+0	2.024446E+0	2.119814E+0	2.006958E+0	2.065754E+0	2.130037E+0	2.091375E+0	2.106262E+0	2.061597E+0	2.105035E+0	2.119153E+0	2.193501E+0	2.162461E+0	2.050998E+0	2.136989E+0	2.132052E+0	2.057868E+0	2.128023E+0	2.064661E+0	2.099832E+0	2.063580E+0	2.047027E+0	2.027785E+0	2.093917E+0	2.095067E+0	2.078418E+0	2.055570E+0	2.081176E+0	2.108583E+0	2.120554E+0	2.085007E+0	2.034568E+0	2.093507E+0	2.039771E+0	2.074485E+0	2.067580E+0	1.949072E+0	2.000822E+0
5.400190E+2	2.071623E+0	1.961436E+0	2.000680E+0	2.085809E+0	2.015416E+0	2.036960E+0	2.016520E+0	2.002007E+0	2.023219E+0	2.002146E+0	1.982045E+0	2.053880E+0	2.104808E+0	2.074332E+0	2.007356E+0	2.046995E+0	2.094032E+0	2.006832E+0	2.034704E+0	2.039504E+0	1.991646E+0	1.995019E+0	2.007520E+0	2.025921E+0	2.008214E+0	2.024653E+0	2.055692E+0	2.065391E+0	2.081589E+0	1.976405E+0	2.039569E+0	2.076394E+0	2.026887E+0	1.965647E+0	2.037608E+0	2.005491E+0	1.971466E+0	2.045008E+0	1.989143E+0	2.041518E+0	2.036215E+0	2.013728E+0	2.067236E+0	2.068330E+0	2.026776E+0	2.062585E+0	2.006368E+0	2.030270E+0	1.981224E+0	2.029176E+0	2.050862E+0	2.043532E+0	2.005100E+0	2.009182E+0	2.011182E+0	2.095825E+0	1.998527E+0	2.004733E+0	2.050117E+0	2.023593E+0	1.997703E+0	1.994304E+0	2.013755E+0	1.939189E+0	2.061989E+0	2.025732E+0	1.949727E+0	1.971131E+0	2.072016E+0	1.953935E+0	1.977712E+0	1.986836E+0	1.973047E+0	2.057132E+0	2.028497E+0	2.079686E+0	1.988053E+0	1.990041E+0	2.028565E+0	1.951069E+0	2.012925E+0	1.959742E+0	2.027768E+0	1.946099E+0	1.949635E+0	1.992424E+0	2.074684E+0	1.997255E+0	2.002570E+0	2.030491E+0	1.988183E+0	2.030852E+0	1.922453E+0	1.943191E+0	2.006561E+0	2.058717E+0	1.927089E+0	2.019014E+0	1.966321E+0	2.006524E+0	2.026989E+0	2.015081E+0	2.042987E+0	1.972005E+0	1.979248E+0	1.994577E+0	2.029611E+0	1.947765E+0	2.026503E+0	2.013023E+0	2.048805E+0	2.005700E+0	1.941108E+0	2.028592E+0	1.963245E+0	1.958769E+0	1.947645E+0	2.031796E+0	1.992184E+0	1.935738E+0	1.876664E+0	2.035502E+0	2.054193E+0	1.963411E+0	1.945067E+0	1.972358E+0	2.106099E+0	1.981646E+0	1.960823E+0	1.982321E+0	2.070098E+0	2.071334E+0	1.981267E+0	1.958457E+0	1.972158E+0	1.982500E+0	1.899293E+0	1.955289E+0	2.013569E+0	1.948601E+0	1.925844E+0	2.013336E+0	1.909193E+0	1.954249E+0	1.998281E+0	2.055532E+0	1.935828E+0	2.018116E+0	1.981142E+0	1.933293E+0	2.034609E+0	1.985843E+0	1.938564E+0	1.982387E+0	1.983231E+0	1.968221E+0	2.011557E+0	2.012728E+0	1.997411E+0	1.937711E+0	1.944717E+0	1.981069E+0	1.926747E+0	1.957462E+0	1.915462E+0	1.897904E+0	1.960604E+0	1.912407E+0	1.965668E+0	1.924372E+0	1.967945E+0
5.402740E+2	2.020360E+0	1.908801E+0	1.898131E+0	1.925383E+0	1.886392E+0	1.791479E+0	1.816301E+0	1.868347E+0	1.915326E+0	1.859029E+0	1.837458E+0	1.889325E+0	1.912724E+0	1.909628E+0	1.843162E+0	1.915264E+0	1.949502E+0	1.891269E+0	1.920630E+0	1.909690E+0	1.905177E+0	1.860080E+0	1.888708E+0	1.866249E+0	1.788114E+0	1.858133E+0	1.898906E+0	1.939341E+0	1.907533E+0	1.863840E+0	1.885626E+0	1.883380E+0	1.856099E+0	1.877036E+0	1.924713E+0	1.899750E+0	1.910845E+0	1.864036E+0	1.858941E+0	1.895296E+0	1.844171E+0	1.830436E+0	1.902014E+0	1.913811E+0	1.876713E+0	1.939719E+0	1.853258E+0	1.926611E+0	1.870516E+0	1.888012E+0	1.842089E+0	1.917047E+0	1.887456E+0	1.905107E+0	1.899718E+0	1.945941E+0	1.866064E+0	1.842265E+0	1.894932E+0	1.890771E+0	1.896980E+0	1.953193E+0	1.896840E+0	1.893232E+0	1.821587E+0	1.883669E+0	1.842759E+0	1.836270E+0	1.894296E+0	1.873821E+0	1.889611E+0	1.907120E+0	1.830296E+0	1.916984E+0	1.865929E+0	1.835717E+0	1.880854E+0	1.878530E+0	1.858568E+0	1.796404E+0	1.768533E+0	1.834614E+0	1.889108E+0	1.882644E+0	1.890200E+0	1.845097E+0	1.918580E+0	1.846743E+0	1.900343E+0	1.891791E+0	1.814952E+0	1.894157E+0	1.906089E+0	1.821116E+0	1.863872E+0	1.883311E+0	1.871406E+0	1.910938E+0	1.892367E+0	1.900279E+0	1.852420E+0	1.863595E+0	1.806779E+0	1.845000E+0	1.965814E+0	1.807343E+0	1.900404E+0	1.857668E+0	1.845218E+0	1.850729E+0	1.871098E+0	1.829159E+0	1.792053E+0	1.823803E+0	1.838306E+0	1.897898E+0	1.890554E+0	1.793937E+0	1.895993E+0	1.868293E+0	1.802569E+0	1.844417E+0	1.883479E+0	1.891393E+0	1.833227E+0	1.872760E+0	1.831196E+0	1.858040E+0	1.883723E+0	1.885465E+0	1.899239E+0	1.891260E+0	1.819647E+0	1.872021E+0	1.861655E+0	1.822865E+0	1.821626E+0	1.783976E+0	1.787425E+0	1.878093E+0	1.886564E+0	1.814796E+0	1.827098E+0	1.862027E+0	1.882210E+0	1.856902E+0	1.808746E+0	1.846809E+0	1.834154E+0	1.805132E+0	1.830506E+0	1.869243E+0	1.850426E+0	1.865181E+0	1.820086E+0	1.837622E+0	1.868414E+0	1.834977E+0	1.898828E+0	1.842369E+0	1.826522E+0	1.829997E+0	1.916671E+0	1.837476E+0	1.817572E+0	1.821062E+0	1.883276E+0	1.833278E+0	1.889447E+0	1.808155E+0	1.913916E+0
5.405080E+2	1.899271E+0	1.819705E+0	1.771125E+0	1.822518E+0	1.813597E+0	1.796326E+0	1.845230E+0	1.852925E+0	1.805464E+0	1.849304E+0	1.765033E+0	1.860612E+0	1.833994E+0	1.879814E+0	1.799736E+0	1.792421E+0	1.825305E+0	1.925877E+0	1.814386E+0	1.825559E+0	1.835735E+0	1.775647E+0	1.807065E+0	1.911715E+0	1.767080E+0	1.851463E+0	1.855671E+0	1.902056E+0	1.803870E+0	1.766238E+0	1.854266E+0	1.856043E+0	1.803835E+0	1.859237E+0	1.873238E+0	1.865124E+0	1.825923E+0	1.816992E+0	1.810005E+0	1.849120E+0	1.883918E+0	1.747690E+0	1.865974E+0	1.847521E+0	1.810375E+0	1.777384E+0	1.802315E+0	1.836985E+0	1.866540E+0	1.813717E+0	1.811770E+0	1.834631E+0	1.788934E+0	1.749581E+0	1.803793E+0	1.845044E+0	1.743559E+0	1.818775E+0	1.725980E+0	1.824467E+0	1.837657E+0	1.833584E+0	1.859253E+0	1.800740E+0	1.808995E+0	1.781340E+0	1.801515E+0	1.836324E+0	1.856240E+0	1.743681E+0	1.804842E+0	1.838847E+0	1.813288E+0	1.825569E+0	1.867643E+0	1.784619E+0	1.824747E+0	1.834494E+0	1.833962E+0	1.839157E+0	1.789904E+0	1.753697E+0	1.739727E+0	1.837681E+0	1.792041E+0	1.736966E+0	1.884859E+0	1.878955E+0	1.839560E+0	1.877996E+0	1.785900E+0	1.793290E+0	1.836705E+0	1.776211E+0	1.784290E+0	1.749544E+0	1.776178E+0	1.816526E+0	1.754262E+0	1.763441E+0	1.825764E+0	1.778630E+0	1.788119E+0	1.764690E+0	1.845768E+0	1.736229E+0	1.765393E+0	1.834090E+0	1.823737E+0	1.762517E+0	1.832498E+0	1.848763E+0	1.784317E+0	1.844859E+0	1.809933E+0	1.789919E+0	1.770314E+0	1.771512E+0	1.796163E+0	1.806305E+0	1.851695E+0	1.777806E+0	1.861424E+0	1.751365E+0	1.793516E+0	1.798298E+0	1.834385E+0	1.809217E+0	1.775823E+0	1.758316E+0	1.865953E+0	1.859070E+0	1.763338E+0	1.734181E+0	1.792043E+0	1.843179E+0	1.810742E+0	1.814634E+0	1.730585E+0	1.823893E+0	1.812727E+0	1.715106E+0	1.729854E+0	1.832460E+0	1.825308E+0	1.778450E+0	1.734186E+0	1.827726E+0	1.783410E+0	1.769507E+0	1.816214E+0	1.787946E+0	1.777120E+0	1.793671E+0	1.689406E+0	1.762191E+0	1.773472E+0	1.825709E+0	1.796660E+0	1.752970E+0	1.741775E+0	1.758384E+0	1.765255E+0	1.763331E+0	1.740529E+0	1.682920E+0	1.771094E+0	1.817042E+0	1.824440E+0	1.734365E+0	1.866668E+0
5.407680E+2	1.848788E+0	1.793081E+0	1.739998E+0	1.720566E+0	1.724828E+0	1.772946E+0	1.739066E+0	1.741874E+0	1.764674E+0	1.726454E+0	1.769153E+0	1.811282E+0	1.716744E+0	1.817465E+0	1.745269E+0	1.775400E+0	1.777679E+0	1.803280E+0	1.784909E+0	1.786289E+0	1.745486E+0	1.750632E+0	1.753193E+0	1.759031E+0	1.762185E+0	1.774994E+0	1.792135E+0	1.832622E+0	1.774453E+0	1.788286E+0	1.774604E+0	1.771435E+0	1.761242E+0	1.700875E+0	1.770235E+0	1.741908E+0	1.693881E+0	1.765622E+0	1.758786E+0	1.758958E+0	1.763841E+0	1.700432E+0	1.749987E+0	1.727083E+0	1.758121E+0	1.825530E+0	1.778908E+0	1.779559E+0	1.791006E+0	1.783413E+0	1.767505E+0	1.791418E+0	1.768407E+0	1.728580E+0	1.720699E+0	1.775594E+0	1.761854E+0	1.716737E+0	1.764428E+0	1.757432E+0	1.732442E+0	1.838200E+0	1.730019E+0	1.727520E+0	1.742301E+0	1.757975E+0	1.733835E+0	1.747106E+0	1.720600E+0	1.723243E+0	1.755063E+0	1.762275E+0	1.761875E+0	1.706697E+0	1.848430E+0	1.771534E+0	1.777291E+0	1.783668E+0	1.753626E+0	1.737784E+0	1.710989E+0	1.722610E+0	1.716048E+0	1.718965E+0	1.726473E+0	1.733195E+0	1.787667E+0	1.764382E+0	1.777648E+0	1.759731E+0	1.733185E+0	1.832909E+0	1.760348E+0	1.728975E+0	1.713910E+0	1.701102E+0	1.782314E+0	1.777320E+0	1.718449E+0	1.748115E+0	1.691630E+0	1.735041E+0	1.701560E+0	1.741874E+0	1.741630E+0	1.761004E+0	1.725950E+0	1.752799E+0	1.739029E+0	1.755400E+0	1.770523E+0	1.725767E+0	1.720918E+0	1.739015E+0	1.688360E+0	1.775755E+0	1.734805E+0	1.746854E+0	1.711826E+0	1.741477E+0	1.751033E+0	1.740880E+0	1.748289E+0	1.771919E+0	1.735846E+0	1.769034E+0	1.735061E+0	1.778458E+0	1.712045E+0	1.775649E+0	1.762191E+0	1.804577E+0	1.759793E+0	1.725794E+0	1.711287E+0	1.761947E+0	1.696492E+0	1.699000E+0	1.728520E+0	1.745557E+0	1.739347E+0	1.698605E+0	1.660444E+0	1.752501E+0	1.862404E+0	1.804159E+0	1.698873E+0	1.766577E+0	1.689503E+0	1.708746E+0	1.756115E+0	1.714542E+0	1.740546E+0	1.805748E+0	1.683263E+0	1.714036E+0	1.775730E+0	1.706846E+0	1.746960E+0	1.746769E+0	1.674656E+0	1.723812E+0	1.706811E+0	1.724045E+0	1.677701E+0	1.749627E+0	1.728370E+0	1.706025E+0	1.695000E+0	1.632338E+0	1.701995E+0
5.410130E+2	1.799448E+0	1.738107E+0	1.695671E+0	1.734134E+0	1.674072E+0	1.719387E+0	1.686342E+0	1.756572E+0	1.689731E+0	1.714182E+0	1.716719E+0	1.763671E+0	1.708984E+0	1.684580E+0	1.697925E+0	1.708507E+0	1.764064E+0	1.739786E+0	1.675377E+0	1.715986E+0	1.687405E+0	1.699628E+0	1.688462E+0	1.762011E+0	1.729859E+0	1.628308E+0	1.749353E+0	1.751289E+0	1.715915E+0	1.743945E+0	1.704004E+0	1.720646E+0	1.715609E+0	1.736484E+0	1.702624E+0	1.740879E+0	1.690780E+0	1.743081E+0	1.686011E+0	1.670638E+0	1.709049E+0	1.647680E+0	1.724884E+0	1.698880E+0	1.734827E+0	1.761728E+0	1.716550E+0	1.706081E+0	1.719245E+0	1.710657E+0	1.676377E+0	1.734662E+0	1.650879E+0	1.706528E+0	1.714023E+0	1.688638E+0	1.733272E+0	1.671307E+0	1.736911E+0	1.751099E+0	1.742531E+0	1.753856E+0	1.681046E+0	1.663067E+0	1.618493E+0	1.706705E+0	1.614837E+0	1.667947E+0	1.703229E+0	1.665835E+0	1.721975E+0	1.713974E+0	1.661027E+0	1.715076E+0	1.719049E+0	1.708622E+0	1.718769E+0	1.708097E+0	1.685729E+0	1.712365E+0	1.620844E+0	1.635886E+0	1.728990E+0	1.711165E+0	1.692979E+0	1.703552E+0	1.757707E+0	1.671524E+0	1.711599E+0	1.674499E+0	1.673755E+0	1.688988E+0	1.720904E+0	1.675521E+0	1.711053E+0	1.757438E+0	1.660287E+0	1.697559E+0	1.644777E+0	1.785739E+0	1.682069E+0	1.691943E+0	1.643203E+0	1.674398E+0	1.704892E+0	1.671550E+0	1.666089E+0	1.672107E+0	1.751137E+0	1.675702E+0	1.726609E+0	1.684787E+0	1.658188E+0	1.644328E+0	1.657062E+0	1.671710E+0	1.698372E+0	1.641161E+0	1.674319E+0	1.621651E+0	1.675794E+0	1.702343E+0	1.731907E+0	1.727683E+0	1.692794E+0	1.698203E+0	1.741266E+0	1.722791E+0	1.708435E+0	1.675012E+0	1.766159E+0	1.756712E+0	1.714820E+0	1.709332E+0	1.617048E+0	1.705287E+0	1.630237E+0	1.670528E+0	1.646808E+0	1.624860E+0	1.691255E+0	1.676100E+0	1.695296E+0	1.634961E+0	1.696527E+0	1.700062E+0	1.656960E+0	1.724068E+0	1.674585E+0	1.680324E+0	1.707677E+0	1.704108E+0	1.676005E+0	1.723456E+0	1.612150E+0	1.687166E+0	1.708862E+0	1.730934E+0	1.677285E+0	1.642004E+0	1.685831E+0	1.712985E+0	1.587673E+0	1.618705E+0	1.658823E+0	1.653053E+0	1.682376E+0	1.704218E+0	1.648872E+0	1.652372E+0	1.794779E+0
5.412690E+2	1.614332E+0	1.577339E+0	1.554598E+0	1.521153E+0	1.530097E+0	1.602801E+0	1.596593E+0	1.542239E+0	1.554247E+0	1.528224E+0	1.564806E+0	1.557759E+0	1.565481E+0	1.549428E+0	1.566162E+0	1.549496E+0	1.634553E+0	1.539955E+0	1.538700E+0	1.568379E+0	1.549908E+0	1.546025E+0	1.509791E+0	1.561949E+0	1.539057E+0	1.543823E+0	1.592128E+0	1.574122E+0	1.593237E+0	1.567722E+0	1.560622E+0	1.551910E+0	1.494716E+0	1.521701E+0	1.511853E+0	1.588346E+0	1.596672E+0	1.556099E+0	1.511060E+0	1.588648E+0	1.569070E+0	1.528926E+0	1.539297E+0	1.534338E+0	1.542295E+0	1.646054E+0	1.589513E+0	1.574920E+0	1.546524E+0	1.585380E+0	1.558351E+0	1.556045E+0	1.497120E+0	1.584882E+0	1.536472E+0	1.587417E+0	1.605714E+0	1.561198E+0	1.526066E+0	1.641795E+0	1.542558E+0	1.559503E+0	1.608068E+0	1.533056E+0	1.592541E+0	1.542936E+0	1.490311E+0	1.541453E+0	1.565461E+0	1.524895E+0	1.525384E+0	1.605484E+0	1.491907E+0	1.507764E+0	1.542811E+0	1.611870E+0	1.543913E+0	1.577827E+0	1.541606E+0	1.555001E+0	1.534790E+0	1.543335E+0	1.527885E+0	1.509166E+0	1.554722E+0	1.511268E+0	1.570464E+0	1.550639E+0	1.558750E+0	1.546626E+0	1.472215E+0	1.598194E+0	1.580662E+0	1.498815E+0	1.547461E+0	1.592639E+0	1.518071E+0	1.549107E+0	1.524436E+0	1.556905E+0	1.515252E+0	1.578257E+0	1.540541E+0	1.556528E+0	1.576278E+0	1.531578E+0	1.556489E+0	1.568825E+0	1.594759E+0	1.478451E+0	1.549651E+0	1.548356E+0	1.546622E+0	1.505513E+0	1.526870E+0	1.539051E+0	1.569390E+0	1.584829E+0	1.567211E+0	1.473349E+0	1.512244E+0	1.560748E+0	1.524273E+0	1.608547E+0	1.523524E+0	1.531054E+0	1.527247E+0	1.555049E+0	1.564962E+0	1.522350E+0	1.534149E+0	1.547424E+0	1.579792E+0	1.534095E+0	1.500671E+0	1.567570E+0	1.538840E+0	1.511912E+0	1.538216E+0	1.569133E+0	1.555275E+0	1.527260E+0	1.572367E+0	1.537450E+0	1.544413E+0	1.555209E+0	1.550693E+0	1.590522E+0	1.536282E+0	1.541789E+0	1.529922E+0	1.582033E+0	1.534743E+0	1.557617E+0	1.556575E+0	1.578345E+0	1.622153E+0	1.562578E+0	1.528500E+0	1.543554E+0	1.518191E+0	1.550724E+0	1.514899E+0	1.516152E+0	1.502457E+0	1.499889E+0	1.512551E+0	1.516327E+0	1.529041E+0	1.492862E+0	1.566155E+0
5.415140E+2	1.429319E+0	1.297556E+0	1.370361E+0	1.379477E+0	1.345324E+0	1.346107E+0	1.356421E+0	1.368729E+0	1.442224E+0	1.317836E+0	1.346479E+0	1.348846E+0	1.347392E+0	1.393639E+0	1.386129E+0	1.376293E+0	1.372929E+0	1.370219E+0	1.377321E+0	1.367359E+0	1.360438E+0	1.361512E+0	1.374118E+0	1.369518E+0	1.361172E+0	1.365993E+0	1.382857E+0	1.388858E+0	1.416114E+0	1.339380E+0	1.388799E+0	1.366288E+0	1.376527E+0	1.333379E+0	1.395386E+0	1.357860E+0	1.342295E+0	1.404606E+0	1.360538E+0	1.406605E+0	1.406867E+0	1.336055E+0	1.368174E+0	1.376810E+0	1.368653E+0	1.371820E+0	1.383008E+0	1.366611E+0	1.340010E+0	1.345156E+0	1.350940E+0	1.415102E+0	1.317377E+0	1.385055E+0	1.350585E+0	1.399867E+0	1.361232E+0	1.363006E+0	1.369643E+0	1.406874E+0	1.364690E+0	1.377463E+0	1.332736E+0	1.305488E+0	1.385999E+0	1.336725E+0	1.301586E+0	1.326670E+0	1.388388E+0	1.360355E+0	1.349380E+0	1.367992E+0	1.360786E+0	1.358255E+0	1.356332E+0	1.398583E+0	1.321556E+0	1.333131E+0	1.378422E+0	1.360485E+0	1.336898E+0	1.388449E+0	1.370158E+0	1.347880E+0	1.326576E+0	1.403203E+0	1.398031E+0	1.371793E+0	1.425319E+0	1.319420E+0	1.349326E+0	1.404037E+0	1.412078E+0	1.354328E+0	1.394803E+0	1.360253E+0	1.366494E+0	1.396410E+0	1.365301E+0	1.358217E+0	1.369752E+0	1.354290E+0	1.361460E+0	1.342863E+0	1.391492E+0	1.346645E+0	1.370771E+0	1.365416E+0	1.378019E+0	1.373642E+0	1.410675E+0	1.344005E+0	1.281249E+0	1.355298E+0	1.391172E+0	1.259117E+0	1.404619E+0	1.315543E+0	1.438451E+0	1.449941E+0	1.300938E+0	1.295347E+0	1.400960E+0	1.386076E+0	1.289708E+0	1.366484E+0	1.365511E+0	1.340946E+0	1.336061E+0	1.374644E+0	1.403117E+0	1.372438E+0	1.373632E+0	1.334801E+0	1.383184E+0	1.354760E+0	1.288171E+0	1.383752E+0	1.350242E+0	1.360701E+0	1.337414E+0	1.357705E+0	1.391485E+0	1.389557E+0	1.396188E+0	1.401130E+0	1.334258E+0	1.395230E+0	1.322182E+0	1.334829E+0	1.330803E+0	1.387936E+0	1.394703E+0	1.388486E+0	1.323498E+0	1.363369E+0	1.371051E+0	1.345839E+0	1.373328E+0	1.337197E+0	1.386747E+0	1.290794E+0	1.341086E+0	1.361369E+0	1.306802E+0	1.388832E+0	1.383660E+0	1.345545E+0	1.296425E+0	1.283233E+0	1.293966E+0
5.417700E+2	1.194888E+0	1.159692E+0	1.166047E+0	1.159770E+0	1.170097E+0	1.162428E+0	1.132306E+0	1.163321E+0	1.193980E+0	1.148867E+0	1.150751E+0	1.156199E+0	1.132194E+0	1.172766E+0	1.082089E+0	1.136668E+0	1.179314E+0	1.155509E+0	1.152772E+0	1.149927E+0	1.094257E+0	1.179847E+0	1.121970E+0	1.146456E+0	1.195290E+0	1.193003E+0	1.188702E+0	1.175662E+0	1.216977E+0	1.141137E+0	1.156038E+0	1.177726E+0	1.166515E+0	1.127038E+0	1.151060E+0	1.224196E+0	1.161537E+0	1.174407E+0	1.180390E+0	1.154623E+0	1.172650E+0	1.141276E+0	1.159880E+0	1.155985E+0	1.161585E+0	1.154566E+0	1.181796E+0	1.156503E+0	1.121653E+0	1.211387E+0	1.140883E+0	1.179906E+0	1.109883E+0	1.141530E+0	1.153920E+0	1.152309E+0	1.205205E+0	1.170871E+0	1.177388E+0	1.144465E+0	1.171069E+0	1.199997E+0	1.166987E+0	1.209851E+0	1.184055E+0	1.183033E+0	1.183542E+0	1.139214E+0	1.127273E+0	1.183898E+0	1.155842E+0	1.204820E+0	1.129931E+0	1.186506E+0	1.172084E+0	1.203091E+0	1.147862E+0	1.176138E+0	1.183248E+0	1.200354E+0	1.141131E+0	1.154060E+0	1.147731E+0	1.119364E+0	1.120040E+0	1.138240E+0	1.193399E+0	1.201072E+0	1.193244E+0	1.176129E+0	1.113889E+0	1.163218E+0	1.172202E+0	1.135417E+0	1.175835E+0	1.173765E+0	1.164694E+0	1.171075E+0	1.202116E+0	1.174418E+0	1.201959E+0	1.166461E+0	1.157975E+0	1.147080E+0	1.159323E+0	1.176884E+0	1.216654E+0	1.151131E+0	1.219890E+0	1.135909E+0	1.138007E+0	1.150781E+0	1.131584E+0	1.183824E+0	1.164565E+0	1.149414E+0	1.133132E+0	1.153049E+0	1.160695E+0	1.170378E+0	1.167703E+0	1.158094E+0	1.185481E+0	1.157420E+0	1.152820E+0	1.197284E+0	1.138185E+0	1.209577E+0	1.165972E+0	1.152655E+0	1.221976E+0	1.187724E+0	1.159557E+0	1.168987E+0	1.131562E+0	1.203181E+0	1.191789E+0	1.146941E+0	1.154952E+0	1.184283E+0	1.159528E+0	1.164320E+0	1.170777E+0	1.169999E+0	1.188289E+0	1.120807E+0	1.222699E+0	1.157716E+0	1.150931E+0	1.182111E+0	1.151272E+0	1.145128E+0	1.162325E+0	1.214223E+0	1.134166E+0	1.177428E+0	1.153128E+0	1.251414E+0	1.175082E+0	1.161858E+0	1.141078E+0	1.190362E+0	1.219073E+0	1.212670E+0	1.166518E+0	1.114812E+0	1.117453E+0	1.199121E+0	1.166996E+0	1.144510E+0	1.131222E+0
5.420270E+2	1.102758E+0	1.067521E+0	9.891984E-1	1.023971E+0	1.027269E+0	1.054495E+0	1.025016E+0	1.002498E+0	1.065635E+0	1.032308E+0	1.059455E+0	1.055751E+0	1.050008E+0	1.058830E+0	1.010832E+0	1.018893E+0	1.071914E+0	1.062359E+0	1.064620E+0	1.022925E+0	1.052457E+0	1.068781E+0	1.019621E+0	1.044921E+0	1.024742E+0	1.049111E+0	1.039818E+0	1.092225E+0	1.056981E+0	1.028986E+0	1.033026E+0	1.064083E+0	1.025440E+0	1.023265E+0	1.016552E+0	1.041209E+0	1.051555E+0	1.020966E+0	1.047520E+0	1.088928E+0	1.063328E+0	1.084605E+0	1.024380E+0	1.030846E+0	1.024876E+0	1.076138E+0	1.055632E+0	1.028393E+0	1.056234E+0	1.030118E+0	1.054584E+0	1.082491E+0	1.013659E+0	1.037776E+0	1.076606E+0	1.040251E+0	1.011739E+0	1.068488E+0	1.027710E+0	1.015585E+0	1.066664E+0	1.035633E+0	1.077070E+0	1.054090E+0	1.048088E+0	1.024772E+0	1.038504E+0	1.040913E+0	9.908415E-1	1.054171E+0	1.069011E+0	1.066458E+0	1.012433E+0	1.037117E+0	1.048600E+0	1.042092E+0	1.038784E+0	1.021753E+0	1.050781E+0	1.068181E+0	1.003302E+0	1.030282E+0	1.064019E+0	1.045709E+0	1.016397E+0	1.016368E+0	1.032991E+0	1.016056E+0	1.062391E+0	1.051135E+0	1.015799E+0	1.057907E+0	1.052792E+0	1.014333E+0	1.017358E+0	1.020998E+0	1.014053E+0	1.080972E+0	1.078402E+0	1.065004E+0	1.063675E+0	1.046446E+0	1.056002E+0	1.024229E+0	1.071734E+0	1.061051E+0	1.025718E+0	1.039838E+0	1.085954E+0	1.061067E+0	1.057722E+0	1.017331E+0	1.012073E+0	1.046597E+0	1.035867E+0	1.029384E+0	1.031967E+0	1.048842E+0	1.060371E+0	1.067466E+0	1.034035E+0	1.040326E+0	1.088979E+0	1.059482E+0	1.026589E+0	1.062886E+0	1.040793E+0	1.055671E+0	1.068506E+0	1.056987E+0	1.092816E+0	1.046698E+0	9.970649E-1	1.071570E+0	1.018016E+0	1.085242E+0	1.036257E+0	1.031766E+0	1.037739E+0	1.057012E+0	1.048622E+0	1.062081E+0	1.033716E+0	1.032831E+0	1.123128E+0	1.049914E+0	1.041202E+0	1.058495E+0	1.083209E+0	1.033901E+0	1.007547E+0	1.053412E+0	1.076245E+0	1.076713E+0	1.010201E+0	1.007496E+0	1.057141E+0	1.066786E+0	1.026564E+0	1.043889E+0	1.037192E+0	1.032160E+0	1.069874E+0	1.060858E+0	1.000257E+0	1.030207E+0	1.018016E+0	1.032930E+0	1.101442E+0	1.110763E+0	1.143375E+0
5.422780E+2	9.429674E-1	9.916600E-1	9.192173E-1	9.353421E-1	9.905707E-1	9.711103E-1	9.442539E-1	9.774027E-1	9.115110E-1	8.964785E-1	9.631718E-1	9.653913E-1	9.683195E-1	1.003588E+0	9.625999E-1	9.669465E-1	9.724586E-1	9.724727E-1	9.282501E-1	9.757845E-1	9.454087E-1	9.987959E-1	9.745013E-1	9.747160E-1	9.461632E-1	1.007543E+0	9.733063E-1	9.894424E-1	9.587894E-1	1.011439E+0	9.829595E-1	9.868751E-1	9.370409E-1	9.669393E-1	9.462225E-1	9.869504E-1	1.007150E+0	9.515748E-1	9.968564E-1	9.759369E-1	9.664414E-1	9.391787E-1	9.571857E-1	9.482598E-1	9.626322E-1	9.783571E-1	9.762241E-1	9.848021E-1	9.250708E-1	9.895999E-1	1.012455E+0	9.486881E-1	9.625340E-1	9.506472E-1	9.307735E-1	9.668777E-1	9.811720E-1	9.512195E-1	9.750421E-1	9.677657E-1	9.645149E-1	9.843768E-1	9.981169E-1	9.777242E-1	9.108628E-1	9.758677E-1	9.574606E-1	9.599952E-1	9.726919E-1	9.578674E-1	1.005831E+0	9.765078E-1	9.818831E-1	9.753837E-1	9.373864E-1	9.630248E-1	9.965372E-1	9.749879E-1	9.479755E-1	9.692757E-1	9.802097E-1	9.414560E-1	9.740278E-1	9.545167E-1	9.417319E-1	9.402228E-1	9.769377E-1	9.846464E-1	9.916711E-1	1.007605E+0	9.651156E-1	9.741658E-1	9.851689E-1	1.002238E+0	9.637741E-1	9.644077E-1	9.099524E-1	9.751927E-1	9.524589E-1	9.962557E-1	9.812773E-1	9.666643E-1	9.787056E-1	9.857728E-1	1.040010E+0	9.868788E-1	9.805620E-1	9.858466E-1	1.009140E+0	9.607051E-1	9.766578E-1	9.693050E-1	9.406182E-1	9.847595E-1	9.761886E-1	1.009523E+0	9.516121E-1	9.731042E-1	9.634765E-1	9.483521E-1	9.573899E-1	9.730167E-1	1.012659E+0	9.206651E-1	1.007074E+0	1.014443E+0	9.855768E-1	9.829388E-1	1.008464E+0	9.786643E-1	9.799264E-1	9.741797E-1	9.590638E-1	9.555195E-1	9.605311E-1	1.010393E+0	9.675378E-1	9.786955E-1	9.742724E-1	9.797851E-1	1.022027E+0	9.827821E-1	1.010708E+0	9.748549E-1	9.501691E-1	9.941707E-1	9.542409E-1	9.787849E-1	9.453128E-1	1.019813E+0	9.542939E-1	1.060150E+0	9.745458E-1	9.933866E-1	9.846881E-1	9.904605E-1	9.990860E-1	1.002049E+0	9.922338E-1	9.726134E-1	9.749815E-1	1.048779E+0	9.965391E-1	9.814753E-1	1.004428E+0	9.622811E-1	9.516263E-1	9.740252E-1	1.031107E+0	1.005178E+0	1.013261E+0
5.425300E+2	1.015344E+0	9.558951E-1	9.686515E-1	1.026680E+0	9.601595E-1	9.494155E-1	9.842853E-1	9.734391E-1	1.004550E+0	1.028842E+0	9.586652E-1	1.027803E+0	9.744267E-1	9.654520E-1	9.815437E-1	9.696441E-1	9.777311E-1	9.771142E-1	9.592487E-1	9.670943E-1	9.595120E-1	9.883106E-1	9.475969E-1	1.007653E+0	9.379835E-1	9.721594E-1	1.006774E+0	9.999455E-1	9.918436E-1	1.006351E+0	9.632749E-1	1.001611E+0	9.803632E-1	9.386257E-1	9.745595E-1	1.003908E+0	9.861807E-1	9.773416E-1	1.001080E+0	1.032609E+0	9.865433E-1	1.002819E+0	9.933055E-1	9.628496E-1	9.500250E-1	9.916629E-1	1.024190E+0	9.935158E-1	9.848145E-1	9.866049E-1	9.798277E-1	9.887329E-1	9.933161E-1	9.913556E-1	9.662806E-1	9.883076E-1	9.657220E-1	9.541297E-1	1.006660E+0	9.689167E-1	9.733092E-1	1.051127E+0	9.990531E-1	9.972858E-1	9.589505E-1	9.559869E-1	9.500423E-1	9.600944E-1	9.920935E-1	9.964201E-1	1.009050E+0	1.007244E+0	9.815970E-1	1.015800E+0	9.946344E-1	1.022040E+0	9.683292E-1	9.887311E-1	9.899751E-1	9.792392E-1	9.576978E-1	9.955714E-1	9.726294E-1	9.672694E-1	9.802894E-1	9.720150E-1	1.019473E+0	9.756111E-1	1.016707E+0	1.011170E+0	9.963373E-1	9.811668E-1	1.004945E+0	9.374421E-1	1.024032E+0	9.964841E-1	9.818211E-1	9.997079E-1	9.796178E-1	1.009214E+0	9.557852E-1	9.751936E-1	1.003222E+0	1.007635E+0	9.898282E-1	1.019091E+0	9.729294E-1	9.825764E-1	9.681491E-1	9.933407E-1	1.010268E+0	9.861214E-1	9.425857E-1	1.018498E+0	1.017331E+0	9.500272E-1	9.676047E-1	9.835626E-1	9.648153E-1	9.739992E-1	9.718197E-1	9.623440E-1	1.013044E+0	9.868709E-1	9.883762E-1	9.925091E-1	9.891223E-1	1.001570E+0	9.779769E-1	9.937647E-1	1.003495E+0	9.696484E-1	1.018008E+0	1.004797E+0	1.027516E+0	9.982950E-1	1.001536E+0	1.021674E+0	9.834364E-1	9.581234E-1	9.817942E-1	9.984555E-1	9.815201E-1	9.807948E-1	1.007457E+0	9.976940E-1	9.783571E-1	9.384123E-1	9.431320E-1	9.651965E-1	1.009142E+0	9.585889E-1	1.007565E+0	9.970120E-1	9.443064E-1	9.771647E-1	1.004431E+0	9.922426E-1	1.010708E+0	9.780573E-1	1.002254E+0	9.825817E-1	1.025273E+0	9.825931E-1	9.806238E-1	9.727624E-1	9.761249E-1	9.547229E-1	1.055404E+0	1.010377E+0	9.555873E-1
5.427650E+2	1.124370E+0	1.077030E+0	1.005112E+0	1.011011E+0	1.081820E+0	1.046193E+0	1.103578E+0	1.074670E+0	1.087794E+0	9.851194E-1	1.085997E+0	1.079280E+0	1.046429E+0	1.071416E+0	1.075694E+0	1.056844E+0	1.068610E+0	1.098398E+0	1.040652E+0	1.077529E+0	1.084213E+0	1.074569E+0	1.062956E+0	1.077855E+0	1.080682E+0	1.115524E+0	1.084197E+0	1.079969E+0	1.075920E+0	1.050087E+0	1.049541E+0	1.084165E+0	1.105749E+0	1.124498E+0	1.072891E+0	1.083068E+0	1.092656E+0	1.057393E+0	1.080930E+0	1.034460E+0	1.088643E+0	1.074055E+0	1.045289E+0	1.015232E+0	1.039125E+0	1.080931E+0	1.076718E+0	1.078701E+0	1.057659E+0	1.086186E+0	1.071521E+0	1.119422E+0	1.048313E+0	1.044830E+0	1.062516E+0	1.084361E+0	1.055213E+0	1.069627E+0	1.074831E+0	1.037284E+0	1.067733E+0	1.115144E+0	1.062172E+0	1.074872E+0	1.067858E+0	1.065451E+0	1.077068E+0	1.041273E+0	1.084991E+0	1.042676E+0	1.047482E+0	1.054796E+0	1.070440E+0	1.076744E+0	1.066457E+0	1.054544E+0	1.080043E+0	1.028383E+0	1.069354E+0	1.073656E+0	1.060752E+0	1.069734E+0	1.072916E+0	1.062364E+0	1.088562E+0	1.025825E+0	1.111991E+0	1.037519E+0	1.000321E+0	1.119741E+0	1.051524E+0	1.063571E+0	1.053108E+0	1.089920E+0	1.042388E+0	1.074165E+0	1.125826E+0	1.083179E+0	1.030300E+0	1.089286E+0	1.048271E+0	1.042970E+0	1.053940E+0	1.078735E+0	1.036866E+0	1.044471E+0	1.046931E+0	1.125725E+0	1.094055E+0	1.083922E+0	1.055837E+0	1.049599E+0	1.009225E+0	1.039653E+0	1.043257E+0	1.013996E+0	1.090849E+0	1.022560E+0	1.059142E+0	1.012685E+0	1.117609E+0	1.063590E+0	1.050698E+0	1.061053E+0	1.063669E+0	1.083090E+0	1.084543E+0	1.094353E+0	1.104527E+0	1.093417E+0	1.117388E+0	1.084079E+0	1.041032E+0	1.050202E+0	1.059739E+0	1.063545E+0	1.067557E+0	1.071504E+0	1.084324E+0	1.064547E+0	1.057071E+0	1.065318E+0	1.114734E+0	1.115538E+0	1.091985E+0	1.035108E+0	1.070344E+0	1.129203E+0	1.059575E+0	1.066712E+0	1.072527E+0	1.083888E+0	1.091609E+0	1.079047E+0	1.038800E+0	1.102868E+0	1.116769E+0	1.118193E+0	1.084048E+0	1.101571E+0	1.114375E+0	1.052381E+0	1.071646E+0	1.080164E+0	1.067902E+0	1.041153E+0	1.055994E+0	1.061921E+0	1.039591E+0	1.102021E+0	1.078106E+0
5.430070E+2	1.270186E+0	1.237540E+0	1.209146E+0	1.212575E+0	1.229703E+0	1.215170E+0	1.232028E+0	1.251278E+0	1.225508E+0	1.236706E+0	1.212204E+0	1.217930E+0	1.181141E+0	1.212429E+0	1.134117E+0	1.185637E+0	1.292804E+0	1.206867E+0	1.227472E+0	1.205164E+0	1.224855E+0	1.154366E+0	1.221142E+0	1.197298E+0	1.191854E+0	1.214886E+0	1.242394E+0	1.248639E+0	1.240597E+0	1.201819E+0	1.208582E+0	1.214402E+0	1.176983E+0	1.175028E+0	1.199508E+0	1.272603E+0	1.173573E+0	1.192262E+0	1.195001E+0	1.204354E+0	1.204657E+0	1.154598E+0	1.211033E+0	1.207894E+0	1.192428E+0	1.207243E+0	1.217825E+0	1.219040E+0	1.199607E+0	1.253344E+0	1.183876E+0	1.204814E+0	1.185857E+0	1.209724E+0	1.210631E+0	1.192634E+0	1.206348E+0	1.256469E+0	1.201233E+0	1.238735E+0	1.237014E+0	1.260184E+0	1.204309E+0	1.179275E+0	1.208091E+0	1.243937E+0	1.213741E+0	1.211253E+0	1.227153E+0	1.227610E+0	1.190770E+0	1.190790E+0	1.226844E+0	1.248046E+0	1.204828E+0	1.166381E+0	1.234980E+0	1.196078E+0	1.235550E+0	1.166780E+0	1.191507E+0	1.223351E+0	1.223520E+0	1.217855E+0	1.213315E+0	1.215388E+0	1.249758E+0	1.198964E+0	1.261804E+0	1.283684E+0	1.208028E+0	1.183699E+0	1.256276E+0	1.222561E+0	1.236400E+0	1.216522E+0	1.205188E+0	1.256707E+0	1.257313E+0	1.237473E+0	1.155706E+0	1.177513E+0	1.204281E+0	1.195436E+0	1.227679E+0	1.160361E+0	1.188036E+0	1.181835E+0	1.233702E+0	1.245596E+0	1.273332E+0	1.247863E+0	1.177611E+0	1.223117E+0	1.181264E+0	1.166639E+0	1.220271E+0	1.203418E+0	1.192072E+0	1.209770E+0	1.168820E+0	1.234589E+0	1.274861E+0	1.249019E+0	1.196104E+0	1.208542E+0	1.188055E+0	1.235421E+0	1.196945E+0	1.215372E+0	1.233771E+0	1.183415E+0	1.177394E+0	1.182889E+0	1.211480E+0	1.177380E+0	1.193655E+0	1.195991E+0	1.141842E+0	1.246969E+0	1.220901E+0	1.223474E+0	1.184026E+0	1.247687E+0	1.189559E+0	1.190056E+0	1.250618E+0	1.161925E+0	1.233685E+0	1.174975E+0	1.177001E+0	1.209503E+0	1.219127E+0	1.147824E+0	1.158364E+0	1.208836E+0	1.191197E+0	1.267669E+0	1.202882E+0	1.265587E+0	1.276938E+0	1.157973E+0	1.252449E+0	1.184137E+0	1.166935E+0	1.199827E+0	1.205401E+0	1.191481E+0	1.178404E+0	1.238692E+0	1.217293E+0
5.432800E+2	1.464567E+0	1.356446E+0	1.325576E+0	1.399062E+0	1.399596E+0	1.337802E+0	1.359273E+0	1.371102E+0	1.386764E+0	1.370959E+0	1.337919E+0	1.384450E+0	1.347228E+0	1.395597E+0	1.352129E+0	1.414940E+0	1.355715E+0	1.365419E+0	1.335404E+0	1.399491E+0	1.381168E+0	1.374335E+0	1.359476E+0	1.345695E+0	1.349828E+0	1.352412E+0	1.376434E+0	1.376029E+0	1.386623E+0	1.353271E+0	1.391502E+0	1.403050E+0	1.390369E+0	1.333320E+0	1.386721E+0	1.341333E+0	1.369935E+0	1.366446E+0	1.395499E+0	1.372699E+0	1.317289E+0	1.353331E+0	1.351765E+0	1.344184E+0	1.391978E+0	1.402386E+0	1.390823E+0	1.418504E+0	1.353784E+0	1.402887E+0	1.378094E+0	1.423248E+0	1.400341E+0	1.355023E+0	1.413765E+0	1.371624E+0	1.390041E+0	1.397976E+0	1.380562E+0	1.356636E+0	1.372541E+0	1.391773E+0	1.395254E+0	1.356063E+0	1.347312E+0	1.344639E+0	1.366835E+0	1.349429E+0	1.366864E+0	1.336392E+0	1.392913E+0	1.386563E+0	1.346900E+0	1.437224E+0	1.384900E+0	1.360350E+0	1.455024E+0	1.378761E+0	1.359363E+0	1.405789E+0	1.341555E+0	1.403618E+0	1.316559E+0	1.384441E+0	1.385983E+0	1.356046E+0	1.330972E+0	1.392706E+0	1.412333E+0	1.347466E+0	1.407064E+0	1.415385E+0	1.434798E+0	1.388854E+0	1.385179E+0	1.384865E+0	1.348883E+0	1.404097E+0	1.339683E+0	1.373559E+0	1.406293E+0	1.366821E+0	1.340440E+0	1.346521E+0	1.410051E+0	1.412164E+0	1.309904E+0	1.364383E+0	1.404119E+0	1.363080E+0	1.372570E+0	1.411382E+0	1.396520E+0	1.379109E+0	1.326282E+0	1.376109E+0	1.352949E+0	1.376871E+0	1.372256E+0	1.368419E+0	1.365412E+0	1.407717E+0	1.382802E+0	1.360193E+0	1.395824E+0	1.352999E+0	1.337832E+0	1.386581E+0	1.292192E+0	1.379032E+0	1.406422E+0	1.342143E+0	1.304958E+0	1.336431E+0	1.370796E+0	1.374540E+0	1.346754E+0	1.362059E+0	1.334286E+0	1.317182E+0	1.408774E+0	1.335019E+0	1.330723E+0	1.342257E+0	1.413628E+0	1.359753E+0	1.387469E+0	1.354855E+0	1.363602E+0	1.344400E+0	1.444239E+0	1.328639E+0	1.315737E+0	1.329079E+0	1.317966E+0	1.346790E+0	1.423107E+0	1.350787E+0	1.377422E+0	1.393501E+0	1.411377E+0	1.298883E+0	1.371549E+0	1.367106E+0	1.322760E+0	1.359654E+0	1.361463E+0	1.320405E+0	1.409882E+0	1.346904E+0	1.447220E+0
5.435540E+2	1.568433E+0	1.504389E+0	1.469649E+0	1.579282E+0	1.518141E+0	1.557319E+0	1.542111E+0	1.513248E+0	1.547048E+0	1.482164E+0	1.546172E+0	1.558686E+0	1.537951E+0	1.570990E+0	1.540913E+0	1.560723E+0	1.519804E+0	1.513593E+0	1.530600E+0	1.533287E+0	1.508653E+0	1.602009E+0	1.535074E+0	1.523029E+0	1.533160E+0	1.512378E+0	1.572451E+0	1.534104E+0	1.549287E+0	1.510674E+0	1.522301E+0	1.525482E+0	1.536892E+0	1.501033E+0	1.542777E+0	1.508572E+0	1.534904E+0	1.570946E+0	1.488387E+0	1.531620E+0	1.528816E+0	1.569117E+0	1.544476E+0	1.480320E+0	1.570423E+0	1.532685E+0	1.514760E+0	1.571822E+0	1.549691E+0	1.555373E+0	1.526726E+0	1.569280E+0	1.543077E+0	1.533554E+0	1.559166E+0	1.509557E+0	1.532721E+0	1.551462E+0	1.588263E+0	1.488650E+0	1.534249E+0	1.526389E+0	1.571573E+0	1.540165E+0	1.526444E+0	1.539441E+0	1.531527E+0	1.505585E+0	1.572387E+0	1.488613E+0	1.512921E+0	1.476004E+0	1.514661E+0	1.549538E+0	1.507559E+0	1.534479E+0	1.521997E+0	1.560886E+0	1.533939E+0	1.530320E+0	1.531642E+0	1.527647E+0	1.548788E+0	1.525489E+0	1.497733E+0	1.482525E+0	1.537275E+0	1.530135E+0	1.568037E+0	1.548472E+0	1.530789E+0	1.534667E+0	1.552577E+0	1.520050E+0	1.528410E+0	1.491772E+0	1.480654E+0	1.569421E+0	1.498159E+0	1.539083E+0	1.528127E+0	1.499524E+0	1.471783E+0	1.513797E+0	1.643998E+0	1.463554E+0	1.558492E+0	1.493515E+0	1.538155E+0	1.532884E+0	1.595059E+0	1.520795E+0	1.479879E+0	1.499235E+0	1.498827E+0	1.519772E+0	1.569407E+0	1.496383E+0	1.535353E+0	1.475800E+0	1.511654E+0	1.528140E+0	1.570474E+0	1.481708E+0	1.524517E+0	1.493236E+0	1.524484E+0	1.507276E+0	1.524951E+0	1.494210E+0	1.611022E+0	1.535720E+0	1.503900E+0	1.532615E+0	1.487099E+0	1.496369E+0	1.536468E+0	1.515254E+0	1.520486E+0	1.490791E+0	1.515399E+0	1.523275E+0	1.531117E+0	1.492657E+0	1.539466E+0	1.529688E+0	1.542511E+0	1.516343E+0	1.508485E+0	1.502214E+0	1.506028E+0	1.503521E+0	1.528288E+0	1.561019E+0	1.546806E+0	1.500453E+0	1.601984E+0	1.520824E+0	1.502897E+0	1.530180E+0	1.545944E+0	1.476749E+0	1.518603E+0	1.489368E+0	1.527638E+0	1.543528E+0	1.463846E+0	1.525910E+0	1.624131E+0	1.489718E+0	1.630525E+0
5.437590E+2	1.667117E+0	1.581183E+0	1.580769E+0	1.652928E+0	1.574718E+0	1.614249E+0	1.560838E+0	1.616048E+0	1.572757E+0	1.591816E+0	1.554429E+0	1.694222E+0	1.580733E+0	1.592672E+0	1.628022E+0	1.620225E+0	1.569359E+0	1.681394E+0	1.634742E+0	1.592703E+0	1.582999E+0	1.651110E+0	1.639074E+0	1.575032E+0	1.638839E+0	1.578271E+0	1.640080E+0	1.643604E+0	1.577684E+0	1.585430E+0	1.572313E+0	1.570932E+0	1.575880E+0	1.589917E+0	1.619995E+0	1.645680E+0	1.579924E+0	1.603135E+0	1.600493E+0	1.601598E+0	1.607769E+0	1.609508E+0	1.583666E+0	1.586937E+0	1.591494E+0	1.632839E+0	1.609242E+0	1.643522E+0	1.598834E+0	1.625841E+0	1.621103E+0	1.670942E+0	1.590616E+0	1.559216E+0	1.557093E+0	1.624557E+0	1.639189E+0	1.593578E+0	1.594583E+0	1.552263E+0	1.646251E+0	1.697318E+0	1.605970E+0	1.587204E+0	1.549446E+0	1.599201E+0	1.508689E+0	1.604049E+0	1.587364E+0	1.586853E+0	1.665500E+0	1.555827E+0	1.602866E+0	1.609990E+0	1.643810E+0	1.606574E+0	1.546023E+0	1.585413E+0	1.587946E+0	1.584424E+0	1.581161E+0	1.612015E+0	1.578306E+0	1.626852E+0	1.608720E+0	1.561472E+0	1.662372E+0	1.570228E+0	1.643588E+0	1.601671E+0	1.544455E+0	1.551412E+0	1.576690E+0	1.559688E+0	1.540329E+0	1.664918E+0	1.612712E+0	1.637075E+0	1.568126E+0	1.616169E+0	1.603584E+0	1.598527E+0	1.588075E+0	1.499883E+0	1.660304E+0	1.578013E+0	1.600288E+0	1.626595E+0	1.613227E+0	1.600484E+0	1.605456E+0	1.586472E+0	1.610205E+0	1.526849E+0	1.613463E+0	1.545695E+0	1.552185E+0	1.621329E+0	1.561564E+0	1.544761E+0	1.614570E+0	1.567108E+0	1.698555E+0	1.594616E+0	1.536265E+0	1.577698E+0	1.634105E+0	1.587636E+0	1.631593E+0	1.608642E+0	1.652724E+0	1.638707E+0	1.640682E+0	1.549359E+0	1.539107E+0	1.561986E+0	1.550808E+0	1.590067E+0	1.504879E+0	1.537076E+0	1.593898E+0	1.598047E+0	1.543002E+0	1.576283E+0	1.555453E+0	1.592324E+0	1.633902E+0	1.567114E+0	1.573863E+0	1.542910E+0	1.581551E+0	1.559351E+0	1.551093E+0	1.612199E+0	1.455250E+0	1.533523E+0	1.610271E+0	1.572402E+0	1.564069E+0	1.592294E+0	1.573532E+0	1.629356E+0	1.533275E+0	1.516447E+0	1.550127E+0	1.575406E+0	1.583377E+0	1.589800E+0	1.592859E+0	1.565570E+0	1.613396E+0
5.440170E+2	1.686041E+0	1.685597E+0	1.596369E+0	1.661671E+0	1.661233E+0	1.621830E+0	1.684706E+0	1.659074E+0	1.621842E+0	1.653566E+0	1.647885E+0	1.676387E+0	1.646730E+0	1.636756E+0	1.675979E+0	1.602746E+0	1.610101E+0	1.603206E+0	1.670017E+0	1.675307E+0	1.680474E+0	1.626882E+0	1.619276E+0	1.676244E+0	1.606487E+0	1.644053E+0	1.646102E+0	1.651607E+0	1.616841E+0	1.663689E+0	1.666707E+0	1.681117E+0	1.607475E+0	1.641159E+0	1.678706E+0	1.675278E+0	1.654150E+0	1.615228E+0	1.699083E+0	1.688044E+0	1.668344E+0	1.616539E+0	1.641135E+0	1.628824E+0	1.615349E+0	1.704015E+0	1.661277E+0	1.631274E+0	1.665673E+0	1.692808E+0	1.678468E+0	1.665935E+0	1.584684E+0	1.671043E+0	1.654072E+0	1.722526E+0	1.613413E+0	1.665113E+0	1.640975E+0	1.656943E+0	1.612158E+0	1.589592E+0	1.679676E+0	1.629427E+0	1.589928E+0	1.679882E+0	1.644543E+0	1.683584E+0	1.699590E+0	1.645436E+0	1.622667E+0	1.708536E+0	1.651231E+0	1.686364E+0	1.681977E+0	1.624414E+0	1.636557E+0	1.719745E+0	1.626346E+0	1.700964E+0	1.617258E+0	1.630405E+0	1.560658E+0	1.657766E+0	1.646704E+0	1.632916E+0	1.679003E+0	1.624801E+0	1.696198E+0	1.658882E+0	1.630322E+0	1.672683E+0	1.651462E+0	1.641591E+0	1.634159E+0	1.641893E+0	1.647539E+0	1.657645E+0	1.596845E+0	1.638604E+0	1.635498E+0	1.651984E+0	1.651937E+0	1.536742E+0	1.620024E+0	1.599633E+0	1.704233E+0	1.601827E+0	1.616251E+0	1.616524E+0	1.643312E+0	1.637192E+0	1.660065E+0	1.643249E+0	1.624421E+0	1.649209E+0	1.687190E+0	1.626216E+0	1.608117E+0	1.611720E+0	1.683509E+0	1.667631E+0	1.645675E+0	1.582989E+0	1.667548E+0	1.624311E+0	1.602850E+0	1.627437E+0	1.643111E+0	1.599316E+0	1.636122E+0	1.655909E+0	1.634488E+0	1.651098E+0	1.618673E+0	1.598650E+0	1.623959E+0	1.673225E+0	1.578226E+0	1.633447E+0	1.697085E+0	1.600276E+0	1.649154E+0	1.644525E+0	1.666639E+0	1.585102E+0	1.662738E+0	1.653393E+0	1.596279E+0	1.643021E+0	1.618948E+0	1.624405E+0	1.619174E+0	1.592308E+0	1.636729E+0	1.565289E+0	1.650505E+0	1.684960E+0	1.626869E+0	1.598138E+0	1.570925E+0	1.604645E+0	1.660165E+0	1.629276E+0	1.677104E+0	1.638940E+0	1.605108E+0	1.581686E+0	1.678675E+0	1.578240E+0	1.717648E+0
5.442700E+2	1.710385E+0	1.584934E+0	1.590339E+0	1.573163E+0	1.610294E+0	1.565481E+0	1.589061E+0	1.640221E+0	1.655289E+0	1.622196E+0	1.611081E+0	1.651295E+0	1.604662E+0	1.558508E+0	1.581140E+0	1.642554E+0	1.653351E+0	1.641808E+0	1.683813E+0	1.592329E+0	1.633131E+0	1.613580E+0	1.609378E+0	1.612724E+0	1.576578E+0	1.626013E+0	1.653576E+0	1.616480E+0	1.600804E+0	1.601286E+0	1.620276E+0	1.649081E+0	1.593170E+0	1.613023E+0	1.634297E+0	1.614480E+0	1.566001E+0	1.609497E+0	1.625560E+0	1.600251E+0	1.619187E+0	1.596343E+0	1.658377E+0	1.573136E+0	1.577071E+0	1.677863E+0	1.597114E+0	1.644130E+0	1.572797E+0	1.678050E+0	1.639342E+0	1.608669E+0	1.645528E+0	1.595064E+0	1.594441E+0	1.584977E+0	1.565692E+0	1.591692E+0	1.637568E+0	1.607835E+0	1.592145E+0	1.657725E+0	1.602981E+0	1.591484E+0	1.530284E+0	1.612647E+0	1.571891E+0	1.577569E+0	1.571652E+0	1.583484E+0	1.587239E+0	1.561559E+0	1.600811E+0	1.607480E+0	1.613066E+0	1.578164E+0	1.553091E+0	1.626591E+0	1.590992E+0	1.613223E+0	1.586195E+0	1.604327E+0	1.567959E+0	1.565918E+0	1.549340E+0	1.570078E+0	1.604792E+0	1.580673E+0	1.635599E+0	1.641772E+0	1.603741E+0	1.591252E+0	1.606217E+0	1.652659E+0	1.551429E+0	1.608367E+0	1.588272E+0	1.559353E+0	1.526839E+0	1.660026E+0	1.586042E+0	1.588905E+0	1.600716E+0	1.521656E+0	1.624655E+0	1.584514E+0	1.623480E+0	1.561992E+0	1.545895E+0	1.600449E+0	1.626111E+0	1.594381E+0	1.539614E+0	1.583417E+0	1.542480E+0	1.595918E+0	1.602703E+0	1.552887E+0	1.561207E+0	1.582322E+0	1.557277E+0	1.574792E+0	1.626012E+0	1.581863E+0	1.606160E+0	1.609435E+0	1.600460E+0	1.657730E+0	1.629043E+0	1.557261E+0	1.582983E+0	1.658535E+0	1.601788E+0	1.622773E+0	1.530036E+0	1.646865E+0	1.526562E+0	1.600439E+0	1.571381E+0	1.591243E+0	1.631789E+0	1.603664E+0	1.531925E+0	1.650793E+0	1.596799E+0	1.633385E+0	1.610709E+0	1.593343E+0	1.543820E+0	1.593224E+0	1.552635E+0	1.580335E+0	1.574008E+0	1.639609E+0	1.564585E+0	1.590172E+0	1.565532E+0	1.550302E+0	1.584178E+0	1.593306E+0	1.553196E+0	1.580261E+0	1.593126E+0	1.563787E+0	1.600312E+0	1.584745E+0	1.591018E+0	1.558243E+0	1.685003E+0	1.575762E+0	1.565505E+0
5.445290E+2	1.602328E+0	1.532885E+0	1.513533E+0	1.601099E+0	1.499278E+0	1.562208E+0	1.556742E+0	1.588939E+0	1.554188E+0	1.567226E+0	1.525714E+0	1.517910E+0	1.494106E+0	1.586682E+0	1.551263E+0	1.562332E+0	1.567144E+0	1.574489E+0	1.552134E+0	1.571243E+0	1.504116E+0	1.526369E+0	1.538202E+0	1.576724E+0	1.518648E+0	1.568423E+0	1.520158E+0	1.585808E+0	1.539209E+0	1.548042E+0	1.503590E+0	1.562019E+0	1.505775E+0	1.509984E+0	1.549136E+0	1.578253E+0	1.529783E+0	1.631080E+0	1.569087E+0	1.587684E+0	1.525918E+0	1.484882E+0	1.574722E+0	1.512506E+0	1.587282E+0	1.546621E+0	1.599921E+0	1.578300E+0	1.502042E+0	1.580650E+0	1.554802E+0	1.560183E+0	1.515085E+0	1.478141E+0	1.559268E+0	1.524468E+0	1.533047E+0	1.535200E+0	1.523085E+0	1.539514E+0	1.531690E+0	1.526353E+0	1.555491E+0	1.523388E+0	1.501919E+0	1.619582E+0	1.533059E+0	1.505065E+0	1.505998E+0	1.546717E+0	1.569674E+0	1.517018E+0	1.552778E+0	1.623429E+0	1.568077E+0	1.516408E+0	1.493902E+0	1.559069E+0	1.558114E+0	1.558418E+0	1.526153E+0	1.526962E+0	1.585460E+0	1.531865E+0	1.549191E+0	1.521096E+0	1.541379E+0	1.548499E+0	1.506623E+0	1.546702E+0	1.498638E+0	1.566306E+0	1.484593E+0	1.555826E+0	1.579434E+0	1.584495E+0	1.515493E+0	1.558215E+0	1.516602E+0	1.581053E+0	1.548644E+0	1.517746E+0	1.523558E+0	1.480797E+0	1.550951E+0	1.481547E+0	1.508754E+0	1.530903E+0	1.513509E+0	1.544482E+0	1.583559E+0	1.528363E+0	1.540281E+0	1.558124E+0	1.517372E+0	1.500438E+0	1.557843E+0	1.508107E+0	1.521689E+0	1.539521E+0	1.535089E+0	1.571937E+0	1.566665E+0	1.490197E+0	1.503255E+0	1.554128E+0	1.507637E+0	1.599157E+0	1.557647E+0	1.584647E+0	1.596583E+0	1.593825E+0	1.479178E+0	1.556982E+0	1.541076E+0	1.530084E+0	1.532731E+0	1.559750E+0	1.540725E+0	1.536958E+0	1.569393E+0	1.477497E+0	1.515847E+0	1.504563E+0	1.530072E+0	1.526101E+0	1.512166E+0	1.531335E+0	1.530181E+0	1.570748E+0	1.573470E+0	1.542298E+0	1.515550E+0	1.556995E+0	1.549825E+0	1.536686E+0	1.573482E+0	1.542823E+0	1.553835E+0	1.491926E+0	1.518016E+0	1.503687E+0	1.516217E+0	1.491524E+0	1.548202E+0	1.538869E+0	1.515659E+0	1.543002E+0	1.530298E+0	1.543849E+0	1.600646E+0
5.447720E+2	1.525038E+0	1.480048E+0	1.486153E+0	1.530462E+0	1.487323E+0	1.514686E+0	1.459573E+0	1.495292E+0	1.429902E+0	1.515475E+0	1.482703E+0	1.525552E+0	1.513612E+0	1.511524E+0	1.514167E+0	1.509673E+0	1.487016E+0	1.496581E+0	1.546747E+0	1.475339E+0	1.490306E+0	1.505447E+0	1.469851E+0	1.503568E+0	1.436645E+0	1.488929E+0	1.531595E+0	1.518169E+0	1.493888E+0	1.461278E+0	1.462362E+0	1.478756E+0	1.464770E+0	1.483424E+0	1.527139E+0	1.468337E+0	1.456534E+0	1.489224E+0	1.462527E+0	1.541515E+0	1.437162E+0	1.436816E+0	1.463671E+0	1.417873E+0	1.495517E+0	1.510812E+0	1.473796E+0	1.528800E+0	1.469938E+0	1.523815E+0	1.454840E+0	1.435742E+0	1.466989E+0	1.485849E+0	1.470155E+0	1.529238E+0	1.502754E+0	1.537553E+0	1.486836E+0	1.462076E+0	1.487310E+0	1.498342E+0	1.503741E+0	1.477299E+0	1.445239E+0	1.479640E+0	1.476793E+0	1.503346E+0	1.512980E+0	1.451530E+0	1.457658E+0	1.470585E+0	1.455503E+0	1.498545E+0	1.447632E+0	1.509408E+0	1.503327E+0	1.492602E+0	1.465515E+0	1.466730E+0	1.455077E+0	1.513540E+0	1.448402E+0	1.524390E+0	1.447575E+0	1.477787E+0	1.504777E+0	1.477879E+0	1.472708E+0	1.488206E+0	1.465877E+0	1.432014E+0	1.499123E+0	1.494385E+0	1.498889E+0	1.504195E+0	1.450424E+0	1.513660E+0	1.558695E+0	1.448820E+0	1.505775E+0	1.511222E+0	1.460660E+0	1.418926E+0	1.511119E+0	1.518389E+0	1.510222E+0	1.485930E+0	1.453237E+0	1.476203E+0	1.474912E+0	1.475263E+0	1.454021E+0	1.463081E+0	1.398936E+0	1.429823E+0	1.523987E+0	1.473592E+0	1.427877E+0	1.398717E+0	1.495791E+0	1.555020E+0	1.526696E+0	1.469643E+0	1.440913E+0	1.493882E+0	1.461423E+0	1.445212E+0	1.432974E+0	1.497504E+0	1.463933E+0	1.515900E+0	1.436221E+0	1.491272E+0	1.457452E+0	1.510569E+0	1.443363E+0	1.478006E+0	1.410926E+0	1.514540E+0	1.473215E+0	1.475018E+0	1.492212E+0	1.490936E+0	1.506013E+0	1.531616E+0	1.465278E+0	1.481711E+0	1.431398E+0	1.430863E+0	1.445916E+0	1.462271E+0	1.470774E+0	1.515292E+0	1.471577E+0	1.516563E+0	1.458067E+0	1.505647E+0	1.475884E+0	1.430922E+0	1.474271E+0	1.522296E+0	1.444885E+0	1.459095E+0	1.449415E+0	1.436626E+0	1.444836E+0	1.424782E+0	1.460727E+0	1.505706E+0	1.496330E+0
5.450150E+2	1.462380E+0	1.341433E+0	1.415058E+0	1.382755E+0	1.385112E+0	1.377149E+0	1.392970E+0	1.390494E+0	1.368163E+0	1.471096E+0	1.372118E+0	1.416520E+0	1.365551E+0	1.417682E+0	1.363059E+0	1.447762E+0	1.357630E+0	1.418957E+0	1.376288E+0	1.400024E+0	1.413499E+0	1.386447E+0	1.437318E+0	1.412598E+0	1.391304E+0	1.402395E+0	1.398961E+0	1.411147E+0	1.358892E+0	1.374788E+0	1.409636E+0	1.395299E+0	1.378094E+0	1.387670E+0	1.420519E+0	1.372753E+0	1.395344E+0	1.413462E+0	1.443222E+0	1.385558E+0	1.380186E+0	1.383527E+0	1.387961E+0	1.347654E+0	1.385671E+0	1.421285E+0	1.356339E+0	1.417020E+0	1.380827E+0	1.423227E+0	1.414361E+0	1.428712E+0	1.392287E+0	1.384266E+0	1.390328E+0	1.437391E+0	1.420693E+0	1.380138E+0	1.410400E+0	1.349404E+0	1.366468E+0	1.452744E+0	1.508374E+0	1.398933E+0	1.410424E+0	1.428750E+0	1.362793E+0	1.410908E+0	1.425706E+0	1.383705E+0	1.419123E+0	1.447397E+0	1.383275E+0	1.481889E+0	1.391092E+0	1.374871E+0	1.410994E+0	1.437920E+0	1.388298E+0	1.412078E+0	1.404081E+0	1.413029E+0	1.390657E+0	1.415668E+0	1.377607E+0	1.378970E+0	1.398513E+0	1.415467E+0	1.397038E+0	1.398540E+0	1.377889E+0	1.379939E+0	1.401093E+0	1.404183E+0	1.411387E+0	1.472656E+0	1.370208E+0	1.394740E+0	1.326036E+0	1.405013E+0	1.350525E+0	1.405730E+0	1.399469E+0	1.354495E+0	1.464456E+0	1.372441E+0	1.415473E+0	1.418830E+0	1.380851E+0	1.440593E+0	1.418090E+0	1.411367E+0	1.365250E+0	1.391798E+0	1.369137E+0	1.371294E+0	1.382835E+0	1.388522E+0	1.352774E+0	1.406050E+0	1.354095E+0	1.350115E+0	1.401914E+0	1.405774E+0	1.388057E+0	1.402263E+0	1.387922E+0	1.398414E+0	1.363109E+0	1.367821E+0	1.423760E+0	1.371695E+0	1.398928E+0	1.436089E+0	1.378706E+0	1.375173E+0	1.345597E+0	1.425799E+0	1.335172E+0	1.395529E+0	1.373971E+0	1.375905E+0	1.392133E+0	1.365031E+0	1.365188E+0	1.430669E+0	1.390343E+0	1.414332E+0	1.383819E+0	1.418040E+0	1.389773E+0	1.345642E+0	1.405341E+0	1.358072E+0	1.349802E+0	1.381202E+0	1.415732E+0	1.397851E+0	1.376930E+0	1.385775E+0	1.364177E+0	1.402667E+0	1.439295E+0	1.394700E+0	1.321319E+0	1.358147E+0	1.393936E+0	1.398100E+0	1.377854E+0	1.307800E+0	1.517649E+0
5.452690E+2	1.340820E+0	1.334990E+0	1.352643E+0	1.323746E+0	1.338776E+0	1.322820E+0	1.367792E+0	1.292832E+0	1.267324E+0	1.325087E+0	1.313152E+0	1.364909E+0	1.312181E+0	1.343208E+0	1.322168E+0	1.337945E+0	1.309035E+0	1.359140E+0	1.314363E+0	1.341579E+0	1.326608E+0	1.341487E+0	1.335928E+0	1.328072E+0	1.298590E+0	1.338025E+0	1.315484E+0	1.388232E+0	1.319298E+0	1.307519E+0	1.288854E+0	1.323927E+0	1.264286E+0	1.320311E+0	1.330473E+0	1.349266E+0	1.374556E+0	1.288542E+0	1.309162E+0	1.313278E+0	1.290530E+0	1.312586E+0	1.374701E+0	1.297481E+0	1.372973E+0	1.284379E+0	1.326536E+0	1.353830E+0	1.287554E+0	1.411438E+0	1.287794E+0	1.330981E+0	1.301662E+0	1.344152E+0	1.318112E+0	1.356078E+0	1.301972E+0	1.369800E+0	1.279590E+0	1.288724E+0	1.342683E+0	1.359885E+0	1.332380E+0	1.297987E+0	1.350669E+0	1.335995E+0	1.312245E+0	1.396034E+0	1.360209E+0	1.309638E+0	1.295420E+0	1.310884E+0	1.303601E+0	1.371058E+0	1.338355E+0	1.317146E+0	1.342037E+0	1.292428E+0	1.322429E+0	1.311277E+0	1.315327E+0	1.286871E+0	1.360344E+0	1.323554E+0	1.361849E+0	1.327605E+0	1.312295E+0	1.377024E+0	1.275474E+0	1.335479E+0	1.328513E+0	1.383055E+0	1.337613E+0	1.333577E+0	1.321312E+0	1.348757E+0	1.316933E+0	1.339068E+0	1.313765E+0	1.314441E+0	1.352467E+0	1.340991E+0	1.283638E+0	1.294136E+0	1.321958E+0	1.318677E+0	1.318322E+0	1.312308E+0	1.311358E+0	1.329052E+0	1.286220E+0	1.344328E+0	1.328460E+0	1.349149E+0	1.263869E+0	1.322596E+0	1.327319E+0	1.300299E+0	1.331850E+0	1.306121E+0	1.360277E+0	1.344878E+0	1.373388E+0	1.340724E+0	1.292048E+0	1.275514E+0	1.343072E+0	1.304231E+0	1.303657E+0	1.391645E+0	1.344562E+0	1.375324E+0	1.333172E+0	1.341688E+0	1.329659E+0	1.358791E+0	1.293069E+0	1.314864E+0	1.252392E+0	1.344699E+0	1.324964E+0	1.323520E+0	1.284041E+0	1.307623E+0	1.341542E+0	1.295266E+0	1.329871E+0	1.346892E+0	1.294917E+0	1.298424E+0	1.325721E+0	1.297790E+0	1.314766E+0	1.366708E+0	1.335602E+0	1.336954E+0	1.338979E+0	1.334073E+0	1.338385E+0	1.296770E+0	1.360074E+0	1.307364E+0	1.362653E+0	1.307675E+0	1.284923E+0	1.292112E+0	1.327837E+0	1.279957E+0	1.326698E+0	1.448235E+0	1.249882E+0
5.455450E+2	1.305363E+0	1.308815E+0	1.252419E+0	1.277138E+0	1.277038E+0	1.233696E+0	1.300312E+0	1.267555E+0	1.298698E+0	1.259315E+0	1.313367E+0	1.276785E+0	1.261150E+0	1.305786E+0	1.272835E+0	1.258965E+0	1.299546E+0	1.317816E+0	1.273143E+0	1.294965E+0	1.295821E+0	1.258309E+0	1.283954E+0	1.268080E+0	1.259733E+0	1.318108E+0	1.336138E+0	1.261200E+0	1.236398E+0	1.260658E+0	1.266615E+0	1.301761E+0	1.197946E+0	1.236329E+0	1.286705E+0	1.277902E+0	1.251594E+0	1.327884E+0	1.276960E+0	1.303164E+0	1.290582E+0	1.270655E+0	1.297246E+0	1.315040E+0	1.257422E+0	1.250944E+0	1.259896E+0	1.321232E+0	1.287546E+0	1.291754E+0	1.293430E+0	1.276476E+0	1.292138E+0	1.228198E+0	1.243393E+0	1.258222E+0	1.274235E+0	1.230957E+0	1.250746E+0	1.243235E+0	1.273231E+0	1.310737E+0	1.248437E+0	1.249541E+0	1.257354E+0	1.257084E+0	1.230266E+0	1.216586E+0	1.291094E+0	1.247410E+0	1.282300E+0	1.258587E+0	1.260229E+0	1.234639E+0	1.294030E+0	1.235670E+0	1.250585E+0	1.259777E+0	1.295356E+0	1.282024E+0	1.241210E+0	1.245477E+0	1.255305E+0	1.302442E+0	1.224463E+0	1.250007E+0	1.282814E+0	1.263851E+0	1.295167E+0	1.275665E+0	1.197907E+0	1.337139E+0	1.263688E+0	1.272750E+0	1.280249E+0	1.261984E+0	1.248633E+0	1.320339E+0	1.236820E+0	1.279495E+0	1.271589E+0	1.212111E+0	1.278631E+0	1.295394E+0	1.269555E+0	1.262892E+0	1.255389E+0	1.270623E+0	1.225567E+0	1.254351E+0	1.283699E+0	1.257277E+0	1.253451E+0	1.243702E+0	1.225019E+0	1.282371E+0	1.327109E+0	1.285701E+0	1.216945E+0	1.226266E+0	1.242065E+0	1.293547E+0	1.278786E+0	1.289805E+0	1.248260E+0	1.281713E+0	1.242841E+0	1.287672E+0	1.293215E+0	1.353308E+0	1.295115E+0	1.286053E+0	1.189347E+0	1.299528E+0	1.247128E+0	1.272854E+0	1.260838E+0	1.267556E+0	1.309622E+0	1.277289E+0	1.296386E+0	1.254602E+0	1.291443E+0	1.282737E+0	1.266982E+0	1.269633E+0	1.251322E+0	1.264853E+0	1.250296E+0	1.271933E+0	1.245825E+0	1.253930E+0	1.280269E+0	1.357674E+0	1.237501E+0	1.246588E+0	1.235141E+0	1.292205E+0	1.305192E+0	1.271424E+0	1.200244E+0	1.259192E+0	1.255264E+0	1.290595E+0	1.223705E+0	1.235166E+0	1.293642E+0	1.249877E+0	1.187328E+0	1.257967E+0	1.198445E+0
5.457780E+2	1.223801E+0	1.193381E+0	1.183022E+0	1.213341E+0	1.225701E+0	1.177600E+0	1.220171E+0	1.221789E+0	1.229658E+0	1.148324E+0	1.180151E+0	1.234138E+0	1.192668E+0	1.211428E+0	1.194172E+0	1.205722E+0	1.210365E+0	1.193120E+0	1.226887E+0	1.199259E+0	1.236189E+0	1.178244E+0	1.221474E+0	1.251100E+0	1.186297E+0	1.220709E+0	1.191752E+0	1.217334E+0	1.242033E+0	1.195038E+0	1.190958E+0	1.205764E+0	1.129214E+0	1.190827E+0	1.239768E+0	1.219906E+0	1.235032E+0	1.209748E+0	1.216708E+0	1.222072E+0	1.170861E+0	1.188042E+0	1.221410E+0	1.252589E+0	1.177268E+0	1.241260E+0	1.237980E+0	1.226725E+0	1.190866E+0	1.201615E+0	1.232746E+0	1.223400E+0	1.201607E+0	1.205694E+0	1.196597E+0	1.174999E+0	1.224239E+0	1.156519E+0	1.250295E+0	1.229606E+0	1.190243E+0	1.199793E+0	1.206053E+0	1.204964E+0	1.224983E+0	1.219270E+0	1.171408E+0	1.170514E+0	1.181181E+0	1.188577E+0	1.197307E+0	1.153970E+0	1.229875E+0	1.223173E+0	1.188583E+0	1.254760E+0	1.189999E+0	1.243371E+0	1.234646E+0	1.206353E+0	1.156168E+0	1.151818E+0	1.222135E+0	1.200509E+0	1.211108E+0	1.211910E+0	1.261992E+0	1.210636E+0	1.204173E+0	1.208768E+0	1.219216E+0	1.194604E+0	1.223087E+0	1.178614E+0	1.247423E+0	1.197263E+0	1.119205E+0	1.226352E+0	1.174219E+0	1.214611E+0	1.188809E+0	1.214466E+0	1.200811E+0	1.217554E+0	1.161008E+0	1.187997E+0	1.221945E+0	1.235578E+0	1.191034E+0	1.190047E+0	1.268091E+0	1.182546E+0	1.172832E+0	1.237680E+0	1.210449E+0	1.188507E+0	1.229844E+0	1.200452E+0	1.215107E+0	1.200391E+0	1.186477E+0	1.168509E+0	1.239133E+0	1.242521E+0	1.170623E+0	1.241247E+0	1.205928E+0	1.199700E+0	1.179333E+0	1.202668E+0	1.224499E+0	1.183565E+0	1.191838E+0	1.175595E+0	1.164863E+0	1.176242E+0	1.135487E+0	1.150142E+0	1.164191E+0	1.203911E+0	1.210746E+0	1.225518E+0	1.242223E+0	1.189558E+0	1.162869E+0	1.241847E+0	1.212179E+0	1.219374E+0	1.170475E+0	1.190760E+0	1.173296E+0	1.190840E+0	1.192776E+0	1.262876E+0	1.197238E+0	1.245486E+0	1.219707E+0	1.241340E+0	1.237099E+0	1.206904E+0	1.179748E+0	1.209018E+0	1.167642E+0	1.192686E+0	1.143886E+0	1.176069E+0	1.226926E+0	1.210131E+0	1.226856E+0	1.241011E+0	1.258760E+0
5.460220E+2	1.228331E+0	1.191758E+0	1.183910E+0	1.198918E+0	1.187194E+0	1.172877E+0	1.187308E+0	1.149652E+0	1.234281E+0	1.134175E+0	1.163942E+0	1.195717E+0	1.171592E+0	1.191872E+0	1.154497E+0	1.211418E+0	1.238245E+0	1.174587E+0	1.166648E+0	1.176242E+0	1.158644E+0	1.190781E+0	1.173237E+0	1.204651E+0	1.139016E+0	1.214370E+0	1.211210E+0	1.211302E+0	1.176241E+0	1.178778E+0	1.140848E+0	1.185497E+0	1.133760E+0	1.153075E+0	1.165962E+0	1.226365E+0	1.153815E+0	1.145580E+0	1.190577E+0	1.161053E+0	1.195971E+0	1.158668E+0	1.152879E+0	1.209937E+0	1.198633E+0	1.169659E+0	1.209911E+0	1.207567E+0	1.157389E+0	1.186267E+0	1.204824E+0	1.177620E+0	1.187382E+0	1.166304E+0	1.187206E+0	1.182852E+0	1.176026E+0	1.184615E+0	1.209753E+0	1.176281E+0	1.190077E+0	1.192356E+0	1.181324E+0	1.167175E+0	1.158234E+0	1.164304E+0	1.145033E+0	1.176259E+0	1.229633E+0	1.195241E+0	1.209070E+0	1.178636E+0	1.202258E+0	1.181317E+0	1.192778E+0	1.248159E+0	1.167280E+0	1.192668E+0	1.235152E+0	1.216380E+0	1.190612E+0	1.166977E+0	1.191713E+0	1.148880E+0	1.200508E+0	1.165696E+0	1.208926E+0	1.193675E+0	1.193919E+0	1.195622E+0	1.176207E+0	1.175303E+0	1.172192E+0	1.144253E+0	1.217213E+0	1.252089E+0	1.160484E+0	1.235182E+0	1.185751E+0	1.225726E+0	1.183278E+0	1.174614E+0	1.209450E+0	1.147738E+0	1.231450E+0	1.178316E+0	1.179110E+0	1.232404E+0	1.171854E+0	1.154492E+0	1.257084E+0	1.160778E+0	1.170141E+0	1.190220E+0	1.154021E+0	1.172170E+0	1.167990E+0	1.203955E+0	1.215487E+0	1.201304E+0	1.214104E+0	1.193044E+0	1.216015E+0	1.140821E+0	1.167498E+0	1.220044E+0	1.186125E+0	1.230708E+0	1.188834E+0	1.180954E+0	1.152834E+0	1.213724E+0	1.206007E+0	1.196197E+0	1.199565E+0	1.234191E+0	1.155814E+0	1.209609E+0	1.205936E+0	1.184277E+0	1.191305E+0	1.161966E+0	1.236565E+0	1.202848E+0	1.219930E+0	1.177228E+0	1.182393E+0	1.231615E+0	1.122708E+0	1.195112E+0	1.179869E+0	1.181299E+0	1.195207E+0	1.237988E+0	1.142419E+0	1.183327E+0	1.165983E+0	1.155496E+0	1.215003E+0	1.183849E+0	1.167412E+0	1.230989E+0	1.201773E+0	1.192782E+0	1.206454E+0	1.191824E+0	1.153680E+0	1.136127E+0	1.220558E+0	1.219256E+0	1.216522E+0
5.467710E+2	1.332120E+0	1.266980E+0	1.243015E+0	1.289504E+0	1.286468E+0	1.258746E+0	1.237129E+0	1.279182E+0	1.269046E+0	1.265051E+0	1.253275E+0	1.265445E+0	1.242979E+0	1.251874E+0	1.333309E+0	1.274120E+0	1.224014E+0	1.303675E+0	1.238922E+0	1.287418E+0	1.259713E+0	1.265428E+0	1.283755E+0	1.264199E+0	1.282542E+0	1.196357E+0	1.291574E+0	1.303657E+0	1.261191E+0	1.274825E+0	1.264835E+0	1.226098E+0	1.257700E+0	1.252106E+0	1.317901E+0	1.265127E+0	1.257682E+0	1.239983E+0	1.248910E+0	1.280191E+0	1.214556E+0	1.247317E+0	1.285622E+0	1.323259E+0	1.256030E+0	1.234736E+0	1.320222E+0	1.314349E+0	1.236558E+0	1.244823E+0	1.254602E+0	1.278683E+0	1.249692E+0	1.248117E+0	1.294924E+0	1.267213E+0	1.251823E+0	1.310216E+0	1.326311E+0	1.282543E+0	1.280948E+0	1.281891E+0	1.288198E+0	1.233017E+0	1.286643E+0	1.261842E+0	1.297051E+0	1.254378E+0	1.297382E+0	1.277451E+0	1.273899E+0	1.299701E+0	1.252996E+0	1.327490E+0	1.268682E+0	1.293183E+0	1.278695E+0	1.278389E+0	1.277434E+0	1.207555E+0	1.255526E+0	1.257667E+0	1.225377E+0	1.284354E+0	1.252126E+0	1.242441E+0	1.313419E+0	1.330451E+0	1.292878E+0	1.242958E+0	1.270797E+0	1.271894E+0	1.255236E+0	1.276982E+0	1.284481E+0	1.294891E+0	1.264527E+0	1.233838E+0	1.282717E+0	1.257850E+0	1.265606E+0	1.268722E+0	1.286503E+0	1.246742E+0	1.287604E+0	1.249923E+0	1.323041E+0	1.307595E+0	1.273805E+0	1.231651E+0	1.296120E+0	1.275694E+0	1.257521E+0	1.235837E+0	1.274880E+0	1.234955E+0	1.336798E+0	1.287167E+0	1.278950E+0	1.244415E+0	1.301690E+0	1.310904E+0	1.313977E+0	1.219768E+0	1.238053E+0	1.254548E+0	1.283501E+0	1.279389E+0	1.238978E+0	1.265809E+0	1.319138E+0	1.325846E+0	1.291540E+0	1.300029E+0	1.279722E+0	1.255048E+0	1.266479E+0	1.249776E+0	1.295767E+0	1.247562E+0	1.275611E+0	1.241634E+0	1.312259E+0	1.291978E+0	1.331156E+0	1.257646E+0	1.217944E+0	1.295806E+0	1.250856E+0	1.222487E+0	1.273328E+0	1.269905E+0	1.272616E+0	1.304033E+0	1.286408E+0	1.215557E+0	1.300214E+0	1.301041E+0	1.287709E+0	1.283844E+0	1.226565E+0	1.294606E+0	1.291525E+0	1.253788E+0	1.286773E+0	1.237310E+0	1.289801E+0	1.310975E+0	1.276364E+0	1.223359E+0	1.327566E+0
5.475120E+2	1.484935E+0	1.389190E+0	1.344321E+0	1.391048E+0	1.442862E+0	1.410418E+0	1.370638E+0	1.379321E+0	1.392484E+0	1.362534E+0	1.462209E+0	1.426215E+0	1.399571E+0	1.382613E+0	1.386802E+0	1.392725E+0	1.370172E+0	1.450098E+0	1.342737E+0	1.401849E+0	1.396092E+0	1.397667E+0	1.416123E+0	1.389608E+0	1.352874E+0	1.362147E+0	1.380410E+0	1.411758E+0	1.367170E+0	1.417137E+0	1.426675E+0	1.428693E+0	1.373705E+0	1.384766E+0	1.462348E+0	1.345931E+0	1.360404E+0	1.394335E+0	1.410346E+0	1.401401E+0	1.364444E+0	1.371732E+0	1.487661E+0	1.405509E+0	1.461967E+0	1.377347E+0	1.420924E+0	1.416586E+0	1.338182E+0	1.389689E+0	1.402646E+0	1.434095E+0	1.401479E+0	1.387292E+0	1.428291E+0	1.401351E+0	1.369233E+0	1.393302E+0	1.438100E+0	1.379974E+0	1.398450E+0	1.343761E+0	1.320849E+0	1.434554E+0	1.374211E+0	1.383104E+0	1.368070E+0	1.361226E+0	1.405990E+0	1.371170E+0	1.359570E+0	1.369638E+0	1.367682E+0	1.433119E+0	1.426430E+0	1.393915E+0	1.407300E+0	1.390097E+0	1.390427E+0	1.412238E+0	1.410394E+0	1.357860E+0	1.415649E+0	1.417772E+0	1.362396E+0	1.418180E+0	1.393693E+0	1.391866E+0	1.423277E+0	1.367846E+0	1.363097E+0	1.393295E+0	1.392762E+0	1.388219E+0	1.454114E+0	1.352884E+0	1.411491E+0	1.388165E+0	1.375063E+0	1.424312E+0	1.337843E+0	1.399626E+0	1.394891E+0	1.362858E+0	1.426991E+0	1.356508E+0	1.374054E+0	1.392271E+0	1.394150E+0	1.398529E+0	1.413587E+0	1.397806E+0	1.364339E+0	1.398137E+0	1.314916E+0	1.368730E+0	1.412560E+0	1.377953E+0	1.374442E+0	1.390998E+0	1.365082E+0	1.341081E+0	1.401403E+0	1.395968E+0	1.400736E+0	1.327736E+0	1.354612E+0	1.447466E+0	1.424223E+0	1.376495E+0	1.487576E+0	1.367786E+0	1.375488E+0	1.408696E+0	1.401420E+0	1.428735E+0	1.370721E+0	1.406549E+0	1.351235E+0	1.388154E+0	1.369334E+0	1.372405E+0	1.408480E+0	1.377327E+0	1.372921E+0	1.370233E+0	1.313329E+0	1.412072E+0	1.335433E+0	1.364071E+0	1.388705E+0	1.362233E+0	1.389973E+0	1.360416E+0	1.341835E+0	1.383687E+0	1.408016E+0	1.389652E+0	1.437553E+0	1.374384E+0	1.406906E+0	1.407047E+0	1.412134E+0	1.376543E+0	1.349489E+0	1.339338E+0	1.378081E+0	1.350994E+0	1.387109E+0	1.362873E+0	1.558500E+0
5.482600E+2	1.535336E+0	1.461857E+0	1.471282E+0	1.447674E+0	1.501087E+0	1.480706E+0	1.442262E+0	1.455082E+0	1.489532E+0	1.445066E+0	1.479294E+0	1.481640E+0	1.460399E+0	1.433247E+0	1.488370E+0	1.470266E+0	1.483250E+0	1.521162E+0	1.466431E+0	1.477770E+0	1.498551E+0	1.485090E+0	1.486221E+0	1.481952E+0	1.483864E+0	1.467618E+0	1.482430E+0	1.471798E+0	1.474157E+0	1.449915E+0	1.439395E+0	1.502425E+0	1.470228E+0	1.518311E+0	1.505568E+0	1.515109E+0	1.433071E+0	1.474630E+0	1.455753E+0	1.524805E+0	1.474627E+0	1.438380E+0	1.544537E+0	1.436567E+0	1.461461E+0	1.451124E+0	1.492121E+0	1.504631E+0	1.435772E+0	1.512195E+0	1.419574E+0	1.500881E+0	1.465849E+0	1.499004E+0	1.453430E+0	1.488321E+0	1.537916E+0	1.471489E+0	1.499023E+0	1.457765E+0	1.495255E+0	1.444022E+0	1.512482E+0	1.495360E+0	1.461009E+0	1.446708E+0	1.497737E+0	1.505703E+0	1.470080E+0	1.511672E+0	1.479806E+0	1.447960E+0	1.457720E+0	1.541057E+0	1.485057E+0	1.457252E+0	1.476957E+0	1.434542E+0	1.457987E+0	1.457555E+0	1.438907E+0	1.478713E+0	1.477624E+0	1.489796E+0	1.482797E+0	1.511724E+0	1.512778E+0	1.503525E+0	1.427054E+0	1.488637E+0	1.463338E+0	1.499329E+0	1.488341E+0	1.433576E+0	1.511565E+0	1.424602E+0	1.385403E+0	1.500151E+0	1.416529E+0	1.501416E+0	1.485607E+0	1.514696E+0	1.434496E+0	1.428623E+0	1.443707E+0	1.478263E+0	1.514697E+0	1.475261E+0	1.439558E+0	1.481261E+0	1.488829E+0	1.462448E+0	1.386968E+0	1.435584E+0	1.454280E+0	1.437380E+0	1.537756E+0	1.462265E+0	1.491737E+0	1.444522E+0	1.490585E+0	1.422776E+0	1.513702E+0	1.454394E+0	1.464429E+0	1.431230E+0	1.480912E+0	1.495868E+0	1.456912E+0	1.480095E+0	1.544692E+0	1.522152E+0	1.441619E+0	1.487377E+0	1.490556E+0	1.476459E+0	1.447377E+0	1.491382E+0	1.459753E+0	1.462905E+0	1.469005E+0	1.426256E+0	1.479057E+0	1.535590E+0	1.466534E+0	1.512082E+0	1.480543E+0	1.474493E+0	1.430150E+0	1.487893E+0	1.501594E+0	1.491338E+0	1.481094E+0	1.440858E+0	1.479465E+0	1.485945E+0	1.481247E+0	1.457536E+0	1.451688E+0	1.484549E+0	1.436812E+0	1.436178E+0	1.495394E+0	1.414766E+0	1.398126E+0	1.431427E+0	1.453543E+0	1.439696E+0	1.476051E+0	1.459008E+0	1.469841E+0
5.490100E+2	1.505728E+0	1.384390E+0	1.499047E+0	1.461118E+0	1.463278E+0	1.421752E+0	1.455112E+0	1.451066E+0	1.423283E+0	1.403548E+0	1.462671E+0	1.507909E+0	1.438599E+0	1.438219E+0	1.463771E+0	1.437863E+0	1.418874E+0	1.473140E+0	1.389342E+0	1.424070E+0	1.378000E+0	1.441100E+0	1.455635E+0	1.410604E+0	1.424665E+0	1.452705E+0	1.454666E+0	1.487819E+0	1.406471E+0	1.450667E+0	1.424408E+0	1.421678E+0	1.412570E+0	1.419322E+0	1.434358E+0	1.441606E+0	1.422714E+0	1.446109E+0	1.424936E+0	1.415247E+0	1.411040E+0	1.425100E+0	1.425304E+0	1.447824E+0	1.462189E+0	1.468956E+0	1.475420E+0	1.504107E+0	1.415997E+0	1.420627E+0	1.456789E+0	1.403393E+0	1.421813E+0	1.380575E+0	1.380888E+0	1.401305E+0	1.421095E+0	1.460372E+0	1.439039E+0	1.428410E+0	1.431085E+0	1.426659E+0	1.411744E+0	1.457003E+0	1.384218E+0	1.433820E+0	1.387031E+0	1.416780E+0	1.442245E+0	1.358732E+0	1.424846E+0	1.404062E+0	1.412230E+0	1.408218E+0	1.473790E+0	1.379044E+0	1.437773E+0	1.440119E+0	1.458859E+0	1.418538E+0	1.400388E+0	1.417301E+0	1.402635E+0	1.424925E+0	1.418441E+0	1.430280E+0	1.434178E+0	1.445491E+0	1.426287E+0	1.436165E+0	1.444444E+0	1.398171E+0	1.405372E+0	1.393386E+0	1.453281E+0	1.428787E+0	1.367317E+0	1.462109E+0	1.445726E+0	1.447367E+0	1.453234E+0	1.425006E+0	1.456392E+0	1.429502E+0	1.459917E+0	1.411683E+0	1.391083E+0	1.431156E+0	1.412999E+0	1.402931E+0	1.481244E+0	1.439862E+0	1.409398E+0	1.397618E+0	1.370179E+0	1.413693E+0	1.408401E+0	1.435384E+0	1.389606E+0	1.404752E+0	1.395386E+0	1.395305E+0	1.438713E+0	1.394118E+0	1.428367E+0	1.366291E+0	1.475619E+0	1.445252E+0	1.372505E+0	1.412644E+0	1.428489E+0	1.440303E+0	1.349302E+0	1.448291E+0	1.399938E+0	1.349080E+0	1.399540E+0	1.418841E+0	1.432024E+0	1.439492E+0	1.370902E+0	1.392899E+0	1.375346E+0	1.433629E+0	1.431761E+0	1.447216E+0	1.445410E+0	1.406960E+0	1.385702E+0	1.466593E+0	1.408279E+0	1.455030E+0	1.422199E+0	1.453187E+0	1.409257E+0	1.460035E+0	1.429176E+0	1.432277E+0	1.464097E+0	1.440518E+0	1.405806E+0	1.434625E+0	1.373428E+0	1.449980E+0	1.407836E+0	1.458384E+0	1.448583E+0	1.343929E+0	1.367281E+0	1.411497E+0	1.470971E+0
5.497740E+2	1.413479E+0	1.332641E+0	1.363656E+0	1.336294E+0	1.423260E+0	1.407413E+0	1.361021E+0	1.421605E+0	1.409650E+0	1.319260E+0	1.381569E+0	1.337853E+0	1.366910E+0	1.356827E+0	1.405924E+0	1.345178E+0	1.421337E+0	1.373213E+0	1.309164E+0	1.376988E+0	1.364713E+0	1.361240E+0	1.375556E+0	1.359008E+0	1.362813E+0	1.378552E+0	1.367351E+0	1.429531E+0	1.363368E+0	1.410289E+0	1.371133E+0	1.373324E+0	1.315739E+0	1.321954E+0	1.386257E+0	1.393130E+0	1.377736E+0	1.352312E+0	1.396559E+0	1.384461E+0	1.304033E+0	1.347784E+0	1.437492E+0	1.390234E+0	1.388936E+0	1.412213E+0	1.400940E+0	1.437868E+0	1.331826E+0	1.382734E+0	1.389970E+0	1.354357E+0	1.360595E+0	1.344370E+0	1.354678E+0	1.333032E+0	1.336316E+0	1.346881E+0	1.375307E+0	1.350225E+0	1.372581E+0	1.358964E+0	1.432519E+0	1.299827E+0	1.454243E+0	1.414880E+0	1.338156E+0	1.356511E+0	1.413361E+0	1.388678E+0	1.324799E+0	1.373063E+0	1.389903E+0	1.360363E+0	1.337651E+0	1.376380E+0	1.374278E+0	1.395267E+0	1.391443E+0	1.397423E+0	1.330813E+0	1.395475E+0	1.377670E+0	1.338608E+0	1.324105E+0	1.365511E+0	1.406015E+0	1.388098E+0	1.344648E+0	1.343255E+0	1.347240E+0	1.341492E+0	1.334354E+0	1.338488E+0	1.360697E+0	1.378859E+0	1.355270E+0	1.356086E+0	1.367629E+0	1.390582E+0	1.334180E+0	1.405948E+0	1.332271E+0	1.368495E+0	1.378984E+0	1.358280E+0	1.402141E+0	1.369755E+0	1.380997E+0	1.364173E+0	1.335379E+0	1.390046E+0	1.334059E+0	1.323028E+0	1.256851E+0	1.342006E+0	1.347680E+0	1.324101E+0	1.424875E+0	1.337696E+0	1.382021E+0	1.329912E+0	1.352560E+0	1.356028E+0	1.370766E+0	1.357184E+0	1.356385E+0	1.372983E+0	1.348892E+0	1.343162E+0	1.379264E+0	1.328159E+0	1.357564E+0	1.401021E+0	1.347519E+0	1.390674E+0	1.367880E+0	1.373382E+0	1.346410E+0	1.306826E+0	1.358416E+0	1.335586E+0	1.345666E+0	1.347651E+0	1.368061E+0	1.351828E+0	1.332313E+0	1.374438E+0	1.324832E+0	1.358857E+0	1.366929E+0	1.388649E+0	1.340648E+0	1.347483E+0	1.354280E+0	1.353840E+0	1.385707E+0	1.331704E+0	1.310313E+0	1.369007E+0	1.338347E+0	1.364058E+0	1.351378E+0	1.315614E+0	1.381876E+0	1.386364E+0	1.390362E+0	1.346587E+0	1.331962E+0	1.375411E+0	1.426258E+0
5.505170E+2	1.401969E+0	1.363405E+0	1.391310E+0	1.305969E+0	1.288234E+0	1.296628E+0	1.379161E+0	1.333456E+0	1.296889E+0	1.350316E+0	1.291138E+0	1.376437E+0	1.366338E+0	1.337251E+0	1.343791E+0	1.365327E+0	1.340974E+0	1.346892E+0	1.301231E+0	1.367899E+0	1.321523E+0	1.322260E+0	1.298373E+0	1.337089E+0	1.266508E+0	1.299581E+0	1.408983E+0	1.341879E+0	1.331756E+0	1.312091E+0	1.312249E+0	1.320779E+0	1.354692E+0	1.330440E+0	1.324915E+0	1.347603E+0	1.317616E+0	1.322047E+0	1.353901E+0	1.284453E+0	1.358151E+0	1.292592E+0	1.334745E+0	1.342010E+0	1.330591E+0	1.382154E+0	1.383666E+0	1.339657E+0	1.266147E+0	1.372987E+0	1.305808E+0	1.322816E+0	1.291467E+0	1.306936E+0	1.332778E+0	1.380903E+0	1.326006E+0	1.341362E+0	1.317667E+0	1.347626E+0	1.254671E+0	1.337018E+0	1.329717E+0	1.337937E+0	1.339360E+0	1.346330E+0	1.307775E+0	1.314461E+0	1.381268E+0	1.323856E+0	1.301679E+0	1.319266E+0	1.322115E+0	1.324068E+0	1.367121E+0	1.352788E+0	1.292977E+0	1.331906E+0	1.373868E+0	1.365082E+0	1.285654E+0	1.272632E+0	1.340404E+0	1.315293E+0	1.272422E+0	1.299450E+0	1.377515E+0	1.271679E+0	1.359842E+0	1.362391E+0	1.258985E+0	1.315750E+0	1.332024E+0	1.332084E+0	1.377592E+0	1.358101E+0	1.308799E+0	1.368235E+0	1.283189E+0	1.301294E+0	1.367170E+0	1.344012E+0	1.330713E+0	1.310167E+0	1.350733E+0	1.295271E+0	1.327677E+0	1.359501E+0	1.305268E+0	1.340394E+0	1.353020E+0	1.385069E+0	1.310761E+0	1.422274E+0	1.293747E+0	1.311592E+0	1.319764E+0	1.301940E+0	1.286009E+0	1.302134E+0	1.330151E+0	1.321222E+0	1.358730E+0	1.316421E+0	1.280893E+0	1.382384E+0	1.293269E+0	1.342793E+0	1.345201E+0	1.359668E+0	1.396429E+0	1.370262E+0	1.349670E+0	1.302784E+0	1.303307E+0	1.306945E+0	1.358078E+0	1.339641E+0	1.281173E+0	1.339779E+0	1.323816E+0	1.267455E+0	1.351548E+0	1.317995E+0	1.370959E+0	1.284789E+0	1.315665E+0	1.339977E+0	1.320320E+0	1.287375E+0	1.298690E+0	1.342354E+0	1.307428E+0	1.329128E+0	1.354060E+0	1.317477E+0	1.293334E+0	1.345566E+0	1.285377E+0	1.346216E+0	1.275007E+0	1.325833E+0	1.356519E+0	1.274959E+0	1.257656E+0	1.313020E+0	1.385411E+0	1.330615E+0	1.387597E+0	1.362662E+0	1.281331E+0
5.512620E+2	1.365521E+0	1.341241E+0	1.344372E+0	1.285964E+0	1.318820E+0	1.295830E+0	1.324773E+0	1.317021E+0	1.304281E+0	1.314307E+0	1.331584E+0	1.327399E+0	1.283393E+0	1.290456E+0	1.321923E+0	1.312203E+0	1.294532E+0	1.284168E+0	1.279911E+0	1.369854E+0	1.279126E+0	1.338979E+0	1.297060E+0	1.325877E+0	1.282196E+0	1.308805E+0	1.354899E+0	1.307813E+0	1.312699E+0	1.287981E+0	1.299116E+0	1.344764E+0	1.352555E+0	1.313378E+0	1.336053E+0	1.320484E+0	1.312171E+0	1.279040E+0	1.344382E+0	1.344988E+0	1.342652E+0	1.306752E+0	1.269466E+0	1.276246E+0	1.353308E+0	1.354602E+0	1.307792E+0	1.343510E+0	1.328114E+0	1.335968E+0	1.247997E+0	1.373383E+0	1.282683E+0	1.299485E+0	1.329854E+0	1.309090E+0	1.367513E+0	1.367149E+0	1.363825E+0	1.320504E+0	1.319185E+0	1.296599E+0	1.307106E+0	1.362843E+0	1.326702E+0	1.345660E+0	1.289264E+0	1.288768E+0	1.339519E+0	1.307839E+0	1.317170E+0	1.315999E+0	1.230346E+0	1.352565E+0	1.332378E+0	1.273157E+0	1.327234E+0	1.310627E+0	1.300652E+0	1.315288E+0	1.255835E+0	1.293869E+0	1.265398E+0	1.331700E+0	1.322679E+0	1.341961E+0	1.304239E+0	1.310856E+0	1.337487E+0	1.297080E+0	1.291156E+0	1.321651E+0	1.362527E+0	1.287498E+0	1.277894E+0	1.335970E+0	1.322385E+0	1.311884E+0	1.361190E+0	1.304577E+0	1.298369E+0	1.372440E+0	1.246687E+0	1.318137E+0	1.345890E+0	1.289923E+0	1.336732E+0	1.332640E+0	1.363320E+0	1.316087E+0	1.320974E+0	1.339804E+0	1.295132E+0	1.289940E+0	1.324444E+0	1.369364E+0	1.351320E+0	1.347579E+0	1.302713E+0	1.299636E+0	1.359121E+0	1.266794E+0	1.326513E+0	1.396984E+0	1.298018E+0	1.327588E+0	1.350576E+0	1.298507E+0	1.290929E+0	1.363248E+0	1.363171E+0	1.327947E+0	1.251374E+0	1.379003E+0	1.290132E+0	1.328345E+0	1.303911E+0	1.353647E+0	1.264945E+0	1.273463E+0	1.315157E+0	1.252349E+0	1.311607E+0	1.329755E+0	1.302957E+0	1.291508E+0	1.318440E+0	1.320787E+0	1.336704E+0	1.287924E+0	1.314702E+0	1.326426E+0	1.261880E+0	1.296938E+0	1.327056E+0	1.326121E+0	1.272241E+0	1.299178E+0	1.337053E+0	1.308314E+0	1.266503E+0	1.312853E+0	1.315892E+0	1.331031E+0	1.301680E+0	1.273463E+0	1.312575E+0	1.375819E+0	1.297157E+0	1.285998E+0	1.362520E+0
5.520150E+2	1.391982E+0	1.339222E+0	1.279197E+0	1.308727E+0	1.322353E+0	1.317690E+0	1.314678E+0	1.351074E+0	1.338333E+0	1.319583E+0	1.328986E+0	1.344473E+0	1.309209E+0	1.287153E+0	1.325368E+0	1.363767E+0	1.306806E+0	1.343006E+0	1.280184E+0	1.323570E+0	1.274160E+0	1.305387E+0	1.306887E+0	1.315804E+0	1.299464E+0	1.368056E+0	1.326978E+0	1.295327E+0	1.352740E+0	1.309222E+0	1.309391E+0	1.328635E+0	1.303541E+0	1.315008E+0	1.308524E+0	1.293167E+0	1.329925E+0	1.294234E+0	1.309888E+0	1.317820E+0	1.326430E+0	1.365469E+0	1.286550E+0	1.359465E+0	1.358032E+0	1.379197E+0	1.318743E+0	1.328028E+0	1.327039E+0	1.293751E+0	1.295749E+0	1.374756E+0	1.311034E+0	1.316531E+0	1.309395E+0	1.337851E+0	1.345228E+0	1.356275E+0	1.306462E+0	1.306432E+0	1.336894E+0	1.312949E+0	1.309342E+0	1.308794E+0	1.295042E+0	1.318930E+0	1.334750E+0	1.265679E+0	1.336131E+0	1.312317E+0	1.296050E+0	1.309567E+0	1.295607E+0	1.310263E+0	1.342366E+0	1.343027E+0	1.301009E+0	1.344603E+0	1.372095E+0	1.329760E+0	1.286010E+0	1.311260E+0	1.291951E+0	1.323655E+0	1.315519E+0	1.311796E+0	1.342574E+0	1.346818E+0	1.344913E+0	1.337552E+0	1.323735E+0	1.343476E+0	1.337543E+0	1.299423E+0	1.318130E+0	1.338992E+0	1.280288E+0	1.322741E+0	1.302034E+0	1.357484E+0	1.336249E+0	1.312663E+0	1.361566E+0	1.317028E+0	1.339009E+0	1.314523E+0	1.311533E+0	1.311916E+0	1.299194E+0	1.291352E+0	1.323857E+0	1.332801E+0	1.318175E+0	1.297236E+0	1.358619E+0	1.348419E+0	1.297239E+0	1.274288E+0	1.276225E+0	1.288161E+0	1.374915E+0	1.305228E+0	1.372430E+0	1.338519E+0	1.320012E+0	1.291472E+0	1.345726E+0	1.351516E+0	1.297056E+0	1.347434E+0	1.320935E+0	1.317619E+0	1.315718E+0	1.302992E+0	1.275913E+0	1.306001E+0	1.286320E+0	1.247999E+0	1.301650E+0	1.336640E+0	1.332699E+0	1.296978E+0	1.336767E+0	1.236191E+0	1.301757E+0	1.327673E+0	1.311169E+0	1.284780E+0	1.284743E+0	1.332631E+0	1.263373E+0	1.360174E+0	1.300771E+0	1.359448E+0	1.272155E+0	1.307953E+0	1.316523E+0	1.326561E+0	1.368143E+0	1.317547E+0	1.340719E+0	1.254170E+0	1.286667E+0	1.286123E+0	1.321925E+0	1.262955E+0	1.280314E+0	1.254801E+0	1.279848E+0	1.379362E+0	1.394926E+0
5.527650E+2	1.338375E+0	1.295309E+0	1.262587E+0	1.274705E+0	1.308909E+0	1.232760E+0	1.318115E+0	1.302651E+0	1.279200E+0	1.329655E+0	1.260059E+0	1.311566E+0	1.277098E+0	1.330898E+0	1.216765E+0	1.332708E+0	1.297665E+0	1.306116E+0	1.273682E+0	1.304509E+0	1.313349E+0	1.336867E+0	1.301779E+0	1.288601E+0	1.327037E+0	1.238898E+0	1.255126E+0	1.305550E+0	1.284098E+0	1.223066E+0	1.253677E+0	1.311411E+0	1.268826E+0	1.305225E+0	1.279103E+0	1.313643E+0	1.293705E+0	1.309419E+0	1.268663E+0	1.235007E+0	1.297203E+0	1.214438E+0	1.249442E+0	1.307023E+0	1.248174E+0	1.221330E+0	1.285058E+0	1.339685E+0	1.263416E+0	1.246643E+0	1.310560E+0	1.280252E+0	1.250377E+0	1.283138E+0	1.234429E+0	1.282218E+0	1.264658E+0	1.275109E+0	1.304835E+0	1.294689E+0	1.286713E+0	1.276416E+0	1.268891E+0	1.287675E+0	1.290045E+0	1.278728E+0	1.289361E+0	1.279145E+0	1.242970E+0	1.302518E+0	1.271069E+0	1.313905E+0	1.298907E+0	1.275577E+0	1.283728E+0	1.252566E+0	1.274454E+0	1.274107E+0	1.236006E+0	1.289596E+0	1.275908E+0	1.287318E+0	1.230424E+0	1.336954E+0	1.293809E+0	1.291103E+0	1.319139E+0	1.282406E+0	1.258795E+0	1.299187E+0	1.247593E+0	1.381392E+0	1.293317E+0	1.261466E+0	1.292167E+0	1.297595E+0	1.226689E+0	1.308201E+0	1.319446E+0	1.284675E+0	1.308358E+0	1.276583E+0	1.290101E+0	1.309220E+0	1.323508E+0	1.310660E+0	1.308298E+0	1.321732E+0	1.326285E+0	1.262840E+0	1.293387E+0	1.285387E+0	1.255650E+0	1.264517E+0	1.283317E+0	1.255492E+0	1.222196E+0	1.280150E+0	1.297390E+0	1.296546E+0	1.253318E+0	1.312545E+0	1.247477E+0	1.296502E+0	1.318278E+0	1.299805E+0	1.286628E+0	1.263713E+0	1.304203E+0	1.328125E+0	1.276638E+0	1.373229E+0	1.305649E+0	1.291860E+0	1.283722E+0	1.303534E+0	1.270723E+0	1.249077E+0	1.302310E+0	1.308709E+0	1.261969E+0	1.262297E+0	1.318298E+0	1.304910E+0	1.275093E+0	1.333706E+0	1.293467E+0	1.363352E+0	1.258048E+0	1.282973E+0	1.309717E+0	1.274320E+0	1.281538E+0	1.274432E+0	1.289335E+0	1.280007E+0	1.284108E+0	1.222777E+0	1.345040E+0	1.278986E+0	1.303818E+0	1.273760E+0	1.319213E+0	1.293216E+0	1.233476E+0	1.285104E+0	1.319924E+0	1.295743E+0	1.296602E+0	1.276068E+0	1.199498E+0
5.535270E+2	1.227442E+0	1.147037E+0	1.242458E+0	1.196796E+0	1.246467E+0	1.229603E+0	1.253192E+0	1.289541E+0	1.230233E+0	1.221034E+0	1.167009E+0	1.279843E+0	1.193089E+0	1.197952E+0	1.196612E+0	1.250094E+0	1.201563E+0	1.190244E+0	1.220817E+0	1.255882E+0	1.243559E+0	1.223739E+0	1.198077E+0	1.249617E+0	1.172019E+0	1.196466E+0	1.201828E+0	1.265069E+0	1.218398E+0	1.231620E+0	1.199633E+0	1.211114E+0	1.201324E+0	1.164822E+0	1.266960E+0	1.200512E+0	1.194792E+0	1.193877E+0	1.201660E+0	1.238996E+0	1.223437E+0	1.197037E+0	1.203378E+0	1.202986E+0	1.206627E+0	1.271979E+0	1.198226E+0	1.254035E+0	1.252217E+0	1.245820E+0	1.189003E+0	1.189230E+0	1.208988E+0	1.225063E+0	1.158267E+0	1.257382E+0	1.200081E+0	1.224731E+0	1.217331E+0	1.220553E+0	1.186720E+0	1.246158E+0	1.215363E+0	1.259784E+0	1.223043E+0	1.193198E+0	1.178028E+0	1.205321E+0	1.224781E+0	1.185093E+0	1.218104E+0	1.230259E+0	1.163996E+0	1.201042E+0	1.219094E+0	1.237472E+0	1.205646E+0	1.187309E+0	1.220367E+0	1.258558E+0	1.216070E+0	1.190691E+0	1.195459E+0	1.214782E+0	1.223516E+0	1.217447E+0	1.230037E+0	1.178360E+0	1.200860E+0	1.175364E+0	1.171369E+0	1.214246E+0	1.178552E+0	1.237386E+0	1.223379E+0	1.240546E+0	1.186091E+0	1.232802E+0	1.212884E+0	1.200071E+0	1.187380E+0	1.227330E+0	1.208666E+0	1.172175E+0	1.179399E+0	1.164298E+0	1.224345E+0	1.212918E+0	1.241243E+0	1.181590E+0	1.206872E+0	1.197798E+0	1.177638E+0	1.233852E+0	1.202365E+0	1.224366E+0	1.199799E+0	1.250085E+0	1.191372E+0	1.192309E+0	1.286426E+0	1.255637E+0	1.264555E+0	1.250570E+0	1.237609E+0	1.222619E+0	1.202517E+0	1.229192E+0	1.206886E+0	1.223631E+0	1.248725E+0	1.272113E+0	1.221600E+0	1.235440E+0	1.187272E+0	1.230834E+0	1.190527E+0	1.188792E+0	1.191823E+0	1.265952E+0	1.250826E+0	1.197816E+0	1.172862E+0	1.257682E+0	1.200532E+0	1.231955E+0	1.228604E+0	1.256462E+0	1.201678E+0	1.187871E+0	1.234757E+0	1.253883E+0	1.176656E+0	1.224030E+0	1.243154E+0	1.235317E+0	1.208218E+0	1.236052E+0	1.160336E+0	1.244364E+0	1.191598E+0	1.196867E+0	1.192791E+0	1.188655E+0	1.164671E+0	1.171404E+0	1.200245E+0	1.195412E+0	1.248374E+0	1.198986E+0	1.206365E+0
5.542580E+2	1.127626E+0	1.109350E+0	1.131926E+0	1.115005E+0	1.109542E+0	1.124194E+0	1.139259E+0	1.093696E+0	1.108980E+0	1.114451E+0	1.135336E+0	1.152660E+0	1.092049E+0	1.089707E+0	1.089173E+0	1.144300E+0	1.113326E+0	1.090909E+0	1.130154E+0	1.123484E+0	1.044667E+0	1.111289E+0	1.091335E+0	1.119836E+0	1.074866E+0	1.061954E+0	1.100769E+0	1.079860E+0	1.141003E+0	1.112683E+0	1.070921E+0	1.074276E+0	1.101100E+0	1.073376E+0	1.076148E+0	1.094913E+0	1.115440E+0	1.121312E+0	1.061228E+0	1.096695E+0	1.096488E+0	1.117023E+0	1.117279E+0	1.143258E+0	1.080136E+0	1.082492E+0	1.070039E+0	1.114073E+0	1.094593E+0	1.127254E+0	1.072377E+0	1.116153E+0	1.122035E+0	1.103372E+0	1.149423E+0	1.162906E+0	1.102460E+0	1.097339E+0	1.077885E+0	1.090345E+0	1.063664E+0	1.097208E+0	1.115858E+0	1.119767E+0	1.076105E+0	1.132436E+0	1.066541E+0	1.043681E+0	1.122642E+0	1.083186E+0	1.097702E+0	1.124982E+0	1.086637E+0	1.159396E+0	1.107776E+0	1.120381E+0	1.063876E+0	1.104770E+0	1.108874E+0	1.118430E+0	1.076925E+0	1.060951E+0	1.080534E+0	1.152607E+0	1.121513E+0	1.057176E+0	1.117951E+0	1.092113E+0	1.115524E+0	1.118298E+0	1.115846E+0	1.113557E+0	1.112165E+0	1.089244E+0	1.113488E+0	1.102933E+0	1.087821E+0	1.057172E+0	1.096732E+0	1.126752E+0	1.122933E+0	1.087022E+0	1.108278E+0	1.103896E+0	1.115772E+0	1.071088E+0	1.098973E+0	1.152918E+0	1.061821E+0	1.119744E+0	1.141456E+0	1.070219E+0	1.086002E+0	1.114428E+0	1.074612E+0	1.083580E+0	1.137605E+0	1.055848E+0	1.077852E+0	1.067575E+0	1.140686E+0	1.098676E+0	1.085852E+0	1.098391E+0	1.151712E+0	1.112297E+0	1.045047E+0	1.092093E+0	1.078264E+0	1.100146E+0	1.098856E+0	1.161166E+0	1.086104E+0	1.108530E+0	1.098913E+0	1.056461E+0	1.113048E+0	1.093036E+0	1.111364E+0	1.076628E+0	1.116186E+0	1.124572E+0	1.081725E+0	1.135940E+0	1.107456E+0	1.111600E+0	1.098543E+0	1.123241E+0	1.094224E+0	1.069160E+0	1.101621E+0	1.079667E+0	1.089117E+0	1.121411E+0	1.073799E+0	1.063201E+0	1.099674E+0	1.043804E+0	1.116384E+0	1.125724E+0	1.103431E+0	1.078146E+0	1.120383E+0	1.087084E+0	1.097327E+0	1.075211E+0	1.127755E+0	1.088788E+0	1.165613E+0	1.113894E+0	1.152385E+0
5.550250E+2	1.028137E+0	9.992936E-1	1.028116E+0	1.053284E+0	1.017307E+0	1.005769E+0	1.024896E+0	9.784393E-1	1.002309E+0	1.035285E+0	1.024618E+0	1.006560E+0	1.001941E+0	1.052807E+0	1.004600E+0	1.010050E+0	9.905070E-1	1.013042E+0	1.068077E+0	1.023403E+0	9.864465E-1	1.042942E+0	1.004804E+0	9.638941E-1	1.000748E+0	1.046841E+0	1.006030E+0	1.039237E+0	1.018835E+0	1.050957E+0	1.018119E+0	1.034101E+0	1.028669E+0	1.015593E+0	1.027799E+0	1.032402E+0	1.062188E+0	1.057486E+0	9.918878E-1	1.022187E+0	1.009944E+0	1.007014E+0	9.932770E-1	1.017029E+0	1.011031E+0	9.857524E-1	1.019867E+0	1.047113E+0	1.025309E+0	1.002455E+0	1.026307E+0	1.026920E+0	1.027599E+0	9.902107E-1	1.013832E+0	1.005632E+0	1.074873E+0	1.000680E+0	1.066921E+0	1.039892E+0	1.015797E+0	1.032399E+0	1.032515E+0	9.909548E-1	1.035425E+0	1.063061E+0	9.710407E-1	1.023761E+0	9.929402E-1	1.036598E+0	9.693350E-1	1.025515E+0	9.946331E-1	1.023948E+0	1.033812E+0	9.959222E-1	1.025649E+0	1.010388E+0	1.035730E+0	1.058140E+0	1.029541E+0	9.964962E-1	1.032885E+0	1.010306E+0	1.031343E+0	9.847150E-1	1.022950E+0	1.070606E+0	1.016397E+0	1.046390E+0	9.888027E-1	1.030988E+0	1.017695E+0	1.053099E+0	1.044307E+0	1.001878E+0	9.967071E-1	1.023957E+0	1.008245E+0	1.045075E+0	1.039783E+0	1.026786E+0	1.042076E+0	1.011396E+0	1.089782E+0	1.017408E+0	1.048533E+0	1.013887E+0	1.010287E+0	1.034298E+0	1.054623E+0	1.035779E+0	1.034185E+0	1.020565E+0	1.026667E+0	1.018944E+0	1.032841E+0	1.033044E+0	1.023647E+0	1.042087E+0	1.029766E+0	1.036817E+0	1.014051E+0	1.028586E+0	1.064189E+0	1.041600E+0	1.056191E+0	1.008743E+0	9.866550E-1	1.024813E+0	9.990715E-1	1.014994E+0	1.003560E+0	1.051930E+0	1.006198E+0	1.035127E+0	9.623151E-1	1.075426E+0	1.047450E+0	1.006755E+0	9.698264E-1	9.882150E-1	1.039959E+0	1.019661E+0	1.040319E+0	1.019109E+0	1.026472E+0	1.019012E+0	9.772306E-1	1.029254E+0	1.062715E+0	1.021038E+0	1.051732E+0	9.982262E-1	1.032933E+0	1.021682E+0	1.038166E+0	1.008428E+0	1.006696E+0	1.024351E+0	1.033677E+0	9.980063E-1	1.034780E+0	1.027286E+0	9.973353E-1	1.006610E+0	1.040055E+0	1.028718E+0	1.050017E+0	9.528446E-1	1.084527E+0
5.557600E+2	9.807000E-1	9.511924E-1	9.512537E-1	9.980077E-1	9.901336E-1	9.667734E-1	9.487845E-1	9.572957E-1	9.780001E-1	9.388629E-1	9.711793E-1	9.870185E-1	9.158030E-1	9.696528E-1	9.667614E-1	9.869390E-1	9.117666E-1	9.722064E-1	9.587740E-1	1.003998E+0	9.229889E-1	1.011688E+0	9.561739E-1	9.965337E-1	9.284990E-1	9.449505E-1	9.850860E-1	1.009806E+0	9.766774E-1	9.791104E-1	9.475384E-1	9.462607E-1	9.082434E-1	9.614196E-1	9.828505E-1	9.243084E-1	9.944550E-1	9.763593E-1	9.482758E-1	9.839156E-1	9.646776E-1	9.519500E-1	9.631181E-1	1.011017E+0	9.676899E-1	9.686085E-1	9.611303E-1	1.004289E+0	9.903219E-1	9.495057E-1	9.595021E-1	9.924837E-1	9.561959E-1	9.579602E-1	9.631194E-1	9.590181E-1	1.016898E+0	9.725697E-1	9.885747E-1	9.666859E-1	9.391598E-1	9.866844E-1	9.878643E-1	9.701423E-1	9.511070E-1	9.560513E-1	9.307257E-1	9.229660E-1	9.978243E-1	9.510770E-1	9.960590E-1	9.704048E-1	9.494241E-1	9.887903E-1	9.482330E-1	1.014791E+0	9.730704E-1	9.812707E-1	9.754017E-1	9.912325E-1	9.480280E-1	9.742648E-1	9.500228E-1	9.611104E-1	9.534272E-1	9.409339E-1	9.690491E-1	9.359937E-1	9.903585E-1	9.845703E-1	9.583606E-1	9.638253E-1	9.841904E-1	9.346178E-1	9.724154E-1	1.036778E+0	9.415089E-1	9.180178E-1	9.295209E-1	9.607940E-1	9.679604E-1	1.009610E+0	9.752383E-1	9.833416E-1	9.571195E-1	9.838198E-1	1.003180E+0	9.360502E-1	9.427203E-1	9.265905E-1	9.409948E-1	9.831073E-1	9.294097E-1	1.000219E+0	9.494151E-1	9.549028E-1	9.525849E-1	9.907076E-1	9.226474E-1	9.393835E-1	9.562946E-1	9.532490E-1	1.017871E+0	1.002487E+0	9.561091E-1	9.620333E-1	9.636313E-1	1.007056E+0	9.956025E-1	1.000562E+0	9.845785E-1	1.049409E+0	9.808762E-1	9.751691E-1	9.630798E-1	9.997150E-1	9.960806E-1	9.108251E-1	9.643663E-1	9.927277E-1	9.341329E-1	9.738234E-1	9.439873E-1	9.892634E-1	9.647160E-1	9.581030E-1	9.616010E-1	9.939417E-1	9.567343E-1	9.997891E-1	9.980792E-1	9.687235E-1	9.598945E-1	9.704484E-1	8.928645E-1	9.602032E-1	9.617164E-1	9.822074E-1	1.001090E+0	9.540162E-1	9.511942E-1	9.546957E-1	9.648128E-1	9.994054E-1	9.678617E-1	9.408736E-1	9.875666E-1	9.654221E-1	9.764484E-1	9.484525E-1	9.499004E-1
5.560190E+2	9.824493E-1	1.004846E+0	9.907384E-1	9.724978E-1	9.777692E-1	9.928711E-1	9.830574E-1	9.900865E-1	9.792290E-1	9.739236E-1	9.694503E-1	9.383029E-1	9.479082E-1	9.708825E-1	9.805808E-1	1.018508E+0	9.977832E-1	9.700930E-1	1.008240E+0	9.797910E-1	9.809190E-1	9.740517E-1	9.913940E-1	9.799964E-1	9.649720E-1	9.662493E-1	9.692393E-1	9.967820E-1	9.989601E-1	9.691819E-1	9.694053E-1	1.002488E+0	9.502365E-1	9.825662E-1	9.335136E-1	9.536177E-1	9.760513E-1	9.865620E-1	9.883452E-1	9.567577E-1	9.870097E-1	9.912219E-1	9.715020E-1	9.423156E-1	9.860731E-1	9.878999E-1	9.655808E-1	9.826687E-1	9.211532E-1	1.002028E+0	9.919517E-1	9.536673E-1	9.741287E-1	9.750985E-1	9.817694E-1	1.010657E+0	1.003431E+0	9.995291E-1	9.907733E-1	9.939409E-1	9.745690E-1	9.771085E-1	9.617306E-1	1.002571E+0	9.657111E-1	9.886732E-1	1.002415E+0	9.860394E-1	9.910750E-1	9.593390E-1	9.818383E-1	9.492082E-1	9.891580E-1	9.990919E-1	9.572625E-1	9.467894E-1	1.000635E+0	9.511312E-1	1.032207E+0	1.013295E+0	9.440246E-1	9.557982E-1	9.853053E-1	1.012086E+0	9.962973E-1	1.006419E+0	1.012791E+0	9.527325E-1	9.707826E-1	9.911959E-1	9.622392E-1	1.045905E+0	9.664323E-1	1.001487E+0	1.009436E+0	1.001975E+0	9.905939E-1	9.915080E-1	1.033907E+0	9.616350E-1	9.449165E-1	9.797427E-1	9.571817E-1	9.951853E-1	1.022072E+0	9.254895E-1	9.502027E-1	9.749404E-1	9.775325E-1	9.804595E-1	9.615600E-1	1.012545E+0	9.435003E-1	9.588355E-1	9.778539E-1	9.740670E-1	9.315742E-1	9.532595E-1	9.983997E-1	1.001561E+0	9.851230E-1	9.743018E-1	9.915430E-1	9.236644E-1	1.022936E+0	1.026630E+0	9.826005E-1	9.945053E-1	9.570619E-1	9.613462E-1	9.555503E-1	9.688234E-1	9.325926E-1	9.742832E-1	9.777604E-1	9.895831E-1	9.687511E-1	9.463660E-1	9.597470E-1	1.000557E+0	9.972196E-1	9.859567E-1	9.491880E-1	9.874563E-1	9.508788E-1	1.000798E+0	9.905904E-1	1.005987E+0	9.478934E-1	9.746622E-1	9.818462E-1	9.587286E-1	9.800958E-1	9.566482E-1	9.579356E-1	9.630445E-1	9.990267E-1	9.969406E-1	9.582819E-1	1.039601E+0	9.905914E-1	9.899158E-1	9.992735E-1	9.729958E-1	9.756230E-1	9.752965E-1	9.546016E-1	9.673653E-1	9.459500E-1	9.847139E-1	9.479188E-1
5.565200E+2	1.005595E+0	9.894338E-1	1.017366E+0	9.939391E-1	1.006514E+0	9.935683E-1	9.764862E-1	9.927124E-1	9.652674E-1	9.548960E-1	1.001359E+0	1.023769E+0	1.029122E+0	9.854274E-1	1.002196E+0	9.984183E-1	9.888122E-1	9.877362E-1	9.258766E-1	1.016934E+0	1.015103E+0	1.035019E+0	1.046380E+0	1.002490E+0	9.621644E-1	9.959041E-1	1.024412E+0	1.002545E+0	1.014817E+0	1.014215E+0	1.017678E+0	9.869757E-1	9.656662E-1	9.895970E-1	1.006452E+0	9.831446E-1	1.041634E+0	1.004794E+0	9.760387E-1	9.886456E-1	9.630568E-1	1.019312E+0	9.949548E-1	1.006115E+0	9.742089E-1	9.973738E-1	9.976534E-1	1.000368E+0	1.045437E+0	1.014856E+0	1.021535E+0	1.003440E+0	9.734265E-1	9.894680E-1	1.005670E+0	9.834324E-1	1.011539E+0	9.642021E-1	9.988751E-1	1.039476E+0	1.020477E+0	1.006722E+0	9.941468E-1	1.009773E+0	9.812831E-1	9.608903E-1	1.023978E+0	9.765478E-1	1.004817E+0	1.047126E+0	1.019621E+0	9.931861E-1	9.911937E-1	1.061401E+0	1.007249E+0	9.745024E-1	1.015842E+0	1.059829E+0	1.018197E+0	1.026382E+0	1.001717E+0	9.945993E-1	1.017563E+0	1.061672E+0	1.008672E+0	9.714380E-1	9.908992E-1	1.052107E+0	1.006026E+0	9.872387E-1	1.039711E+0	1.009440E+0	9.862255E-1	9.685962E-1	1.019845E+0	1.012041E+0	9.818505E-1	1.028033E+0	1.033481E+0	1.032031E+0	1.027822E+0	1.002029E+0	1.027321E+0	1.012670E+0	1.044818E+0	9.933828E-1	1.024010E+0	9.923488E-1	9.957110E-1	9.906783E-1	1.013695E+0	9.748053E-1	1.022552E+0	1.007200E+0	9.753769E-1	9.721314E-1	1.004530E+0	1.011292E+0	9.829086E-1	1.007024E+0	9.760864E-1	1.032681E+0	9.729418E-1	9.856262E-1	1.003637E+0	9.748011E-1	9.803152E-1	1.038133E+0	1.017001E+0	9.691318E-1	9.916575E-1	9.943509E-1	9.749857E-1	9.945896E-1	1.045619E+0	1.042703E+0	1.054581E+0	1.023250E+0	9.897571E-1	1.018836E+0	9.691430E-1	1.015006E+0	9.684417E-1	9.876366E-1	1.029819E+0	1.000340E+0	9.693741E-1	1.063464E+0	1.009101E+0	1.007937E+0	1.006704E+0	1.003657E+0	1.007334E+0	1.012439E+0	1.049371E+0	9.702429E-1	1.021039E+0	1.023927E+0	1.032144E+0	1.010098E+0	9.894645E-1	1.029691E+0	1.004398E+0	1.031075E+0	9.927950E-1	9.985226E-1	9.795183E-1	1.034892E+0	9.754455E-1	1.045296E+0	1.084312E+0
5.570500E+2	1.031313E+0	9.738297E-1	9.987375E-1	1.043845E+0	1.013351E+0	9.746361E-1	9.796866E-1	1.019269E+0	9.735550E-1	1.028902E+0	1.050903E+0	9.745181E-1	9.893019E-1	1.012878E+0	9.699908E-1	9.843816E-1	1.029193E+0	9.964056E-1	9.734119E-1	1.038223E+0	9.507038E-1	9.809331E-1	9.999611E-1	1.032430E+0	9.904720E-1	9.950454E-1	9.749596E-1	1.016110E+0	9.677193E-1	9.969258E-1	9.923894E-1	1.020863E+0	9.978373E-1	1.019467E+0	9.332072E-1	1.037405E+0	9.862060E-1	1.012630E+0	1.001612E+0	1.032495E+0	1.013074E+0	9.976157E-1	9.693061E-1	9.680269E-1	1.024641E+0	9.865720E-1	1.001286E+0	1.022637E+0	1.025197E+0	1.019167E+0	9.918170E-1	9.901264E-1	9.909912E-1	9.820223E-1	9.952384E-1	9.831069E-1	9.840369E-1	9.966557E-1	1.033045E+0	1.031394E+0	9.788988E-1	9.948544E-1	1.022587E+0	1.012342E+0	1.000434E+0	9.408720E-1	9.743142E-1	9.575181E-1	9.606740E-1	9.706474E-1	1.005998E+0	1.021906E+0	1.011108E+0	9.723868E-1	1.001342E+0	9.965546E-1	9.996181E-1	9.891478E-1	9.917856E-1	9.704981E-1	1.041647E+0	9.634825E-1	9.422019E-1	1.007316E+0	9.792470E-1	9.764450E-1	1.015674E+0	9.956707E-1	1.000381E+0	9.784398E-1	1.008975E+0	9.769715E-1	1.062392E+0	1.005782E+0	9.555017E-1	1.016153E+0	9.454215E-1	9.690157E-1	1.024451E+0	9.913804E-1	9.934587E-1	9.947073E-1	9.938886E-1	9.426226E-1	1.013654E+0	1.006577E+0	1.014896E+0	1.005781E+0	9.833712E-1	9.896500E-1	9.998528E-1	1.019550E+0	1.028774E+0	9.839222E-1	1.016370E+0	9.823994E-1	9.952510E-1	1.043457E+0	9.932817E-1	9.994612E-1	9.985178E-1	9.752251E-1	9.925202E-1	1.043614E+0	9.734522E-1	1.018524E+0	1.037941E+0	1.026044E+0	9.911991E-1	9.879300E-1	9.708343E-1	9.972716E-1	1.042576E+0	9.922372E-1	9.603864E-1	9.958184E-1	9.331225E-1	9.737673E-1	9.885633E-1	9.917607E-1	9.944771E-1	1.007121E+0	1.022769E+0	1.019161E+0	9.893584E-1	1.024967E+0	1.004750E+0	9.878253E-1	1.032772E+0	9.996198E-1	9.581505E-1	9.916779E-1	9.717125E-1	9.724240E-1	1.013606E+0	9.579833E-1	9.913753E-1	1.004300E+0	9.853230E-1	1.016281E+0	9.972450E-1	1.054820E+0	9.835525E-1	1.057715E+0	9.854779E-1	1.037181E+0	1.021634E+0	1.008502E+0	1.015121E+0	9.534328E-1	9.548304E-1
5.575420E+2	1.010713E+0	9.595762E-1	9.743935E-1	9.787982E-1	1.025101E+0	9.747187E-1	1.037246E+0	9.880808E-1	1.022187E+0	1.006139E+0	9.876657E-1	1.007070E+0	1.019900E+0	1.023264E+0	1.015832E+0	9.985946E-1	9.877022E-1	9.799923E-1	9.919289E-1	1.010368E+0	1.027888E+0	9.796813E-1	1.025096E+0	9.768044E-1	9.805528E-1	1.029236E+0	9.886438E-1	9.775675E-1	1.002093E+0	9.839788E-1	9.908570E-1	9.815563E-1	9.850703E-1	1.009113E+0	9.714624E-1	1.007972E+0	9.863733E-1	9.990018E-1	1.016105E+0	9.877982E-1	1.024823E+0	9.685005E-1	1.007374E+0	9.998539E-1	1.013690E+0	9.683548E-1	1.018076E+0	1.016181E+0	9.686378E-1	1.007173E+0	9.792281E-1	9.824846E-1	9.738226E-1	9.715246E-1	9.974593E-1	1.028786E+0	1.007171E+0	1.036173E+0	9.836176E-1	1.007694E+0	9.919913E-1	1.010575E+0	1.006217E+0	1.008483E+0	1.024901E+0	1.012469E+0	1.020016E+0	1.024892E+0	1.002615E+0	1.001003E+0	1.011301E+0	1.022015E+0	9.931267E-1	9.760540E-1	9.793062E-1	1.015930E+0	9.719065E-1	9.988291E-1	1.001745E+0	1.020460E+0	1.013079E+0	1.023685E+0	9.879948E-1	9.944970E-1	9.552698E-1	1.007028E+0	9.946457E-1	1.017758E+0	9.671538E-1	1.018289E+0	9.935368E-1	9.830743E-1	9.819925E-1	1.021216E+0	9.800856E-1	1.000513E+0	1.020195E+0	1.044055E+0	9.814000E-1	9.714301E-1	9.842312E-1	1.022909E+0	1.026626E+0	1.054523E+0	9.700453E-1	1.035690E+0	9.607081E-1	9.943345E-1	9.674938E-1	1.025157E+0	1.027686E+0	9.862879E-1	1.002675E+0	1.007910E+0	1.013641E+0	1.000414E+0	9.725441E-1	1.010451E+0	1.003670E+0	1.008561E+0	1.001582E+0	1.015101E+0	1.037953E+0	1.027631E+0	9.857430E-1	9.999921E-1	9.759534E-1	9.857828E-1	9.829179E-1	9.910440E-1	1.026116E+0	9.759214E-1	9.692441E-1	9.789779E-1	1.036772E+0	9.998017E-1	1.006486E+0	1.007589E+0	9.969362E-1	1.009174E+0	9.818210E-1	9.942169E-1	9.781008E-1	9.925532E-1	9.937946E-1	9.891228E-1	9.820692E-1	1.004117E+0	1.019805E+0	9.903457E-1	1.067149E+0	9.945847E-1	1.043294E+0	1.003978E+0	9.981430E-1	1.018217E+0	1.013429E+0	9.914911E-1	1.003267E+0	1.004013E+0	9.725843E-1	9.834554E-1	9.701533E-1	9.958679E-1	9.843184E-1	1.036181E+0	1.008435E+0	1.009563E+0	1.070830E+0	1.061627E+0	1.078440E+0
5.580060E+2	1.007104E+0	1.012633E+0	9.826166E-1	1.013138E+0	9.886601E-1	9.920419E-1	1.008312E+0	1.013599E+0	9.596890E-1	9.849878E-1	9.781458E-1	1.006990E+0	9.984770E-1	9.957242E-1	9.707554E-1	9.940402E-1	1.004807E+0	9.915711E-1	1.016846E+0	9.814283E-1	1.003694E+0	1.030531E+0	9.838505E-1	1.002597E+0	1.005094E+0	9.853466E-1	1.029779E+0	9.850198E-1	1.021265E+0	9.529226E-1	9.903749E-1	1.006524E+0	9.855249E-1	1.009040E+0	1.029707E+0	1.036378E+0	1.068191E+0	1.003684E+0	1.024911E+0	9.828239E-1	1.010560E+0	9.940963E-1	1.073651E+0	9.476539E-1	9.884911E-1	1.005716E+0	9.973324E-1	9.701965E-1	9.933478E-1	9.473920E-1	1.003188E+0	1.013137E+0	1.007516E+0	1.031194E+0	9.908340E-1	1.008941E+0	9.811967E-1	9.805545E-1	1.006375E+0	1.018095E+0	1.023710E+0	9.690096E-1	1.023022E+0	9.876546E-1	1.017893E+0	1.011999E+0	9.973329E-1	1.004698E+0	1.002948E+0	9.777328E-1	9.916388E-1	1.015647E+0	9.970967E-1	9.999232E-1	1.015567E+0	1.008336E+0	1.024514E+0	1.025774E+0	9.716222E-1	1.004248E+0	9.968518E-1	1.000911E+0	1.022356E+0	9.881870E-1	1.011818E+0	1.009933E+0	1.021112E+0	9.678640E-1	9.736046E-1	1.018051E+0	1.002506E+0	9.674460E-1	9.758599E-1	1.034890E+0	9.912138E-1	9.874353E-1	1.038896E+0	9.911660E-1	9.660023E-1	9.945287E-1	1.015984E+0	1.008967E+0	9.880394E-1	9.899114E-1	1.020109E+0	1.016073E+0	1.047121E+0	1.000751E+0	9.601708E-1	9.986825E-1	1.004435E+0	9.933346E-1	1.006109E+0	1.047071E+0	1.018821E+0	9.840079E-1	1.028353E+0	9.768741E-1	1.011724E+0	9.786734E-1	1.042342E+0	1.019965E+0	9.597112E-1	9.535824E-1	9.858779E-1	1.007627E+0	1.040441E+0	9.682308E-1	1.067477E+0	1.020959E+0	1.009807E+0	9.804589E-1	9.685530E-1	9.676444E-1	1.012509E+0	9.885153E-1	1.012908E+0	9.909833E-1	1.034392E+0	9.749769E-1	9.700031E-1	1.048402E+0	1.032901E+0	1.034139E+0	1.002209E+0	9.507027E-1	9.973690E-1	9.846830E-1	9.807953E-1	9.961587E-1	9.919291E-1	1.007385E+0	9.966232E-1	1.028992E+0	1.003123E+0	1.023480E+0	9.996438E-1	1.025280E+0	9.861199E-1	9.586164E-1	1.025084E+0	9.928679E-1	1.042701E+0	9.736623E-1	1.038799E+0	1.009167E+0	1.018520E+0	1.020277E+0	9.876109E-1	9.869614E-1	9.917189E-1
5.585160E+2	1.013153E+0	1.078116E+0	1.008893E+0	1.007283E+0	9.969263E-1	9.852666E-1	9.807798E-1	1.010416E+0	9.997351E-1	1.033744E+0	9.839955E-1	1.010046E+0	9.940678E-1	9.601466E-1	1.049077E+0	9.889347E-1	1.012692E+0	1.033325E+0	9.970147E-1	9.966836E-1	1.006329E+0	1.016715E+0	1.003312E+0	9.770763E-1	1.017339E+0	9.881357E-1	1.011575E+0	1.010033E+0	1.037587E+0	1.002309E+0	1.000713E+0	9.807479E-1	1.015517E+0	9.804607E-1	1.075160E+0	1.046632E+0	9.810397E-1	9.975747E-1	1.018710E+0	9.800192E-1	1.000807E+0	1.036434E+0	9.888067E-1	9.896653E-1	1.062145E+0	1.058267E+0	9.981157E-1	1.010171E+0	1.006296E+0	9.776382E-1	1.007965E+0	9.972180E-1	1.004829E+0	9.982345E-1	9.801489E-1	1.024015E+0	9.682915E-1	1.017239E+0	1.018093E+0	9.516833E-1	1.019563E+0	9.898682E-1	1.011714E+0	1.029759E+0	1.014575E+0	1.041977E+0	1.040184E+0	9.856247E-1	1.022996E+0	1.013629E+0	1.026588E+0	9.992537E-1	1.009605E+0	9.818315E-1	1.054774E+0	1.043817E+0	9.814104E-1	9.703950E-1	1.017951E+0	9.861665E-1	1.010862E+0	1.028433E+0	1.020370E+0	9.852586E-1	9.983354E-1	1.035663E+0	9.741240E-1	9.773823E-1	1.007677E+0	9.858049E-1	1.020638E+0	1.016439E+0	1.005905E+0	9.861805E-1	9.946543E-1	1.052470E+0	9.391733E-1	9.633442E-1	1.039794E+0	1.026951E+0	1.010046E+0	1.000044E+0	1.027651E+0	1.010095E+0	1.005875E+0	9.984319E-1	9.838780E-1	1.031966E+0	1.041823E+0	9.799052E-1	1.017077E+0	1.008057E+0	9.980105E-1	9.802162E-1	1.006719E+0	9.870193E-1	1.031769E+0	9.643073E-1	9.845201E-1	1.039486E+0	1.027048E+0	1.018582E+0	1.038884E+0	1.000615E+0	1.024716E+0	1.030409E+0	9.920160E-1	1.033037E+0	9.877939E-1	9.814937E-1	9.993701E-1	1.001213E+0	9.824975E-1	1.028703E+0	9.610554E-1	9.863799E-1	1.047992E+0	1.018670E+0	9.563038E-1	9.881501E-1	1.044380E+0	1.013266E+0	1.059847E+0	9.936011E-1	1.037362E+0	1.031740E+0	1.034805E+0	9.937888E-1	1.034611E+0	9.951685E-1	1.004145E+0	9.909792E-1	1.024184E+0	1.011586E+0	1.025989E+0	1.017289E+0	9.791492E-1	9.847916E-1	1.010990E+0	9.900735E-1	1.005511E+0	9.998832E-1	9.851666E-1	1.017537E+0	1.010315E+0	9.719112E-1	1.013647E+0	9.742477E-1	9.926425E-1	1.015372E+0	9.561950E-1
5.590160E+2	1.005025E+0	9.823605E-1	1.047410E+0	1.003582E+0	9.909540E-1	1.048723E+0	1.028335E+0	1.052486E+0	1.047777E+0	1.016316E+0	1.022159E+0	1.009883E+0	1.010836E+0	1.027355E+0	1.039299E+0	1.028634E+0	1.069643E+0	9.756764E-1	1.028919E+0	1.027485E+0	1.037982E+0	9.983397E-1	1.042413E+0	1.011214E+0	1.034996E+0	1.016354E+0	1.014603E+0	1.014778E+0	1.033539E+0	9.925711E-1	1.038815E+0	1.034482E+0	1.024485E+0	1.030785E+0	1.026145E+0	9.833795E-1	1.019366E+0	1.051275E+0	9.989809E-1	9.924478E-1	9.911137E-1	1.018976E+0	1.023589E+0	1.007997E+0	1.015457E+0	1.060968E+0	9.998389E-1	1.037380E+0	1.053255E+0	1.040715E+0	9.835681E-1	1.056512E+0	1.033231E+0	1.011633E+0	1.041442E+0	9.733369E-1	1.028665E+0	1.069565E+0	1.040399E+0	1.007466E+0	9.955760E-1	1.018051E+0	1.051989E+0	1.011407E+0	1.008426E+0	1.051565E+0	9.839122E-1	1.016136E+0	1.036522E+0	9.911267E-1	9.786298E-1	1.029916E+0	1.062418E+0	1.022862E+0	1.038971E+0	1.027398E+0	1.061522E+0	9.967023E-1	1.013379E+0	1.065221E+0	1.036022E+0	1.039870E+0	1.033593E+0	9.907719E-1	1.015265E+0	1.031632E+0	1.047050E+0	1.051691E+0	1.022172E+0	1.021148E+0	1.023875E+0	1.056359E+0	9.745060E-1	1.013854E+0	1.003872E+0	1.018934E+0	1.015523E+0	1.013945E+0	9.661066E-1	1.053221E+0	9.983071E-1	9.964132E-1	1.016038E+0	1.011224E+0	1.019542E+0	1.003607E+0	9.439323E-1	9.905456E-1	1.009993E+0	9.879845E-1	1.019120E+0	1.015654E+0	9.744522E-1	1.046627E+0	1.018454E+0	1.017548E+0	1.027830E+0	1.016992E+0	1.033019E+0	9.915446E-1	1.017434E+0	1.003810E+0	1.048861E+0	1.046867E+0	1.054573E+0	1.014114E+0	1.026131E+0	1.036954E+0	9.610084E-1	1.045081E+0	1.003644E+0	1.047124E+0	1.077406E+0	1.022689E+0	1.025729E+0	1.010857E+0	9.848502E-1	1.009316E+0	1.026479E+0	1.085770E+0	9.986515E-1	1.027038E+0	1.015331E+0	9.974954E-1	1.009394E+0	1.007798E+0	1.021277E+0	9.580687E-1	1.007314E+0	1.050211E+0	9.809785E-1	1.032608E+0	1.004290E+0	1.019655E+0	1.032136E+0	1.018047E+0	1.015908E+0	9.681182E-1	1.030537E+0	1.003172E+0	1.052316E+0	9.973499E-1	1.072672E+0	1.012678E+0	1.002771E+0	9.993606E-1	1.023441E+0	1.004504E+0	1.012627E+0	1.018027E+0	1.006058E+0
5.595110E+2	1.027972E+0	1.024152E+0	1.073454E+0	1.033713E+0	1.023027E+0	1.018441E+0	9.802877E-1	9.946493E-1	1.029311E+0	1.024985E+0	1.009783E+0	1.062605E+0	1.029373E+0	1.025412E+0	9.803889E-1	9.901764E-1	1.021436E+0	1.045026E+0	1.059078E+0	9.872675E-1	1.034981E+0	1.006151E+0	1.012544E+0	1.010629E+0	1.026921E+0	1.032806E+0	9.813401E-1	9.992819E-1	1.024495E+0	1.069005E+0	9.848467E-1	1.000574E+0	1.053090E+0	1.013253E+0	1.009546E+0	1.009756E+0	1.011471E+0	1.032246E+0	1.021930E+0	1.078703E+0	9.900136E-1	1.028206E+0	1.008088E+0	1.081267E+0	9.886182E-1	9.959705E-1	1.052870E+0	1.020298E+0	1.033941E+0	9.955313E-1	9.866310E-1	1.011150E+0	1.045923E+0	1.016355E+0	1.020198E+0	1.008503E+0	1.016484E+0	9.954108E-1	9.730507E-1	9.970546E-1	1.027431E+0	1.018619E+0	9.989327E-1	1.000158E+0	1.009831E+0	1.004649E+0	9.800818E-1	1.100916E+0	9.917739E-1	1.032709E+0	9.961058E-1	1.036710E+0	9.919930E-1	1.028964E+0	1.011592E+0	1.032308E+0	1.031122E+0	1.028956E+0	1.005442E+0	9.739287E-1	1.007637E+0	9.962582E-1	1.024832E+0	1.001964E+0	1.010920E+0	9.869863E-1	9.868301E-1	1.013570E+0	1.022776E+0	1.034640E+0	1.000214E+0	9.744796E-1	1.051075E+0	9.928102E-1	1.065046E+0	1.011464E+0	1.031203E+0	1.025509E+0	1.020793E+0	1.052056E+0	1.058958E+0	1.018428E+0	1.016636E+0	1.029708E+0	9.792351E-1	1.005536E+0	1.036765E+0	1.008218E+0	1.022617E+0	1.039958E+0	9.570864E-1	9.977504E-1	1.054418E+0	1.005824E+0	9.960098E-1	1.035771E+0	1.024317E+0	1.076817E+0	1.000454E+0	1.017370E+0	1.052374E+0	1.023363E+0	9.935731E-1	1.075748E+0	9.912302E-1	9.975938E-1	1.024158E+0	9.958571E-1	1.053514E+0	1.051627E+0	1.047698E+0	1.004879E+0	1.032721E+0	1.037605E+0	1.005364E+0	1.025373E+0	1.051729E+0	9.948752E-1	1.025336E+0	9.959825E-1	1.042364E+0	9.628728E-1	9.883745E-1	9.933628E-1	1.019525E+0	9.965989E-1	1.000810E+0	1.027505E+0	1.007048E+0	9.906071E-1	1.032750E+0	1.020763E+0	9.864640E-1	9.924874E-1	9.892474E-1	1.026752E+0	1.027698E+0	1.021262E+0	1.023477E+0	1.004166E+0	9.865732E-1	1.014251E+0	1.008681E+0	9.730190E-1	1.033656E+0	9.947387E-1	1.036166E+0	1.009347E+0	1.013554E+0	1.011128E+0	1.024755E+0
5.600520E+2	9.994845E-1	1.000218E+0	9.954431E-1	9.080971E-1	1.033009E+0	1.021429E+0	9.718182E-1	9.400233E-1	1.004656E+0	9.841386E-1	1.002174E+0	1.008481E+0	1.013138E+0	1.006443E+0	1.024799E+0	9.910034E-1	9.931361E-1	1.034001E+0	9.726341E-1	1.001690E+0	1.002385E+0	1.029020E+0	9.544617E-1	1.030154E+0	1.028518E+0	9.750941E-1	1.013326E+0	1.021106E+0	9.597907E-1	1.010945E+0	9.832189E-1	1.006900E+0	9.938168E-1	9.824972E-1	1.023979E+0	9.737078E-1	1.005204E+0	9.645764E-1	9.894082E-1	1.010630E+0	1.028104E+0	9.756937E-1	1.009058E+0	1.033593E+0	9.983370E-1	9.736867E-1	1.010185E+0	9.868144E-1	9.939156E-1	9.884976E-1	9.893390E-1	1.036725E+0	1.011657E+0	1.025105E+0	9.859440E-1	9.887888E-1	1.049652E+0	9.925321E-1	9.770631E-1	9.950212E-1	9.807633E-1	9.823178E-1	9.965888E-1	9.831625E-1	1.015316E+0	9.704154E-1	1.005374E+0	1.032700E+0	9.903175E-1	1.023963E+0	9.955607E-1	1.012803E+0	1.039033E+0	9.396894E-1	9.771445E-1	1.003892E+0	9.499471E-1	9.798498E-1	9.895859E-1	9.920834E-1	9.829975E-1	9.804104E-1	9.917280E-1	1.025055E+0	1.048056E+0	9.916175E-1	9.514862E-1	9.917491E-1	1.069665E+0	9.987748E-1	1.004375E+0	9.798243E-1	9.299506E-1	9.831354E-1	9.988206E-1	9.622619E-1	1.000317E+0	9.732370E-1	9.609845E-1	9.961215E-1	9.774515E-1	9.775890E-1	9.766053E-1	1.021554E+0	9.726642E-1	1.017100E+0	1.008547E+0	9.912339E-1	1.024918E+0	1.013722E+0	1.037413E+0	9.839931E-1	1.029110E+0	1.035323E+0	1.017667E+0	1.023900E+0	9.795069E-1	9.584670E-1	1.023919E+0	9.862769E-1	9.784821E-1	9.765847E-1	1.024830E+0	9.978467E-1	9.650243E-1	9.891836E-1	9.995252E-1	1.000305E+0	9.911545E-1	9.726189E-1	9.789718E-1	9.862696E-1	9.746930E-1	1.031054E+0	9.915606E-1	1.001496E+0	9.868613E-1	9.969392E-1	1.019430E+0	9.903967E-1	1.023512E+0	9.806528E-1	1.008779E+0	9.863380E-1	9.911357E-1	9.988312E-1	1.021490E+0	9.984054E-1	9.885601E-1	9.999011E-1	1.000399E+0	1.005639E+0	9.940022E-1	9.978208E-1	1.015683E+0	9.915843E-1	9.864335E-1	1.000625E+0	1.001416E+0	9.980364E-1	1.017533E+0	9.865553E-1	9.799617E-1	1.003473E+0	9.931217E-1	9.716598E-1	9.643923E-1	9.926400E-1	1.018858E+0	9.409524E-1	9.759089E-1
5.605090E+2	9.704976E-1	9.903546E-1	9.616897E-1	1.051542E+0	9.570946E-1	1.009982E+0	1.028959E+0	9.955959E-1	1.004603E+0	1.020279E+0	9.946040E-1	9.842815E-1	9.954696E-1	1.003307E+0	9.895731E-1	1.018136E+0	9.602734E-1	1.002764E+0	1.037533E+0	9.876495E-1	9.554009E-1	9.849627E-1	9.481311E-1	1.005109E+0	9.770530E-1	1.037374E+0	1.010759E+0	1.005637E+0	9.812424E-1	9.886459E-1	1.012828E+0	9.659270E-1	1.052934E+0	9.977132E-1	1.004466E+0	1.012992E+0	9.643808E-1	9.846007E-1	9.648629E-1	1.042549E+0	9.806299E-1	1.004284E+0	9.848637E-1	9.797361E-1	9.668536E-1	9.994617E-1	1.010044E+0	9.809246E-1	1.002651E+0	1.009394E+0	1.028868E+0	9.866515E-1	1.016105E+0	9.822826E-1	1.023937E+0	1.018773E+0	9.994037E-1	9.797399E-1	9.895198E-1	9.895010E-1	9.916459E-1	1.040712E+0	9.434884E-1	9.661183E-1	1.020186E+0	9.993646E-1	9.884361E-1	9.718145E-1	1.032520E+0	9.688973E-1	9.787859E-1	9.715229E-1	9.698260E-1	1.003520E+0	1.005218E+0	9.770194E-1	9.924766E-1	1.024272E+0	1.003959E+0	9.358727E-1	9.918364E-1	1.014591E+0	1.015268E+0	9.604664E-1	1.008919E+0	1.015725E+0	9.892200E-1	9.995799E-1	9.853010E-1	9.951322E-1	9.944616E-1	9.927985E-1	1.047613E+0	1.015493E+0	1.011617E+0	9.534406E-1	1.061585E+0	1.005132E+0	9.677254E-1	9.541837E-1	1.006488E+0	9.924207E-1	9.944148E-1	9.953242E-1	9.771792E-1	1.008436E+0	1.017520E+0	9.851784E-1	1.011603E+0	1.002152E+0	9.631023E-1	1.010017E+0	9.451779E-1	9.723534E-1	9.706679E-1	1.043516E+0	9.961185E-1	9.604744E-1	1.016738E+0	9.837718E-1	9.337101E-1	9.573026E-1	9.550154E-1	9.694551E-1	1.021614E+0	9.466095E-1	9.428236E-1	9.572886E-1	9.883796E-1	1.009076E+0	1.005282E+0	9.997476E-1	1.002210E+0	9.842701E-1	1.003439E+0	9.990715E-1	9.704167E-1	1.015670E+0	1.003995E+0	9.597737E-1	9.756086E-1	1.014144E+0	1.014598E+0	1.005343E+0	1.002497E+0	9.988642E-1	9.835532E-1	1.005736E+0	9.863372E-1	1.030441E+0	1.013480E+0	1.012416E+0	9.853749E-1	9.940692E-1	9.488212E-1	1.008061E+0	9.883027E-1	9.853118E-1	9.913498E-1	9.827677E-1	9.635917E-1	9.769089E-1	9.843870E-1	9.915454E-1	9.780651E-1	1.016879E+0	9.852031E-1	9.885014E-1	9.907349E-1	9.867729E-1	9.281526E-1
5.610010E+2	9.466940E-1	9.844804E-1	9.492578E-1	9.935646E-1	9.875937E-1	9.883228E-1	1.025032E+0	1.003082E+0	1.013991E+0	9.716880E-1	9.997600E-1	9.740542E-1	9.724060E-1	9.891598E-1	9.775080E-1	9.891734E-1	9.345214E-1	9.834088E-1	9.885171E-1	9.724798E-1	9.846151E-1	9.645961E-1	9.924573E-1	9.714994E-1	1.011918E+0	9.784541E-1	9.813629E-1	9.711411E-1	9.584908E-1	1.019300E+0	1.018875E+0	1.012962E+0	9.758218E-1	9.855082E-1	9.863609E-1	9.550169E-1	9.600830E-1	9.630555E-1	9.990952E-1	9.471300E-1	1.010808E+0	9.656602E-1	9.688054E-1	1.043776E+0	9.814856E-1	9.657297E-1	9.490170E-1	9.723605E-1	9.561683E-1	9.976065E-1	1.015909E+0	9.688896E-1	9.683697E-1	1.017082E+0	9.773593E-1	9.716609E-1	9.501284E-1	9.683987E-1	9.891888E-1	9.686732E-1	9.953753E-1	9.921628E-1	9.895835E-1	9.885725E-1	9.414431E-1	1.017127E+0	9.839552E-1	9.431144E-1	9.637402E-1	1.013827E+0	1.013932E+0	9.478315E-1	9.454424E-1	1.014275E+0	9.515736E-1	9.734519E-1	9.710061E-1	9.751128E-1	9.541259E-1	1.011846E+0	9.733264E-1	1.001961E+0	9.587887E-1	9.727265E-1	9.672008E-1	9.671124E-1	1.016168E+0	9.798959E-1	9.744600E-1	9.712860E-1	9.494686E-1	9.972622E-1	1.018049E+0	9.765565E-1	9.699079E-1	9.833118E-1	9.752418E-1	9.950550E-1	1.005355E+0	9.664612E-1	9.823377E-1	1.006750E+0	9.755984E-1	9.371824E-1	9.748064E-1	9.896768E-1	1.012420E+0	1.024702E+0	1.004767E+0	9.916499E-1	9.989727E-1	9.980057E-1	9.952205E-1	9.547178E-1	9.884193E-1	9.792262E-1	1.008206E+0	1.027609E+0	9.513638E-1	9.862706E-1	9.873002E-1	1.003084E+0	9.841684E-1	9.753489E-1	9.711970E-1	9.945161E-1	9.980958E-1	9.638613E-1	1.002493E+0	1.009694E+0	1.011069E+0	1.043940E+0	1.042521E+0	9.879470E-1	9.798062E-1	9.604009E-1	9.823021E-1	1.022574E+0	9.990609E-1	9.846219E-1	1.002820E+0	9.513237E-1	9.616701E-1	1.002914E+0	9.740269E-1	1.000237E+0	9.939121E-1	9.704195E-1	9.857623E-1	9.649483E-1	9.624684E-1	9.815622E-1	1.006625E+0	1.009899E+0	9.659452E-1	1.005299E+0	9.779945E-1	9.979518E-1	9.770952E-1	9.931759E-1	9.995050E-1	9.743006E-1	9.690536E-1	9.704316E-1	1.005058E+0	9.891034E-1	9.944422E-1	9.901595E-1	9.766268E-1	9.957165E-1	1.051710E+0
