Photon Energy (eV)	#1	#2	#3	#4	#5	#6	#7	#8	#9	#10	#11	#12	#13	#14	#15	#16	#17	#18	#19	#20	#21	#22	#23	#24	#25	#26	#27	#28	#29	#30	#31	#32	#33	#34	#35	#36	#37	#38	#39	#40	#41	#42	#43	#44	#45	#46	#47	#48	#49	#50	#51	#52	#53	#54	#55	#56	#57	#58	#59	#60	#61	#62	#63	#64	#65	#66	#67	#68	#69	#70	#71	#72	#73	#74	#75	#76	#77	#78	#79	#80	#81	#82	#83	#84	#85	#86	#87	#88	#89	#90	#91	#92	#93	#94	#95	#96	#97	#98	#99	#100	#101	#102	#103	#104	#105	#106	#107	#108	#109	#110	#111	#112	#113	#114	#115	#116	#117	#118	#119	#120	#121	#122	#123	#124	#125	#126	#127	#128	#129	#130	#131	#132	#133	#134	#135	#136	#137	#138	#139	#140	#141	#142	#143	#144	#145	#146	#147	#148	#149	#150	#151	#152	#153	#154	#155	#156	#157	#158	#159	#160	#161	#162	#163	#164	#165	#166	#167	#168	#169	#170	#171	
5.300160E+2	-4.262500E-3	-6.441529E-3	-1.608231E-2	-6.830269E-3	-4.348937E-3	-4.696859E-3	-3.224418E-3	-2.593541E-3	-3.230970E-3	-7.396444E-3	-3.455521E-3	2.705082E-4	-6.571178E-3	-3.052154E-3	3.341709E-3	-6.067774E-3	2.924152E-3	-5.877762E-3	-5.975209E-3	-4.321163E-3	-3.432949E-3	-1.348619E-2	-9.955616E-3	-2.274462E-3	-3.659420E-3	-9.938249E-3	6.557855E-4	-6.081513E-3	3.310123E-3	-7.160591E-4	-4.675717E-3	-7.891062E-3	-1.674123E-2	-9.861481E-3	-9.423115E-3	9.013256E-5	-8.095959E-3	-9.828731E-3	-1.750188E-2	-3.065222E-4	7.047393E-3	-1.147717E-2	-8.524145E-3	-4.546879E-3	-2.911332E-3	-1.222351E-2	-5.232160E-3	-9.815311E-3	-1.215835E-2	-1.003998E-2	-3.702064E-3	-1.167594E-2	4.346490E-3	-8.602872E-3	-1.574453E-2	4.250587E-3	-1.350154E-3	-7.657538E-3	-3.394173E-3	-1.046974E-2	-8.140211E-3	-7.389420E-3	7.572310E-3	-3.170963E-3	-6.959021E-3	-2.875502E-3	-2.092319E-3	-2.791734E-3	-4.418012E-3	8.623828E-5	-4.327405E-3	-1.982564E-3	-9.745799E-3	-1.621499E-2	-1.238773E-2	3.190678E-3	-7.636428E-3	-6.251316E-3	-8.366792E-3	-1.084935E-2	-4.270584E-3	-3.461709E-3	-5.764436E-3	7.808901E-4	-4.443844E-3	-5.206107E-3	-9.130463E-3	-8.373226E-3	-1.281000E-2	-4.506775E-3	-4.946065E-3	-8.958171E-3	-3.775096E-3	-7.947455E-3	-6.884529E-3	-1.148521E-2	4.440414E-3	-7.116516E-3	-1.109698E-3	-4.591688E-3	-8.008936E-3	-1.321586E-2	-5.468562E-3	-4.367936E-3	-7.776632E-3	-2.746102E-3	-8.526209E-3	-4.058745E-3	-7.101690E-3	-8.439096E-3	1.114104E-3	-1.031848E-2	-1.230482E-2	-7.119504E-3	-1.250896E-2	-7.322438E-3	-1.125637E-2	-2.710200E-3	-1.440119E-2	-1.011675E-2	-1.052085E-2	-1.315961E-2	-1.378636E-2	-5.698203E-3	-2.193258E-3	-1.169915E-3	-5.495100E-3	-1.139408E-2	-1.024681E-4	-1.136395E-2	-5.024893E-3	-1.402573E-2	-8.408595E-3	-6.748626E-3	-1.543611E-2	-7.783348E-3	1.759794E-3	-7.145899E-3	-8.855371E-3	-9.398634E-3	-8.470181E-3	-3.577458E-3	-3.622154E-4	-9.787265E-3	-1.070869E-2	-2.239637E-3	-2.296231E-3	-3.706710E-3	5.075408E-3	2.589814E-3	-1.142187E-2	-2.917232E-3	-7.154716E-3	-8.389265E-3	-4.363601E-3	-4.906620E-3	-1.559319E-2	-3.380716E-3	-7.650748E-3	-6.864242E-3	-2.828353E-3	-1.961299E-2	2.266757E-3	-1.502297E-2	-6.740201E-3	-8.084138E-3	-1.866563E-2	-5.229712E-3	-7.812172E-3	-9.570014E-3	-2.183136E-2
5.305130E+2	-7.271320E-3	-4.601083E-3	-1.936446E-2	-1.061317E-2	-7.752455E-3	1.054381E-3	-6.069528E-3	-5.024990E-3	-4.338740E-3	-2.958602E-3	2.879597E-3	-1.109062E-2	-2.724606E-3	-2.570279E-3	-4.585137E-3	4.092189E-3	-7.360702E-3	-4.053636E-3	-8.776077E-3	-2.204663E-3	-3.432903E-3	2.590088E-3	-1.284580E-3	-1.327960E-2	-7.704171E-3	4.056658E-4	9.367678E-5	-3.398444E-3	3.309872E-4	-5.012191E-3	-3.249174E-3	1.496578E-3	3.832309E-3	-5.591570E-3	1.319210E-3	-6.398300E-3	-8.647927E-3	-5.460410E-3	-1.178344E-2	-9.962238E-3	-4.380801E-3	-1.255323E-3	-4.409072E-3	-2.841793E-3	-1.164520E-2	8.918656E-5	-4.749190E-3	-8.534935E-4	-7.451938E-3	-1.003995E-2	3.896893E-3	9.121288E-4	-1.789742E-3	-8.091812E-3	-8.085055E-3	-1.889140E-3	-7.581683E-3	3.254460E-3	-8.630941E-3	-4.926980E-3	-6.061869E-3	-1.191830E-3	-4.027837E-3	-2.683085E-3	-1.187130E-2	-1.150206E-2	-9.510612E-3	-1.595298E-3	-1.396096E-2	-1.285013E-2	-3.818273E-3	-2.934197E-3	-8.540144E-3	-2.735060E-3	-6.049815E-3	1.501484E-3	1.115450E-3	-3.328621E-3	-8.601354E-4	3.100038E-4	3.527843E-3	-3.461722E-3	-6.845263E-3	-8.003875E-3	-1.206189E-2	-9.441606E-3	-7.594507E-3	-9.398464E-3	-2.100004E-3	-2.385970E-3	2.473012E-3	-3.461111E-3	-8.112529E-3	-1.685860E-3	-4.425800E-3	-3.461323E-3	-6.216556E-3	-8.920668E-3	-6.557395E-3	-5.739900E-4	-8.008895E-3	-2.850464E-3	-6.562267E-3	6.719858E-4	-3.978766E-3	-1.126846E-2	-2.342331E-3	-6.607259E-4	2.630155E-4	1.114587E-3	3.899299E-3	4.913717E-4	1.176973E-3	-1.161598E-2	-4.309798E-3	-4.313238E-3	-9.095140E-3	-1.005397E-2	3.190649E-3	-4.972614E-3	3.506974E-3	9.664108E-3	-1.888546E-3	-6.919257E-3	-2.193236E-3	3.342623E-4	-5.495073E-3	-3.580971E-3	-1.055103E-2	-2.622426E-3	2.009922E-3	-8.561147E-3	-1.208733E-2	-9.448078E-3	-8.936668E-3	-1.245344E-2	2.346400E-3	-1.012342E-2	-6.887494E-3	-2.422352E-3	-3.094875E-3	2.412708E-3	-3.622184E-3	-1.331077E-3	-1.016879E-2	-7.278818E-3	-9.186337E-5	-1.091975E-2	-6.143905E-3	-5.179622E-3	1.736128E-3	-4.862112E-3	-1.228047E-2	-4.566262E-3	-5.581351E-3	-8.439327E-3	-5.136598E-3	-2.873595E-3	-8.659619E-3	-2.503410E-3	-4.085370E-3	3.183242E-3	-1.724709E-2	-6.720795E-3	-5.616842E-3	-1.010502E-3	-1.217326E-2	3.076100E-4	-9.650325E-3	1.425343E-3	-1.053932E-2
5.310150E+2	-6.268373E-3	-3.067503E-4	1.641083E-3	-4.308352E-3	2.458080E-3	1.629533E-3	-3.224390E-3	-2.107236E-3	-1.015452E-3	-5.177518E-3	-2.303667E-3	-3.516532E-3	-3.205435E-3	-1.124438E-3	-6.450250E-3	-7.761098E-3	3.529076E-3	6.283163E-3	-5.975209E-3	-1.225799E-2	-4.186723E-4	3.125948E-3	-2.248089E-3	-5.355886E-3	-2.503880E-3	4.056436E-3	-1.114812E-2	8.943150E-4	-1.307491E-2	-2.864128E-3	-3.962440E-4	3.537376E-3	-3.428934E-3	-1.016618E-4	3.580787E-3	3.875047E-3	2.943993E-3	-4.914334E-3	1.732989E-4	5.211020E-3	-1.009486E-2	-2.869277E-3	8.818251E-4	2.773587E-8	-3.457177E-3	-4.193460E-3	-4.266205E-3	-4.267538E-3	-8.040224E-3	-1.179453E-2	-7.793830E-3	3.648913E-4	-2.301101E-3	4.173674E-3	-2.978728E-3	-9.918003E-3	1.765595E-3	-1.569790E-2	-4.557919E-3	6.158693E-3	-8.659813E-4	1.668616E-3	-7.894516E-3	2.195273E-3	1.637407E-3	5.751200E-4	1.331490E-3	2.592346E-3	8.835984E-4	-4.312419E-4	-1.094579E-2	1.348150E-3	2.310845E-3	-3.907265E-4	-6.625958E-3	9.947268E-3	-5.062365E-3	-8.930392E-4	6.646527E-3	-5.269654E-3	-8.726768E-3	-3.994263E-3	2.882205E-3	-1.561728E-3	7.527331E-3	2.205975E-3	5.205192E-3	-1.196198E-3	-3.360026E-3	-7.688052E-3	-6.087429E-3	-5.904241E-3	-5.220919E-3	-5.057467E-3	-2.458734E-3	-1.573323E-3	-2.664216E-3	-5.011727E-4	-7.162707E-3	-6.887541E-3	-5.215144E-3	-3.368738E-3	-5.468208E-4	-1.847995E-3	5.787294E-3	-2.746095E-3	1.002530E-2	-3.492361E-3	3.945386E-3	-7.961423E-3	-1.671122E-3	-4.913597E-4	-1.294681E-2	-4.871254E-3	-5.571229E-3	-6.720603E-3	-4.232385E-3	4.633560E-3	2.673287E-3	-1.371764E-3	-2.869336E-3	-6.374210E-3	-3.021627E-3	-1.546659E-2	-2.193224E-3	-3.175434E-3	2.150248E-3	-3.581004E-3	-5.634018E-3	-6.119056E-3	-3.517422E-3	-9.107729E-4	-3.678752E-3	-3.509265E-3	-7.311853E-3	-9.340056E-3	-3.519611E-3	1.786462E-3	-3.607742E-3	7.460774E-3	3.257754E-4	-6.073381E-3	5.071059E-3	-3.210208E-3	-8.548946E-3	-7.278896E-3	-8.358292E-3	-1.001620E-4	-8.280927E-3	-9.619247E-3	-3.746369E-3	-1.458617E-3	1.174690E-3	1.518559E-2	2.334022E-3	-1.962641E-3	1.467598E-3	-6.423360E-3	-2.101831E-3	-5.895162E-3	-7.856496E-3	-5.134146E-4	-2.463851E-3	3.953405E-4	-5.055126E-3	-9.094682E-3	-7.303899E-3	1.538154E-3	-4.595122E-4	-7.126624E-3	-1.053928E-2
5.315130E+2	5.265415E-3	5.828065E-3	5.579560E-3	-5.254056E-4	-4.348961E-3	-1.246119E-3	-9.483482E-4	-3.566100E-3	7.846618E-3	-1.294354E-3	4.031412E-3	2.704950E-4	-2.724659E-3	-4.016002E-3	1.010275E-3	6.632219E-3	-4.335753E-3	-5.269748E-3	4.107952E-3	2.557427E-3	2.595626E-3	-3.840448E-3	5.459559E-3	4.768916E-3	-4.815108E-3	-2.028214E-3	6.557615E-4	-1.788551E-4	2.813568E-3	-6.623256E-3	2.932197E-3	-3.401342E-3	2.017042E-4	4.778272E-3	7.538514E-4	-5.316917E-3	-3.127974E-3	-5.460433E-3	3.812269E-3	3.831614E-3	2.476110E-3	3.048636E-3	-3.233288E-3	-3.978547E-3	9.097826E-3	3.836573E-3	1.046433E-3	-3.840778E-3	1.372718E-2	5.166183E-3	5.065998E-3	-2.918925E-3	2.812449E-3	-1.959051E-3	-1.446789E-3	-1.416893E-3	-1.973291E-3	-1.914487E-4	4.751843E-3	1.231733E-3	9.525775E-3	7.151120E-4	-3.061122E-3	-5.122275E-3	1.637451E-3	6.901212E-3	1.902168E-4	1.994092E-3	7.245548E-3	5.260794E-3	-2.290999E-3	2.775587E-3	-1.004707E-4	-3.321167E-3	4.897464E-3	-6.381265E-3	8.577847E-5	-6.251349E-3	-6.490148E-3	-2.479879E-3	2.413817E-3	-3.994276E-3	-8.466528E-3	1.952155E-3	-1.723128E-3	7.500339E-3	-1.015445E-2	9.056744E-3	1.176001E-2	1.855741E-3	-1.521820E-3	-8.347341E-3	7.791249E-3	5.057486E-3	-4.917524E-3	-1.573039E-4	-1.213705E-2	3.708604E-3	6.153845E-3	-5.739725E-4	1.490039E-3	1.295664E-3	3.828032E-3	6.719828E-4	-7.234082E-3	1.088970E-2	-6.839701E-3	-6.324075E-3	-6.049596E-3	2.069963E-3	-1.114096E-2	-4.913867E-4	8.238938E-3	9.742474E-3	1.019637E-2	-3.711348E-3	1.197676E-2	-8.480300E-3	-2.500814E-3	3.772345E-3	-3.187854E-4	2.261823E-3	4.343633E-3	5.291213E-3	-1.180972E-3	3.343052E-4	2.388930E-4	-4.069326E-3	2.970666E-3	2.914000E-4	-1.021729E-8	1.056485E-2	-5.255547E-4	2.699061E-4	9.478328E-3	6.745633E-3	-3.519636E-3	-1.191032E-3	8.855388E-3	-7.073205E-3	-1.140193E-3	-6.572525E-3	1.811160E-4	-3.914806E-4	5.489329E-3	-6.718915E-3	-7.807210E-3	5.009312E-4	2.404167E-3	9.248952E-4	2.832615E-3	7.293127E-3	6.300415E-3	3.079601E-3	5.073928E-4	-1.962496E-4	1.467554E-3	6.254280E-3	5.464779E-3	5.249134E-3	2.828356E-3	3.183257E-3	4.040700E-3	-4.941793E-3	-3.370081E-3	1.313675E-2	1.866564E-2	-9.228701E-4	-4.595571E-4	2.035842E-4	7.528385E-4
5.320070E+2	2.758071E-3	-9.202323E-4	1.476948E-2	5.779447E-3	1.323594E-2	-2.396359E-3	3.034768E-3	8.104812E-3	-5.446481E-3	6.471894E-3	-2.879582E-3	2.434509E-3	6.891728E-3	4.658553E-3	4.274270E-3	-1.411104E-3	2.924122E-3	2.026791E-3	2.987581E-3	5.203035E-3	2.595644E-3	3.125919E-3	7.386457E-3	6.529793E-3	1.020799E-2	-4.462061E-3	-3.840943E-3	-4.471709E-3	7.778769E-3	4.117178E-3	5.547445E-4	-5.442139E-4	3.832350E-3	1.209807E-2	-1.507708E-3	1.712212E-3	1.839973E-3	1.092082E-2	1.316973E-2	5.211026E-3	3.618904E-3	4.124601E-3	4.996913E-3	4.546869E-3	-4.002985E-3	4.907289E-3	-1.851377E-3	4.694277E-3	-3.921905E-4	6.920757E-3	-1.948449E-3	5.837941E-3	-2.301067E-3	5.706869E-3	1.131906E-2	-9.445511E-4	9.866567E-3	6.126054E-3	-6.885392E-3	6.158681E-3	1.732216E-4	2.383497E-4	3.222263E-3	6.097962E-3	1.023382E-3	-1.150217E-3	7.607942E-4	-9.970285E-4	8.836146E-4	-5.088298E-3	5.854730E-3	-7.692362E-3	8.339198E-3	1.250315E-2	1.238773E-2	-8.070448E-3	3.174695E-3	6.413692E-3	-2.267631E-3	6.819595E-3	7.427482E-4	2.662499E-4	3.422610E-3	2.537785E-3	5.894894E-3	1.676534E-3	2.645304E-3	1.879688E-3	4.200216E-4	-1.325469E-3	1.902534E-4	1.241923E-2	4.417671E-3	1.685829E-3	4.425800E-3	1.258669E-3	4.440385E-3	4.309979E-3	2.522077E-3	-5.165671E-3	3.166304E-3	1.166104E-2	-5.468875E-4	6.719766E-4	1.284051E-2	2.935485E-3	1.030630E-3	-1.793370E-3	-7.890688E-4	3.025339E-3	-5.570452E-4	-3.439482E-3	6.954863E-3	2.997662E-3	1.082710E-2	1.193658E-2	1.170654E-3	1.486266E-3	2.155890E-3	6.344367E-3	6.695036E-3	2.878671E-3	2.643953E-3	1.017538E-2	8.435349E-4	-2.172672E-3	1.672429E-3	1.058021E-2	4.199953E-3	3.205219E-3	1.507485E-3	1.821486E-4	5.255362E-3	6.208779E-3	3.520471E-3	4.670002E-3	-6.452646E-3	-2.381966E-3	2.951785E-3	4.553987E-3	-3.094872E-3	7.903702E-3	-5.795493E-3	2.427224E-3	9.808838E-3	1.119820E-2	4.316919E-3	-3.105636E-3	1.869876E-3	3.699723E-3	2.832625E-3	-3.889663E-3	3.096784E-3	-3.929144E-3	-1.014637E-4	3.925153E-4	2.017945E-3	4.225909E-3	8.491481E-3	-4.441566E-3	1.037057E-2	9.344412E-3	6.406089E-3	2.767412E-3	2.808405E-3	4.042078E-3	-2.975700E-3	3.076325E-4	4.135849E-3	9.977242E-3	-1.053925E-2
5.325170E+2	9.778706E-3	6.441529E-3	1.345665E-2	1.649775E-2	7.563361E-4	5.655424E-3	1.043192E-2	5.187055E-3	6.185025E-3	1.035502E-2	1.727761E-3	1.163164E-2	8.334150E-3	6.104320E-3	2.409132E-3	4.515567E-3	2.319106E-3	6.891191E-3	1.363096E-2	1.102336E-2	2.093254E-3	8.484687E-3	6.422692E-4	9.611236E-3	8.474587E-3	1.196642E-2	1.358384E-2	1.323621E-2	-1.158535E-3	1.109846E-2	4.834194E-3	6.802665E-3	1.230380E-2	-1.321626E-3	5.276974E-3	6.037826E-3	1.508789E-2	1.474309E-2	1.213002E-2	-3.984901E-3	1.333258E-3	8.428536E-3	1.028777E-2	6.820322E-3	1.291887E-2	7.583920E-3	1.505250E-2	1.408284E-2	1.431552E-2	1.978752E-2	4.481452E-3	7.479901E-3	-7.670292E-4	8.773193E-3	1.693604E-2	9.918000E-3	-7.270334E-4	1.416637E-2	1.871658E-2	1.847617E-3	5.369065E-3	5.959172E-3	4.188904E-3	2.683088E-3	1.453208E-2	8.051444E-3	9.320430E-3	7.976225E-4	9.366211E-3	1.302264E-2	1.552774E-2	8.485385E-3	7.736370E-3	1.015880E-2	7.778312E-3	-1.877166E-4	8.322870E-3	1.031063E-2	1.133818E-2	1.146928E-2	6.312944E-3	1.464572E-2	1.477141E-2	4.294773E-3	4.806639E-3	3.264864E-3	1.902893E-2	8.031456E-3	6.089997E-3	1.405052E-2	9.892048E-3	1.425163E-2	4.899624E-3	7.947468E-3	1.426079E-2	1.541849E-2	1.213702E-2	8.519774E-3	6.153878E-3	1.779286E-2	1.657663E-2	6.478355E-3	9.296504E-3	4.199985E-3	3.616795E-4	2.935478E-3	6.652311E-3	1.632928E-2	9.731954E-3	1.019063E-2	8.355722E-3	1.424933E-2	8.880862E-3	1.086660E-2	1.366518E-3	1.013105E-2	1.143648E-2	1.512464E-2	8.882175E-3	6.344417E-3	3.506959E-3	4.729215E-3	1.170895E-2	1.261745E-2	6.917154E-3	5.849453E-3	6.928603E-3	1.204517E-2	9.116897E-3	1.660881E-2	5.024919E-3	1.275066E-2	1.944487E-2	1.322728E-2	1.868583E-2	1.816121E-2	9.385699E-3	1.905586E-2	7.543434E-3	6.879430E-3	1.547435E-2	5.906954E-3	4.527717E-3	1.229281E-2	1.412825E-2	1.231806E-2	1.423668E-2	1.733133E-2	5.075382E-3	7.584436E-3	7.766867E-3	5.834497E-3	8.863295E-3	-1.380519E-3	7.205001E-3	1.511232E-2	1.577669E-2	2.197482E-3	4.455939E-3	1.445525E-2	1.571297E-3	4.415489E-3	6.997391E-3	2.352280E-2	1.797385E-2	1.010496E-3	2.245286E-2	3.999186E-3	1.424572E-2	5.090469E-3	5.269637E-2
5.330280E+2	2.281688E-2	2.300546E-2	1.608239E-2	2.406356E-2	2.401374E-2	1.600775E-2	1.213905E-2	4.117242E-2	2.834023E-2	2.810649E-2	9.214641E-3	3.651787E-2	1.410402E-2	1.381508E-2	1.872902E-2	1.806216E-2	2.046877E-2	3.121314E-2	7.469077E-3	2.266405E-2	2.771453E-2	2.027394E-2	2.810057E-2	2.149684E-2	1.829743E-2	2.656956E-2	3.831578E-2	3.040745E-2	2.267428E-2	1.593164E-2	1.957450E-2	3.333291E-2	1.169873E-2	4.137746E-2	1.601934E-2	1.360773E-2	2.281582E-2	2.566395E-2	2.616613E-2	2.866057E-2	1.104725E-2	1.972644E-2	2.674825E-2	2.046090E-2	1.346478E-2	5.977886E-3	3.920087E-2	1.707018E-2	6.079193E-3	3.382393E-2	3.020107E-2	1.842606E-2	2.633477E-2	2.410510E-2	1.489354E-2	2.455881E-2	1.048973E-2	1.072050E-2	1.464351E-2	3.017745E-2	2.095669E-2	3.265651E-2	7.088983E-3	3.000198E-2	2.128647E-2	2.127881E-2	2.701017E-2	2.532494E-2	2.845210E-2	4.303513E-2	3.181912E-2	1.942917E-2	1.798451E-2	1.836398E-2	3.082523E-2	2.064529E-2	2.273776E-2	2.443705E-2	2.541322E-2	1.704897E-2	1.355435E-2	1.677597E-2	2.179681E-2	1.425072E-2	2.657248E-2	1.544193E-2	1.032509E-2	2.494874E-2	1.301995E-2	2.624539E-2	2.073531E-2	1.425156E-2	3.333354E-2	2.625070E-2	2.901336E-2	1.022655E-2	3.108265E-2	2.175041E-2	2.007578E-2	1.664496E-2	1.937045E-2	2.202644E-2	2.515536E-2	3.040764E-2	2.423427E-2	2.963884E-2	1.396044E-2	1.632931E-2	1.814878E-2	1.640055E-2	2.395298E-2	1.818016E-2	2.172076E-2	2.941477E-2	1.650339E-2	2.156606E-2	2.332325E-2	2.718940E-2	2.336956E-2	2.589204E-2	1.689708E-2	2.693614E-2	2.530644E-2	2.604899E-2	1.248469E-2	2.590475E-2	2.078581E-2	1.351015E-2	1.833622E-2	1.544331E-2	1.557720E-2	2.094751E-2	2.575128E-2	2.996392E-2	1.976903E-2	1.141564E-2	3.284983E-2	2.858380E-2	2.328628E-2	1.676255E-2	1.058773E-2	2.487577E-2	2.734740E-2	2.403747E-2	2.762668E-2	1.735722E-2	2.360537E-2	2.214002E-2	2.591124E-2	3.644222E-2	2.640738E-2	4.327261E-2	2.680347E-2	2.792877E-2	2.060020E-2	2.747689E-2	1.907877E-2	3.414521E-2	2.110260E-2	1.736249E-2	1.037054E-2	2.228281E-2	2.887650E-2	3.419713E-2	2.920748E-2	4.244180E-2	2.786312E-2	2.184188E-2	1.792195E-2	2.585939E-2	2.107851E-2
5.331580E+2	1.780225E-2	2.852684E-2	3.183648E-2	3.415136E-2	2.514830E-2	3.268643E-2	2.408829E-2	3.922725E-2	2.224759E-2	2.034023E-2	3.685860E-2	4.950199E-2	2.420117E-2	2.779077E-2	2.199298E-2	3.499548E-2	2.833370E-2	2.756485E-2	2.371415E-2	2.054758E-2	3.022645E-2	3.849368E-2	3.869846E-2	3.954539E-2	3.100923E-2	3.934726E-2	2.032890E-2	3.577353E-2	2.714292E-2	1.969081E-2	3.241284E-2	2.925136E-2	3.408760E-2	2.673773E-2	1.884622E-2	1.739261E-2	2.391982E-2	1.856542E-2	3.552354E-2	4.199464E-2	2.361820E-2	3.048633E-2	2.263316E-2	2.898622E-2	1.510240E-2	2.578533E-2	3.099046E-2	3.371354E-2	3.843618E-2	2.797539E-2	1.324950E-2	2.499376E-2	2.224389E-2	3.279314E-2	3.531892E-2	5.147909E-2	2.918432E-2	2.967279E-2	2.337146E-2	4.003131E-2	3.030925E-2	2.598216E-2	2.787260E-2	3.097771E-2	3.602327E-2	1.782822E-2	1.502677E-2	2.472668E-2	2.262030E-2	3.372088E-2	3.538286E-2	4.274420E-2	1.798450E-2	2.481087E-2	3.889164E-2	2.458664E-2	2.119326E-2	3.125668E-2	3.385816E-2	2.541844E-2	1.745356E-2	2.103655E-2	1.639265E-2	2.830625E-2	2.657249E-2	2.708947E-2	2.824473E-2	2.648669E-2	2.939998E-2	2.306411E-2	2.701303E-2	2.402411E-2	3.236970E-2	3.299397E-2	2.507937E-2	1.825047E-2	2.397803E-2	3.077132E-2	3.218177E-2	1.492303E-2	3.501579E-2	3.083697E-2	2.843650E-2	2.133575E-2	2.531936E-2	2.963884E-2	3.307412E-2	2.312531E-2	3.340427E-2	2.834271E-2	2.729530E-2	1.523206E-2	3.777051E-2	2.098377E-2	2.028762E-2	2.698260E-2	3.412935E-2	2.614030E-2	4.096144E-2	2.846407E-2	2.901200E-2	1.028060E-3	3.720434E-2	3.154365E-2	2.260737E-2	3.041722E-2	3.225387E-2	2.278814E-2	2.694088E-2	2.185373E-2	3.065186E-2	2.805147E-2	2.732790E-2	2.888412E-2	3.710083E-2	2.386908E-2	3.460970E-2	4.704419E-2	2.787796E-2	1.734387E-2	1.009909E-2	3.036675E-2	1.811087E-2	2.262813E-2	9.808832E-3	2.183645E-2	2.911633E-2	1.853352E-2	4.140460E-2	4.754124E-2	3.792062E-2	2.722773E-2	2.616277E-2	3.111453E-2	2.973329E-2	3.042088E-2	3.834097E-2	2.958129E-2	2.362481E-2	1.833159E-2	3.111157E-2	2.105055E-2	2.828522E-2	4.249926E-2	2.864582E-2	3.839974E-2	2.624007E-2	2.799456E-2	4.089899E-2	1.852913E-2	3.011237E-3
5.333130E+2	4.237423E-2	4.202334E-2	4.233931E-2	3.604285E-2	2.798456E-2	3.211131E-2	4.229677E-2	6.402784E-2	2.889418E-2	3.698222E-2	4.434556E-2	6.356815E-2	4.054902E-2	3.357380E-2	3.458263E-2	4.388542E-2	3.559353E-2	4.702242E-2	3.491764E-2	4.753279E-2	4.429301E-2	4.921117E-2	4.544263E-2	5.363210E-2	3.678736E-2	5.881809E-2	3.719164E-2	4.704219E-2	3.310112E-2	4.815295E-2	4.239819E-2	4.312865E-2	3.469269E-2	2.734775E-2	2.676169E-2	3.145098E-2	4.765576E-2	4.586738E-2	4.488098E-2	4.751223E-2	4.533179E-2	3.317632E-2	6.143284E-2	3.694323E-2	4.894629E-2	2.471465E-2	3.292229E-2	3.627407E-2	3.255310E-2	5.546352E-2	3.078562E-2	2.991962E-2	5.139118E-2	4.659179E-2	3.174446E-2	5.289595E-2	3.479269E-2	3.771318E-2	4.839145E-2	6.220258E-2	4.381853E-2	4.219128E-2	3.270600E-2	4.219803E-2	4.646186E-2	3.738166E-2	3.728166E-2	3.848592E-2	3.428387E-2	3.579074E-2	4.352857E-2	5.463956E-2	4.812618E-2	3.653250E-2	3.082523E-2	4.541966E-2	2.737104E-2	4.246037E-2	2.869733E-2	3.378798E-2	3.750655E-2	3.967660E-2	3.260514E-2	4.528999E-2	3.908782E-2	3.661929E-2	4.206843E-2	4.801780E-2	4.388993E-2	3.207770E-2	4.356323E-2	4.356920E-2	4.152640E-2	3.684728E-2	4.032365E-2	3.760226E-2	3.641110E-2	5.783405E-2	2.915520E-2	4.419517E-2	3.892720E-2	4.638505E-2	3.718628E-2	4.754353E-2	4.973445E-2	4.441093E-2	3.982008E-2	4.011532E-2	3.708661E-2	3.264189E-2	1.949662E-2	3.881716E-2	4.098050E-2	3.503544E-2	4.740783E-2	4.082508E-2	4.007271E-2	2.718944E-2	3.630476E-2	2.640644E-2	4.559030E-2	2.693611E-2	5.646744E-2	3.337523E-2	4.538343E-2	2.440060E-2	4.276623E-2	2.522975E-2	3.554568E-2	3.758842E-2	4.371656E-2	2.531916E-2	4.467058E-2	5.425903E-2	5.984883E-2	3.217135E-2	4.634178E-2	3.870726E-2	4.952436E-2	4.001693E-2	3.550960E-2	3.236347E-2	4.690726E-2	3.813110E-2	2.708678E-2	4.423295E-2	3.187180E-2	3.115632E-2	3.980183E-2	4.865125E-2	4.175839E-2	2.187942E-2	4.474369E-2	4.322051E-2	3.703978E-2	2.276656E-2	3.889127E-2	3.465232E-2	4.027147E-2	4.546546E-2	4.556753E-2	2.844391E-2	4.484249E-2	5.080147E-2	4.998978E-2	3.486290E-2	4.625831E-2	5.014407E-2	4.181800E-2	3.685462E-2	3.237063E-2
5.334630E+2	4.438011E-2	6.349516E-2	4.693422E-2	5.621840E-2	5.521274E-2	5.339107E-2	5.481502E-2	6.694558E-2	4.495669E-2	4.031062E-2	5.010474E-2	7.709316E-2	4.968456E-2	3.453764E-2	5.603162E-2	4.600216E-2	4.950825E-2	6.526384E-2	4.276016E-2	5.441136E-2	6.137393E-2	6.796673E-2	4.977810E-2	6.199606E-2	5.643298E-2	5.455886E-2	4.393667E-2	6.850629E-2	5.743046E-2	3.902362E-2	3.288834E-2	5.129199E-2	5.587138E-2	5.723712E-2	6.633883E-2	4.767210E-2	7.194340E-2	4.095308E-2	5.631785E-2	6.130595E-2	3.447499E-2	5.254406E-2	4.791173E-2	7.615995E-2	5.768017E-2	4.826951E-2	4.934323E-2	4.352876E-2	5.667372E-2	5.897263E-2	4.013816E-2	5.400121E-2	6.979991E-2	5.068028E-2	6.033997E-2	8.217765E-2	5.535676E-2	4.575360E-2	4.373665E-2	5.727563E-2	5.265151E-2	5.506320E-2	5.493958E-2	7.098030E-2	4.523382E-2	5.636014E-2	4.812380E-2	5.284342E-2	6.238258E-2	6.735540E-2	5.320171E-2	6.701080E-2	6.078570E-2	5.059849E-2	5.214367E-2	6.906786E-2	5.362673E-2	5.853522E-2	5.074809E-2	5.052708E-2	5.254628E-2	4.979542E-2	7.259596E-2	5.583168E-2	6.085352E-2	5.673786E-2	4.770033E-2	7.313727E-2	4.955990E-2	4.586316E-2	5.440651E-2	7.594071E-2	5.020108E-2	4.937058E-2	5.212560E-2	5.648202E-2	4.114748E-2	5.783404E-2	6.789442E-2	6.772768E-2	5.513129E-2	7.178010E-2	5.741983E-2	6.669507E-2	5.461752E-2	6.827340E-2	5.050126E-2	5.710538E-2	4.813370E-2	4.649479E-2	5.124834E-2	6.584176E-2	6.024025E-2	4.571466E-2	4.993074E-2	5.827843E-2	5.898345E-2	6.495723E-2	5.751843E-2	5.058380E-2	4.750314E-2	5.839581E-2	5.420112E-2	6.268038E-2	6.664107E-2	6.350846E-2	3.703217E-2	3.304278E-2	5.951596E-2	4.399884E-2	3.165683E-2	4.936318E-2	5.780897E-2	4.832022E-2	7.230623E-2	5.033243E-2	4.751492E-2	5.597664E-2	5.214818E-2	5.571361E-2	5.749949E-2	4.334538E-2	5.560037E-2	6.913713E-2	4.004513E-2	4.759238E-2	4.399599E-2	5.519985E-2	5.529513E-2	6.141534E-2	5.327164E-2	6.077627E-2	6.140245E-2	4.449494E-2	6.565685E-2	4.690704E-2	6.145558E-2	6.152898E-2	4.632484E-2	5.321813E-2	5.750934E-2	5.308849E-2	7.145223E-2	6.503376E-2	6.290844E-2	6.063109E-2	6.519447E-2	5.014403E-2	7.398580E-2	5.273673E-2	6.173002E-2
5.336080E+2	7.948315E-2	7.576479E-2	6.793974E-2	6.756714E-2	7.506663E-2	6.029263E-2	7.529964E-2	8.007563E-2	5.991155E-2	5.750736E-2	5.759165E-2	8.574940E-2	6.458991E-2	5.140491E-2	4.111060E-2	6.293517E-2	5.979304E-2	8.654558E-2	6.740793E-2	8.086742E-2	7.845477E-2	7.761255E-2	8.446226E-2	7.564235E-2	7.665641E-2	9.836820E-2	8.665534E-2	8.084821E-2	6.438168E-2	7.339304E-2	6.855038E-2	6.149589E-2	6.373772E-2	6.821685E-2	8.273519E-2	7.200380E-2	7.911942E-2	7.043940E-2	7.399298E-2	1.003888E-1	5.618849E-2	6.168994E-2	7.260246E-2	7.445486E-2	7.241881E-2	6.861224E-2	7.397444E-2	6.443975E-2	5.785021E-2	7.944250E-2	6.527312E-2	1.016168E-1	7.337944E-2	8.849863E-2	8.178639E-2	7.745465E-2	7.405138E-2	7.676655E-2	6.061058E-2	6.528191E-2	7.499370E-2	6.316760E-2	5.203957E-2	6.658969E-2	9.190029E-2	7.476344E-2	7.551441E-2	8.155818E-2	7.139524E-2	8.236180E-2	8.934804E-2	1.003181E-1	5.837438E-2	6.407841E-2	7.576679E-2	9.327932E-2	7.524906E-2	7.899412E-2	6.904547E-2	7.517037E-2	5.198927E-2	5.032797E-2	5.368139E-2	7.750058E-2	7.282482E-2	5.726732E-2	6.510796E-2	8.287737E-2	6.782996E-2	6.176944E-2	6.296701E-2	8.327024E-2	6.658670E-2	6.863710E-2	7.868036E-2	7.394584E-2	7.371031E-2	7.166616E-2	7.515798E-2	7.346726E-2	7.357044E-2	7.851773E-2	8.530963E-2	9.088680E-2	6.872403E-2	8.134105E-2	6.062029E-2	8.428922E-2	6.128514E-2	6.703511E-2	5.904703E-2	6.633297E-2	9.362377E-2	7.943864E-2	6.759037E-2	9.198185E-2	9.032113E-2	6.810476E-2	7.924951E-2	8.659264E-2	7.492099E-2	7.875207E-2	9.046133E-2	8.954348E-2	6.208595E-2	6.601526E-2	6.761364E-2	6.771324E-2	6.627680E-2	7.488539E-2	4.723407E-2	5.756027E-2	8.198351E-2	7.855389E-2	8.530461E-2	7.575816E-2	7.801834E-2	8.098743E-2	1.020005E-1	7.722395E-2	6.287473E-2	7.529283E-2	7.244345E-2	6.913718E-2	6.380226E-2	6.326986E-2	6.769318E-2	8.104674E-2	6.170617E-2	7.362426E-2	8.068426E-2	8.800400E-2	8.254618E-2	7.444113E-2	6.261243E-2	9.165502E-2	6.420733E-2	6.102194E-2	6.902463E-2	7.502205E-2	6.756567E-2	5.432071E-2	8.327885E-2	9.171935E-2	8.369071E-2	8.690458E-2	1.014434E-1	7.106288E-2	7.950030E-2	7.717087E-2	5.495487E-2
5.337630E+2	8.850951E-2	1.095061E-1	1.112634E-1	1.413341E-1	1.017275E-1	9.710071E-2	1.168375E-1	1.092530E-1	8.095901E-2	8.302516E-2	8.581136E-2	1.171276E-1	9.632379E-2	7.260935E-2	9.240162E-2	9.172192E-2	9.790724E-2	1.224204E-1	1.055000E-1	1.110272E-1	9.553565E-2	1.011913E-1	1.018043E-1	1.152613E-1	9.630210E-2	1.147970E-1	1.029560E-1	1.280693E-1	9.169014E-2	9.809579E-2	9.184977E-2	1.080261E-1	1.036747E-1	1.237255E-1	1.064812E-1	9.741672E-2	9.347143E-2	1.032018E-1	1.072635E-1	1.109641E-1	8.818736E-2	8.912746E-2	1.102265E-1	1.170816E-1	1.002580E-1	8.360164E-2	8.701464E-2	8.663111E-2	9.903215E-2	1.051756E-1	8.982399E-2	1.005223E-1	9.332211E-2	1.109854E-1	9.710551E-2	1.147652E-1	9.710815E-2	9.744167E-2	1.059958E-1	1.207098E-1	8.070907E-2	9.653926E-2	9.457326E-2	1.148858E-1	1.097070E-1	9.374173E-2	9.948127E-2	1.126662E-1	1.000241E-1	1.025426E-1	9.545733E-2	1.269639E-1	1.023813E-1	8.986617E-2	9.708491E-2	1.332561E-1	8.606010E-2	9.506895E-2	1.032948E-1	7.889021E-2	9.822264E-2	9.719418E-2	8.880825E-2	1.061971E-1	1.130915E-1	8.532714E-2	8.712356E-2	1.269650E-1	9.492004E-2	7.555488E-2	1.149005E-1	1.034258E-1	9.743037E-2	9.175706E-2	1.003172E-1	9.896157E-2	1.110094E-1	8.309265E-2	9.755393E-2	1.256976E-1	9.312715E-2	1.096139E-1	1.121054E-1	1.433022E-1	1.045328E-1	1.097490E-1	9.266377E-2	1.211011E-1	9.284827E-2	7.324514E-2	8.021483E-2	9.827108E-2	9.875982E-2	1.137246E-1	1.130012E-1	1.082314E-1	1.027480E-1	1.058723E-1	9.321957E-2	1.056257E-1	9.851318E-2	1.009589E-1	1.204885E-1	1.121325E-1	9.042942E-2	8.907907E-2	9.532807E-2	1.058020E-1	1.129881E-1	1.057719E-1	7.838843E-2	6.903575E-2	1.124646E-1	1.217457E-1	1.178019E-1	1.125996E-1	1.255333E-1	1.006386E-1	8.756966E-2	1.074545E-1	8.584198E-2	9.326303E-2	1.121062E-1	1.048409E-1	7.406111E-2	9.350517E-2	9.304348E-2	9.727583E-2	9.162417E-2	1.108063E-1	1.048069E-1	1.249558E-1	8.446836E-2	1.164937E-1	1.052335E-1	1.110854E-1	1.076849E-1	8.434879E-2	9.878690E-2	1.055481E-1	1.046481E-1	9.251986E-2	1.128450E-1	1.071376E-1	1.179534E-1	9.549381E-2	1.084770E-1	1.442796E-1	1.217780E-1	1.101568E-1	1.091569E-1
5.339090E+2	1.236125E-1	1.364992E-1	1.453977E-1	1.558353E-1	1.357625E-1	1.603650E-1	1.538236E-1	1.661486E-1	1.330235E-1	1.484835E-1	1.301570E-1	1.739334E-1	1.290196E-1	1.280301E-1	1.278391E-1	1.442151E-1	1.481212E-1	1.364055E-1	1.346291E-1	1.501825E-1	1.583328E-1	1.494202E-1	1.692458E-1	1.597223E-1	1.246147E-1	1.701669E-1	1.653483E-1	1.683142E-1	1.492862E-1	1.695200E-1	1.370214E-1	1.574132E-1	1.466367E-1	1.517852E-1	1.421010E-1	1.504060E-1	1.591588E-1	1.578061E-1	1.561307E-1	1.583229E-1	1.259002E-1	1.273252E-1	1.660742E-1	1.653920E-1	1.330100E-1	1.339233E-1	1.493177E-1	1.395485E-1	1.655108E-1	1.566432E-1	1.447701E-1	1.240568E-1	1.536623E-1	1.876447E-1	1.818711E-1	1.643551E-1	1.506994E-1	1.468323E-1	1.659276E-1	1.564303E-1	1.529318E-1	1.241904E-1	1.390409E-1	1.846463E-1	1.483911E-1	1.345742E-1	1.320077E-1	1.431757E-1	1.615231E-1	1.760213E-1	1.580774E-1	1.702630E-1	1.506075E-1	1.543352E-1	1.829350E-1	1.580302E-1	1.267306E-1	1.442681E-1	1.525573E-1	1.425916E-1	1.606098E-1	1.302138E-1	1.217736E-1	1.360649E-1	1.473729E-1	1.642135E-1	1.516342E-1	1.859192E-1	1.742998E-1	1.450127E-1	1.616975E-1	1.858814E-1	1.287561E-1	1.375151E-1	1.549016E-1	1.513531E-1	1.625178E-1	1.534558E-1	1.508201E-1	1.630057E-1	1.719128E-1	1.697331E-1	1.739001E-1	1.654778E-1	1.408842E-1	1.642920E-1	1.449450E-1	1.596116E-1	1.480834E-1	1.386882E-1	1.470604E-1	1.518291E-1	1.591069E-1	1.401415E-1	1.539967E-1	1.587863E-1	1.751493E-1	1.761629E-1	1.558260E-1	1.673553E-1	1.437844E-1	1.484567E-1	1.935754E-1	1.695219E-1	1.450919E-1	1.447323E-1	1.445449E-1	1.619585E-1	1.572410E-1	1.419034E-1	1.075326E-1	1.466327E-1	1.534566E-1	1.719550E-1	1.811714E-1	1.914716E-1	1.454781E-1	1.756710E-1	1.728434E-1	1.528009E-1	1.342198E-1	1.416835E-1	1.756756E-1	1.428938E-1	1.264349E-1	1.478161E-1	1.310694E-1	1.627943E-1	1.664199E-1	1.724071E-1	1.634702E-1	1.789250E-1	1.639176E-1	1.591832E-1	1.588146E-1	1.882171E-1	1.577665E-1	1.457090E-1	1.270360E-1	1.646614E-1	1.700141E-1	1.362641E-1	1.749349E-1	1.717760E-1	1.572714E-1	1.748196E-1	1.815164E-1	1.762731E-1	1.309687E-1	1.565814E-1	1.656173E-1
5.340690E+2	2.213992E-1	2.665570E-1	2.648665E-1	3.002172E-1	2.390026E-1	2.529608E-1	2.790067E-1	3.003636E-1	2.293995E-1	2.638682E-1	2.562825E-1	2.783476E-1	2.194132E-1	2.157398E-1	2.299552E-1	2.779884E-1	2.709339E-1	2.744319E-1	2.769139E-1	2.538904E-1	2.598132E-1	2.715994E-1	2.684807E-1	2.851815E-1	2.719571E-1	2.930763E-1	2.524719E-1	2.976357E-1	2.431279E-1	2.565176E-1	2.368753E-1	2.435345E-1	2.839960E-1	2.713426E-1	2.710094E-1	2.466515E-1	2.932944E-1	2.757508E-1	2.767374E-1	2.668345E-1	2.487533E-1	2.241640E-1	2.642491E-1	2.705382E-1	2.465507E-1	2.399201E-1	2.555705E-1	2.385551E-1	2.855257E-1	2.677649E-1	2.447260E-1	2.362553E-1	2.682057E-1	2.709477E-1	2.809341E-1	2.706196E-1	2.528961E-1	2.789244E-1	2.456427E-1	2.752925E-1	2.293112E-1	2.343166E-1	2.424753E-1	2.822139E-1	2.730405E-1	2.944527E-1	2.295866E-1	2.502585E-1	2.521811E-1	2.598492E-1	2.425892E-1	2.782730E-1	2.603234E-1	2.440060E-1	2.624466E-1	2.892216E-1	2.111607E-1	2.446136E-1	2.557738E-1	2.202419E-1	2.703441E-1	1.951874E-1	2.206697E-1	2.789629E-1	2.872183E-1	2.674531E-1	2.606876E-1	2.894736E-1	2.801399E-1	2.160607E-1	2.901045E-1	3.147567E-1	2.458653E-1	2.184347E-1	2.581699E-1	2.603838E-1	2.311958E-1	2.490773E-1	2.773277E-1	2.760762E-1	2.942823E-1	2.925628E-1	2.750684E-1	3.171802E-1	2.314914E-1	2.870142E-1	2.641241E-1	2.887357E-1	2.485591E-1	2.466451E-1	2.495571E-1	2.677894E-1	2.740239E-1	2.576132E-1	2.750924E-1	2.526734E-1	2.994197E-1	2.642883E-1	2.618946E-1	2.666364E-1	2.770486E-1	2.508553E-1	2.802595E-1	2.604900E-1	2.124079E-1	2.510256E-1	2.420233E-1	2.654819E-1	2.611122E-1	2.514633E-1	1.914486E-1	2.406234E-1	2.890451E-1	2.685953E-1	2.797455E-1	2.755318E-1	2.539994E-1	2.977482E-1	2.771399E-1	2.946527E-1	2.397714E-1	2.405212E-1	2.528280E-1	2.842996E-1	1.982460E-1	2.217247E-1	2.352272E-1	2.800062E-1	2.770102E-1	2.833979E-1	2.720236E-1	2.941564E-1	2.811695E-1	2.585797E-1	2.477098E-1	3.006760E-1	2.540772E-1	2.243106E-1	2.445713E-1	2.630220E-1	2.906893E-1	2.465483E-1	2.813741E-1	2.607279E-1	2.735396E-1	2.566718E-1	3.351694E-1	2.864058E-1	2.780214E-1	2.628694E-1	2.762796E-1
5.342040E+2	3.763533E-1	4.634840E-1	5.287483E-1	4.704484E-1	4.500218E-1	4.801366E-1	4.861281E-1	5.191936E-1	3.933485E-1	4.469303E-1	4.682201E-1	5.337021E-1	4.396284E-1	3.834483E-1	4.187997E-1	4.439342E-1	4.881252E-1	4.823852E-1	4.746560E-1	4.454324E-1	4.733246E-1	4.907727E-1	4.842930E-1	4.731509E-1	4.637906E-1	4.670969E-1	4.621314E-1	4.967155E-1	4.486859E-1	4.476975E-1	4.251711E-1	3.925121E-1	4.395078E-1	4.848379E-1	4.643720E-1	4.634733E-1	5.190606E-1	4.810623E-1	5.007956E-1	4.884564E-1	4.093193E-1	3.909419E-1	4.429627E-1	4.484343E-1	4.294178E-1	4.294287E-1	4.279897E-1	4.020016E-1	4.461340E-1	4.806512E-1	4.434684E-1	4.261712E-1	4.901333E-1	4.835491E-1	4.540391E-1	5.020391E-1	4.722460E-1	4.851027E-1	4.795508E-1	4.828395E-1	4.418222E-1	4.369297E-1	4.111604E-1	4.753973E-1	4.547940E-1	4.646835E-1	4.201800E-1	5.296305E-1	4.875730E-1	4.704541E-1	4.650687E-1	5.080925E-1	5.207472E-1	4.491351E-1	4.531597E-1	4.519441E-1	4.093652E-1	4.394613E-1	4.547011E-1	4.146002E-1	4.458080E-1	3.879783E-1	4.184628E-1	4.476290E-1	4.956261E-1	4.342257E-1	4.659952E-1	5.314422E-1	4.729196E-1	3.698213E-1	4.835706E-1	5.364710E-1	4.405655E-1	4.178436E-1	4.430690E-1	4.317181E-1	4.360451E-1	4.475376E-1	4.607335E-1	4.321939E-1	4.943190E-1	4.915781E-1	5.009201E-1	5.061780E-1	4.175888E-1	4.495068E-1	3.838663E-1	4.852540E-1	4.095313E-1	3.971164E-1	4.138852E-1	4.407468E-1	4.351640E-1	4.773811E-1	4.693488E-1	4.278103E-1	5.150018E-1	4.463091E-1	4.874841E-1	4.497667E-1	4.906527E-1	4.858777E-1	4.751569E-1	4.625728E-1	3.946168E-1	4.270109E-1	4.016202E-1	4.612967E-1	4.657814E-1	4.921457E-1	3.602853E-1	4.280584E-1	5.123976E-1	4.818524E-1	5.099338E-1	5.282326E-1	4.387798E-1	4.883072E-1	4.778617E-1	5.027793E-1	4.156905E-1	4.347016E-1	4.777651E-1	4.515446E-1	3.775043E-1	4.132139E-1	4.198443E-1	4.789667E-1	4.581215E-1	4.970569E-1	4.902269E-1	4.808610E-1	4.522419E-1	4.879568E-1	4.577710E-1	4.902668E-1	4.742173E-1	4.337455E-1	4.110383E-1	5.140109E-1	5.131844E-1	4.461693E-1	5.054872E-1	4.967475E-1	5.049529E-1	4.698910E-1	5.088411E-1	4.802136E-1	4.811387E-1	4.754451E-1	5.021218E-1
5.343600E+2	6.862621E-1	7.794259E-1	9.094733E-1	8.663939E-1	7.847013E-1	8.827258E-1	8.451760E-1	8.819644E-1	7.882662E-1	7.825441E-1	8.321993E-1	9.053733E-1	7.935104E-1	7.019979E-1	7.228162E-1	7.847167E-1	8.735024E-1	8.666713E-1	8.393307E-1	7.893615E-1	8.450844E-1	8.455220E-1	8.359511E-1	8.433657E-1	7.948769E-1	9.283120E-1	8.499733E-1	8.498000E-1	8.900892E-1	7.930025E-1	7.408991E-1	7.369980E-1	9.223815E-1	8.361908E-1	8.403547E-1	8.057397E-1	8.789619E-1	8.381734E-1	8.652154E-1	8.388204E-1	7.527363E-1	7.185805E-1	7.903961E-1	8.110470E-1	7.782278E-1	7.452774E-1	7.235666E-1	7.498059E-1	8.738348E-1	8.590509E-1	7.661322E-1	7.474418E-1	8.153546E-1	8.668452E-1	8.594827E-1	8.751449E-1	8.336750E-1	8.635745E-1	8.019021E-1	9.010132E-1	7.353888E-1	7.339373E-1	7.330647E-1	8.442028E-1	8.066352E-1	7.873162E-1	7.380253E-1	8.562620E-1	8.332397E-1	8.280161E-1	8.382431E-1	8.925520E-1	8.022703E-1	8.295032E-1	8.259435E-1	8.635362E-1	7.218588E-1	7.473186E-1	7.319781E-1	7.465903E-1	8.229157E-1	6.702416E-1	7.308236E-1	8.113152E-1	7.845678E-1	7.958302E-1	8.489629E-1	9.195148E-1	8.647792E-1	6.826455E-1	8.408271E-1	9.017192E-1	7.470739E-1	7.131033E-1	7.936876E-1	7.899622E-1	8.297587E-1	8.276186E-1	8.136231E-1	8.609443E-1	8.765137E-1	8.693964E-1	8.859060E-1	9.194524E-1	7.203367E-1	8.244913E-1	7.222898E-1	8.799890E-1	7.214795E-1	6.980586E-1	7.988049E-1	7.674989E-1	8.710767E-1	8.151825E-1	8.105599E-1	8.075739E-1	8.797083E-1	8.675261E-1	8.667438E-1	8.258017E-1	8.528244E-1	8.516739E-1	8.592865E-1	8.807819E-1	6.689416E-1	7.814882E-1	7.423166E-1	7.743084E-1	7.417472E-1	8.225743E-1	6.125352E-1	6.991006E-1	8.702880E-1	8.241424E-1	8.722767E-1	8.795228E-1	7.737307E-1	8.336946E-1	8.779932E-1	8.800813E-1	7.680178E-1	7.826295E-1	8.211468E-1	8.020060E-1	7.047044E-1	7.228441E-1	7.047620E-1	8.510399E-1	8.075230E-1	8.422404E-1	8.389142E-1	8.785799E-1	8.635846E-1	8.473135E-1	8.437969E-1	8.782807E-1	7.857145E-1	7.740148E-1	7.681847E-1	8.599692E-1	8.928092E-1	7.671649E-1	9.010869E-1	7.885100E-1	8.649919E-1	8.230676E-1	9.568161E-1	8.419890E-1	8.028159E-1	8.382915E-1	9.199288E-1
5.345110E+2	1.063869E+0	1.172053E+0	1.362405E+0	1.293234E+0	1.160791E+0	1.231829E+0	1.301526E+0	1.400834E+0	1.132780E+0	1.256287E+0	1.218063E+0	1.334930E+0	1.231055E+0	1.063439E+0	1.130814E+0	1.191538E+0	1.339949E+0	1.289873E+0	1.200085E+0	1.238055E+0	1.273110E+0	1.305837E+0	1.257942E+0	1.285336E+0	1.218413E+0	1.421168E+0	1.236691E+0	1.298936E+0	1.352344E+0	1.272023E+0	1.111785E+0	1.133319E+0	1.445796E+0	1.327841E+0	1.266093E+0	1.142600E+0	1.380726E+0	1.283197E+0	1.302936E+0	1.276544E+0	1.163007E+0	1.102170E+0	1.236593E+0	1.253230E+0	1.389058E+0	1.101811E+0	1.175142E+0	1.093770E+0	1.468027E+0	1.299445E+0	1.222655E+0	1.125632E+0	1.298073E+0	1.342134E+0	1.257779E+0	1.249195E+0	1.295432E+0	1.278802E+0	1.224916E+0	1.299479E+0	1.249781E+0	1.098640E+0	1.113452E+0	1.286670E+0	1.393651E+0	1.149057E+0	1.130624E+0	1.299549E+0	1.285998E+0	1.229044E+0	1.263348E+0	1.295093E+0	1.294181E+0	1.261448E+0	1.260377E+0	1.263869E+0	1.066272E+0	1.173059E+0	1.123731E+0	1.156232E+0	1.297503E+0	1.027597E+0	1.073989E+0	1.275146E+0	1.276474E+0	1.175435E+0	1.304634E+0	1.341933E+0	1.260419E+0	1.048490E+0	1.261430E+0	1.249866E+0	1.146594E+0	1.021850E+0	1.171846E+0	1.183133E+0	1.225841E+0	1.166203E+0	1.257309E+0	1.244927E+0	1.312348E+0	1.262762E+0	1.327217E+0	1.354397E+0	1.089818E+0	1.176180E+0	1.074768E+0	1.326260E+0	1.128119E+0	1.071608E+0	1.163114E+0	1.157636E+0	1.237012E+0	1.248534E+0	1.219886E+0	1.222244E+0	1.323839E+0	1.246254E+0	1.284291E+0	1.218811E+0	1.277483E+0	1.281623E+0	1.319903E+0	1.250759E+0	1.055629E+0	1.132959E+0	1.054343E+0	1.152265E+0	1.215006E+0	1.203703E+0	9.627701E-1	1.073970E+0	1.294395E+0	1.262533E+0	1.292032E+0	1.294118E+0	1.279382E+0	1.236845E+0	1.287964E+0	1.273660E+0	1.114970E+0	1.107097E+0	1.203104E+0	1.239849E+0	1.008148E+0	1.048152E+0	1.065180E+0	1.250161E+0	1.241869E+0	1.330603E+0	1.268740E+0	1.297692E+0	1.289024E+0	1.273572E+0	1.233475E+0	1.342837E+0	1.258465E+0	1.115805E+0	1.163670E+0	1.266978E+0	1.332143E+0	1.192284E+0	1.277763E+0	1.228526E+0	1.279516E+0	1.242432E+0	1.330671E+0	1.328662E+0	1.269707E+0	1.240231E+0	1.281276E+0
5.346620E+2	1.388321E+0	1.629707E+0	1.876385E+0	1.785014E+0	1.536314E+0	1.706311E+0	1.726009E+0	1.812721E+0	1.540439E+0	1.655141E+0	1.617170E+0	1.812100E+0	1.689275E+0	1.443672E+0	1.497777E+0	1.538245E+0	1.862053E+0	1.755640E+0	1.607894E+0	1.631196E+0	1.690589E+0	1.782230E+0	1.703534E+0	1.671399E+0	1.678929E+0	1.777729E+0	1.598676E+0	1.647729E+0	1.829499E+0	1.639346E+0	1.443681E+0	1.450457E+0	1.933511E+0	1.702985E+0	1.625114E+0	1.571377E+0	1.817358E+0	1.674709E+0	1.706346E+0	1.691284E+0	1.616134E+0	1.456709E+0	1.642814E+0	1.692002E+0	1.914728E+0	1.491535E+0	1.518533E+0	1.457362E+0	2.007507E+0	1.756797E+0	1.633584E+0	1.557459E+0	1.694887E+0	1.781643E+0	1.645351E+0	1.666693E+0	1.724782E+0	1.729060E+0	1.563559E+0	1.843290E+0	1.791186E+0	1.479556E+0	1.425693E+0	1.627669E+0	1.849877E+0	1.547604E+0	1.532925E+0	1.688995E+0	1.768448E+0	1.626451E+0	1.713904E+0	1.715238E+0	1.702904E+0	1.648259E+0	1.555380E+0	1.700233E+0	1.743770E+0	1.561781E+0	1.505166E+0	1.498916E+0	1.855647E+0	1.357791E+0	1.432285E+0	1.621850E+0	1.718321E+0	1.518514E+0	1.680434E+0	1.831509E+0	1.719058E+0	1.364494E+0	1.680322E+0	1.801402E+0	1.632384E+0	1.374428E+0	1.529348E+0	1.532413E+0	1.665140E+0	1.590787E+0	1.636224E+0	1.634648E+0	1.750422E+0	1.728168E+0	1.786028E+0	1.835207E+0	1.485886E+0	1.640365E+0	1.451421E+0	1.706271E+0	1.494250E+0	1.428919E+0	1.528537E+0	1.566936E+0	1.679986E+0	1.640856E+0	1.653180E+0	1.612238E+0	1.772835E+0	1.738288E+0	1.716330E+0	1.603079E+0	1.673450E+0	1.634466E+0	1.674568E+0	1.675684E+0	1.383603E+0	1.513006E+0	1.462890E+0	1.608844E+0	1.578863E+0	1.584251E+0	1.281350E+0	1.493105E+0	1.729017E+0	1.652875E+0	1.723701E+0	1.690033E+0	1.584417E+0	1.649527E+0	1.752377E+0	1.709099E+0	1.446773E+0	1.497455E+0	1.619292E+0	1.578095E+0	1.365587E+0	1.460807E+0	1.397491E+0	1.657702E+0	1.584328E+0	1.708530E+0	1.681026E+0	1.730418E+0	1.695239E+0	1.689638E+0	1.608540E+0	1.770887E+0	1.578767E+0	1.495121E+0	1.460283E+0	1.698700E+0	1.817356E+0	1.544699E+0	1.670998E+0	1.604493E+0	1.614276E+0	1.631483E+0	1.801367E+0	1.695978E+0	1.649287E+0	1.561539E+0	1.624555E+0
5.348070E+2	1.662626E+0	1.945654E+0	2.147485E+0	2.062428E+0	1.811999E+0	1.939239E+0	2.082214E+0	2.124429E+0	1.781932E+0	1.964127E+0	1.937958E+0	2.151310E+0	1.994116E+0	1.700536E+0	1.787342E+0	1.876490E+0	2.174831E+0	1.957509E+0	1.957444E+0	1.927500E+0	2.032207E+0	2.058740E+0	2.009914E+0	2.012120E+0	1.963214E+0	2.167752E+0	2.069710E+0	1.950908E+0	2.150744E+0	1.969082E+0	1.712809E+0	1.743109E+0	2.277818E+0	1.985408E+0	1.978483E+0	1.863359E+0	2.192712E+0	2.015440E+0	2.036973E+0	2.054062E+0	1.897837E+0	1.729470E+0	1.908535E+0	1.889222E+0	2.204040E+0	1.824513E+0	1.786095E+0	1.713843E+0	2.266359E+0	1.955647E+0	1.853372E+0	1.816883E+0	1.982267E+0	2.062727E+0	1.956836E+0	2.010518E+0	2.027014E+0	2.019669E+0	1.899875E+0	2.113658E+0	2.115929E+0	1.698378E+0	1.717143E+0	2.007206E+0	2.137244E+0	1.789147E+0	1.766314E+0	1.971358E+0	1.992708E+0	1.921401E+0	2.037187E+0	2.007389E+0	2.038076E+0	1.990534E+0	1.971374E+0	2.069033E+0	2.020228E+0	1.757114E+0	1.762736E+0	1.696528E+0	2.181508E+0	1.626739E+0	1.630077E+0	1.890072E+0	2.058411E+0	1.805996E+0	1.983530E+0	2.144738E+0	2.034060E+0	1.586656E+0	2.034157E+0	2.140389E+0	2.047807E+0	1.591660E+0	1.751127E+0	1.839204E+0	2.105629E+0	1.869232E+0	1.940087E+0	1.923351E+0	2.023653E+0	1.981602E+0	1.979615E+0	2.117951E+0	1.695858E+0	1.876717E+0	1.765106E+0	1.983209E+0	1.981900E+0	1.657251E+0	1.760266E+0	1.804260E+0	2.037573E+0	1.914021E+0	1.956547E+0	1.829507E+0	2.105665E+0	1.976436E+0	1.972961E+0	1.853594E+0	2.104484E+0	1.920070E+0	2.075697E+0	1.973008E+0	1.859876E+0	1.701526E+0	1.626789E+0	1.879860E+0	2.019547E+0	1.908264E+0	1.485861E+0	1.658679E+0	2.056426E+0	1.978969E+0	1.971220E+0	1.946884E+0	1.917609E+0	1.972284E+0	2.048870E+0	2.003850E+0	1.705277E+0	1.719089E+0	1.874110E+0	1.853387E+0	1.579939E+0	1.670772E+0	1.650447E+0	1.853653E+0	1.931592E+0	2.001545E+0	1.929383E+0	2.035274E+0	1.994456E+0	1.938766E+0	1.854526E+0	2.006404E+0	1.863298E+0	1.639646E+0	1.705444E+0	1.956954E+0	2.076307E+0	1.843513E+0	2.052997E+0	1.843478E+0	1.988918E+0	1.888155E+0	2.128691E+0	1.999299E+0	1.865272E+0	1.928050E+0	1.927184E+0
5.349580E+2	1.789994E+0	2.119265E+0	2.474382E+0	2.325339E+0	2.025287E+0	2.238302E+0	2.309251E+0	2.303386E+0	1.994065E+0	2.191569E+0	2.144713E+0	2.340119E+0	2.137397E+0	1.808971E+0	1.993438E+0	2.078418E+0	2.454340E+0	2.232955E+0	2.105892E+0	2.137037E+0	2.284400E+0	2.248980E+0	2.111074E+0	2.150786E+0	2.141177E+0	2.420872E+0	2.224282E+0	2.235310E+0	2.261966E+0	2.128574E+0	1.922502E+0	1.883923E+0	2.514414E+0	2.198902E+0	2.051981E+0	2.036923E+0	2.334025E+0	2.150312E+0	2.245433E+0	2.225566E+0	2.076687E+0	1.946280E+0	2.094303E+0	2.142708E+0	2.415833E+0	1.894110E+0	1.967212E+0	1.898199E+0	2.515216E+0	2.191929E+0	2.075493E+0	1.969034E+0	2.193966E+0	2.305485E+0	2.141685E+0	2.186211E+0	2.199626E+0	2.192535E+0	2.048832E+0	2.338444E+0	2.283236E+0	1.927690E+0	1.868914E+0	2.162340E+0	2.397595E+0	2.050243E+0	1.934655E+0	2.206457E+0	2.193636E+0	2.103546E+0	2.172613E+0	2.201521E+0	2.198434E+0	2.165190E+0	2.072204E+0	2.240764E+0	2.122158E+0	1.941730E+0	1.952750E+0	1.924365E+0	2.376462E+0	1.723134E+0	1.814360E+0	2.098565E+0	2.173231E+0	1.952648E+0	2.082346E+0	2.343641E+0	2.234400E+0	1.805099E+0	2.201369E+0	2.293085E+0	2.290218E+0	1.802144E+0	1.965532E+0	1.990716E+0	2.233507E+0	2.049652E+0	2.157992E+0	2.107018E+0	2.262808E+0	2.124121E+0	2.248670E+0	2.262091E+0	1.959535E+0	2.054552E+0	1.855616E+0	2.219936E+0	2.213361E+0	1.818233E+0	1.939635E+0	1.974763E+0	2.325190E+0	2.091636E+0	2.147020E+0	2.035336E+0	2.246141E+0	2.136425E+0	2.178889E+0	2.053702E+0	2.342318E+0	2.092173E+0	2.222435E+0	2.106101E+0	2.155968E+0	1.904585E+0	1.829390E+0	2.013170E+0	2.206390E+0	2.073190E+0	1.671281E+0	1.831359E+0	2.250347E+0	2.061568E+0	2.225239E+0	2.141467E+0	2.122333E+0	2.156886E+0	2.210234E+0	2.186979E+0	2.120155E+0	1.924752E+0	2.084924E+0	2.025802E+0	1.983808E+0	1.809072E+0	1.805855E+0	2.071846E+0	2.075838E+0	2.221308E+0	2.161842E+0	2.148560E+0	2.259071E+0	2.095505E+0	2.096249E+0	2.253697E+0	2.161585E+0	1.859732E+0	1.926388E+0	2.133812E+0	2.278064E+0	1.983373E+0	2.168304E+0	2.124573E+0	2.112487E+0	2.066009E+0	2.303988E+0	2.124199E+0	2.075738E+0	2.039225E+0	2.132699E+0
5.351140E+2	1.863211E+0	2.068348E+0	2.386426E+0	2.348039E+0	1.962889E+0	2.153183E+0	2.235279E+0	2.358336E+0	1.901013E+0	2.158284E+0	2.155076E+0	2.309824E+0	2.151342E+0	1.859571E+0	1.909974E+0	1.960733E+0	2.321848E+0	2.175195E+0	2.115412E+0	2.134917E+0	2.156292E+0	2.251122E+0	2.114446E+0	2.178521E+0	2.129625E+0	2.367330E+0	2.143340E+0	2.172526E+0	2.275868E+0	2.077558E+0	1.907764E+0	1.885149E+0	2.450876E+0	2.152545E+0	2.077988E+0	2.016380E+0	2.342307E+0	2.161233E+0	2.126389E+0	2.172689E+0	2.046407E+0	1.885489E+0	2.077250E+0	2.080758E+0	2.284830E+0	2.040792E+0	1.864821E+0	1.888383E+0	2.442267E+0	2.172047E+0	1.996584E+0	1.953163E+0	2.159703E+0	2.158808E+0	2.178960E+0	2.202738E+0	2.236389E+0	2.166116E+0	2.022069E+0	2.270700E+0	2.224004E+0	1.940560E+0	1.832662E+0	2.096482E+0	2.396983E+0	2.054268E+0	1.885007E+0	2.242951E+0	2.250366E+0	2.105100E+0	2.146647E+0	2.236258E+0	2.244249E+0	2.178083E+0	2.076813E+0	2.208111E+0	2.140691E+0	1.969495E+0	1.928355E+0	1.860666E+0	2.372570E+0	1.700235E+0	1.852187E+0	2.069870E+0	2.183024E+0	1.940470E+0	2.113066E+0	2.233939E+0	2.241327E+0	1.702769E+0	2.154572E+0	2.252772E+0	2.227083E+0	1.785284E+0	1.933079E+0	2.020455E+0	2.284427E+0	2.031011E+0	2.061752E+0	2.092094E+0	2.254423E+0	2.114796E+0	2.178671E+0	2.393633E+0	1.890635E+0	2.087503E+0	1.903961E+0	2.207477E+0	2.175487E+0	1.767121E+0	1.941309E+0	1.908919E+0	2.277042E+0	2.048355E+0	2.092781E+0	2.086491E+0	2.194271E+0	2.070855E+0	2.186651E+0	2.074280E+0	2.214790E+0	2.074902E+0	2.271158E+0	2.177534E+0	2.172668E+0	1.842416E+0	1.746728E+0	2.000963E+0	2.237740E+0	1.986939E+0	1.609477E+0	1.842836E+0	2.180450E+0	2.123662E+0	2.118542E+0	2.110856E+0	2.171023E+0	2.053865E+0	2.223353E+0	2.153836E+0	2.166084E+0	1.913271E+0	2.042544E+0	2.032380E+0	1.932518E+0	1.810750E+0	1.803100E+0	2.026764E+0	2.126595E+0	2.216872E+0	2.077411E+0	2.205445E+0	2.184753E+0	2.172600E+0	2.043276E+0	2.234857E+0	2.164337E+0	1.906892E+0	1.868882E+0	2.071308E+0	2.330856E+0	1.995697E+0	2.110946E+0	2.013084E+0	2.113611E+0	2.056910E+0	2.281261E+0	2.050369E+0	2.271503E+0	1.973252E+0	2.064947E+0
5.352600E+2	1.642066E+0	1.895346E+0	2.181621E+0	2.083238E+0	1.780797E+0	1.982372E+0	2.050349E+0	2.128323E+0	1.733742E+0	1.939165E+0	1.929895E+0	2.039322E+0	1.930162E+0	1.673068E+0	1.728589E+0	1.851938E+0	2.132481E+0	1.965415E+0	1.882941E+0	1.897340E+0	2.011107E+0	2.032486E+0	1.952588E+0	1.959734E+0	1.912943E+0	2.114817E+0	2.028110E+0	1.939103E+0	2.085203E+0	1.959416E+0	1.715661E+0	1.682291E+0	2.184024E+0	2.028106E+0	1.993183E+0	1.814691E+0	2.094459E+0	1.990321E+0	2.019297E+0	1.959802E+0	1.847556E+0	1.689656E+0	1.873262E+0	1.861939E+0	2.127616E+0	1.782222E+0	1.759533E+0	1.711280E+0	2.242826E+0	1.949802E+0	1.817716E+0	1.769268E+0	1.996073E+0	2.067326E+0	1.887903E+0	1.958565E+0	1.984637E+0	1.897339E+0	1.858565E+0	2.041602E+0	2.032279E+0	1.722214E+0	1.652860E+0	1.928668E+0	2.118212E+0	1.870811E+0	1.781719E+0	1.955208E+0	2.072760E+0	1.927092E+0	1.910422E+0	2.008819E+0	1.964535E+0	1.924305E+0	1.929314E+0	2.004282E+0	1.969260E+0	1.761496E+0	1.711598E+0	1.709546E+0	2.079014E+0	1.594784E+0	1.603055E+0	1.981436E+0	2.002911E+0	1.752520E+0	1.897005E+0	2.137048E+0	2.072487E+0	1.604680E+0	2.016463E+0	2.098247E+0	2.055999E+0	1.584915E+0	1.706873E+0	1.810885E+0	2.006755E+0	1.882463E+0	1.866842E+0	1.869399E+0	2.050475E+0	1.939106E+0	2.004773E+0	2.028240E+0	1.743603E+0	1.833535E+0	1.779161E+0	2.003030E+0	1.919301E+0	1.637671E+0	1.772524E+0	1.776744E+0	2.047848E+0	1.924137E+0	2.002592E+0	1.815663E+0	2.046771E+0	1.887783E+0	1.980721E+0	1.873142E+0	2.105121E+0	1.887378E+0	2.016207E+0	1.919894E+0	1.887206E+0	1.733111E+0	1.590473E+0	1.798798E+0	2.013399E+0	1.905350E+0	1.487871E+0	1.655945E+0	1.989153E+0	1.914179E+0	1.971221E+0	1.976982E+0	1.914675E+0	1.914521E+0	2.004920E+0	1.955595E+0	1.924196E+0	1.737559E+0	1.849665E+0	1.857151E+0	1.757037E+0	1.677494E+0	1.583761E+0	1.966056E+0	1.966851E+0	2.007652E+0	1.975984E+0	1.938027E+0	2.035463E+0	1.936855E+0	1.931243E+0	2.053511E+0	2.011887E+0	1.678187E+0	1.701910E+0	1.935152E+0	2.106474E+0	1.836122E+0	1.989131E+0	1.914045E+0	1.886693E+0	1.907860E+0	2.089198E+0	1.906397E+0	1.984752E+0	1.881625E+0	1.922666E+0
5.354060E+2	1.320121E+0	1.634004E+0	1.807460E+0	1.786274E+0	1.506248E+0	1.643048E+0	1.690731E+0	1.731022E+0	1.473419E+0	1.589684E+0	1.586073E+0	1.721206E+0	1.659465E+0	1.364641E+0	1.484722E+0	1.538247E+0	1.695079E+0	1.708210E+0	1.549073E+0	1.561879E+0	1.727763E+0	1.683630E+0	1.631761E+0	1.650268E+0	1.643683E+0	1.799631E+0	1.663314E+0	1.703535E+0	1.744595E+0	1.681237E+0	1.422758E+0	1.403112E+0	1.839115E+0	1.662114E+0	1.623416E+0	1.487026E+0	1.770436E+0	1.650683E+0	1.621607E+0	1.642543E+0	1.531567E+0	1.421200E+0	1.596959E+0	1.520927E+0	1.821931E+0	1.446034E+0	1.446087E+0	1.424077E+0	1.865134E+0	1.676089E+0	1.593251E+0	1.570047E+0	1.670338E+0	1.722873E+0	1.620327E+0	1.641193E+0	1.738496E+0	1.606161E+0	1.561231E+0	1.696716E+0	1.706497E+0	1.425205E+0	1.442607E+0	1.602786E+0	1.772506E+0	1.544727E+0	1.419936E+0	1.645323E+0	1.625833E+0	1.536931E+0	1.654342E+0	1.674318E+0	1.601026E+0	1.650020E+0	1.603199E+0	1.677710E+0	1.702586E+0	1.422463E+0	1.444642E+0	1.475203E+0	1.804401E+0	1.389746E+0	1.305825E+0	1.587884E+0	1.692205E+0	1.567749E+0	1.561652E+0	1.710010E+0	1.699528E+0	1.326852E+0	1.657495E+0	1.756815E+0	1.667080E+0	1.352752E+0	1.473784E+0	1.526745E+0	1.654486E+0	1.601012E+0	1.612012E+0	1.635794E+0	1.716334E+0	1.655611E+0	1.735718E+0	1.758602E+0	1.458755E+0	1.532418E+0	1.457603E+0	1.678521E+0	1.664164E+0	1.371117E+0	1.543580E+0	1.479963E+0	1.753814E+0	1.609379E+0	1.680298E+0	1.565295E+0	1.746360E+0	1.628656E+0	1.669760E+0	1.554208E+0	1.661973E+0	1.583883E+0	1.662673E+0	1.640270E+0	1.636166E+0	1.422254E+0	1.351556E+0	1.477972E+0	1.669825E+0	1.611640E+0	1.238636E+0	1.457040E+0	1.709044E+0	1.652873E+0	1.614294E+0	1.634509E+0	1.672407E+0	1.528044E+0	1.729418E+0	1.634105E+0	1.652012E+0	1.451032E+0	1.515519E+0	1.497762E+0	1.451975E+0	1.366183E+0	1.399696E+0	1.580761E+0	1.568831E+0	1.613631E+0	1.574118E+0	1.695411E+0	1.756749E+0	1.653322E+0	1.598188E+0	1.628403E+0	1.734515E+0	1.425143E+0	1.399748E+0	1.578049E+0	1.733764E+0	1.515127E+0	1.596489E+0	1.576622E+0	1.605853E+0	1.547106E+0	1.714262E+0	1.681826E+0	1.695242E+0	1.545657E+0	1.624557E+0
5.355630E+2	1.115019E+0	1.314380E+0	1.457587E+0	1.487423E+0	1.243610E+0	1.291067E+0	1.427846E+0	1.420286E+0	1.218631E+0	1.389423E+0	1.309056E+0	1.410672E+0	1.341641E+0	1.313074E+0	1.173711E+0	1.222018E+0	1.437957E+0	1.442493E+0	1.323885E+0	1.326421E+0	1.409258E+0	1.451063E+0	1.384151E+0	1.337718E+0	1.387712E+0	1.473493E+0	1.366535E+0	1.333280E+0	1.429803E+0	1.374057E+0	1.204507E+0	1.160667E+0	1.506915E+0	1.388230E+0	1.291534E+0	1.210728E+0	1.522591E+0	1.438820E+0	1.365838E+0	1.330804E+0	1.261860E+0	1.186097E+0	1.305961E+0	1.290173E+0	1.449650E+0	1.178365E+0	1.184320E+0	1.176987E+0	1.568630E+0	1.329857E+0	1.251882E+0	1.265745E+0	1.394721E+0	1.358488E+0	1.350712E+0	1.358765E+0	1.365224E+0	1.325896E+0	1.281940E+0	1.436201E+0	1.365127E+0	1.212106E+0	1.186921E+0	1.314966E+0	1.469791E+0	1.283057E+0	1.197387E+0	1.373730E+0	1.378246E+0	1.285965E+0	1.360584E+0	1.431653E+0	1.394854E+0	1.331192E+0	1.315113E+0	1.419271E+0	1.389575E+0	1.211542E+0	1.210528E+0	1.168786E+0	1.472966E+0	1.338086E+0	1.185855E+0	1.245864E+0	1.417410E+0	1.269675E+0	1.354809E+0	1.438313E+0	1.452570E+0	1.104163E+0	1.347035E+0	1.450813E+0	1.409249E+0	1.103734E+0	1.229380E+0	1.269981E+0	1.438388E+0	1.278063E+0	1.277888E+0	1.308060E+0	1.407340E+0	1.330656E+0	1.442059E+0	1.457215E+0	1.178796E+0	1.331287E+0	1.185515E+0	1.426503E+0	1.353795E+0	1.136098E+0	1.214918E+0	1.216597E+0	1.420623E+0	1.286191E+0	1.352333E+0	1.278216E+0	1.403805E+0	1.328086E+0	1.406402E+0	1.256879E+0	1.448365E+0	1.356263E+0	1.379957E+0	1.348442E+0	1.325399E+0	1.189615E+0	1.098780E+0	1.262625E+0	1.407998E+0	1.349977E+0	1.020054E+0	1.194191E+0	1.413167E+0	1.304107E+0	1.410645E+0	1.404642E+0	1.373241E+0	1.355348E+0	1.435554E+0	1.405049E+0	1.380803E+0	1.246366E+0	1.284061E+0	1.334745E+0	1.193344E+0	1.124300E+0	1.142885E+0	1.357155E+0	1.348187E+0	1.372780E+0	1.314793E+0	1.412924E+0	1.419730E+0	1.372970E+0	1.272443E+0	1.402894E+0	1.387796E+0	1.224832E+0	1.214113E+0	1.353710E+0	1.442760E+0	1.299488E+0	1.387751E+0	1.249281E+0	1.387921E+0	1.290435E+0	1.402083E+0	1.350196E+0	1.345073E+0	1.245119E+0	1.231590E+0
5.357140E+2	9.104191E-1	1.116840E+0	1.287573E+0	1.158310E+0	1.070598E+0	1.130031E+0	1.201949E+0	1.240848E+0	9.760316E-1	1.199149E+0	1.075812E+0	1.233764E+0	1.173838E+0	1.134281E+0	1.003053E+0	1.058614E+0	1.225606E+0	1.285009E+0	1.074605E+0	1.158688E+0	1.166105E+0	1.188483E+0	1.135584E+0	1.142267E+0	1.135786E+0	1.339026E+0	1.124835E+0	1.194300E+0	1.219777E+0	1.260749E+0	9.591506E-1	1.001485E+0	1.199519E+0	1.244883E+0	1.142272E+0	1.058248E+0	1.234447E+0	1.155423E+0	1.107989E+0	1.126652E+0	1.096724E+0	1.024699E+0	1.087272E+0	1.090679E+0	1.222019E+0	1.115194E+0	1.012866E+0	1.025490E+0	1.305652E+0	1.248563E+0	1.091719E+0	1.056124E+0	1.147734E+0	1.203123E+0	1.157694E+0	1.182603E+0	1.181394E+0	1.157048E+0	1.079451E+0	1.240356E+0	1.138588E+0	1.170152E+0	1.031769E+0	1.149589E+0	1.245669E+0	1.195639E+0	9.993776E-1	1.197850E+0	1.156638E+0	1.113654E+0	1.096360E+0	1.173761E+0	1.166985E+0	1.154193E+0	1.079460E+0	1.177157E+0	1.146584E+0	1.127270E+0	1.037873E+0	9.837261E-1	1.221190E+0	1.189499E+0	9.232113E-1	1.153918E+0	1.167647E+0	1.133611E+0	1.146430E+0	1.201981E+0	1.218209E+0	9.132867E-1	1.122181E+0	1.216273E+0	1.235751E+0	9.327420E-1	1.009567E+0	1.085431E+0	1.206301E+0	1.106064E+0	1.168933E+0	1.136447E+0	1.188304E+0	1.151855E+0	1.184489E+0	1.241002E+0	1.001924E+0	1.069366E+0	1.025860E+0	1.178446E+0	1.139691E+0	9.517099E-1	1.012154E+0	1.021039E+0	1.211332E+0	1.104647E+0	1.147986E+0	1.115116E+0	1.193628E+0	1.100428E+0	1.181843E+0	1.109243E+0	1.197780E+0	1.108287E+0	1.200924E+0	1.193980E+0	1.169004E+0	1.037695E+0	9.664213E-1	1.078531E+0	1.205787E+0	1.097058E+0	8.974467E-1	1.011128E+0	1.195069E+0	1.106505E+0	1.162583E+0	1.163877E+0	1.162650E+0	1.147521E+0	1.217120E+0	1.173086E+0	1.180448E+0	1.012252E+0	1.101503E+0	1.072134E+0	1.022726E+0	9.753640E-1	9.433870E-1	1.162403E+0	1.137158E+0	1.242366E+0	1.154706E+0	1.191700E+0	1.254425E+0	1.174813E+0	1.092217E+0	1.220368E+0	1.203428E+0	9.890282E-1	1.049162E+0	1.149239E+0	1.268663E+0	1.077686E+0	1.196160E+0	1.125341E+0	1.206495E+0	1.131275E+0	1.243022E+0	1.212993E+0	1.145632E+0	1.127834E+0	1.199973E+0
5.358600E+2	8.512454E-1	9.965979E-1	1.076862E+0	1.022125E+0	9.435319E-1	9.597934E-1	1.017019E+0	1.033200E+0	8.768866E-1	1.005547E+0	9.594766E-1	1.052526E+0	9.492953E-1	9.781384E-1	9.009365E-1	9.134106E-1	1.044714E+0	1.058207E+0	9.121541E-1	9.184673E-1	9.922819E-1	1.055049E+0	9.978100E-1	9.908368E-1	1.004045E+0	1.149793E+0	9.972407E-1	9.866340E-1	1.058408E+0	1.050236E+0	8.502626E-1	8.484250E-1	1.142640E+0	1.094216E+0	9.330790E-1	9.117180E-1	1.097552E+0	1.007992E+0	9.655476E-1	9.726221E-1	9.184442E-1	8.450093E-1	9.943882E-1	9.446108E-1	1.106294E+0	9.888553E-1	9.133731E-1	8.518001E-1	1.113276E+0	1.041525E+0	9.525992E-1	8.946674E-1	9.748974E-1	1.025784E+0	1.036163E+0	1.018248E+0	1.050532E+0	1.052524E+0	9.438772E-1	1.067297E+0	1.010769E+0	1.006154E+0	8.495499E-1	9.895786E-1	1.038126E+0	1.049564E+0	8.835380E-1	9.812922E-1	1.020917E+0	9.573806E-1	9.772290E-1	1.024830E+0	1.072340E+0	1.021152E+0	9.031503E-1	1.029637E+0	9.839000E-1	1.043973E+0	8.633444E-1	8.651582E-1	1.118141E+0	1.033988E+0	8.470130E-1	9.495278E-1	9.679449E-1	9.742505E-1	9.708165E-1	1.094327E+0	1.047478E+0	8.714002E-1	9.909207E-1	1.067852E+0	1.019365E+0	9.601972E-1	8.915464E-1	9.660165E-1	1.044081E+0	9.911972E-1	9.897654E-1	9.814765E-1	1.025144E+0	1.016585E+0	1.024260E+0	1.050490E+0	8.527205E-1	9.324410E-1	8.521504E-1	9.994852E-1	1.005547E+0	8.819678E-1	9.207979E-1	8.687184E-1	1.013598E+0	9.843646E-1	9.833725E-1	9.459984E-1	1.076380E+0	1.020696E+0	1.043180E+0	9.600631E-1	1.038374E+0	9.608577E-1	1.051351E+0	1.024865E+0	9.893250E-1	8.286187E-1	8.182923E-1	9.779372E-1	1.017098E+0	9.472862E-1	7.587589E-1	9.012902E-1	1.040562E+0	9.785516E-1	1.062384E+0	9.895279E-1	1.030077E+0	9.915009E-1	1.028862E+0	1.006818E+0	1.017237E+0	8.744784E-1	9.830577E-1	9.424723E-1	9.114996E-1	8.225082E-1	8.530070E-1	1.017541E+0	9.870322E-1	1.039805E+0	1.022577E+0	9.724187E-1	1.037861E+0	1.012975E+0	9.473053E-1	1.006048E+0	1.057586E+0	8.830429E-1	8.937915E-1	9.723814E-1	1.082622E+0	9.686345E-1	1.036501E+0	1.013262E+0	9.610400E-1	1.001424E+0	1.061236E+0	9.607346E-1	9.976606E-1	9.299185E-1	9.831648E-1
5.360070E+2	8.031046E-1	8.254369E-1	9.475462E-1	9.073756E-1	8.005842E-1	8.413166E-1	8.872832E-1	8.848829E-1	7.528174E-1	8.413461E-1	8.160739E-1	9.134884E-1	8.512086E-1	8.542852E-1	7.671132E-1	7.563536E-1	9.612257E-1	9.220040E-1	7.933968E-1	7.845999E-1	8.566394E-1	9.087551E-1	8.224630E-1	8.442463E-1	8.665251E-1	9.185764E-1	7.791497E-1	8.481898E-1	8.950546E-1	9.294062E-1	7.561151E-1	7.529164E-1	9.266171E-1	9.246390E-1	8.414859E-1	7.992517E-1	8.894500E-1	8.720282E-1	8.797714E-1	8.001980E-1	8.053055E-1	7.266501E-1	8.039171E-1	8.013848E-1	9.501765E-1	8.587685E-1	7.390218E-1	7.152390E-1	9.285472E-1	8.812751E-1	8.164020E-1	7.638610E-1	8.506384E-1	9.031310E-1	8.518232E-1	9.048988E-1	8.642090E-1	8.727639E-1	8.013207E-1	9.176417E-1	8.949021E-1	8.793420E-1	7.113150E-1	8.417635E-1	9.116352E-1	8.988864E-1	7.505789E-1	8.353245E-1	8.268775E-1	8.564764E-1	8.524984E-1	8.811327E-1	9.174115E-1	8.781482E-1	8.415001E-1	9.012613E-1	8.783632E-1	9.168355E-1	7.540289E-1	7.493802E-1	9.482472E-1	9.706119E-1	7.367678E-1	8.353268E-1	8.857783E-1	8.101250E-1	8.412832E-1	9.410457E-1	9.044687E-1	7.653579E-1	8.476762E-1	9.554688E-1	8.579176E-1	8.518227E-1	7.774598E-1	8.078983E-1	8.895555E-1	8.787370E-1	7.997006E-1	7.880510E-1	8.943939E-1	8.906454E-1	8.952025E-1	8.821573E-1	7.452938E-1	8.722158E-1	7.813176E-1	8.930144E-1	8.803470E-1	8.690704E-1	7.759663E-1	7.414573E-1	8.813476E-1	9.230992E-1	8.326336E-1	8.244253E-1	9.159090E-1	8.769682E-1	8.848530E-1	7.985383E-1	8.987328E-1	7.961569E-1	9.000791E-1	8.203394E-1	8.648156E-1	8.496762E-1	7.122130E-1	8.270466E-1	8.486914E-1	9.222272E-1	6.431867E-1	7.706872E-1	8.618793E-1	8.581556E-1	8.506118E-1	8.841923E-1	8.799062E-1	8.753790E-1	8.819280E-1	8.882201E-1	8.662389E-1	7.996019E-1	8.173437E-1	7.902612E-1	7.673374E-1	7.553192E-1	6.948426E-1	8.402200E-1	8.668255E-1	8.672136E-1	8.844188E-1	8.474627E-1	9.282973E-1	8.594196E-1	8.620623E-1	9.206736E-1	8.968849E-1	7.314175E-1	8.261958E-1	8.357423E-1	9.770308E-1	8.466437E-1	8.602847E-1	8.744966E-1	8.818427E-1	8.513618E-1	8.870222E-1	8.813662E-1	8.836948E-1	7.833144E-1	8.815352E-1
5.362680E+2	5.839622E-1	5.812727E-1	6.613457E-1	7.100335E-1	6.099870E-1	6.492244E-1	6.818688E-1	6.889083E-1	5.550819E-1	7.170856E-1	6.749739E-1	7.089883E-1	6.757104E-1	6.369384E-1	5.666120E-1	5.844806E-1	6.950308E-1	7.420217E-1	6.247831E-1	6.417362E-1	6.009283E-1	6.799366E-1	6.191757E-1	6.716845E-1	6.203777E-1	7.238683E-1	6.414379E-1	6.415979E-1	6.870141E-1	7.317817E-1	5.549807E-1	5.606738E-1	7.281431E-1	7.111436E-1	6.221144E-1	6.283887E-1	7.398589E-1	6.705384E-1	6.380376E-1	6.691562E-1	6.167408E-1	5.512640E-1	6.075674E-1	6.342873E-1	7.050812E-1	6.483811E-1	6.211776E-1	5.701431E-1	7.373471E-1	6.444098E-1	6.118146E-1	6.051419E-1	6.368923E-1	6.864409E-1	6.695271E-1	6.475032E-1	6.716550E-1	6.998956E-1	6.279258E-1	7.304181E-1	6.771953E-1	6.705313E-1	5.585788E-1	6.417502E-1	7.384772E-1	6.837981E-1	6.164793E-1	6.839733E-1	6.800223E-1	6.593255E-1	6.447832E-1	6.741525E-1	6.684418E-1	6.906017E-1	6.179452E-1	6.726609E-1	6.163210E-1	6.815577E-1	5.813754E-1	5.666461E-1	7.165232E-1	7.511922E-1	5.222228E-1	6.672465E-1	6.561491E-1	6.428234E-1	6.160078E-1	7.031787E-1	6.858598E-1	5.941000E-1	6.935874E-1	6.916099E-1	6.979164E-1	6.572305E-1	5.994455E-1	6.011647E-1	6.959557E-1	7.277870E-1	6.193220E-1	6.388209E-1	6.982681E-1	7.139153E-1	6.709917E-1	7.198711E-1	5.933773E-1	6.750653E-1	6.014243E-1	6.953636E-1	6.630877E-1	6.493344E-1	5.659594E-1	6.166524E-1	7.015907E-1	7.151348E-1	6.787427E-1	6.408635E-1	6.976254E-1	6.351484E-1	6.670252E-1	6.313539E-1	6.940556E-1	6.697013E-1	6.728876E-1	6.530559E-1	6.497088E-1	6.882308E-1	5.640845E-1	6.141406E-1	6.735238E-1	6.593999E-1	4.919372E-1	5.892625E-1	6.900288E-1	6.853910E-1	6.653782E-1	6.496538E-1	6.605162E-1	7.211455E-1	6.615284E-1	6.184703E-1	6.639316E-1	6.663213E-1	6.054465E-1	6.338218E-1	5.994174E-1	6.282193E-1	5.361258E-1	6.610959E-1	6.157266E-1	6.618797E-1	6.662155E-1	6.957655E-1	6.809792E-1	7.033160E-1	6.526100E-1	7.004655E-1	6.508786E-1	6.954128E-1	5.598493E-1	6.283613E-1	7.325372E-1	6.710512E-1	6.763816E-1	6.260245E-1	6.992954E-1	6.659320E-1	7.360749E-1	6.266469E-1	6.916067E-1	6.379322E-1	6.173001E-1
5.365140E+2	5.032250E-1	5.426223E-1	5.963597E-1	6.072637E-1	5.288696E-1	5.140692E-1	5.805845E-1	5.965130E-1	4.719995E-1	5.456733E-1	5.165968E-1	5.639986E-1	5.540630E-1	5.227237E-1	4.402492E-1	5.129376E-1	5.746385E-1	6.149395E-1	4.780173E-1	5.068102E-1	5.170312E-1	6.075929E-1	5.512525E-1	5.444646E-1	5.475736E-1	6.545037E-1	5.458827E-1	5.493024E-1	5.435205E-1	5.835634E-1	4.579798E-1	4.737357E-1	6.101477E-1	5.873160E-1	5.576607E-1	5.099742E-1	5.565962E-1	5.804420E-1	5.559004E-1	5.325966E-1	5.350294E-1	4.694892E-1	5.270287E-1	5.524438E-1	6.150131E-1	5.177594E-1	4.801509E-1	4.672953E-1	5.926231E-1	6.262790E-1	5.264726E-1	5.049834E-1	5.274622E-1	5.821841E-1	5.495276E-1	5.634364E-1	5.121280E-1	5.924992E-1	5.359914E-1	5.863053E-1	5.498964E-1	5.818580E-1	4.715780E-1	5.422312E-1	6.347059E-1	5.716528E-1	5.046344E-1	5.266394E-1	5.649771E-1	5.325491E-1	5.434709E-1	5.813685E-1	5.496832E-1	5.886231E-1	5.315196E-1	5.240150E-1	5.643248E-1	5.855964E-1	4.687757E-1	4.615625E-1	6.034468E-1	5.898229E-1	4.584536E-1	5.413325E-1	5.745272E-1	5.628785E-1	5.458655E-1	5.857825E-1	5.585991E-1	4.843472E-1	5.372163E-1	5.841123E-1	5.596026E-1	5.589709E-1	4.873260E-1	5.025172E-1	5.609681E-1	5.804459E-1	5.339747E-1	5.653532E-1	6.133354E-1	5.667268E-1	5.545113E-1	6.291522E-1	5.087386E-1	5.449577E-1	4.962993E-1	5.481173E-1	5.947013E-1	5.652619E-1	5.225098E-1	5.252601E-1	5.744759E-1	5.824874E-1	5.418794E-1	5.301240E-1	5.765965E-1	5.748246E-1	5.599213E-1	5.212702E-1	6.232792E-1	5.802568E-1	5.601420E-1	5.913939E-1	6.051687E-1	5.739157E-1	4.565707E-1	5.238016E-1	5.868617E-1	5.760643E-1	4.256090E-1	4.717746E-1	5.975348E-1	5.763327E-1	5.597626E-1	5.738954E-1	5.373294E-1	5.514292E-1	5.782220E-1	5.504506E-1	5.696197E-1	5.669844E-1	5.065611E-1	5.224826E-1	5.200473E-1	5.302354E-1	4.760566E-1	5.348676E-1	5.297117E-1	5.692014E-1	5.494380E-1	6.063028E-1	5.682125E-1	5.816191E-1	5.028276E-1	5.944829E-1	5.820857E-1	5.392238E-1	4.892270E-1	5.222484E-1	6.445450E-1	5.700082E-1	5.924133E-1	5.738391E-1	5.790952E-1	5.340586E-1	5.894552E-1	6.014212E-1	5.721262E-1	5.866209E-1	5.653569E-1
5.367710E+2	4.931960E-1	5.346475E-1	5.550050E-1	5.448453E-1	4.681734E-1	4.968150E-1	5.686354E-1	5.405903E-1	4.930470E-1	5.251482E-1	5.056546E-1	5.288330E-1	5.324260E-1	5.289882E-1	4.700908E-1	4.782245E-1	5.728230E-1	6.064270E-1	5.373961E-1	5.258585E-1	5.155242E-1	5.470393E-1	5.122329E-1	5.193724E-1	5.608628E-1	5.790542E-1	5.723006E-1	5.621809E-1	5.678497E-1	5.765825E-1	4.579801E-1	4.467972E-1	5.538725E-1	5.873160E-1	5.084718E-1	4.483340E-1	5.897160E-1	5.356665E-1	5.330267E-1	5.123658E-1	4.824595E-1	4.603435E-1	5.258528E-1	5.120903E-1	5.877197E-1	5.530915E-1	4.700085E-1	4.293141E-1	6.143905E-1	5.677944E-1	4.943234E-1	4.677668E-1	5.059851E-1	5.596973E-1	5.250172E-1	5.369884E-1	5.763125E-1	5.655061E-1	5.121351E-1	5.548961E-1	5.415826E-1	5.646952E-1	4.628781E-1	5.461341E-1	5.898814E-1	5.768284E-1	4.395818E-1	5.242461E-1	5.570250E-1	5.330658E-1	5.343066E-1	5.394963E-1	5.183362E-1	5.628352E-1	5.257575E-1	5.769422E-1	5.262280E-1	5.709822E-1	5.095928E-1	4.536581E-1	5.967625E-1	5.775738E-1	4.454837E-1	5.425040E-1	5.560265E-1	5.252889E-1	5.161703E-1	5.581000E-1	5.491490E-1	4.520043E-1	5.406407E-1	5.828906E-1	5.620121E-1	5.329611E-1	5.133888E-1	4.926056E-1	5.704406E-1	5.599983E-1	4.698131E-1	5.263239E-1	5.311979E-1	5.511788E-1	5.610739E-1	5.858088E-1	4.436316E-1	5.114363E-1	4.726878E-1	5.401883E-1	5.315750E-1	5.337349E-1	4.679191E-1	4.790727E-1	5.725499E-1	5.852982E-1	5.639542E-1	5.433648E-1	5.333723E-1	5.365320E-1	5.045588E-1	5.017228E-1	5.818334E-1	5.358432E-1	5.080178E-1	5.144677E-1	5.307671E-1	5.453368E-1	4.689950E-1	5.086640E-1	5.739549E-1	5.760644E-1	3.994791E-1	4.805179E-1	5.455067E-1	5.455594E-1	5.727617E-1	5.489885E-1	5.297036E-1	5.895414E-1	5.919976E-1	5.510322E-1	5.569144E-1	5.525083E-1	5.418770E-1	4.900669E-1	4.757728E-1	4.921615E-1	4.595235E-1	5.354687E-1	5.275744E-1	5.569926E-1	5.340872E-1	5.887995E-1	5.406611E-1	5.497611E-1	4.985654E-1	5.721088E-1	5.958444E-1	5.255321E-1	4.897315E-1	5.275779E-1	5.936352E-1	5.348900E-1	5.669860E-1	5.151306E-1	5.279817E-1	5.381011E-1	5.694365E-1	5.589677E-1	5.463929E-1	5.646295E-1	5.676158E-1
5.370170E+2	5.282988E-1	5.450767E-1	5.786366E-1	5.952848E-1	5.458870E-1	5.750323E-1	5.515648E-1	5.858152E-1	4.897238E-1	5.850591E-1	5.834028E-1	6.240501E-1	5.444462E-1	5.313980E-1	5.549544E-1	5.188637E-1	6.042830E-1	6.161559E-1	5.934139E-1	5.380287E-1	5.652598E-1	6.124162E-1	5.695580E-1	5.453448E-1	5.666412E-1	6.198210E-1	5.964710E-1	5.814986E-1	5.743049E-1	6.184702E-1	5.545051E-1	4.855722E-1	5.786823E-1	6.147654E-1	6.023263E-1	4.905090E-1	5.670841E-1	5.848102E-1	5.850122E-1	5.693802E-1	5.116015E-1	5.119907E-1	5.440769E-1	5.416448E-1	6.532234E-1	5.889588E-1	5.279644E-1	4.886329E-1	6.455710E-1	5.438149E-1	5.428398E-1	5.356334E-1	6.026311E-1	5.867839E-1	5.699529E-1	5.794944E-1	5.339384E-1	5.769926E-1	5.470470E-1	5.930795E-1	6.060113E-1	5.451490E-1	4.478948E-1	5.461340E-1	6.119866E-1	5.877558E-1	5.217533E-1	5.990249E-1	5.708096E-1	5.915391E-1	5.495797E-1	5.851746E-1	5.786191E-1	5.792458E-1	5.343998E-1	6.084731E-1	5.529988E-1	5.977742E-1	5.053706E-1	4.876008E-1	6.324118E-1	6.244406E-1	5.676174E-1	5.384042E-1	5.516731E-1	5.618196E-1	5.786329E-1	6.380723E-1	6.272692E-1	5.055550E-1	5.366458E-1	6.018243E-1	5.793618E-1	5.435577E-1	5.522372E-1	5.355570E-1	5.970832E-1	5.648095E-1	5.527390E-1	5.911817E-1	5.792513E-1	5.910858E-1	5.659955E-1	6.009287E-1	5.141640E-1	5.847289E-1	4.828070E-1	5.945563E-1	5.489352E-1	5.901017E-1	4.946575E-1	5.178894E-1	6.239093E-1	6.105912E-1	5.765681E-1	5.451702E-1	6.192812E-1	5.527931E-1	5.609563E-1	5.382456E-1	6.169027E-1	5.648353E-1	6.020675E-1	5.877308E-1	5.859355E-1	5.493484E-1	5.119999E-1	5.267314E-1	5.923938E-1	5.993749E-1	4.306339E-1	4.936325E-1	6.185568E-1	5.547376E-1	5.879270E-1	5.754517E-1	5.778051E-1	5.508338E-1	5.880615E-1	5.923083E-1	5.652222E-1	5.759696E-1	5.293803E-1	5.267103E-1	5.065486E-1	5.599105E-1	4.832210E-1	5.709325E-1	5.564242E-1	6.113780E-1	5.730132E-1	5.951197E-1	6.290809E-1	5.797071E-1	5.734570E-1	5.921282E-1	6.156567E-1	6.056549E-1	5.310958E-1	5.527743E-1	6.514588E-1	5.952691E-1	5.930044E-1	5.768038E-1	5.526960E-1	6.078271E-1	6.311145E-1	5.700427E-1	5.372017E-1	5.182060E-1	5.518070E-1
5.372640E+2	6.025163E-1	6.677731E-1	7.158287E-1	7.087721E-1	6.167940E-1	6.147166E-1	6.790237E-1	6.830725E-1	5.611743E-1	6.505175E-1	6.277488E-1	7.181855E-1	6.228200E-1	6.104329E-1	6.715256E-1	5.865972E-1	6.895859E-1	6.587193E-1	6.488710E-1	6.221590E-1	6.566925E-1	6.852950E-1	6.784279E-1	6.285442E-1	6.625577E-1	7.421223E-1	6.925877E-1	6.410615E-1	6.780765E-1	6.834499E-1	6.477017E-1	5.745509E-1	7.408498E-1	7.032135E-1	6.826119E-1	5.467420E-1	6.813473E-1	6.497890E-1	6.557128E-1	6.778921E-1	5.944555E-1	5.792400E-1	6.645911E-1	6.030276E-1	7.018064E-1	6.697950E-1	6.955543E-1	5.581933E-1	7.561729E-1	6.853497E-1	6.521475E-1	6.084253E-1	6.450740E-1	6.603763E-1	6.271439E-1	6.503368E-1	6.473522E-1	6.832405E-1	6.459639E-1	6.639044E-1	6.813515E-1	7.024725E-1	6.204468E-1	6.256515E-1	7.532145E-1	6.469917E-1	6.461526E-1	6.684191E-1	6.476827E-1	6.453542E-1	6.458008E-1	6.660635E-1	6.473427E-1	6.448873E-1	6.288926E-1	7.171426E-1	6.297065E-1	6.557410E-1	6.104634E-1	5.731560E-1	7.198655E-1	7.064558E-1	6.654329E-1	6.133670E-1	6.577818E-1	6.052336E-1	6.533834E-1	6.872864E-1	6.745194E-1	5.299446E-1	6.422250E-1	6.909992E-1	6.636995E-1	6.244775E-1	5.861684E-1	6.002203E-1	6.704972E-1	6.790742E-1	6.374811E-1	6.170101E-1	7.038556E-1	6.957761E-1	6.890383E-1	7.007195E-1	5.483450E-1	6.381353E-1	5.699428E-1	6.795062E-1	6.630883E-1	6.158965E-1	5.798855E-1	5.763609E-1	7.099365E-1	7.044560E-1	6.484686E-1	6.240113E-1	7.068103E-1	6.813094E-1	6.515027E-1	6.560458E-1	7.125466E-1	6.493447E-1	6.530579E-1	6.786984E-1	6.653989E-1	6.676748E-1	5.545272E-1	6.053508E-1	7.079423E-1	7.205906E-1	5.115346E-1	5.761480E-1	6.637522E-1	6.556969E-1	6.680861E-1	6.418699E-1	6.792874E-1	6.979211E-1	6.366024E-1	6.736988E-1	6.541587E-1	6.463542E-1	6.603228E-1	5.985873E-1	5.778199E-1	5.884657E-1	5.377796E-1	6.454675E-1	6.867819E-1	6.868524E-1	6.453817E-1	6.928483E-1	6.841833E-1	6.612637E-1	6.172954E-1	6.727927E-1	6.750945E-1	6.933843E-1	6.012134E-1	6.109182E-1	6.791130E-1	6.772126E-1	6.491806E-1	6.491518E-1	6.852533E-1	6.416793E-1	7.209260E-1	6.764832E-1	6.879303E-1	6.599232E-1	6.737605E-1
5.375060E+2	6.461446E-1	7.039684E-1	8.011638E-1	8.014542E-1	7.052858E-1	7.400941E-1	7.512889E-1	7.866523E-1	6.492412E-1	7.487054E-1	7.164398E-1	8.117795E-1	6.968662E-1	7.265758E-1	7.778380E-1	6.835403E-1	7.718649E-1	7.888414E-1	7.418601E-1	7.385656E-1	7.400879E-1	7.833606E-1	7.343077E-1	7.183465E-1	7.053152E-1	8.096618E-1	7.662220E-1	7.279916E-1	7.997233E-1	8.075020E-1	7.432765E-1	6.316929E-1	8.328261E-1	8.020317E-1	8.115201E-1	6.721857E-1	7.945068E-1	7.584515E-1	8.246665E-1	7.404248E-1	6.967377E-1	6.561733E-1	7.615906E-1	7.161307E-1	8.268104E-1	7.575901E-1	7.457833E-1	6.414105E-1	8.344185E-1	7.490984E-1	8.012044E-1	7.069403E-1	7.345604E-1	7.620775E-1	7.456112E-1	7.514060E-1	7.707363E-1	7.366516E-1	7.541897E-1	7.944679E-1	7.998173E-1	7.863784E-1	7.562652E-1	7.237066E-1	8.152319E-1	7.602866E-1	7.910948E-1	7.437951E-1	7.287976E-1	7.529849E-1	7.369305E-1	7.931065E-1	7.214909E-1	7.790999E-1	7.349076E-1	7.486733E-1	7.748848E-1	7.560868E-1	7.676343E-1	6.852140E-1	8.268150E-1	7.836794E-1	8.308003E-1	7.281534E-1	7.872883E-1	7.587697E-1	7.957164E-1	8.036571E-1	7.986292E-1	6.444701E-1	7.597884E-1	8.143777E-1	7.875563E-1	6.943183E-1	7.533641E-1	6.913151E-1	7.918675E-1	7.975486E-1	8.257293E-1	7.375428E-1	7.742594E-1	7.792178E-1	7.902064E-1	8.100858E-1	6.753039E-1	7.216546E-1	6.801270E-1	7.854111E-1	7.309489E-1	7.558586E-1	6.963083E-1	6.854423E-1	8.068773E-1	8.292342E-1	7.550573E-1	7.130848E-1	7.667843E-1	7.500257E-1	7.311831E-1	7.440102E-1	8.356084E-1	7.720992E-1	7.437076E-1	7.128876E-1	7.534664E-1	7.373669E-1	6.429268E-1	6.673671E-1	7.841563E-1	7.887740E-1	5.728379E-1	6.313402E-1	7.509914E-1	7.339810E-1	7.666609E-1	7.311187E-1	7.455735E-1	7.533025E-1	8.104292E-1	7.521827E-1	7.802341E-1	7.776376E-1	7.146549E-1	7.376447E-1	6.588100E-1	7.228441E-1	6.959443E-1	7.392378E-1	7.524955E-1	7.689860E-1	7.446147E-1	7.944658E-1	7.572252E-1	7.734032E-1	7.092359E-1	7.605224E-1	7.917681E-1	7.897350E-1	6.703223E-1	7.296294E-1	8.249297E-1	7.819512E-1	7.627159E-1	7.280224E-1	7.256942E-1	7.391942E-1	7.955882E-1	7.915377E-1	7.495091E-1	7.576592E-1	7.392558E-1
5.377580E+2	7.629872E-1	8.094869E-1	8.851857E-1	9.067450E-1	7.642802E-1	8.459180E-1	9.140271E-1	9.038479E-1	6.824744E-1	8.995934E-1	8.707853E-1	9.356692E-1	8.382267E-1	8.547669E-1	8.925434E-1	7.610098E-1	8.674526E-1	9.250444E-1	9.048714E-1	7.883034E-1	8.491036E-1	8.830333E-1	8.677450E-1	7.887800E-1	8.145218E-1	9.988939E-1	9.213583E-1	8.337017E-1	9.005162E-1	9.277950E-1	8.688067E-1	7.382227E-1	9.217762E-1	9.069501E-1	8.991552E-1	7.705941E-1	9.181536E-1	8.545545E-1	8.735332E-1	8.379009E-1	8.184477E-1	7.600062E-1	8.803413E-1	8.218455E-1	9.305261E-1	7.966699E-1	8.641108E-1	7.310288E-1	9.203109E-1	9.070084E-1	9.029132E-1	8.246123E-1	8.659786E-1	8.903544E-1	8.707162E-1	8.373622E-1	8.461376E-1	9.278977E-1	8.827816E-1	9.071718E-1	8.704816E-1	8.817259E-1	8.771000E-1	8.407880E-1	9.153191E-1	8.701313E-1	8.527235E-1	8.813880E-1	8.464938E-1	8.373308E-1	8.881355E-1	8.906486E-1	8.715965E-1	8.693568E-1	8.893228E-1	8.657883E-1	8.248219E-1	8.530233E-1	8.600605E-1	7.354309E-1	9.398916E-1	9.477110E-1	8.902462E-1	8.628521E-1	8.525858E-1	8.095958E-1	8.991381E-1	9.107995E-1	8.761188E-1	6.996120E-1	9.155887E-1	9.182106E-1	8.993643E-1	8.373729E-1	9.707182E-1	7.762741E-1	9.327754E-1	8.733246E-1	9.001807E-1	8.110099E-1	8.848952E-1	8.761335E-1	9.367635E-1	9.431405E-1	8.017196E-1	8.364223E-1	7.312845E-1	8.975448E-1	8.240593E-1	8.313331E-1	8.907175E-1	7.655333E-1	8.890518E-1	9.787436E-1	9.221940E-1	8.147957E-1	8.910548E-1	8.969012E-1	9.169323E-1	8.242585E-1	9.236008E-1	8.485900E-1	8.921471E-1	8.307187E-1	8.946777E-1	8.902885E-1	8.049131E-1	7.586824E-1	8.806518E-1	8.592883E-1	7.210727E-1	7.406318E-1	8.723904E-1	8.451988E-1	8.646943E-1	8.919762E-1	8.939850E-1	9.188502E-1	9.186615E-1	8.690358E-1	8.799215E-1	8.904522E-1	8.434231E-1	8.391191E-1	7.937941E-1	8.465843E-1	8.612731E-1	8.155757E-1	8.203453E-1	8.672139E-1	8.745502E-1	8.965698E-1	9.026689E-1	8.632430E-1	8.054374E-1	8.788692E-1	8.946838E-1	9.033265E-1	7.818046E-1	8.216913E-1	9.669742E-1	8.700556E-1	8.614676E-1	8.015560E-1	9.020631E-1	8.463093E-1	9.389618E-1	8.247621E-1	8.662321E-1	8.553944E-1	9.312218E-1
5.380160E+2	9.141215E-1	9.567118E-1	1.022498E+0	1.051694E+0	1.000986E+0	1.162632E+0	9.938411E-1	1.007719E+0	1.105114E+0	1.082470E+0	9.401063E-1	9.790311E-1	9.800518E-1	9.756403E-1	9.561906E-1	9.793304E-1	1.076597E+0	1.116884E+0	1.000055E+0	1.035271E+0	1.111395E+0	1.082281E+0	9.237694E-1	9.862420E-1	1.058080E+0	1.140229E+0	9.838817E-1	9.432673E-1	9.900463E-1	1.051722E+0	9.730191E-1	9.583292E-1	1.092507E+0	1.095364E+0	1.012186E+0	1.037756E+0	1.122374E+0	1.142390E+0	9.952575E-1	9.934037E-1	9.938990E-1	1.139928E+0	9.240201E-1	9.548124E-1	1.027891E+0	9.740627E-1	9.397272E-1	9.808999E-1	1.108863E+0	1.056204E+0	9.788940E-1	9.777401E-1	1.117822E+0	1.149258E+0	9.364778E-1	9.413671E-1	1.058238E+0	1.185448E+0	9.427618E-1	1.054056E+0	1.011523E+0	9.757535E-1	1.010502E+0	1.088788E+0	1.110622E+0	1.085469E+0	9.640739E-1	1.040556E+0	1.121895E+0	1.137309E+0	1.002718E+0	9.735046E-1	1.061047E+0	1.090955E+0	1.007006E+0	1.020159E+0	9.932013E-1	9.844476E-1	9.810964E-1	1.009958E+0	9.891695E-1	1.060607E+0	1.038312E+0	1.054417E+0	1.086215E+0	1.139381E+0	9.504905E-1	1.029033E+0	1.055028E+0	1.143239E+0	1.006701E+0	1.030788E+0	1.016641E+0	9.725439E-1	1.000207E+0	1.004154E+0	9.715552E-1	1.054474E+0	9.843679E-1	1.004511E+0	1.150633E+0	1.093427E+0	1.027843E+0	1.021209E+0	9.283795E-1	1.062682E+0	1.076370E+0	1.014738E+0	9.161800E-1	9.625292E-1	1.020315E+0	1.003423E+0	1.075733E+0	9.794373E-1	9.776755E-1	9.980775E-1	1.156832E+0	1.009383E+0	9.758047E-1	9.156691E-1	1.104602E+0	9.891922E-1	1.007055E+0	1.008645E+0	9.916279E-1	9.788412E-1	9.575971E-1	1.030872E+0	1.036807E+0	1.020345E+0	7.772174E-1	8.799325E-1	1.203653E+0	9.277573E-1	1.006137E+0	9.994904E-1	1.077416E+0	9.799081E-1	1.081667E+0	1.002603E+0	9.754963E-1	9.640229E-1	1.032401E+0	1.072720E+0	8.753694E-1	8.990857E-1	1.032233E+0	1.068453E+0	1.075603E+0	1.000570E+0	9.764335E-1	9.978796E-1	1.100448E+0	9.693399E-1	9.479444E-1	1.029679E+0	9.715397E-1	9.692595E-1	9.664318E-1	1.103869E+0	1.126052E+0	9.700916E-1	1.065506E+0	1.011740E+0	1.130490E+0	9.578959E-1	1.022164E+0	9.675745E-1	1.094701E+0	9.562867E-1	9.684107E-1
5.382740E+2	1.108500E+0	1.211929E+0	1.269193E+0	1.256035E+0	1.283885E+0	1.334202E+0	1.144478E+0	1.220420E+0	1.302821E+0	1.316755E+0	1.148953E+0	1.220239E+0	1.176242E+0	1.179582E+0	1.183039E+0	1.226676E+0	1.263720E+0	1.242445E+0	1.235374E+0	1.227475E+0	1.403728E+0	1.402295E+0	1.194353E+0	1.190249E+0	1.221302E+0	1.365796E+0	1.210835E+0	1.186250E+0	1.295245E+0	1.244100E+0	1.172172E+0	1.126382E+0	1.302993E+0	1.279041E+0	1.193722E+0	1.170174E+0	1.361407E+0	1.402233E+0	1.225995E+0	1.193785E+0	1.144722E+0	1.280245E+0	1.135478E+0	1.140127E+0	1.260775E+0	1.199243E+0	1.190597E+0	1.156500E+0	1.385073E+0	1.254996E+0	1.130883E+0	1.183099E+0	1.355344E+0	1.390683E+0	1.128587E+0	1.225108E+0	1.349022E+0	1.372417E+0	1.142874E+0	1.210178E+0	1.257575E+0	1.221164E+0	1.175322E+0	1.279355E+0	1.386896E+0	1.275005E+0	1.193395E+0	1.333051E+0	1.363933E+0	1.389457E+0	1.189524E+0	1.246084E+0	1.280919E+0	1.312435E+0	1.135924E+0	1.175468E+0	1.199095E+0	1.223718E+0	1.176747E+0	1.179944E+0	1.288592E+0	1.316782E+0	1.215578E+0	1.265779E+0	1.392380E+0	1.416858E+0	1.178684E+0	1.301435E+0	1.353660E+0	1.363436E+0	1.192948E+0	1.262081E+0	1.165390E+0	1.194768E+0	1.241183E+0	1.207680E+0	1.218144E+0	1.213714E+0	1.250044E+0	1.231724E+0	1.342521E+0	1.389219E+0	1.218943E+0	1.219330E+0	1.069201E+0	1.314810E+0	1.332801E+0	1.243010E+0	1.161258E+0	1.147085E+0	1.212690E+0	1.192524E+0	1.267185E+0	1.269895E+0	1.197811E+0	1.224652E+0	1.407047E+0	1.366377E+0	1.133726E+0	1.140622E+0	1.298524E+0	1.306297E+0	1.220187E+0	1.219011E+0	1.177608E+0	1.228721E+0	1.128406E+0	1.227466E+0	1.219308E+0	1.306852E+0	1.003974E+0	1.134081E+0	1.385313E+0	1.378610E+0	1.179374E+0	1.204350E+0	1.281730E+0	1.369046E+0	1.276156E+0	1.182388E+0	1.183384E+0	1.189961E+0	1.305249E+0	1.234681E+0	1.079419E+0	1.068870E+0	1.287271E+0	1.238741E+0	1.325751E+0	1.281211E+0	1.167864E+0	1.195590E+0	1.267880E+0	1.227697E+0	1.161628E+0	1.263940E+0	1.233697E+0	1.186294E+0	1.137944E+0	1.287331E+0	1.276834E+0	1.187971E+0	1.253518E+0	1.233863E+0	1.387358E+0	1.219193E+0	1.287388E+0	1.179769E+0	1.313824E+0	1.086297E+0	1.224816E+0
5.385060E+2	1.272982E+0	1.429715E+0	1.509445E+0	1.447073E+0	1.549928E+0	1.617163E+0	1.362978E+0	1.364848E+0	1.503881E+0	1.558618E+0	1.454764E+0	1.489119E+0	1.372896E+0	1.384882E+0	1.360225E+0	1.464162E+0	1.540803E+0	1.538566E+0	1.393906E+0	1.523253E+0	1.524804E+0	1.573241E+0	1.428954E+0	1.361052E+0	1.488253E+0	1.615875E+0	1.422743E+0	1.388011E+0	1.427818E+0	1.458908E+0	1.316244E+0	1.300257E+0	1.517805E+0	1.474848E+0	1.417051E+0	1.379968E+0	1.551294E+0	1.599901E+0	1.348162E+0	1.359310E+0	1.300718E+0	1.591746E+0	1.297731E+0	1.350420E+0	1.467118E+0	1.408024E+0	1.381852E+0	1.382254E+0	1.603923E+0	1.507654E+0	1.337810E+0	1.394363E+0	1.556307E+0	1.629351E+0	1.362457E+0	1.355457E+0	1.516028E+0	1.567107E+0	1.335471E+0	1.441129E+0	1.450859E+0	1.364660E+0	1.346420E+0	1.496931E+0	1.520140E+0	1.446959E+0	1.346326E+0	1.449703E+0	1.600385E+0	1.569014E+0	1.379424E+0	1.405482E+0	1.472620E+0	1.501742E+0	1.339889E+0	1.394497E+0	1.370014E+0	1.404441E+0	1.337204E+0	1.376627E+0	1.505830E+0	1.537268E+0	1.488487E+0	1.432100E+0	1.622010E+0	1.557160E+0	1.359927E+0	1.496754E+0	1.540138E+0	1.570216E+0	1.352172E+0	1.471581E+0	1.390935E+0	1.438487E+0	1.431491E+0	1.404500E+0	1.406417E+0	1.511402E+0	1.444951E+0	1.460734E+0	1.598993E+0	1.687223E+0	1.381359E+0	1.454191E+0	1.278629E+0	1.512530E+0	1.460411E+0	1.438395E+0	1.373784E+0	1.436084E+0	1.395958E+0	1.438693E+0	1.548376E+0	1.448072E+0	1.440001E+0	1.392569E+0	1.646403E+0	1.564135E+0	1.344828E+0	1.334037E+0	1.551662E+0	1.539471E+0	1.391854E+0	1.355769E+0	1.360831E+0	1.418245E+0	1.321931E+0	1.397401E+0	1.446104E+0	1.457789E+0	1.179342E+0	1.283809E+0	1.622329E+0	1.578369E+0	1.426894E+0	1.399450E+0	1.497015E+0	1.571514E+0	1.493278E+0	1.402143E+0	1.394485E+0	1.396621E+0	1.428588E+0	1.464406E+0	1.203066E+0	1.222285E+0	1.400799E+0	1.541087E+0	1.558685E+0	1.586438E+0	1.377842E+0	1.364792E+0	1.508789E+0	1.462173E+0	1.389348E+0	1.401125E+0	1.421368E+0	1.394206E+0	1.358385E+0	1.532504E+0	1.510012E+0	1.467069E+0	1.514294E+0	1.422440E+0	1.571028E+0	1.569841E+0	1.438335E+0	1.399417E+0	1.535322E+0	1.450364E+0	1.421299E+0
5.387650E+2	1.540767E+0	1.597195E+0	1.742474E+0	1.702418E+0	1.716700E+0	1.891502E+0	1.579774E+0	1.680450E+0	1.706601E+0	1.826549E+0	1.545760E+0	1.650880E+0	1.629652E+0	1.645117E+0	1.597098E+0	1.665247E+0	1.675110E+0	1.703348E+0	1.634782E+0	1.737019E+0	1.810657E+0	1.781698E+0	1.542158E+0	1.567508E+0	1.696843E+0	1.855612E+0	1.627343E+0	1.612310E+0	1.683026E+0	1.700032E+0	1.597740E+0	1.567600E+0	1.778003E+0	1.795700E+0	1.638117E+0	1.601658E+0	1.840542E+0	1.913327E+0	1.580020E+0	1.585529E+0	1.577851E+0	1.807483E+0	1.581088E+0	1.556164E+0	1.722583E+0	1.600743E+0	1.631548E+0	1.549117E+0	1.898078E+0	1.744517E+0	1.597345E+0	1.618759E+0	1.857497E+0	1.892036E+0	1.571816E+0	1.618049E+0	1.831968E+0	1.774437E+0	1.520501E+0	1.683163E+0	1.697664E+0	1.602078E+0	1.599210E+0	1.724261E+0	1.803213E+0	1.744865E+0	1.559747E+0	1.705143E+0	1.824647E+0	1.884661E+0	1.590193E+0	1.617698E+0	1.805990E+0	1.777201E+0	1.561714E+0	1.615211E+0	1.554833E+0	1.685019E+0	1.676880E+0	1.597491E+0	1.659016E+0	1.716212E+0	1.596031E+0	1.783487E+0	1.844565E+0	1.787463E+0	1.601585E+0	1.692581E+0	1.801591E+0	1.828429E+0	1.649504E+0	1.703065E+0	1.628046E+0	1.629229E+0	1.654744E+0	1.613594E+0	1.616595E+0	1.733921E+0	1.645303E+0	1.635796E+0	1.830881E+0	1.849960E+0	1.675565E+0	1.674432E+0	1.495107E+0	1.740929E+0	1.741497E+0	1.634344E+0	1.483729E+0	1.577000E+0	1.619332E+0	1.682405E+0	1.752531E+0	1.699874E+0	1.650658E+0	1.586962E+0	1.845772E+0	1.807529E+0	1.589562E+0	1.515626E+0	1.788861E+0	1.716509E+0	1.629812E+0	1.569451E+0	1.565813E+0	1.637850E+0	1.501598E+0	1.649863E+0	1.656305E+0	1.745092E+0	1.337123E+0	1.470155E+0	1.857772E+0	1.829955E+0	1.601836E+0	1.536441E+0	1.790317E+0	1.733487E+0	1.690718E+0	1.616085E+0	1.574803E+0	1.653198E+0	1.675256E+0	1.607690E+0	1.420661E+0	1.458568E+0	1.654302E+0	1.649884E+0	1.862137E+0	1.817302E+0	1.651421E+0	1.636581E+0	1.747780E+0	1.783299E+0	1.540955E+0	1.656074E+0	1.678379E+0	1.595022E+0	1.564198E+0	1.694823E+0	1.761421E+0	1.640200E+0	1.679273E+0	1.648971E+0	1.868157E+0	1.810344E+0	1.713181E+0	1.546465E+0	1.757739E+0	1.644614E+0	1.604231E+0
5.390450E+2	1.700234E+0	1.839521E+0	1.877698E+0	1.921831E+0	2.005432E+0	2.080144E+0	1.798276E+0	1.895876E+0	1.968030E+0	2.007951E+0	1.802041E+0	1.907316E+0	1.803712E+0	1.798851E+0	1.767290E+0	1.891308E+0	1.968532E+0	1.990953E+0	1.838127E+0	1.907396E+0	2.057328E+0	2.081249E+0	1.819630E+0	1.791133E+0	1.938365E+0	2.109336E+0	1.906138E+0	1.759879E+0	1.899507E+0	1.965857E+0	1.760836E+0	1.754537E+0	2.036381E+0	2.056772E+0	1.885757E+0	1.822265E+0	1.980750E+0	2.109906E+0	1.787442E+0	1.845311E+0	1.767558E+0	2.032359E+0	1.814470E+0	1.785782E+0	1.948574E+0	1.878585E+0	1.807831E+0	1.750541E+0	2.052804E+0	1.976119E+0	1.824729E+0	1.738070E+0	2.086071E+0	2.139900E+0	1.818455E+0	1.815466E+0	1.976538E+0	2.092602E+0	1.770119E+0	1.867311E+0	1.885234E+0	1.823284E+0	1.782397E+0	1.904758E+0	2.003388E+0	1.917394E+0	1.751480E+0	1.890596E+0	2.124715E+0	2.103543E+0	1.735287E+0	1.814687E+0	2.015778E+0	2.026283E+0	1.777206E+0	1.779062E+0	1.726267E+0	1.765881E+0	1.765083E+0	1.801612E+0	1.975407E+0	1.960132E+0	1.948922E+0	1.968552E+0	2.041543E+0	2.050596E+0	1.792558E+0	1.925840E+0	1.952785E+0	2.016125E+0	1.852102E+0	1.909511E+0	1.744669E+0	1.828156E+0	1.886363E+0	1.840152E+0	1.875911E+0	1.928168E+0	1.892269E+0	1.842424E+0	2.088469E+0	2.049497E+0	1.846732E+0	1.862928E+0	1.631835E+0	1.896603E+0	1.965800E+0	1.793484E+0	1.747806E+0	1.748491E+0	1.847167E+0	1.870593E+0	1.956682E+0	1.867933E+0	1.892217E+0	1.861403E+0	2.102960E+0	2.019449E+0	1.751510E+0	1.698245E+0	1.960379E+0	1.989157E+0	1.876835E+0	1.800229E+0	1.747516E+0	1.807315E+0	1.738601E+0	1.819796E+0	1.908301E+0	1.909432E+0	1.437623E+0	1.643923E+0	2.167838E+0	2.111782E+0	1.762154E+0	1.720648E+0	1.877131E+0	1.947867E+0	1.920296E+0	1.791071E+0	1.784930E+0	1.801954E+0	1.873025E+0	1.845874E+0	1.597758E+0	1.587345E+0	1.844981E+0	1.818191E+0	1.998906E+0	2.025963E+0	1.746265E+0	1.767372E+0	1.902192E+0	1.913915E+0	1.718137E+0	1.838012E+0	1.879257E+0	1.754253E+0	1.762445E+0	1.886215E+0	1.978260E+0	1.837971E+0	1.888014E+0	1.833398E+0	2.035537E+0	2.008408E+0	1.832752E+0	1.769189E+0	1.932363E+0	1.873073E+0	1.714892E+0
5.392720E+2	1.842652E+0	1.960989E+0	2.064777E+0	1.990555E+0	2.154620E+0	2.236579E+0	1.930285E+0	1.981949E+0	2.127549E+0	2.126665E+0	1.975395E+0	2.080435E+0	1.965745E+0	1.932341E+0	1.915101E+0	1.985711E+0	2.158500E+0	2.104052E+0	1.989935E+0	2.099998E+0	2.224114E+0	2.251658E+0	1.911157E+0	1.935522E+0	2.102464E+0	2.232858E+0	2.019119E+0	1.930518E+0	2.092157E+0	2.133947E+0	1.909187E+0	1.862292E+0	2.121697E+0	2.138512E+0	2.005619E+0	2.030436E+0	2.237424E+0	2.282999E+0	1.972512E+0	1.911983E+0	1.992692E+0	2.148029E+0	1.948506E+0	1.881832E+0	2.140716E+0	1.992074E+0	1.897177E+0	1.872168E+0	2.251062E+0	2.135784E+0	1.935791E+0	1.961921E+0	2.271182E+0	2.223712E+0	1.928239E+0	1.896225E+0	2.164109E+0	2.231011E+0	1.969120E+0	2.004032E+0	1.980837E+0	1.989661E+0	1.929331E+0	2.156971E+0	2.180228E+0	2.083023E+0	1.936365E+0	2.115532E+0	2.318757E+0	2.215836E+0	1.920094E+0	1.936018E+0	2.111021E+0	2.142917E+0	1.946600E+0	1.997526E+0	1.972862E+0	1.996286E+0	1.956504E+0	1.948078E+0	2.117449E+0	2.089544E+0	1.958654E+0	2.090366E+0	2.199891E+0	2.261311E+0	1.998378E+0	2.065790E+0	2.218646E+0	2.277516E+0	2.011898E+0	1.998073E+0	2.034792E+0	1.964949E+0	1.980776E+0	1.923696E+0	2.016821E+0	2.091748E+0	2.024827E+0	1.990500E+0	2.191840E+0	2.201348E+0	2.000399E+0	2.030761E+0	1.810335E+0	2.124434E+0	2.096784E+0	2.013786E+0	1.858278E+0	1.867913E+0	2.053832E+0	2.007190E+0	2.127454E+0	2.092197E+0	2.024664E+0	2.007649E+0	2.231015E+0	2.261269E+0	1.893794E+0	1.851022E+0	2.085354E+0	2.116844E+0	1.947088E+0	1.877767E+0	1.897838E+0	1.873500E+0	1.904888E+0	2.014146E+0	2.039214E+0	2.059785E+0	1.628570E+0	1.789284E+0	2.223541E+0	2.195465E+0	2.030801E+0	1.913157E+0	2.059565E+0	2.191424E+0	2.018039E+0	1.970713E+0	1.960847E+0	1.973672E+0	2.020266E+0	1.979765E+0	1.740840E+0	1.758680E+0	2.019129E+0	2.025566E+0	2.149031E+0	2.092561E+0	1.948024E+0	1.905941E+0	2.134774E+0	2.054725E+0	1.886796E+0	1.985799E+0	1.921631E+0	1.852630E+0	1.915292E+0	2.061133E+0	2.094535E+0	1.931621E+0	2.074873E+0	2.030277E+0	2.201795E+0	2.085711E+0	2.018321E+0	1.858403E+0	2.124452E+0	1.954926E+0	1.884273E+0
5.395160E+2	1.936931E+0	2.096566E+0	2.389051E+0	2.213746E+0	2.287925E+0	2.472957E+0	2.466302E+0	2.100602E+0	2.293714E+0	2.294749E+0	2.235704E+0	2.194588E+0	2.088353E+0	2.055230E+0	2.115603E+0	2.135996E+0	2.264975E+0	2.268225E+0	2.094687E+0	2.162962E+0	2.318058E+0	2.411351E+0	2.257036E+0	2.074188E+0	2.200116E+0	2.332646E+0	2.273746E+0	2.100086E+0	2.207346E+0	2.216649E+0	2.108896E+0	2.027186E+0	2.274189E+0	2.272098E+0	2.131699E+0	2.059094E+0	2.364385E+0	2.401489E+0	2.106114E+0	2.058660E+0	2.049832E+0	2.247560E+0	1.965556E+0	2.004600E+0	2.249347E+0	2.067557E+0	2.016952E+0	2.117548E+0	2.378726E+0	2.258604E+0	2.088351E+0	2.045113E+0	2.340213E+0	2.404628E+0	2.029347E+0	2.036023E+0	2.318649E+0	2.299354E+0	2.044759E+0	2.167232E+0	2.193350E+0	2.081673E+0	2.028901E+0	2.241858E+0	2.280320E+0	2.176191E+0	1.987724E+0	2.220817E+0	2.341021E+0	2.367963E+0	2.030059E+0	2.067819E+0	2.220736E+0	2.261890E+0	1.998457E+0	2.043135E+0	1.990366E+0	2.102480E+0	1.987936E+0	2.063856E+0	2.226065E+0	2.242925E+0	2.144015E+0	2.160644E+0	2.363134E+0	2.364549E+0	1.988650E+0	2.195489E+0	2.330155E+0	2.244643E+0	2.092365E+0	2.126338E+0	2.047326E+0	2.066580E+0	2.129286E+0	2.028949E+0	2.135819E+0	2.224053E+0	2.144678E+0	2.132848E+0	2.337123E+0	2.407103E+0	2.097737E+0	2.089726E+0	1.880323E+0	2.144889E+0	2.249698E+0	2.138949E+0	2.034503E+0	2.021724E+0	2.152431E+0	2.137400E+0	2.191653E+0	2.212478E+0	2.057461E+0	2.116584E+0	2.389865E+0	2.266515E+0	1.962098E+0	1.916352E+0	2.271540E+0	2.228499E+0	2.092130E+0	2.010860E+0	2.024373E+0	2.051487E+0	1.918267E+0	2.153314E+0	2.189183E+0	2.210141E+0	1.725044E+0	1.879993E+0	2.441643E+0	2.381188E+0	2.076296E+0	1.979574E+0	2.192141E+0	2.255142E+0	2.170218E+0	2.024198E+0	1.989187E+0	2.079994E+0	2.133279E+0	2.116942E+0	1.821827E+0	1.812430E+0	2.162417E+0	2.156599E+0	2.238787E+0	2.273477E+0	2.051641E+0	2.044024E+0	2.218070E+0	2.205099E+0	1.948900E+0	2.140651E+0	2.053718E+0	1.995636E+0	1.990452E+0	2.139623E+0	2.200754E+0	2.091811E+0	2.122180E+0	2.108556E+0	2.309642E+0	2.298931E+0	2.103264E+0	1.989458E+0	2.226472E+0	2.151621E+0	2.022035E+0
5.397810E+2	1.923891E+0	2.103312E+0	2.289933E+0	2.140607E+0	2.159161E+0	2.314218E+0	2.500440E+0	2.079203E+0	2.208423E+0	2.235946E+0	2.241465E+0	2.191884E+0	1.985459E+0	2.029208E+0	2.048458E+0	2.130914E+0	2.249851E+0	2.245121E+0	2.191036E+0	2.168251E+0	2.364277E+0	2.321857E+0	2.323993E+0	2.014762E+0	2.217449E+0	2.303441E+0	2.235523E+0	1.990621E+0	2.118471E+0	2.217724E+0	2.057067E+0	1.932084E+0	2.245142E+0	2.189751E+0	2.268524E+0	2.035298E+0	2.310287E+0	2.317943E+0	2.362924E+0	2.034750E+0	1.952692E+0	2.356236E+0	2.121929E+0	1.956287E+0	2.056656E+0	2.064346E+0	2.078773E+0	2.036042E+0	2.327547E+0	2.176725E+0	2.134534E+0	2.060437E+0	2.385723E+0	2.376520E+0	2.369937E+0	2.034133E+0	2.273778E+0	2.309694E+0	2.188480E+0	2.163538E+0	2.103980E+0	2.100743E+0	1.993613E+0	2.154048E+0	2.206018E+0	2.172737E+0	2.092720E+0	2.184928E+0	2.368064E+0	2.297074E+0	2.177193E+0	2.063538E+0	2.220735E+0	2.200935E+0	2.134432E+0	2.032437E+0	1.957417E+0	2.048894E+0	2.069102E+0	2.061998E+0	2.192650E+0	2.143335E+0	2.102944E+0	2.133120E+0	2.328855E+0	2.287780E+0	2.022445E+0	2.117053E+0	2.271565E+0	2.266913E+0	2.042146E+0	2.147718E+0	2.025641E+0	2.006852E+0	2.160266E+0	2.051603E+0	2.106219E+0	2.141665E+0	2.141650E+0	2.038715E+0	2.290185E+0	2.328322E+0	2.054537E+0	2.121980E+0	1.858623E+0	2.165910E+0	2.164246E+0	2.119691E+0	1.927718E+0	1.959628E+0	2.016510E+0	2.048957E+0	2.189725E+0	2.129855E+0	2.089628E+0	2.064228E+0	2.377434E+0	2.323167E+0	2.014356E+0	1.923553E+0	2.291308E+0	2.154480E+0	2.040571E+0	2.037722E+0	1.952499E+0	1.996338E+0	1.913010E+0	2.069326E+0	2.122804E+0	2.125060E+0	1.720020E+0	1.850483E+0	2.304479E+0	2.310462E+0	1.970674E+0	1.986319E+0	2.107671E+0	2.188447E+0	2.195800E+0	2.002689E+0	1.990656E+0	2.014604E+0	2.144145E+0	2.105197E+0	1.833708E+0	1.846025E+0	2.090223E+0	2.134361E+0	2.273512E+0	2.232405E+0	2.020942E+0	1.969145E+0	2.218067E+0	2.117167E+0	1.937943E+0	2.023480E+0	2.022899E+0	1.968758E+0	1.949092E+0	2.135265E+0	2.189443E+0	2.110295E+0	2.148794E+0	2.091955E+0	2.284366E+0	2.315098E+0	2.036176E+0	1.962382E+0	2.162135E+0	2.052662E+0	1.893307E+0
5.400190E+2	1.765927E+0	1.870805E+0	2.240040E+0	2.064948E+0	2.062157E+0	2.245202E+0	2.254627E+0	1.916303E+0	2.068840E+0	2.128884E+0	2.044506E+0	2.032288E+0	2.014308E+0	1.967039E+0	1.925360E+0	1.979362E+0	2.131878E+0	2.035947E+0	2.068921E+0	2.008456E+0	2.129666E+0	2.180925E+0	2.215127E+0	1.857605E+0	2.075884E+0	2.233466E+0	2.146151E+0	1.882226E+0	2.050946E+0	2.013652E+0	1.967197E+0	1.881067E+0	2.130775E+0	2.087884E+0	2.087600E+0	1.917967E+0	2.135857E+0	2.274262E+0	2.184094E+0	1.894052E+0	1.884125E+0	2.169550E+0	2.064318E+0	1.898884E+0	2.055563E+0	1.963167E+0	1.900076E+0	1.866619E+0	2.162229E+0	2.067940E+0	2.069064E+0	1.921421E+0	2.215442E+0	2.216047E+0	2.212664E+0	1.954317E+0	2.118615E+0	2.135678E+0	2.086653E+0	1.994178E+0	1.969407E+0	1.901464E+0	1.921114E+0	2.018917E+0	2.174089E+0	2.046790E+0	1.995142E+0	2.028787E+0	2.293307E+0	2.139254E+0	2.193992E+0	1.863217E+0	2.066412E+0	2.137643E+0	2.118302E+0	1.999778E+0	1.869387E+0	1.936860E+0	1.983246E+0	1.826255E+0	2.095164E+0	2.036286E+0	2.092673E+0	1.979679E+0	2.146018E+0	2.202542E+0	2.286629E+0	2.016576E+0	2.095172E+0	2.169885E+0	2.164846E+0	2.010905E+0	1.822743E+0	1.865241E+0	2.021101E+0	1.955791E+0	1.913803E+0	2.024995E+0	2.001825E+0	1.975004E+0	2.203577E+0	2.226225E+0	2.055085E+0	1.966247E+0	1.724610E+0	2.080119E+0	2.122081E+0	1.893158E+0	1.889313E+0	1.876036E+0	2.017623E+0	1.981148E+0	2.035012E+0	2.051726E+0	1.954657E+0	1.934226E+0	2.180765E+0	2.238188E+0	1.846713E+0	1.768716E+0	2.013304E+0	2.114997E+0	1.968615E+0	1.873492E+0	1.830522E+0	1.869989E+0	1.927824E+0	1.943340E+0	1.971605E+0	2.022487E+0	1.611988E+0	1.791467E+0	2.214085E+0	2.164687E+0	1.914892E+0	1.852962E+0	1.989762E+0	2.066372E+0	2.070515E+0	1.861416E+0	1.815225E+0	1.962193E+0	1.939311E+0	1.935604E+0	1.666327E+0	1.751398E+0	1.967878E+0	2.010536E+0	2.106827E+0	2.091449E+0	1.927192E+0	1.888921E+0	2.042512E+0	2.028604E+0	1.872793E+0	1.958715E+0	1.938144E+0	1.886101E+0	1.867871E+0	2.006864E+0	2.040486E+0	1.977831E+0	1.947148E+0	1.959116E+0	2.145066E+0	2.092783E+0	1.951776E+0	1.804264E+0	2.050006E+0	2.020899E+0	1.857172E+0
5.402740E+2	1.718119E+0	1.816802E+0	2.120310E+0	1.901655E+0	1.926025E+0	1.970123E+0	2.025880E+0	1.783918E+0	1.954287E+0	1.971865E+0	1.890983E+0	1.865117E+0	1.826217E+0	1.806601E+0	1.763506E+0	1.846992E+0	1.980134E+0	1.914338E+0	1.948294E+0	1.876072E+0	2.031769E+0	2.028064E+0	2.078116E+0	1.706791E+0	1.844077E+0	2.044628E+0	1.977647E+0	1.763222E+0	1.874945E+0	1.894156E+0	1.814169E+0	1.701523E+0	1.946388E+0	1.989007E+0	1.966947E+0	1.812305E+0	2.064623E+0	2.067256E+0	2.035389E+0	1.753490E+0	1.702057E+0	1.967479E+0	1.894641E+0	1.752798E+0	1.898634E+0	1.841611E+0	1.750396E+0	1.766200E+0	2.035940E+0	1.918968E+0	1.853672E+0	1.797918E+0	2.079594E+0	2.094892E+0	2.083790E+0	1.809491E+0	1.973066E+0	1.957340E+0	1.923564E+0	1.858635E+0	1.865170E+0	1.856908E+0	1.804596E+0	1.965165E+0	1.915303E+0	1.898186E+0	1.880710E+0	1.884733E+0	2.090478E+0	2.047428E+0	2.092248E+0	1.783295E+0	1.911727E+0	1.986519E+0	1.943077E+0	1.760321E+0	1.763642E+0	1.822883E+0	1.811527E+0	1.676494E+0	1.836371E+0	1.900934E+0	1.945957E+0	1.908825E+0	2.074256E+0	2.034507E+0	2.118023E+0	1.860851E+0	1.979908E+0	2.014876E+0	1.972749E+0	1.867849E+0	1.798623E+0	1.740380E+0	1.876614E+0	1.784411E+0	1.852162E+0	1.908627E+0	1.984373E+0	1.861130E+0	2.007291E+0	2.051871E+0	2.011355E+0	1.828229E+0	1.706687E+0	1.877133E+0	2.095991E+0	1.802968E+0	1.717340E+0	1.720138E+0	1.883970E+0	1.801199E+0	1.874627E+0	1.840014E+0	1.939497E+0	1.865716E+0	2.110986E+0	1.970385E+0	2.105194E+0	1.688643E+0	1.926587E+0	1.908574E+0	1.983386E+0	1.792587E+0	1.721289E+0	1.770467E+0	1.733416E+0	1.815272E+0	1.889745E+0	1.918542E+0	1.484767E+0	1.631613E+0	2.028073E+0	2.063408E+0	1.877809E+0	1.696901E+0	1.903404E+0	1.880172E+0	1.885927E+0	1.788107E+0	1.773866E+0	1.764349E+0	1.865394E+0	1.838819E+0	1.565929E+0	1.578760E+0	1.854727E+0	1.834168E+0	1.945197E+0	1.947310E+0	1.779073E+0	1.771480E+0	1.944659E+0	1.904080E+0	1.743383E+0	1.823427E+0	1.795715E+0	1.715271E+0	1.778276E+0	1.902389E+0	1.911374E+0	1.822598E+0	1.932412E+0	1.834093E+0	2.029884E+0	2.002208E+0	1.869790E+0	1.725075E+0	1.965558E+0	1.894045E+0	1.801881E+0
5.405080E+2	1.611979E+0	1.728479E+0	1.974191E+0	1.795733E+0	1.847733E+0	1.970871E+0	2.053196E+0	1.765064E+0	1.838423E+0	1.956920E+0	1.812408E+0	1.832657E+0	1.746974E+0	1.774269E+0	1.717865E+0	1.724093E+0	1.849953E+0	1.945349E+0	1.836445E+0	1.789402E+0	1.952829E+0	1.931203E+0	1.982932E+0	1.744033E+0	1.818181E+0	2.032673E+0	1.928058E+0	1.725532E+0	1.768923E+0	1.790790E+0	1.779852E+0	1.672497E+0	1.887526E+0	1.965889E+0	1.910067E+0	1.775226E+0	1.968046E+0	2.009980E+0	1.976671E+0	1.706455E+0	1.734988E+0	1.874192E+0	1.854448E+0	1.688591E+0	1.827388E+0	1.683721E+0	1.698195E+0	1.679702E+0	2.026921E+0	1.839262E+0	1.818883E+0	1.716726E+0	1.965902E+0	1.918610E+0	1.973177E+0	1.711564E+0	1.839443E+0	1.927778E+0	1.748012E+0	1.789709E+0	1.802621E+0	1.738900E+0	1.764513E+0	1.864270E+0	1.897773E+0	1.790872E+0	1.834224E+0	1.880426E+0	2.043072E+0	1.898634E+0	1.991369E+0	1.715242E+0	1.889779E+0	1.887384E+0	1.940261E+0	1.707553E+0	1.707217E+0	1.775624E+0	1.782911E+0	1.711870E+0	1.853974E+0	1.813142E+0	1.788419E+0	1.859038E+0	1.961553E+0	1.909762E+0	2.075178E+0	1.888931E+0	1.913727E+0	1.995448E+0	1.937139E+0	1.762921E+0	1.728767E+0	1.692324E+0	1.789977E+0	1.652767E+0	1.752174E+0	1.810899E+0	1.835976E+0	1.723034E+0	1.973368E+0	1.952062E+0	1.986722E+0	1.743985E+0	1.597653E+0	1.797744E+0	1.939939E+0	1.773666E+0	1.692041E+0	1.633845E+0	1.840483E+0	1.815563E+0	1.862310E+0	1.856689E+0	1.913032E+0	1.755475E+0	1.971128E+0	1.940239E+0	2.012801E+0	1.627769E+0	1.973133E+0	1.834944E+0	1.968053E+0	1.655536E+0	1.679694E+0	1.695511E+0	1.736216E+0	1.762664E+0	1.777383E+0	1.784724E+0	1.465258E+0	1.599663E+0	1.959726E+0	1.906084E+0	1.906767E+0	1.707157E+0	1.886521E+0	1.906777E+0	1.894064E+0	1.729447E+0	1.699899E+0	1.662686E+0	1.780117E+0	1.804061E+0	1.515145E+0	1.508400E+0	1.873086E+0	1.806165E+0	1.885647E+0	1.902766E+0	2.020938E+0	1.680337E+0	1.861184E+0	1.824076E+0	1.754060E+0	1.738505E+0	1.699842E+0	1.701515E+0	1.713514E+0	1.803842E+0	1.817988E+0	1.746786E+0	1.800497E+0	1.754530E+0	1.938369E+0	1.844700E+0	1.906327E+0	1.699052E+0	1.891926E+0	1.810765E+0	1.843621E+0
5.407680E+2	1.565839E+0	1.699645E+0	1.935464E+0	1.691072E+0	1.753574E+0	1.940964E+0	1.930858E+0	1.654675E+0	1.793006E+0	1.822673E+0	1.812986E+0	1.777474E+0	1.631577E+0	1.711623E+0	1.661910E+0	1.702502E+0	1.797923E+0	1.817656E+0	1.802834E+0	1.746543E+0	1.852352E+0	1.899584E+0	1.918868E+0	1.600524E+0	1.808936E+0	1.944446E+0	1.857800E+0	1.657388E+0	1.736152E+0	1.809046E+0	1.699494E+0	1.591682E+0	1.839115E+0	1.794479E+0	1.800950E+0	1.654107E+0	1.821221E+0	1.948278E+0	1.915846E+0	1.619093E+0	1.620705E+0	1.819317E+0	1.735112E+0	1.574919E+0	1.770620E+0	1.725478E+0	1.672113E+0	1.622946E+0	1.940438E+0	1.804171E+0	1.770367E+0	1.672398E+0	1.938289E+0	1.890499E+0	1.877180E+0	1.643082E+0	1.854398E+0	1.815210E+0	1.782921E+0	1.720117E+0	1.695585E+0	1.738901E+0	1.637875E+0	1.783778E+0	1.823473E+0	1.763264E+0	1.761180E+0	1.784712E+0	1.888794E+0	1.870692E+0	1.930277E+0	1.639583E+0	1.831908E+0	1.760202E+0	1.915485E+0	1.691225E+0	1.658826E+0	1.722043E+0	1.700335E+0	1.613300E+0	1.768191E+0	1.775859E+0	1.758695E+0	1.733122E+0	1.884831E+0	1.900235E+0	1.962026E+0	1.767431E+0	1.841281E+0	1.863422E+0	1.872078E+0	1.797738E+0	1.651661E+0	1.643198E+0	1.713752E+0	1.600851E+0	1.752174E+0	1.764588E+0	1.791183E+0	1.702371E+0	1.823616E+0	1.897122E+0	1.882825E+0	1.714754E+0	1.504331E+0	1.819337E+0	1.892157E+0	1.690982E+0	1.609977E+0	1.623337E+0	1.774193E+0	1.690758E+0	1.792338E+0	1.745963E+0	1.780581E+0	1.738024E+0	1.926822E+0	1.908241E+0	1.913459E+0	1.566039E+0	1.860272E+0	1.792998E+0	1.843970E+0	1.671409E+0	1.621995E+0	1.663921E+0	1.638259E+0	1.728482E+0	1.709780E+0	1.798125E+0	1.380840E+0	1.549388E+0	1.950791E+0	1.892046E+0	1.816315E+0	1.628284E+0	1.763332E+0	1.781130E+0	1.887504E+0	1.651544E+0	1.627090E+0	1.642713E+0	1.704598E+0	1.720910E+0	1.542682E+0	1.524075E+0	1.830655E+0	1.741849E+0	1.781997E+0	1.832840E+0	1.949118E+0	1.607407E+0	1.818899E+0	1.832360E+0	1.743712E+0	1.687280E+0	1.698193E+0	1.586906E+0	1.662060E+0	1.792701E+0	1.743823E+0	1.708586E+0	1.744321E+0	1.711239E+0	1.863665E+0	1.912407E+0	1.903621E+0	1.589535E+0	1.753144E+0	1.699592E+0	1.703600E+0
5.410130E+2	1.520712E+0	1.643206E+0	1.880980E+0	1.699899E+0	1.697413E+0	1.877125E+0	1.867129E+0	1.663918E+0	1.712696E+0	1.804919E+0	1.754819E+0	1.726081E+0	1.620038E+0	1.582469E+0	1.612481E+0	1.633498E+0	1.779777E+0	1.748948E+0	1.687441E+0	1.672993E+0	1.785537E+0	1.839036E+0	1.842757E+0	1.598324E+0	1.771379E+0	1.778942E+0	1.808897E+0	1.578509E+0	1.674586E+0	1.759642E+0	1.627696E+0	1.541070E+0	1.787078E+0	1.827419E+0	1.727451E+0	1.648696E+0	1.812944E+0	1.918243E+0	1.831628E+0	1.533110E+0	1.566424E+0	1.758521E+0	1.706307E+0	1.542526E+0	1.742779E+0	1.661235E+0	1.609331E+0	1.550397E+0	1.858075E+0	1.726388E+0	1.675086E+0	1.614929E+0	1.804828E+0	1.861371E+0	1.864921E+0	1.558542E+0	1.820126E+0	1.762950E+0	1.750920E+0	1.708416E+0	1.701301E+0	1.654993E+0	1.587609E+0	1.712065E+0	1.690228E+0	1.708057E+0	1.636780E+0	1.699765E+0	1.864937E+0	1.803938E+0	1.889040E+0	1.591054E+0	1.723397E+0	1.764889E+0	1.777205E+0	1.627598E+0	1.600652E+0	1.645075E+0	1.630432E+0	1.585866E+0	1.671829E+0	1.683727E+0	1.768963E+0	1.723754E+0	1.844019E+0	1.860526E+0	1.922093E+0	1.669515E+0	1.772606E+0	1.771698E+0	1.807019E+0	1.654817E+0	1.613105E+0	1.590697E+0	1.705395E+0	1.649938E+0	1.631395E+0	1.685203E+0	1.713706E+0	1.736812E+0	1.809651E+0	1.844260E+0	1.812279E+0	1.644195E+0	1.470149E+0	1.724452E+0	1.821327E+0	1.605460E+0	1.616820E+0	1.544520E+0	1.724617E+0	1.645060E+0	1.721719E+0	1.645354E+0	1.742109E+0	1.628489E+0	1.879814E+0	1.786546E+0	1.864824E+0	1.453896E+0	1.776744E+0	1.747965E+0	1.820744E+0	1.625008E+0	1.576947E+0	1.592226E+0	1.638735E+0	1.668905E+0	1.701174E+0	1.690896E+0	1.379837E+0	1.503484E+0	1.894560E+0	1.867750E+0	1.710704E+0	1.571204E+0	1.689419E+0	1.745994E+0	1.793048E+0	1.532949E+0	1.577246E+0	1.615758E+0	1.735019E+0	1.600175E+0	1.401220E+0	1.431131E+0	1.779953E+0	1.694966E+0	1.760634E+0	1.796770E+0	1.889358E+0	1.592821E+0	1.746498E+0	1.743792E+0	1.665167E+0	1.656074E+0	1.629398E+0	1.604653E+0	1.590935E+0	1.679802E+0	1.750733E+0	1.693183E+0	1.617779E+0	1.602122E+0	1.837265E+0	1.801250E+0	1.847354E+0	1.583384E+0	1.700756E+0	1.715472E+0	1.791677E+0
5.412690E+2	1.361242E+0	1.487382E+0	1.720154E+0	1.487424E+0	1.547656E+0	1.745418E+0	1.762994E+0	1.462105E+0	1.571455E+0	1.604660E+0	1.595287E+0	1.524282E+0	1.480116E+0	1.451868E+0	1.483323E+0	1.478135E+0	1.644860E+0	1.544037E+0	1.545713E+0	1.524840E+0	1.635328E+0	1.668093E+0	1.642840E+0	1.412997E+0	1.572034E+0	1.682199E+0	1.641957E+0	1.415378E+0	1.550955E+0	1.577591E+0	1.486949E+0	1.385970E+0	1.552900E+0	1.596843E+0	1.529561E+0	1.500005E+0	1.706955E+0	1.707473E+0	1.636685E+0	1.453568E+0	1.434425E+0	1.627789E+0	1.518772E+0	1.389635E+0	1.545720E+0	1.548280E+0	1.486174E+0	1.427065E+0	1.666874E+0	1.595379E+0	1.552918E+0	1.444713E+0	1.631986E+0	1.723384E+0	1.666794E+0	1.460778E+0	1.681783E+0	1.642343E+0	1.534468E+0	1.596329E+0	1.502297E+0	1.467636E+0	1.514623E+0	1.573032E+0	1.658915E+0	1.540126E+0	1.506672E+0	1.566358E+0	1.709067E+0	1.646633E+0	1.668593E+0	1.485895E+0	1.543756E+0	1.547456E+0	1.591101E+0	1.529067E+0	1.434366E+0	1.515502E+0	1.486867E+0	1.435215E+0	1.579359E+0	1.584667E+0	1.559823E+0	1.515850E+0	1.688939E+0	1.645047E+0	1.711150E+0	1.543405E+0	1.611327E+0	1.632783E+0	1.586158E+0	1.561364E+0	1.478645E+0	1.420184E+0	1.538693E+0	1.488514E+0	1.488710E+0	1.534858E+0	1.585378E+0	1.511247E+0	1.624699E+0	1.714694E+0	1.694160E+0	1.523740E+0	1.355129E+0	1.575028E+0	1.696524E+0	1.500691E+0	1.467947E+0	1.358697E+0	1.543578E+0	1.507483E+0	1.601664E+0	1.502025E+0	1.600830E+0	1.494880E+0	1.731771E+0	1.719927E+0	1.740130E+0	1.317580E+0	1.598209E+0	1.598074E+0	1.597519E+0	1.509009E+0	1.415490E+0	1.431280E+0	1.433266E+0	1.501902E+0	1.554277E+0	1.532384E+0	1.195421E+0	1.320968E+0	1.740052E+0	1.671232E+0	1.582881E+0	1.440447E+0	1.590284E+0	1.575682E+0	1.670383E+0	1.476554E+0	1.446283E+0	1.468003E+0	1.604626E+0	1.500110E+0	1.272176E+0	1.425529E+0	1.656505E+0	1.558518E+0	1.609436E+0	1.661913E+0	1.687059E+0	1.474674E+0	1.594647E+0	1.571761E+0	1.603671E+0	1.545382E+0	1.542442E+0	1.444407E+0	1.445652E+0	1.574174E+0	1.571606E+0	1.528680E+0	1.539132E+0	1.496568E+0	1.659210E+0	1.629459E+0	1.655830E+0	1.404955E+0	1.573004E+0	1.545657E+0	1.559062E+0
5.415140E+2	1.202275E+0	1.219291E+0	1.511413E+0	1.370153E+0	1.355926E+0	1.461305E+0	1.492713E+0	1.499550E+0	1.442955E+0	1.377776E+0	1.366074E+0	1.458822E+0	1.264232E+0	1.301507E+0	1.307535E+0	1.342669E+0	1.375039E+0	1.369526E+0	1.378780E+0	1.375630E+0	1.428347E+0	1.463385E+0	1.489170E+0	1.483870E+0	1.370953E+0	1.480797E+0	1.418245E+0	1.442745E+0	1.365751E+0	1.342377E+0	1.317672E+0	1.269237E+0	1.422200E+0	1.394330E+0	1.406307E+0	1.297241E+0	1.428751E+0	1.535471E+0	1.467730E+0	1.370346E+0	1.276718E+0	1.417433E+0	1.344175E+0	1.311203E+0	1.364493E+0	1.285970E+0	1.288156E+0	1.250387E+0	1.438022E+0	1.348572E+0	1.341316E+0	1.310076E+0	1.430513E+0	1.500048E+0	1.459478E+0	1.283671E+0	1.420685E+0	1.428699E+0	1.372712E+0	1.363528E+0	1.324600E+0	1.291720E+0	1.251205E+0	1.334478E+0	1.438475E+0	1.329640E+0	1.311517E+0	1.343220E+0	1.509726E+0	1.463451E+0	1.470551E+0	1.261785E+0	1.403296E+0	1.389214E+0	1.394049E+0	1.322423E+0	1.223805E+0	1.275840E+0	1.324536E+0	1.251086E+0	1.371589E+0	1.421169E+0	1.394454E+0	1.348938E+0	1.435913E+0	1.523275E+0	1.518131E+0	1.360392E+0	1.468319E+0	1.389415E+0	1.448047E+0	1.365917E+0	1.315270E+0	1.278096E+0	1.380841E+0	1.265734E+0	1.334187E+0	1.378497E+0	1.414684E+0	1.313800E+0	1.463215E+0	1.466958E+0	1.491825E+0	1.310552E+0	1.192905E+0	1.380150E+0	1.489648E+0	1.301906E+0	1.263837E+0	1.257905E+0	1.400414E+0	1.304059E+0	1.322398E+0	1.347458E+0	1.453877E+0	1.219837E+0	1.544284E+0	1.422506E+0	1.591115E+0	1.292373E+0	1.371214E+0	1.321722E+0	1.462676E+0	1.295937E+0	1.194311E+0	1.272844E+0	1.277015E+0	1.290460E+0	1.322564E+0	1.379117E+0	1.089899E+0	1.166869E+0	1.507237E+0	1.448796E+0	1.453434E+0	1.240671E+0	1.326314E+0	1.436932E+0	1.461135E+0	1.275988E+0	1.239090E+0	1.300280E+0	1.415003E+0	1.350720E+0	1.145831E+0	1.460248E+0	1.414578E+0	1.361364E+0	1.374902E+0	1.459908E+0	1.461178E+0	1.289428E+0	1.440874E+0	1.396543E+0	1.358903E+0	1.330473E+0	1.298090E+0	1.239541E+0	1.294319E+0	1.358556E+0	1.428936E+0	1.268065E+0	1.357595E+0	1.339418E+0	1.432855E+0	1.503650E+0	1.509211E+0	1.242526E+0	1.325772E+0	1.324528E+0	1.283535E+0
5.417700E+2	1.003192E+0	1.086780E+0	1.282322E+0	1.148222E+0	1.176674E+0	1.258860E+0	1.242918E+0	1.271968E+0	1.192600E+0	1.198041E+0	1.164503E+0	1.247831E+0	1.059884E+0	1.092834E+0	1.017974E+0	1.106025E+0	1.177812E+0	1.151846E+0	1.150789E+0	1.156041E+0	1.145508E+0	1.264577E+0	1.212658E+0	1.250117E+0	1.200501E+0	1.289739E+0	1.215892E+0	1.227030E+0	1.170620E+0	1.140454E+0	1.094191E+0	1.093320E+0	1.201940E+0	1.175344E+0	1.156972E+0	1.195047E+0	1.231688E+0	1.280468E+0	1.269663E+0	1.254016E+0	1.053868E+0	1.207615E+0	1.134890E+0	1.202645E+0	1.151057E+0	1.079327E+0	1.096900E+0	1.080539E+0	1.199171E+0	1.211132E+0	1.129714E+0	1.151903E+0	1.199894E+0	1.232255E+0	1.242968E+0	1.227470E+0	1.243709E+0	1.222520E+0	1.174876E+0	1.229886E+0	1.129235E+0	1.122001E+0	1.092186E+0	1.264232E+0	1.224178E+0	1.173786E+0	1.189400E+0	1.178108E+0	1.221320E+0	1.269924E+0	1.255708E+0	1.202308E+0	1.156738E+0	1.209285E+0	1.200456E+0	1.195175E+0	1.058034E+0	1.122399E+0	1.133585E+0	1.119500E+0	1.167716E+0	1.179380E+0	1.165857E+0	1.117608E+0	1.209004E+0	1.232616E+0	1.291835E+0	1.187630E+0	1.225771E+0	1.236185E+0	1.192377E+0	1.128320E+0	1.089246E+0	1.069536E+0	1.161025E+0	1.088735E+0	1.134664E+0	1.153574E+0	1.242780E+0	1.133003E+0	1.279940E+0	1.259651E+0	1.264876E+0	1.116513E+0	9.910724E-1	1.204020E+0	1.319309E+0	1.094630E+0	1.115492E+0	1.037216E+0	1.126905E+0	1.113414E+0	1.164467E+0	1.173218E+0	1.213579E+0	1.110301E+0	1.241713E+0	1.243108E+0	1.280151E+0	1.040826E+0	1.227748E+0	1.178609E+0	1.233785E+0	1.079202E+0	1.064739E+0	1.111899E+0	1.061510E+0	1.160569E+0	1.151085E+0	1.153003E+0	9.466903E-1	1.007303E+0	1.268643E+0	1.265231E+0	1.185332E+0	1.099014E+0	1.223655E+0	1.187419E+0	1.245982E+0	1.107393E+0	1.070990E+0	1.111590E+0	1.186806E+0	1.133675E+0	9.725124E-1	1.166294E+0	1.293335E+0	1.126338E+0	1.193252E+0	1.288982E+0	1.260518E+0	1.060909E+0	1.196759E+0	1.217502E+0	1.161019E+0	1.145592E+0	1.087855E+0	1.149275E+0	1.104145E+0	1.176856E+0	1.171243E+0	1.166406E+0	1.230455E+0	1.189979E+0	1.275021E+0	1.203527E+0	1.214890E+0	1.104091E+0	1.189748E+0	1.177924E+0	1.118668E+0
5.420270E+2	9.239590E-1	9.978253E-1	1.084738E+0	1.010776E+0	1.030890E+0	1.139233E+0	1.122286E+0	1.093986E+0	1.062437E+0	1.073779E+0	1.069477E+0	1.136923E+0	9.805484E-1	9.844036E-1	9.484972E-1	9.887638E-1	1.067704E+0	1.056383E+0	1.060041E+0	1.025879E+0	1.098787E+0	1.142396E+0	1.098971E+0	1.136983E+0	1.026580E+0	1.130930E+0	1.060757E+0	1.137419E+0	1.014219E+0	1.025534E+0	9.753173E-1	9.851580E-1	1.053689E+0	1.064326E+0	1.019018E+0	1.013911E+0	1.111905E+0	1.110102E+0	1.123586E+0	1.179529E+0	1.089295E+0	1.139291E+0	9.985038E-1	1.069081E+0	1.038062E+0	1.002239E+0	9.771252E-1	9.580627E-1	1.126219E+0	1.026903E+0	1.041449E+0	1.061597E+0	1.092511E+0	1.116755E+0	1.156162E+0	1.125455E+0	1.039938E+0	1.112252E+0	1.022428E+0	1.103018E+0	1.025318E+0	9.656316E-1	1.005185E+0	1.101781E+0	1.080494E+0	1.013907E+0	1.041034E+0	1.108714E+0	1.069162E+0	1.127106E+0	1.157453E+0	1.181849E+0	1.026524E+0	1.052800E+0	1.069664E+0	1.108465E+0	9.519815E-1	9.718798E-1	1.003156E+0	1.017204E+0	1.023446E+0	1.050498E+0	1.077771E+0	1.048502E+0	1.093643E+0	1.099197E+0	1.115708E+0	1.095864E+0	1.082129E+0	1.101511E+0	1.082803E+0	1.093506E+0	9.706901E-1	9.510452E-1	1.002191E+0	9.579928E-1	9.825071E-1	1.061561E+0	1.110825E+0	1.030838E+0	1.128516E+0	1.128011E+0	1.150585E+0	1.042932E+0	9.096889E-1	1.079594E+0	1.110185E+0	1.017041E+0	9.892401E-1	9.665186E-1	1.045019E+0	9.871351E-1	1.038636E+0	1.034389E+0	1.076716E+0	1.005580E+0	1.127168E+0	1.127705E+0	1.166321E+0	9.857833E-1	1.079819E+0	1.055854E+0	1.130103E+0	1.007770E+0	9.452916E-1	9.845485E-1	9.683321E-1	1.015048E+0	1.052132E+0	1.054515E+0	8.446854E-1	8.859892E-1	1.087861E+0	1.156715E+0	1.063468E+0	9.890091E-1	1.061167E+0	1.065342E+0	1.116760E+0	9.858893E-1	9.659266E-1	1.011253E+0	1.044997E+0	9.979077E-1	9.168991E-1	1.090146E+0	1.099899E+0	1.027158E+0	1.120061E+0	1.124159E+0	1.100429E+0	9.733908E-1	1.105137E+0	1.076691E+0	1.031329E+0	9.777862E-1	9.942963E-1	9.768576E-1	9.618919E-1	1.054269E+0	1.061252E+0	1.008681E+0	1.076711E+0	1.038168E+0	1.090226E+0	1.109043E+0	1.103436E+0	9.484296E-1	1.119898E+0	1.140053E+0	1.127703E+0
5.422780E+2	7.885617E-1	9.235939E-1	1.005311E+0	9.206159E-1	9.917491E-1	1.046637E+0	1.031244E+0	1.063836E+0	9.073507E-1	9.301036E-1	9.698429E-1	1.037378E+0	9.021753E-1	9.309105E-1	9.009365E-1	9.358476E-1	9.660657E-1	9.645675E-1	9.216775E-1	9.761414E-1	9.842437E-1	1.064695E+0	1.047426E+0	1.058188E+0	9.456858E-1	1.083470E+0	9.904957E-1	1.028489E+0	9.178945E-1	1.005663E+0	9.258657E-1	9.112814E-1	9.605029E-1	1.003328E+0	9.460824E-1	9.587595E-1	1.062225E+0	1.032018E+0	1.066400E+0	1.054925E+0	1.044154E+0	9.827358E-1	9.303101E-1	9.809859E-1	9.834753E-1	9.085548E-1	9.012992E-1	9.149582E-1	9.838479E-1	9.842088E-1	9.976091E-1	9.286014E-1	1.034726E+0	1.020164E+0	9.968433E-1	1.043750E+0	1.006288E+0	9.876260E-1	9.677338E-1	1.048822E+0	9.250379E-1	9.155743E-1	9.293007E-1	1.019336E+0	9.368103E-1	9.632982E-1	9.577208E-1	1.020176E+0	1.046895E+0	1.021545E+0	1.086179E+0	1.080023E+0	9.933688E-1	9.877456E-1	9.538538E-1	1.022317E+0	9.113111E-1	9.251168E-1	9.027549E-1	9.209547E-1	9.978227E-1	9.583629E-1	9.848190E-1	9.553841E-1	1.010932E+0	1.012899E+0	1.051711E+0	1.066644E+0	1.007789E+0	1.053792E+0	1.026304E+0	1.012882E+0	9.070751E-1	9.390042E-1	9.461309E-1	9.037128E-1	8.800827E-1	9.551140E-1	9.788696E-1	9.699971E-1	1.037996E+0	1.037316E+0	1.062541E+0	1.063595E+0	8.776777E-1	1.002893E+0	1.057903E+0	9.983521E-1	9.150666E-1	8.724143E-1	9.620194E-1	9.443871E-1	9.622390E-1	9.703123E-1	1.011754E+0	1.036274E+0	1.034236E+0	1.042728E+0	1.056115E+0	1.032595E+0	9.873636E-1	9.836811E-1	1.046253E+0	9.625918E-1	9.215032E-1	9.369171E-1	9.138595E-1	9.632872E-1	9.894395E-1	9.735107E-1	7.552417E-1	8.340756E-1	1.042664E+0	1.028221E+0	1.000099E+0	1.021180E+0	9.831482E-1	1.006983E+0	1.044604E+0	9.864700E-1	9.361182E-1	9.328827E-1	1.018374E+0	9.556268E-1	7.727368E-1	1.029675E+0	1.005662E+0	9.652464E-1	9.736758E-1	1.105290E+0	1.039026E+0	1.039029E+0	9.942920E-1	9.900374E-1	1.002103E+0	9.978058E-1	9.354091E-1	9.149906E-1	9.270850E-1	9.878869E-1	9.940005E-1	1.022236E+0	9.998388E-1	9.581116E-1	1.091350E+0	1.032750E+0	1.028232E+0	8.918252E-1	1.045453E+0	1.028877E+0	9.967153E-1
5.425300E+2	8.467323E-1	8.873987E-1	1.057169E+0	1.008884E+0	9.577137E-1	1.020757E+0	1.072213E+0	1.056542E+0	9.970792E-1	1.064904E+0	9.629319E-1	1.101217E+0	9.055409E-1	8.933204E-1	9.163236E-1	9.358468E-1	9.690904E-1	9.669997E-1	9.502462E-1	9.650295E-1	9.963006E-1	1.050762E+0	1.015635E+0	1.090322E+0	9.352849E-1	1.042703E+0	1.021973E+0	1.036537E+0	9.471889E-1	9.981447E-1	9.049445E-1	9.223007E-1	1.002860E+0	9.716083E-1	9.720900E-1	9.728177E-1	1.037385E+0	1.057136E+0	1.067959E+0	1.112400E+0	1.063011E+0	1.046218E+0	9.632313E-1	9.934896E-1	9.681904E-1	9.187262E-1	9.433174E-1	9.205072E-1	1.045032E+0	9.789457E-1	9.631213E-1	9.652706E-1	1.064895E+0	1.061049E+0	1.032077E+0	1.063586E+0	9.882173E-1	9.882006E-1	9.968262E-1	1.047590E+0	9.312732E-1	9.751665E-1	9.278506E-1	1.036898E+0	9.840903E-1	9.414441E-1	9.480198E-1	1.017783E+0	1.064921E+0	1.059837E+0	1.086687E+0	1.110477E+0	9.909574E-1	1.026427E+0	1.009742E+0	1.082001E+0	8.835115E-1	9.358329E-1	9.402881E-1	9.279296E-1	9.727567E-1	1.010555E+0	9.810364E-1	9.659263E-1	1.049567E+0	1.043606E+0	1.094206E+0	1.052803E+0	1.031099E+0	1.054853E+0	1.057122E+0	1.018379E+0	9.234605E-1	8.768689E-1	1.001699E+0	9.320327E-1	9.481686E-1	9.773658E-1	1.004898E+0	9.803286E-1	1.008940E+0	1.043017E+0	1.086057E+0	1.083250E+0	8.353583E-1	1.033573E+0	1.048346E+0	9.909905E-1	8.766643E-1	8.991644E-1	9.921000E-1	9.576541E-1	9.615969E-1	1.000665E+0	1.051488E+0	9.712756E-1	1.048284E+0	1.050596E+0	1.054046E+0	1.056772E+0	1.002666E+0	9.701106E-1	1.043419E+0	1.028528E+0	9.017635E-1	9.138532E-1	9.143373E-1	9.784257E-1	9.568645E-1	9.857489E-1	7.713215E-1	8.313436E-1	1.103101E+0	1.077891E+0	1.066717E+0	1.044012E+0	1.013065E+0	1.048073E+0	1.051164E+0	9.893764E-1	8.955588E-1	9.448629E-1	9.857748E-1	9.645527E-1	8.170114E-1	1.030235E+0	1.027705E+0	9.556292E-1	9.672649E-1	1.042580E+0	1.094947E+0	1.045835E+0	1.018639E+0	9.900371E-1	9.570468E-1	1.055507E+0	9.348587E-1	9.033268E-1	9.412095E-1	1.006783E+0	1.018512E+0	9.550793E-1	1.025857E+0	1.016820E+0	1.059896E+0	1.040329E+0	1.050955E+0	1.030260E+0	1.058319E+0	1.030099E+0	9.357383E-1
5.427650E+2	9.349911E-1	9.996657E-1	1.094585E+0	9.912307E-1	1.075136E+0	1.121980E+0	1.199103E+0	1.162554E+0	1.076284E+0	1.016642E+0	1.088482E+0	1.153153E+0	9.685284E-1	9.887407E-1	1.001653E+0	1.017126E+0	1.056209E+0	1.084961E+0	1.028671E+0	1.072442E+0	1.122901E+0	1.139718E+0	1.136066E+0	1.162076E+0	1.075115E+0	1.194210E+0	1.097855E+0	1.115955E+0	1.024645E+0	1.038959E+0	9.834022E-1	9.953608E-1	1.128723E+0	1.161923E+0	1.067641E+0	1.046894E+0	1.146681E+0	1.140678E+0	1.150097E+0	1.111019E+0	1.169293E+0	1.117234E+0	1.011437E+0	1.044642E+0	1.056075E+0	9.990271E-1	9.891989E-1	9.964681E-1	1.119748E+0	1.075446E+0	1.050802E+0	1.089510E+0	1.120634E+0	1.115219E+0	1.131651E+0	1.162767E+0	1.077328E+0	1.105360E+0	1.061995E+0	1.118414E+0	1.019083E+0	1.031897E+0	9.839178E-1	1.114465E+0	1.093389E+0	1.046687E+0	1.071849E+0	1.100937E+0	1.161411E+0	1.105890E+0	1.124871E+0	1.159008E+0	1.078368E+0	1.085621E+0	1.080036E+0	1.113532E+0	9.828706E-1	9.709050E-1	1.013009E+0	1.014413E+0	1.074136E+0	1.082452E+0	1.078852E+0	1.058458E+0	1.162204E+0	1.098138E+0	1.189946E+0	1.116369E+0	1.012199E+0	1.164076E+0	1.113050E+0	1.101445E+0	9.653887E-1	1.016552E+0	1.017927E+0	1.001418E+0	1.084932E+0	1.056148E+0	1.053926E+0	1.056666E+0	1.105606E+0	1.112465E+0	1.138005E+0	1.154817E+0	8.733375E-1	1.055163E+0	1.125363E+0	1.133140E+0	9.897659E-1	9.779827E-1	1.033879E+0	1.016125E+0	1.027080E+0	1.018650E+0	1.075455E+0	1.033265E+0	1.178497E+0	1.088887E+0	1.153388E+0	1.094839E+0	1.151233E+0	1.069424E+0	1.079113E+0	1.102402E+0	9.675612E-1	9.945759E-1	9.993904E-1	1.065834E+0	1.077945E+0	1.081905E+0	8.567450E-1	9.258810E-1	1.124647E+0	1.123241E+0	1.097049E+0	1.108355E+0	1.077005E+0	1.096308E+0	1.156116E+0	1.095766E+0	9.615282E-1	1.005264E+0	1.116715E+0	1.093745E+0	8.834226E-1	1.065510E+0	1.120290E+0	1.146775E+0	1.083731E+0	1.149132E+0	1.160188E+0	1.177600E+0	1.101292E+0	1.069045E+0	1.050205E+0	1.187396E+0	1.037223E+0	1.015398E+0	1.006787E+0	1.130339E+0	1.130389E+0	1.020388E+0	1.069615E+0	1.119412E+0	1.150888E+0	1.110056E+0	1.133733E+0	1.154543E+0	1.039019E+0	1.120504E+0	1.053178E+0
5.430070E+2	1.053840E+0	1.146901E+0	1.314486E+0	1.187312E+0	1.218651E+0	1.299694E+0	1.335099E+0	1.348802E+0	1.208663E+0	1.273482E+0	1.212303E+0	1.297603E+0	1.089695E+0	1.115967E+0	1.053410E+0	1.137777E+0	1.275215E+0	1.189546E+0	1.210728E+0	1.196257E+0	1.265075E+0	1.221171E+0	1.301297E+0	1.285777E+0	1.182588E+0	1.297649E+0	1.255240E+0	1.286058E+0	1.176580E+0	1.186640E+0	1.129378E+0	1.111688E+0	1.197705E+0	1.211333E+0	1.190896E+0	1.226947E+0	1.228375E+0	1.282652E+0	1.268103E+0	1.288499E+0	1.289289E+0	1.197395E+0	1.169576E+0	1.239021E+0	1.206735E+0	1.113053E+0	1.116219E+0	1.122788E+0	1.266236E+0	1.238621E+0	1.158356E+0	1.169417E+0	1.263813E+0	1.287961E+0	1.285863E+0	1.274224E+0	1.228754E+0	1.295458E+0	1.184185E+0	1.331504E+0	1.177038E+0	1.163002E+0	1.112487E+0	1.219349E+0	1.234002E+0	1.219219E+0	1.204808E+0	1.277415E+0	1.309857E+0	1.298383E+0	1.275059E+0	1.303182E+0	1.233297E+0	1.255586E+0	1.217165E+0	1.227832E+0	1.120841E+0	1.126294E+0	1.167363E+0	1.099039E+0	1.202808E+0	1.233703E+0	1.226385E+0	1.210727E+0	1.291709E+0	1.296678E+0	1.333302E+0	1.286568E+0	1.274279E+0	1.329504E+0	1.275700E+0	1.222991E+0	1.149004E+0	1.136966E+0	1.203809E+0	1.131686E+0	1.159531E+0	1.223336E+0	1.283941E+0	1.198435E+0	1.215683E+0	1.253432E+0	1.297140E+0	1.276785E+0	1.032307E+0	1.169931E+0	1.272088E+0	1.186376E+0	1.112863E+0	1.120811E+0	1.243330E+0	1.204313E+0	1.195924E+0	1.195701E+0	1.214841E+0	1.184930E+0	1.314653E+0	1.277727E+0	1.294124E+0	1.301632E+0	1.201605E+0	1.238443E+0	1.306305E+0	1.293496E+0	1.084986E+0	1.106886E+0	1.091615E+0	1.199633E+0	1.165222E+0	1.199625E+0	9.436759E-1	1.008396E+0	1.268120E+0	1.261455E+0	1.250867E+0	1.222512E+0	1.201365E+0	1.220766E+0	1.214496E+0	1.279475E+0	1.107640E+0	1.151523E+0	1.183002E+0	1.219646E+0	9.600937E-1	1.220605E+0	1.303806E+0	1.176829E+0	1.258432E+0	1.262342E+0	1.269290E+0	1.308875E+0	1.227514E+0	1.134672E+0	1.168326E+0	1.297502E+0	1.103816E+0	1.148261E+0	1.114235E+0	1.294597E+0	1.293176E+0	1.120197E+0	1.247606E+0	1.223782E+0	1.254238E+0	1.275275E+0	1.290634E+0	1.290515E+0	1.175043E+0	1.256113E+0	1.186423E+0
5.432800E+2	1.212306E+0	1.255486E+0	1.438550E+0	1.368262E+0	1.386556E+0	1.427371E+0	1.469387E+0	1.473291E+0	1.363750E+0	1.408282E+0	1.334973E+0	1.470724E+0	1.239711E+0	1.281268E+0	1.252981E+0	1.354099E+0	1.334503E+0	1.343382E+0	1.314362E+0	1.385684E+0	1.422818E+0	1.450525E+0	1.444368E+0	1.439409E+0	1.335709E+0	1.441249E+0	1.387331E+0	1.412697E+0	1.311634E+0	1.333247E+0	1.296750E+0	1.280664E+0	1.411911E+0	1.371759E+0	1.373517E+0	1.289668E+0	1.430409E+0	1.465575E+0	1.476567E+0	1.462761E+0	1.404714E+0	1.398603E+0	1.302435E+0	1.374858E+0	1.403796E+0	1.289715E+0	1.271737E+0	1.302451E+0	1.425081E+0	1.383078E+0	1.344825E+0	1.376847E+0	1.487276E+0	1.438213E+0	1.496756E+0	1.459362E+0	1.411338E+0	1.437312E+0	1.357579E+0	1.454060E+0	1.300701E+0	1.280757E+0	1.285039E+0	1.397898E+0	1.371545E+0	1.314111E+0	1.352604E+0	1.418595E+0	1.454059E+0	1.408602E+0	1.486335E+0	1.510638E+0	1.349644E+0	1.441958E+0	1.395200E+0	1.427152E+0	1.314411E+0	1.294351E+0	1.280434E+0	1.319436E+0	1.348192E+0	1.409982E+0	1.315013E+0	1.372364E+0	1.470191E+0	1.444386E+0	1.415734E+0	1.491629E+0	1.421699E+0	1.390474E+0	1.481147E+0	1.456920E+0	1.306596E+0	1.285320E+0	1.344453E+0	1.284142E+0	1.292150E+0	1.362860E+0	1.363842E+0	1.324706E+0	1.472715E+0	1.451929E+0	1.440418E+0	1.434030E+0	1.179883E+0	1.418215E+0	1.395203E+0	1.366470E+0	1.261206E+0	1.223990E+0	1.337468E+0	1.359093E+0	1.416128E+0	1.346335E+0	1.361796E+0	1.397381E+0	1.454596E+0	1.458698E+0	1.486083E+0	1.467272E+0	1.397356E+0	1.409313E+0	1.413953E+0	1.405221E+0	1.263146E+0	1.236744E+0	1.226363E+0	1.343200E+0	1.255571E+0	1.358718E+0	1.073821E+0	1.143916E+0	1.402133E+0	1.421801E+0	1.412272E+0	1.422283E+0	1.352711E+0	1.387504E+0	1.416530E+0	1.348075E+0	1.275253E+0	1.253857E+0	1.326983E+0	1.308907E+0	1.145291E+0	1.390258E+0	1.442131E+0	1.369177E+0	1.389323E+0	1.441040E+0	1.553283E+0	1.432860E+0	1.322342E+0	1.311802E+0	1.326633E+0	1.441755E+0	1.316801E+0	1.220776E+0	1.273134E+0	1.421546E+0	1.427047E+0	1.253895E+0	1.363507E+0	1.409394E+0	1.418252E+0	1.441002E+0	1.454024E+0	1.425259E+0	1.402975E+0	1.362402E+0	1.407747E+0
5.435540E+2	1.294546E+0	1.389225E+0	1.590839E+0	1.541016E+0	1.499441E+0	1.656274E+0	1.661709E+0	1.619665E+0	1.599152E+0	1.514238E+0	1.537695E+0	1.649255E+0	1.595995E+0	1.429216E+0	1.422241E+0	1.487024E+0	1.591017E+0	1.480803E+0	1.502019E+0	1.512668E+0	1.570520E+0	1.684701E+0	1.625013E+0	1.621215E+0	1.546610E+0	1.605533E+0	1.579566E+0	1.568312E+0	1.531092E+0	1.480390E+0	1.413247E+0	1.386787E+0	1.593444E+0	1.538285E+0	1.523347E+0	1.445391E+0	1.607047E+0	1.678533E+0	1.569101E+0	1.624612E+0	1.623563E+0	1.614877E+0	1.483501E+0	1.508422E+0	1.577929E+0	1.404812E+0	1.380402E+0	1.437733E+0	1.626282E+0	1.528706E+0	1.485113E+0	1.512580E+0	1.632499E+0	1.621683E+0	1.644328E+0	1.598687E+0	1.550927E+0	1.589506E+0	1.556578E+0	1.589553E+0	1.448780E+0	1.399464E+0	1.442125E+0	1.581812E+0	1.549001E+0	1.499293E+0	1.510101E+0	1.577128E+0	1.666124E+0	1.562804E+0	1.609028E+0	1.601518E+0	1.512407E+0	1.549214E+0	1.513319E+0	1.603388E+0	1.369497E+0	1.459973E+0	1.439479E+0	1.430565E+0	1.532569E+0	1.527681E+0	1.539289E+0	1.505892E+0	1.582286E+0	1.573043E+0	1.629745E+0	1.632089E+0	1.571007E+0	1.589304E+0	1.604420E+0	1.572360E+0	1.406355E+0	1.400437E+0	1.479191E+0	1.378541E+0	1.411744E+0	1.515614E+0	1.518193E+0	1.477954E+0	1.593964E+0	1.586681E+0	1.575491E+0	1.604378E+0	1.371947E+0	1.464236E+0	1.653239E+0	1.491064E+0	1.377466E+0	1.372553E+0	1.549149E+0	1.459328E+0	1.496377E+0	1.459308E+0	1.534607E+0	1.538213E+0	1.682063E+0	1.579872E+0	1.656825E+0	1.575813E+0	1.542737E+0	1.525281E+0	1.600919E+0	1.525495E+0	1.374998E+0	1.360586E+0	1.392651E+0	1.455025E+0	1.477449E+0	1.467696E+0	1.226576E+0	1.305122E+0	1.610245E+0	1.624802E+0	1.527095E+0	1.542149E+0	1.538663E+0	1.538763E+0	1.609378E+0	1.520159E+0	1.367119E+0	1.426073E+0	1.522035E+0	1.450313E+0	1.542143E+0	1.544793E+0	1.594789E+0	1.524859E+0	1.604096E+0	1.600314E+0	1.614140E+0	1.613728E+0	1.532496E+0	1.532897E+0	1.553134E+0	1.600726E+0	1.478055E+0	1.368851E+0	1.384615E+0	1.554792E+0	1.559040E+0	1.420863E+0	1.505424E+0	1.530373E+0	1.632813E+0	1.629461E+0	1.557905E+0	1.639984E+0	1.611606E+0	1.500454E+0	1.581646E+0
5.437590E+2	1.373276E+0	1.457323E+0	1.707683E+0	1.609739E+0	1.551631E+0	1.712636E+0	1.677644E+0	1.724703E+0	1.648999E+0	1.621305E+0	1.542303E+0	1.787753E+0	1.697452E+0	1.442710E+0	1.498710E+0	1.539095E+0	1.672085E+0	1.640111E+0	1.600611E+0	1.567169E+0	1.650902E+0	1.731856E+0	1.730510E+0	1.671396E+0	1.721110E+0	1.668812E+0	1.643082E+0	1.675097E+0	1.698418E+0	1.543222E+0	1.455091E+0	1.423113E+0	1.706598E+0	1.622463E+0	1.595713E+0	1.572462E+0	1.669419E+0	1.708015E+0	1.682951E+0	1.693579E+0	1.705275E+0	1.652000E+0	1.517596E+0	1.612430E+0	1.713849E+0	1.487786E+0	1.462028E+0	1.498332E+0	1.716290E+0	1.592457E+0	1.573376E+0	1.606169E+0	1.683633E+0	1.644169E+0	1.637688E+0	1.714870E+0	1.722915E+0	1.625688E+0	1.558324E+0	1.652370E+0	1.732997E+0	1.544391E+0	1.468708E+0	1.624257E+0	1.646020E+0	1.550479E+0	1.483849E+0	1.675832E+0	1.691041E+0	1.661121E+0	1.765836E+0	1.682407E+0	1.661910E+0	1.602549E+0	1.645262E+0	1.673208E+0	1.553801E+0	1.471663E+0	1.484991E+0	1.475664E+0	1.657901E+0	1.604372E+0	1.564684E+0	1.601940E+0	1.719956E+0	1.650870E+0	1.758259E+0	1.669513E+0	1.660467E+0	1.638083E+0	1.614121E+0	1.584574E+0	1.462742E+0	1.430780E+0	1.486567E+0	1.534771E+0	1.563308E+0	1.575752E+0	1.584169E+0	1.548549E+0	1.677780E+0	1.686704E+0	1.696892E+0	1.585229E+0	1.382802E+0	1.573323E+0	1.692590E+0	1.620184E+0	1.441120E+0	1.429394E+0	1.555275E+0	1.518294E+0	1.624775E+0	1.482354E+0	1.648131E+0	1.560481E+0	1.658831E+0	1.706814E+0	1.680107E+0	1.644228E+0	1.643482E+0	1.560444E+0	1.727258E+0	1.637222E+0	1.382086E+0	1.433788E+0	1.488694E+0	1.528272E+0	1.577017E+0	1.576092E+0	1.255218E+0	1.389277E+0	1.751610E+0	1.637760E+0	1.576380E+0	1.604934E+0	1.549222E+0	1.610815E+0	1.589045E+0	1.563180E+0	1.434068E+0	1.491962E+0	1.529644E+0	1.526889E+0	1.553483E+0	1.603024E+0	1.684062E+0	1.571742E+0	1.668740E+0	1.638605E+0	1.690347E+0	1.668182E+0	1.551718E+0	1.578134E+0	1.457538E+0	1.631345E+0	1.481903E+0	1.410942E+0	1.437077E+0	1.612939E+0	1.582921E+0	1.563801E+0	1.516069E+0	1.554090E+0	1.652473E+0	1.657247E+0	1.680718E+0	1.703363E+0	1.576680E+0	1.570090E+0	1.561319E+0
5.440170E+2	1.386313E+0	1.545662E+0	1.720813E+0	1.614780E+0	1.626506E+0	1.716664E+0	1.806242E+0	1.766037E+0	1.696079E+0	1.680104E+0	1.631571E+0	1.764490E+0	1.763318E+0	1.479339E+0	1.539278E+0	1.518776E+0	1.711410E+0	1.560454E+0	1.631422E+0	1.644423E+0	1.748361E+0	1.702386E+0	1.705461E+0	1.773528E+0	1.683550E+0	1.735135E+0	1.645333E+0	1.679389E+0	1.736153E+0	1.616258E+0	1.539253E+0	1.519028E+0	1.737457E+0	1.671262E+0	1.649992E+0	1.597334E+0	1.743939E+0	1.717301E+0	1.782762E+0	1.780485E+0	1.765843E+0	1.655766E+0	1.569918E+0	1.651647E+0	1.735684E+0	1.549889E+0	1.505975E+0	1.483821E+0	1.784536E+0	1.655035E+0	1.625984E+0	1.597960E+0	1.673919E+0	1.758648E+0	1.736242E+0	1.814048E+0	1.707956E+0	1.695181E+0	1.600801E+0	1.760148E+0	1.733515E+0	1.441891E+0	1.532992E+0	1.663768E+0	1.703736E+0	1.625244E+0	1.614526E+0	1.755994E+0	1.810330E+0	1.719077E+0	1.716450E+0	1.842282E+0	1.755952E+0	1.674049E+0	1.680406E+0	1.688411E+0	1.762815E+0	1.588570E+0	1.517362E+0	1.580286E+0	1.749251E+0	1.617688E+0	1.545231E+0	1.630636E+0	1.775456E+0	1.718636E+0	1.769010E+0	1.720778E+0	1.817970E+0	1.690576E+0	1.702581E+0	1.709173E+0	1.792384E+0	1.494845E+0	1.570162E+0	1.507395E+0	1.787699E+0	1.586577E+0	1.613222E+0	1.568067E+0	1.772769E+0	1.734389E+0	1.755405E+0	1.617481E+0	1.380630E+0	1.593206E+0	1.799960E+0	1.586209E+0	1.556850E+0	1.434650E+0	1.585912E+0	1.560547E+0	1.725567E+0	1.585777E+0	1.653810E+0	1.653763E+0	1.812279E+0	1.705238E+0	1.724085E+0	1.709047E+0	1.719357E+0	1.655439E+0	1.667769E+0	1.620125E+0	1.522285E+0	1.470389E+0	1.455247E+0	1.561476E+0	1.600989E+0	1.561519E+0	1.235624E+0	1.394194E+0	1.743731E+0	1.739257E+0	1.652749E+0	1.637104E+0	1.617854E+0	1.690017E+0	1.661856E+0	1.656197E+0	1.522516E+0	1.486472E+0	1.630159E+0	1.587960E+0	1.658769E+0	1.590706E+0	1.708311E+0	1.653495E+0	1.686903E+0	1.739606E+0	1.724888E+0	1.731875E+0	1.615792E+0	1.553922E+0	1.635334E+0	1.660194E+0	1.514924E+0	1.507799E+0	1.490549E+0	1.613907E+0	1.576009E+0	1.534842E+0	1.637290E+0	1.664983E+0	1.782781E+0	1.718891E+0	1.699112E+0	1.689823E+0	1.657559E+0	1.578642E+0	1.658432E+0
5.442700E+2	1.403363E+0	1.449346E+0	1.710310E+0	1.524622E+0	1.570346E+0	1.652825E+0	1.699268E+0	1.741234E+0	1.726542E+0	1.644046E+0	1.591256E+0	1.733651E+0	1.713796E+0	1.405120E+0	1.448353E+0	1.552219E+0	1.753158E+0	1.594506E+0	1.640943E+0	1.558706E+0	1.694606E+0	1.684167E+0	1.690529E+0	1.701772E+0	1.648306E+0	1.712011E+0	1.648705E+0	1.639678E+0	1.714308E+0	1.551815E+0	1.492655E+0	1.485968E+0	1.718093E+0	1.638936E+0	1.602499E+0	1.535691E+0	1.646787E+0	1.706925E+0	1.701145E+0	1.683463E+0	1.709843E+0	1.631020E+0	1.582850E+0	1.591404E+0	1.690376E+0	1.522587E+0	1.444155E+0	1.491503E+0	1.680995E+0	1.636903E+0	1.584482E+0	1.539400E+0	1.733749E+0	1.674324E+0	1.669349E+0	1.665278E+0	1.653744E+0	1.616499E+0	1.593815E+0	1.704102E+0	1.707536E+0	1.500053E+0	1.459525E+0	1.620840E+0	1.636194E+0	1.556805E+0	1.539773E+0	1.641734E+0	1.669837E+0	1.650254E+0	1.674706E+0	1.680029E+0	1.698684E+0	1.591997E+0	1.607806E+0	1.636609E+0	1.669122E+0	1.498942E+0	1.480766E+0	1.495196E+0	1.711932E+0	1.588397E+0	1.549018E+0	1.536931E+0	1.666629E+0	1.648749E+0	1.686577E+0	1.670027E+0	1.749300E+0	1.669365E+0	1.671193E+0	1.622443E+0	1.738888E+0	1.501587E+0	1.488532E+0	1.472940E+0	1.723164E+0	1.491559E+0	1.541195E+0	1.588730E+0	1.715774E+0	1.667010E+0	1.699081E+0	1.600349E+0	1.419693E+0	1.573321E+0	1.711143E+0	1.545431E+0	1.624186E+0	1.410767E+0	1.563630E+0	1.513873E+0	1.659441E+0	1.519451E+0	1.561097E+0	1.592375E+0	1.731770E+0	1.622360E+0	1.668208E+0	1.672523E+0	1.656871E+0	1.556127E+0	1.642277E+0	1.613412E+0	1.730813E+0	1.441307E+0	1.447124E+0	1.583452E+0	1.757716E+0	1.509654E+0	1.191403E+0	1.389275E+0	1.746883E+0	1.702543E+0	1.557421E+0	1.680691E+0	1.593803E+0	1.608433E+0	1.649396E+0	1.607944E+0	1.650545E+0	1.477985E+0	1.508455E+0	1.587491E+0	1.674428E+0	1.630459E+0	1.650446E+0	1.588573E+0	1.652176E+0	1.680781E+0	1.649228E+0	1.679366E+0	1.580553E+0	1.594699E+0	1.558612E+0	1.681395E+0	1.461543E+0	1.382038E+0	1.447165E+0	1.604216E+0	1.568463E+0	1.505884E+0	1.566923E+0	1.593822E+0	1.699654E+0	1.656746E+0	1.679095E+0	1.659675E+0	1.659398E+0	1.571313E+0	1.507118E+0
5.445290E+2	1.312096E+0	1.408857E+0	1.623660E+0	1.549211E+0	1.462001E+0	1.646497E+0	1.661143E+0	1.682883E+0	1.617980E+0	1.584689E+0	1.503719E+0	1.590286E+0	1.592150E+0	1.427289E+0	1.417577E+0	1.472631E+0	1.658172E+0	1.525795E+0	1.509303E+0	1.534365E+0	1.556952E+0	1.589316E+0	1.611526E+0	1.659512E+0	1.584168E+0	1.647514E+0	1.512114E+0	1.604800E+0	1.644296E+0	1.496501E+0	1.381866E+0	1.403928E+0	1.620070E+0	1.530966E+0	1.515429E+0	1.497843E+0	1.604837E+0	1.725489E+0	1.637722E+0	1.665534E+0	1.607563E+0	1.513734E+0	1.499374E+0	1.526611E+0	1.696928E+0	1.399995E+0	1.443190E+0	1.427917E+0	1.601573E+0	1.538066E+0	1.499141E+0	1.489594E+0	1.592104E+0	1.547069E+0	1.627987E+0	1.597267E+0	1.615110E+0	1.555046E+0	1.478606E+0	1.627735E+0	1.638431E+0	1.377533E+0	1.412639E+0	1.547178E+0	1.601808E+0	1.559677E+0	1.498115E+0	1.562169E+0	1.595614E+0	1.607307E+0	1.651286E+0	1.627214E+0	1.643224E+0	1.603721E+0	1.558833E+0	1.568478E+0	1.601165E+0	1.432694E+0	1.446048E+0	1.440327E+0	1.642860E+0	1.507978E+0	1.561983E+0	1.499448E+0	1.661730E+0	1.592631E+0	1.614898E+0	1.631067E+0	1.606917E+0	1.568627E+0	1.557052E+0	1.592516E+0	1.602505E+0	1.409590E+0	1.508696E+0	1.445564E+0	1.636128E+0	1.484343E+0	1.524849E+0	1.505505E+0	1.668281E+0	1.584605E+0	1.610490E+0	1.549949E+0	1.351872E+0	1.466509E+0	1.585218E+0	1.508054E+0	1.585781E+0	1.358221E+0	1.519624E+0	1.448026E+0	1.656874E+0	1.494720E+0	1.535868E+0	1.496684E+0	1.680984E+0	1.572002E+0	1.622160E+0	1.623653E+0	1.629452E+0	1.549958E+0	1.578819E+0	1.516946E+0	1.616425E+0	1.388663E+0	1.360157E+0	1.523878E+0	1.677203E+0	1.532968E+0	1.201955E+0	1.334629E+0	1.609192E+0	1.629660E+0	1.565008E+0	1.558234E+0	1.643077E+0	1.561988E+0	1.613315E+0	1.549226E+0	1.695013E+0	1.355186E+0	1.488352E+0	1.442326E+0	1.652830E+0	1.517917E+0	1.546286E+0	1.523057E+0	1.648971E+0	1.652479E+0	1.667322E+0	1.634636E+0	1.619632E+0	1.506772E+0	1.539740E+0	1.620159E+0	1.697639E+0	1.363273E+0	1.414883E+0	1.496650E+0	1.638860E+0	1.427024E+0	1.487685E+0	1.516136E+0	1.665391E+0	1.603692E+0	1.595232E+0	1.638756E+0	1.610685E+0	1.530997E+0	1.536477E+0
5.447720E+2	1.246403E+0	1.584313E+0	1.580337E+0	1.476075E+0	1.449526E+0	1.613715E+0	1.553029E+0	1.580276E+0	1.485601E+0	1.528660E+0	1.458220E+0	1.594613E+0	1.608978E+0	1.355964E+0	1.380277E+0	1.419291E+0	1.569845E+0	1.444927E+0	1.500901E+0	1.438066E+0	1.538869E+0	1.563057E+0	1.535895E+0	1.578514E+0	1.495185E+0	1.559898E+0	1.519986E+0	1.532894E+0	1.591667E+0	1.408967E+0	1.340497E+0	1.325563E+0	1.572265E+0	1.499859E+0	1.490550E+0	1.390241E+0	1.524247E+0	1.570960E+0	1.522315E+0	1.612657E+0	1.510426E+0	1.461013E+0	1.390029E+0	1.427716E+0	1.594847E+0	1.364127E+0	1.325830E+0	1.379268E+0	1.563333E+0	1.478993E+0	1.399187E+0	1.367543E+0	1.537385E+0	1.550645E+0	1.530455E+0	1.597269E+0	1.578964E+0	1.553326E+0	1.439623E+0	1.542131E+0	1.586471E+0	1.348454E+0	1.361890E+0	1.495954E+0	1.537336E+0	1.421081E+0	1.439338E+0	1.556191E+0	1.598263E+0	1.503814E+0	1.528590E+0	1.572494E+0	1.535919E+0	1.475951E+0	1.434958E+0	1.556654E+0	1.606313E+0	1.367421E+0	1.355969E+0	1.351520E+0	1.562091E+0	1.490401E+0	1.423098E+0	1.487737E+0	1.548007E+0	1.542334E+0	1.571379E+0	1.551606E+0	1.565965E+0	1.505000E+0	1.518244E+0	1.448372E+0	1.612621E+0	1.346490E+0	1.428047E+0	1.367212E+0	1.560350E+0	1.437432E+0	1.561773E+0	1.374639E+0	1.614639E+0	1.572167E+0	1.541585E+0	1.480400E+0	1.310096E+0	1.496050E+0	1.580155E+0	1.459916E+0	1.515293E+0	1.295646E+0	1.412670E+0	1.394963E+0	1.561219E+0	1.401979E+0	1.414774E+0	1.425067E+0	1.641539E+0	1.532665E+0	1.518675E+0	1.472931E+0	1.579718E+0	1.530215E+0	1.535193E+0	1.493137E+0	1.546074E+0	1.332007E+0	1.315719E+0	1.373961E+0	1.540143E+0	1.445550E+0	1.100955E+0	1.269055E+0	1.558740E+0	1.557315E+0	1.476723E+0	1.534885E+0	1.543943E+0	1.476829E+0	1.474256E+0	1.523066E+0	1.587510E+0	1.350196E+0	1.458469E+0	1.426352E+0	1.623134E+0	1.520158E+0	1.495037E+0	1.470759E+0	1.538917E+0	1.501530E+0	1.528612E+0	1.546144E+0	1.568378E+0	1.463446E+0	1.458758E+0	1.595430E+0	1.569410E+0	1.327269E+0	1.340729E+0	1.431721E+0	1.587951E+0	1.441810E+0	1.414359E+0	1.479962E+0	1.555301E+0	1.493041E+0	1.516786E+0	1.509550E+0	1.562894E+0	1.488237E+0	1.432589E+0
5.450150E+2	1.191744E+0	1.431555E+0	1.500254E+0	1.329171E+0	1.346850E+0	1.462456E+0	1.477352E+0	1.464536E+0	1.416924E+0	1.478737E+0	1.344765E+0	1.475595E+0	1.446943E+0	1.267292E+0	1.238059E+0	1.356215E+0	1.428880E+0	1.364663E+0	1.331168E+0	1.360283E+0	1.454467E+0	1.433911E+0	1.496395E+0	1.477709E+0	1.443178E+0	1.463757E+0	1.383398E+0	1.420209E+0	1.443210E+0	1.320357E+0	1.287716E+0	1.246381E+0	1.474842E+0	1.396158E+0	1.381996E+0	1.295618E+0	1.455246E+0	1.484686E+0	1.496841E+0	1.444372E+0	1.445854E+0	1.401834E+0	1.313606E+0	1.352691E+0	1.473120E+0	1.278473E+0	1.215710E+0	1.273859E+0	1.463905E+0	1.374305E+0	1.355930E+0	1.356595E+0	1.454037E+0	1.438212E+0	1.442115E+0	1.496202E+0	1.487985E+0	1.389072E+0	1.361070E+0	1.418959E+0	1.452938E+0	1.302685E+0	1.361406E+0	1.411556E+0	1.495581E+0	1.366445E+0	1.324071E+0	1.455686E+0	1.500713E+0	1.427747E+0	1.482771E+0	1.542041E+0	1.455138E+0	1.454854E+0	1.374459E+0	1.413641E+0	1.502833E+0	1.312861E+0	1.279965E+0	1.296653E+0	1.502490E+0	1.387081E+0	1.362031E+0	1.377050E+0	1.468014E+0	1.434331E+0	1.455159E+0	1.480861E+0	1.480920E+0	1.410093E+0	1.422368E+0	1.391567E+0	1.501779E+0	1.261238E+0	1.339533E+0	1.333700E+0	1.469174E+0	1.320162E+0	1.324496E+0	1.328724E+0	1.443101E+0	1.457112E+0	1.471587E+0	1.407825E+0	1.265605E+0	1.348332E+0	1.476154E+0	1.388556E+0	1.434804E+0	1.259818E+0	1.353626E+0	1.329609E+0	1.461065E+0	1.328912E+0	1.380085E+0	1.361871E+0	1.483772E+0	1.438766E+0	1.433306E+0	1.474987E+0	1.426050E+0	1.323568E+0	1.404320E+0	1.423537E+0	1.483819E+0	1.245770E+0	1.244997E+0	1.324642E+0	1.460242E+0	1.315596E+0	1.067288E+0	1.143370E+0	1.512495E+0	1.494147E+0	1.391688E+0	1.392706E+0	1.434246E+0	1.419662E+0	1.390291E+0	1.398656E+0	1.475114E+0	1.254854E+0	1.355780E+0	1.300923E+0	1.467091E+0	1.415453E+0	1.414025E+0	1.399231E+0	1.482285E+0	1.482662E+0	1.463920E+0	1.417786E+0	1.493413E+0	1.306705E+0	1.333332E+0	1.448234E+0	1.518228E+0	1.227875E+0	1.246399E+0	1.381327E+0	1.464133E+0	1.324133E+0	1.404308E+0	1.409986E+0	1.412633E+0	1.406138E+0	1.457814E+0	1.475709E+0	1.469148E+0	1.287877E+0	1.448399E+0
5.452690E+2	1.089945E+0	1.420513E+0	1.430018E+0	1.268645E+0	1.294663E+0	1.400918E+0	1.446625E+0	1.358043E+0	1.309471E+0	1.348928E+0	1.282564E+0	1.417706E+0	1.386357E+0	1.262953E+0	1.194697E+0	1.249111E+0	1.373222E+0	1.342166E+0	1.266188E+0	1.299435E+0	1.361026E+0	1.394796E+0	1.384637E+0	1.385702E+0	1.343798E+0	1.393178E+0	1.296835E+0	1.393379E+0	1.397035E+0	1.252156E+0	1.174075E+0	1.179034E+0	1.349585E+0	1.324791E+0	1.290970E+0	1.270205E+0	1.429853E+0	1.349813E+0	1.353880E+0	1.365286E+0	1.348715E+0	1.326515E+0	1.297732E+0	1.298697E+0	1.455652E+0	1.152133E+0	1.185766E+0	1.213687E+0	1.361544E+0	1.359684E+0	1.231425E+0	1.260819E+0	1.355858E+0	1.392729E+0	1.363479E+0	1.407883E+0	1.360237E+0	1.375286E+0	1.231317E+0	1.351827E+0	1.423842E+0	1.215919E+0	1.199486E+0	1.306184E+0	1.429266E+0	1.273854E+0	1.272144E+0	1.437141E+0	1.428082E+0	1.347544E+0	1.349896E+0	1.393588E+0	1.368331E+0	1.342328E+0	1.319146E+0	1.351142E+0	1.426126E+0	1.176956E+0	1.216158E+0	1.201332E+0	1.405009E+0	1.260331E+0	1.329606E+0	1.284519E+0	1.447883E+0	1.377681E+0	1.361977E+0	1.437285E+0	1.349248E+0	1.343818E+0	1.368154E+0	1.394620E+0	1.430451E+0	1.197658E+0	1.252002E+0	1.219476E+0	1.410560E+0	1.264832E+0	1.309967E+0	1.242058E+0	1.444775E+0	1.387147E+0	1.344718E+0	1.343311E+0	1.142989E+0	1.294358E+0	1.374402E+0	1.283219E+0	1.362207E+0	1.158069E+0	1.223274E+0	1.261803E+0	1.416770E+0	1.281136E+0	1.267189E+0	1.307706E+0	1.418393E+0	1.342248E+0	1.405880E+0	1.365935E+0	1.433065E+0	1.314317E+0	1.370891E+0	1.353328E+0	1.377026E+0	1.128949E+0	1.200560E+0	1.230886E+0	1.392016E+0	1.334241E+0	1.002467E+0	1.141731E+0	1.436291E+0	1.391029E+0	1.337529E+0	1.371433E+0	1.373828E+0	1.304730E+0	1.299771E+0	1.343424E+0	1.417453E+0	1.202939E+0	1.246029E+0	1.241730E+0	1.436857E+0	1.277715E+0	1.348444E+0	1.328303E+0	1.382379E+0	1.352801E+0	1.391549E+0	1.362847E+0	1.392820E+0	1.311166E+0	1.313847E+0	1.397595E+0	1.431273E+0	1.168037E+0	1.207053E+0	1.288298E+0	1.455333E+0	1.230483E+0	1.325069E+0	1.318070E+0	1.369383E+0	1.333380E+0	1.384232E+0	1.347123E+0	1.410327E+0	1.422264E+0	1.188682E+0
5.455450E+2	1.058854E+0	1.387999E+0	1.320394E+0	1.220728E+0	1.231698E+0	1.303146E+0	1.371517E+0	1.327889E+0	1.338273E+0	1.327292E+0	1.277383E+0	1.322487E+0	1.328662E+0	1.381507E+0	1.140606E+0	1.171220E+0	1.358097E+0	1.390202E+0	1.219690E+0	1.250757E+0	1.325358E+0	1.330486E+0	1.325382E+0	1.319673E+0	1.300464E+0	1.386484E+0	1.313136E+0	1.262985E+0	1.305673E+0	1.316060E+0	1.146494E+0	1.155359E+0	1.274552E+0	1.295511E+0	1.242911E+0	1.199913E+0	1.297927E+0	1.402777E+0	1.316452E+0	1.351034E+0	1.345287E+0	1.319519E+0	1.219544E+0	1.312339E+0	1.329557E+0	1.251706E+0	1.117668E+0	1.180400E+0	1.356837E+0	1.322253E+0	1.230254E+0	1.206087E+0	1.342052E+0	1.291026E+0	1.281779E+0	1.303036E+0	1.327835E+0	1.251236E+0	1.199314E+0	1.300711E+0	1.346425E+0	1.228791E+0	1.118287E+0	1.253498E+0	1.326722E+0	1.231296E+0	1.188259E+0	1.249298E+0	1.351738E+0	1.291659E+0	1.332077E+0	1.334587E+0	1.319502E+0	1.205768E+0	1.271901E+0	1.264430E+0	1.325737E+0	1.144320E+0	1.188009E+0	1.171575E+0	1.323128E+0	1.217192E+0	1.224223E+0	1.261092E+0	1.298785E+0	1.294030E+0	1.327673E+0	1.315790E+0	1.366888E+0	1.280721E+0	1.230043E+0	1.345149E+0	1.348041E+0	1.140339E+0	1.210695E+0	1.138296E+0	1.336554E+0	1.246188E+0	1.232491E+0	1.208192E+0	1.355376E+0	1.251880E+0	1.337062E+0	1.342809E+0	1.095244E+0	1.237541E+0	1.306382E+0	1.240743E+0	1.270153E+0	1.089760E+0	1.217149E+0	1.176307E+0	1.332669E+0	1.175467E+0	1.222409E+0	1.261966E+0	1.412449E+0	1.322840E+0	1.280154E+0	1.278997E+0	1.304901E+0	1.260650E+0	1.272309E+0	1.298379E+0	1.326411E+0	1.130951E+0	1.107382E+0	1.211354E+0	1.376653E+0	1.293450E+0	9.612629E-1	1.063041E+0	1.277053E+0	1.342977E+0	1.250326E+0	1.281144E+0	1.335696E+0	1.254114E+0	1.355526E+0	1.272501E+0	1.382268E+0	1.136548E+0	1.249289E+0	1.214008E+0	1.353165E+0	1.248601E+0	1.265229E+0	1.243549E+0	1.330557E+0	1.321169E+0	1.302735E+0	1.312765E+0	1.352455E+0	1.299058E+0	1.210338E+0	1.299854E+0	1.316251E+0	1.127976E+0	1.172246E+0	1.259225E+0	1.279976E+0	1.181809E+0	1.216265E+0	1.297315E+0	1.300296E+0	1.270727E+0	1.344195E+0	1.311436E+0	1.258679E+0	1.231679E+0	1.134479E+0
5.457780E+2	9.906541E-1	1.263462E+0	1.244248E+0	1.157048E+0	1.180077E+0	1.241031E+0	1.283886E+0	1.276832E+0	1.264605E+0	1.207471E+0	1.144921E+0	1.275420E+0	1.253654E+0	1.278855E+0	1.067402E+0	1.118727E+0	1.261905E+0	1.255822E+0	1.172636E+0	1.155512E+0	1.261055E+0	1.242605E+0	1.257460E+0	1.298541E+0	1.221880E+0	1.283047E+0	1.168115E+0	1.216300E+0	1.308156E+0	1.260750E+0	1.074697E+0	1.067198E+0	1.198310E+0	1.253422E+0	1.194288E+0	1.142599E+0	1.277505E+0	1.276646E+0	1.250950E+0	1.263673E+0	1.217862E+0	1.250656E+0	1.144297E+0	1.246978E+0	1.241671E+0	1.311128E+0	1.092554E+0	1.092490E+0	1.250940E+0	1.268448E+0	1.167709E+0	1.152998E+0	1.244382E+0	1.275694E+0	1.229181E+0	1.213772E+0	1.272375E+0	1.219648E+0	1.193496E+0	1.282851E+0	1.254977E+0	1.272652E+0	1.070437E+0	1.204227E+0	1.287424E+0	1.285929E+0	1.124347E+0	1.198448E+0	1.232451E+0	1.256990E+0	1.238910E+0	1.220390E+0	1.283933E+0	1.274341E+0	1.161276E+0	1.279631E+0	1.257268E+0	1.288506E+0	1.121854E+0	1.098108E+0	1.227875E+0	1.201748E+0	1.184775E+0	1.158603E+0	1.280283E+0	1.275500E+0	1.301051E+0	1.256322E+0	1.266719E+0	1.236714E+0	1.246594E+0	1.197339E+0	1.299849E+0	1.131189E+0	1.172335E+0	1.075520E+0	1.191501E+0	1.208301E+0	1.162276E+0	1.141038E+0	1.262060E+0	1.263282E+0	1.250658E+0	1.256121E+0	9.981260E-1	1.159704E+0	1.267029E+0	1.201100E+0	1.230171E+0	1.031484E+0	1.199879E+0	1.104079E+0	1.244716E+0	1.170408E+0	1.208534E+0	1.169283E+0	1.307089E+0	1.232092E+0	1.274979E+0	1.249161E+0	1.242413E+0	1.136045E+0	1.229820E+0	1.248317E+0	1.241382E+0	1.092847E+0	1.072023E+0	1.125897E+0	1.253113E+0	1.146592E+0	9.085012E-1	9.777941E-1	1.276529E+0	1.211784E+0	1.164750E+0	1.181517E+0	1.200192E+0	1.135015E+0	1.202033E+0	1.196923E+0	1.287956E+0	1.107597E+0	1.198758E+0	1.122870E+0	1.239780E+0	1.218365E+0	1.222794E+0	1.196064E+0	1.242404E+0	1.233486E+0	1.223785E+0	1.243724E+0	1.256987E+0	1.205396E+0	1.168325E+0	1.295735E+0	1.296438E+0	1.080816E+0	1.108181E+0	1.191876E+0	1.254835E+0	1.131904E+0	1.128158E+0	1.195910E+0	1.212112E+0	1.206558E+0	1.271157E+0	1.266522E+0	1.297281E+0	1.212132E+0	1.188680E+0
5.460220E+2	9.921584E-1	1.259167E+0	1.242279E+0	1.140656E+0	1.140370E+0	1.232979E+0	1.246332E+0	1.198537E+0	1.266266E+0	1.189719E+0	1.126492E+0	1.232682E+0	1.228170E+0	1.254760E+0	1.029165E+0	1.120842E+0	1.287920E+0	1.233325E+0	1.112137E+0	1.130645E+0	1.178664E+0	1.252786E+0	1.204471E+0	1.247037E+0	1.170455E+0	1.273311E+0	1.184416E+0	1.207179E+0	1.235663E+0	1.240342E+0	1.026670E+0	1.046381E+0	1.200125E+0	1.210723E+0	1.120222E+0	1.145844E+0	1.190287E+0	1.205661E+0	1.220798E+0	1.197462E+0	1.240721E+0	1.216762E+0	1.077279E+0	1.201507E+0	1.260775E+0	1.232434E+0	1.065026E+0	1.072432E+0	1.212700E+0	1.249146E+0	1.138481E+0	1.107024E+0	1.226484E+0	1.230722E+0	1.214371E+0	1.218497E+0	1.219407E+0	1.246067E+0	1.151602E+0	1.224344E+0	1.251337E+0	1.261207E+0	1.045785E+0	1.163247E+0	1.214353E+0	1.224970E+0	1.096386E+0	1.201439E+0	1.279639E+0	1.260609E+0	1.247565E+0	1.242752E+0	1.251983E+0	1.242105E+0	1.161852E+0	1.269499E+0	1.229982E+0	1.261227E+0	1.118101E+0	1.104155E+0	1.260741E+0	1.228908E+0	1.151808E+0	1.105895E+0	1.265592E+0	1.227848E+0	1.242681E+0	1.235304E+0	1.252859E+0	1.258452E+0	1.197513E+0	1.174740E+0	1.242016E+0	1.209217E+0	1.138405E+0	1.121303E+0	1.229986E+0	1.299713E+0	1.165907E+0	1.147352E+0	1.252562E+0	1.239441E+0	1.253941E+0	1.180016E+0	1.056180E+0	1.214247E+0	1.216996E+0	1.194871E+0	1.206501E+0	1.143262E+0	1.178711E+0	1.080000E+0	1.237011E+0	1.208629E+0	1.146094E+0	1.151227E+0	1.237391E+0	1.257794E+0	1.270838E+0	1.246591E+0	1.267918E+0	1.164420E+0	1.203192E+0	1.143306E+0	1.234294E+0	1.085829E+0	1.050998E+0	1.151777E+0	1.259873E+0	1.131440E+0	8.537296E-1	1.000746E+0	1.288090E+0	1.232300E+0	1.196164E+0	1.236001E+0	1.218376E+0	1.190992E+0	1.242047E+0	1.174249E+0	1.263520E+0	1.047196E+0	1.190064E+0	1.132267E+0	1.296471E+0	1.152296E+0	1.189728E+0	1.205079E+0	1.188446E+0	1.234597E+0	1.227075E+0	1.230108E+0	1.256347E+0	1.178636E+0	1.111700E+0	1.228023E+0	1.235900E+0	1.003227E+0	1.085482E+0	1.165708E+0	1.238494E+0	1.149772E+0	1.158315E+0	1.192945E+0	1.275020E+0	1.219189E+0	1.191624E+0	1.185921E+0	1.287170E+0	1.187698E+0	1.145770E+0
5.467710E+2	1.073898E+0	1.335852E+0	1.302014E+0	1.225141E+0	1.233967E+0	1.320399E+0	1.295836E+0	1.329836E+0	1.298946E+0	1.323964E+0	1.210576E+0	1.301389E+0	1.299328E+0	1.314037E+0	1.186303E+0	1.175875E+0	1.270375E+0	1.365880E+0	1.178798E+0	1.234882E+0	1.278639E+0	1.328347E+0	1.314785E+0	1.304704E+0	1.314908E+0	1.251406E+0	1.260300E+0	1.295718E+0	1.321068E+0	1.338081E+0	1.135558E+0	1.079443E+0	1.328408E+0	1.311980E+0	1.263829E+0	1.179366E+0	1.294615E+0	1.301764E+0	1.277464E+0	1.316090E+0	1.256717E+0	1.306070E+0	1.198968E+0	1.310634E+0	1.317547E+0	1.297211E+0	1.159687E+0	1.164183E+0	1.292711E+0	1.307632E+0	1.182907E+0	1.198972E+0	1.287336E+0	1.313514E+0	1.321099E+0	1.301147E+0	1.294808E+0	1.374712E+0	1.259827E+0	1.331503E+0	1.342787E+0	1.351313E+0	1.137621E+0	1.225692E+0	1.345756E+0	1.323888E+0	1.239045E+0	1.278012E+0	1.346439E+0	1.343403E+0	1.310694E+0	1.365513E+0	1.301417E+0	1.392141E+0	1.232721E+0	1.311726E+0	1.342725E+0	1.347448E+0	1.153289E+0	1.092995E+0	1.325354E+0	1.319981E+0	1.180989E+0	1.233565E+0	1.316197E+0	1.304617E+0	1.346105E+0	1.372695E+0	1.353029E+0	1.304053E+0	1.290537E+0	1.268189E+0	1.325391E+0	1.345530E+0	1.195941E+0	1.156230E+0	1.336555E+0	1.293700E+0	1.258518E+0	1.174329E+0	1.334143E+0	1.334801E+0	1.332141E+0	1.277792E+0	1.100669E+0	1.323335E+0	1.356975E+0	1.262831E+0	1.305396E+0	1.301377E+0	1.208235E+0	1.183679E+0	1.325607E+0	1.300809E+0	1.261513E+0	1.211412E+0	1.412988E+0	1.356412E+0	1.333447E+0	1.287741E+0	1.353999E+0	1.374767E+0	1.293840E+0	1.219011E+0	1.304141E+0	1.322981E+0	1.126020E+0	1.193284E+0	1.307814E+0	1.333076E+0	9.713124E-1	1.093096E+0	1.375328E+0	1.373211E+0	1.271992E+0	1.253643E+0	1.331592E+0	1.280315E+0	1.329288E+0	1.233548E+0	1.348062E+0	1.239879E+0	1.254177E+0	1.212601E+0	1.408781E+0	1.287795E+0	1.220038E+0	1.265191E+0	1.320406E+0	1.276774E+0	1.320277E+0	1.318113E+0	1.334515E+0	1.267838E+0	1.248088E+0	1.258052E+0	1.374036E+0	1.181729E+0	1.145510E+0	1.260682E+0	1.298204E+0	1.240956E+0	1.241101E+0	1.251060E+0	1.356465E+0	1.271738E+0	1.328505E+0	1.363733E+0	1.342315E+0	1.188920E+0	1.247399E+0
5.475120E+2	1.194754E+0	1.461614E+0	1.405072E+0	1.319714E+0	1.384289E+0	1.476260E+0	1.432397E+0	1.430009E+0	1.421354E+0	1.422706E+0	1.409844E+0	1.463148E+0	1.458483E+0	1.446566E+0	1.231066E+0	1.282132E+0	1.419203E+0	1.516069E+0	1.275148E+0	1.341764E+0	1.413775E+0	1.463923E+0	1.446778E+0	1.429283E+0	1.383666E+0	1.422383E+0	1.344049E+0	1.399281E+0	1.427817E+0	1.483614E+0	1.277734E+0	1.254541E+0	1.447614E+0	1.448007E+0	1.399521E+0	1.251820E+0	1.397288E+0	1.460113E+0	1.439139E+0	1.436096E+0	1.407571E+0	1.431958E+0	1.384737E+0	1.388498E+0	1.528799E+0	1.442287E+0	1.245172E+0	1.251242E+0	1.395664E+0	1.456185E+0	1.319688E+0	1.341271E+0	1.439719E+0	1.456096E+0	1.453352E+0	1.433859E+0	1.412583E+0	1.457987E+0	1.362817E+0	1.428811E+0	1.461252E+0	1.411859E+0	1.163238E+0	1.422289E+0	1.433563E+0	1.446959E+0	1.303527E+0	1.383299E+0	1.455122E+0	1.437578E+0	1.394694E+0	1.434031E+0	1.416558E+0	1.498808E+0	1.382525E+0	1.409697E+0	1.472461E+0	1.459973E+0	1.251814E+0	1.274335E+0	1.483551E+0	1.420105E+0	1.359869E+0	1.358310E+0	1.427747E+0	1.484098E+0	1.423929E+0	1.431648E+0	1.485329E+0	1.429712E+0	1.380138E+0	1.381796E+0	1.465153E+0	1.457274E+0	1.353303E+0	1.205318E+0	1.487526E+0	1.451264E+0	1.344469E+0	1.327003E+0	1.405103E+0	1.468513E+0	1.440966E+0	1.394215E+0	1.214606E+0	1.430148E+0	1.404759E+0	1.342684E+0	1.424287E+0	1.472866E+0	1.315188E+0	1.294234E+0	1.435388E+0	1.468300E+0	1.298725E+0	1.342613E+0	1.489714E+0	1.448731E+0	1.429684E+0	1.434866E+0	1.415209E+0	1.403146E+0	1.377124E+0	1.391790E+0	1.470659E+0	1.396182E+0	1.185747E+0	1.347105E+0	1.499577E+0	1.446136E+0	1.093418E+0	1.126977E+0	1.460992E+0	1.484429E+0	1.390061E+0	1.422804E+0	1.437766E+0	1.472660E+0	1.381766E+0	1.369005E+0	1.442373E+0	1.449034E+0	1.339480E+0	1.289178E+0	1.448195E+0	1.438410E+0	1.310418E+0	1.375788E+0	1.405886E+0	1.432714E+0	1.435959E+0	1.409520E+0	1.454328E+0	1.422666E+0	1.294972E+0	1.427622E+0	1.483005E+0	1.461143E+0	1.267082E+0	1.344988E+0	1.484243E+0	1.474465E+0	1.349314E+0	1.370256E+0	1.418250E+0	1.408158E+0	1.414531E+0	1.401266E+0	1.454443E+0	1.397831E+0	1.457432E+0
5.482600E+2	1.232865E+0	1.534619E+0	1.532420E+0	1.510752E+0	1.431373E+0	1.545277E+0	1.501247E+0	1.518029E+0	1.515514E+0	1.505363E+0	1.422514E+0	1.516169E+0	1.517622E+0	1.495241E+0	1.317791E+0	1.349866E+0	1.532941E+0	1.586602E+0	1.387747E+0	1.411079E+0	1.513749E+0	1.551806E+0	1.513737E+0	1.519527E+0	1.514250E+0	1.529476E+0	1.440167E+0	1.455091E+0	1.535067E+0	1.514224E+0	1.285813E+0	1.315767E+0	1.545639E+0	1.584035E+0	1.437402E+0	1.405921E+0	1.468494E+0	1.540381E+0	1.481763E+0	1.557942E+0	1.517283E+0	1.497594E+0	1.434707E+0	1.415778E+0	1.524432E+0	1.515090E+0	1.304577E+0	1.325496E+0	1.493912E+0	1.580760E+0	1.332547E+0	1.400383E+0	1.502105E+0	1.569554E+0	1.475309E+0	1.518397E+0	1.583330E+0	1.536095E+0	1.417512E+0	1.505797E+0	1.557894E+0	1.512450E+0	1.329023E+0	1.478878E+0	1.520753E+0	1.509646E+0	1.423933E+0	1.526876E+0	1.517682E+0	1.580916E+0	1.514336E+0	1.511588E+0	1.506381E+0	1.607823E+0	1.436112E+0	1.469947E+0	1.540930E+0	1.502348E+0	1.309524E+0	1.311996E+0	1.509733E+0	1.542061E+0	1.416070E+0	1.424488E+0	1.550182E+0	1.577807E+0	1.541683E+0	1.542381E+0	1.485960E+0	1.551130E+0	1.478867E+0	1.486850E+0	1.561056E+0	1.502548E+0	1.401495E+0	1.266205E+0	1.456739E+0	1.564329E+0	1.383211E+0	1.395877E+0	1.556529E+0	1.585125E+0	1.477606E+0	1.455196E+0	1.227085E+0	1.556277E+0	1.543615E+0	1.416875E+0	1.465843E+0	1.554550E+0	1.381477E+0	1.350250E+0	1.455291E+0	1.503151E+0	1.433065E+0	1.404603E+0	1.617226E+0	1.532662E+0	1.547133E+0	1.485276E+0	1.542735E+0	1.484569E+0	1.483638E+0	1.446125E+0	1.532406E+0	1.499969E+0	1.292783E+0	1.388124E+0	1.529691E+0	1.550445E+0	1.132612E+0	1.251022E+0	1.526684E+0	1.562712E+0	1.474555E+0	1.465870E+0	1.514026E+0	1.557221E+0	1.489341E+0	1.438768E+0	1.542062E+0	1.500948E+0	1.403052E+0	1.433401E+0	1.539444E+0	1.582305E+0	1.472440E+0	1.432892E+0	1.500982E+0	1.558688E+0	1.548348E+0	1.537881E+0	1.545951E+0	1.502950E+0	1.424662E+0	1.528897E+0	1.555652E+0	1.527576E+0	1.276162E+0	1.448679E+0	1.511898E+0	1.500957E+0	1.425596E+0	1.404649E+0	1.465428E+0	1.500619E+0	1.488113E+0	1.488633E+0	1.543593E+0	1.524887E+0	1.369354E+0
5.490100E+2	1.206286E+0	1.449959E+0	1.558020E+0	1.521471E+0	1.392232E+0	1.480286E+0	1.510925E+0	1.509764E+0	1.444616E+0	1.458210E+0	1.402930E+0	1.538891E+0	1.490698E+0	1.496204E+0	1.292148E+0	1.316423E+0	1.462759E+0	1.533093E+0	1.310440E+0	1.356579E+0	1.388156E+0	1.501971E+0	1.478089E+0	1.442491E+0	1.450114E+0	1.510001E+0	1.409252E+0	1.466893E+0	1.460587E+0	1.511003E+0	1.268697E+0	1.241481E+0	1.481501E+0	1.477289E+0	1.364467E+0	1.334548E+0	1.454141E+0	1.506528E+0	1.445896E+0	1.442073E+0	1.448142E+0	1.479844E+0	1.320072E+0	1.423170E+0	1.521156E+0	1.529545E+0	1.286225E+0	1.321230E+0	1.469791E+0	1.481337E+0	1.361773E+0	1.306245E+0	1.453016E+0	1.441278E+0	1.396669E+0	1.425829E+0	1.459320E+0	1.520588E+0	1.357000E+0	1.471923E+0	1.487233E+0	1.490039E+0	1.237186E+0	1.436924E+0	1.437251E+0	1.492392E+0	1.314939E+0	1.432954E+0	1.484811E+0	1.416879E+0	1.453754E+0	1.461630E+0	1.455742E+0	1.465403E+0	1.421708E+0	1.387741E+0	1.496143E+0	1.503814E+0	1.306710E+0	1.273407E+0	1.465725E+0	1.474424E+0	1.340414E+0	1.358894E+0	1.478898E+0	1.488862E+0	1.457207E+0	1.478809E+0	1.481547E+0	1.492804E+0	1.456041E+0	1.382405E+0	1.469969E+0	1.454866E+0	1.343466E+0	1.266678E+0	1.433649E+0	1.520423E+0	1.408027E+0	1.341927E+0	1.518532E+0	1.486655E+0	1.496197E+0	1.452174E+0	1.238479E+0	1.481849E+0	1.414315E+0	1.371000E+0	1.434807E+0	1.468089E+0	1.370895E+0	1.325678E+0	1.475191E+0	1.459312E+0	1.346657E+0	1.378121E+0	1.476745E+0	1.500141E+0	1.436929E+0	1.440522E+0	1.441353E+0	1.451876E+0	1.406020E+0	1.382633E+0	1.490401E+0	1.427768E+0	1.284658E+0	1.337340E+0	1.437501E+0	1.475856E+0	1.044676E+0	1.180530E+0	1.424729E+0	1.517361E+0	1.380857E+0	1.336146E+0	1.460059E+0	1.477426E+0	1.457199E+0	1.412026E+0	1.435046E+0	1.461515E+0	1.300904E+0	1.334275E+0	1.498948E+0	1.510636E+0	1.433864E+0	1.363769E+0	1.450228E+0	1.532051E+0	1.448022E+0	1.496068E+0	1.480597E+0	1.511870E+0	1.353425E+0	1.498277E+0	1.496761E+0	1.496641E+0	1.283726E+0	1.401680E+0	1.475444E+0	1.495412E+0	1.305555E+0	1.436081E+0	1.471611E+0	1.524366E+0	1.478913E+0	1.385883E+0	1.425951E+0	1.471133E+0	1.367095E+0
5.497740E+2	1.129562E+0	1.392292E+0	1.412949E+0	1.387807E+0	1.350822E+0	1.461879E+0	1.409638E+0	1.475235E+0	1.427447E+0	1.367233E+0	1.321731E+0	1.361983E+0	1.412804E+0	1.408011E+0	1.237594E+0	1.227945E+0	1.461550E+0	1.425468E+0	1.231455E+0	1.308430E+0	1.371075E+0	1.415155E+0	1.392825E+0	1.386142E+0	1.383669E+0	1.429076E+0	1.321002E+0	1.405719E+0	1.411929E+0	1.464816E+0	1.217817E+0	1.195767E+0	1.376212E+0	1.372369E+0	1.315283E+0	1.286425E+0	1.404463E+0	1.404962E+0	1.413145E+0	1.406666E+0	1.335003E+0	1.395916E+0	1.327713E+0	1.362923E+0	1.440915E+0	1.466375E+0	1.217643E+0	1.259349E+0	1.378603E+0	1.438055E+0	1.295723E+0	1.257533E+0	1.386539E+0	1.399372E+0	1.366032E+0	1.352624E+0	1.368340E+0	1.398259E+0	1.292994E+0	1.387548E+0	1.422281E+0	1.415197E+0	1.251689E+0	1.277890E+0	1.506019E+0	1.468817E+0	1.264723E+0	1.368345E+0	1.450878E+0	1.443788E+0	1.347350E+0	1.424991E+0	1.428615E+0	1.411483E+0	1.286306E+0	1.380981E+0	1.426129E+0	1.452665E+0	1.241963E+0	1.250620E+0	1.389416E+0	1.447796E+0	1.311233E+0	1.272805E+0	1.376597E+0	1.417388E+0	1.423414E+0	1.415755E+0	1.392719E+0	1.392598E+0	1.353313E+0	1.320716E+0	1.391416E+0	1.393692E+0	1.252984E+0	1.218534E+0	1.417072E+0	1.406759E+0	1.325707E+0	1.285678E+0	1.390017E+0	1.462298E+0	1.362219E+0	1.388669E+0	1.165234E+0	1.421622E+0	1.421624E+0	1.309836E+0	1.397981E+0	1.423662E+0	1.232744E+0	1.276544E+0	1.393014E+0	1.377809E+0	1.231870E+0	1.306502E+0	1.409208E+0	1.380016E+0	1.469524E+0	1.368508E+0	1.422862E+0	1.380319E+0	1.318201E+0	1.341728E+0	1.426625E+0	1.414232E+0	1.177624E+0	1.267021E+0	1.409224E+0	1.399514E+0	1.179344E+0	1.078342E+0	1.428409E+0	1.462294E+0	1.351067E+0	1.372469E+0	1.423690E+0	1.426213E+0	1.366678E+0	1.278893E+0	1.417944E+0	1.397618E+0	1.269392E+0	1.250653E+0	1.428756E+0	1.407615E+0	1.318684E+0	1.328903E+0	1.382915E+0	1.415511E+0	1.401965E+0	1.424109E+0	1.392179E+0	1.398455E+0	1.297407E+0	1.385819E+0	1.447231E+0	1.387613E+0	1.145511E+0	1.328029E+0	1.400651E+0	1.418396E+0	1.281310E+0	1.299689E+0	1.440720E+0	1.445042E+0	1.415611E+0	1.384651E+0	1.385511E+0	1.429595E+0	1.321927E+0
5.505170E+2	1.118028E+0	1.421126E+0	1.438550E+0	1.353130E+0	1.219785E+0	1.343406E+0	1.425002E+0	1.380409E+0	1.310578E+0	1.396080E+0	1.325759E+0	1.393902E+0	1.407996E+0	1.383433E+0	1.377010E+0	1.235143E+0	1.373829E+0	1.392635E+0	1.337890E+0	1.291497E+0	1.323851E+0	1.370143E+0	1.343690E+0	1.358852E+0	1.282549E+0	1.343283E+0	1.405318E+0	1.314497E+0	1.375185E+0	1.358484E+0	1.256333E+0	1.143117E+0	1.412518E+0	1.376639E+0	1.310192E+0	1.238842E+0	1.339328E+0	1.369472E+0	1.383515E+0	1.300914E+0	1.386426E+0	1.335120E+0	1.236591E+0	1.311769E+0	1.376504E+0	1.431041E+0	1.209916E+0	1.169304E+0	1.306829E+0	1.424020E+0	1.220317E+0	1.224694E+0	1.312392E+0	1.356442E+0	1.342032E+0	1.396549E+0	1.354009E+0	1.388498E+0	1.235389E+0	1.380775E+0	1.296545E+0	1.388020E+0	1.158405E+0	1.311552E+0	1.383213E+0	1.394052E+0	1.232769E+0	1.322281E+0	1.413767E+0	1.372380E+0	1.319858E+0	1.365039E+0	1.355068E+0	1.369872E+0	1.311079E+0	1.353392E+0	1.338093E+0	1.382520E+0	1.222726E+0	1.218070E+0	1.338723E+0	1.317316E+0	1.272321E+0	1.247035E+0	1.318920E+0	1.344856E+0	1.390137E+0	1.295285E+0	1.404059E+0	1.407971E+0	1.258578E+0	1.291399E+0	1.384187E+0	1.381656E+0	1.266260E+0	1.196823E+0	1.364974E+0	1.415179E+0	1.239754E+0	1.199583E+0	1.420188E+0	1.394402E+0	1.357844E+0	1.326681E+0	1.138648E+0	1.349468E+0	1.342920E+0	1.299641E+0	1.320126E+0	1.395005E+0	1.246116E+0	1.268684E+0	1.365410E+0	1.477297E+0	1.265297E+0	1.274003E+0	1.376249E+0	1.353265E+0	1.322577E+0	1.328896E+0	1.366113E+0	1.367981E+0	1.321036E+0	1.299600E+0	1.329952E+0	1.436294E+0	1.119807E+0	1.235768E+0	1.401850E+0	1.412917E+0	1.330592E+0	1.103479E+0	1.415272E+0	1.354855E+0	1.322903E+0	1.285817E+0	1.410194E+0	1.387506E+0	1.297147E+0	1.307962E+0	1.377870E+0	1.322741E+0	1.271563E+0	1.219648E+0	1.427678E+0	1.334265E+0	1.298846E+0	1.292239E+0	1.374367E+0	1.337262E+0	1.328503E+0	1.371595E+0	1.354375E+0	1.376155E+0	1.294362E+0	1.341071E+0	1.347620E+0	1.397757E+0	1.120790E+0	1.300411E+0	1.330886E+0	1.375270E+0	1.283085E+0	1.255804E+0	1.307598E+0	1.364705E+0	1.406954E+0	1.363732E+0	1.439738E+0	1.412491E+0	1.184164E+0
5.512620E+2	1.086937E+0	1.394747E+0	1.386693E+0	1.329171E+0	1.245879E+0	1.339378E+0	1.365254E+0	1.359986E+0	1.315008E+0	1.355585E+0	1.371257E+0	1.340882E+0	1.319527E+0	1.331869E+0	1.365354E+0	1.183494E+0	1.323009E+0	1.324532E+0	1.321086E+0	1.289908E+0	1.278137E+0	1.384076E+0	1.341278E+0	1.343882E+0	1.295839E+0	1.349977E+0	1.396888E+0	1.276400E+0	1.351848E+0	1.330026E+0	1.342401E+0	1.156994E+0	1.406465E+0	1.354680E+0	1.380301E+0	1.208566E+0	1.330497E+0	1.321418E+0	1.389230E+0	1.357931E+0	1.367571E+0	1.346420E+0	1.308900E+0	1.239020E+0	1.395606E+0	1.397852E+0	1.352872E+0	1.161194E+0	1.366249E+0	1.380154E+0	1.288708E+0	1.263007E+0	1.300119E+0	1.344687E+0	1.375223E+0	1.319564E+0	1.393264E+0	1.411470E+0	1.351762E+0	1.346285E+0	1.358892E+0	1.341778E+0	1.260390E+0	1.326673E+0	1.366020E+0	1.388877E+0	1.279561E+0	1.290574E+0	1.367644E+0	1.352201E+0	1.349387E+0	1.357426E+0	1.258012E+0	1.395656E+0	1.286305E+0	1.270061E+0	1.369498E+0	1.356704E+0	1.175811E+0	1.169718E+0	1.304744E+0	1.335958E+0	1.210713E+0	1.259335E+0	1.367891E+0	1.385624E+0	1.316923E+0	1.329118E+0	1.378227E+0	1.337454E+0	1.290536E+0	1.295064E+0	1.412621E+0	1.333966E+0	1.169879E+0	1.174168E+0	1.376222E+0	1.354440E+0	1.313600E+0	1.200156E+0	1.345313E+0	1.419801E+0	1.267612E+0	1.330207E+0	1.132138E+0	1.343785E+0	1.347980E+0	1.268493E+0	1.373259E+0	1.365387E+0	1.213248E+0	1.223477E+0	1.345508E+0	1.335656E+0	1.291787E+0	1.324558E+0	1.404885E+0	1.396278E+0	1.335514E+0	1.322209E+0	1.392893E+0	1.308148E+0	1.285907E+0	1.375304E+0	1.343621E+0	1.375126E+0	1.166155E+0	1.191333E+0	1.341619E+0	1.412333E+0	1.294914E+0	1.066320E+0	1.308059E+0	1.429900E+0	1.305572E+0	1.302938E+0	1.350363E+0	1.398224E+0	1.277468E+0	1.239943E+0	1.364676E+0	1.302775E+0	1.230271E+0	1.226695E+0	1.353165E+0	1.337065E+0	1.297744E+0	1.269996E+0	1.387189E+0	1.333932E+0	1.341113E+0	1.351173E+0	1.303759E+0	1.339200E+0	1.265136E+0	1.345781E+0	1.321753E+0	1.345525E+0	1.162661E+0	1.259709E+0	1.318316E+0	1.358017E+0	1.241101E+0	1.307398E+0	1.349724E+0	1.319738E+0	1.329046E+0	1.404956E+0	1.342316E+0	1.329415E+0	1.256432E+0
5.520150E+2	1.105993E+0	1.389225E+0	1.316456E+0	1.349977E+0	1.244744E+0	1.358933E+0	1.351598E+0	1.391594E+0	1.346026E+0	1.357804E+0	1.365498E+0	1.354948E+0	1.342605E+0	1.325119E+0	1.365353E+0	1.227099E+0	1.332687E+0	1.382298E+0	1.318283E+0	1.243347E+0	1.270098E+0	1.346030E+0	1.348022E+0	1.330238E+0	1.310285E+0	1.408389E+0	1.364846E+0	1.261374E+0	1.389585E+0	1.348822E+0	1.349529E+0	1.140259E+0	1.352612E+0	1.353461E+0	1.348639E+0	1.180988E+0	1.345397E+0	1.333979E+0	1.350241E+0	1.327122E+0	1.348143E+0	1.403447E+0	1.323598E+0	1.316883E+0	1.397245E+0	1.419801E+0	1.360602E+0	1.144979E+0	1.362132E+0	1.333366E+0	1.334887E+0	1.261363E+0	1.325686E+0	1.358998E+0	1.350714E+0	1.345069E+0	1.367717E+0	1.397111E+0	1.344198E+0	1.326577E+0	1.373441E+0	1.354649E+0	1.350288E+0	1.266671E+0	1.329792E+0	1.357245E+0	1.372004E+0	1.262458E+0	1.360751E+0	1.353235E+0	1.336656E+0	1.346958E+0	1.321912E+0	1.348772E+0	1.381950E+0	1.332559E+0	1.338611E+0	1.387390E+0	1.416023E+0	1.172040E+0	1.331482E+0	1.348737E+0	1.329606E+0	1.244107E+0	1.357008E+0	1.350680E+0	1.385527E+0	1.360904E+0	1.382639E+0	1.375099E+0	1.351031E+0	1.312166E+0	1.382743E+0	1.340710E+0	1.313469E+0	1.169447E+0	1.328265E+0	1.361054E+0	1.314206E+0	1.243204E+0	1.381076E+0	1.353977E+0	1.397761E+0	1.323151E+0	1.123456E+0	1.365947E+0	1.325493E+0	1.244142E+0	1.304346E+0	1.335771E+0	1.243886E+0	1.212666E+0	1.366052E+0	1.339590E+0	1.338459E+0	1.298679E+0	1.344910E+0	1.316544E+0	1.307576E+0	1.306777E+0	1.405009E+0	1.344542E+0	1.327268E+0	1.314252E+0	1.362348E+0	1.334014E+0	1.158989E+0	1.236745E+0	1.344691E+0	1.392519E+0	1.251700E+0	1.055391E+0	1.371650E+0	1.347295E+0	1.287698E+0	1.277510E+0	1.328659E+0	1.285674E+0	1.311577E+0	1.298079E+0	1.378847E+0	1.345207E+0	1.250919E+0	1.136963E+0	1.348309E+0	1.370659E+0	1.287273E+0	1.232128E+0	1.329486E+0	1.376664E+0	1.285190E+0	1.381319E+0	1.340921E+0	1.400366E+0	1.209729E+0	1.323996E+0	1.364132E+0	1.369866E+0	1.186872E+0	1.265041E+0	1.392481E+0	1.293942E+0	1.210352E+0	1.259956E+0	1.367137E+0	1.305085E+0	1.292795E+0	1.278211E+0	1.321176E+0	1.422264E+0	1.283534E+0
5.527650E+2	1.061362E+0	1.339533E+0	1.296763E+0	1.312149E+0	1.228294E+0	1.268637E+0	1.352169E+0	1.338590E+0	1.283988E+0	1.365014E+0	1.291779E+0	1.318702E+0	1.306546E+0	1.366567E+0	1.250649E+0	1.196197E+0	1.320588E+0	1.341556E+0	1.308759E+0	1.222712E+0	1.306268E+0	1.375503E+0	1.339352E+0	1.299420E+0	1.335132E+0	1.272094E+0	1.287841E+0	1.268350E+0	1.316101E+0	1.256991E+0	1.289143E+0	1.122707E+0	1.313884E+0	1.340650E+0	1.315282E+0	1.197211E+0	1.305654E+0	1.346535E+0	1.304495E+0	1.240680E+0	1.315575E+0	1.245814E+0	1.282447E+0	1.263460E+0	1.281518E+0	1.254919E+0	1.322447E+0	1.152235E+0	1.293889E+0	1.281899E+0	1.347163E+0	1.172155E+0	1.261256E+0	1.321179E+0	1.270033E+0	1.286035E+0	1.282968E+0	1.310391E+0	1.339542E+0	1.311797E+0	1.318886E+0	1.313651E+0	1.305338E+0	1.243252E+0	1.321810E+0	1.312960E+0	1.322359E+0	1.273228E+0	1.262671E+0	1.339782E+0	1.307637E+0	1.347909E+0	1.322517E+0	1.310091E+0	1.318571E+0	1.240218E+0	1.308233E+0	1.311399E+0	1.272457E+0	1.133912E+0	1.318111E+0	1.321044E+0	1.263673E+0	1.254063E+0	1.331431E+0	1.326324E+0	1.357880E+0	1.292721E+0	1.291290E+0	1.332682E+0	1.281978E+0	1.345759E+0	1.333587E+0	1.296880E+0	1.328223E+0	1.127910E+0	1.269059E+0	1.342412E+0	1.354156E+0	1.172606E+0	1.348668E+0	1.313037E+0	1.326671E+0	1.311057E+0	1.108265E+0	1.358557E+0	1.341798E+0	1.248672E+0	1.328543E+0	1.302331E+0	1.329671E+0	1.162057E+0	1.297359E+0	1.301371E+0	1.320169E+0	1.202986E+0	1.263325E+0	1.318643E+0	1.337069E+0	1.311406E+0	1.277483E+0	1.348861E+0	1.284209E+0	1.266022E+0	1.356272E+0	1.338022E+0	1.325751E+0	1.143965E+0	1.347149E+0	1.366879E+0	1.314011E+0	1.092550E+0	1.357460E+0	1.331640E+0	1.323983E+0	1.270768E+0	1.309301E+0	1.283294E+0	1.325353E+0	1.267266E+0	1.302130E+0	1.305270E+0	1.297643E+0	1.194750E+0	1.316990E+0	1.372900E+0	1.300497E+0	1.303057E+0	1.298502E+0	1.321722E+0	1.338919E+0	1.290399E+0	1.317855E+0	1.309253E+0	1.254786E+0	1.291023E+0	1.326707E+0	1.259315E+0	1.232778E+0	1.221918E+0	1.350370E+0	1.310579E+0	1.275398E+0	1.262327E+0	1.272213E+0	1.324283E+0	1.338783E+0	1.315742E+0	1.334963E+0	1.312311E+0	1.100601E+0
5.535270E+2	1.022748E+0	1.180642E+0	1.272475E+0	1.227033E+0	1.177241E+0	1.261735E+0	1.282179E+0	1.321083E+0	1.231924E+0	1.250186E+0	1.193299E+0	1.283536E+0	1.217593E+0	1.227291E+0	1.226403E+0	1.118725E+0	1.219556E+0	1.219340E+0	1.251062E+0	1.174033E+0	1.233424E+0	1.255467E+0	1.229038E+0	1.256723E+0	1.176232E+0	1.225242E+0	1.229945E+0	1.225960E+0	1.245596E+0	1.262362E+0	1.230183E+0	1.033730E+0	1.240667E+0	1.193033E+0	1.299453E+0	1.091232E+0	1.202433E+0	1.224224E+0	1.232236E+0	1.241142E+0	1.237862E+0	1.224833E+0	1.231890E+0	1.160018E+0	1.235667E+0	1.303099E+0	1.229717E+0	1.075418E+0	1.279179E+0	1.277805E+0	1.219148E+0	1.086226E+0	1.216257E+0	1.257808E+0	1.188333E+0	1.257698E+0	1.214422E+0	1.255255E+0	1.246445E+0	1.233581E+0	1.213410E+0	1.278850E+0	1.246857E+0	1.213007E+0	1.249967E+0	1.222095E+0	1.205378E+0	1.196654E+0	1.240934E+0	1.215591E+0	1.249600E+0	1.258930E+0	1.182056E+0	1.230384E+0	1.248855E+0	1.222202E+0	1.234615E+0	1.218849E+0	1.252751E+0	1.103689E+0	1.253499E+0	1.219323E+0	1.224763E+0	1.136349E+0	1.255800E+0	1.247439E+0	1.262652E+0	1.184553E+0	1.228919E+0	1.203310E+0	1.200365E+0	1.181458E+0	1.212138E+0	1.268943E+0	1.255442E+0	1.075992E+0	1.224065E+0	1.261824E+0	1.241568E+0	1.092251E+0	1.220712E+0	1.258617E+0	1.239175E+0	1.170944E+0	9.867321E-1	1.203452E+0	1.254660E+0	1.142770E+0	1.242271E+0	1.214914E+0	1.237200E+0	1.079511E+0	1.213259E+0	1.265960E+0	1.233131E+0	1.169884E+0	1.235231E+0	1.283500E+0	1.223756E+0	1.202866E+0	1.309364E+0	1.286558E+0	1.297804E+0	1.217790E+0	1.269724E+0	1.254795E+0	1.235443E+0	1.109294E+0	1.243279E+0	1.255570E+0	1.281350E+0	1.008942E+0	1.266016E+0	1.269551E+0	1.220537E+0	1.196565E+0	1.223069E+0	1.217789E+0	1.221056E+0	1.221921E+0	1.286489E+0	1.233887E+0	1.203104E+0	1.145890E+0	1.236541E+0	1.264278E+0	1.259718E+0	1.196063E+0	1.236529E+0	1.219611E+0	1.266547E+0	1.265602E+0	1.206370E+0	1.253820E+0	1.273052E+0	1.239799E+0	1.244154E+0	1.268443E+0	1.191916E+0	1.179278E+0	1.229066E+0	1.226786E+0	1.223362E+0	1.153806E+0	1.197508E+0	1.203022E+0	1.232203E+0	1.209917E+0	1.281656E+0	1.229236E+0	1.227073E+0
5.542580E+2	1.128057E+0	1.131563E+0	1.154319E+0	1.136873E+0	1.080241E+0	1.149010E+0	1.162687E+0	1.117328E+0	1.108409E+0	1.138128E+0	1.158167E+0	1.153154E+0	1.111813E+0	1.114040E+0	1.113561E+0	1.020514E+0	1.126993E+0	1.114756E+0	1.155271E+0	1.045985E+0	1.032974E+0	1.137038E+0	1.116314E+0	1.123338E+0	1.076271E+0	1.084079E+0	1.123710E+0	1.044050E+0	1.163671E+0	1.137233E+0	1.095617E+0	9.141391E-1	1.134168E+0	1.096656E+0	1.100999E+0	9.922825E-1	1.119633E+0	1.146686E+0	1.085115E+0	1.095847E+0	1.107009E+0	1.140367E+0	1.140769E+0	1.099773E+0	1.103566E+0	1.106629E+0	1.095453E+0	9.525144E-1	1.115041E+0	1.153232E+0	1.096980E+0	1.017265E+0	1.125748E+0	1.129531E+0	1.176076E+0	1.160406E+0	1.112847E+0	1.121441E+0	1.100980E+0	1.099322E+0	1.085071E+0	1.123431E+0	1.141970E+0	1.074949E+0	1.097073E+0	1.157108E+0	1.088968E+0	1.033338E+0	1.134373E+0	1.107960E+0	1.122834E+0	1.148542E+0	1.100673E+0	1.184671E+0	1.131891E+0	1.103960E+0	1.087378E+0	1.131168E+0	1.135463E+0	9.781465E-1	1.108114E+0	1.084582E+0	1.104791E+0	1.075442E+0	1.148059E+0	1.080667E+0	1.144382E+0	1.094841E+0	1.138829E+0	1.142338E+0	1.140443E+0	1.080679E+0	1.140811E+0	1.114811E+0	1.140863E+0	9.542168E-1	1.119864E+0	1.079602E+0	1.119905E+0	1.022802E+0	1.152542E+0	1.111430E+0	1.133085E+0	1.099883E+0	9.313909E-1	1.104024E+0	1.124801E+0	1.083869E+0	1.060784E+0	1.148037E+0	1.167012E+0	9.615844E-1	1.115675E+0	1.140056E+0	1.098791E+0	1.032664E+0	1.166071E+0	1.080497E+0	1.103717E+0	1.074777E+0	1.157609E+0	1.122475E+0	1.110841E+0	1.066991E+0	1.178621E+0	1.138474E+0	1.071068E+0	9.823314E-1	1.108062E+0	1.125613E+0	1.125578E+0	9.182301E-1	1.122020E+0	1.135659E+0	1.126296E+0	1.024813E+0	1.140358E+0	1.116555E+0	1.135126E+0	1.036468E+0	1.145265E+0	1.152022E+0	1.106937E+0	1.031732E+0	1.138272E+0	1.137738E+0	1.124147E+0	1.066229E+0	1.122732E+0	1.094191E+0	1.126746E+0	1.087162E+0	1.113466E+0	1.145504E+0	1.096479E+0	1.064339E+0	1.129132E+0	1.068644E+0	1.143493E+0	1.063474E+0	1.134788E+0	1.102331E+0	1.145897E+0	1.052401E+0	1.125051E+0	1.100960E+0	1.154293E+0	1.099169E+0	1.193424E+0	1.138829E+0	1.177387E+0
5.550250E+2	1.026760E+0	1.016844E+0	1.045353E+0	1.071302E+0	9.883455E-1	1.025358E+0	1.043193E+0	9.972150E-1	9.998491E-1	1.054364E+0	1.042409E+0	1.004377E+0	1.017572E+0	1.073561E+0	1.024502E+0	8.977464E-1	9.999449E-1	1.032669E+0	1.089170E+0	9.496853E-1	9.726891E-1	1.064159E+0	1.024786E+0	9.648637E-1	9.994227E-1	1.065824E+0	1.024221E+0	1.002195E+0	1.036562E+0	1.071180E+0	1.039033E+0	8.769962E-1	1.056715E+0	1.035047E+0	1.048983E+0	9.317235E-1	1.063329E+0	1.078431E+0	1.011295E+0	1.018141E+0	1.017298E+0	1.025775E+0	1.011437E+0	9.758707E-1	1.030420E+0	1.005451E+0	1.041360E+0	8.923417E-1	1.041503E+0	1.022809E+0	1.047294E+0	9.324323E-1	1.028078E+0	1.010454E+0	1.034120E+0	1.000773E+0	1.082313E+0	1.019787E+0	1.087015E+0	1.045741E+0	1.033631E+0	1.054304E+0	1.054001E+0	9.481118E-1	1.052863E+0	1.083495E+0	9.891056E-1	1.010605E+0	1.000241E+0	1.057250E+0	9.884293E-1	1.044337E+0	1.004823E+0	1.043423E+0	1.053532E+0	9.789625E-1	1.045678E+0	1.031796E+0	1.057580E+0	9.228148E-1	1.056867E+0	1.016413E+0	1.053452E+0	9.395715E-1	1.052831E+0	1.003899E+0	1.044031E+0	1.070234E+0	1.034879E+0	1.066517E+0	1.007471E+0	9.976123E-1	1.041053E+0	1.074834E+0	1.066119E+0	8.631212E-1	1.023359E+0	1.042918E+0	1.026688E+0	9.458907E-1	1.063140E+0	1.046644E+0	1.061994E+0	1.005130E+0	9.069758E-1	1.046072E+0	1.069708E+0	9.502136E-1	1.006599E+0	1.057758E+0	1.075657E+0	9.281719E-1	1.059822E+0	1.041133E+0	1.047073E+0	9.688684E-1	1.056389E+0	1.054267E+0	1.045250E+0	1.046484E+0	1.042199E+0	1.056471E+0	1.034354E+0	9.967810E-1	1.086503E+0	1.063267E+0	1.079191E+0	9.046892E-1	1.011566E+0	1.045773E+0	1.021561E+0	8.001956E-1	1.033730E+0	1.074652E+0	1.028263E+0	1.001462E+0	9.831487E-1	1.095713E+0	1.066907E+0	9.667035E-1	9.928036E-1	1.009756E+0	1.061297E+0	9.232116E-1	1.067001E+0	1.040873E+0	1.048096E+0	9.646451E-1	9.998541E-1	1.050349E+0	1.083982E+0	1.025415E+0	1.072459E+0	1.016797E+0	1.052031E+0	1.020179E+0	1.063090E+0	1.029597E+0	1.028478E+0	9.646290E-1	1.059995E+0	1.017923E+0	1.055424E+0	9.919135E-1	1.019454E+0	1.027698E+0	1.061235E+0	1.035798E+0	1.072106E+0	9.714567E-1	1.105119E+0
5.557600E+2	9.771146E-1	9.653099E-1	9.639565E-1	1.012036E+0	9.594157E-1	9.827985E-1	9.629624E-1	9.729005E-1	9.732626E-1	9.534026E-1	9.853926E-1	9.821958E-1	9.276588E-1	9.863313E-1	9.830025E-1	8.744631E-1	9.176662E-1	9.882812E-1	9.748936E-1	9.290499E-1	9.073802E-1	1.029327E+0	9.722788E-1	9.943569E-1	9.248847E-1	9.587355E-1	1.000051E+0	9.710724E-1	9.908823E-1	9.949230E-1	9.643811E-1	7.998543E-1	9.302479E-1	9.770977E-1	1.000360E+0	8.316937E-1	9.926738E-1	9.927028E-1	9.639880E-1	9.772191E-1	9.692999E-1	9.671332E-1	9.779283E-1	9.673454E-1	9.834752E-1	9.851081E-1	9.785741E-1	8.530802E-1	1.003262E+0	9.660789E-1	9.765655E-1	8.984989E-1	9.539319E-1	9.746794E-1	9.794815E-1	9.516548E-1	1.021244E+0	9.882000E-1	1.004391E+0	9.693745E-1	9.530957E-1	1.004724E+0	1.005669E+0	9.251838E-1	9.644420E-1	9.719250E-1	9.457376E-1	9.077099E-1	1.002362E+0	9.672118E-1	1.012866E+0	9.853363E-1	9.565957E-1	1.004742E+0	9.636487E-1	9.947277E-1	9.895632E-1	9.991588E-1	9.933052E-1	8.614390E-1	9.710855E-1	9.913821E-1	9.669858E-1	8.897921E-1	9.706652E-1	9.567789E-1	9.861761E-1	9.323311E-1	1.005900E+0	1.001302E+0	9.738000E-1	9.298158E-1	1.003943E+0	9.520089E-1	9.903884E-1	8.904973E-1	9.653382E-1	9.340652E-1	9.449732E-1	8.678320E-1	9.882662E-1	1.027468E+0	9.919958E-1	9.753958E-1	7.946666E-1	1.009142E+0	1.021925E+0	8.765904E-1	9.371611E-1	9.450227E-1	9.570058E-1	8.780540E-1	9.493995E-1	1.016964E+0	9.650818E-1	9.044709E-1	9.693988E-1	1.007582E+0	9.386637E-1	9.410298E-1	9.656843E-1	9.682604E-1	1.034921E+0	9.686962E-1	9.736348E-1	9.790329E-1	9.817118E-1	9.002946E-1	1.017713E+0	1.017801E+0	1.003472E+0	8.701419E-1	1.005349E+0	9.925887E-1	9.806002E-1	9.739606E-1	1.014239E+0	9.248055E-1	9.790100E-1	9.504256E-1	9.532210E-1	9.917858E-1	9.602383E-1	8.926751E-1	9.870904E-1	9.759234E-1	9.792088E-1	9.381973E-1	9.758129E-1	1.017052E+0	1.014902E+0	9.699873E-1	9.757105E-1	9.855772E-1	9.065104E-1	9.560014E-1	9.816380E-1	9.996775E-1	1.019398E+0	8.953405E-1	9.720028E-1	9.710982E-1	9.809164E-1	9.622632E-1	9.863155E-1	9.574662E-1	1.004426E+0	9.693485E-1	9.939838E-1	9.641266E-1	9.650974E-1
5.560190E+2	9.766130E-1	1.017456E+0	1.002029E+0	9.836644E-1	9.452342E-1	1.006954E+0	9.953962E-1	1.003536E+0	9.721544E-1	9.866870E-1	9.813610E-1	9.459482E-1	9.569885E-1	9.848852E-1	9.941922E-1	1.003157E+0	9.957100E-1	9.828091E-1	1.021389E+0	9.724372E-1	9.591248E-1	9.880645E-1	1.005036E+0	9.899544E-1	9.583977E-1	9.782056E-1	9.815022E-1	9.791212E-1	1.009750E+0	9.820337E-1	9.834009E-1	9.182194E-1	9.659492E-1	9.953976E-1	9.466476E-1	9.025255E-1	9.694899E-1	1.000348E+0	1.001938E+0	9.574479E-1	9.887281E-1	1.004255E+0	9.838071E-1	8.997105E-1	9.993047E-1	1.001703E+0	9.800231E-1	8.321688E-1	9.303123E-1	1.016961E+0	1.006961E+0	8.612817E-1	9.692724E-1	9.895001E-1	9.958221E-1	9.998275E-1	1.005042E+0	1.012896E+0	1.003809E+0	9.940095E-1	9.858300E-1	9.918526E-1	9.761844E-1	9.534781E-1	9.767225E-1	1.002405E+0	1.015926E+0	9.675321E-1	9.928185E-1	9.729044E-1	9.955569E-1	9.610692E-1	9.939714E-1	1.012361E+0	9.699866E-1	9.254717E-1	1.014274E+0	9.655476E-1	1.047726E+0	8.781774E-1	9.644009E-1	9.700788E-1	9.999506E-1	9.348870E-1	1.011476E+0	1.020312E+0	1.027647E+0	9.461721E-1	9.832195E-1	1.005013E+0	9.749411E-1	1.006774E+0	9.827380E-1	1.016551E+0	1.024811E+0	8.569857E-1	1.012702E+0	1.005631E+0	1.048479E+0	8.649620E-1	9.614454E-1	9.937806E-1	9.706686E-1	9.834592E-1	8.462093E-1	9.466447E-1	9.651459E-1	9.094384E-1	9.687234E-1	9.970903E-1	9.753887E-1	9.021305E-1	9.615969E-1	9.719990E-1	9.915717E-1	9.207208E-1	9.467060E-1	9.666669E-1	1.013170E+0	1.000187E+0	9.924647E-1	9.873827E-1	1.005459E+0	8.905497E-1	1.038420E+0	1.041706E+0	9.979584E-1	8.866216E-1	9.759180E-1	9.752584E-1	9.713124E-1	9.122191E-1	9.485926E-1	9.882698E-1	9.919746E-1	9.869334E-1	9.825618E-1	9.587480E-1	9.717942E-1	9.556582E-1	1.014304E+0	1.001272E+0	9.629551E-1	8.884468E-1	9.703525E-1	1.016237E+0	1.005661E+0	9.472138E-1	9.640591E-1	9.887497E-1	9.957138E-1	9.573463E-1	9.936511E-1	9.690107E-1	9.704424E-1	9.565903E-1	1.014660E+0	1.011848E+0	9.729893E-1	9.733505E-1	1.008456E+0	1.004369E+0	1.013439E+0	9.343911E-1	9.913704E-1	9.898030E-1	9.681772E-1	9.687334E-1	9.599777E-1	9.983335E-1	9.605790E-1
5.565200E+2	9.971736E-1	9.996654E-1	1.026972E+0	1.003209E+0	9.707604E-1	1.005228E+0	9.862924E-1	1.003537E+0	9.560921E-1	9.650516E-1	1.011309E+0	1.034673E+0	1.035843E+0	9.969337E-1	1.013310E+0	1.013315E+0	9.824002E-1	9.980098E-1	9.351217E-1	1.029583E+0	9.892675E-1	1.047547E+0	1.058026E+0	1.014608E+0	9.531974E-1	1.006195E+0	1.034900E+0	1.016147E+0	1.021666E+0	1.024996E+0	1.029049E+0	1.009239E+0	9.720001E-1	9.990575E-1	1.016756E+0	9.998528E-1	1.029105E+0	1.016183E+0	9.863421E-1	1.001589E+0	9.618715E-1	1.030079E+0	1.004970E+0	1.015656E+0	9.823837E-1	1.008127E+0	1.009001E+0	1.010551E+0	1.042679E+0	1.025734E+0	1.032097E+0	1.012339E+0	9.616019E-1	1.001254E+0	1.016758E+0	9.946332E-1	1.009404E+0	9.744171E-1	1.009045E+0	1.042663E+0	1.028955E+0	1.018550E+0	1.005669E+0	9.832366E-1	9.883896E-1	9.713493E-1	1.034757E+0	9.681306E-1	1.003422E+0	1.059319E+0	1.031195E+0	1.003417E+0	9.933683E-1	1.072727E+0	1.017809E+0	9.547513E-1	1.026116E+0	1.072227E+0	1.030367E+0	9.079358E-1	1.018989E+0	1.006294E+0	1.029674E+0	9.916945E-1	1.020727E+0	9.821916E-1	1.002560E+0	1.045112E+0	1.015979E+0	9.981204E-1	1.050844E+0	9.689055E-1	9.996057E-1	9.804271E-1	1.032679E+0	8.635931E-1	1.000269E+0	1.039310E+0	1.044847E+0	9.269500E-1	1.043584E+0	1.012957E+0	1.038479E+0	9.975718E-1	8.630285E-1	1.013119E+0	1.037103E+0	9.235961E-1	9.839789E-1	1.004256E+0	1.025523E+0	8.662613E-1	1.039920E+0	1.018650E+0	9.865257E-1	9.165082E-1	1.016946E+0	1.022794E+0	9.945437E-1	1.002759E+0	9.803499E-1	1.044133E+0	9.839303E-1	9.479394E-1	1.016152E+0	9.865540E-1	9.927027E-1	9.232453E-1	1.034307E+0	9.805035E-1	1.004476E+0	9.335306E-1	9.890595E-1	1.006086E+0	1.058052E+0	1.036747E+0	1.067033E+0	1.034376E+0	9.999997E-1	9.707731E-1	9.830298E-1	1.027728E+0	9.797983E-1	8.860982E-1	1.047024E+0	1.012877E+0	9.814131E-1	9.989075E-1	1.023362E+0	1.019827E+0	1.018192E+0	9.991617E-1	1.018639E+0	1.023169E+0	1.060555E+0	9.613008E-1	1.033371E+0	1.036189E+0	1.044620E+0	9.428245E-1	1.004057E+0	1.041952E+0	1.015805E+0	9.877624E-1	1.005974E+0	1.010519E+0	9.909006E-1	1.033336E+0	9.866315E-1	1.056976E+0	1.096086E+0
5.570500E+2	1.020241E+0	9.818750E-1	1.005967E+0	1.051758E+0	9.752986E-1	9.839488E-1	9.874298E-1	1.027851E+0	9.621849E-1	1.037722E+0	1.059110E+0	9.827373E-1	9.935311E-1	1.021993E+0	9.783405E-1	9.963839E-1	1.020515E+0	1.004699E+0	9.810557E-1	1.048631E+0	9.239583E-1	9.902076E-1	1.008408E+0	1.041899E+0	9.791988E-1	1.003153E+0	9.826260E-1	1.027415E+0	9.720144E-1	1.005126E+0	1.000994E+0	1.040668E+0	1.002256E+0	1.027117E+0	9.404285E-1	1.052301E+0	9.716979E-1	1.021643E+0	1.009735E+0	1.042970E+0	1.009298E+0	1.005869E+0	9.767517E-1	9.821227E-1	1.030420E+0	9.947439E-1	1.009965E+0	1.051522E+0	1.018559E+0	1.027488E+0	9.993624E-1	1.010150E+0	9.759199E-1	9.910331E-1	1.003482E+0	9.946344E-1	9.794921E-1	1.004855E+0	1.041048E+0	1.041431E+0	9.842707E-1	1.003769E+0	1.031285E+0	1.032508E+0	1.002512E+0	9.483455E-1	9.816875E-1	9.699256E-1	9.557070E-1	9.791136E-1	1.014393E+0	1.031014E+0	1.010851E+0	9.801268E-1	1.009166E+0	1.011620E+0	1.005522E+0	9.976980E-1	1.000343E+0	1.010228E+0	1.047398E+0	9.711442E-1	9.496920E-1	1.034447E+0	9.842691E-1	9.843097E-1	1.024063E+0	1.008202E+0	1.006529E+0	9.864554E-1	1.016602E+0	9.817324E-1	1.071413E+0	1.014143E+0	9.628502E-1	1.018881E+0	9.517208E-1	9.755615E-1	1.030925E+0	9.918077E-1	9.988823E-1	1.002073E+0	1.000746E+0	9.481805E-1	9.639448E-1	1.017096E+0	1.021924E+0	9.320911E-1	9.850314E-1	9.999565E-1	1.009369E+0	9.040957E-1	1.044414E+0	9.933577E-1	1.026260E+0	9.255358E-1	1.007220E+0	1.053219E+0	1.002822E+0	9.929855E-1	9.988406E-1	9.836814E-1	1.001494E+0	1.001665E+0	9.832516E-1	1.028168E+0	1.048131E+0	9.105492E-1	1.006034E+0	9.974045E-1	9.813622E-1	9.340775E-1	1.055277E+0	1.001227E+0	9.692261E-1	9.879712E-1	9.415001E-1	9.819728E-1	9.967199E-1	9.428679E-1	1.005997E+0	1.017244E+0	1.032501E+0	9.124060E-1	1.003829E+0	1.035274E+0	1.014479E+0	9.255745E-1	1.044732E+0	1.008728E+0	9.666565E-1	9.845744E-1	9.801957E-1	9.804801E-1	1.022196E+0	9.471693E-1	1.000900E+0	1.013876E+0	9.946804E-1	9.462169E-1	1.009714E+0	1.064748E+0	9.921513E-1	1.010890E+0	9.958638E-1	1.046897E+0	1.030937E+0	1.004418E+0	1.024314E+0	9.616828E-1	9.628374E-1
5.575420E+2	9.976750E-1	9.653108E-1	9.790545E-1	9.836648E-1	9.843749E-1	9.816486E-1	1.043193E+0	9.938111E-1	1.007603E+0	1.012204E+0	9.928799E-1	1.013033E+0	1.021418E+0	1.029702E+0	1.021704E+0	1.007811E+0	9.769555E-1	9.858487E-1	9.973012E-1	1.017942E+0	9.968032E-1	9.864571E-1	1.031048E+0	9.833522E-1	9.670648E-1	1.035401E+0	9.938683E-1	9.860971E-1	1.003791E+0	9.895526E-1	9.967149E-1	9.978103E-1	9.871282E-1	1.014306E+0	9.766137E-1	1.019859E+0	9.694898E-1	1.005261E+0	1.021692E+0	9.951508E-1	1.018441E+0	9.741273E-1	1.012612E+0	1.011677E+0	1.016773E+0	9.738660E-1	1.023972E+0	1.041704E+0	9.597278E-1	1.012867E+0	9.841646E-1	9.997514E-1	9.564887E-1	9.777453E-1	1.002971E+0	1.037611E+0	1.000057E+0	1.042186E+0	9.886799E-1	1.014949E+0	9.946631E-1	1.016641E+0	1.011951E+0	1.025677E+0	1.024617E+0	1.017933E+0	1.025056E+0	1.035730E+0	9.949393E-1	1.007056E+0	1.016939E+0	1.028159E+0	9.903551E-1	9.812986E-1	9.843909E-1	1.028511E+0	9.751482E-1	1.004516E+0	1.007378E+0	1.058586E+0	1.016205E+0	1.028662E+0	9.929256E-1	1.018634E+0	9.576063E-1	1.012369E+0	1.000000E+0	1.027683E+0	9.706190E-1	1.023570E+0	9.983398E-1	1.000666E+0	9.870749E-1	1.026667E+0	9.844874E-1	1.049086E+0	1.021583E+0	1.047728E+0	9.843171E-1	1.002713E+0	9.854720E-1	1.027468E+0	1.030823E+0	1.065610E+0	1.029594E+0	1.038118E+0	9.640209E-1	1.017608E+0	9.797708E-1	1.031484E+0	1.033879E+0	1.023004E+0	1.006537E+0	1.014154E+0	1.019323E+0	1.024238E+0	9.791244E-1	1.017024E+0	1.010066E+0	1.018706E+0	9.975654E-1	1.021309E+0	1.044552E+0	1.013875E+0	9.918554E-1	1.006609E+0	9.826682E-1	9.447311E-1	9.912832E-1	9.974035E-1	1.033119E+0	9.537499E-1	9.764464E-1	9.850302E-1	1.043428E+0	9.993872E-1	1.012479E+0	1.013534E+0	1.002624E+0	9.574024E-1	9.903600E-1	1.001270E+0	9.846880E-1	8.860979E-1	1.005448E+0	9.966402E-1	9.891282E-1	9.387982E-1	1.028704E+0	9.965192E-1	1.074113E+0	9.845736E-1	1.050034E+0	1.009789E+0	1.003930E+0	1.004282E+0	1.020162E+0	9.981559E-1	1.009814E+0	9.321652E-1	9.820586E-1	9.901985E-1	9.761857E-1	9.492168E-1	9.919319E-1	1.042855E+0	1.014706E+0	1.002573E+0	1.077621E+0	1.067971E+0	1.084794E+0
5.580060E+2	9.916573E-1	1.016229E+0	9.849623E-1	1.015819E+0	9.469359E-1	9.966012E-1	1.011328E+0	1.016667E+0	9.439071E-1	9.883507E-1	9.807853E-1	1.010328E+0	9.973774E-1	9.993428E-1	9.736766E-1	1.000192E+0	9.914748E-1	9.949695E-1	1.019708E+0	9.861949E-1	9.706798E-1	1.035222E+0	9.867307E-1	1.006244E+0	9.890216E-1	9.885503E-1	1.032652E+0	9.909271E-1	1.020177E+0	9.557203E-1	9.933868E-1	1.019852E+0	9.853124E-1	1.011867E+0	1.032587E+0	1.045813E+0	1.047873E+0	1.007446E+0	1.027930E+0	9.873347E-1	1.001870E+0	9.972612E-1	1.076691E+0	9.565460E-1	9.889340E-1	1.008662E+0	1.000307E+0	9.917759E-1	9.820829E-1	9.502877E-1	1.005792E+0	1.028211E+0	9.871699E-1	1.035495E+0	9.937799E-1	1.014942E+0	9.720154E-1	9.836060E-1	1.009045E+0	1.022955E+0	1.023759E+0	9.723056E-1	1.025968E+0	1.001774E+0	1.015406E+0	1.015057E+0	9.999482E-1	1.012998E+0	9.928187E-1	9.811836E-1	9.945387E-1	1.019119E+0	9.921634E-1	1.002983E+0	1.018385E+0	1.018376E+0	1.025086E+0	1.028873E+0	9.745362E-1	1.039059E+0	9.978222E-1	1.003631E+0	1.024810E+0	1.009850E+0	1.012020E+0	1.012899E+0	1.024064E+0	9.748806E-1	9.750289E-1	1.020919E+0	1.005188E+0	9.829537E-1	9.784004E-1	1.037745E+0	9.943222E-1	1.031623E+0	1.038752E+0	9.930019E-1	9.673691E-1	1.026245E+0	1.016763E+0	1.011402E+0	9.903550E-1	9.990840E-1	1.079509E+0	1.016528E+0	1.049471E+0	1.035164E+0	9.692500E-1	1.001389E+0	1.007140E+0	1.045606E+0	1.005895E+0	1.050126E+0	1.021214E+0	1.013405E+0	1.031534E+0	9.797807E-1	1.014723E+0	9.878410E-1	1.037736E+0	1.023160E+0	9.624008E-1	9.790755E-1	9.873001E-1	1.010620E+0	1.043354E+0	1.031162E+0	1.066883E+0	1.023629E+0	1.012517E+0	1.018232E+0	9.701399E-1	9.704532E-1	1.015264E+0	9.999058E-1	1.015412E+0	9.938823E-1	1.037389E+0	1.007399E+0	9.722794E-1	1.051687E+0	1.035761E+0	1.098912E+0	1.002209E+0	9.540877E-1	9.995989E-1	1.024754E+0	9.822238E-1	9.992935E-1	9.946171E-1	1.019095E+0	9.987770E-1	1.032090E+0	1.005756E+0	1.021357E+0	1.002552E+0	1.028582E+0	9.891315E-1	9.418557E-1	1.029198E+0	9.963592E-1	1.045962E+0	9.628559E-1	1.042484E+0	1.012540E+0	1.021740E+0	1.019800E+0	9.903086E-1	9.897822E-1	9.944571E-1
5.585160E+2	9.946658E-1	1.079417E+0	1.009249E+0	1.007623E+0	9.480704E-1	9.873993E-1	9.811708E-1	1.010831E+0	9.799096E-1	1.034948E+0	9.842406E-1	1.010870E+0	9.901652E-1	9.612715E-1	1.049213E+0	9.921502E-1	9.969203E-1	1.034493E+0	9.973013E-1	9.988938E-1	9.706794E-1	1.018609E+0	1.003591E+0	9.780701E-1	9.976887E-1	9.891587E-1	1.011855E+0	1.013464E+0	1.033583E+0	1.002978E+0	1.000995E+0	9.908718E-1	1.013147E+0	9.807578E-1	1.075557E+0	1.053382E+0	9.595538E-1	9.987093E-1	1.019093E+0	9.818171E-1	9.898700E-1	1.037073E+0	9.890978E-1	9.963318E-1	1.059897E+0	1.058449E+0	9.983755E-1	1.029329E+0	9.926729E-1	9.783601E-1	1.008131E+0	1.009603E+0	9.820563E-1	9.997212E-1	9.805028E-1	1.027220E+0	9.570596E-1	1.018064E+0	1.018355E+0	9.539779E-1	1.017005E+0	9.904221E-1	1.011951E+0	1.041776E+0	1.009880E+0	1.042662E+0	1.040464E+0	9.914619E-1	1.010314E+0	1.014818E+0	1.027121E+0	1.000088E+0	1.002412E+0	9.824712E-1	1.055260E+0	1.051596E+0	9.797819E-1	9.709054E-1	1.018170E+0	1.017669E+0	1.009520E+0	1.028662E+0	1.020486E+0	1.004579E+0	9.962404E-1	1.036194E+0	9.744005E-1	9.820574E-1	1.007159E+0	9.864554E-1	1.021167E+0	1.030595E+0	1.005871E+0	9.866887E-1	9.943229E-1	1.095816E+0	9.381041E-1	9.647364E-1	1.041215E+0	1.057814E+0	1.009499E+0	1.001555E+0	1.029182E+0	1.018236E+0	1.062690E+0	9.966431E-1	9.842594E-1	1.065180E+0	1.048684E+0	9.794157E-1	1.016610E+0	1.057399E+0	9.949805E-1	9.798673E-1	1.006078E+0	1.011599E+0	1.030454E+0	9.640445E-1	9.841954E-1	1.045455E+0	1.020520E+0	1.018842E+0	1.038887E+0	1.024254E+0	1.022730E+0	1.030174E+0	9.917465E-1	1.096110E+0	9.845227E-1	9.810866E-1	9.989493E-1	1.036265E+0	9.811764E-1	1.028761E+0	9.605603E-1	9.947164E-1	1.047675E+0	1.018894E+0	9.560511E-1	1.021933E+0	1.043136E+0	1.013251E+0	1.059667E+0	1.060389E+0	1.033525E+0	1.031915E+0	1.033767E+0	1.036175E+0	1.032978E+0	9.954089E-1	1.003937E+0	1.000619E+0	1.023765E+0	1.011701E+0	1.025850E+0	1.031366E+0	9.783365E-1	9.849709E-1	1.010823E+0	1.047000E+0	1.002172E+0	1.000056E+0	9.844646E-1	1.056552E+0	1.008783E+0	9.721188E-1	1.013624E+0	9.834995E-1	9.921459E-1	1.015438E+0	9.560637E-1
5.590160E+2	9.841356E-1	9.812611E-1	1.046009E+0	1.001949E+0	9.395614E-1	1.048938E+0	1.026692E+0	1.050220E+0	1.024219E+0	1.014978E+0	1.019947E+0	1.008164E+0	1.004109E+0	1.025367E+0	1.036624E+0	1.028978E+0	1.050159E+0	9.742963E-1	1.026990E+0	1.027466E+0	9.973054E-1	9.977109E-1	1.040203E+0	1.009325E+0	1.010978E+0	1.015322E+0	1.012417E+0	1.015610E+0	1.026631E+0	9.906264E-1	1.036179E+0	1.041892E+0	1.019198E+0	1.028947E+0	1.024106E+0	9.874161E-1	9.937776E-1	1.050037E+0	9.967394E-1	9.914732E-1	9.772996E-1	1.017167E+0	1.021431E+0	1.012245E+0	1.010769E+0	1.058449E+0	9.974098E-1	1.053656E+0	1.036796E+0	1.039185E+0	9.812412E-1	1.066523E+0	1.007113E+0	1.010453E+0	1.039226E+0	9.738538E-1	1.014389E+0	1.068030E+0	1.038138E+0	1.007559E+0	9.905057E-1	1.015689E+0	1.049170E+0	1.020312E+0	1.001284E+0	1.049564E+0	9.816875E-1	1.019579E+0	1.020917E+0	9.894626E-1	9.762111E-1	1.027684E+0	1.052447E+0	1.021152E+0	1.036823E+0	1.032452E+0	1.056489E+0	9.942886E-1	1.010662E+0	1.095318E+0	1.031801E+0	1.037183E+0	1.030755E+0	1.007507E+0	1.010388E+0	1.029311E+0	1.044543E+0	1.053828E+0	1.019129E+0	1.018798E+0	1.021738E+0	1.068463E+0	9.716548E-1	1.011254E+0	1.001699E+0	1.057585E+0	1.010334E+0	1.011645E+0	9.637371E-1	1.081920E+0	9.949712E-1	9.942989E-1	1.013871E+0	1.015715E+0	1.072998E+0	9.989153E-1	9.420968E-1	1.019874E+0	1.013964E+0	9.846705E-1	1.016053E+0	1.062314E+0	9.693010E-1	1.043943E+0	1.015538E+0	1.041089E+0	1.024510E+0	1.014402E+0	1.030245E+0	9.950433E-1	1.008405E+0	1.001570E+0	1.046252E+0	1.068823E+0	1.049555E+0	1.011121E+0	1.022804E+0	1.097086E+0	9.556355E-1	1.042277E+0	1.000457E+0	1.080528E+0	1.073671E+0	1.020123E+0	1.022847E+0	1.016510E+0	9.819751E-1	1.006983E+0	1.024270E+0	1.119602E+0	9.947580E-1	1.024233E+0	1.012397E+0	1.061329E+0	1.003289E+0	1.005600E+0	1.017785E+0	9.965025E-1	1.003060E+0	1.048130E+0	9.781697E-1	1.039516E+0	1.001340E+0	1.017434E+0	1.029503E+0	1.029600E+0	1.012458E+0	9.657014E-1	1.027469E+0	1.057659E+0	1.046796E+0	9.951271E-1	1.069615E+0	1.048843E+0	9.986721E-1	9.968764E-1	1.020658E+0	1.011187E+0	1.009608E+0	1.015437E+0	1.003489E+0
5.595110E+2	1.003693E+0	1.020524E+0	1.069641E+0	1.029690E+0	9.679246E-1	1.016155E+0	9.760501E-1	9.899209E-1	1.003726E+0	1.021080E+0	1.004974E+0	1.057937E+0	1.019495E+0	1.020547E+0	9.750751E-1	9.874929E-1	9.999450E-1	1.041182E+0	1.054439E+0	9.846073E-1	9.917792E-1	1.003069E+0	1.007444E+0	1.005801E+0	1.000577E+0	1.029317E+0	9.764433E-1	9.973658E-1	1.014715E+0	1.064199E+0	9.795971E-1	1.004749E+0	1.044613E+0	1.008817E+0	1.004883E+0	1.011207E+0	9.827373E-1	1.028195E+0	1.017013E+0	1.074236E+0	9.732996E-1	1.023623E+0	1.003207E+0	1.082722E+0	9.812920E-1	9.909967E-1	1.047156E+0	1.033171E+0	1.014440E+0	9.912277E-1	9.818267E-1	1.018360E+0	1.015295E+0	1.012498E+0	1.015226E+0	1.005967E+0	9.988103E-1	9.910720E-1	9.683152E-1	9.946246E-1	1.019083E+0	1.013305E+0	9.935845E-1	1.006164E+0	1.000056E+0	1.000104E+0	9.754106E-1	1.102134E+0	9.732027E-1	1.028272E+0	9.909751E-1	1.031490E+0	9.795032E-1	1.024669E+0	1.006862E+0	1.034704E+0	1.023541E+0	1.023513E+0	9.998723E-1	9.990701E-1	1.001165E+0	9.913821E-1	1.019406E+0	1.016292E+0	1.003314E+0	9.821921E-1	9.815686E-1	1.012817E+0	1.017239E+0	1.029403E+0	9.954868E-1	9.829537E-1	1.044908E+0	9.876519E-1	1.058742E+0	1.046727E+0	1.025135E+0	1.021868E+0	1.017003E+0	1.077902E+0	1.053082E+0	1.014512E+0	1.012777E+0	1.032347E+0	1.028509E+0	9.983474E-1	1.031482E+0	1.035164E+0	1.023960E+0	1.032918E+0	9.514358E-1	1.040202E+0	1.046340E+0	1.000102E+0	9.903103E-1	1.056136E+0	1.018027E+0	1.071053E+0	9.945438E-1	1.017677E+0	1.040924E+0	1.018225E+0	9.878962E-1	1.095075E+0	9.837577E-1	9.915675E-1	1.017551E+0	1.050208E+0	1.044755E+0	1.045774E+0	1.040656E+0	1.034079E+0	1.025847E+0	1.032001E+0	9.995567E-1	1.027926E+0	1.045915E+0	9.897142E-1	1.020335E+0	1.024258E+0	1.034829E+0	9.573425E-1	9.825150E-1	1.053343E+0	1.010308E+0	9.916012E-1	9.946392E-1	1.065628E+0	9.998551E-1	9.854195E-1	1.026964E+0	1.024443E+0	9.808370E-1	9.874885E-1	9.838370E-1	1.035488E+0	1.021264E+0	1.015398E+0	1.017380E+0	1.055237E+0	9.782873E-1	1.009298E+0	1.002795E+0	1.004959E+0	1.026757E+0	9.892978E-1	1.030396E+0	1.013032E+0	1.007771E+0	1.005665E+0	1.019299E+0
5.600520E+2	1.020743E+0	9.910763E-1	9.875875E-1	9.004406E-1	1.100094E+0	1.010405E+0	9.635313E-1	9.315656E-1	1.026989E+0	9.750373E-1	9.940316E-1	1.000590E+0	1.010840E+0	9.959695E-1	1.015641E+0	9.845291E-1	9.805856E-1	1.025981E+0	9.648102E-1	9.951898E-1	9.827364E-1	1.021289E+0	9.457841E-1	1.021211E+0	1.013290E+0	9.678623E-1	1.005110E+0	1.015610E+0	9.501679E-1	1.002441E+0	9.743668E-1	1.006790E+0	9.822869E-1	9.746577E-1	1.015625E+0	9.717359E-1	9.733537E-1	9.572101E-1	9.811438E-1	1.002968E+0	1.007584E+0	9.682094E-1	1.000855E+0	1.031569E+0	9.872963E-1	9.653003E-1	1.000790E+0	9.951901E-1	9.714938E-1	9.806997E-1	9.812414E-1	1.040252E+0	9.784768E-1	1.017609E+0	9.774394E-1	9.828261E-1	1.028098E+0	9.847545E-1	9.688967E-1	9.890823E-1	9.692028E-1	9.732593E-1	9.873014E-1	9.851877E-1	1.001898E+0	9.627227E-1	9.970950E-1	1.030347E+0	9.679013E-1	1.015853E+0	9.869020E-1	1.003894E+0	1.022305E+0	9.320675E-1	9.688342E-1	1.002611E+0	9.396263E-1	9.709054E-1	9.801675E-1	1.013483E+0	9.733138E-1	9.722097E-1	9.831979E-1	1.036204E+0	1.035965E+0	9.832505E-1	9.426571E-1	9.871841E-1	1.060079E+0	9.901668E-1	9.960567E-1	9.847855E-1	9.210510E-1	9.741654E-1	9.903883E-1	9.919750E-1	9.902042E-1	9.659390E-1	9.540522E-1	1.017063E+0	9.664744E-1	9.699404E-1	9.690280E-1	1.020252E+0	1.016573E+0	1.006302E+0	9.999999E-1	1.014210E+0	1.022381E+0	1.003301E+0	1.027751E+0	1.022023E+0	1.018093E+0	1.025957E+0	1.008600E+0	1.040488E+0	9.688591E-1	9.493566E-1	1.014205E+0	9.832115E-1	9.644089E-1	9.682599E-1	1.015658E+0	1.012654E+0	9.544018E-1	9.795346E-1	9.893560E-1	1.050697E+0	9.796061E-1	9.636034E-1	9.693026E-1	1.011127E+0	9.643590E-1	1.021743E+0	9.822247E-1	1.000424E+0	9.778689E-1	9.885231E-1	1.011151E+0	1.014957E+0	1.012350E+0	9.703212E-1	9.993580E-1	1.041598E+0	9.789917E-1	9.882422E-1	1.011724E+0	1.031967E+0	9.779497E-1	9.904142E-1	9.913278E-1	1.005480E+0	9.853210E-1	9.894001E-1	1.006974E+0	9.966274E-1	9.766851E-1	9.910564E-1	9.916537E-1	1.044577E+0	1.005942E+0	9.778755E-1	9.708639E-1	1.032831E+0	9.829454E-1	9.625190E-1	9.551931E-1	9.927292E-1	1.009608E+0	9.323628E-1	9.673562E-1
5.605090E+2	1.020241E+0	9.775800E-1	9.514845E-1	1.041039E+0	1.094989E+0	9.931504E-1	1.017588E+0	9.835989E-1	1.058007E+0	1.007211E+0	9.842410E-1	9.740809E-1	9.978582E-1	9.901868E-1	9.783382E-1	1.008660E+0	1.017490E+0	9.894975E-1	1.026430E+0	9.782579E-1	1.093763E+0	9.671655E-1	9.361496E-1	9.925969E-1	1.047959E+0	1.023841E+0	1.000051E+0	9.973658E-1	9.864133E-1	9.772008E-1	1.000994E+0	9.631183E-1	1.051269E+0	9.868581E-1	9.935750E-1	1.007963E+0	1.032417E+0	9.703151E-1	9.535911E-1	1.031016E+0	1.009870E+0	9.918810E-1	9.744010E-1	9.753021E-1	9.632775E-1	9.877845E-1	9.978930E-1	9.862274E-1	1.018558E+0	9.970756E-1	1.017482E+0	9.871632E-1	1.052623E+0	9.690575E-1	1.012162E+0	1.009274E+0	1.014389E+0	9.680999E-1	9.787882E-1	9.810761E-1	9.858292E-1	1.027608E+0	9.322006E-1	9.651862E-1	1.004354E+0	9.886020E-1	9.776935E-1	9.669338E-1	1.006603E+0	9.584155E-1	9.675559E-1	9.605936E-1	9.517734E-1	9.930202E-1	9.941858E-1	9.733315E-1	9.787521E-1	1.011824E+0	9.914282E-1	9.535029E-1	9.794405E-1	1.003098E+0	1.003734E+0	9.682685E-1	9.946081E-1	1.004428E+0	9.774726E-1	9.923105E-1	9.737688E-1	9.838048E-1	9.835014E-1	9.951691E-1	1.034304E+0	1.003066E+0	1.000224E+0	9.801763E-1	1.047633E+0	9.942050E-1	9.570785E-1	9.717197E-1	9.927362E-1	9.808240E-1	9.832462E-1	9.905157E-1	1.018743E+0	9.949382E-1	1.006184E+0	1.005148E+0	1.006074E+0	9.894470E-1	9.519927E-1	1.046098E+0	9.327072E-1	9.607576E-1	9.594056E-1	1.057941E+0	9.829067E-1	9.488322E-1	1.004375E+0	9.780671E-1	9.172246E-1	9.466697E-1	9.437047E-1	9.815178E-1	1.007546E+0	9.349111E-1	9.310612E-1	1.002841E+0	9.746887E-1	9.974041E-1	9.924171E-1	1.022057E+0	9.890596E-1	9.726129E-1	9.914326E-1	9.952354E-1	9.590975E-1	1.004602E+0	9.934407E-1	9.812382E-1	9.625062E-1	9.997734E-1	1.002618E+0	1.058509E+0	9.876305E-1	9.843225E-1	9.720440E-1	1.036776E+0	9.731417E-1	1.017607E+0	1.001745E+0	1.009370E+0	9.744293E-1	9.830281E-1	9.381719E-1	1.010759E+0	9.761350E-1	9.722938E-1	9.790425E-1	1.025680E+0	9.500042E-1	9.624730E-1	9.732286E-1	1.018006E+0	9.655333E-1	1.003445E+0	9.735879E-1	9.859608E-1	9.792790E-1	9.751216E-1	9.176720E-1
5.610010E+2	9.931617E-1	9.696050E-1	9.370433E-1	9.811429E-1	1.126756E+0	9.695709E-1	1.011329E+0	9.884619E-1	1.065207E+0	9.567304E-1	9.871204E-1	9.616380E-1	9.723746E-1	9.738012E-1	9.638846E-1	9.773316E-1	9.878453E-1	9.682152E-1	9.754540E-1	9.607971E-1	1.123903E+0	9.446584E-1	9.775780E-1	9.569384E-1	1.082627E+0	9.629945E-1	9.685739E-1	9.608767E-1	9.610917E-1	1.005126E+0	1.004323E+0	1.006791E+0	9.768411E-1	9.722177E-1	9.732214E-1	9.479448E-1	1.070505E+0	9.446517E-1	9.847823E-1	9.339981E-1	1.061868E+0	9.504557E-1	9.561763E-1	1.036117E+0	9.796535E-1	9.519172E-1	9.351070E-1	9.747043E-1	1.032678E+0	9.801148E-1	1.001700E+0	9.663654E-1	1.113984E+0	9.956330E-1	9.626306E-1	9.592116E-1	1.021244E+0	9.520187E-1	9.758794E-1	9.576734E-1	1.000896E+0	9.765963E-1	9.747349E-1	9.846998E-1	9.748807E-1	1.001255E+0	9.702749E-1	9.352285E-1	1.081356E+0	9.936018E-1	9.986116E-1	9.334721E-1	1.010851E+0	9.971224E-1	9.382974E-1	9.665755E-1	9.756632E-1	9.597014E-1	9.393494E-1	1.026970E+0	9.599446E-1	9.876542E-1	9.453691E-1	9.776387E-1	9.733857E-1	9.525431E-1	1.001024E+0	9.697538E-1	9.712489E-1	9.572940E-1	9.361340E-1	9.970014E-1	1.002980E+0	9.616420E-1	9.554741E-1	1.007552E+0	9.635624E-1	9.803728E-1	9.909757E-1	9.809027E-1	9.770903E-1	9.911896E-1	9.608256E-1	9.290287E-1	1.018201E+0	9.733479E-1	9.983134E-1	1.042527E+0	9.981827E-1	9.760719E-1	9.848585E-1	1.030866E+0	9.802151E-1	9.410851E-1	9.751731E-1	9.923398E-1	9.937128E-1	1.012828E+0	9.371115E-1	9.780674E-1	1.041562E+0	9.867658E-1	9.697664E-1	9.845705E-1	9.650308E-1	9.790333E-1	9.826675E-1	1.006748E+0	9.863666E-1	9.956559E-1	9.954314E-1	1.064134E+0	1.026372E+0	9.736926E-1	9.654349E-1	9.542432E-1	9.684835E-1	1.008770E+0	9.862250E-1	1.003911E+0	9.864504E-1	9.358779E-1	9.477420E-1	1.052872E+0	9.573946E-1	9.832024E-1	9.797600E-1	9.977049E-1	9.699358E-1	9.499026E-1	9.485644E-1	9.758219E-1	9.930105E-1	9.964092E-1	9.527847E-1	1.005460E+0	9.634770E-1	9.819282E-1	9.623964E-1	1.033433E+0	9.833154E-1	9.575444E-1	9.554892E-1	9.936925E-1	9.896854E-1	9.731295E-1	9.800803E-1	9.847300E-1	9.627354E-1	9.812301E-1	1.037366E+0
