Photon Energy (eV)	#1	#2	#3	#4	#5	#6	#7	#8	#9	#10	#11	#12	#13	#14	#15	#16	#17	#18	#19	#20	#21	#22	#23	#24	#25	#26	#27	#28	#29	#30	#31	#32	#33	#34	#35	#36	#37	#38	#39	#40	#41	#42	#43	#44	#45	#46	#47	#48	#49	#50	#51	#52	#53	#54	#55	#56	#57	#58	#59	#60	#61	#62	#63	#64	#65	#66	#67	#68	#69	#70	#71	#72	#73	#74	#75	#76	#77	#78	#79	#80	#81	#82	#83	#84	#85	#86	#87	#88	#89	#90	#91	#92	#93	#94	#95	#96	#97	#98	#99	#100	#101	#102	#103	#104	#105	#106	#107	#108	#109	#110	#111	#112	#113	#114	#115	#116	#117	#118	#119	#120	#121	#122	#123	#124	#125	#126	#127	#128	#129	#130	#131	#132	#133	#134	#135	#136	#137	#138	#139	#140	#141	#142	#143	#144	#145	#146	#147	#148	#149	#150	#151	#152	#153	#154	#155	#156	#157	#158	#159	#160	#161	#162	#163	#164	#165	#166	#167	#168	#169	#170	
5.300160E+2	-1.184425E-2	-2.019090E-4	-7.701799E-3	-1.486202E-3	-2.380198E-3	-1.509125E-2	-4.011892E-3	-5.830917E-3	-1.295083E-3	-5.331207E-3	-1.552328E-3	-1.111305E-2	-7.353258E-3	-9.213485E-3	-1.121449E-2	-1.057173E-2	-2.195076E-3	-4.173168E-3	-3.601563E-3	-7.052809E-3	-1.003466E-2	-9.441607E-3	-2.847712E-3	3.346082E-3	-6.538509E-3	-1.135230E-2	-5.829082E-3	1.768563E-4	-3.196910E-3	-9.728788E-3	-8.793217E-4	-4.876810E-3	-5.478372E-3	-3.089176E-3	-5.800155E-3	-1.113252E-2	-9.953740E-3	-5.982396E-3	8.711921E-5	-1.352506E-2	-7.858650E-3	-5.535450E-3	-1.028563E-2	-5.071645E-3	-1.174077E-2	-1.165421E-2	-4.504418E-3	-5.969684E-3	9.672262E-4	-6.426235E-3	-6.876303E-3	-1.894160E-3	-1.125056E-2	-1.137963E-2	-1.267132E-2	1.033589E-3	-2.852524E-3	-6.443288E-3	-3.585407E-3	-2.161410E-3	5.255352E-3	8.573372E-4	-8.218690E-3	-1.640992E-2	-3.279219E-3	-3.528382E-3	-3.873267E-4	-8.865459E-3	-9.288272E-3	-5.229756E-4	3.425907E-4	-5.378139E-3	-2.753001E-3	-1.146171E-3	-6.293547E-3	-1.417704E-3	-1.052731E-2	-7.044591E-3	2.284327E-3	-1.057780E-2	-4.964625E-3	-9.267651E-3	1.638844E-3	-1.029167E-2	-8.991311E-4	-8.625488E-3	-5.904347E-3	-6.496723E-3	-6.359835E-3	-6.400076E-3	2.887745E-3	-2.522174E-3	-4.525867E-3	-6.610117E-3	-7.841026E-3	-4.061959E-3	-5.710195E-3	1.480205E-3	-1.034860E-2	-9.892135E-3	-5.764760E-3	1.546608E-3	-1.840144E-2	-3.116173E-3	-4.972051E-3	-5.510972E-3	-4.516465E-9	-9.643152E-3	-6.017230E-3	-4.784189E-4	-8.837124E-3	-1.970969E-2	-3.884174E-3	-1.540106E-2	-3.821412E-3	-6.221183E-3	-9.311225E-3	-3.510426E-4	-2.019286E-2	-6.543370E-3	-8.981650E-3	-7.478304E-3	-1.335691E-2	-1.023490E-3	-1.099917E-3	-8.402343E-4	-1.604108E-3	-4.299854E-3	-6.365888E-3	-1.056048E-2	-1.112721E-2	3.563283E-3	-1.560366E-3	-4.682467E-3	-1.081024E-2	1.019517E-3	-8.192506E-3	-4.778437E-3	-9.260457E-3	-8.373367E-3	-4.264953E-3	-5.510534E-3	-2.028965E-3	-7.289397E-3	-2.427358E-3	-6.685922E-3	1.834307E-4	-1.260369E-2	-8.755460E-3	-7.749931E-3	-9.481985E-3	1.213375E-3	-3.308055E-3	-3.240190E-3	-1.568570E-2	-7.845295E-3	3.855978E-3	-6.475869E-3	-1.085733E-2	4.751125E-4	-5.513488E-3	-9.096031E-3	-3.760438E-3	-1.179055E-2	-1.332961E-2	-5.986917E-3	-9.857823E-3	-9.759018E-3	-1.479192E-2	-5.376612E-3
5.305130E+2	5.171457E-3	-2.019066E-3	-3.796668E-3	-8.492385E-3	1.047246E-3	1.012453E-2	-5.158151E-3	-5.345007E-3	-4.625361E-3	-1.402953E-3	-1.610518E-2	-6.234132E-3	-6.372852E-3	-1.017488E-2	1.869087E-3	1.610259E-3	-5.786946E-3	-1.150174E-2	6.634519E-3	-2.873377E-3	-1.003432E-3	1.781495E-4	-1.700480E-2	-4.509986E-3	-1.473600E-2	-8.256141E-4	-6.384226E-3	-8.842041E-4	-9.590660E-3	7.566828E-3	-7.594008E-3	-5.701076E-3	-1.217442E-3	-4.324846E-3	2.186922E-3	1.795803E-4	4.131760E-3	-3.263124E-3	-3.571534E-3	-3.897064E-3	-7.858618E-3	-6.352278E-4	-5.628003E-3	1.818188E-3	-5.136606E-3	-7.416321E-3	-6.434905E-3	-5.969656E-3	-8.318246E-3	-1.168398E-3	-8.619557E-3	-6.223712E-3	2.556949E-3	-8.299415E-3	-8.016581E-3	-6.122019E-3	-6.520045E-3	5.495711E-3	4.845038E-4	-3.396517E-3	-1.208733E-2	-6.624959E-3	-2.900703E-3	-4.711770E-3	2.869306E-3	1.621158E-3	-5.035134E-3	-7.072401E-3	-6.684082E-3	-6.275850E-3	-1.198974E-3	-4.429024E-3	-3.976512E-3	-3.438597E-3	-9.154266E-3	-4.820182E-3	-9.500272E-3	3.643732E-3	-1.047652E-2	9.198337E-4	-3.840540E-3	-3.920951E-3	-5.462859E-3	-9.104141E-3	-5.215087E-3	-7.558406E-3	-6.403336E-3	-6.496742E-3	-1.980957E-3	9.643977E-4	-1.097339E-2	-9.785990E-3	-1.034488E-2	-4.161937E-3	1.470182E-3	-8.280168E-3	-1.161730E-2	-5.032716E-3	-4.815715E-3	-1.046842E-2	-4.117718E-3	-4.124303E-3	-9.155393E-3	-5.642791E-3	-1.717594E-3	-4.940909E-3	-8.329529E-3	-5.105206E-3	-6.548108E-3	-5.740868E-3	-6.075545E-3	-3.449196E-3	-3.236805E-3	3.080222E-3	-3.184493E-3	-7.445064E-3	-5.514429E-3	1.755349E-4	2.300476E-3	-2.617193E-4	2.924272E-3	-8.092967E-3	-4.950463E-3	-1.207712E-2	-2.622755E-3	-3.361063E-3	-1.122858E-2	-1.433279E-3	-6.972205E-3	9.600808E-4	3.430192E-3	-8.195550E-3	-8.989393E-9	-6.303318E-3	-8.792361E-9	-5.607291E-3	-4.639148E-3	-6.570374E-3	-1.461593E-2	-3.176099E-3	-8.201734E-4	-4.508590E-3	-1.032934E-2	-2.171311E-3	8.090980E-4	-6.128751E-3	-3.668756E-3	1.200367E-3	-2.256533E-3	-1.107125E-3	-8.934946E-3	-5.096322E-3	-7.149730E-3	-8.257243E-3	-1.753111E-2	-5.461901E-3	-7.161087E-3	-7.485079E-3	-2.777479E-3	9.502322E-4	-8.576527E-3	8.268521E-4	-1.741664E-2	-1.179040E-3	7.236059E-3	-1.003439E-2	-5.499636E-3	-1.210119E-2	-1.354191E-2	-1.344170E-2
5.310150E+2	1.668286E-4	-5.047659E-3	-2.494956E-3	3.609275E-3	-8.092636E-3	-1.910301E-3	4.584977E-3	-4.373183E-3	-9.620730E-3	8.417639E-4	1.940414E-3	-8.402525E-3	-4.902178E-3	-5.848526E-3	-5.607224E-3	-1.750293E-3	-5.188283E-3	-4.173164E-3	-1.213168E-2	-1.828503E-3	-4.515608E-3	-3.563120E-4	5.695388E-4	-6.255782E-3	4.879142E-4	5.985732E-3	-4.718766E-3	-6.189639E-3	-3.196889E-3	-7.566804E-3	-1.358923E-3	-3.228314E-3	-9.739379E-3	1.884408E-9	-3.518099E-3	1.256907E-3	-6.009795E-3	4.350808E-3	8.710327E-5	-2.980091E-3	7.666732E-4	-5.535437E-3	1.358487E-3	-6.794083E-3	4.769686E-3	4.237874E-3	-1.560466E-2	4.690472E-3	-3.095144E-3	-3.505234E-3	-3.389694E-3	5.141293E-3	-3.579732E-3	-1.625661E-3	-6.982155E-3	-2.782702E-3	2.648760E-3	-4.169151E-3	-9.399619E-3	1.018945E-2	-8.408578E-3	-1.948541E-3	-2.900718E-3	-2.274623E-3	-6.353500E-3	-9.536611E-5	-1.258781E-2	-4.980570E-4	-9.548815E-4	-1.307469E-2	3.425374E-4	-5.378116E-3	-7.035414E-3	2.865451E-3	-2.860687E-3	-1.984800E-3	1.797333E-3	-1.093127E-2	3.938467E-4	-4.139170E-3	6.557258E-4	4.633855E-3	-4.370318E-3	8.708315E-3	-1.978113E-3	-1.155992E-3	5.571718E-3	-1.880649E-3	-9.487710E-3	5.698704E-3	-6.353024E-3	-1.311553E-3	3.232411E-4	-1.224127E-3	-1.960267E-3	-4.061985E-3	-3.938074E-3	-1.450602E-2	-1.741821E-3	-1.162092E-2	2.470591E-3	-6.701954E-3	-4.260460E-3	-5.137449E-3	-9.311212E-3	-3.800718E-3	-7.218957E-3	5.105196E-3	4.070438E-3	-6.697708E-3	7.861352E-9	-4.927437E-3	-5.826276E-3	2.799845E-4	-7.642868E-3	-1.019854E-4	2.079194E-3	-4.037284E-3	-1.278031E-3	-8.637311E-3	-2.088783E-3	-1.331726E-3	-4.670181E-4	-7.778498E-3	-9.222005E-3	-4.873492E-3	-3.047746E-3	4.777684E-4	2.121945E-3	-1.286461E-2	-4.601473E-3	-4.988588E-3	-1.560324E-3	1.801085E-4	-4.864622E-3	-8.156121E-3	-6.415865E-3	-5.375779E-3	5.466997E-3	-6.063476E-3	-2.788604E-3	2.003828E-3	9.591512E-3	-3.567134E-3	2.697151E-4	6.685904E-3	-2.568125E-3	-3.601046E-3	-4.964422E-3	-1.660755E-3	-4.011587E-3	-2.184110E-3	-3.308102E-3	-5.748691E-3	-2.152957E-3	-4.270232E-3	-1.652580E-3	1.597937E-3	6.817420E-3	-3.325813E-3	-7.963878E-3	-4.754723E-3	4.552110E-3	-1.768588E-3	-2.475489E-3	-2.445342E-3	1.006538E-2	-8.978312E-3	7.708528E-3	-9.409193E-3
5.315130E+2	-3.336358E-4	3.432391E-3	7.267923E-3	4.883137E-3	3.903512E-3	-1.337193E-3	-2.292481E-3	-6.802717E-3	7.585563E-3	-3.086514E-3	-3.880757E-3	8.131668E-4	4.902191E-3	1.193747E-2	4.672696E-3	-4.270694E-3	-1.596405E-3	-5.089234E-4	4.359829E-3	2.612360E-4	-5.017708E-4	7.125719E-4	3.010409E-3	2.909918E-4	3.415656E-3	1.032017E-3	-2.775247E-4	-3.536803E-4	6.147861E-3	1.080969E-3	-3.757030E-3	5.014182E-3	-4.260966E-3	-8.649736E-3	-4.088613E-3	1.256891E-3	7.512046E-4	-4.894683E-3	-3.571556E-3	5.272480E-3	7.666662E-4	-9.077008E-5	5.433903E-3	1.818132E-3	-4.586202E-3	5.827108E-3	-3.056593E-3	-2.731131E-8	-8.898551E-3	-1.752612E-3	9.394314E-3	-1.894143E-3	-3.068340E-3	1.274857E-2	9.568194E-3	-2.305704E-3	-8.965176E-3	-8.717352E-3	2.228766E-3	2.778985E-3	-2.102124E-3	-7.092565E-3	-5.317987E-3	6.498998E-3	-8.198093E-3	-8.105655E-3	7.746287E-4	2.490310E-3	-1.996544E-3	2.614952E-3	2.911776E-3	2.689070E-3	-6.423612E-3	-7.450201E-3	-5.721497E-4	-5.954404E-3	-2.567565E-4	-1.700421E-3	-1.047658E-2	-1.379704E-3	-6.088697E-3	4.633842E-3	-2.185103E-3	-1.978839E-4	-8.991541E-4	-1.689533E-3	-4.407472E-3	6.838661E-3	3.023547E-3	-8.768506E-5	-1.732685E-3	-7.062330E-4	5.172459E-3	5.141229E-3	-2.450310E-3	6.717866E-3	7.876206E-4	-2.960337E-4	3.791050E-3	6.242641E-3	-6.313774E-3	-5.155576E-4	3.897869E-3	6.485001E-3	4.519944E-4	5.320946E-3	7.774263E-3	-2.268961E-3	3.539648E-4	-3.348836E-3	1.104638E-3	-5.420149E-3	5.178880E-3	-2.800015E-4	1.273797E-3	-6.221224E-3	-2.260023E-3	-8.250088E-3	-1.789233E-3	7.852049E-4	5.430758E-3	-7.170896E-4	6.818559E-3	-4.093927E-3	4.230332E-4	-4.369350E-3	-2.085308E-3	-8.121928E-3	-2.728242E-3	6.144280E-3	-3.597565E-3	-7.126456E-4	-4.681073E-3	-1.440779E-3	-4.864625E-3	-2.039019E-3	-4.934914E-4	1.553000E-2	3.458743E-3	6.640941E-3	-1.312307E-3	5.009785E-4	-3.135690E-3	2.016251E-3	8.091342E-4	2.785798E-3	-5.319721E-3	6.001540E-4	-6.047554E-3	-1.051783E-2	-1.823691E-4	6.552407E-3	-1.099135E-2	8.675339E-3	1.322524E-2	1.688207E-3	-1.101717E-3	-4.457451E-3	-1.262499E-3	-8.552150E-3	2.450404E-3	-1.033616E-3	-1.979186E-3	-1.179058E-3	5.522245E-3	3.119902E-3	-6.744818E-3	-3.903891E-4	3.958406E-3	1.478585E-2
5.320070E+2	-9.341998E-3	4.038458E-4	2.061033E-3	-1.486179E-3	-4.665147E-3	2.674394E-3	5.731267E-3	7.288653E-3	6.475503E-3	5.892413E-3	1.183631E-2	7.318295E-3	2.941303E-3	1.361993E-3	3.738153E-3	3.500674E-4	4.390122E-3	-5.089010E-4	5.497127E-3	4.440646E-3	5.017327E-3	7.125751E-4	1.277395E-2	2.036751E-3	4.586702E-3	-2.683287E-3	9.715105E-3	7.073768E-4	3.196892E-3	-2.702453E-3	-8.792661E-4	8.929390E-4	2.069613E-2	8.649755E-3	3.898457E-3	7.182324E-4	1.314653E-3	2.175406E-3	6.881777E-3	4.814005E-3	4.216831E-3	5.353976E-3	3.687319E-3	8.707901E-3	3.668985E-3	-3.708136E-3	1.190455E-2	-2.984815E-3	9.672358E-3	1.752592E-3	7.069961E-3	-1.894193E-3	-3.579722E-3	1.454551E-3	4.396146E-3	3.895822E-3	3.871296E-3	3.790049E-4	2.810203E-3	-1.543860E-3	4.729849E-3	7.404334E-3	1.015248E-2	1.088577E-2	7.173336E-3	7.914958E-3	7.165391E-3	4.283273E-3	2.170176E-3	8.890777E-3	-4.795854E-3	3.638153E-3	1.009430E-2	5.730978E-3	1.087067E-2	5.954372E-3	5.905553E-3	8.987941E-3	1.031902E-2	8.278273E-3	2.341818E-3	-7.129097E-4	1.092550E-3	2.770830E-3	1.798293E-3	-6.224733E-4	7.567548E-3	1.709678E-3	-3.857648E-3	-3.769919E-3	1.039588E-2	3.531028E-3	6.627207E-3	2.448087E-4	6.370858E-3	6.249071E-4	1.378340E-3	9.769357E-3	4.405831E-3	1.027630E-2	-3.568640E-3	-2.577689E-3	1.042446E-2	6.990312E-3	9.943949E-4	1.900150E-4	5.553005E-4	9.075895E-3	-1.238869E-3	4.784179E-4	9.389441E-3	1.379679E-2	5.826293E-3	-4.200290E-3	6.369018E-3	5.099867E-4	6.418454E-3	-8.776779E-4	-5.367740E-3	1.125465E-2	-2.715369E-3	2.970800E-3	6.818549E-3	5.731508E-3	1.438280E-3	4.705461E-3	2.245723E-3	2.866571E-3	9.094334E-4	4.416194E-3	-5.856362E-4	7.839206E-3	5.201247E-4	2.341239E-3	1.405333E-2	5.607312E-3	4.836544E-3	2.986523E-3	1.450439E-3	6.063455E-3	8.037792E-3	-1.001933E-3	2.951269E-3	-3.101878E-3	-6.203252E-3	-1.114311E-3	7.337882E-4	1.800548E-3	1.290748E-2	9.964253E-3	1.130544E-2	-7.037726E-3	1.141823E-2	-5.121584E-3	5.843689E-3	-9.931397E-5	1.101713E-3	9.671768E-3	-3.787443E-3	5.226298E-3	3.675652E-3	2.067149E-4	5.145833E-3	5.895263E-3	-3.046775E-3	9.191189E-3	-5.188684E-4	6.636125E-3	1.395858E-2	-3.360462E-3
5.325170E+2	1.618159E-2	3.432398E-3	4.664468E-3	2.972354E-3	1.018723E-2	5.539826E-3	1.146281E-3	1.506317E-2	1.480108E-3	3.086498E-3	7.761536E-3	1.761824E-2	1.078479E-2	1.193742E-2	6.541780E-3	1.463239E-2	1.037659E-2	2.086590E-2	-7.582312E-4	7.052806E-3	1.103814E-2	8.194622E-3	3.498611E-3	5.091943E-3	1.278424E-2	7.843454E-3	7.494494E-3	6.543290E-3	6.639706E-3	1.135025E-2	1.446855E-2	7.899079E-3	2.722963E-8	7.414002E-3	7.321488E-3	7.720913E-3	9.765918E-3	7.613989E-3	8.709052E-5	1.031573E-2	9.967099E-3	6.442909E-3	5.433921E-3	-4.784920E-4	1.302491E-2	1.271369E-2	1.769603E-2	1.023371E-2	9.672358E-3	1.109989E-2	2.421278E-3	6.764914E-3	1.892141E-2	7.101579E-3	1.370572E-2	6.281013E-3	1.181769E-2	1.345507E-2	7.461554E-3	-5.866652E-3	1.261283E-2	7.404394E-3	9.185621E-3	6.011550E-3	7.788169E-3	2.193288E-3	1.007025E-2	9.662333E-3	1.675360E-2	8.367785E-3	2.397925E-3	8.858056E-3	1.009424E-2	3.438538E-3	8.009981E-3	8.222717E-3	1.258145E-2	7.044606E-3	7.955908E-3	6.898563E-3	1.189632E-2	4.633813E-3	9.286887E-3	8.114553E-3	7.193192E-3	1.965189E-2	3.575890E-3	6.325774E-3	1.866260E-2	3.594577E-3	5.775476E-3	1.079492E-2	2.747837E-3	6.610144E-3	4.410562E-3	9.061339E-3	1.909961E-2	8.585206E-3	8.709260E-3	1.546253E-2	1.729430E-2	1.237290E-2	1.749497E-2	4.211001E-4	1.455447E-2	8.741638E-3	7.218927E-3	2.836228E-3	9.379804E-3	1.578741E-2	4.418582E-3	1.970969E-2	1.942082E-3	1.652115E-2	7.005957E-3	1.947947E-2	8.588029E-3	1.334056E-2	2.632738E-2	3.402551E-3	5.430773E-3	1.464929E-2	5.137288E-3	1.924153E-2	1.108336E-2	8.738679E-3	1.572002E-2	1.051072E-2	1.303496E-2	1.190453E-2	1.648170E-2	2.494295E-3	7.281647E-3	9.905217E-3	6.486162E-3	9.175602E-3	1.490447E-2	-1.791933E-3	1.350021E-2	4.908546E-3	1.148246E-3	8.516250E-3	2.951215E-3	1.411347E-2	6.742663E-3	4.457282E-3	1.063938E-2	1.260367E-2	9.116492E-3	1.107139E-2	1.130545E-2	6.552375E-3	1.333900E-2	1.369237E-2	1.630084E-2	1.598854E-2	4.957693E-3	7.148694E-3	1.186733E-2	5.226321E-3	1.592784E-2	1.385080E-2	1.345832E-2	1.002197E-2	6.093570E-3	6.155562E-3	1.255577E-2	2.459279E-2	2.708317E-3	1.680211E-2
5.330280E+2	2.018531E-2	2.887244E-2	2.549184E-2	2.717570E-2	2.275461E-2	1.757464E-2	2.063251E-2	2.380953E-2	2.756704E-2	1.262661E-2	1.707531E-2	3.333909E-2	2.254997E-2	1.770586E-2	1.401809E-2	3.437565E-2	2.893468E-2	8.041019E-3	1.573320E-2	1.906860E-2	2.307968E-2	2.102092E-2	3.181283E-2	3.564342E-2	3.562017E-2	2.641997E-2	3.136594E-2	3.678397E-2	1.745992E-2	1.297166E-2	1.159080E-2	2.273561E-2	1.947868E-2	2.842055E-2	2.671862E-2	2.980637E-2	1.878063E-2	2.175415E-2	2.256187E-2	1.948528E-2	1.974248E-2	2.549928E-2	2.697558E-2	3.569281E-2	1.247458E-2	2.595712E-2	1.286982E-2	2.132030E-2	2.998436E-2	1.811035E-2	2.217838E-2	3.436570E-2	2.096698E-2	2.096249E-2	3.180762E-2	2.583969E-2	1.854151E-2	3.164786E-2	1.618293E-2	1.389467E-2	2.207253E-2	3.031893E-2	2.078846E-2	1.917199E-2	1.947044E-2	1.878609E-2	4.086198E-2	2.819003E-2	2.717033E-2	1.150571E-2	1.061944E-2	1.550164E-2	8.258967E-3	2.063143E-2	1.315925E-2	8.789782E-3	1.155432E-2	1.627543E-2	1.551794E-2	2.207547E-2	2.763325E-2	2.815944E-2	2.239766E-2	2.058330E-2	2.391735E-2	2.872204E-2	2.902286E-2	1.863539E-2	2.742049E-2	1.674543E-2	3.349787E-2	2.955987E-2	1.535565E-2	1.591326E-2	2.793372E-2	2.921502E-2	1.909960E-2	2.693972E-2	1.854558E-2	2.410614E-2	4.364752E-2	3.041665E-2	3.381157E-2	2.366607E-2	2.214808E-2	2.413442E-2	2.110150E-2	1.134490E-2	1.681280E-2	2.392031E-2	1.712192E-2	1.182583E-2	2.136299E-2	2.044139E-2	3.885124E-2	2.865833E-2	2.269047E-2	7.021364E-3	3.143954E-2	2.329459E-2	2.422953E-2	3.554761E-2	1.914798E-2	3.029508E-2	2.225125E-2	2.235089E-2	1.379512E-2	2.627694E-2	1.788516E-2	1.651275E-2	2.350945E-2	1.211512E-2	2.132493E-2	2.449289E-2	2.270159E-2	2.395849E-2	2.497243E-2	3.105997E-2	2.287229E-2	2.454260E-2	2.083272E-2	2.655067E-2	1.844520E-2	2.528022E-2	2.400392E-2	1.058605E-2	1.614250E-2	2.760806E-2	1.615693E-2	3.266066E-2	2.607544E-2	2.305465E-2	1.525981E-2	1.682801E-2	1.814618E-2	2.075527E-2	1.927988E-2	2.127788E-2	1.287734E-2	2.945752E-2	2.818001E-2	1.819210E-2	2.652080E-2	1.238009E-2	1.466261E-2	1.880399E-2	2.998861E-2	2.849642E-2	1.520858E-2	3.696438E-2
5.331580E+2	2.669133E-2	2.099813E-2	3.134951E-2	2.526491E-2	1.989841E-2	1.814773E-2	2.636377E-2	3.547133E-2	2.978720E-2	2.216666E-2	2.347851E-2	2.791809E-2	3.186418E-2	2.010939E-2	3.083981E-2	3.311545E-2	3.851313E-2	1.964446E-2	2.198865E-2	2.899482E-2	2.458495E-2	2.529636E-2	3.376556E-2	4.219019E-2	3.035032E-2	2.022784E-2	3.081076E-2	2.723427E-2	2.483736E-2	3.513168E-2	1.590738E-2	2.562052E-2	3.530520E-2	2.409570E-2	2.443664E-2	2.118766E-2	2.272455E-2	2.284193E-2	2.465252E-2	2.773784E-2	2.951786E-2	2.495483E-2	4.094852E-2	3.511870E-2	1.082349E-2	2.595711E-2	2.879617E-2	3.027485E-2	4.333219E-2	2.278396E-2	3.554359E-2	3.869526E-2	3.477452E-2	2.814962E-2	4.525472E-2	4.349018E-2	2.465403E-2	3.221634E-2	2.374143E-2	2.871577E-2	2.417466E-2	3.265709E-2	1.933812E-2	1.819716E-2	2.992302E-2	2.279129E-2	4.434782E-2	2.878772E-2	2.560787E-2	3.451717E-2	2.397930E-2	3.543232E-2	2.905924E-2	3.667813E-2	2.631849E-2	3.317438E-2	2.593311E-2	3.230793E-2	2.260731E-2	2.897402E-2	2.650914E-2	2.281270E-2	1.529599E-2	2.889582E-2	2.985170E-2	3.459090E-2	2.752597E-2	4.120298E-2	3.367614E-2	3.147443E-2	3.811825E-2	3.863969E-2	2.165961E-2	1.248580E-2	2.646353E-2	2.124729E-2	2.677878E-2	3.641304E-2	2.592286E-2	2.122499E-2	1.949043E-2	1.855928E-2	3.381156E-2	3.478323E-2	3.679291E-2	2.983550E-2	2.776518E-2	3.516914E-2	2.371493E-2	3.492363E-2	2.154049E-2	1.921696E-2	2.589458E-2	3.892266E-2	2.675004E-2	3.110598E-2	2.865690E-2	2.966519E-2	2.734983E-2	1.805981E-2	3.488213E-2	3.001573E-2	3.203784E-2	4.441923E-2	3.037342E-2	2.739244E-2	2.534455E-2	3.296561E-2	2.819195E-2	2.630522E-2	2.350945E-2	1.158063E-2	3.848883E-2	3.205685E-2	1.945849E-2	3.262432E-2	2.378796E-2	2.986528E-2	2.755828E-2	3.147231E-2	3.658030E-2	2.655069E-2	2.342544E-2	3.551641E-2	3.371335E-2	9.471697E-3	2.109528E-2	3.060894E-2	2.915475E-2	5.314276E-2	3.482801E-2	2.354004E-2	4.855403E-2	4.567609E-2	2.429752E-2	2.433033E-2	3.415297E-2	2.733324E-2	4.620684E-2	2.993263E-2	4.349520E-2	2.625444E-2	4.255199E-2	1.650674E-2	3.694210E-2	3.752368E-2	2.936599E-2	2.146986E-2	2.395872E-2	1.276946E-2
5.333130E+2	3.119546E-2	3.795815E-2	5.673292E-2	4.628362E-2	3.703577E-2	3.362104E-2	4.699629E-2	4.518951E-2	4.199814E-2	3.282909E-2	3.570295E-2	4.743364E-2	4.510005E-2	3.260770E-2	3.364341E-2	4.403722E-2	4.150640E-2	3.552289E-2	4.189213E-2	3.421908E-2	3.612477E-2	4.720800E-2	4.304088E-2	5.572015E-2	3.327807E-2	3.508903E-2	5.246161E-2	4.155881E-2	3.270663E-2	4.702240E-2	3.605140E-2	4.169345E-2	5.600130E-2	5.251631E-2	4.782733E-2	4.650519E-2	3.850026E-2	3.371900E-2	5.339940E-2	4.791088E-2	4.274338E-2	3.366632E-2	4.560613E-2	4.545334E-2	3.118642E-2	4.343845E-2	3.603549E-2	4.605185E-2	3.230569E-2	3.505231E-2	3.438142E-2	3.707162E-2	4.602512E-2	4.560408E-2	5.042668E-2	5.827852E-2	3.198918E-2	5.211474E-2	4.467251E-2	3.921407E-2	3.888966E-2	4.621871E-2	3.625893E-2	4.208087E-2	3.914588E-2	5.311611E-2	4.725270E-2	4.193644E-2	2.664950E-2	4.445393E-2	3.168695E-2	4.682127E-2	3.334166E-2	5.043231E-2	2.975136E-2	5.755886E-2	4.236598E-2	3.376543E-2	4.103987E-2	2.759426E-2	3.943593E-2	2.120867E-2	3.386963E-2	4.077078E-2	4.279946E-2	3.672505E-2	4.349270E-2	3.812556E-2	4.618735E-2	2.463596E-2	5.428961E-2	5.074608E-2	4.784515E-2	3.892633E-2	3.087411E-2	3.062107E-2	4.568159E-2	5.121505E-2	5.420234E-2	2.929239E-2	4.968678E-2	4.639831E-2	4.033819E-2	4.135244E-2	3.462333E-2	3.724688E-2	2.498865E-2	4.140884E-2	4.070472E-2	4.209972E-2	3.037758E-2	3.744849E-2	3.884172E-2	5.796397E-2	3.566672E-2	3.416559E-2	4.275936E-2	4.967607E-2	3.655160E-2	3.219361E-2	3.926853E-2	4.968479E-2	3.820257E-2	3.705012E-2	3.189632E-2	4.402958E-2	4.603720E-2	3.869877E-2	4.334883E-2	5.165044E-2	4.158075E-2	3.616720E-2	3.328764E-2	4.880567E-2	3.621443E-2	3.058526E-2	3.859368E-2	4.778449E-2	5.902165E-2	3.378226E-2	4.100927E-2	4.408421E-2	4.832648E-2	3.737755E-2	3.856808E-2	3.398673E-2	3.925560E-2	5.581625E-2	4.810981E-2	5.037492E-2	4.358064E-2	3.615942E-2	4.791377E-2	3.815048E-2	5.013281E-2	4.875999E-2	3.415299E-2	2.783790E-2	4.822677E-2	4.228577E-2	5.881046E-2	4.237922E-2	3.127082E-2	4.008787E-2	5.065261E-2	5.219584E-2	4.804403E-2	2.068913E-2	2.270877E-2	5.107829E-2
5.334630E+2	4.220563E-2	4.704394E-2	6.649577E-2	5.137905E-2	4.274819E-2	5.883684E-2	6.132455E-2	5.296402E-2	3.811283E-2	6.537764E-2	5.956957E-2	6.152824E-2	4.902183E-2	4.174106E-2	5.280152E-2	6.588080E-2	6.605109E-2	5.017993E-2	5.326553E-2	5.407137E-2	5.669574E-2	6.377547E-2	5.768619E-2	7.536037E-2	4.440323E-2	5.490405E-2	6.523000E-2	5.906655E-2	4.696964E-2	6.593953E-2	4.612339E-2	5.034802E-2	5.417521E-2	5.869466E-2	4.839784E-2	5.189183E-2	6.498097E-2	6.145559E-2	5.810324E-2	5.249551E-2	5.654395E-2	5.054487E-2	4.909933E-2	5.923284E-2	6.145559E-2	5.085477E-2	5.196192E-2	5.927033E-2	5.145704E-2	7.594670E-2	5.704404E-2	8.090811E-2	4.653652E-2	5.689808E-2	5.249547E-2	7.497492E-2	5.766202E-2	5.836852E-2	5.920808E-2	6.391580E-2	5.938546E-2	4.949232E-2	4.302728E-2	5.524129E-2	7.234818E-2	5.654911E-2	5.131953E-2	6.106184E-2	6.727483E-2	4.916084E-2	6.200353E-2	7.339556E-2	6.331860E-2	6.475987E-2	5.492563E-2	5.188815E-2	4.852829E-2	5.319876E-2	5.238285E-2	5.104939E-2	3.662573E-2	5.703175E-2	5.080452E-2	5.620830E-2	5.682616E-2	5.966711E-2	4.948036E-2	7.608030E-2	5.306860E-2	5.093769E-2	4.389374E-2	6.890576E-2	3.426741E-2	4.137453E-2	5.733762E-2	5.733643E-2	5.926784E-2	4.529426E-2	5.420232E-2	5.234208E-2	5.627510E-2	5.825560E-2	6.590080E-2	5.954411E-2	5.631938E-2	4.750878E-2	6.441508E-2	7.260725E-2	3.751913E-2	5.214632E-2	4.805185E-2	5.469445E-2	6.797321E-2	5.740396E-2	5.031551E-2	5.619480E-2	6.282834E-2	4.967606E-2	6.569076E-2	6.098460E-2	6.684004E-2	4.968474E-2	6.790526E-2	6.836869E-2	3.291156E-2	4.402955E-2	5.421803E-2	6.831991E-2	4.395509E-2	5.222638E-2	5.513429E-2	5.166740E-2	4.837110E-2	5.258764E-2	5.080831E-2	5.250472E-2	5.339948E-2	6.689832E-2	5.634387E-2	4.937397E-2	4.593042E-2	5.610703E-2	5.441346E-2	6.064151E-2	5.421108E-2	4.457275E-2	4.861090E-2	7.682230E-2	5.785829E-2	6.919641E-2	6.053874E-2	5.508858E-2	6.776226E-2	5.571016E-2	6.674121E-2	5.352673E-2	5.453456E-2	5.609617E-2	5.984172E-2	4.703690E-2	7.596333E-2	5.230219E-2	5.739578E-2	5.423653E-2	6.607694E-2	5.118399E-2	6.298639E-2	4.176870E-2	4.895919E-2	5.511085E-2
5.336080E+2	5.872091E-2	7.975260E-2	6.975005E-2	8.832104E-2	6.045685E-2	6.170226E-2	8.310303E-2	8.794941E-2	5.809438E-2	8.445784E-2	9.274997E-2	9.622240E-2	6.372825E-2	6.769893E-2	6.962321E-2	7.428229E-2	8.580635E-2	8.071543E-2	8.397370E-2	7.810298E-2	5.318373E-2	8.248053E-2	8.307143E-2	9.019975E-2	6.606810E-2	7.595744E-2	7.189182E-2	9.991803E-2	7.549569E-2	7.891119E-2	5.331771E-2	5.405723E-2	8.217585E-2	7.722986E-2	6.151946E-2	6.589730E-2	8.920786E-2	7.559574E-2	7.378327E-2	7.725337E-2	6.344421E-2	6.361211E-2	8.403178E-2	6.497436E-2	6.090525E-2	7.204428E-2	5.775335E-2	7.078355E-2	8.453649E-2	8.529404E-2	8.667955E-2	7.874346E-2	6.596933E-2	9.591416E-2	7.111467E-2	8.356155E-2	7.966727E-2	9.475417E-2	8.711619E-2	7.626662E-2	6.411547E-2	6.492467E-2	6.236530E-2	7.766256E-2	7.111852E-2	8.286877E-2	8.094911E-2	8.974981E-2	7.196244E-2	6.694240E-2	7.690519E-2	9.996971E-2	7.249511E-2	7.335629E-2	7.380631E-2	8.137658E-2	5.879882E-2	6.631628E-2	7.790473E-2	5.840791E-2	6.753752E-2	6.612111E-2	5.681364E-2	7.520827E-2	7.948479E-2	6.767018E-2	9.139286E-2	9.557031E-2	6.933323E-2	7.671339E-2	8.085690E-2	8.101219E-2	6.772672E-2	5.900161E-2	6.419851E-2	6.858481E-2	7.344492E-2	7.253001E-2	8.248184E-2	6.040952E-2	9.580490E-2	9.279640E-2	8.221730E-2	1.050233E-1	6.662503E-2	8.228520E-2	6.941297E-2	1.026712E-1	7.627696E-2	6.410645E-2	6.793534E-2	7.637519E-2	8.480468E-2	6.076421E-2	7.770250E-2	6.843318E-2	7.259132E-2	7.811250E-2	8.000472E-2	8.035309E-2	8.313244E-2	6.566586E-2	8.191598E-2	7.819417E-2	4.966348E-2	6.469992E-2	6.817353E-2	7.644184E-2	6.638739E-2	7.929966E-2	5.714221E-2	6.984016E-2	7.853800E-2	8.608516E-2	8.594177E-2	1.004217E-1	7.353537E-2	7.107951E-2	9.985694E-2	8.286742E-2	7.201220E-2	5.560613E-2	7.156748E-2	6.669019E-2	5.636875E-2	7.243070E-2	6.677119E-2	9.362720E-2	7.518840E-2	8.746406E-2	9.171981E-2	7.644447E-2	9.657460E-2	7.201563E-2	8.581017E-2	7.318962E-2	7.326357E-2	6.871161E-2	8.054637E-2	7.744479E-2	1.035307E-1	7.524900E-2	7.817699E-2	8.312354E-2	8.835648E-2	8.508178E-2	8.789052E-2	9.641931E-2	1.064604E-1	6.519228E-2
5.337630E+2	8.274300E-2	9.852960E-2	9.968936E-2	1.004228E-1	9.473166E-2	9.952564E-2	9.628494E-2	1.049561E-1	8.418128E-2	9.568141E-2	1.090493E-1	1.254960E-1	9.020005E-2	9.942546E-2	8.504318E-2	9.990640E-2	9.897681E-2	1.069759E-1	1.038771E-1	9.429839E-2	9.231871E-2	1.156150E-1	1.113856E-1	1.085307E-1	1.111544E-1	1.217797E-1	1.168589E-1	1.158342E-1	1.015625E-1	9.782805E-2	9.696329E-2	9.444538E-2	1.071329E-1	9.700069E-2	1.020252E-1	1.036041E-1	1.151253E-1	1.125778E-1	1.046206E-1	1.208086E-1	8.414503E-2	9.900260E-2	1.119774E-1	1.137768E-1	1.104368E-1	1.080665E-1	9.394949E-2	9.594136E-2	1.025270E-1	1.285251E-1	9.307166E-2	1.036382E-1	1.079031E-1	9.899422E-2	1.062836E-1	1.140921E-1	1.102302E-1	9.759664E-2	9.816320E-2	1.256702E-1	9.512199E-2	8.503319E-2	9.717398E-2	1.264051E-1	1.233812E-1	9.774514E-2	1.088360E-1	9.034768E-2	1.209206E-1	1.030285E-1	1.072218E-1	1.075624E-1	8.595394E-2	1.186308E-1	1.024133E-1	1.051939E-1	8.498870E-2	9.935298E-2	9.066556E-2	8.830163E-2	1.175581E-1	9.445891E-2	8.685916E-2	1.268645E-1	1.053800E-1	1.092861E-1	1.003743E-1	1.006990E-1	1.031136E-1	7.986960E-2	1.039588E-1	1.009877E-1	1.026405E-1	7.320102E-2	9.654276E-2	9.201949E-2	1.023895E-1	1.003577E-1	9.108861E-2	1.047804E-1	8.756960E-2	1.129024E-1	1.050606E-1	1.161405E-1	1.094748E-1	9.140691E-2	8.162953E-2	1.151505E-1	8.955033E-2	9.903023E-2	1.054930E-1	9.312839E-2	1.003411E-1	1.061274E-1	1.152799E-1	8.801468E-2	1.083900E-1	1.118151E-1	1.086326E-1	1.023388E-1	1.144635E-1	1.148383E-1	1.020912E-1	1.058282E-1	9.585809E-2	7.881621E-2	1.004155E-1	1.003300E-1	1.094332E-1	1.265340E-1	7.521360E-2	7.678851E-2	1.180671E-1	9.581016E-2	1.329666E-1	1.152047E-1	9.071004E-2	1.105017E-1	1.172620E-1	1.065438E-1	1.138416E-1	1.077056E-1	1.003422E-1	1.001903E-1	8.549711E-2	9.248846E-2	9.538719E-2	1.062309E-1	9.847625E-2	1.057318E-1	9.500194E-2	1.230391E-1	1.087394E-1	1.165421E-1	1.270237E-1	1.470744E-1	1.189845E-1	7.375770E-2	8.559631E-2	1.130786E-1	1.415127E-1	1.000565E-1	1.292396E-1	1.125996E-1	1.094933E-1	1.093666E-1	1.345855E-1	1.057879E-1	1.089603E-1	1.377772E-1
5.339090E+2	1.172749E-1	1.700040E-1	1.660767E-1	1.717592E-1	1.478573E-1	1.384960E-1	1.673527E-1	1.715258E-1	1.352451E-1	1.366477E-1	1.474685E-1	1.629007E-1	1.416729E-1	1.306709E-1	1.532644E-1	1.532553E-1	1.570457E-1	1.460612E-1	1.687059E-1	1.522881E-1	1.715928E-1	1.658517E-1	1.597150E-1	1.635236E-1	1.609249E-1	1.892743E-1	1.812560E-1	1.773765E-1	1.463191E-1	1.632270E-1	1.228625E-1	1.599738E-1	1.667864E-1	1.865873E-1	1.716268E-1	1.677058E-1	1.804818E-1	1.604369E-1	1.715223E-1	1.625303E-1	1.496979E-1	1.289485E-1	1.672871E-1	1.614312E-1	1.440076E-1	1.382615E-1	1.431767E-1	1.385821E-1	1.657844E-1	1.746770E-1	1.546676E-1	1.615457E-1	1.564857E-1	1.467377E-1	1.745539E-1	1.775386E-1	1.664661E-1	1.481954E-1	1.632825E-1	1.880423E-1	1.602884E-1	1.369414E-1	1.402013E-1	1.585749E-1	1.701106E-1	1.458070E-1	1.588000E-1	1.949396E-1	1.636296E-1	1.663102E-1	1.668279E-1	1.834890E-1	1.501900E-1	1.576015E-1	1.539059E-1	1.749455E-1	1.383952E-1	1.435636E-1	1.473812E-1	1.457899E-1	1.535283E-1	1.468569E-1	1.332933E-1	1.797081E-1	1.641845E-1	1.525022E-1	1.737215E-1	1.642987E-1	1.544096E-1	1.414158E-1	1.553605E-1	1.863380E-1	1.487079E-1	1.530124E-1	1.401586E-1	1.449815E-1	1.780007E-1	1.346988E-1	1.507212E-1	1.733531E-1	1.710216E-1	1.510519E-1	1.730465E-1	1.878967E-1	1.566638E-1	1.695114E-1	1.332726E-1	1.837873E-1	1.389269E-1	1.262991E-1	1.375275E-1	1.591558E-1	1.767299E-1	1.610112E-1	1.503098E-1	1.498188E-1	1.745629E-1	1.581560E-1	1.699776E-1	1.709140E-1	1.946720E-1	1.732306E-1	1.710242E-1	1.512712E-1	1.324075E-1	1.488938E-1	1.485379E-1	1.653056E-1	1.561163E-1	1.622478E-1	1.384632E-1	1.617724E-1	1.477137E-1	1.746916E-1	1.653974E-1	1.728068E-1	1.866515E-1	1.451453E-1	1.888912E-1	1.654460E-1	1.512421E-1	1.502868E-1	1.700652E-1	1.523017E-1	1.259531E-1	1.387328E-1	1.460162E-1	1.590463E-1	1.558829E-1	1.616427E-1	1.655695E-1	1.773999E-1	1.612420E-1	1.441358E-1	1.553196E-1	1.917629E-1	1.360605E-1	1.454129E-1	1.472054E-1	1.662923E-1	1.978726E-1	1.564933E-1	1.880205E-1	1.579936E-1	1.574802E-1	1.559128E-1	1.999585E-1	1.541927E-1	1.639614E-1	1.418098E-1
5.340690E+2	2.118626E-1	2.481416E-1	2.773734E-1	2.641141E-1	2.501107E-1	2.680133E-1	2.630646E-1	2.672498E-1	2.240521E-1	2.623525E-1	2.860116E-1	3.005938E-1	2.411874E-1	2.152743E-1	2.415784E-1	2.586928E-1	2.624079E-1	2.547679E-1	2.642428E-1	2.583410E-1	2.699324E-1	2.802195E-1	2.715076E-1	2.643434E-1	2.721767E-1	3.106415E-1	3.044991E-1	3.015224E-1	2.412420E-1	2.810534E-1	2.360530E-1	2.675387E-1	2.860942E-1	2.860593E-1	2.686124E-1	2.549702E-1	3.072505E-1	3.029271E-1	3.016673E-1	3.083254E-1	2.595268E-1	2.264083E-1	2.790706E-1	2.762608E-1	2.546276E-1	2.537441E-1	2.281178E-1	2.643718E-1	2.922986E-1	2.617240E-1	2.668187E-1	2.578779E-1	2.464898E-1	2.976671E-1	2.650635E-1	2.781942E-1	2.618220E-1	2.880522E-1	2.882878E-1	3.362528E-1	2.606661E-1	2.388878E-1	2.441436E-1	2.857923E-1	2.863186E-1	2.522302E-1	2.436226E-1	2.929577E-1	2.683181E-1	2.494649E-1	2.855255E-1	3.244273E-1	2.908987E-1	2.802441E-1	2.643296E-1	2.758859E-1	2.287761E-1	2.659940E-1	2.612840E-1	2.446693E-1	2.856063E-1	2.324046E-1	2.338098E-1	2.557081E-1	2.634504E-1	2.474720E-1	2.695220E-1	3.222722E-1	2.613810E-1	2.182166E-1	2.858869E-1	3.249567E-1	2.626628E-1	2.244998E-1	2.474829E-1	2.630917E-1	2.482947E-1	2.649567E-1	2.632246E-1	2.592133E-1	2.989443E-1	2.856067E-1	3.095619E-1	3.066480E-1	2.429058E-1	2.704200E-1	2.415571E-1	3.114172E-1	2.647574E-1	2.396814E-1	2.468871E-1	2.626321E-1	3.010240E-1	2.713384E-1	2.776910E-1	2.587407E-1	2.689405E-1	3.013913E-1	2.814222E-1	3.012588E-1	2.736263E-1	2.617417E-1	2.847913E-1	2.734750E-1	2.268275E-1	2.552707E-1	2.433392E-1	2.699357E-1	2.664592E-1	2.809089E-1	2.142621E-1	2.686708E-1	2.532981E-1	2.849098E-1	2.832296E-1	2.773065E-1	2.891077E-1	2.825264E-1	3.234472E-1	2.774760E-1	2.442512E-1	2.519813E-1	2.967842E-1	2.597816E-1	2.338358E-1	2.535075E-1	2.472732E-1	2.946856E-1	2.793618E-1	2.823211E-1	2.941239E-1	2.977695E-1	2.636857E-1	2.933932E-1	2.709634E-1	3.013985E-1	2.561469E-1	2.478498E-1	2.997134E-1	2.570406E-1	2.824124E-1	2.749483E-1	3.067707E-1	2.912264E-1	3.105806E-1	2.702550E-1	2.896128E-1	3.048722E-1	2.614629E-1	3.111751E-1
5.342040E+2	3.740125E-1	4.262217E-1	4.993148E-1	5.316242E-1	4.277678E-1	4.714584E-1	4.693898E-1	5.340132E-1	3.650324E-1	4.761624E-1	4.746160E-1	4.648495E-1	3.897231E-1	3.767908E-1	4.088612E-1	4.263002E-1	4.892967E-1	4.367597E-1	4.740823E-1	4.338772E-1	4.350027E-1	5.036116E-1	4.823996E-1	4.607460E-1	5.069775E-1	5.793822E-1	5.010220E-1	4.988828E-1	4.468263E-1	4.821149E-1	4.571575E-1	4.472256E-1	5.283602E-1	5.325772E-1	4.871161E-1	4.553556E-1	5.438868E-1	4.742411E-1	5.013267E-1	4.981351E-1	4.786108E-1	4.621632E-1	4.898291E-1	4.921402E-1	4.417467E-1	4.629904E-1	4.568790E-1	4.238476E-1	4.989008E-1	4.901483E-1	4.603230E-1	4.500013E-1	4.807068E-1	5.060940E-1	5.065943E-1	4.995410E-1	4.708729E-1	4.813504E-1	4.394570E-1	5.085473E-1	4.456549E-1	4.165928E-1	4.239883E-1	4.788119E-1	4.763094E-1	4.593544E-1	4.719458E-1	5.003483E-1	4.646739E-1	4.905625E-1	4.761604E-1	5.047524E-1	4.915604E-1	4.699382E-1	4.828879E-1	5.027191E-1	3.951588E-1	4.496391E-1	4.432455E-1	4.189732E-1	4.929957E-1	4.029651E-1	4.190008E-1	4.682707E-1	4.862594E-1	4.358099E-1	5.045319E-1	5.407680E-1	4.765744E-1	3.954906E-1	5.255694E-1	5.495312E-1	4.207456E-1	4.198658E-1	4.219463E-1	4.754080E-1	4.408661E-1	4.230429E-1	4.826978E-1	4.672374E-1	4.768284E-1	4.572806E-1	5.048165E-1	5.390978E-1	3.969474E-1	4.522835E-1	4.525721E-1	4.940695E-1	4.378411E-1	4.190843E-1	4.274955E-1	4.695846E-1	4.926436E-1	4.539113E-1	4.878701E-1	4.814799E-1	5.238699E-1	4.535794E-1	5.037997E-1	4.687701E-1	4.992114E-1	4.547440E-1	4.927104E-1	4.957753E-1	4.141445E-1	4.266833E-1	3.934816E-1	4.667737E-1	4.501612E-1	4.686937E-1	3.523072E-1	4.113799E-1	5.071160E-1	5.015635E-1	4.859221E-1	4.893646E-1	4.780290E-1	5.065164E-1	5.215994E-1	4.645772E-1	4.465088E-1	4.328262E-1	4.959919E-1	4.482196E-1	3.961996E-1	4.262265E-1	4.233733E-1	4.603342E-1	4.743284E-1	4.926780E-1	4.937919E-1	5.375382E-1	4.762562E-1	4.783967E-1	4.856421E-1	5.355657E-1	4.825480E-1	4.083168E-1	4.815104E-1	4.713201E-1	5.194922E-1	4.529414E-1	4.676767E-1	4.739805E-1	5.265204E-1	4.741472E-1	4.932034E-1	5.078604E-1	4.802176E-1	5.027193E-1
5.343600E+2	6.913057E-1	7.811713E-1	8.885267E-1	8.717457E-1	7.510929E-1	8.456834E-1	8.619810E-1	8.775512E-1	7.169288E-1	8.409307E-1	8.064213E-1	9.061186E-1	8.353317E-1	6.882860E-1	7.537065E-1	7.497537E-1	9.035629E-1	8.599812E-1	8.272272E-1	8.131603E-1	8.464241E-1	8.900050E-1	8.578073E-1	8.225635E-1	8.700104E-1	9.911625E-1	8.130156E-1	8.760945E-1	8.781601E-1	8.761300E-1	7.478072E-1	7.637386E-1	9.721099E-1	9.218149E-1	8.653610E-1	8.485847E-1	9.749022E-1	9.250961E-1	8.964640E-1	8.823385E-1	8.368502E-1	7.839451E-1	8.333303E-1	8.297395E-1	8.424006E-1	7.204430E-1	8.048466E-1	7.474903E-1	9.225508E-1	8.465134E-1	8.229252E-1	7.546922E-1	8.453279E-1	8.746917E-1	9.043185E-1	8.592297E-1	8.229568E-1	8.304248E-1	8.127295E-1	9.136565E-1	7.515170E-1	7.462812E-1	7.391987E-1	8.273197E-1	8.575209E-1	7.849175E-1	7.723105E-1	8.732946E-1	8.282183E-1	8.393946E-1	8.589741E-1	8.905538E-1	7.839885E-1	8.441699E-1	8.576405E-1	9.070499E-1	7.027614E-1	7.707754E-1	7.755023E-1	7.091732E-1	8.341491E-1	6.986390E-1	7.500496E-1	8.809262E-1	8.304536E-1	7.964799E-1	8.258628E-1	9.372397E-1	8.475333E-1	6.984865E-1	8.386018E-1	8.897214E-1	7.887970E-1	7.107121E-1	7.723422E-1	8.114587E-1	8.283721E-1	8.061198E-1	8.700035E-1	8.590823E-1	8.913430E-1	8.212490E-1	8.686762E-1	9.580120E-1	7.256434E-1	8.673206E-1	7.085666E-1	8.775273E-1	7.739202E-1	7.204802E-1	7.539169E-1	7.903606E-1	8.745878E-1	8.750606E-1	8.630074E-1	8.009031E-1	9.116871E-1	8.432644E-1	8.452890E-1	8.425299E-1	8.526292E-1	8.333726E-1	8.738017E-1	8.660723E-1	6.826830E-1	7.659805E-1	7.211959E-1	7.777972E-1	7.278362E-1	8.246782E-1	6.374326E-1	7.523851E-1	9.065673E-1	8.489665E-1	8.740113E-1	8.400754E-1	8.706781E-1	8.714704E-1	8.730513E-1	8.682314E-1	7.220915E-1	7.955188E-1	8.700621E-1	7.953188E-1	7.074414E-1	7.148361E-1	7.045823E-1	8.582499E-1	8.620955E-1	8.613562E-1	8.696060E-1	9.195184E-1	8.713051E-1	8.527948E-1	8.448763E-1	9.466996E-1	8.130604E-1	7.635652E-1	7.622864E-1	8.366878E-1	9.146247E-1	8.095476E-1	8.749883E-1	7.935044E-1	9.161269E-1	8.677668E-1	9.178166E-1	9.466266E-1	8.577247E-1	9.079870E-1
5.345110E+2	1.001592E+0	1.245150E+0	1.391637E+0	1.388933E+0	1.180669E+0	1.242832E+0	1.323347E+0	1.393100E+0	1.103793E+0	1.273040E+0	1.259305E+0	1.354435E+0	1.320155E+0	1.100730E+0	1.158830E+0	1.172343E+0	1.388469E+0	1.296027E+0	1.275341E+0	1.230581E+0	1.307017E+0	1.310066E+0	1.253232E+0	1.296985E+0	1.330829E+0	1.424614E+0	1.327638E+0	1.288854E+0	1.383759E+0	1.304197E+0	1.111839E+0	1.164740E+0	1.454816E+0	1.369748E+0	1.280118E+0	1.192256E+0	1.467895E+0	1.367794E+0	1.347527E+0	1.292218E+0	1.219816E+0	1.138395E+0	1.237381E+0	1.266092E+0	1.428522E+0	1.103443E+0	1.121926E+0	1.120168E+0	1.479679E+0	1.311542E+0	1.283733E+0	1.143268E+0	1.358764E+0	1.343911E+0	1.336696E+0	1.344380E+0	1.265508E+0	1.270462E+0	1.255191E+0	1.479327E+0	1.277054E+0	1.074100E+0	1.139497E+0	1.279162E+0	1.352481E+0	1.232352E+0	1.142392E+0	1.297640E+0	1.305304E+0	1.236865E+0	1.317837E+0	1.329030E+0	1.305219E+0	1.238460E+0	1.270156E+0	1.311381E+0	1.105880E+0	1.168186E+0	1.159749E+0	1.106989E+0	1.304569E+0	1.039760E+0	1.054877E+0	1.338707E+0	1.312218E+0	1.212639E+0	1.239002E+0	1.407057E+0	1.221620E+0	1.022524E+0	1.287357E+0	1.396983E+0	1.111752E+0	1.039750E+0	1.181547E+0	1.195784E+0	1.215878E+0	1.200447E+0	1.322476E+0	1.223268E+0	1.276210E+0	1.325446E+0	1.341856E+0	1.384003E+0	1.121597E+0	1.286350E+0	1.152809E+0	1.319412E+0	1.145041E+0	1.082155E+0	1.199639E+0	1.163858E+0	1.259770E+0	1.310209E+0	1.249609E+0	1.241486E+0	1.343982E+0	1.269285E+0	1.236366E+0	1.279630E+0	1.246150E+0	1.290677E+0	1.295244E+0	1.311902E+0	1.024320E+0	1.125443E+0	1.091257E+0	1.202049E+0	1.193457E+0	1.173751E+0	9.878157E-1	1.082166E+0	1.255049E+0	1.269307E+0	1.310747E+0	1.320263E+0	1.266880E+0	1.268680E+0	1.332952E+0	1.267843E+0	1.129559E+0	1.143181E+0	1.308321E+0	1.207092E+0	1.035944E+0	1.098719E+0	1.068339E+0	1.293977E+0	1.301854E+0	1.305872E+0	1.302311E+0	1.324795E+0	1.307331E+0	1.283634E+0	1.244093E+0	1.328636E+0	1.209675E+0	1.148586E+0	1.129416E+0	1.298504E+0	1.316496E+0	1.210186E+0	1.307238E+0	1.287529E+0	1.294308E+0	1.289212E+0	1.325620E+0	1.321374E+0	1.240232E+0	1.339463E+0
5.346620E+2	1.337902E+0	1.624933E+0	1.793217E+0	1.841794E+0	1.547983E+0	1.714479E+0	1.783567E+0	1.798835E+0	1.507864E+0	1.678776E+0	1.702874E+0	1.783235E+0	1.720177E+0	1.435298E+0	1.545263E+0	1.520578E+0	1.836262E+0	1.694211E+0	1.697293E+0	1.592100E+0	1.760583E+0	1.723179E+0	1.757027E+0	1.627377E+0	1.675123E+0	1.909464E+0	1.696256E+0	1.709040E+0	1.852967E+0	1.676050E+0	1.513283E+0	1.481250E+0	1.947263E+0	1.723152E+0	1.704003E+0	1.628577E+0	1.921445E+0	1.724019E+0	1.781867E+0	1.688338E+0	1.599330E+0	1.545113E+0	1.591363E+0	1.647326E+0	1.908426E+0	1.545246E+0	1.541325E+0	1.529091E+0	1.921901E+0	1.674915E+0	1.582414E+0	1.544834E+0	1.776567E+0	1.716099E+0	1.758725E+0	1.732216E+0	1.667105E+0	1.669566E+0	1.658118E+0	1.868379E+0	1.818355E+0	1.430446E+0	1.444071E+0	1.729539E+0	1.870195E+0	1.593392E+0	1.542105E+0	1.730353E+0	1.711559E+0	1.688201E+0	1.688316E+0	1.715780E+0	1.711434E+0	1.634471E+0	1.652347E+0	1.749733E+0	1.696435E+0	1.543249E+0	1.484441E+0	1.484572E+0	1.834565E+0	1.388367E+0	1.442193E+0	1.647457E+0	1.754597E+0	1.576510E+0	1.606735E+0	1.839945E+0	1.703302E+0	1.393379E+0	1.777695E+0	1.843104E+0	1.687833E+0	1.479448E+0	1.519694E+0	1.594640E+0	1.768781E+0	1.584708E+0	1.593590E+0	1.662939E+0	1.707746E+0	1.691473E+0	1.775333E+0	1.791796E+0	1.442697E+0	1.586226E+0	1.460446E+0	1.672237E+0	1.506602E+0	1.474925E+0	1.503965E+0	1.575794E+0	1.674730E+0	1.678156E+0	1.717099E+0	1.615371E+0	1.807191E+0	1.665289E+0	1.697989E+0	1.676424E+0	1.650949E+0	1.663772E+0	1.760398E+0	1.608505E+0	1.421800E+0	1.467258E+0	1.441591E+0	1.548428E+0	1.580868E+0	1.640908E+0	1.335690E+0	1.380946E+0	1.609248E+0	1.686949E+0	1.664783E+0	1.710225E+0	1.661307E+0	1.728603E+0	1.761388E+0	1.697483E+0	1.509469E+0	1.521906E+0	1.696222E+0	1.545350E+0	1.347725E+0	1.386210E+0	1.389722E+0	1.679289E+0	1.633837E+0	1.760355E+0	1.650773E+0	1.723278E+0	1.756164E+0	1.708203E+0	1.672222E+0	1.820805E+0	1.654214E+0	1.449336E+0	1.503111E+0	1.621114E+0	1.757574E+0	1.613922E+0	1.731175E+0	1.632990E+0	1.702764E+0	1.585184E+0	1.744005E+0	1.714077E+0	1.695241E+0	1.595530E+0
5.348070E+2	1.572121E+0	1.938693E+0	2.117344E+0	2.167900E+0	1.796468E+0	1.948876E+0	2.042620E+0	2.177357E+0	1.776503E+0	1.990789E+0	1.969482E+0	2.133974E+0	2.012835E+0	1.677091E+0	1.809738E+0	1.817570E+0	2.106248E+0	2.032543E+0	1.967414E+0	1.902946E+0	2.009944E+0	2.129882E+0	2.056278E+0	1.996177E+0	2.026446E+0	2.213503E+0	1.972719E+0	1.973781E+0	2.109210E+0	1.997102E+0	1.756449E+0	1.777157E+0	2.297879E+0	2.105593E+0	1.969857E+0	1.866133E+0	2.168224E+0	2.065556E+0	2.042151E+0	2.035407E+0	1.848318E+0	1.685043E+0	1.876061E+0	1.953918E+0	2.229830E+0	1.752902E+0	1.791318E+0	1.718841E+0	2.218453E+0	2.012004E+0	1.885748E+0	1.760768E+0	1.971411E+0	2.067756E+0	2.040600E+0	2.069005E+0	2.003298E+0	1.923130E+0	1.919173E+0	2.098725E+0	2.123693E+0	1.695596E+0	1.709488E+0	1.970328E+0	2.145031E+0	1.906365E+0	1.775077E+0	2.022013E+0	1.970418E+0	1.909431E+0	2.037217E+0	2.054128E+0	2.001421E+0	1.944514E+0	1.945281E+0	2.088852E+0	2.054880E+0	1.813862E+0	1.822842E+0	1.756836E+0	2.115583E+0	1.594753E+0	1.671087E+0	1.896831E+0	2.066963E+0	1.824603E+0	1.923076E+0	2.075878E+0	2.075517E+0	1.568021E+0	2.042213E+0	2.128209E+0	2.067522E+0	1.654248E+0	1.739730E+0	1.772742E+0	2.017473E+0	1.828053E+0	1.918189E+0	1.919945E+0	1.974572E+0	1.995642E+0	2.104928E+0	2.099037E+0	1.745900E+0	1.886099E+0	1.670906E+0	2.042076E+0	2.057181E+0	1.691168E+0	1.716058E+0	1.789642E+0	2.141474E+0	1.963214E+0	2.027908E+0	1.833828E+0	2.096837E+0	1.932273E+0	1.980180E+0	1.933970E+0	2.054493E+0	1.955120E+0	2.000821E+0	2.010122E+0	1.927402E+0	1.769753E+0	1.735134E+0	1.812629E+0	2.002837E+0	1.870168E+0	1.506863E+0	1.666364E+0	2.007657E+0	1.994367E+0	1.978283E+0	1.878953E+0	2.005396E+0	1.925118E+0	2.091416E+0	2.004122E+0	1.762906E+0	1.713270E+0	1.966262E+0	1.776127E+0	1.595858E+0	1.644175E+0	1.601041E+0	1.947564E+0	1.943079E+0	2.026067E+0	1.964226E+0	2.056236E+0	2.013553E+0	1.920175E+0	1.927499E+0	2.097873E+0	1.946716E+0	1.663797E+0	1.764192E+0	1.904284E+0	2.051015E+0	1.840914E+0	2.011429E+0	1.892976E+0	1.988403E+0	1.917583E+0	2.052196E+0	2.015439E+0	1.911494E+0	2.002811E+0
5.349580E+2	1.805837E+0	2.168260E+0	2.416734E+0	2.403560E+0	1.983270E+0	2.195877E+0	2.275308E+0	2.329931E+0	1.977981E+0	2.213582E+0	2.133638E+0	2.303108E+0	2.254022E+0	1.825147E+0	1.984498E+0	1.994840E+0	2.358284E+0	2.177891E+0	2.154505E+0	2.135949E+0	2.265327E+0	2.237304E+0	2.244228E+0	2.153737E+0	2.201524E+0	2.379448E+0	2.087638E+0	2.170609E+0	2.242496E+0	2.159789E+0	1.869156E+0	1.932117E+0	2.426927E+0	2.218659E+0	2.150707E+0	2.000263E+0	2.473032E+0	2.266239E+0	2.133099E+0	2.246307E+0	2.060502E+0	1.879959E+0	2.038498E+0	2.123294E+0	2.356960E+0	1.900166E+0	1.928866E+0	1.953365E+0	2.432601E+0	2.169153E+0	2.074019E+0	1.936117E+0	2.226591E+0	2.228953E+0	2.197310E+0	2.211642E+0	2.233746E+0	2.130642E+0	2.054646E+0	2.339566E+0	2.389087E+0	1.895750E+0	1.952183E+0	2.121427E+0	2.329485E+0	2.032813E+0	2.062656E+0	2.195340E+0	2.156874E+0	2.142684E+0	2.175438E+0	2.156626E+0	2.261424E+0	2.148538E+0	2.114068E+0	2.228923E+0	2.136527E+0	1.918314E+0	1.995354E+0	1.860776E+0	2.429196E+0	1.763707E+0	1.807112E+0	2.119488E+0	2.201836E+0	1.968658E+0	2.044324E+0	2.344640E+0	2.192491E+0	1.700584E+0	2.165811E+0	2.311629E+0	2.222695E+0	1.794776E+0	1.938209E+0	1.957406E+0	2.233081E+0	2.112847E+0	2.152420E+0	2.144103E+0	2.267200E+0	2.130198E+0	2.177809E+0	2.276407E+0	1.922182E+0	2.034897E+0	1.852489E+0	2.261037E+0	2.158588E+0	1.874396E+0	1.905505E+0	1.941409E+0	2.346043E+0	2.079702E+0	2.104977E+0	2.077373E+0	2.266063E+0	2.141862E+0	2.136098E+0	2.094675E+0	2.269430E+0	2.043017E+0	2.157184E+0	2.110831E+0	2.122838E+0	1.876635E+0	1.814057E+0	1.936370E+0	2.245350E+0	2.032031E+0	1.600232E+0	1.836866E+0	2.186061E+0	2.124575E+0	2.165839E+0	2.149128E+0	2.206159E+0	2.100725E+0	2.211244E+0	2.133476E+0	2.172837E+0	1.925175E+0	2.122308E+0	2.036686E+0	1.896311E+0	1.829155E+0	1.783747E+0	2.063399E+0	2.146705E+0	2.162800E+0	2.131619E+0	2.238731E+0	2.229964E+0	2.108943E+0	2.101579E+0	2.234318E+0	2.189092E+0	1.832341E+0	1.900542E+0	2.037319E+0	2.232343E+0	1.977353E+0	2.197271E+0	2.076908E+0	2.152353E+0	2.063801E+0	2.270730E+0	2.173922E+0	2.239001E+0	2.158064E+0
5.351140E+2	1.751785E+0	2.072554E+0	2.350346E+0	2.344330E+0	2.015258E+0	2.128251E+0	2.214556E+0	2.301267E+0	1.881407E+0	2.157462E+0	2.139457E+0	2.343766E+0	2.196667E+0	1.816496E+0	1.932630E+0	1.963754E+0	2.262499E+0	2.122317E+0	2.112993E+0	2.104082E+0	2.189062E+0	2.257613E+0	2.205663E+0	2.107470E+0	2.179272E+0	2.316289E+0	2.128721E+0	2.148855E+0	2.278888E+0	2.120872E+0	1.834145E+0	1.866177E+0	2.352055E+0	2.172319E+0	2.107920E+0	2.024501E+0	2.349644E+0	2.218383E+0	2.231878E+0	2.233470E+0	2.082925E+0	1.867437E+0	2.027431E+0	2.079656E+0	2.380623E+0	1.929302E+0	1.911974E+0	1.828428E+0	2.391975E+0	2.198950E+0	2.072853E+0	2.007010E+0	2.141701E+0	2.215605E+0	2.144037E+0	2.218317E+0	2.167726E+0	2.159637E+0	2.027317E+0	2.296955E+0	2.260858E+0	1.871902E+0	1.857425E+0	2.133613E+0	2.330099E+0	2.021942E+0	1.967956E+0	2.155893E+0	2.186564E+0	2.100841E+0	2.146665E+0	2.226860E+0	2.184949E+0	2.048245E+0	2.182147E+0	2.219846E+0	2.183773E+0	1.880904E+0	1.895628E+0	1.921481E+0	2.328032E+0	1.733231E+0	1.727900E+0	2.204396E+0	2.142487E+0	1.999069E+0	2.075760E+0	2.222564E+0	2.224398E+0	1.700583E+0	2.129420E+0	2.291040E+0	2.269730E+0	1.777146E+0	1.940168E+0	1.992557E+0	2.187006E+0	2.035284E+0	2.075572E+0	2.057093E+0	2.180456E+0	2.130196E+0	2.202282E+0	2.223849E+0	1.916757E+0	1.959076E+0	1.908577E+0	2.170276E+0	2.166020E+0	1.864350E+0	1.903296E+0	1.894108E+0	2.291019E+0	2.059541E+0	2.184588E+0	2.016177E+0	2.196096E+0	2.134490E+0	2.100825E+0	2.093632E+0	2.252510E+0	2.075596E+0	2.190807E+0	2.090567E+0	2.167004E+0	1.870079E+0	1.821277E+0	1.916306E+0	2.164110E+0	2.061410E+0	1.558567E+0	1.798387E+0	2.196983E+0	2.050015E+0	2.151785E+0	2.124145E+0	2.190168E+0	2.134773E+0	2.248064E+0	2.078039E+0	2.188088E+0	1.901131E+0	2.052034E+0	2.002722E+0	1.899548E+0	1.838070E+0	1.769436E+0	2.082008E+0	2.098511E+0	2.197672E+0	2.117398E+0	2.174664E+0	2.208834E+0	2.105178E+0	2.075744E+0	2.279011E+0	2.120789E+0	1.871192E+0	1.880339E+0	2.057274E+0	2.253175E+0	1.974872E+0	2.134926E+0	2.035642E+0	2.151213E+0	1.987405E+0	2.279444E+0	2.145816E+0	2.076497E+0	2.029022E+0
5.352600E+2	1.619164E+0	1.922341E+0	2.144030E+0	2.133502E+0	1.830178E+0	1.940278E+0	2.042620E+0	2.114675E+0	1.755412E+0	2.008191E+0	1.902539E+0	2.089520E+0	1.990282E+0	1.611234E+0	1.795252E+0	1.802029E+0	2.105056E+0	2.009336E+0	1.977080E+0	1.849658E+0	2.040049E+0	2.011776E+0	2.011859E+0	1.950352E+0	1.950911E+0	2.128049E+0	1.853920E+0	1.886238E+0	2.051666E+0	1.893329E+0	1.705609E+0	1.720695E+0	2.184052E+0	1.970905E+0	1.953313E+0	1.832196E+0	2.138925E+0	2.044351E+0	1.971596E+0	1.953340E+0	1.894316E+0	1.724243E+0	1.831231E+0	1.925789E+0	2.143424E+0	1.725354E+0	1.734851E+0	1.696242E+0	2.156940E+0	1.910937E+0	1.808459E+0	1.776463E+0	1.990331E+0	2.010260E+0	1.977500E+0	2.009374E+0	1.962953E+0	1.899253E+0	1.912199E+0	2.064756E+0	2.098991E+0	1.696534E+0	1.683865E+0	1.945955E+0	2.122281E+0	1.819966E+0	1.850019E+0	1.973007E+0	1.961038E+0	1.906289E+0	1.983776E+0	2.010470E+0	2.017325E+0	1.884913E+0	1.830856E+0	2.037247E+0	1.977337E+0	1.717664E+0	1.748642E+0	1.665314E+0	2.188644E+0	1.555183E+0	1.685835E+0	1.915235E+0	1.974168E+0	1.817133E+0	1.840749E+0	2.107677E+0	1.961658E+0	1.580119E+0	2.014489E+0	2.038623E+0	2.010786E+0	1.595491E+0	1.738752E+0	1.843044E+0	1.986756E+0	1.831605E+0	1.964296E+0	1.966049E+0	1.991587E+0	1.960584E+0	2.073384E+0	2.110155E+0	1.781699E+0	1.858734E+0	1.694231E+0	1.927493E+0	1.995592E+0	1.613187E+0	1.754168E+0	1.754167E+0	2.049554E+0	1.897693E+0	1.985236E+0	1.822199E+0	2.043679E+0	1.945969E+0	1.967908E+0	1.883718E+0	2.077057E+0	1.886897E+0	1.934133E+0	1.966523E+0	1.974609E+0	1.762699E+0	1.671614E+0	1.772498E+0	2.017994E+0	1.888596E+0	1.490301E+0	1.687209E+0	1.956170E+0	1.958168E+0	1.968014E+0	1.887114E+0	1.994139E+0	1.906008E+0	2.052594E+0	1.906527E+0	1.899224E+0	1.713269E+0	1.945234E+0	1.825915E+0	1.728554E+0	1.611306E+0	1.554814E+0	1.847340E+0	1.848302E+0	2.008352E+0	1.913351E+0	2.035367E+0	1.994984E+0	1.950274E+0	1.931191E+0	2.010881E+0	2.018330E+0	1.688020E+0	1.730360E+0	1.804511E+0	2.089610E+0	1.879367E+0	1.947300E+0	1.862907E+0	1.954122E+0	1.846248E+0	2.083949E+0	1.920187E+0	1.986496E+0	1.904015E+0
5.354060E+2	1.325392E+0	1.600705E+0	1.771085E+0	1.760263E+0	1.534272E+0	1.583818E+0	1.693588E+0	1.714773E+0	1.518966E+0	1.617608E+0	1.610319E+0	1.781067E+0	1.627523E+0	1.423759E+0	1.432182E+0	1.529401E+0	1.740475E+0	1.611766E+0	1.617681E+0	1.557621E+0	1.680807E+0	1.671341E+0	1.636449E+0	1.598574E+0	1.657557E+0	1.780663E+0	1.591333E+0	1.622030E+0	1.727549E+0	1.600926E+0	1.431745E+0	1.406656E+0	1.835263E+0	1.697205E+0	1.622420E+0	1.525155E+0	1.790167E+0	1.665283E+0	1.677333E+0	1.651663E+0	1.633257E+0	1.466708E+0	1.626295E+0	1.580725E+0	1.816518E+0	1.447773E+0	1.462657E+0	1.409274E+0	1.862125E+0	1.570343E+0	1.535344E+0	1.433346E+0	1.621616E+0	1.672467E+0	1.713212E+0	1.641100E+0	1.594979E+0	1.640005E+0	1.519158E+0	1.730047E+0	1.725859E+0	1.409403E+0	1.394278E+0	1.593060E+0	1.774887E+0	1.525874E+0	1.487490E+0	1.657435E+0	1.623537E+0	1.580989E+0	1.676497E+0	1.661206E+0	1.669227E+0	1.576015E+0	1.587692E+0	1.714576E+0	1.596296E+0	1.496124E+0	1.491532E+0	1.409146E+0	1.808713E+0	1.412427E+0	1.409417E+0	1.654581E+0	1.663423E+0	1.498080E+0	1.589272E+0	1.720955E+0	1.682033E+0	1.307108E+0	1.693950E+0	1.765020E+0	1.730018E+0	1.337939E+0	1.488327E+0	1.524804E+0	1.755196E+0	1.494119E+0	1.548713E+0	1.587453E+0	1.678093E+0	1.623427E+0	1.692661E+0	1.739245E+0	1.426971E+0	1.577102E+0	1.410469E+0	1.659188E+0	1.656858E+0	1.373983E+0	1.454808E+0	1.490054E+0	1.749822E+0	1.605910E+0	1.638120E+0	1.497881E+0	1.753498E+0	1.585242E+0	1.630509E+0	1.570680E+0	1.782542E+0	1.586325E+0	1.619170E+0	1.581487E+0	1.606067E+0	1.421384E+0	1.379993E+0	1.483930E+0	1.611789E+0	1.559115E+0	1.261395E+0	1.372395E+0	1.650340E+0	1.597260E+0	1.631270E+0	1.562910E+0	1.664862E+0	1.619895E+0	1.703147E+0	1.689400E+0	1.666947E+0	1.474316E+0	1.573375E+0	1.453690E+0	1.470711E+0	1.353341E+0	1.368811E+0	1.612070E+0	1.654959E+0	1.699460E+0	1.629988E+0	1.664065E+0	1.695336E+0	1.688761E+0	1.595331E+0	1.714743E+0	1.747309E+0	1.421584E+0	1.428877E+0	1.594506E+0	1.780853E+0	1.565553E+0	1.654581E+0	1.515677E+0	1.677058E+0	1.581644E+0	1.726574E+0	1.651620E+0	1.632739E+0	1.547138E+0
5.355630E+2	1.130713E+0	1.297847E+0	1.486662E+0	1.484473E+0	1.237223E+0	1.330515E+0	1.423645E+0	1.463555E+0	1.218131E+0	1.422878E+0	1.343710E+0	1.412439E+0	1.387318E+0	1.291566E+0	1.229388E+0	1.279041E+0	1.472282E+0	1.427330E+0	1.281596E+0	1.269243E+0	1.377759E+0	1.441539E+0	1.363557E+0	1.331464E+0	1.293939E+0	1.436381E+0	1.359837E+0	1.366842E+0	1.406386E+0	1.369055E+0	1.140615E+0	1.157733E+0	1.536993E+0	1.421028E+0	1.330323E+0	1.222960E+0	1.498883E+0	1.392266E+0	1.341778E+0	1.347235E+0	1.326770E+0	1.156906E+0	1.310740E+0	1.330395E+0	1.524281E+0	1.173898E+0	1.227139E+0	1.174748E+0	1.465752E+0	1.394498E+0	1.223879E+0	1.208753E+0	1.371549E+0	1.452743E+0	1.374449E+0	1.340562E+0	1.409765E+0	1.345508E+0	1.329031E+0	1.424982E+0	1.398452E+0	1.108705E+0	1.159804E+0	1.354221E+0	1.466844E+0	1.291858E+0	1.246967E+0	1.382508E+0	1.313120E+0	1.326820E+0	1.320404E+0	1.366043E+0	1.365785E+0	1.308379E+0	1.318213E+0	1.349377E+0	1.330804E+0	1.199281E+0	1.173456E+0	1.176895E+0	1.503532E+0	1.317256E+0	1.130264E+0	1.313770E+0	1.417959E+0	1.315610E+0	1.316840E+0	1.439369E+0	1.431186E+0	1.126153E+0	1.348001E+0	1.474463E+0	1.408517E+0	1.115644E+0	1.242316E+0	1.245465E+0	1.363555E+0	1.304653E+0	1.296655E+0	1.331024E+0	1.442013E+0	1.343489E+0	1.389717E+0	1.455254E+0	1.170955E+0	1.297750E+0	1.169468E+0	1.374433E+0	1.369626E+0	1.174488E+0	1.235540E+0	1.251075E+0	1.473400E+0	1.281648E+0	1.321580E+0	1.324707E+0	1.384660E+0	1.360913E+0	1.338098E+0	1.315750E+0	1.420981E+0	1.310346E+0	1.416298E+0	1.364099E+0	1.386262E+0	1.206109E+0	1.156222E+0	1.254605E+0	1.323201E+0	1.287230E+0	1.024962E+0	1.140960E+0	1.380918E+0	1.324416E+0	1.377769E+0	1.304461E+0	1.387696E+0	1.393517E+0	1.430019E+0	1.397198E+0	1.400713E+0	1.184260E+0	1.347609E+0	1.254549E+0	1.279221E+0	1.201236E+0	1.125021E+0	1.318584E+0	1.351135E+0	1.395550E+0	1.359751E+0	1.388863E+0	1.414897E+0	1.314364E+0	1.290228E+0	1.436482E+0	1.374381E+0	1.162212E+0	1.229404E+0	1.284251E+0	1.449433E+0	1.272205E+0	1.367208E+0	1.275148E+0	1.407991E+0	1.310462E+0	1.407803E+0	1.381490E+0	1.330234E+0	1.313252E+0
5.357140E+2	9.535477E-1	1.129458E+0	1.262118E+0	1.269190E+0	1.088699E+0	1.154577E+0	1.193821E+0	1.212828E+0	1.053839E+0	1.181007E+0	1.110866E+0	1.219994E+0	1.203484E+0	1.161299E+0	1.026124E+0	1.089170E+0	1.226834E+0	1.264881E+0	1.134878E+0	1.125050E+0	1.200649E+0	1.232576E+0	1.157058E+0	1.121096E+0	1.175661E+0	1.271049E+0	1.096697E+0	1.118551E+0	1.188996E+0	1.244743E+0	9.708303E-1	1.000712E+0	1.314205E+0	1.253595E+0	1.154036E+0	1.062436E+0	1.239709E+0	1.210620E+0	1.149434E+0	1.111576E+0	1.090436E+0	1.076324E+0	1.105221E+0	1.098441E+0	1.280477E+0	1.102914E+0	1.015751E+0	9.896888E-1	1.294550E+0	1.194116E+0	1.036768E+0	1.013924E+0	1.117388E+0	1.196059E+0	1.157227E+0	1.195067E+0	1.144480E+0	1.187458E+0	1.083090E+0	1.217488E+0	1.242368E+0	1.167161E+0	9.770580E-1	1.149508E+0	1.222746E+0	1.164264E+0	1.031426E+0	1.127901E+0	1.130304E+0	1.097751E+0	1.151350E+0	1.152976E+0	1.195712E+0	1.154215E+0	1.120826E+0	1.181519E+0	1.127963E+0	1.062761E+0	1.039229E+0	1.015010E+0	1.234316E+0	1.198558E+0	9.854985E-1	1.155832E+0	1.150370E+0	1.139010E+0	1.119250E+0	1.226515E+0	1.188465E+0	9.183689E-1	1.182243E+0	1.197225E+0	1.198066E+0	9.672829E-1	1.023256E+0	1.102514E+0	1.205245E+0	1.048874E+0	1.131282E+0	1.117815E+0	1.159817E+0	1.123354E+0	1.192832E+0	1.295064E+0	1.002811E+0	1.131850E+0	9.989904E-1	1.177599E+0	1.190171E+0	9.850393E-1	1.010745E+0	1.056443E+0	1.239054E+0	1.083395E+0	1.184008E+0	1.100133E+0	1.243637E+0	1.150273E+0	1.168887E+0	1.141957E+0	1.203540E+0	1.100748E+0	1.202773E+0	1.154695E+0	1.208592E+0	1.024108E+0	9.728761E-1	1.051077E+0	1.176482E+0	1.105204E+0	8.738657E-1	9.656468E-1	1.148422E+0	1.148283E+0	1.137782E+0	1.117892E+0	1.150803E+0	1.189238E+0	1.214462E+0	1.176024E+0	1.205836E+0	1.000410E+0	1.122946E+0	1.044709E+0	1.021919E+0	9.917441E-1	9.714839E-1	1.116925E+0	1.137756E+0	1.194052E+0	1.161724E+0	1.180643E+0	1.217052E+0	1.163225E+0	1.154900E+0	1.186229E+0	1.171115E+0	1.008303E+0	9.966029E-1	1.099904E+0	1.216028E+0	1.065063E+0	1.179583E+0	1.170212E+0	1.160631E+0	1.112641E+0	1.232230E+0	1.145711E+0	1.147731E+0	1.051139E+0
5.358600E+2	8.369405E-1	9.229089E-1	1.050589E+0	1.040533E+0	9.321777E-1	9.327926E-1	9.536812E-1	1.044703E+0	8.917673E-1	1.042395E+0	9.269186E-1	1.083385E+0	9.779850E-1	9.661321E-1	8.476276E-1	9.492852E-1	1.063402E+0	1.109761E+0	9.119596E-1	9.651870E-1	1.019020E+0	1.110724E+0	9.949850E-1	1.008056E+0	1.016395E+0	1.158351E+0	9.573547E-1	9.912217E-1	1.068498E+0	1.070165E+0	8.427722E-1	8.708915E-1	1.190028E+0	1.052179E+0	9.669106E-1	8.658222E-1	1.038005E+0	9.832887E-1	9.717287E-1	9.928314E-1	9.656552E-1	9.309516E-1	9.427853E-1	9.480133E-1	1.059238E+0	9.858415E-1	8.782045E-1	8.562236E-1	1.070538E+0	1.024112E+0	9.321704E-1	8.802490E-1	9.880058E-1	1.048723E+0	1.017067E+0	1.004250E+0	9.818843E-1	1.020312E+0	9.865745E-1	1.039635E+0	1.019015E+0	1.017514E+0	8.499100E-1	9.759829E-1	1.022917E+0	1.050403E+0	8.681709E-1	1.014344E+0	9.667611E-1	9.826938E-1	9.386195E-1	1.018205E+0	1.006062E+0	9.885904E-1	9.646314E-1	9.824716E-1	9.882826E-1	1.027781E+0	8.823155E-1	8.310478E-1	1.119100E+0	1.068098E+0	8.489267E-1	9.658324E-1	1.021972E+0	9.842850E-1	9.545948E-1	1.078800E+0	1.075863E+0	8.268389E-1	1.033813E+0	1.072529E+0	1.029316E+0	9.393736E-1	8.977992E-1	9.286313E-1	1.098326E+0	9.985470E-1	9.769738E-1	9.714497E-1	1.032992E+0	1.022309E+0	1.084599E+0	1.060593E+0	9.160266E-1	9.454253E-1	8.979258E-1	1.025577E+0	9.889466E-1	8.974910E-1	9.074615E-1	9.120673E-1	1.048082E+0	1.015630E+0	9.954833E-1	9.685694E-1	1.065729E+0	9.596432E-1	1.001208E+0	9.770626E-1	1.089493E+0	9.587619E-1	9.287236E-1	1.003015E+0	9.928472E-1	8.748776E-1	8.458326E-1	9.077487E-1	1.031582E+0	9.467959E-1	7.338131E-1	8.443174E-1	1.047000E+0	9.651277E-1	1.022653E+0	9.654760E-1	1.033542E+0	1.051857E+0	1.085931E+0	1.038008E+0	1.008992E+0	9.117407E-1	9.491916E-1	9.302501E-1	8.493074E-1	8.223673E-1	8.421608E-1	9.782842E-1	1.045689E+0	1.039605E+0	9.822961E-1	1.031152E+0	1.074272E+0	9.794755E-1	9.789738E-1	1.079572E+0	1.022385E+0	8.892140E-1	8.890394E-1	9.763739E-1	1.108822E+0	9.236612E-1	1.078645E+0	9.450127E-1	1.028667E+0	9.993098E-1	1.041092E+0	1.000497E+0	1.011478E+0	9.745228E-1
5.360070E+2	7.873950E-1	8.114571E-1	8.982886E-1	9.010445E-1	7.773701E-1	8.072868E-1	8.923563E-1	9.222546E-1	7.646622E-1	9.357705E-1	8.465865E-1	8.714244E-1	8.510184E-1	8.401883E-1	7.611826E-1	7.858795E-1	9.185288E-1	9.363197E-1	8.300708E-1	8.288331E-1	8.529467E-1	9.306212E-1	8.617130E-1	7.998676E-1	8.688394E-1	9.670127E-1	8.008022E-1	8.750337E-1	8.393062E-1	9.669324E-1	7.247854E-1	7.332413E-1	9.331525E-1	9.286115E-1	8.328416E-1	7.753257E-1	9.089818E-1	8.320971E-1	8.786934E-1	8.617070E-1	8.426004E-1	7.703332E-1	8.397351E-1	8.331837E-1	9.618252E-1	7.755358E-1	7.551376E-1	7.445049E-1	9.271938E-1	8.669605E-1	7.996821E-1	7.920345E-1	8.228266E-1	8.659646E-1	8.536333E-1	8.697244E-1	8.510752E-1	9.111548E-1	7.947055E-1	8.469611E-1	8.923601E-1	8.627243E-1	7.300138E-1	8.375552E-1	9.300740E-1	8.181032E-1	7.775396E-1	8.619383E-1	8.646770E-1	8.184752E-1	8.158112E-1	8.426257E-1	8.219186E-1	8.934565E-1	8.158743E-1	8.883366E-1	8.634951E-1	9.136097E-1	7.641592E-1	7.878166E-1	9.100240E-1	9.151818E-1	7.134487E-1	8.138323E-1	8.531118E-1	8.204896E-1	8.323493E-1	9.454463E-1	8.706792E-1	7.463557E-1	8.599706E-1	9.218033E-1	8.949940E-1	8.154947E-1	7.645014E-1	8.222383E-1	8.968943E-1	8.594075E-1	8.988977E-1	8.360326E-1	8.896959E-1	8.537282E-1	8.947831E-1	9.246605E-1	7.240165E-1	8.490773E-1	7.596548E-1	8.593749E-1	8.827607E-1	8.166396E-1	8.069392E-1	7.957802E-1	9.192570E-1	9.125833E-1	8.954894E-1	8.272159E-1	9.203659E-1	8.327322E-1	8.851632E-1	8.566636E-1	9.466227E-1	8.770125E-1	9.007024E-1	8.476498E-1	8.705073E-1	8.053040E-1	7.033906E-1	7.730194E-1	8.515174E-1	8.834328E-1	6.605238E-1	7.657476E-1	9.102088E-1	8.624732E-1	8.886054E-1	8.461933E-1	8.635715E-1	8.577325E-1	8.897869E-1	8.664988E-1	8.529929E-1	8.125507E-1	8.219194E-1	7.785693E-1	7.549094E-1	7.438082E-1	7.574123E-1	7.676232E-1	8.599293E-1	8.978912E-1	7.859097E-1	8.704963E-1	8.930744E-1	8.578123E-1	8.411857E-1	9.282282E-1	8.764083E-1	7.665932E-1	7.456215E-1	8.214846E-1	9.458677E-1	8.188498E-1	8.613328E-1	8.489198E-1	8.567153E-1	8.505644E-1	9.147036E-1	8.591859E-1	8.127227E-1	8.051575E-1
5.362680E+2	6.177377E-1	6.594223E-1	6.730927E-1	6.927679E-1	6.185637E-1	6.399455E-1	6.659717E-1	7.021376E-1	5.787238E-1	6.473226E-1	6.422654E-1	7.006629E-1	6.867955E-1	6.507914E-1	5.481078E-1	6.107105E-1	7.149881E-1	7.085248E-1	6.401343E-1	6.229969E-1	6.377032E-1	7.066947E-1	6.610722E-1	6.615131E-1	6.299403E-1	7.409982E-1	6.242650E-1	6.092348E-1	6.784779E-1	7.291173E-1	5.861757E-1	5.593240E-1	7.401920E-1	7.296674E-1	6.080630E-1	6.358098E-1	7.247439E-1	6.858006E-1	6.570815E-1	6.398043E-1	6.321419E-1	6.124369E-1	6.324692E-1	6.460118E-1	7.119676E-1	6.849504E-1	5.900815E-1	5.713841E-1	7.287165E-1	6.496361E-1	6.119879E-1	5.885465E-1	6.678752E-1	6.919328E-1	6.710628E-1	6.669823E-1	6.524162E-1	6.632785E-1	5.888824E-1	7.024561E-1	7.068463E-1	6.438676E-1	5.612886E-1	6.596461E-1	7.031916E-1	6.842156E-1	5.852363E-1	6.629152E-1	6.391544E-1	6.626253E-1	6.534367E-1	6.841289E-1	6.432805E-1	6.825567E-1	6.259231E-1	6.858871E-1	6.462734E-1	7.255928E-1	5.878690E-1	5.845387E-1	7.183704E-1	7.061245E-1	5.615811E-1	6.410515E-1	6.950413E-1	6.807027E-1	6.292721E-1	7.151540E-1	6.592388E-1	5.690822E-1	6.780425E-1	7.069148E-1	6.898740E-1	6.671341E-1	6.091510E-1	6.178896E-1	7.108209E-1	7.173078E-1	6.579078E-1	6.401100E-1	7.222426E-1	6.629799E-1	6.679825E-1	6.815991E-1	5.905855E-1	6.837473E-1	5.758493E-1	7.124584E-1	6.549916E-1	6.362808E-1	5.699938E-1	6.193780E-1	6.907368E-1	7.087290E-1	6.700248E-1	6.430279E-1	6.941841E-1	7.095077E-1	6.592079E-1	6.504155E-1	7.116379E-1	6.606539E-1	7.006290E-1	6.486842E-1	7.004496E-1	6.989276E-1	5.556545E-1	6.354239E-1	6.981293E-1	7.250256E-1	5.149491E-1	5.460717E-1	6.756351E-1	6.360945E-1	6.367257E-1	6.789938E-1	6.876788E-1	6.928754E-1	7.083704E-1	6.724675E-1	6.881357E-1	7.073503E-1	7.090350E-1	6.394503E-1	6.157412E-1	6.134321E-1	5.499450E-1	6.926013E-1	6.611716E-1	7.213026E-1	6.633731E-1	6.773225E-1	6.773023E-1	7.192157E-1	6.486509E-1	6.791640E-1	6.918727E-1	6.853506E-1	5.870541E-1	6.708708E-1	7.216528E-1	6.855095E-1	6.849890E-1	6.408167E-1	6.870479E-1	6.906885E-1	7.023973E-1	7.381736E-1	7.514722E-1	6.720845E-1
5.365140E+2	4.866165E-1	5.231366E-1	5.982449E-1	6.042349E-1	5.077423E-1	5.024050E-1	5.536390E-1	5.704566E-1	4.505086E-1	5.479937E-1	5.613513E-1	5.608013E-1	5.392397E-1	5.589774E-1	4.579244E-1	4.918311E-1	5.802917E-1	5.723366E-1	5.264000E-1	5.091069E-1	5.438787E-1	5.907233E-1	5.463507E-1	5.462899E-1	5.403530E-1	6.283002E-1	5.454340E-1	5.270013E-1	6.066712E-1	6.021029E-1	4.878529E-1	4.839046E-1	5.983618E-1	5.801501E-1	5.726924E-1	5.000650E-1	6.120607E-1	5.960646E-1	5.844310E-1	5.458166E-1	5.470386E-1	4.817644E-1	5.305837E-1	5.019008E-1	6.101531E-1	5.429812E-1	4.732881E-1	4.566808E-1	6.288973E-1	5.754423E-1	5.381897E-1	5.003324E-1	5.686656E-1	5.805328E-1	5.484873E-1	5.796838E-1	5.362769E-1	6.092689E-1	5.255077E-1	6.048844E-1	5.880753E-1	5.522094E-1	4.781349E-1	5.602112E-1	6.294087E-1	5.789376E-1	5.108715E-1	5.810343E-1	5.688414E-1	5.779012E-1	5.480992E-1	5.692903E-1	5.857733E-1	5.662186E-1	5.481120E-1	5.429822E-1	5.600007E-1	6.002474E-1	4.848365E-1	4.525465E-1	6.132706E-1	5.933088E-1	4.681663E-1	5.686138E-1	5.553137E-1	5.531875E-1	5.160081E-1	5.817999E-1	5.822950E-1	4.780777E-1	5.804371E-1	5.489254E-1	5.962856E-1	5.603922E-1	4.900650E-1	5.119657E-1	5.938602E-1	5.834977E-1	5.134364E-1	5.427251E-1	5.899278E-1	5.918361E-1	5.635560E-1	6.138856E-1	5.368875E-1	5.372301E-1	4.758949E-1	5.468235E-1	5.615478E-1	5.401206E-1	5.120006E-1	5.001343E-1	6.370058E-1	5.860808E-1	5.528339E-1	5.573588E-1	5.781103E-1	5.494206E-1	5.559429E-1	5.483380E-1	5.543553E-1	5.979585E-1	5.706096E-1	5.688529E-1	5.821716E-1	5.623013E-1	4.839521E-1	4.854065E-1	5.883925E-1	5.942675E-1	4.336280E-1	4.707082E-1	5.996976E-1	5.518101E-1	5.945651E-1	5.724545E-1	5.538347E-1	5.841657E-1	5.885426E-1	5.552404E-1	5.719971E-1	5.400308E-1	6.138574E-1	5.394145E-1	4.922152E-1	5.103578E-1	4.613445E-1	5.575620E-1	5.366095E-1	5.818024E-1	5.277080E-1	5.593801E-1	5.767793E-1	5.856368E-1	5.410040E-1	5.862127E-1	5.927190E-1	5.672705E-1	5.032253E-1	5.516153E-1	6.346625E-1	5.782181E-1	5.644581E-1	5.535665E-1	5.602255E-1	5.353660E-1	6.102523E-1	5.437739E-1	6.264708E-1	5.228818E-1
5.367710E+2	4.721033E-1	5.055708E-1	5.455256E-1	5.322616E-1	4.671835E-1	5.075631E-1	5.255563E-1	5.592811E-1	4.804808E-1	5.721244E-1	4.944084E-1	5.364065E-1	5.225724E-1	5.032157E-1	4.658681E-1	4.968718E-1	5.539515E-1	5.894365E-1	5.099087E-1	5.054497E-1	5.529101E-1	5.501074E-1	5.302410E-1	5.388704E-1	5.169314E-1	6.289192E-1	5.154561E-1	5.514057E-1	5.889651E-1	5.875096E-1	4.542800E-1	4.628868E-1	6.184496E-1	5.591437E-1	5.264810E-1	4.779796E-1	5.929040E-1	5.356968E-1	5.572524E-1	5.361887E-1	4.912617E-1	4.833980E-1	4.840068E-1	5.145319E-1	5.782332E-1	5.435107E-1	4.665309E-1	4.460207E-1	6.132280E-1	5.666792E-1	5.091349E-1	4.635310E-1	5.272430E-1	5.343292E-1	4.972850E-1	5.577401E-1	5.246630E-1	5.643550E-1	5.080645E-1	5.758596E-1	5.444553E-1	5.311656E-1	4.220544E-1	5.187804E-1	6.048151E-1	4.925404E-1	5.050612E-1	5.619087E-1	5.219659E-1	5.318784E-1	5.265174E-1	5.522066E-1	5.123608E-1	5.192250E-1	5.229382E-1	5.605620E-1	5.487032E-1	5.803282E-1	4.820005E-1	4.622041E-1	5.598775E-1	5.649707E-1	4.834623E-1	5.145832E-1	5.261813E-1	5.110386E-1	5.454468E-1	5.905195E-1	5.629023E-1	4.633489E-1	5.348106E-1	5.943249E-1	5.536123E-1	5.275866E-1	4.979061E-1	4.866569E-1	5.962226E-1	5.527084E-1	5.140512E-1	5.346575E-1	5.547905E-1	5.474995E-1	5.700830E-1	5.583001E-1	4.793929E-1	5.269679E-1	4.708975E-1	5.530635E-1	5.403103E-1	5.252900E-1	4.783092E-1	4.932358E-1	5.761537E-1	5.916807E-1	5.477388E-1	5.224786E-1	5.721439E-1	5.299367E-1	5.758799E-1	5.357747E-1	5.556082E-1	5.377220E-1	5.095231E-1	4.884064E-1	5.395300E-1	5.451603E-1	4.579659E-1	4.973505E-1	5.338275E-1	5.447294E-1	4.220829E-1	4.696392E-1	5.352027E-1	5.085873E-1	5.470004E-1	5.138327E-1	5.413979E-1	5.692333E-1	5.677902E-1	5.298320E-1	5.488679E-1	5.781035E-1	5.380473E-1	4.910261E-1	4.792692E-1	5.137012E-1	4.354797E-1	5.413575E-1	5.366097E-1	5.646419E-1	5.665478E-1	5.627771E-1	5.447655E-1	5.429920E-1	5.102473E-1	5.510573E-1	5.613204E-1	5.334615E-1	4.673705E-1	4.941255E-1	5.544105E-1	5.273636E-1	5.721767E-1	5.158371E-1	5.653674E-1	5.505441E-1	5.349176E-1	5.500196E-1	5.452183E-1	5.732882E-1
5.370170E+2	4.906199E-1	5.461533E-1	5.969430E-1	5.959546E-1	5.300205E-1	5.499714E-1	5.908930E-1	5.845480E-1	5.143383E-1	6.074790E-1	5.846353E-1	5.656804E-1	5.603192E-1	5.565733E-1	5.653967E-1	4.825894E-1	6.078292E-1	6.254682E-1	5.980522E-1	5.331385E-1	5.724776E-1	5.992742E-1	5.922391E-1	5.371249E-1	5.485509E-1	6.276809E-1	5.920668E-1	5.535280E-1	5.697837E-1	6.420987E-1	5.377340E-1	4.888507E-1	6.385371E-1	6.246346E-1	6.074924E-1	5.366947E-1	5.957214E-1	5.944328E-1	5.985431E-1	5.504016E-1	5.579638E-1	5.068100E-1	5.794886E-1	5.759660E-1	6.569331E-1	5.620512E-1	5.017621E-1	4.797065E-1	6.172906E-1	5.941370E-1	5.294733E-1	5.127793E-1	6.090657E-1	5.943936E-1	5.867594E-1	5.954263E-1	5.485025E-1	5.745883E-1	5.580672E-1	5.845047E-1	6.012134E-1	5.769948E-1	5.090756E-1	5.733723E-1	6.060444E-1	5.674946E-1	5.317867E-1	5.732641E-1	5.651952E-1	5.716253E-1	5.676250E-1	5.692900E-1	5.888324E-1	5.736690E-1	5.452508E-1	5.724707E-1	5.107025E-1	6.123934E-1	5.094135E-1	4.939375E-1	6.599196E-1	6.435676E-1	6.244042E-1	5.662389E-1	5.725780E-1	5.969380E-1	5.863617E-1	6.751477E-1	5.541445E-1	5.185823E-1	5.255698E-1	5.785864E-1	5.788279E-1	5.608819E-1	4.993759E-1	5.288387E-1	5.584181E-1	5.894178E-1	5.490930E-1	5.588600E-1	6.135358E-1	6.170975E-1	5.896628E-1	6.073166E-1	4.945800E-1	5.879692E-1	4.975517E-1	5.933376E-1	6.088008E-1	5.530377E-1	5.037155E-1	5.390607E-1	6.195269E-1	6.415243E-1	5.324530E-1	5.573582E-1	5.862458E-1	6.263047E-1	5.942839E-1	5.739881E-1	5.988459E-1	5.709136E-1	6.031145E-1	5.719226E-1	6.050150E-1	5.834759E-1	4.959823E-1	5.245830E-1	5.744483E-1	5.931160E-1	4.436676E-1	4.712428E-1	5.736912E-1	6.015162E-1	5.832147E-1	5.541035E-1	5.798926E-1	5.835689E-1	5.811794E-1	5.945088E-1	6.187476E-1	5.971400E-1	5.679284E-1	5.403454E-1	5.089370E-1	5.326447E-1	4.910616E-1	5.569623E-1	5.961830E-1	6.233206E-1	5.780358E-1	5.957817E-1	5.863827E-1	6.082133E-1	5.539211E-1	6.243468E-1	5.894136E-1	5.844276E-1	5.254448E-1	5.634936E-1	6.046444E-1	6.110885E-1	5.703952E-1	5.594618E-1	5.979297E-1	5.895011E-1	6.220820E-1	5.648536E-1	5.914695E-1	5.269134E-1
5.372640E+2	5.952168E-1	6.145996E-1	6.724428E-1	6.978642E-1	5.985703E-1	6.502616E-1	6.699846E-1	6.729838E-1	5.576325E-1	6.922172E-1	6.830131E-1	6.610899E-1	6.323811E-1	6.637703E-1	6.602525E-1	6.031495E-1	6.814636E-1	7.060821E-1	6.827848E-1	6.115029E-1	6.457309E-1	6.789048E-1	6.649776E-1	6.143767E-1	6.685858E-1	7.298516E-1	6.886621E-1	6.564525E-1	7.050367E-1	7.069578E-1	6.696289E-1	5.861127E-1	7.511484E-1	7.117509E-1	6.850817E-1	5.954096E-1	7.253076E-1	6.406602E-1	7.004628E-1	6.420965E-1	6.189160E-1	5.950141E-1	6.423667E-1	6.586435E-1	7.411362E-1	6.182038E-1	6.653698E-1	5.722370E-1	7.078241E-1	6.946196E-1	6.631247E-1	5.917934E-1	6.228732E-1	7.001469E-1	6.850272E-1	6.564873E-1	6.738100E-1	7.025064E-1	6.383033E-1	6.913402E-1	6.642782E-1	6.499468E-1	6.473436E-1	6.333248E-1	7.228670E-1	6.939427E-1	6.630872E-1	6.760634E-1	6.542586E-1	6.573957E-1	6.498399E-1	6.727400E-1	6.922224E-1	6.710953E-1	6.613961E-1	6.807838E-1	6.544900E-1	6.600050E-1	5.940135E-1	5.505057E-1	7.324213E-1	7.483636E-1	6.293210E-1	6.036450E-1	6.837119E-1	6.486903E-1	6.572143E-1	7.300281E-1	7.167902E-1	5.611910E-1	6.699573E-1	7.208370E-1	6.792063E-1	6.529343E-1	6.067006E-1	5.841439E-1	7.220438E-1	7.078347E-1	6.197921E-1	6.066882E-1	6.618502E-1	6.609178E-1	6.755969E-1	6.856423E-1	5.851616E-1	6.330076E-1	5.486393E-1	6.557340E-1	6.310997E-1	6.602011E-1	5.572907E-1	6.114944E-1	7.030368E-1	6.958480E-1	6.560127E-1	6.534302E-1	7.457120E-1	6.579009E-1	6.418267E-1	6.477980E-1	6.940927E-1	6.366821E-1	6.905412E-1	6.333323E-1	6.831906E-1	7.090107E-1	5.580604E-1	5.843031E-1	6.738778E-1	6.737589E-1	5.144472E-1	5.519508E-1	6.725139E-1	6.679710E-1	6.480763E-1	6.596225E-1	6.870865E-1	6.803322E-1	6.909660E-1	6.268473E-1	6.950251E-1	6.943251E-1	6.332251E-1	6.008314E-1	5.488535E-1	5.950463E-1	5.686554E-1	6.415867E-1	6.915003E-1	6.858741E-1	6.579030E-1	6.651884E-1	6.933089E-1	6.928761E-1	6.517265E-1	6.666519E-1	6.847108E-1	6.742484E-1	5.865487E-1	6.209833E-1	7.443197E-1	6.712460E-1	6.897388E-1	6.697036E-1	6.647678E-1	6.380712E-1	7.210749E-1	7.209971E-1	6.964713E-1	5.974833E-1
5.375060E+2	6.492672E-1	7.726914E-1	7.915487E-1	8.297073E-1	6.762598E-1	7.345053E-1	7.674149E-1	8.017492E-1	6.481036E-1	7.494580E-1	7.365672E-1	7.733044E-1	7.274834E-1	7.459705E-1	7.326796E-1	6.602788E-1	7.742542E-1	8.422706E-1	7.845767E-1	7.165116E-1	7.194856E-1	8.066334E-1	7.704239E-1	7.252345E-1	7.458762E-1	8.239732E-1	7.369604E-1	7.588464E-1	7.719253E-1	8.426200E-1	7.717882E-1	6.211428E-1	8.053232E-1	8.223430E-1	8.060282E-1	6.907545E-1	7.782686E-1	7.652032E-1	7.741595E-1	7.420445E-1	7.201207E-1	6.734175E-1	7.448354E-1	7.344306E-1	8.468032E-1	7.124966E-1	7.614109E-1	5.986745E-1	7.670188E-1	8.213921E-1	7.648162E-1	7.043614E-1	7.854955E-1	7.802320E-1	7.651922E-1	7.476024E-1	7.129312E-1	8.275827E-1	7.417963E-1	8.185539E-1	8.077492E-1	7.561019E-1	7.730410E-1	7.152118E-1	8.347709E-1	7.603144E-1	7.885773E-1	7.519675E-1	7.219676E-1	7.374125E-1	8.009093E-1	7.685971E-1	7.368818E-1	7.547673E-1	7.460730E-1	7.437299E-1	7.428168E-1	7.848642E-1	7.764477E-1	6.236306E-1	8.358357E-1	8.141283E-1	8.554829E-1	7.788012E-1	7.646355E-1	7.271201E-1	7.834514E-1	7.874725E-1	7.674612E-1	6.648206E-1	7.525468E-1	7.801584E-1	8.028595E-1	7.327456E-1	7.747927E-1	6.952235E-1	7.775710E-1	7.569775E-1	7.396725E-1	7.392239E-1	7.518904E-1	7.934103E-1	8.115685E-1	8.124787E-1	6.410291E-1	7.213737E-1	6.197182E-1	7.691830E-1	7.516212E-1	7.305265E-1	6.699640E-1	6.656960E-1	8.441625E-1	7.781743E-1	7.509119E-1	7.299200E-1	8.102578E-1	7.526893E-1	7.578714E-1	7.556337E-1	8.087649E-1	7.909611E-1	7.303318E-1	7.733441E-1	7.527366E-1	7.599304E-1	6.552677E-1	7.070884E-1	7.478435E-1	8.143097E-1	5.581193E-1	6.246415E-1	7.702964E-1	7.663023E-1	7.372612E-1	7.682007E-1	7.930959E-1	7.645521E-1	7.927190E-1	7.977792E-1	7.914792E-1	7.724748E-1	7.344893E-1	7.027284E-1	6.648277E-1	6.825201E-1	6.776176E-1	7.460170E-1	7.656954E-1	8.032307E-1	7.448817E-1	7.714825E-1	7.919111E-1	7.813015E-1	7.526074E-1	8.072717E-1	7.904752E-1	7.918238E-1	6.542179E-1	7.093553E-1	8.117068E-1	7.506295E-1	7.770205E-1	6.850310E-1	7.950177E-1	7.169966E-1	7.839578E-1	8.107812E-1	7.877238E-1	8.374162E-1
5.377580E+2	7.088220E-1	8.114574E-1	9.152115E-1	8.927642E-1	8.202135E-1	8.336488E-1	8.917833E-1	8.984450E-1	7.197036E-1	8.908757E-1	8.756921E-1	8.844344E-1	7.990551E-1	7.993289E-1	8.868784E-1	7.715972E-1	8.879979E-1	9.363202E-1	9.022917E-1	8.063687E-1	8.685000E-1	8.873328E-1	8.543901E-1	9.089804E-1	8.770367E-1	9.558667E-1	9.112767E-1	8.426711E-1	8.850460E-1	9.836874E-1	8.801821E-1	7.163445E-1	9.641966E-1	9.502360E-1	8.904631E-1	7.602424E-1	9.518020E-1	8.538514E-1	9.084854E-1	8.383249E-1	7.977484E-1	8.100795E-1	8.834001E-1	8.590202E-1	9.552215E-1	7.887791E-1	8.444218E-1	7.257432E-1	9.538891E-1	9.166182E-1	9.257789E-1	7.736340E-1	8.995351E-1	8.469701E-1	8.820787E-1	8.911913E-1	8.773595E-1	8.878452E-1	8.999426E-1	8.945119E-1	8.823753E-1	7.930458E-1	9.485341E-1	8.180583E-1	9.724996E-1	8.747475E-1	8.757237E-1	8.523764E-1	8.349894E-1	8.535161E-1	8.471550E-1	8.758435E-1	8.861546E-1	8.487546E-1	8.318940E-1	9.320017E-1	8.676038E-1	9.102090E-1	9.149269E-1	7.123922E-1	9.353148E-1	9.488662E-1	9.215831E-1	8.447076E-1	8.903369E-1	8.605044E-1	8.607902E-1	9.044142E-1	9.069612E-1	7.342573E-1	9.131050E-1	9.193823E-1	8.838408E-1	8.194123E-1	9.036801E-1	7.749009E-1	8.951218E-1	9.263126E-1	9.173414E-1	8.481339E-1	9.006761E-1	8.753805E-1	9.295915E-1	9.170807E-1	7.782564E-1	8.639002E-1	7.674290E-1	8.712875E-1	8.455961E-1	8.625667E-1	8.549916E-1	7.376361E-1	9.186087E-1	8.913015E-1	9.012213E-1	7.856055E-1	9.230778E-1	8.859189E-1	9.086788E-1	8.221143E-1	8.814537E-1	8.370603E-1	8.950980E-1	8.955491E-1	8.598473E-1	8.678198E-1	8.227340E-1	8.126736E-1	8.406039E-1	9.364277E-1	7.112237E-1	7.203156E-1	8.665182E-1	8.905684E-1	8.718489E-1	8.625053E-1	9.127268E-1	9.019330E-1	9.353082E-1	8.370475E-1	8.766139E-1	8.932049E-1	8.407338E-1	7.911317E-1	7.603042E-1	8.084387E-1	8.691260E-1	8.444458E-1	8.951316E-1	9.039803E-1	9.100873E-1	8.646725E-1	9.513395E-1	8.891682E-1	8.436463E-1	8.942650E-1	9.160704E-1	8.629746E-1	7.567315E-1	8.675707E-1	9.507682E-1	8.808679E-1	8.678642E-1	8.318237E-1	8.401481E-1	8.439873E-1	9.259106E-1	8.584048E-1	8.752257E-1	8.515304E-1
5.380160E+2	9.310273E-1	9.760906E-1	1.017537E+0	1.080860E+0	1.047274E+0	1.085587E+0	9.658789E-1	1.005701E+0	1.038927E+0	1.113141E+0	9.681609E-1	1.022417E+0	9.985497E-1	9.331559E-1	9.309338E-1	1.017113E+0	1.024850E+0	1.085791E+0	9.795746E-1	1.028836E+0	1.087983E+0	1.113299E+0	9.549222E-1	9.541673E-1	1.100341E+0	1.184988E+0	1.010270E+0	9.658799E-1	1.014643E+0	1.077903E+0	1.024947E+0	9.180050E-1	1.073379E+0	1.095737E+0	9.978987E-1	9.817973E-1	1.151384E+0	1.128951E+0	1.007975E+0	1.004209E+0	9.737632E-1	1.146488E+0	9.451048E-1	9.914477E-1	1.064338E+0	9.599817E-1	9.363685E-1	9.952104E-1	1.075094E+0	1.042660E+0	9.645182E-1	9.870081E-1	1.138457E+0	1.147033E+0	1.013438E+0	9.761841E-1	1.096710E+0	1.088468E+0	9.713702E-1	9.938335E-1	1.031969E+0	9.853255E-1	9.833184E-1	1.036286E+0	1.073387E+0	1.045473E+0	9.803091E-1	1.081333E+0	1.115642E+0	1.152098E+0	1.001257E+0	1.014267E+0	1.043055E+0	1.056034E+0	9.577751E-1	1.034889E+0	9.710619E-1	1.026437E+0	9.680030E-1	9.612083E-1	1.045398E+0	1.038236E+0	1.027681E+0	1.054113E+0	1.093598E+0	1.149050E+0	9.505446E-1	1.058610E+0	1.109352E+0	1.097010E+0	1.022705E+0	1.021127E+0	9.078361E-1	1.005132E+0	9.634351E-1	9.759533E-1	1.001588E+0	1.003411E+0	1.027334E+0	9.985335E-1	1.143244E+0	1.091141E+0	1.005156E+0	1.034425E+0	8.724989E-1	1.014332E+0	1.065553E+0	9.777588E-1	9.350134E-1	9.642922E-1	1.014409E+0	1.044328E+0	1.067136E+0	9.895788E-1	1.082920E+0	1.044081E+0	1.179914E+0	9.857450E-1	9.382526E-1	9.691322E-1	1.084282E+0	9.594390E-1	9.992909E-1	9.662919E-1	9.791748E-1	9.533581E-1	9.762049E-1	9.780909E-1	1.013272E+0	9.898832E-1	8.186982E-1	8.727435E-1	1.143638E+0	9.833167E-1	9.934195E-1	9.668439E-1	1.080061E+0	9.908024E-1	1.100993E+0	9.575376E-1	1.001627E+0	1.022527E+0	1.059338E+0	1.017568E+0	8.685911E-1	8.595577E-1	1.086949E+0	1.049755E+0	1.102555E+0	9.853465E-1	9.673708E-1	1.043245E+0	1.052118E+0	9.247060E-1	9.730893E-1	1.051230E+0	1.016316E+0	9.741828E-1	9.889268E-1	1.053438E+0	1.065306E+0	1.002414E+0	1.043862E+0	1.016847E+0	1.209427E+0	9.598131E-1	1.024603E+0	9.784670E-1	1.073791E+0	9.323818E-1
5.382740E+2	1.096680E+0	1.139150E+0	1.254958E+0	1.232885E+0	1.264643E+0	1.379225E+0	1.170896E+0	1.225461E+0	1.300831E+0	1.302221E+0	1.131240E+0	1.243847E+0	1.239761E+0	1.166104E+0	1.195277E+0	1.203430E+0	1.269338E+0	1.280149E+0	1.252025E+0	1.245209E+0	1.320563E+0	1.362974E+0	1.194161E+0	1.163865E+0	1.294525E+0	1.419042E+0	1.237705E+0	1.139242E+0	1.247524E+0	1.257714E+0	1.165076E+0	1.170920E+0	1.283161E+0	1.308582E+0	1.274412E+0	1.196565E+0	1.407044E+0	1.437951E+0	1.198566E+0	1.195936E+0	1.166914E+0	1.394295E+0	1.179160E+0	1.161023E+0	1.263967E+0	1.204623E+0	1.181289E+0	1.217816E+0	1.298032E+0	1.285836E+0	1.180298E+0	1.183858E+0	1.421152E+0	1.373684E+0	1.178433E+0	1.205085E+0	1.322355E+0	1.316513E+0	1.192979E+0	1.214400E+0	1.294397E+0	1.162016E+0	1.160771E+0	1.283059E+0	1.292839E+0	1.258671E+0	1.199909E+0	1.326328E+0	1.364161E+0	1.355585E+0	1.186805E+0	1.204700E+0	1.344985E+0	1.252788E+0	1.167169E+0	1.274520E+0	1.160313E+0	1.248835E+0	1.186688E+0	1.150222E+0	1.358524E+0	1.298006E+0	1.249901E+0	1.250238E+0	1.358074E+0	1.408444E+0	1.159169E+0	1.251647E+0	1.326714E+0	1.360238E+0	1.204768E+0	1.272890E+0	1.186430E+0	1.244419E+0	1.233984E+0	1.154072E+0	1.238325E+0	1.315311E+0	1.305876E+0	1.258995E+0	1.331113E+0	1.355860E+0	1.210780E+0	1.266765E+0	1.119427E+0	1.284068E+0	1.358826E+0	1.250206E+0	1.150350E+0	1.163485E+0	1.238852E+0	1.286553E+0	1.382121E+0	1.274367E+0	1.229865E+0	1.270859E+0	1.399848E+0	1.342482E+0	1.177067E+0	1.203726E+0	1.311319E+0	1.307272E+0	1.245928E+0	1.192155E+0	1.128385E+0	1.223753E+0	1.119649E+0	1.241228E+0	1.226197E+0	1.259579E+0	1.001871E+0	1.102476E+0	1.351269E+0	1.393570E+0	1.216157E+0	1.187729E+0	1.278133E+0	1.301532E+0	1.269355E+0	1.168517E+0	1.242252E+0	1.208809E+0	1.309427E+0	1.232219E+0	1.080177E+0	1.052475E+0	1.258747E+0	1.256765E+0	1.335973E+0	1.284839E+0	1.150783E+0	1.223840E+0	1.336143E+0	1.205243E+0	1.124759E+0	1.285735E+0	1.224549E+0	1.181891E+0	1.176885E+0	1.229612E+0	1.296893E+0	1.227551E+0	1.277551E+0	1.243904E+0	1.378857E+0	1.215346E+0	1.240324E+0	1.180063E+0	1.296482E+0	1.204376E+0
5.385060E+2	1.322388E+0	1.362658E+0	1.458025E+0	1.493389E+0	1.511993E+0	1.627947E+0	1.374929E+0	1.409620E+0	1.490656E+0	1.544652E+0	1.380385E+0	1.386419E+0	1.377513E+0	1.402129E+0	1.339197E+0	1.448330E+0	1.454322E+0	1.512219E+0	1.411821E+0	1.448957E+0	1.469075E+0	1.597054E+0	1.379179E+0	1.384709E+0	1.550989E+0	1.682209E+0	1.411466E+0	1.340846E+0	1.511637E+0	1.530119E+0	1.419276E+0	1.346896E+0	1.556473E+0	1.594641E+0	1.435296E+0	1.422267E+0	1.623960E+0	1.623947E+0	1.413907E+0	1.383912E+0	1.380822E+0	1.623516E+0	1.374199E+0	1.356234E+0	1.532537E+0	1.417048E+0	1.364200E+0	1.395201E+0	1.552802E+0	1.487388E+0	1.394141E+0	1.388968E+0	1.605255E+0	1.619074E+0	1.403931E+0	1.378252E+0	1.571750E+0	1.538240E+0	1.331359E+0	1.469445E+0	1.464145E+0	1.357026E+0	1.376873E+0	1.452683E+0	1.556613E+0	1.472661E+0	1.423584E+0	1.507421E+0	1.547497E+0	1.610277E+0	1.340955E+0	1.401160E+0	1.522397E+0	1.471711E+0	1.365131E+0	1.473565E+0	1.434025E+0	1.419848E+0	1.367231E+0	1.337403E+0	1.484981E+0	1.522034E+0	1.478246E+0	1.512679E+0	1.546894E+0	1.566373E+0	1.348276E+0	1.472709E+0	1.489986E+0	1.540143E+0	1.400557E+0	1.441168E+0	1.417248E+0	1.476509E+0	1.446673E+0	1.370607E+0	1.442712E+0	1.435503E+0	1.483545E+0	1.430139E+0	1.563902E+0	1.565167E+0	1.456615E+0	1.440092E+0	1.303301E+0	1.458522E+0	1.459338E+0	1.432289E+0	1.397233E+0	1.334275E+0	1.453154E+0	1.460984E+0	1.492175E+0	1.431738E+0	1.424760E+0	1.497268E+0	1.618437E+0	1.637383E+0	1.338096E+0	1.329884E+0	1.427244E+0	1.572803E+0	1.456646E+0	1.438404E+0	1.361897E+0	1.390122E+0	1.353524E+0	1.419911E+0	1.463856E+0	1.499207E+0	1.144433E+0	1.195478E+0	1.598328E+0	1.580513E+0	1.466953E+0	1.298856E+0	1.490744E+0	1.495056E+0	1.469515E+0	1.371789E+0	1.379061E+0	1.407185E+0	1.540731E+0	1.408559E+0	1.189677E+0	1.208479E+0	1.429345E+0	1.412811E+0	1.551517E+0	1.525641E+0	1.390386E+0	1.402452E+0	1.519903E+0	1.486199E+0	1.384341E+0	1.474025E+0	1.460311E+0	1.400894E+0	1.360703E+0	1.458145E+0	1.473937E+0	1.504153E+0	1.482396E+0	1.435501E+0	1.660494E+0	1.610484E+0	1.388503E+0	1.366656E+0	1.505237E+0	1.498748E+0
5.387650E+2	1.491546E+0	1.649163E+0	1.687125E+0	1.700390E+0	1.786189E+0	1.835976E+0	1.541707E+0	1.603012E+0	1.732099E+0	1.794379E+0	1.614975E+0	1.653674E+0	1.638798E+0	1.600178E+0	1.578908E+0	1.594514E+0	1.767412E+0	1.707032E+0	1.655781E+0	1.672035E+0	1.810254E+0	1.881903E+0	1.613993E+0	1.556674E+0	1.730750E+0	1.890267E+0	1.662951E+0	1.573754E+0	1.645413E+0	1.739829E+0	1.597693E+0	1.519578E+0	1.801173E+0	1.841160E+0	1.658365E+0	1.652277E+0	1.933840E+0	1.856719E+0	1.686740E+0	1.598937E+0	1.542979E+0	1.781958E+0	1.604753E+0	1.571539E+0	1.741669E+0	1.593450E+0	1.591032E+0	1.607978E+0	1.824981E+0	1.707048E+0	1.581252E+0	1.570807E+0	1.875780E+0	1.858816E+0	1.572539E+0	1.594826E+0	1.782024E+0	1.796915E+0	1.566252E+0	1.634329E+0	1.738999E+0	1.620779E+0	1.633586E+0	1.744651E+0	1.824078E+0	1.749590E+0	1.637384E+0	1.759640E+0	1.854269E+0	1.879617E+0	1.581438E+0	1.579111E+0	1.816663E+0	1.749663E+0	1.580256E+0	1.634616E+0	1.564461E+0	1.650620E+0	1.620086E+0	1.601849E+0	1.807588E+0	1.738041E+0	1.700042E+0	1.707424E+0	1.804770E+0	1.855551E+0	1.536383E+0	1.645556E+0	1.774618E+0	1.847871E+0	1.626955E+0	1.687538E+0	1.614610E+0	1.620952E+0	1.619665E+0	1.601203E+0	1.673086E+0	1.694246E+0	1.704865E+0	1.654297E+0	1.810964E+0	1.851807E+0	1.638274E+0	1.705896E+0	1.463855E+0	1.674022E+0	1.765312E+0	1.660325E+0	1.588899E+0	1.604575E+0	1.603382E+0	1.649214E+0	1.719397E+0	1.681518E+0	1.605004E+0	1.631281E+0	1.880415E+0	1.836963E+0	1.512419E+0	1.559688E+0	1.753716E+0	1.718480E+0	1.657280E+0	1.562450E+0	1.554799E+0	1.609430E+0	1.502223E+0	1.661177E+0	1.717281E+0	1.720397E+0	1.357776E+0	1.432257E+0	1.844343E+0	1.837687E+0	1.628025E+0	1.578714E+0	1.704539E+0	1.793118E+0	1.742643E+0	1.604511E+0	1.580331E+0	1.630113E+0	1.734957E+0	1.645848E+0	1.431876E+0	1.467556E+0	1.685240E+0	1.648679E+0	1.787649E+0	1.778622E+0	1.627252E+0	1.645621E+0	1.773451E+0	1.690644E+0	1.564573E+0	1.624176E+0	1.687817E+0	1.548745E+0	1.558154E+0	1.670048E+0	1.753287E+0	1.651137E+0	1.712772E+0	1.705502E+0	1.850153E+0	1.801221E+0	1.610152E+0	1.565740E+0	1.738991E+0	1.720536E+0
5.390450E+2	1.689730E+0	1.811495E+0	1.918179E+0	1.896569E+0	1.986695E+0	2.164928E+0	1.842599E+0	1.859085E+0	1.926919E+0	2.010992E+0	1.821044E+0	1.932312E+0	1.805471E+0	1.836206E+0	1.804597E+0	1.844873E+0	1.979339E+0	1.876203E+0	1.821265E+0	1.826149E+0	2.073162E+0	2.107436E+0	1.812681E+0	1.777953E+0	1.952668E+0	2.191208E+0	1.809510E+0	1.782256E+0	1.885425E+0	1.999805E+0	1.769400E+0	1.773037E+0	1.935695E+0	2.012921E+0	1.928211E+0	1.851588E+0	2.115826E+0	2.067734E+0	1.846154E+0	1.753903E+0	1.843142E+0	2.036765E+0	1.768933E+0	1.774215E+0	1.955206E+0	1.795281E+0	1.773943E+0	1.761058E+0	2.073950E+0	1.992140E+0	1.828218E+0	1.818133E+0	2.053233E+0	2.078024E+0	1.785620E+0	1.796137E+0	1.993517E+0	2.028873E+0	1.765680E+0	1.870230E+0	1.938177E+0	1.821863E+0	1.807629E+0	1.967404E+0	2.006076E+0	1.890916E+0	1.817483E+0	1.907861E+0	2.065207E+0	2.120192E+0	1.755114E+0	1.843903E+0	1.928006E+0	1.934200E+0	1.773069E+0	1.832531E+0	1.726222E+0	1.805117E+0	1.814810E+0	1.710847E+0	1.996991E+0	1.941755E+0	1.934941E+0	1.938988E+0	2.024879E+0	2.042285E+0	1.724490E+0	1.918933E+0	2.004201E+0	2.051974E+0	1.838336E+0	1.941768E+0	1.855612E+0	1.909349E+0	1.854897E+0	1.836482E+0	1.910553E+0	1.846408E+0	1.901589E+0	1.904388E+0	2.016296E+0	2.078128E+0	1.909131E+0	1.900444E+0	1.604874E+0	1.911183E+0	1.925793E+0	1.838440E+0	1.820386E+0	1.827990E+0	1.834253E+0	1.851236E+0	1.982227E+0	1.896012E+0	1.905622E+0	1.854632E+0	2.148905E+0	2.050761E+0	1.714859E+0	1.703642E+0	2.030060E+0	1.940367E+0	1.824852E+0	1.810544E+0	1.757344E+0	1.789920E+0	1.701934E+0	1.801640E+0	1.867639E+0	1.886296E+0	1.455661E+0	1.660484E+0	2.060192E+0	2.070549E+0	1.862614E+0	1.725521E+0	1.940249E+0	1.966932E+0	1.932763E+0	1.722312E+0	1.777673E+0	1.854040E+0	1.931953E+0	1.914782E+0	1.631458E+0	1.615763E+0	1.880601E+0	1.913958E+0	2.019441E+0	2.032711E+0	1.801758E+0	1.814527E+0	1.989864E+0	1.890071E+0	1.784790E+0	1.862513E+0	1.847011E+0	1.774810E+0	1.732378E+0	1.847272E+0	1.872132E+0	1.904170E+0	1.933646E+0	1.821053E+0	2.067238E+0	2.082014E+0	1.790703E+0	1.819475E+0	1.972747E+0	1.968535E+0
5.392720E+2	1.820850E+0	2.005925E+0	2.127757E+0	2.069815E+0	2.111800E+0	2.234842E+0	1.958943E+0	2.023324E+0	2.099537E+0	2.234345E+0	1.987528E+0	2.113918E+0	1.905969E+0	1.952535E+0	1.966269E+0	1.991895E+0	2.081105E+0	2.134530E+0	1.982768E+0	2.073780E+0	2.152438E+0	2.222341E+0	1.958159E+0	1.901906E+0	2.165220E+0	2.297095E+0	1.996594E+0	1.922846E+0	1.989200E+0	2.132222E+0	1.922397E+0	1.883900E+0	2.117703E+0	2.118571E+0	2.055433E+0	1.974942E+0	2.171040E+0	2.234156E+0	1.940760E+0	1.912995E+0	1.931120E+0	2.185410E+0	1.945926E+0	1.939567E+0	2.118663E+0	1.899639E+0	1.938035E+0	1.862116E+0	2.181893E+0	2.079775E+0	1.958960E+0	1.960470E+0	2.210231E+0	2.255137E+0	1.908202E+0	2.018916E+0	2.157335E+0	2.165890E+0	1.861611E+0	2.059816E+0	2.034348E+0	1.982261E+0	1.914958E+0	2.119962E+0	2.094000E+0	2.077443E+0	1.899984E+0	2.133182E+0	2.264690E+0	2.292254E+0	1.947806E+0	1.898477E+0	2.132947E+0	2.090651E+0	1.992772E+0	2.007760E+0	1.871551E+0	2.011109E+0	1.856873E+0	1.938959E+0	2.120080E+0	2.086114E+0	2.053490E+0	2.139677E+0	2.202372E+0	2.234358E+0	1.864200E+0	2.090240E+0	2.171224E+0	2.150868E+0	2.016802E+0	2.134265E+0	1.971993E+0	1.964187E+0	2.052391E+0	1.944286E+0	2.019833E+0	2.057188E+0	2.082333E+0	2.015024E+0	2.190888E+0	2.196703E+0	2.016820E+0	2.072759E+0	1.787124E+0	2.075944E+0	2.072392E+0	1.963799E+0	1.884096E+0	1.919845E+0	1.972884E+0	1.987728E+0	1.991940E+0	2.076903E+0	2.038734E+0	1.991703E+0	2.192839E+0	2.234018E+0	1.914746E+0	1.833465E+0	2.147864E+0	2.103866E+0	1.910593E+0	1.961610E+0	1.907603E+0	1.863025E+0	1.835712E+0	1.929206E+0	1.931906E+0	2.014171E+0	1.618301E+0	1.732644E+0	2.198545E+0	2.165098E+0	1.989094E+0	1.869779E+0	2.088305E+0	2.051151E+0	2.061962E+0	1.901332E+0	1.915951E+0	1.944713E+0	2.039860E+0	1.968292E+0	1.700501E+0	1.756724E+0	2.031385E+0	2.050796E+0	2.145087E+0	2.073124E+0	1.964775E+0	1.898493E+0	2.024438E+0	2.048735E+0	1.865986E+0	2.007306E+0	1.910362E+0	1.883304E+0	1.878320E+0	1.993611E+0	2.073680E+0	1.995962E+0	1.979955E+0	1.865858E+0	2.208909E+0	2.174603E+0	1.924562E+0	1.871786E+0	2.022745E+0	2.053218E+0
5.395160E+2	2.041555E+0	2.066500E+0	2.406975E+0	2.184457E+0	2.296311E+0	2.395305E+0	2.455841E+0	2.143828E+0	2.279924E+0	2.372956E+0	2.332138E+0	2.222337E+0	2.116270E+0	2.096744E+0	2.080755E+0	2.154468E+0	2.319373E+0	2.255452E+0	2.193742E+0	2.173043E+0	2.318511E+0	2.354347E+0	2.293533E+0	2.009273E+0	2.233141E+0	2.348491E+0	2.167025E+0	2.007201E+0	2.140191E+0	2.241945E+0	2.062925E+0	2.068530E+0	2.296662E+0	2.373739E+0	2.163257E+0	2.133849E+0	2.457817E+0	2.410363E+0	2.155054E+0	2.001484E+0	2.107078E+0	2.398841E+0	2.020449E+0	2.081956E+0	2.158832E+0	2.084518E+0	2.046140E+0	2.003678E+0	2.246308E+0	2.245685E+0	2.103657E+0	2.104427E+0	2.389725E+0	2.314170E+0	2.032841E+0	2.029886E+0	2.182391E+0	2.312571E+0	2.034877E+0	2.154917E+0	2.100046E+0	2.027158E+0	2.100603E+0	2.221836E+0	2.287062E+0	2.144384E+0	1.998168E+0	2.274229E+0	2.362605E+0	2.386916E+0	2.152830E+0	1.984367E+0	2.262035E+0	2.248254E+0	1.982472E+0	2.089983E+0	2.008665E+0	2.102931E+0	2.030799E+0	2.024040E+0	2.239230E+0	2.268440E+0	2.126684E+0	2.252485E+0	2.376088E+0	2.384284E+0	1.987945E+0	2.171789E+0	2.311977E+0	2.308153E+0	2.083218E+0	2.192978E+0	2.127166E+0	2.088558E+0	2.071506E+0	2.092855E+0	2.077133E+0	2.139490E+0	2.119834E+0	2.119903E+0	2.290810E+0	2.272999E+0	2.082630E+0	2.133397E+0	1.940623E+0	2.163744E+0	2.215658E+0	2.042642E+0	2.036473E+0	1.929414E+0	2.127534E+0	2.109433E+0	2.152483E+0	2.112747E+0	2.076951E+0	2.058401E+0	2.404920E+0	2.379886E+0	1.924459E+0	1.904657E+0	2.209273E+0	2.222498E+0	2.054626E+0	2.051881E+0	2.041618E+0	2.015280E+0	1.981042E+0	1.990835E+0	2.084083E+0	2.109216E+0	1.687578E+0	1.840606E+0	2.387345E+0	2.281798E+0	2.031792E+0	1.946244E+0	2.242877E+0	2.196894E+0	2.178442E+0	2.000655E+0	2.078841E+0	2.024865E+0	2.114563E+0	2.079958E+0	1.762536E+0	1.797955E+0	2.224548E+0	2.136024E+0	2.225237E+0	2.274066E+0	2.003068E+0	2.001876E+0	2.256214E+0	2.157855E+0	2.028994E+0	2.068079E+0	2.059095E+0	1.950416E+0	1.954070E+0	2.148496E+0	2.180886E+0	2.093947E+0	2.197271E+0	2.086930E+0	2.362012E+0	2.325880E+0	2.121304E+0	1.973279E+0	2.101498E+0	2.323395E+0
5.397810E+2	1.962982E+0	2.032575E+0	2.430401E+0	2.130956E+0	2.208913E+0	2.383276E+0	2.425465E+0	2.080178E+0	2.145048E+0	2.315153E+0	2.205240E+0	2.113917E+0	2.025090E+0	1.990991E+0	2.084490E+0	2.056591E+0	2.267886E+0	2.260952E+0	2.225588E+0	2.106696E+0	2.318008E+0	2.344723E+0	2.406303E+0	2.006653E+0	2.188641E+0	2.339198E+0	2.239749E+0	1.946722E+0	2.087567E+0	2.144655E+0	2.074433E+0	1.954372E+0	2.260750E+0	2.264995E+0	2.251686E+0	2.097222E+0	2.308514E+0	2.372291E+0	2.388158E+0	1.957466E+0	2.001272E+0	2.248025E+0	2.092060E+0	1.977459E+0	2.157184E+0	1.958441E+0	2.034558E+0	1.956352E+0	2.327559E+0	2.241596E+0	2.103656E+0	2.027577E+0	2.348816E+0	2.441485E+0	2.328161E+0	2.029413E+0	2.213573E+0	2.277318E+0	2.299423E+0	2.128984E+0	2.134202E+0	1.979458E+0	2.089483E+0	2.222813E+0	2.198523E+0	2.148959E+0	2.047550E+0	2.171429E+0	2.273021E+0	2.311084E+0	2.229906E+0	2.016639E+0	2.167209E+0	2.267739E+0	2.106627E+0	2.047454E+0	1.970661E+0	2.098557E+0	2.088932E+0	1.973911E+0	2.181344E+0	2.253463E+0	2.107568E+0	2.235269E+0	2.329693E+0	2.341602E+0	2.010398E+0	2.137937E+0	2.259430E+0	2.260285E+0	2.024889E+0	2.129420E+0	2.063638E+0	1.998954E+0	2.141583E+0	2.030522E+0	2.098988E+0	2.102778E+0	2.135204E+0	2.074383E+0	2.244691E+0	2.192576E+0	2.082085E+0	2.119248E+0	1.800140E+0	2.182554E+0	2.126812E+0	2.125464E+0	1.917015E+0	1.961465E+0	1.996638E+0	2.112881E+0	2.122056E+0	2.134027E+0	2.054660E+0	2.144070E+0	2.396239E+0	2.268248E+0	1.921899E+0	1.938157E+0	2.187344E+0	2.163495E+0	2.082647E+0	2.010125E+0	2.016238E+0	1.980993E+0	1.928592E+0	2.048165E+0	2.045279E+0	2.195046E+0	1.730244E+0	1.772726E+0	2.295803E+0	2.259647E+0	2.064223E+0	1.975299E+0	2.149303E+0	2.194508E+0	2.163048E+0	2.068801E+0	1.999123E+0	2.002825E+0	2.186498E+0	2.045062E+0	1.824569E+0	1.816341E+0	2.117785E+0	2.085005E+0	2.265854E+0	2.251374E+0	1.985560E+0	1.986343E+0	2.142249E+0	2.122735E+0	2.000700E+0	2.022795E+0	1.999597E+0	1.954453E+0	1.996993E+0	2.159902E+0	2.161894E+0	2.153490E+0	2.120081E+0	1.981405E+0	2.339161E+0	2.296535E+0	2.062158E+0	1.931900E+0	2.137749E+0	2.105641E+0
5.400190E+2	1.854385E+0	1.905381E+0	2.198046E+0	2.034144E+0	2.073528E+0	2.170658E+0	2.270725E+0	1.919824E+0	2.055688E+0	2.103030E+0	2.112103E+0	2.019590E+0	1.942245E+0	1.918407E+0	1.948048E+0	1.955772E+0	2.085297E+0	2.045981E+0	2.074893E+0	2.062809E+0	2.219670E+0	2.178515E+0	2.344306E+0	1.851276E+0	2.060408E+0	2.222785E+0	2.095967E+0	1.826818E+0	1.937559E+0	2.071687E+0	1.941099E+0	1.869061E+0	2.084832E+0	2.152553E+0	2.082248E+0	1.948549E+0	2.210478E+0	2.200437E+0	2.196862E+0	1.894656E+0	1.883393E+0	2.187585E+0	2.020448E+0	1.882153E+0	2.099395E+0	1.972744E+0	1.915834E+0	1.883009E+0	2.211491E+0	2.086782E+0	2.040894E+0	1.929621E+0	2.185168E+0	2.218688E+0	2.284197E+0	1.921598E+0	2.094983E+0	2.211938E+0	2.047665E+0	2.017206E+0	1.962877E+0	1.892008E+0	1.982156E+0	2.145801E+0	2.105683E+0	2.086597E+0	2.066727E+0	2.035162E+0	2.193855E+0	2.186612E+0	2.347065E+0	1.885665E+0	2.090126E+0	2.091225E+0	2.055135E+0	1.950482E+0	1.942927E+0	1.978557E+0	1.962739E+0	1.858474E+0	2.053759E+0	2.131562E+0	2.058952E+0	2.032798E+0	2.146806E+0	2.193278E+0	2.169565E+0	2.039976E+0	2.133690E+0	2.110888E+0	2.188333E+0	2.024703E+0	1.942415E+0	1.905434E+0	1.985742E+0	1.933501E+0	1.898738E+0	1.944690E+0	2.103850E+0	1.949910E+0	2.111276E+0	2.210107E+0	2.045101E+0	2.007065E+0	1.781701E+0	2.051431E+0	2.032966E+0	1.965504E+0	1.867106E+0	1.845217E+0	1.949139E+0	1.979845E+0	2.065092E+0	2.052261E+0	1.964852E+0	1.959271E+0	2.210198E+0	2.167666E+0	1.863112E+0	1.822470E+0	2.095225E+0	2.014743E+0	1.853427E+0	1.896514E+0	1.807089E+0	1.914950E+0	1.852556E+0	1.925381E+0	2.002840E+0	2.052193E+0	1.561080E+0	1.724092E+0	2.184501E+0	2.187250E+0	1.940988E+0	1.847350E+0	2.066391E+0	2.028452E+0	2.011754E+0	1.858597E+0	1.848041E+0	1.869070E+0	2.042071E+0	1.935255E+0	1.676228E+0	1.747810E+0	1.987362E+0	1.973372E+0	2.189492E+0	2.103566E+0	1.875606E+0	1.881020E+0	2.038522E+0	1.950275E+0	1.875830E+0	1.928654E+0	1.930192E+0	1.785915E+0	1.775301E+0	1.980306E+0	2.054077E+0	2.051155E+0	2.060110E+0	1.892385E+0	2.177491E+0	2.114398E+0	1.919583E+0	1.883496E+0	1.981497E+0	2.024989E+0
5.402740E+2	1.693216E+0	1.769255E+0	2.066999E+0	1.890942E+0	1.962562E+0	2.038196E+0	2.152212E+0	1.861322E+0	1.934459E+0	1.984918E+0	1.967145E+0	1.966509E+0	1.874216E+0	1.798181E+0	1.842095E+0	1.757653E+0	1.867796E+0	1.897913E+0	1.945663E+0	1.846786E+0	1.985243E+0	2.059792E+0	2.081056E+0	1.738672E+0	1.932565E+0	2.131186E+0	1.953949E+0	1.776566E+0	1.813685E+0	1.870275E+0	1.816345E+0	1.709905E+0	1.915022E+0	1.971356E+0	1.942161E+0	1.801626E+0	2.067877E+0	2.061172E+0	2.119090E+0	1.783094E+0	1.800397E+0	2.043227E+0	1.896304E+0	1.726932E+0	1.910893E+0	1.746287E+0	1.705235E+0	1.719610E+0	1.972504E+0	1.925258E+0	1.931033E+0	1.799668E+0	1.981236E+0	2.023340E+0	2.060865E+0	1.761383E+0	1.981651E+0	1.984943E+0	1.872816E+0	1.879082E+0	1.895389E+0	1.731762E+0	1.823312E+0	1.894572E+0	1.971036E+0	1.887779E+0	1.945448E+0	1.951460E+0	1.976639E+0	1.995381E+0	2.127568E+0	1.787631E+0	1.954862E+0	1.939908E+0	1.983273E+0	1.839155E+0	1.733307E+0	1.792029E+0	1.732969E+0	1.688278E+0	1.967066E+0	1.884597E+0	1.917972E+0	1.844889E+0	2.012849E+0	2.038633E+0	1.989956E+0	1.887188E+0	1.987656E+0	1.967133E+0	2.027948E+0	1.887009E+0	1.776006E+0	1.786181E+0	1.844807E+0	1.818408E+0	1.861582E+0	1.816046E+0	1.914231E+0	1.799972E+0	1.995579E+0	2.075979E+0	2.036405E+0	1.806589E+0	1.654994E+0	1.961993E+0	2.054093E+0	1.842231E+0	1.759257E+0	1.695320E+0	1.933061E+0	1.793757E+0	1.904307E+0	1.921073E+0	1.979088E+0	1.804312E+0	2.063874E+0	1.985831E+0	2.019294E+0	1.692921E+0	1.980638E+0	1.930533E+0	1.952513E+0	1.768550E+0	1.715642E+0	1.729884E+0	1.778077E+0	1.760594E+0	1.849086E+0	1.839624E+0	1.507156E+0	1.518845E+0	2.070076E+0	1.994006E+0	1.895737E+0	1.718827E+0	1.915176E+0	1.928414E+0	1.942203E+0	1.791804E+0	1.765604E+0	1.766112E+0	1.926271E+0	1.860043E+0	1.612225E+0	1.627657E+0	1.879177E+0	1.825291E+0	1.917442E+0	1.929719E+0	1.774353E+0	1.761710E+0	1.908108E+0	1.824338E+0	1.806720E+0	1.836319E+0	1.741003E+0	1.772451E+0	1.707699E+0	1.852868E+0	1.879329E+0	1.903425E+0	1.872061E+0	1.836762E+0	2.014985E+0	2.007582E+0	1.808229E+0	1.720610E+0	1.840118E+0	2.053655E+0
5.405080E+2	1.617164E+0	1.730933E+0	2.035985E+0	1.844975E+0	1.835888E+0	2.013635E+0	2.022560E+0	1.788142E+0	1.889731E+0	1.932991E+0	1.869361E+0	1.865091E+0	1.678507E+0	1.728046E+0	1.729367E+0	1.765901E+0	1.917077E+0	1.842612E+0	1.788851E+0	1.808389E+0	1.987363E+0	1.972227E+0	2.050418E+0	1.647451E+0	1.828535E+0	1.952187E+0	1.902772E+0	1.610361E+0	1.833784E+0	1.844685E+0	1.768436E+0	1.705034E+0	1.830389E+0	1.962873E+0	1.875155E+0	1.739545E+0	1.960319E+0	2.088942E+0	1.988317E+0	1.694302E+0	1.683287E+0	1.910996E+0	1.803869E+0	1.697279E+0	1.825871E+0	1.684033E+0	1.716512E+0	1.730356E+0	1.995022E+0	1.873544E+0	1.837517E+0	1.705569E+0	1.974988E+0	2.005640E+0	2.015258E+0	1.790412E+0	1.922610E+0	1.973726E+0	1.806961E+0	1.736843E+0	1.795235E+0	1.732074E+0	1.808593E+0	1.857243E+0	1.876342E+0	1.809668E+0	1.813416E+0	1.867220E+0	1.923542E+0	1.924594E+0	2.002272E+0	1.760388E+0	1.924334E+0	1.839067E+0	1.841724E+0	1.764479E+0	1.692839E+0	1.791998E+0	1.765183E+0	1.725101E+0	1.845807E+0	1.828936E+0	1.815854E+0	1.840427E+0	1.868971E+0	1.978265E+0	2.004908E+0	1.807120E+0	1.887220E+0	1.905212E+0	1.982726E+0	1.761384E+0	1.663099E+0	1.762947E+0	1.795106E+0	1.682285E+0	1.757558E+0	1.748122E+0	1.902203E+0	1.777612E+0	1.910335E+0	1.908000E+0	2.021170E+0	1.809487E+0	1.555516E+0	1.805714E+0	2.001316E+0	1.793060E+0	1.756145E+0	1.686384E+0	1.776259E+0	1.813296E+0	1.820389E+0	1.795205E+0	1.843842E+0	1.751219E+0	1.918929E+0	1.968087E+0	1.971488E+0	1.604180E+0	1.921026E+0	1.866610E+0	1.881452E+0	1.653338E+0	1.671048E+0	1.688584E+0	1.701452E+0	1.708002E+0	1.745780E+0	1.839636E+0	1.410482E+0	1.488380E+0	1.979574E+0	1.959249E+0	1.916122E+0	1.615925E+0	1.847858E+0	1.930496E+0	1.960881E+0	1.668611E+0	1.684170E+0	1.730304E+0	1.897090E+0	1.746350E+0	1.531125E+0	1.534417E+0	1.942784E+0	1.708098E+0	1.925747E+0	1.882693E+0	1.981730E+0	1.682019E+0	1.869490E+0	1.812931E+0	1.819240E+0	1.804118E+0	1.769346E+0	1.650679E+0	1.720256E+0	1.786929E+0	1.816384E+0	1.786339E+0	1.835081E+0	1.713167E+0	1.956408E+0	1.936809E+0	1.839890E+0	1.689875E+0	1.893994E+0	1.906031E+0
5.407680E+2	1.540089E+0	1.655824E+0	1.904512E+0	1.706762E+0	1.762194E+0	1.947729E+0	1.991612E+0	1.653062E+0	1.820352E+0	1.912227E+0	1.819299E+0	1.745831E+0	1.669682E+0	1.630462E+0	1.677967E+0	1.706669E+0	1.826083E+0	1.772378E+0	1.780322E+0	1.759803E+0	1.940203E+0	1.917180E+0	1.926915E+0	1.618647E+0	1.817408E+0	1.970147E+0	1.816724E+0	1.650148E+0	1.718696E+0	1.784149E+0	1.660521E+0	1.597056E+0	1.862655E+0	1.866490E+0	1.832367E+0	1.659282E+0	1.945674E+0	1.952439E+0	1.924555E+0	1.625072E+0	1.647633E+0	1.812448E+0	1.711878E+0	1.595652E+0	1.808813E+0	1.693571E+0	1.662942E+0	1.644220E+0	1.833688E+0	1.792925E+0	1.743960E+0	1.582716E+0	1.917711E+0	1.850088E+0	1.922681E+0	1.618203E+0	1.808306E+0	1.794642E+0	1.825565E+0	1.663352E+0	1.712198E+0	1.697000E+0	1.695467E+0	1.801675E+0	1.836985E+0	1.711253E+0	1.801218E+0	1.759038E+0	1.862604E+0	1.901061E+0	1.938044E+0	1.666902E+0	1.803201E+0	1.774303E+0	1.811973E+0	1.690191E+0	1.643540E+0	1.673454E+0	1.690981E+0	1.617946E+0	1.821079E+0	1.778679E+0	1.816942E+0	1.781051E+0	1.866271E+0	1.861953E+0	1.846236E+0	1.796860E+0	1.859694E+0	1.824725E+0	1.844692E+0	1.740803E+0	1.676678E+0	1.714964E+0	1.757372E+0	1.637291E+0	1.657139E+0	1.726808E+0	1.785397E+0	1.699820E+0	1.868057E+0	1.897691E+0	1.903695E+0	1.684163E+0	1.539247E+0	1.798874E+0	1.900247E+0	1.702867E+0	1.684464E+0	1.630412E+0	1.720480E+0	1.651183E+0	1.804853E+0	1.676475E+0	1.843203E+0	1.723682E+0	1.892897E+0	1.852761E+0	1.898895E+0	1.630355E+0	1.805101E+0	1.829735E+0	1.832695E+0	1.683428E+0	1.639064E+0	1.611953E+0	1.636968E+0	1.677423E+0	1.742745E+0	1.688715E+0	1.397432E+0	1.479294E+0	1.857864E+0	1.869024E+0	1.828018E+0	1.600120E+0	1.808179E+0	1.782962E+0	1.873185E+0	1.597003E+0	1.670884E+0	1.612581E+0	1.845631E+0	1.736115E+0	1.438346E+0	1.542219E+0	1.849781E+0	1.700893E+0	1.814722E+0	1.828446E+0	1.936327E+0	1.633970E+0	1.822748E+0	1.739560E+0	1.786021E+0	1.745134E+0	1.717010E+0	1.615859E+0	1.617239E+0	1.739896E+0	1.739809E+0	1.747267E+0	1.810146E+0	1.749719E+0	1.881574E+0	1.927199E+0	1.878490E+0	1.619610E+0	1.765242E+0	1.859657E+0
5.410130E+2	1.517069E+0	1.604943E+0	1.854397E+0	1.692112E+0	1.766196E+0	1.838270E+0	1.899339E+0	1.633623E+0	1.720999E+0	1.829733E+0	1.749442E+0	1.704633E+0	1.653505E+0	1.641521E+0	1.593858E+0	1.615518E+0	1.763824E+0	1.761391E+0	1.716629E+0	1.655837E+0	1.794200E+0	1.809759E+0	1.902503E+0	1.568892E+0	1.645261E+0	1.853115E+0	1.761209E+0	1.550410E+0	1.630166E+0	1.704157E+0	1.624552E+0	1.507213E+0	1.767086E+0	1.796057E+0	1.700011E+0	1.644739E+0	1.812708E+0	1.888807E+0	1.831518E+0	1.576473E+0	1.576331E+0	1.780324E+0	1.679856E+0	1.543979E+0	1.718557E+0	1.635827E+0	1.592961E+0	1.545296E+0	1.802931E+0	1.783581E+0	1.696308E+0	1.602739E+0	1.874246E+0	1.839821E+0	1.885956E+0	1.576220E+0	1.799135E+0	1.719596E+0	1.684282E+0	1.668296E+0	1.694330E+0	1.591784E+0	1.628269E+0	1.718815E+0	1.785955E+0	1.693519E+0	1.763453E+0	1.670584E+0	1.838121E+0	1.851899E+0	1.910296E+0	1.623718E+0	1.778733E+0	1.708401E+0	1.807970E+0	1.604563E+0	1.623001E+0	1.668597E+0	1.608745E+0	1.618866E+0	1.742395E+0	1.773329E+0	1.751390E+0	1.735330E+0	1.843073E+0	1.871021E+0	1.804822E+0	1.739417E+0	1.747092E+0	1.824725E+0	1.793868E+0	1.715988E+0	1.610731E+0	1.652781E+0	1.691216E+0	1.593703E+0	1.618152E+0	1.657534E+0	1.771259E+0	1.631827E+0	1.805471E+0	1.852838E+0	1.868882E+0	1.650814E+0	1.397140E+0	1.704809E+0	1.746429E+0	1.664295E+0	1.551203E+0	1.623712E+0	1.668555E+0	1.680747E+0	1.705803E+0	1.727998E+0	1.814546E+0	1.644744E+0	1.816957E+0	1.777455E+0	1.864131E+0	1.517809E+0	1.785051E+0	1.704957E+0	1.795147E+0	1.605437E+0	1.546168E+0	1.625061E+0	1.601355E+0	1.636816E+0	1.636646E+0	1.693900E+0	1.390405E+0	1.460586E+0	1.805853E+0	1.829043E+0	1.770724E+0	1.538442E+0	1.690918E+0	1.791921E+0	1.880547E+0	1.592960E+0	1.626592E+0	1.567994E+0	1.761520E+0	1.693309E+0	1.435652E+0	1.449731E+0	1.801904E+0	1.678088E+0	1.729699E+0	1.836194E+0	1.900770E+0	1.569416E+0	1.719666E+0	1.642352E+0	1.741729E+0	1.649796E+0	1.606842E+0	1.565399E+0	1.578354E+0	1.689056E+0	1.655267E+0	1.606484E+0	1.686645E+0	1.630045E+0	1.894712E+0	1.781995E+0	1.772646E+0	1.573547E+0	1.791493E+0	1.708436E+0
5.412690E+2	1.358422E+0	1.495310E+0	1.652630E+0	1.516956E+0	1.530274E+0	1.647430E+0	1.712502E+0	1.529639E+0	1.552267E+0	1.673725E+0	1.581212E+0	1.517066E+0	1.465753E+0	1.472313E+0	1.493395E+0	1.494537E+0	1.535737E+0	1.583061E+0	1.593230E+0	1.537247E+0	1.656222E+0	1.658516E+0	1.720905E+0	1.427047E+0	1.543962E+0	1.711313E+0	1.605212E+0	1.446425E+0	1.537208E+0	1.570656E+0	1.486420E+0	1.383167E+0	1.553427E+0	1.623063E+0	1.597889E+0	1.487446E+0	1.663965E+0	1.683229E+0	1.659038E+0	1.405459E+0	1.423948E+0	1.622971E+0	1.521500E+0	1.429149E+0	1.565560E+0	1.448833E+0	1.471824E+0	1.417372E+0	1.661327E+0	1.582612E+0	1.562076E+0	1.424687E+0	1.637982E+0	1.686329E+0	1.671841E+0	1.453621E+0	1.604144E+0	1.606460E+0	1.538926E+0	1.500322E+0	1.516697E+0	1.415949E+0	1.455193E+0	1.586724E+0	1.589200E+0	1.519009E+0	1.589163E+0	1.603646E+0	1.694368E+0	1.672514E+0	1.685235E+0	1.430582E+0	1.584189E+0	1.547359E+0	1.646624E+0	1.498518E+0	1.432484E+0	1.435397E+0	1.525090E+0	1.393513E+0	1.559734E+0	1.594216E+0	1.607715E+0	1.577985E+0	1.605698E+0	1.692821E+0	1.693055E+0	1.521432E+0	1.635743E+0	1.583805E+0	1.697994E+0	1.562840E+0	1.537022E+0	1.477485E+0	1.555468E+0	1.449347E+0	1.566169E+0	1.574643E+0	1.584982E+0	1.520035E+0	1.565549E+0	1.678071E+0	1.646979E+0	1.542168E+0	1.352659E+0	1.562280E+0	1.688124E+0	1.542337E+0	1.421124E+0	1.390248E+0	1.524405E+0	1.494987E+0	1.572445E+0	1.542066E+0	1.661053E+0	1.502163E+0	1.723121E+0	1.651596E+0	1.764448E+0	1.391129E+0	1.596434E+0	1.599233E+0	1.593950E+0	1.417527E+0	1.403015E+0	1.422391E+0	1.417047E+0	1.442364E+0	1.573595E+0	1.538376E+0	1.225754E+0	1.285273E+0	1.694550E+0	1.672899E+0	1.608572E+0	1.385003E+0	1.565366E+0	1.567929E+0	1.662982E+0	1.450903E+0	1.454352E+0	1.520905E+0	1.529111E+0	1.459275E+0	1.302416E+0	1.454188E+0	1.660474E+0	1.480631E+0	1.576976E+0	1.635244E+0	1.699461E+0	1.449049E+0	1.572404E+0	1.550167E+0	1.519670E+0	1.505604E+0	1.520906E+0	1.396859E+0	1.482912E+0	1.570752E+0	1.535811E+0	1.501052E+0	1.637956E+0	1.471459E+0	1.703909E+0	1.624647E+0	1.615129E+0	1.457220E+0	1.561489E+0	1.623756E+0
5.415140E+2	1.180758E+0	1.231823E+0	1.481456E+0	1.350717E+0	1.402314E+0	1.457740E+0	1.476945E+0	1.475707E+0	1.426272E+0	1.443637E+0	1.396684E+0	1.487792E+0	1.324569E+0	1.315601E+0	1.317234E+0	1.352554E+0	1.378890E+0	1.364427E+0	1.379406E+0	1.386265E+0	1.375754E+0	1.446879E+0	1.511477E+0	1.462401E+0	1.446765E+0	1.461769E+0	1.375383E+0	1.449076E+0	1.315396E+0	1.426888E+0	1.285941E+0	1.296619E+0	1.374467E+0	1.453775E+0	1.382239E+0	1.369480E+0	1.442538E+0	1.454269E+0	1.447356E+0	1.285798E+0	1.260642E+0	1.478688E+0	1.335773E+0	1.357954E+0	1.353675E+0	1.276667E+0	1.293255E+0	1.286467E+0	1.455303E+0	1.383982E+0	1.343587E+0	1.245554E+0	1.446722E+0	1.484058E+0	1.484611E+0	1.314804E+0	1.369423E+0	1.449548E+0	1.355776E+0	1.355199E+0	1.326451E+0	1.229825E+0	1.293722E+0	1.384934E+0	1.394290E+0	1.383977E+0	1.355030E+0	1.362785E+0	1.424578E+0	1.462275E+0	1.480211E+0	1.307673E+0	1.430020E+0	1.396635E+0	1.397741E+0	1.328391E+0	1.181370E+0	1.308591E+0	1.300115E+0	1.223345E+0	1.357401E+0	1.386230E+0	1.446014E+0	1.365425E+0	1.468132E+0	1.452728E+0	1.450560E+0	1.397825E+0	1.373631E+0	1.460183E+0	1.486036E+0	1.349766E+0	1.289716E+0	1.313458E+0	1.381982E+0	1.274993E+0	1.354102E+0	1.341361E+0	1.413461E+0	1.317197E+0	1.499663E+0	1.436286E+0	1.502845E+0	1.328919E+0	1.243095E+0	1.376425E+0	1.429352E+0	1.293317E+0	1.251758E+0	1.210845E+0	1.355946E+0	1.358493E+0	1.360111E+0	1.332051E+0	1.342597E+0	1.327767E+0	1.486089E+0	1.482032E+0	1.470503E+0	1.235135E+0	1.405314E+0	1.435737E+0	1.437593E+0	1.249879E+0	1.283721E+0	1.317022E+0	1.267867E+0	1.304769E+0	1.376553E+0	1.363264E+0	1.057591E+0	1.142029E+0	1.535389E+0	1.427072E+0	1.370202E+0	1.207099E+0	1.374074E+0	1.413227E+0	1.410605E+0	1.297872E+0	1.250127E+0	1.257900E+0	1.365317E+0	1.314573E+0	1.183205E+0	1.392899E+0	1.471166E+0	1.389404E+0	1.416666E+0	1.476372E+0	1.518939E+0	1.297615E+0	1.424500E+0	1.362026E+0	1.379421E+0	1.322082E+0	1.322050E+0	1.222763E+0	1.277884E+0	1.381178E+0	1.384497E+0	1.343526E+0	1.376708E+0	1.354145E+0	1.491397E+0	1.471857E+0	1.483138E+0	1.295610E+0	1.346483E+0	1.526974E+0
5.417700E+2	1.039127E+0	1.078577E+0	1.272531E+0	1.175561E+0	1.188667E+0	1.221055E+0	1.248268E+0	1.242954E+0	1.155412E+0	1.207382E+0	1.174316E+0	1.244930E+0	1.106912E+0	1.121880E+0	1.132661E+0	1.143358E+0	1.177146E+0	1.227017E+0	1.131467E+0	1.161619E+0	1.222725E+0	1.261433E+0	1.259090E+0	1.235880E+0	1.195569E+0	1.293341E+0	1.201620E+0	1.237921E+0	1.123092E+0	1.151238E+0	1.146373E+0	1.093852E+0	1.176028E+0	1.208492E+0	1.177998E+0	1.141083E+0	1.269570E+0	1.272618E+0	1.308851E+0	1.274338E+0	1.103661E+0	1.228776E+0	1.151215E+0	1.187433E+0	1.135186E+0	1.092848E+0	1.089592E+0	1.080512E+0	1.223168E+0	1.189442E+0	1.151824E+0	1.152469E+0	1.328079E+0	1.180146E+0	1.314457E+0	1.321483E+0	1.201326E+0	1.230666E+0	1.140651E+0	1.246513E+0	1.150399E+0	1.095143E+0	1.124995E+0	1.227980E+0	1.151422E+0	1.162547E+0	1.174926E+0	1.229505E+0	1.234470E+0	1.253078E+0	1.296767E+0	1.161041E+0	1.192042E+0	1.192612E+0	1.246697E+0	1.208171E+0	1.062743E+0	1.133693E+0	1.112958E+0	1.087214E+0	1.149449E+0	1.179844E+0	1.207837E+0	1.164738E+0	1.271215E+0	1.277197E+0	1.241497E+0	1.118808E+0	1.206606E+0	1.219787E+0	1.235956E+0	1.139719E+0	1.088476E+0	1.143063E+0	1.189388E+0	1.087986E+0	1.145583E+0	1.110451E+0	1.149725E+0	1.132798E+0	1.208679E+0	1.264610E+0	1.230360E+0	1.174292E+0	1.014744E+0	1.201403E+0	1.263315E+0	1.120874E+0	1.084515E+0	1.120906E+0	1.178098E+0	1.173714E+0	1.196975E+0	1.184762E+0	1.211394E+0	1.138072E+0	1.234417E+0	1.239267E+0	1.278286E+0	1.028886E+0	1.199780E+0	1.176350E+0	1.242563E+0	1.136272E+0	1.063408E+0	1.100739E+0	1.127350E+0	1.088820E+0	1.135255E+0	1.176631E+0	8.919372E-1	1.005734E+0	1.256087E+0	1.264445E+0	1.208049E+0	1.067936E+0	1.170939E+0	1.205963E+0	1.254627E+0	1.107883E+0	1.081333E+0	1.127653E+0	1.208716E+0	1.133577E+0	1.003040E+0	1.193992E+0	1.245540E+0	1.133130E+0	1.196247E+0	1.220070E+0	1.238856E+0	1.065612E+0	1.237541E+0	1.141276E+0	1.209646E+0	1.180867E+0	1.089038E+0	1.063811E+0	1.124872E+0	1.188276E+0	1.186010E+0	1.159951E+0	1.197395E+0	1.153116E+0	1.324014E+0	1.253795E+0	1.227872E+0	1.083254E+0	1.196480E+0	1.178164E+0
5.420270E+2	9.080059E-1	9.683374E-1	1.152122E+0	1.049449E+0	1.058994E+0	1.116753E+0	1.137654E+0	1.162779E+0	1.033302E+0	1.079994E+0	1.003757E+0	1.144100E+0	9.848478E-1	9.925706E-1	1.012574E+0	1.012297E+0	1.033470E+0	1.040751E+0	1.039911E+0	1.045641E+0	1.106824E+0	1.094691E+0	1.147295E+0	1.056937E+0	1.031033E+0	1.129867E+0	1.108910E+0	1.095208E+0	1.019315E+0	1.043681E+0	9.866581E-1	9.780434E-1	1.090809E+0	1.070714E+0	1.017115E+0	1.010186E+0	1.146745E+0	1.119253E+0	1.121735E+0	1.118914E+0	1.072035E+0	1.110082E+0	1.040596E+0	1.128870E+0	1.062539E+0	1.003853E+0	9.901724E-1	1.017405E+0	1.067056E+0	1.065591E+0	1.004807E+0	1.004723E+0	1.106648E+0	1.130860E+0	1.152057E+0	1.152133E+0	1.090077E+0	1.052149E+0	1.062159E+0	1.089039E+0	1.011657E+0	9.553188E-1	9.586868E-1	1.121721E+0	1.057964E+0	9.823148E-1	1.051760E+0	1.069927E+0	1.119888E+0	1.117625E+0	1.089689E+0	1.123079E+0	1.048886E+0	1.095759E+0	1.065329E+0	1.127645E+0	9.605518E-1	1.036526E+0	1.025520E+0	9.887952E-1	1.096618E+0	1.092692E+0	1.010628E+0	1.051332E+0	1.125554E+0	1.139544E+0	1.149188E+0	1.111626E+0	1.051466E+0	1.111425E+0	1.122756E+0	1.085240E+0	9.725801E-1	1.002537E+0	1.025706E+0	9.951852E-1	1.043981E+0	1.042953E+0	1.104846E+0	1.017549E+0	1.107110E+0	1.159958E+0	1.191744E+0	1.047960E+0	9.285015E-1	1.049755E+0	1.097835E+0	1.010829E+0	9.698339E-1	9.611182E-1	1.052169E+0	1.060385E+0	1.081098E+0	1.008350E+0	1.079555E+0	1.079327E+0	1.169328E+0	1.122890E+0	1.168375E+0	9.655461E-1	1.071322E+0	1.056493E+0	1.100775E+0	1.020823E+0	9.639120E-1	9.666342E-1	9.902000E-1	1.005689E+0	1.012181E+0	1.018799E+0	8.457546E-1	8.950938E-1	1.150504E+0	1.165033E+0	1.045354E+0	9.348906E-1	1.060192E+0	1.057233E+0	1.138815E+0	9.854588E-1	1.010961E+0	9.678481E-1	1.020575E+0	1.003299E+0	8.514651E-1	1.121005E+0	1.096405E+0	1.038902E+0	1.092806E+0	1.154748E+0	1.127261E+0	9.365055E-1	1.037776E+0	1.067901E+0	1.065091E+0	1.017604E+0	9.948424E-1	9.543099E-1	9.198442E-1	1.064747E+0	1.042660E+0	1.039016E+0	1.063207E+0	1.003966E+0	1.169771E+0	1.140972E+0	1.125143E+0	9.614607E-1	1.061478E+0	1.119693E+0
5.422780E+2	8.274317E-1	9.301773E-1	1.064257E+0	9.832088E-1	9.607399E-1	1.035376E+0	1.057990E+0	1.016035E+0	9.472707E-1	9.991837E-1	9.723234E-1	1.079049E+0	8.902356E-1	9.065250E-1	9.093073E-1	9.450859E-1	9.694149E-1	9.619697E-1	9.216267E-1	9.834722E-1	9.793828E-1	1.051937E+0	1.010607E+0	1.063920E+0	1.025178E+0	1.087142E+0	1.007318E+0	9.991800E-1	9.784938E-1	9.809842E-1	9.032043E-1	9.145768E-1	9.654138E-1	1.021906E+0	9.646287E-1	9.396201E-1	1.001946E+0	1.059972E+0	1.037584E+0	1.038680E+0	1.055934E+0	1.016977E+0	9.608337E-1	1.003132E+0	1.010257E+0	9.095591E-1	8.849616E-1	9.457690E-1	9.683977E-1	9.913963E-1	9.129944E-1	9.262499E-1	1.078521E+0	1.004574E+0	1.017584E+0	1.022377E+0	9.849409E-1	1.012921E+0	9.528518E-1	1.040253E+0	9.391333E-1	8.828332E-1	9.079243E-1	1.015465E+0	1.006931E+0	9.611445E-1	9.622902E-1	1.000000E+0	1.093845E+0	1.075263E+0	1.003878E+0	1.068032E+0	1.002391E+0	1.010940E+0	9.903777E-1	1.065266E+0	9.009825E-1	8.966059E-1	9.191807E-1	9.446442E-1	9.785918E-1	9.980559E-1	9.915078E-1	9.593013E-1	1.050025E+0	9.816168E-1	1.070852E+0	1.031100E+0	1.005801E+0	1.003061E+0	1.044786E+0	1.047710E+0	9.347564E-1	8.918782E-1	9.766991E-1	9.323811E-1	9.252485E-1	9.796003E-1	9.812772E-1	9.380273E-1	1.007736E+0	1.069738E+0	1.047071E+0	1.021178E+0	8.601593E-1	1.004146E+0	1.061184E+0	9.824670E-1	9.055909E-1	8.979691E-1	1.005222E+0	9.638056E-1	9.658667E-1	9.551459E-1	1.033698E+0	9.869273E-1	1.058135E+0	1.027048E+0	1.031370E+0	1.066053E+0	9.635418E-1	9.962562E-1	1.044732E+0	1.031877E+0	8.791373E-1	9.202519E-1	9.122419E-1	9.669907E-1	9.691352E-1	9.842378E-1	7.644336E-1	8.202653E-1	1.037638E+0	1.037525E+0	1.028598E+0	9.598682E-1	9.547745E-1	9.825698E-1	1.021665E+0	9.617815E-1	9.002357E-1	9.297749E-1	1.016148E+0	9.353683E-1	7.996810E-1	1.034088E+0	1.056232E+0	9.698826E-1	1.007237E+0	1.040159E+0	1.033717E+0	9.272838E-1	1.005122E+0	9.794754E-1	9.906612E-1	9.955580E-1	9.392062E-1	8.982974E-1	9.107543E-1	9.644955E-1	9.893629E-1	9.763766E-1	9.949264E-1	9.037458E-1	1.040664E+0	1.030678E+0	1.064750E+0	8.966608E-1	1.016478E+0	1.081383E+0
5.425300E+2	8.034094E-1	9.168511E-1	1.055146E+0	9.596416E-1	1.016722E+0	1.029071E+0	1.072891E+0	1.041788E+0	9.972248E-1	1.016019E+0	1.021803E+0	1.045980E+0	8.990596E-1	9.171005E-1	9.242600E-1	9.261824E-1	9.281074E-1	9.650231E-1	9.688262E-1	9.965324E-1	1.023034E+0	1.067970E+0	1.056495E+0	1.066102E+0	1.031619E+0	1.067946E+0	1.009538E+0	1.028891E+0	9.784937E-1	9.507177E-1	9.185517E-1	9.273527E-1	9.909803E-1	1.015727E+0	9.686224E-1	9.854069E-1	1.043639E+0	1.033867E+0	1.109190E+0	1.051976E+0	1.020858E+0	1.021877E+0	9.992585E-1	1.016337E+0	9.799877E-1	9.455815E-1	8.854441E-1	9.560026E-1	1.005540E+0	9.808807E-1	9.780770E-1	9.430274E-1	1.101534E+0	1.044103E+0	1.094647E+0	1.107766E+0	1.030174E+0	1.008941E+0	1.002272E+0	1.070512E+0	9.659358E-1	9.099574E-1	9.214608E-1	1.020826E+0	1.023532E+0	1.000052E+0	9.890142E-1	1.049009E+0	1.008428E+0	1.004659E+0	1.103049E+0	1.093656E+0	1.017686E+0	9.759818E-1	1.025278E+0	1.044852E+0	8.917394E-1	9.174969E-1	9.423396E-1	9.165904E-1	1.001073E+0	1.018373E+0	1.030294E+0	1.001457E+0	1.078079E+0	1.095260E+0	1.068357E+0	1.075210E+0	1.002672E+0	1.029362E+0	1.084637E+0	1.010786E+0	9.337869E-1	9.266434E-1	9.482758E-1	9.037909E-1	9.287925E-1	9.505881E-1	1.033533E+0	9.126729E-1	1.048913E+0	1.021278E+0	1.035649E+0	1.019157E+0	8.428026E-1	9.402947E-1	1.068959E+0	1.007993E+0	9.055911E-1	9.003612E-1	9.748448E-1	9.391685E-1	9.736348E-1	1.011710E+0	1.046436E+0	9.875392E-1	1.055424E+0	1.048639E+0	1.043128E+0	1.116307E+0	1.057535E+0	9.987149E-1	1.006063E+0	1.009770E+0	9.141640E-1	8.905066E-1	9.030987E-1	9.545689E-1	9.406397E-1	9.496760E-1	7.830074E-1	8.309553E-1	1.043879E+0	1.034284E+0	1.000492E+0	1.042449E+0	1.004523E+0	9.837645E-1	1.017649E+0	9.785279E-1	8.889170E-1	8.831859E-1	1.003974E+0	9.269932E-1	8.029176E-1	1.037988E+0	1.031468E+0	9.956893E-1	1.014819E+0	1.057319E+0	1.077481E+0	1.062214E+0	1.020488E+0	9.318137E-1	1.041717E+0	1.045014E+0	9.381043E-1	8.942603E-1	9.147942E-1	9.996541E-1	9.544442E-1	9.428865E-1	9.878015E-1	9.998388E-1	1.082367E+0	1.039279E+0	1.063505E+0	1.051244E+0	1.050228E+0	1.016864E+0
5.427650E+2	8.954946E-1	9.816632E-1	1.135200E+0	1.055181E+0	1.052140E+0	1.151711E+0	1.188663E+0	1.133139E+0	1.113783E+0	1.099635E+0	1.082343E+0	1.110490E+0	1.023084E+0	1.000743E+0	9.723885E-1	1.021118E+0	1.036463E+0	1.052965E+0	1.083698E+0	1.001757E+0	1.081235E+0	1.136911E+0	1.176585E+0	1.117167E+0	1.101298E+0	1.191170E+0	1.130561E+0	1.129162E+0	9.893134E-1	1.073949E+0	1.001526E+0	9.726862E-1	1.115766E+0	1.107785E+0	1.092422E+0	1.026884E+0	1.167591E+0	1.144814E+0	1.145779E+0	1.159715E+0	1.174963E+0	1.127505E+0	1.020801E+0	1.126574E+0	1.076849E+0	1.004383E+0	9.501153E-1	1.025508E+0	1.110582E+0	1.068512E+0	1.053039E+0	1.056136E+0	1.132217E+0	1.158071E+0	1.181019E+0	1.135436E+0	1.121863E+0	1.109001E+0	1.087742E+0	1.152646E+0	1.043189E+0	9.744919E-1	1.001231E+0	1.085654E+0	1.112686E+0	1.022367E+0	1.043045E+0	1.130890E+0	1.158429E+0	1.150049E+0	1.116409E+0	1.161989E+0	1.088652E+0	1.105502E+0	1.086498E+0	1.127078E+0	9.800656E-1	1.014177E+0	1.056717E+0	9.860358E-1	1.068516E+0	1.078257E+0	1.073451E+0	1.100020E+0	1.144975E+0	1.137410E+0	1.148191E+0	1.131630E+0	1.129036E+0	1.118788E+0	1.099076E+0	1.040447E+0	1.025436E+0	1.021144E+0	1.029626E+0	1.017213E+0	1.056386E+0	1.068412E+0	1.118371E+0	1.015244E+0	1.121934E+0	1.097062E+0	1.142251E+0	1.158121E+0	9.203654E-1	1.031511E+0	1.106164E+0	1.056209E+0	9.783289E-1	9.601617E-1	1.106849E+0	1.063833E+0	1.089513E+0	1.008350E+0	1.054079E+0	1.069536E+0	1.174752E+0	1.157119E+0	1.137191E+0	1.138815E+0	1.123331E+0	1.055263E+0	1.139445E+0	1.123376E+0	9.664503E-1	9.615925E-1	9.800944E-1	1.049644E+0	1.052195E+0	1.037232E+0	8.472605E-1	9.239567E-1	1.162466E+0	1.181781E+0	1.140485E+0	1.085268E+0	1.083289E+0	1.042300E+0	1.215801E+0	1.077277E+0	1.008500E+0	9.979052E-1	1.077570E+0	1.039591E+0	8.811325E-1	1.134934E+0	1.132175E+0	1.179343E+0	1.111762E+0	1.153087E+0	1.188528E+0	1.161229E+0	1.080034E+0	1.054105E+0	1.084775E+0	1.156436E+0	1.018529E+0	9.467406E-1	1.007713E+0	1.106557E+0	1.077579E+0	1.052659E+0	1.044208E+0	1.074709E+0	1.229754E+0	1.139455E+0	1.112068E+0	1.182405E+0	1.091479E+0	1.190262E+0
5.430070E+2	1.046635E+0	1.086452E+0	1.239988E+0	1.234796E+0	1.213802E+0	1.299569E+0	1.326213E+0	1.274537E+0	1.240332E+0	1.246103E+0	1.210407E+0	1.301308E+0	1.146129E+0	1.081021E+0	1.146212E+0	1.162681E+0	1.166969E+0	1.187322E+0	1.218473E+0	1.187221E+0	1.292464E+0	1.262502E+0	1.303026E+0	1.288691E+0	1.263492E+0	1.303248E+0	1.225492E+0	1.285141E+0	1.156043E+0	1.182046E+0	1.137739E+0	1.137126E+0	1.193072E+0	1.264716E+0	1.223638E+0	1.201952E+0	1.281401E+0	1.321023E+0	1.289512E+0	1.283047E+0	1.365871E+0	1.259812E+0	1.189640E+0	1.204084E+0	1.255161E+0	1.128870E+0	1.080422E+0	1.144048E+0	1.269595E+0	1.194116E+0	1.211677E+0	1.190352E+0	1.333706E+0	1.279739E+0	1.276700E+0	1.286657E+0	1.205605E+0	1.205651E+0	1.205189E+0	1.300856E+0	1.233433E+0	1.114784E+0	1.140947E+0	1.246015E+0	1.269475E+0	1.219192E+0	1.165631E+0	1.267756E+0	1.273012E+0	1.337279E+0	1.275703E+0	1.289644E+0	1.236701E+0	1.233874E+0	1.208364E+0	1.283026E+0	1.096123E+0	1.127862E+0	1.164946E+0	1.105610E+0	1.196660E+0	1.217272E+0	1.195273E+0	1.246675E+0	1.271756E+0	1.303873E+0	1.293888E+0	1.304988E+0	1.279172E+0	1.223470E+0	1.231335E+0	1.250493E+0	1.145210E+0	1.120540E+0	1.185958E+0	1.179381E+0	1.143220E+0	1.196303E+0	1.238866E+0	1.190999E+0	1.248760E+0	1.277499E+0	1.298345E+0	1.229370E+0	1.060305E+0	1.198552E+0	1.225555E+0	1.240563E+0	1.104159E+0	1.112773E+0	1.173128E+0	1.157453E+0	1.245527E+0	1.193163E+0	1.280818E+0	1.237815E+0	1.275097E+0	1.287191E+0	1.298221E+0	1.339305E+0	1.209179E+0	1.260559E+0	1.264980E+0	1.244967E+0	1.085237E+0	1.115864E+0	1.106176E+0	1.162874E+0	1.119492E+0	1.219257E+0	9.637205E-1	1.008940E+0	1.268049E+0	1.272549E+0	1.279938E+0	1.223411E+0	1.242599E+0	1.238217E+0	1.263330E+0	1.210673E+0	1.102986E+0	1.085573E+0	1.181601E+0	1.161496E+0	1.009514E+0	1.268095E+0	1.284061E+0	1.159537E+0	1.223867E+0	1.263248E+0	1.259645E+0	1.276743E+0	1.233059E+0	1.175141E+0	1.215182E+0	1.286331E+0	1.160649E+0	1.105189E+0	1.130931E+0	1.235316E+0	1.228893E+0	1.169874E+0	1.215801E+0	1.216786E+0	1.282311E+0	1.234063E+0	1.250285E+0	1.276872E+0	1.185231E+0	1.315268E+0
5.432800E+2	1.156235E+0	1.223344E+0	1.452168E+0	1.338616E+0	1.396029E+0	1.490979E+0	1.460323E+0	1.472303E+0	1.355783E+0	1.429611E+0	1.347204E+0	1.457433E+0	1.261331E+0	1.239651E+0	1.298542E+0	1.314747E+0	1.383082E+0	1.349770E+0	1.324245E+0	1.374773E+0	1.423919E+0	1.440468E+0	1.465588E+0	1.408715E+0	1.310334E+0	1.487158E+0	1.376491E+0	1.395493E+0	1.285394E+0	1.365271E+0	1.285940E+0	1.264473E+0	1.391510E+0	1.441418E+0	1.362843E+0	1.366246E+0	1.512965E+0	1.440128E+0	1.441608E+0	1.504031E+0	1.453274E+0	1.480320E+0	1.300260E+0	1.392404E+0	1.388898E+0	1.259716E+0	1.259474E+0	1.263867E+0	1.418745E+0	1.423710E+0	1.351719E+0	1.321863E+0	1.438538E+0	1.461984E+0	1.459270E+0	1.466501E+0	1.363310E+0	1.423397E+0	1.349962E+0	1.552812E+0	1.328556E+0	1.224213E+0	1.261329E+0	1.437088E+0	1.404129E+0	1.347357E+0	1.338179E+0	1.398049E+0	1.411556E+0	1.441354E+0	1.441158E+0	1.473765E+0	1.412278E+0	1.358239E+0	1.377719E+0	1.424229E+0	1.277910E+0	1.325597E+0	1.293501E+0	1.286813E+0	1.353468E+0	1.371255E+0	1.344408E+0	1.352363E+0	1.468669E+0	1.495414E+0	1.431103E+0	1.479888E+0	1.388020E+0	1.394957E+0	1.458888E+0	1.392137E+0	1.247043E+0	1.282123E+0	1.327098E+0	1.305456E+0	1.299759E+0	1.351426E+0	1.399321E+0	1.275707E+0	1.401388E+0	1.446079E+0	1.464233E+0	1.428975E+0	1.206212E+0	1.394669E+0	1.427129E+0	1.338696E+0	1.219902E+0	1.229505E+0	1.332197E+0	1.326465E+0	1.365292E+0	1.308530E+0	1.364889E+0	1.434242E+0	1.508328E+0	1.449912E+0	1.504243E+0	1.412071E+0	1.469230E+0	1.361976E+0	1.351286E+0	1.399716E+0	1.209606E+0	1.234341E+0	1.224558E+0	1.319581E+0	1.336539E+0	1.345406E+0	1.058595E+0	1.132408E+0	1.413684E+0	1.456246E+0	1.419931E+0	1.369202E+0	1.358677E+0	1.354095E+0	1.475540E+0	1.431268E+0	1.261445E+0	1.298480E+0	1.371402E+0	1.302940E+0	1.125487E+0	1.360025E+0	1.424940E+0	1.379201E+0	1.368467E+0	1.445927E+0	1.431413E+0	1.496128E+0	1.363675E+0	1.283007E+0	1.339438E+0	1.400137E+0	1.314888E+0	1.257080E+0	1.269299E+0	1.354568E+0	1.414515E+0	1.288330E+0	1.369582E+0	1.443164E+0	1.445123E+0	1.420249E+0	1.406559E+0	1.439263E+0	1.468986E+0	1.466487E+0
5.435540E+2	1.328894E+0	1.352361E+0	1.559560E+0	1.497848E+0	1.535414E+0	1.629093E+0	1.721099E+0	1.640428E+0	1.610547E+0	1.625463E+0	1.558512E+0	1.600005E+0	1.613795E+0	1.400207E+0	1.420502E+0	1.411782E+0	1.614760E+0	1.528705E+0	1.485182E+0	1.543517E+0	1.617085E+0	1.578885E+0	1.654021E+0	1.624323E+0	1.511173E+0	1.639482E+0	1.505288E+0	1.593915E+0	1.493438E+0	1.475532E+0	1.462441E+0	1.393056E+0	1.604557E+0	1.580432E+0	1.565372E+0	1.471825E+0	1.702839E+0	1.584249E+0	1.630813E+0	1.637450E+0	1.590131E+0	1.612626E+0	1.480161E+0	1.571538E+0	1.571614E+0	1.442474E+0	1.397501E+0	1.393495E+0	1.558024E+0	1.491476E+0	1.420869E+0	1.487466E+0	1.612415E+0	1.583137E+0	1.624774E+0	1.625356E+0	1.547911E+0	1.555860E+0	1.471478E+0	1.622597E+0	1.439443E+0	1.390228E+0	1.443588E+0	1.528722E+0	1.521567E+0	1.516149E+0	1.532809E+0	1.615601E+0	1.616247E+0	1.641135E+0	1.642068E+0	1.677343E+0	1.582964E+0	1.562832E+0	1.565379E+0	1.569972E+0	1.441214E+0	1.417420E+0	1.423946E+0	1.404089E+0	1.532192E+0	1.510274E+0	1.581497E+0	1.515644E+0	1.605162E+0	1.641602E+0	1.586279E+0	1.618370E+0	1.555043E+0	1.597480E+0	1.630998E+0	1.574944E+0	1.437132E+0	1.337938E+0	1.457942E+0	1.429663E+0	1.483467E+0	1.466291E+0	1.543792E+0	1.488338E+0	1.596843E+0	1.591977E+0	1.605640E+0	1.569962E+0	1.294079E+0	1.519521E+0	1.580948E+0	1.527020E+0	1.378118E+0	1.363937E+0	1.516120E+0	1.440290E+0	1.545258E+0	1.492784E+0	1.491633E+0	1.573149E+0	1.667796E+0	1.569446E+0	1.573255E+0	1.692129E+0	1.569487E+0	1.519329E+0	1.566492E+0	1.510253E+0	1.380170E+0	1.363403E+0	1.367480E+0	1.462431E+0	1.460827E+0	1.447365E+0	1.196139E+0	1.308256E+0	1.585843E+0	1.636159E+0	1.510738E+0	1.574633E+0	1.520950E+0	1.549416E+0	1.567922E+0	1.540411E+0	1.441065E+0	1.376628E+0	1.576700E+0	1.446710E+0	1.527351E+0	1.445829E+0	1.616999E+0	1.517241E+0	1.710201E+0	1.630817E+0	1.662264E+0	1.628632E+0	1.512859E+0	1.420976E+0	1.514749E+0	1.573529E+0	1.433873E+0	1.442271E+0	1.366763E+0	1.533689E+0	1.581144E+0	1.471904E+0	1.490707E+0	1.531003E+0	1.645069E+0	1.589231E+0	1.559718E+0	1.607899E+0	1.496487E+0	1.627790E+0
5.437590E+2	1.380944E+0	1.477744E+0	1.672154E+0	1.606127E+0	1.598821E+0	1.662329E+0	1.725109E+0	1.676875E+0	1.703790E+0	1.705149E+0	1.580628E+0	1.662346E+0	1.693701E+0	1.474237E+0	1.460683E+0	1.517220E+0	1.697971E+0	1.609324E+0	1.577305E+0	1.631285E+0	1.667760E+0	1.706080E+0	1.683803E+0	1.667529E+0	1.632963E+0	1.827727E+0	1.626864E+0	1.653864E+0	1.704433E+0	1.598222E+0	1.512801E+0	1.477131E+0	1.711087E+0	1.564366E+0	1.564230E+0	1.559091E+0	1.698895E+0	1.649508E+0	1.704506E+0	1.656705E+0	1.658559E+0	1.662176E+0	1.508106E+0	1.628954E+0	1.708097E+0	1.475320E+0	1.429839E+0	1.466411E+0	1.668291E+0	1.521856E+0	1.496414E+0	1.510194E+0	1.677869E+0	1.647821E+0	1.677530E+0	1.701208E+0	1.676883E+0	1.640572E+0	1.544736E+0	1.671385E+0	1.641249E+0	1.425302E+0	1.482749E+0	1.594036E+0	1.672821E+0	1.536746E+0	1.611240E+0	1.556431E+0	1.748541E+0	1.674084E+0	1.663650E+0	1.728594E+0	1.609270E+0	1.671147E+0	1.628887E+0	1.626111E+0	1.631216E+0	1.494184E+0	1.500986E+0	1.474453E+0	1.671579E+0	1.578707E+0	1.580948E+0	1.582143E+0	1.707125E+0	1.672012E+0	1.639667E+0	1.660431E+0	1.610721E+0	1.609577E+0	1.662189E+0	1.633054E+0	1.489019E+0	1.484341E+0	1.492248E+0	1.462938E+0	1.528364E+0	1.472214E+0	1.591131E+0	1.483731E+0	1.635273E+0	1.721378E+0	1.645888E+0	1.640706E+0	1.373273E+0	1.546887E+0	1.652583E+0	1.600196E+0	1.449796E+0	1.391688E+0	1.574110E+0	1.485129E+0	1.621646E+0	1.538146E+0	1.671242E+0	1.584775E+0	1.736135E+0	1.676878E+0	1.678564E+0	1.683229E+0	1.587035E+0	1.556209E+0	1.602919E+0	1.655180E+0	1.437026E+0	1.456674E+0	1.462765E+0	1.486320E+0	1.535397E+0	1.483079E+0	1.259890E+0	1.300774E+0	1.641496E+0	1.673978E+0	1.632353E+0	1.623568E+0	1.580170E+0	1.645582E+0	1.679715E+0	1.614325E+0	1.425812E+0	1.506878E+0	1.562863E+0	1.512316E+0	1.592081E+0	1.584562E+0	1.640113E+0	1.601266E+0	1.662002E+0	1.632481E+0	1.707123E+0	1.666488E+0	1.576247E+0	1.498115E+0	1.531356E+0	1.686737E+0	1.470231E+0	1.451356E+0	1.418272E+0	1.552695E+0	1.581758E+0	1.523999E+0	1.529895E+0	1.588186E+0	1.669630E+0	1.610991E+0	1.587112E+0	1.715639E+0	1.575239E+0	1.573350E+0
5.440170E+2	1.389951E+0	1.460785E+0	1.778896E+0	1.649440E+0	1.699363E+0	1.727089E+0	1.873546E+0	1.751701E+0	1.797038E+0	1.672038E+0	1.595185E+0	1.798411E+0	1.775082E+0	1.523268E+0	1.507880E+0	1.529402E+0	1.721919E+0	1.639860E+0	1.618816E+0	1.598370E+0	1.742019E+0	1.700733E+0	1.721880E+0	1.712483E+0	1.731336E+0	1.771999E+0	1.655177E+0	1.659701E+0	1.776239E+0	1.612273E+0	1.505608E+0	1.564503E+0	1.706214E+0	1.642833E+0	1.654939E+0	1.547778E+0	1.710727E+0	1.732177E+0	1.735872E+0	1.697968E+0	1.744813E+0	1.682861E+0	1.589615E+0	1.692681E+0	1.795051E+0	1.511342E+0	1.533602E+0	1.509051E+0	1.748378E+0	1.637528E+0	1.572537E+0	1.591374E+0	1.730543E+0	1.721235E+0	1.766487E+0	1.725537E+0	1.727619E+0	1.643415E+0	1.627880E+0	1.766482E+0	1.785773E+0	1.562319E+0	1.451325E+0	1.647653E+0	1.744144E+0	1.584236E+0	1.621696E+0	1.768003E+0	1.693331E+0	1.715401E+0	1.749977E+0	1.776046E+0	1.719391E+0	1.629311E+0	1.638615E+0	1.718548E+0	1.780654E+0	1.546651E+0	1.541156E+0	1.529646E+0	1.764876E+0	1.605444E+0	1.680919E+0	1.680706E+0	1.754599E+0	1.693355E+0	1.683576E+0	1.708641E+0	1.782751E+0	1.691639E+0	1.638504E+0	1.689353E+0	1.764934E+0	1.516168E+0	1.619176E+0	1.555269E+0	1.717391E+0	1.597142E+0	1.620025E+0	1.603588E+0	1.742879E+0	1.748185E+0	1.770436E+0	1.666983E+0	1.384662E+0	1.590215E+0	1.689790E+0	1.618913E+0	1.571907E+0	1.446224E+0	1.576873E+0	1.554605E+0	1.703860E+0	1.571189E+0	1.622200E+0	1.615984E+0	1.777361E+0	1.696885E+0	1.723551E+0	1.763318E+0	1.676643E+0	1.578952E+0	1.685862E+0	1.707379E+0	1.491850E+0	1.529271E+0	1.462763E+0	1.571835E+0	1.575414E+0	1.581579E+0	1.223243E+0	1.331774E+0	1.731478E+0	1.685867E+0	1.632354E+0	1.660782E+0	1.547599E+0	1.628856E+0	1.697124E+0	1.707876E+0	1.507502E+0	1.494852E+0	1.624286E+0	1.523949E+0	1.572121E+0	1.654206E+0	1.656071E+0	1.655880E+0	1.761646E+0	1.710535E+0	1.691802E+0	1.760164E+0	1.593534E+0	1.584658E+0	1.642081E+0	1.745132E+0	1.541289E+0	1.439241E+0	1.466246E+0	1.625386E+0	1.615447E+0	1.572995E+0	1.659332E+0	1.648320E+0	1.707339E+0	1.644381E+0	1.682371E+0	1.689094E+0	1.637739E+0	1.664081E+0
5.442700E+2	1.389953E+0	1.420807E+0	1.689081E+0	1.581285E+0	1.659372E+0	1.693279E+0	1.692441E+0	1.703594E+0	1.692694E+0	1.671479E+0	1.559093E+0	1.697043E+0	1.722629E+0	1.429530E+0	1.453677E+0	1.555024E+0	1.651276E+0	1.649630E+0	1.611996E+0	1.574337E+0	1.694855E+0	1.700199E+0	1.701377E+0	1.690664E+0	1.634135E+0	1.723698E+0	1.564134E+0	1.674025E+0	1.732958E+0	1.546334E+0	1.496972E+0	1.479190E+0	1.676388E+0	1.599584E+0	1.579632E+0	1.573095E+0	1.754109E+0	1.733809E+0	1.666353E+0	1.677795E+0	1.726408E+0	1.676873E+0	1.498791E+0	1.613450E+0	1.713051E+0	1.471610E+0	1.472791E+0	1.458307E+0	1.674094E+0	1.579107E+0	1.545802E+0	1.576763E+0	1.631334E+0	1.669897E+0	1.693560E+0	1.681648E+0	1.665274E+0	1.615557E+0	1.572067E+0	1.728198E+0	1.731117E+0	1.433716E+0	1.500638E+0	1.579900E+0	1.713402E+0	1.570502E+0	1.541524E+0	1.593487E+0	1.645414E+0	1.651597E+0	1.690885E+0	1.675444E+0	1.671060E+0	1.603524E+0	1.611149E+0	1.609665E+0	1.632759E+0	1.464545E+0	1.472627E+0	1.417426E+0	1.751948E+0	1.631641E+0	1.566200E+0	1.601143E+0	1.679610E+0	1.645339E+0	1.582789E+0	1.667098E+0	1.723323E+0	1.648508E+0	1.699152E+0	1.613689E+0	1.698499E+0	1.479447E+0	1.508420E+0	1.472783E+0	1.694351E+0	1.482277E+0	1.608960E+0	1.505629E+0	1.700058E+0	1.643529E+0	1.640450E+0	1.658900E+0	1.409612E+0	1.574824E+0	1.720882E+0	1.592254E+0	1.643586E+0	1.447656E+0	1.568036E+0	1.539824E+0	1.684442E+0	1.565028E+0	1.594175E+0	1.620878E+0	1.681897E+0	1.691091E+0	1.660159E+0	1.660197E+0	1.710479E+0	1.529778E+0	1.614127E+0	1.620791E+0	1.637540E+0	1.443566E+0	1.450254E+0	1.493487E+0	1.676054E+0	1.496901E+0	1.270932E+0	1.332308E+0	1.756962E+0	1.700453E+0	1.632354E+0	1.605727E+0	1.637616E+0	1.619298E+0	1.675701E+0	1.607976E+0	1.622161E+0	1.502868E+0	1.536857E+0	1.570942E+0	1.650877E+0	1.584562E+0	1.602691E+0	1.653478E+0	1.666334E+0	1.659608E+0	1.707666E+0	1.642222E+0	1.614663E+0	1.518185E+0	1.550427E+0	1.616426E+0	1.505485E+0	1.386765E+0	1.478870E+0	1.542245E+0	1.579305E+0	1.579197E+0	1.521583E+0	1.566373E+0	1.765036E+0	1.680301E+0	1.631317E+0	1.703147E+0	1.530238E+0	1.629805E+0
5.445290E+2	1.308377E+0	1.399607E+0	1.581036E+0	1.529058E+0	1.546838E+0	1.628518E+0	1.705047E+0	1.632653E+0	1.626644E+0	1.622657E+0	1.531735E+0	1.604885E+0	1.617228E+0	1.407898E+0	1.394332E+0	1.441609E+0	1.654867E+0	1.524434E+0	1.531812E+0	1.550306E+0	1.581966E+0	1.639810E+0	1.627174E+0	1.611666E+0	1.590219E+0	1.643816E+0	1.573015E+0	1.576404E+0	1.664596E+0	1.531743E+0	1.430786E+0	1.401711E+0	1.653256E+0	1.586608E+0	1.523726E+0	1.500375E+0	1.632977E+0	1.619599E+0	1.661127E+0	1.602148E+0	1.601058E+0	1.594116E+0	1.483072E+0	1.512975E+0	1.640404E+0	1.397446E+0	1.418253E+0	1.385820E+0	1.625922E+0	1.525362E+0	1.502806E+0	1.510740E+0	1.609857E+0	1.633961E+0	1.558573E+0	1.628695E+0	1.611482E+0	1.485935E+0	1.435431E+0	1.588014E+0	1.679091E+0	1.375732E+0	1.403466E+0	1.531645E+0	1.600883E+0	1.462364E+0	1.503177E+0	1.596475E+0	1.636038E+0	1.654209E+0	1.585546E+0	1.603313E+0	1.612942E+0	1.549654E+0	1.551649E+0	1.616473E+0	1.673841E+0	1.486893E+0	1.451358E+0	1.392592E+0	1.693498E+0	1.526847E+0	1.472785E+0	1.567896E+0	1.561460E+0	1.633599E+0	1.607737E+0	1.579391E+0	1.660762E+0	1.589063E+0	1.674895E+0	1.607635E+0	1.690256E+0	1.479446E+0	1.501070E+0	1.448877E+0	1.605156E+0	1.526683E+0	1.589286E+0	1.480272E+0	1.655585E+0	1.631671E+0	1.608904E+0	1.593205E+0	1.358627E+0	1.533204E+0	1.699781E+0	1.532125E+0	1.584648E+0	1.307006E+0	1.453154E+0	1.451127E+0	1.609993E+0	1.510145E+0	1.600547E+0	1.514402E+0	1.680271E+0	1.614209E+0	1.698499E+0	1.650247E+0	1.575757E+0	1.518716E+0	1.564812E+0	1.563678E+0	1.662414E+0	1.372981E+0	1.415122E+0	1.417999E+0	1.641496E+0	1.396671E+0	1.191118E+0	1.235029E+0	1.657622E+0	1.578890E+0	1.536142E+0	1.583807E+0	1.639393E+0	1.470570E+0	1.658964E+0	1.529439E+0	1.674328E+0	1.395163E+0	1.476540E+0	1.469974E+0	1.657888E+0	1.506557E+0	1.493178E+0	1.552650E+0	1.645214E+0	1.588194E+0	1.619596E+0	1.619411E+0	1.622984E+0	1.467384E+0	1.539356E+0	1.630133E+0	1.687268E+0	1.372131E+0	1.407162E+0	1.540340E+0	1.629539E+0	1.409887E+0	1.493676E+0	1.504475E+0	1.641066E+0	1.610483E+0	1.497457E+0	1.534511E+0	1.633991E+0	1.579399E+0
5.447720E+2	1.301369E+0	1.584956E+0	1.508141E+0	1.475555E+0	1.514847E+0	1.543703E+0	1.549158E+0	1.526239E+0	1.584458E+0	1.554756E+0	1.414148E+0	1.579406E+0	1.645171E+0	1.329061E+0	1.327983E+0	1.398760E+0	1.516580E+0	1.465194E+0	1.490867E+0	1.381563E+0	1.545838E+0	1.524371E+0	1.546137E+0	1.556673E+0	1.515271E+0	1.543507E+0	1.440334E+0	1.530251E+0	1.544097E+0	1.462559E+0	1.341097E+0	1.337417E+0	1.606386E+0	1.506291E+0	1.484931E+0	1.465903E+0	1.594663E+0	1.547810E+0	1.535166E+0	1.576473E+0	1.556778E+0	1.490665E+0	1.353822E+0	1.527901E+0	1.563359E+0	1.390031E+0	1.320768E+0	1.386247E+0	1.561509E+0	1.495566E+0	1.450505E+0	1.374899E+0	1.512180E+0	1.646280E+0	1.569948E+0	1.597690E+0	1.545467E+0	1.462624E+0	1.449968E+0	1.572576E+0	1.587646E+0	1.326629E+0	1.395728E+0	1.467309E+0	1.562148E+0	1.433183E+0	1.428811E+0	1.590496E+0	1.573016E+0	1.541767E+0	1.556257E+0	1.528334E+0	1.533413E+0	1.440191E+0	1.447519E+0	1.554658E+0	1.537754E+0	1.406243E+0	1.342181E+0	1.329124E+0	1.524325E+0	1.511875E+0	1.470055E+0	1.412330E+0	1.528553E+0	1.575443E+0	1.560329E+0	1.552207E+0	1.524392E+0	1.452296E+0	1.476792E+0	1.563445E+0	1.533630E+0	1.377113E+0	1.461865E+0	1.332643E+0	1.507098E+0	1.412414E+0	1.472479E+0	1.394414E+0	1.549622E+0	1.534238E+0	1.497952E+0	1.504269E+0	1.314692E+0	1.433437E+0	1.525416E+0	1.461789E+0	1.513508E+0	1.250076E+0	1.412280E+0	1.335826E+0	1.546553E+0	1.398698E+0	1.453419E+0	1.492374E+0	1.590773E+0	1.534166E+0	1.564564E+0	1.584292E+0	1.587034E+0	1.427745E+0	1.559204E+0	1.472181E+0	1.585258E+0	1.304921E+0	1.348711E+0	1.357799E+0	1.532366E+0	1.412802E+0	1.147445E+0	1.265497E+0	1.583243E+0	1.514058E+0	1.473444E+0	1.453311E+0	1.587869E+0	1.496252E+0	1.577293E+0	1.479198E+0	1.558190E+0	1.339056E+0	1.498677E+0	1.414607E+0	1.632533E+0	1.450842E+0	1.502536E+0	1.497434E+0	1.589428E+0	1.548339E+0	1.564891E+0	1.555343E+0	1.569202E+0	1.431639E+0	1.469844E+0	1.626558E+0	1.583157E+0	1.312084E+0	1.347067E+0	1.412536E+0	1.537649E+0	1.426011E+0	1.423615E+0	1.509782E+0	1.545094E+0	1.505755E+0	1.539798E+0	1.582136E+0	1.621489E+0	1.438259E+0
5.450150E+2	1.218293E+0	1.482590E+0	1.471042E+0	1.366640E+0	1.330336E+0	1.488113E+0	1.553742E+0	1.480563E+0	1.498427E+0	1.427365E+0	1.337891E+0	1.473152E+0	1.542716E+0	1.250709E+0	1.257893E+0	1.341209E+0	1.454921E+0	1.371145E+0	1.400447E+0	1.355965E+0	1.443485E+0	1.442605E+0	1.486092E+0	1.449306E+0	1.506490E+0	1.487776E+0	1.405359E+0	1.362069E+0	1.480653E+0	1.389593E+0	1.282583E+0	1.265298E+0	1.424991E+0	1.396934E+0	1.357706E+0	1.311838E+0	1.503391E+0	1.473301E+0	1.437429E+0	1.450848E+0	1.409573E+0	1.382860E+0	1.360225E+0	1.401590E+0	1.521530E+0	1.261305E+0	1.259956E+0	1.261309E+0	1.470395E+0	1.402092E+0	1.349396E+0	1.321322E+0	1.431894E+0	1.471737E+0	1.468580E+0	1.481291E+0	1.485561E+0	1.389851E+0	1.352870E+0	1.470679E+0	1.485166E+0	1.267707E+0	1.280182E+0	1.405888E+0	1.497587E+0	1.355368E+0	1.324819E+0	1.429127E+0	1.478745E+0	1.463319E+0	1.472503E+0	1.472340E+0	1.507102E+0	1.377723E+0	1.360554E+0	1.445211E+0	1.510537E+0	1.340657E+0	1.240566E+0	1.286354E+0	1.482171E+0	1.364304E+0	1.335122E+0	1.361270E+0	1.526394E+0	1.421785E+0	1.458045E+0	1.466555E+0	1.466841E+0	1.381804E+0	1.434055E+0	1.462354E+0	1.525871E+0	1.259600E+0	1.374143E+0	1.298427E+0	1.507687E+0	1.307614E+0	1.430060E+0	1.284925E+0	1.457938E+0	1.446596E+0	1.475651E+0	1.455251E+0	1.221942E+0	1.315424E+0	1.442676E+0	1.428888E+0	1.447139E+0	1.233809E+0	1.361468E+0	1.380172E+0	1.529720E+0	1.296769E+0	1.408198E+0	1.391407E+0	1.389543E+0	1.389351E+0	1.496573E+0	1.453946E+0	1.429123E+0	1.377958E+0	1.347364E+0	1.403402E+0	1.443118E+0	1.203586E+0	1.255837E+0	1.277535E+0	1.468103E+0	1.350015E+0	1.066627E+0	1.178374E+0	1.492223E+0	1.453003E+0	1.386419E+0	1.399785E+0	1.494298E+0	1.386349E+0	1.511688E+0	1.425491E+0	1.476990E+0	1.309000E+0	1.386899E+0	1.279677E+0	1.475568E+0	1.381200E+0	1.443101E+0	1.392405E+0	1.515237E+0	1.498515E+0	1.439619E+0	1.451474E+0	1.486607E+0	1.331297E+0	1.408332E+0	1.472830E+0	1.503280E+0	1.245471E+0	1.230919E+0	1.326538E+0	1.509466E+0	1.313136E+0	1.316144E+0	1.337638E+0	1.462830E+0	1.408108E+0	1.457611E+0	1.452535E+0	1.528987E+0	1.373741E+0
5.452690E+2	1.138719E+0	1.375984E+0	1.384479E+0	1.255178E+0	1.290348E+0	1.372923E+0	1.367479E+0	1.345969E+0	1.347456E+0	1.377420E+0	1.327412E+0	1.381539E+0	1.430454E+0	1.254554E+0	1.221910E+0	1.232414E+0	1.369912E+0	1.281982E+0	1.296950E+0	1.279689E+0	1.396324E+0	1.418555E+0	1.340126E+0	1.364634E+0	1.411632E+0	1.400464E+0	1.329304E+0	1.350928E+0	1.396549E+0	1.219880E+0	1.229344E+0	1.196884E+0	1.376903E+0	1.343182E+0	1.280689E+0	1.277366E+0	1.420565E+0	1.363989E+0	1.360595E+0	1.410045E+0	1.449825E+0	1.370882E+0	1.260670E+0	1.341304E+0	1.375687E+0	1.203564E+0	1.203489E+0	1.198629E+0	1.364772E+0	1.265389E+0	1.284314E+0	1.283435E+0	1.359274E+0	1.330561E+0	1.351693E+0	1.370142E+0	1.352307E+0	1.318787E+0	1.295309E+0	1.433629E+0	1.415270E+0	1.217666E+0	1.187359E+0	1.331315E+0	1.389372E+0	1.312455E+0	1.312036E+0	1.310790E+0	1.389681E+0	1.382253E+0	1.415979E+0	1.385497E+0	1.379244E+0	1.251067E+0	1.278738E+0	1.377730E+0	1.428374E+0	1.255150E+0	1.270342E+0	1.262898E+0	1.420350E+0	1.326881E+0	1.296335E+0	1.306644E+0	1.399613E+0	1.440990E+0	1.312848E+0	1.363974E+0	1.398029E+0	1.315524E+0	1.358973E+0	1.377613E+0	1.438584E+0	1.206719E+0	1.253095E+0	1.176100E+0	1.429716E+0	1.271496E+0	1.275138E+0	1.223268E+0	1.363504E+0	1.348126E+0	1.379930E+0	1.396131E+0	1.170413E+0	1.341650E+0	1.393810E+0	1.311469E+0	1.378651E+0	1.173533E+0	1.238853E+0	1.225945E+0	1.447504E+0	1.328133E+0	1.336228E+0	1.339394E+0	1.423714E+0	1.359860E+0	1.340651E+0	1.384325E+0	1.382126E+0	1.268550E+0	1.298607E+0	1.381908E+0	1.369003E+0	1.156197E+0	1.205308E+0	1.209694E+0	1.378978E+0	1.272251E+0	9.687401E-1	1.026045E+0	1.423565E+0	1.374661E+0	1.369122E+0	1.303952E+0	1.400133E+0	1.352900E+0	1.373786E+0	1.308843E+0	1.402187E+0	1.158210E+0	1.284526E+0	1.196856E+0	1.418930E+0	1.327154E+0	1.324785E+0	1.301778E+0	1.391752E+0	1.334658E+0	1.382726E+0	1.397115E+0	1.357912E+0	1.270464E+0	1.327135E+0	1.353661E+0	1.421203E+0	1.153633E+0	1.217788E+0	1.305159E+0	1.394909E+0	1.270964E+0	1.311989E+0	1.276917E+0	1.442266E+0	1.271503E+0	1.311923E+0	1.429114E+0	1.431486E+0	1.242683E+0
5.455450E+2	1.097181E+0	1.353573E+0	1.316789E+0	1.232885E+0	1.178956E+0	1.308737E+0	1.368624E+0	1.351312E+0	1.363553E+0	1.371247E+0	1.215646E+0	1.322994E+0	1.344179E+0	1.350694E+0	1.122383E+0	1.205528E+0	1.314237E+0	1.312517E+0	1.232690E+0	1.213864E+0	1.269888E+0	1.329307E+0	1.292773E+0	1.353722E+0	1.326730E+0	1.347832E+0	1.242699E+0	1.318032E+0	1.349333E+0	1.298251E+0	1.143013E+0	1.164324E+0	1.288030E+0	1.325882E+0	1.247029E+0	1.157781E+0	1.256612E+0	1.322109E+0	1.284285E+0	1.317893E+0	1.360121E+0	1.358904E+0	1.191969E+0	1.247145E+0	1.342667E+0	1.271898E+0	1.124339E+0	1.117612E+0	1.311960E+0	1.347177E+0	1.243056E+0	1.160586E+0	1.269781E+0	1.277685E+0	1.275666E+0	1.347244E+0	1.348028E+0	1.289223E+0	1.270890E+0	1.294063E+0	1.334860E+0	1.167630E+0	1.156420E+0	1.251866E+0	1.311285E+0	1.207176E+0	1.224310E+0	1.321546E+0	1.293847E+0	1.312177E+0	1.290601E+0	1.342316E+0	1.335808E+0	1.214963E+0	1.223812E+0	1.303441E+0	1.362129E+0	1.133206E+0	1.174872E+0	1.138725E+0	1.373137E+0	1.253627E+0	1.279945E+0	1.257957E+0	1.333796E+0	1.302271E+0	1.299379E+0	1.305502E+0	1.392398E+0	1.312369E+0	1.320854E+0	1.265021E+0	1.343059E+0	1.162649E+0	1.188897E+0	1.165318E+0	1.309210E+0	1.195117E+0	1.219809E+0	1.186965E+0	1.321230E+0	1.234710E+0	1.303786E+0	1.317299E+0	1.075493E+0	1.236180E+0	1.283307E+0	1.236593E+0	1.289454E+0	1.115644E+0	1.167604E+0	1.177163E+0	1.327742E+0	1.245805E+0	1.279544E+0	1.199264E+0	1.352659E+0	1.345114E+0	1.330428E+0	1.342446E+0	1.323224E+0	1.204625E+0	1.259937E+0	1.298393E+0	1.316714E+0	1.083094E+0	1.140342E+0	1.194408E+0	1.362609E+0	1.189303E+0	9.526770E-1	1.051165E+0	1.349190E+0	1.321714E+0	1.261559E+0	1.255018E+0	1.308336E+0	1.238217E+0	1.349687E+0	1.264955E+0	1.357406E+0	1.101102E+0	1.246899E+0	1.198249E+0	1.410298E+0	1.255837E+0	1.279659E+0	1.265768E+0	1.366844E+0	1.302551E+0	1.342247E+0	1.273347E+0	1.308612E+0	1.225312E+0	1.223179E+0	1.331019E+0	1.325907E+0	1.113767E+0	1.130426E+0	1.246717E+0	1.291379E+0	1.194682E+0	1.235395E+0	1.249799E+0	1.293165E+0	1.293259E+0	1.291999E+0	1.386174E+0	1.318984E+0	1.272928E+0
5.457780E+2	1.007598E+0	1.233641E+0	1.254958E+0	1.190211E+0	1.179527E+0	1.234235E+0	1.255718E+0	1.257045E+0	1.254211E+0	1.217484E+0	1.156271E+0	1.255230E+0	1.260840E+0	1.272822E+0	1.036872E+0	1.129074E+0	1.271733E+0	1.302135E+0	1.155351E+0	1.119304E+0	1.218709E+0	1.293500E+0	1.235169E+0	1.231953E+0	1.223675E+0	1.331733E+0	1.234374E+0	1.171604E+0	1.235228E+0	1.237717E+0	1.118554E+0	1.090968E+0	1.263074E+0	1.257302E+0	1.135210E+0	1.171248E+0	1.279711E+0	1.205182E+0	1.260241E+0	1.283048E+0	1.260642E+0	1.250553E+0	1.169846E+0	1.235087E+0	1.286533E+0	1.322226E+0	1.109861E+0	1.103964E+0	1.252185E+0	1.254289E+0	1.159378E+0	1.117832E+0	1.274896E+0	1.301814E+0	1.242048E+0	1.260898E+0	1.254506E+0	1.264209E+0	1.134837E+0	1.268744E+0	1.318570E+0	1.295295E+0	1.082934E+0	1.166080E+0	1.272549E+0	1.234068E+0	1.184803E+0	1.259987E+0	1.236035E+0	1.304331E+0	1.227911E+0	1.245512E+0	1.267290E+0	1.245910E+0	1.187194E+0	1.279055E+0	1.243504E+0	1.274100E+0	1.110594E+0	1.079396E+0	1.294454E+0	1.250955E+0	1.152662E+0	1.138020E+0	1.338652E+0	1.299071E+0	1.260459E+0	1.251135E+0	1.265409E+0	1.250297E+0	1.229026E+0	1.211147E+0	1.301836E+0	1.179297E+0	1.123719E+0	1.099235E+0	1.208789E+0	1.196894E+0	1.232718E+0	1.125883E+0	1.294328E+0	1.212028E+0	1.283661E+0	1.229877E+0	1.041864E+0	1.204824E+0	1.242213E+0	1.193482E+0	1.243262E+0	1.061105E+0	1.138332E+0	1.118034E+0	1.236464E+0	1.127638E+0	1.176365E+0	1.234144E+0	1.262622E+0	1.239795E+0	1.209272E+0	1.268113E+0	1.318840E+0	1.141315E+0	1.225753E+0	1.238212E+0	1.254279E+0	1.073011E+0	1.101363E+0	1.137073E+0	1.216496E+0	1.160502E+0	9.346051E-1	1.032993E+0	1.236845E+0	1.202312E+0	1.215075E+0	1.197923E+0	1.249706E+0	1.219103E+0	1.273372E+0	1.210096E+0	1.320498E+0	1.064533E+0	1.199309E+0	1.101940E+0	1.293785E+0	1.202907E+0	1.217474E+0	1.215954E+0	1.334348E+0	1.291482E+0	1.259645E+0	1.259756E+0	1.278518E+0	1.135004E+0	1.196114E+0	1.286331E+0	1.253743E+0	1.092069E+0	1.099116E+0	1.156920E+0	1.284028E+0	1.133903E+0	1.174832E+0	1.136609E+0	1.238323E+0	1.199155E+0	1.218532E+0	1.255013E+0	1.257732E+0	1.236634E+0
5.460220E+2	1.035123E+0	1.236064E+0	1.259514E+0	1.180657E+0	1.188667E+0	1.227358E+0	1.238525E+0	1.209428E+0	1.175393E+0	1.229829E+0	1.106792E+0	1.199936E+0	1.253977E+0	1.241574E+0	1.070984E+0	1.097150E+0	1.234616E+0	1.250835E+0	1.176960E+0	1.147514E+0	1.263366E+0	1.219749E+0	1.230774E+0	1.197912E+0	1.189128E+0	1.256188E+0	1.226601E+0	1.208213E+0	1.217029E+0	1.241499E+0	1.095531E+0	1.068713E+0	1.193680E+0	1.254213E+0	1.142626E+0	1.144853E+0	1.254358E+0	1.224217E+0	1.289512E+0	1.261042E+0	1.252017E+0	1.248378E+0	1.119194E+0	1.169061E+0	1.266168E+0	1.253359E+0	1.029264E+0	1.047681E+0	1.230132E+0	1.287589E+0	1.132067E+0	1.111879E+0	1.174151E+0	1.212486E+0	1.202740E+0	1.269485E+0	1.249004E+0	1.209630E+0	1.177862E+0	1.246512E+0	1.254457E+0	1.197091E+0	1.086318E+0	1.175828E+0	1.228280E+0	1.243795E+0	1.177831E+0	1.168543E+0	1.211034E+0	1.293348E+0	1.211984E+0	1.235072E+0	1.242207E+0	1.197197E+0	1.152866E+0	1.150329E+0	1.248640E+0	1.308107E+0	1.075147E+0	1.065139E+0	1.224200E+0	1.279829E+0	1.112783E+0	1.110707E+0	1.207017E+0	1.261188E+0	1.254470E+0	1.207539E+0	1.244140E+0	1.250823E+0	1.227870E+0	1.168774E+0	1.275167E+0	1.268903E+0	1.169787E+0	1.088924E+0	1.194612E+0	1.256102E+0	1.172471E+0	1.116663E+0	1.288289E+0	1.229554E+0	1.221657E+0	1.184398E+0	9.789454E-1	1.195131E+0	1.250542E+0	1.160015E+0	1.244323E+0	1.176881E+0	1.100773E+0	1.142673E+0	1.259770E+0	1.188682E+0	1.174454E+0	1.139908E+0	1.224110E+0	1.278237E+0	1.212850E+0	1.266019E+0	1.227978E+0	1.162214E+0	1.165785E+0	1.170661E+0	1.252757E+0	1.046795E+0	1.062385E+0	1.106020E+0	1.249235E+0	1.189303E+0	9.024789E-1	9.955787E-1	1.276372E+0	1.232028E+0	1.197239E+0	1.163262E+0	1.223648E+0	1.159970E+0	1.227851E+0	1.150616E+0	1.246191E+0	1.075052E+0	1.166661E+0	1.085188E+0	1.302416E+0	1.189535E+0	1.181153E+0	1.150534E+0	1.221159E+0	1.194605E+0	1.253627E+0	1.218987E+0	1.237542E+0	1.062257E+0	1.146288E+0	1.221980E+0	1.276329E+0	1.056746E+0	1.085986E+0	1.149793E+0	1.223992E+0	1.070025E+0	1.130301E+0	1.144862E+0	1.282883E+0	1.207757E+0	1.200477E+0	1.205826E+0	1.256482E+0	1.121708E+0
5.467710E+2	1.075161E+0	1.326921E+0	1.273832E+0	1.232886E+0	1.232082E+0	1.271487E+0	1.335956E+0	1.313413E+0	1.300833E+0	1.369564E+0	1.241259E+0	1.264988E+0	1.306430E+0	1.353098E+0	1.175185E+0	1.152599E+0	1.315434E+0	1.322288E+0	1.207668E+0	1.248864E+0	1.270390E+0	1.320756E+0	1.324018E+0	1.346739E+0	1.330243E+0	1.358359E+0	1.236040E+0	1.302116E+0	1.343924E+0	1.333924E+0	1.145411E+0	1.154846E+0	1.283770E+0	1.333914E+0	1.251592E+0	1.224038E+0	1.337180E+0	1.341689E+0	1.301009E+0	1.304595E+0	1.285943E+0	1.306091E+0	1.271150E+0	1.298819E+0	1.342118E+0	1.323286E+0	1.106483E+0	1.151723E+0	1.302094E+0	1.382813E+0	1.215744E+0	1.260707E+0	1.301487E+0	1.367010E+0	1.320662E+0	1.382066E+0	1.298516E+0	1.349489E+0	1.187165E+0	1.344084E+0	1.373751E+0	1.309325E+0	1.147716E+0	1.233833E+0	1.320508E+0	1.337058E+0	1.260331E+0	1.277319E+0	1.336556E+0	1.275567E+0	1.341985E+0	1.339943E+0	1.298489E+0	1.329582E+0	1.248414E+0	1.291533E+0	1.308209E+0	1.335314E+0	1.141787E+0	1.170457E+0	1.357400E+0	1.300145E+0	1.222586E+0	1.237770E+0	1.372641E+0	1.274528E+0	1.341788E+0	1.296271E+0	1.389270E+0	1.322891E+0	1.281582E+0	1.275917E+0	1.311536E+0	1.346753E+0	1.166355E+0	1.163915E+0	1.335201E+0	1.282746E+0	1.247473E+0	1.195608E+0	1.325071E+0	1.323897E+0	1.304874E+0	1.295567E+0	1.142751E+0	1.376995E+0	1.349941E+0	1.205395E+0	1.315470E+0	1.333797E+0	1.207372E+0	1.215105E+0	1.349753E+0	1.340453E+0	1.259163E+0	1.316141E+0	1.362424E+0	1.347222E+0	1.264482E+0	1.340354E+0	1.340770E+0	1.265476E+0	1.254335E+0	1.283040E+0	1.295904E+0	1.321053E+0	1.114355E+0	1.170040E+0	1.309863E+0	1.336765E+0	9.832975E-1	1.004664E+0	1.318504E+0	1.359535E+0	1.244264E+0	1.245331E+0	1.355124E+0	1.339761E+0	1.322910E+0	1.188152E+0	1.347568E+0	1.282949E+0	1.223658E+0	1.224305E+0	1.351501E+0	1.310439E+0	1.292316E+0	1.290976E+0	1.355469E+0	1.305319E+0	1.329664E+0	1.317029E+0	1.370718E+0	1.222176E+0	1.191193E+0	1.286331E+0	1.297259E+0	1.148586E+0	1.184459E+0	1.217260E+0	1.312207E+0	1.193442E+0	1.250239E+0	1.255104E+0	1.368571E+0	1.285673E+0	1.270831E+0	1.283119E+0	1.335235E+0	1.192278E+0
5.475120E+2	1.157236E+0	1.425653E+0	1.503584E+0	1.379379E+0	1.344046E+0	1.428511E+0	1.441985E+0	1.431486E+0	1.345236E+0	1.477310E+0	1.346040E+0	1.492129E+0	1.483398E+0	1.462698E+0	1.263966E+0	1.320627E+0	1.432173E+0	1.434658E+0	1.349836E+0	1.305287E+0	1.422913E+0	1.475740E+0	1.422139E+0	1.425736E+0	1.478382E+0	1.503255E+0	1.375382E+0	1.384349E+0	1.414745E+0	1.396078E+0	1.257165E+0	1.229855E+0	1.446297E+0	1.472309E+0	1.368547E+0	1.273057E+0	1.470149E+0	1.458072E+0	1.467742E+0	1.459102E+0	1.434298E+0	1.457997E+0	1.274642E+0	1.349917E+0	1.456590E+0	1.413341E+0	1.231965E+0	1.254488E+0	1.432671E+0	1.489139E+0	1.316273E+0	1.307248E+0	1.404275E+0	1.438881E+0	1.436514E+0	1.424999E+0	1.423824E+0	1.476270E+0	1.413335E+0	1.430540E+0	1.451532E+0	1.422495E+0	1.269061E+0	1.406379E+0	1.441636E+0	1.433755E+0	1.323656E+0	1.394462E+0	1.452180E+0	1.385917E+0	1.436017E+0	1.448138E+0	1.446540E+0	1.388613E+0	1.378288E+0	1.399277E+0	1.489487E+0	1.466488E+0	1.239623E+0	1.234383E+0	1.460815E+0	1.424726E+0	1.343314E+0	1.344646E+0	1.422274E+0	1.486343E+0	1.391185E+0	1.417829E+0	1.460584E+0	1.442827E+0	1.410953E+0	1.348555E+0	1.466224E+0	1.466714E+0	1.294261E+0	1.247810E+0	1.481697E+0	1.441424E+0	1.365509E+0	1.276283E+0	1.442563E+0	1.496604E+0	1.450089E+0	1.434028E+0	1.183974E+0	1.472773E+0	1.383816E+0	1.365923E+0	1.406259E+0	1.454834E+0	1.300714E+0	1.305277E+0	1.421612E+0	1.505103E+0	1.390365E+0	1.378556E+0	1.476328E+0	1.460968E+0	1.431646E+0	1.465464E+0	1.469854E+0	1.465855E+0	1.349605E+0	1.423053E+0	1.439056E+0	1.514650E+0	1.219744E+0	1.268460E+0	1.417176E+0	1.416258E+0	1.073152E+0	1.154323E+0	1.502103E+0	1.405998E+0	1.373987E+0	1.378887E+0	1.451066E+0	1.406658E+0	1.389853E+0	1.352731E+0	1.481419E+0	1.497357E+0	1.398519E+0	1.298287E+0	1.420006E+0	1.444714E+0	1.406230E+0	1.365997E+0	1.463243E+0	1.442050E+0	1.448372E+0	1.443709E+0	1.423861E+0	1.415332E+0	1.401566E+0	1.441251E+0	1.493915E+0	1.408462E+0	1.203649E+0	1.297554E+0	1.363056E+0	1.431592E+0	1.347020E+0	1.323489E+0	1.442268E+0	1.423792E+0	1.384144E+0	1.437702E+0	1.462737E+0	1.510845E+0
5.482600E+2	1.246819E+0	1.465025E+0	1.513999E+0	1.520141E+0	1.420020E+0	1.596997E+0	1.527379E+0	1.562681E+0	1.513413E+0	1.519399E+0	1.417641E+0	1.519775E+0	1.578500E+0	1.530961E+0	1.320038E+0	1.365155E+0	1.514786E+0	1.578173E+0	1.421490E+0	1.365366E+0	1.457036E+0	1.605604E+0	1.556387E+0	1.475056E+0	1.498292E+0	1.567034E+0	1.466980E+0	1.483034E+0	1.572131E+0	1.503097E+0	1.379468E+0	1.289201E+0	1.597254E+0	1.532241E+0	1.414186E+0	1.404492E+0	1.549589E+0	1.498319E+0	1.489695E+0	1.485694E+0	1.476274E+0	1.525510E+0	1.434165E+0	1.492307E+0	1.551251E+0	1.526174E+0	1.289396E+0	1.318447E+0	1.498250E+0	1.608318E+0	1.369153E+0	1.367322E+0	1.509109E+0	1.483033E+0	1.552887E+0	1.556660E+0	1.490452E+0	1.449550E+0	1.426129E+0	1.522553E+0	1.575032E+0	1.573544E+0	1.328527E+0	1.437571E+0	1.534480E+0	1.555055E+0	1.385240E+0	1.559420E+0	1.509994E+0	1.482673E+0	1.513093E+0	1.540675E+0	1.580517E+0	1.506668E+0	1.409758E+0	1.499651E+0	1.500782E+0	1.569971E+0	1.354471E+0	1.286814E+0	1.544560E+0	1.503854E+0	1.405046E+0	1.454488E+0	1.535566E+0	1.518353E+0	1.469023E+0	1.500920E+0	1.484356E+0	1.541717E+0	1.546099E+0	1.471436E+0	1.548176E+0	1.532817E+0	1.358950E+0	1.321394E+0	1.537815E+0	1.536157E+0	1.465718E+0	1.350619E+0	1.542490E+0	1.515163E+0	1.522970E+0	1.492139E+0	1.323913E+0	1.489306E+0	1.486546E+0	1.388615E+0	1.438644E+0	1.542381E+0	1.384665E+0	1.391014E+0	1.507064E+0	1.535905E+0	1.393549E+0	1.456270E+0	1.539245E+0	1.549963E+0	1.533894E+0	1.526188E+0	1.483017E+0	1.529779E+0	1.456089E+0	1.486305E+0	1.548196E+0	1.519692E+0	1.285192E+0	1.337258E+0	1.491745E+0	1.540103E+0	1.113311E+0	1.246255E+0	1.511465E+0	1.511352E+0	1.431281E+0	1.424764E+0	1.563591E+0	1.523132E+0	1.482234E+0	1.540409E+0	1.547360E+0	1.544449E+0	1.407925E+0	1.376454E+0	1.549466E+0	1.549460E+0	1.462913E+0	1.403809E+0	1.589973E+0	1.492428E+0	1.460951E+0	1.456816E+0	1.472522E+0	1.479300E+0	1.447085E+0	1.526455E+0	1.506034E+0	1.528055E+0	1.331413E+0	1.412060E+0	1.434729E+0	1.479967E+0	1.421833E+0	1.423120E+0	1.569087E+0	1.518402E+0	1.463838E+0	1.469711E+0	1.515237E+0	1.587465E+0
5.490100E+2	1.243816E+0	1.469870E+0	1.420276E+0	1.471098E+0	1.316626E+0	1.539116E+0	1.511904E+0	1.533045E+0	1.474006E+0	1.502003E+0	1.377475E+0	1.440631E+0	1.490753E+0	1.500191E+0	1.299009E+0	1.300046E+0	1.412418E+0	1.482293E+0	1.351543E+0	1.321484E+0	1.422915E+0	1.492307E+0	1.476330E+0	1.473311E+0	1.456132E+0	1.607904E+0	1.344850E+0	1.458625E+0	1.470814E+0	1.480396E+0	1.310400E+0	1.267358E+0	1.497429E+0	1.492082E+0	1.389655E+0	1.346853E+0	1.473530E+0	1.517896E+0	1.468787E+0	1.493488E+0	1.469950E+0	1.465619E+0	1.378273E+0	1.406756E+0	1.445583E+0	1.452013E+0	1.283122E+0	1.271969E+0	1.447179E+0	1.441231E+0	1.347654E+0	1.333766E+0	1.441608E+0	1.483543E+0	1.431860E+0	1.513250E+0	1.466613E+0	1.460349E+0	1.394149E+0	1.541082E+0	1.497778E+0	1.451487E+0	1.261327E+0	1.357634E+0	1.575059E+0	1.521869E+0	1.331208E+0	1.466180E+0	1.429262E+0	1.475349E+0	1.485347E+0	1.481359E+0	1.446540E+0	1.467699E+0	1.359980E+0	1.470733E+0	1.479728E+0	1.520414E+0	1.299171E+0	1.294172E+0	1.494537E+0	1.539144E+0	1.318733E+0	1.406988E+0	1.459499E+0	1.510351E+0	1.422620E+0	1.551179E+0	1.541281E+0	1.495428E+0	1.403444E+0	1.432695E+0	1.521990E+0	1.507358E+0	1.329546E+0	1.294678E+0	1.483469E+0	1.501224E+0	1.423915E+0	1.294146E+0	1.528212E+0	1.392980E+0	1.498496E+0	1.470917E+0	1.233331E+0	1.439135E+0	1.422686E+0	1.361952E+0	1.433868E+0	1.497891E+0	1.311207E+0	1.330898E+0	1.463041E+0	1.474859E+0	1.438133E+0	1.384064E+0	1.519721E+0	1.462549E+0	1.449031E+0	1.428823E+0	1.461709E+0	1.458477E+0	1.377628E+0	1.405860E+0	1.493374E+0	1.508095E+0	1.281823E+0	1.295691E+0	1.418993E+0	1.470403E+0	1.069638E+0	1.155925E+0	1.488062E+0	1.471915E+0	1.386962E+0	1.344733E+0	1.453433E+0	1.453247E+0	1.436713E+0	1.478045E+0	1.469116E+0	1.494855E+0	1.311642E+0	1.336905E+0	1.469094E+0	1.473687E+0	1.469515E+0	1.403810E+0	1.495196E+0	1.523425E+0	1.493775E+0	1.500495E+0	1.418738E+0	1.486824E+0	1.379419E+0	1.458532E+0	1.491712E+0	1.483650E+0	1.281420E+0	1.335566E+0	1.504568E+0	1.502913E+0	1.346426E+0	1.370653E+0	1.478826E+0	1.477420E+0	1.394107E+0	1.470493E+0	1.425235E+0	1.490683E+0
5.497740E+2	1.143724E+0	1.401424E+0	1.371461E+0	1.397213E+0	1.260644E+0	1.405016E+0	1.459749E+0	1.421282E+0	1.371322E+0	1.390328E+0	1.328577E+0	1.405934E+0	1.397120E+0	1.422318E+0	1.221910E+0	1.284502E+0	1.444145E+0	1.487789E+0	1.298088E+0	1.289093E+0	1.412880E+0	1.439934E+0	1.364535E+0	1.366379E+0	1.432124E+0	1.441954E+0	1.311541E+0	1.393370E+0	1.381793E+0	1.389054E+0	1.193853E+0	1.219552E+0	1.393337E+0	1.426589E+0	1.318913E+0	1.329077E+0	1.417747E+0	1.485265E+0	1.397702E+0	1.362821E+0	1.410147E+0	1.429686E+0	1.207689E+0	1.382071E+0	1.405407E+0	1.413869E+0	1.233414E+0	1.172191E+0	1.414099E+0	1.407935E+0	1.301747E+0	1.290473E+0	1.378709E+0	1.412185E+0	1.386348E+0	1.414028E+0	1.396929E+0	1.394402E+0	1.323217E+0	1.408308E+0	1.432085E+0	1.413609E+0	1.236672E+0	1.357635E+0	1.404742E+0	1.445198E+0	1.303322E+0	1.322742E+0	1.381347E+0	1.417296E+0	1.391315E+0	1.429156E+0	1.401268E+0	1.417839E+0	1.252990E+0	1.358448E+0	1.362643E+0	1.412560E+0	1.221190E+0	1.190233E+0	1.428217E+0	1.400662E+0	1.308901E+0	1.304863E+0	1.393141E+0	1.340685E+0	1.387195E+0	1.409621E+0	1.452451E+0	1.388643E+0	1.362439E+0	1.343107E+0	1.409490E+0	1.436848E+0	1.250155E+0	1.168600E+0	1.390136E+0	1.419518E+0	1.276982E+0	1.199642E+0	1.449153E+0	1.379576E+0	1.346209E+0	1.333976E+0	1.192109E+0	1.388966E+0	1.368266E+0	1.375567E+0	1.385023E+0	1.380200E+0	1.297951E+0	1.228409E+0	1.412546E+0	1.399816E+0	1.359793E+0	1.296560E+0	1.462226E+0	1.417786E+0	1.395352E+0	1.415211E+0	1.360823E+0	1.417296E+0	1.326629E+0	1.378838E+0	1.452257E+0	1.443567E+0	1.240438E+0	1.266546E+0	1.353515E+0	1.416259E+0	1.161502E+0	1.066131E+0	1.412645E+0	1.409782E+0	1.334528E+0	1.357986E+0	1.387696E+0	1.403072E+0	1.359059E+0	1.322126E+0	1.426795E+0	1.348576E+0	1.329902E+0	1.254551E+0	1.380631E+0	1.391785E+0	1.333038E+0	1.414011E+0	1.464326E+0	1.432087E+0	1.392573E+0	1.433517E+0	1.469321E+0	1.346347E+0	1.290227E+0	1.404904E+0	1.425059E+0	1.399377E+0	1.219304E+0	1.294705E+0	1.376532E+0	1.478105E+0	1.294770E+0	1.335870E+0	1.450263E+0	1.383823E+0	1.354260E+0	1.400227E+0	1.361485E+0	1.420114E+0
5.505170E+2	1.144725E+0	1.329344E+0	1.326552E+0	1.422053E+0	1.281780E+0	1.344842E+0	1.403584E+0	1.417395E+0	1.304717E+0	1.366197E+0	1.374563E+0	1.399972E+0	1.369669E+0	1.401648E+0	1.371905E+0	1.225693E+0	1.326809E+0	1.325342E+0	1.320835E+0	1.293795E+0	1.305008E+0	1.361907E+0	1.369418E+0	1.350232E+0	1.302137E+0	1.394893E+0	1.361503E+0	1.312729E+0	1.382776E+0	1.375000E+0	1.291698E+0	1.175866E+0	1.377511E+0	1.339474E+0	1.319483E+0	1.198181E+0	1.331545E+0	1.377585E+0	1.313554E+0	1.349526E+0	1.371045E+0	1.433497E+0	1.260087E+0	1.360250E+0	1.369634E+0	1.364602E+0	1.180806E+0	1.199054E+0	1.443696E+0	1.362950E+0	1.250029E+0	1.239059E+0	1.387402E+0	1.408079E+0	1.393069E+0	1.398286E+0	1.341916E+0	1.331863E+0	1.262749E+0	1.366316E+0	1.427359E+0	1.350947E+0	1.177208E+0	1.275747E+0	1.353710E+0	1.367957E+0	1.227795E+0	1.358005E+0	1.328742E+0	1.366046E+0	1.359969E+0	1.413972E+0	1.354774E+0	1.362248E+0	1.309059E+0	1.375462E+0	1.341077E+0	1.329971E+0	1.227332E+0	1.188395E+0	1.402925E+0	1.333831E+0	1.275577E+0	1.288832E+0	1.386668E+0	1.370564E+0	1.387692E+0	1.355253E+0	1.370504E+0	1.362340E+0	1.339335E+0	1.313447E+0	1.382334E+0	1.366830E+0	1.261427E+0	1.192974E+0	1.393683E+0	1.322415E+0	1.304647E+0	1.254961E+0	1.356915E+0	1.382669E+0	1.339139E+0	1.342564E+0	1.103697E+0	1.329107E+0	1.384927E+0	1.310902E+0	1.316001E+0	1.390250E+0	1.259842E+0	1.187018E+0	1.295374E+0	1.353894E+0	1.292282E+0	1.287992E+0	1.393881E+0	1.375658E+0	1.336055E+0	1.419922E+0	1.347663E+0	1.383490E+0	1.284036E+0	1.314359E+0	1.394386E+0	1.369958E+0	1.204343E+0	1.232626E+0	1.374128E+0	1.330431E+0	1.260894E+0	1.121718E+0	1.339828E+0	1.394653E+0	1.384796E+0	1.327912E+0	1.394801E+0	1.377986E+0	1.303496E+0	1.239546E+0	1.482896E+0	1.424218E+0	1.235275E+0	1.224773E+0	1.411917E+0	1.399586E+0	1.323135E+0	1.280172E+0	1.356552E+0	1.369535E+0	1.330757E+0	1.369447E+0	1.348949E+0	1.336941E+0	1.263777E+0	1.372728E+0	1.373828E+0	1.370111E+0	1.222840E+0	1.288529E+0	1.380820E+0	1.339184E+0	1.278739E+0	1.257463E+0	1.392565E+0	1.367126E+0	1.277057E+0	1.376805E+0	1.435235E+0	1.420114E+0
5.512620E+2	1.081166E+0	1.382041E+0	1.457374E+0	1.308679E+0	1.226369E+0	1.298995E+0	1.375502E+0	1.344509E+0	1.299722E+0	1.338138E+0	1.399013E+0	1.340340E+0	1.310842E+0	1.363192E+0	1.407884E+0	1.201746E+0	1.369313E+0	1.402902E+0	1.434000E+0	1.219088E+0	1.339125E+0	1.310066E+0	1.381134E+0	1.281271E+0	1.326729E+0	1.365170E+0	1.387595E+0	1.288852E+0	1.365563E+0	1.383108E+0	1.395775E+0	1.164325E+0	1.354380E+0	1.353685E+0	1.399923E+0	1.259588E+0	1.316896E+0	1.336796E+0	1.383593E+0	1.341733E+0	1.351498E+0	1.379048E+0	1.303753E+0	1.254608E+0	1.367434E+0	1.336528E+0	1.369026E+0	1.200758E+0	1.281782E+0	1.374634E+0	1.323248E+0	1.224448E+0	1.296374E+0	1.336211E+0	1.380657E+0	1.344381E+0	1.356586E+0	1.340959E+0	1.286587E+0	1.352730E+0	1.374802E+0	1.297166E+0	1.296138E+0	1.292323E+0	1.343258E+0	1.357084E+0	1.299837E+0	1.298834E+0	1.313639E+0	1.339896E+0	1.420604E+0	1.354181E+0	1.370068E+0	1.350213E+0	1.302767E+0	1.309112E+0	1.365724E+0	1.329970E+0	1.186689E+0	1.181955E+0	1.325366E+0	1.351474E+0	1.284864E+0	1.234208E+0	1.354836E+0	1.372699E+0	1.322328E+0	1.336788E+0	1.296688E+0	1.349193E+0	1.306417E+0	1.252310E+0	1.346936E+0	1.362912E+0	1.201640E+0	1.191565E+0	1.381276E+0	1.379255E+0	1.309565E+0	1.181779E+0	1.362955E+0	1.372357E+0	1.345121E+0	1.329932E+0	1.100443E+0	1.378705E+0	1.332171E+0	1.329054E+0	1.306443E+0	1.384987E+0	1.204057E+0	1.205248E+0	1.343927E+0	1.313572E+0	1.287823E+0	1.324707E+0	1.371102E+0	1.328262E+0	1.309469E+0	1.370714E+0	1.350170E+0	1.322024E+0	1.278993E+0	1.321728E+0	1.332456E+0	1.366430E+0	1.118688E+0	1.178160E+0	1.346846E+0	1.301054E+0	1.260894E+0	1.059717E+0	1.364794E+0	1.387089E+0	1.313450E+0	1.208629E+0	1.315444E+0	1.404865E+0	1.331612E+0	1.248209E+0	1.364787E+0	1.313507E+0	1.287845E+0	1.214536E+0	1.345027E+0	1.337738E+0	1.356155E+0	1.271770E+0	1.348428E+0	1.364552E+0	1.314346E+0	1.321884E+0	1.428984E+0	1.371433E+0	1.251475E+0	1.330424E+0	1.330310E+0	1.319144E+0	1.164765E+0	1.208232E+0	1.339162E+0	1.365232E+0	1.235988E+0	1.196741E+0	1.342293E+0	1.364594E+0	1.285151E+0	1.322935E+0	1.327734E+0	1.434228E+0
5.520150E+2	1.130712E+0	1.308750E+0	1.346729E+0	1.375557E+0	1.226940E+0	1.368339E+0	1.375500E+0	1.342565E+0	1.329696E+0	1.417265E+0	1.351279E+0	1.355518E+0	1.391239E+0	1.406455E+0	1.439192E+0	1.190827E+0	1.342973E+0	1.360152E+0	1.351541E+0	1.273420E+0	1.331600E+0	1.403594E+0	1.401635E+0	1.278653E+0	1.351320E+0	1.371362E+0	1.358728E+0	1.284609E+0	1.360153E+0	1.380404E+0	1.373713E+0	1.176690E+0	1.395165E+0	1.359246E+0	1.392509E+0	1.245585E+0	1.336054E+0	1.322655E+0	1.363209E+0	1.304136E+0	1.331370E+0	1.370883E+0	1.356153E+0	1.330971E+0	1.400453E+0	1.354540E+0	1.378680E+0	1.149592E+0	1.343298E+0	1.390410E+0	1.357530E+0	1.239601E+0	1.309158E+0	1.375226E+0	1.358416E+0	1.343904E+0	1.302795E+0	1.329020E+0	1.332520E+0	1.370021E+0	1.347476E+0	1.386954E+0	1.402496E+0	1.263076E+0	1.361703E+0	1.314172E+0	1.399183E+0	1.288675E+0	1.329262E+0	1.373367E+0	1.313723E+0	1.309571E+0	1.335808E+0	1.326142E+0	1.365702E+0	1.300606E+0	1.377536E+0	1.399444E+0	1.411659E+0	1.170457E+0	1.351219E+0	1.343989E+0	1.336761E+0	1.221144E+0	1.337574E+0	1.367896E+0	1.377713E+0	1.358844E+0	1.375508E+0	1.324995E+0	1.427124E+0	1.317684E+0	1.396396E+0	1.311498E+0	1.329056E+0	1.138603E+0	1.362374E+0	1.365638E+0	1.302188E+0	1.207709E+0	1.335506E+0	1.361018E+0	1.400053E+0	1.312248E+0	1.148175E+0	1.365022E+0	1.321620E+0	1.281972E+0	1.293702E+0	1.306051E+0	1.252111E+0	1.180122E+0	1.320622E+0	1.352212E+0	1.261074E+0	1.275142E+0	1.363508E+0	1.319840E+0	1.288510E+0	1.351347E+0	1.342023E+0	1.338619E+0	1.320464E+0	1.302076E+0	1.360881E+0	1.345759E+0	1.134568E+0	1.199184E+0	1.305013E+0	1.336766E+0	1.272942E+0	1.068270E+0	1.311219E+0	1.367638E+0	1.316692E+0	1.222901E+0	1.359269E+0	1.360665E+0	1.328265E+0	1.269576E+0	1.351994E+0	1.345568E+0	1.283418E+0	1.215467E+0	1.374696E+0	1.348883E+0	1.303871E+0	1.260966E+0	1.339765E+0	1.347945E+0	1.357563E+0	1.346149E+0	1.328460E+0	1.303703E+0	1.244709E+0	1.347108E+0	1.399717E+0	1.365066E+0	1.137496E+0	1.202531E+0	1.323235E+0	1.347867E+0	1.200363E+0	1.332333E+0	1.397707E+0	1.284153E+0	1.298225E+0	1.351041E+0	1.368984E+0	1.375757E+0
5.527650E+2	1.100184E+0	1.328133E+0	1.271229E+0	1.360908E+0	1.164103E+0	1.317906E+0	1.298702E+0	1.299807E+0	1.285847E+0	1.326913E+0	1.319845E+0	1.262821E+0	1.353002E+0	1.284839E+0	1.303684E+0	1.185365E+0	1.288495E+0	1.325342E+0	1.366328E+0	1.243119E+0	1.343143E+0	1.354424E+0	1.325970E+0	1.289562E+0	1.319704E+0	1.397988E+0	1.307097E+0	1.274528E+0	1.291296E+0	1.326898E+0	1.303686E+0	1.099623E+0	1.342205E+0	1.330825E+0	1.345156E+0	1.176634E+0	1.338308E+0	1.306339E+0	1.311465E+0	1.324768E+0	1.381973E+0	1.336038E+0	1.274643E+0	1.262647E+0	1.242502E+0	1.342355E+0	1.261886E+0	1.161529E+0	1.375218E+0	1.351849E+0	1.262232E+0	1.170328E+0	1.266201E+0	1.337235E+0	1.317040E+0	1.306216E+0	1.349251E+0	1.288088E+0	1.323799E+0	1.364463E+0	1.326977E+0	1.306050E+0	1.289854E+0	1.231394E+0	1.318664E+0	1.327905E+0	1.287636E+0	1.269549E+0	1.295409E+0	1.284456E+0	1.339416E+0	1.319539E+0	1.362724E+0	1.307804E+0	1.298763E+0	1.266581E+0	1.321562E+0	1.293046E+0	1.275068E+0	1.118948E+0	1.359089E+0	1.308700E+0	1.345500E+0	1.256770E+0	1.327323E+0	1.288932E+0	1.295384E+0	1.351149E+0	1.305446E+0	1.278704E+0	1.308150E+0	1.272890E+0	1.369241E+0	1.332554E+0	1.321704E+0	1.120794E+0	1.308028E+0	1.296364E+0	1.330468E+0	1.127036E+0	1.301463E+0	1.346064E+0	1.326628E+0	1.283950E+0	1.058678E+0	1.302312E+0	1.301074E+0	1.267224E+0	1.326088E+0	1.335233E+0	1.365335E+0	1.211657E+0	1.313500E+0	1.310209E+0	1.319032E+0	1.216397E+0	1.341813E+0	1.260860E+0	1.261416E+0	1.314702E+0	1.330118E+0	1.298053E+0	1.351846E+0	1.267074E+0	1.312146E+0	1.330633E+0	1.301551E+0	1.134209E+0	1.273486E+0	1.336189E+0	1.318621E+0	1.078959E+0	1.268050E+0	1.304424E+0	1.320474E+0	1.261646E+0	1.300046E+0	1.271666E+0	1.324249E+0	1.251096E+0	1.355437E+0	1.275436E+0	1.308322E+0	1.151260E+0	1.349884E+0	1.332728E+0	1.334142E+0	1.197348E+0	1.360886E+0	1.357908E+0	1.278789E+0	1.293247E+0	1.337424E+0	1.306212E+0	1.270544E+0	1.301823E+0	1.365015E+0	1.280796E+0	1.221830E+0	1.198256E+0	1.327523E+0	1.290810E+0	1.255582E+0	1.226807E+0	1.309161E+0	1.298319E+0	1.303207E+0	1.269846E+0	1.375234E+0	1.339463E+0
5.535270E+2	1.085170E+0	1.210623E+0	1.238036E+0	1.262821E+0	1.152107E+0	1.240539E+0	1.284373E+0	1.234693E+0	1.219795E+0	1.225901E+0	1.213318E+0	1.241678E+0	1.315744E+0	1.215135E+0	1.223781E+0	1.081609E+0	1.241800E+0	1.274653E+0	1.204825E+0	1.136022E+0	1.238277E+0	1.214938E+0	1.221499E+0	1.234134E+0	1.204937E+0	1.276003E+0	1.231044E+0	1.191235E+0	1.290807E+0	1.251230E+0	1.205364E+0	1.062119E+0	1.257595E+0	1.236296E+0	1.256157E+0	1.081290E+0	1.240272E+0	1.247058E+0	1.226791E+0	1.223443E+0	1.205440E+0	1.263622E+0	1.233306E+0	1.161023E+0	1.269469E+0	1.254419E+0	1.225690E+0	1.065162E+0	1.219105E+0	1.250783E+0	1.257002E+0	1.131903E+0	1.227335E+0	1.252019E+0	1.291182E+0	1.215101E+0	1.210495E+0	1.243742E+0	1.285425E+0	1.211930E+0	1.229754E+0	1.213459E+0	1.249724E+0	1.170464E+0	1.217827E+0	1.248372E+0	1.245224E+0	1.218150E+0	1.233949E+0	1.237913E+0	1.253605E+0	1.230325E+0	1.268513E+0	1.253934E+0	1.220951E+0	1.225184E+0	1.209613E+0	1.282357E+0	1.244818E+0	1.054562E+0	1.218017E+0	1.242402E+0	1.225864E+0	1.171864E+0	1.199464E+0	1.232912E+0	1.308359E+0	1.226003E+0	1.239135E+0	1.237146E+0	1.223826E+0	1.180881E+0	1.214067E+0	1.265962E+0	1.236434E+0	1.093610E+0	1.232417E+0	1.257287E+0	1.248089E+0	1.118968E+0	1.241621E+0	1.226978E+0	1.259187E+0	1.190968E+0	1.086883E+0	1.259553E+0	1.267757E+0	1.163418E+0	1.174773E+0	1.271604E+0	1.216761E+0	1.116557E+0	1.188560E+0	1.253645E+0	1.221585E+0	1.164996E+0	1.262079E+0	1.230317E+0	1.238410E+0	1.202679E+0	1.189127E+0	1.221220E+0	1.271145E+0	1.155923E+0	1.306562E+0	1.230810E+0	1.270274E+0	1.069233E+0	1.245598E+0	1.191031E+0	1.273944E+0	9.923716E-1	1.252966E+0	1.227706E+0	1.203184E+0	1.188239E+0	1.286424E+0	1.262109E+0	1.245925E+0	1.161010E+0	1.276209E+0	1.267421E+0	1.297806E+0	1.117758E+0	1.182125E+0	1.258066E+0	1.247190E+0	1.170941E+0	1.248779E+0	1.240551E+0	1.222993E+0	1.267523E+0	1.255469E+0	1.236600E+0	1.218258E+0	1.266072E+0	1.219591E+0	1.250013E+0	1.219809E+0	1.140766E+0	1.238082E+0	1.219489E+0	1.224113E+0	1.148990E+0	1.268601E+0	1.256328E+0	1.232852E+0	1.215195E+0	1.272733E+0	1.315270E+0
5.542580E+2	1.128209E+0	1.123401E+0	1.128041E+0	1.162822E+0	1.070991E+0	1.100707E+0	1.141667E+0	1.112731E+0	1.128215E+0	1.163610E+0	1.159182E+0	1.109948E+0	1.103480E+0	1.163702E+0	1.128456E+0	9.984340E-1	1.133444E+0	1.088997E+0	1.170705E+0	1.029968E+0	1.120870E+0	1.141187E+0	1.157547E+0	1.111932E+0	1.122962E+0	1.118102E+0	1.128896E+0	1.058600E+0	1.137846E+0	1.093947E+0	1.096493E+0	9.219949E-1	1.123678E+0	1.154123E+0	1.151754E+0	9.967191E-1	1.050400E+0	1.147533E+0	1.147345E+0	1.137253E+0	1.137587E+0	1.135127E+0	1.122105E+0	1.058824E+0	1.148944E+0	1.061594E+0	1.106966E+0	9.606918E-1	1.127992E+0	1.120506E+0	1.166933E+0	1.002558E+0	1.089261E+0	1.105706E+0	1.151539E+0	1.108721E+0	1.122474E+0	1.101043E+0	1.118557E+0	1.173024E+0	1.185609E+0	1.128346E+0	1.108072E+0	1.017901E+0	1.100389E+0	1.139660E+0	1.064541E+0	1.074708E+0	1.073533E+0	1.133314E+0	1.114353E+0	1.131147E+0	1.081311E+0	1.067105E+0	1.159732E+0	1.087383E+0	1.138746E+0	1.114259E+0	1.149351E+0	9.510830E-1	1.088188E+0	1.107129E+0	1.156486E+0	1.064394E+0	1.087789E+0	1.123004E+0	1.103285E+0	1.119319E+0	1.132790E+0	1.202426E+0	1.114092E+0	1.059817E+0	1.141816E+0	1.142573E+0	1.096764E+0	1.001278E+0	1.090647E+0	1.066636E+0	1.102388E+0	9.726024E-1	1.185620E+0	1.062005E+0	1.104179E+0	1.085354E+0	9.062639E-1	1.140401E+0	1.092837E+0	1.062448E+0	1.086107E+0	1.158699E+0	1.125628E+0	9.736604E-1	1.132886E+0	1.154520E+0	1.184644E+0	1.082999E+0	1.103697E+0	1.155539E+0	1.142303E+0	1.125729E+0	1.097013E+0	1.122260E+0	1.182037E+0	1.109252E+0	1.100973E+0	1.126956E+0	1.107620E+0	9.865789E-1	1.080084E+0	1.101747E+0	1.117325E+0	8.897492E-1	1.145823E+0	1.090473E+0	1.098865E+0	1.046527E+0	1.098687E+0	1.088890E+0	1.177643E+0	1.077854E+0	1.160069E+0	1.104108E+0	1.106345E+0	1.007487E+0	1.146524E+0	1.141620E+0	1.125021E+0	1.082115E+0	1.149671E+0	1.079463E+0	1.124525E+0	1.084543E+0	1.119731E+0	1.165106E+0	1.132141E+0	1.145711E+0	1.179928E+0	1.116291E+0	1.145070E+0	1.031012E+0	1.141289E+0	1.101034E+0	1.115457E+0	1.079425E+0	1.114929E+0	1.121747E+0	1.089032E+0	1.129316E+0	1.176480E+0	1.127758E+0
5.550250E+2	1.011101E+0	1.025880E+0	9.985211E-1	1.085117E+0	1.012152E+0	1.017609E+0	1.076903E+0	1.008260E+0	1.016097E+0	1.085045E+0	1.010160E+0	1.012370E+0	1.025536E+0	1.016125E+0	1.038274E+0	9.043391E-1	1.024490E+0	1.037087E+0	1.061520E+0	9.369763E-1	9.748674E-1	1.046593E+0	1.059424E+0	1.000635E+0	9.941440E-1	1.043795E+0	1.046178E+0	1.029421E+0	1.048825E+0	1.055032E+0	1.046609E+0	8.684191E-1	1.052460E+0	1.044765E+0	1.048493E+0	9.498548E-1	1.050400E+0	1.044201E+0	1.013542E+0	1.027217E+0	1.038683E+0	1.016978E+0	1.032445E+0	1.022653E+0	1.043277E+0	1.069010E+0	1.037951E+0	9.542969E-1	9.968350E-1	1.043391E+0	1.012942E+0	9.652158E-1	1.015109E+0	1.039996E+0	1.072407E+0	1.005204E+0	1.008780E+0	1.038505E+0	1.041228E+0	1.022344E+0	1.047919E+0	1.051185E+0	1.063597E+0	1.006691E+0	1.023531E+0	1.020650E+0	1.070351E+0	9.892420E-1	9.959275E-1	1.013550E+0	1.046013E+0	1.066134E+0	1.054392E+0	1.031572E+0	1.041299E+0	9.785023E-1	1.032446E+0	1.035068E+0	1.038281E+0	8.991139E-1	1.058962E+0	1.039226E+0	1.018822E+0	9.693951E-1	1.014959E+0	1.026968E+0	1.029439E+0	1.021868E+0	1.053343E+0	9.983259E-1	1.058070E+0	9.817301E-1	1.096234E+0	1.051501E+0	1.045309E+0	9.136329E-1	1.028622E+0	1.050650E+0	1.094395E+0	9.074867E-1	1.040129E+0	1.056849E+0	1.034562E+0	1.017135E+0	8.639562E-1	1.064007E+0	1.030642E+0	1.006859E+0	1.046819E+0	1.032401E+0	1.021792E+0	8.997495E-1	1.000824E+0	1.045312E+0	1.017776E+0	9.814204E-1	1.080916E+0	1.096033E+0	1.027791E+0	9.938133E-1	1.029337E+0	1.072474E+0	1.003821E+0	9.624844E-1	1.026859E+0	1.036207E+0	1.019555E+0	9.130037E-1	1.010968E+0	1.044720E+0	1.043034E+0	8.304207E-1	1.030356E+0	1.070483E+0	1.005356E+0	9.766902E-1	1.070853E+0	9.963074E-1	1.043087E+0	9.923878E-1	1.090683E+0	1.058020E+0	1.067057E+0	9.418821E-1	1.101214E+0	1.063617E+0	1.062286E+0	9.644805E-1	1.058145E+0	1.005838E+0	1.080215E+0	9.879540E-1	1.015367E+0	1.060376E+0	1.060786E+0	1.046206E+0	1.100056E+0	1.042617E+0	1.045587E+0	9.587941E-1	1.058588E+0	1.039635E+0	1.045989E+0	9.709520E-1	1.023526E+0	1.050916E+0	1.068486E+0	1.059051E+0	1.011478E+0	1.004766E+0
5.557600E+2	9.765692E-1	1.007709E+0	9.757408E-1	9.851191E-1	9.630248E-1	9.815051E-1	1.024748E+0	9.985423E-1	9.628123E-1	1.028365E+0	9.985181E-1	9.500283E-1	9.848485E-1	1.005069E+0	9.854723E-1	8.640124E-1	9.664207E-1	1.038308E+0	1.007496E+0	9.338414E-1	9.783801E-1	1.024681E+0	9.827804E-1	9.648461E-1	9.607685E-1	1.049369E+0	9.912181E-1	9.413513E-1	9.499679E-1	1.019900E+0	9.794639E-1	8.177276E-1	9.556745E-1	9.990456E-1	1.011410E+0	9.132256E-1	9.822269E-1	9.452189E-1	1.006224E+0	9.721995E-1	1.001307E+0	1.023511E+0	9.847039E-1	9.514586E-1	1.022364E+0	9.551166E-1	9.679720E-1	8.557975E-1	9.771026E-1	1.041638E+0	9.960909E-1	8.954023E-1	9.317524E-1	9.717177E-1	1.023791E+0	1.001388E+0	9.500993E-1	9.816522E-1	9.662247E-1	9.766449E-1	1.017964E+0	1.005824E+0	1.020085E+0	9.472256E-1	9.675800E-1	9.445521E-1	9.710035E-1	9.354515E-1	9.875947E-1	1.001522E+0	9.535207E-1	9.237718E-1	9.479439E-1	9.576431E-1	9.983876E-1	9.773682E-1	9.918773E-1	9.660803E-1	9.910205E-1	8.554228E-1	1.014000E+0	9.649061E-1	1.025924E+0	9.023012E-1	9.701812E-1	1.037105E+0	1.026445E+0	9.654493E-1	1.021439E+0	9.678164E-1	9.338969E-1	9.417795E-1	9.677310E-1	9.956822E-1	9.281831E-1	8.067724E-1	9.695515E-1	1.013349E+0	9.769745E-1	8.671491E-1	9.951083E-1	9.583818E-1	1.004647E+0	9.691293E-1	8.287000E-1	9.425750E-1	9.945478E-1	9.246085E-1	9.746115E-1	9.864740E-1	1.007984E+0	8.800392E-1	9.153718E-1	1.018430E+0	9.891144E-1	9.593908E-1	1.008235E+0	9.975587E-1	1.012966E+0	9.707812E-1	9.823411E-1	1.025760E+0	9.729975E-1	9.502028E-1	9.908168E-1	9.832711E-1	1.005600E+0	8.814714E-1	9.503397E-1	1.000366E+0	1.009903E+0	8.154550E-1	9.648215E-1	9.807952E-1	9.523856E-1	9.603783E-1	1.000969E+0	9.867507E-1	9.908713E-1	9.265558E-1	9.971814E-1	9.823759E-1	1.068163E+0	8.651110E-1	9.453232E-1	9.666722E-1	1.039722E+0	9.452751E-1	9.698689E-1	9.643199E-1	9.855780E-1	9.709663E-1	1.026892E+0	9.650512E-1	9.439118E-1	9.550407E-1	9.717063E-1	1.020919E+0	1.009733E+0	8.899012E-1	9.881376E-1	9.664534E-1	1.044207E+0	9.326333E-1	9.772526E-1	9.886854E-1	9.819448E-1	1.018453E+0	9.902268E-1	1.032993E+0
5.560190E+2	1.007097E+0	9.737888E-1	9.952666E-1	9.781127E-1	9.396038E-1	1.000990E+0	9.817642E-1	9.698734E-1	9.938946E-1	9.997447E-1	1.011907E+0	1.011828E+0	9.975933E-1	1.002184E+0	9.803320E-1	9.933924E-1	1.016708E+0	9.790693E-1	9.796312E-1	9.798153E-1	9.542965E-1	9.958221E-1	9.617891E-1	1.009801E+0	9.654536E-1	1.021504E+0	9.379239E-1	9.609816E-1	9.839038E-1	9.917944E-1	9.809023E-1	9.248816E-1	1.003154E+0	9.693886E-1	1.000000E+0	9.175345E-1	1.016032E+0	9.745873E-1	9.419361E-1	9.969579E-1	1.019133E+0	1.003910E+0	1.008574E+0	9.887785E-1	9.744833E-1	9.890198E-1	1.005133E+0	8.187000E-1	9.991559E-1	1.050401E+0	1.028632E+0	8.488598E-1	9.557878E-1	9.814723E-1	9.824154E-1	9.904158E-1	9.678258E-1	9.589112E-1	1.010413E+0	1.002583E+0	9.985189E-1	1.027336E+0	9.915616E-1	9.438132E-1	9.645060E-1	1.010351E+0	9.919187E-1	9.868512E-1	1.003741E+0	1.014073E+0	1.007474E+0	9.797674E-1	9.350963E-1	1.029853E+0	9.869449E-1	9.354046E-1	1.023715E+0	9.928014E-1	9.848761E-1	8.834772E-1	9.920801E-1	9.964513E-1	1.016091E+0	8.910200E-1	1.040315E+0	9.821511E-1	9.406240E-1	9.654492E-1	9.701437E-1	9.767586E-1	9.899190E-1	9.472272E-1	1.027861E+0	1.024571E+0	9.786599E-1	8.555159E-1	1.005585E+0	9.683507E-1	9.782032E-1	8.913522E-1	9.940104E-1	1.006327E+0	1.009543E+0	9.519486E-1	8.156818E-1	1.018969E+0	1.016760E+0	9.149653E-1	9.427563E-1	1.003218E+0	1.033391E+0	8.903869E-1	9.859346E-1	9.618662E-1	9.407096E-1	9.147206E-1	9.968446E-1	9.912389E-1	1.020124E+0	1.033075E+0	9.854741E-1	1.036209E+0	9.825246E-1	9.483607E-1	9.644196E-1	9.772213E-1	1.004637E+0	8.800386E-1	9.745914E-1	9.692614E-1	9.893215E-1	9.036461E-1	1.004350E+0	9.748526E-1	1.014545E+0	9.746512E-1	1.003930E+0	9.807778E-1	1.007607E+0	9.334853E-1	1.012929E+0	9.693506E-1	9.934600E-1	8.692987E-1	1.031090E+0	9.638861E-1	1.001201E+0	9.476755E-1	9.704103E-1	1.001409E+0	1.017853E+0	9.831011E-1	9.506989E-1	9.732042E-1	9.728225E-1	9.568281E-1	1.016325E+0	1.012340E+0	1.001147E+0	9.402644E-1	1.030407E+0	1.014828E+0	1.014520E+0	9.367596E-1	1.022383E+0	1.016006E+0	9.900386E-1	9.919087E-1	9.602269E-1	9.442783E-1
5.565200E+2	9.610551E-1	1.014372E+0	1.036921E+0	1.016965E+0	9.744494E-1	1.043972E+0	1.001823E+0	1.001458E+0	1.008326E+0	1.032855E+0	1.032863E+0	9.630384E-1	1.038772E+0	1.001704E+0	9.826684E-1	1.015656E+0	9.867753E-1	1.059683E+0	1.008634E+0	9.886970E-1	9.593140E-1	9.707035E-1	9.964494E-1	1.038169E+0	9.795063E-1	1.061753E+0	1.002322E+0	9.970582E-1	1.038496E+0	1.042600E+0	9.765862E-1	1.027913E+0	1.012285E+0	1.035497E+0	1.043358E+0	9.611669E-1	9.844803E-1	1.016464E+0	1.017200E+0	1.013921E+0	9.719811E-1	1.004999E+0	1.003916E+0	1.009447E+0	9.788870E-1	1.032458E+0	9.481844E-1	9.977914E-1	9.997358E-1	1.024696E+0	9.862120E-1	9.901107E-1	9.378897E-1	1.055910E+0	1.018102E+0	1.023332E+0	9.886083E-1	1.036799E+0	1.026111E+0	9.951718E-1	9.990442E-1	1.036688E+0	1.046192E+0	9.779329E-1	9.983230E-1	1.004057E+0	1.044207E+0	9.862531E-1	9.750948E-1	1.064280E+0	9.807544E-1	1.036712E+0	1.011568E+0	1.004637E+0	1.026423E+0	1.015930E+0	1.077636E+0	1.020979E+0	1.014652E+0	9.395855E-1	1.035919E+0	1.015165E+0	9.876835E-1	9.391142E-1	1.001472E+0	1.018965E+0	1.021954E+0	1.009046E+0	1.000170E+0	9.962219E-1	1.019952E+0	9.774929E-1	9.779147E-1	1.006454E+0	1.046779E+0	8.798876E-1	1.048707E+0	1.005060E+0	1.020008E+0	8.723363E-1	1.037933E+0	1.006327E+0	1.019876E+0	9.842889E-1	8.270725E-1	1.030371E+0	9.862182E-1	9.518359E-1	9.671787E-1	9.879095E-1	1.037256E+0	9.204445E-1	1.011829E+0	1.046432E+0	9.967575E-1	9.202277E-1	1.004438E+0	1.004931E+0	1.022168E+0	9.859614E-1	1.050016E+0	9.962560E-1	1.013909E+0	9.366925E-1	9.923392E-1	1.014529E+0	9.950128E-1	9.048818E-1	1.038251E+0	9.790533E-1	9.883176E-1	9.367844E-1	1.017353E+0	1.021857E+0	9.788707E-1	9.807684E-1	1.000969E+0	9.700260E-1	9.801607E-1	9.975850E-1	9.971819E-1	1.043492E+0	9.419985E-1	8.986114E-1	9.890154E-1	1.036317E+0	1.071640E+0	9.746834E-1	1.040815E+0	1.035730E+0	9.905014E-1	1.008825E+0	1.035215E+0	1.017731E+0	1.000503E+0	9.758958E-1	1.010816E+0	1.018396E+0	9.597385E-1	1.014383E+0	1.008354E+0	9.962223E-1	1.021645E+0	9.709526E-1	1.018384E+0	1.007911E+0	1.042960E+0	9.770750E-1	9.502263E-1	1.087433E+0
5.570500E+2	1.017607E+0	1.061012E+0	9.829005E-1	1.015055E+0	9.830184E-1	9.700430E-1	1.025322E+0	1.012634E+0	9.722477E-1	9.941333E-1	9.630093E-1	9.961069E-1	9.961227E-1	9.944940E-1	9.831358E-1	1.004316E+0	9.508561E-1	9.845658E-1	9.830432E-1	1.044074E+0	9.522896E-1	1.043920E+0	1.029157E+0	9.914691E-1	1.020494E+0	1.006023E+0	1.052285E+0	1.066559E+0	1.033579E+0	9.809850E-1	1.002006E+0	1.004422E+0	1.031764E+0	9.971917E-1	1.049634E+0	1.023652E+0	9.934946E-1	9.843769E-1	1.000475E+0	1.000625E+0	9.696808E-1	1.015889E+0	1.014979E+0	1.002558E+0	1.010257E+0	1.014977E+0	1.006581E+0	1.019109E+0	1.002058E+0	1.039301E+0	9.955099E-1	1.019335E+0	9.747095E-1	9.901991E-1	9.865524E-1	9.784894E-1	9.739382E-1	1.049307E+0	9.929703E-1	1.028520E+0	1.005876E+0	9.852474E-1	1.004615E+0	1.001816E+0	9.995524E-1	9.771657E-1	9.948243E-1	1.028688E+0	1.021449E+0	1.048067E+0	9.997666E-1	9.868858E-1	1.007898E+0	1.032145E+0	1.048736E+0	1.019332E+0	9.744172E-1	1.019522E+0	1.018432E+0	1.005351E+0	1.041539E+0	1.024255E+0	9.674714E-1	1.006801E+0	9.831288E-1	1.021099E+0	9.990021E-1	1.022894E+0	1.010179E+0	1.002535E+0	1.017064E+0	9.895991E-1	1.022527E+0	1.031915E+0	1.015905E+0	1.019557E+0	1.010901E+0	1.016901E+0	1.034763E+0	1.029650E+0	1.017070E+0	9.655995E-1	1.035105E+0	1.032800E+0	9.859964E-1	1.041203E+0	9.984353E-1	9.234735E-1	1.041509E+0	1.032879E+0	9.897568E-1	8.726486E-1	9.969397E-1	1.002189E+0	1.033061E+0	9.795840E-1	9.887083E-1	1.013357E+0	1.014500E+0	9.995717E-1	1.003646E+0	9.778162E-1	9.993376E-1	9.618707E-1	9.974156E-1	9.958754E-1	1.052761E+0	9.048818E-1	1.014000E+0	1.021103E+0	9.888199E-1	9.629744E-1	1.017353E+0	1.015914E+0	1.028598E+0	1.006766E+0	1.009853E+0	1.028563E+0	9.781520E-1	9.658239E-1	1.036551E+0	1.032972E+0	1.051009E+0	9.041941E-1	9.981855E-1	9.989869E-1	9.934961E-1	9.194677E-1	9.958642E-1	1.019123E+0	1.027153E+0	9.510660E-1	1.012165E+0	1.017104E+0	9.463718E-1	9.747035E-1	1.047173E+0	9.977060E-1	1.002158E+0	9.217341E-1	1.007741E+0	9.813382E-1	9.889888E-1	9.538561E-1	1.021241E+0	1.003358E+0	9.676248E-1	9.294509E-1	1.008978E+0	1.016862E+0
5.575420E+2	1.002593E+0	1.001652E+0	9.776930E-1	9.908512E-1	9.344626E-1	9.752007E-1	1.053405E+0	9.839652E-1	9.506019E-1	9.946943E-1	9.542779E-1	1.040017E+0	9.872987E-1	9.762271E-1	9.798652E-1	1.024479E+0	9.688160E-1	1.016323E+0	1.004084E+0	1.058179E+0	1.005473E+0	9.990279E-1	9.813161E-1	1.014601E+0	9.771641E-1	9.924010E-1	1.022307E+0	1.000771E+0	9.829195E-1	1.024224E+0	1.029344E+0	1.029972E+0	9.751534E-1	1.003988E+0	1.024532E+0	1.005876E+0	1.005891E+0	1.013201E+0	1.011451E+0	1.021256E+0	1.005907E+0	9.881210E-1	9.573402E-1	1.005428E+0	9.953971E-1	9.699492E-1	1.016716E+0	1.045121E+0	9.788437E-1	9.855537E-1	9.740092E-1	1.028536E+0	1.021757E+0	9.943064E-1	1.006724E+0	9.722881E-1	1.030785E+0	1.012921E+0	1.007505E+0	1.030372E+0	9.811766E-1	1.029207E+0	1.007517E+0	9.993799E-1	1.046897E+0	9.874647E-1	1.028521E+0	9.910351E-1	1.015720E+0	1.007798E+0	1.038305E+0	1.004918E+0	9.693560E-1	9.926017E-1	9.835120E-1	1.065266E+0	1.007796E+0	1.007376E+0	9.886565E-1	1.063761E+0	9.695988E-1	1.041364E+0	1.006804E+0	1.012739E+0	9.879840E-1	1.006160E+0	9.715592E-1	9.834005E-1	1.044585E+0	1.040935E+0	9.910741E-1	1.040446E+0	9.735501E-1	9.863793E-1	1.010024E+0	1.023775E+0	9.807750E-1	1.028151E+0	9.855807E-1	1.046361E+0	1.002795E+0	1.033651E+0	1.007912E+0	9.726665E-1	1.052712E+0	9.784919E-1	1.004543E+0	1.021039E+0	9.916017E-1	9.692516E-1	1.022344E+0	1.022935E+0	9.697504E-1	1.008910E+0	1.028602E+0	1.040776E+0	9.859960E-1	1.021255E+0	1.004787E+0	9.901492E-1	9.510094E-1	9.919539E-1	1.015590E+0	9.753802E-1	9.887857E-1	1.002429E+0	1.014262E+0	9.712908E-1	9.770164E-1	9.969107E-1	1.030986E+0	9.709918E-1	1.019434E+0	1.018075E+0	1.021031E+0	1.021039E+0	1.019920E+0	9.915294E-1	1.002921E+0	9.536972E-1	9.971817E-1	9.568267E-1	1.033302E+0	8.809301E-1	1.007356E+0	1.036317E+0	1.008905E+0	9.650806E-1	1.040815E+0	1.001963E+0	1.024418E+0	1.013193E+0	1.039056E+0	1.025256E+0	1.019572E+0	1.008667E+0	9.832739E-1	9.820630E-1	9.758979E-1	9.274361E-1	9.771108E-1	9.869198E-1	1.025207E+0	9.456024E-1	9.909639E-1	9.937444E-1	9.931511E-1	9.770754E-1	9.189756E-1	9.341963E-1
5.580060E+2	9.500448E-1	1.011949E+0	1.010236E+0	9.927620E-1	9.813049E-1	1.019902E+0	1.001824E+0	1.019436E+0	9.555965E-1	9.615846E-1	1.028788E+0	9.836384E-1	1.002006E+0	9.896872E-1	9.957521E-1	9.912936E-1	9.730068E-1	1.004719E+0	1.027400E+0	9.991451E-1	9.763728E-1	9.712379E-1	1.010607E+0	1.003254E+0	1.010539E+0	9.583433E-1	1.011759E+0	9.944052E-1	1.007512E+0	1.006388E+0	1.052845E+0	9.978258E-1	9.897629E-1	1.014492E+0	1.010839E+0	1.000490E+0	9.641969E-1	1.027341E+0	1.022950E+0	9.767842E-1	9.955564E-1	9.843094E-1	1.019636E+0	1.023227E+0	9.937459E-1	1.003852E+0	9.959634E-1	1.042564E+0	9.672370E-1	1.014180E+0	9.751713E-1	1.019876E+0	9.951651E-1	9.927664E-1	1.016550E+0	1.020469E+0	1.024061E+0	1.036799E+0	1.023786E+0	1.008141E+0	1.003774E+0	1.016580E+0	1.021052E+0	1.035936E+0	1.007546E+0	9.989077E-1	9.948241E-1	9.826674E-1	9.771775E-1	9.978603E-1	1.055262E+0	1.012985E+0	9.815907E-1	1.002918E+0	9.772184E-1	9.932466E-1	1.011905E+0	9.670516E-1	1.029302E+0	1.027886E+0	9.999492E-1	1.008749E+0	1.014452E+0	1.037082E+0	9.788126E-1	1.006160E+0	9.950105E-1	9.885297E-1	9.826552E-1	1.007795E+0	9.928069E-1	1.027130E+0	1.004099E+0	1.003027E+0	1.019825E+0	1.042991E+0	9.961334E-1	9.553247E-1	1.007712E+0	1.019278E+0	9.780886E-1	1.000656E+0	1.017157E+0	9.974274E-1	1.051627E+0	1.057166E+0	1.009541E+0	1.006858E+0	1.013370E+0	1.018527E+0	9.847864E-1	1.055456E+0	9.969403E-1	1.015070E+0	1.028604E+0	1.032209E+0	9.713511E-1	9.943989E-1	1.006832E+0	9.932896E-1	9.911129E-1	1.020228E+0	9.976566E-1	1.039860E+0	1.023811E+0	1.022596E+0	1.032548E+0	1.069710E+0	1.004300E+0	1.016496E+0	9.923333E-1	1.040475E+0	1.010591E+0	9.554020E-1	9.831949E-1	1.062839E+0	1.001562E+0	1.059024E+0	1.029030E+0	9.952753E-1	1.001611E+0	1.028964E+0	9.895866E-1	1.046105E+0	9.911735E-1	9.828293E-1	9.901946E-1	1.014896E+0	1.033233E+0	9.997483E-1	1.007459E+0	9.607737E-1	1.029453E+0	9.913913E-1	1.023878E+0	1.002113E+0	1.038910E+0	1.021928E+0	9.971080E-1	9.792241E-1	9.905881E-1	1.027852E+0	9.978950E-1	9.591624E-1	1.061801E+0	9.790727E-1	9.850582E-1	1.023919E+0	1.045227E+0	1.093481E+0
5.585160E+2	1.025114E+0	9.737889E-1	9.724864E-1	1.046901E+0	9.544560E-1	1.017610E+0	9.611317E-1	9.849371E-1	9.916746E-1	9.756138E-1	1.021221E+0	1.021043E+0	1.005437E+0	1.028624E+0	1.039209E+0	1.025317E+0	1.006531E+0	9.821232E-1	1.018869E+0	1.017953E+0	9.733626E-1	1.002234E+0	1.033551E+0	1.018093E+0	9.941442E-1	9.515322E-1	1.007318E+0	1.004485E+0	1.043907E+0	1.012333E+0	1.015435E+0	1.021729E+0	1.041503E+0	1.048472E+0	9.680520E-1	1.013956E+0	9.805367E-1	9.881833E-1	1.008315E+0	1.006585E+0	1.004182E+0	1.003910E+0	1.001005E+0	1.023801E+0	1.055385E+0	1.048881E+0	1.048086E+0	1.051519E+0	9.863883E-1	9.762073E-1	9.838877E-1	1.030700E+0	9.757323E-1	1.006627E+0	9.782774E-1	1.035257E+0	9.959437E-1	9.827886E-1	1.004017E+0	1.001965E+0	9.690888E-1	9.997445E-1	1.040391E+0	1.030087E+0	1.012465E+0	1.001196E+0	1.003539E+0	1.043032E+0	1.024574E+0	9.690961E-1	9.648252E-1	1.019629E+0	1.017074E+0	1.020110E+0	1.001248E+0	9.864415E-1	9.821197E-1	1.004947E+0	1.003309E+0	1.019609E+0	1.038729E+0	1.009284E+0	9.980634E-1	1.094082E+0	1.014959E+0	9.789498E-1	1.020957E+0	1.024946E+0	9.976683E-1	9.983261E-1	9.997375E-1	1.027735E+0	1.004100E+0	9.951925E-1	9.673883E-1	1.056583E+0	9.831382E-1	1.007428E+0	9.997204E-1	1.036565E+0	1.011030E+0	9.671462E-1	9.703830E-1	1.017640E+0	1.059220E+0	9.545475E-1	1.037861E+0	1.015367E+0	1.041509E+0	1.015657E+0	1.000251E+0	1.033281E+0	1.003413E+0	1.010590E+0	9.891145E-1	9.844794E-1	1.040778E+0	1.024415E+0	1.021657E+0	1.004806E+0	9.823402E-1	1.024530E+0	9.920516E-1	1.023894E+0	1.011630E+0	1.002933E+0	1.009449E+0	1.039611E+0	9.976297E-1	1.042417E+0	9.812895E-1	1.018561E+0	1.018393E+0	1.019696E+0	1.022112E+0	1.004217E+0	1.007484E+0	9.789852E-1	1.027690E+0	1.003360E+0	9.784817E-1	1.017442E+0	1.013934E+0	1.060530E+0	9.728333E-1	9.950870E-1	1.025965E+0	1.056907E+0	9.763675E-1	9.742846E-1	9.686200E-1	1.066098E+0	9.679865E-1	1.012713E+0	1.015881E+0	1.042034E+0	9.920876E-1	9.982108E-1	9.996328E-1	1.065222E+0	1.023057E+0	9.900207E-1	9.919573E-1	1.039338E+0	9.892502E-1	1.014488E+0	9.875476E-1	1.045778E+0	1.046478E+0	9.846024E-1
5.590160E+2	1.004094E+0	1.015583E+0	9.965684E-1	1.011871E+0	9.533136E-1	9.878089E-1	1.034492E+0	1.029641E+0	9.744685E-1	1.039028E+0	1.047998E+0	1.034054E+0	1.006418E+0	1.016606E+0	1.037339E+0	1.013137E+0	9.454677E-1	9.747940E-1	9.972606E-1	9.991457E-1	9.457674E-1	9.984941E-1	1.043315E+0	1.031186E+0	9.888749E-1	1.006643E+0	1.044513E+0	1.013505E+0	1.004069E+0	9.988208E-1	1.037018E+0	1.022967E+0	1.004371E+0	1.045383E+0	1.021679E+0	1.066207E+0	1.012651E+0	1.008850E+0	1.040198E+0	1.021256E+0	1.003607E+0	1.051824E+0	1.031862E+0	1.015763E+0	1.018512E+0	9.927279E-1	1.027816E+0	1.003335E+0	1.027593E+0	1.041053E+0	1.017010E+0	1.059384E+0	9.864713E-1	1.047183E+0	1.024308E+0	1.028579E+0	9.996109E-1	9.839265E-1	1.001110E+0	1.001348E+0	9.911617E-1	1.016582E+0	1.011866E+0	1.071032E+0	9.890997E-1	1.037243E+0	1.023873E+0	1.040642E+0	9.709279E-1	1.003614E+0	9.776712E-1	1.030068E+0	9.748619E-1	1.057361E+0	1.024134E+0	1.020466E+0	9.697955E-1	1.037497E+0	1.045846E+0	1.027428E+0	1.043226E+0	1.031206E+0	1.037396E+0	1.016301E+0	1.030064E+0	9.778823E-1	1.046902E+0	1.011610E+0	1.053969E+0	1.004113E+0	1.032081E+0	9.587281E-1	1.008949E+0	1.014778E+0	1.046779E+0	1.057990E+0	1.039255E+0	1.021638E+0	9.991057E-1	1.052124E+0	9.566769E-1	1.030557E+0	1.030754E+0	1.018651E+0	1.095019E+0	9.950242E-1	1.017315E+0	1.074928E+0	1.025050E+0	1.035750E+0	1.019582E+0	1.075658E+0	9.982346E-1	1.026831E+0	9.725553E-1	1.002837E+0	1.010404E+0	1.008617E+0	1.040060E+0	9.875319E-1	1.022444E+0	1.043585E+0	1.020634E+0	1.038018E+0	1.034473E+0	1.041753E+0	1.001269E+0	1.030534E+0	1.007937E+0	1.032624E+0	1.030484E+0	1.055976E+0	9.897872E-1	1.016994E+0	9.977888E-1	1.049585E+0	1.007484E+0	1.034535E+0	1.023673E+0	1.035698E+0	1.034090E+0	1.021450E+0	1.008401E+0	1.049827E+0	1.031090E+0	1.025173E+0	9.758864E-1	1.043704E+0	1.019694E+0	9.792662E-1	1.044111E+0	9.996027E-1	1.013446E+0	1.025883E+0	1.029415E+0	1.018796E+0	1.025689E+0	1.042113E+0	1.057202E+0	1.067121E+0	1.013254E+0	1.030953E+0	1.049551E+0	1.042285E+0	1.007530E+0	1.000828E+0	1.003735E+0	1.021576E+0	1.040228E+0	1.024929E+0
5.595110E+2	9.875795E-1	1.043446E+0	1.057749E+0	1.008685E+0	9.304638E-1	1.030217E+0	9.920801E-1	1.011662E+0	9.900092E-1	9.795422E-1	1.007832E+0	1.000986E+0	1.012300E+0	1.003146E+0	1.018648E+0	9.849931E-1	1.033470E+0	1.018155E+0	1.031380E+0	1.002279E+0	9.838987E-1	1.059419E+0	1.023299E+0	9.709563E-1	1.016981E+0	1.039461E+0	1.010649E+0	9.975884E-1	9.888220E-1	1.060977E+0	9.866577E-1	1.049342E+0	1.001937E+0	1.004606E+0	9.954357E-1	9.897160E-1	9.715218E-1	1.052903E+0	1.015110E+0	1.018048E+0	1.012807E+0	9.951985E-1	9.806281E-1	1.031265E+0	1.029519E+0	1.061594E+0	1.013820E+0	1.030624E+0	9.846475E-1	9.984067E-1	1.037929E+0	1.023665E+0	9.880052E-1	1.013301E+0	9.694853E-1	1.052432E+0	9.500988E-1	9.799467E-1	1.050531E+0	9.815858E-1	1.009030E+0	9.899242E-1	9.736736E-1	1.015465E+0	1.019229E+0	1.021794E+0	9.994715E-1	9.796793E-1	1.054783E+0	1.003613E+0	9.992526E-1	9.930544E-1	1.018909E+0	9.708249E-1	1.016124E+0	9.881428E-1	1.022689E+0	9.825982E-1	9.976368E-1	9.791373E-1	1.002759E+0	1.005541E+0	1.022646E+0	1.009176E+0	9.890629E-1	1.015230E+0	9.920166E-1	1.061362E+0	1.023317E+0	1.016211E+0	1.057493E+0	1.013813E+0	1.027861E+0	1.011351E+0	1.029627E+0	1.039711E+0	1.032167E+0	1.014533E+0	1.030459E+0	1.001414E+0	1.038482E+0	1.046539E+0	9.877872E-1	1.024209E+0	1.049457E+0	1.000725E+0	1.024534E+0	1.049969E+0	1.019210E+0	9.869526E-1	1.015716E+0	1.076645E+0	1.052613E+0	9.988291E-1	1.015228E+0	1.030373E+0	1.033728E+0	9.917660E-1	1.013989E+0	1.030456E+0	1.024324E+0	1.011623E+0	1.058743E+0	1.015297E+0	1.062393E+0	1.011503E+0	1.008005E+0	1.082132E+0	1.008543E+0	1.060273E+0	1.016429E+0	1.036200E+0	9.975882E-1	1.027260E+0	9.999508E-1	1.026647E+0	1.027619E+0	1.017214E+0	1.028360E+0	1.053023E+0	1.029168E+0	9.873848E-1	1.008955E+0	1.122876E+0	9.960276E-1	9.872864E-1	1.003402E+0	1.045504E+0	1.013195E+0	1.019123E+0	9.943307E-1	1.027754E+0	1.011525E+0	1.007697E+0	1.010961E+0	1.008071E+0	1.007512E+0	1.013349E+0	1.018318E+0	1.058570E+0	1.004679E+0	1.035915E+0	9.990826E-1	1.069403E+0	1.002960E+0	1.004875E+0	1.018055E+0	1.037191E+0	1.011477E+0	9.725063E-1
5.600520E+2	9.660598E-1	9.804516E-1	1.019999E+0	9.806605E-1	1.070990E+0	1.003282E+0	9.479499E-1	9.980561E-1	9.955596E-1	9.980615E-1	9.845469E-1	9.684597E-1	9.843580E-1	9.944938E-1	1.041544E+0	9.912925E-1	9.981501E-1	9.900620E-1	9.864553E-1	9.834723E-1	1.011494E+0	9.755132E-1	9.905920E-1	9.665917E-1	9.590126E-1	1.028315E+0	9.745643E-1	9.912216E-1	1.013905E+0	9.442315E-1	9.717894E-1	9.850520E-1	9.593270E-1	9.588856E-1	9.709042E-1	1.033887E+0	9.523657E-1	9.789378E-1	9.712059E-1	9.891636E-1	9.553045E-1	9.668863E-1	9.969305E-1	9.927966E-1	1.004753E+0	9.694198E-1	9.795548E-1	9.675146E-1	1.006120E+0	9.621857E-1	9.995776E-1	1.016630E+0	9.680615E-1	9.968729E-1	1.032583E+0	9.746737E-1	9.727161E-1	1.018606E+0	9.859932E-1	1.006287E+0	1.016387E+0	9.651389E-1	9.872102E-1	9.896310E-1	9.804924E-1	9.691550E-1	9.582225E-1	1.009563E+0	9.584274E-1	9.518377E-1	1.010043E+0	9.906816E-1	1.021356E+0	9.782746E-1	9.743575E-1	9.654596E-1	9.877688E-1	9.685093E-1	9.711696E-1	1.024667E+0	9.538624E-1	9.766689E-1	9.936927E-1	1.000864E+0	9.820496E-1	1.024833E+0	1.041414E+0	9.808362E-1	1.038956E+0	9.883318E-1	9.962721E-1	1.024709E+0	9.992501E-1	9.961718E-1	9.835603E-1	9.975290E-1	9.618720E-1	1.000323E+0	1.039681E+0	1.009482E+0	1.015423E+0	1.005812E+0	9.682074E-1	1.031284E+0	1.002268E+0	9.687998E-1	9.684487E-1	1.029548E+0	1.010184E+0	9.797766E-1	1.003565E+0	1.013080E+0	9.768712E-1	1.017310E+0	1.010770E+0	1.037105E+0	1.005523E+0	9.954521E-1	9.250375E-1	1.016846E+0	9.597823E-1	9.839630E-1	9.690743E-1	1.012840E+0	9.725417E-1	9.499972E-1	9.622891E-1	1.008556E+0	9.885358E-1	9.548607E-1	1.004883E+0	1.040476E+0	9.700221E-1	9.662075E-1	9.556285E-1	9.420269E-1	1.010444E+0	9.867509E-1	9.667718E-1	9.987403E-1	1.013913E+0	9.858821E-1	9.735395E-1	1.055876E+0	9.863187E-1	9.973155E-1	9.962477E-1	1.026298E+0	9.747429E-1	9.803737E-1	9.981598E-1	1.023871E+0	9.833528E-1	9.782219E-1	9.629805E-1	1.013434E+0	9.805196E-1	9.790355E-1	1.039022E+0	1.036239E+0	9.691470E-1	1.016069E+0	9.640513E-1	1.044054E+0	9.606865E-1	1.004369E+0	1.029885E+0	9.552152E-1	1.011477E+0	9.220993E-1
5.605090E+2	1.067153E+0	9.810576E-1	9.887578E-1	9.679220E-1	1.126972E+0	9.545700E-1	1.006981E+0	1.008746E+0	1.091026E+0	1.014897E+0	9.868761E-1	1.009659E+0	1.010339E+0	9.819954E-1	9.864068E-1	9.799506E-1	1.078967E+0	9.528091E-1	9.932790E-1	9.787704E-1	1.088259E+0	1.018268E+0	9.725289E-1	9.940885E-1	1.044501E+0	9.973545E-1	9.601297E-1	9.763670E-1	9.519348E-1	9.653105E-1	9.761061E-1	9.644449E-1	1.025677E+0	9.749494E-1	9.760388E-1	9.730174E-1	1.069557E+0	9.745870E-1	9.827046E-1	1.019883E+0	9.955569E-1	9.919320E-1	9.957656E-1	9.531808E-1	9.805375E-1	9.720687E-1	1.008029E+0	1.020389E+0	1.000897E+0	9.715336E-1	1.025145E+0	1.011759E+0	1.037099E+0	9.835255E-1	9.932779E-1	9.551146E-1	1.011836E+0	9.640280E-1	9.836674E-1	9.636771E-1	1.013760E+0	9.646716E-1	9.596533E-1	9.613604E-1	9.565128E-1	1.003485E+0	9.756518E-1	9.240957E-1	9.573860E-1	9.413774E-1	9.961697E-1	9.622097E-1	1.020745E+0	9.559241E-1	9.852286E-1	1.005155E+0	9.615787E-1	1.028752E+0	9.829851E-1	1.003053E+0	9.769054E-1	9.590245E-1	1.002433E+0	9.901759E-1	9.863658E-1	9.938885E-1	1.001496E+0	9.880169E-1	9.276053E-1	9.941178E-1	9.650843E-1	9.908100E-1	9.817938E-1	9.902965E-1	9.551368E-1	1.012995E+0	9.790028E-1	1.019269E+0	9.603756E-1	1.049242E+0	1.007736E+0	9.784878E-1	9.725586E-1	9.782251E-1	1.015286E+0	9.796317E-1	9.229141E-1	1.001186E+0	9.815138E-1	1.024747E+0	9.533042E-1	1.014558E+0	1.011829E+0	9.557060E-1	9.935730E-1	1.026090E+0	9.903355E-1	9.786009E-1	9.511097E-1	9.849145E-1	9.704344E-1	9.415517E-1	9.926128E-1	9.858200E-1	9.887859E-1	9.736922E-1	9.911632E-1	1.064455E+0	9.897484E-1	9.663809E-1	9.827956E-1	1.012682E+0	9.814647E-1	9.699895E-1	1.001572E+0	9.797488E-1	9.541830E-1	9.640527E-1	9.721269E-1	1.034543E+0	9.647023E-1	9.908918E-1	9.834999E-1	1.059598E+0	1.020302E+0	1.004002E+0	9.934963E-1	1.001091E+0	9.595786E-1	9.903379E-1	1.010742E+0	9.966905E-1	1.000640E+0	9.838660E-1	1.033105E+0	9.806623E-1	9.381041E-1	9.775216E-1	9.976128E-1	9.844505E-1	9.887503E-1	9.422671E-1	9.610823E-1	1.011040E+0	9.686843E-1	9.962743E-1	9.962643E-1	9.997157E-1	1.000228E+0	9.684734E-1
5.610010E+2	1.011601E+0	9.428979E-1	9.614222E-1	9.902141E-1	1.150965E+0	9.964052E-1	9.932269E-1	9.795917E-1	1.076595E+0	1.009846E+0	9.606809E-1	9.711702E-1	9.593562E-1	1.010838E+0	9.550998E-1	9.761712E-1	1.041253E+0	1.037698E+0	9.699636E-1	9.484694E-1	1.149472E+0	9.653589E-1	9.573957E-1	9.617907E-1	1.043330E+0	9.366702E-1	9.762299E-1	9.970578E-1	9.509515E-1	9.723371E-1	9.713101E-1	9.714495E-1	9.550657E-1	9.471470E-1	9.395270E-1	1.014495E+0	1.049274E+0	9.805695E-1	9.884536E-1	9.355216E-1	1.066284E+0	9.930209E-1	9.893617E-1	9.537551E-1	9.585241E-1	9.450518E-1	9.501147E-1	1.003333E+0	1.047324E+0	9.364810E-1	9.769152E-1	9.511451E-1	1.159321E+0	9.378362E-1	9.917250E-1	9.689492E-1	1.084576E+0	9.759669E-1	9.138966E-1	9.803505E-1	1.012183E+0	9.688802E-1	9.562692E-1	9.735459E-1	1.025377E+0	9.891811E-1	9.849475E-1	1.027493E+0	1.040720E+0	9.983836E-1	9.704771E-1	9.830894E-1	1.041545E+0	9.553503E-1	9.760742E-1	1.005155E+0	9.805791E-1	9.699664E-1	9.631350E-1	1.026046E+0	9.454320E-1	9.322907E-1	9.532679E-1	1.002645E+0	1.005787E+0	9.746814E-1	9.690642E-1	9.639100E-1	9.507507E-1	9.746548E-1	9.385171E-1	1.002311E+0	9.720953E-1	9.398635E-1	9.463157E-1	1.013464E+0	9.624633E-1	9.630218E-1	9.443909E-1	9.921945E-1	9.407555E-1	9.588977E-1	9.807168E-1	9.908578E-1	1.045660E+0	9.750705E-1	1.013428E+0	1.010829E+0	9.661172E-1	9.453311E-1	9.400483E-1	1.024906E+0	9.956445E-1	9.562661E-1	9.910259E-1	1.031597E+0	9.718937E-1	9.759681E-1	9.797377E-1	9.733981E-1	1.059416E+0	9.722848E-1	9.578661E-1	1.061968E+0	9.634045E-1	1.007471E+0	9.286035E-1	1.043910E+0	9.994489E-1	9.606206E-1	9.943411E-1	1.021234E+0	9.736632E-1	1.013753E+0	9.967079E-1	9.517124E-1	9.565517E-1	9.885425E-1	9.835071E-1	1.028769E+0	9.341910E-1	9.653429E-1	1.002314E+0	1.052154E+0	9.766090E-1	9.728003E-1	9.395659E-1	1.004692E+0	9.752844E-1	9.986411E-1	9.166516E-1	9.690254E-1	9.564610E-1	9.669329E-1	9.845102E-1	1.018796E+0	9.595879E-1	9.573371E-1	9.521635E-1	1.005356E+0	9.869125E-1	9.776165E-1	9.860197E-1	1.027547E+0	9.561157E-1	9.790724E-1	9.856804E-1	1.041095E+0	1.006477E+0	1.051139E+0
