Photon Energy (eV)	#1	#2	#3	#4	#5	#6	#7	#8	#9	#10	#11	#12	#13	#14	#15	#16	#17	#18	#19	#20	#21	#22	#23	#24	#25	#26	#27	#28	#29	#30	#31	#32	#33	#34	#35	#36	#37	#38	#39	#40	#41	#42	#43	#44	#45	#46	#47	#48	#49	#50	#51	#52	#53	#54	#55	#56	#57	#58	#59	#60	#61	#62	#63	#64	#65	#66	#67	#68	#69	#70	#71	#72	#73	#74	#75	#76	#77	#78	#79	#80	#81	#82	#83	#84	#85	#86	#87	#88	#89	#90	#91	#92	#93	#94	#95	#96	#97	#98	#99	#100	#101	#102	#103	#104	#105	#106	#107	#108	#109	#110	#111	#112	#113	#114	#115	#116	#117	#118	#119	#120	#121	#122	#123	#124	#125	#126	#127	#128	#129	#130	#131	#132	#133	#134	#135	#136	#137	#138	#139	#140	#141	#142	#143	#144	#145	#146	#147	#148	#149	#150	#151	#152	#153	#154	#155	#156	#157	#158	#159	#160	#161	#162	#163	#164	#165	#166	#167	#168	#169	#170	#171	
5.300270E+2	-7.766443E-3	-1.469822E-3	-1.562686E-2	-1.348035E-2	-1.188511E-2	-1.899546E-2	5.000601E-3	-9.977166E-3	-5.885527E-3	-9.195345E-3	-6.762542E-3	-1.163166E-2	-2.791750E-3	-1.845103E-3	-4.504406E-3	-1.493288E-2	-1.110569E-2	-7.731907E-3	-1.333223E-2	-3.706085E-3	-1.897400E-2	-1.205199E-2	-5.481797E-3	-7.059447E-3	-1.286219E-2	-7.547099E-3	-4.279674E-3	7.097402E-4	-7.077995E-3	3.478179E-3	7.538677E-4	1.272182E-3	-1.153774E-2	-7.256037E-3	-1.204893E-2	-5.941215E-3	-5.885032E-3	-1.508377E-2	-1.426271E-2	-1.013058E-2	-1.698413E-2	-1.081391E-2	-7.029083E-3	-6.025872E-3	-9.728004E-3	-1.631542E-2	-1.452650E-2	-2.375642E-3	-3.246107E-3	-8.391642E-3	-7.749243E-3	-2.586763E-3	-1.087442E-2	1.102854E-2	-1.072173E-2	-1.190330E-2	-5.798947E-3	-1.273164E-2	-6.531156E-3	-1.265836E-2	-3.760390E-3	-5.354021E-3	-4.734562E-3	-7.059673E-3	-6.313593E-3	-4.889168E-3	-7.170047E-3	-1.803054E-2	-2.243469E-2	-9.252964E-3	-1.301497E-2	-1.339495E-2	-1.746076E-2	-9.909230E-3	-8.053067E-3	-1.512623E-2	-2.663054E-3	-4.578166E-4	-6.169029E-3	-1.144828E-2	-9.031556E-3	-5.144862E-3	-6.065286E-3	-9.391615E-3	-3.102188E-3	-1.274439E-2	-9.731183E-3	5.306569E-3	-1.530880E-2	-7.678055E-3	-1.170197E-2	-1.064782E-2	-9.261368E-3	-6.239154E-3	-1.484647E-2	-1.775686E-2	-1.324705E-2	-1.218182E-2	-1.116118E-2	-4.995170E-3	-1.309245E-2	-6.033827E-4	-1.262368E-2	-9.835376E-3	-6.517527E-4	-1.299857E-2	-6.917715E-3	-1.059505E-2	-1.483171E-2	-8.491865E-3	-9.733081E-3	-1.275151E-2	-1.258797E-2	-5.058744E-4	-9.422904E-3	-6.596291E-3	-3.448382E-3	-1.025614E-2	-4.399767E-3	1.230260E-3	2.820070E-4	-1.509236E-3	-1.678143E-2	-1.106045E-2	-1.136165E-3	-1.280654E-2	-5.069848E-3	-6.150523E-3	-1.192357E-2	-6.719986E-3	-7.232388E-3	-1.215396E-3	-9.723325E-3	-1.509835E-2	-2.457225E-2	-5.582659E-3	-1.513873E-2	1.960266E-3	-1.152106E-2	-1.775914E-2	-1.176933E-2	-1.869227E-2	-5.044050E-3	-1.144549E-2	-6.158542E-3	-1.240431E-2	-2.593586E-3	-1.741372E-2	-7.414955E-3	-1.010690E-2	-1.359110E-3	-8.765189E-3	-3.640183E-3	-6.422349E-3	-3.723898E-3	-1.278355E-2	-5.992872E-3	-1.098588E-2	-4.051300E-3	-1.633132E-2	-1.467410E-2	-2.067271E-3	-1.289177E-2	-1.431701E-2	-8.404792E-3	-1.196790E-2	2.143146E-3	-1.452549E-2	-1.315493E-2	-1.432666E-2	-1.490086E-2
5.305230E+2	-9.255901E-3	-9.553878E-3	3.305650E-3	-8.048537E-4	1.510860E-3	-4.821160E-3	-1.000124E-2	-3.685250E-3	-7.153228E-3	-4.427367E-3	-8.762739E-3	-6.959911E-3	-7.258506E-3	-8.890030E-3	-8.929762E-3	-7.163771E-3	-6.246956E-3	-7.731899E-3	-2.962701E-3	3.120943E-3	-2.108230E-3	-1.582949E-2	-1.379573E-2	-6.417707E-4	-1.150273E-3	-4.766566E-3	-6.369717E-3	-1.171073E-2	-5.720612E-3	-1.196162E-2	-9.800307E-3	2.014281E-3	-8.703918E-3	-7.256009E-3	-1.204893E-2	-1.006967E-3	-1.307786E-2	-5.599948E-3	-2.742839E-3	-1.210039E-2	3.752292E-3	-5.681895E-3	-3.092789E-3	-1.177791E-2	1.848302E-3	6.388595E-3	-4.301146E-3	-1.069033E-2	1.151852E-3	9.883444E-3	-9.462189E-3	-7.461808E-3	-4.589208E-3	-5.901242E-3	-9.481211E-3	-5.638372E-3	-5.201983E-3	-1.032294E-2	-1.056501E-2	-7.484146E-3	5.421990E-3	-2.057957E-2	-1.065279E-2	-9.177511E-3	-1.332867E-2	-1.137992E-2	-6.636109E-3	-1.027440E-2	-2.984407E-3	-1.850622E-3	-7.174887E-3	-6.653729E-3	-3.455749E-3	1.339085E-3	-5.400272E-3	-1.105379E-2	-1.136243E-2	-1.712252E-2	-8.535244E-3	1.000331E-3	4.168427E-3	-6.325640E-3	-2.756939E-3	-5.447141E-3	-1.431000E-2	-1.342024E-2	-6.690184E-3	-5.396516E-3	-7.256200E-3	4.119910E-3	-4.718689E-4	-5.022562E-3	-1.310566E-3	2.734974E-3	-5.459683E-3	3.184650E-3	-1.253376E-2	-4.379085E-3	-8.156251E-3	1.298707E-3	-1.096112E-2	-3.016737E-3	-2.473541E-3	-7.135466E-3	-8.472911E-3	8.068072E-4	-2.075308E-3	-7.714849E-3	-7.852131E-4	-2.664106E-3	-6.718410E-3	-8.012005E-3	-1.191022E-2	-5.817675E-3	-7.108497E-3	-5.885940E-3	-9.837915E-3	-7.801673E-3	-6.247692E-3	-6.663994E-3	-8.929572E-3	-1.005937E-4	-2.721394E-4	-8.889739E-3	-9.089592E-3	-5.762981E-3	-1.748138E-4	-1.537629E-3	-3.363042E-3	5.169294E-4	-4.849955E-3	-1.924347E-3	-4.109838E-3	5.199455E-3	-6.233387E-3	-1.944931E-2	-8.281749E-3	-1.862259E-2	-1.084901E-2	5.016647E-4	-7.192349E-3	-5.988801E-3	4.763818E-3	-1.665643E-2	-2.624948E-3	6.626975E-3	-1.261011E-2	2.271383E-3	-8.189601E-3	-1.010690E-2	-5.164647E-3	9.740959E-5	-1.148062E-2	-4.281947E-4	-1.288258E-2	-1.660766E-2	-1.475862E-2	-7.671182E-3	-7.509712E-3	-8.392498E-3	-2.223339E-3	-9.617223E-3	-3.201285E-3	-1.712039E-2	-6.443672E-3	-5.852901E-3	-1.428774E-2	-1.533245E-2	1.443872E-3	-1.790806E-3	-9.934154E-4
5.310050E+2	-1.372427E-2	-5.879324E-3	-5.809998E-3	-1.066356E-2	-1.047499E-2	-4.146214E-3	-1.062632E-2	8.989875E-5	-4.617886E-3	-8.599334E-3	5.714643E-4	-9.534265E-4	-9.491882E-3	-1.845092E-3	-1.185384E-3	-2.219783E-3	-3.470547E-3	9.047801E-4	-1.563660E-2	-5.071487E-3	-1.194657E-2	3.057966E-3	-4.842233E-3	1.518235E-8	1.777725E-3	-6.434906E-3	-4.976357E-3	-7.363604E-3	-7.078020E-3	-3.054033E-3	-1.331835E-2	-1.579630E-2	-8.703944E-3	-9.674686E-3	-6.024447E-3	-1.228511E-2	-7.846741E-3	1.354816E-3	2.377119E-3	-3.564477E-3	-7.998322E-3	1.374674E-3	-5.716953E-3	-4.747683E-3	-5.642235E-3	-3.931424E-3	-6.573440E-3	-9.934455E-3	-6.911062E-3	-3.170165E-3	-2.610271E-3	-7.461779E-3	-5.985946E-3	-1.402756E-2	-5.759589E-3	-4.385404E-3	-8.783667E-3	-9.720752E-3	-7.203448E-3	-1.663116E-3	-1.661580E-2	-3.011650E-3	-8.877282E-3	-1.200142E-2	-1.753768E-2	-6.069293E-3	-5.034290E-3	-1.238970E-2	-1.451048E-2	-3.084336E-3	-9.510944E-3	-5.428039E-3	-2.182610E-3	-9.284291E-3	-6.063461E-3	-5.623906E-3	3.550790E-3	-6.226374E-3	-1.030991E-2	-4.445928E-3	6.848091E-9	-9.867987E-3	-3.308335E-3	-7.419368E-3	-7.305102E-3	-8.689321E-3	6.082240E-4	-5.396488E-3	-8.495028E-3	-8.988927E-3	-4.718476E-4	-5.022552E-3	5.242157E-4	-9.230587E-3	-1.082354E-2	-1.032597E-2	-1.120931E-3	-6.051087E-3	-8.156298E-3	-6.393828E-3	-1.664469E-2	-1.146373E-2	-1.262366E-2	-1.118538E-2	-8.472917E-3	-3.585782E-3	-1.115482E-2	-1.059509E-2	-4.449516E-3	-7.326325E-3	-7.924268E-3	-2.482589E-3	2.323953E-3	8.427529E-5	-5.951315E-3	-1.298969E-2	-9.837948E-3	-3.506356E-3	-5.631724E-3	-1.671126E-2	2.819737E-4	-1.136937E-2	-7.256841E-3	-1.395477E-2	-9.752424E-3	-5.762928E-3	-1.302426E-2	-8.457034E-3	-9.070080E-3	-1.576620E-2	5.104932E-4	-5.469226E-3	-6.214926E-3	-5.999347E-3	-5.601022E-3	-7.473537E-3	-8.281738E-3	-6.425374E-3	-1.286517E-2	-1.284274E-2	-1.046161E-2	-1.043501E-2	-1.354417E-2	7.444228E-3	-6.158584E-3	3.653343E-3	-5.723712E-3	-8.328287E-3	-1.051374E-2	-1.074427E-2	-1.150717E-2	-1.285561E-2	-2.333486E-3	-1.166723E-2	-8.655453E-3	-2.840765E-3	-4.740675E-3	-9.659998E-3	-8.893127E-3	-5.216960E-3	-8.448730E-3	-2.696409E-3	-7.440854E-3	-7.308695E-3	-5.603054E-4	-5.241407E-3	-1.285901E-2	-9.683688E-3	-4.171074E-3	-1.790847E-3	-1.490093E-2
5.315080E+2	-1.149010E-2	-5.144393E-3	-1.602747E-3	-4.325769E-3	5.036061E-3	2.603459E-3	-5.625710E-3	-2.426902E-3	-2.082579E-3	-1.217526E-2	1.904944E-3	2.383519E-3	-3.908407E-3	-2.432161E-3	2.133671E-3	-7.870053E-3	-4.164634E-3	-4.277240E-3	-4.114887E-3	-1.121581E-2	7.027604E-4	-1.331116E-2	-6.121267E-3	-3.208796E-3	-1.286222E-2	3.574922E-3	-1.054991E-2	-4.258433E-3	-3.005754E-3	-7.210891E-3	2.512898E-3	-1.579626E-2	-1.619319E-3	6.046888E-4	6.024388E-4	-7.350928E-3	-1.961681E-2	-1.192249E-2	-7.862799E-3	-5.534295E-3	-4.542266E-3	-1.273840E-2	-8.341117E-3	-5.386811E-3	-8.366113E-3	-2.555455E-3	8.115516E-4	1.403810E-3	-1.643996E-2	-1.491842E-2	-7.749206E-3	-9.551069E-3	-2.494166E-3	-8.610017E-3	-3.278509E-3	-5.638381E-3	-1.620282E-3	2.322654E-3	-7.203442E-3	-6.837374E-3	-5.596896E-3	-1.840434E-3	-4.734616E-3	-4.235806E-3	-5.612070E-3	-1.078988E-2	-3.432465E-3	5.943063E-3	1.337863E-3	-4.318045E-3	-1.918878E-3	8.756479E-5	4.183278E-3	-3.660158E-3	-4.737102E-3	-4.945103E-3	-3.905843E-3	-6.867310E-3	9.296097E-4	-1.378237E-2	-2.778947E-3	1.349465E-3	-4.411110E-3	-7.419337E-3	-3.002116E-4	1.448227E-3	6.082044E-4	8.994006E-4	-7.256160E-3	-7.022586E-3	4.812909E-3	2.009061E-3	6.640233E-3	9.401727E-4	-8.141627E-3	-2.895145E-3	8.865325E-3	-3.264413E-3	8.671404E-3	-1.498521E-3	-8.119374E-3	-6.636873E-3	-1.142956E-2	5.014106E-3	-1.955331E-3	-1.075703E-3	2.161779E-3	1.645853E-3	-7.503135E-3	-3.829662E-3	-3.703719E-3	-1.692681E-3	-2.420777E-3	-2.276456E-3	-4.215496E-3	-1.227928E-2	-7.708080E-3	6.311451E-3	-6.247670E-3	4.100946E-3	-6.297694E-3	-1.066507E-2	4.172696E-3	1.240411E-3	-8.426866E-3	5.122609E-3	-9.964854E-3	-3.075253E-3	-1.049682E-2	-4.910789E-3	-3.658733E-3	-6.887179E-3	-3.408200E-3	-7.399178E-3	5.781725E-3	9.002428E-5	-6.411684E-3	-1.023698E-2	1.920161E-3	-1.073576E-2	-2.363205E-8	-2.722179E-4	-9.621036E-3	9.305101E-4	-7.572014E-3	-2.293967E-3	-8.227879E-3	1.514215E-3	-5.090888E-3	-6.282643E-3	-6.433126E-3	-7.401683E-3	-6.253689E-3	-4.281327E-4	2.616743E-3	4.807474E-3	-4.114523E-3	-4.356449E-3	-9.584802E-3	1.928033E-3	-1.600825E-3	-7.100562E-3	-3.201304E-3	3.904643E-3	-1.363442E-2	-1.013338E-2	-7.143712E-4	-9.683688E-3	-3.048103E-3	-1.790831E-3	-7.947163E-3
5.320120E+2	3.404453E-3	-5.144396E-3	-1.602750E-3	-5.734180E-3	-1.047501E-2	1.928451E-3	-3.125372E-3	8.990164E-5	-3.984053E-3	5.704517E-3	-1.428708E-3	3.718330E-3	1.116663E-3	2.264447E-3	-1.058928E-2	4.843115E-3	-6.941090E-3	-6.580355E-3	6.254644E-3	1.072820E-3	-1.405478E-3	1.124252E-2	-1.644544E-3	-8.984749E-3	-5.542244E-3	-1.143983E-2	4.777325E-3	1.951790E-3	-5.720612E-3	-6.786768E-4	-2.177863E-3	1.091957E-2	-3.036257E-3	2.418660E-3	-9.639134E-3	1.812585E-3	4.577271E-3	5.780622E-3	4.937101E-3	6.284700E-3	1.678699E-3	2.657675E-3	-5.716965E-3	-5.386808E-3	4.864273E-4	1.965584E-4	1.501342E-2	6.479251E-4	2.617800E-3	-5.780878E-3	8.809618E-3	-1.024754E-2	-1.795789E-3	2.902248E-3	2.303840E-3	1.253011E-3	-2.217232E-3	-8.602514E-5	9.604615E-3	-1.663113E-3	-9.269846E-3	6.357917E-3	-1.183648E-3	-5.647706E-3	2.806053E-3	1.601608E-3	1.906949E-3	9.468551E-3	2.058212E-3	-9.869808E-3	5.673178E-3	5.603123E-3	-3.455749E-3	3.838690E-3	-2.747514E-3	4.557266E-3	5.414898E-3	-3.662577E-3	-7.352127E-3	4.890515E-3	-9.726279E-3	4.891837E-3	-3.308338E-3	1.126996E-3	-1.701213E-3	-1.255161E-3	-8.514785E-3	-4.137316E-3	-1.681332E-3	6.086251E-3	-1.434435E-2	7.634252E-3	5.242382E-4	-1.222191E-2	1.915687E-3	-8.299423E-3	-2.547480E-3	-2.149730E-3	-4.550337E-3	-4.995151E-3	8.220878E-3	6.033533E-3	-8.530049E-5	-2.410623E-3	-3.258801E-3	-3.585831E-3	-2.594090E-4	3.806007E-3	6.543425E-3	-5.577960E-3	-3.100784E-3	-3.272526E-3	-5.132018E-3	-2.866677E-3	3.884867E-3	8.321495E-3	1.075073E-2	2.016196E-3	-6.247692E-3	-7.381674E-3	-7.613639E-3	1.307984E-3	-7.891809E-3	5.168509E-4	-1.136214E-3	-3.201638E-3	9.003327E-3	-7.688344E-4	-5.095624E-4	-3.101563E-3	-5.445551E-3	-1.924367E-3	-6.916606E-3	-2.499746E-3	2.619830E-3	1.350657E-3	-2.671518E-3	1.187058E-2	5.760318E-4	-9.030334E-4	2.615428E-3	-9.073795E-4	1.868092E-4	-9.491367E-3	1.615362E-3	-5.862297E-3	1.788676E-3	-7.571009E-4	8.853627E-3	4.552648E-3	-6.433146E-3	1.032343E-2	-2.986821E-3	4.067483E-3	-5.837394E-3	-5.462809E-4	4.651225E-3	-2.367645E-3	4.940617E-3	-6.804716E-3	-2.845887E-3	-7.729692E-3	4.066558E-3	6.007129E-3	2.054512E-3	6.988532E-3	-2.143174E-3	8.069737E-3	4.812737E-3	-1.253581E-2	-1.142404E-2
5.325120E+2	1.680957E-2	3.674548E-3	1.031775E-2	1.468757E-2	1.007076E-4	8.678106E-3	6.875853E-3	5.752597E-3	4.889529E-3	1.047245E-2	-1.428705E-3	-2.288219E-3	2.791729E-3	1.677372E-3	3.793170E-3	1.261227E-2	1.388213E-2	4.935246E-3	1.201546E-2	3.120896E-3	2.108233E-3	6.205899E-3	1.050672E-2	1.283549E-3	2.227354E-2	1.136039E-2	2.687227E-3	1.330761E-3	6.496272E-3	5.090301E-4	1.926574E-3	-1.696256E-3	1.184138E-2	3.023336E-3	1.325382E-2	1.097607E-2	1.700123E-2	3.251601E-3	4.937098E-3	1.219420E-2	1.204684E-2	7.789683E-3	-4.686007E-4	4.838971E-3	3.210265E-3	5.012576E-3	-3.164996E-3	5.183175E-3	3.350839E-3	4.009363E-3	1.386718E-3	2.984719E-3	5.187815E-3	4.256661E-3	1.036725E-2	6.891350E-3	6.736960E-3	6.537860E-3	2.209037E-3	2.226759E-2	1.154359E-2	5.019290E-4	8.877299E-3	1.058950E-2	1.753769E-2	9.272549E-3	7.246300E-3	6.648154E-3	5.660117E-3	4.318042E-3	1.001177E-3	6.215972E-3	4.819916E-3	5.088505E-3	1.231646E-3	9.308461E-3	4.793513E-3	3.387889E-3	1.216901E-2	-5.557405E-4	-3.473674E-3	1.939849E-3	2.205551E-3	5.728858E-3	9.506665E-3	6.179092E-3	1.824597E-3	3.417802E-3	6.990717E-3	3.464528E-3	6.134101E-3	5.524819E-3	-9.261382E-3	-2.563982E-4	1.063197E-2	8.588927E-3	1.019025E-3	1.289838E-2	5.065484E-3	-4.995147E-3	1.035215E-2	-1.810079E-3	5.885360E-3	3.664169E-3	9.776442E-3	7.709482E-3	5.188292E-3	1.100650E-2	9.596998E-3	6.660277E-3	7.751987E-3	1.489555E-2	9.102085E-3	5.396108E-3	3.884888E-3	4.769698E-3	1.014591E-4	-2.892772E-3	1.346332E-2	7.689213E-3	1.597916E-3	4.125197E-3	1.623718E-2	1.426488E-2	8.805551E-3	1.088557E-2	1.048939E-3	1.537659E-3	2.231848E-2	9.563099E-3	5.871005E-3	5.165375E-3	-6.014292E-4	2.399737E-3	8.943555E-3	7.023335E-3	1.353577E-2	5.009574E-3	9.312885E-3	6.822747E-3	1.242316E-2	7.349884E-3	8.033115E-3	1.135243E-2	-5.047977E-4	-5.097932E-4	8.675030E-3	6.814050E-3	1.106733E-3	1.538797E-2	8.154702E-3	1.100515E-2	8.773834E-3	4.067493E-3	6.139385E-3	-5.462985E-4	3.398965E-3	1.685763E-2	9.090727E-3	1.780566E-2	4.002041E-3	7.370227E-3	5.277810E-3	6.707994E-3	9.898987E-3	5.765560E-3	-2.143138E-3	1.049066E-2	3.208598E-4	1.432663E-2	1.639102E-2
5.330230E+2	2.202269E-2	2.351727E-2	1.101896E-2	2.032114E-2	2.618749E-2	1.475282E-2	1.750218E-2	1.015692E-2	1.883375E-2	1.822034E-2	1.590629E-2	1.573137E-2	1.954215E-2	1.107057E-2	1.928200E-2	1.473110E-2	1.804679E-2	2.048137E-2	1.777632E-2	1.267872E-2	3.162328E-2	2.068625E-2	2.137885E-2	1.861120E-2	8.365659E-3	1.525309E-2	1.871111E-2	1.934048E-2	2.210672E-2	1.891801E-2	2.010318E-2	1.908278E-2	2.175980E-2	1.814005E-2	2.590517E-2	1.379556E-2	2.484795E-2	2.221917E-2	1.261703E-2	1.285084E-2	1.204688E-2	1.741217E-2	3.036551E-2	2.848612E-2	1.819136E-2	1.120457E-2	1.274111E-2	1.576552E-2	1.947664E-2	1.836829E-2	1.737457E-2	3.432424E-2	2.055172E-2	1.035137E-2	1.656995E-2	1.942110E-2	1.688515E-2	2.400084E-2	1.968940E-2	8.038515E-3	1.827735E-2	2.392583E-2	2.130560E-2	2.753262E-2	2.244827E-2	2.225410E-2	1.311966E-2	1.863487E-2	3.087338E-2	2.405773E-2	2.494533E-2	1.357005E-2	1.755167E-2	1.258740E-2	2.576977E-2	2.288330E-2	4.172126E-3	3.094871E-2	1.926769E-2	2.434147E-2	2.084202E-2	1.315734E-2	1.764446E-2	2.282161E-2	1.721204E-2	2.848180E-2	2.189513E-2	5.306548E-3	3.300680E-2	1.001888E-2	1.604303E-2	5.524803E-3	1.214463E-2	2.427290E-2	2.672367E-2	2.750382E-2	1.956487E-2	1.512776E-2	1.828718E-2	2.157911E-2	3.024460E-2	1.749727E-2	3.335039E-2	2.188857E-2	1.303527E-2	1.272960E-2	1.305719E-2	1.244663E-2	1.142916E-2	2.122964E-2	2.342827E-2	1.331576E-2	2.062495E-2	5.986299E-3	1.892846E-2	2.466000E-2	1.998014E-2	1.612929E-2	1.531122E-2	1.773651E-2	2.067901E-2	1.821108E-2	1.179235E-2	1.788282E-2	2.073571E-2	1.152591E-2	1.818151E-2	1.845161E-2	1.304460E-2	2.041851E-2	1.480513E-2	1.225514E-2	3.097432E-2	2.339743E-2	1.906154E-2	2.404149E-2	2.724965E-2	1.644452E-2	2.342616E-2	3.491626E-2	1.438472E-2	2.894579E-2	1.522551E-2	1.786613E-2	2.140352E-2	1.079005E-2	1.869159E-2	1.589946E-2	2.124882E-2	1.730009E-2	2.274249E-2	7.596500E-3	1.792097E-2	1.081093E-2	2.234320E-2	2.851708E-2	2.155650E-2	1.818353E-2	1.600760E-2	1.701180E-2	2.579084E-2	2.184093E-2	1.739084E-2	2.212633E-2	1.708969E-2	2.044149E-2	3.000428E-2	3.066492E-2	1.379664E-2	1.790832E-2	3.377539E-2
5.331580E+2	2.798056E-2	3.086645E-2	2.293944E-2	3.229245E-2	2.054712E-2	3.365183E-2	9.376165E-3	2.399909E-2	3.087648E-2	2.596823E-2	4.057533E-2	2.774440E-2	2.791738E-2	2.163794E-2	2.702640E-2	1.826255E-2	2.290557E-2	2.739072E-2	2.468936E-2	2.155378E-2	3.232609E-2	2.761163E-2	3.353010E-2	2.759595E-2	2.520154E-2	1.636531E-2	3.612840E-2	3.113995E-2	3.432376E-2	1.713648E-2	2.010320E-2	2.873017E-2	1.609215E-2	1.995403E-2	3.313452E-2	1.379561E-2	1.503958E-2	3.359978E-2	2.861687E-2	6.284676E-3	2.103264E-2	3.665726E-2	2.446109E-2	2.017766E-2	2.704388E-2	2.014865E-2	3.660027E-2	2.030083E-2	3.047156E-2	2.554779E-2	1.280661E-2	2.944925E-2	3.312215E-2	2.254085E-2	2.339284E-2	3.195088E-2	2.763020E-2	2.038781E-2	3.784203E-2	3.584988E-2	3.725439E-2	2.041225E-2	2.189735E-2	3.247446E-2	2.104522E-2	1.399307E-2	2.860385E-2	1.863494E-2	2.294923E-2	3.146008E-2	2.611337E-2	2.705257E-2	2.328098E-2	1.571192E-2	2.245381E-2	2.491952E-2	2.405641E-2	3.094872E-2	2.636628E-2	2.978771E-2	2.431562E-2	2.673640E-2	2.205557E-2	1.756230E-2	1.300908E-2	3.186100E-2	3.040995E-2	2.860147E-2	2.867077E-2	1.788424E-2	2.727312E-2	3.294789E-2	2.743460E-2	3.264872E-2	9.291014E-3	2.682825E-2	6.725449E-3	1.791444E-2	1.047437E-2	8.291934E-3	7.510396E-3	3.559794E-2	1.782670E-2	1.446384E-2	2.215992E-2	4.034028E-2	2.758442E-2	2.108728E-2	3.463650E-2	1.365355E-2	3.186935E-2	2.990400E-2	2.740314E-2	2.428246E-2	1.777121E-2	3.744677E-2	1.927013E-2	2.410633E-2	2.516675E-2	1.343047E-2	2.199498E-2	2.736693E-2	1.369723E-2	1.788278E-2	1.145675E-2	2.433247E-2	1.389834E-2	3.152150E-2	2.873886E-2	3.368628E-2	1.659192E-2	3.210642E-2	3.378108E-2	3.809584E-2	2.222344E-2	2.404147E-2	2.600295E-2	2.254308E-2	2.140999E-2	2.157183E-2	2.353867E-2	7.985011E-3	1.784094E-2	2.698529E-2	3.765818E-2	2.030571E-2	2.369987E-2	3.558451E-2	2.512230E-2	2.686067E-2	2.147403E-2	1.714079E-2	2.445464E-2	2.729491E-2	3.220644E-2	3.081161E-2	2.218266E-2	3.011649E-2	2.430785E-2	3.209561E-2	3.450640E-2	2.435755E-2	1.739087E-2	3.544218E-2	1.055268E-2	3.389447E-2	1.071579E-2	2.340223E-2	3.737927E-2	2.328075E-2	1.639103E-2
5.333080E+2	4.287510E-2	3.160135E-2	2.574428E-2	2.243373E-2	5.156927E-2	3.162697E-2	2.562817E-2	2.966186E-2	4.038387E-2	3.490818E-2	2.990756E-2	1.639879E-2	4.578448E-2	3.807603E-2	3.200489E-2	4.722025E-2	2.845842E-2	3.314854E-2	4.773273E-2	2.291919E-2	2.810962E-2	3.264828E-2	2.841378E-2	3.465538E-2	3.984147E-2	2.748735E-2	4.518535E-2	3.238195E-2	3.839592E-2	2.545024E-2	3.358908E-2	3.837756E-2	2.671897E-2	1.934937E-2	3.012225E-2	3.423728E-2	4.315698E-2	3.359979E-2	4.269675E-2	3.320574E-2	2.587118E-2	3.024218E-2	3.364574E-2	2.145590E-2	2.840580E-2	1.808460E-2	2.580686E-2	1.954503E-2	4.366537E-2	3.468530E-2	3.793040E-2	2.805637E-2	3.940740E-2	3.743902E-2	2.959545E-2	3.696278E-2	2.225765E-2	2.219428E-2	4.590984E-2	3.584989E-2	2.990843E-2	2.451146E-2	2.663197E-2	2.682669E-2	3.858292E-2	3.228527E-2	3.073964E-2	3.414722E-2	3.879754E-2	4.996607E-2	3.312139E-2	3.624522E-2	3.601281E-2	3.445906E-2	2.444336E-2	3.170692E-2	3.089160E-2	2.774397E-2	3.464800E-2	4.379234E-2	3.265248E-2	3.027877E-2	2.922361E-2	3.859951E-2	2.701889E-2	2.307506E-2	3.284273E-2	4.245253E-2	2.495420E-2	4.344651E-2	3.916387E-2	3.787004E-2	4.333619E-2	2.786255E-2	2.471217E-2	3.088148E-2	1.742498E-2	2.906124E-2	2.549905E-2	2.227836E-2	2.385057E-2	3.740801E-2	2.558852E-2	2.728843E-2	2.737401E-2	3.971277E-2	4.876998E-2	1.676696E-2	4.318655E-2	2.938851E-2	1.679604E-2	3.701324E-2	4.163720E-2	3.313549E-2	3.050040E-2	2.892226E-2	3.630900E-2	2.103825E-2	1.900705E-2	1.558354E-2	2.923266E-2	4.356576E-2	2.576169E-2	2.439503E-2	2.206126E-2	3.841969E-2	1.940524E-2	3.767202E-2	3.230577E-2	4.032014E-2	1.540070E-2	3.210647E-2	4.009619E-2	3.599607E-2	3.107661E-2	3.034448E-2	2.974309E-2	3.321571E-2	3.619536E-2	3.491626E-2	3.596178E-2	1.560709E-2	3.287967E-2	4.066404E-2	3.341781E-2	2.268456E-2	2.683006E-2	4.618410E-2	3.131983E-2	3.769598E-2	2.401098E-2	4.304677E-2	2.445464E-2	4.377886E-2	2.868387E-2	5.299154E-2	3.846189E-2	3.674593E-2	3.468311E-2	2.653843E-2	2.828095E-2	2.058261E-2	3.071517E-2	5.296303E-2	4.127680E-2	3.083696E-2	3.571937E-2	3.712078E-2	2.165750E-2	3.760746E-2	4.768296E-2
5.334580E+2	4.659872E-2	3.748069E-2	4.607920E-2	3.299668E-2	5.156925E-2	3.972655E-2	3.750468E-2	3.721212E-2	4.608840E-2	3.669616E-2	4.924278E-2	4.910094E-2	3.573424E-2	3.983727E-2	4.140883E-2	4.439513E-2	5.066980E-2	3.487588E-2	5.349359E-2	3.589051E-2	2.881234E-2	3.012995E-2	5.207665E-2	5.134127E-2	4.935742E-2	5.306810E-2	6.329937E-2	4.418143E-2	3.364488E-2	3.851476E-2	3.886616E-2	6.880393E-2	6.426736E-2	4.474538E-2	3.253208E-2	3.635189E-2	5.231156E-2	4.624487E-2	5.549666E-2	3.451901E-2	4.591636E-2	5.141176E-2	4.479850E-2	5.021593E-2	3.793918E-2	6.349287E-2	6.159562E-2	4.222144E-2	6.272315E-2	3.468529E-2	4.021435E-2	4.616360E-2	4.150247E-2	4.353379E-2	3.827918E-2	4.260118E-2	3.359966E-2	4.086161E-2	4.658221E-2	3.973057E-2	4.827331E-2	3.153860E-2	5.503936E-2	4.871161E-2	4.138898E-2	4.231646E-2	4.302028E-2	3.696766E-2	4.960328E-2	4.009621E-2	4.188151E-2	4.053509E-2	2.837371E-2	4.320774E-2	3.041206E-2	2.763448E-2	5.201877E-2	3.992202E-2	4.884520E-2	5.001669E-2	4.237875E-2	3.441153E-2	3.418614E-2	3.136800E-2	3.472428E-2	4.605362E-2	3.466736E-2	4.874841E-2	3.982057E-2	3.295945E-2	5.699995E-2	4.208893E-2	4.517107E-2	3.922973E-2	3.074656E-2	4.709424E-2	4.667040E-2	3.073320E-2	3.872076E-2	2.437635E-2	3.024461E-2	3.801134E-2	4.350054E-2	4.146295E-2	3.193638E-2	5.226315E-2	4.332220E-2	4.844934E-2	4.013299E-2	3.871293E-2	3.548696E-2	5.439142E-2	3.960382E-2	4.316887E-2	4.265096E-2	4.952304E-2	3.204935E-2	6.215041E-2	4.610969E-2	5.290194E-2	3.186450E-2	5.624307E-2	4.544587E-2	5.261475E-2	3.929370E-2	4.610361E-2	4.143282E-2	4.920423E-2	3.801275E-2	5.479413E-2	3.565137E-2	6.542831E-2	4.851643E-2	4.229536E-2	5.004786E-2	3.097483E-2	3.098982E-2	4.465061E-2	3.014677E-2	5.107003E-2	4.969268E-2	1.941810E-2	3.614894E-2	4.196675E-2	4.331190E-2	4.468949E-2	4.060277E-2	5.148397E-2	5.068725E-2	4.470707E-2	3.796459E-2	3.282073E-2	2.706812E-2	5.576722E-2	4.629678E-2	5.681572E-2	3.971416E-2	5.265656E-2	4.713344E-2	4.479775E-2	5.318246E-2	4.071578E-2	4.282824E-2	4.034800E-2	4.389157E-2	3.695197E-2	3.857696E-2	3.873466E-2	3.176435E-2	4.477081E-2	3.377540E-2
5.336130E+2	6.968529E-2	5.658866E-2	5.239007E-2	6.327710E-2	6.355506E-2	7.684967E-2	5.313165E-2	4.413326E-2	4.735609E-2	5.695992E-2	6.524433E-2	6.511835E-2	4.578460E-2	5.157888E-2	6.187621E-2	5.710827E-2	5.761088E-2	5.790711E-2	6.271094E-2	6.729469E-2	6.043571E-2	4.901737E-2	7.382097E-2	6.225133E-2	6.985343E-2	7.141953E-2	8.141334E-2	5.411783E-2	5.807883E-2	6.345595E-2	6.935614E-2	7.474087E-2	5.222357E-2	6.107154E-2	5.361771E-2	6.807171E-2	6.800504E-2	7.153502E-2	7.597656E-2	5.224745E-2	5.282856E-2	6.231724E-2	5.463915E-2	4.510301E-2	7.062522E-2	7.037283E-2	6.784446E-2	7.170092E-2	5.466029E-2	5.491838E-2	5.620224E-2	5.939591E-2	6.315160E-2	5.978640E-2	6.433043E-2	6.202239E-2	6.046241E-2	6.253975E-2	6.473487E-2	4.878544E-2	5.010983E-2	6.316101E-2	7.871209E-2	5.718320E-2	4.419501E-2	6.827946E-2	4.889360E-2	5.953105E-2	7.481672E-2	5.551788E-2	7.400180E-2	5.830746E-2	6.465930E-2	5.258132E-2	5.892942E-2	5.410541E-2	5.885385E-2	5.594573E-2	6.954954E-2	7.024560E-2	5.557873E-2	4.621940E-2	5.844734E-2	4.714591E-2	5.854100E-2	4.605359E-2	6.751006E-2	5.063724E-2	4.725368E-2	5.458902E-2	5.766055E-2	5.193317E-2	6.718857E-2	5.657975E-2	5.354305E-2	5.587615E-2	4.167730E-2	6.417362E-2	5.614937E-2	4.465671E-2	6.292505E-2	6.636888E-2	5.484480E-2	5.833743E-2	5.474807E-2	6.042091E-2	7.782444E-2	5.636989E-2	5.601169E-2	5.561344E-2	6.322195E-2	5.202166E-2	6.264951E-2	6.028464E-2	6.058768E-2	6.515123E-2	6.328724E-2	4.803730E-2	6.828462E-2	5.936088E-2	5.357747E-2	6.187740E-2	4.862079E-2	6.780995E-2	6.447945E-2	6.531347E-2	5.734167E-2	5.227957E-2	5.085348E-2	6.323719E-2	5.351959E-2	8.102579E-2	4.781475E-2	8.009132E-2	5.637159E-2	5.807788E-2	6.278106E-2	4.312599E-2	8.122368E-2	5.107008E-2	4.773113E-2	5.371760E-2	7.407274E-2	5.499413E-2	7.723460E-2	6.847848E-2	6.376603E-2	6.965483E-2	6.540651E-2	5.554242E-2	5.826065E-2	6.281706E-2	5.646977E-2	7.300049E-2	6.813674E-2	8.664397E-2	5.411499E-2	7.718536E-2	6.027548E-2	6.226329E-2	3.512889E-2	6.147803E-2	5.615254E-2	5.646722E-2	3.931567E-2	6.141197E-2	6.572368E-2	5.729502E-2	6.882275E-2	4.477072E-2	5.463665E-2
5.337740E+2	9.351665E-2	7.496147E-2	6.992024E-2	7.736106E-2	8.118129E-2	8.427426E-2	7.688461E-2	6.678410E-2	6.954007E-2	6.530381E-2	8.324606E-2	1.084986E-1	8.319387E-2	8.093252E-2	8.787512E-2	8.041573E-2	7.912821E-2	9.245393E-2	1.013087E-1	6.661208E-2	8.573467E-2	8.238526E-2	1.249838E-1	8.984715E-2	1.159690E-1	7.253158E-2	8.907694E-2	8.020078E-2	1.069461E-1	9.433572E-2	7.287403E-2	8.513031E-2	7.206039E-2	7.135091E-2	8.193264E-2	6.666210E-2	1.033153E-1	8.987032E-2	1.079763E-1	7.457239E-2	7.218253E-2	9.759993E-2	9.400175E-2	7.450230E-2	8.083985E-2	8.413261E-2	1.047693E-1	9.437750E-2	1.059701E-1	8.363622E-2	9.331706E-2	9.561041E-2	1.099417E-1	7.603922E-2	8.728015E-2	8.269621E-2	8.613117E-2	7.759423E-2	1.339839E-1	7.918380E-2	8.439062E-2	8.131431E-2	8.226322E-2	8.542193E-2	8.909163E-2	8.303122E-2	6.864945E-2	8.138940E-2	7.337587E-2	7.834188E-2	8.509784E-2	7.791832E-2	8.375708E-2	7.820252E-2	7.683569E-2	8.397000E-2	7.376703E-2	9.632558E-2	8.138056E-2	1.044792E-1	6.738917E-2	8.577570E-2	8.105425E-2	5.897921E-2	9.006317E-2	7.849391E-2	7.359213E-2	7.770980E-2	8.751657E-2	7.818510E-2	9.465407E-2	5.896475E-2	8.247861E-2	8.828837E-2	8.237395E-2	8.289750E-2	9.731489E-2	7.977897E-2	6.576517E-2	7.193026E-2	7.287122E-2	9.110667E-2	1.014158E-1	7.048708E-2	7.430088E-2	7.422602E-2	7.056079E-2	6.573059E-2	8.471532E-2	8.475206E-2	8.251591E-2	8.756780E-2	7.891699E-2	6.677675E-2	8.431015E-2	9.285569E-2	7.109676E-2	7.565009E-2	8.676369E-2	8.304379E-2	8.318614E-2	8.300638E-2	7.338462E-2	9.458262E-2	5.453772E-2	9.348785E-2	7.936935E-2	9.456439E-2	1.015030E-1	8.916963E-2	7.674838E-2	8.031680E-2	9.623112E-2	7.799150E-2	6.396013E-2	7.572615E-2	9.270226E-2	9.725132E-2	1.040736E-1	8.267525E-2	8.565448E-2	8.484115E-2	1.106887E-1	6.867280E-2	9.066219E-2	8.037296E-2	9.631990E-2	7.646883E-2	7.857636E-2	8.996047E-2	9.060764E-2	7.917879E-2	6.823034E-2	1.022221E-1	8.645426E-2	7.746588E-2	7.415085E-2	8.911842E-2	1.038518E-1	9.163704E-2	8.057430E-2	5.644484E-2	7.068820E-2	7.188555E-2	8.246016E-2	8.220293E-2	8.429785E-2	9.602977E-2	1.114961E-1	1.110315E-1	1.137436E-1
5.339090E+2	1.255401E-1	1.300803E-1	1.056818E-1	8.088205E-2	9.951267E-2	1.018235E-1	8.813606E-2	1.139735E-1	1.139079E-1	9.331539E-2	1.045815E-1	1.038270E-1	9.994422E-2	9.560943E-2	1.028108E-1	1.242055E-1	1.270216E-1	1.091515E-1	1.174390E-1	1.184972E-1	1.342236E-1	9.497662E-2	1.895775E-1	1.289949E-1	1.547649E-1	1.353712E-1	1.622293E-1	1.050416E-1	1.334163E-1	1.097756E-1	1.221271E-1	1.289145E-1	1.514077E-1	1.221430E-1	1.168747E-1	1.131842E-1	1.327405E-1	1.297023E-1	1.335760E-1	1.356370E-1	1.171116E-1	1.251842E-1	1.071227E-1	1.026231E-1	1.346357E-1	1.405491E-1	1.360135E-1	1.389743E-1	1.235616E-1	1.123543E-1	1.098758E-1	1.353072E-1	1.294959E-1	1.268284E-1	1.238757E-1	1.065028E-1	1.141878E-1	1.071007E-1	1.541537E-1	1.128164E-1	1.174473E-1	1.064953E-1	1.106706E-1	1.411930E-1	1.150477E-1	9.896329E-2	1.113642E-1	1.166445E-1	1.331675E-1	1.209056E-1	1.137142E-1	1.208175E-1	1.085841E-1	1.044484E-1	1.192801E-1	1.097621E-1	1.178853E-1	1.072220E-1	1.269301E-1	1.620544E-1	9.378885E-2	1.129337E-1	9.539059E-2	8.593329E-2	1.440007E-1	1.014723E-1	1.021777E-1	1.060412E-1	9.742743E-2	1.083354E-1	1.342894E-1	1.088889E-1	1.020497E-1	1.223901E-1	1.232735E-1	1.227538E-1	1.122946E-1	1.260382E-1	1.096371E-1	1.013017E-1	1.204706E-1	1.073973E-1	1.181340E-1	9.748634E-2	1.212279E-1	1.206625E-1	1.153530E-1	1.139740E-1	1.299085E-1	1.092286E-1	1.331624E-1	1.088958E-1	1.182305E-1	8.979458E-2	1.138188E-1	1.155878E-1	1.314428E-1	1.204438E-1	1.243380E-1	1.232329E-1	1.272700E-1	1.224471E-1	1.318022E-1	1.235259E-1	1.194908E-1	1.248637E-1	1.295434E-1	1.283924E-1	1.336053E-1	1.229420E-1	1.023595E-1	1.136386E-1	1.397352E-1	1.164874E-1	1.170796E-1	1.211080E-1	1.107796E-1	1.277444E-1	1.060899E-1	1.044478E-1	1.196547E-1	1.267625E-1	1.446895E-1	1.084063E-1	1.330656E-1	1.154622E-1	1.100927E-1	1.324952E-1	1.444256E-1	1.141804E-1	1.058295E-1	9.281349E-2	9.175149E-2	1.314434E-1	1.449293E-1	1.264149E-1	1.017004E-1	1.288951E-1	1.391278E-1	1.281555E-1	9.925009E-2	1.092944E-1	1.221685E-1	1.195425E-1	1.334490E-1	1.225615E-1	1.293040E-1	1.379922E-1	1.137420E-1	1.289398E-1	1.380818E-1
5.340590E+2	1.888416E-1	1.491877E-1	1.568699E-1	1.548227E-1	1.679021E-1	1.652701E-1	1.312664E-1	1.680841E-1	1.620787E-1	1.445712E-1	1.652535E-1	1.678965E-1	1.557789E-1	1.684063E-1	1.902121E-1	1.814146E-1	1.721385E-1	1.811244E-1	1.779277E-1	1.649209E-1	1.827124E-1	1.585647E-1	2.803916E-1	1.950968E-1	1.928287E-1	2.082208E-1	2.423486E-1	1.777013E-1	2.270789E-1	1.851931E-1	2.030423E-1	2.187095E-1	2.293383E-1	1.989360E-1	1.644678E-1	2.196217E-1	1.981297E-1	1.935602E-1	1.886154E-1	1.789735E-1	1.765557E-1	2.021645E-1	2.035614E-1	1.524736E-1	2.068177E-1	2.334293E-1	2.002062E-1	2.153184E-1	2.100544E-1	2.148252E-1	1.812503E-1	2.077363E-1	2.244722E-1	2.053829E-1	1.697752E-1	1.923317E-1	1.738825E-1	1.775547E-1	2.254196E-1	1.884894E-1	1.578501E-1	1.738392E-1	1.852402E-1	2.012001E-1	1.929148E-1	1.662312E-1	1.775732E-1	2.012570E-1	2.016032E-1	1.795076E-1	1.756188E-1	2.151950E-1	1.690598E-1	1.763123E-1	1.962104E-1	1.484506E-1	1.924512E-1	1.610616E-1	1.914091E-1	1.962876E-1	1.597888E-1	1.719730E-1	1.637626E-1	1.575912E-1	2.007405E-1	1.643255E-1	1.782021E-1	1.696303E-1	1.729981E-1	1.692916E-1	2.023311E-1	1.883454E-1	1.791114E-1	1.852090E-1	1.889810E-1	1.815251E-1	1.800578E-1	1.689530E-1	1.607212E-1	1.523526E-1	1.900943E-1	1.773865E-1	1.700783E-1	2.075079E-1	1.486018E-1	2.060043E-1	1.813308E-1	1.607777E-1	1.775451E-1	1.698373E-1	1.819998E-1	1.934165E-1	1.914345E-1	1.529461E-1	1.543206E-1	1.908873E-1	1.910791E-1	1.701467E-1	1.847029E-1	1.770571E-1	1.884611E-1	2.104840E-1	1.972044E-1	1.770708E-1	1.990251E-1	2.074659E-1	1.864476E-1	2.198815E-1	2.135031E-1	1.796319E-1	1.583465E-1	1.887904E-1	1.972736E-1	2.081771E-1	2.049795E-1	1.778350E-1	1.774789E-1	1.948293E-1	1.974904E-1	1.817049E-1	1.713089E-1	2.074297E-1	2.316521E-1	1.631215E-1	2.122181E-1	1.838559E-1	1.739481E-1	1.673232E-1	1.971052E-1	1.995883E-1	1.781346E-1	1.896202E-1	1.629688E-1	2.048724E-1	1.914274E-1	2.044270E-1	1.787136E-1	2.203805E-1	2.076050E-1	2.107198E-1	1.783126E-1	1.703232E-1	1.754661E-1	1.580883E-1	1.765936E-1	1.684239E-1	1.807401E-1	1.759199E-1	1.867360E-1	1.665472E-1	1.971887E-1
5.342090E+2	3.050193E-1	2.851470E-1	3.111350E-1	2.463679E-1	2.934010E-1	3.299618E-1	2.419050E-1	2.870008E-1	3.015212E-1	2.530416E-1	3.326031E-1	2.880268E-1	3.059743E-1	2.946282E-1	3.102502E-1	3.000704E-1	3.227603E-1	2.813101E-1	2.891119E-1	2.912205E-1	3.239635E-1	2.983319E-1	4.549854E-1	3.670901E-1	3.641155E-1	3.010896E-1	4.269714E-1	3.074954E-1	3.967579E-1	3.140562E-1	3.719094E-1	3.671308E-1	3.476511E-1	3.355911E-1	3.132722E-1	3.429766E-1	3.727194E-1	3.250689E-1	3.204542E-1	3.155488E-1	3.272407E-1	3.157101E-1	3.669164E-1	2.655964E-1	3.443716E-1	3.386928E-1	3.030279E-1	3.687628E-1	3.581188E-1	3.310025E-1	2.708963E-1	3.498092E-1	3.606524E-1	3.259232E-1	3.291836E-1	3.395563E-1	2.962573E-1	2.841390E-1	3.383691E-1	2.874458E-1	3.102785E-1	3.143822E-1	3.166245E-1	3.416874E-1	3.353211E-1	3.031276E-1	2.854287E-1	3.458039E-1	3.456794E-1	3.158347E-1	2.976754E-1	3.199911E-1	3.084729E-1	2.712982E-1	3.494080E-1	3.093121E-1	3.098922E-1	3.264264E-1	3.351559E-1	3.324438E-1	3.418092E-1	2.918231E-1	2.839654E-1	2.903886E-1	2.946061E-1	2.785420E-1	2.992336E-1	2.854753E-1	2.721069E-1	2.892378E-1	3.205778E-1	2.825687E-1	3.265070E-1	3.072572E-1	2.908946E-1	2.815034E-1	3.355582E-1	3.094023E-1	2.965443E-1	2.810272E-1	3.321831E-1	3.040906E-1	3.056124E-1	3.094294E-1	3.095877E-1	3.051520E-1	3.163127E-1	2.752662E-1	3.161778E-1	3.219416E-1	3.128364E-1	3.656179E-1	3.317423E-1	2.804294E-1	2.816123E-1	3.194641E-1	3.281001E-1	2.928694E-1	3.097449E-1	2.926011E-1	3.318983E-1	3.421872E-1	3.273734E-1	3.015269E-1	3.627326E-1	3.169621E-1	3.400286E-1	3.467365E-1	3.219363E-1	3.358290E-1	2.655559E-1	3.362570E-1	3.334003E-1	3.061665E-1	2.941445E-1	3.146101E-1	3.239681E-1	3.442452E-1	3.453441E-1	3.102327E-1	3.066562E-1	3.281128E-1	3.192693E-1	2.894867E-1	3.641633E-1	3.105324E-1	3.085455E-1	3.020898E-1	3.613405E-1	3.009304E-1	2.910319E-1	3.041516E-1	2.648947E-1	3.329980E-1	3.323301E-1	3.420957E-1	3.127038E-1	3.324176E-1	3.362579E-1	3.758477E-1	3.158934E-1	2.810559E-1	2.935678E-1	3.227843E-1	3.197547E-1	3.286367E-1	3.086157E-1	2.985797E-1	2.911735E-1	3.169769E-1	4.023244E-1
5.343600E+2	5.783350E-1	5.680897E-1	5.397284E-1	4.942457E-1	5.556787E-1	5.108522E-1	4.044256E-1	4.770167E-1	5.373056E-1	4.675990E-1	5.806265E-1	5.403008E-1	5.287551E-1	4.854279E-1	5.591775E-1	5.472707E-1	5.747205E-1	4.672870E-1	5.690887E-1	5.308485E-1	6.085733E-1	5.363131E-1	7.408595E-1	6.244385E-1	6.356860E-1	5.563411E-1	6.826576E-1	6.037246E-1	6.404167E-1	5.581242E-1	5.835794E-1	6.506161E-1	6.501631E-1	5.272703E-1	5.644916E-1	5.925063E-1	5.891579E-1	5.615319E-1	5.822113E-1	5.716270E-1	5.346051E-1	5.485754E-1	5.656978E-1	4.995118E-1	6.242459E-1	6.544862E-1	5.847930E-1	6.166919E-1	6.417866E-1	5.418180E-1	5.364090E-1	6.228113E-1	6.134579E-1	5.433017E-1	5.394536E-1	5.462973E-1	5.201128E-1	4.858661E-1	6.093147E-1	5.293407E-1	5.698347E-1	4.976745E-1	5.580875E-1	6.134841E-1	5.689232E-1	5.485966E-1	5.075478E-1	5.911803E-1	5.999729E-1	5.817039E-1	5.090855E-1	5.810615E-1	5.395549E-1	4.981386E-1	5.695876E-1	5.848817E-1	5.323476E-1	5.199932E-1	5.457480E-1	6.140938E-1	5.801027E-1	5.132205E-1	4.995585E-1	4.790661E-1	5.734014E-1	5.164373E-1	5.181851E-1	4.831675E-1	5.161623E-1	4.773498E-1	5.332893E-1	5.483624E-1	5.595263E-1	5.316105E-1	5.114844E-1	5.638763E-1	5.516892E-1	4.888652E-1	4.990769E-1	5.027125E-1	5.566834E-1	4.802701E-1	5.145854E-1	5.422970E-1	5.350975E-1	5.498828E-1	5.778029E-1	5.028027E-1	5.757338E-1	5.474752E-1	5.883774E-1	6.318202E-1	5.588106E-1	4.574892E-1	5.055299E-1	5.560181E-1	5.581246E-1	5.223619E-1	5.031590E-1	5.387593E-1	5.694254E-1	5.802393E-1	5.692983E-1	5.620161E-1	5.695213E-1	5.987064E-1	5.547981E-1	6.396552E-1	5.958723E-1	5.444946E-1	5.127332E-1	5.751817E-1	6.126700E-1	5.490396E-1	5.470937E-1	5.383669E-1	5.296760E-1	6.026752E-1	5.684688E-1	5.574561E-1	5.655811E-1	5.567757E-1	6.161206E-1	5.389610E-1	6.108089E-1	5.276080E-1	5.470643E-1	5.678376E-1	6.317096E-1	5.577913E-1	5.434646E-1	5.516221E-1	4.785460E-1	6.094788E-1	5.627070E-1	5.837811E-1	5.111849E-1	6.068756E-1	6.108573E-1	6.441808E-1	5.051447E-1	5.213960E-1	5.461247E-1	5.365380E-1	5.694701E-1	4.808994E-1	5.279326E-1	5.519689E-1	5.629353E-1	5.712751E-1	6.804763E-1
5.345110E+2	1.031874E+0	8.355996E-1	8.664901E-1	8.012755E-1	9.293543E-1	9.124569E-1	7.038382E-1	8.325091E-1	8.605579E-1	7.965871E-1	9.033238E-1	8.639850E-1	8.866556E-1	8.975554E-1	9.043560E-1	9.208962E-1	9.412089E-1	8.651518E-1	9.245332E-1	9.015545E-1	9.732959E-1	8.901377E-1	1.122663E+0	9.267104E-1	1.027304E+0	8.727636E-1	1.095795E+0	9.757181E-1	1.051718E+0	9.286799E-1	1.022165E+0	1.014248E+0	1.022813E+0	9.039787E-1	8.898126E-1	9.780780E-1	1.013536E+0	8.833492E-1	9.745277E-1	9.222572E-1	9.030227E-1	9.232121E-1	9.855664E-1	8.369621E-1	1.036908E+0	1.055590E+0	9.756290E-1	9.840508E-1	1.073519E+0	9.510490E-1	8.538826E-1	9.738141E-1	1.037362E+0	9.015368E-1	9.575119E-1	8.846012E-1	8.317200E-1	8.260929E-1	1.026153E+0	9.167597E-1	8.942801E-1	8.215100E-1	9.404035E-1	9.883515E-1	9.330059E-1	9.085396E-1	8.086894E-1	9.423222E-1	9.796133E-1	9.043241E-1	8.548164E-1	9.395735E-1	9.208720E-1	8.212145E-1	8.978679E-1	9.378271E-1	9.045560E-1	8.757202E-1	8.793827E-1	1.010114E+0	8.975963E-1	8.438411E-1	8.077854E-1	8.156613E-1	9.208444E-1	8.381368E-1	8.636419E-1	8.527381E-1	8.419831E-1	8.168691E-1	9.587128E-1	8.598606E-1	8.445316E-1	9.001478E-1	9.064003E-1	8.739451E-1	9.054878E-1	8.533646E-1	8.079845E-1	8.341910E-1	9.460062E-1	8.603838E-1	8.399867E-1	8.885614E-1	7.964547E-1	8.862314E-1	8.689522E-1	8.685904E-1	8.926968E-1	8.796574E-1	9.073294E-1	1.010980E+0	9.343197E-1	8.287241E-1	8.364880E-1	8.877616E-1	9.123920E-1	8.414415E-1	8.283910E-1	8.975901E-1	8.484041E-1	9.887313E-1	9.026585E-1	9.071644E-1	9.413436E-1	9.303962E-1	9.610846E-1	1.033290E+0	9.489939E-1	8.659356E-1	8.027939E-1	9.459758E-1	9.873698E-1	9.808924E-1	8.000435E-1	8.812514E-1	8.793802E-1	9.670673E-1	9.676737E-1	9.339097E-1	8.513145E-1	8.857957E-1	9.737800E-1	8.398937E-1	1.041909E+0	8.261610E-1	8.832449E-1	9.463964E-1	1.045397E+0	8.356856E-1	8.421975E-1	8.972627E-1	7.679886E-1	9.871127E-1	9.269418E-1	9.424849E-1	8.254996E-1	9.522684E-1	9.691514E-1	1.027627E+0	8.898730E-1	8.259112E-1	9.204176E-1	8.813491E-1	8.904389E-1	8.392371E-1	8.629800E-1	9.457715E-1	8.650173E-1	9.151153E-1	1.052501E+0
5.346560E+2	1.316362E+0	1.274344E+0	1.269684E+0	1.203372E+0	1.295980E+0	1.226315E+0	1.045756E+0	1.162835E+0	1.180641E+0	1.130342E+0	1.331363E+0	1.197682E+0	1.252932E+0	1.198137E+0	1.307067E+0	1.304409E+0	1.343792E+0	1.230195E+0	1.301868E+0	1.257243E+0	1.345748E+0	1.306921E+0	1.468655E+0	1.263639E+0	1.358166E+0	1.159156E+0	1.577209E+0	1.257663E+0	1.432477E+0	1.257667E+0	1.386871E+0	1.512202E+0	1.379166E+0	1.261336E+0	1.232604E+0	1.384092E+0	1.388218E+0	1.231088E+0	1.303484E+0	1.293240E+0	1.232040E+0	1.319658E+0	1.428397E+0	1.086855E+0	1.369900E+0	1.495910E+0	1.311364E+0	1.376354E+0	1.469335E+0	1.319815E+0	1.194766E+0	1.365210E+0	1.428444E+0	1.286182E+0	1.265163E+0	1.242326E+0	1.171382E+0	1.142836E+0	1.375090E+0	1.276366E+0	1.283001E+0	1.252512E+0	1.300230E+0	1.445818E+0	1.257101E+0	1.242517E+0	1.101287E+0	1.265261E+0	1.384466E+0	1.384244E+0	1.211060E+0	1.237415E+0	1.277997E+0	1.142417E+0	1.344196E+0	1.325389E+0	1.302860E+0	1.257725E+0	1.260342E+0	1.409246E+0	1.303321E+0	1.191583E+0	1.134207E+0	1.135164E+0	1.311717E+0	1.132126E+0	1.221262E+0	1.199013E+0	1.158512E+0	1.109197E+0	1.324682E+0	1.195970E+0	1.204764E+0	1.285438E+0	1.134365E+0	1.169827E+0	1.316350E+0	1.157112E+0	1.113888E+0	1.134899E+0	1.324673E+0	1.193437E+0	1.145087E+0	1.155177E+0	1.186861E+0	1.294743E+0	1.227895E+0	1.193335E+0	1.229203E+0	1.199016E+0	1.317323E+0	1.398827E+0	1.289495E+0	1.093135E+0	1.128680E+0	1.308301E+0	1.251039E+0	1.148249E+0	1.164709E+0	1.240632E+0	1.233316E+0	1.345809E+0	1.276656E+0	1.274742E+0	1.289968E+0	1.385030E+0	1.277423E+0	1.393867E+0	1.309247E+0	1.228386E+0	1.109532E+0	1.320315E+0	1.348738E+0	1.228665E+0	1.184528E+0	1.247456E+0	1.235940E+0	1.368814E+0	1.320506E+0	1.304043E+0	1.283509E+0	1.237682E+0	1.370670E+0	1.131707E+0	1.450391E+0	1.135420E+0	1.235701E+0	1.308298E+0	1.368446E+0	1.258264E+0	1.218309E+0	1.306986E+0	1.037177E+0	1.370739E+0	1.329925E+0	1.295835E+0	1.157972E+0	1.378538E+0	1.333668E+0	1.458706E+0	1.188070E+0	1.191453E+0	1.251709E+0	1.226159E+0	1.217946E+0	1.170669E+0	1.233748E+0	1.191091E+0	1.161484E+0	1.210601E+0	1.313269E+0
5.348070E+2	1.832458E+0	1.628576E+0	1.630807E+0	1.579413E+0	1.658376E+0	1.595522E+0	1.310164E+0	1.473024E+0	1.623688E+0	1.448603E+0	1.740737E+0	1.534047E+0	1.664994E+0	1.536295E+0	1.646712E+0	1.662498E+0	1.736657E+0	1.514634E+0	1.676899E+0	1.608832E+0	1.801122E+0	1.630528E+0	1.819120E+0	1.625595E+0	1.784185E+0	1.421082E+0	1.897687E+0	1.579353E+0	1.761652E+0	1.584280E+0	1.751576E+0	1.835019E+0	1.780153E+0	1.536462E+0	1.535032E+0	1.718208E+0	1.749166E+0	1.586414E+0	1.617725E+0	1.564421E+0	1.598383E+0	1.690447E+0	1.743299E+0	1.431338E+0	1.761447E+0	1.861930E+0	1.661298E+0	1.801163E+0	1.756668E+0	1.616130E+0	1.554493E+0	1.727356E+0	1.755974E+0	1.618680E+0	1.617472E+0	1.531765E+0	1.484782E+0	1.439102E+0	1.689062E+0	1.529258E+0	1.679684E+0	1.527156E+0	1.615078E+0	1.752208E+0	1.668188E+0	1.598331E+0	1.408838E+0	1.650952E+0	1.782116E+0	1.650731E+0	1.485542E+0	1.687853E+0	1.601388E+0	1.453617E+0	1.613453E+0	1.569737E+0	1.650215E+0	1.546152E+0	1.593384E+0	1.767144E+0	1.654163E+0	1.503311E+0	1.451808E+0	1.409963E+0	1.661266E+0	1.493701E+0	1.584357E+0	1.506255E+0	1.504154E+0	1.379895E+0	1.660265E+0	1.611538E+0	1.516680E+0	1.554663E+0	1.523916E+0	1.483277E+0	1.655883E+0	1.422408E+0	1.488301E+0	1.465679E+0	1.642953E+0	1.528298E+0	1.508697E+0	1.592562E+0	1.448217E+0	1.590933E+0	1.577154E+0	1.495755E+0	1.550442E+0	1.509055E+0	1.641705E+0	1.789048E+0	1.666360E+0	1.470270E+0	1.440544E+0	1.627970E+0	1.641512E+0	1.448307E+0	1.517045E+0	1.557839E+0	1.595857E+0	1.688802E+0	1.629064E+0	1.613379E+0	1.604130E+0	1.726965E+0	1.631703E+0	1.789036E+0	1.673784E+0	1.590837E+0	1.440096E+0	1.628719E+0	1.663795E+0	1.626921E+0	1.439374E+0	1.547480E+0	1.526428E+0	1.660020E+0	1.663932E+0	1.541433E+0	1.528051E+0	1.636572E+0	1.685831E+0	1.433941E+0	1.795276E+0	1.483929E+0	1.536199E+0	1.660356E+0	1.744173E+0	1.520857E+0	1.529096E+0	1.623994E+0	1.410903E+0	1.785839E+0	1.656818E+0	1.747081E+0	1.429709E+0	1.779620E+0	1.675361E+0	1.835007E+0	1.510544E+0	1.487791E+0	1.525466E+0	1.577278E+0	1.604287E+0	1.473359E+0	1.564506E+0	1.525984E+0	1.409664E+0	1.640401E+0	1.834798E+0
5.349630E+2	2.169076E+0	1.907109E+0	1.902873E+0	1.735038E+0	2.130051E+0	1.906681E+0	1.574571E+0	1.800204E+0	2.111734E+0	1.697131E+0	2.115443E+0	1.853062E+0	2.058069E+0	1.865057E+0	1.950957E+0	2.004338E+0	2.054557E+0	1.835342E+0	1.948809E+0	1.916044E+0	2.167954E+0	1.920134E+0	1.964934E+0	1.832885E+0	2.159700E+0	1.641853E+0	2.126203E+0	1.788016E+0	2.076579E+0	1.792717E+0	1.978489E+0	2.016095E+0	2.181144E+0	1.792237E+0	1.747699E+0	1.877510E+0	2.106191E+0	1.862713E+0	1.880759E+0	1.837572E+0	2.038688E+0	1.859802E+0	1.989974E+0	1.639690E+0	2.103973E+0	2.208682E+0	1.933405E+0	2.054380E+0	2.152485E+0	1.982283E+0	1.722939E+0	2.049808E+0	2.188260E+0	1.856378E+0	1.843869E+0	1.777345E+0	1.711621E+0	1.674552E+0	2.081026E+0	1.820307E+0	1.870679E+0	1.842790E+0	1.901522E+0	2.045179E+0	1.943882E+0	1.776531E+0	1.605328E+0	1.895627E+0	2.045778E+0	1.880820E+0	1.720894E+0	1.938506E+0	1.789177E+0	1.634838E+0	1.945050E+0	1.879246E+0	1.810532E+0	1.765358E+0	1.829412E+0	2.107928E+0	1.925803E+0	1.667439E+0	1.667402E+0	1.667670E+0	1.886120E+0	1.666714E+0	1.717554E+0	1.739205E+0	1.716620E+0	1.672877E+0	1.872318E+0	1.846390E+0	1.716061E+0	1.813713E+0	1.748531E+0	1.781862E+0	1.933357E+0	1.686581E+0	1.692037E+0	1.648904E+0	1.951284E+0	1.761795E+0	1.756482E+0	1.737686E+0	1.720003E+0	1.814329E+0	1.808378E+0	1.693774E+0	1.820992E+0	1.797527E+0	1.864183E+0	2.001534E+0	1.867673E+0	1.652645E+0	1.665620E+0	1.909987E+0	1.863018E+0	1.644053E+0	1.713542E+0	1.814042E+0	1.887338E+0	1.911362E+0	1.914805E+0	1.982408E+0	1.883824E+0	1.942115E+0	1.855650E+0	2.102716E+0	1.921326E+0	1.858606E+0	1.703949E+0	1.908765E+0	2.039192E+0	1.891491E+0	1.710031E+0	1.797707E+0	1.836233E+0	2.006119E+0	1.928719E+0	1.880663E+0	1.897477E+0	1.856975E+0	1.961758E+0	1.678859E+0	2.003047E+0	1.708139E+0	1.763448E+0	1.881436E+0	1.977357E+0	1.766250E+0	1.805631E+0	1.842830E+0	1.591887E+0	2.009120E+0	1.965401E+0	1.961233E+0	1.717100E+0	2.019605E+0	2.041957E+0	2.115247E+0	1.643766E+0	1.667729E+0	1.825865E+0	1.786826E+0	1.821316E+0	1.780333E+0	1.789541E+0	1.789055E+0	1.727468E+0	1.840974E+0	1.984305E+0
5.351090E+2	2.326215E+0	2.124642E+0	2.034000E+0	1.863207E+0	2.340863E+0	2.092972E+0	1.643331E+0	1.923527E+0	2.252443E+0	1.758521E+0	2.226116E+0	2.003220E+0	2.190396E+0	2.015933E+0	2.053849E+0	2.096156E+0	2.211427E+0	1.914801E+0	2.161963E+0	2.058049E+0	2.460299E+0	2.044159E+0	2.089649E+0	1.855348E+0	2.319275E+0	1.717485E+0	2.220252E+0	1.910360E+0	2.327705E+0	1.985713E+0	2.105140E+0	2.212009E+0	2.301579E+0	1.934336E+0	1.914573E+0	2.072059E+0	2.354020E+0	1.905706E+0	2.037557E+0	1.943289E+0	2.284070E+0	1.958594E+0	2.123805E+0	1.720854E+0	2.307579E+0	2.320135E+0	1.996463E+0	2.255443E+0	2.296883E+0	2.008393E+0	1.814297E+0	2.076967E+0	2.309774E+0	1.983690E+0	2.085773E+0	1.975941E+0	1.924735E+0	1.795588E+0	2.207418E+0	1.965183E+0	2.043920E+0	1.917748E+0	2.038233E+0	2.158842E+0	2.084882E+0	1.994859E+0	1.760169E+0	2.004915E+0	2.312314E+0	1.999259E+0	1.813167E+0	2.043298E+0	2.058457E+0	1.776069E+0	1.989484E+0	2.008881E+0	2.011237E+0	1.960847E+0	1.969021E+0	2.217630E+0	2.111992E+0	1.744784E+0	1.776026E+0	1.741958E+0	2.296608E+0	1.759982E+0	1.825812E+0	1.831756E+0	2.074649E+0	1.760052E+0	2.036144E+0	1.966630E+0	1.964371E+0	1.982430E+0	1.937604E+0	1.912237E+0	2.078160E+0	1.804743E+0	1.834467E+0	1.812541E+0	2.195677E+0	1.847472E+0	1.860371E+0	1.925328E+0	1.941602E+0	2.008230E+0	1.907043E+0	1.888905E+0	1.944966E+0	1.846484E+0	2.036023E+0	2.192695E+0	2.039837E+0	1.773632E+0	1.787127E+0	1.897907E+0	2.133510E+0	1.829977E+0	1.863837E+0	1.959731E+0	2.027485E+0	2.046585E+0	1.915440E+0	2.025822E+0	2.077358E+0	2.123326E+0	2.008007E+0	2.326439E+0	2.101093E+0	1.894184E+0	1.688462E+0	1.998095E+0	2.129711E+0	2.026578E+0	1.778961E+0	2.019573E+0	1.897324E+0	2.035848E+0	2.133701E+0	1.997952E+0	1.984438E+0	1.888735E+0	2.091877E+0	1.772655E+0	2.196692E+0	1.868121E+0	1.784110E+0	2.029831E+0	2.217512E+0	1.937701E+0	1.902671E+0	1.985997E+0	1.707534E+0	2.090788E+0	2.113345E+0	2.173088E+0	1.727742E+0	2.164789E+0	2.122880E+0	2.239890E+0	1.849827E+0	1.803628E+0	1.977279E+0	1.903162E+0	1.914793E+0	1.882456E+0	1.942419E+0	1.829405E+0	1.852119E+0	2.003940E+0	2.057316E+0
5.352600E+2	2.243546E+0	2.006323E+0	2.026287E+0	1.763915E+0	2.209724E+0	2.000500E+0	1.617074E+0	1.865640E+0	2.161171E+0	1.769249E+0	2.038099E+0	2.041263E+0	2.088220E+0	1.885604E+0	2.030059E+0	1.988092E+0	2.162840E+0	1.919982E+0	1.948812E+0	1.967935E+0	2.246663E+0	1.937133E+0	1.893947E+0	1.780260E+0	2.226314E+0	1.674663E+0	2.185416E+0	1.817207E+0	2.077936E+0	1.896045E+0	2.054128E+0	2.145962E+0	2.196729E+0	1.800702E+0	1.812159E+0	1.988178E+0	2.302358E+0	1.832362E+0	1.944759E+0	1.817876E+0	2.121633E+0	1.918822E+0	2.100190E+0	1.685700E+0	2.206117E+0	2.296745E+0	1.956699E+0	2.120899E+0	2.242642E+0	1.946385E+0	1.732074E+0	2.038660E+0	2.253205E+0	1.946442E+0	1.946214E+0	1.868816E+0	1.881750E+0	1.720921E+0	2.069597E+0	1.855233E+0	1.923936E+0	1.882611E+0	1.985560E+0	2.116484E+0	2.011929E+0	1.826687E+0	1.654447E+0	1.901265E+0	2.178329E+0	1.907346E+0	1.815505E+0	1.892543E+0	1.987796E+0	1.685458E+0	1.920511E+0	1.919287E+0	1.952825E+0	1.865987E+0	1.913413E+0	2.086142E+0	2.068915E+0	1.743012E+0	1.715923E+0	1.634799E+0	2.135491E+0	1.759305E+0	1.730323E+0	1.746761E+0	1.989171E+0	1.716790E+0	1.976029E+0	1.842874E+0	1.838991E+0	1.878929E+0	1.838374E+0	1.727817E+0	2.083148E+0	1.732286E+0	1.719682E+0	1.744709E+0	2.088401E+0	1.717147E+0	1.789919E+0	1.842304E+0	1.907058E+0	1.966813E+0	1.861039E+0	1.975312E+0	1.918709E+0	1.787040E+0	1.988389E+0	2.140562E+0	2.058815E+0	1.702810E+0	1.699758E+0	1.939820E+0	2.142034E+0	1.752047E+0	1.802855E+0	1.798256E+0	2.084070E+0	1.988832E+0	1.964330E+0	1.944055E+0	2.009088E+0	1.997822E+0	1.917449E+0	2.118094E+0	2.047588E+0	1.810961E+0	1.721223E+0	1.927197E+0	2.180932E+0	1.946788E+0	1.734691E+0	1.938897E+0	2.007660E+0	1.983253E+0	1.997273E+0	1.938957E+0	1.971361E+0	1.865868E+0	1.998373E+0	1.714681E+0	2.078668E+0	1.810434E+0	1.790371E+0	1.924594E+0	2.108284E+0	1.815961E+0	1.853832E+0	1.966224E+0	1.659835E+0	1.999379E+0	1.916082E+0	2.066782E+0	1.706457E+0	2.005020E+0	1.945118E+0	2.174790E+0	1.797531E+0	1.702336E+0	1.862812E+0	1.838687E+0	1.844849E+0	1.777885E+0	1.813832E+0	1.764043E+0	1.873456E+0	1.887536E+0	1.998213E+0
5.354060E+2	1.888311E+0	1.804219E+0	1.727574E+0	1.608286E+0	1.853673E+0	1.816910E+0	1.429555E+0	1.671849E+0	1.859472E+0	1.535620E+0	1.815411E+0	1.728926E+0	1.815187E+0	1.680128E+0	1.759008E+0	1.776206E+0	1.957385E+0	1.618849E+0	1.794422E+0	1.741275E+0	1.971889E+0	1.730000E+0	1.682259E+0	1.538955E+0	1.863973E+0	1.457228E+0	1.901172E+0	1.630279E+0	1.871606E+0	1.668010E+0	1.795550E+0	1.932236E+0	1.952310E+0	1.639252E+0	1.626003E+0	1.764730E+0	2.063035E+0	1.578198E+0	1.695803E+0	1.661600E+0	1.926018E+0	1.685316E+0	1.757732E+0	1.508670E+0	1.879937E+0	2.019481E+0	1.699928E+0	1.939484E+0	1.913527E+0	1.736222E+0	1.563629E+0	1.781678E+0	1.989224E+0	1.706044E+0	1.654070E+0	1.620098E+0	1.665060E+0	1.499922E+0	1.847728E+0	1.643735E+0	1.658868E+0	1.610899E+0	1.726933E+0	1.798092E+0	1.816905E+0	1.623706E+0	1.451018E+0	1.706654E+0	1.969412E+0	1.703782E+0	1.572558E+0	1.690919E+0	1.787269E+0	1.539856E+0	1.773283E+0	1.705487E+0	1.703031E+0	1.631398E+0	1.650174E+0	1.834057E+0	1.905656E+0	1.603087E+0	1.504742E+0	1.452696E+0	1.970880E+0	1.588318E+0	1.604428E+0	1.631544E+0	1.730864E+0	1.415289E+0	1.717739E+0	1.671305E+0	1.613314E+0	1.692864E+0	1.528613E+0	1.602845E+0	1.780713E+0	1.563412E+0	1.479290E+0	1.576873E+0	1.949153E+0	1.589238E+0	1.564229E+0	1.650612E+0	1.682198E+0	1.656192E+0	1.631632E+0	1.799619E+0	1.692737E+0	1.632019E+0	1.716466E+0	1.917013E+0	1.794465E+0	1.490929E+0	1.540643E+0	1.749442E+0	1.931174E+0	1.551394E+0	1.521974E+0	1.596589E+0	1.796537E+0	1.781769E+0	1.682403E+0	1.719747E+0	1.752593E+0	1.728241E+0	1.674534E+0	1.865918E+0	1.895646E+0	1.596265E+0	1.505611E+0	1.742154E+0	1.985863E+0	1.752907E+0	1.538656E+0	1.652107E+0	1.742110E+0	1.813251E+0	1.760706E+0	1.718423E+0	1.642475E+0	1.686750E+0	1.736829E+0	1.471069E+0	1.853225E+0	1.577895E+0	1.630727E+0	1.766352E+0	1.861927E+0	1.624751E+0	1.567151E+0	1.669667E+0	1.427238E+0	1.844279E+0	1.740655E+0	1.833509E+0	1.485431E+0	1.784261E+0	1.764587E+0	1.977115E+0	1.679871E+0	1.596634E+0	1.676876E+0	1.595498E+0	1.864459E+0	1.617673E+0	1.605945E+0	1.600224E+0	1.718484E+0	1.731734E+0	1.800030E+0
5.355630E+2	1.658190E+0	1.589623E+0	1.524922E+0	1.428717E+0	1.677410E+0	1.509800E+0	1.254531E+0	1.397522E+0	1.621787E+0	1.361589E+0	1.607394E+0	1.494002E+0	1.606366E+0	1.474064E+0	1.549354E+0	1.536072E+0	1.672798E+0	1.424810E+0	1.542098E+0	1.451130E+0	1.716093E+0	1.497683E+0	1.554991E+0	1.397125E+0	1.688296E+0	1.305410E+0	1.696342E+0	1.449561E+0	1.621838E+0	1.447102E+0	1.557493E+0	1.596803E+0	1.690888E+0	1.459064E+0	1.423580E+0	1.521543E+0	1.693585E+0	1.418238E+0	1.466685E+0	1.356275E+0	1.715893E+0	1.440264E+0	1.547140E+0	1.314381E+0	1.702884E+0	1.691991E+0	1.476673E+0	1.625796E+0	1.660647E+0	1.507788E+0	1.335233E+0	1.557427E+0	1.730832E+0	1.439903E+0	1.461166E+0	1.455955E+0	1.427476E+0	1.316260E+0	1.652083E+0	1.386968E+0	1.493584E+0	1.388955E+0	1.470676E+0	1.563005E+0	1.614874E+0	1.416001E+0	1.257198E+0	1.476792E+0	1.718721E+0	1.494664E+0	1.340707E+0	1.473973E+0	1.513536E+0	1.297392E+0	1.521271E+0	1.425843E+0	1.511028E+0	1.394890E+0	1.467386E+0	1.584306E+0	1.557594E+0	1.314382E+0	1.297970E+0	1.252840E+0	1.685781E+0	1.336229E+0	1.415887E+0	1.392301E+0	1.530170E+0	1.273055E+0	1.471336E+0	1.433637E+0	1.412707E+0	1.389537E+0	1.399877E+0	1.346141E+0	1.561726E+0	1.341037E+0	1.369307E+0	1.552394E+0	1.620215E+0	1.366599E+0	1.363016E+0	1.402221E+0	1.480806E+0	1.477354E+0	1.452462E+0	1.540399E+0	1.439289E+0	1.366274E+0	1.495190E+0	1.581300E+0	1.648060E+0	1.263702E+0	1.364750E+0	1.490867E+0	1.709669E+0	1.282017E+0	1.389539E+0	1.387753E+0	1.632045E+0	1.547238E+0	1.490644E+0	1.480242E+0	1.567674E+0	1.566883E+0	1.510548E+0	1.745216E+0	1.655235E+0	1.423784E+0	1.319186E+0	1.522372E+0	1.665897E+0	1.561128E+0	1.420404E+0	1.458608E+0	1.521439E+0	1.546437E+0	1.514061E+0	1.561096E+0	1.439781E+0	1.522240E+0	1.552443E+0	1.327770E+0	1.567003E+0	1.334060E+0	1.427895E+0	1.509691E+0	1.706214E+0	1.392748E+0	1.413661E+0	1.458331E+0	1.292642E+0	1.603012E+0	1.556074E+0	1.563524E+0	1.330783E+0	1.549579E+0	1.573685E+0	1.652415E+0	1.484397E+0	1.333018E+0	1.434616E+0	1.428701E+0	1.559176E+0	1.406706E+0	1.395913E+0	1.419464E+0	1.553405E+0	1.522206E+0	1.699199E+0
5.357140E+2	1.460839E+0	1.504374E+0	1.335597E+0	1.125206E+0	1.377061E+0	1.459179E+0	1.185772E+0	1.186115E+0	1.389804E+0	1.229873E+0	1.320032E+0	1.315142E+0	1.332217E+0	1.215748E+0	1.261152E+0	1.237312E+0	1.390992E+0	1.305049E+0	1.245987E+0	1.232664E+0	1.446941E+0	1.391915E+0	1.330513E+0	1.178282E+0	1.352310E+0	1.173061E+0	1.398856E+0	1.220403E+0	1.373431E+0	1.242225E+0	1.329992E+0	1.322964E+0	1.423091E+0	1.197847E+0	1.173565E+0	1.269900E+0	1.476493E+0	1.227295E+0	1.301563E+0	1.171770E+0	1.352312E+0	1.279885E+0	1.337207E+0	1.081103E+0	1.330401E+0	1.416101E+0	1.203998E+0	1.441360E+0	1.379911E+0	1.267597E+0	1.161648E+0	1.324122E+0	1.427746E+0	1.201534E+0	1.274468E+0	1.247338E+0	1.220929E+0	1.103092E+0	1.336093E+0	1.223331E+0	1.271370E+0	1.165256E+0	1.303783E+0	1.304622E+0	1.341285E+0	1.159317E+0	1.040419E+0	1.206737E+0	1.388787E+0	1.257171E+0	1.132221E+0	1.256411E+0	1.311735E+0	1.133669E+0	1.271910E+0	1.222220E+0	1.273035E+0	1.205168E+0	1.209469E+0	1.373456E+0	1.293594E+0	1.085902E+0	1.113805E+0	1.079284E+0	1.446914E+0	1.121313E+0	1.198152E+0	1.162499E+0	1.295406E+0	1.075769E+0	1.262586E+0	1.230424E+0	1.273263E+0	1.204072E+0	1.217507E+0	1.141456E+0	1.279972E+0	1.144852E+0	1.064605E+0	1.274064E+0	1.446871E+0	1.183178E+0	1.127174E+0	1.192977E+0	1.224011E+0	1.265251E+0	1.252712E+0	1.336626E+0	1.221877E+0	1.206012E+0	1.251606E+0	1.334845E+0	1.343719E+0	1.104347E+0	1.107851E+0	1.240107E+0	1.407228E+0	1.145182E+0	1.133295E+0	1.188960E+0	1.365569E+0	1.305665E+0	1.227128E+0	1.287767E+0	1.287980E+0	1.318437E+0	1.296394E+0	1.387714E+0	1.409122E+0	1.180744E+0	1.124424E+0	1.258634E+0	1.439957E+0	1.279059E+0	1.162395E+0	1.209008E+0	1.304511E+0	1.320023E+0	1.312442E+0	1.289996E+0	1.199163E+0	1.221168E+0	1.314441E+0	1.112817E+0	1.367707E+0	1.155043E+0	1.211912E+0	1.210630E+0	1.391686E+0	1.187513E+0	1.199915E+0	1.259264E+0	1.132568E+0	1.402210E+0	1.303154E+0	1.360080E+0	1.111012E+0	1.393788E+0	1.334363E+0	1.398370E+0	1.234136E+0	1.178872E+0	1.199017E+0	1.195322E+0	1.436938E+0	1.126641E+0	1.188741E+0	1.188670E+0	1.245709E+0	1.181949E+0	1.410619E+0
5.358600E+2	1.198694E+0	1.256706E+0	1.026365E+0	9.597198E-1	1.184582E+0	1.237115E+0	1.103888E+0	9.891781E-1	1.162260E+0	1.050480E+0	1.122011E+0	1.090899E+0	1.096595E+0	1.041975E+0	1.076394E+0	1.119362E+0	1.212606E+0	1.082796E+0	1.080653E+0	1.036047E+0	1.233308E+0	1.196113E+0	1.090048E+0	9.389042E-1	1.180291E+0	1.023467E+0	1.263001E+0	1.042788E+0	1.116196E+0	1.045667E+0	1.076107E+0	1.146344E+0	1.209844E+0	1.147661E+0	9.355988E-1	1.075352E+0	1.245667E+0	1.217179E+0	1.025728E+0	1.047013E+0	1.202319E+0	1.148379E+0	1.123992E+0	8.631662E-1	1.168332E+0	1.285383E+0	1.018803E+0	1.192675E+0	1.206191E+0	1.218647E+0	9.703642E-1	1.101262E+0	1.210555E+0	1.192051E+0	1.044969E+0	9.591528E-1	1.020356E+0	1.023605E+0	1.131708E+0	1.002781E+0	1.064462E+0	1.040522E+0	1.037463E+0	1.140840E+0	1.106279E+0	1.076120E+0	9.015953E-1	1.026934E+0	1.238229E+0	1.147369E+0	9.914734E-1	1.065819E+0	1.042461E+0	1.003687E+0	1.086878E+0	1.034208E+0	1.067358E+0	1.043649E+0	1.000651E+0	1.182060E+0	1.110879E+0	9.412558E-1	9.279877E-1	9.293941E-1	1.184229E+0	9.591114E-1	9.944045E-1	9.377333E-1	1.104002E+0	9.440249E-1	1.051196E+0	1.027915E+0	1.030458E+0	1.009034E+0	1.021053E+0	9.624404E-1	1.093086E+0	9.960427E-1	9.359951E-1	1.111123E+0	1.206739E+0	1.022685E+0	1.008359E+0	9.904832E-1	1.043473E+0	1.009225E+0	1.050542E+0	1.099007E+0	1.030719E+0	1.021270E+0	1.087005E+0	1.133417E+0	1.160711E+0	9.691919E-1	9.603094E-1	1.031257E+0	1.262399E+0	9.475970E-1	1.018725E+0	1.028921E+0	1.134621E+0	1.126069E+0	1.081086E+0	1.054051E+0	1.104389E+0	1.142344E+0	1.058985E+0	1.170908E+0	1.158726E+0	1.005247E+0	9.248936E-1	1.047360E+0	1.240678E+0	1.097079E+0	9.537105E-1	1.072863E+0	1.053919E+0	1.067694E+0	1.061090E+0	1.062438E+0	9.840461E-1	1.040143E+0	1.098013E+0	9.955708E-1	1.175479E+0	9.903058E-1	9.502303E-1	1.101605E+0	1.153080E+0	1.018611E+0	1.018520E+0	1.101783E+0	9.195706E-1	1.139964E+0	1.111524E+0	1.167344E+0	9.613686E-1	1.120656E+0	1.198791E+0	1.261823E+0	1.045508E+0	9.303516E-1	1.029436E+0	1.020814E+0	1.176108E+0	9.737664E-1	9.894265E-1	9.958037E-1	1.136779E+0	1.092408E+0	1.149854E+0
5.360070E+2	9.789988E-1	1.049460E+0	9.688663E-1	8.540900E-1	1.054853E+0	1.067024E+0	8.938617E-1	9.080125E-1	1.022184E+0	8.961180E-1	9.506619E-1	9.494115E-1	9.558905E-1	8.916849E-1	9.259304E-1	9.265463E-1	1.017561E+0	9.526703E-1	9.706199E-1	9.343237E-1	1.011244E+0	1.070198E+0	9.589414E-1	8.394301E-1	1.046335E+0	8.266073E-1	1.044936E+0	8.713860E-1	9.906340E-1	8.597944E-1	9.523889E-1	9.912434E-1	1.020687E+0	9.632366E-1	8.910176E-1	9.745537E-1	1.048846E+0	1.046471E+0	9.105291E-1	8.953360E-1	1.018455E+0	1.025851E+0	1.003280E+0	7.538780E-1	1.047122E+0	1.032198E+0	9.301831E-1	9.969008E-1	9.958221E-1	1.060047E+0	8.418917E-1	9.912253E-1	1.061805E+0	1.067448E+0	9.221571E-1	9.121664E-1	9.272322E-1	9.260533E-1	9.730401E-1	8.941227E-1	9.316217E-1	8.911962E-1	8.468960E-1	9.798801E-1	9.477370E-1	9.822985E-1	7.883996E-1	9.014268E-1	1.025717E+0	1.069644E+0	7.748075E-1	9.175115E-1	9.565208E-1	9.249488E-1	9.330172E-1	9.133925E-1	9.082837E-1	9.026399E-1	8.356081E-1	1.024897E+0	1.004585E+0	9.690044E-1	8.022718E-1	7.847629E-1	1.006304E+0	1.003041E+0	8.715480E-1	8.596638E-1	9.801162E-1	9.649992E-1	9.791912E-1	9.343951E-1	8.818389E-1	9.294633E-1	8.748873E-1	8.725942E-1	9.390129E-1	8.739856E-1	8.536597E-1	9.383897E-1	1.016340E+0	8.302163E-1	8.429717E-1	9.081356E-1	8.831392E-1	8.579934E-1	8.671360E-1	9.060329E-1	9.488830E-1	8.942264E-1	9.254175E-1	1.012560E+0	1.015658E+0	8.304950E-1	8.769900E-1	9.659022E-1	1.079941E+0	8.211924E-1	8.259270E-1	9.018958E-1	9.898673E-1	1.010565E+0	9.071033E-1	9.824174E-1	9.758083E-1	9.925076E-1	9.714861E-1	1.034059E+0	1.032459E+0	8.870434E-1	7.896907E-1	9.488119E-1	1.117182E+0	9.122998E-1	8.626489E-1	8.894453E-1	9.660270E-1	1.003659E+0	9.441516E-1	9.009002E-1	9.029688E-1	8.953233E-1	9.646264E-1	8.424991E-1	9.733569E-1	8.517339E-1	8.531950E-1	1.004694E+0	1.060891E+0	8.962356E-1	8.992807E-1	9.190782E-1	8.490065E-1	1.014087E+0	9.530089E-1	9.822558E-1	8.937470E-1	9.874041E-1	9.705346E-1	1.083199E+0	9.253576E-1	8.649190E-1	8.731764E-1	9.100829E-1	1.084590E+0	8.887685E-1	8.929846E-1	9.312461E-1	9.907917E-1	9.025790E-1	1.003824E+0
5.362680E+2	7.756879E-1	8.113474E-1	7.101217E-1	6.048042E-1	7.671932E-1	7.929876E-1	7.657208E-1	6.745823E-1	7.528071E-1	7.065920E-1	7.179733E-1	7.265031E-1	7.247350E-1	6.744661E-1	6.875130E-1	7.139540E-1	7.031307E-1	7.338734E-1	6.992842E-1	6.619262E-1	8.313414E-1	8.177360E-1	7.619641E-1	6.507509E-1	7.740329E-1	6.442056E-1	7.836777E-1	6.546487E-1	7.938067E-1	6.751106E-1	7.272331E-1	7.671265E-1	7.521812E-1	7.534166E-1	6.669077E-1	6.890753E-1	7.663638E-1	7.423564E-1	6.782106E-1	6.760281E-1	8.110909E-1	7.500071E-1	7.677601E-1	5.870697E-1	8.012963E-1	8.003424E-1	6.910234E-1	7.844983E-1	8.001133E-1	7.904898E-1	6.357622E-1	7.690626E-1	8.278543E-1	8.480384E-1	7.534448E-1	6.910161E-1	6.669624E-1	6.719371E-1	7.484848E-1	6.819799E-1	6.843089E-1	7.014628E-1	6.995328E-1	7.405575E-1	7.464048E-1	7.238475E-1	5.897741E-1	7.568798E-1	7.915939E-1	8.340017E-1	6.258860E-1	7.404005E-1	6.910637E-1	6.799860E-1	6.969209E-1	7.016249E-1	6.926639E-1	6.686934E-1	6.989599E-1	7.665889E-1	7.211339E-1	7.050986E-1	6.230699E-1	6.223824E-1	8.059644E-1	8.070475E-1	6.380003E-1	6.563055E-1	7.707488E-1	7.552573E-1	6.990985E-1	6.847749E-1	7.179301E-1	6.739995E-1	6.871518E-1	6.341313E-1	7.378617E-1	7.123578E-1	6.553339E-1	7.034180E-1	7.939717E-1	7.439361E-1	6.722107E-1	6.867426E-1	7.332335E-1	7.312350E-1	6.970472E-1	7.613027E-1	6.954345E-1	7.083211E-1	6.679649E-1	7.439883E-1	7.302975E-1	6.192036E-1	6.368717E-1	7.144304E-1	8.328768E-1	6.506074E-1	6.608470E-1	6.873149E-1	7.470768E-1	7.070129E-1	6.981971E-1	7.378466E-1	7.126830E-1	7.479030E-1	6.943060E-1	7.649727E-1	8.127389E-1	6.856149E-1	5.996922E-1	7.318657E-1	8.154573E-1	7.002232E-1	6.508031E-1	7.072882E-1	7.353845E-1	7.177860E-1	7.398449E-1	7.498972E-1	6.754282E-1	6.977841E-1	7.573533E-1	6.321067E-1	7.952633E-1	6.263328E-1	6.948084E-1	6.942760E-1	7.789018E-1	6.387379E-1	6.874397E-1	6.906965E-1	6.307807E-1	7.728204E-1	7.289728E-1	6.962110E-1	6.245138E-1	7.520597E-1	7.830872E-1	7.918437E-1	7.404638E-1	6.598116E-1	6.999605E-1	6.886195E-1	8.106872E-1	6.472263E-1	7.022430E-1	6.592962E-1	7.044305E-1	7.055872E-1	8.265043E-1
5.365140E+2	6.140816E-1	6.415819E-1	5.747889E-1	6.231141E-1	6.275934E-1	5.979229E-1	5.800723E-1	5.462277E-1	6.013222E-1	5.718978E-1	6.479670E-1	5.516463E-1	5.829147E-1	5.588126E-1	5.187956E-1	5.698719E-1	6.128967E-1	6.164148E-1	5.834911E-1	5.451851E-1	6.556573E-1	6.383055E-1	5.988817E-1	5.249646E-1	6.547177E-1	5.974929E-1	6.533965E-1	5.149179E-1	6.295572E-1	5.854407E-1	6.046874E-1	6.016366E-1	6.572470E-1	5.865282E-1	5.301528E-1	5.932109E-1	6.643564E-1	6.462538E-1	5.642920E-1	5.768796E-1	6.286105E-1	6.371026E-1	6.076850E-1	4.790597E-1	6.337795E-1	6.262777E-1	6.069482E-1	6.287862E-1	6.659757E-1	6.318879E-1	5.255597E-1	5.921681E-1	6.225372E-1	7.004105E-1	5.797704E-1	5.400326E-1	5.750320E-1	5.659550E-1	6.167104E-1	5.403358E-1	5.735075E-1	5.527208E-1	5.462508E-1	6.007766E-1	5.731321E-1	6.040634E-1	4.675021E-1	5.199649E-1	6.806558E-1	6.767013E-1	5.055815E-1	5.589991E-1	5.637452E-1	5.550051E-1	5.742306E-1	5.427996E-1	5.777081E-1	5.430672E-1	5.581706E-1	6.164280E-1	5.759344E-1	6.253952E-1	5.067266E-1	5.060199E-1	6.672668E-1	6.198406E-1	5.558936E-1	5.152769E-1	6.177493E-1	6.097495E-1	5.749067E-1	5.722695E-1	5.631957E-1	5.722933E-1	5.322695E-1	5.686050E-1	6.344320E-1	5.719087E-1	4.936687E-1	5.768400E-1	6.561456E-1	6.093883E-1	5.139883E-1	5.706461E-1	5.676857E-1	6.389905E-1	5.663019E-1	6.014508E-1	5.830624E-1	5.917659E-1	5.968181E-1	6.365598E-1	6.374365E-1	5.896935E-1	5.471891E-1	5.815909E-1	6.397696E-1	6.082677E-1	5.006952E-1	5.559828E-1	6.181148E-1	6.091155E-1	5.839026E-1	5.844471E-1	5.781376E-1	6.243196E-1	5.425601E-1	6.488818E-1	6.351084E-1	5.945500E-1	5.043944E-1	5.801443E-1	6.842419E-1	6.057331E-1	5.382405E-1	5.648401E-1	6.007393E-1	5.935267E-1	6.262659E-1	6.094290E-1	5.511964E-1	5.942508E-1	6.141589E-1	4.946683E-1	6.411981E-1	5.210658E-1	5.495691E-1	5.776803E-1	6.603728E-1	5.169996E-1	5.295109E-1	5.850267E-1	4.746258E-1	6.611792E-1	6.310445E-1	6.243171E-1	5.205768E-1	5.896388E-1	6.184658E-1	6.783174E-1	5.773590E-1	5.289458E-1	5.606605E-1	5.505554E-1	6.407241E-1	5.365456E-1	5.586512E-1	5.487413E-1	5.988707E-1	5.587396E-1	6.144150E-1
5.367970E+2	5.410981E-1	5.849930E-1	5.432346E-1	5.048087E-1	4.872891E-1	5.891483E-1	5.281912E-1	4.587701E-1	5.328684E-1	4.759435E-1	5.399561E-1	5.075989E-1	5.153545E-1	4.584225E-1	5.099451E-1	4.935930E-1	5.518148E-1	5.375324E-1	5.062961E-1	5.301657E-1	5.446242E-1	5.489051E-1	5.528350E-1	5.063537E-1	5.968905E-1	5.101845E-1	6.011447E-1	4.652359E-1	5.650789E-1	5.082416E-1	4.897644E-1	5.355896E-1	5.828597E-1	5.502482E-1	5.036448E-1	4.762002E-1	5.492708E-1	5.988348E-1	4.900532E-1	4.751050E-1	5.767693E-1	5.318963E-1	4.955018E-1	4.304874E-1	5.343592E-1	6.008215E-1	4.995818E-1	5.388362E-1	6.000065E-1	5.587879E-1	4.638928E-1	4.995423E-1	5.918090E-1	6.049260E-1	4.935540E-1	4.441800E-1	4.836990E-1	4.720163E-1	5.178786E-1	4.782452E-1	4.676038E-1	5.234405E-1	4.764159E-1	5.125309E-1	5.387585E-1	5.397455E-1	4.359998E-1	5.009269E-1	5.459442E-1	5.786192E-1	4.267406E-1	5.081335E-1	5.000865E-1	4.850157E-1	5.317859E-1	4.898579E-1	5.149484E-1	4.994823E-1	4.871843E-1	5.720795E-1	5.523138E-1	5.557290E-1	4.367003E-1	4.442230E-1	5.432803E-1	5.461745E-1	4.683131E-1	4.875748E-1	5.359845E-1	5.324068E-1	5.332896E-1	5.061728E-1	5.069286E-1	5.453708E-1	4.746079E-1	4.848394E-1	5.174506E-1	5.200762E-1	4.534021E-1	5.132022E-1	5.637878E-1	5.400024E-1	4.327873E-1	4.977486E-1	5.292318E-1	5.737286E-1	5.063774E-1	4.970426E-1	5.250440E-1	5.165884E-1	5.166283E-1	5.591480E-1	5.445763E-1	4.988026E-1	4.447771E-1	5.183680E-1	6.064016E-1	5.321799E-1	4.588092E-1	4.813461E-1	5.108656E-1	5.696749E-1	4.911967E-1	4.896579E-1	5.204757E-1	5.250687E-1	5.333825E-1	5.958333E-1	5.544969E-1	5.251962E-1	4.376869E-1	5.383153E-1	6.084602E-1	5.756367E-1	4.541350E-1	5.087429E-1	5.253126E-1	5.363521E-1	5.220967E-1	5.314693E-1	4.916962E-1	5.192996E-1	5.030032E-1	4.490722E-1	5.761791E-1	5.008449E-1	5.157626E-1	5.080253E-1	5.519156E-1	5.469561E-1	5.168257E-1	5.086727E-1	4.203962E-1	6.102286E-1	5.063457E-1	5.126523E-1	4.554602E-1	5.558291E-1	5.243967E-1	6.068685E-1	4.995421E-1	4.956005E-1	4.395301E-1	4.769675E-1	5.818906E-1	5.133087E-1	4.950708E-1	4.744996E-1	5.314915E-1	5.229223E-1	5.274923E-1
5.370070E+2	5.418430E-1	5.570657E-1	4.934488E-1	5.343847E-1	5.711897E-1	5.682244E-1	5.188146E-1	4.877129E-1	5.366716E-1	4.670033E-1	5.272886E-1	4.695573E-1	5.092129E-1	4.578351E-1	5.093919E-1	4.808797E-1	5.636150E-1	5.283200E-1	4.999587E-1	4.789633E-1	5.242447E-1	5.810134E-1	5.381257E-1	4.826082E-1	5.859107E-1	4.957260E-1	5.725799E-1	4.975289E-1	5.440390E-1	5.034910E-1	5.073545E-1	5.259420E-1	5.672731E-1	5.006655E-1	4.440027E-1	5.114445E-1	5.512325E-1	5.583704E-1	4.990126E-1	4.560632E-1	5.615623E-1	5.376698E-1	5.506090E-1	4.298483E-1	5.786214E-1	5.829335E-1	5.166242E-1	5.637803E-1	5.589591E-1	5.718415E-1	4.473344E-1	4.856137E-1	5.422259E-1	5.737754E-1	5.183644E-1	4.798898E-1	4.825052E-1	4.955006E-1	5.299804E-1	4.957081E-1	4.718884E-1	5.023591E-1	4.817423E-1	5.252381E-1	4.763242E-1	5.149624E-1	4.514838E-1	4.924650E-1	5.776417E-1	6.100796E-1	4.641174E-1	4.725885E-1	4.962667E-1	4.656440E-1	5.045946E-1	4.647444E-1	4.708307E-1	4.732038E-1	4.948748E-1	5.331779E-1	5.300821E-1	5.391981E-1	4.532424E-1	4.337046E-1	5.734014E-1	5.454985E-1	4.987230E-1	4.630203E-1	5.353650E-1	5.494480E-1	5.068653E-1	5.033598E-1	4.800186E-1	4.843464E-1	4.544932E-1	4.632221E-1	5.452694E-1	5.295507E-1	4.371756E-1	4.894253E-1	5.545518E-1	5.375887E-1	4.369668E-1	4.869490E-1	4.855631E-1	5.567858E-1	4.870080E-1	4.862418E-1	5.164939E-1	4.746288E-1	5.009521E-1	5.915342E-1	5.194968E-1	5.165087E-1	4.488273E-1	5.119747E-1	6.000123E-1	5.192935E-1	4.575773E-1	4.332622E-1	4.963906E-1	5.767181E-1	4.918315E-1	4.722921E-1	5.032430E-1	5.423578E-1	5.303228E-1	5.804566E-1	5.723316E-1	5.438915E-1	4.603198E-1	4.908135E-1	5.761829E-1	5.959344E-1	4.427524E-1	4.690341E-1	4.991318E-1	5.012844E-1	5.328495E-1	5.265532E-1	4.590036E-1	4.773789E-1	5.193494E-1	4.529805E-1	5.726462E-1	5.317708E-1	5.245270E-1	4.898548E-1	5.829030E-1	5.380328E-1	5.092148E-1	4.834483E-1	4.341172E-1	5.607769E-1	5.070502E-1	5.746035E-1	4.385548E-1	5.279859E-1	5.562147E-1	5.409754E-1	5.138601E-1	5.547419E-1	4.728408E-1	5.323338E-1	5.518204E-1	5.714011E-1	5.043574E-1	4.728857E-1	5.281226E-1	5.426215E-1	6.074607E-1
5.372800E+2	5.589715E-1	5.798481E-1	5.214968E-1	5.336804E-1	5.725996E-1	5.749739E-1	5.525693E-1	4.336023E-1	5.335023E-1	5.039545E-1	5.499571E-1	4.942504E-1	5.231712E-1	4.801446E-1	5.071793E-1	5.126626E-1	6.010968E-1	4.949250E-1	5.258828E-1	5.014921E-1	5.888963E-1	5.640153E-1	5.285325E-1	5.102037E-1	5.976221E-1	5.174139E-1	5.635236E-1	4.900768E-1	5.861196E-1	5.224937E-1	5.442940E-1	5.600788E-1	5.906524E-1	5.568991E-1	4.831617E-1	5.086247E-1	5.956974E-1	6.032606E-1	5.303724E-1	4.842976E-1	5.871371E-1	6.063107E-1	5.191190E-1	4.541344E-1	5.833884E-1	5.932535E-1	4.785631E-1	5.592449E-1	5.802152E-1	5.790213E-1	4.656058E-1	5.677932E-1	5.813338E-1	6.083118E-1	4.867305E-1	4.686129E-1	4.986229E-1	5.069423E-1	5.225847E-1	5.047631E-1	5.098427E-1	4.965032E-1	5.367818E-1	5.315924E-1	5.541914E-1	5.332544E-1	4.359996E-1	4.974014E-1	6.114992E-1	6.020602E-1	4.460129E-1	5.222287E-1	4.752595E-1	5.375078E-1	5.337751E-1	4.762828E-1	5.043851E-1	4.885865E-1	4.842268E-1	5.751916E-1	5.279981E-1	5.557288E-1	4.648213E-1	4.238435E-1	5.853096E-1	5.542845E-1	4.883836E-1	4.730938E-1	5.248345E-1	5.396170E-1	5.425376E-1	5.258609E-1	4.671750E-1	5.459687E-1	5.047797E-1	4.638975E-1	5.203036E-1	5.295509E-1	4.437865E-1	5.341820E-1	5.779964E-1	5.762033E-1	5.056293E-1	4.720992E-1	5.109821E-1	5.668259E-1	4.724805E-1	5.568069E-1	5.073329E-1	5.107607E-1	5.045696E-1	5.860053E-1	5.364422E-1	4.952615E-1	4.621348E-1	5.190782E-1	6.113715E-1	5.407702E-1	4.785203E-1	5.337352E-1	5.556080E-1	5.541805E-1	5.007211E-1	5.193247E-1	5.078823E-1	5.231476E-1	5.003406E-1	5.704620E-1	5.487896E-1	5.595713E-1	4.627022E-1	5.149191E-1	6.049516E-1	5.763369E-1	4.560315E-1	5.282827E-1	5.109760E-1	5.401639E-1	5.906467E-1	5.125069E-1	5.113115E-1	4.913523E-1	5.566191E-1	4.660078E-1	5.486179E-1	5.371235E-1	4.838350E-1	5.178676E-1	5.898756E-1	5.297471E-1	5.136548E-1	5.182171E-1	4.432643E-1	5.929953E-1	4.943683E-1	5.095930E-1	4.635998E-1	5.438961E-1	5.984070E-1	6.092500E-1	5.231984E-1	5.125877E-1	5.103914E-1	5.057018E-1	5.760071E-1	5.640632E-1	5.022146E-1	4.785345E-1	5.101545E-1	6.446989E-1	5.900753E-1
5.375060E+2	6.535524E-1	7.040494E-1	5.846058E-1	5.998750E-1	6.508601E-1	6.687943E-1	5.950740E-1	5.393063E-1	6.108293E-1	5.921619E-1	6.479667E-1	5.763401E-1	6.292575E-1	5.511802E-1	6.023249E-1	5.691655E-1	6.135904E-1	5.905044E-1	5.662085E-1	5.656661E-1	6.605762E-1	6.603407E-1	5.835327E-1	5.968427E-1	7.345056E-1	5.685751E-1	6.638463E-1	5.788837E-1	6.533121E-1	5.961300E-1	6.041011E-1	6.409686E-1	6.650406E-1	5.931792E-1	5.536481E-1	5.946210E-1	6.970510E-1	6.595313E-1	5.822116E-1	5.368262E-1	6.548766E-1	6.582720E-1	6.208057E-1	5.538361E-1	6.957468E-1	6.517338E-1	5.830894E-1	6.053535E-1	6.945626E-1	6.814920E-1	5.546811E-1	6.123650E-1	6.497729E-1	6.177927E-1	5.989990E-1	5.594534E-1	5.821954E-1	5.533092E-1	6.341908E-1	5.286936E-1	5.949333E-1	5.942981E-1	5.847193E-1	6.473699E-1	5.920729E-1	6.447781E-1	4.958012E-1	5.714367E-1	6.705704E-1	6.464745E-1	5.558057E-1	6.068008E-1	5.682015E-1	5.743769E-1	5.894832E-1	5.685913E-1	5.764656E-1	5.834466E-1	5.605369E-1	6.732242E-1	6.349870E-1	6.360223E-1	5.353994E-1	5.066772E-1	6.357452E-1	6.772872E-1	5.595425E-1	5.322758E-1	6.214660E-1	6.228583E-1	6.204877E-1	5.659409E-1	5.846017E-1	5.639169E-1	5.134958E-1	5.388816E-1	6.572576E-1	5.830554E-1	5.129002E-1	6.250935E-1	6.469093E-1	6.986848E-1	5.653358E-1	5.773961E-1	5.539985E-1	6.521681E-1	5.759873E-1	6.266519E-1	5.598549E-1	6.051703E-1	5.992302E-1	6.642063E-1	6.570931E-1	6.192035E-1	5.529746E-1	6.149786E-1	6.468689E-1	6.217675E-1	5.388850E-1	5.753593E-1	6.200887E-1	6.964480E-1	6.143811E-1	5.902358E-1	5.675329E-1	6.204775E-1	6.037480E-1	6.804027E-1	6.358220E-1	6.427962E-1	5.055860E-1	6.134660E-1	6.681029E-1	6.722263E-1	5.135781E-1	6.077002E-1	6.381401E-1	6.407908E-1	5.980395E-1	5.862526E-1	5.838891E-1	5.510591E-1	6.756212E-1	5.142088E-1	6.546252E-1	5.876752E-1	5.727318E-1	6.231074E-1	6.673451E-1	6.157923E-1	5.694685E-1	5.836637E-1	5.151348E-1	6.941472E-1	6.176592E-1	6.449677E-1	5.399870E-1	5.969317E-1	6.392165E-1	6.338601E-1	6.184465E-1	6.302411E-1	5.697450E-1	5.631704E-1	6.747168E-1	6.643487E-1	5.307900E-1	5.495482E-1	5.932555E-1	6.679793E-1	6.665675E-1
5.377630E+2	8.047320E-1	7.547586E-1	6.974995E-1	7.562073E-1	8.228919E-1	8.226868E-1	6.994629E-1	6.953457E-1	7.597792E-1	6.660648E-1	7.339747E-1	6.757815E-1	7.448353E-1	6.844466E-1	6.736837E-1	7.294930E-1	7.163185E-1	7.045093E-1	6.768168E-1	6.967445E-1	7.786365E-1	8.108110E-1	7.651617E-1	6.802723E-1	7.403610E-1	7.237279E-1	8.199053E-1	6.633426E-1	8.053441E-1	6.804549E-1	7.272332E-1	7.597057E-1	7.840615E-1	7.552305E-1	6.904031E-1	7.229099E-1	8.193287E-1	7.847175E-1	7.370909E-1	6.891603E-1	7.965756E-1	7.782328E-1	7.795688E-1	5.659792E-1	7.829093E-1	7.996535E-1	7.234040E-1	7.950804E-1	7.788564E-1	7.898368E-1	6.420433E-1	8.150270E-1	8.027135E-1	8.636134E-1	6.883167E-1	6.828720E-1	6.926311E-1	7.062609E-1	7.814286E-1	7.020300E-1	6.977761E-1	6.768673E-1	7.474704E-1	7.546774E-1	6.937915E-1	7.244377E-1	6.116655E-1	6.772030E-1	7.843901E-1	8.198133E-1	6.515826E-1	7.324332E-1	7.585418E-1	6.999834E-1	7.526295E-1	7.063763E-1	7.026064E-1	6.783076E-1	6.729316E-1	7.704789E-1	7.162709E-1	7.641380E-1	6.335463E-1	5.934560E-1	8.325828E-1	7.928556E-1	6.525971E-1	6.525276E-1	6.896029E-1	7.034776E-1	7.526068E-1	6.868840E-1	7.148723E-1	7.535707E-1	6.677074E-1	6.435889E-1	7.592603E-1	7.268486E-1	6.703588E-1	7.530695E-1	7.925503E-1	8.084953E-1	6.781815E-1	6.523187E-1	7.019483E-1	7.676311E-1	6.685978E-1	7.461812E-1	7.247491E-1	6.920036E-1	6.818321E-1	8.135008E-1	7.696103E-1	7.667533E-1	6.692731E-1	6.902779E-1	8.094486E-1	7.254683E-1	6.448319E-1	6.808555E-1	7.944507E-1	7.894151E-1	7.356606E-1	7.096268E-1	7.226247E-1	7.690339E-1	7.114388E-1	7.657412E-1	7.613762E-1	7.670308E-1	6.622306E-1	7.077602E-1	8.652767E-1	7.940130E-1	6.470091E-1	7.243062E-1	7.210471E-1	8.001175E-1	7.223711E-1	7.042453E-1	6.917747E-1	6.672959E-1	7.383916E-1	6.750969E-1	7.450860E-1	6.994844E-1	6.453518E-1	7.245610E-1	8.207354E-1	7.496405E-1	6.804631E-1	7.104670E-1	6.222874E-1	7.758177E-1	7.768794E-1	7.627506E-1	6.370359E-1	7.275310E-1	7.678705E-1	8.053395E-1	7.628750E-1	7.422320E-1	7.054113E-1	7.145503E-1	7.178611E-1	7.884830E-1	7.008143E-1	7.432211E-1	7.257675E-1	7.378222E-1	8.995191E-1
5.380480E+2	9.812329E-1	9.693541E-1	9.288973E-1	8.885960E-1	9.356999E-1	9.151571E-1	9.344918E-1	7.979036E-1	9.207714E-1	8.073150E-1	9.613298E-1	8.659878E-1	9.341152E-1	8.318026E-1	8.512516E-1	8.545053E-1	9.231625E-1	8.841525E-1	8.703810E-1	8.469386E-1	1.011243E+0	9.430222E-1	8.821973E-1	8.375052E-1	9.226286E-1	8.527441E-1	9.620304E-1	8.689015E-1	9.573771E-1	8.675140E-1	9.142769E-1	9.645272E-1	1.042649E+0	8.930952E-1	7.614916E-1	8.208885E-1	9.716865E-1	9.712324E-1	8.612492E-1	8.355845E-1	9.859686E-1	9.328348E-1	9.245552E-1	7.053053E-1	9.756215E-1	1.001239E+0	8.216809E-1	9.084630E-1	9.994870E-1	9.184146E-1	7.676621E-1	9.013851E-1	9.780018E-1	9.699327E-1	8.167121E-1	8.138076E-1	7.744129E-1	8.194692E-1	8.930337E-1	8.384998E-1	8.293910E-1	8.519610E-1	8.539977E-1	8.994000E-1	8.895124E-1	9.227009E-1	7.179198E-1	8.534791E-1	9.392717E-1	1.012275E+0	7.783116E-1	8.347777E-1	8.826765E-1	8.393369E-1	8.892469E-1	8.068303E-1	8.212903E-1	8.250849E-1	7.758615E-1	8.918526E-1	8.524387E-1	9.217726E-1	7.620203E-1	6.802343E-1	9.537676E-1	9.510016E-1	8.046467E-1	7.809651E-1	8.772911E-1	9.276391E-1	8.563206E-1	7.867321E-1	8.066123E-1	8.576705E-1	8.004637E-1	7.759933E-1	8.712486E-1	8.360871E-1	7.641130E-1	8.439814E-1	9.360602E-1	9.412328E-1	7.999831E-1	8.251132E-1	8.714071E-1	9.533756E-1	8.332399E-1	9.103538E-1	8.261287E-1	8.814051E-1	9.121532E-1	9.177701E-1	9.268640E-1	8.830229E-1	7.340765E-1	8.792367E-1	9.663478E-1	8.807130E-1	7.920488E-1	8.121881E-1	9.313078E-1	9.830965E-1	8.544006E-1	8.094810E-1	9.035645E-1	9.003012E-1	8.405446E-1	9.617902E-1	9.104712E-1	8.792034E-1	8.039855E-1	8.389204E-1	9.992980E-1	9.276978E-1	7.551451E-1	8.024634E-1	9.130411E-1	8.725385E-1	8.843378E-1	8.362848E-1	8.473914E-1	8.419685E-1	9.319330E-1	8.385904E-1	9.740639E-1	8.707655E-1	8.137546E-1	8.555423E-1	9.167978E-1	9.006974E-1	8.161931E-1	8.297708E-1	7.438138E-1	1.020830E+0	8.959423E-1	9.271883E-1	8.017065E-1	9.482906E-1	9.131241E-1	9.395057E-1	8.593686E-1	9.202851E-1	8.562187E-1	8.890575E-1	9.067818E-1	9.254581E-1	8.079726E-1	8.110071E-1	9.189202E-1	9.831659E-1	9.690557E-1
5.382640E+2	1.116029E+0	1.147939E+0	1.135754E+0	1.051266E+0	1.102796E+0	1.119671E+0	1.163897E+0	9.149334E-1	1.126131E+0	9.521415E-1	1.129346E+0	1.010144E+0	1.036852E+0	9.961841E-1	9.718429E-1	9.865807E-1	1.096689E+0	1.057462E+0	1.012098E+0	9.930367E-1	1.068166E+0	1.165266E+0	1.107315E+0	9.632914E-1	1.107823E+0	1.031808E+0	1.141080E+0	9.726128E-1	1.110088E+0	9.898451E-1	1.070832E+0	1.091428E+0	1.182924E+0	1.046076E+0	9.548770E-1	9.971097E-1	1.156084E+0	1.103373E+0	1.054528E+0	9.419559E-1	1.084812E+0	1.123360E+0	1.070197E+0	8.580532E-1	1.098194E+0	1.184246E+0	1.014827E+0	1.114063E+0	1.166609E+0	1.157295E+0	9.446708E-1	1.026743E+0	1.158875E+0	1.142616E+0	1.054274E+0	1.003007E+0	9.648395E-1	1.018185E+0	1.107504E+0	9.866114E-1	1.008142E+0	9.198892E-1	9.451387E-1	1.037063E+0	1.076815E+0	1.035995E+0	8.791693E-1	1.033281E+0	1.145300E+0	1.162172E+0	9.920574E-1	9.745060E-1	1.006811E+0	9.886895E-1	1.015253E+0	9.880541E-1	9.996262E-1	9.404560E-1	9.562845E-1	1.082472E+0	1.033069E+0	1.101252E+0	9.097933E-1	9.944777E-1	1.141499E+0	1.086169E+0	9.256783E-1	9.578801E-1	1.045155E+0	1.048896E+0	1.021469E+0	9.294733E-1	9.637935E-1	9.946754E-1	9.667438E-1	8.996157E-1	1.099506E+0	9.999444E-1	9.071472E-1	1.007623E+0	1.089516E+0	1.073367E+0	9.414872E-1	9.553836E-1	1.006322E+0	1.123432E+0	9.458257E-1	1.061565E+0	1.000183E+0	9.979608E-1	9.869169E-1	1.098661E+0	1.035314E+0	1.010506E+0	8.943482E-1	9.609298E-1	1.172944E+0	1.016936E+0	8.702768E-1	9.758147E-1	1.028687E+0	1.101419E+0	1.020764E+0	9.751817E-1	1.028831E+0	1.050138E+0	9.702626E-1	1.147075E+0	1.139465E+0	1.093296E+0	8.712888E-1	1.043106E+0	1.157879E+0	1.073282E+0	9.594019E-1	9.871416E-1	9.791175E-1	1.073793E+0	1.092005E+0	1.002036E+0	9.709690E-1	9.569353E-1	1.016281E+0	9.200118E-1	1.145797E+0	1.033721E+0	9.452226E-1	9.918232E-1	1.091105E+0	1.028809E+0	9.525578E-1	1.043154E+0	8.692607E-1	1.165440E+0	1.087571E+0	1.019733E+0	8.949991E-1	1.039777E+0	1.084662E+0	1.137977E+0	1.027454E+0	1.049263E+0	9.385866E-1	1.006798E+0	1.123158E+0	1.089951E+0	9.601368E-1	9.724020E-1	1.062662E+0	1.099570E+0	1.195052E+0
5.385170E+2	1.314126E+0	1.352979E+0	1.349621E+0	1.271680E+0	1.329822E+0	1.375482E+0	1.412677E+0	1.091736E+0	1.241490E+0	1.162526E+0	1.388037E+0	1.160975E+0	1.198773E+0	1.170545E+0	1.228514E+0	1.228836E+0	1.332686E+0	1.323474E+0	1.243107E+0	1.200577E+0	1.333802E+0	1.393174E+0	1.347779E+0	1.174432E+0	1.359630E+0	1.160823E+0	1.362630E+0	1.188730E+0	1.343566E+0	1.206597E+0	1.253183E+0	1.294023E+0	1.403961E+0	1.268593E+0	1.226581E+0	1.256507E+0	1.392795E+0	1.401166E+0	1.261885E+0	1.192124E+0	1.350238E+0	1.302339E+0	1.293252E+0	1.019109E+0	1.367174E+0	1.379640E+0	1.173886E+0	1.331001E+0	1.361585E+0	1.378554E+0	1.227312E+0	1.218959E+0	1.362100E+0	1.339003E+0	1.236011E+0	1.113268E+0	1.180935E+0	1.140427E+0	1.352231E+0	1.161889E+0	1.181383E+0	1.165841E+0	1.182459E+0	1.365336E+0	1.259206E+0	1.222456E+0	1.264675E+0	1.185583E+0	1.315312E+0	1.395965E+0	1.260700E+0	1.146102E+0	1.197788E+0	1.160538E+0	1.360112E+0	1.133305E+0	1.169265E+0	1.131460E+0	1.146172E+0	1.293320E+0	1.180353E+0	1.244716E+0	1.187142E+0	1.243637E+0	1.348143E+0	1.313251E+0	1.204841E+0	1.119685E+0	1.233463E+0	1.159666E+0	1.322041E+0	1.187531E+0	1.166845E+0	1.200483E+0	1.149116E+0	1.109706E+0	1.238600E+0	1.258550E+0	1.075424E+0	1.181055E+0	1.341723E+0	1.312901E+0	1.107471E+0	1.156527E+0	1.192726E+0	1.281568E+0	1.182498E+0	1.248058E+0	1.146757E+0	1.194939E+0	1.193121E+0	1.296929E+0	1.263061E+0	1.238324E+0	1.040155E+0	1.185407E+0	1.334813E+0	1.212065E+0	1.116048E+0	1.089923E+0	1.270162E+0	1.352150E+0	1.199190E+0	1.220476E+0	1.231642E+0	1.264646E+0	1.206448E+0	1.320059E+0	1.262879E+0	1.287488E+0	1.093451E+0	1.223894E+0	1.320669E+0	1.264361E+0	1.111172E+0	1.143458E+0	1.212878E+0	1.351281E+0	1.268757E+0	1.174812E+0	1.192623E+0	1.126526E+0	1.250360E+0	1.087414E+0	1.265940E+0	1.215114E+0	1.094845E+0	1.257571E+0	1.350627E+0	1.230218E+0	1.195474E+0	1.189046E+0	9.947073E-1	1.382727E+0	1.246792E+0	1.324897E+0	1.074696E+0	1.260535E+0	1.214008E+0	1.372173E+0	1.226044E+0	1.262549E+0	1.137847E+0	1.173596E+0	1.246708E+0	1.250163E+0	1.178025E+0	1.116043E+0	1.167099E+0	1.307307E+0	1.257638E+0
5.387970E+2	1.511479E+0	1.574925E+0	1.593642E+0	1.439981E+0	1.611133E+0	1.607669E+0	1.628957E+0	1.369209E+0	1.525445E+0	1.412248E+0	1.609392E+0	1.389888E+0	1.460078E+0	1.347842E+0	1.472464E+0	1.441429E+0	1.531200E+0	1.479511E+0	1.466051E+0	1.362376E+0	1.640194E+0	1.597788E+0	1.535167E+0	1.375946E+0	1.619487E+0	1.363246E+0	1.617617E+0	1.401119E+0	1.578401E+0	1.416817E+0	1.504138E+0	1.512202E+0	1.637048E+0	1.474783E+0	1.401289E+0	1.473612E+0	1.717781E+0	1.624982E+0	1.476283E+0	1.356279E+0	1.563133E+0	1.583959E+0	1.568790E+0	1.263888E+0	1.638196E+0	1.598423E+0	1.414186E+0	1.540380E+0	1.632058E+0	1.663776E+0	1.343797E+0	1.442515E+0	1.684741E+0	1.602429E+0	1.489081E+0	1.353213E+0	1.412549E+0	1.427662E+0	1.555269E+0	1.387615E+0	1.439102E+0	1.379001E+0	1.403800E+0	1.547477E+0	1.405120E+0	1.502151E+0	1.436602E+0	1.428140E+0	1.622190E+0	1.606934E+0	1.486707E+0	1.377755E+0	1.405953E+0	1.365507E+0	1.573660E+0	1.397336E+0	1.419683E+0	1.355793E+0	1.364456E+0	1.551627E+0	1.463806E+0	1.480874E+0	1.450154E+0	1.480962E+0	1.682980E+0	1.552498E+0	1.441432E+0	1.357671E+0	1.452743E+0	1.440851E+0	1.556551E+0	1.370353E+0	1.397419E+0	1.456543E+0	1.325452E+0	1.302233E+0	1.514649E+0	1.464209E+0	1.485298E+0	1.378960E+0	1.510806E+0	1.500545E+0	1.527803E+0	1.352948E+0	1.432575E+0	1.592811E+0	1.572917E+0	1.489276E+0	1.361117E+0	1.419889E+0	1.464441E+0	1.583670E+0	1.538931E+0	1.361084E+0	1.264070E+0	1.370813E+0	1.579041E+0	1.415785E+0	1.297143E+0	1.321728E+0	1.468211E+0	1.613444E+0	1.450641E+0	1.478794E+0	1.409272E+0	1.497088E+0	1.426723E+0	1.620666E+0	1.478317E+0	1.462985E+0	1.241161E+0	1.445804E+0	1.654672E+0	1.520533E+0	1.271161E+0	1.386125E+0	1.387418E+0	1.543386E+0	1.448873E+0	1.366551E+0	1.372435E+0	1.356460E+0	1.458289E+0	1.240485E+0	1.486438E+0	1.397693E+0	1.369049E+0	1.424137E+0	1.617896E+0	1.507477E+0	1.366090E+0	1.470604E+0	1.176997E+0	1.574542E+0	1.391217E+0	1.528343E+0	1.283196E+0	1.485275E+0	1.476847E+0	1.593669E+0	1.393506E+0	1.455075E+0	1.353456E+0	1.367729E+0	1.508845E+0	1.537567E+0	1.374483E+0	1.309717E+0	1.369237E+0	1.464900E+0	1.448867E+0
5.390130E+2	1.786285E+0	1.810098E+0	1.832754E+0	1.692084E+0	1.848032E+0	1.891155E+0	1.832731E+0	1.546013E+0	1.787851E+0	1.546347E+0	1.843412E+0	1.558740E+0	1.729203E+0	1.590891E+0	1.650029E+0	1.630008E+0	1.808147E+0	1.648213E+0	1.652126E+0	1.556948E+0	1.881238E+0	1.808695E+0	1.708480E+0	1.563345E+0	1.859579E+0	1.542311E+0	1.775067E+0	1.521598E+0	1.798983E+0	1.634753E+0	1.616130E+0	1.804594E+0	1.833997E+0	1.709397E+0	1.593470E+0	1.639967E+0	1.843326E+0	1.753331E+0	1.738680E+0	1.569019E+0	1.750452E+0	1.748183E+0	1.739364E+0	1.649913E+0	1.737614E+0	1.812391E+0	1.634030E+0	1.836688E+0	1.797716E+0	1.837389E+0	1.589323E+0	1.728052E+0	1.897741E+0	1.872632E+0	1.642286E+0	1.555568E+0	1.509258E+0	1.562548E+0	1.679648E+0	1.524727E+0	1.564596E+0	1.590987E+0	1.581347E+0	1.652663E+0	1.659070E+0	1.667960E+0	1.617074E+0	1.595956E+0	1.784995E+0	1.805565E+0	1.667168E+0	1.655374E+0	1.602660E+0	1.608595E+0	1.807103E+0	1.607065E+0	1.570056E+0	1.539747E+0	1.569725E+0	1.789707E+0	1.775045E+0	1.666850E+0	1.596824E+0	1.682788E+0	1.873514E+0	1.808642E+0	1.719380E+0	1.571733E+0	1.654677E+0	1.634208E+0	1.802296E+0	1.564426E+0	1.565609E+0	1.659360E+0	1.550066E+0	1.519753E+0	1.661589E+0	1.735072E+0	1.617517E+0	1.555192E+0	1.696237E+0	1.781104E+0	1.726630E+0	1.563539E+0	1.623542E+0	1.752832E+0	1.844091E+0	1.625368E+0	1.596245E+0	1.581318E+0	1.695964E+0	1.805635E+0	1.770744E+0	1.609558E+0	1.556844E+0	1.625127E+0	1.799835E+0	1.628099E+0	1.650711E+0	1.559991E+0	1.706398E+0	1.828249E+0	1.822733E+0	1.637261E+0	1.664441E+0	1.709035E+0	1.643938E+0	1.822866E+0	1.720152E+0	1.648128E+0	1.521691E+0	1.623047E+0	1.824476E+0	1.803300E+0	1.523479E+0	1.528571E+0	1.614942E+0	1.817827E+0	1.719037E+0	1.542135E+0	1.498629E+0	1.556542E+0	1.740102E+0	1.443060E+0	1.736615E+0	1.607041E+0	1.486117E+0	1.612658E+0	1.808472E+0	1.622202E+0	1.439665E+0	1.538777E+0	1.396527E+0	1.809062E+0	1.640616E+0	1.682073E+0	1.460387E+0	1.689459E+0	1.625561E+0	1.773880E+0	1.591471E+0	1.692896E+0	1.533338E+0	1.554150E+0	1.777516E+0	1.738136E+0	1.571655E+0	1.517109E+0	1.707254E+0	1.907235E+0	1.709631E+0
5.392930E+2	2.053641E+0	2.115824E+0	2.031897E+0	1.908977E+0	2.032758E+0	2.107821E+0	2.112765E+0	1.693240E+0	1.991944E+0	1.781166E+0	2.030099E+0	1.729591E+0	1.873814E+0	1.767602E+0	1.859685E+0	1.858841E+0	2.067051E+0	1.844555E+0	1.857791E+0	1.810229E+0	2.144058E+0	2.090120E+0	1.905459E+0	1.716082E+0	2.016228E+0	1.769755E+0	2.104602E+0	1.727778E+0	1.989703E+0	1.805781E+0	1.854771E+0	2.011642E+0	2.035909E+0	1.867820E+0	1.835651E+0	1.860592E+0	2.069576E+0	1.975885E+0	1.866680E+0	1.704940E+0	1.939156E+0	1.982970E+0	1.960452E+0	1.862096E+0	2.037919E+0	2.070395E+0	1.861263E+0	2.036994E+0	2.028608E+0	2.005127E+0	1.783465E+0	1.936285E+0	2.059760E+0	2.064953E+0	1.919542E+0	1.697783E+0	1.708038E+0	1.799200E+0	1.931096E+0	1.736871E+0	1.733555E+0	1.744413E+0	1.793216E+0	1.925168E+0	1.832340E+0	1.823738E+0	1.848804E+0	1.782808E+0	1.931954E+0	2.081302E+0	1.849959E+0	1.808586E+0	1.829921E+0	1.712957E+0	2.022645E+0	1.731955E+0	1.824822E+0	1.692289E+0	1.705779E+0	1.905638E+0	1.921632E+0	1.812088E+0	1.819035E+0	1.843854E+0	2.068950E+0	1.894476E+0	1.884198E+0	1.715908E+0	1.809533E+0	1.923913E+0	2.022273E+0	1.662866E+0	1.700773E+0	1.782603E+0	1.716346E+0	1.609600E+0	1.785704E+0	1.762383E+0	1.803821E+0	1.755197E+0	2.003855E+0	1.849884E+0	1.954710E+0	1.772111E+0	1.722610E+0	1.964933E+0	1.973023E+0	1.840665E+0	1.724498E+0	1.750320E+0	1.842478E+0	1.948614E+0	1.837849E+0	1.811998E+0	1.821265E+0	1.820477E+0	2.057547E+0	1.848385E+0	1.901409E+0	1.741561E+0	1.847202E+0	2.020526E+0	2.037989E+0	1.763883E+0	1.834118E+0	1.827499E+0	1.874004E+0	1.934343E+0	1.923466E+0	1.766332E+0	1.840938E+0	1.838579E+0	2.037790E+0	1.890093E+0	1.968038E+0	1.727746E+0	1.833116E+0	1.929125E+0	2.049022E+0	1.749326E+0	1.715054E+0	1.716603E+0	1.891142E+0	1.618280E+0	1.927434E+0	1.723009E+0	1.822921E+0	1.746668E+0	1.981233E+0	1.849109E+0	1.886812E+0	1.743297E+0	1.495840E+0	1.999379E+0	1.873809E+0	1.869454E+0	1.610660E+0	1.807464E+0	1.875256E+0	1.913602E+0	1.732789E+0	1.870321E+0	1.678088E+0	1.662778E+0	1.963169E+0	1.972344E+0	1.687386E+0	1.618785E+0	1.664581E+0	1.869627E+0	1.973875E+0
5.395210E+2	2.216741E+0	2.254721E+0	2.204393E+0	2.001226E+0	2.159664E+0	2.275217E+0	2.285290E+0	1.848021E+0	2.183354E+0	1.938510E+0	2.198779E+0	1.896441E+0	1.944723E+0	1.927871E+0	1.976403E+0	2.002218E+0	2.119801E+0	2.026503E+0	1.947083E+0	1.908539E+0	2.266338E+0	2.193372E+0	2.081971E+0	1.866894E+0	2.178001E+0	1.840937E+0	2.209801E+0	1.840185E+0	2.167526E+0	1.898419E+0	2.030087E+0	2.113309E+0	2.116673E+0	2.058896E+0	1.960962E+0	1.924737E+0	2.233047E+0	2.173781E+0	2.086839E+0	1.847420E+0	2.131309E+0	2.201084E+0	2.051643E+0	2.015485E+0	2.244253E+0	2.215562E+0	1.938521E+0	2.129968E+0	2.117296E+0	2.253798E+0	1.921073E+0	2.071394E+0	2.271362E+0	2.232220E+0	1.991493E+0	1.887607E+0	1.872202E+0	1.897954E+0	2.110604E+0	1.784736E+0	1.916586E+0	1.947029E+0	1.896195E+0	2.108717E+0	1.988075E+0	2.071568E+0	1.936906E+0	1.908318E+0	2.213626E+0	2.156556E+0	2.091155E+0	1.913993E+0	1.947688E+0	1.889177E+0	2.130744E+0	1.912501E+0	1.857760E+0	1.837785E+0	1.818767E+0	2.121150E+0	2.025151E+0	2.057689E+0	1.903948E+0	1.985859E+0	2.283298E+0	2.153994E+0	2.019826E+0	1.826087E+0	1.980498E+0	1.980281E+0	2.137875E+0	1.897015E+0	1.844499E+0	1.883713E+0	1.865195E+0	1.778484E+0	2.033221E+0	1.985876E+0	1.928826E+0	1.946112E+0	2.185730E+0	2.104502E+0	2.029938E+0	1.884153E+0	1.891417E+0	2.039608E+0	2.126766E+0	1.958751E+0	1.938244E+0	1.828999E+0	1.925684E+0	2.114490E+0	2.054072E+0	1.915281E+0	1.956079E+0	1.939822E+0	2.120732E+0	1.971722E+0	2.068953E+0	1.830551E+0	2.030775E+0	2.168427E+0	2.116725E+0	1.900643E+0	1.935519E+0	1.999103E+0	2.030646E+0	2.041207E+0	2.071136E+0	2.012991E+0	1.993412E+0	1.895292E+0	2.209005E+0	2.055272E+0	2.026217E+0	1.865150E+0	1.922257E+0	2.059484E+0	2.127653E+0	1.851161E+0	1.881127E+0	1.837922E+0	2.019296E+0	1.710122E+0	2.027786E+0	1.885369E+0	2.018871E+0	1.887489E+0	2.059475E+0	2.035222E+0	2.089773E+0	1.878961E+0	1.648728E+0	2.149980E+0	2.116867E+0	1.994888E+0	1.657619E+0	1.975848E+0	1.954803E+0	2.164471E+0	1.875973E+0	2.003074E+0	2.057832E+0	1.815558E+0	2.047496E+0	2.073853E+0	1.988142E+0	1.711587E+0	1.939711E+0	2.104226E+0	2.165103E+0
5.397650E+2	2.212267E+0	2.301022E+0	2.278020E+0	2.143473E+0	2.196326E+0	2.237412E+0	2.164018E+0	1.915974E+0	2.141524E+0	1.882486E+0	2.282124E+0	1.951832E+0	2.045785E+0	1.884430E+0	1.959252E+0	1.976794E+0	2.187130E+0	1.987349E+0	1.981072E+0	1.944036E+0	2.222769E+0	2.192113E+0	2.048078E+0	1.888716E+0	2.164094E+0	1.877642E+0	2.254391E+0	1.877445E+0	2.208927E+0	1.917422E+0	2.011911E+0	2.117019E+0	2.240654E+0	2.071593E+0	1.994697E+0	1.990999E+0	2.248089E+0	2.206026E+0	2.048437E+0	1.822472E+0	2.046293E+0	2.160670E+0	2.101500E+0	2.005260E+0	2.225184E+0	2.324953E+0	1.944767E+0	2.136019E+0	2.211857E+0	2.192447E+0	2.030703E+0	2.070000E+0	2.177781E+0	2.263372E+0	2.008864E+0	1.828091E+0	1.874588E+0	1.866645E+0	2.183217E+0	1.879811E+0	1.889654E+0	1.877341E+0	1.919868E+0	2.072714E+0	2.040689E+0	2.003119E+0	1.976415E+0	1.976008E+0	2.231631E+0	2.102274E+0	2.074217E+0	2.024918E+0	1.929230E+0	1.899801E+0	2.160588E+0	1.913859E+0	1.942265E+0	1.889702E+0	1.944767E+0	2.068245E+0	2.104349E+0	1.976215E+0	1.890713E+0	2.013469E+0	2.169820E+0	2.122908E+0	2.020438E+0	1.803423E+0	1.958819E+0	2.004535E+0	2.146463E+0	1.874518E+0	1.885475E+0	2.021917E+0	1.869217E+0	1.770378E+0	1.986856E+0	1.985321E+0	1.982311E+0	1.888769E+0	2.150917E+0	2.114757E+0	2.019789E+0	1.899679E+0	1.877078E+0	2.097963E+0	2.184269E+0	1.939308E+0	1.932749E+0	1.873288E+0	1.971509E+0	2.038660E+0	2.052715E+0	1.927674E+0	1.950293E+0	1.944085E+0	2.233613E+0	1.968039E+0	2.112074E+0	1.817633E+0	1.997218E+0	2.129691E+0	2.166253E+0	1.958529E+0	1.972638E+0	2.058652E+0	2.012904E+0	2.164991E+0	2.011922E+0	2.008169E+0	2.044041E+0	1.914438E+0	2.165496E+0	2.012580E+0	2.068586E+0	1.838045E+0	1.994570E+0	2.027465E+0	2.165960E+0	1.924207E+0	1.888319E+0	1.887468E+0	1.973529E+0	1.789587E+0	2.163475E+0	1.852661E+0	2.040157E+0	1.867808E+0	2.055599E+0	2.025024E+0	2.122117E+0	1.869422E+0	1.624553E+0	2.177702E+0	2.129550E+0	2.022417E+0	1.727742E+0	2.038167E+0	2.012906E+0	2.156534E+0	1.865388E+0	1.995523E+0	2.054198E+0	1.784725E+0	2.057302E+0	2.085469E+0	2.019574E+0	1.687380E+0	1.867841E+0	2.097063E+0	2.241594E+0
5.400190E+2	2.186951E+0	2.131992E+0	2.232438E+0	2.106153E+0	2.139922E+0	2.248210E+0	2.202152E+0	1.862494E+0	2.102863E+0	1.844343E+0	2.112107E+0	1.916460E+0	1.995533E+0	1.876210E+0	1.972531E+0	1.980326E+0	2.117722E+0	1.953954E+0	1.941897E+0	1.917409E+0	2.234013E+0	2.123489E+0	2.019293E+0	1.848928E+0	2.145790E+0	1.894322E+0	2.188902E+0	1.829007E+0	2.077936E+0	1.923955E+0	1.977903E+0	2.073233E+0	2.198144E+0	2.005685E+0	1.974814E+0	1.938131E+0	2.208198E+0	2.118138E+0	2.036277E+0	1.829039E+0	2.111957E+0	2.122820E+0	2.083786E+0	1.904279E+0	2.138699E+0	2.159831E+0	1.969197E+0	2.176074E+0	2.148817E+0	2.178739E+0	1.891379E+0	1.985734E+0	2.293708E+0	2.159082E+0	1.969165E+0	1.841248E+0	1.877573E+0	1.841956E+0	2.087745E+0	1.775682E+0	1.891489E+0	1.887883E+0	1.890275E+0	2.051536E+0	1.942477E+0	2.019641E+0	1.932096E+0	1.985171E+0	2.127898E+0	2.181850E+0	2.049689E+0	1.935441E+0	1.886578E+0	1.822312E+0	2.106205E+0	1.900963E+0	1.864592E+0	1.775614E+0	1.917553E+0	2.091584E+0	2.011256E+0	1.888840E+0	1.989413E+0	1.979284E+0	2.218856E+0	2.151290E+0	2.018001E+0	1.792723E+0	1.883245E+0	1.932438E+0	2.097577E+0	1.837953E+0	1.827982E+0	1.829271E+0	1.875250E+0	1.730519E+0	2.010393E+0	1.951880E+0	1.954669E+0	1.903455E+0	2.101899E+0	2.010983E+0	2.086064E+0	1.809234E+0	1.858180E+0	2.057176E+0	2.057158E+0	1.967390E+0	1.855799E+0	1.862800E+0	2.000449E+0	2.050508E+0	2.028315E+0	1.892265E+0	1.917310E+0	1.905722E+0	2.168298E+0	1.954541E+0	2.020291E+0	1.775286E+0	2.009061E+0	2.130396E+0	2.190383E+0	1.933925E+0	1.980587E+0	1.983094E+0	1.948653E+0	2.075040E+0	2.111084E+0	1.877903E+0	1.957679E+0	1.895295E+0	2.154974E+0	2.104966E+0	2.033806E+0	1.790146E+0	1.922257E+0	2.030515E+0	2.190826E+0	1.890495E+0	1.844513E+0	1.790281E+0	2.048068E+0	1.661919E+0	2.082199E+0	1.858013E+0	2.031390E+0	1.890521E+0	2.091235E+0	1.965110E+0	2.108166E+0	1.828515E+0	1.569672E+0	2.132750E+0	2.056281E+0	1.971176E+0	1.715847E+0	2.009659E+0	1.916760E+0	2.093815E+0	1.887805E+0	1.987973E+0	2.046929E+0	1.798739E+0	2.122020E+0	2.037162E+0	1.971707E+0	1.718850E+0	1.902653E+0	2.030802E+0	2.026029E+0
5.402790E+2	2.048427E+0	2.126113E+0	2.166527E+0	1.944187E+0	2.060958E+0	2.099047E+0	2.144019E+0	1.752388E+0	1.989403E+0	1.805603E+0	2.098773E+0	1.784315E+0	1.917923E+0	1.738835E+0	1.918872E+0	1.882859E+0	2.076768E+0	1.907892E+0	1.886592E+0	1.789065E+0	2.102598E+0	2.066198E+0	1.909938E+0	1.660250E+0	2.060150E+0	1.724712E+0	2.034937E+0	1.729021E+0	2.036535E+0	1.785588E+0	1.844218E+0	1.972309E+0	2.038033E+0	1.891406E+0	1.806133E+0	1.830286E+0	2.072190E+0	2.041639E+0	1.923001E+0	1.758780E+0	2.038689E+0	1.918825E+0	1.945359E+0	1.882550E+0	2.078779E+0	2.104104E+0	1.791388E+0	2.105780E+0	2.053533E+0	2.016876E+0	1.839993E+0	1.936283E+0	2.076521E+0	2.093394E+0	1.912722E+0	1.727855E+0	1.737291E+0	1.777526E+0	2.058168E+0	1.745927E+0	1.797215E+0	1.759052E+0	1.804463E+0	1.923049E+0	1.888462E+0	1.840259E+0	1.868027E+0	1.813130E+0	2.016960E+0	2.038121E+0	1.887919E+0	1.815938E+0	1.790454E+0	1.774820E+0	2.010043E+0	1.791682E+0	1.782569E+0	1.728185E+0	1.785642E+0	1.958541E+0	1.888981E+0	1.888838E+0	1.851566E+0	1.838596E+0	2.017112E+0	2.056674E+0	1.903050E+0	1.705204E+0	1.803960E+0	1.864266E+0	2.022931E+0	1.717008E+0	1.674471E+0	1.827473E+0	1.763950E+0	1.659589E+0	1.817801E+0	1.829265E+0	1.843486E+0	1.781072E+0	1.973310E+0	1.977191E+0	1.928437E+0	1.796405E+0	1.729128E+0	1.896532E+0	1.943966E+0	1.936431E+0	1.772744E+0	1.736919E+0	1.914831E+0	1.924913E+0	1.913763E+0	1.733499E+0	1.817793E+0	1.807693E+0	2.072455E+0	1.935517E+0	2.001195E+0	1.689887E+0	1.921549E+0	2.009255E+0	2.071643E+0	1.818153E+0	1.862614E+0	1.915861E+0	1.851366E+0	1.962788E+0	1.939875E+0	1.933990E+0	1.849874E+0	1.863388E+0	2.022353E+0	2.008381E+0	1.905435E+0	1.682992E+0	1.844963E+0	1.963429E+0	1.991896E+0	1.772506E+0	1.782399E+0	1.649275E+0	1.872835E+0	1.613720E+0	1.945097E+0	1.746204E+0	1.914951E+0	1.874624E+0	1.964187E+0	1.853568E+0	1.924867E+0	1.792384E+0	1.507601E+0	2.051079E+0	1.976668E+0	1.901577E+0	1.608778E+0	1.955961E+0	1.866958E+0	2.036657E+0	1.810607E+0	1.862143E+0	1.852514E+0	1.695716E+0	1.937676E+0	1.943604E+0	1.950280E+0	1.734183E+0	1.835274E+0	1.910815E+0	1.883475E+0
5.405080E+2	1.952359E+0	1.991623E+0	1.926015E+0	1.891374E+0	1.957315E+0	2.002527E+0	2.002126E+0	1.721556E+0	1.981800E+0	1.682233E+0	2.019429E+0	1.725589E+0	1.798439E+0	1.720048E+0	1.729687E+0	1.755725E+0	2.004584E+0	1.815189E+0	1.761007E+0	1.778825E+0	2.105410E+0	1.950350E+0	1.841503E+0	1.697470E+0	1.943765E+0	1.654645E+0	2.007761E+0	1.726538E+0	1.968663E+0	1.710175E+0	1.797899E+0	1.883257E+0	1.955851E+0	1.804329E+0	1.698295E+0	1.796449E+0	2.041458E+0	1.965138E+0	1.853878E+0	1.668169E+0	1.942609E+0	1.870066E+0	1.896156E+0	1.822471E+0	1.991614E+0	2.005031E+0	1.732306E+0	1.942508E+0	1.997092E+0	2.018835E+0	1.739494E+0	1.833216E+0	1.999698E+0	1.991814E+0	1.824644E+0	1.632002E+0	1.714011E+0	1.689605E+0	1.894120E+0	1.641152E+0	1.707227E+0	1.687608E+0	1.736404E+0	1.832686E+0	1.892667E+0	1.843211E+0	1.775120E+0	1.818766E+0	1.987425E+0	1.956693E+0	1.854632E+0	1.688467E+0	1.764351E+0	1.737952E+0	1.980201E+0	1.691232E+0	1.728509E+0	1.739719E+0	1.646624E+0	1.858173E+0	1.802139E+0	1.788470E+0	1.777126E+0	1.827419E+0	1.966676E+0	1.967465E+0	1.831286E+0	1.642249E+0	1.759979E+0	1.800687E+0	1.924502E+0	1.735994E+0	1.641442E+0	1.772431E+0	1.712994E+0	1.583930E+0	1.797116E+0	1.775203E+0	1.778580E+0	1.681770E+0	1.899419E+0	1.867985E+0	1.884256E+0	1.637112E+0	1.734994E+0	1.846958E+0	1.942153E+0	1.761456E+0	1.709228E+0	1.720017E+0	1.764702E+0	1.903584E+0	1.805990E+0	1.730548E+0	1.741996E+0	1.720316E+0	1.943243E+0	1.782113E+0	1.866301E+0	1.626018E+0	1.800486E+0	1.976153E+0	1.916075E+0	1.766056E+0	1.849358E+0	1.775630E+0	1.760195E+0	1.966630E+0	1.797910E+0	1.838098E+0	1.840941E+0	1.725848E+0	1.926223E+0	1.914589E+0	1.876345E+0	1.715140E+0	1.729639E+0	1.826973E+0	1.960984E+0	1.721231E+0	1.634628E+0	1.651815E+0	1.891142E+0	1.572682E+0	1.918947E+0	1.683758E+0	1.824801E+0	1.722443E+0	1.916933E+0	1.793019E+0	1.967364E+0	1.686034E+0	1.480161E+0	1.954421E+0	1.964696E+0	1.798327E+0	1.579352E+0	1.772991E+0	1.785340E+0	1.900902E+0	1.701040E+0	1.831941E+0	1.782260E+0	1.681002E+0	1.863153E+0	1.860440E+0	1.881698E+0	1.603452E+0	1.725221E+0	1.907235E+0	1.987781E+0
5.407630E+2	1.917355E+0	1.948262E+0	1.892355E+0	1.866724E+0	1.883988E+0	1.868883E+0	1.844606E+0	1.890806E+0	1.815740E+0	1.616672E+0	1.903420E+0	1.952499E+0	1.693466E+0	1.614374E+0	1.700924E+0	1.733830E+0	1.844242E+0	1.659154E+0	1.767917E+0	1.711917E+0	1.945887E+0	1.876061E+0	1.707200E+0	1.691052E+0	1.829570E+0	1.598480E+0	1.809903E+0	1.725918E+0	1.860068E+0	1.602093E+0	1.724017E+0	1.846894E+0	1.821956E+0	1.771677E+0	1.716974E+0	1.730893E+0	1.979335E+0	1.760287E+0	1.791802E+0	1.579526E+0	1.822338E+0	1.859166E+0	1.841048E+0	1.659501E+0	1.824779E+0	1.951369E+0	1.593127E+0	1.944021E+0	1.914994E+0	1.872634E+0	1.624727E+0	1.761483E+0	1.908214E+0	1.930191E+0	1.754553E+0	1.585014E+0	1.558209E+0	1.631197E+0	1.789908E+0	1.557068E+0	1.655808E+0	1.607379E+0	1.644080E+0	1.882810E+0	1.706065E+0	1.691561E+0	1.679542E+0	1.639673E+0	1.833984E+0	1.845042E+0	1.767613E+0	1.627183E+0	1.631303E+0	1.622967E+0	1.844244E+0	1.548693E+0	1.650214E+0	1.614095E+0	1.612316E+0	1.854283E+0	1.775047E+0	1.728843E+0	1.692765E+0	1.699224E+0	1.894526E+0	1.809993E+0	1.808781E+0	1.523254E+0	1.741398E+0	1.758742E+0	1.789081E+0	1.615051E+0	1.586402E+0	1.688077E+0	1.551408E+0	1.527862E+0	1.729354E+0	1.703304E+0	1.708866E+0	1.702050E+0	1.795698E+0	1.808856E+0	1.801264E+0	1.543964E+0	1.648308E+0	1.784835E+0	1.835013E+0	1.723296E+0	1.611514E+0	1.598801E+0	1.736364E+0	1.874359E+0	1.774807E+0	1.671530E+0	1.707857E+0	1.701134E+0	1.850241E+0	1.720753E+0	1.744952E+0	1.586542E+0	1.684684E+0	1.816985E+0	1.872259E+0	1.640874E+0	1.636603E+0	1.749376E+0	1.741228E+0	1.780578E+0	1.790779E+0	1.768746E+0	1.727179E+0	1.631556E+0	1.876403E+0	1.720012E+0	1.770104E+0	1.590339E+0	1.633644E+0	1.808677E+0	1.872269E+0	1.662937E+0	1.599322E+0	1.599097E+0	1.762332E+0	1.540117E+0	1.763470E+0	1.568382E+0	1.809149E+0	1.632342E+0	1.830939E+0	1.690400E+0	1.860809E+0	1.603540E+0	1.406983E+0	1.860763E+0	1.778701E+0	1.701958E+0	1.517366E+0	1.706696E+0	1.745915E+0	1.840563E+0	1.655595E+0	1.738196E+0	1.733204E+0	1.579379E+0	1.791899E+0	1.850042E+0	1.802398E+0	1.611521E+0	1.683672E+0	1.731733E+0	1.893905E+0
5.410240E+2	1.795221E+0	1.790256E+0	1.715651E+0	1.732224E+0	1.660491E+0	1.704191E+0	1.740842E+0	1.741687E+0	1.633194E+0	1.512376E+0	1.743404E+0	1.755621E+0	1.542714E+0	1.493438E+0	1.540503E+0	1.678033E+0	1.625599E+0	1.556667E+0	1.581270E+0	1.640236E+0	1.708362E+0	1.711112E+0	1.620862E+0	1.698755E+0	1.668531E+0	1.491150E+0	1.708884E+0	1.781186E+0	1.643557E+0	1.488077E+0	1.607335E+0	1.776392E+0	1.679554E+0	1.631394E+0	1.527803E+0	1.532116E+0	1.840714E+0	1.645216E+0	1.591484E+0	1.527654E+0	1.734554E+0	1.682109E+0	1.617992E+0	1.616038E+0	1.698801E+0	1.793128E+0	1.557909E+0	1.701384E+0	1.681170E+0	1.689233E+0	1.520236E+0	1.612444E+0	1.735024E+0	1.743287E+0	1.603829E+0	1.450320E+0	1.407775E+0	1.431276E+0	1.675614E+0	1.430946E+0	1.515012E+0	1.483823E+0	1.498491E+0	1.608187E+0	1.581900E+0	1.571778E+0	1.517228E+0	1.509932E+0	1.744658E+0	1.685893E+0	1.619279E+0	1.526063E+0	1.561915E+0	1.496114E+0	1.663856E+0	1.445528E+0	1.506053E+0	1.507054E+0	1.470341E+0	1.587416E+0	1.567322E+0	1.548180E+0	1.503090E+0	1.530927E+0	1.718002E+0	1.689695E+0	1.597131E+0	1.438260E+0	1.561762E+0	1.602746E+0	1.645733E+0	1.456138E+0	1.416987E+0	1.458339E+0	1.494415E+0	1.369785E+0	1.586691E+0	1.470896E+0	1.559221E+0	1.456587E+0	1.699783E+0	1.662846E+0	1.598857E+0	1.505490E+0	1.487323E+0	1.604735E+0	1.684292E+0	1.541841E+0	1.466160E+0	1.521875E+0	1.537998E+0	1.664239E+0	1.591803E+0	1.496239E+0	1.537171E+0	1.445404E+0	1.727416E+0	1.508442E+0	1.639622E+0	1.415740E+0	1.601780E+0	1.660627E+0	1.726851E+0	1.507015E+0	1.564362E+0	1.573925E+0	1.550325E+0	1.697545E+0	1.650956E+0	1.582998E+0	1.600310E+0	1.500394E+0	1.752208E+0	1.665416E+0	1.607583E+0	1.444739E+0	1.502112E+0	1.589890E+0	1.744578E+0	1.495781E+0	1.454163E+0	1.453643E+0	1.561597E+0	1.377926E+0	1.593858E+0	1.493446E+0	1.589411E+0	1.496062E+0	1.689168E+0	1.481344E+0	1.631210E+0	1.510144E+0	1.496495E+0	1.641225E+0	1.680065E+0	1.575764E+0	1.334538E+0	1.623826E+0	1.556390E+0	1.707985E+0	1.514277E+0	1.572727E+0	1.563013E+0	1.469348E+0	1.717375E+0	1.577316E+0	1.594511E+0	1.441251E+0	1.477043E+0	1.690544E+0	1.699202E+0
5.412640E+2	1.667129E+0	1.698391E+0	1.607664E+0	1.746309E+0	1.712664E+0	1.725116E+0	1.748969E+0	1.710859E+0	1.593898E+0	1.408672E+0	1.644729E+0	1.731596E+0	1.547736E+0	1.432382E+0	1.479653E+0	1.553022E+0	1.668634E+0	1.549754E+0	1.515596E+0	1.612245E+0	1.739985E+0	1.724960E+0	1.604876E+0	1.732767E+0	1.607044E+0	1.422751E+0	1.622494E+0	1.765661E+0	1.603513E+0	1.475609E+0	1.526419E+0	1.714796E+0	1.637754E+0	1.585440E+0	1.494067E+0	1.685078E+0	1.730203E+0	1.617396E+0	1.615161E+0	1.712162E+0	1.631564E+0	1.598714E+0	1.589786E+0	1.720214E+0	1.695396E+0	1.753222E+0	1.468150E+0	1.668882E+0	1.620331E+0	1.708809E+0	1.478552E+0	1.553945E+0	1.690329E+0	1.661347E+0	1.542424E+0	1.620725E+0	1.411359E+0	1.446932E+0	1.634603E+0	1.504681E+0	1.507051E+0	1.390713E+0	1.499085E+0	1.597599E+0	1.530690E+0	1.518081E+0	1.524167E+0	1.481021E+0	1.675498E+0	1.685275E+0	1.628624E+0	1.474584E+0	1.459427E+0	1.419249E+0	1.677783E+0	1.440774E+0	1.425896E+0	1.468600E+0	1.459695E+0	1.630986E+0	1.533277E+0	1.532241E+0	1.465042E+0	1.495430E+0	1.671068E+0	1.593049E+0	1.537525E+0	1.391672E+0	1.510970E+0	1.478869E+0	1.604776E+0	1.440670E+0	1.426773E+0	1.478678E+0	1.417309E+0	1.298180E+0	1.559588E+0	1.490402E+0	1.509338E+0	1.521623E+0	1.642948E+0	1.591649E+0	1.585721E+0	1.386695E+0	1.440398E+0	1.582147E+0	1.661292E+0	1.477035E+0	1.373944E+0	1.479917E+0	1.516896E+0	1.578141E+0	1.533510E+0	1.490338E+0	1.518077E+0	1.464584E+0	1.606016E+0	1.610916E+0	1.563245E+0	1.432247E+0	1.530719E+0	1.664152E+0	1.638591E+0	1.528721E+0	1.498084E+0	1.585449E+0	1.457317E+0	1.643730E+0	1.590320E+0	1.554047E+0	1.544327E+0	1.529465E+0	1.717823E+0	1.645817E+0	1.599363E+0	1.434027E+0	1.470324E+0	1.616568E+0	1.690138E+0	1.430463E+0	1.407742E+0	1.431410E+0	1.546557E+0	1.299762E+0	1.593151E+0	1.462518E+0	1.617584E+0	1.458964E+0	1.625644E+0	1.559739E+0	1.632477E+0	1.463787E+0	1.525245E+0	1.767855E+0	1.637094E+0	1.542108E+0	1.377112E+0	1.545599E+0	1.524575E+0	1.702432E+0	1.445177E+0	1.495968E+0	1.583605E+0	1.399266E+0	1.689921E+0	1.644581E+0	1.615229E+0	1.354906E+0	1.511855E+0	1.624284E+0	1.688769E+0
5.415190E+2	1.577761E+0	1.652827E+0	1.559984E+0	1.618146E+0	1.568130E+0	1.569871E+0	1.618951E+0	1.617111E+0	1.455723E+0	1.371720E+0	1.563386E+0	1.631486E+0	1.475714E+0	1.354301E+0	1.364595E+0	1.444960E+0	1.496494E+0	1.408114E+0	1.372151E+0	1.520766E+0	1.573438E+0	1.590861E+0	1.395105E+0	1.587729E+0	1.570445E+0	1.312085E+0	1.587659E+0	1.615373E+0	1.465734E+0	1.336647E+0	1.514103E+0	1.510719E+0	1.573993E+0	1.461482E+0	1.378999E+0	1.563837E+0	1.651737E+0	1.585150E+0	1.447482E+0	1.630738E+0	1.533411E+0	1.515957E+0	1.470385E+0	1.601979E+0	1.534691E+0	1.643832E+0	1.379531E+0	1.569105E+0	1.591011E+0	1.597205E+0	1.374060E+0	1.593640E+0	1.565321E+0	1.619360E+0	1.438836E+0	1.563714E+0	1.339126E+0	1.345165E+0	1.571407E+0	1.550601E+0	1.376050E+0	1.366700E+0	1.350534E+0	1.515000E+0	1.480183E+0	1.473236E+0	1.368793E+0	1.473971E+0	1.537905E+0	1.618655E+0	1.451668E+0	1.587959E+0	1.382398E+0	1.361133E+0	1.547799E+0	1.486926E+0	1.406632E+0	1.322461E+0	1.313581E+0	1.552407E+0	1.518688E+0	1.503901E+0	1.411003E+0	1.420481E+0	1.588411E+0	1.542359E+0	1.435958E+0	1.316749E+0	1.434159E+0	1.409391E+0	1.508326E+0	1.340118E+0	1.281214E+0	1.381163E+0	1.308692E+0	1.292098E+0	1.426199E+0	1.400671E+0	1.397554E+0	1.428613E+0	1.519333E+0	1.472788E+0	1.514673E+0	1.292197E+0	1.395427E+0	1.458525E+0	1.536598E+0	1.430952E+0	1.361729E+0	1.314991E+0	1.442132E+0	1.540224E+0	1.474538E+0	1.391186E+0	1.397728E+0	1.355898E+0	1.528633E+0	1.431740E+0	1.481935E+0	1.326753E+0	1.453079E+0	1.526814E+0	1.595414E+0	1.397752E+0	1.460969E+0	1.538070E+0	1.443244E+0	1.504575E+0	1.474037E+0	1.418354E+0	1.479402E+0	1.402554E+0	1.637127E+0	1.504434E+0	1.493756E+0	1.336959E+0	1.359991E+0	1.489261E+0	1.581938E+0	1.429060E+0	1.349550E+0	1.319618E+0	1.451098E+0	1.235276E+0	1.417883E+0	1.328703E+0	1.451055E+0	1.452906E+0	1.536554E+0	1.459033E+0	1.463767E+0	1.431061E+0	1.363210E+0	1.600767E+0	1.495485E+0	1.440386E+0	1.251890E+0	1.456766E+0	1.441573E+0	1.515074E+0	1.375451E+0	1.468916E+0	1.493970E+0	1.317969E+0	1.529107E+0	1.505767E+0	1.479498E+0	1.339573E+0	1.365868E+0	1.552651E+0	1.702677E+0
5.417650E+2	1.341681E+0	1.469830E+0	1.402913E+0	1.358295E+0	1.365076E+0	1.428128E+0	1.379546E+0	1.388714E+0	1.295364E+0	1.124383E+0	1.362702E+0	1.447951E+0	1.266332E+0	1.172893E+0	1.252854E+0	1.248612E+0	1.414589E+0	1.275683E+0	1.232737E+0	1.300252E+0	1.440619E+0	1.373028E+0	1.308768E+0	1.410601E+0	1.374269E+0	1.135243E+0	1.435780E+0	1.380626E+0	1.393111E+0	1.222631E+0	1.290125E+0	1.442443E+0	1.364998E+0	1.298222E+0	1.258510E+0	1.405941E+0	1.368599E+0	1.361332E+0	1.291963E+0	1.439011E+0	1.352313E+0	1.389582E+0	1.368698E+0	1.456900E+0	1.346065E+0	1.442249E+0	1.203428E+0	1.402057E+0	1.402632E+0	1.377903E+0	1.193054E+0	1.426498E+0	1.343244E+0	1.401983E+0	1.262681E+0	1.445308E+0	1.159444E+0	1.207870E+0	1.351557E+0	1.361742E+0	1.207705E+0	1.178725E+0	1.245782E+0	1.358982E+0	1.273939E+0	1.290313E+0	1.274818E+0	1.373140E+0	1.375821E+0	1.410768E+0	1.317932E+0	1.444554E+0	1.272269E+0	1.246151E+0	1.339555E+0	1.417699E+0	1.211520E+0	1.220552E+0	1.194088E+0	1.334556E+0	1.317909E+0	1.273056E+0	1.234010E+0	1.344877E+0	1.408387E+0	1.339608E+0	1.310670E+0	1.319895E+0	1.261340E+0	1.276336E+0	1.386778E+0	1.393558E+0	1.187640E+0	1.205269E+0	1.185993E+0	1.169153E+0	1.277119E+0	1.211731E+0	1.258126E+0	1.203433E+0	1.293413E+0	1.292387E+0	1.337340E+0	1.175426E+0	1.189467E+0	1.308550E+0	1.375589E+0	1.285502E+0	1.213327E+0	1.219414E+0	1.276324E+0	1.338006E+0	1.320675E+0	1.230059E+0	1.210841E+0	1.201745E+0	1.414331E+0	1.291222E+0	1.303917E+0	1.176760E+0	1.276082E+0	1.352147E+0	1.396667E+0	1.254484E+0	1.299911E+0	1.297304E+0	1.272530E+0	1.459214E+0	1.325655E+0	1.249495E+0	1.262007E+0	1.245163E+0	1.430132E+0	1.335754E+0	1.335666E+0	1.217202E+0	1.235318E+0	1.358141E+0	1.367552E+0	1.227488E+0	1.210933E+0	1.238951E+0	1.285673E+0	1.106955E+0	1.369121E+0	1.194892E+0	1.345258E+0	1.295427E+0	1.447465E+0	1.255712E+0	1.393998E+0	1.223815E+0	1.232533E+0	1.364746E+0	1.398968E+0	1.250710E+0	1.156093E+0	1.336110E+0	1.276259E+0	1.300723E+0	1.226044E+0	1.300930E+0	1.291077E+0	1.191118E+0	1.310118E+0	1.330271E+0	1.357336E+0	1.125726E+0	1.260308E+0	1.436246E+0	1.434958E+0
5.420160E+2	1.232951E+0	1.249357E+0	1.179929E+0	1.227315E+0	1.178942E+0	1.225641E+0	1.272034E+0	1.202474E+0	1.155289E+0	1.050481E+0	1.224021E+0	1.262418E+0	1.166946E+0	1.056066E+0	1.076392E+0	1.069216E+0	1.224405E+0	1.115041E+0	1.099663E+0	1.188290E+0	1.207307E+0	1.226335E+0	1.210920E+0	1.239891E+0	1.194199E+0	1.006784E+0	1.202389E+0	1.270083E+0	1.182710E+0	1.027257E+0	1.069072E+0	1.256175E+0	1.160253E+0	1.133753E+0	1.088620E+0	1.226901E+0	1.265285E+0	1.203902E+0	1.169727E+0	1.194751E+0	1.189877E+0	1.175322E+0	1.160074E+0	1.244715E+0	1.190806E+0	1.227592E+0	1.055728E+0	1.234248E+0	1.203259E+0	1.225173E+0	1.052018E+0	1.253085E+0	1.199381E+0	1.172412E+0	1.123743E+0	1.246084E+0	1.055574E+0	1.082015E+0	1.165324E+0	1.223979E+0	1.041811E+0	1.073318E+0	1.080664E+0	1.220615E+0	1.142056E+0	1.125685E+0	1.116774E+0	1.289233E+0	1.199329E+0	1.240516E+0	1.132218E+0	1.253961E+0	1.172325E+0	1.056804E+0	1.179726E+0	1.236472E+0	1.043745E+0	1.028267E+0	1.044426E+0	1.159497E+0	1.146311E+0	1.149665E+0	1.104432E+0	1.192359E+0	1.251477E+0	1.225391E+0	1.192068E+0	1.210977E+0	1.079845E+0	1.090844E+0	1.196526E+0	1.259256E+0	1.047582E+0	1.071854E+0	1.053907E+0	1.036749E+0	1.176543E+0	1.103053E+0	1.115089E+0	1.250288E+0	1.233735E+0	1.155424E+0	1.174941E+0	1.201751E+0	1.055204E+0	1.156692E+0	1.229712E+0	1.307824E+0	1.060033E+0	1.084793E+0	1.108106E+0	1.179232E+0	1.179689E+0	1.133267E+0	1.074292E+0	1.147757E+0	1.215542E+0	1.088730E+0	1.145000E+0	1.209055E+0	1.119488E+0	1.200020E+0	1.202366E+0	1.114833E+0	1.137528E+0	1.151307E+0	1.136081E+0	1.152456E+0	1.193681E+0	1.127671E+0	1.139312E+0	1.094152E+0	1.239274E+0	1.187369E+0	1.148482E+0	1.086729E+0	1.080102E+0	1.117246E+0	1.298327E+0	1.109494E+0	1.056624E+0	1.055387E+0	1.138551E+0	9.805892E-1	1.177599E+0	1.065242E+0	1.178733E+0	1.034222E+0	1.187941E+0	1.163296E+0	1.170106E+0	1.028838E+0	1.056124E+0	1.260597E+0	1.233407E+0	1.191054E+0	1.028989E+0	1.141206E+0	1.154523E+0	1.203076E+0	1.102159E+0	1.169434E+0	1.167525E+0	1.041840E+0	1.177415E+0	1.195130E+0	1.233032E+0	1.031311E+0	1.069400E+0	1.237464E+0	1.229821E+0
5.422890E+2	1.047513E+0	1.088410E+0	1.020054E+0	1.111827E+0	9.970390E-1	1.054199E+0	1.075134E+0	1.032592E+0	9.638720E-1	8.830065E-1	1.034670E+0	1.061533E+0	9.944165E-1	8.934456E-1	9.569077E-1	9.449097E-1	1.014784E+0	9.428822E-1	9.297179E-1	1.012152E+0	1.022488E+0	1.031164E+0	1.004989E+0	1.074317E+0	1.035356E+0	8.838854E-1	9.871108E-1	1.052104E+0	1.045610E+0	9.470885E-1	9.676336E-1	1.067680E+0	1.095784E+0	1.017052E+0	9.060785E-1	1.053501E+0	1.122082E+0	1.030664E+0	9.668481E-1	1.058176E+0	9.949544E-1	1.020079E+0	1.061012E+0	1.090051E+0	1.020565E+0	1.097559E+0	9.193901E-1	1.091386E+0	1.039068E+0	1.028065E+0	9.121239E-1	1.059476E+0	1.038759E+0	1.073543E+0	9.953479E-1	9.810803E-1	8.914149E-1	8.947405E-1	9.979161E-1	1.090096E+0	8.765273E-1	8.952953E-1	9.321182E-1	1.038475E+0	9.722909E-1	9.527948E-1	9.608630E-1	9.895652E-1	1.053812E+0	1.041268E+0	1.004906E+0	1.093396E+0	9.227820E-1	9.055769E-1	1.038465E+0	1.087829E+0	9.089052E-1	8.629011E-1	9.343971E-1	1.007780E+0	9.517853E-1	9.418464E-1	9.417720E-1	1.045756E+0	1.088262E+0	1.028048E+0	9.810243E-1	1.056726E+0	9.714444E-1	1.012191E+0	9.706034E-1	1.096121E+0	8.916248E-1	9.701464E-1	9.191391E-1	8.996159E-1	9.040609E-1	9.341788E-1	9.648434E-1	1.036295E+0	1.049021E+0	1.024496E+0	9.743261E-1	1.099829E+0	9.222446E-1	1.038090E+0	1.051753E+0	1.108368E+0	9.128507E-1	9.391001E-1	8.988885E-1	1.059165E+0	9.126298E-1	9.337797E-1	9.718800E-1	1.022732E+0	1.040184E+0	9.469837E-1	9.485054E-1	1.066957E+0	9.510470E-1	1.034510E+0	1.042353E+0	1.003401E+0	9.386922E-1	9.688161E-1	9.329380E-1	1.033290E+0	9.860891E-1	9.871544E-1	9.826666E-1	1.013329E+0	1.037891E+0	1.048785E+0	9.612985E-1	1.015506E+0	9.261320E-1	1.034915E+0	1.026143E+0	9.767522E-1	9.049302E-1	9.035806E-1	9.868574E-1	8.385909E-1	9.740640E-1	9.635428E-1	9.877926E-1	9.441249E-1	9.578569E-1	9.727205E-1	1.009007E+0	9.313494E-1	9.659593E-1	1.065036E+0	1.024165E+0	9.700184E-1	8.605625E-1	1.012596E+0	9.739931E-1	1.103839E+0	9.515046E-1	9.517432E-1	9.876449E-1	9.100832E-1	1.039484E+0	1.013514E+0	1.017288E+0	8.223051E-1	9.245357E-1	1.069126E+0	1.087270E+0
5.425300E+2	9.842119E-1	1.071507E+0	1.001122E+0	1.096334E+0	1.058378E+0	1.027876E+0	1.057007E+0	1.067197E+0	9.740133E-1	8.502270E-1	1.060006E+0	1.041511E+0	9.737578E-1	9.122317E-1	9.181856E-1	9.547977E-1	9.814677E-1	9.169721E-1	8.957290E-1	1.012152E+0	1.029515E+0	1.041236E+0	9.742904E-1	1.077526E+0	1.035356E+0	8.683147E-1	1.049117E+0	1.074461E+0	9.960632E-1	8.805786E-1	9.647024E-1	1.057291E+0	1.070279E+0	9.795626E-1	9.428279E-1	1.059845E+0	1.110966E+0	1.042045E+0	9.930882E-1	1.039790E+0	1.055090E+0	1.002758E+0	1.017057E+0	1.079186E+0	1.086618E+0	1.071415E+0	9.222301E-1	9.999244E-1	1.052263E+0	1.060046E+0	9.092693E-1	1.055993E+0	1.038061E+0	1.008533E+0	9.413851E-1	1.060644E+0	8.436592E-1	8.971490E-1	1.010017E+0	1.020891E+0	8.599993E-1	9.228184E-1	9.090369E-1	1.038475E+0	9.835143E-1	9.427635E-1	9.186800E-1	1.026230E+0	1.045888E+0	1.059774E+0	9.967298E-1	1.058465E+0	9.272381E-1	9.149502E-1	9.860727E-1	1.043711E+0	9.511589E-1	8.911031E-1	8.498056E-1	9.844392E-1	1.005975E+0	9.235441E-1	9.483891E-1	1.031293E+0	1.068648E+0	9.956073E-1	9.566961E-1	1.046023E+0	9.187929E-1	9.577894E-1	9.990091E-1	1.065182E+0	8.934592E-1	9.450188E-1	8.976840E-1	9.023182E-1	9.703979E-1	9.536857E-1	9.071475E-1	1.013218E+0	9.943161E-1	9.919147E-1	1.001791E+0	1.072155E+0	8.948707E-1	9.834968E-1	1.008171E+0	1.032763E+0	9.043003E-1	9.035510E-1	9.157704E-1	1.093131E+0	1.006168E+0	9.219759E-1	9.655157E-1	1.098031E+0	1.056513E+0	1.020617E+0	1.012565E+0	1.025334E+0	9.905255E-1	1.009860E+0	9.725054E-1	1.049710E+0	9.519484E-1	9.688160E-1	9.568013E-1	9.817785E-1	9.639748E-1	9.328773E-1	9.564608E-1	1.050195E+0	1.076484E+0	1.034086E+0	1.023271E+0	1.038196E+0	9.117947E-1	1.007471E+0	1.105446E+0	1.040665E+0	9.042760E-1	9.048508E-1	9.888191E-1	8.698564E-1	1.024241E+0	9.492697E-1	9.727678E-1	1.009237E+0	1.070962E+0	9.255548E-1	1.064821E+0	1.050653E+0	9.862139E-1	1.041060E+0	1.008666E+0	1.027381E+0	8.480403E-1	9.688422E-1	1.001660E+0	9.784061E-1	9.477689E-1	9.762808E-1	1.006420E+0	9.878753E-1	1.034254E+0	1.001284E+0	1.028719E+0	9.546483E-1	9.245358E-1	1.008237E+0	1.003825E+0
5.427650E+2	9.827225E-1	9.987506E-1	1.040390E+0	1.038590E+0	1.021716E+0	1.000203E+0	1.084510E+0	1.033850E+0	1.012677E+0	8.812185E-1	9.859986E-1	1.078218E+0	9.341149E-1	8.705493E-1	9.336744E-1	9.336088E-1	9.939614E-1	9.780047E-1	8.675006E-1	9.855266E-1	9.690789E-1	1.050681E+0	9.998721E-1	1.082018E+0	1.042675E+0	9.228128E-1	1.033092E+0	1.069493E+0	1.089048E+0	9.102710E-1	9.682204E-1	1.035769E+0	1.048317E+0	9.559804E-1	9.476476E-1	1.048566E+0	1.013536E+0	1.004110E+0	1.001408E+0	1.088380E+0	1.061311E+0	1.037400E+0	1.061012E+0	1.019748E+0	1.006265E+0	1.066598E+0	9.364322E-1	1.031672E+0	1.024409E+0	1.035897E+0	8.721543E-1	1.067136E+0	1.057615E+0	1.064740E+0	9.469670E-1	1.038090E+0	9.200687E-1	9.140102E-1	9.723676E-1	9.956662E-1	9.101960E-1	9.075927E-1	8.942422E-1	1.061066E+0	9.631709E-1	9.710868E-1	9.160101E-1	1.031871E+0	1.004106E+0	1.029548E+0	9.955617E-1	1.086655E+0	9.005010E-1	8.724568E-1	9.807671E-1	1.040317E+0	9.337605E-1	9.019992E-1	9.379467E-1	9.914417E-1	9.330277E-1	9.140979E-1	9.169607E-1	1.037867E+0	1.040628E+0	1.023992E+0	1.014475E+0	1.035320E+0	9.788775E-1	9.420590E-1	1.021469E+0	1.010336E+0	9.038571E-1	8.696358E-1	8.916491E-1	8.752965E-1	9.076273E-1	9.676186E-1	9.708518E-1	1.026505E+0	1.042627E+0	1.011826E+0	1.003582E+0	1.091731E+0	8.916122E-1	1.044365E+0	1.029357E+0	1.052924E+0	9.049112E-1	8.656703E-1	9.043145E-1	1.021249E+0	9.532986E-1	9.562070E-1	9.371640E-1	1.051857E+0	1.078521E+0	9.426882E-1	9.836153E-1	1.066240E+0	9.372299E-1	1.033807E+0	9.845705E-1	1.041027E+0	9.254369E-1	9.649741E-1	9.525182E-1	1.027908E+0	1.003923E+0	9.895666E-1	9.481225E-1	1.031053E+0	1.058941E+0	9.892908E-1	1.013153E+0	1.050173E+0	9.491963E-1	9.365743E-1	1.067139E+0	1.041368E+0	9.049301E-1	8.641997E-1	1.020204E+0	8.581318E-1	1.007279E+0	9.171542E-1	1.005321E+0	1.055421E+0	1.026029E+0	9.733579E-1	1.042622E+0	1.111328E+0	9.666131E-1	1.068033E+0	1.040369E+0	1.041148E+0	8.286299E-1	9.588977E-1	9.843676E-1	1.067321E+0	9.284706E-1	9.775388E-1	9.967295E-1	1.035532E+0	1.038177E+0	9.976153E-1	9.858554E-1	1.059554E+0	8.605255E-1	9.813750E-1	1.066409E+0
5.430170E+2	1.113794E+0	1.144264E+0	1.134351E+0	1.187880E+0	1.154265E+0	1.196618E+0	1.175773E+0	1.153397E+0	1.066552E+0	9.867092E-1	1.103343E+0	1.260417E+0	1.049693E+0	9.615461E-1	1.039884E+0	1.066391E+0	1.151524E+0	1.077041E+0	1.045512E+0	1.092028E+0	1.161631E+0	1.155190E+0	1.130338E+0	1.196253E+0	1.143691E+0	9.873204E-1	1.145260E+0	1.185003E+0	1.186782E+0	1.024288E+0	1.047375E+0	1.163412E+0	1.203468E+0	1.063613E+0	1.009700E+0	1.153594E+0	1.203165E+0	1.209594E+0	1.093567E+0	1.243339E+0	1.153242E+0	1.184304E+0	1.125961E+0	1.217233E+0	1.207149E+0	1.167735E+0	1.014259E+0	1.125401E+0	1.231112E+0	1.157948E+0	1.030891E+0	1.156280E+0	1.133735E+0	1.144648E+0	1.067299E+0	1.185315E+0	9.708095E-1	9.844638E-1	1.126329E+0	1.134723E+0	1.016099E+0	9.989462E-1	1.036872E+0	1.106954E+0	1.094353E+0	1.040715E+0	1.028672E+0	1.167251E+0	1.146741E+0	1.147367E+0	1.057465E+0	1.196353E+0	1.032275E+0	9.930634E-1	1.119375E+0	1.180816E+0	1.021375E+0	1.015447E+0	9.852705E-1	1.161053E+0	1.101153E+0	1.045166E+0	1.035509E+0	1.181184E+0	1.204543E+0	1.132802E+0	1.094148E+0	1.162497E+0	1.016663E+0	1.049551E+0	1.113952E+0	1.203704E+0	1.032904E+0	1.048520E+0	1.026417E+0	9.766265E-1	1.068120E+0	1.044532E+0	1.080231E+0	1.160075E+0	1.169085E+0	1.121636E+0	1.105083E+0	1.205125E+0	1.013492E+0	1.134729E+0	1.154654E+0	1.207735E+0	1.002626E+0	9.833911E-1	1.083387E+0	1.134207E+0	1.130208E+0	1.054181E+0	1.047676E+0	1.191090E+0	1.170814E+0	1.080138E+0	1.095106E+0	1.159536E+0	1.060270E+0	1.148606E+0	1.168078E+0	1.198768E+0	1.004971E+0	1.107127E+0	1.081012E+0	1.199354E+0	1.066701E+0	1.105962E+0	1.067839E+0	1.176393E+0	1.214013E+0	1.092880E+0	1.087773E+0	1.163625E+0	1.071998E+0	1.121057E+0	1.194159E+0	1.109494E+0	1.013469E+0	9.677330E-1	1.095398E+0	9.525805E-1	1.085019E+0	1.077730E+0	1.102358E+0	1.116748E+0	1.125191E+0	1.045381E+0	1.107315E+0	1.180183E+0	1.058084E+0	1.136967E+0	1.120683E+0	1.231589E+0	9.225486E-1	1.060991E+0	1.124780E+0	1.175289E+0	1.029322E+0	1.100855E+0	1.094846E+0	1.197425E+0	1.102239E+0	1.111966E+0	1.088727E+0	1.199968E+0	1.037956E+0	1.131806E+0	1.101177E+0
5.432960E+2	1.331255E+0	1.336077E+0	1.304043E+0	1.388575E+0	1.298094E+0	1.341060E+0	1.301413E+0	1.332715E+0	1.219940E+0	1.118424E+0	1.256690E+0	1.363195E+0	1.192629E+0	1.117709E+0	1.227962E+0	1.209061E+0	1.296591E+0	1.185285E+0	1.224098E+0	1.185558E+0	1.313422E+0	1.335881E+0	1.281911E+0	1.381722E+0	1.295946E+0	1.137470E+0	1.377260E+0	1.357648E+0	1.317774E+0	1.124053E+0	1.149401E+0	1.348939E+0	1.336660E+0	1.231103E+0	1.150070E+0	1.298803E+0	1.336560E+0	1.293683E+0	1.210045E+0	1.360216E+0	1.272823E+0	1.264491E+0	1.275539E+0	1.359119E+0	1.252092E+0	1.314968E+0	1.131850E+0	1.330246E+0	1.356454E+0	1.268251E+0	1.172496E+0	1.327604E+0	1.318800E+0	1.323429E+0	1.160338E+0	1.388298E+0	1.086617E+0	1.139221E+0	1.228522E+0	1.344282E+0	1.145265E+0	1.133633E+0	1.118541E+0	1.325096E+0	1.225535E+0	1.212424E+0	1.189921E+0	1.330835E+0	1.321795E+0	1.362654E+0	1.205804E+0	1.378978E+0	1.168505E+0	1.130541E+0	1.264614E+0	1.370185E+0	1.127010E+0	1.118640E+0	1.124284E+0	1.322107E+0	1.225509E+0	1.142580E+0	1.243384E+0	1.325157E+0	1.294905E+0	1.307843E+0	1.239507E+0	1.326194E+0	1.257621E+0	1.197025E+0	1.294955E+0	1.364025E+0	1.116693E+0	1.186124E+0	1.166549E+0	1.104302E+0	1.167270E+0	1.171047E+0	1.198024E+0	1.256582E+0	1.307621E+0	1.289973E+0	1.268083E+0	1.336072E+0	1.100176E+0	1.258347E+0	1.304770E+0	1.320063E+0	1.136982E+0	1.142489E+0	1.222062E+0	1.244006E+0	1.269837E+0	1.144480E+0	1.185961E+0	1.338137E+0	1.322745E+0	1.201020E+0	1.241708E+0	1.313832E+0	1.197785E+0	1.355669E+0	1.293167E+0	1.300069E+0	1.175305E+0	1.214063E+0	1.207059E+0	1.300069E+0	1.281427E+0	1.233209E+0	1.192322E+0	1.299046E+0	1.371893E+0	1.260863E+0	1.263574E+0	1.345153E+0	1.154281E+0	1.228546E+0	1.352764E+0	1.308960E+0	1.097816E+0	1.129066E+0	1.223555E+0	1.018369E+0	1.263820E+0	1.176456E+0	1.213164E+0	1.215930E+0	1.292526E+0	1.215558E+0	1.269049E+0	1.272901E+0	1.160662E+0	1.235871E+0	1.276381E+0	1.410559E+0	1.040260E+0	1.269816E+0	1.216083E+0	1.285640E+0	1.166281E+0	1.190826E+0	1.297132E+0	1.367027E+0	1.219253E+0	1.341888E+0	1.238033E+0	1.380731E+0	1.104212E+0	1.237464E+0	1.386280E+0
5.435220E+2	1.382643E+0	1.389726E+0	1.412729E+0	1.456179E+0	1.357319E+0	1.396409E+0	1.438305E+0	1.432759E+0	1.311844E+0	1.199477E+0	1.447375E+0	1.383885E+0	1.353993E+0	1.201073E+0	1.249537E+0	1.269801E+0	1.345181E+0	1.346504E+0	1.229857E+0	1.357599E+0	1.402669E+0	1.398841E+0	1.343305E+0	1.397765E+0	1.366218E+0	1.173059E+0	1.361232E+0	1.437137E+0	1.325921E+0	1.178091E+0	1.258461E+0	1.368232E+0	1.352247E+0	1.359898E+0	1.280196E+0	1.465859E+0	1.428103E+0	1.345528E+0	1.307964E+0	1.364156E+0	1.353003E+0	1.402411E+0	1.403471E+0	1.433254E+0	1.338574E+0	1.449126E+0	1.220470E+0	1.482176E+0	1.434884E+0	1.383125E+0	1.223317E+0	1.418136E+0	1.411683E+0	1.370153E+0	1.263923E+0	1.443428E+0	1.157654E+0	1.212085E+0	1.364333E+0	1.434828E+0	1.188116E+0	1.181066E+0	1.249928E+0	1.338511E+0	1.274641E+0	1.299756E+0	1.260402E+0	1.380898E+0	1.365736E+0	1.425575E+0	1.291066E+0	1.456198E+0	1.228345E+0	1.176161E+0	1.409852E+0	1.405481E+0	1.204062E+0	1.189144E+0	1.207694E+0	1.370347E+0	1.282480E+0	1.260658E+0	1.256064E+0	1.346853E+0	1.446912E+0	1.324740E+0	1.263837E+0	1.423780E+0	1.273726E+0	1.248808E+0	1.380174E+0	1.428011E+0	1.165010E+0	1.233986E+0	1.232258E+0	1.182664E+0	1.299229E+0	1.224551E+0	1.280962E+0	1.373368E+0	1.427686E+0	1.317728E+0	1.308683E+0	1.417071E+0	1.205763E+0	1.330511E+0	1.374982E+0	1.431670E+0	1.176680E+0	1.204262E+0	1.235928E+0	1.315888E+0	1.254927E+0	1.254257E+0	1.268702E+0	1.394258E+0	1.426396E+0	1.297358E+0	1.343343E+0	1.395647E+0	1.289901E+0	1.413421E+0	1.329362E+0	1.455641E+0	1.211098E+0	1.326121E+0	1.263352E+0	1.391557E+0	1.324229E+0	1.262762E+0	1.292979E+0	1.470619E+0	1.447673E+0	1.388947E+0	1.299620E+0	1.423308E+0	1.226591E+0	1.310877E+0	1.454917E+0	1.422035E+0	1.213548E+0	1.140499E+0	1.311824E+0	1.145385E+0	1.373360E+0	1.225223E+0	1.367170E+0	1.313598E+0	1.412604E+0	1.266549E+0	1.373702E+0	1.437199E+0	1.238414E+0	1.403709E+0	1.336970E+0	1.372317E+0	1.131048E+0	1.296334E+0	1.261043E+0	1.463470E+0	1.247833E+0	1.265066E+0	1.351035E+0	1.389453E+0	1.357836E+0	1.371242E+0	1.393771E+0	1.383958E+0	1.209773E+0	1.391476E+0	1.483634E+0
5.437910E+2	1.631382E+0	1.632245E+0	1.653944E+0	1.587862E+0	1.652029E+0	1.650196E+0	1.642081E+0	1.624658E+0	1.590729E+0	1.382449E+0	1.646063E+0	1.678203E+0	1.501397E+0	1.398920E+0	1.480208E+0	1.529715E+0	1.633927E+0	1.455329E+0	1.442434E+0	1.556947E+0	1.697819E+0	1.599676E+0	1.549876E+0	1.658966E+0	1.589476E+0	1.369919E+0	1.631550E+0	1.681204E+0	1.610303E+0	1.434038E+0	1.526417E+0	1.669530E+0	1.644130E+0	1.487484E+0	1.484426E+0	1.663224E+0	1.613808E+0	1.571875E+0	1.529402E+0	1.661601E+0	1.635018E+0	1.587808E+0	1.566169E+0	1.671004E+0	1.621171E+0	1.713319E+0	1.414185E+0	1.633352E+0	1.623996E+0	1.590023E+0	1.437441E+0	1.650049E+0	1.673566E+0	1.695882E+0	1.531259E+0	1.635135E+0	1.373749E+0	1.393940E+0	1.529720E+0	1.613338E+0	1.431758E+0	1.420576E+0	1.406758E+0	1.670319E+0	1.474569E+0	1.467336E+0	1.454755E+0	1.662940E+0	1.585453E+0	1.550799E+0	1.543358E+0	1.672530E+0	1.488710E+0	1.414875E+0	1.562388E+0	1.663404E+0	1.412849E+0	1.403864E+0	1.408820E+0	1.662889E+0	1.486037E+0	1.445452E+0	1.408801E+0	1.653207E+0	1.675973E+0	1.584265E+0	1.508940E+0	1.616435E+0	1.419291E+0	1.501806E+0	1.572408E+0	1.741621E+0	1.350936E+0	1.385347E+0	1.409266E+0	1.361005E+0	1.490395E+0	1.450832E+0	1.457649E+0	1.597149E+0	1.579014E+0	1.565705E+0	1.520644E+0	1.678288E+0	1.405853E+0	1.553910E+0	1.623762E+0	1.643370E+0	1.442344E+0	1.349375E+0	1.447559E+0	1.582880E+0	1.596544E+0	1.434272E+0	1.433021E+0	1.622993E+0	1.606726E+0	1.472237E+0	1.532444E+0	1.633194E+0	1.473474E+0	1.578226E+0	1.618274E+0	1.635089E+0	1.469583E+0	1.504130E+0	1.478120E+0	1.607595E+0	1.526826E+0	1.491932E+0	1.423416E+0	1.613125E+0	1.626603E+0	1.572326E+0	1.502609E+0	1.649588E+0	1.435415E+0	1.553300E+0	1.616886E+0	1.592003E+0	1.405125E+0	1.404099E+0	1.538059E+0	1.310181E+0	1.576187E+0	1.463115E+0	1.526181E+0	1.607358E+0	1.562895E+0	1.487077E+0	1.654676E+0	1.595362E+0	1.431158E+0	1.660710E+0	1.611730E+0	1.627004E+0	1.299473E+0	1.527701E+0	1.482382E+0	1.635746E+0	1.428989E+0	1.500373E+0	1.500633E+0	1.645258E+0	1.499038E+0	1.594434E+0	1.584511E+0	1.567946E+0	1.539930E+0	1.581303E+0	1.612279E+0
5.440170E+2	1.612763E+0	1.707210E+0	1.674982E+0	1.689973E+0	1.693628E+0	1.679890E+0	1.716464E+0	1.627177E+0	1.758058E+0	1.433704E+0	1.694067E+0	1.810347E+0	1.672252E+0	1.461150E+0	1.538845E+0	1.472503E+0	1.658223E+0	1.527300E+0	1.514445E+0	1.587669E+0	1.683765E+0	1.655082E+0	1.555631E+0	1.646771E+0	1.688296E+0	1.415520E+0	1.663595E+0	1.711011E+0	1.653739E+0	1.429287E+0	1.487135E+0	1.610903E+0	1.700098E+0	1.546741E+0	1.477197E+0	1.679439E+0	1.658276E+0	1.609811E+0	1.588282E+0	1.750902E+0	1.741469E+0	1.646184E+0	1.585846E+0	1.724688E+0	1.655220E+0	1.661718E+0	1.399980E+0	1.628063E+0	1.696563E+0	1.640280E+0	1.479120E+0	1.683481E+0	1.697310E+0	1.682338E+0	1.552966E+0	1.665204E+0	1.594023E+0	1.424652E+0	1.557959E+0	1.638561E+0	1.559087E+0	1.403592E+0	1.410902E+0	1.666784E+0	1.600139E+0	1.482086E+0	1.441406E+0	1.705951E+0	1.653171E+0	1.619889E+0	1.507151E+0	1.632085E+0	1.476617E+0	1.453617E+0	1.628705E+0	1.636254E+0	1.457584E+0	1.447450E+0	1.449044E+0	1.648103E+0	1.570098E+0	1.539914E+0	1.489852E+0	1.585494E+0	1.632544E+0	1.580208E+0	1.513197E+0	1.669949E+0	1.510349E+0	1.552276E+0	1.598830E+0	1.731069E+0	1.368060E+0	1.468509E+0	1.392503E+0	1.444094E+0	1.525349E+0	1.483715E+0	1.473277E+0	1.640507E+0	1.618798E+0	1.573549E+0	1.586913E+0	1.675584E+0	1.450824E+0	1.564576E+0	1.663714E+0	1.672168E+0	1.483264E+0	1.398329E+0	1.492175E+0	1.642914E+0	1.530798E+0	1.462009E+0	1.467159E+0	1.636492E+0	1.667784E+0	1.484511E+0	1.516427E+0	1.671946E+0	1.521505E+0	1.653582E+0	1.630972E+0	1.606146E+0	1.567674E+0	1.540628E+0	1.523399E+0	1.623741E+0	1.550369E+0	1.503390E+0	1.456773E+0	1.661333E+0	1.717824E+0	1.573028E+0	1.576600E+0	1.685515E+0	1.440401E+0	1.533475E+0	1.680060E+0	1.587086E+0	1.444357E+0	1.463804E+0	1.582524E+0	1.340145E+0	1.569123E+0	1.446462E+0	1.574384E+0	1.596761E+0	1.604728E+0	1.603721E+0	1.593787E+0	1.659444E+0	1.486042E+0	1.706413E+0	1.668094E+0	1.613240E+0	1.399027E+0	1.599962E+0	1.487916E+0	1.623043E+0	1.455760E+0	1.495969E+0	1.517592E+0	1.637547E+0	1.548721E+0	1.568143E+0	1.543795E+0	1.622016E+0	1.398434E+0	1.602794E+0	1.647047E+0
5.442590E+2	1.773625E+0	1.729990E+0	1.716352E+0	1.763210E+0	1.714072E+0	1.719043E+0	1.798350E+0	1.684431E+0	1.747918E+0	1.448007E+0	1.723402E+0	1.811681E+0	1.758795E+0	1.478759E+0	1.531654E+0	1.629299E+0	1.708891E+0	1.573363E+0	1.548433E+0	1.607467E+0	1.704851E+0	1.646896E+0	1.569702E+0	1.696189E+0	1.746124E+0	1.482254E+0	1.690767E+0	1.694245E+0	1.654418E+0	1.471449E+0	1.570392E+0	1.738546E+0	1.752524E+0	1.524369E+0	1.535636E+0	1.651243E+0	1.737398E+0	1.631306E+0	1.537082E+0	1.747616E+0	1.648842E+0	1.666067E+0	1.641610E+0	1.763036E+0	1.734894E+0	1.740148E+0	1.496556E+0	1.671147E+0	1.637190E+0	1.653985E+0	1.495110E+0	1.744766E+0	1.727341E+0	1.689112E+0	1.525677E+0	1.709683E+0	1.734903E+0	1.492696E+0	1.696456E+0	1.670905E+0	1.707842E+0	1.442246E+0	1.459431E+0	1.668196E+0	1.730618E+0	1.619572E+0	1.565281E+0	1.698899E+0	1.692788E+0	1.689593E+0	1.591830E+0	1.741170E+0	1.732521E+0	1.441744E+0	1.629368E+0	1.693265E+0	1.706761E+0	1.442319E+0	1.447863E+0	1.714237E+0	1.752813E+0	1.551720E+0	1.546649E+0	1.643343E+0	1.779644E+0	1.605890E+0	1.528404E+0	1.661137E+0	1.589017E+0	1.523437E+0	1.633182E+0	1.674819E+0	1.523406E+0	1.554660E+0	1.469608E+0	1.465036E+0	1.673000E+0	1.538890E+0	1.532175E+0	1.703448E+0	1.684866E+0	1.596477E+0	1.611991E+0	1.716761E+0	1.477546E+0	1.639250E+0	1.626789E+0	1.688730E+0	1.493031E+0	1.451358E+0	1.548851E+0	1.725066E+0	1.579601E+0	1.534012E+0	1.548163E+0	1.659226E+0	1.656424E+0	1.469783E+0	1.621761E+0	1.732949E+0	1.546510E+0	1.571887E+0	1.663989E+0	1.683565E+0	1.562372E+0	1.568803E+0	1.585200E+0	1.774429E+0	1.633835E+0	1.562493E+0	1.551474E+0	1.677638E+0	1.734664E+0	1.645822E+0	1.667030E+0	1.707576E+0	1.511464E+0	1.531190E+0	1.737186E+0	1.735980E+0	1.465281E+0	1.408543E+0	1.597560E+0	1.332982E+0	1.613649E+0	1.430402E+0	1.635109E+0	1.579345E+0	1.715513E+0	1.521499E+0	1.656576E+0	1.633537E+0	1.481468E+0	1.747625E+0	1.595526E+0	1.731787E+0	1.380870E+0	1.568143E+0	1.552935E+0	1.737360E+0	1.515523E+0	1.634382E+0	1.637509E+0	1.714639E+0	1.682728E+0	1.591989E+0	1.613804E+0	1.799548E+0	1.512979E+0	1.642192E+0	1.647046E+0
5.445180E+2	1.638084E+0	1.668258E+0	1.580318E+0	1.608989E+0	1.653437E+0	1.609021E+0	1.644579E+0	1.651716E+0	1.773269E+0	1.487343E+0	1.676065E+0	1.738270E+0	1.671134E+0	1.452928E+0	1.487401E+0	1.461913E+0	1.654750E+0	1.526149E+0	1.475847E+0	1.560362E+0	1.699229E+0	1.677115E+0	1.510862E+0	1.649979E+0	1.656819E+0	1.434982E+0	1.605772E+0	1.676854E+0	1.686317E+0	1.436413E+0	1.462509E+0	1.692537E+0	1.624999E+0	1.513486E+0	1.462136E+0	1.652657E+0	1.666121E+0	1.595900E+0	1.487164E+0	1.698372E+0	1.635712E+0	1.550602E+0	1.531396E+0	1.704875E+0	1.679734E+0	1.647962E+0	1.435773E+0	1.668126E+0	1.642321E+0	1.616784E+0	1.440866E+0	1.675820E+0	1.640046E+0	1.634939E+0	1.481018E+0	1.722216E+0	1.608948E+0	1.433080E+0	1.572749E+0	1.605578E+0	1.637443E+0	1.430533E+0	1.457063E+0	1.577833E+0	1.638722E+0	1.491530E+0	1.516693E+0	1.607943E+0	1.655328E+0	1.695143E+0	1.532262E+0	1.598993E+0	1.628761E+0	1.416124E+0	1.623401E+0	1.693268E+0	1.651454E+0	1.445523E+0	1.457921E+0	1.700234E+0	1.635404E+0	1.506264E+0	1.523490E+0	1.619675E+0	1.654959E+0	1.634948E+0	1.577057E+0	1.656731E+0	1.647863E+0	1.493941E+0	1.590240E+0	1.663568E+0	1.637163E+0	1.483463E+0	1.367694E+0	1.392080E+0	1.690833E+0	1.464206E+0	1.509338E+0	1.653795E+0	1.610982E+0	1.530711E+0	1.552284E+0	1.727560E+0	1.610506E+0	1.604107E+0	1.605607E+0	1.637609E+0	1.513185E+0	1.383176E+0	1.494587E+0	1.607366E+0	1.620946E+0	1.521026E+0	1.508819E+0	1.613051E+0	1.652165E+0	1.484508E+0	1.550309E+0	1.674819E+0	1.535323E+0	1.642319E+0	1.634782E+0	1.683565E+0	1.464942E+0	1.461230E+0	1.495255E+0	1.633737E+0	1.613147E+0	1.497359E+0	1.492509E+0	1.638648E+0	1.636428E+0	1.599625E+0	1.536759E+0	1.617443E+0	1.440405E+0	1.538812E+0	1.711646E+0	1.587084E+0	1.433897E+0	1.372973E+0	1.502098E+0	1.346659E+0	1.599510E+0	1.408994E+0	1.576890E+0	1.546034E+0	1.591558E+0	1.522771E+0	1.626137E+0	1.613766E+0	1.455988E+0	1.551315E+0	1.620185E+0	1.643064E+0	1.346435E+0	1.515105E+0	1.529417E+0	1.688137E+0	1.446420E+0	1.553220E+0	1.545449E+0	1.577978E+0	1.504270E+0	1.605444E+0	1.585225E+0	1.678502E+0	1.431000E+0	1.574140E+0	1.567079E+0
5.447610E+2	1.553187E+0	1.518338E+0	1.574711E+0	1.561105E+0	1.437693E+0	1.534773E+0	1.525191E+0	1.466104E+0	1.574247E+0	1.313909E+0	1.520050E+0	1.564078E+0	1.553879E+0	1.289133E+0	1.360723E+0	1.432950E+0	1.498579E+0	1.422510E+0	1.312814E+0	1.426550E+0	1.515109E+0	1.452984E+0	1.405340E+0	1.587086E+0	1.520667E+0	1.233118E+0	1.502660E+0	1.506694E+0	1.499670E+0	1.330710E+0	1.363415E+0	1.617582E+0	1.513067E+0	1.378641E+0	1.316948E+0	1.487003E+0	1.541881E+0	1.435305E+0	1.413563E+0	1.538159E+0	1.528571E+0	1.471053E+0	1.436270E+0	1.499083E+0	1.553755E+0	1.551638E+0	1.377826E+0	1.549450E+0	1.569754E+0	1.579580E+0	1.309537E+0	1.553945E+0	1.511548E+0	1.450738E+0	1.379912E+0	1.512338E+0	1.539700E+0	1.271700E+0	1.516946E+0	1.538957E+0	1.551129E+0	1.258950E+0	1.312067E+0	1.504413E+0	1.567872E+0	1.442552E+0	1.349572E+0	1.469038E+0	1.471632E+0	1.530444E+0	1.431813E+0	1.522387E+0	1.535178E+0	1.293645E+0	1.514637E+0	1.541231E+0	1.572543E+0	1.265418E+0	1.309440E+0	1.490164E+0	1.513130E+0	1.360435E+0	1.367997E+0	1.553937E+0	1.502953E+0	1.495726E+0	1.417102E+0	1.493033E+0	1.520261E+0	1.440197E+0	1.469353E+0	1.497625E+0	1.580894E+0	1.365009E+0	1.261758E+0	1.302907E+0	1.515363E+0	1.356641E+0	1.379525E+0	1.488057E+0	1.520046E+0	1.407626E+0	1.459143E+0	1.496719E+0	1.519911E+0	1.435310E+0	1.473647E+0	1.598005E+0	1.528454E+0	1.290515E+0	1.402941E+0	1.442274E+0	1.644671E+0	1.319770E+0	1.364170E+0	1.496548E+0	1.538573E+0	1.380198E+0	1.425884E+0	1.498273E+0	1.480710E+0	1.544422E+0	1.541440E+0	1.478795E+0	1.485491E+0	1.373503E+0	1.369207E+0	1.514568E+0	1.446931E+0	1.402676E+0	1.403167E+0	1.598942E+0	1.563451E+0	1.470137E+0	1.502612E+0	1.497056E+0	1.408612E+0	1.416841E+0	1.538926E+0	1.464175E+0	1.322743E+0	1.308186E+0	1.427557E+0	1.268496E+0	1.430604E+0	1.323354E+0	1.407861E+0	1.399151E+0	1.457535E+0	1.395937E+0	1.462499E+0	1.492419E+0	1.318124E+0	1.478633E+0	1.432079E+0	1.536755E+0	1.256899E+0	1.377875E+0	1.400071E+0	1.573024E+0	1.311332E+0	1.406628E+0	1.426743E+0	1.499486E+0	1.447395E+0	1.462964E+0	1.380199E+0	1.527598E+0	1.345654E+0	1.454155E+0	1.386281E+0
5.450090E+2	1.474987E+0	1.516132E+0	1.480747E+0	1.523781E+0	1.555440E+0	1.540174E+0	1.529565E+0	1.518955E+0	1.548261E+0	1.291858E+0	1.434708E+0	1.583432E+0	1.493577E+0	1.264478E+0	1.335831E+0	1.342547E+0	1.542999E+0	1.408112E+0	1.364084E+0	1.440206E+0	1.516514E+0	1.464314E+0	1.319003E+0	1.495314E+0	1.520668E+0	1.263702E+0	1.480369E+0	1.493032E+0	1.521388E+0	1.324177E+0	1.346411E+0	1.409793E+0	1.523694E+0	1.364736E+0	1.335624E+0	1.482777E+0	1.569343E+0	1.475139E+0	1.328446E+0	1.540784E+0	1.497469E+0	1.446034E+0	1.463169E+0	1.535513E+0	1.545584E+0	1.566775E+0	1.337495E+0	1.559277E+0	1.509649E+0	1.490817E+0	1.297547E+0	1.536533E+0	1.510152E+0	1.507623E+0	1.363166E+0	1.549304E+0	1.528359E+0	1.283141E+0	1.434925E+0	1.473635E+0	1.485012E+0	1.266564E+0	1.274192E+0	1.404163E+0	1.542616E+0	1.364073E+0	1.330882E+0	1.469742E+0	1.503329E+0	1.498981E+0	1.372245E+0	1.510126E+0	1.460062E+0	1.252399E+0	1.494078E+0	1.481499E+0	1.573163E+0	1.203886E+0	1.280456E+0	1.438036E+0	1.511742E+0	1.286048E+0	1.344838E+0	1.484251E+0	1.487542E+0	1.438280E+0	1.367837E+0	1.504996E+0	1.495481E+0	1.324182E+0	1.420469E+0	1.515203E+0	1.484264E+0	1.351246E+0	1.265782E+0	1.317095E+0	1.497530E+0	1.384509E+0	1.362696E+0	1.478266E+0	1.527147E+0	1.400386E+0	1.402423E+0	1.480516E+0	1.471030E+0	1.382595E+0	1.486965E+0	1.533198E+0	1.507691E+0	1.264872E+0	1.316121E+0	1.499149E+0	1.507751E+0	1.328625E+0	1.330031E+0	1.500102E+0	1.494555E+0	1.374061E+0	1.423417E+0	1.490381E+0	1.503740E+0	1.478921E+0	1.481754E+0	1.462152E+0	1.458315E+0	1.381829E+0	1.313528E+0	1.503038E+0	1.457630E+0	1.402074E+0	1.348370E+0	1.528046E+0	1.447677E+0	1.430941E+0	1.431785E+0	1.486340E+0	1.479049E+0	1.448097E+0	1.503308E+0	1.508423E+0	1.448281E+0	1.266265E+0	1.419712E+0	1.202707E+0	1.537317E+0	1.315027E+0	1.449181E+0	1.443821E+0	1.485424E+0	1.354506E+0	1.430786E+0	1.523097E+0	1.420704E+0	1.535581E+0	1.444761E+0	1.481686E+0	1.382123E+0	1.357991E+0	1.359951E+0	1.496019E+0	1.472569E+0	1.356296E+0	1.381923E+0	1.484066E+0	1.444126E+0	1.394477E+0	1.385199E+0	1.429150E+0	1.363622E+0	1.475645E+0	1.553171E+0
5.452640E+2	1.410196E+0	1.377967E+0	1.372763E+0	1.399137E+0	1.446859E+0	1.445005E+0	1.419553E+0	1.378648E+0	1.423399E+0	1.170869E+0	1.399372E+0	1.450622E+0	1.433837E+0	1.174069E+0	1.260601E+0	1.330541E+0	1.423612E+0	1.228469E+0	1.267303E+0	1.375350E+0	1.397751E+0	1.364844E+0	1.310688E+0	1.422152E+0	1.375001E+0	1.140804E+0	1.389801E+0	1.366965E+0	1.373431E+0	1.222631E+0	1.219763E+0	1.374171E+0	1.443636E+0	1.272221E+0	1.235014E+0	1.436959E+0	1.441836E+0	1.360702E+0	1.270843E+0	1.425877E+0	1.353695E+0	1.364565E+0	1.326709E+0	1.421751E+0	1.444803E+0	1.419544E+0	1.224447E+0	1.355188E+0	1.327868E+0	1.441211E+0	1.238733E+0	1.412567E+0	1.448696E+0	1.402658E+0	1.257719E+0	1.419623E+0	1.440011E+0	1.201848E+0	1.336765E+0	1.414777E+0	1.425635E+0	1.198635E+0	1.232764E+0	1.462054E+0	1.414241E+0	1.285594E+0	1.238509E+0	1.337887E+0	1.429851E+0	1.394115E+0	1.270044E+0	1.492971E+0	1.389401E+0	1.175536E+0	1.362767E+0	1.440774E+0	1.419683E+0	1.182733E+0	1.166286E+0	1.368791E+0	1.433238E+0	1.296083E+0	1.235112E+0	1.350138E+0	1.358653E+0	1.335555E+0	1.306410E+0	1.398597E+0	1.412480E+0	1.256673E+0	1.337235E+0	1.388635E+0	1.324026E+0	1.235781E+0	1.215493E+0	1.199551E+0	1.397665E+0	1.270255E+0	1.243100E+0	1.365675E+0	1.359483E+0	1.339447E+0	1.351076E+0	1.396144E+0	1.367401E+0	1.316082E+0	1.338061E+0	1.458316E+0	1.398372E+0	1.250302E+0	1.296222E+0	1.367232E+0	1.379643E+0	1.281405E+0	1.250185E+0	1.419118E+0	1.421427E+0	1.254407E+0	1.233081E+0	1.356892E+0	1.371490E+0	1.368346E+0	1.382063E+0	1.399200E+0	1.378782E+0	1.296666E+0	1.182585E+0	1.409242E+0	1.498291E+0	1.309802E+0	1.294173E+0	1.359310E+0	1.436448E+0	1.335052E+0	1.346416E+0	1.401879E+0	1.452246E+0	1.288769E+0	1.409890E+0	1.389729E+0	1.429319E+0	1.160191E+0	1.341904E+0	1.127147E+0	1.417177E+0	1.177646E+0	1.344007E+0	1.380983E+0	1.390136E+0	1.297142E+0	1.368626E+0	1.330846E+0	1.346874E+0	1.430682E+0	1.353173E+0	1.430444E+0	1.351443E+0	1.253242E+0	1.307385E+0	1.336448E+0	1.389149E+0	1.297154E+0	1.297132E+0	1.360017E+0	1.373525E+0	1.305198E+0	1.395199E+0	1.430762E+0	1.364744E+0	1.327005E+0	1.393236E+0
5.455290E+2	1.369981E+0	1.375027E+0	1.390292E+0	1.336465E+0	1.345332E+0	1.333635E+0	1.411427E+0	1.332087E+0	1.411353E+0	1.128554E+0	1.338033E+0	1.395230E+0	1.386376E+0	1.136496E+0	1.184817E+0	1.275452E+0	1.379884E+0	1.256683E+0	1.195870E+0	1.296838E+0	1.328883E+0	1.345326E+0	1.287664E+0	1.395199E+0	1.383787E+0	1.161380E+0	1.329882E+0	1.370691E+0	1.296734E+0	1.155528E+0	1.229730E+0	1.341519E+0	1.392629E+0	1.215383E+0	1.166938E+0	1.374928E+0	1.441180E+0	1.296210E+0	1.259326E+0	1.398956E+0	1.407610E+0	1.287585E+0	1.301125E+0	1.358478E+0	1.276605E+0	1.354871E+0	1.212517E+0	1.342339E+0	1.386508E+0	1.330911E+0	1.141663E+0	1.392371E+0	1.366289E+0	1.385052E+0	1.212440E+0	1.353214E+0	1.368972E+0	1.135610E+0	1.336763E+0	1.323585E+0	1.423184E+0	1.140660E+0	1.157010E+0	1.328627E+0	1.397405E+0	1.238978E+0	1.228901E+0	1.381602E+0	1.354931E+0	1.328109E+0	1.232669E+0	1.353240E+0	1.315559E+0	1.144916E+0	1.375368E+0	1.371545E+0	1.300379E+0	1.172480E+0	1.197637E+0	1.424811E+0	1.335278E+0	1.211066E+0	1.200929E+0	1.368544E+0	1.374763E+0	1.359885E+0	1.255324E+0	1.347598E+0	1.405045E+0	1.224555E+0	1.275140E+0	1.374572E+0	1.340538E+0	1.209455E+0	1.183981E+0	1.125919E+0	1.421204E+0	1.217305E+0	1.231682E+0	1.317422E+0	1.337457E+0	1.276699E+0	1.304504E+0	1.357672E+0	1.385650E+0	1.262740E+0	1.244844E+0	1.343827E+0	1.417304E+0	1.185032E+0	1.217238E+0	1.362493E+0	1.332875E+0	1.211764E+0	1.213733E+0	1.338138E+0	1.350435E+0	1.227406E+0	1.250330E+0	1.366224E+0	1.335302E+0	1.346513E+0	1.369996E+0	1.356509E+0	1.349618E+0	1.278735E+0	1.244383E+0	1.396941E+0	1.373452E+0	1.219340E+0	1.236397E+0	1.330951E+0	1.370490E+0	1.274159E+0	1.289503E+0	1.299771E+0	1.336924E+0	1.331460E+0	1.371582E+0	1.305447E+0	1.392047E+0	1.110013E+0	1.232709E+0	1.041818E+0	1.376186E+0	1.188943E+0	1.269507E+0	1.336312E+0	1.399432E+0	1.239781E+0	1.241777E+0	1.311760E+0	1.358636E+0	1.368492E+0	1.317946E+0	1.304247E+0	1.384003E+0	1.226064E+0	1.222999E+0	1.337242E+0	1.313823E+0	1.254371E+0	1.229904E+0	1.436411E+0	1.342803E+0	1.313146E+0	1.265895E+0	1.322628E+0	1.370359E+0	1.233882E+0	1.393236E+0
5.457670E+2	1.177096E+0	1.198648E+0	1.220599E+0	1.241399E+0	1.178941E+0	1.235091E+0	1.266407E+0	1.245887E+0	1.257968E+0	1.032600E+0	1.212687E+0	1.265754E+0	1.269681E+0	1.056066E+0	1.063118E+0	1.153264E+0	1.257027E+0	1.159376E+0	1.105998E+0	1.182827E+0	1.183416E+0	1.254037E+0	1.173828E+0	1.230267E+0	1.177363E+0	1.022356E+0	1.230953E+0	1.212329E+0	1.284518E+0	1.080109E+0	1.125361E+0	1.233912E+0	1.207011E+0	1.145845E+0	1.018737E+0	1.250867E+0	1.268556E+0	1.214649E+0	1.174845E+0	1.195406E+0	1.214762E+0	1.194567E+0	1.168605E+0	1.256219E+0	1.271841E+0	1.198695E+0	1.051751E+0	1.221398E+0	1.225982E+0	1.152726E+0	1.075428E+0	1.199458E+0	1.187509E+0	1.242162E+0	1.092110E+0	1.238565E+0	1.226900E+0	1.033239E+0	1.158601E+0	1.238856E+0	1.242600E+0	1.021199E+0	1.103746E+0	1.230498E+0	1.207997E+0	1.112113E+0	1.107163E+0	1.233531E+0	1.214457E+0	1.233113E+0	1.143315E+0	1.228221E+0	1.207975E+0	1.085550E+0	1.166462E+0	1.239869E+0	1.216489E+0	1.068646E+0	1.079919E+0	1.178171E+0	1.235237E+0	1.074094E+0	1.076863E+0	1.191043E+0	1.191235E+0	1.153077E+0	1.127600E+0	1.227345E+0	1.198156E+0	1.088878E+0	1.168121E+0	1.202300E+0	1.196201E+0	1.098176E+0	9.768016E-1	1.125243E+0	1.263565E+0	1.074069E+0	1.112084E+0	1.195740E+0	1.211000E+0	1.131892E+0	1.122397E+0	1.212551E+0	1.180995E+0	1.162339E+0	1.221841E+0	1.256698E+0	1.221873E+0	1.056238E+0	1.115944E+0	1.253484E+0	1.206122E+0	1.027622E+0	1.051727E+0	1.265679E+0	1.260979E+0	1.097320E+0	1.108041E+0	1.221973E+0	1.194494E+0	1.167622E+0	1.238558E+0	1.187190E+0	1.176631E+0	1.100723E+0	1.118338E+0	1.190897E+0	1.218649E+0	1.081234E+0	1.146460E+0	1.188445E+0	1.206296E+0	1.155873E+0	1.157964E+0	1.231068E+0	1.251526E+0	1.173659E+0	1.202897E+0	1.232404E+0	1.210279E+0	1.089051E+0	1.115013E+0	1.009250E+0	1.175479E+0	1.059294E+0	1.111121E+0	1.189431E+0	1.220478E+0	1.130151E+0	1.199282E+0	1.246312E+0	1.221427E+0	1.236620E+0	1.161546E+0	1.233119E+0	1.199296E+0	1.219434E+0	1.115096E+0	1.245945E+0	1.214215E+0	1.143008E+0	1.187509E+0	1.174298E+0	1.180685E+0	1.183512E+0	1.137305E+0	1.217721E+0	1.189559E+0	1.185530E+0	1.295882E+0
5.460110E+2	1.204651E+0	1.261116E+0	1.178527E+0	1.206893E+0	1.202913E+0	1.251965E+0	1.277034E+0	1.218833E+0	1.195853E+0	1.052863E+0	1.258026E+0	1.268424E+0	1.241764E+0	1.077199E+0	1.095754E+0	1.150439E+0	1.229264E+0	1.118495E+0	1.065673E+0	1.146644E+0	1.220661E+0	1.258442E+0	1.181501E+0	1.261712E+0	1.265935E+0	1.075740E+0	1.185668E+0	1.235928E+0	1.190855E+0	1.067045E+0	1.072003E+0	1.193838E+0	1.231100E+0	1.118032E+0	1.076571E+0	1.202936E+0	1.242400E+0	1.165335E+0	1.146047E+0	1.306376E+0	1.205084E+0	1.192644E+0	1.185661E+0	1.253664E+0	1.254815E+0	1.209014E+0	1.073339E+0	1.189651E+0	1.300747E+0	1.283265E+0	1.039456E+0	1.218957E+0	1.235696E+0	1.192053E+0	1.128084E+0	1.235433E+0	1.194666E+0	1.045283E+0	1.211714E+0	1.163182E+0	1.213215E+0	1.068047E+0	1.051665E+0	1.199435E+0	1.237461E+0	1.092642E+0	1.066581E+0	1.201096E+0	1.218779E+0	1.144901E+0	1.128714E+0	1.222708E+0	1.185057E+0	1.026808E+0	1.191001E+0	1.297563E+0	1.227673E+0	9.949364E-1	1.048565E+0	1.155607E+0	1.222037E+0	1.105385E+0	1.095611E+0	1.279136E+0	1.184929E+0	1.202412E+0	1.126991E+0	1.242456E+0	1.222314E+0	1.084290E+0	1.152268E+0	1.245893E+0	1.190697E+0	1.082023E+0	9.754603E-1	1.171180E+0	1.224334E+0	1.073511E+0	1.114489E+0	1.163572E+0	1.255759E+0	1.133102E+0	1.131952E+0	1.222675E+0	1.220752E+0	1.170497E+0	1.227291E+0	1.273980E+0	1.195614E+0	1.069642E+0	1.098460E+0	1.217937E+0	1.180368E+0	1.034114E+0	1.101487E+0	1.248630E+0	1.234710E+0	1.105296E+0	1.130217E+0	1.205466E+0	1.223446E+0	1.190161E+0	1.201095E+0	1.263892E+0	1.196515E+0	1.113530E+0	1.099368E+0	1.215499E+0	1.185121E+0	1.093297E+0	1.117274E+0	1.226730E+0	1.205595E+0	1.185969E+0	1.188322E+0	1.169929E+0	1.269603E+0	1.150026E+0	1.222387E+0	1.151635E+0	1.167124E+0	1.031251E+0	1.161437E+0	9.760293E-1	1.280075E+0	1.061672E+0	1.198766E+0	1.169746E+0	1.267734E+0	1.084261E+0	1.210065E+0	1.240858E+0	1.188757E+0	1.199905E+0	1.184090E+0	1.197937E+0	1.211190E+0	1.169050E+0	1.082587E+0	1.238006E+0	1.193048E+0	1.139233E+0	1.152988E+0	1.259799E+0	1.189837E+0	1.212862E+0	1.146592E+0	1.196740E+0	1.250200E+0	1.151505E+0	1.236776E+0
5.467660E+2	1.317105E+0	1.289777E+0	1.303342E+0	1.270974E+0	1.270599E+0	1.249264E+0	1.310165E+0	1.237079E+0	1.240222E+0	1.228681E+0	1.251357E+0	1.310470E+0	1.325519E+0	1.180525E+0	1.192559E+0	1.173040E+0	1.297285E+0	1.245742E+0	1.177433E+0	1.264069E+0	1.309908E+0	1.271036E+0	1.235862E+0	1.264921E+0	1.331081E+0	1.127459E+0	1.246977E+0	1.289337E+0	1.257370E+0	1.123459E+0	1.193377E+0	1.271760E+0	1.285651E+0	1.167010E+0	1.129586E+0	1.298096E+0	1.352255E+0	1.256379E+0	1.227325E+0	1.326073E+0	1.256924E+0	1.238190E+0	1.280786E+0	1.283703E+0	1.298396E+0	1.310839E+0	1.057433E+0	1.280356E+0	1.324201E+0	1.279999E+0	1.110258E+0	1.308801E+0	1.246170E+0	1.285504E+0	1.171504E+0	1.270518E+0	1.270477E+0	1.122362E+0	1.244658E+0	1.259551E+0	1.265860E+0	1.058678E+0	1.136889E+0	1.291919E+0	1.254296E+0	1.130406E+0	1.157886E+0	1.309683E+0	1.226703E+0	1.235579E+0	1.157332E+0	1.277862E+0	1.299641E+0	1.037430E+0	1.231452E+0	1.300956E+0	1.325232E+0	1.101334E+0	1.051524E+0	1.315105E+0	1.330414E+0	1.150257E+0	1.177217E+0	1.331072E+0	1.304011E+0	1.197683E+0	1.142804E+0	1.327452E+0	1.270011E+0	1.161631E+0	1.216346E+0	1.293005E+0	1.258585E+0	1.126893E+0	1.138388E+0	1.275211E+0	1.312784E+0	1.137606E+0	1.138528E+0	1.285953E+0	1.257891E+0	1.204900E+0	1.191658E+0	1.232801E+0	1.325035E+0	1.203127E+0	1.290846E+0	1.294862E+0	1.235309E+0	1.057986E+0	1.098461E+0	1.187920E+0	1.275262E+0	1.167498E+0	1.154718E+0	1.272074E+0	1.254589E+0	1.212067E+0	1.244786E+0	1.317423E+0	1.278057E+0	1.276787E+0	1.243005E+0	1.342036E+0	1.295932E+0	1.188449E+0	1.185031E+0	1.289307E+0	1.255744E+0	1.152397E+0	1.142290E+0	1.252253E+0	1.261027E+0	1.230766E+0	1.259148E+0	1.315530E+0	1.262121E+0	1.172133E+0	1.296984E+0	1.274544E+0	1.262587E+0	1.138595E+0	1.196093E+0	1.012507E+0	1.340145E+0	1.114602E+0	1.219425E+0	1.195488E+0	1.317315E+0	1.177954E+0	1.255730E+0	1.300170E+0	1.264549E+0	1.291317E+0	1.219316E+0	1.324135E+0	1.283822E+0	1.175016E+0	1.157290E+0	1.282465E+0	1.282070E+0	1.189567E+0	1.191141E+0	1.236671E+0	1.246708E+0	1.250163E+0	1.258037E+0	1.278244E+0	1.282767E+0	1.160458E+0	1.236775E+0
5.475180E+2	1.334234E+0	1.328728E+0	1.292123E+0	1.358296E+0	1.325591E+0	1.314061E+0	1.392675E+0	1.388714E+0	1.362549E+0	1.339538E+0	1.293361E+0	1.405905E+0	1.344501E+0	1.380718E+0	1.198642E+0	1.194935E+0	1.361145E+0	1.364355E+0	1.221792E+0	1.272260E+0	1.359804E+0	1.337768E+0	1.250571E+0	1.336801E+0	1.398423E+0	1.259811E+0	1.322917E+0	1.319143E+0	1.304198E+0	1.271918E+0	1.200999E+0	1.314061E+0	1.347995E+0	1.313944E+0	1.183203E+0	1.372110E+0	1.347024E+0	1.342365E+0	1.218367E+0	1.331982E+0	1.375120E+0	1.286302E+0	1.316869E+0	1.369340E+0	1.357639E+0	1.324599E+0	1.209676E+0	1.371061E+0	1.320539E+0	1.350488E+0	1.131385E+0	1.340138E+0	1.380956E+0	1.309206E+0	1.209961E+0	1.375768E+0	1.336141E+0	1.167525E+0	1.321303E+0	1.309354E+0	1.368706E+0	1.147104E+0	1.151091E+0	1.308861E+0	1.358119E+0	1.191182E+0	1.200065E+0	1.359743E+0	1.313148E+0	1.317623E+0	1.194709E+0	1.334856E+0	1.356298E+0	1.121170E+0	1.309046E+0	1.327424E+0	1.412847E+0	1.123767E+0	1.167467E+0	1.410026E+0	1.413088E+0	1.222875E+0	1.230701E+0	1.330416E+0	1.313120E+0	1.325418E+0	1.294855E+0	1.289676E+0	1.315850E+0	1.253394E+0	1.334593E+0	1.321834E+0	1.344208E+0	1.186722E+0	1.129002E+0	1.339386E+0	1.365567E+0	1.216749E+0	1.210046E+0	1.288051E+0	1.314725E+0	1.315314E+0	1.208376E+0	1.363746E+0	1.375219E+0	1.225717E+0	1.316877E+0	1.331585E+0	1.342798E+0	1.213586E+0	1.238942E+0	1.295349E+0	1.372864E+0	1.173990E+0	1.181913E+0	1.295513E+0	1.341915E+0	1.243361E+0	1.256489E+0	1.382729E+0	1.349778E+0	1.284537E+0	1.288088E+0	1.313817E+0	1.298583E+0	1.240316E+0	1.218073E+0	1.333897E+0	1.343491E+0	1.266381E+0	1.245927E+0	1.350802E+0	1.376104E+0	1.293058E+0	1.272429E+0	1.338848E+0	1.367471E+0	1.247604E+0	1.383005E+0	1.354611E+0	1.320128E+0	1.153838E+0	1.241862E+0	1.077643E+0	1.379012E+0	1.188350E+0	1.252605E+0	1.250000E+0	1.362247E+0	1.209187E+0	1.378776E+0	1.330846E+0	1.356021E+0	1.301808E+0	1.322878E+0	1.329487E+0	1.368347E+0	1.264514E+0	1.280410E+0	1.365822E+0	1.371717E+0	1.308479E+0	1.244442E+0	1.342496E+0	1.321230E+0	1.284408E+0	1.257322E+0	1.375081E+0	1.300734E+0	1.292979E+0	1.372375E+0
5.482600E+2	1.455624E+0	1.455132E+0	1.426053E+0	1.475190E+0	1.406671E+0	1.455131E+0	1.447679E+0	1.474915E+0	1.436707E+0	1.474232E+0	1.420041E+0	1.508686E+0	1.466778E+0	1.428859E+0	1.276639E+0	1.292402E+0	1.444437E+0	1.401203E+0	1.257511E+0	1.395146E+0	1.450458E+0	1.504609E+0	1.338185E+0	1.460657E+0	1.430634E+0	1.444994E+0	1.447623E+0	1.421614E+0	1.393111E+0	1.473229E+0	1.338203E+0	1.437991E+0	1.463473E+0	1.481435E+0	1.225979E+0	1.466563E+0	1.474531E+0	1.418237E+0	1.275965E+0	1.463962E+0	1.489862E+0	1.412677E+0	1.315559E+0	1.444758E+0	1.474084E+0	1.436055E+0	1.243193E+0	1.425486E+0	1.401899E+0	1.415755E+0	1.256433E+0	1.404907E+0	1.437521E+0	1.414169E+0	1.345799E+0	1.432152E+0	1.484783E+0	1.293379E+0	1.350213E+0	1.430947E+0	1.464816E+0	1.303457E+0	1.257618E+0	1.468408E+0	1.435287E+0	1.365842E+0	1.294572E+0	1.397116E+0	1.420487E+0	1.444696E+0	1.315012E+0	1.454974E+0	1.414228E+0	1.244901E+0	1.417147E+0	1.411587E+0	1.425272E+0	1.279520E+0	1.226624E+0	1.364120E+0	1.476311E+0	1.254164E+0	1.277568E+0	1.454011E+0	1.449716E+0	1.392324E+0	1.366013E+0	1.418743E+0	1.476901E+0	1.313696E+0	1.392723E+0	1.398478E+0	1.442062E+0	1.240566E+0	1.268462E+0	1.406943E+0	1.399093E+0	1.244617E+0	1.321230E+0	1.456587E+0	1.346695E+0	1.396163E+0	1.349286E+0	1.500093E+0	1.413676E+0	1.327375E+0	1.408879E+0	1.457594E+0	1.395929E+0	1.252631E+0	1.272103E+0	1.386979E+0	1.385067E+0	1.245405E+0	1.327141E+0	1.385731E+0	1.443440E+0	1.297970E+0	1.326711E+0	1.487507E+0	1.434654E+0	1.395815E+0	1.443022E+0	1.381833E+0	1.384747E+0	1.342129E+0	1.305570E+0	1.406167E+0	1.435517E+0	1.343574E+0	1.315015E+0	1.433044E+0	1.481354E+0	1.349753E+0	1.340092E+0	1.423942E+0	1.371832E+0	1.441998E+0	1.445510E+0	1.445211E+0	1.430627E+0	1.174166E+0	1.352362E+0	1.351870E+0	1.523892E+0	1.217491E+0	1.347135E+0	1.441549E+0	1.436617E+0	1.334109E+0	1.409220E+0	1.380614E+0	1.406330E+0	1.472643E+0	1.364444E+0	1.386085E+0	1.439727E+0	1.283077E+0	1.284561E+0	1.426158E+0	1.369227E+0	1.336789E+0	1.380713E+0	1.443417E+0	1.430400E+0	1.381636E+0	1.405200E+0	1.446903E+0	1.395065E+0	1.404011E+0	1.473203E+0
5.490100E+2	1.336468E+0	1.308885E+0	1.344011E+0	1.411112E+0	1.303735E+0	1.352534E+0	1.370171E+0	1.393747E+0	1.344803E+0	1.375297E+0	1.322030E+0	1.359188E+0	1.386377E+0	1.339037E+0	1.218557E+0	1.290989E+0	1.396545E+0	1.321169E+0	1.248868E+0	1.303666E+0	1.335206E+0	1.400727E+0	1.272315E+0	1.307920E+0	1.376466E+0	1.360466E+0	1.308983E+0	1.370691E+0	1.344244E+0	1.376435E+0	1.257875E+0	1.326676E+0	1.377043E+0	1.357479E+0	1.168143E+0	1.331224E+0	1.367290E+0	1.314545E+0	1.279804E+0	1.389765E+0	1.306002E+0	1.366489E+0	1.312933E+0	1.337388E+0	1.353556E+0	1.382390E+0	1.175024E+0	1.395250E+0	1.300747E+0	1.330907E+0	1.146231E+0	1.312977E+0	1.408192E+0	1.399271E+0	1.199415E+0	1.373887E+0	1.377331E+0	1.331917E+0	1.291049E+0	1.317761E+0	1.352790E+0	1.354988E+0	1.156418E+0	1.258736E+0	1.350403E+0	1.381186E+0	1.276420E+0	1.331542E+0	1.344846E+0	1.333661E+0	1.178940E+0	1.397366E+0	1.377943E+0	1.254901E+0	1.307060E+0	1.351861E+0	1.331448E+0	1.260931E+0	1.158596E+0	1.350117E+0	1.346395E+0	1.335050E+0	1.199825E+0	1.281111E+0	1.398578E+0	1.378808E+0	1.264445E+0	1.355783E+0	1.330095E+0	1.208825E+0	1.354409E+0	1.368947E+0	1.374789E+0	1.195098E+0	1.115592E+0	1.343443E+0	1.342028E+0	1.182751E+0	1.259328E+0	1.327911E+0	1.309751E+0	1.281526E+0	1.229271E+0	1.313796E+0	1.338068E+0	1.328005E+0	1.295083E+0	1.353905E+0	1.338523E+0	1.159971E+0	1.158151E+0	1.320627E+0	1.327452E+0	1.164548E+0	1.172652E+0	1.257865E+0	1.387351E+0	1.223112E+0	1.255258E+0	1.324599E+0	1.324115E+0	1.361305E+0	1.350313E+0	1.304410E+0	1.342990E+0	1.240955E+0	1.249279E+0	1.360804E+0	1.382727E+0	1.241050E+0	1.232822E+0	1.294081E+0	1.322073E+0	1.307055E+0	1.259144E+0	1.359649E+0	1.332563E+0	1.275810E+0	1.375618E+0	1.302638E+0	1.305085E+0	1.094768E+0	1.271938E+0	1.325165E+0	1.371240E+0	1.194297E+0	1.301435E+0	1.268929E+0	1.376193E+0	1.253802E+0	1.307738E+0	1.356072E+0	1.361900E+0	1.323536E+0	1.310903E+0	1.378435E+0	1.335787E+0	1.208826E+0	1.244442E+0	1.330097E+0	1.336855E+0	1.278908E+0	1.219003E+0	1.332685E+0	1.379410E+0	1.268508E+0	1.303043E+0	1.392028E+0	1.417525E+0	1.165830E+0	1.320222E+0
5.497740E+2	1.326787E+0	1.371353E+0	1.337701E+0	1.341394E+0	1.351678E+0	1.296513E+0	1.333916E+0	1.302517E+0	1.346071E+0	1.331790E+0	1.266025E+0	1.378547E+0	1.410384E+0	1.352537E+0	1.212475E+0	1.274040E+0	1.363920E+0	1.345351E+0	1.194717E+0	1.312539E+0	1.359102E+0	1.303772E+0	1.207722E+0	1.289308E+0	1.376464E+0	1.342669E+0	1.368897E+0	1.361373E+0	1.343568E+0	1.374653E+0	1.209208E+0	1.341517E+0	1.329575E+0	1.307293E+0	1.202483E+0	1.311488E+0	1.386255E+0	1.337940E+0	1.242048E+0	1.359560E+0	1.288029E+0	1.331849E+0	1.301127E+0	1.372536E+0	1.313377E+0	1.327352E+0	1.207403E+0	1.331758E+0	1.323471E+0	1.352447E+0	1.202760E+0	1.307406E+0	1.353719E+0	1.300403E+0	1.174604E+0	1.353216E+0	1.341513E+0	1.371058E+0	1.223143E+0	1.309353E+0	1.327076E+0	1.387783E+0	1.145765E+0	1.293329E+0	1.349001E+0	1.359941E+0	1.163224E+0	1.366090E+0	1.316031E+0	1.350316E+0	1.238506E+0	1.399817E+0	1.308553E+0	1.309890E+0	1.346850E+0	1.350502E+0	1.408496E+0	1.380146E+0	1.156227E+0	1.428698E+0	1.342225E+0	1.318517E+0	1.186591E+0	1.409305E+0	1.376864E+0	1.352450E+0	1.251672E+0	1.302268E+0	1.319564E+0	1.297307E+0	1.274479E+0	1.377385E+0	1.314240E+0	1.327914E+0	1.135706E+0	1.342765E+0	1.359147E+0	1.249073E+0	1.204638E+0	1.364277E+0	1.373691E+0	1.341862E+0	1.245990E+0	1.334721E+0	1.318516E+0	1.319843E+0	1.273293E+0	1.365427E+0	1.313481E+0	1.103443E+0	1.226883E+0	1.368812E+0	1.368120E+0	1.161598E+0	1.205634E+0	1.330324E+0	1.354692E+0	1.237838E+0	1.295914E+0	1.390624E+0	1.350434E+0	1.269043E+0	1.282373E+0	1.295005E+0	1.370167E+0	1.238393E+0	1.184419E+0	1.317752E+0	1.314957E+0	1.254920E+0	1.216743E+0	1.316769E+0	1.371189E+0	1.323155E+0	1.222468E+0	1.345783E+0	1.358743E+0	1.191192E+0	1.338653E+0	1.372171E+0	1.305743E+0	1.156381E+0	1.263439E+0	1.328422E+0	1.365587E+0	1.170509E+0	1.251980E+0	1.333283E+0	1.318090E+0	1.228306E+0	1.290617E+0	1.345846E+0	1.377582E+0	1.362496E+0	1.267928E+0	1.262183E+0	1.296970E+0	1.234018E+0	1.187032E+0	1.301518E+0	1.276472E+0	1.239269E+0	1.308034E+0	1.335491E+0	1.260437E+0	1.231819E+0	1.263751E+0	1.347643E+0	1.341162E+0	1.357450E+0	1.361943E+0
5.505060E+2	1.316360E+0	1.362534E+0	1.362243E+0	1.302664E+0	1.313606E+0	1.380210E+0	1.317665E+0	1.344671E+0	1.386635E+0	1.369932E+0	1.346033E+0	1.415252E+0	1.357899E+0	1.354302E+0	1.235152E+0	1.291696E+0	1.335463E+0	1.361475E+0	1.172250E+0	1.303665E+0	1.318343E+0	1.342176E+0	1.253769E+0	1.332307E+0	1.381588E+0	1.346561E+0	1.326401E+0	1.301133E+0	1.317774E+0	1.371092E+0	1.209793E+0	1.381592E+0	1.335244E+0	1.332688E+0	1.195856E+0	1.382684E+0	1.393449E+0	1.322765E+0	1.281724E+0	1.368097E+0	1.348164E+0	1.347246E+0	1.282756E+0	1.414718E+0	1.383520E+0	1.376199E+0	1.159687E+0	1.380134E+0	1.336662E+0	1.338741E+0	1.153085E+0	1.376353E+0	1.356512E+0	1.324103E+0	1.190111E+0	1.411477E+0	1.374346E+0	1.368648E+0	1.295082E+0	1.337812E+0	1.279329E+0	1.331566E+0	1.143989E+0	1.276385E+0	1.345493E+0	1.351092E+0	1.183516E+0	1.359039E+0	1.340523E+0	1.305286E+0	1.227995E+0	1.353856E+0	1.282454E+0	1.354258E+0	1.352155E+0	1.347788E+0	1.370593E+0	1.341047E+0	1.147357E+0	1.329110E+0	1.306796E+0	1.337411E+0	1.168946E+0	1.351453E+0	1.350246E+0	1.373401E+0	1.250457E+0	1.397964E+0	1.328855E+0	1.397593E+0	1.322700E+0	1.383713E+0	1.337481E+0	1.351247E+0	1.157162E+0	1.294803E+0	1.302084E+0	1.337693E+0	1.195021E+0	1.388752E+0	1.349538E+0	1.383493E+0	1.192256E+0	1.303673E+0	1.321774E+0	1.336162E+0	1.299925E+0	1.355348E+0	1.381882E+0	1.328978E+0	1.153326E+0	1.334845E+0	1.355921E+0	1.359905E+0	1.220099E+0	1.364419E+0	1.343334E+0	1.348903E+0	1.265114E+0	1.338234E+0	1.346485E+0	1.310593E+0	1.343329E+0	1.349271E+0	1.361549E+0	1.262088E+0	1.277424E+0	1.363113E+0	1.309960E+0	1.276631E+0	1.188747E+0	1.337330E+0	1.329091E+0	1.336452E+0	1.299616E+0	1.367213E+0	1.323211E+0	1.266662E+0	1.367551E+0	1.309660E+0	1.327319E+0	1.089051E+0	1.256246E+0	1.323859E+0	1.418591E+0	1.151477E+0	1.233197E+0	1.272714E+0	1.369219E+0	1.240415E+0	1.279200E+0	1.336983E+0	1.312246E+0	1.390220E+0	1.303151E+0	1.353962E+0	1.405915E+0	1.231368E+0	1.216082E+0	1.322158E+0	1.360511E+0	1.246821E+0	1.350430E+0	1.327079E+0	1.329074E+0	1.312536E+0	1.256609E+0	1.408974E+0	1.392818E+0	1.325216E+0	1.428003E+0
5.512620E+2	1.264229E+0	1.325788E+0	1.261971E+0	1.317452E+0	1.229705E+0	1.343759E+0	1.301413E+0	1.257843E+0	1.395508E+0	1.307951E+0	1.294694E+0	1.313140E+0	1.269123E+0	1.293246E+0	1.150517E+0	1.184341E+0	1.313249E+0	1.269925E+0	1.144598E+0	1.262704E+0	1.275473E+0	1.343437E+0	1.187257E+0	1.293801E+0	1.306192E+0	1.257031E+0	1.254640E+0	1.339017E+0	1.296735E+0	1.282013E+0	1.183994E+0	1.302184E+0	1.359329E+0	1.344780E+0	1.083801E+0	1.316422E+0	1.243053E+0	1.313282E+0	1.182527E+0	1.294556E+0	1.263146E+0	1.316453E+0	1.228304E+0	1.322049E+0	1.317464E+0	1.286069E+0	1.142077E+0	1.254657E+0	1.298545E+0	1.311983E+0	1.130815E+0	1.331087E+0	1.287374E+0	1.313945E+0	1.204997E+0	1.259868E+0	1.255555E+0	1.286153E+0	1.293063E+0	1.317115E+0	1.270144E+0	1.331566E+0	1.151683E+0	1.278503E+0	1.310418E+0	1.293266E+0	1.118375E+0	1.252568E+0	1.259121E+0	1.302203E+0	1.211643E+0	1.271732E+0	1.304737E+0	1.337387E+0	1.281193E+0	1.293490E+0	1.305349E+0	1.315411E+0	1.134934E+0	1.311215E+0	1.339448E+0	1.280142E+0	1.167293E+0	1.264674E+0	1.269689E+0	1.298383E+0	1.182336E+0	1.299119E+0	1.303461E+0	1.351712E+0	1.229557E+0	1.297226E+0	1.232287E+0	1.321333E+0	1.151798E+0	1.321822E+0	1.339888E+0	1.284187E+0	1.127710E+0	1.306934E+0	1.249365E+0	1.319537E+0	1.211362E+0	1.366446E+0	1.301570E+0	1.280312E+0	1.238185E+0	1.322223E+0	1.268898E+0	1.295757E+0	1.165989E+0	1.300879E+0	1.259672E+0	1.291438E+0	1.126365E+0	1.230161E+0	1.301446E+0	1.291833E+0	1.255259E+0	1.295175E+0	1.264242E+0	1.318341E+0	1.276021E+0	1.326120E+0	1.307863E+0	1.321637E+0	1.133021E+0	1.333898E+0	1.297835E+0	1.271807E+0	1.200660E+0	1.318190E+0	1.256116E+0	1.243364E+0	1.292028E+0	1.313007E+0	1.303264E+0	1.348993E+0	1.310424E+0	1.289293E+0	1.268470E+0	1.296751E+0	1.208515E+0	1.274354E+0	1.364174E+0	1.245443E+0	1.176228E+0	1.222744E+0	1.259988E+0	1.237867E+0	1.283003E+0	1.268808E+0	1.282845E+0	1.275582E+0	1.291880E+0	1.324899E+0	1.291960E+0	1.211478E+0	1.215391E+0	1.282464E+0	1.240363E+0	1.187678E+0	1.202044E+0	1.317967E+0	1.264357E+0	1.211027E+0	1.235890E+0	1.303260E+0	1.288382E+0	1.255372E+0	1.365421E+0
5.520100E+2	1.337957E+0	1.372823E+0	1.341907E+0	1.368153E+0	1.300914E+0	1.291114E+0	1.280784E+0	1.324537E+0	1.328955E+0	1.337152E+0	1.310697E+0	1.314474E+0	1.328307E+0	1.372498E+0	1.201963E+0	1.264151E+0	1.368778E+0	1.362626E+0	1.216609E+0	1.259973E+0	1.338722E+0	1.355398E+0	1.196851E+0	1.356696E+0	1.322298E+0	1.282055E+0	1.306893E+0	1.268221E+0	1.337459E+0	1.344368E+0	1.238526E+0	1.424631E+0	1.345162E+0	1.378645E+0	1.189228E+0	1.317128E+0	1.329366E+0	1.348689E+0	1.242045E+0	1.326733E+0	1.322589E+0	1.358792E+0	1.322772E+0	1.373814E+0	1.295673E+0	1.436745E+0	1.171047E+0	1.348386E+0	1.268495E+0	1.289138E+0	1.193625E+0	1.340138E+0	1.339052E+0	1.325459E+0	1.239112E+0	1.351960E+0	1.357035E+0	1.387316E+0	1.248692E+0	1.300945E+0	1.354012E+0	1.396567E+0	1.200806E+0	1.272148E+0	1.364433E+0	1.385906E+0	1.170700E+0	1.282182E+0	1.306667E+0	1.389180E+0	1.226244E+0	1.328115E+0	1.335930E+0	1.383004E+0	1.259307E+0	1.334210E+0	1.317155E+0	1.303872E+0	1.074594E+0	1.389018E+0	1.372794E+0	1.379329E+0	1.157367E+0	1.323841E+0	1.360051E+0	1.333526E+0	1.266877E+0	1.318637E+0	1.269391E+0	1.378584E+0	1.216346E+0	1.403400E+0	1.291000E+0	1.357827E+0	1.114921E+0	1.324525E+0	1.324911E+0	1.271926E+0	1.154153E+0	1.330710E+0	1.333909E+0	1.332811E+0	1.224497E+0	1.327297E+0	1.334813E+0	1.375064E+0	1.292664E+0	1.393510E+0	1.335469E+0	1.316737E+0	1.206989E+0	1.269282E+0	1.349819E+0	1.370526E+0	1.137361E+0	1.322507E+0	1.351854E+0	1.269744E+0	1.233698E+0	1.342541E+0	1.308983E+0	1.376094E+0	1.295074E+0	1.349272E+0	1.289306E+0	1.279375E+0	1.241324E+0	1.351578E+0	1.395566E+0	1.286884E+0	1.200064E+0	1.304716E+0	1.331194E+0	1.266461E+0	1.228793E+0	1.357761E+0	1.389287E+0	1.291819E+0	1.328571E+0	1.293507E+0	1.324047E+0	1.310728E+0	1.252324E+0	1.273706E+0	1.367705E+0	1.357846E+0	1.228817E+0	1.298457E+0	1.394784E+0	1.330923E+0	1.271589E+0	1.348574E+0	1.358634E+0	1.349010E+0	1.288358E+0	1.350137E+0	1.342050E+0	1.387819E+0	1.231299E+0	1.305487E+0	1.329384E+0	1.331127E+0	1.233539E+0	1.379643E+0	1.266319E+0	1.293579E+0	1.278754E+0	1.291963E+0	1.329933E+0	1.327006E+0	1.351513E+0
5.527590E+2	1.302211E+0	1.285368E+0	1.266879E+0	1.263933E+0	1.276942E+0	1.249265E+0	1.319540E+0	1.263505E+0	1.279517E+0	1.249542E+0	1.232688E+0	1.269092E+0	1.274706E+0	1.282089E+0	1.135583E+0	1.148320E+0	1.309780E+0	1.292957E+0	1.157271E+0	1.163712E+0	1.252987E+0	1.310699E+0	1.146326E+0	1.248236E+0	1.219818E+0	1.314308E+0	1.227469E+0	1.266357E+0	1.275694E+0	1.293892E+0	1.141191E+0	1.280665E+0	1.324615E+0	1.260732E+0	1.122357E+0	1.310785E+0	1.285556E+0	1.277874E+0	1.170367E+0	1.313595E+0	1.236185E+0	1.274755E+0	1.251266E+0	1.313738E+0	1.245963E+0	1.266807E+0	1.101743E+0	1.224422E+0	1.228913E+0	1.214079E+0	1.079997E+0	1.269100E+0	1.222427E+0	1.249614E+0	1.136770E+0	1.252976E+0	1.236453E+0	1.309637E+0	1.168013E+0	1.333282E+0	1.240763E+0	1.275934E+0	1.070014E+0	1.260149E+0	1.313926E+0	1.254911E+0	1.123715E+0	1.250453E+0	1.205814E+0	1.268273E+0	1.191203E+0	1.341597E+0	1.306644E+0	1.301768E+0	1.257981E+0	1.259550E+0	1.255637E+0	1.357711E+0	1.092934E+0	1.210848E+0	1.311658E+0	1.241765E+0	1.133105E+0	1.277824E+0	1.259881E+0	1.284189E+0	1.166525E+0	1.317380E+0	1.233463E+0	1.296653E+0	1.199170E+0	1.254333E+0	1.273262E+0	1.311764E+0	1.118274E+0	1.308312E+0	1.336325E+0	1.230684E+0	1.139730E+0	1.262176E+0	1.206739E+0	1.245325E+0	1.131952E+0	1.241575E+0	1.302876E+0	1.226345E+0	1.235160E+0	1.305663E+0	1.225538E+0	1.280021E+0	1.137651E+0	1.216358E+0	1.290850E+0	1.284950E+0	1.138517E+0	1.236553E+0	1.339783E+0	1.264835E+0	1.189964E+0	1.263597E+0	1.308325E+0	1.287352E+0	1.170617E+0	1.242182E+0	1.256166E+0	1.283217E+0	1.175243E+0	1.270085E+0	1.296406E+0	1.209692E+0	1.181601E+0	1.280613E+0	1.262430E+0	1.278358E+0	1.166820E+0	1.290318E+0	1.285812E+0	1.307828E+0	1.294969E+0	1.261199E+0	1.254741E+0	1.298658E+0	1.198708E+0	1.246999E+0	1.313996E+0	1.294213E+0	1.213163E+0	1.316627E+0	1.232873E+0	1.249340E+0	1.274758E+0	1.290623E+0	1.307670E+0	1.398464E+0	1.244679E+0	1.299659E+0	1.283819E+0	1.298325E+0	1.166973E+0	1.308663E+0	1.201764E+0	1.238012E+0	1.215370E+0	1.295543E+0	1.300967E+0	1.276457E+0	1.200171E+0	1.232247E+0	1.212019E+0	1.382521E+0	1.226344E+0
5.534880E+2	1.165180E+0	1.269935E+0	1.168009E+0	1.211822E+0	1.212078E+0	1.229690E+0	1.268284E+0	1.168497E+0	1.238953E+0	1.196499E+0	1.195352E+0	1.222375E+0	1.191514E+0	1.186985E+0	1.094647E+0	1.114418E+0	1.173042E+0	1.222712E+0	1.105422E+0	1.113874E+0	1.231904E+0	1.199262E+0	1.052954E+0	1.199461E+0	1.153207E+0	1.244241E+0	1.230257E+0	1.259527E+0	1.196285E+0	1.217287E+0	1.083729E+0	1.181964E+0	1.173006E+0	1.183941E+0	1.041027E+0	1.119055E+0	1.230628E+0	1.188095E+0	1.080127E+0	1.229553E+0	1.216835E+0	1.238190E+0	1.135146E+0	1.215318E+0	1.175824E+0	1.216583E+0	1.013690E+0	1.182092E+0	1.167342E+0	1.169697E+0	1.009192E+0	1.199459E+0	1.214746E+0	1.221848E+0	1.076603E+0	1.229170E+0	1.217349E+0	1.175953E+0	1.116244E+0	1.224627E+0	1.207095E+0	1.174039E+0	1.043973E+0	1.175433E+0	1.170817E+0	1.230718E+0	1.091143E+0	1.206033E+0	1.205812E+0	1.201037E+0	1.094843E+0	1.196352E+0	1.195241E+0	1.264274E+0	1.171766E+0	1.144164E+0	1.276764E+0	1.205167E+0	1.045017E+0	1.158720E+0	1.213700E+0	1.219332E+0	1.065836E+0	1.193673E+0	1.257779E+0	1.226067E+0	1.083202E+0	1.231123E+0	1.206828E+0	1.229144E+0	1.150286E+0	1.280350E+0	1.181521E+0	1.228003E+0	1.031781E+0	1.156993E+0	1.173689E+0	1.206717E+0	1.133719E+0	1.192243E+0	1.176902E+0	1.176544E+0	1.161805E+0	1.242249E+0	1.177736E+0	1.238894E+0	1.141942E+0	1.193334E+0	1.220043E+0	1.193772E+0	1.073137E+0	1.139736E+0	1.231880E+0	1.202910E+0	1.030318E+0	1.125736E+0	1.111179E+0	1.150089E+0	1.134527E+0	1.222690E+0	1.244502E+0	1.204950E+0	1.175061E+0	1.213964E+0	1.190551E+0	1.231351E+0	1.119561E+0	1.170908E+0	1.185834E+0	1.186774E+0	1.136335E+0	1.211842E+0	1.221732E+0	1.193669E+0	1.164924E+0	1.189469E+0	1.158644E+0	1.221685E+0	1.159883E+0	1.160063E+0	1.147509E+0	1.225615E+0	1.097358E+0	1.158413E+0	1.209402E+0	1.184187E+0	1.120512E+0	1.223500E+0	1.211957E+0	1.180505E+0	1.112391E+0	1.182228E+0	1.135835E+0	1.271836E+0	1.129843E+0	1.176522E+0	1.260030E+0	1.188937E+0	1.106105E+0	1.214984E+0	1.207367E+0	1.220396E+0	1.116043E+0	1.159580E+0	1.172186E+0	1.224482E+0	1.121589E+0	1.184635E+0	1.246831E+0	1.199857E+0	1.254159E+0
5.542530E+2	1.168160E+0	1.171456E+0	1.187643E+0	1.225202E+0	1.134523E+0	1.143295E+0	1.174521E+0	1.201214E+0	1.160993E+0	1.169678E+0	1.119345E+0	1.138283E+0	1.155221E+0	1.199312E+0	1.049288E+0	1.103824E+0	1.216075E+0	1.155921E+0	1.005761E+0	1.150740E+0	1.163738E+0	1.220668E+0	1.059349E+0	1.137851E+0	1.179558E+0	1.153596E+0	1.180094E+0	1.154572E+0	1.108730E+0	1.151368E+0	1.040341E+0	1.196064E+0	1.165923E+0	1.153103E+0	1.036207E+0	1.157824E+0	1.143006E+0	1.116651E+0	1.077567E+0	1.183590E+0	1.157390E+0	1.124002E+0	1.121369E+0	1.160352E+0	1.177867E+0	1.189063E+0	9.631315E-1	1.135228E+0	1.154881E+0	1.181446E+0	9.926337E-1	1.160458E+0	1.139323E+0	1.165641E+0	1.062337E+0	1.192207E+0	1.156459E+0	1.150061E+0	1.127673E+0	1.193581E+0	1.204647E+0	1.195707E+0	1.055809E+0	1.126721E+0	1.171519E+0	1.187054E+0	1.071389E+0	1.116484E+0	1.104239E+0	1.212756E+0	1.062723E+0	1.191452E+0	1.166594E+0	1.176160E+0	1.123354E+0	1.093938E+0	1.148759E+0	1.130177E+0	1.010706E+0	1.197621E+0	1.192163E+0	1.179773E+0	1.045434E+0	1.148970E+0	1.220655E+0	1.213227E+0	1.060091E+0	1.125981E+0	1.136214E+0	1.194404E+0	1.123201E+0	1.200892E+0	1.158281E+0	1.130484E+0	9.781421E-1	1.147536E+0	1.165843E+0	1.117542E+0	1.020133E+0	1.157277E+0	1.196082E+0	1.188610E+0	1.067469E+0	1.126153E+0	1.120381E+0	1.173007E+0	1.123783E+0	1.156612E+0	1.158361E+0	1.156475E+0	1.065901E+0	1.137366E+0	1.181722E+0	1.155694E+0	1.000811E+0	1.181145E+0	1.172945E+0	1.154388E+0	1.124674E+0	1.127242E+0	1.118829E+0	1.151423E+0	1.169981E+0	1.165483E+0	1.180609E+0	1.164756E+0	1.044912E+0	1.142462E+0	1.170140E+0	1.172904E+0	1.069627E+0	1.152288E+0	1.185245E+0	1.209767E+0	1.150379E+0	1.183168E+0	1.180462E+0	1.105048E+0	1.129641E+0	1.113709E+0	1.088663E+0	1.223708E+0	1.105205E+0	1.155155E+0	1.194560E+0	1.137202E+0	1.115504E+0	1.170503E+0	1.194914E+0	1.154371E+0	1.112390E+0	1.111328E+0	1.157396E+0	1.182672E+0	1.113638E+0	1.135222E+0	1.186772E+0	1.163747E+0	1.052845E+0	1.195931E+0	1.129550E+0	1.161884E+0	1.074857E+0	1.147665E+0	1.110084E+0	1.176784E+0	1.089441E+0	1.147515E+0	1.183945E+0	1.187321E+0	1.163761E+0
5.550140E+2	1.065387E+0	1.101639E+0	1.083163E+0	1.016760E+0	1.032996E+0	1.060274E+0	1.047631E+0	1.054614E+0	1.076060E+0	1.111272E+0	1.045338E+0	1.071544E+0	1.068676E+0	1.017319E+0	9.076753E-1	9.632732E-1	1.038384E+0	1.096041E+0	9.464243E-1	1.012835E+0	1.043570E+0	1.096011E+0	1.012663E+0	1.082659E+0	1.018520E+0	1.061840E+0	1.029609E+0	1.078187E+0	1.032036E+0	1.064074E+0	9.617701E-1	1.056549E+0	1.018561E+0	1.076308E+0	9.307793E-1	1.046451E+0	1.046230E+0	1.061645E+0	9.796481E-1	1.093633E+0	1.047487E+0	1.052796E+0	9.921275E-1	1.051065E+0	1.043717E+0	1.078294E+0	8.978030E-1	1.009751E+0	1.058860E+0	1.063310E+0	9.201175E-1	1.073404E+0	1.049234E+0	1.068803E+0	9.103718E-1	1.046235E+0	1.057367E+0	1.032036E+0	9.595938E-1	1.027359E+0	1.099965E+0	1.027639E+0	8.676099E-1	1.022944E+0	1.036829E+0	1.051928E+0	9.304264E-1	1.007192E+0	1.040846E+0	1.051138E+0	9.383293E-1	1.096462E+0	1.093387E+0	1.084301E+0	1.001990E+0	1.028779E+0	1.066116E+0	1.087233E+0	8.811576E-1	1.051350E+0	1.069890E+0	1.035129E+0	9.357080E-1	1.073368E+0	1.083358E+0	1.099686E+0	9.238536E-1	1.045394E+0	1.013566E+0	1.046930E+0	1.040627E+0	1.049010E+0	1.087337E+0	1.103562E+0	8.903088E-1	1.039451E+0	1.048148E+0	1.071285E+0	9.257780E-1	1.094338E+0	1.046178E+0	1.050440E+0	1.022688E+0	1.103879E+0	1.078668E+0	1.071976E+0	1.045700E+0	1.101167E+0	1.033773E+0	1.011948E+0	9.634022E-1	1.048106E+0	1.072594E+0	1.105527E+0	9.360071E-1	1.099452E+0	1.078521E+0	1.093025E+0	9.669843E-1	1.076287E+0	1.091853E+0	1.047188E+0	1.039813E+0	1.038133E+0	1.067936E+0	1.061664E+0	9.286550E-1	1.020220E+0	1.041732E+0	1.052892E+0	9.784998E-1	1.041688E+0	1.025260E+0	1.017988E+0	9.815346E-1	1.078536E+0	1.071375E+0	1.068456E+0	1.053026E+0	1.042070E+0	9.964696E-1	1.074443E+0	9.868573E-1	1.050286E+0	1.061697E+0	1.093192E+0	9.690116E-1	1.063749E+0	1.066314E+0	1.051754E+0	1.009640E+0	1.035655E+0	1.046977E+0	1.011089E+0	9.931659E-1	1.024322E+0	1.075949E+0	1.023866E+0	9.919765E-1	1.085581E+0	1.057959E+0	1.029130E+0	1.011871E+0	1.079685E+0	1.053865E+0	1.036140E+0	9.865693E-1	1.083764E+0	1.077261E+0	1.083452E+0	1.080315E+0
5.557600E+2	1.037832E+0	1.064893E+0	1.032676E+0	1.045632E+0	1.016075E+0	1.007627E+0	1.080760E+0	1.041401E+0	1.051340E+0	1.041540E+0	1.004001E+0	1.053525E+0	1.014517E+0	1.029060E+0	9.165261E-1	9.371402E-1	1.050184E+0	1.056312E+0	9.521852E-1	9.152088E-1	1.060435E+0	1.041868E+0	9.320807E-1	1.010782E+0	1.085863E+0	1.026804E+0	1.017068E+0	1.019190E+0	1.009638E+0	1.051605E+0	9.430078E-1	9.845646E-1	1.034856E+0	1.068448E+0	9.355987E-1	1.048566E+0	1.022690E+0	1.030032E+0	9.380485E-1	1.008930E+0	1.055781E+0	1.022645E+0	9.770384E-1	1.024861E+0	1.030099E+0	1.033575E+0	9.193900E-1	1.055860E+0	1.011948E+0	1.031329E+0	8.835740E-1	1.051118E+0	1.036664E+0	1.002438E+0	9.736389E-1	1.043729E+0	9.911053E-1	1.084424E+0	9.582491E-1	1.042881E+0	1.003857E+0	1.017099E+0	8.605081E-1	1.063184E+0	1.077517E+0	1.010621E+0	8.941194E-1	1.019179E+0	9.933005E-1	1.027080E+0	9.208091E-1	1.056626E+0	1.064106E+0	1.043681E+0	9.873996E-1	1.013846E+0	1.060523E+0	9.859637E-1	8.923972E-1	1.038124E+0	1.039322E+0	1.012694E+0	9.357084E-1	1.012885E+0	1.063745E+0	9.976345E-1	9.439241E-1	1.065540E+0	9.980798E-1	1.035787E+0	1.006276E+0	1.042682E+0	1.010275E+0	1.035358E+0	8.346587E-1	1.015131E+0	1.048148E+0	1.042858E+0	9.293840E-1	1.086646E+0	1.039785E+0	9.846747E-1	9.898492E-1	9.850831E-1	1.014143E+0	1.006714E+0	9.748804E-1	1.010441E+0	1.063087E+0	1.017192E+0	9.320496E-1	1.015719E+0	1.013624E+0	1.031164E+0	9.365855E-1	1.010656E+0	1.034504E+0	1.005277E+0	9.854631E-1	1.051887E+0	1.037899E+0	1.029581E+0	1.034733E+0	1.009913E+0	1.000332E+0	1.036691E+0	9.011204E-1	1.082494E+0	1.061707E+0	1.038416E+0	9.511001E-1	1.018291E+0	1.069467E+0	1.055084E+0	9.606664E-1	1.026851E+0	1.027116E+0	1.032627E+0	1.014718E+0	1.026619E+0	1.032431E+0	1.020453E+0	9.626649E-1	1.005341E+0	1.056750E+0	1.018258E+0	9.727678E-1	1.005451E+0	1.001240E+0	1.026897E+0	9.931497E-1	1.015884E+0	1.045017E+0	1.049302E+0	9.861212E-1	1.011320E+0	1.023354E+0	1.064305E+0	9.248834E-1	1.053032E+0	1.047375E+0	1.024097E+0	9.198115E-1	1.033429E+0	1.026409E+0	1.066104E+0	9.951419E-1	1.040187E+0	1.072769E+0	1.001074E+0	1.069885E+0
5.560190E+2	1.030385E+0	1.014919E+0	9.800858E-1	1.026619E+0	9.899883E-1	9.968274E-1	9.663709E-1	1.006166E+0	9.828868E-1	9.902851E-1	1.029336E+0	9.934596E-1	9.865997E-1	1.013209E+0	9.873324E-1	9.717488E-1	1.042549E+0	1.013704E+0	1.026499E+0	9.807477E-1	1.018974E+0	9.952779E-1	1.012663E+0	1.003722E+0	9.870438E-1	9.795357E-1	1.007315E+0	1.047757E+0	1.015068E+0	9.975652E-1	9.553207E-1	9.652693E-1	1.021396E+0	1.023703E+0	9.102961E-1	1.066893E+0	1.027267E+0	9.775547E-1	9.566083E-1	1.045043E+0	9.970274E-1	9.809470E-1	9.337394E-1	1.037644E+0	1.041675E+0	9.977985E-1	9.000752E-1	9.764922E-1	1.003152E+0	9.960839E-1	8.555952E-1	1.020475E+0	9.654310E-1	9.895715E-1	9.420054E-1	1.019295E+0	1.040057E+0	1.000120E+0	9.501810E-1	1.018951E+0	1.046708E+0	9.638099E-1	8.498554E-1	9.890571E-1	1.003858E+0	9.604641E-1	9.112056E-1	9.423223E-1	9.983431E-1	1.027697E+0	9.897216E-1	1.035790E+0	1.001082E+0	1.018685E+0	9.409759E-1	1.008416E+0	9.871995E-1	1.012883E+0	8.776086E-1	9.883294E-1	1.055995E+0	1.009150E+0	8.772602E-1	1.012886E+0	1.058841E+0	1.023993E+0	8.806714E-1	1.031543E+0	1.010468E+0	9.944944E-1	9.924028E-1	1.074324E+0	1.024953E+0	9.827096E-1	8.554437E-1	9.617644E-1	1.002497E+0	9.882405E-1	9.107535E-1	9.782508E-1	9.843701E-1	1.066127E+0	9.068574E-1	9.972327E-1	9.730822E-1	9.878888E-1	9.536945E-1	1.039963E+0	9.745334E-1	1.016026E+0	9.043149E-1	9.185601E-1	9.871894E-1	9.904405E-1	8.966628E-1	9.914756E-1	1.032374E+0	1.005277E+0	9.392654E-1	9.686383E-1	9.596009E-1	1.004226E+0	9.852054E-1	9.947177E-1	1.008948E+0	1.007236E+0	8.937781E-1	9.902361E-1	9.996432E-1	1.044446E+0	9.260848E-1	9.970222E-1	1.015437E+0	1.031287E+0	9.511810E-1	9.940754E-1	1.000935E+0	1.073793E+0	9.945563E-1	1.032940E+0	9.546231E-1	1.073807E+0	9.332410E-1	9.929652E-1	1.004452E+0	1.026584E+0	9.496042E-1	9.675955E-1	9.772237E-1	1.004589E+0	9.715853E-1	1.007022E+0	1.017576E+0	1.075527E+0	9.818938E-1	1.014379E+0	9.926743E-1	1.021214E+0	9.103575E-1	1.058589E+0	1.027454E+0	1.030389E+0	9.379812E-1	1.043942E+0	1.030986E+0	1.037361E+0	9.229888E-1	9.869271E-1	9.717010E-1	9.455590E-1	1.035116E+0
5.565140E+2	1.005064E+0	9.884614E-1	9.632570E-1	9.569032E-1	9.554410E-1	9.624046E-1	9.719966E-1	9.872904E-1	9.904927E-1	9.873054E-1	9.913328E-1	9.574205E-1	9.491903E-1	9.439343E-1	9.956289E-1	1.004238E+0	1.002984E+0	1.022340E+0	9.930876E-1	9.773342E-1	9.592414E-1	1.006611E+0	9.717325E-1	9.587983E-1	9.555676E-1	9.834284E-1	9.327688E-1	9.570869E-1	9.913125E-1	9.619349E-1	9.746702E-1	9.452324E-1	8.959982E-1	9.735157E-1	9.669258E-1	9.942902E-1	1.004381E+0	9.731292E-1	9.847681E-1	9.669067E-1	9.348184E-1	9.892870E-1	9.685093E-1	9.520025E-1	1.005584E+0	9.296864E-1	9.301832E-1	1.003704E+0	9.657689E-1	9.791141E-1	9.469546E-1	9.926179E-1	9.549563E-1	1.000407E+0	9.401449E-1	9.810800E-1	9.833439E-1	9.236449E-1	9.246331E-1	9.995475E-1	1.000184E+0	1.000116E+0	8.539979E-1	1.008119E+0	1.017187E+0	9.669562E-1	8.401919E-1	9.789881E-1	9.738499E-1	9.777309E-1	9.278171E-1	1.005147E+0	1.008721E+0	9.293231E-1	9.708194E-1	1.015204E+0	9.990056E-1	1.018011E+0	8.569041E-1	9.525399E-1	1.006669E+0	1.013875E+0	8.640273E-1	1.013543E+0	1.005604E+0	9.753320E-1	8.782387E-1	9.893597E-1	9.949828E-1	9.368153E-1	9.421977E-1	9.639278E-1	9.907038E-1	9.545908E-1	8.326469E-1	9.624405E-1	9.632651E-1	1.003845E+0	8.434427E-1	9.649639E-1	1.000711E+0	9.991555E-1	9.259639E-1	9.911579E-1	9.294138E-1	9.860064E-1	8.961911E-1	8.966724E-1	9.543794E-1	9.833912E-1	8.669326E-1	9.596355E-1	9.899005E-1	9.815857E-1	8.521102E-1	1.036229E+0	9.656383E-1	9.911641E-1	9.448092E-1	9.887330E-1	1.006974E+0	9.908440E-1	9.661560E-1	9.679451E-1	1.022866E+0	9.688160E-1	9.170295E-1	9.710156E-1	9.596945E-1	9.660469E-1	9.308498E-1	9.856783E-1	1.014735E+0	9.871915E-1	8.999584E-1	1.009833E+0	9.915849E-1	9.815520E-1	1.018078E+0	1.016786E+0	9.768536E-1	1.009020E+0	9.168948E-1	9.564887E-1	8.991507E-1	9.516486E-1	8.920090E-1	9.448817E-1	9.741253E-1	9.720831E-1	9.018175E-1	9.777073E-1	1.039137E+0	9.886112E-1	8.910112E-1	9.830210E-1	9.807779E-1	9.920446E-1	9.366418E-1	9.744367E-1	9.770288E-1	9.416768E-1	8.852897E-1	9.640470E-1	9.832654E-1	9.798815E-1	9.008431E-1	9.602976E-1	1.015497E+0	1.006447E+0	1.073362E+0
5.570220E+2	9.685724E-1	9.744984E-1	9.800860E-1	1.001972E+0	1.051327E+0	1.011677E+0	9.913739E-1	9.967286E-1	1.003803E+0	9.873052E-1	9.993334E-1	1.012814E+0	1.025125E+0	9.832680E-1	9.414192E-1	1.009182E+0	9.911848E-1	9.912480E-1	9.763801E-1	9.643632E-1	1.002108E+0	1.027387E+0	9.896394E-1	1.064690E+0	9.738678E-1	9.834284E-1	9.829313E-1	9.962116E-1	1.002851E+0	1.035571E+0	9.934334E-1	1.033543E+0	9.675527E-1	1.012819E+0	1.026569E+0	9.646852E-1	1.048192E+0	1.002213E+0	9.694085E-1	1.006960E+0	1.023985E+0	1.011740E+0	1.019682E+0	9.564765E-1	9.824308E-1	1.014310E+0	1.026756E+0	1.033183E+0	1.015613E+0	9.856409E-1	1.041168E+0	1.041368E+0	1.023395E+0	9.800908E-1	1.028843E+0	1.036211E+0	1.018566E+0	9.934963E-1	1.016740E+0	9.646215E-1	9.756974E-1	1.084443E+0	1.009055E+0	1.025062E+0	9.954406E-1	9.604654E-1	1.025467E+0	1.026230E+0	9.529592E-1	1.012893E+0	1.008994E+0	9.548948E-1	1.007448E+0	1.068677E+0	9.801041E-1	9.819452E-1	1.018890E+0	1.012242E+0	8.888479E-1	9.883292E-1	9.948588E-1	1.005019E+0	8.943532E-1	1.016830E+0	1.053938E+0	1.023993E+0	8.989173E-1	1.040987E+0	1.015424E+0	1.053484E+0	9.970274E-1	9.962732E-1	9.968200E-1	9.839064E-1	9.519933E-1	1.016482E+0	1.022469E+0	9.726342E-1	8.740931E-1	1.010420E+0	1.036233E+0	1.033547E+0	9.337255E-1	9.925077E-1	1.022616E+0	1.010480E+0	9.930387E-1	1.052924E+0	9.910228E-1	1.046913E+0	9.230060E-1	9.809630E-1	1.003457E+0	9.768639E-1	8.943479E-1	1.029126E+0	1.023144E+0	1.036571E+0	9.589764E-1	9.851444E-1	9.734180E-1	1.049301E+0	9.915550E-1	1.028726E+0	9.970176E-1	9.880262E-1	9.188652E-1	1.023295E+0	1.045299E+0	1.012483E+0	9.088125E-1	1.014747E+0	9.747392E-1	1.020088E+0	9.448572E-1	9.871418E-1	9.722606E-1	1.041013E+0	1.013374E+0	1.012572E+0	1.006277E+0	9.702737E-1	9.541644E-1	1.024231E+0	9.987984E-1	1.028368E+0	9.696372E-1	9.986370E-1	1.053919E+0	1.001402E+0	9.798311E-1	1.019975E+0	9.862139E-1	9.848648E-1	1.026279E+0	9.967874E-1	9.494718E-1	9.767970E-1	9.055154E-1	1.014131E+0	9.676902E-1	1.025356E+0	9.440379E-1	1.049549E+0	1.031639E+0	1.004341E+0	1.003000E+0	9.667529E-1	9.627174E-1	9.276499E-1	9.864401E-1
5.575420E+2	1.002086E+0	1.020799E+0	1.057920E+0	1.039998E+0	1.016075E+0	9.617296E-1	1.034504E+0	1.008053E+0	1.019649E+0	1.045713E+0	1.018668E+0	9.961292E-1	9.960925E-1	1.013209E+0	9.900975E-1	9.851679E-1	9.981258E-1	1.036159E+0	9.838684E-1	1.025806E+0	9.929722E-1	1.007240E+0	1.022256E+0	1.013991E+0	9.672797E-1	1.033476E+0	1.002438E+0	9.931069E-1	1.008959E+0	1.030226E+0	1.005159E+0	1.023154E+0	1.066737E+0	9.934697E-1	1.022351E+0	1.023895E+0	1.018767E+0	9.901998E-1	9.713283E-1	1.015496E+0	9.804381E-1	9.899285E-1	1.024930E+0	9.903497E-1	9.531497E-1	1.013622E+0	1.035278E+0	1.038474E+0	1.011215E+0	1.041119E+0	9.595165E-1	1.026047E+0	1.028283E+0	9.739961E-1	9.705374E-1	1.011151E+0	1.021550E+0	1.005540E+0	9.817801E-1	9.562132E-1	9.958987E-1	9.872330E-1	9.960345E-1	1.049771E+0	1.013679E+0	1.030094E+0	1.013188E+0	9.923849E-1	1.014912E+0	1.004257E+0	1.038194E+0	1.006373E+0	9.889868E-1	9.780658E-1	1.009948E+0	9.785518E-1	1.015162E+0	1.007114E+0	1.079918E+0	9.976658E-1	9.906907E-1	1.005018E+0	1.037714E+0	9.668661E-1	9.404581E-1	1.006420E+0	1.018124E+0	9.925079E-1	9.602947E-1	9.958053E-1	9.805123E-1	1.003305E+0	9.680743E-1	9.868980E-1	8.547724E-1	1.002972E+0	9.953636E-1	1.007747E+0	8.903199E-1	9.922376E-1	1.025576E+0	1.000362E+0	9.516376E-1	1.045831E+0	1.023268E+0	1.006087E+0	1.018462E+0	1.041403E+0	9.983510E-1	9.915495E-1	8.940646E-1	9.864925E-1	1.026503E+0	1.025261E+0	9.238561E-1	9.552466E-1	9.599589E-1	1.005277E+0	9.873106E-1	9.959094E-1	9.655223E-1	9.915485E-1	9.648862E-1	9.867583E-1	9.923779E-1	1.011718E+0	8.998969E-1	9.871606E-1	1.010344E+0	1.028164E+0	9.445485E-1	9.551929E-1	1.026664E+0	1.003990E+0	9.941821E-1	9.940754E-1	9.928310E-1	1.015094E+0	9.616256E-1	9.584912E-1	9.932000E-1	1.033792E+0	9.391262E-1	1.039864E+0	1.018587E+0	9.784112E-1	9.496041E-1	1.003937E+0	9.888442E-1	1.019249E+0	9.589004E-1	9.777073E-1	1.028030E+0	1.031320E+0	9.523047E-1	9.738428E-1	1.052156E+0	1.027181E+0	9.497837E-1	1.006986E+0	1.024341E+0	1.016547E+0	9.700807E-1	1.025020E+0	9.950315E-1	1.042866E+0	9.658522E-1	9.982246E-1	9.964068E-1	9.957020E-1	9.481940E-1
5.580060E+2	1.016235E+0	9.950760E-1	9.765798E-1	9.702829E-1	9.921039E-1	1.052175E+0	9.982498E-1	1.011829E+0	9.949294E-1	1.003993E+0	9.973329E-1	1.010812E+0	1.006700E+0	9.773971E-1	1.022736E+0	1.004944E+0	9.710557E-1	1.014279E+0	9.850222E-1	1.008739E+0	9.971890E-1	1.013536E+0	9.915583E-1	1.017841E+0	1.010468E+0	1.004004E+0	1.010102E+0	1.035337E+0	9.981001E-1	9.797501E-1	9.817061E-1	9.786274E-1	9.965994E-1	9.795623E-1	9.916254E-1	9.985199E-1	1.025959E+0	1.002845E+0	9.950079E-1	9.682201E-1	9.977189E-1	1.015589E+0	1.011809E+0	9.871535E-1	9.987743E-1	1.015687E+0	1.032437E+0	1.025625E+0	1.000220E+0	1.018275E+0	1.022898E+0	9.974928E-1	9.745099E-1	9.746728E-1	9.978292E-1	9.760681E-1	1.000060E+0	1.001325E+0	9.777460E-1	1.002134E+0	9.812066E-1	9.825506E-1	1.048114E+0	1.005295E+0	9.793056E-1	1.005899E+0	1.024935E+0	9.641806E-1	1.037243E+0	1.019678E+0	1.024177E+0	1.012502E+0	1.011268E+0	1.030558E+0	1.003316E+0	9.615830E-1	9.760150E-1	9.866038E-1	1.016623E+0	9.766591E-1	1.010143E+0	9.625098E-1	1.052051E+0	1.014858E+0	9.663764E-1	1.017234E+0	1.018126E+0	1.046023E+0	9.869301E-1	9.971161E-1	9.765488E-1	1.059557E+0	9.833644E-1	1.019803E+0	1.012337E+0	1.014456E+0	1.055994E+0	9.665035E-1	1.051384E+0	1.001329E+0	1.016340E+0	9.967412E-1	1.002389E+0	9.898081E-1	9.965452E-1	1.025540E+0	1.000303E+0	1.019081E+0	1.003848E+0	9.874701E-1	9.603880E-1	9.857024E-1	1.034636E+0	1.016407E+0	9.568366E-1	9.545362E-1	1.021015E+0	1.016936E+0	9.725277E-1	1.013133E+0	1.012238E+0	9.661936E-1	9.502814E-1	9.954415E-1	9.804481E-1	1.020042E+0	8.356500E-1	1.023295E+0	1.004637E+0	1.022736E+0	9.177465E-1	9.743350E-1	1.011929E+0	9.885911E-1	8.936349E-1	1.024330E+0	9.417159E-1	9.579194E-1	1.034880E+0	9.627059E-1	9.801228E-1	9.524887E-1	9.142791E-1	9.923139E-1	1.000212E+0	9.914950E-1	9.758977E-1	1.025136E+0	9.834215E-1	9.746324E-1	9.500209E-1	1.010431E+0	1.004508E+0	1.029821E+0	9.530090E-1	9.960231E-1	9.807781E-1	1.052373E+0	9.442504E-1	9.855508E-1	9.925917E-1	9.781680E-1	9.597849E-1	1.011003E+0	1.015297E+0	9.578680E-1	9.487073E-1	9.982244E-1	1.018866E+0	1.002865E+0	9.238565E-1
5.585160E+2	1.042300E+0	1.031087E+0	1.006030E+0	1.023802E+0	1.009730E+0	9.948026E-1	9.713717E-1	1.011829E+0	1.023451E+0	1.010549E+0	1.015335E+0	9.981313E-1	1.006141E+0	9.991193E-1	9.989498E-1	1.014125E+0	1.034913E+0	9.849141E-1	1.039175E+0	1.006690E+0	9.817286E-1	9.814274E-1	1.009465E+0	9.671413E-1	9.731357E-1	1.010121E+0	1.016372E+0	1.014222E+0	1.018461E+0	9.880640E-1	9.817061E-1	1.020185E+0	1.024229E+0	1.020075E+0	9.988553E-1	9.766682E-1	1.019421E+0	9.927292E-1	9.777284E-1	9.688763E-1	1.012235E+0	1.003400E+0	9.494846E-1	9.877930E-1	9.688124E-1	9.922946E-1	9.892646E-1	9.409657E-1	1.014146E+0	9.836826E-1	1.043452E+0	9.584923E-1	1.013618E+0	1.003793E+0	1.038146E+0	9.873452E-1	9.833449E-1	1.048294E+0	1.008000E+0	1.017657E+0	1.007529E+0	9.995319E-1	1.035096E+0	9.636429E-1	9.870217E-1	1.037175E+0	1.002509E+0	9.839238E-1	9.846559E-1	9.943861E-1	9.914733E-1	1.008212E+0	9.915333E-1	1.036807E+0	9.807675E-1	1.043711E+0	1.003356E+0	1.025061E+0	9.876364E-1	1.021785E+0	9.899957E-1	9.814014E-1	1.015659E+0	9.839595E-1	9.656765E-1	9.773594E-1	1.040627E+0	9.484365E-1	9.714442E-1	1.017435E+0	1.029397E+0	1.025103E+0	1.034739E+0	1.007837E+0	1.032452E+0	1.017834E+0	9.925102E-1	9.938126E-1	1.049581E+0	9.950345E-1	9.673196E-1	9.768308E-1	1.017911E+0	9.688833E-1	9.887241E-1	1.012362E+0	1.020883E+0	9.852390E-1	9.885792E-1	9.845564E-1	1.071327E+0	1.011770E+0	1.024469E+0	1.004014E+0	1.104957E+0	1.049726E+0	1.011785E+0	9.874821E-1	1.002710E+0	9.994973E-1	1.012238E+0	1.054231E+0	1.007429E+0	1.004848E+0	9.930404E-1	9.925082E-1	1.060209E+0	9.871609E-1	9.682547E-1	1.006453E+0	1.020191E+0	9.885150E-1	9.908783E-1	1.017988E+0	9.783729E-1	1.009202E+0	1.018389E+0	9.914616E-1	9.710339E-1	9.753480E-1	9.709693E-1	1.024899E+0	9.443567E-1	9.955706E-1	1.027774E+0	1.036696E+0	9.070343E-1	1.014537E+0	1.051595E+0	1.037095E+0	1.003298E+0	1.015203E+0	9.855604E-1	9.841154E-1	9.966889E-1	1.028145E+0	1.034625E+0	9.297283E-1	8.813069E-1	1.042711E+0	9.564844E-1	9.983010E-1	9.749260E-1	9.962853E-1	9.969931E-1	9.994498E-1	1.038720E+0	1.035345E+0	1.005389E+0	9.222782E-1	9.794869E-1
5.590040E+2	9.700611E-1	9.818477E-1	1.006732E+0	1.018168E+0	1.000564E+0	1.022476E+0	1.030754E+0	1.018750E+0	9.733790E-1	1.002205E+0	9.773314E-1	1.011479E+0	9.603575E-1	1.043150E+0	9.967370E-1	9.724550E-1	1.012702E+0	9.590044E-1	1.020163E+0	9.759693E-1	9.887561E-1	9.814270E-1	9.742909E-1	9.543066E-1	1.085131E+0	1.018463E+0	1.042150E+0	1.024779E+0	1.007601E+0	9.981589E-1	9.764289E-1	9.934697E-1	1.000142E+0	9.886324E-1	1.012109E+0	1.035879E+0	9.926112E-1	1.009800E+0	1.049407E+0	1.018779E+0	1.038501E+0	1.009173E+0	9.599817E-1	1.000575E+0	9.953700E-1	1.003990E+0	1.001762E+0	9.817833E-1	1.019278E+0	9.830307E-1	1.005767E+0	1.017690E+0	1.005936E+0	1.008533E+0	1.021398E+0	9.729358E-1	9.857329E-1	9.898834E-1	9.958988E-1	1.036413E+0	9.922256E-1	9.796214E-1	1.020300E+0	1.008118E+0	9.821115E-1	1.001180E+0	1.016927E+0	1.037511E+0	1.066779E+0	9.616925E-1	9.716170E-1	1.012502E+0	1.009358E+0	9.743164E-1	1.026528E+0	9.751581E-1	9.890634E-1	9.910911E-1	1.056257E+0	1.019451E+0	9.747115E-1	1.024501E+0	1.028342E+0	9.819869E-1	1.030121E+0	9.942554E-1	1.076512E+0	9.931377E-1	9.894074E-1	1.016779E+0	9.712644E-1	9.597091E-1	9.907039E-1	1.050913E+0	1.076703E+0	1.002972E+0	9.910835E-1	9.653897E-1	1.092253E+0	1.052380E+0	1.026997E+0	9.876918E-1	1.015524E+0	1.000607E+0	1.000457E+0	1.006715E+0	1.018462E+0	9.953199E-1	1.034994E+0	1.023602E+0	1.086402E+0	9.588456E-1	9.871891E-1	1.040016E+0	1.070820E+0	9.886335E-1	1.030244E+0	9.973003E-1	1.050757E+0	1.016722E+0	1.025398E+0	1.023242E+0	1.009334E+0	9.759045E-1	9.930404E-1	1.019402E+0	1.073670E+0	1.010994E+0	1.035312E+0	9.702679E-1	1.053545E+0	1.057994E+0	9.978952E-1	9.948902E-1	1.059317E+0	1.009203E+0	9.922080E-1	1.057022E+0	9.878359E-1	9.971206E-1	9.755457E-1	9.950459E-1	1.060090E+0	9.708183E-1	1.034135E+0	9.909005E-1	1.028484E+0	1.000909E+0	9.741248E-1	9.816433E-1	1.029936E+0	1.005658E+0	1.009082E+0	9.571416E-1	9.642808E-1	9.394257E-1	1.004571E+0	1.029169E+0	9.802175E-1	9.664977E-1	1.033679E+0	1.030389E+0	9.797712E-1	1.015208E+0	1.015297E+0	1.044089E+0	9.522783E-1	9.732083E-1	9.986524E-1	1.063753E+0	1.021210E+0
5.595110E+2	1.028896E+0	1.050195E+0	1.006731E+0	1.053378E+0	1.054148E+0	9.732039E-1	9.969996E-1	1.006795E+0	1.025987E+0	1.050482E+0	9.739976E-1	1.059531E+0	1.050251E+0	1.029060E+0	1.047628E+0	1.016245E+0	1.005761E+0	1.001037E+0	1.046662E+0	1.016931E+0	1.053408E+0	1.018572E+0	1.029291E+0	1.009498E+0	1.068295E+0	1.009009E+0	9.745705E-1	1.019190E+0	1.005565E+0	1.048635E+0	1.026268E+0	1.003859E+0	1.056110E+0	1.046075E+0	1.005482E+0	9.992248E-1	1.024652E+0	1.017387E+0	1.056447E+0	1.032568E+0	1.053016E+0	1.009815E+0	1.045267E+0	1.065126E+0	1.015117E+0	1.019126E+0	1.019370E+0	1.000681E+0	9.921569E-1	1.015012E+0	9.943483E-1	9.870465E-1	1.026189E+0	1.012595E+0	1.029463E+0	1.024307E+0	1.013193E+0	1.059134E+0	1.033549E+0	1.031886E+0	1.016100E+0	1.005387E+0	1.059360E+0	9.763498E-1	1.019993E+0	1.050156E+0	1.035080E+0	1.014949E+0	1.001945E+0	1.015977E+0	1.040531E+0	1.007600E+0	9.991723E-1	1.011811E+0	1.015917E+0	1.055928E+0	9.710434E-1	1.067364E+0	1.069270E+0	9.758807E-1	1.007364E+0	1.048118E+0	1.031650E+0	1.035895E+0	1.053237E+0	1.038861E+0	1.040019E+0	1.011395E+0	1.023476E+0	1.003015E+0	1.062426E+0	1.004711E+0	9.644050E-1	1.049717E+0	1.038486E+0	1.019185E+0	9.810971E-1	1.070728E+0	1.058595E+0	9.810479E-1	9.936054E-1	1.013636E+0	1.071050E+0	1.035706E+0	1.048687E+0	9.765932E-1	1.036622E+0	1.036363E+0	1.025833E+0	1.027099E+0	1.061680E+0	9.904423E-1	9.912560E-1	1.019948E+0	1.091072E+0	1.008525E+0	1.007525E+0	9.960729E-1	1.043364E+0	1.031075E+0	1.042505E+0	9.957743E-1	1.043622E+0	1.034515E+0	1.043413E+0	1.033489E+0	1.115277E+0	1.002537E+0	1.006064E+0	1.020927E+0	1.124423E+0	1.026090E+0	9.943862E-1	9.997898E-1	1.134568E+0	1.004791E+0	1.032726E+0	1.050162E+0	1.004637E+0	1.033642E+0	1.070354E+0	1.036967E+0	1.100629E+0	1.056799E+0	1.002332E+0	1.017069E+0	1.086080E+0	1.041793E+0	9.958166E-1	1.028809E+0	1.081311E+0	1.042472E+0	1.018882E+0	1.011838E+0	1.084049E+0	1.072506E+0	1.028363E+0	1.014585E+0	1.100571E+0	1.006987E+0	1.029944E+0	1.017806E+0	1.092423E+0	9.794656E-1	1.040138E+0	1.040420E+0	1.079440E+0	1.028890E+0	9.773158E-1	1.018983E+0	1.014255E+0
5.600470E+2	1.007299E+0	9.906666E-1	1.020055E+0	1.002676E+0	1.005499E+0	1.052175E+0	1.031379E+0	1.007424E+0	1.031058E+0	9.855170E-1	1.044671E+0	1.040844E+0	1.031826E+0	1.050783E+0	1.045969E+0	1.015538E+0	1.050184E+0	1.071282E+0	1.002305E+0	1.048335E+0	1.056219E+0	1.022350E+0	1.025454E+0	1.051213E+0	1.012663E+0	1.024024E+0	1.099279E+0	1.005527E+0	1.040859E+0	1.008848E+0	1.030959E+0	1.032801E+0	1.015728E+0	1.028540E+0	1.018134E+0	1.037994E+0	9.409533E-1	1.026871E+0	1.030848E+0	1.047014E+0	1.045413E+0	1.025852E+0	1.054451E+0	1.079825E+0	1.085937E+0	1.023943E+0	1.022780E+0	1.087607E+0	1.014879E+0	1.026107E+0	1.039455E+0	1.016993E+0	1.033172E+0	1.045100E+0	1.026982E+0	1.034958E+0	1.029908E+0	9.910878E-1	1.063803E+0	1.037060E+0	1.054054E+0	9.942612E-1	1.028585E+0	1.008825E+0	1.051561E+0	1.025963E+0	1.075126E+0	1.062190E+0	1.052372E+0	1.053606E+0	1.028850E+0	1.050498E+0	1.004902E+0	1.013061E+0	9.960208E-1	1.064752E+0	1.061145E+0	1.000705E+0	1.076961E+0	1.020229E+0	1.050438E+0	1.028634E+0	1.066939E+0	1.028663E+0	1.009807E+0	1.047646E+0	1.099622E+0	1.027765E+0	1.087277E+0	9.892507E-1	1.036663E+0	1.027916E+0	1.092840E+0	1.033563E+0	1.106875E+0	1.016483E+0	1.057421E+0	1.024468E+0	1.081433E+0	1.009021E+0	1.014920E+0	1.000965E+0	1.074037E+0	1.029631E+0	1.054553E+0	9.922818E-1	9.948549E-1	1.035643E+0	1.044155E+0	1.020689E+0	1.089414E+0	1.020459E+0	1.061749E+0	9.809953E-1	1.057512E+0	1.066775E+0	1.019595E+0	1.037185E+0	1.003942E+0	1.000215E+0	1.033293E+0	9.859142E-1	1.041717E+0	1.043198E+0	1.009610E+0	1.030928E+0	1.067551E+0	1.004844E+0	1.003210E+0	1.036004E+0	1.041038E+0	1.040270E+0	1.012630E+0	1.082381E+0	1.058052E+0	1.026220E+0	1.043947E+0	9.868877E-1	1.026815E+0	1.020298E+0	1.047470E+0	1.000762E+0	1.066628E+0	9.916627E-1	1.058870E+0	1.033126E+0	1.111120E+0	1.020594E+0	1.019057E+0	1.012875E+0	1.035011E+0	1.003613E+0	1.009735E+0	1.029822E+0	1.105889E+0	1.074035E+0	1.012084E+0	1.020551E+0	1.129622E+0	1.060176E+0	1.031189E+0	1.016547E+0	1.081520E+0	1.012405E+0	1.013989E+0	1.001896E+0	1.018717E+0	1.049871E+0	1.050310E+0	1.106733E+0	1.153330E+0
5.605210E+2	1.033364E+0	9.965460E-1	1.054413E+0	1.016056E+0	9.617863E-1	1.006952E+0	1.005751E+0	1.027559E+0	1.013944E+0	1.008165E+0	1.026669E+0	9.587551E-1	1.022893E+0	9.850297E-1	9.834599E-1	1.047321E+0	9.877151E-1	9.947027E-1	1.023043E+0	1.022393E+0	1.016866E+0	1.024869E+0	1.017779E+0	1.021692E+0	1.014860E+0	9.951055E-1	1.000348E+0	9.769602E-1	1.004887E+0	1.017756E+0	1.042100E+0	1.025380E+0	1.027772E+0	1.018261E+0	9.922282E-1	1.008388E+0	9.998041E-1	1.015490E+0	1.003968E+0	1.006304E+0	9.769827E-1	9.931359E-1	1.007873E+0	1.018471E+0	1.032822E+0	1.053526E+0	9.892626E-1	9.961449E-1	1.033938E+0	1.003263E+0	9.926348E-1	1.039279E+0	9.982542E-1	1.016659E+0	9.860441E-1	9.835861E-1	1.026922E+0	9.904861E-1	1.046323E+0	1.013777E+0	1.014263E+0	1.023540E+0	9.877491E-1	1.005295E+0	1.002455E+0	9.793483E-1	1.021197E+0	9.966154E-1	9.695282E-1	1.007341E+0	1.019506E+0	1.031500E+0	1.032912E+0	9.843149E-1	1.027854E+0	9.683709E-1	1.008948E+0	1.000064E+0	9.959186E-1	1.037345E+0	1.008753E+0	1.003247E+0	1.038266E+0	9.931623E-1	1.017513E+0	9.800627E-1	1.005352E+0	9.956560E-1	1.054448E+0	1.042997E+0	1.063748E+0	1.045495E+0	1.026176E+0	1.014418E+0	1.067987E+0	1.025941E+0	9.903702E-1	1.005518E+0	1.051384E+0	1.022308E+0	1.009236E+0	1.034754E+0	1.075828E+0	1.009382E+0	9.880728E-1	1.021775E+0	1.063254E+0	9.665170E-1	9.806400E-1	1.003205E+0	1.019474E+0	1.093131E+0	9.512650E-1	1.029392E+0	1.037841E+0	9.914757E-1	9.982959E-1	9.844142E-1	1.026733E+0	9.951916E-1	1.012238E+0	1.004226E+0	1.053148E+0	9.860348E-1	1.033471E+0	9.489661E-1	1.112218E+0	1.012532E+0	1.001783E+0	9.955978E-1	1.031508E+0	1.013329E+0	9.733360E-1	9.745930E-1	1.040346E+0	9.909234E-1	1.029610E+0	1.001372E+0	1.011358E+0	1.026619E+0	1.014777E+0	1.023628E+0	1.043743E+0	9.890571E-1	1.054629E+0	1.011121E+0	1.108617E+0	1.015294E+0	9.718012E-1	1.002677E+0	1.068627E+0	9.790705E-1	9.672667E-1	1.025325E+0	1.063617E+0	9.799614E-1	9.638726E-1	1.008618E+0	1.116480E+0	9.752309E-1	9.994399E-1	1.015918E+0	1.052450E+0	9.738590E-1	9.695376E-1	9.988381E-1	1.075868E+0	9.974176E-1	9.773159E-1	1.017193E+0	1.031638E+0
5.610010E+2	9.261229E-1	9.708236E-1	9.281964E-1	9.167636E-1	9.533255E-1	9.624043E-1	9.676205E-1	9.237421E-1	9.233068E-1	9.187660E-1	9.553292E-1	9.540837E-1	9.514237E-1	9.750492E-1	9.773752E-1	9.307842E-1	9.453742E-1	9.250326E-1	9.302937E-1	9.534397E-1	9.515111E-1	9.165804E-1	9.685345E-1	9.408292E-1	9.387320E-1	9.389400E-1	9.390397E-1	9.775809E-1	9.214049E-1	9.310552E-1	9.875705E-1	9.437484E-1	9.491327E-1	9.390493E-1	9.657207E-1	9.604562E-1	9.252596E-1	9.693359E-1	9.610884E-1	9.688764E-1	9.368919E-1	9.520799E-1	9.580131E-1	9.622285E-1	9.620026E-1	9.338141E-1	9.529066E-1	8.918328E-1	9.327846E-1	9.647554E-1	9.538065E-1	9.229740E-1	9.416866E-1	9.841532E-1	9.606131E-1	9.923567E-1	9.373799E-1	9.971082E-1	9.515261E-1	9.406904E-1	9.628420E-1	9.433145E-1	9.617092E-1	9.495233E-1	9.512456E-1	9.427632E-1	9.453789E-1	9.430273E-1	9.457553E-1	9.524394E-1	9.488408E-1	9.107701E-1	9.456992E-1	9.730663E-1	9.887250E-1	9.547960E-1	9.573730E-1	8.917438E-1	9.716643E-1	1.010115E+0	9.663753E-1	9.276769E-1	9.709972E-1	9.642366E-1	9.572697E-1	9.388365E-1	9.244619E-1	9.547322E-1	9.163151E-1	9.473024E-1	9.402161E-1	9.140039E-1	9.521733E-1	8.983530E-1	1.025747E+0	9.212331E-1	9.504258E-1	9.893553E-1	1.007513E+0	9.712579E-1	9.090635E-1	9.563171E-1	9.319345E-1	9.364844E-1	9.476638E-1	9.621606E-1	9.579313E-1	9.708380E-1	9.781973E-1	9.315243E-1	1.027312E+0	1.012560E+0	9.295752E-1	9.255170E-1	1.010647E+0	9.197281E-1	9.627986E-1	9.475974E-1	1.008870E+0	9.743794E-1	9.161748E-1	9.387262E-1	9.718709E-1	9.766287E-1	9.347156E-1	9.861049E-1	9.996330E-1	9.771660E-1	9.654014E-1	9.413200E-1	1.027338E+0	9.438492E-1	1.002807E+0	9.304977E-1	9.967114E-1	9.442812E-1	9.847279E-1	9.175164E-1	9.703620E-1	9.964179E-1	9.644303E-1	9.531243E-1	1.060090E+0	9.831945E-1	9.055115E-1	9.611641E-1	9.715159E-1	9.342820E-1	9.872952E-1	9.695338E-1	9.912469E-1	9.681627E-1	9.515853E-1	9.571415E-1	9.628719E-1	9.562518E-1	9.933005E-1	9.489532E-1	1.055612E+0	9.672922E-1	9.876114E-1	9.592930E-1	1.059717E+0	9.731581E-1	9.388130E-1	9.303504E-1	1.016574E+0	9.917689E-1	9.975290E-1	9.383955E-1	8.682262E-1
