Photon Energy (eV)	#1	#2	#3	#4	#5	#6	#7	#8	#9	#10	#11	#12	#13	#14	#15	#16	#17	#18	#19	#20	#21	#22	#23	#24	#25	#26	#27	#28	#29	#30	#31	#32	#33	#34	#35	#36	#37	#38	#39	#40	#41	#42	#43	#44	#45	#46	#47	#48	#49	#50	#51	#52	#53	#54	#55	#56	#57	#58	#59	#60	#61	#62	#63	#64	#65	#66	#67	#68	#69	#70	#71	#72	#73	#74	#75	#76	#77	#78	#79	#80	#81	#82	#83	#84	#85	#86	#87	#88	#89	#90	#91	#92	#93	#94	#95	#96	#97	#98	#99	#100	#101	#102	#103	#104	#105	#106	#107	#108	#109	#110	#111	#112	#113	#114	#115	#116	#117	#118	#119	#120	#121	#122	#123	#124	#125	#126	#127	#128	#129	#130	#131	#132	#133	#134	#135	#136	#137	#138	#139	#140	#141	#142	#143	#144	#145	#146	#147	#148	#149	#150	#151	#152	#153	#154	#155	#156	#157	#158	#159	#160	#161	#162	#163	#164	#165	#166	#167	#168	#169	#170	#171	
5.300270E+2	-7.785769E-3	-1.679620E-3	-1.524015E-2	-1.480909E-2	-1.140599E-2	-1.855100E-2	5.778007E-3	-1.045470E-2	-6.163840E-3	-1.054576E-2	-6.038132E-3	-1.196537E-2	-3.057915E-3	-2.129104E-3	-3.629470E-3	-1.444824E-2	-1.000541E-2	-8.244543E-3	-1.298615E-2	-3.869786E-3	-1.708066E-2	-1.214129E-2	-5.256205E-3	-7.489411E-3	-1.244016E-2	-8.714459E-3	-3.697719E-3	3.826290E-4	-6.514177E-3	3.157377E-3	1.217866E-3	7.937400E-4	-1.067255E-2	-7.960580E-3	-1.318900E-2	-5.976919E-3	-5.819710E-3	-1.551445E-2	-1.430521E-2	-1.068674E-2	-1.718037E-2	-1.083736E-2	-6.984656E-3	-7.316985E-3	-9.039111E-3	-1.430147E-2	-1.597685E-2	-2.386803E-3	-3.101800E-3	-8.418031E-3	-9.342191E-3	-2.721763E-3	-9.831196E-3	1.045684E-2	-1.103882E-2	-1.237874E-2	-6.642735E-3	-1.452254E-2	-6.659636E-3	-1.289749E-2	-4.075339E-3	-5.852725E-3	-5.580499E-3	-6.444107E-3	-6.293496E-3	-5.317764E-3	-9.577114E-3	-1.733836E-2	-2.004702E-2	-9.332668E-3	-1.445980E-2	-1.320407E-2	-1.775425E-2	-1.139412E-2	-8.590725E-3	-1.506334E-2	-2.907577E-3	-8.389010E-4	-6.883547E-3	-1.026692E-2	-9.155463E-3	-5.861597E-3	-7.642079E-3	-1.077407E-2	-3.271584E-3	-1.414051E-2	-1.061026E-2	5.236116E-3	-1.642743E-2	-9.007502E-3	-1.184292E-2	-1.097038E-2	-9.682179E-3	-6.487868E-3	-1.729160E-2	-1.865811E-2	-1.303357E-2	-1.316193E-2	-1.434679E-2	-5.746757E-3	-1.249389E-2	-9.401029E-4	-1.406705E-2	-1.029897E-2	-9.978162E-4	-1.300788E-2	-7.606983E-3	-1.164871E-2	-1.468565E-2	-8.922529E-3	-1.081020E-2	-1.140593E-2	-1.241867E-2	-8.803062E-4	-1.125813E-2	-6.577569E-3	-3.579779E-3	-1.130957E-2	-4.936150E-3	9.674785E-4	-2.535695E-5	-1.749200E-3	-1.796078E-2	-1.071345E-2	-1.401547E-3	-1.197185E-2	-5.826238E-3	-5.512363E-3	-1.140252E-2	-6.988838E-3	-9.346059E-3	-1.413435E-3	-9.021023E-3	-1.461223E-2	-2.698972E-2	-5.790874E-3	-1.543795E-2	1.529595E-3	-1.241205E-2	-1.715126E-2	-1.164686E-2	-1.893129E-2	-5.613433E-3	-1.251680E-2	-5.735525E-3	-1.350556E-2	-3.356805E-3	-1.664311E-2	-6.673040E-3	-1.059651E-2	-1.729934E-3	-8.604632E-3	-4.524579E-3	-5.325334E-3	-4.029312E-3	-1.179667E-2	-6.781261E-3	-9.263326E-3	-4.472542E-3	-1.409209E-2	-1.568430E-2	-1.260966E-3	-1.440040E-2	-1.435949E-2	-8.467556E-3	-1.245998E-2	1.857021E-3	-1.498636E-2	-1.373829E-2	-1.174161E-2	-1.416382E-2
5.305230E+2	-9.203294E-3	-9.322038E-3	2.937333E-3	-1.081150E-3	1.215890E-3	-4.862709E-3	-1.238701E-2	-3.956193E-3	-7.401490E-3	-5.152623E-3	-7.954556E-3	-7.207916E-3	-7.340387E-3	-9.239070E-3	-8.200630E-3	-7.047759E-3	-5.708698E-3	-8.183788E-3	-2.173221E-3	2.752227E-3	-2.077786E-3	-1.582578E-2	-1.286111E-2	-8.727289E-4	-1.288087E-3	-5.545006E-3	-5.417866E-3	-1.222098E-2	-5.251706E-3	-1.226381E-2	-9.256940E-3	1.499540E-3	-8.050370E-3	-7.883718E-3	-1.311491E-2	-1.186178E-3	-1.242614E-2	-5.882110E-3	-2.562329E-3	-1.259649E-2	3.497592E-3	-5.730292E-3	-2.922722E-3	-1.386722E-2	1.441489E-3	5.212625E-3	-4.600358E-3	-9.504408E-3	7.741798E-4	9.305525E-3	-1.129904E-2	-7.070073E-3	-4.238849E-3	-5.986922E-3	-9.709697E-3	-5.942753E-3	-5.857400E-3	-1.175593E-2	-1.038958E-2	-7.688497E-3	5.046984E-3	-2.127131E-2	-1.202265E-2	-8.167956E-3	-1.280917E-2	-1.182042E-2	-8.804840E-3	-9.941237E-3	-2.882502E-3	-2.029932E-3	-8.054590E-3	-6.634684E-3	-3.697331E-3	1.212757E-3	-5.803304E-3	-1.101508E-2	-1.125070E-2	-1.780449E-2	-9.321993E-3	6.534021E-4	3.856302E-3	-7.044591E-3	-3.566980E-3	-6.299895E-3	-1.387554E-2	-1.480234E-2	-7.314844E-3	-5.826578E-3	-7.882994E-3	4.476605E-3	-6.865913E-4	-5.250959E-3	-1.540965E-3	2.447861E-3	-6.495972E-3	3.072774E-3	-1.227188E-2	-4.854409E-3	-1.049922E-2	1.205115E-3	-1.043659E-2	-3.383919E-3	-2.953132E-3	-7.488831E-3	-9.282838E-3	5.639145E-4	-2.414370E-3	-8.487286E-3	-9.778112E-4	-2.936594E-3	-7.480535E-3	-7.203091E-3	-1.169650E-2	-6.674465E-3	-8.492765E-3	-5.818394E-3	-9.581845E-3	-8.601465E-3	-6.804088E-3	-7.052435E-3	-9.051334E-3	-3.413964E-4	-5.188935E-4	-8.600390E-3	-8.819599E-3	-5.487766E-3	-4.170378E-4	-1.513675E-3	-3.359723E-3	2.705131E-4	-6.288564E-3	-1.990211E-3	-3.910164E-3	4.717748E-3	-7.022719E-3	-1.928174E-2	-8.525891E-3	-1.759089E-2	-1.163428E-2	2.323519E-4	-7.165459E-3	-6.224989E-3	4.808391E-3	-1.802132E-2	-2.544170E-3	6.845136E-3	-1.515139E-2	1.910806E-3	-7.272933E-3	-1.052176E-2	-5.619530E-3	-1.200860E-4	-1.360405E-2	-6.909805E-4	-1.299563E-2	-1.516410E-2	-1.617605E-2	-7.303090E-3	-7.873090E-3	-7.324152E-3	-2.552978E-3	-1.066781E-2	-3.711023E-3	-1.706168E-2	-6.480382E-3	-6.361167E-3	-1.485470E-2	-1.573435E-2	1.299963E-3	-2.448185E-3	-1.137095E-3
5.310050E+2	-1.351723E-2	-5.826873E-3	-5.760090E-3	-1.173309E-2	-1.007855E-2	-4.156494E-3	-1.316916E-2	-1.155363E-4	-4.874060E-3	-9.776849E-3	1.421066E-3	-1.174732E-3	-9.475949E-3	-2.034020E-3	1.529840E-4	-2.296716E-3	-3.277382E-3	6.981055E-4	-1.522397E-2	-5.156506E-3	-1.079077E-2	2.837941E-3	-4.434760E-3	-1.422839E-4	1.455496E-3	-7.344190E-3	-4.206980E-3	-7.706151E-3	-6.381201E-3	-3.291323E-3	-1.266884E-2	-1.403655E-2	-8.055288E-3	-1.045587E-2	-5.960134E-3	-1.165188E-2	-7.458323E-3	1.334844E-3	2.867539E-3	-3.724246E-3	-8.054960E-3	1.231501E-3	-5.357148E-3	-5.647433E-3	-5.187163E-3	-3.449512E-3	-6.906713E-3	-8.734742E-3	-6.055783E-3	-3.160923E-3	-2.811423E-3	-6.870531E-3	-5.361771E-3	-1.378298E-2	-5.875110E-3	-4.567347E-3	-9.636971E-3	-1.090474E-2	-7.011864E-3	-1.695967E-3	-1.638112E-2	-3.124754E-3	-9.970655E-3	-1.047881E-2	-1.669559E-2	-6.312494E-3	-6.645495E-3	-1.184988E-2	-1.282900E-2	-3.124927E-3	-1.048802E-2	-5.357295E-3	-2.308404E-3	-1.043250E-2	-6.250717E-3	-5.555774E-3	3.349877E-3	-6.530204E-3	-1.113615E-2	-3.996463E-3	-1.120282E-4	-1.078357E-2	-4.133010E-3	-8.397872E-3	-7.100049E-3	-9.581925E-3	4.835203E-4	-5.736442E-3	-9.097619E-3	-1.033636E-2	-5.899540E-4	-5.156502E-3	4.255849E-4	-9.238581E-3	-1.255578E-2	-1.083364E-2	-1.203450E-3	-6.530057E-3	-1.041638E-2	-7.092002E-3	-1.554853E-2	-1.219903E-2	-1.392811E-2	-1.145321E-2	-9.205921E-3	-3.635218E-3	-1.191802E-2	-1.149390E-2	-4.453543E-3	-7.577679E-3	-8.688740E-3	-2.295929E-3	2.109638E-3	-2.943212E-5	-7.072893E-3	-1.248393E-2	-9.512595E-3	-3.905902E-3	-6.081619E-3	-1.731258E-2	1.572336E-4	-1.062307E-2	-7.794484E-3	-1.331273E-2	-9.369695E-3	-5.397028E-3	-1.433569E-2	-7.325860E-3	-8.603135E-3	-1.580658E-2	5.059452E-4	-5.215460E-3	-5.729223E-3	-5.842567E-3	-6.259552E-3	-7.485511E-3	-8.453313E-3	-6.139742E-3	-1.368978E-2	-1.236303E-2	-1.024564E-2	-1.057115E-2	-1.443283E-2	7.829382E-3	-5.565961E-3	3.767572E-3	-6.929808E-3	-7.977597E-3	-9.218836E-3	-1.110378E-2	-1.218621E-2	-1.237093E-2	-2.860930E-3	-1.050962E-2	-8.736044E-3	-2.727915E-3	-5.277750E-3	-9.014739E-3	-9.231165E-3	-4.575734E-3	-9.024459E-3	-3.229482E-3	-8.277058E-3	-7.350364E-3	-6.896110E-4	-5.658528E-3	-1.333525E-2	-9.969878E-3	-4.408032E-3	-2.378148E-3	-1.393773E-2
5.315080E+2	-1.128202E-2	-4.965698E-3	-1.600896E-3	-4.763859E-3	4.703797E-3	2.478153E-3	-6.885090E-3	-2.503766E-3	-2.137939E-3	-1.371565E-2	2.871732E-3	2.325596E-3	-3.871130E-3	-2.545481E-3	3.681887E-3	-7.584438E-3	-3.751558E-3	-4.462637E-3	-3.115422E-3	-1.100739E-2	5.715748E-4	-1.321818E-2	-5.550959E-3	-3.359866E-3	-1.218931E-2	3.950970E-3	-8.964428E-3	-4.436211E-3	-2.697559E-3	-7.292398E-3	3.313175E-3	-1.392156E-2	-1.481646E-3	6.002957E-4	1.898535E-3	-7.014735E-3	-1.839927E-2	-1.212201E-2	-7.474002E-3	-5.730179E-3	-4.563947E-3	-1.245043E-2	-7.904597E-3	-6.308599E-3	-7.567854E-3	-2.222819E-3	1.377898E-3	1.203272E-3	-1.419980E-2	-1.447984E-2	-8.910314E-3	-8.808039E-3	-2.221244E-3	-8.506040E-3	-3.252162E-3	-5.779168E-3	-1.780341E-3	2.546555E-3	-6.939973E-3	-6.866287E-3	-5.501993E-3	-1.943473E-3	-5.298690E-3	-3.684092E-3	-5.351082E-3	-1.105741E-2	-4.486023E-3	5.593199E-3	1.097169E-3	-4.251073E-3	-2.150971E-3	5.096882E-5	4.157600E-3	-4.091920E-3	-4.852996E-3	-4.894930E-3	-3.822205E-3	-7.104250E-3	9.464191E-4	-1.207781E-2	-2.748899E-3	1.439802E-3	-5.386629E-3	-8.317715E-3	-3.171364E-4	1.532430E-3	5.835147E-4	9.383497E-4	-7.716891E-3	-8.026003E-3	4.730319E-3	1.999538E-3	6.745038E-3	9.063991E-4	-9.408442E-3	-3.051385E-3	8.515960E-3	-3.496602E-3	1.083757E-2	-1.661437E-3	-7.640955E-3	-7.033174E-3	-1.256040E-2	5.068325E-3	-2.126741E-3	-1.081877E-3	2.261921E-3	1.736528E-3	-7.351540E-3	-3.928456E-3	-4.037313E-3	-1.514006E-3	-2.378999E-3	-2.551301E-3	-4.963126E-3	-1.172776E-2	-7.397977E-3	6.781140E-3	-6.646750E-3	4.202056E-3	-6.286418E-3	-9.956810E-3	4.372385E-3	1.135162E-3	-8.021452E-3	4.647930E-3	-1.091518E-2	-2.644945E-3	-9.849767E-3	-4.924351E-3	-4.632549E-3	-6.448827E-3	-3.106948E-3	-7.082751E-3	6.253909E-3	4.367727E-5	-6.479525E-3	-9.616166E-3	1.975404E-3	-1.027238E-2	-3.830522E-5	-3.235347E-4	-1.020358E-2	9.592425E-4	-6.709919E-3	-2.471511E-3	-9.819261E-3	1.398256E-3	-4.443360E-3	-6.458842E-3	-6.777717E-3	-7.099100E-3	-7.356828E-3	-5.015007E-4	2.578680E-3	4.265314E-3	-4.500263E-3	-4.129906E-3	-9.858007E-3	1.576866E-3	-1.724950E-3	-7.822399E-3	-3.537184E-3	3.809722E-3	-1.332821E-2	-1.066375E-2	-7.653596E-4	-9.873673E-3	-3.164457E-3	-2.266963E-3	-7.408269E-3
5.320120E+2	3.380128E-3	-4.868591E-3	-1.434913E-3	-6.195214E-3	-9.818297E-3	1.934876E-3	-3.716161E-3	1.769532E-4	-3.913829E-3	6.474352E-3	-3.783206E-4	3.773014E-3	1.143066E-3	2.415344E-3	-9.690622E-3	4.602646E-3	-6.055698E-3	-6.762075E-3	7.781552E-3	1.085238E-3	-1.200070E-3	1.118024E-2	-1.293015E-3	-9.225816E-3	-5.173337E-3	-1.274204E-2	4.696545E-3	2.089153E-3	-4.986100E-3	-5.874919E-4	-1.304144E-3	9.641888E-3	-2.677209E-3	2.642065E-3	-1.003682E-2	1.729855E-3	4.333845E-3	5.872715E-3	5.634237E-3	6.474008E-3	1.732836E-3	2.653853E-3	-5.193730E-3	-6.228491E-3	5.049240E-4	2.404427E-4	1.725021E-2	6.227408E-4	2.329306E-3	-5.539201E-3	1.131817E-2	-9.375811E-3	-1.525302E-3	2.902786E-3	2.475901E-3	1.325666E-3	-2.352609E-3	-9.260482E-5	9.352469E-3	-1.628334E-3	-9.034852E-3	6.536094E-3	-1.244448E-3	-4.844596E-3	2.710907E-3	1.697969E-3	2.561733E-3	9.042984E-3	1.826304E-3	-9.613351E-3	6.267810E-3	5.483412E-3	-3.405320E-3	4.385575E-3	-2.674091E-3	4.486821E-3	5.367120E-3	-3.715282E-3	-7.828637E-3	4.345549E-3	-9.493707E-3	5.376218E-3	-3.937247E-3	1.316553E-3	-1.574369E-3	-1.337470E-3	-8.928071E-3	-4.263394E-3	-1.739911E-3	7.019114E-3	-1.417531E-2	7.761624E-3	6.137918E-4	-1.203249E-2	2.226549E-3	-8.592197E-3	-2.397702E-3	-2.225842E-3	-5.705833E-3	-5.401563E-3	7.668117E-3	6.455789E-3	-7.546009E-5	-2.353169E-3	-3.443478E-3	-3.456305E-3	-2.081505E-4	4.159235E-3	6.454891E-3	-5.616585E-3	-3.281697E-3	-2.811042E-3	-4.916706E-3	-3.110658E-3	4.600987E-3	7.998753E-3	1.035851E-2	2.242178E-3	-6.566922E-3	-7.548997E-3	-7.516403E-3	1.256964E-3	-8.287736E-3	5.464757E-4	-1.004335E-3	-2.854499E-3	9.922780E-3	-5.845521E-4	-4.159239E-4	-3.024329E-3	-6.791849E-3	-1.723766E-3	-6.184309E-3	-2.320531E-3	2.916490E-3	1.385651E-3	-2.627246E-3	1.120477E-2	6.653265E-4	-8.072122E-4	2.599005E-3	-8.535995E-4	2.703235E-4	-1.014400E-2	1.508754E-3	-6.194411E-3	2.184449E-3	-6.434590E-4	7.741399E-3	4.718297E-3	-6.690364E-3	9.910400E-3	-3.443590E-3	3.573614E-3	-5.748034E-3	-4.692770E-4	5.118808E-3	-2.228917E-3	5.152831E-3	-5.728411E-3	-2.943579E-3	-8.406248E-3	4.534103E-3	5.986010E-3	2.078168E-3	7.323515E-3	-2.133201E-3	8.225389E-3	5.024952E-3	-1.285972E-2	-1.055471E-2
5.325120E+2	1.659638E-2	3.709975E-3	1.018896E-2	1.618544E-2	2.779058E-4	8.583911E-3	8.616717E-3	6.099156E-3	5.135984E-3	1.193202E-2	-2.184998E-3	-2.116231E-3	2.906860E-3	1.915048E-3	2.703434E-3	1.225143E-2	1.249883E-2	5.309389E-3	1.121777E-2	3.310115E-3	2.037298E-3	6.327045E-3	9.775004E-3	1.495314E-3	2.138179E-2	1.297200E-2	2.928763E-3	1.557627E-3	5.929503E-3	7.186457E-4	2.936678E-3	-1.326420E-3	1.088939E-2	3.396340E-3	1.696383E-2	1.052818E-2	1.610909E-2	3.409133E-3	5.731107E-3	1.265793E-2	1.221895E-2	7.778761E-3	1.714770E-4	5.763633E-3	3.072560E-3	4.509327E-3	-2.916821E-3	4.684883E-3	3.068884E-3	4.074953E-3	2.384917E-3	2.873324E-3	4.734109E-3	4.340717E-3	1.073728E-2	7.190865E-3	7.522143E-3	7.459320E-3	2.316487E-3	2.243637E-2	1.157422E-2	6.429762E-4	1.006366E-2	9.372897E-3	1.681483E-2	9.673255E-3	9.598448E-3	6.476300E-3	5.123926E-3	4.409805E-3	1.287684E-3	6.192336E-3	5.027090E-3	5.899472E-3	1.489167E-3	9.264159E-3	4.878595E-3	3.673779E-3	1.323056E-2	-3.264363E-4	-3.237809E-3	2.272002E-3	2.879140E-3	6.585321E-3	9.299455E-3	6.892850E-3	2.161528E-3	3.778318E-3	7.554139E-3	4.128538E-3	6.285513E-3	5.749905E-3	-9.280675E-3	-6.205776E-5	1.241970E-2	9.093835E-3	1.150038E-3	1.388079E-2	6.627664E-3	-5.311540E-3	9.779474E-3	-1.754796E-3	6.629512E-3	3.921704E-3	1.070910E-2	7.768511E-3	5.691454E-3	1.202534E-2	9.551809E-3	6.975328E-3	8.579418E-3	1.325428E-2	8.990923E-3	6.231418E-3	4.706180E-3	4.723674E-3	2.565793E-4	-2.975503E-3	1.447325E-2	8.115764E-3	1.750106E-3	4.071748E-3	1.738946E-2	1.369458E-2	8.559793E-3	1.017225E-2	1.322195E-3	1.483172E-3	2.110335E-2	9.735695E-3	7.571993E-3	5.012768E-3	-3.873263E-4	2.456935E-3	9.943710E-3	7.089774E-3	1.378148E-2	4.870121E-3	1.001033E-2	6.673706E-3	1.223107E-2	7.538938E-3	8.701041E-3	1.237187E-2	-2.580222E-4	-3.563230E-4	1.049361E-2	6.611325E-3	1.111455E-3	1.593190E-2	8.749606E-3	1.070330E-2	1.045823E-2	3.680047E-3	6.302411E-3	-3.284592E-4	3.854670E-3	1.529605E-2	9.517585E-3	1.531858E-2	4.375577E-3	7.860381E-3	5.966641E-3	6.779173E-3	9.855658E-3	6.150659E-3	-2.037956E-3	1.080326E-2	4.724522E-4	1.399194E-2	1.542620E-2
5.330230E+2	2.181180E-2	2.295285E-2	1.090975E-2	2.239696E-2	2.510525E-2	1.457326E-2	2.176269E-2	1.075409E-2	1.935517E-2	2.078451E-2	1.226321E-2	1.636564E-2	1.969545E-2	1.161728E-2	1.498242E-2	1.452308E-2	1.629992E-2	2.164555E-2	1.449944E-2	1.288610E-2	2.854042E-2	2.084003E-2	1.962104E-2	1.959479E-2	8.253608E-3	1.742272E-2	1.466169E-2	2.033393E-2	1.990124E-2	1.955900E-2	1.576220E-2	1.734936E-2	2.004768E-2	1.966146E-2	2.343850E-2	1.357169E-2	2.366051E-2	2.290188E-2	1.010866E-2	1.360572E-2	1.234990E-2	1.735397E-2	2.819138E-2	3.360510E-2	1.677515E-2	1.001141E-2	1.177263E-2	1.411506E-2	1.718501E-2	1.821752E-2	1.865988E-2	3.197289E-2	1.844425E-2	1.057560E-2	1.666261E-2	2.015148E-2	1.874791E-2	2.726994E-2	1.933209E-2	8.340208E-3	1.837211E-2	2.501319E-2	2.405328E-2	2.424666E-2	2.162360E-2	2.313686E-2	1.735329E-2	1.801700E-2	2.771111E-2	2.394215E-2	2.759789E-2	1.346933E-2	1.798062E-2	1.442073E-2	2.668267E-2	2.277815E-2	4.384886E-3	3.231935E-2	2.099334E-2	2.166867E-2	2.089160E-2	1.460173E-2	2.178680E-2	2.588768E-2	1.683922E-2	3.143696E-2	2.362461E-2	5.873630E-3	3.531071E-2	1.174561E-2	1.627894E-2	5.866773E-3	1.271940E-2	2.446673E-2	3.110554E-2	2.896872E-2	1.924060E-2	1.638805E-2	2.350300E-2	2.400818E-2	2.867238E-2	1.885523E-2	3.695464E-2	2.260415E-2	1.434769E-2	1.284886E-2	1.419415E-2	1.370879E-2	1.146184E-2	2.200651E-2	2.571907E-2	1.197572E-2	2.031031E-2	7.014744E-3	2.247974E-2	2.388523E-2	1.945710E-2	1.776912E-2	1.656228E-2	1.862872E-2	2.097217E-2	1.734177E-2	1.280005E-2	1.725036E-2	2.005683E-2	1.089096E-2	2.024917E-2	1.609822E-2	1.252772E-2	2.073789E-2	1.898108E-2	1.177893E-2	2.833899E-2	2.268339E-2	2.115788E-2	2.403903E-2	2.774245E-2	1.574231E-2	2.508506E-2	3.368782E-2	1.426619E-2	2.936563E-2	1.647009E-2	1.952163E-2	1.930484E-2	1.191510E-2	2.257920E-2	1.534378E-2	1.875532E-2	1.803070E-2	2.425415E-2	7.581051E-3	2.133175E-2	9.773771E-3	2.262793E-2	2.622110E-2	2.376185E-2	1.664393E-2	1.676439E-2	1.482493E-2	2.755469E-2	2.352652E-2	1.942492E-2	2.219664E-2	1.703193E-2	2.166926E-2	3.126944E-2	3.153561E-2	1.451341E-2	1.770269E-2	3.177541E-2
5.331580E+2	2.778823E-2	3.016995E-2	2.249711E-2	3.559102E-2	1.970113E-2	3.309968E-2	1.181278E-2	2.517024E-2	3.151132E-2	2.965536E-2	3.522436E-2	2.869692E-2	2.803313E-2	2.260825E-2	2.252622E-2	1.800458E-2	2.060678E-2	2.894699E-2	2.123407E-2	2.156931E-2	2.930622E-2	2.788152E-2	3.101538E-2	2.920853E-2	2.444455E-2	1.876445E-2	2.955889E-2	3.259782E-2	3.091696E-2	1.793739E-2	1.593707E-2	2.592128E-2	1.503036E-2	2.166610E-2	3.124431E-2	1.376555E-2	1.455135E-2	3.482444E-2	2.569460E-2	6.955827E-3	2.160198E-2	3.640829E-2	1.841276E-2	2.428839E-2	2.498702E-2	1.804222E-2	3.083949E-2	1.846144E-2	2.691521E-2	2.547684E-2	9.048689E-3	2.787699E-2	2.974236E-2	2.292736E-2	2.288953E-2	3.319010E-2	3.065872E-2	2.340238E-2	3.136535E-2	3.668054E-2	3.734252E-2	2.163671E-2	1.694648E-2	2.894654E-2	2.047595E-2	1.484196E-2	2.950371E-2	1.845623E-2	2.080407E-2	3.144402E-2	2.750644E-2	2.679729E-2	2.391253E-2	1.809878E-2	2.230259E-2	2.503261E-2	2.405599E-2	3.251170E-2	2.711248E-2	2.669016E-2	2.448811E-2	2.957235E-2	2.577007E-2	2.020299E-2	1.290772E-2	3.531118E-2	3.265015E-2	3.060492E-2	3.087105E-2	2.090300E-2	2.762089E-2	3.380114E-2	2.853724E-2	3.298997E-2	1.109437E-2	2.841680E-2	6.902783E-3	1.949240E-2	1.372552E-2	9.517215E-3	7.503142E-3	3.826001E-2	2.001652E-2	1.519456E-2	2.435837E-2	4.029582E-2	2.983301E-2	2.319106E-2	3.439998E-2	1.437727E-2	3.505246E-2	2.673289E-2	2.704309E-2	2.767145E-2	2.125289E-2	3.630305E-2	1.890107E-2	2.657252E-2	2.720907E-2	1.429023E-2	2.245970E-2	2.609176E-2	1.495238E-2	1.737314E-2	1.132605E-2	2.281524E-2	1.566508E-2	2.745650E-2	2.742665E-2	3.420768E-2	2.137426E-2	3.057777E-2	3.103921E-2	3.693550E-2	2.477522E-2	2.418551E-2	2.663653E-2	2.161169E-2	2.308989E-2	2.104394E-2	2.331221E-2	8.431602E-3	1.938827E-2	2.950564E-2	3.391333E-2	2.231186E-2	2.871178E-2	3.416502E-2	2.225971E-2	2.800700E-2	2.305833E-2	1.686759E-2	2.915237E-2	2.454792E-2	3.265134E-2	2.845261E-2	2.458146E-2	2.764789E-2	2.546292E-2	2.783819E-2	3.694894E-2	2.638454E-2	1.956325E-2	3.558091E-2	1.073875E-2	3.595548E-2	1.146328E-2	2.428499E-2	3.908441E-2	2.321191E-2	1.568100E-2
5.333080E+2	4.257864E-2	3.101088E-2	2.534319E-2	2.492075E-2	4.935793E-2	3.126342E-2	3.194070E-2	3.115473E-2	4.130317E-2	3.993172E-2	2.549845E-2	1.727370E-2	4.599335E-2	3.965558E-2	2.746005E-2	4.602248E-2	2.567362E-2	3.514395E-2	4.360340E-2	2.306631E-2	2.565412E-2	3.304307E-2	2.644175E-2	3.674152E-2	3.856049E-2	3.147335E-2	3.745472E-2	3.406387E-2	3.468565E-2	2.661396E-2	2.865170E-2	3.464401E-2	2.481801E-2	2.117034E-2	2.820058E-2	3.346984E-2	4.124628E-2	3.494882E-2	3.945846E-2	3.497252E-2	2.656571E-2	3.024387E-2	2.700121E-2	2.592699E-2	2.635953E-2	1.637309E-2	2.032995E-2	1.792410E-2	3.855373E-2	3.455732E-2	3.657357E-2	2.672099E-2	3.547489E-2	3.787200E-2	2.925151E-2	3.849608E-2	2.491784E-2	2.558199E-2	3.781047E-2	3.681932E-2	3.022299E-2	2.604380E-2	2.049974E-2	2.417374E-2	3.738338E-2	3.387602E-2	3.084871E-2	3.356005E-2	3.506792E-2	4.991470E-2	3.492405E-2	3.594427E-2	3.694244E-2	3.937507E-2	2.116681E-2	3.195354E-2	3.095369E-2	2.937700E-2	3.064840E-2	3.950004E-2	3.294075E-2	3.364082E-2	2.958416E-2	4.436220E-2	2.659872E-2	2.583621E-2	3.479753E-2	4.543796E-2	2.706056E-2	5.046081E-2	3.572446E-2	3.915942E-2	4.507445E-2	2.841836E-2	2.102315E-2	3.315708E-2	1.746599E-2	3.161767E-2	2.391169E-2	2.547463E-2	2.294298E-2	4.041969E-2	2.651111E-2	2.855988E-2	3.016351E-2	3.987876E-2	4.973858E-2	1.877482E-2	4.301379E-2	3.071257E-2	1.535222E-2	3.336080E-2	4.112875E-2	3.783188E-2	3.315686E-2	2.842775E-2	3.548953E-2	2.339684E-2	2.032874E-2	1.668670E-2	2.988854E-2	4.146407E-2	2.793513E-2	2.373739E-2	2.162323E-2	3.598903E-2	2.187591E-2	3.291831E-2	3.096075E-2	4.105919E-2	2.000125E-2	3.074179E-2	3.695533E-2	3.508141E-2	3.467456E-2	3.061431E-2	3.059612E-2	3.184769E-2	3.897973E-2	3.403905E-2	3.560699E-2	1.625884E-2	3.559683E-2	4.449705E-2	3.032136E-2	2.504095E-2	3.262391E-2	4.443967E-2	2.782502E-2	3.934723E-2	2.590553E-2	4.198444E-2	2.931946E-2	3.939756E-2	2.929247E-2	4.884595E-2	4.256510E-2	3.387772E-2	3.636146E-2	2.325540E-2	3.051687E-2	2.249131E-2	3.445812E-2	5.323410E-2	4.113643E-2	3.293103E-2	3.753931E-2	3.850285E-2	2.292029E-2	3.774556E-2	4.514820E-2
5.334580E+2	4.154362E-2	3.700865E-2	4.525236E-2	3.665492E-2	4.888730E-2	3.933069E-2	4.648772E-2	3.907709E-2	4.722841E-2	4.206534E-2	4.366391E-2	5.073450E-2	3.609428E-2	4.164501E-2	3.663880E-2	4.335720E-2	4.558878E-2	3.701231E-2	4.919976E-2	3.589224E-2	2.639440E-2	3.067550E-2	4.849149E-2	5.443658E-2	4.772460E-2	6.049542E-2	5.302632E-2	4.644410E-2	3.058279E-2	4.008833E-2	3.374436E-2	6.168667E-2	5.916065E-2	4.835993E-2	3.090731E-2	3.570146E-2	5.009665E-2	4.811494E-2	5.212504E-2	3.661444E-2	4.710655E-2	5.130040E-2	3.748429E-2	5.994952E-2	3.522038E-2	5.622982E-2	5.604313E-2	3.823616E-2	5.537640E-2	3.484673E-2	3.927729E-2	4.375945E-2	3.751604E-2	4.416739E-2	3.821156E-2	4.449573E-2	3.765451E-2	4.689582E-2	3.859055E-2	4.095923E-2	4.868084E-2	3.352603E-2	4.869432E-2	4.364049E-2	4.030115E-2	4.444405E-2	4.538882E-2	3.644730E-2	4.503392E-2	4.034384E-2	4.453955E-2	4.032722E-2	2.938504E-2	4.951998E-2	2.713517E-2	2.811281E-2	5.201572E-2	4.223746E-2	4.487429E-2	4.520333E-2	4.278454E-2	3.834657E-2	3.537222E-2	3.635984E-2	3.421882E-2	5.140439E-2	3.693587E-2	5.231230E-2	4.311786E-2	3.855994E-2	5.237250E-2	4.366240E-2	4.716614E-2	3.998614E-2	2.644788E-2	5.047168E-2	4.614739E-2	3.358924E-2	3.794710E-2	2.801625E-2	2.923135E-2	4.125813E-2	4.556828E-2	4.328311E-2	3.528154E-2	5.254295E-2	4.022418E-2	5.364297E-2	4.020192E-2	4.051608E-2	2.866111E-2	4.931048E-2	3.934805E-2	4.938637E-2	4.158771E-2	4.873585E-2	3.155187E-2	6.849678E-2	4.832032E-2	5.574836E-2	3.270327E-2	5.364334E-2	4.232919E-2	5.120499E-2	3.835415E-2	4.334146E-2	3.604914E-2	4.350934E-2	3.657531E-2	5.593327E-2	3.599392E-2	6.286336E-2	4.484267E-2	4.137986E-2	5.319201E-2	3.147638E-2	3.202920E-2	4.285069E-2	3.064543E-2	4.987852E-2	4.923872E-2	2.033334E-2	3.645079E-2	4.623473E-2	3.935162E-2	4.905722E-2	4.649343E-2	4.981415E-2	4.495116E-2	4.678566E-2	4.014559E-2	3.231822E-2	3.257168E-2	5.029793E-2	4.716900E-2	5.255738E-2	4.413168E-2	4.861173E-2	4.944244E-2	3.907554E-2	5.720300E-2	4.439328E-2	4.804275E-2	4.083024E-2	4.389757E-2	3.954862E-2	4.068550E-2	4.036512E-2	3.358087E-2	4.512269E-2	3.228755E-2
5.336130E+2	6.019061E-2	5.581733E-2	5.158607E-2	7.014705E-2	6.008726E-2	7.591397E-2	6.596712E-2	4.637260E-2	4.870114E-2	6.526493E-2	5.875150E-2	6.726431E-2	4.632099E-2	5.393641E-2	5.649748E-2	5.579975E-2	5.196140E-2	6.129641E-2	5.837400E-2	6.697115E-2	5.495804E-2	4.974078E-2	6.892170E-2	6.592008E-2	6.755550E-2	8.145065E-2	6.872640E-2	5.697165E-2	5.260185E-2	6.574084E-2	6.248950E-2	6.715881E-2	4.835302E-2	6.605965E-2	5.354095E-2	6.637845E-2	6.518046E-2	7.432451E-2	7.219744E-2	5.522311E-2	5.423568E-2	6.227908E-2	4.675442E-2	5.412828E-2	6.527898E-2	6.238400E-2	6.245179E-2	6.452630E-2	4.852343E-2	5.491947E-2	5.698559E-2	5.627726E-2	5.700674E-2	6.058526E-2	6.454168E-2	6.474777E-2	6.741940E-2	7.168032E-2	5.510463E-2	5.030205E-2	5.070888E-2	6.665901E-2	7.232274E-2	5.130767E-2	4.315407E-2	7.158147E-2	5.247671E-2	5.840209E-2	6.781372E-2	5.585562E-2	7.940770E-2	5.797142E-2	6.642534E-2	6.027601E-2	5.501515E-2	5.457002E-2	5.899073E-2	5.916369E-2	6.561159E-2	6.338507E-2	5.612577E-2	5.151064E-2	6.305727E-2	5.444756E-2	5.752229E-2	5.159466E-2	7.204162E-2	5.451961E-2	5.128431E-2	6.371870E-2	5.320562E-2	5.390737E-2	7.009881E-2	5.761572E-2	5.021431E-2	5.994987E-2	4.145541E-2	6.975079E-2	5.787633E-2	5.077765E-2	6.028423E-2	7.184149E-2	5.794027E-2	6.082591E-2	6.030525E-2	6.087961E-2	7.490001E-2	6.249785E-2	5.610438E-2	5.816979E-2	5.583632E-2	4.738545E-2	6.214607E-2	6.895748E-2	6.104771E-2	6.408684E-2	6.198853E-2	5.327807E-2	7.193233E-2	6.270377E-2	5.476340E-2	5.916580E-2	4.505690E-2	6.605575E-2	6.278684E-2	6.137846E-2	5.094653E-2	4.641678E-2	4.893543E-2	6.470986E-2	5.558628E-2	7.797789E-2	4.439883E-2	7.809921E-2	5.996720E-2	5.870051E-2	6.453359E-2	4.159194E-2	7.321584E-2	5.047869E-2	4.758080E-2	5.539717E-2	6.295901E-2	6.121785E-2	6.999667E-2	7.521490E-2	6.197145E-2	6.798903E-2	5.811525E-2	5.829138E-2	5.860268E-2	6.166627E-2	6.761698E-2	6.597550E-2	6.566849E-2	8.026317E-2	6.020075E-2	7.135160E-2	5.620632E-2	5.459062E-2	3.819961E-2	6.715149E-2	5.676686E-2	5.745101E-2	3.960097E-2	6.569324E-2	6.606013E-2	5.978254E-2	7.245179E-2	4.536754E-2	5.113409E-2
5.337740E+2	8.225776E-2	7.402589E-2	6.894231E-2	8.609057E-2	7.704951E-2	8.350340E-2	9.540396E-2	7.014192E-2	7.157476E-2	7.504985E-2	7.600851E-2	1.120339E-1	8.394055E-2	8.460993E-2	8.190927E-2	7.862136E-2	7.147632E-2	9.779526E-2	9.598426E-2	6.665576E-2	7.800720E-2	8.350907E-2	1.170093E-1	9.543941E-2	1.119218E-1	8.305983E-2	7.560938E-2	8.446280E-2	9.669530E-2	9.787684E-2	6.611660E-2	7.673874E-2	6.668741E-2	7.741619E-2	8.404956E-2	6.532915E-2	9.909068E-2	9.355675E-2	1.037708E-1	7.898675E-2	7.432374E-2	9.756666E-2	8.351106E-2	8.917231E-2	7.496652E-2	7.487779E-2	9.974141E-2	8.506934E-2	9.379554E-2	8.376678E-2	9.807024E-2	9.044899E-2	9.917501E-2	7.716893E-2	8.807891E-2	8.648308E-2	9.637437E-2	8.914381E-2	1.178883E-1	8.159770E-2	8.531087E-2	8.598081E-2	7.621635E-2	7.658073E-2	8.664362E-2	8.728268E-2	7.600371E-2	7.985988E-2	6.688189E-2	7.889784E-2	9.178066E-2	7.760070E-2	8.622330E-2	8.983689E-2	7.278076E-2	8.458890E-2	7.412753E-2	1.017502E-1	7.771869E-2	9.422693E-2	6.821583E-2	9.539732E-2	8.908635E-2	6.819480E-2	8.851823E-2	8.778621E-2	7.886281E-2	8.366898E-2	9.478061E-2	9.134261E-2	8.887386E-2	6.140046E-2	8.627762E-2	8.989683E-2	8.044371E-2	8.888001E-2	9.626525E-2	8.693803E-2	6.911767E-2	8.151401E-2	7.005774E-2	9.877473E-2	1.083700E-1	7.366537E-2	8.196028E-2	7.498477E-2	6.798983E-2	7.304586E-2	8.490252E-2	8.868032E-2	7.501706E-2	7.947471E-2	7.846220E-2	7.666566E-2	8.692160E-2	9.133626E-2	6.987331E-2	8.387363E-2	9.183223E-2	8.780511E-2	8.498232E-2	7.948354E-2	6.999349E-2	9.218585E-2	5.351962E-2	8.793081E-2	7.294338E-2	8.356047E-2	9.736633E-2	9.135384E-2	8.233415E-2	7.764139E-2	8.905194E-2	7.641200E-2	6.847032E-2	7.666936E-2	9.537576E-2	9.332259E-2	9.561976E-2	8.148420E-2	8.517954E-2	8.739448E-2	9.761061E-2	7.651997E-2	8.241878E-2	8.853449E-2	9.686577E-2	7.486489E-2	6.999614E-2	9.436374E-2	9.218307E-2	7.785831E-2	8.189515E-2	9.252079E-2	8.115439E-2	7.228364E-2	8.260978E-2	8.270676E-2	9.282925E-2	8.052371E-2	8.714170E-2	6.205241E-2	6.781383E-2	7.348067E-2	8.266635E-2	8.813798E-2	8.290604E-2	1.001919E-1	1.174460E-1	1.125880E-1	9.665222E-2
5.339090E+2	1.119007E-1	1.283942E-1	1.042662E-1	9.034214E-2	9.485048E-2	1.011625E-1	1.100538E-1	1.200665E-1	1.173054E-1	1.073821E-1	9.630068E-2	1.077287E-1	1.012269E-1	1.001740E-1	9.671453E-2	1.216633E-1	1.147998E-1	1.161091E-1	1.122686E-1	1.184210E-1	1.223205E-1	9.652812E-2	1.779017E-1	1.372243E-1	1.500540E-1	1.549116E-1	1.389119E-1	1.107738E-1	1.208700E-1	1.142668E-1	1.128457E-1	1.161448E-1	1.401188E-1	1.325551E-1	1.218157E-1	1.106237E-1	1.275347E-1	1.351057E-1	1.290433E-1	1.430270E-1	1.202768E-1	1.253485E-1	9.604033E-2	1.228478E-1	1.247340E-1	1.248174E-1	1.313232E-1	1.251534E-1	1.096306E-1	1.124515E-1	1.167246E-1	1.280571E-1	1.170815E-1	1.285488E-1	1.254512E-1	1.115532E-1	1.277071E-1	1.231536E-1	1.365788E-1	1.162084E-1	1.187787E-1	1.127669E-1	1.048252E-1	1.263105E-1	1.119785E-1	1.042652E-1	1.266860E-1	1.143952E-1	1.210376E-1	1.217542E-1	1.232098E-1	1.203049E-1	1.119504E-1	1.200387E-1	1.146156E-1	1.106888E-1	1.183088E-1	1.135982E-1	1.235120E-1	1.460840E-1	9.497081E-2	1.258026E-1	1.058144E-1	9.924748E-2	1.415349E-1	1.135935E-1	1.097509E-1	1.142917E-1	1.058067E-1	1.267021E-1	1.272473E-1	1.130004E-1	1.069670E-1	1.247537E-1	1.233846E-1	1.316022E-1	1.113548E-1	1.373816E-1	1.194126E-1	1.147443E-1	1.156876E-1	1.167275E-1	1.268426E-1	1.019060E-1	1.337121E-1	1.218444E-1	1.133461E-1	1.263365E-1	1.302701E-1	1.145037E-1	1.249795E-1	9.895569E-2	1.176005E-1	1.031864E-1	1.191876E-1	1.138724E-1	1.289733E-1	1.335440E-1	1.321121E-1	1.303745E-1	1.300381E-1	1.173356E-1	1.286700E-1	1.205579E-1	1.166725E-1	1.176240E-1	1.228547E-1	1.134993E-1	1.283754E-1	1.261067E-1	1.119533E-1	1.098542E-1	1.294414E-1	1.141604E-1	1.263156E-1	1.225744E-1	1.142814E-1	1.227932E-1	9.799596E-2	1.030803E-1	1.191107E-1	1.305950E-1	1.299982E-1	1.205719E-1	1.210196E-1	1.272642E-1	1.119505E-1	1.293138E-1	1.284716E-1	1.200005E-1	1.082873E-1	9.148629E-2	1.102741E-1	1.192222E-1	1.378625E-1	1.177746E-1	1.134418E-1	1.197682E-1	1.263547E-1	1.125966E-1	1.075806E-1	1.199739E-1	1.205492E-1	1.220014E-1	1.337598E-1	1.315137E-1	1.284560E-1	1.441005E-1	1.202443E-1	1.311877E-1	1.184480E-1
5.340590E+2	1.702649E-1	1.474763E-1	1.548460E-1	1.726027E-1	1.606042E-1	1.641340E-1	1.640434E-1	1.770950E-1	1.673527E-1	1.663645E-1	1.538284E-1	1.741278E-1	1.579129E-1	1.760383E-1	1.817217E-1	1.778779E-1	1.558521E-1	1.925993E-1	1.717888E-1	1.650065E-1	1.666899E-1	1.610904E-1	2.636939E-1	2.075090E-1	1.872993E-1	2.386359E-1	2.086578E-1	1.873798E-1	2.056254E-1	1.925293E-1	1.896098E-1	1.970935E-1	2.122425E-1	2.161839E-1	1.731690E-1	2.140009E-1	1.903395E-1	2.012778E-1	1.831982E-1	1.886592E-1	1.808007E-1	2.023181E-1	1.860014E-1	1.823409E-1	1.915195E-1	2.067494E-1	1.960282E-1	1.932407E-1	1.861183E-1	2.140456E-1	1.955699E-1	1.963928E-1	2.027236E-1	2.078497E-1	1.718452E-1	2.011273E-1	1.941903E-1	2.039179E-1	2.015088E-1	1.938456E-1	1.595992E-1	1.837785E-1	1.794443E-1	1.799107E-1	1.875432E-1	1.748628E-1	2.051929E-1	1.969384E-1	1.827566E-1	1.807038E-1	1.908012E-1	2.140163E-1	1.741360E-1	2.020626E-1	1.902458E-1	1.496401E-1	1.929340E-1	1.705257E-1	1.883324E-1	1.771012E-1	1.614553E-1	1.915000E-1	1.842126E-1	1.814051E-1	1.973701E-1	1.837344E-1	1.913957E-1	1.826836E-1	1.876013E-1	1.979030E-1	1.929541E-1	1.951158E-1	1.874398E-1	1.887291E-1	1.922557E-1	1.945008E-1	1.783974E-1	1.842946E-1	1.780324E-1	1.723035E-1	1.820490E-1	1.926432E-1	1.833524E-1	2.161239E-1	1.640869E-1	2.078359E-1	1.801328E-1	1.781456E-1	1.781575E-1	1.779484E-1	1.732815E-1	1.752536E-1	1.902976E-1	1.754555E-1	1.633742E-1	1.877291E-1	1.875376E-1	1.887150E-1	1.967055E-1	1.873291E-1	1.925523E-1	2.014418E-1	1.944902E-1	1.727697E-1	1.941315E-1	1.952432E-1	1.795464E-1	1.939823E-1	2.050625E-1	1.842681E-1	1.763263E-1	1.821913E-1	1.828182E-1	2.037573E-1	2.220186E-1	1.799914E-1	1.829849E-1	1.872480E-1	1.868925E-1	1.788705E-1	1.705373E-1	2.134988E-1	2.122784E-1	1.812156E-1	1.928647E-1	2.025150E-1	1.804453E-1	1.633664E-1	1.754353E-1	2.095124E-1	1.833588E-1	1.863064E-1	1.956168E-1	1.857778E-1	1.831457E-1	1.902191E-1	1.991240E-1	2.046676E-1	1.911658E-1	1.847637E-1	1.930048E-1	1.869649E-1	1.752725E-1	1.613725E-1	1.771256E-1	1.808454E-1	1.805642E-1	1.838962E-1	1.973591E-1	1.697284E-1	1.708142E-1
5.342090E+2	2.773662E-1	2.813574E-1	3.072726E-1	2.747188E-1	2.811680E-1	3.275601E-1	3.022905E-1	3.024229E-1	3.116529E-1	2.911392E-1	3.121530E-1	2.985444E-1	3.096679E-1	3.081101E-1	2.987246E-1	2.940870E-1	2.925769E-1	2.993163E-1	2.809422E-1	2.912228E-1	2.954866E-1	3.029108E-1	4.282280E-1	3.902878E-1	3.534799E-1	3.458268E-1	3.694903E-1	3.244870E-1	3.593445E-1	3.259308E-1	3.498649E-1	3.313401E-1	3.218575E-1	3.650565E-1	3.334700E-1	3.342105E-1	3.579185E-1	3.377021E-1	3.126233E-1	3.321991E-1	3.345904E-1	3.160389E-1	3.386813E-1	3.173052E-1	3.188723E-1	2.995177E-1	2.996175E-1	3.303959E-1	3.172398E-1	3.296137E-1	2.948173E-1	3.301485E-1	3.257679E-1	3.293403E-1	3.334336E-1	3.550207E-1	3.306365E-1	3.263639E-1	3.042225E-1	2.955108E-1	3.132218E-1	3.320088E-1	3.111061E-1	3.053883E-1	3.258524E-1	3.186400E-1	3.332835E-1	3.381296E-1	3.130116E-1	3.178051E-1	3.241977E-1	3.184400E-1	3.175016E-1	3.107740E-1	3.410165E-1	3.111771E-1	3.106848E-1	3.451663E-1	3.328113E-1	2.997124E-1	3.448217E-1	3.249258E-1	3.222269E-1	3.338292E-1	2.898099E-1	3.113961E-1	3.216272E-1	3.073905E-1	2.951433E-1	3.381083E-1	3.072554E-1	2.927447E-1	3.415750E-1	3.130510E-1	2.992224E-1	3.015939E-1	3.322395E-1	3.373997E-1	3.337503E-1	3.173042E-1	3.178879E-1	3.302192E-1	3.306613E-1	3.223744E-1	3.414809E-1	3.080677E-1	3.168299E-1	3.047357E-1	3.172155E-1	3.371134E-1	3.023696E-1	3.308675E-1	3.297601E-1	3.214531E-1	3.018674E-1	3.139953E-1	3.219799E-1	3.247945E-1	3.304779E-1	3.095610E-1	3.390220E-1	3.275069E-1	3.255040E-1	2.940337E-1	3.537035E-1	2.984189E-1	3.323297E-1	3.058145E-1	3.093661E-1	3.442962E-1	2.996998E-1	3.242269E-1	3.089662E-1	2.998549E-1	3.194798E-1	3.183124E-1	3.338977E-1	3.307888E-1	3.309816E-1	3.051660E-1	3.051079E-1	3.377585E-1	2.955170E-1	3.212310E-1	3.309019E-1	3.420115E-1	3.248762E-1	2.944273E-1	3.214791E-1	3.160434E-1	3.007755E-1	2.988418E-1	3.180190E-1	3.020157E-1	3.199103E-1	3.182037E-1	3.483972E-1	3.089734E-1	3.129729E-1	3.291759E-1	3.418800E-1	3.086385E-1	2.964591E-1	3.289786E-1	3.205803E-1	3.526848E-1	3.098972E-1	3.119916E-1	3.079075E-1	3.231835E-1	3.520955E-1
5.343600E+2	5.295117E-1	5.601644E-1	5.341073E-1	5.516900E-1	5.329023E-1	5.083223E-1	5.053924E-1	5.027379E-1	5.555146E-1	5.382664E-1	5.474486E-1	5.599142E-1	5.347585E-1	5.083299E-1	5.416402E-1	5.365445E-1	5.214879E-1	4.973564E-1	5.553416E-1	5.314182E-1	5.550861E-1	5.450212E-1	6.975251E-1	6.640912E-1	6.174733E-1	6.394717E-1	5.921168E-1	6.373954E-1	5.805740E-1	5.795701E-1	5.511980E-1	5.873067E-1	6.021526E-1	5.740839E-1	6.046685E-1	5.775775E-1	5.663334E-1	5.829455E-1	5.703868E-1	6.022843E-1	5.471138E-1	5.494633E-1	5.249648E-1	5.967241E-1	5.783039E-1	5.789629E-1	5.839767E-1	5.526903E-1	5.688336E-1	5.401207E-1	5.884726E-1	5.874095E-1	5.544809E-1	5.488183E-1	5.472742E-1	5.716493E-1	5.810959E-1	5.583186E-1	5.507788E-1	5.445333E-1	5.756765E-1	5.253569E-1	5.535046E-1	5.484808E-1	5.531939E-1	5.769710E-1	5.973961E-1	5.782241E-1	5.434009E-1	5.856411E-1	5.556439E-1	5.785630E-1	5.556266E-1	5.710620E-1	5.581690E-1	5.885338E-1	5.340386E-1	5.502855E-1	5.450440E-1	5.536369E-1	5.856075E-1	5.717959E-1	5.702371E-1	5.509462E-1	5.642073E-1	5.776414E-1	5.575829E-1	5.205946E-1	5.600021E-1	5.584168E-1	5.131851E-1	5.680675E-1	5.857737E-1	5.419765E-1	5.309002E-1	6.040417E-1	5.466142E-1	5.336476E-1	5.665110E-1	5.675988E-1	5.324637E-1	5.220323E-1	5.583499E-1	5.651667E-1	5.906701E-1	5.554471E-1	5.821032E-1	5.566194E-1	5.780539E-1	5.737362E-1	5.746127E-1	5.719652E-1	5.559137E-1	5.247747E-1	5.460081E-1	5.466433E-1	5.480902E-1	5.796730E-1	5.378667E-1	5.701741E-1	5.820646E-1	5.557870E-1	5.693883E-1	5.481326E-1	5.558866E-1	5.638564E-1	5.465794E-1	5.642152E-1	5.728308E-1	5.587467E-1	5.843353E-1	5.548695E-1	5.680749E-1	5.379783E-1	5.957212E-1	5.450575E-1	5.463882E-1	5.794538E-1	5.489413E-1	5.484013E-1	5.629378E-1	5.734667E-1	5.770122E-1	5.980125E-1	5.554139E-1	5.814737E-1	5.812900E-1	5.532186E-1	5.623934E-1	5.860489E-1	5.635245E-1	5.421911E-1	5.748204E-1	5.530499E-1	5.439515E-1	5.432206E-1	5.700392E-1	5.644458E-1	5.731918E-1	5.642921E-1	5.472206E-1	5.729067E-1	5.558767E-1	5.471261E-1	5.712462E-1	5.167028E-1	5.320865E-1	5.769387E-1	5.955989E-1	5.831089E-1	5.986919E-1
5.345110E+2	9.493623E-1	8.249763E-1	8.579697E-1	8.961059E-1	8.926486E-1	9.092761E-1	8.804422E-1	8.783720E-1	8.908913E-1	9.188641E-1	8.543007E-1	8.964522E-1	8.972988E-1	9.403978E-1	8.795270E-1	9.036971E-1	8.548247E-1	9.218487E-1	9.051907E-1	9.039640E-1	8.890074E-1	9.065560E-1	1.058502E+0	9.880023E-1	9.987994E-1	1.004130E+0	9.527174E-1	1.030223E+0	9.560954E-1	9.650988E-1	9.690365E-1	9.163821E-1	9.483364E-1	9.851791E-1	9.566811E-1	9.544688E-1	9.752532E-1	9.179930E-1	9.571191E-1	9.724556E-1	9.248272E-1	9.256765E-1	9.189032E-1	1.000588E+0	9.616326E-1	9.349421E-1	9.791549E-1	8.826726E-1	9.524761E-1	9.487082E-1	9.410665E-1	9.190791E-1	9.386195E-1	9.111829E-1	9.729983E-1	9.266912E-1	9.301291E-1	9.497914E-1	9.315935E-1	9.437429E-1	9.043294E-1	8.675210E-1	9.380115E-1	8.845085E-1	9.081513E-1	9.565427E-1	9.562962E-1	9.224977E-1	8.882046E-1	9.115035E-1	9.347493E-1	9.366713E-1	9.491943E-1	9.421972E-1	8.817016E-1	9.446374E-1	9.083396E-1	9.276144E-1	8.818666E-1	9.114565E-1	9.071009E-1	9.411493E-1	9.256344E-1	9.387129E-1	9.070491E-1	9.384461E-1	9.305213E-1	9.196727E-1	9.146249E-1	9.564963E-1	9.254397E-1	8.918020E-1	8.852695E-1	9.186752E-1	9.462702E-1	9.372252E-1	8.980956E-1	9.325359E-1	9.221799E-1	9.425429E-1	9.056055E-1	9.360953E-1	9.134558E-1	9.269324E-1	8.802624E-1	8.963058E-1	8.784602E-1	9.622663E-1	8.975164E-1	9.230044E-1	8.907988E-1	9.160662E-1	9.305470E-1	9.514064E-1	9.076716E-1	8.736800E-1	8.970203E-1	9.348460E-1	8.871104E-1	9.508727E-1	8.683024E-1	9.464269E-1	9.062399E-1	8.856832E-1	9.198001E-1	8.773767E-1	9.524488E-1	9.123193E-1	9.133030E-1	8.897316E-1	9.194392E-1	9.134432E-1	9.165884E-1	9.620920E-1	8.729337E-1	8.932304E-1	9.081912E-1	9.309064E-1	9.394270E-1	9.194942E-1	8.484288E-1	9.133686E-1	9.172748E-1	9.328641E-1	9.484351E-1	9.116114E-1	9.435593E-1	9.227315E-1	9.317804E-1	8.791333E-1	8.754309E-1	8.828820E-1	9.235307E-1	8.967721E-1	8.988735E-1	8.778492E-1	9.216352E-1	8.869052E-1	9.135980E-1	9.009716E-1	9.650073E-1	9.086944E-1	9.412945E-1	8.996373E-1	8.943130E-1	9.026445E-1	8.722118E-1	9.896307E-1	9.164838E-1	9.354660E-1	9.294100E-1
5.346560E+2	1.213003E+0	1.259331E+0	1.259006E+0	1.345654E+0	1.246471E+0	1.222934E+0	1.309470E+0	1.228402E+0	1.223786E+0	1.304468E+0	1.262223E+0	1.244144E+0	1.270211E+0	1.257722E+0	1.274752E+0	1.281690E+0	1.222445E+0	1.312581E+0	1.278922E+0	1.261950E+0	1.230832E+0	1.332616E+0	1.387385E+0	1.349009E+0	1.322617E+0	1.336441E+0	1.374322E+0	1.332113E+0	1.301948E+0	1.309487E+0	1.317994E+0	1.368323E+0	1.280885E+0	1.376984E+0	1.329140E+0	1.352774E+0	1.338224E+0	1.281783E+0	1.283555E+0	1.366022E+0	1.264107E+0	1.325393E+0	1.336343E+0	1.301401E+0	1.272652E+0	1.327042E+0	1.320832E+0	1.236423E+0	1.305984E+0	1.319050E+0	1.321748E+0	1.291052E+0	1.295192E+0	1.302561E+0	1.288243E+0	1.303660E+0	1.314110E+0	1.315732E+0	1.253870E+0	1.316296E+0	1.300051E+0	1.325724E+0	1.301714E+0	1.295954E+0	1.225653E+0	1.310410E+0	1.306671E+0	1.240536E+0	1.257669E+0	1.397558E+0	1.327035E+0	1.235896E+0	1.319617E+0	1.313061E+0	1.325222E+0	1.337197E+0	1.310538E+0	1.334428E+0	1.267926E+0	1.273489E+0	1.319171E+0	1.331195E+0	1.303482E+0	1.308295E+0	1.294092E+0	1.269642E+0	1.318273E+0	1.295228E+0	1.260587E+0	1.300856E+0	1.281920E+0	1.242238E+0	1.264979E+0	1.314118E+0	1.187706E+0	1.256501E+0	1.307674E+0	1.266751E+0	1.275940E+0	1.283833E+0	1.270849E+0	1.300609E+0	1.247985E+0	1.206966E+0	1.313628E+0	1.311615E+0	1.244929E+0	1.323773E+0	1.237981E+0	1.260231E+0	1.298406E+0	1.269233E+0	1.286353E+0	1.257030E+0	1.228493E+0	1.289301E+0	1.231782E+0	1.277699E+0	1.249492E+0	1.316087E+0	1.264048E+0	1.292747E+0	1.285393E+0	1.246235E+0	1.262425E+0	1.308121E+0	1.270126E+0	1.232493E+0	1.262013E+0	1.264112E+0	1.274996E+0	1.276699E+0	1.254070E+0	1.207057E+0	1.294930E+0	1.266328E+0	1.278361E+0	1.319377E+0	1.286013E+0	1.285572E+0	1.280926E+0	1.278099E+0	1.296028E+0	1.258614E+0	1.322336E+0	1.254718E+0	1.324669E+0	1.277170E+0	1.221560E+0	1.325444E+0	1.269013E+0	1.287808E+0	1.248889E+0	1.247081E+0	1.292661E+0	1.208522E+0	1.294569E+0	1.285863E+0	1.261140E+0	1.280486E+0	1.290306E+0	1.312691E+0	1.283847E+0	1.253139E+0	1.224965E+0	1.260954E+0	1.249558E+0	1.248326E+0	1.232373E+0	1.239465E+0	1.162651E+0
5.348070E+2	1.675262E+0	1.614886E+0	1.620723E+0	1.773915E+0	1.546934E+0	1.599007E+0	1.644193E+0	1.559952E+0	1.624168E+0	1.680185E+0	1.653801E+0	1.597978E+0	1.656193E+0	1.616978E+0	1.610525E+0	1.636641E+0	1.582032E+0	1.619848E+0	1.649590E+0	1.617847E+0	1.648067E+0	1.666033E+0	1.721188E+0	1.738405E+0	1.731994E+0	1.638775E+0	1.655086E+0	1.672831E+0	1.605934E+0	1.651833E+0	1.669516E+0	1.663062E+0	1.656036E+0	1.680260E+0	1.659114E+0	1.681015E+0	1.689056E+0	1.653910E+0	1.595738E+0	1.654599E+0	1.641907E+0	1.700620E+0	1.634061E+0	1.716331E+0	1.639162E+0	1.654239E+0	1.677684E+0	1.620459E+0	1.564569E+0	1.617677E+0	1.723690E+0	1.634742E+0	1.596110E+0	1.640852E+0	1.649875E+0	1.609838E+0	1.670947E+0	1.656614E+0	1.541996E+0	1.579257E+0	1.705315E+0	1.617374E+0	1.621476E+0	1.573041E+0	1.629527E+0	1.688832E+0	1.676040E+0	1.620751E+0	1.625214E+0	1.669602E+0	1.630820E+0	1.688457E+0	1.658069E+0	1.672854E+0	1.592587E+0	1.586338E+0	1.663436E+0	1.643265E+0	1.606885E+0	1.599372E+0	1.677686E+0	1.682570E+0	1.672519E+0	1.627345E+0	1.643603E+0	1.677679E+0	1.713096E+0	1.629695E+0	1.643180E+0	1.620739E+0	1.609956E+0	1.676312E+0	1.596137E+0	1.592375E+0	1.600164E+0	1.595596E+0	1.647710E+0	1.560075E+0	1.709759E+0	1.660071E+0	1.581314E+0	1.668432E+0	1.647539E+0	1.666425E+0	1.606475E+0	1.614531E+0	1.602942E+0	1.661769E+0	1.564663E+0	1.589089E+0	1.622922E+0	1.625958E+0	1.665241E+0	1.693678E+0	1.572129E+0	1.607159E+0	1.619007E+0	1.614413E+0	1.630690E+0	1.655395E+0	1.638108E+0	1.625110E+0	1.644412E+0	1.580073E+0	1.572813E+0	1.634330E+0	1.627302E+0	1.584611E+0	1.616198E+0	1.640290E+0	1.659687E+0	1.577674E+0	1.549811E+0	1.601040E+0	1.576786E+0	1.573856E+0	1.581801E+0	1.602928E+0	1.625201E+0	1.522427E+0	1.527844E+0	1.693252E+0	1.598739E+0	1.597329E+0	1.639866E+0	1.643510E+0	1.651388E+0	1.623439E+0	1.559543E+0	1.605872E+0	1.595981E+0	1.602930E+0	1.701521E+0	1.628157E+0	1.613830E+0	1.631925E+0	1.601254E+0	1.663247E+0	1.588502E+0	1.613510E+0	1.643439E+0	1.642196E+0	1.568743E+0	1.614586E+0	1.616308E+0	1.589932E+0	1.587987E+0	1.602154E+0	1.498408E+0	1.682503E+0	1.628725E+0
5.349630E+2	1.932557E+0	1.894728E+0	1.893433E+0	1.952112E+0	1.853003E+0	1.920272E+0	1.980180E+0	1.910277E+0	1.954142E+0	1.982148E+0	2.014357E+0	1.934824E+0	1.958697E+0	1.970296E+0	1.912702E+0	1.977736E+0	1.848871E+0	1.966843E+0	1.923610E+0	1.930098E+0	1.878490E+0	1.970060E+0	1.863020E+0	1.966411E+0	1.904428E+0	1.900466E+0	1.859718E+0	1.900458E+0	1.845921E+0	1.874933E+0	1.891865E+0	1.830566E+0	1.969762E+0	1.966230E+0	1.893344E+0	1.840309E+0	1.898849E+0	1.951537E+0	1.859160E+0	1.948152E+0	1.933378E+0	1.880142E+0	1.868322E+0	1.970364E+0	1.886087E+0	1.969407E+0	1.957688E+0	1.851750E+0	1.909683E+0	1.988777E+0	1.915208E+0	1.945600E+0	1.956214E+0	1.886666E+0	1.884378E+0	1.871243E+0	1.885283E+0	1.933413E+0	1.904860E+0	1.883594E+0	1.898906E+0	1.958086E+0	1.913590E+0	1.839351E+0	1.900950E+0	1.880816E+0	1.914215E+0	1.864134E+0	1.867290E+0	1.906028E+0	1.892527E+0	1.942592E+0	1.852652E+0	1.885321E+0	1.925099E+0	1.902088E+0	1.828295E+0	1.879646E+0	1.849167E+0	1.910852E+0	1.956791E+0	1.869987E+0	1.925007E+0	1.927830E+0	1.869500E+0	1.875153E+0	1.860420E+0	1.884879E+0	1.881653E+0	1.968111E+0	1.819286E+0	1.923962E+0	1.809407E+0	1.861421E+0	1.839989E+0	1.919850E+0	1.927348E+0	1.853252E+0	1.948212E+0	1.870361E+0	1.884518E+0	1.926759E+0	1.921671E+0	1.821545E+0	1.912042E+0	1.844800E+0	1.842060E+0	1.885031E+0	1.841355E+0	1.896362E+0	1.847285E+0	1.821938E+0	1.869580E+0	1.907090E+0	1.821630E+0	1.888731E+0	1.840532E+0	1.835958E+0	1.845350E+0	1.930841E+0	1.942270E+0	1.841940E+0	1.937085E+0	1.944833E+0	1.850488E+0	1.841630E+0	1.854927E+0	1.865474E+0	1.858487E+0	1.919850E+0	1.968217E+0	1.852071E+0	1.902760E+0	1.864801E+0	1.876761E+0	1.831839E+0	1.906392E+0	1.940305E+0	1.888321E+0	1.860436E+0	1.900365E+0	1.925640E+0	1.865075E+0	1.873173E+0	1.832903E+0	1.897441E+0	1.899899E+0	1.842548E+0	1.770905E+0	1.870755E+0	1.888159E+0	1.822006E+0	1.922844E+0	1.836602E+0	1.917972E+0	1.834972E+0	1.926222E+0	1.891492E+0	1.940650E+0	1.862889E+0	1.791570E+0	1.845837E+0	1.882088E+0	1.832089E+0	1.838116E+0	1.927096E+0	1.819541E+0	1.881490E+0	1.839127E+0	1.892196E+0	1.765193E+0
5.351090E+2	2.077645E+0	2.116734E+0	2.027243E+0	2.100054E+0	2.040645E+0	2.111556E+0	2.070908E+0	2.045862E+0	2.088845E+0	2.057518E+0	2.124358E+0	2.097665E+0	2.088768E+0	2.134042E+0	2.020408E+0	2.071189E+0	1.993827E+0	2.056522E+0	2.139145E+0	2.076278E+0	2.138319E+0	2.100797E+0	1.984660E+0	1.995350E+0	2.048434E+0	1.991716E+0	1.946404E+0	2.033560E+0	2.073488E+0	2.080064E+0	2.015284E+0	2.011719E+0	2.033889E+0	2.128045E+0	2.078413E+0	2.035693E+0	2.017380E+0	2.005071E+0	2.018969E+0	2.064400E+0	2.042935E+0	1.986703E+0	1.995686E+0	2.072383E+0	2.011821E+0	2.074599E+0	2.025739E+0	2.036653E+0	2.016816E+0	2.019018E+0	2.020421E+0	1.973675E+0	1.982486E+0	2.023592E+0	2.135901E+0	2.084651E+0	2.009750E+0	2.080221E+0	2.021389E+0	2.037259E+0	2.068699E+0	2.039549E+0	2.055371E+0	1.945063E+0	2.009359E+0	2.117070E+0	2.103591E+0	1.975247E+0	1.997624E+0	2.034366E+0	1.998417E+0	2.052256E+0	2.034455E+0	2.053750E+0	1.970453E+0	2.037462E+0	2.027211E+0	2.091781E+0	1.994300E+0	2.013735E+0	2.029144E+0	1.965312E+0	2.055439E+0	2.018548E+0	2.019721E+0	1.995881E+0	1.982746E+0	1.990698E+0	2.022428E+0	2.086696E+0	1.983257E+0	2.054691E+0	2.017450E+0	2.040877E+0	2.043173E+0	2.064572E+0	2.031066E+0	1.988637E+0	2.117170E+0	2.060038E+0	2.002928E+0	2.029481E+0	2.040186E+0	2.023123E+0	2.044232E+0	2.050615E+0	1.947109E+0	2.106727E+0	1.951529E+0	1.953116E+0	2.022565E+0	2.000208E+0	2.000275E+0	2.053304E+0	1.959408E+0	1.881226E+0	2.029920E+0	2.051442E+0	2.011707E+0	2.090522E+0	2.026366E+0	1.974491E+0	1.942250E+0	1.991843E+0	2.032882E+0	2.018677E+0	2.012290E+0	2.068261E+0	2.036140E+0	1.961288E+0	1.954565E+0	1.942789E+0	1.991504E+0	2.002340E+0	1.956532E+0	2.062281E+0	1.974183E+0	1.973422E+0	2.094213E+0	1.980624E+0	1.992003E+0	1.963339E+0	1.993918E+0	1.981978E+0	2.014588E+0	2.079967E+0	1.926449E+0	1.991951E+0	1.990103E+0	2.056967E+0	1.994181E+0	1.967896E+0	2.066881E+0	1.915793E+0	2.067228E+0	2.037584E+0	1.942784E+0	2.032588E+0	2.022502E+0	1.976963E+0	2.020754E+0	2.000857E+0	2.043216E+0	1.955570E+0	1.936829E+0	2.042376E+0	1.979612E+0	1.928806E+0	1.976517E+0	2.064650E+0	1.834973E+0
5.352600E+2	2.003582E+0	1.999074E+0	2.022080E+0	1.987489E+0	1.928928E+0	2.019387E+0	2.039726E+0	1.986272E+0	2.008717E+0	2.068941E+0	1.948449E+0	2.136842E+0	1.994825E+0	1.999424E+0	1.998071E+0	1.968414E+0	1.953179E+0	2.064743E+0	1.932018E+0	1.989081E+0	1.954718E+0	1.994075E+0	1.803585E+0	1.915964E+0	1.973805E+0	1.949565E+0	1.919656E+0	1.939277E+0	1.851845E+0	1.991034E+0	1.972554E+0	1.955279E+0	1.945081E+0	1.985114E+0	1.970931E+0	1.957683E+0	1.980157E+0	1.931857E+0	1.930534E+0	1.935611E+0	1.904933E+0	1.952961E+0	1.981919E+0	2.033554E+0	1.927279E+0	2.058497E+0	1.990111E+0	1.920489E+0	1.973036E+0	1.961075E+0	1.935721E+0	1.945649E+0	1.938085E+0	1.989382E+0	1.997260E+0	1.975736E+0	1.969731E+0	1.997674E+0	1.902230E+0	1.927540E+0	1.951788E+0	2.011050E+0	2.006482E+0	1.910663E+0	1.942741E+0	1.942818E+0	1.981089E+0	1.876806E+0	1.888549E+0	1.944862E+0	2.005078E+0	1.904996E+0	1.968667E+0	1.954839E+0	1.909112E+0	1.950455E+0	1.972716E+0	1.994505E+0	1.941934E+0	1.897810E+0	1.967255E+0	1.968137E+0	1.990006E+0	1.898035E+0	1.834843E+0	2.001455E+0	1.883128E+0	1.902459E+0	1.895702E+0	2.041882E+0	1.928764E+0	1.929404E+0	1.880902E+0	1.938993E+0	1.941866E+0	1.869063E+0	2.004854E+0	1.914028E+0	1.988478E+0	1.986880E+0	1.822631E+0	1.893982E+0	1.967301E+0	1.940257E+0	1.924195E+0	2.015871E+0	1.904300E+0	1.927304E+0	1.922951E+0	1.896051E+0	1.980907E+0	1.929543E+0	1.910929E+0	1.979960E+0	1.867997E+0	1.927167E+0	1.849729E+0	1.976955E+0	1.950540E+0	1.923659E+0	1.927150E+0	1.929712E+0	1.996675E+0	1.916015E+0	1.939823E+0	1.904398E+0	1.925215E+0	1.886764E+0	1.911238E+0	1.881875E+0	1.996867E+0	1.877985E+0	1.903661E+0	1.933814E+0	1.912604E+0	1.984813E+0	2.005246E+0	1.930388E+0	1.964105E+0	1.926254E+0	1.971470E+0	1.943866E+0	1.908349E+0	1.920689E+0	1.904875E+0	2.020169E+0	1.937237E+0	1.892409E+0	1.868746E+0	1.933137E+0	1.946908E+0	1.952156E+0	1.987300E+0	1.836487E+0	1.877847E+0	1.941417E+0	1.917545E+0	1.886895E+0	1.856386E+0	1.923285E+0	1.913152E+0	1.895106E+0	1.929118E+0	1.893414E+0	1.804233E+0	1.935857E+0	1.852421E+0	1.864005E+0	1.945298E+0	1.951103E+0	1.786129E+0
5.354060E+2	1.687995E+0	1.800994E+0	1.726909E+0	1.813188E+0	1.620056E+0	1.836317E+0	1.805594E+0	1.782634E+0	1.730961E+0	1.799900E+0	1.738331E+0	1.812974E+0	1.737153E+0	1.790268E+0	1.734447E+0	1.760995E+0	1.770371E+0	1.743779E+0	1.781436E+0	1.763524E+0	1.718100E+0	1.785095E+0	1.608256E+0	1.658469E+0	1.657104E+0	1.702860E+0	1.673413E+0	1.744357E+0	1.669812E+0	1.756985E+0	1.726246E+0	1.764124E+0	1.731938E+0	1.810853E+0	1.771727E+0	1.741917E+0	1.779431E+0	1.667563E+0	1.687738E+0	1.773491E+0	1.733955E+0	1.718813E+0	1.662336E+0	1.823628E+0	1.645490E+0	1.814556E+0	1.732613E+0	1.763508E+0	1.686835E+0	1.753670E+0	1.752928E+0	1.705000E+0	1.714565E+0	1.747356E+0	1.701107E+0	1.716508E+0	1.746596E+0	1.744777E+0	1.703157E+0	1.711966E+0	1.687376E+0	1.725234E+0	1.748288E+0	1.627382E+0	1.758194E+0	1.730884E+0	1.740744E+0	1.688187E+0	1.712943E+0	1.741147E+0	1.740313E+0	1.705796E+0	1.773577E+0	1.790509E+0	1.766772E+0	1.736772E+0	1.727616E+0	1.747587E+0	1.677982E+0	1.671976E+0	1.815620E+0	1.813983E+0	1.748550E+0	1.690052E+0	1.696584E+0	1.810475E+0	1.749747E+0	1.780506E+0	1.652317E+0	1.686749E+0	1.679940E+0	1.753295E+0	1.653494E+0	1.750910E+0	1.617094E+0	1.737320E+0	1.717210E+0	1.731217E+0	1.713366E+0	1.735784E+0	1.706531E+0	1.756875E+0	1.723115E+0	1.736834E+0	1.700497E+0	1.701167E+0	1.672764E+0	1.758876E+0	1.700110E+0	1.735304E+0	1.713027E+0	1.731608E+0	1.668738E+0	1.737359E+0	1.696389E+0	1.741736E+0	1.670672E+0	1.754140E+0	1.649999E+0	1.711295E+0	1.663951E+0	1.735884E+0	1.713318E+0	1.698378E+0	1.695736E+0	1.651160E+0	1.684327E+0	1.665527E+0	1.755663E+0	1.663080E+0	1.749651E+0	1.701261E+0	1.706329E+0	1.746226E+0	1.699987E+0	1.695090E+0	1.724737E+0	1.769347E+0	1.734546E+0	1.710742E+0	1.643618E+0	1.761058E+0	1.661280E+0	1.651101E+0	1.697963E+0	1.764559E+0	1.767563E+0	1.740258E+0	1.632988E+0	1.734075E+0	1.649139E+0	1.661318E+0	1.693018E+0	1.698193E+0	1.709085E+0	1.725912E+0	1.668928E+0	1.682889E+0	1.686988E+0	1.751928E+0	1.663697E+0	1.787570E+0	1.740687E+0	1.647416E+0	1.664209E+0	1.773074E+0	1.644165E+0	1.695747E+0	1.655155E+0	1.800289E+0	1.612643E+0
5.355630E+2	1.484894E+0	1.590197E+0	1.528340E+0	1.617489E+0	1.469277E+0	1.532131E+0	1.588065E+0	1.493655E+0	1.512074E+0	1.599872E+0	1.541514E+0	1.570044E+0	1.540928E+0	1.573735E+0	1.530781E+0	1.526039E+0	1.516863E+0	1.538805E+0	1.533872E+0	1.472774E+0	1.498646E+0	1.549274E+0	1.486756E+0	1.510044E+0	1.500456E+0	1.529069E+0	1.496090E+0	1.553700E+0	1.451316E+0	1.527019E+0	1.501099E+0	1.461132E+0	1.503087E+0	1.615365E+0	1.554198E+0	1.504402E+0	1.460831E+0	1.502713E+0	1.462148E+0	1.450095E+0	1.545668E+0	1.473736E+0	1.464132E+0	1.592015E+0	1.493518E+0	1.525945E+0	1.507249E+0	1.479374E+0	1.467091E+0	1.525976E+0	1.497674E+0	1.492531E+0	1.494845E+0	1.478730E+0	1.506020E+0	1.545812E+0	1.499696E+0	1.539463E+0	1.522403E+0	1.447087E+0	1.521429E+0	1.492085E+0	1.491307E+0	1.417581E+0	1.566218E+0	1.513137E+0	1.511013E+0	1.463914E+0	1.496334E+0	1.531579E+0	1.486905E+0	1.490314E+0	1.504939E+0	1.512462E+0	1.517073E+0	1.454997E+0	1.533882E+0	1.498352E+0	1.494889E+0	1.447302E+0	1.486776E+0	1.490914E+0	1.511259E+0	1.460628E+0	1.453721E+0	1.526629E+0	1.547515E+0	1.522750E+0	1.463428E+0	1.520805E+0	1.441755E+0	1.507125E+0	1.450981E+0	1.441090E+0	1.483448E+0	1.462247E+0	1.509152E+0	1.488511E+0	1.588879E+0	1.535109E+0	1.427010E+0	1.515243E+0	1.505899E+0	1.464741E+0	1.500453E+0	1.520628E+0	1.492268E+0	1.507781E+0	1.448903E+0	1.456528E+0	1.495157E+0	1.431742E+0	1.536031E+0	1.476306E+0	1.505959E+0	1.487821E+0	1.482114E+0	1.452998E+0	1.509748E+0	1.490683E+0	1.514505E+0	1.509301E+0	1.521186E+0	1.465180E+0	1.520278E+0	1.500791E+0	1.522782E+0	1.561266E+0	1.536617E+0	1.487236E+0	1.535933E+0	1.490197E+0	1.434412E+0	1.558750E+0	1.572684E+0	1.500045E+0	1.509817E+0	1.512295E+0	1.494521E+0	1.557803E+0	1.444342E+0	1.593225E+0	1.487873E+0	1.493795E+0	1.439465E+0	1.495528E+0	1.550575E+0	1.490656E+0	1.499661E+0	1.489889E+0	1.490771E+0	1.454470E+0	1.536435E+0	1.479596E+0	1.531157E+0	1.475071E+0	1.498719E+0	1.465229E+0	1.507537E+0	1.467695E+0	1.473286E+0	1.496106E+0	1.492247E+0	1.478409E+0	1.394394E+0	1.545624E+0	1.432318E+0	1.507868E+0	1.499507E+0	1.586180E+0	1.525872E+0
5.357140E+2	1.309879E+0	1.341437E+0	1.348631E+0	1.276398E+0	1.209310E+0	1.290862E+0	1.338149E+0	1.278246E+0	1.299809E+0	1.311032E+0	1.259712E+0	1.386722E+0	1.281276E+0	1.279739E+0	1.248744E+0	1.232379E+0	1.264621E+0	1.315546E+0	1.244627E+0	1.254567E+0	1.267451E+0	1.298280E+0	1.280064E+0	1.275795E+0	1.203307E+0	1.267861E+0	1.237564E+0	1.308464E+0	1.233788E+0	1.292465E+0	1.285590E+0	1.213464E+0	1.267742E+0	1.298482E+0	1.284863E+0	1.258428E+0	1.276069E+0	1.261307E+0	1.300217E+0	1.254377E+0	1.217950E+0	1.280199E+0	1.266970E+0	1.312531E+0	1.169018E+0	1.274573E+0	1.230915E+0	1.312486E+0	1.222066E+0	1.285379E+0	1.303734E+0	1.270260E+0	1.235290E+0	1.236867E+0	1.316205E+0	1.327116E+0	1.284572E+0	1.293798E+0	1.233010E+0	1.278877E+0	1.298343E+0	1.254692E+0	1.324604E+0	1.185724E+0	1.303331E+0	1.241979E+0	1.252553E+0	1.198835E+0	1.210010E+0	1.291739E+0	1.258548E+0	1.273087E+0	1.306753E+0	1.327457E+0	1.269673E+0	1.250201E+0	1.294325E+0	1.298430E+0	1.234521E+0	1.257232E+0	1.237021E+0	1.234567E+0	1.299347E+0	1.260765E+0	1.249606E+0	1.284816E+0	1.312703E+0	1.274274E+0	1.240957E+0	1.289793E+0	1.239926E+0	1.296227E+0	1.310508E+0	1.252917E+0	1.291951E+0	1.242376E+0	1.239143E+0	1.273788E+0	1.236826E+0	1.261453E+0	1.276820E+0	1.314927E+0	1.248156E+0	1.249106E+0	1.242520E+0	1.305542E+0	1.289641E+0	1.310386E+0	1.232855E+0	1.288497E+0	1.253569E+0	1.210934E+0	1.254663E+0	1.293011E+0	1.224453E+0	1.240537E+0	1.221859E+0	1.300901E+0	1.234282E+0	1.279921E+0	1.269734E+0	1.275316E+0	1.254760E+0	1.277322E+0	1.251794E+0	1.265856E+0	1.309256E+0	1.244471E+0	1.310798E+0	1.236407E+0	1.311449E+0	1.234934E+0	1.242505E+0	1.280188E+0	1.289837E+0	1.246317E+0	1.297227E+0	1.293718E+0	1.297697E+0	1.290316E+0	1.205627E+0	1.281106E+0	1.263977E+0	1.254596E+0	1.259430E+0	1.297748E+0	1.321048E+0	1.200335E+0	1.225378E+0	1.273065E+0	1.269909E+0	1.258503E+0	1.348651E+0	1.296991E+0	1.284932E+0	1.285906E+0	1.253871E+0	1.320868E+0	1.281916E+0	1.244753E+0	1.227006E+0	1.325818E+0	1.251409E+0	1.239312E+0	1.287482E+0	1.240660E+0	1.223621E+0	1.265343E+0	1.204350E+0	1.234379E+0	1.269359E+0
5.358600E+2	1.075888E+0	1.117953E+0	1.037982E+0	1.089382E+0	1.041370E+0	1.090909E+0	1.084200E+0	1.075317E+0	1.088900E+0	1.119460E+0	1.060688E+0	1.153263E+0	1.056259E+0	1.099106E+0	1.067842E+0	1.117559E+0	1.104507E+0	1.062671E+0	1.083116E+0	1.057016E+0	1.082702E+0	1.072016E+0	1.053104E+0	1.019307E+0	1.052206E+0	1.072536E+0	1.120314E+0	1.120326E+0	1.004700E+0	1.083357E+0	1.043019E+0	1.053857E+0	1.079884E+0	1.126031E+0	1.031026E+0	1.069014E+0	1.078714E+0	1.089391E+0	1.031303E+0	1.121592E+0	1.085681E+0	1.032786E+0	1.071016E+0	1.051035E+0	1.029284E+0	1.132907E+0	1.044045E+0	1.088738E+0	1.070907E+0	1.066434E+0	1.097327E+0	1.058697E+0	1.050610E+0	1.036714E+0	1.089114E+0	1.023666E+0	1.076568E+0	1.071471E+0	1.049271E+0	1.050680E+0	1.090306E+0	1.076090E+0	1.057203E+0	1.039452E+0	1.077753E+0	1.075301E+0	1.090701E+0	1.023052E+0	1.080924E+0	1.063750E+0	1.109875E+0	1.083108E+0	1.041386E+0	1.082637E+0	1.089423E+0	1.060727E+0	1.088376E+0	1.109751E+0	1.023992E+0	1.084448E+0	1.064491E+0	1.071675E+0	1.084728E+0	1.088114E+0	1.023967E+0	1.101260E+0	1.092161E+0	1.030355E+0	1.059203E+0	1.134155E+0	1.034654E+0	1.085434E+0	1.062899E+0	1.052759E+0	1.085295E+0	1.050016E+0	1.060337E+0	1.110817E+0	1.089366E+0	1.101585E+0	1.066726E+0	1.139163E+0	1.119214E+0	1.039623E+0	1.061058E+0	1.044258E+0	1.083890E+0	1.078963E+0	1.042520E+0	1.093917E+0	1.090883E+0	1.030363E+0	1.085838E+0	1.137500E+0	1.063382E+0	1.034136E+0	1.098174E+0	1.079221E+0	1.112212E+0	1.110130E+0	1.057399E+0	1.101700E+0	1.107931E+0	1.048227E+0	1.075873E+0	1.099747E+0	1.071262E+0	1.052633E+0	1.080266E+0	1.055377E+0	1.080507E+0	1.030197E+0	1.072962E+0	1.100893E+0	1.060888E+0	1.108816E+0	1.050624E+0	1.049215E+0	1.051156E+0	1.065399E+0	9.920357E-1	1.094034E+0	1.057731E+0	1.124959E+0	1.085472E+0	1.115667E+0	1.037339E+0	1.097639E+0	1.017531E+0	1.094906E+0	1.080656E+0	1.104024E+0	1.097678E+0	1.057209E+0	1.098599E+0	1.106492E+0	1.087650E+0	1.065070E+0	1.154780E+0	1.125944E+0	1.041694E+0	1.049252E+0	1.077582E+0	1.061086E+0	1.055793E+0	1.075277E+0	1.021468E+0	1.062949E+0	1.101548E+0	1.143676E+0	1.037295E+0
5.360070E+2	8.791940E-1	9.344412E-1	9.805173E-1	9.704763E-1	9.282834E-1	9.419887E-1	8.776469E-1	9.887985E-1	9.599398E-1	9.561531E-1	8.999287E-1	1.005217E+0	9.222364E-1	9.428996E-1	9.201102E-1	9.280915E-1	9.286628E-1	9.364352E-1	9.755460E-1	9.551918E-1	8.891086E-1	9.602510E-1	9.285414E-1	9.143432E-1	9.343966E-1	8.675924E-1	9.289451E-1	9.397396E-1	8.925483E-1	8.929859E-1	9.244603E-1	9.132575E-1	9.127298E-1	9.464306E-1	9.836404E-1	9.710182E-1	9.103955E-1	9.378666E-1	9.172825E-1	9.630856E-1	9.209464E-1	9.243914E-1	9.577619E-1	9.199006E-1	9.242874E-1	9.126068E-1	9.552537E-1	9.128669E-1	8.860815E-1	9.250094E-1	9.537523E-1	9.550115E-1	9.233456E-1	9.252708E-1	9.633961E-1	9.755823E-1	9.803564E-1	9.678146E-1	9.052872E-1	9.392427E-1	9.572374E-1	9.239381E-1	8.641562E-1	8.949183E-1	9.253523E-1	9.433184E-1	9.571730E-1	9.003617E-1	8.974643E-1	9.354391E-1	8.720457E-1	9.348717E-1	9.580039E-1	9.524823E-1	9.388118E-1	9.390403E-1	9.286870E-1	9.528992E-1	8.567931E-1	9.423762E-1	9.645897E-1	9.430334E-1	9.460377E-1	9.221850E-1	8.724614E-1	9.211155E-1	9.684615E-1	9.476261E-1	9.433111E-1	9.542348E-1	9.733134E-1	9.896519E-1	9.127405E-1	9.404726E-1	9.326918E-1	9.540802E-1	9.131395E-1	9.753952E-1	9.953401E-1	9.315250E-1	9.000509E-1	9.270220E-1	9.376549E-1	9.552753E-1	8.994804E-1	8.897467E-1	8.963627E-1	8.904155E-1	9.618794E-1	9.598777E-1	9.303113E-1	9.225468E-1	9.520588E-1	9.770162E-1	9.731408E-1	9.708118E-1	9.408573E-1	9.373351E-1	9.038848E-1	9.751565E-1	9.240683E-1	9.906933E-1	9.313393E-1	9.789855E-1	9.525920E-1	9.578830E-1	9.847732E-1	9.317958E-1	9.644827E-1	9.335820E-1	9.240708E-1	9.353148E-1	9.679841E-1	9.176806E-1	9.616101E-1	9.215573E-1	9.649681E-1	9.883032E-1	9.369459E-1	9.055923E-1	9.122336E-1	9.440849E-1	9.307415E-1	9.543010E-1	9.010606E-1	9.618468E-1	9.329367E-1	1.003188E+0	9.381793E-1	9.655584E-1	9.562991E-1	9.231924E-1	1.015604E+0	9.427290E-1	9.439337E-1	9.333239E-1	1.013392E+0	9.407286E-1	9.362831E-1	9.687193E-1	9.236829E-1	9.775772E-1	9.155525E-1	9.480382E-1	9.754964E-1	9.837531E-1	9.238422E-1	9.963840E-1	9.619784E-1	9.473592E-1	9.075027E-1
5.362680E+2	6.970674E-1	7.229693E-1	7.205846E-1	6.889692E-1	6.754873E-1	7.004367E-1	7.518008E-1	7.366986E-1	7.075936E-1	7.549942E-1	6.807081E-1	7.714571E-1	7.005525E-1	7.149715E-1	6.843012E-1	7.165410E-1	6.434942E-1	7.222923E-1	7.042019E-1	6.785197E-1	7.324349E-1	7.341014E-1	7.397178E-1	7.104429E-1	6.919748E-1	6.768149E-1	6.983509E-1	7.081250E-1	7.168407E-1	7.029083E-1	7.070967E-1	7.086445E-1	6.739058E-1	7.411242E-1	7.372684E-1	6.885953E-1	6.654507E-1	6.652570E-1	6.845906E-1	7.290213E-1	7.346093E-1	6.764840E-1	7.339479E-1	7.182812E-1	7.085487E-1	7.096797E-1	7.103523E-1	7.202222E-1	7.136867E-1	6.901014E-1	7.210454E-1	7.429795E-1	7.213097E-1	7.355329E-1	7.890502E-1	7.410771E-1	7.062699E-1	7.028625E-1	6.972037E-1	7.183605E-1	7.048539E-1	7.287665E-1	7.146490E-1	6.782307E-1	7.305318E-1	6.959861E-1	7.167883E-1	7.578314E-1	6.940862E-1	7.299949E-1	7.062454E-1	7.564729E-1	6.935663E-1	7.005734E-1	7.025644E-1	7.233627E-1	7.102432E-1	7.077372E-1	7.179077E-1	7.068037E-1	6.935218E-1	6.766586E-1	7.364814E-1	7.334121E-1	6.995045E-1	7.267977E-1	7.118046E-1	7.255758E-1	7.426297E-1	7.340737E-1	6.968880E-1	7.273994E-1	7.448857E-1	6.816443E-1	7.333306E-1	6.953601E-1	7.191302E-1	6.924343E-1	7.703898E-1	6.994050E-1	7.051126E-1	6.859563E-1	7.564086E-1	7.252588E-1	7.493281E-1	6.691264E-1	7.259996E-1	7.494242E-1	7.075621E-1	7.219190E-1	6.735225E-1	6.799270E-1	6.860693E-1	7.293724E-1	7.076259E-1	7.202956E-1	7.264306E-1	7.446870E-1	7.250156E-1	7.452558E-1	6.983632E-1	6.951049E-1	7.181687E-1	7.373321E-1	6.977289E-1	7.240131E-1	7.045442E-1	6.915018E-1	7.609648E-1	7.238232E-1	7.026006E-1	7.236081E-1	7.076670E-1	7.064083E-1	7.273552E-1	7.348927E-1	7.361629E-1	7.089205E-1	7.352867E-1	7.559281E-1	6.843749E-1	7.381503E-1	7.316750E-1	7.182440E-1	7.383146E-1	7.096478E-1	7.608226E-1	6.956196E-1	6.904808E-1	6.904615E-1	7.328488E-1	6.959131E-1	7.562970E-1	7.206473E-1	7.236046E-1	6.636803E-1	7.103415E-1	7.188893E-1	7.566522E-1	7.104843E-1	7.403801E-1	7.480123E-1	7.352195E-1	7.194302E-1	7.299710E-1	7.187598E-1	7.283003E-1	7.077827E-1	6.849066E-1	7.427807E-1	7.488637E-1
5.365140E+2	5.523376E-1	5.725389E-1	5.843405E-1	6.008087E-1	5.563022E-1	5.291168E-1	5.690740E-1	5.849866E-1	5.661473E-1	6.121541E-1	6.161539E-1	5.875667E-1	5.653143E-1	5.938476E-1	5.174959E-1	5.748451E-1	5.623250E-1	6.082405E-1	5.896962E-1	5.605777E-1	5.790762E-1	5.729901E-1	5.834713E-1	5.748499E-1	5.862004E-1	6.292346E-1	5.837088E-1	5.589480E-1	5.698365E-1	6.115503E-1	5.889829E-1	5.578734E-1	5.905877E-1	5.780268E-1	5.873440E-1	5.947756E-1	5.779305E-1	5.802255E-1	5.711431E-1	6.239329E-1	5.701384E-1	5.756684E-1	5.822638E-1	5.881638E-1	5.619141E-1	5.579865E-1	6.253686E-1	5.799958E-1	5.960282E-1	5.523969E-1	5.973504E-1	5.741623E-1	5.439122E-1	6.083262E-1	6.092654E-1	5.813289E-1	6.105034E-1	5.933942E-1	5.759548E-1	5.711504E-1	5.934005E-1	5.763000E-1	5.589286E-1	5.522250E-1	5.628661E-1	5.822211E-1	5.691943E-1	5.228896E-1	5.984790E-1	5.933678E-1	5.725276E-1	5.734200E-1	5.675877E-1	5.731659E-1	5.805318E-1	5.618144E-1	5.945127E-1	5.767245E-1	5.746038E-1	5.703530E-1	5.552530E-1	6.014508E-1	6.005518E-1	5.983805E-1	5.801533E-1	5.580684E-1	6.223860E-1	5.718506E-1	5.962471E-1	5.930698E-1	5.747910E-1	6.099148E-1	5.862560E-1	5.806747E-1	5.687440E-1	6.253841E-1	6.200860E-1	5.523787E-1	5.813956E-1	5.744273E-1	5.841466E-1	5.564262E-1	5.807583E-1	6.047874E-1	5.813833E-1	5.817648E-1	5.915929E-1	5.928201E-1	5.952649E-1	6.029055E-1	6.033269E-1	5.835172E-1	6.004921E-1	5.981695E-1	6.136262E-1	5.892484E-1	5.594359E-1	5.861688E-1	5.558728E-1	6.055387E-1	5.799515E-1	5.402316E-1	6.047761E-1	5.863608E-1	5.683836E-1	5.955350E-1	5.518347E-1	5.886700E-1	5.965606E-1	5.979198E-1	5.936388E-1	5.760520E-1	5.956903E-1	5.853616E-1	6.047421E-1	5.892321E-1	6.033088E-1	5.759642E-1	6.241953E-1	6.165558E-1	5.606158E-1	6.306327E-1	5.944343E-1	5.642454E-1	5.990459E-1	5.922360E-1	6.028231E-1	5.809514E-1	5.873848E-1	5.609154E-1	5.663203E-1	5.913761E-1	5.707264E-1	6.185922E-1	6.282375E-1	5.970894E-1	5.941344E-1	5.659946E-1	5.988509E-1	6.108144E-1	5.785411E-1	6.019169E-1	5.903264E-1	5.771770E-1	5.778592E-1	5.980005E-1	5.810743E-1	5.913119E-1	5.835672E-1	5.903928E-1	5.581471E-1
5.367970E+2	4.869856E-1	5.222051E-1	5.533077E-1	4.866020E-1	4.318630E-1	5.222589E-1	5.172088E-1	4.924390E-1	5.018996E-1	5.101039E-1	5.146208E-1	5.418675E-1	5.011701E-1	4.876058E-1	5.097461E-1	4.985045E-1	5.064048E-1	5.311197E-1	5.125670E-1	5.450428E-1	4.819533E-1	4.930104E-1	5.399375E-1	5.549429E-1	5.357025E-1	5.375934E-1	5.385588E-1	5.053613E-1	5.125490E-1	5.331653E-1	4.779066E-1	4.974859E-1	5.249205E-1	5.430751E-1	5.590820E-1	4.790436E-1	4.795216E-1	5.386209E-1	4.971448E-1	5.160563E-1	5.247269E-1	4.819162E-1	4.756039E-1	5.298895E-1	4.747677E-1	5.366925E-1	5.155308E-1	4.991133E-1	5.383284E-1	4.893454E-1	5.281647E-1	4.862197E-1	5.182482E-1	5.259339E-1	5.201463E-1	4.796797E-1	5.147252E-1	4.956212E-1	4.846224E-1	5.069925E-1	4.861812E-1	5.471531E-1	4.881641E-1	4.727745E-1	5.303822E-1	5.212036E-1	5.318510E-1	5.049281E-1	4.818431E-1	5.079644E-1	4.846568E-1	5.226764E-1	5.046816E-1	5.024197E-1	5.388144E-1	5.083943E-1	5.315630E-1	5.317498E-1	5.024761E-1	5.306114E-1	5.336337E-1	5.351576E-1	5.185530E-1	5.267505E-1	4.726561E-1	4.919576E-1	5.259454E-1	5.424012E-1	5.180093E-1	5.181609E-1	5.343682E-1	5.408920E-1	5.289758E-1	5.546886E-1	5.078172E-1	5.347378E-1	5.069582E-1	5.032025E-1	5.348397E-1	5.116617E-1	5.027585E-1	4.936087E-1	4.902874E-1	5.288973E-1	5.429955E-1	5.232473E-1	5.300859E-1	4.901959E-1	5.373863E-1	5.275051E-1	5.229915E-1	5.138511E-1	5.139800E-1	5.064880E-1	4.994953E-1	5.265768E-1	5.311955E-1	5.134007E-1	5.105464E-1	5.255895E-1	4.798689E-1	5.062669E-1	5.096721E-1	4.926463E-1	5.129564E-1	5.022983E-1	5.436348E-1	5.418363E-1	5.219452E-1	4.931796E-1	5.176813E-1	5.361150E-1	5.310489E-1	5.232232E-1	5.130678E-1	5.321851E-1	5.289621E-1	5.064981E-1	5.215511E-1	5.391713E-1	5.014993E-1	5.522489E-1	4.871399E-1	5.135297E-1	5.397794E-1	5.062537E-1	5.700219E-1	5.129072E-1	4.926950E-1	5.242543E-1	5.572133E-1	5.159224E-1	5.072597E-1	5.367949E-1	5.065897E-1	4.918486E-1	5.214238E-1	5.324602E-1	5.085557E-1	5.479596E-1	5.014923E-1	5.120572E-1	4.654219E-1	5.018679E-1	5.261417E-1	5.115975E-1	5.191159E-1	5.131411E-1	5.192242E-1	5.124075E-1	4.817053E-1
5.370070E+2	4.888865E-1	4.978178E-1	5.043139E-1	5.168042E-1	5.080472E-1	5.050354E-1	5.094446E-1	5.249436E-1	5.068793E-1	5.019143E-1	5.037874E-1	5.027697E-1	4.961897E-1	4.883118E-1	5.110684E-1	4.862433E-1	5.183939E-1	5.233897E-1	5.075867E-1	4.938211E-1	4.652409E-1	5.238599E-1	5.271009E-1	5.304601E-1	5.273167E-1	5.243159E-1	5.148493E-1	5.415152E-1	4.949017E-1	5.292156E-1	4.966790E-1	4.892049E-1	5.122592E-1	4.948967E-1	4.941214E-1	5.157155E-1	4.830293E-1	5.035223E-1	5.076931E-1	4.967741E-1	5.122329E-1	4.893759E-1	5.302711E-1	5.305230E-1	5.156915E-1	5.223706E-1	5.349050E-1	5.234274E-1	5.031093E-1	5.030394E-1	5.107823E-1	4.749617E-1	4.762990E-1	5.001579E-1	5.478121E-1	5.195644E-1	5.150897E-1	5.220879E-1	4.974524E-1	5.268727E-1	4.920803E-1	5.267104E-1	4.952424E-1	4.865004E-1	4.705318E-1	4.988492E-1	5.525552E-1	4.978696E-1	5.118955E-1	5.376720E-1	5.284808E-1	4.878033E-1	5.023784E-1	4.837670E-1	5.127703E-1	4.839535E-1	4.883443E-1	5.053731E-1	5.120389E-1	4.961007E-1	5.136842E-1	5.208480E-1	5.398963E-1	5.157451E-1	5.006724E-1	4.929112E-1	5.615362E-1	5.167012E-1	5.190533E-1	5.366553E-1	5.094166E-1	5.393933E-1	5.024717E-1	4.943693E-1	4.875462E-1	5.124086E-1	5.357748E-1	5.142240E-1	5.171027E-1	4.892091E-1	4.960024E-1	4.930237E-1	4.964526E-1	5.189577E-1	4.995403E-1	5.093888E-1	5.113446E-1	4.808501E-1	5.302842E-1	4.862567E-1	5.086619E-1	5.449828E-1	4.917794E-1	5.263547E-1	5.055631E-1	5.215772E-1	5.272041E-1	5.024929E-1	5.106905E-1	4.746586E-1	4.676146E-1	5.142113E-1	5.118631E-1	4.765926E-1	4.975494E-1	5.203835E-1	5.421448E-1	5.294105E-1	5.403135E-1	5.125405E-1	5.461518E-1	4.904211E-1	5.043832E-1	5.433992E-1	5.016974E-1	4.923290E-1	5.042034E-1	4.747735E-1	5.339325E-1	5.357094E-1	4.696940E-1	5.094357E-1	5.046499E-1	5.193711E-1	5.380901E-1	5.394264E-1	5.814236E-1	4.960290E-1	5.217142E-1	5.172820E-1	5.505947E-1	4.918385E-1	5.251463E-1	4.947495E-1	5.087280E-1	5.524291E-1	5.035559E-1	5.074835E-1	5.411261E-1	4.901884E-1	5.175470E-1	5.256009E-1	5.044581E-1	5.616998E-1	5.007482E-1	5.161028E-1	5.333688E-1	5.132567E-1	5.179884E-1	4.960024E-1	5.582616E-1
5.372800E+2	5.055216E-1	5.205012E-1	5.341875E-1	5.173064E-1	5.108032E-1	5.122143E-1	5.453400E-1	4.678305E-1	5.056592E-1	5.429286E-1	5.284341E-1	5.304419E-1	5.114795E-1	5.137330E-1	5.105997E-1	5.198069E-1	5.550802E-1	4.914525E-1	5.351146E-1	5.190735E-1	5.237516E-1	5.096403E-1	5.191811E-1	5.615819E-1	5.389546E-1	5.486817E-1	5.084050E-1	5.353332E-1	5.343111E-1	5.507904E-1	5.346257E-1	5.226890E-1	5.342759E-1	5.525109E-1	5.388158E-1	5.138207E-1	5.226304E-1	5.454196E-1	5.404902E-1	5.283655E-1	5.368130E-1	5.525540E-1	5.007388E-1	5.612513E-1	5.208973E-1	5.325794E-1	4.962645E-1	5.202133E-1	5.230996E-1	5.099858E-1	5.327074E-1	5.548461E-1	5.115794E-1	5.315985E-1	5.154320E-1	5.082823E-1	5.331126E-1	5.350971E-1	4.912966E-1	5.374049E-1	5.323457E-1	5.215639E-1	5.532619E-1	4.925904E-1	5.483778E-1	5.177357E-1	5.345325E-1	5.037223E-1	5.429311E-1	5.316694E-1	5.088825E-1	5.397526E-1	4.820169E-1	5.601101E-1	5.434217E-1	4.968650E-1	5.234018E-1	5.227361E-1	5.019905E-1	5.359653E-1	5.126622E-1	5.381486E-1	5.548007E-1	5.049575E-1	5.122056E-1	5.020333E-1	5.510059E-1	5.288455E-1	5.097824E-1	5.279919E-1	5.462396E-1	5.643852E-1	4.900350E-1	5.582649E-1	5.429473E-1	5.141304E-1	5.122475E-1	5.153979E-1	5.260248E-1	5.353818E-1	5.180856E-1	5.300910E-1	5.753329E-1	5.041664E-1	5.268335E-1	5.197872E-1	4.971403E-1	5.522890E-1	5.220065E-1	5.244573E-1	5.135205E-1	5.410183E-1	5.089849E-1	5.057289E-1	5.217420E-1	5.298706E-1	5.384576E-1	5.247018E-1	5.350857E-1	5.852107E-1	5.248481E-1	4.951231E-1	5.222910E-1	5.248232E-1	5.032074E-1	5.031898E-1	5.124721E-1	5.214264E-1	5.192362E-1	5.286598E-1	5.501552E-1	5.154741E-1	5.308319E-1	5.266861E-1	5.178145E-1	5.553611E-1	5.173541E-1	5.126630E-1	5.934421E-1	5.226309E-1	5.240242E-1	5.253488E-1	5.423242E-1	5.353153E-1	5.167642E-1	5.461443E-1	5.372169E-1	5.252235E-1	5.290543E-1	5.104618E-1	5.566107E-1	5.281338E-1	5.373104E-1	5.243440E-1	4.970812E-1	4.912788E-1	5.332794E-1	5.238666E-1	5.835819E-1	5.527797E-1	5.281929E-1	4.864097E-1	5.458243E-1	5.348861E-1	5.240890E-1	5.102234E-1	5.322622E-1	5.205144E-1	5.014572E-1	5.915296E-1	5.435480E-1
5.375060E+2	5.933164E-1	6.345987E-1	6.016217E-1	5.845924E-1	5.840098E-1	5.993185E-1	5.910900E-1	5.830242E-1	5.820440E-1	6.406410E-1	6.251848E-1	6.209789E-1	6.175840E-1	5.921583E-1	6.083794E-1	5.792716E-1	5.688105E-1	5.885613E-1	5.781009E-1	5.868554E-1	5.895886E-1	6.001328E-1	5.753764E-1	6.600916E-1	6.651580E-1	6.051801E-1	6.012202E-1	6.337238E-1	5.983325E-1	6.301125E-1	5.970037E-1	5.992169E-1	6.029614E-1	5.903392E-1	6.190360E-1	6.016267E-1	6.142975E-1	5.980914E-1	5.971012E-1	5.865336E-1	6.003956E-1	6.022989E-1	6.029288E-1	6.850740E-1	6.226888E-1	5.861705E-1	6.089177E-1	5.637949E-1	6.271852E-1	6.036623E-1	6.365404E-1	6.008204E-1	5.731193E-1	5.412726E-1	6.353518E-1	6.075656E-1	6.245001E-1	5.855398E-1	5.983787E-1	5.641817E-1	6.222512E-1	6.258183E-1	6.045006E-1	6.018954E-1	5.882133E-1	6.281173E-1	6.097155E-1	5.794584E-1	5.967672E-1	5.727878E-1	6.349642E-1	6.281934E-1	5.774785E-1	6.000855E-1	6.014717E-1	5.947967E-1	6.005560E-1	6.253191E-1	5.827932E-1	6.282273E-1	6.181860E-1	6.183346E-1	6.407219E-1	6.042937E-1	5.580834E-1	6.167494E-1	6.322945E-1	5.959706E-1	6.059070E-1	6.120125E-1	6.260959E-1	6.085981E-1	6.144285E-1	5.781433E-1	5.537114E-1	5.981015E-1	6.484653E-1	5.694927E-1	6.099242E-1	6.287032E-1	5.815601E-1	6.458178E-1	6.446421E-1	6.174808E-1	5.727830E-1	6.002173E-1	6.077817E-1	6.236378E-1	5.773846E-1	6.231515E-1	6.122193E-1	6.144831E-1	6.253478E-1	6.351976E-1	6.262970E-1	6.287135E-1	5.715379E-1	6.057929E-1	6.038157E-1	6.321187E-1	5.881687E-1	6.242045E-1	6.427165E-1	5.976137E-1	5.637897E-1	5.980926E-1	6.208010E-1	6.229233E-1	6.031249E-1	6.094993E-1	6.030184E-1	6.151343E-1	5.880754E-1	6.163757E-1	5.844599E-1	6.401276E-1	6.479085E-1	6.096677E-1	6.026198E-1	5.989395E-1	5.996699E-1	5.903935E-1	6.608994E-1	5.918508E-1	6.176759E-1	5.995867E-1	6.382189E-1	6.327682E-1	5.999530E-1	5.956163E-1	6.186202E-1	5.960156E-1	6.257237E-1	6.154946E-1	6.226039E-1	6.225014E-1	6.223543E-1	5.763180E-1	6.252444E-1	5.764463E-1	6.265537E-1	6.012255E-1	6.112012E-1	5.968658E-1	6.163471E-1	6.047794E-1	5.640110E-1	5.989430E-1	5.851347E-1	6.148533E-1	6.158442E-1
5.377630E+2	7.322730E-1	6.815770E-1	7.179534E-1	7.383052E-1	7.399165E-1	7.380762E-1	6.974011E-1	7.520420E-1	7.254341E-1	7.212393E-1	7.099038E-1	7.268919E-1	7.327649E-1	7.355868E-1	6.824997E-1	7.424963E-1	6.645117E-1	7.038203E-1	6.921993E-1	7.236149E-1	6.955261E-1	7.391491E-1	7.567957E-1	7.533989E-1	6.727552E-1	7.740901E-1	7.438618E-1	7.276304E-1	7.374461E-1	7.206105E-1	7.198941E-1	7.111479E-1	7.125167E-1	7.541923E-1	7.740223E-1	7.330023E-1	7.242349E-1	7.142483E-1	7.582173E-1	7.539925E-1	7.332921E-1	7.142938E-1	7.600430E-1	7.014708E-1	7.024061E-1	7.203950E-1	7.581285E-1	7.414205E-1	7.045859E-1	7.023569E-1	7.395792E-1	8.008207E-1	7.096532E-1	7.603415E-1	7.331781E-1	7.425832E-1	7.457777E-1	7.510888E-1	7.423561E-1	7.497368E-1	7.307872E-1	7.145333E-1	7.763227E-1	7.027887E-1	6.909703E-1	7.076824E-1	7.544970E-1	6.875476E-1	6.999048E-1	7.293201E-1	7.459394E-1	7.593570E-1	7.723998E-1	7.340528E-1	7.713353E-1	7.400903E-1	7.331824E-1	7.281655E-1	7.016206E-1	7.199078E-1	6.988777E-1	7.455809E-1	7.599321E-1	7.085768E-1	7.337196E-1	7.249936E-1	7.384139E-1	7.314188E-1	6.742489E-1	6.935948E-1	7.607905E-1	7.393589E-1	7.525516E-1	7.737263E-1	7.222781E-1	7.150363E-1	7.504136E-1	7.124691E-1	7.996711E-1	7.597970E-1	7.143384E-1	7.499501E-1	7.744995E-1	6.985716E-1	7.276841E-1	7.085304E-1	7.069547E-1	7.446957E-1	7.482694E-1	7.139650E-1	6.984324E-1	7.533275E-1	7.339963E-1	7.891484E-1	7.597802E-1	7.064561E-1	7.174302E-1	7.090414E-1	7.233026E-1	7.486838E-1	7.555176E-1	7.092571E-1	7.711411E-1	7.190551E-1	7.185581E-1	7.421047E-1	7.334705E-1	7.018725E-1	7.234674E-1	7.292851E-1	7.919679E-1	7.103620E-1	7.633870E-1	7.296787E-1	7.369334E-1	7.636141E-1	7.333413E-1	7.622430E-1	7.296593E-1	7.199698E-1	7.111419E-1	7.154630E-1	7.240045E-1	7.772326E-1	7.038615E-1	7.154519E-1	7.207044E-1	7.362666E-1	7.386401E-1	7.269771E-1	7.400613E-1	7.259831E-1	7.565904E-1	6.890812E-1	7.841904E-1	7.367356E-1	7.348167E-1	7.029070E-1	7.527297E-1	7.325559E-1	7.746475E-1	7.103553E-1	7.582065E-1	7.575433E-1	6.571236E-1	7.202879E-1	7.451788E-1	8.099977E-1	7.173909E-1	6.807404E-1	8.325096E-1
5.380480E+2	8.960444E-1	8.787129E-1	8.884342E-1	8.741678E-1	8.443618E-1	8.250278E-1	8.775128E-1	8.666700E-1	8.816454E-1	8.778394E-1	9.028970E-1	9.354639E-1	9.210323E-1	8.961994E-1	8.629609E-1	8.715160E-1	8.581703E-1	8.865283E-1	8.916797E-1	8.812538E-1	9.063251E-1	8.631726E-1	8.706316E-1	9.278303E-1	8.400408E-1	9.138310E-1	8.736096E-1	9.541903E-1	8.788113E-1	9.206455E-1	9.077415E-1	9.044660E-1	9.501313E-1	8.951007E-1	8.561935E-1	8.339195E-1	8.619952E-1	8.876056E-1	8.878330E-1	9.154714E-1	9.106601E-1	8.591495E-1	9.036766E-1	8.755713E-1	8.779114E-1	9.040156E-1	8.640929E-1	8.486495E-1	9.061792E-1	8.193979E-1	8.869407E-1	8.873875E-1	8.669755E-1	8.570192E-1	8.721204E-1	8.867616E-1	8.361082E-1	8.744615E-1	8.509248E-1	8.972054E-1	8.706027E-1	9.014201E-1	8.900027E-1	8.386697E-1	8.869462E-1	9.046830E-1	8.884230E-1	8.681122E-1	8.400793E-1	9.043227E-1	8.943145E-1	8.675702E-1	9.012279E-1	8.831066E-1	9.168110E-1	8.457720E-1	8.584395E-1	8.876657E-1	8.122042E-1	8.348542E-1	8.340938E-1	9.030561E-1	9.168242E-1	8.138292E-1	8.435253E-1	8.737839E-1	9.125511E-1	8.771832E-1	8.612647E-1	9.194022E-1	8.681983E-1	8.485291E-1	8.513261E-1	8.830099E-1	8.688182E-1	8.637110E-1	8.632600E-1	8.227375E-1	9.144641E-1	8.543465E-1	8.464364E-1	8.768697E-1	9.158811E-1	8.852934E-1	9.064122E-1	8.834892E-1	8.836150E-1	9.118450E-1	8.550885E-1	9.119380E-1	9.380809E-1	8.517666E-1	8.866622E-1	9.122214E-1	8.358698E-1	9.013982E-1	8.597412E-1	8.643537E-1	8.903180E-1	8.948103E-1	8.886502E-1	8.862060E-1	8.982109E-1	8.220462E-1	9.004483E-1	8.709303E-1	8.696568E-1	8.831657E-1	8.674657E-1	8.389192E-1	9.647114E-1	8.437019E-1	8.844242E-1	8.553070E-1	8.620708E-1	8.480310E-1	9.311273E-1	8.333822E-1	8.962850E-1	8.565886E-1	8.729728E-1	9.042873E-1	9.173409E-1	9.683961E-1	9.216586E-1	8.939251E-1	9.119465E-1	8.720271E-1	8.269889E-1	8.764858E-1	8.896701E-1	8.499954E-1	9.061512E-1	9.091262E-1	9.066698E-1	8.971867E-1	9.264596E-1	9.178526E-1	8.979979E-1	8.562916E-1	8.754119E-1	8.847793E-1	9.230957E-1	9.442117E-1	8.333162E-1	8.491418E-1	8.611307E-1	8.859369E-1	9.112942E-1	9.111197E-1	8.994675E-1
5.382640E+2	1.021202E+0	1.043123E+0	1.030023E+0	1.042106E+0	9.982340E-1	1.014058E+0	1.045469E+0	9.972260E-1	1.080041E+0	1.039422E+0	1.037567E+0	1.096146E+0	1.022878E+0	1.075473E+0	9.851124E-1	1.007654E+0	1.021511E+0	1.062887E+0	1.034804E+0	1.034636E+0	9.604226E-1	1.069847E+0	1.079892E+0	1.067331E+0	1.009256E+0	1.106576E+0	1.032279E+0	1.069461E+0	1.022334E+0	1.052142E+0	1.065904E+0	1.024891E+0	1.079925E+0	1.051020E+0	1.011312E+0	1.015858E+0	1.027625E+0	1.011290E+0	1.031158E+0	1.033214E+0	1.004336E+0	1.036703E+0	1.022555E+0	1.067700E+0	9.901939E-1	1.071029E+0	1.069458E+0	1.041642E+0	1.059323E+0	1.035000E+0	1.042236E+0	1.012254E+0	1.029459E+0	1.012805E+0	1.088220E+0	1.095779E+0	1.042130E+0	1.087200E+0	1.042772E+0	1.057534E+0	1.059722E+0	9.752582E-1	9.870099E-1	9.662239E-1	1.073768E+0	1.018167E+0	1.048068E+0	1.054307E+0	1.025961E+0	1.041336E+0	1.101983E+0	1.015707E+0	1.029982E+0	1.042954E+0	1.027792E+0	1.036734E+0	1.045966E+0	1.013677E+0	1.000891E+0	1.014616E+0	1.012845E+0	1.082162E+0	1.096698E+0	9.746992E-1	1.020029E+0	1.002363E+0	1.052985E+0	1.052744E+0	1.029909E+0	1.042286E+0	1.037764E+0	1.003812E+0	1.018865E+0	1.026031E+0	1.051771E+0	1.003007E+0	1.091268E+0	9.870488E-1	1.088621E+0	1.022867E+0	9.876280E-1	1.002990E+0	1.079688E+0	1.026587E+0	1.049094E+0	1.043967E+0	1.005069E+0	1.066110E+0	1.037148E+0	1.034807E+0	1.017766E+0	1.021258E+0	9.928488E-1	1.047079E+0	1.020831E+0	9.870340E-1	1.046610E+0	1.001097E+0	9.800286E-1	1.076614E+0	9.842425E-1	9.951087E-1	1.075628E+0	9.919386E-1	1.027333E+0	1.017947E+0	1.006674E+0	1.055129E+0	1.087993E+0	1.046278E+0	1.048102E+0	1.050455E+0	1.027372E+0	9.921116E-1	1.096947E+0	1.044882E+0	1.000897E+0	1.027919E+0	1.109806E+0	1.027968E+0	1.002314E+0	1.029563E+0	1.003062E+0	1.065436E+0	1.085935E+0	1.064217E+0	1.062091E+0	1.013465E+0	9.859813E-1	1.004040E+0	1.040530E+0	1.070705E+0	1.061143E+0	1.040416E+0	1.102990E+0	9.888619E-1	1.036222E+0	1.008572E+0	1.069463E+0	1.038802E+0	1.049525E+0	1.012013E+0	1.014472E+0	1.071473E+0	1.035525E+0	1.003943E+0	1.025432E+0	1.064332E+0	1.056766E+0	1.022115E+0	1.112164E+0
5.385170E+2	1.205323E+0	1.232740E+0	1.225869E+0	1.262035E+0	1.206970E+0	1.247562E+0	1.275724E+0	1.191204E+0	1.196141E+0	1.271258E+0	1.279017E+0	1.259884E+0	1.187753E+0	1.266168E+0	1.249282E+0	1.257550E+0	1.243770E+0	1.333956E+0	1.274118E+0	1.253126E+0	1.200937E+0	1.283375E+0	1.317997E+0	1.306029E+0	1.243687E+0	1.250334E+0	1.235623E+0	1.310087E+0	1.239349E+0	1.285284E+0	1.250517E+0	1.217407E+0	1.284938E+0	1.278679E+0	1.272105E+0	1.283625E+0	1.242799E+0	1.289243E+0	1.212340E+0	1.310747E+0	1.254382E+0	1.206349E+0	1.227193E+0	1.271057E+0	1.236110E+0	1.250719E+0	1.240581E+0	1.247277E+0	1.239103E+0	1.238200E+0	1.284031E+0	1.206526E+0	1.213628E+0	1.191531E+0	1.226359E+0	1.221389E+0	1.278967E+0	1.222367E+0	1.254875E+0	1.248672E+0	1.244483E+0	1.238870E+0	1.238681E+0	1.276714E+0	1.260425E+0	1.205353E+0	1.282606E+0	1.223457E+0	1.182441E+0	1.257114E+0	1.210422E+0	1.205101E+0	1.229137E+0	1.229302E+0	1.266406E+0	1.196337E+0	1.225596E+0	1.223038E+0	1.189460E+0	1.215244E+0	1.160509E+0	1.227639E+0	1.265743E+0	1.224527E+0	1.210001E+0	1.218367E+0	1.216903E+0	1.239432E+0	1.220056E+0	1.157236E+0	1.250637E+0	1.289485E+0	1.236690E+0	1.242148E+0	1.218498E+0	1.241392E+0	1.232602E+0	1.247363E+0	1.286476E+0	1.203241E+0	1.219960E+0	1.231805E+0	1.265045E+0	1.245711E+0	1.247013E+0	1.194693E+0	1.253655E+0	1.257776E+0	1.192137E+0	1.242539E+0	1.233243E+0	1.208643E+0	1.214778E+0	1.287763E+0	1.190607E+0	1.220051E+0	1.194834E+0	1.197320E+0	1.259164E+0	1.205215E+0	1.219443E+0	1.225131E+0	1.267194E+0	1.244000E+0	1.232781E+0	1.228814E+0	1.255955E+0	1.217084E+0	1.208964E+0	1.236145E+0	1.319258E+0	1.235172E+0	1.175204E+0	1.172210E+0	1.273427E+0	1.213261E+0	1.243218E+0	1.296648E+0	1.293444E+0	1.207932E+0	1.233747E+0	1.214655E+0	1.238414E+0	1.261863E+0	1.202632E+0	1.255028E+0	1.233933E+0	1.287116E+0	1.223286E+0	1.204786E+0	1.309054E+0	1.223447E+0	1.217145E+0	1.237985E+0	1.267818E+0	1.287176E+0	1.246874E+0	1.225387E+0	1.200518E+0	1.254945E+0	1.256116E+0	1.222544E+0	1.233491E+0	1.251800E+0	1.153237E+0	1.156235E+0	1.261256E+0	1.224603E+0	1.164301E+0	1.219755E+0	1.173911E+0
5.387970E+2	1.389028E+0	1.437436E+0	1.448762E+0	1.430799E+0	1.464941E+0	1.459994E+0	1.475108E+0	1.495823E+0	1.473192E+0	1.546150E+0	1.486185E+0	1.508378E+0	1.450159E+0	1.459800E+0	1.500816E+0	1.476223E+0	1.430990E+0	1.493807E+0	1.504908E+0	1.424077E+0	1.478590E+0	1.474997E+0	1.505284E+0	1.532993E+0	1.484296E+0	1.473088E+0	1.469434E+0	1.546570E+0	1.456573E+0	1.511867E+0	1.502366E+0	1.424767E+0	1.501053E+0	1.490034E+0	1.456942E+0	1.507983E+0	1.536975E+0	1.499092E+0	1.423579E+0	1.494243E+0	1.455921E+0	1.471295E+0	1.492492E+0	1.578217E+0	1.484141E+0	1.451631E+0	1.498101E+0	1.445987E+0	1.487621E+0	1.498597E+0	1.409612E+0	1.430246E+0	1.504139E+0	1.429960E+0	1.480717E+0	1.486773E+0	1.533695E+0	1.535763E+0	1.446432E+0	1.494009E+0	1.518194E+0	1.468618E+0	1.474091E+0	1.450772E+0	1.409336E+0	1.484825E+0	1.461821E+0	1.475669E+0	1.462349E+0	1.450969E+0	1.431788E+0	1.450965E+0	1.445517E+0	1.450015E+0	1.469265E+0	1.476917E+0	1.491815E+0	1.467902E+0	1.419273E+0	1.459961E+0	1.442066E+0	1.464581E+0	1.497099E+0	1.465093E+0	1.514805E+0	1.445246E+0	1.410218E+0	1.507870E+0	1.440682E+0	1.442741E+0	1.444491E+0	1.491738E+0	1.483772E+0	1.510002E+0	1.396704E+0	1.459400E+0	1.510042E+0	1.455110E+0	1.516488E+0	1.419244E+0	1.378267E+0	1.413469E+0	1.458077E+0	1.473336E+0	1.502527E+0	1.490801E+0	1.438619E+0	1.516652E+0	1.418399E+0	1.481050E+0	1.472219E+0	1.480207E+0	1.483288E+0	1.419350E+0	1.416950E+0	1.414507E+0	1.417238E+0	1.402629E+0	1.425932E+0	1.465481E+0	1.413376E+0	1.465361E+0	1.499960E+0	1.511308E+0	1.413156E+0	1.457500E+0	1.477127E+0	1.497174E+0	1.418005E+0	1.408187E+0	1.500426E+0	1.461605E+0	1.475753E+0	1.412955E+0	1.459076E+0	1.473043E+0	1.424976E+0	1.483476E+0	1.480186E+0	1.407355E+0	1.422163E+0	1.464645E+0	1.447941E+0	1.442170E+0	1.414444E+0	1.447014E+0	1.546788E+0	1.460076E+0	1.467849E+0	1.479864E+0	1.498571E+0	1.515393E+0	1.442588E+0	1.412460E+0	1.417461E+0	1.487353E+0	1.491142E+0	1.446233E+0	1.463853E+0	1.459927E+0	1.430953E+0	1.412829E+0	1.470300E+0	1.461160E+0	1.399206E+0	1.426687E+0	1.474067E+0	1.439545E+0	1.368972E+0	1.370322E+0	1.355343E+0
5.390130E+2	1.646324E+0	1.656986E+0	1.670872E+0	1.686192E+0	1.684393E+0	1.722252E+0	1.665201E+0	1.694346E+0	1.732053E+0	1.697843E+0	1.706919E+0	1.695226E+0	1.722473E+0	1.726788E+0	1.687130E+0	1.673427E+0	1.693868E+0	1.669555E+0	1.701181E+0	1.631041E+0	1.700538E+0	1.674992E+0	1.679100E+0	1.745940E+0	1.710279E+0	1.671783E+0	1.616602E+0	1.683158E+0	1.663347E+0	1.748675E+0	1.618181E+0	1.703735E+0	1.686086E+0	1.732438E+0	1.662023E+0	1.681395E+0	1.654268E+0	1.622566E+0	1.681372E+0	1.731716E+0	1.634658E+0	1.628697E+0	1.659100E+0	1.711993E+0	1.590440E+0	1.652167E+0	1.738318E+0	1.681323E+0	1.644636E+0	1.658934E+0	1.673471E+0	1.716522E+0	1.698854E+0	1.676575E+0	1.637684E+0	1.713332E+0	1.643502E+0	1.686634E+0	1.566960E+0	1.644657E+0	1.655005E+0	1.698163E+0	1.665694E+0	1.552119E+0	1.666069E+0	1.653727E+0	1.651890E+0	1.652555E+0	1.613228E+0	1.635802E+0	1.611604E+0	1.747375E+0	1.652502E+0	1.713021E+0	1.692590E+0	1.702605E+0	1.651637E+0	1.671281E+0	1.637396E+0	1.687455E+0	1.753589E+0	1.653967E+0	1.654362E+0	1.670412E+0	1.691565E+0	1.690082E+0	1.688175E+0	1.750175E+0	1.646362E+0	1.641847E+0	1.677923E+0	1.706622E+0	1.666787E+0	1.724912E+0	1.638320E+0	1.707006E+0	1.660888E+0	1.730461E+0	1.657554E+0	1.605456E+0	1.552295E+0	1.683958E+0	1.654021E+0	1.706481E+0	1.707765E+0	1.645843E+0	1.693186E+0	1.659912E+0	1.667623E+0	1.654268E+0	1.710925E+0	1.691648E+0	1.711914E+0	1.684404E+0	1.554377E+0	1.691787E+0	1.622071E+0	1.620273E+0	1.571560E+0	1.747742E+0	1.649353E+0	1.667099E+0	1.666219E+0	1.688996E+0	1.674076E+0	1.670293E+0	1.635392E+0	1.692043E+0	1.654891E+0	1.592406E+0	1.673039E+0	1.652261E+0	1.633418E+0	1.682407E+0	1.596411E+0	1.635461E+0	1.664254E+0	1.753528E+0	1.666626E+0	1.596559E+0	1.557732E+0	1.685987E+0	1.706960E+0	1.683366E+0	1.657271E+0	1.669967E+0	1.683102E+0	1.657802E+0	1.645402E+0	1.597890E+0	1.583824E+0	1.590311E+0	1.716135E+0	1.627625E+0	1.676216E+0	1.641745E+0	1.701669E+0	1.649728E+0	1.616192E+0	1.629856E+0	1.639781E+0	1.650015E+0	1.671134E+0	1.664901E+0	1.654474E+0	1.618175E+0	1.690315E+0	1.672312E+0	1.712716E+0	1.790998E+0	1.604498E+0
5.392930E+2	1.895439E+0	1.940379E+0	1.856564E+0	1.906448E+0	1.856929E+0	1.924265E+0	1.927771E+0	1.856555E+0	1.933596E+0	1.958725E+0	1.883880E+0	1.883620E+0	1.869733E+0	1.922112E+0	1.904787E+0	1.910748E+0	1.939542E+0	1.871720E+0	1.916031E+0	1.898957E+0	1.941090E+0	1.940308E+0	1.874098E+0	1.919428E+0	1.857078E+0	1.921301E+0	1.919901E+0	1.914837E+0	1.844324E+0	1.935046E+0	1.862376E+0	1.902177E+0	1.875231E+0	1.896969E+0	1.919045E+0	1.911458E+0	1.861403E+0	1.832667E+0	1.808154E+0	1.885149E+0	1.815288E+0	1.851429E+0	1.874478E+0	1.935261E+0	1.868775E+0	1.890652E+0	1.984329E+0	1.867107E+0	1.859046E+0	1.813259E+0	1.882518E+0	1.926402E+0	1.847381E+0	1.852900E+0	1.918084E+0	1.873201E+0	1.862287E+0	1.944716E+0	1.805361E+0	1.877537E+0	1.836930E+0	1.865745E+0	1.892925E+0	1.810051E+0	1.842525E+0	1.812140E+0	1.894440E+0	1.848879E+0	1.748399E+0	1.890322E+0	1.792947E+0	1.912454E+0	1.890239E+0	1.828966E+0	1.898780E+0	1.838048E+0	1.921380E+0	1.840036E+0	1.783089E+0	1.799752E+0	1.902070E+0	1.802303E+0	1.889836E+0	1.834663E+0	1.872134E+0	1.774345E+0	1.854434E+0	1.914165E+0	1.804461E+0	1.937841E+0	1.887081E+0	1.817062E+0	1.814137E+0	1.856693E+0	1.817983E+0	1.810975E+0	1.788183E+0	1.761661E+0	1.853659E+0	1.815818E+0	1.837602E+0	1.753051E+0	1.877562E+0	1.937283E+0	1.815690E+0	1.849276E+0	1.816214E+0	1.883661E+0	1.804982E+0	1.834928E+0	1.863075E+0	1.828788E+0	1.780407E+0	1.900790E+0	1.823702E+0	1.898176E+0	1.858574E+0	1.844059E+0	1.815011E+0	1.954262E+0	1.789256E+0	1.846389E+0	1.868005E+0	1.822724E+0	1.848273E+0	1.789684E+0	1.868989E+0	1.798747E+0	1.854112E+0	1.710657E+0	1.817223E+0	1.885575E+0	1.829763E+0	1.768906E+0	1.857219E+0	1.861440E+0	1.893834E+0	1.866384E+0	1.864520E+0	1.820079E+0	1.786273E+0	1.863762E+0	1.824058E+0	1.892695E+0	1.842968E+0	1.795041E+0	1.900033E+0	1.807004E+0	1.807296E+0	1.827068E+0	1.900244E+0	1.812911E+0	1.842784E+0	1.803946E+0	1.826446E+0	1.832166E+0	1.880598E+0	1.769253E+0	1.853982E+0	1.762445E+0	1.789727E+0	1.828051E+0	1.832259E+0	1.785024E+0	1.831918E+0	1.840793E+0	1.818319E+0	1.788188E+0	1.673667E+0	1.759562E+0	1.857051E+0
5.395210E+2	2.051084E+0	2.073166E+0	2.018799E+0	2.003464E+0	1.977342E+0	2.081695E+0	2.090822E+0	2.032675E+0	2.125881E+0	2.137823E+0	2.045635E+0	2.070045E+0	1.946304E+0	2.100876E+0	2.030591E+0	2.062866E+0	1.993912E+0	2.062597E+0	2.014072E+0	2.006921E+0	2.057601E+0	2.039510E+0	2.056983E+0	2.092984E+0	2.013568E+0	2.005622E+0	2.021093E+0	2.042762E+0	2.011831E+0	2.039654E+0	2.041670E+0	2.003047E+0	1.954722E+0	2.097223E+0	2.056019E+0	1.981413E+0	2.014285E+0	2.022552E+0	2.028128E+0	2.051211E+0	2.000546E+0	2.061110E+0	1.966876E+0	2.105020E+0	2.063487E+0	2.028655E+0	2.072638E+0	1.958051E+0	1.945293E+0	2.046509E+0	2.034212E+0	2.065946E+0	2.042778E+0	2.009155E+0	1.995598E+0	2.087542E+0	2.049620E+0	2.059772E+0	1.978549E+0	1.933381E+0	2.035921E+0	2.088842E+0	2.007564E+0	1.989498E+0	2.006424E+0	2.064740E+0	1.991524E+0	1.983691E+0	2.009561E+0	1.964708E+0	2.033594E+0	2.029198E+0	2.017292E+0	2.022097E+0	2.008414E+0	2.034443E+0	1.965440E+0	2.003428E+0	1.906698E+0	2.007960E+0	2.010030E+0	2.053198E+0	1.984521E+0	1.981964E+0	2.072099E+0	2.024063E+0	1.994037E+0	2.042139E+0	1.980824E+0	2.000421E+0	2.000818E+0	2.077572E+0	1.972594E+0	1.967463E+0	1.981146E+0	2.005606E+0	2.041129E+0	1.991427E+0	1.988617E+0	2.018814E+0	2.009889E+0	2.001129E+0	1.955987E+0	2.064712E+0	1.998944E+0	1.925278E+0	1.964261E+0	2.009795E+0	2.033786E+0	1.922736E+0	1.952994E+0	1.988919E+0	1.995314E+0	2.015126E+0	1.965066E+0	2.027413E+0	1.920807E+0	1.972954E+0	1.981200E+0	2.058642E+0	1.972330E+0	1.987110E+0	1.946333E+0	1.968408E+0	1.955330E+0	1.962767E+0	2.031236E+0	1.902487E+0	2.001494E+0	1.955464E+0	1.974590E+0	1.948362E+0	1.988827E+0	1.928665E+0	1.918029E+0	2.014298E+0	1.991231E+0	1.997257E+0	1.941964E+0	1.930434E+0	1.963823E+0	2.000300E+0	1.953299E+0	2.004555E+0	1.943853E+0	1.969905E+0	1.952102E+0	1.965669E+0	1.884466E+0	2.018028E+0	1.943079E+0	1.967238E+0	2.036715E+0	1.946303E+0	1.974649E+0	1.964190E+0	1.940455E+0	1.939491E+0	1.922762E+0	1.998394E+0	1.943039E+0	1.963976E+0	1.986414E+0	1.967322E+0	1.917987E+0	1.943445E+0	1.860454E+0	1.907560E+0	1.957117E+0	1.988420E+0	1.946450E+0
5.397650E+2	2.051336E+0	2.120588E+0	2.092119E+0	2.150965E+0	2.016461E+0	2.052737E+0	1.984772E+0	2.119239E+0	2.084439E+0	2.080294E+0	2.127705E+0	2.138506E+0	2.047308E+0	2.058633E+0	2.015780E+0	2.043084E+0	2.061620E+0	2.027142E+0	2.053561E+0	2.048238E+0	2.022213E+0	2.044833E+0	2.026267E+0	2.119189E+0	1.999615E+0	2.049466E+0	2.065898E+0	2.089699E+0	2.055670E+0	2.064112E+0	2.028803E+0	2.010415E+0	2.073079E+0	2.114391E+0	2.095782E+0	2.052885E+0	2.032193E+0	2.056912E+0	1.994458E+0	2.024919E+0	1.924006E+0	2.027472E+0	2.018502E+0	2.094394E+0	2.050107E+0	2.132976E+0	2.083743E+0	1.967322E+0	2.036037E+0	1.994879E+0	2.155344E+0	2.068679E+0	1.962729E+0	2.041583E+0	2.017138E+0	2.025929E+0	2.053897E+0	2.029221E+0	2.050850E+0	2.039622E+0	2.011456E+0	2.017481E+0	2.036940E+0	1.959598E+0	2.063681E+0	2.001004E+0	2.037375E+0	2.057955E+0	2.030110E+0	1.919615E+0	2.021642E+0	2.150978E+0	2.002212E+0	2.037166E+0	2.038840E+0	2.039793E+0	2.057805E+0	2.064072E+0	2.043168E+0	1.961964E+0	2.093037E+0	1.976392E+0	1.975502E+0	2.014063E+0	1.973247E+0	1.999101E+0	1.999159E+0	2.021076E+0	1.963387E+0	2.029385E+0	2.013257E+0	2.057008E+0	2.020611E+0	2.116306E+0	1.989644E+0	2.000387E+0	1.998937E+0	1.995570E+0	2.048877E+0	1.963524E+0	1.982129E+0	2.015767E+0	1.950873E+0	2.085913E+0	1.988021E+0	1.985034E+0	2.022440E+0	1.993949E+0	2.032427E+0	1.973909E+0	2.004186E+0	1.921818E+0	1.998487E+0	2.032959E+0	1.964035E+0	2.036112E+0	2.028024E+0	1.973975E+0	2.027575E+0	2.048518E+0	1.943906E+0	1.956196E+0	1.997125E+0	2.032599E+0	1.997316E+0	2.025840E+0	2.018277E+0	2.021932E+0	1.948609E+0	1.955508E+0	2.030023E+0	1.972333E+0	1.954030E+0	1.892903E+0	1.963201E+0	1.989491E+0	2.070946E+0	1.970625E+0	1.981895E+0	2.010868E+0	1.975726E+0	2.058687E+0	1.913389E+0	2.101911E+0	2.078321E+0	1.940188E+0	1.977655E+0	1.949218E+0	1.885031E+0	2.012644E+0	1.978272E+0	1.961523E+0	2.011091E+0	1.975848E+0	1.991235E+0	1.995437E+0	2.026880E+0	2.005124E+0	1.984376E+0	1.995384E+0	1.936491E+0	1.961392E+0	1.987791E+0	1.938181E+0	1.931731E+0	1.958085E+0	1.893836E+0	1.884858E+0	1.888902E+0	1.986292E+0	2.020235E+0
5.400190E+2	2.032992E+0	1.970225E+0	2.060015E+0	2.124755E+0	1.969997E+0	2.072288E+0	2.026169E+0	2.065677E+0	2.051807E+0	2.044788E+0	1.974232E+0	2.106682E+0	2.002819E+0	2.055922E+0	2.033525E+0	2.052567E+0	2.002276E+0	1.998809E+0	2.018726E+0	2.024894E+0	2.038791E+0	1.986396E+0	1.999122E+0	2.085079E+0	1.986855E+0	2.069892E+0	2.010847E+0	2.043905E+0	1.941961E+0	2.076587E+0	2.002274E+0	1.975112E+0	2.038894E+0	2.052576E+0	2.080042E+0	2.003842E+0	2.000980E+0	1.980080E+0	1.986722E+0	2.040378E+0	1.990389E+0	1.997439E+0	2.006603E+0	1.997700E+0	1.975868E+0	1.986957E+0	2.115524E+0	2.010488E+0	1.983220E+0	1.985498E+0	2.012430E+0	1.989814E+0	2.073038E+0	1.952638E+0	1.982353E+0	2.051814E+0	2.061192E+0	2.003948E+0	1.966285E+0	1.932269E+0	2.018522E+0	2.034103E+0	2.010706E+0	1.942947E+0	1.967059E+0	2.023112E+0	1.997534E+0	2.072478E+0	1.939506E+0	1.998271E+0	2.003610E+0	2.061758E+0	1.963078E+0	1.959546E+0	1.992765E+0	2.031105E+0	1.978046E+0	1.944366E+0	2.020108E+0	1.988825E+0	2.005688E+0	1.894309E+0	2.085217E+0	1.985303E+0	2.023410E+0	2.031700E+0	2.002601E+0	2.014131E+0	1.892763E+0	1.961307E+0	1.972869E+0	2.021893E+0	1.964287E+0	1.920366E+0	2.001137E+0	1.960485E+0	2.027866E+0	1.967927E+0	2.026041E+0	1.983921E+0	1.942171E+0	1.922390E+0	2.021029E+0	1.991924E+0	1.973173E+0	1.952095E+0	1.910162E+0	2.028120E+0	1.957105E+0	1.968801E+0	2.039847E+0	1.938156E+0	1.980385E+0	2.001729E+0	1.936669E+0	2.001397E+0	1.974065E+0	1.966127E+0	1.945094E+0	2.005960E+0	1.960444E+0	1.962392E+0	2.025726E+0	2.012359E+0	2.010998E+0	1.957429E+0	1.959670E+0	1.943382E+0	2.050361E+0	1.834129E+0	1.949942E+0	1.957741E+0	1.950192E+0	1.985466E+0	1.935889E+0	1.943145E+0	2.001689E+0	1.978754E+0	2.010976E+0	1.980974E+0	1.935451E+0	1.958311E+0	1.991543E+0	1.957415E+0	2.005911E+0	1.951598E+0	1.975052E+0	1.977805E+0	1.922841E+0	1.958639E+0	1.971299E+0	1.923658E+0	1.948058E+0	1.940518E+0	1.928035E+0	1.950085E+0	2.018316E+0	1.982797E+0	1.894714E+0	1.942478E+0	1.965397E+0	1.959670E+0	1.986931E+0	1.958309E+0	1.998347E+0	1.917737E+0	1.854215E+0	1.925401E+0	1.929186E+0	1.929078E+0	1.831274E+0
5.402790E+2	1.906879E+0	1.968709E+0	2.002207E+0	1.962478E+0	1.901164E+0	1.937480E+0	1.976734E+0	1.947645E+0	1.944754E+0	2.004808E+0	1.965565E+0	1.964319E+0	1.929110E+0	1.909280E+0	1.983753E+0	1.955491E+0	1.967565E+0	1.955946E+0	1.965384E+0	1.893220E+0	1.921853E+0	1.937032E+0	1.894365E+0	1.876595E+0	1.910240E+0	1.888507E+0	1.873107E+0	1.938687E+0	1.905208E+0	1.931414E+0	1.869445E+0	1.882712E+0	1.894182E+0	1.939577E+0	1.905962E+0	1.895707E+0	1.882040E+0	1.912473E+0	1.879310E+0	1.970034E+0	1.924056E+0	1.808954E+0	1.876823E+0	1.982583E+0	1.924374E+0	1.939658E+0	1.928266E+0	1.951956E+0	1.899051E+0	1.842234E+0	1.961714E+0	1.944440E+0	1.880629E+0	1.896991E+0	1.929380E+0	1.930055E+0	1.910776E+0	1.938421E+0	1.942186E+0	1.904654E+0	1.922001E+0	1.899671E+0	1.923276E+0	1.826437E+0	1.917154E+0	1.847302E+0	1.935358E+0	1.896724E+0	1.843648E+0	1.870518E+0	1.849075E+0	1.940143E+0	1.866803E+0	1.911750E+0	1.905564E+0	1.921886E+0	1.895198E+0	1.896143E+0	1.884757E+0	1.867191E+0	1.887232E+0	1.898301E+0	1.944499E+0	1.847763E+0	1.842853E+0	1.945921E+0	1.892287E+0	1.919523E+0	1.816729E+0	1.895711E+0	1.906367E+0	1.892456E+0	1.803104E+0	1.922306E+0	1.885610E+0	1.883621E+0	1.837247E+0	1.848154E+0	1.914374E+0	1.859671E+0	1.826857E+0	1.894182E+0	1.872008E+0	1.981190E+0	1.839572E+0	1.803251E+0	1.808664E+0	1.999534E+0	1.873198E+0	1.839514E+0	1.956445E+0	1.822702E+0	1.872158E+0	1.837277E+0	1.839680E+0	1.902038E+0	1.890301E+0	1.950918E+0	1.930677E+0	1.912770E+0	1.878416E+0	1.854482E+0	1.919607E+0	1.895434E+0	1.894898E+0	1.894829E+0	1.865371E+0	1.841665E+0	1.887614E+0	1.892958E+0	1.845798E+0	1.928133E+0	1.833705E+0	1.897861E+0	1.817045E+0	1.830378E+0	1.924911E+0	1.916749E+0	1.831374E+0	1.860824E+0	1.873735E+0	1.807665E+0	1.824275E+0	1.903905E+0	1.877602E+0	1.837692E+0	1.865063E+0	1.964135E+0	1.809197E+0	1.850907E+0	1.803042E+0	1.888847E+0	1.874079E+0	1.869542E+0	1.856656E+0	1.884315E+0	1.895655E+0	1.933528E+0	1.848662E+0	1.892578E+0	1.888346E+0	1.838928E+0	1.801128E+0	1.849268E+0	1.827967E+0	1.836946E+0	1.839847E+0	1.945835E+0	1.864442E+0	1.818223E+0	1.705496E+0
5.405080E+2	1.824133E+0	1.849807E+0	1.783674E+0	1.905905E+0	1.809607E+0	1.853260E+0	1.848867E+0	1.893331E+0	1.941841E+0	1.875021E+0	1.894336E+0	1.884874E+0	1.813676E+0	1.891214E+0	1.793103E+0	1.823976E+0	1.903086E+0	1.866706E+0	1.839047E+0	1.885858E+0	1.931313E+0	1.832163E+0	1.830116E+0	1.922233E+0	1.806240E+0	1.813831E+0	1.851711E+0	1.937704E+0	1.847899E+0	1.851742E+0	1.826321E+0	1.801313E+0	1.821441E+0	1.854235E+0	1.794482E+0	1.864819E+0	1.855776E+0	1.844552E+0	1.813227E+0	1.872277E+0	1.834084E+0	1.763938E+0	1.831714E+0	1.923197E+0	1.845585E+0	1.851473E+0	1.867847E+0	1.804842E+0	1.850697E+0	1.846055E+0	1.858265E+0	1.844892E+0	1.814825E+0	1.808629E+0	1.844538E+0	1.827021E+0	1.888794E+0	1.845427E+0	1.791111E+0	1.794878E+0	1.828426E+0	1.827013E+0	1.854709E+0	1.743579E+0	1.922335E+0	1.854532E+0	1.842999E+0	1.906408E+0	1.818746E+0	1.799928E+0	1.820474E+0	1.809772E+0	1.843517E+0	1.876283E+0	1.881214E+0	1.821197E+0	1.840207E+0	1.912740E+0	1.741699E+0	1.776383E+0	1.804218E+0	1.801343E+0	1.870529E+0	1.840686E+0	1.800824E+0	1.865268E+0	1.824752E+0	1.855054E+0	1.776325E+0	1.834769E+0	1.817501E+0	1.920351E+0	1.771321E+0	1.868547E+0	1.834641E+0	1.803405E+0	1.819880E+0	1.797669E+0	1.850693E+0	1.759769E+0	1.761919E+0	1.793498E+0	1.833337E+0	1.809695E+0	1.849622E+0	1.760243E+0	1.811357E+0	1.822460E+0	1.810133E+0	1.825882E+0	1.807033E+0	1.806215E+0	1.770633E+0	1.838487E+0	1.767065E+0	1.814096E+0	1.776387E+0	1.800143E+0	1.804635E+0	1.844386E+0	1.763632E+0	1.828069E+0	1.779376E+0	1.844960E+0	1.885616E+0	1.760433E+0	1.777530E+0	1.849127E+0	1.753473E+0	1.803424E+0	1.841436E+0	1.790038E+0	1.750586E+0	1.813346E+0	1.793605E+0	1.869347E+0	1.808852E+0	1.787507E+0	1.807228E+0	1.810831E+0	1.722437E+0	1.814356E+0	1.846290E+0	1.859254E+0	1.856591E+0	1.776175E+0	1.781140E+0	1.808771E+0	1.769856E+0	1.794534E+0	1.847457E+0	1.780672E+0	1.844004E+0	1.785301E+0	1.849557E+0	1.785754E+0	1.864985E+0	1.756920E+0	1.771517E+0	1.770441E+0	1.778213E+0	1.813371E+0	1.736966E+0	1.836908E+0	1.761766E+0	1.760805E+0	1.778290E+0	1.803489E+0	1.755557E+0	1.819003E+0	1.804338E+0
5.407630E+2	1.791138E+0	1.810709E+0	1.755661E+0	1.737237E+0	1.750445E+0	1.733738E+0	1.706756E+0	1.740452E+0	1.790881E+0	1.806998E+0	1.791182E+0	1.799519E+0	1.721810E+0	1.779306E+0	1.768145E+0	1.755655E+0	1.755655E+0	1.708003E+0	1.849856E+0	1.764666E+0	1.790334E+0	1.766278E+0	1.700593E+0	1.793897E+0	1.706270E+0	1.755948E+0	1.673710E+0	1.817914E+0	1.753184E+0	1.737309E+0	1.755546E+0	1.747395E+0	1.701198E+0	1.824396E+0	1.819338E+0	1.799368E+0	1.802117E+0	1.655407E+0	1.756435E+0	1.776208E+0	1.723496E+0	1.757248E+0	1.782675E+0	1.754107E+0	1.694444E+0	1.805847E+0	1.721716E+0	1.809086E+0	1.778503E+0	1.716947E+0	1.739109E+0	1.776407E+0	1.735637E+0	1.756119E+0	1.777194E+0	1.777888E+0	1.720573E+0	1.784758E+0	1.695710E+0	1.705991E+0	1.777941E+0	1.743531E+0	1.759361E+0	1.795942E+0	1.736971E+0	1.705547E+0	1.747149E+0	1.722364E+0	1.682569E+0	1.700634E+0	1.738598E+0	1.747613E+0	1.708232E+0	1.755854E+0	1.755532E+0	1.672677E+0	1.760703E+0	1.778335E+0	1.709003E+0	1.776027E+0	1.780789E+0	1.744928E+0	1.785384E+0	1.714696E+0	1.738220E+0	1.718862E+0	1.806244E+0	1.724773E+0	1.761355E+0	1.795557E+0	1.693169E+0	1.791089E+0	1.715654E+0	1.783554E+0	1.664479E+0	1.743520E+0	1.754642E+0	1.728358E+0	1.781501E+0	1.784450E+0	1.669066E+0	1.740222E+0	1.756298E+0	1.710295E+0	1.760743E+0	1.704653E+0	1.715249E+0	1.786350E+0	1.710444E+0	1.700719E+0	1.781721E+0	1.781548E+0	1.743396E+0	1.779140E+0	1.735921E+0	1.796921E+0	1.694495E+0	1.741515E+0	1.690593E+0	1.802847E+0	1.653845E+0	1.684060E+0	1.742372E+0	1.717641E+0	1.672473E+0	1.737875E+0	1.761799E+0	1.677548E+0	1.750110E+0	1.738909E+0	1.730639E+0	1.695464E+0	1.708791E+0	1.632190E+0	1.695317E+0	1.737036E+0	1.711915E+0	1.772788E+0	1.728768E+0	1.752874E+0	1.688341E+0	1.760081E+0	1.723670E+0	1.823927E+0	1.711865E+0	1.657739E+0	1.769356E+0	1.717107E+0	1.698774E+0	1.694636E+0	1.750626E+0	1.696434E+0	1.761144E+0	1.702189E+0	1.677177E+0	1.693070E+0	1.795629E+0	1.694503E+0	1.735438E+0	1.717127E+0	1.734651E+0	1.723762E+0	1.692440E+0	1.728811E+0	1.699020E+0	1.754684E+0	1.707102E+0	1.815469E+0	1.718631E+0	1.654150E+0	1.722261E+0
5.410240E+2	1.679402E+0	1.666384E+0	1.593352E+0	1.612848E+0	1.545989E+0	1.583067E+0	1.613545E+0	1.606284E+0	1.614141E+0	1.692377E+0	1.644109E+0	1.620218E+0	1.571586E+0	1.650161E+0	1.603282E+0	1.702594E+0	1.550966E+0	1.605376E+0	1.657696E+0	1.586507E+0	1.578616E+0	1.614745E+0	1.618922E+0	1.560279E+0	1.565993E+0	1.642468E+0	1.585314E+0	1.631962E+0	1.559353E+0	1.616383E+0	1.642130E+0	1.634590E+0	1.573148E+0	1.683105E+0	1.621993E+0	1.554429E+0	1.680888E+0	1.550386E+0	1.562338E+0	1.652089E+0	1.645825E+0	1.591455E+0	1.567450E+0	1.665357E+0	1.580810E+0	1.662610E+0	1.686753E+0	1.579576E+0	1.565146E+0	1.549873E+0	1.630396E+0	1.628985E+0	1.581616E+0	1.589176E+0	1.627960E+0	1.630214E+0	1.555198E+0	1.568756E+0	1.590226E+0	1.570376E+0	1.630536E+0	1.612323E+0	1.606493E+0	1.536696E+0	1.612698E+0	1.588231E+0	1.580973E+0	1.589585E+0	1.601832E+0	1.557125E+0	1.595705E+0	1.642562E+0	1.639028E+0	1.621116E+0	1.586624E+0	1.561789E+0	1.610652E+0	1.664003E+0	1.561460E+0	1.524027E+0	1.575742E+0	1.565582E+0	1.588195E+0	1.547523E+0	1.579416E+0	1.607461E+0	1.597941E+0	1.631769E+0	1.582782E+0	1.639152E+0	1.560628E+0	1.618416E+0	1.536044E+0	1.544631E+0	1.606410E+0	1.566692E+0	1.613431E+0	1.495667E+0	1.628191E+0	1.529833E+0	1.583057E+0	1.602868E+0	1.561885E+0	1.670911E+0	1.591932E+0	1.535812E+0	1.577531E+0	1.601346E+0	1.559849E+0	1.622367E+0	1.581370E+0	1.585348E+0	1.566908E+0	1.595721E+0	1.565178E+0	1.530533E+0	1.585095E+0	1.529515E+0	1.591795E+0	1.612370E+0	1.575947E+0	1.542388E+0	1.610313E+0	1.580982E+0	1.602141E+0	1.567328E+0	1.571730E+0	1.602599E+0	1.616877E+0	1.559631E+0	1.606386E+0	1.562606E+0	1.599134E+0	1.583583E+0	1.542558E+0	1.581704E+0	1.577644E+0	1.561868E+0	1.614015E+0	1.580369E+0	1.538793E+0	1.603750E+0	1.530112E+0	1.635533E+0	1.551149E+0	1.581923E+0	1.556761E+0	1.577432E+0	1.570869E+0	1.488239E+0	1.537499E+0	1.601265E+0	1.584129E+0	1.515394E+0	1.589168E+0	1.573339E+0	1.555204E+0	1.617221E+0	1.549754E+0	1.597158E+0	1.591328E+0	1.562582E+0	1.529105E+0	1.611563E+0	1.635512E+0	1.496295E+0	1.513889E+0	1.627798E+0	1.514249E+0	1.617879E+0	1.548525E+0
5.412640E+2	1.561455E+0	1.583421E+0	1.492710E+0	1.627315E+0	1.596937E+0	1.602220E+0	1.623550E+0	1.581152E+0	1.578577E+0	1.577219E+0	1.554060E+0	1.601466E+0	1.579791E+0	1.586312E+0	1.543231E+0	1.578055E+0	1.594452E+0	1.601210E+0	1.591839E+0	1.562487E+0	1.609291E+0	1.631678E+0	1.606586E+0	1.593059E+0	1.511487E+0	1.570782E+0	1.508505E+0	1.619892E+0	1.525121E+0	1.608211E+0	1.562813E+0	1.581334E+0	1.537371E+0	1.639448E+0	1.589680E+0	1.535853E+0	1.588792E+0	1.528628E+0	1.591946E+0	1.564456E+0	1.563198E+0	1.517318E+0	1.547542E+0	1.578743E+0	1.588048E+0	1.631020E+0	1.595237E+0	1.525272E+0	1.512853E+0	1.571961E+0	1.589476E+0	1.499044E+0	1.547148E+0	1.518267E+0	1.570041E+0	1.654743E+0	1.568557E+0	1.590428E+0	1.556328E+0	1.515940E+0	1.629136E+0	1.515265E+0	1.611629E+0	1.494247E+0	1.565480E+0	1.537618E+0	1.592504E+0	1.561025E+0	1.543086E+0	1.560371E+0	1.608942E+0	1.590800E+0	1.535103E+0	1.541141E+0	1.603594E+0	1.559969E+0	1.528543E+0	1.625046E+0	1.553506E+0	1.568699E+0	1.545171E+0	1.553198E+0	1.551679E+0	1.514915E+0	1.540022E+0	1.518747E+0	1.541738E+0	1.582289E+0	1.534769E+0	1.515301E+0	1.524998E+0	1.604422E+0	1.550093E+0	1.569654E+0	1.526282E+0	1.488076E+0	1.589362E+0	1.519247E+0	1.579437E+0	1.601573E+0	1.533675E+0	1.537676E+0	1.552679E+0	1.542511E+0	1.545077E+0	1.517679E+0	1.559631E+0	1.536949E+0	1.465261E+0	1.581172E+0	1.563072E+0	1.506395E+0	1.512856E+0	1.592899E+0	1.549104E+0	1.553683E+0	1.476584E+0	1.637115E+0	1.520908E+0	1.633975E+0	1.509545E+0	1.548845E+0	1.531361E+0	1.606793E+0	1.537764E+0	1.582130E+0	1.480430E+0	1.554995E+0	1.560665E+0	1.534354E+0	1.553259E+0	1.595647E+0	1.570978E+0	1.567991E+0	1.538103E+0	1.573128E+0	1.547586E+0	1.591114E+0	1.567073E+0	1.514570E+0	1.492862E+0	1.582573E+0	1.518686E+0	1.545913E+0	1.553582E+0	1.552382E+0	1.588102E+0	1.541179E+0	1.514723E+0	1.570227E+0	1.542264E+0	1.555261E+0	1.584982E+0	1.636981E+0	1.551973E+0	1.543163E+0	1.604314E+0	1.543027E+0	1.521089E+0	1.594960E+0	1.522033E+0	1.489339E+0	1.552877E+0	1.537641E+0	1.612907E+0	1.565019E+0	1.537947E+0	1.533779E+0	1.553056E+0	1.557762E+0	1.542287E+0
5.415190E+2	1.479667E+0	1.543279E+0	1.450277E+0	1.509667E+0	1.462955E+0	1.459846E+0	1.501673E+0	1.497350E+0	1.446517E+0	1.538168E+0	1.479226E+0	1.511101E+0	1.508788E+0	1.500725E+0	1.427336E+0	1.469547E+0	1.432256E+0	1.457275E+0	1.443765E+0	1.473736E+0	1.457493E+0	1.504925E+0	1.402311E+0	1.461517E+0	1.480064E+0	1.451310E+0	1.478617E+0	1.482973E+0	1.397215E+0	1.462656E+0	1.551343E+0	1.395699E+0	1.480540E+0	1.514400E+0	1.469964E+0	1.430940E+0	1.520525E+0	1.501466E+0	1.432363E+0	1.493282E+0	1.472208E+0	1.444422E+0	1.435741E+0	1.473146E+0	1.441267E+0	1.532961E+0	1.502096E+0	1.437616E+0	1.488498E+0	1.475504E+0	1.480206E+0	1.455257E+0	1.439216E+0	1.483560E+0	1.468498E+0	1.429637E+0	1.498579E+0	1.482730E+0	1.500744E+0	1.414911E+0	1.496261E+0	1.493417E+0	1.455948E+0	1.379798E+0	1.518663E+0	1.495452E+0	1.432732E+0	1.427793E+0	1.423710E+0	1.502642E+0	1.437804E+0	1.549514E+0	1.464257E+0	1.482499E+0	1.483721E+0	1.454613E+0	1.517309E+0	1.467295E+0	1.401883E+0	1.451206E+0	1.535282E+0	1.527700E+0	1.497917E+0	1.440365E+0	1.466895E+0	1.473407E+0	1.443006E+0	1.500269E+0	1.459781E+0	1.446947E+0	1.436232E+0	1.495437E+0	1.395182E+0	1.469365E+0	1.411727E+0	1.483795E+0	1.456872E+0	1.430983E+0	1.464980E+0	1.506494E+0	1.421475E+0	1.425716E+0	1.486213E+0	1.440431E+0	1.499896E+0	1.401939E+0	1.445175E+0	1.491743E+0	1.455234E+0	1.408122E+0	1.488782E+0	1.472950E+0	1.457768E+0	1.489893E+0	1.428819E+0	1.441455E+0	1.408225E+0	1.457548E+0	1.444468E+0	1.516388E+0	1.436083E+0	1.423813E+0	1.493937E+0	1.472032E+0	1.502615E+0	1.538095E+0	1.469159E+0	1.426366E+0	1.449523E+0	1.403313E+0	1.490688E+0	1.466239E+0	1.500182E+0	1.435897E+0	1.439016E+0	1.469650E+0	1.434356E+0	1.468462E+0	1.469422E+0	1.515772E+0	1.433990E+0	1.462223E+0	1.427628E+0	1.472104E+0	1.385919E+0	1.413079E+0	1.426618E+0	1.537356E+0	1.434525E+0	1.471717E+0	1.385286E+0	1.523316E+0	1.418790E+0	1.485309E+0	1.420471E+0	1.444211E+0	1.461521E+0	1.457380E+0	1.440814E+0	1.422478E+0	1.451295E+0	1.465152E+0	1.467684E+0	1.450962E+0	1.462191E+0	1.437178E+0	1.411158E+0	1.519295E+0	1.405778E+0	1.491789E+0	1.558115E+0
5.417650E+2	1.259699E+0	1.373021E+0	1.306052E+0	1.268129E+0	1.273988E+0	1.329989E+0	1.279984E+0	1.285970E+0	1.288552E+0	1.262772E+0	1.290243E+0	1.342672E+0	1.296306E+0	1.301388E+0	1.312923E+0	1.270433E+0	1.354097E+0	1.321971E+0	1.298991E+0	1.261088E+0	1.336876E+0	1.299967E+0	1.318228E+0	1.301037E+0	1.298077E+0	1.258340E+0	1.337264E+0	1.271133E+0	1.329772E+0	1.339076E+0	1.324423E+0	1.332433E+0	1.286131E+0	1.345872E+0	1.344015E+0	1.290372E+0	1.263461E+0	1.291882E+0	1.281397E+0	1.320181E+0	1.300821E+0	1.327324E+0	1.339497E+0	1.343139E+0	1.266998E+0	1.348341E+0	1.313098E+0	1.289403E+0	1.315330E+0	1.275977E+0	1.287420E+0	1.305417E+0	1.237942E+0	1.286759E+0	1.291602E+0	1.324199E+0	1.300387E+0	1.335316E+0	1.293301E+0	1.244887E+0	1.316737E+0	1.291149E+0	1.345802E+0	1.242688E+0	1.312786E+0	1.312691E+0	1.336943E+0	1.260281E+0	1.278472E+0	1.312722E+0	1.308448E+0	1.322029E+0	1.355156E+0	1.360521E+0	1.287449E+0	1.299310E+0	1.313995E+0	1.357661E+0	1.277652E+0	1.224659E+0	1.336252E+0	1.295671E+0	1.312483E+0	1.252415E+0	1.308145E+0	1.282501E+0	1.320811E+0	1.253003E+0	1.296585E+0	1.314077E+0	1.324979E+0	1.323919E+0	1.304507E+0	1.286168E+0	1.283233E+0	1.305608E+0	1.308811E+0	1.240457E+0	1.321123E+0	1.269684E+0	1.212718E+0	1.253504E+0	1.314811E+0	1.313321E+0	1.281267E+0	1.260517E+0	1.296161E+0	1.342321E+0	1.299752E+0	1.308499E+0	1.320004E+0	1.282190E+0	1.308542E+0	1.319912E+0	1.239752E+0	1.280575E+0	1.305757E+0	1.317093E+0	1.273238E+0	1.347970E+0	1.264137E+0	1.263388E+0	1.309813E+0	1.324016E+0	1.340139E+0	1.300631E+0	1.297440E+0	1.386079E+0	1.306697E+0	1.238900E+0	1.272903E+0	1.304820E+0	1.313453E+0	1.277480E+0	1.288804E+0	1.341085E+0	1.305761E+0	1.341882E+0	1.272073E+0	1.305183E+0	1.289761E+0	1.375970E+0	1.267081E+0	1.322302E+0	1.341243E+0	1.273403E+0	1.324814E+0	1.373870E+0	1.354043E+0	1.269066E+0	1.321854E+0	1.305805E+0	1.284884E+0	1.269125E+0	1.331446E+0	1.257127E+0	1.352742E+0	1.339898E+0	1.278047E+0	1.224397E+0	1.296382E+0	1.299844E+0	1.270351E+0	1.314126E+0	1.255098E+0	1.271606E+0	1.297007E+0	1.280105E+0	1.299687E+0	1.382692E+0	1.315900E+0
5.420160E+2	1.160003E+0	1.170349E+0	1.101014E+0	1.148128E+0	1.103851E+0	1.143994E+0	1.182699E+0	1.117753E+0	1.152916E+0	1.182936E+0	1.163777E+0	1.173429E+0	1.198901E+0	1.175473E+0	1.131392E+0	1.092042E+0	1.176896E+0	1.158941E+0	1.162585E+0	1.156784E+0	1.123978E+0	1.164884E+0	1.223360E+0	1.147500E+0	1.131717E+0	1.120157E+0	1.124465E+0	1.172951E+0	1.133609E+0	1.129477E+0	1.101130E+0	1.164992E+0	1.096304E+0	1.179188E+0	1.165004E+0	1.128233E+0	1.171920E+0	1.145032E+0	1.163549E+0	1.098859E+0	1.147277E+0	1.125796E+0	1.138673E+0	1.149778E+0	1.125037E+0	1.151092E+0	1.154816E+0	1.138487E+0	1.131644E+0	1.137695E+0	1.138539E+0	1.150720E+0	1.108334E+0	1.079070E+0	1.153293E+0	1.144162E+0	1.187214E+0	1.199484E+0	1.117870E+0	1.122512E+0	1.140297E+0	1.180245E+0	1.170199E+0	1.118769E+0	1.180564E+0	1.148203E+0	1.173416E+0	1.186156E+0	1.118651E+0	1.157188E+0	1.126553E+0	1.150600E+0	1.252015E+0	1.156324E+0	1.137457E+0	1.135865E+0	1.135623E+0	1.147319E+0	1.121410E+0	1.066959E+0	1.165340E+0	1.173019E+0	1.177350E+0	1.092827E+0	1.166150E+0	1.175842E+0	1.204556E+0	1.111917E+0	1.114621E+0	1.125589E+0	1.146463E+0	1.161606E+0	1.155718E+0	1.147519E+0	1.143185E+0	1.153623E+0	1.209322E+0	1.132302E+0	1.173261E+0	1.173777E+0	1.165751E+0	1.124247E+0	1.158987E+0	1.106209E+0	1.149737E+0	1.118367E+0	1.163196E+0	1.209734E+0	1.144857E+0	1.168048E+0	1.149928E+0	1.111107E+0	1.172913E+0	1.219458E+0	1.102763E+0	1.106877E+0	1.129746E+0	1.114232E+0	1.121986E+0	1.185209E+0	1.120660E+0	1.124838E+0	1.131362E+0	1.071487E+0	1.181080E+0	1.158465E+0	1.162100E+0	1.073721E+0	1.181437E+0	1.121665E+0	1.152115E+0	1.149375E+0	1.141914E+0	1.139093E+0	1.110899E+0	1.201378E+0	1.145460E+0	1.107353E+0	1.210932E+0	1.183316E+0	1.129320E+0	1.176289E+0	1.124885E+0	1.175132E+0	1.158083E+0	1.138869E+0	1.163581E+0	1.101243E+0	1.115437E+0	1.179239E+0	1.112288E+0	1.101694E+0	1.103574E+0	1.175811E+0	1.176880E+0	1.200655E+0	1.207989E+0	1.148683E+0	1.159251E+0	1.136212E+0	1.169195E+0	1.171792E+0	1.152043E+0	1.153329E+0	1.131538E+0	1.145494E+0	1.181520E+0	1.176685E+0	1.106203E+0	1.194698E+0	1.131286E+0
5.422890E+2	9.869297E-1	1.021684E+0	9.530224E-1	1.040966E+0	9.361729E-1	9.853576E-1	1.000168E+0	9.632345E-1	9.647621E-1	9.962211E-1	9.872797E-1	9.881201E-1	1.024107E+0	9.979193E-1	1.007770E+0	9.679484E-1	9.785177E-1	9.819507E-1	9.849071E-1	9.883271E-1	9.537007E-1	9.817115E-1	1.018938E+0	9.965250E-1	9.846850E-1	9.867045E-1	9.261475E-1	9.729865E-1	1.004147E+0	1.044011E+0	9.982048E-1	9.932677E-1	1.037517E+0	1.060313E+0	9.707096E-1	9.710097E-1	1.042087E+0	9.814800E-1	9.641136E-1	9.757531E-1	9.603012E-1	9.786246E-1	1.044210E+0	1.008360E+0	9.677855E-1	1.031254E+0	1.007356E+0	1.009568E+0	9.793903E-1	9.569996E-1	9.900616E-1	9.763813E-1	9.617435E-1	9.890795E-1	1.024263E+0	9.014873E-1	1.004353E+0	9.949683E-1	9.588208E-1	1.002940E+0	9.632828E-1	9.885340E-1	1.010867E+0	9.547138E-1	1.008359E+0	9.735441E-1	1.010235E+0	9.115856E-1	9.869252E-1	9.727238E-1	1.001073E+0	1.004915E+0	9.877461E-1	9.934045E-1	1.004478E+0	1.000684E+0	9.913227E-1	9.650059E-1	1.007064E+0	9.290710E-1	9.695030E-1	9.622451E-1	1.004929E+0	9.590438E-1	1.015525E+0	9.871897E-1	9.927087E-1	9.713675E-1	1.004351E+0	1.045830E+0	9.313438E-1	1.012436E+0	9.858570E-1	1.040925E+0	9.981969E-1	1.003051E+0	9.314684E-1	9.604263E-1	1.015849E+0	9.732474E-1	9.929983E-1	9.983051E-1	9.620718E-1	1.013880E+0	1.006577E+0	1.005462E+0	9.960871E-1	1.025836E+0	9.881975E-1	1.013317E+0	9.341148E-1	9.998324E-1	9.092131E-1	1.006291E+0	9.989091E-1	9.494317E-1	9.698604E-1	9.709305E-1	9.308372E-1	9.863055E-1	9.575637E-1	9.713072E-1	9.823251E-1	9.299589E-1	9.786226E-1	9.774373E-1	9.556693E-1	9.555549E-1	9.784336E-1	9.837202E-1	9.943350E-1	9.741844E-1	9.616606E-1	1.008621E+0	9.312916E-1	9.888496E-1	9.900535E-1	1.028472E+0	9.585513E-1	9.445890E-1	9.738137E-1	1.010074E+0	9.769563E-1	9.908551E-1	9.611296E-1	1.032067E+0	9.757957E-1	1.007075E+0	9.017121E-1	9.879571E-1	9.605504E-1	9.994816E-1	1.010806E+0	9.955992E-1	9.786147E-1	9.802803E-1	1.012673E+0	1.021629E+0	9.794862E-1	1.044604E+0	1.011430E+0	9.549812E-1	9.757870E-1	1.009909E+0	1.000948E+0	9.736140E-1	9.759746E-1	9.411478E-1	9.581658E-1	1.033826E+0	1.001976E+0
5.425300E+2	9.287981E-1	1.007701E+0	9.371950E-1	1.028434E+0	9.959375E-1	9.626904E-1	9.866323E-1	9.978444E-1	9.766487E-1	9.609598E-1	1.013751E+0	9.714843E-1	1.004881E+0	1.021230E+0	9.689423E-1	9.799332E-1	9.484196E-1	9.569937E-1	9.509633E-1	9.907504E-1	9.620583E-1	9.943812E-1	9.899131E-1	1.001722E+0	9.865298E-1	9.711560E-1	9.859513E-1	9.960660E-1	9.594786E-1	9.729444E-1	9.973458E-1	9.854663E-1	1.015294E+0	1.023262E+0	1.012196E+0	9.786602E-1	1.033823E+0	9.943250E-1	9.911689E-1	9.602289E-1	1.020324E+0	9.639046E-1	1.001897E+0	1.000299E+0	1.032253E+0	1.008782E+0	1.012549E+0	9.269293E-1	9.936302E-1	9.886120E-1	9.890752E-1	9.752116E-1	9.629142E-1	9.307128E-1	9.702422E-1	9.770996E-1	9.523056E-1	9.996632E-1	9.723333E-1	9.411229E-1	9.468729E-1	1.020810E+0	9.878126E-1	9.565534E-1	1.021963E+0	9.653297E-1	9.676832E-1	9.473433E-1	9.815596E-1	9.922564E-1	9.951175E-1	9.749352E-1	9.944020E-1	1.005175E+0	9.556908E-1	9.619540E-1	1.039213E+0	9.983445E-1	9.177981E-1	9.094554E-1	1.026601E+0	9.455353E-1	1.014297E+0	9.477415E-1	9.992644E-1	9.578359E-1	9.701223E-1	9.636502E-1	9.517867E-1	9.913706E-1	9.606251E-1	9.858238E-1	9.898625E-1	1.016217E+0	9.767619E-1	1.007887E+0	1.001511E+0	9.827559E-1	9.567042E-1	9.534353E-1	9.431599E-1	9.686387E-1	9.916146E-1	9.904340E-1	9.786272E-1	9.546767E-1	9.568501E-1	9.574756E-1	9.809889E-1	9.772793E-1	9.538135E-1	1.033801E+0	1.004348E+0	9.958089E-1	9.946116E-1	1.021657E+0	9.872538E-1	1.048964E+0	9.962047E-1	9.497526E-1	9.993482E-1	9.502400E-1	9.182820E-1	9.751110E-1	9.945111E-1	9.795966E-1	9.824160E-1	9.100106E-1	9.585326E-1	9.317853E-1	9.698484E-1	9.715426E-1	1.001248E+0	9.969252E-1	9.943354E-1	9.574861E-1	9.796607E-1	1.003745E+0	1.036002E+0	9.645380E-1	9.771722E-1	1.013815E+0	9.814132E-1	1.021703E+0	1.012744E+0	1.018984E+0	9.631490E-1	9.682947E-1	1.014409E+0	9.428216E-1	1.017195E+0	9.775837E-1	1.041248E+0	9.762680E-1	9.671131E-1	9.556130E-1	1.003922E+0	9.802460E-1	1.010156E+0	9.060417E-1	1.010698E+0	9.821810E-1	9.971781E-1	1.010754E+0	1.001511E+0	9.645172E-1	9.902430E-1	9.901591E-1	9.650135E-1	9.778586E-1	9.286971E-1
5.427650E+2	9.294524E-1	9.409789E-1	9.757620E-1	9.757532E-1	9.625874E-1	9.384677E-1	1.013428E+0	9.684761E-1	1.018109E+0	9.979612E-1	9.445037E-1	1.007950E+0	9.665671E-1	9.758422E-1	9.873747E-1	9.594664E-1	9.620774E-1	1.022849E+0	9.229367E-1	9.659333E-1	9.075062E-1	1.004845E+0	1.018263E+0	1.008287E+0	9.955506E-1	1.034378E+0	9.729341E-1	9.936394E-1	1.049965E+0	1.007719E+0	1.003138E+0	9.673996E-1	9.966109E-1	1.000801E+0	1.019555E+0	9.715351E-1	9.452584E-1	9.601863E-1	1.003547E+0	1.008436E+0	1.028500E+0	9.993922E-1	1.049157E+0	9.468531E-1	9.581028E-1	1.006434E+0	1.030413E+0	9.581991E-1	9.694316E-1	9.695570E-1	9.505231E-1	9.875409E-1	9.832074E-1	9.861001E-1	9.793618E-1	9.584956E-1	1.041340E+0	1.020633E+0	9.380814E-1	9.197211E-1	1.004318E+0	1.006225E+0	9.738525E-1	9.809233E-1	1.003808E+0	9.966597E-1	9.672200E-1	9.546740E-1	9.442985E-1	9.661725E-1	9.962687E-1	1.003400E+0	9.679029E-1	9.623225E-1	9.526600E-1	9.610183E-1	1.022438E+0	1.012596E+0	1.015219E+0	9.177887E-1	9.543656E-1	9.380114E-1	9.828299E-1	9.560747E-1	9.750990E-1	9.874707E-1	1.031163E+0	9.560780E-1	1.016317E+0	9.771340E-1	9.844743E-1	9.369887E-1	1.003448E+0	9.375863E-1	9.721375E-1	9.797759E-1	9.388711E-1	9.994359E-1	1.026857E+0	9.681369E-1	9.910439E-1	9.904617E-1	9.957206E-1	1.010985E+0	9.771139E-1	1.016092E+0	9.793900E-1	9.784285E-1	9.837926E-1	9.384366E-1	9.439418E-1	9.679370E-1	9.536381E-1	1.035095E+0	9.674390E-1	9.807080E-1	1.009928E+0	9.707845E-1	9.698389E-1	9.900155E-1	9.475495E-1	9.748239E-1	9.319231E-1	9.691098E-1	9.689406E-1	9.778093E-1	9.801279E-1	9.544458E-1	1.000136E+0	9.905733E-1	9.634949E-1	9.558377E-1	9.869493E-1	9.556817E-1	9.866940E-1	9.708651E-1	1.021784E+0	9.351408E-1	1.002139E+0	9.672084E-1	9.797913E-1	9.705286E-1	1.014774E+0	1.009915E+0	9.981045E-1	9.867165E-1	9.978772E-1	1.011357E+0	9.740267E-1	9.936528E-1	9.981475E-1	1.031966E+0	1.022768E+0	1.003451E+0	9.996552E-1	9.678326E-1	9.829701E-1	9.722098E-1	9.946993E-1	9.890868E-1	9.921869E-1	9.855270E-1	9.897746E-1	9.584240E-1	1.011634E+0	9.640510E-1	9.515916E-1	9.766483E-1	9.057406E-1	9.544275E-1	9.892855E-1
5.430170E+2	1.055890E+0	1.080390E+0	1.066179E+0	1.119139E+0	1.089283E+0	1.125533E+0	1.102021E+0	1.082561E+0	1.077300E+0	1.119670E+0	1.058445E+0	1.181251E+0	1.091384E+0	1.078892E+0	1.101883E+0	1.096790E+0	1.116103E+0	1.128538E+0	1.114168E+0	1.071797E+0	1.089618E+0	1.106812E+0	1.153392E+0	1.117257E+0	1.096459E+0	1.108730E+0	1.080001E+0	1.103899E+0	1.146293E+0	1.135776E+0	1.086855E+0	1.087627E+0	1.146615E+0	1.115678E+0	1.088733E+0	1.070916E+0	1.124731E+0	1.159882E+0	1.097684E+0	1.155910E+0	1.120523E+0	1.143499E+0	1.115214E+0	1.134842E+0	1.151269E+0	1.103674E+0	1.118438E+0	1.047025E+0	1.166434E+0	1.086082E+0	1.127024E+0	1.072709E+0	1.056029E+0	1.063612E+0	1.106548E+0	1.097669E+0	1.101503E+0	1.101610E+0	1.088810E+0	1.051167E+0	1.122652E+0	1.109467E+0	1.132869E+0	1.024944E+0	1.142727E+0	1.071296E+0	1.089973E+0	1.082485E+0	1.080404E+0	1.079514E+0	1.060971E+0	1.107496E+0	1.111262E+0	1.096844E+0	1.089918E+0	1.094364E+0	1.120188E+0	1.141712E+0	1.068678E+0	1.076493E+0	1.129053E+0	1.075348E+0	1.113286E+0	1.091940E+0	1.131352E+0	1.095393E+0	1.114831E+0	1.076701E+0	1.057843E+0	1.091410E+0	1.076006E+0	1.119445E+0	1.148414E+0	1.132009E+0	1.121719E+0	1.094985E+0	1.106536E+0	1.081504E+0	1.146132E+0	1.097441E+0	1.113431E+0	1.100855E+0	1.099399E+0	1.118979E+0	1.112766E+0	1.106465E+0	1.101759E+0	1.125721E+0	1.091688E+0	1.068019E+0	1.133755E+0	1.076725E+0	1.132738E+0	1.143854E+0	1.084663E+0	1.113029E+0	1.098799E+0	1.115085E+0	1.082570E+0	1.079421E+0	1.073926E+0	1.085411E+0	1.109165E+0	1.118425E+0	1.053947E+0	1.123505E+0	1.115152E+0	1.115132E+0	1.064586E+0	1.109581E+0	1.088854E+0	1.092917E+0	1.133667E+0	1.057878E+0	1.062201E+0	1.078586E+0	1.155972E+0	1.120827E+0	1.124636E+0	1.032809E+0	1.098820E+0	1.088272E+0	1.092093E+0	1.122648E+0	1.076847E+0	1.161946E+0	1.097355E+0	1.072127E+0	1.069829E+0	1.069435E+0	1.062775E+0	1.098298E+0	1.122340E+0	1.070188E+0	1.079207E+0	1.146879E+0	1.096066E+0	1.077289E+0	1.138903E+0	1.090769E+0	1.102124E+0	1.112632E+0	1.090069E+0	1.111036E+0	1.076263E+0	1.077374E+0	1.053432E+0	1.109332E+0	1.094468E+0	1.103228E+0	1.023595E+0
5.432960E+2	1.264533E+0	1.263440E+0	1.228716E+0	1.311698E+0	1.228252E+0	1.263907E+0	1.223864E+0	1.254585E+0	1.235101E+0	1.271598E+0	1.208950E+0	1.279988E+0	1.243151E+0	1.256401E+0	1.303726E+0	1.246359E+0	1.259086E+0	1.244024E+0	1.305861E+0	1.166430E+0	1.233922E+0	1.283471E+0	1.309432E+0	1.293768E+0	1.249070E+0	1.279744E+0	1.300864E+0	1.268593E+0	1.275901E+0	1.248511E+0	1.194945E+0	1.263183E+0	1.276501E+0	1.293891E+0	1.242834E+0	1.207873E+0	1.252115E+0	1.243105E+0	1.216936E+0	1.267498E+0	1.240201E+0	1.223476E+0	1.265154E+0	1.270925E+0	1.196702E+0	1.244527E+0	1.250534E+0	1.239222E+0	1.287270E+0	1.192611E+0	1.285005E+0	1.234125E+0	1.230601E+0	1.231760E+0	1.205259E+0	1.289080E+0	1.234488E+0	1.277311E+0	1.189814E+0	1.248513E+0	1.266421E+0	1.260906E+0	1.223654E+0	1.228870E+0	1.281378E+0	1.249927E+0	1.265217E+0	1.236955E+0	1.247374E+0	1.285303E+0	1.212944E+0	1.279752E+0	1.259827E+0	1.251083E+0	1.234401E+0	1.272023E+0	1.237820E+0	1.259702E+0	1.222221E+0	1.227996E+0	1.258281E+0	1.178436E+0	1.340863E+0	1.228912E+0	1.218910E+0	1.268078E+0	1.265951E+0	1.231719E+0	1.311538E+0	1.247928E+0	1.253528E+0	1.271742E+0	1.243738E+0	1.282725E+0	1.277763E+0	1.239997E+0	1.211430E+0	1.215351E+0	1.274802E+0	1.191915E+0	1.247669E+0	1.269351E+0	1.264870E+0	1.243637E+0	1.210221E+0	1.229852E+0	1.248367E+0	1.233513E+0	1.242288E+0	1.242742E+0	1.281741E+0	1.182889E+0	1.274936E+0	1.244599E+0	1.231162E+0	1.253085E+0	1.244096E+0	1.242653E+0	1.230482E+0	1.226266E+0	1.215346E+0	1.283774E+0	1.231168E+0	1.215493E+0	1.234208E+0	1.234059E+0	1.248208E+0	1.210732E+0	1.280766E+0	1.239859E+0	1.219493E+0	1.209378E+0	1.283397E+0	1.222829E+0	1.237457E+0	1.250067E+0	1.246942E+0	1.230287E+0	1.277532E+0	1.221244E+0	1.192055E+0	1.271062E+0	1.222589E+0	1.202110E+0	1.255716E+0	1.270847E+0	1.211027E+0	1.169502E+0	1.230618E+0	1.246096E+0	1.221170E+0	1.187195E+0	1.234065E+0	1.165201E+0	1.231809E+0	1.315750E+0	1.237671E+0	1.290617E+0	1.233770E+0	1.194916E+0	1.251145E+0	1.206249E+0	1.295006E+0	1.271311E+0	1.192990E+0	1.303679E+0	1.200817E+0	1.280338E+0	1.166529E+0	1.208786E+0	1.291138E+0
5.435220E+2	1.316607E+0	1.317823E+0	1.334738E+0	1.379599E+0	1.288039E+0	1.319612E+0	1.357714E+0	1.353188E+0	1.331533E+0	1.366820E+0	1.396425E+0	1.303007E+0	1.415384E+0	1.353429E+0	1.330119E+0	1.311832E+0	1.309314E+0	1.417401E+0	1.315952E+0	1.337818E+0	1.321057E+0	1.347020E+0	1.374979E+0	1.312575E+0	1.320161E+0	1.322723E+0	1.288936E+0	1.346684E+0	1.287072E+0	1.311445E+0	1.311758E+0	1.284046E+0	1.294552E+0	1.432738E+0	1.387660E+0	1.366380E+0	1.341770E+0	1.297061E+0	1.319788E+0	1.274918E+0	1.326870E+0	1.360878E+0	1.396975E+0	1.344664E+0	1.283998E+0	1.374713E+0	1.352213E+0	1.383863E+0	1.365603E+0	1.304415E+0	1.344890E+0	1.322010E+0	1.320966E+0	1.279748E+0	1.316711E+0	1.344424E+0	1.324008E+0	1.362690E+0	1.324778E+0	1.336718E+0	1.320182E+0	1.317224E+0	1.372618E+0	1.245742E+0	1.340376E+0	1.343675E+0	1.344735E+0	1.287046E+0	1.292792E+0	1.348827E+0	1.302849E+0	1.355678E+0	1.328515E+0	1.305634E+0	1.380290E+0	1.309540E+0	1.328307E+0	1.342471E+0	1.316221E+0	1.276169E+0	1.323354E+0	1.304097E+0	1.358592E+0	1.252817E+0	1.365896E+0	1.288021E+0	1.294533E+0	1.326737E+0	1.331916E+0	1.305595E+0	1.339738E+0	1.335340E+0	1.300816E+0	1.337964E+0	1.353299E+0	1.331060E+0	1.351621E+0	1.274642E+0	1.367536E+0	1.306928E+0	1.365705E+0	1.300526E+0	1.309305E+0	1.323043E+0	1.329607E+0	1.304045E+0	1.319697E+0	1.342006E+0	1.288929E+0	1.313409E+0	1.299916E+0	1.254069E+0	1.263412E+0	1.367892E+0	1.321247E+0	1.309286E+0	1.345265E+0	1.346225E+0	1.335312E+0	1.306448E+0	1.311770E+0	1.342247E+0	1.269430E+0	1.364582E+0	1.274918E+0	1.351112E+0	1.310122E+0	1.298830E+0	1.326874E+0	1.273223E+0	1.327035E+0	1.372830E+0	1.357790E+0	1.350479E+0	1.276465E+0	1.326710E+0	1.328194E+0	1.315520E+0	1.378147E+0	1.330345E+0	1.320262E+0	1.287061E+0	1.314460E+0	1.354573E+0	1.367506E+0	1.327082E+0	1.369525E+0	1.266437E+0	1.347735E+0	1.301753E+0	1.325983E+0	1.344119E+0	1.320304E+0	1.326260E+0	1.293651E+0	1.283220E+0	1.348401E+0	1.320667E+0	1.282472E+0	1.362654E+0	1.341974E+0	1.284964E+0	1.352773E+0	1.295595E+0	1.331995E+0	1.335894E+0	1.355706E+0	1.287506E+0	1.280975E+0	1.362788E+0	1.385459E+0
5.437910E+2	1.553022E+0	1.546620E+0	1.564563E+0	1.506851E+0	1.566371E+0	1.561967E+0	1.553067E+0	1.534465E+0	1.579244E+0	1.578600E+0	1.587474E+0	1.580900E+0	1.518998E+0	1.577321E+0	1.577294E+0	1.579034E+0	1.571879E+0	1.532076E+0	1.542515E+0	1.535548E+0	1.598791E+0	1.542145E+0	1.589487E+0	1.561316E+0	1.535197E+0	1.545904E+0	1.544016E+0	1.581794E+0	1.564324E+0	1.594766E+0	1.593124E+0	1.565792E+0	1.573133E+0	1.567626E+0	1.611529E+0	1.555268E+0	1.519406E+0	1.521910E+0	1.547844E+0	1.558951E+0	1.608689E+0	1.544196E+0	1.563649E+0	1.570685E+0	1.556746E+0	1.626159E+0	1.570689E+0	1.528012E+0	1.548477E+0	1.503554E+0	1.588189E+0	1.544658E+0	1.572952E+0	1.589771E+0	1.599454E+0	1.527626E+0	1.577433E+0	1.571960E+0	1.488730E+0	1.509462E+0	1.593110E+0	1.587179E+0	1.550721E+0	1.557974E+0	1.553012E+0	1.523378E+0	1.557647E+0	1.553858E+0	1.506702E+0	1.471353E+0	1.562178E+0	1.561253E+0	1.614747E+0	1.575679E+0	1.536603E+0	1.556390E+0	1.569513E+0	1.589441E+0	1.542077E+0	1.554039E+0	1.543226E+0	1.499104E+0	1.528208E+0	1.543459E+0	1.586197E+0	1.544896E+0	1.549524E+0	1.510591E+0	1.487752E+0	1.574520E+0	1.530002E+0	1.633071E+0	1.511808E+0	1.504848E+0	1.551078E+0	1.537851E+0	1.557257E+0	1.513878E+0	1.560764E+0	1.524325E+0	1.515181E+0	1.549314E+0	1.525490E+0	1.571177E+0	1.553077E+0	1.526335E+0	1.562771E+0	1.544662E+0	1.581902E+0	1.474201E+0	1.525812E+0	1.510231E+0	1.609785E+0	1.567468E+0	1.496031E+0	1.527071E+0	1.518048E+0	1.530911E+0	1.526599E+0	1.532445E+0	1.501106E+0	1.504899E+0	1.549537E+0	1.535584E+0	1.548543E+0	1.534472E+0	1.536105E+0	1.502205E+0	1.531829E+0	1.506961E+0	1.464693E+0	1.508364E+0	1.528002E+0	1.531177E+0	1.479441E+0	1.540979E+0	1.556263E+0	1.560521E+0	1.534988E+0	1.491930E+0	1.530088E+0	1.585623E+0	1.544270E+0	1.551036E+0	1.571091E+0	1.587386E+0	1.532374E+0	1.551760E+0	1.492705E+0	1.531468E+0	1.600821E+0	1.494443E+0	1.528725E+0	1.571684E+0	1.562134E+0	1.523261E+0	1.550540E+0	1.557993E+0	1.509804E+0	1.524580E+0	1.538949E+0	1.526950E+0	1.505551E+0	1.536914E+0	1.472781E+0	1.556451E+0	1.543851E+0	1.461764E+0	1.632243E+0	1.551027E+0	1.507745E+0
5.440170E+2	1.541510E+0	1.625324E+0	1.588410E+0	1.608217E+0	1.612056E+0	1.594357E+0	1.628220E+0	1.544066E+0	1.665008E+0	1.647240E+0	1.640788E+0	1.714669E+0	1.572581E+0	1.660520E+0	1.646470E+0	1.527134E+0	1.561481E+0	1.617025E+0	1.627015E+0	1.569663E+0	1.591768E+0	1.599936E+0	1.598864E+0	1.554661E+0	1.604285E+0	1.601868E+0	1.580543E+0	1.611644E+0	1.563334E+0	1.597221E+0	1.556932E+0	1.514804E+0	1.606796E+0	1.635236E+0	1.609570E+0	1.576931E+0	1.565130E+0	1.560724E+0	1.611752E+0	1.646033E+0	1.661020E+0	1.607484E+0	1.586104E+0	1.628908E+0	1.569793E+0	1.584310E+0	1.558835E+0	1.526621E+0	1.605834E+0	1.555875E+0	1.635482E+0	1.577532E+0	1.599031E+0	1.581254E+0	1.625538E+0	1.559728E+0	1.636235E+0	1.614544E+0	1.521118E+0	1.535919E+0	1.579114E+0	1.576467E+0	1.557832E+0	1.559834E+0	1.585425E+0	1.544861E+0	1.547918E+0	1.598544E+0	1.563121E+0	1.541235E+0	1.529344E+0	1.527805E+0	1.604591E+0	1.620877E+0	1.602652E+0	1.535052E+0	1.621037E+0	1.640217E+0	1.588094E+0	1.541468E+0	1.630836E+0	1.601754E+0	1.620812E+0	1.484112E+0	1.548809E+0	1.545429E+0	1.558148E+0	1.565205E+0	1.587643E+0	1.631868E+0	1.559838E+0	1.627580E+0	1.535438E+0	1.599404E+0	1.536429E+0	1.634862E+0	1.598537E+0	1.552609E+0	1.582021E+0	1.570011E+0	1.555500E+0	1.561635E+0	1.596991E+0	1.573066E+0	1.606596E+0	1.544715E+0	1.605710E+0	1.576063E+0	1.631009E+0	1.532290E+0	1.577401E+0	1.571370E+0	1.547674E+0	1.602441E+0	1.536229E+0	1.543962E+0	1.580084E+0	1.548123E+0	1.515054E+0	1.573229E+0	1.554233E+0	1.581286E+0	1.566351E+0	1.512810E+0	1.655898E+0	1.576177E+0	1.587915E+0	1.521276E+0	1.559742E+0	1.523187E+0	1.503786E+0	1.557876E+0	1.618182E+0	1.536269E+0	1.557147E+0	1.579622E+0	1.566232E+0	1.544779E+0	1.599982E+0	1.491765E+0	1.577127E+0	1.657203E+0	1.593584E+0	1.590717E+0	1.568471E+0	1.574069E+0	1.585891E+0	1.545698E+0	1.536753E+0	1.657671E+0	1.546460E+0	1.559098E+0	1.591929E+0	1.621726E+0	1.621056E+0	1.514564E+0	1.673378E+0	1.636640E+0	1.519615E+0	1.516846E+0	1.572346E+0	1.527131E+0	1.527391E+0	1.534465E+0	1.526008E+0	1.536037E+0	1.508514E+0	1.517345E+0	1.486672E+0	1.577440E+0	1.544881E+0
5.442590E+2	1.698588E+0	1.650527E+0	1.631158E+0	1.681816E+0	1.636581E+0	1.635131E+0	1.712916E+0	1.602490E+0	1.660009E+0	1.667262E+0	1.672319E+0	1.720129E+0	1.656864E+0	1.686712E+0	1.642475E+0	1.694747E+0	1.615751E+0	1.669497E+0	1.667445E+0	1.595989E+0	1.615246E+0	1.597513E+0	1.616013E+0	1.605158E+0	1.662137E+0	1.682020E+0	1.611258E+0	1.599282E+0	1.567531E+0	1.649560E+0	1.647740E+0	1.641809E+0	1.661535E+0	1.618505E+0	1.676406E+0	1.549573E+0	1.642898E+0	1.583617E+0	1.560639E+0	1.645207E+0	1.560802E+0	1.630562E+0	1.641621E+0	1.668835E+0	1.641799E+0	1.662280E+0	1.669499E+0	1.569784E+0	1.548729E+0	1.571513E+0	1.655822E+0	1.637145E+0	1.626242E+0	1.588913E+0	1.598473E+0	1.604754E+0	1.630491E+0	1.700002E+0	1.660668E+0	1.570077E+0	1.602126E+0	1.624971E+0	1.612609E+0	1.563033E+0	1.628450E+0	1.692795E+0	1.685445E+0	1.595392E+0	1.595042E+0	1.611120E+0	1.618778E+0	1.633711E+0	1.652599E+0	1.613636E+0	1.607208E+0	1.589658E+0	1.622014E+0	1.649733E+0	1.589620E+0	1.607680E+0	1.662056E+0	1.622753E+0	1.686645E+0	1.542762E+0	1.681942E+0	1.574074E+0	1.577104E+0	1.560610E+0	1.628097E+0	1.606835E+0	1.597047E+0	1.578403E+0	1.637558E+0	1.699558E+0	1.625027E+0	1.659053E+0	1.703721E+0	1.615474E+0	1.649217E+0	1.634220E+0	1.614005E+0	1.588570E+0	1.626081E+0	1.615663E+0	1.639201E+0	1.622355E+0	1.573794E+0	1.595284E+0	1.645049E+0	1.593996E+0	1.641173E+0	1.652938E+0	1.600353E+0	1.685546E+0	1.625227E+0	1.569024E+0	1.572922E+0	1.536715E+0	1.624493E+0	1.634795E+0	1.583625E+0	1.502705E+0	1.602108E+0	1.589406E+0	1.653992E+0	1.608756E+0	1.656390E+0	1.665736E+0	1.647354E+0	1.587131E+0	1.606282E+0	1.576870E+0	1.637948E+0	1.611412E+0	1.650859E+0	1.604467E+0	1.647277E+0	1.546059E+0	1.658631E+0	1.635845E+0	1.603651E+0	1.598735E+0	1.612661E+0	1.586108E+0	1.616671E+0	1.560692E+0	1.651632E+0	1.532603E+0	1.646374E+0	1.576545E+0	1.611678E+0	1.538600E+0	1.590992E+0	1.664917E+0	1.554264E+0	1.629764E+0	1.655867E+0	1.608331E+0	1.589988E+0	1.627526E+0	1.641049E+0	1.673101E+0	1.652780E+0	1.611046E+0	1.662245E+0	1.563663E+0	1.581056E+0	1.688714E+0	1.612434E+0	1.620586E+0	1.549075E+0
5.445180E+2	1.570112E+0	1.593309E+0	1.503864E+0	1.536370E+0	1.578529E+0	1.532731E+0	1.566056E+0	1.571797E+0	1.686088E+0	1.714802E+0	1.628461E+0	1.652442E+0	1.576203E+0	1.656481E+0	1.597492E+0	1.520307E+0	1.563667E+0	1.621299E+0	1.590416E+0	1.548494E+0	1.612111E+0	1.627558E+0	1.560002E+0	1.563730E+0	1.579577E+0	1.630963E+0	1.530309E+0	1.586131E+0	1.599950E+0	1.611345E+0	1.537114E+0	1.598005E+0	1.541035E+0	1.607049E+0	1.599422E+0	1.557328E+0	1.578902E+0	1.552954E+0	1.515031E+0	1.603446E+0	1.553689E+0	1.520820E+0	1.537817E+0	1.617238E+0	1.593037E+0	1.577904E+0	1.605246E+0	1.570156E+0	1.556698E+0	1.539980E+0	1.599959E+0	1.576612E+0	1.549525E+0	1.542839E+0	1.556844E+0	1.620394E+0	1.515348E+0	1.635648E+0	1.542785E+0	1.512561E+0	1.540656E+0	1.617041E+0	1.613553E+0	1.483783E+0	1.546104E+0	1.562631E+0	1.636776E+0	1.513193E+0	1.563863E+0	1.620131E+0	1.561654E+0	1.503790E+0	1.538559E+0	1.592255E+0	1.605467E+0	1.595338E+0	1.550931E+0	1.657869E+0	1.604340E+0	1.597914E+0	1.541188E+0	1.579187E+0	1.665114E+0	1.523896E+0	1.566500E+0	1.606108E+0	1.630930E+0	1.560040E+0	1.556784E+0	1.585132E+0	1.559304E+0	1.572286E+0	1.543424E+0	1.635176E+0	1.516399E+0	1.581786E+0	1.585683E+0	1.545179E+0	1.628402E+0	1.590681E+0	1.521561E+0	1.527186E+0	1.569234E+0	1.629626E+0	1.615145E+0	1.597502E+0	1.557698E+0	1.551329E+0	1.510647E+0	1.528912E+0	1.587556E+0	1.544661E+0	1.571684E+0	1.677715E+0	1.587188E+0	1.528796E+0	1.566251E+0	1.555555E+0	1.556123E+0	1.583213E+0	1.575024E+0	1.573386E+0	1.577429E+0	1.592532E+0	1.554011E+0	1.501830E+0	1.565436E+0	1.536475E+0	1.629203E+0	1.524274E+0	1.548077E+0	1.543154E+0	1.548294E+0	1.569526E+0	1.524692E+0	1.523009E+0	1.573117E+0	1.556741E+0	1.637475E+0	1.498325E+0	1.572135E+0	1.561643E+0	1.519083E+0	1.604876E+0	1.605562E+0	1.540564E+0	1.595881E+0	1.503023E+0	1.530628E+0	1.581259E+0	1.585317E+0	1.522968E+0	1.566450E+0	1.481173E+0	1.581222E+0	1.549181E+0	1.617509E+0	1.557228E+0	1.568846E+0	1.584354E+0	1.569323E+0	1.593174E+0	1.562939E+0	1.485283E+0	1.488879E+0	1.580178E+0	1.555905E+0	1.578163E+0	1.527842E+0	1.556223E+0	1.476667E+0
5.447610E+2	1.490966E+0	1.452807E+0	1.501084E+0	1.493155E+0	1.374393E+0	1.464665E+0	1.454278E+0	1.397110E+0	1.499100E+0	1.517431E+0	1.478877E+0	1.489551E+0	1.467715E+0	1.472551E+0	1.463971E+0	1.491833E+0	1.418032E+0	1.514731E+0	1.417823E+0	1.417685E+0	1.440353E+0	1.412701E+0	1.455712E+0	1.506907E+0	1.452659E+0	1.404079E+0	1.436021E+0	1.427929E+0	1.425541E+0	1.496094E+0	1.435588E+0	1.529028E+0	1.437913E+0	1.466135E+0	1.443152E+0	1.407659E+0	1.464200E+0	1.399701E+0	1.442995E+0	1.455392E+0	1.454777E+0	1.445745E+0	1.446222E+0	1.423937E+0	1.476686E+0	1.489023E+0	1.543708E+0	1.461537E+0	1.491111E+0	1.507674E+0	1.457167E+0	1.465437E+0	1.432878E+0	1.371972E+0	1.453982E+0	1.425615E+0	1.453169E+0	1.454558E+0	1.491101E+0	1.453071E+0	1.463310E+0	1.426927E+0	1.456542E+0	1.417852E+0	1.482313E+0	1.514617E+0	1.458784E+0	1.385268E+0	1.393776E+0	1.465758E+0	1.462296E+0	1.434914E+0	1.453169E+0	1.458932E+0	1.501203E+0	1.456957E+0	1.480204E+0	1.455065E+0	1.444694E+0	1.403688E+0	1.428862E+0	1.429238E+0	1.497957E+0	1.464895E+0	1.425370E+0	1.471967E+0	1.468566E+0	1.408531E+0	1.439080E+0	1.531118E+0	1.443841E+0	1.418189E+0	1.493717E+0	1.508291E+0	1.401564E+0	1.483674E+0	1.424042E+0	1.434816E+0	1.490786E+0	1.433595E+0	1.438692E+0	1.407163E+0	1.478129E+0	1.414506E+0	1.440343E+0	1.436239E+0	1.433129E+0	1.517696E+0	1.443454E+0	1.433272E+0	1.493911E+0	1.390004E+0	1.554971E+0	1.460558E+0	1.437732E+0	1.421599E+0	1.458408E+0	1.449241E+0	1.434185E+0	1.419010E+0	1.400480E+0	1.488197E+0	1.491224E+0	1.402934E+0	1.405455E+0	1.422273E+0	1.437290E+0	1.429185E+0	1.370887E+0	1.434691E+0	1.458412E+0	1.509655E+0	1.481379E+0	1.445698E+0	1.494064E+0	1.412952E+0	1.506142E+0	1.438466E+0	1.475404E+0	1.385626E+0	1.420143E+0	1.493025E+0	1.446916E+0	1.515389E+0	1.423757E+0	1.450920E+0	1.427258E+0	1.363295E+0	1.401458E+0	1.453125E+0	1.428787E+0	1.411676E+0	1.420579E+0	1.415129E+0	1.400605E+0	1.452076E+0	1.513259E+0	1.419943E+0	1.439093E+0	1.479568E+0	1.425889E+0	1.445916E+0	1.445888E+0	1.414391E+0	1.435810E+0	1.443250E+0	1.357403E+0	1.439487E+0	1.439849E+0	1.440818E+0	1.309279E+0
5.450090E+2	1.418080E+0	1.452140E+0	1.413817E+0	1.459900E+0	1.488868E+0	1.472384E+0	1.461318E+0	1.449620E+0	1.477113E+0	1.494669E+0	1.397881E+0	1.510635E+0	1.414870E+0	1.446346E+0	1.440015E+0	1.399888E+0	1.462813E+0	1.500894E+0	1.473945E+0	1.433859E+0	1.444376E+0	1.426281E+0	1.367673E+0	1.422032E+0	1.453361E+0	1.441945E+0	1.416261E+0	1.417394E+0	1.448876E+0	1.490448E+0	1.420225E+0	1.335759E+0	1.449890E+0	1.454077E+0	1.466621E+0	1.404311E+0	1.493451E+0	1.444199E+0	1.358920E+0	1.461415E+0	1.427899E+0	1.424148E+0	1.476568E+0	1.460961E+0	1.471912E+0	1.506038E+0	1.501732E+0	1.473678E+0	1.437110E+0	1.425952E+0	1.447640E+0	1.452686E+0	1.434525E+0	1.429375E+0	1.439598E+0	1.463960E+0	1.445936E+0	1.470646E+0	1.413424E+0	1.394626E+0	1.406093E+0	1.438763E+0	1.420069E+0	1.326175E+0	1.463180E+0	1.435516E+0	1.441927E+0	1.388830E+0	1.426827E+0	1.438792E+0	1.404541E+0	1.426654E+0	1.385148E+0	1.415543E+0	1.484198E+0	1.403718E+0	1.485247E+0	1.387367E+0	1.415721E+0	1.357389E+0	1.433241E+0	1.353940E+0	1.475779E+0	1.401945E+0	1.413675E+0	1.418233E+0	1.420607E+0	1.423147E+0	1.418740E+0	1.410418E+0	1.398807E+0	1.437915E+0	1.405475E+0	1.496309E+0	1.408756E+0	1.502973E+0	1.410291E+0	1.467505E+0	1.475658E+0	1.427035E+0	1.448378E+0	1.402969E+0	1.423662E+0	1.402177E+0	1.396894E+0	1.386511E+0	1.449332E+0	1.458945E+0	1.427200E+0	1.407596E+0	1.404436E+0	1.447400E+0	1.428498E+0	1.473468E+0	1.404649E+0	1.427925E+0	1.419468E+0	1.445852E+0	1.434753E+0	1.414432E+0	1.425330E+0	1.428085E+0	1.436452E+0	1.389944E+0	1.382689E+0	1.433742E+0	1.381590E+0	1.420933E+0	1.383812E+0	1.437178E+0	1.404105E+0	1.445654E+0	1.374607E+0	1.409962E+0	1.426366E+0	1.405922E+0	1.400202E+0	1.482934E+0	1.445428E+0	1.432004E+0	1.373218E+0	1.457140E+0	1.442704E+0	1.441444E+0	1.441155E+0	1.448393E+0	1.472755E+0	1.410194E+0	1.410533E+0	1.413656E+0	1.400925E+0	1.444111E+0	1.420263E+0	1.477997E+0	1.416819E+0	1.404105E+0	1.435750E+0	1.411719E+0	1.402091E+0	1.412049E+0	1.473225E+0	1.402539E+0	1.403884E+0	1.403867E+0	1.396510E+0	1.380350E+0	1.365494E+0	1.350066E+0	1.460638E+0	1.465375E+0	1.470244E+0
5.452640E+2	1.355979E+0	1.319901E+0	1.312927E+0	1.342294E+0	1.386719E+0	1.383720E+0	1.357845E+0	1.317399E+0	1.360260E+0	1.357330E+0	1.365300E+0	1.384637E+0	1.361580E+0	1.345425E+0	1.360558E+0	1.389123E+0	1.351928E+0	1.310212E+0	1.371258E+0	1.371863E+0	1.332613E+0	1.331947E+0	1.360913E+0	1.355235E+0	1.315928E+0	1.304096E+0	1.331080E+0	1.300798E+0	1.310566E+0	1.377938E+0	1.289472E+0	1.303871E+0	1.375490E+0	1.357677E+0	1.358449E+0	1.362829E+0	1.374975E+0	1.335811E+0	1.302638E+0	1.355571E+0	1.293012E+0	1.346729E+0	1.341646E+0	1.354077E+0	1.378589E+0	1.368068E+0	1.377764E+0	1.283759E+0	1.267073E+0	1.381297E+0	1.385772E+0	1.339789E+0	1.380126E+0	1.332290E+0	1.331049E+0	1.344207E+0	1.365603E+0	1.380423E+0	1.319435E+0	1.341956E+0	1.353005E+0	1.364932E+0	1.377760E+0	1.383455E+0	1.345402E+0	1.355941E+0	1.344318E+0	1.266839E+0	1.361544E+0	1.341102E+0	1.302589E+0	1.413649E+0	1.320894E+0	1.331307E+0	1.357002E+0	1.368497E+0	1.344059E+0	1.365812E+0	1.292647E+0	1.295312E+0	1.362770E+0	1.367523E+0	1.358029E+0	1.277258E+0	1.293859E+0	1.319428E+0	1.359744E+0	1.325099E+0	1.342704E+0	1.341044E+0	1.319547E+0	1.320325E+0	1.256227E+0	1.371792E+0	1.355276E+0	1.373150E+0	1.318919E+0	1.349361E+0	1.348339E+0	1.320654E+0	1.292053E+0	1.344730E+0	1.374379E+0	1.324831E+0	1.300885E+0	1.322610E+0	1.306654E+0	1.390137E+0	1.326510E+0	1.394299E+0	1.386060E+0	1.322896E+0	1.309705E+0	1.423979E+0	1.322766E+0	1.353495E+0	1.352604E+0	1.322462E+0	1.245137E+0	1.289913E+0	1.302326E+0	1.324628E+0	1.342323E+0	1.332688E+0	1.309990E+0	1.348432E+0	1.246202E+0	1.335077E+0	1.425173E+0	1.345436E+0	1.350055E+0	1.288556E+0	1.366610E+0	1.318057E+0	1.343795E+0	1.328699E+0	1.377670E+0	1.322809E+0	1.358075E+0	1.321857E+0	1.357932E+0	1.338246E+0	1.366186E+0	1.353654E+0	1.331388E+0	1.299735E+0	1.368073E+0	1.351425E+0	1.322653E+0	1.356403E+0	1.342662E+0	1.264218E+0	1.282116E+0	1.383472E+0	1.329990E+0	1.358719E+0	1.281189E+0	1.311933E+0	1.351299E+0	1.265513E+0	1.316734E+0	1.347534E+0	1.320512E+0	1.289424E+0	1.305973E+0	1.295442E+0	1.378147E+0	1.354781E+0	1.342485E+0	1.325500E+0	1.322365E+0
5.455290E+2	1.320853E+0	1.320566E+0	1.332451E+0	1.284602E+0	1.292057E+0	1.279832E+0	1.353002E+0	1.275853E+0	1.351720E+0	1.310923E+0	1.308413E+0	1.335033E+0	1.318648E+0	1.306779E+0	1.282802E+0	1.334310E+0	1.313184E+0	1.344479E+0	1.297236E+0	1.296450E+0	1.270713E+0	1.317140E+0	1.337591E+0	1.332166E+0	1.327135E+0	1.330129E+0	1.276950E+0	1.306928E+0	1.240486E+0	1.305924E+0	1.302832E+0	1.275843E+0	1.330097E+0	1.300135E+0	1.286140E+0	1.306893E+0	1.377079E+0	1.273639E+0	1.293319E+0	1.332032E+0	1.347373E+0	1.273284E+0	1.318321E+0	1.296094E+0	1.221022E+0	1.308784E+0	1.367130E+0	1.274008E+0	1.325378E+0	1.278147E+0	1.278776E+0	1.322201E+0	1.303749E+0	1.317895E+0	1.285586E+0	1.283940E+0	1.300413E+0	1.306843E+0	1.321941E+0	1.257597E+0	1.353853E+0	1.301368E+0	1.294308E+0	1.260012E+0	1.332019E+0	1.309492E+0	1.336813E+0	1.310857E+0	1.291880E+0	1.280327E+0	1.266937E+0	1.284164E+0	1.253352E+0	1.298587E+0	1.371735E+0	1.304671E+0	1.232277E+0	1.356535E+0	1.329444E+0	1.350026E+0	1.271323E+0	1.280465E+0	1.323252E+0	1.297566E+0	1.311853E+0	1.346318E+0	1.309376E+0	1.279519E+0	1.338573E+0	1.309364E+0	1.260883E+0	1.309704E+0	1.274824E+0	1.345459E+0	1.322667E+0	1.290488E+0	1.343858E+0	1.295983E+0	1.338668E+0	1.276380E+0	1.273728E+0	1.284445E+0	1.329860E+0	1.291073E+0	1.321282E+0	1.271855E+0	1.218145E+0	1.283202E+0	1.347595E+0	1.324553E+0	1.304474E+0	1.320945E+0	1.268156E+0	1.349579E+0	1.286953E+0	1.279059E+0	1.287749E+0	1.296786E+0	1.265406E+0	1.301674E+0	1.270659E+0	1.306046E+0	1.333620E+0	1.294811E+0	1.285223E+0	1.332818E+0	1.314400E+0	1.326184E+0	1.309294E+0	1.255470E+0	1.292328E+0	1.264388E+0	1.306711E+0	1.260724E+0	1.289709E+0	1.234737E+0	1.271125E+0	1.369136E+0	1.323970E+0	1.244363E+0	1.325553E+0	1.283453E+0	1.257603E+0	1.254122E+0	1.295819E+0	1.315075E+0	1.294769E+0	1.310360E+0	1.334215E+0	1.299333E+0	1.220709E+0	1.248858E+0	1.296354E+0	1.326203E+0	1.298103E+0	1.241654E+0	1.315426E+0	1.286334E+0	1.266719E+0	1.268838E+0	1.248018E+0	1.305915E+0	1.254749E+0	1.364960E+0	1.279651E+0	1.306403E+0	1.253014E+0	1.255194E+0	1.305862E+0	1.237227E+0	1.325614E+0
5.457670E+2	1.137634E+0	1.156181E+0	1.172202E+0	1.195428E+0	1.136512E+0	1.187902E+0	1.215938E+0	1.197872E+0	1.207459E+0	1.202696E+0	1.190011E+0	1.215144E+0	1.210271E+0	1.217942E+0	1.154110E+0	1.210613E+0	1.199733E+0	1.245306E+0	1.204394E+0	1.185664E+0	1.134772E+0	1.230504E+0	1.222264E+0	1.177249E+0	1.132508E+0	1.174125E+0	1.186178E+0	1.157757E+0	1.231551E+0	1.225167E+0	1.195501E+0	1.176855E+0	1.156297E+0	1.229342E+0	1.124644E+0	1.192617E+0	1.214470E+0	1.194800E+0	1.208837E+0	1.139358E+0	1.164666E+0	1.183446E+0	1.185424E+0	1.201641E+0	1.218586E+0	1.162133E+0	1.188448E+0	1.161513E+0	1.174390E+0	1.110725E+0	1.205238E+0	1.140048E+0	1.134388E+0	1.186023E+0	1.159773E+0	1.177065E+0	1.167123E+0	1.191616E+0	1.148020E+0	1.178859E+0	1.182799E+0	1.167509E+0	1.236078E+0	1.169431E+0	1.152030E+0	1.177847E+0	1.206072E+0	1.172493E+0	1.159363E+0	1.191120E+0	1.177148E+0	1.167792E+0	1.152888E+0	1.233313E+0	1.165080E+0	1.181305E+0	1.154941E+0	1.239147E+0	1.200862E+0	1.118946E+0	1.176873E+0	1.137768E+0	1.188505E+0	1.130442E+0	1.138848E+0	1.143109E+0	1.178473E+0	1.167363E+0	1.143141E+0	1.166147E+0	1.157329E+0	1.147422E+0	1.139705E+0	1.224679E+0	1.092930E+0	1.162880E+0	1.201970E+0	1.146488E+0	1.211366E+0	1.147742E+0	1.156175E+0	1.140758E+0	1.146319E+0	1.155085E+0	1.127695E+0	1.173295E+0	1.198173E+0	1.202129E+0	1.164146E+0	1.183779E+0	1.198586E+0	1.218017E+0	1.149968E+0	1.146949E+0	1.117008E+0	1.212319E+0	1.204923E+0	1.161796E+0	1.123622E+0	1.166396E+0	1.138873E+0	1.134907E+0	1.208207E+0	1.135612E+0	1.123130E+0	1.150704E+0	1.183638E+0	1.133660E+0	1.164297E+0	1.115905E+0	1.200333E+0	1.131512E+0	1.153095E+0	1.146294E+0	1.160387E+0	1.172233E+0	1.192752E+0	1.210002E+0	1.163248E+0	1.177507E+0	1.155075E+0	1.261922E+0	1.139781E+0	1.217447E+0	1.109711E+0	1.174425E+0	1.134815E+0	1.169023E+0	1.166428E+0	1.187210E+0	1.181557E+0	1.189164E+0	1.167316E+0	1.201356E+0	1.146538E+0	1.176539E+0	1.141867E+0	1.282141E+0	1.157284E+0	1.185056E+0	1.155872E+0	1.192486E+0	1.214187E+0	1.117980E+0	1.127687E+0	1.180028E+0	1.128027E+0	1.158292E+0	1.135673E+0	1.191460E+0	1.235855E+0
5.460110E+2	1.166909E+0	1.219401E+0	1.134509E+0	1.164885E+0	1.161296E+0	1.207166E+0	1.229112E+0	1.174442E+0	1.150757E+0	1.229166E+0	1.236716E+0	1.220847E+0	1.186674E+0	1.244942E+0	1.192556E+0	1.209671E+0	1.175656E+0	1.203317E+0	1.162654E+0	1.151647E+0	1.173356E+0	1.238000E+0	1.233062E+0	1.210567E+0	1.221187E+0	1.238282E+0	1.144107E+0	1.183573E+0	1.144948E+0	1.212230E+0	1.141769E+0	1.140750E+0	1.181461E+0	1.202026E+0	1.191818E+0	1.148415E+0	1.192864E+0	1.151474E+0	1.182405E+0	1.249392E+0	1.158619E+0	1.185016E+0	1.207275E+0	1.202758E+0	1.205560E+0	1.175212E+0	1.216265E+0	1.134504E+0	1.249041E+0	1.240438E+0	1.168438E+0	1.163624E+0	1.185114E+0	1.143359E+0	1.201677E+0	1.177727E+0	1.140086E+0	1.208948E+0	1.204132E+0	1.110010E+0	1.159304E+0	1.229888E+0	1.180162E+0	1.142983E+0	1.185509E+0	1.166304E+0	1.165196E+0	1.144805E+0	1.168233E+0	1.111006E+0	1.165401E+0	1.166006E+0	1.134326E+0	1.170937E+0	1.192976E+0	1.240511E+0	1.170795E+0	1.157374E+0	1.169930E+0	1.100789E+0	1.169525E+0	1.174422E+0	1.212906E+0	1.218149E+0	1.136004E+0	1.195510E+0	1.181285E+0	1.185316E+0	1.169830E+0	1.164425E+0	1.144863E+0	1.192561E+0	1.137946E+0	1.210143E+0	1.094356E+0	1.114404E+0	1.172297E+0	1.149869E+0	1.218217E+0	1.109131E+0	1.202646E+0	1.145137E+0	1.159500E+0	1.168055E+0	1.169203E+0	1.184884E+0	1.207090E+0	1.222166E+0	1.142568E+0	1.202093E+0	1.183233E+0	1.186533E+0	1.128597E+0	1.157333E+0	1.173332E+0	1.199144E+0	1.182886E+0	1.173358E+0	1.149244E+0	1.153682E+0	1.169692E+0	1.161296E+0	1.175004E+0	1.212075E+0	1.145465E+0	1.167213E+0	1.166692E+0	1.159871E+0	1.135209E+0	1.131463E+0	1.172727E+0	1.170868E+0	1.155453E+0	1.179110E+0	1.194229E+0	1.117140E+0	1.213554E+0	1.188716E+0	1.185358E+0	1.103242E+0	1.116969E+0	1.198435E+0	1.190408E+0	1.180338E+0	1.211334E+0	1.180055E+0	1.228169E+0	1.152506E+0	1.214392E+0	1.142108E+0	1.195446E+0	1.187183E+0	1.139074E+0	1.168638E+0	1.171760E+0	1.145777E+0	1.156562E+0	1.232522E+0	1.126266E+0	1.180197E+0	1.138835E+0	1.191632E+0	1.181990E+0	1.202542E+0	1.139526E+0	1.212627E+0	1.140178E+0	1.141500E+0	1.197089E+0	1.160134E+0	1.182464E+0
5.467660E+2	1.276813E+0	1.247770E+0	1.257174E+0	1.229304E+0	1.228842E+0	1.206682E+0	1.264229E+0	1.193355E+0	1.195980E+0	1.313205E+0	1.235319E+0	1.263042E+0	1.270810E+0	1.254636E+0	1.303417E+0	1.236622E+0	1.244106E+0	1.274258E+0	1.289249E+0	1.271945E+0	1.260428E+0	1.239905E+0	1.293375E+0	1.216231E+0	1.285054E+0	1.300049E+0	1.205933E+0	1.237919E+0	1.210658E+0	1.279328E+0	1.273057E+0	1.217346E+0	1.236287E+0	1.257160E+0	1.252240E+0	1.242384E+0	1.299985E+0	1.243296E+0	1.268303E+0	1.271963E+0	1.209811E+0	1.232794E+0	1.305497E+0	1.232893E+0	1.248596E+0	1.274898E+0	1.200784E+0	1.223046E+0	1.273965E+0	1.240036E+0	1.251470E+0	1.252615E+0	1.197400E+0	1.235906E+0	1.250922E+0	1.214498E+0	1.217233E+0	1.301348E+0	1.239632E+0	1.205731E+0	1.212301E+0	1.221653E+0	1.280149E+0	1.233315E+0	1.203985E+0	1.209952E+0	1.268715E+0	1.250995E+0	1.178963E+0	1.202002E+0	1.197935E+0	1.221667E+0	1.247153E+0	1.187567E+0	1.237167E+0	1.246600E+0	1.267562E+0	1.283344E+0	1.176900E+0	1.256632E+0	1.276287E+0	1.225129E+0	1.306787E+0	1.270992E+0	1.252997E+0	1.193545E+0	1.200728E+0	1.269725E+0	1.218555E+0	1.250278E+0	1.211474E+0	1.240491E+0	1.205833E+0	1.265039E+0	1.279927E+0	1.216446E+0	1.259685E+0	1.223274E+0	1.247411E+0	1.229172E+0	1.207397E+0	1.221889E+0	1.223451E+0	1.180271E+0	1.272358E+0	1.220804E+0	1.272670E+0	1.244798E+0	1.183322E+0	1.191525E+0	1.185833E+0	1.159620E+0	1.221940E+0	1.309363E+0	1.232892E+0	1.224166E+0	1.204357E+0	1.289416E+0	1.268681E+0	1.263692E+0	1.224635E+0	1.249573E+0	1.218760E+0	1.289557E+0	1.243288E+0	1.247763E+0	1.260324E+0	1.232296E+0	1.205251E+0	1.195033E+0	1.201807E+0	1.197540E+0	1.210783E+0	1.225908E+0	1.268325E+0	1.259109E+0	1.209106E+0	1.213660E+0	1.260694E+0	1.223415E+0	1.210921E+0	1.324766E+0	1.228338E+0	1.226370E+0	1.270493E+0	1.241187E+0	1.251879E+0	1.180040E+0	1.263936E+0	1.242956E+0	1.244816E+0	1.246204E+0	1.214775E+0	1.259416E+0	1.210587E+0	1.268284E+0	1.228863E+0	1.240977E+0	1.207183E+0	1.224258E+0	1.226704E+0	1.246626E+0	1.223828E+0	1.182595E+0	1.196344E+0	1.252479E+0	1.253546E+0	1.222037E+0	1.230785E+0	1.171265E+0	1.184683E+0
5.475180E+2	1.293262E+0	1.285944E+0	1.247880E+0	1.316030E+0	1.282888E+0	1.271137E+0	1.346268E+0	1.341471E+0	1.316043E+0	1.292612E+0	1.282898E+0	1.357058E+0	1.292303E+0	1.330562E+0	1.316445E+0	1.261233E+0	1.307740E+0	1.312620E+0	1.343151E+0	1.282462E+0	1.309575E+0	1.290491E+0	1.311922E+0	1.286764E+0	1.351690E+0	1.294398E+0	1.288705E+0	1.270407E+0	1.258411E+0	1.300220E+0	1.288502E+0	1.260430E+0	1.298842E+0	1.319454E+0	1.318442E+0	1.315529E+0	1.297900E+0	1.306303E+0	1.262101E+0	1.280373E+0	1.327035E+0	1.281694E+0	1.344357E+0	1.318261E+0	1.307984E+0	1.290233E+0	1.375529E+0	1.312065E+0	1.272298E+0	1.311021E+0	1.279392E+0	1.285531E+0	1.329805E+0	1.261539E+0	1.295308E+0	1.319630E+0	1.283957E+0	1.357813E+0	1.318894E+0	1.257029E+0	1.313933E+0	1.326184E+0	1.299307E+0	1.252054E+0	1.306173E+0	1.278599E+0	1.318411E+0	1.301721E+0	1.264518E+0	1.284893E+0	1.239788E+0	1.279260E+0	1.304676E+0	1.285763E+0	1.318911E+0	1.275203E+0	1.354363E+0	1.312065E+0	1.310042E+0	1.350346E+0	1.358775E+0	1.305481E+0	1.369573E+0	1.273263E+0	1.264367E+0	1.324231E+0	1.363662E+0	1.236310E+0	1.265607E+0	1.352089E+0	1.332209E+0	1.270980E+0	1.291121E+0	1.334926E+0	1.272089E+0	1.280812E+0	1.313335E+0	1.311387E+0	1.329205E+0	1.233873E+0	1.265736E+0	1.337022E+0	1.243416E+0	1.308695E+0	1.323713E+0	1.246422E+0	1.301280E+0	1.282997E+0	1.289466E+0	1.368855E+0	1.340280E+0	1.266417E+0	1.318352E+0	1.319319E+0	1.264683E+0	1.249062E+0	1.290682E+0	1.325364E+0	1.283158E+0	1.329049E+0	1.296490E+0	1.260690E+0	1.265824E+0	1.264918E+0	1.248515E+0	1.304572E+0	1.298170E+0	1.277173E+0	1.291919E+0	1.315678E+0	1.314426E+0	1.294154E+0	1.323635E+0	1.290229E+0	1.284465E+0	1.284109E+0	1.313012E+0	1.293720E+0	1.347291E+0	1.302828E+0	1.268751E+0	1.344993E+0	1.278035E+0	1.307228E+0	1.309891E+0	1.325855E+0	1.288882E+0	1.236215E+0	1.309218E+0	1.278313E+0	1.372116E+0	1.277911E+0	1.305880E+0	1.271792E+0	1.318240E+0	1.275406E+0	1.312862E+0	1.337258E+0	1.339447E+0	1.305399E+0	1.315497E+0	1.373851E+0	1.281504E+0	1.286441E+0	1.270257E+0	1.289271E+0	1.257555E+0	1.317347E+0	1.250389E+0	1.307173E+0	1.318905E+0
5.482600E+2	1.414190E+0	1.411059E+0	1.380045E+0	1.432737E+0	1.364109E+0	1.410534E+0	1.402977E+0	1.428099E+0	1.390863E+0	1.427313E+0	1.411012E+0	1.460133E+0	1.412285E+0	1.380387E+0	1.404893E+0	1.366460E+0	1.390555E+0	1.351389E+0	1.385540E+0	1.409338E+0	1.401942E+0	1.455041E+0	1.403710E+0	1.410645E+0	1.385683E+0	1.392774E+0	1.417686E+0	1.372247E+0	1.349304E+0	1.418660E+0	1.444156E+0	1.382761E+0	1.414127E+0	1.430429E+0	1.373119E+0	1.409307E+0	1.425669E+0	1.367949E+0	1.326320E+0	1.409875E+0	1.442735E+0	1.375161E+0	1.346490E+0	1.397224E+0	1.424848E+0	1.391136E+0	1.417995E+0	1.366360E+0	1.353687E+0	1.367946E+0	1.422516E+0	1.348255E+0	1.386305E+0	1.365048E+0	1.442430E+0	1.375149E+0	1.428143E+0	1.440987E+0	1.353019E+0	1.375350E+0	1.408841E+0	1.445765E+0	1.422229E+0	1.407041E+0	1.382584E+0	1.431324E+0	1.427099E+0	1.340011E+0	1.369499E+0	1.406859E+0	1.367771E+0	1.397248E+0	1.363260E+0	1.428001E+0	1.429009E+0	1.357911E+0	1.367836E+0	1.495523E+0	1.376624E+0	1.306069E+0	1.421803E+0	1.341472E+0	1.424794E+0	1.395034E+0	1.398555E+0	1.393954E+0	1.441610E+0	1.363300E+0	1.424035E+0	1.419952E+0	1.392945E+0	1.347436E+0	1.388309E+0	1.397845E+0	1.432122E+0	1.348338E+0	1.348200E+0	1.344172E+0	1.455051E+0	1.399013E+0	1.297510E+0	1.422413E+0	1.391775E+0	1.442826E+0	1.363870E+0	1.352544E+0	1.395563E+0	1.407776E+0	1.343600E+0	1.415816E+0	1.379149E+0	1.358296E+0	1.332998E+0	1.402643E+0	1.423730E+0	1.338867E+0	1.391236E+0	1.386474E+0	1.358050E+0	1.433032E+0	1.381309E+0	1.371875E+0	1.421754E+0	1.333192E+0	1.334452E+0	1.414194E+0	1.394761E+0	1.348892E+0	1.383388E+0	1.398907E+0	1.391027E+0	1.375888E+0	1.427742E+0	1.349515E+0	1.356062E+0	1.369007E+0	1.320476E+0	1.497599E+0	1.411683E+0	1.393101E+0	1.378227E+0	1.371578E+0	1.394946E+0	1.444991E+0	1.457781E+0	1.362518E+0	1.391203E+0	1.406019E+0	1.384510E+0	1.413141E+0	1.406067E+0	1.328679E+0	1.357867E+0	1.441176E+0	1.362647E+0	1.332628E+0	1.385263E+0	1.359974E+0	1.347043E+0	1.365803E+0	1.316526E+0	1.406897E+0	1.425660E+0	1.386529E+0	1.378502E+0	1.390345E+0	1.410485E+0	1.389678E+0	1.344642E+0	1.422658E+0	1.420709E+0
5.490100E+2	1.300547E+0	1.271192E+0	1.302895E+0	1.372543E+0	1.266454E+0	1.313351E+0	1.329760E+0	1.351827E+0	1.304180E+0	1.333529E+0	1.316088E+0	1.317122E+0	1.337678E+0	1.295998E+0	1.343577E+0	1.367090E+0	1.347005E+0	1.276584E+0	1.378366E+0	1.319111E+0	1.293255E+0	1.357219E+0	1.337307E+0	1.265071E+0	1.335357E+0	1.313764E+0	1.284009E+0	1.325760E+0	1.304388E+0	1.328212E+0	1.360303E+0	1.277952E+0	1.332790E+0	1.312958E+0	1.310658E+0	1.281776E+0	1.324594E+0	1.269987E+0	1.332759E+0	1.341004E+0	1.266705E+0	1.323762E+0	1.346319E+0	1.294988E+0	1.311140E+0	1.338143E+0	1.343065E+0	1.339777E+0	1.258628E+0	1.286128E+0	1.299962E+0	1.262683E+0	1.361030E+0	1.354017E+0	1.288695E+0	1.321834E+0	1.327296E+0	1.285077E+0	1.306003E+0	1.270193E+0	1.303656E+0	1.303311E+0	1.319126E+0	1.210085E+0	1.303148E+0	1.329465E+0	1.414773E+0	1.279900E+0	1.298464E+0	1.285310E+0	1.229047E+0	1.344797E+0	1.331201E+0	1.308688E+0	1.323626E+0	1.302617E+0	1.280358E+0	1.327584E+0	1.306423E+0	1.295688E+0	1.298347E+0	1.351491E+0	1.343697E+0	1.230898E+0	1.352541E+0	1.356284E+0	1.338304E+0	1.305468E+0	1.285103E+0	1.308280E+0	1.357416E+0	1.321604E+0	1.326339E+0	1.349390E+0	1.261728E+0	1.289904E+0	1.295638E+0	1.279934E+0	1.389485E+0	1.277450E+0	1.264374E+0	1.308142E+0	1.270697E+0	1.266016E+0	1.293510E+0	1.355947E+0	1.285611E+0	1.309783E+0	1.291021E+0	1.314073E+0	1.258319E+0	1.295966E+0	1.280013E+0	1.314332E+0	1.260420E+0	1.217892E+0	1.339782E+0	1.309318E+0	1.287729E+0	1.278303E+0	1.277636E+0	1.338139E+0	1.333198E+0	1.260960E+0	1.297002E+0	1.310754E+0	1.337477E+0	1.308168E+0	1.335338E+0	1.295185E+0	1.306586E+0	1.245191E+0	1.277208E+0	1.309630E+0	1.276782E+0	1.310016E+0	1.285519E+0	1.328048E+0	1.346120E+0	1.258323E+0	1.260146E+0	1.282040E+0	1.314850E+0	1.274579E+0	1.321468E+0	1.340624E+0	1.348072E+0	1.222291E+0	1.330026E+0	1.330867E+0	1.307639E+0	1.307765E+0	1.317526E+0	1.298442E+0	1.311860E+0	1.328131E+0	1.288080E+0	1.284730E+0	1.308033E+0	1.276962E+0	1.288605E+0	1.349054E+0	1.261244E+0	1.282689E+0	1.332294E+0	1.279203E+0	1.310663E+0	1.339991E+0	1.369664E+0	1.184016E+0	1.276499E+0
5.497740E+2	1.295122E+0	1.335309E+0	1.299214E+0	1.306951E+0	1.315457E+0	1.261446E+0	1.296985E+0	1.265768E+0	1.308128E+0	1.295600E+0	1.262932E+0	1.340967E+0	1.362278E+0	1.312088E+0	1.339522E+0	1.351728E+0	1.318327E+0	1.302877E+0	1.321926E+0	1.330419E+0	1.318663E+0	1.265566E+0	1.273370E+0	1.249605E+0	1.340649E+0	1.299278E+0	1.347808E+0	1.319197E+0	1.306111E+0	1.329220E+0	1.310088E+0	1.294693E+0	1.289519E+0	1.266913E+0	1.351760E+0	1.267518E+0	1.345505E+0	1.294179E+0	1.295890E+0	1.314188E+0	1.251647E+0	1.292639E+0	1.336552E+0	1.332275E+0	1.274712E+0	1.287962E+0	1.382679E+0	1.281303E+0	1.282872E+0	1.309467E+0	1.366951E+0	1.259152E+0	1.310886E+0	1.259156E+0	1.264370E+0	1.304473E+0	1.295325E+0	1.325816E+0	1.239720E+0	1.264672E+0	1.281430E+0	1.336203E+0	1.309403E+0	1.245377E+0	1.304185E+0	1.311787E+0	1.291348E+0	1.315644E+0	1.273314E+0	1.304089E+0	1.293841E+0	1.349952E+0	1.266688E+0	1.264996E+0	1.369555E+0	1.302486E+0	1.358173E+0	1.335757E+0	1.309389E+0	1.373889E+0	1.296177E+0	1.274637E+0	1.334469E+0	1.357798E+0	1.334638E+0	1.310524E+0	1.328310E+0	1.256563E+0	1.277907E+0	1.290712E+0	1.284538E+0	1.333239E+0	1.271408E+0	1.329964E+0	1.295446E+0	1.292750E+0	1.316188E+0	1.238701E+0	1.337625E+0	1.315841E+0	1.329836E+0	1.315177E+0	1.293227E+0	1.289273E+0	1.277886E+0	1.349396E+0	1.266766E+0	1.323769E+0	1.269849E+0	1.252948E+0	1.335864E+0	1.345700E+0	1.322041E+0	1.313664E+0	1.298906E+0	1.290710E+0	1.311036E+0	1.327787E+0	1.332709E+0	1.345117E+0	1.306151E+0	1.248858E+0	1.269062E+0	1.254598E+0	1.326150E+0	1.310901E+0	1.270870E+0	1.269646E+0	1.272617E+0	1.312602E+0	1.292470E+0	1.269781E+0	1.327249E+0	1.328592E+0	1.242447E+0	1.299687E+0	1.313972E+0	1.242763E+0	1.312945E+0	1.328338E+0	1.263700E+0	1.356550E+0	1.309054E+0	1.280773E+0	1.318967E+0	1.317049E+0	1.299611E+0	1.287121E+0	1.276733E+0	1.306810E+0	1.293553E+0	1.300760E+0	1.335965E+0	1.339310E+0	1.271695E+0	1.218950E+0	1.253575E+0	1.314306E+0	1.250546E+0	1.252368E+0	1.233357E+0	1.310219E+0	1.356911E+0	1.288331E+0	1.220273E+0	1.245210E+0	1.274019E+0	1.300448E+0	1.298902E+0	1.381742E+0	1.319839E+0
5.505060E+2	1.286307E+0	1.329585E+0	1.325270E+0	1.271247E+0	1.280643E+0	1.345219E+0	1.283473E+0	1.310072E+0	1.350112E+0	1.334349E+0	1.345700E+0	1.378311E+0	1.315346E+0	1.316232E+0	1.366938E+0	1.372853E+0	1.293101E+0	1.321947E+0	1.300234E+0	1.323701E+0	1.281544E+0	1.305452E+0	1.325314E+0	1.293912E+0	1.347273E+0	1.305880E+0	1.308327E+0	1.263360E+0	1.283514E+0	1.328647E+0	1.312573E+0	1.336646E+0	1.298610E+0	1.294278E+0	1.346638E+0	1.337944E+0	1.354945E+0	1.282959E+0	1.338837E+0	1.325054E+0	1.312296E+0	1.309984E+0	1.320241E+0	1.375676E+0	1.345041E+0	1.336813E+0	1.330572E+0	1.329918E+0	1.297788E+0	1.298629E+0	1.312663E+0	1.328157E+0	1.315588E+0	1.284278E+0	1.283513E+0	1.363397E+0	1.329833E+0	1.326161E+0	1.314096E+0	1.294563E+0	1.238074E+0	1.285659E+0	1.309779E+0	1.230380E+0	1.303593E+0	1.305919E+0	1.316681E+0	1.311221E+0	1.299082E+0	1.263033E+0	1.285328E+0	1.308222E+0	1.243833E+0	1.310708E+0	1.377453E+0	1.303299E+0	1.324270E+0	1.300469E+0	1.301728E+0	1.280729E+0	1.265513E+0	1.295726E+0	1.317145E+0	1.304351E+0	1.311282E+0	1.333479E+0	1.329587E+0	1.351875E+0	1.289476E+0	1.357920E+0	1.337160E+0	1.342169E+0	1.296898E+0	1.308128E+0	1.325092E+0	1.249270E+0	1.263769E+0	1.294287E+0	1.331333E+0	1.342284E+0	1.309310E+0	1.340961E+0	1.240586E+0	1.261833E+0	1.283894E+0	1.295572E+0	1.298936E+0	1.316999E+0	1.339441E+0	1.286632E+0	1.267809E+0	1.316500E+0	1.314790E+0	1.316741E+0	1.326904E+0	1.327441E+0	1.304531E+0	1.307800E+0	1.309666E+0	1.297539E+0	1.306197E+0	1.284350E+0	1.332531E+0	1.309698E+0	1.320833E+0	1.313017E+0	1.374616E+0	1.315981E+0	1.270700E+0	1.315701E+0	1.266299E+0	1.292372E+0	1.289497E+0	1.334442E+0	1.324493E+0	1.323407E+0	1.282592E+0	1.323343E+0	1.344570E+0	1.270672E+0	1.287435E+0	1.280697E+0	1.304523E+0	1.279278E+0	1.372837E+0	1.298298E+0	1.282896E+0	1.231179E+0	1.328470E+0	1.322427E+0	1.285099E+0	1.295036E+0	1.275036E+0	1.369200E+0	1.309993E+0	1.310116E+0	1.362555E+0	1.314345E+0	1.283831E+0	1.274646E+0	1.317729E+0	1.321087E+0	1.404139E+0	1.282932E+0	1.289444E+0	1.329915E+0	1.269641E+0	1.362316E+0	1.351408E+0	1.351879E+0	1.386909E+0
5.512620E+2	1.237717E+0	1.294844E+0	1.229997E+0	1.288062E+0	1.201032E+0	1.312070E+0	1.270007E+0	1.226877E+0	1.361378E+0	1.276954E+0	1.296142E+0	1.281435E+0	1.231860E+0	1.259484E+0	1.275988E+0	1.261064E+0	1.274027E+0	1.234663E+0	1.271007E+0	1.284599E+0	1.242088E+0	1.309341E+0	1.256421E+0	1.258254E+0	1.276527E+0	1.221384E+0	1.239019E+0	1.302961E+0	1.264970E+0	1.245082E+0	1.286732E+0	1.261451E+0	1.323195E+0	1.308810E+0	1.222776E+0	1.276439E+0	1.211348E+0	1.276607E+0	1.238509E+0	1.256522E+0	1.231918E+0	1.282742E+0	1.266746E+0	1.287991E+0	1.283571E+0	1.252686E+0	1.313089E+0	1.211819E+0	1.263395E+0	1.275282E+0	1.289941E+0	1.286938E+0	1.251777E+0	1.276978E+0	1.302249E+0	1.219375E+0	1.217201E+0	1.248724E+0	1.314650E+0	1.277159E+0	1.231687E+0	1.288817E+0	1.321332E+0	1.234858E+0	1.272032E+0	1.252802E+0	1.246576E+0	1.211078E+0	1.223121E+0	1.262865E+0	1.270965E+0	1.231585E+0	1.268275E+0	1.297136E+0	1.307871E+0	1.253813E+0	1.263977E+0	1.278374E+0	1.290322E+0	1.265975E+0	1.299655E+0	1.242886E+0	1.318162E+0	1.222723E+0	1.235643E+0	1.263039E+0	1.259855E+0	1.258778E+0	1.267535E+0	1.315917E+0	1.245607E+0	1.260829E+0	1.197408E+0	1.282130E+0	1.321462E+0	1.278066E+0	1.303171E+0	1.245277E+0	1.258683E+0	1.265382E+0	1.214715E+0	1.281691E+0	1.263201E+0	1.325456E+0	1.266890E+0	1.244106E+0	1.239844E+0	1.287324E+0	1.232614E+0	1.257352E+0	1.284397E+0	1.285592E+0	1.224020E+0	1.253074E+0	1.227314E+0	1.199384E+0	1.266466E+0	1.255081E+0	1.302156E+0	1.258229E+0	1.228918E+0	1.280065E+0	1.268895E+0	1.289986E+0	1.271636E+0	1.283287E+0	1.225650E+0	1.291183E+0	1.262239E+0	1.234164E+0	1.285578E+0	1.276900E+0	1.222053E+0	1.209588E+0	1.321084E+0	1.273758E+0	1.266294E+0	1.324987E+0	1.293948E+0	1.254023E+0	1.233709E+0	1.285868E+0	1.267550E+0	1.235454E+0	1.325121E+0	1.229199E+0	1.233851E+0	1.186355E+0	1.227045E+0	1.216159E+0	1.296405E+0	1.232136E+0	1.249906E+0	1.255958E+0	1.301645E+0	1.284864E+0	1.254906E+0	1.288510E+0	1.286315E+0	1.239441E+0	1.204002E+0	1.254294E+0	1.252801E+0	1.276967E+0	1.229410E+0	1.226355E+0	1.251777E+0	1.261888E+0	1.252621E+0	1.283365E+0	1.329539E+0
5.520100E+2	1.312528E+0	1.344392E+0	1.310316E+0	1.340215E+0	1.272774E+0	1.263153E+0	1.252183E+0	1.295096E+0	1.298929E+0	1.308845E+0	1.315087E+0	1.285585E+0	1.291144E+0	1.339725E+0	1.335467E+0	1.348120E+0	1.330304E+0	1.328044E+0	1.354030E+0	1.284138E+0	1.306015E+0	1.323295E+0	1.268786E+0	1.322555E+0	1.294482E+0	1.248351E+0	1.293263E+0	1.236234E+0	1.307456E+0	1.308111E+0	1.348175E+0	1.382019E+0	1.311829E+0	1.344638E+0	1.344265E+0	1.279697E+0	1.297840E+0	1.312523E+0	1.303152E+0	1.290112E+0	1.292591E+0	1.326559E+0	1.366366E+0	1.341711E+0	1.264853E+0	1.401557E+0	1.348975E+0	1.304157E+0	1.236464E+0	1.255482E+0	1.364593E+0	1.298136E+0	1.303770E+0	1.290434E+0	1.341492E+0	1.311343E+0	1.318789E+0	1.350343E+0	1.272493E+0	1.264227E+0	1.315550E+0	1.353832E+0	1.380205E+0	1.231026E+0	1.326698E+0	1.345591E+0	1.307979E+0	1.241999E+0	1.271209E+0	1.350026E+0	1.288959E+0	1.288913E+0	1.301315E+0	1.344410E+0	1.288041E+0	1.294634E+0	1.278119E+0	1.269819E+0	1.224240E+0	1.343168E+0	1.333911E+0	1.342539E+0	1.309676E+0	1.282862E+0	1.326029E+0	1.300006E+0	1.352659E+0	1.280353E+0	1.236840E+0	1.345003E+0	1.234573E+0	1.366807E+0	1.257206E+0	1.320487E+0	1.281489E+0	1.283431E+0	1.291129E+0	1.236211E+0	1.290920E+0	1.291166E+0	1.299246E+0	1.297444E+0	1.279659E+0	1.290099E+0	1.302138E+0	1.338977E+0	1.297300E+0	1.359692E+0	1.300196E+0	1.280732E+0	1.332301E+0	1.256764E+0	1.314352E+0	1.333320E+0	1.241975E+0	1.291942E+0	1.318123E+0	1.236307E+0	1.282448E+0	1.306992E+0	1.274996E+0	1.338764E+0	1.290688E+0	1.315106E+0	1.256301E+0	1.245115E+0	1.345636E+0	1.310769E+0	1.359958E+0	1.251646E+0	1.287717E+0	1.266337E+0	1.297502E+0	1.234647E+0	1.258938E+0	1.320031E+0	1.353010E+0	1.261172E+0	1.315149E+0	1.260790E+0	1.290635E+0	1.275723E+0	1.317614E+0	1.237700E+0	1.331558E+0	1.321257E+0	1.293162E+0	1.262333E+0	1.360551E+0	1.296654E+0	1.288280E+0	1.312352E+0	1.327262E+0	1.315498E+0	1.301385E+0	1.311868E+0	1.306910E+0	1.351152E+0	1.311620E+0	1.264993E+0	1.294513E+0	1.297296E+0	1.293306E+0	1.340196E+0	1.234853E+0	1.259263E+0	1.300650E+0	1.253121E+0	1.296440E+0	1.314302E+0	1.320839E+0
5.527590E+2	1.280573E+0	1.263328E+0	1.241727E+0	1.240568E+0	1.252812E+0	1.224826E+0	1.294834E+0	1.238895E+0	1.253397E+0	1.225662E+0	1.241051E+0	1.244096E+0	1.242720E+0	1.253872E+0	1.264453E+0	1.229389E+0	1.277301E+0	1.264785E+0	1.292877E+0	1.189187E+0	1.225866E+0	1.282947E+0	1.218703E+0	1.219836E+0	1.197307E+0	1.283405E+0	1.218897E+0	1.236987E+0	1.250352E+0	1.262307E+0	1.245238E+0	1.246531E+0	1.295753E+0	1.232837E+0	1.271054E+0	1.276838E+0	1.257575E+0	1.245743E+0	1.229678E+0	1.279193E+0	1.209632E+0	1.247026E+0	1.294371E+0	1.285285E+0	1.218811E+0	1.238981E+0	1.271833E+0	1.186961E+0	1.200359E+0	1.184806E+0	1.236256E+0	1.230938E+0	1.192095E+0	1.218723E+0	1.232734E+0	1.217674E+0	1.203699E+0	1.277136E+0	1.191816E+0	1.297646E+0	1.207529E+0	1.239248E+0	1.232476E+0	1.221344E+0	1.279524E+0	1.220899E+0	1.257911E+0	1.213597E+0	1.175144E+0	1.235146E+0	1.254674E+0	1.304827E+0	1.275490E+0	1.267796E+0	1.289325E+0	1.224489E+0	1.221109E+0	1.325322E+0	1.247464E+0	1.173756E+0	1.276867E+0	1.210915E+0	1.284868E+0	1.240665E+0	1.230916E+0	1.254257E+0	1.248179E+0	1.281980E+0	1.204451E+0	1.267464E+0	1.219754E+0	1.224054E+0	1.242711E+0	1.278646E+0	1.287879E+0	1.270429E+0	1.304998E+0	1.198870E+0	1.277430E+0	1.226918E+0	1.177916E+0	1.214858E+0	1.185418E+0	1.209272E+0	1.273700E+0	1.196902E+0	1.242326E+0	1.276397E+0	1.195953E+0	1.248186E+0	1.258667E+0	1.207147E+0	1.259765E+0	1.252832E+0	1.246128E+0	1.210603E+0	1.309225E+0	1.234480E+0	1.239783E+0	1.232714E+0	1.277079E+0	1.255345E+0	1.169104E+0	1.213464E+0	1.226918E+0	1.251853E+0	1.276945E+0	1.234734E+0	1.266356E+0	1.179450E+0	1.270790E+0	1.245815E+0	1.233398E+0	1.248998E+0	1.198098E+0	1.257543E+0	1.255235E+0	1.279568E+0	1.284749E+0	1.232171E+0	1.225965E+0	1.267146E+0	1.263982E+0	1.214604E+0	1.282422E+0	1.262328E+0	1.279507E+0	1.282818E+0	1.205883E+0	1.220044E+0	1.294524E+0	1.258832E+0	1.280178E+0	1.366522E+0	1.260088E+0	1.265762E+0	1.253125E+0	1.267279E+0	1.245943E+0	1.270663E+0	1.172884E+0	1.209213E+0	1.277268E+0	1.261413E+0	1.271751E+0	1.245291E+0	1.223448E+0	1.197789E+0	1.183575E+0	1.351221E+0	1.202373E+0
5.534880E+2	1.147340E+0	1.250032E+0	1.147326E+0	1.191185E+0	1.191764E+0	1.207652E+0	1.246837E+0	1.148293E+0	1.216073E+0	1.175681E+0	1.206003E+0	1.200684E+0	1.164871E+0	1.163156E+0	1.222028E+0	1.195112E+0	1.146305E+0	1.198616E+0	1.237749E+0	1.140480E+0	1.207012E+0	1.175671E+0	1.126506E+0	1.174024E+0	1.133968E+0	1.216876E+0	1.224218E+0	1.231630E+0	1.174713E+0	1.189588E+0	1.185261E+0	1.153501E+0	1.150381E+0	1.159584E+0	1.181018E+0	1.091985E+0	1.206122E+0	1.161279E+0	1.137494E+0	1.199822E+0	1.193027E+0	1.213421E+0	1.178544E+0	1.190613E+0	1.152566E+0	1.192264E+0	1.172535E+0	1.148139E+0	1.142563E+0	1.143617E+0	1.157372E+0	1.168045E+0	1.187860E+0	1.194437E+0	1.170254E+0	1.196771E+0	1.188012E+0	1.148534E+0	1.142024E+0	1.194286E+0	1.178775E+0	1.143708E+0	1.204824E+0	1.142088E+0	1.144630E+0	1.199773E+0	1.223715E+0	1.172659E+0	1.178770E+0	1.172009E+0	1.155246E+0	1.165933E+0	1.168941E+0	1.233556E+0	1.203209E+0	1.115628E+0	1.245193E+0	1.178520E+0	1.195166E+0	1.125497E+0	1.184782E+0	1.191406E+0	1.210784E+0	1.160750E+0	1.231060E+0	1.199493E+0	1.161270E+0	1.200214E+0	1.180646E+0	1.203474E+0	1.172296E+0	1.251880E+0	1.155393E+0	1.199474E+0	1.190321E+0	1.125264E+0	1.148366E+0	1.177967E+0	1.272998E+0	1.160775E+0	1.151003E+0	1.149899E+0	1.219120E+0	1.212323E+0	1.153209E+0	1.211551E+0	1.150655E+0	1.168284E+0	1.192937E+0	1.166354E+0	1.189621E+0	1.133454E+0	1.204487E+0	1.174922E+0	1.129440E+0	1.104284E+0	1.087976E+0	1.124335E+0	1.184195E+0	1.194846E+0	1.217230E+0	1.177192E+0	1.175808E+0	1.188192E+0	1.165104E+0	1.203692E+0	1.218637E+0	1.140757E+0	1.160666E+0	1.159412E+0	1.224128E+0	1.181134E+0	1.195945E+0	1.168455E+0	1.198381E+0	1.161456E+0	1.133222E+0	1.197518E+0	1.152572E+0	1.135508E+0	1.123328E+0	1.198135E+0	1.159172E+0	1.130140E+0	1.182905E+0	1.156999E+0	1.183573E+0	1.194274E+0	1.187512E+0	1.154887E+0	1.131517E+0	1.155308E+0	1.112963E+0	1.245369E+0	1.145909E+0	1.148152E+0	1.232222E+0	1.162973E+0	1.182996E+0	1.182219E+0	1.180621E+0	1.194239E+0	1.174789E+0	1.130941E+0	1.147903E+0	1.197890E+0	1.145374E+0	1.155275E+0	1.221005E+0	1.175223E+0	1.231711E+0
5.542530E+2	1.151829E+0	1.153066E+0	1.168389E+0	1.206148E+0	1.116265E+0	1.124581E+0	1.155905E+0	1.180828E+0	1.141199E+0	1.151084E+0	1.133635E+0	1.118351E+0	1.132171E+0	1.177545E+0	1.176704E+0	1.184286E+0	1.189088E+0	1.133196E+0	1.127722E+0	1.179817E+0	1.142317E+0	1.198824E+0	1.134835E+0	1.115595E+0	1.159856E+0	1.130760E+0	1.174849E+0	1.131966E+0	1.090972E+0	1.130024E+0	1.141534E+0	1.168132E+0	1.144254E+0	1.131192E+0	1.179804E+0	1.130069E+0	1.122835E+0	1.095706E+0	1.139213E+0	1.157594E+0	1.136437E+0	1.103990E+0	1.169889E+0	1.137759E+0	1.156939E+0	1.166365E+0	1.116724E+0	1.105115E+0	1.132747E+0	1.157665E+0	1.143034E+0	1.134140E+0	1.117043E+0	1.143171E+0	1.159057E+0	1.163742E+0	1.132930E+0	1.125868E+0	1.156484E+0	1.167154E+0	1.180834E+0	1.169223E+0	1.221092E+0	1.098183E+0	1.149478E+0	1.162038E+0	1.204410E+0	1.088034E+0	1.084492E+0	1.186292E+0	1.123986E+0	1.163918E+0	1.143513E+0	1.152261E+0	1.158204E+0	1.070886E+0	1.124827E+0	1.107681E+0	1.159620E+0	1.165491E+0	1.168675E+0	1.155446E+0	1.190255E+0	1.119475E+0	1.197252E+0	1.189467E+0	1.139078E+0	1.099832E+0	1.113904E+0	1.171787E+0	1.147174E+0	1.176605E+0	1.135326E+0	1.106817E+0	1.130647E+0	1.118483E+0	1.143125E+0	1.093306E+0	1.147248E+0	1.128850E+0	1.172095E+0	1.164306E+0	1.122368E+0	1.101098E+0	1.099139E+0	1.149609E+0	1.134825E+0	1.134543E+0	1.135167E+0	1.132465E+0	1.183997E+0	1.133041E+0	1.157717E+0	1.131116E+0	1.099192E+0	1.160740E+0	1.150459E+0	1.131015E+0	1.176165E+0	1.103400E+0	1.096608E+0	1.129695E+0	1.173078E+0	1.142823E+0	1.157644E+0	1.141102E+0	1.139540E+0	1.115103E+0	1.147425E+0	1.148249E+0	1.154059E+0	1.125125E+0	1.162401E+0	1.186420E+0	1.185625E+0	1.157548E+0	1.156898E+0	1.085201E+0	1.124490E+0	1.092097E+0	1.067698E+0	1.198711E+0	1.169483E+0	1.129117E+0	1.170468E+0	1.113254E+0	1.180341E+0	1.144510E+0	1.172702E+0	1.131481E+0	1.133644E+0	1.087921E+0	1.136328E+0	1.160304E+0	1.131360E+0	1.109662E+0	1.162492E+0	1.140491E+0	1.127867E+0	1.165509E+0	1.106359E+0	1.138885E+0	1.133346E+0	1.121091E+0	1.089013E+0	1.153242E+0	1.114329E+0	1.122264E+0	1.161465E+0	1.164792E+0	1.144946E+0
5.550140E+2	1.051397E+0	1.086292E+0	1.067679E+0	1.001957E+0	1.018954E+0	1.044827E+0	1.031942E+0	1.039063E+0	1.059665E+0	1.094269E+0	1.060395E+0	1.054333E+0	1.049807E+0	1.000666E+0	1.019818E+0	1.036671E+0	1.018110E+0	1.077068E+0	1.063674E+0	1.040573E+0	1.025302E+0	1.078480E+0	1.087353E+0	1.063234E+0	1.003462E+0	1.043302E+0	1.027905E+0	1.059127E+0	1.017685E+0	1.045645E+0	1.057861E+0	1.034659E+0	1.002307E+0	1.057836E+0	1.060608E+0	1.023167E+0	1.029510E+0	1.043435E+0	1.037546E+0	1.071831E+0	1.030640E+0	1.036216E+0	1.036995E+0	1.031670E+0	1.027325E+0	1.060024E+0	1.043540E+0	9.856077E-1	1.041124E+0	1.043968E+0	1.064565E+0	1.050497E+0	1.031368E+0	1.050184E+0	9.991087E-1	1.022990E+0	1.037390E+0	1.011959E+0	9.869782E-1	1.006293E+0	1.080122E+0	1.006910E+0	1.005892E+0	9.995136E-1	1.019348E+0	1.031753E+0	1.047854E+0	9.836466E-1	1.024228E+0	1.030400E+0	9.950397E-1	1.073487E+0	1.073943E+0	1.063828E+0	1.036063E+0	1.008752E+0	1.045992E+0	1.067777E+0	1.014383E+0	1.026651E+0	1.051121E+0	1.015516E+0	1.067666E+0	1.047613E+0	1.064813E+0	1.079856E+0	9.951928E-1	1.023066E+0	9.953358E-1	1.028443E+0	1.065189E+0	1.029596E+0	1.067918E+0	1.082887E+0	1.031069E+0	1.014954E+0	1.029837E+0	1.050308E+0	1.042764E+0	1.069289E+0	1.027878E+0	1.030811E+0	1.077470E+0	1.081465E+0	1.060241E+0	1.052760E+0	1.058054E+0	1.082029E+0	1.015291E+0	9.929850E-1	1.072484E+0	1.046455E+0	1.052978E+0	1.084152E+0	1.029901E+0	1.082615E+0	1.059950E+0	1.072940E+0	1.013171E+0	1.055439E+0	1.072116E+0	1.029635E+0	1.044414E+0	1.020099E+0	1.049476E+0	1.042618E+0	1.014736E+0	9.982615E-1	1.023762E+0	1.032853E+0	1.057231E+0	1.019289E+0	1.007935E+0	1.000403E+0	1.013191E+0	1.057333E+0	1.052084E+0	1.051253E+0	1.050135E+0	1.023868E+0	9.792838E-1	1.054598E+0	1.046214E+0	1.028268E+0	1.042907E+0	1.072292E+0	1.026566E+0	1.042142E+0	1.048978E+0	1.032774E+0	1.030794E+0	1.015864E+0	1.029191E+0	9.945259E-1	1.010932E+0	1.003458E+0	1.055644E+0	1.005870E+0	1.064624E+0	1.060493E+0	1.038144E+0	1.010279E+0	1.068847E+0	1.056578E+0	1.035844E+0	1.017096E+0	1.010925E+0	1.061979E+0	1.058650E+0	1.064777E+0	1.065059E+0
5.557600E+2	1.026836E+0	1.053341E+0	1.020111E+0	1.032632E+0	1.003984E+0	9.949610E-1	1.067192E+0	1.027871E+0	1.037511E+0	1.028801E+0	1.020370E+0	1.039883E+0	9.987198E-1	1.014453E+0	1.032056E+0	1.010064E+0	1.031531E+0	1.039850E+0	1.072225E+0	9.421754E-1	1.044820E+0	1.027054E+0	1.002802E+0	9.944465E-1	1.072486E+0	1.009663E+0	1.016801E+0	1.003170E+0	9.977517E-1	1.035695E+0	1.039350E+0	9.657037E-1	1.019747E+0	1.052215E+0	1.069026E+0	1.026634E+0	1.008899E+0	1.015060E+0	9.958970E-1	9.905894E-1	1.041181E+0	1.008645E+0	1.023786E+0	1.008532E+0	1.016389E+0	1.019371E+0	1.070874E+0	1.032296E+0	9.972736E-1	1.014708E+0	1.024377E+0	1.030910E+0	1.020977E+0	9.868891E-1	1.070393E+0	1.022698E+0	9.750250E-1	1.066117E+0	9.876395E-1	1.023720E+0	9.884057E-1	9.991167E-1	9.998965E-1	1.040697E+0	1.061740E+0	9.934540E-1	1.009346E+0	9.974004E-1	9.798911E-1	1.009025E+0	9.791046E-1	1.036800E+0	1.047528E+0	1.026591E+0	1.024102E+0	9.968173E-1	1.043368E+0	9.702595E-1	1.030501E+0	1.015126E+0	1.023216E+0	9.955950E-1	1.071732E+0	9.903391E-1	1.047645E+0	9.811524E-1	1.020663E+0	1.045093E+0	9.821798E-1	1.019574E+0	1.033240E+0	1.025410E+0	9.943244E-1	1.018202E+0	9.685412E-1	9.933230E-1	1.031898E+0	1.024743E+0	1.049695E+0	1.063953E+0	1.023250E+0	9.682125E-1	1.045622E+0	9.668572E-1	9.985993E-1	9.907470E-1	9.886756E-1	9.943688E-1	1.046269E+0	1.000458E+0	1.039787E+0	1.016156E+0	9.971959E-1	1.013170E+0	1.032743E+0	9.973382E-1	1.018728E+0	9.886753E-1	1.034697E+0	1.033532E+0	1.021032E+0	1.015428E+0	1.041511E+0	9.943746E-1	9.852230E-1	1.020319E+0	9.867233E-1	1.060777E+0	1.045464E+0	1.020858E+0	1.029542E+0	9.983578E-1	1.053309E+0	1.038900E+0	9.936105E-1	1.008811E+0	1.010789E+0	1.018075E+0	1.013893E+0	1.010734E+0	1.016714E+0	1.003751E+0	1.022528E+0	9.861818E-1	1.040150E+0	1.000770E+0	1.032625E+0	9.869512E-1	9.870681E-1	1.010447E+0	1.016027E+0	9.984417E-1	1.029385E+0	1.033823E+0	1.005728E+0	9.926507E-1	1.006006E+0	1.047587E+0	9.945993E-1	1.030698E+0	1.029937E+0	1.007370E+0	9.733735E-1	1.013139E+0	1.010882E+0	1.048758E+0	1.021610E+0	1.021371E+0	1.056274E+0	9.856844E-1	1.056827E+0
5.560190E+2	1.021972E+0	1.007111E+0	9.708484E-1	1.016424E+0	9.817938E-1	9.870342E-1	9.559401E-1	9.964626E-1	9.726424E-1	9.808647E-1	1.017077E+0	9.849989E-1	9.736911E-1	1.001980E+0	9.758139E-1	9.864610E-1	1.032177E+0	1.003624E+0	1.015557E+0	9.839900E-1	1.009784E+0	9.852170E-1	1.002506E+0	9.936330E-1	9.794433E-1	9.663174E-1	1.008324E+0	1.034339E+0	1.005813E+0	9.853371E-1	1.038121E+0	9.519134E-1	1.011582E+0	1.012213E+0	1.019635E+0	1.050850E+0	1.016159E+0	9.643810E-1	1.006820E+0	1.029062E+0	9.862904E-1	9.702408E-1	9.806796E-1	1.025031E+0	1.030787E+0	9.879845E-1	1.051311E+0	9.577334E-1	9.912005E-1	9.827146E-1	9.943211E-1	1.001677E+0	9.536162E-1	9.767123E-1	1.038428E+0	1.001452E+0	1.025709E+0	9.856407E-1	9.819887E-1	1.003177E+0	1.033051E+0	9.492270E-1	9.901132E-1	9.711494E-1	9.914743E-1	9.451824E-1	1.031667E+0	9.246619E-1	9.872357E-1	1.012428E+0	1.055404E+0	1.019389E+0	9.883191E-1	1.003453E+0	9.779068E-1	9.936224E-1	9.733833E-1	9.996771E-1	1.014323E+0	9.691662E-1	1.042261E+0	9.950224E-1	1.007479E+0	9.932249E-1	1.045779E+0	1.010091E+0	9.552241E-1	1.014790E+0	9.974549E-1	9.815605E-1	1.021884E+0	1.059558E+0	1.011726E+0	9.693649E-1	9.954024E-1	9.436317E-1	9.897247E-1	9.739658E-1	1.032814E+0	9.600203E-1	9.714932E-1	1.051817E+0	9.617056E-1	9.816294E-1	9.608081E-1	9.750675E-1	9.706550E-1	1.026272E+0	9.619753E-1	1.002447E+0	1.011843E+0	9.220410E-1	9.740175E-1	9.761986E-1	9.915962E-1	9.813139E-1	1.019600E+0	9.917582E-1	9.889964E-1	9.542248E-1	9.467621E-1	9.926546E-1	9.944666E-1	9.821558E-1	9.965518E-1	9.944921E-1	9.816383E-1	9.736528E-1	9.873231E-1	1.030125E+0	1.005327E+0	9.804538E-1	1.003174E+0	1.018370E+0	9.866957E-1	9.796752E-1	9.880838E-1	1.061390E+0	9.965856E-1	1.019968E+0	9.430254E-1	1.059720E+0	9.941861E-1	9.771022E-1	9.919003E-1	1.012328E+0	1.010936E+0	9.525061E-1	9.661291E-1	9.914485E-1	9.967871E-1	9.929802E-1	1.005160E+0	1.062437E+0	1.004134E+0	1.000887E+0	9.794651E-1	1.008248E+0	9.816223E-1	1.041577E+0	1.013658E+0	1.016619E+0	9.954852E-1	1.027691E+0	1.018119E+0	1.023557E+0	9.502311E-1	9.720109E-1	9.594786E-1	9.337203E-1	1.025511E+0
5.565140E+2	9.984451E-1	9.828051E-1	9.558988E-1	9.487766E-1	9.488319E-1	9.547193E-1	9.634315E-1	9.792865E-1	9.820542E-1	9.800426E-1	9.811449E-1	9.512267E-1	9.387725E-1	9.352599E-1	9.860715E-1	9.964858E-1	9.958749E-1	1.014794E+0	9.840844E-1	9.693615E-1	9.532023E-1	9.984074E-1	9.637370E-1	9.510906E-1	9.500081E-1	9.722558E-1	9.271514E-1	9.470432E-1	9.843324E-1	9.522847E-1	9.642938E-1	9.396138E-1	8.909068E-1	9.645997E-1	9.587919E-1	9.861940E-1	9.962252E-1	9.617504E-1	9.767716E-1	9.556844E-1	9.266624E-1	9.808067E-1	9.784991E-1	9.432765E-1	9.974371E-1	9.232939E-1	9.702687E-1	9.904946E-1	9.573001E-1	9.690466E-1	9.843956E-1	9.788347E-1	9.439951E-1	9.903052E-1	9.623007E-1	9.685632E-1	9.705372E-1	9.122772E-1	9.547651E-1	9.860345E-1	9.884633E-1	9.875625E-1	9.968456E-1	9.917951E-1	1.005151E+0	9.534651E-1	9.526247E-1	9.623506E-1	9.638262E-1	9.651796E-1	9.911664E-1	9.914239E-1	9.979243E-1	9.161347E-1	1.009841E+0	1.001865E+0	9.863803E-1	1.006958E+0	9.916333E-1	9.361079E-1	9.948621E-1	1.001813E+0	9.942982E-1	9.959698E-1	9.952070E-1	9.636769E-1	9.545604E-1	9.753873E-1	9.842916E-1	9.261537E-1	9.722520E-1	9.526992E-1	9.800156E-1	9.437375E-1	9.706888E-1	9.464091E-1	9.529509E-1	9.916865E-1	9.580444E-1	9.489538E-1	9.895804E-1	9.877990E-1	9.841678E-1	9.778393E-1	9.195303E-1	9.753784E-1	9.140354E-1	8.861189E-1	9.441722E-1	9.724648E-1	9.720879E-1	9.647926E-1	9.787299E-1	9.697441E-1	9.442796E-1	1.027821E+0	9.558184E-1	9.801307E-1	9.970173E-1	9.761991E-1	9.958415E-1	9.806596E-1	9.773450E-1	9.576978E-1	1.012405E+0	9.588191E-1	1.009273E+0	9.568072E-1	9.499951E-1	9.550869E-1	1.012872E+0	9.714594E-1	1.004665E+0	9.771244E-1	9.354671E-1	9.974328E-1	9.810683E-1	9.724451E-1	1.022398E+0	1.006185E+0	9.670678E-1	9.981113E-1	9.787836E-1	9.432586E-1	8.904910E-1	9.405049E-1	9.515039E-1	9.322155E-1	9.651221E-1	9.615486E-1	9.272283E-1	9.663779E-1	1.028935E+0	9.792001E-1	9.132665E-1	9.722004E-1	9.702662E-1	9.817691E-1	1.012059E+0	9.614587E-1	9.662161E-1	9.309904E-1	9.416508E-1	9.510913E-1	9.731897E-1	9.689517E-1	9.294985E-1	9.482084E-1	1.005183E+0	9.961136E-1	1.065599E+0
5.570220E+2	9.631889E-1	9.691352E-1	9.740560E-1	9.952867E-1	1.044609E+0	1.005204E+0	9.845526E-1	9.895101E-1	9.969396E-1	9.806068E-1	9.928372E-1	1.006314E+0	1.016712E+0	9.760814E-1	9.338849E-1	1.002734E+0	9.847273E-1	9.840508E-1	9.692240E-1	9.580960E-1	9.972165E-1	1.020936E+0	9.831775E-1	1.058361E+0	9.680209E-1	9.745907E-1	9.768153E-1	9.878554E-1	9.975875E-1	1.028441E+0	9.863644E-1	1.026752E+0	9.614913E-1	1.005586E+0	1.020082E+0	9.591041E-1	1.041815E+0	9.945638E-1	9.636952E-1	9.981205E-1	1.017145E+0	1.005293E+0	1.011564E+0	9.504604E-1	9.768193E-1	1.008495E+0	1.013509E+0	1.025074E+0	1.008970E+0	9.782438E-1	1.026438E+0	1.030998E+0	1.014475E+0	9.728307E-1	1.015058E+0	1.027134E+0	1.009147E+0	9.843803E-1	1.009411E+0	9.553426E-1	9.677525E-1	1.073970E+0	1.001365E+0	1.015756E+0	9.864739E-1	9.506027E-1	1.017634E+0	1.018468E+0	9.447374E-1	1.003427E+0	1.000964E+0	9.470890E-1	9.992514E-1	1.058788E+0	1.015360E+0	9.719652E-1	1.008933E+0	1.003786E+0	1.018357E+0	9.736722E-1	9.857443E-1	9.955667E-1	1.019310E+0	1.001976E+0	1.045185E+0	1.014312E+0	9.721782E-1	1.029120E+0	1.006947E+0	1.044813E+0	1.030612E+0	9.870512E-1	9.884619E-1	9.751602E-1	1.111914E+0	1.002085E+0	1.013627E+0	9.630677E-1	9.952167E-1	9.962167E-1	1.026814E+0	1.024184E+0	9.946856E-1	9.815430E-1	1.014460E+0	1.001784E+0	1.015358E+0	1.043666E+0	9.826883E-1	1.037814E+0	1.037040E+0	9.881145E-1	9.942257E-1	9.673078E-1	9.932847E-1	1.022919E+0	1.014706E+0	1.027472E+0	1.014186E+0	9.747499E-1	9.649986E-1	1.040978E+0	1.005327E+0	1.019838E+0	9.889605E-1	9.798611E-1	1.013409E+0	1.009898E+0	1.036516E+0	1.003396E+0	9.907423E-1	1.002161E+0	9.672508E-1	1.011815E+0	9.843526E-1	9.772573E-1	9.641146E-1	1.033181E+0	1.019874E+0	1.004000E+0	9.982125E-1	9.619828E-1	1.020730E+0	1.012586E+0	9.906298E-1	1.019182E+0	1.037026E+0	9.871477E-1	1.045633E+0	9.928865E-1	1.009758E+0	1.010232E+0	9.782564E-1	9.774208E-1	1.053835E+0	9.876579E-1	9.412400E-1	9.688896E-1	9.804509E-1	1.002282E+0	9.591302E-1	1.016392E+0	1.006444E+0	1.037640E+0	1.023280E+0	9.955319E-1	1.036987E+0	9.568433E-1	9.548506E-1	9.200510E-1	9.815966E-1
5.575420E+2	9.986132E-1	1.017414E+0	1.053218E+0	1.035144E+0	1.011542E+0	9.574285E-1	1.029854E+0	1.002775E+0	1.014787E+0	1.041722E+0	1.012060E+0	9.923439E-1	9.896153E-1	1.007967E+0	9.846153E-1	9.807980E-1	9.934810E-1	1.030937E+0	9.787561E-1	1.021260E+0	9.902953E-1	1.002965E+0	1.017692E+0	1.009946E+0	9.645124E-1	1.026526E+0	9.981750E-1	9.866991E-1	1.005574E+0	1.024276E+0	9.989681E-1	1.018846E+0	1.061769E+0	9.886289E-1	1.018393E+0	1.019139E+0	1.014499E+0	9.832189E-1	9.673835E-1	1.008160E+0	9.754711E-1	9.854239E-1	1.018691E+0	9.866070E-1	9.495250E-1	1.010198E+0	1.024157E+0	1.030774E+0	1.006320E+0	1.035139E+0	9.466970E-1	1.017496E+0	1.019543E+0	9.685629E-1	9.591591E-1	1.004210E+0	1.012820E+0	9.983603E-1	9.714900E-1	9.487728E-1	9.885828E-1	9.793763E-1	9.706207E-1	1.041532E+0	1.006026E+0	1.021804E+0	9.905613E-1	9.876783E-1	1.007200E+0	9.969977E-1	1.022137E+0	1.000502E+0	9.828455E-1	9.694207E-1	9.897988E-1	9.706914E-1	1.006091E+0	1.001200E+0	1.036168E+0	9.942304E-1	9.822450E-1	9.990202E-1	9.961406E-1	9.628538E-1	9.355055E-1	1.000494E+0	9.908460E-1	9.876024E-1	9.544757E-1	9.900356E-1	1.002296E+0	9.963355E-1	9.619535E-1	9.804712E-1	9.569433E-1	9.922686E-1	9.890843E-1	1.000547E+0	9.789336E-1	9.817173E-1	1.018300E+0	9.935567E-1	9.969700E-1	1.037332E+0	1.017238E+0	9.997321E-1	1.042833E+0	1.034521E+0	9.922225E-1	9.852433E-1	1.006677E+0	9.957400E-1	1.019222E+0	1.017881E+0	1.028267E+0	9.517483E-1	9.540609E-1	9.984474E-1	1.046319E+0	9.876556E-1	9.592847E-1	9.833372E-1	9.803868E-1	9.806133E-1	9.865944E-1	1.005539E+0	9.946708E-1	9.766526E-1	1.004064E+0	1.021229E+0	1.032349E+0	9.456086E-1	1.020708E+0	9.979062E-1	1.038242E+0	9.864638E-1	9.868720E-1	1.009608E+0	9.698393E-1	9.526520E-1	9.874437E-1	1.027463E+0	1.006794E+0	1.030536E+0	1.012290E+0	9.718497E-1	1.017795E+0	9.945959E-1	9.836232E-1	1.013055E+0	9.904554E-1	9.706807E-1	1.022457E+0	1.025420E+0	9.801329E-1	9.670740E-1	1.045956E+0	1.020989E+0	1.030398E+0	9.973049E-1	1.017886E+0	1.010171E+0	1.036774E+0	1.015776E+0	9.893134E-1	1.036458E+0	1.000947E+0	9.905374E-1	9.906349E-1	9.898869E-1	9.458725E-1
5.580060E+2	1.012223E+0	9.912982E-1	9.737932E-1	9.669386E-1	9.891334E-1	1.048955E+0	9.950626E-1	1.008129E+0	9.917561E-1	1.000169E+0	9.946687E-1	1.006750E+0	1.002309E+0	9.739363E-1	1.017705E+0	1.001850E+0	9.681456E-1	1.010701E+0	9.816459E-1	1.005788E+0	9.946847E-1	1.010927E+0	9.889955E-1	1.014669E+0	1.006579E+0	1.000086E+0	1.006795E+0	1.030627E+0	9.955320E-1	9.770984E-1	9.790512E-1	9.757880E-1	9.933843E-1	9.767042E-1	9.876779E-1	9.949483E-1	1.023158E+0	9.990986E-1	9.917288E-1	9.632897E-1	9.933455E-1	1.012444E+0	1.006948E+0	9.833066E-1	9.961344E-1	1.012132E+0	1.023290E+0	1.022091E+0	9.976297E-1	1.014732E+0	1.012940E+0	9.922841E-1	9.706755E-1	9.713501E-1	9.888176E-1	9.717305E-1	9.957878E-1	9.966735E-1	9.696226E-1	9.966971E-1	9.779820E-1	9.772394E-1	1.024321E+0	1.000899E+0	9.749448E-1	1.000932E+0	1.004894E+0	9.618711E-1	1.032539E+0	1.014765E+0	1.010851E+0	1.009028E+0	1.007412E+0	1.026259E+0	9.862842E-1	9.567496E-1	9.717051E-1	9.831169E-1	9.776118E-1	9.754429E-1	1.004536E+0	9.589121E-1	1.012744E+0	1.013193E+0	9.633584E-1	1.013560E+0	9.932852E-1	1.043409E+0	9.832686E-1	9.936439E-1	9.579892E-1	1.056623E+0	9.797046E-1	1.015928E+0	9.499517E-1	1.013525E+0	1.052723E+0	9.629361E-1	9.972611E-1	1.000544E+0	1.012186E+0	9.934465E-1	9.719392E-1	9.876144E-1	9.930399E-1	1.021963E+0	1.009031E+0	1.015063E+0	9.999700E-1	9.836177E-1	1.014155E+0	1.000415E+0	1.029996E+0	1.011952E+0	1.005427E+0	9.557724E-1	1.016940E+0	1.012759E+0	9.985358E-1	1.008411E+0	1.008162E+0	9.617867E-1	9.664281E-1	9.913569E-1	9.768747E-1	1.016090E+0	9.256306E-1	1.014191E+0	1.000483E+0	1.018056E+0	1.004833E+0	9.664759E-1	1.008063E+0	9.844489E-1	9.347916E-1	1.018721E+0	9.380633E-1	9.546673E-1	1.046025E+0	9.589831E-1	9.765617E-1	9.487840E-1	9.821975E-1	9.854624E-1	9.961466E-1	9.870223E-1	1.048170E+0	1.017534E+0	9.800535E-1	9.705754E-1	9.832778E-1	1.005220E+0	1.000992E+0	1.025960E+0	9.828073E-1	9.910271E-1	9.768150E-1	1.048038E+0	1.026366E+0	9.781828E-1	9.883121E-1	9.739024E-1	1.027749E+0	1.003875E+0	1.011468E+0	9.538206E-1	9.851595E-1	9.927677E-1	1.015126E+0	9.989796E-1	9.235114E-1
5.585160E+2	1.041719E+0	1.028593E+0	1.004445E+0	1.021968E+0	1.008118E+0	9.932145E-1	9.696421E-1	1.009646E+0	1.021879E+0	1.008349E+0	1.014244E+0	9.956566E-1	1.006441E+0	9.973376E-1	9.974906E-1	1.012275E+0	1.032903E+0	9.830896E-1	1.037496E+0	1.002710E+0	9.788870E-1	9.782399E-1	1.006149E+0	9.637941E-1	9.712727E-1	1.008345E+0	1.014567E+0	1.011708E+0	1.015145E+0	9.853317E-1	9.790682E-1	1.018240E+0	1.022203E+0	1.016978E+0	9.969142E-1	9.750180E-1	1.016858E+0	9.927539E-1	9.752497E-1	9.672117E-1	1.011482E+0	1.000649E+0	9.452087E-1	9.853691E-1	9.662476E-1	9.902105E-1	9.813671E-1	9.420716E-1	1.011527E+0	9.831697E-1	1.037645E+0	9.608951E-1	1.015729E+0	1.003160E+0	1.034759E+0	9.881554E-1	9.848781E-1	1.049577E+0	1.002372E+0	1.018374E+0	1.007154E+0	1.000126E+0	1.014929E+0	9.657568E-1	9.874904E-1	1.037708E+0	9.861174E-1	9.841578E-1	9.851847E-1	9.954572E-1	9.815862E-1	1.007882E+0	9.920142E-1	1.038946E+0	9.694854E-1	1.044955E+0	1.005088E+0	1.024546E+0	9.531895E-1	1.022839E+0	9.917571E-1	9.808325E-1	9.806980E-1	9.849069E-1	9.652168E-1	9.786108E-1	1.018484E+0	9.485237E-1	9.706424E-1	1.016877E+0	1.012751E+0	1.025057E+0	1.033950E+0	1.007095E+0	9.717042E-1	1.019668E+0	9.921308E-1	9.931800E-1	9.986596E-1	9.966572E-1	9.688932E-1	9.762442E-1	9.899567E-1	9.692705E-1	9.877922E-1	1.011646E+0	1.002778E+0	9.850796E-1	9.876869E-1	9.835179E-1	1.000117E+0	1.036620E+0	1.023182E+0	1.003260E+0	1.038893E+0	1.059564E+0	1.010569E+0	9.868097E-1	9.652573E-1	1.000046E+0	1.011925E+0	1.053753E+0	1.002180E+0	1.003815E+0	9.921378E-1	9.913301E-1	1.043669E+0	9.868481E-1	9.673647E-1	1.005310E+0	1.004171E+0	9.879652E-1	9.898227E-1	1.016808E+0	9.706520E-1	1.008236E+0	1.016858E+0	9.903143E-1	9.815788E-1	9.735710E-1	9.695832E-1	1.023454E+0	1.016621E+0	9.911031E-1	1.025707E+0	1.034774E+0	9.757817E-1	1.009120E+0	1.049487E+0	1.035026E+0	1.040588E+0	1.012149E+0	9.841030E-1	9.825585E-1	1.029735E+0	1.025109E+0	1.033031E+0	9.284863E-1	9.599041E-1	1.036486E+0	9.543784E-1	9.960523E-1	1.046080E+0	9.911908E-1	9.952005E-1	9.973423E-1	1.080565E+0	1.032052E+0	1.003716E+0	9.204001E-1	9.808316E-1
5.590040E+2	9.709808E-1	9.813352E-1	1.006962E+0	1.018078E+0	1.000727E+0	1.022718E+0	1.031481E+0	1.018518E+0	9.737471E-1	1.002049E+0	9.781756E-1	1.010886E+0	9.626971E-1	1.043482E+0	9.973700E-1	9.725022E-1	1.012756E+0	9.591290E-1	1.020557E+0	9.739079E-1	9.876601E-1	9.801481E-1	9.730663E-1	9.528973E-1	1.084586E+0	1.020368E+0	1.041081E+0	1.024325E+0	1.006298E+0	9.973606E-1	9.758435E-1	9.923441E-1	9.991672E-1	9.875336E-1	1.012363E+0	1.035669E+0	9.922935E-1	1.012012E+0	1.049250E+0	1.019127E+0	1.040143E+0	1.008625E+0	9.578041E-1	1.000323E+0	9.948261E-1	1.003810E+0	9.962845E-1	9.836355E-1	1.018153E+0	9.845519E-1	1.001812E+0	1.022784E+0	1.010072E+0	1.009942E+0	1.020149E+0	9.751012E-1	9.899620E-1	9.930691E-1	9.920072E-1	1.039330E+0	9.940661E-1	9.824639E-1	1.002709E+0	1.012013E+0	9.845964E-1	1.005002E+0	1.003103E+0	1.039720E+0	1.068929E+0	9.646503E-1	9.643769E-1	1.014445E+0	1.011847E+0	9.785427E-1	1.018624E+0	9.799519E-1	9.931472E-1	9.927979E-1	1.022164E+0	1.022501E+0	9.792662E-1	1.026488E+0	9.956039E-1	9.850494E-1	1.031645E+0	9.978947E-1	1.056539E+0	9.954872E-1	9.908336E-1	1.018407E+0	9.576116E-1	9.616044E-1	9.921077E-1	1.052510E+0	1.016074E+0	1.006874E+0	9.927397E-1	9.670194E-1	1.042304E+0	1.056572E+0	1.030535E+0	9.893530E-1	9.899351E-1	1.003205E+0	1.001735E+0	1.008205E+0	1.002673E+0	9.972671E-1	1.036248E+0	1.024931E+0	1.016758E+0	9.846303E-1	9.880909E-1	1.041925E+0	1.008943E+0	1.000136E+0	1.031032E+0	9.989355E-1	1.014065E+0	1.019401E+0	1.027266E+0	1.025247E+0	9.943870E-1	9.774985E-1	9.943021E-1	1.020404E+0	9.974403E-1	1.016084E+0	1.036712E+0	9.718761E-1	9.839072E-1	1.062496E+0	9.991344E-1	9.964168E-1	1.023742E+0	1.011744E+0	9.930864E-1	1.058009E+0	9.767967E-1	9.984642E-1	9.764091E-1	9.962414E-1	9.980652E-1	9.744219E-1	1.035260E+0	9.923417E-1	9.676762E-1	1.005227E+0	9.754764E-1	9.828846E-1	9.989306E-1	1.008108E+0	1.010264E+0	9.584542E-1	9.760742E-1	9.400348E-1	1.005406E+0	1.029888E+0	1.012263E+0	9.660335E-1	1.034459E+0	1.031092E+0	1.006007E+0	1.014630E+0	1.015953E+0	1.044792E+0	9.673380E-1	9.733711E-1	9.993481E-1	1.064236E+0	1.023867E+0
5.595110E+2	1.031679E+0	1.051514E+0	1.008903E+0	1.055502E+0	1.056223E+0	9.754132E-1	9.994137E-1	1.008711E+0	1.028541E+0	1.052889E+0	9.768441E-1	1.061138E+0	1.054999E+0	1.031691E+0	1.050829E+0	1.018343E+0	1.007875E+0	1.003495E+0	1.049494E+0	1.019167E+0	1.054035E+0	1.020118E+0	1.032294E+0	1.010430E+0	1.069842E+0	1.012020E+0	9.770466E-1	1.022076E+0	1.006322E+0	1.052352E+0	1.028164E+0	1.006161E+0	1.058211E+0	1.049523E+0	1.007850E+0	1.001314E+0	1.025941E+0	1.021057E+0	1.058110E+0	1.035362E+0	1.056412E+0	1.011209E+0	1.044646E+0	1.067556E+0	1.016139E+0	1.020893E+0	1.015890E+0	1.005105E+0	9.951646E-1	1.018270E+0	9.932779E-1	9.914147E-1	1.031788E+0	1.015684E+0	1.030253E+0	1.029360E+0	1.018153E+0	1.064140E+0	1.031598E+0	1.036603E+0	1.019811E+0	1.010271E+0	1.043266E+0	9.820249E-1	1.024202E+0	1.054942E+0	1.023265E+0	1.018867E+0	1.006018E+0	1.021040E+0	1.034736E+0	1.011361E+0	1.002331E+0	1.017058E+0	1.007896E+0	1.060170E+0	9.762915E-1	1.071283E+0	1.036296E+0	9.806531E-1	1.011508E+0	1.052215E+0	1.000949E+0	1.041317E+0	1.056524E+0	1.042760E+0	1.022289E+0	1.015714E+0	1.026958E+0	1.006403E+0	1.049373E+0	1.008464E+0	9.675944E-1	1.053454E+0	9.816452E-1	1.025045E+0	9.845533E-1	1.075016E+0	1.011960E+0	9.864595E-1	9.988842E-1	1.017453E+0	1.046529E+0	1.040370E+0	1.052155E+0	9.800392E-1	1.022703E+0	1.040464E+0	1.029189E+0	1.030758E+0	9.957591E-1	1.018694E+0	9.941081E-1	1.024033E+0	1.030683E+0	1.022146E+0	1.010326E+0	9.998778E-1	1.009093E+0	1.035872E+0	1.046412E+0	9.996541E-1	1.030476E+0	1.038181E+0	1.046838E+0	1.036667E+0	1.038826E+0	1.009668E+0	1.009534E+0	1.024885E+0	1.053490E+0	1.032699E+0	9.976223E-1	1.003256E+0	1.099426E+0	1.009503E+0	1.035931E+0	1.053148E+0	9.934044E-1	1.037220E+0	1.073506E+0	1.040491E+0	1.026094E+0	1.063926E+0	1.005793E+0	1.021038E+0	1.012258E+0	1.049032E+0	9.990517E-1	1.032580E+0	1.044584E+0	1.047421E+0	1.022402E+0	1.014951E+0	1.041175E+0	1.077603E+0	1.032035E+0	1.018127E+0	9.907281E-1	1.015738E+0	1.033939E+0	1.021948E+0	9.989196E-1	9.875238E-1	1.043867E+0	1.044676E+0	1.026333E+0	1.034459E+0	9.805147E-1	1.022411E+0	1.015146E+0
5.600470E+2	1.010311E+0	9.941899E-1	1.024370E+0	1.008046E+0	1.009932E+0	1.056732E+0	1.036452E+0	1.013177E+0	1.036066E+0	9.898481E-1	1.050020E+0	1.045606E+0	1.036581E+0	1.056005E+0	1.051815E+0	1.020047E+0	1.054535E+0	1.076642E+0	1.007439E+0	1.053616E+0	1.059690E+0	1.028257E+0	1.030559E+0	1.057022E+0	1.016697E+0	1.031108E+0	1.103352E+0	1.012666E+0	1.046381E+0	1.014626E+0	1.037953E+0	1.036929E+0	1.019955E+0	1.034319E+0	1.023059E+0	1.042355E+0	9.468040E-1	1.033004E+0	1.035555E+0	1.054374E+0	1.051389E+0	1.032064E+0	1.057404E+0	1.084884E+0	1.091549E+0	1.027927E+0	1.024102E+0	1.093548E+0	1.020129E+0	1.031159E+0	1.041197E+0	1.022710E+0	1.037419E+0	1.050065E+0	1.029701E+0	1.039426E+0	1.035555E+0	9.955663E-1	1.063533E+0	1.043680E+0	1.059855E+0	1.001081E+0	1.014743E+0	1.015446E+0	1.057750E+0	1.032600E+0	1.065538E+0	1.067933E+0	1.058196E+0	1.059863E+0	1.025028E+0	1.056323E+0	1.009888E+0	1.018616E+0	9.899996E-1	1.071023E+0	1.066615E+0	1.006222E+0	1.045919E+0	1.026622E+0	1.056233E+0	1.034700E+0	1.037756E+0	1.035939E+0	1.014849E+0	1.052916E+0	1.083233E+0	1.034204E+0	1.093237E+0	9.944706E-1	1.025891E+0	1.033753E+0	1.098773E+0	1.039437E+0	1.049117E+0	1.024281E+0	1.063009E+0	1.030680E+0	1.036478E+0	1.016627E+0	1.019056E+0	1.006781E+0	1.051746E+0	1.036327E+0	1.060263E+0	9.978002E-1	9.835282E-1	1.041746E+0	1.049791E+0	1.026737E+0	1.024457E+0	1.051436E+0	1.066922E+0	9.870804E-1	1.001147E+0	1.083272E+0	1.024559E+0	1.043652E+0	9.731236E-1	1.007000E+0	1.039162E+0	9.919212E-1	1.031004E+0	1.049066E+0	1.015240E+0	1.036501E+0	9.965466E-1	1.014111E+0	1.008893E+0	1.042528E+0	9.768832E-1	1.049189E+0	1.018045E+0	1.088377E+0	1.027355E+0	1.033484E+0	1.049759E+0	9.921330E-1	1.017739E+0	1.026166E+0	1.052969E+0	1.006573E+0	9.965656E-1	1.000482E+0	1.064465E+0	1.039789E+0	1.038452E+0	1.029990E+0	1.024348E+0	1.019030E+0	1.002133E+0	1.010789E+0	1.015500E+0	1.035132E+0	1.064561E+0	1.081378E+0	1.018101E+0	1.026436E+0	1.019527E+0	1.071176E+0	1.037725E+0	1.023195E+0	9.915086E-1	1.023082E+0	1.020109E+0	1.008434E+0	9.707728E-1	1.058198E+0	1.056352E+0	1.113123E+0	1.153964E+0
5.605210E+2	1.038496E+0	1.003406E+0	1.061611E+0	1.024386E+0	9.687038E-1	1.014181E+0	1.013373E+0	1.036475E+0	1.021793E+0	1.016052E+0	1.034860E+0	9.658984E-1	1.030649E+0	9.929706E-1	9.921728E-1	1.054969E+0	9.950362E-1	1.002632E+0	1.031303E+0	1.031848E+0	1.023450E+0	1.033645E+0	1.026005E+0	1.030245E+0	1.021337E+0	1.004660E+0	1.007335E+0	9.869037E-1	1.011360E+0	1.026837E+0	1.051145E+0	1.032580E+0	1.035006E+0	1.027125E+0	9.995072E-1	1.016072E+0	1.007277E+0	1.022886E+0	1.011359E+0	1.016578E+0	9.831860E-1	1.000784E+0	1.013264E+0	1.026124E+0	1.039716E+0	1.059946E+0	9.921138E-1	1.004991E+0	1.042109E+0	1.011280E+0	9.964785E-1	1.048041E+0	1.005599E+0	1.024444E+0	9.918059E-1	9.920060E-1	1.035970E+0	9.990428E-1	1.049132E+0	1.023331E+0	1.023051E+0	1.033790E+0	9.775498E-1	1.014989E+0	1.011478E+0	9.888355E-1	1.015172E+0	1.005171E+0	9.781400E-1	1.016360E+0	1.019040E+0	1.040554E+0	1.041246E+0	9.928034E-1	1.024779E+0	9.767953E-1	1.017758E+0	1.008826E+0	9.701737E-1	1.046679E+0	1.017263E+0	1.012471E+0	1.013265E+0	1.003113E+0	1.025641E+0	9.879111E-1	9.933841E-1	1.004961E+0	1.063554E+0	1.052166E+0	1.055973E+0	1.054631E+0	1.035059E+0	1.023598E+0	1.015184E+0	1.036965E+0	9.987263E-1	1.014966E+0	1.010778E+0	1.033044E+0	1.017889E+0	1.044206E+0	1.057019E+0	1.019107E+0	9.963565E-1	1.030736E+0	1.054897E+0	9.748953E-1	9.891707E-1	1.012546E+0	9.615549E-1	1.016139E+0	9.627204E-1	1.040009E+0	9.864088E-1	9.724990E-1	1.007882E+0	9.935046E-1	9.988169E-1	1.004830E+0	1.020971E+0	1.013113E+0	1.045633E+0	9.946629E-1	1.041951E+0	9.576699E-1	1.042237E+0	1.024643E+0	1.010475E+0	1.005114E+0	9.711918E-1	1.024983E+0	9.815471E-1	9.831020E-1	1.013246E+0	1.001031E+0	1.038632E+0	1.009435E+0	1.005557E+0	1.035502E+0	1.023405E+0	1.032930E+0	9.782610E-1	1.000991E+0	1.063342E+0	1.020907E+0	1.039486E+0	1.027472E+0	9.798776E-1	1.011855E+0	1.038130E+0	9.889869E-1	9.754742E-1	1.033590E+0	1.026920E+0	9.899309E-1	9.725702E-1	1.017599E+0	1.010812E+0	9.886941E-1	1.008876E+0	1.025694E+0	9.678707E-1	9.869438E-1	9.782632E-1	1.008553E+0	1.028546E+0	1.008483E+0	9.858360E-1	1.026101E+0	1.035594E+0
5.610010E+2	9.343441E-1	9.803100E-1	9.367438E-1	9.258752E-1	9.621795E-1	9.714344E-1	9.767363E-1	9.337728E-1	9.324367E-1	9.282724E-1	9.651454E-1	9.641793E-1	9.612245E-1	9.852694E-1	9.880468E-1	9.399954E-1	9.546649E-1	9.345297E-1	9.399997E-1	9.642444E-1	9.608792E-1	9.263570E-1	9.783241E-1	9.515450E-1	9.471454E-1	9.500407E-1	9.476823E-1	9.900960E-1	9.314676E-1	9.413918E-1	9.991482E-1	9.527467E-1	9.579053E-1	9.490031E-1	9.753616E-1	9.701864E-1	9.351293E-1	9.796549E-1	9.708978E-1	9.820929E-1	9.447646E-1	9.627016E-1	9.659702E-1	9.720936E-1	9.716071E-1	9.430954E-1	9.590179E-1	9.022163E-1	9.426978E-1	9.744079E-1	9.591185E-1	9.345419E-1	9.507049E-1	9.936563E-1	9.679967E-1	1.004314E+0	9.471906E-1	1.006914E+0	9.560700E-1	9.518358E-1	9.732827E-1	9.541202E-1	9.536516E-1	9.597883E-1	9.618880E-1	9.541083E-1	9.410914E-1	9.537826E-1	9.552283E-1	9.622611E-1	9.501143E-1	9.213928E-1	9.552407E-1	9.834304E-1	9.879323E-1	9.658338E-1	9.679915E-1	9.012640E-1	9.484885E-1	1.021253E+0	9.765846E-1	9.379805E-1	9.492363E-1	9.756822E-1	9.668685E-1	9.478646E-1	9.152010E-1	9.655917E-1	9.257918E-1	9.570311E-1	9.352506E-1	9.237831E-1	9.623805E-1	9.086086E-1	9.767789E-1	9.328800E-1	9.604548E-1	1.000900E+0	9.703645E-1	9.832091E-1	9.178633E-1	9.669754E-1	9.170518E-1	9.473913E-1	9.574292E-1	9.727162E-1	9.521644E-1	9.811796E-1	9.888610E-1	9.423711E-1	9.713949E-1	9.434191E-1	9.428031E-1	9.368083E-1	9.626670E-1	9.041229E-1	9.741066E-1	9.584120E-1	9.835851E-1	9.858360E-1	9.259767E-1	9.495496E-1	9.668343E-1	9.872715E-1	9.446955E-1	9.971194E-1	9.382966E-1	9.910973E-1	9.759637E-1	9.525178E-1	9.695605E-1	9.569627E-1	1.013142E+0	9.407462E-1	9.727256E-1	9.561268E-1	9.956160E-1	9.270597E-1	9.667875E-1	1.007256E+0	9.748417E-1	9.639693E-1	9.958879E-1	9.972332E-1	9.158768E-1	9.725909E-1	9.118513E-1	9.476657E-1	9.973278E-1	9.805593E-1	9.649153E-1	9.800356E-1	9.616166E-1	9.673121E-1	9.314937E-1	9.679845E-1	1.004580E+0	9.597777E-1	9.574917E-1	9.826432E-1	9.990782E-1	9.705624E-1	9.769968E-1	9.882480E-1	9.493567E-1	9.414409E-1	9.738528E-1	1.005080E+0	1.008438E+0	9.486978E-1	8.740166E-1
