Photon Energy (eV)	#1	#2	#3	#4	#5	#6	#7	#8	#9	#10	#11	#12	#13	#14	#15	#16	#17	#18	#19	#20	#21	#22	#23	#24	#25	#26	#27	#28	#29	#30	#31	#32	#33	#34	#35	#36	#37	#38	#39	#40	#41	#42	#43	#44	#45	#46	#47	#48	#49	#50	#51	#52	#53	#54	#55	#56	#57	#58	#59	#60	#61	#62	#63	#64	#65	#66	#67	#68	#69	#70	#71	#72	#73	#74	#75	#76	#77	#78	#79	#80	#81	#82	#83	#84	#85	#86	#87	#88	#89	#90	#91	#92	#93	#94	#95	#96	#97	#98	#99	#100	#101	#102	#103	#104	#105	#106	#107	#108	#109	#110	#111	#112	#113	#114	#115	#116	#117	#118	#119	#120	#121	#122	#123	#124	#125	#126	#127	#128	#129	#130	#131	#132	#133	#134	#135	#136	#137	#138	#139	#140	#141	#142	#143	#144	#145	#146	#147	#148	#149	#150	#151	#152	#153	#154	#155	#156	#157	#158	#159	#160	#161	#162	#163	#164	#165	#166	#167	#168	#169	#170	
5.300370E+2	-8.953422E-3	-4.520875E-3	-2.772244E-3	9.709910E-2	-8.182079E-3	8.239137E-4	-8.087385E-3	-5.913560E-3	1.753390E-3	-9.743347E-3	-1.371478E-2	-8.209539E-5	-1.311704E-2	-2.284006E-3	-1.051916E-2	-1.065282E-2	-1.016667E-2	-5.000967E-3	-5.522454E-3	-9.547085E-3	-5.886871E-3	-1.368825E-2	-1.983145E-3	-7.855759E-3	-1.256252E-2	-6.939508E-3	1.742340E-4	-4.521455E-3	-6.373144E-3	9.512231E-4	-8.250030E-3	-3.956136E-3	-7.950194E-3	-4.717017E-3	-5.149195E-3	-2.011740E-3	-4.945068E-3	-1.366382E-2	-5.676760E-3	-7.767840E-3	-6.134719E-3	-1.019166E-2	-4.066884E-3	-1.340099E-2	-4.064901E-3	-7.588431E-3	-4.136913E-3	-2.392163E-3	-1.235479E-3	-6.461676E-3	1.410078E-3	2.182480E-5	-1.249446E-2	-1.069588E-2	-2.807935E-3	-6.946044E-3	-1.102146E-2	-6.346045E-3	3.142178E-3	-5.963994E-3	1.379775E-3	9.788452E-4	-5.665323E-3	-5.900425E-3	-3.386518E-3	-9.505780E-3	-5.233454E-3	-1.146833E-3	-9.758468E-3	-2.157819E-3	-9.312620E-3	-6.566106E-3	-5.053092E-4	2.850822E-4	-2.798164E-3	-6.116116E-3	-4.631089E-3	-8.238780E-3	-2.941004E-3	-6.721876E-3	-7.439850E-3	-9.967689E-3	2.850853E-3	-4.387602E-3	-1.094110E-2	-9.554174E-3	-8.890953E-3	-8.043344E-3	-5.659852E-3	-6.421548E-3	-9.805164E-3	-4.469746E-3	-5.076044E-3	-4.574814E-3	-1.184334E-2	-1.016293E-2	-1.027106E-2	-4.569434E-3	-8.541520E-3	-2.987115E-3	-6.081858E-3	-2.351299E-3	-9.584128E-3	-1.163810E-2	-8.397168E-3	-7.177105E-3	-4.749301E-3	4.678775E-4	-3.653758E-4	-1.502255E-3	-6.811533E-3	-7.766311E-3	-3.977585E-3	-1.045111E-3	5.450423E-3	1.151881E-2	-6.652321E-3	-7.873413E-3	-6.036145E-4	-4.496052E-3	-5.347084E-3	-2.997769E-3	-3.514795E-4	-1.532703E-2	-6.348563E-3	-5.450065E-3	-6.571585E-3	-4.297111E-3	1.296693E-3	5.785254E-4	-3.591234E-3	2.513769E-4	-1.865781E-3	-3.719496E-3	-8.443694E-3	-1.037282E-2	-2.397988E-3	-3.578670E-3	-3.930911E-4	-1.335693E-3	-1.206476E-2	-3.291500E-3	-2.874857E-3	-1.052089E-2	-5.125939E-3	-1.022823E-3	-3.976538E-3	-2.810634E-3	-8.878081E-3	-7.306665E-3	-5.312177E-3	-1.269770E-3	-1.087260E-2	-7.179629E-3	-1.385244E-2	-7.802697E-3	-1.961952E-3	-7.414750E-3	-5.761370E-3	-6.933085E-3	-1.261603E-2	-3.207547E-3	-4.637509E-3	-1.349102E-2	-1.013361E-2	-3.220186E-3	-7.579561E-3	-6.970868E-3	-1.213836E-2	-7.401271E-3
5.305180E+2	-1.082967E-2	-7.346660E-3	-1.573200E-3	-4.694969E-2	-6.253623E-3	-5.517822E-3	-7.125086E-4	-5.992835E-3	-1.144153E-2	-2.508534E-3	-5.008988E-3	-6.803051E-3	1.011474E-3	-5.174152E-3	4.097886E-3	1.108961E-3	-4.517343E-3	-8.688664E-3	-2.158744E-3	4.131458E-3	-3.895524E-3	-1.637501E-3	2.106649E-3	-3.290615E-3	2.115917E-3	-3.061971E-3	-1.596142E-2	-6.234251E-3	-6.202630E-3	-5.938065E-3	-7.264630E-3	-5.594842E-3	-6.804830E-3	1.337176E-3	-4.595785E-3	-4.869071E-3	-1.022309E-2	-9.861860E-3	-1.557996E-3	3.767785E-3	-3.860522E-5	-1.106301E-3	-3.997000E-3	1.895862E-4	-4.289723E-3	4.925095E-3	-3.989565E-3	-5.904851E-3	4.968263E-4	-5.931273E-3	-2.716814E-3	-1.041891E-2	-6.299029E-3	1.599567E-3	-5.276093E-3	-5.075506E-3	-8.304577E-4	8.874979E-3	1.765878E-3	-8.279206E-3	-8.005344E-3	-2.315313E-3	2.203741E-3	-2.156757E-3	-5.586187E-3	-4.382651E-3	-2.001451E-3	-1.048639E-3	-4.322622E-3	-2.866441E-3	-4.678937E-3	4.292113E-4	-2.313223E-3	-4.780017E-3	-1.119529E-2	2.676595E-3	-2.359970E-3	3.015481E-3	-7.083355E-3	-3.364034E-3	5.263580E-4	-3.629902E-3	-4.643247E-4	-1.982240E-3	1.628709E-4	-1.119737E-3	3.491598E-3	-3.160280E-3	-7.538904E-3	-3.694435E-3	-2.648127E-3	-4.503437E-3	-7.543842E-4	-1.925295E-3	-2.613468E-3	3.253581E-3	1.802717E-3	-8.453172E-3	-5.139400E-3	-1.173011E-2	-5.975931E-3	-6.225397E-3	-7.196327E-3	-5.095506E-3	-8.416058E-3	-4.958253E-3	-2.543803E-4	-2.849887E-3	-5.977569E-4	-7.259950E-3	8.178271E-4	-8.723745E-3	1.449619E-3	-4.650760E-3	-3.491834E-3	3.229071E-4	-3.564734E-3	-1.798085E-3	4.431508E-4	-1.554701E-3	-2.826767E-3	-4.576979E-3	-1.214428E-3	-2.705950E-3	8.571610E-4	-1.048952E-2	-5.579848E-3	-2.760625E-3	-3.455803E-3	3.048683E-3	-8.156501E-3	-6.278809E-3	-3.783576E-3	-7.843221E-4	6.637879E-3	-2.473134E-3	-8.389292E-3	-9.913494E-3	-2.936937E-3	-4.696245E-3	6.509958E-3	-5.175253E-3	-4.095219E-3	-7.970299E-3	8.194782E-4	-3.831277E-3	-6.772114E-3	-5.588105E-3	9.482995E-4	1.458822E-4	-3.337081E-3	-1.260385E-4	3.135930E-3	-7.177658E-3	2.689202E-3	2.230592E-3	-1.726352E-3	-1.152502E-2	-7.275819E-3	7.832579E-4	-5.912524E-3	-6.250070E-3	-1.794917E-3	-1.670278E-3	-2.029005E-3	-4.980694E-3	-4.707168E-3	9.031551E-4	-2.177440E-3	9.093269E-3
5.310350E+2	-6.344194E-3	6.833237E-3	-7.467143E-3	-1.090075E-1	-5.920396E-3	-4.219298E-3	-4.804734E-3	5.432803E-4	6.184746E-6	1.987064E-3	2.538739E-3	-2.753199E-3	-2.292636E-3	-4.538363E-4	-3.022507E-3	-4.377900E-3	3.404605E-3	-1.999108E-3	-6.964968E-3	1.501506E-3	5.638355E-3	-2.564695E-3	-3.206914E-3	-2.891364E-3	-7.803452E-3	3.987474E-3	-4.745852E-3	8.690680E-4	-2.287992E-3	-5.576804E-3	-6.901626E-3	1.167386E-3	6.424037E-3	1.739423E-3	1.230795E-3	-3.945269E-3	1.378606E-3	-2.788955E-3	-1.201867E-3	-9.064625E-3	-8.265022E-4	1.676150E-3	3.829524E-4	-3.199817E-3	-2.674976E-3	-5.503077E-3	4.317029E-3	1.080389E-2	-6.359577E-3	-2.250881E-3	-7.272918E-4	2.469375E-3	-1.151782E-3	-2.905991E-3	-1.841082E-3	4.898537E-3	-4.364059E-4	-8.100992E-3	-7.060077E-3	-1.568311E-3	-4.142366E-3	-1.574131E-2	-3.654842E-3	-1.630980E-4	-1.444180E-4	1.213071E-4	-1.114151E-3	3.974385E-3	5.069536E-4	-3.826612E-3	-7.955961E-3	-4.209647E-3	-7.464531E-3	-6.526101E-3	-2.340388E-3	-1.645585E-3	-2.349176E-3	-1.545697E-3	-6.700965E-4	-4.849254E-3	3.484025E-4	4.343182E-3	-9.841060E-3	-6.380349E-3	-1.206448E-2	-8.736659E-3	-3.293343E-3	3.394712E-3	3.218406E-3	3.857640E-3	-2.266789E-3	3.712259E-3	-4.514163E-3	-7.525040E-3	-9.415964E-4	2.640281E-3	5.940252E-4	-4.229234E-3	-1.301979E-3	4.531481E-3	-2.063665E-3	4.083442E-3	1.975104E-3	6.109497E-3	-6.388958E-3	5.521306E-3	-4.892239E-3	2.272419E-3	-6.955102E-3	4.516659E-4	4.021219E-3	3.283662E-3	-2.458512E-3	6.345017E-4	-2.033945E-3	-8.220551E-3	-2.180905E-3	-1.392827E-3	-6.278056E-3	-2.112463E-4	-2.422960E-3	4.069548E-3	-1.266336E-2	-1.042729E-3	2.175439E-3	-4.954943E-3	2.695506E-3	1.428118E-3	-1.914253E-3	-1.295425E-2	-6.723947E-3	-5.942400E-3	7.458255E-5	1.062705E-3	-7.110191E-3	-3.378916E-4	5.242249E-3	-8.760851E-4	1.179079E-4	5.022656E-3	-3.728642E-3	2.096011E-3	6.601667E-3	2.996799E-3	1.205882E-3	-3.475311E-3	-1.337289E-2	-3.952051E-3	-1.232291E-3	-6.265605E-3	-5.680595E-3	7.692769E-4	1.072499E-3	1.125880E-3	9.171882E-4	5.200360E-3	-4.402061E-3	-8.828172E-4	-1.006162E-3	-1.358515E-3	5.955932E-3	-2.160597E-3	-8.769340E-3	1.400382E-3	4.310484E-3	-2.171333E-3	2.638743E-4	-6.081107E-3	-4.045992E-4	-4.043073E-3
5.315130E+2	-3.927997E-3	-1.786421E-3	-4.097811E-3	8.290792E-2	4.508675E-3	7.476752E-5	-4.280141E-3	4.550402E-3	-2.199214E-3	6.665417E-3	-3.521594E-3	9.697847E-3	-3.837235E-3	-4.748434E-3	-2.964804E-3	1.467039E-3	-4.472853E-3	-8.843186E-4	-6.806270E-4	4.609099E-4	-5.825624E-3	1.384940E-3	-4.029482E-3	-5.133801E-3	4.319549E-3	2.359540E-3	4.592503E-3	3.225697E-3	1.653165E-4	-8.435994E-4	9.022992E-3	5.774505E-4	-1.566678E-4	-7.618666E-3	-9.179961E-4	-2.706520E-3	2.803541E-3	1.716535E-2	8.797918E-3	2.264612E-3	-1.996074E-3	6.069921E-3	-7.112544E-4	6.246109E-3	-5.284662E-4	1.660739E-3	-8.623678E-3	-2.340626E-3	3.651392E-4	1.077070E-3	-9.313749E-3	-5.620157E-4	3.388756E-4	2.907693E-3	8.597075E-4	1.453686E-4	-2.698268E-3	-5.415040E-3	-7.533522E-3	-1.529769E-3	-4.526396E-3	6.340555E-4	-2.816364E-3	4.689282E-3	-1.808632E-3	1.207921E-3	4.919208E-3	-1.822664E-3	-1.921791E-3	-6.701506E-4	6.287314E-3	2.773962E-3	1.156155E-3	-2.305170E-3	9.139176E-4	7.752708E-4	-1.458745E-3	-9.399624E-3	1.415254E-3	-4.330283E-3	-2.855982E-3	-2.632771E-3	-5.791279E-3	-1.457130E-3	3.057555E-3	7.307658E-4	3.958735E-3	-5.031288E-4	-4.728179E-3	-1.645936E-3	1.909465E-3	5.566968E-3	-1.657075E-3	6.999269E-3	-8.746433E-4	-2.512765E-3	-1.569194E-3	4.781613E-3	6.333351E-3	4.052986E-3	-5.049698E-3	-2.208797E-3	-2.142898E-3	7.608531E-3	5.585319E-3	3.307191E-3	-4.251873E-3	2.848050E-4	3.459199E-3	9.431481E-4	-6.353806E-4	7.903591E-3	-3.655922E-3	-5.592311E-4	-5.253862E-3	-6.275872E-3	-1.624741E-3	-8.824513E-4	-3.565836E-3	4.532063E-3	-1.159793E-3	-3.092890E-3	1.057924E-2	9.163478E-4	-4.924888E-3	3.381469E-3	-1.825751E-3	-5.683717E-3	-6.119440E-3	4.740930E-4	3.055546E-3	-5.305925E-3	-4.908688E-3	-6.139875E-3	-2.173328E-3	-7.174362E-4	1.046780E-3	-8.441964E-4	-4.672986E-3	-2.973196E-3	2.860436E-3	8.745084E-4	-2.803669E-3	2.045581E-5	3.435281E-5	-1.114874E-3	6.430053E-3	-1.246911E-3	-6.668905E-4	-8.361525E-4	6.227540E-3	-8.329983E-3	-4.411120E-3	1.199494E-2	-4.071628E-3	-5.020269E-4	-1.571180E-3	4.588422E-4	-5.174231E-4	7.429052E-3	1.184767E-2	3.451479E-3	3.156777E-3	-4.632852E-3	-5.150199E-4	7.127789E-3	-2.545023E-3	5.808150E-3	-4.426380E-3	5.182095E-3
5.320020E+2	5.902052E-3	5.381578E-3	5.288544E-3	-1.298713E-3	2.379898E-3	6.962103E-3	1.392895E-3	-6.093670E-3	4.748419E-3	1.177909E-3	1.173122E-2	-3.866116E-3	-2.209601E-4	3.451227E-3	2.744825E-3	-1.131156E-3	9.012859E-3	6.324796E-3	2.412513E-3	4.407018E-3	4.178738E-3	8.171315E-3	1.631904E-4	9.494676E-3	5.372639E-4	-6.372425E-3	9.264301E-3	8.382260E-3	6.867351E-3	-5.922097E-4	1.102867E-2	1.097431E-3	7.872217E-3	4.811209E-3	2.141353E-3	4.715728E-3	4.505210E-3	5.139652E-3	-2.294175E-3	2.598830E-3	5.041914E-3	-4.761929E-4	-1.043246E-3	2.101327E-3	-2.306875E-3	1.494676E-3	8.463556E-3	3.246978E-3	4.389675E-3	6.982145E-3	-3.861517E-4	5.573037E-4	5.576502E-3	4.478841E-3	-2.889982E-3	-3.119956E-4	1.263547E-2	1.075285E-2	9.027956E-4	6.889533E-3	1.511053E-3	2.159490E-3	6.461965E-3	-8.022836E-4	2.025919E-3	6.715280E-3	7.965296E-4	3.706136E-3	5.353827E-3	4.017876E-3	2.434382E-3	1.765572E-3	8.190748E-3	3.695364E-3	-9.889787E-4	1.592841E-3	-1.597027E-3	5.889937E-3	6.982860E-3	1.199846E-2	5.491635E-3	6.412389E-3	5.343857E-3	6.723989E-3	3.807347E-3	1.091560E-2	-4.003134E-3	-2.669571E-4	-8.080043E-4	-8.687638E-4	6.836156E-3	-2.695456E-3	-9.234352E-4	-4.292395E-3	-1.863123E-4	-1.245660E-3	-1.876170E-3	1.010057E-2	1.298406E-3	-9.967546E-3	6.898819E-3	-1.521551E-3	5.109622E-3	-2.083903E-3	1.157243E-2	-1.536327E-3	5.575433E-3	-4.224929E-3	1.010154E-3	1.635655E-3	-1.567847E-3	-3.576930E-3	5.194708E-3	-2.831544E-3	-7.773569E-3	-2.257832E-3	7.015172E-4	1.698281E-3	-2.376036E-4	-4.183087E-3	9.934004E-3	-3.448359E-3	-4.218390E-3	6.415852E-3	5.163155E-3	5.375730E-3	-3.193159E-4	2.931932E-4	5.043459E-3	1.295574E-3	6.786630E-3	5.221806E-3	3.380035E-3	1.296742E-3	5.972402E-3	1.300148E-3	2.483993E-3	-1.827623E-3	-1.249408E-3	-4.138351E-3	-1.114233E-3	2.462411E-3	-1.657063E-3	1.800594E-3	-9.636459E-4	4.944618E-3	1.139393E-2	1.645259E-3	-1.990284E-3	4.313081E-3	4.666550E-5	7.847302E-3	-4.181589E-3	-2.600138E-3	7.364856E-3	-8.601027E-3	3.184249E-3	5.907017E-3	6.125902E-3	-2.100919E-3	1.086457E-3	1.193370E-3	5.075055E-3	-1.041129E-3	8.207014E-4	-2.377287E-3	1.383360E-2	3.095422E-3	1.358979E-2	-8.401406E-3
5.325170E+2	2.415323E-2	1.439141E-3	1.062185E-2	-2.275116E-2	1.346752E-2	1.876336E-3	1.649187E-2	1.290638E-2	7.132749E-3	2.421490E-3	7.975397E-3	3.806614E-3	1.845639E-2	9.209201E-3	9.663756E-3	1.358587E-2	6.739406E-3	1.024826E-2	1.291428E-2	-9.538064E-4	5.790925E-3	8.334190E-3	6.949701E-3	9.676863E-3	1.339324E-2	1.002689E-2	6.676236E-3	-1.721318E-3	7.831099E-3	1.199946E-2	2.364622E-3	6.708710E-3	6.154380E-4	4.447875E-3	7.290828E-3	8.816872E-3	6.480801E-3	4.009630E-3	1.932880E-3	8.201238E-3	3.953986E-3	4.028078E-3	9.435432E-3	8.063786E-3	1.386494E-2	5.010998E-3	3.969571E-3	-3.413224E-3	2.343415E-3	6.584615E-3	1.173393E-2	7.932424E-3	1.402990E-2	4.615773E-3	1.195538E-2	7.289640E-3	2.351120E-3	2.342514E-4	8.782748E-3	1.045175E-2	1.378328E-2	1.428424E-2	3.470823E-3	4.333281E-3	8.899836E-3	5.843922E-3	2.633318E-3	-3.662385E-3	1.014210E-2	5.503147E-3	1.322582E-2	5.807008E-3	9.361599E-4	9.630842E-3	1.640890E-2	2.716995E-3	1.239601E-2	1.027868E-2	2.296341E-3	7.266983E-3	3.929437E-3	5.474790E-3	7.901953E-3	7.483332E-3	1.597781E-2	7.764209E-3	8.737098E-3	8.578998E-3	1.551653E-2	8.773042E-3	5.974459E-3	2.389412E-3	1.292510E-2	1.131828E-2	1.645936E-2	8.027492E-3	1.131968E-2	2.369662E-3	7.351142E-3	1.610030E-2	1.227233E-2	8.223602E-3	1.183863E-2	5.099480E-3	6.044436E-3	4.843189E-3	8.572361E-3	4.049714E-3	3.448882E-3	5.731735E-3	4.175714E-3	8.879732E-3	3.447692E-3	8.452145E-3	1.310279E-2	4.912534E-3	1.332118E-2	1.024850E-2	1.024196E-2	5.913023E-3	1.822600E-3	1.004645E-2	7.868413E-3	1.174351E-2	3.077696E-3	1.213733E-2	1.160099E-2	1.102014E-2	5.149343E-3	7.557379E-3	8.629506E-3	1.205395E-2	7.103427E-3	8.284246E-3	5.116932E-3	1.260113E-2	2.014257E-3	1.704007E-2	9.134515E-3	8.120830E-3	7.537237E-3	3.033823E-3	4.829142E-3	1.367334E-2	4.029872E-3	4.499667E-3	6.297555E-3	1.195244E-2	1.181925E-2	9.949458E-3	8.055648E-3	1.109213E-3	1.525688E-2	3.836603E-3	6.952826E-3	9.474799E-3	6.477297E-3	1.345673E-2	8.434872E-3	2.180210E-3	-3.615051E-4	6.973365E-3	6.969934E-3	1.943489E-2	7.546451E-3	5.621711E-3	7.342741E-4	3.245248E-3	5.556988E-3	5.570386E-3
5.330030E+2	1.074607E-2	8.335835E-3	7.067817E-4	1.277202E-1	1.112615E-2	1.483750E-2	1.402986E-2	1.686545E-2	5.339583E-3	2.247226E-2	1.016675E-2	1.480688E-2	1.357615E-2	8.128057E-3	1.531519E-2	1.173571E-2	1.748543E-2	1.399219E-2	1.967343E-2	9.947505E-3	1.813426E-2	1.502533E-2	1.325950E-2	1.727135E-2	2.795753E-2	2.642336E-2	1.551988E-2	1.170202E-2	1.077349E-2	1.039959E-2	8.807975E-3	7.628805E-3	1.085669E-2	1.610356E-2	1.337319E-2	1.559776E-2	1.112501E-2	3.186880E-3	1.526848E-2	1.654582E-2	1.504757E-2	2.216697E-2	8.810148E-3	1.331503E-2	2.252833E-2	1.954438E-2	1.725515E-2	1.196144E-2	1.540616E-2	2.133846E-2	1.833063E-2	1.442732E-2	1.461558E-2	1.952334E-2	1.114782E-2	2.249694E-2	8.673032E-3	9.273203E-3	5.094572E-3	9.865536E-3	1.977478E-2	2.824155E-2	1.987885E-2	1.050199E-2	1.992694E-2	1.110069E-2	1.975107E-2	2.363118E-2	2.691051E-2	1.186281E-2	5.425171E-3	1.784361E-2	1.510365E-2	2.397901E-2	1.209676E-2	1.571394E-2	8.809574E-3	1.678601E-2	6.508483E-3	1.684572E-2	2.671046E-2	1.493941E-2	1.075112E-2	1.992984E-2	1.861426E-2	4.923438E-3	2.099703E-2	1.152586E-2	7.330979E-3	1.945060E-2	2.382031E-2	2.647355E-2	1.602014E-2	2.576447E-2	1.032231E-2	2.338318E-2	1.470001E-2	1.259906E-2	1.449273E-2	1.589751E-2	1.152239E-2	1.985975E-2	1.625555E-2	2.065539E-2	1.706335E-2	1.796408E-2	1.027799E-2	1.218828E-2	2.658344E-2	1.247198E-2	1.560055E-2	2.088099E-2	1.308082E-2	2.163478E-2	1.765794E-2	1.232530E-2	2.472032E-2	2.169380E-2	1.942520E-2	1.933453E-2	6.154235E-3	8.906348E-3	1.625264E-2	1.645220E-2	2.407988E-2	1.227328E-2	2.070240E-2	2.229863E-2	2.100803E-2	1.962322E-2	1.438795E-2	1.510725E-2	1.267747E-2	1.415563E-2	1.914120E-2	1.448333E-2	3.627910E-3	1.107951E-2	1.827823E-2	1.196131E-2	1.891575E-2	9.247366E-3	1.963271E-2	9.619891E-3	2.538238E-2	1.734946E-2	1.686532E-2	1.922010E-2	1.520043E-2	1.742452E-2	1.835729E-2	1.854995E-2	1.761970E-2	1.126395E-2	1.759210E-2	1.130063E-2	1.920103E-2	1.315440E-2	2.276627E-2	1.572912E-2	1.983524E-2	2.419708E-3	7.897056E-3	1.732538E-2	2.395693E-2	1.504700E-2	2.105423E-2	2.193029E-3	1.574259E-2	2.686658E-2
5.331520E+2	3.327975E-2	1.312635E-2	1.978560E-2	1.644180E-1	3.120496E-2	2.534003E-2	2.307663E-2	2.846151E-2	2.017744E-2	9.274090E-3	1.867964E-2	2.014580E-2	1.269812E-2	1.856215E-2	2.422057E-2	1.861325E-2	2.001232E-2	1.894159E-2	1.232269E-2	2.271438E-2	1.421369E-2	1.939752E-2	1.994050E-2	1.720911E-2	1.810378E-2	2.641579E-2	1.557840E-2	2.640332E-2	1.760841E-2	1.988534E-2	2.064448E-2	1.896849E-2	1.209618E-2	1.955414E-2	2.237423E-2	2.592074E-2	2.356318E-2	1.995502E-2	3.770173E-2	1.104881E-2	2.007446E-2	3.093634E-2	7.212139E-3	1.872796E-2	1.738873E-2	2.670933E-2	2.360717E-2	2.812637E-2	2.118737E-2	2.421330E-2	2.327850E-2	1.882772E-2	2.341316E-2	2.670729E-2	2.147161E-2	2.157413E-2	1.580582E-2	1.847786E-2	1.768024E-2	2.211358E-2	2.646922E-2	9.915322E-3	2.737391E-2	2.092693E-2	3.099215E-2	1.969032E-2	2.643868E-2	2.483165E-2	2.886587E-2	2.086284E-2	2.494649E-2	2.056990E-2	1.834861E-2	8.666676E-3	2.841172E-2	2.583062E-2	2.134699E-2	3.026171E-2	1.512712E-2	1.524243E-2	2.176090E-2	1.266684E-2	2.193448E-2	1.451645E-2	2.158312E-2	2.312733E-2	2.586071E-2	2.320903E-2	1.934518E-2	2.120162E-2	1.703612E-2	3.787135E-2	1.554168E-2	2.355061E-2	1.158987E-2	1.736122E-2	1.080136E-2	7.618531E-3	2.703894E-2	2.016724E-2	1.467156E-2	6.992323E-3	2.095504E-2	2.570887E-2	2.691996E-2	2.088380E-2	2.233019E-2	1.357691E-2	2.243713E-2	1.073151E-2	1.997530E-2	1.738835E-2	3.655992E-2	2.175751E-2	2.765910E-2	1.990383E-2	2.114896E-2	1.976192E-2	2.481247E-2	1.093188E-2	1.994899E-2	2.917472E-2	2.724456E-2	2.134145E-2	1.776608E-2	2.820650E-2	2.616382E-2	2.564154E-2	2.319557E-2	2.099572E-2	1.750349E-2	1.544387E-2	3.016966E-2	2.590100E-2	3.008398E-2	2.279759E-2	2.654703E-2	2.415921E-2	2.703504E-2	2.631429E-2	2.710985E-2	1.930835E-2	1.784587E-2	2.389043E-2	3.059546E-2	2.284211E-2	2.179585E-2	3.290629E-2	2.178596E-2	1.297368E-2	2.902653E-2	2.354023E-2	1.348004E-2	2.405913E-2	1.884630E-2	2.980969E-2	2.824994E-2	3.103958E-2	1.673743E-2	1.472296E-2	2.169448E-2	2.190919E-2	2.975520E-2	1.682206E-2	3.113253E-2	1.014064E-2	1.532485E-2	2.532879E-2	2.211277E-2	2.165978E-2
5.333080E+2	2.587784E-2	2.582564E-2	2.255768E-2	1.658320E-1	2.120751E-2	2.824132E-2	3.108546E-2	3.989649E-2	2.575559E-2	1.871023E-2	3.601161E-2	3.111177E-2	3.227377E-2	1.862583E-2	2.256888E-2	1.787041E-2	2.707682E-2	1.718274E-2	2.087214E-2	2.923508E-2	3.093138E-2	3.044901E-2	3.964266E-2	2.514944E-2	2.319561E-2	3.312874E-2	2.657639E-2	2.795112E-2	2.777928E-2	3.337008E-2	2.326145E-2	3.086413E-2	2.055087E-2	2.508337E-2	2.788085E-2	2.409761E-2	2.958316E-2	2.429272E-2	3.089630E-2	1.467997E-2	2.302655E-2	2.457620E-2	1.338514E-2	2.804872E-2	3.188888E-2	3.488121E-2	2.408665E-2	3.306307E-2	3.652065E-2	2.410544E-2	2.265117E-2	2.363895E-2	3.469344E-2	2.627456E-2	1.833052E-2	9.520773E-3	2.324773E-2	2.912830E-2	3.530584E-2	2.590093E-2	2.608152E-2	2.907998E-2	2.986785E-2	2.533686E-2	2.858651E-2	2.330449E-2	3.523656E-2	1.638351E-2	2.482355E-2	2.673574E-2	2.451856E-2	3.301976E-2	2.499721E-2	2.497574E-2	2.401366E-2	2.799982E-2	2.648293E-2	2.400849E-2	1.970443E-2	3.405247E-2	2.216903E-2	2.140059E-2	1.886271E-2	2.864289E-2	2.403388E-2	2.551279E-2	2.242000E-2	2.890706E-2	2.727264E-2	3.405250E-2	2.114237E-2	2.238290E-2	2.456162E-2	2.792548E-2	2.141252E-2	1.867025E-2	2.884078E-2	3.194495E-2	2.155520E-2	2.433151E-2	2.857034E-2	2.675777E-2	2.474335E-2	2.758758E-2	3.145849E-2	2.819755E-2	2.736627E-2	3.309622E-2	3.028347E-2	1.511596E-2	2.812863E-2	1.910271E-2	3.202075E-2	1.092238E-2	1.321948E-2	1.335078E-2	3.682510E-2	2.396061E-2	2.120493E-2	2.717831E-2	3.810921E-2	3.202801E-2	3.254531E-2	2.808718E-2	3.160012E-2	2.341102E-2	2.329131E-2	3.257982E-2	2.737403E-2	3.320116E-2	3.135242E-2	2.285192E-2	3.831544E-2	3.174769E-2	2.314307E-2	2.904102E-2	2.336522E-2	2.347156E-2	2.656646E-2	3.711256E-2	3.052817E-2	1.852179E-2	2.566740E-2	3.112215E-2	2.745954E-2	2.392362E-2	1.460898E-2	3.118234E-2	3.038077E-2	3.588486E-2	2.772283E-2	2.525267E-2	3.339635E-2	3.265528E-2	2.899561E-2	2.882304E-2	2.399867E-2	2.374697E-2	2.415163E-2	3.657688E-2	3.285203E-2	3.562495E-2	3.153534E-2	3.291791E-2	2.462275E-2	1.451983E-2	3.565593E-2	3.021944E-2	3.922650E-2	1.275130E-3
5.334580E+2	3.215356E-2	2.480489E-2	4.464687E-2	3.611423E-1	2.142715E-2	2.456780E-2	3.093339E-2	3.787452E-2	2.844549E-2	2.213343E-2	3.734051E-2	3.421075E-2	2.951511E-2	3.784726E-2	4.160124E-2	2.624217E-2	2.545005E-2	3.961628E-2	3.090116E-2	3.325813E-2	2.740081E-2	2.577296E-2	2.997234E-2	2.270081E-2	3.042306E-2	2.649393E-2	3.917050E-2	3.681769E-2	3.204531E-2	2.791954E-2	3.666364E-2	3.383782E-2	3.164405E-2	3.314608E-2	4.460077E-2	3.823293E-2	3.816563E-2	3.483665E-2	3.477130E-2	2.356124E-2	2.942693E-2	3.113820E-2	2.862357E-2	2.471913E-2	3.037945E-2	3.592976E-2	3.539885E-2	3.503143E-2	3.440123E-2	3.417883E-2	3.436293E-2	2.562447E-2	3.291522E-2	4.320529E-2	4.104903E-2	3.131743E-2	2.456091E-2	3.306045E-2	3.653119E-2	3.050074E-2	4.435030E-2	2.301672E-2	3.405411E-2	4.476382E-2	3.749358E-2	4.267745E-2	3.373371E-2	4.399314E-2	3.412011E-2	3.051941E-2	2.468093E-2	3.412097E-2	3.137303E-2	2.938446E-2	4.378918E-2	2.140376E-2	3.341739E-2	4.419838E-2	2.069754E-2	3.582353E-2	4.290730E-2	2.750267E-2	3.537328E-2	3.374446E-2	3.215291E-2	3.478820E-2	3.039738E-2	3.604419E-2	3.742120E-2	3.136665E-2	3.600721E-2	4.318391E-2	4.141966E-2	2.808390E-2	4.167415E-2	4.028352E-2	2.270921E-2	3.207813E-2	2.464795E-2	3.402992E-2	3.235277E-2	3.199465E-2	3.152651E-2	4.354633E-2	4.376638E-2	3.693488E-2	2.635785E-2	2.366129E-2	3.136362E-2	3.074893E-2	2.507704E-2	4.223350E-2	4.033704E-2	3.463912E-2	3.582167E-2	3.296903E-2	3.420091E-2	2.471845E-2	2.954299E-2	2.637882E-2	3.667766E-2	4.106040E-2	3.861542E-2	3.577552E-2	2.741089E-2	3.157352E-2	4.347084E-2	3.613925E-2	3.745161E-2	3.845031E-2	3.132230E-2	3.048136E-2	3.706525E-2	3.543187E-2	3.135419E-2	3.940665E-2	3.594365E-2	3.693066E-2	3.830656E-2	3.233961E-2	3.262762E-2	3.881013E-2	3.492339E-2	3.412418E-2	3.574323E-2	1.461027E-2	2.546117E-2	3.567908E-2	3.221285E-2	2.865742E-2	3.086165E-2	4.757956E-2	3.636685E-2	2.007954E-2	4.198056E-2	3.729437E-2	3.922605E-2	2.792632E-2	3.867623E-2	2.776137E-2	2.765206E-2	4.493905E-2	3.890108E-2	3.444473E-2	4.266289E-2	2.364693E-2	2.769617E-2	4.231192E-2	2.698050E-2	3.655054E-2
5.336080E+2	5.243559E-2	3.548494E-2	4.650426E-2	3.815336E-1	4.230999E-2	4.880766E-2	2.600974E-2	4.853504E-2	5.147621E-2	4.148387E-2	3.748768E-2	3.609944E-2	3.908347E-2	4.289868E-2	3.747956E-2	3.255783E-2	4.685265E-2	3.157642E-2	3.563229E-2	5.499586E-2	4.658112E-2	4.142095E-2	4.629698E-2	3.960540E-2	5.225711E-2	5.504948E-2	5.106052E-2	4.896102E-2	4.524424E-2	5.202507E-2	4.238962E-2	4.230993E-2	4.222532E-2	5.020625E-2	4.129016E-2	4.065798E-2	5.540532E-2	3.584537E-2	5.388052E-2	4.347220E-2	5.084042E-2	4.014898E-2	3.748615E-2	5.408629E-2	5.022786E-2	5.192996E-2	4.972602E-2	5.020194E-2	3.513428E-2	3.249860E-2	4.991643E-2	3.341120E-2	5.291300E-2	4.607987E-2	4.211511E-2	3.711196E-2	4.647593E-2	4.722379E-2	4.608528E-2	4.063690E-2	3.999790E-2	3.695864E-2	4.543561E-2	4.625688E-2	3.937203E-2	2.782734E-2	4.946423E-2	4.174709E-2	3.428051E-2	4.426217E-2	5.056790E-2	4.583341E-2	3.962213E-2	3.270145E-2	2.808190E-2	3.389203E-2	4.076550E-2	5.290862E-2	3.822673E-2	3.129151E-2	4.916977E-2	4.612749E-2	4.897770E-2	3.718173E-2	4.826144E-2	3.781698E-2	5.948722E-2	3.401433E-2	4.882207E-2	4.279921E-2	4.615381E-2	4.043231E-2	5.783294E-2	3.781140E-2	4.142111E-2	4.303877E-2	3.365585E-2	4.822858E-2	5.460000E-2	3.096921E-2	3.976122E-2	4.465282E-2	3.831352E-2	3.857457E-2	4.213963E-2	4.451581E-2	3.506598E-2	3.333767E-2	3.889970E-2	3.267476E-2	4.833572E-2	4.158015E-2	5.627413E-2	4.538055E-2	4.035093E-2	4.464860E-2	3.801113E-2	3.623026E-2	4.241291E-2	4.797077E-2	3.306935E-2	3.826255E-2	3.864137E-2	4.913774E-2	5.037386E-2	4.859317E-2	4.521729E-2	5.078314E-2	4.932126E-2	4.527507E-2	3.901723E-2	3.339584E-2	5.572961E-2	4.195516E-2	5.058787E-2	5.267339E-2	4.979586E-2	6.201846E-2	3.572490E-2	3.439663E-2	3.714390E-2	3.375866E-2	3.970117E-2	3.932599E-2	4.963255E-2	4.709268E-2	5.118129E-2	4.559182E-2	4.739656E-2	3.943047E-2	3.985340E-2	4.778886E-2	5.678243E-2	4.928168E-2	6.109674E-2	5.250398E-2	2.528780E-2	3.428064E-2	4.670175E-2	4.398784E-2	4.568493E-2	4.573643E-2	4.427483E-2	6.621249E-2	5.247302E-2	4.321814E-2	4.077565E-2	3.581077E-2	3.543686E-2	4.607629E-2
5.337580E+2	5.883425E-2	5.281924E-2	5.886947E-2	2.848827E-1	5.844075E-2	5.670020E-2	5.747697E-2	6.602836E-2	4.540937E-2	6.146944E-2	6.712283E-2	5.634542E-2	6.529665E-2	3.944037E-2	5.312782E-2	4.957915E-2	6.839516E-2	5.687641E-2	6.301713E-2	4.696887E-2	5.172078E-2	4.824893E-2	5.725642E-2	4.596603E-2	6.831832E-2	5.133805E-2	5.749197E-2	5.577896E-2	4.867840E-2	5.353091E-2	4.516027E-2	5.038971E-2	5.922886E-2	4.932647E-2	6.517735E-2	6.039509E-2	6.110475E-2	5.506248E-2	5.777091E-2	5.331759E-2	5.240534E-2	5.910590E-2	6.220587E-2	6.506390E-2	4.873087E-2	5.641056E-2	6.193061E-2	4.908513E-2	4.066919E-2	7.452306E-2	5.348271E-2	5.887742E-2	4.089815E-2	6.939322E-2	6.806443E-2	4.904087E-2	4.507247E-2	5.343346E-2	5.368674E-2	4.262445E-2	5.065844E-2	4.844458E-2	6.404550E-2	5.871039E-2	5.670156E-2	7.032613E-2	4.085390E-2	5.696494E-2	5.960225E-2	4.764937E-2	5.498159E-2	5.805791E-2	6.193881E-2	5.962525E-2	5.293968E-2	5.276467E-2	5.406419E-2	6.843456E-2	4.381151E-2	6.205863E-2	6.510555E-2	5.479207E-2	5.103554E-2	5.506223E-2	6.258892E-2	6.399712E-2	5.137546E-2	5.299114E-2	6.550290E-2	7.190759E-2	6.113955E-2	6.999395E-2	6.710942E-2	4.762482E-2	5.275159E-2	6.944033E-2	5.220380E-2	5.652494E-2	6.382691E-2	4.137353E-2	5.147716E-2	5.738230E-2	5.705057E-2	6.392314E-2	5.579324E-2	4.654393E-2	4.226466E-2	4.837255E-2	5.390639E-2	6.655067E-2	6.390016E-2	5.015794E-2	4.087052E-2	4.760400E-2	6.438213E-2	3.632361E-2	5.307148E-2	5.680014E-2	5.810327E-2	5.936575E-2	5.299681E-2	5.952711E-2	4.788762E-2	5.324949E-2	4.974891E-2	5.504062E-2	5.266739E-2	5.014286E-2	5.028657E-2	4.317151E-2	5.860070E-2	7.324419E-2	5.238428E-2	5.646859E-2	5.732814E-2	5.601502E-2	5.334376E-2	5.509787E-2	4.863149E-2	6.632028E-2	5.415370E-2	5.961517E-2	6.343467E-2	4.788353E-2	6.806116E-2	7.631232E-2	6.451917E-2	5.523657E-2	6.642165E-2	5.366165E-2	4.244476E-2	5.530288E-2	5.775818E-2	4.842578E-2	4.649766E-2	5.511845E-2	4.923067E-2	5.744164E-2	6.471926E-2	4.855551E-2	5.192856E-2	6.065760E-2	5.153566E-2	4.695565E-2	5.943482E-2	4.894417E-2	5.869629E-2	7.197502E-2	2.274225E-2	4.581984E-2
5.339400E+2	9.063035E-2	5.874761E-2	7.794189E-2	3.766280E-1	8.644040E-2	8.578043E-2	8.247253E-2	9.252386E-2	7.752850E-2	8.033986E-2	7.729876E-2	4.983297E-2	6.564748E-2	7.413905E-2	8.467230E-2	7.606184E-2	7.193630E-2	8.524677E-2	7.230325E-2	7.802882E-2	7.628044E-2	7.052427E-2	7.222618E-2	8.007740E-2	9.062434E-2	8.255863E-2	9.634482E-2	7.922063E-2	9.083887E-2	8.074244E-2	8.852714E-2	8.189778E-2	8.638252E-2	7.585561E-2	8.455529E-2	8.928202E-2	7.953497E-2	8.512751E-2	8.799636E-2	9.215347E-2	8.980747E-2	8.737408E-2	7.676515E-2	8.489998E-2	8.833339E-2	8.575477E-2	8.494924E-2	8.817024E-2	9.706124E-2	7.488401E-2	6.558940E-2	7.542334E-2	7.850945E-2	8.319381E-2	9.272977E-2	8.961984E-2	9.745548E-2	9.670471E-2	7.782927E-2	8.216902E-2	9.259330E-2	9.685910E-2	8.560261E-2	9.407154E-2	8.954567E-2	8.647628E-2	8.213155E-2	7.430953E-2	9.186060E-2	9.410166E-2	7.667975E-2	8.001022E-2	9.009843E-2	8.050930E-2	7.319046E-2	8.096080E-2	8.225891E-2	9.095368E-2	8.135832E-2	7.415377E-2	7.806098E-2	8.532050E-2	7.680966E-2	9.205593E-2	9.187371E-2	8.053074E-2	7.505735E-2	9.561643E-2	8.374939E-2	8.048849E-2	8.182096E-2	1.121438E-1	7.690321E-2	8.405854E-2	7.658989E-2	8.739851E-2	7.976388E-2	8.408520E-2	7.458813E-2	7.547727E-2	8.355813E-2	7.798272E-2	8.100158E-2	1.066218E-1	8.558971E-2	7.758690E-2	8.302669E-2	7.643646E-2	7.167389E-2	7.699976E-2	7.692741E-2	7.637345E-2	8.000153E-2	7.106796E-2	8.783772E-2	7.740931E-2	8.385197E-2	7.218674E-2	7.697913E-2	7.706921E-2	6.955732E-2	7.460416E-2	7.882473E-2	8.484045E-2	8.605128E-2	9.638986E-2	9.759666E-2	8.449739E-2	8.464841E-2	8.125245E-2	8.967760E-2	7.362495E-2	8.214150E-2	9.952565E-2	8.765927E-2	8.273286E-2	7.320694E-2	8.620097E-2	8.875807E-2	8.432990E-2	7.422410E-2	6.920167E-2	8.579892E-2	7.485914E-2	8.550338E-2	7.684530E-2	6.389816E-2	9.151088E-2	7.751834E-2	7.824077E-2	8.976516E-2	7.957201E-2	6.558256E-2	7.981390E-2	9.931752E-2	9.913691E-2	8.162041E-2	7.528526E-2	9.238457E-2	8.347340E-2	8.449393E-2	7.941261E-2	7.062263E-2	8.356705E-2	1.064883E-1	8.291122E-2	8.104350E-2	7.110853E-2	1.042179E-1	6.037122E-2
5.340740E+2	1.167875E-1	9.555116E-2	1.069456E-1	4.842350E-1	1.110692E-1	9.976350E-2	1.095125E-1	1.003663E-1	1.067076E-1	1.171827E-1	1.135844E-1	1.017118E-1	1.126935E-1	1.048304E-1	1.209378E-1	1.136636E-1	1.001786E-1	1.021293E-1	1.089703E-1	9.709945E-2	1.080976E-1	9.609123E-2	1.017240E-1	9.362527E-2	1.361809E-1	1.399532E-1	1.198037E-1	1.306704E-1	1.273500E-1	1.350638E-1	1.199128E-1	1.149792E-1	1.371230E-1	1.129686E-1	1.095751E-1	1.125216E-1	1.288671E-1	1.275452E-1	1.252648E-1	1.200145E-1	1.316436E-1	1.296575E-1	1.106059E-1	1.130750E-1	1.195590E-1	1.194327E-1	1.148023E-1	1.246461E-1	1.193951E-1	1.378735E-1	1.186922E-1	1.206398E-1	1.227683E-1	1.270769E-1	1.232121E-1	1.149494E-1	1.207548E-1	1.195120E-1	1.046490E-1	1.151363E-1	1.197668E-1	1.171755E-1	1.159350E-1	9.859578E-2	1.171715E-1	1.273424E-1	1.336359E-1	1.204990E-1	1.205309E-1	1.374006E-1	1.185383E-1	1.065224E-1	1.126923E-1	1.196318E-1	1.039112E-1	1.007683E-1	1.163513E-1	1.198006E-1	1.189222E-1	1.117394E-1	1.240492E-1	9.795508E-2	1.179656E-1	1.064595E-1	1.205209E-1	1.134250E-1	1.120468E-1	1.215743E-1	1.184194E-1	1.049618E-1	1.252493E-1	1.162497E-1	1.211487E-1	1.336724E-1	1.059578E-1	1.255244E-1	1.221805E-1	1.254714E-1	1.332613E-1	1.283860E-1	1.379844E-1	1.232263E-1	1.220899E-1	1.109484E-1	1.258755E-1	1.398959E-1	1.216488E-1	1.110678E-1	1.158648E-1	1.229288E-1	1.177277E-1	1.222897E-1	1.046843E-1	1.126168E-1	1.288597E-1	1.105412E-1	1.109409E-1	1.017524E-1	1.191386E-1	9.676181E-2	1.169375E-1	1.328637E-1	1.165749E-1	1.209964E-1	1.126722E-1	1.181010E-1	1.114218E-1	1.130363E-1	1.103116E-1	1.061856E-1	1.060901E-1	1.005943E-1	1.242286E-1	1.159046E-1	1.134559E-1	1.277882E-1	1.249129E-1	1.340214E-1	1.267884E-1	1.192830E-1	1.167702E-1	1.053190E-1	1.308059E-1	1.349537E-1	1.180684E-1	1.230138E-1	1.211416E-1	1.030986E-1	1.196562E-1	1.235485E-1	1.115566E-1	1.259868E-1	1.337156E-1	1.207110E-1	1.241047E-1	1.217882E-1	1.165938E-1	1.190232E-1	1.326535E-1	1.079717E-1	1.296520E-1	1.349678E-1	1.333614E-1	1.343263E-1	1.188463E-1	1.155845E-1	1.140671E-1	1.256607E-1	1.335206E-1	9.323463E-2
5.342040E+2	1.637097E-1	1.714389E-1	1.617171E-1	1.206160E+0	1.536084E-1	1.611933E-1	1.680715E-1	1.662217E-1	1.691271E-1	1.656302E-1	1.757394E-1	1.874407E-1	1.751229E-1	1.684835E-1	1.627254E-1	1.726744E-1	1.558989E-1	1.772177E-1	1.707292E-1	1.642267E-1	1.595036E-1	1.768711E-1	1.666907E-1	1.574445E-1	2.134712E-1	2.077826E-1	2.142154E-1	2.054697E-1	1.981710E-1	1.888748E-1	1.847049E-1	1.790410E-1	1.960688E-1	1.852529E-1	1.767622E-1	2.039522E-1	1.864019E-1	1.895203E-1	1.908409E-1	1.857507E-1	1.933864E-1	1.739561E-1	1.955879E-1	1.925671E-1	1.893519E-1	1.706724E-1	1.782231E-1	1.952182E-1	1.713295E-1	1.913089E-1	1.673061E-1	1.871404E-1	1.698838E-1	2.010178E-1	1.860706E-1	1.893784E-1	1.732264E-1	1.763097E-1	1.827667E-1	1.669554E-1	1.818492E-1	1.740485E-1	1.788636E-1	1.730328E-1	1.740525E-1	1.680685E-1	1.766579E-1	1.810271E-1	1.771723E-1	1.822664E-1	1.787653E-1	1.889033E-1	1.965038E-1	1.696597E-1	1.749281E-1	1.825444E-1	1.765971E-1	1.833970E-1	1.755646E-1	1.737894E-1	1.775243E-1	1.871895E-1	2.059901E-1	1.786801E-1	1.828347E-1	1.903586E-1	1.828796E-1	1.851361E-1	1.970532E-1	1.860635E-1	1.901449E-1	1.863828E-1	1.699547E-1	1.946604E-1	1.688089E-1	1.921402E-1	1.694759E-1	1.804702E-1	1.898962E-1	1.816132E-1	2.011295E-1	1.734271E-1	1.882734E-1	1.875618E-1	1.885654E-1	1.742410E-1	1.835555E-1	1.510421E-1	1.901262E-1	1.616285E-1	1.759362E-1	1.812382E-1	1.765420E-1	1.759507E-1	1.717743E-1	1.932868E-1	1.960763E-1	1.643952E-1	1.775601E-1	1.935716E-1	1.753730E-1	1.725384E-1	1.694240E-1	1.902728E-1	1.861372E-1	1.815755E-1	1.990444E-1	1.992770E-1	1.885285E-1	1.867467E-1	1.719938E-1	1.640899E-1	1.893581E-1	1.869839E-1	1.945870E-1	1.710687E-1	1.744817E-1	1.707226E-1	1.911045E-1	1.660120E-1	1.825012E-1	1.838415E-1	1.859699E-1	1.769483E-1	1.923564E-1	1.861331E-1	1.655910E-1	1.621407E-1	1.926176E-1	1.756448E-1	1.911556E-1	1.871185E-1	1.782111E-1	1.754303E-1	1.861506E-1	1.755889E-1	2.048530E-1	1.866203E-1	1.737728E-1	1.699086E-1	1.829960E-1	1.962497E-1	1.790816E-1	1.886635E-1	1.870730E-1	1.725272E-1	1.929350E-1	1.829395E-1	1.506852E-1	1.522600E-1
5.343550E+2	2.787608E-1	3.058946E-1	2.739282E-1	1.987379E+0	2.881139E-1	2.872457E-1	2.744547E-1	2.897039E-1	2.996049E-1	2.894781E-1	3.055869E-1	2.918914E-1	2.724254E-1	2.826560E-1	3.093576E-1	2.886161E-1	2.965416E-1	2.818066E-1	2.922784E-1	2.888186E-1	2.910856E-1	3.098940E-1	2.944949E-1	2.874689E-1	4.195531E-1	3.580930E-1	3.520068E-1	3.589682E-1	3.430919E-1	3.482153E-1	3.318662E-1	3.361388E-1	3.347185E-1	3.067717E-1	3.444132E-1	3.510365E-1	3.339023E-1	3.329981E-1	3.452075E-1	3.149754E-1	3.117390E-1	3.337683E-1	3.099460E-1	3.229544E-1	3.114771E-1	3.355143E-1	3.168522E-1	3.028670E-1	3.245893E-1	3.038728E-1	3.007541E-1	3.214051E-1	3.094820E-1	3.053540E-1	3.140462E-1	3.147022E-1	2.986295E-1	3.113906E-1	2.980754E-1	3.090694E-1	3.111848E-1	2.952423E-1	3.209248E-1	3.194441E-1	3.087493E-1	3.309737E-1	3.186764E-1	3.375496E-1	3.137484E-1	3.235466E-1	3.164641E-1	3.096969E-1	3.384531E-1	2.974552E-1	3.155914E-1	3.196958E-1	2.996974E-1	3.246135E-1	3.010801E-1	2.913857E-1	2.877998E-1	3.443749E-1	3.221442E-1	3.163977E-1	3.140386E-1	3.259702E-1	3.083038E-1	3.209972E-1	3.167501E-1	3.147482E-1	3.172357E-1	2.855918E-1	3.164690E-1	2.982492E-1	3.225577E-1	3.112769E-1	2.999897E-1	3.133345E-1	3.194010E-1	2.714443E-1	3.166131E-1	3.020722E-1	3.159601E-1	3.199736E-1	2.954591E-1	3.102762E-1	2.986571E-1	2.959425E-1	3.159050E-1	3.141954E-1	2.919583E-1	2.996642E-1	3.294822E-1	3.093220E-1	3.097484E-1	3.000772E-1	2.982778E-1	3.309428E-1	2.914517E-1	3.138856E-1	3.398820E-1	3.272176E-1	2.972615E-1	3.198774E-1	3.146417E-1	3.150995E-1	3.146078E-1	3.191478E-1	3.096306E-1	2.994133E-1	2.979023E-1	3.160510E-1	3.312740E-1	3.289811E-1	3.229520E-1	2.994391E-1	3.331926E-1	2.857380E-1	2.969163E-1	3.193776E-1	3.098506E-1	3.217553E-1	3.027539E-1	3.180866E-1	2.950001E-1	3.312027E-1	3.304722E-1	3.112159E-1	3.306572E-1	3.000591E-1	3.158138E-1	3.136637E-1	2.838098E-1	3.399005E-1	3.363033E-1	3.515345E-1	3.195228E-1	3.150063E-1	3.220971E-1	3.470809E-1	2.977205E-1	3.038584E-1	3.062881E-1	3.100427E-1	3.307040E-1	2.989909E-1	3.180395E-1	3.489393E-1	3.229437E-1	3.500367E-1
5.345110E+2	5.295996E-1	4.856116E-1	4.801727E-1	2.600143E+0	4.831188E-1	5.593627E-1	4.928031E-1	5.223963E-1	4.814524E-1	5.308420E-1	5.120650E-1	4.884866E-1	4.996371E-1	5.167786E-1	5.196040E-1	5.111848E-1	5.081085E-1	5.055620E-1	5.156272E-1	5.261153E-1	5.015072E-1	5.244120E-1	5.136722E-1	5.544178E-1	6.077903E-1	6.100468E-1	6.232738E-1	5.687797E-1	5.840658E-1	5.846072E-1	5.720153E-1	5.801103E-1	5.715980E-1	5.840409E-1	5.874079E-1	5.232389E-1	5.570499E-1	5.318335E-1	5.565713E-1	5.285510E-1	5.627496E-1	5.477947E-1	5.414522E-1	5.938938E-1	5.211161E-1	5.301263E-1	5.544309E-1	5.724028E-1	5.478835E-1	5.522490E-1	5.427060E-1	5.964317E-1	5.686821E-1	5.233144E-1	5.554408E-1	5.470203E-1	5.844464E-1	5.126864E-1	5.534763E-1	5.914443E-1	5.696211E-1	5.559096E-1	5.512248E-1	5.455229E-1	5.417274E-1	5.604225E-1	5.562414E-1	5.496453E-1	5.612964E-1	5.852331E-1	5.128948E-1	5.369984E-1	5.474706E-1	5.199126E-1	5.364196E-1	5.159654E-1	5.487231E-1	5.562889E-1	5.709975E-1	5.029733E-1	5.302949E-1	5.667942E-1	5.431180E-1	5.622893E-1	5.358102E-1	5.619606E-1	5.488191E-1	5.357566E-1	5.522815E-1	5.009034E-1	5.541191E-1	5.457742E-1	5.536131E-1	5.159007E-1	5.777483E-1	5.447245E-1	5.231097E-1	5.328533E-1	5.270440E-1	5.489940E-1	5.515248E-1	5.193529E-1	5.704862E-1	5.456071E-1	5.145517E-1	5.193256E-1	5.172906E-1	5.349265E-1	5.629732E-1	5.427231E-1	5.556210E-1	5.371825E-1	5.420686E-1	5.547430E-1	5.390193E-1	5.401496E-1	5.400950E-1	5.611769E-1	5.185694E-1	5.327338E-1	5.439064E-1	5.810576E-1	5.262015E-1	5.581327E-1	5.074271E-1	5.295336E-1	5.365994E-1	5.466280E-1	5.145197E-1	5.174891E-1	5.181300E-1	5.255249E-1	5.576505E-1	5.342679E-1	5.470869E-1	5.493074E-1	5.572714E-1	5.748482E-1	5.316833E-1	5.450810E-1	5.305955E-1	5.402456E-1	5.483532E-1	5.467716E-1	5.343919E-1	5.233724E-1	5.515060E-1	5.236954E-1	5.579845E-1	5.261939E-1	5.478605E-1	5.349486E-1	5.632116E-1	5.460933E-1	5.269174E-1	4.959024E-1	5.318738E-1	5.178005E-1	5.432691E-1	5.420825E-1	5.119639E-1	5.372666E-1	5.716678E-1	5.257271E-1	5.502525E-1	5.418101E-1	5.400942E-1	5.798168E-1	5.388067E-1	5.447854E-1
5.346620E+2	8.146218E-1	8.444804E-1	8.067654E-1	4.419588E+0	7.949699E-1	8.159554E-1	8.120629E-1	8.267653E-1	8.371261E-1	8.407152E-1	8.148046E-1	8.196717E-1	8.494464E-1	8.235683E-1	8.551369E-1	8.424396E-1	8.269384E-1	8.063496E-1	8.270835E-1	8.641607E-1	8.520425E-1	8.183705E-1	8.270276E-1	8.378656E-1	9.635415E-1	9.022461E-1	9.443605E-1	8.797918E-1	8.950970E-1	9.077660E-1	9.033648E-1	8.763720E-1	9.137513E-1	8.953139E-1	8.819227E-1	8.727281E-1	8.793832E-1	8.739961E-1	8.545309E-1	9.083599E-1	9.245606E-1	8.611942E-1	8.720381E-1	9.054380E-1	8.641877E-1	8.713310E-1	8.964598E-1	8.981336E-1	8.947681E-1	8.833314E-1	7.929183E-1	8.940866E-1	8.736256E-1	8.721034E-1	9.013311E-1	8.447773E-1	8.850082E-1	8.695516E-1	8.432495E-1	8.917489E-1	8.718891E-1	9.087057E-1	8.240942E-1	8.368438E-1	8.520178E-1	8.127011E-1	8.492568E-1	8.589927E-1	8.702464E-1	8.812906E-1	8.657685E-1	8.788439E-1	8.531257E-1	8.227329E-1	8.254078E-1	8.759593E-1	8.066525E-1	8.589544E-1	8.860596E-1	8.328672E-1	8.853506E-1	8.342813E-1	9.123373E-1	9.016624E-1	8.486252E-1	8.695959E-1	8.552451E-1	8.325541E-1	8.754008E-1	8.310610E-1	8.563291E-1	8.549277E-1	8.873190E-1	8.315544E-1	8.574563E-1	9.239220E-1	8.497458E-1	8.606792E-1	8.540287E-1	8.408817E-1	8.493401E-1	8.436962E-1	8.740349E-1	8.763224E-1	8.507807E-1	8.534218E-1	8.776007E-1	8.930618E-1	8.563278E-1	8.702084E-1	8.857890E-1	8.631801E-1	8.581690E-1	8.785087E-1	8.980181E-1	8.588564E-1	8.536527E-1	8.487054E-1	8.122940E-1	8.373286E-1	8.696399E-1	8.260859E-1	8.213947E-1	8.840768E-1	8.496243E-1	8.467038E-1	8.843375E-1	8.723486E-1	8.898314E-1	8.558864E-1	8.584282E-1	7.997889E-1	8.178507E-1	8.940504E-1	8.963174E-1	7.958553E-1	8.565722E-1	8.425566E-1	8.467913E-1	8.824467E-1	8.771391E-1	8.706205E-1	8.799441E-1	8.893922E-1	8.336737E-1	8.579040E-1	8.654710E-1	8.581097E-1	8.447374E-1	8.944192E-1	8.689710E-1	8.728517E-1	8.789225E-1	8.569190E-1	8.807765E-1	9.087951E-1	8.630939E-1	8.615071E-1	8.756338E-1	8.942255E-1	8.626425E-1	8.409009E-1	8.244613E-1	8.859113E-1	8.878973E-1	8.498708E-1	8.730448E-1	9.045951E-1	9.265332E-1	8.090904E-1
5.348020E+2	1.166413E+0	1.154828E+0	1.097826E+0	6.365934E+0	1.149266E+0	1.161653E+0	1.136133E+0	1.213578E+0	1.179307E+0	1.132345E+0	1.155544E+0	1.178741E+0	1.148321E+0	1.176918E+0	1.135582E+0	1.199547E+0	1.140506E+0	1.182615E+0	1.165839E+0	1.156652E+0	1.173262E+0	1.128639E+0	1.148145E+0	1.165778E+0	1.278002E+0	1.229176E+0	1.231555E+0	1.228940E+0	1.232866E+0	1.232810E+0	1.265265E+0	1.177437E+0	1.249533E+0	1.246129E+0	1.226916E+0	1.202052E+0	1.208614E+0	1.169476E+0	1.215295E+0	1.228085E+0	1.242079E+0	1.184756E+0	1.170065E+0	1.239597E+0	1.180023E+0	1.216503E+0	1.189702E+0	1.194283E+0	1.171694E+0	1.160775E+0	1.170758E+0	1.184648E+0	1.206103E+0	1.150487E+0	1.191822E+0	1.180799E+0	1.240946E+0	1.128801E+0	1.216107E+0	1.249407E+0	1.251400E+0	1.167241E+0	1.191822E+0	1.212834E+0	1.152409E+0	1.227169E+0	1.200030E+0	1.170429E+0	1.173479E+0	1.191038E+0	1.163067E+0	1.219439E+0	1.199106E+0	1.153778E+0	1.146824E+0	1.173130E+0	1.137910E+0	1.178357E+0	1.219776E+0	1.160408E+0	1.143560E+0	1.251859E+0	1.186197E+0	1.258807E+0	1.231692E+0	1.140322E+0	1.204134E+0	1.182810E+0	1.153054E+0	1.192441E+0	1.236789E+0	1.211566E+0	1.222186E+0	1.202910E+0	1.193847E+0	1.207759E+0	1.155144E+0	1.187283E+0	1.213606E+0	1.159837E+0	1.230870E+0	1.155644E+0	1.196129E+0	1.165827E+0	1.130777E+0	1.164940E+0	1.182432E+0	1.244780E+0	1.157473E+0	1.208675E+0	1.212567E+0	1.198418E+0	1.188046E+0	1.212492E+0	1.135696E+0	1.215126E+0	1.227076E+0	1.194002E+0	1.183378E+0	1.175835E+0	1.173611E+0	1.216282E+0	1.129863E+0	1.240823E+0	1.144809E+0	1.175713E+0	1.161956E+0	1.175653E+0	1.105244E+0	1.193976E+0	1.139726E+0	1.162403E+0	1.188953E+0	1.175998E+0	1.187358E+0	1.217837E+0	1.174720E+0	1.198649E+0	1.149092E+0	1.186243E+0	1.202691E+0	1.169988E+0	1.180325E+0	1.175116E+0	1.153574E+0	1.144649E+0	1.126302E+0	1.163346E+0	1.154925E+0	1.193761E+0	1.146374E+0	1.176597E+0	1.189178E+0	1.145980E+0	1.222503E+0	1.194412E+0	1.220919E+0	1.171129E+0	1.227486E+0	1.195732E+0	1.162082E+0	1.205464E+0	1.163556E+0	1.197203E+0	1.168692E+0	1.174610E+0	1.184395E+0	1.196769E+0	1.129603E+0	1.337485E+0
5.349580E+2	1.600464E+0	1.529982E+0	1.500534E+0	9.512065E+0	1.523266E+0	1.533839E+0	1.550889E+0	1.572718E+0	1.480222E+0	1.550186E+0	1.527585E+0	1.510032E+0	1.562425E+0	1.574454E+0	1.546643E+0	1.535406E+0	1.522254E+0	1.502097E+0	1.581446E+0	1.551973E+0	1.573549E+0	1.548346E+0	1.479732E+0	1.540804E+0	1.645902E+0	1.586893E+0	1.595030E+0	1.551291E+0	1.553654E+0	1.624570E+0	1.554105E+0	1.583262E+0	1.645736E+0	1.606121E+0	1.524621E+0	1.465303E+0	1.594286E+0	1.525640E+0	1.591953E+0	1.570317E+0	1.608895E+0	1.553308E+0	1.581867E+0	1.549559E+0	1.537892E+0	1.524963E+0	1.588803E+0	1.585351E+0	1.602816E+0	1.530129E+0	1.581772E+0	1.604237E+0	1.537135E+0	1.570085E+0	1.560563E+0	1.564264E+0	1.600838E+0	1.543158E+0	1.521627E+0	1.560533E+0	1.543172E+0	1.546090E+0	1.530022E+0	1.593162E+0	1.558315E+0	1.517572E+0	1.505806E+0	1.544748E+0	1.538816E+0	1.555191E+0	1.497032E+0	1.520285E+0	1.525611E+0	1.535438E+0	1.544022E+0	1.588006E+0	1.504738E+0	1.583813E+0	1.501725E+0	1.591009E+0	1.498118E+0	1.562045E+0	1.513403E+0	1.597973E+0	1.530746E+0	1.508365E+0	1.618993E+0	1.585422E+0	1.552607E+0	1.482072E+0	1.549439E+0	1.547986E+0	1.549550E+0	1.519487E+0	1.538236E+0	1.581538E+0	1.535863E+0	1.577898E+0	1.578122E+0	1.544546E+0	1.545761E+0	1.575931E+0	1.585863E+0	1.501786E+0	1.504177E+0	1.524565E+0	1.551405E+0	1.590351E+0	1.558765E+0	1.584215E+0	1.506471E+0	1.565565E+0	1.498570E+0	1.549172E+0	1.519131E+0	1.531028E+0	1.526802E+0	1.539144E+0	1.508156E+0	1.595058E+0	1.465040E+0	1.592941E+0	1.505451E+0	1.566006E+0	1.545968E+0	1.478477E+0	1.539116E+0	1.488426E+0	1.539090E+0	1.504887E+0	1.468442E+0	1.527706E+0	1.489557E+0	1.496460E+0	1.575855E+0	1.552389E+0	1.534898E+0	1.598877E+0	1.539291E+0	1.554110E+0	1.590969E+0	1.577922E+0	1.520812E+0	1.595768E+0	1.510118E+0	1.536144E+0	1.527951E+0	1.514997E+0	1.548911E+0	1.579889E+0	1.555557E+0	1.597987E+0	1.435463E+0	1.492991E+0	1.574570E+0	1.516732E+0	1.552982E+0	1.523558E+0	1.518205E+0	1.595714E+0	1.513330E+0	1.571467E+0	1.443982E+0	1.514259E+0	1.506226E+0	1.492811E+0	1.566748E+0	1.535417E+0	1.506565E+0	1.676386E+0
5.351040E+2	1.813215E+0	1.815564E+0	1.760409E+0	1.071188E+1	1.797726E+0	1.758000E+0	1.819497E+0	1.773986E+0	1.813375E+0	1.841371E+0	1.784458E+0	1.837456E+0	1.818900E+0	1.785730E+0	1.773997E+0	1.808663E+0	1.771388E+0	1.761179E+0	1.808580E+0	1.749212E+0	1.820171E+0	1.784973E+0	1.780254E+0	1.831057E+0	1.797733E+0	1.794448E+0	1.782718E+0	1.804937E+0	1.782352E+0	1.850056E+0	1.809144E+0	1.760797E+0	1.834197E+0	1.787203E+0	1.782537E+0	1.767958E+0	1.803004E+0	1.742053E+0	1.820571E+0	1.813628E+0	1.825191E+0	1.766384E+0	1.875289E+0	1.756647E+0	1.759269E+0	1.790836E+0	1.761243E+0	1.766491E+0	1.772912E+0	1.780837E+0	1.822078E+0	1.807222E+0	1.803073E+0	1.817699E+0	1.806021E+0	1.794306E+0	1.883537E+0	1.823063E+0	1.820315E+0	1.757134E+0	1.758657E+0	1.816533E+0	1.785195E+0	1.798975E+0	1.802187E+0	1.770129E+0	1.693504E+0	1.827443E+0	1.758532E+0	1.836342E+0	1.810409E+0	1.780101E+0	1.735996E+0	1.707767E+0	1.745067E+0	1.860408E+0	1.700058E+0	1.792054E+0	1.830914E+0	1.763019E+0	1.723918E+0	1.820811E+0	1.793516E+0	1.785336E+0	1.772070E+0	1.795519E+0	1.758963E+0	1.845500E+0	1.834396E+0	1.767685E+0	1.763403E+0	1.733067E+0	1.829099E+0	1.740368E+0	1.762014E+0	1.753835E+0	1.828172E+0	1.768446E+0	1.803705E+0	1.763297E+0	1.785466E+0	1.705827E+0	1.810435E+0	1.796518E+0	1.745707E+0	1.752633E+0	1.804297E+0	1.806160E+0	1.778258E+0	1.739689E+0	1.809765E+0	1.750199E+0	1.767485E+0	1.819140E+0	1.770293E+0	1.761588E+0	1.792284E+0	1.822812E+0	1.757961E+0	1.756090E+0	1.745634E+0	1.718649E+0	1.729099E+0	1.764409E+0	1.747500E+0	1.761021E+0	1.737483E+0	1.782765E+0	1.739244E+0	1.709977E+0	1.695354E+0	1.751023E+0	1.705856E+0	1.831311E+0	1.776189E+0	1.787408E+0	1.720467E+0	1.785835E+0	1.696071E+0	1.820321E+0	1.808199E+0	1.741215E+0	1.701758E+0	1.817013E+0	1.785783E+0	1.742809E+0	1.725388E+0	1.679637E+0	1.717830E+0	1.831651E+0	1.759034E+0	1.783882E+0	1.739962E+0	1.742632E+0	1.726871E+0	1.737927E+0	1.760024E+0	1.709919E+0	1.758183E+0	1.810540E+0	1.720904E+0	1.750737E+0	1.768381E+0	1.791493E+0	1.726119E+0	1.727184E+0	1.728564E+0	1.817807E+0	1.751950E+0	1.946502E+0
5.352550E+2	1.983308E+0	1.966334E+0	1.899020E+0	1.102949E+1	1.895090E+0	1.954268E+0	1.959427E+0	1.976951E+0	1.893241E+0	1.990011E+0	1.941394E+0	1.925960E+0	1.943939E+0	1.902630E+0	1.972348E+0	1.941958E+0	1.920376E+0	1.903698E+0	1.917243E+0	1.894208E+0	1.950253E+0	1.919989E+0	1.906912E+0	1.929989E+0	1.906542E+0	1.814835E+0	1.952434E+0	1.915249E+0	1.850611E+0	1.943193E+0	1.903880E+0	1.889872E+0	1.912810E+0	1.890846E+0	1.873328E+0	1.866098E+0	1.892391E+0	1.862376E+0	1.959055E+0	1.993914E+0	1.936679E+0	1.888097E+0	1.909371E+0	1.991852E+0	1.860249E+0	1.919116E+0	1.925683E+0	1.902994E+0	1.926758E+0	1.902162E+0	1.905966E+0	2.020423E+0	1.905197E+0	1.933807E+0	1.900493E+0	1.944605E+0	1.883216E+0	1.875711E+0	1.925562E+0	1.920476E+0	1.896792E+0	1.921423E+0	1.921367E+0	1.942027E+0	1.934721E+0	1.924722E+0	1.861803E+0	1.897604E+0	1.892034E+0	1.927421E+0	1.859525E+0	1.926738E+0	1.883002E+0	1.888708E+0	1.824343E+0	1.919278E+0	1.867950E+0	1.893922E+0	1.900767E+0	1.860147E+0	1.811386E+0	1.974576E+0	1.902706E+0	1.909401E+0	1.925047E+0	1.886533E+0	1.928450E+0	1.879228E+0	1.847511E+0	1.804359E+0	1.929580E+0	1.868414E+0	1.897269E+0	1.885274E+0	1.949289E+0	1.865567E+0	1.862090E+0	1.881799E+0	1.865579E+0	1.852977E+0	1.922376E+0	1.886367E+0	1.911727E+0	1.849113E+0	1.854333E+0	1.897306E+0	1.941522E+0	1.943900E+0	1.863160E+0	1.881686E+0	1.854277E+0	1.894995E+0	1.942741E+0	1.889993E+0	1.830188E+0	1.823078E+0	1.925076E+0	1.880286E+0	1.877747E+0	1.909452E+0	1.878915E+0	1.891490E+0	1.806298E+0	2.013049E+0	1.879189E+0	1.830454E+0	1.908755E+0	1.894318E+0	1.870057E+0	1.970616E+0	1.906069E+0	1.906734E+0	1.858945E+0	1.805889E+0	1.884187E+0	1.857208E+0	1.862220E+0	1.895802E+0	1.870814E+0	1.987498E+0	1.867246E+0	1.898858E+0	1.857962E+0	1.852398E+0	1.844312E+0	1.878331E+0	1.819349E+0	1.860743E+0	1.979288E+0	1.880615E+0	1.799540E+0	1.896967E+0	1.801050E+0	1.820020E+0	1.911154E+0	1.862440E+0	1.826170E+0	1.872682E+0	1.905769E+0	1.940172E+0	1.904378E+0	1.891497E+0	1.883235E+0	1.874878E+0	1.866416E+0	1.886711E+0	1.865592E+0	1.874143E+0	1.813531E+0	1.900730E+0
5.354110E+2	1.872685E+0	1.844057E+0	1.792779E+0	1.076899E+1	1.764336E+0	1.855631E+0	1.866281E+0	1.873566E+0	1.769795E+0	1.786326E+0	1.858903E+0	1.853857E+0	1.862866E+0	1.807220E+0	1.819058E+0	1.878836E+0	1.795903E+0	1.847791E+0	1.827371E+0	1.842294E+0	1.832304E+0	1.778513E+0	1.839258E+0	1.897889E+0	1.785975E+0	1.773116E+0	1.854944E+0	1.805151E+0	1.777324E+0	1.814098E+0	1.817571E+0	1.836676E+0	1.813196E+0	1.804249E+0	1.808589E+0	1.799251E+0	1.809636E+0	1.766717E+0	1.796192E+0	1.846358E+0	1.862841E+0	1.743673E+0	1.769496E+0	1.807921E+0	1.773446E+0	1.785091E+0	1.816408E+0	1.889825E+0	1.824196E+0	1.782176E+0	1.835927E+0	1.868546E+0	1.852830E+0	1.831149E+0	1.855271E+0	1.792323E+0	1.828613E+0	1.761093E+0	1.801893E+0	1.802448E+0	1.852213E+0	1.791211E+0	1.752489E+0	1.835011E+0	1.794072E+0	1.821340E+0	1.753921E+0	1.832954E+0	1.831910E+0	1.823285E+0	1.796570E+0	1.838459E+0	1.790435E+0	1.762010E+0	1.845217E+0	1.849517E+0	1.789765E+0	1.758102E+0	1.797184E+0	1.800504E+0	1.777817E+0	1.889006E+0	1.812979E+0	1.797626E+0	1.782576E+0	1.789251E+0	1.815033E+0	1.847789E+0	1.795990E+0	1.791679E+0	1.787315E+0	1.848246E+0	1.834583E+0	1.752731E+0	1.848861E+0	1.678243E+0	1.756636E+0	1.847273E+0	1.758724E+0	1.796848E+0	1.847036E+0	1.857667E+0	1.753618E+0	1.837025E+0	1.794203E+0	1.826724E+0	1.794608E+0	1.816609E+0	1.790075E+0	1.800628E+0	1.803879E+0	1.801408E+0	1.777197E+0	1.773413E+0	1.781288E+0	1.785320E+0	1.807251E+0	1.762532E+0	1.769763E+0	1.824089E+0	1.783130E+0	1.865499E+0	1.796222E+0	1.849151E+0	1.720609E+0	1.844145E+0	1.741816E+0	1.758995E+0	1.805378E+0	1.755051E+0	1.786208E+0	1.734327E+0	1.790445E+0	1.838669E+0	1.822526E+0	1.795122E+0	1.769439E+0	1.834784E+0	1.760128E+0	1.866006E+0	1.792632E+0	1.777226E+0	1.770797E+0	1.795029E+0	1.730632E+0	1.809843E+0	1.824145E+0	1.807460E+0	1.767802E+0	1.777474E+0	1.767295E+0	1.820880E+0	1.832877E+0	1.775979E+0	1.807980E+0	1.816023E+0	1.751912E+0	1.774424E+0	1.759091E+0	1.808247E+0	1.736836E+0	1.821753E+0	1.817236E+0	1.792723E+0	1.745496E+0	1.801878E+0	1.775879E+0	1.813356E+0	1.696788E+0	1.876622E+0
5.355580E+2	1.647839E+0	1.643636E+0	1.662908E+0	9.755375E+0	1.604558E+0	1.657698E+0	1.656046E+0	1.667299E+0	1.599692E+0	1.660006E+0	1.659507E+0	1.682805E+0	1.670276E+0	1.603785E+0	1.616434E+0	1.680333E+0	1.650238E+0	1.619690E+0	1.655218E+0	1.659286E+0	1.669813E+0	1.605037E+0	1.645348E+0	1.671163E+0	1.636716E+0	1.572209E+0	1.618847E+0	1.557468E+0	1.631261E+0	1.649943E+0	1.584559E+0	1.666542E+0	1.631746E+0	1.677855E+0	1.551803E+0	1.628509E+0	1.620850E+0	1.556619E+0	1.588926E+0	1.609185E+0	1.632935E+0	1.616560E+0	1.693227E+0	1.669494E+0	1.560622E+0	1.629516E+0	1.604493E+0	1.641710E+0	1.642911E+0	1.602002E+0	1.592257E+0	1.684657E+0	1.631430E+0	1.629650E+0	1.632335E+0	1.675951E+0	1.624292E+0	1.560109E+0	1.614293E+0	1.629411E+0	1.644569E+0	1.590917E+0	1.665097E+0	1.650787E+0	1.640530E+0	1.592898E+0	1.587429E+0	1.723868E+0	1.575599E+0	1.688428E+0	1.614415E+0	1.617227E+0	1.649325E+0	1.567800E+0	1.611992E+0	1.598184E+0	1.550375E+0	1.640002E+0	1.610900E+0	1.610319E+0	1.543673E+0	1.685396E+0	1.640571E+0	1.622913E+0	1.590148E+0	1.596539E+0	1.642463E+0	1.625737E+0	1.685149E+0	1.570028E+0	1.625534E+0	1.591801E+0	1.660255E+0	1.594828E+0	1.643182E+0	1.609616E+0	1.628366E+0	1.608100E+0	1.691960E+0	1.613412E+0	1.655171E+0	1.620532E+0	1.636806E+0	1.572371E+0	1.589288E+0	1.627311E+0	1.638649E+0	1.683379E+0	1.590460E+0	1.632371E+0	1.608502E+0	1.639002E+0	1.553197E+0	1.617233E+0	1.544677E+0	1.618758E+0	1.634815E+0	1.657566E+0	1.614725E+0	1.666587E+0	1.620882E+0	1.629400E+0	1.591767E+0	1.653323E+0	1.575551E+0	1.579895E+0	1.584735E+0	1.588377E+0	1.620979E+0	1.702239E+0	1.579194E+0	1.608910E+0	1.588376E+0	1.614346E+0	1.609464E+0	1.511192E+0	1.627537E+0	1.616065E+0	1.621755E+0	1.674130E+0	1.646367E+0	1.648503E+0	1.663100E+0	1.629051E+0	1.628686E+0	1.546075E+0	1.568882E+0	1.579339E+0	1.625225E+0	1.662236E+0	1.588083E+0	1.645224E+0	1.629076E+0	1.652572E+0	1.657772E+0	1.608824E+0	1.604931E+0	1.571571E+0	1.643153E+0	1.594753E+0	1.606009E+0	1.633182E+0	1.621258E+0	1.631289E+0	1.568929E+0	1.611103E+0	1.662678E+0	1.604932E+0	1.660196E+0	1.693690E+0
5.357090E+2	1.573942E+0	1.492531E+0	1.427116E+0	8.545995E+0	1.406451E+0	1.518124E+0	1.505056E+0	1.508166E+0	1.455816E+0	1.474674E+0	1.519999E+0	1.492253E+0	1.519918E+0	1.463579E+0	1.526785E+0	1.508342E+0	1.432338E+0	1.446600E+0	1.465108E+0	1.508265E+0	1.415602E+0	1.453226E+0	1.512923E+0	1.484763E+0	1.402873E+0	1.450126E+0	1.449944E+0	1.444468E+0	1.412246E+0	1.448893E+0	1.464840E+0	1.436866E+0	1.459097E+0	1.503290E+0	1.456651E+0	1.459384E+0	1.468725E+0	1.440983E+0	1.513778E+0	1.400738E+0	1.484236E+0	1.437777E+0	1.491981E+0	1.523335E+0	1.457894E+0	1.440028E+0	1.472943E+0	1.510030E+0	1.461607E+0	1.403035E+0	1.476221E+0	1.514440E+0	1.442070E+0	1.462710E+0	1.444276E+0	1.451261E+0	1.458347E+0	1.468023E+0	1.505361E+0	1.441878E+0	1.456531E+0	1.446948E+0	1.465334E+0	1.415221E+0	1.447221E+0	1.444303E+0	1.435001E+0	1.520375E+0	1.474263E+0	1.478476E+0	1.505124E+0	1.503922E+0	1.501187E+0	1.421554E+0	1.499859E+0	1.434013E+0	1.452026E+0	1.464410E+0	1.495120E+0	1.453947E+0	1.417869E+0	1.485725E+0	1.500252E+0	1.479109E+0	1.457199E+0	1.439321E+0	1.510465E+0	1.435793E+0	1.472631E+0	1.463160E+0	1.506317E+0	1.442847E+0	1.469727E+0	1.458500E+0	1.427656E+0	1.416378E+0	1.431056E+0	1.438060E+0	1.448152E+0	1.468780E+0	1.486248E+0	1.503370E+0	1.493421E+0	1.446108E+0	1.353626E+0	1.482481E+0	1.492390E+0	1.447139E+0	1.440613E+0	1.440836E+0	1.421433E+0	1.471797E+0	1.465158E+0	1.484191E+0	1.412566E+0	1.444561E+0	1.461662E+0	1.430261E+0	1.462798E+0	1.484662E+0	1.462595E+0	1.467226E+0	1.456289E+0	1.513685E+0	1.441044E+0	1.484485E+0	1.459514E+0	1.465992E+0	1.519467E+0	1.466634E+0	1.420786E+0	1.452063E+0	1.427752E+0	1.473680E+0	1.502054E+0	1.461151E+0	1.482052E+0	1.455401E+0	1.486776E+0	1.541340E+0	1.476353E+0	1.462598E+0	1.440556E+0	1.517762E+0	1.421326E+0	1.499775E+0	1.458506E+0	1.463490E+0	1.411370E+0	1.401129E+0	1.480083E+0	1.471484E+0	1.457642E+0	1.494081E+0	1.476095E+0	1.488915E+0	1.490469E+0	1.447823E+0	1.512303E+0	1.464711E+0	1.433248E+0	1.484829E+0	1.395467E+0	1.465748E+0	1.470985E+0	1.488779E+0	1.434856E+0	1.482403E+0	1.468682E+0	1.469694E+0
5.358550E+2	1.313351E+0	1.213481E+0	1.189943E+0	6.797602E+0	1.231220E+0	1.262869E+0	1.267770E+0	1.288988E+0	1.261521E+0	1.195501E+0	1.232701E+0	1.216479E+0	1.228411E+0	1.249136E+0	1.222217E+0	1.267222E+0	1.233726E+0	1.249820E+0	1.245973E+0	1.296316E+0	1.206981E+0	1.210599E+0	1.247796E+0	1.296515E+0	1.198885E+0	1.253736E+0	1.232289E+0	1.188264E+0	1.223192E+0	1.227802E+0	1.230378E+0	1.220115E+0	1.282230E+0	1.201258E+0	1.225073E+0	1.258885E+0	1.229827E+0	1.212700E+0	1.188182E+0	1.247228E+0	1.269359E+0	1.230696E+0	1.212570E+0	1.250764E+0	1.207159E+0	1.206873E+0	1.223645E+0	1.261446E+0	1.258034E+0	1.184490E+0	1.213404E+0	1.275061E+0	1.214665E+0	1.215878E+0	1.227679E+0	1.188851E+0	1.184557E+0	1.283703E+0	1.204653E+0	1.199755E+0	1.249341E+0	1.211603E+0	1.195014E+0	1.243498E+0	1.225138E+0	1.183389E+0	1.187453E+0	1.216250E+0	1.244249E+0	1.202287E+0	1.279861E+0	1.239332E+0	1.254427E+0	1.251326E+0	1.204316E+0	1.238797E+0	1.234519E+0	1.188988E+0	1.240207E+0	1.230711E+0	1.165463E+0	1.239419E+0	1.253753E+0	1.200021E+0	1.197535E+0	1.247514E+0	1.261744E+0	1.227442E+0	1.223804E+0	1.157580E+0	1.260711E+0	1.273917E+0	1.259218E+0	1.235441E+0	1.219243E+0	1.252604E+0	1.228847E+0	1.226648E+0	1.228143E+0	1.268608E+0	1.214081E+0	1.204941E+0	1.276278E+0	1.245772E+0	1.214332E+0	1.216677E+0	1.213063E+0	1.261544E+0	1.249153E+0	1.229678E+0	1.222851E+0	1.222566E+0	1.243255E+0	1.275465E+0	1.188805E+0	1.236102E+0	1.233246E+0	1.199396E+0	1.253385E+0	1.211095E+0	1.203375E+0	1.219352E+0	1.225868E+0	1.220612E+0	1.230376E+0	1.211498E+0	1.190536E+0	1.236686E+0	1.160752E+0	1.177576E+0	1.182294E+0	1.249218E+0	1.227427E+0	1.202586E+0	1.197113E+0	1.176040E+0	1.246257E+0	1.227913E+0	1.229283E+0	1.272418E+0	1.249772E+0	1.200650E+0	1.185873E+0	1.247713E+0	1.155543E+0	1.257979E+0	1.233479E+0	1.221902E+0	1.218124E+0	1.219042E+0	1.269364E+0	1.224258E+0	1.226199E+0	1.187657E+0	1.267073E+0	1.207563E+0	1.255206E+0	1.211335E+0	1.194242E+0	1.280086E+0	1.222677E+0	1.258984E+0	1.253795E+0	1.297840E+0	1.234776E+0	1.245769E+0	1.236757E+0	1.292908E+0	1.246597E+0	1.288602E+0
5.360120E+2	1.092290E+0	1.027032E+0	1.054043E+0	6.382021E+0	1.016910E+0	1.067713E+0	1.065358E+0	1.131778E+0	1.041932E+0	1.067018E+0	1.052819E+0	1.040627E+0	1.076724E+0	1.091303E+0	1.032532E+0	1.079954E+0	1.091552E+0	1.008959E+0	1.057085E+0	1.036154E+0	1.075519E+0	1.052251E+0	1.053222E+0	1.076515E+0	1.065537E+0	1.036178E+0	1.106497E+0	1.042282E+0	1.053768E+0	1.053201E+0	1.007145E+0	1.050781E+0	1.075894E+0	1.056018E+0	1.042052E+0	1.088886E+0	1.061812E+0	1.011167E+0	1.063295E+0	1.041167E+0	1.096616E+0	1.031121E+0	1.011797E+0	1.080877E+0	1.046459E+0	1.066807E+0	1.022095E+0	1.040341E+0	1.038962E+0	1.052586E+0	1.066822E+0	1.100937E+0	1.079477E+0	1.054748E+0	1.050984E+0	1.082101E+0	1.053022E+0	1.007497E+0	1.052842E+0	1.072505E+0	1.055278E+0	1.037084E+0	1.068194E+0	1.100078E+0	1.063172E+0	1.012277E+0	1.052381E+0	1.057239E+0	1.076962E+0	1.042710E+0	1.055082E+0	1.065683E+0	1.071374E+0	1.011917E+0	1.031262E+0	1.019915E+0	1.057889E+0	1.065116E+0	1.103579E+0	1.083852E+0	1.027871E+0	1.081230E+0	1.075842E+0	1.053971E+0	1.023817E+0	1.021975E+0	1.030557E+0	1.060108E+0	1.063237E+0	1.065997E+0	1.075412E+0	1.057650E+0	1.110697E+0	1.057018E+0	1.080702E+0	1.060840E+0	1.072388E+0	1.054362E+0	1.033739E+0	1.043589E+0	1.097529E+0	1.042397E+0	1.043868E+0	1.061020E+0	1.088297E+0	1.012571E+0	1.081105E+0	1.068865E+0	1.045526E+0	1.034732E+0	9.994177E-1	1.070502E+0	1.084671E+0	1.028340E+0	1.056767E+0	1.054915E+0	1.066231E+0	1.024418E+0	1.068532E+0	1.061129E+0	1.085213E+0	1.055177E+0	1.020549E+0	1.117408E+0	1.088646E+0	1.039008E+0	1.070122E+0	1.092763E+0	1.061879E+0	1.024532E+0	1.007437E+0	1.011236E+0	1.090695E+0	1.091343E+0	1.092236E+0	1.044402E+0	1.037491E+0	1.083411E+0	1.082093E+0	1.101732E+0	1.077276E+0	1.065647E+0	1.046773E+0	1.052500E+0	1.055120E+0	1.069041E+0	1.047743E+0	1.068443E+0	1.058237E+0	1.039725E+0	1.045000E+0	1.075261E+0	1.056233E+0	1.073801E+0	1.130324E+0	1.083247E+0	1.011296E+0	1.061974E+0	1.071450E+0	1.042736E+0	1.028099E+0	1.068978E+0	1.085309E+0	1.059424E+0	1.053966E+0	1.040256E+0	1.076231E+0	1.066893E+0	1.095472E+0	1.060957E+0
5.362630E+2	7.965151E-1	7.424193E-1	7.693038E-1	4.504486E+0	7.448955E-1	7.770357E-1	8.212608E-1	7.974297E-1	7.565795E-1	7.842105E-1	7.781984E-1	7.846566E-1	8.159648E-1	7.905879E-1	7.719730E-1	8.227483E-1	7.526934E-1	7.550903E-1	7.773311E-1	7.727204E-1	7.956175E-1	7.854543E-1	7.571821E-1	7.987011E-1	7.477483E-1	7.721183E-1	8.104729E-1	7.753475E-1	7.753599E-1	7.726004E-1	7.639500E-1	7.842479E-1	7.734903E-1	7.823679E-1	8.207959E-1	7.655678E-1	7.755304E-1	7.424750E-1	8.015079E-1	8.213677E-1	7.687665E-1	7.262337E-1	7.615260E-1	7.837410E-1	7.481223E-1	7.814404E-1	7.613777E-1	7.801233E-1	7.863413E-1	7.596961E-1	7.992944E-1	7.952121E-1	7.757632E-1	7.675548E-1	8.154854E-1	7.312106E-1	7.979305E-1	7.688785E-1	7.902004E-1	7.898076E-1	7.898009E-1	8.091027E-1	7.740531E-1	8.136868E-1	7.945288E-1	7.532493E-1	8.137961E-1	8.193335E-1	8.406140E-1	7.673996E-1	8.019162E-1	7.844261E-1	7.960150E-1	7.870161E-1	8.120367E-1	7.975063E-1	7.772194E-1	7.646426E-1	7.964583E-1	7.802171E-1	7.361875E-1	8.170242E-1	8.002092E-1	8.111272E-1	7.690208E-1	7.710591E-1	7.516574E-1	7.917919E-1	8.147047E-1	7.741843E-1	7.848119E-1	8.074993E-1	8.128238E-1	7.484998E-1	7.659603E-1	7.832000E-1	7.819637E-1	7.473241E-1	7.710351E-1	7.970776E-1	7.751400E-1	7.767479E-1	8.161430E-1	7.741127E-1	7.645309E-1	7.580675E-1	7.691839E-1	7.681958E-1	7.851213E-1	8.144444E-1	7.660994E-1	7.848373E-1	8.024101E-1	7.942516E-1	7.636010E-1	7.797998E-1	7.740848E-1	7.293209E-1	7.990290E-1	8.085955E-1	7.524716E-1	7.642709E-1	8.024449E-1	8.331254E-1	7.730121E-1	7.932010E-1	7.471166E-1	8.098393E-1	7.967880E-1	7.611346E-1	7.814295E-1	7.768527E-1	7.842667E-1	7.949328E-1	7.647016E-1	7.823547E-1	7.937677E-1	8.087257E-1	7.586097E-1	8.275099E-1	7.863619E-1	7.655680E-1	7.726703E-1	8.192086E-1	8.061888E-1	7.813481E-1	7.838698E-1	8.120693E-1	7.825224E-1	7.753910E-1	7.744752E-1	7.928680E-1	8.044958E-1	7.967968E-1	7.953448E-1	7.494410E-1	7.832869E-1	7.632836E-1	7.690688E-1	8.099222E-1	8.072129E-1	7.899883E-1	7.567492E-1	7.979252E-1	8.063261E-1	7.310611E-1	8.302104E-1	7.996348E-1	7.979250E-1	8.007371E-1
5.365090E+2	6.450077E-1	6.211722E-1	6.067345E-1	3.409897E+0	6.232791E-1	6.044867E-1	6.217927E-1	6.171390E-1	6.033317E-1	6.428001E-1	5.945480E-1	6.272941E-1	6.695793E-1	6.140976E-1	6.135960E-1	6.502538E-1	5.914604E-1	6.383253E-1	6.260886E-1	6.071553E-1	6.241769E-1	6.337758E-1	6.204970E-1	5.899272E-1	6.027034E-1	6.013125E-1	6.339377E-1	5.848361E-1	6.307552E-1	6.303867E-1	6.146215E-1	6.119546E-1	6.222651E-1	6.717355E-1	6.018809E-1	6.158567E-1	6.205716E-1	5.925932E-1	6.241557E-1	6.067455E-1	6.358006E-1	5.751956E-1	6.427428E-1	6.355763E-1	6.011914E-1	6.191280E-1	6.211544E-1	6.232826E-1	6.164861E-1	6.193341E-1	6.893839E-1	6.207086E-1	6.164517E-1	6.083490E-1	6.204306E-1	6.455555E-1	6.282641E-1	6.248218E-1	6.162636E-1	6.143615E-1	6.516764E-1	6.237774E-1	6.131112E-1	6.107420E-1	6.167994E-1	5.847370E-1	6.260448E-1	6.467980E-1	6.396972E-1	6.345068E-1	6.018079E-1	6.204911E-1	6.420875E-1	5.875834E-1	6.127184E-1	6.206187E-1	6.339198E-1	6.124519E-1	6.140374E-1	6.305265E-1	6.183256E-1	6.189785E-1	6.151874E-1	6.431032E-1	6.116958E-1	5.965167E-1	6.033207E-1	6.017254E-1	6.438479E-1	6.228560E-1	6.519905E-1	6.347330E-1	6.459562E-1	6.356120E-1	6.199973E-1	6.186139E-1	6.354271E-1	6.184868E-1	6.165036E-1	6.564672E-1	6.347776E-1	6.222844E-1	5.711396E-1	6.123116E-1	5.773250E-1	6.302034E-1	6.494842E-1	6.357788E-1	5.989971E-1	6.168943E-1	6.368867E-1	5.969824E-1	6.211112E-1	6.501154E-1	6.012739E-1	6.176799E-1	6.481025E-1	5.923242E-1	6.251943E-1	6.535217E-1	5.763437E-1	6.006535E-1	6.318724E-1	6.444303E-1	6.335856E-1	6.355348E-1	6.084264E-1	6.353586E-1	6.538871E-1	6.120151E-1	5.941225E-1	5.968910E-1	6.494454E-1	6.002378E-1	6.263727E-1	6.309289E-1	6.185953E-1	6.557894E-1	6.530874E-1	6.673348E-1	6.090495E-1	6.155653E-1	6.285176E-1	6.390619E-1	5.841229E-1	6.244036E-1	6.252302E-1	6.222742E-1	6.256413E-1	6.297035E-1	6.213174E-1	6.318675E-1	6.034155E-1	6.034998E-1	6.041988E-1	6.652059E-1	6.261727E-1	6.576394E-1	6.397168E-1	6.572925E-1	6.296873E-1	6.345993E-1	6.484990E-1	6.446313E-1	6.423753E-1	6.080874E-1	6.283871E-1	5.889874E-1	6.615738E-1	7.123438E-1
5.368080E+2	5.183701E-1	4.845317E-1	4.931475E-1	2.993784E+0	4.765356E-1	5.009108E-1	5.343615E-1	5.290181E-1	4.926716E-1	5.288850E-1	5.069230E-1	4.732444E-1	5.057808E-1	5.240752E-1	5.141636E-1	5.324271E-1	5.035721E-1	4.931222E-1	5.199985E-1	5.349136E-1	5.250809E-1	4.880948E-1	5.202199E-1	5.265266E-1	5.349072E-1	5.089417E-1	5.243560E-1	5.296587E-1	4.888550E-1	4.848216E-1	5.066725E-1	5.108333E-1	5.220646E-1	5.207960E-1	5.193389E-1	5.128719E-1	5.268855E-1	4.686884E-1	5.457453E-1	5.160960E-1	5.350964E-1	4.795727E-1	5.059146E-1	5.136673E-1	5.136539E-1	5.100594E-1	5.154511E-1	5.196539E-1	4.939297E-1	4.841690E-1	5.337056E-1	5.248141E-1	4.975949E-1	5.117278E-1	5.128238E-1	5.126013E-1	5.344491E-1	4.708179E-1	5.346369E-1	5.005938E-1	4.909718E-1	5.075951E-1	5.149453E-1	5.460681E-1	5.180648E-1	4.838434E-1	4.846891E-1	5.220224E-1	5.177004E-1	5.113053E-1	5.244421E-1	5.078911E-1	5.176749E-1	4.976821E-1	5.269113E-1	5.255402E-1	5.012425E-1	5.242985E-1	5.208973E-1	5.118465E-1	4.963892E-1	4.954703E-1	5.311731E-1	5.160477E-1	5.173093E-1	4.781475E-1	5.203419E-1	4.911480E-1	5.510729E-1	5.050109E-1	5.161895E-1	5.154751E-1	5.286346E-1	5.023127E-1	5.058509E-1	5.374958E-1	5.174416E-1	5.347083E-1	4.978456E-1	4.969219E-1	5.182497E-1	5.030670E-1	5.359702E-1	5.173993E-1	5.279109E-1	5.275143E-1	5.020425E-1	5.106810E-1	5.063263E-1	5.274277E-1	5.107255E-1	5.022043E-1	5.176899E-1	5.321130E-1	4.819192E-1	5.258401E-1	5.177741E-1	5.024587E-1	5.142859E-1	5.524489E-1	5.219174E-1	5.192732E-1	5.105057E-1	5.031643E-1	5.191708E-1	4.976057E-1	5.011528E-1	5.492320E-1	5.235115E-1	4.846426E-1	5.420237E-1	5.282346E-1	5.227171E-1	5.140840E-1	4.950534E-1	4.986400E-1	5.181565E-1	5.163792E-1	5.111641E-1	5.324984E-1	5.382885E-1	4.978423E-1	5.258943E-1	5.634422E-1	5.132727E-1	5.115041E-1	5.265037E-1	5.136235E-1	5.269837E-1	4.923162E-1	5.115628E-1	4.937108E-1	5.442821E-1	5.195153E-1	5.404953E-1	5.658669E-1	5.134088E-1	5.135540E-1	5.415581E-1	5.269468E-1	5.239465E-1	5.119471E-1	5.537105E-1	5.546333E-1	5.256466E-1	4.845253E-1	5.238600E-1	5.338596E-1	5.095988E-1	4.993857E-1
5.370010E+2	4.960921E-1	4.792267E-1	4.250187E-1	3.076263E+0	4.721600E-1	4.746344E-1	4.315282E-1	4.981497E-1	4.639366E-1	4.761307E-1	4.563484E-1	5.134993E-1	4.711630E-1	4.450175E-1	4.536831E-1	4.674352E-1	4.628111E-1	4.612341E-1	4.554561E-1	4.435934E-1	4.439781E-1	4.643454E-1	4.677541E-1	4.796323E-1	4.653522E-1	4.546872E-1	4.622100E-1	4.536183E-1	4.587144E-1	4.613206E-1	4.504250E-1	4.635215E-1	4.609248E-1	5.046969E-1	4.822579E-1	4.820483E-1	4.949836E-1	4.480621E-1	4.682034E-1	4.559287E-1	4.662283E-1	4.352743E-1	4.372127E-1	4.826030E-1	4.689707E-1	4.713398E-1	4.760949E-1	4.977989E-1	4.622667E-1	4.563811E-1	4.601823E-1	4.699773E-1	4.797949E-1	4.839558E-1	4.772002E-1	4.584699E-1	5.024146E-1	4.701852E-1	4.838978E-1	4.782623E-1	4.838553E-1	4.619915E-1	4.718621E-1	4.620794E-1	4.810668E-1	4.687434E-1	4.774934E-1	4.761391E-1	5.132038E-1	4.582718E-1	4.492879E-1	4.633717E-1	4.801341E-1	4.607031E-1	4.513265E-1	4.699576E-1	4.567326E-1	4.740377E-1	4.761382E-1	4.798336E-1	4.830550E-1	4.772405E-1	4.736955E-1	4.941311E-1	4.564831E-1	4.514298E-1	4.277235E-1	4.694110E-1	4.895534E-1	4.759673E-1	4.662320E-1	4.562963E-1	4.712404E-1	4.527713E-1	4.764064E-1	4.771997E-1	4.608545E-1	4.720150E-1	4.744713E-1	4.459318E-1	4.969165E-1	4.664527E-1	4.585779E-1	4.493732E-1	4.596294E-1	4.818692E-1	4.771974E-1	4.742368E-1	4.861816E-1	4.978665E-1	4.876643E-1	4.795665E-1	4.730120E-1	4.862898E-1	4.926758E-1	4.429946E-1	4.952797E-1	4.408975E-1	4.781694E-1	4.750361E-1	4.643534E-1	4.900968E-1	4.359754E-1	4.576932E-1	4.720367E-1	4.578522E-1	4.568552E-1	4.711681E-1	4.612413E-1	4.765634E-1	4.387532E-1	4.757086E-1	4.620593E-1	4.401210E-1	4.650813E-1	4.400554E-1	4.865019E-1	4.781089E-1	4.838775E-1	4.626684E-1	5.000387E-1	4.654769E-1	4.649055E-1	4.723096E-1	4.855255E-1	4.502850E-1	4.885573E-1	4.837838E-1	4.735741E-1	4.475490E-1	4.946351E-1	4.951745E-1	4.425295E-1	4.748292E-1	4.793584E-1	4.629905E-1	4.724724E-1	4.846065E-1	5.005612E-1	4.678731E-1	4.699904E-1	4.823700E-1	4.677942E-1	4.772723E-1	4.778922E-1	4.744213E-1	4.882296E-1	4.502984E-1	4.807126E-1	4.847698E-1
5.372640E+2	4.375172E-1	4.052373E-1	3.892953E-1	2.967712E+0	3.988668E-1	4.104851E-1	4.098888E-1	4.354319E-1	4.383778E-1	4.160568E-1	4.257197E-1	4.340554E-1	4.318066E-1	4.235928E-1	4.434903E-1	4.449865E-1	4.205933E-1	4.094798E-1	4.402910E-1	3.916620E-1	4.205689E-1	4.070756E-1	4.138689E-1	4.367303E-1	4.818400E-1	4.157830E-1	4.525784E-1	4.478819E-1	4.305968E-1	4.428461E-1	4.402210E-1	4.174349E-1	4.433843E-1	4.285564E-1	4.405774E-1	4.302094E-1	4.264488E-1	3.905021E-1	4.594800E-1	4.598057E-1	4.355049E-1	4.221029E-1	4.279175E-1	4.450948E-1	4.413341E-1	4.190992E-1	4.229629E-1	4.428893E-1	4.228014E-1	4.532135E-1	4.343343E-1	4.538689E-1	4.493347E-1	4.236588E-1	4.325727E-1	4.393574E-1	4.432655E-1	4.362140E-1	4.077702E-1	4.179391E-1	4.582671E-1	4.347255E-1	4.352537E-1	4.546561E-1	4.047387E-1	4.146086E-1	4.428234E-1	4.537635E-1	4.539846E-1	4.311328E-1	4.536846E-1	4.477286E-1	4.428958E-1	4.025101E-1	4.788263E-1	4.531443E-1	4.546436E-1	4.384667E-1	4.397036E-1	4.707919E-1	4.128176E-1	4.443745E-1	4.266582E-1	4.581952E-1	4.066772E-1	4.258511E-1	4.276810E-1	4.353514E-1	4.468856E-1	4.262413E-1	4.416900E-1	4.668904E-1	4.378918E-1	4.310830E-1	4.481938E-1	4.443107E-1	4.409581E-1	4.380602E-1	4.524980E-1	4.142125E-1	4.589336E-1	4.416002E-1	4.508490E-1	4.250515E-1	4.223230E-1	4.077793E-1	4.563850E-1	4.587911E-1	4.649722E-1	4.300321E-1	4.185076E-1	4.345927E-1	4.357886E-1	4.149419E-1	4.350710E-1	4.411394E-1	4.430912E-1	4.346217E-1	4.289828E-1	4.353528E-1	4.245336E-1	4.583751E-1	4.380455E-1	4.369069E-1	4.335647E-1	4.190662E-1	4.621467E-1	4.489649E-1	4.225010E-1	4.440708E-1	4.565140E-1	4.351857E-1	4.385207E-1	4.037948E-1	4.706522E-1	4.307745E-1	4.485421E-1	4.605336E-1	4.064835E-1	4.318049E-1	4.664273E-1	4.141548E-1	4.574407E-1	4.692251E-1	4.403198E-1	4.574715E-1	4.319604E-1	4.406863E-1	4.296697E-1	4.606703E-1	4.244522E-1	4.462381E-1	4.294910E-1	3.908446E-1	4.450380E-1	4.861928E-1	4.272822E-1	4.368191E-1	4.551960E-1	4.542930E-1	4.147375E-1	4.136127E-1	4.124918E-1	4.308536E-1	4.403444E-1	4.162597E-1	4.387672E-1	4.517723E-1	4.077392E-1	4.388739E-1
5.375110E+2	4.674918E-1	4.451191E-1	4.667603E-1	3.042308E+0	4.019602E-1	4.749913E-1	4.548728E-1	4.360743E-1	4.637777E-1	4.175730E-1	4.588589E-1	4.921100E-1	4.864017E-1	4.383736E-1	4.388145E-1	4.822555E-1	4.578710E-1	4.358249E-1	4.612150E-1	4.543677E-1	4.827356E-1	4.413747E-1	4.570275E-1	4.538667E-1	5.152430E-1	4.499351E-1	5.005729E-1	4.726342E-1	4.675672E-1	4.768679E-1	4.750082E-1	4.716731E-1	4.915596E-1	4.789217E-1	4.680076E-1	4.895586E-1	4.821313E-1	4.668716E-1	4.789863E-1	4.628708E-1	4.940272E-1	4.665939E-1	4.448310E-1	4.829360E-1	4.667765E-1	4.684609E-1	4.610600E-1	4.857909E-1	4.970856E-1	4.621911E-1	4.577544E-1	4.682500E-1	4.583737E-1	4.453612E-1	4.646794E-1	4.860767E-1	4.367639E-1	4.498820E-1	4.603409E-1	5.001105E-1	4.619084E-1	4.621706E-1	4.579054E-1	4.888830E-1	4.306546E-1	4.693134E-1	4.488521E-1	4.883588E-1	4.988734E-1	4.896233E-1	4.575591E-1	4.628572E-1	4.834950E-1	4.444774E-1	4.774524E-1	4.872383E-1	4.733498E-1	4.829946E-1	4.592389E-1	4.862953E-1	4.810091E-1	4.601754E-1	4.652923E-1	4.647338E-1	4.757859E-1	4.602436E-1	4.621289E-1	4.861949E-1	4.784542E-1	4.644815E-1	4.723933E-1	4.605983E-1	4.816700E-1	4.558393E-1	4.820488E-1	4.616264E-1	4.528639E-1	4.427585E-1	4.487309E-1	4.840890E-1	4.757456E-1	4.556144E-1	4.984070E-1	4.739188E-1	4.614356E-1	4.624566E-1	4.647293E-1	4.502926E-1	4.802925E-1	4.587793E-1	4.919867E-1	4.741392E-1	4.747672E-1	4.634149E-1	4.762961E-1	4.878499E-1	4.540521E-1	4.840630E-1	4.692546E-1	4.704308E-1	4.666920E-1	5.073182E-1	4.662619E-1	4.914537E-1	4.653348E-1	4.780545E-1	4.790859E-1	4.768974E-1	5.100980E-1	4.567338E-1	4.737735E-1	4.597481E-1	4.758977E-1	4.539042E-1	4.828076E-1	4.700173E-1	4.610107E-1	4.506857E-1	4.560906E-1	5.219311E-1	4.857239E-1	4.582954E-1	4.931600E-1	4.591243E-1	4.504874E-1	4.651074E-1	4.734602E-1	4.642790E-1	4.610113E-1	4.773121E-1	4.581114E-1	5.009548E-1	4.568661E-1	4.702879E-1	4.848962E-1	4.808647E-1	4.666578E-1	4.969101E-1	4.966012E-1	4.953668E-1	4.818025E-1	4.536072E-1	4.631652E-1	4.679146E-1	4.789731E-1	4.599447E-1	4.645365E-1	5.314812E-1	4.794304E-1	5.309502E-1
5.377630E+2	5.175076E-1	4.915097E-1	5.191028E-1	3.351037E+0	5.208501E-1	5.111081E-1	5.199060E-1	5.403886E-1	4.925828E-1	5.357185E-1	5.143610E-1	5.505373E-1	5.388668E-1	4.979306E-1	5.346669E-1	5.309727E-1	5.205671E-1	5.094178E-1	5.318368E-1	5.596998E-1	5.139912E-1	5.245617E-1	5.151903E-1	5.278628E-1	5.382976E-1	5.122586E-1	5.516613E-1	5.231001E-1	5.451585E-1	5.503632E-1	5.403539E-1	5.387867E-1	5.285257E-1	5.205420E-1	5.211710E-1	5.267387E-1	5.279815E-1	5.264375E-1	5.248698E-1	5.260620E-1	5.244761E-1	5.415333E-1	5.084343E-1	5.178587E-1	5.467310E-1	5.496261E-1	5.321654E-1	5.182783E-1	5.397982E-1	5.516422E-1	5.216094E-1	5.347424E-1	5.363236E-1	5.558134E-1	5.306614E-1	5.576137E-1	5.179284E-1	4.749035E-1	4.844927E-1	5.571647E-1	5.482679E-1	5.315243E-1	5.466444E-1	5.687269E-1	5.654804E-1	5.270037E-1	5.418032E-1	5.126628E-1	5.752145E-1	5.307920E-1	5.419555E-1	5.472708E-1	5.182181E-1	5.097533E-1	5.469553E-1	5.444444E-1	5.213841E-1	5.360056E-1	4.984647E-1	5.421957E-1	5.345262E-1	5.566105E-1	5.702954E-1	5.335626E-1	5.415249E-1	5.334032E-1	5.543207E-1	5.324773E-1	5.460616E-1	5.266922E-1	5.499807E-1	5.212175E-1	5.356945E-1	5.334970E-1	5.255567E-1	5.209463E-1	5.500791E-1	5.017413E-1	5.466433E-1	5.705246E-1	5.173158E-1	5.655929E-1	5.313420E-1	5.343329E-1	5.247463E-1	5.278191E-1	5.479580E-1	5.296781E-1	5.346565E-1	5.244208E-1	5.747426E-1	5.300135E-1	5.427378E-1	5.262452E-1	5.196999E-1	5.412752E-1	5.414732E-1	5.154261E-1	5.210839E-1	5.566168E-1	5.439797E-1	5.231683E-1	5.483928E-1	5.330510E-1	5.285093E-1	5.438597E-1	5.295098E-1	5.391357E-1	5.614562E-1	5.561740E-1	5.223238E-1	5.408853E-1	5.006820E-1	5.346262E-1	5.423783E-1	5.344718E-1	5.575027E-1	5.297522E-1	5.177825E-1	5.342246E-1	5.462524E-1	5.545398E-1	5.325405E-1	5.531544E-1	5.301055E-1	5.214203E-1	5.649738E-1	5.253071E-1	5.244914E-1	5.315920E-1	5.280066E-1	5.401002E-1	5.751320E-1	5.265229E-1	5.583388E-1	5.215711E-1	5.191548E-1	5.367911E-1	5.357670E-1	5.441493E-1	5.050401E-1	4.998516E-1	5.451227E-1	5.529988E-1	5.270333E-1	5.336714E-1	5.286692E-1	5.538288E-1	5.044929E-1	5.657645E-1
5.380160E+2	6.779182E-1	6.501521E-1	6.245938E-1	3.457323E+0	6.347201E-1	6.487174E-1	6.306503E-1	6.742144E-1	6.736388E-1	6.324275E-1	6.172341E-1	6.560498E-1	6.507032E-1	6.300826E-1	6.572951E-1	6.338086E-1	6.757541E-1	6.260179E-1	6.574048E-1	6.409993E-1	6.517514E-1	6.070323E-1	6.102941E-1	6.512769E-1	6.973091E-1	6.755767E-1	6.404123E-1	6.745198E-1	6.629530E-1	6.502470E-1	6.490428E-1	6.459310E-1	6.528624E-1	6.976522E-1	6.397336E-1	6.724051E-1	6.614298E-1	6.813713E-1	6.774134E-1	6.360765E-1	7.076887E-1	6.525488E-1	6.688745E-1	6.486002E-1	6.233387E-1	6.473659E-1	6.428833E-1	6.714509E-1	6.820763E-1	6.348430E-1	6.588858E-1	6.709264E-1	6.569342E-1	6.838695E-1	6.530372E-1	6.891873E-1	6.663580E-1	6.418875E-1	6.763553E-1	6.406190E-1	6.801922E-1	6.615734E-1	6.635912E-1	6.776245E-1	6.864589E-1	6.620803E-1	6.236933E-1	6.608969E-1	6.532994E-1	6.696882E-1	6.288014E-1	6.524181E-1	6.880670E-1	6.555170E-1	6.339540E-1	6.516262E-1	6.624854E-1	6.500505E-1	6.706985E-1	6.387828E-1	6.282927E-1	6.347647E-1	6.336100E-1	6.600225E-1	6.685476E-1	6.800340E-1	6.673442E-1	6.655185E-1	6.535712E-1	6.098861E-1	6.552363E-1	7.031574E-1	6.805383E-1	6.659563E-1	6.447803E-1	6.539251E-1	6.672321E-1	6.633406E-1	6.677552E-1	6.227208E-1	7.003414E-1	6.574592E-1	6.339973E-1	6.674944E-1	6.382401E-1	6.121432E-1	6.821885E-1	6.639688E-1	6.604302E-1	6.843493E-1	6.533921E-1	6.653665E-1	6.599359E-1	6.650163E-1	6.115863E-1	7.014244E-1	6.746216E-1	6.482707E-1	6.595970E-1	6.709163E-1	6.667893E-1	6.690529E-1	6.445733E-1	6.648383E-1	6.528206E-1	6.500290E-1	6.590082E-1	6.635698E-1	6.565970E-1	6.640422E-1	6.208461E-1	6.708607E-1	6.401754E-1	6.423076E-1	6.387719E-1	7.046927E-1	6.704142E-1	6.712463E-1	6.804953E-1	6.971040E-1	6.538149E-1	6.776012E-1	6.727043E-1	6.930217E-1	6.416899E-1	6.692885E-1	6.631239E-1	6.333160E-1	6.928420E-1	6.403952E-1	6.387626E-1	6.917084E-1	6.314340E-1	6.608632E-1	6.740466E-1	6.843066E-1	7.079806E-1	6.485754E-1	6.620443E-1	6.329940E-1	6.790593E-1	6.639185E-1	6.560718E-1	6.907258E-1	6.479009E-1	6.311446E-1	6.710822E-1	7.177457E-1	6.487844E-1	6.345190E-1
5.382690E+2	8.492137E-1	7.940582E-1	7.602275E-1	5.602443E+0	7.873031E-1	7.739930E-1	7.893872E-1	8.197174E-1	8.009470E-1	7.947565E-1	8.000761E-1	8.687126E-1	8.360693E-1	7.797763E-1	8.180605E-1	8.360675E-1	7.710773E-1	7.519139E-1	8.054405E-1	8.236930E-1	8.305196E-1	8.181085E-1	7.883190E-1	8.317815E-1	8.840950E-1	8.481249E-1	8.708768E-1	8.295648E-1	8.330631E-1	8.318308E-1	8.324556E-1	8.310682E-1	8.700444E-1	8.102978E-1	8.325607E-1	7.922273E-1	8.284225E-1	7.969748E-1	8.296839E-1	8.301940E-1	8.491896E-1	7.983171E-1	8.073322E-1	8.513203E-1	8.049441E-1	8.211228E-1	8.369300E-1	8.487730E-1	8.445915E-1	7.937501E-1	8.325509E-1	8.756961E-1	7.944783E-1	8.300453E-1	8.202600E-1	8.274401E-1	8.523627E-1	8.438161E-1	8.391791E-1	8.065921E-1	8.298781E-1	8.346605E-1	8.419076E-1	8.806623E-1	8.198312E-1	8.017614E-1	8.011684E-1	8.052942E-1	8.422162E-1	8.004019E-1	8.132001E-1	8.220199E-1	8.140786E-1	7.826203E-1	8.220986E-1	8.575980E-1	7.871776E-1	8.354306E-1	8.052600E-1	7.867122E-1	8.054237E-1	8.083333E-1	8.392564E-1	8.124224E-1	8.196451E-1	8.122076E-1	8.009799E-1	7.993420E-1	8.235910E-1	7.717417E-1	8.552193E-1	8.169734E-1	8.583690E-1	8.456345E-1	8.311428E-1	8.172748E-1	8.136318E-1	8.426232E-1	8.312691E-1	8.127660E-1	8.357067E-1	8.089769E-1	7.661382E-1	8.068558E-1	8.243195E-1	8.021637E-1	8.261346E-1	7.976940E-1	8.221279E-1	8.437150E-1	8.166306E-1	8.772334E-1	7.971472E-1	7.979016E-1	8.417153E-1	8.600770E-1	8.216573E-1	8.097767E-1	7.825827E-1	8.491477E-1	7.793998E-1	8.159062E-1	8.183918E-1	8.198784E-1	8.491871E-1	8.270800E-1	8.101267E-1	7.972868E-1	8.031728E-1	7.928066E-1	7.805616E-1	8.173184E-1	8.337582E-1	8.059715E-1	8.228882E-1	8.138783E-1	7.930821E-1	8.043471E-1	7.961735E-1	8.578031E-1	8.439271E-1	8.104000E-1	8.150357E-1	8.592398E-1	8.074971E-1	8.213494E-1	7.714243E-1	8.212155E-1	8.262377E-1	7.887412E-1	8.214582E-1	8.489838E-1	7.805180E-1	8.314279E-1	8.645357E-1	8.052718E-1	8.667252E-1	7.991498E-1	8.061041E-1	8.209406E-1	8.203196E-1	8.412714E-1	8.547997E-1	8.283696E-1	8.310412E-1	7.880203E-1	8.052027E-1	8.700034E-1	8.558890E-1	8.755150E-1
5.385110E+2	9.874185E-1	9.810119E-1	9.861660E-1	6.445254E+0	9.967101E-1	1.010639E+0	9.865344E-1	1.045890E+0	1.023904E+0	1.016883E+0	1.023324E+0	1.029572E+0	1.001372E+0	1.000143E+0	1.037016E+0	9.838291E-1	1.012932E+0	9.623555E-1	9.938135E-1	9.532838E-1	9.978305E-1	9.720390E-1	9.831130E-1	1.051033E+0	1.037203E+0	1.022556E+0	1.040830E+0	1.082868E+0	1.020869E+0	1.047621E+0	9.956034E-1	1.009790E+0	1.043785E+0	1.030902E+0	9.985747E-1	1.038419E+0	1.049147E+0	9.757222E-1	1.031463E+0	1.062110E+0	1.020302E+0	9.898335E-1	1.018643E+0	1.075337E+0	9.859861E-1	9.908766E-1	1.013717E+0	1.024372E+0	9.703137E-1	1.020612E+0	9.901554E-1	1.069777E+0	1.007935E+0	1.001514E+0	1.041025E+0	9.593864E-1	1.028013E+0	1.036315E+0	1.018091E+0	1.022134E+0	1.020181E+0	1.004064E+0	1.020881E+0	1.023659E+0	1.025547E+0	1.004120E+0	9.800890E-1	1.002116E+0	1.021123E+0	1.039849E+0	1.015849E+0	1.002492E+0	1.036837E+0	1.005603E+0	9.694389E-1	9.952763E-1	9.540392E-1	1.006350E+0	1.059601E+0	9.929853E-1	9.999995E-1	9.951732E-1	1.015668E+0	9.984672E-1	1.001968E+0	9.852171E-1	1.020538E+0	9.988079E-1	1.050903E+0	9.870519E-1	9.931448E-1	1.006871E+0	1.008824E+0	1.029569E+0	1.014178E+0	1.031685E+0	1.003430E+0	9.867726E-1	9.972690E-1	9.690822E-1	1.053023E+0	9.800783E-1	9.901786E-1	1.040205E+0	1.001599E+0	1.025231E+0	1.019949E+0	9.903893E-1	9.977695E-1	1.000232E+0	1.008653E+0	1.027929E+0	1.033183E+0	9.943161E-1	9.554143E-1	9.862902E-1	1.033374E+0	1.010293E+0	9.609302E-1	1.050963E+0	1.005476E+0	1.062094E+0	9.502147E-1	1.037663E+0	1.029092E+0	1.024991E+0	1.033220E+0	1.013925E+0	1.008072E+0	9.760032E-1	1.001922E+0	1.036198E+0	1.018037E+0	1.020156E+0	1.011587E+0	1.036422E+0	9.951593E-1	1.043803E+0	9.680070E-1	1.037196E+0	1.045600E+0	1.021146E+0	1.013158E+0	1.062364E+0	1.011668E+0	1.003264E+0	9.801235E-1	1.016130E+0	9.796805E-1	1.009869E+0	1.003006E+0	1.012005E+0	9.838376E-1	1.001523E+0	1.014726E+0	1.045051E+0	1.030977E+0	1.024067E+0	1.033836E+0	1.047761E+0	9.777417E-1	1.017047E+0	9.857183E-1	1.050277E+0	1.042596E+0	1.024793E+0	9.737504E-1	1.057064E+0	1.055512E+0	1.059148E+0
5.387650E+2	1.224371E+0	1.172066E+0	1.157532E+0	7.217428E+0	1.168219E+0	1.173303E+0	1.132770E+0	1.236122E+0	1.152278E+0	1.168450E+0	1.174289E+0	1.203179E+0	1.188634E+0	1.180874E+0	1.184848E+0	1.212292E+0	1.168201E+0	1.133773E+0	1.180703E+0	1.164970E+0	1.180561E+0	1.166056E+0	1.169269E+0	1.153026E+0	1.230988E+0	1.238080E+0	1.230391E+0	1.205888E+0	1.170609E+0	1.216231E+0	1.194793E+0	1.208589E+0	1.232269E+0	1.191811E+0	1.180045E+0	1.172180E+0	1.224362E+0	1.170929E+0	1.115870E+0	1.232010E+0	1.209047E+0	1.200190E+0	1.208939E+0	1.222626E+0	1.184099E+0	1.214760E+0	1.192838E+0	1.215118E+0	1.158643E+0	1.109888E+0	1.225815E+0	1.233681E+0	1.185071E+0	1.186642E+0	1.190275E+0	1.206515E+0	1.217223E+0	1.193643E+0	1.172733E+0	1.187678E+0	1.225304E+0	1.171234E+0	1.217607E+0	1.206535E+0	1.156290E+0	1.165522E+0	1.168353E+0	1.175512E+0	1.168831E+0	1.161047E+0	1.177780E+0	1.197268E+0	1.225357E+0	1.188161E+0	1.141177E+0	1.215814E+0	1.171414E+0	1.159755E+0	1.179526E+0	1.169555E+0	1.191058E+0	1.236456E+0	1.164729E+0	1.258495E+0	1.237491E+0	1.176358E+0	1.180494E+0	1.172497E+0	1.211626E+0	1.180529E+0	1.177413E+0	1.193484E+0	1.244602E+0	1.205881E+0	1.218823E+0	1.199714E+0	1.182034E+0	1.159560E+0	1.151364E+0	1.175371E+0	1.210110E+0	1.158570E+0	1.211285E+0	1.174409E+0	1.173904E+0	1.188248E+0	1.199251E+0	1.238026E+0	1.192773E+0	1.159320E+0	1.126559E+0	1.205032E+0	1.220478E+0	1.192644E+0	1.126114E+0	1.154171E+0	1.210574E+0	1.153450E+0	1.134860E+0	1.165453E+0	1.177192E+0	1.231784E+0	1.128086E+0	1.202998E+0	1.144622E+0	1.197008E+0	1.197872E+0	1.176744E+0	1.202035E+0	1.214619E+0	1.107087E+0	1.201405E+0	1.187459E+0	1.177231E+0	1.164161E+0	1.199483E+0	1.176037E+0	1.168794E+0	1.176314E+0	1.237025E+0	1.160270E+0	1.151745E+0	1.173965E+0	1.182566E+0	1.164895E+0	1.177836E+0	1.157167E+0	1.177096E+0	1.185331E+0	1.185767E+0	1.138748E+0	1.164907E+0	1.182991E+0	1.127529E+0	1.203679E+0	1.188544E+0	1.147714E+0	1.161781E+0	1.128909E+0	1.196258E+0	1.163904E+0	1.145651E+0	1.118670E+0	1.214848E+0	1.180636E+0	1.143341E+0	1.178945E+0	1.267146E+0	1.169698E+0	1.196519E+0
5.390340E+2	1.392181E+0	1.304224E+0	1.259285E+0	5.081879E+0	1.371635E+0	1.335267E+0	1.325169E+0	1.348336E+0	1.363934E+0	1.326596E+0	1.393568E+0	1.366734E+0	1.404096E+0	1.326702E+0	1.362899E+0	1.399768E+0	1.344567E+0	1.324987E+0	1.327922E+0	1.342581E+0	1.395228E+0	1.303300E+0	1.342653E+0	1.344477E+0	1.401472E+0	1.388979E+0	1.452709E+0	1.305070E+0	1.369773E+0	1.376041E+0	1.351135E+0	1.406357E+0	1.388014E+0	1.357780E+0	1.316519E+0	1.299757E+0	1.356373E+0	1.329302E+0	1.353883E+0	1.416361E+0	1.366298E+0	1.312928E+0	1.315918E+0	1.381867E+0	1.336444E+0	1.344356E+0	1.350016E+0	1.381574E+0	1.331171E+0	1.295124E+0	1.393013E+0	1.415289E+0	1.336000E+0	1.315313E+0	1.366586E+0	1.344594E+0	1.376441E+0	1.260095E+0	1.340292E+0	1.354986E+0	1.425711E+0	1.323643E+0	1.311138E+0	1.371661E+0	1.358345E+0	1.277330E+0	1.295374E+0	1.340676E+0	1.339451E+0	1.333920E+0	1.289520E+0	1.312059E+0	1.347949E+0	1.336983E+0	1.327995E+0	1.297084E+0	1.301986E+0	1.307990E+0	1.330709E+0	1.347734E+0	1.321465E+0	1.335434E+0	1.316626E+0	1.374350E+0	1.315591E+0	1.327995E+0	1.330697E+0	1.362064E+0	1.352686E+0	1.337151E+0	1.391902E+0	1.316102E+0	1.434836E+0	1.311947E+0	1.366740E+0	1.340373E+0	1.332195E+0	1.331062E+0	1.309964E+0	1.348123E+0	1.367194E+0	1.293958E+0	1.353956E+0	1.311843E+0	1.279332E+0	1.359015E+0	1.379434E+0	1.334253E+0	1.373235E+0	1.314499E+0	1.338025E+0	1.360998E+0	1.312282E+0	1.317113E+0	1.392169E+0	1.326572E+0	1.323940E+0	1.252144E+0	1.314761E+0	1.361173E+0	1.348547E+0	1.346312E+0	1.342864E+0	1.345240E+0	1.346465E+0	1.313694E+0	1.343201E+0	1.346461E+0	1.299302E+0	1.295459E+0	1.311393E+0	1.368287E+0	1.331986E+0	1.334074E+0	1.334340E+0	1.307134E+0	1.323782E+0	1.282032E+0	1.328566E+0	1.444508E+0	1.323507E+0	1.330430E+0	1.292544E+0	1.355612E+0	1.265919E+0	1.281809E+0	1.323812E+0	1.350396E+0	1.340303E+0	1.325655E+0	1.328353E+0	1.360025E+0	1.349976E+0	1.353692E+0	1.251654E+0	1.338141E+0	1.326525E+0	1.337839E+0	1.357939E+0	1.368595E+0	1.343942E+0	1.326116E+0	1.340346E+0	1.385278E+0	1.291840E+0	1.317429E+0	1.349484E+0	1.400221E+0	1.360066E+0	1.353191E+0
5.392780E+2	1.597920E+0	1.532240E+0	1.529274E+0	6.128909E+0	1.541105E+0	1.525295E+0	1.545053E+0	1.627911E+0	1.534391E+0	1.565128E+0	1.577528E+0	1.532512E+0	1.602137E+0	1.566123E+0	1.535749E+0	1.573023E+0	1.541653E+0	1.526196E+0	1.505388E+0	1.516888E+0	1.604454E+0	1.552393E+0	1.500525E+0	1.583902E+0	1.596122E+0	1.488912E+0	1.598516E+0	1.552557E+0	1.558594E+0	1.629859E+0	1.593591E+0	1.589750E+0	1.647113E+0	1.584671E+0	1.527964E+0	1.530001E+0	1.509988E+0	1.503339E+0	1.493447E+0	1.553179E+0	1.579715E+0	1.454600E+0	1.509758E+0	1.601070E+0	1.584008E+0	1.509733E+0	1.533336E+0	1.554478E+0	1.578174E+0	1.478339E+0	1.512543E+0	1.540194E+0	1.527855E+0	1.513982E+0	1.556347E+0	1.528747E+0	1.550994E+0	1.537721E+0	1.519102E+0	1.549803E+0	1.566373E+0	1.533465E+0	1.573719E+0	1.553194E+0	1.569205E+0	1.516286E+0	1.501330E+0	1.562973E+0	1.550049E+0	1.537951E+0	1.500255E+0	1.605969E+0	1.557460E+0	1.521925E+0	1.508262E+0	1.513052E+0	1.539054E+0	1.511341E+0	1.597605E+0	1.555159E+0	1.492618E+0	1.593354E+0	1.513491E+0	1.554832E+0	1.514327E+0	1.522583E+0	1.557186E+0	1.584161E+0	1.540315E+0	1.492309E+0	1.525838E+0	1.522683E+0	1.611264E+0	1.502318E+0	1.506555E+0	1.540124E+0	1.545039E+0	1.480087E+0	1.516436E+0	1.535273E+0	1.516988E+0	1.476670E+0	1.542636E+0	1.580162E+0	1.527370E+0	1.534959E+0	1.570471E+0	1.581932E+0	1.533162E+0	1.565650E+0	1.535340E+0	1.603140E+0	1.515191E+0	1.527809E+0	1.502354E+0	1.483547E+0	1.551983E+0	1.510589E+0	1.483908E+0	1.628981E+0	1.534010E+0	1.500723E+0	1.524244E+0	1.660981E+0	1.535296E+0	1.571380E+0	1.502840E+0	1.582812E+0	1.539676E+0	1.561923E+0	1.502764E+0	1.538552E+0	1.488710E+0	1.588934E+0	1.498758E+0	1.537746E+0	1.547765E+0	1.541537E+0	1.528161E+0	1.620406E+0	1.543328E+0	1.513724E+0	1.500821E+0	1.572825E+0	1.531545E+0	1.512407E+0	1.513221E+0	1.525190E+0	1.518396E+0	1.506844E+0	1.508356E+0	1.550305E+0	1.521085E+0	1.578052E+0	1.525270E+0	1.523874E+0	1.508527E+0	1.522353E+0	1.546597E+0	1.560548E+0	1.503883E+0	1.534144E+0	1.496496E+0	1.526055E+0	1.520603E+0	1.481359E+0	1.540117E+0	1.613754E+0	1.520385E+0	1.721456E+0
5.395160E+2	1.893304E+0	1.809310E+0	1.743788E+0	3.804013E+0	1.789784E+0	1.805956E+0	1.794509E+0	1.794825E+0	1.812230E+0	1.792539E+0	1.729634E+0	1.821511E+0	1.830883E+0	1.762657E+0	1.879228E+0	1.816702E+0	1.824119E+0	1.787040E+0	1.771682E+0	1.823372E+0	1.821513E+0	1.783268E+0	1.790027E+0	1.836088E+0	1.826496E+0	1.791813E+0	1.833651E+0	1.742661E+0	1.793522E+0	1.833750E+0	1.795215E+0	1.775360E+0	1.872671E+0	1.806894E+0	1.753144E+0	1.746118E+0	1.804955E+0	1.757980E+0	1.784151E+0	1.806588E+0	1.894225E+0	1.731244E+0	1.791109E+0	1.805481E+0	1.787231E+0	1.779763E+0	1.759616E+0	1.841956E+0	1.823416E+0	1.796605E+0	1.729621E+0	1.734963E+0	1.782535E+0	1.778307E+0	1.829306E+0	1.793648E+0	1.839373E+0	1.734314E+0	1.866927E+0	1.741338E+0	1.894985E+0	1.775931E+0	1.742570E+0	1.769262E+0	1.780846E+0	1.803192E+0	1.766052E+0	1.806842E+0	1.775866E+0	1.831341E+0	1.792140E+0	1.732472E+0	1.800023E+0	1.704949E+0	1.765476E+0	1.791135E+0	1.745984E+0	1.774799E+0	1.785790E+0	1.802760E+0	1.769218E+0	1.842642E+0	1.849905E+0	1.835960E+0	1.789266E+0	1.756306E+0	1.732165E+0	1.790176E+0	1.835784E+0	1.753102E+0	1.807086E+0	1.751380E+0	1.869847E+0	1.795475E+0	1.790125E+0	1.784093E+0	1.767935E+0	1.774031E+0	1.761856E+0	1.771000E+0	1.779386E+0	1.798709E+0	1.807099E+0	1.809592E+0	1.807422E+0	1.773028E+0	1.843476E+0	1.838124E+0	1.777824E+0	1.729596E+0	1.744610E+0	1.798208E+0	1.763210E+0	1.820506E+0	1.726733E+0	1.751235E+0	1.730517E+0	1.751743E+0	1.790724E+0	1.814497E+0	1.753592E+0	1.741061E+0	1.731668E+0	1.812986E+0	1.754665E+0	1.767312E+0	1.710390E+0	1.802604E+0	1.775524E+0	1.756107E+0	1.691705E+0	1.746539E+0	1.720438E+0	1.752361E+0	1.723522E+0	1.788815E+0	1.791858E+0	1.797011E+0	1.768102E+0	1.830762E+0	1.750651E+0	1.761709E+0	1.767312E+0	1.774021E+0	1.746145E+0	1.789921E+0	1.748166E+0	1.730408E+0	1.738903E+0	1.739669E+0	1.771322E+0	1.805642E+0	1.771541E+0	1.688296E+0	1.826611E+0	1.813983E+0	1.730531E+0	1.785032E+0	1.721734E+0	1.725634E+0	1.673826E+0	1.777856E+0	1.716651E+0	1.802988E+0	1.773476E+0	1.691771E+0	1.704887E+0	1.725000E+0	1.789457E+0	1.777110E+0
5.397910E+2	1.937189E+0	1.893933E+0	1.909482E+0	2.776860E+0	1.910152E+0	1.945642E+0	1.923807E+0	1.940264E+0	1.972006E+0	1.928240E+0	1.907196E+0	1.866836E+0	1.993983E+0	1.930549E+0	1.913300E+0	2.014909E+0	1.959364E+0	1.898248E+0	1.903953E+0	1.882499E+0	1.915201E+0	1.933106E+0	1.890775E+0	1.925883E+0	1.890002E+0	1.931151E+0	1.893677E+0	1.888062E+0	1.888859E+0	1.960097E+0	1.888416E+0	1.877098E+0	1.984228E+0	1.975059E+0	1.896692E+0	1.917273E+0	1.924067E+0	1.842539E+0	1.874150E+0	1.972201E+0	1.959838E+0	1.892229E+0	1.902202E+0	1.960959E+0	1.912922E+0	1.948898E+0	1.885507E+0	1.933041E+0	1.840257E+0	1.883912E+0	1.854223E+0	1.911659E+0	1.888309E+0	1.897355E+0	1.889491E+0	1.876941E+0	1.965119E+0	1.840019E+0	1.918038E+0	1.897339E+0	1.956683E+0	1.911258E+0	1.824456E+0	1.914731E+0	1.926727E+0	1.817567E+0	1.866151E+0	1.966597E+0	1.922804E+0	1.879986E+0	1.889681E+0	1.906143E+0	1.945652E+0	1.940382E+0	1.880421E+0	1.916438E+0	1.879012E+0	1.961336E+0	1.911340E+0	1.918751E+0	1.852613E+0	1.919758E+0	1.879195E+0	1.895890E+0	1.931187E+0	1.864944E+0	1.906237E+0	1.900714E+0	1.904967E+0	1.865622E+0	1.870681E+0	1.875260E+0	1.963821E+0	1.907604E+0	1.884281E+0	1.910081E+0	1.889400E+0	1.909556E+0	1.876810E+0	1.878179E+0	1.962900E+0	1.839894E+0	1.822808E+0	1.887240E+0	1.906898E+0	1.856084E+0	1.929691E+0	1.882187E+0	1.926817E+0	1.916934E+0	1.900674E+0	1.870175E+0	1.830838E+0	1.939323E+0	1.779463E+0	1.878759E+0	1.937103E+0	1.883595E+0	1.864159E+0	1.899645E+0	1.852341E+0	1.874620E+0	1.872624E+0	1.916515E+0	1.909666E+0	1.844608E+0	1.917545E+0	1.883472E+0	1.841500E+0	1.836058E+0	1.843493E+0	1.907028E+0	1.892620E+0	1.916310E+0	1.897431E+0	1.903352E+0	1.877192E+0	1.912862E+0	1.857953E+0	1.965414E+0	1.887943E+0	1.851415E+0	1.825546E+0	1.915785E+0	1.816612E+0	1.807138E+0	1.893268E+0	1.893590E+0	1.913978E+0	1.834080E+0	1.824314E+0	1.958486E+0	1.930551E+0	1.819990E+0	1.832547E+0	1.873402E+0	1.886184E+0	1.855650E+0	1.889866E+0	1.874641E+0	1.912493E+0	1.816939E+0	1.822567E+0	1.834736E+0	1.823608E+0	1.816391E+0	1.851682E+0	1.954946E+0	1.827995E+0	2.080968E+0
5.400350E+2	1.980879E+0	1.962821E+0	1.950363E+0	3.102436E+0	1.961196E+0	1.943834E+0	1.892376E+0	1.986950E+0	1.948942E+0	2.059388E+0	1.963202E+0	1.993890E+0	2.027764E+0	1.936181E+0	2.023013E+0	1.969887E+0	1.932355E+0	1.964467E+0	2.034393E+0	1.989726E+0	1.965699E+0	1.910487E+0	1.936596E+0	1.957774E+0	1.972006E+0	1.926935E+0	1.970332E+0	1.908006E+0	1.915509E+0	1.985504E+0	1.967449E+0	1.903365E+0	2.095679E+0	1.973737E+0	1.898192E+0	1.949016E+0	1.974963E+0	1.884851E+0	1.933413E+0	1.958278E+0	2.056808E+0	1.924815E+0	1.910351E+0	1.946237E+0	2.000394E+0	1.954028E+0	1.919004E+0	1.997224E+0	1.980119E+0	1.909415E+0	1.947962E+0	2.013226E+0	1.929074E+0	1.968734E+0	1.966234E+0	1.953405E+0	2.022604E+0	1.879207E+0	1.948352E+0	1.941060E+0	1.988511E+0	1.947013E+0	1.951250E+0	1.970900E+0	1.929125E+0	1.941526E+0	1.915585E+0	1.942247E+0	1.926671E+0	1.959076E+0	1.953407E+0	1.991767E+0	1.978705E+0	1.906523E+0	1.938888E+0	1.985783E+0	1.901337E+0	1.972553E+0	1.994436E+0	1.939045E+0	1.853592E+0	1.950979E+0	1.915567E+0	1.946848E+0	1.911879E+0	1.873412E+0	1.928567E+0	1.908285E+0	2.021649E+0	1.922392E+0	1.964467E+0	1.923410E+0	2.007873E+0	1.881640E+0	1.938781E+0	1.979733E+0	1.979576E+0	1.964806E+0	1.983828E+0	1.904309E+0	1.983283E+0	1.934393E+0	1.982650E+0	1.894881E+0	1.903672E+0	1.897487E+0	1.956882E+0	1.912947E+0	1.953211E+0	1.919297E+0	1.925656E+0	1.941615E+0	1.895918E+0	1.866191E+0	1.880177E+0	1.934601E+0	1.966019E+0	1.882907E+0	1.849283E+0	1.967712E+0	1.923315E+0	1.962749E+0	1.926888E+0	1.962434E+0	1.844891E+0	1.906483E+0	1.956927E+0	1.967173E+0	1.928672E+0	1.871666E+0	1.844489E+0	1.880987E+0	1.905012E+0	1.843005E+0	1.903927E+0	1.924831E+0	1.937990E+0	1.913322E+0	1.860311E+0	2.014022E+0	1.914619E+0	1.905398E+0	1.830312E+0	1.949383E+0	1.947931E+0	1.900998E+0	1.891489E+0	1.911826E+0	1.906040E+0	1.864539E+0	1.895147E+0	1.893994E+0	2.017856E+0	1.835057E+0	1.944295E+0	1.978988E+0	1.925890E+0	1.895807E+0	1.926474E+0	1.923396E+0	1.937144E+0	1.901871E+0	1.860172E+0	1.949741E+0	1.907286E+0	1.858246E+0	1.912071E+0	2.023017E+0	1.857627E+0	2.013417E+0
5.402740E+2	1.992510E+0	1.871537E+0	1.920034E+0	2.707996E+0	1.838176E+0	1.935900E+0	1.903228E+0	1.910285E+0	1.942646E+0	1.900644E+0	1.881736E+0	1.902835E+0	1.944899E+0	1.928711E+0	1.929730E+0	1.949387E+0	1.911577E+0	1.903425E+0	1.897800E+0	1.874042E+0	1.889369E+0	1.916771E+0	1.887429E+0	1.971582E+0	1.974715E+0	1.864387E+0	1.926184E+0	1.917954E+0	1.915370E+0	1.873659E+0	1.890768E+0	1.882676E+0	1.930413E+0	1.882520E+0	1.867049E+0	1.910614E+0	1.907989E+0	1.864564E+0	1.867932E+0	1.905350E+0	1.996653E+0	1.840655E+0	1.934770E+0	1.953560E+0	1.946352E+0	1.886741E+0	1.930204E+0	1.935211E+0	1.922030E+0	1.973460E+0	1.931812E+0	1.967947E+0	1.933627E+0	1.888904E+0	1.899499E+0	1.843335E+0	1.911826E+0	1.857233E+0	1.896010E+0	1.868528E+0	1.947158E+0	1.884991E+0	1.901346E+0	1.905964E+0	1.867598E+0	1.849296E+0	1.878592E+0	1.892603E+0	1.883288E+0	1.901789E+0	1.884128E+0	1.822214E+0	1.894823E+0	1.806731E+0	1.874580E+0	1.826535E+0	1.936246E+0	1.915969E+0	1.929384E+0	1.886006E+0	1.856071E+0	1.916897E+0	1.886186E+0	1.878973E+0	1.894417E+0	1.883353E+0	1.879030E+0	1.872318E+0	1.908459E+0	1.895578E+0	1.878457E+0	1.895915E+0	1.947222E+0	1.861063E+0	1.935883E+0	1.811627E+0	1.884331E+0	1.908463E+0	1.901393E+0	1.955960E+0	1.906606E+0	1.820592E+0	1.887572E+0	1.860367E+0	1.875140E+0	1.876580E+0	1.955146E+0	1.879930E+0	1.861102E+0	1.955517E+0	1.860871E+0	1.920994E+0	1.884494E+0	1.895698E+0	1.837004E+0	1.872389E+0	1.857395E+0	1.881096E+0	1.862387E+0	1.861920E+0	1.905801E+0	1.826131E+0	1.800425E+0	1.942028E+0	1.871870E+0	1.832007E+0	1.806208E+0	1.890313E+0	1.878703E+0	1.887491E+0	1.829560E+0	1.850460E+0	1.863618E+0	1.831979E+0	1.838505E+0	1.856903E+0	1.833429E+0	1.895254E+0	1.811265E+0	1.932067E+0	1.897642E+0	1.928630E+0	1.872635E+0	1.864565E+0	1.832791E+0	1.849862E+0	1.867016E+0	1.831344E+0	1.873659E+0	1.821272E+0	1.836200E+0	1.877648E+0	1.928753E+0	1.810161E+0	1.915186E+0	1.865936E+0	1.893271E+0	1.819388E+0	1.844389E+0	1.875326E+0	1.814378E+0	1.872126E+0	1.817026E+0	1.898592E+0	1.830634E+0	1.836396E+0	1.823972E+0	1.856062E+0	1.979779E+0	1.991437E+0
5.405080E+2	1.815923E+0	1.755289E+0	1.723413E+0	2.246209E+0	1.660312E+0	1.758185E+0	1.769484E+0	1.765709E+0	1.712665E+0	1.767664E+0	1.734727E+0	1.762249E+0	1.793214E+0	1.752229E+0	1.768164E+0	1.727388E+0	1.782768E+0	1.707208E+0	1.711695E+0	1.682256E+0	1.742301E+0	1.667188E+0	1.669149E+0	1.759273E+0	1.801114E+0	1.692447E+0	1.764907E+0	1.740798E+0	1.756601E+0	1.708941E+0	1.667009E+0	1.673790E+0	1.786764E+0	1.731992E+0	1.736306E+0	1.719157E+0	1.738120E+0	1.685118E+0	1.799357E+0	1.708008E+0	1.822848E+0	1.734478E+0	1.729967E+0	1.766469E+0	1.752470E+0	1.732821E+0	1.690396E+0	1.747471E+0	1.792908E+0	1.723217E+0	1.724253E+0	1.749713E+0	1.704536E+0	1.703644E+0	1.744445E+0	1.730079E+0	1.775694E+0	1.684196E+0	1.747955E+0	1.737664E+0	1.771647E+0	1.667712E+0	1.704120E+0	1.669862E+0	1.747275E+0	1.726495E+0	1.709600E+0	1.727722E+0	1.705327E+0	1.699296E+0	1.717078E+0	1.658388E+0	1.759465E+0	1.710269E+0	1.702481E+0	1.730067E+0	1.707340E+0	1.697426E+0	1.770208E+0	1.737712E+0	1.672312E+0	1.727657E+0	1.703221E+0	1.742685E+0	1.730742E+0	1.678281E+0	1.675895E+0	1.764776E+0	1.753013E+0	1.719051E+0	1.720093E+0	1.710899E+0	1.735748E+0	1.725988E+0	1.731539E+0	1.726114E+0	1.759235E+0	1.695937E+0	1.649004E+0	1.691226E+0	1.731350E+0	1.753326E+0	1.709514E+0	1.722609E+0	1.700447E+0	1.744381E+0	1.736704E+0	1.695628E+0	1.751572E+0	1.702881E+0	1.701164E+0	1.724217E+0	1.736111E+0	1.747160E+0	1.587045E+0	1.752349E+0	1.719321E+0	1.705338E+0	1.645906E+0	1.717054E+0	1.737723E+0	1.753310E+0	1.672929E+0	1.704463E+0	1.668116E+0	1.673276E+0	1.678992E+0	1.698362E+0	1.764928E+0	1.782074E+0	1.655109E+0	1.742694E+0	1.713298E+0	1.673375E+0	1.692902E+0	1.661643E+0	1.701784E+0	1.721095E+0	1.701389E+0	1.837781E+0	1.699133E+0	1.686802E+0	1.700901E+0	1.730350E+0	1.663342E+0	1.672412E+0	1.730377E+0	1.676674E+0	1.700812E+0	1.662446E+0	1.694413E+0	1.687513E+0	1.688834E+0	1.664538E+0	1.779141E+0	1.708579E+0	1.779555E+0	1.745841E+0	1.662897E+0	1.711969E+0	1.668757E+0	1.749975E+0	1.699032E+0	1.745454E+0	1.732043E+0	1.666704E+0	1.681907E+0	1.708959E+0	1.794339E+0	1.795719E+0
5.407630E+2	1.653273E+0	1.635641E+0	1.592181E+0	2.008339E+0	1.622830E+0	1.585498E+0	1.578109E+0	1.647584E+0	1.587038E+0	1.606667E+0	1.583343E+0	1.590977E+0	1.644137E+0	1.589136E+0	1.599912E+0	1.653533E+0	1.549104E+0	1.620666E+0	1.559468E+0	1.568164E+0	1.613822E+0	1.537020E+0	1.565390E+0	1.651760E+0	1.637891E+0	1.604361E+0	1.618682E+0	1.527896E+0	1.576937E+0	1.575467E+0	1.629217E+0	1.532454E+0	1.650780E+0	1.662474E+0	1.566174E+0	1.552586E+0	1.613596E+0	1.581503E+0	1.583154E+0	1.570029E+0	1.660778E+0	1.592670E+0	1.585180E+0	1.677976E+0	1.570259E+0	1.599720E+0	1.611076E+0	1.618897E+0	1.622386E+0	1.635036E+0	1.553542E+0	1.580348E+0	1.642918E+0	1.585940E+0	1.592624E+0	1.596709E+0	1.646969E+0	1.537144E+0	1.593543E+0	1.551143E+0	1.634810E+0	1.612274E+0	1.617498E+0	1.618809E+0	1.602077E+0	1.583304E+0	1.528759E+0	1.622195E+0	1.622460E+0	1.612571E+0	1.569348E+0	1.570717E+0	1.518711E+0	1.593901E+0	1.574189E+0	1.594112E+0	1.567853E+0	1.555917E+0	1.587764E+0	1.568218E+0	1.514572E+0	1.644551E+0	1.612624E+0	1.576091E+0	1.557541E+0	1.561929E+0	1.530029E+0	1.585360E+0	1.578309E+0	1.582683E+0	1.637280E+0	1.578287E+0	1.615655E+0	1.531204E+0	1.611932E+0	1.574583E+0	1.517249E+0	1.588431E+0	1.566316E+0	1.547955E+0	1.599691E+0	1.602703E+0	1.551889E+0	1.575923E+0	1.535093E+0	1.518350E+0	1.587407E+0	1.592491E+0	1.595013E+0	1.595188E+0	1.548001E+0	1.643573E+0	1.597177E+0	1.649816E+0	1.511160E+0	1.551512E+0	1.618098E+0	1.569948E+0	1.539575E+0	1.553058E+0	1.554897E+0	1.622087E+0	1.589077E+0	1.574473E+0	1.558927E+0	1.614237E+0	1.558240E+0	1.642465E+0	1.589788E+0	1.543290E+0	1.575233E+0	1.631118E+0	1.597248E+0	1.516561E+0	1.520221E+0	1.545116E+0	1.537106E+0	1.576290E+0	1.550499E+0	1.598145E+0	1.611817E+0	1.552646E+0	1.561521E+0	1.598608E+0	1.536790E+0	1.536756E+0	1.599193E+0	1.599719E+0	1.603675E+0	1.550182E+0	1.567773E+0	1.553644E+0	1.544800E+0	1.538938E+0	1.558613E+0	1.538893E+0	1.584562E+0	1.573761E+0	1.612313E+0	1.592889E+0	1.550632E+0	1.601917E+0	1.574055E+0	1.579806E+0	1.571898E+0	1.545456E+0	1.549118E+0	1.569294E+0	1.560298E+0	1.528196E+0
5.410340E+2	1.717783E+0	1.618702E+0	1.589184E+0	2.130816E+0	1.657405E+0	1.723663E+0	1.622771E+0	1.727701E+0	1.645747E+0	1.643205E+0	1.669315E+0	1.682173E+0	1.750215E+0	1.639331E+0	1.679202E+0	1.736404E+0	1.700140E+0	1.585686E+0	1.628343E+0	1.664947E+0	1.668752E+0	1.615279E+0	1.634860E+0	1.706905E+0	1.680792E+0	1.659364E+0	1.667385E+0	1.593515E+0	1.685678E+0	1.738189E+0	1.671410E+0	1.693766E+0	1.698312E+0	1.670563E+0	1.704150E+0	1.653435E+0	1.709628E+0	1.576064E+0	1.689216E+0	1.707387E+0	1.764984E+0	1.655697E+0	1.630220E+0	1.674492E+0	1.734301E+0	1.669084E+0	1.641910E+0	1.646363E+0	1.675415E+0	1.662901E+0	1.611939E+0	1.712826E+0	1.676543E+0	1.665157E+0	1.657283E+0	1.602287E+0	1.704493E+0	1.616778E+0	1.692694E+0	1.597108E+0	1.640488E+0	1.638113E+0	1.639567E+0	1.651780E+0	1.669756E+0	1.644310E+0	1.648941E+0	1.644392E+0	1.690783E+0	1.676250E+0	1.677925E+0	1.611411E+0	1.651941E+0	1.584852E+0	1.645839E+0	1.719365E+0	1.640563E+0	1.648655E+0	1.649923E+0	1.644506E+0	1.615663E+0	1.688790E+0	1.619047E+0	1.681105E+0	1.653219E+0	1.631374E+0	1.641390E+0	1.662197E+0	1.649714E+0	1.676961E+0	1.613677E+0	1.671008E+0	1.713650E+0	1.604655E+0	1.638906E+0	1.619119E+0	1.631322E+0	1.644941E+0	1.698660E+0	1.640904E+0	1.670598E+0	1.581353E+0	1.636727E+0	1.630860E+0	1.646147E+0	1.591539E+0	1.658303E+0	1.618188E+0	1.632644E+0	1.606422E+0	1.645552E+0	1.708800E+0	1.605589E+0	1.565572E+0	1.583156E+0	1.582097E+0	1.648038E+0	1.608911E+0	1.597951E+0	1.689918E+0	1.605355E+0	1.618232E+0	1.622473E+0	1.672251E+0	1.610132E+0	1.658208E+0	1.639907E+0	1.582825E+0	1.637289E+0	1.584597E+0	1.575975E+0	1.570938E+0	1.601703E+0	1.641558E+0	1.587948E+0	1.652058E+0	1.684559E+0	1.567542E+0	1.680682E+0	1.688708E+0	1.630180E+0	1.579518E+0	1.646323E+0	1.685715E+0	1.609308E+0	1.627654E+0	1.628741E+0	1.608316E+0	1.608308E+0	1.640371E+0	1.601183E+0	1.662220E+0	1.698654E+0	1.636234E+0	1.652565E+0	1.621929E+0	1.629626E+0	1.635553E+0	1.630592E+0	1.627117E+0	1.646626E+0	1.602534E+0	1.618319E+0	1.614766E+0	1.586428E+0	1.614862E+0	1.613328E+0	1.625642E+0	1.588866E+0	1.691710E+0
5.412640E+2	1.659333E+0	1.603812E+0	1.636112E+0	1.994254E+0	1.654626E+0	1.593058E+0	1.659001E+0	1.609456E+0	1.635622E+0	1.643852E+0	1.589778E+0	1.645320E+0	1.614369E+0	1.636898E+0	1.609054E+0	1.663168E+0	1.656488E+0	1.655127E+0	1.619833E+0	1.615117E+0	1.640750E+0	1.631125E+0	1.602851E+0	1.637049E+0	1.589172E+0	1.622787E+0	1.675716E+0	1.581561E+0	1.586930E+0	1.643046E+0	1.575747E+0	1.629843E+0	1.594727E+0	1.628745E+0	1.613719E+0	1.563886E+0	1.648846E+0	1.536013E+0	1.593027E+0	1.612656E+0	1.685711E+0	1.630449E+0	1.635470E+0	1.635485E+0	1.619557E+0	1.600909E+0	1.632220E+0	1.595821E+0	1.625193E+0	1.593042E+0	1.600450E+0	1.658730E+0	1.573269E+0	1.584849E+0	1.616257E+0	1.593732E+0	1.601305E+0	1.635708E+0	1.565415E+0	1.701765E+0	1.681321E+0	1.675349E+0	1.600992E+0	1.645296E+0	1.569156E+0	1.549105E+0	1.594542E+0	1.615162E+0	1.666020E+0	1.622610E+0	1.611935E+0	1.609430E+0	1.637132E+0	1.597516E+0	1.639366E+0	1.595556E+0	1.611121E+0	1.628605E+0	1.649745E+0	1.572546E+0	1.597970E+0	1.578625E+0	1.600667E+0	1.676815E+0	1.596036E+0	1.642292E+0	1.614523E+0	1.611708E+0	1.638975E+0	1.629285E+0	1.628717E+0	1.622847E+0	1.644104E+0	1.587646E+0	1.615162E+0	1.608642E+0	1.603389E+0	1.594007E+0	1.627039E+0	1.654334E+0	1.648116E+0	1.589718E+0	1.527663E+0	1.576642E+0	1.595582E+0	1.596885E+0	1.642853E+0	1.604161E+0	1.662695E+0	1.576629E+0	1.621856E+0	1.646953E+0	1.662910E+0	1.615431E+0	1.604686E+0	1.589373E+0	1.579388E+0	1.505124E+0	1.586472E+0	1.624536E+0	1.625143E+0	1.607321E+0	1.607905E+0	1.662009E+0	1.593174E+0	1.621803E+0	1.657572E+0	1.637192E+0	1.646717E+0	1.579663E+0	1.566111E+0	1.589302E+0	1.633947E+0	1.558594E+0	1.583094E+0	1.583836E+0	1.575710E+0	1.585969E+0	1.539657E+0	1.609808E+0	1.586154E+0	1.596864E+0	1.589051E+0	1.606130E+0	1.593273E+0	1.579971E+0	1.562867E+0	1.583721E+0	1.592696E+0	1.573141E+0	1.534101E+0	1.630871E+0	1.625013E+0	1.582614E+0	1.590280E+0	1.609790E+0	1.580929E+0	1.601938E+0	1.601428E+0	1.608293E+0	1.611371E+0	1.575173E+0	1.554883E+0	1.581035E+0	1.565072E+0	1.586781E+0	1.576199E+0	1.625661E+0	1.564236E+0	1.697211E+0
5.415140E+2	1.512373E+0	1.534648E+0	1.458962E+0	1.843015E+0	1.497004E+0	1.495191E+0	1.438081E+0	1.529448E+0	1.525294E+0	1.473778E+0	1.462226E+0	1.472933E+0	1.531290E+0	1.579937E+0	1.520171E+0	1.550903E+0	1.518143E+0	1.476755E+0	1.486911E+0	1.499029E+0	1.482286E+0	1.461451E+0	1.514251E+0	1.463243E+0	1.446040E+0	1.450033E+0	1.475439E+0	1.503124E+0	1.431910E+0	1.507146E+0	1.510612E+0	1.493807E+0	1.508003E+0	1.495524E+0	1.417341E+0	1.467438E+0	1.505327E+0	1.459909E+0	1.456734E+0	1.464926E+0	1.502484E+0	1.449969E+0	1.465886E+0	1.453315E+0	1.450050E+0	1.541905E+0	1.454081E+0	1.504364E+0	1.472154E+0	1.462400E+0	1.468446E+0	1.503432E+0	1.525304E+0	1.450973E+0	1.492570E+0	1.493194E+0	1.525563E+0	1.477854E+0	1.489818E+0	1.508817E+0	1.482579E+0	1.542657E+0	1.444847E+0	1.527666E+0	1.428085E+0	1.437764E+0	1.431068E+0	1.437161E+0	1.547237E+0	1.465898E+0	1.480989E+0	1.472975E+0	1.515064E+0	1.416963E+0	1.456945E+0	1.485369E+0	1.491250E+0	1.499041E+0	1.526932E+0	1.470497E+0	1.375800E+0	1.453676E+0	1.510041E+0	1.523891E+0	1.498062E+0	1.437098E+0	1.469537E+0	1.470571E+0	1.417470E+0	1.484625E+0	1.483255E+0	1.472234E+0	1.470559E+0	1.505693E+0	1.481883E+0	1.440302E+0	1.547323E+0	1.453160E+0	1.471354E+0	1.466043E+0	1.462742E+0	1.458749E+0	1.469771E+0	1.486046E+0	1.434221E+0	1.538530E+0	1.485627E+0	1.440936E+0	1.490924E+0	1.404476E+0	1.477806E+0	1.488020E+0	1.513769E+0	1.456129E+0	1.466134E+0	1.492845E+0	1.489822E+0	1.427647E+0	1.435935E+0	1.459735E+0	1.487051E+0	1.499447E+0	1.449475E+0	1.454591E+0	1.472268E+0	1.526793E+0	1.436930E+0	1.457094E+0	1.448608E+0	1.502731E+0	1.453298E+0	1.494744E+0	1.464009E+0	1.496714E+0	1.464245E+0	1.460862E+0	1.452534E+0	1.513687E+0	1.480937E+0	1.519573E+0	1.538623E+0	1.493922E+0	1.470812E+0	1.527923E+0	1.466652E+0	1.475906E+0	1.417037E+0	1.460344E+0	1.437182E+0	1.442365E+0	1.414610E+0	1.484735E+0	1.519028E+0	1.431512E+0	1.566534E+0	1.457235E+0	1.480814E+0	1.467238E+0	1.482356E+0	1.479247E+0	1.512391E+0	1.507569E+0	1.422452E+0	1.471692E+0	1.458817E+0	1.452128E+0	1.472533E+0	1.404767E+0	1.477872E+0	1.564581E+0
5.417700E+2	1.412124E+0	1.296441E+0	1.283731E+0	1.530658E+0	1.366381E+0	1.376686E+0	1.327129E+0	1.350843E+0	1.369696E+0	1.326483E+0	1.338402E+0	1.314339E+0	1.343784E+0	1.366043E+0	1.346750E+0	1.398979E+0	1.368499E+0	1.328429E+0	1.330936E+0	1.350510E+0	1.337364E+0	1.331298E+0	1.341511E+0	1.327322E+0	1.334352E+0	1.353211E+0	1.368620E+0	1.314181E+0	1.356682E+0	1.381277E+0	1.330659E+0	1.343372E+0	1.296519E+0	1.342653E+0	1.305803E+0	1.351841E+0	1.321022E+0	1.309589E+0	1.354273E+0	1.323250E+0	1.381549E+0	1.336230E+0	1.333129E+0	1.396248E+0	1.323376E+0	1.355861E+0	1.368867E+0	1.330434E+0	1.326869E+0	1.366043E+0	1.348909E+0	1.409695E+0	1.312388E+0	1.328489E+0	1.338546E+0	1.317677E+0	1.379710E+0	1.316766E+0	1.340939E+0	1.335577E+0	1.336912E+0	1.352248E+0	1.303792E+0	1.361560E+0	1.329135E+0	1.360837E+0	1.331083E+0	1.321151E+0	1.357697E+0	1.357342E+0	1.332159E+0	1.333213E+0	1.378343E+0	1.338033E+0	1.288328E+0	1.349571E+0	1.283425E+0	1.349278E+0	1.359535E+0	1.343834E+0	1.265214E+0	1.394063E+0	1.303393E+0	1.312649E+0	1.334265E+0	1.301241E+0	1.321695E+0	1.330187E+0	1.308295E+0	1.334397E+0	1.387306E+0	1.316648E+0	1.401425E+0	1.354765E+0	1.354921E+0	1.344739E+0	1.359729E+0	1.323360E+0	1.378953E+0	1.360272E+0	1.366337E+0	1.311845E+0	1.315600E+0	1.319182E+0	1.331822E+0	1.370786E+0	1.295965E+0	1.308588E+0	1.318330E+0	1.311918E+0	1.389125E+0	1.364361E+0	1.334908E+0	1.337590E+0	1.359905E+0	1.301032E+0	1.352968E+0	1.337671E+0	1.308746E+0	1.333895E+0	1.324776E+0	1.311271E+0	1.285440E+0	1.410376E+0	1.339752E+0	1.338023E+0	1.339530E+0	1.370371E+0	1.361628E+0	1.315989E+0	1.251044E+0	1.353461E+0	1.313925E+0	1.343414E+0	1.349263E+0	1.366454E+0	1.352670E+0	1.286313E+0	1.358208E+0	1.409939E+0	1.369202E+0	1.349317E+0	1.317414E+0	1.358903E+0	1.339494E+0	1.307069E+0	1.341300E+0	1.250685E+0	1.328318E+0	1.355937E+0	1.331485E+0	1.346715E+0	1.337561E+0	1.355335E+0	1.356085E+0	1.304540E+0	1.340975E+0	1.304318E+0	1.333224E+0	1.332627E+0	1.289826E+0	1.329212E+0	1.393202E+0	1.378262E+0	1.330735E+0	1.264482E+0	1.305762E+0	1.363789E+0	1.307375E+0	1.399331E+0
5.420160E+2	1.237101E+0	1.170792E+0	1.222625E+0	1.341104E+0	1.179098E+0	1.197516E+0	1.180067E+0	1.241352E+0	1.232412E+0	1.196030E+0	1.225199E+0	1.211025E+0	1.159079E+0	1.208443E+0	1.172847E+0	1.184572E+0	1.184817E+0	1.224392E+0	1.207129E+0	1.148160E+0	1.184665E+0	1.175001E+0	1.178889E+0	1.157735E+0	1.164703E+0	1.163334E+0	1.206106E+0	1.134829E+0	1.196814E+0	1.143911E+0	1.218471E+0	1.179809E+0	1.244036E+0	1.197794E+0	1.193288E+0	1.173360E+0	1.235843E+0	1.183212E+0	1.176871E+0	1.180165E+0	1.215716E+0	1.186485E+0	1.188503E+0	1.227151E+0	1.170594E+0	1.223840E+0	1.201800E+0	1.242322E+0	1.190137E+0	1.256024E+0	1.224610E+0	1.260375E+0	1.200275E+0	1.182399E+0	1.211099E+0	1.185740E+0	1.219756E+0	1.177776E+0	1.167572E+0	1.234882E+0	1.192888E+0	1.213986E+0	1.168236E+0	1.189545E+0	1.159225E+0	1.178306E+0	1.183491E+0	1.171908E+0	1.257789E+0	1.172762E+0	1.172901E+0	1.192719E+0	1.183343E+0	1.134862E+0	1.124960E+0	1.196110E+0	1.143225E+0	1.171209E+0	1.182918E+0	1.219046E+0	1.207727E+0	1.257698E+0	1.211373E+0	1.212830E+0	1.217169E+0	1.159727E+0	1.229827E+0	1.169462E+0	1.152306E+0	1.173880E+0	1.206681E+0	1.241019E+0	1.245010E+0	1.201284E+0	1.187908E+0	1.232850E+0	1.219670E+0	1.261273E+0	1.202262E+0	1.174477E+0	1.171241E+0	1.184198E+0	1.130869E+0	1.161213E+0	1.164227E+0	1.188198E+0	1.233031E+0	1.186621E+0	1.230855E+0	1.172046E+0	1.150392E+0	1.192653E+0	1.180257E+0	1.215152E+0	1.178013E+0	1.142302E+0	1.199177E+0	1.161957E+0	1.175579E+0	1.212313E+0	1.193119E+0	1.198396E+0	1.189947E+0	1.200971E+0	1.152737E+0	1.175789E+0	1.170718E+0	1.176365E+0	1.174922E+0	1.212318E+0	1.212407E+0	1.219961E+0	1.170419E+0	1.178865E+0	1.204828E+0	1.158745E+0	1.184021E+0	1.178044E+0	1.151868E+0	1.255941E+0	1.162599E+0	1.193162E+0	1.156824E+0	1.229894E+0	1.183910E+0	1.171546E+0	1.196351E+0	1.195189E+0	1.188344E+0	1.196764E+0	1.181760E+0	1.214139E+0	1.186226E+0	1.158092E+0	1.208863E+0	1.212533E+0	1.171460E+0	1.209695E+0	1.203670E+0	1.255078E+0	1.203678E+0	1.197891E+0	1.143604E+0	1.208218E+0	1.217373E+0	1.157007E+0	1.218530E+0	1.243829E+0	1.200935E+0	1.187947E+0
5.422670E+2	9.574765E-1	9.410158E-1	9.266796E-1	1.039260E+0	9.529392E-1	1.001710E+0	9.643266E-1	9.448225E-1	9.603022E-1	9.674341E-1	9.698905E-1	9.632858E-1	9.546835E-1	9.528739E-1	9.586460E-1	9.827304E-1	9.677923E-1	9.437135E-1	9.658509E-1	9.291349E-1	9.990744E-1	9.334734E-1	9.488898E-1	9.392215E-1	9.898405E-1	9.647262E-1	9.784511E-1	9.644177E-1	9.348101E-1	9.884570E-1	9.514305E-1	9.598206E-1	9.826652E-1	1.006932E+0	9.028700E-1	9.413911E-1	1.035204E+0	9.741160E-1	9.824590E-1	9.844358E-1	9.538531E-1	9.633705E-1	9.602560E-1	9.893015E-1	9.688158E-1	9.471838E-1	9.657589E-1	9.696976E-1	9.707565E-1	9.726977E-1	9.857199E-1	1.000474E+0	9.736407E-1	9.111467E-1	9.502059E-1	9.245333E-1	9.738610E-1	9.578438E-1	9.203535E-1	9.695943E-1	9.626441E-1	1.008226E+0	9.731341E-1	9.543928E-1	9.625836E-1	9.395288E-1	9.756338E-1	9.823825E-1	9.574888E-1	9.559087E-1	9.790572E-1	9.680986E-1	9.664954E-1	9.469096E-1	9.505731E-1	9.973854E-1	9.771941E-1	9.889627E-1	9.443819E-1	9.587938E-1	8.983262E-1	9.978884E-1	9.513927E-1	9.604343E-1	9.540331E-1	9.248822E-1	9.394985E-1	9.393490E-1	9.608023E-1	9.675871E-1	1.017878E+0	9.803016E-1	9.755590E-1	9.943854E-1	9.842899E-1	9.573703E-1	9.902381E-1	9.557083E-1	9.679255E-1	9.833867E-1	9.809287E-1	9.610845E-1	9.781007E-1	9.393640E-1	9.212176E-1	9.396478E-1	9.627220E-1	9.859818E-1	9.755692E-1	9.833392E-1	9.478800E-1	9.846514E-1	9.668896E-1	9.403602E-1	9.278253E-1	9.714597E-1	9.554228E-1	9.937870E-1	9.511664E-1	9.801434E-1	9.662392E-1	9.475115E-1	9.564293E-1	9.821925E-1	9.654052E-1	9.635700E-1	9.561000E-1	9.854249E-1	9.475032E-1	9.098895E-1	9.701785E-1	9.730653E-1	9.439127E-1	9.703524E-1	9.705326E-1	9.478250E-1	9.955638E-1	1.017942E+0	9.793083E-1	9.660197E-1	9.794027E-1	9.595537E-1	9.726311E-1	9.556729E-1	9.402221E-1	9.518662E-1	9.756068E-1	9.547618E-1	9.610089E-1	9.567423E-1	9.564792E-1	9.355110E-1	9.944694E-1	9.164772E-1	9.629497E-1	9.636323E-1	9.369033E-1	1.012486E+0	9.300722E-1	9.428051E-1	9.660783E-1	9.726612E-1	9.617090E-1	1.005950E+0	9.635637E-1	9.564780E-1	9.940561E-1	9.877638E-1	1.061748E+0	1.021497E+0
5.425140E+2	9.052941E-1	8.833518E-1	9.072389E-1	8.773535E-1	9.284703E-1	9.229135E-1	8.769387E-1	9.468299E-1	9.379660E-1	8.929398E-1	9.604314E-1	9.330054E-1	9.314798E-1	9.328475E-1	9.359242E-1	9.173360E-1	9.236409E-1	9.091744E-1	9.365239E-1	8.935329E-1	9.262612E-1	8.956140E-1	9.143871E-1	9.243682E-1	9.822023E-1	9.336089E-1	9.226233E-1	9.358298E-1	9.157822E-1	9.655379E-1	9.329559E-1	9.317954E-1	9.363994E-1	9.059225E-1	9.421634E-1	8.268106E-1	9.377345E-1	9.015022E-1	9.127096E-1	9.738252E-1	9.428297E-1	9.203837E-1	9.350398E-1	8.802098E-1	9.191210E-1	9.433754E-1	9.318374E-1	9.762138E-1	9.435768E-1	9.523910E-1	9.619691E-1	9.477513E-1	9.512152E-1	9.507336E-1	8.873445E-1	9.206402E-1	9.125246E-1	9.118496E-1	9.210124E-1	9.183210E-1	9.524244E-1	9.436119E-1	8.866108E-1	9.486426E-1	9.000127E-1	9.047114E-1	9.296103E-1	9.075868E-1	9.592137E-1	9.312413E-1	8.751264E-1	9.440071E-1	9.406796E-1	9.100487E-1	9.520662E-1	9.268027E-1	9.343305E-1	9.095587E-1	9.320454E-1	9.441083E-1	9.272025E-1	9.398862E-1	9.483347E-1	9.439331E-1	9.563134E-1	9.353364E-1	9.274626E-1	9.492948E-1	9.877691E-1	9.503356E-1	8.868800E-1	9.071534E-1	9.481854E-1	9.540996E-1	9.317952E-1	8.969182E-1	9.251565E-1	9.480629E-1	9.006696E-1	9.257609E-1	9.025068E-1	9.310749E-1	8.799847E-1	8.981846E-1	8.928587E-1	9.270373E-1	8.942044E-1	9.302256E-1	8.943281E-1	9.069125E-1	9.178427E-1	9.261881E-1	9.274795E-1	9.626195E-1	8.974666E-1	9.180419E-1	9.559358E-1	9.151699E-1	8.905210E-1	9.558348E-1	9.171954E-1	9.196857E-1	9.402479E-1	9.454843E-1	9.256255E-1	9.006639E-1	9.665958E-1	9.473396E-1	9.428027E-1	1.000891E+0	9.207177E-1	8.838281E-1	9.247133E-1	8.856418E-1	9.380920E-1	9.623230E-1	9.634437E-1	9.756328E-1	9.078131E-1	9.040308E-1	9.270863E-1	9.488082E-1	9.740896E-1	9.761417E-1	9.017974E-1	9.803738E-1	8.825877E-1	9.007095E-1	9.432218E-1	9.293860E-1	9.460504E-1	9.455525E-1	9.431539E-1	9.254923E-1	9.510950E-1	9.408938E-1	9.299840E-1	9.384364E-1	9.388252E-1	9.367136E-1	8.912498E-1	9.673045E-1	9.294151E-1	9.706041E-1	9.759171E-1	9.051189E-1	9.427655E-1	9.220548E-1	9.890018E-1	1.046472E+0
5.427650E+2	9.403759E-1	9.500045E-1	8.860463E-1	9.243831E-1	9.495866E-1	9.728727E-1	9.154325E-1	9.484218E-1	9.447894E-1	8.950533E-1	9.561880E-1	9.155727E-1	9.506696E-1	8.891496E-1	9.268080E-1	9.714023E-1	9.243281E-1	9.002368E-1	9.903520E-1	9.225531E-1	9.469391E-1	9.265352E-1	9.494140E-1	8.912657E-1	1.001533E+0	9.594156E-1	1.002699E+0	9.351457E-1	9.616798E-1	9.695365E-1	9.669804E-1	9.376607E-1	9.478375E-1	9.140960E-1	9.538584E-1	9.446143E-1	8.851199E-1	8.965649E-1	9.542857E-1	9.199526E-1	9.370002E-1	9.423364E-1	9.567368E-1	8.829862E-1	9.319977E-1	9.319852E-1	9.124750E-1	9.229969E-1	9.514047E-1	9.584288E-1	9.787031E-1	9.366694E-1	9.653092E-1	9.234056E-1	9.407771E-1	9.130017E-1	9.470780E-1	9.203272E-1	9.204339E-1	9.254557E-1	9.449847E-1	9.328408E-1	9.200653E-1	9.666983E-1	9.123037E-1	9.323682E-1	9.308130E-1	9.247417E-1	9.482284E-1	9.382829E-1	9.442174E-1	9.041889E-1	9.444977E-1	9.230773E-1	8.859077E-1	9.431120E-1	8.996204E-1	9.200356E-1	9.683012E-1	9.206651E-1	9.130495E-1	9.850291E-1	1.007547E+0	9.484285E-1	8.999945E-1	8.838469E-1	9.185910E-1	9.373553E-1	8.885637E-1	9.438342E-1	9.462074E-1	9.328263E-1	9.887382E-1	9.283709E-1	9.584249E-1	9.444060E-1	9.671304E-1	9.398160E-1	9.928842E-1	9.462214E-1	9.508210E-1	9.110836E-1	9.168150E-1	9.251248E-1	8.905896E-1	9.372022E-1	9.674433E-1	9.092896E-1	9.244844E-1	9.132906E-1	9.228445E-1	9.229701E-1	9.527117E-1	9.399244E-1	8.758651E-1	9.233012E-1	9.106513E-1	9.273122E-1	9.323125E-1	8.873068E-1	9.212943E-1	9.575379E-1	9.271055E-1	9.542690E-1	8.958894E-1	9.509324E-1	9.155170E-1	9.776467E-1	9.065602E-1	9.233449E-1	9.055820E-1	9.396525E-1	9.120133E-1	9.338039E-1	8.943527E-1	9.225024E-1	9.662867E-1	9.553841E-1	8.918732E-1	9.942250E-1	9.321417E-1	9.939768E-1	9.659153E-1	9.626095E-1	9.318352E-1	9.319858E-1	9.124287E-1	9.113027E-1	9.487657E-1	9.297506E-1	9.263863E-1	9.582884E-1	9.312042E-1	9.090990E-1	9.200683E-1	9.500358E-1	9.361433E-1	9.468706E-1	9.680003E-1	9.710928E-1	9.480526E-1	9.094015E-1	9.533957E-1	9.668348E-1	9.273600E-1	8.823187E-1	9.500152E-1	8.997705E-1	8.354782E-1	1.051843E+0
5.430120E+2	9.765501E-1	9.765694E-1	9.349122E-1	9.562604E-1	9.851978E-1	1.000300E+0	9.847896E-1	1.002264E+0	9.678628E-1	9.662684E-1	9.621193E-1	9.717168E-1	9.772559E-1	9.742252E-1	1.005449E+0	9.797367E-1	1.020317E+0	9.640776E-1	9.902399E-1	9.968729E-1	9.576896E-1	9.656495E-1	9.593091E-1	1.011211E+0	1.029893E+0	1.009237E+0	1.020842E+0	1.005929E+0	9.889390E-1	9.854482E-1	9.640622E-1	1.033001E+0	1.040477E+0	9.770761E-1	9.774291E-1	9.886073E-1	9.838215E-1	9.553656E-1	9.955357E-1	9.787196E-1	1.005510E+0	9.696331E-1	9.680029E-1	1.050510E+0	9.150794E-1	1.012143E+0	1.005073E+0	9.829167E-1	1.007469E+0	9.864488E-1	9.903649E-1	1.034834E+0	9.865906E-1	9.549998E-1	9.891480E-1	1.009750E+0	9.692319E-1	9.664612E-1	1.008340E+0	1.040820E+0	9.797337E-1	9.937579E-1	9.619287E-1	1.031345E+0	9.653198E-1	1.008820E+0	9.678831E-1	1.024564E+0	9.591268E-1	9.887655E-1	9.975557E-1	1.002872E+0	1.012252E+0	9.337490E-1	1.002663E+0	9.896246E-1	9.711777E-1	1.022248E+0	1.015873E+0	1.012948E+0	9.702855E-1	1.028609E+0	9.403749E-1	9.395350E-1	9.918564E-1	9.533774E-1	9.901734E-1	9.944549E-1	9.991079E-1	9.995126E-1	1.015051E+0	9.828399E-1	1.011556E+0	9.349449E-1	9.684407E-1	9.854044E-1	9.759291E-1	9.905570E-1	9.865206E-1	9.690533E-1	1.019052E+0	9.828666E-1	9.980717E-1	9.851237E-1	9.221438E-1	9.888609E-1	1.008356E+0	9.805671E-1	9.861828E-1	9.867327E-1	9.801599E-1	1.028700E+0	1.039683E+0	1.026379E+0	9.594135E-1	9.532923E-1	1.002515E+0	9.929245E-1	9.964610E-1	9.982147E-1	9.825101E-1	1.012761E+0	9.717814E-1	1.000751E+0	9.713236E-1	1.042541E+0	9.642887E-1	9.576509E-1	1.038151E+0	9.675429E-1	9.349829E-1	9.790919E-1	9.907399E-1	9.702173E-1	9.807254E-1	9.990516E-1	9.867514E-1	1.007084E+0	9.766385E-1	1.008705E+0	9.872468E-1	9.993330E-1	9.751550E-1	9.941294E-1	9.821553E-1	1.013947E+0	1.025308E+0	9.721716E-1	1.012613E+0	9.975474E-1	9.836634E-1	9.743683E-1	1.011325E+0	1.006439E+0	9.792542E-1	9.922039E-1	9.918763E-1	1.056090E+0	9.731796E-1	1.028380E+0	9.581465E-1	1.011918E+0	1.008220E+0	9.816552E-1	9.601747E-1	9.669650E-1	9.613724E-1	1.015019E+0	9.513821E-1	9.673746E-1
5.432800E+2	1.176207E+0	1.079461E+0	1.102795E+0	1.165147E+0	1.112953E+0	1.129920E+0	1.092627E+0	1.109876E+0	1.129081E+0	1.093893E+0	1.138904E+0	1.107249E+0	1.123455E+0	1.092214E+0	1.124818E+0	1.160277E+0	1.085460E+0	1.099293E+0	1.113243E+0	1.107705E+0	1.093436E+0	1.098651E+0	1.103014E+0	1.148078E+0	1.155346E+0	1.104391E+0	1.125143E+0	1.153802E+0	1.098494E+0	1.113428E+0	1.087078E+0	1.114299E+0	1.134490E+0	1.106802E+0	1.132593E+0	1.099963E+0	1.136186E+0	1.132763E+0	1.110175E+0	1.145481E+0	1.155781E+0	1.152132E+0	1.111968E+0	1.135533E+0	1.138465E+0	1.138791E+0	1.135021E+0	1.133123E+0	1.098330E+0	1.102596E+0	1.096298E+0	1.157474E+0	1.118290E+0	1.104667E+0	1.147168E+0	1.074304E+0	1.150601E+0	1.140596E+0	1.145104E+0	1.151280E+0	1.146750E+0	1.147778E+0	1.093905E+0	1.135504E+0	1.085477E+0	1.120937E+0	1.115904E+0	1.137886E+0	1.122733E+0	1.125542E+0	1.121470E+0	1.114679E+0	1.081835E+0	1.108692E+0	1.118383E+0	1.108459E+0	1.087005E+0	1.143439E+0	1.162355E+0	1.122547E+0	1.075261E+0	1.116038E+0	1.119243E+0	1.099483E+0	1.114097E+0	1.129474E+0	1.101640E+0	1.094449E+0	1.139354E+0	1.117564E+0	1.125501E+0	1.099397E+0	1.156794E+0	1.149313E+0	1.146088E+0	1.132915E+0	1.152485E+0	1.106959E+0	1.047209E+0	1.140688E+0	1.173380E+0	1.113826E+0	1.119364E+0	1.127338E+0	1.142256E+0	1.130210E+0	1.155179E+0	1.084954E+0	1.091549E+0	1.116795E+0	1.142548E+0	1.151695E+0	1.144904E+0	1.129417E+0	1.076398E+0	1.164806E+0	1.129356E+0	1.080190E+0	1.111047E+0	1.145397E+0	1.109115E+0	1.163550E+0	1.096555E+0	1.117255E+0	1.088264E+0	1.096396E+0	1.128829E+0	1.151402E+0	1.115275E+0	1.110455E+0	1.101404E+0	1.110722E+0	1.144372E+0	1.107305E+0	1.121678E+0	1.120612E+0	1.104242E+0	1.099724E+0	1.086429E+0	1.160496E+0	1.104728E+0	1.099525E+0	1.151356E+0	1.157643E+0	1.084720E+0	1.078330E+0	1.106249E+0	1.136572E+0	1.087421E+0	1.124486E+0	1.123709E+0	1.082997E+0	1.104289E+0	1.135260E+0	1.138046E+0	1.116493E+0	1.070604E+0	1.140622E+0	1.144021E+0	1.096873E+0	1.095304E+0	1.136026E+0	1.177132E+0	1.117260E+0	1.116493E+0	1.094789E+0	1.139844E+0	1.139973E+0	1.148501E+0	1.173763E+0
5.435270E+2	1.339593E+0	1.260479E+0	1.269922E+0	1.433133E+0	1.301929E+0	1.285366E+0	1.301049E+0	1.253673E+0	1.276660E+0	1.199697E+0	1.268801E+0	1.285300E+0	1.324864E+0	1.276503E+0	1.291329E+0	1.318472E+0	1.285045E+0	1.287676E+0	1.324204E+0	1.248449E+0	1.273581E+0	1.237648E+0	1.257848E+0	1.338668E+0	1.350413E+0	1.252152E+0	1.337518E+0	1.296403E+0	1.282499E+0	1.307190E+0	1.303297E+0	1.243015E+0	1.270648E+0	1.272103E+0	1.263393E+0	1.286286E+0	1.265450E+0	1.257562E+0	1.235089E+0	1.227875E+0	1.280454E+0	1.276225E+0	1.279914E+0	1.319951E+0	1.286941E+0	1.265011E+0	1.335916E+0	1.362658E+0	1.308209E+0	1.246912E+0	1.273828E+0	1.276323E+0	1.306491E+0	1.274253E+0	1.311457E+0	1.282738E+0	1.262890E+0	1.248029E+0	1.256731E+0	1.302389E+0	1.280792E+0	1.242578E+0	1.280554E+0	1.319392E+0	1.277963E+0	1.276691E+0	1.295186E+0	1.281314E+0	1.338788E+0	1.256336E+0	1.264700E+0	1.315881E+0	1.283573E+0	1.217224E+0	1.299110E+0	1.278902E+0	1.209907E+0	1.301514E+0	1.296075E+0	1.297356E+0	1.240903E+0	1.285068E+0	1.280549E+0	1.258594E+0	1.265596E+0	1.259294E+0	1.232532E+0	1.247585E+0	1.282410E+0	1.262368E+0	1.308002E+0	1.295225E+0	1.333613E+0	1.270489E+0	1.265296E+0	1.271181E+0	1.251421E+0	1.296455E+0	1.289376E+0	1.287381E+0	1.288922E+0	1.277645E+0	1.325213E+0	1.261250E+0	1.232690E+0	1.236604E+0	1.339645E+0	1.314203E+0	1.266183E+0	1.319076E+0	1.285443E+0	1.275283E+0	1.232251E+0	1.241219E+0	1.294527E+0	1.294524E+0	1.234784E+0	1.252971E+0	1.287710E+0	1.293972E+0	1.291750E+0	1.331832E+0	1.290291E+0	1.268612E+0	1.301651E+0	1.268160E+0	1.311065E+0	1.256346E+0	1.295999E+0	1.234128E+0	1.194812E+0	1.302397E+0	1.281302E+0	1.235558E+0	1.235769E+0	1.262587E+0	1.303148E+0	1.227492E+0	1.264783E+0	1.321940E+0	1.307852E+0	1.291376E+0	1.309016E+0	1.285487E+0	1.274146E+0	1.285389E+0	1.239462E+0	1.296724E+0	1.283469E+0	1.277853E+0	1.281527E+0	1.296684E+0	1.256664E+0	1.242648E+0	1.318864E+0	1.363094E+0	1.214414E+0	1.284872E+0	1.290877E+0	1.303501E+0	1.274124E+0	1.254608E+0	1.241299E+0	1.272632E+0	1.270031E+0	1.215983E+0	1.258270E+0	1.288500E+0	1.303820E+0	1.328894E+0
5.437640E+2	1.414982E+0	1.348194E+0	1.364564E+0	1.530301E+0	1.391210E+0	1.418316E+0	1.376347E+0	1.389733E+0	1.348333E+0	1.400116E+0	1.422356E+0	1.393799E+0	1.397162E+0	1.338913E+0	1.388307E+0	1.410666E+0	1.419874E+0	1.331312E+0	1.424152E+0	1.416702E+0	1.395612E+0	1.344955E+0	1.382129E+0	1.400984E+0	1.398635E+0	1.386958E+0	1.417486E+0	1.396186E+0	1.357936E+0	1.348162E+0	1.410230E+0	1.368554E+0	1.423094E+0	1.382413E+0	1.397952E+0	1.363043E+0	1.401249E+0	1.353657E+0	1.382742E+0	1.381058E+0	1.424697E+0	1.375164E+0	1.354652E+0	1.423063E+0	1.362083E+0	1.385922E+0	1.407094E+0	1.424616E+0	1.378736E+0	1.446118E+0	1.407327E+0	1.438741E+0	1.377945E+0	1.389519E+0	1.426657E+0	1.348854E+0	1.346122E+0	1.334296E+0	1.373971E+0	1.442515E+0	1.390839E+0	1.359891E+0	1.396584E+0	1.373572E+0	1.344469E+0	1.380465E+0	1.346557E+0	1.393452E+0	1.391866E+0	1.386073E+0	1.355698E+0	1.398245E+0	1.454218E+0	1.341275E+0	1.388135E+0	1.380406E+0	1.362379E+0	1.357298E+0	1.383071E+0	1.387753E+0	1.347922E+0	1.396661E+0	1.365799E+0	1.379000E+0	1.380588E+0	1.374411E+0	1.400418E+0	1.384579E+0	1.415411E+0	1.317348E+0	1.419937E+0	1.348833E+0	1.398987E+0	1.368630E+0	1.378789E+0	1.378805E+0	1.330076E+0	1.349038E+0	1.409019E+0	1.335854E+0	1.387211E+0	1.341274E+0	1.398709E+0	1.389815E+0	1.344668E+0	1.380391E+0	1.412256E+0	1.332011E+0	1.378929E+0	1.383199E+0	1.399905E+0	1.379852E+0	1.371840E+0	1.343357E+0	1.347592E+0	1.409930E+0	1.362012E+0	1.317123E+0	1.326557E+0	1.385803E+0	1.396268E+0	1.339225E+0	1.353933E+0	1.425716E+0	1.345702E+0	1.409287E+0	1.370979E+0	1.402454E+0	1.313679E+0	1.355058E+0	1.362277E+0	1.355937E+0	1.369822E+0	1.348341E+0	1.313798E+0	1.329459E+0	1.367755E+0	1.404833E+0	1.375246E+0	1.400659E+0	1.361532E+0	1.375524E+0	1.393776E+0	1.402572E+0	1.377309E+0	1.432554E+0	1.329887E+0	1.322557E+0	1.379438E+0	1.342135E+0	1.365006E+0	1.394490E+0	1.357391E+0	1.332404E+0	1.416760E+0	1.343958E+0	1.349940E+0	1.373945E+0	1.417940E+0	1.377315E+0	1.334688E+0	1.389432E+0	1.400271E+0	1.415334E+0	1.420517E+0	1.322123E+0	1.346047E+0	1.376499E+0	1.405808E+0	1.386981E+0
5.440170E+2	1.515322E+0	1.379241E+0	1.410113E+0	1.525289E+0	1.505523E+0	1.393552E+0	1.411680E+0	1.463447E+0	1.437642E+0	1.439584E+0	1.441010E+0	1.459098E+0	1.425593E+0	1.432780E+0	1.440206E+0	1.500315E+0	1.420602E+0	1.382231E+0	1.458039E+0	1.440780E+0	1.412349E+0	1.344629E+0	1.425383E+0	1.454705E+0	1.456031E+0	1.465373E+0	1.451730E+0	1.407741E+0	1.373968E+0	1.393094E+0	1.471725E+0	1.382333E+0	1.425243E+0	1.426709E+0	1.431465E+0	1.436434E+0	1.432934E+0	1.436004E+0	1.423366E+0	1.403152E+0	1.465355E+0	1.387344E+0	1.464318E+0	1.469497E+0	1.380198E+0	1.416156E+0	1.392066E+0	1.419579E+0	1.438660E+0	1.421283E+0	1.442603E+0	1.415787E+0	1.433835E+0	1.404599E+0	1.418857E+0	1.454363E+0	1.471765E+0	1.376201E+0	1.478742E+0	1.381333E+0	1.400410E+0	1.419376E+0	1.432650E+0	1.475131E+0	1.396469E+0	1.411600E+0	1.413076E+0	1.440723E+0	1.449698E+0	1.356567E+0	1.423952E+0	1.456446E+0	1.363527E+0	1.348774E+0	1.338300E+0	1.459807E+0	1.422441E+0	1.413527E+0	1.438805E+0	1.404453E+0	1.360121E+0	1.432259E+0	1.426733E+0	1.424157E+0	1.442135E+0	1.379966E+0	1.460850E+0	1.442291E+0	1.407763E+0	1.379005E+0	1.412108E+0	1.385796E+0	1.432969E+0	1.375227E+0	1.434064E+0	1.409856E+0	1.415850E+0	1.436529E+0	1.410994E+0	1.346012E+0	1.471056E+0	1.378484E+0	1.386187E+0	1.418499E+0	1.416485E+0	1.388969E+0	1.429396E+0	1.405373E+0	1.415368E+0	1.392435E+0	1.430066E+0	1.388179E+0	1.387841E+0	1.330857E+0	1.398783E+0	1.414852E+0	1.411303E+0	1.397817E+0	1.383907E+0	1.422526E+0	1.447386E+0	1.391866E+0	1.442344E+0	1.398138E+0	1.445363E+0	1.398794E+0	1.434294E+0	1.437137E+0	1.420641E+0	1.357539E+0	1.341683E+0	1.394823E+0	1.434253E+0	1.335096E+0	1.416356E+0	1.365906E+0	1.383929E+0	1.415568E+0	1.412272E+0	1.411816E+0	1.442552E+0	1.428207E+0	1.406182E+0	1.423686E+0	1.365810E+0	1.378366E+0	1.447289E+0	1.426299E+0	1.407596E+0	1.398903E+0	1.391356E+0	1.411671E+0	1.426847E+0	1.399922E+0	1.394409E+0	1.393708E+0	1.376969E+0	1.366604E+0	1.454146E+0	1.410145E+0	1.404277E+0	1.402588E+0	1.406407E+0	1.433786E+0	1.424723E+0	1.353450E+0	1.399677E+0	1.390363E+0	1.400190E+0	1.437304E+0
5.442750E+2	1.628569E+0	1.562763E+0	1.545573E+0	1.681574E+0	1.554388E+0	1.584448E+0	1.560093E+0	1.561914E+0	1.522565E+0	1.538175E+0	1.548581E+0	1.496471E+0	1.577361E+0	1.550154E+0	1.541161E+0	1.606669E+0	1.548561E+0	1.562149E+0	1.577837E+0	1.580966E+0	1.521223E+0	1.470676E+0	1.526525E+0	1.575301E+0	1.517032E+0	1.484522E+0	1.522403E+0	1.496177E+0	1.550775E+0	1.556960E+0	1.502961E+0	1.538939E+0	1.562026E+0	1.527661E+0	1.528161E+0	1.554672E+0	1.561407E+0	1.514683E+0	1.503058E+0	1.537237E+0	1.587391E+0	1.523505E+0	1.513716E+0	1.526610E+0	1.498925E+0	1.474854E+0	1.566969E+0	1.548011E+0	1.518811E+0	1.540479E+0	1.631799E+0	1.579525E+0	1.565938E+0	1.501557E+0	1.530690E+0	1.493507E+0	1.541280E+0	1.480701E+0	1.529490E+0	1.557922E+0	1.548909E+0	1.484456E+0	1.522169E+0	1.543294E+0	1.487239E+0	1.488244E+0	1.480749E+0	1.536784E+0	1.563885E+0	1.475448E+0	1.485966E+0	1.526869E+0	1.573836E+0	1.474979E+0	1.467918E+0	1.533844E+0	1.495237E+0	1.515852E+0	1.488331E+0	1.498540E+0	1.479634E+0	1.567477E+0	1.457749E+0	1.548955E+0	1.501210E+0	1.495930E+0	1.529458E+0	1.530995E+0	1.524489E+0	1.473410E+0	1.590865E+0	1.519388E+0	1.516862E+0	1.524448E+0	1.571022E+0	1.564607E+0	1.480372E+0	1.490285E+0	1.520076E+0	1.480603E+0	1.506228E+0	1.484651E+0	1.521977E+0	1.542827E+0	1.462477E+0	1.511408E+0	1.552442E+0	1.554886E+0	1.474037E+0	1.452643E+0	1.543365E+0	1.549686E+0	1.541502E+0	1.535458E+0	1.489492E+0	1.493285E+0	1.531412E+0	1.487261E+0	1.527823E+0	1.544437E+0	1.534771E+0	1.502687E+0	1.463231E+0	1.471146E+0	1.538363E+0	1.473580E+0	1.483210E+0	1.522755E+0	1.556793E+0	1.455396E+0	1.488497E+0	1.523362E+0	1.492660E+0	1.531875E+0	1.503145E+0	1.504983E+0	1.479216E+0	1.487704E+0	1.471838E+0	1.554510E+0	1.519998E+0	1.474228E+0	1.510119E+0	1.523218E+0	1.537698E+0	1.492328E+0	1.477055E+0	1.497584E+0	1.517692E+0	1.516218E+0	1.444521E+0	1.541472E+0	1.502004E+0	1.435828E+0	1.532640E+0	1.508091E+0	1.499162E+0	1.490671E+0	1.506694E+0	1.521710E+0	1.496473E+0	1.553501E+0	1.463500E+0	1.482626E+0	1.497425E+0	1.469851E+0	1.521025E+0	1.545139E+0	1.532038E+0	1.580341E+0
5.445130E+2	1.645842E+0	1.493806E+0	1.527777E+0	1.712828E+0	1.584066E+0	1.535528E+0	1.580268E+0	1.569744E+0	1.603651E+0	1.502480E+0	1.559374E+0	1.577764E+0	1.546602E+0	1.580786E+0	1.554777E+0	1.636013E+0	1.573606E+0	1.526600E+0	1.548777E+0	1.512077E+0	1.530900E+0	1.521990E+0	1.518708E+0	1.563048E+0	1.523030E+0	1.509876E+0	1.532005E+0	1.517996E+0	1.516773E+0	1.595083E+0	1.568491E+0	1.532112E+0	1.606124E+0	1.557227E+0	1.498138E+0	1.545492E+0	1.525693E+0	1.509276E+0	1.560343E+0	1.532356E+0	1.552921E+0	1.529851E+0	1.547410E+0	1.579572E+0	1.530197E+0	1.524860E+0	1.514880E+0	1.506409E+0	1.558137E+0	1.561904E+0	1.521168E+0	1.602293E+0	1.585909E+0	1.505795E+0	1.544736E+0	1.583809E+0	1.574223E+0	1.533059E+0	1.515252E+0	1.504835E+0	1.556463E+0	1.530469E+0	1.481793E+0	1.507593E+0	1.564881E+0	1.500438E+0	1.536241E+0	1.564463E+0	1.571708E+0	1.559706E+0	1.615603E+0	1.534861E+0	1.550456E+0	1.491848E+0	1.447458E+0	1.584682E+0	1.511720E+0	1.501032E+0	1.563628E+0	1.569082E+0	1.472692E+0	1.525143E+0	1.503569E+0	1.569980E+0	1.573270E+0	1.482781E+0	1.573625E+0	1.497182E+0	1.560868E+0	1.490730E+0	1.532116E+0	1.541369E+0	1.534471E+0	1.522131E+0	1.560228E+0	1.519601E+0	1.573271E+0	1.494992E+0	1.542950E+0	1.517206E+0	1.543630E+0	1.537192E+0	1.557065E+0	1.564889E+0	1.499956E+0	1.503116E+0	1.574745E+0	1.595248E+0	1.483561E+0	1.525655E+0	1.514485E+0	1.575817E+0	1.531282E+0	1.533489E+0	1.501787E+0	1.514327E+0	1.529355E+0	1.526400E+0	1.529760E+0	1.478771E+0	1.518799E+0	1.542036E+0	1.506101E+0	1.566573E+0	1.552411E+0	1.494431E+0	1.549524E+0	1.478485E+0	1.502165E+0	1.476667E+0	1.505706E+0	1.527663E+0	1.556587E+0	1.522233E+0	1.492183E+0	1.516555E+0	1.474357E+0	1.527649E+0	1.558128E+0	1.557832E+0	1.543606E+0	1.519913E+0	1.512101E+0	1.544443E+0	1.499372E+0	1.523335E+0	1.436675E+0	1.492102E+0	1.512273E+0	1.537368E+0	1.572057E+0	1.530439E+0	1.510281E+0	1.479753E+0	1.531479E+0	1.497027E+0	1.529033E+0	1.521684E+0	1.566527E+0	1.534497E+0	1.557710E+0	1.564884E+0	1.460422E+0	1.538686E+0	1.472320E+0	1.476964E+0	1.541671E+0	1.548486E+0	1.503898E+0	1.644156E+0
5.447660E+2	1.560774E+0	1.563765E+0	1.496958E+0	1.622623E+0	1.578342E+0	1.552140E+0	1.496086E+0	1.538307E+0	1.549235E+0	1.491407E+0	1.568081E+0	1.522282E+0	1.481375E+0	1.495878E+0	1.531803E+0	1.545020E+0	1.559473E+0	1.463323E+0	1.533468E+0	1.561681E+0	1.578871E+0	1.491759E+0	1.515792E+0	1.539473E+0	1.533679E+0	1.489330E+0	1.550224E+0	1.544620E+0	1.483194E+0	1.478730E+0	1.500920E+0	1.508627E+0	1.512819E+0	1.586693E+0	1.513707E+0	1.477127E+0	1.491534E+0	1.508392E+0	1.536716E+0	1.455655E+0	1.543959E+0	1.490038E+0	1.521523E+0	1.549868E+0	1.481716E+0	1.511151E+0	1.530854E+0	1.560696E+0	1.532046E+0	1.481982E+0	1.483397E+0	1.546181E+0	1.525770E+0	1.474658E+0	1.587969E+0	1.481674E+0	1.560876E+0	1.490564E+0	1.532199E+0	1.473468E+0	1.539168E+0	1.536133E+0	1.522617E+0	1.513058E+0	1.488172E+0	1.490224E+0	1.531435E+0	1.532549E+0	1.504830E+0	1.468381E+0	1.505448E+0	1.502832E+0	1.552698E+0	1.456655E+0	1.471769E+0	1.552251E+0	1.535455E+0	1.514220E+0	1.506169E+0	1.491316E+0	1.448066E+0	1.529813E+0	1.538599E+0	1.491759E+0	1.518084E+0	1.474333E+0	1.555032E+0	1.545579E+0	1.488195E+0	1.463874E+0	1.552609E+0	1.502758E+0	1.535564E+0	1.488947E+0	1.533940E+0	1.549859E+0	1.499410E+0	1.512794E+0	1.473411E+0	1.521236E+0	1.525364E+0	1.503130E+0	1.485831E+0	1.447382E+0	1.486241E+0	1.469196E+0	1.547123E+0	1.509884E+0	1.500868E+0	1.463282E+0	1.503076E+0	1.503644E+0	1.566853E+0	1.453162E+0	1.494702E+0	1.566721E+0	1.549931E+0	1.516263E+0	1.552882E+0	1.514469E+0	1.503783E+0	1.505896E+0	1.475246E+0	1.488773E+0	1.470306E+0	1.471411E+0	1.497840E+0	1.515286E+0	1.545933E+0	1.482010E+0	1.433910E+0	1.512310E+0	1.542960E+0	1.448933E+0	1.530413E+0	1.485922E+0	1.504756E+0	1.509640E+0	1.441445E+0	1.581462E+0	1.514954E+0	1.515008E+0	1.518432E+0	1.507903E+0	1.534425E+0	1.434574E+0	1.462940E+0	1.489585E+0	1.497584E+0	1.465691E+0	1.483266E+0	1.486471E+0	1.527391E+0	1.447661E+0	1.453359E+0	1.491761E+0	1.426058E+0	1.455610E+0	1.523450E+0	1.537920E+0	1.455679E+0	1.449441E+0	1.499085E+0	1.495184E+0	1.494163E+0	1.430475E+0	1.501707E+0	1.467100E+0	1.594565E+0	1.412359E+0
5.450090E+2	1.490229E+0	1.433510E+0	1.432915E+0	1.467055E+0	1.421666E+0	1.437915E+0	1.414816E+0	1.434549E+0	1.486725E+0	1.439920E+0	1.452818E+0	1.468492E+0	1.440711E+0	1.439057E+0	1.470790E+0	1.452524E+0	1.448278E+0	1.400200E+0	1.417568E+0	1.445215E+0	1.454590E+0	1.408320E+0	1.398037E+0	1.512499E+0	1.396809E+0	1.334625E+0	1.478747E+0	1.458024E+0	1.387553E+0	1.455023E+0	1.437289E+0	1.424034E+0	1.462181E+0	1.378884E+0	1.435515E+0	1.445589E+0	1.448150E+0	1.383189E+0	1.386257E+0	1.467534E+0	1.473699E+0	1.397614E+0	1.460420E+0	1.500050E+0	1.401938E+0	1.410636E+0	1.484070E+0	1.454822E+0	1.385821E+0	1.458950E+0	1.448191E+0	1.489693E+0	1.406243E+0	1.420415E+0	1.428735E+0	1.404472E+0	1.507693E+0	1.400587E+0	1.429731E+0	1.388602E+0	1.433937E+0	1.419650E+0	1.475279E+0	1.444452E+0	1.407731E+0	1.357620E+0	1.404219E+0	1.445988E+0	1.472078E+0	1.478941E+0	1.432177E+0	1.397242E+0	1.403602E+0	1.423429E+0	1.404947E+0	1.425412E+0	1.422108E+0	1.447079E+0	1.478532E+0	1.451265E+0	1.388082E+0	1.428499E+0	1.445852E+0	1.443731E+0	1.411091E+0	1.451853E+0	1.441814E+0	1.392711E+0	1.389344E+0	1.375618E+0	1.465342E+0	1.475057E+0	1.418350E+0	1.453289E+0	1.491970E+0	1.456371E+0	1.421387E+0	1.457006E+0	1.400614E+0	1.388815E+0	1.444396E+0	1.394271E+0	1.430148E+0	1.368044E+0	1.423120E+0	1.395261E+0	1.472755E+0	1.453907E+0	1.439005E+0	1.426710E+0	1.454480E+0	1.427723E+0	1.425916E+0	1.423459E+0	1.370007E+0	1.483962E+0	1.427214E+0	1.412527E+0	1.387236E+0	1.427015E+0	1.421756E+0	1.473694E+0	1.414893E+0	1.482211E+0	1.353492E+0	1.388224E+0	1.431923E+0	1.483565E+0	1.454191E+0	1.428445E+0	1.418207E+0	1.430110E+0	1.424617E+0	1.384516E+0	1.394952E+0	1.405482E+0	1.407770E+0	1.394324E+0	1.403103E+0	1.421089E+0	1.409912E+0	1.425153E+0	1.443531E+0	1.418974E+0	1.414599E+0	1.417580E+0	1.410306E+0	1.390509E+0	1.391901E+0	1.432678E+0	1.445332E+0	1.403703E+0	1.450244E+0	1.418455E+0	1.432929E+0	1.436158E+0	1.390490E+0	1.420520E+0	1.415882E+0	1.463436E+0	1.415452E+0	1.492411E+0	1.425421E+0	1.446117E+0	1.438899E+0	1.394759E+0	1.424708E+0	1.443478E+0	1.468281E+0	1.461761E+0
5.452800E+2	1.445506E+0	1.393515E+0	1.325677E+0	1.549510E+0	1.425051E+0	1.414539E+0	1.405503E+0	1.404217E+0	1.385792E+0	1.380338E+0	1.404388E+0	1.413553E+0	1.402308E+0	1.406466E+0	1.380920E+0	1.434181E+0	1.444123E+0	1.420473E+0	1.418144E+0	1.401662E+0	1.410581E+0	1.355816E+0	1.406244E+0	1.429752E+0	1.427064E+0	1.367003E+0	1.384476E+0	1.395796E+0	1.351060E+0	1.354593E+0	1.419483E+0	1.457133E+0	1.381061E+0	1.403824E+0	1.405747E+0	1.321972E+0	1.446082E+0	1.331539E+0	1.368559E+0	1.410716E+0	1.412643E+0	1.348951E+0	1.387885E+0	1.437678E+0	1.340697E+0	1.335498E+0	1.406369E+0	1.396415E+0	1.380012E+0	1.375610E+0	1.420887E+0	1.445232E+0	1.383913E+0	1.374257E+0	1.391919E+0	1.328180E+0	1.369234E+0	1.348302E+0	1.374987E+0	1.423871E+0	1.377616E+0	1.387963E+0	1.366785E+0	1.386838E+0	1.353990E+0	1.380559E+0	1.424274E+0	1.410979E+0	1.390616E+0	1.353425E+0	1.433618E+0	1.326868E+0	1.361812E+0	1.384259E+0	1.302169E+0	1.384784E+0	1.391254E+0	1.379418E+0	1.372124E+0	1.402091E+0	1.305830E+0	1.439216E+0	1.426317E+0	1.391264E+0	1.385016E+0	1.399202E+0	1.399231E+0	1.403449E+0	1.368912E+0	1.361505E+0	1.356892E+0	1.327722E+0	1.408291E+0	1.337456E+0	1.407666E+0	1.360083E+0	1.415995E+0	1.351089E+0	1.407012E+0	1.378748E+0	1.392553E+0	1.309753E+0	1.391821E+0	1.379553E+0	1.377554E+0	1.347419E+0	1.387835E+0	1.357998E+0	1.413726E+0	1.379559E+0	1.375999E+0	1.390360E+0	1.366694E+0	1.390797E+0	1.371538E+0	1.363073E+0	1.396218E+0	1.323658E+0	1.371781E+0	1.411065E+0	1.394074E+0	1.391021E+0	1.349711E+0	1.396232E+0	1.355370E+0	1.341550E+0	1.436469E+0	1.389374E+0	1.381968E+0	1.398614E+0	1.393297E+0	1.334467E+0	1.387680E+0	1.370240E+0	1.325855E+0	1.346547E+0	1.314087E+0	1.343601E+0	1.325794E+0	1.440693E+0	1.382917E+0	1.372536E+0	1.401706E+0	1.394547E+0	1.341393E+0	1.338381E+0	1.353456E+0	1.344448E+0	1.382874E+0	1.352313E+0	1.364489E+0	1.350526E+0	1.343486E+0	1.282951E+0	1.383752E+0	1.340062E+0	1.344132E+0	1.323117E+0	1.462680E+0	1.374507E+0	1.373102E+0	1.404084E+0	1.374867E+0	1.339553E+0	1.375077E+0	1.340282E+0	1.370176E+0	1.310207E+0	1.408391E+0	1.409048E+0
5.455180E+2	1.305357E+0	1.218043E+0	1.224059E+0	1.315414E+0	1.329763E+0	1.281595E+0	1.288469E+0	1.283172E+0	1.289702E+0	1.297666E+0	1.263675E+0	1.321111E+0	1.301521E+0	1.225683E+0	1.267135E+0	1.334088E+0	1.270934E+0	1.215582E+0	1.282745E+0	1.246540E+0	1.247776E+0	1.250580E+0	1.209858E+0	1.291552E+0	1.246608E+0	1.253261E+0	1.273442E+0	1.251672E+0	1.263807E+0	1.276427E+0	1.272086E+0	1.269636E+0	1.312416E+0	1.288354E+0	1.263387E+0	1.288253E+0	1.295143E+0	1.235997E+0	1.241731E+0	1.272341E+0	1.201928E+0	1.251431E+0	1.264621E+0	1.282960E+0	1.261368E+0	1.220762E+0	1.259249E+0	1.335355E+0	1.290076E+0	1.257786E+0	1.287505E+0	1.256127E+0	1.230412E+0	1.236025E+0	1.265378E+0	1.260625E+0	1.363512E+0	1.262841E+0	1.271865E+0	1.309150E+0	1.273405E+0	1.291342E+0	1.257235E+0	1.279126E+0	1.228353E+0	1.232535E+0	1.247682E+0	1.292203E+0	1.270559E+0	1.238084E+0	1.233953E+0	1.249783E+0	1.277384E+0	1.205693E+0	1.273642E+0	1.226181E+0	1.272173E+0	1.266643E+0	1.304940E+0	1.243280E+0	1.196934E+0	1.236248E+0	1.275831E+0	1.270999E+0	1.270095E+0	1.205110E+0	1.271773E+0	1.249835E+0	1.273811E+0	1.208981E+0	1.230368E+0	1.226958E+0	1.261666E+0	1.278792E+0	1.308578E+0	1.235788E+0	1.269333E+0	1.316491E+0	1.292990E+0	1.257729E+0	1.276241E+0	1.236618E+0	1.248197E+0	1.238733E+0	1.192752E+0	1.278628E+0	1.255423E+0	1.255861E+0	1.261143E+0	1.238389E+0	1.262316E+0	1.263476E+0	1.210122E+0	1.231371E+0	1.241534E+0	1.283263E+0	1.260576E+0	1.261328E+0	1.191837E+0	1.268197E+0	1.289764E+0	1.273834E+0	1.221025E+0	1.245500E+0	1.229256E+0	1.236312E+0	1.245613E+0	1.298648E+0	1.265657E+0	1.248980E+0	1.184430E+0	1.214245E+0	1.257152E+0	1.231413E+0	1.272907E+0	1.258553E+0	1.237442E+0	1.262183E+0	1.254192E+0	1.249816E+0	1.198124E+0	1.250243E+0	1.260959E+0	1.272438E+0	1.298710E+0	1.238272E+0	1.263618E+0	1.245371E+0	1.239060E+0	1.224736E+0	1.225909E+0	1.282351E+0	1.258635E+0	1.203840E+0	1.243002E+0	1.271180E+0	1.232579E+0	1.228655E+0	1.274225E+0	1.272155E+0	1.247155E+0	1.228072E+0	1.168947E+0	1.293624E+0	1.244157E+0	1.219694E+0	1.222509E+0	1.309142E+0	1.188149E+0	1.244238E+0
5.457620E+2	1.220983E+0	1.169771E+0	1.178372E+0	1.191529E+0	1.264995E+0	1.186635E+0	1.180856E+0	1.210695E+0	1.235371E+0	1.182381E+0	1.179088E+0	1.219149E+0	1.188066E+0	1.169756E+0	1.206010E+0	1.199287E+0	1.209029E+0	1.167968E+0	1.193272E+0	1.167360E+0	1.189540E+0	1.173822E+0	1.197057E+0	1.186935E+0	1.187003E+0	1.108985E+0	1.210770E+0	1.169517E+0	1.171229E+0	1.160790E+0	1.134878E+0	1.216243E+0	1.197004E+0	1.196112E+0	1.202011E+0	1.210814E+0	1.192864E+0	1.107669E+0	1.147683E+0	1.205210E+0	1.203232E+0	1.205016E+0	1.170364E+0	1.281212E+0	1.140838E+0	1.172605E+0	1.188627E+0	1.193158E+0	1.167440E+0	1.156651E+0	1.204904E+0	1.205763E+0	1.170819E+0	1.208296E+0	1.190344E+0	1.157193E+0	1.232542E+0	1.159071E+0	1.202882E+0	1.209082E+0	1.213449E+0	1.178081E+0	1.178283E+0	1.198329E+0	1.163626E+0	1.159957E+0	1.126245E+0	1.181498E+0	1.218297E+0	1.224794E+0	1.170948E+0	1.166725E+0	1.263347E+0	1.159148E+0	1.152724E+0	1.197352E+0	1.162596E+0	1.168134E+0	1.192058E+0	1.194753E+0	1.150390E+0	1.195959E+0	1.163053E+0	1.183072E+0	1.167142E+0	1.166620E+0	1.154919E+0	1.164404E+0	1.151783E+0	1.209119E+0	1.201788E+0	1.214893E+0	1.220842E+0	1.188022E+0	1.207117E+0	1.214400E+0	1.233895E+0	1.164032E+0	1.147681E+0	1.151214E+0	1.210437E+0	1.185742E+0	1.168180E+0	1.168047E+0	1.183166E+0	1.178982E+0	1.217524E+0	1.194994E+0	1.150231E+0	1.191663E+0	1.150402E+0	1.191401E+0	1.181167E+0	1.151947E+0	1.157842E+0	1.137363E+0	1.213615E+0	1.121290E+0	1.162773E+0	1.213237E+0	1.187139E+0	1.190616E+0	1.208015E+0	1.209414E+0	1.163588E+0	1.183526E+0	1.203042E+0	1.221767E+0	1.204906E+0	1.167709E+0	1.162821E+0	1.174186E+0	1.195583E+0	1.182089E+0	1.198114E+0	1.175506E+0	1.183639E+0	1.188459E+0	1.168806E+0	1.210341E+0	1.173592E+0	1.147303E+0	1.185530E+0	1.224515E+0	1.182630E+0	1.151711E+0	1.225181E+0	1.119748E+0	1.202256E+0	1.197440E+0	1.166297E+0	1.203821E+0	1.163407E+0	1.132514E+0	1.244372E+0	1.227354E+0	1.142811E+0	1.168893E+0	1.184995E+0	1.194365E+0	1.160946E+0	1.212440E+0	1.200728E+0	1.236553E+0	1.164667E+0	1.165828E+0	1.157407E+0	1.194185E+0	1.198193E+0	1.320868E+0
5.460160E+2	1.170646E+0	1.215479E+0	1.144704E+0	1.249686E+0	1.193849E+0	1.180916E+0	1.167930E+0	1.179646E+0	1.198997E+0	1.136561E+0	1.176032E+0	1.229673E+0	1.215756E+0	1.178591E+0	1.201231E+0	1.265931E+0	1.205994E+0	1.163168E+0	1.186191E+0	1.219049E+0	1.204727E+0	1.229329E+0	1.206180E+0	1.181912E+0	1.250328E+0	1.252288E+0	1.248272E+0	1.216382E+0	1.230315E+0	1.176410E+0	1.197645E+0	1.191726E+0	1.209828E+0	1.205726E+0	1.211513E+0	1.222455E+0	1.227595E+0	1.185096E+0	1.182915E+0	1.203228E+0	1.195222E+0	1.133940E+0	1.118255E+0	1.183317E+0	1.175395E+0	1.207255E+0	1.180541E+0	1.241314E+0	1.206279E+0	1.209165E+0	1.204332E+0	1.257994E+0	1.184140E+0	1.237507E+0	1.211422E+0	1.204153E+0	1.241930E+0	1.161678E+0	1.221055E+0	1.216582E+0	1.184829E+0	1.218811E+0	1.172128E+0	1.233505E+0	1.148827E+0	1.192591E+0	1.174553E+0	1.180313E+0	1.180985E+0	1.202150E+0	1.170855E+0	1.214549E+0	1.231671E+0	1.133576E+0	1.176179E+0	1.227203E+0	1.202919E+0	1.167747E+0	1.231960E+0	1.221527E+0	1.188924E+0	1.189807E+0	1.206902E+0	1.212976E+0	1.212112E+0	1.152073E+0	1.198469E+0	1.185903E+0	1.197181E+0	1.216366E+0	1.208776E+0	1.180284E+0	1.187045E+0	1.178461E+0	1.209379E+0	1.222170E+0	1.204271E+0	1.229427E+0	1.187827E+0	1.190269E+0	1.199957E+0	1.126973E+0	1.153238E+0	1.186468E+0	1.186388E+0	1.154568E+0	1.247006E+0	1.200943E+0	1.214484E+0	1.203851E+0	1.181022E+0	1.178847E+0	1.195188E+0	1.193129E+0	1.176933E+0	1.243612E+0	1.177542E+0	1.189818E+0	1.215450E+0	1.222563E+0	1.177277E+0	1.194432E+0	1.147196E+0	1.191361E+0	1.216461E+0	1.163630E+0	1.165523E+0	1.186669E+0	1.214509E+0	1.149357E+0	1.161279E+0	1.190912E+0	1.211806E+0	1.148175E+0	1.174094E+0	1.163709E+0	1.144900E+0	1.163358E+0	1.244428E+0	1.204378E+0	1.193282E+0	1.169968E+0	1.218938E+0	1.165236E+0	1.121526E+0	1.230935E+0	1.145379E+0	1.181173E+0	1.157473E+0	1.175850E+0	1.196571E+0	1.189996E+0	1.198469E+0	1.165114E+0	1.211947E+0	1.208116E+0	1.169035E+0	1.168524E+0	1.167389E+0	1.229279E+0	1.186576E+0	1.190817E+0	1.218535E+0	1.188546E+0	1.209287E+0	1.198520E+0	1.173735E+0	1.220259E+0	1.144465E+0	1.379054E+0
5.467710E+2	1.246726E+0	1.152805E+0	1.156702E+0	1.236536E+0	1.194389E+0	1.208620E+0	1.201212E+0	1.189342E+0	1.197804E+0	1.137630E+0	1.156472E+0	1.218448E+0	1.186642E+0	1.221082E+0	1.210967E+0	1.204968E+0	1.172197E+0	1.198442E+0	1.222593E+0	1.262118E+0	1.205269E+0	1.164380E+0	1.230215E+0	1.217143E+0	1.169108E+0	1.171598E+0	1.218481E+0	1.152052E+0	1.184250E+0	1.184855E+0	1.210890E+0	1.150301E+0	1.221951E+0	1.198193E+0	1.155873E+0	1.242538E+0	1.197857E+0	1.133800E+0	1.189211E+0	1.185910E+0	1.242881E+0	1.117143E+0	1.171503E+0	1.216595E+0	1.150282E+0	1.163593E+0	1.158280E+0	1.216119E+0	1.226135E+0	1.173112E+0	1.156715E+0	1.213644E+0	1.155049E+0	1.132787E+0	1.200299E+0	1.162756E+0	1.131466E+0	1.191576E+0	1.176914E+0	1.161537E+0	1.223910E+0	1.202481E+0	1.191599E+0	1.215534E+0	1.204319E+0	1.147781E+0	1.193114E+0	1.209577E+0	1.178569E+0	1.263182E+0	1.214799E+0	1.155607E+0	1.255709E+0	1.126629E+0	1.138087E+0	1.161862E+0	1.164562E+0	1.159139E+0	1.174091E+0	1.205031E+0	1.161344E+0	1.170424E+0	1.187167E+0	1.181642E+0	1.217087E+0	1.199534E+0	1.194947E+0	1.180039E+0	1.143872E+0	1.121160E+0	1.252550E+0	1.197503E+0	1.207496E+0	1.166591E+0	1.200702E+0	1.174214E+0	1.191420E+0	1.162766E+0	1.114425E+0	1.133880E+0	1.175147E+0	1.104897E+0	1.124869E+0	1.195905E+0	1.214212E+0	1.194671E+0	1.240305E+0	1.232606E+0	1.168477E+0	1.141856E+0	1.111071E+0	1.215516E+0	1.203052E+0	1.174105E+0	1.210731E+0	1.185885E+0	1.175518E+0	1.176686E+0	1.209653E+0	1.223383E+0	1.186181E+0	1.125359E+0	1.130852E+0	1.134079E+0	1.164741E+0	1.132668E+0	1.164853E+0	1.191005E+0	1.196736E+0	1.144729E+0	1.129614E+0	1.144800E+0	1.206131E+0	1.114918E+0	1.179430E+0	1.184851E+0	1.107807E+0	1.231129E+0	1.139937E+0	1.227919E+0	1.166601E+0	1.157160E+0	1.196174E+0	1.196410E+0	1.162282E+0	1.134334E+0	1.172260E+0	1.138660E+0	1.189898E+0	1.171457E+0	1.185233E+0	1.175347E+0	1.189556E+0	1.153829E+0	1.174561E+0	1.191269E+0	1.111786E+0	1.154856E+0	1.188960E+0	1.193504E+0	1.156035E+0	1.187671E+0	1.181966E+0	1.168219E+0	1.186325E+0	1.174236E+0	1.139035E+0	1.203030E+0	1.237822E+0	1.227315E+0
5.475230E+2	1.258905E+0	1.365443E+0	1.297640E+0	1.423608E+0	1.287492E+0	1.353170E+0	1.312766E+0	1.287614E+0	1.293000E+0	1.293858E+0	1.289461E+0	1.301333E+0	1.329250E+0	1.319165E+0	1.274266E+0	1.376490E+0	1.302449E+0	1.331987E+0	1.279573E+0	1.291665E+0	1.311074E+0	1.271631E+0	1.300155E+0	1.278707E+0	1.365165E+0	1.326628E+0	1.324937E+0	1.316090E+0	1.312115E+0	1.273277E+0	1.230999E+0	1.361515E+0	1.302985E+0	1.293956E+0	1.319606E+0	1.293787E+0	1.333989E+0	1.252225E+0	1.303595E+0	1.311227E+0	1.307295E+0	1.307469E+0	1.323728E+0	1.271554E+0	1.257156E+0	1.311149E+0	1.285797E+0	1.324930E+0	1.351966E+0	1.303744E+0	1.259661E+0	1.302449E+0	1.332366E+0	1.300052E+0	1.318177E+0	1.292985E+0	1.348258E+0	1.261087E+0	1.272910E+0	1.287831E+0	1.292331E+0	1.313788E+0	1.276178E+0	1.379017E+0	1.279822E+0	1.269370E+0	1.305259E+0	1.340234E+0	1.363988E+0	1.304355E+0	1.297355E+0	1.255027E+0	1.334855E+0	1.282986E+0	1.334595E+0	1.321623E+0	1.313753E+0	1.305529E+0	1.313895E+0	1.359533E+0	1.278932E+0	1.366616E+0	1.270299E+0	1.308001E+0	1.351180E+0	1.253884E+0	1.335533E+0	1.294063E+0	1.252460E+0	1.210173E+0	1.294124E+0	1.341201E+0	1.369338E+0	1.294696E+0	1.308530E+0	1.311343E+0	1.268753E+0	1.323437E+0	1.318007E+0	1.299230E+0	1.305384E+0	1.256337E+0	1.287844E+0	1.293014E+0	1.255012E+0	1.319052E+0	1.337374E+0	1.338113E+0	1.289963E+0	1.339808E+0	1.286995E+0	1.330199E+0	1.276072E+0	1.321437E+0	1.251516E+0	1.212983E+0	1.301784E+0	1.271173E+0	1.356584E+0	1.313754E+0	1.333344E+0	1.331984E+0	1.228201E+0	1.327430E+0	1.334226E+0	1.314698E+0	1.306246E+0	1.265948E+0	1.299446E+0	1.322496E+0	1.250227E+0	1.310118E+0	1.295142E+0	1.272322E+0	1.303245E+0	1.262941E+0	1.311897E+0	1.269084E+0	1.306954E+0	1.343475E+0	1.321128E+0	1.261993E+0	1.338208E+0	1.379130E+0	1.279235E+0	1.273815E+0	1.253666E+0	1.285200E+0	1.299662E+0	1.249727E+0	1.319026E+0	1.304250E+0	1.297100E+0	1.298256E+0	1.288480E+0	1.341306E+0	1.289081E+0	1.276471E+0	1.291365E+0	1.352246E+0	1.309979E+0	1.274500E+0	1.257643E+0	1.330102E+0	1.335122E+0	1.276054E+0	1.288097E+0	1.301733E+0	1.333970E+0	1.411913E+0
5.482600E+2	1.391216E+0	1.417682E+0	1.388579E+0	1.460028E+0	1.430980E+0	1.381219E+0	1.393920E+0	1.331241E+0	1.432117E+0	1.395601E+0	1.439509E+0	1.354230E+0	1.402104E+0	1.448609E+0	1.394790E+0	1.463046E+0	1.331797E+0	1.374305E+0	1.466945E+0	1.372768E+0	1.415129E+0	1.368852E+0	1.353898E+0	1.412327E+0	1.375575E+0	1.390368E+0	1.452100E+0	1.376516E+0	1.419471E+0	1.413856E+0	1.381193E+0	1.395751E+0	1.394494E+0	1.388965E+0	1.377634E+0	1.410259E+0	1.382994E+0	1.368545E+0	1.383861E+0	1.424072E+0	1.440661E+0	1.361771E+0	1.391571E+0	1.432924E+0	1.379245E+0	1.413692E+0	1.402044E+0	1.459560E+0	1.392773E+0	1.441026E+0	1.397287E+0	1.436824E+0	1.422170E+0	1.438885E+0	1.398716E+0	1.370379E+0	1.454642E+0	1.326000E+0	1.418131E+0	1.383923E+0	1.431622E+0	1.382099E+0	1.362082E+0	1.428570E+0	1.310976E+0	1.412094E+0	1.330723E+0	1.378662E+0	1.428681E+0	1.401355E+0	1.327142E+0	1.386047E+0	1.363002E+0	1.353931E+0	1.472850E+0	1.469250E+0	1.386070E+0	1.331973E+0	1.426356E+0	1.404799E+0	1.368047E+0	1.396273E+0	1.374430E+0	1.432772E+0	1.387608E+0	1.366437E+0	1.413398E+0	1.370928E+0	1.428344E+0	1.374795E+0	1.361798E+0	1.403250E+0	1.487366E+0	1.384784E+0	1.404422E+0	1.460834E+0	1.376697E+0	1.338245E+0	1.335782E+0	1.322692E+0	1.348299E+0	1.387517E+0	1.422124E+0	1.336025E+0	1.413724E+0	1.362051E+0	1.389219E+0	1.436097E+0	1.425151E+0	1.385014E+0	1.398584E+0	1.403209E+0	1.398080E+0	1.372690E+0	1.325233E+0	1.341304E+0	1.410511E+0	1.374492E+0	1.381760E+0	1.406632E+0	1.420136E+0	1.420470E+0	1.369948E+0	1.391470E+0	1.381978E+0	1.365709E+0	1.330220E+0	1.427203E+0	1.372474E+0	1.368735E+0	1.341694E+0	1.379869E+0	1.375970E+0	1.358833E+0	1.360374E+0	1.391831E+0	1.395955E+0	1.354237E+0	1.384855E+0	1.445507E+0	1.426444E+0	1.394721E+0	1.358173E+0	1.388256E+0	1.357564E+0	1.366591E+0	1.346589E+0	1.389142E+0	1.394216E+0	1.347553E+0	1.402758E+0	1.417399E+0	1.398299E+0	1.259325E+0	1.371145E+0	1.382527E+0	1.367606E+0	1.351278E+0	1.362693E+0	1.391464E+0	1.367434E+0	1.418274E+0	1.341449E+0	1.420993E+0	1.351991E+0	1.359538E+0	1.372841E+0	1.470907E+0	1.408568E+0	1.360199E+0
5.490100E+2	1.396257E+0	1.369310E+0	1.376043E+0	1.460723E+0	1.385192E+0	1.397033E+0	1.379509E+0	1.378057E+0	1.412407E+0	1.392043E+0	1.405730E+0	1.414985E+0	1.440109E+0	1.429200E+0	1.425102E+0	1.434014E+0	1.401343E+0	1.379909E+0	1.365872E+0	1.468302E+0	1.411286E+0	1.379353E+0	1.381880E+0	1.381740E+0	1.398277E+0	1.363040E+0	1.418158E+0	1.397179E+0	1.419291E+0	1.374631E+0	1.371182E+0	1.384157E+0	1.410915E+0	1.386775E+0	1.394832E+0	1.353562E+0	1.391062E+0	1.324495E+0	1.384245E+0	1.366878E+0	1.407424E+0	1.387567E+0	1.383891E+0	1.391312E+0	1.382322E+0	1.419545E+0	1.379609E+0	1.425910E+0	1.381857E+0	1.352445E+0	1.352286E+0	1.443470E+0	1.364562E+0	1.370924E+0	1.402255E+0	1.401955E+0	1.389482E+0	1.370423E+0	1.356411E+0	1.406375E+0	1.413630E+0	1.369755E+0	1.413085E+0	1.441646E+0	1.359908E+0	1.387587E+0	1.372840E+0	1.462163E+0	1.385863E+0	1.385299E+0	1.388050E+0	1.350076E+0	1.484597E+0	1.394671E+0	1.347512E+0	1.433943E+0	1.380906E+0	1.388789E+0	1.318926E+0	1.402045E+0	1.339114E+0	1.439327E+0	1.393662E+0	1.388672E+0	1.446568E+0	1.380229E+0	1.362039E+0	1.384689E+0	1.409813E+0	1.383680E+0	1.401699E+0	1.407915E+0	1.379840E+0	1.397772E+0	1.422407E+0	1.379610E+0	1.377764E+0	1.411385E+0	1.354000E+0	1.395370E+0	1.415872E+0	1.342590E+0	1.370281E+0	1.381553E+0	1.389868E+0	1.389165E+0	1.399376E+0	1.373286E+0	1.418243E+0	1.365489E+0	1.425736E+0	1.410277E+0	1.351346E+0	1.378725E+0	1.382050E+0	1.350329E+0	1.450013E+0	1.326389E+0	1.383665E+0	1.384259E+0	1.392039E+0	1.396977E+0	1.346020E+0	1.435734E+0	1.369698E+0	1.355179E+0	1.382478E+0	1.392681E+0	1.356300E+0	1.402503E+0	1.319049E+0	1.337754E+0	1.349834E+0	1.297962E+0	1.357458E+0	1.323960E+0	1.355947E+0	1.370914E+0	1.420480E+0	1.468642E+0	1.341241E+0	1.419798E+0	1.267266E+0	1.501027E+0	1.377950E+0	1.354455E+0	1.353493E+0	1.373677E+0	1.334513E+0	1.368403E+0	1.378633E+0	1.385167E+0	1.337542E+0	1.348408E+0	1.424013E+0	1.368991E+0	1.314998E+0	1.367178E+0	1.396335E+0	1.413527E+0	1.339960E+0	1.368439E+0	1.358662E+0	1.376657E+0	1.403776E+0	1.360088E+0	1.363194E+0	1.358542E+0	1.438695E+0	1.453284E+0
5.497680E+2	1.291463E+0	1.301573E+0	1.311299E+0	1.433248E+0	1.294589E+0	1.317847E+0	1.238755E+0	1.285229E+0	1.346612E+0	1.306661E+0	1.259358E+0	1.355421E+0	1.285095E+0	1.277196E+0	1.309409E+0	1.351084E+0	1.279630E+0	1.230979E+0	1.284643E+0	1.303040E+0	1.314675E+0	1.225867E+0	1.263841E+0	1.316600E+0	1.350686E+0	1.317884E+0	1.268763E+0	1.294360E+0	1.280510E+0	1.313839E+0	1.266191E+0	1.301411E+0	1.333355E+0	1.312178E+0	1.296577E+0	1.301040E+0	1.341779E+0	1.248753E+0	1.306082E+0	1.266812E+0	1.268367E+0	1.277969E+0	1.236416E+0	1.321421E+0	1.321936E+0	1.278734E+0	1.267082E+0	1.308126E+0	1.265960E+0	1.240869E+0	1.340105E+0	1.357882E+0	1.279659E+0	1.248665E+0	1.297493E+0	1.312929E+0	1.312101E+0	1.289567E+0	1.294582E+0	1.276657E+0	1.253981E+0	1.269349E+0	1.271319E+0	1.297929E+0	1.240746E+0	1.319590E+0	1.285014E+0	1.306235E+0	1.338807E+0	1.358968E+0	1.294841E+0	1.300672E+0	1.256499E+0	1.229779E+0	1.270974E+0	1.337398E+0	1.275394E+0	1.329562E+0	1.279439E+0	1.321340E+0	1.221717E+0	1.302177E+0	1.286142E+0	1.343532E+0	1.296367E+0	1.291976E+0	1.301663E+0	1.258792E+0	1.234990E+0	1.278789E+0	1.282733E+0	1.222429E+0	1.366292E+0	1.240148E+0	1.323500E+0	1.275604E+0	1.273856E+0	1.247888E+0	1.280097E+0	1.269910E+0	1.289517E+0	1.227736E+0	1.247687E+0	1.236345E+0	1.276296E+0	1.227277E+0	1.276427E+0	1.309883E+0	1.317366E+0	1.284840E+0	1.272591E+0	1.322143E+0	1.304599E+0	1.308460E+0	1.238037E+0	1.301683E+0	1.247906E+0	1.237537E+0	1.272195E+0	1.288649E+0	1.276661E+0	1.275103E+0	1.245915E+0	1.318000E+0	1.284809E+0	1.249672E+0	1.278768E+0	1.269965E+0	1.300310E+0	1.281382E+0	1.274686E+0	1.259692E+0	1.276220E+0	1.301729E+0	1.235791E+0	1.264859E+0	1.283542E+0	1.276305E+0	1.243720E+0	1.360160E+0	1.330787E+0	1.296388E+0	1.272603E+0	1.308785E+0	1.258121E+0	1.244132E+0	1.273862E+0	1.250496E+0	1.279397E+0	1.295366E+0	1.211409E+0	1.281248E+0	1.224932E+0	1.275777E+0	1.288519E+0	1.289509E+0	1.270074E+0	1.242709E+0	1.304798E+0	1.339284E+0	1.274094E+0	1.222007E+0	1.274445E+0	1.272702E+0	1.241408E+0	1.266402E+0	1.266623E+0	1.334461E+0	1.383168E+0	1.320624E+0
5.505060E+2	1.367958E+0	1.345559E+0	1.253561E+0	1.364308E+0	1.298141E+0	1.291788E+0	1.314973E+0	1.345446E+0	1.317550E+0	1.314162E+0	1.306675E+0	1.328282E+0	1.313104E+0	1.320737E+0	1.304461E+0	1.332660E+0	1.301813E+0	1.293044E+0	1.312450E+0	1.321389E+0	1.305115E+0	1.291374E+0	1.255064E+0	1.307064E+0	1.314595E+0	1.317350E+0	1.259273E+0	1.312908E+0	1.299748E+0	1.299348E+0	1.291213E+0	1.304266E+0	1.303607E+0	1.325937E+0	1.277180E+0	1.292255E+0	1.330545E+0	1.250753E+0	1.359942E+0	1.332872E+0	1.338585E+0	1.271202E+0	1.274163E+0	1.381929E+0	1.321386E+0	1.296541E+0	1.268937E+0	1.382045E+0	1.317745E+0	1.305321E+0	1.319879E+0	1.380596E+0	1.295853E+0	1.309707E+0	1.284486E+0	1.289365E+0	1.355446E+0	1.271751E+0	1.295810E+0	1.268770E+0	1.336401E+0	1.328143E+0	1.272592E+0	1.317753E+0	1.325302E+0	1.297427E+0	1.341356E+0	1.262320E+0	1.265378E+0	1.273225E+0	1.331620E+0	1.314038E+0	1.299817E+0	1.258835E+0	1.268905E+0	1.318185E+0	1.282117E+0	1.288162E+0	1.290271E+0	1.346735E+0	1.248956E+0	1.280700E+0	1.341285E+0	1.341377E+0	1.294099E+0	1.263592E+0	1.276720E+0	1.292043E+0	1.299042E+0	1.291334E+0	1.327991E+0	1.283637E+0	1.334940E+0	1.277614E+0	1.275367E+0	1.310843E+0	1.292696E+0	1.297142E+0	1.296453E+0	1.258981E+0	1.329586E+0	1.360988E+0	1.256207E+0	1.257724E+0	1.309471E+0	1.316035E+0	1.268709E+0	1.297140E+0	1.273650E+0	1.308906E+0	1.310557E+0	1.363847E+0	1.271434E+0	1.317987E+0	1.263993E+0	1.300422E+0	1.308891E+0	1.315323E+0	1.288534E+0	1.280064E+0	1.322515E+0	1.266377E+0	1.281153E+0	1.380275E+0	1.282381E+0	1.283100E+0	1.275755E+0	1.329102E+0	1.317586E+0	1.300971E+0	1.263812E+0	1.300212E+0	1.325990E+0	1.300838E+0	1.249466E+0	1.262509E+0	1.291373E+0	1.264951E+0	1.240131E+0	1.351928E+0	1.328959E+0	1.288411E+0	1.270762E+0	1.345421E+0	1.226579E+0	1.275506E+0	1.273159E+0	1.299556E+0	1.273412E+0	1.274310E+0	1.311218E+0	1.324484E+0	1.252847E+0	1.325637E+0	1.298822E+0	1.331145E+0	1.283953E+0	1.324414E+0	1.281073E+0	1.359238E+0	1.288423E+0	1.261647E+0	1.270120E+0	1.285517E+0	1.259967E+0	1.323523E+0	1.333896E+0	1.315883E+0	1.264329E+0	1.378982E+0
5.512620E+2	1.310065E+0	1.268520E+0	1.293925E+0	1.373014E+0	1.338699E+0	1.312703E+0	1.276621E+0	1.316735E+0	1.345210E+0	1.303386E+0	1.293348E+0	1.275882E+0	1.283967E+0	1.305176E+0	1.280245E+0	1.313067E+0	1.286356E+0	1.332550E+0	1.278116E+0	1.262237E+0	1.330981E+0	1.284845E+0	1.309184E+0	1.257429E+0	1.281790E+0	1.307899E+0	1.315889E+0	1.261073E+0	1.290817E+0	1.292469E+0	1.303475E+0	1.293925E+0	1.293672E+0	1.317880E+0	1.292111E+0	1.249771E+0	1.295992E+0	1.253383E+0	1.332958E+0	1.330747E+0	1.320632E+0	1.273970E+0	1.276105E+0	1.314910E+0	1.290582E+0	1.308180E+0	1.286653E+0	1.319568E+0	1.304536E+0	1.339136E+0	1.305401E+0	1.324736E+0	1.307844E+0	1.283739E+0	1.331265E+0	1.254862E+0	1.368293E+0	1.270646E+0	1.328789E+0	1.307503E+0	1.330365E+0	1.289616E+0	1.293124E+0	1.292741E+0	1.298687E+0	1.290004E+0	1.274323E+0	1.348728E+0	1.302292E+0	1.309145E+0	1.277172E+0	1.271881E+0	1.318485E+0	1.238355E+0	1.293142E+0	1.264351E+0	1.270672E+0	1.326744E+0	1.308547E+0	1.302677E+0	1.240396E+0	1.310610E+0	1.278079E+0	1.292746E+0	1.312763E+0	1.237857E+0	1.280979E+0	1.301892E+0	1.310014E+0	1.343775E+0	1.285616E+0	1.309890E+0	1.344935E+0	1.305437E+0	1.305600E+0	1.352242E+0	1.280116E+0	1.293152E+0	1.274120E+0	1.280589E+0	1.299121E+0	1.307317E+0	1.274201E+0	1.251004E+0	1.275273E+0	1.310217E+0	1.286710E+0	1.269480E+0	1.294780E+0	1.292653E+0	1.292424E+0	1.332950E+0	1.299710E+0	1.322520E+0	1.301211E+0	1.313494E+0	1.296396E+0	1.245302E+0	1.338399E+0	1.304085E+0	1.306580E+0	1.279891E+0	1.253558E+0	1.313586E+0	1.297251E+0	1.268821E+0	1.269872E+0	1.323780E+0	1.329312E+0	1.271330E+0	1.245753E+0	1.279545E+0	1.259497E+0	1.297181E+0	1.315170E+0	1.261739E+0	1.290037E+0	1.295892E+0	1.290716E+0	1.332410E+0	1.308964E+0	1.281381E+0	1.254796E+0	1.317796E+0	1.301763E+0	1.236389E+0	1.233551E+0	1.279644E+0	1.291230E+0	1.307019E+0	1.306125E+0	1.312606E+0	1.359924E+0	1.236582E+0	1.296679E+0	1.308420E+0	1.288746E+0	1.251753E+0	1.250818E+0	1.312316E+0	1.246870E+0	1.305477E+0	1.228537E+0	1.255816E+0	1.298253E+0	1.305207E+0	1.349346E+0	1.310170E+0	1.309407E+0	1.298549E+0
5.520150E+2	1.250843E+0	1.234283E+0	1.236272E+0	1.377374E+0	1.286572E+0	1.317517E+0	1.246228E+0	1.270581E+0	1.250752E+0	1.251961E+0	1.276828E+0	1.292699E+0	1.282769E+0	1.246467E+0	1.270580E+0	1.306397E+0	1.302708E+0	1.244083E+0	1.285813E+0	1.257026E+0	1.322092E+0	1.255394E+0	1.260875E+0	1.254450E+0	1.252969E+0	1.235162E+0	1.263560E+0	1.254888E+0	1.270906E+0	1.314998E+0	1.263341E+0	1.269238E+0	1.280241E+0	1.315523E+0	1.295308E+0	1.242283E+0	1.273185E+0	1.224805E+0	1.287039E+0	1.284075E+0	1.278713E+0	1.237935E+0	1.229642E+0	1.303483E+0	1.253438E+0	1.247038E+0	1.288068E+0	1.257523E+0	1.292907E+0	1.250954E+0	1.262604E+0	1.233880E+0	1.296333E+0	1.291792E+0	1.256975E+0	1.234718E+0	1.317480E+0	1.251673E+0	1.262363E+0	1.261391E+0	1.278221E+0	1.277125E+0	1.274194E+0	1.231640E+0	1.242857E+0	1.217186E+0	1.286256E+0	1.315607E+0	1.318846E+0	1.236067E+0	1.265782E+0	1.275609E+0	1.223268E+0	1.210499E+0	1.284027E+0	1.279163E+0	1.253378E+0	1.251151E+0	1.252323E+0	1.287295E+0	1.244418E+0	1.228984E+0	1.278103E+0	1.235298E+0	1.286926E+0	1.246613E+0	1.297643E+0	1.303324E+0	1.280622E+0	1.270896E+0	1.275082E+0	1.230807E+0	1.317952E+0	1.245398E+0	1.324779E+0	1.274434E+0	1.277739E+0	1.204333E+0	1.263883E+0	1.222705E+0	1.319542E+0	1.252686E+0	1.240564E+0	1.264552E+0	1.254796E+0	1.235291E+0	1.310382E+0	1.312357E+0	1.256042E+0	1.264106E+0	1.246249E+0	1.283517E+0	1.298554E+0	1.243388E+0	1.241816E+0	1.319159E+0	1.257810E+0	1.295949E+0	1.275667E+0	1.265004E+0	1.296043E+0	1.264786E+0	1.299926E+0	1.263890E+0	1.283179E+0	1.238310E+0	1.250321E+0	1.286252E+0	1.244116E+0	1.278987E+0	1.243377E+0	1.256249E+0	1.284432E+0	1.268505E+0	1.271638E+0	1.250176E+0	1.230023E+0	1.224332E+0	1.211552E+0	1.238851E+0	1.276068E+0	1.248953E+0	1.265333E+0	1.305858E+0	1.242623E+0	1.282545E+0	1.250837E+0	1.273171E+0	1.312696E+0	1.223613E+0	1.293019E+0	1.259502E+0	1.267630E+0	1.231045E+0	1.261382E+0	1.290349E+0	1.270019E+0	1.230154E+0	1.248422E+0	1.314580E+0	1.245149E+0	1.240492E+0	1.224992E+0	1.307624E+0	1.263240E+0	1.226129E+0	1.256318E+0	1.261606E+0	1.295432E+0	1.314606E+0
5.527650E+2	1.280321E+0	1.308472E+0	1.204252E+0	1.285410E+0	1.313472E+0	1.275070E+0	1.295743E+0	1.238734E+0	1.245087E+0	1.230217E+0	1.278784E+0	1.213519E+0	1.243385E+0	1.238043E+0	1.259470E+0	1.278134E+0	1.262495E+0	1.261864E+0	1.186051E+0	1.242868E+0	1.295687E+0	1.227780E+0	1.252542E+0	1.259646E+0	1.242430E+0	1.254074E+0	1.295273E+0	1.264415E+0	1.275876E+0	1.265895E+0	1.245041E+0	1.214983E+0	1.286596E+0	1.271737E+0	1.204894E+0	1.275493E+0	1.293391E+0	1.227226E+0	1.195220E+0	1.306599E+0	1.315324E+0	1.264991E+0	1.251929E+0	1.267149E+0	1.223494E+0	1.251749E+0	1.271099E+0	1.205750E+0	1.299624E+0	1.271335E+0	1.319964E+0	1.270300E+0	1.282684E+0	1.274853E+0	1.292949E+0	1.277624E+0	1.284674E+0	1.235785E+0	1.238724E+0	1.272876E+0	1.318911E+0	1.241017E+0	1.253104E+0	1.229599E+0	1.306811E+0	1.264451E+0	1.253444E+0	1.294192E+0	1.274187E+0	1.267932E+0	1.257873E+0	1.291562E+0	1.297493E+0	1.214823E+0	1.228795E+0	1.266045E+0	1.248577E+0	1.249556E+0	1.279085E+0	1.240899E+0	1.225842E+0	1.200982E+0	1.250637E+0	1.271836E+0	1.221116E+0	1.245668E+0	1.228184E+0	1.242230E+0	1.248415E+0	1.230118E+0	1.260073E+0	1.258203E+0	1.291082E+0	1.242790E+0	1.303953E+0	1.234343E+0	1.258237E+0	1.219614E+0	1.242506E+0	1.233946E+0	1.320009E+0	1.264932E+0	1.257106E+0	1.280680E+0	1.270059E+0	1.221734E+0	1.270582E+0	1.263339E+0	1.216487E+0	1.291389E+0	1.243840E+0	1.229789E+0	1.270137E+0	1.261951E+0	1.262421E+0	1.245841E+0	1.258910E+0	1.273542E+0	1.210450E+0	1.256761E+0	1.286083E+0	1.231065E+0	1.224727E+0	1.279349E+0	1.235255E+0	1.221017E+0	1.308243E+0	1.280200E+0	1.311858E+0	1.244197E+0	1.229218E+0	1.229063E+0	1.234390E+0	1.206984E+0	1.270147E+0	1.275961E+0	1.253507E+0	1.233114E+0	1.222823E+0	1.204244E+0	1.282182E+0	1.261891E+0	1.223486E+0	1.302840E+0	1.281068E+0	1.231287E+0	1.220630E+0	1.257161E+0	1.263638E+0	1.299170E+0	1.253682E+0	1.242718E+0	1.238759E+0	1.221630E+0	1.238046E+0	1.276887E+0	1.327612E+0	1.245962E+0	1.243785E+0	1.307044E+0	1.224913E+0	1.279845E+0	1.182294E+0	1.277377E+0	1.289532E+0	1.230891E+0	1.203802E+0	1.259055E+0	1.311537E+0	1.297248E+0
5.535100E+2	1.218626E+0	1.192055E+0	1.199088E+0	1.262170E+0	1.231724E+0	1.243077E+0	1.188743E+0	1.226938E+0	1.187702E+0	1.215842E+0	1.224769E+0	1.186102E+0	1.243742E+0	1.210139E+0	1.179055E+0	1.211938E+0	1.277730E+0	1.217641E+0	1.192262E+0	1.224360E+0	1.207121E+0	1.182960E+0	1.210625E+0	1.213467E+0	1.198286E+0	1.201127E+0	1.214514E+0	1.165816E+0	1.236579E+0	1.175070E+0	1.184204E+0	1.175463E+0	1.171994E+0	1.236652E+0	1.170773E+0	1.192128E+0	1.221810E+0	1.171347E+0	1.169905E+0	1.211901E+0	1.243341E+0	1.231561E+0	1.175226E+0	1.226743E+0	1.207572E+0	1.191996E+0	1.231626E+0	1.210118E+0	1.250310E+0	1.197868E+0	1.188052E+0	1.217339E+0	1.212960E+0	1.206504E+0	1.185288E+0	1.193358E+0	1.168347E+0	1.200030E+0	1.203235E+0	1.234926E+0	1.255224E+0	1.191982E+0	1.229631E+0	1.178083E+0	1.135341E+0	1.192291E+0	1.223485E+0	1.155815E+0	1.160104E+0	1.213134E+0	1.155362E+0	1.162481E+0	1.226296E+0	1.226478E+0	1.178028E+0	1.182921E+0	1.225524E+0	1.209586E+0	1.204323E+0	1.170831E+0	1.181934E+0	1.220285E+0	1.193791E+0	1.227660E+0	1.212632E+0	1.233891E+0	1.169428E+0	1.188134E+0	1.195680E+0	1.196191E+0	1.198462E+0	1.163666E+0	1.239729E+0	1.194066E+0	1.187101E+0	1.215263E+0	1.178167E+0	1.213111E+0	1.147995E+0	1.193056E+0	1.203693E+0	1.180864E+0	1.213107E+0	1.178855E+0	1.151012E+0	1.210262E+0	1.215281E+0	1.174259E+0	1.220243E+0	1.190893E+0	1.205048E+0	1.205776E+0	1.178714E+0	1.183484E+0	1.161637E+0	1.195730E+0	1.193429E+0	1.195390E+0	1.160362E+0	1.221121E+0	1.230839E+0	1.171548E+0	1.193004E+0	1.156401E+0	1.200602E+0	1.170809E+0	1.210124E+0	1.177745E+0	1.251998E+0	1.194855E+0	1.192936E+0	1.208926E+0	1.276950E+0	1.208468E+0	1.205297E+0	1.194671E+0	1.165726E+0	1.176650E+0	1.195944E+0	1.207373E+0	1.239724E+0	1.191736E+0	1.189454E+0	1.216095E+0	1.196091E+0	1.201988E+0	1.153702E+0	1.221969E+0	1.198988E+0	1.225457E+0	1.185542E+0	1.191799E+0	1.176880E+0	1.141505E+0	1.231015E+0	1.164992E+0	1.158820E+0	1.194537E+0	1.215740E+0	1.250816E+0	1.266028E+0	1.181456E+0	1.193713E+0	1.229825E+0	1.202149E+0	1.164531E+0	1.175131E+0	1.207768E+0	1.209658E+0	1.166302E+0
5.542530E+2	1.094977E+0	1.069178E+0	1.075467E+0	1.118596E+0	1.117567E+0	1.098916E+0	1.129031E+0	1.134705E+0	1.119668E+0	1.122162E+0	1.120182E+0	1.101124E+0	1.139767E+0	1.112545E+0	1.117244E+0	1.079366E+0	1.115610E+0	1.092485E+0	1.120106E+0	1.089064E+0	1.128186E+0	1.102151E+0	1.123881E+0	1.116273E+0	1.085599E+0	1.075352E+0	1.124295E+0	1.066824E+0	1.091840E+0	1.123363E+0	1.088527E+0	1.136120E+0	1.173730E+0	1.138808E+0	1.062811E+0	1.081742E+0	1.107107E+0	1.084017E+0	1.107350E+0	1.123957E+0	1.112659E+0	1.105047E+0	1.096452E+0	1.179441E+0	1.106125E+0	1.137739E+0	1.076868E+0	1.131172E+0	1.112775E+0	1.095330E+0	1.132442E+0	1.141688E+0	1.065626E+0	1.089734E+0	1.111207E+0	1.131714E+0	1.150030E+0	1.116533E+0	1.117211E+0	1.095838E+0	1.091011E+0	1.109725E+0	1.119089E+0	1.105011E+0	1.088688E+0	1.113781E+0	1.119314E+0	1.062880E+0	1.136069E+0	1.113621E+0	1.101656E+0	1.112327E+0	1.129811E+0	1.094994E+0	1.115403E+0	1.108997E+0	1.072921E+0	1.115655E+0	1.080722E+0	1.092002E+0	1.100386E+0	1.130811E+0	1.113022E+0	1.132352E+0	1.115672E+0	1.106698E+0	1.091908E+0	1.081575E+0	1.058005E+0	1.099106E+0	1.146918E+0	1.102664E+0	1.133343E+0	1.120678E+0	1.108196E+0	1.127562E+0	1.194787E+0	1.075791E+0	1.109485E+0	1.094330E+0	1.124142E+0	1.086642E+0	1.091174E+0	1.043467E+0	1.087947E+0	1.080108E+0	1.090535E+0	1.118048E+0	1.099058E+0	1.091628E+0	1.076538E+0	1.129719E+0	1.156498E+0	1.063725E+0	1.116372E+0	1.102447E+0	1.115858E+0	1.132986E+0	1.117254E+0	1.103930E+0	1.151905E+0	1.120964E+0	1.079792E+0	1.118620E+0	1.140220E+0	1.079930E+0	1.094461E+0	1.067704E+0	1.204656E+0	1.093847E+0	1.075504E+0	1.097371E+0	1.110184E+0	1.052629E+0	1.131462E+0	1.081002E+0	1.083089E+0	1.065755E+0	1.104118E+0	1.090608E+0	1.135203E+0	1.149596E+0	1.063935E+0	1.084654E+0	1.175630E+0	1.067625E+0	1.084015E+0	1.124904E+0	1.118268E+0	1.094779E+0	1.105459E+0	1.127652E+0	1.108738E+0	1.102258E+0	1.139619E+0	1.110824E+0	1.086784E+0	1.134274E+0	1.112860E+0	1.073763E+0	1.149338E+0	1.083779E+0	1.144246E+0	1.080283E+0	1.161101E+0	1.088260E+0	1.085464E+0	1.089462E+0	1.148770E+0	1.082451E+0
5.550140E+2	1.028307E+0	9.740152E-1	9.695648E-1	9.488131E-1	9.906702E-1	1.021093E+0	9.539574E-1	9.655662E-1	1.028370E+0	9.761137E-1	1.016683E+0	9.771397E-1	9.975583E-1	1.028239E+0	1.013203E+0	9.760725E-1	9.709160E-1	9.631756E-1	1.018474E+0	1.002939E+0	1.010511E+0	9.742570E-1	9.560283E-1	9.720339E-1	9.703786E-1	9.726233E-1	9.619747E-1	9.616458E-1	9.851689E-1	9.490404E-1	9.832968E-1	9.859608E-1	1.025189E+0	9.919060E-1	9.910198E-1	9.284219E-1	9.860487E-1	9.462371E-1	9.888555E-1	9.740927E-1	9.990609E-1	9.651115E-1	9.958314E-1	1.048227E+0	1.008251E+0	9.758149E-1	1.033003E+0	9.830224E-1	1.014721E+0	9.539130E-1	1.001445E+0	1.014281E+0	1.004457E+0	9.403119E-1	9.589907E-1	9.729867E-1	9.695793E-1	9.678518E-1	1.001513E+0	9.412772E-1	1.041632E+0	1.024458E+0	9.794559E-1	9.773160E-1	1.018507E+0	9.946535E-1	1.007204E+0	1.056845E+0	1.016963E+0	9.577624E-1	9.634975E-1	1.015550E+0	1.006654E+0	1.001408E+0	9.696238E-1	9.824610E-1	9.556687E-1	1.014302E+0	1.000555E+0	9.624913E-1	1.029406E+0	9.925115E-1	9.948513E-1	1.007455E+0	9.902850E-1	1.000525E+0	9.642723E-1	9.894930E-1	9.895692E-1	9.864483E-1	9.904857E-1	9.880738E-1	1.032208E+0	9.632585E-1	9.873022E-1	9.865085E-1	9.524370E-1	1.001251E+0	9.744116E-1	9.203769E-1	1.017555E+0	9.799666E-1	9.934016E-1	9.592026E-1	1.011781E+0	9.694898E-1	1.009234E+0	9.727137E-1	9.988541E-1	1.010914E+0	9.673489E-1	9.632428E-1	1.012288E+0	9.606815E-1	9.212614E-1	9.708469E-1	1.010001E+0	1.019854E+0	9.876825E-1	1.010239E+0	9.439064E-1	9.966620E-1	1.005284E+0	1.004243E+0	9.450598E-1	9.797157E-1	1.000024E+0	9.436385E-1	1.005424E+0	9.787997E-1	9.751854E-1	9.857056E-1	9.556037E-1	1.003409E+0	1.000104E+0	9.940712E-1	9.635517E-1	9.905762E-1	9.851958E-1	1.040744E+0	9.681171E-1	9.335355E-1	1.014594E+0	1.032433E+0	9.831444E-1	9.774236E-1	9.692166E-1	9.856903E-1	9.626601E-1	9.650645E-1	9.649060E-1	9.909173E-1	1.001474E+0	9.677296E-1	9.923086E-1	9.867617E-1	9.571825E-1	9.703497E-1	9.902744E-1	9.769256E-1	1.013851E+0	9.755221E-1	9.585411E-1	9.666310E-1	1.025446E+0	1.017400E+0	1.016922E+0	1.036147E+0	9.977092E-1	1.045639E+0
5.557660E+2	9.911198E-1	9.889859E-1	9.338148E-1	8.933460E-1	9.636124E-1	9.578753E-1	9.621321E-1	1.000417E+0	9.719106E-1	9.625885E-1	9.313713E-1	9.841140E-1	9.966931E-1	1.012995E+0	9.958900E-1	9.843327E-1	9.835452E-1	9.567235E-1	9.924098E-1	9.640780E-1	9.800983E-1	9.820130E-1	9.969011E-1	9.695665E-1	9.789644E-1	9.829219E-1	1.019996E+0	9.597371E-1	9.497153E-1	9.775134E-1	9.643674E-1	9.692614E-1	9.962826E-1	9.858695E-1	9.378853E-1	9.451978E-1	9.877636E-1	9.493993E-1	9.401409E-1	9.658482E-1	9.580807E-1	9.188168E-1	1.016755E+0	9.643007E-1	9.871423E-1	9.689173E-1	9.428056E-1	9.587969E-1	9.514460E-1	9.740492E-1	9.519438E-1	9.542119E-1	9.765166E-1	9.669556E-1	9.914849E-1	9.830905E-1	9.898681E-1	9.426771E-1	9.479821E-1	9.775374E-1	1.039099E+0	9.503134E-1	1.006739E+0	9.329478E-1	9.769312E-1	9.632910E-1	9.604747E-1	9.529976E-1	9.773903E-1	9.781974E-1	1.011590E+0	9.536577E-1	9.958317E-1	9.474125E-1	9.717614E-1	9.470004E-1	9.445444E-1	9.547191E-1	9.704145E-1	9.926411E-1	9.806326E-1	1.014226E+0	9.562922E-1	9.323104E-1	9.445622E-1	1.022098E+0	9.915848E-1	9.633411E-1	9.854796E-1	9.099653E-1	9.757133E-1	9.614837E-1	1.001018E+0	9.703833E-1	9.803469E-1	9.826567E-1	9.868590E-1	9.871016E-1	9.514098E-1	9.920615E-1	9.921776E-1	9.616461E-1	9.697476E-1	9.430133E-1	9.595632E-1	1.018128E+0	1.023643E+0	9.786874E-1	9.638689E-1	9.658392E-1	9.771256E-1	9.912857E-1	1.010468E+0	9.887507E-1	9.273025E-1	9.658312E-1	9.796009E-1	9.464138E-1	9.958006E-1	9.879124E-1	9.854751E-1	9.922048E-1	9.711915E-1	9.541960E-1	9.750738E-1	9.723965E-1	9.901751E-1	9.677281E-1	1.028234E+0	9.906464E-1	9.193326E-1	9.625719E-1	9.753454E-1	9.406881E-1	9.423914E-1	9.539324E-1	9.708321E-1	9.846963E-1	9.455120E-1	9.889076E-1	9.856069E-1	9.507979E-1	9.508137E-1	9.464584E-1	9.678242E-1	9.725886E-1	9.888316E-1	9.600368E-1	9.804693E-1	9.602728E-1	9.567156E-1	1.002057E+0	9.971349E-1	9.534696E-1	9.959650E-1	9.950434E-1	9.488514E-1	1.000560E+0	9.522542E-1	1.007091E+0	9.778412E-1	1.021933E+0	9.800735E-1	9.762320E-1	9.974712E-1	9.463678E-1	9.491165E-1	9.744828E-1	9.978714E-1	9.378652E-1
5.560130E+2	9.764676E-1	1.000508E+0	9.668440E-1	9.495028E-1	9.707745E-1	1.020724E+0	9.449450E-1	1.017659E+0	1.012146E+0	9.394995E-1	9.518380E-1	9.617197E-1	9.650782E-1	9.703113E-1	9.641863E-1	9.773617E-1	1.009483E+0	9.986874E-1	9.958589E-1	9.690577E-1	9.895495E-1	9.402679E-1	9.640041E-1	1.018704E+0	1.003764E+0	9.564062E-1	1.003825E+0	9.618881E-1	9.743910E-1	9.980792E-1	9.569268E-1	9.616335E-1	1.024035E+0	9.932500E-1	9.772099E-1	9.751226E-1	9.894392E-1	9.508285E-1	9.468864E-1	9.660129E-1	9.973727E-1	9.867022E-1	9.714635E-1	9.930396E-1	9.778807E-1	9.569280E-1	9.867247E-1	9.780778E-1	1.002200E+0	9.655520E-1	9.686798E-1	1.018650E+0	1.012739E+0	9.519981E-1	9.640477E-1	9.630827E-1	9.864983E-1	9.320689E-1	1.001102E+0	9.601081E-1	9.912930E-1	9.971437E-1	9.441964E-1	9.853025E-1	9.842909E-1	9.550583E-1	1.004407E+0	9.822070E-1	9.907789E-1	9.774784E-1	9.991000E-1	9.830650E-1	1.011421E+0	9.816418E-1	1.011528E+0	9.439496E-1	9.590824E-1	9.731196E-1	9.704899E-1	9.723331E-1	9.583784E-1	9.891110E-1	9.594666E-1	9.871105E-1	9.552917E-1	9.205118E-1	9.984017E-1	9.570112E-1	1.001281E+0	9.702753E-1	9.807043E-1	9.708011E-1	9.968894E-1	9.717760E-1	9.875231E-1	9.479648E-1	1.011216E+0	9.790355E-1	9.472093E-1	1.022358E+0	1.041325E+0	9.516880E-1	9.979686E-1	9.865135E-1	9.380517E-1	9.477886E-1	9.761448E-1	9.705523E-1	1.008234E+0	1.003592E+0	9.303959E-1	9.804476E-1	1.011661E+0	9.787325E-1	9.394298E-1	9.505173E-1	9.901992E-1	9.397408E-1	9.766823E-1	9.624819E-1	9.878512E-1	9.655376E-1	9.428812E-1	9.347074E-1	9.836845E-1	9.507516E-1	9.671571E-1	9.478280E-1	9.867941E-1	9.463702E-1	9.535478E-1	1.032743E+0	9.459304E-1	9.885694E-1	9.532316E-1	9.782702E-1	9.496588E-1	9.233873E-1	9.917984E-1	9.824674E-1	1.009273E+0	9.694341E-1	9.763657E-1	9.799445E-1	9.278846E-1	9.646069E-1	9.906080E-1	9.536812E-1	9.744260E-1	9.956364E-1	1.000980E+0	9.449838E-1	1.055390E+0	9.657026E-1	1.016254E+0	9.824709E-1	9.497786E-1	9.797633E-1	9.887237E-1	9.662657E-1	1.011365E+0	9.854530E-1	9.781863E-1	9.614866E-1	9.717095E-1	9.625764E-1	9.837573E-1	9.550624E-1	9.838817E-1	1.047297E+0
5.565140E+2	9.344323E-1	1.009283E+0	9.468234E-1	9.545156E-1	9.945025E-1	9.547871E-1	9.796234E-1	9.485998E-1	9.492360E-1	9.574912E-1	9.870233E-1	9.348346E-1	9.731025E-1	9.614409E-1	9.818640E-1	9.411109E-1	9.710999E-1	9.776372E-1	9.684115E-1	9.713068E-1	9.658744E-1	9.062791E-1	9.411820E-1	9.680187E-1	9.514787E-1	9.474733E-1	9.390914E-1	9.612511E-1	9.614699E-1	9.487322E-1	9.258995E-1	9.274691E-1	9.562920E-1	9.335583E-1	9.672300E-1	9.566156E-1	9.734596E-1	9.525136E-1	9.928245E-1	9.655736E-1	9.522735E-1	9.451842E-1	9.740926E-1	9.741103E-1	9.137667E-1	9.649249E-1	9.236894E-1	9.731274E-1	9.975418E-1	9.849754E-1	9.438275E-1	9.630204E-1	9.881925E-1	9.229593E-1	9.421050E-1	9.376216E-1	9.843567E-1	9.482745E-1	9.776671E-1	9.531785E-1	9.374450E-1	9.879586E-1	9.608757E-1	9.680390E-1	1.046269E+0	9.321043E-1	9.450954E-1	9.448068E-1	9.810053E-1	9.904091E-1	9.768253E-1	9.891269E-1	9.683554E-1	9.252223E-1	9.397343E-1	9.735761E-1	9.815760E-1	9.455058E-1	9.830830E-1	9.634482E-1	9.490911E-1	9.522212E-1	9.262921E-1	9.735218E-1	9.734045E-1	9.331825E-1	9.233430E-1	9.417536E-1	9.545292E-1	9.438920E-1	9.559103E-1	1.000400E+0	9.369400E-1	9.512201E-1	9.797701E-1	9.308099E-1	9.633832E-1	9.604095E-1	9.551151E-1	9.486006E-1	9.508997E-1	9.427081E-1	9.904217E-1	9.245836E-1	9.412777E-1	9.602860E-1	9.740026E-1	9.416868E-1	9.626955E-1	9.777916E-1	9.763856E-1	9.769793E-1	9.793531E-1	9.694105E-1	9.452189E-1	9.545556E-1	9.842230E-1	9.371855E-1	9.584638E-1	9.811139E-1	9.704188E-1	9.772718E-1	9.504053E-1	9.933593E-1	9.234704E-1	9.348776E-1	9.404309E-1	9.865468E-1	9.890844E-1	9.406249E-1	9.711451E-1	9.796842E-1	9.512949E-1	9.770132E-1	9.800940E-1	9.697190E-1	9.536045E-1	9.344041E-1	9.039561E-1	9.426914E-1	9.896341E-1	9.510838E-1	9.443240E-1	9.822593E-1	9.486076E-1	9.648162E-1	9.532738E-1	9.654077E-1	9.534585E-1	9.425496E-1	9.260383E-1	9.750694E-1	9.406656E-1	9.454927E-1	9.657255E-1	9.952152E-1	9.552337E-1	9.543199E-1	9.471577E-1	9.999637E-1	9.698151E-1	9.683158E-1	9.648738E-1	9.188811E-1	1.032367E+0	9.283324E-1	9.488087E-1	9.760909E-1	9.189150E-1	1.015597E+0
5.570440E+2	9.596771E-1	9.266075E-1	9.736759E-1	9.931439E-1	1.003493E+0	9.595284E-1	1.026994E+0	9.907856E-1	9.802882E-1	9.902543E-1	9.587488E-1	9.324972E-1	9.605757E-1	9.796592E-1	9.744512E-1	9.780840E-1	9.882774E-1	9.837298E-1	9.854128E-1	1.028102E+0	9.814621E-1	9.862801E-1	9.865919E-1	9.787961E-1	9.856446E-1	9.484229E-1	9.755842E-1	9.615070E-1	1.011923E+0	9.982956E-1	1.014839E+0	1.025258E+0	9.963679E-1	9.889930E-1	1.028833E+0	9.946448E-1	9.733247E-1	9.530828E-1	9.778829E-1	9.829979E-1	1.017732E+0	1.002078E+0	9.306594E-1	9.914965E-1	9.580261E-1	1.003397E+0	1.023445E+0	9.747605E-1	9.938219E-1	9.817775E-1	9.845992E-1	9.544374E-1	1.033320E+0	9.786577E-1	9.967931E-1	9.839870E-1	9.988520E-1	1.009153E+0	9.970461E-1	9.513302E-1	9.810898E-1	9.907311E-1	9.884630E-1	9.978965E-1	1.003964E+0	9.952942E-1	1.007563E+0	9.851403E-1	9.791217E-1	1.005386E+0	9.681647E-1	9.782922E-1	9.743495E-1	9.778855E-1	9.661841E-1	9.752415E-1	1.017396E+0	1.009479E+0	9.863283E-1	9.771694E-1	1.012997E+0	9.851783E-1	9.594209E-1	9.790919E-1	9.688744E-1	9.565089E-1	1.019920E+0	9.963903E-1	9.768766E-1	1.026913E+0	9.998772E-1	9.896880E-1	9.559317E-1	9.943449E-1	9.719802E-1	9.751732E-1	1.023086E+0	9.763082E-1	9.313662E-1	9.467595E-1	9.486793E-1	9.709131E-1	9.635278E-1	9.493841E-1	1.010630E+0	9.846571E-1	9.983893E-1	1.016373E+0	9.976099E-1	9.823450E-1	9.647076E-1	9.651502E-1	9.959373E-1	9.623849E-1	9.868062E-1	9.824694E-1	9.889438E-1	9.637625E-1	1.009489E+0	9.538115E-1	1.010280E+0	9.988472E-1	1.023424E+0	9.796304E-1	1.010086E+0	9.894077E-1	9.900342E-1	9.809117E-1	9.841427E-1	9.898017E-1	9.923991E-1	1.023626E+0	1.022397E+0	9.828059E-1	9.599448E-1	9.554568E-1	9.431341E-1	9.645914E-1	9.692665E-1	1.001307E+0	1.010223E+0	9.506746E-1	9.895058E-1	9.978851E-1	9.868659E-1	1.009411E+0	1.027468E+0	1.024973E+0	9.864888E-1	9.817970E-1	1.021144E+0	1.000553E+0	9.742021E-1	9.880279E-1	9.819518E-1	9.888790E-1	9.804972E-1	9.525545E-1	9.622025E-1	9.658577E-1	1.003795E+0	9.746125E-1	9.676324E-1	1.020279E+0	1.005919E+0	9.509047E-1	9.608013E-1	1.014476E+0	9.704157E-1	9.674199E-1
5.575580E+2	9.819886E-1	1.006091E+0	9.870450E-1	9.727741E-1	9.715964E-1	9.416795E-1	9.380645E-1	1.009144E+0	9.960989E-1	9.720729E-1	9.922492E-1	1.010470E+0	9.870459E-1	9.760553E-1	1.013139E+0	1.010412E+0	9.710782E-1	9.864413E-1	9.928577E-1	9.863028E-1	9.930210E-1	9.532666E-1	9.866928E-1	9.672841E-1	9.899402E-1	1.003299E+0	9.891844E-1	9.776232E-1	9.750205E-1	9.817437E-1	1.011071E+0	9.914543E-1	9.771678E-1	9.692351E-1	9.856202E-1	9.762432E-1	9.955131E-1	9.875681E-1	9.502003E-1	1.009585E+0	9.419838E-1	9.799141E-1	9.808047E-1	9.583465E-1	1.021323E+0	9.677953E-1	9.766664E-1	9.582613E-1	1.016107E+0	9.580178E-1	9.788269E-1	1.007496E+0	9.896859E-1	9.967310E-1	9.671907E-1	9.745516E-1	1.021405E+0	9.526364E-1	1.003976E+0	9.762171E-1	9.845330E-1	9.989458E-1	9.978902E-1	9.470971E-1	9.640491E-1	9.978834E-1	1.019574E+0	9.775612E-1	1.009513E+0	1.010919E+0	1.019947E+0	9.745204E-1	9.560942E-1	1.007879E+0	1.010602E+0	9.730251E-1	9.919531E-1	9.807483E-1	9.739505E-1	9.699966E-1	1.008214E+0	1.004106E+0	1.017280E+0	9.503801E-1	9.655541E-1	1.001162E+0	9.574341E-1	9.510662E-1	9.990752E-1	9.570065E-1	9.897114E-1	9.415440E-1	1.017474E+0	9.897045E-1	9.715895E-1	1.001425E+0	1.023332E+0	9.913795E-1	9.888654E-1	9.920048E-1	9.974837E-1	9.593273E-1	9.984017E-1	9.856097E-1	9.940396E-1	9.658923E-1	9.427272E-1	9.503985E-1	1.016505E+0	9.590216E-1	9.710536E-1	9.557085E-1	9.947955E-1	9.567558E-1	9.501855E-1	9.981709E-1	1.019982E+0	9.804179E-1	9.771442E-1	9.705691E-1	9.931602E-1	9.550852E-1	9.834417E-1	9.727554E-1	9.863020E-1	1.007440E+0	1.002759E+0	9.929265E-1	9.841679E-1	1.026552E+0	1.027505E+0	9.777105E-1	9.647850E-1	9.840432E-1	1.010836E+0	9.898750E-1	9.665429E-1	9.739962E-1	9.939434E-1	1.005068E+0	9.518408E-1	1.006722E+0	9.841939E-1	9.727638E-1	1.004605E+0	9.946143E-1	1.008219E+0	1.001959E+0	1.034136E+0	9.606206E-1	9.703315E-1	9.870668E-1	9.985468E-1	9.811381E-1	9.738095E-1	9.854144E-1	9.760005E-1	9.707132E-1	9.948635E-1	9.727415E-1	9.562109E-1	9.896065E-1	9.455966E-1	9.485412E-1	9.724616E-1	9.703486E-1	1.003104E+0	9.527184E-1	1.030869E+0	1.015151E+0
5.580170E+2	9.647529E-1	9.799016E-1	9.803838E-1	9.866145E-1	9.630558E-1	9.467167E-1	9.865418E-1	9.283585E-1	9.508183E-1	9.748564E-1	9.425141E-1	1.019425E+0	9.654121E-1	9.679909E-1	9.642636E-1	9.788858E-1	9.914247E-1	9.848136E-1	9.637082E-1	9.402140E-1	9.751335E-1	9.611834E-1	9.637148E-1	1.023380E+0	9.417647E-1	9.537353E-1	9.647842E-1	9.659768E-1	9.657314E-1	9.748196E-1	9.573155E-1	9.800621E-1	9.624081E-1	9.743711E-1	9.380775E-1	9.772452E-1	9.734816E-1	9.445382E-1	9.793935E-1	9.760874E-1	9.639138E-1	9.823203E-1	9.631235E-1	9.863489E-1	9.191991E-1	9.696190E-1	9.686750E-1	9.828096E-1	9.587631E-1	9.857896E-1	9.556063E-1	9.777658E-1	9.638636E-1	9.443979E-1	9.390601E-1	1.012609E+0	9.505814E-1	9.569779E-1	9.653356E-1	9.798681E-1	9.948538E-1	9.829950E-1	9.663533E-1	9.811935E-1	9.778591E-1	9.804696E-1	9.610125E-1	9.812939E-1	9.506930E-1	9.667251E-1	9.798441E-1	9.726015E-1	1.007295E+0	9.659025E-1	9.452506E-1	9.610454E-1	9.683360E-1	9.609631E-1	9.733197E-1	9.807141E-1	9.450997E-1	9.694753E-1	9.826433E-1	9.797104E-1	9.739773E-1	1.025824E+0	9.442215E-1	9.604690E-1	9.829619E-1	9.521551E-1	9.591459E-1	9.591112E-1	9.580393E-1	9.631446E-1	9.564919E-1	9.582860E-1	9.923480E-1	9.819987E-1	9.599413E-1	9.437784E-1	9.336506E-1	9.898676E-1	9.396473E-1	9.765787E-1	9.942574E-1	9.813248E-1	9.237741E-1	9.973027E-1	9.554166E-1	9.574286E-1	9.624400E-1	9.710982E-1	9.370650E-1	9.719777E-1	9.832596E-1	9.656884E-1	9.514939E-1	9.635258E-1	9.219393E-1	1.004183E+0	9.870489E-1	9.777522E-1	1.014629E+0	9.197600E-1	9.988958E-1	9.547836E-1	9.428860E-1	1.000850E+0	9.597101E-1	9.623225E-1	9.380086E-1	1.012444E+0	9.637050E-1	9.987598E-1	9.530193E-1	9.564445E-1	1.003342E+0	1.008383E+0	9.838647E-1	9.777475E-1	9.612163E-1	9.879445E-1	1.001551E+0	9.424102E-1	9.509877E-1	9.575752E-1	9.791044E-1	9.633867E-1	1.005659E+0	9.448287E-1	9.670728E-1	9.555289E-1	1.028037E+0	9.657101E-1	9.725713E-1	9.691053E-1	9.823765E-1	9.667630E-1	9.783963E-1	9.578278E-1	9.629104E-1	9.064508E-1	9.457025E-1	9.780419E-1	1.018632E+0	9.550285E-1	9.902805E-1	9.875357E-1	9.690973E-1	9.293387E-1
5.585160E+2	1.006039E+0	9.837208E-1	1.012822E+0	9.870189E-1	1.022745E+0	1.045512E+0	9.898146E-1	1.046130E+0	1.044130E+0	9.714281E-1	9.675484E-1	9.939937E-1	1.045040E+0	1.014581E+0	1.000639E+0	9.830136E-1	1.029577E+0	9.836514E-1	1.040726E+0	1.004393E+0	9.909162E-1	9.969981E-1	1.041499E+0	9.817514E-1	1.023874E+0	9.915943E-1	1.014153E+0	1.036871E+0	1.009120E+0	1.002833E+0	1.021978E+0	9.712545E-1	1.015635E+0	1.003347E+0	9.701994E-1	1.006110E+0	1.034605E+0	1.029743E+0	1.017941E+0	1.017512E+0	9.908012E-1	9.912813E-1	1.027035E+0	1.006542E+0	1.058644E+0	9.993488E-1	9.865073E-1	1.033709E+0	1.015478E+0	1.003412E+0	1.004451E+0	1.020057E+0	9.764420E-1	9.647057E-1	9.827549E-1	9.778639E-1	9.671916E-1	1.015937E+0	1.004375E+0	1.003507E+0	9.850718E-1	1.006717E+0	9.880139E-1	1.003015E+0	1.040410E+0	1.013212E+0	9.786992E-1	1.019295E+0	1.011793E+0	9.994914E-1	9.772020E-1	1.006256E+0	9.644577E-1	1.029490E+0	1.018235E+0	9.898673E-1	1.014996E+0	1.015757E+0	9.983321E-1	1.017452E+0	9.892812E-1	1.003129E+0	9.979829E-1	1.024800E+0	9.991410E-1	9.908507E-1	1.023422E+0	1.042244E+0	1.005657E+0	9.680445E-1	1.012868E+0	1.028751E+0	9.946019E-1	1.041721E+0	1.018448E+0	1.013858E+0	1.019603E+0	9.986237E-1	1.050919E+0	1.015850E+0	9.893512E-1	1.042253E+0	1.018507E+0	9.997503E-1	9.871847E-1	1.028101E+0	1.005104E+0	9.919885E-1	1.017719E+0	1.007157E+0	1.004304E+0	9.956410E-1	1.019998E+0	1.020550E+0	9.844548E-1	9.655264E-1	1.022779E+0	1.026130E+0	1.003834E+0	1.004061E+0	1.002545E+0	1.006397E+0	9.832085E-1	1.025386E+0	9.874301E-1	1.013686E+0	1.021335E+0	1.021284E+0	1.017201E+0	1.019413E+0	9.736871E-1	9.939704E-1	9.843825E-1	9.935798E-1	9.926115E-1	1.018052E+0	1.008540E+0	1.023107E+0	9.822144E-1	1.002957E+0	9.866289E-1	1.030026E+0	9.861440E-1	1.009524E+0	1.020107E+0	9.820056E-1	9.651701E-1	1.024403E+0	9.946880E-1	1.018834E+0	1.013634E+0	9.773852E-1	1.015114E+0	1.011760E+0	9.857591E-1	1.007287E+0	1.019931E+0	9.934138E-1	9.851995E-1	9.982167E-1	1.006466E+0	1.000243E+0	1.016192E+0	1.014845E+0	1.038714E+0	1.001499E+0	9.996331E-1	1.002188E+0	1.045192E+0	9.929904E-1
5.590100E+2	1.025967E+0	1.012601E+0	1.033722E+0	1.028921E+0	1.024796E+0	1.039151E+0	1.009812E+0	9.936872E-1	1.010865E+0	1.027460E+0	1.019287E+0	9.994885E-1	1.036408E+0	1.035554E+0	1.045662E+0	9.599079E-1	1.052230E+0	1.027272E+0	9.941120E-1	1.044248E+0	1.015453E+0	1.005015E+0	1.018439E+0	1.035525E+0	1.019529E+0	1.051772E+0	1.007767E+0	9.982469E-1	1.021194E+0	9.777742E-1	1.025362E+0	1.001596E+0	9.785160E-1	1.012729E+0	9.980055E-1	1.026736E+0	1.000490E+0	1.012475E+0	9.986746E-1	1.046254E+0	1.046742E+0	9.837095E-1	1.078416E+0	1.034261E+0	1.000392E+0	9.944753E-1	1.013815E+0	1.030053E+0	1.025870E+0	1.009611E+0	1.022608E+0	1.002013E+0	1.004739E+0	1.041544E+0	1.012280E+0	1.010303E+0	1.048851E+0	9.723914E-1	1.035498E+0	1.018937E+0	9.915430E-1	9.789295E-1	9.980551E-1	1.018583E+0	1.067425E+0	9.976425E-1	9.969425E-1	1.028904E+0	1.026427E+0	1.023589E+0	1.008532E+0	1.028949E+0	1.032905E+0	1.029559E+0	1.045393E+0	9.852375E-1	9.905829E-1	1.069621E+0	1.050765E+0	1.022806E+0	1.011481E+0	9.877563E-1	9.896181E-1	1.012038E+0	1.030455E+0	1.065374E+0	1.017551E+0	1.022699E+0	1.023253E+0	1.028969E+0	1.047317E+0	1.039200E+0	1.028067E+0	1.038862E+0	1.021936E+0	9.884019E-1	9.848976E-1	1.008847E+0	1.020088E+0	1.048802E+0	1.002927E+0	1.022440E+0	1.038248E+0	1.028883E+0	1.024686E+0	1.035762E+0	1.029172E+0	1.021080E+0	9.915266E-1	1.007658E+0	9.782675E-1	1.030476E+0	1.032533E+0	1.004999E+0	1.031968E+0	9.858632E-1	1.016047E+0	1.037141E+0	1.019682E+0	1.049645E+0	9.811118E-1	1.027556E+0	9.785188E-1	9.842416E-1	9.708238E-1	1.006612E+0	1.020625E+0	1.040237E+0	9.874387E-1	1.001248E+0	1.018123E+0	9.923691E-1	1.013770E+0	1.027820E+0	1.034781E+0	1.038636E+0	1.011079E+0	1.026527E+0	9.947955E-1	1.019830E+0	1.040241E+0	1.036886E+0	9.920914E-1	1.038869E+0	1.002823E+0	1.003983E+0	1.042614E+0	9.831177E-1	1.010923E+0	1.040273E+0	1.006376E+0	1.014113E+0	9.501506E-1	9.914093E-1	1.029397E+0	1.035733E+0	1.024454E+0	1.005534E+0	1.025883E+0	1.011964E+0	1.053839E+0	1.058750E+0	1.027401E+0	1.036076E+0	9.881101E-1	1.040790E+0	9.509428E-1	1.017504E+0	9.662747E-1	1.058870E+0
5.595110E+2	1.018615E+0	1.016543E+0	9.578686E-1	1.070958E+0	1.005549E+0	1.050253E+0	1.019137E+0	1.075748E+0	1.026671E+0	1.015645E+0	1.034174E+0	1.020618E+0	9.925184E-1	1.029476E+0	1.024932E+0	1.011231E+0	1.046810E+0	1.030580E+0	9.683202E-1	9.684013E-1	9.961529E-1	1.019923E+0	1.001379E+0	9.964429E-1	1.022265E+0	1.044601E+0	9.951497E-1	1.020773E+0	1.027887E+0	9.911791E-1	1.011198E+0	1.014869E+0	1.000249E+0	1.051842E+0	1.029922E+0	9.798229E-1	9.977131E-1	1.050359E+0	1.015492E+0	9.719449E-1	9.796889E-1	1.033237E+0	9.911821E-1	9.818609E-1	1.017642E+0	1.042760E+0	1.031871E+0	9.833518E-1	9.953559E-1	1.010916E+0	1.034524E+0	9.778524E-1	1.017203E+0	1.009212E+0	1.035227E+0	1.014486E+0	1.010895E+0	1.017474E+0	9.899315E-1	1.044316E+0	1.035964E+0	1.036832E+0	1.022137E+0	9.923259E-1	1.015017E+0	1.023057E+0	1.032171E+0	1.000587E+0	1.015203E+0	1.026476E+0	1.000427E+0	1.023984E+0	1.018933E+0	1.022020E+0	1.028089E+0	1.044298E+0	1.016860E+0	9.799495E-1	1.042526E+0	1.052611E+0	1.020835E+0	1.006625E+0	1.029315E+0	1.020738E+0	1.034667E+0	9.837278E-1	9.870224E-1	1.004137E+0	9.931686E-1	1.017344E+0	1.022156E+0	1.021715E+0	1.041032E+0	9.685363E-1	1.025820E+0	1.066672E+0	9.845228E-1	9.844748E-1	1.017564E+0	1.013226E+0	1.030544E+0	1.005692E+0	1.033307E+0	1.028398E+0	1.026380E+0	1.020111E+0	1.016056E+0	9.963582E-1	1.021259E+0	1.024292E+0	1.006353E+0	9.913009E-1	1.018000E+0	1.038604E+0	1.037578E+0	1.016250E+0	1.027168E+0	1.046253E+0	1.017779E+0	1.000805E+0	1.017134E+0	1.006983E+0	9.760130E-1	1.043418E+0	1.054030E+0	1.008101E+0	1.044381E+0	9.685039E-1	1.006665E+0	1.012049E+0	1.027562E+0	1.003626E+0	1.037520E+0	9.793477E-1	1.023292E+0	9.989548E-1	1.030243E+0	9.882951E-1	1.004137E+0	1.005663E+0	1.025189E+0	9.912457E-1	1.009045E+0	1.036094E+0	9.658811E-1	1.022893E+0	9.958833E-1	1.023413E+0	1.034207E+0	1.030950E+0	1.036317E+0	1.023050E+0	1.017780E+0	1.037908E+0	9.960566E-1	1.034295E+0	1.020726E+0	1.032698E+0	1.025392E+0	1.021778E+0	1.011594E+0	1.056292E+0	1.039575E+0	9.950960E-1	1.006183E+0	1.032731E+0	1.029910E+0	1.047316E+0	1.020005E+0	1.026076E+0
5.600240E+2	1.011816E+0	1.013295E+0	9.958393E-1	9.816920E-1	9.993215E-1	1.031892E+0	9.881739E-1	9.490108E-1	1.010265E+0	1.040824E+0	1.071384E+0	1.006333E+0	1.006058E+0	1.024740E+0	9.829383E-1	1.012565E+0	9.331942E-1	1.019286E+0	1.059114E+0	9.946822E-1	1.030574E+0	1.009828E+0	9.700940E-1	9.918643E-1	1.000361E+0	9.977912E-1	1.009962E+0	1.012803E+0	9.897222E-1	1.032754E+0	9.732150E-1	1.011173E+0	1.044256E+0	1.022033E+0	1.022173E+0	1.021005E+0	1.013861E+0	1.017603E+0	1.078467E+0	9.898451E-1	9.975969E-1	1.052473E+0	1.013394E+0	1.025403E+0	1.023131E+0	9.882512E-1	1.011302E+0	1.022912E+0	9.763376E-1	1.012310E+0	1.023863E+0	1.004475E+0	1.003247E+0	1.081074E+0	1.018914E+0	1.013256E+0	1.004754E+0	1.028878E+0	1.009317E+0	9.970020E-1	9.984186E-1	9.735956E-1	1.001434E+0	1.017106E+0	1.005455E+0	9.581516E-1	9.959456E-1	1.022906E+0	9.963784E-1	1.017692E+0	1.000542E+0	9.960583E-1	1.039719E+0	9.758078E-1	1.010714E+0	1.025672E+0	1.003788E+0	9.879644E-1	9.900417E-1	9.982433E-1	9.764071E-1	1.020378E+0	1.007294E+0	1.023239E+0	1.005859E+0	9.947281E-1	9.915802E-1	9.829143E-1	1.001225E+0	1.013746E+0	9.828018E-1	1.006810E+0	9.642418E-1	9.902620E-1	1.044595E+0	1.005114E+0	1.016778E+0	1.044730E+0	9.966739E-1	1.020623E+0	1.033334E+0	9.956174E-1	9.913532E-1	1.022296E+0	9.810301E-1	9.972501E-1	1.062673E+0	9.959935E-1	9.764616E-1	9.693884E-1	1.039848E+0	1.021258E+0	9.707640E-1	1.028076E+0	1.017179E+0	1.015762E+0	1.000434E+0	9.535666E-1	1.001656E+0	1.030194E+0	1.023810E+0	1.020737E+0	1.019702E+0	1.036904E+0	9.946623E-1	1.014507E+0	9.860204E-1	1.014753E+0	1.004964E+0	1.022899E+0	9.980596E-1	1.010622E+0	1.007120E+0	1.026467E+0	9.946536E-1	1.014594E+0	1.021457E+0	1.006788E+0	1.012874E+0	9.610927E-1	1.019984E+0	9.716383E-1	1.032927E+0	1.015242E+0	1.006276E+0	1.033564E+0	9.877134E-1	9.769962E-1	9.863509E-1	1.036742E+0	1.005184E+0	1.026025E+0	1.022236E+0	9.896685E-1	1.024757E+0	1.018376E+0	9.955223E-1	1.060091E+0	1.026664E+0	1.019863E+0	1.026739E+0	9.670362E-1	1.019269E+0	9.870769E-1	9.661984E-1	1.021637E+0	1.025302E+0	1.000279E+0	9.796461E-1	9.970719E-1
5.605040E+2	1.026340E+0	1.047351E+0	1.035285E+0	9.781678E-1	9.973667E-1	1.000937E+0	1.022802E+0	9.815884E-1	9.893383E-1	1.017321E+0	1.028410E+0	1.026870E+0	9.890155E-1	1.025173E+0	1.010114E+0	1.049472E+0	9.915984E-1	9.985800E-1	1.030655E+0	1.028755E+0	9.947021E-1	1.044187E+0	1.018653E+0	1.034383E+0	9.647968E-1	1.028695E+0	1.029456E+0	1.002677E+0	9.750997E-1	1.002598E+0	9.668489E-1	9.923778E-1	1.026038E+0	9.570796E-1	9.590682E-1	1.017623E+0	9.845894E-1	1.016212E+0	1.004952E+0	1.036918E+0	1.018719E+0	9.991537E-1	1.038753E+0	1.005036E+0	9.621644E-1	1.031461E+0	9.787482E-1	1.000598E+0	1.028570E+0	1.009839E+0	9.920140E-1	1.086475E+0	1.012341E+0	9.671692E-1	1.007764E+0	1.045497E+0	1.030837E+0	1.032860E+0	1.005210E+0	1.017522E+0	1.010354E+0	1.025758E+0	1.025107E+0	1.024999E+0	9.490784E-1	1.020130E+0	1.028998E+0	1.002849E+0	9.921037E-1	9.819214E-1	1.009684E+0	1.015189E+0	9.987968E-1	9.904388E-1	1.000708E+0	1.025097E+0	1.000784E+0	1.005069E+0	1.018924E+0	9.849030E-1	9.958847E-1	1.026028E+0	1.000384E+0	1.011664E+0	9.887229E-1	9.914125E-1	1.032108E+0	1.060312E+0	9.911492E-1	1.051030E+0	9.968603E-1	1.012993E+0	1.015407E+0	1.019061E+0	9.877229E-1	9.911709E-1	9.794249E-1	1.004966E+0	9.966884E-1	1.016145E+0	1.019747E+0	9.889073E-1	1.028206E+0	1.003121E+0	1.019222E+0	9.935757E-1	9.853085E-1	1.006773E+0	1.045146E+0	1.084157E+0	1.040094E+0	1.036621E+0	1.015746E+0	9.862270E-1	1.021734E+0	1.019025E+0	9.710787E-1	1.009676E+0	1.042212E+0	9.834059E-1	9.960173E-1	1.005195E+0	1.018967E+0	1.023597E+0	9.861369E-1	1.015193E+0	1.045197E+0	9.935822E-1	1.059238E+0	9.960332E-1	1.048935E+0	9.856318E-1	1.005803E+0	1.047324E+0	9.951535E-1	1.026510E+0	1.016348E+0	1.001443E+0	1.015885E+0	1.003621E+0	1.019005E+0	1.022657E+0	1.001221E+0	9.882577E-1	1.040238E+0	9.980167E-1	1.011127E+0	1.043686E+0	9.750967E-1	9.884449E-1	1.005556E+0	1.017896E+0	9.950833E-1	1.023673E+0	1.014394E+0	9.593516E-1	1.007301E+0	1.007065E+0	9.990365E-1	1.022760E+0	9.920187E-1	1.038110E+0	1.014761E+0	9.983161E-1	1.002749E+0	1.039660E+0	1.011744E+0	1.005372E+0	1.012621E+0	1.003842E+0
5.610640E+2	1.004804E+0	1.013889E+0	1.023358E+0	1.000710E+0	1.012077E+0	9.843296E-1	1.018660E+0	1.025549E+0	9.915250E-1	9.901376E-1	9.856847E-1	9.903052E-1	1.017926E+0	9.467699E-1	9.838619E-1	1.016428E+0	9.958106E-1	9.856459E-1	9.650943E-1	1.004902E+0	1.022585E+0	1.023318E+0	1.012935E+0	9.905731E-1	1.051824E+0	9.800883E-1	1.013959E+0	1.023522E+0	1.024303E+0	1.038002E+0	1.018172E+0	1.011956E+0	9.993625E-1	1.020370E+0	1.068102E+0	1.000570E+0	1.026422E+0	9.884191E-1	9.769959E-1	9.688560E-1	1.042822E+0	9.758327E-1	9.766320E-1	1.010706E+0	1.039477E+0	1.002893E+0	1.008970E+0	1.013545E+0	9.896974E-1	1.028325E+0	1.003508E+0	9.694287E-1	9.991593E-1	1.016509E+0	1.040016E+0	9.674464E-1	9.666324E-1	1.013693E+0	9.893104E-1	1.011300E+0	1.018173E+0	1.005495E+0	1.012546E+0	1.017783E+0	9.767416E-1	1.014160E+0	9.790941E-1	9.814649E-1	1.018767E+0	9.677990E-1	1.035658E+0	1.004149E+0	1.007449E+0	1.001017E+0	9.748246E-1	1.020516E+0	9.953043E-1	9.904485E-1	9.658123E-1	9.961049E-1	1.039800E+0	9.973239E-1	1.016061E+0	9.983383E-1	1.032750E+0	9.904121E-1	1.026741E+0	9.797690E-1	1.026634E+0	9.847931E-1	9.892623E-1	1.000187E+0	1.025205E+0	9.943642E-1	1.001417E+0	9.998983E-1	9.760078E-1	1.008672E+0	1.037893E+0	1.002811E+0	1.044282E+0	1.024982E+0	9.888027E-1	1.005980E+0	9.625714E-1	9.933256E-1	1.036796E+0	1.023733E+0	9.783562E-1	1.008553E+0	1.032933E+0	1.032745E+0	1.015161E+0	1.030426E+0	9.868352E-1	1.051245E+0	1.002074E+0	1.019528E+0	1.006264E+0	1.003326E+0	9.888918E-1	1.001448E+0	1.002096E+0	1.014308E+0	1.011633E+0	9.902698E-1	9.467623E-1	9.869519E-1	9.964720E-1	9.696815E-1	9.757202E-1	1.000000E+0	1.000517E+0	9.598526E-1	1.035707E+0	1.001477E+0	9.993134E-1	1.006870E+0	1.043019E+0	1.022713E+0	9.856719E-1	1.002206E+0	1.003321E+0	9.989529E-1	1.022216E+0	9.979375E-1	9.827008E-1	9.580653E-1	9.724508E-1	9.975103E-1	9.743835E-1	9.983819E-1	9.988491E-1	1.010705E+0	1.021303E+0	1.001558E+0	9.931908E-1	1.011167E+0	1.002362E+0	1.028993E+0	9.864276E-1	1.008900E+0	1.023871E+0	1.021728E+0	1.001032E+0	9.874023E-1	1.028282E+0	9.726111E-1	1.005879E+0	1.009241E+0
