Photon Energy (eV)	#1	#2	#3	#4	#5	#6	#7	#8	#9	#10	#11	#12	#13	#14	#15	#16	#17	#18	#19	#20	#21	#22	#23	#24	#25	#26	#27	#28	#29	#30	#31	#32	#33	#34	#35	#36	#37	#38	#39	#40	#41	#42	#43	#44	#45	#46	#47	#48	#49	#50	#51	#52	#53	#54	#55	#56	#57	#58	#59	#60	#61	#62	#63	#64	#65	#66	#67	#68	#69	#70	#71	#72	#73	#74	#75	#76	#77	#78	#79	#80	#81	#82	#83	#84	#85	#86	#87	#88	#89	#90	#91	#92	#93	#94	#95	#96	#97	#98	#99	#100	#101	#102	#103	#104	#105	#106	#107	#108	#109	#110	#111	#112	#113	#114	#115	#116	#117	#118	#119	#120	#121	#122	#123	#124	#125	#126	#127	#128	#129	#130	#131	#132	#133	#134	#135	#136	#137	#138	#139	#140	#141	#142	#143	#144	#145	#146	#147	#148	#149	#150	#151	#152	#153	#154	#155	#156	#157	#158	#159	#160	#161	#162	#163	#164	#165	#166	#167	#168	#169	#170	
5.300370E+2	-7.335815E-3	-4.196431E-3	-2.202047E-3	3.071920E-3	-6.512708E-3	1.967539E-3	-7.919337E-3	-4.580912E-3	2.694101E-3	-9.821819E-3	-1.351050E-2	-8.434799E-4	-1.345017E-2	-1.479013E-3	-1.079632E-2	-1.320327E-2	-9.371602E-3	-4.419100E-3	-5.202189E-3	-1.082606E-2	-4.661655E-3	-1.399398E-2	-1.185318E-3	-8.267970E-3	-1.210858E-2	-6.547177E-3	1.278243E-3	-5.048478E-3	-6.085502E-3	2.127501E-3	-8.305464E-3	-5.903695E-3	-6.969723E-3	-4.154325E-3	-4.773029E-3	-2.383958E-3	-3.807123E-3	-1.435106E-2	-5.273533E-3	-7.489560E-3	-4.999808E-3	-1.102115E-2	-3.147722E-3	-1.391941E-2	-3.390508E-3	-7.749054E-3	-3.600705E-3	-3.755988E-3	-1.900934E-4	-6.320580E-3	2.649912E-3	-6.693082E-4	-1.087766E-2	-1.102821E-2	-2.114508E-3	-6.858044E-3	-1.031656E-2	-6.148153E-3	4.325110E-3	-6.001778E-3	2.578479E-3	2.390333E-3	-5.413471E-3	-6.325720E-3	-2.446435E-3	-9.692620E-3	-4.954995E-3	-1.118729E-3	-8.508408E-3	-1.396170E-3	-9.373660E-3	-6.113840E-3	4.230784E-4	1.379815E-3	-2.124857E-3	-5.822933E-3	-4.069326E-3	-8.695177E-3	-2.233736E-3	-6.648552E-3	-7.034622E-3	-9.726175E-3	4.256799E-3	-4.302780E-3	-9.102159E-3	-9.940205E-3	-8.728345E-3	-7.913488E-3	-4.629188E-3	-6.463454E-3	-1.000283E-2	-3.787620E-3	-4.370878E-3	-4.261915E-3	-1.239802E-2	-8.531507E-3	-9.847438E-3	-4.300747E-3	-8.386908E-3	-2.378903E-3	-4.833498E-3	-1.643071E-3	-9.700418E-3	-1.104101E-2	-7.665312E-3	-7.123925E-3	-4.187535E-3	1.287321E-3	6.548432E-4	-5.593931E-4	-6.701076E-3	-5.956690E-3	-3.111953E-3	-1.083516E-4	7.084760E-3	1.218138E-2	-5.248817E-3	-7.666586E-3	3.388347E-4	-3.818934E-3	-4.059015E-3	-2.332889E-3	7.145736E-4	-1.481912E-2	-6.349773E-3	-5.139929E-3	-6.694996E-3	-3.370866E-3	2.041205E-3	1.508496E-3	-3.118616E-3	1.344977E-3	-9.410092E-4	-3.123030E-3	-8.350102E-3	-1.127849E-2	-1.531411E-3	-2.845180E-3	5.836467E-4	-3.742483E-4	-1.218932E-2	-2.581193E-3	-2.161204E-3	-8.331517E-3	-4.476517E-3	-1.057895E-4	-3.274306E-3	-1.722124E-3	-7.450127E-3	-7.092211E-3	-4.884893E-3	-3.224243E-4	-1.016531E-2	-6.789423E-3	-1.416088E-2	-6.726435E-3	-9.539842E-4	-7.214393E-3	-5.400873E-3	-5.230212E-3	-1.271976E-2	-2.146070E-3	-3.991232E-3	-1.056600E-2	-8.666412E-3	-2.415187E-3	-7.295193E-3	-6.091129E-3	-1.164236E-2	-7.159919E-3
5.305180E+2	-9.482920E-3	-8.171959E-3	-1.541369E-3	-1.377068E-3	-5.265588E-3	-5.731539E-3	-4.449128E-4	-5.080656E-3	-1.124081E-2	-2.455443E-3	-4.886747E-3	-8.434695E-3	1.595768E-3	-5.472288E-3	4.935478E-3	-3.354342E-3	-4.044603E-3	-8.932226E-3	-2.080854E-3	2.165186E-3	-3.308294E-3	-1.399382E-3	2.607649E-3	-3.974987E-3	2.538895E-3	-2.976019E-3	-1.701029E-2	-7.471750E-3	-6.525405E-3	-6.078731E-3	-7.835324E-3	-8.037541E-3	-6.404618E-3	1.780407E-3	-4.773047E-3	-5.959871E-3	-9.306278E-3	-1.060729E-2	-1.379237E-3	3.863015E-3	2.941300E-4	-9.339763E-4	-3.720064E-3	-7.326385E-4	-4.294653E-3	6.009493E-3	-4.060371E-3	-7.291011E-3	9.505262E-4	-6.320580E-3	-2.649955E-3	-1.156970E-2	-5.513330E-3	2.108337E-3	-5.530277E-3	-5.486383E-3	-4.820790E-4	1.024689E-2	2.162564E-3	-8.953504E-3	-8.204178E-3	-2.236123E-3	2.815005E-3	-3.677724E-3	-5.382128E-3	-4.510387E-3	-1.921344E-3	-1.729015E-3	-3.781507E-3	-2.874416E-3	-4.813530E-3	5.557938E-4	-2.115644E-3	-5.125181E-3	-1.244560E-2	2.467345E-3	-2.226592E-3	3.981913E-3	-7.779404E-3	-4.181022E-3	9.506181E-4	-3.517930E-3	-2.128474E-4	-2.542566E-3	5.097272E-4	-8.875219E-4	4.107469E-3	-3.258519E-3	-6.992998E-3	-3.920463E-3	-2.572189E-3	-4.385690E-3	-4.123348E-4	-1.849559E-3	-2.510943E-3	2.500633E-3	2.317036E-3	-9.461681E-3	-5.241822E-3	-1.151392E-2	-5.308856E-3	-6.831764E-3	-7.640113E-3	-4.889585E-3	-8.240193E-3	-5.238173E-3	1.020889E-4	-2.277604E-3	-3.274516E-4	-7.751533E-3	1.340180E-3	-7.264256E-3	1.706516E-3	-4.659901E-3	-3.542366E-3	5.118207E-4	-2.933149E-3	-1.600716E-3	8.470781E-4	-1.328286E-3	-2.319449E-3	-4.767203E-3	-1.122855E-3	-2.397203E-3	1.372899E-3	-1.150361E-2	-6.205073E-3	-2.430177E-3	-2.968999E-3	3.318715E-3	-8.925704E-3	-6.724937E-3	-3.293607E-3	-5.204912E-4	7.639487E-3	-2.496795E-3	-8.269524E-3	-1.016121E-2	-2.918120E-3	-3.742283E-3	7.481694E-3	-5.485020E-3	-4.082281E-3	-6.592764E-3	1.145138E-3	-3.914145E-3	-7.076689E-3	-4.441199E-3	1.201634E-3	5.455945E-4	-3.368901E-3	1.611937E-4	3.526682E-3	-7.397394E-3	3.314247E-3	2.446003E-3	-1.430990E-3	-1.244683E-2	-7.749112E-3	9.576745E-4	-5.985796E-3	-5.657785E-3	-1.596488E-3	-1.112168E-3	-1.598658E-3	-5.002877E-3	-4.793968E-3	1.218239E-3	-1.862835E-3	1.052927E-2
5.310350E+2	-5.725530E-3	7.730237E-3	-8.807972E-3	-3.283779E-3	-5.265555E-3	-4.705003E-3	-5.249857E-3	4.164438E-4	-9.288726E-5	2.077687E-3	2.587116E-3	-4.639082E-3	-2.507674E-3	-5.916061E-4	-3.393173E-3	-8.492929E-3	3.650029E-3	-2.162527E-3	-7.699242E-3	-7.873286E-4	5.263154E-3	-2.798800E-3	-3.555911E-3	-3.975004E-3	-8.007266E-3	4.166387E-3	-5.211203E-3	-2.019116E-4	-2.566166E-3	-6.078700E-3	-7.835356E-3	-2.062737E-3	6.592983E-3	1.780414E-3	1.320183E-3	-5.363856E-3	1.269068E-3	-3.119803E-3	-1.379249E-3	-9.854690E-3	-8.823385E-4	1.867975E-3	2.861616E-4	-4.500278E-3	-2.938439E-3	-6.325787E-3	4.673245E-3	6.407299E-3	-6.463478E-3	-2.590407E-3	-8.833015E-4	4.781028E-4	-1.043085E-3	-3.243571E-3	-2.114550E-3	4.572008E-3	-4.821072E-4	-9.075838E-3	-7.568924E-3	-2.459701E-3	-4.453721E-3	-1.796594E-2	-4.114244E-3	-2.353757E-3	-9.782087E-5	9.596187E-5	-1.314603E-3	2.542606E-3	4.726662E-4	-4.352726E-3	-8.866991E-3	-4.684647E-3	-7.827934E-3	-7.490611E-3	-2.731978E-3	-2.269960E-3	-2.687279E-3	-1.869075E-3	-8.472412E-4	-5.826052E-3	3.802518E-4	4.552652E-3	-1.106773E-2	-7.236432E-3	-1.084977E-2	-9.940247E-3	-3.594066E-3	3.258493E-3	3.053251E-3	4.344282E-3	-2.572161E-3	3.388962E-3	-4.865692E-3	-8.604254E-3	-1.098518E-3	1.618042E-3	5.792608E-4	-4.945916E-3	-1.467734E-3	3.901416E-3	-1.980942E-3	4.583330E-3	2.146097E-3	5.993691E-3	-6.515515E-3	6.076261E-3	-5.413124E-3	1.881477E-3	-7.694796E-3	3.995557E-4	4.467417E-3	2.760448E-3	-2.509594E-3	5.418493E-4	-2.361599E-3	-8.086795E-3	-2.006917E-3	-1.600760E-3	-7.284839E-3	-3.320820E-4	-2.319470E-3	4.361500E-3	-1.520979E-2	-1.089657E-3	2.402629E-3	-5.629435E-3	3.102552E-3	1.332682E-3	-1.855643E-3	-1.297309E-2	-7.635215E-3	-6.724974E-3	2.009097E-8	1.041008E-3	-7.817144E-3	-4.304882E-4	5.206714E-3	-1.016105E-3	-7.120161E-9	4.116550E-3	-4.119130E-3	2.258531E-3	6.963915E-3	2.535710E-3	1.145130E-3	-3.914087E-3	-1.468157E-2	-3.353579E-3	-1.201676E-3	-7.092228E-3	-6.400907E-3	6.448530E-4	1.037288E-3	1.114696E-3	9.039029E-4	4.891963E-3	-4.769973E-3	-1.030602E-3	-1.174097E-3	-1.252316E-3	6.359907E-3	-2.146070E-3	-9.379382E-3	1.112178E-3	3.954577E-3	-2.415203E-3	2.084278E-4	-6.091116E-3	-4.656714E-4	-4.632823E-3
5.315130E+2	-3.578477E-3	-2.208613E-3	-4.844368E-3	2.436355E-3	3.879902E-3	-8.556003E-5	-4.716020E-3	3.914598E-3	-2.322474E-3	7.177469E-3	-3.736924E-3	1.117599E-2	-4.331420E-3	-5.472269E-3	-3.393164E-3	3.497082E-3	-4.636500E-3	-1.034247E-3	-8.323234E-4	1.574700E-3	-5.563892E-3	1.399395E-3	-4.504139E-3	-5.405986E-3	4.296577E-3	2.380835E-3	4.817938E-3	2.827141E-3	7.330821E-5	-1.063752E-3	1.002924E-2	-1.209212E-3	-1.883977E-4	-8.308642E-3	-1.117094E-3	-3.575958E-3	2.538075E-3	1.887476E-2	9.330109E-3	1.970928E-3	-2.058753E-3	6.911586E-3	-8.585046E-4	4.918923E-3	-6.781206E-4	1.739610E-3	-9.576336E-3	-4.639774E-3	3.802077E-4	1.139778E-3	-1.030522E-2	-2.390489E-3	2.980184E-4	3.081378E-3	8.132953E-4	-4.571974E-4	-2.796070E-3	-6.148132E-3	-8.109577E-3	-2.459719E-3	-4.922516E-3	5.397651E-4	-3.248091E-3	1.618204E-3	-1.859295E-3	1.247592E-3	5.359517E-3	-2.949419E-3	-1.890753E-3	-9.033819E-4	6.840224E-3	2.461419E-3	1.057851E-3	-2.759723E-3	9.106431E-4	9.866721E-5	-1.765901E-3	-1.113307E-2	1.463441E-3	-5.414771E-3	-3.042023E-3	-2.897136E-3	-6.598085E-3	-2.542501E-3	2.694227E-3	7.100516E-4	4.107466E-3	-9.310128E-4	-4.629181E-3	-2.013221E-3	2.000572E-3	5.183086E-3	-1.896821E-3	7.800132E-3	-1.098578E-3	-2.794834E-3	-1.737765E-3	5.375976E-3	6.709521E-3	3.330471E-3	-4.833480E-3	-2.680801E-3	-2.489511E-3	7.413231E-3	5.557347E-3	3.561969E-3	-4.800285E-3	9.905619E-5	3.601826E-3	8.790388E-4	-8.934828E-4	6.683136E-3	-3.714245E-3	-7.585803E-4	-5.903974E-3	-6.244232E-3	-1.543769E-3	-1.095227E-3	-4.235350E-3	4.649103E-3	-1.159715E-3	-3.550044E-3	1.235157E-2	8.717119E-4	-5.834920E-3	3.671349E-3	-2.286065E-3	-5.722673E-3	-5.752467E-3	3.016859E-4	3.333693E-3	-6.052435E-3	-4.705155E-3	-6.766503E-3	-2.487270E-3	-9.470350E-4	9.188424E-4	-1.016135E-3	-5.252532E-3	-2.619601E-3	2.942247E-3	8.066240E-4	-3.121749E-3	-7.248583E-5	-1.041062E-4	-1.375205E-3	6.865497E-3	-1.178275E-3	-7.209295E-4	-1.091132E-3	6.737804E-3	-8.544231E-3	-4.563977E-3	1.266675E-2	-4.519430E-3	-6.115189E-4	-1.907984E-3	3.963717E-4	-7.044498E-4	6.261499E-3	1.253269E-2	3.121509E-3	3.192985E-3	-3.892736E-3	-5.889659E-4	7.418093E-3	-2.918107E-3	5.603810E-3	-4.656956E-3	5.475158E-3
5.320020E+2	5.009803E-3	5.742483E-3	5.725184E-3	-1.059256E-4	1.801352E-3	7.100290E-3	1.156747E-3	-5.580363E-3	4.366232E-3	9.443920E-4	1.178573E-2	-2.741271E-3	-6.839067E-4	3.401715E-3	2.622001E-3	3.068866E-3	8.385124E-3	6.299570E-3	2.288924E-3	6.889306E-3	3.458656E-3	8.396388E-3	-2.370637E-4	1.081197E-2	1.953177E-4	-7.142414E-3	9.537528E-3	1.070275E-2	7.111970E-3	-1.063771E-3	1.190972E-2	5.619172E-3	7.158143E-3	4.747827E-3	1.929552E-3	6.555857E-3	3.807110E-3	5.303667E-3	-2.839600E-3	2.916998E-3	4.411588E-3	-9.340071E-4	-1.430804E-3	3.663028E-3	-2.938436E-3	1.265141E-3	8.810245E-3	7.291014E-3	3.802018E-3	7.356756E-3	-8.832908E-4	2.772935E-3	4.768261E-3	4.541042E-3	-3.578386E-3	-1.162052E-8	1.224492E-2	1.141800E-2	5.406344E-4	6.985630E-3	1.172007E-3	1.927678E-3	6.712693E-3	-1.471143E-4	1.663556E-3	7.005526E-3	5.056073E-4	3.763100E-3	4.726908E-3	4.024212E-3	2.280085E-3	1.508624E-3	8.039528E-3	3.745345E-3	-1.517737E-3	6.909088E-4	-2.226615E-3	6.419823E-3	7.471338E-3	8.567689E-3	5.513632E-3	6.415113E-3	5.533879E-3	5.085063E-3	3.131135E-3	1.189275E-2	-4.620892E-3	-9.310128E-4	-1.083393E-3	-1.377457E-3	7.144892E-3	-3.189586E-3	-1.401996E-3	-5.226887E-3	-6.277610E-4	-1.912232E-3	-2.317043E-3	1.118201E-2	1.048370E-3	-1.037208E-2	6.101268E-3	-2.161955E-3	5.236514E-3	-2.523643E-3	1.130633E-2	-2.095249E-3	5.617410E-3	-4.060057E-3	6.548941E-4	1.358513E-3	-2.233676E-3	-3.341597E-3	4.718126E-3	-3.359479E-3	-8.855922E-3	-2.559144E-3	3.087589E-4	1.432223E-3	-6.776988E-4	-4.815150E-3	8.697900E-3	-4.158631E-3	-5.410226E-3	6.101979E-3	5.491686E-3	5.629448E-3	-8.164890E-4	-7.837262E-5	4.267951E-3	9.050909E-4	7.205079E-3	5.379941E-3	2.823082E-3	1.040963E-3	6.040514E-3	1.119225E-3	2.143984E-3	-2.235456E-3	-1.750897E-3	-3.742276E-3	-1.597213E-3	2.258575E-3	-2.161210E-3	1.231639E-3	-1.353339E-3	4.971966E-3	1.193535E-2	9.970180E-4	-2.162955E-3	4.364441E-3	-3.368921E-4	7.415776E-3	-4.564000E-3	-3.141356E-3	7.532397E-3	-8.560979E-3	2.861963E-3	6.104492E-3	6.340152E-3	-2.136275E-3	7.482211E-4	7.803848E-4	4.989014E-3	-1.112195E-3	4.207045E-4	-2.932734E-3	1.459044E-2	2.680109E-3	1.350519E-2	-9.686891E-3
5.325170E+2	2.111294E-2	1.104283E-3	1.167057E-2	-7.415026E-4	1.136260E-2	1.454273E-3	1.717338E-2	1.091089E-2	6.595842E-3	2.077714E-3	7.761331E-3	5.482535E-3	1.937740E-2	9.613462E-3	1.002518E-2	1.848459E-2	6.017551E-3	1.024853E-2	1.352568E-2	9.842004E-4	4.812030E-3	8.396380E-3	6.874782E-3	1.081198E-2	1.308506E-2	1.011839E-2	6.587783E-3	-8.077555E-4	7.991794E-3	1.215745E-2	2.037188E-3	1.159401E-2	-1.883874E-4	4.154317E-3	7.413435E-3	1.072778E-2	5.499149E-3	3.899728E-3	1.541510E-3	8.593310E-3	3.235181E-3	4.109573E-3	8.870933E-3	1.057037E-2	1.424016E-2	5.060597E-3	3.753921E-3	1.988461E-3	1.520820E-3	6.735034E-3	1.207186E-2	1.137846E-2	1.236779E-2	4.541021E-3	1.252443E-2	8.229628E-3	1.831905E-3	-2.927720E-4	8.650193E-3	1.288907E-2	1.382993E-2	1.534428E-2	3.248108E-3	1.088611E-2	8.122122E-3	5.853927E-3	2.325818E-3	-5.085436E-4	8.981093E-3	5.502483E-3	1.393387E-2	6.272649E-3	4.231210E-4	1.025036E-2	1.790952E-2	4.835972E-3	1.297571E-2	1.129559E-2	1.925602E-3	1.350271E-2	3.232143E-3	5.173476E-3	8.087985E-3	1.153922E-2	1.361684E-2	8.165167E-3	8.728368E-3	9.775539E-3	1.428151E-2	9.430314E-3	6.001719E-3	2.790848E-3	1.294772E-2	1.214248E-2	1.773382E-2	9.119898E-3	1.100595E-2	2.150358E-3	7.338573E-3	1.703301E-2	1.085551E-2	8.734261E-3	1.244743E-2	5.047313E-3	5.557344E-3	4.819117E-3	8.681444E-3	3.069807E-3	3.110683E-3	5.673818E-3	4.020638E-3	7.118959E-3	2.911149E-3	8.344463E-3	1.357910E-2	4.196972E-3	1.142389E-2	1.053107E-2	1.101198E-2	5.645349E-3	1.159749E-3	1.044727E-2	8.676731E-3	1.133229E-2	2.917479E-3	1.297218E-2	1.290007E-2	1.026941E-2	4.267951E-3	6.939104E-3	9.140762E-3	1.277743E-2	6.116669E-3	8.328053E-3	4.974516E-3	1.403358E-2	1.531394E-3	1.727408E-2	9.337910E-3	6.361858E-3	7.481725E-3	2.742484E-3	4.562529E-3	1.122942E-2	3.643694E-3	4.337260E-3	6.231720E-3	9.698158E-3	1.033405E-2	1.036554E-2	8.253790E-3	6.448324E-4	1.472931E-2	3.546726E-3	6.929763E-3	8.560967E-3	6.200967E-3	1.419096E-2	8.688380E-3	1.399630E-3	-9.352627E-4	6.048032E-3	6.785102E-3	1.557092E-2	6.478754E-3	5.347909E-3	2.084049E-4	2.680087E-3	5.122641E-3	5.475204E-3
5.330030E+2	8.767203E-3	8.392893E-3	-2.201709E-4	3.707505E-3	8.868384E-3	1.479937E-2	1.397004E-2	1.390932E-2	4.366245E-3	2.304346E-2	9.486112E-3	1.686927E-2	1.345020E-2	7.838683E-3	1.557760E-2	1.591530E-2	1.607970E-2	1.363337E-2	2.039261E-2	1.220394E-2	1.563909E-2	1.492695E-2	1.303832E-2	1.844397E-2	2.714666E-2	2.678391E-2	1.543705E-2	1.373186E-2	1.063127E-2	9.877933E-3	8.618883E-3	1.202075E-2	9.418512E-3	1.602372E-2	1.350665E-2	1.728362E-2	9.306294E-3	2.495834E-3	1.517158E-2	1.663472E-2	1.323480E-2	2.428393E-2	7.726305E-3	1.559391E-2	2.282943E-2	2.071693E-2	1.754388E-2	1.701240E-2	1.406755E-2	2.227750E-2	1.854938E-2	1.768923E-2	1.236775E-2	2.011028E-2	1.106053E-2	2.377444E-2	7.616895E-3	9.075823E-3	4.325107E-3	1.170841E-2	1.945566E-2	3.014881E-2	2.057117E-2	1.662332E-2	1.869067E-2	1.103614E-2	2.052782E-2	2.695189E-2	2.410715E-2	1.190835E-2	4.813530E-3	1.818278E-2	1.438645E-2	2.562585E-2	1.244559E-2	1.845575E-2	8.368969E-3	1.812170E-2	6.084910E-3	2.419520E-2	2.604727E-2	1.448577E-2	1.064207E-2	2.503419E-2	1.536446E-2	4.437642E-3	2.105082E-2	1.256853E-2	6.008064E-3	2.087379E-2	2.486428E-2	2.970298E-2	1.542182E-2	2.758196E-2	1.020090E-2	3.162540E-2	1.332301E-2	1.311732E-2	1.425778E-2	2.160053E-2	9.429225E-3	2.118706E-2	1.656794E-2	2.160882E-2	1.590547E-2	1.864780E-2	9.907075E-3	1.257631E-2	2.717750E-2	1.238648E-2	1.608265E-2	2.629669E-2	1.134346E-2	2.134888E-2	1.771191E-2	1.525234E-2	2.068645E-2	2.215730E-2	2.066863E-2	2.058884E-2	4.638872E-3	8.621597E-3	1.786385E-2	1.590874E-2	2.608544E-2	1.248267E-2	2.269761E-2	2.202825E-2	1.818521E-2	1.840367E-2	1.494785E-2	1.613989E-2	1.082189E-2	1.405351E-2	1.936514E-2	1.558329E-2	2.756476E-3	1.056767E-2	1.867585E-2	9.168569E-3	1.908257E-2	9.034172E-3	1.945088E-2	7.317267E-3	2.488114E-2	1.766636E-2	1.700525E-2	2.274994E-2	1.273733E-2	1.800329E-2	1.886580E-2	1.950669E-2	1.659640E-2	1.084280E-2	1.777644E-2	9.783931E-3	1.907991E-2	1.323957E-2	2.371698E-2	1.244933E-2	1.982792E-2	1.365666E-3	7.383740E-3	1.334649E-2	2.111908E-2	1.466362E-2	2.146873E-2	1.218204E-3	1.490217E-2	2.821835E-2
5.331520E+2	2.916445E-2	1.435620E-2	2.224017E-2	5.614209E-3	2.674365E-2	2.660473E-2	2.411390E-2	2.440380E-2	1.941598E-2	9.444065E-3	1.868470E-2	2.319534E-2	1.299427E-2	1.981858E-2	2.575703E-2	2.362316E-2	1.903914E-2	1.927476E-2	1.290142E-2	2.637620E-2	1.248118E-2	2.005802E-2	2.062426E-2	1.892092E-2	1.777224E-2	2.737912E-2	1.602700E-2	3.069467E-2	1.854973E-2	2.036371E-2	2.225240E-2	2.482396E-2	1.111387E-2	2.017806E-2	2.386514E-2	2.860742E-2	2.115063E-2	2.121463E-2	3.951099E-2	1.143142E-2	1.852876E-2	3.493149E-2	6.581653E-3	2.187335E-2	1.785672E-2	2.925673E-2	2.489848E-2	3.380389E-2	2.034094E-2	2.600764E-2	2.443813E-2	2.285258E-2	2.086126E-2	2.838144E-2	2.277170E-2	2.331723E-2	1.513741E-2	1.961548E-2	1.784103E-2	2.528614E-2	2.695662E-2	1.025520E-2	2.923273E-2	2.765653E-2	3.043350E-2	2.082463E-2	2.841538E-2	2.878259E-2	2.647060E-2	2.225630E-2	2.660098E-2	2.151758E-2	1.819468E-2	9.067619E-3	3.126579E-2	2.970688E-2	2.264991E-2	3.421187E-2	1.625204E-2	2.296144E-2	2.148427E-2	1.262329E-2	2.341255E-2	1.975354E-2	1.842280E-2	2.520560E-2	2.669860E-2	2.560253E-2	1.782721E-2	2.341680E-2	1.800514E-2	4.226194E-2	1.542183E-2	2.565197E-2	1.208415E-2	2.588872E-2	9.847430E-3	7.956417E-3	2.809613E-2	2.673894E-2	1.275719E-2	7.177637E-3	2.223367E-2	2.728706E-2	2.625358E-2	2.241931E-2	2.338883E-2	1.554714E-2	2.324821E-2	1.094804E-2	2.144342E-2	2.716837E-2	3.423120E-2	2.199903E-2	2.892945E-2	2.569353E-2	1.790770E-2	2.064081E-2	2.727585E-2	1.261897E-2	1.739582E-2	3.113908E-2	3.133824E-2	2.375415E-2	1.939244E-2	3.059475E-2	2.955581E-2	3.378714E-2	2.041196E-2	2.021384E-2	1.881921E-2	2.017484E-2	2.728985E-2	2.706611E-2	3.162382E-2	2.643136E-2	2.603369E-2	2.459018E-2	2.859740E-2	2.600882E-2	2.816150E-2	2.064961E-2	1.801008E-2	3.296383E-2	2.987822E-2	2.401353E-2	2.270886E-2	4.395903E-2	1.898579E-2	1.363884E-2	3.099381E-2	2.724489E-2	1.286220E-2	2.482691E-2	1.958417E-2	3.118631E-2	2.909686E-2	3.321795E-2	1.761163E-2	1.598526E-2	2.207256E-2	2.009493E-2	3.073243E-2	1.501481E-2	2.818676E-2	1.000578E-2	1.584106E-2	2.460809E-2	2.188762E-2	2.316432E-2
5.333080E+2	2.218648E-2	2.827062E-2	2.488253E-2	5.614201E-3	1.759814E-2	2.917105E-2	3.212218E-2	3.389876E-2	2.443254E-2	1.907698E-2	3.593217E-2	3.458209E-2	3.351149E-2	1.937486E-2	2.344354E-2	2.233856E-2	2.554991E-2	1.701821E-2	2.164115E-2	3.287178E-2	2.736840E-2	3.125324E-2	4.101147E-2	2.702990E-2	2.245945E-2	3.392638E-2	2.723612E-2	3.190635E-2	2.910769E-2	3.404073E-2	2.460301E-2	3.720034E-2	1.902548E-2	2.551932E-2	2.934906E-2	2.622346E-2	2.622676E-2	2.542637E-2	3.172241E-2	1.474260E-2	2.088164E-2	2.708594E-2	1.230484E-2	3.129250E-2	3.277492E-2	3.779652E-2	2.489850E-2	3.822264E-2	3.516888E-2	2.538593E-2	2.326037E-2	2.744225E-2	3.069588E-2	2.740837E-2	1.886795E-2	1.005841E-2	2.207939E-2	3.074068E-2	3.568212E-2	2.882816E-2	2.601902E-2	3.107406E-2	3.139815E-2	3.162851E-2	2.749782E-2	2.427944E-2	3.751639E-2	1.962910E-2	2.221637E-2	2.816939E-2	2.558761E-2	3.390410E-2	2.454158E-2	2.680855E-2	2.580188E-2	3.148331E-2	2.771731E-2	2.641060E-2	2.087344E-2	4.229017E-2	2.148424E-2	2.131475E-2	1.958142E-2	3.442204E-2	2.017038E-2	2.733564E-2	2.259114E-2	3.118858E-2	2.491874E-2	3.740327E-2	2.200629E-2	2.551663E-2	2.432853E-2	2.999436E-2	2.244195E-2	2.677127E-2	2.780462E-2	3.505121E-2	2.180596E-2	3.073554E-2	2.511815E-2	2.897007E-2	2.583914E-2	2.870664E-2	3.027788E-2	2.996230E-2	2.829132E-2	3.337183E-2	3.110673E-2	1.526334E-2	2.993149E-2	2.847593E-2	2.941271E-2	1.029514E-2	1.298873E-2	1.832327E-2	3.133846E-2	2.468476E-2	2.270163E-2	2.955500E-2	3.595130E-2	3.357338E-2	3.685052E-2	3.029199E-2	3.483781E-2	2.472058E-2	2.563681E-2	4.084244E-2	2.375211E-2	3.167845E-2	3.365953E-2	2.824480E-2	3.434759E-2	3.279164E-2	2.362903E-2	3.314682E-2	2.235830E-2	2.337081E-2	2.743010E-2	3.555170E-2	3.118783E-2	1.919765E-2	2.569438E-2	4.122291E-2	2.613045E-2	2.464832E-2	1.447033E-2	4.232754E-2	2.619567E-2	3.818875E-2	2.897247E-2	2.869577E-2	3.215549E-2	3.333896E-2	2.982821E-2	3.546675E-2	2.384992E-2	2.465577E-2	2.512585E-2	4.515654E-2	3.273470E-2	3.238604E-2	3.192977E-2	3.169799E-2	2.162386E-2	1.414608E-2	3.710136E-2	2.972467E-2	3.865258E-2	4.211363E-4
5.334580E+2	2.755410E-2	2.694547E-2	4.998529E-2	1.069880E-2	1.759814E-2	2.506488E-2	3.158831E-2	3.189983E-2	2.666215E-2	2.247690E-2	3.708198E-2	3.774510E-2	3.031992E-2	4.022874E-2	4.380239E-2	3.090284E-2	2.377427E-2	4.014791E-2	3.225356E-2	3.700541E-2	2.375940E-2	2.612210E-2	3.058082E-2	2.416791E-2	2.949028E-2	2.678391E-2	4.021503E-2	4.159937E-2	3.350682E-2	2.811408E-2	3.917675E-2	4.018784E-2	2.976265E-2	3.382790E-2	4.701938E-2	4.052710E-2	3.384100E-2	3.665762E-2	3.561673E-2	2.373006E-2	2.676382E-2	3.437109E-2	2.718514E-2	2.752483E-2	3.096668E-2	3.874539E-2	3.684979E-2	3.999018E-2	3.288763E-2	3.595480E-2	3.562665E-2	2.916335E-2	2.890777E-2	4.541031E-2	4.326613E-2	3.291846E-2	2.323639E-2	3.483944E-2	3.676338E-2	3.355087E-2	4.477147E-2	2.413446E-2	3.572890E-2	5.104695E-2	3.630494E-2	4.500814E-2	3.569619E-2	4.769973E-2	3.072478E-2	3.211147E-2	2.558760E-2	3.485694E-2	3.088854E-2	3.153951E-2	4.765753E-2	2.437746E-2	3.508816E-2	4.932686E-2	2.179775E-2	4.393517E-2	4.258821E-2	2.752291E-2	3.746007E-2	3.970272E-2	2.716086E-2	3.745340E-2	3.080606E-2	3.863662E-2	3.437406E-2	3.422456E-2	3.801084E-2	4.704630E-2	4.164720E-2	2.999439E-2	4.456996E-2	4.883549E-2	2.143267E-2	3.505126E-2	2.495105E-2	4.101249E-2	2.844616E-2	3.467756E-2	3.305001E-2	4.479498E-2	4.235068E-2	3.939093E-2	2.706564E-2	2.445945E-2	3.208908E-2	3.204498E-2	2.635761E-2	5.244806E-2	3.724277E-2	3.500346E-2	3.719494E-2	3.920561E-2	2.902280E-2	2.519025E-2	3.185002E-2	2.855875E-2	4.870820E-2	4.270214E-2	4.358775E-2	3.813738E-2	3.174872E-2	3.353186E-2	4.866103E-2	4.460529E-2	3.265914E-2	3.650566E-2	3.365949E-2	3.698723E-2	3.293602E-2	3.643512E-2	3.215682E-2	4.502798E-2	3.460948E-2	3.678364E-2	3.968612E-2	3.106094E-2	3.320533E-2	4.146051E-2	3.529973E-2	4.426574E-2	3.425061E-2	1.449276E-2	2.587757E-2	4.667812E-2	2.763762E-2	3.000544E-2	3.200448E-2	5.191036E-2	3.464489E-2	1.996287E-2	4.308527E-2	4.402770E-2	3.959083E-2	2.893684E-2	4.062410E-2	3.587478E-2	2.712306E-2	4.058009E-2	3.911392E-2	3.281015E-2	3.777869E-2	2.346176E-2	2.834713E-2	4.141959E-2	2.607887E-2	3.832655E-2
5.336080E+2	4.526752E-2	3.887214E-2	5.196715E-2	1.260547E-2	3.547343E-2	5.072856E-2	2.624951E-2	4.089506E-2	4.895795E-2	4.287599E-2	3.708202E-2	3.964292E-2	4.035056E-2	4.555300E-2	3.917537E-2	3.732602E-2	4.449045E-2	3.168588E-2	3.724772E-2	6.003549E-2	4.090227E-2	4.244843E-2	4.764919E-2	4.229382E-2	5.116855E-2	5.654383E-2	5.260400E-2	5.492730E-2	4.758417E-2	5.318880E-2	4.528831E-2	4.914990E-2	3.993464E-2	5.163208E-2	4.336343E-2	4.291104E-2	4.906940E-2	3.759358E-2	5.557506E-2	4.407015E-2	4.676317E-2	4.445829E-2	3.576992E-2	5.829407E-2	5.176177E-2	5.629954E-2	5.201881E-2	5.501413E-2	3.345794E-2	3.408972E-2	5.211501E-2	3.719524E-2	4.678885E-2	4.832956E-2	4.424208E-2	3.886212E-2	4.464086E-2	5.006340E-2	4.649484E-2	4.417692E-2	4.008331E-2	3.940166E-2	4.785506E-2	5.237088E-2	3.806633E-2	2.888581E-2	5.268483E-2	4.525883E-2	3.072476E-2	4.689423E-2	5.345531E-2	4.676695E-2	3.913968E-2	3.508771E-2	3.005161E-2	3.740494E-2	4.291965E-2	5.907858E-2	4.120775E-2	3.900018E-2	4.886239E-2	4.676828E-2	5.214620E-2	4.322310E-2	4.114177E-2	4.064848E-2	6.109878E-2	3.630909E-2	4.501130E-2	4.693958E-2	4.887108E-2	4.405606E-2	5.847098E-2	4.060899E-2	4.409923E-2	5.148321E-2	3.243872E-2	5.311445E-2	5.640203E-2	3.758685E-2	3.510210E-2	4.868704E-2	4.026098E-2	3.958991E-2	4.062595E-2	4.756249E-2	3.625776E-2	3.337183E-2	3.994758E-2	3.396288E-2	5.182159E-2	5.157636E-2	5.230045E-2	4.605718E-2	4.191814E-2	5.148947E-2	3.226469E-2	3.732200E-2	4.608088E-2	5.147218E-2	4.464917E-2	3.965917E-2	4.358775E-2	5.186692E-2	5.800580E-2	5.213350E-2	5.062045E-2	6.059732E-2	4.323626E-2	4.314304E-2	4.204757E-2	4.034966E-2	4.987459E-2	4.320171E-2	5.241030E-2	6.000860E-2	4.808573E-2	6.238992E-2	3.676804E-2	3.274491E-2	3.774483E-2	3.565282E-2	4.010246E-2	4.948202E-2	4.799250E-2	4.940231E-2	5.312816E-2	5.701073E-2	4.109590E-2	4.146210E-2	4.160589E-2	5.191035E-2	5.456052E-2	5.036310E-2	6.297074E-2	5.992663E-2	2.480386E-2	3.559632E-2	4.907770E-2	5.222836E-2	4.564156E-2	4.116536E-2	4.450209E-2	6.061544E-2	4.636091E-2	4.364580E-2	4.210378E-2	3.484123E-2	3.446131E-2	4.843459E-2
5.337580E+2	5.117193E-2	5.874992E-2	6.650034E-2	1.006322E-2	4.960743E-2	5.945423E-2	5.988438E-2	5.638690E-2	4.338401E-2	6.440847E-2	6.755246E-2	6.178393E-2	6.861884E-2	4.200353E-2	5.629527E-2	5.531104E-2	6.579855E-2	5.820043E-2	6.721232E-2	5.176821E-2	4.586469E-2	4.991179E-2	5.950217E-2	4.944867E-2	6.757368E-2	5.297268E-2	5.968339E-2	6.280290E-2	5.154335E-2	5.501239E-2	4.857922E-2	5.811224E-2	5.688805E-2	5.103859E-2	6.956432E-2	6.377063E-2	5.456865E-2	5.865220E-2	5.995612E-2	5.447655E-2	4.852782E-2	6.631379E-2	6.037966E-2	7.022502E-2	5.040561E-2	6.151823E-2	6.534886E-2	5.413038E-2	3.916103E-2	8.009531E-2	5.623709E-2	6.415938E-2	3.606021E-2	7.362957E-2	7.254392E-2	5.166369E-2	4.348386E-2	5.708986E-2	5.460445E-2	4.653831E-2	5.133480E-2	5.235550E-2	6.820954E-2	6.516944E-2	5.568055E-2	7.494944E-2	4.358372E-2	6.112488E-2	5.435924E-2	5.083634E-2	5.852219E-2	5.962993E-2	6.198872E-2	6.524740E-2	5.797834E-2	5.753861E-2	5.766118E-2	7.711888E-2	4.767760E-2	7.148876E-2	6.540340E-2	5.608052E-2	5.470020E-2	6.258557E-2	5.381197E-2	6.993666E-2	5.288380E-2	5.679100E-2	6.096720E-2	7.999858E-2	6.544725E-2	7.515450E-2	6.836738E-2	5.170609E-2	5.681104E-2	7.884293E-2	5.155436E-2	6.279126E-2	6.646629E-2	4.900562E-2	4.603683E-2	6.321526E-2	6.086361E-2	6.561521E-2	5.442347E-2	5.007677E-2	4.422423E-2	4.763161E-2	5.615586E-2	7.088248E-2	6.924454E-2	6.072935E-2	3.784502E-2	4.865802E-2	6.789558E-2	4.289078E-2	4.569545E-2	5.956360E-2	6.386947E-2	6.392514E-2	6.668383E-2	6.278531E-2	5.461227E-2	5.644341E-2	5.749087E-2	5.947624E-2	5.943827E-2	6.012708E-2	4.434961E-2	4.133285E-2	6.398536E-2	8.675189E-2	4.705144E-2	5.881672E-2	5.987196E-2	6.414123E-2	5.176108E-2	5.568353E-2	5.077490E-2	6.137337E-2	5.590270E-2	6.420723E-2	6.507654E-2	5.861044E-2	6.673144E-2	8.113828E-2	6.770408E-2	6.734341E-2	5.839942E-2	5.728316E-2	4.463785E-2	6.013219E-2	5.580524E-2	4.975511E-2	4.790601E-2	6.298413E-2	5.008480E-2	6.080701E-2	6.880239E-2	5.709026E-2	5.237572E-2	5.521230E-2	5.228495E-2	4.393230E-2	5.292384E-2	4.985616E-2	6.148824E-2	7.065706E-2	2.188759E-2	4.843469E-2
5.339400E+2	8.230456E-2	6.471320E-2	8.763956E-2	1.133434E-2	8.327937E-2	8.922398E-2	8.551088E-2	7.837530E-2	7.905742E-2	8.367418E-2	7.732601E-2	5.419269E-2	6.953064E-2	7.927411E-2	8.960989E-2	8.228859E-2	6.875799E-2	8.697150E-2	7.657627E-2	8.424640E-2	6.751869E-2	7.276873E-2	7.467422E-2	8.570053E-2	8.925206E-2	8.511340E-2	9.980013E-2	8.824719E-2	9.641444E-2	8.282267E-2	9.559117E-2	9.140047E-2	8.288332E-2	7.833824E-2	8.967206E-2	9.297387E-2	7.064291E-2	9.047384E-2	9.111061E-2	9.373772E-2	8.323257E-2	9.769603E-2	7.411524E-2	9.031921E-2	9.154373E-2	9.330515E-2	8.925163E-2	9.257395E-2	9.448072E-2	7.947364E-2	6.860339E-2	8.079678E-2	6.958717E-2	8.773924E-2	9.840607E-2	9.372612E-2	9.439186E-2	1.033470E-1	7.893315E-2	8.786209E-2	9.399660E-2	1.050965E-1	9.072971E-2	1.000344E-1	8.797321E-2	9.164768E-2	8.787543E-2	7.821131E-2	8.366582E-2	1.006050E-1	8.132308E-2	8.154463E-2	8.991544E-2	8.771943E-2	7.983407E-2	8.655442E-2	8.760522E-2	1.019853E-1	8.880842E-2	8.341510E-2	7.795171E-2	8.712151E-2	8.215683E-2	1.013104E-1	7.871549E-2	8.750944E-2	7.701530E-2	1.014791E-1	7.751396E-2	8.889907E-2	8.716763E-2	1.182137E-1	7.776877E-2	9.126968E-2	8.223466E-2	9.649416E-2	7.877975E-2	9.311158E-2	7.715961E-2	8.497477E-2	7.456232E-2	8.552650E-2	8.610166E-2	1.082019E-1	8.316845E-2	8.339149E-2	8.712062E-2	7.318040E-2	7.432861E-2	8.143096E-2	8.264651E-2	8.731665E-2	7.458590E-2	7.206588E-2	9.210183E-2	8.588396E-2	7.209373E-2	7.523372E-2	8.419915E-2	8.185742E-2	8.349977E-2	7.799984E-2	8.952328E-2	8.847896E-2	9.816383E-2	1.035328E-1	1.098955E-1	9.681485E-2	7.441085E-2	7.753679E-2	9.753740E-2	8.607951E-2	7.340023E-2	1.035797E-1	9.131803E-2	9.410228E-2	7.075033E-2	8.677685E-2	9.279530E-2	7.652964E-2	7.607813E-2	7.388687E-2	8.764908E-2	8.599572E-2	8.359651E-2	8.050355E-2	6.643660E-2	1.043233E-1	6.753184E-2	8.292420E-2	9.466597E-2	8.479751E-2	6.265125E-2	8.197942E-2	1.027418E-1	1.088463E-1	8.299752E-2	7.935834E-2	9.792062E-2	9.200730E-2	8.548447E-2	7.160042E-2	7.144281E-2	7.563025E-2	9.482544E-2	8.453146E-2	8.462445E-2	6.919519E-2	1.029184E-1	6.359687E-2
5.340740E+2	1.123635E-1	1.057941E-1	1.206697E-1	1.451223E-2	1.236026E-1	1.030825E-1	1.138067E-1	8.487168E-2	1.175179E-1	1.222061E-1	1.141204E-1	1.098616E-1	1.224195E-1	1.125518E-1	1.284766E-1	1.212561E-1	1.107824E-1	1.038956E-1	1.159047E-1	1.043240E-1	1.225567E-1	9.842417E-2	1.054919E-1	1.000106E-1	1.449121E-1	1.446333E-1	1.245780E-1	1.451940E-1	1.373267E-1	1.393549E-1	1.299097E-1	1.268227E-1	1.393945E-1	1.169139E-1	1.164821E-1	1.168133E-1	1.294417E-1	1.353992E-1	1.300537E-1	1.221191E-1	1.297014E-1	1.453303E-1	1.073097E-1	1.198327E-1	1.259008E-1	1.303111E-1	1.209681E-1	1.288083E-1	1.178631E-1	1.472387E-1	1.251350E-1	1.278406E-1	1.116076E-1	1.344470E-1	1.310997E-1	1.202437E-1	1.181101E-1	1.279398E-1	1.065057E-1	1.226919E-1	1.221250E-1	1.273036E-1	1.232106E-1	1.044474E-1	1.155690E-1	1.354083E-1	1.436951E-1	1.251990E-1	1.101363E-1	1.474174E-1	1.264178E-1	1.086994E-1	1.127643E-1	1.308891E-1	1.138320E-1	1.072801E-1	1.244595E-1	1.346532E-1	1.304012E-1	1.224837E-1	1.247228E-1	1.001587E-1	1.268536E-1	1.165655E-1	1.036190E-1	1.237207E-1	1.155226E-1	1.289439E-1	1.100167E-1	1.162365E-1	1.340381E-1	1.223998E-1	1.232923E-1	1.457904E-1	1.142497E-1	1.353271E-1	1.216448E-1	1.395600E-1	1.388035E-1	1.414979E-1	1.240061E-1	1.358564E-1	1.303974E-1	1.124606E-1	1.228362E-1	1.512781E-1	1.281788E-1	1.052649E-1	1.209887E-1	1.308169E-1	1.273206E-1	1.348249E-1	9.807597E-2	1.149803E-1	1.357910E-1	1.208927E-1	9.571341E-2	1.065743E-1	1.309574E-1	1.027783E-1	1.345271E-1	1.400751E-1	1.330087E-1	1.257446E-1	1.285393E-1	1.270295E-1	1.255716E-1	1.278581E-1	9.723509E-2	1.016727E-1	1.156039E-1	1.170142E-1	1.115118E-1	1.207563E-1	1.185005E-1	1.457596E-1	1.215925E-1	1.355504E-1	1.330655E-1	1.074034E-1	1.204639E-1	1.130888E-1	1.342355E-1	1.481560E-1	1.160773E-1	1.293768E-1	1.272750E-1	1.162876E-1	1.050228E-1	1.314786E-1	1.179112E-1	1.331613E-1	1.292442E-1	1.245397E-1	1.286531E-1	1.326948E-1	1.192496E-1	1.259742E-1	1.411273E-1	1.167586E-1	1.320615E-1	1.219351E-1	1.361006E-1	1.201185E-1	1.059317E-1	1.181716E-1	1.196417E-1	1.225534E-1	1.322571E-1	9.897516E-2
5.342040E+2	1.563784E-1	1.906057E-1	1.821049E-1	3.612167E-2	1.676676E-1	1.672419E-1	1.746702E-1	1.408422E-1	1.832904E-1	1.726375E-1	1.767860E-1	2.015885E-1	1.898985E-1	1.813248E-1	1.728958E-1	1.820628E-1	1.717471E-1	1.806185E-1	1.814526E-1	1.751854E-1	1.798498E-1	1.819220E-1	1.732912E-1	1.682213E-1	2.269383E-1	2.148667E-1	2.231000E-1	2.275850E-1	2.138721E-1	1.949750E-1	2.004281E-1	1.951064E-1	2.083385E-1	1.916917E-1	1.883825E-1	2.103835E-1	2.055839E-1	2.004470E-1	1.982044E-1	1.888156E-1	1.996993E-1	1.946450E-1	1.902961E-1	2.027210E-1	2.018486E-1	1.862943E-1	1.880791E-1	1.986254E-1	1.931437E-1	2.038131E-1	1.763668E-1	1.961116E-1	1.925195E-1	2.108335E-1	1.979506E-1	1.975109E-1	1.852162E-1	1.882504E-1	1.865198E-1	1.770033E-1	1.901028E-1	1.892974E-1	1.903373E-1	1.785907E-1	1.883743E-1	1.780173E-1	1.898069E-1	1.862225E-1	1.900209E-1	1.942293E-1	1.907669E-1	1.925467E-1	2.105079E-1	1.852946E-1	1.921478E-1	1.925518E-1	1.921788E-1	2.063276E-1	1.927907E-1	1.866390E-1	1.806200E-1	1.920396E-1	2.219935E-1	1.928417E-1	1.617271E-1	2.078576E-1	1.889440E-1	1.959761E-1	1.862504E-1	2.065127E-1	2.037724E-1	1.947635E-1	1.737634E-1	2.123731E-1	1.825172E-1	2.028438E-1	1.691448E-1	2.008453E-1	1.979313E-1	1.980206E-1	1.810568E-1	1.913754E-1	2.014765E-1	1.895899E-1	1.843499E-1	1.883641E-1	1.937491E-1	1.421024E-1	1.990831E-1	1.720515E-1	1.903110E-1	1.954091E-1	1.661365E-1	1.806520E-1	1.812515E-1	2.081073E-1	1.698141E-1	1.727933E-1	1.955049E-1	2.048927E-1	1.971520E-1	1.826756E-1	1.942567E-1	1.970069E-1	2.124591E-1	1.960511E-1	2.255062E-1	2.219292E-1	1.668211E-1	1.801144E-1	1.878697E-1	1.903164E-1	1.703262E-1	1.951884E-1	2.032448E-1	1.948341E-1	1.699846E-1	1.727404E-1	2.007652E-1	1.483813E-1	1.890608E-1	1.982683E-1	1.909072E-1	1.911901E-1	1.897838E-1	1.966569E-1	1.741719E-1	1.777393E-1	1.699114E-1	1.871250E-1	2.028075E-1	1.965177E-1	1.721875E-1	1.810843E-1	1.931307E-1	1.889526E-1	2.103560E-1	1.978015E-1	1.848044E-1	1.790793E-1	1.864948E-1	1.775377E-1	1.827980E-1	1.673873E-1	1.665123E-1	1.761355E-1	2.028073E-1	1.781040E-1	1.490220E-1	1.621506E-1
5.343550E+2	2.610484E-1	3.363769E-1	3.049768E-1	5.900219E-2	3.036028E-1	2.950470E-1	2.819815E-1	2.427885E-1	3.181802E-1	2.984321E-1	3.038427E-1	3.091304E-1	2.911171E-1	3.006803E-1	3.251246E-1	2.976806E-1	3.191277E-1	2.838561E-1	3.075540E-1	3.027355E-1	3.178947E-1	3.153314E-1	3.027261E-1	3.032117E-1	4.384482E-1	3.660470E-1	3.623283E-1	3.917611E-1	3.656427E-1	3.554530E-1	3.560384E-1	3.581337E-1	3.490516E-1	3.139466E-1	3.632579E-1	3.569964E-1	3.582913E-1	3.483252E-1	3.544637E-1	3.160590E-1	3.155782E-1	3.694894E-1	2.978922E-1	3.345890E-1	3.275233E-1	3.623089E-1	3.305755E-1	3.011417E-1	3.573919E-1	3.200704E-1	3.135736E-1	3.309321E-1	3.395917E-1	3.164126E-1	3.301887E-1	3.236981E-1	3.130642E-1	3.287790E-1	3.005946E-1	3.222263E-1	3.209011E-1	3.174491E-1	3.375841E-1	3.202571E-1	3.451416E-1	3.461501E-1	3.384570E-1	3.400008E-1	3.578257E-1	3.395931E-1	3.336524E-1	3.111717E-1	3.704511E-1	3.207177E-1	3.427093E-1	3.311181E-1	3.248533E-1	3.608906E-1	3.268120E-1	3.042562E-1	3.157991E-1	3.478654E-1	3.426745E-1	3.336588E-1	3.408579E-1	3.479086E-1	3.142223E-1	3.342299E-1	3.363539E-1	3.431991E-1	3.358104E-1	2.928432E-1	3.296309E-1	3.209316E-1	3.449465E-1	3.193430E-1	3.064298E-1	3.440616E-1	3.287669E-1	2.893714E-1	3.027655E-1	3.283561E-1	3.338485E-1	3.182963E-1	2.947299E-1	3.310519E-1	3.114079E-1	2.722233E-1	3.292402E-1	3.307583E-1	3.122706E-1	3.130902E-1	3.070775E-1	3.132967E-1	3.229467E-1	3.162045E-1	2.550300E-1	3.441542E-1	3.169751E-1	3.274299E-1	3.693706E-1	3.421240E-1	3.363503E-1	3.258028E-1	3.540416E-1	3.360527E-1	3.514041E-1	3.470434E-1	2.709223E-1	2.845028E-1	3.214320E-1	3.591127E-1	2.945422E-1	3.393672E-1	3.338268E-1	3.368921E-1	3.212865E-1	2.855305E-1	3.081514E-1	2.797355E-1	3.171746E-1	3.429769E-1	3.071317E-1	3.320295E-1	2.878512E-1	3.458160E-1	3.440129E-1	3.278347E-1	2.881524E-1	3.158757E-1	3.311622E-1	3.232308E-1	2.711426E-1	3.470695E-1	3.449836E-1	3.687319E-1	3.243586E-1	3.300385E-1	3.388475E-1	3.532228E-1	3.004112E-1	2.717692E-1	3.091199E-1	2.697108E-1	2.912070E-1	3.024150E-1	3.303691E-1	3.352556E-1	3.166713E-1	3.693670E-1
5.345110E+2	4.950794E-1	5.358167E-1	5.368470E-1	7.743369E-2	5.048035E-1	5.773476E-1	5.083488E-1	4.396844E-1	5.099251E-1	5.494554E-1	5.108114E-1	5.178884E-1	5.350445E-1	5.518139E-1	5.476839E-1	5.254905E-1	5.452302E-1	5.112044E-1	5.447739E-1	5.513415E-1	5.434585E-1	5.355038E-1	5.298303E-1	5.865490E-1	6.353103E-1	6.255536E-1	6.437354E-1	6.213654E-1	6.238729E-1	5.984501E-1	6.155452E-1	6.163312E-1	5.954410E-1	6.005937E-1	6.216108E-1	5.328121E-1	5.943321E-1	5.579758E-1	5.730317E-1	5.317583E-1	5.685107E-1	6.082190E-1	5.222406E-1	6.159079E-1	5.490364E-1	5.739060E-1	5.801728E-1	5.658284E-1	6.014828E-1	5.842916E-1	5.679651E-1	6.131958E-1	6.185369E-1	5.441128E-1	5.858819E-1	5.637287E-1	6.115696E-1	5.430856E-1	5.601010E-1	6.168047E-1	5.885920E-1	6.001235E-1	5.814063E-1	5.435688E-1	6.034837E-1	5.879851E-1	5.926784E-1	5.529717E-1	6.343488E-1	6.165237E-1	5.424070E-1	5.407985E-1	5.983075E-1	5.625865E-1	5.843366E-1	5.342305E-1	5.961916E-1	6.202831E-1	6.221213E-1	5.213963E-1	5.810254E-1	5.744636E-1	5.795674E-1	5.912382E-1	5.763488E-1	6.019168E-1	5.611843E-1	5.586014E-1	5.839651E-1	5.479107E-1	5.884537E-1	5.589739E-1	5.775354E-1	5.568660E-1	6.198996E-1	5.541065E-1	5.699944E-1	5.853340E-1	5.438914E-1	5.816914E-1	6.018065E-1	5.628836E-1	6.042575E-1	5.425869E-1	5.471095E-1	5.541974E-1	5.412117E-1	4.908730E-1	5.969219E-1	5.728934E-1	5.963961E-1	5.554266E-1	5.678767E-1	5.603802E-1	5.632380E-1	5.661781E-1	5.713475E-1	5.812295E-1	5.649986E-1	5.565640E-1	6.326272E-1	6.068564E-1	5.966519E-1	5.683568E-1	5.826324E-1	5.651466E-1	6.007511E-1	5.906869E-1	4.735575E-1	4.914686E-1	5.601677E-1	5.958301E-1	5.476793E-1	5.506917E-1	5.678077E-1	6.194573E-1	5.650839E-1	5.757352E-1	5.538555E-1	4.767667E-1	5.507046E-1	5.772209E-1	5.578325E-1	5.650220E-1	5.239614E-1	5.470219E-1	5.759601E-1	5.453640E-1	4.881043E-1	5.570104E-1	5.762494E-1	5.510238E-1	5.412490E-1	5.592636E-1	5.420305E-1	5.191603E-1	5.418698E-1	5.440923E-1	5.731988E-1	5.481400E-1	5.187059E-1	4.824736E-1	5.791258E-1	4.565617E-1	4.875896E-1	5.503161E-1	5.629821E-1	5.581910E-1	5.304255E-1	5.765833E-1
5.346620E+2	7.618538E-1	9.346978E-1	9.048007E-1	1.320928E-1	8.269750E-1	8.442501E-1	8.398935E-1	6.975490E-1	8.861673E-1	8.724423E-1	8.149415E-1	8.702468E-1	9.111935E-1	8.814827E-1	9.035009E-1	8.650643E-1	8.867516E-1	8.175324E-1	8.768817E-1	9.062394E-1	9.196992E-1	8.377738E-1	8.550775E-1	8.880117E-1	1.007941E+0	9.273202E-1	9.776478E-1	9.624390E-1	9.577681E-1	9.312601E-1	9.742484E-1	9.304360E-1	9.520281E-1	9.228484E-1	9.354117E-1	8.898088E-1	9.357017E-1	9.192485E-1	8.816563E-1	9.158538E-1	9.337932E-1	9.584682E-1	8.433115E-1	9.399267E-1	9.120472E-1	9.453874E-1	9.400907E-1	8.861914E-1	9.813063E-1	9.367943E-1	8.317791E-1	9.207008E-1	9.471023E-1	9.090172E-1	9.528302E-1	8.718820E-1	9.262735E-1	9.236850E-1	8.552898E-1	9.308650E-1	9.022264E-1	9.831908E-1	8.707023E-1	8.317564E-1	9.481357E-1	8.545789E-1	9.069678E-1	8.641895E-1	9.798848E-1	9.304115E-1	9.178609E-1	8.866682E-1	9.321579E-1	8.925685E-1	9.012448E-1	9.072937E-1	8.776651E-1	9.596388E-1	9.673419E-1	8.602658E-1	9.700234E-1	8.476235E-1	9.760910E-1	9.473887E-1	9.088332E-1	9.336726E-1	8.764339E-1	8.690910E-1	9.243573E-1	9.115597E-1	9.114029E-1	8.759387E-1	9.268769E-1	8.994289E-1	9.216885E-1	9.358168E-1	9.256610E-1	9.478894E-1	8.835621E-1	8.899989E-1	9.236681E-1	9.167507E-1	9.277191E-1	8.723975E-1	9.041202E-1	9.131162E-1	9.205392E-1	8.194420E-1	9.092994E-1	9.205133E-1	9.528938E-1	8.884208E-1	9.075791E-1	8.880901E-1	9.405010E-1	8.990686E-1	9.159157E-1	8.804799E-1	8.867175E-1	8.758577E-1	1.012434E+0	8.642866E-1	9.335124E-1	9.011331E-1	9.770039E-1	9.053604E-1	9.921619E-1	9.406310E-1	8.738175E-1	8.124769E-1	9.292389E-1	9.065236E-1	9.109160E-1	9.192069E-1	9.318372E-1	8.978904E-1	9.271058E-1	8.433822E-1	8.841833E-1	7.714713E-1	9.254636E-1	9.314908E-1	8.969023E-1	9.145110E-1	9.012387E-1	8.935787E-1	9.055031E-1	8.868840E-1	9.101177E-1	9.438083E-1	9.153286E-1	8.977916E-1	9.215129E-1	8.766427E-1	9.084055E-1	9.490424E-1	8.972332E-1	9.070320E-1	9.259007E-1	9.004049E-1	9.160118E-1	7.552186E-1	8.365601E-1	7.685368E-1	8.763148E-1	8.618745E-1	9.119020E-1	8.717609E-1	9.705064E-1	8.570827E-1
5.348020E+2	1.083378E+0	1.270632E+0	1.224530E+0	1.899297E-1	1.184479E+0	1.194816E+0	1.168233E+0	1.017880E+0	1.238442E+0	1.167664E+0	1.148967E+0	1.243481E+0	1.223512E+0	1.251529E+0	1.192225E+0	1.222197E+0	1.214067E+0	1.192121E+0	1.226469E+0	1.205039E+0	1.255339E+0	1.148440E+0	1.179851E+0	1.227633E+0	1.327843E+0	1.255869E+0	1.267314E+0	1.335621E+0	1.310579E+0	1.256775E+0	1.355988E+0	1.240274E+0	1.292793E+0	1.276558E+0	1.293694E+0	1.216410E+0	1.274959E+0	1.221088E+0	1.246260E+0	1.230415E+0	1.245548E+0	1.309841E+0	1.124893E+0	1.277761E+0	1.237083E+0	1.311649E+0	1.239791E+0	1.168995E+0	1.275584E+0	1.222775E+0	1.221023E+0	1.208128E+0	1.295785E+0	1.191698E+0	1.251952E+0	1.210668E+0	1.289571E+0	1.191860E+0	1.226167E+0	1.295694E+0	1.286650E+0	1.254763E+0	1.251378E+0	1.194970E+0	1.272826E+0	1.282974E+0	1.274042E+0	1.169305E+0	1.309347E+0	1.249718E+0	1.225419E+0	1.222532E+0	1.300917E+0	1.244431E+0	1.244865E+0	1.206929E+0	1.230081E+0	1.308259E+0	1.323192E+0	1.188032E+0	1.244376E+0	1.264813E+0	1.261511E+0	1.312929E+0	1.306414E+0	1.216969E+0	1.226595E+0	1.226596E+0	1.208609E+0	1.300639E+0	1.308658E+0	1.232973E+0	1.268302E+0	1.293135E+0	1.275267E+0	1.212945E+0	1.249469E+0	1.300122E+0	1.248393E+0	1.218290E+0	1.326351E+0	1.248308E+0	1.261997E+0	1.152997E+0	1.193293E+0	1.239349E+0	1.233071E+0	1.134346E+0	1.221185E+0	1.270531E+0	1.295542E+0	1.221850E+0	1.247281E+0	1.221652E+0	1.182564E+0	1.262668E+0	1.304484E+0	1.231290E+0	1.284166E+0	1.219560E+0	1.353390E+0	1.266559E+0	1.278335E+0	1.256792E+0	1.309593E+0	1.250960E+0	1.295884E+0	1.259531E+0	1.077565E+0	1.128658E+0	1.227982E+0	1.310693E+0	1.311325E+0	1.201840E+0	1.227111E+0	1.365390E+0	1.259112E+0	1.192725E+0	1.192335E+0	1.029688E+0	1.262392E+0	1.244621E+0	1.195628E+0	1.197493E+0	1.248534E+0	1.186819E+0	1.171038E+0	1.193057E+0	1.255227E+0	1.250954E+0	1.199325E+0	1.201031E+0	1.247009E+0	1.164836E+0	1.253088E+0	1.237668E+0	1.261184E+0	1.224784E+0	1.289404E+0	1.193002E+0	1.295923E+0	1.073031E+0	1.173019E+0	1.030462E+0	1.298360E+0	1.177057E+0	1.228306E+0	1.144400E+0	1.263893E+0	1.402918E+0
5.349580E+2	1.484343E+0	1.682101E+0	1.675058E+0	2.839942E-1	1.565265E+0	1.575152E+0	1.593742E+0	1.318219E+0	1.552813E+0	1.594912E+0	1.518063E+0	1.591409E+0	1.662580E+0	1.671270E+0	1.622078E+0	1.560913E+0	1.617736E+0	1.512554E+0	1.666574E+0	1.614856E+0	1.678948E+0	1.573392E+0	1.518846E+0	1.620682E+0	1.708092E+0	1.613584E+0	1.640165E+0	1.683966E+0	1.649315E+0	1.653414E+0	1.663443E+0	1.664060E+0	1.700237E+0	1.643918E+0	1.606277E+0	1.482222E+0	1.677243E+0	1.590316E+0	1.630825E+0	1.571466E+0	1.610829E+0	1.710523E+0	1.519793E+0	1.595499E+0	1.610039E+0	1.641855E+0	1.653950E+0	1.548127E+0	1.741526E+0	1.610714E+0	1.648542E+0	1.634391E+0	1.646700E+0	1.624717E+0	1.637443E+0	1.601576E+0	1.660968E+0	1.628088E+0	1.532708E+0	1.616247E+0	1.584347E+0	1.660038E+0	1.604335E+0	1.565685E+0	1.717878E+0	1.585267E+0	1.597432E+0	1.540935E+0	1.711607E+0	1.630128E+0	1.575541E+0	1.522192E+0	1.652542E+0	1.654838E+0	1.674693E+0	1.631509E+0	1.624421E+0	1.756347E+0	1.626819E+0	1.623957E+0	1.627669E+0	1.577086E+0	1.608230E+0	1.663797E+0	1.618801E+0	1.608365E+0	1.647614E+0	1.641825E+0	1.624052E+0	1.615337E+0	1.637897E+0	1.573262E+0	1.605771E+0	1.631353E+0	1.641085E+0	1.583624E+0	1.658427E+0	1.726544E+0	1.622034E+0	1.619087E+0	1.661047E+0	1.700754E+0	1.671473E+0	1.483279E+0	1.584797E+0	1.620900E+0	1.616691E+0	1.447467E+0	1.642601E+0	1.663220E+0	1.607365E+0	1.589713E+0	1.570117E+0	1.560416E+0	1.580491E+0	1.588188E+0	1.618482E+0	1.585636E+0	1.634854E+0	1.652922E+0	1.684493E+0	1.659704E+0	1.703392E+0	1.584992E+0	1.765748E+0	1.571594E+0	1.715218E+0	1.591602E+0	1.497865E+0	1.422515E+0	1.580923E+0	1.722260E+0	1.637389E+0	1.528194E+0	1.626849E+0	1.738356E+0	1.643186E+0	1.589623E+0	1.595618E+0	1.346847E+0	1.668421E+0	1.676812E+0	1.539020E+0	1.620880E+0	1.631432E+0	1.593675E+0	1.587403E+0	1.550349E+0	1.679166E+0	1.653574E+0	1.626838E+0	1.628081E+0	1.502176E+0	1.516264E+0	1.612231E+0	1.568488E+0	1.602238E+0	1.591053E+0	1.592324E+0	1.586814E+0	1.684252E+0	1.397868E+0	1.454402E+0	1.301284E+0	1.667900E+0	1.494305E+0	1.622871E+0	1.466011E+0	1.681620E+0	1.756704E+0
5.351040E+2	1.664699E+0	1.976291E+0	1.945243E+0	3.170443E-1	1.826744E+0	1.787133E+0	1.851075E+0	1.472641E+0	1.882236E+0	1.875972E+0	1.756077E+0	1.917198E+0	1.915170E+0	1.875815E+0	1.841397E+0	1.818697E+0	1.862779E+0	1.755696E+0	1.885688E+0	1.801457E+0	1.920753E+0	1.794961E+0	1.809009E+0	1.906402E+0	1.846950E+0	1.802854E+0	1.814789E+0	1.939618E+0	1.872350E+0	1.863128E+0	1.916373E+0	1.830497E+0	1.875427E+0	1.808310E+0	1.859148E+0	1.770081E+0	1.876061E+0	1.796226E+0	1.845987E+0	1.796627E+0	1.809058E+0	1.915630E+0	1.784204E+0	1.788906E+0	1.822514E+0	1.907064E+0	1.814372E+0	1.706323E+0	1.906344E+0	1.851932E+0	1.879970E+0	1.821993E+0	1.909999E+0	1.860687E+0	1.875568E+0	1.818287E+0	1.934597E+0	1.900949E+0	1.815464E+0	1.801615E+0	1.786873E+0	1.929294E+0	1.852491E+0	1.748835E+0	1.966240E+0	1.830553E+0	1.778845E+0	1.804555E+0	1.934245E+0	1.905090E+0	1.886137E+0	1.764205E+0	1.861356E+0	1.820422E+0	1.873824E+0	1.892061E+0	1.816062E+0	1.966492E+0	1.963260E+0	1.779822E+0	1.854110E+0	1.820446E+0	1.887266E+0	1.839821E+0	1.852981E+0	1.895391E+0	1.771860E+0	1.891332E+0	1.898849E+0	1.907780E+0	1.845383E+0	1.743706E+0	1.875938E+0	1.849438E+0	1.860484E+0	1.737191E+0	1.953852E+0	1.916206E+0	1.835899E+0	1.829195E+0	1.897334E+0	1.822172E+0	1.888830E+0	1.756310E+0	1.820504E+0	1.845300E+0	1.861813E+0	1.627497E+0	1.854779E+0	1.807545E+0	1.910701E+0	1.755339E+0	1.832728E+0	1.815301E+0	1.823733E+0	1.808681E+0	1.878762E+0	1.857085E+0	1.886434E+0	1.799369E+0	1.984860E+0	1.774722E+0	1.938578E+0	1.768050E+0	1.974774E+0	1.853065E+0	1.916066E+0	1.886044E+0	1.672109E+0	1.602326E+0	1.807398E+0	1.954944E+0	1.855237E+0	1.848303E+0	1.814994E+0	1.980631E+0	1.823276E+0	1.759111E+0	1.740940E+0	1.561279E+0	1.876230E+0	1.831201E+0	1.701831E+0	1.824313E+0	1.908768E+0	1.791071E+0	1.774991E+0	1.700989E+0	1.842588E+0	1.896890E+0	1.822404E+0	1.799289E+0	1.801536E+0	1.752173E+0	1.750229E+0	1.778231E+0	1.795898E+0	1.766576E+0	1.824329E+0	1.779963E+0	1.894687E+0	1.541851E+0	1.763319E+0	1.523728E+0	1.889525E+0	1.711155E+0	1.771696E+0	1.717453E+0	1.934492E+0	2.019514E+0
5.352550E+2	1.832709E+0	2.159172E+0	2.115017E+0	3.278485E-1	1.936493E+0	2.007329E+0	2.006970E+0	1.651542E+0	1.980897E+0	2.043125E+0	1.922805E+0	2.022206E+0	2.059250E+0	2.011586E+0	2.059793E+0	1.963863E+0	2.032062E+0	1.909709E+0	2.013664E+0	1.962664E+0	2.069176E+0	1.942366E+0	1.949346E+0	2.021358E+0	1.971161E+0	1.835593E+0	2.001805E+0	2.071084E+0	1.955494E+0	1.968440E+0	2.028729E+0	1.975601E+0	1.967535E+0	1.927002E+0	1.965775E+0	1.880338E+0	1.979696E+0	1.931465E+0	1.998349E+0	1.987257E+0	1.931407E+0	2.061332E+0	1.828272E+0	2.043224E+0	1.938245E+0	2.055561E+0	1.995480E+0	1.848166E+0	2.083710E+0	1.990571E+0	1.978310E+0	2.050902E+0	2.028908E+0	1.990594E+0	1.985360E+0	1.981968E+0	1.946167E+0	1.966527E+0	1.932239E+0	1.981077E+0	1.938300E+0	2.051891E+0	2.004932E+0	1.898006E+0	2.123006E+0	2.002143E+0	1.967538E+0	1.885106E+0	2.092124E+0	2.010046E+0	1.948461E+0	1.920946E+0	2.031453E+0	2.017344E+0	1.970964E+0	1.963716E+0	2.006780E+0	2.088874E+0	2.049221E+0	1.887567E+0	1.959627E+0	1.986204E+0	2.014330E+0	1.979463E+0	2.023374E+0	2.002426E+0	1.954133E+0	1.936952E+0	1.924257E+0	1.955464E+0	2.031725E+0	1.891423E+0	1.957091E+0	2.013483E+0	2.069994E+0	1.857661E+0	2.001930E+0	2.051033E+0	1.910747E+0	1.933673E+0	2.053748E+0	2.027126E+0	2.006266E+0	1.818294E+0	1.945256E+0	2.009987E+0	2.015627E+0	1.762368E+0	1.954488E+0	1.966249E+0	1.968331E+0	1.910506E+0	2.026068E+0	1.897878E+0	1.896943E+0	1.882996E+0	2.028353E+0	1.926341E+0	2.026712E+0	1.967731E+0	2.148382E+0	1.965209E+0	2.037189E+0	2.029562E+0	2.135917E+0	1.937261E+0	2.117409E+0	2.014919E+0	1.807943E+0	1.858168E+0	2.044841E+0	2.141224E+0	2.031681E+0	1.833210E+0	1.936515E+0	2.069994E+0	1.985604E+0	1.877995E+0	1.931196E+0	1.715090E+0	1.948862E+0	2.008818E+0	1.868485E+0	1.869955E+0	1.983101E+0	1.942767E+0	1.882726E+0	1.894587E+0	2.133382E+0	1.958537E+0	1.875461E+0	1.924552E+0	1.875599E+0	1.841549E+0	1.949084E+0	1.917040E+0	1.873648E+0	1.945905E+0	1.988700E+0	1.917420E+0	2.108495E+0	1.844443E+0	1.883057E+0	1.603248E+0	2.052586E+0	1.905753E+0	1.922392E+0	1.781042E+0	2.014126E+0	1.984136E+0
5.354110E+2	1.722131E+0	2.210852E+0	1.978276E+0	3.164085E-1	1.792240E+0	2.232654E+0	1.890046E+0	1.556595E+0	1.839871E+0	1.950201E+0	1.825640E+0	1.936180E+0	1.961677E+0	1.939261E+0	1.887666E+0	1.889353E+0	1.890006E+0	1.988122E+0	1.903174E+0	1.897709E+0	1.932028E+0	2.002075E+0	1.860214E+0	1.975569E+0	1.834648E+0	1.874874E+0	1.892661E+0	1.942045E+0	1.867071E+0	1.849906E+0	1.924831E+0	1.909025E+0	1.854516E+0	1.854601E+0	1.885957E+0	1.802860E+0	1.881981E+0	1.870160E+0	1.819696E+0	1.829737E+0	1.847879E+0	1.914510E+0	1.684620E+0	1.844795E+0	1.837431E+0	1.906117E+0	1.870909E+0	1.824747E+0	1.961664E+0	1.855662E+0	1.894691E+0	1.888542E+0	1.961854E+0	1.874310E+0	1.927293E+0	1.816460E+0	1.880218E+0	1.836539E+0	1.798163E+0	1.849432E+0	1.882041E+0	1.901537E+0	1.817409E+0	1.783259E+0	1.958020E+0	1.884106E+0	1.843159E+0	1.811269E+0	2.014130E+0	1.890797E+0	1.871952E+0	1.822802E+0	1.921649E+0	1.871872E+0	1.982497E+0	1.881996E+0	1.911420E+0	1.927486E+0	1.925827E+0	1.816420E+0	1.912857E+0	1.889977E+0	1.908974E+0	1.853905E+0	1.863030E+0	1.888471E+0	1.828858E+0	1.893658E+0	1.860435E+0	1.930032E+0	1.871105E+0	1.860919E+0	1.881379E+0	1.860536E+0	1.951820E+0	1.662172E+0	1.878550E+0	2.002651E+0	1.791866E+0	1.865165E+0	1.961993E+0	1.985096E+0	1.829599E+0	1.796057E+0	1.871670E+0	1.924497E+0	1.852619E+0	1.638193E+0	1.867059E+0	1.870834E+0	1.904001E+0	1.806769E+0	1.844168E+0	1.771737E+0	1.836721E+0	1.834474E+0	1.893581E+0	1.793900E+0	1.899140E+0	1.869108E+0	2.027187E+0	1.927478E+0	2.014533E+0	1.854351E+0	1.944912E+0	1.941175E+0	1.919497E+0	1.860644E+0	1.735577E+0	1.646377E+0	1.905474E+0	1.937458E+0	1.946048E+0	1.854547E+0	1.861898E+0	1.989409E+0	1.877181E+0	1.810936E+0	1.809221E+0	1.601700E+0	1.859585E+0	1.868951E+0	1.766188E+0	1.801710E+0	1.851306E+0	1.862159E+0	1.875753E+0	1.830958E+0	1.895458E+0	1.841791E+0	1.829476E+0	1.838463E+0	1.898621E+0	1.787435E+0	1.833384E+0	1.859561E+0	1.790174E+0	1.833644E+0	1.822917E+0	1.776870E+0	1.912086E+0	1.911749E+0	1.795051E+0	1.524283E+0	1.907699E+0	1.831745E+0	1.817343E+0	1.713800E+0	1.874417E+0	1.948758E+0
5.355580E+2	1.514405E+0	1.969004E+0	1.832943E+0	2.871722E-1	1.628038E+0	1.991933E+0	1.674892E+0	1.382685E+0	1.658719E+0	1.810238E+0	1.627870E+0	1.755887E+0	1.756050E+0	1.717856E+0	1.674824E+0	1.687235E+0	1.734930E+0	1.816060E+0	1.717767E+0	1.706975E+0	1.757895E+0	1.920907E+0	1.656340E+0	1.736115E+0	1.678212E+0	1.708816E+0	1.647831E+0	1.673668E+0	1.710466E+0	1.692165E+0	1.674728E+0	1.729355E+0	1.666896E+0	1.850444E+0	1.611151E+0	1.629428E+0	1.682319E+0	1.876246E+0	1.596748E+0	1.590858E+0	1.615535E+0	1.860708E+0	1.606212E+0	1.702249E+0	1.613660E+0	1.762361E+0	1.648894E+0	1.583040E+0	1.764339E+0	1.809034E+0	1.634997E+0	1.699219E+0	1.724036E+0	1.927829E+0	1.681358E+0	1.694388E+0	1.665594E+0	1.737581E+0	1.604074E+0	1.669970E+0	1.667794E+0	1.717865E+0	1.722565E+0	1.601874E+0	1.787747E+0	1.701003E+0	1.662961E+0	1.700819E+0	1.729569E+0	1.850886E+0	1.674847E+0	1.600323E+0	1.767420E+0	1.708654E+0	1.727511E+0	1.624405E+0	1.652524E+0	1.806569E+0	1.722021E+0	1.621901E+0	1.658470E+0	1.684487E+0	1.724443E+0	1.671425E+0	1.659434E+0	1.682382E+0	1.652231E+0	1.663234E+0	1.744015E+0	1.689087E+0	1.699058E+0	1.600771E+0	1.699783E+0	1.689736E+0	1.731010E+0	1.591568E+0	1.738944E+0	1.740736E+0	1.721415E+0	1.672757E+0	1.755659E+0	1.728777E+0	1.704952E+0	1.534858E+0	1.656084E+0	1.712040E+0	1.689002E+0	1.516392E+0	1.655864E+0	1.692948E+0	1.694032E+0	1.642889E+0	1.610476E+0	1.613734E+0	1.590527E+0	1.661891E+0	1.710648E+0	1.685726E+0	1.729897E+0	1.705226E+0	1.839897E+0	1.681001E+0	1.781788E+0	1.656909E+0	1.777591E+0	1.659704E+0	1.744122E+0	1.677677E+0	1.559101E+0	1.595086E+0	1.682870E+0	1.795561E+0	1.723965E+0	1.626568E+0	1.641775E+0	1.672235E+0	1.723432E+0	1.592062E+0	1.664485E+0	1.435538E+0	1.705747E+0	1.731018E+0	1.657170E+0	1.633486E+0	1.741369E+0	1.588597E+0	1.610215E+0	1.598748E+0	1.739727E+0	1.718495E+0	1.639979E+0	1.657585E+0	1.685152E+0	1.660968E+0	1.678517E+0	1.646145E+0	1.636580E+0	1.621496E+0	1.698934E+0	1.565157E+0	1.765620E+0	1.712169E+0	1.596290E+0	1.385812E+0	1.712324E+0	1.635078E+0	1.697909E+0	1.514253E+0	1.831108E+0	1.756703E+0
5.357090E+2	1.438181E+0	1.777516E+0	1.563420E+0	2.509443E-1	1.418525E+0	1.812798E+0	1.512591E+0	1.243262E+0	1.499302E+0	1.598314E+0	1.481844E+0	1.547760E+0	1.587349E+0	1.557237E+0	1.571640E+0	1.504817E+0	1.496990E+0	1.611278E+0	1.511136E+0	1.542223E+0	1.481353E+0	1.728257E+0	1.511734E+0	1.532435E+0	1.429791E+0	1.566565E+0	1.465539E+0	1.542813E+0	1.470706E+0	1.476063E+0	1.537923E+0	1.481401E+0	1.481538E+0	1.648072E+0	1.502690E+0	1.449441E+0	1.514807E+0	1.725563E+0	1.511561E+0	1.375635E+0	1.459659E+0	1.644395E+0	1.406472E+0	1.543382E+0	1.497475E+0	1.546970E+0	1.503639E+0	1.446939E+0	1.560166E+0	1.610715E+0	1.504861E+0	1.516779E+0	1.514379E+0	1.786249E+0	1.474952E+0	1.457098E+0	1.485681E+0	1.655022E+0	1.485135E+0	1.468660E+0	1.467144E+0	1.560104E+0	1.505162E+0	1.364884E+0	1.567571E+0	1.641697E+0	1.488827E+0	1.490288E+0	1.607143E+0	1.809000E+0	1.542096E+0	1.477412E+0	1.596687E+0	1.628227E+0	1.593344E+0	1.448530E+0	1.536893E+0	1.625188E+0	1.586615E+0	1.454932E+0	1.513595E+0	1.607507E+0	1.560977E+0	1.513005E+0	1.510013E+0	1.739366E+0	1.499231E+0	1.457949E+0	1.512950E+0	1.640769E+0	1.561304E+0	1.442288E+0	1.494431E+0	1.554641E+0	1.492781E+0	1.391665E+0	1.518247E+0	1.574295E+0	1.462257E+0	1.512891E+0	1.565965E+0	1.672738E+0	1.541680E+0	1.401894E+0	1.401406E+0	1.578153E+0	1.527220E+0	1.295957E+0	1.489850E+0	1.490132E+0	1.486299E+0	1.464622E+0	1.509286E+0	1.471986E+0	1.444700E+0	1.473948E+0	1.519837E+0	1.445111E+0	1.556585E+0	1.508965E+0	1.651441E+0	1.504515E+0	1.620098E+0	1.507191E+0	1.614894E+0	1.549072E+0	1.594708E+0	1.538449E+0	1.452220E+0	1.365796E+0	1.504141E+0	1.610626E+0	1.539524E+0	1.475625E+0	1.522386E+0	1.605598E+0	1.561104E+0	1.425009E+0	1.515659E+0	1.313727E+0	1.519125E+0	1.524843E+0	1.424718E+0	1.511772E+0	1.509632E+0	1.531472E+0	1.488542E+0	1.472583E+0	1.501322E+0	1.439717E+0	1.518697E+0	1.473801E+0	1.497823E+0	1.491945E+0	1.484484E+0	1.513452E+0	1.509698E+0	1.483073E+0	1.552401E+0	1.428583E+0	1.565844E+0	1.547702E+0	1.365197E+0	1.237890E+0	1.595205E+0	1.501036E+0	1.455292E+0	1.389263E+0	1.610369E+0	1.514109E+0
5.358550E+2	1.200394E+0	1.445557E+0	1.301820E+0	2.000986E-1	1.241848E+0	1.507913E+0	1.273409E+0	1.061856E+0	1.298640E+0	1.295725E+0	1.201284E+0	1.261826E+0	1.281871E+0	1.327845E+0	1.257003E+0	1.263732E+0	1.288646E+0	1.391827E+0	1.283901E+0	1.325504E+0	1.263006E+0	1.439514E+0	1.245278E+0	1.337345E+0	1.221795E+0	1.353481E+0	1.242535E+0	1.268982E+0	1.272749E+0	1.249939E+0	1.290641E+0	1.257342E+0	1.301834E+0	1.315728E+0	1.263227E+0	1.247997E+0	1.268189E+0	1.451797E+0	1.185412E+0	1.224267E+0	1.248489E+0	1.406788E+0	1.142635E+0	1.264573E+0	1.238894E+0	1.295519E+0	1.248065E+0	1.208766E+0	1.342881E+0	1.359548E+0	1.236333E+0	1.275251E+0	1.275667E+0	1.484594E+0	1.252929E+0	1.192839E+0	1.206846E+0	1.447154E+0	1.187782E+0	1.221901E+0	1.257584E+0	1.305190E+0	1.226260E+0	1.199383E+0	1.327429E+0	1.345161E+0	1.231572E+0	1.192494E+0	1.356619E+0	1.470970E+0	1.310543E+0	1.216817E+0	1.334556E+0	1.433077E+0	1.278863E+0	1.251342E+0	1.305630E+0	1.318497E+0	1.314874E+0	1.231624E+0	1.244375E+0	1.355453E+0	1.303654E+0	1.227852E+0	1.241315E+0	1.533283E+0	1.250729E+0	1.245682E+0	1.257658E+0	1.305725E+0	1.305801E+0	1.273640E+0	1.279681E+0	1.318220E+0	1.273854E+0	1.231039E+0	1.303920E+0	1.398179E+0	1.237699E+0	1.306784E+0	1.279282E+0	1.493211E+0	1.309898E+0	1.206468E+0	1.255958E+0	1.349979E+0	1.238586E+0	1.130187E+0	1.290930E+0	1.282995E+0	1.276779E+0	1.216621E+0	1.278601E+0	1.405664E+0	1.210312E+0	1.260825E+0	1.281790E+0	1.481510E+0	1.320249E+0	1.229523E+0	1.356870E+0	1.382797E+0	1.357343E+0	1.215604E+0	1.377039E+0	1.298933E+0	1.297844E+0	1.297632E+0	1.107627E+0	1.138916E+0	1.249274E+0	1.385340E+0	1.323558E+0	1.314791E+0	1.207924E+0	1.291001E+0	1.312405E+0	1.246985E+0	1.251865E+0	1.084700E+0	1.284081E+0	1.262047E+0	1.171617E+0	1.243138E+0	1.229170E+0	1.290913E+0	1.257860E+0	1.230581E+0	1.296084E+0	1.264048E+0	1.301404E+0	1.226180E+0	1.260701E+0	1.189157E+0	1.274179E+0	1.228496E+0	1.271201E+0	1.241907E+0	1.224594E+0	1.248249E+0	1.335205E+0	1.311829E+0	1.225704E+0	1.096082E+0	1.339252E+0	1.255205E+0	1.253318E+0	1.210915E+0	1.367278E+0	1.327111E+0
5.360120E+2	1.000716E+0	1.226239E+0	1.155167E+0	1.886584E-1	1.028177E+0	1.277454E+0	1.071600E+0	9.339240E-1	1.075124E+0	1.158597E+0	1.027660E+0	1.081535E+0	1.125029E+0	1.161455E+0	1.063133E+0	1.078743E+0	1.141264E+0	1.126117E+0	1.091003E+0	1.061544E+0	1.127217E+0	1.253397E+0	1.052311E+0	1.111725E+0	1.087624E+0	1.119569E+0	1.116876E+0	1.115105E+0	1.097661E+0	1.073502E+0	1.057459E+0	1.084503E+0	1.094436E+0	1.159050E+0	1.076166E+0	1.081120E+0	1.096870E+0	1.212665E+0	1.062255E+0	1.023231E+0	1.080847E+0	1.180386E+0	9.549138E-1	1.094401E+0	1.075243E+0	1.146548E+0	1.043515E+0	9.988716E-1	1.111337E+0	1.210341E+0	1.088528E+0	1.103139E+0	1.135748E+0	1.289978E+0	1.073845E+0	1.087223E+0	1.074947E+0	1.137991E+0	1.039647E+0	1.094389E+0	1.063497E+0	1.118281E+0	1.097201E+0	1.063012E+0	1.154223E+0	1.152842E+0	1.093234E+0	1.038716E+0	1.176523E+0	1.277805E+0	1.081520E+0	1.047694E+0	1.142243E+0	1.161049E+0	1.096732E+0	1.032240E+0	1.119980E+0	1.182465E+0	1.171148E+0	1.086454E+0	1.099499E+0	1.184728E+0	1.120397E+0	1.080579E+0	1.063497E+0	1.258507E+0	1.022762E+0	1.077170E+0	1.095144E+0	1.204641E+0	1.115461E+0	1.059539E+0	1.130246E+0	1.129092E+0	1.130257E+0	1.044816E+0	1.139988E+0	1.204000E+0	1.043333E+0	1.077267E+0	1.158529E+0	1.293967E+0	1.072453E+0	1.029022E+0	1.127755E+0	1.125576E+0	1.105607E+0	9.596633E-1	1.081697E+0	1.080658E+0	1.044027E+0	1.067557E+0	1.117183E+0	1.138425E+0	1.077473E+0	1.078411E+0	1.110432E+0	1.273248E+0	1.126609E+0	1.078095E+0	1.225822E+0	1.201441E+0	1.131341E+0	1.116228E+0	1.220011E+0	1.115852E+0	1.167048E+0	1.148528E+0	1.016330E+0	1.038148E+0	1.064093E+0	1.123066E+0	1.178168E+0	1.323637E+0	1.098662E+0	1.147914E+0	1.093722E+0	1.150657E+0	1.101874E+0	9.409968E-1	1.107546E+0	1.134276E+0	1.035700E+0	1.051003E+0	1.124857E+0	1.211573E+0	1.065204E+0	1.077767E+0	1.126893E+0	1.292964E+0	1.066423E+0	1.077706E+0	1.086439E+0	1.150853E+0	1.134378E+0	1.103751E+0	1.025069E+0	1.108242E+0	1.098729E+0	1.018858E+0	1.124205E+0	1.190674E+0	1.058671E+0	8.958852E-1	1.144889E+0	1.205004E+0	1.085111E+0	9.996748E-1	1.202421E+0	1.162854E+0
5.362630E+2	7.312580E-1	8.883166E-1	8.420433E-1	1.339995E-1	7.554738E-1	9.320195E-1	8.249445E-1	6.585690E-1	7.819343E-1	8.526095E-1	7.591747E-1	8.164760E-1	8.528338E-1	8.415496E-1	7.947663E-1	8.230999E-1	7.884977E-1	8.446110E-1	8.025941E-1	7.928611E-1	8.362404E-1	9.375973E-1	7.564603E-1	8.250476E-1	7.630363E-1	8.350639E-1	8.183607E-1	8.303714E-1	8.077571E-1	7.876500E-1	8.021834E-1	8.105131E-1	7.881453E-1	8.593475E-1	8.482787E-1	7.610752E-1	8.028772E-1	8.921060E-1	8.008492E-1	8.075312E-1	7.590926E-1	8.318187E-1	7.191190E-1	7.948720E-1	7.687417E-1	8.400633E-1	7.773694E-1	7.505345E-1	8.427219E-1	8.746244E-1	8.158795E-1	7.979287E-1	8.183582E-1	9.406427E-1	8.332790E-1	7.347213E-1	8.157804E-1	8.698150E-1	7.806815E-1	8.068936E-1	7.962749E-1	8.726191E-1	7.949139E-1	7.880649E-1	8.641745E-1	8.591858E-1	8.456872E-1	8.062173E-1	9.203253E-1	9.422378E-1	8.220972E-1	7.713782E-1	8.502821E-1	9.043958E-1	8.642119E-1	8.084024E-1	8.228443E-1	8.489583E-1	8.448740E-1	7.837733E-1	7.886432E-1	8.966686E-1	8.337003E-1	8.329752E-1	8.009174E-1	9.512453E-1	7.460203E-1	8.048519E-1	8.410323E-1	8.759580E-1	8.142324E-1	8.101529E-1	8.274184E-1	7.995545E-1	8.006902E-1	7.734251E-1	8.324002E-1	8.543475E-1	7.785152E-1	8.243412E-1	8.205012E-1	9.660428E-1	8.386129E-1	7.512615E-1	7.937401E-1	8.427151E-1	7.869469E-1	6.911039E-1	8.125414E-1	8.505099E-1	7.996625E-1	7.846872E-1	8.280739E-1	8.809379E-1	7.787328E-1	7.989559E-1	8.084702E-1	9.087870E-1	8.425005E-1	8.220611E-1	8.529736E-1	8.715897E-1	8.900271E-1	8.337937E-1	8.657973E-1	8.520031E-1	8.143368E-1	8.526740E-1	7.647061E-1	7.726528E-1	8.260030E-1	8.641562E-1	8.492786E-1	9.660516E-1	7.692766E-1	8.601805E-1	8.382849E-1	8.604526E-1	7.727127E-1	7.080395E-1	8.084457E-1	8.153365E-1	7.648287E-1	8.197496E-1	8.612624E-1	8.872320E-1	7.971345E-1	8.221695E-1	8.356165E-1	9.667215E-1	7.895004E-1	7.952605E-1	8.294031E-1	8.559698E-1	7.987347E-1	7.662050E-1	7.937252E-1	7.971513E-1	7.892348E-1	7.934439E-1	8.823424E-1	9.161735E-1	7.365792E-1	6.756672E-1	8.778290E-1	9.162159E-1	8.337390E-1	7.489640E-1	8.769011E-1	9.101499E-1
5.365090E+2	5.900876E-1	7.405578E-1	6.617001E-1	1.022210E-1	6.303467E-1	7.231171E-1	6.204659E-1	5.076483E-1	6.219617E-1	6.962162E-1	5.763517E-1	6.501018E-1	6.964465E-1	6.503149E-1	6.281944E-1	6.479597E-1	6.186249E-1	7.114743E-1	6.434066E-1	6.204317E-1	6.544364E-1	7.542759E-1	6.161203E-1	6.061059E-1	6.136318E-1	6.487665E-1	6.354757E-1	6.237884E-1	6.537868E-1	6.394812E-1	6.414020E-1	6.299880E-1	6.316083E-1	7.359047E-1	6.185641E-1	6.102906E-1	6.404398E-1	7.095981E-1	6.202500E-1	5.932514E-1	6.255676E-1	6.564132E-1	6.035100E-1	6.429098E-1	6.145867E-1	6.621508E-1	6.307362E-1	5.976432E-1	6.585133E-1	7.111180E-1	7.004615E-1	6.206534E-1	6.484876E-1	7.431074E-1	6.302867E-1	6.455677E-1	6.399165E-1	7.041084E-1	6.055146E-1	6.250693E-1	6.537569E-1	6.690574E-1	6.260132E-1	5.899087E-1	6.686565E-1	6.645658E-1	6.472846E-1	6.341323E-1	6.986343E-1	7.761783E-1	6.133427E-1	6.070187E-1	6.833568E-1	6.725803E-1	6.486902E-1	6.266082E-1	6.675965E-1	6.763550E-1	6.475389E-1	6.312000E-1	6.597374E-1	6.768983E-1	6.376727E-1	6.581268E-1	6.353307E-1	7.334479E-1	5.955846E-1	6.084099E-1	6.625627E-1	7.017626E-1	6.730492E-1	6.343278E-1	6.542318E-1	6.755565E-1	6.443812E-1	6.092671E-1	6.736816E-1	7.040354E-1	6.193735E-1	6.764677E-1	6.697923E-1	7.709488E-1	5.831404E-1	5.913251E-1	5.971255E-1	6.975137E-1	6.613217E-1	5.698958E-1	6.165685E-1	6.404999E-1	6.611732E-1	5.955249E-1	6.389496E-1	7.183831E-1	6.098790E-1	6.306685E-1	6.746258E-1	7.359095E-1	6.554669E-1	6.611691E-1	6.535016E-1	6.823207E-1	6.970979E-1	6.415808E-1	7.061953E-1	6.792041E-1	6.595360E-1	6.664140E-1	6.244202E-1	6.187859E-1	6.246911E-1	6.610629E-1	7.010665E-1	7.271418E-1	6.269691E-1	6.897119E-1	6.508422E-1	6.946214E-1	6.618244E-1	5.688272E-1	6.228315E-1	6.517533E-1	6.183464E-1	6.376151E-1	6.214035E-1	7.063368E-1	6.323623E-1	6.291126E-1	6.664265E-1	7.823239E-1	6.298149E-1	6.308237E-1	6.196666E-1	6.456001E-1	6.034953E-1	6.775378E-1	6.310688E-1	6.829892E-1	6.525684E-1	6.418419E-1	6.859334E-1	7.347335E-1	6.282180E-1	5.438708E-1	6.976019E-1	7.599192E-1	6.273884E-1	5.486890E-1	7.246201E-1	8.065420E-1
5.368080E+2	4.730719E-1	5.762351E-1	5.361868E-1	9.205180E-2	4.815244E-1	5.978784E-1	5.323747E-1	4.341874E-1	5.071378E-1	5.709880E-1	4.895396E-1	4.887888E-1	5.236459E-1	5.527013E-1	5.240859E-1	5.289162E-1	5.256981E-1	5.484378E-1	5.322886E-1	5.448462E-1	5.493234E-1	5.798177E-1	5.141841E-1	5.388490E-1	5.433242E-1	5.481778E-1	5.233851E-1	5.632065E-1	5.042158E-1	4.894887E-1	5.262219E-1	5.241488E-1	5.281925E-1	5.691396E-1	5.314306E-1	5.077807E-1	5.423016E-1	5.598477E-1	5.399304E-1	5.024307E-1	5.249831E-1	5.454548E-1	4.724491E-1	5.185769E-1	5.228165E-1	5.430682E-1	5.208767E-1	4.968948E-1	5.262025E-1	5.544502E-1	5.396996E-1	5.231236E-1	5.224257E-1	6.234187E-1	5.180547E-1	5.102359E-1	5.427284E-1	5.290327E-1	5.222568E-1	5.075927E-1	4.901416E-1	5.418304E-1	5.229414E-1	5.259156E-1	5.600358E-1	5.482553E-1	4.986343E-1	5.102556E-1	5.643905E-1	6.239151E-1	5.317663E-1	4.945879E-1	5.494356E-1	5.679088E-1	5.545888E-1	5.289008E-1	5.252475E-1	5.764009E-1	5.463294E-1	5.111148E-1	5.279800E-1	5.403186E-1	5.482794E-1	5.266967E-1	5.361534E-1	5.864739E-1	5.113809E-1	4.943621E-1	5.656462E-1	5.669835E-1	5.301514E-1	5.135227E-1	5.330016E-1	5.312940E-1	5.229131E-1	5.280708E-1	5.468232E-1	6.066232E-1	4.979737E-1	5.108953E-1	5.457067E-1	6.215159E-1	5.450253E-1	4.976345E-1	5.442354E-1	5.818550E-1	5.087330E-1	4.564122E-1	5.188276E-1	5.450843E-1	5.275982E-1	5.000730E-1	5.311361E-1	5.863889E-1	4.864868E-1	5.354692E-1	5.380025E-1	6.226796E-1	5.365371E-1	5.565641E-1	5.914567E-1	5.879911E-1	5.605160E-1	4.990556E-1	5.764546E-1	5.294114E-1	5.404959E-1	5.742244E-1	4.986084E-1	4.884516E-1	5.679109E-1	5.830529E-1	5.632059E-1	6.209590E-1	4.931895E-1	5.424883E-1	5.436445E-1	5.452514E-1	5.159202E-1	4.526291E-1	5.481827E-1	5.244677E-1	5.150886E-1	5.611098E-1	5.445741E-1	5.768542E-1	5.303314E-1	5.187164E-1	5.602023E-1	6.104751E-1	5.166195E-1	4.910526E-1	5.574304E-1	5.537917E-1	5.378127E-1	5.748066E-1	5.151579E-1	5.307736E-1	5.497170E-1	5.136649E-1	5.692105E-1	5.925080E-1	5.342251E-1	4.665719E-1	5.698778E-1	6.046578E-1	5.204615E-1	4.953297E-1	5.569698E-1	5.639472E-1
5.370010E+2	4.516013E-1	5.682841E-1	4.972108E-1	8.442498E-2	4.752890E-1	5.645158E-1	5.056803E-1	4.042030E-1	4.748088E-1	5.114902E-1	4.751666E-1	5.267453E-1	4.858028E-1	4.670677E-1	4.704123E-1	4.625433E-1	4.801221E-1	5.112046E-1	4.761047E-1	4.497737E-1	4.627070E-1	5.494972E-1	4.833663E-1	4.878101E-1	4.700867E-1	4.868727E-1	4.720591E-1	4.802101E-1	4.712220E-1	4.639583E-1	4.693374E-1	4.737889E-1	4.648999E-1	5.477745E-1	4.918247E-1	4.738095E-1	5.071914E-1	5.331736E-1	4.610704E-1	4.418836E-1	4.561613E-1	4.922165E-1	4.066326E-1	4.846679E-1	4.753498E-1	4.998944E-1	4.790472E-1	4.743588E-1	4.908435E-1	5.190134E-1	4.631461E-1	4.663267E-1	5.018629E-1	5.874151E-1	4.799934E-1	4.544576E-1	5.085971E-1	5.266906E-1	4.708959E-1	4.833881E-1	4.812342E-1	4.909401E-1	4.770348E-1	4.438289E-1	5.183481E-1	5.292540E-1	4.883201E-1	4.638777E-1	5.573005E-1	5.573931E-1	4.532302E-1	4.493291E-1	5.081805E-1	5.223736E-1	4.726295E-1	4.714611E-1	4.764162E-1	5.188666E-1	4.968807E-1	4.773924E-1	5.120096E-1	5.185900E-1	4.869813E-1	5.026403E-1	4.719291E-1	5.518606E-1	4.179363E-1	4.706215E-1	5.012314E-1	5.326529E-1	4.758502E-1	4.531197E-1	4.731285E-1	4.767735E-1	4.899559E-1	4.676147E-1	4.854222E-1	5.337250E-1	4.728128E-1	4.572271E-1	5.214601E-1	5.742984E-1	4.641600E-1	4.304420E-1	4.723730E-1	5.296826E-1	4.817690E-1	4.225449E-1	4.962345E-1	5.110412E-1	5.003473E-1	4.752286E-1	4.835534E-1	5.343713E-1	4.959327E-1	4.500976E-1	5.129933E-1	5.443285E-1	4.968938E-1	4.763669E-1	5.218735E-1	5.533016E-1	4.766070E-1	4.519824E-1	5.208512E-1	4.838870E-1	4.900389E-1	4.900314E-1	4.379291E-1	4.787969E-1	4.575760E-1	5.232015E-1	4.954515E-1	5.293509E-1	4.606776E-1	4.753337E-1	5.087285E-1	5.031840E-1	4.861550E-1	3.920041E-1	5.068232E-1	4.881697E-1	4.521729E-1	4.680867E-1	5.133431E-1	5.064002E-1	4.904059E-1	4.860873E-1	5.010813E-1	5.521001E-1	4.964062E-1	4.891180E-1	4.503838E-1	5.045433E-1	4.751438E-1	4.690181E-1	4.707971E-1	4.989036E-1	5.046313E-1	4.548802E-1	5.074823E-1	5.550496E-1	4.492115E-1	3.998392E-1	5.153551E-1	5.896492E-1	4.829434E-1	4.156585E-1	5.220429E-1	5.437316E-1
5.372640E+2	3.952405E-1	4.768461E-1	4.661629E-1	7.870491E-2	3.987990E-1	4.844447E-1	5.067473E-1	3.492323E-1	4.447093E-1	4.429264E-1	4.533200E-1	4.407115E-1	4.411210E-1	4.404451E-1	4.597706E-1	4.364218E-1	4.327709E-1	4.502773E-1	5.041962E-1	3.919035E-1	4.347369E-1	4.776617E-1	5.056500E-1	4.362944E-1	4.829762E-1	4.410420E-1	5.074565E-1	4.680941E-1	4.382285E-1	4.411629E-1	4.683976E-1	4.225760E-1	4.434261E-1	4.611278E-1	4.863412E-1	4.183832E-1	4.335872E-1	4.606380E-1	5.253266E-1	4.385725E-1	4.220452E-1	4.731629E-1	4.306698E-1	4.425956E-1	4.432527E-1	4.401160E-1	4.321613E-1	4.182397E-1	4.452190E-1	5.109315E-1	4.395914E-1	4.462467E-1	4.661006E-1	5.100551E-1	4.414444E-1	4.311406E-1	4.449620E-1	4.845317E-1	3.989909E-1	4.184511E-1	4.516991E-1	4.576294E-1	4.376246E-1	4.327958E-1	4.326257E-1	4.641887E-1	4.494890E-1	4.382478E-1	4.892328E-1	5.199430E-1	4.537364E-1	4.302723E-1	4.650211E-1	4.531834E-1	4.975213E-1	4.507352E-1	4.699663E-1	4.754721E-1	4.543634E-1	4.642326E-1	4.338680E-1	4.788581E-1	4.346222E-1	4.621555E-1	4.173159E-1	5.161829E-1	4.143422E-1	4.324509E-1	4.539548E-1	4.728920E-1	4.466990E-1	4.596981E-1	4.355227E-1	4.497544E-1	4.565284E-1	4.318705E-1	4.605136E-1	4.911473E-1	4.470225E-1	4.212580E-1	4.777209E-1	5.390153E-1	4.523136E-1	4.034703E-1	4.304055E-1	4.441960E-1	4.566439E-1	4.053146E-1	4.702030E-1	4.372019E-1	4.248487E-1	4.277204E-1	4.419942E-1	4.524437E-1	4.339413E-1	4.445703E-1	4.555653E-1	5.316913E-1	4.414953E-1	4.325331E-1	4.737452E-1	5.131350E-1	4.747694E-1	4.277931E-1	4.740004E-1	4.388514E-1	4.915085E-1	4.632206E-1	3.978475E-1	4.425935E-1	4.724164E-1	4.747818E-1	4.662802E-1	4.814641E-1	4.622764E-1	4.608698E-1	4.652376E-1	4.806260E-1	4.044482E-1	3.628140E-1	4.684901E-1	4.300925E-1	4.411268E-1	4.606969E-1	4.621229E-1	5.102084E-1	4.295674E-1	4.393184E-1	4.510939E-1	5.630112E-1	4.216171E-1	4.364019E-1	4.335797E-1	4.115185E-1	4.371798E-1	4.885855E-1	4.216665E-1	4.456278E-1	4.548488E-1	4.376430E-1	4.440703E-1	4.731093E-1	3.923371E-1	3.564632E-1	4.719396E-1	5.135709E-1	4.297919E-1	4.127344E-1	4.396148E-1	4.881374E-1
5.375110E+2	4.199322E-1	5.205770E-1	5.553434E-1	8.124714E-2	3.992148E-1	5.563036E-1	5.580010E-1	3.477332E-1	4.675628E-1	4.417933E-1	4.855152E-1	4.970128E-1	4.940096E-1	4.528690E-1	4.519053E-1	4.698230E-1	4.682841E-1	4.762274E-1	5.247972E-1	4.521355E-1	4.947371E-1	5.140460E-1	5.540102E-1	4.506046E-1	5.134431E-1	4.737784E-1	5.576022E-1	4.911144E-1	4.729817E-1	4.721648E-1	5.022462E-1	4.742159E-1	4.886346E-1	5.121662E-1	5.332592E-1	4.732139E-1	4.864637E-1	5.462769E-1	5.808202E-1	4.371533E-1	4.755726E-1	5.196765E-1	4.621471E-1	4.765042E-1	4.658562E-1	4.889829E-1	4.735307E-1	4.553583E-1	5.199286E-1	5.177700E-1	5.084895E-1	4.560002E-1	4.719119E-1	5.319496E-1	5.580678E-1	4.704598E-1	4.351275E-1	4.956574E-1	4.995497E-1	4.951954E-1	4.521683E-1	4.830749E-1	4.714048E-1	4.614818E-1	4.572853E-1	5.217685E-1	4.913540E-1	4.669288E-1	5.331932E-1	5.854802E-1	5.408863E-1	4.383717E-1	5.037374E-1	4.969446E-1	5.357684E-1	4.797509E-1	4.860900E-1	5.203297E-1	4.811678E-1	4.757472E-1	5.023130E-1	4.925157E-1	4.978358E-1	4.645024E-1	4.837251E-1	5.534584E-1	5.005989E-1	4.776041E-1	4.823207E-1	5.116729E-1	4.981422E-1	4.495315E-1	4.760975E-1	4.724313E-1	4.951349E-1	4.451090E-1	4.697817E-1	4.930832E-1	4.407323E-1	4.886287E-1	4.915087E-1	5.519879E-1	4.971241E-1	4.470030E-1	4.671992E-1	5.007677E-1	4.621591E-1	4.088796E-1	4.819911E-1	4.640526E-1	4.967735E-1	4.665119E-1	4.781327E-1	5.018600E-1	4.723166E-1	4.881770E-1	4.634384E-1	5.878005E-1	4.801222E-1	4.644122E-1	5.172351E-1	5.642561E-1	5.023309E-1	4.781343E-1	5.054060E-1	4.980828E-1	5.062050E-1	4.890903E-1	4.768974E-1	4.522480E-1	4.872570E-1	4.983188E-1	5.025094E-1	5.371584E-1	4.713369E-1	4.996124E-1	4.750386E-1	4.672131E-1	4.505543E-1	4.357886E-1	4.846305E-1	4.726822E-1	4.728247E-1	4.476564E-1	4.689941E-1	5.152862E-1	4.682254E-1	4.594395E-1	4.808942E-1	5.799234E-1	4.524427E-1	4.871837E-1	4.578522E-1	4.917752E-1	4.733355E-1	4.794129E-1	4.574409E-1	5.031843E-1	4.928901E-1	4.730017E-1	5.125332E-1	5.146651E-1	4.384353E-1	3.848243E-1	5.098022E-1	5.627369E-1	4.523033E-1	4.829041E-1	5.136602E-1	5.866912E-1
5.377630E+2	4.644837E-1	5.742474E-1	6.161184E-1	8.950950E-2	5.151967E-1	5.973647E-1	6.359483E-1	4.311891E-1	4.959899E-1	5.664548E-1	5.435819E-1	5.558442E-1	5.468990E-1	5.140993E-1	5.504602E-1	5.164979E-1	5.316165E-1	5.557714E-1	6.040786E-1	5.566559E-1	5.254133E-1	6.092050E-1	6.227578E-1	5.240617E-1	5.357074E-1	5.386549E-1	6.136478E-1	5.432142E-1	5.512863E-1	5.446531E-1	5.708836E-1	5.407921E-1	5.248022E-1	5.560828E-1	5.929724E-1	5.083771E-1	5.308803E-1	6.146001E-1	6.348537E-1	4.967542E-1	5.043955E-1	6.020545E-1	5.273918E-1	5.104139E-1	5.454201E-1	5.734317E-1	5.461577E-1	4.849638E-1	5.638427E-1	6.172412E-1	5.785648E-1	5.196811E-1	5.505886E-1	6.618552E-1	6.356541E-1	5.394971E-1	5.155394E-1	5.225916E-1	5.249592E-1	5.512773E-1	5.365544E-1	5.552470E-1	5.623511E-1	5.356251E-1	5.993738E-1	5.851061E-1	5.969256E-1	4.895073E-1	6.130779E-1	6.332776E-1	6.488109E-1	5.179311E-1	5.392806E-1	5.684998E-1	6.177272E-1	5.354143E-1	5.349218E-1	5.768883E-1	5.227604E-1	5.292099E-1	5.576394E-1	5.949508E-1	6.427811E-1	5.313905E-1	5.488238E-1	6.397255E-1	6.679788E-1	5.199650E-1	5.490988E-1	5.790628E-1	6.073163E-1	5.069438E-1	5.290430E-1	5.525235E-1	5.473948E-1	5.007112E-1	5.699942E-1	5.582392E-1	6.080517E-1	5.719858E-1	5.328704E-1	6.827420E-1	6.382526E-1	4.990538E-1	5.298624E-1	5.699120E-1	5.975893E-1	5.211751E-1	5.345450E-1	5.302203E-1	5.932689E-1	5.297108E-1	5.449891E-1	5.688330E-1	5.472978E-1	5.391546E-1	5.505065E-1	6.241961E-1	5.802466E-1	5.475982E-1	6.007342E-1	5.806876E-1	6.089018E-1	5.173617E-1	5.738800E-1	5.661258E-1	5.635207E-1	5.516474E-1	5.242160E-1	5.499981E-1	5.453277E-1	5.850705E-1	5.274468E-1	6.308488E-1	5.470210E-1	5.678003E-1	5.730476E-1	5.482994E-1	5.170870E-1	4.453314E-1	5.446519E-1	5.718974E-1	5.117266E-1	5.367672E-1	5.508207E-1	5.768537E-1	5.582157E-1	5.181725E-1	5.457821E-1	6.442987E-1	5.211676E-1	5.244238E-1	5.761005E-1	5.501434E-1	5.450439E-1	5.191602E-1	5.080025E-1	5.426652E-1	5.314007E-1	5.180848E-1	5.366631E-1	5.655851E-1	5.162645E-1	4.543376E-1	5.597811E-1	6.507188E-1	5.148335E-1	5.026398E-1	5.402042E-1	6.245968E-1
5.380160E+2	6.067278E-1	7.571229E-1	7.376687E-1	9.268741E-2	6.245265E-1	7.544270E-1	7.672846E-1	5.371331E-1	6.760292E-1	6.667505E-1	6.499408E-1	6.608563E-1	6.586040E-1	6.489842E-1	6.749264E-1	6.141313E-1	6.878762E-1	6.804462E-1	7.426657E-1	6.357850E-1	6.625564E-1	7.015649E-1	7.337025E-1	6.452194E-1	6.915564E-1	7.082865E-1	7.098094E-1	6.989098E-1	6.687440E-1	6.417608E-1	6.837132E-1	6.457787E-1	6.463017E-1	7.430266E-1	7.251952E-1	6.460499E-1	6.611678E-1	7.914927E-1	8.144796E-1	5.994008E-1	6.785071E-1	7.225409E-1	6.910744E-1	6.378861E-1	6.200118E-1	6.735372E-1	6.578565E-1	6.254821E-1	7.098411E-1	7.080095E-1	7.281385E-1	6.499124E-1	6.708392E-1	8.102497E-1	7.781395E-1	6.652272E-1	6.613213E-1	7.041087E-1	7.298612E-1	6.321538E-1	6.640706E-1	6.894131E-1	6.805814E-1	6.353654E-1	7.250219E-1	7.325108E-1	6.849019E-1	6.292502E-1	6.929623E-1	7.949026E-1	7.491345E-1	6.160705E-1	7.138223E-1	7.281690E-1	7.136498E-1	6.390437E-1	6.781917E-1	6.978083E-1	7.020716E-1	6.205071E-1	6.534632E-1	6.762780E-1	7.117417E-1	6.551926E-1	6.737784E-1	8.117268E-1	7.999318E-1	6.484434E-1	6.548804E-1	6.687035E-1	7.210629E-1	6.821719E-1	6.705611E-1	6.881010E-1	6.698054E-1	6.251531E-1	6.893223E-1	7.362913E-1	7.401451E-1	6.222291E-1	7.173345E-1	7.901470E-1	7.577475E-1	6.220819E-1	6.425421E-1	6.591702E-1	7.415991E-1	6.501070E-1	6.588080E-1	6.898856E-1	6.714480E-1	6.609037E-1	6.606324E-1	7.164322E-1	6.760039E-1	6.945435E-1	6.820357E-1	7.803927E-1	7.855767E-1	6.556899E-1	7.317828E-1	7.395276E-1	7.332338E-1	6.428883E-1	7.067103E-1	6.738190E-1	7.050941E-1	6.753511E-1	6.110600E-1	6.543867E-1	7.079259E-1	7.209142E-1	6.700127E-1	7.536869E-1	7.735400E-1	7.424021E-1	6.863709E-1	6.915727E-1	7.277741E-1	5.772467E-1	6.500687E-1	6.967627E-1	6.601297E-1	6.689124E-1	6.651285E-1	7.374380E-1	7.160159E-1	6.187797E-1	7.159339E-1	7.719583E-1	7.642337E-1	6.646781E-1	6.314916E-1	6.869446E-1	7.252187E-1	6.750919E-1	6.930781E-1	6.539731E-1	6.751111E-1	5.989689E-1	7.190426E-1	7.452690E-1	6.713231E-1	5.633345E-1	6.839711E-1	7.645774E-1	7.349411E-1	6.466341E-1	6.924872E-1	6.978794E-1
5.382690E+2	7.532653E-1	9.161448E-1	8.896068E-1	1.505244E-1	7.662820E-1	8.909581E-1	9.493399E-1	6.465759E-1	7.953120E-1	8.305106E-1	8.344883E-1	8.670837E-1	8.391558E-1	7.962921E-1	8.327076E-1	8.021172E-1	7.772517E-1	8.096346E-1	9.012279E-1	8.099862E-1	8.353383E-1	9.352650E-1	9.371002E-1	8.174156E-1	8.673266E-1	8.808941E-1	9.558190E-1	8.521814E-1	8.332722E-1	8.140927E-1	8.694105E-1	8.228893E-1	8.536983E-1	8.551930E-1	9.348027E-1	7.545191E-1	8.193746E-1	9.164409E-1	9.868022E-1	7.763116E-1	8.067381E-1	8.760894E-1	8.261424E-1	8.300369E-1	7.936056E-1	8.471798E-1	8.490766E-1	7.827912E-1	8.706674E-1	8.771111E-1	9.112768E-1	8.409559E-1	8.027124E-1	9.732407E-1	9.669810E-1	7.918720E-1	8.383418E-1	9.172439E-1	8.969188E-1	7.891839E-1	8.033073E-1	8.624412E-1	8.559777E-1	8.171921E-1	8.577163E-1	8.787629E-1	8.711699E-1	7.598396E-1	8.834558E-1	9.402666E-1	9.583957E-1	7.699495E-1	8.369536E-1	8.612260E-1	9.170292E-1	8.338652E-1	7.988892E-1	8.894274E-1	8.356312E-1	7.562195E-1	8.302805E-1	8.532110E-1	9.339482E-1	7.989440E-1	8.170830E-1	9.597659E-1	9.498546E-1	7.722664E-1	8.173937E-1	8.390845E-1	9.325521E-1	7.856342E-1	8.387993E-1	8.666204E-1	8.562462E-1	7.729835E-1	8.329795E-1	9.272450E-1	9.124970E-1	8.043582E-1	8.471248E-1	9.624106E-1	9.060862E-1	7.455836E-1	8.224847E-1	8.565440E-1	8.898987E-1	7.730979E-1	8.135234E-1	8.423586E-1	8.322740E-1	8.600904E-1	7.907309E-1	8.516779E-1	9.216084E-1	8.437920E-1	8.219009E-1	9.628744E-1	9.228033E-1	8.230576E-1	8.448554E-1	8.934983E-1	9.231011E-1	7.880284E-1	9.116182E-1	8.500448E-1	8.589155E-1	8.023466E-1	7.424380E-1	7.750665E-1	8.834285E-1	8.708808E-1	8.629234E-1	9.358626E-1	9.846025E-1	8.513988E-1	8.045944E-1	8.214336E-1	8.439144E-1	7.041100E-1	8.326564E-1	8.274359E-1	7.926839E-1	8.206184E-1	8.306560E-1	8.973868E-1	8.256520E-1	7.938909E-1	8.442684E-1	9.394437E-1	9.719256E-1	8.088025E-1	7.727683E-1	8.577940E-1	9.228686E-1	7.876073E-1	8.414246E-1	8.000052E-1	8.145950E-1	7.691344E-1	8.604561E-1	9.331473E-1	9.203751E-1	7.535219E-1	8.636937E-1	9.426107E-1	9.531716E-1	8.015909E-1	9.020495E-1	9.531089E-1
5.385110E+2	8.810158E-1	1.138114E+0	1.159792E+0	1.740406E-1	9.737176E-1	1.168126E+0	1.189055E+0	8.279794E-1	1.020500E+0	1.069068E+0	1.073078E+0	1.032825E+0	1.011045E+0	1.027460E+0	1.061745E+0	9.481376E-1	1.023478E+0	1.041495E+0	1.116598E+0	9.428518E-1	1.005414E+0	1.114855E+0	1.173214E+0	1.038266E+0	1.023175E+0	1.065405E+0	1.148733E+0	1.112682E+0	1.027275E+0	1.031559E+0	1.045706E+0	1.004267E+0	1.030014E+0	1.094362E+0	1.127348E+0	9.952986E-1	1.040186E+0	1.127028E+0	1.231658E+0	9.991060E-1	9.749681E-1	1.092964E+0	1.047629E+0	1.049817E+0	9.762408E-1	1.028413E+0	1.034321E+0	9.489388E-1	1.005259E+0	1.134494E+0	1.086760E+0	1.033721E+0	1.022649E+0	1.179533E+0	1.232433E+0	9.235456E-1	1.017097E+0	1.129794E+0	1.093711E+0	1.004067E+0	9.936446E-1	1.043797E+0	1.043933E+0	9.544453E-1	1.079069E+0	1.106779E+0	1.069572E+0	9.514525E-1	1.075840E+0	1.227053E+0	1.202620E+0	9.452665E-1	1.072426E+0	1.110192E+0	1.087625E+0	9.736155E-1	9.744065E-1	1.078121E+0	1.106910E+0	9.589657E-1	1.037328E+0	1.056839E+0	1.136999E+0	9.878737E-1	1.003203E+0	1.170107E+0	1.215299E+0	9.715006E-1	1.049050E+0	1.077491E+0	1.089168E+0	9.746169E-1	9.921927E-1	1.062025E+0	1.051633E+0	9.803886E-1	1.033983E+0	1.093040E+0	1.101203E+0	9.647923E-1	1.072475E+0	1.172033E+0	1.176496E+0	9.679812E-1	1.005877E+0	1.102318E+0	1.105607E+0	9.650111E-1	9.942699E-1	1.002983E+0	1.035094E+0	1.011768E+0	1.031654E+0	1.068200E+0	1.052676E+0	9.740001E-1	1.038645E+0	1.206015E+0	1.139316E+0	1.025791E+0	1.093035E+0	1.170403E+0	1.079281E+0	1.006392E+0	1.112407E+0	1.061026E+0	1.101404E+0	1.023884E+0	9.389499E-1	9.633268E-1	1.142166E+0	1.115669E+0	1.058657E+0	1.190388E+0	1.214853E+0	1.090573E+0	1.019602E+0	1.076887E+0	1.035342E+0	8.596019E-1	1.041472E+0	1.051517E+0	9.919956E-1	1.018401E+0	1.047403E+0	1.106210E+0	1.059501E+0	9.896674E-1	1.007690E+0	1.208947E+0	1.192757E+0	9.713045E-1	9.812597E-1	1.042020E+0	1.091594E+0	1.030982E+0	1.009328E+0	1.032134E+0	1.050356E+0	9.865932E-1	1.031051E+0	1.135657E+0	1.070046E+0	9.815250E-1	1.088347E+0	1.231397E+0	1.158272E+0	9.865187E-1	1.114405E+0	1.157798E+0
5.387650E+2	1.096260E+0	1.364058E+0	1.365899E+0	1.956499E-1	1.143743E+0	1.359577E+0	1.369509E+0	9.823985E-1	1.153717E+0	1.232261E+0	1.235204E+0	1.211218E+0	1.204364E+0	1.217362E+0	1.217212E+0	1.171666E+0	1.185657E+0	1.230483E+0	1.330721E+0	1.156026E+0	1.193985E+0	1.341558E+0	1.397945E+0	1.142729E+0	1.219452E+0	1.297534E+0	1.361706E+0	1.244143E+0	1.182125E+0	1.201613E+0	1.259140E+0	1.205278E+0	1.219892E+0	1.268843E+0	1.335738E+0	1.127011E+0	1.218275E+0	1.355396E+0	1.335344E+0	1.162773E+0	1.159080E+0	1.329452E+0	1.247369E+0	1.197384E+0	1.177863E+0	1.265155E+0	1.220944E+0	1.128343E+0	1.204296E+0	1.237074E+0	1.350573E+0	1.195506E+0	1.204590E+0	1.400423E+0	1.412004E+0	1.164947E+0	1.208003E+0	1.306626E+0	1.263471E+0	1.166410E+0	1.197576E+0	1.221450E+0	1.248781E+0	1.127004E+0	1.219982E+0	1.288155E+0	1.278896E+0	1.119266E+0	1.233720E+0	1.372909E+0	1.397184E+0	1.132017E+0	1.271086E+0	1.317759E+0	1.284326E+0	1.190348E+0	1.200599E+0	1.246335E+0	1.235846E+0	1.130868E+0	1.239242E+0	1.316962E+0	1.307485E+0	1.248387E+0	1.240880E+0	1.400155E+0	1.408351E+0	1.143735E+0	1.212745E+0	1.294282E+0	1.294942E+0	1.157618E+0	1.228219E+0	1.247782E+0	1.267734E+0	1.141899E+0	1.221664E+0	1.288509E+0	1.274812E+0	1.173184E+0	1.235071E+0	1.388400E+0	1.441753E+0	1.096214E+0	1.182370E+0	1.281464E+0	1.303544E+0	1.208615E+0	1.192209E+0	1.167442E+0	1.159287E+0	1.187852E+0	1.221984E+0	1.284723E+0	1.243965E+0	1.142901E+0	1.218802E+0	1.379400E+0	1.348203E+0	1.140858E+0	1.282069E+0	1.360889E+0	1.285073E+0	1.170492E+0	1.240603E+0	1.242636E+0	1.280698E+0	1.192272E+0	1.122657E+0	1.202273E+0	1.265405E+0	1.297243E+0	1.236984E+0	1.376206E+0	1.400331E+0	1.267240E+0	1.207044E+0	1.207966E+0	1.260619E+0	1.028566E+0	1.158993E+0	1.189450E+0	1.152885E+0	1.135767E+0	1.209182E+0	1.302338E+0	1.254058E+0	1.148463E+0	1.221100E+0	1.422803E+0	1.356485E+0	1.120748E+0	1.183527E+0	1.176997E+0	1.298885E+0	1.175907E+0	1.126191E+0	1.174360E+0	1.151329E+0	1.129357E+0	1.231389E+0	1.281980E+0	1.217921E+0	1.137234E+0	1.235252E+0	1.375790E+0	1.404016E+0	1.186062E+0	1.238746E+0	1.311947E+0
5.390340E+2	1.236894E+0	1.505853E+0	1.476879E+0	2.439532E-1	1.330395E+0	1.534090E+0	1.590540E+0	1.251755E+0	1.351592E+0	1.386389E+0	1.452524E+0	1.449709E+0	1.409080E+0	1.357126E+0	1.388874E+0	1.360509E+0	1.356120E+0	1.426239E+0	1.488661E+0	1.346763E+0	1.400601E+0	1.486626E+0	1.590440E+0	1.428928E+0	1.375302E+0	1.446929E+0	1.592966E+0	1.384088E+0	1.371288E+0	1.348868E+0	1.412402E+0	1.400313E+0	1.362864E+0	1.433827E+0	1.477710E+0	1.253361E+0	1.338832E+0	1.524802E+0	1.605024E+0	1.361914E+0	1.297310E+0	1.444337E+0	1.346378E+0	1.365045E+0	1.319813E+0	1.388982E+0	1.370797E+0	1.277255E+0	1.371970E+0	1.431045E+0	1.524290E+0	1.360159E+0	1.345403E+0	1.538113E+0	1.606215E+0	1.287475E+0	1.354943E+0	1.370450E+0	1.432149E+0	1.324030E+0	1.382289E+0	1.369033E+0	1.333230E+0	1.269994E+0	1.420784E+0	1.399858E+0	1.409952E+0	1.265722E+0	1.400580E+0	1.562620E+0	1.515751E+0	1.230155E+0	1.386599E+0	1.473880E+0	1.482240E+0	1.259631E+0	1.323137E+0	1.393585E+0	1.382346E+0	1.290844E+0	1.363014E+0	1.410085E+0	1.465199E+0	1.351654E+0	1.306850E+0	1.566297E+0	1.572649E+0	1.316905E+0	1.342166E+0	1.456400E+0	1.517863E+0	1.264070E+0	1.403882E+0	1.345725E+0	1.408978E+0	1.263250E+0	1.364742E+0	1.466562E+0	1.437728E+0	1.333621E+0	1.382452E+0	1.536277E+0	1.596276E+0	1.214039E+0	1.277226E+0	1.453068E+0	1.486161E+0	1.290609E+0	1.359691E+0	1.314643E+0	1.364787E+0	1.329509E+0	1.302091E+0	1.406316E+0	1.523813E+0	1.301976E+0	1.320229E+0	1.484035E+0	1.546928E+0	1.320677E+0	1.456029E+0	1.474086E+0	1.515975E+0	1.296673E+0	1.446025E+0	1.351308E+0	1.424722E+0	1.353130E+0	1.202264E+0	1.269250E+0	1.485429E+0	1.460659E+0	1.373901E+0	1.544332E+0	1.590076E+0	1.370553E+0	1.343645E+0	1.310391E+0	1.408856E+0	1.188548E+0	1.308292E+0	1.361263E+0	1.258542E+0	1.290081E+0	1.302876E+0	1.403259E+0	1.418196E+0	1.303452E+0	1.362894E+0	1.575560E+0	1.566702E+0	1.296306E+0	1.336629E+0	1.399526E+0	1.337452E+0	1.311048E+0	1.288371E+0	1.341322E+0	1.373468E+0	1.279632E+0	1.411525E+0	1.466931E+0	1.443025E+0	1.283490E+0	1.334706E+0	1.568831E+0	1.590980E+0	1.298627E+0	1.431543E+0	1.473678E+0
5.392780E+2	1.420470E+0	1.769566E+0	1.795947E+0	3.253061E-1	1.493766E+0	1.751721E+0	1.853213E+0	1.569087E+0	1.519369E+0	1.635711E+0	1.643966E+0	1.650241E+0	1.607414E+0	1.602493E+0	1.565163E+0	1.533934E+0	1.554997E+0	1.642868E+0	1.687803E+0	1.555211E+0	1.610830E+0	1.769307E+0	1.775819E+0	1.832945E+0	1.558690E+0	1.552280E+0	1.751073E+0	1.709411E+0	1.558692E+0	1.598247E+0	1.665795E+0	1.594920E+0	1.617167E+0	1.673591E+0	1.714735E+0	1.596055E+0	1.488578E+0	1.722751E+0	1.768100E+0	1.799464E+0	1.483184E+0	1.600124E+0	1.541541E+0	1.772579E+0	1.558957E+0	1.559780E+0	1.556041E+0	1.482288E+0	1.624040E+0	1.633095E+0	1.654431E+0	1.565546E+0	1.534494E+0	1.768246E+0	1.826773E+0	1.663298E+0	1.515185E+0	1.670832E+0	1.620831E+0	1.637498E+0	1.514492E+0	1.586013E+0	1.599570E+0	1.468150E+0	1.639202E+0	1.661270E+0	1.633834E+0	1.485406E+0	1.618486E+0	1.799641E+0	1.761494E+0	1.530291E+0	1.600495E+0	1.680859E+0	1.683192E+0	1.481693E+0	1.563611E+0	1.610072E+0	1.659634E+0	1.491123E+0	1.538687E+0	1.682005E+0	1.683575E+0	1.528849E+0	1.502147E+0	1.794215E+0	1.838100E+0	1.531497E+0	1.527729E+0	1.625509E+0	1.663618E+0	1.462623E+0	1.576078E+0	1.540646E+0	1.552573E+0	1.449914E+0	1.581968E+0	1.630420E+0	1.663546E+0	1.518032E+0	1.532212E+0	1.751608E+0	1.816724E+0	1.462462E+0	1.524434E+0	1.641013E+0	1.691452E+0	1.528867E+0	1.517354E+0	1.568285E+0	1.565370E+0	1.565744E+0	1.502659E+0	1.630641E+0	1.643664E+0	1.455522E+0	1.545774E+0	1.790361E+0	1.744124E+0	1.580694E+0	1.656658E+0	1.642660E+0	1.719928E+0	1.597412E+0	1.647845E+0	1.616140E+0	1.595200E+0	1.590659E+0	1.421045E+0	1.527505E+0	1.698998E+0	1.642233E+0	1.535289E+0	1.837892E+0	1.784084E+0	1.609213E+0	1.570292E+0	1.575597E+0	1.619547E+0	1.331128E+0	1.523666E+0	1.545656E+0	1.461700E+0	1.495689E+0	1.575217E+0	1.652700E+0	1.620994E+0	1.468777E+0	1.539774E+0	1.791053E+0	1.777933E+0	1.477187E+0	1.503423E+0	1.629354E+0	1.627300E+0	1.490217E+0	1.464862E+0	1.525887E+0	1.565083E+0	1.456871E+0	1.575942E+0	1.694022E+0	1.610058E+0	1.413619E+0	1.564914E+0	1.762910E+0	1.814216E+0	1.496711E+0	1.599193E+0	1.877999E+0
5.395160E+2	1.677047E+0	2.081649E+0	2.035746E+0	4.072948E-1	1.724480E+0	2.064303E+0	2.142046E+0	1.745496E+0	1.786360E+0	1.866336E+0	1.795171E+0	1.953893E+0	1.829909E+0	1.796393E+0	1.908024E+0	1.763887E+0	1.832593E+0	1.915910E+0	1.978079E+0	1.862279E+0	1.819248E+0	2.023064E+0	2.108175E+0	2.114851E+0	1.777229E+0	1.861182E+0	2.000622E+0	1.911147E+0	1.786569E+0	1.791094E+0	1.868888E+0	1.773313E+0	1.831346E+0	1.900892E+0	1.959682E+0	1.814182E+0	1.771148E+0	2.005408E+0	2.102037E+0	2.082807E+0	1.772002E+0	1.897695E+0	1.821408E+0	1.989848E+0	1.751992E+0	1.831630E+0	1.778520E+0	1.748300E+0	1.868700E+0	1.976891E+0	1.884090E+0	1.818548E+0	1.779917E+0	2.066983E+0	2.136632E+0	2.097179E+0	1.781294E+0	1.875767E+0	1.981977E+0	1.922632E+0	1.822031E+0	1.829364E+0	1.763273E+0	1.687933E+0	1.851747E+0	1.967593E+0	1.914149E+0	1.847277E+0	1.841124E+0	2.132254E+0	2.092865E+0	2.007172E+0	1.819463E+0	1.873054E+0	1.958212E+0	1.941212E+0	1.760320E+0	1.883116E+0	1.846337E+0	1.767071E+0	1.814183E+0	1.937161E+0	2.048811E+0	1.879131E+0	1.763416E+0	2.059404E+0	2.033713E+0	1.934156E+0	1.800160E+0	1.900151E+0	1.959702E+0	1.802911E+0	1.817055E+0	1.834002E+0	1.836944E+0	1.706301E+0	1.800928E+0	1.946525E+0	1.923957E+0	1.744695E+0	1.787987E+0	2.123117E+0	2.117522E+0	1.667823E+0	1.796362E+0	1.888041E+0	1.977631E+0	1.768904E+0	1.752619E+0	1.725072E+0	1.771767E+0	1.747930E+0	1.741177E+0	1.934941E+0	1.881005E+0	1.711026E+0	1.714816E+0	2.066358E+0	2.094815E+0	1.755036E+0	1.884542E+0	1.898265E+0	1.946546E+0	1.736671E+0	1.875407E+0	1.809989E+0	1.808296E+0	1.804674E+0	1.630915E+0	1.710338E+0	1.903539E+0	1.856759E+0	1.766312E+0	2.017987E+0	2.043647E+0	1.865433E+0	1.810410E+0	1.829223E+0	1.866417E+0	1.498411E+0	1.721382E+0	1.791031E+0	1.713836E+0	1.678691E+0	1.787591E+0	1.947211E+0	1.864980E+0	1.658569E+0	1.754629E+0	2.058376E+0	2.077596E+0	1.713686E+0	1.744279E+0	1.736362E+0	1.940044E+0	1.766000E+0	1.673308E+0	1.781798E+0	1.734625E+0	1.603166E+0	1.746538E+0	1.953894E+0	1.839352E+0	1.662754E+0	1.818343E+0	2.003566E+0	1.998680E+0	1.593194E+0	1.874417E+0	1.931068E+0
5.397910E+2	1.703344E+0	2.162482E+0	2.210144E+0	6.030502E-1	1.820095E+0	2.204427E+0	2.275515E+0	1.920403E+0	1.926268E+0	1.992129E+0	1.963620E+0	1.987416E+0	1.977179E+0	1.951684E+0	1.926997E+0	1.939885E+0	1.952748E+0	2.019152E+0	2.103560E+0	1.907749E+0	1.894135E+0	2.174199E+0	2.207743E+0	2.199280E+0	1.825273E+0	1.990345E+0	2.050177E+0	2.054725E+0	1.866190E+0	1.899145E+0	1.949747E+0	1.859093E+0	1.925155E+0	2.061724E+0	2.103482E+0	1.973906E+0	1.870135E+0	2.084027E+0	2.189169E+0	2.254038E+0	1.819644E+0	2.057969E+0	1.919270E+0	2.141811E+0	1.860033E+0	1.989616E+0	1.890218E+0	1.819442E+0	1.870980E+0	2.057090E+0	2.003632E+0	1.983777E+0	1.869766E+0	2.186670E+0	2.188351E+0	2.175361E+0	1.888892E+0	1.974722E+0	2.019823E+0	2.077893E+0	1.866104E+0	1.952889E+0	1.830836E+0	1.811504E+0	1.987966E+0	1.967595E+0	2.006368E+0	1.994951E+0	1.976787E+0	2.170685E+0	2.188117E+0	2.189159E+0	1.952115E+0	2.114925E+0	2.069308E+0	2.060236E+0	1.879176E+0	2.064495E+0	1.960024E+0	1.864950E+0	1.885479E+0	2.002966E+0	2.065413E+0	1.990025E+0	1.885311E+0	2.168571E+0	2.218551E+0	2.213457E+0	1.843299E+0	2.005051E+0	2.010576E+0	2.022992E+0	1.889299E+0	1.932905E+0	1.917450E+0	1.840892E+0	1.908668E+0	2.079422E+0	2.033406E+0	2.003331E+0	1.949633E+0	2.152691E+0	2.116490E+0	2.192114E+0	1.853847E+0	1.957189E+0	2.048717E+0	2.061824E+0	1.874920E+0	1.898165E+0	1.913383E+0	1.864739E+0	1.791167E+0	2.045480E+0	1.922918E+0	1.905110E+0	1.900529E+0	2.200818E+0	2.161398E+0	2.034979E+0	1.965724E+0	2.026678E+0	2.086801E+0	1.940646E+0	2.022652E+0	1.874601E+0	2.010615E+0	1.892159E+0	1.679904E+0	1.775502E+0	2.060973E+0	2.018832E+0	1.923934E+0	2.187149E+0	2.230722E+0	1.999228E+0	1.880856E+0	1.932259E+0	1.946372E+0	1.606188E+0	1.841426E+0	1.868951E+0	1.755624E+0	1.799972E+0	1.842555E+0	1.952293E+0	2.003768E+0	1.800509E+0	1.913721E+0	2.151662E+0	2.121560E+0	1.844267E+0	1.888665E+0	1.859786E+0	1.934018E+0	1.812477E+0	1.809731E+0	1.837452E+0	1.888199E+0	1.728252E+0	1.980544E+0	1.980229E+0	1.936939E+0	1.678325E+0	1.854188E+0	2.132432E+0	2.151879E+0	1.791278E+0	1.899565E+0	2.241891E+0
5.400350E+2	1.732866E+0	2.229405E+0	2.245153E+0	6.653367E-1	1.857922E+0	2.189542E+0	2.223194E+0	1.955383E+0	1.893383E+0	2.116223E+0	2.010186E+0	2.111410E+0	1.999066E+0	1.945916E+0	2.026015E+0	1.885499E+0	1.913684E+0	2.078385E+0	2.234655E+0	2.005775E+0	1.932483E+0	2.135948E+0	2.247570E+0	2.222177E+0	1.894412E+0	1.971895E+0	2.121560E+0	2.065026E+0	1.881590E+0	1.912821E+0	2.019793E+0	1.874030E+0	2.022353E+0	2.049257E+0	2.093734E+0	1.991786E+0	1.905671E+0	2.119124E+0	2.244665E+0	2.224712E+0	1.899646E+0	2.079828E+0	1.916984E+0	2.114178E+0	1.934173E+0	1.983447E+0	1.912738E+0	1.868933E+0	2.002153E+0	2.073879E+0	2.092551E+0	2.075572E+0	1.898822E+0	2.255271E+0	2.263500E+0	2.249887E+0	1.934020E+0	2.005758E+0	2.040368E+0	2.113904E+0	1.885791E+0	1.977871E+0	1.946902E+0	1.853871E+0	1.979742E+0	2.090238E+0	2.043993E+0	1.959552E+0	1.969222E+0	2.248542E+0	2.248413E+0	2.273483E+0	1.974962E+0	2.065248E+0	2.122127E+0	2.123005E+0	1.890692E+0	2.064496E+0	2.033506E+0	1.873586E+0	1.876356E+0	2.024693E+0	2.094149E+0	2.032274E+0	1.855603E+0	2.165908E+0	2.231390E+0	2.208802E+0	1.946125E+0	2.055270E+0	2.099744E+0	2.063659E+0	1.920968E+0	1.895755E+0	1.961709E+0	1.896938E+0	1.989186E+0	2.128450E+0	2.137828E+0	2.019888E+0	1.958665E+0	2.250237E+0	2.288520E+0	2.187855E+0	1.841200E+0	1.990499E+0	2.066488E+0	2.083811E+0	1.890143E+0	1.887136E+0	1.927233E+0	1.922274E+0	1.845375E+0	1.958350E+0	2.020927E+0	2.017508E+0	1.915812E+0	2.184138E+0	2.131407E+0	2.270089E+0	2.023132E+0	2.109447E+0	2.133964E+0	2.072714E+0	1.938218E+0	1.926001E+0	2.038048E+0	1.982938E+0	1.751717E+0	1.803259E+0	2.051941E+0	2.027573E+0	1.923467E+0	2.090854E+0	2.221661E+0	2.241502E+0	1.921288E+0	1.920063E+0	1.935866E+0	1.713965E+0	1.854540E+0	1.914445E+0	1.749380E+0	1.838224E+0	1.963737E+0	2.044960E+0	1.991095E+0	2.000637E+0	1.888246E+0	2.172939E+0	2.188772E+0	2.152833E+0	1.949659E+0	1.863437E+0	2.037060E+0	2.113329E+0	1.834059E+0	1.866466E+0	1.912153E+0	1.808692E+0	1.992891E+0	2.060417E+0	1.965075E+0	1.826249E+0	1.923851E+0	2.167625E+0	2.207529E+0	1.981321E+0	1.912139E+0	2.158500E+0
5.402740E+2	1.735550E+0	2.117426E+0	2.201556E+0	7.911804E-1	1.729468E+0	2.170549E+0	2.226930E+0	1.911408E+0	1.877779E+0	1.945098E+0	1.918776E+0	2.007026E+0	1.908785E+0	1.929943E+0	1.924219E+0	1.857666E+0	1.885272E+0	2.005608E+0	2.076089E+0	1.881764E+0	1.849473E+0	2.133615E+0	2.180718E+0	2.227896E+0	1.889721E+0	1.901065E+0	2.065520E+0	2.067444E+0	1.873233E+0	1.797023E+0	1.932355E+0	1.845439E+0	1.855080E+0	1.946590E+0	2.051081E+0	1.944705E+0	1.833333E+0	2.086836E+0	2.158988E+0	2.154705E+0	1.836706E+0	1.980636E+0	1.933580E+0	2.113554E+0	1.873597E+0	1.906590E+0	1.915500E+0	1.803094E+0	1.935430E+0	2.134805E+0	2.066643E+0	2.020493E+0	1.894800E+0	2.154071E+0	2.176642E+0	2.113184E+0	1.820634E+0	1.974135E+0	1.977111E+0	2.026531E+0	1.838440E+0	1.906160E+0	1.888436E+0	1.785026E+0	1.908698E+0	1.982564E+0	1.996660E+0	1.901581E+0	1.916282E+0	2.172658E+0	2.158732E+0	2.070534E+0	1.883569E+0	1.949932E+0	2.043205E+0	1.944765E+0	1.916952E+0	1.996234E+0	1.958179E+0	1.813952E+0	1.871222E+0	1.981238E+0	2.053283E+0	1.953064E+0	1.830264E+0	2.167506E+0	2.164127E+0	2.156667E+0	1.829707E+0	2.018401E+0	1.999144E+0	2.025981E+0	1.854660E+0	1.866807E+0	1.949936E+0	1.728366E+0	1.885503E+0	2.058776E+0	2.040329E+0	2.065563E+0	1.874514E+0	2.108064E+0	2.168513E+0	2.137698E+0	1.806136E+0	1.960331E+0	2.056072E+0	2.039245E+0	1.792895E+0	1.913508E+0	1.853519E+0	1.891763E+0	1.826703E+0	1.981110E+0	1.966020E+0	1.944414E+0	1.801882E+0	2.170997E+0	2.136494E+0	2.138089E+0	1.996456E+0	1.954253E+0	1.985128E+0	2.042645E+0	1.957784E+0	1.842294E+0	1.870509E+0	1.896862E+0	1.699388E+0	1.811707E+0	2.026774E+0	1.985876E+0	1.873119E+0	2.068996E+0	2.135318E+0	2.152130E+0	1.808575E+0	1.894459E+0	1.876924E+0	1.638181E+0	1.829826E+0	1.928965E+0	1.782039E+0	1.749547E+0	1.834438E+0	1.982122E+0	1.956871E+0	1.932113E+0	1.847391E+0	2.112929E+0	2.110443E+0	2.171690E+0	1.854438E+0	1.829996E+0	1.997289E+0	2.009377E+0	1.794468E+0	1.782749E+0	1.821978E+0	1.760960E+0	1.859331E+0	2.020030E+0	1.911193E+0	1.889643E+0	1.837023E+0	2.131396E+0	2.094973E+0	2.111427E+0	2.009935E+0	2.123123E+0
5.405080E+2	1.585254E+0	1.990209E+0	1.980255E+0	8.229582E-1	1.561525E+0	1.974484E+0	2.074775E+0	1.802468E+0	1.655934E+0	1.812504E+0	1.772750E+0	1.863429E+0	1.760152E+0	1.756458E+0	1.766438E+0	1.649126E+0	1.758017E+0	1.802521E+0	1.876328E+0	1.692802E+0	1.708721E+0	1.859333E+0	1.932281E+0	1.991783E+0	1.726254E+0	1.732025E+0	1.896791E+0	1.880855E+0	1.718380E+0	1.642014E+0	1.706225E+0	1.643572E+0	1.719451E+0	1.794657E+0	1.911548E+0	1.755776E+0	1.674279E+0	1.889352E+0	2.083539E+0	1.935221E+0	1.680238E+0	1.871920E+0	1.732695E+0	1.915751E+0	1.688247E+0	1.753824E+0	1.680154E+0	1.631204E+0	1.808823E+0	1.868096E+0	1.848757E+0	1.800763E+0	1.673521E+0	1.946320E+0	2.002437E+0	1.986539E+0	1.694523E+0	1.793794E+0	1.826272E+0	1.888392E+0	1.675294E+0	1.688722E+0	1.694848E+0	1.567008E+0	1.789512E+0	1.854740E+0	1.823742E+0	1.739873E+0	1.738547E+0	1.944510E+0	1.970753E+0	1.887595E+0	1.752821E+0	1.849988E+0	1.859251E+0	1.845876E+0	1.692600E+0	1.770972E+0	1.799199E+0	1.674129E+0	1.689268E+0	1.789408E+0	1.857891E+0	1.815177E+0	1.675162E+0	1.934797E+0	1.933594E+0	2.035637E+0	1.684332E+0	1.834035E+0	1.833951E+0	1.832216E+0	1.655743E+0	1.734123E+0	1.746550E+0	1.649817E+0	1.763852E+0	1.832985E+0	1.772996E+0	1.789800E+0	1.705264E+0	2.033350E+0	1.967121E+0	1.982491E+0	1.641136E+0	1.825811E+0	1.829946E+0	1.843767E+0	1.690241E+0	1.669453E+0	1.696713E+0	1.701729E+0	1.686365E+0	1.829608E+0	1.701519E+0	1.823423E+0	1.670816E+0	1.971834E+0	1.891010E+0	1.974706E+0	1.824817E+0	1.880009E+0	1.847938E+0	1.796816E+0	1.747213E+0	1.685159E+0	1.741672E+0	1.707310E+0	1.599742E+0	1.713954E+0	1.837081E+0	1.874244E+0	1.724907E+0	1.893068E+0	1.970093E+0	1.930004E+0	1.684227E+0	1.723748E+0	1.766617E+0	1.561841E+0	1.641690E+0	1.689395E+0	1.621149E+0	1.626531E+0	1.663915E+0	1.796150E+0	1.817452E+0	1.772227E+0	1.680125E+0	1.932350E+0	1.950759E+0	1.955020E+0	1.627893E+0	1.685896E+0	1.858694E+0	1.843662E+0	1.689530E+0	1.713302E+0	1.644923E+0	1.610242E+0	1.713994E+0	1.891854E+0	1.790859E+0	1.741163E+0	1.741606E+0	1.937835E+0	1.934899E+0	1.946966E+0	1.825520E+0	1.918435E+0
5.407630E+2	1.437108E+0	1.846427E+0	1.821050E+0	7.422406E-1	1.518706E+0	1.771739E+0	1.839865E+0	1.674034E+0	1.527174E+0	1.639676E+0	1.610625E+0	1.674914E+0	1.605587E+0	1.584746E+0	1.590152E+0	1.570764E+0	1.521257E+0	1.703231E+0	1.702156E+0	1.570566E+0	1.574286E+0	1.705402E+0	1.802845E+0	1.860613E+0	1.561617E+0	1.633822E+0	1.731602E+0	1.643376E+0	1.531857E+0	1.506155E+0	1.659214E+0	1.497189E+0	1.580435E+0	1.714538E+0	1.715954E+0	1.577579E+0	1.545686E+0	1.763934E+0	1.824078E+0	1.770137E+0	1.522600E+0	1.708840E+0	1.580458E+0	1.810883E+0	1.499737E+0	1.611017E+0	1.593273E+0	1.503941E+0	1.624611E+0	1.764273E+0	1.654434E+0	1.619472E+0	1.604679E+0	1.802791E+0	1.818964E+0	1.824231E+0	1.563777E+0	1.629256E+0	1.657058E+0	1.678231E+0	1.535589E+0	1.624410E+0	1.600440E+0	1.511843E+0	1.632159E+0	1.692943E+0	1.620489E+0	1.626368E+0	1.645903E+0	1.836105E+0	1.792399E+0	1.778972E+0	1.505923E+0	1.712795E+0	1.711123E+0	1.693097E+0	1.545643E+0	1.614946E+0	1.605101E+0	1.503461E+0	1.522720E+0	1.695663E+0	1.751258E+0	1.634462E+0	1.500401E+0	1.792085E+0	1.756973E+0	1.819644E+0	1.509995E+0	1.680819E+0	1.737352E+0	1.682702E+0	1.533522E+0	1.530517E+0	1.617548E+0	1.498015E+0	1.514190E+0	1.709124E+0	1.676755E+0	1.631079E+0	1.568343E+0	1.849673E+0	1.777064E+0	1.805048E+0	1.474993E+0	1.581927E+0	1.665101E+0	1.724343E+0	1.531601E+0	1.554859E+0	1.535887E+0	1.613687E+0	1.544822E+0	1.720370E+0	1.612962E+0	1.607842E+0	1.565225E+0	1.806538E+0	1.760389E+0	1.775955E+0	1.626505E+0	1.731514E+0	1.747491E+0	1.652988E+0	1.625194E+0	1.618098E+0	1.607935E+0	1.642870E+0	1.434961E+0	1.478631E+0	1.740941E+0	1.749831E+0	1.600690E+0	1.707768E+0	1.760633E+0	1.783298E+0	1.514547E+0	1.573768E+0	1.603786E+0	1.353020E+0	1.551910E+0	1.547592E+0	1.481391E+0	1.495688E+0	1.531491E+0	1.644451E+0	1.675491E+0	1.684673E+0	1.578228E+0	1.792690E+0	1.795620E+0	1.793488E+0	1.480396E+0	1.552138E+0	1.621273E+0	1.654096E+0	1.494913E+0	1.536826E+0	1.586690E+0	1.491343E+0	1.583239E+0	1.727384E+0	1.654362E+0	1.571552E+0	1.572992E+0	1.788785E+0	1.773571E+0	1.779582E+0	1.579633E+0	1.622771E+0
5.410340E+2	1.498301E+0	1.833175E+0	1.823695E+0	7.854597E-1	1.555288E+0	1.931366E+0	1.896457E+0	1.759988E+0	1.590160E+0	1.681612E+0	1.703185E+0	1.776132E+0	1.720941E+0	1.639319E+0	1.673899E+0	1.654264E+0	1.676927E+0	1.671638E+0	1.782062E+0	1.672723E+0	1.631126E+0	1.794961E+0	1.887240E+0	1.927391E+0	1.607315E+0	1.693341E+0	1.788832E+0	1.717285E+0	1.642274E+0	1.667089E+0	1.707166E+0	1.659364E+0	1.629034E+0	1.728191E+0	1.872551E+0	1.683662E+0	1.638746E+0	1.762062E+0	1.950645E+0	1.929071E+0	1.623181E+0	1.780572E+0	1.630251E+0	1.810883E+0	1.660218E+0	1.685980E+0	1.628209E+0	1.533547E+0	1.681640E+0	1.799710E+0	1.719797E+0	1.758883E+0	1.641337E+0	1.897178E+0	1.897040E+0	1.834750E+0	1.622785E+0	1.718846E+0	1.765184E+0	1.733132E+0	1.544030E+0	1.654945E+0	1.626424E+0	1.546708E+0	1.705549E+0	1.761460E+0	1.748505E+0	1.653220E+0	1.719169E+0	1.912972E+0	1.921098E+0	1.829474E+0	1.642381E+0	1.707473E+0	1.794296E+0	1.831659E+0	1.618894E+0	1.716365E+0	1.672572E+0	1.580365E+0	1.627669E+0	1.746568E+0	1.763390E+0	1.748289E+0	1.596082E+0	1.876753E+0	1.889437E+0	1.912279E+0	1.582685E+0	1.785717E+0	1.717350E+0	1.786764E+0	1.629516E+0	1.608679E+0	1.649091E+0	1.544349E+0	1.632362E+0	1.775574E+0	1.823946E+0	1.733850E+0	1.642032E+0	1.829958E+0	1.879045E+0	1.872238E+0	1.587097E+0	1.663641E+0	1.744764E+0	1.757023E+0	1.572366E+0	1.567323E+0	1.637298E+0	1.681245E+0	1.558071E+0	1.637792E+0	1.695027E+0	1.644692E+0	1.598567E+0	1.855570E+0	1.832052E+0	1.935854E+0	1.678694E+0	1.732731E+0	1.789750E+0	1.760860E+0	1.683374E+0	1.667047E+0	1.696605E+0	1.585956E+0	1.482836E+0	1.523886E+0	1.747390E+0	1.692672E+0	1.609630E+0	1.853509E+0	1.841112E+0	1.908827E+0	1.663399E+0	1.570722E+0	1.743269E+0	1.434419E+0	1.575617E+0	1.579052E+0	1.566878E+0	1.580885E+0	1.607698E+0	1.747913E+0	1.714152E+0	1.698813E+0	1.587839E+0	1.901253E+0	1.837562E+0	1.924556E+0	1.629139E+0	1.655496E+0	1.724316E+0	1.748271E+0	1.540705E+0	1.600092E+0	1.607351E+0	1.525819E+0	1.685374E+0	1.734408E+0	1.707643E+0	1.612145E+0	1.589649E+0	1.873662E+0	1.850486E+0	1.848291E+0	1.613163E+0	1.799664E+0
5.412640E+2	1.445158E+0	1.813298E+0	1.874561E+0	7.403340E-1	1.549469E+0	1.781486E+0	1.931690E+0	1.636553E+0	1.727837E+0	1.671975E+0	1.618097E+0	1.732478E+0	1.855897E+0	1.621574E+0	1.598941E+0	1.578898E+0	1.740259E+0	1.737082E+0	1.769581E+0	1.618987E+0	1.623458E+0	1.807089E+0	1.845988E+0	1.843915E+0	1.647744E+0	1.647511E+0	1.792960E+0	1.699111E+0	1.739496E+0	1.563144E+0	1.604682E+0	1.591505E+0	1.621124E+0	1.677152E+0	1.769575E+0	1.588903E+0	1.598988E+0	1.712458E+0	1.835276E+0	1.817439E+0	1.577888E+0	1.746389E+0	1.631968E+0	1.762532E+0	1.590151E+0	1.611493E+0	1.614879E+0	1.483174E+0	1.647991E+0	1.719513E+0	1.703308E+0	1.699794E+0	1.541200E+0	1.800845E+0	1.845315E+0	1.820115E+0	1.521551E+0	1.735241E+0	1.628945E+0	1.842939E+0	1.579188E+0	1.688718E+0	1.584415E+0	1.537440E+0	1.599865E+0	1.655514E+0	1.687230E+0	1.620880E+0	1.689860E+0	1.846942E+0	1.841043E+0	1.822326E+0	1.624613E+0	1.715751E+0	1.783972E+0	1.696648E+0	1.586184E+0	1.691495E+0	1.668411E+0	1.507574E+0	1.606565E+0	1.628611E+0	1.739766E+0	1.740076E+0	1.537097E+0	1.884745E+0	1.854015E+0	1.849436E+0	1.569091E+0	1.732312E+0	1.729919E+0	1.731744E+0	1.558759E+0	1.587932E+0	1.621314E+0	1.530671E+0	1.600501E+0	1.716866E+0	1.743431E+0	1.744124E+0	1.615883E+0	1.835146E+0	1.749763E+0	1.805523E+0	1.535357E+0	1.666154E+0	1.725155E+0	1.738009E+0	1.597904E+0	1.534241E+0	1.609601E+0	1.616302E+0	1.610471E+0	1.686562E+0	1.714508E+0	1.648994E+0	1.528635E+0	1.731724E+0	1.814771E+0	1.855159E+0	1.691450E+0	1.718123E+0	1.770152E+0	1.746479E+0	1.661747E+0	1.626417E+0	1.710811E+0	1.634404E+0	1.488405E+0	1.516038E+0	1.733196E+0	1.708810E+0	1.638332E+0	1.755653E+0	1.829384E+0	1.825139E+0	1.553138E+0	1.584745E+0	1.593282E+0	1.364811E+0	1.529213E+0	1.592601E+0	1.508763E+0	1.502648E+0	1.584585E+0	1.693327E+0	1.640635E+0	1.669447E+0	1.569093E+0	1.812874E+0	1.756711E+0	1.882958E+0	1.553836E+0	1.592876E+0	1.656824E+0	1.732370E+0	1.491097E+0	1.559657E+0	1.573536E+0	1.502836E+0	1.646088E+0	1.701048E+0	1.637595E+0	1.573776E+0	1.564410E+0	1.834331E+0	1.803586E+0	1.842443E+0	1.585221E+0	1.794610E+0
5.415140E+2	1.310970E+0	1.726500E+0	1.663168E+0	6.882171E-1	1.394411E+0	1.662922E+0	1.665816E+0	1.547101E+0	1.602981E+0	1.491218E+0	1.480693E+0	1.543335E+0	1.750122E+0	1.556349E+0	1.502233E+0	1.464137E+0	1.586956E+0	1.541887E+0	1.616009E+0	1.494979E+0	1.459250E+0	1.608844E+0	1.734097E+0	1.638806E+0	1.556931E+0	1.462999E+0	1.569957E+0	1.605214E+0	1.658550E+0	1.420901E+0	1.528991E+0	1.449393E+0	1.574219E+0	1.529378E+0	1.545952E+0	1.482815E+0	1.463200E+0	1.617927E+0	1.668793E+0	1.641474E+0	1.571420E+0	1.541282E+0	1.453975E+0	1.557194E+0	1.670164E+0	1.530838E+0	1.428713E+0	1.388168E+0	1.607504E+0	1.564089E+0	1.554912E+0	1.531697E+0	1.512589E+0	1.638340E+0	1.694045E+0	1.694846E+0	1.630307E+0	1.550795E+0	1.540276E+0	1.623331E+0	1.692644E+0	1.531421E+0	1.419413E+0	1.416957E+0	1.572267E+0	1.524806E+0	1.508240E+0	1.434146E+0	1.588707E+0	1.657723E+0	1.681434E+0	1.657492E+0	1.561779E+0	1.512322E+0	1.575734E+0	1.569925E+0	1.574669E+0	1.541811E+0	1.533928E+0	1.400648E+0	1.420050E+0	1.489549E+0	1.632494E+0	1.572855E+0	1.446225E+0	1.638720E+0	1.677394E+0	1.676736E+0	1.349849E+0	1.568926E+0	1.565877E+0	1.562496E+0	1.385574E+0	1.496741E+0	1.478186E+0	1.362982E+0	1.536202E+0	1.556232E+0	1.567933E+0	1.537445E+0	1.425715E+0	1.673255E+0	1.673019E+0	1.691010E+0	1.372086E+0	1.595753E+0	1.551119E+0	1.553226E+0	1.424031E+0	1.359235E+0	1.457261E+0	1.451982E+0	1.458087E+0	1.511649E+0	1.557465E+0	1.540280E+0	1.433233E+0	1.632142E+0	1.632311E+0	1.656906E+0	1.540688E+0	1.593974E+0	1.586411E+0	1.520269E+0	1.526342E+0	1.521663E+0	1.473220E+0	1.447673E+0	1.301910E+0	1.432771E+0	1.598990E+0	1.594486E+0	1.459064E+0	1.675498E+0	1.684946E+0	1.674301E+0	1.423276E+0	1.503657E+0	1.523835E+0	1.281171E+0	1.472723E+0	1.480319E+0	1.387738E+0	1.420488E+0	1.450289E+0	1.572093E+0	1.475232E+0	1.530771E+0	1.407116E+0	1.653573E+0	1.609153E+0	1.701596E+0	1.448031E+0	1.432359E+0	1.623080E+0	1.559317E+0	1.387586E+0	1.419333E+0	1.448614E+0	1.375102E+0	1.535541E+0	1.617350E+0	1.487327E+0	1.455325E+0	1.450819E+0	1.666646E+0	1.674772E+0	1.581499E+0	1.490220E+0	1.642987E+0
5.417700E+2	1.221864E+0	1.455496E+0	1.460364E+0	7.867304E-1	1.264296E+0	1.526389E+0	1.532342E+0	1.410672E+0	1.434087E+0	1.338790E+0	1.351912E+0	1.374428E+0	1.532185E+0	1.341601E+0	1.327336E+0	1.317260E+0	1.427742E+0	1.383928E+0	1.443087E+0	1.343809E+0	1.312180E+0	1.461907E+0	1.532595E+0	1.482829E+0	1.433891E+0	1.362408E+0	1.453148E+0	1.399837E+0	1.567049E+0	1.298718E+0	1.342822E+0	1.300020E+0	1.350434E+0	1.369733E+0	1.421042E+0	1.363021E+0	1.280879E+0	1.447588E+0	1.547583E+0	1.479227E+0	1.442010E+0	1.416874E+0	1.319481E+0	1.491263E+0	1.520078E+0	1.342013E+0	1.341375E+0	1.224673E+0	1.445534E+0	1.457776E+0	1.424772E+0	1.433018E+0	1.298466E+0	1.496272E+0	1.515451E+0	1.491849E+0	1.479318E+0	1.378061E+0	1.382953E+0	1.433831E+0	1.535123E+0	1.337575E+0	1.276929E+0	1.259844E+0	1.465409E+0	1.439592E+0	1.399634E+0	1.315760E+0	1.392071E+0	1.531084E+0	1.508657E+0	1.496466E+0	1.498942E+0	1.424208E+0	1.389357E+0	1.422477E+0	1.487598E+0	1.377009E+0	1.360626E+0	1.275627E+0	1.358449E+0	1.422502E+0	1.405818E+0	1.351653E+0	1.299425E+0	1.479500E+0	1.504876E+0	1.512414E+0	1.407760E+0	1.398545E+0	1.459560E+0	1.392651E+0	1.611210E+0	1.329804E+0	1.345888E+0	1.267223E+0	1.469587E+0	1.407856E+0	1.466031E+0	1.422684E+0	1.362009E+0	1.499438E+0	1.493260E+0	1.497004E+0	1.318045E+0	1.415352E+0	1.348892E+0	1.407064E+0	1.330222E+0	1.264297E+0	1.365232E+0	1.327766E+0	1.323774E+0	1.383557E+0	1.441159E+0	1.339441E+0	1.307724E+0	1.524474E+0	1.483398E+0	1.509463E+0	1.370208E+0	1.390100E+0	1.402668E+0	1.470579E+0	1.384762E+0	1.329281E+0	1.369364E+0	1.358307E+0	1.221192E+0	1.250545E+0	1.373159E+0	1.439813E+0	1.306149E+0	1.499567E+0	1.548501E+0	1.561689E+0	1.322205E+0	1.273811E+0	1.393686E+0	1.185741E+0	1.306273E+0	1.332707E+0	1.239335E+0	1.260523E+0	1.317868E+0	1.389293E+0	1.392846E+0	1.308893E+0	1.296081E+0	1.549916E+0	1.509598E+0	1.539093E+0	1.271904E+0	1.352711E+0	1.401326E+0	1.392989E+0	1.253073E+0	1.258078E+0	1.298798E+0	1.235877E+0	1.306024E+0	1.422447E+0	1.452602E+0	1.359674E+0	1.320066E+0	1.447729E+0	1.481555E+0	1.531065E+0	1.315585E+0	1.466095E+0
5.420160E+2	1.064054E+0	1.306413E+0	1.382414E+0	7.454186E-1	1.083049E+0	1.319027E+0	1.354026E+0	1.299231E+0	1.281920E+0	1.199396E+0	1.228880E+0	1.258663E+0	1.312876E+0	1.178318E+0	1.147806E+0	1.107862E+0	1.228865E+0	1.267716E+0	1.300756E+0	1.135359E+0	1.155188E+0	1.281383E+0	1.338209E+0	1.284874E+0	1.244059E+0	1.163613E+0	1.272623E+0	1.199919E+0	1.373048E+0	1.067576E+0	1.221061E+0	1.134007E+0	1.287706E+0	1.214243E+0	1.290647E+0	1.175883E+0	1.190355E+0	1.299240E+0	1.336318E+0	1.310830E+0	1.261430E+0	1.249876E+0	1.168961E+0	1.302878E+0	1.335638E+0	1.203004E+0	1.169463E+0	1.136297E+0	1.287561E+0	1.332193E+0	1.285209E+0	1.273530E+0	1.180002E+0	1.323061E+0	1.362230E+0	1.333656E+0	1.299985E+0	1.224651E+0	1.196432E+0	1.317537E+0	1.360724E+0	1.192306E+0	1.136179E+0	1.093905E+0	1.270477E+0	1.238636E+0	1.236424E+0	1.160151E+0	1.281461E+0	1.314270E+0	1.319662E+0	1.330201E+0	1.279337E+0	1.198896E+0	1.205403E+0	1.253116E+0	1.316228E+0	1.186852E+0	1.175306E+0	1.149786E+0	1.288864E+0	1.275368E+0	1.298545E+0	1.241347E+0	1.177966E+0	1.310160E+0	1.391408E+0	1.321090E+0	1.232838E+0	1.222442E+0	1.261216E+0	1.304737E+0	1.422192E+0	1.171068E+0	1.171688E+0	1.154694E+0	1.310290E+0	1.333668E+0	1.270408E+0	1.221144E+0	1.160428E+0	1.344814E+0	1.275387E+0	1.309622E+0	1.243309E+0	1.214205E+0	1.274742E+0	1.268031E+0	1.405370E+0	1.114222E+0	1.121314E+0	1.152552E+0	1.251497E+0	1.245060E+0	1.240422E+0	1.168697E+0	1.172026E+0	1.315201E+0	1.323808E+0	1.363017E+0	1.260035E+0	1.261081E+0	1.289971E+0	1.244369E+0	1.288486E+0	1.155503E+0	1.187623E+0	1.158405E+0	1.075896E+0	1.145554E+0	1.322830E+0	1.291863E+0	1.161229E+0	1.307502E+0	1.373683E+0	1.315282E+0	1.226646E+0	1.155534E+0	1.173659E+0	1.049897E+0	1.248774E+0	1.163314E+0	1.079885E+0	1.132724E+0	1.239789E+0	1.233788E+0	1.234412E+0	1.243088E+0	1.173035E+0	1.359520E+0	1.332736E+0	1.378525E+0	1.136851E+0	1.147204E+0	1.241036E+0	1.286588E+0	1.115697E+0	1.157235E+0	1.164948E+0	1.156316E+0	1.225214E+0	1.274371E+0	1.186190E+0	1.185615E+0	1.204461E+0	1.315758E+0	1.373376E+0	1.387070E+0	1.201024E+0	1.236137E+0
5.422670E+2	8.208984E-1	1.046014E+0	1.044187E+0	6.176692E-1	8.722867E-1	1.099347E+0	1.103100E+0	9.888947E-1	9.959745E-1	9.665046E-1	9.684440E-1	9.980316E-1	1.077613E+0	9.245214E-1	9.340389E-1	9.155934E-1	1.000986E+0	9.737994E-1	1.037317E+0	9.156877E-1	9.711280E-1	1.014564E+0	1.073647E+0	1.038743E+0	1.054228E+0	9.600556E-1	1.028973E+0	1.016358E+0	1.068628E+0	9.184947E-1	9.488614E-1	9.189128E-1	1.014190E+0	1.017211E+0	9.731895E-1	9.404674E-1	9.928092E-1	1.065724E+0	1.111908E+0	1.089927E+0	9.873203E-1	1.009465E+0	9.400339E-1	1.047305E+0	1.101464E+0	9.264101E-1	9.354941E-1	8.839822E-1	1.046321E+0	1.028183E+0	1.030818E+0	1.007904E+0	9.542543E-1	1.016056E+0	1.065062E+0	1.036475E+0	1.035031E+0	9.921922E-1	9.396286E-1	1.030632E+0	1.094440E+0	9.855037E-1	9.421593E-1	8.750064E-1	1.052060E+0	9.841334E-1	1.015573E+0	9.697597E-1	9.727939E-1	1.067398E+0	1.097734E+0	1.076276E+0	1.041961E+0	9.948749E-1	1.014166E+0	1.041714E+0	1.120902E+0	9.976703E-1	9.336056E-1	9.013909E-1	9.557635E-1	1.008416E+0	1.016317E+0	9.802466E-1	9.206293E-1	1.041240E+0	1.059729E+0	1.057618E+0	1.025411E+0	1.003744E+0	1.060017E+0	1.027843E+0	1.110949E+0	9.650466E-1	9.664154E-1	8.943369E-1	1.060629E+0	1.006595E+0	1.019430E+0	1.019602E+0	9.688338E-1	1.087458E+0	1.099236E+0	1.056467E+0	9.811564E-1	9.564884E-1	9.916249E-1	1.051758E+0	1.110182E+0	9.305824E-1	9.193882E-1	9.490045E-1	1.022620E+0	9.602643E-1	9.735631E-1	9.911968E-1	9.311995E-1	1.121091E+0	1.067143E+0	1.098517E+0	1.023452E+0	9.933055E-1	1.032734E+0	1.014892E+0	1.091815E+0	9.420742E-1	9.652186E-1	9.650891E-1	8.693640E-1	8.565251E-1	1.055059E+0	1.028245E+0	9.344414E-1	1.072755E+0	1.101326E+0	1.071459E+0	1.071669E+0	9.933615E-1	9.939052E-1	8.045904E-1	1.125704E+0	9.276186E-1	9.036258E-1	8.771277E-1	1.023042E+0	9.970382E-1	1.005634E+0	9.912988E-1	9.562607E-1	1.083469E+0	1.075014E+0	1.061261E+0	1.044741E+0	9.003544E-1	9.843329E-1	1.019365E+0	1.071337E+0	9.584049E-1	8.949038E-1	8.654876E-1	1.065283E+0	1.028548E+0	9.940129E-1	9.848618E-1	9.707195E-1	1.083899E+0	1.116376E+0	1.098351E+0	1.108817E+0	1.056718E+0
5.425140E+2	7.715158E-1	9.744540E-1	1.015781E+0	6.901236E-1	8.398616E-1	1.004905E+0	9.957882E-1	1.010383E+0	9.653178E-1	8.860418E-1	9.517708E-1	9.607088E-1	1.044328E+0	8.987868E-1	9.058142E-1	8.487926E-1	9.494925E-1	9.314886E-1	9.992371E-1	8.749427E-1	8.944364E-1	9.665179E-1	1.027657E+0	1.015370E+0	1.039581E+0	9.219627E-1	9.640785E-1	9.800076E-1	1.039591E+0	8.906843E-1	9.239448E-1	8.860514E-1	9.576792E-1	9.080117E-1	1.009140E+0	8.206740E-1	8.925564E-1	9.791493E-1	1.026233E+0	1.071006E+0	9.696741E-1	9.562265E-1	9.079840E-1	9.261121E-1	1.037722E+0	9.164470E-1	8.964226E-1	8.839820E-1	1.009252E+0	1.000207E+0	9.996075E-1	9.488128E-1	9.260917E-1	1.053033E+0	9.879638E-1	1.025045E+0	9.638761E-1	9.383229E-1	9.336817E-1	9.680566E-1	1.075219E+0	9.156451E-1	8.520802E-1	8.639732E-1	9.774927E-1	9.415247E-1	9.615740E-1	8.904298E-1	9.680671E-1	1.032905E+0	9.746093E-1	1.042453E+0	1.007687E+0	9.493398E-1	1.006881E+0	9.617725E-1	1.064237E+0	9.108812E-1	9.151192E-1	8.816514E-1	9.802899E-1	9.438511E-1	1.006740E+0	9.573635E-1	9.166971E-1	1.046033E+0	1.039192E+0	1.061342E+0	1.047277E+0	9.795852E-1	9.171191E-1	9.453118E-1	1.072353E+0	9.196929E-1	9.085057E-1	8.325574E-1	9.847457E-1	9.924020E-1	9.426896E-1	9.539441E-1	8.856344E-1	1.046467E+0	9.823163E-1	1.003470E+0	9.449380E-1	9.376308E-1	9.150238E-1	9.864003E-1	1.010969E+0	8.519481E-1	8.840957E-1	8.871130E-1	9.750377E-1	9.771700E-1	9.357778E-1	9.310064E-1	9.256419E-1	1.025555E+0	9.924324E-1	1.064147E+0	9.654663E-1	9.580080E-1	1.008846E+0	9.710884E-1	1.039814E+0	8.745205E-1	9.696273E-1	9.213458E-1	8.598998E-1	9.367773E-1	9.950529E-1	9.280431E-1	9.095041E-1	9.728188E-1	1.057088E+0	1.078691E+0	1.031240E+0	9.482456E-1	9.168664E-1	7.484563E-1	1.058620E+0	9.111638E-1	8.993036E-1	8.901687E-1	9.724468E-1	1.021157E+0	9.042359E-1	9.298466E-1	9.322280E-1	1.043645E+0	1.056316E+0	1.065614E+0	9.843716E-1	9.040026E-1	9.662549E-1	9.894011E-1	1.057982E+0	8.818217E-1	8.967824E-1	8.526705E-1	9.760569E-1	1.016843E+0	9.550986E-1	9.464907E-1	9.767777E-1	1.020759E+0	1.052595E+0	1.020142E+0	1.051536E+0	1.074407E+0
5.427650E+2	8.015745E-1	1.048001E+0	9.919997E-1	7.180895E-1	8.585688E-1	1.058798E+0	1.039033E+0	1.011383E+0	9.720063E-1	8.877412E-1	9.494717E-1	9.423633E-1	1.064846E+0	8.557477E-1	8.965607E-1	8.984654E-1	9.500840E-1	9.218982E-1	1.056669E+0	9.032876E-1	9.138344E-1	9.991711E-1	1.066063E+0	9.781641E-1	1.059501E+0	9.493421E-1	1.047261E+0	9.787961E-1	1.090622E+0	8.934201E-1	9.573235E-1	8.911731E-1	9.712421E-1	9.151338E-1	1.021327E+0	9.374875E-1	8.430627E-1	9.725970E-1	1.071991E+0	1.010932E+0	9.632039E-1	9.797634E-1	9.308765E-1	9.286238E-1	1.051286E+0	9.041114E-1	8.771162E-1	8.353754E-1	1.018376E+0	1.004559E+0	1.016685E+0	9.373385E-1	9.390554E-1	1.021408E+0	1.046519E+0	1.015443E+0	9.997428E-1	9.465207E-1	9.331412E-1	9.769113E-1	1.065842E+0	9.040790E-1	8.836949E-1	8.798608E-1	9.904099E-1	9.662840E-1	9.627869E-1	9.069059E-1	9.562492E-1	1.039310E+0	1.050612E+0	9.976706E-1	1.011495E+0	9.623497E-1	9.382777E-1	9.783530E-1	1.023699E+0	9.206326E-1	9.502424E-1	8.590322E-1	9.648899E-1	9.873080E-1	1.069315E+0	9.614711E-1	8.620841E-1	9.874564E-1	1.028410E+0	1.046911E+0	9.420863E-1	9.725923E-1	9.782791E-1	9.716260E-1	1.116887E+0	8.941217E-1	9.339297E-1	8.758030E-1	1.028770E+0	9.833703E-1	1.038929E+0	9.744979E-1	9.322258E-1	1.023118E+0	1.022491E+0	1.032333E+0	9.420630E-1	9.476883E-1	9.897860E-1	9.638220E-1	1.043877E+0	8.572226E-1	8.881166E-1	8.831908E-1	1.000937E+0	9.537623E-1	9.127523E-1	9.359202E-1	8.811815E-1	1.038193E+0	1.038174E+0	9.869386E-1	9.695249E-1	9.969573E-1	9.941475E-1	9.795872E-1	1.005320E+0	9.229828E-1	9.172105E-1	9.500380E-1	8.264986E-1	8.637660E-1	9.782775E-1	9.865501E-1	8.963297E-1	1.024869E+0	1.006987E+0	1.033233E+0	1.033691E+0	9.275164E-1	8.999418E-1	8.231155E-1	1.063160E+0	9.542374E-1	8.911393E-1	8.771277E-1	1.004303E+0	9.703799E-1	9.346549E-1	9.401795E-1	9.370346E-1	1.043099E+0	1.033072E+0	1.078671E+0	9.713021E-1	8.875861E-1	9.343179E-1	9.985735E-1	1.063707E+0	8.894320E-1	9.244916E-1	8.831676E-1	1.037785E+0	9.559730E-1	9.796447E-1	9.425980E-1	9.278080E-1	9.943647E-1	1.059473E+0	9.945584E-1	8.880796E-1	1.079461E+0
5.430120E+2	8.294865E-1	1.073180E+0	1.042865E+0	8.960486E-1	8.822633E-1	1.083436E+0	1.112175E+0	1.098337E+0	9.904004E-1	1.007870E+0	9.494714E-1	9.961338E-1	1.089467E+0	1.012816E+0	9.655028E-1	9.018911E-1	1.043603E+0	1.020623E+0	1.050427E+0	9.723771E-1	9.201502E-1	1.048616E+0	1.072223E+0	1.105047E+0	1.085281E+0	9.957678E-1	1.062011E+0	1.049071E+0	1.116137E+0	9.043616E-1	9.502715E-1	9.778084E-1	1.062225E+0	9.744804E-1	1.042652E+0	9.774188E-1	9.335878E-1	1.032029E+0	1.113368E+0	1.070534E+0	1.029084E+0	1.004421E+0	9.383165E-1	1.100052E+0	1.027324E+0	9.781232E-1	9.626139E-1	8.857497E-1	1.075407E+0	1.030048E+0	1.024929E+0	1.031427E+0	9.555956E-1	1.051574E+0	1.095315E+0	1.117398E+0	1.018833E+0	9.898504E-1	1.018021E+0	1.094979E+0	1.099596E+0	9.591333E-1	9.200734E-1	9.345859E-1	1.043840E+0	1.039986E+0	9.973710E-1	1.000881E+0	9.628676E-1	1.090065E+0	1.104829E+0	1.101049E+0	1.079407E+0	9.694462E-1	1.058485E+0	1.022173E+0	1.099712E+0	1.018636E+0	9.927594E-1	9.408712E-1	1.021357E+0	1.022695E+0	9.939696E-1	9.485623E-1	9.455338E-1	1.059877E+0	1.103372E+0	1.105099E+0	1.054368E+0	1.025995E+0	1.045155E+0	1.019470E+0	1.137176E+0	8.960515E-1	9.395793E-1	9.097817E-1	1.033983E+0	1.030464E+0	1.028236E+0	9.939103E-1	9.945066E-1	1.098354E+0	1.107992E+0	1.093849E+0	9.713827E-1	9.960889E-1	1.027780E+0	1.034527E+0	1.108219E+0	9.229107E-1	9.394914E-1	9.795148E-1	1.087669E+0	1.037641E+0	9.959985E-1	9.623300E-1	9.654700E-1	1.106434E+0	1.104755E+0	1.104991E+0	1.029251E+0	1.050512E+0	1.038245E+0	1.023391E+0	1.085121E+0	1.008159E+0	9.622796E-1	9.265203E-1	9.428466E-1	9.017798E-1	1.006022E+0	1.024210E+0	9.692599E-1	1.060263E+0	1.099195E+0	1.113820E+0	1.051454E+0	9.756809E-1	9.833991E-1	8.320963E-1	1.120660E+0	9.552053E-1	8.959416E-1	9.019052E-1	1.051775E+0	1.052259E+0	1.046826E+0	9.983683E-1	9.951938E-1	1.114566E+0	1.089668E+0	1.091729E+0	1.049098E+0	9.800038E-1	9.903589E-1	1.039544E+0	1.121424E+0	9.898000E-1	9.244918E-1	9.313446E-1	1.044519E+0	1.058984E+0	1.031731E+0	9.531638E-1	9.550697E-1	1.084417E+0	1.068227E+0	1.115894E+0	1.006830E+0	9.884888E-1
5.432800E+2	9.974955E-1	1.183833E+0	1.227833E+0	1.067653E+0	9.932566E-1	1.220480E+0	1.230163E+0	1.216775E+0	1.152045E+0	1.206195E+0	1.118496E+0	1.132143E+0	1.248133E+0	1.232447E+0	1.073311E+0	1.065041E+0	1.106343E+0	1.209045E+0	1.175904E+0	1.078080E+0	1.047369E+0	1.203018E+0	1.228686E+0	1.251010E+0	1.214180E+0	1.223728E+0	1.161713E+0	1.199919E+0	1.234915E+0	1.259969E+0	1.058871E+0	1.050786E+0	1.152644E+0	1.229080E+0	1.199249E+0	1.084696E+0	1.074451E+0	1.255719E+0	1.236524E+0	1.248862E+0	1.179079E+0	1.234184E+0	1.073957E+0	1.185453E+0	1.273251E+0	1.183079E+0	1.081207E+0	1.017873E+0	1.168936E+0	1.183608E+0	1.133870E+0	1.150757E+0	1.079871E+0	1.222837E+0	1.266101E+0	1.185064E+0	1.205689E+0	1.173709E+0	1.152640E+0	1.207733E+0	1.282433E+0	1.119208E+0	1.043501E+0	1.025940E+0	1.170662E+0	1.160328E+0	1.147841E+0	1.108892E+0	1.123581E+0	1.239373E+0	1.238087E+0	1.219672E+0	1.150494E+0	1.149222E+0	1.178084E+0	1.141790E+0	1.226857E+0	1.137118E+0	1.133714E+0	1.039570E+0	1.129159E+0	1.107126E+0	1.180419E+0	1.106982E+0	1.058691E+0	1.252116E+0	1.223514E+0	1.212166E+0	1.198562E+0	1.144881E+0	1.156044E+0	1.137285E+0	1.296011E+0	1.100142E+0	1.110013E+0	1.042608E+0	1.217612E+0	1.149164E+0	1.088622E+0	1.166334E+0	1.141412E+0	1.241041E+0	1.238820E+0	1.247162E+0	1.199616E+0	1.136262E+0	1.174855E+0	1.140881E+0	1.222658E+0	1.042779E+0	1.093171E+0	1.092838E+0	1.194278E+0	1.139074E+0	1.114668E+0	1.172382E+0	1.084032E+0	1.199950E+0	1.228257E+0	1.263893E+0	1.157980E+0	1.204483E+0	1.169315E+0	1.139764E+0	1.212289E+0	1.057600E+0	1.124428E+0	1.110900E+0	1.010206E+0	1.032718E+0	1.182170E+0	1.159381E+0	1.116062E+0	1.206522E+0	1.253226E+0	1.246061E+0	1.173354E+0	1.062864E+0	1.091369E+0	9.550306E-1	1.249783E+0	1.048612E+0	1.055872E+0	1.046658E+0	1.157962E+0	1.116365E+0	1.126677E+0	1.162603E+0	1.065369E+0	1.253137E+0	1.239247E+0	1.209252E+0	1.143697E+0	1.103429E+0	1.146429E+0	1.166124E+0	1.206327E+0	1.065908E+0	1.083230E+0	9.905719E-1	1.190423E+0	1.185406E+0	1.201757E+0	1.081068E+0	1.108035E+0	1.224152E+0	1.260821E+0	1.248924E+0	1.212201E+0	1.198231E+0
5.435270E+2	1.137591E+0	1.383936E+0	1.415443E+0	1.289467E+0	1.161618E+0	1.388833E+0	1.465076E+0	1.378190E+0	1.303101E+0	1.323489E+0	1.247277E+0	1.315597E+0	1.472000E+0	1.440543E+0	1.233870E+0	1.211061E+0	1.310545E+0	1.416650E+0	1.400014E+0	1.216259E+0	1.220151E+0	1.356019E+0	1.401265E+0	1.458979E+0	1.419831E+0	1.388003E+0	1.382356E+0	1.350161E+0	1.441676E+0	1.478802E+0	1.271362E+0	1.172843E+0	1.291663E+0	1.413057E+0	1.338786E+0	1.269452E+0	1.197124E+0	1.394239E+0	1.375746E+0	1.338738E+0	1.306722E+0	1.425282E+0	1.234778E+0	1.378231E+0	1.438708E+0	1.432158E+0	1.268752E+0	1.223790E+0	1.391357E+0	1.388146E+0	1.317007E+0	1.269514E+0	1.261361E+0	1.424749E+0	1.447136E+0	1.414578E+0	1.323702E+0	1.399725E+0	1.261308E+0	1.365945E+0	1.431046E+0	1.413910E+0	1.214132E+0	1.190996E+0	1.376161E+0	1.434407E+0	1.332288E+0	1.249246E+0	1.339130E+0	1.415778E+0	1.395157E+0	1.439298E+0	1.365022E+0	1.332545E+0	1.366285E+0	1.317071E+0	1.364599E+0	1.412112E+0	1.260342E+0	1.200781E+0	1.302554E+0	1.321929E+0	1.349628E+0	1.267749E+0	1.202434E+0	1.408140E+0	1.368303E+0	1.381141E+0	1.348667E+0	1.336877E+0	1.342383E+0	1.339424E+0	1.492947E+0	1.292170E+0	1.223007E+0	1.169257E+0	1.321877E+0	1.383987E+0	1.339600E+0	1.316490E+0	1.253614E+0	1.433023E+0	1.465962E+0	1.394322E+0	1.294474E+0	1.244378E+0	1.362987E+0	1.380328E+0	1.417647E+0	1.234089E+0	1.230765E+0	1.209648E+0	1.285829E+0	1.252862E+0	1.341380E+0	1.303204E+0	1.184995E+0	1.391532E+0	1.423424E+0	1.427273E+0	1.348172E+0	1.379754E+0	1.376943E+0	1.294711E+0	1.450147E+0	1.224524E+0	1.307151E+0	1.212497E+0	1.174429E+0	1.148571E+0	1.282826E+0	1.360457E+0	1.249217E+0	1.346019E+0	1.381145E+0	1.406198E+0	1.384074E+0	1.185408E+0	1.269373E+0	1.088629E+0	1.478775E+0	1.233006E+0	1.201393E+0	1.161849E+0	1.359718E+0	1.331535E+0	1.262930E+0	1.325206E+0	1.256670E+0	1.426077E+0	1.414599E+0	1.446721E+0	1.302399E+0	1.208613E+0	1.328413E+0	1.422952E+0	1.367076E+0	1.201000E+0	1.223186E+0	1.177530E+0	1.384585E+0	1.308317E+0	1.267013E+0	1.230104E+0	1.260495E+0	1.358712E+0	1.390886E+0	1.410461E+0	1.377056E+0	1.357434E+0
5.437640E+2	1.200930E+0	1.479349E+0	1.519818E+0	1.564670E+0	1.233951E+0	1.529473E+0	1.546226E+0	1.563593E+0	1.372775E+0	1.542785E+0	1.396755E+0	1.425669E+0	1.549966E+0	1.508429E+0	1.325484E+0	1.294136E+0	1.446680E+0	1.462911E+0	1.504265E+0	1.379239E+0	1.335188E+0	1.471235E+0	1.537337E+0	1.524803E+0	1.469045E+0	1.535612E+0	1.463767E+0	1.452544E+0	1.523938E+0	1.522566E+0	1.374323E+0	1.289777E+0	1.444805E+0	1.533532E+0	1.480145E+0	1.343950E+0	1.323606E+0	1.498596E+0	1.537848E+0	1.503350E+0	1.452012E+0	1.533998E+0	1.305746E+0	1.484355E+0	1.520079E+0	1.566423E+0	1.334944E+0	1.277698E+0	1.464355E+0	1.608225E+0	1.453627E+0	1.429577E+0	1.328416E+0	1.551249E+0	1.572054E+0	1.484988E+0	1.409322E+0	1.494584E+0	1.377546E+0	1.511169E+0	1.551060E+0	1.544839E+0	1.322836E+0	1.238219E+0	1.446033E+0	1.548991E+0	1.383862E+0	1.357258E+0	1.390181E+0	1.559668E+0	1.493456E+0	1.526958E+0	1.544638E+0	1.508775E+0	1.456743E+0	1.419514E+0	1.533668E+0	1.537424E+0	1.340754E+0	1.282210E+0	1.412636E+0	1.462855E+0	1.437106E+0	1.387445E+0	1.309475E+0	1.541803E+0	1.552116E+0	1.530100E+0	1.486360E+0	1.481829E+0	1.452129E+0	1.392652E+0	1.562716E+0	1.551747E+0	1.324701E+0	1.265454E+0	1.401814E+0	1.514300E+0	1.459113E+0	1.364451E+0	1.346794E+0	1.521749E+0	1.544252E+0	1.533439E+0	1.410030E+0	1.503981E+0	1.430394E+0	1.396370E+0	1.540440E+0	1.502117E+0	1.330389E+0	1.305536E+0	1.427373E+0	1.466783E+0	1.390384E+0	1.417444E+0	1.304482E+0	1.488077E+0	1.463066E+0	1.525904E+0	1.454288E+0	1.412620E+0	1.441865E+0	1.452927E+0	1.496481E+0	1.412986E+0	1.363488E+0	1.352190E+0	1.188903E+0	1.280714E+0	1.460264E+0	1.414929E+0	1.333439E+0	1.473541E+0	1.465890E+0	1.479038E+0	1.450842E+0	1.355507E+0	1.377342E+0	1.152061E+0	1.536779E+0	1.311893E+0	1.277756E+0	1.265740E+0	1.465279E+0	1.483233E+0	1.353554E+0	1.349679E+0	1.347995E+0	1.496999E+0	1.504044E+0	1.552637E+0	1.405713E+0	1.294342E+0	1.424222E+0	1.400938E+0	1.517331E+0	1.282814E+0	1.342004E+0	1.242949E+0	1.448560E+0	1.446445E+0	1.427461E+0	1.365793E+0	1.407908E+0	1.475157E+0	1.485305E+0	1.504019E+0	1.483235E+0	1.415554E+0
5.440170E+2	1.278762E+0	1.504528E+0	1.561436E+0	1.551323E+0	1.327067E+0	1.493544E+0	1.573990E+0	1.635555E+0	1.454713E+0	1.576781E+0	1.406528E+0	1.483869E+0	1.570938E+0	1.603383E+0	1.366664E+0	1.367788E+0	1.438982E+0	1.509731E+0	1.531109E+0	1.394592E+0	1.342855E+0	1.458642E+0	1.575266E+0	1.572979E+0	1.520016E+0	1.612394E+0	1.490317E+0	1.454969E+0	1.531416E+0	1.562686E+0	1.425565E+0	1.294472E+0	1.437459E+0	1.573293E+0	1.506955E+0	1.408317E+0	1.343063E+0	1.579555E+0	1.572899E+0	1.517539E+0	1.484365E+0	1.536240E+0	1.403040E+0	1.523912E+0	1.530024E+0	1.590145E+0	1.312419E+0	1.265326E+0	1.516824E+0	1.571547E+0	1.480127E+0	1.398598E+0	1.373565E+0	1.558062E+0	1.553511E+0	1.590600E+0	1.531385E+0	1.532058E+0	1.473780E+0	1.437375E+0	1.551528E+0	1.601741E+0	1.348822E+0	1.321630E+0	1.493005E+0	1.574324E+0	1.443924E+0	1.395091E+0	1.438866E+0	1.516798E+0	1.558819E+0	1.580313E+0	1.439915E+0	1.507588E+0	1.396034E+0	1.492351E+0	1.590791E+0	1.591056E+0	1.386504E+0	1.289610E+0	1.417200E+0	1.490790E+0	1.492659E+0	1.424411E+0	1.359278E+0	1.538610E+0	1.609106E+0	1.583636E+0	1.469812E+0	1.542224E+0	1.435553E+0	1.422554E+0	1.590428E+0	1.549335E+0	1.369901E+0	1.286197E+0	1.483492E+0	1.603324E+0	1.452824E+0	1.366734E+0	1.419535E+0	1.554436E+0	1.521077E+0	1.555205E+0	1.476718E+0	1.546726E+0	1.437750E+0	1.464104E+0	1.570892E+0	1.577874E+0	1.347811E+0	1.305099E+0	1.435203E+0	1.484993E+0	1.433483E+0	1.414371E+0	1.343387E+0	1.580076E+0	1.516941E+0	1.556785E+0	1.497777E+0	1.553203E+0	1.523325E+0	1.416316E+0	1.596876E+0	1.575507E+0	1.409537E+0	1.375707E+0	1.276860E+0	1.346485E+0	1.426712E+0	1.447882E+0	1.387547E+0	1.473543E+0	1.568756E+0	1.507446E+0	1.460032E+0	1.550602E+0	1.401270E+0	1.153745E+0	1.616468E+0	1.589698E+0	1.271033E+0	1.275738E+0	1.442168E+0	1.532108E+0	1.460023E+0	1.446478E+0	1.366738E+0	1.575560E+0	1.521224E+0	1.561824E+0	1.466080E+0	1.426888E+0	1.391084E+0	1.443741E+0	1.537366E+0	1.367960E+0	1.365014E+0	1.264603E+0	1.514216E+0	1.493268E+0	1.423867E+0	1.375804E+0	1.402862E+0	1.510868E+0	1.535328E+0	1.509137E+0	1.467868E+0	1.458515E+0
5.442750E+2	1.383970E+0	1.716558E+0	1.721300E+0	1.694961E+0	1.378613E+0	1.708603E+0	1.751238E+0	1.755489E+0	1.550585E+0	1.695206E+0	1.521512E+0	1.531948E+0	1.748757E+0	1.744921E+0	1.472161E+0	1.473987E+0	1.578671E+0	1.716772E+0	1.667820E+0	1.540448E+0	1.455189E+0	1.606042E+0	1.697116E+0	1.713695E+0	1.593843E+0	1.643937E+0	1.572909E+0	1.556745E+0	1.738615E+0	1.756446E+0	1.465055E+0	1.450244E+0	1.586087E+0	1.694953E+0	1.619071E+0	1.534070E+0	1.473352E+0	1.675957E+0	1.670741E+0	1.672219E+0	1.617888E+0	1.698756E+0	1.459702E+0	1.592988E+0	1.671071E+0	1.665579E+0	1.487093E+0	1.388168E+0	1.612635E+0	1.713916E+0	1.686228E+0	1.570135E+0	1.509017E+0	1.675316E+0	1.685751E+0	1.642719E+0	1.613531E+0	1.658532E+0	1.533788E+0	1.631596E+0	1.725459E+0	1.684555E+0	1.441931E+0	1.390919E+0	1.599861E+0	1.669905E+0	1.522804E+0	1.497609E+0	1.561292E+0	1.659203E+0	1.636341E+0	1.666067E+0	1.672214E+0	1.658979E+0	1.541131E+0	1.577624E+0	1.681546E+0	1.715878E+0	1.442885E+0	1.383786E+0	1.551238E+0	1.642272E+0	1.534798E+0	1.558771E+0	1.423068E+0	1.677592E+0	1.694336E+0	1.690237E+0	1.601003E+0	1.657932E+0	1.627608E+0	1.569077E+0	1.692854E+0	1.726886E+0	1.510201E+0	1.435353E+0	1.560534E+0	1.673642E+0	1.574854E+0	1.512324E+0	1.461848E+0	1.683634E+0	1.679199E+0	1.700474E+0	1.533632E+0	1.693184E+0	1.571340E+0	1.628688E+0	1.645057E+0	1.655549E+0	1.463517E+0	1.464622E+0	1.603244E+0	1.722968E+0	1.535623E+0	1.501586E+0	1.465653E+0	1.690275E+0	1.684155E+0	1.699248E+0	1.597511E+0	1.686481E+0	1.554561E+0	1.499347E+0	1.709110E+0	1.669494E+0	1.467341E+0	1.467431E+0	1.407682E+0	1.452079E+0	1.592539E+0	1.591122E+0	1.452009E+0	1.699960E+0	1.674821E+0	1.672233E+0	1.569064E+0	1.664000E+0	1.466638E+0	1.278363E+0	1.712307E+0	1.680201E+0	1.372850E+0	1.372239E+0	1.632681E+0	1.683803E+0	1.496779E+0	1.526967E+0	1.481615E+0	1.721766E+0	1.589445E+0	1.713688E+0	1.553836E+0	1.606858E+0	1.531485E+0	1.570322E+0	1.679987E+0	1.695699E+0	1.418085E+0	1.372449E+0	1.623084E+0	1.744361E+0	1.485532E+0	1.429192E+0	1.482623E+0	1.668200E+0	1.675399E+0	1.684561E+0	1.615958E+0	1.746596E+0
5.445130E+2	1.391484E+0	1.631745E+0	1.689588E+0	1.712123E+0	1.396491E+0	1.645984E+0	1.760314E+0	1.753492E+0	1.623603E+0	1.645912E+0	1.523236E+0	1.605960E+0	1.704071E+0	1.768437E+0	1.475400E+0	1.491972E+0	1.595248E+0	1.668257E+0	1.624746E+0	1.464863E+0	1.455639E+0	1.652692E+0	1.677205E+0	1.689846E+0	1.590910E+0	1.662389E+0	1.573500E+0	1.571284E+0	1.689789E+0	1.787904E+0	1.519589E+0	1.434884E+0	1.621691E+0	1.717510E+0	1.577031E+0	1.516189E+0	1.431472E+0	1.659576E+0	1.723314E+0	1.656611E+0	1.573770E+0	1.696513E+0	1.483737E+0	1.638827E+0	1.695029E+0	1.711122E+0	1.428714E+0	1.342656E+0	1.644573E+0	1.727595E+0	1.562569E+0	1.583331E+0	1.518850E+0	1.669478E+0	1.690629E+0	1.730963E+0	1.638404E+0	1.707132E+0	1.510540E+0	1.567250E+0	1.722644E+0	1.725269E+0	1.394726E+0	1.350316E+0	1.673256E+0	1.673364E+0	1.570738E+0	1.515917E+0	1.559401E+0	1.742971E+0	1.768082E+0	1.664160E+0	1.637940E+0	1.667851E+0	1.510778E+0	1.620260E+0	1.688916E+0	1.688086E+0	1.506662E+0	1.439716E+0	1.534697E+0	1.588880E+0	1.573748E+0	1.570507E+0	1.482051E+0	1.652563E+0	1.732329E+0	1.642289E+0	1.629372E+0	1.667465E+0	1.557873E+0	1.582233E+0	1.701269E+0	1.712895E+0	1.490427E+0	1.385486E+0	1.648580E+0	1.669128E+0	1.589320E+0	1.540299E+0	1.488947E+0	1.732408E+0	1.705470E+0	1.713724E+0	1.563528E+0	1.673698E+0	1.584211E+0	1.660767E+0	1.645054E+0	1.726990E+0	1.426884E+0	1.479879E+0	1.583371E+0	1.710614E+0	1.539161E+0	1.513870E+0	1.454535E+0	1.723638E+0	1.675514E+0	1.616560E+0	1.571999E+0	1.719949E+0	1.590697E+0	1.586952E+0	1.713745E+0	1.682221E+0	1.523187E+0	1.416631E+0	1.350346E+0	1.464750E+0	1.601573E+0	1.586417E+0	1.504706E+0	1.678619E+0	1.651370E+0	1.674302E+0	1.554976E+0	1.698142E+0	1.543674E+0	1.273311E+0	1.727437E+0	1.720856E+0	1.365647E+0	1.382670E+0	1.582710E+0	1.708557E+0	1.448615E+0	1.512282E+0	1.467196E+0	1.735408E+0	1.717801E+0	1.690955E+0	1.553835E+0	1.646375E+0	1.521243E+0	1.549531E+0	1.702882E+0	1.719961E+0	1.465518E+0	1.375102E+0	1.678639E+0	1.746700E+0	1.473560E+0	1.474233E+0	1.449306E+0	1.665614E+0	1.687276E+0	1.677254E+0	1.576840E+0	1.827459E+0
5.447660E+2	1.315798E+0	1.703307E+0	1.650614E+0	1.630134E+0	1.386929E+0	1.658301E+0	1.659409E+0	1.712514E+0	1.563403E+0	1.628344E+0	1.526687E+0	1.544598E+0	1.626106E+0	1.667273E+0	1.448101E+0	1.404188E+0	1.576303E+0	1.594353E+0	1.602901E+0	1.508561E+0	1.496242E+0	1.612573E+0	1.667719E+0	1.658363E+0	1.596768E+0	1.634418E+0	1.587065E+0	1.593702E+0	1.646235E+0	1.651591E+0	1.447661E+0	1.407994E+0	1.522793E+0	1.744808E+0	1.586167E+0	1.444673E+0	1.394248E+0	1.652559E+0	1.690213E+0	1.568154E+0	1.559653E+0	1.646637E+0	1.453977E+0	1.603033E+0	1.635356E+0	1.689774E+0	1.438367E+0	1.386401E+0	1.611496E+0	1.634338E+0	1.512511E+0	1.523093E+0	1.456265E+0	1.629096E+0	1.731132E+0	1.613462E+0	1.619315E+0	1.654436E+0	1.522436E+0	1.530058E+0	1.697329E+0	1.725270E+0	1.428073E+0	1.350758E+0	1.586359E+0	1.656667E+0	1.557992E+0	1.480522E+0	1.488026E+0	1.635057E+0	1.641408E+0	1.623667E+0	1.635403E+0	1.622907E+0	1.531415E+0	1.582357E+0	1.709185E+0	1.696861E+0	1.446124E+0	1.363633E+0	1.504470E+0	1.588879E+0	1.605678E+0	1.487777E+0	1.425252E+0	1.637654E+0	1.706145E+0	1.689304E+0	1.549002E+0	1.632501E+0	1.573877E+0	1.537976E+0	1.696320E+0	1.669472E+0	1.460296E+0	1.408432E+0	1.566326E+0	1.683964E+0	1.513209E+0	1.539726E+0	1.466603E+0	1.688306E+0	1.622026E+0	1.579812E+0	1.544553E+0	1.630956E+0	1.551731E+0	1.567488E+0	1.658315E+0	1.649318E+0	1.411248E+0	1.407526E+0	1.615294E+0	1.616335E+0	1.527352E+0	1.561778E+0	1.469356E+0	1.706451E+0	1.695336E+0	1.649935E+0	1.551124E+0	1.674307E+0	1.553337E+0	1.503923E+0	1.617471E+0	1.649423E+0	1.466854E+0	1.444853E+0	1.385973E+0	1.465960E+0	1.520915E+0	1.566241E+0	1.486827E+0	1.592736E+0	1.688146E+0	1.632972E+0	1.582543E+0	1.673144E+0	1.425782E+0	1.289029E+0	1.689606E+0	1.709240E+0	1.367084E+0	1.345721E+0	1.615193E+0	1.604464E+0	1.471430E+0	1.505210E+0	1.448452E+0	1.647029E+0	1.614708E+0	1.636788E+0	1.565036E+0	1.608072E+0	1.441098E+0	1.540973E+0	1.583631E+0	1.640997E+0	1.419027E+0	1.374217E+0	1.561918E+0	1.613253E+0	1.509480E+0	1.429745E+0	1.464959E+0	1.608684E+0	1.639757E+0	1.584423E+0	1.666253E+0	1.567176E+0
5.450090E+2	1.248166E+0	1.550909E+0	1.569365E+0	1.487765E+0	1.240601E+0	1.525878E+0	1.559041E+0	1.586578E+0	1.490383E+0	1.561481E+0	1.404803E+0	1.480074E+0	1.570026E+0	1.592286E+0	1.380547E+0	1.310837E+0	1.454374E+0	1.515372E+0	1.471805E+0	1.386916E+0	1.369024E+0	1.511817E+0	1.527383E+0	1.617820E+0	1.444439E+0	1.454666E+0	1.503293E+0	1.493739E+0	1.528775E+0	1.613293E+0	1.376199E+0	1.319654E+0	1.461761E+0	1.506231E+0	1.494161E+0	1.404742E+0	1.343485E+0	1.504678E+0	1.513996E+0	1.569575E+0	1.478482E+0	1.532879E+0	1.385299E+0	1.540869E+0	1.535900E+0	1.565945E+0	1.384127E+0	1.283441E+0	1.447246E+0	1.598277E+0	1.462460E+0	1.457690E+0	1.332887E+0	1.558060E+0	1.546192E+0	1.518363E+0	1.553366E+0	1.543769E+0	1.410525E+0	1.431472E+0	1.569815E+0	1.582775E+0	1.372638E+0	1.280586E+0	1.490654E+0	1.498897E+0	1.411162E+0	1.387768E+0	1.445483E+0	1.635059E+0	1.549698E+0	1.498850E+0	1.468477E+0	1.572642E+0	1.451280E+0	1.443201E+0	1.571445E+0	1.610068E+0	1.408690E+0	1.317575E+0	1.432601E+0	1.470925E+0	1.495851E+0	1.430276E+0	1.315589E+0	1.601444E+0	1.570083E+0	1.511484E+0	1.436718E+0	1.523787E+0	1.474994E+0	1.499699E+0	1.555791E+0	1.617845E+0	1.409919E+0	1.314440E+0	1.474801E+0	1.611068E+0	1.427664E+0	1.396422E+0	1.379124E+0	1.554954E+0	1.549917E+0	1.482809E+0	1.469242E+0	1.538554E+0	1.467165E+0	1.499752E+0	1.578748E+0	1.594177E+0	1.355852E+0	1.327329E+0	1.460500E+0	1.572770E+0	1.390383E+0	1.469648E+0	1.343848E+0	1.578560E+0	1.503729E+0	1.543832E+0	1.454289E+0	1.627446E+0	1.479840E+0	1.487578E+0	1.478460E+0	1.545158E+0	1.392390E+0	1.404871E+0	1.295231E+0	1.403808E+0	1.494462E+0	1.471417E+0	1.363551E+0	1.511537E+0	1.528247E+0	1.533792E+0	1.471058E+0	1.535361E+0	1.379093E+0	1.152623E+0	1.561493E+0	1.596474E+0	1.290721E+0	1.257914E+0	1.479647E+0	1.575268E+0	1.409322E+0	1.396447E+0	1.337419E+0	1.597379E+0	1.562661E+0	1.534740E+0	1.478527E+0	1.565513E+0	1.413982E+0	1.476765E+0	1.531642E+0	1.590099E+0	1.311477E+0	1.299080E+0	1.511412E+0	1.650128E+0	1.426260E+0	1.374134E+0	1.398824E+0	1.557445E+0	1.544706E+0	1.547876E+0	1.523749E+0	1.612663E+0
5.452800E+2	1.211665E+0	1.508503E+0	1.452437E+0	1.558315E+0	1.243926E+0	1.501752E+0	1.548896E+0	1.553597E+0	1.390054E+0	1.497451E+0	1.487592E+0	1.418711E+0	1.527624E+0	1.555463E+0	1.457355E+0	1.288141E+0	1.449643E+0	1.536249E+0	1.532984E+0	1.343217E+0	1.327968E+0	1.455375E+0	1.552033E+0	1.529096E+0	1.476075E+0	1.490377E+0	1.436041E+0	1.428917E+0	1.488306E+0	1.501598E+0	1.412402E+0	1.348674E+0	1.380950E+0	1.533530E+0	1.484413E+0	1.284353E+0	1.339679E+0	1.448524E+0	1.500366E+0	1.508554E+0	1.417894E+0	1.475716E+0	1.313758E+0	1.477446E+0	1.468543E+0	1.482447E+0	1.311499E+0	1.232185E+0	1.440403E+0	1.507510E+0	1.433017E+0	1.414661E+0	1.311878E+0	1.507462E+0	1.506183E+0	1.435610E+0	1.411056E+0	1.486386E+0	1.356461E+0	1.464531E+0	1.507931E+0	1.547151E+0	1.271300E+0	1.229834E+0	1.434289E+0	1.522504E+0	1.428759E+0	1.354816E+0	1.365600E+0	1.496097E+0	1.551215E+0	1.423102E+0	1.425317E+0	1.528287E+0	1.343217E+0	1.402343E+0	1.536891E+0	1.534494E+0	1.306554E+0	1.272749E+0	1.348185E+0	1.480859E+0	1.475418E+0	1.378642E+0	1.291122E+0	1.543398E+0	1.523360E+0	1.522654E+0	1.416034E+0	1.508530E+0	1.365818E+0	1.350189E+0	1.544412E+0	1.488541E+0	1.328941E+0	1.227508E+0	1.469588E+0	1.494301E+0	1.432066E+0	1.386717E+0	1.329679E+0	1.460524E+0	1.507684E+0	1.495109E+0	1.422677E+0	1.486381E+0	1.382597E+0	1.401718E+0	1.550754E+0	1.540953E+0	1.282140E+0	1.292461E+0	1.400268E+0	1.537009E+0	1.392154E+0	1.350497E+0	1.314672E+0	1.478979E+0	1.486957E+0	1.526401E+0	1.425296E+0	1.536767E+0	1.411854E+0	1.401932E+0	1.480006E+0	1.492780E+0	1.396802E+0	1.315502E+0	1.231212E+0	1.374845E+0	1.468652E+0	1.373235E+0	1.328262E+0	1.495923E+0	1.452563E+0	1.469222E+0	1.373662E+0	1.479881E+0	1.303223E+0	1.167218E+0	1.531233E+0	1.536943E+0	1.253262E+0	1.236180E+0	1.403443E+0	1.487676E+0	1.352921E+0	1.350764E+0	1.328766E+0	1.507911E+0	1.475240E+0	1.471387E+0	1.370237E+0	1.416552E+0	1.365773E+0	1.375257E+0	1.478696E+0	1.480697E+0	1.354213E+0	1.218194E+0	1.464833E+0	1.552969E+0	1.375974E+0	1.273480E+0	1.336726E+0	1.493272E+0	1.485307E+0	1.404614E+0	1.458088E+0	1.554541E+0
5.455180E+2	1.084452E+0	1.306413E+0	1.328905E+0	1.347939E+0	1.149977E+0	1.347771E+0	1.406882E+0	1.407173E+0	1.281918E+0	1.394887E+0	1.378358E+0	1.311169E+0	1.404064E+0	1.342042E+0	1.390726E+0	1.184085E+0	1.263787E+0	1.302127E+0	1.398142E+0	1.182600E+0	1.163761E+0	1.329431E+0	1.328724E+0	1.367869E+0	1.278042E+0	1.354076E+0	1.387663E+0	1.267771E+0	1.378326E+0	1.400842E+0	1.398767E+0	1.157907E+0	1.299574E+0	1.392877E+0	1.378390E+0	1.237865E+0	1.190778E+0	1.331531E+0	1.363577E+0	1.347253E+0	1.195549E+0	1.356351E+0	1.367558E+0	1.300994E+0	1.367280E+0	1.340592E+0	1.366659E+0	1.158388E+0	1.336038E+0	1.363278E+0	1.401217E+0	1.216159E+0	1.155417E+0	1.342523E+0	1.388580E+0	1.348284E+0	1.391963E+0	1.378646E+0	1.304020E+0	1.333476E+0	1.379944E+0	1.424551E+0	1.250079E+0	1.119502E+0	1.288678E+0	1.348036E+0	1.292244E+0	1.227277E+0	1.236083E+0	1.355170E+0	1.335370E+0	1.326867E+0	1.324401E+0	1.318943E+0	1.303755E+0	1.230023E+0	1.391317E+0	1.395049E+0	1.230301E+0	1.117707E+0	1.224412E+0	1.261089E+0	1.307485E+0	1.247800E+0	1.172722E+0	1.316548E+0	1.371386E+0	1.342507E+0	1.305525E+0	1.326705E+0	1.226351E+0	1.235963E+0	1.370231E+0	1.409414E+0	1.223007E+0	1.104830E+0	1.305078E+0	1.442692E+0	1.303746E+0	1.253116E+0	1.207022E+0	1.365572E+0	1.338739E+0	1.329495E+0	1.220313E+0	1.397122E+0	1.238586E+0	1.284669E+0	1.370007E+0	1.369782E+0	1.164201E+0	1.163446E+0	1.228610E+0	1.348445E+0	1.248098E+0	1.259596E+0	1.175730E+0	1.395573E+0	1.279082E+0	1.358536E+0	1.306423E+0	1.394361E+0	1.264861E+0	1.239139E+0	1.329155E+0	1.362080E+0	1.198399E+0	1.217669E+0	1.117091E+0	1.216151E+0	1.236370E+0	1.237391E+0	1.191812E+0	1.331443E+0	1.381144E+0	1.359708E+0	1.281776E+0	1.377453E+0	1.220933E+0	1.003306E+0	1.313841E+0	1.385943E+0	1.115906E+0	1.117077E+0	1.345977E+0	1.363271E+0	1.250890E+0	1.239826E+0	1.179285E+0	1.352427E+0	1.312520E+0	1.382879E+0	1.270659E+0	1.316839E+0	1.213920E+0	1.291480E+0	1.344659E+0	1.361300E+0	1.166358E+0	1.115654E+0	1.317247E+0	1.346362E+0	1.158651E+0	1.218426E+0	1.198400E+0	1.347327E+0	1.312721E+0	1.388533E+0	1.219186E+0	1.359960E+0
5.457620E+2	1.095724E+0	1.263344E+0	1.291251E+0	1.255147E+0	1.118800E+0	1.258975E+0	1.301706E+0	1.340208E+0	1.238999E+0	1.283259E+0	1.298445E+0	1.221972E+0	1.293272E+0	1.292350E+0	1.335662E+0	1.074034E+0	1.214067E+0	1.263204E+0	1.313242E+0	1.118234E+0	1.120001E+0	1.258993E+0	1.326827E+0	1.268658E+0	1.226482E+0	1.207658E+0	1.332207E+0	1.193861E+0	1.288584E+0	1.285497E+0	1.259142E+0	1.119498E+0	1.195592E+0	1.305638E+0	1.324160E+0	1.174690E+0	1.104906E+0	1.204242E+0	1.272060E+0	1.288127E+0	1.208490E+0	1.318243E+0	1.294300E+0	1.308530E+0	1.247483E+0	1.299316E+0	1.320693E+0	1.043944E+0	1.219695E+0	1.265671E+0	1.333497E+0	1.176000E+0	1.109819E+0	1.324523E+0	1.321242E+0	1.249074E+0	1.270481E+0	1.277349E+0	1.331050E+0	1.240202E+0	1.326501E+0	1.310739E+0	1.313309E+0	1.052862E+0	1.231725E+0	1.277790E+0	1.244919E+0	1.130251E+0	1.196377E+0	1.352707E+0	1.297876E+0	1.249689E+0	1.322497E+0	1.278731E+0	1.270364E+0	1.209297E+0	1.282598E+0	1.297534E+0	1.315336E+0	1.076995E+0	1.186767E+0	1.229426E+0	1.280028E+0	1.169763E+0	1.087964E+0	1.286193E+0	1.277939E+0	1.261510E+0	1.192062E+0	1.339420E+0	1.274365E+0	1.232375E+0	1.337575E+0	1.320638E+0	1.252666E+0	1.091149E+0	1.280170E+0	1.286574E+0	1.221974E+0	1.156056E+0	1.155676E+0	1.321467E+0	1.281571E+0	1.264667E+0	1.222038E+0	1.300321E+0	1.213461E+0	1.234165E+0	1.260970E+0	1.329987E+0	1.070386E+0	1.107655E+0	1.211143E+0	1.274320E+0	1.175479E+0	1.127547E+0	1.142849E+0	1.252522E+0	1.259769E+0	1.311712E+0	1.214226E+0	1.315854E+0	1.263636E+0	1.214950E+0	1.269953E+0	1.316065E+0	1.168518E+0	1.156524E+0	1.074226E+0	1.148571E+0	1.226046E+0	1.208474E+0	1.144290E+0	1.290322E+0	1.312389E+0	1.281705E+0	1.238285E+0	1.309782E+0	1.149147E+0	9.819743E-1	1.299214E+0	1.282855E+0	1.059233E+0	1.085344E+0	1.237915E+0	1.280123E+0	1.224906E+0	1.126167E+0	1.155251E+0	1.334969E+0	1.260470E+0	1.310335E+0	1.187884E+0	1.251174E+0	1.228985E+0	1.259683E+0	1.257367E+0	1.307076E+0	1.095911E+0	1.058196E+0	1.239805E+0	1.342265E+0	1.202355E+0	1.176162E+0	1.132773E+0	1.299197E+0	1.254569E+0	1.278892E+0	1.242937E+0	1.458516E+0
5.460160E+2	1.177313E+0	1.293823E+0	1.242366E+0	1.294552E+0	1.074319E+0	1.241523E+0	1.276080E+0	1.293735E+0	1.189391E+0	1.222628E+0	1.282921E+0	1.221972E+0	1.310597E+0	1.289688E+0	1.317620E+0	1.123278E+0	1.200454E+0	1.246842E+0	1.293890E+0	1.157798E+0	1.124061E+0	1.305637E+0	1.324458E+0	1.251484E+0	1.278627E+0	1.349317E+0	1.361116E+0	1.229604E+0	1.338293E+0	1.290057E+0	1.316025E+0	1.086635E+0	1.195592E+0	1.304451E+0	1.322941E+0	1.175883E+0	1.126482E+0	1.276310E+0	1.298835E+0	1.273934E+0	1.189667E+0	1.229141E+0	1.223905E+0	1.196755E+0	1.270537E+0	1.324934E+0	1.299088E+0	1.076200E+0	1.246497E+0	1.311678E+0	1.320541E+0	1.216159E+0	1.112054E+0	1.343983E+0	1.331976E+0	1.287476E+0	1.268745E+0	1.265638E+0	1.338619E+0	1.235480E+0	1.282903E+0	1.343126E+0	1.293820E+0	1.074044E+0	1.205303E+0	1.299670E+0	1.286784E+0	1.119267E+0	1.149106E+0	1.315257E+0	1.285713E+0	1.288755E+0	1.278068E+0	1.239109E+0	1.288577E+0	1.228246E+0	1.314384E+0	1.284854E+0	1.359700E+0	1.090565E+0	1.215856E+0	1.211423E+0	1.322171E+0	1.188539E+0	1.119421E+0	1.258507E+0	1.315422E+0	1.272681E+0	1.228110E+0	1.335606E+0	1.321807E+0	1.184530E+0	1.288096E+0	1.297476E+0	1.334118E+0	1.084532E+0	1.237884E+0	1.345925E+0	1.297456E+0	1.182891E+0	1.135232E+0	1.244156E+0	1.266633E+0	1.272239E+0	1.214564E+0	1.261978E+0	1.361762E+0	1.224064E+0	1.318435E+0	1.329984E+0	1.305370E+0	1.076710E+0	1.212950E+0	1.305530E+0	1.287654E+0	1.217218E+0	1.098852E+0	1.316211E+0	1.335496E+0	1.308723E+0	1.193351E+0	1.307942E+0	1.235462E+0	1.184222E+0	1.315259E+0	1.281310E+0	1.240528E+0	1.108078E+0	1.072556E+0	1.119607E+0	1.258952E+0	1.213181E+0	1.149467E+0	1.241917E+0	1.284675E+0	1.256908E+0	1.187443E+0	1.270763E+0	1.278128E+0	9.668183E-1	1.308294E+0	1.293504E+0	1.198989E+0	1.018835E+0	1.162959E+0	1.354385E+0	1.187516E+0	1.175111E+0	1.102380E+0	1.298965E+0	1.296352E+0	1.282284E+0	1.212779E+0	1.275494E+0	1.186804E+0	1.228496E+0	1.273587E+0	1.294231E+0	1.068672E+0	1.078968E+0	1.256642E+0	1.308317E+0	1.209539E+0	1.121107E+0	1.167101E+0	1.323001E+0	1.259571E+0	1.294241E+0	1.177274E+0	1.509054E+0
5.467710E+2	1.243336E+0	1.216963E+0	1.245009E+0	1.272307E+0	1.065174E+0	1.259490E+0	1.301171E+0	1.293236E+0	1.179358E+0	1.213562E+0	1.251302E+0	1.201096E+0	1.267737E+0	1.324294E+0	1.316693E+0	1.059900E+0	1.157246E+0	1.273922E+0	1.322606E+0	1.189095E+0	1.115038E+0	1.226806E+0	1.339154E+0	1.277719E+0	1.186056E+0	1.252299E+0	1.317460E+0	1.155695E+0	1.277585E+0	1.287775E+0	1.318847E+0	1.039689E+0	1.198418E+0	1.285459E+0	1.251650E+0	1.185418E+0	1.089678E+0	1.210325E+0	1.294454E+0	1.244606E+0	1.226725E+0	1.200558E+0	1.271407E+0	1.220618E+0	1.233016E+0	1.265630E+0	1.263234E+0	1.045268E+0	1.257336E+0	1.261942E+0	1.258121E+0	1.163379E+0	1.075400E+0	1.219431E+0	1.308067E+0	1.232156E+0	1.146103E+0	1.287889E+0	1.279151E+0	1.169952E+0	1.313374E+0	1.313055E+0	1.303346E+0	1.049329E+0	1.252862E+0	1.240939E+0	1.296491E+0	1.137574E+0	1.136817E+0	1.369952E+0	1.322196E+0	1.215387E+0	1.292031E+0	1.221368E+0	1.236366E+0	1.153041E+0	1.260949E+0	1.263888E+0	1.283909E+0	1.066303E+0	1.177641E+0	1.181624E+0	1.289606E+0	1.148054E+0	1.114177E+0	1.298976E+0	1.300017E+0	1.254991E+0	1.163696E+0	1.220534E+0	1.357817E+0	1.191707E+0	1.298486E+0	1.272870E+0	1.312463E+0	1.032900E+0	1.214134E+0	1.262060E+0	1.206877E+0	1.117233E+0	1.101952E+0	1.208871E+0	1.224398E+0	1.270819E+0	1.232386E+0	1.294664E+0	1.342762E+0	1.245453E+0	1.257041E+0	1.249913E+0	1.216470E+0	1.100245E+0	1.210540E+0	1.273670E+0	1.313041E+0	1.150886E+0	1.087273E+0	1.289927E+0	1.317203E+0	1.297765E+0	1.192191E+0	1.221524E+0	1.223213E+0	1.116882E+0	1.247813E+0	1.235783E+0	1.271390E+0	1.101020E+0	1.047504E+0	1.105126E+0	1.229917E+0	1.155346E+0	1.133938E+0	1.195074E+0	1.282542E+0	1.268272E+0	1.139050E+0	1.332949E+0	1.234355E+0	9.741157E-1	1.266933E+0	1.266886E+0	1.310895E+0	1.031007E+0	1.193566E+0	1.235692E+0	1.271168E+0	1.120729E+0	1.123047E+0	1.282051E+0	1.290792E+0	1.254714E+0	1.192241E+0	1.251782E+0	1.259717E+0	1.194864E+0	1.200128E+0	1.266167E+0	1.284238E+0	1.032118E+0	1.211747E+0	1.289588E+0	1.268210E+0	1.087742E+0	1.133782E+0	1.284187E+0	1.240811E+0	1.262812E+0	1.261099E+0	1.329636E+0
5.475230E+2	1.243335E+0	1.428992E+0	1.384395E+0	1.414039E+0	1.137923E+0	1.397562E+0	1.408484E+0	1.384686E+0	1.262410E+0	1.367121E+0	1.381807E+0	1.270683E+0	1.406346E+0	1.416585E+0	1.371754E+0	1.199073E+0	1.273848E+0	1.402546E+0	1.371298E+0	1.204449E+0	1.201203E+0	1.326162E+0	1.401265E+0	1.328759E+0	1.371786E+0	1.404668E+0	1.418931E+0	1.306544E+0	1.400762E+0	1.369839E+0	1.327309E+0	1.219359E+0	1.264536E+0	1.375075E+0	1.415558E+0	1.222965E+0	1.201776E+0	1.323573E+0	1.404953E+0	1.362391E+0	1.277899E+0	1.392219E+0	1.421928E+0	1.263317E+0	1.333375E+0	1.412228E+0	1.388262E+0	1.127902E+0	1.372535E+0	1.389389E+0	1.357052E+0	1.236813E+0	1.228281E+0	1.385826E+0	1.422251E+0	1.356516E+0	1.352628E+0	1.348785E+0	1.369978E+0	1.284478E+0	1.372912E+0	1.420387E+0	1.381733E+0	1.179079E+0	1.318622E+0	1.358979E+0	1.404488E+0	1.248635E+0	1.302732E+0	1.400503E+0	1.398199E+0	1.306858E+0	1.360578E+0	1.377489E+0	1.434888E+0	1.299306E+0	1.408363E+0	1.409676E+0	1.422554E+0	1.191322E+0	1.284872E+0	1.367249E+0	1.366868E+0	1.258948E+0	1.224715E+0	1.344771E+0	1.438645E+0	1.362521E+0	1.261795E+0	1.305089E+0	1.389255E+0	1.322081E+0	1.457815E+0	1.398796E+0	1.416037E+0	1.142338E+0	1.280748E+0	1.423338E+0	1.413827E+0	1.267961E+0	1.212252E+0	1.361419E+0	1.388187E+0	1.360250E+0	1.261706E+0	1.415980E+0	1.434072E+0	1.338737E+0	1.372953E+0	1.452252E+0	1.395165E+0	1.192211E+0	1.271976E+0	1.419969E+0	1.344332E+0	1.166241E+0	1.192406E+0	1.379903E+0	1.463068E+0	1.379955E+0	1.327298E+0	1.432093E+0	1.316309E+0	1.295365E+0	1.416166E+0	1.420332E+0	1.411986E+0	1.158406E+0	1.127111E+0	1.265027E+0	1.348640E+0	1.310693E+0	1.205927E+0	1.350705E+0	1.403530E+0	1.339042E+0	1.336294E+0	1.360994E+0	1.401852E+0	1.057755E+0	1.420768E+0	1.368037E+0	1.450652E+0	1.177064E+0	1.301628E+0	1.374695E+0	1.346583E+0	1.252334E+0	1.214852E+0	1.354609E+0	1.422682E+0	1.378044E+0	1.289329E+0	1.395271E+0	1.381440E+0	1.332451E+0	1.376617E+0	1.385561E+0	1.401649E+0	1.158526E+0	1.361016E+0	1.370945E+0	1.347834E+0	1.225655E+0	1.264032E+0	1.380966E+0	1.392135E+0	1.352717E+0	1.347718E+0	1.516635E+0
5.482600E+2	1.361425E+0	1.470736E+0	1.469613E+0	1.432471E+0	1.254319E+0	1.415009E+0	1.483762E+0	1.415670E+0	1.382807E+0	1.461187E+0	1.527835E+0	1.310536E+0	1.468351E+0	1.543038E+0	1.487432E+0	1.262019E+0	1.291013E+0	1.434138E+0	1.558576E+0	1.267043E+0	1.284661E+0	1.411527E+0	1.445358E+0	1.453255E+0	1.369440E+0	1.458237E+0	1.541051E+0	1.351371E+0	1.500182E+0	1.506611E+0	1.475396E+0	1.237287E+0	1.340827E+0	1.462909E+0	1.464914E+0	1.318920E+0	1.234351E+0	1.433077E+0	1.477485E+0	1.464562E+0	1.395541E+0	1.437050E+0	1.478588E+0	1.410886E+0	1.448653E+0	1.508541E+0	1.499503E+0	1.230858E+0	1.400481E+0	1.522431E+0	1.488960E+0	1.351554E+0	1.298911E+0	1.519625E+0	1.494959E+0	1.423725E+0	1.446345E+0	1.404997E+0	1.512165E+0	1.365352E+0	1.506524E+0	1.480068E+0	1.460554E+0	1.210415E+0	1.338585E+0	1.497742E+0	1.415411E+0	1.273045E+0	1.351892E+0	1.490678E+0	1.416948E+0	1.429769E+0	1.377081E+0	1.438401E+0	1.568452E+0	1.431359E+0	1.471937E+0	1.424791E+0	1.529770E+0	1.219698E+0	1.362443E+0	1.382146E+0	1.465840E+0	1.366909E+0	1.246123E+0	1.452341E+0	1.508470E+0	1.430021E+0	1.426080E+0	1.468475E+0	1.448699E+0	1.371122E+0	1.568654E+0	1.482269E+0	1.505492E+0	1.261042E+0	1.377487E+0	1.426564E+0	1.420116E+0	1.279379E+0	1.240775E+0	1.490100E+0	1.519014E+0	1.392429E+0	1.408880E+0	1.449293E+0	1.476354E+0	1.423701E+0	1.502620E+0	1.486777E+0	1.501936E+0	1.246257E+0	1.381595E+0	1.462232E+0	1.411045E+0	1.278637E+0	1.280400E+0	1.478474E+0	1.476791E+0	1.464135E+0	1.401520E+0	1.513644E+0	1.455952E+0	1.346361E+0	1.453748E+0	1.461941E+0	1.424722E+0	1.294808E+0	1.180553E+0	1.298213E+0	1.435100E+0	1.369200E+0	1.269917E+0	1.429817E+0	1.452029E+0	1.463023E+0	1.409802E+0	1.439641E+0	1.472473E+0	1.129046E+0	1.520132E+0	1.498226E+0	1.456416E+0	1.174454E+0	1.369712E+0	1.462287E+0	1.434038E+0	1.341520E+0	1.291757E+0	1.447899E+0	1.499493E+0	1.480574E+0	1.378328E+0	1.341767E+0	1.457368E+0	1.361803E+0	1.447211E+0	1.453108E+0	1.464111E+0	1.178859E+0	1.408715E+0	1.514925E+0	1.428658E+0	1.300730E+0	1.271097E+0	1.460666E+0	1.469673E+0	1.517178E+0	1.410587E+0	1.448406E+0
5.490100E+2	1.376991E+0	1.431643E+0	1.466970E+0	1.443276E+0	1.222309E+0	1.441189E+0	1.477888E+0	1.478136E+0	1.376120E+0	1.468551E+0	1.503688E+0	1.380122E+0	1.519871E+0	1.531058E+0	1.530923E+0	1.246176E+0	1.369144E+0	1.451061E+0	1.462441E+0	1.366248E+0	1.290978E+0	1.435317E+0	1.486132E+0	1.432265E+0	1.402840E+0	1.440383E+0	1.516275E+0	1.382268E+0	1.511183E+0	1.475155E+0	1.475397E+0	1.236006E+0	1.369082E+0	1.471810E+0	1.494770E+0	1.275412E+0	1.250846E+0	1.397045E+0	1.488684E+0	1.415841E+0	1.373778E+0	1.475152E+0	1.481447E+0	1.380117E+0	1.462215E+0	1.525620E+0	1.486170E+0	1.210533E+0	1.401053E+0	1.439747E+0	1.453039E+0	1.366471E+0	1.255553E+0	1.458319E+0	1.509597E+0	1.466243E+0	1.391964E+0	1.462965E+0	1.457020E+0	1.397824E+0	1.498086E+0	1.477292E+0	1.525948E+0	1.229834E+0	1.399060E+0	1.482775E+0	1.471837E+0	1.352985E+0	1.321166E+0	1.484272E+0	1.492948E+0	1.401661E+0	1.511636E+0	1.494578E+0	1.445815E+0	1.405303E+0	1.477002E+0	1.496464E+0	1.424401E+0	1.225866E+0	1.343622E+0	1.436159E+0	1.497765E+0	1.332291E+0	1.308601E+0	1.477899E+0	1.464314E+0	1.454226E+0	1.418398E+0	1.490092E+0	1.502428E+0	1.386071E+0	1.465735E+0	1.506873E+0	1.535626E+0	1.199704E+0	1.389069E+0	1.516234E+0	1.450309E+0	1.359882E+0	1.312565E+0	1.452221E+0	1.474204E+0	1.450158E+0	1.395657E+0	1.489523E+0	1.498416E+0	1.372008E+0	1.506060E+0	1.476224E+0	1.541695E+0	1.261515E+0	1.345459E+0	1.479790E+0	1.482487E+0	1.297062E+0	1.325787E+0	1.437021E+0	1.489494E+0	1.451184E+0	1.384703E+0	1.499645E+0	1.441255E+0	1.399971E+0	1.451177E+0	1.460960E+0	1.491345E+0	1.272701E+0	1.175543E+0	1.340451E+0	1.421551E+0	1.337593E+0	1.254860E+0	1.375685E+0	1.459491E+0	1.401549E+0	1.379786E+0	1.468297E+0	1.521496E+0	1.155990E+0	1.439432E+0	1.535975E+0	1.368527E+0	1.279215E+0	1.400944E+0	1.460381E+0	1.452417E+0	1.336628E+0	1.245613E+0	1.481181E+0	1.484334E+0	1.457361E+0	1.328539E+0	1.447559E+0	1.524858E+0	1.358743E+0	1.401420E+0	1.480697E+0	1.510606E+0	1.206262E+0	1.390758E+0	1.472784E+0	1.457994E+0	1.270144E+0	1.329660E+0	1.472055E+0	1.469673E+0	1.411192E+0	1.451102E+0	1.559595E+0
5.497680E+2	1.263733E+0	1.349481E+0	1.386377E+0	1.405777E+0	1.131270E+0	1.345718E+0	1.316120E+0	1.367196E+0	1.301426E+0	1.367124E+0	1.335814E+0	1.319392E+0	1.344337E+0	1.356241E+0	1.394427E+0	1.182371E+0	1.238927E+0	1.283513E+0	1.363806E+0	1.213897E+0	1.192181E+0	1.264125E+0	1.347689E+0	1.356424E+0	1.343661E+0	1.380860E+0	1.345188E+0	1.271407E+0	1.351932E+0	1.397648E+0	1.350344E+0	1.151930E+0	1.282619E+0	1.381010E+0	1.377781E+0	1.215814E+0	1.197125E+0	1.305792E+0	1.392785E+0	1.300895E+0	1.227901E+0	1.346825E+0	1.313187E+0	1.299738E+0	1.386267E+0	1.361941E+0	1.352868E+0	1.100947E+0	1.273303E+0	1.309813E+0	1.427127E+0	1.274678E+0	1.167484E+0	1.316738E+0	1.384680E+0	1.361088E+0	1.303455E+0	1.364593E+0	1.378628E+0	1.257910E+0	1.317124E+0	1.356544E+0	1.360512E+0	1.097435E+0	1.265780E+0	1.398130E+0	1.367479E+0	1.197376E+0	1.265387E+0	1.443374E+0	1.380463E+0	1.338302E+0	1.268547E+0	1.305342E+0	1.351716E+0	1.298714E+0	1.351702E+0	1.419915E+0	1.369405E+0	1.144441E+0	1.215285E+0	1.287784E+0	1.370699E+0	1.273031E+0	1.162672E+0	1.371396E+0	1.387303E+0	1.309455E+0	1.232247E+0	1.362943E+0	1.362960E+0	1.192903E+0	1.438519E+0	1.324979E+0	1.416040E+0	1.099092E+0	1.273219E+0	1.329151E+0	1.359729E+0	1.225140E+0	1.185152E+0	1.316279E+0	1.330501E+0	1.285963E+0	1.270904E+0	1.304721E+0	1.355021E+0	1.297741E+0	1.386708E+0	1.375058E+0	1.363449E+0	1.172600E+0	1.288238E+0	1.392660E+0	1.316584E+0	1.239943E+0	1.131271E+0	1.328849E+0	1.357353E+0	1.339107E+0	1.259455E+0	1.357236E+0	1.322434E+0	1.274444E+0	1.349237E+0	1.335153E+0	1.366918E+0	1.150409E+0	1.117647E+0	1.214341E+0	1.362189E+0	1.248823E+0	1.176285E+0	1.367879E+0	1.317187E+0	1.327161E+0	1.295252E+0	1.355508E+0	1.320733E+0	1.061685E+0	1.415725E+0	1.389814E+0	1.362283E+0	1.105773E+0	1.268522E+0	1.330265E+0	1.355456E+0	1.207197E+0	1.184089E+0	1.390071E+0	1.292812E+0	1.336448E+0	1.206555E+0	1.358183E+0	1.368183E+0	1.269466E+0	1.341318E+0	1.332287E+0	1.398831E+0	1.132894E+0	1.311072E+0	1.304805E+0	1.356217E+0	1.165596E+0	1.166092E+0	1.357676E+0	1.353991E+0	1.372452E+0	1.382645E+0	1.405446E+0
5.505060E+2	1.342102E+0	1.399176E+0	1.328905E+0	1.354295E+0	1.136676E+0	1.322108E+0	1.400475E+0	1.432161E+0	1.274674E+0	1.378453E+0	1.387557E+0	1.407957E+0	1.373516E+0	1.405047E+0	1.391652E+0	1.423027E+0	1.251356E+0	1.349517E+0	1.393772E+0	1.402270E+0	1.180904E+0	1.335493E+0	1.340577E+0	1.396015E+0	1.309095E+0	1.383836E+0	1.338106E+0	1.347132E+0	1.373046E+0	1.384881E+0	1.379490E+0	1.283803E+0	1.250973E+0	1.397626E+0	1.358892E+0	1.296866E+0	1.187819E+0	1.310938E+0	1.453148E+0	1.399759E+0	1.297898E+0	1.342902E+0	1.354963E+0	1.366301E+0	1.387623E+0	1.383763E+0	1.357465E+0	1.172971E+0	1.328052E+0	1.381308E+0	1.409460E+0	1.303363E+0	1.184922E+0	1.384368E+0	1.373943E+0	1.340513E+0	1.349733E+0	1.348785E+0	1.382953E+0	1.252599E+0	1.406198E+0	1.422238E+0	1.364411E+0	1.116854E+0	1.355612E+0	1.377979E+0	1.429366E+0	1.160152E+0	1.198737E+0	1.355170E+0	1.423025E+0	1.354975E+0	1.315515E+0	1.337276E+0	1.352322E+0	1.281540E+0	1.361373E+0	1.378469E+0	1.383733E+0	1.169115E+0	1.245516E+0	1.267918E+0	1.433274E+0	1.273617E+0	1.163111E+0	1.344240E+0	1.363683E+0	1.346696E+0	1.299025E+0	1.378836E+0	1.414405E+0	1.255698E+0	1.408336E+0	1.367917E+0	1.367075E+0	1.131747E+0	1.295229E+0	1.385277E+0	1.380486E+0	1.216576E+0	1.224611E+0	1.462598E+0	1.342347E+0	1.310569E+0	1.307122E+0	1.402780E+0	1.350118E+0	1.288233E+0	1.343484E+0	1.403345E+0	1.406780E+0	1.212263E+0	1.258725E+0	1.406314E+0	1.347284E+0	1.241785E+0	1.189163E+0	1.415288E+0	1.377681E+0	1.333128E+0	1.307004E+0	1.351761E+0	1.363469E+0	1.338515E+0	1.349751E+0	1.373828E+0	1.366426E+0	1.206853E+0	1.135462E+0	1.236063E+0	1.353801E+0	1.292535E+0	1.224749E+0	1.369961E+0	1.334772E+0	1.327680E+0	1.306279E+0	1.346973E+0	1.320150E+0	1.058318E+0	1.416735E+0	1.384008E+0	1.362762E+0	1.139246E+0	1.239789E+0	1.367079E+0	1.357990E+0	1.257228E+0	1.181207E+0	1.370433E+0	1.402471E+0	1.384329E+0	1.235806E+0	1.414726E+0	1.382647E+0	1.314105E+0	1.354672E+0	1.425042E+0	1.375820E+0	1.152336E+0	1.326784E+0	1.350458E+0	1.355019E+0	1.180054E+0	1.185781E+0	1.420815E+0	1.429028E+0	1.354909E+0	1.263894E+0	1.471151E+0
5.512620E+2	1.283592E+0	1.317014E+0	1.369862E+0	1.361287E+0	1.171177E+0	1.342638E+0	1.357230E+0	1.398678E+0	1.299756E+0	1.364854E+0	1.369733E+0	1.350390E+0	1.340232E+0	1.385526E+0	1.362965E+0	1.399047E+0	1.234784E+0	1.388442E+0	1.355067E+0	1.337313E+0	1.202104E+0	1.325234E+0	1.395576E+0	1.340206E+0	1.274526E+0	1.371337E+0	1.395923E+0	1.336229E+0	1.358970E+0	1.374400E+0	1.389367E+0	1.380680E+0	1.234586E+0	1.385757E+0	1.371078E+0	1.324880E+0	1.153976E+0	1.310941E+0	1.421016E+0	1.418679E+0	1.277312E+0	1.343461E+0	1.354391E+0	1.393301E+0	1.349649E+0	1.392779E+0	1.372636E+0	1.407169E+0	1.298967E+0	1.411769E+0	1.389440E+0	1.406055E+0	1.188498E+0	1.354198E+0	1.420300E+0	1.339143E+0	1.358411E+0	1.345272E+0	1.414309E+0	1.339968E+0	1.394945E+0	1.377363E+0	1.382599E+0	1.236012E+0	1.317448E+0	1.367039E+0	1.355344E+0	1.334678E+0	1.228518E+0	1.390646E+0	1.361719E+0	1.332584E+0	1.330748E+0	1.313621E+0	1.375394E+0	1.228246E+0	1.345711E+0	1.416501E+0	1.399910E+0	1.128400E+0	1.234678E+0	1.297716E+0	1.363675E+0	1.226091E+0	1.177527E+0	1.314421E+0	1.365735E+0	1.354143E+0	1.307297E+0	1.431605E+0	1.366390E+0	1.279022E+0	1.415262E+0	1.394455E+0	1.396264E+0	1.165288E+0	1.280170E+0	1.378825E+0	1.354697E+0	1.235417E+0	1.194183E+0	1.401890E+0	1.358829E+0	1.300629E+0	1.270329E+0	1.393980E+0	1.366663E+0	1.258526E+0	1.362639E+0	1.383687E+0	1.383996E+0	1.182624E+0	1.284624E+0	1.408916E+0	1.384479E+0	1.252227E+0	1.175268E+0	1.336939E+0	1.427998E+0	1.355049E+0	1.288448E+0	1.363932E+0	1.331621E+0	1.271829E+0	1.362623E+0	1.355715E+0	1.357122E+0	1.199797E+0	1.143812E+0	1.205894E+0	1.331863E+0	1.269670E+0	1.160760E+0	1.363195E+0	1.401929E+0	1.324065E+0	1.302603E+0	1.377456E+0	1.371508E+0	1.041477E+0	1.392524E+0	1.373360E+0	1.342590E+0	1.113600E+0	1.313495E+0	1.322649E+0	1.312995E+0	1.235476E+0	1.195143E+0	1.402619E+0	1.393882E+0	1.368853E+0	1.339119E+0	1.317447E+0	1.377824E+0	1.289646E+0	1.356585E+0	1.343226E+0	1.340124E+0	1.110348E+0	1.281332E+0	1.394356E+0	1.307724E+0	1.150025E+0	1.219099E+0	1.399080E+0	1.442160E+0	1.346138E+0	1.305805E+0	1.382703E+0
5.520150E+2	1.222401E+0	1.277921E+0	1.305123E+0	1.360651E+0	1.122538E+0	1.343666E+0	1.320925E+0	1.345706E+0	1.204999E+0	1.307058E+0	1.349038E+0	1.364307E+0	1.334307E+0	1.318528E+0	1.348159E+0	1.387059E+0	1.247213E+0	1.292538E+0	1.359437E+0	1.327867E+0	1.190376E+0	1.291176E+0	1.339631E+0	1.332575E+0	1.242301E+0	1.291581E+0	1.336339E+0	1.326535E+0	1.333896E+0	1.393546E+0	1.341881E+0	1.349527E+0	1.218197E+0	1.379230E+0	1.370468E+0	1.312960E+0	1.129866E+0	1.276777E+0	1.367470E+0	1.364281E+0	1.233195E+0	1.301433E+0	1.301738E+0	1.376977E+0	1.306706E+0	1.323035E+0	1.369417E+0	1.336467E+0	1.283570E+0	1.314786E+0	1.339974E+0	1.305657E+0	1.174193E+0	1.358094E+0	1.336370E+0	1.313083E+0	1.304034E+0	1.321265E+0	1.339160E+0	1.337606E+0	1.334002E+0	1.358856E+0	1.357048E+0	1.309275E+0	1.248752E+0	1.287003E+0	1.364445E+0	1.391430E+0	1.237027E+0	1.308358E+0	1.344489E+0	1.355452E+0	1.229831E+0	1.281096E+0	1.361430E+0	1.352009E+0	1.318992E+0	1.330197E+0	1.333822E+0	1.359113E+0	1.219279E+0	1.212665E+0	1.356013E+0	1.302368E+0	1.146073E+0	1.319213E+0	1.378061E+0	1.385331E+0	1.272432E+0	1.352133E+0	1.350385E+0	1.240149E+0	1.380131E+0	1.324978E+0	1.410860E+0	1.198381E+0	1.267425E+0	1.278833E+0	1.338343E+0	1.223428E+0	1.207020E+0	1.338586E+0	1.318139E+0	1.323819E+0	1.245034E+0	1.309749E+0	1.386886E+0	1.297145E+0	1.316473E+0	1.349164E+0	1.329046E+0	1.134681E+0	1.279203E+0	1.320485E+0	1.317176E+0	1.254069E+0	1.136366E+0	1.386476E+0	1.356334E+0	1.309720E+0	1.273372E+0	1.343240E+0	1.376331E+0	1.219527E+0	1.342541E+0	1.318023E+0	1.331156E+0	1.161699E+0	1.066989E+0	1.209514E+0	1.325411E+0	1.242771E+0	1.179579E+0	1.328320E+0	1.350763E+0	1.307017E+0	1.237672E+0	1.296979E+0	1.282797E+0	1.006112E+0	1.350660E+0	1.333189E+0	1.348353E+0	1.107078E+0	1.249159E+0	1.367714E+0	1.326937E+0	1.225143E+0	1.210527E+0	1.308238E+0	1.374677E+0	1.308400E+0	1.243898E+0	1.307110E+0	1.335644E+0	1.267632E+0	1.331778E+0	1.315636E+0	1.332609E+0	1.108581E+0	1.275158E+0	1.320022E+0	1.298144E+0	1.191177E+0	1.181741E+0	1.309028E+0	1.335857E+0	1.292049E+0	1.287642E+0	1.395338E+0
5.527650E+2	1.252460E+0	1.356769E+0	1.272754E+0	1.287560E+0	1.148314E+0	1.302605E+0	1.375381E+0	1.312725E+0	1.200539E+0	1.285525E+0	1.351338E+0	1.282069E+0	1.293725E+0	1.310987E+0	1.337052E+0	1.357512E+0	1.209924E+0	1.312282E+0	1.255186E+0	1.314285E+0	1.167368E+0	1.262257E+0	1.331568E+0	1.338775E+0	1.232928E+0	1.311818E+0	1.371145E+0	1.336832E+0	1.339176E+0	1.342031E+0	1.323076E+0	1.292338E+0	1.225543E+0	1.334718E+0	1.276023E+0	1.349314E+0	1.148477E+0	1.280054E+0	1.270601E+0	1.388878E+0	1.269665E+0	1.331134E+0	1.325778E+0	1.339928E+0	1.275510E+0	1.328732E+0	1.351950E+0	1.282115E+0	1.291553E+0	1.337788E+0	1.401216E+0	1.345243E+0	1.162569E+0	1.341067E+0	1.375406E+0	1.359259E+0	1.272795E+0	1.305455E+0	1.314291E+0	1.350007E+0	1.377132E+0	1.320919E+0	1.334961E+0	1.307507E+0	1.314513E+0	1.336524E+0	1.329255E+0	1.370071E+0	1.195904E+0	1.342851E+0	1.336891E+0	1.373078E+0	1.305994E+0	1.285236E+0	1.303754E+0	1.344311E+0	1.314387E+0	1.329226E+0	1.362936E+0	1.321688E+0	1.201597E+0	1.185970E+0	1.327918E+0	1.348132E+0	1.087962E+0	1.319211E+0	1.305154E+0	1.322490E+0	1.241702E+0	1.308268E+0	1.335525E+0	1.331649E+0	1.350442E+0	1.322565E+0	1.388730E+0	1.312675E+0	1.240201E+0	1.294960E+0	1.315071E+0	1.307356E+0	1.205595E+0	1.352599E+0	1.336166E+0	1.362143E+0	1.260556E+0	1.296549E+0	1.345828E+0	1.305463E+0	1.273737E+0	1.378413E+0	1.326367E+0	1.230132E+0	1.243065E+0	1.339992E+0	1.338428E+0	1.271266E+0	1.135439E+0	1.363223E+0	1.287214E+0	1.324662E+0	1.263514E+0	1.308551E+0	1.297322E+0	1.257446E+0	1.292088E+0	1.299910E+0	1.393370E+0	1.193212E+0	1.124328E+0	1.177534E+0	1.311217E+0	1.232684E+0	1.133942E+0	1.264819E+0	1.350229E+0	1.339045E+0	1.262175E+0	1.307343E+0	1.295636E+0	1.163288E+0	1.349652E+0	1.346259E+0	1.302731E+0	1.139680E+0	1.286637E+0	1.314398E+0	1.295884E+0	1.211003E+0	1.166308E+0	1.390073E+0	1.333742E+0	1.291472E+0	1.216513E+0	1.297990E+0	1.311541E+0	1.255402E+0	1.392358E+0	1.333237E+0	1.328386E+0	1.103277E+0	1.255518E+0	1.362750E+0	1.254440E+0	1.165040E+0	1.206984E+0	1.314722E+0	1.280206E+0	1.289856E+0	1.304409E+0	1.377650E+0
5.535100E+2	1.183217E+0	1.226239E+0	1.258881E+0	1.259596E+0	1.068499E+0	1.257948E+0	1.253656E+0	1.289735E+0	1.136439E+0	1.260593E+0	1.284072E+0	1.243481E+0	1.282329E+0	1.272825E+0	1.241272E+0	1.277434E+0	1.212884E+0	1.256433E+0	1.252064E+0	1.284759E+0	1.078948E+0	1.205348E+0	1.276571E+0	1.279151E+0	1.179025E+0	1.243370E+0	1.275574E+0	1.222940E+0	1.286825E+0	1.235345E+0	1.247858E+0	1.239846E+0	1.107434E+0	1.287834E+0	1.230324E+0	1.251573E+0	1.074874E+0	1.211730E+0	1.233603E+0	1.277720E+0	1.190843E+0	1.285742E+0	1.234779E+0	1.287179E+0	1.248387E+0	1.254718E+0	1.299089E+0	1.275929E+0	1.232812E+0	1.250751E+0	1.248700E+0	1.279267E+0	1.090597E+0	1.258840E+0	1.250489E+0	1.259133E+0	1.148417E+0	1.256855E+0	1.264554E+0	1.299235E+0	1.299779E+0	1.258001E+0	1.299015E+0	1.242632E+0	1.133086E+0	1.249576E+0	1.284963E+0	1.214463E+0	1.080094E+0	1.274356E+0	1.217818E+0	1.225870E+0	1.224753E+0	1.287601E+0	1.240008E+0	1.244827E+0	1.279376E+0	1.276077E+0	1.272358E+0	1.236971E+0	1.149693E+0	1.195903E+0	1.257679E+0	1.291218E+0	1.071797E+0	1.296315E+0	1.232756E+0	1.254526E+0	1.180242E+0	1.261223E+0	1.260076E+0	1.222207E+0	1.286115E+0	1.260324E+0	1.253609E+0	1.281785E+0	1.152153E+0	1.278188E+0	1.205619E+0	1.254258E+0	1.090540E+0	1.252456E+0	1.278996E+0	1.243849E+0	1.133504E+0	1.274549E+0	1.277193E+0	1.232381E+0	1.266371E+0	1.259982E+0	1.274099E+0	1.272846E+0	1.140071E+0	1.246360E+0	1.220939E+0	1.255912E+0	1.066433E+0	1.269201E+0	1.223685E+0	1.288800E+0	1.199730E+0	1.235521E+0	1.253837E+0	1.214296E+0	1.242661E+0	1.235782E+0	1.277270E+0	1.242127E+0	1.055855E+0	1.120814E+0	1.260888E+0	1.272361E+0	1.161701E+0	1.256490E+0	1.270816E+0	1.260524E+0	1.164166E+0	1.237840E+0	1.257117E+0	1.248051E+0	1.290638E+0	1.260112E+0	1.255183E+0	1.244441E+0	1.179200E+0	1.271236E+0	1.212865E+0	1.262122E+0	1.094208E+0	1.300600E+0	1.250365E+0	1.252299E+0	1.145564E+0	1.203142E+0	1.293462E+0	1.162454E+0	1.203942E+0	1.267116E+0	1.287056E+0	1.128031E+0	1.283577E+0	1.246862E+0	1.255039E+0	1.165039E+0	1.113589E+0	1.233467E+0	1.238935E+0	1.240884E+0	1.192642E+0	1.228555E+0
5.542530E+2	1.059223E+0	1.095046E+0	1.124119E+0	1.138837E+0	9.649883E-1	1.108586E+0	1.185318E+0	1.188290E+0	1.066207E+0	1.158597E+0	1.169664E+0	1.149856E+0	1.169711E+0	1.164562E+0	1.170945E+0	1.132699E+0	1.054849E+0	1.122732E+0	1.171534E+0	1.138311E+0	1.004061E+0	1.118118E+0	1.179851E+0	1.171347E+0	1.063017E+0	1.109450E+0	1.175871E+0	1.114499E+0	1.130655E+0	1.175624E+0	1.141609E+0	1.192901E+0	1.104609E+0	1.181009E+0	1.112115E+0	1.131183E+0	9.695444E-1	1.116265E+0	1.162534E+0	1.179801E+0	1.061436E+0	1.148444E+0	1.146641E+0	1.232549E+0	1.138080E+0	1.192093E+0	1.130392E+0	1.187555E+0	1.092517E+0	1.138845E+0	1.185690E+0	1.194932E+0	9.538074E-1	1.131852E+0	1.167047E+0	1.188722E+0	1.125856E+0	1.163755E+0	1.168859E+0	1.148109E+0	1.124442E+0	1.165471E+0	1.176454E+0	1.160544E+0	1.082005E+0	1.162055E+0	1.170897E+0	1.112554E+0	1.053151E+0	1.164473E+0	1.156003E+0	1.167748E+0	1.123837E+0	1.144491E+0	1.168370E+0	1.161924E+0	1.114453E+0	1.171248E+0	1.136025E+0	1.148552E+0	1.065846E+0	1.103401E+0	1.167648E+0	1.186193E+0	9.817959E-1	1.157328E+0	1.145987E+0	1.136753E+0	1.040186E+0	1.153781E+0	1.200628E+0	1.153432E+0	1.170327E+0	1.177339E+0	1.164628E+0	1.184261E+0	1.163738E+0	1.128522E+0	1.160330E+0	1.145779E+0	1.013998E+0	1.147127E+0	1.145077E+0	1.096214E+0	1.066816E+0	1.132491E+0	1.141150E+0	1.168807E+0	1.135234E+0	1.148742E+0	1.132483E+0	1.187419E+0	1.114171E+0	1.115667E+0	1.168394E+0	1.153342E+0	9.927955E-1	1.197422E+0	1.172858E+0	1.159787E+0	1.118549E+0	1.177097E+0	1.129505E+0	1.169839E+0	1.174705E+0	1.134454E+0	1.149411E+0	1.121249E+0	1.011876E+0	1.021856E+0	1.131842E+0	1.149966E+0	1.005489E+0	1.089411E+0	1.187669E+0	1.134998E+0	1.077182E+0	1.116515E+0	1.155567E+0	1.141396E+0	1.175638E+0	1.209777E+0	1.117347E+0	1.141855E+0	1.151716E+0	1.123982E+0	1.134282E+0	1.176742E+0	1.015381E+0	1.156574E+0	1.160417E+0	1.184589E+0	1.074614E+0	1.156933E+0	1.192227E+0	1.161231E+0	1.121900E+0	1.197194E+0	1.171992E+0	1.129796E+0	1.151141E+0	1.137998E+0	1.196368E+0	1.129449E+0	1.065629E+0	1.147557E+0	1.138262E+0	1.145862E+0	1.126978E+0	1.135054E+0
5.550140E+2	9.883700E-1	9.910188E-1	1.006533E+0	9.958337E-1	8.490069E-1	1.024410E+0	9.947206E-1	1.005386E+0	9.720062E-1	1.001070E+0	1.054681E+0	1.013847E+0	1.016516E+0	1.068281E+0	1.054804E+0	1.017509E+0	9.110193E-1	9.833893E-1	1.058543E+0	1.042058E+0	8.921806E-1	9.833108E-1	9.968391E-1	1.012985E+0	9.423217E-1	9.987432E-1	9.994756E-1	9.981825E-1	1.012758E+0	9.864252E-1	1.024081E+0	1.028593E+0	9.582441E-1	1.021959E+0	1.030466E+0	9.649028E-1	8.574455E-1	9.674493E-1	1.031099E+0	1.015662E+0	9.467340E-1	9.960145E-1	1.035611E+0	1.088750E+0	1.030036E+0	1.015129E+0	1.077069E+0	1.025826E+0	9.898611E-1	9.852865E-1	1.040829E+0	1.054948E+0	8.930118E-1	9.698350E-1	1.000163E+0	1.014986E+0	9.430503E-1	1.003318E+0	1.041269E+0	9.798629E-1	1.066309E+0	1.068317E+0	1.022278E+0	1.020203E+0	1.005676E+0	1.030773E+0	1.046516E+0	1.099128E+0	9.363975E-1	9.944702E-1	1.003997E+0	1.059127E+0	9.949926E-1	1.039818E+0	1.009309E+0	1.022765E+0	9.854631E-1	1.057155E+0	1.044058E+0	1.005850E+0	9.905569E-1	9.618539E-1	1.036750E+0	1.048895E+0	8.655792E-1	1.039110E+0	1.005306E+0	1.032947E+0	9.669067E-1	1.028538E+0	1.029723E+0	1.027244E+0	1.058498E+0	1.004610E+0	1.029975E+0	1.029812E+0	9.210270E-1	1.043366E+0	1.012511E+0	9.579409E-1	9.117827E-1	1.027269E+0	1.035368E+0	1.001105E+0	9.846055E-1	1.009918E+0	1.049229E+0	1.011355E+0	1.024230E+0	1.057165E+0	1.010076E+0	1.006538E+0	9.690147E-1	1.001228E+0	9.576223E-1	1.009623E+0	8.927599E-1	1.070544E+0	1.029534E+0	1.054184E+0	9.115389E-1	1.039558E+0	1.044370E+0	1.043658E+0	9.661920E-1	1.021865E+0	1.042619E+0	9.843739E-1	8.387459E-1	9.084174E-1	1.019572E+0	1.026227E+0	8.596297E-1	1.031635E+0	1.042698E+0	1.036332E+0	9.522202E-1	1.031161E+0	1.024253E+0	1.082455E+0	9.955726E-1	9.750481E-1	1.058272E+0	1.079693E+0	9.568311E-1	1.022426E+0	1.007534E+0	1.025560E+0	8.683005E-1	1.012547E+0	1.005784E+0	1.034177E+0	9.644558E-1	1.009187E+0	1.031335E+0	1.025479E+0	9.811847E-1	1.016913E+0	1.035328E+0	1.021509E+0	1.008605E+0	1.019184E+0	9.964083E-1	1.005994E+0	9.358854E-1	1.066302E+0	1.059474E+0	1.083002E+0	9.719019E-1	1.089569E+0
5.557660E+2	9.443553E-1	9.976440E-1	9.602905E-1	9.430812E-1	8.182445E-1	9.520374E-1	9.936526E-1	1.032372E+0	9.101357E-1	9.784047E-1	9.575205E-1	1.011949E+0	1.006030E+0	1.041657E+0	1.027043E+0	1.016225E+0	9.139783E-1	9.681574E-1	1.022335E+0	9.930449E-1	8.569927E-1	9.828444E-1	1.030029E+0	1.001060E+0	9.411497E-1	1.000529E+0	1.050212E+0	9.872785E-1	9.670063E-1	1.006485E+0	9.949335E-1	1.001707E+0	9.220763E-1	1.006528E+0	9.664873E-1	9.738425E-1	8.485620E-1	9.618339E-1	9.712251E-1	9.976889E-1	8.990881E-1	9.394151E-1	1.047630E+0	9.926740E-1	9.988444E-1	9.985242E-1	9.736460E-1	9.913588E-1	9.191433E-1	9.970988E-1	9.807642E-1	9.838090E-1	8.585903E-1	9.883233E-1	1.024562E+0	1.015899E+0	9.534628E-1	9.681856E-1	9.769329E-1	1.008790E+0	1.053652E+0	9.813403E-1	1.040901E+0	9.650364E-1	9.557688E-1	9.893161E-1	9.888770E-1	9.825746E-1	8.910186E-1	1.006296E+0	1.044532E+0	9.852846E-1	9.753173E-1	9.747683E-1	1.002024E+0	9.771691E-1	9.647323E-1	9.854808E-1	1.002927E+0	1.027235E+0	9.352299E-1	9.742711E-1	9.875839E-1	9.620575E-1	8.179566E-1	1.051890E+0	1.024302E+0	9.961727E-1	9.544962E-1	9.401688E-1	1.005144E+0	9.907632E-1	1.016934E+0	1.002680E+0	1.013025E+0	1.016132E+0	9.459355E-1	1.019497E+0	9.798015E-1	1.023028E+0	8.808798E-1	9.987314E-1	1.001373E+0	9.750786E-1	9.253918E-1	1.051404E+0	1.054744E+0	1.008384E+0	9.790436E-1	9.991481E-1	1.010523E+0	1.025715E+0	9.587756E-1	1.021385E+0	9.552611E-1	9.954960E-1	8.580248E-1	9.841050E-1	1.028518E+0	1.021309E+0	9.434316E-1	1.025561E+0	9.996598E-1	9.828557E-1	9.878151E-1	1.004732E+0	1.022535E+0	9.998953E-1	8.504362E-1	9.114345E-1	9.524677E-1	9.932747E-1	8.695109E-1	9.582445E-1	9.734099E-1	9.851919E-1	9.509953E-1	1.015920E+0	9.740613E-1	1.019585E+0	1.004147E+0	9.837602E-1	9.823904E-1	9.805844E-1	9.337197E-1	1.008463E+0	1.018942E+0	9.902109E-1	8.764722E-1	9.983632E-1	9.880965E-1	1.036112E+0	9.520093E-1	9.854756E-1	1.025912E+0	1.024868E+0	9.635360E-1	1.038795E+0	9.860149E-1	1.042728E+0	9.625894E-1	1.058399E+0	1.010177E+0	1.007106E+0	9.025664E-1	9.834954E-1	9.806847E-1	1.009178E+0	9.635201E-1	9.682703E-1
5.560130E+2	9.330828E-1	1.012221E+0	9.972839E-1	9.888418E-1	8.253121E-1	1.015170E+0	9.776355E-1	1.052861E+0	9.502677E-1	9.574391E-1	9.816662E-1	9.917061E-1	9.763933E-1	9.990619E-1	9.965036E-1	1.011086E+0	9.417974E-1	1.013289E+0	1.028577E+0	1.000721E+0	8.673683E-1	9.431946E-1	9.982616E-1	1.054484E+0	9.681009E-1	9.755304E-1	1.036053E+0	9.921246E-1	9.942818E-1	1.029735E+0	9.892914E-1	9.957313E-1	9.503325E-1	1.016617E+0	1.009749E+0	1.007219E+0	8.519461E-1	9.655771E-1	9.804746E-1	1.000052E+0	9.384980E-1	1.011706E+0	1.002416E+0	1.024699E+0	9.911602E-1	9.880865E-1	1.020992E+0	1.013011E+0	9.704709E-1	9.908816E-1	1.001374E+0	1.052654E+0	8.921176E-1	9.751866E-1	9.982108E-1	9.971551E-1	9.523061E-1	9.588173E-1	1.033700E+0	9.928499E-1	1.006771E+0	1.031768E+0	9.776732E-1	1.020643E+0	9.645760E-1	9.835574E-1	1.037415E+0	1.014307E+0	9.037816E-1	1.007774E+0	1.033892E+0	1.017679E+0	9.924542E-1	1.012616E+0	1.045128E+0	9.765767E-1	9.813170E-1	1.006447E+0	1.004775E+0	1.007904E+0	9.152670E-1	9.519217E-1	9.933306E-1	1.020731E+0	8.271318E-1	9.491152E-1	1.033545E+0	9.915181E-1	9.710432E-1	1.005651E+0	1.012575E+0	1.002724E+0	1.014460E+0	1.006058E+0	1.022442E+0	9.821526E-1	9.714231E-1	1.013690E+0	9.779144E-1	1.056714E+0	9.255700E-1	9.904296E-1	1.032793E+0	1.021924E+0	9.064194E-1	9.810023E-1	1.008171E+0	1.002442E+0	1.026194E+0	1.039902E+0	9.636148E-1	1.016127E+0	9.623895E-1	1.013582E+0	9.700205E-1	9.819841E-1	8.691403E-1	9.790502E-1	1.010730E+0	9.969007E-1	9.480703E-1	9.993919E-1	9.727106E-1	9.652040E-1	9.986271E-1	9.841725E-1	1.000490E+0	9.810814E-1	8.181483E-1	8.728173E-1	9.905363E-1	1.068595E+0	8.450445E-1	1.009254E+0	9.867345E-1	1.012569E+0	9.326188E-1	9.549518E-1	1.024253E+0	1.015094E+0	1.030375E+0	1.005055E+0	1.010727E+0	1.016229E+0	8.974909E-1	1.002751E+0	1.023378E+0	9.858605E-1	8.731075E-1	1.037643E+0	1.036103E+0	9.790422E-1	1.010511E+0	1.000675E+0	1.049413E+0	1.014472E+0	9.663978E-1	1.018340E+0	1.024995E+0	1.002063E+0	9.979425E-1	1.023281E+0	1.010776E+0	9.943151E-1	8.813634E-1	1.002128E+0	1.018203E+0	9.901736E-1	9.523447E-1	1.084515E+0
5.565140E+2	9.459654E-1	1.008908E+0	9.675574E-1	9.818511E-1	9.928415E-1	9.325333E-1	1.003262E+0	9.719037E-1	9.597438E-1	9.636718E-1	1.010988E+0	9.550152E-1	9.955424E-1	9.804276E-1	1.005757E+0	9.648393E-1	9.346943E-1	9.816969E-1	9.911216E-1	9.936357E-1	8.966917E-1	8.993471E-1	9.655474E-1	9.924742E-1	9.341189E-1	9.582700E-1	9.605391E-1	9.830369E-1	9.775648E-1	9.695560E-1	9.483912E-1	9.513483E-1	8.796933E-1	9.465873E-1	9.902514E-1	9.792062E-1	8.303727E-1	9.585581E-1	1.018930E+0	9.905918E-1	8.885000E-1	9.601497E-1	9.972659E-1	9.964420E-1	9.174723E-1	9.871376E-1	9.465255E-1	9.984302E-1	9.573537E-1	1.001451E+0	9.672194E-1	9.861038E-1	8.626139E-1	9.367499E-1	9.664934E-1	9.619509E-1	9.418933E-1	9.676002E-1	1.000180E+0	9.769109E-1	9.430130E-1	1.012336E+0	9.854678E-1	9.932833E-1	1.016244E+0	9.518893E-1	9.676406E-1	9.679290E-1	8.867647E-1	1.011716E+0	1.001464E+0	1.014345E+0	9.416789E-1	9.451997E-1	9.613479E-1	9.973022E-1	9.946768E-1	9.684157E-1	1.008011E+0	9.889869E-1	8.981559E-1	9.084638E-1	9.505501E-1	9.978487E-1	8.349958E-1	9.533758E-1	9.467737E-1	9.663805E-1	9.172657E-1	9.687776E-1	9.777075E-1	1.023656E+0	9.441954E-1	9.751787E-1	1.004551E+0	9.552345E-1	9.163931E-1	9.853052E-1	9.772857E-1	9.716430E-1	8.361904E-1	9.717504E-1	1.015280E+0	9.485806E-1	9.006705E-1	9.847746E-1	9.965274E-1	9.638226E-1	9.702036E-1	1.003942E+0	1.001589E+0	1.002616E+0	9.232396E-1	9.947261E-1	9.670691E-1	9.770709E-1	8.557092E-1	9.669188E-1	9.822675E-1	1.006364E+0	9.219765E-1	1.003043E+0	9.714863E-1	1.016199E+0	9.280937E-1	9.582279E-1	9.632594E-1	1.011184E+0	8.125814E-1	8.595423E-1	9.995695E-1	1.004035E+0	8.417504E-1	9.879125E-1	1.004856E+0	9.939733E-1	9.277181E-1	9.573899E-1	9.244530E-1	9.651344E-1	1.000617E+0	9.755325E-1	9.679820E-1	1.008404E+0	9.093593E-1	9.900564E-1	9.758481E-1	9.885804E-1	8.461911E-1	9.716315E-1	9.491859E-1	1.000323E+0	8.922619E-1	9.702748E-1	9.879485E-1	1.018141E+0	9.625821E-1	9.812372E-1	9.719257E-1	1.026813E+0	9.474376E-1	9.946022E-1	9.868293E-1	9.403729E-1	9.267988E-1	9.539963E-1	9.713054E-1	1.000406E+0	8.810923E-1	1.041557E+0
5.570440E+2	9.803184E-1	9.247593E-1	9.946420E-1	1.011723E+0	1.025266E+0	9.350990E-1	1.050778E+0	1.013382E+0	1.001548E+0	9.954040E-1	9.810913E-1	9.518523E-1	9.846002E-1	9.977302E-1	9.969667E-1	1.001237E+0	1.012232E+0	9.845177E-1	1.007353E+0	1.050325E+0	1.004512E+0	9.753809E-1	1.010589E+0	1.001537E+0	1.009114E+0	9.570793E-1	9.971163E-1	9.818254E-1	1.036513E+0	1.018793E+0	1.038654E+0	1.049933E+0	1.018711E+0	9.970326E-1	1.051793E+0	1.016158E+0	9.974618E-1	9.501349E-1	1.001407E+0	1.005728E+0	1.040261E+0	1.013387E+0	9.520524E-1	1.012768E+0	9.816661E-1	1.024618E+0	1.047652E+0	9.984280E-1	9.892911E-1	9.952339E-1	1.009030E+0	9.757769E-1	9.913575E-1	9.883233E-1	1.021145E+0	1.007671E+0	9.928010E-1	1.028497E+0	1.020724E+0	9.739591E-1	9.964578E-1	1.013263E+0	1.012318E+0	1.021968E+0	9.821901E-1	1.016378E+0	1.030135E+0	1.008204E+0	9.018909E-1	1.025022E+0	9.913301E-1	1.001958E+0	9.543721E-1	9.984230E-1	9.886678E-1	9.984866E-1	1.031530E+0	1.032776E+0	1.009859E+0	1.001325E+0	9.580451E-1	9.388841E-1	9.837535E-1	1.002543E+0	8.301898E-1	9.762736E-1	1.044840E+0	1.021309E+0	9.379492E-1	1.053332E+0	1.021720E+0	1.011695E+0	9.620091E-1	1.018120E+0	9.951350E-1	9.989203E-1	9.725816E-1	1.000788E+0	9.521249E-1	9.687887E-1	8.333375E-1	9.997691E-1	9.864371E-1	9.727128E-1	9.662087E-1	1.008661E+0	1.020427E+0	1.038687E+0	1.004093E+0	1.008259E+0	9.881871E-1	9.891047E-1	9.382963E-1	9.869231E-1	1.008987E+0	1.004709E+0	8.589510E-1	9.932035E-1	1.033601E+0	9.769760E-1	9.585081E-1	1.024343E+0	1.045596E+0	1.001163E+0	1.014587E+0	1.013054E+0	1.013227E+0	1.004129E+0	8.081280E-1	9.041938E-1	1.020863E+0	1.048419E+0	9.038582E-1	9.925977E-1	9.830039E-1	9.779592E-1	9.166921E-1	9.872647E-1	9.904026E-1	1.023514E+0	1.020287E+0	9.735964E-1	1.013127E+0	1.022749E+0	9.455875E-1	1.034486E+0	1.051262E+0	1.047857E+0	8.745496E-1	1.010911E+0	1.045705E+0	1.024988E+0	9.233801E-1	1.012836E+0	1.003616E+0	1.010803E+0	9.869087E-1	9.764802E-1	9.869543E-1	9.905708E-1	9.799849E-1	9.986993E-1	9.898221E-1	1.042696E+0	9.025660E-1	9.757334E-1	9.831867E-1	1.039146E+0	9.299901E-1	9.910159E-1
5.575580E+2	9.991056E-1	1.000957E+0	1.004551E+0	9.951975E-1	9.903466E-1	9.161086E-1	9.557467E-1	1.027374E+0	1.013254E+0	9.733053E-1	1.009262E+0	1.027765E+0	1.005117E+0	9.897448E-1	1.032132E+0	1.029499E+0	9.873731E-1	9.833892E-1	1.011098E+0	1.003674E+0	1.011278E+0	9.361978E-1	1.006322E+0	9.853191E-1	1.007357E+0	1.008267E+0	1.007145E+0	9.945472E-1	9.938414E-1	9.973673E-1	1.030194E+0	1.010671E+0	9.949770E-1	9.732941E-1	1.003656E+0	9.935107E-1	1.015228E+0	9.805535E-1	9.687910E-1	1.028434E+0	9.590862E-1	9.870487E-1	9.989827E-1	9.750914E-1	1.041792E+0	9.838166E-1	9.952500E-1	9.772184E-1	1.037767E+0	9.660141E-1	9.960744E-1	1.025689E+0	1.017284E+0	9.990272E-1	9.860121E-1	9.930402E-1	1.043130E+0	9.646728E-1	1.021806E+0	9.952119E-1	1.004428E+0	1.016962E+0	1.017515E+0	9.659204E-1	9.863000E-1	1.012924E+0	1.037415E+0	9.959992E-1	1.041807E+0	1.021079E+0	1.039465E+0	9.929067E-1	9.778560E-1	1.022669E+0	1.028736E+0	9.907891E-1	1.012182E+0	9.986456E-1	9.927599E-1	9.894003E-1	1.027632E+0	9.500588E-1	1.038666E+0	9.685113E-1	9.874744E-1	1.008757E+0	9.755262E-1	9.691736E-1	1.017729E+0	9.770421E-1	1.007431E+0	9.584694E-1	1.037222E+0	1.008470E+0	9.904268E-1	1.020986E+0	9.916970E-1	1.011110E+0	1.006849E+0	1.010467E+0	9.165368E-1	9.816092E-1	1.017856E+0	1.005363E+0	9.667836E-1	9.847744E-1	9.597589E-1	9.679815E-1	1.024231E+0	9.775719E-1	9.904198E-1	9.751569E-1	9.340810E-1	9.771704E-1	9.676597E-1	1.016993E+0	8.825705E-1	1.006347E+0	9.964984E-1	9.904254E-1	9.387924E-1	9.750479E-1	1.000885E+0	9.907019E-1	9.867857E-1	1.027250E+0	1.022044E+0	1.012124E+0	9.122286E-1	9.289330E-1	1.052479E+0	9.966373E-1	8.699814E-1	9.889538E-1	1.031505E+0	1.009471E+0	9.362938E-1	9.933607E-1	1.011996E+0	1.023514E+0	9.572391E-1	1.026834E+0	1.003522E+0	9.927559E-1	9.593294E-1	1.015445E+0	1.027814E+0	1.020665E+0	9.134821E-1	9.852700E-1	9.896124E-1	1.007093E+0	9.432959E-1	1.001892E+0	9.915635E-1	1.003465E+0	9.783232E-1	9.907515E-1	1.015133E+0	9.932230E-1	9.300413E-1	1.010405E+0	9.640790E-1	9.670664E-1	8.697519E-1	9.928122E-1	1.022580E+0	9.718995E-1	9.844769E-1	1.036501E+0
5.580170E+2	9.765609E-1	9.698154E-1	9.926602E-1	1.001554E+0	9.762112E-1	9.155947E-1	1.000593E+0	9.404209E-1	9.625304E-1	9.710386E-1	9.534961E-1	1.031559E+0	9.773037E-1	9.768781E-1	9.766077E-1	9.918170E-1	1.002762E+0	9.766193E-1	9.761391E-1	9.517093E-1	9.878197E-1	9.385304E-1	9.774001E-1	1.036835E+0	9.522814E-1	9.529134E-1	9.770578E-1	9.775846E-1	9.784437E-1	9.846008E-1	9.695465E-1	9.931707E-1	9.746328E-1	9.732940E-1	9.500356E-1	9.893386E-1	9.868862E-1	9.323519E-1	9.931310E-1	9.887000E-1	9.761447E-1	9.842462E-1	9.738009E-1	9.983258E-1	9.314866E-1	9.800212E-1	9.814604E-1	9.962188E-1	9.738926E-1	9.890168E-1	9.672195E-1	9.901198E-1	9.850990E-1	9.411288E-1	9.518543E-1	1.025960E+0	9.656116E-1	9.640870E-1	9.769328E-1	9.922599E-1	1.009117E+0	9.947567E-1	9.794060E-1	9.946054E-1	9.951068E-1	9.893161E-1	9.724949E-1	9.941695E-1	9.756302E-1	9.708178E-1	9.928501E-1	9.852844E-1	1.024824E+0	9.747687E-1	9.558839E-1	9.730231E-1	9.822379E-1	9.728038E-1	9.862900E-1	9.943348E-1	9.671708E-1	9.115682E-1	9.978006E-1	9.925680E-1	1.010631E+0	1.026862E+0	9.565293E-1	9.728974E-1	1.003546E+0	9.655987E-1	9.708490E-1	9.710282E-1	9.728947E-1	9.756615E-1	9.692404E-1	9.715618E-1	1.022398E+0	9.930467E-1	9.716241E-1	9.556574E-1	9.792928E-1	1.000807E+0	9.514121E-1	9.892744E-1	1.022549E+0	9.923175E-1	9.352464E-1	1.009572E+0	9.716765E-1	9.698993E-1	9.756767E-1	9.847449E-1	9.533545E-1	9.836721E-1	9.954079E-1	9.776841E-1	9.742705E-1	9.755120E-1	9.334762E-1	1.017323E+0	1.003737E+0	9.902628E-1	1.027221E+0	9.312070E-1	1.013043E+0	9.670389E-1	9.549317E-1	1.014006E+0	9.612173E-1	8.619554E-1	9.544039E-1	1.025555E+0	9.189146E-1	9.951995E-1	9.664807E-1	9.691776E-1	9.871364E-1	1.022016E+0	9.962390E-1	9.903946E-1	9.663185E-1	1.001183E+0	1.015048E+0	9.558065E-1	9.031128E-1	9.716488E-1	9.923247E-1	9.760721E-1	8.832010E-1	9.634480E-1	9.805163E-1	9.693693E-1	9.663233E-1	9.806116E-1	9.849353E-1	9.814511E-1	9.788000E-1	9.802857E-1	9.925898E-1	9.720076E-1	9.311632E-1	9.202705E-1	9.586912E-1	9.909786E-1	9.061004E-1	9.710752E-1	1.003821E+0	1.001137E+0	9.202121E-1	9.430016E-1
5.585160E+2	1.014672E+0	9.704777E-1	1.023708E+0	9.990111E-1	1.032333E+0	1.009011E+0	1.001661E+0	1.054860E+0	1.053944E+0	9.642383E-1	9.753428E-1	1.002460E+0	1.054813E+0	1.020805E+0	1.009460E+0	9.926729E-1	1.038275E+0	9.721066E-1	1.051051E+0	1.013123E+0	1.000901E+0	9.697834E-1	1.052312E+0	9.905659E-1	1.031964E+0	9.868396E-1	1.023663E+0	1.046042E+0	1.017597E+0	1.008763E+0	1.031132E+0	9.799420E-1	1.024363E+0	9.988130E-1	9.792830E-1	1.014966E+0	1.043149E+0	1.012843E+0	1.028180E+0	1.026543E+0	9.996730E-1	9.898506E-1	1.034466E+0	1.015280E+0	1.068009E+0	1.006115E+0	9.952502E-1	1.043058E+0	1.027502E+0	1.003315E+0	1.013152E+0	1.029132E+0	9.935920E-1	9.576712E-1	9.923552E-1	9.866389E-1	9.789169E-1	1.019713E+0	1.012615E+0	1.011741E+0	9.950513E-1	1.014650E+0	9.971604E-1	1.012260E+0	1.054996E+0	1.016954E+0	9.870563E-1	1.027122E+0	1.033771E+0	9.998904E-1	9.862631E-1	1.015298E+0	9.778567E-1	1.035679E+0	1.026308E+0	9.984865E-1	1.025543E+0	1.024487E+0	1.007548E+0	1.026821E+0	1.008809E+0	9.401251E-1	1.009294E+0	1.033053E+0	1.032040E+0	9.879890E-1	1.033031E+0	1.051567E+0	1.023047E+0	9.770424E-1	1.021720E+0	1.037411E+0	1.006048E+0	1.051412E+0	1.028092E+0	1.023192E+0	1.046728E+0	1.006595E+0	1.060316E+0	1.024741E+0	1.033016E+0	1.050099E+0	1.027642E+0	1.008675E+0	1.011626E+0	1.036318E+0	1.014299E+0	1.000660E+0	1.031107E+0	1.016409E+0	1.014096E+0	1.005229E+0	1.055145E+0	1.028537E+0	9.930461E-1	9.739993E-1	1.084033E+0	1.033138E+0	1.012763E+0	1.012840E+0	1.035049E+0	1.013998E+0	9.916980E-1	1.034505E+0	1.002231E+0	1.022844E+0	1.030862E+0	1.030469E+0	1.077565E+0	9.168654E-1	9.866651E-1	1.002690E+0	1.046895E+0	9.821878E-1	1.002191E+0	1.027034E+0	1.038591E+0	1.031161E+0	9.909866E-1	1.011726E+0	1.001121E+0	1.039417E+0	9.953576E-1	1.018836E+0	1.061145E+0	9.887863E-1	9.739466E-1	1.032630E+0	1.073540E+0	1.024550E+0	1.022459E+0	9.858135E-1	1.061545E+0	1.018916E+0	9.945769E-1	1.015695E+0	1.037948E+0	1.002167E+0	9.949384E-1	1.007367E+0	1.020950E+0	1.008649E+0	1.025743E+0	1.023233E+0	1.065124E+0	1.009891E+0	1.008824E+0	1.010639E+0	1.062714E+0	1.001123E+0
5.590100E+2	1.027555E+0	9.923428E-1	1.037581E+0	1.025070E+0	1.026928E+0	9.951522E-1	1.015008E+0	9.948917E-1	1.013811E+0	1.011270E+0	1.020761E+0	1.001195E+0	1.038855E+0	1.034116E+0	1.047401E+0	9.626974E-1	1.053665E+0	1.008212E+0	9.967399E-1	1.046191E+0	1.018496E+0	9.702499E-1	1.021493E+0	1.037312E+0	1.020246E+0	1.038027E+0	1.010095E+0	1.000001E+0	1.022436E+0	9.759387E-1	1.026901E+0	1.002987E+0	9.802844E-1	1.001187E+0	1.000609E+0	1.028673E+0	1.001693E+0	9.885081E-1	1.001406E+0	1.047829E+0	1.048495E+0	9.752802E-1	1.077963E+0	1.036002E+0	1.001106E+0	9.937796E-1	1.015475E+0	1.031571E+0	1.030923E+0	1.002693E+0	1.024340E+0	1.003888E+0	1.014603E+0	1.026760E+0	1.014802E+0	1.011787E+0	1.054122E+0	9.687712E-1	1.036403E+0	1.019416E+0	9.941133E-1	9.790267E-1	9.997600E-1	1.020202E+0	1.074959E+0	9.944974E-1	9.985842E-1	1.028953E+0	1.040862E+0	1.016644E+0	1.010584E+0	1.030544E+0	1.040057E+0	1.028582E+0	1.046343E+0	9.866436E-1	9.932943E-1	1.071296E+0	1.052839E+0	1.024357E+0	1.024210E+0	9.190180E-1	9.939696E-1	1.013104E+0	1.056069E+0	1.055085E+0	1.019681E+0	1.024103E+0	1.033685E+0	1.031717E+0	1.049157E+0	1.041000E+0	1.032273E+0	1.040796E+0	1.023854E+0	9.900957E-1	1.003862E+0	1.009820E+0	1.021946E+0	1.050433E+0	1.039196E+0	1.022599E+0	1.040004E+0	1.030442E+0	1.042670E+0	1.036947E+0	1.031457E+0	1.022644E+0	9.972172E-1	1.009217E+0	9.801448E-1	1.032253E+0	1.060565E+0	1.005780E+0	1.033784E+0	9.875114E-1	1.068750E+0	1.036676E+0	1.021403E+0	1.051196E+0	1.006056E+0	1.028603E+0	9.800600E-1	9.861247E-1	9.780332E-1	1.008159E+0	1.022534E+0	1.041757E+0	1.038597E+0	1.093661E+0	1.015055E+0	9.926027E-1	1.068539E+0	1.042566E+0	1.035769E+0	1.040465E+0	1.033691E+0	1.027503E+0	9.968224E-1	1.021269E+0	1.048029E+0	1.038449E+0	9.939163E-1	1.040137E+0	1.035535E+0	1.004020E+0	1.044925E+0	9.842285E-1	1.082672E+0	1.038734E+0	1.007805E+0	1.015315E+0	9.868610E-1	9.915553E-1	1.031335E+0	1.037097E+0	1.034610E+0	1.006923E+0	1.027814E+0	1.013555E+0	1.082679E+0	1.058985E+0	1.029934E+0	1.037135E+0	1.061590E+0	1.040943E+0	9.519211E-1	1.018679E+0	1.002637E+0	1.059244E+0
5.595110E+2	1.010914E+0	9.870423E-1	9.510425E-1	1.047950E+0	9.978282E-1	9.961787E-1	1.013406E+0	1.067353E+0	1.019385E+0	9.903045E-1	1.026510E+0	1.013215E+0	9.841447E-1	1.017700E+0	1.016864E+0	1.002949E+0	1.038276E+0	1.002005E+0	9.617811E-1	9.611573E-1	9.887221E-1	9.753806E-1	9.949431E-1	9.886579E-1	1.013801E+0	1.018980E+0	9.882664E-1	1.013328E+0	1.018916E+0	9.795843E-1	1.002925E+0	1.006402E+0	9.927159E-1	1.030267E+0	1.023154E+0	9.726512E-1	9.894230E-1	1.015183E+0	1.008708E+0	9.641023E-1	9.726152E-1	1.013388E+0	9.846745E-1	9.744639E-1	1.008791E+0	1.031734E+0	1.023749E+0	9.754516E-1	9.910023E-1	9.946123E-1	1.026695E+0	9.706133E-1	1.017286E+0	9.849174E-1	1.027977E+0	1.006298E+0	1.006685E+0	1.000976E+0	9.817985E-1	1.035355E+0	1.028806E+0	1.026679E+0	1.014050E+0	9.844568E-1	1.012721E+0	1.010045E+0	1.024674E+0	9.917280E-1	1.019590E+0	1.009746E+0	9.928503E-1	1.015775E+0	1.016573E+0	1.011433E+0	1.019630E+0	1.036385E+0	1.009879E+0	9.713410E-1	1.034353E+0	1.043683E+0	1.024209E+0	9.283303E-1	1.024618E+0	1.012517E+0	1.049953E+0	9.645582E-1	9.796336E-1	9.957071E-1	9.940902E-1	1.010738E+0	1.014290E+0	1.014087E+0	1.035242E+0	9.607041E-1	1.017734E+0	1.057612E+0	9.940140E-1	9.762743E-1	1.009994E+0	1.005329E+0	1.057263E+0	9.961374E-1	1.025066E+0	1.020031E+0	1.034622E+0	1.011803E+0	1.008784E+0	9.887767E-1	1.017354E+0	1.015929E+0	9.984603E-1	9.834376E-1	1.035871E+0	1.029838E+0	1.029651E+0	1.008394E+0	1.069675E+0	1.035665E+0	1.009713E+0	9.924178E-1	1.033310E+0	9.981746E-1	9.684232E-1	1.035813E+0	1.052171E+0	9.998369E-1	1.036251E+0	9.603859E-1	1.048618E+0	1.094868E+0	1.015056E+0	9.946198E-1	1.082653E+0	9.837485E-1	1.014450E+0	9.908739E-1	1.043491E+0	9.799484E-1	9.968225E-1	9.976923E-1	1.022809E+0	9.827919E-1	1.001120E+0	1.027095E+0	9.880625E-1	1.013541E+0	9.885221E-1	1.014683E+0	1.096611E+0	1.019640E+0	1.028018E+0	1.014348E+0	1.047230E+0	1.028644E+0	9.885508E-1	1.026091E+0	1.020776E+0	1.024048E+0	1.017011E+0	1.013111E+0	1.029368E+0	1.046693E+0	1.032329E+0	9.870862E-1	1.070677E+0	1.022829E+0	1.021955E+0	1.037683E+0	1.048743E+0	1.016285E+0
5.600240E+2	1.000179E+0	9.863804E-1	9.847329E-1	9.748598E-1	9.866068E-1	9.874534E-1	9.771023E-1	9.379211E-1	9.982036E-1	1.015803E+0	1.060430E+0	9.948686E-1	9.928068E-1	1.008381E+0	9.705924E-1	9.990970E-1	9.216732E-1	9.867739E-1	1.047929E+0	9.830063E-1	1.017144E+0	9.613873E-1	9.593834E-1	9.795952E-1	9.891935E-1	9.689835E-1	9.988858E-1	1.001211E+0	9.771248E-1	1.016057E+0	9.606143E-1	9.978659E-1	1.031709E+0	9.964392E-1	1.010968E+0	1.009006E+0	1.000846E+0	9.786810E-1	1.066636E+0	9.773472E-1	9.861441E-1	1.027958E+0	1.002416E+0	1.013396E+0	1.010146E+0	9.729046E-1	9.984679E-1	1.009476E+0	9.676195E-1	9.915034E-1	1.011385E+0	9.924142E-1	9.985107E-1	1.050114E+0	1.006994E+0	1.000356E+0	9.962720E-1	1.006246E+0	9.969367E-1	9.845857E-1	9.866136E-1	9.586703E-1	9.884995E-1	1.003874E+0	9.986301E-1	9.415246E-1	9.840225E-1	1.010034E+0	9.959558E-1	9.959482E-1	9.882904E-1	9.833786E-1	1.033075E+0	9.599841E-1	9.995949E-1	1.013291E+0	9.919131E-1	9.742665E-1	9.770455E-1	9.848739E-1	9.751572E-1	1.087880E+0	9.920536E-1	1.010757E+0	1.015001E+0	9.927816E-1	9.786069E-1	9.701042E-1	9.976357E-1	9.980221E-1	9.708489E-1	9.949495E-1	9.540917E-1	9.771085E-1	1.031388E+0	9.918609E-1	1.021819E+0	1.031754E+0	9.848335E-1	1.008183E+0	1.054884E+0	9.816089E-1	9.787105E-1	1.009148E+0	9.846058E-1	9.847743E-1	1.050454E+0	9.840237E-1	9.677473E-1	9.564740E-1	1.026607E+0	1.007845E+0	9.834701E-1	1.014883E+0	1.004854E+0	1.003481E+0	1.036793E+0	9.391164E-1	9.888753E-1	1.016825E+0	1.035629E+0	1.007303E+0	1.007622E+0	1.024698E+0	9.878151E-1	1.001305E+0	9.730569E-1	1.001307E+0	1.041937E+0	1.101505E+0	9.815033E-1	9.973099E-1	1.045954E+0	1.026430E+0	9.814050E-1	1.001722E+0	1.030016E+0	9.939709E-1	1.000908E+0	9.494169E-1	1.012722E+0	9.585931E-1	1.019851E+0	1.001448E+0	1.024916E+0	1.019888E+0	9.758479E-1	9.646514E-1	1.040856E+0	1.020732E+0	9.921393E-1	1.012414E+0	1.047231E+0	9.763548E-1	1.012654E+0	1.005912E+0	9.907248E-1	1.046405E+0	1.012784E+0	1.005600E+0	1.040030E+0	9.542170E-1	1.007783E+0	9.748516E-1	1.023223E+0	1.007303E+0	1.013201E+0	9.865186E-1	1.002639E+0	9.834348E-1
5.605040E+2	1.008767E+0	1.104984E+0	1.014460E+0	9.665978E-1	9.782909E-1	1.135789E+0	9.979240E-1	9.634081E-1	9.708917E-1	1.056601E+0	1.010413E+0	1.009419E+0	9.704647E-1	1.020362E+0	9.909519E-1	1.029926E+0	9.737594E-1	1.036419E+0	1.009850E+0	1.010170E+0	9.756390E-1	1.121851E+0	9.958917E-1	1.014893E+0	9.481802E-1	1.049931E+0	1.010094E+0	9.854609E-1	9.564486E-1	9.923511E-1	9.479213E-1	9.731121E-1	1.007409E+0	9.483678E-1	9.415049E-1	9.994699E-1	9.657363E-1	1.014715E+0	9.858293E-1	1.017555E+0	1.000850E+0	9.881694E-1	1.021303E+0	9.876504E-1	9.432397E-1	1.013706E+0	9.598562E-1	9.811959E-1	1.013244E+0	9.834214E-1	9.736972E-1	1.066996E+0	1.001191E+0	9.333441E-1	9.899155E-1	1.025958E+0	1.016519E+0	1.004489E+0	9.872051E-1	9.987538E-1	9.922378E-1	1.004011E+0	1.005389E+0	1.005197E+0	9.369803E-1	9.968008E-1	1.010719E+0	9.850156E-1	9.855566E-1	9.550495E-1	9.913301E-1	9.962416E-1	9.867418E-1	9.688544E-1	9.825961E-1	1.006777E+0	9.826989E-1	9.849933E-1	9.992300E-1	9.655465E-1	9.888461E-1	1.182244E+0	9.754524E-1	9.931547E-1	9.909710E-1	9.975741E-1	1.011980E+0	1.040395E+0	9.816805E-1	1.027903E+0	9.788509E-1	9.949495E-1	9.986258E-1	9.993026E-1	9.687701E-1	9.720032E-1	9.783743E-1	9.865961E-1	9.791723E-1	9.979062E-1	1.034442E+0	9.691565E-1	1.009099E+0	9.840692E-1	1.016800E+0	9.753458E-1	9.677257E-1	9.887774E-1	1.029633E+0	1.063876E+0	1.020352E+0	1.016562E+0	1.023223E+0	9.680670E-1	1.003673E+0	1.001024E+0	1.000206E+0	9.886549E-1	1.022928E+0	9.645226E-1	1.001418E+0	9.853936E-1	1.000885E+0	1.005739E+0	9.734000E-1	9.959211E-1	1.025474E+0	9.744960E-1	1.091483E+0	1.066508E+0	1.026024E+0	9.670478E-1	1.037954E+0	1.041004E+0	9.760744E-1	1.007404E+0	1.018989E+0	9.829971E-1	9.979896E-1	9.853423E-1	1.005660E+0	1.003119E+0	9.814296E-1	9.688474E-1	1.053649E+0	9.792659E-1	9.897893E-1	1.024472E+0	1.022591E+0	9.672667E-1	9.855703E-1	9.983879E-1	1.013623E+0	1.004324E+0	9.963843E-1	9.423155E-1	9.964493E-1	9.878969E-1	9.785005E-1	1.002062E+0	9.990652E-1	1.018599E+0	9.952104E-1	9.804124E-1	1.055027E+0	1.019206E+0	9.931910E-1	9.857878E-1	1.031978E+0	9.859614E-1
5.610640E+2	9.819288E-1	1.063241E+0	9.966229E-1	9.780371E-1	9.861885E-1	1.109613E+0	9.877796E-1	1.000389E+0	9.664323E-1	1.022036E+0	9.626946E-1	9.676668E-1	9.918941E-1	9.342829E-1	9.590250E-1	9.901035E-1	9.719835E-1	1.049958E+0	9.380596E-1	9.806442E-1	9.954885E-1	1.151239E+0	9.816675E-1	9.652849E-1	1.027862E+0	1.018980E+0	9.876766E-1	1.000000E+0	9.986789E-1	1.026544E+0	9.921122E-1	9.859170E-1	9.751979E-1	1.081305E+0	1.038996E+0	9.762269E-1	9.995768E-1	1.127030E+0	9.459127E-1	9.437622E-1	1.016731E+0	1.020672E+0	9.543414E-1	9.870226E-1	1.013763E+0	9.933053E-1	9.828390E-1	9.873820E-1	9.687595E-1	1.074189E+0	9.784077E-1	9.453707E-1	9.810764E-1	1.118714E+0	1.008946E+0	9.422912E-1	9.459422E-1	1.042549E+0	9.655794E-1	9.887182E-1	9.931760E-1	9.919808E-1	9.859016E-1	9.915170E-1	9.581175E-1	1.021560E+0	9.548992E-1	9.587750E-1	1.004937E+0	1.005804E+0	1.007037E+0	9.786143E-1	9.886456E-1	9.996059E-1	9.522411E-1	9.961181E-1	9.707215E-1	9.693907E-1	9.400750E-1	9.696587E-1	1.025921E+0	1.141891E+0	9.843920E-1	9.737923E-1	1.027670E+0	9.901185E-1	1.000171E+0	9.547430E-1	1.010637E+0	9.586059E-1	9.651329E-1	9.764104E-1	1.001594E+0	9.684238E-1	9.753608E-1	9.737671E-1	9.685264E-1	9.840154E-1	1.013140E+0	9.784946E-1	1.052032E+0	9.982129E-1	9.637738E-1	9.802838E-1	9.541359E-1	9.690597E-1	1.011848E+0	9.988778E-1	9.569413E-1	9.823653E-1	1.006056E+0	1.005666E+0	1.015995E+0	1.005130E+0	9.629364E-1	1.026205E+0	1.024752E+0	9.916878E-1	9.807433E-1	9.774739E-1	9.875012E-1	9.768743E-1	9.776104E-1	9.900483E-1	9.919342E-1	9.645916E-1	9.216199E-1	9.613261E-1	1.020226E+0	1.031511E+0	9.479509E-1	9.751176E-1	1.025251E+0	9.473133E-1	1.009120E+0	9.758935E-1	9.950994E-1	9.817778E-1	1.017833E+0	9.971309E-1	9.658140E-1	9.760162E-1	9.766271E-1	9.723251E-1	1.028664E+0	9.729190E-1	9.555683E-1	9.347412E-1	1.012497E+0	9.694488E-1	9.481750E-1	9.722717E-1	1.010511E+0	9.848671E-1	9.963845E-1	9.771706E-1	9.754609E-1	9.850424E-1	9.742743E-1	1.002504E+0	9.867188E-1	9.834818E-1	9.964081E-1	9.965402E-1	1.045940E+0	9.602063E-1	1.001320E+0	9.485100E-1	1.016610E+0	9.834338E-1
