Photon Energy (eV)	#1	#2	#3	#4	#5	#6	#7	#8	#9	#10	#11	#12	#13	#14	#15	#16	#17	#18	#19	#20	#21	#22	#23	#24	#25	#26	#27	#28	#29	#30	#31	#32	#33	#34	#35	#36	#37	#38	#39	#40	#41	#42	#43	#44	#45	#46	#47	#48	#49	#50	#51	#52	#53	#54	#55	#56	#57	#58	#59	#60	#61	#62	#63	#64	#65	#66	#67	#68	#69	#70	#71	#72	#73	#74	#75	#76	#77	#78	#79	#80	#81	#82	#83	#84	#85	#86	#87	#88	#89	#90	#91	#92	#93	#94	#95	#96	#97	#98	#99	#100	#101	#102	#103	#104	#105	#106	#107	#108	#109	#110	#111	#112	#113	#114	#115	#116	#117	#118	#119	#120	#121	#122	#123	#124	#125	#126	#127	#128	#129	#130	#131	#132	#133	#134	#135	#136	#137	#138	#139	#140	#141	#142	#143	#144	#145	#146	#147	#148	#149	#150	#151	#152	#153	#154	#155	#156	#157	#158	#159	#160	#161	#162	#163	#164	#165	#166	#167	#168	#169	#170	#171	#172	
5.300370E+2	-4.922646E-3	-5.272514E-3	7.507778E-4	-9.157045E-2	-8.027977E-3	-2.893776E-3	-6.080655E-3	-1.067669E-2	-5.133914E-3	-4.339296E-3	5.692809E-4	-2.861936E-3	-3.105736E-3	-1.743373E-3	-1.543225E-3	-1.155036E-3	-1.388023E-2	-9.308988E-3	-1.322591E-2	4.237769E-4	-7.038862E-3	-5.011332E-3	-6.962381E-3	-3.474780E-3	-6.620759E-3	-2.844383E-3	-7.790616E-3	-4.079034E-3	-8.178925E-3	-7.426591E-3	-4.876784E-3	-1.527843E-3	-1.188680E-2	-3.956357E-3	-7.759430E-3	2.820516E-3	-4.024735E-3	-3.726888E-3	2.978586E-3	-4.270968E-3	-1.226257E-2	-8.345090E-3	-7.347940E-3	-5.904668E-3	-5.550833E-3	-1.738312E-3	-9.116229E-3	-7.433758E-3	-7.851432E-3	1.414930E-3	-1.124898E-2	-7.126250E-3	-1.119962E-2	-2.755918E-3	-2.563674E-3	-4.779757E-3	-7.304135E-3	-1.248977E-2	-3.140800E-3	-8.656495E-4	4.558637E-4	-7.224795E-3	-2.033540E-3	-1.061411E-2	-6.651528E-3	-7.868606E-3	-9.157345E-3	-4.224489E-3	-1.249444E-2	-6.993532E-3	-1.014460E-2	-4.313703E-3	-3.564526E-3	-5.558230E-4	4.672223E-3	-2.717556E-3	4.028181E-3	2.392480E-4	-7.575753E-3	2.432957E-4	-8.428601E-3	3.103317E-3	3.257719E-3	-1.712405E-4	-1.005629E-2	-3.333305E-3	-8.461203E-3	-1.011050E-2	1.833892E-3	-6.612009E-3	-8.646257E-3	-1.209602E-2	-4.661436E-4	-6.388784E-3	-8.214666E-3	-6.931798E-3	-6.558572E-3	-3.513866E-3	-7.607359E-3	-1.123397E-2	-6.415158E-3	-6.215069E-3	-1.064271E-2	-1.014712E-2	-5.511207E-3	-4.117563E-3	-2.402831E-3	-1.046613E-2	-3.943695E-3	-3.305014E-3	-1.233761E-2	-5.962738E-5	-9.684424E-3	-1.461527E-2	-1.061076E-2	-4.326294E-3	1.795483E-3	-2.199654E-3	-2.652943E-3	-1.224008E-2	-8.316015E-3	-7.582686E-3	-3.405403E-3	-6.463887E-3	-5.225682E-3	-5.391360E-3	-5.255221E-3	-3.125279E-3	-1.094817E-2	-9.607166E-3	-1.363010E-2	-4.285094E-4	-3.982277E-4	-9.469742E-3	-7.750325E-3	-1.161879E-2	1.274943E-2	-8.423819E-3	-3.713323E-3	-9.558202E-3	-6.680961E-3	-8.383053E-3	-9.878430E-3	-3.961676E-3	2.182978E-4	-9.564551E-3	-1.053166E-2	-5.619173E-3	-1.423659E-3	1.774161E-3	-6.223852E-3	-1.254044E-2	-3.450840E-3	1.311356E-3	-6.624458E-3	-6.768489E-3	-7.485106E-3	-2.383360E-3	-6.074013E-3	-7.463883E-3	-6.232671E-3	2.230380E-4	-1.297802E-3	-3.529108E-3	-7.135467E-3	-4.097399E-3	-2.653130E-3	-6.143981E-3	3.556045E-3	-7.362234E-3	-2.663536E-2	-1.342835E-3
5.305180E+2	1.404289E-3	-8.673392E-3	2.624644E-4	-4.238906E-2	5.173570E-3	-7.637784E-3	-3.385964E-3	-5.383367E-3	-4.464850E-3	-5.880643E-3	-6.617153E-3	-3.407546E-3	-7.627094E-3	-6.959350E-3	-5.567386E-4	-7.575042E-3	-7.779944E-3	-8.079837E-3	-3.786174E-3	-7.692116E-3	1.056073E-2	-8.090939E-3	1.538322E-5	-5.153802E-3	-4.744448E-3	-4.482408E-3	-3.139588E-3	-3.391581E-4	-3.089177E-3	-1.166923E-3	-1.037898E-2	-4.775904E-3	-1.551425E-3	-4.437367E-3	-5.956259E-3	-6.282267E-4	2.190775E-3	-4.659639E-5	-1.536797E-3	3.980685E-3	-1.648760E-3	-3.165351E-5	-7.238242E-3	5.732249E-3	-9.305707E-3	-1.196070E-3	-3.352003E-3	1.818960E-3	-5.475752E-3	-4.879015E-3	-3.882241E-3	1.149346E-3	-4.600201E-3	1.962772E-3	-7.965336E-3	-9.623411E-3	-4.259648E-3	-3.543155E-3	-6.757640E-3	-9.840256E-3	-2.595022E-3	-3.918498E-4	1.355545E-3	-1.597372E-3	-5.699673E-4	-6.733289E-4	-6.782728E-3	-1.018505E-4	-4.763316E-3	-3.249715E-3	-3.823896E-3	-2.279377E-3	-9.262384E-3	-1.000567E-3	-8.474313E-3	-3.829232E-3	-6.674164E-3	-3.082027E-3	-3.968320E-4	4.332976E-3	-3.703278E-3	-4.580019E-3	-6.133996E-3	-3.176411E-3	-4.131887E-4	-9.187295E-3	-3.784428E-3	-4.909462E-3	-7.020507E-3	-1.271328E-3	-7.478149E-3	-3.287285E-3	-2.209258E-3	-8.940135E-3	-1.065255E-2	1.866453E-3	-3.055051E-3	-7.497874E-3	2.226819E-3	-5.122509E-3	-4.195919E-3	-5.617144E-3	-7.643718E-3	-1.399496E-4	1.806231E-3	1.474284E-5	-1.101324E-2	4.097972E-3	-2.437242E-3	-4.077687E-3	-1.098967E-2	-4.659639E-3	-5.784548E-3	1.517769E-3	-6.517943E-3	-3.562857E-3	-3.440883E-3	8.466641E-4	1.627056E-3	-8.249140E-3	-1.794417E-4	1.038479E-3	-5.420530E-3	4.235387E-3	-2.309695E-3	-1.601749E-3	-8.164913E-3	-1.521679E-3	-1.908136E-3	8.479777E-3	5.141395E-3	-9.356111E-4	-1.327539E-3	-4.847370E-3	5.583470E-3	-3.302995E-3	-1.608502E-2	-3.447406E-3	-1.893437E-3	-4.369167E-4	-7.204458E-4	-1.511302E-3	-6.506214E-3	-4.862688E-3	-7.719291E-3	1.546301E-3	-6.186271E-3	9.809576E-3	-5.072081E-3	-1.023154E-3	4.071541E-3	-5.494931E-3	-1.406751E-2	-2.170118E-3	3.899101E-3	5.878308E-4	-5.068229E-3	1.820593E-3	-7.249707E-3	-4.711814E-3	-6.113848E-3	-1.247033E-2	-7.080378E-3	-1.330331E-3	-6.407568E-3	-1.458196E-3	-1.219935E-2	2.438945E-4	-8.511276E-3	-1.070419E-3	-5.522947E-3	4.573709E-3
5.310350E+2	-1.612733E-3	-6.814831E-3	-1.051003E-2	3.276242E-2	6.272834E-3	-2.435557E-4	-5.878290E-3	-7.075503E-5	2.511601E-3	-3.635725E-3	-9.087498E-4	8.394128E-3	9.600622E-5	-8.908344E-3	3.475583E-3	-8.942658E-4	-5.906462E-3	-1.289793E-5	2.659031E-3	-6.113455E-4	-7.341153E-3	3.419904E-3	-6.760072E-3	-3.219958E-3	1.273017E-3	-4.378731E-3	-3.587642E-3	8.862614E-3	-4.911304E-5	-1.474770E-3	1.417443E-3	-1.259387E-3	8.443684E-4	2.456695E-3	-1.283214E-3	-7.398936E-3	-6.634079E-3	-3.491527E-3	-1.029316E-2	1.252987E-3	-3.410641E-3	-4.201028E-4	4.937792E-3	-8.886555E-3	6.359978E-3	6.355132E-4	-6.087533E-4	-2.346221E-3	3.456972E-4	-4.221036E-3	-6.019247E-3	3.705178E-3	2.032513E-3	-9.473979E-3	9.701304E-3	4.571496E-3	-1.194056E-3	-9.208715E-5	-1.321061E-3	1.206110E-3	-1.545859E-3	-4.870764E-3	-3.426948E-3	-3.338415E-4	-4.638956E-3	5.420163E-4	-2.111449E-3	2.069670E-3	5.568268E-3	-3.928427E-4	-3.215801E-3	-4.051763E-3	4.426933E-3	2.130280E-4	-2.834373E-3	-4.936926E-3	-2.986338E-5	-4.691419E-3	-7.324202E-3	-1.037296E-2	4.781605E-4	-8.781549E-4	-3.657709E-3	-2.973486E-3	-9.363364E-3	4.908645E-3	-3.153594E-3	8.186100E-4	-1.793652E-3	-1.050243E-2	-4.179348E-3	-1.920951E-3	-3.486900E-3	-3.012063E-3	4.803866E-3	-7.268220E-3	2.173261E-3	1.382992E-3	4.792125E-3	6.498070E-3	-3.022230E-3	-2.636654E-3	-1.718517E-3	6.464214E-3	-7.116176E-3	-3.342681E-3	-7.996470E-3	5.592958E-3	9.335263E-4	-8.495900E-3	-1.369740E-3	-8.618558E-4	-6.114850E-4	-5.430531E-3	-9.268009E-3	3.802953E-3	3.695073E-3	9.869298E-4	-7.029559E-3	6.964816E-3	-4.735325E-3	-6.793346E-3	-5.269572E-3	-4.974935E-3	-5.441948E-3	-4.201721E-3	-1.482900E-3	-3.384277E-3	-2.445019E-3	-1.005477E-2	6.465015E-3	-2.714821E-3	-6.405134E-3	8.427415E-3	9.298071E-5	-4.553467E-3	1.447216E-3	3.520370E-4	-7.439933E-3	-1.696612E-3	2.356694E-3	-1.087073E-2	-2.670995E-4	1.468424E-3	-3.278799E-3	4.733115E-3	-4.255870E-3	-9.626860E-3	-2.247373E-3	-6.390266E-3	8.559338E-4	5.561060E-3	6.370867E-3	-8.679718E-3	6.377020E-4	-1.121293E-2	-5.407898E-3	3.785685E-3	-4.519366E-3	-1.416360E-3	4.964042E-4	-8.148758E-4	-2.824553E-3	-1.933494E-3	2.745644E-3	-2.349955E-3	2.496992E-3	-4.736619E-3	-4.641476E-3	-4.591204E-3	3.400327E-3	4.751303E-3
5.315130E+2	-7.784024E-3	-3.196236E-3	3.611095E-4	-9.114864E-2	-3.853916E-3	-4.516530E-3	5.669675E-3	6.429698E-3	-1.403590E-3	-2.499309E-3	-5.319030E-3	2.010889E-3	4.960587E-3	-3.824637E-3	-2.035009E-3	2.009128E-3	1.057493E-2	-4.530658E-4	-4.821239E-3	-1.045536E-3	-2.088010E-3	1.257241E-3	-2.959604E-3	-9.626299E-4	-3.398486E-4	-1.916559E-3	1.822559E-2	-4.252809E-3	1.769338E-3	1.741285E-3	2.537357E-4	-5.462596E-3	-1.040286E-2	-4.821294E-3	-2.883531E-3	1.729531E-4	-5.099530E-3	2.439849E-3	1.283794E-4	-1.193415E-3	3.547995E-3	-3.394216E-3	-2.776806E-3	1.452781E-3	4.478654E-4	-8.249481E-3	5.216135E-3	-7.669716E-5	4.475823E-3	-7.016264E-4	3.647569E-3	1.286709E-3	1.374899E-4	-2.433683E-3	-3.116323E-3	1.561621E-4	-5.218980E-3	2.815068E-3	5.211318E-3	-4.161236E-3	3.632525E-3	-9.874069E-5	-2.009736E-5	-2.104485E-4	-2.130902E-3	5.603236E-3	2.006831E-3	-1.834091E-3	-5.566469E-3	-2.096410E-3	4.599436E-3	2.296313E-3	-7.105108E-3	-2.982748E-3	6.720786E-3	-1.113500E-3	-9.498942E-3	6.706440E-3	1.563666E-3	1.175295E-3	-8.112909E-3	-1.373457E-3	-5.650930E-4	-3.398466E-4	6.399636E-3	-3.955999E-3	3.096334E-3	2.366617E-3	9.254844E-3	1.008751E-2	4.464418E-3	4.450524E-3	-5.717697E-3	2.547256E-4	6.732462E-4	-4.233445E-5	-2.274399E-3	-2.584789E-4	-1.157996E-2	-3.019619E-3	-7.673026E-3	3.583583E-4	2.782072E-3	4.645864E-3	-1.581055E-3	8.087099E-4	-2.482201E-4	4.323628E-3	3.853222E-3	6.656637E-3	1.684672E-3	-1.804066E-3	5.854061E-3	4.342139E-3	3.469716E-3	-6.021967E-3	-2.649392E-3	3.551923E-3	-2.738096E-3	-6.987429E-4	5.393910E-3	-3.283858E-3	-1.389663E-3	-9.546275E-3	-1.123814E-3	9.824805E-4	8.484073E-4	2.702069E-3	-4.114307E-4	-1.060647E-2	-6.785582E-4	-2.597249E-3	2.562349E-3	-7.128944E-3	-2.358548E-3	6.621640E-3	-7.488299E-3	2.914256E-3	5.179870E-3	-2.958590E-3	-5.278463E-3	-3.482330E-4	-6.165939E-4	5.422914E-5	-6.879664E-4	1.791778E-3	-4.851425E-4	-6.743650E-3	2.758041E-3	-3.781662E-3	-1.478597E-3	-1.265989E-3	1.438060E-3	-1.360503E-3	-4.441048E-3	-7.159541E-3	5.955843E-3	-5.156489E-3	4.769083E-3	-3.419147E-3	-4.739885E-3	-3.286163E-3	8.452017E-4	-5.355418E-3	4.594277E-5	-4.269334E-3	-1.739948E-3	1.083437E-2	2.081451E-3	-1.189804E-2	1.235314E-2	1.070648E-2
5.320020E+2	5.461124E-3	3.962325E-3	3.570288E-3	1.835665E-1	-3.290046E-4	2.434170E-3	3.722562E-3	1.179368E-4	-3.028509E-3	1.743981E-2	9.847843E-4	-1.153851E-2	4.267375E-3	4.604706E-3	2.014450E-3	8.303949E-4	2.851723E-3	1.113842E-2	5.327410E-3	-1.625473E-3	-2.429920E-3	4.653931E-4	3.936638E-4	3.219428E-3	2.766188E-3	4.087806E-3	-7.943123E-3	5.875745E-3	4.071211E-3	9.856186E-3	6.937203E-3	-2.852446E-3	9.687856E-3	-7.037550E-4	2.495837E-3	1.881396E-3	6.474441E-3	1.671523E-3	-6.581150E-4	-2.311778E-3	-1.301615E-3	4.991026E-3	-2.047534E-3	1.067902E-2	-1.509418E-3	1.326893E-3	4.077756E-3	6.412668E-5	6.188167E-3	2.369492E-5	2.729411E-3	-3.576479E-3	4.447514E-3	3.256885E-3	-6.557709E-4	1.344659E-3	2.667702E-3	-2.076350E-3	5.357380E-3	9.346007E-3	-4.914664E-3	3.026492E-3	-2.348309E-3	8.086858E-3	-2.416037E-3	-4.127984E-3	6.760079E-3	5.462071E-5	2.304836E-3	-6.565685E-3	8.982263E-4	-7.728214E-4	4.733559E-3	3.210766E-3	-3.799458E-4	8.532956E-4	6.913022E-4	-1.838863E-3	2.151489E-3	8.180608E-4	9.477757E-3	-3.079613E-3	-4.641337E-4	-2.329930E-4	7.049369E-3	1.174205E-2	6.773942E-4	-7.543446E-4	-7.369220E-3	2.021069E-3	5.156232E-3	-1.696343E-3	8.210799E-3	1.255383E-2	7.250031E-3	6.246427E-4	5.845992E-3	5.744371E-3	-5.360989E-3	8.650700E-3	8.926796E-3	4.336087E-3	9.263125E-3	-1.691965E-3	6.415517E-3	3.252664E-3	7.513096E-3	1.661470E-3	7.239785E-4	8.670890E-4	7.662401E-3	-2.750261E-3	1.550135E-3	5.732158E-3	9.367088E-3	9.986001E-3	1.313918E-3	-5.574279E-3	-3.092014E-3	3.347699E-3	-1.255656E-3	9.955042E-3	1.120757E-2	7.313966E-3	7.910266E-3	8.023727E-3	5.405296E-3	-1.645987E-3	4.256107E-3	1.276614E-2	-3.563412E-3	-5.604215E-4	-4.420002E-4	4.624223E-3	-2.730028E-3	-1.984290E-3	1.013686E-2	-4.364426E-5	-5.540519E-3	7.601022E-3	1.959605E-4	6.164839E-3	6.185660E-3	-3.446785E-3	-4.945837E-3	3.772568E-3	6.364992E-3	3.180648E-3	2.360912E-3	8.410952E-3	3.499918E-3	7.852614E-3	7.991985E-3	2.363953E-3	4.940540E-3	6.883128E-3	3.827828E-3	-7.766095E-3	7.552412E-3	-1.020422E-4	7.940461E-3	4.542226E-3	8.078883E-3	5.303558E-3	3.593677E-3	2.449817E-3	3.527211E-4	-2.183396E-3	-5.768802E-4	8.019799E-3	1.914131E-3	-6.510182E-3
5.325170E+2	7.453990E-3	1.999465E-2	5.565391E-3	8.779267E-3	7.644925E-4	1.285748E-2	5.952672E-3	9.583182E-3	1.151926E-2	-1.084835E-3	1.129087E-2	7.402974E-3	1.408861E-3	1.683100E-2	-1.355061E-3	6.784820E-3	1.413999E-2	6.716371E-3	1.384688E-2	1.055069E-2	8.337211E-3	7.959732E-3	1.627301E-2	9.591743E-3	7.665851E-3	9.534274E-3	4.235381E-3	-6.067357E-3	5.476666E-3	-1.529189E-3	6.647387E-3	1.587818E-2	1.330886E-2	1.146208E-2	1.538660E-2	3.152298E-3	7.093128E-3	3.153640E-3	9.381111E-3	2.542489E-3	1.507559E-2	7.200036E-3	1.447273E-2	-3.072827E-3	9.558116E-3	9.221457E-3	3.783093E-3	7.973590E-3	2.317498E-3	8.363052E-3	1.477349E-2	4.561496E-3	9.182304E-3	9.443923E-3	4.599800E-3	8.330851E-3	1.530912E-2	1.538629E-2	6.508036E-4	4.315025E-3	4.967156E-3	9.559657E-3	6.473349E-3	4.668917E-3	1.640739E-2	6.524665E-3	9.284612E-3	4.036141E-3	1.495112E-2	1.929818E-2	1.168663E-2	9.121351E-3	1.077153E-2	1.115344E-3	2.956229E-4	1.174392E-2	1.148349E-2	2.666621E-3	1.158163E-2	3.803329E-3	1.028887E-2	6.807927E-3	7.563213E-3	6.893976E-3	6.383840E-3	-1.740963E-4	1.162550E-2	1.258908E-2	5.094643E-3	6.277192E-3	1.068310E-2	1.455007E-2	3.669199E-3	5.532422E-3	6.140076E-3	1.175126E-2	3.868769E-3	4.142856E-3	1.752936E-2	4.227328E-3	1.237954E-2	9.774422E-3	7.959746E-3	8.689558E-4	5.986690E-3	3.384127E-3	1.414766E-2	-5.209897E-3	8.702103E-4	8.354875E-3	1.534994E-2	1.013545E-2	8.676262E-3	8.453732E-3	1.355991E-2	1.221648E-4	-7.141984E-4	2.388417E-3	1.388556E-2	1.087545E-2	9.092528E-3	6.666369E-3	4.277599E-3	9.435744E-3	6.190873E-3	2.188622E-3	8.649330E-3	6.975152E-3	1.145665E-2	9.022482E-3	6.265662E-3	7.236612E-3	6.010552E-3	8.394418E-3	7.162451E-3	1.483790E-2	-7.601830E-4	8.648576E-3	1.340734E-2	7.049299E-3	1.012722E-2	1.494848E-2	1.108268E-2	1.074850E-2	1.641360E-2	-2.279211E-3	1.509395E-2	8.999460E-3	3.624161E-3	1.009969E-3	-7.249445E-4	5.887684E-3	1.717438E-3	8.535030E-3	1.588163E-3	1.767000E-2	8.177561E-3	9.699665E-3	5.521590E-3	1.711325E-2	8.649539E-3	1.180610E-2	2.278649E-3	6.844793E-3	7.157771E-3	9.725068E-3	1.374271E-2	1.985734E-3	8.092137E-3	1.690210E-2	1.449071E-2	-1.217847E-2
5.330030E+2	1.260830E-2	1.602014E-2	7.429457E-3	-4.306613E-2	1.119947E-2	1.841487E-2	7.659864E-3	3.140789E-2	1.339921E-2	1.718849E-2	2.221114E-2	3.190187E-2	2.341624E-2	1.534422E-2	1.500432E-2	1.736340E-2	8.677421E-3	1.259327E-2	1.802311E-2	6.079618E-3	1.254836E-2	1.087188E-2	1.226072E-2	1.332229E-2	8.998820E-3	2.211676E-2	6.079240E-3	1.075180E-2	1.237303E-2	6.617553E-3	1.118312E-2	1.193094E-2	1.287806E-2	1.783574E-2	1.900619E-2	1.784370E-2	1.010367E-2	2.044358E-2	1.475561E-2	1.927403E-2	2.275435E-2	1.617627E-2	2.437332E-2	1.200826E-2	2.725230E-2	2.063014E-2	1.896489E-2	1.481306E-2	1.940757E-2	1.259371E-2	9.826030E-3	1.910393E-2	2.106058E-2	1.613928E-2	1.643635E-2	1.072466E-2	1.607169E-2	2.171646E-2	1.910326E-2	1.252255E-2	1.532163E-2	1.570964E-2	1.701139E-2	2.883613E-2	1.780941E-2	1.165919E-2	1.290770E-2	2.365511E-2	1.512226E-2	2.503043E-2	2.544721E-2	8.810735E-3	1.027657E-2	1.680095E-2	2.731153E-2	7.370409E-3	1.344103E-2	2.691547E-2	1.980000E-2	1.675324E-2	2.181032E-2	4.521479E-3	1.918625E-2	1.193965E-2	1.936457E-2	2.322408E-2	2.022185E-3	1.757014E-2	2.342957E-2	2.118741E-2	1.838576E-2	1.714653E-2	2.119550E-2	2.429538E-2	1.540940E-2	2.163841E-2	2.536683E-2	2.688537E-2	1.773004E-3	2.355751E-2	9.543126E-3	2.539680E-2	1.896212E-2	9.532311E-3	2.268602E-2	1.871831E-2	1.848550E-2	8.073115E-3	1.853809E-2	1.869204E-2	1.139799E-2	1.928370E-2	2.221186E-2	2.107643E-2	1.501918E-2	1.964083E-2	1.667284E-2	1.929254E-2	1.505504E-2	9.699729E-3	7.165395E-3	4.540137E-3	1.427022E-2	1.116795E-2	1.110429E-2	1.025568E-2	6.648765E-3	1.976886E-2	2.650796E-2	2.584888E-2	2.291751E-2	2.271962E-2	2.769394E-2	1.006847E-2	1.356057E-2	1.824806E-2	1.103808E-2	1.614835E-2	2.433132E-2	7.133763E-3	1.118559E-2	9.190222E-3	1.420269E-2	2.344836E-2	1.216595E-2	1.951229E-2	1.155174E-2	1.373493E-2	1.105284E-2	1.020649E-2	1.410756E-2	2.031763E-2	1.590712E-2	2.263037E-2	1.389008E-2	1.315039E-2	2.238936E-2	9.859749E-3	2.283586E-2	2.477330E-2	9.886698E-3	1.711297E-2	2.200249E-2	2.750327E-2	2.490093E-2	1.242287E-2	1.048319E-2	1.020564E-2	4.424992E-3	1.192677E-2	2.883279E-2	5.409727E-3
5.331520E+2	1.778619E-2	6.100859E-3	1.733587E-2	5.802555E-2	1.971953E-2	1.611757E-2	1.358474E-2	3.275700E-2	8.896341E-3	1.567274E-2	2.237010E-2	2.964599E-2	2.102754E-2	1.845762E-2	2.045834E-2	1.756179E-2	1.628879E-2	2.024418E-2	2.710457E-2	2.180026E-2	2.492959E-2	1.565143E-2	2.126586E-2	7.677274E-3	2.292381E-2	1.931617E-2	2.467738E-2	1.379067E-2	2.480598E-2	3.222500E-2	2.102260E-2	2.833228E-2	2.235890E-2	1.402321E-2	2.148613E-2	3.142936E-2	2.508151E-2	1.519721E-2	1.350755E-2	2.088734E-2	2.605552E-2	2.311871E-2	6.249698E-3	2.236584E-2	2.087209E-2	2.993247E-2	2.491999E-2	1.054136E-2	1.604039E-2	1.920192E-2	7.691252E-3	2.371995E-2	1.611953E-2	2.286541E-2	2.739214E-2	2.653156E-2	2.640371E-2	1.682615E-2	1.710799E-2	2.365699E-2	2.061378E-2	1.676001E-2	1.220038E-2	1.908029E-2	2.104340E-2	1.402904E-2	1.827647E-2	2.992345E-2	2.255650E-2	2.846397E-2	2.273903E-2	2.511338E-2	2.681048E-2	2.252835E-2	2.861913E-2	2.201671E-2	2.690384E-2	3.239691E-2	8.585620E-3	1.941972E-2	2.852550E-2	2.110925E-2	3.990224E-2	2.389461E-2	2.415935E-2	2.595806E-2	2.075751E-2	2.187274E-2	2.554116E-2	1.070350E-2	1.479703E-2	1.259073E-2	1.466381E-2	2.950669E-2	1.818781E-2	2.362338E-2	3.546112E-2	1.042121E-2	2.603745E-2	1.239014E-2	2.101429E-2	1.401097E-2	2.013071E-2	1.115739E-2	2.285521E-2	2.121765E-2	1.924412E-2	2.266691E-2	3.768334E-2	1.473958E-2	1.747239E-2	2.422463E-2	1.217230E-2	1.932443E-2	1.872799E-2	2.080531E-2	1.860336E-2	7.143366E-3	2.322073E-2	1.846876E-2	2.361121E-2	2.599550E-2	1.606909E-2	-2.309952E-3	2.936571E-2	1.556549E-2	1.661254E-2	2.735771E-2	1.137307E-2	2.738138E-2	2.134818E-2	2.443873E-2	2.272219E-2	1.738484E-2	2.412040E-2	2.288856E-2	2.173094E-2	3.144399E-4	1.423784E-2	3.094861E-2	2.526992E-2	2.359238E-2	2.450659E-2	1.783653E-2	2.316710E-2	2.292012E-2	1.184385E-2	9.943508E-3	1.801953E-2	2.358143E-2	2.021432E-2	2.702603E-2	2.584549E-2	1.307452E-2	2.111638E-2	1.710736E-2	2.175249E-2	1.740342E-2	2.263768E-2	3.329959E-2	1.136140E-2	2.751609E-2	1.799102E-2	2.196744E-2	2.625178E-2	2.128540E-2	1.263340E-2	1.054945E-2	2.844666E-2	1.957579E-2	2.905891E-2	1.725442E-2
5.333080E+2	2.235803E-2	2.463084E-2	1.872817E-2	8.101455E-2	3.179492E-2	3.505001E-2	2.955164E-2	2.880921E-2	3.175844E-2	2.419217E-2	2.423364E-2	2.307380E-2	2.423783E-2	2.831051E-2	2.020146E-2	2.990789E-2	3.205771E-2	2.965183E-2	2.978878E-2	3.412123E-2	2.359066E-2	1.999390E-2	2.658641E-2	1.052706E-2	1.287860E-2	2.066339E-2	2.543539E-2	2.668613E-2	3.010125E-2	2.663060E-2	3.399873E-2	1.646572E-2	2.603434E-2	2.570716E-2	1.407034E-2	2.632556E-2	3.294749E-2	2.943298E-2	1.082769E-2	3.012917E-2	2.431956E-2	2.121100E-2	3.025036E-2	1.591039E-2	2.591430E-2	3.667026E-2	3.579837E-2	1.428649E-2	2.499983E-2	2.348393E-2	1.524627E-2	3.561462E-2	3.472772E-2	3.479372E-2	3.182615E-2	3.032608E-2	3.257700E-2	2.487362E-2	2.431312E-2	3.658301E-2	2.826976E-2	1.909830E-2	2.447537E-2	3.066949E-2	3.350766E-2	1.863382E-2	2.250335E-2	2.825430E-2	2.325119E-2	2.309301E-2	2.829075E-2	3.673366E-2	1.778590E-2	3.218942E-2	3.611599E-2	2.393878E-2	3.333398E-2	3.085834E-2	2.870190E-2	2.456095E-2	2.273718E-2	2.614409E-2	3.948993E-2	3.195172E-2	4.285558E-2	2.462604E-2	2.921568E-2	2.573300E-2	1.851769E-2	2.567031E-2	3.008033E-2	2.927111E-2	2.834586E-2	2.152270E-2	3.663349E-2	3.008246E-2	3.212823E-2	3.080198E-2	2.310247E-2	2.824831E-2	3.090622E-2	1.950572E-2	3.214821E-2	3.130724E-2	2.178622E-2	3.192909E-2	2.414820E-2	3.582298E-2	3.363391E-2	2.278460E-2	2.567357E-2	2.055838E-2	3.376724E-2	1.817003E-2	2.764457E-2	2.570165E-2	2.641679E-2	3.344505E-2	2.718730E-2	2.831939E-2	4.221867E-2	2.627301E-2	3.391483E-2	2.501012E-2	3.071146E-2	2.370581E-2	2.305228E-2	3.069114E-2	2.198551E-2	1.454743E-2	2.643848E-2	9.387516E-3	3.979453E-2	2.727721E-2	4.306243E-2	2.583535E-2	2.456410E-2	2.146111E-2	2.776148E-2	2.357014E-2	2.600749E-2	4.178485E-2	2.809433E-2	2.752168E-2	2.916317E-2	2.686434E-2	2.935347E-2	2.520434E-2	1.553627E-2	3.093289E-2	3.325422E-2	2.516754E-2	3.705885E-2	3.763245E-2	2.838243E-2	3.599709E-2	3.442515E-2	2.132239E-2	3.131866E-2	2.473676E-2	3.083865E-2	3.423206E-2	2.667185E-2	3.049263E-2	3.119001E-2	2.507298E-2	3.262254E-2	3.109452E-2	1.050642E-2	4.480384E-2	4.002358E-2	2.189471E-2
5.334580E+2	2.888522E-2	2.420900E-2	2.502025E-2	1.319663E-1	3.603748E-2	3.328301E-2	2.676629E-2	4.151387E-2	4.569674E-2	1.831886E-2	3.585524E-2	4.778794E-2	4.132260E-2	2.980140E-2	3.188569E-2	5.365957E-2	3.480453E-2	3.679826E-2	4.920493E-2	3.488213E-2	3.431063E-2	3.041577E-2	3.895588E-2	3.047763E-2	3.236842E-2	2.799533E-2	3.331143E-2	3.093229E-2	3.969019E-2	3.222000E-2	4.306300E-2	3.087688E-2	3.676414E-2	2.186698E-2	3.611491E-2	3.788224E-2	2.407543E-2	3.737165E-2	3.101747E-2	1.887330E-2	2.449575E-2	3.867832E-2	3.473428E-2	2.517959E-2	3.451494E-2	3.731910E-2	2.531818E-2	2.566788E-2	3.812958E-2	5.228316E-2	4.230071E-2	3.940831E-2	4.417801E-2	3.358591E-2	2.731922E-2	2.289513E-2	3.937157E-2	3.860660E-2	3.644146E-2	2.516422E-2	2.987330E-2	4.593111E-2	3.136627E-2	3.774015E-2	2.999133E-2	2.883409E-2	4.016512E-2	3.393918E-2	3.125478E-2	3.907917E-2	4.021253E-2	3.502442E-2	2.911983E-2	3.908733E-2	3.516868E-2	3.809539E-2	3.354240E-2	3.547340E-2	4.252853E-2	3.383059E-2	3.124055E-2	4.406479E-2	3.602162E-2	2.930913E-2	3.480575E-2	2.275769E-2	2.160827E-2	3.325806E-2	3.367569E-2	4.305868E-2	3.675715E-2	3.950220E-2	4.255730E-2	3.677244E-2	2.986429E-2	3.789026E-2	3.696901E-2	4.766896E-2	2.510589E-2	3.275074E-2	4.298791E-2	1.528886E-2	3.281481E-2	3.050917E-2	3.296804E-2	2.561123E-2	3.619066E-2	5.096312E-2	3.476305E-2	5.127687E-2	2.713842E-2	4.320729E-2	4.369943E-2	3.180705E-2	2.993279E-2	3.943154E-2	4.078009E-2	3.280089E-2	3.542491E-2	3.570148E-2	3.143658E-2	3.145693E-2	2.537673E-2	3.488105E-2	3.340028E-2	5.429543E-2	2.991748E-2	3.572927E-2	3.723484E-2	5.277118E-2	4.302122E-2	2.717361E-2	3.587174E-2	2.856951E-2	3.027975E-2	3.059065E-2	3.667277E-2	3.244587E-2	1.819897E-2	3.362889E-2	4.401345E-2	3.589807E-2	3.153111E-2	3.953647E-2	3.703447E-2	3.706347E-2	3.949785E-2	2.717727E-2	3.465085E-2	3.223935E-2	3.611221E-2	2.826204E-2	4.406259E-2	5.437523E-2	4.240159E-2	3.703012E-2	3.088023E-2	4.144097E-2	2.756608E-2	3.655971E-2	4.334875E-2	2.881686E-2	4.584748E-2	2.090713E-2	4.536672E-2	4.179631E-2	2.990419E-2	4.278231E-2	2.506014E-2	2.266784E-2	4.209699E-2	5.906709E-2
5.336080E+2	4.876972E-2	3.511546E-2	3.070541E-2	3.334211E-1	4.718880E-2	3.596720E-2	3.972460E-2	5.189713E-2	3.889847E-2	5.816557E-2	3.664039E-2	5.109446E-2	5.460777E-2	3.848849E-2	3.122622E-2	4.174776E-2	4.886772E-2	5.269814E-2	4.582296E-2	2.750662E-2	5.013563E-2	3.715100E-2	4.999265E-2	3.972164E-2	3.864203E-2	4.435326E-2	3.934278E-2	5.036159E-2	4.124175E-2	4.866433E-2	4.420825E-2	5.250842E-2	4.292637E-2	3.594224E-2	3.861056E-2	5.815444E-2	3.034068E-2	5.174082E-2	4.893018E-2	3.678825E-2	4.057315E-2	4.258654E-2	4.787348E-2	5.756339E-2	5.694016E-2	4.105208E-2	3.625842E-2	2.857024E-2	4.841569E-2	3.223658E-2	5.055265E-2	3.793819E-2	4.660704E-2	5.600971E-2	4.123205E-2	5.329652E-2	3.240868E-2	3.768332E-2	5.244579E-2	4.455519E-2	4.228899E-2	4.060113E-2	4.166645E-2	5.585385E-2	3.945305E-2	3.964975E-2	4.212877E-2	4.704344E-2	4.405229E-2	4.211245E-2	4.780858E-2	4.625574E-2	4.119334E-2	3.873145E-2	5.346343E-2	4.064295E-2	4.627841E-2	4.544799E-2	4.194373E-2	4.318021E-2	5.836618E-2	3.198690E-2	4.534970E-2	5.101566E-2	4.225547E-2	4.286446E-2	4.312362E-2	4.591220E-2	6.005702E-2	4.505772E-2	4.294931E-2	4.919577E-2	4.378076E-2	4.388143E-2	4.974863E-2	4.802204E-2	4.831926E-2	4.728867E-2	4.396991E-2	4.656154E-2	5.569991E-2	3.834614E-2	5.285861E-2	3.806980E-2	3.314457E-2	4.757311E-2	4.055862E-2	3.353438E-2	4.785263E-2	3.992119E-2	4.007978E-2	4.044322E-2	4.656039E-2	3.850802E-2	3.010310E-2	4.501248E-2	4.596788E-2	4.000364E-2	4.037659E-2	4.318887E-2	3.608504E-2	5.430362E-2	3.929641E-2	3.765899E-2	4.534790E-2	3.948289E-2	2.823668E-2	5.234950E-2	2.430538E-2	4.041850E-2	3.582448E-2	4.620662E-2	4.618829E-2	3.597781E-2	4.725180E-2	4.628434E-2	4.888388E-2	4.194277E-2	3.868732E-2	4.240256E-2	4.433889E-2	4.729446E-2	4.481778E-2	3.043570E-2	4.687113E-2	4.206910E-2	4.533553E-2	3.486474E-2	4.550477E-2	4.641138E-2	4.174087E-2	3.945546E-2	5.018598E-2	6.016511E-2	3.378145E-2	5.228548E-2	3.922743E-2	3.709081E-2	4.387975E-2	4.488440E-2	3.970033E-2	5.590362E-2	5.156171E-2	4.413029E-2	4.810899E-2	4.619337E-2	4.260243E-2	4.881116E-2	3.199742E-2	1.656767E-2	2.453390E-2	3.248625E-2
5.337580E+2	3.624324E-2	3.890571E-2	5.790746E-2	5.000140E-1	5.041277E-2	5.756313E-2	5.734924E-2	7.331765E-2	4.902992E-2	5.727476E-2	5.292263E-2	3.713004E-2	6.708256E-2	5.484085E-2	5.858711E-2	4.877648E-2	5.034836E-2	4.652543E-2	7.065966E-2	5.625380E-2	6.737187E-2	6.027620E-2	7.707904E-2	5.532513E-2	6.307285E-2	3.736716E-2	6.118225E-2	5.819968E-2	5.604117E-2	5.210986E-2	6.449014E-2	5.280672E-2	5.199738E-2	5.699532E-2	5.174346E-2	4.528687E-2	7.027776E-2	5.794667E-2	4.679454E-2	5.815913E-2	5.221767E-2	5.598973E-2	5.121105E-2	5.720410E-2	6.303601E-2	7.293315E-2	5.444574E-2	5.268892E-2	6.290454E-2	6.448725E-2	6.056958E-2	6.517395E-2	5.675142E-2	6.907079E-2	6.043572E-2	5.268473E-2	6.167116E-2	4.017328E-2	5.380275E-2	5.822376E-2	6.701353E-2	5.773948E-2	5.161617E-2	5.891122E-2	5.958177E-2	4.660861E-2	3.999955E-2	5.155809E-2	6.284952E-2	6.386347E-2	5.347770E-2	5.515342E-2	6.468287E-2	5.638766E-2	6.393187E-2	5.200268E-2	4.835304E-2	6.349139E-2	4.949215E-2	4.388054E-2	6.168504E-2	5.495136E-2	5.715428E-2	5.352969E-2	4.831503E-2	7.228554E-2	4.753936E-2	4.157452E-2	5.774501E-2	4.826932E-2	5.625082E-2	4.169733E-2	5.620951E-2	6.252394E-2	5.792127E-2	5.821499E-2	6.033433E-2	4.931144E-2	7.104091E-2	5.826698E-2	5.490850E-2	5.763602E-2	6.506850E-2	5.747563E-2	5.001235E-2	5.961099E-2	5.153037E-2	6.383313E-2	7.250099E-2	5.558582E-2	5.990923E-2	5.289157E-2	6.448617E-2	4.264710E-2	5.258709E-2	6.688421E-2	6.173369E-2	4.323889E-2	5.727333E-2	5.266023E-2	3.964874E-2	4.696187E-2	5.839150E-2	4.960672E-2	6.110555E-2	5.525643E-2	4.237550E-2	5.131732E-2	5.078780E-2	4.327746E-2	5.146516E-2	5.198709E-2	6.298574E-2	6.154100E-2	6.638308E-2	5.356206E-2	7.377949E-2	4.458557E-2	6.622791E-2	5.843116E-2	6.153195E-2	6.576981E-2	5.137711E-2	4.139464E-2	6.445651E-2	6.172833E-2	7.238161E-2	6.229657E-2	5.696617E-2	3.733899E-2	6.539448E-2	6.492542E-2	6.744917E-2	5.242404E-2	5.539096E-2	7.964600E-2	5.763047E-2	6.667910E-2	5.266814E-2	5.504625E-2	4.723168E-2	5.487371E-2	6.214683E-2	6.745604E-2	4.718284E-2	6.407983E-2	5.185213E-2	4.852913E-2	5.534953E-2	6.358003E-2	7.717665E-2	3.815158E-2
5.339400E+2	7.095359E-2	7.453813E-2	8.272646E-2	3.513969E-1	9.496515E-2	8.968998E-2	7.259545E-2	8.758236E-2	8.106591E-2	6.935829E-2	8.531576E-2	9.169494E-2	7.876246E-2	7.123181E-2	8.244409E-2	9.472406E-2	7.570432E-2	6.830499E-2	8.175852E-2	7.866303E-2	8.581924E-2	8.157993E-2	8.583061E-2	6.775892E-2	8.754463E-2	7.833888E-2	9.724160E-2	7.182275E-2	7.170663E-2	8.221971E-2	9.147444E-2	8.300268E-2	7.874593E-2	8.628551E-2	8.218992E-2	7.696290E-2	9.302101E-2	6.917323E-2	6.669231E-2	7.283169E-2	9.374447E-2	8.420517E-2	8.103457E-2	9.592404E-2	7.623246E-2	7.937105E-2	7.403968E-2	7.597733E-2	7.975216E-2	8.112138E-2	8.553903E-2	7.165868E-2	8.394759E-2	7.596327E-2	8.443142E-2	7.873535E-2	7.037644E-2	7.846099E-2	8.411424E-2	7.599016E-2	7.388920E-2	6.755472E-2	8.778652E-2	6.610403E-2	7.287406E-2	6.982958E-2	7.426026E-2	7.026827E-2	8.575932E-2	9.319293E-2	6.946860E-2	7.802630E-2	7.019832E-2	8.310133E-2	8.576520E-2	6.923977E-2	8.321199E-2	7.937334E-2	8.153704E-2	8.323973E-2	7.702982E-2	8.541020E-2	8.916321E-2	7.535985E-2	7.672175E-2	7.666599E-2	6.764426E-2	8.112903E-2	8.301354E-2	7.960710E-2	7.722518E-2	8.780928E-2	7.501334E-2	9.047450E-2	9.030344E-2	9.103480E-2	7.718679E-2	6.936756E-2	7.818241E-2	8.367123E-2	7.991666E-2	8.727520E-2	6.733293E-2	7.942332E-2	8.064280E-2	8.529782E-2	9.188282E-2	8.768330E-2	9.488336E-2	7.457031E-2	7.954837E-2	7.671470E-2	6.806574E-2	6.815092E-2	7.113032E-2	8.521424E-2	8.423660E-2	8.154245E-2	8.187066E-2	9.252818E-2	7.627408E-2	8.673529E-2	9.008001E-2	5.897783E-2	7.013021E-2	7.481860E-2	9.369447E-2	7.687759E-2	7.899236E-2	6.879146E-2	6.904687E-2	8.637894E-2	6.188793E-2	6.232974E-2	8.667827E-2	8.571988E-2	8.540035E-2	8.117414E-2	7.986901E-2	8.136064E-2	6.804635E-2	7.407006E-2	7.882980E-2	8.628991E-2	7.749524E-2	7.752483E-2	7.696429E-2	9.607562E-2	7.933126E-2	8.121754E-2	7.088353E-2	9.926646E-2	8.047811E-2	7.109514E-2	6.748568E-2	9.435383E-2	7.200791E-2	8.746330E-2	7.220103E-2	7.640313E-2	8.731279E-2	9.702479E-2	8.734026E-2	8.683388E-2	9.764687E-2	8.456840E-2	6.356931E-2	7.811797E-2	8.107744E-2	6.758817E-2	1.083304E-1	7.112513E-2
5.340740E+2	1.060212E-1	1.135658E-1	1.102388E-1	7.522275E-1	1.033783E-1	1.135411E-1	1.008011E-1	1.222818E-1	1.182639E-1	1.156138E-1	1.294966E-1	1.243059E-1	1.115777E-1	1.249000E-1	1.109690E-1	1.180863E-1	9.168799E-2	1.112387E-1	1.021441E-1	1.066513E-1	1.164760E-1	9.946198E-2	1.256202E-1	1.155667E-1	1.300177E-1	1.066890E-1	9.805112E-2	1.114175E-1	1.153027E-1	1.025957E-1	1.084072E-1	1.079607E-1	1.227990E-1	1.271984E-1	1.169718E-1	1.362840E-1	1.478949E-1	1.202349E-1	1.114093E-1	1.065836E-1	1.081275E-1	1.239009E-1	1.011514E-1	1.415667E-1	1.251104E-1	1.213084E-1	1.122996E-1	1.094642E-1	1.357568E-1	1.229052E-1	1.049797E-1	1.071264E-1	1.271747E-1	1.302264E-1	1.243382E-1	1.063419E-1	1.243972E-1	1.141800E-1	1.173753E-1	1.091390E-1	1.293187E-1	1.018720E-1	1.127914E-1	1.029662E-1	1.167936E-1	1.225557E-1	1.275837E-1	1.305887E-1	1.088380E-1	1.279040E-1	1.043550E-1	1.203440E-1	1.010584E-1	1.349075E-1	1.242954E-1	1.260454E-1	1.255503E-1	1.159762E-1	1.047835E-1	9.660094E-2	1.214088E-1	1.457602E-1	1.146190E-1	1.116014E-1	1.021011E-1	9.655915E-2	1.287823E-1	1.260555E-1	1.328706E-1	9.555827E-2	1.098648E-1	1.180686E-1	1.154869E-1	1.135557E-1	1.004221E-1	1.336075E-1	1.230899E-1	1.353297E-1	1.010719E-1	1.213360E-1	1.284959E-1	1.087832E-1	1.211540E-1	1.317053E-1	1.157422E-1	1.147420E-1	1.198984E-1	1.136866E-1	1.102109E-1	1.213916E-1	1.038502E-1	1.160044E-1	1.289280E-1	1.172678E-1	1.161606E-1	1.290396E-1	1.163361E-1	1.290968E-1	1.147835E-1	9.822282E-2	1.360313E-1	1.047788E-1	1.285057E-1	1.195728E-1	1.049249E-1	1.155670E-1	1.013471E-1	1.271775E-1	1.065709E-1	1.067950E-1	1.127452E-1	1.163909E-1	1.117446E-1	1.125365E-1	1.298256E-1	1.138144E-1	1.177534E-1	1.373199E-1	1.444609E-1	1.147588E-1	1.110508E-1	1.250304E-1	1.313496E-1	1.194523E-1	1.339220E-1	1.382513E-1	1.085799E-1	1.194967E-1	1.191387E-1	1.332324E-1	1.188968E-1	1.136253E-1	1.209813E-1	1.295187E-1	1.197085E-1	1.019621E-1	1.334943E-1	1.124165E-1	1.108316E-1	1.250109E-1	1.085140E-1	1.232276E-1	1.304069E-1	1.203215E-1	1.220238E-1	1.252021E-1	1.225506E-1	1.125711E-1	1.105442E-1	1.327368E-1	1.124064E-1	1.313866E-1
5.342040E+2	1.879067E-1	1.500951E-1	1.551091E-1	9.025867E-1	1.676766E-1	1.650758E-1	1.572124E-1	1.840538E-1	1.871055E-1	1.756915E-1	1.467050E-1	1.613181E-1	1.762874E-1	1.737094E-1	1.759711E-1	1.675533E-1	1.617316E-1	1.600717E-1	1.727066E-1	1.974934E-1	1.652709E-1	1.859395E-1	1.778539E-1	1.621273E-1	1.579487E-1	1.633552E-1	1.809488E-1	2.046662E-1	1.746243E-1	1.590143E-1	1.626254E-1	1.670046E-1	1.613986E-1	1.579286E-1	1.779776E-1	1.895673E-1	1.760685E-1	1.747584E-1	1.535087E-1	1.759659E-1	1.619299E-1	1.799242E-1	1.703812E-1	1.617924E-1	1.640533E-1	1.665730E-1	1.787964E-1	1.676629E-1	1.725730E-1	1.767194E-1	1.860538E-1	1.636915E-1	1.692799E-1	1.908638E-1	1.627444E-1	1.790771E-1	1.655024E-1	1.873277E-1	1.683950E-1	1.637018E-1	1.766926E-1	1.687218E-1	1.812759E-1	1.840348E-1	1.602646E-1	1.722287E-1	1.736113E-1	1.895241E-1	1.897084E-1	1.762195E-1	1.856153E-1	1.684070E-1	1.887909E-1	1.868285E-1	1.715302E-1	1.825801E-1	1.723018E-1	1.725604E-1	1.929110E-1	1.665231E-1	1.720028E-1	1.742607E-1	1.900074E-1	1.840527E-1	1.691183E-1	1.755310E-1	1.744312E-1	1.804832E-1	1.886334E-1	1.796121E-1	1.601517E-1	1.681731E-1	1.824911E-1	1.654970E-1	1.724712E-1	1.877656E-1	1.632277E-1	1.919911E-1	1.598987E-1	1.849859E-1	1.986958E-1	1.657741E-1	1.841837E-1	1.880964E-1	1.645791E-1	1.847220E-1	1.702184E-1	1.838881E-1	1.815065E-1	1.868099E-1	1.998711E-1	1.822799E-1	1.979649E-1	1.653646E-1	1.618823E-1	1.656992E-1	1.719027E-1	1.692446E-1	1.712483E-1	1.574891E-1	1.728188E-1	1.865115E-1	1.592168E-1	1.540090E-1	1.798250E-1	1.789598E-1	1.937926E-1	1.804318E-1	1.865847E-1	1.740564E-1	1.708559E-1	1.489714E-1	1.892410E-1	1.838028E-1	1.810718E-1	1.812473E-1	1.569405E-1	1.910986E-1	1.684098E-1	1.728515E-1	1.996664E-1	1.803258E-1	1.837004E-1	1.696012E-1	1.757524E-1	1.966130E-1	2.006101E-1	1.842364E-1	1.865100E-1	1.858736E-1	1.761020E-1	1.660312E-1	1.777357E-1	2.068839E-1	1.590779E-1	1.951582E-1	1.760689E-1	1.778193E-1	1.691339E-1	1.924727E-1	1.989536E-1	2.190617E-1	1.786380E-1	2.045173E-1	1.882638E-1	1.721977E-1	1.713816E-1	1.849576E-1	1.821419E-1	1.804137E-1	2.028270E-1	2.247835E-1
5.343550E+2	3.089103E-1	2.840956E-1	3.160002E-1	1.692185E+0	3.095684E-1	3.122124E-1	3.040361E-1	3.176323E-1	3.142498E-1	2.818231E-1	2.869083E-1	3.024532E-1	2.847411E-1	3.080854E-1	2.993045E-1	2.813816E-1	2.780972E-1	2.980924E-1	2.928447E-1	3.040740E-1	2.799495E-1	2.937136E-1	2.879481E-1	2.976527E-1	3.024839E-1	2.735853E-1	2.906096E-1	3.006956E-1	2.998890E-1	3.075343E-1	3.088576E-1	3.021577E-1	3.042155E-1	3.117877E-1	3.238071E-1	2.994064E-1	3.049009E-1	2.890183E-1	2.975121E-1	3.019807E-1	3.113651E-1	2.834103E-1	2.934228E-1	2.998553E-1	2.768018E-1	2.818327E-1	2.982725E-1	3.041688E-1	2.890542E-1	3.190118E-1	2.853889E-1	2.877473E-1	3.017656E-1	3.055066E-1	3.224721E-1	2.867786E-1	2.995666E-1	2.868076E-1	2.941047E-1	3.021695E-1	3.292205E-1	3.098809E-1	2.992262E-1	3.008917E-1	3.260182E-1	3.074556E-1	3.145888E-1	3.141143E-1	3.191246E-1	3.064234E-1	2.798237E-1	3.071818E-1	2.871981E-1	2.874902E-1	3.043574E-1	3.098457E-1	3.127517E-1	3.141038E-1	2.989252E-1	3.028260E-1	3.176811E-1	3.011075E-1	3.121931E-1	3.138927E-1	2.996016E-1	2.890979E-1	3.305329E-1	2.946602E-1	2.837070E-1	3.008025E-1	2.899944E-1	3.228081E-1	3.091794E-1	2.971171E-1	3.204493E-1	2.866084E-1	3.198988E-1	3.039564E-1	2.866640E-1	2.872662E-1	2.961108E-1	2.892678E-1	3.297731E-1	3.067206E-1	2.944553E-1	3.158053E-1	2.939062E-1	3.292395E-1	3.201511E-1	3.118193E-1	2.949240E-1	3.247165E-1	2.890900E-1	3.259302E-1	2.969193E-1	2.852448E-1	3.096790E-1	3.132317E-1	2.964629E-1	2.797235E-1	2.924803E-1	3.228567E-1	3.143980E-1	2.999921E-1	3.099309E-1	2.932474E-1	2.784637E-1	3.038515E-1	3.155564E-1	3.284816E-1	2.892685E-1	2.948878E-1	3.067780E-1	3.161484E-1	3.142545E-1	3.121712E-1	2.913222E-1	3.046555E-1	2.716883E-1	3.214769E-1	3.027529E-1	3.137296E-1	3.068592E-1	3.011912E-1	3.168713E-1	2.958690E-1	3.120301E-1	3.175060E-1	3.459789E-1	3.017140E-1	3.269818E-1	3.097402E-1	2.915663E-1	2.870387E-1	3.215798E-1	3.100743E-1	3.456295E-1	3.000939E-1	2.947566E-1	3.441423E-1	3.075271E-1	3.112156E-1	3.222233E-1	3.210434E-1	3.304658E-1	3.152115E-1	3.086581E-1	3.100033E-1	3.056176E-1	2.692018E-1	3.090260E-1	3.566524E-1
5.345110E+2	5.476093E-1	5.071339E-1	5.249422E-1	2.933692E+0	4.932417E-1	5.419414E-1	5.411038E-1	5.239532E-1	5.264501E-1	5.221989E-1	4.812373E-1	5.303305E-1	4.933145E-1	5.378108E-1	5.198400E-1	5.531008E-1	5.175678E-1	5.338142E-1	4.929555E-1	5.386937E-1	5.279261E-1	5.219513E-1	5.284856E-1	5.306515E-1	5.187518E-1	5.465958E-1	5.367806E-1	5.306368E-1	5.285573E-1	5.306206E-1	5.276219E-1	5.260899E-1	5.611176E-1	5.362024E-1	5.299912E-1	5.254957E-1	5.298726E-1	5.061951E-1	5.491721E-1	5.310081E-1	5.521150E-1	5.189518E-1	5.841049E-1	5.368332E-1	5.367483E-1	5.105180E-1	5.267318E-1	5.169203E-1	5.523931E-1	5.373491E-1	5.582008E-1	4.962146E-1	5.499425E-1	5.534816E-1	5.787248E-1	5.171258E-1	5.375413E-1	5.476062E-1	5.332655E-1	5.435997E-1	5.275038E-1	5.603288E-1	5.034345E-1	5.572945E-1	5.722847E-1	5.375837E-1	5.672323E-1	5.434321E-1	5.072587E-1	5.408216E-1	5.344013E-1	5.128520E-1	5.383425E-1	5.163816E-1	5.205299E-1	5.562970E-1	5.444437E-1	5.340444E-1	5.476675E-1	5.262877E-1	5.581741E-1	5.416016E-1	5.534582E-1	5.753170E-1	5.222920E-1	5.321213E-1	5.538287E-1	5.473741E-1	5.413149E-1	5.168580E-1	5.456319E-1	5.147739E-1	5.503675E-1	5.478231E-1	5.386873E-1	5.671209E-1	5.400099E-1	5.355991E-1	5.507573E-1	5.451713E-1	5.257378E-1	5.288074E-1	5.309794E-1	5.067316E-1	5.276839E-1	5.224438E-1	5.271209E-1	5.742847E-1	5.052906E-1	5.400280E-1	5.122844E-1	5.497067E-1	5.440286E-1	5.928325E-1	5.274810E-1	5.472231E-1	5.371909E-1	5.101830E-1	4.901009E-1	5.098523E-1	5.291206E-1	5.051210E-1	5.383579E-1	5.216349E-1	5.712963E-1	5.125282E-1	5.208604E-1	5.793452E-1	5.653274E-1	5.365048E-1	5.356634E-1	5.261247E-1	5.209401E-1	5.453973E-1	5.480928E-1	5.028436E-1	5.506422E-1	5.421636E-1	5.702660E-1	5.448367E-1	5.310992E-1	5.488355E-1	5.446252E-1	5.342658E-1	5.169820E-1	5.131221E-1	5.477246E-1	5.380953E-1	5.383214E-1	5.382642E-1	5.440865E-1	5.517404E-1	5.594142E-1	5.806027E-1	5.185515E-1	5.583324E-1	5.278554E-1	5.546251E-1	5.442765E-1	5.476832E-1	5.559534E-1	5.346036E-1	5.391524E-1	5.596393E-1	5.451734E-1	5.643622E-1	5.290327E-1	5.236141E-1	5.558647E-1	5.454681E-1	5.973228E-1	6.263455E-1
5.346620E+2	8.747429E-1	8.707584E-1	8.784352E-1	5.118670E+0	8.524819E-1	8.544295E-1	8.524065E-1	8.524690E-1	8.602350E-1	8.801357E-1	8.809493E-1	9.305490E-1	8.140423E-1	8.338948E-1	8.608653E-1	8.577208E-1	8.418599E-1	8.334995E-1	8.590271E-1	8.667536E-1	8.554188E-1	8.519620E-1	8.761028E-1	8.288677E-1	8.627983E-1	8.623009E-1	8.813374E-1	8.599068E-1	8.709451E-1	8.522511E-1	8.655716E-1	8.737680E-1	8.431391E-1	8.629747E-1	8.503364E-1	8.411127E-1	8.489945E-1	8.618139E-1	8.353448E-1	8.517038E-1	8.641308E-1	8.510798E-1	8.736377E-1	7.646857E-1	8.789941E-1	8.124700E-1	8.846618E-1	8.492605E-1	8.729723E-1	8.650158E-1	8.755386E-1	8.592944E-1	8.692843E-1	8.878273E-1	8.749727E-1	8.454157E-1	8.546087E-1	8.529727E-1	8.894160E-1	8.336496E-1	8.665756E-1	8.510556E-1	8.723763E-1	8.610247E-1	8.949883E-1	8.637473E-1	8.544490E-1	8.984152E-1	8.689122E-1	8.830324E-1	8.678972E-1	8.491859E-1	8.651566E-1	8.655489E-1	8.321589E-1	8.438575E-1	8.710781E-1	8.820572E-1	8.746083E-1	8.652798E-1	8.822411E-1	8.899282E-1	8.689858E-1	8.853981E-1	8.313686E-1	8.741826E-1	8.143995E-1	8.871873E-1	8.630967E-1	8.436710E-1	8.413280E-1	8.279127E-1	9.165271E-1	8.857470E-1	8.953191E-1	8.856538E-1	8.442069E-1	8.554693E-1	8.673394E-1	8.797307E-1	9.049822E-1	8.723661E-1	8.544556E-1	8.446278E-1	8.975392E-1	8.711828E-1	8.689172E-1	9.066900E-1	8.671218E-1	8.693251E-1	8.747767E-1	8.757573E-1	8.534807E-1	8.631925E-1	8.788154E-1	8.818017E-1	8.657068E-1	8.857188E-1	9.204393E-1	8.439994E-1	8.759357E-1	8.792580E-1	8.461376E-1	8.660188E-1	8.945678E-1	8.917668E-1	8.697554E-1	8.379739E-1	8.673863E-1	8.795682E-1	8.460142E-1	8.860812E-1	8.394475E-1	8.919190E-1	8.903196E-1	8.675121E-1	8.952430E-1	8.880322E-1	8.616162E-1	8.972474E-1	8.566092E-1	8.516922E-1	8.750022E-1	8.679137E-1	8.582217E-1	9.124111E-1	8.914701E-1	8.633325E-1	8.690730E-1	8.762304E-1	9.101560E-1	8.776869E-1	8.931962E-1	8.711715E-1	8.515217E-1	8.547136E-1	8.772995E-1	8.346849E-1	8.786162E-1	8.789415E-1	8.301639E-1	9.011392E-1	8.724465E-1	8.522601E-1	9.066089E-1	8.435893E-1	8.295656E-1	8.312430E-1	8.654152E-1	8.758309E-1	9.091366E-1	1.034161E+0
5.348020E+2	1.211301E+0	1.152445E+0	1.200192E+0	7.509784E+0	1.186285E+0	1.149915E+0	1.198896E+0	1.170691E+0	1.174485E+0	1.197552E+0	1.178819E+0	1.248843E+0	1.183682E+0	1.197498E+0	1.240270E+0	1.266786E+0	1.202402E+0	1.189519E+0	1.237768E+0	1.170897E+0	1.177975E+0	1.193024E+0	1.151322E+0	1.219793E+0	1.171670E+0	1.169931E+0	1.261009E+0	1.183966E+0	1.217298E+0	1.222845E+0	1.173000E+0	1.231567E+0	1.196164E+0	1.222566E+0	1.232349E+0	1.195791E+0	1.206925E+0	1.121170E+0	1.221375E+0	1.213431E+0	1.229065E+0	1.221291E+0	1.234793E+0	1.158823E+0	1.214129E+0	1.207717E+0	1.237793E+0	1.205220E+0	1.149512E+0	1.217707E+0	1.201089E+0	1.254830E+0	1.198953E+0	1.213959E+0	1.241679E+0	1.196530E+0	1.181451E+0	1.181441E+0	1.207527E+0	1.257621E+0	1.198660E+0	1.247370E+0	1.163056E+0	1.175468E+0	1.216557E+0	1.238713E+0	1.191539E+0	1.174223E+0	1.205347E+0	1.199335E+0	1.169714E+0	1.221211E+0	1.262622E+0	1.217122E+0	1.157474E+0	1.235991E+0	1.206368E+0	1.193965E+0	1.182646E+0	1.245386E+0	1.189985E+0	1.250035E+0	1.194831E+0	1.223690E+0	1.222857E+0	1.247602E+0	1.195019E+0	1.183702E+0	1.199906E+0	1.164646E+0	1.192268E+0	1.217028E+0	1.202802E+0	1.169711E+0	1.175714E+0	1.183901E+0	1.211593E+0	1.222169E+0	1.257253E+0	1.170906E+0	1.200129E+0	1.205650E+0	1.209010E+0	1.222451E+0	1.225832E+0	1.190085E+0	1.229294E+0	1.171359E+0	1.235277E+0	1.244449E+0	1.222311E+0	1.193263E+0	1.201588E+0	1.250433E+0	1.176511E+0	1.214073E+0	1.218838E+0	1.235919E+0	1.154294E+0	1.156993E+0	1.226118E+0	1.228189E+0	1.214335E+0	1.215155E+0	1.216713E+0	1.219944E+0	1.219702E+0	1.172452E+0	1.216756E+0	1.230118E+0	1.175263E+0	1.154104E+0	1.196894E+0	1.198656E+0	1.215575E+0	1.194221E+0	1.219053E+0	1.206244E+0	1.218121E+0	1.210572E+0	1.213136E+0	1.228878E+0	1.242244E+0	1.198556E+0	1.135607E+0	1.262391E+0	1.202027E+0	1.216278E+0	1.170595E+0	1.231401E+0	1.220056E+0	1.189652E+0	1.210589E+0	1.218952E+0	1.173862E+0	1.215304E+0	1.231162E+0	1.237581E+0	1.193930E+0	1.186504E+0	1.168968E+0	1.220101E+0	1.191810E+0	1.202691E+0	1.222504E+0	1.205689E+0	1.175511E+0	1.188219E+0	1.189157E+0	1.328950E+0	1.225002E+0	1.369368E+0
5.349580E+2	1.672245E+0	1.528735E+0	1.616761E+0	1.058732E+1	1.608481E+0	1.624251E+0	1.615268E+0	1.616412E+0	1.558542E+0	1.604023E+0	1.570156E+0	1.645633E+0	1.621209E+0	1.669301E+0	1.628912E+0	1.653307E+0	1.498193E+0	1.654826E+0	1.652504E+0	1.638765E+0	1.605687E+0	1.604923E+0	1.597008E+0	1.572430E+0	1.577031E+0	1.586276E+0	1.604159E+0	1.612949E+0	1.625721E+0	1.565722E+0	1.611133E+0	1.636058E+0	1.612036E+0	1.656639E+0	1.630468E+0	1.526445E+0	1.604047E+0	1.576599E+0	1.545653E+0	1.632554E+0	1.608800E+0	1.608960E+0	1.631460E+0	1.554840E+0	1.630506E+0	1.623832E+0	1.630347E+0	1.607750E+0	1.562342E+0	1.614567E+0	1.606031E+0	1.613800E+0	1.605309E+0	1.616471E+0	1.670888E+0	1.595403E+0	1.608132E+0	1.631722E+0	1.637452E+0	1.584245E+0	1.621243E+0	1.575932E+0	1.582260E+0	1.584651E+0	1.583509E+0	1.587085E+0	1.595199E+0	1.567615E+0	1.618317E+0	1.619042E+0	1.623906E+0	1.586877E+0	1.624325E+0	1.560509E+0	1.594256E+0	1.585135E+0	1.608801E+0	1.625994E+0	1.566466E+0	1.607377E+0	1.622468E+0	1.586445E+0	1.616102E+0	1.602454E+0	1.617996E+0	1.580641E+0	1.634136E+0	1.549889E+0	1.595178E+0	1.607083E+0	1.612729E+0	1.564825E+0	1.603261E+0	1.608773E+0	1.585184E+0	1.592856E+0	1.515229E+0	1.565501E+0	1.595539E+0	1.553417E+0	1.597532E+0	1.605191E+0	1.569601E+0	1.620339E+0	1.597906E+0	1.567872E+0	1.640685E+0	1.625927E+0	1.545857E+0	1.578180E+0	1.596271E+0	1.583875E+0	1.560811E+0	1.571582E+0	1.605865E+0	1.611859E+0	1.592059E+0	1.631565E+0	1.550547E+0	1.611436E+0	1.611947E+0	1.505065E+0	1.564299E+0	1.612567E+0	1.583486E+0	1.538537E+0	1.603930E+0	1.600539E+0	1.661472E+0	1.636326E+0	1.548006E+0	1.551497E+0	1.531113E+0	1.579032E+0	1.695345E+0	1.604309E+0	1.560271E+0	1.665942E+0	1.619676E+0	1.613936E+0	1.571590E+0	1.560409E+0	1.573517E+0	1.528726E+0	1.526793E+0	1.637662E+0	1.602379E+0	1.554123E+0	1.572212E+0	1.521668E+0	1.607130E+0	1.584806E+0	1.592595E+0	1.602048E+0	1.543254E+0	1.521044E+0	1.534315E+0	1.597420E+0	1.542648E+0	1.621680E+0	1.554922E+0	1.581664E+0	1.595959E+0	1.641758E+0	1.585370E+0	1.522970E+0	1.567656E+0	1.565776E+0	1.587361E+0	1.624658E+0	1.718541E+0	1.672288E+0
5.351040E+2	1.912599E+0	1.756940E+0	1.855341E+0	1.191225E+1	1.820554E+0	1.918574E+0	1.869401E+0	1.866997E+0	1.783028E+0	1.915839E+0	1.852908E+0	1.811907E+0	1.843445E+0	1.839148E+0	1.851388E+0	1.856449E+0	1.799784E+0	1.867631E+0	1.853949E+0	1.857554E+0	1.779323E+0	1.867662E+0	1.826052E+0	1.802003E+0	1.867029E+0	1.863082E+0	1.914431E+0	1.859603E+0	1.831291E+0	1.858705E+0	1.811891E+0	1.895713E+0	1.903810E+0	1.869917E+0	1.826987E+0	1.787786E+0	1.834673E+0	1.841812E+0	1.885889E+0	1.890465E+0	1.843837E+0	1.925543E+0	1.879260E+0	1.900340E+0	1.857946E+0	1.802306E+0	1.829218E+0	1.840137E+0	1.836997E+0	1.843211E+0	1.819511E+0	1.847700E+0	1.865561E+0	1.897775E+0	1.915199E+0	1.803437E+0	1.815802E+0	1.859699E+0	1.882702E+0	1.798700E+0	1.853617E+0	1.819129E+0	1.834935E+0	1.861675E+0	1.884284E+0	1.774928E+0	1.776983E+0	1.791713E+0	1.796633E+0	1.866496E+0	1.825306E+0	1.855192E+0	1.865411E+0	1.840876E+0	1.801714E+0	1.808780E+0	1.872123E+0	1.842245E+0	1.807007E+0	1.810553E+0	1.819742E+0	1.858515E+0	1.865694E+0	1.911357E+0	1.781800E+0	1.873437E+0	1.907434E+0	1.854442E+0	1.786716E+0	1.838558E+0	1.839071E+0	1.875079E+0	1.852019E+0	1.828004E+0	1.834575E+0	1.842646E+0	1.774036E+0	1.804704E+0	1.865948E+0	1.757509E+0	1.865161E+0	1.897593E+0	1.821164E+0	1.829897E+0	1.766931E+0	1.799212E+0	1.835688E+0	1.804071E+0	1.744796E+0	1.852091E+0	1.833782E+0	1.817670E+0	1.756981E+0	1.796711E+0	1.885039E+0	1.795271E+0	1.870158E+0	1.858363E+0	1.789507E+0	1.822720E+0	1.817193E+0	1.769606E+0	1.863079E+0	1.802117E+0	1.832596E+0	1.880113E+0	1.862224E+0	1.793767E+0	1.850040E+0	1.810186E+0	1.706231E+0	1.848799E+0	1.802858E+0	1.798140E+0	1.788173E+0	1.807686E+0	1.871488E+0	1.800724E+0	1.775523E+0	1.842207E+0	1.789184E+0	1.853450E+0	1.820396E+0	1.829458E+0	1.797010E+0	1.837355E+0	1.838823E+0	1.793574E+0	1.767285E+0	1.835571E+0	1.883723E+0	1.824377E+0	1.860663E+0	1.863717E+0	1.823793E+0	1.907754E+0	1.822869E+0	1.846862E+0	1.792387E+0	1.851411E+0	1.777691E+0	1.874053E+0	1.755751E+0	1.901721E+0	1.790868E+0	1.811351E+0	1.746411E+0	1.824364E+0	1.785279E+0	1.915033E+0	1.791984E+0	1.805495E+0
5.352550E+2	2.037965E+0	1.967255E+0	1.985103E+0	1.248733E+1	2.002121E+0	2.055215E+0	1.969025E+0	2.039266E+0	1.986378E+0	2.045042E+0	2.005892E+0	2.044554E+0	1.955719E+0	2.023402E+0	2.004363E+0	2.020384E+0	1.954437E+0	2.099801E+0	1.963663E+0	2.025325E+0	1.999520E+0	1.986053E+0	1.964039E+0	1.945947E+0	1.962401E+0	1.978584E+0	2.015529E+0	2.008595E+0	2.004145E+0	2.040020E+0	2.013925E+0	2.068225E+0	2.062183E+0	1.981890E+0	1.981576E+0	1.994396E+0	1.957764E+0	2.030870E+0	2.013592E+0	2.014988E+0	1.981350E+0	1.991668E+0	2.033552E+0	2.020012E+0	1.943742E+0	1.958617E+0	1.981104E+0	1.958917E+0	1.945117E+0	2.003572E+0	2.065026E+0	2.022848E+0	1.992850E+0	2.035373E+0	2.044278E+0	1.985533E+0	1.967267E+0	1.944600E+0	2.010052E+0	1.995931E+0	2.081834E+0	2.035927E+0	1.951356E+0	2.018672E+0	2.012843E+0	1.901826E+0	2.050958E+0	2.083769E+0	1.939880E+0	2.000568E+0	1.978174E+0	2.009928E+0	2.024414E+0	1.944019E+0	1.945226E+0	1.984560E+0	2.048484E+0	1.967540E+0	1.932867E+0	1.998764E+0	1.955282E+0	1.969197E+0	1.905582E+0	1.974443E+0	1.906157E+0	2.024453E+0	2.068281E+0	2.044280E+0	1.938753E+0	2.033556E+0	1.951606E+0	1.940645E+0	2.074168E+0	2.012453E+0	1.954901E+0	1.948148E+0	2.015684E+0	1.979501E+0	1.940843E+0	1.939757E+0	2.004968E+0	1.963597E+0	1.961312E+0	2.001905E+0	2.005793E+0	1.991509E+0	2.010148E+0	1.960648E+0	1.929353E+0	2.037092E+0	1.972786E+0	1.996189E+0	1.962385E+0	2.026436E+0	1.969268E+0	1.965183E+0	1.980333E+0	1.960852E+0	1.986105E+0	2.008119E+0	1.924453E+0	1.958732E+0	1.959764E+0	1.987682E+0	1.939979E+0	1.984593E+0	1.999731E+0	1.940067E+0	1.996396E+0	2.035789E+0	1.925642E+0	1.919338E+0	1.927731E+0	1.941441E+0	1.991507E+0	1.924889E+0	2.019402E+0	1.975145E+0	1.953388E+0	1.989060E+0	1.961628E+0	1.960335E+0	1.955498E+0	1.985742E+0	1.906056E+0	2.050254E+0	2.020516E+0	1.972917E+0	1.927938E+0	1.996210E+0	2.016994E+0	1.914963E+0	1.908365E+0	1.952322E+0	1.953880E+0	1.995925E+0	1.966808E+0	1.965796E+0	1.929832E+0	1.950549E+0	1.852461E+0	1.976957E+0	1.903886E+0	1.972124E+0	1.910660E+0	1.970319E+0	1.903913E+0	1.959711E+0	1.886348E+0	1.983648E+0	1.837070E+0	2.383376E+0
5.354110E+2	1.984168E+0	1.869269E+0	1.962444E+0	1.239780E+1	1.847072E+0	1.910156E+0	1.930820E+0	1.970086E+0	1.890064E+0	1.898945E+0	1.887690E+0	1.954229E+0	1.899626E+0	1.874017E+0	1.921019E+0	1.933853E+0	1.894273E+0	1.883089E+0	1.971559E+0	1.945941E+0	1.919996E+0	1.877430E+0	1.904446E+0	1.860125E+0	1.900478E+0	1.852014E+0	2.006407E+0	1.916286E+0	1.880006E+0	1.937936E+0	1.913298E+0	2.004450E+0	1.872257E+0	1.883933E+0	1.911442E+0	1.860681E+0	1.882663E+0	1.903944E+0	1.951437E+0	1.918684E+0	1.872307E+0	1.949818E+0	1.939502E+0	1.937634E+0	1.894707E+0	1.821024E+0	1.886101E+0	1.867687E+0	1.855115E+0	1.955006E+0	1.880630E+0	1.921699E+0	1.916854E+0	1.868095E+0	1.951299E+0	1.934201E+0	1.893551E+0	1.861465E+0	1.890859E+0	1.902688E+0	1.941930E+0	1.899433E+0	1.908164E+0	1.892095E+0	1.917414E+0	1.887921E+0	1.967452E+0	1.840186E+0	1.873630E+0	1.900010E+0	1.955330E+0	1.923771E+0	1.904912E+0	1.867327E+0	1.856235E+0	1.903898E+0	1.899530E+0	1.878978E+0	1.849252E+0	1.920145E+0	1.839268E+0	1.991953E+0	1.879170E+0	1.879597E+0	1.862419E+0	1.941694E+0	1.960076E+0	1.973093E+0	1.881612E+0	1.879430E+0	1.909107E+0	1.977605E+0	1.912788E+0	1.880190E+0	1.829030E+0	1.894820E+0	1.793920E+0	1.884981E+0	1.873690E+0	1.853758E+0	1.953244E+0	1.935686E+0	1.885530E+0	1.897807E+0	1.850111E+0	1.880610E+0	1.915623E+0	1.996036E+0	1.884226E+0	1.844736E+0	1.906192E+0	1.864521E+0	1.884799E+0	1.890294E+0	1.905221E+0	1.843883E+0	1.873608E+0	1.836692E+0	1.818620E+0	1.893078E+0	1.813452E+0	1.829199E+0	1.874000E+0	1.941926E+0	1.879788E+0	1.866777E+0	1.880944E+0	1.849759E+0	1.900100E+0	1.939433E+0	1.883450E+0	1.856009E+0	1.860793E+0	1.874923E+0	1.885786E+0	1.799251E+0	1.945510E+0	1.874599E+0	1.871927E+0	1.884701E+0	1.891402E+0	1.872643E+0	1.856097E+0	1.882456E+0	1.805509E+0	1.879818E+0	1.868555E+0	1.849488E+0	1.860738E+0	1.878941E+0	1.876210E+0	1.809552E+0	1.841577E+0	1.937575E+0	1.853809E+0	1.854756E+0	1.882840E+0	1.827977E+0	1.773230E+0	1.904386E+0	1.786138E+0	1.834229E+0	1.811844E+0	1.945373E+0	1.828695E+0	1.881739E+0	1.832746E+0	1.891449E+0	1.899364E+0	1.874703E+0	2.017176E+0	2.165980E+0
5.355580E+2	1.809196E+0	1.627757E+0	1.711504E+0	1.156161E+1	1.628249E+0	1.659147E+0	1.738141E+0	1.724385E+0	1.705323E+0	1.775598E+0	1.661630E+0	1.668198E+0	1.698871E+0	1.743310E+0	1.727512E+0	1.765059E+0	1.663147E+0	1.694635E+0	1.705794E+0	1.704093E+0	1.707135E+0	1.707363E+0	1.694852E+0	1.741054E+0	1.628278E+0	1.756419E+0	1.747714E+0	1.744358E+0	1.734071E+0	1.666595E+0	1.682226E+0	1.744612E+0	1.717231E+0	1.760505E+0	1.706629E+0	1.627177E+0	1.705485E+0	1.699082E+0	1.678643E+0	1.734141E+0	1.694082E+0	1.663672E+0	1.736108E+0	1.704462E+0	1.665768E+0	1.680220E+0	1.709557E+0	1.674351E+0	1.676406E+0	1.731329E+0	1.679724E+0	1.722239E+0	1.720968E+0	1.728012E+0	1.739210E+0	1.705289E+0	1.724517E+0	1.657702E+0	1.677694E+0	1.698704E+0	1.669601E+0	1.660492E+0	1.728533E+0	1.757106E+0	1.723323E+0	1.653339E+0	1.722965E+0	1.628352E+0	1.691663E+0	1.682599E+0	1.708800E+0	1.753386E+0	1.713340E+0	1.680194E+0	1.686401E+0	1.704631E+0	1.724100E+0	1.698779E+0	1.693755E+0	1.716329E+0	1.658647E+0	1.701101E+0	1.709191E+0	1.664795E+0	1.671988E+0	1.734916E+0	1.698171E+0	1.754090E+0	1.711928E+0	1.734572E+0	1.684702E+0	1.651088E+0	1.678716E+0	1.686179E+0	1.633656E+0	1.691052E+0	1.656099E+0	1.659167E+0	1.705715E+0	1.677841E+0	1.706713E+0	1.716674E+0	1.690252E+0	1.724088E+0	1.738520E+0	1.658192E+0	1.747223E+0	1.712539E+0	1.635115E+0	1.678018E+0	1.719848E+0	1.693666E+0	1.724243E+0	1.706332E+0	1.667006E+0	1.679020E+0	1.660836E+0	1.680660E+0	1.658334E+0	1.714203E+0	1.689027E+0	1.720406E+0	1.669163E+0	1.732347E+0	1.703486E+0	1.709429E+0	1.700937E+0	1.683159E+0	1.718138E+0	1.755291E+0	1.683425E+0	1.675158E+0	1.648829E+0	1.737200E+0	1.716421E+0	1.672806E+0	1.656639E+0	1.641063E+0	1.740456E+0	1.667559E+0	1.659298E+0	1.722440E+0	1.699065E+0	1.663655E+0	1.565134E+0	1.710523E+0	1.699621E+0	1.635762E+0	1.673551E+0	1.630089E+0	1.755827E+0	1.698156E+0	1.660277E+0	1.716704E+0	1.678771E+0	1.719978E+0	1.704440E+0	1.705806E+0	1.685947E+0	1.760366E+0	1.655840E+0	1.698472E+0	1.712501E+0	1.711453E+0	1.682293E+0	1.651012E+0	1.691884E+0	1.693311E+0	1.696649E+0	1.647080E+0	1.673460E+0	1.847769E+0
5.357090E+2	1.550336E+0	1.528637E+0	1.562091E+0	1.011758E+1	1.473885E+0	1.497526E+0	1.567170E+0	1.509778E+0	1.500174E+0	1.492274E+0	1.430343E+0	1.506116E+0	1.530545E+0	1.496896E+0	1.542771E+0	1.542148E+0	1.516030E+0	1.520163E+0	1.536229E+0	1.542559E+0	1.514709E+0	1.532863E+0	1.560220E+0	1.505953E+0	1.541904E+0	1.611825E+0	1.522261E+0	1.539062E+0	1.521505E+0	1.564657E+0	1.542985E+0	1.509252E+0	1.536840E+0	1.468259E+0	1.555840E+0	1.510677E+0	1.532840E+0	1.484161E+0	1.506979E+0	1.534001E+0	1.592842E+0	1.509301E+0	1.566335E+0	1.512594E+0	1.487451E+0	1.491645E+0	1.504881E+0	1.489021E+0	1.563578E+0	1.496071E+0	1.552367E+0	1.537798E+0	1.530198E+0	1.522476E+0	1.572825E+0	1.583196E+0	1.519185E+0	1.483663E+0	1.572407E+0	1.566076E+0	1.579802E+0	1.525212E+0	1.509546E+0	1.543256E+0	1.564561E+0	1.538269E+0	1.525412E+0	1.503169E+0	1.507234E+0	1.504011E+0	1.572553E+0	1.463854E+0	1.540847E+0	1.502760E+0	1.473725E+0	1.451814E+0	1.572434E+0	1.485867E+0	1.560614E+0	1.521337E+0	1.534417E+0	1.561179E+0	1.663100E+0	1.540996E+0	1.462280E+0	1.553155E+0	1.614884E+0	1.567582E+0	1.582755E+0	1.517430E+0	1.575079E+0	1.508761E+0	1.512153E+0	1.476988E+0	1.523953E+0	1.573628E+0	1.530614E+0	1.580535E+0	1.544732E+0	1.495257E+0	1.498088E+0	1.536565E+0	1.534494E+0	1.527977E+0	1.509243E+0	1.459376E+0	1.485575E+0	1.514499E+0	1.496738E+0	1.576587E+0	1.550712E+0	1.495715E+0	1.539893E+0	1.528049E+0	1.543953E+0	1.505186E+0	1.522271E+0	1.574275E+0	1.476977E+0	1.539651E+0	1.503248E+0	1.572832E+0	1.527374E+0	1.591801E+0	1.506744E+0	1.525388E+0	1.499535E+0	1.535897E+0	1.557096E+0	1.559218E+0	1.500507E+0	1.533544E+0	1.522684E+0	1.523581E+0	1.481397E+0	1.508421E+0	1.605173E+0	1.475503E+0	1.549778E+0	1.483357E+0	1.523690E+0	1.602729E+0	1.516121E+0	1.507402E+0	1.514076E+0	1.486329E+0	1.480813E+0	1.520268E+0	1.484537E+0	1.515404E+0	1.517501E+0	1.496819E+0	1.492609E+0	1.545803E+0	1.517786E+0	1.558404E+0	1.482299E+0	1.524963E+0	1.533999E+0	1.495062E+0	1.471379E+0	1.575533E+0	1.538508E+0	1.593182E+0	1.490156E+0	1.544359E+0	1.559140E+0	1.540103E+0	1.502569E+0	1.549106E+0	1.460540E+0	1.426256E+0
5.358550E+2	1.290662E+0	1.269799E+0	1.265974E+0	7.834760E+0	1.228780E+0	1.260944E+0	1.313596E+0	1.282862E+0	1.237501E+0	1.363537E+0	1.276104E+0	1.353532E+0	1.286707E+0	1.314756E+0	1.273062E+0	1.309458E+0	1.235932E+0	1.313549E+0	1.247568E+0	1.304877E+0	1.245981E+0	1.257322E+0	1.306635E+0	1.260921E+0	1.293453E+0	1.327017E+0	1.338400E+0	1.238230E+0	1.295526E+0	1.261311E+0	1.278696E+0	1.353896E+0	1.310074E+0	1.278739E+0	1.281033E+0	1.280342E+0	1.245276E+0	1.255777E+0	1.296038E+0	1.312909E+0	1.308824E+0	1.251447E+0	1.314175E+0	1.259133E+0	1.257404E+0	1.226900E+0	1.286107E+0	1.280232E+0	1.290234E+0	1.333617E+0	1.276212E+0	1.272478E+0	1.287503E+0	1.248719E+0	1.365456E+0	1.301743E+0	1.272055E+0	1.274974E+0	1.308579E+0	1.298731E+0	1.297683E+0	1.245190E+0	1.282327E+0	1.319428E+0	1.239531E+0	1.272354E+0	1.269201E+0	1.258380E+0	1.295786E+0	1.233901E+0	1.344954E+0	1.260865E+0	1.302145E+0	1.258543E+0	1.298773E+0	1.306252E+0	1.292100E+0	1.305720E+0	1.260947E+0	1.266448E+0	1.287231E+0	1.309338E+0	1.317442E+0	1.316430E+0	1.248853E+0	1.250614E+0	1.310166E+0	1.304914E+0	1.299411E+0	1.325338E+0	1.239603E+0	1.299249E+0	1.308897E+0	1.323665E+0	1.338595E+0	1.313517E+0	1.285935E+0	1.273731E+0	1.308054E+0	1.303779E+0	1.281202E+0	1.292948E+0	1.317924E+0	1.268942E+0	1.255949E+0	1.283704E+0	1.293433E+0	1.312083E+0	1.264497E+0	1.318041E+0	1.307131E+0	1.276595E+0	1.293346E+0	1.264766E+0	1.278500E+0	1.231909E+0	1.314056E+0	1.261632E+0	1.273354E+0	1.305047E+0	1.294015E+0	1.293158E+0	1.246816E+0	1.323616E+0	1.270850E+0	1.279934E+0	1.332116E+0	1.267736E+0	1.308631E+0	1.320073E+0	1.224841E+0	1.290585E+0	1.293725E+0	1.256328E+0	1.302447E+0	1.295482E+0	1.315792E+0	1.266927E+0	1.284752E+0	1.359596E+0	1.308716E+0	1.271930E+0	1.295299E+0	1.266701E+0	1.272293E+0	1.314888E+0	1.340267E+0	1.249673E+0	1.273696E+0	1.242842E+0	1.348031E+0	1.285474E+0	1.248510E+0	1.263647E+0	1.285441E+0	1.282188E+0	1.235128E+0	1.281777E+0	1.249054E+0	1.322204E+0	1.238264E+0	1.276661E+0	1.292391E+0	1.348261E+0	1.254295E+0	1.294349E+0	1.323855E+0	1.260205E+0	1.273232E+0	1.296071E+0	1.231053E+0	1.357717E+0
5.360120E+2	1.149313E+0	1.059841E+0	1.106666E+0	6.883168E+0	1.060973E+0	1.088468E+0	1.129104E+0	1.172833E+0	1.054113E+0	1.084456E+0	1.122213E+0	1.139016E+0	1.084758E+0	1.026245E+0	1.091186E+0	1.118836E+0	1.098219E+0	1.103692E+0	1.115086E+0	1.076845E+0	1.072150E+0	1.124994E+0	1.115701E+0	1.093246E+0	1.147715E+0	1.122110E+0	1.087977E+0	1.147550E+0	1.091503E+0	1.061549E+0	1.109772E+0	1.114751E+0	1.093375E+0	1.099409E+0	1.072877E+0	1.119842E+0	1.075126E+0	1.112249E+0	1.084371E+0	1.134191E+0	1.076213E+0	1.098405E+0	1.126018E+0	1.084530E+0	1.089704E+0	1.117210E+0	1.098814E+0	1.088647E+0	1.089602E+0	1.044321E+0	1.120571E+0	1.125930E+0	1.120236E+0	1.089887E+0	1.146029E+0	1.115563E+0	1.084811E+0	1.062455E+0	1.087744E+0	1.091734E+0	1.135051E+0	1.081078E+0	1.079847E+0	1.104612E+0	1.075416E+0	1.121072E+0	1.099281E+0	1.129640E+0	1.065666E+0	1.083623E+0	1.180798E+0	1.107979E+0	1.115825E+0	1.101559E+0	1.070515E+0	1.162346E+0	1.131013E+0	1.080935E+0	1.096798E+0	1.090236E+0	1.106117E+0	1.108419E+0	1.100618E+0	1.068440E+0	1.091651E+0	1.110182E+0	1.140081E+0	1.165394E+0	1.119125E+0	1.084514E+0	1.118612E+0	1.088842E+0	1.134632E+0	1.099052E+0	1.086787E+0	1.125266E+0	1.083606E+0	1.069036E+0	1.131366E+0	1.102162E+0	1.152665E+0	1.064671E+0	1.155454E+0	1.129741E+0	1.088862E+0	1.091851E+0	1.135009E+0	1.066200E+0	1.092989E+0	1.091389E+0	1.117249E+0	1.150466E+0	1.094377E+0	1.060193E+0	1.080629E+0	1.099407E+0	1.091538E+0	1.097271E+0	1.056123E+0	1.052739E+0	1.127339E+0	1.105497E+0	1.117052E+0	1.109354E+0	1.077207E+0	1.097214E+0	1.082635E+0	1.140390E+0	1.125338E+0	1.118646E+0	1.058556E+0	1.098783E+0	1.149602E+0	1.060699E+0	1.169572E+0	1.120591E+0	1.116092E+0	1.175032E+0	1.142530E+0	1.053759E+0	1.067534E+0	1.132176E+0	1.083799E+0	1.094405E+0	1.056968E+0	1.096658E+0	1.114573E+0	1.161827E+0	1.046091E+0	1.096536E+0	1.165178E+0	1.108271E+0	1.102327E+0	1.141721E+0	1.115003E+0	1.069690E+0	1.124937E+0	1.101227E+0	1.067695E+0	1.128606E+0	1.082467E+0	1.149334E+0	1.149549E+0	1.159117E+0	1.126785E+0	1.091420E+0	1.102265E+0	1.098911E+0	1.116940E+0	1.139653E+0	1.147535E+0	1.158064E+0
5.362630E+2	8.511925E-1	7.543006E-1	8.443338E-1	4.988773E+0	7.864355E-1	7.749978E-1	8.025324E-1	8.060518E-1	8.318506E-1	8.160154E-1	8.045793E-1	8.154474E-1	8.003455E-1	7.599215E-1	8.112564E-1	8.030464E-1	7.883476E-1	8.204488E-1	8.248942E-1	8.275698E-1	8.191802E-1	8.030227E-1	8.199431E-1	8.015857E-1	8.227108E-1	7.753409E-1	8.391745E-1	8.121254E-1	8.351392E-1	8.151925E-1	8.359852E-1	7.994935E-1	7.742004E-1	8.452961E-1	8.383984E-1	8.170582E-1	8.201753E-1	8.210452E-1	8.125350E-1	8.384426E-1	7.919093E-1	8.043841E-1	8.086750E-1	8.270449E-1	7.866302E-1	8.446956E-1	8.313965E-1	8.137076E-1	7.803106E-1	8.320159E-1	8.358416E-1	7.965566E-1	8.397461E-1	7.837357E-1	8.375161E-1	8.198067E-1	8.440971E-1	7.755367E-1	8.211838E-1	8.157375E-1	7.987220E-1	8.129984E-1	8.233105E-1	8.479934E-1	8.138015E-1	8.038007E-1	7.839908E-1	8.566368E-1	7.980880E-1	8.013207E-1	8.189136E-1	8.190518E-1	8.338652E-1	8.025011E-1	7.883164E-1	8.213465E-1	8.347540E-1	8.477879E-1	8.178471E-1	8.143860E-1	7.988293E-1	8.133611E-1	7.896697E-1	8.020775E-1	8.053565E-1	7.784369E-1	8.005595E-1	7.916650E-1	8.046403E-1	8.007972E-1	8.224906E-1	8.303761E-1	8.144409E-1	8.440309E-1	8.122875E-1	8.040087E-1	8.154296E-1	7.692082E-1	8.287944E-1	8.498869E-1	8.334532E-1	7.999299E-1	8.181927E-1	8.599888E-1	8.486178E-1	8.056945E-1	8.484297E-1	8.210513E-1	8.226999E-1	7.983723E-1	8.082170E-1	8.217761E-1	8.125699E-1	8.260016E-1	8.650822E-1	8.026998E-1	8.182429E-1	8.351399E-1	8.413931E-1	8.585933E-1	8.411343E-1	8.467651E-1	8.157666E-1	8.456017E-1	7.984191E-1	8.031757E-1	8.043605E-1	8.202469E-1	8.759759E-1	8.700066E-1	8.347893E-1	8.592408E-1	8.145104E-1	8.108209E-1	8.544378E-1	8.314376E-1	8.454475E-1	7.968505E-1	8.299975E-1	8.912229E-1	8.523460E-1	8.452365E-1	8.180353E-1	7.796800E-1	7.976515E-1	8.378816E-1	8.360868E-1	8.332141E-1	8.344062E-1	8.330712E-1	8.505713E-1	8.091715E-1	8.200294E-1	8.120235E-1	8.591596E-1	8.219662E-1	8.223722E-1	8.060834E-1	8.396463E-1	8.616246E-1	8.185697E-1	7.989428E-1	8.628089E-1	8.581400E-1	8.330709E-1	8.176315E-1	8.418331E-1	8.320899E-1	8.575829E-1	7.858172E-1	8.031015E-1	8.788057E-1
5.365090E+2	6.317856E-1	6.189391E-1	6.218694E-1	4.422125E+0	6.288210E-1	6.334425E-1	6.695924E-1	6.287007E-1	6.551518E-1	6.471855E-1	6.189232E-1	6.679595E-1	6.319415E-1	6.439038E-1	6.309969E-1	6.635574E-1	6.168777E-1	6.334165E-1	6.863372E-1	6.601080E-1	6.407495E-1	6.432321E-1	6.939847E-1	6.274127E-1	6.482997E-1	6.764989E-1	6.602566E-1	6.432497E-1	6.249879E-1	6.120974E-1	6.630455E-1	6.633889E-1	6.411558E-1	6.537057E-1	6.630004E-1	6.382164E-1	6.583361E-1	6.494303E-1	6.323983E-1	6.519614E-1	6.601014E-1	6.250531E-1	6.243140E-1	6.384030E-1	6.445691E-1	6.756266E-1	6.409236E-1	6.475997E-1	6.386197E-1	6.423045E-1	6.733892E-1	6.554547E-1	6.956901E-1	6.508787E-1	6.612068E-1	6.498141E-1	6.367518E-1	6.428741E-1	6.497802E-1	6.534674E-1	6.599069E-1	6.688122E-1	6.174353E-1	6.643071E-1	6.447828E-1	6.334358E-1	6.735320E-1	6.484907E-1	6.408360E-1	6.269851E-1	6.530763E-1	6.505925E-1	6.665463E-1	6.397655E-1	6.194748E-1	6.267801E-1	6.297775E-1	6.400738E-1	6.554028E-1	6.776679E-1	6.570757E-1	6.488534E-1	6.523720E-1	6.315793E-1	6.260562E-1	6.538969E-1	6.625226E-1	7.174150E-1	6.435748E-1	6.546295E-1	6.811701E-1	6.563919E-1	6.591808E-1	6.511134E-1	6.654448E-1	6.780820E-1	6.640005E-1	6.870310E-1	6.691046E-1	6.609618E-1	6.614808E-1	6.789711E-1	6.730438E-1	6.488974E-1	5.992368E-1	6.531744E-1	6.444806E-1	6.227476E-1	6.539353E-1	6.711247E-1	6.355616E-1	6.684735E-1	6.478461E-1	6.749920E-1	6.874458E-1	6.932067E-1	6.495753E-1	6.607802E-1	6.580153E-1	6.610926E-1	6.974429E-1	6.117177E-1	6.179582E-1	6.844274E-1	6.756231E-1	6.485163E-1	6.885376E-1	6.661275E-1	6.777309E-1	6.307594E-1	6.309915E-1	6.364197E-1	6.506166E-1	6.472255E-1	6.842640E-1	6.644822E-1	6.861380E-1	6.519745E-1	6.914924E-1	6.602977E-1	6.440043E-1	6.756399E-1	6.530055E-1	6.317888E-1	6.458180E-1	6.557725E-1	6.899320E-1	6.652219E-1	6.675967E-1	6.552864E-1	6.850575E-1	6.487793E-1	6.283652E-1	7.059273E-1	6.680766E-1	6.891978E-1	6.431648E-1	6.823734E-1	6.826996E-1	6.691575E-1	6.468179E-1	6.708871E-1	6.479416E-1	6.850741E-1	6.648119E-1	6.862898E-1	6.217363E-1	6.519639E-1	6.556098E-1	7.103704E-1	7.026575E-1	6.658057E-1
5.368080E+2	5.176308E-1	5.056080E-1	5.153183E-1	3.582627E+0	4.858372E-1	5.440570E-1	5.408655E-1	5.560411E-1	5.152452E-1	5.233784E-1	5.493138E-1	5.396926E-1	5.269709E-1	4.996694E-1	5.280384E-1	5.410105E-1	5.076178E-1	5.194802E-1	5.408495E-1	5.314020E-1	5.239016E-1	4.985902E-1	5.287217E-1	4.893857E-1	4.967418E-1	5.722298E-1	5.528268E-1	5.181129E-1	5.443719E-1	5.467890E-1	5.447002E-1	5.288135E-1	5.269574E-1	5.549319E-1	5.399196E-1	5.318071E-1	5.521697E-1	5.098040E-1	5.096528E-1	5.094198E-1	5.308065E-1	5.409349E-1	5.509922E-1	5.420584E-1	5.206045E-1	5.388568E-1	5.215805E-1	5.271839E-1	5.417786E-1	5.213796E-1	5.882148E-1	5.293726E-1	5.441355E-1	5.185019E-1	5.556061E-1	5.427481E-1	5.210854E-1	5.226582E-1	5.188711E-1	5.587568E-1	5.329583E-1	5.358396E-1	5.396218E-1	5.536677E-1	5.148879E-1	5.225838E-1	5.251482E-1	5.387085E-1	5.460297E-1	5.396434E-1	5.460226E-1	5.636232E-1	5.224607E-1	5.089901E-1	5.215204E-1	4.900684E-1	5.636207E-1	5.704131E-1	5.212607E-1	5.497464E-1	5.318789E-1	5.499903E-1	5.696307E-1	5.423028E-1	5.395192E-1	5.067025E-1	5.568832E-1	5.633956E-1	5.471431E-1	5.071550E-1	5.290246E-1	5.250716E-1	5.543316E-1	5.589808E-1	5.288992E-1	5.291182E-1	5.389527E-1	5.067608E-1	5.308393E-1	5.230736E-1	5.500199E-1	5.255368E-1	5.281308E-1	5.452793E-1	5.510596E-1	4.950473E-1	4.909407E-1	5.410641E-1	5.483967E-1	5.284960E-1	5.351622E-1	5.472454E-1	5.412275E-1	5.261966E-1	5.020239E-1	5.157106E-1	5.251519E-1	5.002666E-1	5.266334E-1	5.515861E-1	5.059947E-1	5.457839E-1	5.299395E-1	5.407803E-1	5.092732E-1	5.571901E-1	5.214155E-1	5.411532E-1	5.394587E-1	5.314310E-1	5.412521E-1	5.547517E-1	5.328758E-1	5.272364E-1	5.554669E-1	5.350313E-1	6.003241E-1	5.350046E-1	5.601532E-1	5.388508E-1	5.143532E-1	5.374523E-1	5.534237E-1	5.397846E-1	5.325712E-1	5.301906E-1	5.558442E-1	5.615225E-1	5.171119E-1	5.035307E-1	5.628182E-1	5.446234E-1	5.203322E-1	5.564693E-1	5.519672E-1	5.664184E-1	5.518260E-1	5.410624E-1	5.519281E-1	5.543540E-1	5.519634E-1	5.576091E-1	5.673059E-1	5.665102E-1	5.251801E-1	5.524936E-1	5.465744E-1	5.460518E-1	5.152442E-1	5.883564E-1	5.292554E-1	6.789095E-1
5.370010E+2	4.917186E-1	4.693033E-1	4.559679E-1	3.264055E+0	5.027032E-1	4.531216E-1	4.672951E-1	4.779999E-1	4.529958E-1	4.865394E-1	4.861466E-1	4.967636E-1	4.673533E-1	4.957484E-1	4.758590E-1	4.578871E-1	4.639131E-1	4.906483E-1	5.112617E-1	4.791254E-1	4.607616E-1	4.829461E-1	4.934231E-1	4.934317E-1	5.076776E-1	4.774117E-1	4.900579E-1	5.133463E-1	4.840032E-1	4.934124E-1	4.784669E-1	4.827012E-1	4.763158E-1	4.819908E-1	4.891993E-1	4.214780E-1	4.919197E-1	4.874790E-1	4.726806E-1	4.959037E-1	4.904781E-1	5.184128E-1	4.825906E-1	4.917753E-1	4.808522E-1	4.784687E-1	4.703040E-1	4.808954E-1	4.962848E-1	4.538195E-1	5.289415E-1	4.805480E-1	4.886982E-1	4.673352E-1	4.687384E-1	4.881337E-1	5.037765E-1	5.009946E-1	4.506768E-1	4.814537E-1	4.822237E-1	4.943568E-1	4.990932E-1	4.911372E-1	4.609291E-1	4.911392E-1	5.076086E-1	5.022064E-1	5.117351E-1	4.763657E-1	4.899211E-1	4.484175E-1	5.041376E-1	4.746570E-1	4.755977E-1	4.926883E-1	4.842627E-1	4.815493E-1	5.196908E-1	4.964468E-1	4.722341E-1	4.644688E-1	5.064206E-1	4.724687E-1	4.779255E-1	5.075118E-1	5.202952E-1	4.906075E-1	4.964322E-1	5.020033E-1	5.053630E-1	4.779637E-1	4.898386E-1	4.793894E-1	4.925987E-1	5.080950E-1	4.582031E-1	5.374390E-1	4.983798E-1	4.642922E-1	4.810938E-1	4.899433E-1	4.837893E-1	4.821654E-1	4.949445E-1	4.853852E-1	4.867777E-1	4.850638E-1	4.883612E-1	5.043663E-1	5.175959E-1	5.001175E-1	4.872880E-1	4.792056E-1	5.095514E-1	4.975129E-1	5.023060E-1	4.870041E-1	5.094996E-1	5.176500E-1	5.023502E-1	4.855255E-1	4.717853E-1	5.025667E-1	4.838687E-1	5.036405E-1	5.027448E-1	4.788760E-1	5.018423E-1	5.374171E-1	4.766441E-1	4.651341E-1	5.070058E-1	4.718136E-1	4.705701E-1	4.639866E-1	5.344249E-1	5.074749E-1	4.718535E-1	4.936253E-1	5.015385E-1	5.032507E-1	5.133439E-1	5.055744E-1	4.441834E-1	4.914486E-1	4.836548E-1	4.906537E-1	4.840682E-1	4.981914E-1	5.166539E-1	4.875273E-1	5.115282E-1	5.047762E-1	4.953511E-1	5.133315E-1	4.978893E-1	4.706662E-1	5.171142E-1	5.173794E-1	4.841785E-1	4.855771E-1	4.976044E-1	5.319842E-1	5.234709E-1	4.923078E-1	5.058247E-1	4.599711E-1	5.131598E-1	5.176542E-1	4.657295E-1	5.178915E-1
5.372640E+2	4.619851E-1	4.007880E-1	4.249173E-1	2.863127E+0	4.407429E-1	3.884654E-1	4.307224E-1	4.439099E-1	4.235652E-1	4.249503E-1	3.869284E-1	4.378086E-1	4.431623E-1	4.463687E-1	4.265905E-1	4.567889E-1	4.248072E-1	4.525720E-1	4.333182E-1	4.414089E-1	4.244800E-1	4.406987E-1	4.189946E-1	4.715686E-1	4.337859E-1	4.415427E-1	4.349909E-1	4.543622E-1	4.429721E-1	4.525286E-1	4.383261E-1	4.606300E-1	4.484095E-1	4.439748E-1	4.309340E-1	4.347236E-1	4.418778E-1	4.256381E-1	4.339698E-1	4.585935E-1	4.499447E-1	4.675720E-1	4.633469E-1	4.285634E-1	4.389292E-1	4.233771E-1	4.342199E-1	4.102669E-1	4.365033E-1	4.684134E-1	4.173483E-1	4.232855E-1	4.427223E-1	4.470689E-1	4.630802E-1	4.129935E-1	4.498151E-1	4.428578E-1	4.816390E-1	4.665857E-1	4.349689E-1	4.484364E-1	4.286451E-1	4.646957E-1	4.396815E-1	4.567249E-1	4.456563E-1	4.519149E-1	4.333260E-1	4.492887E-1	4.505588E-1	4.452597E-1	4.347712E-1	4.345613E-1	4.511171E-1	4.627601E-1	4.527687E-1	4.479508E-1	4.472585E-1	4.585323E-1	4.370941E-1	4.338761E-1	4.543529E-1	4.374828E-1	4.220315E-1	4.404398E-1	4.623955E-1	4.682151E-1	4.326706E-1	4.284309E-1	4.499083E-1	4.731678E-1	4.629636E-1	4.377030E-1	4.402184E-1	4.285240E-1	4.481518E-1	4.103309E-1	4.813365E-1	4.512477E-1	4.510168E-1	4.397174E-1	4.466079E-1	4.389596E-1	4.253361E-1	4.445004E-1	4.555009E-1	4.645248E-1	4.120781E-1	4.969664E-1	4.558053E-1	4.559962E-1	4.522607E-1	4.275399E-1	4.291344E-1	4.495050E-1	4.554318E-1	4.442225E-1	4.312953E-1	4.493013E-1	4.707852E-1	4.507376E-1	4.644156E-1	4.553711E-1	4.219325E-1	4.569447E-1	4.584313E-1	4.517045E-1	4.820436E-1	4.377634E-1	4.628675E-1	4.469094E-1	4.349673E-1	4.571273E-1	4.512671E-1	4.453977E-1	4.402295E-1	4.346568E-1	4.204232E-1	4.362845E-1	4.546353E-1	4.889015E-1	4.709215E-1	4.463803E-1	4.072610E-1	4.434905E-1	4.789586E-1	4.695263E-1	4.751654E-1	4.310744E-1	4.666881E-1	4.423674E-1	4.557658E-1	4.542299E-1	4.290729E-1	4.594505E-1	4.725119E-1	4.501305E-1	4.401436E-1	4.789480E-1	4.688596E-1	4.558825E-1	4.527263E-1	4.330075E-1	4.772630E-1	4.632142E-1	4.731685E-1	4.536427E-1	4.557979E-1	4.652591E-1	4.517032E-1	4.855509E-1
5.375110E+2	4.825088E-1	4.496586E-1	4.838970E-1	3.272374E+0	4.758622E-1	4.717889E-1	4.778829E-1	4.604154E-1	4.657142E-1	5.026119E-1	4.459745E-1	4.742892E-1	4.863514E-1	4.644651E-1	4.635771E-1	4.760838E-1	4.715427E-1	4.788565E-1	4.700849E-1	4.811214E-1	4.704007E-1	4.683069E-1	4.807113E-1	4.864006E-1	4.725668E-1	4.625359E-1	4.436994E-1	4.571039E-1	4.721819E-1	4.895684E-1	4.711076E-1	4.728032E-1	4.700972E-1	4.698667E-1	4.723030E-1	4.840900E-1	4.869107E-1	4.637837E-1	4.695628E-1	4.582510E-1	4.720674E-1	4.684053E-1	4.818004E-1	4.784057E-1	4.685048E-1	4.582050E-1	4.951478E-1	4.744207E-1	4.912029E-1	4.614987E-1	4.937691E-1	4.813933E-1	4.694080E-1	4.700984E-1	4.814539E-1	4.629832E-1	4.768575E-1	4.707862E-1	4.757060E-1	4.788341E-1	4.925912E-1	4.654481E-1	4.717018E-1	4.901605E-1	4.739679E-1	4.489397E-1	4.661398E-1	4.787159E-1	4.628184E-1	4.549582E-1	4.777643E-1	5.061154E-1	4.811174E-1	4.928768E-1	4.721925E-1	4.632006E-1	4.700698E-1	4.782937E-1	4.741980E-1	4.901201E-1	4.673180E-1	5.104454E-1	4.568685E-1	4.920119E-1	4.693021E-1	4.665503E-1	4.966901E-1	4.942395E-1	4.756845E-1	4.846584E-1	4.879603E-1	4.578095E-1	4.959846E-1	4.797072E-1	4.795324E-1	5.065915E-1	4.933459E-1	4.876356E-1	5.084847E-1	4.578045E-1	5.046592E-1	4.795403E-1	4.850733E-1	5.009026E-1	4.563003E-1	4.862435E-1	4.829866E-1	4.661924E-1	4.860344E-1	4.885635E-1	4.855743E-1	4.927350E-1	4.757901E-1	4.679509E-1	4.817351E-1	4.989297E-1	4.989755E-1	4.493985E-1	4.773932E-1	5.017899E-1	4.997138E-1	4.356085E-1	5.291385E-1	4.956747E-1	5.026637E-1	5.033670E-1	4.876409E-1	4.754694E-1	4.909989E-1	4.836974E-1	4.835297E-1	5.140373E-1	4.897473E-1	5.143415E-1	4.820526E-1	4.947536E-1	5.196448E-1	4.840842E-1	5.021661E-1	4.961598E-1	4.927717E-1	4.776557E-1	4.907977E-1	4.718152E-1	4.799664E-1	4.778373E-1	4.985371E-1	4.939761E-1	4.895939E-1	4.659528E-1	4.892580E-1	5.222001E-1	4.909738E-1	4.416018E-1	4.661722E-1	4.860390E-1	4.787351E-1	4.922035E-1	4.777239E-1	4.777102E-1	4.733661E-1	4.544069E-1	4.704893E-1	5.107542E-1	4.609234E-1	4.732103E-1	4.760623E-1	4.934426E-1	4.697617E-1	5.346171E-1	5.324191E-1	6.133993E-1
5.377630E+2	5.339384E-1	5.473414E-1	5.536346E-1	4.266198E+0	4.978330E-1	5.127891E-1	5.374665E-1	5.623775E-1	5.435426E-1	5.413771E-1	5.298166E-1	5.347887E-1	5.425573E-1	5.244224E-1	5.225835E-1	5.550627E-1	5.076683E-1	5.579524E-1	5.177310E-1	5.357019E-1	5.327571E-1	5.690832E-1	5.338681E-1	5.383761E-1	5.302137E-1	5.530207E-1	5.597056E-1	5.560596E-1	5.395960E-1	5.359581E-1	5.527720E-1	5.292486E-1	5.384332E-1	5.086768E-1	5.634662E-1	5.361261E-1	5.426309E-1	5.537444E-1	5.247146E-1	5.710703E-1	5.395800E-1	5.428610E-1	5.455474E-1	5.023964E-1	5.598163E-1	5.698419E-1	5.661387E-1	5.158661E-1	5.127924E-1	5.344772E-1	5.763470E-1	5.621601E-1	5.464195E-1	5.373969E-1	5.646659E-1	5.358390E-1	5.553300E-1	5.389036E-1	5.819349E-1	5.614072E-1	5.770940E-1	5.492633E-1	5.341163E-1	5.535335E-1	5.776642E-1	5.411200E-1	5.399207E-1	5.619662E-1	5.253853E-1	5.208664E-1	5.439742E-1	5.492641E-1	5.562659E-1	5.577861E-1	5.432272E-1	5.796624E-1	5.697968E-1	5.637378E-1	5.561918E-1	5.491630E-1	5.287806E-1	5.512032E-1	5.299100E-1	5.531591E-1	5.163832E-1	5.380775E-1	5.501917E-1	5.655081E-1	5.603231E-1	5.604187E-1	5.793848E-1	5.461772E-1	5.454323E-1	5.444127E-1	5.334356E-1	5.615464E-1	5.538468E-1	5.246138E-1	5.319461E-1	5.261693E-1	5.502374E-1	5.638699E-1	5.369617E-1	5.625300E-1	5.569669E-1	5.390793E-1	5.820367E-1	5.583286E-1	5.462264E-1	5.822290E-1	5.449404E-1	5.707713E-1	5.827441E-1	5.196931E-1	5.523166E-1	5.798011E-1	5.421669E-1	5.445857E-1	5.541785E-1	5.693538E-1	4.989482E-1	5.305487E-1	5.442154E-1	6.336608E-1	5.496732E-1	5.339965E-1	5.235716E-1	5.884424E-1	5.548048E-1	5.501474E-1	5.671218E-1	5.441051E-1	5.574509E-1	5.370109E-1	5.421017E-1	5.178912E-1	5.603787E-1	5.366744E-1	5.543322E-1	5.576515E-1	5.301366E-1	5.693960E-1	5.674930E-1	5.200955E-1	5.524109E-1	5.464855E-1	5.338021E-1	5.663989E-1	5.345136E-1	5.742363E-1	5.687201E-1	5.735640E-1	5.437870E-1	5.509360E-1	5.930002E-1	5.423649E-1	5.699029E-1	5.411383E-1	5.786334E-1	5.703645E-1	5.404093E-1	5.283171E-1	5.607591E-1	5.634325E-1	5.419823E-1	5.787718E-1	5.338891E-1	5.669004E-1	5.305025E-1	5.594063E-1	5.261890E-1	7.130718E-1
5.380160E+2	7.009799E-1	6.510471E-1	6.452155E-1	4.989411E+0	6.496343E-1	6.949734E-1	6.694709E-1	6.797502E-1	6.158598E-1	6.718810E-1	6.145984E-1	6.704922E-1	6.654419E-1	6.581555E-1	6.535022E-1	6.544959E-1	6.413320E-1	6.649709E-1	6.716621E-1	6.777737E-1	6.547848E-1	6.889417E-1	6.611282E-1	6.710537E-1	6.561173E-1	6.745630E-1	6.855929E-1	6.912545E-1	6.934822E-1	6.715912E-1	7.080592E-1	7.030037E-1	7.076922E-1	6.289426E-1	6.834827E-1	6.846279E-1	6.826883E-1	6.771420E-1	6.563466E-1	7.041566E-1	7.351699E-1	6.564315E-1	6.620616E-1	6.545090E-1	6.638062E-1	6.442092E-1	6.543224E-1	6.675466E-1	6.979334E-1	6.646141E-1	6.830688E-1	6.941594E-1	6.657753E-1	6.882945E-1	6.391646E-1	6.817766E-1	6.721259E-1	6.630103E-1	6.528090E-1	6.832842E-1	6.714032E-1	6.880405E-1	6.904724E-1	6.600497E-1	7.133642E-1	6.868112E-1	7.143878E-1	6.858433E-1	6.560720E-1	6.530884E-1	6.903651E-1	6.764273E-1	6.635937E-1	6.718193E-1	6.937665E-1	6.769641E-1	6.748219E-1	6.790975E-1	6.658090E-1	6.822938E-1	6.670700E-1	7.089396E-1	6.848708E-1	6.998481E-1	6.443453E-1	6.817999E-1	6.582101E-1	7.149037E-1	7.350964E-1	6.757233E-1	6.471186E-1	6.910860E-1	6.692997E-1	6.861165E-1	6.941978E-1	6.972843E-1	6.235252E-1	6.893435E-1	7.028966E-1	6.488177E-1	6.704371E-1	7.057959E-1	6.785200E-1	6.832125E-1	6.606945E-1	6.444179E-1	6.704381E-1	6.885242E-1	6.806830E-1	7.043528E-1	6.951711E-1	6.892211E-1	6.827994E-1	6.949721E-1	6.891124E-1	6.408197E-1	6.680236E-1	6.696716E-1	6.695450E-1	6.958002E-1	6.728974E-1	6.648494E-1	7.095746E-1	6.483479E-1	6.861864E-1	6.855981E-1	6.743527E-1	6.700754E-1	6.994408E-1	6.929184E-1	6.583955E-1	6.867593E-1	6.791629E-1	6.689841E-1	6.879909E-1	6.885232E-1	6.905709E-1	6.786371E-1	6.672023E-1	6.953864E-1	6.755333E-1	7.040547E-1	6.782296E-1	6.750827E-1	6.518743E-1	6.897384E-1	6.377539E-1	6.883061E-1	6.858511E-1	6.631056E-1	6.876119E-1	7.081221E-1	6.725947E-1	6.622128E-1	6.807907E-1	7.237780E-1	6.572559E-1	7.000977E-1	6.683639E-1	7.139173E-1	6.754971E-1	7.026213E-1	6.853321E-1	7.559039E-1	6.580688E-1	6.982103E-1	6.796482E-1	6.868301E-1	6.553459E-1	7.223336E-1	6.620362E-1	7.393347E-1
5.382690E+2	8.484930E-1	8.207713E-1	7.993734E-1	5.369793E+0	8.175845E-1	8.228971E-1	8.439055E-1	8.894237E-1	8.122825E-1	8.519498E-1	8.157204E-1	7.967717E-1	8.221530E-1	8.117653E-1	8.069942E-1	8.466783E-1	8.390237E-1	8.479118E-1	8.801987E-1	8.575289E-1	8.266831E-1	7.913799E-1	8.308638E-1	8.274310E-1	8.443606E-1	7.882089E-1	8.456054E-1	8.336181E-1	8.201042E-1	8.460355E-1	8.277425E-1	8.681785E-1	8.633674E-1	8.196120E-1	8.305552E-1	8.056976E-1	7.886462E-1	8.210645E-1	7.923725E-1	8.675227E-1	8.379338E-1	8.646822E-1	8.302975E-1	8.092205E-1	8.179766E-1	7.996586E-1	8.594173E-1	8.423234E-1	8.103097E-1	8.237732E-1	8.382079E-1	8.587153E-1	8.547613E-1	7.970095E-1	8.287206E-1	8.270250E-1	8.362466E-1	8.337151E-1	8.017947E-1	7.991029E-1	8.101702E-1	8.330243E-1	8.035962E-1	8.782665E-1	8.446185E-1	8.154328E-1	8.233923E-1	8.408571E-1	8.138186E-1	8.519882E-1	8.401698E-1	8.852804E-1	8.335308E-1	8.460995E-1	8.016563E-1	8.517151E-1	8.776994E-1	8.085948E-1	8.139378E-1	8.035415E-1	8.396264E-1	7.934315E-1	8.650189E-1	8.439201E-1	8.163935E-1	8.518996E-1	8.531360E-1	8.865635E-1	8.386991E-1	8.311710E-1	8.392121E-1	8.597347E-1	8.261647E-1	8.367854E-1	8.281777E-1	8.472777E-1	8.372260E-1	8.302986E-1	8.620223E-1	8.267455E-1	8.667789E-1	8.215922E-1	8.252667E-1	8.593585E-1	8.261436E-1	8.404829E-1	8.307898E-1	8.444624E-1	8.580614E-1	8.841593E-1	8.597591E-1	8.767921E-1	8.284563E-1	8.240220E-1	8.130250E-1	8.430179E-1	8.628413E-1	8.145172E-1	8.069986E-1	8.189482E-1	8.287800E-1	8.663026E-1	8.408288E-1	8.740409E-1	8.587645E-1	8.724296E-1	8.357708E-1	8.772280E-1	9.016371E-1	8.283477E-1	8.208066E-1	8.489096E-1	8.437000E-1	8.487885E-1	7.785896E-1	8.339905E-1	8.925348E-1	8.130235E-1	8.173646E-1	8.584320E-1	8.613852E-1	8.393319E-1	8.911669E-1	8.159382E-1	8.419700E-1	8.333983E-1	8.506893E-1	7.908689E-1	8.242723E-1	7.927430E-1	8.703801E-1	8.201463E-1	8.058209E-1	8.192301E-1	8.623773E-1	8.750515E-1	8.391245E-1	8.381627E-1	8.433176E-1	8.604140E-1	8.266964E-1	8.177399E-1	8.402902E-1	8.411883E-1	8.671922E-1	8.585875E-1	8.432466E-1	8.449052E-1	8.870523E-1	8.516270E-1	8.243832E-1	9.160989E-1
5.385110E+2	1.023225E+0	9.697350E-1	1.061317E+0	6.951668E+0	1.044071E+0	1.020619E+0	9.924334E-1	1.094932E+0	1.001933E+0	1.027059E+0	1.014977E+0	1.073845E+0	1.005446E+0	1.029711E+0	1.063429E+0	1.045602E+0	1.040935E+0	1.015825E+0	1.041953E+0	1.063642E+0	1.038128E+0	9.963674E-1	1.019745E+0	1.032584E+0	1.068277E+0	1.066286E+0	1.038799E+0	1.058798E+0	1.054711E+0	1.046357E+0	1.047792E+0	1.069305E+0	1.029671E+0	1.051167E+0	1.054627E+0	1.037015E+0	1.059907E+0	1.024626E+0	1.023585E+0	1.055475E+0	1.044453E+0	1.093648E+0	1.067646E+0	1.028977E+0	1.019217E+0	1.028679E+0	1.051346E+0	1.044370E+0	1.036019E+0	1.067681E+0	1.039561E+0	1.048484E+0	1.037957E+0	1.011547E+0	1.026870E+0	1.077234E+0	1.101979E+0	1.007312E+0	1.053662E+0	1.072636E+0	1.052720E+0	9.957409E-1	1.044683E+0	1.030867E+0	1.031386E+0	1.019613E+0	1.041164E+0	1.028253E+0	1.000586E+0	1.003420E+0	1.028049E+0	1.062172E+0	1.028902E+0	9.987820E-1	1.037395E+0	1.004351E+0	1.020985E+0	1.050566E+0	1.038578E+0	1.054673E+0	1.052403E+0	1.043880E+0	1.037686E+0	1.040901E+0	1.034599E+0	1.017916E+0	1.003157E+0	1.082404E+0	1.026162E+0	1.024850E+0	1.082998E+0	1.043629E+0	1.041417E+0	1.025086E+0	9.879122E-1	1.053572E+0	1.079457E+0	1.048698E+0	1.031752E+0	1.031781E+0	1.071667E+0	1.029765E+0	1.042396E+0	1.033600E+0	1.029657E+0	1.019837E+0	1.070934E+0	1.017659E+0	1.034761E+0	1.078446E+0	1.066435E+0	1.058428E+0	1.053518E+0	1.048581E+0	1.015345E+0	1.041615E+0	1.061012E+0	1.077766E+0	1.046077E+0	1.065649E+0	1.076489E+0	1.009467E+0	1.011130E+0	1.038183E+0	1.069554E+0	1.101706E+0	1.048993E+0	1.068864E+0	1.063629E+0	1.032901E+0	1.005384E+0	1.042018E+0	1.053214E+0	9.687664E-1	1.008281E+0	1.041405E+0	1.098308E+0	1.067135E+0	1.001870E+0	1.090272E+0	1.065519E+0	1.057822E+0	1.072794E+0	1.034517E+0	1.031715E+0	1.006222E+0	1.085488E+0	1.054477E+0	1.051123E+0	9.821640E-1	1.049306E+0	1.044834E+0	1.027764E+0	1.010852E+0	1.082657E+0	1.042023E+0	1.052629E+0	1.035277E+0	1.074293E+0	1.079451E+0	1.006061E+0	1.069663E+0	1.049550E+0	1.053495E+0	1.035168E+0	1.016304E+0	1.026942E+0	1.018534E+0	1.106506E+0	1.030565E+0	1.030950E+0	1.290967E+0
5.387650E+2	1.248937E+0	1.215880E+0	1.172835E+0	8.907925E+0	1.212243E+0	1.258805E+0	1.232436E+0	1.222777E+0	1.236430E+0	1.291335E+0	1.203464E+0	1.185966E+0	1.222828E+0	1.220906E+0	1.226493E+0	1.253892E+0	1.254789E+0	1.248142E+0	1.223519E+0	1.274802E+0	1.213427E+0	1.180888E+0	1.185303E+0	1.269186E+0	1.229047E+0	1.249735E+0	1.244004E+0	1.284280E+0	1.232909E+0	1.240331E+0	1.275210E+0	1.239228E+0	1.278074E+0	1.207974E+0	1.178246E+0	1.210104E+0	1.258092E+0	1.212122E+0	1.223824E+0	1.295765E+0	1.199645E+0	1.236605E+0	1.237282E+0	1.196642E+0	1.201952E+0	1.194878E+0	1.216952E+0	1.174587E+0	1.283769E+0	1.188412E+0	1.268865E+0	1.301029E+0	1.226146E+0	1.195359E+0	1.214501E+0	1.234514E+0	1.220629E+0	1.172259E+0	1.224302E+0	1.254411E+0	1.268224E+0	1.196537E+0	1.220334E+0	1.199817E+0	1.257040E+0	1.173447E+0	1.210754E+0	1.229566E+0	1.214427E+0	1.250968E+0	1.205936E+0	1.251754E+0	1.305227E+0	1.218379E+0	1.167892E+0	1.234168E+0	1.270330E+0	1.247978E+0	1.229655E+0	1.241015E+0	1.196209E+0	1.248782E+0	1.228089E+0	1.263865E+0	1.226303E+0	1.206318E+0	1.210982E+0	1.270717E+0	1.250888E+0	1.241267E+0	1.239228E+0	1.223104E+0	1.224269E+0	1.240522E+0	1.231031E+0	1.232852E+0	1.236992E+0	1.198014E+0	1.292662E+0	1.206518E+0	1.217432E+0	1.219619E+0	1.249556E+0	1.220318E+0	1.195224E+0	1.195915E+0	1.238120E+0	1.236929E+0	1.248657E+0	1.242610E+0	1.209790E+0	1.199108E+0	1.179146E+0	1.195234E+0	1.213144E+0	1.256286E+0	1.201673E+0	1.206140E+0	1.244955E+0	1.238198E+0	1.234963E+0	1.167699E+0	1.220065E+0	1.211724E+0	1.251006E+0	1.210467E+0	1.262483E+0	1.231079E+0	1.240954E+0	1.211890E+0	1.223489E+0	1.234115E+0	1.196903E+0	1.237288E+0	1.210141E+0	1.265913E+0	1.234110E+0	1.221686E+0	1.252860E+0	1.288944E+0	1.186566E+0	1.243252E+0	1.232084E+0	1.231508E+0	1.210281E+0	1.199301E+0	1.210472E+0	1.241875E+0	1.221379E+0	1.209681E+0	1.244861E+0	1.261111E+0	1.235136E+0	1.264294E+0	1.241094E+0	1.216972E+0	1.240424E+0	1.202433E+0	1.219464E+0	1.276581E+0	1.200821E+0	1.237701E+0	1.164484E+0	1.263397E+0	1.191596E+0	1.243151E+0	1.200836E+0	1.235204E+0	1.260985E+0	1.324368E+0	1.234575E+0	1.381851E+0
5.390340E+2	1.410826E+0	1.308065E+0	1.347001E+0	6.340829E+0	1.339343E+0	1.387586E+0	1.339210E+0	1.416195E+0	1.311833E+0	1.411181E+0	1.395253E+0	1.411908E+0	1.372916E+0	1.399587E+0	1.384444E+0	1.398560E+0	1.379717E+0	1.404746E+0	1.370217E+0	1.419090E+0	1.381280E+0	1.389832E+0	1.378327E+0	1.450602E+0	1.379330E+0	1.417027E+0	1.386419E+0	1.458204E+0	1.407285E+0	1.445026E+0	1.403664E+0	1.420694E+0	1.350890E+0	1.426827E+0	1.416010E+0	1.304850E+0	1.389915E+0	1.353542E+0	1.422282E+0	1.417820E+0	1.377671E+0	1.395648E+0	1.416499E+0	1.421852E+0	1.377591E+0	1.368669E+0	1.425868E+0	1.371373E+0	1.409327E+0	1.404757E+0	1.410147E+0	1.382597E+0	1.408645E+0	1.416941E+0	1.390384E+0	1.398585E+0	1.363779E+0	1.393596E+0	1.324055E+0	1.411296E+0	1.396196E+0	1.408891E+0	1.396039E+0	1.395101E+0	1.391577E+0	1.327417E+0	1.368774E+0	1.367609E+0	1.370855E+0	1.401107E+0	1.338082E+0	1.438134E+0	1.449675E+0	1.370352E+0	1.371176E+0	1.411364E+0	1.420626E+0	1.390114E+0	1.462303E+0	1.395545E+0	1.426544E+0	1.376721E+0	1.427517E+0	1.335407E+0	1.378482E+0	1.359630E+0	1.427242E+0	1.420275E+0	1.416128E+0	1.387074E+0	1.340844E+0	1.451363E+0	1.371770E+0	1.341950E+0	1.376341E+0	1.427141E+0	1.424430E+0	1.371685E+0	1.365770E+0	1.378489E+0	1.375706E+0	1.386207E+0	1.374922E+0	1.416463E+0	1.428037E+0	1.330009E+0	1.390129E+0	1.453024E+0	1.368416E+0	1.390787E+0	1.393827E+0	1.377633E+0	1.374639E+0	1.404700E+0	1.345459E+0	1.366998E+0	1.370450E+0	1.375794E+0	1.346311E+0	1.405674E+0	1.368707E+0	1.356332E+0	1.354409E+0	1.420494E+0	1.426998E+0	1.410283E+0	1.409354E+0	1.368053E+0	1.373874E+0	1.355863E+0	1.331190E+0	1.420919E+0	1.376780E+0	1.374422E+0	1.404152E+0	1.337364E+0	1.389861E+0	1.349018E+0	1.409855E+0	1.386976E+0	1.352570E+0	1.360864E+0	1.399015E+0	1.370828E+0	1.339885E+0	1.417501E+0	1.405336E+0	1.387646E+0	1.371194E+0	1.311173E+0	1.382265E+0	1.374500E+0	1.357343E+0	1.378976E+0	1.379313E+0	1.406985E+0	1.377787E+0	1.372739E+0	1.351916E+0	1.401067E+0	1.334307E+0	1.322991E+0	1.435519E+0	1.376252E+0	1.360615E+0	1.338302E+0	1.365970E+0	1.418331E+0	1.363404E+0	1.342001E+0	1.339702E+0	1.498518E+0
5.392780E+2	1.667554E+0	1.590235E+0	1.514654E+0	6.632847E+0	1.597171E+0	1.587294E+0	1.571461E+0	1.599426E+0	1.590140E+0	1.664991E+0	1.583815E+0	1.622949E+0	1.607727E+0	1.575080E+0	1.538995E+0	1.618889E+0	1.614025E+0	1.619213E+0	1.589889E+0	1.651235E+0	1.627725E+0	1.577102E+0	1.621649E+0	1.559595E+0	1.627343E+0	1.637685E+0	1.650589E+0	1.654374E+0	1.619016E+0	1.642734E+0	1.605017E+0	1.650704E+0	1.653773E+0	1.662915E+0	1.646429E+0	1.519955E+0	1.585294E+0	1.560755E+0	1.536107E+0	1.662320E+0	1.589687E+0	1.600112E+0	1.664858E+0	1.546280E+0	1.605601E+0	1.531575E+0	1.600783E+0	1.604565E+0	1.595209E+0	1.590501E+0	1.589278E+0	1.665289E+0	1.660690E+0	1.580657E+0	1.618480E+0	1.632045E+0	1.650552E+0	1.556905E+0	1.601188E+0	1.647169E+0	1.641248E+0	1.633163E+0	1.625009E+0	1.659649E+0	1.616866E+0	1.563132E+0	1.638668E+0	1.643487E+0	1.621358E+0	1.508765E+0	1.584013E+0	1.659824E+0	1.615839E+0	1.573684E+0	1.587473E+0	1.611658E+0	1.619096E+0	1.637692E+0	1.564681E+0	1.633151E+0	1.610262E+0	1.569282E+0	1.602345E+0	1.582811E+0	1.561464E+0	1.547047E+0	1.616076E+0	1.620638E+0	1.631990E+0	1.557662E+0	1.622853E+0	1.612500E+0	1.545091E+0	1.567695E+0	1.563960E+0	1.649907E+0	1.576821E+0	1.547392E+0	1.614865E+0	1.586084E+0	1.632773E+0	1.590918E+0	1.565865E+0	1.634355E+0	1.671582E+0	1.560356E+0	1.582233E+0	1.588404E+0	1.600819E+0	1.583473E+0	1.612526E+0	1.602883E+0	1.575914E+0	1.619516E+0	1.596288E+0	1.557216E+0	1.583793E+0	1.564679E+0	1.561650E+0	1.664519E+0	1.669201E+0	1.551143E+0	1.613219E+0	1.653219E+0	1.607073E+0	1.600586E+0	1.649513E+0	1.586119E+0	1.706924E+0	1.580665E+0	1.574271E+0	1.559832E+0	1.591231E+0	1.603437E+0	1.647244E+0	1.595515E+0	1.631113E+0	1.558463E+0	1.626819E+0	1.577801E+0	1.583287E+0	1.615815E+0	1.573524E+0	1.593270E+0	1.535637E+0	1.592131E+0	1.594827E+0	1.620318E+0	1.591700E+0	1.553144E+0	1.617115E+0	1.624691E+0	1.572291E+0	1.559659E+0	1.613793E+0	1.672532E+0	1.576101E+0	1.598748E+0	1.534002E+0	1.578058E+0	1.540376E+0	1.567142E+0	1.523970E+0	1.663302E+0	1.621120E+0	1.514365E+0	1.571104E+0	1.573328E+0	1.651976E+0	1.588479E+0	1.577069E+0	1.577554E+0
5.395160E+2	1.909161E+0	1.799501E+0	1.892418E+0	4.587791E+0	1.841894E+0	1.827007E+0	1.843008E+0	1.827454E+0	1.877992E+0	1.915075E+0	1.791703E+0	1.909699E+0	1.805178E+0	1.883696E+0	1.881839E+0	1.939647E+0	1.855647E+0	1.892666E+0	1.848252E+0	1.914483E+0	1.877353E+0	1.868439E+0	1.860285E+0	1.912992E+0	1.900736E+0	1.884293E+0	1.956819E+0	1.887722E+0	1.859439E+0	1.881170E+0	1.870046E+0	1.902875E+0	1.937966E+0	1.864207E+0	1.849220E+0	1.812851E+0	1.883490E+0	1.873714E+0	1.845253E+0	1.833071E+0	1.856175E+0	1.828331E+0	1.907430E+0	1.801572E+0	1.890368E+0	1.776209E+0	1.830206E+0	1.838360E+0	1.912211E+0	1.850395E+0	1.961965E+0	1.875392E+0	1.921469E+0	1.846089E+0	1.829480E+0	1.847222E+0	1.857311E+0	1.843317E+0	1.882801E+0	1.806924E+0	1.933916E+0	1.844341E+0	1.868176E+0	1.899917E+0	1.828228E+0	1.837271E+0	1.859358E+0	1.833790E+0	1.911288E+0	1.793979E+0	1.878481E+0	1.804888E+0	1.881981E+0	1.837188E+0	1.863465E+0	1.853328E+0	1.896840E+0	1.902290E+0	1.866994E+0	1.845013E+0	1.836442E+0	1.876125E+0	1.817644E+0	1.851148E+0	1.847936E+0	1.840934E+0	1.837877E+0	1.881530E+0	1.871458E+0	1.859821E+0	1.870183E+0	1.901643E+0	1.879618E+0	1.854352E+0	1.835994E+0	1.878873E+0	1.846387E+0	1.851327E+0	1.871608E+0	1.849207E+0	1.855384E+0	1.809870E+0	1.830528E+0	1.881649E+0	1.851398E+0	1.782641E+0	1.904757E+0	1.869296E+0	1.805151E+0	1.851462E+0	1.850385E+0	1.873388E+0	1.805142E+0	1.835792E+0	1.877555E+0	1.879050E+0	1.867752E+0	1.854249E+0	1.829475E+0	1.887977E+0	1.799298E+0	1.776789E+0	1.815839E+0	1.887760E+0	1.798649E+0	1.820911E+0	1.835803E+0	1.784908E+0	1.886956E+0	1.833077E+0	1.843989E+0	1.832090E+0	1.826222E+0	1.815890E+0	1.827662E+0	1.760047E+0	1.833149E+0	1.861643E+0	1.834064E+0	1.913865E+0	1.821931E+0	1.864167E+0	1.863285E+0	1.812870E+0	1.797075E+0	1.920148E+0	1.858039E+0	1.792145E+0	1.847922E+0	1.699103E+0	1.800438E+0	1.837372E+0	1.813659E+0	1.758480E+0	1.822452E+0	1.850835E+0	1.837827E+0	1.850930E+0	1.800002E+0	1.805943E+0	1.838085E+0	1.742117E+0	1.891856E+0	1.917831E+0	1.817365E+0	1.838324E+0	1.823366E+0	1.855304E+0	1.869946E+0	1.816942E+0	1.828853E+0	2.069463E+0
5.397910E+2	2.059940E+0	1.879546E+0	2.014071E+0	3.230085E+0	1.969519E+0	1.912838E+0	1.903736E+0	1.990896E+0	1.944359E+0	2.065152E+0	1.943465E+0	2.055633E+0	2.032563E+0	2.034195E+0	2.009314E+0	2.022687E+0	2.001038E+0	2.020740E+0	2.025161E+0	2.052143E+0	2.014811E+0	1.999520E+0	1.974387E+0	1.965398E+0	1.993582E+0	1.967376E+0	1.950150E+0	1.986057E+0	1.988845E+0	2.000228E+0	1.950920E+0	2.000994E+0	2.004842E+0	1.950491E+0	1.976910E+0	1.949586E+0	1.971709E+0	2.008880E+0	1.959660E+0	2.001768E+0	2.048039E+0	1.963424E+0	2.061142E+0	1.958883E+0	1.947278E+0	1.874007E+0	1.992357E+0	1.935442E+0	1.960161E+0	2.001736E+0	1.958188E+0	1.982643E+0	1.994211E+0	1.979596E+0	2.027987E+0	1.993957E+0	2.032966E+0	2.009936E+0	2.051244E+0	2.054386E+0	2.031957E+0	1.889746E+0	1.999882E+0	2.000333E+0	1.999380E+0	1.960320E+0	1.987914E+0	1.916686E+0	1.991190E+0	1.935187E+0	1.972596E+0	1.985227E+0	2.071442E+0	2.001463E+0	1.919294E+0	1.936770E+0	2.044139E+0	1.918414E+0	2.017612E+0	2.060951E+0	2.013619E+0	1.987806E+0	1.927837E+0	1.992660E+0	1.977595E+0	2.014458E+0	1.931242E+0	1.974056E+0	1.985777E+0	2.000410E+0	1.967400E+0	1.971597E+0	2.004755E+0	1.993845E+0	1.983873E+0	2.008003E+0	1.960957E+0	1.960506E+0	1.908066E+0	1.920148E+0	1.960992E+0	1.990168E+0	1.920690E+0	1.970371E+0	2.058793E+0	1.883347E+0	1.978681E+0	1.884940E+0	1.987888E+0	2.046739E+0	1.995053E+0	1.946120E+0	1.941489E+0	1.952443E+0	1.903740E+0	1.919229E+0	1.934680E+0	1.899170E+0	1.885716E+0	1.978486E+0	1.978964E+0	1.931216E+0	1.968663E+0	2.004326E+0	1.944925E+0	1.943143E+0	1.963403E+0	1.949457E+0	1.990489E+0	1.958087E+0	1.903916E+0	1.963140E+0	1.988097E+0	1.934695E+0	1.915344E+0	1.922566E+0	1.983608E+0	1.929154E+0	1.962799E+0	1.932282E+0	1.959593E+0	2.012001E+0	2.005129E+0	1.941886E+0	1.967285E+0	1.882801E+0	1.895057E+0	1.891472E+0	1.964890E+0	1.890681E+0	1.890691E+0	2.006416E+0	1.891599E+0	1.954279E+0	1.916761E+0	1.994532E+0	1.975625E+0	1.944880E+0	1.932413E+0	1.979903E+0	1.907850E+0	1.915276E+0	1.926362E+0	2.004305E+0	1.938828E+0	1.895135E+0	1.887732E+0	1.912810E+0	1.954414E+0	2.000938E+0	1.851989E+0	1.940959E+0
5.400350E+2	2.141065E+0	1.935602E+0	2.062676E+0	3.377585E+0	2.004294E+0	2.003206E+0	2.019678E+0	2.024769E+0	2.022234E+0	2.038303E+0	2.030400E+0	2.030063E+0	1.987210E+0	2.012838E+0	2.002221E+0	2.112803E+0	1.983291E+0	1.999135E+0	2.040350E+0	2.088709E+0	2.029402E+0	2.007813E+0	2.009364E+0	2.018892E+0	2.093142E+0	2.086704E+0	2.051278E+0	2.032687E+0	2.022447E+0	1.975266E+0	1.910784E+0	2.073070E+0	2.005112E+0	2.058256E+0	2.016708E+0	2.001682E+0	2.022802E+0	2.034622E+0	2.028705E+0	2.031693E+0	2.058635E+0	2.050970E+0	2.066929E+0	2.003608E+0	1.971912E+0	1.951217E+0	2.006612E+0	2.003567E+0	2.046318E+0	2.040585E+0	2.016672E+0	2.036709E+0	1.996353E+0	1.964597E+0	2.093218E+0	2.005757E+0	2.097337E+0	1.987659E+0	1.969728E+0	1.993889E+0	2.099779E+0	2.024012E+0	2.008438E+0	2.037174E+0	1.996478E+0	1.988169E+0	2.032648E+0	2.066698E+0	2.043858E+0	1.968651E+0	2.027531E+0	2.029242E+0	2.101455E+0	1.981671E+0	1.984488E+0	2.015986E+0	2.068692E+0	2.019027E+0	2.011009E+0	2.074174E+0	2.050300E+0	1.981592E+0	2.058908E+0	2.001748E+0	1.999602E+0	2.034697E+0	2.015955E+0	2.039706E+0	2.102189E+0	1.995780E+0	2.017368E+0	1.935860E+0	2.035546E+0	2.030152E+0	1.988021E+0	2.063914E+0	1.979182E+0	2.021144E+0	2.060271E+0	1.950940E+0	2.056808E+0	2.002275E+0	1.983166E+0	1.971675E+0	2.052076E+0	1.914413E+0	1.961342E+0	1.958828E+0	2.003419E+0	2.019660E+0	1.998117E+0	2.014868E+0	2.053246E+0	2.056144E+0	1.964253E+0	1.964295E+0	1.983692E+0	2.040248E+0	1.971683E+0	2.019165E+0	2.016300E+0	1.917381E+0	1.928607E+0	1.968449E+0	2.006084E+0	2.006635E+0	1.947117E+0	2.001156E+0	2.026248E+0	1.981920E+0	2.024780E+0	1.972258E+0	1.974644E+0	1.958435E+0	1.968589E+0	1.981785E+0	2.006110E+0	1.988454E+0	2.030660E+0	2.077820E+0	2.005910E+0	2.052162E+0	2.020439E+0	1.976848E+0	2.013307E+0	1.947240E+0	1.997145E+0	1.948432E+0	2.021015E+0	1.910464E+0	2.026159E+0	1.915324E+0	1.905142E+0	2.005255E+0	1.984092E+0	2.016746E+0	2.055581E+0	1.943871E+0	1.971751E+0	2.011784E+0	1.929929E+0	1.990439E+0	1.936376E+0	2.032534E+0	1.955732E+0	1.921798E+0	2.001802E+0	2.024663E+0	2.063468E+0	2.043943E+0	1.874336E+0	2.143129E+0
5.402740E+2	2.043934E+0	1.900513E+0	1.996516E+0	2.938939E+0	1.942283E+0	1.971807E+0	1.988430E+0	1.944652E+0	1.961723E+0	2.006439E+0	1.905161E+0	1.935102E+0	1.977687E+0	1.948488E+0	1.996036E+0	1.965191E+0	1.952589E+0	2.010246E+0	1.992503E+0	1.979189E+0	1.970998E+0	1.985316E+0	1.925797E+0	1.945822E+0	2.037167E+0	1.992740E+0	2.019452E+0	1.968023E+0	1.980903E+0	2.042217E+0	1.918876E+0	2.050496E+0	1.955464E+0	2.010683E+0	1.952218E+0	1.961770E+0	1.920541E+0	1.997698E+0	1.943406E+0	1.926101E+0	2.032555E+0	1.937414E+0	1.953859E+0	1.933970E+0	1.931544E+0	1.928542E+0	1.956777E+0	1.926618E+0	1.968294E+0	1.984230E+0	1.998413E+0	1.960103E+0	1.953250E+0	1.892316E+0	1.978977E+0	1.982894E+0	2.049290E+0	1.950236E+0	2.001606E+0	1.893882E+0	2.002424E+0	1.888914E+0	1.932908E+0	1.967536E+0	1.953922E+0	1.896520E+0	1.916381E+0	1.954208E+0	1.945729E+0	1.949543E+0	1.936698E+0	1.961361E+0	2.038457E+0	1.912555E+0	1.913448E+0	2.001115E+0	1.939850E+0	1.963182E+0	1.949465E+0	2.014735E+0	1.979625E+0	1.952135E+0	1.872968E+0	1.881575E+0	1.944581E+0	1.972989E+0	1.969470E+0	1.958843E+0	1.996931E+0	1.945837E+0	1.999138E+0	1.864860E+0	1.948886E+0	2.010198E+0	1.952703E+0	1.944141E+0	1.912764E+0	1.981083E+0	1.931651E+0	1.922191E+0	2.028689E+0	1.962148E+0	1.950824E+0	1.956970E+0	1.955679E+0	1.900936E+0	1.962692E+0	1.941724E+0	1.944416E+0	1.900615E+0	1.874417E+0	1.893900E+0	1.935252E+0	1.967941E+0	1.995495E+0	1.844179E+0	1.957323E+0	1.966898E+0	1.907259E+0	1.899247E+0	1.990821E+0	1.966904E+0	1.925062E+0	1.948656E+0	1.965520E+0	1.958187E+0	2.004862E+0	1.961097E+0	1.948560E+0	1.990703E+0	1.919313E+0	1.910569E+0	1.902166E+0	1.873603E+0	1.902470E+0	1.903489E+0	2.044913E+0	1.957664E+0	1.942713E+0	1.961660E+0	1.942534E+0	1.933745E+0	1.876531E+0	1.898475E+0	1.849999E+0	1.998862E+0	1.843357E+0	1.920087E+0	1.971475E+0	1.869271E+0	1.884421E+0	1.899269E+0	1.902042E+0	1.943617E+0	1.920888E+0	1.886747E+0	1.971458E+0	1.930979E+0	1.886457E+0	1.932960E+0	1.916248E+0	1.897651E+0	1.904956E+0	1.943149E+0	1.914383E+0	1.936179E+0	1.913682E+0	1.887013E+0	1.852241E+0	1.950531E+0	1.856944E+0	1.919799E+0
5.405080E+2	1.917687E+0	1.743477E+0	1.787784E+0	2.646503E+0	1.778063E+0	1.826048E+0	1.834246E+0	1.847834E+0	1.809476E+0	1.846781E+0	1.742256E+0	1.826232E+0	1.790298E+0	1.818146E+0	1.830995E+0	1.797530E+0	1.804894E+0	1.799830E+0	1.803456E+0	1.808914E+0	1.794348E+0	1.766850E+0	1.770892E+0	1.783108E+0	1.788797E+0	1.742521E+0	1.833805E+0	1.768187E+0	1.819268E+0	1.823901E+0	1.765227E+0	1.816324E+0	1.849770E+0	1.824525E+0	1.748604E+0	1.784090E+0	1.797507E+0	1.772611E+0	1.764849E+0	1.760365E+0	1.804944E+0	1.753014E+0	1.807186E+0	1.732251E+0	1.735653E+0	1.788767E+0	1.802864E+0	1.795747E+0	1.803034E+0	1.797104E+0	1.782880E+0	1.743301E+0	1.782736E+0	1.732062E+0	1.825940E+0	1.741214E+0	1.823171E+0	1.766475E+0	1.814020E+0	1.772172E+0	1.834537E+0	1.735474E+0	1.786497E+0	1.781072E+0	1.865375E+0	1.774279E+0	1.837381E+0	1.772141E+0	1.782738E+0	1.765704E+0	1.804804E+0	1.762155E+0	1.865574E+0	1.769431E+0	1.753460E+0	1.762995E+0	1.818730E+0	1.814782E+0	1.773815E+0	1.772611E+0	1.829973E+0	1.822733E+0	1.823298E+0	1.846748E+0	1.790856E+0	1.785603E+0	1.704037E+0	1.827956E+0	1.833691E+0	1.817974E+0	1.760151E+0	1.813481E+0	1.808627E+0	1.788995E+0	1.732937E+0	1.841023E+0	1.834288E+0	1.737091E+0	1.787269E+0	1.738608E+0	1.832756E+0	1.786725E+0	1.779033E+0	1.744883E+0	1.896607E+0	1.787059E+0	1.801842E+0	1.789879E+0	1.771060E+0	1.795471E+0	1.764831E+0	1.757067E+0	1.756673E+0	1.762029E+0	1.769256E+0	1.727865E+0	1.809218E+0	1.788085E+0	1.710491E+0	1.759665E+0	1.790596E+0	1.722037E+0	1.726704E+0	1.845297E+0	1.788610E+0	1.788368E+0	1.750944E+0	1.818117E+0	1.751684E+0	1.745002E+0	1.783586E+0	1.758428E+0	1.765400E+0	1.746783E+0	1.786347E+0	1.726840E+0	1.851951E+0	1.833001E+0	1.700845E+0	1.789635E+0	1.746378E+0	1.798875E+0	1.761231E+0	1.743808E+0	1.770894E+0	1.746496E+0	1.786407E+0	1.739381E+0	1.834891E+0	1.714807E+0	1.771523E+0	1.720594E+0	1.788627E+0	1.812164E+0	1.765156E+0	1.784618E+0	1.760320E+0	1.763278E+0	1.736262E+0	1.788363E+0	1.696337E+0	1.757167E+0	1.755208E+0	1.803923E+0	1.753148E+0	1.678234E+0	1.693147E+0	1.758654E+0	1.816121E+0	1.785157E+0	1.753287E+0	1.972848E+0
5.407630E+2	1.655149E+0	1.584688E+0	1.689866E+0	2.315379E+0	1.647532E+0	1.652733E+0	1.682076E+0	1.651155E+0	1.640089E+0	1.694613E+0	1.680994E+0	1.685238E+0	1.675779E+0	1.635016E+0	1.664930E+0	1.703882E+0	1.623304E+0	1.639933E+0	1.724118E+0	1.659440E+0	1.646945E+0	1.693951E+0	1.662585E+0	1.642518E+0	1.721782E+0	1.659353E+0	1.682144E+0	1.640376E+0	1.701482E+0	1.659729E+0	1.668086E+0	1.639320E+0	1.705353E+0	1.666190E+0	1.655952E+0	1.627882E+0	1.666967E+0	1.638392E+0	1.626444E+0	1.647210E+0	1.672849E+0	1.631812E+0	1.693459E+0	1.659387E+0	1.647144E+0	1.636404E+0	1.651954E+0	1.625362E+0	1.640474E+0	1.660069E+0	1.668753E+0	1.662255E+0	1.665402E+0	1.657818E+0	1.599202E+0	1.621572E+0	1.639229E+0	1.572088E+0	1.646775E+0	1.611871E+0	1.689056E+0	1.615095E+0	1.684390E+0	1.663554E+0	1.712740E+0	1.662530E+0	1.710327E+0	1.608306E+0	1.663259E+0	1.644187E+0	1.672779E+0	1.660684E+0	1.674381E+0	1.661092E+0	1.614211E+0	1.620140E+0	1.681137E+0	1.612102E+0	1.691173E+0	1.641128E+0	1.584613E+0	1.698586E+0	1.687392E+0	1.650944E+0	1.617664E+0	1.638679E+0	1.680459E+0	1.632682E+0	1.728038E+0	1.569153E+0	1.603875E+0	1.645067E+0	1.627955E+0	1.604414E+0	1.612591E+0	1.676194E+0	1.636929E+0	1.616761E+0	1.634093E+0	1.638420E+0	1.728182E+0	1.639199E+0	1.631829E+0	1.621358E+0	1.649039E+0	1.597136E+0	1.694490E+0	1.655736E+0	1.632801E+0	1.590961E+0	1.658752E+0	1.618434E+0	1.660396E+0	1.672586E+0	1.632717E+0	1.641797E+0	1.633524E+0	1.631492E+0	1.636400E+0	1.618130E+0	1.650791E+0	1.626543E+0	1.652889E+0	1.676118E+0	1.658357E+0	1.636091E+0	1.657371E+0	1.624287E+0	1.639153E+0	1.659764E+0	1.644424E+0	1.669430E+0	1.580569E+0	1.674769E+0	1.626692E+0	1.646292E+0	1.688900E+0	1.600943E+0	1.623659E+0	1.669741E+0	1.653874E+0	1.645711E+0	1.676386E+0	1.638356E+0	1.688792E+0	1.646871E+0	1.551998E+0	1.666162E+0	1.640361E+0	1.636058E+0	1.652981E+0	1.592587E+0	1.601764E+0	1.613770E+0	1.628715E+0	1.669989E+0	1.649314E+0	1.643335E+0	1.602024E+0	1.637607E+0	1.648610E+0	1.661545E+0	1.630851E+0	1.614744E+0	1.650392E+0	1.611272E+0	1.596043E+0	1.585803E+0	1.680328E+0	1.606945E+0	1.639237E+0	1.686793E+0
5.410340E+2	1.739533E+0	1.687686E+0	1.672572E+0	2.227412E+0	1.707034E+0	1.699419E+0	1.736827E+0	1.738791E+0	1.730231E+0	1.828406E+0	1.673015E+0	1.756415E+0	1.735572E+0	1.732355E+0	1.735078E+0	1.732536E+0	1.753849E+0	1.788441E+0	1.719345E+0	1.684734E+0	1.719309E+0	1.682282E+0	1.771381E+0	1.714645E+0	1.750521E+0	1.708985E+0	1.759501E+0	1.795786E+0	1.722083E+0	1.723532E+0	1.689420E+0	1.715200E+0	1.748464E+0	1.721116E+0	1.737978E+0	1.772314E+0	1.757694E+0	1.650322E+0	1.722878E+0	1.741340E+0	1.794061E+0	1.784106E+0	1.756049E+0	1.687896E+0	1.759504E+0	1.684921E+0	1.696780E+0	1.696832E+0	1.777239E+0	1.746507E+0	1.756115E+0	1.760859E+0	1.748243E+0	1.731731E+0	1.700343E+0	1.687997E+0	1.725085E+0	1.677328E+0	1.713953E+0	1.646365E+0	1.770637E+0	1.698894E+0	1.724246E+0	1.748829E+0	1.765401E+0	1.695860E+0	1.770527E+0	1.746561E+0	1.720430E+0	1.661187E+0	1.737307E+0	1.722866E+0	1.718073E+0	1.676063E+0	1.729257E+0	1.687785E+0	1.730566E+0	1.696570E+0	1.690201E+0	1.751836E+0	1.671774E+0	1.748137E+0	1.696354E+0	1.715319E+0	1.669027E+0	1.704405E+0	1.744769E+0	1.753553E+0	1.673426E+0	1.709471E+0	1.644730E+0	1.690490E+0	1.725503E+0	1.712724E+0	1.687767E+0	1.756707E+0	1.676029E+0	1.745465E+0	1.703868E+0	1.683382E+0	1.717813E+0	1.680729E+0	1.711208E+0	1.751282E+0	1.728089E+0	1.660240E+0	1.740782E+0	1.655364E+0	1.710190E+0	1.667321E+0	1.739051E+0	1.738895E+0	1.670902E+0	1.755182E+0	1.670261E+0	1.705387E+0	1.774628E+0	1.728602E+0	1.686427E+0	1.684991E+0	1.734636E+0	1.726423E+0	1.652653E+0	1.616714E+0	1.731878E+0	1.702419E+0	1.640562E+0	1.664809E+0	1.805491E+0	1.849278E+0	1.714050E+0	1.723350E+0	1.735751E+0	1.669444E+0	1.749545E+0	1.650584E+0	1.798770E+0	1.707124E+0	1.759700E+0	1.831284E+0	1.761933E+0	1.771115E+0	1.710806E+0	1.730389E+0	1.689300E+0	1.689241E+0	1.652692E+0	1.767613E+0	1.748803E+0	1.655501E+0	1.713521E+0	1.623629E+0	1.706046E+0	1.650375E+0	1.681905E+0	1.687529E+0	1.707270E+0	1.701290E+0	1.703480E+0	1.720519E+0	1.704919E+0	1.707536E+0	1.678823E+0	1.688380E+0	1.689575E+0	1.689583E+0	1.713049E+0	1.707655E+0	1.733180E+0	1.680698E+0	1.580587E+0	1.689680E+0
5.412640E+2	1.733213E+0	1.637735E+0	1.688182E+0	2.268816E+0	1.625745E+0	1.694149E+0	1.638033E+0	1.681680E+0	1.655624E+0	1.727657E+0	1.638827E+0	1.710366E+0	1.693497E+0	1.652787E+0	1.746304E+0	1.688525E+0	1.690144E+0	1.692368E+0	1.626558E+0	1.699095E+0	1.666543E+0	1.690288E+0	1.645881E+0	1.679873E+0	1.720944E+0	1.651973E+0	1.757504E+0	1.710152E+0	1.661417E+0	1.682620E+0	1.684326E+0	1.726601E+0	1.647776E+0	1.685484E+0	1.694203E+0	1.681361E+0	1.690055E+0	1.658321E+0	1.662258E+0	1.705528E+0	1.736070E+0	1.756397E+0	1.679470E+0	1.696347E+0	1.668907E+0	1.662437E+0	1.686413E+0	1.682963E+0	1.654231E+0	1.681009E+0	1.717480E+0	1.713115E+0	1.737992E+0	1.662245E+0	1.683148E+0	1.676145E+0	1.669856E+0	1.607111E+0	1.657828E+0	1.729566E+0	1.644087E+0	1.577316E+0	1.701497E+0	1.690491E+0	1.701260E+0	1.671328E+0	1.675982E+0	1.632318E+0	1.665354E+0	1.626611E+0	1.683364E+0	1.662798E+0	1.753632E+0	1.664665E+0	1.620658E+0	1.629909E+0	1.707553E+0	1.654603E+0	1.666788E+0	1.698143E+0	1.745079E+0	1.705529E+0	1.716400E+0	1.656358E+0	1.690878E+0	1.706303E+0	1.708996E+0	1.693858E+0	1.748461E+0	1.611664E+0	1.602226E+0	1.681411E+0	1.717380E+0	1.671439E+0	1.640468E+0	1.669985E+0	1.670624E+0	1.679385E+0	1.623041E+0	1.645667E+0	1.673747E+0	1.700167E+0	1.732428E+0	1.655037E+0	1.634168E+0	1.640583E+0	1.718238E+0	1.631570E+0	1.688391E+0	1.739673E+0	1.693049E+0	1.615140E+0	1.692990E+0	1.647754E+0	1.691372E+0	1.693492E+0	1.698761E+0	1.666657E+0	1.609595E+0	1.642281E+0	1.686070E+0	1.654143E+0	1.653687E+0	1.682929E+0	1.694959E+0	1.611633E+0	1.704164E+0	1.668690E+0	1.702415E+0	1.640055E+0	1.606914E+0	1.662842E+0	1.682066E+0	1.632600E+0	1.673329E+0	1.622137E+0	1.704748E+0	1.633110E+0	1.635301E+0	1.667472E+0	1.674676E+0	1.703109E+0	1.676333E+0	1.653644E+0	1.685963E+0	1.621982E+0	1.654988E+0	1.642907E+0	1.659312E+0	1.565111E+0	1.699373E+0	1.639410E+0	1.650204E+0	1.687575E+0	1.637997E+0	1.674462E+0	1.688179E+0	1.671723E+0	1.678758E+0	1.702989E+0	1.641585E+0	1.666564E+0	1.652361E+0	1.713578E+0	1.649170E+0	1.615062E+0	1.660885E+0	1.643589E+0	1.680741E+0	1.687753E+0	1.628155E+0	1.705483E+0
5.415140E+2	1.575309E+0	1.536394E+0	1.530655E+0	1.915064E+0	1.478907E+0	1.557764E+0	1.563425E+0	1.538825E+0	1.537565E+0	1.611444E+0	1.544402E+0	1.595333E+0	1.552246E+0	1.481867E+0	1.556361E+0	1.623390E+0	1.549076E+0	1.533796E+0	1.575027E+0	1.538961E+0	1.550498E+0	1.496550E+0	1.552145E+0	1.533140E+0	1.537369E+0	1.555264E+0	1.563912E+0	1.565933E+0	1.531735E+0	1.575584E+0	1.520233E+0	1.547930E+0	1.541868E+0	1.557586E+0	1.570198E+0	1.534275E+0	1.537900E+0	1.537846E+0	1.521528E+0	1.584660E+0	1.627785E+0	1.557831E+0	1.549893E+0	1.531291E+0	1.524419E+0	1.470410E+0	1.537034E+0	1.498946E+0	1.560538E+0	1.566944E+0	1.528665E+0	1.569419E+0	1.507641E+0	1.508627E+0	1.562836E+0	1.526451E+0	1.558392E+0	1.611157E+0	1.577766E+0	1.529007E+0	1.547027E+0	1.581371E+0	1.575387E+0	1.544851E+0	1.590748E+0	1.544920E+0	1.519044E+0	1.548556E+0	1.512057E+0	1.496150E+0	1.576714E+0	1.519767E+0	1.608713E+0	1.543041E+0	1.553443E+0	1.581436E+0	1.586387E+0	1.555772E+0	1.539695E+0	1.539132E+0	1.562530E+0	1.542202E+0	1.515975E+0	1.533124E+0	1.544826E+0	1.581836E+0	1.532669E+0	1.575956E+0	1.593823E+0	1.489294E+0	1.541760E+0	1.520620E+0	1.508906E+0	1.535560E+0	1.503784E+0	1.573905E+0	1.528961E+0	1.551844E+0	1.565945E+0	1.580655E+0	1.572566E+0	1.569207E+0	1.552490E+0	1.510166E+0	1.534077E+0	1.504547E+0	1.590072E+0	1.519888E+0	1.532786E+0	1.497897E+0	1.567998E+0	1.464701E+0	1.532023E+0	1.615109E+0	1.493089E+0	1.477162E+0	1.571468E+0	1.538031E+0	1.504449E+0	1.506156E+0	1.547565E+0	1.524365E+0	1.512320E+0	1.540765E+0	1.559922E+0	1.557905E+0	1.543834E+0	1.507430E+0	1.567938E+0	1.535963E+0	1.478626E+0	1.549739E+0	1.508173E+0	1.550030E+0	1.489436E+0	1.505172E+0	1.586999E+0	1.514020E+0	1.583796E+0	1.589315E+0	1.535605E+0	1.538027E+0	1.570544E+0	1.543803E+0	1.499619E+0	1.527389E+0	1.533133E+0	1.534502E+0	1.550678E+0	1.496745E+0	1.546163E+0	1.529352E+0	1.526384E+0	1.528350E+0	1.613721E+0	1.550408E+0	1.504633E+0	1.525395E+0	1.511838E+0	1.571498E+0	1.526542E+0	1.503727E+0	1.531100E+0	1.499524E+0	1.503741E+0	1.516891E+0	1.467009E+0	1.549379E+0	1.584032E+0	1.572784E+0	1.530455E+0	1.518027E+0
5.417700E+2	1.437024E+0	1.376829E+0	1.379312E+0	1.940018E+0	1.371535E+0	1.387601E+0	1.424282E+0	1.370005E+0	1.347017E+0	1.419255E+0	1.374241E+0	1.405435E+0	1.331758E+0	1.440954E+0	1.419485E+0	1.372683E+0	1.415546E+0	1.426394E+0	1.412831E+0	1.382115E+0	1.399440E+0	1.380314E+0	1.442213E+0	1.400722E+0	1.358973E+0	1.408257E+0	1.444856E+0	1.403227E+0	1.398953E+0	1.453675E+0	1.351487E+0	1.407249E+0	1.401881E+0	1.418209E+0	1.444379E+0	1.332284E+0	1.373971E+0	1.371784E+0	1.361828E+0	1.412849E+0	1.367346E+0	1.432942E+0	1.410407E+0	1.419515E+0	1.403685E+0	1.403880E+0	1.381962E+0	1.374352E+0	1.369065E+0	1.361691E+0	1.404941E+0	1.426224E+0	1.452879E+0	1.329676E+0	1.377534E+0	1.358389E+0	1.393577E+0	1.370136E+0	1.369370E+0	1.415777E+0	1.394514E+0	1.391194E+0	1.388975E+0	1.437747E+0	1.429400E+0	1.374037E+0	1.370367E+0	1.401850E+0	1.358904E+0	1.370752E+0	1.386753E+0	1.376737E+0	1.436595E+0	1.387434E+0	1.356512E+0	1.388478E+0	1.371988E+0	1.372532E+0	1.424118E+0	1.433806E+0	1.379595E+0	1.420024E+0	1.411849E+0	1.384722E+0	1.428523E+0	1.444128E+0	1.354271E+0	1.383185E+0	1.405425E+0	1.377810E+0	1.362818E+0	1.324703E+0	1.415183E+0	1.408135E+0	1.382620E+0	1.405588E+0	1.395914E+0	1.355555E+0	1.395166E+0	1.366119E+0	1.385981E+0	1.387901E+0	1.385808E+0	1.405587E+0	1.426286E+0	1.374058E+0	1.430611E+0	1.385414E+0	1.397214E+0	1.402495E+0	1.386839E+0	1.391461E+0	1.416843E+0	1.377971E+0	1.370721E+0	1.320572E+0	1.353416E+0	1.387970E+0	1.406749E+0	1.385700E+0	1.395411E+0	1.371237E+0	1.415983E+0	1.397788E+0	1.389663E+0	1.356641E+0	1.405574E+0	1.419420E+0	1.400617E+0	1.397377E+0	1.420032E+0	1.368338E+0	1.346908E+0	1.380551E+0	1.367717E+0	1.341164E+0	1.423412E+0	1.394431E+0	1.415448E+0	1.397042E+0	1.394041E+0	1.412497E+0	1.413343E+0	1.358896E+0	1.356895E+0	1.430781E+0	1.360541E+0	1.353880E+0	1.407632E+0	1.268752E+0	1.412256E+0	1.421403E+0	1.389838E+0	1.407035E+0	1.370433E+0	1.375504E+0	1.398931E+0	1.408424E+0	1.374207E+0	1.413988E+0	1.414500E+0	1.399221E+0	1.344601E+0	1.404568E+0	1.381600E+0	1.359498E+0	1.337158E+0	1.344868E+0	1.399416E+0	1.391094E+0	1.434005E+0	1.356573E+0
5.420160E+2	1.284346E+0	1.212679E+0	1.208502E+0	1.414881E+0	1.215570E+0	1.253105E+0	1.229306E+0	1.214523E+0	1.271377E+0	1.269477E+0	1.153800E+0	1.254371E+0	1.266860E+0	1.246670E+0	1.263150E+0	1.247648E+0	1.191144E+0	1.225670E+0	1.252810E+0	1.281752E+0	1.247966E+0	1.227041E+0	1.221153E+0	1.200592E+0	1.267474E+0	1.275943E+0	1.251544E+0	1.292399E+0	1.195696E+0	1.235665E+0	1.208105E+0	1.223609E+0	1.254039E+0	1.225752E+0	1.218234E+0	1.239148E+0	1.239872E+0	1.273335E+0	1.211181E+0	1.279764E+0	1.236149E+0	1.226174E+0	1.242563E+0	1.244577E+0	1.251741E+0	1.233043E+0	1.258385E+0	1.218797E+0	1.233720E+0	1.250628E+0	1.208161E+0	1.247061E+0	1.214718E+0	1.231059E+0	1.250080E+0	1.250132E+0	1.239351E+0	1.281805E+0	1.206886E+0	1.255544E+0	1.221708E+0	1.249334E+0	1.212140E+0	1.228661E+0	1.310334E+0	1.199790E+0	1.228493E+0	1.213750E+0	1.265854E+0	1.208909E+0	1.236255E+0	1.225974E+0	1.265842E+0	1.241149E+0	1.235427E+0	1.243933E+0	1.206001E+0	1.198551E+0	1.259120E+0	1.240196E+0	1.197944E+0	1.270624E+0	1.184501E+0	1.233471E+0	1.235602E+0	1.229602E+0	1.238047E+0	1.205074E+0	1.240524E+0	1.213162E+0	1.230749E+0	1.230542E+0	1.219584E+0	1.297837E+0	1.234823E+0	1.283483E+0	1.187987E+0	1.186416E+0	1.182655E+0	1.218603E+0	1.267187E+0	1.257029E+0	1.254731E+0	1.232059E+0	1.220737E+0	1.247781E+0	1.254800E+0	1.280158E+0	1.213010E+0	1.268635E+0	1.229941E+0	1.252528E+0	1.199089E+0	1.231415E+0	1.247830E+0	1.252006E+0	1.292507E+0	1.228410E+0	1.183450E+0	1.236521E+0	1.211704E+0	1.219448E+0	1.246616E+0	1.229118E+0	1.182000E+0	1.270401E+0	1.207177E+0	1.177055E+0	1.239452E+0	1.178927E+0	1.249535E+0	1.233131E+0	1.226353E+0	1.216981E+0	1.256597E+0	1.225109E+0	1.245223E+0	1.200220E+0	1.230832E+0	1.278027E+0	1.268723E+0	1.265136E+0	1.232243E+0	1.250195E+0	1.163124E+0	1.244458E+0	1.218742E+0	1.207306E+0	1.222241E+0	1.204328E+0	1.251052E+0	1.214000E+0	1.247005E+0	1.261122E+0	1.226361E+0	1.242379E+0	1.273367E+0	1.263499E+0	1.184429E+0	1.243660E+0	1.224118E+0	1.304232E+0	1.228941E+0	1.270040E+0	1.211651E+0	1.242592E+0	1.217371E+0	1.185819E+0	1.206658E+0	1.285913E+0	1.167302E+0	1.285192E+0
5.422670E+2	1.006275E+0	1.011577E+0	9.806294E-1	1.117505E+0	1.008602E+0	9.761550E-1	9.911804E-1	1.002494E+0	9.856134E-1	1.047134E+0	9.667252E-1	1.042004E+0	9.494206E-1	1.000788E+0	1.001519E+0	9.931457E-1	9.655181E-1	9.966762E-1	9.996369E-1	1.031873E+0	9.995242E-1	9.598669E-1	9.794761E-1	9.841609E-1	1.027943E+0	1.004787E+0	1.036258E+0	9.870199E-1	9.977515E-1	1.028821E+0	1.008120E+0	1.007324E+0	1.004760E+0	9.897988E-1	1.008464E+0	9.618241E-1	1.007259E+0	9.798948E-1	9.493449E-1	9.882972E-1	9.676764E-1	1.023525E+0	9.709461E-1	9.672077E-1	9.936847E-1	9.696502E-1	9.792236E-1	1.010842E+0	1.003005E+0	9.904094E-1	9.851326E-1	9.758730E-1	9.921334E-1	9.943604E-1	9.924351E-1	9.769952E-1	9.725025E-1	9.779644E-1	9.708036E-1	1.000389E+0	9.868947E-1	1.027202E+0	9.874651E-1	1.028836E+0	9.971273E-1	9.955152E-1	9.979115E-1	9.430173E-1	9.687230E-1	9.612580E-1	1.009976E+0	9.880255E-1	9.644145E-1	1.029510E+0	9.573841E-1	1.006184E+0	1.001740E+0	9.924512E-1	1.012318E+0	9.848876E-1	1.018739E+0	1.005142E+0	1.005802E+0	9.866820E-1	1.002738E+0	1.038177E+0	9.726755E-1	1.013227E+0	9.852792E-1	1.006887E+0	1.018239E+0	9.881016E-1	9.818422E-1	9.704618E-1	1.009404E+0	9.928944E-1	9.839673E-1	1.042973E+0	1.013623E+0	9.602105E-1	1.062675E+0	1.018848E+0	1.023033E+0	9.845045E-1	9.794712E-1	9.669659E-1	1.033107E+0	9.907145E-1	9.721630E-1	9.909469E-1	9.856966E-1	9.980931E-1	9.980920E-1	1.040477E+0	9.830276E-1	1.009805E+0	9.896305E-1	9.880315E-1	9.738365E-1	1.014765E+0	9.925877E-1	9.678898E-1	1.063040E+0	1.014757E+0	9.657038E-1	9.810845E-1	1.027467E+0	9.978747E-1	1.011590E+0	9.904163E-1	9.765038E-1	1.001781E+0	9.890309E-1	9.546913E-1	9.926680E-1	9.859018E-1	9.664696E-1	1.004674E+0	9.732013E-1	1.061847E+0	9.783897E-1	1.023484E+0	9.809776E-1	1.034595E+0	9.905981E-1	1.013539E+0	9.726028E-1	9.831001E-1	9.935950E-1	9.680398E-1	1.000923E+0	9.961404E-1	9.923946E-1	1.020280E+0	1.016141E+0	1.024324E+0	1.015721E+0	1.036902E+0	9.770722E-1	1.012527E+0	9.932703E-1	1.000874E+0	9.764447E-1	9.837757E-1	1.019305E+0	9.835225E-1	9.864118E-1	9.267597E-1	1.076378E+0	9.459731E-1	1.039932E+0	1.106960E+0
5.425140E+2	9.378002E-1	8.912445E-1	9.626286E-1	1.005728E+0	9.440697E-1	9.345006E-1	9.323164E-1	9.779041E-1	9.503941E-1	9.250943E-1	9.110081E-1	9.005646E-1	9.501612E-1	9.377869E-1	9.512394E-1	9.289694E-1	9.441845E-1	9.958407E-1	9.416810E-1	9.845034E-1	9.444044E-1	9.985681E-1	9.609779E-1	9.492773E-1	9.359561E-1	9.522214E-1	9.517017E-1	9.412441E-1	9.256509E-1	9.613347E-1	9.345588E-1	9.749356E-1	9.520877E-1	9.993742E-1	9.242855E-1	9.282491E-1	9.402358E-1	9.207699E-1	9.103727E-1	9.640011E-1	9.407540E-1	9.822374E-1	9.239412E-1	9.424670E-1	9.129314E-1	9.046776E-1	9.942277E-1	9.409082E-1	9.737526E-1	9.584870E-1	9.700589E-1	9.515373E-1	9.382994E-1	9.442779E-1	9.436031E-1	9.033993E-1	9.353636E-1	9.457532E-1	9.947515E-1	9.341395E-1	9.244761E-1	9.924868E-1	9.453241E-1	9.534367E-1	9.124838E-1	9.798041E-1	9.304609E-1	9.382671E-1	9.475360E-1	9.504341E-1	9.261823E-1	9.169445E-1	9.842569E-1	9.362884E-1	9.356892E-1	9.930688E-1	9.308300E-1	9.579915E-1	9.446829E-1	9.551091E-1	9.376636E-1	9.773018E-1	9.255407E-1	9.737957E-1	9.380821E-1	9.741369E-1	9.658467E-1	9.446382E-1	9.693846E-1	9.965370E-1	9.188025E-1	9.394487E-1	9.333939E-1	9.518348E-1	9.438635E-1	9.413745E-1	9.342059E-1	9.578199E-1	9.694718E-1	9.794742E-1	1.014970E+0	9.421814E-1	9.549718E-1	9.334462E-1	9.585670E-1	9.323023E-1	9.834641E-1	8.949199E-1	9.172856E-1	9.527071E-1	9.884255E-1	9.548599E-1	9.356185E-1	9.871941E-1	9.534299E-1	9.561957E-1	9.401872E-1	9.176611E-1	9.803046E-1	9.506286E-1	9.355131E-1	9.548412E-1	9.351943E-1	9.845056E-1	9.660539E-1	9.315011E-1	9.450980E-1	9.085419E-1	9.581357E-1	9.878350E-1	9.128657E-1	9.535380E-1	9.691526E-1	9.341561E-1	9.494146E-1	9.469435E-1	9.725640E-1	9.516830E-1	9.763314E-1	9.667605E-1	9.498710E-1	9.415470E-1	9.737103E-1	9.492134E-1	9.262584E-1	9.498276E-1	9.776044E-1	9.460161E-1	9.242668E-1	9.139627E-1	9.652231E-1	9.605311E-1	9.452132E-1	9.587897E-1	9.489226E-1	9.335859E-1	9.544786E-1	9.808082E-1	9.581045E-1	9.536613E-1	9.303481E-1	9.204892E-1	9.770676E-1	9.267609E-1	9.620096E-1	9.046729E-1	9.592736E-1	9.590748E-1	9.638017E-1	1.005897E+0	9.436365E-1	1.037381E+0
5.427650E+2	9.553104E-1	9.313406E-1	9.566913E-1	1.091519E+0	9.512507E-1	9.379626E-1	9.415635E-1	9.448496E-1	9.820515E-1	9.759214E-1	9.419690E-1	9.539213E-1	9.543363E-1	1.038743E+0	9.551818E-1	1.001060E+0	9.386838E-1	9.833475E-1	9.751067E-1	9.711637E-1	9.451168E-1	9.481928E-1	9.463630E-1	9.372109E-1	9.594594E-1	9.550137E-1	1.009088E+0	1.014725E+0	9.459121E-1	9.332654E-1	9.638477E-1	9.818273E-1	1.004209E+0	1.003363E+0	9.519003E-1	9.378586E-1	9.673340E-1	9.356243E-1	9.220634E-1	9.487622E-1	9.473453E-1	9.565878E-1	9.272750E-1	9.696954E-1	9.285582E-1	9.521721E-1	9.538424E-1	9.686286E-1	9.604484E-1	9.376041E-1	9.999701E-1	9.679986E-1	9.496800E-1	9.239725E-1	9.678800E-1	9.865875E-1	9.843001E-1	1.001506E+0	9.490888E-1	9.732228E-1	9.316576E-1	9.778703E-1	9.342272E-1	9.445369E-1	9.580388E-1	9.367474E-1	9.781285E-1	9.368645E-1	9.609270E-1	9.429126E-1	9.597732E-1	9.251472E-1	9.388959E-1	9.224488E-1	9.484708E-1	9.391324E-1	9.626877E-1	1.008728E+0	9.441674E-1	9.566671E-1	9.527856E-1	9.738664E-1	9.638054E-1	9.385733E-1	8.986867E-1	9.832388E-1	9.547751E-1	9.739165E-1	9.789040E-1	9.586196E-1	9.409213E-1	9.342279E-1	9.590021E-1	1.002728E+0	9.554059E-1	9.743453E-1	9.412668E-1	9.494653E-1	9.403052E-1	9.217531E-1	9.571079E-1	9.724454E-1	9.694092E-1	9.551653E-1	9.754703E-1	9.409065E-1	9.835960E-1	9.444362E-1	9.448013E-1	1.008370E+0	9.762414E-1	9.353211E-1	9.387853E-1	9.731420E-1	9.216079E-1	9.144142E-1	9.878778E-1	9.520815E-1	9.239714E-1	9.611397E-1	9.971772E-1	9.283943E-1	9.655426E-1	9.989131E-1	9.819938E-1	1.015215E+0	9.948856E-1	9.521779E-1	9.695993E-1	9.835250E-1	9.339262E-1	9.559224E-1	9.784389E-1	9.620970E-1	9.979306E-1	9.558668E-1	9.443134E-1	9.522014E-1	9.696431E-1	9.884814E-1	9.821944E-1	9.276044E-1	1.032351E+0	9.608321E-1	9.600447E-1	9.827838E-1	9.947381E-1	9.524556E-1	9.758001E-1	9.015209E-1	9.971244E-1	9.195730E-1	1.000422E+0	9.476201E-1	9.907426E-1	9.708984E-1	1.011749E+0	9.671392E-1	9.610763E-1	9.794360E-1	9.306753E-1	9.354307E-1	9.606030E-1	1.000808E+0	9.521015E-1	9.481410E-1	9.629616E-1	9.586537E-1	9.528364E-1	9.796512E-1	8.969981E-1	1.186411E+0
5.430120E+2	1.002882E+0	9.826882E-1	1.049090E+0	1.028802E+0	9.814960E-1	9.867261E-1	1.009939E+0	9.915795E-1	1.020970E+0	1.031595E+0	9.722142E-1	1.051827E+0	9.865417E-1	1.055445E+0	1.026207E+0	1.046589E+0	9.817393E-1	1.055252E+0	1.025370E+0	1.032031E+0	1.038299E+0	9.987115E-1	9.852071E-1	9.966819E-1	1.003426E+0	1.029957E+0	1.007099E+0	1.039275E+0	9.777332E-1	1.031502E+0	9.906852E-1	1.038276E+0	1.011595E+0	1.003636E+0	1.034915E+0	9.756917E-1	9.894409E-1	1.007177E+0	9.799356E-1	9.849949E-1	9.668593E-1	1.020349E+0	1.034995E+0	1.001460E+0	1.007714E+0	1.042645E+0	1.001981E+0	9.409187E-1	9.704723E-1	1.043430E+0	1.044598E+0	1.043047E+0	1.034531E+0	1.016893E+0	1.030010E+0	1.027710E+0	1.002249E+0	1.078521E+0	1.036278E+0	9.815375E-1	1.025632E+0	9.879950E-1	1.032030E+0	9.984291E-1	1.085202E+0	1.008175E+0	1.058033E+0	9.957913E-1	9.881539E-1	9.599084E-1	1.033278E+0	9.739104E-1	1.056168E+0	1.017889E+0	9.924337E-1	1.015640E+0	1.037000E+0	1.040955E+0	1.014400E+0	9.953644E-1	9.610321E-1	1.041993E+0	1.009038E+0	9.933049E-1	9.978696E-1	9.793901E-1	9.996533E-1	1.019225E+0	1.039289E+0	9.663817E-1	1.007587E+0	1.009427E+0	9.890536E-1	1.036058E+0	1.017336E+0	1.036387E+0	9.856126E-1	9.487519E-1	1.006869E+0	9.995095E-1	1.035439E+0	1.017579E+0	1.004349E+0	1.009829E+0	1.020093E+0	9.857100E-1	1.057033E+0	9.964761E-1	1.006709E+0	1.021839E+0	1.050316E+0	1.005344E+0	9.413227E-1	1.033313E+0	1.006125E+0	1.007586E+0	1.009093E+0	1.005438E+0	1.053127E+0	1.006928E+0	1.024881E+0	1.010583E+0	9.840003E-1	1.039186E+0	1.000519E+0	1.041897E+0	1.029828E+0	9.756571E-1	1.044684E+0	1.006173E+0	9.745195E-1	1.008215E+0	1.026988E+0	9.749246E-1	1.016388E+0	1.031190E+0	1.044084E+0	1.004974E+0	9.991037E-1	1.034664E+0	1.013914E+0	1.033870E+0	9.981574E-1	1.028971E+0	1.014140E+0	9.790874E-1	1.009833E+0	1.022984E+0	9.605155E-1	1.018868E+0	9.714209E-1	9.997928E-1	9.774744E-1	1.007718E+0	1.039840E+0	1.006905E+0	1.018982E+0	1.028195E+0	9.749948E-1	1.018174E+0	9.501705E-1	1.032958E+0	1.026363E+0	1.074258E+0	1.033051E+0	9.975929E-1	1.024464E+0	9.570613E-1	1.029754E+0	1.081672E+0	9.972209E-1	1.169594E+0
5.432800E+2	1.189842E+0	1.120185E+0	1.166694E+0	1.271284E+0	1.119458E+0	1.163480E+0	1.167899E+0	1.145208E+0	1.150026E+0	1.165003E+0	1.171697E+0	1.177982E+0	1.118927E+0	1.136142E+0	1.143526E+0	1.118665E+0	1.211629E+0	1.206634E+0	1.161695E+0	1.193813E+0	1.149244E+0	1.148211E+0	1.115499E+0	1.139293E+0	1.157805E+0	1.147281E+0	1.179690E+0	1.134186E+0	1.147940E+0	1.090187E+0	1.145344E+0	1.197194E+0	1.178875E+0	1.118847E+0	1.147384E+0	1.087095E+0	1.128783E+0	1.164949E+0	1.124175E+0	1.119923E+0	1.148884E+0	1.162470E+0	1.177202E+0	1.197045E+0	1.116932E+0	1.182125E+0	1.165706E+0	1.187703E+0	1.127457E+0	1.229424E+0	1.191482E+0	1.131278E+0	1.179756E+0	1.171731E+0	1.154374E+0	1.127500E+0	1.138916E+0	1.162583E+0	1.151370E+0	1.159434E+0	1.197818E+0	1.142803E+0	1.178604E+0	1.115782E+0	1.160440E+0	1.139965E+0	1.116070E+0	1.176258E+0	1.175022E+0	1.138605E+0	1.171396E+0	1.142190E+0	1.155186E+0	1.154211E+0	1.094086E+0	1.133744E+0	1.159729E+0	1.137109E+0	1.135183E+0	1.163445E+0	1.164819E+0	1.128531E+0	1.124279E+0	1.193245E+0	1.124314E+0	1.185202E+0	1.204218E+0	1.203238E+0	1.170490E+0	1.131906E+0	1.168487E+0	1.162478E+0	1.157738E+0	1.141618E+0	1.141931E+0	1.102601E+0	1.145595E+0	1.149789E+0	1.147142E+0	1.118651E+0	1.151052E+0	1.126776E+0	1.126901E+0	1.130806E+0	1.143803E+0	1.134425E+0	1.200904E+0	1.149608E+0	1.153063E+0	1.166747E+0	1.173577E+0	1.152304E+0	1.139967E+0	1.244437E+0	1.120452E+0	1.140164E+0	1.110450E+0	1.155039E+0	1.108024E+0	1.189985E+0	1.177886E+0	1.117568E+0	1.136941E+0	1.169379E+0	1.117846E+0	1.200425E+0	1.162382E+0	1.161631E+0	1.149395E+0	1.166200E+0	1.135222E+0	1.145304E+0	1.133533E+0	1.148897E+0	1.184313E+0	1.159353E+0	1.192092E+0	1.125662E+0	1.144378E+0	1.166187E+0	1.151962E+0	1.125525E+0	1.133048E+0	1.214770E+0	1.134025E+0	1.148363E+0	1.112315E+0	1.164780E+0	1.117034E+0	1.108876E+0	1.181226E+0	1.117144E+0	1.229087E+0	1.164527E+0	1.154937E+0	1.192837E+0	1.125948E+0	1.185086E+0	1.167412E+0	1.166690E+0	1.104166E+0	1.168362E+0	1.143935E+0	1.108204E+0	1.127179E+0	1.133536E+0	1.133660E+0	1.127797E+0	1.121618E+0	1.193107E+0	1.171391E+0	1.147071E+0
5.435270E+2	1.314094E+0	1.284877E+0	1.340903E+0	1.479571E+0	1.301474E+0	1.378974E+0	1.246631E+0	1.338709E+0	1.356936E+0	1.396533E+0	1.297332E+0	1.359252E+0	1.358488E+0	1.293663E+0	1.300158E+0	1.352660E+0	1.320726E+0	1.337060E+0	1.343933E+0	1.330198E+0	1.338564E+0	1.300618E+0	1.312406E+0	1.323050E+0	1.290943E+0	1.322213E+0	1.349874E+0	1.317975E+0	1.319056E+0	1.308013E+0	1.313040E+0	1.390305E+0	1.327077E+0	1.290857E+0	1.304230E+0	1.290961E+0	1.367318E+0	1.337224E+0	1.304447E+0	1.319841E+0	1.281160E+0	1.289882E+0	1.354049E+0	1.307501E+0	1.317078E+0	1.296210E+0	1.337305E+0	1.302086E+0	1.316242E+0	1.320163E+0	1.365899E+0	1.350881E+0	1.356309E+0	1.303641E+0	1.385463E+0	1.330222E+0	1.304156E+0	1.303874E+0	1.325825E+0	1.300121E+0	1.332779E+0	1.294470E+0	1.356946E+0	1.360940E+0	1.374181E+0	1.349966E+0	1.297064E+0	1.339138E+0	1.338210E+0	1.296593E+0	1.315851E+0	1.330649E+0	1.346381E+0	1.336823E+0	1.291670E+0	1.359233E+0	1.325862E+0	1.286652E+0	1.325770E+0	1.350420E+0	1.362267E+0	1.300693E+0	1.343482E+0	1.335564E+0	1.368164E+0	1.296556E+0	1.348706E+0	1.296300E+0	1.337705E+0	1.282777E+0	1.357805E+0	1.287301E+0	1.276147E+0	1.315386E+0	1.298130E+0	1.340327E+0	1.327728E+0	1.302887E+0	1.341655E+0	1.241120E+0	1.391225E+0	1.264175E+0	1.377210E+0	1.315532E+0	1.323374E+0	1.272309E+0	1.360924E+0	1.317277E+0	1.267638E+0	1.345750E+0	1.362255E+0	1.323342E+0	1.312574E+0	1.377514E+0	1.360932E+0	1.318077E+0	1.308850E+0	1.315186E+0	1.295198E+0	1.316262E+0	1.340863E+0	1.306633E+0	1.295341E+0	1.255743E+0	1.305488E+0	1.357735E+0	1.339541E+0	1.318271E+0	1.281690E+0	1.319479E+0	1.325108E+0	1.371749E+0	1.316940E+0	1.306253E+0	1.282378E+0	1.290891E+0	1.341614E+0	1.304333E+0	1.344906E+0	1.371914E+0	1.300155E+0	1.323272E+0	1.304498E+0	1.368429E+0	1.282848E+0	1.316168E+0	1.332268E+0	1.287686E+0	1.304813E+0	1.283062E+0	1.299382E+0	1.271860E+0	1.286605E+0	1.309419E+0	1.334818E+0	1.280017E+0	1.299353E+0	1.330436E+0	1.252926E+0	1.309541E+0	1.269221E+0	1.291553E+0	1.283063E+0	1.336374E+0	1.311755E+0	1.266411E+0	1.276642E+0	1.313354E+0	1.373366E+0	1.332792E+0	1.286859E+0	1.307719E+0
5.437640E+2	1.487370E+0	1.395362E+0	1.382688E+0	1.674699E+0	1.452257E+0	1.439204E+0	1.451315E+0	1.436896E+0	1.345997E+0	1.414440E+0	1.442943E+0	1.427269E+0	1.439739E+0	1.456006E+0	1.418014E+0	1.422989E+0	1.469163E+0	1.375391E+0	1.439883E+0	1.452678E+0	1.422917E+0	1.408556E+0	1.376925E+0	1.439945E+0	1.413768E+0	1.461900E+0	1.464684E+0	1.401042E+0	1.446605E+0	1.374827E+0	1.431726E+0	1.464286E+0	1.385322E+0	1.419534E+0	1.429537E+0	1.345225E+0	1.461537E+0	1.413735E+0	1.433419E+0	1.419218E+0	1.472010E+0	1.438525E+0	1.470690E+0	1.353956E+0	1.411476E+0	1.386517E+0	1.430389E+0	1.403526E+0	1.392946E+0	1.435655E+0	1.454880E+0	1.431880E+0	1.434964E+0	1.440279E+0	1.422496E+0	1.384944E+0	1.456437E+0	1.385385E+0	1.465276E+0	1.420151E+0	1.438406E+0	1.444278E+0	1.442831E+0	1.418144E+0	1.418471E+0	1.375971E+0	1.428608E+0	1.403161E+0	1.443978E+0	1.449208E+0	1.415354E+0	1.410103E+0	1.470273E+0	1.424585E+0	1.448791E+0	1.386867E+0	1.416723E+0	1.392898E+0	1.407134E+0	1.414827E+0	1.382041E+0	1.404787E+0	1.377145E+0	1.389015E+0	1.419736E+0	1.414974E+0	1.468084E+0	1.428516E+0	1.368727E+0	1.415158E+0	1.449393E+0	1.442982E+0	1.461158E+0	1.407556E+0	1.427120E+0	1.445599E+0	1.406860E+0	1.410246E+0	1.422442E+0	1.436384E+0	1.458693E+0	1.392372E+0	1.422520E+0	1.427649E+0	1.470568E+0	1.385321E+0	1.408467E+0	1.404481E+0	1.403595E+0	1.392145E+0	1.432404E+0	1.445841E+0	1.421377E+0	1.461628E+0	1.391624E+0	1.377696E+0	1.427004E+0	1.390068E+0	1.426404E+0	1.435112E+0	1.399246E+0	1.372269E+0	1.404788E+0	1.431708E+0	1.388619E+0	1.434768E+0	1.419191E+0	1.409707E+0	1.482725E+0	1.410719E+0	1.401868E+0	1.435706E+0	1.383480E+0	1.375385E+0	1.454445E+0	1.401181E+0	1.439606E+0	1.461184E+0	1.391475E+0	1.476889E+0	1.419937E+0	1.489341E+0	1.415292E+0	1.390885E+0	1.359932E+0	1.378845E+0	1.428325E+0	1.451983E+0	1.436550E+0	1.392069E+0	1.475152E+0	1.420927E+0	1.382463E+0	1.440866E+0	1.423113E+0	1.493408E+0	1.391278E+0	1.449854E+0	1.440431E+0	1.439838E+0	1.371936E+0	1.435696E+0	1.427295E+0	1.433924E+0	1.403987E+0	1.404336E+0	1.389260E+0	1.406899E+0	1.413215E+0	1.399633E+0	1.434690E+0	1.545576E+0
5.440170E+2	1.457537E+0	1.419586E+0	1.483228E+0	1.726269E+0	1.489547E+0	1.481724E+0	1.523594E+0	1.430749E+0	1.444994E+0	1.493237E+0	1.461540E+0	1.538533E+0	1.448186E+0	1.498864E+0	1.469778E+0	1.477276E+0	1.480545E+0	1.471949E+0	1.399382E+0	1.450448E+0	1.494145E+0	1.497218E+0	1.448254E+0	1.478394E+0	1.538175E+0	1.447814E+0	1.519877E+0	1.537463E+0	1.517629E+0	1.450774E+0	1.496939E+0	1.538011E+0	1.497329E+0	1.431846E+0	1.433486E+0	1.431779E+0	1.453944E+0	1.444688E+0	1.463477E+0	1.492766E+0	1.501061E+0	1.483720E+0	1.529603E+0	1.518052E+0	1.449648E+0	1.417870E+0	1.426853E+0	1.469990E+0	1.478413E+0	1.412450E+0	1.447268E+0	1.448294E+0	1.424061E+0	1.456838E+0	1.435955E+0	1.468145E+0	1.446149E+0	1.439528E+0	1.490412E+0	1.468434E+0	1.479870E+0	1.484962E+0	1.503858E+0	1.444420E+0	1.514820E+0	1.412305E+0	1.452398E+0	1.443831E+0	1.451455E+0	1.465155E+0	1.445839E+0	1.493277E+0	1.517271E+0	1.445319E+0	1.445789E+0	1.418898E+0	1.454847E+0	1.425477E+0	1.496284E+0	1.479614E+0	1.449353E+0	1.510849E+0	1.452584E+0	1.479849E+0	1.402249E+0	1.523760E+0	1.459856E+0	1.476720E+0	1.424880E+0	1.423890E+0	1.472495E+0	1.394418E+0	1.465496E+0	1.467048E+0	1.463434E+0	1.404107E+0	1.466134E+0	1.432095E+0	1.499598E+0	1.438205E+0	1.529889E+0	1.498630E+0	1.471045E+0	1.466531E+0	1.446738E+0	1.407613E+0	1.491092E+0	1.456901E+0	1.407900E+0	1.445035E+0	1.537731E+0	1.525523E+0	1.435404E+0	1.487035E+0	1.454255E+0	1.457245E+0	1.458154E+0	1.457721E+0	1.429427E+0	1.495107E+0	1.513302E+0	1.440953E+0	1.475697E+0	1.461751E+0	1.486621E+0	1.441381E+0	1.467185E+0	1.511678E+0	1.521122E+0	1.418122E+0	1.458921E+0	1.442448E+0	1.425718E+0	1.459582E+0	1.474510E+0	1.450080E+0	1.406845E+0	1.467696E+0	1.452068E+0	1.499063E+0	1.387339E+0	1.482789E+0	1.517314E+0	1.437824E+0	1.479996E+0	1.456450E+0	1.460452E+0	1.467796E+0	1.471994E+0	1.431863E+0	1.471361E+0	1.450626E+0	1.475314E+0	1.436389E+0	1.445734E+0	1.384747E+0	1.454294E+0	1.486860E+0	1.433286E+0	1.472158E+0	1.374549E+0	1.439668E+0	1.409544E+0	1.492971E+0	1.488526E+0	1.432273E+0	1.429197E+0	1.473356E+0	1.476156E+0	1.510690E+0	1.475733E+0	1.742076E+0
5.442750E+2	1.643952E+0	1.530696E+0	1.570886E+0	1.825591E+0	1.547886E+0	1.579188E+0	1.617796E+0	1.587577E+0	1.619102E+0	1.574989E+0	1.562641E+0	1.602667E+0	1.599601E+0	1.616870E+0	1.655791E+0	1.595353E+0	1.508530E+0	1.560522E+0	1.616935E+0	1.674596E+0	1.643647E+0	1.572661E+0	1.619885E+0	1.563084E+0	1.614240E+0	1.611475E+0	1.619095E+0	1.611489E+0	1.635941E+0	1.565893E+0	1.587447E+0	1.618824E+0	1.613750E+0	1.597632E+0	1.625618E+0	1.586348E+0	1.592870E+0	1.563789E+0	1.598977E+0	1.555509E+0	1.595783E+0	1.552339E+0	1.640350E+0	1.603395E+0	1.594545E+0	1.573838E+0	1.571387E+0	1.583844E+0	1.594703E+0	1.608103E+0	1.664403E+0	1.601522E+0	1.613011E+0	1.590090E+0	1.650390E+0	1.577166E+0	1.598539E+0	1.618288E+0	1.666299E+0	1.654027E+0	1.611345E+0	1.633891E+0	1.598309E+0	1.594899E+0	1.593107E+0	1.524945E+0	1.577538E+0	1.571533E+0	1.637660E+0	1.567393E+0	1.578079E+0	1.578817E+0	1.654775E+0	1.552391E+0	1.569027E+0	1.555306E+0	1.646163E+0	1.589983E+0	1.611642E+0	1.611344E+0	1.623469E+0	1.555594E+0	1.574986E+0	1.613182E+0	1.549406E+0	1.573102E+0	1.591062E+0	1.605575E+0	1.637853E+0	1.603018E+0	1.613158E+0	1.552498E+0	1.571016E+0	1.611443E+0	1.601048E+0	1.577923E+0	1.651147E+0	1.642047E+0	1.614963E+0	1.560087E+0	1.573828E+0	1.527301E+0	1.603614E+0	1.615255E+0	1.597448E+0	1.519678E+0	1.675896E+0	1.587455E+0	1.538252E+0	1.572699E+0	1.613032E+0	1.579660E+0	1.556073E+0	1.536727E+0	1.566672E+0	1.517665E+0	1.610794E+0	1.609885E+0	1.581792E+0	1.592056E+0	1.594669E+0	1.591906E+0	1.582444E+0	1.546995E+0	1.571265E+0	1.548219E+0	1.626027E+0	1.615697E+0	1.553337E+0	1.576385E+0	1.556924E+0	1.599716E+0	1.514377E+0	1.520763E+0	1.586378E+0	1.640924E+0	1.564916E+0	1.588995E+0	1.580335E+0	1.671221E+0	1.623725E+0	1.594668E+0	1.622151E+0	1.531503E+0	1.558893E+0	1.649816E+0	1.576418E+0	1.574044E+0	1.616285E+0	1.555472E+0	1.582845E+0	1.512182E+0	1.624574E+0	1.567878E+0	1.602422E+0	1.594852E+0	1.570994E+0	1.572124E+0	1.641198E+0	1.549293E+0	1.529709E+0	1.486588E+0	1.543537E+0	1.520637E+0	1.569774E+0	1.543855E+0	1.571106E+0	1.544577E+0	1.549838E+0	1.482172E+0	1.571866E+0	1.675733E+0
5.445130E+2	1.617257E+0	1.600646E+0	1.650350E+0	1.871395E+0	1.618780E+0	1.601410E+0	1.611717E+0	1.598379E+0	1.622522E+0	1.635266E+0	1.590178E+0	1.611001E+0	1.570513E+0	1.624254E+0	1.592603E+0	1.624911E+0	1.527538E+0	1.613001E+0	1.609485E+0	1.596998E+0	1.643567E+0	1.624442E+0	1.571944E+0	1.589041E+0	1.600790E+0	1.639691E+0	1.671959E+0	1.653587E+0	1.632885E+0	1.597504E+0	1.641030E+0	1.642566E+0	1.591763E+0	1.565319E+0	1.629345E+0	1.598220E+0	1.719396E+0	1.621006E+0	1.578813E+0	1.643152E+0	1.638343E+0	1.612399E+0	1.615872E+0	1.590523E+0	1.567259E+0	1.574642E+0	1.604833E+0	1.561430E+0	1.588764E+0	1.589449E+0	1.635767E+0	1.613318E+0	1.661320E+0	1.606590E+0	1.614229E+0	1.615618E+0	1.625765E+0	1.582667E+0	1.572725E+0	1.638116E+0	1.649594E+0	1.589822E+0	1.602403E+0	1.589172E+0	1.605349E+0	1.569442E+0	1.606826E+0	1.600946E+0	1.623643E+0	1.578691E+0	1.594147E+0	1.581680E+0	1.571454E+0	1.566472E+0	1.669251E+0	1.592824E+0	1.633131E+0	1.561264E+0	1.610491E+0	1.621308E+0	1.631837E+0	1.659175E+0	1.595375E+0	1.593887E+0	1.526428E+0	1.559830E+0	1.634636E+0	1.627482E+0	1.596597E+0	1.608310E+0	1.540846E+0	1.542154E+0	1.617135E+0	1.588818E+0	1.597065E+0	1.683387E+0	1.560041E+0	1.604596E+0	1.608709E+0	1.561947E+0	1.626916E+0	1.599084E+0	1.655319E+0	1.629235E+0	1.576475E+0	1.573948E+0	1.595479E+0	1.547765E+0	1.609469E+0	1.581531E+0	1.596107E+0	1.631861E+0	1.627967E+0	1.587401E+0	1.623380E+0	1.523905E+0	1.641395E+0	1.574362E+0	1.550478E+0	1.600268E+0	1.610081E+0	1.594122E+0	1.588340E+0	1.564362E+0	1.620130E+0	1.583055E+0	1.571638E+0	1.591466E+0	1.573471E+0	1.637299E+0	1.626299E+0	1.544633E+0	1.536810E+0	1.557292E+0	1.567707E+0	1.529216E+0	1.563640E+0	1.565910E+0	1.592996E+0	1.648078E+0	1.559993E+0	1.633302E+0	1.573078E+0	1.585432E+0	1.537907E+0	1.588342E+0	1.628446E+0	1.603468E+0	1.529250E+0	1.579650E+0	1.597780E+0	1.568350E+0	1.619269E+0	1.522130E+0	1.563513E+0	1.602648E+0	1.567759E+0	1.576802E+0	1.598763E+0	1.671682E+0	1.571362E+0	1.634421E+0	1.578433E+0	1.614052E+0	1.569889E+0	1.544150E+0	1.578748E+0	1.580621E+0	1.549212E+0	1.589920E+0	1.600163E+0	1.581265E+0
5.447660E+2	1.634596E+0	1.507938E+0	1.592820E+0	1.784195E+0	1.657537E+0	1.522023E+0	1.611211E+0	1.518558E+0	1.596918E+0	1.567248E+0	1.566477E+0	1.616985E+0	1.564080E+0	1.548749E+0	1.603069E+0	1.569689E+0	1.551634E+0	1.600924E+0	1.572338E+0	1.604557E+0	1.561094E+0	1.576494E+0	1.627178E+0	1.598317E+0	1.565756E+0	1.609354E+0	1.542736E+0	1.622424E+0	1.605691E+0	1.590160E+0	1.643433E+0	1.631775E+0	1.546103E+0	1.531469E+0	1.590589E+0	1.550400E+0	1.586522E+0	1.598595E+0	1.516039E+0	1.548537E+0	1.539334E+0	1.684693E+0	1.592629E+0	1.523040E+0	1.593222E+0	1.550694E+0	1.572542E+0	1.528384E+0	1.556033E+0	1.538551E+0	1.588828E+0	1.576980E+0	1.546852E+0	1.532305E+0	1.615897E+0	1.572345E+0	1.610628E+0	1.541630E+0	1.578654E+0	1.542415E+0	1.594091E+0	1.574421E+0	1.597713E+0	1.566157E+0	1.586170E+0	1.583789E+0	1.559836E+0	1.558203E+0	1.539803E+0	1.571143E+0	1.600047E+0	1.582278E+0	1.560028E+0	1.624298E+0	1.534695E+0	1.544991E+0	1.570963E+0	1.601859E+0	1.588846E+0	1.620304E+0	1.591236E+0	1.550061E+0	1.633932E+0	1.624275E+0	1.592784E+0	1.559558E+0	1.638158E+0	1.626500E+0	1.541833E+0	1.595437E+0	1.537769E+0	1.576574E+0	1.606620E+0	1.612553E+0	1.526890E+0	1.581553E+0	1.575851E+0	1.548192E+0	1.558335E+0	1.599700E+0	1.590003E+0	1.555697E+0	1.592100E+0	1.602512E+0	1.591417E+0	1.503730E+0	1.593572E+0	1.574442E+0	1.521441E+0	1.570458E+0	1.584789E+0	1.505348E+0	1.611911E+0	1.589332E+0	1.596207E+0	1.529211E+0	1.599306E+0	1.633303E+0	1.516968E+0	1.554237E+0	1.574059E+0	1.509664E+0	1.580602E+0	1.576427E+0	1.584745E+0	1.583220E+0	1.607975E+0	1.573282E+0	1.588567E+0	1.552787E+0	1.566628E+0	1.589894E+0	1.498470E+0	1.554909E+0	1.577398E+0	1.559562E+0	1.553489E+0	1.579431E+0	1.618378E+0	1.609056E+0	1.532182E+0	1.573031E+0	1.527730E+0	1.521454E+0	1.497561E+0	1.585345E+0	1.511040E+0	1.551141E+0	1.555274E+0	1.513129E+0	1.594936E+0	1.527164E+0	1.604928E+0	1.503536E+0	1.551407E+0	1.493818E+0	1.523994E+0	1.591499E+0	1.561900E+0	1.588025E+0	1.497636E+0	1.574379E+0	1.489066E+0	1.529801E+0	1.574098E+0	1.556206E+0	1.565947E+0	1.585596E+0	1.496161E+0	1.510777E+0	1.519990E+0	1.839655E+0
5.450090E+2	1.552275E+0	1.433855E+0	1.524943E+0	1.711272E+0	1.463353E+0	1.494635E+0	1.460582E+0	1.513446E+0	1.458608E+0	1.479012E+0	1.466932E+0	1.486529E+0	1.452282E+0	1.521910E+0	1.526814E+0	1.525614E+0	1.511000E+0	1.513215E+0	1.568519E+0	1.542812E+0	1.519392E+0	1.433247E+0	1.500274E+0	1.487014E+0	1.460119E+0	1.490859E+0	1.547417E+0	1.481768E+0	1.452828E+0	1.472499E+0	1.503572E+0	1.535015E+0	1.502054E+0	1.464907E+0	1.486109E+0	1.474462E+0	1.486930E+0	1.499147E+0	1.442612E+0	1.497676E+0	1.468827E+0	1.506143E+0	1.462964E+0	1.496738E+0	1.496307E+0	1.437759E+0	1.511787E+0	1.488361E+0	1.458643E+0	1.448960E+0	1.516075E+0	1.490768E+0	1.452601E+0	1.452297E+0	1.502950E+0	1.451444E+0	1.524575E+0	1.497103E+0	1.471690E+0	1.516725E+0	1.472729E+0	1.467973E+0	1.559562E+0	1.499628E+0	1.508550E+0	1.483568E+0	1.525570E+0	1.548087E+0	1.499221E+0	1.458735E+0	1.475991E+0	1.435759E+0	1.518792E+0	1.439937E+0	1.526393E+0	1.495922E+0	1.518414E+0	1.485058E+0	1.514147E+0	1.498055E+0	1.519748E+0	1.455909E+0	1.468889E+0	1.472888E+0	1.498817E+0	1.493186E+0	1.508587E+0	1.450732E+0	1.438699E+0	1.447749E+0	1.505840E+0	1.436772E+0	1.484402E+0	1.473167E+0	1.455052E+0	1.507619E+0	1.450861E+0	1.480576E+0	1.435019E+0	1.413091E+0	1.566936E+0	1.433593E+0	1.460033E+0	1.485584E+0	1.437486E+0	1.427287E+0	1.504958E+0	1.466466E+0	1.484449E+0	1.501371E+0	1.537592E+0	1.490106E+0	1.469186E+0	1.450922E+0	1.426962E+0	1.454894E+0	1.548865E+0	1.442517E+0	1.474607E+0	1.478034E+0	1.496838E+0	1.447686E+0	1.457196E+0	1.541285E+0	1.491343E+0	1.488578E+0	1.474469E+0	1.506266E+0	1.470708E+0	1.545271E+0	1.526010E+0	1.518522E+0	1.475516E+0	1.472217E+0	1.509445E+0	1.443263E+0	1.566247E+0	1.439896E+0	1.481276E+0	1.505352E+0	1.438081E+0	1.481619E+0	1.522926E+0	1.461473E+0	1.428925E+0	1.484416E+0	1.518734E+0	1.460052E+0	1.492804E+0	1.421159E+0	1.478722E+0	1.507623E+0	1.478123E+0	1.447903E+0	1.520989E+0	1.426825E+0	1.454854E+0	1.467812E+0	1.437405E+0	1.529587E+0	1.441965E+0	1.476297E+0	1.472720E+0	1.468766E+0	1.492140E+0	1.495529E+0	1.455290E+0	1.444920E+0	1.470433E+0	1.441822E+0	1.442305E+0	1.610777E+0
5.452800E+2	1.494906E+0	1.387443E+0	1.443716E+0	1.686167E+0	1.450230E+0	1.419263E+0	1.433025E+0	1.396126E+0	1.495075E+0	1.404116E+0	1.418518E+0	1.509122E+0	1.408431E+0	1.477253E+0	1.439533E+0	1.439338E+0	1.380863E+0	1.439065E+0	1.407068E+0	1.401465E+0	1.403068E+0	1.401201E+0	1.471640E+0	1.388237E+0	1.445635E+0	1.451486E+0	1.452332E+0	1.429629E+0	1.435706E+0	1.410779E+0	1.416569E+0	1.472130E+0	1.418663E+0	1.437114E+0	1.426299E+0	1.409680E+0	1.455241E+0	1.427333E+0	1.477501E+0	1.428991E+0	1.369523E+0	1.398499E+0	1.464704E+0	1.472837E+0	1.400085E+0	1.391607E+0	1.438846E+0	1.453939E+0	1.421373E+0	1.424829E+0	1.429727E+0	1.370020E+0	1.418006E+0	1.428082E+0	1.405881E+0	1.439893E+0	1.393676E+0	1.450390E+0	1.460262E+0	1.437609E+0	1.408547E+0	1.381085E+0	1.454940E+0	1.454599E+0	1.412328E+0	1.440891E+0	1.439986E+0	1.431231E+0	1.430592E+0	1.385669E+0	1.379093E+0	1.427088E+0	1.455424E+0	1.445315E+0	1.411307E+0	1.437443E+0	1.430384E+0	1.453911E+0	1.440698E+0	1.471879E+0	1.441333E+0	1.447322E+0	1.451336E+0	1.398317E+0	1.425145E+0	1.458911E+0	1.479640E+0	1.470367E+0	1.452238E+0	1.393618E+0	1.494409E+0	1.379354E+0	1.433092E+0	1.436620E+0	1.453792E+0	1.442599E+0	1.417201E+0	1.441661E+0	1.408330E+0	1.369000E+0	1.461890E+0	1.422459E+0	1.452719E+0	1.410465E+0	1.413845E+0	1.377043E+0	1.414842E+0	1.415171E+0	1.418326E+0	1.399171E+0	1.468462E+0	1.433302E+0	1.430865E+0	1.395164E+0	1.459860E+0	1.361038E+0	1.396233E+0	1.421137E+0	1.411592E+0	1.435173E+0	1.449429E+0	1.445900E+0	1.410076E+0	1.395180E+0	1.413118E+0	1.450173E+0	1.416814E+0	1.418043E+0	1.461692E+0	1.445001E+0	1.457822E+0	1.435532E+0	1.419174E+0	1.384260E+0	1.442780E+0	1.411070E+0	1.458583E+0	1.437119E+0	1.400221E+0	1.461833E+0	1.389674E+0	1.414830E+0	1.446050E+0	1.375134E+0	1.364703E+0	1.381579E+0	1.467528E+0	1.459063E+0	1.471894E+0	1.413374E+0	1.438313E+0	1.373726E+0	1.400126E+0	1.405579E+0	1.454491E+0	1.440422E+0	1.459710E+0	1.413861E+0	1.444221E+0	1.442550E+0	1.415835E+0	1.394769E+0	1.399694E+0	1.442024E+0	1.416479E+0	1.415909E+0	1.397636E+0	1.410701E+0	1.433207E+0	1.432104E+0	1.411882E+0	1.526291E+0
5.455180E+2	1.376675E+0	1.300293E+0	1.334237E+0	1.477584E+0	1.281897E+0	1.365061E+0	1.282678E+0	1.281962E+0	1.264460E+0	1.274183E+0	1.294549E+0	1.322025E+0	1.272689E+0	1.264077E+0	1.279435E+0	1.336772E+0	1.272145E+0	1.312820E+0	1.316817E+0	1.277133E+0	1.295493E+0	1.325131E+0	1.274713E+0	1.301469E+0	1.302040E+0	1.296150E+0	1.313589E+0	1.361349E+0	1.305111E+0	1.264710E+0	1.286670E+0	1.342074E+0	1.236847E+0	1.331065E+0	1.342395E+0	1.298264E+0	1.318630E+0	1.272499E+0	1.258220E+0	1.329557E+0	1.289162E+0	1.332960E+0	1.286027E+0	1.275794E+0	1.259237E+0	1.235678E+0	1.285753E+0	1.266719E+0	1.257904E+0	1.334195E+0	1.290336E+0	1.264842E+0	1.280684E+0	1.323831E+0	1.283801E+0	1.277382E+0	1.270539E+0	1.294169E+0	1.300315E+0	1.299461E+0	1.298759E+0	1.300713E+0	1.300734E+0	1.302098E+0	1.318978E+0	1.276866E+0	1.262033E+0	1.296286E+0	1.228617E+0	1.301708E+0	1.314349E+0	1.262583E+0	1.347779E+0	1.321840E+0	1.263101E+0	1.342783E+0	1.324665E+0	1.339208E+0	1.277196E+0	1.278708E+0	1.329203E+0	1.380064E+0	1.280001E+0	1.301195E+0	1.269335E+0	1.344064E+0	1.397199E+0	1.268060E+0	1.309521E+0	1.281963E+0	1.332737E+0	1.257228E+0	1.293102E+0	1.279361E+0	1.266725E+0	1.319236E+0	1.328091E+0	1.301465E+0	1.268053E+0	1.307916E+0	1.291276E+0	1.309873E+0	1.308276E+0	1.299832E+0	1.304105E+0	1.269622E+0	1.374745E+0	1.265588E+0	1.297247E+0	1.273983E+0	1.308764E+0	1.353631E+0	1.301366E+0	1.293295E+0	1.293579E+0	1.332045E+0	1.312022E+0	1.255704E+0	1.335106E+0	1.267808E+0	1.279318E+0	1.261022E+0	1.283701E+0	1.295564E+0	1.323531E+0	1.315014E+0	1.350227E+0	1.283903E+0	1.319132E+0	1.322719E+0	1.295406E+0	1.251658E+0	1.315336E+0	1.241945E+0	1.327601E+0	1.258543E+0	1.285746E+0	1.271006E+0	1.331781E+0	1.340743E+0	1.270556E+0	1.319078E+0	1.340762E+0	1.299751E+0	1.254840E+0	1.263243E+0	1.344264E+0	1.264618E+0	1.377512E+0	1.223446E+0	1.299947E+0	1.274316E+0	1.308993E+0	1.299139E+0	1.287720E+0	1.285786E+0	1.304637E+0	1.307902E+0	1.319358E+0	1.291045E+0	1.254173E+0	1.300469E+0	1.314753E+0	1.363681E+0	1.267295E+0	1.320958E+0	1.279005E+0	1.285969E+0	1.259888E+0	1.274249E+0	1.257998E+0	1.209176E+0
5.457620E+2	1.281337E+0	1.164854E+0	1.244860E+0	1.366675E+0	1.240688E+0	1.262089E+0	1.274476E+0	1.248757E+0	1.237138E+0	1.253401E+0	1.181883E+0	1.295182E+0	1.239692E+0	1.218398E+0	1.261002E+0	1.219874E+0	1.229417E+0	1.257197E+0	1.235932E+0	1.245339E+0	1.242462E+0	1.244340E+0	1.237804E+0	1.228749E+0	1.252202E+0	1.239112E+0	1.290133E+0	1.232454E+0	1.235388E+0	1.236853E+0	1.236655E+0	1.262536E+0	1.293679E+0	1.230136E+0	1.259864E+0	1.227789E+0	1.245174E+0	1.205558E+0	1.241951E+0	1.257741E+0	1.223317E+0	1.267000E+0	1.244679E+0	1.232191E+0	1.241741E+0	1.209393E+0	1.199241E+0	1.235220E+0	1.190931E+0	1.298300E+0	1.247321E+0	1.252302E+0	1.248783E+0	1.237582E+0	1.247547E+0	1.235056E+0	1.249631E+0	1.258693E+0	1.265281E+0	1.267054E+0	1.227801E+0	1.238574E+0	1.233170E+0	1.226357E+0	1.291674E+0	1.217172E+0	1.248569E+0	1.203730E+0	1.265414E+0	1.216828E+0	1.243545E+0	1.242470E+0	1.251446E+0	1.217466E+0	1.178509E+0	1.228984E+0	1.221118E+0	1.235666E+0	1.223929E+0	1.259672E+0	1.267200E+0	1.262230E+0	1.232910E+0	1.262071E+0	1.285019E+0	1.201218E+0	1.280347E+0	1.206982E+0	1.292037E+0	1.210112E+0	1.282091E+0	1.258330E+0	1.257686E+0	1.213725E+0	1.235451E+0	1.249111E+0	1.270232E+0	1.236564E+0	1.228857E+0	1.260077E+0	1.287570E+0	1.202918E+0	1.205088E+0	1.256042E+0	1.238001E+0	1.224121E+0	1.245010E+0	1.211225E+0	1.233274E+0	1.201855E+0	1.222672E+0	1.256518E+0	1.183688E+0	1.225395E+0	1.183532E+0	1.166787E+0	1.315991E+0	1.197771E+0	1.249436E+0	1.259204E+0	1.269764E+0	1.223531E+0	1.238533E+0	1.288801E+0	1.246976E+0	1.228134E+0	1.250685E+0	1.185155E+0	1.281585E+0	1.209962E+0	1.241557E+0	1.252417E+0	1.190105E+0	1.225297E+0	1.189574E+0	1.201212E+0	1.259334E+0	1.218520E+0	1.214528E+0	1.273332E+0	1.212161E+0	1.214302E+0	1.274963E+0	1.241983E+0	1.210503E+0	1.235824E+0	1.232284E+0	1.191257E+0	1.229025E+0	1.206208E+0	1.240702E+0	1.224855E+0	1.197021E+0	1.225425E+0	1.253186E+0	1.223989E+0	1.175843E+0	1.203975E+0	1.264296E+0	1.228311E+0	1.242602E+0	1.221157E+0	1.233750E+0	1.232554E+0	1.273810E+0	1.222114E+0	1.181820E+0	1.238849E+0	1.308378E+0	1.253385E+0	1.169574E+0	1.339902E+0
5.460160E+2	1.191860E+0	1.200304E+0	1.300818E+0	1.379954E+0	1.235679E+0	1.248416E+0	1.213810E+0	1.196275E+0	1.192672E+0	1.228341E+0	1.186848E+0	1.230745E+0	1.220320E+0	1.204254E+0	1.195330E+0	1.277411E+0	1.206915E+0	1.262949E+0	1.180805E+0	1.234816E+0	1.243182E+0	1.254556E+0	1.236096E+0	1.194816E+0	1.266848E+0	1.249776E+0	1.268095E+0	1.248434E+0	1.247497E+0	1.191871E+0	1.223464E+0	1.270077E+0	1.224775E+0	1.245854E+0	1.229657E+0	1.220578E+0	1.262156E+0	1.261558E+0	1.213286E+0	1.291620E+0	1.241708E+0	1.229701E+0	1.224812E+0	1.190085E+0	1.230878E+0	1.182514E+0	1.235204E+0	1.263233E+0	1.192146E+0	1.205529E+0	1.265156E+0	1.302793E+0	1.239392E+0	1.265757E+0	1.245354E+0	1.218965E+0	1.228291E+0	1.224473E+0	1.235652E+0	1.294885E+0	1.253538E+0	1.193073E+0	1.199311E+0	1.266273E+0	1.222233E+0	1.209687E+0	1.228388E+0	1.239592E+0	1.245989E+0	1.204315E+0	1.204828E+0	1.231745E+0	1.255993E+0	1.219944E+0	1.232373E+0	1.277724E+0	1.217040E+0	1.208357E+0	1.268600E+0	1.282026E+0	1.204559E+0	1.214197E+0	1.269521E+0	1.274246E+0	1.257386E+0	1.229057E+0	1.251326E+0	1.217939E+0	1.252853E+0	1.186087E+0	1.213703E+0	1.186940E+0	1.237792E+0	1.237723E+0	1.202655E+0	1.236913E+0	1.253970E+0	1.232903E+0	1.220832E+0	1.231454E+0	1.293575E+0	1.221573E+0	1.248453E+0	1.213841E+0	1.279813E+0	1.180659E+0	1.224284E+0	1.205413E+0	1.232752E+0	1.219030E+0	1.220766E+0	1.273777E+0	1.216733E+0	1.255249E+0	1.247974E+0	1.215786E+0	1.280747E+0	1.201119E+0	1.223622E+0	1.222859E+0	1.251280E+0	1.251157E+0	1.235031E+0	1.278205E+0	1.262542E+0	1.244811E+0	1.247742E+0	1.229347E+0	1.266600E+0	1.248656E+0	1.241136E+0	1.227232E+0	1.243543E+0	1.232541E+0	1.238178E+0	1.223421E+0	1.231141E+0	1.228320E+0	1.264045E+0	1.277457E+0	1.302333E+0	1.288657E+0	1.263229E+0	1.294910E+0	1.232234E+0	1.238267E+0	1.178932E+0	1.202267E+0	1.233011E+0	1.203315E+0	1.253261E+0	1.262175E+0	1.188304E+0	1.208570E+0	1.239612E+0	1.231535E+0	1.196651E+0	1.276912E+0	1.271836E+0	1.203368E+0	1.229595E+0	1.210982E+0	1.234425E+0	1.172897E+0	1.286667E+0	1.228160E+0	1.277823E+0	1.226301E+0	1.205966E+0	1.194389E+0	1.262367E+0	1.304705E+0
5.467710E+2	1.192768E+0	1.190213E+0	1.195872E+0	1.371926E+0	1.155276E+0	1.203349E+0	1.226675E+0	1.193730E+0	1.185771E+0	1.221321E+0	1.194223E+0	1.218581E+0	1.216172E+0	1.257008E+0	1.230774E+0	1.171334E+0	1.194855E+0	1.233443E+0	1.217197E+0	1.243253E+0	1.191357E+0	1.222431E+0	1.225885E+0	1.187833E+0	1.192172E+0	1.222110E+0	1.170059E+0	1.213383E+0	1.171258E+0	1.227058E+0	1.162284E+0	1.223993E+0	1.249878E+0	1.183098E+0	1.227271E+0	1.192895E+0	1.232550E+0	1.186972E+0	1.170350E+0	1.208736E+0	1.206227E+0	1.210307E+0	1.210991E+0	1.210673E+0	1.191384E+0	1.162983E+0	1.227521E+0	1.204464E+0	1.186166E+0	1.166361E+0	1.235947E+0	1.233236E+0	1.244086E+0	1.217612E+0	1.229019E+0	1.194142E+0	1.211084E+0	1.172399E+0	1.251728E+0	1.215851E+0	1.256319E+0	1.182494E+0	1.243250E+0	1.207212E+0	1.224008E+0	1.145431E+0	1.243746E+0	1.179066E+0	1.234817E+0	1.169330E+0	1.242432E+0	1.226443E+0	1.219184E+0	1.176727E+0	1.211224E+0	1.256311E+0	1.182021E+0	1.221099E+0	1.170185E+0	1.259080E+0	1.144332E+0	1.167797E+0	1.276182E+0	1.245422E+0	1.195765E+0	1.191210E+0	1.231099E+0	1.222978E+0	1.216175E+0	1.187109E+0	1.205691E+0	1.223538E+0	1.227175E+0	1.156545E+0	1.175983E+0	1.215428E+0	1.210343E+0	1.210171E+0	1.149616E+0	1.205248E+0	1.268408E+0	1.172024E+0	1.242323E+0	1.192903E+0	1.232027E+0	1.228914E+0	1.256569E+0	1.224018E+0	1.181521E+0	1.235134E+0	1.223575E+0	1.265142E+0	1.189115E+0	1.244895E+0	1.201310E+0	1.197405E+0	1.193182E+0	1.265601E+0	1.216226E+0	1.251591E+0	1.239942E+0	1.189063E+0	1.274267E+0	1.242340E+0	1.204433E+0	1.224946E+0	1.246122E+0	1.182621E+0	1.224323E+0	1.174575E+0	1.207943E+0	1.240048E+0	1.256867E+0	1.202579E+0	1.189331E+0	1.169237E+0	1.209896E+0	1.192678E+0	1.199434E+0	1.307388E+0	1.234070E+0	1.199455E+0	1.184593E+0	1.208991E+0	1.199738E+0	1.198052E+0	1.197256E+0	1.252996E+0	1.177976E+0	1.195696E+0	1.232412E+0	1.152456E+0	1.179270E+0	1.187011E+0	1.219185E+0	1.223488E+0	1.143811E+0	1.182924E+0	1.185372E+0	1.238521E+0	1.140914E+0	1.187512E+0	1.239183E+0	1.282471E+0	1.269739E+0	1.200554E+0	1.238182E+0	1.210442E+0	1.252614E+0	1.187845E+0	1.238644E+0	1.261664E+0
5.475230E+2	1.283590E+0	1.282913E+0	1.327276E+0	1.464116E+0	1.306133E+0	1.382068E+0	1.383660E+0	1.304697E+0	1.361254E+0	1.293434E+0	1.282390E+0	1.349590E+0	1.329692E+0	1.335138E+0	1.324387E+0	1.368157E+0	1.267947E+0	1.343277E+0	1.318753E+0	1.295030E+0	1.327870E+0	1.318490E+0	1.342051E+0	1.344978E+0	1.335912E+0	1.296125E+0	1.342082E+0	1.363619E+0	1.383671E+0	1.339127E+0	1.360802E+0	1.416020E+0	1.333582E+0	1.326298E+0	1.303700E+0	1.292171E+0	1.337158E+0	1.330251E+0	1.352748E+0	1.374627E+0	1.329016E+0	1.362999E+0	1.313355E+0	1.311430E+0	1.285174E+0	1.282793E+0	1.349886E+0	1.307896E+0	1.299350E+0	1.367801E+0	1.279469E+0	1.337800E+0	1.342925E+0	1.289415E+0	1.360937E+0	1.408106E+0	1.371170E+0	1.372777E+0	1.397618E+0	1.357394E+0	1.317674E+0	1.262381E+0	1.288102E+0	1.375768E+0	1.314895E+0	1.335336E+0	1.348432E+0	1.343963E+0	1.303035E+0	1.331476E+0	1.405041E+0	1.352970E+0	1.337087E+0	1.275686E+0	1.316107E+0	1.311711E+0	1.335080E+0	1.366868E+0	1.341783E+0	1.369056E+0	1.339526E+0	1.341323E+0	1.298909E+0	1.306392E+0	1.345066E+0	1.310772E+0	1.415959E+0	1.292264E+0	1.356240E+0	1.328287E+0	1.347498E+0	1.318992E+0	1.312508E+0	1.316600E+0	1.281213E+0	1.315524E+0	1.332843E+0	1.323144E+0	1.330537E+0	1.326629E+0	1.322860E+0	1.353861E+0	1.323303E+0	1.293839E+0	1.323342E+0	1.291102E+0	1.326400E+0	1.333896E+0	1.330453E+0	1.345065E+0	1.306946E+0	1.374761E+0	1.320042E+0	1.331192E+0	1.297553E+0	1.288044E+0	1.323284E+0	1.317297E+0	1.327578E+0	1.344993E+0	1.363704E+0	1.303077E+0	1.329782E+0	1.356417E+0	1.324435E+0	1.348888E+0	1.338388E+0	1.334756E+0	1.306458E+0	1.318884E+0	1.280857E+0	1.323773E+0	1.276242E+0	1.286101E+0	1.332005E+0	1.293503E+0	1.352678E+0	1.297470E+0	1.326197E+0	1.388181E+0	1.318247E+0	1.313438E+0	1.307917E+0	1.321740E+0	1.339832E+0	1.340907E+0	1.334883E+0	1.396950E+0	1.367235E+0	1.314623E+0	1.332832E+0	1.272334E+0	1.325994E+0	1.245633E+0	1.369051E+0	1.322805E+0	1.300771E+0	1.306055E+0	1.288436E+0	1.395014E+0	1.370814E+0	1.255630E+0	1.329786E+0	1.387290E+0	1.274443E+0	1.295100E+0	1.299172E+0	1.370426E+0	1.389128E+0	1.346954E+0	1.210577E+0	1.232724E+0
5.482600E+2	1.400153E+0	1.350957E+0	1.466864E+0	1.637089E+0	1.374317E+0	1.384894E+0	1.420627E+0	1.417704E+0	1.475740E+0	1.397490E+0	1.393691E+0	1.521101E+0	1.389963E+0	1.414890E+0	1.437721E+0	1.412181E+0	1.466397E+0	1.486318E+0	1.381916E+0	1.407891E+0	1.397353E+0	1.418275E+0	1.404162E+0	1.440691E+0	1.404868E+0	1.442318E+0	1.425273E+0	1.436268E+0	1.400754E+0	1.368348E+0	1.382337E+0	1.472133E+0	1.429114E+0	1.404108E+0	1.353373E+0	1.415731E+0	1.411655E+0	1.410931E+0	1.349918E+0	1.465905E+0	1.458312E+0	1.436004E+0	1.435450E+0	1.388396E+0	1.439240E+0	1.377976E+0	1.375029E+0	1.401435E+0	1.425200E+0	1.407837E+0	1.432901E+0	1.431575E+0	1.459189E+0	1.403225E+0	1.393030E+0	1.445381E+0	1.382800E+0	1.436757E+0	1.405169E+0	1.428243E+0	1.426068E+0	1.384846E+0	1.394701E+0	1.452694E+0	1.425011E+0	1.430088E+0	1.410204E+0	1.449910E+0	1.467962E+0	1.347064E+0	1.449848E+0	1.442359E+0	1.443043E+0	1.377472E+0	1.405050E+0	1.364551E+0	1.421820E+0	1.394414E+0	1.413111E+0	1.486703E+0	1.425363E+0	1.405971E+0	1.413137E+0	1.447120E+0	1.450724E+0	1.413761E+0	1.386144E+0	1.407579E+0	1.421722E+0	1.383464E+0	1.433685E+0	1.405974E+0	1.461356E+0	1.394374E+0	1.402674E+0	1.443081E+0	1.400602E+0	1.389749E+0	1.395353E+0	1.339932E+0	1.483674E+0	1.408971E+0	1.413846E+0	1.453938E+0	1.409965E+0	1.356804E+0	1.446669E+0	1.438633E+0	1.427321E+0	1.404795E+0	1.388134E+0	1.430984E+0	1.396307E+0	1.405150E+0	1.321241E+0	1.366336E+0	1.520481E+0	1.368576E+0	1.371148E+0	1.385348E+0	1.405664E+0	1.366502E+0	1.404049E+0	1.429836E+0	1.380164E+0	1.422503E+0	1.403261E+0	1.377866E+0	1.451927E+0	1.406226E+0	1.453360E+0	1.387261E+0	1.372977E+0	1.408024E+0	1.404927E+0	1.406580E+0	1.407310E+0	1.399990E+0	1.437365E+0	1.448594E+0	1.391145E+0	1.417542E+0	1.395273E+0	1.458128E+0	1.369825E+0	1.433732E+0	1.367505E+0	1.463983E+0	1.406322E+0	1.336473E+0	1.393404E+0	1.395767E+0	1.386385E+0	1.393536E+0	1.404134E+0	1.440708E+0	1.395212E+0	1.383383E+0	1.384786E+0	1.455666E+0	1.346805E+0	1.362507E+0	1.366888E+0	1.461007E+0	1.395857E+0	1.336176E+0	1.389702E+0	1.445802E+0	1.399062E+0	1.436104E+0	1.348963E+0	1.552867E+0
5.490100E+2	1.440703E+0	1.391727E+0	1.424961E+0	1.676929E+0	1.413277E+0	1.440535E+0	1.380351E+0	1.383903E+0	1.375369E+0	1.464989E+0	1.420363E+0	1.475770E+0	1.451909E+0	1.448935E+0	1.426207E+0	1.448003E+0	1.347303E+0	1.454761E+0	1.449277E+0	1.446789E+0	1.496186E+0	1.447896E+0	1.457303E+0	1.406498E+0	1.490513E+0	1.390923E+0	1.441323E+0	1.510252E+0	1.461438E+0	1.388391E+0	1.427139E+0	1.505915E+0	1.396478E+0	1.413613E+0	1.399571E+0	1.461227E+0	1.429159E+0	1.436331E+0	1.412572E+0	1.402975E+0	1.435810E+0	1.473452E+0	1.416195E+0	1.479472E+0	1.380983E+0	1.405439E+0	1.410336E+0	1.376803E+0	1.416771E+0	1.425330E+0	1.427944E+0	1.405605E+0	1.425851E+0	1.406525E+0	1.443517E+0	1.449300E+0	1.427056E+0	1.443815E+0	1.406775E+0	1.503494E+0	1.499242E+0	1.381460E+0	1.428181E+0	1.442401E+0	1.379781E+0	1.395365E+0	1.458115E+0	1.452133E+0	1.436430E+0	1.427158E+0	1.455660E+0	1.485373E+0	1.406142E+0	1.373640E+0	1.445734E+0	1.412618E+0	1.427164E+0	1.394156E+0	1.353842E+0	1.407713E+0	1.465471E+0	1.479370E+0	1.421296E+0	1.399532E+0	1.432367E+0	1.381623E+0	1.434242E+0	1.474192E+0	1.474644E+0	1.428767E+0	1.431838E+0	1.385305E+0	1.377861E+0	1.441847E+0	1.411138E+0	1.435366E+0	1.387092E+0	1.394881E+0	1.410906E+0	1.336731E+0	1.441213E+0	1.430686E+0	1.417238E+0	1.397638E+0	1.422291E+0	1.353474E+0	1.429108E+0	1.397517E+0	1.443554E+0	1.418037E+0	1.409042E+0	1.432515E+0	1.411493E+0	1.396707E+0	1.461178E+0	1.426366E+0	1.412329E+0	1.389783E+0	1.394805E+0	1.427084E+0	1.414061E+0	1.407315E+0	1.394530E+0	1.452195E+0	1.398513E+0	1.394667E+0	1.413018E+0	1.421483E+0	1.460037E+0	1.461501E+0	1.421463E+0	1.446591E+0	1.366370E+0	1.394599E+0	1.385302E+0	1.467763E+0	1.475882E+0	1.388225E+0	1.377058E+0	1.460665E+0	1.425899E+0	1.430042E+0	1.403064E+0	1.395228E+0	1.406568E+0	1.405213E+0	1.342781E+0	1.409800E+0	1.404700E+0	1.399900E+0	1.414892E+0	1.393584E+0	1.407414E+0	1.402243E+0	1.373339E+0	1.415747E+0	1.394176E+0	1.439691E+0	1.325439E+0	1.470172E+0	1.371053E+0	1.434486E+0	1.392050E+0	1.446140E+0	1.414665E+0	1.441086E+0	1.438871E+0	1.412150E+0	1.405920E+0	1.403128E+0	1.396564E+0	1.539446E+0
5.497680E+2	1.284038E+0	1.242296E+0	1.274681E+0	1.497371E+0	1.309321E+0	1.321596E+0	1.296965E+0	1.294687E+0	1.281060E+0	1.304293E+0	1.291475E+0	1.354092E+0	1.277392E+0	1.287328E+0	1.330843E+0	1.285555E+0	1.282198E+0	1.349391E+0	1.290473E+0	1.342615E+0	1.294088E+0	1.330657E+0	1.320008E+0	1.343726E+0	1.370058E+0	1.295599E+0	1.317262E+0	1.349145E+0	1.271813E+0	1.314632E+0	1.307234E+0	1.347173E+0	1.296018E+0	1.315088E+0	1.305359E+0	1.277090E+0	1.329211E+0	1.267616E+0	1.260941E+0	1.302408E+0	1.335120E+0	1.309603E+0	1.333819E+0	1.324160E+0	1.292042E+0	1.281216E+0	1.290248E+0	1.368399E+0	1.263857E+0	1.278543E+0	1.280104E+0	1.293273E+0	1.340166E+0	1.324314E+0	1.341344E+0	1.265538E+0	1.291393E+0	1.276344E+0	1.293694E+0	1.353606E+0	1.331865E+0	1.316304E+0	1.330053E+0	1.353707E+0	1.297442E+0	1.312320E+0	1.290031E+0	1.318376E+0	1.343431E+0	1.313504E+0	1.330772E+0	1.345793E+0	1.309059E+0	1.296363E+0	1.317360E+0	1.290853E+0	1.334973E+0	1.281960E+0	1.302222E+0	1.379357E+0	1.324362E+0	1.287950E+0	1.327253E+0	1.307143E+0	1.340344E+0	1.317706E+0	1.318705E+0	1.370062E+0	1.286698E+0	1.364342E+0	1.294189E+0	1.319900E+0	1.332486E+0	1.272964E+0	1.314329E+0	1.324298E+0	1.317780E+0	1.293726E+0	1.282429E+0	1.310349E+0	1.308108E+0	1.304003E+0	1.302805E+0	1.302843E+0	1.334706E+0	1.263100E+0	1.318987E+0	1.293878E+0	1.302975E+0	1.310672E+0	1.285535E+0	1.330626E+0	1.289150E+0	1.327706E+0	1.289143E+0	1.317327E+0	1.309396E+0	1.294644E+0	1.284797E+0	1.294613E+0	1.328850E+0	1.306199E+0	1.304123E+0	1.282472E+0	1.299773E+0	1.288555E+0	1.317284E+0	1.342472E+0	1.330083E+0	1.285196E+0	1.267533E+0	1.382598E+0	1.283705E+0	1.295816E+0	1.298716E+0	1.342957E+0	1.306399E+0	1.304182E+0	1.276089E+0	1.315350E+0	1.330004E+0	1.314307E+0	1.295147E+0	1.336682E+0	1.308448E+0	1.304693E+0	1.284524E+0	1.313277E+0	1.330526E+0	1.302386E+0	1.318712E+0	1.316846E+0	1.319618E+0	1.271069E+0	1.213228E+0	1.317184E+0	1.292788E+0	1.314635E+0	1.274109E+0	1.373178E+0	1.229280E+0	1.327012E+0	1.263871E+0	1.298879E+0	1.336998E+0	1.323442E+0	1.291467E+0	1.294388E+0	1.311479E+0	1.312306E+0	1.296817E+0	1.446281E+0
5.505060E+2	1.354776E+0	1.289383E+0	1.379222E+0	1.499783E+0	1.332377E+0	1.275350E+0	1.356668E+0	1.304680E+0	1.365100E+0	1.353002E+0	1.325039E+0	1.380322E+0	1.355708E+0	1.329403E+0	1.320901E+0	1.302140E+0	1.335507E+0	1.358765E+0	1.342083E+0	1.288043E+0	1.297263E+0	1.305969E+0	1.327034E+0	1.342170E+0	1.350911E+0	1.328616E+0	1.356656E+0	1.326998E+0	1.330604E+0	1.344728E+0	1.305117E+0	1.365588E+0	1.302582E+0	1.312193E+0	1.347108E+0	1.330179E+0	1.336884E+0	1.378225E+0	1.340205E+0	1.311761E+0	1.332331E+0	1.286286E+0	1.324087E+0	1.347456E+0	1.331730E+0	1.277755E+0	1.332878E+0	1.356517E+0	1.325413E+0	1.345124E+0	1.324689E+0	1.379266E+0	1.389053E+0	1.314570E+0	1.348147E+0	1.362071E+0	1.297047E+0	1.322449E+0	1.337217E+0	1.368063E+0	1.349250E+0	1.313732E+0	1.307054E+0	1.364148E+0	1.327936E+0	1.285491E+0	1.320566E+0	1.298540E+0	1.311522E+0	1.391073E+0	1.331816E+0	1.300551E+0	1.396957E+0	1.308095E+0	1.335033E+0	1.344197E+0	1.336819E+0	1.313903E+0	1.326621E+0	1.387453E+0	1.279983E+0	1.335904E+0	1.363300E+0	1.348380E+0	1.320782E+0	1.294099E+0	1.407132E+0	1.311606E+0	1.349136E+0	1.344598E+0	1.294858E+0	1.320739E+0	1.359800E+0	1.343155E+0	1.342953E+0	1.323931E+0	1.293586E+0	1.324083E+0	1.340845E+0	1.317648E+0	1.326101E+0	1.335559E+0	1.295187E+0	1.321963E+0	1.319428E+0	1.292316E+0	1.377613E+0	1.301401E+0	1.312298E+0	1.308804E+0	1.302792E+0	1.327684E+0	1.297150E+0	1.322783E+0	1.328306E+0	1.312705E+0	1.331352E+0	1.324171E+0	1.288470E+0	1.341528E+0	1.359643E+0	1.344678E+0	1.318491E+0	1.303659E+0	1.352403E+0	1.330483E+0	1.306561E+0	1.375139E+0	1.298270E+0	1.294893E+0	1.320663E+0	1.349580E+0	1.282148E+0	1.282034E+0	1.294011E+0	1.328525E+0	1.361225E+0	1.301901E+0	1.213713E+0	1.363312E+0	1.319804E+0	1.356749E+0	1.298270E+0	1.332601E+0	1.287292E+0	1.293864E+0	1.349545E+0	1.337574E+0	1.375511E+0	1.264142E+0	1.344545E+0	1.329116E+0	1.324925E+0	1.287842E+0	1.322581E+0	1.344702E+0	1.294390E+0	1.330162E+0	1.255151E+0	1.299709E+0	1.285938E+0	1.330100E+0	1.295289E+0	1.362076E+0	1.391132E+0	1.298575E+0	1.338447E+0	1.296078E+0	1.337824E+0	1.282959E+0	1.421811E+0	1.523888E+0
5.512620E+2	1.339700E+0	1.336533E+0	1.395856E+0	1.432625E+0	1.323391E+0	1.370079E+0	1.300379E+0	1.288497E+0	1.271139E+0	1.333385E+0	1.272523E+0	1.335835E+0	1.298308E+0	1.359699E+0	1.314851E+0	1.321888E+0	1.313806E+0	1.346652E+0	1.318734E+0	1.376449E+0	1.367797E+0	1.327200E+0	1.341657E+0	1.330562E+0	1.358048E+0	1.296743E+0	1.379888E+0	1.376430E+0	1.355033E+0	1.330414E+0	1.331150E+0	1.307386E+0	1.332667E+0	1.327157E+0	1.318147E+0	1.244879E+0	1.388357E+0	1.308351E+0	1.299646E+0	1.304051E+0	1.328055E+0	1.321170E+0	1.314680E+0	1.327054E+0	1.326277E+0	1.338298E+0	1.325143E+0	1.314170E+0	1.334301E+0	1.307366E+0	1.363427E+0	1.267131E+0	1.383448E+0	1.328039E+0	1.356889E+0	1.348996E+0	1.346068E+0	1.335963E+0	1.302723E+0	1.321861E+0	1.341287E+0	1.267957E+0	1.347127E+0	1.336630E+0	1.350770E+0	1.299907E+0	1.369252E+0	1.307828E+0	1.355115E+0	1.269467E+0	1.370009E+0	1.324521E+0	1.361331E+0	1.329888E+0	1.252660E+0	1.357949E+0	1.371957E+0	1.348250E+0	1.326911E+0	1.294481E+0	1.297783E+0	1.372211E+0	1.322190E+0	1.297557E+0	1.324367E+0	1.358568E+0	1.276913E+0	1.364522E+0	1.319319E+0	1.334511E+0	1.332255E+0	1.358376E+0	1.329951E+0	1.326302E+0	1.293584E+0	1.347404E+0	1.321585E+0	1.274328E+0	1.278101E+0	1.309427E+0	1.379096E+0	1.329795E+0	1.334967E+0	1.327323E+0	1.338170E+0	1.298015E+0	1.345828E+0	1.325374E+0	1.296839E+0	1.285904E+0	1.337270E+0	1.330107E+0	1.290234E+0	1.349696E+0	1.303923E+0	1.358513E+0	1.355207E+0	1.335351E+0	1.308309E+0	1.340197E+0	1.314914E+0	1.303395E+0	1.338981E+0	1.317499E+0	1.346597E+0	1.337496E+0	1.341040E+0	1.318773E+0	1.326143E+0	1.268131E+0	1.314758E+0	1.334750E+0	1.296273E+0	1.266296E+0	1.318312E+0	1.328254E+0	1.374831E+0	1.355997E+0	1.293977E+0	1.364827E+0	1.341861E+0	1.268910E+0	1.322085E+0	1.317591E+0	1.339927E+0	1.305854E+0	1.266806E+0	1.283171E+0	1.319848E+0	1.376240E+0	1.363336E+0	1.344392E+0	1.302585E+0	1.299829E+0	1.320782E+0	1.324276E+0	1.321145E+0	1.358946E+0	1.268756E+0	1.322808E+0	1.328846E+0	1.356193E+0	1.299699E+0	1.371433E+0	1.351023E+0	1.300434E+0	1.335755E+0	1.342010E+0	1.280839E+0	1.403479E+0	1.312819E+0	1.338592E+0
5.520150E+2	1.314458E+0	1.241280E+0	1.367559E+0	1.391789E+0	1.298257E+0	1.291897E+0	1.327548E+0	1.282813E+0	1.276397E+0	1.315999E+0	1.231380E+0	1.320387E+0	1.283773E+0	1.320756E+0	1.236576E+0	1.306685E+0	1.295216E+0	1.356069E+0	1.309684E+0	1.307011E+0	1.367769E+0	1.344796E+0	1.323368E+0	1.293211E+0	1.249095E+0	1.287146E+0	1.357630E+0	1.357312E+0	1.299725E+0	1.290091E+0	1.315156E+0	1.259745E+0	1.359638E+0	1.297210E+0	1.295347E+0	1.282285E+0	1.287087E+0	1.265483E+0	1.313609E+0	1.307856E+0	1.306186E+0	1.327228E+0	1.297184E+0	1.311358E+0	1.285481E+0	1.239191E+0	1.253710E+0	1.296944E+0	1.280614E+0	1.287055E+0	1.339376E+0	1.250794E+0	1.333903E+0	1.305311E+0	1.316484E+0	1.282169E+0	1.346467E+0	1.260806E+0	1.282890E+0	1.315226E+0	1.293363E+0	1.268118E+0	1.267856E+0	1.319037E+0	1.308381E+0	1.270143E+0	1.257172E+0	1.341509E+0	1.298839E+0	1.316541E+0	1.290479E+0	1.281558E+0	1.335733E+0	1.294083E+0	1.246593E+0	1.274672E+0	1.278931E+0	1.226273E+0	1.296820E+0	1.301351E+0	1.327035E+0	1.331561E+0	1.275521E+0	1.274833E+0	1.270678E+0	1.264436E+0	1.334313E+0	1.289065E+0	1.381370E+0	1.266248E+0	1.263025E+0	1.276443E+0	1.236650E+0	1.285427E+0	1.265993E+0	1.334696E+0	1.311544E+0	1.330400E+0	1.319906E+0	1.275162E+0	1.362210E+0	1.288087E+0	1.308234E+0	1.293557E+0	1.319150E+0	1.256246E+0	1.293108E+0	1.231223E+0	1.298095E+0	1.288517E+0	1.297659E+0	1.317153E+0	1.317610E+0	1.278929E+0	1.302051E+0	1.302368E+0	1.254128E+0	1.306628E+0	1.326737E+0	1.321758E+0	1.360663E+0	1.298480E+0	1.263104E+0	1.277999E+0	1.313793E+0	1.309113E+0	1.315542E+0	1.325270E+0	1.310043E+0	1.288570E+0	1.279075E+0	1.317705E+0	1.269953E+0	1.294733E+0	1.294951E+0	1.253390E+0	1.348253E+0	1.300091E+0	1.316207E+0	1.318210E+0	1.353324E+0	1.345820E+0	1.292382E+0	1.310595E+0	1.277675E+0	1.319877E+0	1.296249E+0	1.253609E+0	1.361451E+0	1.253248E+0	1.293994E+0	1.283154E+0	1.296089E+0	1.262502E+0	1.244891E+0	1.317805E+0	1.317538E+0	1.256027E+0	1.280810E+0	1.336622E+0	1.282145E+0	1.311869E+0	1.318239E+0	1.258454E+0	1.291755E+0	1.276244E+0	1.314379E+0	1.257883E+0	1.309303E+0	1.222689E+0	1.156883E+0	1.434230E+0
5.527650E+2	1.289125E+0	1.270641E+0	1.352131E+0	1.422588E+0	1.316877E+0	1.275513E+0	1.305591E+0	1.332905E+0	1.302386E+0	1.308489E+0	1.241789E+0	1.333911E+0	1.276146E+0	1.250162E+0	1.284019E+0	1.341409E+0	1.310127E+0	1.306674E+0	1.264244E+0	1.276970E+0	1.328894E+0	1.282857E+0	1.336611E+0	1.247482E+0	1.273176E+0	1.337102E+0	1.366624E+0	1.275860E+0	1.287510E+0	1.303944E+0	1.310231E+0	1.325929E+0	1.346622E+0	1.284068E+0	1.296477E+0	1.273833E+0	1.302338E+0	1.282457E+0	1.307858E+0	1.288620E+0	1.263434E+0	1.325999E+0	1.277271E+0	1.300074E+0	1.330039E+0	1.293136E+0	1.310191E+0	1.283203E+0	1.301606E+0	1.250022E+0	1.313310E+0	1.317087E+0	1.275314E+0	1.290290E+0	1.307358E+0	1.290741E+0	1.261486E+0	1.270913E+0	1.280121E+0	1.256600E+0	1.292460E+0	1.289442E+0	1.237191E+0	1.238933E+0	1.311293E+0	1.285537E+0	1.322607E+0	1.311848E+0	1.273592E+0	1.299424E+0	1.299390E+0	1.272308E+0	1.317005E+0	1.291853E+0	1.288300E+0	1.291930E+0	1.267209E+0	1.302766E+0	1.252149E+0	1.268556E+0	1.272379E+0	1.353292E+0	1.316890E+0	1.283918E+0	1.284318E+0	1.310265E+0	1.321139E+0	1.289461E+0	1.250145E+0	1.303661E+0	1.234972E+0	1.212638E+0	1.335070E+0	1.310462E+0	1.298115E+0	1.283030E+0	1.331884E+0	1.244307E+0	1.258764E+0	1.273213E+0	1.299070E+0	1.257360E+0	1.298176E+0	1.281007E+0	1.290400E+0	1.235879E+0	1.279115E+0	1.226617E+0	1.327974E+0	1.296429E+0	1.309838E+0	1.269654E+0	1.295996E+0	1.301694E+0	1.279649E+0	1.299443E+0	1.306079E+0	1.278901E+0	1.271853E+0	1.290998E+0	1.292967E+0	1.291166E+0	1.238919E+0	1.321072E+0	1.313213E+0	1.331718E+0	1.278286E+0	1.319016E+0	1.352066E+0	1.248529E+0	1.272974E+0	1.294943E+0	1.283702E+0	1.270797E+0	1.244545E+0	1.282109E+0	1.332573E+0	1.251057E+0	1.283464E+0	1.265681E+0	1.254619E+0	1.305493E+0	1.261715E+0	1.279313E+0	1.281851E+0	1.322222E+0	1.263149E+0	1.265869E+0	1.272163E+0	1.237022E+0	1.343039E+0	1.218532E+0	1.267748E+0	1.296841E+0	1.300064E+0	1.317296E+0	1.299742E+0	1.270632E+0	1.283004E+0	1.326449E+0	1.246799E+0	1.314661E+0	1.277760E+0	1.317198E+0	1.279222E+0	1.281863E+0	1.247607E+0	1.278524E+0	1.357151E+0	1.245090E+0	1.265689E+0	1.351724E+0
5.535100E+2	1.212209E+0	1.201827E+0	1.239461E+0	1.339070E+0	1.226989E+0	1.213139E+0	1.234043E+0	1.252778E+0	1.241420E+0	1.247232E+0	1.158597E+0	1.232047E+0	1.223223E+0	1.227303E+0	1.206226E+0	1.227193E+0	1.241020E+0	1.270961E+0	1.282380E+0	1.220866E+0	1.263546E+0	1.221225E+0	1.247137E+0	1.235112E+0	1.187376E+0	1.249409E+0	1.210415E+0	1.214830E+0	1.216867E+0	1.170849E+0	1.244162E+0	1.247234E+0	1.250745E+0	1.247550E+0	1.285883E+0	1.206315E+0	1.232890E+0	1.237896E+0	1.206556E+0	1.212346E+0	1.224227E+0	1.237442E+0	1.205877E+0	1.290092E+0	1.227749E+0	1.192505E+0	1.172834E+0	1.174623E+0	1.233044E+0	1.220253E+0	1.208118E+0	1.260860E+0	1.250063E+0	1.206165E+0	1.210953E+0	1.212737E+0	1.237986E+0	1.234691E+0	1.213429E+0	1.247397E+0	1.304580E+0	1.248132E+0	1.222423E+0	1.211196E+0	1.255195E+0	1.226434E+0	1.295068E+0	1.238598E+0	1.229204E+0	1.225355E+0	1.214624E+0	1.235919E+0	1.268852E+0	1.234521E+0	1.200116E+0	1.226113E+0	1.184965E+0	1.204471E+0	1.259466E+0	1.248641E+0	1.229041E+0	1.263867E+0	1.245332E+0	1.269693E+0	1.227858E+0	1.246788E+0	1.266385E+0	1.241164E+0	1.236455E+0	1.234495E+0	1.250817E+0	1.205839E+0	1.225773E+0	1.242085E+0	1.226049E+0	1.207831E+0	1.237566E+0	1.256614E+0	1.232927E+0	1.248511E+0	1.287396E+0	1.244564E+0	1.231116E+0	1.245168E+0	1.223609E+0	1.207524E+0	1.220395E+0	1.216702E+0	1.232071E+0	1.215797E+0	1.201695E+0	1.226467E+0	1.224505E+0	1.195868E+0	1.258132E+0	1.154922E+0	1.258016E+0	1.244585E+0	1.182072E+0	1.240625E+0	1.228264E+0	1.190756E+0	1.187417E+0	1.218696E+0	1.197728E+0	1.193902E+0	1.205926E+0	1.225520E+0	1.216595E+0	1.201488E+0	1.189465E+0	1.192393E+0	1.235301E+0	1.178798E+0	1.164725E+0	1.255161E+0	1.253525E+0	1.162419E+0	1.216534E+0	1.211655E+0	1.240586E+0	1.241674E+0	1.219918E+0	1.196601E+0	1.274542E+0	1.237069E+0	1.204912E+0	1.222027E+0	1.245309E+0	1.204237E+0	1.228358E+0	1.253450E+0	1.228134E+0	1.255442E+0	1.208403E+0	1.259925E+0	1.185260E+0	1.214227E+0	1.231076E+0	1.272658E+0	1.197820E+0	1.217824E+0	1.219908E+0	1.219863E+0	1.224857E+0	1.231859E+0	1.204306E+0	1.183361E+0	1.214905E+0	1.306758E+0	1.221134E+0	1.291103E+0
5.542530E+2	1.126025E+0	1.070568E+0	1.110684E+0	1.141513E+0	1.107674E+0	1.106492E+0	1.126831E+0	1.093981E+0	1.074695E+0	1.110905E+0	1.123713E+0	1.136541E+0	1.142728E+0	1.125619E+0	1.118488E+0	1.138818E+0	1.142794E+0	1.130464E+0	1.127635E+0	1.110418E+0	1.147090E+0	1.189885E+0	1.153037E+0	1.139851E+0	1.085879E+0	1.175288E+0	1.165756E+0	1.131053E+0	1.151250E+0	1.179626E+0	1.136246E+0	1.154402E+0	1.111908E+0	1.083740E+0	1.168430E+0	1.112214E+0	1.152289E+0	1.145752E+0	1.098097E+0	1.132845E+0	1.169381E+0	1.150761E+0	1.154663E+0	1.121503E+0	1.097184E+0	1.110308E+0	1.111632E+0	1.132246E+0	1.133783E+0	1.118452E+0	1.121855E+0	1.125004E+0	1.147044E+0	1.139772E+0	1.161615E+0	1.155549E+0	1.128751E+0	1.100625E+0	1.112550E+0	1.160469E+0	1.119832E+0	1.128017E+0	1.121034E+0	1.154354E+0	1.181934E+0	1.106755E+0	1.121095E+0	1.127237E+0	1.146083E+0	1.114403E+0	1.165597E+0	1.088715E+0	1.146566E+0	1.137459E+0	1.112261E+0	1.100039E+0	1.114729E+0	1.139735E+0	1.072358E+0	1.175974E+0	1.165373E+0	1.107808E+0	1.149418E+0	1.126927E+0	1.130859E+0	1.124954E+0	1.197214E+0	1.152433E+0	1.185349E+0	1.117333E+0	1.139080E+0	1.102237E+0	1.166516E+0	1.106940E+0	1.130068E+0	1.121501E+0	1.115415E+0	1.151641E+0	1.112426E+0	1.153102E+0	1.210572E+0	1.133047E+0	1.129295E+0	1.072824E+0	1.161084E+0	1.123348E+0	1.175266E+0	1.111433E+0	1.151631E+0	1.161689E+0	1.160324E+0	1.081021E+0	1.139144E+0	1.153146E+0	1.135738E+0	1.125085E+0	1.120527E+0	1.156193E+0	1.092758E+0	1.142720E+0	1.120391E+0	1.146108E+0	1.134787E+0	1.128770E+0	1.142460E+0	1.110195E+0	1.129283E+0	1.151343E+0	1.165902E+0	1.140762E+0	1.132399E+0	1.155179E+0	1.113893E+0	1.160513E+0	1.143107E+0	1.121901E+0	1.169756E+0	1.068167E+0	1.139533E+0	1.139473E+0	1.110581E+0	1.151034E+0	1.113806E+0	1.135281E+0	1.120369E+0	1.153095E+0	1.158871E+0	1.112514E+0	1.078433E+0	1.106776E+0	1.125187E+0	1.084303E+0	1.139290E+0	1.131594E+0	1.101506E+0	1.114855E+0	1.156348E+0	1.134275E+0	1.068522E+0	1.104931E+0	1.116438E+0	1.128745E+0	1.132998E+0	1.126425E+0	1.173057E+0	1.099324E+0	1.120559E+0	1.161037E+0	1.174435E+0	1.123130E+0	1.037788E+0	1.127513E+0
5.550140E+2	1.016959E+0	9.887837E-1	1.002376E+0	9.950935E-1	9.881898E-1	9.582445E-1	9.575039E-1	9.586899E-1	1.045939E+0	1.023019E+0	1.012428E+0	1.007663E+0	9.789085E-1	1.015045E+0	1.004554E+0	9.836509E-1	1.009970E+0	9.900298E-1	1.045627E+0	1.010831E+0	9.921242E-1	9.605431E-1	1.005445E+0	1.006959E+0	1.020705E+0	1.008774E+0	1.010058E+0	9.976022E-1	9.646893E-1	9.973067E-1	1.026162E+0	1.013584E+0	9.832776E-1	1.015445E+0	9.792862E-1	9.714871E-1	1.001421E+0	9.642887E-1	9.678899E-1	9.914019E-1	1.055508E+0	1.031526E+0	1.018484E+0	9.868484E-1	9.918041E-1	9.693246E-1	1.006785E+0	1.016076E+0	9.781539E-1	1.009352E+0	1.035188E+0	1.010652E+0	1.048621E+0	9.824505E-1	1.017992E+0	9.570213E-1	9.939332E-1	9.598266E-1	9.687388E-1	1.014431E+0	1.003272E+0	9.985450E-1	9.858077E-1	9.956916E-1	1.038406E+0	9.936319E-1	1.008274E+0	1.066901E+0	9.917900E-1	9.546850E-1	9.951167E-1	1.015930E+0	1.018356E+0	1.018195E+0	1.010233E+0	1.036633E+0	1.045825E+0	1.002253E+0	1.029105E+0	9.923597E-1	1.015361E+0	9.957809E-1	1.020154E+0	9.350686E-1	1.014659E+0	9.976441E-1	1.011795E+0	1.002396E+0	9.972281E-1	1.009529E+0	9.654006E-1	1.021850E+0	9.879060E-1	1.003221E+0	9.908973E-1	1.009022E+0	1.029344E+0	1.043745E+0	9.911753E-1	1.001369E+0	1.019118E+0	9.661578E-1	9.930430E-1	1.003052E+0	9.984590E-1	9.588799E-1	1.028198E+0	1.000328E+0	9.813598E-1	1.013098E+0	1.004531E+0	1.006637E+0	9.961304E-1	1.007638E+0	1.024994E+0	1.036116E+0	1.011624E+0	9.944885E-1	1.001345E+0	1.010796E+0	1.033409E+0	1.012844E+0	1.049945E+0	9.850622E-1	9.712164E-1	9.769323E-1	9.941470E-1	1.006173E+0	1.006284E+0	9.805542E-1	1.021662E+0	1.002460E+0	1.025069E+0	9.753186E-1	1.047370E+0	1.000823E+0	1.004096E+0	1.001480E+0	9.821787E-1	1.041220E+0	9.968322E-1	1.033153E+0	1.005386E+0	9.576001E-1	1.006081E+0	1.018715E+0	9.831161E-1	9.606978E-1	9.990170E-1	1.007106E+0	1.020725E+0	1.020521E+0	9.853376E-1	1.014225E+0	9.809865E-1	1.009090E+0	1.000871E+0	1.021681E+0	9.715792E-1	9.899537E-1	9.910523E-1	9.973678E-1	9.895185E-1	1.050472E+0	1.046076E+0	9.879797E-1	1.013129E+0	9.976278E-1	9.924460E-1	1.003194E+0	9.484625E-1	1.036628E+0
5.557660E+2	9.851817E-1	9.407468E-1	1.009058E+0	9.912429E-1	9.507841E-1	9.587175E-1	9.816128E-1	1.014227E+0	9.848597E-1	9.882556E-1	9.433614E-1	1.006484E+0	9.965398E-1	9.762807E-1	9.778859E-1	9.856241E-1	1.010755E+0	1.015547E+0	9.450811E-1	1.020731E+0	1.006670E+0	9.714866E-1	9.840359E-1	9.855394E-1	9.994456E-1	9.842638E-1	1.017442E+0	1.000181E+0	9.987168E-1	9.652379E-1	9.810401E-1	1.015797E+0	1.031691E+0	9.787998E-1	9.654936E-1	9.494213E-1	1.003699E+0	9.527732E-1	9.063629E-1	9.729509E-1	9.760747E-1	9.591726E-1	9.648170E-1	9.996184E-1	9.369834E-1	9.635031E-1	9.688571E-1	9.714719E-1	9.982978E-1	1.015013E+0	9.503311E-1	9.842818E-1	9.915470E-1	9.899289E-1	1.034800E+0	9.523355E-1	1.050428E+0	1.000711E+0	9.673469E-1	1.033612E+0	9.790148E-1	9.662087E-1	9.514223E-1	1.002280E+0	1.014151E+0	9.592303E-1	1.004887E+0	9.788637E-1	9.895454E-1	9.684589E-1	9.810116E-1	1.001310E+0	9.767301E-1	9.815202E-1	9.672148E-1	9.806873E-1	9.899047E-1	9.610509E-1	9.670914E-1	9.706715E-1	9.829831E-1	9.763649E-1	9.797728E-1	9.990586E-1	9.764162E-1	9.812778E-1	9.481966E-1	9.667465E-1	9.364061E-1	9.893023E-1	9.984116E-1	9.818599E-1	1.017122E+0	1.001387E+0	9.997341E-1	9.567663E-1	9.421827E-1	1.009022E+0	1.015277E+0	9.471686E-1	1.031638E+0	9.526047E-1	9.977879E-1	9.333887E-1	9.635625E-1	9.751056E-1	1.002044E+0	9.631231E-1	9.817992E-1	9.636477E-1	1.003804E+0	9.650550E-1	1.006201E+0	1.020967E+0	1.022330E+0	9.707440E-1	9.397340E-1	9.705772E-1	9.847926E-1	9.953165E-1	9.793789E-1	9.779797E-1	9.513512E-1	9.843591E-1	9.688483E-1	1.003461E+0	9.784294E-1	9.825832E-1	1.029255E+0	1.014410E+0	9.396411E-1	1.020089E+0	9.801283E-1	9.431860E-1	9.537177E-1	9.869511E-1	9.735108E-1	9.848272E-1	9.632608E-1	1.017626E+0	1.017654E+0	9.768538E-1	9.639415E-1	9.800520E-1	9.729534E-1	9.897092E-1	9.218181E-1	9.804748E-1	1.020023E+0	1.003528E+0	9.677813E-1	1.009387E+0	9.321371E-1	9.871980E-1	9.641529E-1	1.003824E+0	1.038495E+0	9.696540E-1	9.592462E-1	9.673421E-1	9.932874E-1	9.601179E-1	9.833145E-1	1.030890E+0	1.001477E+0	9.602703E-1	9.680266E-1	9.831446E-1	9.733859E-1	1.060660E+0	9.245002E-1	8.662107E-1
5.560130E+2	9.730266E-1	9.963283E-1	1.047573E+0	9.828938E-1	9.938325E-1	9.740995E-1	9.732371E-1	9.769341E-1	9.891560E-1	9.877610E-1	9.788342E-1	9.942217E-1	1.025112E+0	9.799123E-1	9.311453E-1	1.007916E+0	1.011235E+0	9.770015E-1	1.003571E+0	9.716956E-1	9.995264E-1	9.760508E-1	9.868431E-1	1.012590E+0	9.585740E-1	9.458175E-1	1.017211E+0	1.030046E+0	9.727969E-1	9.959621E-1	9.840562E-1	1.030700E+0	1.010670E+0	9.946402E-1	9.612602E-1	9.807085E-1	9.812084E-1	9.662825E-1	9.700640E-1	9.549089E-1	1.004403E+0	9.854477E-1	1.011931E+0	9.640986E-1	9.820869E-1	9.436575E-1	9.865196E-1	9.580839E-1	9.999031E-1	1.004714E+0	1.021911E+0	1.039800E+0	1.057437E+0	9.585341E-1	1.037494E+0	1.006434E+0	1.009067E+0	9.959910E-1	1.009243E+0	1.024450E+0	1.007566E+0	9.905869E-1	9.650119E-1	1.029333E+0	1.021904E+0	1.013791E+0	9.696772E-1	9.850970E-1	1.023685E+0	9.559634E-1	1.005835E+0	9.835518E-1	9.890929E-1	1.018689E+0	1.044932E+0	9.609903E-1	1.007689E+0	9.922687E-1	9.900940E-1	1.011162E+0	1.040054E+0	9.612265E-1	1.009689E+0	9.853449E-1	9.866636E-1	1.014920E+0	9.802614E-1	9.999245E-1	9.386163E-1	9.638034E-1	9.362472E-1	9.552162E-1	1.024975E+0	9.941340E-1	9.948547E-1	9.758820E-1	9.986791E-1	9.520245E-1	1.035820E+0	9.679526E-1	9.721627E-1	9.951919E-1	1.032681E+0	9.848562E-1	9.855106E-1	9.490102E-1	9.817707E-1	1.007352E+0	9.840097E-1	1.000763E+0	9.893382E-1	9.883168E-1	9.958137E-1	1.019656E+0	1.016893E+0	1.010201E+0	9.732365E-1	1.038778E+0	1.042096E+0	1.003886E+0	1.017807E+0	9.620354E-1	9.924841E-1	9.900160E-1	1.014039E+0	9.849202E-1	1.018785E+0	1.014603E+0	1.010226E+0	1.010757E+0	9.438557E-1	9.661098E-1	9.877835E-1	9.866130E-1	9.790483E-1	9.496334E-1	9.868884E-1	9.530726E-1	1.021174E+0	9.601988E-1	1.038816E+0	9.761911E-1	9.798903E-1	1.010145E+0	1.003560E+0	9.574761E-1	9.534638E-1	9.984282E-1	9.994223E-1	9.969625E-1	1.025652E+0	9.792065E-1	9.779722E-1	9.527850E-1	9.501803E-1	9.720037E-1	9.893159E-1	9.847679E-1	9.862898E-1	1.027782E+0	9.915328E-1	1.031852E+0	1.020717E+0	9.652528E-1	1.030715E+0	9.886865E-1	1.016414E+0	9.615664E-1	9.832945E-1	1.033042E+0	9.688605E-1	1.064610E+0
5.565140E+2	9.508556E-1	9.672850E-1	9.793470E-1	1.058706E+0	9.436614E-1	9.405362E-1	9.751522E-1	9.609719E-1	9.742816E-1	1.013498E+0	9.237988E-1	9.861298E-1	9.729977E-1	9.556133E-1	9.495697E-1	9.031964E-1	9.303182E-1	9.329976E-1	9.385510E-1	1.016144E+0	9.953762E-1	9.473701E-1	9.417366E-1	9.329445E-1	9.507495E-1	9.894833E-1	9.897735E-1	9.572974E-1	9.548561E-1	9.785696E-1	9.564738E-1	9.623637E-1	1.019135E+0	9.826213E-1	9.913039E-1	9.128241E-1	1.009214E+0	9.647990E-1	9.562032E-1	9.944669E-1	9.545699E-1	9.594306E-1	9.792628E-1	9.642652E-1	9.606316E-1	9.401906E-1	9.671857E-1	9.265610E-1	9.619427E-1	9.676340E-1	9.989941E-1	9.459431E-1	9.520423E-1	9.754114E-1	9.977716E-1	9.554903E-1	9.481606E-1	9.957332E-1	9.217603E-1	9.876081E-1	9.389241E-1	9.332788E-1	9.777316E-1	9.639308E-1	9.686721E-1	9.607361E-1	9.558869E-1	9.328325E-1	9.812689E-1	9.685531E-1	9.668589E-1	9.713448E-1	1.019302E+0	9.961653E-1	9.641955E-1	9.891716E-1	9.582727E-1	9.564604E-1	9.428370E-1	9.514061E-1	9.520085E-1	1.003012E+0	1.002355E+0	9.817874E-1	9.305009E-1	9.469797E-1	1.024634E+0	9.620671E-1	9.229012E-1	9.660377E-1	9.532233E-1	9.660208E-1	9.662086E-1	9.904786E-1	9.276583E-1	9.569157E-1	9.749183E-1	9.226078E-1	9.835118E-1	9.260436E-1	1.006963E+0	9.913657E-1	9.563971E-1	9.841220E-1	9.725397E-1	9.138019E-1	9.573377E-1	9.798513E-1	9.519867E-1	9.538026E-1	9.453204E-1	9.722096E-1	9.802186E-1	9.657764E-1	9.574123E-1	9.656373E-1	9.971123E-1	9.492248E-1	9.743213E-1	9.226446E-1	9.385974E-1	9.030196E-1	1.002892E+0	9.542602E-1	9.437107E-1	9.588723E-1	1.017492E+0	9.741685E-1	9.614543E-1	9.869517E-1	9.258798E-1	1.036104E+0	9.086334E-1	9.488093E-1	9.866945E-1	9.277264E-1	9.857152E-1	9.520051E-1	9.797111E-1	1.010874E+0	9.853486E-1	9.689780E-1	9.967670E-1	9.869879E-1	9.864982E-1	9.020701E-1	9.381182E-1	9.594913E-1	9.618638E-1	9.386892E-1	9.608702E-1	9.733230E-1	9.790224E-1	9.350199E-1	1.001587E+0	9.316275E-1	9.635685E-1	9.567315E-1	9.778107E-1	9.371909E-1	9.631287E-1	9.426189E-1	9.465140E-1	9.910322E-1	1.002725E+0	9.826836E-1	9.599890E-1	9.753474E-1	1.002353E+0	9.111631E-1	9.757385E-1	9.479232E-1
5.570440E+2	9.800445E-1	9.705481E-1	9.967784E-1	9.678708E-1	1.049236E+0	1.009767E+0	1.010747E+0	9.942779E-1	9.864328E-1	9.914242E-1	9.688586E-1	1.057305E+0	9.705531E-1	9.835537E-1	9.889668E-1	1.016887E+0	9.986369E-1	1.010081E+0	9.713777E-1	9.944767E-1	9.866375E-1	9.938850E-1	1.029336E+0	9.821387E-1	9.899697E-1	9.789169E-1	9.940280E-1	1.004568E+0	1.014602E+0	9.691294E-1	1.004964E+0	9.869918E-1	9.872331E-1	1.003589E+0	9.699328E-1	9.936064E-1	9.683397E-1	1.025814E+0	9.818257E-1	9.866827E-1	9.441896E-1	9.862491E-1	9.880510E-1	9.751927E-1	9.932112E-1	1.014990E+0	1.018207E+0	9.649172E-1	1.027409E+0	9.801166E-1	9.984535E-1	1.002226E+0	1.042265E+0	9.767697E-1	9.986378E-1	9.962948E-1	1.025588E+0	9.701988E-1	9.872647E-1	9.879921E-1	9.769963E-1	9.799530E-1	1.000177E+0	9.800120E-1	1.036431E+0	9.500285E-1	9.886283E-1	9.800914E-1	9.938549E-1	9.827150E-1	1.061026E+0	1.015854E+0	1.026932E+0	9.774292E-1	9.680681E-1	1.005953E+0	9.864978E-1	1.035109E+0	9.903870E-1	9.748611E-1	1.020238E+0	9.845790E-1	9.679945E-1	1.022302E+0	1.021267E+0	9.822752E-1	9.888084E-1	1.029922E+0	1.034619E+0	9.522534E-1	9.637066E-1	9.791996E-1	1.010830E+0	9.662417E-1	1.009992E+0	1.001852E+0	9.810778E-1	9.924088E-1	9.754036E-1	9.981012E-1	9.872665E-1	9.942227E-1	9.942409E-1	9.965429E-1	1.015375E+0	1.021896E+0	9.702784E-1	9.458210E-1	1.015427E+0	9.918824E-1	9.989769E-1	1.022329E+0	9.953581E-1	9.994744E-1	9.905425E-1	9.680856E-1	1.002513E+0	9.889691E-1	9.971246E-1	9.958835E-1	1.040044E+0	1.009413E+0	9.563742E-1	9.799122E-1	1.011085E+0	1.003605E+0	9.806150E-1	9.831026E-1	1.012826E+0	9.958888E-1	9.965746E-1	9.678083E-1	1.004069E+0	1.022202E+0	9.931679E-1	9.984786E-1	9.484694E-1	9.522518E-1	9.894187E-1	9.780152E-1	9.801506E-1	1.027788E+0	1.015419E+0	9.816891E-1	9.725397E-1	9.639646E-1	9.982137E-1	9.975787E-1	1.011139E+0	1.004506E+0	9.849863E-1	9.953157E-1	1.020884E+0	9.893127E-1	9.563841E-1	1.001247E+0	9.889200E-1	9.593204E-1	9.739832E-1	1.012845E+0	9.959854E-1	9.850942E-1	9.937733E-1	9.881494E-1	1.025967E+0	9.914279E-1	9.992171E-1	9.416178E-1	9.939882E-1	9.522825E-1	9.821301E-1	9.721450E-1
5.575580E+2	9.906199E-1	9.545962E-1	9.979166E-1	1.015131E+0	9.996418E-1	9.801731E-1	9.692834E-1	1.013696E+0	9.818048E-1	9.847681E-1	9.968192E-1	9.397439E-1	9.831850E-1	1.012055E+0	1.025632E+0	1.008077E+0	9.888802E-1	1.023816E+0	1.008923E+0	9.964826E-1	1.010829E+0	9.761301E-1	9.914882E-1	1.004670E+0	9.860768E-1	9.770085E-1	1.001238E+0	1.018766E+0	9.975042E-1	9.758061E-1	1.002060E+0	9.993270E-1	9.905571E-1	9.450469E-1	9.687030E-1	9.581787E-1	1.023002E+0	9.716128E-1	1.010148E+0	1.009898E+0	1.009132E+0	9.932931E-1	1.022769E+0	9.972277E-1	1.006807E+0	9.815695E-1	9.831150E-1	9.981844E-1	1.016298E+0	9.987190E-1	1.028647E+0	1.024732E+0	9.645179E-1	9.858456E-1	9.768961E-1	9.389282E-1	9.933575E-1	9.772870E-1	9.832089E-1	1.003833E+0	9.985560E-1	1.024404E+0	9.950806E-1	1.002167E+0	9.672591E-1	1.003884E+0	1.016336E+0	9.771855E-1	1.003702E+0	9.784943E-1	9.957981E-1	1.025905E+0	9.883458E-1	9.734554E-1	1.015641E+0	9.890401E-1	9.940850E-1	9.784410E-1	1.033577E+0	9.947296E-1	9.879596E-1	1.034734E+0	1.004354E+0	1.042009E+0	9.894067E-1	1.029688E+0	9.648005E-1	1.014902E+0	9.684625E-1	9.791782E-1	1.030498E+0	9.749897E-1	1.010094E+0	9.807115E-1	9.938743E-1	9.922905E-1	9.862699E-1	1.023000E+0	1.011304E+0	9.258900E-1	9.637320E-1	1.024348E+0	9.814083E-1	9.863589E-1	9.809837E-1	9.732902E-1	9.992599E-1	9.715361E-1	9.809324E-1	9.901241E-1	9.944452E-1	9.792367E-1	9.941678E-1	1.036371E+0	9.996128E-1	1.008675E+0	9.844193E-1	9.530683E-1	9.845813E-1	1.008135E+0	9.762422E-1	9.798721E-1	9.938427E-1	9.852256E-1	1.022918E+0	9.459739E-1	9.673727E-1	1.020020E+0	1.001022E+0	1.013723E+0	9.893768E-1	9.984676E-1	1.026389E+0	9.665703E-1	9.833373E-1	9.796916E-1	1.011901E+0	9.622865E-1	1.035131E+0	9.837766E-1	9.974242E-1	1.014465E+0	9.785550E-1	1.036797E+0	9.291299E-1	9.733288E-1	1.001093E+0	1.011514E+0	9.998423E-1	9.985586E-1	9.834695E-1	1.010407E+0	1.003288E+0	9.893711E-1	1.009637E+0	9.800401E-1	1.021987E+0	9.803337E-1	1.014048E+0	9.954604E-1	9.993372E-1	1.003506E+0	9.617194E-1	1.005442E+0	1.001039E+0	1.000141E+0	9.791672E-1	9.996710E-1	9.374318E-1	1.015098E+0	9.023395E-1	9.690967E-1
5.580170E+2	9.886640E-1	1.022620E+0	1.020730E+0	9.746572E-1	9.752333E-1	9.820659E-1	9.758173E-1	9.952231E-1	9.821184E-1	1.001398E+0	1.027163E+0	9.361834E-1	9.825023E-1	9.830309E-1	9.742817E-1	9.789041E-1	9.672022E-1	9.535508E-1	9.841520E-1	9.645382E-1	9.604765E-1	9.750988E-1	9.478754E-1	9.730033E-1	9.877436E-1	1.005740E+0	9.520997E-1	9.785464E-1	9.672340E-1	9.813385E-1	9.979452E-1	9.573337E-1	9.638856E-1	9.673351E-1	1.013957E+0	9.826840E-1	9.807320E-1	9.588585E-1	9.644091E-1	9.585084E-1	9.628712E-1	9.555543E-1	9.746080E-1	1.013668E+0	9.820554E-1	9.491950E-1	9.712979E-1	1.003396E+0	9.786345E-1	9.774842E-1	9.603743E-1	9.817119E-1	1.002081E+0	9.546302E-1	9.616095E-1	1.004187E+0	9.675670E-1	9.871583E-1	9.385846E-1	9.286080E-1	9.547858E-1	1.015183E+0	9.821424E-1	9.985817E-1	9.808639E-1	9.735653E-1	9.908321E-1	9.943040E-1	9.785147E-1	9.562910E-1	9.818336E-1	9.671112E-1	9.773754E-1	1.000069E+0	9.555133E-1	1.022422E+0	9.932629E-1	9.802042E-1	9.361405E-1	9.703965E-1	9.868351E-1	1.003989E+0	9.677718E-1	9.255405E-1	1.002860E+0	9.661632E-1	9.717177E-1	9.726809E-1	9.688361E-1	1.031173E+0	9.748022E-1	9.887390E-1	9.712595E-1	9.917266E-1	9.209787E-1	9.944282E-1	9.487601E-1	9.529826E-1	1.012426E+0	9.786428E-1	1.007669E+0	9.751936E-1	9.435397E-1	9.584838E-1	9.581834E-1	1.004966E+0	9.575258E-1	9.661966E-1	1.005926E+0	9.574454E-1	1.017985E+0	9.685179E-1	9.651844E-1	9.157881E-1	9.604983E-1	9.298895E-1	1.006786E+0	9.902240E-1	9.230268E-1	9.555292E-1	9.636307E-1	9.676656E-1	1.017768E+0	9.417899E-1	9.869862E-1	9.988692E-1	9.810251E-1	9.582817E-1	9.636707E-1	9.823894E-1	9.573104E-1	9.502346E-1	9.875733E-1	1.008044E+0	9.731918E-1	1.001746E+0	9.902289E-1	9.637935E-1	9.884095E-1	9.758097E-1	9.989528E-1	9.643484E-1	1.000433E+0	9.905189E-1	1.003697E+0	9.993544E-1	1.007076E+0	9.822148E-1	9.872857E-1	9.428175E-1	9.537827E-1	9.670501E-1	1.004830E+0	9.737061E-1	9.736318E-1	9.838649E-1	9.750084E-1	9.800834E-1	9.485498E-1	9.563850E-1	9.797310E-1	9.404933E-1	1.006294E+0	9.728239E-1	9.842473E-1	9.819566E-1	9.964727E-1	9.841791E-1	1.012699E+0	9.869415E-1	1.012021E+0	9.226172E-1
5.585160E+2	1.027334E+0	1.026925E+0	1.060471E+0	1.053375E+0	9.936553E-1	1.014978E+0	9.943011E-1	9.964891E-1	1.000557E+0	9.971091E-1	1.051238E+0	1.021576E+0	1.007967E+0	9.731061E-1	1.022780E+0	9.743048E-1	9.986172E-1	1.018910E+0	9.852123E-1	1.028885E+0	1.036188E+0	1.021515E+0	1.014845E+0	9.970960E-1	1.015082E+0	9.803727E-1	1.039112E+0	9.970533E-1	1.016677E+0	9.878579E-1	1.004541E+0	1.040832E+0	1.006233E+0	1.041315E+0	1.028722E+0	1.002321E+0	1.008517E+0	9.764381E-1	1.007496E+0	1.037252E+0	9.994232E-1	1.012647E+0	1.006547E+0	1.015636E+0	1.006784E+0	1.048941E+0	9.917391E-1	9.922647E-1	9.754451E-1	1.038259E+0	1.030455E+0	1.044888E+0	1.018199E+0	9.979918E-1	1.000736E+0	1.003010E+0	9.912557E-1	9.907745E-1	9.883225E-1	1.003563E+0	1.003931E+0	9.931355E-1	1.012092E+0	1.012400E+0	1.001907E+0	1.025447E+0	9.745035E-1	9.914371E-1	1.018937E+0	9.847346E-1	9.798420E-1	1.001951E+0	1.018142E+0	9.794075E-1	1.016461E+0	9.769839E-1	9.701237E-1	9.756756E-1	1.008417E+0	1.025420E+0	1.009850E+0	9.698140E-1	9.973879E-1	1.030258E+0	1.018961E+0	9.874770E-1	9.824447E-1	1.011683E+0	9.973110E-1	1.032044E+0	1.005681E+0	9.615008E-1	1.003670E+0	1.041435E+0	1.024005E+0	1.017080E+0	1.042937E+0	1.009937E+0	1.007468E+0	1.017364E+0	1.024639E+0	1.009851E+0	1.027078E+0	1.015138E+0	9.636787E-1	1.016705E+0	1.030669E+0	1.032750E+0	9.898675E-1	1.019212E+0	1.001431E+0	1.021603E+0	9.856268E-1	1.006030E+0	9.756237E-1	1.054161E+0	1.012016E+0	9.966970E-1	9.871585E-1	1.023114E+0	1.031764E+0	1.016239E+0	9.946843E-1	1.012098E+0	9.679684E-1	1.026717E+0	1.003243E+0	9.849506E-1	9.813824E-1	1.011860E+0	9.869922E-1	1.011223E+0	1.000582E+0	1.022714E+0	1.037377E+0	1.024243E+0	1.024695E+0	1.020336E+0	9.857868E-1	1.010415E+0	1.004926E+0	9.625230E-1	1.022025E+0	1.018306E+0	9.912518E-1	1.012660E+0	1.055465E+0	1.009037E+0	1.004012E+0	1.004165E+0	1.051240E+0	1.006897E+0	1.048228E+0	1.024039E+0	1.040165E+0	1.020173E+0	9.686776E-1	1.016959E+0	1.007902E+0	1.022817E+0	1.000466E+0	1.009918E+0	1.008057E+0	1.011268E+0	1.001932E+0	1.017755E+0	1.028018E+0	1.014582E+0	1.005623E+0	1.044175E+0	1.032554E+0	9.588650E-1
5.590100E+2	1.031004E+0	1.047112E+0	9.789895E-1	1.050253E+0	1.033769E+0	1.057925E+0	9.875819E-1	1.028114E+0	1.032848E+0	1.031980E+0	1.031687E+0	1.051336E+0	1.048618E+0	1.045865E+0	1.016528E+0	1.023693E+0	1.038427E+0	1.035148E+0	1.002024E+0	1.031972E+0	1.016774E+0	1.034937E+0	1.036718E+0	1.029033E+0	1.060337E+0	1.015522E+0	9.964307E-1	1.004510E+0	1.022131E+0	1.021481E+0	1.042565E+0	1.031827E+0	1.029049E+0	1.020844E+0	9.770380E-1	1.018329E+0	1.011271E+0	1.031078E+0	1.031555E+0	1.029863E+0	1.011906E+0	1.040694E+0	1.018539E+0	9.850279E-1	1.019280E+0	1.038998E+0	1.029475E+0	1.024135E+0	1.026176E+0	1.025776E+0	1.050719E+0	9.785337E-1	1.024064E+0	1.043808E+0	1.037362E+0	1.028931E+0	1.013768E+0	1.025487E+0	1.088049E+0	1.053825E+0	1.054934E+0	1.003054E+0	1.010458E+0	1.013342E+0	9.759304E-1	1.069025E+0	9.641398E-1	1.036971E+0	1.002577E+0	1.044886E+0	1.002478E+0	1.016800E+0	1.025870E+0	1.007537E+0	1.010742E+0	1.026466E+0	1.037787E+0	1.048699E+0	1.071211E+0	1.040475E+0	1.049774E+0	1.033517E+0	9.909043E-1	1.037542E+0	1.023167E+0	1.040552E+0	1.034319E+0	1.009138E+0	1.063612E+0	1.048047E+0	1.059142E+0	1.053423E+0	1.021583E+0	1.025591E+0	1.026242E+0	1.039121E+0	1.029379E+0	9.893324E-1	1.039036E+0	1.028565E+0	1.024665E+0	1.014235E+0	1.078448E+0	1.020068E+0	1.062090E+0	1.038917E+0	1.014961E+0	1.040718E+0	9.965124E-1	1.064381E+0	1.000132E+0	9.952134E-1	9.906155E-1	1.032731E+0	1.061470E+0	1.042183E+0	1.039019E+0	1.068934E+0	1.047714E+0	1.041942E+0	1.006204E+0	1.017221E+0	1.035851E+0	1.073578E+0	1.043457E+0	1.000686E+0	1.024854E+0	1.048722E+0	1.013051E+0	1.025728E+0	1.031655E+0	1.007862E+0	9.961072E-1	1.001610E+0	1.023209E+0	1.023419E+0	1.012198E+0	1.030228E+0	9.935311E-1	1.035283E+0	1.015759E+0	1.001534E+0	1.034309E+0	1.006700E+0	1.058798E+0	1.052567E+0	9.699541E-1	1.025649E+0	1.024481E+0	1.028331E+0	1.056199E+0	9.882765E-1	9.661401E-1	9.913231E-1	1.025083E+0	9.817018E-1	1.018265E+0	1.036299E+0	1.027327E+0	1.037878E+0	1.039913E+0	9.854491E-1	1.011760E+0	1.012846E+0	1.025627E+0	1.028385E+0	1.022913E+0	1.029404E+0	1.079188E+0	1.071528E+0	9.970459E-1	1.143901E+0
5.595110E+2	9.880204E-1	1.003534E+0	1.013161E+0	9.814583E-1	1.007091E+0	9.929962E-1	1.026464E+0	1.043506E+0	1.029017E+0	1.031657E+0	9.731556E-1	9.872968E-1	1.034279E+0	1.034103E+0	1.002678E+0	9.949069E-1	1.003469E+0	1.023054E+0	1.034295E+0	1.019602E+0	1.004786E+0	1.025470E+0	1.012233E+0	1.015229E+0	9.769800E-1	1.035748E+0	1.014111E+0	1.001281E+0	1.003640E+0	1.025989E+0	9.774857E-1	1.031815E+0	1.031645E+0	1.057282E+0	1.034966E+0	1.057917E+0	1.000462E+0	1.031251E+0	1.028034E+0	9.954830E-1	1.010063E+0	1.023158E+0	9.682802E-1	1.018761E+0	1.025167E+0	1.002285E+0	9.876806E-1	1.018011E+0	9.909260E-1	9.610635E-1	9.796661E-1	9.701894E-1	9.982352E-1	1.066868E+0	9.991053E-1	1.022160E+0	1.019592E+0	9.935468E-1	1.009138E+0	9.859790E-1	1.021983E+0	1.014732E+0	1.005138E+0	9.805096E-1	1.018151E+0	1.015777E+0	1.024384E+0	1.053154E+0	1.000822E+0	1.018332E+0	9.904392E-1	9.953609E-1	1.028973E+0	1.052644E+0	1.057667E+0	9.967824E-1	9.856398E-1	1.010438E+0	9.737959E-1	9.795205E-1	9.864705E-1	1.036969E+0	1.003993E+0	9.706055E-1	1.019047E+0	1.042743E+0	1.022969E+0	9.898919E-1	9.922849E-1	9.997664E-1	9.916553E-1	1.005336E+0	1.050054E+0	1.023570E+0	9.877388E-1	9.908065E-1	1.022447E+0	1.011012E+0	9.942310E-1	1.040276E+0	1.015210E+0	9.761895E-1	9.703951E-1	1.010048E+0	9.959300E-1	9.992790E-1	1.025447E+0	1.032111E+0	1.012425E+0	9.997947E-1	9.902167E-1	1.008453E+0	1.070296E+0	1.030739E+0	1.028820E+0	1.039964E+0	1.020434E+0	1.006546E+0	1.011519E+0	9.943165E-1	1.018373E+0	1.048419E+0	1.046404E+0	1.009272E+0	1.000724E+0	1.007582E+0	9.974040E-1	9.934112E-1	1.043715E+0	1.016136E+0	1.022373E+0	1.008301E+0	1.032946E+0	1.004948E+0	9.800144E-1	1.015929E+0	1.024666E+0	1.016261E+0	1.016806E+0	1.012657E+0	9.882216E-1	9.937198E-1	9.995600E-1	1.008637E+0	1.013514E+0	1.014433E+0	1.063523E+0	1.003590E+0	1.054912E+0	1.017064E+0	1.001987E+0	1.028749E+0	1.025955E+0	1.021529E+0	1.037243E+0	1.027735E+0	1.020795E+0	1.016387E+0	1.014429E+0	9.846201E-1	9.964614E-1	1.053701E+0	1.021093E+0	1.039199E+0	9.936776E-1	1.017894E+0	1.001783E+0	1.042393E+0	9.913541E-1	1.010309E+0	1.058948E+0	1.003318E+0
5.600240E+2	1.019454E+0	1.027949E+0	1.021734E+0	1.040504E+0	9.833295E-1	9.828732E-1	1.005410E+0	9.842100E-1	9.823378E-1	9.705071E-1	9.977909E-1	9.837764E-1	9.980122E-1	1.034195E+0	1.003506E+0	9.956509E-1	1.035447E+0	1.016033E+0	1.024320E+0	1.000599E+0	1.013061E+0	1.056061E+0	9.953614E-1	1.014673E+0	9.943186E-1	9.774171E-1	1.026467E+0	9.649650E-1	9.994004E-1	1.059013E+0	9.894976E-1	9.809811E-1	9.904279E-1	9.815532E-1	1.015572E+0	9.903438E-1	9.788433E-1	1.006915E+0	9.915256E-1	1.002523E+0	1.014798E+0	1.034933E+0	9.998782E-1	9.996091E-1	1.009777E+0	9.873004E-1	1.009961E+0	9.875160E-1	9.969841E-1	1.007344E+0	1.011315E+0	9.945231E-1	9.845629E-1	1.003171E+0	1.021551E+0	1.021854E+0	1.012934E+0	9.910372E-1	1.002754E+0	9.998523E-1	9.932244E-1	9.835459E-1	9.955601E-1	1.015527E+0	1.026837E+0	9.752303E-1	1.052891E+0	1.000384E+0	9.934834E-1	1.012761E+0	1.026451E+0	1.012002E+0	1.010737E+0	1.000700E+0	1.015013E+0	1.025003E+0	1.042982E+0	1.001595E+0	1.002946E+0	1.011428E+0	1.000189E+0	9.936527E-1	1.012731E+0	9.635284E-1	9.739061E-1	9.575174E-1	9.690585E-1	1.000208E+0	1.005601E+0	1.023784E+0	9.980331E-1	9.893385E-1	9.723260E-1	9.651451E-1	9.962787E-1	1.025467E+0	9.771900E-1	1.055829E+0	9.853716E-1	1.015219E+0	1.004832E+0	1.035490E+0	1.027940E+0	1.035657E+0	1.036134E+0	1.007267E+0	1.000623E+0	1.003455E+0	1.004326E+0	9.979700E-1	9.871530E-1	1.020540E+0	9.958233E-1	9.881183E-1	9.857171E-1	9.760263E-1	1.010208E+0	9.970136E-1	1.006826E+0	9.971816E-1	9.816051E-1	9.854614E-1	1.009639E+0	9.956731E-1	1.004114E+0	1.009154E+0	1.014294E+0	1.023456E+0	9.970266E-1	1.015517E+0	1.013039E+0	1.005290E+0	9.816533E-1	9.890776E-1	9.901996E-1	9.760111E-1	1.013697E+0	9.997420E-1	1.052279E+0	9.774390E-1	9.996505E-1	1.013737E+0	9.953398E-1	9.841846E-1	1.041928E+0	9.973505E-1	9.527420E-1	9.824727E-1	9.694693E-1	1.020328E+0	9.879624E-1	1.014884E+0	9.740049E-1	1.028446E+0	9.858933E-1	1.005694E+0	1.007543E+0	9.995068E-1	1.026391E+0	1.023857E+0	9.844634E-1	1.022250E+0	1.016301E+0	9.820241E-1	9.834538E-1	1.013762E+0	9.989050E-1	1.001585E+0	1.003999E+0	9.716854E-1	1.020998E+0	9.670531E-1
5.605040E+2	1.009504E+0	9.686738E-1	9.205026E-1	9.628652E-1	1.000444E+0	9.861813E-1	9.831711E-1	9.868323E-1	1.000345E+0	9.870529E-1	9.826932E-1	1.005520E+0	1.001271E+0	9.541443E-1	9.589018E-1	1.004272E+0	9.656605E-1	9.449349E-1	1.011470E+0	9.739186E-1	9.634925E-1	9.821955E-1	9.947088E-1	1.020655E+0	9.937035E-1	1.020471E+0	1.010653E+0	1.024308E+0	9.718606E-1	9.899440E-1	1.008473E+0	9.810109E-1	9.951103E-1	9.642022E-1	9.870393E-1	9.915361E-1	1.023204E+0	1.009030E+0	9.553575E-1	9.654823E-1	1.021252E+0	9.870476E-1	1.035588E+0	9.933911E-1	9.871207E-1	9.978194E-1	1.028198E+0	1.020644E+0	1.023144E+0	1.004251E+0	9.734831E-1	9.865647E-1	9.958061E-1	1.005487E+0	1.003789E+0	1.004191E+0	9.987031E-1	1.025198E+0	1.003130E+0	1.024950E+0	9.873481E-1	9.930878E-1	1.039730E+0	9.778476E-1	9.967420E-1	9.878655E-1	1.006150E+0	9.592205E-1	9.684173E-1	1.009110E+0	1.005833E+0	9.915005E-1	9.700565E-1	1.040627E+0	9.995785E-1	9.515399E-1	9.804104E-1	9.925182E-1	1.005793E+0	1.011351E+0	9.788752E-1	9.761504E-1	1.027953E+0	1.005692E+0	9.675787E-1	9.733057E-1	1.038904E+0	9.879317E-1	9.942006E-1	9.497986E-1	1.017391E+0	1.007245E+0	1.013139E+0	1.003516E+0	1.037356E+0	9.647597E-1	1.004835E+0	9.570980E-1	1.024735E+0	1.023046E+0	9.729668E-1	9.972974E-1	9.763970E-1	9.639049E-1	1.015815E+0	9.695283E-1	1.007201E+0	1.002631E+0	9.727712E-1	9.711786E-1	9.970307E-1	9.998868E-1	9.965098E-1	9.976628E-1	1.017118E+0	1.014306E+0	9.602416E-1	9.967797E-1	1.004643E+0	9.711802E-1	9.932839E-1	9.984760E-1	9.722353E-1	1.033471E+0	9.692729E-1	1.012066E+0	1.010004E+0	9.912611E-1	9.861281E-1	9.873762E-1	1.004336E+0	1.015932E+0	1.007405E+0	1.006565E+0	1.040779E+0	9.850683E-1	1.018808E+0	1.073334E+0	9.723152E-1	1.024510E+0	9.778726E-1	1.009792E+0	9.865784E-1	9.990458E-1	9.956034E-1	9.821014E-1	9.939376E-1	9.997196E-1	9.999546E-1	9.932609E-1	1.017631E+0	1.007086E+0	9.650757E-1	1.004893E+0	9.898855E-1	1.014979E+0	9.979706E-1	1.012900E+0	1.009758E+0	9.852577E-1	1.026319E+0	1.019325E+0	9.769492E-1	9.736334E-1	9.928179E-1	9.840999E-1	9.833141E-1	1.034376E+0	9.851490E-1	1.005600E+0	9.781229E-1	1.107444E+0
5.610640E+2	9.653549E-1	9.780425E-1	9.897163E-1	9.538853E-1	9.576006E-1	9.930407E-1	1.047223E+0	9.576515E-1	1.004540E+0	1.004104E+0	9.705945E-1	1.017262E+0	9.736123E-1	9.799463E-1	1.006727E+0	1.003305E+0	1.003661E+0	9.744723E-1	9.782249E-1	9.895265E-1	1.007754E+0	9.347078E-1	9.774349E-1	9.635017E-1	9.957894E-1	1.008804E+0	9.658612E-1	1.006001E+0	1.006952E+0	9.894405E-1	9.724691E-1	9.898818E-1	1.005859E+0	1.018833E+0	1.004070E+0	1.005084E+0	1.005628E+0	9.890028E-1	1.029649E+0	1.014307E+0	1.026365E+0	9.664247E-1	9.857405E-1	1.001485E+0	9.697968E-1	9.789019E-1	9.803263E-1	9.909327E-1	9.649827E-1	1.006986E+0	9.668872E-1	1.016631E+0	9.702694E-1	9.654288E-1	1.000313E+0	9.804443E-1	9.772349E-1	1.039313E+0	9.995478E-1	1.011397E+0	1.008241E+0	9.929047E-1	9.596227E-1	1.019614E+0	9.958785E-1	9.991776E-1	9.821356E-1	1.007252E+0	1.039692E+0	1.012676E+0	9.562978E-1	9.735146E-1	9.535688E-1	9.681303E-1	9.613161E-1	1.005811E+0	1.009211E+0	9.773195E-1	9.777327E-1	9.918184E-1	9.798079E-1	9.665945E-1	1.026911E+0	1.002523E+0	9.838063E-1	1.020279E+0	1.026979E+0	9.836438E-1	9.750737E-1	9.839560E-1	9.590916E-1	1.040228E+0	9.470439E-1	1.002063E+0	1.003534E+0	9.741945E-1	1.007103E+0	1.008400E+0	9.500246E-1	9.728960E-1	9.990192E-1	9.731726E-1	1.000553E+0	1.013799E+0	9.718104E-1	9.681517E-1	9.940352E-1	1.004782E+0	1.021813E+0	1.008012E+0	1.012630E+0	9.842208E-1	1.006419E+0	9.930851E-1	9.805976E-1	9.667083E-1	9.643636E-1	1.001768E+0	1.037408E+0	1.012718E+0	9.888528E-1	9.772325E-1	9.732008E-1	9.689802E-1	9.934744E-1	9.953482E-1	1.021188E+0	9.967938E-1	1.001179E+0	9.513817E-1	9.983430E-1	1.034882E+0	9.632753E-1	9.782683E-1	9.787241E-1	9.954134E-1	9.553370E-1	9.817672E-1	9.663227E-1	1.002095E+0	1.037042E+0	1.012092E+0	9.677793E-1	9.741229E-1	9.935375E-1	1.004240E+0	9.579967E-1	9.882237E-1	9.489036E-1	9.909693E-1	9.627420E-1	9.813363E-1	9.915945E-1	9.773799E-1	9.820782E-1	9.845644E-1	1.000833E+0	9.982116E-1	9.776125E-1	9.808801E-1	9.773236E-1	9.802633E-1	1.004054E+0	1.014614E+0	9.912384E-1	9.645781E-1	9.902097E-1	9.521931E-1	9.905682E-1	9.423802E-1	1.015840E+0	9.555597E-1
