Photon Energy (eV)	#1	#2	#3	#4	#5	#6	#7	#8	#9	#10	#11	#12	#13	#14	#15	#16	#17	#18	#19	#20	#21	#22	#23	#24	#25	#26	#27	#28	#29	#30	#31	#32	#33	#34	#35	#36	#37	#38	#39	#40	#41	#42	#43	#44	#45	#46	#47	#48	#49	#50	#51	#52	#53	#54	#55	#56	#57	#58	#59	#60	#61	#62	#63	#64	#65	#66	#67	#68	#69	#70	#71	#72	#73	#74	#75	#76	#77	#78	#79	#80	#81	#82	#83	#84	#85	#86	#87	#88	#89	#90	#91	#92	#93	#94	#95	#96	#97	#98	#99	#100	#101	#102	#103	#104	#105	#106	#107	#108	#109	#110	#111	#112	#113	#114	#115	#116	#117	#118	#119	#120	#121	#122	#123	#124	#125	#126	#127	#128	#129	#130	#131	#132	#133	#134	#135	#136	#137	#138	#139	#140	#141	#142	#143	#144	#145	#146	#147	#148	#149	#150	#151	#152	#153	#154	#155	#156	#157	#158	#159	#160	#161	#162	#163	#164	#165	#166	#167	#168	#169	#170	
1.400000E+3	1.367270E+0	1.341510E+0	1.405690E+0	1.355910E+0	1.526170E+0	1.499050E+0	1.494110E+0	1.602940E+0	1.657020E+0	1.610740E+0	1.648530E+0	1.642950E+0	1.950570E+0	1.856980E+0	1.833390E+0	1.837930E+0	1.724740E+0	1.719580E+0	1.585300E+0	1.546160E+0	1.858380E+0	1.799830E+0	1.828870E+0	1.813330E+0	1.481190E+0	1.616700E+0	1.629430E+0	1.561070E+0	1.637290E+0	1.891520E+0	1.770070E+0	1.780050E+0	1.501750E+0	1.647730E+0	1.586850E+0	1.474470E+0	1.787900E+0	1.782990E+0	1.924260E+0	1.702850E+0	1.607080E+0	1.618770E+0	1.712670E+0	1.544910E+0	1.898320E+0	1.926630E+0	1.796980E+0	1.630820E+0	1.631210E+0	1.634220E+0	1.564670E+0	1.365630E+0	1.837950E+0	1.713450E+0	1.842390E+0	1.661040E+0	1.613210E+0	1.469510E+0	1.577020E+0	1.610830E+0	1.953230E+0	1.738030E+0	1.704650E+0	1.809290E+0	1.661520E+0	1.708130E+0	1.612380E+0	1.429440E+0	1.800540E+0	1.805210E+0	1.867930E+0	1.581060E+0	1.537010E+0	1.512110E+0	1.699170E+0	1.441450E+0	1.746080E+0	1.729230E+0	1.845410E+0	1.725730E+0	1.600950E+0	1.677540E+0	1.570420E+0	1.528310E+0	1.566340E+0	1.683240E+0	1.765170E+0	1.739940E+0	1.549050E+0	1.608810E+0	1.493030E+0	1.551010E+0	1.909170E+0	1.846470E+0	1.538200E+0	1.738560E+0	1.692970E+0	1.635410E+0	1.454530E+0	1.574480E+0	1.869930E+0	1.765170E+0	1.719660E+0	1.852150E+0	1.618590E+0	1.606840E+0	1.656300E+0	1.592270E+0	1.868860E+0	1.850510E+0	1.817720E+0	1.755000E+0	1.589250E+0	1.656370E+0	1.623110E+0	1.537740E+0	1.737980E+0	1.812830E+0	1.947140E+0	1.767700E+0	1.501980E+0	1.685960E+0	1.731710E+0	1.635640E+0	1.688630E+0	1.943590E+0	1.861250E+0	1.828250E+0	1.641450E+0	1.743390E+0	1.572470E+0	1.590610E+0	1.668830E+0	1.899900E+0	1.860550E+0	1.855210E+0	1.461650E+0	1.612220E+0	1.638200E+0	1.536670E+0	1.766620E+0	1.847950E+0	1.702510E+0	1.631450E+0	1.608000E+0	1.664880E+0	1.500400E+0	1.412040E+0	1.689610E+0	1.827030E+0	1.679450E+0	1.671140E+0	1.452220E+0	1.574780E+0	1.609050E+0	1.532990E+0	1.748990E+0	1.730740E+0	1.766680E+0	1.676960E+0	1.480460E+0	1.525200E+0	1.551040E+0	1.408310E+0	1.553210E+0	1.810820E+0	1.729180E+0	1.664110E+0	1.487340E+0	1.644870E+0
1.700000E+3	1.366350E+0	1.339790E+0	1.403770E+0	1.354210E+0	1.524180E+0	1.496980E+0	1.492090E+0	1.600760E+0	1.654770E+0	1.608530E+0	1.645620E+0	1.640770E+0	1.945600E+0	1.854040E+0	1.830100E+0	1.834790E+0	1.722390E+0	1.717070E+0	1.583110E+0	1.545280E+0	1.855660E+0	1.798390E+0	1.823090E+0	1.809740E+0	1.478570E+0	1.614960E+0	1.627560E+0	1.560120E+0	1.636690E+0	1.886820E+0	1.770610E+0	1.780170E+0	1.499070E+0	1.645300E+0	1.586320E+0	1.472530E+0	1.784850E+0	1.781650E+0	1.920820E+0	1.699620E+0	1.602750E+0	1.618110E+0	1.710000E+0	1.544290E+0	1.896220E+0	1.922440E+0	1.791520E+0	1.628140E+0	1.628420E+0	1.631420E+0	1.560090E+0	1.363490E+0	1.833670E+0	1.710030E+0	1.838970E+0	1.658050E+0	1.610950E+0	1.467030E+0	1.574260E+0	1.608080E+0	1.948420E+0	1.731710E+0	1.701550E+0	1.803570E+0	1.658530E+0	1.705050E+0	1.609590E+0	1.425880E+0	1.794150E+0	1.801840E+0	1.864410E+0	1.578320E+0	1.533110E+0	1.509660E+0	1.694370E+0	1.438870E+0	1.743380E+0	1.726150E+0	1.841900E+0	1.722700E+0	1.598160E+0	1.674530E+0	1.567810E+0	1.525690E+0	1.563690E+0	1.680260E+0	1.762140E+0	1.736890E+0	1.546420E+0	1.606010E+0	1.490550E+0	1.547660E+0	1.905580E+0	1.843060E+0	1.535690E+0	1.735500E+0	1.689960E+0	1.632630E+0	1.452160E+0	1.571820E+0	1.866510E+0	1.762070E+0	1.716670E+0	1.848900E+0	1.615930E+0	1.604200E+0	1.653480E+0	1.589720E+0	1.865490E+0	1.847280E+0	1.814610E+0	1.752030E+0	1.586620E+0	1.653610E+0	1.620530E+0	1.535340E+0	1.735090E+0	1.809620E+0	1.943660E+0	1.764800E+0	1.499690E+0	1.680090E+0	1.728960E+0	1.633050E+0	1.685890E+0	1.940070E+0	1.858040E+0	1.825160E+0	1.638790E+0	1.740520E+0	1.570050E+0	1.588150E+0	1.666200E+0	1.896550E+0	1.857410E+0	1.852150E+0	1.459600E+0	1.625860E+0	1.635010E+0	1.534340E+0	1.763720E+0	1.882880E+0	1.698200E+0	1.628750E+0	1.605240E+0	1.700780E+0	1.496440E+0	1.409820E+0	1.686710E+0	1.843950E+0	1.675990E+0	1.668520E+0	1.450010E+0	1.650100E+0	1.603050E+0	1.530140E+0	1.745570E+0	1.941200E+0	1.754380E+0	1.673050E+0	1.476450E+0	1.752030E+0	1.538360E+0	1.405050E+0	1.548900E+0	1.960280E+0	1.719720E+0	1.660740E+0	1.483800E+0	1.657430E+0
2.000000E+3	1.364510E+0	1.503430E+0	1.392850E+0	1.350850E+0	1.520420E+0	1.517150E+0	1.487280E+0	1.598400E+0	1.651910E+0	1.606040E+0	1.641990E+0	1.638070E+0	1.942810E+0	1.850600E+0	1.826790E+0	1.831170E+0	1.719000E+0	1.714040E+0	1.580310E+0	1.543000E+0	1.852260E+0	1.795130E+0	1.821560E+0	1.806190E+0	1.476510E+0	1.612280E+0	1.623990E+0	1.557150E+0	1.634040E+0	1.883430E+0	1.768060E+0	1.776750E+0	1.496490E+0	1.642130E+0	1.584360E+0	1.469980E+0	1.781560E+0	1.779210E+0	1.917550E+0	1.698370E+0	1.600610E+0	1.615960E+0	1.709200E+0	1.542050E+0	1.893010E+0	1.918950E+0	1.788700E+0	1.625440E+0	1.625370E+0	1.628570E+0	1.557130E+0	1.361310E+0	1.830130E+0	1.706460E+0	1.835440E+0	1.654870E+0	1.607830E+0	1.464540E+0	1.571330E+0	1.605270E+0	1.944430E+0	1.729880E+0	1.698440E+0	1.800030E+0	1.655530E+0	1.701510E+0	1.606730E+0	1.423780E+0	1.791490E+0	1.798340E+0	1.860630E+0	1.575480E+0	1.529990E+0	1.506880E+0	1.691410E+0	1.436480E+0	1.740280E+0	1.722800E+0	1.838310E+0	1.719540E+0	1.595230E+0	1.671350E+0	1.565040E+0	1.522340E+0	1.560860E+0	1.677000E+0	1.758690E+0	1.733550E+0	1.543520E+0	1.603090E+0	1.487840E+0	1.544560E+0	1.901840E+0	1.839380E+0	1.533040E+0	1.732120E+0	1.686760E+0	1.629550E+0	1.449610E+0	1.568990E+0	1.862690E+0	1.758660E+0	1.713460E+0	1.845230E+0	1.613040E+0	1.601290E+0	1.650470E+0	1.586820E+0	1.861730E+0	1.843720E+0	1.811020E+0	1.748760E+0	1.583710E+0	1.650370E+0	1.617560E+0	1.532480E+0	1.731780E+0	1.806150E+0	1.939830E+0	1.761680E+0	1.497160E+0	1.676570E+0	1.725690E+0	1.630070E+0	1.682780E+0	1.936150E+0	1.854530E+0	1.821580E+0	1.635690E+0	1.737120E+0	1.567240E+0	1.585400E+0	1.663060E+0	1.892740E+0	1.853940E+0	1.848630E+0	1.457260E+0	1.622960E+0	1.632160E+0	1.531490E+0	1.760500E+0	1.879230E+0	1.692390E+0	1.626220E+0	1.602320E+0	1.697610E+0	1.493520E+0	1.407550E+0	1.683670E+0	1.840430E+0	1.673030E+0	1.665570E+0	1.447600E+0	1.647210E+0	1.600270E+0	1.527580E+0	1.742310E+0	1.937310E+0	1.751220E+0	1.670070E+0	1.473990E+0	1.748800E+0	1.535700E+0	1.402800E+0	1.546320E+0	1.956430E+0	1.716680E+0	1.657690E+0	1.481300E+0	1.684160E+0
2.100000E+3	1.362370E+0	1.501130E+0	1.389690E+0	1.348730E+0	1.517890E+0	1.514820E+0	1.483980E+0	1.595630E+0	1.649110E+0	1.603280E+0	1.638400E+0	1.635220E+0	1.938160E+0	1.847210E+0	1.822980E+0	1.828030E+0	1.716100E+0	1.711150E+0	1.576410E+0	1.540740E+0	1.849040E+0	1.792110E+0	1.815370E+0	1.804920E+0	1.474790E+0	1.610130E+0	1.621730E+0	1.555500E+0	1.631410E+0	1.880780E+0	1.764250E+0	1.773900E+0	1.494640E+0	1.640300E+0	1.581510E+0	1.468260E+0	1.778920E+0	1.775720E+0	1.912480E+0	1.696110E+0	1.598070E+0	1.613630E+0	1.706260E+0	1.539690E+0	1.889560E+0	1.915390E+0	1.785530E+0	1.622640E+0	1.623330E+0	1.625400E+0	1.553310E+0	1.358930E+0	1.826390E+0	1.702410E+0	1.831620E+0	1.651670E+0	1.603880E+0	1.461920E+0	1.568520E+0	1.602200E+0	1.939390E+0	1.724820E+0	1.695040E+0	1.796430E+0	1.651880E+0	1.697830E+0	1.603630E+0	1.419310E+0	1.786890E+0	1.794710E+0	1.856850E+0	1.571950E+0	1.526300E+0	1.504280E+0	1.687830E+0	1.433920E+0	1.735920E+0	1.719330E+0	1.834620E+0	1.716060E+0	1.592100E+0	1.667990E+0	1.562080E+0	1.518920E+0	1.557630E+0	1.673680E+0	1.755260E+0	1.730170E+0	1.540080E+0	1.600000E+0	1.484580E+0	1.541710E+0	1.897820E+0	1.835580E+0	1.530170E+0	1.728800E+0	1.683560E+0	1.626440E+0	1.447080E+0	1.566090E+0	1.858880E+0	1.755170E+0	1.710120E+0	1.841590E+0	1.609960E+0	1.598230E+0	1.647340E+0	1.583920E+0	1.858040E+0	1.839910E+0	1.807450E+0	1.745370E+0	1.580820E+0	1.647290E+0	1.614700E+0	1.529890E+0	1.728390E+0	1.802720E+0	1.935840E+0	1.758170E+0	1.494670E+0	1.673290E+0	1.722350E+0	1.627080E+0	1.679650E+0	1.932060E+0	1.850810E+0	1.818060E+0	1.632760E+0	1.733810E+0	1.564510E+0	1.582550E+0	1.660070E+0	1.888920E+0	1.850250E+0	1.845000E+0	1.454740E+0	1.619950E+0	1.629240E+0	1.528890E+0	1.757100E+0	1.875490E+0	1.689350E+0	1.623320E+0	1.599430E+0	1.694470E+0	1.491070E+0	1.405260E+0	1.680610E+0	1.836880E+0	1.670000E+0	1.662490E+0	1.445150E+0	1.644140E+0	1.597450E+0	1.524880E+0	1.739070E+0	1.933400E+0	1.748040E+0	1.667180E+0	1.471460E+0	1.745540E+0	1.533130E+0	1.400550E+0	1.543640E+0	1.952490E+0	1.713610E+0	1.654760E+0	1.478880E+0	1.681190E+0
2.200000E+3	1.360550E+0	1.499000E+0	1.387790E+0	1.346980E+0	1.515780E+0	1.512760E+0	1.481900E+0	1.593450E+0	1.646680E+0	1.601060E+0	1.636040E+0	1.632720E+0	1.933750E+0	1.844390E+0	1.819930E+0	1.823520E+0	1.713490E+0	1.708640E+0	1.573560E+0	1.538630E+0	1.846160E+0	1.789440E+0	1.811060E+0	1.799960E+0	1.474120E+0	1.610280E+0	1.621360E+0	1.555730E+0	1.629140E+0	1.879510E+0	1.759240E+0	1.772010E+0	1.492770E+0	1.640290E+0	1.577890E+0	1.465850E+0	1.776040E+0	1.772920E+0	1.904630E+0	1.694860E+0	1.594560E+0	1.612060E+0	1.699330E+0	1.537400E+0	1.886370E+0	1.911580E+0	1.784000E+0	1.620370E+0	1.623260E+0	1.622510E+0	1.550270E+0	1.356740E+0	1.822470E+0	1.696010E+0	1.827910E+0	1.648450E+0	1.598210E+0	1.459400E+0	1.565700E+0	1.599470E+0	1.932980E+0	1.720490E+0	1.691910E+0	1.792710E+0	1.647910E+0	1.691010E+0	1.600040E+0	1.415290E+0	1.782610E+0	1.791130E+0	1.853190E+0	1.567810E+0	1.521680E+0	1.501680E+0	1.684380E+0	1.431650E+0	1.730160E+0	1.716030E+0	1.831040E+0	1.712860E+0	1.589140E+0	1.663800E+0	1.559240E+0	1.513450E+0	1.554220E+0	1.670530E+0	1.751920E+0	1.726910E+0	1.535770E+0	1.597130E+0	1.480430E+0	1.538790E+0	1.894040E+0	1.831970E+0	1.527570E+0	1.725500E+0	1.680400E+0	1.623480E+0	1.444600E+0	1.563360E+0	1.855370E+0	1.752000E+0	1.707150E+0	1.838110E+0	1.607160E+0	1.595410E+0	1.644360E+0	1.581190E+0	1.854510E+0	1.836600E+0	1.804250E+0	1.742360E+0	1.578090E+0	1.644480E+0	1.611900E+0	1.527420E+0	1.725510E+0	1.799470E+0	1.932390E+0	1.755280E+0	1.492440E+0	1.669730E+0	1.719480E+0	1.624450E+0	1.676870E+0	1.928540E+0	1.847570E+0	1.814990E+0	1.630110E+0	1.730860E+0	1.562100E+0	1.580160E+0	1.657420E+0	1.885660E+0	1.847160E+0	1.841880E+0	1.452740E+0	1.617470E+0	1.626730E+0	1.526640E+0	1.754290E+0	1.872170E+0	1.686600E+0	1.620790E+0	1.596900E+0	1.691820E+0	1.488920E+0	1.403320E+0	1.677960E+0	1.833720E+0	1.667410E+0	1.660020E+0	1.443130E+0	1.641620E+0	1.595020E+0	1.522740E+0	1.736330E+0	1.930110E+0	1.745400E+0	1.664690E+0	1.469430E+0	1.742800E+0	1.530950E+0	1.398710E+0	1.541430E+0	1.949270E+0	1.711110E+0	1.652380E+0	1.476940E+0	1.678730E+0
2.300000E+3	1.358140E+0	1.496220E+0	1.385250E+0	1.344650E+0	1.512930E+0	1.509940E+0	1.479290E+0	1.590470E+0	1.643360E+0	1.597870E+0	1.632670E+0	1.629470E+0	1.931270E+0	1.840310E+0	1.815870E+0	1.821880E+0	1.709830E+0	1.705080E+0	1.570480E+0	1.535690E+0	1.842200E+0	1.785790E+0	1.807880E+0	1.799320E+0	1.469270E+0	1.604340E+0	1.615010E+0	1.549450E+0	1.625690E+0	1.873650E+0	1.757180E+0	1.767510E+0	1.489110E+0	1.634680E+0	1.574410E+0	1.462730E+0	1.772070E+0	1.769510E+0	1.900400E+0	1.689650E+0	1.592300E+0	1.607620E+0	1.694310E+0	1.534550E+0	1.882500E+0	1.907880E+0	1.777160E+0	1.617110E+0	1.617170E+0	1.620020E+0	1.546570E+0	1.354650E+0	1.819870E+0	1.695980E+0	1.822890E+0	1.646110E+0	1.597900E+0	1.457300E+0	1.562460E+0	1.596860E+0	1.932380E+0	1.718050E+0	1.689040E+0	1.789650E+0	1.646260E+0	1.691810E+0	1.595870E+0	1.415380E+0	1.779580E+0	1.788140E+0	1.848980E+0	1.567120E+0	1.521340E+0	1.499490E+0	1.681040E+0	1.429480E+0	1.729520E+0	1.713130E+0	1.827920E+0	1.710010E+0	1.586610E+0	1.661980E+0	1.556810E+0	1.513950E+0	1.552790E+0	1.667920E+0	1.748950E+0	1.724070E+0	1.535310E+0	1.594580E+0	1.480100E+0	1.536610E+0	1.890560E+0	1.828680E+0	1.525090E+0	1.722610E+0	1.677490E+0	1.620760E+0	1.442470E+0	1.560860E+0	1.851970E+0	1.748870E+0	1.704210E+0	1.834810E+0	1.604470E+0	1.592730E+0	1.641530E+0	1.578490E+0	1.850990E+0	1.833060E+0	1.800810E+0	1.739020E+0	1.575320E+0	1.641500E+0	1.609020E+0	1.524890E+0	1.722260E+0	1.796050E+0	1.928450E+0	1.751810E+0	1.490160E+0	1.666910E+0	1.716240E+0	1.621480E+0	1.673640E+0	1.924510E+0	1.843910E+0	1.811340E+0	1.627030E+0	1.727470E+0	1.559450E+0	1.577370E+0	1.654350E+0	1.881790E+0	1.843500E+0	1.838240E+0	1.450190E+0	1.614430E+0	1.623710E+0	1.523790E+0	1.750860E+0	1.868340E+0	1.683450E+0	1.617800E+0	1.593970E+0	1.688530E+0	1.486330E+0	1.400880E+0	1.674850E+0	1.830070E+0	1.664360E+0	1.656890E+0	1.440650E+0	1.638510E+0	1.592130E+0	1.520090E+0	1.732960E+0	1.926000E+0	1.741940E+0	1.661520E+0	1.466800E+0	1.739280E+0	1.528240E+0	1.396360E+0	1.538590E+0	1.945100E+0	1.707790E+0	1.649220E+0	1.474260E+0	1.675490E+0
2.325000E+3	1.356170E+0	1.493780E+0	1.383030E+0	1.342610E+0	1.510440E+0	1.507550E+0	1.476750E+0	1.587790E+0	1.640580E+0	1.595130E+0	1.629850E+0	1.626580E+0	1.927550E+0	1.837010E+0	1.812600E+0	1.818550E+0	1.706910E+0	1.702060E+0	1.567750E+0	1.533070E+0	1.838980E+0	1.782470E+0	1.802660E+0	1.795500E+0	1.467000E+0	1.600490E+0	1.611360E+0	1.545740E+0	1.622890E+0	1.868810E+0	1.753660E+0	1.764440E+0	1.487160E+0	1.630650E+0	1.571910E+0	1.460680E+0	1.769110E+0	1.766600E+0	1.897060E+0	1.686590E+0	1.589050E+0	1.605100E+0	1.691150E+0	1.532230E+0	1.879080E+0	1.904540E+0	1.774200E+0	1.613960E+0	1.613990E+0	1.617110E+0	1.543980E+0	1.352540E+0	1.816400E+0	1.691650E+0	1.819610E+0	1.643380E+0	1.594120E+0	1.454960E+0	1.559810E+0	1.594070E+0	1.927250E+0	1.715010E+0	1.685780E+0	1.786160E+0	1.643620E+0	1.686400E+0	1.589120E+0	1.413120E+0	1.776460E+0	1.785010E+0	1.844480E+0	1.564790E+0	1.517700E+0	1.497040E+0	1.676440E+0	1.427090E+0	1.724720E+0	1.710120E+0	1.824050E+0	1.706820E+0	1.583850E+0	1.658390E+0	1.552760E+0	1.510850E+0	1.548630E+0	1.665040E+0	1.743890E+0	1.721170E+0	1.531600E+0	1.591910E+0	1.472720E+0	1.533860E+0	1.887010E+0	1.825320E+0	1.522530E+0	1.719550E+0	1.674530E+0	1.617930E+0	1.439820E+0	1.558240E+0	1.848590E+0	1.745730E+0	1.700900E+0	1.831440E+0	1.601720E+0	1.590050E+0	1.638510E+0	1.575940E+0	1.847660E+0	1.829690E+0	1.797670E+0	1.735960E+0	1.572660E+0	1.638610E+0	1.606270E+0	1.522450E+0	1.719270E+0	1.792720E+0	1.924840E+0	1.748750E+0	1.487500E+0	1.663920E+0	1.713350E+0	1.618710E+0	1.670820E+0	1.920940E+0	1.840660E+0	1.808280E+0	1.624270E+0	1.724460E+0	1.556800E+0	1.574810E+0	1.651550E+0	1.878340E+0	1.840230E+0	1.834920E+0	1.447870E+0	1.611760E+0	1.620950E+0	1.521270E+0	1.747840E+0	1.864930E+0	1.680710E+0	1.615120E+0	1.591430E+0	1.685820E+0	1.484050E+0	1.398780E+0	1.672060E+0	1.826850E+0	1.661670E+0	1.654120E+0	1.438520E+0	1.635820E+0	1.589620E+0	1.517650E+0	1.730030E+0	1.922500E+0	1.739170E+0	1.658900E+0	1.464570E+0	1.736350E+0	1.525950E+0	1.394440E+0	1.536260E+0	1.941650E+0	1.705060E+0	1.646760E+0	1.472030E+0	1.672890E+0
2.350000E+3	1.353900E+0	1.491500E+0	1.380940E+0	1.340810E+0	1.508020E+0	1.505100E+0	1.474510E+0	1.585350E+0	1.637820E+0	1.592610E+0	1.662880E+0	1.622420E+0	1.923960E+0	1.833760E+0	1.901590E+0	1.811530E+0	1.703490E+0	1.698470E+0	1.660050E+0	1.525210E+0	1.835050E+0	1.778270E+0	1.862730E+0	1.790250E+0	1.464540E+0	1.597640E+0	1.610130E+0	1.543810E+0	1.620000E+0	1.865540E+0	1.749570E+0	1.760110E+0	1.484520E+0	1.627930E+0	1.569070E+0	1.458470E+0	1.766080E+0	1.763020E+0	1.893000E+0	1.683010E+0	1.587030E+0	1.601390E+0	1.687230E+0	1.529170E+0	1.875320E+0	1.900340E+0	1.770490E+0	1.610750E+0	1.611290E+0	1.614340E+0	1.541470E+0	1.350450E+0	1.812990E+0	1.689640E+0	1.816410E+0	1.640710E+0	1.590980E+0	1.452650E+0	1.557170E+0	1.591350E+0	1.922460E+0	1.711430E+0	1.682740E+0	1.783150E+0	1.640120E+0	1.683980E+0	1.586650E+0	1.411250E+0	1.773200E+0	1.781810E+0	1.841110E+0	1.562190E+0	1.514380E+0	1.494570E+0	1.671970E+0	1.424680E+0	1.721260E+0	1.706980E+0	1.820510E+0	1.703760E+0	1.581190E+0	1.654840E+0	1.549910E+0	1.508540E+0	1.546340E+0	1.662200E+0	1.740480E+0	1.717940E+0	1.528690E+0	1.587910E+0	1.469110E+0	1.531110E+0	1.883410E+0	1.821950E+0	1.519200E+0	1.716350E+0	1.671610E+0	1.615240E+0	1.435660E+0	1.555650E+0	1.845230E+0	1.742730E+0	1.695860E+0	1.828210E+0	1.599130E+0	1.587490E+0	1.634360E+0	1.573530E+0	1.844380E+0	1.826410E+0	1.794530E+0	1.733010E+0	1.570140E+0	1.635870E+0	1.603680E+0	1.519950E+0	1.716340E+0	1.789470E+0	1.921290E+0	1.745710E+0	1.484930E+0	1.660620E+0	1.710480E+0	1.616040E+0	1.668070E+0	1.917320E+0	1.837310E+0	1.805070E+0	1.621620E+0	1.721460E+0	1.554280E+0	1.572210E+0	1.648720E+0	1.874900E+0	1.836920E+0	1.831610E+0	1.445720E+0	1.609150E+0	1.618380E+0	1.518940E+0	1.744810E+0	1.861550E+0	1.677930E+0	1.612560E+0	1.588780E+0	1.682810E+0	1.481740E+0	1.396680E+0	1.669250E+0	1.823600E+0	1.658910E+0	1.650870E+0	1.436340E+0	1.633190E+0	1.587170E+0	1.513930E+0	1.727210E+0	1.919050E+0	1.736270E+0	1.654670E+0	1.462560E+0	1.733480E+0	1.523680E+0	1.391420E+0	1.534080E+0	1.938260E+0	1.702300E+0	1.644100E+0	1.469940E+0	1.670170E+0
2.375000E+3	1.352570E+0	1.489420E+0	1.379230E+0	1.339080E+0	1.505880E+0	1.502980E+0	1.472420E+0	1.582930E+0	1.635280E+0	1.590270E+0	1.721680E+0	1.617180E+0	1.919370E+0	1.830070E+0	2.056340E+0	1.801810E+0	1.699690E+0	1.694150E+0	1.820790E+0	1.515000E+0	1.830910E+0	1.774110E+0	1.968040E+0	1.784260E+0	1.461230E+0	1.593750E+0	1.653520E+0	1.538310E+0	1.616910E+0	1.861240E+0	1.871450E+0	1.750130E+0	1.480970E+0	1.623530E+0	1.692450E+0	1.449720E+0	1.761970E+0	1.757730E+0	1.967760E+0	1.678200E+0	1.584230E+0	1.597180E+0	1.684920E+0	1.524930E+0	1.870270E+0	1.895010E+0	1.766800E+0	1.608700E+0	1.608500E+0	1.611570E+0	1.539040E+0	1.348460E+0	1.810220E+0	1.687940E+0	1.813540E+0	1.638040E+0	1.589340E+0	1.450390E+0	1.554760E+0	1.588450E+0	1.919830E+0	1.708860E+0	1.680000E+0	1.779840E+0	1.637980E+0	1.682540E+0	1.584140E+0	1.409710E+0	1.770090E+0	1.778860E+0	1.837900E+0	1.559600E+0	1.511930E+0	1.492280E+0	1.669710E+0	1.422280E+0	1.719180E+0	1.704150E+0	1.817410E+0	1.700780E+0	1.578640E+0	1.653360E+0	1.547470E+0	1.506410E+0	1.544440E+0	1.659370E+0	1.737450E+0	1.714910E+0	1.526990E+0	1.586130E+0	1.467270E+0	1.528730E+0	1.879970E+0	1.818630E+0	1.516840E+0	1.713380E+0	1.668800E+0	1.612380E+0	1.433450E+0	1.553020E+0	1.841770E+0	1.739380E+0	1.692790E+0	1.824780E+0	1.596420E+0	1.584720E+0	1.631540E+0	1.570920E+0	1.840940E+0	1.823060E+0	1.791380E+0	1.730030E+0	1.567600E+0	1.632960E+0	1.600850E+0	1.517410E+0	1.713240E+0	1.786110E+0	1.917620E+0	1.742470E+0	1.482220E+0	1.658440E+0	1.707530E+0	1.613310E+0	1.665170E+0	1.913540E+0	1.833960E+0	1.801660E+0	1.618710E+0	1.718210E+0	1.551650E+0	1.569410E+0	1.645830E+0	1.871240E+0	1.833500E+0	1.828020E+0	1.443440E+0	1.606390E+0	1.615610E+0	1.516280E+0	1.741600E+0	1.857850E+0	1.674800E+0	1.609480E+0	1.585920E+0	1.679640E+0	1.479210E+0	1.394380E+0	1.666210E+0	1.820210E+0	1.656040E+0	1.646940E+0	1.434020E+0	1.630380E+0	1.584650E+0	1.508850E+0	1.724250E+0	1.915280E+0	1.733160E+0	1.649100E+0	1.460350E+0	1.730290E+0	1.521290E+0	1.387650E+0	1.531770E+0	1.934470E+0	1.699390E+0	1.640670E+0	1.467510E+0	1.667260E+0
2.400000E+3	1.350700E+0	1.487040E+0	1.377080E+0	1.336960E+0	1.503500E+0	1.500590E+0	1.469960E+0	1.580350E+0	1.632440E+0	1.587570E+0	1.718730E+0	1.614490E+0	1.915810E+0	1.826840E+0	2.052130E+0	1.798620E+0	1.696670E+0	1.691250E+0	1.817340E+0	1.511880E+0	1.827610E+0	1.770870E+0	1.964050E+0	1.780400E+0	1.459510E+0	1.591390E+0	1.690120E+0	1.534290E+0	1.612920E+0	1.857740E+0	1.977550E+0	1.741190E+0	1.478080E+0	1.620070E+0	1.799440E+0	1.442490E+0	1.758070E+0	1.753630E+0	2.030270E+0	1.674710E+0	1.581780E+0	1.593120E+0	1.730410E+0	1.519770E+0	1.865940E+0	1.890720E+0	1.907410E+0	1.603020E+0	1.604630E+0	1.607320E+0	1.694900E+0	1.339040E+0	1.807440E+0	1.684880E+0	1.873280E+0	1.632570E+0	1.588310E+0	1.447340E+0	1.583820E+0	1.584140E+0	1.916690E+0	1.705290E+0	1.756300E+0	1.774620E+0	1.634430E+0	1.679680E+0	1.662600E+0	1.405010E+0	1.768940E+0	1.775120E+0	1.882570E+0	1.554830E+0	1.511370E+0	1.489190E+0	1.669070E+0	1.419560E+0	1.717490E+0	1.700890E+0	1.813870E+0	1.697550E+0	1.575690E+0	1.650270E+0	1.544960E+0	1.504730E+0	1.542420E+0	1.656370E+0	1.734330E+0	1.711510E+0	1.524890E+0	1.583610E+0	1.464630E+0	1.525690E+0	1.876120E+0	1.815020E+0	1.514230E+0	1.709920E+0	1.665630E+0	1.609450E+0	1.430970E+0	1.550160E+0	1.838090E+0	1.736080E+0	1.689550E+0	1.821090E+0	1.593380E+0	1.581810E+0	1.628400E+0	1.567940E+0	1.837210E+0	1.819480E+0	1.787900E+0	1.726620E+0	1.564700E+0	1.629840E+0	1.598040E+0	1.514610E+0	1.710010E+0	1.782530E+0	1.913710E+0	1.738960E+0	1.479210E+0	1.655140E+0	1.704190E+0	1.610280E+0	1.662070E+0	1.909530E+0	1.830360E+0	1.798130E+0	1.615680E+0	1.714700E+0	1.548630E+0	1.566460E+0	1.642560E+0	1.867220E+0	1.829770E+0	1.824240E+0	1.440800E+0	1.603280E+0	1.612550E+0	1.513570E+0	1.738270E+0	1.853980E+0	1.671490E+0	1.606390E+0	1.582860E+0	1.676240E+0	1.476340E+0	1.391700E+0	1.662910E+0	1.816320E+0	1.652730E+0	1.643670E+0	1.431450E+0	1.627260E+0	1.581660E+0	1.505980E+0	1.720830E+0	1.911120E+0	1.729710E+0	1.645920E+0	1.457560E+0	1.726690E+0	1.518340E+0	1.384890E+0	1.528770E+0	1.930300E+0	1.696120E+0	1.636680E+0	1.464750E+0	1.664080E+0
2.425000E+3	1.349130E+0	1.485140E+0	1.375340E+0	1.335210E+0	1.501500E+0	1.498560E+0	1.468010E+0	1.578230E+0	1.630170E+0	1.585390E+0	1.716250E+0	1.612220E+0	1.911970E+0	1.824020E+0	2.046270E+0	1.795920E+0	1.694230E+0	1.688850E+0	1.814540E+0	1.511780E+0	1.824840E+0	1.768260E+0	1.963510E+0	1.777720E+0	1.457360E+0	1.590140E+0	1.690600E+0	1.534170E+0	1.611960E+0	1.854760E+0	1.975990E+0	1.742080E+0	1.475750E+0	1.617650E+0	1.796100E+0	1.440230E+0	1.755090E+0	1.752060E+0	2.025030E+0	1.669890E+0	1.578130E+0	1.594080E+0	1.736510E+0	1.519150E+0	1.864360E+0	1.888980E+0	1.930930E+0	1.595930E+0	1.601400E+0	1.604000E+0	1.720880E+0	1.338630E+0	1.802320E+0	1.677860E+0	1.881890E+0	1.629650E+0	1.581820E+0	1.444620E+0	1.652660E+0	1.578000E+0	1.910400E+0	1.700810E+0	1.937220E+0	1.765940E+0	1.630150E+0	1.673830E+0	1.843380E+0	1.395120E+0	1.764750E+0	1.770160E+0	1.990590E+0	1.547360E+0	1.506230E+0	1.485630E+0	1.712100E+0	1.414930E+0	1.713320E+0	1.697030E+0	1.926240E+0	1.689500E+0	1.571970E+0	1.645990E+0	1.666820E+0	1.497070E+0	1.539010E+0	1.652220E+0	1.821480E+0	1.704440E+0	1.521770E+0	1.579290E+0	1.463610E+0	1.522760E+0	1.872400E+0	1.811380E+0	1.511590E+0	1.706560E+0	1.662450E+0	1.606480E+0	1.428600E+0	1.547160E+0	1.834470E+0	1.732870E+0	1.686490E+0	1.817340E+0	1.590450E+0	1.578960E+0	1.625490E+0	1.564770E+0	1.833550E+0	1.816070E+0	1.784650E+0	1.723410E+0	1.561950E+0	1.627150E+0	1.595250E+0	1.511880E+0	1.706960E+0	1.779400E+0	1.909960E+0	1.735660E+0	1.476380E+0	1.652680E+0	1.701140E+0	1.607270E+0	1.659170E+0	1.905890E+0	1.827010E+0	1.794730E+0	1.612910E+0	1.711680E+0	1.546080E+0	1.563650E+0	1.639770E+0	1.863720E+0	1.826390E+0	1.820780E+0	1.438570E+0	1.600540E+0	1.609740E+0	1.510980E+0	1.735240E+0	1.850370E+0	1.668490E+0	1.603600E+0	1.580200E+0	1.673120E+0	1.473890E+0	1.389330E+0	1.659940E+0	1.812830E+0	1.649740E+0	1.640700E+0	1.429170E+0	1.624360E+0	1.578930E+0	1.503450E+0	1.717790E+0	1.907350E+0	1.726590E+0	1.642940E+0	1.455180E+0	1.723470E+0	1.515730E+0	1.382610E+0	1.526180E+0	1.926440E+0	1.693170E+0	1.633770E+0	1.462460E+0	1.661200E+0
2.450000E+3	1.347220E+0	1.483100E+0	1.373670E+0	1.333630E+0	1.499490E+0	1.496580E+0	1.466100E+0	1.576030E+0	1.627910E+0	1.583200E+0	1.713610E+0	1.610000E+0	1.908880E+0	1.821190E+0	2.042820E+0	1.792760E+0	1.691730E+0	1.686340E+0	1.811640E+0	1.509690E+0	1.822000E+0	1.765490E+0	1.960220E+0	1.774680E+0	1.455400E+0	1.590370E+0	1.689300E+0	1.533580E+0	1.609720E+0	1.853270E+0	1.972670E+0	1.739710E+0	1.473610E+0	1.616250E+0	1.793240E+0	1.438440E+0	1.752420E+0	1.748420E+0	2.021620E+0	1.668410E+0	1.575700E+0	1.591620E+0	1.734020E+0	1.516870E+0	1.861120E+0	1.885240E+0	1.927180E+0	1.593190E+0	1.599320E+0	1.601230E+0	1.715510E+0	1.430430E+0	1.795490E+0	1.674230E+0	1.877490E+0	1.647600E+0	1.577890E+0	1.442310E+0	1.649660E+0	1.575360E+0	1.906500E+0	1.697820E+0	1.933530E+0	1.762660E+0	1.627310E+0	1.668600E+0	1.839770E+0	1.392870E+0	1.759870E+0	1.766970E+0	1.986600E+0	1.544800E+0	1.503900E+0	1.483220E+0	1.761250E+0	1.410360E+0	1.708640E+0	1.693570E+0	2.054590E+0	1.681020E+0	1.568400E+0	1.641810E+0	1.806090E+0	1.488550E+0	1.535940E+0	1.648260E+0	1.921170E+0	1.697220E+0	1.518730E+0	1.575730E+0	1.491300E+0	1.519260E+0	1.868790E+0	1.807680E+0	1.587610E+0	1.700250E+0	1.658900E+0	1.603020E+0	1.520040E+0	1.540640E+0	1.830640E+0	1.729070E+0	1.737480E+0	1.811660E+0	1.587640E+0	1.575780E+0	1.623660E+0	1.561980E+0	1.830070E+0	1.812730E+0	1.781530E+0	1.720270E+0	1.559350E+0	1.624320E+0	1.592810E+0	1.509340E+0	1.704010E+0	1.776340E+0	1.906500E+0	1.732590E+0	1.473780E+0	1.649680E+0	1.698300E+0	1.604250E+0	1.656220E+0	1.902230E+0	1.823840E+0	1.791350E+0	1.610090E+0	1.708820E+0	1.543540E+0	1.561110E+0	1.637090E+0	1.860370E+0	1.823160E+0	1.817350E+0	1.436350E+0	1.597940E+0	1.606990E+0	1.508500E+0	1.732110E+0	1.846940E+0	1.665700E+0	1.600660E+0	1.577690E+0	1.670210E+0	1.471500E+0	1.387110E+0	1.657060E+0	1.809550E+0	1.646880E+0	1.637840E+0	1.426870E+0	1.621580E+0	1.576370E+0	1.500990E+0	1.714920E+0	1.903740E+0	1.723630E+0	1.640200E+0	1.452810E+0	1.720300E+0	1.513280E+0	1.380340E+0	1.523680E+0	1.922670E+0	1.690200E+0	1.630960E+0	1.460100E+0	1.658430E+0
2.475000E+3	1.345080E+0	1.480960E+0	1.371810E+0	1.331690E+0	1.497260E+0	1.494350E+0	1.463890E+0	1.573710E+0	1.625300E+0	1.580740E+0	1.710830E+0	1.607430E+0	1.905600E+0	1.818070E+0	2.039350E+0	1.789770E+0	1.688910E+0	1.683620E+0	1.808480E+0	1.507430E+0	1.818890E+0	1.762530E+0	1.956610E+0	1.769830E+0	1.455280E+0	1.588200E+0	1.686200E+0	1.531540E+0	1.607120E+0	1.852270E+0	1.968990E+0	1.736540E+0	1.472490E+0	1.616230E+0	1.790130E+0	1.436100E+0	1.749540E+0	1.744440E+0	2.017780E+0	1.665300E+0	1.572650E+0	1.589170E+0	1.731520E+0	1.514260E+0	1.857660E+0	1.881550E+0	1.924550E+0	1.591410E+0	1.597670E+0	1.598220E+0	1.714320E+0	1.427920E+0	1.791650E+0	1.670290E+0	1.873540E+0	1.644360E+0	1.575010E+0	1.439750E+0	1.646430E+0	1.572480E+0	1.902530E+0	1.694450E+0	1.929330E+0	1.758790E+0	1.623870E+0	1.664670E+0	1.835890E+0	1.390310E+0	1.756030E+0	1.763350E+0	1.982250E+0	1.541900E+0	1.500910E+0	1.480590E+0	1.757700E+0	1.407920E+0	1.704420E+0	1.690220E+0	2.049920E+0	1.677780E+0	1.565380E+0	1.637970E+0	1.802350E+0	1.485860E+0	1.533100E+0	1.645000E+0	1.917120E+0	1.693970E+0	1.515310E+0	1.571520E+0	1.520430E+0	1.514660E+0	1.864730E+0	1.803660E+0	1.673980E+0	1.693110E+0	1.655180E+0	1.599200E+0	1.624100E+0	1.533140E+0	1.826420E+0	1.724860E+0	1.795390E+0	1.805480E+0	1.584550E+0	1.572370E+0	1.698200E+0	1.555840E+0	1.825910E+0	1.808400E+0	1.972490E+0	1.708750E+0	1.555190E+0	1.619510E+0	1.784950E+0	1.498210E+0	1.699910E+0	1.771400E+0	2.001520E+0	1.725180E+0	1.470570E+0	1.646140E+0	1.710750E+0	1.600590E+0	1.652940E+0	1.898000E+0	1.862950E+0	1.785980E+0	1.606580E+0	1.705020E+0	1.589910E+0	1.555950E+0	1.633800E+0	1.856300E+0	1.842400E+0	1.812630E+0	1.433740E+0	1.594780E+0	1.604390E+0	1.505430E+0	1.728630E+0	1.843040E+0	1.662470E+0	1.597460E+0	1.574630E+0	1.667000E+0	1.468880E+0	1.384480E+0	1.653840E+0	1.806110E+0	1.643820E+0	1.634590E+0	1.424260E+0	1.618520E+0	1.573380E+0	1.497980E+0	1.711490E+0	1.899720E+0	1.720230E+0	1.636950E+0	1.450210E+0	1.717000E+0	1.510590E+0	1.377910E+0	1.520900E+0	1.918760E+0	1.686930E+0	1.627730E+0	1.457460E+0	1.655280E+0
2.500000E+3	1.343340E+0	1.478990E+0	1.370060E+0	1.330050E+0	1.495270E+0	1.492350E+0	1.461950E+0	1.571500E+0	1.623060E+0	1.578570E+0	1.708370E+0	1.605250E+0	1.902670E+0	1.815310E+0	2.035690E+0	1.786590E+0	1.686540E+0	1.681160E+0	1.805710E+0	1.505520E+0	1.816180E+0	1.760080E+0	1.952960E+0	1.765040E+0	1.455580E+0	1.586430E+0	1.684220E+0	1.529800E+0	1.604930E+0	1.849630E+0	1.964320E+0	1.734320E+0	1.472950E+0	1.614270E+0	1.788280E+0	1.434920E+0	1.747870E+0	1.739000E+0	2.014800E+0	1.662870E+0	1.570180E+0	1.586760E+0	1.728810E+0	1.512390E+0	1.854860E+0	1.878200E+0	1.921240E+0	1.590450E+0	1.597770E+0	1.595270E+0	1.712890E+0	1.425420E+0	1.787640E+0	1.666990E+0	1.869690E+0	1.641210E+0	1.571520E+0	1.437200E+0	1.643380E+0	1.569630E+0	1.898180E+0	1.690730E+0	1.925290E+0	1.754680E+0	1.619550E+0	1.661000E+0	1.832070E+0	1.387930E+0	1.751800E+0	1.759860E+0	1.978050E+0	1.539190E+0	1.498090E+0	1.478080E+0	1.752890E+0	1.405610E+0	1.699760E+0	1.686980E+0	2.045460E+0	1.674680E+0	1.562630E+0	1.632220E+0	1.798740E+0	1.483280E+0	1.530320E+0	1.641890E+0	1.913180E+0	1.690810E+0	1.510370E+0	1.566350E+0	1.517680E+0	1.511940E+0	1.861120E+0	1.800210E+0	1.670920E+0	1.690070E+0	1.652190E+0	1.596300E+0	1.621150E+0	1.530450E+0	1.822950E+0	1.721640E+0	1.791970E+0	1.802140E+0	1.581730E+0	1.569650E+0	1.700560E+0	1.552950E+0	1.822450E+0	1.805070E+0	1.982450E+0	1.705230E+0	1.552540E+0	1.616680E+0	1.795590E+0	1.495150E+0	1.696890E+0	1.768110E+0	2.004690E+0	1.721900E+0	1.468200E+0	1.642750E+0	1.746160E+0	1.596240E+0	1.649880E+0	1.894140E+0	1.977000E+0	1.777870E+0	1.603160E+0	1.701070E+0	1.722460E+0	1.547460E+0	1.630440E+0	1.851780E+0	1.900950E+0	1.806870E+0	1.431500E+0	1.591710E+0	1.672030E+0	1.500120E+0	1.725270E+0	1.838960E+0	1.848010E+0	1.586580E+0	1.570730E+0	1.662470E+0	1.667450E+0	1.373420E+0	1.650100E+0	1.801290E+0	1.764050E+0	1.626550E+0	1.421520E+0	1.614850E+0	1.573010E+0	1.495360E+0	1.708410E+0	1.895890E+0	1.717210E+0	1.634080E+0	1.447700E+0	1.713860E+0	1.508260E+0	1.375650E+0	1.518430E+0	1.915230E+0	1.684380E+0	1.624830E+0	1.455150E+0	1.652490E+0
2.600000E+3	1.341420E+0	1.476570E+0	1.367850E+0	1.327980E+0	1.492830E+0	1.489850E+0	1.459570E+0	1.568740E+0	1.620280E+0	1.575880E+0	1.705190E+0	1.602390E+0	1.898920E+0	1.811870E+0	2.031470E+0	1.783730E+0	1.683520E+0	1.678090E+0	1.802270E+0	1.502880E+0	1.812730E+0	1.756670E+0	1.949510E+0	1.762960E+0	1.452060E+0	1.583450E+0	1.680970E+0	1.526990E+0	1.602040E+0	1.845550E+0	1.961700E+0	1.730990E+0	1.467960E+0	1.611290E+0	1.783550E+0	1.431800E+0	1.743240E+0	1.737780E+0	2.009600E+0	1.659930E+0	1.567470E+0	1.584210E+0	1.725390E+0	1.509660E+0	1.851130E+0	1.874930E+0	1.916680E+0	1.585660E+0	1.593570E+0	1.592750E+0	1.706700E+0	1.423400E+0	1.785470E+0	1.665180E+0	1.866550E+0	1.638730E+0	1.569040E+0	1.435160E+0	1.640750E+0	1.567140E+0	1.895050E+0	1.688110E+0	1.921890E+0	1.752810E+0	1.618210E+0	1.659080E+0	1.828950E+0	1.385920E+0	1.749780E+0	1.756990E+0	1.974470E+0	1.536790E+0	1.496270E+0	1.475870E+0	1.750710E+0	1.403470E+0	1.696830E+0	1.684310E+0	2.041640E+0	1.671880E+0	1.560200E+0	1.631190E+0	1.795620E+0	1.481060E+0	1.527940E+0	1.639240E+0	1.909690E+0	1.688000E+0	1.509480E+0	1.565610E+0	1.515180E+0	1.510310E+0	1.857770E+0	1.796950E+0	1.667990E+0	1.687110E+0	1.649310E+0	1.593630E+0	1.618290E+0	1.528060E+0	1.819700E+0	1.718630E+0	1.788730E+0	1.798940E+0	1.579130E+0	1.567120E+0	1.697590E+0	1.550360E+0	1.819110E+0	1.801590E+0	1.978450E+0	1.702080E+0	1.549770E+0	1.613710E+0	1.792070E+0	1.492620E+0	1.693790E+0	1.764760E+0	2.000650E+0	1.718650E+0	1.465890E+0	1.639880E+0	1.742800E+0	1.593390E+0	1.646860E+0	1.890430E+0	1.972950E+0	1.774430E+0	1.600240E+0	1.697820E+0	1.719110E+0	1.544720E+0	1.627430E+0	1.848070E+0	1.897110E+0	1.803270E+0	1.428910E+0	1.588750E+0	1.690930E+0	1.496380E+0	1.721730E+0	1.835150E+0	1.904050E+0	1.581030E+0	1.567480E+0	1.658820E+0	1.727970E+0	1.368240E+0	1.646650E+0	1.797130E+0	1.799460E+0	1.621760E+0	1.418830E+0	1.611400E+0	1.662350E+0	1.488500E+0	1.704470E+0	1.891050E+0	1.956560E+0	1.620180E+0	1.443480E+0	1.708170E+0	1.751900E+0	1.361970E+0	1.514280E+0	1.909200E+0	1.806410E+0	1.616130E+0	1.451840E+0	1.648100E+0
2.700000E+3	1.339180E+0	1.474430E+0	1.366070E+0	1.325670E+0	1.490650E+0	1.487710E+0	1.457460E+0	1.565730E+0	1.617700E+0	1.573370E+0	1.702440E+0	1.599540E+0	1.895660E+0	1.808830E+0	2.027650E+0	1.780450E+0	1.680670E+0	1.675380E+0	1.799100E+0	1.500600E+0	1.809610E+0	1.753730E+0	1.945860E+0	1.759650E+0	1.448900E+0	1.581040E+0	1.678090E+0	1.524580E+0	1.599550E+0	1.842360E+0	1.957200E+0	1.728050E+0	1.465150E+0	1.608350E+0	1.780410E+0	1.429640E+0	1.740340E+0	1.733330E+0	2.005880E+0	1.657340E+0	1.565060E+0	1.581490E+0	1.722260E+0	1.507100E+0	1.847670E+0	1.870440E+0	1.913960E+0	1.582860E+0	1.590800E+0	1.590220E+0	1.703890E+0	1.421150E+0	1.782080E+0	1.661810E+0	1.862970E+0	1.636130E+0	1.566890E+0	1.433070E+0	1.638060E+0	1.564650E+0	1.891920E+0	1.685340E+0	1.918240E+0	1.747950E+0	1.613700E+0	1.655660E+0	1.825660E+0	1.383900E+0	1.746020E+0	1.753930E+0	1.970830E+0	1.534440E+0	1.493740E+0	1.473580E+0	1.746100E+0	1.401500E+0	1.694230E+0	1.681300E+0	2.037580E+0	1.669060E+0	1.557630E+0	1.626540E+0	1.792460E+0	1.478750E+0	1.525260E+0	1.636580E+0	1.906150E+0	1.685210E+0	1.505580E+0	1.562100E+0	1.513100E+0	1.507320E+0	1.854440E+0	1.793650E+0	1.665100E+0	1.684350E+0	1.646480E+0	1.591040E+0	1.615630E+0	1.525610E+0	1.816500E+0	1.715710E+0	1.785510E+0	1.795720E+0	1.576610E+0	1.564550E+0	1.694640E+0	1.547810E+0	1.815850E+0	1.798370E+0	1.974750E+0	1.699170E+0	1.547370E+0	1.611050E+0	1.788930E+0	1.490350E+0	1.690950E+0	1.761640E+0	1.996840E+0	1.715770E+0	1.463240E+0	1.637200E+0	1.739810E+0	1.590730E+0	1.644080E+0	1.886900E+0	1.969150E+0	1.771310E+0	1.597570E+0	1.694880E+0	1.716130E+0	1.542280E+0	1.624710E+0	1.844680E+0	1.893580E+0	1.800120E+0	1.426800E+0	1.586140E+0	1.688050E+0	1.494100E+0	1.718780E+0	1.831790E+0	1.900500E+0	1.578480E+0	1.564950E+0	1.655970E+0	1.724910E+0	1.366200E+0	1.643950E+0	1.793930E+0	1.796210E+0	1.619080E+0	1.416660E+0	1.608830E+0	1.662740E+0	1.486030E+0	1.701580E+0	1.887590E+0	1.961110E+0	1.617150E+0	1.441280E+0	1.705180E+0	1.757310E+0	1.359620E+0	1.511910E+0	1.905650E+0	1.807440E+0	1.613380E+0	1.449620E+0	1.645310E+0
2.800000E+3	1.336380E+0	1.472430E+0	1.364400E+0	1.322370E+0	1.488460E+0	1.485700E+0	1.455470E+0	1.561720E+0	1.615360E+0	1.571020E+0	1.699920E+0	1.596160E+0	1.892420E+0	1.805890E+0	2.024400E+0	1.774810E+0	1.678110E+0	1.672880E+0	1.796350E+0	1.497620E+0	1.806750E+0	1.751160E+0	1.939260E+0	1.755130E+0	1.448830E+0	1.578830E+0	1.675710E+0	1.521650E+0	1.597310E+0	1.839780E+0	1.950460E+0	1.725570E+0	1.466600E+0	1.606480E+0	1.780130E+0	1.429420E+0	1.739650E+0	1.729860E+0	2.003100E+0	1.653760E+0	1.562500E+0	1.579760E+0	1.719880E+0	1.505620E+0	1.845300E+0	1.864420E+0	1.910660E+0	1.582120E+0	1.589970E+0	1.586900E+0	1.704300E+0	1.418420E+0	1.777530E+0	1.657350E+0	1.855200E+0	1.632580E+0	1.563470E+0	1.430270E+0	1.634660E+0	1.561660E+0	1.885180E+0	1.678160E+0	1.913690E+0	1.741300E+0	1.607700E+0	1.651200E+0	1.819490E+0	1.381100E+0	1.741410E+0	1.750020E+0	1.966220E+0	1.529090E+0	1.489870E+0	1.470810E+0	1.739940E+0	1.398960E+0	1.690530E+0	1.677650E+0	2.032710E+0	1.665530E+0	1.554360E+0	1.621920E+0	1.788310E+0	1.475920E+0	1.518460E+0	1.633130E+0	1.901820E+0	1.681780E+0	1.501460E+0	1.557870E+0	1.509000E+0	1.503540E+0	1.850430E+0	1.789920E+0	1.661720E+0	1.680880E+0	1.643210E+0	1.587790E+0	1.612230E+0	1.522650E+0	1.812720E+0	1.712250E+0	1.781800E+0	1.792070E+0	1.573580E+0	1.561560E+0	1.691210E+0	1.544870E+0	1.812180E+0	1.794910E+0	1.970570E+0	1.696080E+0	1.544550E+0	1.608060E+0	1.785460E+0	1.487710E+0	1.687820E+0	1.758270E+0	1.992730E+0	1.712690E+0	1.460700E+0	1.631460E+0	1.736430E+0	1.587960E+0	1.641260E+0	1.883250E+0	1.965220E+0	1.768190E+0	1.594840E+0	1.691890E+0	1.713060E+0	1.539710E+0	1.622000E+0	1.841260E+0	1.889990E+0	1.796910E+0	1.424630E+0	1.583370E+0	1.685090E+0	1.491680E+0	1.715850E+0	1.828320E+0	1.896850E+0	1.575900E+0	1.562460E+0	1.653120E+0	1.721910E+0	1.364140E+0	1.641210E+0	1.790800E+0	1.793070E+0	1.616500E+0	1.414610E+0	1.606110E+0	1.659900E+0	1.483760E+0	1.698790E+0	1.884140E+0	1.957480E+0	1.614690E+0	1.439110E+0	1.702260E+0	1.754350E+0	1.357910E+0	1.509650E+0	1.902310E+0	1.804450E+0	1.610950E+0	1.447680E+0	1.642780E+0
3.100000E+3	1.335220E+0	1.469860E+0	1.362210E+0	1.320260E+0	1.485950E+0	1.483210E+0	1.453120E+0	1.559080E+0	1.612660E+0	1.568370E+0	1.696810E+0	1.593440E+0	1.888820E+0	1.802560E+0	2.020320E+0	1.769170E+0	1.675080E+0	1.669890E+0	1.793050E+0	1.494000E+0	1.803360E+0	1.748040E+0	1.934350E+0	1.750870E+0	1.446320E+0	1.576090E+0	1.672780E+0	1.518200E+0	1.594580E+0	1.836410E+0	1.946440E+0	1.722180E+0	1.464800E+0	1.603740E+0	1.777250E+0	1.427720E+0	1.737700E+0	1.726760E+0	1.998240E+0	1.647300E+0	1.560100E+0	1.576470E+0	1.716480E+0	1.501880E+0	1.841560E+0	1.860280E+0	1.907120E+0	1.579130E+0	1.586950E+0	1.584560E+0	1.700880E+0	1.416090E+0	1.774630E+0	1.655020E+0	1.851980E+0	1.629990E+0	1.560780E+0	1.427880E+0	1.632360E+0	1.558890E+0	1.881240E+0	1.674160E+0	1.909960E+0	1.738470E+0	1.605240E+0	1.648540E+0	1.815030E+0	1.378870E+0	1.738520E+0	1.746720E+0	1.962290E+0	1.526540E+0	1.487590E+0	1.468330E+0	1.736690E+0	1.396710E+0	1.687450E+0	1.674580E+0	2.028480E+0	1.662540E+0	1.551600E+0	1.618960E+0	1.784930E+0	1.473390E+0	1.515860E+0	1.630250E+0	1.898100E+0	1.678680E+0	1.498930E+0	1.555150E+0	1.505780E+0	1.499980E+0	1.846810E+0	1.786360E+0	1.658570E+0	1.677720E+0	1.640160E+0	1.584910E+0	1.609300E+0	1.520060E+0	1.809250E+0	1.709090E+0	1.778450E+0	1.788670E+0	1.570850E+0	1.558860E+0	1.688120E+0	1.542180E+0	1.808800E+0	1.791380E+0	1.966490E+0	1.692920E+0	1.541780E+0	1.605100E+0	1.781950E+0	1.485080E+0	1.684710E+0	1.754970E+0	1.988620E+0	1.709480E+0	1.458410E+0	1.626830E+0	1.733230E+0	1.585200E+0	1.638240E+0	1.879540E+0	1.961170E+0	1.764800E+0	1.592040E+0	1.688730E+0	1.709840E+0	1.536990E+0	1.619110E+0	1.837660E+0	1.886350E+0	1.793570E+0	1.422340E+0	1.580710E+0	1.682080E+0	1.489190E+0	1.712700E+0	1.824760E+0	1.893110E+0	1.573150E+0	1.559700E+0	1.650230E+0	1.718570E+0	1.362030E+0	1.638270E+0	1.787370E+0	1.789650E+0	1.613600E+0	1.412260E+0	1.603320E+0	1.656910E+0	1.481340E+0	1.695740E+0	1.880500E+0	1.953600E+0	1.611870E+0	1.436800E+0	1.699110E+0	1.751030E+0	1.355740E+0	1.507190E+0	1.898610E+0	1.801060E+0	1.608080E+0	1.445290E+0	1.639920E+0
3.400000E+3	1.333300E+0	1.467360E+0	1.359850E+0	1.318110E+0	1.483540E+0	1.480690E+0	1.450750E+0	1.556330E+0	1.609870E+0	1.565480E+0	1.693800E+0	1.590500E+0	1.884970E+0	1.798930E+0	2.016040E+0	1.766180E+0	1.671880E+0	1.666690E+0	1.789580E+0	1.491340E+0	1.799990E+0	1.744730E+0	1.931650E+0	1.747560E+0	1.443820E+0	1.573100E+0	1.669520E+0	1.515360E+0	1.591570E+0	1.832560E+0	1.943630E+0	1.718500E+0	1.461110E+0	1.600800E+0	1.772640E+0	1.423810E+0	1.732790E+0	1.723020E+0	1.994300E+0	1.641390E+0	1.557100E+0	1.573600E+0	1.713320E+0	1.498290E+0	1.837610E+0	1.857250E+0	1.903320E+0	1.576470E+0	1.584130E+0	1.581570E+0	1.697830E+0	1.412930E+0	1.771630E+0	1.651870E+0	1.848220E+0	1.625310E+0	1.558070E+0	1.425610E+0	1.629210E+0	1.555820E+0	1.879210E+0	1.671860E+0	1.906360E+0	1.735140E+0	1.602060E+0	1.645730E+0	1.812630E+0	1.374700E+0	1.735670E+0	1.743650E+0	1.958580E+0	1.522960E+0	1.485480E+0	1.466020E+0	1.733860E+0	1.394160E+0	1.684540E+0	1.671660E+0	2.024360E+0	1.659590E+0	1.548970E+0	1.616010E+0	1.781540E+0	1.470930E+0	1.513340E+0	1.627350E+0	1.894360E+0	1.675760E+0	1.496500E+0	1.552510E+0	1.504230E+0	1.497820E+0	1.843300E+0	1.782970E+0	1.655580E+0	1.674730E+0	1.637160E+0	1.582080E+0	1.606430E+0	1.517510E+0	1.805900E+0	1.705960E+0	1.775220E+0	1.785400E+0	1.568270E+0	1.556160E+0	1.685050E+0	1.539500E+0	1.805360E+0	1.787900E+0	1.962450E+0	1.689810E+0	1.539090E+0	1.602170E+0	1.778520E+0	1.482570E+0	1.681670E+0	1.751610E+0	1.984640E+0	1.706320E+0	1.456250E+0	1.624160E+0	1.729960E+0	1.582310E+0	1.635250E+0	1.875750E+0	1.957180E+0	1.761380E+0	1.589160E+0	1.685570E+0	1.706640E+0	1.534380E+0	1.616310E+0	1.834070E+0	1.882580E+0	1.790140E+0	1.419950E+0	1.577900E+0	1.678970E+0	1.486560E+0	1.709520E+0	1.821230E+0	1.889230E+0	1.570360E+0	1.556930E+0	1.647090E+0	1.715330E+0	1.359840E+0	1.635330E+0	1.783900E+0	1.786150E+0	1.610710E+0	1.409930E+0	1.600360E+0	1.653750E+0	1.478740E+0	1.692640E+0	1.876740E+0	1.949640E+0	1.609010E+0	1.434430E+0	1.696090E+0	1.747720E+0	1.353540E+0	1.504630E+0	1.894770E+0	1.797500E+0	1.605220E+0	1.442870E+0	1.636910E+0
