Photon Energy (eV)	#1	#2	#3	#4	#5	#6	#7	#8	#9	#10	#11	#12	#13	#14	#15	#16	#17	#18	#19	#20	#21	#22	#23	#24	#25	#26	#27	#28	#29	#30	#31	#32	#33	#34	#35	#36	#37	#38	#39	#40	#41	#42	#43	#44	#45	#46	#47	#48	#49	#50	#51	#52	#53	#54	#55	#56	#57	#58	#59	#60	#61	#62	#63	#64	#65	#66	#67	#68	#69	#70	#71	#72	#73	#74	#75	#76	#77	#78	#79	#80	#81	#82	#83	#84	#85	#86	#87	#88	#89	#90	#91	#92	#93	#94	#95	#96	#97	#98	#99	#100	#101	#102	#103	#104	#105	#106	#107	#108	#109	#110	#111	#112	#113	#114	#115	#116	#117	#118	#119	#120	#121	#122	#123	#124	#125	#126	#127	#128	#129	#130	#131	#132	#133	#134	#135	#136	#137	#138	#139	#140	#141	#142	#143	#144	#145	#146	#147	#148	#149	#150	#151	#152	#153	#154	#155	#156	#157	#158	#159	#160	#161	#162	#163	#164	#165	#166	#167	#168	#169	#170	
2.790040E+2	-1.032218E-2	3.429875E-3	-4.970558E-3	-7.495054E-4	1.146531E-2	-1.051066E-2	-2.082114E-3	-2.398967E-3	-1.486798E-2	-2.020625E-2	-5.456218E-3	-2.010743E-2	2.379711E-3	-1.101813E-2	-6.651239E-3	-1.105268E-3	-4.060546E-4	-1.041521E-2	-1.244002E-3	-1.030113E-2	-1.063095E-2	-1.077218E-2	3.679223E-3	-1.437504E-2	-4.384999E-3	-4.692172E-3	-3.445537E-3	-3.663409E-3	-9.934296E-3	-3.696828E-3	3.737718E-4	-4.238013E-3	5.957314E-3	-1.344758E-2	-2.370613E-3	-6.927303E-3	-1.237061E-2	-1.077219E-2	-1.620143E-3	-1.190010E-2	-9.445661E-3	-1.679546E-3	5.464839E-3	-1.155420E-2	-3.969160E-3	-4.717027E-3	-4.266462E-4	-5.180583E-3	-6.009717E-3	-1.243176E-3	1.136863E-2	9.749575E-3	1.477005E-3	-5.008131E-3	-1.696264E-2	-3.682963E-3	-7.833432E-3	-2.843498E-3	-1.425236E-2	5.511437E-3	-9.297120E-3	8.628797E-3	-9.219883E-3	-1.267151E-4	-2.847801E-3	-4.291522E-3	-6.084429E-3	-1.356928E-2	-1.541279E-2	-1.808272E-2	-1.703608E-3	-3.673295E-3	-4.453831E-3	-1.646109E-2	5.221899E-3	6.007684E-3	-1.033932E-2	-9.456592E-3	-9.076348E-3	7.301738E-4	-8.386388E-3	-2.514279E-3	-1.037107E-3	1.678408E-3	7.956529E-3	-7.256240E-3	-5.404011E-3	-1.414379E-3	-4.134684E-3	-8.399567E-3	9.536580E-3	-1.795239E-2	-5.954344E-3	-5.815977E-3	-9.068705E-4	-7.957774E-3	-1.322408E-2	-2.418491E-3	-1.698990E-2	-1.984906E-2	-4.574516E-3	-6.978191E-4	-5.611081E-3	-4.109389E-3	-4.888750E-3	-3.607061E-3	-3.746211E-3	-5.234258E-3	6.703530E-3	-7.502367E-3	-3.532291E-3	-6.632580E-3	-1.389213E-2	-7.870785E-3	-5.369513E-3	-9.465756E-3	-2.745321E-3	1.591852E-3	-1.374526E-3	-7.889867E-3	-1.055154E-2	2.715166E-3	-6.046813E-3	5.507157E-4	3.774281E-4	-1.251854E-2	-9.093620E-3	-1.832082E-2	-2.774586E-3	1.006704E-3	9.065188E-3	3.777660E-3	-1.710463E-4	-8.473634E-3	-6.939047E-3	4.260431E-4	-1.382584E-3	4.433445E-3	-1.806194E-2	-9.471579E-3	3.359266E-3	-1.117160E-2	-7.651391E-3	5.763115E-3	-1.120574E-2	3.511695E-3	-5.667655E-3	-8.400486E-3	-1.818040E-2	-4.409794E-3	-4.106371E-3	1.709048E-3	-7.509608E-3	3.595445E-3	-1.277911E-2	-5.445769E-3	1.236764E-3	-1.333239E-2	1.481923E-3	-5.465121E-3	-5.590420E-3	-6.630401E-3	-3.889480E-3	-1.080232E-2	7.944586E-4	-7.219886E-3	-1.270569E-2	-3.781383E-3	-1.246575E-2	-2.698785E-2
2.794980E+2	-5.878688E-3	-1.965953E-2	-1.054030E-2	-7.834779E-3	-1.223119E-2	-1.145999E-3	-6.950813E-3	-4.809483E-3	-5.240236E-3	-8.151850E-3	4.523181E-3	-1.045324E-3	-4.215859E-3	-2.554082E-3	-5.547291E-3	-1.009466E-2	-4.169679E-3	3.078457E-3	-1.278687E-2	-1.830221E-3	4.244911E-3	2.290816E-3	3.789159E-3	-9.451639E-3	-1.736123E-3	-2.307339E-3	-6.686254E-3	2.699680E-3	-4.663385E-3	-1.238808E-2	-1.563595E-3	-2.704082E-3	-1.375386E-2	2.124133E-3	-2.267548E-3	-5.569285E-3	7.639440E-3	-8.426066E-3	2.425243E-3	1.913210E-3	-5.568286E-3	-7.732176E-3	-4.285163E-3	7.400099E-3	-2.492607E-3	-4.615432E-3	-1.104956E-2	-2.312603E-3	8.823060E-3	-1.294678E-2	-1.178287E-2	-4.952440E-3	6.058957E-3	-1.205158E-2	-5.777545E-3	-6.549453E-3	-1.017172E-2	-7.952768E-3	-5.741009E-3	-4.014892E-3	-3.999710E-3	-1.794747E-3	-3.537247E-3	5.842270E-3	3.393180E-3	3.262206E-3	-9.552000E-3	-3.675153E-3	8.658782E-4	3.164713E-3	2.482173E-3	-1.777303E-3	-5.670504E-3	-1.120897E-2	-1.318940E-3	-3.488410E-3	2.332755E-3	2.669276E-3	5.765100E-4	-1.262915E-2	-2.472974E-3	-1.023688E-2	6.264996E-3	-1.017117E-2	-5.739357E-3	2.162887E-3	-1.162808E-2	-9.771372E-3	-4.075202E-5	1.293205E-3	-1.129479E-2	3.634576E-3	1.986649E-2	-1.180525E-3	-5.600652E-3	9.942317E-3	1.804278E-3	-2.328868E-3	-2.420690E-3	-2.395126E-3	-9.497264E-3	2.897799E-3	-3.331202E-3	4.962850E-3	-1.012026E-2	-1.102319E-3	-9.397589E-3	6.120740E-3	-7.837314E-3	-4.827356E-4	-1.367638E-3	-7.773706E-3	7.187969E-3	4.105574E-3	-2.559083E-2	-1.072245E-2	-2.334613E-2	-1.216190E-2	-1.094384E-2	-1.310819E-3	3.900228E-3	-5.505513E-3	3.464195E-3	-1.123500E-2	-7.059880E-3	6.693104E-3	8.273619E-3	-1.991940E-3	3.984296E-4	-9.166947E-3	-1.093082E-2	-1.701593E-4	-6.453824E-3	-4.713034E-4	1.225044E-3	-1.959347E-3	-8.300394E-3	-1.387489E-2	-5.746265E-3	2.846827E-3	-1.891000E-3	-3.073299E-3	-7.801358E-4	-9.465882E-3	-1.236625E-3	-5.649723E-3	-9.267872E-3	1.077600E-3	1.240450E-2	-1.954401E-3	-1.835667E-3	4.284480E-3	-3.189572E-3	-1.508358E-2	-1.504473E-2	1.749105E-3	-1.130756E-2	-1.206262E-2	-4.730558E-3	-4.139485E-3	-8.911791E-4	-6.538676E-3	-6.370998E-5	-7.889089E-3	-7.335793E-3	-7.115759E-3	-5.244426E-3	-8.420549E-3	-8.753880E-3	4.478281E-2
2.800050E+2	7.364335E-3	3.634022E-3	-7.624977E-3	-1.205226E-2	-9.475666E-3	-2.368015E-3	-6.594305E-4	8.984364E-3	-5.131511E-3	7.994241E-3	-8.564954E-3	-8.059590E-3	-5.218027E-3	9.585604E-3	-2.896960E-4	-8.851164E-4	-1.487976E-3	-1.635344E-2	7.136563E-3	-1.027503E-2	-5.889333E-3	-1.169937E-2	-1.051409E-2	-6.172211E-3	-4.187679E-3	-4.499119E-3	-3.226150E-3	-3.099133E-3	6.238429E-4	-1.727421E-4	-6.576990E-3	7.798838E-3	-3.709088E-3	-2.954475E-3	-3.313199E-3	-1.999527E-2	-6.296128E-3	3.064183E-3	-3.954966E-4	-3.095790E-3	7.587004E-4	-1.776564E-4	1.371394E-3	-7.889766E-3	-3.529770E-3	2.220807E-3	9.097741E-4	5.942985E-3	1.025978E-3	-1.033008E-3	-1.038062E-2	-6.365509E-3	-9.378582E-3	-2.424481E-3	-6.763176E-3	-6.014814E-3	6.462894E-3	5.059329E-3	7.645525E-3	-3.622327E-3	-8.925292E-3	6.930986E-4	1.075455E-3	2.163114E-3	-1.164636E-2	-1.033293E-2	-3.453989E-3	-5.960747E-3	-2.459308E-4	-3.403627E-3	-5.570387E-3	-1.091873E-2	-5.455467E-3	1.907541E-3	-3.109838E-5	-3.976691E-3	-1.588290E-4	-8.165652E-4	-2.816096E-4	1.302590E-2	7.330191E-4	-3.622546E-3	-4.422934E-3	-4.364050E-3	-1.385629E-2	1.126792E-3	-4.133432E-3	5.379946E-3	1.618700E-3	3.870719E-3	3.686262E-3	-1.596264E-3	-1.664035E-3	-9.009241E-3	-1.834829E-3	-3.585204E-3	1.575454E-2	-1.010344E-2	5.693254E-3	-3.618479E-3	1.204151E-2	-6.361129E-3	-5.403574E-3	-9.626185E-3	1.266798E-2	-8.234511E-3	-1.159065E-2	4.661108E-3	6.957584E-3	-1.079947E-2	8.431507E-4	-4.081152E-3	2.817653E-3	-2.371304E-3	1.189708E-3	1.751501E-2	9.916553E-3	4.159046E-3	6.440947E-3	2.733335E-3	-1.718463E-3	-1.016716E-2	-2.283244E-3	7.826372E-4	-5.431359E-3	-1.684147E-2	1.536714E-2	4.406534E-3	2.217642E-2	-3.906058E-3	-6.800087E-3	-2.743514E-3	-5.041151E-3	4.205298E-3	2.250372E-4	6.574541E-4	-8.171192E-3	2.253771E-3	6.661580E-3	7.578382E-3	-1.519265E-2	-4.088765E-3	-6.315171E-3	-3.911753E-4	-5.378168E-3	-6.864576E-3	5.641199E-3	2.564461E-3	-8.716645E-3	-1.012579E-2	-9.384249E-3	7.453175E-4	-3.057898E-3	-2.408762E-3	-1.494491E-2	-3.828177E-3	-9.776851E-3	2.318020E-3	4.963371E-3	3.395017E-3	3.677283E-3	-8.861575E-3	-2.375709E-3	-7.745894E-3	-1.080031E-3	5.737079E-3	-2.163816E-3	-5.947524E-3	-1.367116E-3	-3.996429E-2
2.805060E+2	-1.920989E-2	-1.527252E-2	-3.796568E-3	-1.093128E-2	-1.999620E-3	-1.200447E-2	-3.491508E-3	-8.758230E-3	-1.144722E-2	3.509123E-3	-5.625953E-3	-4.902137E-3	-1.335679E-2	-6.401899E-3	-3.730555E-3	9.758106E-3	4.466163E-3	1.242006E-2	5.492462E-3	2.724602E-3	-6.252465E-3	4.169184E-3	-2.658869E-3	2.935679E-3	-7.074592E-3	-2.960770E-4	-2.503836E-3	-8.167252E-3	1.465624E-4	-7.141152E-3	-8.178188E-4	-6.074655E-3	4.250112E-3	5.598525E-4	3.139682E-3	-7.064641E-3	-5.533798E-3	-3.008733E-3	-1.156219E-2	3.688303E-3	2.763327E-3	-9.238128E-3	9.671303E-3	1.148541E-3	-3.963017E-3	-2.629975E-3	-5.889859E-3	-2.818027E-4	4.458923E-3	-6.634875E-3	-4.340728E-3	5.013973E-3	-1.078797E-2	7.429218E-4	2.838879E-3	-6.313362E-3	2.219161E-3	-4.308622E-3	-8.369162E-3	-2.803437E-3	1.588394E-2	-3.196768E-3	-3.782316E-3	-2.365290E-3	-5.943542E-3	4.206494E-3	9.201385E-3	-6.895799E-5	9.331958E-3	4.011058E-3	-1.706974E-2	4.030422E-3	-3.161397E-3	-6.251174E-3	-1.259876E-2	-1.571653E-2	9.118755E-3	-2.426027E-3	-4.950060E-3	5.041820E-3	-1.115692E-3	6.301735E-3	-8.339872E-3	-7.634839E-3	8.438464E-4	7.304471E-4	6.002697E-3	1.885420E-3	-9.538334E-3	-2.537033E-3	2.009537E-3	5.783632E-3	-4.515566E-3	9.907251E-3	-3.418485E-3	-1.201104E-2	-4.121445E-3	5.259615E-3	-5.262724E-3	9.420795E-3	-1.719385E-2	-3.169348E-3	8.118763E-4	-5.652166E-3	7.118980E-3	-1.330435E-3	-6.139543E-3	-1.717250E-2	-1.715512E-2	2.748408E-3	-2.578302E-3	-2.002764E-3	-7.899629E-3	-2.784359E-3	-1.308290E-2	-4.161539E-3	-6.990706E-3	2.805495E-4	1.025884E-2	1.315891E-2	3.870203E-3	-1.398860E-2	2.034473E-3	-1.207125E-2	-1.010348E-2	6.407302E-3	-1.149367E-2	-4.414072E-3	-1.508865E-2	1.231795E-2	-1.513502E-2	-4.651221E-3	2.192042E-3	-2.963396E-3	-1.738913E-2	-3.721302E-3	-1.135288E-2	-6.576067E-4	-9.628835E-3	-9.981494E-3	-2.145285E-3	-2.179751E-3	-2.158054E-3	-2.295499E-3	-1.132143E-2	-6.302262E-4	-8.266996E-3	-1.790432E-2	1.601750E-2	3.683536E-3	1.215597E-3	3.959719E-3	7.749975E-3	7.126126E-3	-1.055479E-2	-2.790372E-3	-3.721791E-4	-2.845454E-3	-1.547665E-2	-1.907194E-2	-1.036612E-3	1.251589E-2	-4.030029E-3	1.165807E-2	-1.948495E-4	-3.887657E-3	-5.446444E-3	7.525251E-4	9.123102E-3	-2.057667E-2
2.810070E+2	1.715576E-2	-1.307599E-3	6.191287E-3	1.199781E-2	-1.632081E-2	5.334999E-3	-3.349797E-3	-1.204088E-3	1.014751E-2	1.031411E-3	1.114942E-3	-1.179448E-3	4.581985E-3	-7.458988E-3	-6.648343E-3	2.924385E-3	-1.710029E-2	-4.375380E-3	1.381353E-2	-7.421296E-4	-6.099174E-3	1.111985E-3	-7.610960E-3	-3.955321E-5	3.215118E-3	-1.159817E-2	2.109161E-3	-9.594418E-4	3.372985E-4	-2.600703E-3	1.423191E-3	-1.104508E-2	-4.017489E-3	4.573179E-3	-2.422874E-3	7.552110E-3	-1.005176E-2	1.707891E-3	3.617384E-4	4.908413E-3	1.405359E-2	-4.156168E-3	-7.666775E-3	-1.022926E-3	2.078977E-3	3.093865E-3	-2.526177E-3	-4.712443E-3	-1.249025E-2	5.272437E-3	-1.453416E-2	1.276949E-3	-1.288189E-2	5.665437E-3	7.482784E-3	1.044809E-2	1.148283E-3	-1.316672E-2	1.377540E-3	-4.937879E-3	-2.711569E-4	-8.887763E-3	3.081338E-3	-1.041923E-2	-5.795156E-3	-3.052599E-3	-2.485354E-3	-3.663782E-3	-1.684656E-3	-5.818280E-3	3.457668E-3	-2.325448E-3	-1.711109E-3	2.950031E-3	9.748197E-3	4.930675E-3	2.368981E-3	-2.250625E-3	3.729513E-3	-7.648782E-3	1.349806E-2	-2.553788E-3	-4.606064E-3	1.033429E-2	-1.265172E-2	-3.750642E-3	2.006775E-3	-1.719392E-2	-9.401020E-3	2.437769E-3	2.211315E-3	-1.832953E-3	-6.947150E-3	-4.632066E-3	3.936070E-3	-6.680117E-3	-5.481590E-3	-5.042811E-3	-5.106987E-3	2.394322E-3	1.758254E-3	-8.855903E-3	9.945151E-4	-1.432937E-3	1.265818E-2	-2.360135E-3	9.039225E-4	-3.678014E-3	-1.016061E-3	-1.687269E-3	1.006464E-2	-1.826215E-3	-1.076753E-2	-6.555320E-3	1.618839E-2	-3.292496E-3	-1.310315E-3	-5.293458E-3	-8.829018E-3	-1.872253E-3	-4.483850E-3	1.450268E-2	-7.152869E-3	-4.334090E-3	7.915377E-4	-1.223324E-3	-5.571999E-3	-4.810304E-3	-8.701277E-3	-7.950313E-3	1.043937E-2	3.024667E-3	-3.910555E-3	2.863408E-3	3.468821E-3	-6.391948E-3	6.013222E-3	-1.634751E-3	-8.753386E-4	-5.816309E-3	9.173683E-3	3.758303E-3	-1.096374E-2	5.632059E-3	3.200833E-3	-1.231995E-2	1.158011E-2	-2.147467E-4	9.704162E-3	3.449281E-4	-2.961429E-3	-2.266814E-3	-7.330652E-3	3.648392E-3	2.011772E-2	1.020573E-2	7.131746E-3	3.286275E-3	-3.690575E-3	1.502827E-2	-7.339281E-4	-1.343398E-3	-2.590408E-3	-5.155664E-3	1.220833E-2	1.239833E-2	2.099213E-3	1.272220E-2	-1.244799E-2	2.510522E-2
2.815030E+2	3.013838E-3	-8.844504E-3	1.204593E-2	3.625934E-3	1.697406E-2	1.617706E-2	-7.129867E-4	-2.278242E-3	1.158478E-2	-8.118677E-3	9.035222E-3	1.330540E-2	2.571651E-3	7.114308E-3	1.100844E-2	-7.989427E-3	1.000560E-2	9.246685E-3	-9.233442E-3	1.043794E-2	6.616308E-3	1.304768E-3	5.051576E-3	1.285338E-2	9.781626E-3	1.223507E-3	1.236047E-2	-6.693611E-3	7.003225E-3	-3.508479E-3	1.646800E-3	1.087233E-2	4.658781E-3	-5.603167E-3	3.531582E-3	5.260399E-4	1.808388E-3	-3.150750E-4	7.500583E-3	6.265454E-3	9.435062E-3	-2.366354E-4	-8.179653E-4	3.911844E-3	3.496442E-3	2.166953E-3	4.120372E-3	-2.153353E-3	-1.103316E-2	-2.399352E-3	5.072376E-3	1.614902E-4	9.506715E-3	7.094331E-3	2.238582E-3	1.766948E-3	-1.004024E-2	-3.968230E-3	8.796208E-3	2.114543E-3	-6.336159E-3	-5.191407E-3	5.576356E-3	5.410794E-3	1.109037E-2	4.615882E-3	-1.085271E-3	-3.368783E-3	1.065950E-3	-8.995760E-3	-1.448388E-3	6.667294E-3	1.689629E-2	7.062179E-3	-1.401100E-6	5.198332E-3	4.015644E-3	-5.652714E-3	-1.325398E-3	-4.231047E-3	-9.480563E-3	1.327198E-2	4.005584E-3	8.067908E-3	2.704827E-3	-1.219203E-3	6.449375E-3	1.632572E-2	1.395607E-2	-1.300836E-2	-2.499453E-3	-6.128988E-3	3.626617E-3	2.181750E-2	-1.829994E-3	3.933094E-3	-7.838317E-4	1.755929E-3	1.107647E-2	2.614428E-3	7.033736E-3	-1.675118E-3	1.330577E-2	4.892789E-3	-3.163933E-3	6.319473E-3	8.031562E-3	9.954377E-3	1.796775E-2	3.150253E-3	-4.329249E-3	9.629667E-3	1.052016E-2	-3.710155E-3	1.197160E-3	9.775676E-3	-5.271023E-3	3.003883E-3	1.079243E-2	7.435925E-3	-2.845550E-3	4.103000E-3	6.034489E-3	8.306024E-3	-1.117210E-2	1.235509E-4	2.718312E-3	-6.841385E-3	-2.325183E-3	-6.487580E-3	1.280351E-3	-6.547036E-4	1.682520E-2	4.214693E-3	3.712909E-3	-2.942039E-3	4.850303E-3	-6.343500E-3	7.934123E-3	-4.370149E-3	-6.827374E-3	3.988858E-3	8.478924E-3	-4.335911E-3	4.817391E-3	6.400485E-3	-6.678749E-3	4.160669E-3	-1.265697E-2	6.482383E-3	-9.362120E-3	-8.543164E-3	1.418987E-4	1.404565E-3	3.959186E-3	7.253844E-6	6.221036E-3	1.662413E-2	7.964816E-4	4.865897E-3	-4.258570E-4	4.010547E-3	-9.839934E-3	1.083079E-2	1.673441E-3	1.149786E-3	-6.534362E-4	5.222597E-3	2.482047E-3	-1.378644E-2
2.820040E+2	-7.147543E-3	1.424981E-2	-6.341341E-3	-7.206347E-4	8.993920E-3	1.694032E-4	1.037861E-2	5.135244E-3	3.168400E-3	1.319202E-2	4.590279E-3	8.490670E-3	3.499169E-4	3.466147E-3	7.887053E-3	1.119214E-2	-1.551791E-3	-5.717230E-4	-1.159790E-2	5.502695E-3	3.178163E-3	6.693588E-3	-1.156891E-3	4.366787E-3	-1.731632E-3	1.385143E-2	1.008998E-2	9.833108E-3	-3.344660E-3	9.663568E-3	1.616110E-3	-9.858623E-3	6.029678E-3	1.376152E-2	2.322719E-3	6.525370E-3	1.458718E-2	3.059975E-3	-3.407170E-3	-2.020609E-3	3.217367E-3	1.457872E-2	-3.073708E-3	3.896807E-3	5.816436E-3	3.266784E-3	8.405767E-3	-4.478616E-3	2.169601E-3	-1.121110E-3	1.671620E-2	5.371014E-3	5.031255E-3	-4.850947E-3	1.003440E-2	6.196269E-3	3.895314E-3	8.947368E-3	-4.480169E-3	1.239434E-2	-1.072863E-5	-2.875949E-3	-1.177899E-3	-8.731832E-4	3.982923E-4	8.300559E-4	1.560699E-2	2.952991E-3	-6.491611E-3	2.340917E-2	6.733994E-3	4.735629E-5	7.627814E-3	1.479126E-2	3.305363E-3	8.579499E-3	-2.510456E-4	7.637898E-3	1.567537E-2	4.378433E-3	7.881736E-3	-4.973465E-3	-8.519938E-4	8.019319E-3	9.567127E-3	6.937433E-3	3.255115E-3	6.603609E-3	2.616466E-4	-9.899533E-4	-3.775269E-3	1.623508E-2	8.769848E-3	4.659169E-3	1.013070E-2	1.431780E-2	6.713029E-4	1.706757E-3	4.401856E-3	1.364703E-3	6.897778E-4	1.469975E-2	7.675747E-5	3.845579E-3	-1.257572E-2	8.695074E-3	1.951095E-2	8.688113E-3	4.708118E-4	7.762593E-3	-4.348050E-3	-3.907511E-3	1.347676E-2	1.212676E-2	8.792476E-3	-5.627067E-4	8.520838E-3	1.454661E-2	-1.108024E-3	-7.356782E-3	-2.895060E-3	-4.249427E-3	-1.087990E-3	1.198864E-2	1.465011E-2	7.994413E-3	-1.936365E-3	1.752346E-2	7.321770E-4	8.918415E-3	6.609918E-3	6.059533E-4	-5.028444E-3	-3.760999E-3	5.990046E-3	-7.866162E-4	3.374652E-3	5.939362E-3	4.205165E-3	1.836479E-2	5.301290E-3	-5.233967E-3	6.174051E-3	-4.358889E-3	1.188913E-2	1.033032E-2	1.054936E-2	1.310555E-2	4.622176E-3	1.704469E-3	3.769967E-3	-1.120961E-3	8.630446E-3	-1.246833E-2	2.866133E-2	7.102546E-3	-2.369311E-3	4.686884E-3	7.143521E-3	-6.463753E-3	-1.912980E-3	1.392682E-3	1.626137E-2	1.210712E-2	-2.450459E-3	1.150456E-2	2.287737E-3	7.080245E-3	6.110052E-3	2.541587E-2
2.825040E+2	1.502437E-2	2.377045E-2	1.503652E-2	1.666472E-2	2.593981E-3	4.347673E-3	6.868037E-3	5.329401E-3	1.178627E-2	1.074998E-2	3.835022E-4	1.349786E-2	1.290741E-2	7.267040E-3	3.971633E-3	-3.800157E-3	1.024403E-2	6.970548E-3	8.419661E-3	4.483275E-3	1.483254E-2	6.901204E-3	9.420851E-3	9.882596E-3	6.118281E-3	8.317942E-3	-8.697838E-3	1.005006E-2	9.831412E-3	1.984442E-2	3.898531E-3	1.524929E-2	5.845483E-4	9.865341E-4	1.380251E-3	2.495298E-2	1.021728E-2	1.469001E-2	6.697434E-3	2.411211E-4	-1.521410E-2	8.641587E-3	-6.639248E-4	4.109604E-3	2.562699E-3	1.214024E-3	6.456333E-3	1.317642E-2	1.305556E-2	2.010587E-2	7.881181E-3	-1.025505E-2	1.097451E-2	1.083245E-2	6.908719E-3	4.149285E-3	1.431974E-2	1.823314E-2	1.502343E-2	-4.641780E-3	1.295623E-2	1.262474E-2	7.984196E-3	3.682442E-4	1.135102E-2	4.762411E-3	-2.147331E-3	2.735371E-2	1.257120E-2	5.715451E-3	1.311829E-2	7.949706E-3	-4.071792E-3	7.210225E-3	-4.325258E-3	-1.534558E-3	-7.086936E-3	1.029535E-2	-4.347977E-3	1.332648E-3	-6.571990E-4	4.327239E-3	8.987391E-3	-5.929864E-3	1.117503E-2	1.268525E-3	3.451559E-3	-1.815025E-3	7.278372E-3	1.733322E-2	1.258137E-4	1.857305E-3	-1.318186E-2	-1.574611E-2	-4.759417E-4	2.040927E-3	5.380830E-3	1.117131E-2	8.608719E-3	1.006842E-2	9.742358E-3	3.161767E-3	-8.430638E-4	7.119459E-3	-1.696485E-3	1.619914E-3	2.427554E-3	-3.339565E-3	-6.091182E-3	6.810593E-3	5.247737E-3	1.659426E-2	-1.443256E-3	7.059584E-3	1.667552E-2	9.142614E-4	2.122611E-2	-6.126584E-3	-5.236806E-3	-4.898446E-3	1.472403E-2	1.258985E-2	5.037759E-3	6.012318E-3	1.794774E-2	9.364960E-3	1.736587E-3	1.444853E-2	5.582666E-3	5.267827E-3	5.471096E-3	8.113168E-4	1.587777E-3	4.385934E-3	9.706322E-3	1.471776E-2	1.496888E-2	9.884166E-3	1.551151E-2	8.495300E-4	8.222073E-3	1.800022E-2	1.321552E-2	9.452183E-3	9.234601E-3	5.221968E-3	2.110604E-3	5.611274E-3	-3.194316E-3	4.274669E-3	2.266427E-2	1.232374E-3	4.565410E-3	1.418614E-2	5.853061E-4	-7.000315E-3	9.236359E-3	1.325150E-3	9.512488E-3	1.185111E-2	6.913693E-3	5.454934E-3	6.527904E-3	-3.003018E-3	-3.615096E-3	-1.256646E-2	2.182687E-2	-7.628115E-3	1.731953E-2	6.011356E-3
2.830030E+2	1.231421E-3	3.071033E-3	7.585591E-3	3.190349E-3	9.096396E-3	1.481768E-2	1.667641E-2	6.249271E-3	1.291133E-2	-4.201184E-4	2.158870E-2	1.411043E-4	1.293798E-2	1.808582E-2	1.015783E-2	1.253093E-2	1.398158E-2	5.568036E-3	1.664486E-2	4.210930E-3	8.498800E-4	8.972922E-3	6.281856E-3	1.201631E-2	7.070233E-3	1.643457E-2	2.056885E-2	6.258974E-3	-8.626397E-4	-1.381583E-3	-3.472666E-4	1.126908E-2	7.371381E-3	1.103015E-2	1.536244E-2	4.148678E-3	5.421984E-3	-5.068489E-3	1.079907E-2	1.589287E-2	1.205744E-2	5.974393E-3	8.191966E-3	-8.221508E-3	-4.846355E-3	2.372131E-2	2.175150E-2	1.663812E-2	7.442863E-3	1.732753E-2	2.408573E-3	6.549503E-3	1.742670E-3	2.410125E-2	5.623491E-3	2.097172E-2	5.061569E-3	1.535486E-2	1.130036E-2	4.279495E-3	-2.667952E-3	1.132502E-2	4.526025E-3	3.418934E-3	1.451955E-2	3.241916E-3	2.079305E-2	2.754043E-4	1.169025E-2	3.268565E-3	1.210805E-2	1.797971E-2	3.299140E-2	2.550178E-2	-4.617802E-3	1.744803E-3	1.057996E-3	1.633406E-2	-8.851824E-3	-2.195755E-3	6.212726E-3	1.285956E-3	1.613355E-2	5.753824E-5	1.097642E-2	-5.034501E-3	1.625675E-2	3.653135E-2	2.085818E-2	1.118322E-2	1.879136E-2	4.986201E-3	1.005147E-2	1.638677E-2	1.519839E-2	7.275183E-3	4.810387E-3	4.249706E-3	1.097555E-2	4.951063E-3	-7.047894E-4	3.039943E-2	6.748050E-3	1.539574E-2	2.518565E-2	5.022312E-3	8.074129E-3	1.625727E-2	1.659294E-2	1.492402E-2	2.325623E-2	7.427196E-3	1.174339E-2	2.306027E-2	1.268257E-2	1.107688E-2	2.251162E-2	5.313368E-3	1.440708E-2	1.574363E-2	1.140865E-2	2.783400E-3	1.454814E-2	9.676789E-3	-2.525722E-3	-3.369364E-3	1.099448E-2	7.662312E-3	1.133567E-2	6.292948E-3	-1.761560E-3	1.648470E-2	6.521851E-3	2.508408E-2	1.205289E-2	1.924921E-2	6.154962E-3	-4.041814E-3	1.669330E-2	1.471000E-2	1.344447E-2	8.683136E-3	3.901802E-3	1.281965E-2	1.473940E-3	1.298156E-2	5.244845E-4	1.060584E-2	-9.751263E-4	1.008363E-2	2.839038E-2	6.626324E-3	1.242593E-3	-1.260848E-3	6.334726E-3	1.198905E-2	4.628204E-3	2.301188E-3	8.475074E-3	1.414205E-2	2.091867E-3	2.506968E-3	-3.845595E-3	2.123654E-3	2.933961E-2	-2.075515E-5	3.353547E-3	3.000478E-2	3.466254E-3	-2.642841E-2
2.835040E+2	6.687186E-3	2.000587E-2	3.345348E-2	2.332667E-2	4.647437E-3	1.860362E-2	1.252760E-2	4.975723E-2	1.293299E-2	1.292383E-2	2.965734E-2	1.339000E-2	1.727457E-3	1.807907E-2	2.718230E-2	3.042099E-2	1.172182E-2	9.258315E-3	2.383173E-2	2.163316E-2	2.491008E-2	3.033254E-2	1.265666E-2	2.621068E-2	3.163059E-2	3.311248E-2	2.638576E-2	3.178069E-2	1.840915E-2	2.130355E-2	1.336500E-2	1.780006E-2	1.122533E-2	2.831426E-2	1.404456E-2	8.952912E-3	2.041484E-2	2.174832E-2	2.203201E-2	4.042474E-3	1.424444E-2	4.370363E-3	2.298773E-2	1.472555E-2	2.421131E-2	2.716241E-2	2.624588E-2	2.378027E-2	1.116746E-2	3.203074E-2	3.366915E-3	2.930696E-2	1.994767E-2	2.158646E-2	3.898140E-2	3.131268E-2	2.443169E-2	1.759797E-2	1.857438E-2	2.294530E-2	1.800778E-2	2.446648E-2	1.128423E-2	2.371496E-2	9.626136E-3	2.621841E-2	1.951262E-2	1.424559E-2	2.373472E-2	2.158328E-2	2.588636E-2	3.509221E-2	3.564044E-2	1.189227E-2	2.169040E-2	1.693095E-2	2.533482E-2	2.374150E-2	1.520397E-2	2.890787E-2	2.825670E-2	3.185263E-2	2.717232E-2	3.948230E-2	9.100151E-3	2.489224E-2	1.730242E-2	2.678721E-2	3.905546E-2	5.484736E-2	5.820781E-3	1.744870E-2	5.305912E-2	1.511827E-2	2.005207E-2	2.233813E-2	4.504276E-2	1.478235E-2	8.441729E-4	2.223619E-2	2.773214E-2	2.797159E-2	2.480785E-2	2.171551E-2	2.920012E-2	1.977225E-2	1.019866E-2	2.752985E-2	3.578359E-2	2.440616E-2	5.860550E-3	2.709146E-2	2.213939E-2	1.743995E-2	2.561600E-2	1.344217E-2	2.080126E-2	1.344308E-2	6.521953E-3	5.060046E-3	1.539142E-2	2.460279E-2	2.425646E-2	1.332885E-2	1.412228E-2	1.506065E-2	3.971802E-2	1.089484E-2	3.171275E-2	1.929066E-2	1.720839E-2	1.493068E-2	2.218382E-2	2.393207E-2	2.396572E-2	2.947294E-2	2.191356E-2	7.061087E-3	3.057139E-2	3.157787E-2	3.279587E-2	1.084542E-2	7.117499E-3	1.382021E-2	3.188133E-2	3.193209E-2	2.059860E-2	2.367619E-2	1.785662E-2	2.463958E-2	1.246988E-2	1.000247E-3	2.137606E-2	1.014716E-2	1.339475E-2	2.536032E-2	2.632144E-2	9.450168E-3	2.274578E-2	2.108030E-2	2.835310E-2	2.349927E-2	1.897353E-2	1.021058E-2	1.521931E-2	2.852882E-2	1.342603E-2	1.140109E-2	3.854030E-2	1.198084E-3
2.840050E+2	6.782875E-2	7.964657E-2	7.035565E-2	5.299810E-2	4.328352E-2	5.323786E-2	4.211038E-2	5.507226E-2	2.578472E-2	7.310790E-2	6.342960E-2	6.335976E-2	5.697175E-2	5.476438E-2	6.419660E-2	4.764781E-2	3.654403E-2	4.521336E-2	7.910859E-2	6.654633E-2	5.794997E-2	7.290056E-2	5.085515E-2	5.421840E-2	5.056575E-2	4.300342E-2	5.700217E-2	3.795280E-2	5.069345E-2	5.077285E-2	6.783106E-2	2.990310E-2	4.588950E-2	6.698277E-2	9.834572E-2	5.981467E-2	7.363565E-2	6.040641E-2	6.176962E-2	6.057149E-2	4.539914E-2	5.387539E-2	6.151601E-2	4.961308E-2	5.803123E-2	7.263556E-2	7.193004E-2	6.188098E-2	5.167549E-2	5.753084E-2	5.237040E-2	4.583974E-2	5.553623E-2	6.576279E-2	4.621841E-2	5.250401E-2	6.916390E-2	6.500280E-2	5.524295E-2	7.003835E-2	5.119397E-2	6.040833E-2	8.431687E-2	5.227551E-2	6.259346E-2	6.577531E-2	2.437290E-2	5.273202E-2	5.142020E-2	6.196206E-2	8.777736E-2	4.220131E-2	6.447757E-2	5.807061E-2	5.578711E-2	5.911166E-2	6.047046E-2	6.714401E-2	4.895652E-2	5.861407E-2	7.233078E-2	5.217984E-2	7.409100E-2	7.730342E-2	6.676382E-2	4.454629E-2	5.290146E-2	4.275780E-2	1.730969E-2	5.772972E-2	5.241214E-2	5.981789E-2	4.632966E-2	6.920436E-2	5.791231E-2	5.540782E-2	6.874259E-2	7.292686E-2	7.295040E-2	7.326638E-2	5.293599E-2	4.764967E-2	7.590485E-2	5.625087E-2	5.300355E-2	4.257972E-2	4.884013E-2	3.772966E-2	5.826998E-2	4.634111E-2	7.072581E-2	4.606488E-2	7.733584E-2	6.045412E-2	6.302824E-2	4.975200E-2	5.543912E-2	5.235679E-2	5.995089E-2	3.956633E-2	8.376851E-2	4.452510E-2	5.662235E-2	5.899770E-2	5.205917E-2	5.787079E-2	6.064850E-2	5.519363E-2	7.884552E-2	7.884937E-2	5.797268E-2	5.042040E-2	3.414244E-2	6.825769E-2	7.280593E-2	4.103928E-2	6.794512E-2	6.921956E-2	5.643807E-2	7.559917E-2	7.261643E-2	7.008111E-2	6.671912E-2	6.028226E-2	5.711226E-2	6.677351E-2	5.815047E-2	4.654663E-2	6.251804E-2	7.969277E-2	6.666750E-2	6.263950E-2	6.005830E-2	4.441784E-2	5.172495E-2	7.550095E-2	4.105762E-2	5.448648E-2	5.872863E-2	4.605464E-2	4.774438E-2	5.457466E-2	5.294009E-2	5.955620E-2	6.079552E-2	4.570686E-2	5.824195E-2	7.510866E-2	5.910789E-2	4.363231E-2
2.841030E+2	7.521793E-2	5.413519E-2	7.745169E-2	7.512718E-2	5.253054E-2	9.121484E-2	8.268508E-2	7.999554E-2	4.883271E-2	8.293564E-2	7.178987E-2	6.713023E-2	6.706802E-2	6.993170E-2	7.545677E-2	7.812739E-2	6.209555E-2	5.654203E-2	8.312106E-2	7.560377E-2	6.490643E-2	8.366950E-2	6.326809E-2	7.127182E-2	6.694562E-2	5.116974E-2	6.650466E-2	8.578034E-2	5.413138E-2	6.856187E-2	7.708252E-2	5.636121E-2	7.064433E-2	7.502302E-2	8.140679E-2	5.179687E-2	5.158721E-2	6.527546E-2	7.604058E-2	6.527015E-2	6.399161E-2	9.505457E-2	6.400683E-2	7.743294E-2	3.822429E-2	6.670415E-2	6.516023E-2	6.440888E-2	6.861278E-2	9.258729E-2	6.446470E-2	7.055667E-2	5.222200E-2	5.530776E-2	6.395277E-2	7.021447E-2	5.448631E-2	6.749804E-2	7.442610E-2	8.369685E-2	5.834076E-2	7.333607E-2	9.107376E-2	8.618187E-2	7.784123E-2	6.855186E-2	4.410493E-2	7.564386E-2	6.372956E-2	8.405159E-2	6.074043E-2	4.536806E-2	9.900065E-2	6.055769E-2	6.296344E-2	5.786472E-2	8.489612E-2	5.977326E-2	8.241287E-2	6.801663E-2	8.058361E-2	6.883481E-2	8.712720E-2	9.537514E-2	6.811901E-2	7.982373E-2	7.334381E-2	5.878722E-2	8.255660E-2	6.011374E-2	7.469717E-2	8.145860E-2	5.627350E-2	7.692785E-2	5.381069E-2	8.028879E-2	4.674434E-2	7.158626E-2	5.696743E-2	7.592812E-2	6.145106E-2	7.889774E-2	7.262802E-2	7.393435E-2	7.535418E-2	5.764692E-2	6.837017E-2	6.996582E-2	5.616896E-2	6.591622E-2	8.337988E-2	7.726888E-2	8.814746E-2	5.574731E-2	6.817137E-2	5.328245E-2	7.706636E-2	8.335446E-2	4.602832E-2	7.593854E-2	9.765477E-2	6.316737E-2	7.045276E-2	3.995392E-2	6.745913E-2	7.246068E-2	6.805967E-2	5.621170E-2	3.964194E-2	8.164621E-2	8.060611E-2	5.686020E-2	5.677727E-2	6.952814E-2	5.553251E-2	8.305213E-2	9.507967E-2	6.792146E-2	8.393716E-2	6.872779E-2	4.312241E-2	5.404539E-2	6.919187E-2	5.771646E-2	8.852212E-2	8.358113E-2	7.512368E-2	5.699193E-2	5.631568E-2	7.605172E-2	7.735661E-2	5.944375E-2	8.092844E-2	4.926552E-2	8.830686E-2	6.148276E-2	6.307842E-2	5.678476E-2	7.606412E-2	7.377960E-2	5.605805E-2	6.238165E-2	6.329169E-2	8.595016E-2	8.681061E-2	6.659765E-2	5.086412E-2	6.169904E-2	7.319278E-2	1.023316E-1
2.842040E+2	8.450341E-2	9.218383E-2	8.029221E-2	8.727643E-2	6.953267E-2	8.251592E-2	6.375571E-2	5.824794E-2	8.048567E-2	8.139605E-2	6.825831E-2	6.579125E-2	5.141872E-2	4.350485E-2	8.575490E-2	5.956663E-2	5.696231E-2	7.105847E-2	6.288955E-2	5.690561E-2	8.497085E-2	1.028647E-1	5.889289E-2	9.335508E-2	6.022148E-2	6.607870E-2	6.651129E-2	8.071180E-2	6.246140E-2	6.740014E-2	8.522021E-2	6.208154E-2	5.409020E-2	7.902274E-2	8.786823E-2	7.664339E-2	7.311789E-2	7.150272E-2	7.522708E-2	7.676624E-2	6.788963E-2	8.845790E-2	7.246659E-2	8.267985E-2	6.732931E-2	8.508305E-2	9.818025E-2	7.579474E-2	7.732433E-2	8.973081E-2	9.268318E-2	8.041747E-2	5.217601E-2	9.161846E-2	6.400160E-2	7.995526E-2	7.660189E-2	6.161084E-2	8.363959E-2	6.878662E-2	7.032371E-2	7.207709E-2	7.305356E-2	8.318226E-2	6.105350E-2	8.484791E-2	6.866054E-2	6.872822E-2	7.081689E-2	7.193091E-2	7.873365E-2	8.603222E-2	8.489397E-2	9.581012E-2	9.346242E-2	6.155247E-2	9.777056E-2	8.364716E-2	5.129210E-2	6.809880E-2	7.760018E-2	7.580856E-2	6.220578E-2	9.550729E-2	6.428282E-2	8.893518E-2	8.042408E-2	8.353058E-2	6.475247E-2	5.882093E-2	6.663480E-2	7.550822E-2	6.070847E-2	7.128974E-2	9.043236E-2	6.813234E-2	7.084490E-2	6.479312E-2	5.813093E-2	7.338939E-2	6.902444E-2	8.827126E-2	7.033866E-2	7.640249E-2	8.235173E-2	8.948714E-2	9.232948E-2	7.397204E-2	9.984879E-2	8.034673E-2	8.598523E-2	7.873051E-2	7.337614E-2	7.916210E-2	1.014345E-1	8.118789E-2	8.852544E-2	7.490474E-2	7.191108E-2	1.084473E-1	7.572512E-2	7.735152E-2	7.306796E-2	7.220377E-2	6.897012E-2	7.025581E-2	9.339921E-2	4.523512E-2	4.042199E-2	5.509822E-2	9.082487E-2	4.808234E-2	7.694087E-2	8.454419E-2	7.945419E-2	8.450220E-2	7.038368E-2	7.734865E-2	9.611649E-2	6.585263E-2	7.954754E-2	7.151446E-2	7.790409E-2	6.132342E-2	6.971156E-2	7.485652E-2	5.489809E-2	8.060236E-2	6.035314E-2	6.314369E-2	9.787297E-2	7.815919E-2	6.370353E-2	7.791668E-2	8.079727E-2	7.306696E-2	5.348967E-2	9.443155E-2	9.258487E-2	5.781847E-2	7.443129E-2	8.329019E-2	8.493793E-2	8.892181E-2	6.461971E-2	6.160118E-2	8.923136E-2	6.751325E-2	1.264210E-1	6.815762E-2
2.843030E+2	6.569345E-2	9.421959E-2	7.754253E-2	8.604640E-2	9.302809E-2	7.413377E-2	8.165065E-2	6.395638E-2	7.187904E-2	7.881486E-2	6.255939E-2	6.221593E-2	9.128405E-2	8.730597E-2	7.824692E-2	8.096435E-2	4.460257E-2	5.662607E-2	6.575104E-2	1.039727E-1	8.772553E-2	9.733246E-2	9.114254E-2	7.753277E-2	8.295352E-2	7.776693E-2	7.784691E-2	8.754052E-2	8.438662E-2	8.111569E-2	7.658538E-2	6.697114E-2	7.738139E-2	8.216003E-2	9.191054E-2	1.153467E-1	7.794136E-2	6.060831E-2	7.123335E-2	8.634936E-2	8.508672E-2	6.169499E-2	6.325546E-2	6.616919E-2	6.883952E-2	7.685464E-2	8.204265E-2	7.365482E-2	6.895435E-2	9.302710E-2	6.317766E-2	5.488802E-2	6.381552E-2	8.290472E-2	8.044801E-2	7.792097E-2	6.790358E-2	6.914950E-2	7.877849E-2	6.914966E-2	6.712850E-2	5.694172E-2	7.836236E-2	5.968145E-2	8.090155E-2	5.915257E-2	8.870468E-2	9.710247E-2	7.713303E-2	7.848684E-2	7.577913E-2	4.668587E-2	8.391832E-2	6.918520E-2	6.333119E-2	8.826774E-2	4.166747E-2	6.668902E-2	6.101033E-2	8.746393E-2	8.070736E-2	1.061576E-1	7.839330E-2	8.612556E-2	8.239733E-2	7.005205E-2	6.578365E-2	7.216077E-2	9.465120E-2	7.768942E-2	8.189484E-2	6.974755E-2	6.106315E-2	6.915440E-2	7.638906E-2	5.938050E-2	5.306922E-2	8.403817E-2	4.829361E-2	7.909314E-2	6.441129E-2	8.997566E-2	7.554009E-2	9.253260E-2	8.945813E-2	7.800549E-2	4.727977E-2	6.366100E-2	6.422255E-2	6.682437E-2	8.758564E-2	8.781414E-2	8.154061E-2	7.388674E-2	6.843974E-2	8.161317E-2	8.259840E-2	7.791496E-2	8.062100E-2	8.528507E-2	7.807593E-2	8.304083E-2	7.606226E-2	7.125145E-2	7.029080E-2	8.839779E-2	6.347058E-2	8.333936E-2	8.188583E-2	7.700092E-2	5.593972E-2	8.847954E-2	5.706764E-2	8.887890E-2	8.114537E-2	6.223683E-2	4.641879E-2	7.127022E-2	6.964152E-2	8.292194E-2	7.889631E-2	8.796772E-2	7.220331E-2	5.559086E-2	1.031493E-1	7.328227E-2	5.259525E-2	7.977639E-2	1.034781E-1	7.048995E-2	7.551139E-2	7.051210E-2	8.412684E-2	7.155162E-2	6.959706E-2	7.479403E-2	9.109445E-2	7.041077E-2	5.462926E-2	7.187270E-2	7.313139E-2	8.836830E-2	9.497087E-2	9.551157E-2	7.485759E-2	7.108943E-2	6.690996E-2	8.887627E-2	7.870069E-2	1.260941E-1
2.844010E+2	1.533947E-1	9.985041E-2	1.263870E-1	1.086486E-1	1.276363E-1	1.085277E-1	1.193194E-1	1.070047E-1	1.309216E-1	1.015463E-1	1.243250E-1	9.303969E-2	1.083908E-1	1.147961E-1	1.305847E-1	1.054849E-1	9.359961E-2	1.018722E-1	1.115607E-1	1.035905E-1	1.054399E-1	1.043650E-1	9.800460E-2	1.242163E-1	1.385362E-1	1.387335E-1	1.145557E-1	8.825465E-2	1.206084E-1	1.040841E-1	1.256339E-1	8.499980E-2	1.208640E-1	1.115667E-1	1.067532E-1	1.044087E-1	1.122042E-1	1.055281E-1	1.159236E-1	1.310857E-1	1.014641E-1	1.131095E-1	1.304516E-1	1.126834E-1	1.015415E-1	1.288626E-1	1.152468E-1	9.772526E-2	1.529252E-1	1.495128E-1	1.152927E-1	9.006183E-2	1.230008E-1	1.155065E-1	1.136617E-1	1.021154E-1	1.115142E-1	1.114257E-1	1.142097E-1	1.360630E-1	1.193346E-1	1.151231E-1	1.079058E-1	1.195475E-1	1.276615E-1	9.996514E-2	1.135432E-1	1.179078E-1	1.068838E-1	1.168364E-1	1.555528E-1	1.155837E-1	1.431950E-1	1.202107E-1	1.186872E-1	1.174545E-1	1.288305E-1	1.038326E-1	1.306216E-1	1.245589E-1	1.158520E-1	1.376102E-1	1.192528E-1	1.310581E-1	1.248946E-1	8.366718E-2	1.064467E-1	1.017216E-1	1.240685E-1	1.173631E-1	1.144021E-1	1.079740E-1	1.239461E-1	1.221868E-1	1.171745E-1	1.262854E-1	1.254925E-1	1.393299E-1	1.075344E-1	1.175769E-1	1.057532E-1	1.261601E-1	1.252694E-1	1.175318E-1	1.253341E-1	1.056811E-1	9.885218E-2	1.075965E-1	1.034045E-1	1.089157E-1	1.129863E-1	1.188048E-1	1.110730E-1	1.365849E-1	1.382504E-1	1.209246E-1	1.003464E-1	1.458909E-1	1.092045E-1	1.368479E-1	1.190499E-1	1.076984E-1	1.175378E-1	1.160928E-1	1.126649E-1	1.145990E-1	1.129337E-1	1.076707E-1	1.083205E-1	1.005519E-1	9.943754E-2	1.342435E-1	1.090268E-1	1.087586E-1	1.192969E-1	1.356725E-1	9.859057E-2	9.521967E-2	1.152711E-1	1.230181E-1	1.050566E-1	1.391203E-1	1.233964E-1	1.191450E-1	1.173259E-1	1.212496E-1	1.283594E-1	9.612364E-2	1.112040E-1	1.267346E-1	1.287297E-1	1.140416E-1	1.242828E-1	1.298490E-1	1.029798E-1	8.732782E-2	1.233246E-1	1.088275E-1	1.156437E-1	1.242835E-1	1.082900E-1	1.214021E-1	1.195079E-1	1.349987E-1	1.093573E-1	1.082559E-1	1.067316E-1	1.336326E-1	1.521240E-1	1.803980E-1
2.845030E+2	2.185094E-1	2.356489E-1	2.205402E-1	2.278822E-1	2.365382E-1	2.419111E-1	2.458762E-1	2.011282E-1	2.491762E-1	2.368999E-1	1.931319E-1	2.161003E-1	2.037418E-1	2.302110E-1	2.097398E-1	2.035743E-1	2.119685E-1	2.071570E-1	2.050146E-1	2.136959E-1	2.302762E-1	2.340473E-1	2.318975E-1	2.313690E-1	2.297717E-1	2.146664E-1	2.424177E-1	2.265391E-1	2.131762E-1	2.287177E-1	2.358058E-1	2.315261E-1	2.324773E-1	2.380048E-1	1.957305E-1	2.564344E-1	2.381063E-1	2.441711E-1	2.699893E-1	2.404481E-1	2.072621E-1	2.138962E-1	2.202906E-1	2.245058E-1	2.236579E-1	2.515389E-1	2.341880E-1	2.196578E-1	2.312583E-1	2.170689E-1	2.708816E-1	2.432309E-1	2.326007E-1	2.548423E-1	2.218414E-1	2.546548E-1	2.377253E-1	2.428643E-1	2.224818E-1	2.230091E-1	2.220184E-1	2.456785E-1	2.132557E-1	2.208658E-1	2.026334E-1	2.359914E-1	2.296758E-1	2.187498E-1	2.032253E-1	2.323808E-1	2.072691E-1	2.395245E-1	2.068063E-1	2.477264E-1	1.952814E-1	1.985206E-1	2.071561E-1	2.141606E-1	2.059621E-1	2.343815E-1	2.375925E-1	2.122678E-1	2.537245E-1	1.847247E-1	2.042603E-1	1.587221E-1	2.138572E-1	2.076109E-1	2.560343E-1	2.332581E-1	2.089053E-1	2.472655E-1	2.289453E-1	2.183652E-1	1.591215E-1	2.287886E-1	2.433546E-1	2.061681E-1	2.160466E-1	2.231919E-1	2.295115E-1	2.482300E-1	2.210471E-1	2.499286E-1	2.295227E-1	2.478118E-1	2.479168E-1	2.383337E-1	2.391358E-1	2.248943E-1	2.262741E-1	2.356711E-1	2.243493E-1	2.213222E-1	2.531184E-1	2.214898E-1	2.519693E-1	2.482096E-1	2.069402E-1	2.243836E-1	2.488907E-1	2.143346E-1	2.439863E-1	2.366320E-1	2.701662E-1	2.133500E-1	2.033692E-1	2.031763E-1	2.413851E-1	2.360587E-1	2.313200E-1	2.274552E-1	2.192447E-1	2.180304E-1	1.942640E-1	2.293345E-1	2.253581E-1	2.096116E-1	2.332100E-1	2.275555E-1	2.360118E-1	2.269327E-1	2.637260E-1	2.330537E-1	2.414027E-1	2.226821E-1	2.151560E-1	2.281513E-1	2.232688E-1	2.171899E-1	2.205693E-1	2.352111E-1	2.504262E-1	1.877922E-1	2.239287E-1	2.305510E-1	1.852518E-1	2.411250E-1	2.413778E-1	2.202507E-1	2.067844E-1	2.055104E-1	2.195507E-1	2.389257E-1	2.619510E-1	2.377367E-1	2.296428E-1	2.294196E-1	1.574933E-1	3.252302E-1
2.846040E+2	4.873559E-1	4.317987E-1	4.139195E-1	4.319529E-1	4.765213E-1	5.039613E-1	4.622483E-1	4.623075E-1	4.920425E-1	4.448316E-1	4.785609E-1	4.640966E-1	4.946541E-1	5.019928E-1	4.770922E-1	4.913795E-1	4.750370E-1	4.243016E-1	4.726894E-1	4.475576E-1	4.873407E-1	5.251825E-1	5.376387E-1	5.074620E-1	4.690770E-1	4.918434E-1	4.958664E-1	4.934078E-1	5.129654E-1	5.004272E-1	4.890415E-1	4.743708E-1	4.617153E-1	5.234364E-1	5.251054E-1	4.970179E-1	4.626020E-1	5.116421E-1	5.331232E-1	4.610712E-1	5.231243E-1	4.838660E-1	4.463936E-1	4.744798E-1	5.424909E-1	4.427020E-1	4.748461E-1	5.072335E-1	4.573425E-1	5.280336E-1	4.850775E-1	4.849882E-1	4.707468E-1	4.476500E-1	4.456253E-1	5.373375E-1	4.924836E-1	4.843950E-1	5.449881E-1	4.845310E-1	4.691927E-1	5.319458E-1	4.899200E-1	4.673528E-1	4.686847E-1	5.167996E-1	4.838561E-1	4.924859E-1	4.961385E-1	5.136879E-1	4.673768E-1	4.476965E-1	4.720817E-1	4.550313E-1	4.458875E-1	4.381836E-1	5.050071E-1	4.756822E-1	4.388519E-1	4.914133E-1	5.091466E-1	4.869848E-1	4.596791E-1	5.377241E-1	4.944745E-1	4.800610E-1	5.076879E-1	4.706915E-1	5.458967E-1	4.370069E-1	4.944368E-1	4.636469E-1	4.998676E-1	4.778210E-1	4.106488E-1	5.298524E-1	4.749523E-1	4.305692E-1	5.074116E-1	4.588900E-1	4.509132E-1	5.024063E-1	5.154817E-1	4.522755E-1	5.155424E-1	4.540412E-1	4.362586E-1	4.524863E-1	4.934214E-1	4.245458E-1	4.938861E-1	4.766487E-1	5.059422E-1	5.510330E-1	4.804410E-1	4.683597E-1	4.826689E-1	5.096870E-1	4.708040E-1	4.891311E-1	4.359769E-1	5.059765E-1	5.058821E-1	4.726416E-1	4.187062E-1	4.697206E-1	4.697806E-1	4.715866E-1	4.351963E-1	5.088086E-1	5.415590E-1	4.748097E-1	4.671360E-1	4.676654E-1	4.968033E-1	4.822776E-1	5.072377E-1	4.424958E-1	4.459778E-1	4.748331E-1	4.722710E-1	4.768426E-1	4.825360E-1	5.037214E-1	4.345764E-1	5.386377E-1	4.713030E-1	4.923461E-1	4.195227E-1	5.182943E-1	4.699635E-1	4.803070E-1	4.471065E-1	4.833464E-1	4.597587E-1	4.231398E-1	4.564875E-1	5.026810E-1	5.136699E-1	4.519521E-1	4.604885E-1	4.861749E-1	4.920539E-1	5.162682E-1	4.804462E-1	4.743978E-1	4.710611E-1	5.065132E-1	4.615827E-1	3.957799E-1
2.847030E+2	1.101508E+0	1.126419E+0	1.018087E+0	1.061431E+0	1.060220E+0	1.083120E+0	1.068951E+0	1.092409E+0	1.030937E+0	1.074006E+0	1.045958E+0	1.013469E+0	1.082784E+0	1.093856E+0	1.022566E+0	9.850359E-1	1.069056E+0	1.022256E+0	1.111594E+0	1.060913E+0	1.049324E+0	1.124217E+0	1.179814E+0	1.123957E+0	1.024669E+0	1.149220E+0	1.082148E+0	1.180638E+0	1.152745E+0	1.121719E+0	1.134718E+0	1.013738E+0	1.075459E+0	1.153012E+0	1.103071E+0	1.054802E+0	1.097813E+0	1.098942E+0	1.106583E+0	1.079688E+0	1.043518E+0	1.146005E+0	1.115559E+0	1.086764E+0	1.058288E+0	1.144467E+0	1.062488E+0	1.121531E+0	1.112061E+0	1.085295E+0	1.100480E+0	1.058975E+0	1.040688E+0	1.033911E+0	1.085206E+0	1.097487E+0	1.109872E+0	1.023046E+0	1.065672E+0	1.085156E+0	1.086912E+0	1.005954E+0	1.104315E+0	1.058687E+0	1.027361E+0	1.049220E+0	1.068984E+0	1.018235E+0	1.050800E+0	1.003253E+0	1.074264E+0	1.073900E+0	1.026335E+0	1.138492E+0	1.092522E+0	1.065361E+0	1.117076E+0	1.099782E+0	1.088767E+0	1.087622E+0	1.045820E+0	1.103717E+0	1.159699E+0	1.092962E+0	1.081797E+0	1.048286E+0	1.094090E+0	1.039393E+0	1.060061E+0	1.078651E+0	1.036609E+0	9.919448E-1	1.007757E+0	1.114305E+0	1.079900E+0	1.109044E+0	1.102807E+0	1.134226E+0	1.074582E+0	1.076541E+0	1.061996E+0	1.115447E+0	1.051282E+0	1.027253E+0	1.075459E+0	1.064177E+0	1.018201E+0	1.054861E+0	1.017534E+0	1.058538E+0	1.130847E+0	1.083410E+0	1.009041E+0	1.069934E+0	1.120664E+0	1.066931E+0	1.108326E+0	1.066134E+0	1.061652E+0	1.046444E+0	1.070582E+0	1.030796E+0	1.116801E+0	1.123127E+0	9.575365E-1	1.113541E+0	1.071833E+0	1.115879E+0	1.075850E+0	1.128686E+0	1.047256E+0	1.122392E+0	1.044052E+0	1.085809E+0	1.107570E+0	1.080640E+0	1.116663E+0	1.102740E+0	1.051012E+0	1.018395E+0	1.142630E+0	1.067349E+0	1.024288E+0	1.062344E+0	1.026669E+0	1.111696E+0	1.042620E+0	1.040112E+0	1.013506E+0	9.885272E-1	1.079499E+0	1.040131E+0	1.028153E+0	1.112391E+0	1.040321E+0	1.089841E+0	1.109097E+0	1.131661E+0	1.153187E+0	1.076413E+0	9.672132E-1	1.106592E+0	9.876227E-1	1.113657E+0	1.022703E+0	1.054133E+0	1.065926E+0	1.047861E+0	1.020811E+0	1.116204E+0
2.848060E+2	1.623293E+0	1.575333E+0	1.638489E+0	1.696848E+0	1.696377E+0	1.630992E+0	1.655556E+0	1.568555E+0	1.593053E+0	1.578410E+0	1.646561E+0	1.630401E+0	1.681705E+0	1.653837E+0	1.697743E+0	1.584840E+0	1.704273E+0	1.614712E+0	1.668196E+0	1.687992E+0	1.629572E+0	1.677270E+0	1.712492E+0	1.653498E+0	1.638507E+0	1.624486E+0	1.587440E+0	1.622143E+0	1.644590E+0	1.692490E+0	1.630538E+0	1.613098E+0	1.687097E+0	1.664948E+0	1.623801E+0	1.638447E+0	1.580983E+0	1.614412E+0	1.661004E+0	1.603906E+0	1.616638E+0	1.647869E+0	1.640701E+0	1.560609E+0	1.608024E+0	1.764481E+0	1.671949E+0	1.691162E+0	1.640319E+0	1.660683E+0	1.603596E+0	1.600751E+0	1.650912E+0	1.778877E+0	1.691018E+0	1.606249E+0	1.663537E+0	1.599555E+0	1.635612E+0	1.630374E+0	1.778255E+0	1.653552E+0	1.709890E+0	1.629501E+0	1.560113E+0	1.613684E+0	1.654853E+0	1.589044E+0	1.654319E+0	1.723863E+0	1.655831E+0	1.643559E+0	1.683155E+0	1.656702E+0	1.655829E+0	1.646564E+0	1.677561E+0	1.679478E+0	1.690900E+0	1.719237E+0	1.641807E+0	1.661625E+0	1.689080E+0	1.549398E+0	1.665339E+0	1.660007E+0	1.542770E+0	1.708716E+0	1.582659E+0	1.711313E+0	1.636027E+0	1.594346E+0	1.664463E+0	1.635766E+0	1.598381E+0	1.704861E+0	1.605178E+0	1.656982E+0	1.626703E+0	1.597511E+0	1.729972E+0	1.691473E+0	1.537700E+0	1.605034E+0	1.689022E+0	1.686451E+0	1.578161E+0	1.699090E+0	1.703565E+0	1.679016E+0	1.652037E+0	1.603954E+0	1.645012E+0	1.783833E+0	1.664200E+0	1.623898E+0	1.593726E+0	1.682250E+0	1.672616E+0	1.711605E+0	1.685635E+0	1.672557E+0	1.695576E+0	1.634386E+0	1.557318E+0	1.694586E+0	1.590968E+0	1.644043E+0	1.645073E+0	1.666458E+0	1.616814E+0	1.733443E+0	1.660783E+0	1.717594E+0	1.635550E+0	1.623751E+0	1.706942E+0	1.616441E+0	1.731616E+0	1.672605E+0	1.623809E+0	1.650073E+0	1.609693E+0	1.643991E+0	1.566185E+0	1.651199E+0	1.687145E+0	1.640231E+0	1.715787E+0	1.656452E+0	1.514825E+0	1.634367E+0	1.627885E+0	1.634265E+0	1.619511E+0	1.507836E+0	1.636657E+0	1.646668E+0	1.562411E+0	1.612118E+0	1.577410E+0	1.736045E+0	1.611345E+0	1.717879E+0	1.652049E+0	1.653473E+0	1.578851E+0	1.484741E+0	1.436318E+0	1.405088E+0
2.849040E+2	1.777116E+0	1.612603E+0	1.737539E+0	1.593882E+0	1.720848E+0	1.717609E+0	1.648672E+0	1.645717E+0	1.710110E+0	1.689032E+0	1.781783E+0	1.680235E+0	1.730929E+0	1.705848E+0	1.685460E+0	1.666623E+0	1.758942E+0	1.705020E+0	1.640279E+0	1.640493E+0	1.660525E+0	1.683439E+0	1.760602E+0	1.572542E+0	1.648332E+0	1.656887E+0	1.730536E+0	1.600074E+0	1.763353E+0	1.785009E+0	1.635297E+0	1.799871E+0	1.670107E+0	1.674158E+0	1.650772E+0	1.709574E+0	1.694130E+0	1.730628E+0	1.735484E+0	1.734222E+0	1.615804E+0	1.790831E+0	1.721434E+0	1.753255E+0	1.800185E+0	1.670029E+0	1.701485E+0	1.746566E+0	1.818045E+0	1.722700E+0	1.732312E+0	1.670703E+0	1.717982E+0	1.741183E+0	1.741530E+0	1.773512E+0	1.691436E+0	1.679778E+0	1.757211E+0	1.629374E+0	1.782354E+0	1.616981E+0	1.790740E+0	1.718651E+0	1.739735E+0	1.737478E+0	1.604316E+0	1.754816E+0	1.778526E+0	1.618717E+0	1.723744E+0	1.696452E+0	1.692876E+0	1.784098E+0	1.662544E+0	1.632991E+0	1.787947E+0	1.621399E+0	1.657569E+0	1.725005E+0	1.721108E+0	1.722071E+0	1.755368E+0	1.659658E+0	1.674646E+0	1.720535E+0	1.698374E+0	1.675008E+0	1.630123E+0	1.647927E+0	1.707342E+0	1.703618E+0	1.625892E+0	1.738835E+0	1.662144E+0	1.778544E+0	1.698939E+0	1.770628E+0	1.731293E+0	1.661616E+0	1.771693E+0	1.681837E+0	1.656541E+0	1.662826E+0	1.700490E+0	1.718391E+0	1.699812E+0	1.623045E+0	1.696027E+0	1.761770E+0	1.760897E+0	1.659749E+0	1.702644E+0	1.736053E+0	1.764292E+0	1.734562E+0	1.664945E+0	1.793631E+0	1.732475E+0	1.814661E+0	1.752668E+0	1.672727E+0	1.714416E+0	1.654179E+0	1.714521E+0	1.716852E+0	1.800265E+0	1.787073E+0	1.680773E+0	1.760593E+0	1.709325E+0	1.828939E+0	1.771109E+0	1.723542E+0	1.717766E+0	1.699457E+0	1.823918E+0	1.680602E+0	1.630468E+0	1.778062E+0	1.739582E+0	1.693131E+0	1.644191E+0	1.723447E+0	1.687966E+0	1.752563E+0	1.742041E+0	1.668909E+0	1.656909E+0	1.729890E+0	1.743436E+0	1.671692E+0	1.737469E+0	1.747783E+0	1.660270E+0	1.638748E+0	1.666065E+0	1.750124E+0	1.739736E+0	1.658206E+0	1.750655E+0	1.778933E+0	1.723689E+0	1.682912E+0	1.739092E+0	1.724530E+0	1.668687E+0	1.711405E+0	1.571730E+0	1.615741E+0
2.850040E+2	1.503140E+0	1.572215E+0	1.499718E+0	1.545429E+0	1.571114E+0	1.538234E+0	1.504415E+0	1.531364E+0	1.481488E+0	1.472026E+0	1.563384E+0	1.633281E+0	1.535229E+0	1.492903E+0	1.515254E+0	1.505156E+0	1.517956E+0	1.575130E+0	1.568180E+0	1.575294E+0	1.562750E+0	1.442543E+0	1.626707E+0	1.583370E+0	1.512829E+0	1.551493E+0	1.615594E+0	1.417009E+0	1.494095E+0	1.472398E+0	1.522540E+0	1.469208E+0	1.556351E+0	1.513365E+0	1.475642E+0	1.586350E+0	1.517201E+0	1.477977E+0	1.558012E+0	1.468772E+0	1.491310E+0	1.528955E+0	1.550078E+0	1.518711E+0	1.581799E+0	1.525408E+0	1.586071E+0	1.506647E+0	1.514174E+0	1.521552E+0	1.616396E+0	1.494954E+0	1.461058E+0	1.543068E+0	1.483375E+0	1.523004E+0	1.497339E+0	1.540218E+0	1.488900E+0	1.544443E+0	1.642811E+0	1.530836E+0	1.478647E+0	1.575252E+0	1.478760E+0	1.510756E+0	1.524404E+0	1.663896E+0	1.526852E+0	1.586520E+0	1.538055E+0	1.563470E+0	1.472301E+0	1.588595E+0	1.600104E+0	1.547331E+0	1.472298E+0	1.499711E+0	1.543370E+0	1.634280E+0	1.532433E+0	1.546867E+0	1.571911E+0	1.535124E+0	1.440626E+0	1.490406E+0	1.501298E+0	1.514766E+0	1.624397E+0	1.505392E+0	1.416723E+0	1.519925E+0	1.451048E+0	1.522598E+0	1.513672E+0	1.549683E+0	1.519844E+0	1.539483E+0	1.529271E+0	1.531390E+0	1.557443E+0	1.536475E+0	1.540759E+0	1.438459E+0	1.588289E+0	1.573570E+0	1.518447E+0	1.480493E+0	1.581869E+0	1.677817E+0	1.469722E+0	1.468400E+0	1.538805E+0	1.579613E+0	1.619803E+0	1.433962E+0	1.599064E+0	1.524021E+0	1.613990E+0	1.551546E+0	1.612053E+0	1.534005E+0	1.601908E+0	1.428983E+0	1.544726E+0	1.491672E+0	1.549851E+0	1.605463E+0	1.537387E+0	1.584860E+0	1.456276E+0	1.638262E+0	1.530791E+0	1.483625E+0	1.559626E+0	1.475340E+0	1.527571E+0	1.478399E+0	1.512206E+0	1.570447E+0	1.483913E+0	1.507864E+0	1.536050E+0	1.440093E+0	1.548882E+0	1.559764E+0	1.461277E+0	1.502061E+0	1.587671E+0	1.569951E+0	1.542238E+0	1.576436E+0	1.616773E+0	1.477848E+0	1.503703E+0	1.475807E+0	1.513263E+0	1.476623E+0	1.508272E+0	1.440411E+0	1.499562E+0	1.604181E+0	1.494718E+0	1.666296E+0	1.567129E+0	1.516638E+0	1.518449E+0	1.473903E+0	1.473306E+0	1.616169E+0
2.851050E+2	1.365681E+0	1.339511E+0	1.323970E+0	1.361854E+0	1.256758E+0	1.304209E+0	1.328978E+0	1.318186E+0	1.323669E+0	1.314690E+0	1.346009E+0	1.306103E+0	1.282366E+0	1.318949E+0	1.316236E+0	1.332575E+0	1.265322E+0	1.400613E+0	1.299508E+0	1.315163E+0	1.296862E+0	1.332318E+0	1.435717E+0	1.275317E+0	1.298821E+0	1.288927E+0	1.360071E+0	1.255653E+0	1.325674E+0	1.299879E+0	1.299359E+0	1.219118E+0	1.294441E+0	1.350746E+0	1.330741E+0	1.282412E+0	1.298106E+0	1.271987E+0	1.324877E+0	1.264491E+0	1.353287E+0	1.305002E+0	1.256660E+0	1.281588E+0	1.405703E+0	1.293100E+0	1.356168E+0	1.439027E+0	1.377326E+0	1.245472E+0	1.371153E+0	1.327304E+0	1.271292E+0	1.283165E+0	1.321986E+0	1.357098E+0	1.385525E+0	1.277208E+0	1.245919E+0	1.256486E+0	1.273743E+0	1.324203E+0	1.372843E+0	1.290859E+0	1.228141E+0	1.271530E+0	1.316435E+0	1.362561E+0	1.336449E+0	1.276479E+0	1.348917E+0	1.304232E+0	1.315955E+0	1.405757E+0	1.299192E+0	1.294571E+0	1.413384E+0	1.311025E+0	1.351243E+0	1.365571E+0	1.420579E+0	1.288168E+0	1.315185E+0	1.284624E+0	1.303447E+0	1.290707E+0	1.339737E+0	1.316867E+0	1.382722E+0	1.342422E+0	1.290247E+0	1.271039E+0	1.271376E+0	1.343416E+0	1.314917E+0	1.375581E+0	1.349465E+0	1.325326E+0	1.379749E+0	1.293339E+0	1.351012E+0	1.328297E+0	1.319638E+0	1.276598E+0	1.375879E+0	1.322517E+0	1.372131E+0	1.291439E+0	1.300361E+0	1.346353E+0	1.368095E+0	1.308188E+0	1.323486E+0	1.377209E+0	1.388964E+0	1.284891E+0	1.296407E+0	1.434010E+0	1.411686E+0	1.304585E+0	1.316366E+0	1.286107E+0	1.325764E+0	1.323587E+0	1.301349E+0	1.406903E+0	1.265310E+0	1.296306E+0	1.354428E+0	1.334290E+0	1.313746E+0	1.340488E+0	1.259416E+0	1.383662E+0	1.451695E+0	1.317522E+0	1.363796E+0	1.337391E+0	1.351973E+0	1.383121E+0	1.360067E+0	1.297379E+0	1.345535E+0	1.361604E+0	1.319345E+0	1.324991E+0	1.335907E+0	1.389255E+0	1.358054E+0	1.341808E+0	1.348705E+0	1.352327E+0	1.364994E+0	1.287979E+0	1.372850E+0	1.315463E+0	1.333833E+0	1.405943E+0	1.296867E+0	1.367807E+0	1.281367E+0	1.339176E+0	1.351728E+0	1.362716E+0	1.350977E+0	1.346186E+0	1.305051E+0	1.242031E+0	1.453119E+0	1.362021E+0
2.852040E+2	1.119878E+0	1.150694E+0	1.129297E+0	1.105058E+0	1.115350E+0	1.114308E+0	1.100302E+0	1.087221E+0	1.083736E+0	1.109748E+0	1.151884E+0	1.132989E+0	1.175744E+0	1.244011E+0	1.105183E+0	1.099435E+0	1.149513E+0	1.092998E+0	1.171960E+0	1.145764E+0	1.134188E+0	1.105694E+0	1.147592E+0	1.114630E+0	1.100817E+0	1.101392E+0	1.110829E+0	1.097994E+0	1.142468E+0	1.114308E+0	1.133485E+0	1.129646E+0	1.114081E+0	1.122391E+0	1.181772E+0	1.125235E+0	1.195371E+0	1.051097E+0	1.128285E+0	1.162307E+0	1.125641E+0	1.099860E+0	1.151857E+0	1.072099E+0	1.142532E+0	1.111423E+0	1.181270E+0	1.115831E+0	1.127601E+0	1.134578E+0	1.157238E+0	1.081802E+0	1.162297E+0	1.123484E+0	1.107966E+0	1.203908E+0	1.103763E+0	1.113442E+0	1.090012E+0	1.137847E+0	1.112602E+0	1.136803E+0	1.140966E+0	1.093103E+0	1.144638E+0	1.110787E+0	1.087126E+0	1.065869E+0	1.127839E+0	1.150247E+0	1.148728E+0	1.051967E+0	1.166620E+0	1.211790E+0	1.124131E+0	1.105193E+0	1.139097E+0	1.152716E+0	1.154072E+0	1.177529E+0	1.112435E+0	1.090642E+0	1.150476E+0	1.083657E+0	1.162011E+0	1.111803E+0	1.088221E+0	1.168236E+0	1.147931E+0	1.116223E+0	1.101241E+0	1.046965E+0	1.156175E+0	1.171215E+0	1.174817E+0	1.099511E+0	1.131388E+0	1.084362E+0	1.095495E+0	1.069371E+0	1.194799E+0	1.093714E+0	1.103574E+0	1.111316E+0	1.168079E+0	1.136129E+0	1.127308E+0	1.190847E+0	1.177412E+0	1.105808E+0	1.105683E+0	1.103154E+0	1.072304E+0	1.104905E+0	1.172828E+0	1.056639E+0	1.098569E+0	1.098571E+0	1.216021E+0	1.140928E+0	1.123791E+0	1.021283E+0	1.117706E+0	1.133015E+0	1.224113E+0	1.012337E+0	1.111797E+0	1.146165E+0	1.129612E+0	1.116568E+0	1.060257E+0	1.121953E+0	1.073963E+0	1.110384E+0	1.158088E+0	1.063040E+0	1.163618E+0	1.089592E+0	1.147329E+0	1.169273E+0	1.122170E+0	1.121847E+0	1.036942E+0	1.116076E+0	1.154024E+0	1.049849E+0	1.156245E+0	1.079288E+0	1.145310E+0	1.148241E+0	1.129756E+0	1.087836E+0	1.177116E+0	1.073639E+0	1.139219E+0	1.125129E+0	1.133368E+0	1.194059E+0	1.167617E+0	1.090927E+0	1.144312E+0	1.133675E+0	1.070361E+0	1.120623E+0	1.139057E+0	1.156176E+0	1.197823E+0	1.079129E+0	1.146383E+0	1.278126E+0
2.853030E+2	8.183555E-1	8.350277E-1	8.770096E-1	8.522202E-1	8.927821E-1	8.245993E-1	8.785198E-1	8.306045E-1	8.759852E-1	9.090604E-1	8.672450E-1	8.950946E-1	8.972901E-1	8.598298E-1	9.068485E-1	8.327232E-1	8.808407E-1	8.529009E-1	8.868372E-1	8.119894E-1	8.630306E-1	9.032170E-1	8.466337E-1	9.216167E-1	9.315679E-1	8.627456E-1	9.047610E-1	8.910836E-1	9.015015E-1	8.872711E-1	8.809704E-1	8.237066E-1	8.192061E-1	8.780782E-1	8.282270E-1	9.298421E-1	8.521763E-1	8.792492E-1	8.721622E-1	8.983406E-1	8.478859E-1	8.808411E-1	8.590194E-1	8.484946E-1	8.864744E-1	8.331179E-1	8.284933E-1	9.004056E-1	8.504596E-1	8.618563E-1	8.840822E-1	9.272411E-1	8.982181E-1	8.878411E-1	8.636208E-1	8.542677E-1	8.309064E-1	8.884050E-1	8.944462E-1	8.989043E-1	8.857756E-1	8.547625E-1	9.554181E-1	8.781882E-1	8.367157E-1	8.499973E-1	8.382565E-1	8.389082E-1	8.420326E-1	9.249997E-1	8.637727E-1	8.300588E-1	8.107079E-1	8.559812E-1	8.469794E-1	9.106491E-1	9.416135E-1	8.944924E-1	9.066963E-1	8.446902E-1	9.309748E-1	8.140230E-1	8.991650E-1	8.720866E-1	8.441782E-1	8.853625E-1	9.630820E-1	9.245991E-1	9.082103E-1	8.242554E-1	8.415993E-1	7.873938E-1	9.302238E-1	9.226482E-1	8.502952E-1	8.444639E-1	7.961883E-1	8.987609E-1	8.779238E-1	8.743378E-1	8.797937E-1	9.187756E-1	8.571488E-1	8.224660E-1	8.291771E-1	8.272706E-1	9.342417E-1	8.686117E-1	8.893298E-1	8.918810E-1	8.149129E-1	9.234338E-1	8.455096E-1	8.652067E-1	8.806435E-1	8.668102E-1	8.578235E-1	8.525161E-1	8.889176E-1	8.761869E-1	8.929782E-1	7.796869E-1	9.067972E-1	8.532552E-1	8.402796E-1	9.684072E-1	9.268320E-1	8.217108E-1	8.632723E-1	8.627756E-1	8.463633E-1	8.730857E-1	8.602475E-1	8.647721E-1	8.404788E-1	8.647289E-1	8.804909E-1	8.549727E-1	8.627530E-1	8.813478E-1	8.269583E-1	8.648906E-1	8.501867E-1	8.919163E-1	8.029473E-1	9.372121E-1	8.709012E-1	8.965540E-1	9.118831E-1	8.689565E-1	8.349696E-1	8.416970E-1	8.630729E-1	8.855390E-1	8.597685E-1	9.181739E-1	8.730254E-1	8.287005E-1	8.892224E-1	8.243095E-1	8.825198E-1	8.905145E-1	8.809672E-1	8.442720E-1	9.088979E-1	8.989752E-1	8.920920E-1	9.122765E-1	8.386815E-1	9.989605E-1
2.854050E+2	5.780459E-1	6.061734E-1	5.973380E-1	5.378452E-1	5.860654E-1	5.998362E-1	5.166014E-1	5.177472E-1	4.901414E-1	5.532125E-1	5.329319E-1	5.368952E-1	5.515031E-1	5.747311E-1	5.221350E-1	5.506407E-1	5.486553E-1	5.251965E-1	6.141397E-1	5.672455E-1	5.533072E-1	6.059686E-1	5.572310E-1	5.599321E-1	5.310710E-1	5.207277E-1	5.790431E-1	5.526066E-1	5.653201E-1	5.569249E-1	5.895881E-1	6.069109E-1	5.599738E-1	5.493365E-1	4.973499E-1	5.406670E-1	5.659250E-1	5.852345E-1	6.024423E-1	5.192140E-1	5.381536E-1	5.658920E-1	5.048007E-1	5.320901E-1	5.598459E-1	5.517777E-1	5.469541E-1	5.712615E-1	5.495990E-1	5.820589E-1	5.869106E-1	5.547697E-1	5.370136E-1	5.150846E-1	5.931312E-1	5.078279E-1	5.496146E-1	5.610193E-1	5.051064E-1	5.238432E-1	5.768284E-1	5.336024E-1	6.054776E-1	5.552668E-1	5.127487E-1	5.460157E-1	5.438921E-1	5.583137E-1	6.046623E-1	5.517075E-1	5.560598E-1	5.102143E-1	5.292504E-1	5.708552E-1	5.412396E-1	5.161227E-1	5.380891E-1	5.496137E-1	5.841557E-1	5.883226E-1	5.053542E-1	5.349334E-1	5.741917E-1	5.880392E-1	5.623304E-1	5.584484E-1	5.451758E-1	5.326838E-1	5.844926E-1	5.289227E-1	5.470728E-1	5.594364E-1	5.765249E-1	5.684814E-1	5.534233E-1	5.376069E-1	5.307896E-1	5.365628E-1	6.130336E-1	5.533421E-1	5.772613E-1	5.212848E-1	5.503674E-1	5.387291E-1	6.019463E-1	5.463122E-1	5.638957E-1	5.552707E-1	5.869933E-1	5.490896E-1	4.984311E-1	5.454345E-1	6.114171E-1	5.721994E-1	5.838553E-1	5.173664E-1	5.516000E-1	5.937013E-1	5.287310E-1	5.996385E-1	5.711784E-1	5.870957E-1	5.738084E-1	5.155088E-1	5.658887E-1	5.375262E-1	5.048922E-1	5.689820E-1	5.067178E-1	6.343169E-1	5.404846E-1	6.280492E-1	6.036785E-1	5.616801E-1	5.502720E-1	5.750108E-1	6.002521E-1	5.398475E-1	6.143740E-1	5.594602E-1	5.499188E-1	5.687716E-1	5.428975E-1	6.017399E-1	5.666576E-1	6.065850E-1	5.275199E-1	5.198222E-1	5.773823E-1	5.649161E-1	5.926970E-1	5.700588E-1	5.941486E-1	5.417519E-1	5.741932E-1	5.831896E-1	5.584596E-1	6.104525E-1	5.481123E-1	6.067780E-1	5.822318E-1	5.533682E-1	5.796547E-1	5.734929E-1	6.033398E-1	5.774293E-1	5.810783E-1	5.348424E-1	5.177598E-1	5.308488E-1
2.855030E+2	3.501314E-1	3.928782E-1	3.850973E-1	3.255655E-1	3.506794E-1	3.644469E-1	4.208768E-1	3.711408E-1	3.558883E-1	4.242878E-1	3.968599E-1	3.849302E-1	3.786604E-1	4.166518E-1	3.775183E-1	3.809439E-1	3.791351E-1	3.587407E-1	3.728674E-1	3.708173E-1	3.425284E-1	3.995139E-1	3.747589E-1	3.954340E-1	3.795812E-1	3.702753E-1	3.371126E-1	3.843203E-1	3.976394E-1	4.058222E-1	4.193352E-1	3.883274E-1	3.667950E-1	4.060223E-1	3.648744E-1	4.285870E-1	4.067733E-1	3.913133E-1	3.871388E-1	4.061757E-1	3.778465E-1	3.921440E-1	4.032886E-1	3.518208E-1	3.774512E-1	3.968390E-1	4.248906E-1	4.298640E-1	4.014818E-1	3.574675E-1	4.172258E-1	3.807748E-1	4.101781E-1	4.347304E-1	4.167425E-1	3.655288E-1	4.084037E-1	4.093638E-1	3.757392E-1	3.958050E-1	3.727383E-1	3.897927E-1	3.905704E-1	3.451091E-1	3.684621E-1	3.552903E-1	3.396184E-1	3.586432E-1	4.022824E-1	4.007210E-1	3.784111E-1	4.421330E-1	3.414100E-1	3.990786E-1	4.332691E-1	3.828465E-1	3.701889E-1	3.688630E-1	3.790336E-1	4.449990E-1	3.294327E-1	3.431095E-1	3.681419E-1	3.827325E-1	3.887838E-1	4.079389E-1	3.848142E-1	4.123982E-1	3.783976E-1	4.131029E-1	3.795203E-1	3.878490E-1	4.118367E-1	4.269323E-1	3.516156E-1	3.699606E-1	3.855673E-1	3.685700E-1	3.832162E-1	4.003919E-1	4.153099E-1	3.344969E-1	3.915033E-1	3.892145E-1	3.885689E-1	3.925521E-1	3.634318E-1	3.946843E-1	3.870471E-1	3.920982E-1	3.680289E-1	4.046235E-1	3.668106E-1	4.086118E-1	3.958719E-1	3.876803E-1	3.967734E-1	4.315472E-1	3.944858E-1	4.074392E-1	3.537026E-1	3.845049E-1	4.026396E-1	3.216071E-1	3.678374E-1	3.332103E-1	3.919080E-1	3.624862E-1	3.531582E-1	3.920320E-1	4.136193E-1	4.407923E-1	3.690917E-1	3.818540E-1	3.746877E-1	3.735758E-1	4.289591E-1	3.864731E-1	3.785834E-1	4.236866E-1	3.794763E-1	4.127392E-1	3.807095E-1	3.769427E-1	3.578268E-1	3.813369E-1	4.161378E-1	4.214749E-1	3.840958E-1	3.736360E-1	4.026990E-1	4.074523E-1	3.930360E-1	4.127020E-1	4.226302E-1	3.859484E-1	3.907674E-1	3.868212E-1	4.154029E-1	4.052226E-1	3.371809E-1	3.916821E-1	3.728790E-1	3.720470E-1	3.805843E-1	3.764897E-1	4.251683E-1	4.247049E-1	3.446346E-1	4.417670E-1
2.856030E+2	2.973405E-1	2.908566E-1	3.646828E-1	2.995789E-1	3.170611E-1	3.085124E-1	3.372229E-1	2.864993E-1	2.938732E-1	2.926449E-1	3.055344E-1	2.974389E-1	3.143046E-1	3.102873E-1	3.459595E-1	3.163853E-1	3.012134E-1	2.994149E-1	3.234966E-1	2.923675E-1	3.006027E-1	3.666854E-1	3.548419E-1	3.369819E-1	3.064712E-1	3.238334E-1	3.204171E-1	3.383070E-1	3.052632E-1	3.199623E-1	2.846026E-1	3.154237E-1	2.957868E-1	3.017928E-1	3.007206E-1	2.843722E-1	2.904581E-1	3.056385E-1	3.420410E-1	3.171587E-1	2.755045E-1	3.004189E-1	3.096242E-1	2.749684E-1	3.351531E-1	2.857700E-1	2.983545E-1	3.404500E-1	2.931651E-1	2.950246E-1	3.036811E-1	2.997080E-1	3.381737E-1	3.140482E-1	2.875317E-1	3.331902E-1	2.935616E-1	3.383561E-1	3.277140E-1	2.776621E-1	2.862499E-1	2.952078E-1	3.225100E-1	3.110862E-1	3.233591E-1	2.513635E-1	3.167539E-1	3.133237E-1	2.467121E-1	3.471114E-1	3.001175E-1	3.426832E-1	3.077253E-1	2.966824E-1	3.454707E-1	2.768409E-1	3.029219E-1	2.831958E-1	3.190766E-1	3.089100E-1	3.264784E-1	2.773232E-1	3.265553E-1	3.327791E-1	3.238554E-1	3.127469E-1	3.162920E-1	3.008267E-1	3.239939E-1	3.518944E-1	2.729694E-1	3.077307E-1	3.133303E-1	3.692193E-1	3.074328E-1	3.242133E-1	2.716432E-1	3.133283E-1	3.158290E-1	3.182239E-1	2.768316E-1	3.188960E-1	3.057720E-1	3.057574E-1	3.213669E-1	3.392435E-1	2.969438E-1	2.771845E-1	3.071756E-1	3.070935E-1	2.907155E-1	3.006692E-1	3.049881E-1	2.939305E-1	3.488890E-1	3.192700E-1	3.468147E-1	3.140606E-1	2.752505E-1	3.063119E-1	2.689211E-1	2.865464E-1	3.107349E-1	3.501390E-1	2.758760E-1	3.374241E-1	3.145122E-1	3.214736E-1	2.732759E-1	3.029865E-1	2.872168E-1	3.295319E-1	2.599131E-1	3.414003E-1	3.216923E-1	2.658817E-1	3.136808E-1	3.093532E-1	2.993987E-1	3.101466E-1	3.724872E-1	3.094125E-1	2.866780E-1	3.274882E-1	3.364951E-1	3.100589E-1	2.719438E-1	3.118097E-1	3.597474E-1	3.294895E-1	3.022410E-1	3.159692E-1	2.934155E-1	2.939877E-1	2.889250E-1	2.953529E-1	2.933361E-1	2.876286E-1	3.220561E-1	3.410216E-1	3.182443E-1	3.310150E-1	3.378477E-1	3.156848E-1	3.398087E-1	3.038494E-1	2.670206E-1	3.346560E-1	3.188694E-1	3.748097E-1
2.858010E+2	4.955181E-1	4.783478E-1	5.216661E-1	4.214180E-1	5.078671E-1	4.673851E-1	4.614017E-1	4.153678E-1	4.892701E-1	4.573231E-1	4.220145E-1	4.555414E-1	4.726670E-1	4.983327E-1	4.697868E-1	4.346740E-1	4.784295E-1	4.784041E-1	4.893291E-1	4.867295E-1	4.769185E-1	5.243332E-1	5.368249E-1	4.466501E-1	5.042017E-1	5.011019E-1	4.986855E-1	4.208378E-1	4.806175E-1	4.947543E-1	5.178725E-1	5.185234E-1	4.919474E-1	4.952980E-1	4.546962E-1	5.276650E-1	5.003126E-1	4.880873E-1	5.124961E-1	4.349233E-1	4.907732E-1	4.852104E-1	5.349644E-1	4.626201E-1	4.879833E-1	5.575530E-1	4.473865E-1	5.118181E-1	4.667578E-1	4.687925E-1	4.462982E-1	4.527862E-1	4.606459E-1	4.735476E-1	5.023139E-1	4.984772E-1	4.916629E-1	4.847173E-1	4.329309E-1	5.079232E-1	4.287536E-1	4.421224E-1	4.662832E-1	5.012653E-1	4.714974E-1	4.629621E-1	4.451177E-1	4.622985E-1	4.595811E-1	4.614999E-1	4.963918E-1	4.935680E-1	4.473478E-1	5.114371E-1	4.824953E-1	4.525138E-1	5.043952E-1	5.034735E-1	4.711388E-1	4.849465E-1	5.030059E-1	5.266268E-1	4.500267E-1	4.937140E-1	4.980314E-1	4.979250E-1	5.124324E-1	4.950991E-1	4.610359E-1	4.641390E-1	4.644618E-1	4.807558E-1	4.793320E-1	4.771358E-1	5.034307E-1	4.656083E-1	4.682728E-1	4.342583E-1	4.515103E-1	4.177607E-1	4.503284E-1	4.242706E-1	4.271946E-1	4.454198E-1	5.355692E-1	4.764880E-1	4.769450E-1	4.576694E-1	4.788425E-1	4.598871E-1	4.966225E-1	4.341712E-1	4.701769E-1	4.434538E-1	5.154109E-1	5.037291E-1	4.351017E-1	5.209820E-1	4.671405E-1	4.735903E-1	5.145197E-1	4.806725E-1	4.961568E-1	4.396731E-1	5.248638E-1	4.557495E-1	4.824367E-1	4.666559E-1	4.728101E-1	4.856887E-1	4.774148E-1	5.023219E-1	4.417622E-1	5.237152E-1	4.907863E-1	4.613279E-1	4.685941E-1	4.652838E-1	4.817696E-1	4.654603E-1	5.001256E-1	4.595331E-1	4.588211E-1	5.045524E-1	4.560959E-1	4.885227E-1	4.911341E-1	4.469288E-1	4.869690E-1	4.942801E-1	4.571190E-1	4.511594E-1	4.569363E-1	4.799780E-1	4.821580E-1	4.658068E-1	4.846564E-1	5.126104E-1	4.670173E-1	5.245955E-1	4.773884E-1	5.160508E-1	4.833833E-1	5.124833E-1	4.713616E-1	4.297842E-1	4.457530E-1	4.537193E-1	4.964924E-1	4.865088E-1
2.860070E+2	9.773079E-1	9.422998E-1	8.936480E-1	9.644241E-1	1.016784E+0	9.694966E-1	9.116611E-1	9.072479E-1	1.008706E+0	9.517324E-1	8.987637E-1	9.685900E-1	9.073488E-1	9.970502E-1	9.865223E-1	9.648838E-1	9.388471E-1	9.306810E-1	9.629946E-1	9.296710E-1	9.710727E-1	9.652597E-1	9.609474E-1	1.038029E+0	9.603376E-1	8.620287E-1	9.620722E-1	9.620685E-1	9.961316E-1	9.198230E-1	9.944048E-1	9.929289E-1	9.996310E-1	9.001123E-1	9.308031E-1	9.515501E-1	9.274635E-1	9.192463E-1	9.486414E-1	9.049700E-1	9.119658E-1	9.362261E-1	9.562472E-1	9.315188E-1	9.357654E-1	9.863057E-1	9.629640E-1	9.740072E-1	9.867083E-1	9.812088E-1	9.350372E-1	9.966201E-1	9.006316E-1	9.676819E-1	9.637706E-1	9.377934E-1	9.421159E-1	9.791525E-1	9.362247E-1	9.665264E-1	1.010396E+0	9.387153E-1	9.654306E-1	9.111711E-1	9.321261E-1	9.601792E-1	9.469677E-1	9.099781E-1	9.438918E-1	9.560293E-1	9.108584E-1	1.034632E+0	8.796770E-1	9.782430E-1	9.834776E-1	8.805534E-1	9.687866E-1	9.048471E-1	9.928364E-1	9.463592E-1	1.036972E+0	9.736023E-1	8.950866E-1	9.919384E-1	9.549532E-1	8.876838E-1	9.703495E-1	9.125705E-1	9.957165E-1	9.527089E-1	9.512436E-1	9.468030E-1	9.270606E-1	1.004231E+0	9.248547E-1	9.802095E-1	9.302964E-1	9.367873E-1	8.593354E-1	9.382327E-1	9.725561E-1	8.989315E-1	9.866107E-1	9.675656E-1	1.022409E+0	9.480017E-1	1.026305E+0	9.292027E-1	9.497946E-1	9.876489E-1	9.174448E-1	9.207715E-1	8.854727E-1	9.919510E-1	9.684524E-1	1.006512E+0	9.456927E-1	9.055737E-1	9.667722E-1	9.282270E-1	9.660543E-1	9.667366E-1	9.354097E-1	9.744458E-1	9.097082E-1	8.928547E-1	9.657230E-1	9.849223E-1	1.002691E+0	1.013303E+0	1.002123E+0	1.019330E+0	9.419650E-1	9.142828E-1	9.621989E-1	9.362359E-1	9.847919E-1	9.471912E-1	9.443457E-1	9.533578E-1	9.533196E-1	9.803609E-1	9.623087E-1	9.286785E-1	9.541183E-1	9.042934E-1	9.170437E-1	9.691946E-1	9.526655E-1	9.983976E-1	9.275641E-1	9.734294E-1	9.590094E-1	9.312274E-1	9.900370E-1	8.688350E-1	9.473702E-1	9.709626E-1	9.509598E-1	9.939812E-1	1.037599E+0	9.793553E-1	9.300177E-1	1.012498E+0	9.346698E-1	9.603469E-1	9.569151E-1	1.022280E+0	1.053078E+0	1.018023E+0
2.862050E+2	1.512173E+0	1.477232E+0	1.499456E+0	1.590871E+0	1.522273E+0	1.414782E+0	1.500390E+0	1.388292E+0	1.454445E+0	1.500321E+0	1.388715E+0	1.552592E+0	1.536946E+0	1.529971E+0	1.491437E+0	1.548640E+0	1.510997E+0	1.568269E+0	1.493770E+0	1.465675E+0	1.521237E+0	1.519005E+0	1.555952E+0	1.523848E+0	1.431803E+0	1.463068E+0	1.517286E+0	1.390122E+0	1.511800E+0	1.439616E+0	1.532651E+0	1.526491E+0	1.512378E+0	1.492841E+0	1.487532E+0	1.501548E+0	1.395805E+0	1.402852E+0	1.542040E+0	1.529752E+0	1.506431E+0	1.474343E+0	1.501264E+0	1.482266E+0	1.496822E+0	1.477803E+0	1.552879E+0	1.597273E+0	1.486789E+0	1.483180E+0	1.569772E+0	1.492804E+0	1.496588E+0	1.596897E+0	1.506653E+0	1.442589E+0	1.640288E+0	1.542427E+0	1.495760E+0	1.524989E+0	1.538324E+0	1.524500E+0	1.487532E+0	1.535751E+0	1.454866E+0	1.556921E+0	1.514615E+0	1.519993E+0	1.550067E+0	1.438218E+0	1.466492E+0	1.512861E+0	1.457670E+0	1.537821E+0	1.494100E+0	1.437473E+0	1.529118E+0	1.487326E+0	1.493078E+0	1.520072E+0	1.425424E+0	1.533811E+0	1.476477E+0	1.542884E+0	1.545754E+0	1.423425E+0	1.491436E+0	1.544833E+0	1.537917E+0	1.504136E+0	1.452034E+0	1.377908E+0	1.536603E+0	1.500807E+0	1.469133E+0	1.571450E+0	1.497670E+0	1.460969E+0	1.533035E+0	1.502897E+0	1.520884E+0	1.452766E+0	1.430399E+0	1.492097E+0	1.496019E+0	1.468093E+0	1.452171E+0	1.441939E+0	1.490809E+0	1.507270E+0	1.639169E+0	1.513726E+0	1.471853E+0	1.532913E+0	1.547390E+0	1.472743E+0	1.532115E+0	1.538938E+0	1.538561E+0	1.452491E+0	1.458210E+0	1.422541E+0	1.551465E+0	1.496398E+0	1.626316E+0	1.581902E+0	1.463634E+0	1.488422E+0	1.563408E+0	1.506836E+0	1.590572E+0	1.434445E+0	1.396996E+0	1.561449E+0	1.491069E+0	1.442753E+0	1.658415E+0	1.568299E+0	1.496321E+0	1.455686E+0	1.464088E+0	1.501184E+0	1.478917E+0	1.503108E+0	1.512523E+0	1.554471E+0	1.440908E+0	1.449455E+0	1.501315E+0	1.451496E+0	1.465881E+0	1.549537E+0	1.525720E+0	1.467600E+0	1.481178E+0	1.519235E+0	1.532682E+0	1.571738E+0	1.452121E+0	1.616529E+0	1.505295E+0	1.511953E+0	1.555220E+0	1.571651E+0	1.585141E+0	1.450366E+0	1.529204E+0	1.510286E+0	1.512749E+0	1.626838E+0
2.864160E+2	1.208749E+0	1.210155E+0	1.256814E+0	1.191882E+0	1.241733E+0	1.262686E+0	1.357259E+0	1.211409E+0	1.177080E+0	1.164040E+0	1.246018E+0	1.260650E+0	1.195399E+0	1.211509E+0	1.224999E+0	1.181628E+0	1.226310E+0	1.251425E+0	1.202230E+0	1.167109E+0	1.215247E+0	1.216820E+0	1.212306E+0	1.264368E+0	1.168642E+0	1.223884E+0	1.183251E+0	1.201430E+0	1.245941E+0	1.179559E+0	1.215258E+0	1.236013E+0	1.259918E+0	1.147364E+0	1.194327E+0	1.195684E+0	1.211202E+0	1.301057E+0	1.241440E+0	1.271779E+0	1.192333E+0	1.200871E+0	1.180808E+0	1.202403E+0	1.206767E+0	1.220761E+0	1.155995E+0	1.220442E+0	1.215905E+0	1.269895E+0	1.238330E+0	1.171885E+0	1.222732E+0	1.241313E+0	1.238021E+0	1.217028E+0	1.195998E+0	1.246982E+0	1.204446E+0	1.218726E+0	1.217195E+0	1.210761E+0	1.211583E+0	1.179825E+0	1.191685E+0	1.152877E+0	1.232231E+0	1.257118E+0	1.256334E+0	1.200151E+0	1.224241E+0	1.254632E+0	1.231423E+0	1.211079E+0	1.133841E+0	1.215379E+0	1.262003E+0	1.189955E+0	1.193899E+0	1.280208E+0	1.251371E+0	1.138002E+0	1.208584E+0	1.237188E+0	1.222658E+0	1.188142E+0	1.236140E+0	1.234577E+0	1.217936E+0	1.251489E+0	1.195483E+0	1.256914E+0	1.247006E+0	1.218618E+0	1.217169E+0	1.232343E+0	1.203589E+0	1.162363E+0	1.240241E+0	1.260420E+0	1.216789E+0	1.224143E+0	1.168989E+0	1.083697E+0	1.205873E+0	1.215336E+0	1.164523E+0	1.140502E+0	1.222247E+0	1.211459E+0	1.256573E+0	1.214398E+0	1.248001E+0	1.249939E+0	1.277551E+0	1.205698E+0	1.251857E+0	1.253145E+0	1.241024E+0	1.199792E+0	1.202880E+0	1.143001E+0	1.228286E+0	1.224965E+0	1.192824E+0	1.244436E+0	1.233128E+0	1.212308E+0	1.249077E+0	1.246206E+0	1.219351E+0	1.241617E+0	1.165910E+0	1.254042E+0	1.237107E+0	1.190914E+0	1.245837E+0	1.177838E+0	1.230600E+0	1.232204E+0	1.205455E+0	1.157541E+0	1.201967E+0	1.181799E+0	1.197521E+0	1.217738E+0	1.254426E+0	1.222585E+0	1.303351E+0	1.264397E+0	1.237970E+0	1.231778E+0	1.172183E+0	1.165910E+0	1.203853E+0	1.235234E+0	1.197727E+0	1.192501E+0	1.257332E+0	1.237492E+0	1.283791E+0	1.313988E+0	1.243574E+0	1.239280E+0	1.192735E+0	1.202876E+0	1.170239E+0	1.174758E+0	1.191283E+0	1.231559E+0
2.866210E+2	1.043613E+0	1.046840E+0	1.012513E+0	1.044940E+0	9.358190E-1	1.014139E+0	1.007209E+0	1.057123E+0	1.002568E+0	1.047743E+0	9.972066E-1	1.049702E+0	1.016229E+0	1.048978E+0	1.024853E+0	1.034277E+0	1.027961E+0	1.017369E+0	1.026365E+0	9.932189E-1	9.913876E-1	1.027349E+0	1.091619E+0	1.045539E+0	9.964845E-1	1.056124E+0	1.077263E+0	1.037610E+0	1.076355E+0	1.095692E+0	1.012164E+0	1.056276E+0	1.132768E+0	1.063999E+0	1.074997E+0	1.038820E+0	1.029329E+0	1.051148E+0	1.084346E+0	1.046661E+0	1.020696E+0	1.029669E+0	1.048666E+0	1.038134E+0	1.084744E+0	1.059967E+0	1.040094E+0	1.035382E+0	1.060076E+0	1.049128E+0	1.056359E+0	1.005719E+0	1.090889E+0	1.055438E+0	1.051294E+0	1.007990E+0	1.014506E+0	1.026816E+0	1.010920E+0	1.067561E+0	1.088785E+0	9.806415E-1	9.942128E-1	1.034217E+0	9.863329E-1	1.031345E+0	9.965136E-1	1.020357E+0	1.028669E+0	1.033301E+0	1.046118E+0	1.027192E+0	9.712969E-1	1.087952E+0	1.065962E+0	1.033986E+0	1.069950E+0	1.007897E+0	1.033233E+0	1.079457E+0	9.887465E-1	1.029378E+0	1.040594E+0	1.005265E+0	1.002249E+0	9.938644E-1	1.013364E+0	1.125082E+0	1.056247E+0	1.135611E+0	1.042783E+0	9.784593E-1	1.001695E+0	1.059419E+0	1.003058E+0	1.094477E+0	1.011076E+0	1.030890E+0	9.943084E-1	9.937845E-1	1.063730E+0	1.024349E+0	9.934037E-1	9.912598E-1	1.006013E+0	1.078685E+0	1.044439E+0	1.020116E+0	1.066532E+0	1.028481E+0	1.041582E+0	1.054453E+0	1.021487E+0	1.078165E+0	1.045036E+0	1.054232E+0	1.032235E+0	1.023257E+0	1.102359E+0	1.039003E+0	1.042378E+0	1.053859E+0	1.059734E+0	1.086391E+0	1.052422E+0	1.055396E+0	1.025341E+0	1.062465E+0	1.016603E+0	1.022824E+0	1.082369E+0	1.075557E+0	1.066972E+0	9.972627E-1	9.925995E-1	1.005500E+0	1.056436E+0	1.049998E+0	1.014280E+0	1.049807E+0	1.046997E+0	1.009051E+0	1.007910E+0	1.058140E+0	1.066666E+0	9.829407E-1	9.986970E-1	1.035627E+0	1.036588E+0	1.011664E+0	1.025667E+0	1.041833E+0	1.100155E+0	1.013576E+0	1.084834E+0	1.073273E+0	1.121107E+0	1.053898E+0	1.053760E+0	1.031871E+0	1.026152E+0	1.031953E+0	1.017046E+0	1.061998E+0	1.037908E+0	1.064285E+0	1.053145E+0	9.711972E-1	1.010781E+0	1.017377E+0
2.868020E+2	1.270811E+0	1.385073E+0	1.337755E+0	1.291177E+0	1.379965E+0	1.373860E+0	1.354942E+0	1.296538E+0	1.285523E+0	1.354250E+0	1.280998E+0	1.294840E+0	1.336490E+0	1.321759E+0	1.360128E+0	1.324509E+0	1.366741E+0	1.339419E+0	1.283382E+0	1.275678E+0	1.301454E+0	1.328782E+0	1.375337E+0	1.370896E+0	1.258482E+0	1.356995E+0	1.276034E+0	1.329860E+0	1.315188E+0	1.332065E+0	1.359900E+0	1.345067E+0	1.283649E+0	1.266889E+0	1.333403E+0	1.334483E+0	1.332881E+0	1.272622E+0	1.343530E+0	1.335888E+0	1.257697E+0	1.308936E+0	1.379515E+0	1.248530E+0	1.366863E+0	1.355328E+0	1.307439E+0	1.408740E+0	1.375310E+0	1.291269E+0	1.281372E+0	1.322758E+0	1.372401E+0	1.343656E+0	1.312483E+0	1.358968E+0	1.319334E+0	1.304168E+0	1.274680E+0	1.362380E+0	1.352524E+0	1.283069E+0	1.308734E+0	1.352171E+0	1.347702E+0	1.272655E+0	1.288280E+0	1.272670E+0	1.282033E+0	1.253746E+0	1.270976E+0	1.363369E+0	1.328797E+0	1.303869E+0	1.335396E+0	1.270561E+0	1.404454E+0	1.335777E+0	1.336562E+0	1.422161E+0	1.276631E+0	1.252420E+0	1.282138E+0	1.316922E+0	1.342310E+0	1.304034E+0	1.317585E+0	1.349186E+0	1.268802E+0	1.342975E+0	1.287437E+0	1.272803E+0	1.372374E+0	1.317316E+0	1.293788E+0	1.331210E+0	1.305035E+0	1.276385E+0	1.321020E+0	1.245960E+0	1.303841E+0	1.304012E+0	1.315729E+0	1.291954E+0	1.356991E+0	1.315274E+0	1.267285E+0	1.287408E+0	1.298909E+0	1.381635E+0	1.315540E+0	1.299212E+0	1.359467E+0	1.469476E+0	1.357751E+0	1.323473E+0	1.331216E+0	1.347779E+0	1.275613E+0	1.249953E+0	1.303128E+0	1.251528E+0	1.387357E+0	1.352121E+0	1.329223E+0	1.261920E+0	1.325243E+0	1.338895E+0	1.338492E+0	1.291462E+0	1.414962E+0	1.276924E+0	1.308294E+0	1.329686E+0	1.295838E+0	1.296591E+0	1.423719E+0	1.294588E+0	1.274478E+0	1.300561E+0	1.308759E+0	1.263266E+0	1.338993E+0	1.251264E+0	1.379018E+0	1.300292E+0	1.383223E+0	1.352643E+0	1.261396E+0	1.270027E+0	1.306336E+0	1.333255E+0	1.289645E+0	1.340070E+0	1.357790E+0	1.324315E+0	1.380312E+0	1.334151E+0	1.224609E+0	1.391159E+0	1.390901E+0	1.335941E+0	1.385909E+0	1.348286E+0	1.328457E+0	1.330250E+0	1.264392E+0	1.288865E+0	1.268800E+0	1.259636E+0
2.870030E+2	1.325338E+0	1.283912E+0	1.289762E+0	1.272946E+0	1.236647E+0	1.184245E+0	1.250754E+0	1.245292E+0	1.209659E+0	1.205930E+0	1.331381E+0	1.357782E+0	1.199432E+0	1.280443E+0	1.250802E+0	1.246730E+0	1.298195E+0	1.265017E+0	1.237637E+0	1.309707E+0	1.216202E+0	1.289781E+0	1.307486E+0	1.280920E+0	1.373905E+0	1.235242E+0	1.287865E+0	1.257970E+0	1.324193E+0	1.227964E+0	1.279069E+0	1.254803E+0	1.309792E+0	1.302105E+0	1.242108E+0	1.253020E+0	1.219907E+0	1.259289E+0	1.272622E+0	1.241975E+0	1.167869E+0	1.305417E+0	1.273111E+0	1.200010E+0	1.300334E+0	1.316942E+0	1.231216E+0	1.327518E+0	1.274911E+0	1.297176E+0	1.271653E+0	1.259088E+0	1.272413E+0	1.229867E+0	1.325992E+0	1.329115E+0	1.261195E+0	1.270623E+0	1.231764E+0	1.237696E+0	1.263483E+0	1.196817E+0	1.231910E+0	1.227595E+0	1.362762E+0	1.256662E+0	1.263033E+0	1.303124E+0	1.303592E+0	1.310376E+0	1.228746E+0	1.300287E+0	1.248031E+0	1.260170E+0	1.277080E+0	1.297289E+0	1.268273E+0	1.308643E+0	1.241637E+0	1.277403E+0	1.239305E+0	1.286495E+0	1.270988E+0	1.274458E+0	1.240759E+0	1.295623E+0	1.180835E+0	1.334928E+0	1.316020E+0	1.199469E+0	1.242616E+0	1.266608E+0	1.295605E+0	1.246017E+0	1.228378E+0	1.316279E+0	1.212194E+0	1.264916E+0	1.297611E+0	1.224558E+0	1.300268E+0	1.225431E+0	1.212784E+0	1.212050E+0	1.249066E+0	1.218212E+0	1.284163E+0	1.181747E+0	1.265817E+0	1.331252E+0	1.347653E+0	1.313355E+0	1.208730E+0	1.293684E+0	1.252796E+0	1.243907E+0	1.304707E+0	1.266637E+0	1.202261E+0	1.193275E+0	1.267621E+0	1.173008E+0	1.207635E+0	1.308132E+0	1.296557E+0	1.293819E+0	1.291757E+0	1.309989E+0	1.271680E+0	1.307069E+0	1.290250E+0	1.268075E+0	1.215408E+0	1.278895E+0	1.256579E+0	1.272926E+0	1.278428E+0	1.286751E+0	1.263293E+0	1.195611E+0	1.242243E+0	1.290621E+0	1.312620E+0	1.240284E+0	1.228126E+0	1.253595E+0	1.163343E+0	1.291434E+0	1.272280E+0	1.271438E+0	1.244130E+0	1.250159E+0	1.294419E+0	1.186372E+0	1.314268E+0	1.197553E+0	1.234918E+0	1.267749E+0	1.254653E+0	1.267859E+0	1.218620E+0	1.318732E+0	1.236752E+0	1.252942E+0	1.235750E+0	1.279088E+0	1.181346E+0	1.259927E+0	1.172690E+0	1.366245E+0
2.872050E+2	1.228719E+0	1.089263E+0	1.185378E+0	1.097960E+0	1.178025E+0	1.139993E+0	1.219945E+0	1.135500E+0	1.076981E+0	1.123809E+0	1.141141E+0	1.177368E+0	1.170864E+0	1.105785E+0	1.154658E+0	1.177737E+0	1.179842E+0	1.149294E+0	1.187965E+0	1.193991E+0	1.122154E+0	1.171417E+0	1.216085E+0	1.195987E+0	1.062549E+0	1.120252E+0	1.135126E+0	1.165524E+0	1.178317E+0	1.089153E+0	1.143708E+0	1.091848E+0	1.146965E+0	1.157275E+0	1.123949E+0	1.214020E+0	1.104405E+0	1.172890E+0	1.167816E+0	1.182877E+0	1.146508E+0	1.132436E+0	1.127131E+0	1.219921E+0	1.189715E+0	1.144942E+0	1.105314E+0	1.179456E+0	1.104666E+0	1.133279E+0	1.183264E+0	1.143720E+0	1.073584E+0	1.181728E+0	1.165499E+0	1.113617E+0	1.149731E+0	1.139624E+0	1.103592E+0	1.125468E+0	1.210073E+0	1.101645E+0	1.170355E+0	1.125408E+0	1.124348E+0	1.116586E+0	1.133316E+0	1.198572E+0	1.119214E+0	1.138464E+0	1.080306E+0	1.114928E+0	1.069662E+0	1.139804E+0	1.137162E+0	1.187845E+0	1.135833E+0	1.150394E+0	1.197111E+0	1.166209E+0	1.225099E+0	1.142967E+0	1.191775E+0	1.189757E+0	1.173674E+0	1.157645E+0	1.126451E+0	1.141686E+0	1.223536E+0	1.153749E+0	1.174341E+0	1.030710E+0	1.127493E+0	1.132582E+0	1.098646E+0	1.154776E+0	1.150439E+0	1.187362E+0	1.192828E+0	1.056642E+0	1.176724E+0	1.158104E+0	1.110346E+0	1.170591E+0	1.145208E+0	1.125465E+0	1.115398E+0	1.042651E+0	1.108377E+0	1.093509E+0	1.105734E+0	1.103534E+0	1.176071E+0	1.279106E+0	1.186785E+0	1.146522E+0	1.217457E+0	1.160301E+0	1.109102E+0	1.137939E+0	1.105102E+0	1.091772E+0	1.145152E+0	1.135420E+0	1.126675E+0	1.121358E+0	1.155348E+0	1.118961E+0	1.160077E+0	1.213225E+0	1.182315E+0	1.233884E+0	1.152410E+0	1.158614E+0	1.116831E+0	1.181591E+0	1.175261E+0	1.104922E+0	1.126329E+0	1.111885E+0	1.111853E+0	1.099753E+0	1.098651E+0	1.160284E+0	1.059678E+0	1.087466E+0	1.108866E+0	1.162340E+0	1.160069E+0	1.158669E+0	1.173828E+0	1.129951E+0	1.121561E+0	1.208024E+0	1.109498E+0	1.149280E+0	1.122153E+0	1.144681E+0	1.239768E+0	1.207794E+0	1.144861E+0	1.116750E+0	1.161554E+0	1.204740E+0	1.165547E+0	1.164288E+0	1.199619E+0	1.118533E+0	1.099061E+0	1.033270E+0
2.874030E+2	8.247463E-1	8.029768E-1	8.802729E-1	8.684345E-1	8.445206E-1	8.485147E-1	8.771436E-1	8.672061E-1	7.994222E-1	8.631041E-1	8.313759E-1	8.448524E-1	8.994672E-1	8.745963E-1	9.040483E-1	8.213078E-1	8.128667E-1	8.511176E-1	8.540462E-1	8.316866E-1	8.902677E-1	7.928875E-1	8.560212E-1	8.273341E-1	8.438802E-1	8.274989E-1	8.863101E-1	8.288663E-1	8.374035E-1	8.297988E-1	9.002126E-1	8.542922E-1	8.348562E-1	8.692635E-1	8.562044E-1	8.510140E-1	8.560063E-1	8.217690E-1	8.803437E-1	8.697845E-1	8.310761E-1	8.628470E-1	8.558745E-1	8.802158E-1	8.168697E-1	8.548633E-1	8.135019E-1	9.226922E-1	8.316972E-1	8.467004E-1	8.558622E-1	8.231233E-1	8.433403E-1	8.680797E-1	8.861002E-1	8.883245E-1	8.427296E-1	8.773412E-1	8.189597E-1	7.809759E-1	8.959284E-1	8.323099E-1	8.568845E-1	8.606280E-1	8.461660E-1	9.031251E-1	8.161575E-1	9.223506E-1	8.380530E-1	9.365812E-1	8.433555E-1	8.192380E-1	8.392441E-1	8.240581E-1	8.387196E-1	7.877398E-1	8.344579E-1	8.059311E-1	8.726637E-1	8.554762E-1	8.720406E-1	8.244842E-1	8.527259E-1	8.487282E-1	8.626048E-1	8.033837E-1	9.271374E-1	8.118845E-1	8.758255E-1	9.053386E-1	8.291390E-1	8.299598E-1	8.556379E-1	8.226609E-1	7.998895E-1	9.136259E-1	8.677286E-1	8.666923E-1	8.268058E-1	9.136791E-1	8.481149E-1	8.551446E-1	8.748217E-1	8.440207E-1	8.860151E-1	8.607288E-1	8.486317E-1	8.946373E-1	9.031997E-1	9.054054E-1	8.968443E-1	8.596736E-1	9.018179E-1	8.862068E-1	8.256434E-1	8.697560E-1	8.573998E-1	8.702612E-1	8.685568E-1	9.163127E-1	8.526372E-1	8.411924E-1	8.682265E-1	8.753178E-1	9.038518E-1	9.063409E-1	8.424561E-1	8.136806E-1	9.103897E-1	8.841540E-1	8.362644E-1	8.343978E-1	8.641868E-1	8.494761E-1	8.677931E-1	8.005686E-1	9.227963E-1	8.384994E-1	8.288998E-1	8.614091E-1	8.913775E-1	8.567941E-1	7.950364E-1	8.469916E-1	8.225927E-1	8.931508E-1	8.339370E-1	8.047376E-1	8.584012E-1	8.146870E-1	8.791969E-1	8.710961E-1	8.492272E-1	8.531709E-1	8.256454E-1	8.472933E-1	8.641946E-1	8.824539E-1	9.127401E-1	8.230734E-1	8.682236E-1	8.300093E-1	8.348988E-1	8.825751E-1	8.045946E-1	8.565243E-1	8.460696E-1	9.034146E-1	8.891277E-1	8.290196E-1
2.876050E+2	6.495624E-1	6.396617E-1	6.795937E-1	6.500967E-1	6.467865E-1	6.836403E-1	6.287862E-1	6.448486E-1	6.558525E-1	6.805240E-1	6.340086E-1	6.458181E-1	6.486374E-1	6.425738E-1	6.784530E-1	6.313918E-1	6.287830E-1	6.789159E-1	6.237087E-1	6.268710E-1	6.511151E-1	6.774027E-1	6.736469E-1	6.933416E-1	7.218932E-1	6.851702E-1	6.246517E-1	5.924335E-1	6.724002E-1	6.813143E-1	6.306322E-1	6.835872E-1	6.208855E-1	6.389299E-1	6.419714E-1	6.775096E-1	7.028345E-1	6.495661E-1	6.550163E-1	6.645216E-1	6.178180E-1	7.024081E-1	6.982179E-1	6.441155E-1	6.538735E-1	6.878982E-1	6.634038E-1	6.789835E-1	6.576011E-1	6.224422E-1	6.414889E-1	6.463533E-1	6.223523E-1	6.438422E-1	6.792778E-1	6.774212E-1	6.339589E-1	6.723066E-1	6.648232E-1	6.922752E-1	6.880818E-1	6.608908E-1	7.076412E-1	6.892526E-1	6.500613E-1	6.079245E-1	6.299470E-1	6.653169E-1	6.685347E-1	6.489663E-1	6.501784E-1	6.817645E-1	6.433048E-1	7.118351E-1	6.534925E-1	6.359061E-1	6.663103E-1	6.801585E-1	6.235894E-1	6.668898E-1	6.184235E-1	7.118965E-1	6.456989E-1	6.474558E-1	6.786735E-1	6.867529E-1	6.403317E-1	6.745485E-1	6.802448E-1	6.907847E-1	6.117147E-1	6.360846E-1	6.795553E-1	6.707491E-1	6.437772E-1	6.808484E-1	6.613176E-1	6.278268E-1	6.743700E-1	6.518373E-1	6.691782E-1	6.922005E-1	7.229187E-1	6.566066E-1	6.492389E-1	6.865218E-1	5.925316E-1	6.821983E-1	6.705377E-1	6.646701E-1	6.179317E-1	6.740681E-1	6.518024E-1	6.439752E-1	6.431597E-1	6.797891E-1	6.610687E-1	6.626189E-1	6.308607E-1	6.859836E-1	6.748047E-1	6.633597E-1	6.269499E-1	6.667301E-1	6.359211E-1	6.462370E-1	6.851736E-1	6.384775E-1	6.908454E-1	6.397203E-1	6.830569E-1	6.482861E-1	7.140488E-1	6.546693E-1	6.406599E-1	6.325120E-1	6.800678E-1	6.469366E-1	6.847420E-1	6.464646E-1	6.821593E-1	6.291734E-1	6.597729E-1	6.060185E-1	6.088216E-1	6.358386E-1	6.630130E-1	6.456163E-1	6.168551E-1	6.771938E-1	7.161712E-1	6.423668E-1	7.044549E-1	6.701275E-1	6.714596E-1	5.979104E-1	6.550243E-1	6.648122E-1	6.534349E-1	6.883012E-1	6.201491E-1	6.988563E-1	6.721913E-1	6.745904E-1	6.110755E-1	6.512727E-1	6.545815E-1	6.203913E-1	6.625306E-1	6.189582E-1
2.878050E+2	4.966707E-1	5.116649E-1	4.429095E-1	5.082426E-1	5.460404E-1	5.368108E-1	5.420892E-1	5.056781E-1	5.103620E-1	5.510912E-1	5.471779E-1	5.400166E-1	5.190577E-1	5.073586E-1	4.788801E-1	5.169153E-1	5.361326E-1	5.343366E-1	5.336789E-1	4.837345E-1	5.329918E-1	5.092341E-1	5.154588E-1	5.512215E-1	4.361371E-1	5.045778E-1	5.395319E-1	5.170682E-1	5.228028E-1	5.101560E-1	5.238710E-1	5.113256E-1	5.334226E-1	5.689238E-1	5.438208E-1	5.025771E-1	5.198185E-1	5.211231E-1	5.806771E-1	5.024843E-1	5.486271E-1	5.457901E-1	5.630739E-1	4.980832E-1	5.470319E-1	5.283688E-1	5.235931E-1	5.036395E-1	5.125270E-1	5.324969E-1	5.149172E-1	4.814136E-1	5.424514E-1	5.290361E-1	5.201943E-1	5.461284E-1	4.983269E-1	5.317583E-1	4.999161E-1	4.823250E-1	5.251809E-1	5.481898E-1	5.711480E-1	4.663887E-1	4.901592E-1	4.909483E-1	4.550271E-1	4.988902E-1	5.357538E-1	5.874619E-1	5.359135E-1	5.856358E-1	5.695492E-1	5.488395E-1	4.989169E-1	4.974145E-1	5.216451E-1	5.616548E-1	5.564750E-1	5.185900E-1	4.982854E-1	5.626153E-1	4.894767E-1	5.443053E-1	5.240770E-1	5.187773E-1	4.964961E-1	5.456662E-1	5.066543E-1	5.409819E-1	5.054297E-1	5.287519E-1	5.323128E-1	5.141774E-1	5.085904E-1	4.852147E-1	5.219386E-1	5.020787E-1	5.250533E-1	5.285847E-1	5.230108E-1	5.355504E-1	4.978496E-1	5.243722E-1	5.184499E-1	5.123506E-1	5.243573E-1	4.949309E-1	5.916440E-1	5.386434E-1	5.374288E-1	5.041202E-1	5.586846E-1	4.861849E-1	5.274456E-1	5.242018E-1	4.924462E-1	5.406518E-1	5.303917E-1	5.581767E-1	5.140216E-1	5.180993E-1	5.038641E-1	4.627433E-1	4.944810E-1	5.289897E-1	5.090087E-1	5.433198E-1	5.076136E-1	4.923219E-1	5.065145E-1	5.546662E-1	4.951676E-1	5.277240E-1	5.518529E-1	5.189488E-1	5.302315E-1	5.082870E-1	5.505659E-1	5.118762E-1	5.555938E-1	5.150454E-1	4.976608E-1	5.607702E-1	5.473559E-1	5.030995E-1	4.604858E-1	4.806452E-1	5.524074E-1	4.888729E-1	5.229090E-1	5.068771E-1	5.341423E-1	5.049215E-1	5.269828E-1	5.325135E-1	5.192469E-1	5.329261E-1	5.445885E-1	5.595441E-1	5.236452E-1	5.848172E-1	5.432220E-1	5.638808E-1	5.257609E-1	5.517390E-1	4.964123E-1	5.014614E-1	4.611356E-1	4.257823E-1
2.880020E+2	6.088894E-1	6.285518E-1	5.910433E-1	5.878250E-1	5.801390E-1	6.330193E-1	5.831679E-1	5.559399E-1	5.491910E-1	5.593300E-1	6.123809E-1	6.225419E-1	6.194733E-1	5.276708E-1	6.495187E-1	5.342243E-1	5.811608E-1	5.685946E-1	6.245413E-1	5.678090E-1	6.371699E-1	5.434739E-1	6.225521E-1	5.556677E-1	5.802464E-1	5.460312E-1	6.384809E-1	5.938658E-1	6.607513E-1	6.076036E-1	6.068043E-1	6.026768E-1	6.114782E-1	5.582392E-1	6.282878E-1	6.066694E-1	5.728697E-1	5.855993E-1	6.419382E-1	5.999559E-1	6.562731E-1	6.094878E-1	6.392189E-1	5.775432E-1	5.703505E-1	5.515267E-1	6.168018E-1	6.272437E-1	5.863761E-1	6.047055E-1	6.532563E-1	5.406244E-1	6.005973E-1	5.781695E-1	5.977118E-1	6.191586E-1	5.949104E-1	5.730421E-1	5.638074E-1	5.838455E-1	5.758714E-1	5.383391E-1	6.233516E-1	6.198225E-1	6.303430E-1	5.805604E-1	5.954527E-1	6.212291E-1	5.741662E-1	5.978586E-1	5.817666E-1	6.172937E-1	5.717669E-1	5.827072E-1	5.985536E-1	5.633350E-1	5.335351E-1	5.698567E-1	5.936113E-1	6.051471E-1	5.994496E-1	5.604336E-1	5.603510E-1	6.108789E-1	5.711711E-1	5.851020E-1	5.699470E-1	5.955259E-1	5.788945E-1	5.976545E-1	5.979350E-1	6.256805E-1	5.858458E-1	6.535201E-1	5.604968E-1	6.116275E-1	6.061192E-1	6.175346E-1	6.019911E-1	5.337475E-1	5.912072E-1	6.169775E-1	5.733833E-1	5.155226E-1	5.687423E-1	6.221976E-1	5.402283E-1	5.998356E-1	5.395293E-1	5.716147E-1	6.285761E-1	5.528462E-1	6.055001E-1	5.907403E-1	5.853465E-1	5.539664E-1	5.940510E-1	5.511247E-1	5.737971E-1	5.678072E-1	6.153902E-1	5.874945E-1	6.312184E-1	5.833242E-1	6.187578E-1	5.813525E-1	6.179486E-1	6.098145E-1	5.595021E-1	6.175542E-1	5.630273E-1	6.042195E-1	6.202667E-1	6.062127E-1	6.195634E-1	5.808582E-1	6.457953E-1	5.402596E-1	6.182457E-1	6.260662E-1	5.759337E-1	5.673472E-1	6.075421E-1	5.999295E-1	5.791377E-1	6.050525E-1	5.754936E-1	5.782177E-1	6.032821E-1	6.116316E-1	6.028700E-1	5.855139E-1	5.882203E-1	5.802516E-1	5.968312E-1	5.354147E-1	5.674995E-1	5.855759E-1	5.737887E-1	5.961162E-1	5.834509E-1	5.655626E-1	5.850690E-1	6.173951E-1	6.158662E-1	5.301937E-1	5.590453E-1	5.761520E-1	6.718013E-1	5.351246E-1
2.882200E+2	8.143369E-1	7.861224E-1	7.170151E-1	7.600475E-1	7.382855E-1	7.576846E-1	8.489304E-1	7.459400E-1	7.834385E-1	7.227261E-1	7.524445E-1	7.575421E-1	7.802404E-1	7.301939E-1	7.106753E-1	7.113559E-1	7.621255E-1	7.463394E-1	7.541087E-1	7.025637E-1	7.946263E-1	7.170974E-1	8.004014E-1	6.948281E-1	7.065249E-1	7.219596E-1	7.495825E-1	7.618823E-1	7.685469E-1	7.443634E-1	7.526272E-1	7.481946E-1	7.918824E-1	7.599738E-1	7.618919E-1	8.235559E-1	7.617084E-1	7.907617E-1	7.598992E-1	7.668256E-1	7.288017E-1	7.718841E-1	7.670885E-1	6.976270E-1	7.899523E-1	7.565289E-1	7.645428E-1	7.923304E-1	7.991941E-1	7.979732E-1	7.589914E-1	7.968973E-1	7.126732E-1	8.179398E-1	7.573655E-1	7.610419E-1	7.916423E-1	7.511566E-1	7.632443E-1	7.530426E-1	7.926316E-1	7.167572E-1	8.061659E-1	7.958814E-1	7.468567E-1	7.550325E-1	7.503780E-1	6.910015E-1	7.250930E-1	7.706097E-1	7.240154E-1	8.065370E-1	7.729803E-1	7.085221E-1	7.610019E-1	7.164158E-1	8.014638E-1	7.911697E-1	7.941185E-1	7.214759E-1	7.996841E-1	7.160226E-1	7.564817E-1	7.868670E-1	7.531923E-1	7.812578E-1	7.820305E-1	7.755488E-1	8.053123E-1	8.045307E-1	7.901793E-1	7.343235E-1	7.442333E-1	7.871233E-1	6.819711E-1	8.306791E-1	7.469082E-1	7.532860E-1	7.671695E-1	7.360975E-1	8.467436E-1	7.920953E-1	7.584191E-1	7.612785E-1	7.550270E-1	7.190038E-1	7.370522E-1	7.219642E-1	7.189725E-1	7.888425E-1	7.986225E-1	7.189471E-1	7.322448E-1	7.542622E-1	7.838728E-1	7.102564E-1	7.956420E-1	8.076117E-1	7.825132E-1	7.515996E-1	7.756980E-1	7.270006E-1	7.877251E-1	7.726026E-1	8.336707E-1	7.460997E-1	7.301706E-1	7.601578E-1	8.018066E-1	7.292520E-1	8.099375E-1	7.716607E-1	7.411427E-1	7.530271E-1	7.825822E-1	7.311894E-1	7.770734E-1	7.259314E-1	7.141075E-1	7.475471E-1	7.745269E-1	7.916247E-1	7.404477E-1	7.571721E-1	7.491911E-1	7.003231E-1	7.165309E-1	7.821753E-1	7.840794E-1	7.464947E-1	7.501727E-1	7.448104E-1	8.082790E-1	7.946988E-1	7.956020E-1	7.770330E-1	7.842976E-1	7.906240E-1	7.980513E-1	8.237371E-1	7.450075E-1	7.601258E-1	7.434785E-1	7.629114E-1	7.400850E-1	7.813639E-1	8.009598E-1	7.089224E-1	7.221369E-1	7.771443E-1
2.884070E+2	1.088959E+0	1.132972E+0	1.053759E+0	1.066346E+0	1.007117E+0	1.056358E+0	1.044149E+0	1.032655E+0	1.098535E+0	1.112029E+0	1.085526E+0	1.215522E+0	1.134251E+0	1.125364E+0	1.064350E+0	1.073250E+0	1.055976E+0	1.076646E+0	1.081211E+0	1.073864E+0	1.104750E+0	1.093790E+0	1.197602E+0	1.121409E+0	1.146743E+0	1.070895E+0	1.120803E+0	1.110342E+0	1.132600E+0	1.102522E+0	1.111418E+0	1.102137E+0	1.100730E+0	1.131345E+0	1.072188E+0	1.115001E+0	1.177419E+0	1.142140E+0	1.182412E+0	1.199987E+0	1.106296E+0	1.112155E+0	1.107526E+0	1.085773E+0	1.149607E+0	1.080495E+0	1.108660E+0	1.125236E+0	1.108175E+0	1.134213E+0	1.099253E+0	1.101295E+0	1.084396E+0	1.138258E+0	1.115073E+0	1.075073E+0	1.147831E+0	1.158213E+0	1.110470E+0	1.143040E+0	1.136768E+0	1.056167E+0	1.140130E+0	1.056421E+0	1.117940E+0	1.188223E+0	1.116454E+0	1.106421E+0	1.088032E+0	1.165994E+0	1.105894E+0	1.083906E+0	1.067007E+0	1.141340E+0	1.056610E+0	1.083255E+0	1.178194E+0	1.068279E+0	1.078436E+0	1.101515E+0	1.141014E+0	1.090070E+0	1.071818E+0	1.177649E+0	1.118120E+0	1.061283E+0	1.120978E+0	1.173531E+0	1.118033E+0	1.056419E+0	1.095159E+0	1.100143E+0	1.063244E+0	1.100187E+0	1.077529E+0	1.182488E+0	1.144531E+0	1.093656E+0	1.105362E+0	1.114249E+0	1.136312E+0	1.082088E+0	1.132614E+0	1.116039E+0	1.144344E+0	1.087984E+0	1.142285E+0	1.009830E+0	1.168075E+0	1.116980E+0	1.112744E+0	1.035417E+0	1.124332E+0	1.122017E+0	1.127599E+0	1.118796E+0	1.130095E+0	1.072815E+0	1.063489E+0	1.035889E+0	1.066033E+0	1.086825E+0	1.147432E+0	1.140671E+0	1.176002E+0	1.118787E+0	1.052005E+0	1.118005E+0	1.133875E+0	1.156276E+0	1.137669E+0	1.163567E+0	1.077878E+0	1.150085E+0	1.114327E+0	1.053609E+0	1.187180E+0	1.141283E+0	1.125092E+0	1.110961E+0	1.121091E+0	1.115244E+0	1.019578E+0	1.071792E+0	1.135364E+0	1.087439E+0	1.050777E+0	1.099974E+0	1.105058E+0	1.145950E+0	1.124730E+0	1.095794E+0	1.123537E+0	1.114976E+0	1.187914E+0	1.043170E+0	1.120040E+0	1.141702E+0	1.151021E+0	1.082286E+0	1.065611E+0	1.189823E+0	1.130014E+0	1.058875E+0	1.117238E+0	1.127472E+0	1.154398E+0	1.010902E+0	1.073599E+0	1.200702E+0
2.886010E+2	1.249983E+0	1.188288E+0	1.211712E+0	1.148945E+0	1.139719E+0	1.135163E+0	1.288421E+0	1.201501E+0	1.160884E+0	1.218885E+0	1.250845E+0	1.129274E+0	1.211078E+0	1.218644E+0	1.170732E+0	1.153430E+0	1.140988E+0	1.233039E+0	1.146654E+0	1.178013E+0	1.258894E+0	1.157604E+0	1.235272E+0	1.131824E+0	1.213096E+0	1.189282E+0	1.212772E+0	1.138455E+0	1.164658E+0	1.189553E+0	1.201799E+0	1.184525E+0	1.311243E+0	1.162421E+0	1.180155E+0	1.212380E+0	1.249168E+0	1.196760E+0	1.286664E+0	1.225590E+0	1.181750E+0	1.241506E+0	1.220779E+0	1.144125E+0	1.242399E+0	1.171282E+0	1.197902E+0	1.222574E+0	1.176853E+0	1.269593E+0	1.257115E+0	1.174032E+0	1.167872E+0	1.100613E+0	1.170752E+0	1.220714E+0	1.161519E+0	1.189223E+0	1.200214E+0	1.163708E+0	1.261492E+0	1.240570E+0	1.173400E+0	1.159402E+0	1.217830E+0	1.187156E+0	1.224907E+0	1.182429E+0	1.162537E+0	1.209569E+0	1.161049E+0	1.200881E+0	1.239479E+0	1.242778E+0	1.192666E+0	1.158277E+0	1.275960E+0	1.196774E+0	1.203119E+0	1.252958E+0	1.198208E+0	1.194519E+0	1.194996E+0	1.178490E+0	1.188068E+0	1.157966E+0	1.168421E+0	1.150047E+0	1.193955E+0	1.136009E+0	1.181767E+0	1.180580E+0	1.193506E+0	1.218089E+0	1.140899E+0	1.231801E+0	1.201597E+0	1.165928E+0	1.259969E+0	1.219157E+0	1.302360E+0	1.206550E+0	1.194965E+0	1.146281E+0	1.223077E+0	1.152809E+0	1.161316E+0	1.175127E+0	1.200160E+0	1.267097E+0	1.229683E+0	1.209354E+0	1.247002E+0	1.194981E+0	1.268791E+0	1.149082E+0	1.183929E+0	1.165777E+0	1.191187E+0	1.211607E+0	1.232434E+0	1.222580E+0	1.192232E+0	1.131201E+0	1.165074E+0	1.168831E+0	1.220650E+0	1.204703E+0	1.242568E+0	1.219359E+0	1.198714E+0	1.219183E+0	1.213404E+0	1.237926E+0	1.190480E+0	1.251888E+0	1.201107E+0	1.186539E+0	1.187499E+0	1.297252E+0	1.207649E+0	1.140495E+0	1.161209E+0	1.186798E+0	1.166788E+0	1.242330E+0	1.152554E+0	1.229449E+0	1.212117E+0	1.238601E+0	1.225572E+0	1.200718E+0	1.225704E+0	1.157921E+0	1.210253E+0	1.136750E+0	1.192225E+0	1.216511E+0	1.279775E+0	1.178141E+0	1.161264E+0	1.282498E+0	1.234051E+0	1.197253E+0	1.231181E+0	1.192683E+0	1.175005E+0	1.257053E+0	1.185623E+0	1.391419E+0
2.888240E+2	1.120899E+0	1.070499E+0	1.076027E+0	1.010022E+0	1.077052E+0	1.107455E+0	1.045134E+0	1.116527E+0	1.039407E+0	1.079197E+0	1.044851E+0	1.058412E+0	1.101166E+0	1.023603E+0	1.073096E+0	1.050257E+0	1.087381E+0	1.031558E+0	1.072617E+0	1.081354E+0	1.142474E+0	1.068727E+0	1.098534E+0	1.004328E+0	1.018719E+0	1.052595E+0	1.093582E+0	1.058972E+0	1.067054E+0	1.086328E+0	1.065906E+0	1.085694E+0	1.121718E+0	1.002383E+0	1.028691E+0	1.063880E+0	1.049443E+0	1.027328E+0	1.071417E+0	1.085479E+0	1.069972E+0	1.114825E+0	1.121104E+0	1.013979E+0	1.094630E+0	1.080220E+0	1.067465E+0	1.021703E+0	1.108435E+0	1.074376E+0	1.116430E+0	1.001207E+0	1.067140E+0	1.125984E+0	1.107848E+0	1.113388E+0	1.174408E+0	1.038157E+0	1.002196E+0	1.071467E+0	1.058277E+0	1.109037E+0	1.138996E+0	1.019808E+0	1.069533E+0	1.040672E+0	1.071126E+0	1.057117E+0	1.129318E+0	1.051207E+0	1.031804E+0	1.041721E+0	1.008576E+0	1.097297E+0	1.091256E+0	1.027730E+0	1.044684E+0	1.025641E+0	1.115188E+0	1.074613E+0	1.096420E+0	1.098105E+0	1.000575E+0	1.106038E+0	1.034061E+0	1.096882E+0	1.040817E+0	1.077685E+0	1.080272E+0	1.036835E+0	1.049880E+0	1.028035E+0	1.063281E+0	1.040157E+0	1.038822E+0	1.080797E+0	1.132041E+0	1.105076E+0	1.119096E+0	1.056785E+0	1.052649E+0	1.121383E+0	1.026300E+0	1.037555E+0	1.068336E+0	1.066712E+0	1.054091E+0	1.083905E+0	1.094003E+0	1.119012E+0	1.059268E+0	1.061855E+0	1.149785E+0	1.102146E+0	1.120563E+0	1.128804E+0	1.034711E+0	1.039827E+0	1.085342E+0	1.078943E+0	1.088672E+0	1.081805E+0	1.126474E+0	1.156273E+0	1.122177E+0	1.115220E+0	1.051143E+0	1.049541E+0	1.117861E+0	1.137268E+0	1.108137E+0	1.095969E+0	1.038191E+0	1.122511E+0	1.104389E+0	1.062113E+0	1.224102E+0	1.107316E+0	1.113750E+0	1.063567E+0	1.156355E+0	1.052713E+0	9.924119E-1	1.059102E+0	1.013589E+0	1.005118E+0	1.031097E+0	1.069521E+0	1.088469E+0	1.090848E+0	1.024053E+0	1.026025E+0	1.141222E+0	1.094664E+0	1.109034E+0	1.019543E+0	1.092147E+0	1.137205E+0	1.057132E+0	1.071169E+0	1.122420E+0	1.122448E+0	1.078293E+0	1.134650E+0	1.072440E+0	1.139595E+0	1.132835E+0	1.083763E+0	1.149547E+0	1.098399E+0
2.890060E+2	8.852850E-1	8.228954E-1	8.674654E-1	8.820276E-1	9.129759E-1	8.106432E-1	9.151873E-1	8.328234E-1	8.755274E-1	8.892714E-1	8.519015E-1	9.236578E-1	8.986318E-1	8.511744E-1	9.495735E-1	8.514735E-1	8.864706E-1	9.121864E-1	8.708680E-1	8.861220E-1	9.247667E-1	8.621610E-1	8.720189E-1	9.060051E-1	8.806458E-1	8.796622E-1	9.148106E-1	8.885559E-1	8.901236E-1	9.209011E-1	8.809623E-1	8.268283E-1	9.392848E-1	8.824806E-1	8.808963E-1	8.961405E-1	8.637673E-1	9.023742E-1	8.701628E-1	8.922622E-1	8.283498E-1	8.897705E-1	8.647133E-1	8.835089E-1	8.969380E-1	9.099168E-1	8.856799E-1	9.097184E-1	8.204653E-1	8.885981E-1	8.583749E-1	8.643788E-1	8.731282E-1	8.723532E-1	8.572065E-1	8.703938E-1	8.925102E-1	8.093261E-1	8.959990E-1	8.472309E-1	8.776384E-1	8.555415E-1	8.579280E-1	9.104815E-1	8.591453E-1	7.961381E-1	8.445950E-1	8.851867E-1	8.900197E-1	8.613151E-1	8.923113E-1	9.080058E-1	8.444572E-1	8.397353E-1	8.448594E-1	8.124562E-1	9.013794E-1	9.239912E-1	8.904169E-1	8.756922E-1	9.068344E-1	8.730721E-1	8.271500E-1	8.843318E-1	9.331213E-1	8.796459E-1	8.644992E-1	8.681147E-1	9.394280E-1	8.309532E-1	8.825546E-1	8.803660E-1	8.955668E-1	9.406565E-1	8.611303E-1	8.484988E-1	8.056881E-1	9.097675E-1	8.621476E-1	8.894275E-1	8.548394E-1	8.953289E-1	8.681471E-1	8.318649E-1	8.997489E-1	8.440361E-1	8.708064E-1	8.651073E-1	8.840014E-1	8.893321E-1	8.764307E-1	8.817107E-1	8.484219E-1	8.620939E-1	9.083418E-1	8.259265E-1	9.186255E-1	9.746891E-1	8.536657E-1	8.927645E-1	8.999487E-1	8.337783E-1	8.099070E-1	9.135084E-1	8.645545E-1	9.120935E-1	8.842201E-1	8.631454E-1	8.765500E-1	8.389522E-1	8.776283E-1	9.315795E-1	8.810561E-1	8.631408E-1	8.330170E-1	8.695402E-1	8.693714E-1	8.693452E-1	9.197634E-1	8.585483E-1	8.722815E-1	8.866301E-1	8.567294E-1	8.571200E-1	9.514339E-1	8.332428E-1	8.717634E-1	8.818973E-1	8.778472E-1	9.154257E-1	8.558074E-1	8.662103E-1	8.898055E-1	7.898874E-1	8.971188E-1	8.642742E-1	8.897605E-1	9.159406E-1	9.636274E-1	8.611164E-1	9.330012E-1	8.960151E-1	8.959999E-1	8.717818E-1	9.769560E-1	8.838660E-1	8.360078E-1	8.860211E-1	9.183608E-1	9.529364E-1
2.892070E+2	7.989996E-1	7.743529E-1	8.280610E-1	7.425691E-1	7.543774E-1	8.237812E-1	7.822572E-1	7.628825E-1	7.534860E-1	8.013132E-1	8.037070E-1	8.962999E-1	8.370863E-1	7.744215E-1	8.464693E-1	8.308384E-1	8.436559E-1	8.298969E-1	8.109693E-1	8.219501E-1	7.907836E-1	7.946086E-1	8.029482E-1	7.684444E-1	8.377322E-1	7.759462E-1	8.010318E-1	7.656423E-1	8.126229E-1	8.434795E-1	8.319623E-1	8.158914E-1	8.270880E-1	8.524239E-1	7.896603E-1	8.119899E-1	7.599738E-1	8.590468E-1	8.169024E-1	8.054356E-1	7.535183E-1	8.836356E-1	7.755752E-1	8.286419E-1	8.252031E-1	7.965039E-1	7.604449E-1	8.633911E-1	8.197854E-1	8.617498E-1	8.077114E-1	7.888826E-1	8.158064E-1	8.351240E-1	8.124833E-1	8.259208E-1	8.221737E-1	8.041219E-1	8.331021E-1	8.576544E-1	7.718522E-1	8.256525E-1	8.401113E-1	7.713545E-1	8.078353E-1	8.089579E-1	7.770601E-1	8.660609E-1	8.648626E-1	8.407412E-1	8.074102E-1	8.610557E-1	7.592466E-1	7.596429E-1	7.907360E-1	7.233949E-1	8.308752E-1	7.458208E-1	7.957842E-1	8.044253E-1	8.041850E-1	8.280602E-1	8.003074E-1	7.978240E-1	7.660157E-1	8.396641E-1	8.878464E-1	8.166341E-1	8.249909E-1	7.780623E-1	7.737155E-1	7.295454E-1	7.973981E-1	8.194840E-1	7.188376E-1	8.329399E-1	7.974509E-1	8.008152E-1	7.794048E-1	8.459922E-1	7.793848E-1	8.021135E-1	7.508229E-1	8.444748E-1	8.365856E-1	8.199767E-1	8.337216E-1	7.988866E-1	8.492345E-1	8.276017E-1	8.090494E-1	7.654591E-1	7.673296E-1	8.205620E-1	8.089003E-1	7.628004E-1	8.064942E-1	7.901867E-1	7.968426E-1	8.179315E-1	8.211523E-1	7.682822E-1	7.974950E-1	7.922003E-1	7.743325E-1	8.277374E-1	8.457148E-1	7.795877E-1	7.781440E-1	7.699094E-1	7.974244E-1	7.313689E-1	8.169119E-1	9.006123E-1	8.147765E-1	8.137266E-1	7.724719E-1	7.874063E-1	8.092881E-1	8.135327E-1	8.523961E-1	8.341913E-1	8.041498E-1	8.362291E-1	7.855502E-1	7.805377E-1	8.318753E-1	7.425273E-1	8.831440E-1	8.204153E-1	8.118842E-1	8.336719E-1	8.726371E-1	7.974276E-1	8.135646E-1	8.019308E-1	8.394878E-1	8.032750E-1	7.682111E-1	7.950232E-1	7.770492E-1	7.650833E-1	7.609087E-1	8.016614E-1	8.427744E-1	8.708889E-1	8.339932E-1	8.443590E-1	8.064344E-1	9.308073E-1
2.894050E+2	8.255803E-1	8.606137E-1	9.384267E-1	9.377713E-1	8.352582E-1	9.208783E-1	9.149947E-1	8.738464E-1	8.427192E-1	8.927780E-1	8.880086E-1	8.824675E-1	8.402704E-1	9.191735E-1	8.722351E-1	8.846192E-1	8.573009E-1	8.504814E-1	8.487224E-1	8.609613E-1	8.817621E-1	8.216661E-1	9.221887E-1	9.047430E-1	8.452909E-1	8.782983E-1	9.146269E-1	8.785702E-1	8.774655E-1	9.621412E-1	8.985884E-1	8.742683E-1	8.558228E-1	8.861319E-1	8.712806E-1	8.892373E-1	8.414295E-1	8.702598E-1	8.884458E-1	8.750728E-1	8.389590E-1	8.806991E-1	8.712934E-1	8.394953E-1	9.010166E-1	8.980548E-1	8.602533E-1	8.762683E-1	8.622021E-1	8.510297E-1	9.046992E-1	8.617076E-1	8.454435E-1	8.587647E-1	8.911129E-1	9.435037E-1	8.171071E-1	8.971015E-1	8.608367E-1	9.201868E-1	9.617158E-1	8.729075E-1	8.759214E-1	8.644407E-1	8.509925E-1	8.788856E-1	8.531224E-1	8.600022E-1	8.992531E-1	9.844654E-1	8.273350E-1	8.998250E-1	8.585016E-1	8.366337E-1	8.112826E-1	8.178462E-1	9.358510E-1	9.031695E-1	8.861526E-1	8.459732E-1	9.065755E-1	9.448834E-1	8.817894E-1	8.774414E-1	8.815913E-1	8.018772E-1	8.970128E-1	9.164456E-1	8.725793E-1	9.331217E-1	8.743133E-1	8.964464E-1	9.512133E-1	9.253917E-1	8.601967E-1	8.470600E-1	9.303889E-1	8.226717E-1	8.958965E-1	8.573080E-1	9.282150E-1	8.798155E-1	8.100238E-1	8.849072E-1	8.731361E-1	9.038711E-1	9.117674E-1	8.563628E-1	8.733577E-1	9.376987E-1	8.944240E-1	8.281587E-1	8.713667E-1	9.141785E-1	8.927038E-1	7.883180E-1	9.611506E-1	8.693452E-1	9.144071E-1	8.396841E-1	9.318330E-1	8.466030E-1	8.925386E-1	8.534438E-1	8.327799E-1	8.863946E-1	8.544332E-1	8.668653E-1	8.901359E-1	9.027103E-1	8.670559E-1	8.240085E-1	8.620661E-1	8.995072E-1	9.050334E-1	8.448580E-1	9.406259E-1	8.363513E-1	8.695052E-1	9.054073E-1	8.639138E-1	8.895817E-1	8.410349E-1	8.213124E-1	8.745570E-1	8.231379E-1	8.441518E-1	9.002827E-1	8.975495E-1	8.977165E-1	9.367026E-1	8.826865E-1	8.879558E-1	8.634663E-1	8.925429E-1	8.345493E-1	9.442887E-1	8.754228E-1	8.637838E-1	8.545593E-1	8.993543E-1	8.418056E-1	8.489187E-1	9.231524E-1	9.023885E-1	8.878887E-1	8.812054E-1	8.880903E-1	8.224915E-1	8.021106E-1
2.896080E+2	9.272852E-1	9.413215E-1	9.705863E-1	9.621068E-1	9.275505E-1	9.903373E-1	1.033161E+0	9.389912E-1	9.299443E-1	9.026396E-1	9.398163E-1	1.027656E+0	9.545876E-1	9.270827E-1	9.632632E-1	9.293088E-1	9.498832E-1	9.457338E-1	9.233296E-1	9.709644E-1	9.819382E-1	9.156569E-1	9.848783E-1	9.296638E-1	9.552773E-1	9.198454E-1	8.578434E-1	1.024588E+0	9.905516E-1	9.477174E-1	9.437728E-1	9.621860E-1	9.610973E-1	9.534616E-1	9.132940E-1	9.072863E-1	9.686431E-1	9.260098E-1	9.234258E-1	1.053119E+0	9.547981E-1	1.027341E+0	9.942461E-1	8.668764E-1	9.717675E-1	9.494490E-1	9.617485E-1	9.470672E-1	9.681979E-1	9.889619E-1	9.575131E-1	9.288862E-1	9.502990E-1	9.800158E-1	9.297938E-1	9.000975E-1	9.327627E-1	9.715032E-1	9.738700E-1	9.425865E-1	9.599303E-1	9.759564E-1	8.737767E-1	9.595464E-1	9.544737E-1	9.326339E-1	9.748589E-1	9.985756E-1	9.587587E-1	9.425131E-1	9.555308E-1	9.906487E-1	9.431133E-1	9.599858E-1	9.677833E-1	8.968102E-1	9.961283E-1	9.580995E-1	9.791303E-1	9.070885E-1	9.800395E-1	9.467605E-1	9.020758E-1	1.032648E+0	9.005067E-1	8.865796E-1	9.881100E-1	9.339000E-1	9.993543E-1	9.915100E-1	9.378330E-1	9.201038E-1	9.149957E-1	9.758281E-1	8.774984E-1	9.595684E-1	9.487092E-1	9.304167E-1	9.587340E-1	9.758834E-1	9.936772E-1	9.956031E-1	1.003185E+0	9.053709E-1	9.610779E-1	9.794226E-1	9.823334E-1	9.136341E-1	9.559733E-1	9.363604E-1	9.501734E-1	9.194070E-1	9.698431E-1	1.013618E+0	9.947858E-1	9.520146E-1	9.726695E-1	9.548053E-1	9.570233E-1	9.257038E-1	9.574341E-1	9.100519E-1	9.343247E-1	9.366254E-1	9.169785E-1	9.717421E-1	9.819574E-1	9.239428E-1	1.029157E+0	9.527357E-1	9.147623E-1	9.667560E-1	1.002012E+0	9.052684E-1	9.128545E-1	9.679362E-1	9.616670E-1	8.917724E-1	9.573996E-1	9.231273E-1	8.911180E-1	9.772236E-1	9.664258E-1	9.307646E-1	9.299772E-1	9.657196E-1	9.471031E-1	9.170306E-1	9.703728E-1	8.961787E-1	9.656474E-1	9.759523E-1	9.763905E-1	9.296360E-1	9.311609E-1	8.527826E-1	1.007252E+0	9.665363E-1	9.529876E-1	9.881222E-1	8.587199E-1	9.982587E-1	9.549704E-1	9.315461E-1	9.273031E-1	9.247441E-1	9.594478E-1	9.695681E-1	9.277218E-1	8.660608E-1
2.898030E+2	8.139634E-1	8.362326E-1	7.889652E-1	8.168088E-1	8.062169E-1	7.493444E-1	7.892208E-1	7.859138E-1	7.990999E-1	8.043218E-1	7.778147E-1	8.037697E-1	8.294039E-1	8.063256E-1	8.459221E-1	7.864064E-1	7.964465E-1	8.106366E-1	8.160943E-1	8.097671E-1	7.994239E-1	8.259669E-1	8.245704E-1	7.715912E-1	7.708107E-1	8.252455E-1	7.844379E-1	7.770068E-1	8.761918E-1	8.000969E-1	7.679787E-1	7.589175E-1	8.577671E-1	8.044099E-1	8.035184E-1	7.409610E-1	8.269808E-1	8.172276E-1	8.591354E-1	7.948565E-1	7.071432E-1	8.033960E-1	8.029610E-1	7.551538E-1	8.268005E-1	7.941322E-1	7.977600E-1	7.939869E-1	7.944588E-1	8.008990E-1	7.712858E-1	8.190564E-1	8.199122E-1	7.699419E-1	8.395315E-1	7.793284E-1	7.649476E-1	7.973037E-1	7.985940E-1	8.427201E-1	7.748309E-1	8.410635E-1	7.906398E-1	8.282690E-1	8.046097E-1	7.834495E-1	7.776388E-1	7.412075E-1	7.324569E-1	8.578637E-1	8.468819E-1	8.084195E-1	8.371604E-1	8.228419E-1	8.319217E-1	7.702405E-1	8.518647E-1	8.009535E-1	7.964238E-1	8.130917E-1	8.029667E-1	8.551781E-1	8.003036E-1	8.270534E-1	8.756897E-1	8.300633E-1	8.102855E-1	8.490802E-1	7.659946E-1	8.426658E-1	7.928697E-1	7.640578E-1	7.941923E-1	8.143585E-1	7.396763E-1	8.026301E-1	8.020811E-1	7.804030E-1	7.853646E-1	8.192443E-1	8.994946E-1	8.545777E-1	7.997696E-1	8.032014E-1	7.912788E-1	8.146699E-1	8.507231E-1	7.722162E-1	7.591674E-1	8.415924E-1	7.416882E-1	7.640114E-1	8.169707E-1	8.089707E-1	8.221587E-1	8.542686E-1	7.928683E-1	8.709873E-1	8.216206E-1	8.158827E-1	7.407182E-1	8.160325E-1	8.178225E-1	8.257444E-1	7.877676E-1	7.853479E-1	8.432484E-1	8.584766E-1	7.904722E-1	7.911937E-1	7.849249E-1	8.189340E-1	8.061229E-1	8.386967E-1	8.109268E-1	7.625705E-1	8.203135E-1	8.364182E-1	8.389182E-1	8.322668E-1	8.308290E-1	7.648609E-1	8.152835E-1	7.447739E-1	8.442724E-1	8.170229E-1	7.855514E-1	8.354213E-1	8.095444E-1	8.266791E-1	7.905646E-1	8.684399E-1	8.323585E-1	8.386493E-1	8.285731E-1	8.448256E-1	7.895003E-1	8.138099E-1	7.977642E-1	8.149664E-1	8.167727E-1	8.191607E-1	7.588671E-1	7.381402E-1	8.219486E-1	8.263463E-1	7.903209E-1	8.105552E-1	8.133464E-1	8.570829E-1
2.900030E+2	7.042446E-1	7.113308E-1	6.694112E-1	7.031491E-1	6.621806E-1	7.218626E-1	7.163567E-1	6.476896E-1	7.239493E-1	6.833661E-1	6.812759E-1	7.832173E-1	7.457617E-1	7.259250E-1	7.262390E-1	6.965601E-1	7.470975E-1	6.577788E-1	6.508970E-1	6.765976E-1	7.260961E-1	7.563371E-1	7.298191E-1	7.614168E-1	7.263309E-1	6.494657E-1	6.733991E-1	7.323687E-1	6.901589E-1	6.882160E-1	7.367404E-1	6.869531E-1	6.456073E-1	7.359775E-1	6.836023E-1	6.724398E-1	6.882535E-1	6.964389E-1	7.460508E-1	7.213193E-1	6.250094E-1	6.992080E-1	6.948168E-1	6.745061E-1	7.114140E-1	7.312737E-1	6.726460E-1	7.585020E-1	7.190181E-1	7.311396E-1	7.003284E-1	6.698661E-1	6.983099E-1	6.958623E-1	7.208722E-1	7.411330E-1	6.659832E-1	7.088425E-1	7.659309E-1	7.397950E-1	7.022100E-1	6.945404E-1	7.134290E-1	6.882213E-1	6.721425E-1	6.905194E-1	6.566834E-1	7.093885E-1	7.306370E-1	7.135210E-1	7.625774E-1	6.206068E-1	6.254992E-1	7.044175E-1	7.621851E-1	6.869106E-1	7.133224E-1	6.938254E-1	7.454506E-1	7.498841E-1	7.364449E-1	7.289791E-1	7.165566E-1	7.626970E-1	7.367711E-1	7.471418E-1	7.775319E-1	7.600921E-1	6.915160E-1	7.327797E-1	7.310335E-1	6.809198E-1	7.529704E-1	7.225434E-1	6.957453E-1	7.638939E-1	7.555369E-1	7.801777E-1	6.779288E-1	6.952407E-1	7.367358E-1	7.447777E-1	6.669087E-1	6.352667E-1	6.906695E-1	7.195136E-1	7.307448E-1	6.917608E-1	6.930677E-1	6.868090E-1	7.232053E-1	7.425931E-1	6.984043E-1	7.435649E-1	7.347122E-1	7.227430E-1	7.407394E-1	7.448445E-1	7.490034E-1	7.294182E-1	7.030842E-1	7.102279E-1	6.924084E-1	7.458845E-1	7.067238E-1	7.168950E-1	7.228336E-1	6.960930E-1	6.773165E-1	7.319197E-1	7.245741E-1	7.128286E-1	6.795039E-1	7.294477E-1	7.609552E-1	7.593088E-1	7.300451E-1	7.682840E-1	6.550129E-1	7.570428E-1	7.134763E-1	7.053655E-1	7.003090E-1	7.071412E-1	6.883535E-1	6.998123E-1	7.530742E-1	7.239608E-1	7.409251E-1	7.238623E-1	7.379168E-1	7.200495E-1	7.862000E-1	7.150949E-1	6.848767E-1	7.312072E-1	7.081150E-1	7.224963E-1	7.549911E-1	7.061325E-1	7.901095E-1	6.908765E-1	7.217127E-1	7.619288E-1	7.154194E-1	7.404834E-1	7.192190E-1	6.937696E-1	7.000761E-1	6.193393E-1
2.905030E+2	6.171153E-1	6.552953E-1	5.938079E-1	6.123359E-1	6.388068E-1	6.568735E-1	6.416013E-1	6.377130E-1	5.805545E-1	6.477536E-1	6.216909E-1	6.898769E-1	6.192374E-1	6.401915E-1	6.458116E-1	6.351075E-1	6.694556E-1	6.083452E-1	6.268103E-1	6.314233E-1	6.348697E-1	7.047064E-1	6.601731E-1	6.281149E-1	6.004026E-1	6.189743E-1	6.261645E-1	5.651280E-1	6.800886E-1	6.056931E-1	6.358410E-1	6.020930E-1	6.697289E-1	5.979213E-1	6.869568E-1	6.331832E-1	6.332725E-1	6.337105E-1	6.380052E-1	6.235935E-1	6.685673E-1	6.159550E-1	6.190511E-1	6.214969E-1	6.250698E-1	6.500894E-1	6.249686E-1	6.744032E-1	6.551447E-1	6.169130E-1	6.648765E-1	6.414816E-1	6.099200E-1	5.895700E-1	6.489963E-1	6.403432E-1	6.167052E-1	6.624764E-1	5.992741E-1	6.644936E-1	5.847080E-1	5.870014E-1	5.919450E-1	6.176521E-1	6.354572E-1	6.569650E-1	6.214475E-1	6.186837E-1	6.331028E-1	6.308254E-1	6.320722E-1	5.820114E-1	6.085501E-1	6.256057E-1	6.553989E-1	5.875904E-1	6.424808E-1	6.238049E-1	6.022054E-1	5.979945E-1	5.580610E-1	5.645685E-1	6.220995E-1	6.326090E-1	6.245184E-1	6.114631E-1	6.334224E-1	6.163724E-1	6.405636E-1	6.269678E-1	6.156351E-1	6.507640E-1	6.271376E-1	6.996654E-1	5.877153E-1	6.407136E-1	5.933448E-1	6.583984E-1	6.591427E-1	6.236862E-1	6.480617E-1	6.265050E-1	5.783154E-1	6.729087E-1	6.606905E-1	6.046197E-1	5.619145E-1	5.973188E-1	6.150198E-1	6.485863E-1	6.515751E-1	6.042075E-1	6.453225E-1	6.129784E-1	6.192952E-1	6.362773E-1	6.574029E-1	6.141730E-1	6.643345E-1	6.202161E-1	6.274800E-1	6.262305E-1	6.229252E-1	6.700793E-1	6.800746E-1	5.913097E-1	6.374092E-1	5.942835E-1	6.505773E-1	5.999397E-1	6.067429E-1	6.648647E-1	6.236317E-1	6.762043E-1	5.858406E-1	6.105087E-1	6.497290E-1	6.411800E-1	5.858350E-1	6.260318E-1	6.255155E-1	6.483719E-1	5.937320E-1	6.257561E-1	6.688538E-1	6.347043E-1	6.964825E-1	6.463712E-1	5.915114E-1	5.857628E-1	6.734657E-1	5.966933E-1	5.926502E-1	6.609574E-1	6.475318E-1	6.183439E-1	5.970465E-1	7.063070E-1	6.175170E-1	6.645990E-1	6.231072E-1	6.936769E-1	6.574092E-1	6.388483E-1	6.411076E-1	6.056873E-1	6.917350E-1	5.768868E-1	6.545754E-1	5.841461E-1
2.910060E+2	8.824908E-1	8.663889E-1	8.575293E-1	9.220215E-1	8.744693E-1	9.062103E-1	9.302135E-1	8.642764E-1	9.229953E-1	9.358752E-1	8.213527E-1	8.654491E-1	8.579755E-1	9.061937E-1	9.048524E-1	9.109369E-1	8.793116E-1	8.586628E-1	9.444131E-1	9.023462E-1	8.480328E-1	9.062664E-1	9.019942E-1	9.121223E-1	9.116124E-1	8.831035E-1	9.496175E-1	8.634963E-1	8.726379E-1	9.023488E-1	9.206432E-1	8.877519E-1	9.588591E-1	9.509305E-1	9.126298E-1	8.587362E-1	8.883589E-1	8.975126E-1	9.137258E-1	9.410580E-1	8.918741E-1	9.181313E-1	9.226630E-1	9.274806E-1	8.833665E-1	8.630842E-1	9.158398E-1	8.894895E-1	8.947591E-1	8.891297E-1	8.059568E-1	8.513071E-1	8.988212E-1	8.925351E-1	9.024505E-1	9.428205E-1	8.933336E-1	8.900937E-1	9.138971E-1	8.293172E-1	9.241450E-1	8.934416E-1	9.100187E-1	9.145344E-1	8.653259E-1	9.078050E-1	8.751577E-1	8.945709E-1	8.524608E-1	9.077862E-1	8.856325E-1	8.989583E-1	8.323181E-1	9.297100E-1	8.706615E-1	8.946594E-1	9.416507E-1	8.587380E-1	9.380299E-1	8.810754E-1	9.060072E-1	8.930119E-1	8.610889E-1	8.818686E-1	8.546586E-1	8.645829E-1	9.101134E-1	8.655665E-1	8.913085E-1	8.906521E-1	8.894776E-1	8.603483E-1	8.875573E-1	8.906443E-1	9.343687E-1	8.378487E-1	8.921284E-1	8.981396E-1	8.694768E-1	8.846150E-1	9.719337E-1	8.932496E-1	8.204996E-1	8.805959E-1	8.996548E-1	9.431683E-1	8.797678E-1	8.581276E-1	9.118489E-1	9.160756E-1	8.992244E-1	8.839951E-1	9.233442E-1	9.150819E-1	8.727917E-1	9.236575E-1	8.469054E-1	8.885549E-1	8.245440E-1	8.958998E-1	8.973726E-1	9.301172E-1	9.549565E-1	9.494159E-1	9.093244E-1	8.715026E-1	8.792422E-1	8.720075E-1	9.110019E-1	8.737230E-1	8.439770E-1	9.076123E-1	8.745964E-1	1.006593E+0	9.094934E-1	8.695346E-1	9.205015E-1	8.708169E-1	8.529900E-1	9.061578E-1	8.962633E-1	9.167820E-1	9.141249E-1	8.548193E-1	9.174526E-1	9.396372E-1	8.637824E-1	9.242987E-1	8.948605E-1	9.071504E-1	9.672743E-1	8.819240E-1	8.627615E-1	9.104245E-1	9.298176E-1	8.750168E-1	9.202003E-1	9.376677E-1	9.256900E-1	9.338631E-1	8.786508E-1	9.481176E-1	8.843572E-1	9.083636E-1	8.625074E-1	9.005357E-1	9.239380E-1	8.240568E-1	9.189563E-1	8.900783E-1
2.915140E+2	1.209241E+0	1.255750E+0	1.153861E+0	1.130185E+0	1.181951E+0	1.222307E+0	1.216957E+0	1.098978E+0	1.107064E+0	1.188558E+0	1.139268E+0	1.144330E+0	1.200626E+0	1.182943E+0	1.186664E+0	1.137249E+0	1.216124E+0	1.137822E+0	1.144978E+0	1.140949E+0	1.266574E+0	1.187836E+0	1.231592E+0	1.188594E+0	1.173513E+0	1.078827E+0	1.228949E+0	1.113155E+0	1.205541E+0	1.241241E+0	1.201922E+0	1.193097E+0	1.158385E+0	1.229808E+0	1.163952E+0	1.134842E+0	1.136284E+0	1.130302E+0	1.177177E+0	1.201537E+0	1.135917E+0	1.238054E+0	1.170660E+0	1.158577E+0	1.257195E+0	1.138512E+0	1.210573E+0	1.149128E+0	1.146256E+0	1.256185E+0	1.235232E+0	1.099743E+0	1.125317E+0	1.237575E+0	1.213789E+0	1.150543E+0	1.156851E+0	1.135958E+0	1.100268E+0	1.241150E+0	1.157146E+0	1.187306E+0	1.213483E+0	1.136966E+0	1.167749E+0	1.211704E+0	1.150450E+0	1.181574E+0	1.168236E+0	1.210484E+0	1.175999E+0	1.203939E+0	1.146440E+0	1.142807E+0	1.264915E+0	1.098854E+0	1.214036E+0	1.148362E+0	1.178918E+0	1.194765E+0	1.177920E+0	1.130277E+0	1.151516E+0	1.199477E+0	1.148435E+0	1.182055E+0	1.193403E+0	1.259554E+0	1.105917E+0	1.239090E+0	1.146795E+0	1.131094E+0	1.211412E+0	1.159442E+0	1.168373E+0	1.174873E+0	1.208742E+0	1.279467E+0	1.183411E+0	1.192191E+0	1.224425E+0	1.227314E+0	1.146931E+0	1.129997E+0	1.185478E+0	1.186585E+0	1.150254E+0	1.184253E+0	1.153210E+0	1.246248E+0	1.225327E+0	1.154208E+0	1.195925E+0	1.227242E+0	1.236493E+0	1.213077E+0	1.203751E+0	1.270991E+0	1.191608E+0	1.184082E+0	1.168036E+0	1.207472E+0	1.240938E+0	1.101833E+0	1.158231E+0	1.158418E+0	1.218612E+0	1.204126E+0	1.214094E+0	1.207377E+0	1.170331E+0	1.143041E+0	1.153702E+0	1.115693E+0	1.107779E+0	1.160302E+0	1.225473E+0	1.144970E+0	1.106280E+0	1.238225E+0	1.130368E+0	1.219414E+0	1.158305E+0	1.177667E+0	1.127641E+0	1.284990E+0	1.096970E+0	1.162748E+0	1.212019E+0	1.224549E+0	1.240898E+0	1.217859E+0	1.211776E+0	1.184682E+0	1.227381E+0	1.207905E+0	1.202407E+0	1.152163E+0	1.129293E+0	1.214160E+0	1.180314E+0	1.184172E+0	1.136392E+0	1.229083E+0	1.186263E+0	1.242878E+0	1.182630E+0	1.216485E+0	1.235323E+0	1.110433E+0
2.920030E+2	1.162114E+0	1.253533E+0	1.215639E+0	1.179410E+0	1.178381E+0	1.248376E+0	1.298251E+0	1.189181E+0	1.257748E+0	1.282073E+0	1.265806E+0	1.254153E+0	1.163134E+0	1.185457E+0	1.166198E+0	1.165920E+0	1.226991E+0	1.148710E+0	1.202483E+0	1.194175E+0	1.231616E+0	1.220257E+0	1.248881E+0	1.228439E+0	1.132815E+0	1.211148E+0	1.246889E+0	1.139553E+0	1.186481E+0	1.209876E+0	1.190843E+0	1.199540E+0	1.100049E+0	1.169521E+0	1.178318E+0	1.196387E+0	1.170095E+0	1.229222E+0	1.254841E+0	1.203841E+0	1.212509E+0	1.180330E+0	1.135364E+0	1.180947E+0	1.290178E+0	1.217029E+0	1.188612E+0	1.246620E+0	1.171974E+0	1.226906E+0	1.242175E+0	1.178587E+0	1.250863E+0	1.292359E+0	1.140973E+0	1.209264E+0	1.174795E+0	1.252103E+0	1.218046E+0	1.254881E+0	1.254255E+0	1.174209E+0	1.192328E+0	1.292417E+0	1.192674E+0	1.183909E+0	1.121045E+0	1.162837E+0	1.186314E+0	1.219827E+0	1.204411E+0	1.233822E+0	1.234256E+0	1.132389E+0	1.210550E+0	1.176460E+0	1.268939E+0	1.204981E+0	1.213137E+0	1.145290E+0	1.213077E+0	1.205611E+0	1.130751E+0	1.219462E+0	1.149709E+0	1.186010E+0	1.193645E+0	1.222677E+0	1.228501E+0	1.188971E+0	1.168870E+0	1.153517E+0	1.193802E+0	1.288003E+0	1.222933E+0	1.265445E+0	1.224321E+0	1.250347E+0	1.326159E+0	1.224945E+0	1.196013E+0	1.193951E+0	1.221473E+0	1.175121E+0	1.276722E+0	1.214345E+0	1.207962E+0	1.225129E+0	1.220279E+0	1.255009E+0	1.203553E+0	1.101022E+0	1.202231E+0	1.185794E+0	1.131972E+0	1.147064E+0	1.169358E+0	1.263761E+0	1.149466E+0	1.266096E+0	1.152961E+0	1.258805E+0	1.242282E+0	1.193555E+0	1.217044E+0	1.231389E+0	1.123079E+0	1.142927E+0	1.191157E+0	1.238293E+0	1.145406E+0	1.146341E+0	1.130269E+0	1.246322E+0	1.284830E+0	1.182349E+0	1.240566E+0	1.274100E+0	1.203777E+0	1.183606E+0	1.195363E+0	1.211372E+0	1.240203E+0	1.108767E+0	1.211061E+0	1.253543E+0	1.165009E+0	1.236104E+0	1.246849E+0	1.185788E+0	1.146193E+0	1.156566E+0	1.214580E+0	1.343281E+0	1.268961E+0	1.146505E+0	1.236325E+0	1.232636E+0	1.247877E+0	1.192012E+0	1.233709E+0	1.196332E+0	1.272184E+0	1.383508E+0	1.151717E+0	1.228972E+0	1.145011E+0	1.140796E+0	1.343416E+0	1.285527E+0
2.925020E+2	1.145331E+0	1.152789E+0	1.164496E+0	1.216659E+0	1.114630E+0	1.114919E+0	1.165033E+0	1.091636E+0	1.094492E+0	1.194178E+0	1.099845E+0	1.151158E+0	1.124593E+0	1.126473E+0	1.132828E+0	1.067695E+0	1.151840E+0	1.137990E+0	1.093233E+0	1.170502E+0	1.143846E+0	1.087468E+0	1.206881E+0	1.107983E+0	1.090330E+0	1.092988E+0	1.115038E+0	1.070636E+0	1.181467E+0	1.165116E+0	1.106019E+0	1.092293E+0	1.146208E+0	1.096285E+0	1.137957E+0	1.109829E+0	1.164040E+0	1.086518E+0	1.162097E+0	1.119680E+0	1.102202E+0	1.141162E+0	1.184271E+0	1.131324E+0	1.178379E+0	1.216729E+0	1.112740E+0	1.159554E+0	1.149188E+0	1.119724E+0	1.168252E+0	1.083110E+0	1.111658E+0	1.120383E+0	1.126015E+0	1.169815E+0	1.106056E+0	1.133963E+0	1.116720E+0	1.149413E+0	1.178431E+0	1.137807E+0	1.097133E+0	1.068978E+0	1.122398E+0	1.178614E+0	1.135157E+0	1.179231E+0	1.133984E+0	1.163692E+0	1.141847E+0	1.111349E+0	1.092418E+0	1.128510E+0	1.198501E+0	1.080696E+0	1.225636E+0	1.114394E+0	1.162539E+0	1.175553E+0	1.114005E+0	1.164756E+0	1.084141E+0	1.152608E+0	1.107068E+0	1.149791E+0	1.106341E+0	1.145102E+0	1.111647E+0	1.214349E+0	1.176678E+0	1.081664E+0	1.146070E+0	1.212755E+0	1.068935E+0	1.139745E+0	1.139736E+0	1.124144E+0	1.203586E+0	1.164099E+0	1.180342E+0	1.178077E+0	1.110802E+0	1.162343E+0	1.112060E+0	1.233640E+0	1.102356E+0	1.098529E+0	1.173577E+0	1.181597E+0	1.129486E+0	1.136349E+0	1.141318E+0	1.148793E+0	1.115444E+0	1.158355E+0	1.137860E+0	1.203880E+0	1.160810E+0	1.160848E+0	1.121121E+0	1.087326E+0	1.145125E+0	1.166855E+0	1.224588E+0	1.175335E+0	1.125517E+0	1.154389E+0	1.119045E+0	1.088894E+0	1.133855E+0	1.125951E+0	1.099687E+0	1.161536E+0	1.159942E+0	1.166498E+0	1.162239E+0	1.154081E+0	1.199823E+0	1.135002E+0	1.238691E+0	1.149478E+0	1.052504E+0	1.166529E+0	1.129455E+0	1.078506E+0	1.110572E+0	1.141583E+0	1.139732E+0	1.106302E+0	1.121456E+0	1.110319E+0	1.129215E+0	1.071214E+0	1.226749E+0	1.131201E+0	1.086414E+0	1.130578E+0	1.147319E+0	1.107417E+0	1.175843E+0	1.181726E+0	1.106538E+0	1.134544E+0	1.107218E+0	1.189833E+0	1.161029E+0	1.172690E+0	1.110132E+0	1.108190E+0
2.930050E+2	1.050442E+0	1.083768E+0	1.028648E+0	1.046603E+0	1.055983E+0	1.035911E+0	1.071959E+0	1.027350E+0	1.115885E+0	1.115809E+0	1.075659E+0	1.072504E+0	1.109278E+0	1.035183E+0	1.103198E+0	1.030611E+0	9.726320E-1	1.036235E+0	1.047083E+0	9.870375E-1	1.063417E+0	1.057166E+0	1.092570E+0	9.969638E-1	1.053518E+0	9.921388E-1	1.098654E+0	1.055020E+0	1.022436E+0	1.070995E+0	1.026028E+0	1.056328E+0	1.088047E+0	1.022978E+0	1.043889E+0	1.032074E+0	1.078776E+0	1.043037E+0	1.079456E+0	1.017478E+0	1.048493E+0	9.890664E-1	1.077837E+0	1.062990E+0	1.088203E+0	1.035694E+0	1.073450E+0	1.115614E+0	1.090926E+0	1.058733E+0	1.059628E+0	1.039726E+0	1.063144E+0	1.034810E+0	1.016208E+0	1.052310E+0	1.112814E+0	9.945597E-1	1.087613E+0	1.071455E+0	1.059333E+0	1.036650E+0	9.693800E-1	1.025844E+0	1.095452E+0	1.017324E+0	1.022492E+0	1.093520E+0	1.007559E+0	1.003544E+0	1.050742E+0	1.068778E+0	1.025115E+0	1.017864E+0	1.035461E+0	9.231646E-1	1.086986E+0	1.089426E+0	1.042620E+0	1.052100E+0	1.043296E+0	1.033886E+0	1.005503E+0	1.128362E+0	1.035328E+0	1.015750E+0	1.007766E+0	9.928194E-1	1.136736E+0	1.081763E+0	1.009210E+0	1.003153E+0	1.050409E+0	1.095462E+0	1.033411E+0	1.058886E+0	1.127779E+0	1.014961E+0	1.026513E+0	9.967970E-1	1.031422E+0	1.031896E+0	1.061277E+0	9.881218E-1	1.104595E+0	1.073439E+0	1.057507E+0	1.038728E+0	1.000032E+0	1.068239E+0	9.899573E-1	1.016945E+0	1.049315E+0	1.127914E+0	1.068818E+0	1.039245E+0	1.096303E+0	1.093936E+0	1.050148E+0	1.032371E+0	1.027580E+0	1.005296E+0	1.060970E+0	1.013370E+0	1.012164E+0	1.092064E+0	9.765291E-1	1.091282E+0	1.035001E+0	1.028562E+0	1.065721E+0	1.053811E+0	1.047657E+0	1.084214E+0	1.046951E+0	1.036628E+0	1.043573E+0	1.030893E+0	1.103089E+0	1.093809E+0	1.020953E+0	1.054395E+0	1.052405E+0	1.038954E+0	9.863462E-1	1.014300E+0	1.089159E+0	1.033882E+0	1.087661E+0	1.021294E+0	1.046394E+0	1.148635E+0	1.101204E+0	1.162206E+0	1.077132E+0	1.029712E+0	1.038299E+0	1.114244E+0	1.110114E+0	1.053600E+0	1.037227E+0	1.035273E+0	1.058691E+0	1.035194E+0	1.021710E+0	1.083208E+0	1.032517E+0	1.063682E+0	9.576736E-1	1.047577E+0
2.935070E+2	9.317284E-1	9.894071E-1	8.940551E-1	9.577752E-1	9.680765E-1	9.275186E-1	9.599586E-1	1.008677E+0	9.602765E-1	1.011865E+0	9.418372E-1	9.082350E-1	9.334229E-1	9.624219E-1	9.774131E-1	9.775970E-1	9.749213E-1	9.232669E-1	9.347238E-1	9.329225E-1	1.068783E+0	9.907390E-1	1.007927E+0	1.021110E+0	8.968301E-1	9.252472E-1	1.018275E+0	1.005977E+0	9.724221E-1	9.869863E-1	9.634721E-1	9.061604E-1	9.596087E-1	9.347107E-1	9.071597E-1	9.902011E-1	9.500927E-1	9.705165E-1	9.725686E-1	1.015213E+0	9.331526E-1	9.864013E-1	9.570758E-1	9.969149E-1	1.052141E+0	9.926623E-1	9.324439E-1	1.010023E+0	9.960144E-1	9.666259E-1	1.024916E+0	9.452452E-1	1.042605E+0	9.657569E-1	9.186891E-1	1.003280E+0	9.082880E-1	9.821447E-1	1.035672E+0	1.015602E+0	1.024676E+0	9.505281E-1	9.840618E-1	9.472605E-1	1.002745E+0	9.305820E-1	9.612152E-1	9.740367E-1	9.557416E-1	9.501680E-1	9.810812E-1	9.420705E-1	1.012691E+0	1.010440E+0	1.012546E+0	1.002581E+0	9.835349E-1	9.516420E-1	1.033844E+0	9.493962E-1	9.612547E-1	9.628502E-1	9.803336E-1	9.540703E-1	1.006018E+0	9.178746E-1	1.060463E+0	9.478207E-1	9.926561E-1	9.563371E-1	9.537512E-1	9.090075E-1	9.417827E-1	9.665710E-1	9.094621E-1	9.832567E-1	1.041854E+0	9.594862E-1	9.167334E-1	9.279436E-1	9.901624E-1	9.719536E-1	9.847259E-1	8.859130E-1	1.000843E+0	8.970142E-1	9.773782E-1	9.277984E-1	1.005360E+0	9.846028E-1	9.603047E-1	9.018941E-1	9.483916E-1	9.605666E-1	9.670992E-1	1.019101E+0	9.249097E-1	9.721802E-1	1.002294E+0	9.352379E-1	9.117523E-1	9.519263E-1	1.017387E+0	9.931761E-1	9.547889E-1	9.927051E-1	1.005638E+0	1.024633E+0	9.818284E-1	1.038122E+0	9.345641E-1	9.943992E-1	8.957758E-1	9.962829E-1	8.958511E-1	9.473851E-1	9.943488E-1	9.258403E-1	1.015379E+0	1.038094E+0	9.390119E-1	9.775314E-1	9.492616E-1	9.924161E-1	9.951645E-1	9.612440E-1	9.925098E-1	9.696525E-1	9.957126E-1	1.011432E+0	9.600900E-1	9.916310E-1	9.755664E-1	9.404096E-1	9.521143E-1	9.536543E-1	9.577951E-1	1.003117E+0	9.941644E-1	9.621786E-1	9.634308E-1	9.571843E-1	9.948024E-1	9.676192E-1	1.000334E+0	9.626862E-1	1.035878E+0	9.537954E-1	9.836582E-1	1.009816E+0
2.940070E+2	9.177029E-1	9.996327E-1	8.660578E-1	9.567983E-1	9.388837E-1	9.575619E-1	9.540366E-1	9.558157E-1	9.391407E-1	9.718273E-1	9.511411E-1	9.437532E-1	9.241339E-1	9.526242E-1	9.382531E-1	9.157582E-1	9.223953E-1	9.338769E-1	9.352709E-1	9.611237E-1	8.970813E-1	9.569420E-1	1.001792E+0	9.785251E-1	9.185262E-1	8.684704E-1	9.362210E-1	9.746594E-1	9.684565E-1	9.569413E-1	9.408367E-1	9.299333E-1	9.143098E-1	9.427062E-1	9.738578E-1	9.407540E-1	9.281091E-1	9.303484E-1	9.793028E-1	9.692422E-1	9.298219E-1	9.202954E-1	9.461590E-1	8.935090E-1	8.854506E-1	9.248674E-1	9.697273E-1	9.512215E-1	9.935287E-1	9.671116E-1	9.748548E-1	9.146020E-1	9.434651E-1	9.354809E-1	9.539694E-1	9.795416E-1	9.724982E-1	1.003550E+0	9.101382E-1	8.736931E-1	8.810243E-1	8.834218E-1	9.068323E-1	9.842456E-1	9.058803E-1	9.682909E-1	8.623556E-1	1.004247E+0	9.532816E-1	9.335814E-1	9.618912E-1	9.281057E-1	9.434952E-1	9.369557E-1	9.881357E-1	9.105105E-1	9.134438E-1	9.441209E-1	9.603460E-1	9.971868E-1	8.891720E-1	9.784452E-1	9.200606E-1	9.394685E-1	9.246297E-1	9.145246E-1	1.000006E+0	9.235345E-1	9.255431E-1	8.992948E-1	9.172830E-1	9.367732E-1	8.863718E-1	9.422485E-1	9.407365E-1	9.702244E-1	9.348857E-1	9.828248E-1	9.399783E-1	9.147237E-1	9.370954E-1	9.817262E-1	9.149689E-1	9.620890E-1	9.485828E-1	9.104273E-1	9.852626E-1	9.262207E-1	9.397768E-1	9.232564E-1	9.735285E-1	9.465501E-1	9.421005E-1	9.150627E-1	1.026056E+0	9.580325E-1	9.222517E-1	9.710090E-1	9.681387E-1	9.436792E-1	9.743872E-1	9.121431E-1	9.401815E-1	8.682710E-1	9.169837E-1	9.514161E-1	9.677281E-1	9.403305E-1	9.528743E-1	9.361769E-1	9.868293E-1	9.242847E-1	9.623480E-1	9.405625E-1	9.743126E-1	8.969794E-1	9.823574E-1	9.279030E-1	9.876633E-1	9.345265E-1	9.460634E-1	9.440255E-1	9.260313E-1	9.436285E-1	8.990103E-1	9.407011E-1	9.232406E-1	9.201751E-1	9.192359E-1	9.134240E-1	9.291385E-1	9.419674E-1	9.924946E-1	9.314496E-1	9.878360E-1	8.990417E-1	9.531579E-1	8.979780E-1	9.904969E-1	9.042316E-1	9.680352E-1	9.819509E-1	9.330782E-1	9.917441E-1	9.653069E-1	9.394824E-1	9.634038E-1	9.793049E-1	1.045439E+0	1.005401E+0
2.945040E+2	1.036149E+0	9.388049E-1	1.005233E+0	1.016647E+0	1.085230E+0	9.915018E-1	1.070294E+0	1.041975E+0	1.011012E+0	1.055449E+0	1.047923E+0	1.041932E+0	1.044946E+0	1.010462E+0	1.030878E+0	1.058811E+0	1.005602E+0	1.055684E+0	1.023521E+0	9.980363E-1	1.025633E+0	1.041204E+0	1.092336E+0	1.000804E+0	9.923152E-1	1.050521E+0	1.049130E+0	1.045505E+0	1.083348E+0	1.061649E+0	1.037875E+0	1.017314E+0	1.063352E+0	1.047755E+0	1.036823E+0	1.030680E+0	1.048557E+0	1.035429E+0	1.081051E+0	1.061998E+0	9.817022E-1	1.029512E+0	1.042698E+0	1.071830E+0	1.076163E+0	1.011144E+0	1.040405E+0	1.042160E+0	1.026280E+0	1.009084E+0	1.021702E+0	9.997040E-1	9.802503E-1	1.084821E+0	9.719749E-1	1.038008E+0	1.009601E+0	1.012110E+0	1.033646E+0	1.044481E+0	1.014890E+0	9.586421E-1	9.979019E-1	1.025416E+0	9.891596E-1	1.012082E+0	9.989589E-1	1.060442E+0	1.068235E+0	1.038088E+0	9.964883E-1	1.067441E+0	9.818132E-1	1.087977E+0	1.037993E+0	9.605910E-1	1.063834E+0	1.015734E+0	1.021932E+0	1.049811E+0	1.022583E+0	1.017352E+0	1.011608E+0	9.814305E-1	1.018534E+0	1.056001E+0	1.008183E+0	1.008160E+0	9.975432E-1	1.075311E+0	1.090108E+0	1.028427E+0	1.027513E+0	1.018424E+0	1.032185E+0	1.034119E+0	1.012382E+0	1.023761E+0	9.981173E-1	1.050233E+0	1.106202E+0	9.976694E-1	1.030856E+0	9.825881E-1	1.037427E+0	1.014797E+0	1.056439E+0	9.886655E-1	1.078412E+0	1.055639E+0	1.043670E+0	1.013583E+0	1.033175E+0	1.023259E+0	1.095838E+0	1.013689E+0	1.027185E+0	9.984066E-1	1.029185E+0	1.058580E+0	1.032198E+0	1.037859E+0	1.102234E+0	1.000825E+0	1.051806E+0	1.076253E+0	1.043286E+0	1.049446E+0	1.097495E+0	1.113711E+0	1.044399E+0	1.091543E+0	1.024978E+0	1.016905E+0	9.981897E-1	9.782849E-1	1.064953E+0	9.396263E-1	1.003212E+0	1.037828E+0	9.463464E-1	9.949479E-1	9.995045E-1	1.041192E+0	9.864501E-1	1.075263E+0	1.008479E+0	9.682743E-1	1.018857E+0	1.020658E+0	1.048598E+0	1.023533E+0	1.020119E+0	1.008849E+0	1.038624E+0	9.919151E-1	1.053612E+0	1.029449E+0	1.026368E+0	1.015563E+0	1.065950E+0	1.082325E+0	1.045559E+0	1.013477E+0	9.776330E-1	9.999738E-1	1.010072E+0	9.854169E-1	9.763987E-1	1.028470E+0
2.950120E+2	1.126493E+0	1.179764E+0	1.132684E+0	1.164001E+0	1.204600E+0	1.106432E+0	1.162598E+0	1.070388E+0	1.093138E+0	1.120872E+0	1.071221E+0	1.156733E+0	1.114139E+0	1.098383E+0	1.128312E+0	1.110788E+0	1.169893E+0	1.102018E+0	1.133821E+0	1.142327E+0	1.112130E+0	1.185186E+0	1.246274E+0	1.135022E+0	1.134997E+0	1.084259E+0	1.182152E+0	1.143193E+0	1.192443E+0	1.113062E+0	1.193811E+0	1.126379E+0	1.216980E+0	1.146755E+0	1.112023E+0	1.122257E+0	1.090349E+0	1.105223E+0	1.143510E+0	1.147131E+0	1.058792E+0	1.056983E+0	1.132410E+0	1.152979E+0	1.114286E+0	1.111848E+0	1.115124E+0	1.171790E+0	1.180369E+0	1.093847E+0	1.154614E+0	1.111813E+0	1.155354E+0	1.132519E+0	1.168962E+0	1.201278E+0	1.154055E+0	1.119089E+0	1.141763E+0	1.153216E+0	1.130762E+0	1.069173E+0	1.172736E+0	1.078081E+0	1.091771E+0	1.117221E+0	1.192124E+0	1.161199E+0	1.150345E+0	1.123621E+0	1.191274E+0	1.166676E+0	1.107242E+0	1.115532E+0	1.150556E+0	1.044650E+0	1.112420E+0	1.047472E+0	1.166102E+0	1.116707E+0	1.149140E+0	1.093558E+0	1.196759E+0	1.196399E+0	1.131195E+0	1.100247E+0	1.100082E+0	1.147933E+0	1.105241E+0	1.084414E+0	1.140391E+0	1.160084E+0	1.101360E+0	1.166255E+0	1.180748E+0	1.175660E+0	1.128381E+0	1.148759E+0	1.181363E+0	1.135553E+0	1.132779E+0	1.132749E+0	1.170330E+0	1.091202E+0	1.209651E+0	1.070828E+0	1.140878E+0	1.137926E+0	1.136023E+0	1.175522E+0	1.087513E+0	1.109828E+0	1.192590E+0	1.222343E+0	1.148320E+0	1.114648E+0	1.161379E+0	1.144889E+0	1.100823E+0	1.191204E+0	1.061198E+0	1.136558E+0	1.125231E+0	1.149956E+0	1.058436E+0	1.189834E+0	1.170060E+0	1.060182E+0	1.132187E+0	1.130297E+0	1.127991E+0	1.124497E+0	1.121013E+0	1.154863E+0	1.152389E+0	1.062827E+0	1.163000E+0	1.076255E+0	1.121396E+0	1.150987E+0	1.094019E+0	1.152144E+0	1.141236E+0	1.111012E+0	1.119784E+0	1.118621E+0	1.075696E+0	1.138583E+0	1.125872E+0	1.114943E+0	1.152803E+0	1.120245E+0	1.150969E+0	1.081227E+0	1.134010E+0	1.190892E+0	1.072152E+0	1.195419E+0	1.161277E+0	1.110483E+0	1.140515E+0	1.106533E+0	1.201351E+0	1.216253E+0	1.133829E+0	1.115402E+0	1.091315E+0	1.086212E+0	1.097398E+0	1.219897E+0
2.955030E+2	1.250931E+0	1.259497E+0	1.244288E+0	1.189211E+0	1.231242E+0	1.179536E+0	1.176561E+0	1.189755E+0	1.150069E+0	1.198086E+0	1.207984E+0	1.293207E+0	1.181365E+0	1.180607E+0	1.201311E+0	1.183809E+0	1.238804E+0	1.247454E+0	1.169839E+0	1.220955E+0	1.254843E+0	1.264187E+0	1.270627E+0	1.276188E+0	1.176803E+0	1.166394E+0	1.219616E+0	1.244979E+0	1.214073E+0	1.168835E+0	1.233255E+0	1.215143E+0	1.264540E+0	1.134030E+0	1.262754E+0	1.212542E+0	1.250787E+0	1.218272E+0	1.204183E+0	1.283828E+0	1.218408E+0	1.214552E+0	1.185155E+0	1.201158E+0	1.258584E+0	1.222861E+0	1.223462E+0	1.258434E+0	1.232158E+0	1.173128E+0	1.155607E+0	1.246416E+0	1.185234E+0	1.209406E+0	1.242136E+0	1.239727E+0	1.185635E+0	1.167357E+0	1.177510E+0	1.189491E+0	1.203312E+0	1.202057E+0	1.244642E+0	1.264123E+0	1.219592E+0	1.179683E+0	1.226576E+0	1.181626E+0	1.240434E+0	1.213004E+0	1.224060E+0	1.187217E+0	1.237508E+0	1.245374E+0	1.228691E+0	1.216551E+0	1.270378E+0	1.181274E+0	1.286891E+0	1.245261E+0	1.199815E+0	1.232360E+0	1.230141E+0	1.279072E+0	1.221542E+0	1.250356E+0	1.239878E+0	1.248082E+0	1.209448E+0	1.224508E+0	1.187225E+0	1.202691E+0	1.194758E+0	1.203089E+0	1.217462E+0	1.280141E+0	1.324501E+0	1.246171E+0	1.193923E+0	1.278808E+0	1.263595E+0	1.195068E+0	1.252179E+0	1.211232E+0	1.197206E+0	1.194427E+0	1.198721E+0	1.237473E+0	1.175805E+0	1.211745E+0	1.227517E+0	1.163576E+0	1.230875E+0	1.194241E+0	1.311933E+0	1.238827E+0	1.244968E+0	1.234707E+0	1.216996E+0	1.185644E+0	1.232582E+0	1.190545E+0	1.246676E+0	1.150310E+0	1.172609E+0	1.208245E+0	1.221055E+0	1.204978E+0	1.182359E+0	1.184505E+0	1.241488E+0	1.211288E+0	1.183233E+0	1.303586E+0	1.218491E+0	1.189550E+0	1.271883E+0	1.167068E+0	1.188589E+0	1.209725E+0	1.192893E+0	1.262617E+0	1.139096E+0	1.208736E+0	1.137622E+0	1.253955E+0	1.213331E+0	1.229811E+0	1.191113E+0	1.224725E+0	1.238097E+0	1.202819E+0	1.217316E+0	1.211686E+0	1.258028E+0	1.178535E+0	1.232620E+0	1.250467E+0	1.199738E+0	1.284986E+0	1.266070E+0	1.215243E+0	1.234695E+0	1.235908E+0	1.246713E+0	1.207571E+0	1.252399E+0	1.148031E+0	1.251181E+0	1.342071E+0
2.960060E+2	1.125244E+0	1.173168E+0	1.077640E+0	1.165096E+0	1.147199E+0	1.117793E+0	1.210474E+0	1.098989E+0	1.124445E+0	1.125997E+0	1.117801E+0	1.135452E+0	1.117319E+0	1.142695E+0	1.183436E+0	1.132381E+0	1.119777E+0	1.186469E+0	1.183664E+0	1.167314E+0	1.142874E+0	1.132701E+0	1.173994E+0	1.105109E+0	1.064525E+0	1.148005E+0	1.138990E+0	1.139683E+0	1.132730E+0	1.188423E+0	1.189257E+0	1.164421E+0	1.151052E+0	1.154824E+0	1.136608E+0	1.166976E+0	1.125795E+0	1.121482E+0	1.161521E+0	1.099577E+0	1.049308E+0	1.136189E+0	1.078658E+0	1.101953E+0	1.163814E+0	1.153931E+0	1.197131E+0	1.173560E+0	1.159080E+0	1.111856E+0	1.179463E+0	1.096681E+0	1.111484E+0	1.167974E+0	1.197079E+0	1.175434E+0	1.112887E+0	1.212582E+0	1.192756E+0	1.103601E+0	1.149245E+0	1.080400E+0	1.192421E+0	1.143746E+0	1.142809E+0	1.158709E+0	1.107849E+0	1.139696E+0	1.141109E+0	1.121489E+0	1.169620E+0	1.141445E+0	1.116758E+0	1.098798E+0	1.103214E+0	1.126400E+0	1.160589E+0	1.159634E+0	1.170826E+0	1.174796E+0	1.172953E+0	1.124581E+0	1.153263E+0	1.131535E+0	1.114839E+0	1.176044E+0	1.143091E+0	1.109630E+0	1.127307E+0	1.122601E+0	1.110535E+0	1.127685E+0	1.105605E+0	1.159919E+0	1.151344E+0	1.188727E+0	1.170467E+0	1.093059E+0	1.154726E+0	1.153095E+0	1.227834E+0	1.137171E+0	1.141854E+0	1.065057E+0	1.137106E+0	1.085942E+0	1.075142E+0	1.115698E+0	1.181454E+0	1.167520E+0	1.098393E+0	1.145164E+0	1.078191E+0	1.104515E+0	1.172394E+0	1.101948E+0	1.205733E+0	1.165392E+0	1.190183E+0	1.180263E+0	1.102824E+0	1.052616E+0	1.141991E+0	1.170468E+0	1.094602E+0	1.075247E+0	1.087298E+0	1.097306E+0	1.159445E+0	1.156770E+0	1.118093E+0	1.185952E+0	1.096046E+0	1.206263E+0	1.180233E+0	1.156091E+0	1.179909E+0	1.150537E+0	1.147901E+0	1.162543E+0	1.155376E+0	1.125068E+0	1.113227E+0	1.165182E+0	1.101842E+0	1.167964E+0	1.078800E+0	1.083672E+0	1.138682E+0	1.145620E+0	1.082115E+0	1.171202E+0	1.109142E+0	1.137676E+0	1.182420E+0	1.169289E+0	1.188964E+0	1.183398E+0	1.196501E+0	1.095562E+0	1.133547E+0	1.166155E+0	1.258436E+0	1.201614E+0	1.105030E+0	1.068477E+0	1.137440E+0	1.158750E+0	1.110600E+0	1.013517E+0
2.965070E+2	9.206914E-1	9.271873E-1	9.124224E-1	8.495359E-1	8.795081E-1	8.754891E-1	9.243399E-1	8.902706E-1	8.570798E-1	8.999509E-1	8.677317E-1	9.462886E-1	8.725540E-1	8.648183E-1	8.784247E-1	8.627207E-1	9.163573E-1	8.969357E-1	8.620849E-1	8.506940E-1	9.132155E-1	8.917782E-1	9.231954E-1	8.878971E-1	9.090647E-1	9.037755E-1	8.773285E-1	9.324312E-1	8.663940E-1	8.547678E-1	9.001419E-1	8.819447E-1	8.496188E-1	9.026280E-1	8.550640E-1	8.630380E-1	8.836330E-1	8.424789E-1	8.959485E-1	8.792464E-1	8.268676E-1	8.638735E-1	9.523118E-1	9.012988E-1	8.948781E-1	8.838557E-1	8.822235E-1	9.309814E-1	8.841449E-1	9.574801E-1	9.228178E-1	8.962833E-1	8.656991E-1	9.310748E-1	8.328218E-1	9.283032E-1	9.069460E-1	8.656928E-1	8.898035E-1	8.963088E-1	8.906880E-1	9.006522E-1	8.325936E-1	9.083370E-1	9.206776E-1	9.208830E-1	9.023044E-1	8.680504E-1	8.961212E-1	8.714145E-1	8.614607E-1	9.063711E-1	8.671025E-1	9.210565E-1	9.653055E-1	8.704580E-1	9.098186E-1	8.515925E-1	9.383964E-1	9.191223E-1	8.847059E-1	8.965658E-1	8.766493E-1	9.257524E-1	9.448445E-1	8.446422E-1	8.812477E-1	8.881255E-1	8.591923E-1	8.938363E-1	9.144450E-1	8.958188E-1	8.705900E-1	9.250933E-1	8.697186E-1	9.389136E-1	9.415198E-1	8.690637E-1	8.545674E-1	9.028795E-1	9.506520E-1	8.967354E-1	8.674748E-1	8.661178E-1	9.258958E-1	8.746427E-1	8.883307E-1	8.722804E-1	9.009960E-1	9.216592E-1	8.978536E-1	8.403511E-1	9.421266E-1	8.338682E-1	8.925551E-1	8.979910E-1	9.442589E-1	9.316042E-1	8.972633E-1	8.892939E-1	9.301757E-1	8.488238E-1	9.613302E-1	9.319366E-1	8.822289E-1	8.463877E-1	9.218455E-1	8.612963E-1	9.389896E-1	9.053529E-1	9.042685E-1	8.702435E-1	9.000772E-1	8.809425E-1	8.990795E-1	8.995725E-1	8.873202E-1	8.471511E-1	8.613524E-1	8.463079E-1	9.370412E-1	8.748141E-1	9.031499E-1	9.024083E-1	8.695920E-1	9.192770E-1	9.187116E-1	9.110351E-1	9.263351E-1	8.822808E-1	8.832540E-1	8.897043E-1	9.143369E-1	8.370744E-1	9.392394E-1	8.894597E-1	8.855914E-1	8.970070E-1	9.159396E-1	8.821587E-1	8.679817E-1	9.385699E-1	9.231320E-1	8.923057E-1	8.295800E-1	9.086173E-1	9.082908E-1	8.593880E-1	9.011076E-1	7.961808E-1
2.970010E+2	8.745759E-1	8.958498E-1	9.197586E-1	8.496262E-1	8.789851E-1	8.954912E-1	8.652971E-1	8.754248E-1	8.320617E-1	9.182213E-1	8.376994E-1	9.402934E-1	8.800511E-1	8.603631E-1	8.705873E-1	8.440484E-1	8.612157E-1	8.487534E-1	8.311826E-1	8.697987E-1	9.008624E-1	9.135467E-1	9.030898E-1	8.810971E-1	7.953142E-1	8.267887E-1	8.397114E-1	8.357113E-1	9.275620E-1	8.682770E-1	8.786292E-1	8.984771E-1	8.723106E-1	8.801804E-1	8.294532E-1	8.361552E-1	8.705118E-1	8.735339E-1	8.542175E-1	9.027300E-1	8.679428E-1	9.078285E-1	8.897586E-1	9.059661E-1	9.323784E-1	8.779637E-1	8.939401E-1	9.219479E-1	8.665686E-1	8.885530E-1	9.044060E-1	8.329891E-1	8.690574E-1	8.890480E-1	8.702417E-1	9.082424E-1	8.579482E-1	8.986094E-1	8.945955E-1	9.331198E-1	8.428628E-1	8.296503E-1	9.192305E-1	8.936874E-1	8.423876E-1	8.575716E-1	8.186257E-1	9.044851E-1	8.970854E-1	8.940637E-1	8.890400E-1	8.475040E-1	8.696096E-1	8.991244E-1	8.915738E-1	8.468046E-1	9.275979E-1	8.472230E-1	8.961387E-1	8.636103E-1	8.748347E-1	8.734537E-1	8.946054E-1	8.962119E-1	8.777628E-1	8.677137E-1	9.273956E-1	8.510473E-1	8.919487E-1	8.593841E-1	9.486500E-1	8.442492E-1	8.669514E-1	9.113227E-1	8.724155E-1	9.063043E-1	8.896762E-1	8.425228E-1	8.610636E-1	8.756373E-1	9.501489E-1	8.871831E-1	8.561333E-1	8.125057E-1	9.190607E-1	8.909752E-1	9.076748E-1	8.521181E-1	8.471382E-1	8.588575E-1	8.525858E-1	8.408385E-1	8.863435E-1	8.970945E-1	8.957838E-1	8.731918E-1	9.336367E-1	8.537758E-1	8.731628E-1	8.833593E-1	9.233354E-1	8.486095E-1	8.778673E-1	8.813294E-1	8.607616E-1	8.367466E-1	8.931407E-1	8.651718E-1	9.218188E-1	9.280746E-1	8.534892E-1	9.256902E-1	9.043961E-1	8.999683E-1	8.803555E-1	9.014855E-1	8.380412E-1	8.429969E-1	8.652969E-1	8.580971E-1	8.788772E-1	8.856051E-1	8.265428E-1	8.385055E-1	8.960962E-1	9.220587E-1	8.187447E-1	9.162872E-1	8.688802E-1	8.724680E-1	9.294106E-1	8.556222E-1	8.074320E-1	8.502485E-1	9.472159E-1	8.814033E-1	8.546909E-1	9.436532E-1	9.356410E-1	8.547857E-1	8.861932E-1	8.786288E-1	8.809739E-1	9.104543E-1	8.715620E-1	8.687040E-1	8.707859E-1	8.316190E-1	8.720988E-1	8.463981E-1
2.975040E+2	9.527325E-1	9.532921E-1	9.030068E-1	9.051759E-1	9.536499E-1	9.941010E-1	9.415733E-1	9.394852E-1	9.798690E-1	9.175762E-1	9.815114E-1	9.394800E-1	9.324689E-1	9.677452E-1	9.769334E-1	9.535464E-1	9.668811E-1	9.827979E-1	9.909049E-1	9.533826E-1	9.167410E-1	9.394102E-1	9.541659E-1	9.695024E-1	9.285008E-1	9.498631E-1	9.403525E-1	9.273291E-1	9.456100E-1	9.760459E-1	9.782189E-1	1.000491E+0	9.763036E-1	9.447781E-1	9.536070E-1	9.605122E-1	1.003818E+0	9.614113E-1	9.492294E-1	9.291757E-1	9.392029E-1	9.009894E-1	9.847870E-1	9.602945E-1	9.557901E-1	9.731727E-1	9.966624E-1	9.623391E-1	9.640151E-1	9.483220E-1	9.124638E-1	9.491148E-1	9.236492E-1	9.381157E-1	9.756491E-1	9.840225E-1	9.408857E-1	9.585605E-1	9.818635E-1	1.005021E+0	9.178792E-1	9.530111E-1	9.117504E-1	9.595819E-1	9.559561E-1	9.639447E-1	9.873820E-1	9.346679E-1	9.420271E-1	9.478737E-1	9.183094E-1	9.370039E-1	9.580613E-1	9.156688E-1	9.423202E-1	9.429433E-1	9.406766E-1	9.684226E-1	9.370999E-1	9.018592E-1	9.666843E-1	9.597976E-1	9.611177E-1	9.339895E-1	9.467077E-1	9.349284E-1	9.231730E-1	1.004328E+0	9.481206E-1	9.539732E-1	9.946141E-1	9.446899E-1	9.802672E-1	9.748495E-1	1.002101E+0	9.692345E-1	9.876050E-1	9.335342E-1	9.577724E-1	9.190026E-1	9.749074E-1	9.269155E-1	9.482220E-1	9.089051E-1	9.525946E-1	9.393261E-1	1.019972E+0	9.338896E-1	9.160683E-1	9.719018E-1	9.927320E-1	9.761713E-1	9.773009E-1	9.709377E-1	9.446794E-1	9.759974E-1	9.767891E-1	9.822699E-1	9.538555E-1	9.046746E-1	9.708629E-1	1.000439E+0	9.602503E-1	9.664292E-1	9.860280E-1	9.463145E-1	9.789233E-1	9.647534E-1	9.826020E-1	9.392187E-1	9.603456E-1	9.601599E-1	8.906937E-1	9.478779E-1	9.949919E-1	9.494845E-1	9.552062E-1	9.175477E-1	9.456915E-1	9.558148E-1	8.991083E-1	9.419848E-1	9.923550E-1	9.704016E-1	9.226112E-1	9.709355E-1	8.951480E-1	9.655066E-1	9.939120E-1	9.705570E-1	9.719918E-1	9.389772E-1	9.744169E-1	9.822616E-1	9.799552E-1	9.555753E-1	9.595240E-1	9.361514E-1	9.640799E-1	9.309893E-1	9.493600E-1	9.734961E-1	9.272864E-1	9.721840E-1	9.653639E-1	9.553543E-1	9.891006E-1	9.825790E-1	9.812623E-1	1.027051E+0
2.980010E+2	1.067205E+0	1.043117E+0	1.052550E+0	1.039103E+0	1.060222E+0	1.118764E+0	1.136212E+0	1.096507E+0	1.066448E+0	1.053858E+0	1.057347E+0	1.054335E+0	1.093406E+0	1.117738E+0	1.064549E+0	1.077002E+0	1.082201E+0	1.005246E+0	1.090296E+0	1.069192E+0	1.070902E+0	1.080501E+0	1.095276E+0	1.087106E+0	1.059045E+0	1.078085E+0	1.059292E+0	1.065247E+0	1.110584E+0	1.067481E+0	1.097169E+0	1.085593E+0	1.082071E+0	1.055169E+0	1.046948E+0	1.087370E+0	1.092308E+0	1.034277E+0	1.152121E+0	1.078750E+0	1.117205E+0	1.093357E+0	1.072658E+0	1.026320E+0	1.064163E+0	1.078421E+0	1.093085E+0	1.108633E+0	1.034933E+0	1.023844E+0	1.032810E+0	1.081583E+0	1.043958E+0	1.068504E+0	1.139857E+0	1.061868E+0	1.129223E+0	1.069019E+0	1.075774E+0	1.021444E+0	1.076147E+0	1.043619E+0	1.059436E+0	1.077621E+0	1.070137E+0	1.088781E+0	1.060137E+0	1.070543E+0	1.140436E+0	1.062229E+0	1.126547E+0	1.060871E+0	1.117268E+0	1.091477E+0	1.042041E+0	1.009182E+0	1.073854E+0	1.102830E+0	1.114928E+0	1.088948E+0	1.068311E+0	1.080010E+0	1.068177E+0	1.049240E+0	1.096118E+0	1.066919E+0	1.082105E+0	1.029063E+0	1.098214E+0	1.035655E+0	1.064228E+0	1.088776E+0	1.036611E+0	1.083090E+0	1.058724E+0	1.094152E+0	1.060199E+0	1.053223E+0	1.053987E+0	1.088856E+0	1.061129E+0	1.129100E+0	1.049766E+0	1.111935E+0	1.092901E+0	1.075960E+0	1.057126E+0	1.094519E+0	1.114741E+0	1.078167E+0	1.073716E+0	1.024176E+0	1.082427E+0	1.077786E+0	1.038147E+0	1.044262E+0	1.089631E+0	1.054510E+0	1.066503E+0	1.082078E+0	1.025463E+0	1.010877E+0	1.102460E+0	1.108275E+0	1.055582E+0	1.069184E+0	1.101461E+0	1.084235E+0	1.010754E+0	1.017475E+0	1.132763E+0	1.097823E+0	1.100710E+0	1.044116E+0	1.072930E+0	1.081184E+0	1.099315E+0	1.100705E+0	1.050062E+0	1.074192E+0	1.090360E+0	1.056944E+0	1.062194E+0	1.080588E+0	1.078626E+0	1.071072E+0	1.098038E+0	1.048363E+0	1.026805E+0	1.067898E+0	1.083059E+0	1.048308E+0	1.067929E+0	1.060598E+0	1.082800E+0	1.078711E+0	1.059479E+0	1.083727E+0	1.093682E+0	1.062613E+0	1.076607E+0	1.060218E+0	1.066892E+0	1.084041E+0	1.086299E+0	1.107104E+0	1.015133E+0	1.010556E+0	1.042216E+0	1.005919E+0
2.985010E+2	1.227859E+0	1.183806E+0	1.169343E+0	1.210904E+0	1.201202E+0	1.114820E+0	1.137226E+0	1.150302E+0	1.194190E+0	1.162565E+0	1.182732E+0	1.228339E+0	1.213238E+0	1.149586E+0	1.179930E+0	1.184417E+0	1.145102E+0	1.213573E+0	1.139332E+0	1.174744E+0	1.182258E+0	1.158956E+0	1.177474E+0	1.184890E+0	1.176836E+0	1.175000E+0	1.176233E+0	1.180353E+0	1.172218E+0	1.202636E+0	1.157624E+0	1.089165E+0	1.135904E+0	1.173407E+0	1.186750E+0	1.171712E+0	1.157290E+0	1.148861E+0	1.094974E+0	1.200193E+0	1.113852E+0	1.196700E+0	1.160024E+0	1.160449E+0	1.181138E+0	1.143643E+0	1.132022E+0	1.115089E+0	1.187539E+0	1.157351E+0	1.192554E+0	1.116022E+0	1.184665E+0	1.171167E+0	1.131366E+0	1.165089E+0	1.172957E+0	1.177975E+0	1.115701E+0	1.178553E+0	1.184942E+0	1.210179E+0	1.191269E+0	1.178648E+0	1.124164E+0	1.157970E+0	1.179297E+0	1.169863E+0	1.173846E+0	1.201511E+0	1.119077E+0	1.193701E+0	1.152433E+0	1.160868E+0	1.152145E+0	1.243540E+0	1.203042E+0	1.171697E+0	1.155725E+0	1.206878E+0	1.162351E+0	1.163215E+0	1.164499E+0	1.212914E+0	1.171777E+0	1.179099E+0	1.160432E+0	1.153317E+0	1.181547E+0	1.200598E+0	1.215747E+0	1.177386E+0	1.184193E+0	1.188472E+0	1.177095E+0	1.131935E+0	1.135186E+0	1.174084E+0	1.178549E+0	1.207146E+0	1.161420E+0	1.134640E+0	1.215896E+0	1.181253E+0	1.168200E+0	1.172799E+0	1.137733E+0	1.165941E+0	1.160908E+0	1.169529E+0	1.180076E+0	1.164073E+0	1.139837E+0	1.157649E+0	1.147408E+0	1.094737E+0	1.154329E+0	1.182065E+0	1.188183E+0	1.170890E+0	1.171478E+0	1.197540E+0	1.151013E+0	1.112022E+0	1.136207E+0	1.182552E+0	1.142572E+0	1.141864E+0	1.198808E+0	1.180837E+0	1.118818E+0	1.164280E+0	1.149160E+0	1.194597E+0	1.146459E+0	1.130841E+0	1.181890E+0	1.210424E+0	1.167036E+0	1.116185E+0	1.158246E+0	1.219729E+0	1.160486E+0	1.182972E+0	1.163224E+0	1.148345E+0	1.168520E+0	1.177088E+0	1.196356E+0	1.142688E+0	1.148367E+0	1.197333E+0	1.196183E+0	1.146991E+0	1.191954E+0	1.134183E+0	1.179722E+0	1.136731E+0	1.171152E+0	1.161256E+0	1.203107E+0	1.142096E+0	1.120374E+0	1.109716E+0	1.173166E+0	1.197674E+0	1.197727E+0	1.167920E+0	1.171649E+0	1.112389E+0
2.990020E+2	1.008484E+0	1.076048E+0	1.051129E+0	1.031140E+0	9.910956E-1	1.043696E+0	1.022169E+0	1.033855E+0	1.051335E+0	1.066588E+0	1.055744E+0	1.029594E+0	1.043202E+0	9.940915E-1	1.025413E+0	1.040795E+0	1.065766E+0	1.039139E+0	1.022202E+0	1.055869E+0	1.035428E+0	1.066619E+0	1.020901E+0	1.008348E+0	1.033070E+0	1.054503E+0	1.058693E+0	1.082139E+0	9.852761E-1	1.037003E+0	1.001143E+0	1.047284E+0	1.053525E+0	1.059158E+0	1.004453E+0	1.022964E+0	1.000739E+0	1.042279E+0	1.023886E+0	1.057411E+0	1.079736E+0	1.040721E+0	1.042288E+0	9.908880E-1	1.037571E+0	1.038729E+0	1.032123E+0	1.042677E+0	1.046280E+0	1.055255E+0	1.066883E+0	1.077558E+0	1.045633E+0	1.039787E+0	1.019386E+0	1.025596E+0	1.061879E+0	1.030211E+0	1.007511E+0	1.080516E+0	1.022328E+0	1.061980E+0	1.079727E+0	1.018603E+0	1.055212E+0	1.030845E+0	1.042853E+0	1.063534E+0	9.667100E-1	1.029999E+0	1.060288E+0	1.029461E+0	1.024814E+0	1.035555E+0	1.047417E+0	9.909280E-1	1.036478E+0	9.860668E-1	1.013440E+0	1.049416E+0	1.011282E+0	1.041472E+0	1.028522E+0	1.047112E+0	1.057872E+0	1.042402E+0	1.051011E+0	1.044592E+0	1.018934E+0	1.023815E+0	1.015032E+0	1.022572E+0	1.035226E+0	1.035116E+0	1.036171E+0	1.006247E+0	9.994305E-1	1.024493E+0	1.080991E+0	1.058024E+0	9.795712E-1	1.017055E+0	1.034498E+0	1.067252E+0	1.056626E+0	1.081974E+0	1.051961E+0	1.074161E+0	1.075386E+0	1.004715E+0	1.044948E+0	1.034282E+0	1.029356E+0	1.030307E+0	1.057174E+0	1.099549E+0	9.942616E-1	1.061116E+0	1.005289E+0	1.062175E+0	1.087669E+0	1.045764E+0	1.055054E+0	1.062461E+0	1.075684E+0	1.074979E+0	1.028930E+0	9.945087E-1	1.017151E+0	1.042956E+0	1.041062E+0	1.047311E+0	1.047896E+0	1.046168E+0	1.040633E+0	1.014535E+0	1.064461E+0	1.048378E+0	1.061234E+0	1.042234E+0	1.062422E+0	9.829396E-1	1.039429E+0	1.040556E+0	1.108483E+0	1.014075E+0	1.048350E+0	1.030593E+0	1.027873E+0	1.040864E+0	1.031386E+0	1.056091E+0	1.032905E+0	1.040087E+0	1.038822E+0	1.063995E+0	1.057991E+0	1.074513E+0	1.012101E+0	1.041138E+0	1.051511E+0	1.048646E+0	1.069998E+0	1.061678E+0	1.008766E+0	1.003766E+0	1.030795E+0	1.057669E+0	1.027247E+0	1.042552E+0
2.995020E+2	8.475872E-1	8.676023E-1	8.835214E-1	9.280508E-1	9.073273E-1	8.212292E-1	8.887115E-1	8.809561E-1	8.732359E-1	8.888151E-1	8.776517E-1	8.663515E-1	8.653191E-1	8.879115E-1	8.530997E-1	8.545055E-1	8.638982E-1	8.815357E-1	8.773474E-1	8.632439E-1	8.883751E-1	8.784423E-1	8.582740E-1	8.690580E-1	9.087670E-1	8.712458E-1	8.565715E-1	8.537047E-1	8.894651E-1	8.659706E-1	8.681245E-1	8.690205E-1	8.848780E-1	8.743588E-1	9.304974E-1	8.611039E-1	8.836684E-1	9.310021E-1	8.476564E-1	8.577392E-1	8.894911E-1	8.881631E-1	8.737758E-1	9.665949E-1	8.831300E-1	9.022827E-1	8.882958E-1	8.788956E-1	8.811514E-1	9.387771E-1	9.188114E-1	8.700439E-1	9.043306E-1	8.820036E-1	8.713328E-1	8.588262E-1	8.171835E-1	9.043065E-1	8.993498E-1	8.411444E-1	9.010568E-1	8.545187E-1	8.876286E-1	8.663423E-1	8.946779E-1	8.886548E-1	8.334821E-1	8.575632E-1	8.753231E-1	8.634599E-1	8.671338E-1	8.872314E-1	8.450502E-1	8.969738E-1	8.836377E-1	8.978601E-1	8.387215E-1	8.656734E-1	9.218172E-1	8.778237E-1	9.161156E-1	9.004602E-1	8.810957E-1	8.356845E-1	8.359664E-1	8.897992E-1	8.809466E-1	8.700316E-1	8.585706E-1	8.890902E-1	8.429266E-1	8.447236E-1	8.889830E-1	8.384096E-1	8.534376E-1	8.678438E-1	9.231958E-1	9.041031E-1	8.786107E-1	8.287112E-1	9.093389E-1	8.840378E-1	8.738393E-1	8.501353E-1	8.722138E-1	8.910390E-1	8.554610E-1	8.915363E-1	8.976789E-1	9.090857E-1	8.629093E-1	8.658903E-1	8.860194E-1	9.142115E-1	9.454011E-1	9.107726E-1	8.756508E-1	8.214374E-1	8.704099E-1	8.895663E-1	8.516492E-1	8.688288E-1	8.296141E-1	8.392089E-1	8.506695E-1	8.612492E-1	8.686897E-1	9.293702E-1	8.565441E-1	9.155693E-1	8.470656E-1	8.463555E-1	8.973907E-1	8.809066E-1	8.788789E-1	9.324879E-1	8.640223E-1	8.459847E-1	9.112751E-1	9.053071E-1	9.035823E-1	8.913003E-1	8.749708E-1	8.498290E-1	8.721595E-1	8.616503E-1	9.019137E-1	8.836980E-1	8.912267E-1	8.675601E-1	8.536619E-1	8.715504E-1	8.411883E-1	8.323540E-1	8.427608E-1	8.939774E-1	8.688747E-1	8.803639E-1	8.736784E-1	9.120533E-1	8.021575E-1	8.655061E-1	9.173047E-1	8.807032E-1	8.695013E-1	8.531469E-1	8.639065E-1	9.317011E-1	8.046950E-1	9.588060E-1
3.000060E+2	8.961320E-1	8.761348E-1	9.404503E-1	8.856262E-1	8.865030E-1	9.073904E-1	8.741076E-1	8.988941E-1	8.349222E-1	9.105982E-1	8.450136E-1	8.818996E-1	8.523662E-1	8.829283E-1	9.000753E-1	8.897346E-1	8.761511E-1	8.777082E-1	8.799167E-1	8.835681E-1	9.062952E-1	8.760711E-1	8.939101E-1	8.810963E-1	8.937801E-1	8.713035E-1	9.088571E-1	8.912283E-1	8.968469E-1	8.508633E-1	8.977195E-1	9.084472E-1	8.673183E-1	8.931292E-1	8.777441E-1	8.963379E-1	8.621760E-1	8.821694E-1	9.321321E-1	8.767321E-1	8.605128E-1	8.800690E-1	8.664676E-1	8.954538E-1	8.782083E-1	8.637526E-1	8.578119E-1	8.923666E-1	8.860821E-1	8.764502E-1	8.764782E-1	9.056782E-1	8.977643E-1	9.004224E-1	8.624091E-1	9.045982E-1	8.778728E-1	8.599282E-1	9.198003E-1	8.733210E-1	8.976477E-1	8.766920E-1	8.701878E-1	8.992041E-1	8.998530E-1	8.698045E-1	8.968478E-1	9.038292E-1	9.016576E-1	8.949279E-1	9.086444E-1	8.917310E-1	9.023738E-1	8.994563E-1	9.324385E-1	9.155473E-1	9.072282E-1	9.053109E-1	8.569909E-1	8.750752E-1	8.752561E-1	8.550453E-1	8.965886E-1	9.210604E-1	8.915588E-1	8.868527E-1	9.023319E-1	8.986686E-1	8.946132E-1	8.968685E-1	8.674526E-1	9.218522E-1	8.747200E-1	8.800624E-1	8.724706E-1	9.305882E-1	8.943833E-1	9.105631E-1	8.500898E-1	8.982595E-1	9.136334E-1	9.082511E-1	8.777784E-1	8.805191E-1	8.574645E-1	8.389007E-1	8.777470E-1	8.399532E-1	8.352176E-1	8.666021E-1	8.456191E-1	9.354081E-1	8.850589E-1	8.491077E-1	8.671911E-1	8.746828E-1	9.093386E-1	8.986016E-1	9.157595E-1	8.906156E-1	8.928782E-1	8.765514E-1	9.016084E-1	9.116032E-1	8.958294E-1	8.657219E-1	8.794239E-1	8.852686E-1	9.341419E-1	9.039431E-1	8.999456E-1	8.840701E-1	9.141491E-1	8.863338E-1	8.661066E-1	8.914680E-1	8.351053E-1	8.769599E-1	8.647022E-1	9.062674E-1	8.862826E-1	9.071021E-1	8.705655E-1	8.756531E-1	8.548969E-1	9.339222E-1	8.880306E-1	8.947509E-1	8.638269E-1	9.104326E-1	9.115341E-1	8.877400E-1	8.873786E-1	9.377081E-1	8.637082E-1	8.735576E-1	8.744093E-1	8.885143E-1	8.853064E-1	8.919501E-1	9.172573E-1	9.100382E-1	8.981453E-1	8.916772E-1	8.969044E-1	8.829543E-1	9.033382E-1	8.495746E-1	9.729301E-1	8.532828E-1
