Photon Energy (eV)	#1	#2	#3	#4	#5	#6	#7	#8	#9	#10	#11	#12	#13	#14	#15	#16	#17	#18	#19	#20	#21	#22	#23	#24	#25	#26	#27	#28	#29	#30	#31	#32	#33	#34	#35	#36	#37	#38	#39	#40	#41	#42	#43	#44	#45	#46	#47	#48	#49	#50	#51	#52	#53	#54	#55	#56	#57	#58	#59	#60	#61	#62	#63	#64	#65	#66	#67	#68	#69	#70	#71	#72	#73	#74	#75	#76	#77	#78	#79	#80	#81	#82	#83	#84	#85	#86	#87	#88	#89	#90	#91	#92	#93	#94	#95	#96	#97	#98	#99	#100	#101	#102	#103	#104	#105	#106	#107	#108	#109	#110	#111	#112	#113	#114	#115	#116	#117	#118	#119	#120	#121	#122	#123	#124	#125	#126	#127	#128	#129	#130	#131	#132	#133	#134	#135	#136	#137	#138	#139	#140	#141	#142	#143	#144	#145	#146	#147	#148	#149	#150	#151	#152	#153	#154	#155	#156	#157	#158	#159	#160	#161	#162	#163	#164	#165	#166	#167	#168	#169	#170	#171	
2.790040E+2	-1.200393E-3	1.305549E-3	6.788952E-4	-3.247282E-3	7.404783E-4	-6.144809E-3	-2.371298E-3	-1.586059E-2	-2.481212E-3	-1.345260E-2	8.671772E-4	-4.059009E-3	-3.896091E-3	-1.335374E-2	-1.335356E-2	-3.668023E-3	-1.018845E-2	-6.190448E-3	-1.871876E-2	-2.541882E-3	-1.903458E-2	-2.654015E-3	2.333249E-3	1.971391E-3	-4.399752E-3	6.082616E-3	-2.727194E-4	-7.440525E-3	9.540696E-3	2.291547E-3	-6.223336E-3	9.277808E-4	-5.244232E-3	-9.778806E-3	-4.581300E-3	-7.712109E-4	9.061717E-4	-7.141614E-3	-4.541029E-3	-5.709361E-3	-1.244341E-2	-3.220293E-3	-4.243873E-3	6.100473E-3	-1.136190E-3	4.075411E-3	1.432739E-3	-3.915795E-3	7.419241E-4	-8.640062E-3	-1.530363E-2	9.516679E-3	-5.050006E-3	-7.833876E-3	-6.890047E-3	-6.586261E-3	1.064448E-2	2.814126E-3	-7.156952E-3	3.681840E-4	-1.537402E-3	-7.897786E-3	-2.722551E-5	4.523375E-4	-6.778919E-3	3.482965E-3	1.632051E-4	7.384215E-3	1.263314E-2	-3.442295E-3	-5.198690E-3	-6.972806E-3	8.929006E-3	-2.856261E-3	2.463765E-3	8.093281E-3	1.255986E-3	2.678692E-3	-7.329651E-3	1.289189E-2	-1.000465E-2	-3.649859E-3	-1.327351E-3	-7.055503E-4	-5.825134E-3	-1.768333E-3	8.291585E-5	-1.320757E-2	-1.976224E-2	-1.327509E-2	2.018358E-3	1.551759E-3	-7.801108E-3	-5.809094E-3	-9.354743E-3	-7.244341E-3	-3.294869E-3	-4.791444E-3	-3.285906E-3	-1.352602E-2	-4.394099E-3	1.240491E-2	-9.436523E-3	-7.491749E-3	-1.019224E-2	3.652362E-3	2.005877E-3	-3.027782E-4	-3.353259E-3	-1.109293E-2	-6.144077E-3	-8.969880E-3	-5.717832E-3	-1.074791E-3	-1.124160E-2	-6.048849E-3	-1.025602E-3	-8.795999E-3	3.175116E-3	-6.204392E-3	3.217377E-3	-1.200278E-2	3.843993E-3	-8.258669E-3	-5.120963E-3	2.764642E-4	1.987261E-3	1.324989E-2	-4.851538E-3	-6.948996E-3	-1.195866E-2	-9.773676E-3	9.161928E-3	-1.214166E-2	4.961754E-3	-5.778714E-3	-8.478263E-3	1.408096E-3	-4.854643E-3	-8.445926E-3	-7.329602E-3	-1.034513E-2	4.318798E-3	-8.522524E-3	-1.083853E-2	-8.271754E-3	-3.469374E-3	-4.069005E-3	-1.828396E-3	1.083086E-2	-4.745183E-3	-1.227492E-2	-2.451719E-2	-5.982806E-3	-1.749555E-3	-1.212762E-2	3.614926E-3	-1.301018E-2	-6.389125E-3	-1.098544E-2	-6.905285E-3	-2.550835E-3	7.708537E-3	-1.390032E-3	-4.852979E-3	8.930685E-3	-6.677821E-3	-6.945457E-3	-2.487694E-2	-6.302833E-3	-2.238551E-2
2.794980E+2	-5.440421E-3	-7.827396E-3	-6.576465E-4	-3.178425E-3	-8.491723E-3	-2.006601E-3	-1.052779E-3	-5.789725E-3	-9.639527E-3	-1.756409E-3	-1.019372E-2	-4.418315E-4	-3.805248E-3	1.900342E-3	-1.044087E-3	-2.561808E-3	6.332690E-3	-1.341320E-3	-6.034237E-3	1.088970E-2	4.157384E-4	3.867635E-3	-1.463707E-2	2.438003E-3	-1.325174E-2	4.492042E-4	-1.126851E-2	-5.751660E-3	-5.282933E-3	-1.846015E-3	-5.119346E-3	-8.788182E-3	-8.133116E-4	-7.111656E-3	-3.318099E-3	-4.377366E-3	-7.190739E-3	-1.279180E-2	-1.498309E-3	-3.105422E-4	-3.603748E-3	-1.428367E-2	2.397422E-3	-8.527882E-3	4.878023E-3	4.204619E-3	-8.169475E-3	-6.899623E-3	-9.677382E-3	4.993698E-4	-2.350775E-3	1.331664E-3	1.792753E-3	-5.377407E-3	-1.464618E-2	-8.449631E-3	4.662413E-3	-1.019564E-3	-4.593262E-3	5.292267E-3	2.400750E-3	-6.356522E-4	-5.474195E-3	3.343483E-3	-1.265009E-2	-2.669859E-3	-2.157111E-3	-8.687717E-3	-9.741620E-3	-1.989871E-2	1.113233E-3	-7.410577E-3	-1.634806E-2	-5.328275E-3	-7.641844E-4	-5.784535E-3	-1.232014E-2	-4.633143E-3	8.673569E-3	5.328526E-4	4.043074E-4	-1.521767E-2	1.161823E-3	6.124961E-4	-3.115872E-3	-8.864632E-3	5.560903E-3	-3.550172E-3	-1.426381E-2	-7.235475E-3	-1.529171E-2	-2.519512E-3	5.527525E-3	-6.853658E-3	1.766854E-3	-6.011737E-3	-1.658122E-2	-6.015280E-3	4.681859E-3	7.866012E-3	-1.055442E-2	-4.995206E-3	-8.235393E-3	1.444564E-2	-2.146132E-3	3.755327E-3	-7.224052E-3	-1.613049E-2	-1.281264E-2	-1.332736E-2	-7.109980E-3	-6.381337E-3	-1.018507E-2	-9.882822E-4	-3.847651E-3	-1.690189E-2	-3.698697E-3	4.932409E-3	-8.540562E-3	-2.271834E-3	-3.762310E-3	-3.398779E-3	-3.167996E-3	5.100372E-4	-1.423301E-2	1.589785E-2	-3.663490E-3	-9.409673E-3	4.463997E-3	-1.467297E-2	-1.723224E-2	9.426833E-4	-8.754047E-3	2.340170E-2	-1.748725E-3	-4.554980E-4	-7.036233E-3	-9.662853E-4	-9.642171E-3	7.684596E-4	-1.271842E-2	-3.469950E-3	9.750957E-4	-9.733233E-3	1.140177E-3	-6.860616E-3	4.248446E-3	-1.337115E-3	-1.743944E-3	-1.331203E-2	-1.317173E-3	-6.196523E-3	3.466277E-3	-8.412544E-3	7.563360E-3	1.062078E-2	-5.450780E-4	-1.293610E-2	-8.341276E-5	6.204240E-3	2.478435E-3	-2.450361E-3	1.655650E-3	-1.919340E-2	-6.049274E-4	5.938225E-4	-1.950771E-3	1.764172E-3	8.109241E-3	-1.784358E-2	4.677001E-3
2.800050E+2	-3.906243E-3	1.842315E-2	-4.806358E-3	-1.636356E-3	-9.710869E-3	-5.969723E-3	-8.312628E-3	4.358426E-3	1.317651E-4	2.239811E-3	-5.629151E-3	-3.865522E-3	-3.136646E-4	3.193507E-3	-6.033995E-3	-8.612472E-3	-4.950594E-3	-9.622316E-3	-5.930596E-3	-2.510137E-3	9.696158E-3	4.007367E-3	-3.453386E-3	-6.034891E-3	-5.471588E-3	-8.634038E-3	1.109655E-2	8.648981E-3	-8.933973E-3	-7.043289E-3	-9.335674E-4	-4.578561E-3	-3.578374E-3	7.291123E-3	-8.691474E-4	-9.125870E-3	-9.470446E-3	1.072871E-3	-7.253883E-3	-8.427250E-3	2.746974E-3	-5.451350E-3	-2.904741E-3	-8.422984E-3	-1.448152E-2	-9.168817E-3	-2.611303E-3	-5.633538E-3	2.554423E-3	-7.166288E-3	-4.805164E-3	-6.854432E-3	4.178317E-3	1.499551E-2	-2.187495E-3	8.665202E-3	-2.712258E-3	4.300244E-3	5.335936E-3	-1.137679E-2	8.188349E-5	-2.877678E-3	-1.205657E-2	-8.537021E-3	2.582047E-3	1.372367E-2	-6.939802E-3	6.743791E-3	-5.871161E-3	2.300114E-3	-8.112802E-3	-1.074419E-3	1.337275E-3	-4.373482E-5	-5.950734E-4	-9.422337E-3	4.471524E-3	4.116151E-4	-5.994807E-3	-9.070552E-3	-5.154912E-3	6.899786E-3	-9.492264E-3	9.245747E-4	9.240757E-3	-6.350275E-3	-5.017850E-3	-5.256344E-3	9.391773E-3	-8.296996E-3	-6.443207E-3	-2.516066E-3	1.128278E-2	-8.984295E-3	-2.981899E-3	-5.303303E-3	9.377088E-5	-3.294141E-3	1.545965E-2	5.382523E-3	-4.063881E-4	-4.869187E-3	-1.337447E-3	-1.198728E-2	1.979315E-3	-1.197977E-2	1.163808E-2	-1.705554E-3	-3.140943E-3	-6.283687E-3	4.693035E-4	-6.354669E-3	5.564246E-4	-1.000472E-2	-3.725253E-3	5.116459E-3	-4.957599E-3	-6.327391E-3	3.455847E-3	4.342524E-4	1.487416E-2	1.593492E-3	-1.018407E-2	-9.543915E-3	1.214955E-3	-3.948221E-3	-4.690542E-3	-2.969139E-3	-3.121543E-3	1.060838E-3	-1.073463E-3	-1.594551E-3	-2.171336E-3	-7.343247E-3	-3.900884E-3	-6.822844E-3	-8.292627E-3	-7.042882E-3	3.884492E-3	1.921936E-2	-4.376670E-3	-6.743741E-3	-1.160160E-2	1.247662E-2	-1.662998E-2	-6.638776E-5	4.394332E-3	-7.848075E-3	-4.316788E-3	-1.644323E-3	4.391188E-3	-2.470997E-3	1.200703E-2	-1.082760E-2	-1.513447E-3	-6.309775E-3	8.179574E-3	-1.043402E-2	-5.121403E-3	2.676539E-3	-2.426547E-4	-2.171966E-3	-6.847039E-3	1.636876E-3	3.015357E-3	2.892428E-3	-1.809225E-3	3.649456E-3	5.913313E-3	2.308481E-2	1.021969E-2
2.805060E+2	-5.705821E-3	-9.642446E-3	4.288956E-4	9.372175E-3	-8.654566E-4	-9.659119E-4	-1.364772E-3	-8.558939E-3	4.515048E-3	-2.048301E-3	-7.070937E-3	-7.332426E-4	-5.204100E-3	-5.375887E-3	-1.303863E-3	1.145487E-2	-5.341587E-3	-1.229644E-2	2.853271E-3	-1.144997E-2	1.244487E-3	2.504521E-3	-7.820083E-3	5.353957E-3	5.147064E-4	4.738288E-3	-5.965673E-3	-8.367290E-3	6.508906E-4	8.434176E-3	-1.341683E-2	2.175865E-3	-1.216170E-3	1.641147E-3	-5.954224E-3	-2.268923E-3	-3.958989E-3	-1.566675E-3	1.153227E-3	-2.589809E-3	-1.252315E-2	1.512525E-2	-1.193398E-2	6.829796E-4	-1.130165E-3	5.570744E-4	-1.487587E-2	1.995060E-3	-7.299203E-3	4.067952E-3	-7.791017E-3	2.159993E-3	1.543639E-3	-7.982446E-3	-4.785650E-3	-2.779826E-3	-1.300425E-2	-1.550438E-2	-2.414622E-3	-7.176830E-3	-8.862877E-3	-6.840589E-3	3.174341E-3	2.426462E-3	2.145162E-3	-9.116981E-3	6.098052E-3	-2.407594E-3	1.251499E-3	8.001346E-4	-1.172011E-3	1.014497E-2	-1.110185E-2	-1.702928E-3	3.456550E-3	7.925757E-3	-1.378971E-2	-2.435959E-3	1.015790E-3	-6.202082E-3	-5.542985E-3	-2.565944E-3	-6.227058E-3	1.269462E-3	1.009198E-2	-7.481296E-4	-1.392754E-2	2.593546E-3	2.133114E-3	-3.872581E-3	3.117205E-3	-7.500806E-3	-1.031202E-2	-7.051531E-3	-3.343704E-3	-1.467445E-3	-1.840118E-4	7.965274E-3	-1.131969E-2	-8.530186E-3	-1.322175E-2	-4.094411E-3	1.695487E-3	-1.812212E-3	1.239226E-2	-4.976542E-3	-8.580964E-3	2.798029E-3	-5.351236E-4	-8.645432E-4	2.212086E-3	1.002462E-2	-1.180405E-3	3.929205E-3	5.614372E-3	1.943453E-3	2.084513E-4	-8.917307E-3	-2.320581E-3	-3.243162E-3	-9.529813E-4	-1.239968E-3	4.885362E-3	-8.831546E-3	-3.538918E-3	-4.259007E-3	2.994783E-3	-8.690837E-3	4.368900E-3	-1.613955E-2	5.192062E-3	5.161094E-4	1.267373E-3	-8.987695E-4	-5.374700E-3	6.559435E-3	-3.190579E-3	1.485686E-6	5.910068E-3	3.020166E-3	7.502629E-3	-9.338038E-3	1.880407E-3	-7.602000E-3	8.255881E-3	-3.120868E-3	-6.158646E-3	-2.925860E-3	-9.978613E-3	3.213592E-4	-1.558358E-3	-4.297829E-4	-3.760291E-3	-8.644803E-3	-7.611234E-3	4.391276E-4	-8.464026E-4	9.536841E-3	-4.432854E-3	-3.811181E-3	5.020872E-3	1.355410E-2	-1.056915E-3	-4.286665E-3	-1.099298E-2	-9.105937E-3	-4.498408E-3	4.862628E-3	5.409602E-3	1.089942E-2	4.463930E-3
2.810070E+2	-4.150545E-3	-6.454029E-3	3.411563E-3	2.398326E-3	-7.315570E-3	1.900639E-3	1.105946E-2	7.809826E-3	1.087647E-3	3.262266E-3	-4.706615E-3	-2.914955E-3	1.666373E-3	2.930763E-3	2.940045E-3	2.466208E-3	-1.431853E-4	5.685909E-3	1.886324E-3	2.151146E-3	2.956020E-4	-1.335101E-2	5.371025E-3	-9.469331E-3	1.344563E-2	7.201154E-3	-6.915316E-3	-8.225863E-3	3.311136E-3	5.459237E-3	8.879727E-4	-4.778112E-3	-5.304496E-3	-7.699084E-4	1.248909E-5	2.736624E-3	5.602943E-3	-2.566415E-4	-6.154099E-4	-7.566984E-3	7.402348E-3	4.210209E-3	1.375876E-4	-1.508631E-3	1.324402E-3	-4.875944E-3	-1.757649E-3	-4.685364E-3	-4.472575E-3	5.540522E-3	5.121075E-3	-1.689765E-3	-6.130357E-3	1.654254E-3	9.922731E-3	-1.363857E-2	8.387259E-4	-1.105240E-3	3.854971E-3	-2.573795E-3	-1.363961E-2	1.239696E-2	2.262555E-3	5.752004E-3	-1.122839E-2	-2.618398E-4	-7.149800E-3	6.470231E-3	-6.047002E-3	-3.420990E-3	2.106575E-3	-5.513721E-3	-2.935895E-3	-1.052107E-2	-9.708952E-3	-1.434358E-2	-1.293135E-3	-1.040546E-3	1.394048E-2	-2.887438E-3	3.421413E-3	-6.265479E-3	1.066291E-2	1.855462E-4	-4.547841E-3	4.222754E-3	4.438558E-3	6.517964E-4	5.079791E-3	-6.088526E-3	2.068814E-3	-2.831859E-3	-3.513248E-3	4.405897E-3	-5.626786E-3	-2.651681E-4	1.462034E-3	8.162332E-3	-4.594073E-3	-5.935807E-3	-3.089582E-3	-5.079223E-3	-3.768144E-3	-5.793682E-3	-6.015435E-3	-9.684444E-3	-2.586641E-3	4.253412E-3	-1.733831E-3	1.661168E-2	5.607118E-3	4.470929E-3	-1.619572E-2	-7.570298E-3	-2.699613E-3	-5.084662E-3	-2.347130E-3	4.858906E-3	-6.426239E-3	-2.990923E-3	5.065189E-3	-1.080432E-2	5.115806E-3	8.446905E-3	-1.623171E-4	-2.986948E-3	-4.843380E-3	-2.134598E-3	1.581395E-3	3.451444E-3	6.745427E-3	-8.581190E-3	1.540994E-3	-5.252080E-3	3.882831E-3	-9.051209E-4	-6.853082E-3	5.179031E-3	-6.014441E-3	-1.134493E-2	1.276277E-3	-5.763609E-3	2.052068E-2	3.137393E-3	-7.620663E-3	3.725722E-3	2.923935E-3	5.259215E-3	9.042042E-4	-7.583375E-3	-1.244664E-2	7.661096E-3	-6.233204E-3	7.905048E-3	-5.241878E-4	3.372640E-3	-9.005272E-3	2.032699E-4	1.966537E-3	6.191968E-3	-1.319145E-2	7.579915E-3	4.077413E-3	5.456269E-3	7.259722E-5	1.633855E-3	-4.307519E-3	-5.221652E-3	-1.077933E-2	-3.370339E-3	-6.175145E-3
2.815030E+2	1.054648E-2	1.673809E-2	7.744458E-4	2.583169E-3	4.926714E-3	2.096064E-3	-3.446440E-3	3.030966E-3	3.699487E-3	1.381601E-2	9.985410E-3	-3.911547E-3	-3.557791E-4	-1.091096E-2	-2.985397E-3	-1.442046E-3	8.917647E-3	7.081318E-3	2.083745E-3	1.121967E-3	1.645016E-3	3.975529E-3	4.653062E-3	6.906427E-3	-8.092907E-3	-1.776093E-3	5.496322E-3	3.831991E-3	7.265067E-3	-4.945959E-3	1.085893E-3	2.574199E-3	1.630748E-2	4.607566E-3	8.350869E-3	6.578470E-3	5.831473E-3	5.696022E-3	6.492545E-3	8.138518E-3	1.268963E-2	6.951320E-3	3.652576E-3	2.249135E-3	1.186143E-2	5.414089E-3	1.711587E-3	-5.604861E-3	-1.621971E-3	-3.324435E-3	9.173533E-3	-2.859730E-3	9.754807E-3	-5.264961E-3	1.026616E-2	5.328378E-3	8.595372E-3	-2.184243E-3	-6.952204E-3	6.599570E-3	7.551010E-3	-2.884034E-3	3.622168E-3	-4.301413E-3	2.544975E-3	-1.331402E-3	1.643586E-3	3.051925E-3	1.704793E-3	4.516021E-3	-2.888903E-3	-6.385538E-3	5.327771E-3	-3.941313E-3	-1.288010E-2	3.681859E-3	1.550205E-2	4.119407E-3	-6.550646E-4	3.660713E-3	-5.203232E-3	-8.839084E-4	-5.900648E-3	-1.575989E-2	-5.631366E-3	5.662971E-3	2.543424E-3	7.276758E-3	6.705838E-3	1.206591E-2	-1.143594E-2	1.905932E-3	6.931848E-4	-1.031527E-3	1.953226E-3	8.049363E-3	1.064209E-2	1.889080E-3	-4.328173E-3	8.945133E-3	7.153935E-3	-2.530161E-3	-1.326491E-3	2.768304E-3	-5.834579E-3	2.535148E-4	-3.548754E-3	1.201796E-2	-1.539618E-3	4.159244E-3	-2.664802E-3	2.371609E-3	5.279257E-3	1.607182E-2	1.175364E-3	2.144460E-2	6.209911E-3	1.649763E-2	-1.055211E-2	-1.649088E-3	-6.164824E-3	-8.281930E-4	2.970070E-3	8.693372E-3	-1.511688E-3	-5.034801E-3	1.042009E-2	9.268182E-3	-5.987241E-3	8.878428E-3	9.662254E-3	9.540642E-3	1.082118E-2	4.140917E-3	6.793967E-4	-4.069240E-3	1.675317E-2	1.680783E-3	2.550767E-4	-2.370549E-3	1.488534E-3	8.053550E-3	-1.041310E-2	-1.231980E-3	1.543969E-3	-5.419194E-3	-4.506690E-3	4.459145E-3	-2.173999E-4	-4.814718E-4	2.002717E-2	2.426631E-3	-2.770260E-4	-1.942249E-3	2.014468E-3	6.047397E-3	-2.887283E-3	1.967341E-2	5.332608E-3	-8.000275E-3	7.121974E-3	-5.933279E-3	-1.055823E-2	3.203284E-3	-1.073824E-3	-3.460866E-3	2.866223E-3	1.269679E-3	3.804260E-3	-8.983706E-3	-5.991486E-4
2.820040E+2	3.391626E-3	-4.810276E-3	9.208878E-3	-3.466969E-4	1.290250E-2	-6.652344E-4	1.002447E-2	-7.032669E-3	3.667585E-3	8.282380E-4	1.106289E-2	-1.593853E-3	3.025291E-3	5.426726E-3	1.640682E-2	2.633664E-3	5.125511E-3	1.056915E-3	8.935599E-3	1.076023E-3	6.195963E-3	-4.649466E-3	4.656198E-3	5.795487E-3	9.796073E-3	-1.808741E-3	-3.434483E-3	9.734404E-3	-7.755854E-3	-2.849991E-3	1.123156E-2	6.638774E-3	-9.006461E-4	6.670077E-4	-3.350790E-3	1.688404E-3	-3.689997E-3	3.365273E-3	-1.410365E-3	5.023313E-3	1.479776E-3	-1.674355E-2	3.363040E-4	9.385773E-3	-1.927715E-3	-1.597274E-2	1.146268E-2	1.399302E-2	1.041491E-2	5.277002E-4	7.859407E-3	-1.553313E-3	-4.872133E-3	8.978338E-3	2.366524E-3	9.733596E-3	-1.275769E-2	1.473258E-2	7.694397E-3	-5.780498E-3	1.122955E-2	1.863451E-3	-3.127209E-3	-6.405584E-3	1.606404E-2	-5.126475E-3	-3.315166E-3	-8.238345E-3	1.661920E-3	5.587895E-3	9.583040E-3	3.164068E-3	3.929033E-3	1.531508E-2	9.463173E-3	4.821373E-3	2.997679E-3	1.142785E-2	-1.451259E-2	3.631408E-3	2.125956E-2	6.835727E-3	8.468962E-3	4.140273E-3	-4.286528E-3	3.219516E-3	4.667123E-3	4.038951E-3	1.353238E-2	4.836976E-3	2.248732E-3	3.009291E-3	8.667080E-3	1.481461E-2	1.053429E-2	6.005077E-3	1.595585E-3	-9.850760E-3	6.234089E-3	-3.328917E-3	7.110442E-3	9.489751E-4	1.336434E-2	7.970614E-3	6.146392E-3	5.098387E-3	-1.239358E-3	1.947235E-3	2.039514E-2	1.812594E-3	2.637401E-3	9.295764E-3	9.792559E-3	-2.226731E-3	7.250885E-3	3.308568E-4	-9.139784E-3	-4.070561E-3	8.856343E-3	6.155876E-3	-7.645927E-3	6.472015E-3	-4.214178E-3	1.592535E-2	2.008925E-2	3.841457E-3	1.119636E-3	1.036077E-2	1.877079E-2	2.055786E-2	1.496675E-2	5.214192E-4	-1.508655E-2	6.645833E-4	-1.629867E-3	1.074970E-2	1.538565E-3	1.642176E-3	-9.546882E-3	1.128684E-4	4.201554E-3	1.936692E-2	-6.968726E-3	6.779655E-3	2.097234E-2	1.190675E-2	5.504353E-4	8.212896E-3	9.164919E-3	1.454276E-2	-1.007930E-2	-1.751631E-3	5.317121E-3	6.864328E-3	5.449508E-3	8.830699E-5	8.585191E-3	5.193761E-3	8.423088E-3	-1.295371E-3	1.328443E-3	-3.469773E-3	4.274546E-3	-1.037208E-2	7.120501E-3	2.891478E-3	1.677081E-3	2.532617E-3	2.033052E-2	1.723544E-2	-6.048586E-3
2.825040E+2	6.465315E-3	-7.732644E-3	-9.038673E-3	-5.944910E-3	7.813931E-3	1.175558E-2	-4.536008E-3	2.204271E-2	-9.807932E-4	-2.889016E-3	5.684947E-3	1.751996E-2	8.883219E-3	1.618925E-2	5.374042E-3	-2.703896E-4	2.479680E-4	1.562638E-2	1.492465E-2	1.263160E-3	-4.583851E-4	6.299440E-3	8.897010E-3	-6.961042E-3	7.459587E-3	-6.252390E-3	1.126382E-2	7.569961E-3	1.204971E-3	5.002939E-4	1.248765E-2	5.828235E-3	7.497460E-4	3.453527E-3	9.710202E-3	5.539873E-3	1.196958E-2	1.162256E-2	7.673224E-3	1.144211E-2	4.251579E-3	1.341208E-2	1.255870E-2	4.113699E-5	6.117356E-4	1.576631E-2	1.280729E-2	1.075110E-2	9.359873E-3	8.495242E-3	8.096568E-3	-5.109680E-5	-1.217021E-3	8.305855E-4	5.953961E-3	7.727112E-3	3.733204E-3	-2.033524E-3	4.231736E-3	1.464789E-2	2.776690E-3	6.875331E-3	1.162613E-2	7.269731E-3	7.321169E-3	1.299921E-3	1.165704E-2	-4.316507E-3	4.408427E-3	1.355783E-2	4.569559E-3	1.404802E-2	1.086272E-2	9.078498E-3	8.564825E-3	5.028182E-3	3.175747E-3	-1.052792E-2	4.862279E-3	-2.556794E-3	8.204909E-4	1.484735E-2	2.653631E-3	9.333086E-3	4.074008E-3	4.626128E-3	1.652468E-3	7.453035E-3	-2.816849E-3	2.186579E-2	2.371775E-2	8.901261E-3	-4.544189E-3	1.050960E-2	7.052763E-3	6.237554E-3	6.266620E-3	5.934940E-3	-2.847753E-3	9.127261E-3	1.740186E-2	8.214301E-3	9.044168E-3	1.900366E-3	3.670417E-3	1.388117E-2	9.535808E-3	-2.877806E-3	2.720274E-3	8.985001E-3	4.992951E-3	-4.457035E-3	1.765079E-2	1.863797E-3	7.473495E-3	-7.999594E-4	1.475045E-2	1.822314E-3	1.235219E-2	9.769270E-3	-4.630684E-3	2.020853E-2	7.510137E-4	-6.941535E-3	3.262689E-3	-3.786792E-3	-3.324361E-3	-9.674595E-3	-1.522476E-2	3.812947E-3	-6.302134E-3	8.428562E-3	3.220461E-3	-2.571444E-3	3.130195E-3	7.222804E-4	1.555905E-2	-1.902404E-3	2.000850E-2	-9.594485E-4	9.955697E-3	8.239997E-3	1.288440E-3	4.696069E-3	3.176807E-3	8.106348E-3	2.017562E-3	-1.751201E-3	8.016018E-3	-2.673767E-3	5.728294E-3	1.303613E-2	1.399728E-2	2.104062E-2	-3.628913E-3	-2.130859E-3	-7.095655E-3	1.773014E-3	3.045622E-4	9.019519E-3	4.389671E-3	-4.557799E-3	7.460418E-4	2.494575E-2	7.316259E-3	-4.375466E-3	1.470044E-2	-1.911441E-3	-7.910671E-3	-1.471920E-2	1.584777E-2
2.830030E+2	7.309853E-3	1.342529E-2	9.042968E-3	1.830745E-2	1.039958E-2	3.645243E-2	1.394014E-2	2.910160E-3	4.814460E-3	1.380361E-2	1.463514E-2	3.062932E-3	-7.219834E-3	4.215465E-3	6.829663E-5	1.735612E-2	1.154036E-2	4.512915E-3	5.484917E-3	7.205466E-3	1.215845E-2	7.293243E-3	8.876287E-3	6.027035E-3	-6.843378E-4	2.614284E-2	2.035993E-2	3.735989E-3	3.393189E-3	1.106266E-2	7.330695E-3	2.465870E-2	-1.226461E-3	4.306772E-4	1.441095E-2	-1.447827E-2	8.332358E-3	3.219017E-3	9.820937E-3	1.242881E-2	1.250490E-4	-6.196897E-4	1.481951E-2	4.611140E-3	2.708058E-3	5.337438E-3	8.440306E-3	-4.703104E-3	1.733371E-2	8.201147E-3	3.557677E-5	9.029468E-3	3.009960E-3	9.066000E-3	4.595831E-3	1.953817E-3	1.741614E-2	1.342738E-2	8.995152E-3	9.997986E-3	1.260028E-2	1.162761E-2	7.046577E-3	7.228487E-3	2.496045E-2	2.181415E-3	1.034825E-2	1.698791E-2	4.752590E-3	1.127061E-3	1.399748E-2	1.086458E-2	1.061887E-2	-5.714402E-3	7.344879E-3	1.096296E-2	1.279257E-2	-2.318935E-3	8.111659E-3	2.532527E-2	9.401678E-3	6.718071E-3	1.338615E-2	1.426781E-2	2.604871E-2	2.773965E-2	1.548041E-3	1.718078E-2	9.392748E-3	8.497994E-3	1.359243E-2	1.574102E-2	5.849774E-3	2.671829E-2	6.824413E-3	3.163256E-3	2.637911E-3	1.885849E-2	-6.576329E-4	-3.522002E-3	1.351489E-2	9.338392E-3	1.233756E-2	2.746628E-2	2.378790E-2	7.528415E-3	-1.248348E-4	-7.099526E-3	-1.180873E-2	1.005812E-2	1.475464E-2	9.356201E-3	-2.935302E-3	8.083784E-3	2.230886E-2	1.089343E-2	-2.509734E-3	7.387666E-3	2.016253E-2	6.382256E-3	1.083656E-2	6.472184E-3	9.010713E-3	2.504210E-3	1.054160E-2	1.062764E-2	1.060250E-2	1.047676E-2	1.388281E-2	8.749499E-3	4.069703E-3	6.857522E-3	-1.066597E-3	5.425413E-3	2.740963E-2	5.384510E-3	1.535848E-2	7.870917E-3	1.495623E-2	7.655279E-3	-5.890878E-3	8.149560E-3	3.284838E-2	-2.538132E-3	-1.120445E-2	-1.791050E-3	6.871408E-3	1.679734E-3	1.725229E-2	9.909544E-3	1.016403E-2	1.360679E-3	1.223045E-2	8.142611E-3	-8.750719E-3	2.527452E-2	-3.662675E-4	1.251452E-2	-9.367704E-4	1.809562E-2	-5.085756E-4	6.473436E-3	1.307093E-2	1.670477E-2	8.303574E-3	1.865312E-3	8.786676E-3	-4.110821E-3	2.439790E-2	3.817481E-3	3.345971E-2
2.835040E+2	1.417793E-2	4.892969E-3	3.206483E-2	3.432700E-2	2.540771E-2	3.928137E-2	2.014127E-2	2.333745E-2	1.843434E-2	3.236923E-2	1.912723E-2	1.250118E-2	1.866195E-2	1.548441E-3	4.241094E-2	1.627816E-2	2.038462E-2	2.046228E-2	1.953569E-2	2.351759E-2	1.539813E-2	3.405739E-2	1.298709E-2	1.262958E-2	1.617259E-2	4.166803E-2	1.341589E-2	9.549398E-3	2.451349E-2	1.757725E-2	4.744646E-2	1.951053E-2	5.988728E-3	1.767669E-2	-2.749646E-3	2.786796E-2	2.228201E-2	1.358465E-2	2.204821E-2	4.127879E-2	1.895016E-2	1.972269E-2	3.062688E-2	1.048541E-2	3.106473E-2	1.668700E-2	8.306892E-3	2.358776E-2	2.407864E-2	7.757605E-3	3.299726E-2	3.229862E-2	7.315952E-3	2.985715E-2	3.114091E-2	9.683774E-3	3.407070E-2	4.414167E-2	7.427343E-3	2.139607E-2	1.964544E-3	3.919316E-3	1.001193E-3	2.207493E-2	1.152830E-2	3.432327E-2	4.338992E-2	2.059082E-2	1.419098E-2	1.690842E-2	2.798438E-2	4.097553E-3	2.140638E-2	2.572624E-2	9.452584E-3	5.830181E-3	3.402541E-2	2.783368E-2	2.575146E-2	1.988602E-2	3.957390E-2	1.705987E-2	1.938372E-2	1.663861E-2	3.014929E-2	1.279396E-2	3.383640E-2	1.041707E-2	6.149464E-3	2.815858E-2	2.371471E-2	8.498111E-3	2.075613E-2	1.973296E-2	6.458194E-3	1.878958E-2	1.752742E-2	1.857804E-2	1.934370E-2	3.163646E-2	2.636075E-2	2.134302E-2	3.567641E-2	2.002981E-2	1.389110E-2	2.878530E-2	2.144753E-2	1.972480E-2	2.452248E-2	1.344511E-2	2.695228E-2	2.718569E-2	2.475551E-2	1.983984E-2	2.097704E-2	2.150953E-2	2.001035E-2	1.066404E-2	2.810270E-2	7.392412E-3	2.673655E-2	2.778152E-2	4.102507E-2	8.397601E-3	-1.361184E-3	1.618119E-2	4.403569E-3	3.243205E-2	2.456209E-2	1.917290E-2	4.398296E-2	1.978341E-2	2.129607E-2	3.869037E-2	1.915135E-2	2.554695E-2	3.363427E-2	1.529398E-2	2.611305E-2	1.122004E-2	1.498127E-2	1.738128E-2	3.774155E-2	1.138854E-2	3.930543E-2	1.008835E-2	2.371556E-2	1.304496E-2	2.388806E-2	1.803494E-2	2.856008E-2	3.896522E-2	2.346812E-2	3.025186E-2	2.798481E-2	1.775514E-2	2.147306E-2	1.983844E-2	3.662774E-2	3.787742E-2	4.653427E-2	4.125964E-2	3.215412E-2	1.501606E-2	3.061741E-2	2.596526E-2	3.154018E-2	4.778315E-3	3.307671E-2	7.788214E-3	2.896548E-2
2.840050E+2	6.852231E-2	6.230989E-2	7.354556E-2	5.975945E-2	5.762654E-2	5.487923E-2	5.365775E-2	6.806121E-2	6.634073E-2	4.448928E-2	6.377447E-2	4.828475E-2	7.395225E-2	6.186894E-2	4.808181E-2	5.955393E-2	7.241666E-2	3.545814E-2	5.091223E-2	4.407497E-2	4.964732E-2	3.759486E-2	8.852790E-2	4.106642E-2	5.852112E-2	6.863057E-2	5.788051E-2	6.196752E-2	8.023274E-2	5.709500E-2	6.080420E-2	5.096553E-2	5.407779E-2	4.391247E-2	7.077902E-2	7.141265E-2	7.721440E-2	6.329466E-2	6.680780E-2	6.335723E-2	5.247861E-2	5.265864E-2	6.296508E-2	3.409719E-2	5.178524E-2	8.129386E-2	6.451712E-2	4.066920E-2	5.012298E-2	5.860007E-2	6.150834E-2	4.493199E-2	5.627677E-2	4.771463E-2	5.965633E-2	6.565935E-2	7.039979E-2	4.014697E-2	4.191373E-2	9.485480E-2	6.697485E-2	5.289875E-2	5.727978E-2	6.247456E-2	7.814899E-2	6.484869E-2	4.484884E-2	5.997332E-2	4.591933E-2	5.441617E-2	7.097683E-2	7.022500E-2	7.341022E-2	6.352882E-2	4.935339E-2	7.586039E-2	4.977545E-2	7.052351E-2	4.046466E-2	4.887732E-2	5.648520E-2	5.894228E-2	6.984630E-2	4.131579E-2	5.005142E-2	5.183077E-2	4.768566E-2	5.198385E-2	6.236447E-2	7.112688E-2	6.962763E-2	6.097333E-2	6.849146E-2	3.998309E-2	5.936322E-2	5.940230E-2	5.644327E-2	7.174059E-2	5.530748E-2	6.261857E-2	5.936997E-2	6.460316E-2	6.204425E-2	4.100024E-2	5.013137E-2	4.932623E-2	5.351033E-2	4.597033E-2	8.367867E-2	5.846395E-2	5.744482E-2	4.668326E-2	6.122837E-2	5.664848E-2	7.244959E-2	5.320198E-2	6.811316E-2	4.893814E-2	5.558191E-2	5.213945E-2	5.059439E-2	4.579281E-2	6.131117E-2	5.667278E-2	7.280886E-2	7.713331E-2	5.545459E-2	5.260457E-2	5.017555E-2	6.149987E-2	6.237066E-2	4.927116E-2	5.244927E-2	4.739805E-2	5.996680E-2	5.468294E-2	2.904126E-2	6.223005E-2	7.623292E-2	5.472007E-2	5.684910E-2	6.763186E-2	6.830354E-2	5.119526E-2	3.904173E-2	5.613746E-2	5.309092E-2	5.012815E-2	6.760768E-2	5.695879E-2	7.453481E-2	8.208100E-2	6.323071E-2	5.827765E-2	7.313672E-2	5.375388E-2	6.518904E-2	5.656115E-2	4.891864E-2	4.748417E-2	8.282250E-2	6.776750E-2	6.611992E-2	7.011642E-2	4.915416E-2	6.766538E-2	5.980703E-2	7.443032E-2	3.185274E-2	5.823253E-2	6.434996E-2
2.841030E+2	8.036733E-2	5.145401E-2	8.375282E-2	7.595541E-2	7.304411E-2	6.293134E-2	6.917303E-2	7.060212E-2	5.221223E-2	6.180885E-2	5.042033E-2	6.817649E-2	5.094373E-2	4.264523E-2	6.891626E-2	6.622797E-2	5.657704E-2	5.270889E-2	6.914571E-2	6.729680E-2	7.748830E-2	5.918473E-2	6.547135E-2	5.126440E-2	7.389896E-2	9.216127E-2	8.542816E-2	5.146138E-2	6.698431E-2	7.084728E-2	6.860643E-2	3.976869E-2	6.392187E-2	8.838169E-2	7.581685E-2	6.361014E-2	8.562866E-2	7.183714E-2	8.438777E-2	7.584294E-2	5.602578E-2	5.361212E-2	7.837982E-2	6.682286E-2	6.696226E-2	8.653176E-2	5.999367E-2	7.138754E-2	6.350636E-2	7.918174E-2	6.253192E-2	6.720010E-2	7.884025E-2	7.043779E-2	7.412436E-2	6.930035E-2	7.259604E-2	7.877720E-2	6.637491E-2	8.335638E-2	7.105633E-2	5.685160E-2	6.818162E-2	7.290628E-2	6.856876E-2	5.252796E-2	3.897659E-2	7.730626E-2	6.185533E-2	6.648683E-2	5.660544E-2	5.097431E-2	6.119242E-2	4.099146E-2	6.967134E-2	6.713418E-2	6.239777E-2	5.642695E-2	7.018546E-2	8.539330E-2	7.476107E-2	6.169486E-2	3.220626E-2	8.110913E-2	6.711115E-2	6.348149E-2	8.364315E-2	6.454596E-2	6.419316E-2	6.992839E-2	6.815105E-2	7.560777E-2	5.061973E-2	6.294878E-2	7.237427E-2	6.839939E-2	7.646682E-2	7.169417E-2	6.185883E-2	7.303335E-2	6.386867E-2	7.362125E-2	7.903403E-2	6.219615E-2	6.807553E-2	5.935653E-2	7.097116E-2	6.027840E-2	7.910175E-2	8.457835E-2	5.748853E-2	6.747527E-2	3.891697E-2	4.901407E-2	6.188233E-2	7.248244E-2	7.819902E-2	6.828682E-2	1.011149E-1	5.442855E-2	6.210487E-2	6.106157E-2	6.243553E-2	7.990168E-2	5.707307E-2	7.738453E-2	6.527594E-2	6.684378E-2	7.232325E-2	7.510978E-2	6.187405E-2	7.906350E-2	7.004646E-2	4.835596E-2	8.202328E-2	5.225328E-2	6.493139E-2	5.257288E-2	7.752187E-2	5.152160E-2	6.363935E-2	5.789505E-2	8.195734E-2	6.455699E-2	8.298725E-2	5.838728E-2	8.833613E-2	8.374034E-2	8.312938E-2	7.917061E-2	5.793919E-2	7.475410E-2	7.473492E-2	8.662488E-2	5.449462E-2	6.094649E-2	7.239267E-2	6.010380E-2	5.101210E-2	5.802240E-2	7.637037E-2	7.164314E-2	6.594523E-2	6.546157E-2	7.491009E-2	8.170768E-2	6.847878E-2	3.371936E-2	8.224033E-2	6.056587E-2	1.016931E-1
2.842040E+2	7.536043E-2	5.248135E-2	9.282014E-2	8.191449E-2	4.965001E-2	8.773574E-2	8.652951E-2	7.050035E-2	8.673097E-2	6.010877E-2	7.217584E-2	4.879252E-2	7.691678E-2	5.896086E-2	6.121153E-2	7.078233E-2	6.889589E-2	6.814314E-2	5.529164E-2	8.595769E-2	7.767209E-2	7.560334E-2	6.563408E-2	7.952291E-2	9.106223E-2	6.973233E-2	6.740521E-2	7.329253E-2	6.127703E-2	1.012295E-1	7.651545E-2	7.772548E-2	6.255134E-2	5.543943E-2	7.587350E-2	6.474901E-2	7.213205E-2	8.440258E-2	8.155770E-2	8.062510E-2	7.657467E-2	6.835872E-2	6.662395E-2	1.006257E-1	7.261484E-2	6.574156E-2	1.063728E-1	8.655019E-2	6.597893E-2	7.624071E-2	6.512956E-2	9.041518E-2	6.764513E-2	7.693819E-2	6.320141E-2	4.269541E-2	7.513573E-2	9.151057E-2	1.103856E-1	7.245447E-2	8.281814E-2	1.105383E-1	7.434008E-2	7.201688E-2	5.777671E-2	9.896705E-2	6.816937E-2	8.826239E-2	7.832687E-2	6.527532E-2	8.049269E-2	7.883439E-2	7.450993E-2	8.133797E-2	7.340881E-2	5.802406E-2	7.385725E-2	7.919042E-2	7.153240E-2	6.595136E-2	8.962698E-2	7.564773E-2	8.550772E-2	6.618749E-2	6.064780E-2	7.527321E-2	6.510618E-2	4.584238E-2	6.789682E-2	7.008562E-2	6.534576E-2	7.200090E-2	6.726138E-2	4.964903E-2	9.125968E-2	9.635188E-2	6.843581E-2	7.921881E-2	8.042371E-2	7.714344E-2	8.261535E-2	6.632601E-2	8.782223E-2	8.178511E-2	9.196466E-2	6.338069E-2	6.847537E-2	9.713855E-2	8.821136E-2	7.768557E-2	7.623117E-2	1.030652E-1	8.367951E-2	8.333922E-2	5.110324E-2	8.541289E-2	7.805166E-2	5.851837E-2	6.853242E-2	8.993744E-2	7.294849E-2	5.155812E-2	8.059817E-2	6.806332E-2	8.341273E-2	8.983420E-2	8.177211E-2	1.024468E-1	7.380547E-2	7.375357E-2	7.185075E-2	9.166323E-2	1.139581E-1	8.470317E-2	8.716813E-2	9.225301E-2	6.912185E-2	7.812801E-2	8.284513E-2	7.186978E-2	6.486057E-2	9.384167E-2	8.079695E-2	8.714436E-2	8.110830E-2	6.828079E-2	6.755426E-2	6.713780E-2	8.007850E-2	6.150433E-2	9.201871E-2	5.445370E-2	9.142063E-2	6.460534E-2	5.559684E-2	9.704894E-2	6.272359E-2	9.025629E-2	8.279524E-2	6.652665E-2	7.613025E-2	7.704156E-2	6.989303E-2	7.700106E-2	5.823571E-2	8.315007E-2	7.359434E-2	6.005707E-2	6.043649E-2	1.161106E-1	6.168966E-2
2.843030E+2	6.935307E-2	5.942886E-2	9.008792E-2	8.223625E-2	6.452035E-2	9.253369E-2	8.421532E-2	8.177901E-2	7.547701E-2	8.588607E-2	6.761671E-2	6.843243E-2	6.029185E-2	4.897200E-2	8.059946E-2	8.576454E-2	7.671602E-2	8.290126E-2	7.068784E-2	7.016450E-2	6.738793E-2	9.718980E-2	6.606464E-2	6.807761E-2	7.020417E-2	7.255963E-2	9.335167E-2	7.753242E-2	9.296209E-2	9.347418E-2	8.135341E-2	7.359412E-2	6.672719E-2	7.859701E-2	7.225083E-2	7.560568E-2	8.621424E-2	6.332113E-2	7.113644E-2	9.133204E-2	7.963942E-2	7.966676E-2	7.663435E-2	5.793824E-2	6.751385E-2	6.360351E-2	6.746794E-2	8.446453E-2	5.619699E-2	5.232331E-2	9.359212E-2	8.933557E-2	5.425186E-2	7.995715E-2	8.346245E-2	5.392968E-2	7.174516E-2	1.006819E-1	5.725717E-2	7.283042E-2	7.623031E-2	5.706204E-2	6.246869E-2	8.043352E-2	7.875359E-2	6.626761E-2	7.123160E-2	9.574473E-2	8.114480E-2	8.150031E-2	8.434974E-2	7.692520E-2	7.349130E-2	9.019162E-2	8.483434E-2	7.794014E-2	8.727290E-2	9.312753E-2	7.546065E-2	8.727165E-2	9.282675E-2	7.318268E-2	7.145290E-2	8.431149E-2	7.047248E-2	7.434774E-2	5.723070E-2	7.433098E-2	7.680225E-2	9.413350E-2	6.842551E-2	6.365644E-2	5.246695E-2	7.499738E-2	6.466948E-2	8.797613E-2	8.124173E-2	7.672239E-2	5.909737E-2	8.425788E-2	8.055626E-2	7.702016E-2	7.582077E-2	9.601917E-2	9.067469E-2	7.049250E-2	6.886064E-2	9.761919E-2	5.468038E-2	7.569271E-2	9.892022E-2	8.702358E-2	5.133017E-2	7.239927E-2	6.884138E-2	5.410465E-2	7.218301E-2	7.396897E-2	6.537149E-2	9.040695E-2	7.827708E-2	7.613592E-2	8.363703E-2	5.780690E-2	8.864600E-2	7.470066E-2	8.478957E-2	5.620774E-2	7.818100E-2	8.741060E-2	6.930576E-2	9.356486E-2	6.994938E-2	7.775627E-2	8.634631E-2	7.522387E-2	7.027689E-2	9.927288E-2	9.265302E-2	8.888127E-2	6.801084E-2	6.518411E-2	8.131602E-2	7.514231E-2	8.461483E-2	8.579370E-2	7.499565E-2	8.433401E-2	6.536934E-2	9.419024E-2	7.907317E-2	7.885421E-2	9.006876E-2	8.592172E-2	6.861689E-2	7.542719E-2	8.293281E-2	6.721676E-2	6.960405E-2	8.297341E-2	7.774364E-2	6.270015E-2	1.001906E-1	7.893529E-2	5.936845E-2	8.149090E-2	8.295311E-2	6.556111E-2	1.046970E-1	8.139502E-2	6.201115E-2
2.844010E+2	1.415826E-1	1.273975E-1	1.314360E-1	1.160447E-1	1.256428E-1	1.023005E-1	1.026786E-1	9.909029E-2	1.114473E-1	1.094959E-1	1.401981E-1	1.029849E-1	1.242286E-1	1.130708E-1	1.030658E-1	1.255233E-1	1.052690E-1	1.275515E-1	1.146934E-1	9.931400E-2	1.100977E-1	1.030080E-1	1.150865E-1	1.396744E-1	9.220808E-2	1.280501E-1	1.116381E-1	9.266421E-2	1.069361E-1	9.318220E-2	1.411953E-1	1.120397E-1	1.195224E-1	1.328465E-1	1.102530E-1	1.017852E-1	9.406450E-2	1.137305E-1	1.156200E-1	1.279696E-1	1.261439E-1	1.066843E-1	1.042299E-1	9.790429E-2	1.082119E-1	1.295120E-1	1.129172E-1	1.188315E-1	1.052309E-1	1.031415E-1	1.355230E-1	1.287855E-1	1.184774E-1	1.271581E-1	9.937409E-2	1.258562E-1	9.360049E-2	1.322519E-1	1.446389E-1	1.134723E-1	9.736247E-2	1.391357E-1	1.266210E-1	1.091043E-1	9.570572E-2	1.368044E-1	9.643348E-2	8.830258E-2	1.217839E-1	1.145327E-1	1.154553E-1	1.169239E-1	1.424704E-1	1.138244E-1	9.951807E-2	1.199457E-1	1.013559E-1	1.297548E-1	1.178955E-1	1.283993E-1	1.329501E-1	7.365550E-2	1.201095E-1	1.003349E-1	1.027021E-1	1.219447E-1	1.454571E-1	1.036726E-1	9.908241E-2	1.378407E-1	1.328867E-1	9.346193E-2	1.311611E-1	1.176553E-1	1.268396E-1	1.217978E-1	9.306104E-2	1.077436E-1	1.169748E-1	1.054748E-1	1.079966E-1	1.196877E-1	1.458796E-1	1.193441E-1	1.124980E-1	1.173531E-1	1.399459E-1	1.153239E-1	1.409386E-1	1.022893E-1	1.250852E-1	1.149795E-1	1.245437E-1	1.267611E-1	9.248120E-2	1.187675E-1	9.997629E-2	1.102705E-1	1.141760E-1	8.393328E-2	1.095455E-1	1.260260E-1	1.295599E-1	1.364234E-1	9.837359E-2	1.276308E-1	1.127429E-1	1.078441E-1	1.075283E-1	1.098879E-1	1.247917E-1	1.200343E-1	1.047069E-1	9.391682E-2	9.859055E-2	1.041218E-1	1.329480E-1	1.320778E-1	1.233360E-1	1.485298E-1	1.205146E-1	1.192245E-1	1.231986E-1	1.360688E-1	1.088878E-1	1.103247E-1	1.322601E-1	1.061467E-1	1.236272E-1	1.040892E-1	1.195981E-1	9.356672E-2	1.209095E-1	1.178636E-1	1.219659E-1	1.076647E-1	8.941264E-2	1.302247E-1	1.086190E-1	1.364267E-1	1.274166E-1	1.251854E-1	1.191338E-1	1.290592E-1	1.077467E-1	1.136195E-1	1.640701E-1	1.468824E-1	1.345336E-1	1.228581E-1	1.481683E-1
2.845030E+2	2.730100E-1	2.114282E-1	1.712418E-1	2.294346E-1	2.044224E-1	2.173312E-1	2.447554E-1	2.562456E-1	2.373645E-1	2.177595E-1	2.000315E-1	2.015347E-1	2.324479E-1	2.176402E-1	2.249474E-1	2.181844E-1	2.130663E-1	2.279491E-1	2.031247E-1	2.197618E-1	2.519097E-1	2.444857E-1	2.252655E-1	2.022709E-1	2.243480E-1	2.496259E-1	2.243970E-1	1.921242E-1	2.201786E-1	1.872676E-1	2.341998E-1	2.342634E-1	2.411815E-1	1.972439E-1	2.037356E-1	2.232679E-1	2.249684E-1	2.102979E-1	2.055048E-1	2.177474E-1	1.929598E-1	1.970371E-1	2.026635E-1	2.156622E-1	1.837950E-1	2.265000E-1	2.135235E-1	2.333226E-1	2.295197E-1	2.450773E-1	2.494565E-1	2.050760E-1	2.036942E-1	2.320480E-1	1.997562E-1	1.964335E-1	2.168954E-1	2.399564E-1	2.098048E-1	2.049852E-1	2.139803E-1	1.919898E-1	2.468396E-1	1.903772E-1	2.320111E-1	2.174533E-1	2.104045E-1	2.172089E-1	2.001443E-1	2.139414E-1	2.179024E-1	2.287127E-1	1.917924E-1	2.231738E-1	2.286863E-1	2.147990E-1	2.248800E-1	1.934326E-1	2.038957E-1	2.278900E-1	2.341742E-1	1.913972E-1	2.100796E-1	1.913436E-1	2.315857E-1	2.549635E-1	2.045433E-1	2.588576E-1	1.994097E-1	2.209606E-1	1.616419E-1	2.006273E-1	2.251811E-1	2.525830E-1	2.368687E-1	2.200957E-1	2.394929E-1	2.042026E-1	2.090731E-1	2.378863E-1	1.984007E-1	2.182151E-1	2.281311E-1	2.536803E-1	2.611596E-1	2.430100E-1	2.640177E-1	2.453304E-1	2.706119E-1	2.309135E-1	2.488269E-1	2.419086E-1	2.461432E-1	2.799927E-1	2.003408E-1	2.070900E-1	2.395520E-1	2.289716E-1	2.479197E-1	2.238864E-1	2.316074E-1	1.965097E-1	2.187629E-1	2.391833E-1	2.206203E-1	2.236731E-1	2.007850E-1	2.305976E-1	2.584802E-1	2.267505E-1	2.026960E-1	2.245338E-1	2.363306E-1	2.350035E-1	2.347295E-1	2.291302E-1	2.244436E-1	2.086011E-1	2.472583E-1	2.133336E-1	2.297186E-1	2.124363E-1	2.623407E-1	1.966026E-1	1.980000E-1	2.215139E-1	1.936455E-1	2.517597E-1	2.073814E-1	2.364734E-1	2.005751E-1	2.606541E-1	2.059571E-1	2.198264E-1	2.328540E-1	2.109616E-1	2.010390E-1	2.249806E-1	2.177564E-1	2.316613E-1	2.216791E-1	2.556612E-1	2.132169E-1	2.224063E-1	2.415130E-1	2.660578E-1	2.302152E-1	2.233255E-1	2.164417E-1	3.074897E-1	2.075356E-1
2.846040E+2	5.054782E-1	4.608981E-1	4.343003E-1	4.344417E-1	4.727422E-1	4.963608E-1	4.845414E-1	4.388845E-1	4.478466E-1	4.336998E-1	5.270415E-1	4.632045E-1	4.504283E-1	4.809230E-1	4.690645E-1	4.424178E-1	4.558791E-1	4.502992E-1	4.763905E-1	5.227858E-1	4.649042E-1	4.567548E-1	4.391739E-1	4.401187E-1	4.525917E-1	4.256503E-1	4.395978E-1	4.519807E-1	4.228511E-1	4.785104E-1	4.764250E-1	3.998606E-1	4.763030E-1	4.405229E-1	4.389605E-1	4.476690E-1	4.553243E-1	4.733991E-1	5.139146E-1	4.610167E-1	4.804810E-1	4.390304E-1	4.573202E-1	4.920848E-1	4.846313E-1	5.121045E-1	4.974755E-1	5.408755E-1	4.780276E-1	4.677824E-1	4.810267E-1	5.076213E-1	4.848002E-1	4.875410E-1	4.995140E-1	4.673174E-1	4.773315E-1	4.803474E-1	4.961891E-1	4.422113E-1	5.071522E-1	4.183437E-1	4.760267E-1	4.364760E-1	4.999092E-1	4.810012E-1	4.423446E-1	5.001282E-1	4.664313E-1	4.756240E-1	4.574241E-1	4.615236E-1	4.625902E-1	4.905997E-1	4.527171E-1	5.094640E-1	4.285669E-1	4.662719E-1	5.084457E-1	4.264198E-1	4.506112E-1	4.647894E-1	4.874962E-1	4.271311E-1	4.510623E-1	4.451144E-1	4.483308E-1	4.330823E-1	4.466722E-1	4.596477E-1	4.086258E-1	4.349204E-1	4.548054E-1	5.276349E-1	4.114782E-1	4.586632E-1	4.550058E-1	4.604854E-1	4.745650E-1	4.868700E-1	4.556349E-1	4.800107E-1	4.550407E-1	4.678577E-1	4.890444E-1	4.536722E-1	4.767086E-1	5.003217E-1	4.541114E-1	4.942159E-1	4.956107E-1	4.459030E-1	4.806255E-1	4.834196E-1	4.732462E-1	4.978270E-1	4.931232E-1	4.606591E-1	4.746783E-1	4.773563E-1	4.441146E-1	4.572283E-1	4.987704E-1	4.749850E-1	5.013432E-1	4.224605E-1	4.898033E-1	4.719994E-1	4.857518E-1	4.689708E-1	4.665711E-1	4.302892E-1	4.643766E-1	4.526296E-1	4.787053E-1	4.481721E-1	4.666660E-1	4.781649E-1	4.560422E-1	4.832763E-1	4.200095E-1	4.734269E-1	4.215276E-1	4.913207E-1	5.248762E-1	4.568110E-1	4.864250E-1	4.712763E-1	4.583572E-1	4.355465E-1	5.076258E-1	4.770625E-1	5.169312E-1	4.490667E-1	4.656686E-1	4.586247E-1	4.802010E-1	4.770638E-1	4.464242E-1	4.895872E-1	4.887137E-1	4.821443E-1	4.370867E-1	4.233712E-1	4.658606E-1	5.025830E-1	4.825630E-1	4.784770E-1	4.920780E-1	4.298824E-1	5.267561E-1
2.847030E+2	1.085226E+0	1.066589E+0	9.884841E-1	1.025107E+0	9.998645E-1	1.029397E+0	1.083092E+0	1.030511E+0	1.075893E+0	1.006272E+0	1.059888E+0	1.108396E+0	1.056856E+0	1.011052E+0	1.016921E+0	1.022949E+0	9.637614E-1	1.037818E+0	9.938459E-1	1.007134E+0	1.077580E+0	1.018500E+0	1.142840E+0	1.129861E+0	1.094942E+0	1.009183E+0	1.070606E+0	9.951819E-1	1.000138E+0	9.846270E-1	1.080274E+0	1.046699E+0	1.083207E+0	1.091563E+0	1.094252E+0	1.055515E+0	1.020116E+0	1.087393E+0	1.051058E+0	1.022233E+0	1.057601E+0	1.066143E+0	1.019726E+0	1.095434E+0	1.003364E+0	1.026295E+0	1.042389E+0	1.048222E+0	1.061897E+0	1.063241E+0	1.046278E+0	1.047091E+0	1.034602E+0	1.071112E+0	1.093612E+0	1.049741E+0	1.050567E+0	1.074059E+0	9.924894E-1	1.053484E+0	9.908416E-1	1.036118E+0	1.094092E+0	1.041235E+0	1.004355E+0	1.116643E+0	1.069890E+0	1.034660E+0	1.107989E+0	1.074497E+0	9.916240E-1	1.009710E+0	1.038716E+0	1.055775E+0	1.052327E+0	9.874866E-1	1.014163E+0	1.063629E+0	1.150738E+0	1.054325E+0	1.039496E+0	1.125691E+0	1.039486E+0	1.038356E+0	1.036716E+0	1.082284E+0	1.002716E+0	1.090841E+0	1.052258E+0	1.035295E+0	1.071846E+0	1.035984E+0	1.091584E+0	1.047838E+0	1.045923E+0	1.022800E+0	9.985811E-1	1.063172E+0	1.016895E+0	1.045633E+0	1.043875E+0	1.065203E+0	1.041305E+0	1.105721E+0	1.082966E+0	1.080046E+0	1.021025E+0	1.030158E+0	1.082868E+0	1.082119E+0	1.040918E+0	1.141593E+0	1.079813E+0	1.010679E+0	1.011951E+0	1.029161E+0	1.039888E+0	1.063962E+0	1.042634E+0	1.104566E+0	1.051986E+0	1.052691E+0	1.061841E+0	1.054087E+0	1.062674E+0	1.054505E+0	1.078730E+0	1.020240E+0	1.094185E+0	1.045377E+0	1.110039E+0	1.071283E+0	1.046116E+0	1.087557E+0	1.015065E+0	1.197619E+0	1.017553E+0	1.011241E+0	1.062598E+0	1.028400E+0	1.004582E+0	1.033987E+0	1.109708E+0	1.123631E+0	1.028928E+0	1.092997E+0	1.090724E+0	1.035540E+0	1.096605E+0	1.065913E+0	1.070726E+0	1.027684E+0	1.034138E+0	1.090277E+0	1.015834E+0	1.049054E+0	1.088468E+0	1.082185E+0	1.060283E+0	1.120868E+0	1.006838E+0	1.080126E+0	1.116324E+0	1.087504E+0	1.013431E+0	1.046049E+0	1.027497E+0	1.097021E+0	1.085329E+0	9.740197E-1	1.078956E+0
2.848060E+2	1.737280E+0	1.582846E+0	1.650892E+0	1.671525E+0	1.709480E+0	1.680017E+0	1.704030E+0	1.676181E+0	1.640157E+0	1.595115E+0	1.696387E+0	1.605768E+0	1.639448E+0	1.689969E+0	1.598660E+0	1.700481E+0	1.624577E+0	1.601642E+0	1.600055E+0	1.592366E+0	1.711896E+0	1.548283E+0	1.619906E+0	1.672750E+0	1.602305E+0	1.599244E+0	1.679128E+0	1.719299E+0	1.813012E+0	1.615129E+0	1.636570E+0	1.661838E+0	1.689349E+0	1.652742E+0	1.691922E+0	1.676896E+0	1.704812E+0	1.662131E+0	1.720199E+0	1.674163E+0	1.638755E+0	1.676248E+0	1.673235E+0	1.635370E+0	1.580771E+0	1.616912E+0	1.693435E+0	1.649760E+0	1.564204E+0	1.619789E+0	1.569334E+0	1.595664E+0	1.721975E+0	1.707932E+0	1.611149E+0	1.586008E+0	1.607527E+0	1.639836E+0	1.701249E+0	1.589033E+0	1.657750E+0	1.643006E+0	1.592041E+0	1.654532E+0	1.547665E+0	1.726435E+0	1.709116E+0	1.742238E+0	1.736504E+0	1.568454E+0	1.676778E+0	1.570149E+0	1.613803E+0	1.673490E+0	1.613846E+0	1.631982E+0	1.651355E+0	1.648045E+0	1.791575E+0	1.557889E+0	1.667369E+0	1.659445E+0	1.777524E+0	1.654837E+0	1.594029E+0	1.705909E+0	1.696669E+0	1.615830E+0	1.686250E+0	1.539386E+0	1.677915E+0	1.609980E+0	1.660628E+0	1.590805E+0	1.673223E+0	1.654130E+0	1.625357E+0	1.695294E+0	1.662668E+0	1.731285E+0	1.622751E+0	1.667507E+0	1.703222E+0	1.633610E+0	1.654386E+0	1.569587E+0	1.664965E+0	1.644108E+0	1.668780E+0	1.711325E+0	1.646688E+0	1.645569E+0	1.677769E+0	1.651100E+0	1.628760E+0	1.763735E+0	1.726895E+0	1.591575E+0	1.580120E+0	1.629786E+0	1.653004E+0	1.617693E+0	1.712704E+0	1.612710E+0	1.682646E+0	1.596088E+0	1.620873E+0	1.739084E+0	1.704690E+0	1.711368E+0	1.705816E+0	1.676420E+0	1.721538E+0	1.714379E+0	1.582356E+0	1.635355E+0	1.629962E+0	1.566959E+0	1.650132E+0	1.625958E+0	1.615351E+0	1.648314E+0	1.603669E+0	1.668348E+0	1.629876E+0	1.678613E+0	1.698018E+0	1.655525E+0	1.637587E+0	1.645377E+0	1.734979E+0	1.635197E+0	1.605860E+0	1.635052E+0	1.609973E+0	1.630206E+0	1.665579E+0	1.657591E+0	1.663417E+0	1.677674E+0	1.636238E+0	1.568932E+0	1.681352E+0	1.655596E+0	1.680413E+0	1.550033E+0	1.616791E+0	1.668625E+0	1.702918E+0	1.522896E+0	1.665741E+0
2.849040E+2	1.707906E+0	1.687430E+0	1.820358E+0	1.659432E+0	1.735646E+0	1.762510E+0	1.675631E+0	1.744859E+0	1.680422E+0	1.669973E+0	1.725754E+0	1.694783E+0	1.666378E+0	1.680661E+0	1.810693E+0	1.653590E+0	1.646072E+0	1.578258E+0	1.614898E+0	1.732739E+0	1.749600E+0	1.722607E+0	1.669800E+0	1.695686E+0	1.692073E+0	1.632581E+0	1.704817E+0	1.629683E+0	1.646063E+0	1.708377E+0	1.832780E+0	1.642673E+0	1.784501E+0	1.663162E+0	1.619412E+0	1.693951E+0	1.654577E+0	1.718154E+0	1.698241E+0	1.682668E+0	1.697697E+0	1.724783E+0	1.684501E+0	1.643406E+0	1.771249E+0	1.728119E+0	1.797218E+0	1.772085E+0	1.757812E+0	1.603601E+0	1.773168E+0	1.792186E+0	1.760780E+0	1.769756E+0	1.788066E+0	1.681344E+0	1.752495E+0	1.641116E+0	1.757652E+0	1.706838E+0	1.720053E+0	1.746672E+0	1.748688E+0	1.756369E+0	1.601832E+0	1.604645E+0	1.807319E+0	1.661950E+0	1.782568E+0	1.599298E+0	1.722063E+0	1.663247E+0	1.679116E+0	1.640260E+0	1.697132E+0	1.750032E+0	1.593453E+0	1.635306E+0	1.785810E+0	1.722691E+0	1.687032E+0	1.595706E+0	1.722740E+0	1.756097E+0	1.718857E+0	1.787327E+0	1.699637E+0	1.710717E+0	1.635709E+0	1.648077E+0	1.678511E+0	1.643904E+0	1.725640E+0	1.667331E+0	1.727797E+0	1.633197E+0	1.680289E+0	1.640205E+0	1.730143E+0	1.745958E+0	1.784052E+0	1.735908E+0	1.737230E+0	1.726955E+0	1.719359E+0	1.671057E+0	1.729784E+0	1.711836E+0	1.747318E+0	1.714231E+0	1.593908E+0	1.710835E+0	1.730184E+0	1.750426E+0	1.679862E+0	1.732737E+0	1.735650E+0	1.717513E+0	1.739102E+0	1.712031E+0	1.753338E+0	1.751080E+0	1.688789E+0	1.735726E+0	1.630960E+0	1.638806E+0	1.719931E+0	1.742689E+0	1.826821E+0	1.817121E+0	1.688939E+0	1.654781E+0	1.672738E+0	1.740997E+0	1.754411E+0	1.804454E+0	1.733289E+0	1.800442E+0	1.726247E+0	1.835394E+0	1.648041E+0	1.639526E+0	1.720616E+0	1.739880E+0	1.735423E+0	1.729438E+0	1.795910E+0	1.635602E+0	1.684681E+0	1.647911E+0	1.698843E+0	1.696553E+0	1.834239E+0	1.710616E+0	1.695699E+0	1.693652E+0	1.650153E+0	1.804441E+0	1.742787E+0	1.724026E+0	1.633228E+0	1.652127E+0	1.719851E+0	1.676103E+0	1.771065E+0	1.665063E+0	1.695499E+0	1.700998E+0	1.738906E+0	1.571243E+0	1.782902E+0
2.850040E+2	1.482342E+0	1.508441E+0	1.492664E+0	1.460615E+0	1.559545E+0	1.538176E+0	1.551051E+0	1.570446E+0	1.507906E+0	1.456466E+0	1.551047E+0	1.596843E+0	1.557112E+0	1.465763E+0	1.564887E+0	1.546193E+0	1.528487E+0	1.460413E+0	1.473124E+0	1.639013E+0	1.497906E+0	1.479077E+0	1.502530E+0	1.516931E+0	1.485489E+0	1.482598E+0	1.627608E+0	1.555336E+0	1.470823E+0	1.521864E+0	1.508103E+0	1.499835E+0	1.494642E+0	1.570842E+0	1.543940E+0	1.577395E+0	1.630861E+0	1.584208E+0	1.550605E+0	1.525330E+0	1.482899E+0	1.667786E+0	1.622883E+0	1.607885E+0	1.493826E+0	1.505001E+0	1.553161E+0	1.589080E+0	1.468470E+0	1.527946E+0	1.568989E+0	1.526337E+0	1.610891E+0	1.575132E+0	1.550271E+0	1.553862E+0	1.537749E+0	1.546910E+0	1.501704E+0	1.523632E+0	1.548577E+0	1.537684E+0	1.621400E+0	1.475318E+0	1.608849E+0	1.496211E+0	1.642574E+0	1.528043E+0	1.464714E+0	1.502646E+0	1.581763E+0	1.491372E+0	1.554215E+0	1.605910E+0	1.432786E+0	1.515636E+0	1.573224E+0	1.548389E+0	1.518883E+0	1.416462E+0	1.566116E+0	1.510963E+0	1.491678E+0	1.529572E+0	1.559834E+0	1.578602E+0	1.537546E+0	1.559480E+0	1.599601E+0	1.586899E+0	1.495653E+0	1.500166E+0	1.587696E+0	1.533064E+0	1.573985E+0	1.456056E+0	1.615343E+0	1.492598E+0	1.528513E+0	1.537532E+0	1.620148E+0	1.506862E+0	1.560707E+0	1.509969E+0	1.507587E+0	1.507551E+0	1.534894E+0	1.467333E+0	1.568026E+0	1.488693E+0	1.463151E+0	1.524018E+0	1.564659E+0	1.537285E+0	1.551979E+0	1.583934E+0	1.525060E+0	1.507155E+0	1.597590E+0	1.495822E+0	1.498572E+0	1.580327E+0	1.546356E+0	1.437926E+0	1.534079E+0	1.487237E+0	1.548618E+0	1.563384E+0	1.537769E+0	1.586455E+0	1.526319E+0	1.455750E+0	1.553400E+0	1.556288E+0	1.445035E+0	1.576794E+0	1.608999E+0	1.522215E+0	1.511194E+0	1.609971E+0	1.585591E+0	1.488604E+0	1.550652E+0	1.530913E+0	1.592249E+0	1.487572E+0	1.508829E+0	1.461310E+0	1.576919E+0	1.525791E+0	1.607047E+0	1.539005E+0	1.563664E+0	1.497548E+0	1.498916E+0	1.455322E+0	1.596242E+0	1.572138E+0	1.534718E+0	1.601176E+0	1.532889E+0	1.474717E+0	1.497486E+0	1.493021E+0	1.557804E+0	1.508779E+0	1.586215E+0	1.556533E+0	1.542152E+0	1.508385E+0	1.585617E+0
2.851050E+2	1.272823E+0	1.311311E+0	1.387259E+0	1.352583E+0	1.365842E+0	1.308367E+0	1.274239E+0	1.231845E+0	1.371052E+0	1.306800E+0	1.345500E+0	1.290621E+0	1.326528E+0	1.254681E+0	1.393540E+0	1.287284E+0	1.254076E+0	1.257557E+0	1.308104E+0	1.372980E+0	1.185559E+0	1.284973E+0	1.318625E+0	1.382028E+0	1.352681E+0	1.318690E+0	1.381450E+0	1.340323E+0	1.256768E+0	1.338851E+0	1.377972E+0	1.338350E+0	1.248856E+0	1.313879E+0	1.302610E+0	1.257928E+0	1.373064E+0	1.290503E+0	1.322114E+0	1.343302E+0	1.328714E+0	1.357568E+0	1.364101E+0	1.307158E+0	1.373867E+0	1.381475E+0	1.377541E+0	1.325982E+0	1.351488E+0	1.298630E+0	1.339550E+0	1.345744E+0	1.290872E+0	1.360348E+0	1.314597E+0	1.325579E+0	1.319941E+0	1.291432E+0	1.282204E+0	1.291697E+0	1.368768E+0	1.294910E+0	1.333581E+0	1.351328E+0	1.319929E+0	1.264085E+0	1.366932E+0	1.259685E+0	1.264539E+0	1.302410E+0	1.322990E+0	1.306916E+0	1.274330E+0	1.361798E+0	1.376484E+0	1.360698E+0	1.394522E+0	1.298865E+0	1.416814E+0	1.355590E+0	1.283624E+0	1.305556E+0	1.281683E+0	1.287488E+0	1.408163E+0	1.377526E+0	1.320821E+0	1.317355E+0	1.305770E+0	1.286909E+0	1.338874E+0	1.318999E+0	1.277742E+0	1.237635E+0	1.307677E+0	1.250759E+0	1.280092E+0	1.253261E+0	1.349596E+0	1.271328E+0	1.297345E+0	1.336583E+0	1.309961E+0	1.289228E+0	1.291288E+0	1.427395E+0	1.344130E+0	1.317948E+0	1.339297E+0	1.324168E+0	1.406191E+0	1.375808E+0	1.270989E+0	1.259540E+0	1.313617E+0	1.364054E+0	1.343053E+0	1.296041E+0	1.276278E+0	1.279897E+0	1.336385E+0	1.380136E+0	1.330182E+0	1.243078E+0	1.355352E+0	1.274527E+0	1.354438E+0	1.268227E+0	1.309451E+0	1.342389E+0	1.335195E+0	1.414634E+0	1.305885E+0	1.361440E+0	1.290832E+0	1.364006E+0	1.322135E+0	1.247619E+0	1.316477E+0	1.319560E+0	1.327485E+0	1.321993E+0	1.369448E+0	1.367814E+0	1.375808E+0	1.363210E+0	1.405088E+0	1.348618E+0	1.327168E+0	1.280288E+0	1.301737E+0	1.234820E+0	1.320118E+0	1.246158E+0	1.279970E+0	1.301998E+0	1.265945E+0	1.426273E+0	1.314107E+0	1.299496E+0	1.377125E+0	1.349513E+0	1.370447E+0	1.320067E+0	1.396943E+0	1.411430E+0	1.275817E+0	1.346829E+0	1.346050E+0	1.271930E+0	1.303408E+0
2.852040E+2	1.122598E+0	1.094257E+0	1.177366E+0	1.112034E+0	1.098864E+0	1.164784E+0	1.109866E+0	1.073095E+0	1.062245E+0	1.068456E+0	1.223081E+0	1.129389E+0	1.127411E+0	1.086766E+0	1.129747E+0	1.040808E+0	1.119661E+0	1.091691E+0	1.137293E+0	1.136752E+0	1.157563E+0	1.091712E+0	1.127252E+0	1.059337E+0	1.072925E+0	1.067253E+0	1.114118E+0	1.170808E+0	1.050036E+0	1.117355E+0	1.133854E+0	1.089304E+0	1.094773E+0	1.085116E+0	1.181380E+0	1.143585E+0	1.166137E+0	1.114181E+0	1.185803E+0	1.139669E+0	1.168610E+0	1.194506E+0	1.043876E+0	1.154605E+0	1.065554E+0	1.083436E+0	1.091719E+0	1.116203E+0	1.189389E+0	1.152072E+0	1.158221E+0	1.140733E+0	1.157532E+0	1.128072E+0	1.116563E+0	1.126384E+0	1.093747E+0	1.150640E+0	1.169963E+0	1.060255E+0	1.101913E+0	1.135152E+0	1.207120E+0	1.125250E+0	1.104079E+0	1.084798E+0	1.193013E+0	1.156587E+0	1.118686E+0	1.032611E+0	1.089776E+0	1.082319E+0	1.075211E+0	1.066496E+0	1.133037E+0	1.153184E+0	1.086790E+0	1.079378E+0	1.213411E+0	1.134386E+0	1.112914E+0	1.107443E+0	1.100361E+0	1.086236E+0	1.214452E+0	1.108506E+0	1.202966E+0	1.135066E+0	1.145524E+0	1.092614E+0	1.147955E+0	1.056051E+0	1.111879E+0	1.129092E+0	1.104968E+0	1.133489E+0	1.128665E+0	1.145527E+0	1.125102E+0	1.103972E+0	1.112908E+0	1.123058E+0	1.143426E+0	1.062979E+0	1.151528E+0	1.102592E+0	1.074662E+0	1.167451E+0	1.156565E+0	1.131844E+0	1.155221E+0	1.106245E+0	1.103800E+0	1.201485E+0	1.055516E+0	1.156497E+0	1.163901E+0	1.141470E+0	1.123595E+0	1.076257E+0	1.126035E+0	1.111858E+0	1.190513E+0	1.088380E+0	1.144671E+0	1.094838E+0	1.145863E+0	1.204113E+0	1.073303E+0	1.081651E+0	1.054092E+0	1.133772E+0	1.096827E+0	1.130906E+0	1.020988E+0	1.128954E+0	1.136051E+0	1.062509E+0	1.131003E+0	1.135063E+0	1.139183E+0	1.109450E+0	1.083626E+0	1.111204E+0	1.088368E+0	1.089834E+0	1.209470E+0	1.131821E+0	1.133924E+0	1.099299E+0	1.101971E+0	1.161240E+0	1.205288E+0	1.161913E+0	1.138676E+0	1.182096E+0	1.179773E+0	1.076420E+0	1.138636E+0	1.113662E+0	1.141807E+0	1.076652E+0	1.163902E+0	1.088203E+0	1.238670E+0	1.095841E+0	1.130272E+0	1.049859E+0	1.160399E+0	9.911635E-1	1.296411E+0
2.853030E+2	8.803404E-1	8.678252E-1	8.030199E-1	8.696777E-1	9.130156E-1	8.385280E-1	8.336433E-1	8.432636E-1	9.809282E-1	8.187610E-1	8.674921E-1	8.397228E-1	9.043014E-1	8.554126E-1	8.859124E-1	8.911292E-1	8.952759E-1	8.735757E-1	8.492992E-1	9.288125E-1	8.823561E-1	9.004761E-1	8.409145E-1	8.837568E-1	7.870998E-1	8.342463E-1	9.296741E-1	8.560269E-1	8.930725E-1	8.330788E-1	8.340957E-1	8.263204E-1	9.269446E-1	8.525389E-1	8.122087E-1	8.400284E-1	8.376603E-1	8.927275E-1	8.763605E-1	8.586347E-1	8.876184E-1	8.566445E-1	8.716175E-1	7.871436E-1	8.351898E-1	9.491917E-1	9.186280E-1	9.179075E-1	8.546819E-1	8.321603E-1	8.324152E-1	9.408052E-1	8.546578E-1	8.600123E-1	8.589728E-1	8.152194E-1	8.603040E-1	8.565286E-1	8.459819E-1	8.409605E-1	8.931770E-1	8.993785E-1	9.088158E-1	9.219489E-1	8.392363E-1	8.917768E-1	8.686032E-1	8.504521E-1	9.350726E-1	8.520267E-1	8.855727E-1	8.342263E-1	9.270745E-1	8.820602E-1	8.487761E-1	8.792195E-1	9.221866E-1	8.164061E-1	8.215807E-1	8.776488E-1	8.948949E-1	9.214473E-1	8.673830E-1	8.098248E-1	8.678825E-1	8.389191E-1	8.584783E-1	8.940116E-1	8.452629E-1	9.311352E-1	8.930574E-1	7.991050E-1	8.776851E-1	9.085118E-1	8.558172E-1	7.584319E-1	8.229435E-1	8.701149E-1	8.370251E-1	8.077244E-1	9.095153E-1	9.294754E-1	8.781938E-1	8.607515E-1	9.268859E-1	8.921276E-1	8.375955E-1	8.183679E-1	9.116150E-1	8.476206E-1	9.235090E-1	8.522548E-1	9.026663E-1	8.806712E-1	8.469520E-1	8.877885E-1	8.602251E-1	8.395284E-1	8.747357E-1	9.001295E-1	8.797427E-1	8.897483E-1	8.382889E-1	8.841407E-1	8.851192E-1	7.995778E-1	8.608747E-1	8.636585E-1	8.835156E-1	8.623694E-1	8.902092E-1	9.006172E-1	8.745213E-1	9.615189E-1	8.983119E-1	8.406473E-1	8.547404E-1	8.063925E-1	8.441452E-1	8.400379E-1	9.363218E-1	8.357147E-1	8.622282E-1	9.184931E-1	9.133993E-1	8.016334E-1	8.605397E-1	9.179552E-1	9.046245E-1	8.836177E-1	8.622211E-1	8.546829E-1	8.720405E-1	8.948053E-1	8.723131E-1	8.463738E-1	8.602209E-1	8.116668E-1	8.815504E-1	9.305565E-1	8.736470E-1	8.441432E-1	8.435788E-1	8.876032E-1	9.204896E-1	8.547293E-1	8.629259E-1	9.048540E-1	8.833815E-1	8.953460E-1	9.312008E-1
2.854050E+2	5.805875E-1	5.329692E-1	6.150694E-1	5.769855E-1	5.876322E-1	5.524927E-1	5.122977E-1	5.427388E-1	5.466723E-1	5.331342E-1	5.347775E-1	4.978596E-1	5.013682E-1	4.940383E-1	5.240608E-1	5.874094E-1	5.349231E-1	5.389729E-1	5.307530E-1	5.474501E-1	5.718560E-1	5.448662E-1	5.454994E-1	6.091746E-1	5.870858E-1	5.649605E-1	6.118730E-1	5.031035E-1	5.005647E-1	5.413200E-1	5.476461E-1	5.413524E-1	5.739165E-1	5.206529E-1	5.682689E-1	5.483454E-1	5.530735E-1	5.552145E-1	5.676617E-1	5.705263E-1	5.624000E-1	5.243664E-1	5.521639E-1	5.720404E-1	5.121362E-1	5.533193E-1	5.530025E-1	6.178015E-1	5.446581E-1	5.384935E-1	5.319948E-1	5.774312E-1	5.804926E-1	5.776374E-1	5.516148E-1	5.514790E-1	5.561871E-1	5.658124E-1	5.874567E-1	5.642866E-1	5.427036E-1	5.468675E-1	5.482768E-1	5.588400E-1	5.923620E-1	5.504779E-1	6.014773E-1	5.165588E-1	5.313204E-1	5.455537E-1	5.754453E-1	5.946056E-1	5.720930E-1	5.720354E-1	5.916782E-1	5.422301E-1	5.554234E-1	5.341602E-1	5.688250E-1	5.927848E-1	4.839301E-1	5.390738E-1	5.239901E-1	5.724189E-1	6.067628E-1	5.311034E-1	5.889376E-1	5.272801E-1	5.804046E-1	6.040804E-1	5.761944E-1	5.213119E-1	5.499890E-1	5.178557E-1	6.319965E-1	4.602402E-1	5.385101E-1	5.562061E-1	6.067397E-1	5.493430E-1	6.141626E-1	5.645101E-1	5.472190E-1	5.446259E-1	5.673373E-1	5.990713E-1	5.282253E-1	5.927504E-1	5.586533E-1	5.371795E-1	5.784988E-1	5.945185E-1	5.152222E-1	5.280432E-1	4.939223E-1	5.679584E-1	5.352140E-1	5.301508E-1	5.325879E-1	5.269283E-1	5.513707E-1	5.388378E-1	5.622692E-1	5.567375E-1	5.441984E-1	5.484870E-1	5.657643E-1	5.308962E-1	5.577145E-1	6.312107E-1	5.656507E-1	5.449066E-1	5.615158E-1	5.836812E-1	5.758974E-1	6.055795E-1	5.649172E-1	5.677722E-1	5.880909E-1	6.103441E-1	5.853353E-1	5.421347E-1	5.866175E-1	5.744754E-1	5.705300E-1	5.641540E-1	5.685365E-1	5.182314E-1	6.134726E-1	5.921666E-1	5.737987E-1	5.198529E-1	5.790785E-1	5.891030E-1	5.547332E-1	5.392271E-1	5.537439E-1	5.794633E-1	5.118976E-1	5.669636E-1	6.058722E-1	5.657669E-1	5.578295E-1	5.143721E-1	6.012338E-1	5.251581E-1	5.841214E-1	5.482798E-1	6.107740E-1	5.718324E-1	5.732565E-1
2.855030E+2	3.965109E-1	3.884456E-1	4.177564E-1	4.121121E-1	4.167836E-1	3.707857E-1	3.533583E-1	3.965043E-1	3.802237E-1	3.729807E-1	3.880736E-1	3.872926E-1	4.068166E-1	4.152548E-1	3.792324E-1	4.027706E-1	3.980224E-1	3.905404E-1	3.918371E-1	3.657825E-1	3.464110E-1	3.596481E-1	3.947414E-1	3.924557E-1	3.695622E-1	3.424952E-1	3.534226E-1	3.954806E-1	3.812917E-1	3.852036E-1	3.950900E-1	3.815425E-1	4.039432E-1	4.240930E-1	3.962280E-1	3.220925E-1	3.617109E-1	3.871506E-1	3.962873E-1	3.614564E-1	4.187783E-1	3.335462E-1	3.807057E-1	4.345809E-1	4.055470E-1	3.987082E-1	3.826322E-1	3.766180E-1	3.625176E-1	3.671232E-1	3.582923E-1	3.741246E-1	3.817899E-1	4.033240E-1	4.336794E-1	3.940577E-1	4.050649E-1	3.472180E-1	4.523531E-1	4.054537E-1	3.950557E-1	3.992477E-1	3.980249E-1	3.843358E-1	4.120483E-1	3.599593E-1	3.987166E-1	3.817079E-1	3.800356E-1	3.562538E-1	4.184463E-1	4.155749E-1	3.591137E-1	3.813799E-1	3.976171E-1	3.852145E-1	4.267019E-1	3.735488E-1	3.780269E-1	3.802918E-1	3.804886E-1	3.900760E-1	3.840880E-1	4.307714E-1	4.002004E-1	3.973903E-1	3.679779E-1	3.696306E-1	3.792633E-1	3.538220E-1	3.975807E-1	3.483200E-1	3.865980E-1	4.012283E-1	3.990654E-1	3.626637E-1	3.553641E-1	3.636840E-1	3.862024E-1	3.827664E-1	4.049465E-1	3.616539E-1	4.201035E-1	3.717716E-1	3.779860E-1	4.036883E-1	3.931894E-1	4.155359E-1	3.707485E-1	3.990717E-1	3.935060E-1	4.147435E-1	3.841486E-1	3.731440E-1	4.054575E-1	4.121369E-1	3.537139E-1	3.546652E-1	3.874825E-1	3.607897E-1	4.239261E-1	3.818750E-1	3.537258E-1	3.838815E-1	3.972312E-1	3.939258E-1	3.974253E-1	3.754845E-1	3.699580E-1	4.033186E-1	3.694872E-1	4.058712E-1	4.187646E-1	3.678165E-1	3.976602E-1	4.299437E-1	3.664390E-1	3.770734E-1	4.025694E-1	3.638564E-1	4.332803E-1	4.260982E-1	4.111802E-1	4.051194E-1	4.130668E-1	4.086368E-1	4.408293E-1	4.058259E-1	3.685806E-1	4.019152E-1	4.054613E-1	3.757545E-1	4.359065E-1	3.803856E-1	3.686707E-1	4.053939E-1	3.742065E-1	4.095555E-1	3.901172E-1	4.053409E-1	4.175507E-1	3.600217E-1	3.865134E-1	3.321758E-1	3.898094E-1	3.486420E-1	3.992318E-1	4.739684E-1	4.459859E-1	3.539785E-1	3.952336E-1
2.856030E+2	3.172288E-1	3.587268E-1	3.379662E-1	3.071111E-1	3.472816E-1	3.282860E-1	2.814843E-1	2.894651E-1	2.903572E-1	3.153846E-1	2.865932E-1	3.367451E-1	2.873687E-1	3.067615E-1	3.443119E-1	2.986371E-1	2.922466E-1	2.828682E-1	2.830437E-1	3.178876E-1	3.424093E-1	2.797816E-1	3.087453E-1	3.007086E-1	3.067825E-1	2.916177E-1	3.268224E-1	2.995631E-1	3.198374E-1	2.889477E-1	3.388716E-1	3.184719E-1	3.256530E-1	2.749668E-1	3.043236E-1	3.221173E-1	3.208420E-1	2.960956E-1	3.262599E-1	2.956911E-1	2.860921E-1	2.626665E-1	2.848319E-1	2.965787E-1	2.780417E-1	2.881738E-1	3.649956E-1	3.085987E-1	2.834467E-1	3.103943E-1	3.485425E-1	2.986691E-1	3.300816E-1	3.099499E-1	3.481485E-1	3.250297E-1	3.113768E-1	3.361557E-1	2.951955E-1	3.439211E-1	2.788697E-1	3.141730E-1	3.076321E-1	3.169905E-1	3.484199E-1	3.144316E-1	3.217191E-1	2.913361E-1	3.006141E-1	2.936149E-1	3.098346E-1	3.005098E-1	3.189408E-1	3.310392E-1	2.999637E-1	2.974483E-1	3.532470E-1	3.327180E-1	3.370515E-1	3.010393E-1	2.843352E-1	3.290907E-1	3.146062E-1	3.447134E-1	2.967509E-1	2.986424E-1	3.089961E-1	3.228334E-1	2.700106E-1	3.146136E-1	3.010351E-1	2.887183E-1	3.388315E-1	2.945197E-1	3.098202E-1	3.260783E-1	3.300270E-1	3.104990E-1	2.794363E-1	3.201902E-1	2.947272E-1	3.178879E-1	3.254437E-1	3.073443E-1	2.874842E-1	3.303917E-1	2.930962E-1	2.659198E-1	3.270345E-1	3.234037E-1	3.133027E-1	3.217174E-1	3.447161E-1	3.139539E-1	2.898501E-1	3.058821E-1	3.066338E-1	2.914421E-1	3.089208E-1	3.132465E-1	2.909874E-1	3.115983E-1	3.020936E-1	2.579641E-1	2.976123E-1	3.083618E-1	3.198371E-1	3.686278E-1	3.396986E-1	2.797720E-1	3.234671E-1	3.375890E-1	3.205003E-1	3.015002E-1	3.325898E-1	2.901608E-1	2.875425E-1	2.802352E-1	3.277632E-1	3.288662E-1	3.011664E-1	3.227538E-1	3.139639E-1	3.002403E-1	3.436346E-1	3.201407E-1	3.270867E-1	3.089433E-1	3.268537E-1	3.267085E-1	3.699766E-1	2.888603E-1	3.090635E-1	3.012256E-1	3.093330E-1	3.214827E-1	3.507932E-1	3.079406E-1	3.163077E-1	3.167974E-1	2.876909E-1	3.190523E-1	2.842929E-1	3.073046E-1	3.230654E-1	3.126856E-1	3.121576E-1	3.131154E-1	3.514065E-1	2.694473E-1	2.662003E-1
2.858010E+2	4.911418E-1	4.807110E-1	5.018040E-1	4.757661E-1	4.533121E-1	5.033269E-1	4.601276E-1	3.857115E-1	4.887637E-1	4.875335E-1	4.666220E-1	4.625137E-1	5.031840E-1	4.693399E-1	4.204085E-1	5.049900E-1	4.632058E-1	4.762564E-1	4.750244E-1	4.486908E-1	5.095209E-1	4.743817E-1	4.716429E-1	4.495181E-1	4.431245E-1	4.718796E-1	5.134738E-1	5.053209E-1	4.582632E-1	4.500180E-1	5.065097E-1	4.342655E-1	4.898051E-1	4.763926E-1	4.491574E-1	4.481846E-1	4.716723E-1	4.687522E-1	4.338275E-1	4.737089E-1	4.941469E-1	4.865105E-1	5.110802E-1	4.576634E-1	4.466490E-1	4.650460E-1	4.845862E-1	5.078654E-1	5.050445E-1	4.568516E-1	5.061304E-1	5.364632E-1	4.675780E-1	5.001922E-1	4.589879E-1	4.688268E-1	4.767768E-1	4.742756E-1	4.963719E-1	4.756491E-1	5.058990E-1	4.932164E-1	3.920923E-1	5.016568E-1	4.472293E-1	4.740722E-1	4.712942E-1	4.576943E-1	4.718944E-1	5.269298E-1	4.721459E-1	4.549541E-1	4.952445E-1	4.527009E-1	5.152969E-1	4.970299E-1	4.555255E-1	4.769377E-1	4.547491E-1	4.831224E-1	4.747440E-1	4.523764E-1	4.601712E-1	4.738352E-1	4.971471E-1	4.361901E-1	5.375919E-1	4.982064E-1	4.385700E-1	4.585351E-1	5.079473E-1	4.405081E-1	4.881567E-1	4.810113E-1	4.714922E-1	4.643360E-1	4.598249E-1	4.260251E-1	4.499321E-1	4.636484E-1	4.763080E-1	4.464526E-1	5.069215E-1	4.814858E-1	4.625545E-1	4.688318E-1	5.006368E-1	5.447307E-1	5.106998E-1	5.125442E-1	4.393437E-1	4.669614E-1	4.566625E-1	4.459231E-1	4.270346E-1	5.033051E-1	4.323013E-1	4.657790E-1	5.139616E-1	5.163466E-1	4.620957E-1	4.879414E-1	4.656189E-1	4.865338E-1	4.936548E-1	4.724882E-1	4.970329E-1	4.634495E-1	4.441768E-1	4.661165E-1	4.732238E-1	4.863363E-1	5.011015E-1	4.493232E-1	5.560723E-1	4.762317E-1	4.782611E-1	4.976686E-1	4.080196E-1	4.750989E-1	4.753305E-1	4.830488E-1	4.880309E-1	4.633626E-1	5.380340E-1	4.935781E-1	4.745340E-1	4.714029E-1	4.834236E-1	4.464916E-1	4.878622E-1	4.439789E-1	4.768782E-1	5.148583E-1	4.606465E-1	4.862502E-1	4.776528E-1	4.455505E-1	4.372900E-1	5.300528E-1	4.785157E-1	4.962976E-1	4.470281E-1	5.056210E-1	4.936342E-1	4.478514E-1	4.956731E-1	4.579002E-1	5.492551E-1	5.068375E-1	4.810774E-1
2.860070E+2	8.760275E-1	9.104217E-1	9.105460E-1	9.212959E-1	1.007520E+0	1.035736E+0	9.713338E-1	9.252081E-1	9.262491E-1	9.101664E-1	9.569840E-1	9.486216E-1	9.141649E-1	9.095387E-1	8.847738E-1	9.718796E-1	8.893451E-1	8.982355E-1	9.755696E-1	9.604984E-1	9.193748E-1	9.604250E-1	9.744114E-1	9.963062E-1	9.729071E-1	8.932143E-1	9.897702E-1	9.186508E-1	9.376754E-1	8.715724E-1	9.417331E-1	9.516616E-1	1.011905E+0	9.835788E-1	9.290462E-1	9.222025E-1	8.664057E-1	9.625369E-1	1.002899E+0	9.522583E-1	9.503746E-1	9.274259E-1	8.629402E-1	9.189464E-1	9.680085E-1	9.028010E-1	9.040569E-1	9.417134E-1	9.783233E-1	1.025167E+0	9.580697E-1	9.170654E-1	9.174880E-1	1.025923E+0	9.051558E-1	9.483098E-1	9.227812E-1	9.518707E-1	9.659894E-1	9.255594E-1	9.698400E-1	9.130817E-1	9.864862E-1	9.396942E-1	9.530874E-1	8.888118E-1	1.019436E+0	9.293227E-1	9.327199E-1	8.786318E-1	9.786700E-1	9.039946E-1	9.779797E-1	9.445852E-1	9.017826E-1	9.017670E-1	1.009098E+0	9.575116E-1	9.359377E-1	9.824176E-1	8.685658E-1	9.447870E-1	8.938418E-1	9.037740E-1	9.167756E-1	9.319471E-1	9.198671E-1	9.004474E-1	9.546691E-1	9.040983E-1	9.405884E-1	9.412137E-1	9.703100E-1	9.140406E-1	9.570347E-1	9.010985E-1	9.141713E-1	9.226758E-1	9.421369E-1	9.012900E-1	9.408671E-1	9.370980E-1	9.569843E-1	9.217912E-1	9.340698E-1	9.573834E-1	1.005910E+0	8.821717E-1	9.569811E-1	9.715146E-1	9.355849E-1	8.884334E-1	9.634250E-1	9.055335E-1	9.259403E-1	8.817914E-1	9.650647E-1	8.998757E-1	9.567209E-1	9.486835E-1	9.208145E-1	9.146104E-1	8.945598E-1	8.904142E-1	9.239738E-1	9.399838E-1	9.995443E-1	9.059524E-1	9.867074E-1	9.479047E-1	9.833718E-1	9.442454E-1	9.501271E-1	9.298183E-1	9.547088E-1	9.570874E-1	1.030075E+0	9.441807E-1	9.729888E-1	9.347060E-1	9.719080E-1	9.209877E-1	9.630867E-1	1.015576E+0	9.867598E-1	9.753544E-1	9.495627E-1	9.612261E-1	1.008889E+0	9.675994E-1	9.951425E-1	8.929881E-1	9.281486E-1	1.040354E+0	8.935850E-1	9.741976E-1	1.003253E+0	9.704834E-1	9.685472E-1	9.090408E-1	9.100287E-1	9.230706E-1	9.392271E-1	9.227053E-1	9.285019E-1	8.957174E-1	1.009120E+0	9.699062E-1	9.116472E-1	8.997917E-1	9.442040E-1
2.862050E+2	1.535373E+0	1.549700E+0	1.556861E+0	1.540454E+0	1.604968E+0	1.522045E+0	1.490538E+0	1.476207E+0	1.456511E+0	1.517972E+0	1.503485E+0	1.587568E+0	1.558830E+0	1.462984E+0	1.450182E+0	1.536422E+0	1.466000E+0	1.440660E+0	1.504480E+0	1.446949E+0	1.506705E+0	1.532135E+0	1.455032E+0	1.471647E+0	1.535093E+0	1.422608E+0	1.543038E+0	1.427107E+0	1.588034E+0	1.500571E+0	1.517372E+0	1.479603E+0	1.521396E+0	1.527892E+0	1.464552E+0	1.494422E+0	1.439663E+0	1.432686E+0	1.532238E+0	1.525438E+0	1.440738E+0	1.460190E+0	1.478890E+0	1.435310E+0	1.519195E+0	1.550632E+0	1.476561E+0	1.614126E+0	1.553444E+0	1.534016E+0	1.449768E+0	1.528789E+0	1.459913E+0	1.529490E+0	1.596038E+0	1.542533E+0	1.473496E+0	1.510992E+0	1.528050E+0	1.506287E+0	1.503004E+0	1.478166E+0	1.473733E+0	1.531021E+0	1.551532E+0	1.459720E+0	1.506793E+0	1.503369E+0	1.518609E+0	1.498849E+0	1.484543E+0	1.387202E+0	1.487589E+0	1.523156E+0	1.490451E+0	1.464600E+0	1.531457E+0	1.506122E+0	1.466578E+0	1.490676E+0	1.521408E+0	1.484454E+0	1.505139E+0	1.515127E+0	1.460834E+0	1.533777E+0	1.563343E+0	1.548255E+0	1.578350E+0	1.558618E+0	1.480219E+0	1.467307E+0	1.528576E+0	1.499658E+0	1.476196E+0	1.568443E+0	1.442674E+0	1.461528E+0	1.512127E+0	1.552830E+0	1.570268E+0	1.542029E+0	1.518371E+0	1.553692E+0	1.508443E+0	1.488148E+0	1.454909E+0	1.451827E+0	1.526416E+0	1.514162E+0	1.509810E+0	1.553163E+0	1.562431E+0	1.569719E+0	1.432610E+0	1.561700E+0	1.597680E+0	1.495445E+0	1.575087E+0	1.566275E+0	1.547793E+0	1.600242E+0	1.589787E+0	1.445470E+0	1.537935E+0	1.447721E+0	1.542946E+0	1.490008E+0	1.526341E+0	1.539502E+0	1.554717E+0	1.575077E+0	1.509509E+0	1.553353E+0	1.534315E+0	1.531888E+0	1.448893E+0	1.504572E+0	1.468146E+0	1.471806E+0	1.520883E+0	1.513334E+0	1.491025E+0	1.535001E+0	1.501013E+0	1.511671E+0	1.487870E+0	1.490496E+0	1.536026E+0	1.464468E+0	1.501086E+0	1.471529E+0	1.564018E+0	1.582949E+0	1.512053E+0	1.497419E+0	1.501172E+0	1.576353E+0	1.433763E+0	1.497904E+0	1.483421E+0	1.455253E+0	1.450058E+0	1.435171E+0	1.617914E+0	1.510902E+0	1.488761E+0	1.509953E+0	1.561275E+0	1.431090E+0	1.650222E+0
2.864160E+2	1.218852E+0	1.217404E+0	1.283590E+0	1.193450E+0	1.289970E+0	1.299089E+0	1.218150E+0	1.176504E+0	1.200052E+0	1.221885E+0	1.264501E+0	1.225266E+0	1.155584E+0	1.209094E+0	1.254589E+0	1.253563E+0	1.176002E+0	1.193572E+0	1.181482E+0	1.156689E+0	1.211489E+0	1.170549E+0	1.211592E+0	1.202770E+0	1.262460E+0	1.235869E+0	1.221661E+0	1.257076E+0	1.169468E+0	1.131211E+0	1.243616E+0	1.240778E+0	1.239946E+0	1.194148E+0	1.209441E+0	1.299653E+0	1.238555E+0	1.208964E+0	1.291562E+0	1.240697E+0	1.226834E+0	1.290705E+0	1.218348E+0	1.231435E+0	1.197858E+0	1.179416E+0	1.276179E+0	1.267834E+0	1.130704E+0	1.277770E+0	1.272185E+0	1.246709E+0	1.226234E+0	1.264247E+0	1.213902E+0	1.181734E+0	1.244121E+0	1.245185E+0	1.307510E+0	1.209624E+0	1.188295E+0	1.208417E+0	1.258894E+0	1.207373E+0	1.205380E+0	1.143754E+0	1.282789E+0	1.279246E+0	1.225059E+0	1.170826E+0	1.246431E+0	1.165393E+0	1.259167E+0	1.210629E+0	1.266718E+0	1.251346E+0	1.252793E+0	1.217312E+0	1.239791E+0	1.224051E+0	1.214164E+0	1.196460E+0	1.276136E+0	1.202094E+0	1.179228E+0	1.181702E+0	1.161765E+0	1.233100E+0	1.269650E+0	1.257556E+0	1.211028E+0	1.213297E+0	1.227090E+0	1.198141E+0	1.257865E+0	1.245682E+0	1.236766E+0	1.201907E+0	1.256053E+0	1.274688E+0	1.193221E+0	1.280950E+0	1.230167E+0	1.226713E+0	1.176909E+0	1.260267E+0	1.193232E+0	1.251131E+0	1.206681E+0	1.237580E+0	1.230808E+0	1.187339E+0	1.264806E+0	1.238774E+0	1.205463E+0	1.197282E+0	1.285942E+0	1.249924E+0	1.258301E+0	1.248507E+0	1.233129E+0	1.173180E+0	1.274898E+0	1.189503E+0	1.243184E+0	1.190552E+0	1.222683E+0	1.200157E+0	1.265616E+0	1.303453E+0	1.160396E+0	1.253979E+0	1.247785E+0	1.149331E+0	1.167336E+0	1.241302E+0	1.167424E+0	1.292641E+0	1.198613E+0	1.159942E+0	1.262532E+0	1.231293E+0	1.237617E+0	1.263436E+0	1.313447E+0	1.318511E+0	1.235460E+0	1.195096E+0	1.225990E+0	1.252371E+0	1.209424E+0	1.168810E+0	1.282952E+0	1.205799E+0	1.203095E+0	1.180808E+0	1.234454E+0	1.251640E+0	1.233277E+0	1.215105E+0	1.211928E+0	1.205790E+0	1.199385E+0	1.142615E+0	1.219110E+0	1.182724E+0	1.226006E+0	1.260006E+0	1.166558E+0	1.164621E+0	1.248920E+0
2.866210E+2	1.025989E+0	1.030307E+0	1.009050E+0	9.737842E-1	1.045896E+0	1.061911E+0	1.070128E+0	9.998147E-1	9.777868E-1	1.012867E+0	9.624422E-1	1.044243E+0	1.062856E+0	9.926890E-1	1.037551E+0	1.044812E+0	1.059482E+0	9.770248E-1	9.858032E-1	1.075907E+0	1.056520E+0	1.032290E+0	1.014149E+0	1.030529E+0	1.021365E+0	1.086736E+0	1.056037E+0	1.063742E+0	1.039474E+0	9.686597E-1	1.003008E+0	1.054162E+0	9.965054E-1	1.046258E+0	1.021244E+0	9.981515E-1	1.034942E+0	1.064298E+0	1.132129E+0	1.091343E+0	1.026523E+0	1.114067E+0	1.063787E+0	1.031688E+0	1.038501E+0	1.006702E+0	1.021881E+0	1.035801E+0	1.017652E+0	9.923378E-1	1.051452E+0	1.052593E+0	9.760852E-1	1.045691E+0	9.584581E-1	9.761701E-1	1.036323E+0	1.004651E+0	1.051977E+0	1.000735E+0	9.591412E-1	1.067090E+0	1.069037E+0	9.950711E-1	1.051311E+0	1.046187E+0	1.087659E+0	1.053023E+0	1.018883E+0	1.025756E+0	1.071385E+0	1.038695E+0	1.058393E+0	9.708155E-1	1.039206E+0	1.041867E+0	1.060712E+0	1.061723E+0	9.657723E-1	1.065036E+0	1.028647E+0	1.048526E+0	9.939517E-1	1.043813E+0	1.071066E+0	1.059793E+0	1.127649E+0	1.025872E+0	1.056240E+0	1.026115E+0	1.001089E+0	1.032905E+0	1.069399E+0	1.075184E+0	1.057075E+0	1.018595E+0	1.031148E+0	9.995026E-1	9.952485E-1	1.018302E+0	1.071664E+0	9.328861E-1	1.001110E+0	1.046162E+0	1.076544E+0	1.041528E+0	1.000680E+0	1.033451E+0	1.115196E+0	1.086244E+0	1.054277E+0	1.111424E+0	1.094462E+0	9.771952E-1	9.953469E-1	1.134304E+0	1.048848E+0	1.066781E+0	1.029421E+0	9.868925E-1	1.052849E+0	1.030952E+0	1.013302E+0	9.713613E-1	1.049441E+0	1.005652E+0	1.015606E+0	1.064111E+0	1.116932E+0	1.056884E+0	1.023116E+0	1.126549E+0	1.035497E+0	1.094600E+0	1.053786E+0	1.077803E+0	1.058712E+0	1.059188E+0	1.037979E+0	1.041534E+0	1.091905E+0	9.600124E-1	9.761960E-1	1.060859E+0	1.131449E+0	9.915906E-1	9.853996E-1	1.009517E+0	1.122542E+0	1.028678E+0	1.028541E+0	9.682544E-1	1.037161E+0	9.960127E-1	1.045041E+0	1.033235E+0	1.093527E+0	1.072550E+0	1.010288E+0	1.007500E+0	1.031507E+0	1.025200E+0	1.030222E+0	1.003112E+0	1.080517E+0	1.010268E+0	1.052769E+0	1.057502E+0	1.076700E+0	9.553202E-1	9.911976E-1
2.868020E+2	1.318305E+0	1.378775E+0	1.226482E+0	1.285063E+0	1.324734E+0	1.353802E+0	1.289071E+0	1.319425E+0	1.320245E+0	1.300898E+0	1.334566E+0	1.266737E+0	1.308231E+0	1.266281E+0	1.341675E+0	1.324450E+0	1.331178E+0	1.295944E+0	1.273232E+0	1.317094E+0	1.326907E+0	1.360411E+0	1.342335E+0	1.370443E+0	1.257235E+0	1.298313E+0	1.386299E+0	1.351340E+0	1.314699E+0	1.294956E+0	1.327349E+0	1.328341E+0	1.358842E+0	1.297277E+0	1.323374E+0	1.378719E+0	1.382147E+0	1.339175E+0	1.383121E+0	1.405924E+0	1.326052E+0	1.301547E+0	1.296352E+0	1.386886E+0	1.382428E+0	1.409909E+0	1.278442E+0	1.357107E+0	1.382577E+0	1.346872E+0	1.287708E+0	1.326968E+0	1.313589E+0	1.287583E+0	1.314322E+0	1.263605E+0	1.341906E+0	1.297857E+0	1.376757E+0	1.343254E+0	1.275728E+0	1.359103E+0	1.368567E+0	1.280085E+0	1.315829E+0	1.276509E+0	1.297380E+0	1.325467E+0	1.344854E+0	1.313324E+0	1.321816E+0	1.303358E+0	1.218256E+0	1.349326E+0	1.332464E+0	1.308812E+0	1.367562E+0	1.260750E+0	1.395538E+0	1.307140E+0	1.328801E+0	1.311116E+0	1.290108E+0	1.319635E+0	1.297651E+0	1.371104E+0	1.329306E+0	1.266606E+0	1.378482E+0	1.353027E+0	1.379860E+0	1.369180E+0	1.424735E+0	1.317103E+0	1.419463E+0	1.328471E+0	1.304406E+0	1.270193E+0	1.320031E+0	1.361496E+0	1.414707E+0	1.293517E+0	1.374261E+0	1.326653E+0	1.382457E+0	1.338801E+0	1.278019E+0	1.288402E+0	1.399904E+0	1.319434E+0	1.369052E+0	1.356387E+0	1.430186E+0	1.351920E+0	1.302558E+0	1.330430E+0	1.356127E+0	1.314115E+0	1.306208E+0	1.326443E+0	1.288812E+0	1.418263E+0	1.338228E+0	1.347580E+0	1.289943E+0	1.287767E+0	1.455168E+0	1.376441E+0	1.315141E+0	1.312519E+0	1.325561E+0	1.404352E+0	1.283983E+0	1.424633E+0	1.281859E+0	1.377099E+0	1.370495E+0	1.297312E+0	1.292776E+0	1.399164E+0	1.318329E+0	1.266535E+0	1.300446E+0	1.274688E+0	1.355379E+0	1.323237E+0	1.293194E+0	1.266859E+0	1.305858E+0	1.277719E+0	1.312676E+0	1.319331E+0	1.373451E+0	1.280636E+0	1.403515E+0	1.276280E+0	1.356359E+0	1.398999E+0	1.386528E+0	1.233047E+0	1.313272E+0	1.264477E+0	1.347602E+0	1.339644E+0	1.264910E+0	1.314525E+0	1.334213E+0	1.315936E+0	1.323198E+0	1.312626E+0	1.200462E+0
2.870030E+2	1.249224E+0	1.347450E+0	1.222577E+0	1.249337E+0	1.271878E+0	1.311970E+0	1.298722E+0	1.260112E+0	1.265160E+0	1.249149E+0	1.251501E+0	1.294361E+0	1.185804E+0	1.221705E+0	1.216347E+0	1.272180E+0	1.193898E+0	1.216529E+0	1.226992E+0	1.298109E+0	1.334212E+0	1.249642E+0	1.292416E+0	1.238802E+0	1.268336E+0	1.298521E+0	1.312426E+0	1.264333E+0	1.262312E+0	1.196567E+0	1.204794E+0	1.247528E+0	1.305231E+0	1.281690E+0	1.277136E+0	1.264347E+0	1.268729E+0	1.292912E+0	1.286852E+0	1.256253E+0	1.352269E+0	1.237194E+0	1.318138E+0	1.255511E+0	1.277245E+0	1.319275E+0	1.256547E+0	1.322036E+0	1.367072E+0	1.264508E+0	1.224055E+0	1.368369E+0	1.286254E+0	1.298255E+0	1.290242E+0	1.292519E+0	1.219773E+0	1.261668E+0	1.290231E+0	1.204832E+0	1.197103E+0	1.312010E+0	1.237181E+0	1.306954E+0	1.286731E+0	1.250598E+0	1.217494E+0	1.223463E+0	1.287240E+0	1.262526E+0	1.305458E+0	1.255563E+0	1.184385E+0	1.244178E+0	1.298953E+0	1.248434E+0	1.159058E+0	1.248356E+0	1.202482E+0	1.251526E+0	1.278968E+0	1.259719E+0	1.179162E+0	1.285627E+0	1.262999E+0	1.280072E+0	1.281820E+0	1.233195E+0	1.336148E+0	1.245113E+0	1.263583E+0	1.247557E+0	1.320747E+0	1.196866E+0	1.195228E+0	1.251927E+0	1.270373E+0	1.201904E+0	1.195030E+0	1.244694E+0	1.286110E+0	1.235568E+0	1.323590E+0	1.228609E+0	1.307972E+0	1.325478E+0	1.313525E+0	1.263744E+0	1.283762E+0	1.281441E+0	1.245296E+0	1.295298E+0	1.282855E+0	1.250928E+0	1.174336E+0	1.348116E+0	1.330605E+0	1.215579E+0	1.356691E+0	1.263984E+0	1.253707E+0	1.230389E+0	1.307244E+0	1.253420E+0	1.317407E+0	1.242091E+0	1.234633E+0	1.250625E+0	1.315793E+0	1.349469E+0	1.240095E+0	1.268888E+0	1.251097E+0	1.262551E+0	1.242057E+0	1.342611E+0	1.367511E+0	1.337335E+0	1.206366E+0	1.252505E+0	1.335509E+0	1.243722E+0	1.318583E+0	1.366781E+0	1.342092E+0	1.235819E+0	1.211890E+0	1.290591E+0	1.280663E+0	1.172136E+0	1.262518E+0	1.273554E+0	1.230200E+0	1.243224E+0	1.238099E+0	1.273502E+0	1.281862E+0	1.346745E+0	1.270887E+0	1.311692E+0	1.304163E+0	1.269047E+0	1.225810E+0	1.305083E+0	1.229823E+0	1.245744E+0	1.242481E+0	1.366304E+0	1.299838E+0	1.321478E+0	1.184600E+0
2.872050E+2	1.198903E+0	1.125535E+0	1.175454E+0	1.066809E+0	1.138070E+0	1.177807E+0	1.169150E+0	1.167032E+0	1.068826E+0	1.150140E+0	1.135684E+0	1.108103E+0	1.078584E+0	1.128093E+0	1.104943E+0	1.156565E+0	1.135397E+0	1.152443E+0	1.096567E+0	1.137361E+0	1.180293E+0	1.150425E+0	1.125335E+0	1.172085E+0	1.124600E+0	1.090902E+0	1.149354E+0	1.150692E+0	1.153552E+0	1.118578E+0	1.114755E+0	1.054327E+0	1.182019E+0	1.152577E+0	1.172654E+0	1.156616E+0	1.144391E+0	1.102837E+0	1.183602E+0	1.096863E+0	1.175538E+0	1.194833E+0	1.145272E+0	1.141164E+0	1.176828E+0	1.191945E+0	1.132619E+0	1.159640E+0	1.152002E+0	1.087451E+0	1.138965E+0	1.094168E+0	1.202511E+0	1.197350E+0	1.099197E+0	1.087135E+0	1.114653E+0	1.107332E+0	1.175381E+0	1.112194E+0	1.135175E+0	1.090172E+0	1.164812E+0	1.121594E+0	1.192759E+0	1.149417E+0	1.138335E+0	1.126435E+0	1.131653E+0	1.119360E+0	1.142393E+0	1.072634E+0	1.150226E+0	1.179915E+0	1.116333E+0	1.089152E+0	1.184290E+0	1.110025E+0	1.178075E+0	1.163314E+0	1.120014E+0	1.146543E+0	1.091872E+0	1.146914E+0	1.087274E+0	1.096230E+0	1.154073E+0	1.123009E+0	1.184222E+0	1.103231E+0	1.062675E+0	1.109094E+0	1.215153E+0	1.069641E+0	1.143196E+0	1.105720E+0	1.099298E+0	1.124291E+0	1.106713E+0	1.143234E+0	1.164215E+0	1.092305E+0	1.151271E+0	1.088854E+0	1.185067E+0	1.150901E+0	1.169390E+0	1.127446E+0	1.187099E+0	1.230026E+0	1.140224E+0	1.191801E+0	1.167874E+0	1.114088E+0	1.097731E+0	1.127904E+0	1.221741E+0	1.072203E+0	1.148688E+0	1.139033E+0	1.083371E+0	1.152785E+0	1.130924E+0	1.058707E+0	1.098602E+0	1.113236E+0	1.161306E+0	1.094617E+0	1.193284E+0	1.114975E+0	1.130171E+0	1.150683E+0	1.167422E+0	1.177323E+0	1.114821E+0	1.081542E+0	1.119569E+0	1.137323E+0	1.149047E+0	1.129173E+0	1.198710E+0	1.142356E+0	1.154819E+0	1.191869E+0	1.240520E+0	1.135987E+0	1.096108E+0	1.075884E+0	1.178408E+0	1.091621E+0	1.174849E+0	1.121652E+0	1.181654E+0	1.173223E+0	1.152443E+0	1.133864E+0	1.138805E+0	1.158918E+0	1.075302E+0	1.227677E+0	1.178504E+0	1.128316E+0	1.144082E+0	1.147398E+0	1.177770E+0	1.156038E+0	1.143731E+0	1.161361E+0	1.222828E+0	1.255080E+0	1.115506E+0
2.874030E+2	8.404987E-1	8.576586E-1	8.429951E-1	8.319827E-1	8.495536E-1	9.037637E-1	8.599175E-1	8.741744E-1	8.588812E-1	9.055431E-1	8.677712E-1	8.776496E-1	8.109230E-1	8.082656E-1	8.321852E-1	8.372037E-1	8.911396E-1	7.995636E-1	7.842057E-1	8.248679E-1	9.307378E-1	8.129468E-1	8.614557E-1	7.893477E-1	8.829739E-1	8.193473E-1	8.245149E-1	8.597666E-1	8.550004E-1	7.776341E-1	8.675751E-1	8.717219E-1	8.529827E-1	8.220636E-1	8.134542E-1	8.708486E-1	8.531161E-1	8.719024E-1	8.894468E-1	8.286193E-1	7.817838E-1	8.356694E-1	8.282620E-1	9.307793E-1	8.297119E-1	8.870784E-1	8.856524E-1	8.461274E-1	8.493031E-1	8.632292E-1	8.532776E-1	8.475747E-1	8.972683E-1	8.260320E-1	8.748033E-1	8.075068E-1	7.957159E-1	8.366553E-1	8.687663E-1	8.816670E-1	8.679595E-1	9.349413E-1	9.206571E-1	8.548690E-1	8.459909E-1	8.453354E-1	8.721647E-1	8.976999E-1	8.316638E-1	8.751318E-1	8.289491E-1	8.592914E-1	7.966571E-1	8.960342E-1	8.320950E-1	8.452839E-1	8.981667E-1	9.013274E-1	8.382554E-1	8.386203E-1	8.204358E-1	7.832931E-1	8.539991E-1	8.320633E-1	8.340486E-1	8.263125E-1	8.780998E-1	8.743724E-1	8.846039E-1	8.959100E-1	8.224199E-1	8.727596E-1	8.426343E-1	8.696922E-1	8.839693E-1	8.485359E-1	8.199542E-1	8.595307E-1	9.025439E-1	8.563212E-1	8.462608E-1	8.436761E-1	7.981156E-1	8.562142E-1	9.137603E-1	8.644896E-1	8.615969E-1	8.969184E-1	9.232728E-1	8.704093E-1	8.486643E-1	8.997416E-1	8.908527E-1	8.721640E-1	8.373182E-1	9.235176E-1	9.115298E-1	8.226923E-1	8.866295E-1	8.009898E-1	8.454886E-1	9.131048E-1	8.720429E-1	7.870357E-1	8.774541E-1	8.294722E-1	8.200327E-1	8.535337E-1	9.457994E-1	8.638001E-1	8.815101E-1	9.091570E-1	8.134256E-1	8.513362E-1	9.132008E-1	9.459134E-1	8.228779E-1	8.496176E-1	8.915089E-1	8.475689E-1	8.580724E-1	8.085894E-1	8.937262E-1	8.778404E-1	9.494352E-1	8.248264E-1	8.447493E-1	8.646159E-1	8.734905E-1	8.361198E-1	9.025867E-1	8.308189E-1	8.848638E-1	8.023538E-1	8.163227E-1	9.013452E-1	8.546037E-1	8.705220E-1	8.724095E-1	8.774255E-1	8.263045E-1	8.714017E-1	8.719661E-1	8.514933E-1	8.588086E-1	8.710635E-1	9.287109E-1	9.264130E-1	9.755233E-1	8.399268E-1	9.063769E-1
2.876050E+2	6.907910E-1	6.434693E-1	6.255893E-1	6.723002E-1	6.598597E-1	6.867596E-1	6.396833E-1	6.816428E-1	6.765692E-1	6.477254E-1	6.622379E-1	6.682678E-1	6.522457E-1	6.174090E-1	6.501207E-1	6.632347E-1	6.508032E-1	6.184233E-1	6.535252E-1	6.489970E-1	7.058021E-1	6.316016E-1	6.819293E-1	6.430742E-1	6.242685E-1	6.300937E-1	6.640689E-1	6.575797E-1	6.634103E-1	6.030570E-1	6.775226E-1	6.066730E-1	6.860712E-1	7.059412E-1	6.174943E-1	6.638385E-1	6.532780E-1	6.053250E-1	6.436124E-1	6.477429E-1	6.164998E-1	6.619873E-1	6.608333E-1	6.516235E-1	6.566218E-1	6.202571E-1	6.531345E-1	6.327373E-1	6.704454E-1	6.300805E-1	6.587719E-1	6.318743E-1	6.764537E-1	6.722732E-1	7.077001E-1	6.932021E-1	6.362855E-1	7.025898E-1	6.706887E-1	6.372825E-1	6.180039E-1	6.611940E-1	6.465702E-1	6.550792E-1	6.804942E-1	6.827080E-1	6.722938E-1	6.751352E-1	6.398003E-1	6.302070E-1	6.299002E-1	6.530804E-1	6.782493E-1	6.486099E-1	6.167658E-1	6.467240E-1	6.475011E-1	6.478710E-1	6.308383E-1	6.314298E-1	6.927286E-1	6.065364E-1	6.645503E-1	6.492918E-1	6.751557E-1	6.882530E-1	6.634831E-1	6.452093E-1	7.043117E-1	6.803755E-1	6.270840E-1	6.359984E-1	6.517417E-1	6.700436E-1	6.882661E-1	6.332564E-1	7.114920E-1	6.734529E-1	6.658275E-1	7.024151E-1	7.270086E-1	6.753063E-1	7.043135E-1	6.469448E-1	6.918162E-1	5.742047E-1	6.921765E-1	6.269993E-1	6.689836E-1	6.691833E-1	6.951895E-1	6.903451E-1	7.236821E-1	6.324037E-1	6.718814E-1	6.609710E-1	6.848857E-1	6.714478E-1	6.706190E-1	6.343496E-1	6.699390E-1	6.744555E-1	6.977389E-1	6.623924E-1	6.796810E-1	6.766343E-1	6.603484E-1	7.208866E-1	6.085296E-1	6.814992E-1	6.729764E-1	6.810136E-1	6.327888E-1	6.956569E-1	6.750667E-1	6.270922E-1	6.200761E-1	6.541062E-1	6.397258E-1	6.700777E-1	6.502432E-1	6.756259E-1	6.336511E-1	6.825333E-1	6.885795E-1	6.717481E-1	6.952488E-1	6.959603E-1	6.955997E-1	6.497195E-1	6.377428E-1	6.441193E-1	6.508532E-1	6.669303E-1	6.046825E-1	6.317989E-1	7.056480E-1	6.261018E-1	6.395882E-1	7.132410E-1	6.586185E-1	6.650372E-1	6.338349E-1	7.125308E-1	7.128731E-1	6.579780E-1	6.604253E-1	6.399262E-1	6.594455E-1	6.085162E-1	7.774450E-1
2.878050E+2	5.087779E-1	4.876964E-1	5.167178E-1	5.485860E-1	5.297219E-1	5.316806E-1	5.220699E-1	4.534123E-1	4.647186E-1	4.808039E-1	5.590717E-1	5.433429E-1	5.488337E-1	5.173181E-1	5.125621E-1	5.469593E-1	4.806053E-1	5.219831E-1	5.246861E-1	4.887253E-1	5.156851E-1	4.780332E-1	5.344459E-1	5.696676E-1	5.339587E-1	5.257440E-1	5.294301E-1	4.719462E-1	4.519188E-1	4.913629E-1	4.910970E-1	5.211009E-1	5.320964E-1	4.817994E-1	5.322912E-1	5.513565E-1	5.349443E-1	4.725673E-1	5.055418E-1	5.207902E-1	4.671038E-1	5.437758E-1	4.781888E-1	5.119397E-1	4.698036E-1	4.944432E-1	5.252022E-1	5.335988E-1	5.257337E-1	5.329822E-1	4.966865E-1	4.722386E-1	5.469451E-1	5.262510E-1	5.331783E-1	4.991918E-1	5.219971E-1	5.521455E-1	5.563352E-1	4.905226E-1	5.028103E-1	5.825344E-1	5.360424E-1	5.186514E-1	5.039001E-1	5.306240E-1	5.522297E-1	5.149872E-1	5.293783E-1	4.763192E-1	5.111387E-1	5.132489E-1	5.133447E-1	4.859884E-1	5.217311E-1	5.506294E-1	5.059791E-1	5.192383E-1	5.213797E-1	5.122056E-1	5.083484E-1	5.765839E-1	4.472859E-1	5.287366E-1	5.237322E-1	5.079357E-1	5.177730E-1	5.321500E-1	5.368628E-1	5.315491E-1	4.908205E-1	5.086445E-1	5.288548E-1	5.679459E-1	5.517688E-1	5.256320E-1	4.822601E-1	4.944735E-1	5.206074E-1	4.898759E-1	5.377275E-1	5.121991E-1	5.238253E-1	5.056968E-1	5.585682E-1	5.228319E-1	5.078405E-1	5.098550E-1	5.184899E-1	5.025147E-1	5.412066E-1	5.280619E-1	5.795596E-1	5.616783E-1	4.989554E-1	5.875136E-1	5.671265E-1	5.401719E-1	5.988326E-1	4.758454E-1	5.104648E-1	4.870012E-1	5.767518E-1	5.306850E-1	5.698155E-1	5.023153E-1	4.931806E-1	5.765713E-1	4.919790E-1	5.446092E-1	5.295166E-1	6.020284E-1	5.236600E-1	5.000434E-1	4.981729E-1	5.601910E-1	5.744394E-1	5.179573E-1	5.102670E-1	5.541410E-1	5.066867E-1	5.330616E-1	5.350521E-1	5.339155E-1	5.248556E-1	5.640292E-1	5.328713E-1	4.872700E-1	5.131658E-1	4.834569E-1	5.176909E-1	5.257063E-1	5.575766E-1	5.194864E-1	5.313658E-1	5.640039E-1	5.050075E-1	5.224835E-1	5.361006E-1	5.142018E-1	5.346752E-1	5.188833E-1	5.286423E-1	5.048296E-1	5.342603E-1	4.849429E-1	4.984427E-1	5.235120E-1	5.166910E-1	5.646444E-1	5.156523E-1
2.880020E+2	6.197847E-1	6.201242E-1	6.150590E-1	6.138603E-1	6.187401E-1	5.793224E-1	5.830386E-1	5.618103E-1	6.320665E-1	5.458736E-1	6.143725E-1	5.393721E-1	5.961721E-1	5.860788E-1	6.128241E-1	6.146348E-1	5.696172E-1	6.143277E-1	5.985362E-1	6.024791E-1	5.872999E-1	6.024810E-1	6.139378E-1	6.020335E-1	5.768409E-1	5.524647E-1	5.738246E-1	6.015855E-1	5.752685E-1	5.832294E-1	5.728193E-1	5.418294E-1	5.850785E-1	5.926403E-1	5.858122E-1	5.677411E-1	6.281088E-1	6.160023E-1	6.087192E-1	5.852081E-1	5.404751E-1	6.213543E-1	5.333441E-1	6.049205E-1	5.857769E-1	5.572507E-1	5.557757E-1	5.872214E-1	6.210427E-1	5.333847E-1	6.159378E-1	5.947860E-1	5.849596E-1	5.869837E-1	5.785931E-1	5.880423E-1	6.101012E-1	6.389969E-1	5.716211E-1	5.676640E-1	5.943191E-1	5.555874E-1	5.849231E-1	5.642545E-1	5.175263E-1	5.775393E-1	5.895976E-1	5.417138E-1	6.374527E-1	6.005051E-1	6.039111E-1	5.537862E-1	6.318000E-1	5.697081E-1	5.856233E-1	5.992193E-1	6.521499E-1	6.038126E-1	5.785695E-1	5.574509E-1	5.822518E-1	5.513759E-1	5.933377E-1	5.618088E-1	5.881851E-1	6.081161E-1	5.809075E-1	6.395593E-1	5.750887E-1	5.701924E-1	5.534751E-1	6.103885E-1	6.125542E-1	6.300616E-1	5.969294E-1	5.473790E-1	6.112509E-1	5.679047E-1	6.176701E-1	6.019704E-1	6.022200E-1	6.253081E-1	5.753310E-1	5.828106E-1	5.752354E-1	6.067619E-1	5.665410E-1	5.891820E-1	6.001202E-1	6.133053E-1	6.202954E-1	5.934543E-1	6.174463E-1	5.715301E-1	5.545728E-1	5.895400E-1	5.639540E-1	5.985068E-1	5.700714E-1	5.658709E-1	6.183364E-1	6.099679E-1	6.143044E-1	5.324291E-1	6.452260E-1	5.788963E-1	5.990942E-1	6.046503E-1	6.486867E-1	6.075572E-1	5.919035E-1	5.599211E-1	6.014629E-1	6.216031E-1	5.883747E-1	6.327043E-1	5.972151E-1	6.069841E-1	5.808571E-1	5.709147E-1	6.371834E-1	5.500441E-1	6.000163E-1	5.588547E-1	6.096617E-1	6.073085E-1	5.659522E-1	5.941538E-1	6.030478E-1	6.501558E-1	5.879318E-1	5.968105E-1	5.768623E-1	5.852799E-1	6.128133E-1	5.941932E-1	6.107244E-1	5.744688E-1	6.114537E-1	6.124119E-1	6.045202E-1	5.535021E-1	5.678577E-1	6.152238E-1	6.099226E-1	5.527402E-1	5.484213E-1	6.308376E-1	6.454675E-1	5.162227E-1	5.577618E-1
2.882200E+2	7.875268E-1	7.684475E-1	8.013855E-1	7.705928E-1	7.686266E-1	7.512716E-1	7.430231E-1	7.076306E-1	7.858686E-1	7.147912E-1	7.574515E-1	8.123281E-1	7.433769E-1	7.197838E-1	7.745937E-1	7.237095E-1	7.491968E-1	7.841169E-1	7.825212E-1	7.199508E-1	7.595380E-1	7.617538E-1	7.204337E-1	7.132793E-1	7.665674E-1	7.709756E-1	7.573852E-1	7.560380E-1	7.136091E-1	7.437161E-1	7.502124E-1	6.934277E-1	8.036274E-1	7.682133E-1	7.464942E-1	7.816217E-1	7.587131E-1	8.046161E-1	7.430647E-1	7.186349E-1	7.975315E-1	7.933585E-1	7.937502E-1	7.638937E-1	7.880860E-1	7.633114E-1	7.206797E-1	7.433185E-1	6.923568E-1	7.394023E-1	7.505895E-1	7.142708E-1	7.570608E-1	7.241496E-1	7.733872E-1	7.522503E-1	7.362583E-1	6.677563E-1	7.706545E-1	7.142718E-1	7.405799E-1	7.783986E-1	7.674472E-1	7.582730E-1	7.017102E-1	7.427791E-1	7.584253E-1	7.260866E-1	7.626971E-1	7.241681E-1	7.298684E-1	7.545114E-1	7.629145E-1	7.516087E-1	7.054974E-1	7.178491E-1	8.068385E-1	8.123958E-1	7.876482E-1	7.667680E-1	7.723269E-1	7.144512E-1	7.476403E-1	7.811450E-1	7.026611E-1	7.375675E-1	7.822187E-1	7.563380E-1	8.025623E-1	7.271856E-1	7.535393E-1	7.415608E-1	7.720617E-1	7.983162E-1	7.216883E-1	7.395100E-1	7.548750E-1	7.535475E-1	7.571256E-1	7.644852E-1	8.293833E-1	7.916444E-1	7.036732E-1	6.989911E-1	7.127394E-1	7.902848E-1	7.829896E-1	7.292609E-1	7.643099E-1	7.331252E-1	7.359529E-1	7.532485E-1	8.375771E-1	7.952920E-1	7.253577E-1	8.119049E-1	7.786969E-1	7.673558E-1	7.224195E-1	7.152376E-1	8.077194E-1	8.059586E-1	7.721276E-1	7.159981E-1	7.392863E-1	7.797454E-1	7.759107E-1	8.179889E-1	7.337514E-1	7.584907E-1	7.511855E-1	7.086651E-1	8.004048E-1	7.769435E-1	7.730732E-1	7.745960E-1	7.031387E-1	6.887957E-1	7.460539E-1	8.274367E-1	7.612565E-1	7.871363E-1	7.441121E-1	7.642797E-1	7.571698E-1	7.369810E-1	7.778887E-1	7.683548E-1	8.148464E-1	7.821590E-1	7.496191E-1	6.947311E-1	7.822755E-1	7.241477E-1	7.470880E-1	7.879942E-1	7.223115E-1	7.673608E-1	7.519926E-1	8.175876E-1	8.004014E-1	7.648840E-1	7.837146E-1	7.686644E-1	8.019951E-1	7.681920E-1	7.811541E-1	7.981174E-1	7.804520E-1	7.679299E-1	6.808543E-1
2.884070E+2	1.147427E+0	1.087081E+0	1.066477E+0	1.157214E+0	1.038161E+0	1.074960E+0	1.095509E+0	1.118178E+0	1.121984E+0	1.031978E+0	1.160384E+0	1.114405E+0	1.072756E+0	1.043104E+0	1.052377E+0	1.055076E+0	1.060244E+0	1.078130E+0	1.067314E+0	1.093904E+0	1.069157E+0	1.123830E+0	1.066763E+0	1.140382E+0	1.040696E+0	1.091329E+0	1.040605E+0	1.067809E+0	1.100546E+0	1.083778E+0	1.095522E+0	1.124665E+0	1.178709E+0	1.142896E+0	1.170538E+0	1.083570E+0	1.080127E+0	1.166041E+0	1.126838E+0	1.125146E+0	1.112368E+0	1.102318E+0	1.088341E+0	1.096684E+0	1.077487E+0	1.072136E+0	1.094927E+0	1.086528E+0	1.127266E+0	1.074973E+0	1.138081E+0	1.190704E+0	1.083260E+0	1.147125E+0	1.083428E+0	1.124146E+0	1.105015E+0	1.140720E+0	1.135329E+0	1.085168E+0	1.135693E+0	1.106930E+0	1.088322E+0	1.093172E+0	1.102870E+0	1.198304E+0	1.112955E+0	1.156249E+0	1.051080E+0	1.092044E+0	1.080557E+0	1.102942E+0	1.120598E+0	1.103368E+0	1.073678E+0	1.108683E+0	1.119257E+0	1.119757E+0	1.073749E+0	1.017088E+0	1.136168E+0	1.076503E+0	1.110332E+0	1.063469E+0	1.166938E+0	1.046977E+0	1.053170E+0	1.069176E+0	1.060419E+0	1.060180E+0	1.146897E+0	1.078614E+0	1.181046E+0	1.148206E+0	1.104986E+0	1.098912E+0	1.083558E+0	1.054321E+0	1.109936E+0	1.108896E+0	1.127357E+0	1.125603E+0	1.111022E+0	1.083497E+0	1.079012E+0	1.142743E+0	1.121896E+0	1.105019E+0	1.083086E+0	1.069195E+0	1.092058E+0	1.109675E+0	1.164674E+0	1.110375E+0	1.065781E+0	1.119079E+0	1.139317E+0	1.136094E+0	1.084908E+0	1.164049E+0	1.049043E+0	1.121534E+0	1.114219E+0	1.055964E+0	1.155786E+0	1.061292E+0	1.127434E+0	1.140425E+0	1.107918E+0	1.160500E+0	1.099013E+0	1.070666E+0	1.096196E+0	1.054870E+0	1.121162E+0	1.127223E+0	1.117169E+0	1.142697E+0	1.121150E+0	1.078279E+0	1.063168E+0	1.050290E+0	1.062610E+0	1.130715E+0	1.202504E+0	1.107692E+0	1.121857E+0	1.073653E+0	1.140529E+0	1.052833E+0	1.154427E+0	1.143855E+0	1.152842E+0	1.024966E+0	1.072413E+0	1.096807E+0	1.089491E+0	1.111478E+0	1.063249E+0	1.106854E+0	1.078596E+0	1.135895E+0	1.062374E+0	1.086180E+0	1.149329E+0	1.147789E+0	1.208421E+0	1.106169E+0	1.111768E+0	1.196037E+0	1.088345E+0
2.886010E+2	1.164921E+0	1.212140E+0	1.127172E+0	1.177645E+0	1.249171E+0	1.169003E+0	1.150188E+0	1.225052E+0	1.180033E+0	1.182719E+0	1.196391E+0	1.215551E+0	1.219888E+0	1.147461E+0	1.164725E+0	1.255988E+0	1.189384E+0	1.157365E+0	1.187151E+0	1.188003E+0	1.230246E+0	1.159211E+0	1.155456E+0	1.215168E+0	1.215341E+0	1.197960E+0	1.253329E+0	1.213004E+0	1.165892E+0	1.180616E+0	1.193194E+0	1.216112E+0	1.268198E+0	1.164743E+0	1.215238E+0	1.189802E+0	1.222906E+0	1.254239E+0	1.183274E+0	1.266507E+0	1.204049E+0	1.247218E+0	1.208755E+0	1.219990E+0	1.171771E+0	1.252886E+0	1.187876E+0	1.238977E+0	1.234353E+0	1.156071E+0	1.175188E+0	1.171039E+0	1.170785E+0	1.216036E+0	1.185653E+0	1.214209E+0	1.199034E+0	1.165568E+0	1.221750E+0	1.130204E+0	1.245954E+0	1.255983E+0	1.167681E+0	1.219799E+0	1.140519E+0	1.214063E+0	1.313316E+0	1.278382E+0	1.209333E+0	1.141218E+0	1.243817E+0	1.168701E+0	1.284837E+0	1.197496E+0	1.165987E+0	1.194956E+0	1.229273E+0	1.233193E+0	1.206158E+0	1.156656E+0	1.241766E+0	1.194538E+0	1.162152E+0	1.221491E+0	1.087131E+0	1.198330E+0	1.234035E+0	1.213555E+0	1.157385E+0	1.158269E+0	1.244627E+0	1.171848E+0	1.200882E+0	1.100191E+0	1.266967E+0	1.128403E+0	1.195328E+0	1.224030E+0	1.124969E+0	1.256781E+0	1.278388E+0	1.186121E+0	1.232718E+0	1.127103E+0	1.232085E+0	1.223048E+0	1.236528E+0	1.164670E+0	1.180206E+0	1.175022E+0	1.189214E+0	1.236689E+0	1.211472E+0	1.227018E+0	1.159061E+0	1.233331E+0	1.278774E+0	1.172885E+0	1.265077E+0	1.122838E+0	1.140664E+0	1.236224E+0	1.209432E+0	1.135931E+0	1.207573E+0	1.156751E+0	1.193444E+0	1.196927E+0	1.186211E+0	1.243332E+0	1.236300E+0	1.160180E+0	1.187754E+0	1.196442E+0	1.210566E+0	1.234595E+0	1.213308E+0	1.211390E+0	1.151090E+0	1.243137E+0	1.211130E+0	1.132994E+0	1.122990E+0	1.103787E+0	1.277496E+0	1.273429E+0	1.208064E+0	1.179320E+0	1.244991E+0	1.184589E+0	1.236006E+0	1.168837E+0	1.215200E+0	1.157381E+0	1.165575E+0	1.122014E+0	1.262186E+0	1.202564E+0	1.273235E+0	1.115327E+0	1.155051E+0	1.092753E+0	1.132954E+0	1.139581E+0	1.241196E+0	1.197063E+0	1.184139E+0	1.152408E+0	1.341944E+0	1.268647E+0	1.256182E+0
2.888240E+2	1.084493E+0	1.097754E+0	1.151290E+0	1.090952E+0	1.128683E+0	1.031746E+0	1.045751E+0	1.097618E+0	1.064743E+0	1.029006E+0	1.116859E+0	1.064694E+0	1.048267E+0	1.004308E+0	1.053532E+0	1.126272E+0	1.023666E+0	1.083757E+0	1.067286E+0	1.003323E+0	1.066418E+0	1.109616E+0	1.111331E+0	1.105267E+0	1.091435E+0	1.063985E+0	1.090732E+0	1.075096E+0	1.137126E+0	9.880109E-1	1.077419E+0	1.058808E+0	1.071316E+0	1.053147E+0	1.044683E+0	1.022581E+0	1.106873E+0	1.144235E+0	1.128228E+0	1.086196E+0	1.073500E+0	1.128421E+0	1.072466E+0	9.840165E-1	1.048004E+0	1.163111E+0	1.075605E+0	1.026657E+0	1.079476E+0	1.104727E+0	1.095741E+0	1.096733E+0	1.132527E+0	1.187165E+0	1.110193E+0	1.081033E+0	1.095527E+0	1.071241E+0	1.111044E+0	1.006104E+0	1.068223E+0	1.097282E+0	1.065329E+0	1.103356E+0	1.073227E+0	1.107979E+0	1.095627E+0	1.048573E+0	1.051612E+0	1.040345E+0	1.088950E+0	1.040188E+0	1.094307E+0	1.052183E+0	1.065548E+0	1.028458E+0	1.155758E+0	1.077594E+0	1.090053E+0	1.070405E+0	1.108006E+0	1.127534E+0	1.089867E+0	1.024670E+0	1.050531E+0	1.084760E+0	1.095725E+0	1.131076E+0	1.075074E+0	1.068909E+0	1.066664E+0	1.061703E+0	1.130530E+0	1.017603E+0	1.071221E+0	1.060584E+0	1.060835E+0	1.107152E+0	1.023319E+0	1.105920E+0	1.109396E+0	1.039508E+0	1.107184E+0	9.617699E-1	1.103690E+0	1.086905E+0	1.117919E+0	1.070042E+0	1.103882E+0	1.125687E+0	1.051475E+0	9.888664E-1	1.079348E+0	1.071552E+0	1.051283E+0	1.048784E+0	1.082418E+0	1.033049E+0	1.128600E+0	1.082406E+0	1.004347E+0	1.077180E+0	1.110567E+0	1.058124E+0	1.077516E+0	1.092960E+0	1.070437E+0	1.077390E+0	1.094851E+0	1.077015E+0	1.041540E+0	1.028813E+0	1.130501E+0	1.091588E+0	1.102644E+0	1.122730E+0	1.050751E+0	1.034696E+0	1.046132E+0	1.056565E+0	1.056936E+0	1.052384E+0	1.085423E+0	1.008153E+0	1.131686E+0	1.063128E+0	1.022238E+0	1.010355E+0	1.042890E+0	9.857738E-1	1.075116E+0	9.829077E-1	1.083134E+0	1.098849E+0	1.076899E+0	1.035668E+0	1.154089E+0	1.045040E+0	1.054374E+0	1.078498E+0	1.047930E+0	1.061567E+0	9.680477E-1	1.122180E+0	1.069449E+0	1.011965E+0	1.089819E+0	1.095129E+0	1.104025E+0	1.077877E+0	1.199736E+0
2.890060E+2	8.538068E-1	9.282539E-1	8.809665E-1	9.054504E-1	8.480158E-1	8.312758E-1	9.307569E-1	8.968342E-1	8.983882E-1	8.591913E-1	9.073552E-1	9.121282E-1	9.102742E-1	8.364910E-1	8.699609E-1	9.182326E-1	8.671261E-1	8.657860E-1	8.373194E-1	8.690619E-1	8.303757E-1	8.355696E-1	8.695933E-1	8.759987E-1	8.303729E-1	8.528881E-1	8.916203E-1	8.821270E-1	9.174262E-1	8.829836E-1	8.257482E-1	8.600411E-1	9.208083E-1	8.699876E-1	8.493534E-1	8.684643E-1	9.640291E-1	8.886030E-1	8.978171E-1	8.506986E-1	8.173583E-1	8.847256E-1	8.804287E-1	8.430059E-1	8.623130E-1	9.069401E-1	8.720390E-1	8.725824E-1	9.551590E-1	9.168438E-1	7.961620E-1	8.331761E-1	8.973150E-1	8.602024E-1	8.740497E-1	9.141045E-1	8.170041E-1	9.052838E-1	8.851250E-1	8.540488E-1	9.353210E-1	8.637182E-1	8.874600E-1	8.433961E-1	8.344714E-1	8.950777E-1	8.953600E-1	7.917306E-1	8.323914E-1	8.641949E-1	8.664829E-1	9.025207E-1	8.733693E-1	8.881957E-1	8.027156E-1	8.988520E-1	9.503183E-1	9.021237E-1	8.358594E-1	8.596918E-1	8.705068E-1	8.825560E-1	8.010496E-1	8.958086E-1	8.789575E-1	8.987974E-1	8.652597E-1	8.800625E-1	9.026997E-1	8.669229E-1	8.901799E-1	8.179041E-1	9.049588E-1	8.755990E-1	9.175847E-1	8.484796E-1	8.698607E-1	8.892198E-1	9.106209E-1	8.747788E-1	9.211420E-1	8.340656E-1	8.972533E-1	9.038368E-1	8.793150E-1	9.005354E-1	8.853205E-1	8.427140E-1	9.471274E-1	8.178646E-1	8.838723E-1	9.084446E-1	8.765458E-1	8.955575E-1	8.884426E-1	8.969311E-1	8.738947E-1	9.127245E-1	8.436751E-1	9.363014E-1	9.512525E-1	8.896114E-1	9.368369E-1	8.666874E-1	8.979271E-1	8.893936E-1	8.865959E-1	9.243875E-1	8.854750E-1	8.543849E-1	9.139449E-1	8.914755E-1	8.345768E-1	9.010010E-1	8.675893E-1	9.040836E-1	8.837018E-1	8.052328E-1	8.863174E-1	9.419313E-1	9.379737E-1	9.267144E-1	8.437345E-1	8.753632E-1	8.519409E-1	8.637691E-1	8.942921E-1	8.770638E-1	9.363447E-1	8.665480E-1	8.723894E-1	8.562557E-1	8.643841E-1	9.324715E-1	9.217172E-1	8.420321E-1	8.942267E-1	8.761750E-1	8.967367E-1	8.506034E-1	8.889013E-1	8.268952E-1	8.736554E-1	8.825918E-1	9.561216E-1	8.699690E-1	9.292683E-1	9.369134E-1	9.755158E-1	8.358483E-1	9.776821E-1
2.892070E+2	8.126273E-1	7.718820E-1	8.786600E-1	7.668658E-1	7.823197E-1	8.073798E-1	8.151880E-1	8.010728E-1	8.127090E-1	8.096513E-1	7.852749E-1	7.731459E-1	8.318703E-1	7.836277E-1	8.091152E-1	7.637715E-1	8.109483E-1	7.712783E-1	7.898217E-1	7.433057E-1	8.209591E-1	7.968125E-1	7.975170E-1	7.520672E-1	8.280825E-1	7.252521E-1	8.087867E-1	7.900979E-1	8.375232E-1	7.722550E-1	8.173916E-1	7.855172E-1	7.886436E-1	7.371859E-1	8.401023E-1	7.862156E-1	7.883584E-1	7.634963E-1	7.572093E-1	8.044085E-1	7.612101E-1	8.282665E-1	8.441629E-1	8.298655E-1	7.808838E-1	8.439593E-1	8.467364E-1	8.318350E-1	7.940237E-1	8.138940E-1	8.550632E-1	8.468915E-1	8.251810E-1	8.040649E-1	8.079694E-1	7.514155E-1	8.040081E-1	8.206230E-1	8.079025E-1	7.756048E-1	8.074731E-1	8.017137E-1	7.898921E-1	7.634784E-1	7.461367E-1	8.419365E-1	7.650147E-1	8.094544E-1	7.834568E-1	7.877959E-1	8.213439E-1	7.935749E-1	8.314191E-1	7.784045E-1	8.226474E-1	7.801383E-1	8.068759E-1	8.443640E-1	8.138488E-1	8.565296E-1	8.403418E-1	7.531644E-1	7.838070E-1	8.207394E-1	8.133651E-1	8.297366E-1	8.367756E-1	8.196833E-1	8.415232E-1	7.836557E-1	7.944911E-1	7.910870E-1	8.244126E-1	7.979867E-1	8.257995E-1	8.132188E-1	7.534711E-1	7.712874E-1	7.962362E-1	8.332702E-1	8.114344E-1	7.583955E-1	8.262617E-1	7.867558E-1	7.793067E-1	8.109401E-1	8.020241E-1	8.106319E-1	8.229816E-1	8.428436E-1	7.690158E-1	8.286672E-1	8.459539E-1	7.733586E-1	8.131203E-1	8.151194E-1	8.262097E-1	7.917516E-1	8.689267E-1	7.697287E-1	7.642829E-1	8.132014E-1	8.392534E-1	7.688166E-1	7.950297E-1	7.984305E-1	7.850929E-1	8.620902E-1	7.815958E-1	8.137777E-1	7.643337E-1	7.251173E-1	7.864978E-1	7.821662E-1	8.190685E-1	8.343082E-1	8.521886E-1	8.421124E-1	8.309392E-1	8.423679E-1	7.118757E-1	7.541979E-1	7.700312E-1	7.889828E-1	8.517738E-1	8.022801E-1	7.503199E-1	7.965426E-1	8.665966E-1	7.995292E-1	8.233555E-1	7.781444E-1	8.179452E-1	7.541875E-1	8.069048E-1	8.282547E-1	8.046918E-1	8.246196E-1	7.770436E-1	7.983047E-1	7.918204E-1	8.153405E-1	8.248369E-1	7.569021E-1	8.476693E-1	8.275442E-1	8.198851E-1	8.205675E-1	8.674049E-1	7.891880E-1	8.833200E-1
2.894050E+2	8.237149E-1	8.800021E-1	8.916198E-1	8.797567E-1	9.252536E-1	8.602746E-1	8.684479E-1	9.092682E-1	8.506172E-1	8.865279E-1	8.738696E-1	7.922260E-1	8.686100E-1	8.762255E-1	8.642599E-1	8.620536E-1	7.703515E-1	8.349410E-1	8.635306E-1	8.774586E-1	8.892203E-1	8.574765E-1	8.636487E-1	8.868160E-1	8.969080E-1	8.396550E-1	8.768621E-1	8.085010E-1	8.187460E-1	8.297870E-1	8.728064E-1	8.035976E-1	9.291474E-1	8.925385E-1	8.809363E-1	8.612301E-1	8.910781E-1	8.680953E-1	8.523009E-1	8.718975E-1	8.312660E-1	8.603075E-1	9.302340E-1	8.650173E-1	8.775189E-1	8.842454E-1	8.411013E-1	9.043031E-1	9.177073E-1	9.139128E-1	8.957667E-1	8.769955E-1	8.467710E-1	9.174841E-1	8.793516E-1	8.869435E-1	8.352654E-1	8.708866E-1	8.733598E-1	8.250569E-1	9.037382E-1	9.021251E-1	9.077467E-1	8.813206E-1	8.754541E-1	8.953468E-1	9.055117E-1	8.280267E-1	8.752725E-1	8.589804E-1	8.544247E-1	7.805832E-1	8.920787E-1	8.393997E-1	8.937287E-1	8.941875E-1	8.906630E-1	8.600972E-1	8.517595E-1	8.868380E-1	8.732247E-1	8.550037E-1	8.509669E-1	8.494677E-1	8.035827E-1	8.767870E-1	8.598554E-1	8.680603E-1	9.168049E-1	8.597110E-1	8.921678E-1	8.311203E-1	9.058254E-1	8.415423E-1	8.975878E-1	8.606727E-1	8.616988E-1	8.278758E-1	9.164629E-1	8.615928E-1	9.001985E-1	8.615711E-1	9.050308E-1	8.818359E-1	8.890930E-1	8.817333E-1	8.940572E-1	8.395307E-1	8.506661E-1	8.432075E-1	8.678748E-1	9.073023E-1	8.845957E-1	9.203751E-1	8.454192E-1	8.730435E-1	8.363403E-1	8.618467E-1	9.043063E-1	9.126099E-1	8.579987E-1	8.748890E-1	8.610558E-1	7.980013E-1	8.967334E-1	8.192848E-1	8.356548E-1	8.918654E-1	8.774466E-1	8.728223E-1	8.383116E-1	8.730284E-1	9.151619E-1	9.241034E-1	9.082124E-1	8.454004E-1	9.259744E-1	9.015459E-1	8.560079E-1	8.643265E-1	9.101782E-1	8.651571E-1	9.212065E-1	8.895427E-1	8.966040E-1	8.819494E-1	8.981545E-1	8.602011E-1	9.490025E-1	9.022621E-1	8.866452E-1	8.392349E-1	9.297782E-1	8.547424E-1	9.093449E-1	8.954424E-1	8.925400E-1	8.852599E-1	8.280033E-1	8.740024E-1	9.037433E-1	9.062509E-1	8.738341E-1	8.675196E-1	9.820631E-1	8.825613E-1	9.035129E-1	8.934391E-1	9.342138E-1	8.634285E-1	8.668532E-1
2.896080E+2	9.126812E-1	9.901521E-1	9.412263E-1	1.021582E+0	9.913643E-1	9.429329E-1	9.471716E-1	9.389082E-1	8.982961E-1	9.407108E-1	9.527959E-1	9.196125E-1	9.422410E-1	9.036093E-1	9.905905E-1	9.273877E-1	8.809755E-1	9.375193E-1	9.048767E-1	1.017173E+0	9.377029E-1	9.190469E-1	9.421709E-1	9.860014E-1	1.024042E+0	9.320812E-1	9.728372E-1	9.693039E-1	9.236848E-1	9.667546E-1	9.506068E-1	9.718496E-1	9.622152E-1	9.073941E-1	9.686366E-1	9.676319E-1	9.772987E-1	9.965673E-1	9.790241E-1	9.565953E-1	9.378166E-1	9.654466E-1	9.552142E-1	8.939620E-1	9.123680E-1	9.573383E-1	9.473605E-1	9.859697E-1	1.000032E+0	9.741973E-1	1.010026E+0	9.231011E-1	9.504564E-1	9.855646E-1	9.383687E-1	9.007887E-1	9.744019E-1	9.765740E-1	1.018782E+0	9.711974E-1	9.831867E-1	9.940384E-1	9.193204E-1	9.437735E-1	9.402690E-1	9.471606E-1	9.488287E-1	9.508783E-1	9.679518E-1	9.740361E-1	9.467026E-1	9.163569E-1	9.361774E-1	9.539333E-1	9.204393E-1	9.376189E-1	1.037334E+0	9.863043E-1	9.262246E-1	8.964697E-1	1.080623E+0	8.761879E-1	9.229428E-1	9.238188E-1	9.940542E-1	9.583993E-1	9.490892E-1	9.793208E-1	1.025550E+0	9.704423E-1	9.916270E-1	9.167352E-1	1.034328E+0	9.090325E-1	8.604141E-1	9.268746E-1	9.103491E-1	9.460667E-1	9.142533E-1	9.357601E-1	9.305668E-1	9.159493E-1	9.383795E-1	9.770570E-1	9.098928E-1	9.713993E-1	9.737785E-1	9.535961E-1	9.652429E-1	9.785990E-1	9.396026E-1	9.397152E-1	9.931562E-1	9.552738E-1	9.320344E-1	9.619381E-1	9.298134E-1	9.807606E-1	1.021857E+0	9.341703E-1	8.873611E-1	9.208193E-1	9.480840E-1	9.442137E-1	1.058502E+0	9.410057E-1	9.482586E-1	9.529218E-1	9.441132E-1	9.281137E-1	1.008414E+0	9.445912E-1	9.131511E-1	9.765244E-1	9.696237E-1	9.786997E-1	9.447488E-1	9.582053E-1	9.482450E-1	9.193866E-1	9.966285E-1	9.229000E-1	9.536004E-1	1.000106E+0	9.202803E-1	9.755167E-1	1.026638E+0	9.614192E-1	1.036380E+0	9.894815E-1	9.751548E-1	9.446947E-1	1.007173E+0	9.843532E-1	9.272036E-1	9.178720E-1	9.939993E-1	1.027530E+0	9.489330E-1	9.263765E-1	9.490554E-1	8.893991E-1	9.486110E-1	9.642357E-1	9.920688E-1	9.328978E-1	9.578722E-1	9.869510E-1	9.473252E-1	1.007258E+0	1.077771E+0
2.898030E+2	8.289494E-1	7.881406E-1	7.870064E-1	7.899153E-1	7.704925E-1	8.335764E-1	7.508050E-1	7.742644E-1	8.342499E-1	8.467524E-1	8.564597E-1	8.232622E-1	8.442223E-1	7.895302E-1	7.672672E-1	7.550929E-1	7.996315E-1	8.343101E-1	8.131239E-1	8.049398E-1	8.099952E-1	7.927834E-1	7.989322E-1	8.660214E-1	8.076979E-1	8.273018E-1	7.845830E-1	8.092997E-1	8.372750E-1	7.643557E-1	8.150488E-1	8.466113E-1	7.889943E-1	7.747212E-1	8.159628E-1	7.875192E-1	8.340369E-1	8.131962E-1	8.120127E-1	8.041162E-1	7.581012E-1	8.244297E-1	8.167334E-1	7.534685E-1	7.887695E-1	7.882472E-1	8.360424E-1	8.120964E-1	8.763717E-1	8.238596E-1	8.726311E-1	8.207063E-1	8.324868E-1	8.233773E-1	8.012038E-1	7.501061E-1	8.206708E-1	7.583831E-1	8.150118E-1	8.270313E-1	8.042226E-1	8.322686E-1	8.249349E-1	8.131251E-1	8.318267E-1	7.926274E-1	8.049746E-1	8.166958E-1	8.491610E-1	7.605839E-1	8.604111E-1	7.609813E-1	8.060623E-1	8.664592E-1	8.214646E-1	7.950643E-1	7.657379E-1	8.134014E-1	8.147782E-1	7.982461E-1	8.087520E-1	7.717598E-1	8.172499E-1	7.632885E-1	8.154637E-1	8.729498E-1	8.690931E-1	8.099722E-1	8.003374E-1	7.860171E-1	8.166081E-1	7.789159E-1	8.141768E-1	8.183411E-1	8.572567E-1	8.263537E-1	7.570206E-1	7.851733E-1	7.516489E-1	8.588260E-1	7.995678E-1	7.885220E-1	8.693030E-1	8.056312E-1	7.661358E-1	7.900560E-1	7.923414E-1	8.097080E-1	8.726553E-1	7.596199E-1	8.240609E-1	7.849207E-1	8.187800E-1	7.983558E-1	8.163095E-1	8.334747E-1	8.367596E-1	8.230787E-1	7.716357E-1	8.084910E-1	7.653643E-1	8.525025E-1	7.911167E-1	7.840754E-1	8.111489E-1	8.025701E-1	8.327468E-1	7.940484E-1	7.701144E-1	8.229437E-1	8.730579E-1	8.196358E-1	7.288350E-1	8.582966E-1	7.595867E-1	7.839212E-1	8.355152E-1	8.111488E-1	8.027711E-1	7.767082E-1	8.237494E-1	8.130384E-1	7.555005E-1	8.337396E-1	8.351742E-1	7.749113E-1	7.661612E-1	8.337113E-1	8.062494E-1	8.482975E-1	7.949744E-1	8.091430E-1	8.059294E-1	7.708876E-1	7.953388E-1	8.232262E-1	8.086488E-1	8.480553E-1	8.177175E-1	8.192968E-1	8.186846E-1	7.825027E-1	8.060478E-1	7.814966E-1	8.433205E-1	7.744869E-1	8.163662E-1	7.690470E-1	8.838370E-1	8.478049E-1	7.885725E-1
2.900030E+2	7.037633E-1	7.435704E-1	6.914355E-1	6.939121E-1	7.206715E-1	7.324038E-1	6.678743E-1	7.004485E-1	7.284621E-1	6.784653E-1	7.400365E-1	7.542477E-1	7.314923E-1	7.478789E-1	7.583223E-1	6.840773E-1	7.176252E-1	7.260461E-1	6.961302E-1	6.942165E-1	6.991357E-1	7.192083E-1	6.855124E-1	7.719526E-1	6.486364E-1	7.253689E-1	7.403777E-1	7.248407E-1	7.394095E-1	6.719229E-1	7.018347E-1	6.893669E-1	6.945204E-1	6.865034E-1	7.094114E-1	7.464550E-1	7.281468E-1	6.921784E-1	6.812761E-1	6.805697E-1	7.209683E-1	6.837578E-1	6.742227E-1	6.946039E-1	7.067054E-1	7.555773E-1	6.798207E-1	7.181676E-1	7.697237E-1	7.012416E-1	7.130556E-1	7.461580E-1	7.427159E-1	7.510559E-1	6.765816E-1	7.107489E-1	7.044700E-1	6.794077E-1	7.016520E-1	7.110193E-1	6.894365E-1	6.973054E-1	7.189559E-1	7.173944E-1	7.036535E-1	7.514780E-1	6.998558E-1	7.018723E-1	6.815581E-1	7.601517E-1	7.444760E-1	7.034247E-1	7.047452E-1	6.885497E-1	7.205030E-1	7.429607E-1	7.132492E-1	7.548664E-1	7.883218E-1	6.715412E-1	6.972382E-1	7.213471E-1	6.617098E-1	7.196820E-1	7.019858E-1	7.615372E-1	6.986412E-1	7.232502E-1	7.827190E-1	7.058238E-1	7.517119E-1	7.834255E-1	6.600597E-1	7.282167E-1	7.339855E-1	7.172011E-1	7.476291E-1	6.927145E-1	7.378343E-1	6.893183E-1	7.330864E-1	6.838816E-1	7.412147E-1	7.155829E-1	7.112428E-1	7.384085E-1	7.213593E-1	7.362510E-1	7.227060E-1	7.075298E-1	6.811011E-1	6.782141E-1	7.246301E-1	7.076019E-1	7.129489E-1	7.571415E-1	7.374090E-1	7.778600E-1	7.125794E-1	7.001997E-1	7.388999E-1	7.909507E-1	6.678272E-1	7.346141E-1	7.448120E-1	7.273300E-1	7.454260E-1	7.711271E-1	7.440720E-1	7.709739E-1	6.969491E-1	7.444670E-1	7.225272E-1	7.180411E-1	7.391553E-1	7.410825E-1	7.767893E-1	6.776367E-1	6.503049E-1	7.725915E-1	6.930501E-1	7.117802E-1	7.734402E-1	7.201776E-1	6.835119E-1	7.401986E-1	6.953285E-1	7.119403E-1	7.107989E-1	7.225129E-1	6.992329E-1	7.081838E-1	7.503623E-1	6.918756E-1	6.953948E-1	7.060265E-1	7.215983E-1	7.408134E-1	7.533662E-1	6.880500E-1	7.196041E-1	7.104695E-1	7.357256E-1	7.457415E-1	7.825326E-1	7.411759E-1	7.305501E-1	6.648392E-1	7.153957E-1	7.358704E-1	7.852851E-1
2.905030E+2	6.032140E-1	6.016664E-1	6.404804E-1	5.409803E-1	6.216230E-1	6.460242E-1	6.271063E-1	6.339787E-1	5.955244E-1	5.685194E-1	6.403166E-1	6.379459E-1	6.563546E-1	6.040503E-1	6.184084E-1	6.075247E-1	6.481503E-1	5.559856E-1	6.097415E-1	6.126534E-1	6.301856E-1	6.205640E-1	6.427240E-1	6.153764E-1	5.938291E-1	6.576244E-1	5.834354E-1	6.522839E-1	6.144487E-1	6.018459E-1	6.280702E-1	6.308850E-1	6.330981E-1	6.320409E-1	6.755409E-1	6.506084E-1	5.873429E-1	6.367186E-1	6.173967E-1	6.236695E-1	6.299841E-1	6.284183E-1	7.334936E-1	6.602231E-1	6.119252E-1	5.990864E-1	6.710301E-1	5.994795E-1	6.320202E-1	6.304455E-1	6.149093E-1	5.760062E-1	6.462811E-1	6.074700E-1	6.150940E-1	6.504672E-1	6.094904E-1	6.336731E-1	6.312968E-1	6.453443E-1	6.032192E-1	6.328709E-1	6.216950E-1	6.354165E-1	5.826941E-1	6.209727E-1	6.479955E-1	5.504610E-1	6.508582E-1	5.829205E-1	6.801436E-1	5.975638E-1	6.175042E-1	6.008958E-1	6.082950E-1	6.637116E-1	6.245407E-1	6.633771E-1	5.882531E-1	5.749200E-1	6.082023E-1	6.357749E-1	6.656993E-1	6.275350E-1	6.654481E-1	6.405685E-1	5.936362E-1	6.025437E-1	6.162540E-1	6.513829E-1	6.393854E-1	6.346349E-1	6.351758E-1	6.594626E-1	6.544933E-1	6.175456E-1	6.309727E-1	6.542453E-1	6.583527E-1	6.609784E-1	6.125594E-1	6.682961E-1	6.083193E-1	6.037399E-1	6.291554E-1	5.698004E-1	6.199626E-1	6.408758E-1	6.441342E-1	5.987070E-1	6.628095E-1	7.121645E-1	6.671533E-1	5.976691E-1	5.869762E-1	6.337764E-1	6.511197E-1	6.260058E-1	6.767816E-1	6.858758E-1	5.743918E-1	6.394922E-1	5.681284E-1	5.799162E-1	6.668092E-1	6.418261E-1	6.240790E-1	6.275494E-1	6.287496E-1	6.614630E-1	6.075267E-1	6.329340E-1	6.677315E-1	6.738280E-1	6.254193E-1	6.641037E-1	6.616706E-1	7.093973E-1	6.175700E-1	6.024487E-1	6.594962E-1	6.023529E-1	6.539058E-1	6.410854E-1	6.535496E-1	6.598004E-1	6.744897E-1	6.739917E-1	7.096349E-1	6.785442E-1	6.908978E-1	6.411547E-1	6.238637E-1	6.861953E-1	6.687818E-1	6.288397E-1	5.997196E-1	6.308950E-1	6.326908E-1	6.263440E-1	6.543115E-1	6.545495E-1	6.426055E-1	5.884091E-1	6.340103E-1	5.972673E-1	6.264459E-1	6.435212E-1	7.498020E-1	7.970661E-1	6.112296E-1
2.910060E+2	8.943348E-1	8.518773E-1	8.726140E-1	9.093984E-1	9.466016E-1	9.217883E-1	9.203171E-1	9.058933E-1	8.776556E-1	8.534984E-1	9.346016E-1	9.143451E-1	9.520189E-1	9.118941E-1	8.907201E-1	8.984623E-1	8.912321E-1	9.021227E-1	9.034242E-1	8.212341E-1	8.869740E-1	9.111628E-1	8.772509E-1	9.171296E-1	8.668970E-1	8.337383E-1	8.925358E-1	8.364739E-1	8.875932E-1	8.720110E-1	8.803950E-1	9.024689E-1	9.271075E-1	8.601249E-1	9.391795E-1	8.777483E-1	8.563185E-1	8.996599E-1	9.195883E-1	9.755613E-1	9.377470E-1	9.258552E-1	8.693084E-1	8.803727E-1	9.334721E-1	8.772554E-1	9.684703E-1	8.983292E-1	9.010860E-1	8.830568E-1	8.552697E-1	9.260449E-1	9.851942E-1	8.738081E-1	8.763701E-1	8.562613E-1	9.340194E-1	9.710602E-1	8.936271E-1	8.516531E-1	8.638591E-1	9.134367E-1	8.757454E-1	8.736570E-1	8.188454E-1	9.904196E-1	8.476396E-1	8.498090E-1	8.835766E-1	8.678311E-1	8.854546E-1	8.364470E-1	8.765171E-1	8.971859E-1	8.738838E-1	9.777462E-1	8.694166E-1	9.117544E-1	9.157377E-1	8.965173E-1	8.717127E-1	9.139654E-1	9.179848E-1	9.088892E-1	8.763574E-1	9.245856E-1	9.352701E-1	9.069445E-1	9.070830E-1	8.711988E-1	8.664093E-1	7.945925E-1	8.975954E-1	8.877820E-1	9.042817E-1	8.540565E-1	8.616947E-1	8.917320E-1	9.227010E-1	9.554621E-1	9.581646E-1	9.001469E-1	8.805708E-1	9.013539E-1	9.211789E-1	9.396536E-1	8.715073E-1	9.381724E-1	9.752770E-1	8.747576E-1	9.132301E-1	9.445649E-1	9.260910E-1	8.750222E-1	9.236081E-1	8.494191E-1	8.845304E-1	9.362360E-1	9.714519E-1	8.686028E-1	9.021872E-1	9.172172E-1	8.085346E-1	9.131189E-1	8.985477E-1	9.063102E-1	8.849162E-1	9.137407E-1	9.692249E-1	9.517488E-1	8.954870E-1	8.801708E-1	9.148932E-1	8.647465E-1	9.595683E-1	8.773229E-1	9.275331E-1	9.496577E-1	8.739218E-1	8.839156E-1	9.219938E-1	8.829042E-1	9.019478E-1	9.128993E-1	9.499740E-1	8.736411E-1	8.399471E-1	9.130446E-1	8.910230E-1	8.746116E-1	9.652834E-1	8.738409E-1	9.313418E-1	8.867502E-1	9.310033E-1	8.578043E-1	9.678675E-1	9.340194E-1	9.204247E-1	9.289644E-1	8.716540E-1	8.874297E-1	9.269174E-1	9.013237E-1	8.829967E-1	9.072785E-1	8.742390E-1	8.958285E-1	9.259682E-1	8.946956E-1	1.024878E+0
2.915140E+2	1.147923E+0	1.146005E+0	1.148719E+0	1.164332E+0	1.144848E+0	1.202468E+0	1.188932E+0	1.193392E+0	1.174028E+0	1.121910E+0	1.181044E+0	1.186040E+0	1.201770E+0	1.160471E+0	1.182926E+0	1.166239E+0	1.149636E+0	1.128541E+0	1.232649E+0	1.137686E+0	1.251465E+0	1.190777E+0	1.240763E+0	1.194267E+0	1.133704E+0	1.105178E+0	1.180186E+0	1.195671E+0	1.170043E+0	1.149016E+0	1.187259E+0	1.131636E+0	1.193713E+0	1.199412E+0	1.114482E+0	1.161345E+0	1.160157E+0	1.181483E+0	1.174932E+0	1.149638E+0	1.158813E+0	1.166985E+0	1.239769E+0	1.183377E+0	1.157107E+0	1.168666E+0	1.189183E+0	1.208929E+0	1.132155E+0	1.134630E+0	1.201933E+0	1.228814E+0	1.277157E+0	1.207611E+0	1.131336E+0	1.210152E+0	1.175160E+0	1.122991E+0	1.268881E+0	1.184099E+0	1.238691E+0	1.264418E+0	1.182642E+0	1.178599E+0	1.162909E+0	1.150069E+0	1.221909E+0	1.219554E+0	1.178262E+0	1.130644E+0	1.209497E+0	1.152988E+0	1.169405E+0	1.160497E+0	1.201263E+0	1.235779E+0	1.190573E+0	1.211050E+0	1.175608E+0	1.160839E+0	1.119339E+0	1.154244E+0	1.199060E+0	1.130029E+0	1.152429E+0	1.228109E+0	1.171966E+0	1.149603E+0	1.180460E+0	1.147351E+0	1.242026E+0	1.256307E+0	1.163502E+0	1.204915E+0	1.195116E+0	1.227763E+0	1.091257E+0	1.187256E+0	1.163493E+0	1.207334E+0	1.186009E+0	1.197196E+0	1.309728E+0	1.172104E+0	1.224784E+0	1.164136E+0	1.215658E+0	1.258424E+0	1.175395E+0	1.155124E+0	1.244811E+0	1.171670E+0	1.225370E+0	1.180725E+0	1.079522E+0	1.186081E+0	1.169198E+0	1.167294E+0	1.190926E+0	1.113340E+0	1.154620E+0	1.198347E+0	1.192390E+0	1.078151E+0	1.165415E+0	1.145162E+0	1.166665E+0	1.200796E+0	1.210708E+0	1.177366E+0	1.169366E+0	1.130046E+0	1.139200E+0	1.163760E+0	1.157188E+0	1.210488E+0	1.165783E+0	1.187967E+0	1.206683E+0	1.151759E+0	1.229948E+0	1.147600E+0	1.139106E+0	1.201205E+0	1.230216E+0	1.197625E+0	1.261995E+0	1.155705E+0	1.228521E+0	1.187604E+0	1.144380E+0	1.162926E+0	1.160855E+0	1.236111E+0	1.159453E+0	1.105851E+0	1.198224E+0	1.250871E+0	1.176608E+0	1.130754E+0	1.205661E+0	1.111100E+0	1.139082E+0	1.163335E+0	1.119894E+0	1.176033E+0	1.210201E+0	1.259806E+0	1.335387E+0	1.261419E+0	1.172393E+0
2.920030E+2	1.057437E+0	1.144202E+0	1.172435E+0	1.275963E+0	1.267685E+0	1.219311E+0	1.216643E+0	1.227668E+0	1.182828E+0	1.168361E+0	1.209283E+0	1.219476E+0	1.165289E+0	1.241657E+0	1.167303E+0	1.228960E+0	1.160275E+0	1.233871E+0	1.145958E+0	1.217045E+0	1.209497E+0	1.183621E+0	1.205564E+0	1.196822E+0	1.257166E+0	1.185481E+0	1.307365E+0	1.151090E+0	1.196078E+0	1.139405E+0	1.216162E+0	1.260906E+0	1.257990E+0	1.236611E+0	1.141448E+0	1.183520E+0	1.239311E+0	1.231985E+0	1.229063E+0	1.146451E+0	1.221191E+0	1.198919E+0	1.225218E+0	1.185972E+0	1.156380E+0	1.151813E+0	1.206904E+0	1.294523E+0	1.253442E+0	1.199295E+0	1.215736E+0	1.254106E+0	1.227182E+0	1.263653E+0	1.263618E+0	1.246959E+0	1.190602E+0	1.227476E+0	1.272235E+0	1.211525E+0	1.226726E+0	1.221562E+0	1.140936E+0	1.190532E+0	1.156737E+0	1.222760E+0	1.249362E+0	1.120919E+0	1.173977E+0	1.188987E+0	1.182277E+0	1.254835E+0	1.150868E+0	1.215551E+0	1.201851E+0	1.253730E+0	1.241516E+0	1.210899E+0	1.178731E+0	1.250199E+0	1.216072E+0	1.179123E+0	1.211078E+0	1.146413E+0	1.246814E+0	1.262956E+0	1.266490E+0	1.189131E+0	1.196807E+0	1.210285E+0	1.197727E+0	1.243051E+0	1.237812E+0	1.177962E+0	1.157639E+0	1.242080E+0	1.198847E+0	1.209317E+0	1.155731E+0	1.130515E+0	1.220804E+0	1.261944E+0	1.199372E+0	1.184513E+0	1.222541E+0	1.213124E+0	1.223071E+0	1.120358E+0	1.236930E+0	1.229001E+0	1.243635E+0	1.218105E+0	1.240368E+0	1.274494E+0	1.158269E+0	1.213548E+0	1.248483E+0	1.253677E+0	1.183994E+0	1.100821E+0	1.198054E+0	1.301998E+0	1.268824E+0	1.208269E+0	1.230208E+0	1.171983E+0	1.183135E+0	1.137798E+0	1.235023E+0	1.235339E+0	1.139201E+0	1.257191E+0	1.241132E+0	1.234767E+0	1.252849E+0	1.254657E+0	1.235314E+0	1.306964E+0	1.223649E+0	1.198030E+0	1.137616E+0	1.170231E+0	1.192930E+0	1.160785E+0	1.265919E+0	1.198350E+0	1.230539E+0	1.166672E+0	1.252180E+0	1.187077E+0	1.239347E+0	1.207119E+0	1.216460E+0	1.216509E+0	1.250733E+0	1.179490E+0	1.211821E+0	1.240556E+0	1.279096E+0	1.187654E+0	1.270245E+0	1.183838E+0	1.251429E+0	1.221586E+0	1.267810E+0	1.241337E+0	1.238728E+0	1.173105E+0	1.220956E+0	1.124128E+0	1.166291E+0
2.925020E+2	1.085495E+0	1.128943E+0	1.110957E+0	1.067674E+0	1.203332E+0	1.151080E+0	1.119892E+0	1.080367E+0	1.087449E+0	1.138823E+0	1.033325E+0	1.128212E+0	1.137855E+0	1.114620E+0	1.105701E+0	1.139810E+0	1.149614E+0	1.032000E+0	1.050236E+0	1.150021E+0	1.138840E+0	1.107329E+0	1.118008E+0	1.166045E+0	1.057988E+0	1.128538E+0	1.153699E+0	1.177917E+0	1.150123E+0	1.081945E+0	1.145201E+0	1.117339E+0	1.094205E+0	1.194680E+0	1.207128E+0	1.160916E+0	1.199468E+0	1.185483E+0	1.103365E+0	1.128947E+0	1.146003E+0	1.126480E+0	1.176504E+0	1.124603E+0	1.125608E+0	1.186845E+0	1.190232E+0	1.179798E+0	1.152324E+0	1.125590E+0	1.100509E+0	1.193212E+0	1.150700E+0	1.093805E+0	1.187566E+0	1.107597E+0	1.105927E+0	1.113846E+0	1.171058E+0	1.114220E+0	1.131820E+0	1.184643E+0	1.120236E+0	1.115523E+0	1.139424E+0	1.183921E+0	1.209183E+0	1.113721E+0	1.134169E+0	1.147374E+0	1.222608E+0	1.088186E+0	1.131278E+0	1.084114E+0	1.142636E+0	1.180716E+0	1.192398E+0	1.138835E+0	1.168886E+0	1.102944E+0	1.196106E+0	1.105725E+0	1.127739E+0	1.129056E+0	1.105250E+0	1.182118E+0	1.096767E+0	1.190892E+0	1.145236E+0	1.154896E+0	1.189394E+0	1.158729E+0	1.120106E+0	1.074722E+0	1.169555E+0	1.139856E+0	1.061915E+0	1.070507E+0	1.189379E+0	1.107224E+0	1.146179E+0	1.187948E+0	1.169579E+0	1.145739E+0	1.178083E+0	1.099873E+0	1.131002E+0	1.101471E+0	1.189926E+0	1.163088E+0	1.183878E+0	1.162652E+0	1.119153E+0	1.114443E+0	1.097539E+0	1.199888E+0	1.198917E+0	1.177033E+0	1.148782E+0	1.113106E+0	1.188834E+0	1.097167E+0	1.195140E+0	1.111544E+0	1.136827E+0	1.101986E+0	1.185050E+0	1.162063E+0	1.118844E+0	1.140503E+0	1.166131E+0	1.128421E+0	1.066963E+0	1.167913E+0	1.082449E+0	1.190227E+0	1.146219E+0	1.212640E+0	1.187390E+0	1.173120E+0	1.069868E+0	1.108593E+0	1.070257E+0	1.128708E+0	1.152290E+0	1.157430E+0	1.175123E+0	1.094710E+0	1.150760E+0	1.141990E+0	1.188483E+0	1.129462E+0	1.194341E+0	1.115916E+0	1.076848E+0	1.164746E+0	1.197859E+0	1.175725E+0	1.115893E+0	1.171193E+0	1.165513E+0	1.147234E+0	1.162536E+0	1.041504E+0	1.118127E+0	1.169033E+0	1.135659E+0	1.118597E+0	1.202484E+0	1.122591E+0	1.156255E+0
2.930050E+2	1.056428E+0	1.113200E+0	1.084490E+0	1.019298E+0	1.049787E+0	1.050226E+0	1.115724E+0	9.632651E-1	9.834494E-1	9.603725E-1	1.039491E+0	1.098732E+0	1.079991E+0	1.078903E+0	1.034573E+0	1.077318E+0	1.070881E+0	1.035211E+0	1.030218E+0	1.064369E+0	1.061720E+0	1.117359E+0	1.070976E+0	1.115702E+0	9.629809E-1	9.902814E-1	1.074147E+0	1.010300E+0	1.013249E+0	9.812515E-1	1.006890E+0	1.052071E+0	1.034507E+0	1.101090E+0	1.029591E+0	9.476383E-1	1.015195E+0	1.043523E+0	9.910918E-1	1.016070E+0	1.060398E+0	1.071451E+0	1.091798E+0	1.027924E+0	9.756475E-1	1.096313E+0	1.034186E+0	1.113733E+0	1.103692E+0	1.085912E+0	1.081670E+0	1.102246E+0	1.050276E+0	1.042970E+0	1.016242E+0	9.699122E-1	1.033065E+0	1.071358E+0	1.101207E+0	1.011213E+0	1.033568E+0	1.112411E+0	1.046215E+0	1.093667E+0	1.057388E+0	1.067744E+0	1.031828E+0	1.008019E+0	1.074759E+0	1.005370E+0	1.104225E+0	1.044238E+0	1.085195E+0	9.527243E-1	1.035727E+0	1.125325E+0	1.041101E+0	1.087255E+0	1.096992E+0	9.849080E-1	1.011248E+0	1.086630E+0	1.022059E+0	1.024796E+0	1.004849E+0	1.001661E+0	1.016029E+0	1.074002E+0	1.034865E+0	1.083321E+0	1.064428E+0	1.000738E+0	1.088226E+0	1.067202E+0	1.076957E+0	1.008451E+0	1.023470E+0	1.039809E+0	1.052786E+0	1.046045E+0	1.051767E+0	1.066274E+0	1.019199E+0	1.015860E+0	1.083368E+0	1.024552E+0	1.054632E+0	1.042393E+0	1.157804E+0	1.063079E+0	1.052576E+0	1.005115E+0	1.068198E+0	1.038172E+0	9.796606E-1	1.023278E+0	1.097370E+0	1.009248E+0	1.033183E+0	1.047479E+0	1.031867E+0	1.045347E+0	1.043198E+0	9.053087E-1	1.008506E+0	1.030485E+0	1.060613E+0	1.068233E+0	1.072998E+0	1.095159E+0	1.060068E+0	1.079907E+0	1.023213E+0	1.059525E+0	1.033817E+0	1.103883E+0	1.031542E+0	1.076527E+0	1.053205E+0	1.087931E+0	1.059996E+0	1.049269E+0	1.084231E+0	1.048813E+0	1.101097E+0	1.015700E+0	1.039367E+0	1.063117E+0	1.108625E+0	1.070696E+0	1.073272E+0	1.003265E+0	1.022298E+0	1.092556E+0	1.047452E+0	1.085550E+0	1.037800E+0	1.087065E+0	1.053679E+0	1.070218E+0	1.053882E+0	1.049698E+0	1.031076E+0	1.067000E+0	1.138198E+0	1.027334E+0	1.172176E+0	1.048765E+0	1.089545E+0	9.913787E-1	1.131007E+0
2.935070E+2	9.852170E-1	1.019555E+0	9.438777E-1	1.004600E+0	1.049798E+0	1.031070E+0	9.773353E-1	9.330144E-1	9.669529E-1	9.426236E-1	9.932045E-1	9.512779E-1	1.002436E+0	9.411706E-1	9.335497E-1	9.299896E-1	9.369653E-1	9.306804E-1	9.280071E-1	9.878878E-1	9.277094E-1	9.399244E-1	9.913339E-1	1.019318E+0	9.516401E-1	9.515594E-1	1.004612E+0	9.880758E-1	9.766551E-1	9.298797E-1	1.044002E+0	9.612814E-1	9.865339E-1	9.712576E-1	9.935266E-1	8.988132E-1	1.028529E+0	1.038286E+0	9.398700E-1	1.041379E+0	1.002452E+0	9.572124E-1	9.805580E-1	9.857961E-1	9.415934E-1	9.359275E-1	9.917513E-1	9.362440E-1	1.003968E+0	9.694246E-1	1.005208E+0	9.724075E-1	9.931492E-1	9.347279E-1	1.042601E+0	8.926733E-1	9.886061E-1	9.759018E-1	9.194284E-1	9.407464E-1	9.674655E-1	9.986953E-1	9.803461E-1	9.907720E-1	9.728986E-1	1.011412E+0	9.509652E-1	9.732953E-1	9.418279E-1	9.841946E-1	9.837893E-1	9.534664E-1	9.633855E-1	9.538520E-1	9.805615E-1	9.743252E-1	1.038738E+0	9.472924E-1	9.954720E-1	9.437951E-1	9.921511E-1	9.970171E-1	9.289598E-1	9.283993E-1	8.756050E-1	9.484442E-1	1.019375E+0	1.000651E+0	9.917174E-1	9.182038E-1	9.645667E-1	9.801369E-1	9.540335E-1	9.514660E-1	9.758259E-1	9.498878E-1	9.286874E-1	8.906685E-1	9.819376E-1	9.787503E-1	9.778728E-1	9.548755E-1	9.637029E-1	9.239080E-1	9.828373E-1	9.702801E-1	9.279208E-1	9.727861E-1	9.911050E-1	9.622232E-1	9.985628E-1	9.819469E-1	9.214951E-1	9.211787E-1	1.007842E+0	9.854626E-1	9.982155E-1	9.246766E-1	9.858558E-1	9.592287E-1	9.023171E-1	9.549715E-1	1.024795E+0	9.758674E-1	1.006679E+0	9.539207E-1	9.472636E-1	1.006322E+0	9.328298E-1	9.998621E-1	9.459943E-1	9.742947E-1	9.889052E-1	1.017408E+0	9.749438E-1	9.789846E-1	9.681070E-1	9.677847E-1	9.563804E-1	9.838534E-1	9.313712E-1	9.667224E-1	9.311314E-1	1.000644E+0	9.985290E-1	1.004926E+0	9.950728E-1	9.751977E-1	1.019952E+0	9.997318E-1	1.010579E+0	9.520525E-1	9.622552E-1	1.011136E+0	9.475486E-1	9.346314E-1	9.456625E-1	1.025700E+0	9.879694E-1	9.107849E-1	1.032970E+0	9.552957E-1	9.989067E-1	9.568116E-1	9.742835E-1	9.730999E-1	1.051456E+0	9.527321E-1	1.007510E+0	1.021575E+0	1.074618E+0
2.940070E+2	8.957682E-1	9.532469E-1	9.487511E-1	9.047399E-1	9.563794E-1	9.600204E-1	9.590598E-1	8.780888E-1	9.330109E-1	9.513338E-1	9.149651E-1	9.358821E-1	9.854919E-1	8.977145E-1	9.164170E-1	9.321663E-1	9.423811E-1	8.962544E-1	9.072140E-1	8.955249E-1	9.424911E-1	9.693619E-1	9.544233E-1	9.856656E-1	9.184361E-1	9.160182E-1	9.847060E-1	9.326621E-1	9.189660E-1	9.501269E-1	9.166109E-1	9.881631E-1	9.498279E-1	9.947291E-1	9.278378E-1	9.116738E-1	9.392970E-1	9.430264E-1	9.827040E-1	9.327089E-1	9.866384E-1	9.618173E-1	9.460558E-1	9.032799E-1	9.274251E-1	8.803327E-1	9.623457E-1	9.009303E-1	1.013078E+0	9.809213E-1	8.919896E-1	9.583638E-1	9.600464E-1	9.934727E-1	9.365969E-1	8.829126E-1	8.875706E-1	9.958670E-1	9.987252E-1	9.816439E-1	9.450923E-1	8.917397E-1	9.686521E-1	9.408244E-1	9.349214E-1	9.507987E-1	9.443521E-1	9.506006E-1	9.466083E-1	9.341113E-1	9.425854E-1	8.852657E-1	8.780172E-1	9.212561E-1	9.875996E-1	9.368485E-1	9.628306E-1	9.230517E-1	9.719112E-1	8.887622E-1	9.463629E-1	9.303607E-1	9.238434E-1	9.432555E-1	8.905529E-1	9.483987E-1	9.579219E-1	9.384600E-1	9.506232E-1	9.625046E-1	1.043386E+0	9.335659E-1	9.796065E-1	9.396359E-1	9.989932E-1	9.190999E-1	9.525117E-1	9.086324E-1	8.632473E-1	9.710385E-1	9.601191E-1	9.301766E-1	9.378161E-1	9.294615E-1	9.666756E-1	9.681650E-1	9.760326E-1	9.735411E-1	9.372284E-1	9.514403E-1	9.573016E-1	9.843995E-1	9.628336E-1	9.950541E-1	8.881784E-1	9.679265E-1	9.882944E-1	9.611599E-1	9.646919E-1	8.843428E-1	8.318565E-1	9.114552E-1	1.055065E+0	9.443890E-1	9.567784E-1	9.583446E-1	9.562894E-1	9.762923E-1	9.799210E-1	9.687860E-1	9.290008E-1	9.502060E-1	8.935609E-1	9.589700E-1	1.002120E+0	9.700308E-1	9.114339E-1	9.127203E-1	9.210836E-1	9.536394E-1	9.497833E-1	9.317112E-1	8.958749E-1	9.493413E-1	1.004768E+0	9.640545E-1	9.217504E-1	9.167630E-1	9.080147E-1	9.964861E-1	9.106807E-1	9.428771E-1	9.275689E-1	9.409789E-1	9.416558E-1	9.686005E-1	9.382722E-1	9.901829E-1	9.433673E-1	9.384909E-1	9.317423E-1	9.107275E-1	9.516075E-1	8.599144E-1	9.551195E-1	8.907413E-1	9.691481E-1	9.467931E-1	9.837317E-1	9.816069E-1	1.021614E+0
2.945040E+2	1.034173E+0	1.013345E+0	9.750814E-1	9.496934E-1	1.050177E+0	9.882201E-1	1.091094E+0	9.801248E-1	1.047297E+0	9.883032E-1	1.022904E+0	1.042076E+0	1.050502E+0	9.975018E-1	1.070783E+0	1.042512E+0	1.003126E+0	9.771895E-1	1.038765E+0	1.007637E+0	1.011758E+0	1.011849E+0	1.042528E+0	9.421866E-1	9.988302E-1	9.836707E-1	9.710409E-1	1.055070E+0	1.031086E+0	1.004027E+0	9.959538E-1	9.784732E-1	1.076827E+0	1.060994E+0	1.035744E+0	1.039083E+0	9.665930E-1	1.068675E+0	1.031189E+0	1.018309E+0	9.885124E-1	9.749345E-1	1.003814E+0	9.279754E-1	1.090827E+0	1.027503E+0	1.041412E+0	1.026223E+0	1.024262E+0	1.014116E+0	1.007125E+0	1.047068E+0	1.044438E+0	1.004389E+0	1.049862E+0	1.033090E+0	9.552597E-1	1.069169E+0	9.950960E-1	1.060727E+0	1.037985E+0	1.065804E+0	1.077232E+0	9.964400E-1	1.014805E+0	1.027174E+0	1.014852E+0	9.777046E-1	1.060790E+0	1.037867E+0	1.054931E+0	1.013028E+0	1.007918E+0	9.890985E-1	9.959689E-1	1.022166E+0	1.035837E+0	1.063710E+0	1.047624E+0	1.086350E+0	1.005860E+0	1.102216E+0	1.019574E+0	1.033626E+0	1.096904E+0	9.913694E-1	1.047730E+0	9.691803E-1	1.007878E+0	1.020327E+0	1.031641E+0	9.892482E-1	1.075124E+0	1.004727E+0	1.003731E+0	1.038410E+0	9.838471E-1	1.017337E+0	1.064388E+0	1.077369E+0	1.092382E+0	9.750309E-1	1.029772E+0	1.082157E+0	1.043624E+0	1.003183E+0	1.084606E+0	1.066365E+0	1.015887E+0	1.038321E+0	1.038056E+0	1.010866E+0	1.096213E+0	1.068027E+0	1.026108E+0	9.732253E-1	1.010754E+0	9.727412E-1	1.072456E+0	1.036273E+0	1.029929E+0	9.937737E-1	1.066599E+0	1.034074E+0	1.063596E+0	1.024793E+0	9.958791E-1	1.122224E+0	1.010047E+0	1.011379E+0	1.022862E+0	9.909169E-1	1.017731E+0	1.075169E+0	1.030546E+0	1.000455E+0	1.048948E+0	1.057976E+0	9.921039E-1	1.007654E+0	1.008861E+0	9.846597E-1	1.045865E+0	1.007657E+0	1.129973E+0	1.051147E+0	1.034959E+0	1.033917E+0	1.049710E+0	1.006208E+0	1.009549E+0	9.919328E-1	9.794027E-1	1.042535E+0	1.030409E+0	1.041708E+0	9.859670E-1	1.101759E+0	1.049990E+0	1.060901E+0	1.057371E+0	9.630913E-1	1.072574E+0	1.011419E+0	1.010293E+0	1.029926E+0	1.009287E+0	9.868016E-1	1.070771E+0	9.953456E-1	1.090358E+0
2.950120E+2	1.056065E+0	1.121182E+0	1.092611E+0	1.101469E+0	1.155858E+0	1.111548E+0	1.099064E+0	1.114990E+0	1.126556E+0	1.061315E+0	1.197158E+0	1.124148E+0	1.139386E+0	1.068887E+0	1.056640E+0	1.102862E+0	1.134757E+0	1.150922E+0	1.110891E+0	1.150977E+0	1.086632E+0	1.112007E+0	1.157931E+0	1.093766E+0	1.098902E+0	1.107256E+0	1.130880E+0	1.159621E+0	1.141010E+0	1.152122E+0	1.116339E+0	1.085459E+0	1.125377E+0	1.127455E+0	1.099327E+0	1.075646E+0	1.129971E+0	1.088737E+0	1.080279E+0	1.117984E+0	1.128720E+0	1.146360E+0	1.075200E+0	1.143510E+0	1.137280E+0	1.186032E+0	1.113130E+0	1.114437E+0	1.215002E+0	1.139350E+0	1.114483E+0	1.137285E+0	1.161698E+0	1.143111E+0	1.093369E+0	1.188587E+0	1.071922E+0	1.106931E+0	1.129818E+0	1.107713E+0	1.089859E+0	1.107043E+0	1.078849E+0	1.161125E+0	1.125417E+0	1.116356E+0	1.158817E+0	1.089825E+0	1.131388E+0	1.118051E+0	1.124218E+0	1.060994E+0	1.151000E+0	1.090330E+0	1.139835E+0	1.140142E+0	1.230056E+0	1.184686E+0	1.145176E+0	1.061964E+0	1.116007E+0	1.126224E+0	1.115829E+0	1.094069E+0	1.092714E+0	1.124768E+0	1.164429E+0	1.160639E+0	1.176900E+0	1.088401E+0	1.121966E+0	1.141868E+0	1.130988E+0	1.127772E+0	1.204923E+0	1.111282E+0	1.152296E+0	1.100241E+0	1.068001E+0	1.133844E+0	1.175485E+0	1.162486E+0	1.099180E+0	1.109706E+0	1.152976E+0	1.137868E+0	1.110310E+0	1.146272E+0	1.095969E+0	1.157244E+0	1.109302E+0	1.166502E+0	1.153102E+0	1.171989E+0	1.142290E+0	1.169446E+0	1.176691E+0	1.117277E+0	1.210564E+0	1.114398E+0	1.052255E+0	1.160772E+0	1.172942E+0	1.130773E+0	1.191977E+0	1.146929E+0	1.161604E+0	1.144933E+0	1.137786E+0	1.155695E+0	1.162701E+0	1.158631E+0	1.134989E+0	1.166366E+0	1.209482E+0	1.153919E+0	1.101408E+0	1.175328E+0	1.193099E+0	1.202048E+0	1.125312E+0	1.122255E+0	1.190762E+0	1.135990E+0	1.171221E+0	1.097562E+0	1.074562E+0	1.100649E+0	1.156595E+0	1.138699E+0	1.166469E+0	1.082184E+0	1.139073E+0	1.137054E+0	1.084533E+0	1.119666E+0	1.112623E+0	1.149976E+0	1.147360E+0	1.067494E+0	1.081039E+0	1.134968E+0	1.143917E+0	1.072649E+0	1.174711E+0	1.139013E+0	1.098127E+0	1.175205E+0	1.123240E+0	1.209821E+0	1.198924E+0
2.955030E+2	1.198741E+0	1.211864E+0	1.296789E+0	1.203387E+0	1.244740E+0	1.258886E+0	1.178854E+0	1.144424E+0	1.223556E+0	1.179922E+0	1.200209E+0	1.198277E+0	1.275469E+0	1.201765E+0	1.214167E+0	1.196709E+0	1.208029E+0	1.166229E+0	1.165400E+0	1.197556E+0	1.175711E+0	1.183164E+0	1.263715E+0	1.261514E+0	1.268507E+0	1.178791E+0	1.207712E+0	1.235134E+0	1.204501E+0	1.145975E+0	1.184357E+0	1.191990E+0	1.227079E+0	1.217780E+0	1.193245E+0	1.194921E+0	1.258053E+0	1.182834E+0	1.221850E+0	1.205533E+0	1.177108E+0	1.197279E+0	1.219955E+0	1.180508E+0	1.244213E+0	1.220921E+0	1.256724E+0	1.257325E+0	1.231417E+0	1.291694E+0	1.205855E+0	1.202649E+0	1.201123E+0	1.267219E+0	1.219978E+0	1.216136E+0	1.209865E+0	1.208191E+0	1.236752E+0	1.231537E+0	1.254122E+0	1.163953E+0	1.221807E+0	1.232258E+0	1.240496E+0	1.184013E+0	1.345936E+0	1.216938E+0	1.211952E+0	1.197398E+0	1.242551E+0	1.218380E+0	1.136534E+0	1.165372E+0	1.183781E+0	1.162509E+0	1.190305E+0	1.211046E+0	1.255614E+0	1.243268E+0	1.265440E+0	1.239388E+0	1.151747E+0	1.143899E+0	1.184191E+0	1.174143E+0	1.188269E+0	1.217113E+0	1.209588E+0	1.175633E+0	1.316302E+0	1.220936E+0	1.206646E+0	1.254153E+0	1.311916E+0	1.224631E+0	1.177096E+0	1.172477E+0	1.231359E+0	1.258230E+0	1.251508E+0	1.247492E+0	1.212645E+0	1.246878E+0	1.237694E+0	1.234362E+0	1.219489E+0	1.156622E+0	1.206894E+0	1.244294E+0	1.317829E+0	1.243087E+0	1.216637E+0	1.223338E+0	1.219755E+0	1.258151E+0	1.279348E+0	1.202411E+0	1.202696E+0	1.192921E+0	1.191769E+0	1.184796E+0	1.220201E+0	1.209172E+0	1.211861E+0	1.184754E+0	1.276969E+0	1.251639E+0	1.197357E+0	1.183666E+0	1.245021E+0	1.257872E+0	1.142251E+0	1.201769E+0	1.243708E+0	1.250404E+0	1.221204E+0	1.209334E+0	1.222670E+0	1.238310E+0	1.256401E+0	1.118175E+0	1.195190E+0	1.273458E+0	1.274744E+0	1.230243E+0	1.174869E+0	1.230841E+0	1.213663E+0	1.206274E+0	1.216653E+0	1.205043E+0	1.219321E+0	1.183648E+0	1.177252E+0	1.167775E+0	1.221680E+0	1.270309E+0	1.203725E+0	1.217559E+0	1.143973E+0	1.217388E+0	1.228673E+0	1.211614E+0	1.260929E+0	1.199161E+0	1.249894E+0	1.247474E+0	1.227535E+0	1.298343E+0	1.300166E+0
2.960060E+2	1.118874E+0	1.152793E+0	1.156149E+0	1.133887E+0	1.191975E+0	1.156405E+0	1.123957E+0	1.103581E+0	1.127192E+0	1.141410E+0	1.162370E+0	1.118258E+0	1.156097E+0	1.111008E+0	1.136824E+0	1.155412E+0	1.122950E+0	1.160153E+0	1.136716E+0	1.149929E+0	1.111197E+0	1.175575E+0	1.146226E+0	1.189027E+0	1.128344E+0	1.109491E+0	1.152036E+0	1.036018E+0	1.099083E+0	1.137353E+0	1.152449E+0	1.138797E+0	1.128919E+0	1.161690E+0	1.167869E+0	1.136498E+0	1.149203E+0	1.074723E+0	1.201419E+0	1.150488E+0	1.109725E+0	1.105082E+0	1.116570E+0	1.126914E+0	1.123634E+0	1.130783E+0	1.144014E+0	1.106770E+0	1.204079E+0	1.135223E+0	1.139057E+0	1.124067E+0	1.140912E+0	1.144584E+0	1.160037E+0	1.213595E+0	1.208797E+0	1.164723E+0	1.187886E+0	1.183875E+0	1.138191E+0	1.234358E+0	1.148215E+0	1.127311E+0	1.159556E+0	1.137972E+0	1.176547E+0	1.218992E+0	1.139143E+0	1.077653E+0	1.125805E+0	1.083111E+0	1.167654E+0	1.140023E+0	1.114103E+0	1.162242E+0	1.141144E+0	1.166514E+0	1.178048E+0	1.125303E+0	1.159186E+0	1.167438E+0	1.087851E+0	1.114567E+0	1.081218E+0	1.211376E+0	1.200476E+0	1.149649E+0	1.153864E+0	1.157018E+0	1.190986E+0	1.121380E+0	1.206243E+0	1.159163E+0	1.178239E+0	1.128440E+0	1.098622E+0	1.100593E+0	1.113660E+0	1.152936E+0	1.135864E+0	1.184789E+0	1.135127E+0	1.101660E+0	1.156997E+0	1.121487E+0	1.133254E+0	1.087848E+0	1.138776E+0	1.203692E+0	1.139249E+0	1.194933E+0	1.161099E+0	1.150887E+0	1.123286E+0	1.189516E+0	1.102857E+0	1.143819E+0	1.147912E+0	1.125084E+0	1.134463E+0	1.168779E+0	1.201748E+0	1.109915E+0	1.128872E+0	1.099701E+0	1.202437E+0	1.188074E+0	1.177603E+0	1.164427E+0	1.143289E+0	1.150415E+0	1.096179E+0	1.106022E+0	1.149950E+0	1.196554E+0	1.121159E+0	1.188339E+0	1.097735E+0	1.114435E+0	1.205402E+0	1.132712E+0	1.141220E+0	1.203698E+0	1.178274E+0	1.200333E+0	1.166837E+0	1.127410E+0	1.150173E+0	1.106774E+0	1.194718E+0	1.110440E+0	1.099882E+0	1.111093E+0	1.122898E+0	1.083431E+0	1.187832E+0	1.189473E+0	1.126274E+0	1.108151E+0	1.195394E+0	1.124264E+0	1.089254E+0	1.108973E+0	1.152620E+0	1.159566E+0	1.180177E+0	1.123147E+0	1.162918E+0	1.173314E+0	9.874665E-1
2.965070E+2	9.068519E-1	8.560586E-1	8.456581E-1	9.112605E-1	9.200227E-1	8.938882E-1	8.477063E-1	8.970538E-1	8.475439E-1	8.570080E-1	8.933153E-1	8.678032E-1	8.745403E-1	7.948651E-1	8.755343E-1	9.132546E-1	8.484765E-1	8.555187E-1	8.881189E-1	8.881769E-1	8.961431E-1	8.345720E-1	9.438412E-1	9.010357E-1	9.083901E-1	8.497845E-1	9.476766E-1	8.552798E-1	8.905842E-1	8.953262E-1	8.961810E-1	8.895179E-1	9.501048E-1	9.426690E-1	8.897201E-1	8.904103E-1	8.687384E-1	9.082856E-1	8.943309E-1	9.208543E-1	9.030329E-1	8.809964E-1	8.880776E-1	9.020103E-1	8.960731E-1	8.986485E-1	9.059480E-1	8.708103E-1	9.304725E-1	9.063598E-1	8.388765E-1	9.355729E-1	8.536833E-1	9.269539E-1	8.821028E-1	9.154716E-1	8.618054E-1	8.378840E-1	9.135135E-1	8.870716E-1	8.802429E-1	8.857068E-1	8.703132E-1	8.979365E-1	8.914740E-1	9.126176E-1	9.413706E-1	9.049108E-1	9.778881E-1	8.880580E-1	9.309729E-1	9.107261E-1	8.768181E-1	8.836487E-1	9.213620E-1	9.273758E-1	8.611730E-1	9.328848E-1	8.795142E-1	8.753216E-1	9.153679E-1	8.525329E-1	9.464630E-1	8.725754E-1	8.519475E-1	9.419714E-1	9.077278E-1	8.754129E-1	9.437126E-1	8.441020E-1	9.068249E-1	8.646265E-1	9.113369E-1	9.015851E-1	8.802855E-1	8.936620E-1	8.028497E-1	8.739868E-1	9.196982E-1	8.878132E-1	9.137675E-1	8.659561E-1	9.151844E-1	9.367564E-1	8.504929E-1	9.291320E-1	9.026621E-1	8.114370E-1	9.372605E-1	9.168692E-1	9.476870E-1	9.064386E-1	9.350243E-1	9.122827E-1	9.206919E-1	8.848251E-1	8.982252E-1	8.479270E-1	9.197450E-1	9.030620E-1	8.329382E-1	8.847884E-1	9.290322E-1	8.830965E-1	8.804674E-1	9.263027E-1	8.900241E-1	9.761150E-1	9.012782E-1	8.465616E-1	8.754444E-1	9.167750E-1	8.994742E-1	8.668447E-1	8.732655E-1	8.826753E-1	8.538872E-1	8.856291E-1	8.718764E-1	9.001704E-1	8.743042E-1	8.724031E-1	9.156115E-1	8.715438E-1	8.919109E-1	8.777585E-1	9.272474E-1	8.580802E-1	9.222486E-1	9.153574E-1	8.775795E-1	8.641148E-1	9.127861E-1	8.972720E-1	9.352992E-1	8.911947E-1	9.482656E-1	9.182771E-1	9.071424E-1	8.703089E-1	9.039494E-1	9.108496E-1	9.291222E-1	8.516149E-1	9.320235E-1	8.272271E-1	9.124821E-1	9.494305E-1	8.693201E-1	9.055418E-1	1.079128E+0
2.970010E+2	9.162829E-1	9.094628E-1	8.656193E-1	8.784538E-1	8.305488E-1	8.603234E-1	8.706997E-1	8.536511E-1	9.135441E-1	8.342326E-1	9.391146E-1	8.880390E-1	9.217025E-1	8.517098E-1	9.036945E-1	8.516893E-1	8.567342E-1	8.592557E-1	9.085628E-1	8.512633E-1	8.597739E-1	8.657920E-1	8.849697E-1	8.823685E-1	8.892614E-1	8.863418E-1	8.559448E-1	9.132256E-1	8.928512E-1	8.512644E-1	8.819008E-1	8.272407E-1	8.801601E-1	8.528645E-1	8.823707E-1	8.770781E-1	8.905648E-1	8.198780E-1	8.331555E-1	8.964944E-1	8.557486E-1	8.809388E-1	8.814324E-1	8.798894E-1	8.820942E-1	8.475454E-1	8.777568E-1	8.839644E-1	9.234007E-1	8.454388E-1	8.995920E-1	8.158560E-1	8.442941E-1	8.937147E-1	8.968877E-1	9.007029E-1	8.568184E-1	8.700821E-1	8.995248E-1	8.945081E-1	8.235642E-1	8.700052E-1	8.865040E-1	8.357130E-1	8.658608E-1	8.651707E-1	9.095924E-1	8.889303E-1	8.824162E-1	8.760307E-1	9.150117E-1	8.315440E-1	8.939784E-1	8.756409E-1	8.806290E-1	8.568423E-1	8.884479E-1	8.838448E-1	8.809005E-1	8.812309E-1	8.762172E-1	8.934941E-1	8.963844E-1	8.699236E-1	8.495056E-1	8.722041E-1	8.926056E-1	9.219037E-1	8.524940E-1	9.122923E-1	9.162904E-1	8.330470E-1	8.960861E-1	8.686561E-1	8.884142E-1	8.864019E-1	8.881295E-1	8.430932E-1	8.821874E-1	7.972621E-1	8.844980E-1	8.327974E-1	8.764507E-1	8.541048E-1	8.519300E-1	9.408063E-1	9.257455E-1	8.554257E-1	8.973156E-1	8.672793E-1	8.414440E-1	9.049832E-1	8.326231E-1	8.759079E-1	8.305579E-1	9.064938E-1	9.253184E-1	8.522749E-1	8.866088E-1	8.315871E-1	8.571998E-1	8.579797E-1	9.236141E-1	8.443690E-1	8.346548E-1	8.477064E-1	8.803190E-1	8.383537E-1	8.860673E-1	8.697985E-1	8.908261E-1	8.900778E-1	8.490171E-1	8.822869E-1	9.118573E-1	8.763847E-1	8.677834E-1	8.816779E-1	8.546785E-1	9.107442E-1	8.634589E-1	8.536519E-1	8.797541E-1	8.880761E-1	9.078339E-1	9.282092E-1	8.690512E-1	8.776789E-1	8.931047E-1	8.501327E-1	8.785129E-1	8.438598E-1	8.137800E-1	9.062324E-1	8.086190E-1	9.204317E-1	8.894129E-1	8.885242E-1	9.016126E-1	8.704980E-1	8.722374E-1	8.855045E-1	8.691994E-1	8.539662E-1	9.217787E-1	9.142742E-1	8.796951E-1	8.599710E-1	9.217942E-1	8.397867E-1	8.891208E-1
2.975040E+2	9.602738E-1	9.522218E-1	9.724794E-1	9.898572E-1	9.559528E-1	9.463332E-1	9.221960E-1	8.900773E-1	9.437364E-1	9.623801E-1	1.008613E+0	9.378319E-1	1.005138E+0	9.828523E-1	9.489726E-1	9.500042E-1	9.430519E-1	9.564716E-1	9.562715E-1	9.379134E-1	9.581997E-1	9.594857E-1	9.453029E-1	9.828116E-1	9.305873E-1	9.488073E-1	9.323999E-1	9.149902E-1	9.347457E-1	9.691969E-1	9.576262E-1	9.114854E-1	9.783126E-1	9.263856E-1	9.577919E-1	9.446351E-1	9.717827E-1	9.766482E-1	9.890405E-1	9.534477E-1	1.001787E+0	9.482890E-1	9.812416E-1	9.643867E-1	9.630602E-1	9.331428E-1	9.283285E-1	9.306112E-1	9.076938E-1	9.212440E-1	9.302350E-1	9.840033E-1	9.576028E-1	9.288910E-1	9.423100E-1	9.696811E-1	9.575750E-1	9.776332E-1	9.775896E-1	9.383848E-1	9.668036E-1	9.378366E-1	9.416891E-1	9.607949E-1	9.337340E-1	9.604531E-1	9.336634E-1	9.497977E-1	9.184123E-1	9.599759E-1	9.512012E-1	9.420514E-1	9.389270E-1	9.260051E-1	9.454957E-1	9.723308E-1	9.351331E-1	9.445199E-1	9.613011E-1	9.305107E-1	9.869965E-1	9.794852E-1	9.782685E-1	9.545596E-1	9.829565E-1	9.571178E-1	9.582168E-1	9.469892E-1	9.561882E-1	9.328683E-1	9.787909E-1	9.697721E-1	9.894802E-1	9.929929E-1	1.007338E+0	9.125688E-1	9.823057E-1	9.705337E-1	9.205690E-1	9.825906E-1	9.442086E-1	9.295411E-1	9.509511E-1	9.868749E-1	9.499693E-1	9.432111E-1	9.641444E-1	9.149439E-1	9.205221E-1	9.536504E-1	9.222920E-1	9.670540E-1	9.483207E-1	9.574217E-1	1.005523E+0	9.760155E-1	9.545889E-1	9.649805E-1	9.592466E-1	9.675770E-1	9.744386E-1	9.437834E-1	9.061524E-1	9.849036E-1	9.868819E-1	9.708423E-1	9.386691E-1	9.888024E-1	9.577364E-1	9.581348E-1	9.643225E-1	9.646374E-1	9.086362E-1	9.470425E-1	9.695749E-1	1.006819E+0	9.641400E-1	9.635938E-1	9.662209E-1	9.293957E-1	9.739757E-1	9.264941E-1	9.799771E-1	9.779530E-1	9.485505E-1	9.331438E-1	9.359411E-1	9.674523E-1	9.613997E-1	9.141821E-1	9.344079E-1	9.633711E-1	9.569746E-1	9.749083E-1	9.596659E-1	9.641199E-1	9.651561E-1	9.624819E-1	9.145781E-1	9.558674E-1	9.690511E-1	9.708511E-1	9.377054E-1	9.837817E-1	9.688370E-1	9.436331E-1	9.303100E-1	8.793618E-1	9.324346E-1	9.553071E-1	8.683209E-1
2.980010E+2	1.092805E+0	1.056790E+0	1.097291E+0	1.051549E+0	1.121400E+0	1.085285E+0	1.087762E+0	1.083805E+0	1.059032E+0	1.061083E+0	1.058568E+0	1.113295E+0	1.075386E+0	1.076315E+0	1.065092E+0	1.070212E+0	1.048669E+0	1.123916E+0	1.051202E+0	1.134468E+0	1.083192E+0	1.085468E+0	1.068936E+0	1.036816E+0	1.137607E+0	1.085378E+0	1.122591E+0	1.111660E+0	1.103242E+0	1.071136E+0	1.095592E+0	1.108331E+0	1.090850E+0	1.068521E+0	1.080752E+0	1.126892E+0	1.071515E+0	1.091449E+0	1.080823E+0	1.058994E+0	1.050412E+0	1.042284E+0	1.099247E+0	1.084783E+0	1.090425E+0	1.088889E+0	1.078781E+0	1.072328E+0	1.131674E+0	1.114831E+0	1.098384E+0	1.077555E+0	1.109693E+0	1.066874E+0	1.082727E+0	1.062268E+0	1.119186E+0	1.102734E+0	1.100928E+0	1.080221E+0	1.112851E+0	1.097931E+0	1.091484E+0	1.098902E+0	1.046234E+0	1.075425E+0	1.016470E+0	1.081942E+0	1.083059E+0	1.055026E+0	1.067205E+0	1.063724E+0	1.104512E+0	1.030033E+0	1.067221E+0	1.067836E+0	1.092296E+0	1.059930E+0	1.059367E+0	1.080427E+0	1.081198E+0	1.046472E+0	1.067683E+0	1.055567E+0	1.088306E+0	1.077447E+0	1.079097E+0	1.052818E+0	1.081454E+0	1.074299E+0	1.063351E+0	1.074520E+0	1.090321E+0	1.096143E+0	1.047627E+0	1.087758E+0	1.031467E+0	1.058169E+0	1.082025E+0	1.037272E+0	1.036842E+0	1.038898E+0	1.067582E+0	1.056258E+0	1.081423E+0	1.122301E+0	1.028181E+0	1.089115E+0	1.098114E+0	1.126979E+0	1.124930E+0	1.074216E+0	1.079168E+0	1.056150E+0	1.052863E+0	1.061910E+0	1.038290E+0	1.045987E+0	1.097282E+0	1.103291E+0	1.085211E+0	1.073519E+0	1.083472E+0	1.049512E+0	1.112928E+0	1.092178E+0	1.093224E+0	1.067720E+0	1.104820E+0	1.053692E+0	1.079045E+0	1.075513E+0	1.089228E+0	1.105191E+0	1.115492E+0	1.060616E+0	1.061666E+0	1.059839E+0	1.082637E+0	1.110170E+0	1.048241E+0	1.094578E+0	1.090469E+0	1.057229E+0	1.089089E+0	1.066251E+0	1.089241E+0	1.077827E+0	1.045266E+0	1.098752E+0	1.074196E+0	1.095332E+0	1.059768E+0	1.033223E+0	1.080822E+0	1.057430E+0	1.025371E+0	1.093772E+0	1.121996E+0	1.083894E+0	1.061395E+0	1.086603E+0	1.039752E+0	1.010337E+0	1.076196E+0	1.089833E+0	1.070622E+0	1.055530E+0	1.060878E+0	1.072610E+0	1.088479E+0
2.985010E+2	1.183290E+0	1.215526E+0	1.182033E+0	1.119121E+0	1.208097E+0	1.130462E+0	1.164649E+0	1.207453E+0	1.217706E+0	1.200013E+0	1.146185E+0	1.119663E+0	1.208045E+0	1.153588E+0	1.190105E+0	1.182208E+0	1.223323E+0	1.134814E+0	1.118794E+0	1.123069E+0	1.152107E+0	1.158531E+0	1.217635E+0	1.199605E+0	1.150094E+0	1.189536E+0	1.138159E+0	1.183341E+0	1.149825E+0	1.165448E+0	1.200347E+0	1.192156E+0	1.183808E+0	1.157188E+0	1.186159E+0	1.124344E+0	1.187228E+0	1.147055E+0	1.205641E+0	1.131901E+0	1.131287E+0	1.192793E+0	1.162303E+0	1.180365E+0	1.143715E+0	1.158796E+0	1.160204E+0	1.217142E+0	1.160133E+0	1.199617E+0	1.151841E+0	1.130886E+0	1.130397E+0	1.259368E+0	1.178579E+0	1.209460E+0	1.105646E+0	1.178801E+0	1.152745E+0	1.185161E+0	1.129896E+0	1.185371E+0	1.206087E+0	1.180209E+0	1.185415E+0	1.186636E+0	1.149705E+0	1.200015E+0	1.161013E+0	1.152245E+0	1.173695E+0	1.244066E+0	1.141463E+0	1.190169E+0	1.152404E+0	1.159120E+0	1.201522E+0	1.172667E+0	1.137101E+0	1.132747E+0	1.164926E+0	1.164346E+0	1.152145E+0	1.181005E+0	1.153431E+0	1.146753E+0	1.165041E+0	1.170771E+0	1.138257E+0	1.186830E+0	1.193020E+0	1.168147E+0	1.155273E+0	1.151698E+0	1.208832E+0	1.142677E+0	1.172366E+0	1.159304E+0	1.167110E+0	1.182540E+0	1.171518E+0	1.203455E+0	1.188024E+0	1.150819E+0	1.122538E+0	1.162351E+0	1.186152E+0	1.162703E+0	1.203972E+0	1.139576E+0	1.152146E+0	1.130552E+0	1.223788E+0	1.195617E+0	1.162226E+0	1.138700E+0	1.160352E+0	1.153212E+0	1.161130E+0	1.138606E+0	1.136146E+0	1.187656E+0	1.179326E+0	1.161757E+0	1.160954E+0	1.174391E+0	1.157763E+0	1.212832E+0	1.153724E+0	1.150070E+0	1.142198E+0	1.163681E+0	1.163608E+0	1.158957E+0	1.127596E+0	1.197223E+0	1.167102E+0	1.170875E+0	1.146622E+0	1.139998E+0	1.127861E+0	1.177011E+0	1.136250E+0	1.225176E+0	1.173641E+0	1.157025E+0	1.139052E+0	1.150033E+0	1.181755E+0	1.179243E+0	1.152252E+0	1.199589E+0	1.152090E+0	1.168707E+0	1.165558E+0	1.163749E+0	1.200474E+0	1.167618E+0	1.203407E+0	1.144269E+0	1.147976E+0	1.143339E+0	1.169783E+0	1.196725E+0	1.190686E+0	1.182119E+0	1.150623E+0	1.195700E+0	1.152250E+0	1.176784E+0	1.152929E+0
2.990020E+2	1.019794E+0	1.020258E+0	1.023558E+0	1.029378E+0	9.946027E-1	1.027832E+0	1.052319E+0	1.069870E+0	1.063002E+0	1.022757E+0	1.020021E+0	1.062933E+0	1.009938E+0	9.875555E-1	1.011783E+0	1.064098E+0	9.999961E-1	9.968002E-1	1.049451E+0	1.040524E+0	1.001561E+0	1.025094E+0	1.042673E+0	1.010489E+0	1.026824E+0	1.045686E+0	1.058650E+0	1.004636E+0	9.924711E-1	1.059898E+0	1.039676E+0	1.038175E+0	1.050387E+0	1.082903E+0	1.061648E+0	1.025532E+0	1.045956E+0	1.050007E+0	1.013907E+0	1.052121E+0	1.049345E+0	1.072298E+0	1.016999E+0	1.046120E+0	1.017787E+0	1.051150E+0	1.070443E+0	1.020627E+0	1.002761E+0	1.011346E+0	1.016165E+0	1.012545E+0	1.013698E+0	1.018552E+0	1.005150E+0	1.011900E+0	1.039537E+0	1.013413E+0	1.052924E+0	1.025042E+0	9.982556E-1	1.053361E+0	9.843706E-1	9.971580E-1	1.049593E+0	1.019256E+0	1.088569E+0	1.011557E+0	1.081025E+0	1.038386E+0	1.023318E+0	1.014882E+0	1.008165E+0	1.057870E+0	1.067877E+0	1.024862E+0	1.003702E+0	1.049429E+0	1.028197E+0	1.044571E+0	1.045678E+0	1.004566E+0	1.056983E+0	9.974316E-1	1.020010E+0	1.005600E+0	1.047201E+0	9.909847E-1	1.024413E+0	1.035623E+0	9.932121E-1	1.020683E+0	1.010453E+0	1.017481E+0	1.004768E+0	1.051799E+0	1.035440E+0	1.049658E+0	1.080123E+0	1.034977E+0	1.045774E+0	1.061458E+0	1.017716E+0	1.029218E+0	1.043440E+0	1.001635E+0	1.041540E+0	1.053606E+0	1.051441E+0	1.047599E+0	1.046048E+0	1.063518E+0	1.057276E+0	9.910765E-1	1.018618E+0	1.062443E+0	1.105853E+0	1.046903E+0	1.027354E+0	1.091881E+0	1.019105E+0	9.700186E-1	1.045230E+0	9.964948E-1	9.726284E-1	1.015345E+0	1.061879E+0	9.939850E-1	1.025453E+0	1.071844E+0	1.045975E+0	1.020708E+0	1.046206E+0	1.034533E+0	1.029385E+0	9.921541E-1	1.051879E+0	1.032531E+0	1.052358E+0	1.027382E+0	1.028825E+0	1.050486E+0	1.027323E+0	1.033424E+0	1.047850E+0	1.057662E+0	1.033562E+0	1.029905E+0	1.010188E+0	1.002171E+0	1.036873E+0	1.033063E+0	1.011636E+0	1.069641E+0	1.047070E+0	1.057725E+0	1.037773E+0	1.050454E+0	1.017039E+0	1.037704E+0	1.059640E+0	1.052309E+0	1.057388E+0	1.041589E+0	1.019149E+0	1.010998E+0	1.070889E+0	1.065385E+0	1.056771E+0	1.041856E+0	1.100620E+0
2.995020E+2	8.437437E-1	8.682019E-1	8.809863E-1	8.943544E-1	8.830216E-1	9.225121E-1	9.029905E-1	8.274248E-1	8.375394E-1	8.821335E-1	8.702056E-1	8.660259E-1	8.528556E-1	9.191136E-1	9.098237E-1	8.477924E-1	8.961104E-1	9.305157E-1	9.188377E-1	8.743859E-1	9.157153E-1	8.875960E-1	8.549175E-1	8.796491E-1	8.658934E-1	8.428423E-1	8.719645E-1	8.651302E-1	8.947455E-1	8.535093E-1	8.619052E-1	8.442040E-1	8.368321E-1	8.571952E-1	8.827001E-1	8.755119E-1	8.410861E-1	8.579956E-1	8.731358E-1	8.987487E-1	8.505319E-1	8.613794E-1	8.687981E-1	8.744924E-1	8.751936E-1	8.901268E-1	8.671553E-1	8.788422E-1	8.582274E-1	9.235060E-1	9.224813E-1	9.001266E-1	8.906225E-1	9.042991E-1	9.259917E-1	8.644780E-1	8.977953E-1	8.585390E-1	8.939703E-1	8.726149E-1	8.922224E-1	8.663137E-1	8.881276E-1	8.839139E-1	8.982088E-1	8.756650E-1	9.134089E-1	8.819058E-1	8.554506E-1	8.843594E-1	8.587023E-1	8.720046E-1	9.048040E-1	9.149362E-1	8.928139E-1	8.735892E-1	8.639963E-1	9.078008E-1	8.928271E-1	8.920308E-1	8.152856E-1	8.784888E-1	8.638679E-1	9.081275E-1	8.992997E-1	8.870654E-1	8.640779E-1	9.327282E-1	8.800180E-1	8.889603E-1	9.008314E-1	8.873495E-1	8.918420E-1	8.582843E-1	8.485761E-1	8.772700E-1	8.555266E-1	8.653927E-1	8.482769E-1	8.673193E-1	8.992514E-1	8.935373E-1	9.021870E-1	9.011939E-1	9.102493E-1	8.732711E-1	9.082353E-1	9.024125E-1	8.442820E-1	8.681988E-1	8.942039E-1	8.609726E-1	8.452905E-1	8.937818E-1	8.787692E-1	8.589045E-1	8.490909E-1	9.099931E-1	8.388971E-1	8.738332E-1	8.743802E-1	8.973213E-1	9.053182E-1	9.037987E-1	9.133905E-1	8.418138E-1	8.954336E-1	8.757771E-1	8.433447E-1	8.763192E-1	8.793423E-1	8.682412E-1	8.956842E-1	8.759766E-1	8.797109E-1	8.702213E-1	8.700731E-1	8.694048E-1	8.543523E-1	8.985758E-1	8.812538E-1	9.131323E-1	8.909190E-1	8.377757E-1	8.792456E-1	8.909497E-1	9.162095E-1	8.950721E-1	8.998660E-1	9.158049E-1	8.956782E-1	8.465138E-1	8.578087E-1	8.637075E-1	8.627977E-1	8.655549E-1	8.506415E-1	8.362296E-1	8.665998E-1	8.730590E-1	8.771059E-1	8.398187E-1	8.702218E-1	9.013217E-1	8.935062E-1	8.630827E-1	9.080348E-1	8.935692E-1	9.275887E-1	9.016783E-1	9.159000E-1
3.000060E+2	9.000929E-1	8.870019E-1	8.436529E-1	9.157404E-1	8.369253E-1	8.875756E-1	8.700840E-1	9.213704E-1	8.789849E-1	8.716337E-1	8.964076E-1	9.002514E-1	8.486381E-1	8.805752E-1	8.742228E-1	8.856850E-1	8.888497E-1	8.574822E-1	9.054437E-1	8.896396E-1	8.892251E-1	8.838247E-1	8.705362E-1	8.906300E-1	8.889937E-1	8.877506E-1	8.762353E-1	9.202423E-1	9.249711E-1	8.808117E-1	8.448543E-1	9.056482E-1	8.598108E-1	9.078069E-1	8.309496E-1	9.030843E-1	8.824320E-1	8.768452E-1	8.374516E-1	9.047875E-1	9.166373E-1	8.829568E-1	8.714103E-1	8.498525E-1	9.098194E-1	8.778956E-1	8.950881E-1	8.804494E-1	9.395115E-1	8.294563E-1	8.808933E-1	8.948836E-1	8.979874E-1	8.220160E-1	8.652419E-1	8.822128E-1	8.802601E-1	8.688794E-1	8.218419E-1	8.985771E-1	8.999711E-1	8.591874E-1	8.882420E-1	8.790221E-1	8.868156E-1	8.825655E-1	8.981842E-1	8.747826E-1	9.010404E-1	9.100077E-1	9.258786E-1	8.632720E-1	9.021290E-1	8.809857E-1	8.741884E-1	9.022624E-1	9.033499E-1	8.656529E-1	9.212067E-1	9.197132E-1	9.059163E-1	9.266431E-1	8.810533E-1	9.033089E-1	8.559973E-1	9.260167E-1	8.863660E-1	9.057095E-1	9.196702E-1	8.814194E-1	8.707949E-1	8.795284E-1	8.626311E-1	8.834010E-1	8.828597E-1	9.279263E-1	9.228938E-1	8.969422E-1	9.018954E-1	8.953011E-1	9.024057E-1	8.731110E-1	8.735406E-1	8.756368E-1	8.923801E-1	8.972308E-1	8.717474E-1	8.772198E-1	8.816685E-1	8.639970E-1	8.603804E-1	9.036879E-1	8.461571E-1	9.059522E-1	8.820012E-1	9.020267E-1	8.918255E-1	8.789244E-1	9.160900E-1	8.248124E-1	9.107192E-1	9.277016E-1	8.805009E-1	9.035340E-1	8.532173E-1	9.054299E-1	8.530313E-1	8.608843E-1	9.149217E-1	8.899397E-1	8.891177E-1	9.072194E-1	8.966375E-1	8.783000E-1	8.782412E-1	8.729670E-1	8.851396E-1	9.037565E-1	8.978103E-1	8.944792E-1	9.398425E-1	8.382984E-1	8.750622E-1	8.684432E-1	8.616246E-1	8.949687E-1	8.859949E-1	8.797113E-1	9.015254E-1	8.898473E-1	9.065932E-1	8.621312E-1	9.617234E-1	8.898127E-1	8.840868E-1	8.914213E-1	9.205844E-1	8.894447E-1	8.763787E-1	9.052065E-1	8.848315E-1	9.070785E-1	9.251493E-1	8.662458E-1	8.516258E-1	9.103342E-1	8.695207E-1	9.104546E-1	8.700776E-1	8.517641E-1	8.737520E-1
